Photon Energy (eV)	#1	#2	#3	#4	#5	#6	#7	#8	#9	#10	#11	#12	#13	#14	#15	#16	#17	#18	#19	#20	#21	#22	#23	#24	#25	#26	#27	#28	#29	#30	#31	#32	#33	#34	#35	#36	#37	#38	#39	#40	#41	#42	#43	#44	#45	#46	#47	#48	#49	#50	#51	#52	#53	#54	#55	#56	#57	#58	#59	#60	#61	#62	#63	#64	#65	#66	#67	#68	#69	#70	#71	#72	#73	#74	#75	#76	#77	#78	#79	#80	#81	#82	#83	#84	#85	#86	#87	#88	#89	#90	#91	#92	#93	#94	#95	#96	#97	#98	#99	#100	#101	#102	#103	#104	#105	#106	#107	#108	#109	#110	#111	#112	#113	#114	#115	#116	#117	#118	#119	#120	#121	#122	#123	#124	#125	#126	#127	#128	#129	#130	#131	#132	#133	#134	#135	#136	#137	#138	#139	#140	#141	#142	#143	#144	#145	#146	#147	#148	#149	#150	#151	#152	#153	#154	#155	#156	#157	#158	#159	#160	#161	#162	#163	#164	#165	#166	#167	#168	#169	#170	
5.300220E+2	-1.265006E-2	-1.985339E-4	-1.255936E-2	-1.425321E-2	-2.110823E-3	-8.350743E-4	-4.830876E-3	-6.496142E-3	6.052312E-4	-7.963176E-3	-2.514984E-4	-1.137224E-2	-5.805698E-3	-3.820081E-3	-8.680901E-4	-3.477229E-3	-3.139786E-3	-1.621014E-2	-6.688971E-3	-1.090509E-2	-3.799923E-3	-6.734718E-3	-1.031069E-2	-5.146950E-3	-1.546485E-2	-8.250692E-3	-6.811758E-3	-5.266649E-3	-6.844134E-3	-1.479417E-2	-8.713096E-3	-2.475146E-3	-7.073169E-3	-7.763790E-3	-7.278945E-3	-1.066000E-2	-7.961186E-3	-8.976834E-3	-4.912293E-3	3.585410E-4	-1.399368E-2	-2.262380E-3	-1.213279E-2	-8.081763E-3	-4.897252E-3	-4.591490E-3	-8.181238E-3	-9.427703E-3	-4.781283E-3	-5.011446E-3	-1.341548E-2	-7.815673E-3	-3.028730E-3	-4.469741E-3	1.535326E-3	-1.169334E-2	-2.907831E-3	1.243951E-3	-3.268537E-3	-6.205289E-3	-6.334394E-3	-1.377946E-3	-3.967861E-3	-8.617664E-3	-6.389960E-3	-6.142634E-3	-6.189885E-3	-1.370757E-2	-9.759904E-3	-3.402037E-3	-1.528493E-2	-1.642340E-3	-6.728866E-4	-8.714894E-3	-1.041888E-2	-5.838397E-4	-9.682906E-3	-1.968119E-3	-9.022976E-4	-3.468747E-3	-6.369099E-3	-1.034741E-2	-8.352758E-3	2.506357E-3	-2.073886E-3	-9.739817E-3	-7.195909E-3	-1.045213E-2	-2.471652E-3	3.400689E-3	-5.794734E-3	-5.553146E-3	-7.267950E-3	-8.005568E-3	-1.264817E-2	-1.191294E-2	-7.577468E-3	-1.497434E-3	-1.326386E-3	-9.226297E-4	-1.109978E-2	-9.526694E-3	-8.969984E-3	-1.051553E-2	-5.613683E-3	-6.994987E-3	-1.081538E-2	-1.118677E-2	-4.832918E-3	-5.466753E-3	-1.158000E-2	-6.329853E-3	9.336151E-4	-4.059166E-3	1.459805E-3	4.060546E-4	-2.275747E-3	-2.634705E-3	-9.157410E-3	1.858744E-3	-3.595285E-3	-2.635063E-3	-9.974119E-3	-6.882685E-3	-5.979311E-3	-8.218372E-3	9.692914E-5	-3.041541E-3	-6.482597E-3	-2.530459E-3	-1.182055E-2	-1.051537E-2	-6.084590E-3	-4.995976E-3	-6.003426E-3	3.192621E-3	-2.388576E-3	-1.008297E-2	-8.143508E-3	-1.310407E-2	-5.632076E-3	-6.222643E-3	-1.261295E-2	-4.038270E-3	-7.669058E-3	-5.120435E-3	-1.666587E-3	-6.450529E-3	-1.467655E-2	-9.413666E-3	-7.704475E-3	-5.472061E-3	-8.703694E-3	-2.918723E-3	-1.413365E-3	-9.018166E-3	3.072562E-3	4.811752E-4	-2.669827E-3	-3.607815E-3	-5.065111E-3	-3.119177E-3	-4.864370E-3	-4.295476E-3	-5.423479E-3	-1.034978E-2	-2.936938E-3	-1.960292E-3	-1.725999E-2	-1.270403E-2
5.305130E+2	-5.663617E-3	-8.263232E-3	-4.532973E-3	2.607221E-3	-6.691967E-3	-4.632873E-3	-5.695945E-3	-2.526750E-3	1.782375E-3	1.234473E-3	2.759179E-3	-4.586098E-3	-6.146796E-3	-3.207183E-3	-6.163662E-3	-6.891492E-3	-3.955151E-3	6.474275E-3	-7.031115E-3	-2.002065E-3	-4.611483E-3	-4.105628E-3	-3.309892E-3	5.749589E-4	-8.659635E-3	-9.534396E-3	-8.145043E-3	-9.670571E-3	-2.693497E-3	-1.289394E-4	-1.345178E-2	-7.982525E-3	-8.333541E-3	7.527479E-3	-9.485948E-3	-6.284648E-3	-1.025994E-2	-3.408589E-3	-3.305158E-3	-7.621128E-3	-1.984248E-4	-3.618343E-3	1.796466E-3	-6.817059E-3	-5.228570E-3	-7.478743E-3	-7.980571E-3	-3.245037E-3	-1.654987E-3	-2.896917E-3	-9.794578E-3	-1.167779E-2	-3.846182E-3	-6.376591E-3	-2.625713E-4	-2.754893E-3	-1.336299E-2	-1.097657E-2	-5.296941E-3	-6.617231E-4	-6.150465E-3	4.827351E-4	-4.302184E-3	-7.950576E-3	-2.073912E-3	-1.175941E-3	5.392391E-3	-5.041158E-3	-2.196925E-3	-1.024307E-2	6.737337E-4	-5.338847E-3	-5.141407E-3	-1.891193E-3	-8.403084E-3	-6.651209E-3	-7.528526E-3	-9.048836E-3	-3.706769E-3	-2.747038E-3	-6.680594E-3	-2.617846E-3	-9.230379E-3	-1.365732E-3	-2.967006E-3	4.473619E-3	-8.929614E-3	-2.224933E-3	-4.746318E-3	-1.109270E-2	1.015778E-2	-8.824191E-3	-4.064383E-3	-1.088849E-3	-4.229217E-3	-8.627197E-3	1.222401E-3	-7.223453E-3	-9.691118E-3	-2.434805E-3	1.087403E-3	6.160145E-6	-2.646016E-3	-6.628038E-3	-2.102538E-3	-1.973052E-3	-2.114137E-3	-8.504649E-3	-5.126331E-3	4.056368E-4	9.167501E-4	-2.685455E-3	-1.224431E-2	-8.146462E-3	2.149655E-3	-1.462258E-2	-5.091854E-3	-6.037817E-3	-6.838038E-4	-5.964003E-3	-9.851296E-3	-1.003695E-2	-1.240413E-2	-2.517092E-3	-5.357074E-3	4.588440E-3	-7.752914E-3	-6.778071E-3	7.351111E-3	-3.596717E-3	-6.442750E-3	3.115866E-3	-1.254177E-4	3.332732E-4	1.767832E-3	-7.500040E-3	-8.050397E-3	-3.329044E-3	-7.317784E-3	-3.873681E-3	-5.934982E-3	-1.098183E-2	3.335575E-3	-4.845283E-3	-5.393015E-3	4.409338E-3	-4.275698E-3	-1.406950E-3	-4.418241E-3	2.876500E-3	4.091579E-3	-3.528249E-3	-6.304638E-3	-5.088944E-3	-2.339107E-4	-3.006735E-3	2.443711E-4	1.548644E-3	4.407814E-3	-7.917162E-3	-6.497692E-3	-5.696945E-3	-9.417037E-3	2.223705E-3	-3.288668E-3	-1.121224E-2	-4.548493E-3	-5.947319E-3	4.194399E-3	-2.319491E-3
5.310150E+2	5.758719E-3	-4.319733E-3	-5.139173E-3	-1.190482E-2	-3.115106E-3	-5.751309E-3	-4.756171E-3	2.274298E-3	-5.460084E-3	-3.360410E-3	-8.165289E-3	-5.713121E-3	-5.702936E-3	-2.368101E-3	2.195039E-3	1.519747E-3	2.381715E-3	-5.691915E-3	9.771806E-3	-2.675820E-3	1.584051E-3	-3.706357E-3	-2.875500E-3	-6.781732E-3	6.005117E-3	-7.832861E-4	-5.705574E-3	-3.647239E-3	-2.523512E-5	1.371219E-3	-2.561363E-3	-2.795252E-3	3.091225E-3	-4.250464E-3	-2.821070E-3	-8.497691E-3	-8.724694E-4	-2.489938E-3	-6.748282E-3	8.895055E-5	-1.222783E-2	-3.748595E-3	-2.879252E-3	-2.623775E-3	-4.280915E-3	-7.089825E-3	-3.850027E-3	-3.237473E-3	2.238333E-3	-4.921926E-3	6.217696E-3	7.688590E-3	-7.802339E-3	-1.011392E-2	-9.790458E-3	-1.881554E-3	-8.596771E-4	4.454486E-3	-9.334527E-3	-2.567724E-3	-8.668310E-3	-1.366799E-3	-4.393114E-3	4.097898E-3	6.920789E-4	-9.323315E-3	-7.833916E-3	-9.137534E-3	2.712455E-3	-9.357402E-3	-5.311433E-3	-4.937644E-3	1.290987E-3	-7.824169E-3	2.977025E-3	-5.056465E-3	6.230511E-3	2.931814E-3	-5.820372E-3	-4.448920E-3	-9.191063E-3	6.099991E-3	-3.332341E-3	-7.493633E-3	5.107707E-3	-1.214034E-2	2.895129E-3	-4.480785E-3	4.508709E-3	-5.971739E-3	-7.812841E-3	-1.291790E-3	-5.355423E-3	-1.538652E-3	-3.325613E-3	-7.723076E-3	7.460771E-3	-9.887635E-4	-2.930627E-3	-6.229460E-3	-7.395210E-3	-4.806803E-3	-6.821521E-3	-2.065287E-3	6.677662E-3	-2.158216E-3	-5.828286E-3	-5.179429E-3	-5.976482E-4	-4.509549E-3	-5.245530E-3	-1.242696E-3	-7.799258E-4	2.445781E-3	-7.159197E-3	-2.896805E-3	-3.658714E-3	-2.827587E-3	-3.646907E-3	-3.176850E-3	4.993389E-4	-5.827000E-3	7.270846E-3	-3.146380E-4	-6.286052E-3	-5.102881E-3	-1.606615E-3	-5.403666E-3	-1.149667E-2	-2.904480E-3	-1.843371E-3	2.515285E-3	-7.423248E-3	-2.369004E-3	-4.346744E-3	-1.037980E-2	-1.731283E-3	-4.879211E-3	-1.769306E-3	-5.670206E-3	-4.244639E-4	-6.307334E-4	-2.988779E-3	4.821680E-3	-2.303766E-3	-8.313789E-3	2.413198E-3	-7.435327E-3	-4.433252E-3	-6.485427E-3	-3.679130E-4	-3.073095E-3	9.476876E-3	-1.273753E-2	-5.187152E-3	5.035643E-3	-1.888155E-2	-9.032712E-3	-6.519494E-3	-6.490409E-3	-4.638015E-4	-4.817820E-3	2.274891E-4	-4.782130E-3	7.252013E-4	4.529417E-3	-8.652933E-3	2.589522E-3	-4.982429E-3	1.017284E-2
5.315130E+2	6.153578E-3	2.694768E-3	2.149169E-3	-6.157445E-4	2.196730E-3	-4.921033E-3	-2.272819E-3	-2.549515E-3	-1.083163E-2	-1.521901E-3	-6.698204E-3	3.811225E-3	2.399263E-3	-1.598464E-3	-8.860120E-3	-2.595620E-3	-7.369597E-4	-3.779749E-4	-6.262375E-3	8.164809E-3	-1.917043E-3	-2.888673E-3	-2.020301E-3	3.204353E-3	5.318296E-3	5.800237E-4	-4.338898E-3	4.992549E-3	3.315207E-4	4.363045E-3	4.520239E-3	-3.740838E-3	5.767197E-4	-5.910059E-3	-2.982310E-3	7.749329E-4	3.022802E-3	-2.143111E-3	-4.523102E-3	8.913862E-4	6.351810E-3	9.185381E-3	-1.943013E-3	-4.958590E-3	3.565159E-3	-5.328898E-4	8.289843E-3	1.941528E-3	2.594123E-3	3.301897E-3	-6.350958E-3	-3.814810E-3	-3.581705E-3	3.332904E-3	1.077067E-3	-6.444216E-4	-3.876740E-3	3.761977E-3	6.740136E-3	-4.608436E-3	3.323591E-3	-9.056113E-3	-8.709798E-3	4.495124E-3	-2.486947E-3	-2.537643E-3	-9.253404E-3	-4.300961E-3	2.098201E-3	5.651840E-3	1.487954E-3	2.682802E-3	7.323423E-4	6.877287E-3	4.566304E-4	-2.388394E-3	2.675856E-3	7.719344E-3	6.188181E-3	3.932493E-3	3.939473E-3	-5.527807E-3	8.971409E-4	4.358964E-4	-5.534616E-4	7.289437E-3	-1.983838E-3	-9.533933E-4	4.237950E-4	5.766678E-4	2.678977E-3	4.455874E-3	6.161411E-3	1.107065E-3	-1.987199E-3	1.359459E-3	-7.830293E-3	-6.581625E-3	-4.435539E-3	2.150039E-3	1.935896E-3	3.662821E-3	-2.438235E-3	-2.308945E-3	-2.959348E-3	-6.658654E-3	-9.853904E-5	8.335099E-3	2.623813E-4	1.486426E-3	1.245536E-3	-1.819367E-3	8.854320E-4	-8.409672E-4	2.570466E-3	4.371584E-3	7.930444E-4	4.999100E-3	7.043327E-4	-4.218935E-3	-4.126338E-3	-5.473743E-4	5.429263E-3	1.271063E-3	6.847625E-4	-5.193685E-3	1.369296E-3	3.912398E-3	1.996992E-3	2.572602E-4	-4.056246E-3	-3.577894E-4	3.725289E-3	3.513801E-3	3.719801E-3	1.396774E-3	-1.341705E-3	5.743089E-3	9.890296E-3	9.294324E-4	-2.346965E-3	3.330697E-4	9.567838E-4	-5.482150E-3	1.994480E-4	-3.727935E-3	-1.159130E-3	-2.720262E-3	-1.436205E-4	-1.477741E-3	-4.446772E-3	-4.131231E-4	-5.366529E-4	3.863544E-3	3.768081E-4	-5.067736E-3	-7.207698E-3	5.513720E-4	8.840252E-4	8.040060E-3	-5.685415E-3	2.167015E-4	2.468648E-3	-1.256595E-2	-7.428881E-3	7.075763E-3	4.086682E-3	-1.442765E-3	1.381020E-2	-1.114852E-2
5.320220E+2	2.848208E-4	-9.309125E-4	6.324645E-3	1.497429E-2	2.735376E-3	8.821150E-3	1.034773E-2	4.755722E-4	-5.700932E-3	1.989624E-3	6.470638E-3	6.843749E-3	1.055762E-2	1.121618E-3	2.095002E-3	6.292579E-5	2.706592E-3	1.176486E-2	1.118624E-3	2.069640E-3	-1.469551E-3	6.968819E-3	7.331887E-3	6.242578E-3	2.510072E-3	6.489805E-3	5.837870E-3	8.596761E-3	-1.053548E-3	1.294178E-4	8.411285E-3	2.348696E-3	8.262903E-3	-1.408834E-5	9.539873E-4	1.178800E-2	5.998705E-3	1.319858E-2	6.579184E-3	4.572061E-4	1.086899E-2	-5.055528E-3	7.266044E-3	2.041188E-2	3.018015E-4	-5.766026E-5	2.892244E-3	1.471894E-3	-3.786487E-4	-2.169890E-3	6.015904E-3	6.494865E-3	5.185408E-3	9.578513E-3	-8.070232E-3	-2.275832E-4	1.933072E-3	-3.328474E-3	4.431903E-3	9.089415E-3	5.718731E-3	1.133260E-2	6.251928E-3	-4.396569E-4	-3.129363E-3	4.433878E-3	-4.076119E-3	1.096276E-2	2.052913E-3	2.055521E-3	9.434004E-3	-3.538804E-4	-8.159323E-3	-1.139469E-4	9.120888E-3	6.164025E-3	-8.520851E-4	-2.997327E-3	-5.548967E-3	3.338868E-3	4.462156E-3	9.045736E-3	1.077068E-2	5.475851E-3	-7.197037E-3	-1.604114E-3	2.288330E-3	8.565063E-3	6.319172E-3	-1.380442E-3	-2.466981E-3	-3.980637E-3	4.333510E-3	1.069638E-3	4.116621E-3	1.213116E-2	5.315841E-3	8.388245E-3	4.773472E-3	-6.006529E-4	2.930414E-3	-6.563527E-3	8.810701E-3	1.435428E-2	-4.175097E-3	5.611576E-3	1.181149E-2	2.850920E-3	-3.033820E-4	-2.396837E-3	4.259469E-3	6.278797E-3	1.031412E-2	1.022520E-2	-5.245507E-3	7.222813E-3	1.146191E-2	3.714964E-4	6.129380E-3	2.881246E-3	8.239017E-3	-2.526208E-3	2.640151E-4	-4.082848E-3	1.009234E-2	4.994527E-3	-1.246310E-3	3.933306E-4	-3.154552E-3	2.272814E-4	8.939145E-3	1.594327E-4	-3.656487E-3	-5.097393E-4	-2.464345E-3	5.667119E-3	7.815789E-3	-3.987564E-3	7.034852E-3	7.145960E-3	1.201278E-2	5.794992E-3	5.641072E-3	-2.088986E-3	2.809193E-3	6.893801E-3	-9.274642E-3	3.255440E-3	9.151673E-3	-2.019704E-3	1.679651E-3	-3.172243E-3	-2.224326E-3	1.803871E-3	-1.211146E-3	1.067787E-2	1.111304E-2	5.292653E-4	-1.323437E-3	-1.079848E-4	5.480870E-3	4.867720E-3	5.867550E-4	3.035702E-3	1.625870E-3	4.955845E-3	4.046560E-3	-3.689924E-3	-2.191407E-3	4.145482E-3
5.325170E+2	6.116559E-3	1.101764E-2	1.375769E-2	9.192263E-3	6.985790E-3	7.319140E-3	7.208077E-3	8.822537E-3	1.960504E-2	9.621390E-3	5.885176E-3	1.101649E-2	4.698552E-3	9.872211E-3	1.160183E-2	1.138167E-2	2.743589E-3	4.040898E-3	9.092031E-3	5.348530E-3	1.021395E-2	1.046656E-2	1.118449E-2	1.906792E-3	1.029100E-2	1.149855E-2	1.916340E-2	4.995149E-3	1.028489E-2	9.059431E-3	1.179472E-2	1.464507E-2	3.475863E-3	1.041092E-2	2.161429E-2	1.287941E-2	1.007208E-2	3.819898E-3	1.290965E-2	5.825044E-3	9.199135E-3	5.499464E-3	7.892545E-3	2.069308E-3	1.053978E-2	1.975061E-2	8.829750E-3	1.249679E-2	1.982464E-3	1.169828E-2	1.732742E-2	9.124814E-3	1.307355E-2	8.048832E-3	1.551087E-2	1.720179E-2	1.907416E-2	4.844629E-3	6.727966E-3	4.953758E-3	1.211085E-2	-1.447603E-5	1.512103E-2	8.414875E-3	1.338810E-2	1.474566E-2	2.196093E-2	2.122446E-2	5.093259E-3	1.529515E-2	9.000676E-3	9.589909E-3	1.195029E-2	1.166692E-2	6.267417E-3	8.515883E-3	9.157150E-3	3.363125E-3	9.790226E-3	3.393344E-3	1.383913E-2	3.347333E-3	9.247660E-3	4.412606E-4	7.683683E-3	1.172121E-2	1.292590E-2	9.546177E-3	-4.033707E-3	1.446753E-2	3.237795E-3	1.519389E-2	6.192834E-3	8.456365E-3	1.807358E-2	1.477260E-2	1.408748E-3	7.903031E-3	1.361020E-2	8.037508E-3	1.254127E-2	1.722804E-2	1.206506E-2	7.163524E-3	8.173004E-3	1.217333E-2	7.044860E-3	1.368483E-2	1.059790E-2	1.048108E-2	1.040377E-2	5.798574E-3	8.910675E-4	3.756177E-4	6.224776E-3	5.518929E-3	-1.228638E-3	6.129513E-3	6.654408E-3	8.619798E-3	8.834563E-3	2.157259E-2	9.414120E-3	1.252620E-2	6.845330E-3	8.931971E-3	9.139614E-3	1.091755E-2	1.178572E-2	8.547114E-3	1.522377E-2	5.082573E-3	1.356445E-2	4.027645E-3	7.326881E-3	7.623328E-3	5.696172E-3	1.653570E-2	3.054499E-4	1.457256E-2	2.325705E-3	1.170715E-2	5.668302E-3	1.163301E-2	1.235720E-2	5.859020E-3	1.396286E-2	1.475763E-2	1.451999E-2	1.652004E-2	6.747930E-3	1.565877E-2	8.292435E-3	1.507778E-2	7.668766E-3	1.379121E-3	1.165927E-2	5.922256E-3	5.220919E-3	1.008331E-2	1.223115E-2	8.549521E-3	1.099851E-2	1.638415E-2	1.378996E-2	5.001002E-3	8.005122E-3	1.045078E-2	6.429231E-3	1.185371E-2
5.330280E+2	1.866219E-2	3.008836E-2	6.707451E-3	1.245710E-2	1.712128E-2	2.359784E-2	1.871328E-2	1.669285E-2	4.078472E-2	2.781500E-2	1.375389E-2	3.699515E-2	6.022016E-3	2.871661E-2	1.571617E-2	2.432457E-2	2.916415E-2	3.683241E-2	1.669244E-2	1.133598E-2	2.329109E-2	3.874188E-2	2.203233E-2	1.817182E-2	3.404847E-2	2.987057E-2	1.234854E-2	3.750709E-2	2.479117E-2	2.527661E-2	1.088966E-2	5.129149E-3	2.136725E-2	2.477086E-2	1.600659E-2	2.882046E-2	2.568508E-2	1.667313E-2	3.518111E-2	3.172101E-2	2.568849E-2	3.178648E-2	2.471720E-2	2.706923E-2	1.959230E-2	2.126902E-2	1.634496E-2	1.832753E-2	3.108936E-2	2.751694E-2	1.729840E-2	2.934686E-2	2.382540E-2	1.267258E-2	1.277668E-2	3.066249E-2	1.317707E-2	2.048306E-2	2.960780E-2	2.218879E-2	2.330936E-2	2.331438E-2	3.186717E-2	3.196466E-2	3.274524E-2	1.732991E-2	2.639896E-2	1.711977E-2	2.303338E-2	2.593941E-2	2.794160E-2	3.031906E-2	1.470891E-2	3.569019E-2	1.191479E-2	1.877312E-2	2.460138E-2	1.302399E-2	2.144006E-2	2.698407E-2	3.362393E-2	2.208559E-2	9.663926E-3	2.997147E-2	2.963863E-2	2.893763E-2	2.253370E-2	2.005053E-2	3.964578E-2	1.876048E-2	2.920963E-2	2.827572E-2	2.053108E-2	3.006083E-2	2.991202E-2	2.610983E-2	3.027551E-2	2.289312E-2	1.937082E-2	2.304448E-2	1.725289E-2	2.116620E-2	2.192578E-2	2.509417E-2	1.528822E-2	2.129213E-2	1.107149E-2	1.589646E-2	1.982066E-2	1.853126E-2	3.479992E-2	2.399028E-2	3.612584E-2	1.934808E-2	3.379922E-2	1.333954E-2	2.466022E-2	1.166740E-2	2.292976E-2	1.903060E-2	2.039681E-2	1.364795E-2	1.608888E-2	2.303360E-2	2.384591E-2	1.913039E-2	2.566895E-2	2.636931E-2	3.233278E-2	1.839518E-2	1.145393E-2	3.551839E-2	2.188729E-2	1.695209E-2	2.836590E-2	3.970451E-2	2.673168E-2	1.751831E-2	1.877822E-2	3.271620E-2	2.322603E-2	1.506607E-2	1.556230E-2	2.532126E-2	2.074886E-2	3.676961E-2	1.954008E-2	2.452258E-2	2.617296E-2	2.473388E-2	1.105498E-2	2.173228E-2	2.198938E-2	1.859246E-2	1.694225E-2	1.187589E-2	1.106543E-2	2.197098E-2	1.158906E-2	2.584031E-2	1.374871E-2	3.354662E-2	2.061872E-2	3.312129E-2	2.083423E-2	1.167110E-2	2.679039E-2	2.212598E-2	3.151326E-2	2.767272E-2
5.331630E+2	2.965134E-2	2.696446E-2	3.422112E-2	2.398155E-2	3.017533E-2	3.322833E-2	2.549061E-2	2.274018E-2	3.131037E-2	3.532964E-2	3.808610E-2	2.858280E-2	2.150507E-2	3.414074E-2	3.045916E-2	3.828291E-2	3.705639E-2	4.003105E-2	2.789893E-2	3.275230E-2	3.487847E-2	3.014899E-2	2.582873E-2	2.778379E-2	3.001058E-2	3.870935E-2	3.419675E-2	3.324484E-2	2.742303E-2	3.357751E-2	1.840975E-2	3.337084E-2	3.779499E-2	3.811289E-2	4.038222E-2	3.564110E-2	3.011866E-2	2.605354E-2	3.043942E-2	2.422900E-2	3.933407E-2	3.271653E-2	2.270267E-2	2.932037E-2	4.432607E-2	3.322640E-2	1.058854E-2	4.232360E-2	2.981003E-2	3.737594E-2	3.592195E-2	3.867351E-2	2.223217E-2	2.628989E-2	2.135658E-2	2.922703E-2	2.877531E-2	1.928461E-2	2.637729E-2	2.092104E-2	3.841465E-2	1.987237E-2	3.185479E-2	3.642606E-2	4.386507E-2	2.647518E-2	4.139380E-2	3.243759E-2	3.094429E-2	2.888025E-2	2.910696E-2	2.547606E-2	2.868826E-2	2.161421E-2	4.112718E-2	3.119214E-2	3.456254E-2	3.201335E-2	3.130153E-2	3.488395E-2	1.183116E-2	3.307982E-2	3.299276E-2	4.438211E-2	2.620729E-2	2.291439E-2	3.224112E-2	3.146277E-2	3.256068E-2	2.927056E-2	3.118038E-2	3.204191E-2	2.541454E-2	3.599581E-2	4.023466E-2	3.148753E-2	2.957246E-2	2.716646E-2	2.087419E-2	3.225378E-2	4.065344E-2	3.711280E-2	3.656502E-2	3.082770E-2	3.148083E-2	3.746675E-2	3.209122E-2	2.725573E-2	3.479463E-2	4.080311E-2	2.664830E-2	3.560250E-2	3.908934E-2	2.293810E-2	1.798440E-2	2.824382E-2	3.070401E-2	3.519850E-2	3.525198E-2	3.327111E-2	2.783643E-2	3.576523E-2	4.176734E-2	2.768757E-2	3.323007E-2	2.978409E-2	3.023714E-2	2.425877E-2	3.740250E-2	3.382466E-2	3.649064E-2	3.376400E-2	3.709289E-2	2.439796E-2	2.051658E-2	3.480253E-2	3.966033E-2	3.799841E-2	3.339185E-2	4.686676E-2	3.059931E-2	1.999988E-2	2.968879E-2	2.916466E-2	3.286750E-2	3.771907E-2	2.943046E-2	2.332717E-2	2.902223E-2	2.668940E-2	3.908504E-2	2.626223E-2	3.961004E-2	3.384077E-2	2.991644E-2	2.238264E-2	2.743301E-2	2.676846E-2	3.113901E-2	4.055196E-2	2.097587E-2	2.088423E-2	2.848833E-2	2.776684E-2	3.950979E-2	3.040748E-2	2.864883E-2	5.566424E-2	5.109413E-2	5.066480E-2
5.333130E+2	4.756982E-2	3.897262E-2	3.255023E-2	5.471665E-2	3.393075E-2	4.341302E-2	3.548840E-2	3.805348E-2	3.642636E-2	4.391044E-2	3.954796E-2	3.678771E-2	3.381833E-2	4.054911E-2	4.786661E-2	3.641855E-2	4.199813E-2	3.716304E-2	2.944913E-2	4.701140E-2	3.286657E-2	3.953508E-2	3.407970E-2	3.700535E-2	4.769942E-2	5.059578E-2	2.989295E-2	5.048932E-2	3.828339E-2	4.664854E-2	2.980253E-2	4.744735E-2	3.967476E-2	3.605697E-2	5.248660E-2	4.565009E-2	4.118624E-2	4.295962E-2	4.282343E-2	3.733597E-2	3.983059E-2	5.749533E-2	3.261699E-2	4.726241E-2	4.802006E-2	4.205471E-2	3.569200E-2	3.253255E-2	4.028794E-2	4.476213E-2	4.729299E-2	5.214624E-2	3.791861E-2	3.888562E-2	3.993255E-2	3.815446E-2	4.196255E-2	4.482332E-2	3.794675E-2	4.548621E-2	5.060993E-2	3.845804E-2	4.221798E-2	4.178010E-2	4.968815E-2	3.618588E-2	4.302489E-2	5.117363E-2	3.539982E-2	3.952254E-2	4.754614E-2	4.705196E-2	3.333761E-2	4.620800E-2	3.212814E-2	2.594578E-2	3.751566E-2	4.074707E-2	4.059890E-2	3.921037E-2	4.109188E-2	3.932589E-2	4.280087E-2	4.383311E-2	4.767762E-2	3.621936E-2	3.582071E-2	4.930349E-2	3.101979E-2	3.500200E-2	3.559606E-2	3.817267E-2	4.470674E-2	3.367935E-2	4.248813E-2	5.299287E-2	6.011496E-2	5.031744E-2	4.808902E-2	3.876826E-2	3.417790E-2	3.454087E-2	5.898503E-2	4.714128E-2	4.822566E-2	3.145146E-2	3.979273E-2	4.825443E-2	3.482114E-2	5.129058E-2	3.173478E-2	4.912755E-2	3.035689E-2	4.594538E-2	4.040824E-2	3.520969E-2	4.801766E-2	4.610007E-2	3.147430E-2	5.235592E-2	4.439281E-2	3.969101E-2	3.999315E-2	5.164230E-2	3.562871E-2	2.786035E-2	4.992098E-2	5.726388E-2	4.948842E-2	3.383612E-2	3.216037E-2	4.478641E-2	4.001735E-2	4.346088E-2	2.995499E-2	3.097370E-2	5.265238E-2	4.122222E-2	2.820852E-2	4.122391E-2	4.318808E-2	3.725470E-2	2.980949E-2	3.710934E-2	5.618933E-2	3.661094E-2	4.669785E-2	4.860029E-2	5.148190E-2	4.369700E-2	4.132365E-2	5.255290E-2	3.679912E-2	4.966314E-2	3.979548E-2	3.883198E-2	3.886528E-2	3.357084E-2	3.598210E-2	4.254594E-2	3.499151E-2	3.651942E-2	4.375599E-2	5.913769E-2	4.048763E-2	4.970289E-2	4.897567E-2	3.772743E-2	3.377664E-2	4.868777E-2
5.334520E+2	4.297641E-2	5.782483E-2	5.770119E-2	6.833938E-2	5.253638E-2	4.668209E-2	4.626751E-2	5.014366E-2	5.579358E-2	6.040923E-2	5.655749E-2	6.283722E-2	4.640366E-2	6.520915E-2	4.679252E-2	5.434046E-2	6.525555E-2	5.240734E-2	4.364946E-2	6.764933E-2	4.427146E-2	6.461690E-2	4.258598E-2	4.560725E-2	7.013589E-2	4.932121E-2	3.482128E-2	4.806585E-2	5.532936E-2	5.159385E-2	5.142849E-2	6.405191E-2	5.545110E-2	4.720273E-2	5.973289E-2	5.542231E-2	5.456592E-2	5.015909E-2	6.553411E-2	4.619847E-2	5.151268E-2	5.030392E-2	3.122441E-2	6.661251E-2	5.093106E-2	4.697007E-2	5.527913E-2	5.225848E-2	6.805757E-2	5.342724E-2	5.677326E-2	4.140376E-2	4.796829E-2	5.176200E-2	6.024348E-2	7.743032E-2	5.643887E-2	5.485116E-2	5.146858E-2	4.568895E-2	5.378316E-2	5.256278E-2	6.331589E-2	5.926278E-2	5.936135E-2	5.105157E-2	4.837178E-2	5.024032E-2	5.016166E-2	5.606382E-2	5.227337E-2	6.115383E-2	5.656283E-2	6.413351E-2	4.698255E-2	4.472224E-2	6.933018E-2	5.025922E-2	6.208251E-2	5.517079E-2	5.244058E-2	4.847075E-2	6.029081E-2	5.174658E-2	5.397196E-2	5.969633E-2	4.601258E-2	5.184854E-2	5.315810E-2	4.389050E-2	4.193793E-2	4.622934E-2	5.485780E-2	5.421098E-2	6.278168E-2	5.897334E-2	6.502832E-2	5.702689E-2	4.556720E-2	4.493955E-2	5.415071E-2	5.521515E-2	6.488706E-2	5.530072E-2	4.674911E-2	6.311165E-2	6.506527E-2	6.060854E-2	5.427287E-2	6.352803E-2	5.096962E-2	5.498429E-2	5.301997E-2	6.045578E-2	4.667608E-2	5.037132E-2	4.670360E-2	5.439031E-2	5.385142E-2	4.735035E-2	4.462375E-2	5.821591E-2	5.698476E-2	5.253653E-2	4.823078E-2	3.642353E-2	4.852628E-2	5.971832E-2	6.301301E-2	6.189356E-2	4.588918E-2	6.371630E-2	6.002084E-2	5.023993E-2	5.320959E-2	5.331242E-2	5.180618E-2	5.827572E-2	3.476453E-2	5.901525E-2	5.984725E-2	5.286883E-2	6.152948E-2	6.739479E-2	5.756101E-2	5.244296E-2	5.462267E-2	6.503925E-2	5.909427E-2	4.861844E-2	6.476831E-2	6.026726E-2	5.311161E-2	5.403115E-2	4.937918E-2	6.203344E-2	6.014429E-2	4.121526E-2	4.983325E-2	6.739669E-2	4.820484E-2	6.197906E-2	4.728266E-2	5.604661E-2	5.239789E-2	4.158933E-2	5.063243E-2	6.718449E-2	5.374032E-2	5.665919E-2
5.336080E+2	7.971076E-2	5.322616E-2	7.272506E-2	8.443476E-2	7.493314E-2	7.152575E-2	6.396116E-2	5.606374E-2	7.412926E-2	7.330566E-2	7.403831E-2	7.540852E-2	5.893625E-2	6.673460E-2	6.047697E-2	8.310540E-2	7.192125E-2	7.937206E-2	6.811702E-2	7.782021E-2	6.933623E-2	7.820032E-2	6.529127E-2	6.124217E-2	9.082568E-2	7.591195E-2	8.703783E-2	7.870404E-2	8.137025E-2	7.491718E-2	8.295694E-2	6.861109E-2	7.410765E-2	8.024568E-2	6.553356E-2	8.484434E-2	7.448917E-2	8.677099E-2	7.525248E-2	6.934976E-2	7.642914E-2	7.799361E-2	7.240901E-2	7.061736E-2	7.271928E-2	5.506974E-2	7.625587E-2	7.592165E-2	7.708553E-2	8.491427E-2	7.172591E-2	9.005465E-2	7.572670E-2	7.042313E-2	7.663248E-2	8.382907E-2	9.727725E-2	6.380466E-2	7.551409E-2	7.541820E-2	7.801980E-2	7.330947E-2	8.535100E-2	7.866647E-2	7.144771E-2	6.053539E-2	8.006515E-2	6.532736E-2	6.640230E-2	6.950789E-2	7.997140E-2	6.908480E-2	7.504572E-2	7.238152E-2	7.648429E-2	7.979763E-2	6.801150E-2	7.780772E-2	6.858132E-2	8.199288E-2	6.561208E-2	7.865640E-2	6.728915E-2	7.554367E-2	9.007510E-2	7.571434E-2	6.090581E-2	7.175780E-2	7.030574E-2	7.972014E-2	6.108817E-2	7.911569E-2	6.897051E-2	8.850315E-2	7.748980E-2	8.212454E-2	6.697449E-2	6.374111E-2	8.859738E-2	7.437132E-2	7.036392E-2	7.594230E-2	6.863638E-2	5.764696E-2	8.232197E-2	8.503226E-2	7.748271E-2	6.573388E-2	9.032635E-2	6.609903E-2	7.336161E-2	6.846645E-2	6.827763E-2	7.126669E-2	5.799256E-2	6.793427E-2	7.606615E-2	8.460594E-2	7.127354E-2	8.098310E-2	6.901277E-2	6.335789E-2	6.476328E-2	6.654182E-2	7.263483E-2	7.872395E-2	6.831817E-2	7.961641E-2	7.536807E-2	6.822934E-2	6.248511E-2	7.872055E-2	7.700214E-2	6.754836E-2	7.376739E-2	6.551440E-2	7.649329E-2	5.093304E-2	6.952565E-2	7.475280E-2	6.329540E-2	7.447022E-2	7.349956E-2	7.349493E-2	8.327095E-2	7.142879E-2	7.216044E-2	6.746034E-2	8.178164E-2	7.621602E-2	7.872344E-2	7.060909E-2	8.770220E-2	6.600690E-2	6.976306E-2	8.186591E-2	5.686274E-2	7.422912E-2	7.756778E-2	6.919891E-2	6.874352E-2	7.110862E-2	7.165823E-2	7.789306E-2	7.188892E-2	7.373016E-2	7.551501E-2	7.882889E-2	8.051099E-2	9.099900E-2
5.337580E+2	9.683815E-2	9.480918E-2	9.305660E-2	9.262637E-2	9.464659E-2	9.688465E-2	9.538370E-2	9.602579E-2	9.817969E-2	1.107890E-1	8.798520E-2	1.046339E-1	9.505328E-2	1.016556E-1	1.059600E-1	1.186595E-1	1.007199E-1	9.397628E-2	1.082630E-1	1.024778E-1	8.217919E-2	1.013653E-1	1.057566E-1	8.275505E-2	1.373883E-1	1.152231E-1	1.083370E-1	1.094421E-1	1.095869E-1	1.221090E-1	1.142888E-1	1.334973E-1	1.124324E-1	9.742149E-2	1.263974E-1	1.064935E-1	1.107990E-1	1.030840E-1	1.399760E-1	1.065411E-1	1.191978E-1	1.062604E-1	9.627328E-2	1.036244E-1	1.216551E-1	1.076670E-1	1.154331E-1	1.120259E-1	1.071119E-1	1.041162E-1	8.814798E-2	1.056217E-1	1.115488E-1	9.278488E-2	9.223300E-2	1.004423E-1	9.074061E-2	1.169568E-1	9.339773E-2	1.237721E-1	1.033633E-1	8.890067E-2	1.000620E-1	1.171192E-1	1.153730E-1	1.118543E-1	1.203930E-1	9.286402E-2	1.083701E-1	9.420205E-2	9.420502E-2	1.081052E-1	9.697349E-2	1.026031E-1	1.166098E-1	1.008698E-1	9.886546E-2	1.050621E-1	1.042505E-1	1.028630E-1	9.556099E-2	9.671392E-2	1.083855E-1	9.837575E-2	1.068761E-1	1.042098E-1	9.871804E-2	1.043097E-1	1.160260E-1	1.109663E-1	9.090970E-2	1.137097E-1	1.045143E-1	1.153122E-1	1.314220E-1	9.695628E-2	1.151815E-1	1.104346E-1	9.756548E-2	1.049349E-1	1.096075E-1	1.231204E-1	1.066833E-1	1.027855E-1	1.173251E-1	9.212493E-2	1.225996E-1	1.125532E-1	1.114548E-1	1.087741E-1	9.891107E-2	1.009792E-1	1.045584E-1	9.928400E-2	9.603794E-2	1.104769E-1	9.783739E-2	9.976383E-2	1.066985E-1	1.024470E-1	1.098908E-1	1.117427E-1	9.531214E-2	1.109502E-1	1.034961E-1	1.036701E-1	1.025590E-1	1.225378E-1	1.009097E-1	1.091205E-1	9.707309E-2	1.185203E-1	1.020961E-1	1.107078E-1	1.164537E-1	1.101840E-1	9.794154E-2	8.740220E-2	1.069842E-1	1.192819E-1	1.095831E-1	1.109475E-1	1.092927E-1	1.015577E-1	7.862094E-2	1.022402E-1	1.146820E-1	1.057273E-1	1.028139E-1	1.019150E-1	9.933409E-2	1.052687E-1	1.085343E-1	1.104513E-1	9.411182E-2	1.081361E-1	9.461322E-2	9.564581E-2	1.023991E-1	1.008092E-1	9.478108E-2	1.070597E-1	1.039969E-1	1.189820E-1	1.022173E-1	9.548219E-2	1.086845E-1	1.192269E-1	8.545902E-2	1.078242E-1
5.339190E+2	1.569693E-1	1.686527E-1	1.721143E-1	1.692772E-1	1.662525E-1	1.380489E-1	1.609054E-1	1.505892E-1	1.665143E-1	1.722894E-1	1.700353E-1	1.707359E-1	1.619005E-1	1.920480E-1	1.704757E-1	1.735603E-1	1.697958E-1	1.725330E-1	1.647396E-1	1.540973E-1	1.732812E-1	1.554263E-1	1.431537E-1	1.757946E-1	2.467416E-1	1.957557E-1	1.954125E-1	2.153554E-1	1.932545E-1	1.836247E-1	2.003182E-1	1.939845E-1	1.840850E-1	1.812403E-1	1.807686E-1	1.814484E-1	2.043154E-1	1.791017E-1	1.844621E-1	1.706450E-1	1.891620E-1	1.990426E-1	1.788634E-1	1.712795E-1	1.770998E-1	1.963950E-1	1.780025E-1	1.771254E-1	1.885192E-1	1.953863E-1	1.941725E-1	1.803025E-1	1.681422E-1	1.971085E-1	1.781098E-1	1.857311E-1	1.963199E-1	1.856278E-1	1.732315E-1	2.006954E-1	1.905729E-1	1.840545E-1	1.747163E-1	1.769494E-1	1.963211E-1	1.742010E-1	1.715550E-1	1.710612E-1	1.690735E-1	1.883362E-1	1.794890E-1	1.781971E-1	1.766412E-1	1.684817E-1	1.698635E-1	1.756588E-1	1.879263E-1	1.770773E-1	1.928889E-1	1.878518E-1	1.758013E-1	1.708488E-1	1.853749E-1	1.631958E-1	1.713793E-1	1.740920E-1	1.835477E-1	1.693470E-1	1.688149E-1	1.698174E-1	1.878299E-1	1.787093E-1	1.709070E-1	1.614768E-1	1.945961E-1	1.679814E-1	1.665275E-1	1.741062E-1	1.838371E-1	1.567264E-1	1.498499E-1	1.846050E-1	1.729348E-1	1.769120E-1	1.766787E-1	1.774489E-1	1.730277E-1	2.065196E-1	1.859779E-1	1.844359E-1	1.825903E-1	1.777517E-1	1.737358E-1	1.806804E-1	1.548530E-1	1.847923E-1	1.814662E-1	1.869582E-1	1.871966E-1	1.748166E-1	1.582778E-1	1.810576E-1	1.690284E-1	1.750530E-1	1.783640E-1	1.793315E-1	1.897674E-1	1.832519E-1	1.740470E-1	1.408519E-1	1.681693E-1	2.096937E-1	1.923817E-1	1.634034E-1	1.837034E-1	1.800365E-1	1.674406E-1	1.753723E-1	1.843771E-1	1.904520E-1	1.757160E-1	1.781172E-1	1.729012E-1	1.924242E-1	1.745358E-1	1.778349E-1	1.674456E-1	1.778024E-1	1.600405E-1	1.633997E-1	1.641067E-1	1.879443E-1	1.841011E-1	1.703405E-1	1.829198E-1	1.946129E-1	2.002250E-1	1.633171E-1	1.753682E-1	1.790281E-1	1.850554E-1	1.852439E-1	1.899141E-1	1.698885E-1	1.744691E-1	1.619139E-1	1.652852E-1	1.723364E-1	2.071825E-1	2.022513E-1
5.340690E+2	2.857580E-1	2.755088E-1	2.695533E-1	2.501009E-1	2.720990E-1	2.712234E-1	2.640572E-1	2.756198E-1	2.785046E-1	2.724929E-1	2.661437E-1	2.834170E-1	2.800733E-1	2.737709E-1	2.603726E-1	2.507683E-1	2.755854E-1	2.597973E-1	2.892407E-1	2.617997E-1	2.649576E-1	2.952570E-1	2.663548E-1	2.883920E-1	3.782927E-1	3.658519E-1	3.234894E-1	3.392270E-1	3.376818E-1	3.259279E-1	2.958656E-1	3.283683E-1	3.002249E-1	3.029394E-1	3.134646E-1	3.049293E-1	3.491246E-1	3.241654E-1	3.090966E-1	2.823663E-1	3.538567E-1	3.241891E-1	2.979273E-1	3.003445E-1	3.215405E-1	3.364048E-1	3.094860E-1	3.034584E-1	3.017507E-1	3.267739E-1	2.911814E-1	2.964038E-1	2.894251E-1	3.123948E-1	3.117366E-1	3.014870E-1	3.052817E-1	2.985919E-1	3.190961E-1	2.923805E-1	3.204419E-1	2.902788E-1	3.065893E-1	2.718828E-1	2.898337E-1	2.813223E-1	3.267166E-1	3.035345E-1	3.156917E-1	3.013240E-1	3.121983E-1	2.982562E-1	3.004828E-1	2.981528E-1	2.974632E-1	2.799567E-1	2.731961E-1	3.206429E-1	3.038417E-1	3.081798E-1	3.049926E-1	3.203535E-1	3.186741E-1	3.061374E-1	3.009735E-1	3.199365E-1	2.839931E-1	2.987774E-1	3.081973E-1	2.913426E-1	3.001298E-1	2.841758E-1	2.744322E-1	2.952451E-1	2.855511E-1	2.808480E-1	3.133546E-1	3.021365E-1	3.010989E-1	3.107431E-1	2.919699E-1	3.181131E-1	2.704781E-1	2.810998E-1	3.003146E-1	2.948445E-1	2.822547E-1	2.990142E-1	3.186097E-1	2.868972E-1	3.156688E-1	3.012808E-1	2.767811E-1	2.881059E-1	2.818524E-1	3.007639E-1	2.933990E-1	2.977658E-1	3.105226E-1	3.205416E-1	2.689237E-1	3.095069E-1	2.914546E-1	3.015179E-1	2.779188E-1	2.759401E-1	2.841214E-1	2.916690E-1	2.695232E-1	2.948543E-1	3.190180E-1	3.015644E-1	3.034433E-1	2.910803E-1	2.633514E-1	2.938201E-1	3.103581E-1	2.865732E-1	2.943321E-1	2.901614E-1	2.926783E-1	2.802420E-1	2.984445E-1	3.191709E-1	2.933983E-1	2.801891E-1	2.899008E-1	3.075349E-1	2.859635E-1	2.884060E-1	3.148950E-1	2.871799E-1	2.870580E-1	2.957038E-1	2.685855E-1	3.292761E-1	2.913598E-1	2.822662E-1	2.664310E-1	2.844982E-1	3.351950E-1	2.523533E-1	2.824722E-1	2.928993E-1	3.092219E-1	3.144925E-1	2.639810E-1	3.157452E-1	3.049347E-1	2.733467E-1
5.342040E+2	4.762418E-1	4.559384E-1	4.381416E-1	4.355901E-1	4.692855E-1	4.801668E-1	4.670942E-1	4.500517E-1	4.975900E-1	4.657004E-1	4.651293E-1	4.653294E-1	4.812243E-1	4.598321E-1	4.705171E-1	4.942792E-1	4.700908E-1	4.595825E-1	4.570363E-1	4.548622E-1	4.736765E-1	4.860062E-1	4.698517E-1	4.815745E-1	6.429662E-1	5.952079E-1	5.787012E-1	5.803448E-1	5.414180E-1	5.327169E-1	5.547468E-1	5.210929E-1	5.017870E-1	5.718562E-1	4.956301E-1	5.479193E-1	5.570042E-1	5.242103E-1	5.352930E-1	5.374978E-1	5.116475E-1	5.004137E-1	4.954931E-1	5.237914E-1	5.118088E-1	5.230518E-1	5.220634E-1	5.151477E-1	5.386565E-1	5.454832E-1	5.391859E-1	4.988706E-1	5.115443E-1	5.196702E-1	5.328894E-1	5.234328E-1	5.181742E-1	5.173635E-1	4.764020E-1	5.061643E-1	4.906656E-1	5.318889E-1	5.028411E-1	5.132129E-1	5.213372E-1	5.203032E-1	5.212648E-1	4.827997E-1	4.858009E-1	4.948557E-1	5.460772E-1	5.109063E-1	5.189780E-1	5.234676E-1	5.142302E-1	4.893929E-1	5.128496E-1	4.963457E-1	5.052983E-1	5.141507E-1	5.029966E-1	5.361786E-1	4.964483E-1	5.145081E-1	5.213337E-1	5.040687E-1	4.956796E-1	4.622086E-1	4.785657E-1	4.883798E-1	4.890649E-1	4.981704E-1	4.630994E-1	5.011300E-1	4.959743E-1	4.908160E-1	5.032614E-1	4.915959E-1	4.924794E-1	4.919465E-1	4.992285E-1	4.714124E-1	5.146171E-1	4.830869E-1	5.023268E-1	4.637211E-1	4.890448E-1	5.080259E-1	4.897036E-1	4.941264E-1	4.940835E-1	5.121084E-1	5.360378E-1	5.143414E-1	4.740561E-1	5.022190E-1	5.104958E-1	4.998572E-1	4.873962E-1	4.981742E-1	5.164225E-1	5.040076E-1	4.824610E-1	4.991002E-1	4.976515E-1	4.946944E-1	4.818542E-1	4.892402E-1	5.025689E-1	5.260336E-1	5.130580E-1	4.771053E-1	5.015391E-1	4.825958E-1	4.702599E-1	5.056704E-1	4.820904E-1	4.864834E-1	4.731347E-1	5.062818E-1	5.178008E-1	4.735938E-1	4.868966E-1	5.084796E-1	4.956805E-1	4.899247E-1	5.098536E-1	4.983007E-1	4.791991E-1	5.095814E-1	5.129865E-1	4.740432E-1	5.169005E-1	4.843542E-1	5.066481E-1	5.196955E-1	4.928948E-1	4.778631E-1	5.112450E-1	4.883408E-1	5.000626E-1	5.050450E-1	4.700185E-1	4.955696E-1	5.044860E-1	5.171982E-1	4.961934E-1	4.783830E-1	4.891743E-1	5.145191E-1
5.343650E+2	7.873922E-1	7.906505E-1	7.582548E-1	8.368723E-1	8.200928E-1	7.770909E-1	7.707880E-1	8.219831E-1	7.964211E-1	7.832424E-1	7.893495E-1	7.871562E-1	8.099306E-1	7.769777E-1	8.073156E-1	7.823576E-1	8.165356E-1	8.215978E-1	8.131730E-1	8.148724E-1	7.593960E-1	7.929119E-1	7.614450E-1	7.764360E-1	9.707265E-1	9.151504E-1	9.047502E-1	8.870809E-1	9.051611E-1	9.010016E-1	8.873017E-1	8.814137E-1	8.748178E-1	8.758209E-1	8.724470E-1	9.059222E-1	8.696523E-1	8.920949E-1	8.625153E-1	8.831928E-1	9.208881E-1	8.129949E-1	8.236267E-1	8.741322E-1	9.145853E-1	8.801330E-1	8.451268E-1	8.336316E-1	8.621461E-1	8.314688E-1	8.214929E-1	8.535438E-1	8.544334E-1	8.506070E-1	8.626513E-1	8.539124E-1	8.253412E-1	8.429310E-1	8.076225E-1	8.588570E-1	8.639537E-1	8.748110E-1	8.877564E-1	8.531649E-1	8.990716E-1	8.118956E-1	8.577852E-1	8.474733E-1	8.341909E-1	8.195231E-1	8.645461E-1	8.388429E-1	8.334488E-1	8.725495E-1	8.208015E-1	8.567064E-1	8.992178E-1	8.471031E-1	8.011564E-1	8.488570E-1	8.179770E-1	8.453174E-1	8.621471E-1	8.185491E-1	8.803340E-1	8.150500E-1	8.063596E-1	8.480937E-1	8.718745E-1	8.039288E-1	7.966354E-1	7.994824E-1	8.120838E-1	8.133211E-1	8.074851E-1	8.920980E-1	8.423685E-1	8.212451E-1	8.432222E-1	8.212615E-1	8.060498E-1	8.129263E-1	8.729838E-1	8.402979E-1	8.698152E-1	8.566086E-1	7.824492E-1	8.418938E-1	8.301947E-1	8.126115E-1	8.341021E-1	8.428229E-1	7.942800E-1	8.382028E-1	8.134102E-1	8.287442E-1	8.518550E-1	8.361767E-1	8.261582E-1	8.580797E-1	8.391876E-1	8.164053E-1	8.587307E-1	8.310915E-1	8.553563E-1	7.945104E-1	8.136185E-1	7.815474E-1	8.261484E-1	8.015266E-1	7.991896E-1	8.390000E-1	8.565010E-1	8.197582E-1	8.256501E-1	8.251691E-1	7.944486E-1	8.262537E-1	8.363607E-1	7.965590E-1	8.243023E-1	8.390631E-1	8.262695E-1	8.792683E-1	9.086652E-1	8.198237E-1	8.138676E-1	8.144196E-1	8.257354E-1	8.471350E-1	8.179629E-1	8.275409E-1	8.097499E-1	8.654128E-1	8.115977E-1	8.670380E-1	8.222482E-1	8.054531E-1	8.304736E-1	8.548185E-1	7.762660E-1	8.000081E-1	8.289679E-1	7.930935E-1	8.192493E-1	8.335929E-1	8.296657E-1	8.774062E-1	8.633642E-1	8.574361E-1
5.345160E+2	1.222869E+0	1.224453E+0	1.188330E+0	1.148954E+0	1.263283E+0	1.188254E+0	1.189397E+0	1.259241E+0	1.225613E+0	1.230899E+0	1.197649E+0	1.276517E+0	1.227183E+0	1.200854E+0	1.211731E+0	1.229695E+0	1.231335E+0	1.244270E+0	1.231279E+0	1.268266E+0	1.210441E+0	1.208836E+0	1.234165E+0	1.217970E+0	1.436168E+0	1.339450E+0	1.291560E+0	1.311747E+0	1.343474E+0	1.295379E+0	1.295675E+0	1.287185E+0	1.306086E+0	1.304086E+0	1.323992E+0	1.259608E+0	1.277857E+0	1.284147E+0	1.245340E+0	1.243169E+0	1.311282E+0	1.255990E+0	1.273228E+0	1.259987E+0	1.293543E+0	1.277969E+0	1.196829E+0	1.288085E+0	1.264598E+0	1.230522E+0	1.294380E+0	1.244554E+0	1.267544E+0	1.287287E+0	1.265421E+0	1.291587E+0	1.268631E+0	1.301399E+0	1.242855E+0	1.331559E+0	1.277893E+0	1.234725E+0	1.261631E+0	1.246110E+0	1.329870E+0	1.252122E+0	1.251157E+0	1.243347E+0	1.253946E+0	1.287579E+0	1.275387E+0	1.272803E+0	1.253062E+0	1.286309E+0	1.240970E+0	1.270896E+0	1.260039E+0	1.252687E+0	1.241522E+0	1.249775E+0	1.300871E+0	1.267413E+0	1.314917E+0	1.238817E+0	1.283519E+0	1.257034E+0	1.225424E+0	1.271917E+0	1.293987E+0	1.264706E+0	1.221921E+0	1.251492E+0	1.298773E+0	1.276133E+0	1.246405E+0	1.255056E+0	1.292219E+0	1.231561E+0	1.249331E+0	1.258798E+0	1.262729E+0	1.229107E+0	1.247082E+0	1.236802E+0	1.263260E+0	1.254626E+0	1.253675E+0	1.261506E+0	1.248623E+0	1.264441E+0	1.236207E+0	1.219768E+0	1.220276E+0	1.238142E+0	1.237460E+0	1.205162E+0	1.227664E+0	1.272683E+0	1.220347E+0	1.208995E+0	1.306183E+0	1.214351E+0	1.164034E+0	1.260382E+0	1.197162E+0	1.257879E+0	1.226042E+0	1.215676E+0	1.302837E+0	1.297371E+0	1.240048E+0	1.238833E+0	1.291577E+0	1.211747E+0	1.266132E+0	1.220934E+0	1.225479E+0	1.236597E+0	1.266996E+0	1.263865E+0	1.225467E+0	1.199872E+0	1.253668E+0	1.259563E+0	1.225613E+0	1.198081E+0	1.211696E+0	1.232599E+0	1.235817E+0	1.269201E+0	1.256284E+0	1.219323E+0	1.266613E+0	1.232546E+0	1.225030E+0	1.254137E+0	1.248629E+0	1.237465E+0	1.258360E+0	1.224370E+0	1.240569E+0	1.233716E+0	1.257792E+0	1.217875E+0	1.280267E+0	1.207805E+0	1.224438E+0	1.261391E+0	1.242295E+0	1.180046E+0
5.346620E+2	1.628256E+0	1.575088E+0	1.551323E+0	1.601683E+0	1.578088E+0	1.606392E+0	1.545022E+0	1.582859E+0	1.566536E+0	1.585437E+0	1.581350E+0	1.556170E+0	1.624102E+0	1.561299E+0	1.622853E+0	1.621110E+0	1.572942E+0	1.634065E+0	1.573733E+0	1.630570E+0	1.579584E+0	1.593394E+0	1.534207E+0	1.526417E+0	1.750746E+0	1.635423E+0	1.641513E+0	1.661601E+0	1.603056E+0	1.652326E+0	1.654970E+0	1.629270E+0	1.643507E+0	1.615196E+0	1.643485E+0	1.636933E+0	1.646537E+0	1.629149E+0	1.668562E+0	1.602335E+0	1.655301E+0	1.623562E+0	1.604713E+0	1.626095E+0	1.573244E+0	1.686788E+0	1.666852E+0	1.616318E+0	1.607335E+0	1.646296E+0	1.601755E+0	1.590377E+0	1.607448E+0	1.638453E+0	1.607164E+0	1.596758E+0	1.604171E+0	1.637056E+0	1.561848E+0	1.602375E+0	1.580459E+0	1.582579E+0	1.596977E+0	1.593571E+0	1.717647E+0	1.558806E+0	1.607073E+0	1.620796E+0	1.614365E+0	1.546336E+0	1.553828E+0	1.604309E+0	1.655166E+0	1.593533E+0	1.594001E+0	1.593354E+0	1.637958E+0	1.575285E+0	1.616559E+0	1.586561E+0	1.613035E+0	1.612819E+0	1.617821E+0	1.609249E+0	1.627971E+0	1.547427E+0	1.554905E+0	1.594832E+0	1.635836E+0	1.588263E+0	1.626486E+0	1.599926E+0	1.584699E+0	1.584846E+0	1.516863E+0	1.575882E+0	1.608076E+0	1.578920E+0	1.542111E+0	1.606332E+0	1.595970E+0	1.597280E+0	1.571286E+0	1.628470E+0	1.657198E+0	1.640872E+0	1.627899E+0	1.603919E+0	1.619046E+0	1.595911E+0	1.577220E+0	1.535854E+0	1.659491E+0	1.578350E+0	1.587276E+0	1.581502E+0	1.595189E+0	1.650343E+0	1.543313E+0	1.601116E+0	1.595171E+0	1.562634E+0	1.540847E+0	1.546603E+0	1.580652E+0	1.551666E+0	1.575009E+0	1.582613E+0	1.584384E+0	1.619069E+0	1.560980E+0	1.551922E+0	1.598901E+0	1.583709E+0	1.625858E+0	1.535143E+0	1.609952E+0	1.617226E+0	1.508329E+0	1.576280E+0	1.556920E+0	1.543644E+0	1.591925E+0	1.533425E+0	1.595844E+0	1.544067E+0	1.521785E+0	1.583161E+0	1.570327E+0	1.604824E+0	1.526523E+0	1.539231E+0	1.570701E+0	1.545726E+0	1.582965E+0	1.586679E+0	1.611911E+0	1.538471E+0	1.634586E+0	1.588131E+0	1.591345E+0	1.539632E+0	1.529561E+0	1.494889E+0	1.579254E+0	1.585539E+0	1.547998E+0	1.562175E+0	1.519038E+0	1.632738E+0
5.348280E+2	2.017455E+0	2.027385E+0	1.981289E+0	1.878905E+0	2.001168E+0	1.933722E+0	1.923262E+0	2.003887E+0	1.997807E+0	1.969314E+0	2.006772E+0	1.949802E+0	2.002763E+0	1.979058E+0	1.880122E+0	1.963565E+0	1.914125E+0	1.991111E+0	2.000146E+0	1.990373E+0	1.970582E+0	1.994326E+0	1.920968E+0	1.982043E+0	2.056969E+0	1.996744E+0	1.975888E+0	1.971368E+0	2.005983E+0	2.008373E+0	1.987461E+0	1.985330E+0	1.965021E+0	1.953090E+0	1.930971E+0	2.023452E+0	2.054603E+0	1.978152E+0	1.914975E+0	1.930283E+0	2.031794E+0	2.011020E+0	1.925518E+0	1.995663E+0	1.930005E+0	1.992051E+0	2.005043E+0	1.972762E+0	1.934258E+0	1.967717E+0	1.960221E+0	1.961742E+0	1.915718E+0	1.952405E+0	1.967128E+0	1.956005E+0	1.996537E+0	2.007970E+0	1.970396E+0	1.972528E+0	1.917983E+0	1.965990E+0	1.946870E+0	1.924127E+0	1.960700E+0	1.874697E+0	2.008622E+0	1.943740E+0	1.925098E+0	1.974498E+0	1.897370E+0	1.909572E+0	2.016954E+0	1.967939E+0	1.895960E+0	1.976074E+0	1.959481E+0	1.939287E+0	1.908136E+0	2.007172E+0	1.971150E+0	2.012890E+0	1.947365E+0	1.925618E+0	2.007746E+0	1.988729E+0	1.881989E+0	1.908566E+0	1.931147E+0	1.951113E+0	1.960247E+0	1.936420E+0	1.928182E+0	1.922640E+0	1.890976E+0	1.890396E+0	1.962740E+0	1.933483E+0	1.944385E+0	1.933039E+0	1.986365E+0	1.944015E+0	1.940914E+0	1.940225E+0	2.011861E+0	1.914011E+0	1.844566E+0	1.950054E+0	1.946181E+0	1.929455E+0	1.937469E+0	1.948202E+0	1.979016E+0	1.910577E+0	1.887234E+0	1.921541E+0	1.920265E+0	1.973526E+0	1.867153E+0	1.894267E+0	1.915753E+0	1.905010E+0	1.875351E+0	1.939833E+0	1.898906E+0	1.849089E+0	1.891440E+0	1.965609E+0	1.925324E+0	1.982889E+0	1.923863E+0	1.981614E+0	1.914484E+0	1.908216E+0	1.894401E+0	1.909191E+0	1.975482E+0	1.919567E+0	1.853672E+0	1.925080E+0	1.938040E+0	1.874740E+0	1.922716E+0	1.890549E+0	1.935744E+0	1.904968E+0	1.892627E+0	1.909336E+0	1.935587E+0	1.915673E+0	1.913449E+0	1.903223E+0	1.885712E+0	1.856344E+0	1.911170E+0	1.979183E+0	1.946272E+0	1.850606E+0	1.894296E+0	1.919569E+0	1.959000E+0	1.907076E+0	1.908838E+0	1.850595E+0	1.920330E+0	1.900414E+0	1.870340E+0	1.865030E+0	1.955567E+0	1.965882E+0
5.349740E+2	2.197043E+0	2.086193E+0	2.076211E+0	2.132965E+0	2.168623E+0	2.133743E+0	2.024344E+0	2.118704E+0	2.120717E+0	2.194739E+0	2.088238E+0	2.149799E+0	2.170790E+0	2.136892E+0	2.093019E+0	2.136365E+0	2.093149E+0	2.152728E+0	2.164936E+0	2.121645E+0	2.078472E+0	2.102607E+0	2.059440E+0	2.104503E+0	2.145016E+0	2.125255E+0	2.038913E+0	2.046116E+0	2.113368E+0	2.143831E+0	2.080258E+0	2.073096E+0	2.112315E+0	2.124962E+0	2.068347E+0	2.148633E+0	2.145624E+0	2.064414E+0	2.068508E+0	2.021363E+0	2.135926E+0	2.070695E+0	2.099219E+0	2.104624E+0	2.092471E+0	2.080558E+0	2.058605E+0	2.079366E+0	2.077967E+0	2.060424E+0	2.038421E+0	2.061814E+0	2.113554E+0	2.110904E+0	2.070133E+0	2.112678E+0	2.077804E+0	2.103772E+0	2.131731E+0	2.112016E+0	2.048638E+0	2.067856E+0	2.060390E+0	2.053865E+0	2.157589E+0	1.992347E+0	2.117545E+0	2.113022E+0	2.040416E+0	2.063326E+0	2.040846E+0	2.063760E+0	2.060786E+0	2.081527E+0	2.095388E+0	2.096395E+0	2.117081E+0	2.095624E+0	2.007924E+0	2.014642E+0	2.099489E+0	2.143760E+0	2.072269E+0	2.089222E+0	2.219033E+0	2.127323E+0	2.105499E+0	2.045029E+0	2.079200E+0	2.055914E+0	2.054560E+0	2.093537E+0	2.089369E+0	2.046820E+0	1.988316E+0	2.072457E+0	2.132215E+0	1.996937E+0	2.035968E+0	2.021020E+0	2.065132E+0	1.989851E+0	2.108805E+0	2.085620E+0	2.163101E+0	2.035497E+0	2.113683E+0	2.073976E+0	2.103822E+0	2.097104E+0	2.028265E+0	2.008690E+0	2.050496E+0	2.028339E+0	1.970426E+0	2.098445E+0	2.034545E+0	2.077502E+0	2.036643E+0	2.091481E+0	2.118358E+0	2.068789E+0	2.042253E+0	1.999833E+0	2.065512E+0	2.084389E+0	2.022319E+0	2.011385E+0	2.056017E+0	2.035149E+0	2.014736E+0	2.023944E+0	2.111782E+0	2.007801E+0	2.043977E+0	2.021557E+0	2.094121E+0	2.072930E+0	2.044947E+0	2.128516E+0	2.016193E+0	2.070559E+0	2.071540E+0	2.057011E+0	2.115007E+0	2.027086E+0	1.985272E+0	1.909943E+0	1.970138E+0	2.081276E+0	2.113047E+0	2.035435E+0	2.106037E+0	2.005193E+0	2.054000E+0	2.053006E+0	2.087068E+0	1.937682E+0	1.998123E+0	2.033316E+0	1.988676E+0	1.986232E+0	1.999345E+0	1.956071E+0	2.004767E+0	2.058301E+0	2.014071E+0	2.001572E+0	2.026354E+0	1.949525E+0
5.351090E+2	2.102466E+0	2.081874E+0	1.992369E+0	2.070450E+0	2.104284E+0	2.123091E+0	2.043355E+0	2.051886E+0	2.054128E+0	2.080208E+0	2.062698E+0	2.042651E+0	2.077265E+0	2.140683E+0	2.073856E+0	2.048550E+0	2.062253E+0	2.097390E+0	2.051035E+0	2.107323E+0	2.056377E+0	2.012127E+0	2.075899E+0	2.074271E+0	2.074566E+0	2.027370E+0	1.968946E+0	1.985564E+0	2.007559E+0	2.034720E+0	2.042415E+0	2.022273E+0	2.044306E+0	2.046330E+0	1.986812E+0	2.009436E+0	2.050000E+0	1.993412E+0	2.004572E+0	2.012254E+0	2.020923E+0	2.056587E+0	1.961652E+0	2.029211E+0	2.084095E+0	1.941484E+0	1.997911E+0	1.991800E+0	2.031366E+0	2.084545E+0	1.965705E+0	2.087483E+0	2.034280E+0	2.043755E+0	2.015012E+0	2.090647E+0	2.057689E+0	2.062845E+0	2.017420E+0	2.012854E+0	2.002223E+0	2.058494E+0	2.064335E+0	1.967217E+0	2.099677E+0	2.015094E+0	2.044741E+0	2.012107E+0	1.994535E+0	2.049660E+0	2.057240E+0	2.008970E+0	2.050153E+0	2.001605E+0	1.985059E+0	2.052771E+0	2.063260E+0	2.054441E+0	2.013674E+0	2.015099E+0	2.008898E+0	2.014286E+0	2.074435E+0	2.039105E+0	2.053617E+0	2.003243E+0	1.947835E+0	2.013822E+0	2.017155E+0	2.022343E+0	1.981148E+0	2.087178E+0	1.994774E+0	2.008219E+0	1.981983E+0	2.015062E+0	2.076230E+0	2.008018E+0	1.995753E+0	2.040726E+0	2.061738E+0	1.960804E+0	2.031718E+0	2.038891E+0	2.040450E+0	1.994516E+0	2.009619E+0	2.020169E+0	2.026488E+0	2.016325E+0	1.990451E+0	1.956708E+0	2.012470E+0	2.008265E+0	1.982977E+0	2.049717E+0	2.057253E+0	2.058360E+0	1.914191E+0	2.000081E+0	2.056440E+0	1.969787E+0	2.062852E+0	1.941310E+0	2.026381E+0	1.999745E+0	1.940414E+0	1.928124E+0	1.994495E+0	1.983328E+0	1.971002E+0	1.968902E+0	2.035579E+0	1.991943E+0	1.930592E+0	1.976827E+0	2.071507E+0	2.014222E+0	1.886353E+0	1.977940E+0	1.965461E+0	1.949597E+0	1.987793E+0	2.023140E+0	1.985885E+0	1.993822E+0	1.894665E+0	2.016223E+0	1.980749E+0	2.031379E+0	1.942889E+0	1.959722E+0	1.918460E+0	1.921926E+0	1.991339E+0	1.997007E+0	2.029758E+0	1.930082E+0	1.965127E+0	2.009650E+0	1.957170E+0	2.018628E+0	1.986461E+0	1.866187E+0	1.968622E+0	1.969302E+0	1.930545E+0	2.078668E+0	1.999609E+0	2.038151E+0
5.352600E+2	1.871457E+0	1.916929E+0	1.841443E+0	1.862972E+0	1.819926E+0	1.861786E+0	1.831367E+0	1.788037E+0	1.784139E+0	1.889566E+0	1.797467E+0	1.831502E+0	1.860400E+0	1.773087E+0	1.762549E+0	1.855600E+0	1.803539E+0	1.927456E+0	1.797106E+0	1.859191E+0	1.740785E+0	1.824426E+0	1.785960E+0	1.842752E+0	1.739831E+0	1.710060E+0	1.766988E+0	1.719428E+0	1.747667E+0	1.789025E+0	1.795822E+0	1.785425E+0	1.757293E+0	1.774120E+0	1.769598E+0	1.771204E+0	1.796661E+0	1.746064E+0	1.762826E+0	1.719390E+0	1.815939E+0	1.844367E+0	1.769090E+0	1.770379E+0	1.768466E+0	1.867297E+0	1.770786E+0	1.756847E+0	1.708425E+0	1.785658E+0	1.792766E+0	1.784274E+0	1.725779E+0	1.794062E+0	1.805835E+0	1.797433E+0	1.848516E+0	1.817045E+0	1.837914E+0	1.822538E+0	1.764560E+0	1.758062E+0	1.791088E+0	1.725917E+0	1.839869E+0	1.771097E+0	1.780282E+0	1.785755E+0	1.776859E+0	1.796870E+0	1.806700E+0	1.788093E+0	1.813890E+0	1.799510E+0	1.765724E+0	1.768194E+0	1.817123E+0	1.786891E+0	1.706165E+0	1.826520E+0	1.820957E+0	1.863805E+0	1.761900E+0	1.778687E+0	1.754385E+0	1.805666E+0	1.758801E+0	1.811599E+0	1.767114E+0	1.746866E+0	1.785821E+0	1.809734E+0	1.739361E+0	1.747793E+0	1.763229E+0	1.774026E+0	1.789923E+0	1.766754E+0	1.774896E+0	1.754175E+0	1.741068E+0	1.746369E+0	1.681095E+0	1.788999E+0	1.887545E+0	1.774355E+0	1.782301E+0	1.806768E+0	1.789979E+0	1.785064E+0	1.723337E+0	1.704419E+0	1.779939E+0	1.759321E+0	1.781362E+0	1.785014E+0	1.736121E+0	1.849257E+0	1.707073E+0	1.725104E+0	1.793583E+0	1.794050E+0	1.739471E+0	1.745781E+0	1.779433E+0	1.831441E+0	1.703391E+0	1.753095E+0	1.755729E+0	1.789032E+0	1.728284E+0	1.783507E+0	1.791896E+0	1.693049E+0	1.757978E+0	1.748367E+0	1.874491E+0	1.816397E+0	1.713083E+0	1.799223E+0	1.813837E+0	1.782847E+0	1.784164E+0	1.773456E+0	1.810251E+0	1.759305E+0	1.715498E+0	1.777194E+0	1.731336E+0	1.807642E+0	1.761686E+0	1.666115E+0	1.801309E+0	1.785432E+0	1.721370E+0	1.698613E+0	1.767875E+0	1.741695E+0	1.705427E+0	1.772706E+0	1.764890E+0	1.729049E+0	1.758701E+0	1.733179E+0	1.762536E+0	1.695891E+0	1.744709E+0	1.780301E+0	1.732723E+0	1.800005E+0
5.354110E+2	1.600058E+0	1.606150E+0	1.529098E+0	1.571090E+0	1.543705E+0	1.545243E+0	1.510777E+0	1.622987E+0	1.529294E+0	1.590231E+0	1.495462E+0	1.559795E+0	1.572471E+0	1.537710E+0	1.550292E+0	1.603677E+0	1.574172E+0	1.652075E+0	1.589551E+0	1.564074E+0	1.484130E+0	1.572367E+0	1.513373E+0	1.547188E+0	1.590783E+0	1.479848E+0	1.514381E+0	1.523776E+0	1.579096E+0	1.560985E+0	1.527442E+0	1.546079E+0	1.505822E+0	1.586797E+0	1.503298E+0	1.590988E+0	1.510920E+0	1.488643E+0	1.512331E+0	1.519357E+0	1.559107E+0	1.527181E+0	1.471864E+0	1.541676E+0	1.559005E+0	1.550764E+0	1.569065E+0	1.520754E+0	1.495613E+0	1.543538E+0	1.567364E+0	1.559757E+0	1.507075E+0	1.533915E+0	1.571565E+0	1.568266E+0	1.518782E+0	1.550172E+0	1.519180E+0	1.578988E+0	1.488124E+0	1.554391E+0	1.513439E+0	1.521592E+0	1.549209E+0	1.514730E+0	1.568158E+0	1.508795E+0	1.481038E+0	1.538491E+0	1.523714E+0	1.530948E+0	1.520386E+0	1.497932E+0	1.558653E+0	1.502918E+0	1.506160E+0	1.507453E+0	1.483446E+0	1.505986E+0	1.584074E+0	1.531187E+0	1.591416E+0	1.554076E+0	1.526441E+0	1.571243E+0	1.504165E+0	1.531243E+0	1.505382E+0	1.532042E+0	1.528843E+0	1.558983E+0	1.551865E+0	1.559766E+0	1.508852E+0	1.550336E+0	1.517292E+0	1.565181E+0	1.560595E+0	1.517485E+0	1.530661E+0	1.481686E+0	1.546473E+0	1.544549E+0	1.555931E+0	1.536940E+0	1.548164E+0	1.508703E+0	1.572239E+0	1.576757E+0	1.471516E+0	1.546779E+0	1.531506E+0	1.520687E+0	1.503919E+0	1.544914E+0	1.588507E+0	1.483316E+0	1.491496E+0	1.507409E+0	1.535419E+0	1.522450E+0	1.466747E+0	1.578904E+0	1.529753E+0	1.580374E+0	1.516848E+0	1.482819E+0	1.525862E+0	1.577495E+0	1.527183E+0	1.556188E+0	1.528306E+0	1.526583E+0	1.553003E+0	1.516919E+0	1.475560E+0	1.504175E+0	1.506576E+0	1.497895E+0	1.568177E+0	1.534962E+0	1.495782E+0	1.585640E+0	1.540049E+0	1.544386E+0	1.498085E+0	1.491419E+0	1.520688E+0	1.555073E+0	1.463638E+0	1.559311E+0	1.556467E+0	1.521680E+0	1.530231E+0	1.556693E+0	1.541431E+0	1.471513E+0	1.503373E+0	1.497740E+0	1.574535E+0	1.493622E+0	1.561785E+0	1.493295E+0	1.535594E+0	1.489447E+0	1.527043E+0	1.562777E+0	1.547855E+0	1.550992E+0
5.355630E+2	1.368285E+0	1.269763E+0	1.341351E+0	1.264688E+0	1.287146E+0	1.315082E+0	1.253544E+0	1.292163E+0	1.314527E+0	1.333692E+0	1.283914E+0	1.292330E+0	1.258407E+0	1.305837E+0	1.269267E+0	1.295453E+0	1.310565E+0	1.315812E+0	1.310788E+0	1.283414E+0	1.261634E+0	1.319985E+0	1.268862E+0	1.276106E+0	1.253160E+0	1.269430E+0	1.222665E+0	1.234163E+0	1.212404E+0	1.271891E+0	1.236083E+0	1.236424E+0	1.330541E+0	1.293492E+0	1.291621E+0	1.248587E+0	1.226716E+0	1.285769E+0	1.254442E+0	1.271634E+0	1.291917E+0	1.260419E+0	1.299867E+0	1.261552E+0	1.295383E+0	1.234947E+0	1.273305E+0	1.290121E+0	1.265954E+0	1.317454E+0	1.238464E+0	1.281275E+0	1.248254E+0	1.284453E+0	1.273600E+0	1.299865E+0	1.289170E+0	1.306920E+0	1.246564E+0	1.281140E+0	1.259895E+0	1.271877E+0	1.279718E+0	1.290363E+0	1.332447E+0	1.256289E+0	1.339014E+0	1.245536E+0	1.294423E+0	1.344432E+0	1.305202E+0	1.238315E+0	1.262802E+0	1.271445E+0	1.319795E+0	1.189839E+0	1.303166E+0	1.295533E+0	1.242409E+0	1.276678E+0	1.293246E+0	1.334940E+0	1.363360E+0	1.324390E+0	1.294158E+0	1.289004E+0	1.208865E+0	1.305996E+0	1.273468E+0	1.250612E+0	1.302356E+0	1.314214E+0	1.317806E+0	1.317144E+0	1.252195E+0	1.261160E+0	1.266696E+0	1.288155E+0	1.331114E+0	1.300737E+0	1.254554E+0	1.313682E+0	1.256097E+0	1.289772E+0	1.339093E+0	1.325167E+0	1.318885E+0	1.277800E+0	1.317178E+0	1.274013E+0	1.255728E+0	1.283440E+0	1.289096E+0	1.301064E+0	1.249859E+0	1.315151E+0	1.262811E+0	1.292834E+0	1.246367E+0	1.296428E+0	1.323309E+0	1.317916E+0	1.257421E+0	1.270923E+0	1.275159E+0	1.301629E+0	1.269436E+0	1.261828E+0	1.274262E+0	1.346776E+0	1.284687E+0	1.227248E+0	1.251487E+0	1.294868E+0	1.300803E+0	1.224597E+0	1.318558E+0	1.250522E+0	1.274930E+0	1.257404E+0	1.275113E+0	1.245124E+0	1.306561E+0	1.241535E+0	1.289224E+0	1.238196E+0	1.301269E+0	1.278735E+0	1.252617E+0	1.237932E+0	1.256345E+0	1.272171E+0	1.290641E+0	1.243773E+0	1.273278E+0	1.258711E+0	1.262054E+0	1.245630E+0	1.304604E+0	1.244321E+0	1.267905E+0	1.247967E+0	1.314231E+0	1.301337E+0	1.330843E+0	1.304858E+0	1.224706E+0	1.291530E+0	1.242814E+0	1.253485E+0
5.357190E+2	1.158304E+0	1.132086E+0	1.118296E+0	1.164369E+0	1.147550E+0	1.155699E+0	1.142134E+0	1.131925E+0	1.140187E+0	1.186907E+0	1.096161E+0	1.094842E+0	1.135462E+0	1.149374E+0	1.130628E+0	1.113010E+0	1.100283E+0	1.156338E+0	1.113804E+0	1.155419E+0	1.117224E+0	1.105061E+0	1.128034E+0	1.144930E+0	1.153557E+0	1.096084E+0	1.075374E+0	1.117874E+0	1.098950E+0	1.144933E+0	1.138486E+0	1.143073E+0	1.100449E+0	1.170469E+0	1.115173E+0	1.125049E+0	1.125931E+0	1.096858E+0	1.121059E+0	1.153611E+0	1.132982E+0	1.103789E+0	1.137990E+0	1.156180E+0	1.099305E+0	1.144693E+0	1.107399E+0	1.119113E+0	1.072934E+0	1.137031E+0	1.142397E+0	1.135736E+0	1.094529E+0	1.125699E+0	1.106490E+0	1.127681E+0	1.157935E+0	1.134373E+0	1.151408E+0	1.108693E+0	1.124362E+0	1.136148E+0	1.155312E+0	1.102444E+0	1.130862E+0	1.098130E+0	1.189769E+0	1.126269E+0	1.104866E+0	1.146692E+0	1.132800E+0	1.145420E+0	1.171351E+0	1.132685E+0	1.174499E+0	1.102989E+0	1.095695E+0	1.109080E+0	1.092375E+0	1.114805E+0	1.124283E+0	1.135995E+0	1.140148E+0	1.127822E+0	1.111617E+0	1.133739E+0	1.157096E+0	1.056979E+0	1.127729E+0	1.159320E+0	1.175500E+0	1.127404E+0	1.112314E+0	1.130522E+0	1.089061E+0	1.121139E+0	1.113266E+0	1.131807E+0	1.118798E+0	1.105260E+0	1.130075E+0	1.098925E+0	1.162533E+0	1.128606E+0	1.115115E+0	1.146134E+0	1.093474E+0	1.074869E+0	1.199091E+0	1.126086E+0	1.071762E+0	1.121829E+0	1.111035E+0	1.162237E+0	1.094663E+0	1.132645E+0	1.124796E+0	1.174793E+0	1.094502E+0	1.113258E+0	1.093148E+0	1.154667E+0	1.087452E+0	1.108585E+0	1.104718E+0	1.125352E+0	1.125534E+0	1.093856E+0	1.147117E+0	1.110069E+0	1.099334E+0	1.079384E+0	1.125989E+0	1.141498E+0	1.113300E+0	1.143246E+0	1.134447E+0	1.085344E+0	1.087737E+0	1.106688E+0	1.142959E+0	1.069063E+0	1.174336E+0	1.127395E+0	1.105907E+0	1.109044E+0	1.123983E+0	1.085967E+0	1.112320E+0	1.164645E+0	1.140105E+0	1.172195E+0	1.077725E+0	1.149857E+0	1.122575E+0	1.092397E+0	1.127732E+0	1.096544E+0	1.098634E+0	1.121700E+0	1.098682E+0	1.107339E+0	1.115964E+0	1.107157E+0	1.102986E+0	1.134554E+0	1.106039E+0	1.145089E+0	1.151518E+0	1.164683E+0
5.358650E+2	1.004385E+0	9.668472E-1	9.289074E-1	9.259492E-1	9.694801E-1	9.713154E-1	9.592907E-1	9.694187E-1	9.277584E-1	1.037586E+0	9.750484E-1	9.762954E-1	9.150053E-1	9.883249E-1	9.096048E-1	9.726773E-1	9.685698E-1	1.005992E+0	9.672021E-1	9.415061E-1	9.683145E-1	9.200086E-1	9.422618E-1	9.696136E-1	9.536807E-1	9.691078E-1	9.148425E-1	9.731142E-1	9.688814E-1	9.676455E-1	9.404075E-1	9.507760E-1	9.364914E-1	9.863385E-1	9.502756E-1	9.702571E-1	9.583591E-1	9.999027E-1	9.315182E-1	8.975609E-1	9.576826E-1	9.488934E-1	9.540624E-1	9.783188E-1	9.438075E-1	9.857303E-1	9.759916E-1	9.339877E-1	9.426847E-1	9.804548E-1	9.963836E-1	9.118596E-1	9.275488E-1	9.587259E-1	9.270896E-1	9.427677E-1	9.852719E-1	9.812737E-1	9.974650E-1	9.944502E-1	9.657833E-1	9.638741E-1	1.000498E+0	9.520859E-1	9.627916E-1	9.701651E-1	1.016212E+0	9.936381E-1	9.771056E-1	9.842742E-1	1.015899E+0	9.524813E-1	9.497714E-1	9.361844E-1	9.898717E-1	9.184064E-1	9.260695E-1	1.008964E+0	9.449123E-1	9.590974E-1	9.478313E-1	9.904145E-1	9.372383E-1	9.323152E-1	9.658903E-1	9.505409E-1	9.650345E-1	9.539706E-1	9.405025E-1	9.842657E-1	9.716921E-1	9.433094E-1	9.351570E-1	9.588632E-1	9.446561E-1	9.407428E-1	9.592864E-1	9.378205E-1	1.003918E+0	9.742462E-1	9.510087E-1	9.690402E-1	9.215018E-1	9.819243E-1	9.972193E-1	9.640034E-1	9.672702E-1	9.382244E-1	9.539521E-1	9.766031E-1	9.626028E-1	9.370053E-1	9.729964E-1	9.878484E-1	9.162303E-1	9.885066E-1	9.472807E-1	9.785051E-1	9.446544E-1	9.586614E-1	9.702674E-1	9.595725E-1	9.438960E-1	9.742715E-1	9.201809E-1	1.006190E+0	9.710256E-1	9.310267E-1	9.413284E-1	9.694923E-1	1.042262E+0	1.015724E+0	1.007700E+0	9.750128E-1	9.383881E-1	9.475120E-1	1.005989E+0	9.696658E-1	9.457300E-1	9.904816E-1	9.407519E-1	9.316537E-1	9.925478E-1	9.823552E-1	9.754164E-1	9.800608E-1	9.610036E-1	9.631698E-1	9.621199E-1	9.652753E-1	9.638261E-1	9.640392E-1	9.998521E-1	9.393505E-1	9.649998E-1	1.020312E+0	9.412521E-1	9.539979E-1	9.407166E-1	9.314124E-1	9.635471E-1	9.627995E-1	9.565375E-1	9.521619E-1	1.037249E+0	9.394106E-1	9.695723E-1	9.937036E-1	9.512124E-1	9.823818E-1
5.360120E+2	8.190325E-1	8.128985E-1	8.022439E-1	8.363241E-1	8.180409E-1	8.465522E-1	7.954041E-1	7.443292E-1	7.889302E-1	8.143355E-1	7.736644E-1	7.931917E-1	8.137287E-1	8.196231E-1	8.202913E-1	8.163038E-1	8.229555E-1	8.290356E-1	8.223141E-1	8.638891E-1	8.173962E-1	8.352631E-1	7.817307E-1	8.092096E-1	8.430272E-1	8.456306E-1	7.923072E-1	8.092069E-1	8.304154E-1	8.102597E-1	8.289260E-1	8.216698E-1	8.151677E-1	8.167890E-1	8.071834E-1	8.075375E-1	8.333671E-1	8.089127E-1	7.865596E-1	8.075169E-1	8.265688E-1	8.297433E-1	8.144576E-1	8.392139E-1	8.420717E-1	7.900620E-1	8.199397E-1	7.946396E-1	7.878295E-1	8.046034E-1	7.596829E-1	7.673775E-1	7.901723E-1	8.360863E-1	8.397767E-1	8.267165E-1	8.204635E-1	8.364956E-1	8.067727E-1	8.322067E-1	8.071618E-1	8.330415E-1	8.464890E-1	8.070333E-1	8.318800E-1	7.969659E-1	8.165495E-1	8.305206E-1	7.919536E-1	8.171230E-1	8.095852E-1	8.313211E-1	8.014633E-1	7.853595E-1	8.702736E-1	8.082172E-1	8.196176E-1	8.588108E-1	8.042028E-1	8.150962E-1	7.912719E-1	8.403631E-1	8.574907E-1	7.861600E-1	8.385657E-1	8.600533E-1	7.520229E-1	8.274291E-1	8.188982E-1	8.456558E-1	7.732548E-1	8.454736E-1	8.171509E-1	7.999872E-1	8.172050E-1	8.223162E-1	8.451097E-1	8.074170E-1	8.289990E-1	7.992153E-1	8.271693E-1	8.203795E-1	7.941393E-1	7.964708E-1	8.419270E-1	7.889152E-1	8.244736E-1	8.312012E-1	8.424798E-1	8.491896E-1	7.788687E-1	8.111065E-1	8.181170E-1	8.412867E-1	7.954953E-1	8.264433E-1	8.074573E-1	8.132206E-1	8.108479E-1	8.112870E-1	8.152212E-1	8.454390E-1	8.427150E-1	8.080287E-1	8.258958E-1	8.436601E-1	8.483715E-1	8.190495E-1	7.963160E-1	8.442995E-1	8.086848E-1	8.155985E-1	8.259678E-1	8.298421E-1	8.161770E-1	7.980500E-1	7.779869E-1	8.176745E-1	8.308173E-1	8.439358E-1	8.159608E-1	8.275820E-1	8.407785E-1	8.375411E-1	8.061632E-1	8.246088E-1	8.287567E-1	8.143200E-1	8.001741E-1	8.517562E-1	8.456660E-1	8.236243E-1	7.706694E-1	8.289533E-1	7.944779E-1	8.399076E-1	8.458695E-1	8.193788E-1	8.205277E-1	8.280466E-1	8.494043E-1	7.837740E-1	8.737205E-1	7.993291E-1	8.038663E-1	8.381089E-1	8.210841E-1	8.491112E-1	7.880632E-1	8.133381E-1
5.362730E+2	6.680624E-1	5.738875E-1	6.110222E-1	5.908457E-1	5.936646E-1	5.875489E-1	6.223611E-1	6.016359E-1	6.245052E-1	6.009656E-1	5.709494E-1	6.032507E-1	6.460515E-1	6.016107E-1	6.151753E-1	6.150505E-1	5.836079E-1	6.379893E-1	6.003435E-1	6.155029E-1	5.971881E-1	5.824334E-1	5.929972E-1	5.868581E-1	6.563116E-1	6.406035E-1	6.227717E-1	6.123377E-1	6.328814E-1	6.404858E-1	6.353257E-1	5.943813E-1	5.985398E-1	6.282582E-1	5.772772E-1	6.282126E-1	5.809381E-1	5.922121E-1	5.818512E-1	5.832504E-1	5.739252E-1	6.522960E-1	6.029557E-1	6.047094E-1	6.203679E-1	6.204448E-1	6.172900E-1	5.724957E-1	5.699385E-1	6.428508E-1	6.308665E-1	6.138085E-1	6.043829E-1	6.268519E-1	5.910294E-1	6.357573E-1	6.146635E-1	5.911780E-1	6.189206E-1	5.904673E-1	6.133383E-1	6.307369E-1	6.039019E-1	6.044184E-1	6.605050E-1	6.074624E-1	6.230988E-1	5.591352E-1	6.029838E-1	6.242571E-1	5.720093E-1	6.052641E-1	6.511557E-1	5.927718E-1	6.235411E-1	6.345461E-1	6.337270E-1	6.276649E-1	5.966812E-1	6.110747E-1	5.881844E-1	6.477698E-1	6.468077E-1	6.036174E-1	6.062504E-1	6.079962E-1	5.889534E-1	6.057350E-1	6.182661E-1	6.250765E-1	5.889251E-1	6.151395E-1	6.087668E-1	6.360861E-1	5.834866E-1	5.891459E-1	5.957570E-1	6.159648E-1	5.754896E-1	6.273929E-1	6.281046E-1	5.906714E-1	5.986785E-1	6.350046E-1	6.168843E-1	6.303425E-1	6.290358E-1	6.525930E-1	6.087947E-1	6.298023E-1	6.090560E-1	6.315093E-1	5.556105E-1	5.843414E-1	5.846622E-1	6.092636E-1	6.209593E-1	6.552933E-1	6.026383E-1	6.316982E-1	6.269187E-1	6.111368E-1	5.855829E-1	6.570756E-1	6.067434E-1	6.025600E-1	5.975674E-1	5.934869E-1	6.268449E-1	6.235820E-1	6.148409E-1	6.557629E-1	6.250041E-1	6.508391E-1	6.205274E-1	6.024164E-1	6.332312E-1	5.991091E-1	6.157022E-1	5.968599E-1	6.460213E-1	6.265149E-1	6.302693E-1	6.256883E-1	6.069336E-1	6.044791E-1	6.377282E-1	6.544947E-1	6.094239E-1	6.410951E-1	6.115800E-1	6.410562E-1	6.184151E-1	6.191426E-1	6.098631E-1	6.218620E-1	6.119897E-1	6.170957E-1	5.977962E-1	6.291114E-1	6.176263E-1	5.962182E-1	6.107449E-1	6.116342E-1	6.089469E-1	6.106848E-1	5.746928E-1	6.695668E-1	6.017547E-1	6.640440E-1
5.365140E+2	5.355455E-1	5.188680E-1	5.359799E-1	5.248822E-1	5.297259E-1	5.219785E-1	5.091592E-1	5.164742E-1	5.493741E-1	5.086616E-1	5.723187E-1	5.653179E-1	5.233270E-1	5.372216E-1	5.412292E-1	5.502952E-1	5.296373E-1	5.263457E-1	5.426534E-1	5.402357E-1	5.406650E-1	5.323426E-1	5.107147E-1	5.418659E-1	5.401969E-1	5.558474E-1	5.269738E-1	5.487571E-1	5.421308E-1	5.347835E-1	5.159642E-1	5.614183E-1	5.381736E-1	5.284103E-1	5.449547E-1	5.048483E-1	5.319573E-1	5.556861E-1	5.417429E-1	5.095162E-1	5.338072E-1	5.154129E-1	5.423079E-1	5.202288E-1	5.630900E-1	5.251211E-1	5.638040E-1	5.327469E-1	5.470986E-1	5.591154E-1	5.497855E-1	5.574998E-1	5.398890E-1	5.160619E-1	5.299884E-1	5.498914E-1	5.350305E-1	5.696395E-1	5.381147E-1	5.611092E-1	5.422771E-1	5.302853E-1	5.218986E-1	5.755770E-1	5.771759E-1	5.201213E-1	5.175059E-1	5.284018E-1	5.129052E-1	5.666348E-1	5.348109E-1	5.391087E-1	5.355382E-1	5.391791E-1	5.055897E-1	5.191239E-1	5.539386E-1	5.168666E-1	5.357457E-1	5.698613E-1	5.192836E-1	5.561597E-1	5.795294E-1	5.411889E-1	5.336669E-1	5.470731E-1	5.108214E-1	5.482870E-1	5.389920E-1	5.490202E-1	5.598153E-1	5.564481E-1	5.236916E-1	5.395678E-1	5.413521E-1	5.318668E-1	5.279804E-1	5.646690E-1	5.292106E-1	5.158804E-1	5.317051E-1	5.380905E-1	5.403685E-1	5.072531E-1	5.458972E-1	5.484251E-1	5.289177E-1	5.311957E-1	5.440720E-1	5.268958E-1	5.257554E-1	5.305052E-1	5.299680E-1	5.463378E-1	5.180968E-1	5.447808E-1	5.134681E-1	5.691990E-1	5.196865E-1	5.263505E-1	5.400254E-1	5.033077E-1	5.273287E-1	5.439447E-1	4.930636E-1	5.278992E-1	5.327216E-1	5.388760E-1	5.136149E-1	5.806355E-1	5.106629E-1	5.392329E-1	5.561082E-1	5.731122E-1	5.474399E-1	5.284664E-1	5.611067E-1	5.130953E-1	5.179535E-1	5.450749E-1	5.200303E-1	5.139712E-1	5.485368E-1	5.209660E-1	5.404162E-1	5.600024E-1	5.262213E-1	5.295480E-1	5.456075E-1	5.327054E-1	5.117569E-1	5.445524E-1	5.373152E-1	5.268473E-1	5.407271E-1	5.565656E-1	5.489718E-1	5.284795E-1	5.409804E-1	5.250206E-1	5.451184E-1	5.329297E-1	5.726611E-1	5.531051E-1	5.582568E-1	5.375457E-1	5.172535E-1	5.599724E-1	5.459408E-1	6.045115E-1
5.367710E+2	5.337765E-1	4.949465E-1	5.158283E-1	5.238569E-1	4.761859E-1	5.414364E-1	5.178160E-1	5.248832E-1	4.886100E-1	5.332967E-1	5.409103E-1	5.233414E-1	5.394496E-1	5.589593E-1	5.357361E-1	5.256891E-1	5.398389E-1	5.175847E-1	5.274679E-1	4.948906E-1	5.051007E-1	4.905173E-1	5.371658E-1	5.201265E-1	5.364836E-1	5.352068E-1	5.173429E-1	5.392159E-1	5.368295E-1	4.907666E-1	5.539294E-1	5.451238E-1	5.292059E-1	5.393850E-1	5.453785E-1	5.601874E-1	5.463580E-1	5.217675E-1	5.298906E-1	5.368415E-1	5.609970E-1	5.610521E-1	5.472130E-1	5.060769E-1	5.793235E-1	5.666379E-1	5.108045E-1	5.306696E-1	5.338927E-1	5.236226E-1	5.100026E-1	5.392109E-1	5.192877E-1	5.298111E-1	5.632035E-1	5.319818E-1	5.292443E-1	5.507833E-1	5.369519E-1	5.524459E-1	5.675556E-1	5.394720E-1	5.740925E-1	5.177849E-1	5.865089E-1	5.066065E-1	5.348948E-1	5.182314E-1	5.027894E-1	5.324023E-1	5.399903E-1	5.153359E-1	5.300159E-1	5.556190E-1	5.401771E-1	5.286302E-1	5.507342E-1	5.332694E-1	5.209103E-1	5.192985E-1	5.431522E-1	5.012530E-1	5.428239E-1	5.187766E-1	5.408506E-1	5.176566E-1	5.533513E-1	5.588335E-1	5.041329E-1	4.996751E-1	5.370352E-1	5.123840E-1	4.973415E-1	5.499526E-1	4.771583E-1	5.511191E-1	5.194912E-1	5.608595E-1	5.389308E-1	5.230703E-1	5.039960E-1	5.501054E-1	5.381004E-1	5.151489E-1	5.432801E-1	5.248851E-1	5.616765E-1	5.130312E-1	5.701929E-1	5.369093E-1	5.438922E-1	5.135216E-1	5.229490E-1	5.087237E-1	5.007132E-1	5.310671E-1	5.176162E-1	5.349539E-1	5.368425E-1	5.234521E-1	5.032417E-1	5.305250E-1	5.097560E-1	5.426892E-1	5.287755E-1	5.334841E-1	5.530128E-1	5.418901E-1	5.369612E-1	5.739850E-1	5.403980E-1	5.679937E-1	5.706993E-1	5.636050E-1	5.412042E-1	5.097848E-1	5.264145E-1	5.399813E-1	5.649950E-1	5.135055E-1	5.195785E-1	5.416610E-1	5.388641E-1	5.263593E-1	5.352060E-1	4.946308E-1	5.324572E-1	5.372463E-1	4.943310E-1	5.215080E-1	5.291383E-1	5.241108E-1	5.527259E-1	5.523928E-1	5.398513E-1	5.409716E-1	5.169677E-1	5.055337E-1	5.390405E-1	5.507404E-1	5.336422E-1	5.250059E-1	5.314163E-1	5.258742E-1	5.486393E-1	5.385499E-1	5.163104E-1	5.605137E-1	5.175293E-1	5.414718E-1
5.370010E+2	5.535552E-1	5.400328E-1	5.384766E-1	5.622137E-1	5.427858E-1	5.522018E-1	5.648061E-1	5.604154E-1	5.216448E-1	5.197195E-1	5.374051E-1	5.723528E-1	5.645145E-1	5.556800E-1	5.430576E-1	5.558320E-1	5.534535E-1	5.720703E-1	5.388921E-1	5.385912E-1	5.373445E-1	5.313958E-1	5.245038E-1	5.516376E-1	5.709426E-1	5.857926E-1	5.504856E-1	5.642931E-1	5.558875E-1	5.678157E-1	5.904447E-1	5.593038E-1	5.691767E-1	5.898495E-1	5.437366E-1	5.678433E-1	5.436997E-1	5.672486E-1	5.742639E-1	5.725070E-1	5.604425E-1	6.382546E-1	5.715987E-1	5.296097E-1	5.632594E-1	5.848777E-1	5.413331E-1	5.883969E-1	5.514594E-1	5.638381E-1	5.464256E-1	5.776109E-1	5.429805E-1	5.443819E-1	5.595394E-1	5.484252E-1	5.732334E-1	5.864247E-1	5.657905E-1	5.265668E-1	5.721089E-1	5.077016E-1	6.059043E-1	5.501729E-1	5.557715E-1	5.254273E-1	5.773603E-1	5.585818E-1	5.474713E-1	5.792741E-1	5.549357E-1	5.527465E-1	5.578667E-1	5.767016E-1	5.611090E-1	5.331636E-1	5.749518E-1	5.725587E-1	5.227696E-1	5.591665E-1	5.731464E-1	5.500165E-1	5.621871E-1	5.673349E-1	5.617669E-1	5.695931E-1	5.542500E-1	5.781308E-1	5.837554E-1	5.308156E-1	5.647917E-1	5.693509E-1	5.836579E-1	5.791117E-1	5.540350E-1	5.116381E-1	5.513526E-1	5.940619E-1	5.532591E-1	5.638248E-1	5.575936E-1	5.528970E-1	5.804515E-1	6.075139E-1	5.367392E-1	5.492234E-1	5.515303E-1	5.648791E-1	5.331082E-1	5.759037E-1	5.338022E-1	5.518592E-1	5.512540E-1	5.424711E-1	5.729371E-1	5.754736E-1	5.807857E-1	5.525818E-1	5.726829E-1	5.666610E-1	5.626078E-1	5.772877E-1	5.079666E-1	5.773562E-1	5.978054E-1	5.562068E-1	5.668827E-1	5.402813E-1	5.599754E-1	5.721641E-1	5.402847E-1	5.554974E-1	5.931555E-1	5.418763E-1	5.644099E-1	5.547429E-1	5.512789E-1	5.664064E-1	5.449622E-1	5.605908E-1	5.276008E-1	5.552798E-1	5.651802E-1	5.521925E-1	5.545213E-1	5.516182E-1	5.405924E-1	5.815797E-1	5.629964E-1	5.307636E-1	5.489808E-1	5.529617E-1	5.637130E-1	5.450302E-1	5.467110E-1	5.670631E-1	5.557167E-1	5.554221E-1	5.360618E-1	5.804308E-1	5.699408E-1	5.221930E-1	5.442157E-1	5.683777E-1	5.460737E-1	5.318550E-1	5.561114E-1	5.665398E-1	5.493990E-1	5.870763E-1
5.372640E+2	6.629213E-1	6.376482E-1	6.355318E-1	6.258299E-1	6.312900E-1	6.083427E-1	6.171336E-1	6.244485E-1	6.482724E-1	6.418964E-1	6.580396E-1	6.584047E-1	6.470446E-1	6.221416E-1	6.168491E-1	6.433179E-1	6.536980E-1	6.353243E-1	6.095394E-1	6.401203E-1	6.541792E-1	6.229477E-1	6.070807E-1	6.370910E-1	6.985587E-1	6.309650E-1	6.457044E-1	6.378635E-1	6.722267E-1	6.522281E-1	6.454016E-1	6.220064E-1	6.371637E-1	6.690433E-1	6.471604E-1	6.344436E-1	6.698870E-1	6.494182E-1	6.119200E-1	6.246045E-1	6.604998E-1	6.491105E-1	6.399653E-1	6.492962E-1	6.574833E-1	6.389662E-1	6.407886E-1	6.428232E-1	5.934471E-1	6.764956E-1	6.445265E-1	6.241342E-1	6.701406E-1	6.251093E-1	6.099630E-1	6.412307E-1	6.462902E-1	6.285933E-1	6.227043E-1	6.501522E-1	6.670758E-1	6.492032E-1	6.715613E-1	6.491204E-1	6.378568E-1	6.428730E-1	6.211946E-1	6.418880E-1	6.673868E-1	6.257662E-1	6.426879E-1	6.564243E-1	6.693392E-1	6.396745E-1	6.328258E-1	6.176593E-1	6.360917E-1	6.769154E-1	6.566280E-1	6.335915E-1	6.444148E-1	6.623680E-1	6.470387E-1	6.069271E-1	6.206423E-1	6.658542E-1	6.465563E-1	6.659920E-1	6.416542E-1	6.258159E-1	6.424229E-1	6.507332E-1	6.399384E-1	6.737213E-1	6.478164E-1	6.465984E-1	6.789377E-1	6.710124E-1	6.559512E-1	6.375626E-1	6.315429E-1	6.001506E-1	6.396072E-1	6.605714E-1	6.469092E-1	6.397081E-1	6.954400E-1	6.517553E-1	6.475389E-1	6.047665E-1	6.326859E-1	6.274479E-1	6.024587E-1	6.726136E-1	6.179108E-1	6.845982E-1	6.614922E-1	6.760010E-1	6.561426E-1	6.170233E-1	7.074994E-1	6.324794E-1	6.429922E-1	6.253658E-1	6.200856E-1	6.512054E-1	6.456131E-1	6.473058E-1	6.336169E-1	6.367355E-1	6.270100E-1	6.452409E-1	6.665312E-1	6.456617E-1	6.266462E-1	6.488354E-1	6.430639E-1	6.370645E-1	6.264583E-1	6.604318E-1	6.393344E-1	6.770172E-1	6.364972E-1	6.522619E-1	6.740669E-1	6.435504E-1	6.671303E-1	6.123102E-1	6.442141E-1	6.598110E-1	6.096338E-1	6.342685E-1	6.373801E-1	6.281904E-1	6.627583E-1	6.580354E-1	6.706238E-1	6.508482E-1	6.108167E-1	6.564064E-1	6.299335E-1	5.978650E-1	6.735253E-1	6.469874E-1	6.405304E-1	6.531573E-1	6.561285E-1	6.655629E-1	6.198514E-1	6.627211E-1
5.375160E+2	8.305920E-1	7.314676E-1	7.309378E-1	7.657103E-1	7.736648E-1	7.425327E-1	7.339575E-1	7.655013E-1	7.771859E-1	7.749211E-1	7.357940E-1	7.493132E-1	7.207609E-1	7.630319E-1	7.590510E-1	7.436911E-1	7.601035E-1	7.492044E-1	7.326039E-1	7.464271E-1	7.306621E-1	7.260483E-1	7.259282E-1	7.326264E-1	8.357773E-1	7.843023E-1	7.658566E-1	7.890699E-1	8.031671E-1	7.721217E-1	7.732281E-1	7.739710E-1	7.563800E-1	7.787091E-1	7.955757E-1	7.270798E-1	7.645987E-1	7.758047E-1	7.626206E-1	7.628098E-1	7.730981E-1	7.586740E-1	7.454150E-1	7.289598E-1	7.753432E-1	7.398614E-1	7.219572E-1	7.395474E-1	7.383308E-1	8.005531E-1	7.494768E-1	7.529918E-1	7.517650E-1	7.480485E-1	7.799470E-1	8.181992E-1	7.647495E-1	7.822955E-1	7.316676E-1	8.030736E-1	8.004707E-1	7.458080E-1	7.415710E-1	7.754384E-1	8.045360E-1	7.483225E-1	7.572307E-1	7.541451E-1	7.659350E-1	7.786071E-1	7.808523E-1	7.503829E-1	7.840891E-1	7.481676E-1	7.340813E-1	7.253515E-1	7.356889E-1	7.515847E-1	7.644089E-1	7.856624E-1	7.546271E-1	7.948612E-1	7.583187E-1	7.397918E-1	7.562753E-1	7.654952E-1	7.456702E-1	7.288603E-1	7.896086E-1	7.656584E-1	7.471144E-1	7.713327E-1	7.491010E-1	7.544168E-1	7.619067E-1	7.437359E-1	7.328588E-1	7.575702E-1	7.700151E-1	7.495060E-1	7.764613E-1	7.650310E-1	7.810717E-1	7.788361E-1	7.445470E-1	7.387165E-1	7.749460E-1	7.633327E-1	8.145053E-1	7.625145E-1	7.730434E-1	7.925193E-1	7.564863E-1	7.582398E-1	7.629347E-1	7.825525E-1	7.356608E-1	7.567567E-1	7.572236E-1	7.660054E-1	7.842123E-1	7.443979E-1	7.286658E-1	7.625876E-1	7.526260E-1	7.623123E-1	7.439334E-1	7.822181E-1	7.641834E-1	7.909006E-1	8.133544E-1	7.665610E-1	7.617415E-1	7.372090E-1	7.672260E-1	7.625751E-1	7.523784E-1	7.219411E-1	7.310940E-1	7.760055E-1	7.494241E-1	7.234071E-1	7.795652E-1	7.805211E-1	7.745106E-1	7.701423E-1	7.643844E-1	7.539054E-1	7.665085E-1	7.709696E-1	7.859260E-1	7.287157E-1	7.477560E-1	7.527136E-1	7.842844E-1	7.924011E-1	7.568413E-1	7.288445E-1	7.858143E-1	7.493196E-1	7.494963E-1	7.918329E-1	7.850129E-1	7.332391E-1	7.386725E-1	7.863860E-1	7.648365E-1	7.658894E-1	7.583070E-1	7.521836E-1
5.377580E+2	8.308964E-1	8.009569E-1	8.730769E-1	8.271950E-1	9.039286E-1	8.636846E-1	8.614906E-1	8.352793E-1	8.543355E-1	8.690329E-1	8.350439E-1	8.492431E-1	8.392283E-1	8.961016E-1	8.216825E-1	8.676919E-1	8.869326E-1	7.955096E-1	8.257804E-1	8.948437E-1	8.585700E-1	8.625091E-1	8.719330E-1	8.363387E-1	8.589622E-1	8.958907E-1	8.469933E-1	8.234031E-1	8.541144E-1	8.364967E-1	8.989101E-1	8.440038E-1	8.543981E-1	9.110552E-1	8.802447E-1	8.372269E-1	8.659378E-1	8.580200E-1	8.742789E-1	8.819794E-1	8.658057E-1	8.809588E-1	8.436635E-1	8.707910E-1	8.788019E-1	8.567480E-1	8.668530E-1	8.794455E-1	8.530969E-1	8.673609E-1	8.491501E-1	8.553175E-1	8.490457E-1	8.829522E-1	8.713918E-1	8.895751E-1	8.871136E-1	8.679540E-1	8.140612E-1	8.628828E-1	8.417307E-1	8.771805E-1	8.469431E-1	8.489851E-1	8.844342E-1	8.084344E-1	8.430152E-1	8.379699E-1	8.665559E-1	8.685004E-1	8.745588E-1	8.343947E-1	8.970974E-1	8.516764E-1	8.430324E-1	8.902790E-1	8.872422E-1	8.679889E-1	8.714530E-1	8.791365E-1	8.176312E-1	8.163329E-1	8.611750E-1	8.222873E-1	8.936163E-1	8.109923E-1	8.129965E-1	8.480458E-1	8.546419E-1	8.472248E-1	8.360243E-1	8.801207E-1	8.360903E-1	8.768749E-1	8.406633E-1	8.171586E-1	8.556672E-1	8.886192E-1	8.626207E-1	8.866837E-1	8.586977E-1	8.428160E-1	8.259092E-1	8.855699E-1	8.329740E-1	8.716580E-1	8.459677E-1	8.430809E-1	8.464091E-1	8.874327E-1	8.556307E-1	8.651636E-1	8.323862E-1	8.428057E-1	7.903290E-1	8.781443E-1	8.621133E-1	8.383029E-1	8.586927E-1	8.597597E-1	8.543535E-1	8.221863E-1	8.673204E-1	8.579294E-1	8.711542E-1	8.769427E-1	8.347810E-1	8.543820E-1	8.432292E-1	8.681802E-1	8.513195E-1	8.629306E-1	8.377105E-1	8.398428E-1	8.602644E-1	8.428779E-1	8.654122E-1	8.412054E-1	8.669106E-1	8.439370E-1	8.819786E-1	8.553367E-1	8.799328E-1	8.374932E-1	8.584033E-1	8.621878E-1	8.565492E-1	8.766050E-1	8.372789E-1	8.817321E-1	8.527813E-1	8.817297E-1	8.485244E-1	8.718376E-1	8.564578E-1	8.709652E-1	8.679145E-1	8.269655E-1	8.546282E-1	8.961107E-1	8.767086E-1	8.496970E-1	8.914479E-1	8.590910E-1	8.226555E-1	8.398438E-1	8.152269E-1	8.276993E-1	8.733161E-1	8.755039E-1
5.380160E+2	9.936093E-1	9.439711E-1	9.309764E-1	9.682701E-1	9.978170E-1	1.018743E+0	9.495773E-1	9.682091E-1	9.951151E-1	1.036334E+0	9.795107E-1	9.868791E-1	1.009087E+0	9.813824E-1	9.835743E-1	1.015465E+0	1.030289E+0	1.009834E+0	9.585687E-1	9.705845E-1	9.901223E-1	9.347234E-1	9.629627E-1	9.812626E-1	1.058924E+0	1.012144E+0	1.023384E+0	1.066041E+0	9.951128E-1	1.064288E+0	1.030985E+0	9.957962E-1	1.047105E+0	1.028852E+0	1.038931E+0	9.747881E-1	1.015005E+0	9.754932E-1	9.797829E-1	9.894633E-1	9.925911E-1	1.009785E+0	1.000985E+0	1.025325E+0	9.829697E-1	1.000068E+0	9.723606E-1	9.772882E-1	9.627869E-1	1.025095E+0	9.768556E-1	1.006833E+0	1.006403E+0	9.736461E-1	1.010684E+0	1.032115E+0	1.017571E+0	1.085376E+0	9.597944E-1	1.050500E+0	1.028485E+0	9.732086E-1	1.031025E+0	9.992811E-1	9.872235E-1	9.578459E-1	9.705632E-1	9.765353E-1	9.679869E-1	9.770145E-1	9.857690E-1	9.979609E-1	1.024053E+0	1.002342E+0	9.647915E-1	1.023981E+0	9.914338E-1	9.554663E-1	9.832628E-1	9.735136E-1	9.728618E-1	1.026442E+0	9.685659E-1	9.848318E-1	1.022520E+0	9.675187E-1	9.806088E-1	1.030963E+0	1.012006E+0	9.918314E-1	9.882000E-1	1.036075E+0	9.508831E-1	9.522178E-1	9.912988E-1	1.020298E+0	9.763603E-1	9.797099E-1	9.306580E-1	9.584145E-1	9.683163E-1	9.406744E-1	1.008929E+0	1.001915E+0	9.963409E-1	9.978891E-1	9.632224E-1	9.431201E-1	1.015721E+0	1.024642E+0	9.622437E-1	9.643267E-1	9.572816E-1	1.019258E+0	9.862205E-1	1.005475E+0	1.009065E+0	1.028700E+0	9.662790E-1	9.843980E-1	1.017184E+0	9.921277E-1	9.934557E-1	1.021663E+0	1.000122E+0	1.005927E+0	9.906503E-1	9.389099E-1	9.597508E-1	1.025595E+0	9.854916E-1	1.051073E+0	9.839594E-1	9.621969E-1	1.018511E+0	9.851441E-1	1.012062E+0	9.898240E-1	9.517807E-1	1.028376E+0	9.825767E-1	9.656023E-1	9.759117E-1	1.052178E+0	1.011420E+0	1.001773E+0	9.849411E-1	1.000799E+0	9.586331E-1	9.776442E-1	1.011378E+0	1.019853E+0	1.017927E+0	9.841105E-1	1.010430E+0	9.632859E-1	9.464792E-1	9.703636E-1	9.994896E-1	9.851955E-1	9.883810E-1	9.725452E-1	9.824012E-1	9.727520E-1	1.022017E+0	9.692914E-1	1.003104E+0	1.023656E+0	1.042439E+0	9.839778E-1
5.382690E+2	1.113525E+0	1.139882E+0	1.095330E+0	1.118581E+0	1.147779E+0	1.154246E+0	1.111509E+0	1.149954E+0	1.128414E+0	1.157539E+0	1.108021E+0	1.105395E+0	1.177766E+0	1.107974E+0	1.132672E+0	1.164869E+0	1.158877E+0	1.124979E+0	1.156415E+0	1.124283E+0	1.114017E+0	1.131326E+0	1.115644E+0	1.089754E+0	1.230078E+0	1.116543E+0	1.123444E+0	1.169695E+0	1.178159E+0	1.178049E+0	1.175737E+0	1.153568E+0	1.147757E+0	1.161879E+0	1.130907E+0	1.175924E+0	1.115284E+0	1.125110E+0	1.165170E+0	1.128581E+0	1.185500E+0	1.161010E+0	1.113914E+0	1.168461E+0	1.169012E+0	1.164932E+0	1.139432E+0	1.161723E+0	1.155203E+0	1.136646E+0	1.132104E+0	1.152321E+0	1.124246E+0	1.151451E+0	1.112329E+0	1.154931E+0	1.130499E+0	1.158297E+0	1.140632E+0	1.149197E+0	1.159849E+0	1.205190E+0	1.216952E+0	1.160531E+0	1.169015E+0	1.121779E+0	1.174425E+0	1.142093E+0	1.159701E+0	1.190705E+0	1.130994E+0	1.134393E+0	1.200628E+0	1.162207E+0	1.161236E+0	1.151528E+0	1.134022E+0	1.144950E+0	1.152539E+0	1.177102E+0	1.125222E+0	1.145521E+0	1.135148E+0	1.193280E+0	1.116439E+0	1.198598E+0	1.170562E+0	1.187908E+0	1.136798E+0	1.144930E+0	1.152687E+0	1.126199E+0	1.148829E+0	1.139498E+0	1.114141E+0	1.160122E+0	1.162114E+0	1.112949E+0	1.166486E+0	1.118375E+0	1.101256E+0	1.175898E+0	1.151436E+0	1.153863E+0	1.136341E+0	1.188307E+0	1.157359E+0	1.127763E+0	1.186381E+0	1.122711E+0	1.119459E+0	1.127715E+0	1.139173E+0	1.131286E+0	1.112415E+0	1.146060E+0	1.133880E+0	1.166476E+0	1.099752E+0	1.117727E+0	1.120581E+0	1.155370E+0	1.117429E+0	1.198428E+0	1.122119E+0	1.123901E+0	1.141276E+0	1.122105E+0	1.076528E+0	1.115119E+0	1.177674E+0	1.169734E+0	1.178864E+0	1.117682E+0	1.100824E+0	1.129979E+0	1.110448E+0	1.145917E+0	1.129513E+0	1.149489E+0	1.158625E+0	1.139215E+0	1.122268E+0	1.189184E+0	1.208966E+0	1.086474E+0	1.107916E+0	1.162623E+0	1.056731E+0	1.150744E+0	1.121785E+0	1.148893E+0	1.109047E+0	1.145586E+0	1.157818E+0	1.163375E+0	1.139792E+0	1.069894E+0	1.134974E+0	1.105613E+0	1.093250E+0	1.181908E+0	1.128685E+0	1.162415E+0	1.129421E+0	1.133453E+0	1.101647E+0	1.150757E+0	1.072270E+0	1.105208E+0
5.385170E+2	1.451365E+0	1.381929E+0	1.365602E+0	1.390469E+0	1.363376E+0	1.335291E+0	1.369493E+0	1.407846E+0	1.404240E+0	1.421101E+0	1.379706E+0	1.397148E+0	1.370709E+0	1.374037E+0	1.359971E+0	1.427903E+0	1.367662E+0	1.383280E+0	1.359143E+0	1.411007E+0	1.343746E+0	1.355906E+0	1.349930E+0	1.386129E+0	1.408577E+0	1.418102E+0	1.370692E+0	1.417490E+0	1.423510E+0	1.447736E+0	1.418461E+0	1.404783E+0	1.380244E+0	1.413184E+0	1.381551E+0	1.457267E+0	1.390974E+0	1.339705E+0	1.363711E+0	1.417721E+0	1.447487E+0	1.395507E+0	1.310016E+0	1.407564E+0	1.383277E+0	1.386426E+0	1.415630E+0	1.384193E+0	1.351779E+0	1.388256E+0	1.356398E+0	1.396800E+0	1.342850E+0	1.390496E+0	1.399761E+0	1.418580E+0	1.399145E+0	1.429895E+0	1.355378E+0	1.467828E+0	1.410687E+0	1.380526E+0	1.398411E+0	1.430179E+0	1.428997E+0	1.350982E+0	1.364458E+0	1.356230E+0	1.347538E+0	1.392693E+0	1.392647E+0	1.383043E+0	1.375549E+0	1.431240E+0	1.345511E+0	1.376075E+0	1.416180E+0	1.357857E+0	1.413108E+0	1.398523E+0	1.333315E+0	1.380795E+0	1.380550E+0	1.402805E+0	1.354725E+0	1.386939E+0	1.418402E+0	1.380065E+0	1.399895E+0	1.388461E+0	1.321641E+0	1.385205E+0	1.328542E+0	1.353562E+0	1.335629E+0	1.361852E+0	1.350596E+0	1.378699E+0	1.358566E+0	1.373929E+0	1.385292E+0	1.369611E+0	1.344607E+0	1.340050E+0	1.347978E+0	1.352774E+0	1.366957E+0	1.340719E+0	1.379772E+0	1.384215E+0	1.351517E+0	1.298262E+0	1.324942E+0	1.351515E+0	1.344851E+0	1.387883E+0	1.354994E+0	1.374314E+0	1.336061E+0	1.374286E+0	1.385861E+0	1.356356E+0	1.355494E+0	1.335546E+0	1.363350E+0	1.362859E+0	1.370278E+0	1.371730E+0	1.399616E+0	1.361085E+0	1.361331E+0	1.341600E+0	1.408074E+0	1.338916E+0	1.339686E+0	1.400809E+0	1.380692E+0	1.318232E+0	1.350741E+0	1.379096E+0	1.373214E+0	1.344572E+0	1.383268E+0	1.388860E+0	1.350901E+0	1.324326E+0	1.308338E+0	1.376272E+0	1.398728E+0	1.380484E+0	1.392079E+0	1.388107E+0	1.358061E+0	1.385964E+0	1.343978E+0	1.328557E+0	1.396441E+0	1.356962E+0	1.359583E+0	1.373934E+0	1.355960E+0	1.335566E+0	1.320902E+0	1.315954E+0	1.399687E+0	1.385248E+0	1.395115E+0	1.383439E+0	1.395208E+0	1.416228E+0
5.387650E+2	1.650208E+0	1.544471E+0	1.556023E+0	1.613139E+0	1.593007E+0	1.542164E+0	1.567056E+0	1.664513E+0	1.542842E+0	1.587493E+0	1.603112E+0	1.658423E+0	1.623630E+0	1.577608E+0	1.555379E+0	1.598398E+0	1.637854E+0	1.585383E+0	1.599604E+0	1.607307E+0	1.505198E+0	1.538040E+0	1.588348E+0	1.640912E+0	1.648833E+0	1.642568E+0	1.578393E+0	1.648766E+0	1.587103E+0	1.568575E+0	1.604399E+0	1.641633E+0	1.653076E+0	1.599188E+0	1.543118E+0	1.570377E+0	1.552673E+0	1.600140E+0	1.625140E+0	1.550395E+0	1.680552E+0	1.600777E+0	1.568155E+0	1.591825E+0	1.589551E+0	1.629415E+0	1.551096E+0	1.627166E+0	1.552027E+0	1.576086E+0	1.597394E+0	1.633989E+0	1.574175E+0	1.622603E+0	1.549129E+0	1.602746E+0	1.597902E+0	1.593423E+0	1.555290E+0	1.629787E+0	1.621062E+0	1.545879E+0	1.569980E+0	1.556766E+0	1.682167E+0	1.565649E+0	1.581960E+0	1.661312E+0	1.577514E+0	1.587959E+0	1.576632E+0	1.604468E+0	1.583887E+0	1.598575E+0	1.553277E+0	1.541985E+0	1.597403E+0	1.564902E+0	1.521329E+0	1.583352E+0	1.601032E+0	1.576153E+0	1.576356E+0	1.539462E+0	1.614126E+0	1.562363E+0	1.511636E+0	1.561228E+0	1.585528E+0	1.586568E+0	1.521766E+0	1.671196E+0	1.534549E+0	1.568949E+0	1.560863E+0	1.571052E+0	1.591849E+0	1.592377E+0	1.589616E+0	1.578086E+0	1.562480E+0	1.590713E+0	1.535798E+0	1.599118E+0	1.606194E+0	1.610650E+0	1.561757E+0	1.611080E+0	1.619529E+0	1.562672E+0	1.622561E+0	1.540386E+0	1.578819E+0	1.559446E+0	1.546029E+0	1.580676E+0	1.550584E+0	1.601116E+0	1.558105E+0	1.608615E+0	1.594115E+0	1.578996E+0	1.536414E+0	1.542169E+0	1.580720E+0	1.592867E+0	1.535898E+0	1.611511E+0	1.539137E+0	1.588636E+0	1.580602E+0	1.591115E+0	1.539190E+0	1.575386E+0	1.568525E+0	1.559767E+0	1.610782E+0	1.565803E+0	1.501518E+0	1.535708E+0	1.542452E+0	1.592184E+0	1.575639E+0	1.595862E+0	1.568217E+0	1.545172E+0	1.493575E+0	1.609607E+0	1.541586E+0	1.537214E+0	1.635977E+0	1.591379E+0	1.574385E+0	1.515953E+0	1.529520E+0	1.577883E+0	1.604029E+0	1.518039E+0	1.543915E+0	1.607660E+0	1.591632E+0	1.547583E+0	1.523610E+0	1.500863E+0	1.560810E+0	1.558296E+0	1.500828E+0	1.630810E+0	1.603008E+0	1.603889E+0
5.390240E+2	1.834440E+0	1.723991E+0	1.751704E+0	1.753474E+0	1.824873E+0	1.781408E+0	1.724634E+0	1.802621E+0	1.784386E+0	1.796991E+0	1.749793E+0	1.821821E+0	1.873258E+0	1.842418E+0	1.808577E+0	1.835207E+0	1.778288E+0	1.801079E+0	1.806312E+0	1.770687E+0	1.736915E+0	1.760293E+0	1.716545E+0	1.772735E+0	1.867943E+0	1.785665E+0	1.792719E+0	1.766426E+0	1.789552E+0	1.735772E+0	1.738342E+0	1.797002E+0	1.813231E+0	1.769272E+0	1.743448E+0	1.833409E+0	1.782938E+0	1.796365E+0	1.753806E+0	1.811971E+0	1.856440E+0	1.777903E+0	1.729493E+0	1.852235E+0	1.817128E+0	1.797409E+0	1.811140E+0	1.787240E+0	1.750071E+0	1.806897E+0	1.786903E+0	1.764652E+0	1.701948E+0	1.782908E+0	1.705729E+0	1.709627E+0	1.778385E+0	1.779375E+0	1.764859E+0	1.806919E+0	1.815849E+0	1.747510E+0	1.821791E+0	1.741087E+0	1.848328E+0	1.753532E+0	1.728314E+0	1.721806E+0	1.696556E+0	1.745171E+0	1.787562E+0	1.747763E+0	1.755619E+0	1.778689E+0	1.753890E+0	1.765347E+0	1.758205E+0	1.760526E+0	1.750069E+0	1.711596E+0	1.733482E+0	1.799914E+0	1.766838E+0	1.743631E+0	1.790804E+0	1.780583E+0	1.737976E+0	1.758574E+0	1.813092E+0	1.762613E+0	1.755042E+0	1.815079E+0	1.833672E+0	1.715597E+0	1.750577E+0	1.794185E+0	1.671335E+0	1.689213E+0	1.761225E+0	1.673892E+0	1.750079E+0	1.776366E+0	1.699103E+0	1.778998E+0	1.816149E+0	1.721766E+0	1.745472E+0	1.775920E+0	1.693832E+0	1.771482E+0	1.762352E+0	1.723787E+0	1.715448E+0	1.844894E+0	1.694414E+0	1.748410E+0	1.693656E+0	1.682759E+0	1.687567E+0	1.754993E+0	1.758692E+0	1.711939E+0	1.669380E+0	1.763722E+0	1.761995E+0	1.732490E+0	1.677415E+0	1.742263E+0	1.810607E+0	1.835748E+0	1.693220E+0	1.759205E+0	1.772673E+0	1.736121E+0	1.718298E+0	1.767148E+0	1.775608E+0	1.773508E+0	1.682909E+0	1.709664E+0	1.727648E+0	1.738692E+0	1.765693E+0	1.785548E+0	1.700757E+0	1.732935E+0	1.721798E+0	1.771434E+0	1.713041E+0	1.767652E+0	1.756703E+0	1.741613E+0	1.707056E+0	1.679101E+0	1.690290E+0	1.758686E+0	1.791445E+0	1.724828E+0	1.755140E+0	1.791868E+0	1.727590E+0	1.696416E+0	1.750000E+0	1.772403E+0	1.766901E+0	1.756357E+0	1.677046E+0	1.787873E+0	1.771646E+0	1.627381E+0
5.392720E+2	2.039374E+0	1.887684E+0	1.907522E+0	1.911504E+0	1.983957E+0	1.980951E+0	1.933504E+0	1.955826E+0	1.898456E+0	1.959846E+0	1.967829E+0	1.987772E+0	1.964182E+0	1.942767E+0	1.945160E+0	1.973351E+0	1.946923E+0	1.927063E+0	1.920069E+0	1.940233E+0	1.905413E+0	1.974172E+0	1.943477E+0	1.944691E+0	1.992656E+0	1.979778E+0	1.923895E+0	1.927708E+0	1.931815E+0	1.867589E+0	1.986000E+0	1.952122E+0	1.943538E+0	1.952362E+0	1.890496E+0	1.983933E+0	1.859814E+0	1.864020E+0	1.907942E+0	1.932489E+0	1.978673E+0	1.889741E+0	1.810713E+0	1.988165E+0	1.932686E+0	1.949720E+0	1.925630E+0	1.920247E+0	1.911457E+0	1.926550E+0	1.923361E+0	1.958960E+0	1.929537E+0	1.944193E+0	1.907835E+0	1.890775E+0	1.926382E+0	1.962374E+0	1.897344E+0	2.010107E+0	1.962700E+0	1.926643E+0	1.929025E+0	1.874651E+0	1.947118E+0	1.864127E+0	1.972047E+0	1.915279E+0	1.927583E+0	1.940613E+0	1.863725E+0	1.963787E+0	1.883259E+0	1.942780E+0	1.906704E+0	1.967845E+0	1.919379E+0	1.896285E+0	1.888168E+0	1.936311E+0	1.907705E+0	2.006780E+0	1.926127E+0	1.850757E+0	1.935609E+0	1.881989E+0	1.872512E+0	1.901114E+0	1.882866E+0	1.880346E+0	1.925420E+0	1.874420E+0	1.848592E+0	1.928541E+0	1.904512E+0	1.852363E+0	1.895079E+0	1.898952E+0	1.884907E+0	1.917928E+0	1.878277E+0	1.827239E+0	1.816914E+0	1.895201E+0	1.898527E+0	1.853783E+0	1.927127E+0	1.923243E+0	1.869149E+0	1.906178E+0	1.887632E+0	1.870797E+0	1.848867E+0	1.927641E+0	1.891764E+0	1.970304E+0	1.895234E+0	1.948888E+0	1.870385E+0	1.844772E+0	1.879914E+0	1.864995E+0	1.928787E+0	1.891097E+0	1.861224E+0	1.906544E+0	1.830261E+0	1.850231E+0	1.849195E+0	1.913910E+0	1.851336E+0	1.855623E+0	1.889329E+0	1.865601E+0	1.881334E+0	1.885268E+0	1.861276E+0	1.868644E+0	1.806063E+0	1.907304E+0	1.900449E+0	1.843315E+0	1.916095E+0	1.882092E+0	1.898127E+0	1.832037E+0	1.866568E+0	1.915592E+0	1.832869E+0	1.950275E+0	1.965455E+0	1.858264E+0	1.824332E+0	1.933555E+0	1.872401E+0	1.846108E+0	1.886271E+0	1.793212E+0	1.882485E+0	1.806849E+0	1.925589E+0	1.816121E+0	1.843471E+0	1.916408E+0	1.866048E+0	1.805615E+0	1.842973E+0	1.838725E+0	1.967185E+0	1.915091E+0
5.395160E+2	2.145913E+0	1.972305E+0	2.008155E+0	1.998853E+0	2.074470E+0	2.009033E+0	2.091884E+0	2.023966E+0	2.015733E+0	2.084347E+0	2.001541E+0	2.075762E+0	2.057907E+0	2.050181E+0	2.080892E+0	2.065856E+0	2.073881E+0	2.123279E+0	2.036043E+0	2.054611E+0	2.011150E+0	2.033310E+0	2.026234E+0	1.992923E+0	2.047005E+0	1.991717E+0	2.017869E+0	2.022282E+0	2.001911E+0	2.093008E+0	2.012708E+0	2.068974E+0	2.036024E+0	1.990060E+0	2.001429E+0	2.024266E+0	1.975231E+0	2.008254E+0	1.929641E+0	2.029563E+0	2.088023E+0	1.938978E+0	1.939372E+0	2.046727E+0	2.101144E+0	2.029041E+0	2.050343E+0	2.009961E+0	2.020190E+0	2.014864E+0	1.972662E+0	2.085664E+0	1.969338E+0	2.011836E+0	2.005045E+0	2.013916E+0	2.052352E+0	2.000424E+0	2.028022E+0	2.082973E+0	1.994828E+0	2.046002E+0	1.987743E+0	2.007389E+0	2.015357E+0	1.983049E+0	2.011602E+0	1.981489E+0	1.953142E+0	2.003717E+0	2.078668E+0	1.968038E+0	1.988778E+0	1.977823E+0	1.980200E+0	2.004949E+0	2.005005E+0	1.971043E+0	1.967344E+0	2.096288E+0	1.986392E+0	2.003072E+0	2.006164E+0	1.944821E+0	2.015871E+0	1.959014E+0	1.965120E+0	2.027294E+0	2.026810E+0	1.944188E+0	1.980588E+0	1.990307E+0	1.985065E+0	2.037868E+0	1.985799E+0	2.043407E+0	2.005257E+0	2.044527E+0	2.039261E+0	1.979761E+0	1.986686E+0	1.932868E+0	1.972073E+0	2.065195E+0	2.071451E+0	1.947936E+0	2.032634E+0	1.996090E+0	1.999441E+0	1.945071E+0	2.034559E+0	1.944947E+0	1.974881E+0	1.976472E+0	1.919808E+0	2.028959E+0	1.993220E+0	1.981104E+0	1.914533E+0	1.951850E+0	2.009264E+0	1.959590E+0	1.970628E+0	1.982493E+0	2.005469E+0	2.039744E+0	2.024960E+0	1.910805E+0	1.933526E+0	1.993247E+0	1.894404E+0	1.992929E+0	1.963980E+0	2.044072E+0	1.978355E+0	1.965069E+0	1.978329E+0	1.960101E+0	1.921959E+0	1.973839E+0	1.949538E+0	1.990096E+0	2.025099E+0	1.977789E+0	2.079725E+0	1.862301E+0	1.959873E+0	2.016542E+0	1.912040E+0	2.007538E+0	1.940616E+0	1.978842E+0	1.957177E+0	1.994207E+0	1.958133E+0	2.012369E+0	1.996760E+0	1.871352E+0	1.906359E+0	1.995263E+0	1.987861E+0	2.003296E+0	1.935268E+0	1.979995E+0	1.956622E+0	1.886150E+0	1.928978E+0	2.014147E+0	1.951436E+0	2.004849E+0
5.397810E+2	2.120869E+0	2.041992E+0	2.064024E+0	2.047095E+0	2.169669E+0	2.048843E+0	2.028608E+0	2.064214E+0	2.063272E+0	2.088457E+0	2.017138E+0	2.089583E+0	2.139127E+0	2.074930E+0	2.053731E+0	2.135123E+0	2.082105E+0	2.086161E+0	2.100588E+0	2.101333E+0	1.982859E+0	2.085982E+0	2.037875E+0	2.037800E+0	2.062207E+0	2.076294E+0	2.026488E+0	2.031473E+0	2.048053E+0	2.040510E+0	2.011668E+0	2.048791E+0	2.102861E+0	2.032203E+0	2.040386E+0	2.013241E+0	2.007129E+0	2.069404E+0	2.015585E+0	2.014919E+0	2.077989E+0	2.035147E+0	2.005215E+0	1.977871E+0	2.037827E+0	2.020575E+0	2.051551E+0	2.031361E+0	1.992628E+0	2.171280E+0	1.999882E+0	2.051209E+0	2.043528E+0	1.993071E+0	2.003556E+0	2.085981E+0	2.063612E+0	2.128489E+0	2.007504E+0	2.063406E+0	2.099863E+0	2.018226E+0	2.078914E+0	2.036303E+0	2.060954E+0	2.010227E+0	2.050987E+0	2.006278E+0	2.043657E+0	2.046860E+0	2.020756E+0	1.960875E+0	2.033289E+0	2.033345E+0	2.075377E+0	2.056176E+0	2.106347E+0	2.004317E+0	1.999704E+0	2.026287E+0	2.079580E+0	2.001969E+0	2.001626E+0	2.020014E+0	2.115414E+0	2.029110E+0	2.013638E+0	2.066558E+0	2.021983E+0	2.031537E+0	2.028270E+0	2.118096E+0	2.039174E+0	2.015818E+0	1.996107E+0	2.041400E+0	1.995994E+0	2.033733E+0	1.985701E+0	2.012720E+0	1.984445E+0	2.008997E+0	1.995179E+0	2.095923E+0	2.089804E+0	1.996716E+0	1.990113E+0	2.047765E+0	2.000513E+0	2.015709E+0	2.005453E+0	1.954042E+0	2.021613E+0	2.066771E+0	1.925467E+0	2.013539E+0	2.014358E+0	2.048538E+0	1.958652E+0	2.001001E+0	2.033711E+0	1.977664E+0	1.942985E+0	2.057634E+0	1.996026E+0	2.029985E+0	2.000457E+0	1.892430E+0	2.013796E+0	2.051083E+0	2.037938E+0	2.003821E+0	2.045760E+0	2.005821E+0	1.976628E+0	1.972196E+0	2.072633E+0	1.994967E+0	1.974197E+0	2.035444E+0	2.038400E+0	1.991501E+0	2.042297E+0	2.005900E+0	2.011894E+0	1.969270E+0	1.983578E+0	2.018133E+0	1.958178E+0	2.027689E+0	2.042672E+0	1.999866E+0	2.000870E+0	1.976608E+0	2.000264E+0	1.948227E+0	2.013009E+0	1.924252E+0	1.963110E+0	2.051631E+0	2.004242E+0	2.000371E+0	2.019891E+0	1.927225E+0	2.013257E+0	1.886866E+0	1.955474E+0	1.941398E+0	2.062116E+0	2.078403E+0
5.400240E+2	2.076988E+0	1.945105E+0	2.075675E+0	1.974849E+0	2.071878E+0	2.009332E+0	1.967121E+0	2.009092E+0	2.142050E+0	2.040079E+0	1.990227E+0	2.060847E+0	2.058853E+0	2.104669E+0	2.018350E+0	2.006048E+0	2.116733E+0	2.047380E+0	1.963753E+0	2.038705E+0	2.025548E+0	2.007834E+0	2.023207E+0	1.967813E+0	2.087938E+0	2.017037E+0	1.977407E+0	1.995492E+0	2.033323E+0	1.979401E+0	2.029127E+0	2.044867E+0	1.963821E+0	2.054636E+0	2.008208E+0	1.997307E+0	1.975202E+0	1.992460E+0	1.900775E+0	1.942719E+0	2.033941E+0	2.008919E+0	1.949324E+0	2.055475E+0	2.044085E+0	2.045489E+0	1.981210E+0	1.953652E+0	1.958362E+0	2.012610E+0	2.042349E+0	2.038261E+0	1.948369E+0	1.990125E+0	1.995005E+0	1.995333E+0	2.052555E+0	2.026606E+0	2.024179E+0	2.026024E+0	1.977335E+0	1.989888E+0	1.974199E+0	2.012699E+0	2.103048E+0	1.985159E+0	1.970188E+0	1.986532E+0	1.981952E+0	2.050389E+0	1.995063E+0	1.955101E+0	1.954944E+0	2.038488E+0	2.030515E+0	1.972992E+0	2.068048E+0	2.008910E+0	1.962819E+0	2.042491E+0	1.973602E+0	2.036505E+0	1.951802E+0	1.997158E+0	1.993931E+0	1.945460E+0	1.973632E+0	1.954566E+0	1.932830E+0	2.002094E+0	1.979384E+0	2.051528E+0	1.993894E+0	2.057487E+0	1.947082E+0	1.958555E+0	1.957178E+0	1.994842E+0	1.948543E+0	1.937837E+0	1.940055E+0	1.949921E+0	1.954754E+0	2.024958E+0	2.095913E+0	1.929980E+0	1.925059E+0	2.036849E+0	1.975896E+0	1.962654E+0	1.956060E+0	1.895745E+0	1.979156E+0	1.986002E+0	1.915651E+0	1.967916E+0	1.969525E+0	1.969879E+0	1.944846E+0	1.875195E+0	2.020350E+0	1.967076E+0	1.918198E+0	1.995227E+0	1.982890E+0	1.941583E+0	1.945286E+0	1.947387E+0	1.957083E+0	1.961210E+0	1.935939E+0	1.993487E+0	1.888289E+0	1.926800E+0	1.933819E+0	1.978326E+0	2.033864E+0	1.931416E+0	1.957071E+0	1.970094E+0	1.934054E+0	1.932055E+0	2.009407E+0	1.999515E+0	1.989995E+0	1.936788E+0	1.944692E+0	2.007789E+0	1.938209E+0	1.964659E+0	1.962809E+0	2.008682E+0	1.937964E+0	1.944397E+0	1.997264E+0	1.969574E+0	2.008787E+0	1.897659E+0	1.994410E+0	1.990765E+0	1.945967E+0	1.887960E+0	1.866816E+0	1.968554E+0	1.957314E+0	1.970299E+0	1.948038E+0	1.910519E+0	1.873041E+0	1.992187E+0
5.402850E+2	2.008158E+0	1.887531E+0	1.872603E+0	1.859616E+0	1.956898E+0	1.923755E+0	1.930464E+0	1.935115E+0	1.957525E+0	1.944408E+0	1.869703E+0	2.011670E+0	1.931045E+0	1.980663E+0	1.925083E+0	1.942032E+0	1.942349E+0	1.991246E+0	1.896734E+0	1.916338E+0	1.860334E+0	1.907202E+0	1.955185E+0	1.876919E+0	1.951244E+0	1.806451E+0	1.911778E+0	1.890555E+0	1.831092E+0	1.970305E+0	1.874900E+0	1.899164E+0	1.906231E+0	1.917255E+0	1.822769E+0	1.939228E+0	1.849652E+0	1.859506E+0	1.844793E+0	1.899590E+0	1.943869E+0	1.897716E+0	1.851845E+0	1.926415E+0	1.997005E+0	1.920700E+0	1.843980E+0	1.899609E+0	1.920028E+0	1.874566E+0	1.924427E+0	1.898773E+0	1.867431E+0	1.932865E+0	1.893065E+0	1.886220E+0	1.943360E+0	1.896011E+0	1.882549E+0	1.910857E+0	1.950762E+0	1.931731E+0	1.954320E+0	1.918270E+0	1.929008E+0	1.906353E+0	1.905845E+0	1.871979E+0	1.892825E+0	1.975080E+0	1.928448E+0	1.884487E+0	1.919572E+0	1.909909E+0	1.872689E+0	1.930838E+0	1.942218E+0	1.916845E+0	1.904221E+0	1.898894E+0	1.889169E+0	1.902537E+0	1.937205E+0	1.838782E+0	1.949182E+0	1.819368E+0	1.827191E+0	1.866454E+0	1.874523E+0	1.863329E+0	1.908445E+0	1.921061E+0	1.908365E+0	1.932391E+0	1.858825E+0	1.852824E+0	1.910370E+0	1.930732E+0	1.895823E+0	1.890478E+0	1.898061E+0	1.853058E+0	1.832918E+0	1.901914E+0	1.958370E+0	1.873794E+0	1.792971E+0	1.876871E+0	1.911016E+0	1.913490E+0	1.820822E+0	1.851636E+0	1.912519E+0	1.903459E+0	1.857614E+0	1.917662E+0	1.886633E+0	1.912613E+0	1.889664E+0	1.812096E+0	1.917891E+0	1.890577E+0	1.806876E+0	1.897112E+0	1.909851E+0	1.949302E+0	1.885737E+0	1.810219E+0	1.888678E+0	1.925430E+0	1.837081E+0	1.850316E+0	1.936936E+0	1.838844E+0	1.850583E+0	1.869330E+0	1.844473E+0	1.837605E+0	1.812369E+0	1.917139E+0	1.861567E+0	1.880302E+0	1.900868E+0	1.856003E+0	1.961823E+0	1.818476E+0	1.826118E+0	1.920914E+0	1.862926E+0	1.893732E+0	1.847690E+0	1.862033E+0	1.879407E+0	1.836118E+0	1.888087E+0	1.847592E+0	1.894652E+0	1.774847E+0	1.882523E+0	1.870429E+0	1.832578E+0	1.815136E+0	1.859825E+0	1.874235E+0	1.892938E+0	1.847688E+0	1.799062E+0	1.846541E+0	1.829753E+0	1.859104E+0
5.405130E+2	1.860902E+0	1.771758E+0	1.752564E+0	1.781752E+0	1.837749E+0	1.825581E+0	1.767754E+0	1.821951E+0	1.871807E+0	1.883438E+0	1.796058E+0	1.812916E+0	1.798718E+0	1.796918E+0	1.738293E+0	1.869343E+0	1.849212E+0	1.845664E+0	1.823026E+0	1.825099E+0	1.778275E+0	1.814034E+0	1.755191E+0	1.776311E+0	1.862893E+0	1.806486E+0	1.806723E+0	1.745808E+0	1.798633E+0	1.761724E+0	1.782430E+0	1.777891E+0	1.834913E+0	1.798667E+0	1.739952E+0	1.798826E+0	1.784076E+0	1.790819E+0	1.750718E+0	1.784638E+0	1.826639E+0	1.766932E+0	1.704472E+0	1.802107E+0	1.821214E+0	1.781928E+0	1.800006E+0	1.812691E+0	1.734566E+0	1.724166E+0	1.710546E+0	1.834256E+0	1.762206E+0	1.746582E+0	1.788667E+0	1.766152E+0	1.812532E+0	1.858010E+0	1.765975E+0	1.794826E+0	1.750996E+0	1.779986E+0	1.872133E+0	1.801978E+0	1.809176E+0	1.746258E+0	1.847766E+0	1.782229E+0	1.754202E+0	1.840038E+0	1.788742E+0	1.763553E+0	1.791852E+0	1.771814E+0	1.802862E+0	1.734950E+0	1.862815E+0	1.837298E+0	1.787780E+0	1.801306E+0	1.759329E+0	1.760115E+0	1.817475E+0	1.822381E+0	1.873945E+0	1.788686E+0	1.692601E+0	1.719894E+0	1.759105E+0	1.782621E+0	1.817221E+0	1.821529E+0	1.727590E+0	1.780872E+0	1.739420E+0	1.756817E+0	1.748119E+0	1.772214E+0	1.773183E+0	1.749540E+0	1.762766E+0	1.730099E+0	1.798947E+0	1.766822E+0	1.853521E+0	1.738162E+0	1.728622E+0	1.758455E+0	1.833495E+0	1.762378E+0	1.818094E+0	1.748251E+0	1.767917E+0	1.758682E+0	1.710115E+0	1.779539E+0	1.786211E+0	1.825562E+0	1.773513E+0	1.717356E+0	1.799417E+0	1.780673E+0	1.761911E+0	1.742531E+0	1.746222E+0	1.754891E+0	1.746282E+0	1.744492E+0	1.748321E+0	1.780450E+0	1.707225E+0	1.730099E+0	1.813204E+0	1.739979E+0	1.758738E+0	1.729951E+0	1.784305E+0	1.772101E+0	1.757584E+0	1.724750E+0	1.780119E+0	1.741376E+0	1.773170E+0	1.745143E+0	1.777845E+0	1.734805E+0	1.768747E+0	1.764958E+0	1.724364E+0	1.790052E+0	1.791698E+0	1.760513E+0	1.756659E+0	1.751967E+0	1.792229E+0	1.777432E+0	1.756015E+0	1.727784E+0	1.740824E+0	1.780754E+0	1.792796E+0	1.731161E+0	1.724804E+0	1.714570E+0	1.759323E+0	1.726814E+0	1.808803E+0	1.756736E+0	1.744550E+0	1.707663E+0
5.407680E+2	1.754007E+0	1.637489E+0	1.775918E+0	1.657835E+0	1.752208E+0	1.752478E+0	1.706420E+0	1.738818E+0	1.724461E+0	1.721732E+0	1.667624E+0	1.720343E+0	1.723306E+0	1.723044E+0	1.717500E+0	1.780401E+0	1.757167E+0	1.765512E+0	1.739290E+0	1.743241E+0	1.700253E+0	1.734622E+0	1.697131E+0	1.737154E+0	1.784917E+0	1.681999E+0	1.710984E+0	1.665305E+0	1.727476E+0	1.711750E+0	1.693480E+0	1.695778E+0	1.756349E+0	1.744961E+0	1.694496E+0	1.735012E+0	1.720683E+0	1.665849E+0	1.637436E+0	1.680750E+0	1.747193E+0	1.773856E+0	1.675617E+0	1.722381E+0	1.770026E+0	1.670667E+0	1.666120E+0	1.695198E+0	1.665855E+0	1.729953E+0	1.707814E+0	1.689137E+0	1.657554E+0	1.733839E+0	1.691684E+0	1.695370E+0	1.764864E+0	1.745471E+0	1.711990E+0	1.730672E+0	1.679336E+0	1.731984E+0	1.676488E+0	1.693715E+0	1.721074E+0	1.692525E+0	1.744732E+0	1.701354E+0	1.639829E+0	1.728440E+0	1.675394E+0	1.656318E+0	1.699779E+0	1.685832E+0	1.703050E+0	1.700575E+0	1.678727E+0	1.747443E+0	1.700927E+0	1.680830E+0	1.644829E+0	1.705275E+0	1.746080E+0	1.701858E+0	1.685635E+0	1.689472E+0	1.646624E+0	1.682925E+0	1.718511E+0	1.649746E+0	1.710726E+0	1.671129E+0	1.721581E+0	1.694992E+0	1.658918E+0	1.663257E+0	1.698282E+0	1.709111E+0	1.679063E+0	1.701903E+0	1.737053E+0	1.640408E+0	1.671549E+0	1.709036E+0	1.739773E+0	1.666134E+0	1.716967E+0	1.623526E+0	1.757809E+0	1.694609E+0	1.679607E+0	1.650366E+0	1.703557E+0	1.690618E+0	1.735890E+0	1.648485E+0	1.683934E+0	1.677331E+0	1.653198E+0	1.627186E+0	1.749278E+0	1.688038E+0	1.635154E+0	1.656693E+0	1.678408E+0	1.680347E+0	1.679264E+0	1.627177E+0	1.680624E+0	1.681437E+0	1.658823E+0	1.668799E+0	1.719263E+0	1.625357E+0	1.694403E+0	1.709591E+0	1.689721E+0	1.678643E+0	1.674872E+0	1.669040E+0	1.646410E+0	1.615566E+0	1.681135E+0	1.651124E+0	1.680643E+0	1.633580E+0	1.677575E+0	1.656588E+0	1.656833E+0	1.686245E+0	1.648855E+0	1.681328E+0	1.709524E+0	1.667933E+0	1.661529E+0	1.683316E+0	1.700210E+0	1.614689E+0	1.711604E+0	1.629237E+0	1.649135E+0	1.662984E+0	1.603808E+0	1.685993E+0	1.698591E+0	1.668340E+0	1.624704E+0	1.619462E+0	1.727617E+0	1.654311E+0
5.410290E+2	1.675160E+0	1.561634E+0	1.649955E+0	1.571398E+0	1.650398E+0	1.615772E+0	1.632897E+0	1.610995E+0	1.637728E+0	1.640817E+0	1.536442E+0	1.666734E+0	1.656718E+0	1.617082E+0	1.641461E+0	1.705221E+0	1.629408E+0	1.647091E+0	1.662016E+0	1.588705E+0	1.627261E+0	1.614965E+0	1.652176E+0	1.637452E+0	1.693818E+0	1.613780E+0	1.641773E+0	1.599234E+0	1.639127E+0	1.639537E+0	1.603540E+0	1.622958E+0	1.644286E+0	1.640776E+0	1.599927E+0	1.623198E+0	1.614802E+0	1.650060E+0	1.571530E+0	1.610294E+0	1.653626E+0	1.599810E+0	1.582196E+0	1.626087E+0	1.611988E+0	1.644114E+0	1.646102E+0	1.628327E+0	1.582077E+0	1.636191E+0	1.585366E+0	1.644672E+0	1.594912E+0	1.608655E+0	1.642943E+0	1.609511E+0	1.654079E+0	1.642417E+0	1.607360E+0	1.662214E+0	1.618261E+0	1.605597E+0	1.605757E+0	1.615868E+0	1.721397E+0	1.571869E+0	1.629830E+0	1.569316E+0	1.585125E+0	1.578011E+0	1.602922E+0	1.556921E+0	1.667541E+0	1.648408E+0	1.621422E+0	1.627509E+0	1.644074E+0	1.616636E+0	1.599238E+0	1.678050E+0	1.610598E+0	1.604246E+0	1.595350E+0	1.588413E+0	1.603069E+0	1.633258E+0	1.521609E+0	1.588961E+0	1.619206E+0	1.642555E+0	1.551386E+0	1.662282E+0	1.687629E+0	1.672807E+0	1.626850E+0	1.636067E+0	1.579592E+0	1.622612E+0	1.573026E+0	1.604010E+0	1.600217E+0	1.609897E+0	1.637573E+0	1.596606E+0	1.670423E+0	1.624836E+0	1.616616E+0	1.598302E+0	1.654258E+0	1.608055E+0	1.662191E+0	1.601235E+0	1.587799E+0	1.640916E+0	1.585290E+0	1.617060E+0	1.582333E+0	1.613507E+0	1.537360E+0	1.548655E+0	1.684009E+0	1.610138E+0	1.578056E+0	1.605665E+0	1.687741E+0	1.598878E+0	1.597481E+0	1.617954E+0	1.591442E+0	1.601751E+0	1.547242E+0	1.622098E+0	1.622797E+0	1.612478E+0	1.585884E+0	1.605576E+0	1.671035E+0	1.620160E+0	1.567499E+0	1.601218E+0	1.547221E+0	1.605262E+0	1.642353E+0	1.682452E+0	1.587682E+0	1.517604E+0	1.607183E+0	1.654294E+0	1.601088E+0	1.612682E+0	1.609671E+0	1.621637E+0	1.555274E+0	1.623305E+0	1.620648E+0	1.570512E+0	1.617158E+0	1.614027E+0	1.651958E+0	1.623086E+0	1.672503E+0	1.554803E+0	1.641697E+0	1.610442E+0	1.625447E+0	1.563105E+0	1.590366E+0	1.543163E+0	1.622901E+0	1.678532E+0
5.412790E+2	1.655321E+0	1.484862E+0	1.499335E+0	1.529951E+0	1.520940E+0	1.587754E+0	1.531228E+0	1.582078E+0	1.592734E+0	1.559581E+0	1.577490E+0	1.539268E+0	1.571522E+0	1.540747E+0	1.508129E+0	1.599990E+0	1.583447E+0	1.534959E+0	1.586827E+0	1.596408E+0	1.507627E+0	1.556301E+0	1.532670E+0	1.532237E+0	1.523622E+0	1.529356E+0	1.499383E+0	1.528126E+0	1.543892E+0	1.540793E+0	1.557470E+0	1.534446E+0	1.575034E+0	1.547227E+0	1.516014E+0	1.537958E+0	1.559419E+0	1.525986E+0	1.522887E+0	1.508924E+0	1.573311E+0	1.535536E+0	1.492911E+0	1.552849E+0	1.514904E+0	1.564190E+0	1.473442E+0	1.539594E+0	1.533336E+0	1.540230E+0	1.521701E+0	1.573655E+0	1.514438E+0	1.552137E+0	1.558693E+0	1.521245E+0	1.588214E+0	1.538967E+0	1.552001E+0	1.565491E+0	1.513072E+0	1.608645E+0	1.511189E+0	1.490447E+0	1.593227E+0	1.523846E+0	1.536275E+0	1.511905E+0	1.500036E+0	1.594114E+0	1.546974E+0	1.511627E+0	1.560452E+0	1.534449E+0	1.531545E+0	1.496641E+0	1.574997E+0	1.583901E+0	1.502709E+0	1.567051E+0	1.523529E+0	1.558672E+0	1.562852E+0	1.507024E+0	1.573212E+0	1.581618E+0	1.530840E+0	1.517698E+0	1.539378E+0	1.557728E+0	1.500550E+0	1.519397E+0	1.556526E+0	1.542951E+0	1.499793E+0	1.537236E+0	1.562255E+0	1.513664E+0	1.555787E+0	1.513243E+0	1.515929E+0	1.548642E+0	1.467599E+0	1.536102E+0	1.571214E+0	1.555766E+0	1.565303E+0	1.497788E+0	1.528885E+0	1.522489E+0	1.577290E+0	1.460648E+0	1.498568E+0	1.528899E+0	1.507909E+0	1.602496E+0	1.512495E+0	1.500500E+0	1.500758E+0	1.460220E+0	1.553169E+0	1.490355E+0	1.525227E+0	1.548290E+0	1.496347E+0	1.531631E+0	1.455208E+0	1.565097E+0	1.512919E+0	1.503627E+0	1.521627E+0	1.515470E+0	1.554465E+0	1.519398E+0	1.520706E+0	1.499682E+0	1.629114E+0	1.497033E+0	1.485105E+0	1.549553E+0	1.506738E+0	1.450430E+0	1.494768E+0	1.527093E+0	1.537647E+0	1.504495E+0	1.446849E+0	1.540551E+0	1.525761E+0	1.579645E+0	1.475607E+0	1.538978E+0	1.541494E+0	1.469881E+0	1.537837E+0	1.490373E+0	1.554569E+0	1.504915E+0	1.488508E+0	1.534091E+0	1.540314E+0	1.442608E+0	1.466109E+0	1.564871E+0	1.504329E+0	1.494216E+0	1.511660E+0	1.544943E+0	1.461268E+0	1.563930E+0
5.415140E+2	1.399979E+0	1.390846E+0	1.379785E+0	1.367157E+0	1.501995E+0	1.392060E+0	1.355271E+0	1.374958E+0	1.400313E+0	1.437424E+0	1.396162E+0	1.444448E+0	1.383498E+0	1.446055E+0	1.360211E+0	1.437166E+0	1.392187E+0	1.409616E+0	1.379292E+0	1.413330E+0	1.373543E+0	1.417882E+0	1.464730E+0	1.364611E+0	1.429505E+0	1.349035E+0	1.431052E+0	1.355619E+0	1.397183E+0	1.407665E+0	1.403148E+0	1.412845E+0	1.401691E+0	1.380568E+0	1.364738E+0	1.403397E+0	1.374516E+0	1.379084E+0	1.348853E+0	1.372297E+0	1.395794E+0	1.428340E+0	1.358330E+0	1.468101E+0	1.371133E+0	1.416876E+0	1.379618E+0	1.396720E+0	1.341820E+0	1.413869E+0	1.465484E+0	1.391169E+0	1.394526E+0	1.405511E+0	1.368459E+0	1.361426E+0	1.374415E+0	1.398996E+0	1.378836E+0	1.431837E+0	1.426773E+0	1.415614E+0	1.389399E+0	1.350144E+0	1.440021E+0	1.423718E+0	1.423729E+0	1.311406E+0	1.338807E+0	1.427303E+0	1.373335E+0	1.355478E+0	1.370897E+0	1.404315E+0	1.358628E+0	1.376717E+0	1.385215E+0	1.362153E+0	1.400363E+0	1.360358E+0	1.397997E+0	1.371426E+0	1.372677E+0	1.342406E+0	1.403940E+0	1.457154E+0	1.351419E+0	1.357544E+0	1.392118E+0	1.384606E+0	1.386948E+0	1.423951E+0	1.387242E+0	1.427094E+0	1.350753E+0	1.380421E+0	1.359055E+0	1.438968E+0	1.347538E+0	1.405620E+0	1.353705E+0	1.360538E+0	1.372547E+0	1.344158E+0	1.326694E+0	1.335282E+0	1.371410E+0	1.397345E+0	1.402048E+0	1.429066E+0	1.338015E+0	1.354657E+0	1.408520E+0	1.407131E+0	1.313769E+0	1.420991E+0	1.414507E+0	1.423814E+0	1.352521E+0	1.375266E+0	1.403711E+0	1.445135E+0	1.324794E+0	1.386478E+0	1.355464E+0	1.382008E+0	1.414484E+0	1.314594E+0	1.416816E+0	1.431496E+0	1.368661E+0	1.367200E+0	1.432761E+0	1.375748E+0	1.371303E+0	1.364453E+0	1.381657E+0	1.390130E+0	1.321487E+0	1.371589E+0	1.365869E+0	1.383712E+0	1.447567E+0	1.377089E+0	1.404931E+0	1.381363E+0	1.315372E+0	1.355843E+0	1.355536E+0	1.388639E+0	1.378663E+0	1.388296E+0	1.306666E+0	1.402191E+0	1.413385E+0	1.390051E+0	1.497035E+0	1.396798E+0	1.376315E+0	1.408704E+0	1.391379E+0	1.339541E+0	1.311758E+0	1.323918E+0	1.385390E+0	1.390643E+0	1.359769E+0	1.429241E+0	1.408848E+0	1.344017E+0
5.417760E+2	1.287099E+0	1.176865E+0	1.243537E+0	1.187728E+0	1.257554E+0	1.201093E+0	1.184280E+0	1.231929E+0	1.247585E+0	1.244303E+0	1.163606E+0	1.227226E+0	1.259039E+0	1.195720E+0	1.231260E+0	1.231143E+0	1.213239E+0	1.207992E+0	1.175784E+0	1.192152E+0	1.236763E+0	1.169090E+0	1.158870E+0	1.188488E+0	1.249959E+0	1.198290E+0	1.190643E+0	1.151996E+0	1.186673E+0	1.184158E+0	1.222489E+0	1.215591E+0	1.196272E+0	1.222551E+0	1.241642E+0	1.231353E+0	1.189531E+0	1.180240E+0	1.142128E+0	1.159374E+0	1.202286E+0	1.234781E+0	1.130439E+0	1.223466E+0	1.196168E+0	1.252228E+0	1.195058E+0	1.182197E+0	1.169702E+0	1.262800E+0	1.202110E+0	1.212005E+0	1.175806E+0	1.207829E+0	1.206919E+0	1.289240E+0	1.229430E+0	1.271113E+0	1.167337E+0	1.220400E+0	1.192562E+0	1.223015E+0	1.215090E+0	1.199526E+0	1.241058E+0	1.193173E+0	1.206327E+0	1.162507E+0	1.197650E+0	1.192663E+0	1.194249E+0	1.180822E+0	1.215663E+0	1.233104E+0	1.195907E+0	1.212686E+0	1.228880E+0	1.192129E+0	1.195960E+0	1.218821E+0	1.195035E+0	1.187523E+0	1.191296E+0	1.218688E+0	1.197787E+0	1.220920E+0	1.175376E+0	1.177005E+0	1.190617E+0	1.234091E+0	1.210695E+0	1.214287E+0	1.193842E+0	1.207021E+0	1.168488E+0	1.223693E+0	1.188852E+0	1.172432E+0	1.213984E+0	1.241597E+0	1.234893E+0	1.187061E+0	1.183406E+0	1.183607E+0	1.216350E+0	1.198983E+0	1.176669E+0	1.193368E+0	1.220328E+0	1.252808E+0	1.207708E+0	1.186048E+0	1.196484E+0	1.221058E+0	1.193806E+0	1.216785E+0	1.173680E+0	1.247088E+0	1.198151E+0	1.165115E+0	1.222750E+0	1.213595E+0	1.192387E+0	1.158786E+0	1.186088E+0	1.179934E+0	1.213961E+0	1.232923E+0	1.201338E+0	1.199201E+0	1.198223E+0	1.201099E+0	1.213223E+0	1.176123E+0	1.195052E+0	1.217736E+0	1.208031E+0	1.178318E+0	1.167442E+0	1.171654E+0	1.183878E+0	1.185134E+0	1.222223E+0	1.240491E+0	1.239372E+0	1.145379E+0	1.181453E+0	1.179080E+0	1.219040E+0	1.210845E+0	1.207921E+0	1.211596E+0	1.203824E+0	1.156096E+0	1.205664E+0	1.180723E+0	1.222252E+0	1.174757E+0	1.208422E+0	1.243086E+0	1.170246E+0	1.187289E+0	1.201023E+0	1.111174E+0	1.228823E+0	1.188080E+0	1.175214E+0	1.219795E+0	1.269230E+0	1.251511E+0
5.420160E+2	1.061116E+0	1.034459E+0	1.061174E+0	1.017258E+0	1.071960E+0	1.056907E+0	1.049196E+0	1.026240E+0	1.053978E+0	1.063868E+0	9.893738E-1	1.061573E+0	1.076505E+0	1.083650E+0	1.031490E+0	1.070679E+0	1.085088E+0	1.054239E+0	1.078625E+0	1.078577E+0	1.050870E+0	1.052582E+0	1.069974E+0	9.870345E-1	1.031439E+0	1.061071E+0	1.019253E+0	1.021755E+0	1.065491E+0	1.050273E+0	1.028684E+0	1.095402E+0	1.087215E+0	1.063791E+0	1.029226E+0	1.024905E+0	1.041768E+0	1.079684E+0	1.061329E+0	1.019383E+0	1.035324E+0	1.089562E+0	1.057901E+0	1.049195E+0	1.068406E+0	1.048640E+0	1.059216E+0	1.061153E+0	9.867406E-1	1.052010E+0	1.038540E+0	1.072538E+0	1.024459E+0	1.066527E+0	1.005186E+0	1.078175E+0	1.055346E+0	1.082450E+0	1.078610E+0	1.063240E+0	1.046600E+0	1.037392E+0	1.064172E+0	1.030687E+0	1.088607E+0	1.022513E+0	1.042238E+0	1.043784E+0	1.031797E+0	1.079401E+0	1.058156E+0	1.076556E+0	1.054149E+0	1.027868E+0	1.030858E+0	1.041655E+0	1.062854E+0	1.075044E+0	1.054025E+0	1.078711E+0	1.077927E+0	1.062091E+0	1.041309E+0	1.054492E+0	1.053341E+0	1.033150E+0	1.049548E+0	1.038639E+0	1.039479E+0	1.026051E+0	1.064318E+0	1.016837E+0	1.030483E+0	1.104172E+0	1.024057E+0	1.081395E+0	1.021992E+0	1.093609E+0	1.086432E+0	9.932238E-1	1.037435E+0	1.039044E+0	1.057431E+0	1.065453E+0	1.074514E+0	1.071993E+0	9.947843E-1	1.072278E+0	1.046974E+0	1.074694E+0	1.061985E+0	1.038514E+0	1.034083E+0	1.056935E+0	9.929847E-1	1.057414E+0	1.080528E+0	1.099242E+0	1.094251E+0	1.015570E+0	1.064749E+0	1.029378E+0	1.080114E+0	1.031483E+0	1.082963E+0	1.051143E+0	1.040145E+0	1.046895E+0	1.020617E+0	1.077095E+0	9.899668E-1	1.074194E+0	1.055298E+0	1.008258E+0	1.018996E+0	1.032561E+0	1.054679E+0	1.073236E+0	1.041351E+0	1.016406E+0	1.032523E+0	1.062972E+0	1.102305E+0	1.064052E+0	1.048982E+0	1.059683E+0	1.019185E+0	1.071471E+0	1.075174E+0	1.038034E+0	1.039281E+0	1.069873E+0	1.025033E+0	1.015960E+0	1.024413E+0	1.040228E+0	1.030884E+0	1.036869E+0	1.042703E+0	1.032620E+0	1.066078E+0	1.023973E+0	1.026853E+0	1.024438E+0	1.048998E+0	1.004921E+0	1.076970E+0	1.042736E+0	1.040466E+0	1.058919E+0
5.422670E+2	1.001088E+0	9.450615E-1	9.570362E-1	9.341722E-1	1.007452E+0	9.584175E-1	9.635739E-1	9.688364E-1	9.466600E-1	9.545085E-1	9.498433E-1	9.783179E-1	9.316577E-1	9.492828E-1	9.466580E-1	9.652917E-1	8.975521E-1	9.399786E-1	9.416709E-1	1.004049E+0	9.438559E-1	9.536608E-1	9.428776E-1	9.509120E-1	9.701303E-1	9.635097E-1	9.717319E-1	9.774755E-1	9.853752E-1	9.684116E-1	1.007358E+0	9.503127E-1	9.895844E-1	9.372108E-1	9.342136E-1	9.670714E-1	9.348506E-1	9.746155E-1	9.498798E-1	9.233481E-1	9.553171E-1	9.720897E-1	9.317552E-1	9.987010E-1	9.455262E-1	1.004953E+0	9.612464E-1	9.476703E-1	9.607344E-1	9.877474E-1	9.504097E-1	9.779868E-1	9.387191E-1	9.803496E-1	9.178925E-1	9.449351E-1	9.881843E-1	9.728058E-1	9.809214E-1	9.293696E-1	9.038553E-1	9.725445E-1	9.848065E-1	9.316973E-1	9.953300E-1	9.636368E-1	9.757392E-1	9.565164E-1	9.520769E-1	9.890678E-1	9.903909E-1	9.732335E-1	9.562722E-1	9.586533E-1	9.440189E-1	9.606363E-1	9.586971E-1	9.475430E-1	9.473300E-1	9.039552E-1	9.176233E-1	9.506946E-1	9.840870E-1	9.699924E-1	9.212115E-1	9.881790E-1	9.060098E-1	9.266955E-1	9.552342E-1	9.478020E-1	9.421566E-1	9.479548E-1	9.594967E-1	9.464841E-1	9.415334E-1	9.603431E-1	9.522246E-1	9.936611E-1	9.531086E-1	9.310919E-1	9.703393E-1	9.701297E-1	9.428874E-1	9.680075E-1	9.782995E-1	9.654072E-1	9.436116E-1	9.364429E-1	9.725544E-1	9.228552E-1	9.440045E-1	9.253127E-1	9.439699E-1	9.769386E-1	9.401031E-1	9.758315E-1	9.962312E-1	9.868449E-1	9.319678E-1	9.338963E-1	9.539142E-1	9.322642E-1	9.204052E-1	9.681087E-1	9.419215E-1	9.778035E-1	9.425757E-1	8.976892E-1	9.572107E-1	9.902843E-1	9.406069E-1	9.198828E-1	9.786832E-1	9.933444E-1	9.580898E-1	9.399928E-1	9.770407E-1	9.478536E-1	9.666479E-1	9.847454E-1	9.316130E-1	9.251644E-1	9.619651E-1	1.009208E+0	9.941154E-1	9.791864E-1	9.571356E-1	1.012865E+0	9.466664E-1	9.684612E-1	9.516397E-1	9.480745E-1	9.402374E-1	9.388106E-1	9.986137E-1	8.997686E-1	9.793829E-1	9.387951E-1	9.301870E-1	9.616898E-1	9.186431E-1	9.489667E-1	9.669322E-1	9.447001E-1	9.942006E-1	9.833769E-1	1.010545E+0	9.493151E-1	9.707711E-1	9.506343E-1
5.425300E+2	9.419788E-1	9.055012E-1	8.963214E-1	9.974819E-1	9.348052E-1	9.200797E-1	8.884965E-1	9.459642E-1	9.835705E-1	9.933232E-1	9.567580E-1	9.486697E-1	9.393477E-1	9.624355E-1	9.448530E-1	9.533022E-1	9.416291E-1	9.596776E-1	9.333148E-1	9.262711E-1	9.266798E-1	9.660148E-1	9.406069E-1	9.484904E-1	9.851164E-1	9.822717E-1	9.860115E-1	9.610040E-1	9.335220E-1	1.007803E+0	9.376423E-1	9.688679E-1	9.847572E-1	9.857795E-1	9.510259E-1	9.699259E-1	9.285194E-1	9.715887E-1	9.359340E-1	9.359729E-1	9.525262E-1	9.333345E-1	9.406980E-1	9.460268E-1	9.684052E-1	9.409271E-1	9.981565E-1	9.442164E-1	8.917440E-1	9.557603E-1	1.016713E+0	9.203691E-1	9.328600E-1	9.512974E-1	9.450191E-1	9.436695E-1	1.002849E+0	9.788348E-1	9.467375E-1	9.635403E-1	9.558476E-1	9.761673E-1	9.802364E-1	9.654157E-1	9.898305E-1	9.545879E-1	9.246027E-1	8.941396E-1	8.850154E-1	9.546805E-1	9.636910E-1	9.490787E-1	9.224558E-1	9.432396E-1	9.259056E-1	9.270098E-1	1.002285E+0	8.992460E-1	9.421808E-1	9.356832E-1	9.770485E-1	9.860169E-1	9.667405E-1	8.924801E-1	9.363149E-1	9.255616E-1	9.235772E-1	9.174390E-1	9.437671E-1	9.441906E-1	9.591786E-1	9.180213E-1	9.325046E-1	9.283419E-1	9.333276E-1	9.260652E-1	9.049968E-1	9.583016E-1	9.245394E-1	9.136353E-1	9.379323E-1	9.229352E-1	9.017182E-1	9.473246E-1	9.282788E-1	9.379663E-1	9.560437E-1	9.408496E-1	9.462845E-1	1.002808E+0	9.130439E-1	9.247006E-1	9.168685E-1	9.575328E-1	9.058174E-1	9.524454E-1	9.355469E-1	9.379369E-1	9.305342E-1	9.300211E-1	9.385154E-1	9.363758E-1	9.035035E-1	9.314715E-1	9.291640E-1	9.742560E-1	9.459967E-1	9.363312E-1	9.575309E-1	9.969341E-1	9.707085E-1	9.328677E-1	9.678024E-1	9.591597E-1	9.243650E-1	9.483029E-1	9.483479E-1	9.586150E-1	9.582510E-1	9.383562E-1	9.300998E-1	9.346110E-1	9.579974E-1	9.366937E-1	9.643004E-1	9.527539E-1	9.859385E-1	9.047559E-1	9.411807E-1	9.729123E-1	9.426778E-1	9.699259E-1	9.301126E-1	9.630580E-1	9.458187E-1	9.171294E-1	9.209943E-1	9.176726E-1	9.579702E-1	9.380025E-1	9.147028E-1	9.147130E-1	9.230282E-1	9.530345E-1	9.308837E-1	9.372239E-1	9.183971E-1	8.951113E-1	9.050750E-1	9.774444E-1
5.427650E+2	1.101027E+0	1.019229E+0	9.856558E-1	9.718345E-1	1.015292E+0	1.000929E+0	9.854460E-1	1.011964E+0	1.011984E+0	1.045696E+0	9.823133E-1	1.028808E+0	1.011713E+0	1.028899E+0	9.922366E-1	1.048712E+0	1.059644E+0	9.997371E-1	1.023214E+0	1.050795E+0	9.604592E-1	1.033524E+0	1.019006E+0	1.000201E+0	1.055204E+0	1.063281E+0	1.006034E+0	1.030772E+0	1.076367E+0	1.020867E+0	1.018894E+0	1.038439E+0	1.045263E+0	1.044927E+0	1.064920E+0	1.051500E+0	1.033024E+0	1.024368E+0	1.045871E+0	1.008953E+0	1.014286E+0	1.041952E+0	9.878857E-1	1.036081E+0	1.032275E+0	1.044215E+0	1.019621E+0	1.031493E+0	1.009342E+0	1.081826E+0	1.030817E+0	1.019401E+0	1.071800E+0	9.823509E-1	1.041052E+0	1.014864E+0	1.043568E+0	1.088781E+0	1.070941E+0	1.053271E+0	1.066717E+0	1.048424E+0	1.000652E+0	1.063496E+0	1.055923E+0	9.942131E-1	1.022326E+0	9.875495E-1	9.972592E-1	1.034641E+0	9.929707E-1	1.027445E+0	1.021839E+0	1.083552E+0	1.054123E+0	9.557974E-1	1.050201E+0	1.022368E+0	1.035139E+0	1.020168E+0	1.028903E+0	1.051211E+0	1.022134E+0	1.028248E+0	1.052329E+0	1.040105E+0	9.922941E-1	1.009286E+0	1.045052E+0	9.883905E-1	1.047274E+0	1.072335E+0	1.012269E+0	1.013986E+0	1.041375E+0	1.021369E+0	9.826001E-1	9.682240E-1	1.020386E+0	9.959029E-1	9.948757E-1	9.980083E-1	1.061430E+0	1.076871E+0	1.069642E+0	1.011479E+0	1.046169E+0	1.075918E+0	9.972091E-1	1.035611E+0	9.878577E-1	1.004721E+0	1.007932E+0	1.013626E+0	1.010039E+0	1.057881E+0	1.028888E+0	1.045443E+0	9.896531E-1	9.992471E-1	1.019267E+0	9.996884E-1	1.003699E+0	1.043039E+0	1.027303E+0	9.931198E-1	1.027444E+0	1.030261E+0	1.056372E+0	1.048088E+0	1.015890E+0	9.722526E-1	1.058290E+0	1.070046E+0	9.878660E-1	1.031655E+0	1.053157E+0	1.059212E+0	1.005421E+0	1.021240E+0	9.922559E-1	9.976515E-1	1.044666E+0	1.052825E+0	1.039025E+0	9.972561E-1	1.019783E+0	1.018798E+0	9.898380E-1	1.012841E+0	1.035328E+0	1.017135E+0	1.018593E+0	1.014963E+0	1.066100E+0	1.031802E+0	1.006100E+0	1.022890E+0	1.042226E+0	1.034608E+0	1.061865E+0	9.502766E-1	9.669026E-1	1.011747E+0	1.026965E+0	1.047130E+0	9.824077E-1	1.069877E+0	1.016707E+0	1.079409E+0
5.430170E+2	1.198515E+0	1.134592E+0	1.100145E+0	1.127048E+0	1.135584E+0	1.129958E+0	1.145713E+0	1.135315E+0	1.157727E+0	1.178021E+0	1.148058E+0	1.129325E+0	1.161140E+0	1.170874E+0	1.180299E+0	1.162668E+0	1.150781E+0	1.174954E+0	1.141949E+0	1.143047E+0	1.116135E+0	1.089985E+0	1.124210E+0	1.149377E+0	1.230888E+0	1.127273E+0	1.222530E+0	1.159568E+0	1.158315E+0	1.143728E+0	1.205433E+0	1.197724E+0	1.191776E+0	1.202698E+0	1.154837E+0	1.211579E+0	1.174714E+0	1.161527E+0	1.146545E+0	1.152647E+0	1.158259E+0	1.185173E+0	1.131649E+0	1.192723E+0	1.145816E+0	1.167053E+0	1.170771E+0	1.181122E+0	1.118642E+0	1.195389E+0	1.122959E+0	1.147785E+0	1.190986E+0	1.152606E+0	1.182920E+0	1.190293E+0	1.203473E+0	1.155244E+0	1.174120E+0	1.146103E+0	1.135710E+0	1.158999E+0	1.151709E+0	1.155734E+0	1.224309E+0	1.118184E+0	1.180706E+0	1.144300E+0	1.141626E+0	1.190203E+0	1.171067E+0	1.177485E+0	1.112882E+0	1.105016E+0	1.189136E+0	1.199257E+0	1.152656E+0	1.150568E+0	1.128846E+0	1.157972E+0	1.171647E+0	1.181098E+0	1.176482E+0	1.137879E+0	1.133944E+0	1.149585E+0	1.148002E+0	1.137718E+0	1.131703E+0	1.113535E+0	1.129998E+0	1.114343E+0	1.154518E+0	1.162637E+0	1.096583E+0	1.133292E+0	1.182388E+0	1.197942E+0	1.159727E+0	1.159226E+0	1.181939E+0	1.127998E+0	1.190881E+0	1.131018E+0	1.184851E+0	1.175883E+0	1.152295E+0	1.198297E+0	1.174910E+0	1.181964E+0	1.156637E+0	1.161845E+0	1.171443E+0	1.146948E+0	1.146536E+0	1.139684E+0	1.164518E+0	1.167943E+0	1.157644E+0	1.145596E+0	1.185978E+0	1.122550E+0	1.130030E+0	1.127764E+0	1.219603E+0	1.125547E+0	1.147871E+0	1.119782E+0	1.127121E+0	1.161987E+0	1.132015E+0	1.133797E+0	1.210561E+0	1.162724E+0	1.123348E+0	1.159855E+0	1.132661E+0	1.150986E+0	1.162508E+0	1.169131E+0	1.159828E+0	1.167336E+0	1.162841E+0	1.143539E+0	1.152361E+0	1.141612E+0	1.130862E+0	1.134596E+0	1.130013E+0	1.139601E+0	1.150179E+0	1.137389E+0	1.123196E+0	1.156625E+0	1.116183E+0	1.195993E+0	1.147415E+0	1.158686E+0	1.141286E+0	1.173851E+0	1.136132E+0	1.166008E+0	1.150432E+0	1.158329E+0	1.131311E+0	1.165034E+0	1.172652E+0	1.098392E+0	1.159132E+0	1.136778E+0
5.432800E+2	1.338484E+0	1.311943E+0	1.251069E+0	1.234924E+0	1.308445E+0	1.326532E+0	1.272813E+0	1.277850E+0	1.323608E+0	1.349566E+0	1.285557E+0	1.279234E+0	1.277954E+0	1.269245E+0	1.282072E+0	1.349449E+0	1.315441E+0	1.323239E+0	1.284686E+0	1.273248E+0	1.307515E+0	1.233536E+0	1.302069E+0	1.268791E+0	1.341266E+0	1.330250E+0	1.317009E+0	1.305339E+0	1.391221E+0	1.318719E+0	1.319594E+0	1.341358E+0	1.303580E+0	1.322857E+0	1.334046E+0	1.244800E+0	1.354946E+0	1.334048E+0	1.303130E+0	1.295944E+0	1.275931E+0	1.280409E+0	1.276711E+0	1.329114E+0	1.352953E+0	1.303293E+0	1.326047E+0	1.320678E+0	1.264223E+0	1.340858E+0	1.346024E+0	1.329855E+0	1.313124E+0	1.311831E+0	1.263705E+0	1.298397E+0	1.267843E+0	1.345480E+0	1.335301E+0	1.299704E+0	1.325890E+0	1.318703E+0	1.305349E+0	1.333084E+0	1.344823E+0	1.306246E+0	1.257376E+0	1.254360E+0	1.310518E+0	1.283335E+0	1.323145E+0	1.252474E+0	1.289519E+0	1.299640E+0	1.275661E+0	1.295118E+0	1.309369E+0	1.288467E+0	1.320187E+0	1.350301E+0	1.346871E+0	1.275958E+0	1.303039E+0	1.223869E+0	1.339673E+0	1.320725E+0	1.207293E+0	1.293996E+0	1.274881E+0	1.324059E+0	1.322752E+0	1.303899E+0	1.258811E+0	1.332739E+0	1.264938E+0	1.293358E+0	1.268257E+0	1.324368E+0	1.260754E+0	1.281882E+0	1.321701E+0	1.289504E+0	1.306826E+0	1.253635E+0	1.315649E+0	1.281197E+0	1.318173E+0	1.315081E+0	1.275422E+0	1.282186E+0	1.275552E+0	1.279003E+0	1.292710E+0	1.321533E+0	1.259300E+0	1.300872E+0	1.285200E+0	1.247182E+0	1.317035E+0	1.281172E+0	1.348526E+0	1.282405E+0	1.311975E+0	1.263436E+0	1.276889E+0	1.261021E+0	1.278867E+0	1.277051E+0	1.327248E+0	1.317730E+0	1.239450E+0	1.273104E+0	1.348267E+0	1.303755E+0	1.235376E+0	1.281904E+0	1.344109E+0	1.331450E+0	1.267297E+0	1.326064E+0	1.290678E+0	1.269557E+0	1.310192E+0	1.309804E+0	1.270891E+0	1.254915E+0	1.250797E+0	1.274666E+0	1.326489E+0	1.323371E+0	1.278509E+0	1.274905E+0	1.262072E+0	1.302956E+0	1.289137E+0	1.252250E+0	1.304541E+0	1.279078E+0	1.297294E+0	1.334627E+0	1.309650E+0	1.278258E+0	1.280755E+0	1.273399E+0	1.267997E+0	1.267975E+0	1.298950E+0	1.319941E+0	1.265672E+0	1.357705E+0
5.435540E+2	1.496804E+0	1.420849E+0	1.437592E+0	1.433403E+0	1.453639E+0	1.447958E+0	1.450490E+0	1.448389E+0	1.461741E+0	1.464287E+0	1.451810E+0	1.460123E+0	1.484361E+0	1.436834E+0	1.444288E+0	1.458867E+0	1.463093E+0	1.518654E+0	1.461934E+0	1.486061E+0	1.443397E+0	1.455288E+0	1.438254E+0	1.484649E+0	1.504208E+0	1.424088E+0	1.375622E+0	1.414735E+0	1.477259E+0	1.482094E+0	1.425233E+0	1.496670E+0	1.434045E+0	1.459440E+0	1.457964E+0	1.493774E+0	1.453850E+0	1.482655E+0	1.433824E+0	1.449448E+0	1.438558E+0	1.454537E+0	1.415395E+0	1.489987E+0	1.484533E+0	1.466965E+0	1.470781E+0	1.467304E+0	1.398413E+0	1.436210E+0	1.440998E+0	1.437602E+0	1.404066E+0	1.460543E+0	1.429938E+0	1.452191E+0	1.415296E+0	1.442025E+0	1.448879E+0	1.444962E+0	1.435303E+0	1.450602E+0	1.491450E+0	1.430078E+0	1.469133E+0	1.398230E+0	1.435566E+0	1.421407E+0	1.406851E+0	1.490948E+0	1.491825E+0	1.431077E+0	1.410839E+0	1.442046E+0	1.463815E+0	1.434360E+0	1.426410E+0	1.458572E+0	1.467217E+0	1.459886E+0	1.400239E+0	1.441173E+0	1.445150E+0	1.405625E+0	1.452071E+0	1.445010E+0	1.403468E+0	1.421876E+0	1.442386E+0	1.426986E+0	1.423345E+0	1.458393E+0	1.462761E+0	1.415811E+0	1.410513E+0	1.407617E+0	1.406324E+0	1.448522E+0	1.392234E+0	1.436716E+0	1.452587E+0	1.431085E+0	1.422907E+0	1.410348E+0	1.425223E+0	1.387130E+0	1.429359E+0	1.523449E+0	1.463107E+0	1.452023E+0	1.477689E+0	1.423751E+0	1.436037E+0	1.450797E+0	1.405892E+0	1.457891E+0	1.456454E+0	1.415349E+0	1.413711E+0	1.428088E+0	1.455161E+0	1.405853E+0	1.381775E+0	1.482461E+0	1.461324E+0	1.425299E+0	1.435815E+0	1.412363E+0	1.416407E+0	1.441260E+0	1.420450E+0	1.460289E+0	1.522191E+0	1.411553E+0	1.398066E+0	1.371844E+0	1.457200E+0	1.402351E+0	1.441529E+0	1.468018E+0	1.430112E+0	1.443737E+0	1.468443E+0	1.404730E+0	1.406192E+0	1.418171E+0	1.434821E+0	1.455158E+0	1.393542E+0	1.433932E+0	1.472120E+0	1.433347E+0	1.392892E+0	1.430314E+0	1.418383E+0	1.426408E+0	1.414578E+0	1.416083E+0	1.464267E+0	1.442215E+0	1.411113E+0	1.419876E+0	1.404678E+0	1.393159E+0	1.420963E+0	1.419850E+0	1.403050E+0	1.433296E+0	1.497120E+0	1.406035E+0
5.437640E+2	1.508184E+0	1.423648E+0	1.531692E+0	1.502936E+0	1.586354E+0	1.521594E+0	1.478540E+0	1.486630E+0	1.546568E+0	1.543677E+0	1.549168E+0	1.533905E+0	1.521269E+0	1.500652E+0	1.480689E+0	1.573473E+0	1.516911E+0	1.539510E+0	1.519271E+0	1.501799E+0	1.489465E+0	1.492193E+0	1.457626E+0	1.555868E+0	1.573639E+0	1.460089E+0	1.533355E+0	1.565645E+0	1.482955E+0	1.500626E+0	1.500050E+0	1.553285E+0	1.501772E+0	1.485573E+0	1.520697E+0	1.512838E+0	1.502866E+0	1.476234E+0	1.432102E+0	1.485222E+0	1.515579E+0	1.527993E+0	1.459027E+0	1.531412E+0	1.496871E+0	1.512601E+0	1.521149E+0	1.524997E+0	1.493980E+0	1.513081E+0	1.478830E+0	1.512612E+0	1.502553E+0	1.528627E+0	1.533170E+0	1.504382E+0	1.528784E+0	1.553823E+0	1.516752E+0	1.528531E+0	1.498228E+0	1.502657E+0	1.532846E+0	1.508754E+0	1.595107E+0	1.555767E+0	1.526355E+0	1.535636E+0	1.499478E+0	1.527706E+0	1.507099E+0	1.517302E+0	1.473527E+0	1.507562E+0	1.526319E+0	1.572374E+0	1.540218E+0	1.500090E+0	1.430711E+0	1.514449E+0	1.483815E+0	1.475132E+0	1.566871E+0	1.510540E+0	1.517226E+0	1.509076E+0	1.447918E+0	1.449222E+0	1.499283E+0	1.463428E+0	1.488485E+0	1.516875E+0	1.512906E+0	1.537342E+0	1.515925E+0	1.509716E+0	1.494661E+0	1.474831E+0	1.506897E+0	1.526508E+0	1.500886E+0	1.431390E+0	1.515037E+0	1.534896E+0	1.550645E+0	1.494303E+0	1.549080E+0	1.476786E+0	1.525243E+0	1.490652E+0	1.471386E+0	1.489159E+0	1.495008E+0	1.500211E+0	1.454243E+0	1.532442E+0	1.484603E+0	1.513014E+0	1.483439E+0	1.469464E+0	1.512797E+0	1.487070E+0	1.465952E+0	1.473311E+0	1.540884E+0	1.479991E+0	1.511807E+0	1.475119E+0	1.481641E+0	1.509169E+0	1.536085E+0	1.535982E+0	1.565887E+0	1.526958E+0	1.504767E+0	1.440778E+0	1.536211E+0	1.477841E+0	1.505198E+0	1.475834E+0	1.464230E+0	1.455533E+0	1.490824E+0	1.491133E+0	1.541132E+0	1.481474E+0	1.466138E+0	1.513593E+0	1.430450E+0	1.448667E+0	1.513172E+0	1.529798E+0	1.475492E+0	1.483686E+0	1.469566E+0	1.486634E+0	1.512953E+0	1.463832E+0	1.478958E+0	1.480201E+0	1.481765E+0	1.473987E+0	1.499518E+0	1.525873E+0	1.505013E+0	1.484823E+0	1.411374E+0	1.531102E+0	1.492599E+0	1.440635E+0
5.440120E+2	1.641693E+0	1.559207E+0	1.621343E+0	1.561970E+0	1.612566E+0	1.594092E+0	1.520482E+0	1.594876E+0	1.598091E+0	1.594770E+0	1.581233E+0	1.543127E+0	1.593729E+0	1.587655E+0	1.575903E+0	1.625008E+0	1.547854E+0	1.630621E+0	1.618034E+0	1.522419E+0	1.618278E+0	1.544485E+0	1.519303E+0	1.631543E+0	1.556582E+0	1.565362E+0	1.529283E+0	1.560385E+0	1.509930E+0	1.557033E+0	1.627137E+0	1.578642E+0	1.477039E+0	1.547931E+0	1.545130E+0	1.601836E+0	1.543894E+0	1.595521E+0	1.531537E+0	1.561325E+0	1.595831E+0	1.595817E+0	1.521093E+0	1.538986E+0	1.613312E+0	1.570689E+0	1.590846E+0	1.599953E+0	1.529499E+0	1.562751E+0	1.505882E+0	1.604809E+0	1.543501E+0	1.587895E+0	1.530624E+0	1.561160E+0	1.541491E+0	1.608001E+0	1.582104E+0	1.567588E+0	1.568019E+0	1.566070E+0	1.584195E+0	1.584565E+0	1.599823E+0	1.520455E+0	1.633246E+0	1.507782E+0	1.579195E+0	1.602700E+0	1.554022E+0	1.555322E+0	1.539756E+0	1.601488E+0	1.584074E+0	1.532350E+0	1.552511E+0	1.508690E+0	1.554975E+0	1.599597E+0	1.562769E+0	1.557860E+0	1.566541E+0	1.539111E+0	1.532885E+0	1.527112E+0	1.514417E+0	1.555352E+0	1.584070E+0	1.527262E+0	1.572435E+0	1.568412E+0	1.567229E+0	1.521152E+0	1.548850E+0	1.592292E+0	1.547526E+0	1.526408E+0	1.581376E+0	1.579663E+0	1.584386E+0	1.456539E+0	1.555179E+0	1.548363E+0	1.558793E+0	1.512808E+0	1.555110E+0	1.567520E+0	1.546211E+0	1.547719E+0	1.534565E+0	1.514191E+0	1.503188E+0	1.586552E+0	1.543780E+0	1.565935E+0	1.525529E+0	1.568409E+0	1.568743E+0	1.537791E+0	1.532227E+0	1.529492E+0	1.524542E+0	1.608502E+0	1.525085E+0	1.548068E+0	1.518239E+0	1.547056E+0	1.564362E+0	1.561694E+0	1.560719E+0	1.499993E+0	1.571996E+0	1.521970E+0	1.504739E+0	1.529054E+0	1.555702E+0	1.518386E+0	1.552284E+0	1.512165E+0	1.555860E+0	1.503053E+0	1.584520E+0	1.583186E+0	1.536165E+0	1.527445E+0	1.577108E+0	1.551792E+0	1.527754E+0	1.571935E+0	1.566519E+0	1.539292E+0	1.515559E+0	1.507043E+0	1.551021E+0	1.571491E+0	1.551419E+0	1.518792E+0	1.575865E+0	1.617651E+0	1.585421E+0	1.497139E+0	1.565201E+0	1.520174E+0	1.580705E+0	1.589030E+0	1.532944E+0	1.501931E+0	1.482120E+0	1.555452E+0
5.442860E+2	1.610304E+0	1.579464E+0	1.633620E+0	1.510564E+0	1.619265E+0	1.592523E+0	1.626027E+0	1.558807E+0	1.563510E+0	1.640176E+0	1.558854E+0	1.591519E+0	1.582244E+0	1.576339E+0	1.561848E+0	1.612568E+0	1.562318E+0	1.546501E+0	1.624040E+0	1.604319E+0	1.569211E+0	1.553235E+0	1.558904E+0	1.546774E+0	1.613057E+0	1.539519E+0	1.556722E+0	1.561414E+0	1.583126E+0	1.555837E+0	1.631147E+0	1.593708E+0	1.550148E+0	1.606725E+0	1.527922E+0	1.587127E+0	1.573433E+0	1.546670E+0	1.554650E+0	1.531557E+0	1.614510E+0	1.610135E+0	1.573523E+0	1.618774E+0	1.521526E+0	1.529278E+0	1.570025E+0	1.586512E+0	1.506456E+0	1.592886E+0	1.599322E+0	1.574913E+0	1.564956E+0	1.551987E+0	1.545806E+0	1.630405E+0	1.624770E+0	1.543107E+0	1.579411E+0	1.578460E+0	1.586626E+0	1.579424E+0	1.560506E+0	1.568873E+0	1.593349E+0	1.567001E+0	1.666110E+0	1.542908E+0	1.559669E+0	1.608450E+0	1.553803E+0	1.530716E+0	1.584536E+0	1.541187E+0	1.593215E+0	1.562815E+0	1.600481E+0	1.546567E+0	1.586700E+0	1.577339E+0	1.577403E+0	1.564891E+0	1.537727E+0	1.536943E+0	1.554682E+0	1.550302E+0	1.526113E+0	1.548795E+0	1.604880E+0	1.581746E+0	1.583560E+0	1.608557E+0	1.583800E+0	1.523695E+0	1.556160E+0	1.522642E+0	1.507860E+0	1.560406E+0	1.589830E+0	1.549053E+0	1.547805E+0	1.531355E+0	1.578244E+0	1.568055E+0	1.601919E+0	1.593011E+0	1.609291E+0	1.518342E+0	1.539101E+0	1.557187E+0	1.550482E+0	1.525295E+0	1.519872E+0	1.541390E+0	1.502998E+0	1.582441E+0	1.581405E+0	1.591122E+0	1.530745E+0	1.511425E+0	1.560815E+0	1.535616E+0	1.526553E+0	1.616313E+0	1.511137E+0	1.504563E+0	1.541526E+0	1.549246E+0	1.521263E+0	1.584301E+0	1.566814E+0	1.527433E+0	1.571105E+0	1.549938E+0	1.570265E+0	1.511603E+0	1.589357E+0	1.552086E+0	1.528680E+0	1.514331E+0	1.570179E+0	1.551032E+0	1.619812E+0	1.518299E+0	1.599394E+0	1.604955E+0	1.583589E+0	1.526704E+0	1.504573E+0	1.572626E+0	1.551694E+0	1.555395E+0	1.565789E+0	1.542491E+0	1.542357E+0	1.543121E+0	1.552608E+0	1.504109E+0	1.556875E+0	1.545910E+0	1.511812E+0	1.503606E+0	1.557245E+0	1.549481E+0	1.558647E+0	1.597385E+0	1.535987E+0	1.520066E+0	1.562208E+0	1.629363E+0
5.445290E+2	1.578647E+0	1.528187E+0	1.559372E+0	1.519848E+0	1.611569E+0	1.572274E+0	1.511687E+0	1.574080E+0	1.561374E+0	1.509288E+0	1.553054E+0	1.582286E+0	1.544464E+0	1.557192E+0	1.582282E+0	1.611326E+0	1.540956E+0	1.565681E+0	1.494823E+0	1.567180E+0	1.562401E+0	1.575633E+0	1.524797E+0	1.571388E+0	1.538996E+0	1.568409E+0	1.526687E+0	1.546241E+0	1.497102E+0	1.555220E+0	1.544893E+0	1.615668E+0	1.535615E+0	1.496220E+0	1.533800E+0	1.584148E+0	1.538160E+0	1.558506E+0	1.534218E+0	1.487255E+0	1.539023E+0	1.558660E+0	1.525737E+0	1.558144E+0	1.512536E+0	1.542369E+0	1.533863E+0	1.476613E+0	1.505607E+0	1.562941E+0	1.528777E+0	1.580969E+0	1.552029E+0	1.566144E+0	1.504595E+0	1.550950E+0	1.591895E+0	1.464690E+0	1.558821E+0	1.611641E+0	1.533286E+0	1.528213E+0	1.545505E+0	1.518918E+0	1.576925E+0	1.478255E+0	1.550239E+0	1.566586E+0	1.546281E+0	1.531961E+0	1.543207E+0	1.562856E+0	1.498347E+0	1.516004E+0	1.532683E+0	1.555717E+0	1.554117E+0	1.547973E+0	1.531125E+0	1.558419E+0	1.551138E+0	1.541629E+0	1.573008E+0	1.483185E+0	1.592073E+0	1.515584E+0	1.493295E+0	1.513035E+0	1.518181E+0	1.493991E+0	1.520232E+0	1.577039E+0	1.533890E+0	1.543712E+0	1.598934E+0	1.563883E+0	1.541903E+0	1.550875E+0	1.532615E+0	1.514043E+0	1.538571E+0	1.521064E+0	1.539863E+0	1.562749E+0	1.578237E+0	1.481636E+0	1.543168E+0	1.530537E+0	1.542266E+0	1.543522E+0	1.555841E+0	1.543728E+0	1.508472E+0	1.548707E+0	1.518713E+0	1.489253E+0	1.511056E+0	1.581860E+0	1.583889E+0	1.530723E+0	1.513797E+0	1.500397E+0	1.527159E+0	1.571116E+0	1.518082E+0	1.544018E+0	1.523359E+0	1.519219E+0	1.547767E+0	1.581847E+0	1.576744E+0	1.473745E+0	1.503014E+0	1.505744E+0	1.511385E+0	1.544016E+0	1.581476E+0	1.516080E+0	1.490698E+0	1.570049E+0	1.476415E+0	1.501792E+0	1.603779E+0	1.528717E+0	1.556985E+0	1.494433E+0	1.465941E+0	1.525367E+0	1.532294E+0	1.549721E+0	1.496943E+0	1.523534E+0	1.494315E+0	1.530082E+0	1.590791E+0	1.554982E+0	1.549226E+0	1.456785E+0	1.537310E+0	1.531295E+0	1.506526E+0	1.505797E+0	1.570319E+0	1.579538E+0	1.546721E+0	1.544673E+0	1.495317E+0	1.478103E+0	1.541877E+0	1.538206E+0
5.447660E+2	1.572363E+0	1.445967E+0	1.486443E+0	1.406395E+0	1.447550E+0	1.469401E+0	1.418915E+0	1.467293E+0	1.422588E+0	1.451742E+0	1.479770E+0	1.492328E+0	1.431836E+0	1.423711E+0	1.457344E+0	1.510654E+0	1.484423E+0	1.481880E+0	1.475605E+0	1.468031E+0	1.466994E+0	1.426467E+0	1.487731E+0	1.454664E+0	1.455020E+0	1.424866E+0	1.422104E+0	1.461967E+0	1.430171E+0	1.440642E+0	1.441793E+0	1.449935E+0	1.446671E+0	1.448150E+0	1.452211E+0	1.507377E+0	1.439251E+0	1.436858E+0	1.461450E+0	1.451276E+0	1.412958E+0	1.458616E+0	1.388102E+0	1.455736E+0	1.445038E+0	1.511821E+0	1.439125E+0	1.486942E+0	1.446919E+0	1.472889E+0	1.454501E+0	1.428258E+0	1.432940E+0	1.458860E+0	1.402899E+0	1.441219E+0	1.456943E+0	1.480022E+0	1.402830E+0	1.476018E+0	1.453546E+0	1.414784E+0	1.431267E+0	1.446081E+0	1.549656E+0	1.424191E+0	1.467418E+0	1.389788E+0	1.423770E+0	1.473805E+0	1.479552E+0	1.410369E+0	1.468187E+0	1.456400E+0	1.489588E+0	1.486340E+0	1.471982E+0	1.430511E+0	1.381500E+0	1.411257E+0	1.479161E+0	1.448739E+0	1.491408E+0	1.517268E+0	1.448429E+0	1.487564E+0	1.428366E+0	1.467299E+0	1.465984E+0	1.444423E+0	1.415988E+0	1.464671E+0	1.413653E+0	1.440885E+0	1.458807E+0	1.484680E+0	1.429249E+0	1.476623E+0	1.427758E+0	1.404735E+0	1.443339E+0	1.440296E+0	1.446324E+0	1.391162E+0	1.427528E+0	1.481815E+0	1.459112E+0	1.456087E+0	1.455025E+0	1.423922E+0	1.419624E+0	1.461867E+0	1.500227E+0	1.447589E+0	1.396798E+0	1.433304E+0	1.436206E+0	1.441845E+0	1.403986E+0	1.402179E+0	1.464012E+0	1.358209E+0	1.438836E+0	1.486713E+0	1.381457E+0	1.427829E+0	1.451947E+0	1.439277E+0	1.457101E+0	1.429821E+0	1.469842E+0	1.408245E+0	1.448147E+0	1.436223E+0	1.438453E+0	1.396497E+0	1.490848E+0	1.400906E+0	1.477296E+0	1.399399E+0	1.445823E+0	1.456372E+0	1.485730E+0	1.484630E+0	1.438027E+0	1.443128E+0	1.451470E+0	1.411970E+0	1.431619E+0	1.429188E+0	1.499369E+0	1.426755E+0	1.392173E+0	1.470974E+0	1.423392E+0	1.462102E+0	1.424654E+0	1.388242E+0	1.455701E+0	1.429994E+0	1.409794E+0	1.453834E+0	1.474318E+0	1.440978E+0	1.431677E+0	1.424077E+0	1.415094E+0	1.385374E+0	1.457717E+0	1.388835E+0
5.450200E+2	1.442649E+0	1.320753E+0	1.351357E+0	1.361565E+0	1.368424E+0	1.451826E+0	1.345190E+0	1.395855E+0	1.341670E+0	1.379199E+0	1.325425E+0	1.391587E+0	1.400762E+0	1.389285E+0	1.414860E+0	1.371879E+0	1.360632E+0	1.343738E+0	1.366842E+0	1.426848E+0	1.362875E+0	1.344719E+0	1.347554E+0	1.358298E+0	1.362453E+0	1.374269E+0	1.359927E+0	1.367080E+0	1.316804E+0	1.366781E+0	1.444928E+0	1.384544E+0	1.365949E+0	1.361597E+0	1.393563E+0	1.379423E+0	1.325369E+0	1.358503E+0	1.329029E+0	1.370070E+0	1.348984E+0	1.377314E+0	1.307741E+0	1.352887E+0	1.331317E+0	1.314124E+0	1.357409E+0	1.398516E+0	1.333030E+0	1.396779E+0	1.372115E+0	1.353745E+0	1.330582E+0	1.344924E+0	1.322398E+0	1.337702E+0	1.372222E+0	1.365772E+0	1.417818E+0	1.392259E+0	1.336515E+0	1.343981E+0	1.316030E+0	1.359557E+0	1.408934E+0	1.341097E+0	1.329408E+0	1.353481E+0	1.324665E+0	1.459557E+0	1.326705E+0	1.321136E+0	1.334577E+0	1.340658E+0	1.335893E+0	1.342557E+0	1.321049E+0	1.371505E+0	1.310451E+0	1.330594E+0	1.321056E+0	1.387693E+0	1.304956E+0	1.357038E+0	1.357175E+0	1.333382E+0	1.343187E+0	1.340828E+0	1.372450E+0	1.357783E+0	1.351722E+0	1.392571E+0	1.358716E+0	1.392092E+0	1.322307E+0	1.380196E+0	1.287061E+0	1.334207E+0	1.366740E+0	1.352948E+0	1.390256E+0	1.362679E+0	1.387795E+0	1.337789E+0	1.336301E+0	1.328041E+0	1.314637E+0	1.389716E+0	1.316477E+0	1.348543E+0	1.358701E+0	1.317032E+0	1.399438E+0	1.355216E+0	1.342159E+0	1.399589E+0	1.381330E+0	1.337822E+0	1.329458E+0	1.355443E+0	1.324293E+0	1.322098E+0	1.373535E+0	1.384872E+0	1.277776E+0	1.303643E+0	1.352132E+0	1.387780E+0	1.330951E+0	1.341164E+0	1.393601E+0	1.385009E+0	1.379522E+0	1.383355E+0	1.319903E+0	1.301168E+0	1.399491E+0	1.319333E+0	1.377484E+0	1.313711E+0	1.355613E+0	1.314887E+0	1.321742E+0	1.363010E+0	1.383910E+0	1.351287E+0	1.346582E+0	1.304700E+0	1.340397E+0	1.384963E+0	1.371836E+0	1.348709E+0	1.319737E+0	1.353663E+0	1.348540E+0	1.380780E+0	1.378249E+0	1.378953E+0	1.390817E+0	1.344015E+0	1.381974E+0	1.330942E+0	1.425812E+0	1.328841E+0	1.390636E+0	1.364558E+0	1.366118E+0	1.426537E+0	1.289198E+0	1.232712E+0
5.452740E+2	1.337927E+0	1.249602E+0	1.246361E+0	1.265179E+0	1.302972E+0	1.303121E+0	1.254947E+0	1.281720E+0	1.247641E+0	1.318522E+0	1.241934E+0	1.292920E+0	1.297226E+0	1.361350E+0	1.298700E+0	1.335640E+0	1.305697E+0	1.349167E+0	1.333402E+0	1.263817E+0	1.277244E+0	1.283009E+0	1.271900E+0	1.266997E+0	1.252279E+0	1.306044E+0	1.221070E+0	1.284905E+0	1.283287E+0	1.248128E+0	1.301573E+0	1.295959E+0	1.275083E+0	1.264830E+0	1.227743E+0	1.258806E+0	1.250367E+0	1.249125E+0	1.231239E+0	1.259883E+0	1.262779E+0	1.241791E+0	1.292473E+0	1.288672E+0	1.289549E+0	1.292113E+0	1.288254E+0	1.286960E+0	1.253084E+0	1.306413E+0	1.284861E+0	1.307989E+0	1.286499E+0	1.250870E+0	1.220266E+0	1.292718E+0	1.271981E+0	1.281151E+0	1.310726E+0	1.323437E+0	1.269161E+0	1.253048E+0	1.276205E+0	1.304751E+0	1.262172E+0	1.286243E+0	1.250640E+0	1.325099E+0	1.295667E+0	1.285921E+0	1.296585E+0	1.272433E+0	1.241097E+0	1.251844E+0	1.249493E+0	1.306985E+0	1.308299E+0	1.276363E+0	1.259910E+0	1.252202E+0	1.272875E+0	1.344191E+0	1.279832E+0	1.242426E+0	1.297570E+0	1.264712E+0	1.279898E+0	1.263356E+0	1.301114E+0	1.279698E+0	1.249899E+0	1.299849E+0	1.206379E+0	1.267430E+0	1.263822E+0	1.262447E+0	1.273139E+0	1.250688E+0	1.314431E+0	1.245067E+0	1.300986E+0	1.241848E+0	1.343130E+0	1.212295E+0	1.265824E+0	1.263993E+0	1.271330E+0	1.272572E+0	1.278602E+0	1.273466E+0	1.275699E+0	1.282048E+0	1.264596E+0	1.224340E+0	1.231106E+0	1.271519E+0	1.263953E+0	1.240677E+0	1.256937E+0	1.258650E+0	1.308763E+0	1.248480E+0	1.197814E+0	1.287252E+0	1.242772E+0	1.274806E+0	1.287545E+0	1.219688E+0	1.278847E+0	1.269446E+0	1.248201E+0	1.291777E+0	1.283840E+0	1.298400E+0	1.233831E+0	1.249729E+0	1.305752E+0	1.265849E+0	1.257817E+0	1.223816E+0	1.271366E+0	1.244026E+0	1.299010E+0	1.303410E+0	1.280024E+0	1.248035E+0	1.220420E+0	1.283933E+0	1.268019E+0	1.271252E+0	1.285865E+0	1.260649E+0	1.249884E+0	1.298569E+0	1.273650E+0	1.303543E+0	1.233278E+0	1.246133E+0	1.266799E+0	1.306895E+0	1.288929E+0	1.211899E+0	1.234137E+0	1.268312E+0	1.276115E+0	1.252981E+0	1.234631E+0	1.249806E+0	1.249044E+0	1.317080E+0
5.455290E+2	1.248802E+0	1.247904E+0	1.231982E+0	1.209387E+0	1.251669E+0	1.217784E+0	1.212928E+0	1.268413E+0	1.273004E+0	1.240967E+0	1.197440E+0	1.238625E+0	1.248965E+0	1.241861E+0	1.192501E+0	1.276699E+0	1.209845E+0	1.254117E+0	1.239468E+0	1.223015E+0	1.206583E+0	1.212928E+0	1.219860E+0	1.229676E+0	1.243662E+0	1.210967E+0	1.238971E+0	1.221480E+0	1.215126E+0	1.256803E+0	1.283606E+0	1.223941E+0	1.239640E+0	1.239955E+0	1.199206E+0	1.206992E+0	1.248429E+0	1.227097E+0	1.180622E+0	1.205151E+0	1.227742E+0	1.274222E+0	1.217011E+0	1.205727E+0	1.211573E+0	1.264778E+0	1.231755E+0	1.244610E+0	1.192293E+0	1.192671E+0	1.232514E+0	1.207507E+0	1.240156E+0	1.215246E+0	1.214608E+0	1.234180E+0	1.196721E+0	1.217296E+0	1.220147E+0	1.294385E+0	1.258849E+0	1.295681E+0	1.254602E+0	1.228780E+0	1.252578E+0	1.156817E+0	1.214828E+0	1.225922E+0	1.221842E+0	1.234064E+0	1.212123E+0	1.243368E+0	1.249505E+0	1.232905E+0	1.206174E+0	1.243853E+0	1.231925E+0	1.189482E+0	1.251543E+0	1.291680E+0	1.212626E+0	1.233608E+0	1.238124E+0	1.225111E+0	1.198557E+0	1.199803E+0	1.202949E+0	1.179199E+0	1.209688E+0	1.205786E+0	1.230259E+0	1.254218E+0	1.211063E+0	1.218115E+0	1.220568E+0	1.276772E+0	1.223512E+0	1.239973E+0	1.204024E+0	1.248930E+0	1.267001E+0	1.175924E+0	1.212902E+0	1.197921E+0	1.215493E+0	1.213516E+0	1.212412E+0	1.251158E+0	1.245287E+0	1.171037E+0	1.233965E+0	1.210585E+0	1.174487E+0	1.229168E+0	1.199355E+0	1.223421E+0	1.262792E+0	1.227962E+0	1.185756E+0	1.261722E+0	1.257098E+0	1.229893E+0	1.183420E+0	1.231761E+0	1.236274E+0	1.230891E+0	1.212416E+0	1.250304E+0	1.250166E+0	1.207600E+0	1.228631E+0	1.252048E+0	1.262096E+0	1.242845E+0	1.234287E+0	1.234376E+0	1.247676E+0	1.234590E+0	1.172630E+0	1.225072E+0	1.200713E+0	1.207516E+0	1.213192E+0	1.257169E+0	1.242918E+0	1.199208E+0	1.192049E+0	1.224949E+0	1.210618E+0	1.245590E+0	1.227667E+0	1.184174E+0	1.241036E+0	1.209710E+0	1.197146E+0	1.195526E+0	1.190720E+0	1.207042E+0	1.203900E+0	1.201072E+0	1.229275E+0	1.211680E+0	1.256580E+0	1.198398E+0	1.181052E+0	1.211849E+0	1.168180E+0	1.264149E+0	1.205124E+0	1.243353E+0
5.457990E+2	1.276018E+0	1.169451E+0	1.186598E+0	1.170572E+0	1.208826E+0	1.217275E+0	1.160523E+0	1.205176E+0	1.196573E+0	1.243446E+0	1.172940E+0	1.255891E+0	1.199534E+0	1.202438E+0	1.223205E+0	1.232387E+0	1.198794E+0	1.169781E+0	1.226026E+0	1.181404E+0	1.164649E+0	1.208540E+0	1.149349E+0	1.188814E+0	1.226248E+0	1.165491E+0	1.210289E+0	1.205401E+0	1.212542E+0	1.255705E+0	1.188701E+0	1.212210E+0	1.208120E+0	1.167732E+0	1.245386E+0	1.194556E+0	1.213915E+0	1.177554E+0	1.155551E+0	1.169836E+0	1.198729E+0	1.244900E+0	1.161439E+0	1.226619E+0	1.145504E+0	1.209376E+0	1.184204E+0	1.241065E+0	1.217448E+0	1.189865E+0	1.195913E+0	1.224082E+0	1.196938E+0	1.189680E+0	1.201320E+0	1.216737E+0	1.232829E+0	1.279490E+0	1.189066E+0	1.263839E+0	1.262048E+0	1.168209E+0	1.217444E+0	1.220257E+0	1.226886E+0	1.146777E+0	1.193974E+0	1.166141E+0	1.249717E+0	1.215775E+0	1.215165E+0	1.149517E+0	1.205302E+0	1.200427E+0	1.175348E+0	1.190649E+0	1.221707E+0	1.228489E+0	1.217468E+0	1.183051E+0	1.198722E+0	1.194798E+0	1.238327E+0	1.256787E+0	1.214584E+0	1.198832E+0	1.169580E+0	1.149515E+0	1.199900E+0	1.212630E+0	1.177217E+0	1.218984E+0	1.218369E+0	1.196555E+0	1.197902E+0	1.186478E+0	1.227195E+0	1.189392E+0	1.146113E+0	1.171310E+0	1.194284E+0	1.163633E+0	1.137401E+0	1.197422E+0	1.202776E+0	1.186228E+0	1.180803E+0	1.179744E+0	1.226038E+0	1.202981E+0	1.181497E+0	1.182560E+0	1.165550E+0	1.210631E+0	1.129767E+0	1.174176E+0	1.181411E+0	1.245072E+0	1.142234E+0	1.217796E+0	1.181120E+0	1.160628E+0	1.202348E+0	1.240848E+0	1.247948E+0	1.173224E+0	1.207178E+0	1.175798E+0	1.227342E+0	1.165499E+0	1.224554E+0	1.193526E+0	1.189704E+0	1.200874E+0	1.220732E+0	1.201116E+0	1.197843E+0	1.180631E+0	1.207393E+0	1.176344E+0	1.142490E+0	1.158469E+0	1.214330E+0	1.230517E+0	1.211946E+0	1.178080E+0	1.217498E+0	1.217866E+0	1.180782E+0	1.230980E+0	1.163451E+0	1.243607E+0	1.204171E+0	1.183492E+0	1.193260E+0	1.179825E+0	1.198261E+0	1.154004E+0	1.227175E+0	1.145334E+0	1.194560E+0	1.152664E+0	1.154082E+0	1.174313E+0	1.239770E+0	1.169240E+0	1.192436E+0	1.194117E+0	1.256495E+0	1.215985E+0
5.460060E+2	1.190619E+0	1.231448E+0	1.199469E+0	1.170506E+0	1.212972E+0	1.175680E+0	1.115671E+0	1.199922E+0	1.219877E+0	1.153461E+0	1.185238E+0	1.227808E+0	1.210624E+0	1.174057E+0	1.181523E+0	1.192043E+0	1.161256E+0	1.168198E+0	1.193267E+0	1.229621E+0	1.167889E+0	1.186261E+0	1.213242E+0	1.191314E+0	1.227158E+0	1.214561E+0	1.198837E+0	1.242049E+0	1.193131E+0	1.217597E+0	1.222271E+0	1.211439E+0	1.152495E+0	1.187297E+0	1.186052E+0	1.247743E+0	1.215203E+0	1.224196E+0	1.171353E+0	1.190461E+0	1.164016E+0	1.209926E+0	1.148481E+0	1.213302E+0	1.204609E+0	1.153339E+0	1.133498E+0	1.176320E+0	1.148408E+0	1.191838E+0	1.178558E+0	1.238875E+0	1.219537E+0	1.223033E+0	1.172135E+0	1.206211E+0	1.218330E+0	1.152589E+0	1.204258E+0	1.189181E+0	1.206533E+0	1.166098E+0	1.201909E+0	1.202832E+0	1.197087E+0	1.159024E+0	1.190688E+0	1.163648E+0	1.152306E+0	1.162051E+0	1.180104E+0	1.162567E+0	1.192244E+0	1.173851E+0	1.148579E+0	1.140078E+0	1.185408E+0	1.198507E+0	1.167969E+0	1.180034E+0	1.203773E+0	1.192404E+0	1.213535E+0	1.177864E+0	1.254699E+0	1.192365E+0	1.156771E+0	1.181337E+0	1.199277E+0	1.177203E+0	1.179958E+0	1.222560E+0	1.160835E+0	1.182008E+0	1.211194E+0	1.241849E+0	1.140294E+0	1.253616E+0	1.189243E+0	1.184605E+0	1.164887E+0	1.180305E+0	1.147659E+0	1.184539E+0	1.225278E+0	1.184629E+0	1.181906E+0	1.175032E+0	1.182755E+0	1.172480E+0	1.173745E+0	1.196363E+0	1.196977E+0	1.163157E+0	1.115019E+0	1.174753E+0	1.163905E+0	1.174509E+0	1.169142E+0	1.141991E+0	1.178135E+0	1.172265E+0	1.118550E+0	1.189539E+0	1.175995E+0	1.178330E+0	1.135107E+0	1.189175E+0	1.173401E+0	1.221261E+0	1.182340E+0	1.162360E+0	1.206841E+0	1.160046E+0	1.163745E+0	1.130528E+0	1.185944E+0	1.160828E+0	1.186417E+0	1.208559E+0	1.202286E+0	1.138278E+0	1.144275E+0	1.218042E+0	1.175833E+0	1.204563E+0	1.193643E+0	1.225724E+0	1.159453E+0	1.199199E+0	1.094824E+0	1.191707E+0	1.178266E+0	1.170820E+0	1.137901E+0	1.187873E+0	1.182579E+0	1.124696E+0	1.199194E+0	1.264906E+0	1.209117E+0	1.191743E+0	1.195428E+0	1.191114E+0	1.171022E+0	1.144716E+0	1.192792E+0	1.198878E+0	1.231851E+0	1.224672E+0
5.467710E+2	1.273072E+0	1.173746E+0	1.215373E+0	1.217351E+0	1.293113E+0	1.227872E+0	1.251377E+0	1.236194E+0	1.224758E+0	1.267635E+0	1.248798E+0	1.261204E+0	1.253644E+0	1.256223E+0	1.246814E+0	1.252902E+0	1.210648E+0	1.299181E+0	1.253829E+0	1.238951E+0	1.226741E+0	1.229358E+0	1.194066E+0	1.221535E+0	1.246031E+0	1.229479E+0	1.245695E+0	1.175087E+0	1.244482E+0	1.261661E+0	1.232456E+0	1.293284E+0	1.235979E+0	1.271628E+0	1.241135E+0	1.287659E+0	1.251175E+0	1.266762E+0	1.220571E+0	1.273510E+0	1.263975E+0	1.225034E+0	1.228455E+0	1.244900E+0	1.252578E+0	1.247020E+0	1.242766E+0	1.270901E+0	1.233347E+0	1.277697E+0	1.227595E+0	1.260132E+0	1.203867E+0	1.276425E+0	1.232532E+0	1.283107E+0	1.243894E+0	1.223292E+0	1.225651E+0	1.263133E+0	1.245367E+0	1.267301E+0	1.206877E+0	1.283380E+0	1.244495E+0	1.188826E+0	1.184638E+0	1.232945E+0	1.261831E+0	1.264930E+0	1.212018E+0	1.248985E+0	1.273689E+0	1.199314E+0	1.211892E+0	1.212462E+0	1.235715E+0	1.188733E+0	1.249695E+0	1.227532E+0	1.200776E+0	1.279957E+0	1.230769E+0	1.250230E+0	1.345848E+0	1.230699E+0	1.190832E+0	1.206183E+0	1.250219E+0	1.204812E+0	1.238605E+0	1.286078E+0	1.237534E+0	1.205446E+0	1.206168E+0	1.203393E+0	1.255646E+0	1.235235E+0	1.235282E+0	1.216470E+0	1.250273E+0	1.257449E+0	1.230870E+0	1.216554E+0	1.255974E+0	1.266177E+0	1.282870E+0	1.245179E+0	1.234275E+0	1.216415E+0	1.150645E+0	1.169596E+0	1.215401E+0	1.245968E+0	1.203482E+0	1.206869E+0	1.247117E+0	1.262481E+0	1.235319E+0	1.213572E+0	1.295565E+0	1.209240E+0	1.173923E+0	1.263837E+0	1.220254E+0	1.216908E+0	1.242779E+0	1.229211E+0	1.263242E+0	1.257943E+0	1.225227E+0	1.162625E+0	1.281282E+0	1.255689E+0	1.236557E+0	1.247709E+0	1.249233E+0	1.211744E+0	1.213902E+0	1.218713E+0	1.272252E+0	1.253425E+0	1.229707E+0	1.228569E+0	1.207103E+0	1.184646E+0	1.193548E+0	1.223430E+0	1.259622E+0	1.267135E+0	1.219780E+0	1.255034E+0	1.277076E+0	1.256209E+0	1.218582E+0	1.260802E+0	1.253071E+0	1.263294E+0	1.221868E+0	1.245513E+0	1.222067E+0	1.249028E+0	1.223735E+0	1.208144E+0	1.282763E+0	1.188339E+0	1.199316E+0	1.256174E+0	1.234436E+0	1.249325E+0
5.475120E+2	1.416775E+0	1.258926E+0	1.375260E+0	1.330677E+0	1.380784E+0	1.322988E+0	1.391430E+0	1.303126E+0	1.285357E+0	1.320572E+0	1.287379E+0	1.329374E+0	1.329671E+0	1.318862E+0	1.352402E+0	1.314604E+0	1.305727E+0	1.345558E+0	1.327884E+0	1.313071E+0	1.309121E+0	1.345027E+0	1.283696E+0	1.331520E+0	1.356131E+0	1.309093E+0	1.340991E+0	1.355329E+0	1.381493E+0	1.304853E+0	1.328339E+0	1.356917E+0	1.385040E+0	1.350928E+0	1.402075E+0	1.363496E+0	1.316869E+0	1.399116E+0	1.372663E+0	1.296352E+0	1.344596E+0	1.329580E+0	1.325682E+0	1.326838E+0	1.325792E+0	1.333579E+0	1.315313E+0	1.338289E+0	1.273237E+0	1.373287E+0	1.316954E+0	1.310976E+0	1.337369E+0	1.310174E+0	1.326014E+0	1.343587E+0	1.340801E+0	1.343720E+0	1.345975E+0	1.406025E+0	1.351036E+0	1.329918E+0	1.383051E+0	1.340631E+0	1.387471E+0	1.321443E+0	1.323548E+0	1.327223E+0	1.344653E+0	1.295383E+0	1.320444E+0	1.303584E+0	1.357097E+0	1.324931E+0	1.308799E+0	1.372684E+0	1.373496E+0	1.295424E+0	1.263194E+0	1.381295E+0	1.323232E+0	1.360546E+0	1.373268E+0	1.326556E+0	1.350698E+0	1.326858E+0	1.279997E+0	1.320656E+0	1.332803E+0	1.282838E+0	1.344556E+0	1.361868E+0	1.302229E+0	1.380972E+0	1.323257E+0	1.360900E+0	1.304485E+0	1.364788E+0	1.365019E+0	1.305972E+0	1.345430E+0	1.239449E+0	1.346847E+0	1.337788E+0	1.378803E+0	1.309244E+0	1.381944E+0	1.298084E+0	1.299865E+0	1.338480E+0	1.326924E+0	1.321740E+0	1.339932E+0	1.285298E+0	1.360085E+0	1.352624E+0	1.356210E+0	1.326555E+0	1.327045E+0	1.370675E+0	1.402533E+0	1.305871E+0	1.295127E+0	1.305136E+0	1.336444E+0	1.353007E+0	1.323734E+0	1.316375E+0	1.312678E+0	1.374344E+0	1.289426E+0	1.309293E+0	1.342698E+0	1.293805E+0	1.294458E+0	1.327881E+0	1.359235E+0	1.299174E+0	1.344036E+0	1.254635E+0	1.352568E+0	1.353603E+0	1.306897E+0	1.407202E+0	1.333544E+0	1.274495E+0	1.298858E+0	1.330648E+0	1.333968E+0	1.352721E+0	1.325367E+0	1.297270E+0	1.292546E+0	1.318956E+0	1.315028E+0	1.337563E+0	1.327440E+0	1.332336E+0	1.303427E+0	1.351874E+0	1.271393E+0	1.348892E+0	1.302512E+0	1.283728E+0	1.356919E+0	1.299738E+0	1.247034E+0	1.302406E+0	1.349194E+0	1.283428E+0
5.482600E+2	1.454291E+0	1.349317E+0	1.381947E+0	1.372698E+0	1.478859E+0	1.350397E+0	1.365558E+0	1.422819E+0	1.423543E+0	1.393841E+0	1.398659E+0	1.354863E+0	1.411095E+0	1.452799E+0	1.453738E+0	1.457293E+0	1.435028E+0	1.372215E+0	1.391432E+0	1.388135E+0	1.408994E+0	1.391170E+0	1.427810E+0	1.410266E+0	1.388712E+0	1.436765E+0	1.374290E+0	1.379747E+0	1.470729E+0	1.415124E+0	1.335532E+0	1.388204E+0	1.374649E+0	1.387270E+0	1.436669E+0	1.387761E+0	1.380281E+0	1.437299E+0	1.374345E+0	1.357665E+0	1.357714E+0	1.467934E+0	1.372520E+0	1.337321E+0	1.390876E+0	1.378520E+0	1.401602E+0	1.368756E+0	1.384592E+0	1.456660E+0	1.412107E+0	1.399219E+0	1.337966E+0	1.448235E+0	1.360104E+0	1.446252E+0	1.480686E+0	1.392729E+0	1.372605E+0	1.435425E+0	1.453905E+0	1.442662E+0	1.454339E+0	1.379850E+0	1.415605E+0	1.417994E+0	1.431154E+0	1.363985E+0	1.415368E+0	1.409211E+0	1.410856E+0	1.400034E+0	1.365148E+0	1.392724E+0	1.413320E+0	1.412576E+0	1.401201E+0	1.394521E+0	1.356461E+0	1.404429E+0	1.418079E+0	1.438739E+0	1.420936E+0	1.360085E+0	1.485829E+0	1.417667E+0	1.393356E+0	1.325931E+0	1.407103E+0	1.348408E+0	1.421794E+0	1.419964E+0	1.425297E+0	1.414383E+0	1.397553E+0	1.422899E+0	1.364525E+0	1.405387E+0	1.413903E+0	1.361427E+0	1.383682E+0	1.394399E+0	1.375649E+0	1.354862E+0	1.401383E+0	1.398463E+0	1.402520E+0	1.379409E+0	1.430232E+0	1.364292E+0	1.364093E+0	1.381396E+0	1.398953E+0	1.385460E+0	1.427389E+0	1.458903E+0	1.422313E+0	1.429204E+0	1.413760E+0	1.379232E+0	1.399495E+0	1.381403E+0	1.396838E+0	1.408760E+0	1.378949E+0	1.369549E+0	1.394268E+0	1.352446E+0	1.393581E+0	1.432042E+0	1.405849E+0	1.386710E+0	1.386667E+0	1.454873E+0	1.364398E+0	1.356880E+0	1.405771E+0	1.377538E+0	1.372369E+0	1.393012E+0	1.393720E+0	1.377360E+0	1.400269E+0	1.413000E+0	1.402562E+0	1.405850E+0	1.369479E+0	1.397477E+0	1.364611E+0	1.436719E+0	1.349234E+0	1.366610E+0	1.400885E+0	1.392262E+0	1.421848E+0	1.428861E+0	1.402180E+0	1.396995E+0	1.380825E+0	1.375353E+0	1.408000E+0	1.395414E+0	1.362881E+0	1.414864E+0	1.389387E+0	1.431262E+0	1.382920E+0	1.351158E+0	1.391197E+0	1.496402E+0
5.490490E+2	1.465666E+0	1.374088E+0	1.404240E+0	1.342139E+0	1.413470E+0	1.391942E+0	1.397218E+0	1.396699E+0	1.392840E+0	1.379188E+0	1.399715E+0	1.419762E+0	1.407478E+0	1.410941E+0	1.429682E+0	1.410435E+0	1.395100E+0	1.373777E+0	1.415526E+0	1.436053E+0	1.346982E+0	1.402454E+0	1.362570E+0	1.410276E+0	1.429316E+0	1.392572E+0	1.379638E+0	1.391471E+0	1.416864E+0	1.425845E+0	1.365952E+0	1.379570E+0	1.383019E+0	1.355255E+0	1.406506E+0	1.354448E+0	1.435057E+0	1.411868E+0	1.395292E+0	1.343189E+0	1.390942E+0	1.433462E+0	1.341439E+0	1.401994E+0	1.382540E+0	1.443733E+0	1.358938E+0	1.364160E+0	1.342064E+0	1.384412E+0	1.407425E+0	1.335382E+0	1.373643E+0	1.377120E+0	1.353725E+0	1.443314E+0	1.392217E+0	1.425722E+0	1.412877E+0	1.368673E+0	1.390898E+0	1.377077E+0	1.374821E+0	1.389651E+0	1.405451E+0	1.350224E+0	1.426441E+0	1.351421E+0	1.395195E+0	1.422074E+0	1.363626E+0	1.333998E+0	1.377560E+0	1.367987E+0	1.418894E+0	1.401837E+0	1.414060E+0	1.409995E+0	1.379319E+0	1.362237E+0	1.390992E+0	1.376487E+0	1.429084E+0	1.410850E+0	1.459461E+0	1.379230E+0	1.406656E+0	1.350492E+0	1.407918E+0	1.375515E+0	1.411346E+0	1.405573E+0	1.379072E+0	1.371671E+0	1.366347E+0	1.365561E+0	1.376833E+0	1.425290E+0	1.371676E+0	1.389747E+0	1.347980E+0	1.380527E+0	1.352682E+0	1.377868E+0	1.363051E+0	1.368274E+0	1.433066E+0	1.409333E+0	1.383002E+0	1.345797E+0	1.370851E+0	1.344098E+0	1.327632E+0	1.407612E+0	1.337224E+0	1.330801E+0	1.367879E+0	1.381220E+0	1.320471E+0	1.329494E+0	1.378877E+0	1.359105E+0	1.366443E+0	1.351123E+0	1.401404E+0	1.366504E+0	1.364445E+0	1.336926E+0	1.416065E+0	1.444758E+0	1.349740E+0	1.336966E+0	1.476346E+0	1.385105E+0	1.373472E+0	1.360489E+0	1.425665E+0	1.370277E+0	1.336755E+0	1.447116E+0	1.389735E+0	1.340357E+0	1.449250E+0	1.390881E+0	1.381462E+0	1.400744E+0	1.341062E+0	1.363392E+0	1.389245E+0	1.352207E+0	1.405139E+0	1.362256E+0	1.351005E+0	1.390604E+0	1.375971E+0	1.430771E+0	1.375339E+0	1.370818E+0	1.356535E+0	1.403221E+0	1.400838E+0	1.357453E+0	1.354785E+0	1.420938E+0	1.356392E+0	1.355444E+0	1.295860E+0	1.405358E+0	1.383370E+0	1.356121E+0
5.497850E+2	1.478411E+0	1.366928E+0	1.429934E+0	1.356801E+0	1.423419E+0	1.357565E+0	1.335808E+0	1.356531E+0	1.363339E+0	1.427319E+0	1.350422E+0	1.397342E+0	1.415924E+0	1.372189E+0	1.411635E+0	1.400920E+0	1.372544E+0	1.366160E+0	1.365609E+0	1.384876E+0	1.319492E+0	1.367892E+0	1.378371E+0	1.354079E+0	1.415419E+0	1.355866E+0	1.360894E+0	1.367223E+0	1.423931E+0	1.384299E+0	1.321742E+0	1.383965E+0	1.347714E+0	1.449901E+0	1.393747E+0	1.397111E+0	1.354565E+0	1.394146E+0	1.379982E+0	1.324125E+0	1.386619E+0	1.394024E+0	1.346577E+0	1.393107E+0	1.362634E+0	1.394446E+0	1.360644E+0	1.381747E+0	1.359484E+0	1.403278E+0	1.375869E+0	1.380867E+0	1.339519E+0	1.411504E+0	1.372507E+0	1.371771E+0	1.377106E+0	1.396610E+0	1.304947E+0	1.405550E+0	1.399064E+0	1.347200E+0	1.395860E+0	1.397165E+0	1.363344E+0	1.339331E+0	1.290421E+0	1.359884E+0	1.367302E+0	1.359598E+0	1.412018E+0	1.399941E+0	1.347406E+0	1.336924E+0	1.400086E+0	1.359855E+0	1.455061E+0	1.373301E+0	1.367266E+0	1.313872E+0	1.304306E+0	1.382862E+0	1.405468E+0	1.361986E+0	1.412467E+0	1.367244E+0	1.334878E+0	1.380007E+0	1.413039E+0	1.375959E+0	1.387549E+0	1.401107E+0	1.347825E+0	1.380780E+0	1.338277E+0	1.378047E+0	1.356844E+0	1.413843E+0	1.353158E+0	1.329603E+0	1.398399E+0	1.348590E+0	1.333426E+0	1.377744E+0	1.374552E+0	1.344820E+0	1.315518E+0	1.359979E+0	1.361061E+0	1.335261E+0	1.360144E+0	1.349736E+0	1.344100E+0	1.330598E+0	1.372286E+0	1.377430E+0	1.363980E+0	1.342796E+0	1.316159E+0	1.359935E+0	1.388075E+0	1.341052E+0	1.333122E+0	1.329920E+0	1.348537E+0	1.380896E+0	1.371186E+0	1.337253E+0	1.385077E+0	1.426817E+0	1.348755E+0	1.363522E+0	1.405458E+0	1.380379E+0	1.361721E+0	1.372136E+0	1.402387E+0	1.388156E+0	1.342961E+0	1.365769E+0	1.334897E+0	1.370104E+0	1.374671E+0	1.359284E+0	1.395213E+0	1.349534E+0	1.306069E+0	1.320224E+0	1.370630E+0	1.395397E+0	1.376388E+0	1.381383E+0	1.369742E+0	1.344410E+0	1.415149E+0	1.354225E+0	1.409209E+0	1.360432E+0	1.362554E+0	1.392100E+0	1.307674E+0	1.351199E+0	1.376192E+0	1.325045E+0	1.377219E+0	1.302605E+0	1.430018E+0	1.378966E+0	1.356906E+0	1.440097E+0
5.505170E+2	1.341522E+0	1.316180E+0	1.310429E+0	1.260159E+0	1.402507E+0	1.336783E+0	1.280988E+0	1.314193E+0	1.359223E+0	1.366153E+0	1.305012E+0	1.384472E+0	1.366614E+0	1.362765E+0	1.321240E+0	1.359775E+0	1.378071E+0	1.372125E+0	1.366333E+0	1.375188E+0	1.303289E+0	1.365422E+0	1.339137E+0	1.380838E+0	1.321359E+0	1.347937E+0	1.346661E+0	1.363263E+0	1.358356E+0	1.352102E+0	1.330094E+0	1.355410E+0	1.345562E+0	1.339507E+0	1.287520E+0	1.346243E+0	1.363816E+0	1.360765E+0	1.332249E+0	1.324618E+0	1.383923E+0	1.375228E+0	1.349877E+0	1.392593E+0	1.339699E+0	1.335826E+0	1.318631E+0	1.322308E+0	1.346852E+0	1.395100E+0	1.390644E+0	1.329963E+0	1.351941E+0	1.350977E+0	1.318135E+0	1.372351E+0	1.359191E+0	1.353244E+0	1.344815E+0	1.387388E+0	1.323432E+0	1.352279E+0	1.366088E+0	1.330905E+0	1.407203E+0	1.365450E+0	1.339715E+0	1.284523E+0	1.342976E+0	1.319685E+0	1.325681E+0	1.322200E+0	1.398638E+0	1.368823E+0	1.319830E+0	1.318034E+0	1.384341E+0	1.300232E+0	1.325713E+0	1.332383E+0	1.328255E+0	1.361776E+0	1.374422E+0	1.355205E+0	1.363652E+0	1.353583E+0	1.389364E+0	1.338653E+0	1.331654E+0	1.294878E+0	1.351703E+0	1.365782E+0	1.325937E+0	1.338765E+0	1.336611E+0	1.337311E+0	1.370163E+0	1.376045E+0	1.328494E+0	1.307670E+0	1.306707E+0	1.283077E+0	1.340660E+0	1.376341E+0	1.332753E+0	1.357985E+0	1.279841E+0	1.302868E+0	1.350687E+0	1.328342E+0	1.329034E+0	1.302498E+0	1.345624E+0	1.384909E+0	1.350297E+0	1.334159E+0	1.353158E+0	1.327747E+0	1.310005E+0	1.335839E+0	1.354429E+0	1.328708E+0	1.289893E+0	1.333360E+0	1.345885E+0	1.327095E+0	1.320964E+0	1.283403E+0	1.372616E+0	1.351503E+0	1.349066E+0	1.367136E+0	1.377190E+0	1.334948E+0	1.316936E+0	1.301183E+0	1.365846E+0	1.322277E+0	1.304034E+0	1.332206E+0	1.309783E+0	1.314989E+0	1.394605E+0	1.374826E+0	1.305626E+0	1.332565E+0	1.298810E+0	1.300187E+0	1.340480E+0	1.329340E+0	1.353456E+0	1.343419E+0	1.365812E+0	1.307728E+0	1.332228E+0	1.307228E+0	1.368094E+0	1.269248E+0	1.338326E+0	1.321730E+0	1.413588E+0	1.357431E+0	1.352381E+0	1.298346E+0	1.327795E+0	1.328431E+0	1.311304E+0	1.356910E+0	1.283691E+0	1.401425E+0
5.512620E+2	1.310691E+0	1.281281E+0	1.285261E+0	1.280753E+0	1.322040E+0	1.338199E+0	1.318682E+0	1.313257E+0	1.314337E+0	1.348527E+0	1.276881E+0	1.330018E+0	1.277449E+0	1.336396E+0	1.332155E+0	1.320656E+0	1.344119E+0	1.324474E+0	1.277481E+0	1.272628E+0	1.265564E+0	1.313932E+0	1.318187E+0	1.329602E+0	1.284858E+0	1.305173E+0	1.312596E+0	1.340395E+0	1.328921E+0	1.305543E+0	1.322181E+0	1.321663E+0	1.309659E+0	1.298074E+0	1.286192E+0	1.343979E+0	1.275170E+0	1.317712E+0	1.274224E+0	1.269170E+0	1.325276E+0	1.344148E+0	1.266980E+0	1.311152E+0	1.317585E+0	1.376455E+0	1.332783E+0	1.265586E+0	1.241612E+0	1.338076E+0	1.330018E+0	1.317350E+0	1.281656E+0	1.318168E+0	1.321063E+0	1.321164E+0	1.358728E+0	1.358102E+0	1.302171E+0	1.293362E+0	1.311523E+0	1.301828E+0	1.313919E+0	1.278436E+0	1.362101E+0	1.295039E+0	1.298104E+0	1.312785E+0	1.260914E+0	1.331213E+0	1.298798E+0	1.304795E+0	1.326821E+0	1.300240E+0	1.252000E+0	1.350351E+0	1.347025E+0	1.307175E+0	1.296853E+0	1.286901E+0	1.342422E+0	1.322135E+0	1.373503E+0	1.359000E+0	1.331322E+0	1.298682E+0	1.290003E+0	1.253141E+0	1.297397E+0	1.297799E+0	1.296041E+0	1.330183E+0	1.268468E+0	1.297823E+0	1.297309E+0	1.319342E+0	1.319080E+0	1.309245E+0	1.315938E+0	1.274559E+0	1.343719E+0	1.338017E+0	1.322714E+0	1.339872E+0	1.375131E+0	1.308976E+0	1.301813E+0	1.300699E+0	1.301807E+0	1.280443E+0	1.313221E+0	1.241804E+0	1.344637E+0	1.282758E+0	1.318663E+0	1.278699E+0	1.268877E+0	1.311748E+0	1.314037E+0	1.328040E+0	1.340719E+0	1.272883E+0	1.276964E+0	1.294840E+0	1.311236E+0	1.273652E+0	1.262732E+0	1.266281E+0	1.319147E+0	1.263110E+0	1.293162E+0	1.318415E+0	1.356179E+0	1.339877E+0	1.277961E+0	1.284938E+0	1.330634E+0	1.297870E+0	1.284076E+0	1.298750E+0	1.325452E+0	1.305028E+0	1.295057E+0	1.309412E+0	1.340065E+0	1.289804E+0	1.288999E+0	1.311500E+0	1.322155E+0	1.350831E+0	1.315772E+0	1.331741E+0	1.311773E+0	1.315694E+0	1.277663E+0	1.301704E+0	1.312207E+0	1.296001E+0	1.301382E+0	1.317719E+0	1.302599E+0	1.300236E+0	1.320397E+0	1.301911E+0	1.292278E+0	1.296362E+0	1.255978E+0	1.263864E+0	1.309995E+0	1.387104E+0
5.520260E+2	1.266611E+0	1.269236E+0	1.283963E+0	1.293761E+0	1.290642E+0	1.239597E+0	1.203273E+0	1.242563E+0	1.339602E+0	1.266720E+0	1.286532E+0	1.287567E+0	1.310939E+0	1.274415E+0	1.265882E+0	1.287699E+0	1.266357E+0	1.265039E+0	1.273285E+0	1.305199E+0	1.251888E+0	1.264647E+0	1.280043E+0	1.219563E+0	1.254309E+0	1.275065E+0	1.270078E+0	1.220833E+0	1.280818E+0	1.259576E+0	1.321179E+0	1.233349E+0	1.245006E+0	1.235875E+0	1.234586E+0	1.283182E+0	1.253857E+0	1.261390E+0	1.217557E+0	1.258298E+0	1.277892E+0	1.279510E+0	1.274339E+0	1.320459E+0	1.291821E+0	1.310568E+0	1.302634E+0	1.244454E+0	1.250747E+0	1.262838E+0	1.284130E+0	1.258711E+0	1.306915E+0	1.338138E+0	1.308595E+0	1.283130E+0	1.295507E+0	1.228972E+0	1.255327E+0	1.289875E+0	1.278060E+0	1.264092E+0	1.272634E+0	1.285712E+0	1.333571E+0	1.293156E+0	1.294903E+0	1.213636E+0	1.270549E+0	1.271953E+0	1.287065E+0	1.242185E+0	1.267085E+0	1.260074E+0	1.208060E+0	1.227896E+0	1.246585E+0	1.291542E+0	1.231293E+0	1.325638E+0	1.234703E+0	1.243601E+0	1.314623E+0	1.277982E+0	1.274571E+0	1.253865E+0	1.239246E+0	1.240454E+0	1.278158E+0	1.250876E+0	1.261042E+0	1.244234E+0	1.266910E+0	1.281461E+0	1.233398E+0	1.254150E+0	1.228661E+0	1.263778E+0	1.293743E+0	1.264192E+0	1.224261E+0	1.259775E+0	1.278778E+0	1.273273E+0	1.260822E+0	1.243467E+0	1.218155E+0	1.220113E+0	1.245458E+0	1.232701E+0	1.218273E+0	1.257839E+0	1.253518E+0	1.241713E+0	1.235739E+0	1.226021E+0	1.287041E+0	1.284262E+0	1.254678E+0	1.235230E+0	1.222750E+0	1.257490E+0	1.210521E+0	1.262875E+0	1.297931E+0	1.256338E+0	1.246049E+0	1.261850E+0	1.304180E+0	1.295459E+0	1.261467E+0	1.188725E+0	1.304318E+0	1.200965E+0	1.273669E+0	1.237523E+0	1.309397E+0	1.239502E+0	1.271927E+0	1.299347E+0	1.273865E+0	1.286285E+0	1.295497E+0	1.301674E+0	1.313585E+0	1.248191E+0	1.220452E+0	1.222071E+0	1.207019E+0	1.323250E+0	1.298574E+0	1.253513E+0	1.271945E+0	1.225991E+0	1.262358E+0	1.267245E+0	1.260830E+0	1.221024E+0	1.233965E+0	1.272845E+0	1.250098E+0	1.236604E+0	1.277357E+0	1.293534E+0	1.312703E+0	1.260565E+0	1.207556E+0	1.299150E+0	1.290921E+0	1.229384E+0
5.527650E+2	1.243711E+0	1.220516E+0	1.229273E+0	1.181993E+0	1.203681E+0	1.246371E+0	1.184059E+0	1.224837E+0	1.239351E+0	1.266988E+0	1.244319E+0	1.261976E+0	1.266948E+0	1.183135E+0	1.242474E+0	1.241214E+0	1.237400E+0	1.278864E+0	1.242280E+0	1.212509E+0	1.205343E+0	1.219372E+0	1.234698E+0	1.234124E+0	1.252917E+0	1.230601E+0	1.220831E+0	1.199992E+0	1.280266E+0	1.222611E+0	1.230131E+0	1.227040E+0	1.252605E+0	1.255426E+0	1.187904E+0	1.230221E+0	1.269577E+0	1.276331E+0	1.236191E+0	1.191364E+0	1.271052E+0	1.252013E+0	1.211649E+0	1.175814E+0	1.216424E+0	1.226504E+0	1.229730E+0	1.206177E+0	1.246478E+0	1.203836E+0	1.203708E+0	1.219519E+0	1.217912E+0	1.249361E+0	1.236826E+0	1.247900E+0	1.276188E+0	1.253133E+0	1.247394E+0	1.192826E+0	1.256894E+0	1.227880E+0	1.199559E+0	1.242254E+0	1.276940E+0	1.240653E+0	1.261800E+0	1.243519E+0	1.254136E+0	1.223783E+0	1.254965E+0	1.241392E+0	1.266313E+0	1.273951E+0	1.171512E+0	1.227347E+0	1.261167E+0	1.199807E+0	1.233805E+0	1.237821E+0	1.244575E+0	1.220100E+0	1.221509E+0	1.196332E+0	1.292295E+0	1.229247E+0	1.213162E+0	1.232367E+0	1.290260E+0	1.213489E+0	1.233911E+0	1.265699E+0	1.191816E+0	1.241535E+0	1.204618E+0	1.226556E+0	1.228165E+0	1.222118E+0	1.253897E+0	1.186409E+0	1.230476E+0	1.212356E+0	1.273883E+0	1.199710E+0	1.235056E+0	1.221202E+0	1.240239E+0	1.240336E+0	1.244390E+0	1.260085E+0	1.228796E+0	1.157170E+0	1.215178E+0	1.192188E+0	1.227728E+0	1.227825E+0	1.270065E+0	1.250396E+0	1.144571E+0	1.225015E+0	1.281077E+0	1.179636E+0	1.237387E+0	1.224057E+0	1.230260E+0	1.226159E+0	1.189913E+0	1.209445E+0	1.262469E+0	1.232619E+0	1.208814E+0	1.220021E+0	1.245139E+0	1.256750E+0	1.201483E+0	1.200563E+0	1.238795E+0	1.215219E+0	1.206519E+0	1.248830E+0	1.223556E+0	1.196059E+0	1.229979E+0	1.235837E+0	1.233205E+0	1.226954E+0	1.207460E+0	1.272388E+0	1.223745E+0	1.209806E+0	1.236871E+0	1.172460E+0	1.206601E+0	1.261515E+0	1.234868E+0	1.232198E+0	1.207255E+0	1.198815E+0	1.182183E+0	1.218974E+0	1.241997E+0	1.206661E+0	1.263654E+0	1.272820E+0	1.216731E+0	1.229252E+0	1.136249E+0	1.231164E+0	1.259883E+0	1.162255E+0
5.535440E+2	1.151587E+0	1.178223E+0	1.165975E+0	1.184890E+0	1.218375E+0	1.177711E+0	1.149834E+0	1.140799E+0	1.155320E+0	1.176486E+0	1.217574E+0	1.172807E+0	1.150436E+0	1.185419E+0	1.149944E+0	1.171970E+0	1.233172E+0	1.176255E+0	1.188696E+0	1.203341E+0	1.159808E+0	1.204288E+0	1.176387E+0	1.131767E+0	1.156518E+0	1.176649E+0	1.191784E+0	1.154114E+0	1.169875E+0	1.157460E+0	1.134941E+0	1.170667E+0	1.171821E+0	1.208190E+0	1.130976E+0	1.197926E+0	1.158637E+0	1.173999E+0	1.161714E+0	1.122105E+0	1.144451E+0	1.156542E+0	1.155775E+0	1.187996E+0	1.152797E+0	1.198172E+0	1.198197E+0	1.137991E+0	1.164897E+0	1.153416E+0	1.174355E+0	1.184014E+0	1.216010E+0	1.198086E+0	1.189081E+0	1.175111E+0	1.212009E+0	1.160875E+0	1.150066E+0	1.259869E+0	1.159618E+0	1.183761E+0	1.198308E+0	1.141830E+0	1.201153E+0	1.178126E+0	1.199857E+0	1.197799E+0	1.202190E+0	1.229814E+0	1.206419E+0	1.148016E+0	1.145875E+0	1.187569E+0	1.135240E+0	1.147013E+0	1.210444E+0	1.160080E+0	1.127408E+0	1.152768E+0	1.163137E+0	1.171386E+0	1.185823E+0	1.109014E+0	1.209269E+0	1.216766E+0	1.150093E+0	1.169004E+0	1.162874E+0	1.211314E+0	1.143503E+0	1.184096E+0	1.132320E+0	1.129479E+0	1.172296E+0	1.133067E+0	1.136354E+0	1.210149E+0	1.211466E+0	1.155706E+0	1.204695E+0	1.147957E+0	1.186022E+0	1.189607E+0	1.220804E+0	1.192880E+0	1.211946E+0	1.144433E+0	1.172954E+0	1.213598E+0	1.137195E+0	1.155257E+0	1.154513E+0	1.187408E+0	1.117873E+0	1.180363E+0	1.161765E+0	1.210986E+0	1.150149E+0	1.140987E+0	1.256221E+0	1.163720E+0	1.150156E+0	1.181590E+0	1.175138E+0	1.195042E+0	1.159064E+0	1.148745E+0	1.215782E+0	1.157966E+0	1.139612E+0	1.181318E+0	1.143640E+0	1.149588E+0	1.182908E+0	1.142423E+0	1.215118E+0	1.171298E+0	1.110343E+0	1.175470E+0	1.174315E+0	1.168714E+0	1.149490E+0	1.200996E+0	1.172732E+0	1.186726E+0	1.173581E+0	1.176842E+0	1.130925E+0	1.162953E+0	1.189385E+0	1.182465E+0	1.177520E+0	1.155724E+0	1.165897E+0	1.232677E+0	1.147367E+0	1.153275E+0	1.189605E+0	1.150134E+0	1.158224E+0	1.207619E+0	1.145162E+0	1.165781E+0	1.211726E+0	1.150313E+0	1.149758E+0	1.155303E+0	1.167631E+0	1.217873E+0
5.542580E+2	1.096519E+0	1.081891E+0	1.103290E+0	1.105586E+0	1.098145E+0	1.131918E+0	1.122688E+0	1.112796E+0	1.070156E+0	1.094121E+0	1.112960E+0	1.097076E+0	1.128305E+0	1.114483E+0	1.152334E+0	1.138722E+0	1.096807E+0	1.079072E+0	1.069482E+0	1.129860E+0	1.103993E+0	1.095707E+0	1.086984E+0	1.066986E+0	1.089245E+0	1.097199E+0	1.055257E+0	1.073751E+0	1.120365E+0	1.086377E+0	1.078069E+0	1.105770E+0	1.095167E+0	1.074057E+0	1.139011E+0	1.104412E+0	1.130641E+0	1.109757E+0	1.102426E+0	1.121389E+0	1.105111E+0	1.094411E+0	1.093176E+0	1.097728E+0	1.130521E+0	1.110327E+0	1.126833E+0	1.102954E+0	1.121410E+0	1.165853E+0	1.091173E+0	1.114067E+0	1.086811E+0	1.150798E+0	1.129599E+0	1.114600E+0	1.119825E+0	1.112750E+0	1.078098E+0	1.163308E+0	1.102127E+0	1.121614E+0	1.124592E+0	1.079243E+0	1.123259E+0	1.164792E+0	1.173998E+0	1.119247E+0	1.103573E+0	1.148659E+0	1.092567E+0	1.104043E+0	1.123799E+0	1.095173E+0	1.137241E+0	1.148486E+0	1.110442E+0	1.125778E+0	1.072211E+0	1.092486E+0	1.175320E+0	1.118540E+0	1.160755E+0	1.099922E+0	1.122292E+0	1.148226E+0	1.106975E+0	1.091770E+0	1.142766E+0	1.118672E+0	1.086236E+0	1.113887E+0	1.086568E+0	1.134819E+0	1.097740E+0	1.091189E+0	1.152831E+0	1.134637E+0	1.136969E+0	1.103499E+0	1.104534E+0	1.109305E+0	1.098681E+0	1.102375E+0	1.172376E+0	1.153992E+0	1.124939E+0	1.140898E+0	1.097658E+0	1.085934E+0	1.076840E+0	1.056666E+0	1.134594E+0	1.105907E+0	1.127239E+0	1.126394E+0	1.139364E+0	1.139280E+0	1.061790E+0	1.126496E+0	1.120728E+0	1.114077E+0	1.108340E+0	1.124871E+0	1.112834E+0	1.058699E+0	1.071315E+0	1.048977E+0	1.114730E+0	1.142712E+0	1.116830E+0	1.043355E+0	1.138841E+0	1.120371E+0	1.146740E+0	1.080513E+0	1.128287E+0	1.128954E+0	1.070122E+0	1.122233E+0	1.138968E+0	1.097202E+0	1.120949E+0	1.135267E+0	1.135342E+0	1.078926E+0	1.099508E+0	1.095666E+0	1.096675E+0	1.118954E+0	1.100984E+0	1.085082E+0	1.107009E+0	1.136179E+0	1.144193E+0	1.120927E+0	1.105711E+0	1.134256E+0	1.130636E+0	1.169531E+0	1.083065E+0	1.131594E+0	1.119272E+0	1.083402E+0	1.152612E+0	1.153745E+0	1.035191E+0	1.110238E+0	1.157918E+0	1.150298E+0
5.550190E+2	1.043708E+0	1.022134E+0	1.050360E+0	9.626933E-1	1.037051E+0	1.048699E+0	9.885874E-1	1.035842E+0	1.004179E+0	1.031855E+0	1.049279E+0	1.037891E+0	1.053402E+0	1.005384E+0	1.023646E+0	1.066761E+0	1.029030E+0	1.097134E+0	1.049706E+0	1.048638E+0	1.040578E+0	1.059268E+0	1.029807E+0	1.049927E+0	1.025344E+0	1.060153E+0	1.018742E+0	1.026085E+0	1.031191E+0	1.030642E+0	1.085000E+0	1.022111E+0	1.026711E+0	1.039409E+0	1.045480E+0	9.778720E-1	1.036378E+0	1.053291E+0	1.013553E+0	1.009750E+0	1.008749E+0	1.037655E+0	1.029348E+0	1.046464E+0	1.049196E+0	1.012281E+0	1.005743E+0	1.000082E+0	1.004269E+0	1.060314E+0	1.038606E+0	1.047467E+0	1.029332E+0	1.072370E+0	1.001782E+0	9.807291E-1	1.057201E+0	1.080327E+0	1.043112E+0	1.079651E+0	1.003433E+0	1.045863E+0	1.051925E+0	1.003257E+0	1.023091E+0	1.018173E+0	1.041976E+0	1.027924E+0	1.004496E+0	1.101808E+0	1.016390E+0	1.033540E+0	9.647742E-1	1.029804E+0	1.031527E+0	1.020630E+0	1.071064E+0	1.064567E+0	1.005430E+0	1.025521E+0	1.004275E+0	1.024529E+0	1.049771E+0	9.987874E-1	1.035447E+0	1.045452E+0	1.009659E+0	1.009296E+0	1.044280E+0	1.037956E+0	1.016682E+0	1.035753E+0	1.032922E+0	1.026941E+0	1.002025E+0	1.025245E+0	1.021503E+0	1.018145E+0	1.060236E+0	9.973706E-1	1.060906E+0	1.050410E+0	1.066158E+0	1.035322E+0	1.043751E+0	1.041813E+0	1.001652E+0	1.041176E+0	1.065889E+0	1.043931E+0	1.074342E+0	1.008077E+0	1.031278E+0	9.987305E-1	1.014499E+0	9.991850E-1	1.051514E+0	1.036899E+0	1.010662E+0	1.020017E+0	1.021983E+0	9.714780E-1	1.018906E+0	9.986673E-1	1.053010E+0	1.043111E+0	9.831147E-1	1.004984E+0	1.012203E+0	1.047479E+0	1.015660E+0	1.048544E+0	1.029318E+0	1.043920E+0	1.049579E+0	1.032514E+0	1.074392E+0	1.042666E+0	1.014819E+0	1.009762E+0	1.022412E+0	1.021461E+0	1.053691E+0	1.030150E+0	1.075636E+0	9.937866E-1	1.025610E+0	1.016604E+0	1.006144E+0	1.059976E+0	9.805689E-1	1.042985E+0	1.027217E+0	1.039606E+0	1.021921E+0	1.051667E+0	1.038290E+0	9.631871E-1	1.054759E+0	1.072261E+0	1.033107E+0	1.040643E+0	1.056944E+0	1.025800E+0	1.085379E+0	1.004892E+0	1.029937E+0	1.042536E+0	1.053266E+0	1.019438E+0
5.557660E+2	9.615896E-1	9.467280E-1	9.630160E-1	9.340522E-1	9.684599E-1	9.794992E-1	9.423416E-1	9.708002E-1	9.600057E-1	9.912535E-1	9.855656E-1	9.427104E-1	9.437161E-1	9.961730E-1	9.785384E-1	9.870895E-1	9.681059E-1	9.570850E-1	9.423157E-1	9.637362E-1	9.460706E-1	9.335257E-1	9.732682E-1	9.744264E-1	9.048465E-1	9.955660E-1	9.571685E-1	9.982824E-1	9.738418E-1	9.314086E-1	9.366468E-1	9.753990E-1	9.744078E-1	9.993522E-1	9.505846E-1	9.805080E-1	9.358467E-1	9.851822E-1	9.680669E-1	9.633349E-1	9.188625E-1	9.497191E-1	9.331391E-1	9.882615E-1	9.199112E-1	9.775126E-1	9.646055E-1	9.724823E-1	9.494384E-1	9.594057E-1	9.640071E-1	9.559372E-1	9.492991E-1	9.798369E-1	9.493019E-1	9.675098E-1	9.281853E-1	9.726873E-1	9.531046E-1	9.867857E-1	9.439678E-1	9.358349E-1	9.372751E-1	1.016662E+0	9.919653E-1	9.793904E-1	9.694099E-1	1.005030E+0	9.485611E-1	9.604948E-1	1.002202E+0	9.565763E-1	9.401602E-1	9.765823E-1	9.770816E-1	9.207578E-1	9.101697E-1	9.916115E-1	9.286566E-1	9.868280E-1	9.545229E-1	9.841843E-1	9.855463E-1	9.647868E-1	9.361710E-1	9.412681E-1	9.642364E-1	9.810403E-1	9.499847E-1	9.838080E-1	1.002157E+0	9.980189E-1	9.464531E-1	9.773983E-1	9.945906E-1	9.532289E-1	1.008327E+0	9.780210E-1	1.000774E+0	9.772302E-1	9.526865E-1	9.387172E-1	9.897319E-1	9.824910E-1	9.641749E-1	9.728883E-1	9.423840E-1	9.515354E-1	9.543750E-1	9.702642E-1	9.697914E-1	9.808154E-1	9.414953E-1	9.598711E-1	9.090861E-1	9.697016E-1	9.279887E-1	1.004998E+0	9.559641E-1	9.698794E-1	9.909524E-1	1.004653E+0	9.725709E-1	9.605227E-1	9.128339E-1	9.626451E-1	9.851366E-1	9.642608E-1	9.657414E-1	9.413704E-1	9.959556E-1	9.512811E-1	1.012821E+0	9.777313E-1	9.752326E-1	9.146662E-1	9.552119E-1	9.754394E-1	9.475854E-1	9.553007E-1	9.610053E-1	9.628639E-1	9.387423E-1	9.754291E-1	9.379337E-1	9.440159E-1	9.559288E-1	9.994170E-1	9.788557E-1	1.018723E+0	1.016969E+0	9.425521E-1	9.720903E-1	9.478793E-1	9.789345E-1	9.789209E-1	1.013286E+0	9.706383E-1	9.403658E-1	9.740893E-1	9.526399E-1	9.740544E-1	9.767037E-1	9.643302E-1	9.764808E-1	9.643049E-1	9.286669E-1	9.332931E-1	8.989815E-1	8.691426E-1
5.560240E+2	9.160684E-1	9.798037E-1	9.532815E-1	9.547371E-1	9.745377E-1	9.790536E-1	9.608986E-1	9.365610E-1	9.408560E-1	9.488048E-1	9.508091E-1	9.510958E-1	9.664344E-1	9.593478E-1	9.798072E-1	9.794335E-1	9.553854E-1	9.367102E-1	9.281040E-1	9.496660E-1	9.266983E-1	9.711164E-1	9.571922E-1	9.671025E-1	9.540079E-1	9.523518E-1	9.526333E-1	9.379731E-1	9.336496E-1	9.629870E-1	9.657932E-1	9.584544E-1	9.562733E-1	9.868029E-1	9.582340E-1	9.496160E-1	9.001619E-1	9.486475E-1	9.731369E-1	9.197906E-1	9.251070E-1	9.645171E-1	8.972436E-1	9.310470E-1	9.134147E-1	9.424260E-1	9.323737E-1	9.661770E-1	9.567958E-1	9.902899E-1	9.751412E-1	9.708740E-1	9.241448E-1	9.838056E-1	9.422156E-1	9.660645E-1	9.925905E-1	9.702265E-1	9.459249E-1	9.820535E-1	9.482883E-1	9.633946E-1	9.486609E-1	9.660428E-1	9.631520E-1	9.655793E-1	9.599368E-1	8.961358E-1	9.683339E-1	9.766677E-1	9.438893E-1	9.312767E-1	9.388386E-1	1.007911E+0	9.259998E-1	9.995586E-1	9.825780E-1	9.492419E-1	9.614955E-1	9.319204E-1	9.766300E-1	9.800716E-1	1.011652E+0	9.865916E-1	9.734797E-1	9.878496E-1	8.963996E-1	9.700447E-1	9.552094E-1	9.481959E-1	9.349415E-1	9.500810E-1	9.422269E-1	9.778709E-1	9.202656E-1	9.385577E-1	9.425614E-1	1.006831E+0	9.399603E-1	9.401473E-1	9.504064E-1	9.839671E-1	9.554637E-1	9.299671E-1	9.719859E-1	1.005639E+0	9.511404E-1	9.698031E-1	9.309682E-1	9.344088E-1	9.662209E-1	9.408376E-1	9.070535E-1	9.456251E-1	8.858512E-1	8.871527E-1	9.524783E-1	1.006333E+0	9.339433E-1	9.667782E-1	9.420771E-1	9.551435E-1	9.704427E-1	9.565776E-1	9.375543E-1	9.278533E-1	9.506250E-1	9.520935E-1	9.547889E-1	1.002794E+0	9.789332E-1	9.653419E-1	9.742245E-1	9.465567E-1	9.554552E-1	9.489692E-1	9.881078E-1	9.373980E-1	9.715215E-1	9.415530E-1	9.374106E-1	9.650137E-1	9.277670E-1	9.308978E-1	9.282591E-1	9.964819E-1	9.625422E-1	9.490240E-1	9.495132E-1	9.619602E-1	9.553019E-1	9.515049E-1	9.806390E-1	9.592726E-1	9.680686E-1	9.040017E-1	9.379377E-1	9.037176E-1	9.773417E-1	9.562182E-1	9.790316E-1	9.670883E-1	9.627868E-1	9.542154E-1	9.616656E-1	1.012627E+0	9.751311E-1	9.215747E-1	9.300589E-1	1.057427E+0
5.565200E+2	9.813549E-1	9.548466E-1	9.600142E-1	9.717369E-1	9.379836E-1	9.637440E-1	9.233078E-1	9.936082E-1	9.525833E-1	9.506547E-1	9.671373E-1	9.532221E-1	9.578416E-1	9.619854E-1	9.586170E-1	9.546376E-1	9.240235E-1	9.496722E-1	9.504355E-1	9.543958E-1	9.348318E-1	1.004434E+0	9.578602E-1	9.776416E-1	9.572524E-1	9.513579E-1	9.818225E-1	9.912209E-1	9.927879E-1	9.921547E-1	9.436098E-1	9.554548E-1	9.548216E-1	9.424329E-1	9.827274E-1	9.596698E-1	9.818289E-1	9.844706E-1	9.361909E-1	9.586899E-1	9.572784E-1	9.618122E-1	9.435832E-1	9.328236E-1	9.518533E-1	9.634000E-1	9.598143E-1	9.333591E-1	9.537057E-1	9.474027E-1	9.621219E-1	1.000212E+0	9.695070E-1	9.308508E-1	9.232438E-1	9.580739E-1	9.358060E-1	9.383908E-1	9.728941E-1	9.544690E-1	9.609364E-1	9.704395E-1	9.964869E-1	9.511006E-1	9.395382E-1	9.915126E-1	9.857493E-1	9.749215E-1	9.360202E-1	9.609199E-1	9.586348E-1	9.551808E-1	9.371394E-1	9.226818E-1	9.495162E-1	9.726374E-1	9.174278E-1	9.512375E-1	9.518952E-1	9.529606E-1	9.468267E-1	9.367275E-1	9.370354E-1	9.634820E-1	9.477970E-1	1.011849E+0	9.593139E-1	9.808688E-1	9.635473E-1	9.386744E-1	9.529778E-1	9.519546E-1	9.379050E-1	9.340543E-1	9.634268E-1	9.756486E-1	9.649327E-1	9.714418E-1	9.601876E-1	9.188306E-1	9.433532E-1	9.616720E-1	9.781722E-1	9.797677E-1	9.398342E-1	9.796014E-1	9.324988E-1	9.870221E-1	9.506832E-1	9.357500E-1	9.125070E-1	9.981912E-1	9.460356E-1	9.737639E-1	9.488614E-1	9.993025E-1	9.516459E-1	9.591916E-1	9.808606E-1	9.487719E-1	9.981043E-1	9.334183E-1	9.662377E-1	9.321473E-1	9.707752E-1	9.419823E-1	9.615258E-1	9.336637E-1	9.742613E-1	9.429952E-1	9.686845E-1	9.989019E-1	9.392813E-1	9.239315E-1	9.725901E-1	9.725124E-1	9.778909E-1	1.037070E+0	9.855677E-1	9.728161E-1	9.464297E-1	9.779190E-1	9.676730E-1	9.815621E-1	9.781005E-1	9.567335E-1	9.352781E-1	9.536109E-1	9.396616E-1	9.369675E-1	9.542913E-1	9.195902E-1	9.574314E-1	9.562527E-1	9.356196E-1	9.488775E-1	9.609506E-1	9.629116E-1	9.505562E-1	9.892287E-1	9.474254E-1	9.776716E-1	9.551619E-1	9.617629E-1	9.726961E-1	9.568727E-1	9.150020E-1	9.440445E-1	1.024300E+0	9.806681E-1
5.570560E+2	9.752480E-1	1.004321E+0	1.014903E+0	9.690364E-1	9.998989E-1	9.965717E-1	9.988226E-1	9.612701E-1	9.870073E-1	1.003522E+0	1.011578E+0	1.009724E+0	9.886766E-1	1.011942E+0	1.029730E+0	9.829695E-1	1.001253E+0	9.461055E-1	9.795894E-1	9.825313E-1	9.668312E-1	9.649022E-1	9.474926E-1	9.968739E-1	1.017986E+0	1.007370E+0	9.865845E-1	9.649914E-1	9.990724E-1	9.641033E-1	9.878996E-1	9.651850E-1	9.645973E-1	9.865844E-1	9.862177E-1	9.788291E-1	1.000751E+0	1.045685E+0	9.698539E-1	9.761697E-1	9.915769E-1	9.528536E-1	9.842938E-1	9.782977E-1	1.029930E+0	1.000753E+0	9.938640E-1	9.961093E-1	9.942464E-1	9.494067E-1	9.948004E-1	9.675941E-1	9.526140E-1	1.009917E+0	9.797629E-1	9.631506E-1	9.602634E-1	9.999347E-1	9.707101E-1	9.943232E-1	9.997379E-1	9.476782E-1	1.005686E+0	1.011525E+0	9.912386E-1	1.002501E+0	9.578021E-1	9.643889E-1	1.001887E+0	9.764002E-1	9.449024E-1	1.018692E+0	1.026204E+0	1.000621E+0	9.341374E-1	9.798736E-1	1.000974E+0	1.012451E+0	9.740368E-1	9.658194E-1	9.821856E-1	1.010636E+0	9.975057E-1	9.925025E-1	1.029846E+0	9.774661E-1	9.326205E-1	9.752213E-1	9.651322E-1	9.997253E-1	9.888812E-1	9.663448E-1	9.803348E-1	9.893880E-1	9.708868E-1	9.841849E-1	1.027741E+0	9.624215E-1	9.666424E-1	9.513611E-1	9.944160E-1	9.877679E-1	9.937008E-1	9.799599E-1	9.773120E-1	9.988273E-1	9.611592E-1	9.932244E-1	9.779775E-1	9.830360E-1	9.996403E-1	9.871689E-1	9.883629E-1	1.018097E+0	1.022401E+0	9.754338E-1	9.778887E-1	9.795668E-1	9.862181E-1	1.016444E+0	1.010011E+0	9.853402E-1	9.919598E-1	1.007165E+0	9.857581E-1	9.967134E-1	9.939215E-1	1.003946E+0	9.823409E-1	9.822017E-1	9.758288E-1	9.752483E-1	9.880370E-1	1.027633E+0	1.072198E+0	9.714941E-1	9.722184E-1	9.775127E-1	1.012081E+0	9.865111E-1	1.010148E+0	9.811196E-1	9.767706E-1	9.890031E-1	1.012294E+0	9.833132E-1	9.963120E-1	9.918718E-1	9.680519E-1	1.004506E+0	9.852124E-1	1.000279E+0	9.814432E-1	9.878457E-1	1.023872E+0	9.838454E-1	9.767479E-1	9.889476E-1	9.898474E-1	1.019945E+0	9.603510E-1	9.951041E-1	9.934854E-1	1.001509E+0	9.789894E-1	9.950227E-1	9.770892E-1	1.005357E+0	1.012327E+0	9.841040E-1
5.575360E+2	1.034465E+0	1.004485E+0	1.012126E+0	1.014120E+0	1.027006E+0	1.024496E+0	1.021391E+0	1.037570E+0	1.007955E+0	1.035050E+0	9.849709E-1	1.024235E+0	9.724243E-1	9.781057E-1	9.832294E-1	1.005187E+0	1.063067E+0	1.045086E+0	1.001935E+0	9.920158E-1	1.004666E+0	1.026750E+0	1.005910E+0	9.746191E-1	1.029196E+0	1.030070E+0	1.035228E+0	1.009221E+0	9.945011E-1	9.670508E-1	1.006911E+0	1.073308E+0	1.014999E+0	1.004305E+0	1.015619E+0	1.002071E+0	1.016314E+0	1.009230E+0	9.963865E-1	1.044485E+0	9.936528E-1	1.023887E+0	1.001543E+0	9.648596E-1	1.007281E+0	9.892606E-1	1.025019E+0	1.018702E+0	1.025506E+0	1.014519E+0	1.020081E+0	1.025808E+0	1.013539E+0	1.045944E+0	9.863172E-1	1.058843E+0	9.944274E-1	1.001465E+0	9.991296E-1	1.008573E+0	1.029740E+0	1.040048E+0	9.777383E-1	9.994916E-1	9.981477E-1	1.002000E+0	9.997515E-1	1.007228E+0	1.017239E+0	1.014002E+0	1.024322E+0	9.898922E-1	9.782993E-1	1.015310E+0	1.007260E+0	9.811037E-1	1.021681E+0	9.983797E-1	9.977973E-1	9.826352E-1	1.013675E+0	9.997107E-1	9.762302E-1	9.923831E-1	9.964399E-1	1.039458E+0	1.036657E+0	1.028343E+0	1.033017E+0	9.890177E-1	1.019623E+0	9.940220E-1	1.015099E+0	1.016929E+0	1.033620E+0	9.943993E-1	1.000180E+0	1.052936E+0	1.004421E+0	9.830565E-1	1.008727E+0	1.048620E+0	9.908600E-1	1.037110E+0	1.047761E+0	1.026717E+0	1.024450E+0	1.021147E+0	1.006216E+0	9.998827E-1	1.065767E+0	9.904833E-1	9.733665E-1	1.006724E+0	1.022491E+0	9.828248E-1	1.011183E+0	1.021343E+0	1.020078E+0	9.834369E-1	1.012017E+0	9.801090E-1	1.002353E+0	9.989433E-1	1.025017E+0	9.782210E-1	1.005240E+0	1.027678E+0	9.707839E-1	9.778371E-1	9.805909E-1	1.003048E+0	1.032234E+0	1.018688E+0	9.918058E-1	1.008482E+0	9.894594E-1	1.005329E+0	1.037475E+0	1.046216E+0	9.592715E-1	9.540600E-1	9.865008E-1	1.028750E+0	1.003658E+0	1.002770E+0	9.862159E-1	1.036824E+0	1.005220E+0	1.008552E+0	1.020501E+0	1.044737E+0	1.020361E+0	9.601457E-1	9.858039E-1	1.013205E+0	1.033231E+0	9.669175E-1	9.920248E-1	9.493226E-1	1.029392E+0	9.962052E-1	1.006997E+0	1.043500E+0	9.871624E-1	1.013526E+0	9.867017E-1	9.793761E-1	9.811154E-1	1.047795E+0
5.580170E+2	1.002328E+0	1.004390E+0	1.015151E+0	9.667988E-1	1.005654E+0	1.034403E+0	1.016594E+0	1.007779E+0	1.030599E+0	9.949246E-1	1.010635E+0	9.690700E-1	9.849173E-1	9.995284E-1	1.020138E+0	1.024621E+0	9.806737E-1	1.013180E+0	9.716462E-1	9.729794E-1	1.007691E+0	1.001515E+0	1.006077E+0	1.009591E+0	1.003679E+0	9.952441E-1	9.947720E-1	1.020034E+0	9.750039E-1	1.001445E+0	9.798712E-1	9.880879E-1	9.931444E-1	1.045377E+0	9.742993E-1	9.857772E-1	9.841242E-1	9.899511E-1	9.851151E-1	1.015681E+0	9.709712E-1	1.022051E+0	9.946044E-1	1.029262E+0	1.003473E+0	1.014068E+0	1.021059E+0	1.000733E+0	9.952488E-1	1.035757E+0	9.938061E-1	1.047667E+0	9.695837E-1	1.009385E+0	1.015254E+0	1.017276E+0	1.034287E+0	9.256080E-1	9.609804E-1	1.014042E+0	9.760989E-1	1.002065E+0	9.949327E-1	9.785610E-1	1.007665E+0	1.040349E+0	9.890360E-1	1.050379E+0	1.015010E+0	9.796317E-1	9.483487E-1	1.020684E+0	9.690811E-1	1.023215E+0	1.027800E+0	9.833668E-1	1.013604E+0	1.010645E+0	9.963279E-1	9.954023E-1	1.002473E+0	1.016554E+0	9.986102E-1	1.035211E+0	9.894502E-1	9.885021E-1	1.037067E+0	1.011874E+0	1.040613E+0	1.014877E+0	9.791180E-1	1.039270E+0	9.896178E-1	1.024784E+0	9.809525E-1	9.980715E-1	1.041568E+0	9.980194E-1	9.893836E-1	1.015879E+0	9.791335E-1	9.971338E-1	9.770199E-1	9.932783E-1	1.001504E+0	1.025508E+0	1.013860E+0	1.032105E+0	9.742698E-1	1.031202E+0	9.972272E-1	9.572706E-1	1.050060E+0	1.031916E+0	9.999256E-1	1.017886E+0	1.027701E+0	9.994168E-1	9.987888E-1	1.012967E+0	1.015799E+0	1.030570E+0	9.835610E-1	1.009829E+0	1.002751E+0	1.037070E+0	1.006723E+0	1.038559E+0	1.012439E+0	1.021055E+0	9.790565E-1	9.975313E-1	9.705583E-1	1.053611E+0	9.723006E-1	1.020653E+0	1.024949E+0	9.942927E-1	1.048293E+0	1.010766E+0	9.882938E-1	9.913227E-1	1.003917E+0	1.018643E+0	9.866100E-1	9.943741E-1	1.010341E+0	1.003364E+0	1.016469E+0	1.049996E+0	1.058923E+0	9.743691E-1	1.051637E+0	1.026020E+0	1.007506E+0	9.732538E-1	9.945810E-1	9.940324E-1	9.585340E-1	1.029096E+0	1.039213E+0	1.030715E+0	1.006517E+0	9.979068E-1	1.000135E+0	1.049389E+0	1.018787E+0	1.009584E+0	1.050403E+0	1.000114E+0
5.585160E+2	1.011549E+0	9.918887E-1	1.010883E+0	9.905676E-1	1.011347E+0	1.026937E+0	9.999303E-1	1.008976E+0	1.012457E+0	9.974681E-1	1.014078E+0	1.000750E+0	1.004626E+0	1.035807E+0	1.027448E+0	9.920627E-1	9.928544E-1	9.988246E-1	9.948425E-1	1.018372E+0	1.012338E+0	1.003061E+0	1.036819E+0	1.002105E+0	9.757727E-1	1.018236E+0	9.721368E-1	1.032525E+0	1.023320E+0	1.032500E+0	1.016538E+0	1.000573E+0	1.013002E+0	9.820746E-1	9.894351E-1	9.958393E-1	1.002678E+0	1.018319E+0	1.008223E+0	1.004957E+0	1.020448E+0	9.773196E-1	9.990694E-1	1.019742E+0	1.009539E+0	1.036392E+0	1.007990E+0	9.961283E-1	1.022814E+0	9.863483E-1	9.301591E-1	9.691787E-1	9.999756E-1	9.704500E-1	1.013037E+0	9.646756E-1	9.939389E-1	1.060968E+0	1.030493E+0	1.002692E+0	1.007063E+0	1.002154E+0	1.008166E+0	1.020695E+0	9.970621E-1	9.802732E-1	1.006637E+0	9.953468E-1	9.841098E-1	1.028065E+0	1.051299E+0	9.709026E-1	1.012521E+0	1.007666E+0	1.023630E+0	1.005296E+0	1.012837E+0	9.613021E-1	1.027167E+0	1.008057E+0	1.014925E+0	9.964224E-1	1.008693E+0	1.031022E+0	1.014283E+0	9.996291E-1	1.051332E+0	1.005325E+0	9.803615E-1	9.858693E-1	9.850196E-1	9.875285E-1	9.630126E-1	9.853719E-1	1.001389E+0	1.036416E+0	9.887249E-1	9.915491E-1	9.896876E-1	1.026882E+0	1.007306E+0	1.018972E+0	9.945385E-1	1.019416E+0	9.855149E-1	9.981029E-1	9.867465E-1	1.012294E+0	1.028291E+0	9.960004E-1	9.978429E-1	1.029878E+0	9.939282E-1	9.831075E-1	9.853454E-1	9.703878E-1	1.017612E+0	9.749795E-1	9.994292E-1	9.784746E-1	9.984057E-1	1.009787E+0	1.026650E+0	9.632703E-1	1.032459E+0	9.938414E-1	9.798499E-1	9.794154E-1	1.010374E+0	9.689918E-1	1.030025E+0	1.006259E+0	1.004653E+0	1.005328E+0	9.974631E-1	9.751731E-1	9.962404E-1	9.764234E-1	9.637101E-1	9.910033E-1	1.041465E+0	9.977314E-1	1.068170E+0	1.041980E+0	1.019612E+0	1.049116E+0	1.008534E+0	9.837666E-1	1.040719E+0	1.053474E+0	9.428424E-1	1.031346E+0	9.853730E-1	1.017709E+0	9.706326E-1	1.025409E+0	9.901375E-1	9.802846E-1	9.873424E-1	9.965737E-1	9.994190E-1	1.009138E+0	9.938382E-1	1.011968E+0	1.017382E+0	9.967828E-1	1.022776E+0	9.415448E-1	9.502327E-1	9.749713E-1
5.590160E+2	9.641002E-1	1.001675E+0	9.816837E-1	1.049871E+0	9.393312E-1	1.027404E+0	1.026739E+0	1.005692E+0	9.629314E-1	9.903443E-1	9.745149E-1	1.002106E+0	9.879554E-1	1.021340E+0	1.048105E+0	1.025127E+0	9.872398E-1	9.800844E-1	9.860007E-1	1.020842E+0	1.018141E+0	9.944102E-1	9.828400E-1	1.023339E+0	9.780749E-1	9.982572E-1	9.918354E-1	9.782154E-1	9.680103E-1	1.024605E+0	1.027730E+0	9.849900E-1	1.032020E+0	1.004552E+0	1.005571E+0	1.014841E+0	9.629157E-1	1.006231E+0	1.049293E+0	1.024960E+0	1.028507E+0	1.010625E+0	1.018507E+0	9.846822E-1	9.800935E-1	9.660944E-1	9.757357E-1	9.962037E-1	9.710578E-1	1.022757E+0	1.002269E+0	9.799882E-1	9.942421E-1	9.734544E-1	1.016979E+0	9.747658E-1	1.044986E+0	1.025000E+0	1.001434E+0	1.044189E+0	1.007413E+0	9.658719E-1	9.772405E-1	9.856423E-1	1.030514E+0	1.007657E+0	1.080860E+0	9.662963E-1	1.001187E+0	9.741177E-1	1.002804E+0	9.862292E-1	1.041832E+0	1.011696E+0	1.015920E+0	1.037259E+0	9.665113E-1	1.008756E+0	9.936643E-1	1.019999E+0	1.001359E+0	9.850893E-1	9.820565E-1	1.003579E+0	1.003303E+0	9.889490E-1	9.859327E-1	9.972775E-1	9.536138E-1	9.814465E-1	1.033113E+0	1.025787E+0	1.050978E+0	1.013667E+0	1.017280E+0	1.021055E+0	9.753076E-1	1.001298E+0	1.042422E+0	1.012826E+0	1.015481E+0	1.036000E+0	1.003433E+0	1.022275E+0	1.014517E+0	9.705354E-1	9.957804E-1	9.884717E-1	1.011489E+0	1.008141E+0	1.001768E+0	9.989880E-1	1.000212E+0	9.748370E-1	9.738302E-1	1.064934E+0	1.012188E+0	1.006748E+0	9.863726E-1	9.961225E-1	9.584188E-1	1.020401E+0	1.037514E+0	9.874754E-1	1.022528E+0	9.690245E-1	1.041263E+0	1.007134E+0	9.975996E-1	9.702985E-1	1.001559E+0	9.830479E-1	1.000619E+0	1.002422E+0	1.002600E+0	1.016205E+0	9.877330E-1	1.023126E+0	9.933158E-1	9.942827E-1	1.019832E+0	1.000893E+0	1.011876E+0	1.022418E+0	9.648644E-1	1.005635E+0	1.033187E+0	9.929428E-1	1.013127E+0	9.580835E-1	1.045708E+0	9.783329E-1	1.019187E+0	1.007170E+0	1.013509E+0	9.688511E-1	1.047529E+0	1.019632E+0	1.064149E+0	1.020290E+0	9.976565E-1	1.033806E+0	9.941139E-1	1.021759E+0	9.746633E-1	1.014598E+0	1.021992E+0	9.955521E-1	1.026678E+0	9.914025E-1
5.595110E+2	1.013260E+0	9.957660E-1	9.887573E-1	1.011526E+0	1.047080E+0	9.968538E-1	9.956534E-1	9.771295E-1	9.995399E-1	9.843807E-1	9.600737E-1	1.013405E+0	1.006731E+0	1.003594E+0	9.663584E-1	9.717960E-1	1.005790E+0	1.013135E+0	1.005901E+0	1.005591E+0	1.011418E+0	1.024123E+0	1.007109E+0	1.004167E+0	9.950661E-1	9.890963E-1	1.047290E+0	1.026699E+0	1.035907E+0	1.008221E+0	9.975194E-1	1.043329E+0	9.936342E-1	1.017326E+0	1.011744E+0	9.977800E-1	1.019917E+0	9.649109E-1	1.061461E+0	1.013292E+0	1.030664E+0	9.871622E-1	1.042691E+0	1.033321E+0	1.007045E+0	9.856095E-1	1.032902E+0	1.003881E+0	1.002350E+0	1.026660E+0	1.006398E+0	1.021303E+0	1.033621E+0	1.039696E+0	1.058440E+0	1.027685E+0	1.015444E+0	1.024841E+0	1.014085E+0	1.008293E+0	1.009107E+0	1.017533E+0	9.903384E-1	1.006431E+0	9.976231E-1	1.002033E+0	1.034807E+0	1.015230E+0	1.013596E+0	1.024184E+0	9.823029E-1	1.020565E+0	9.892390E-1	1.043060E+0	1.028295E+0	1.006904E+0	1.029604E+0	9.913383E-1	1.016237E+0	1.008174E+0	1.029487E+0	1.026671E+0	9.719685E-1	9.845135E-1	9.801133E-1	9.988169E-1	9.632968E-1	9.974615E-1	1.045166E+0	1.013117E+0	9.655301E-1	9.912375E-1	1.029786E+0	1.035656E+0	9.782810E-1	9.839183E-1	9.935440E-1	1.016040E+0	1.017091E+0	1.014375E+0	1.031443E+0	9.752743E-1	1.014023E+0	9.603576E-1	9.816188E-1	9.395249E-1	1.073632E+0	9.918283E-1	1.002309E+0	1.011809E+0	9.979793E-1	1.002799E+0	1.049061E+0	1.031978E+0	1.051055E+0	9.561034E-1	1.004469E+0	1.029533E+0	1.014655E+0	1.014551E+0	9.929510E-1	1.007642E+0	9.480571E-1	1.010107E+0	1.029167E+0	9.882502E-1	1.009073E+0	1.020670E+0	1.036526E+0	1.041091E+0	1.037564E+0	9.896821E-1	1.010987E+0	9.866269E-1	9.833972E-1	1.005817E+0	9.881832E-1	9.998622E-1	9.814553E-1	9.898384E-1	1.027728E+0	1.032991E+0	1.009499E+0	1.008192E+0	1.015210E+0	1.001894E+0	9.648985E-1	1.010213E+0	1.011759E+0	9.796356E-1	1.001271E+0	9.989847E-1	1.009490E+0	1.008444E+0	1.018916E+0	1.020244E+0	1.012653E+0	1.034445E+0	9.896502E-1	9.968677E-1	1.044307E+0	9.594561E-1	1.057113E+0	1.021015E+0	1.012637E+0	1.029938E+0	1.079464E+0	1.013959E+0	9.948061E-1	9.915219E-1
5.600520E+2	1.043811E+0	1.036013E+0	1.050561E+0	1.019306E+0	1.023377E+0	9.944680E-1	1.033416E+0	1.044052E+0	1.037428E+0	1.037423E+0	1.031750E+0	9.965476E-1	1.024519E+0	1.012611E+0	9.719677E-1	1.027672E+0	1.032775E+0	1.027692E+0	1.048283E+0	1.031722E+0	1.024105E+0	1.003014E+0	1.033030E+0	9.815016E-1	9.954899E-1	9.891125E-1	1.019703E+0	1.013227E+0	1.009793E+0	1.032880E+0	1.022626E+0	1.039326E+0	1.037681E+0	1.005119E+0	1.005552E+0	1.026204E+0	1.013905E+0	9.963389E-1	9.860651E-1	9.946732E-1	1.025161E+0	1.048177E+0	1.011960E+0	1.044775E+0	1.024367E+0	1.049552E+0	1.006690E+0	1.011436E+0	1.002023E+0	1.026004E+0	1.072678E+0	1.001492E+0	1.033119E+0	1.008708E+0	1.066893E+0	1.033996E+0	1.025621E+0	1.017377E+0	1.019085E+0	9.732787E-1	1.025798E+0	1.027552E+0	1.024046E+0	1.012652E+0	1.045818E+0	1.043999E+0	1.005848E+0	1.032387E+0	1.005814E+0	1.009869E+0	1.036877E+0	1.013338E+0	1.045764E+0	1.022038E+0	1.021439E+0	1.014449E+0	9.884906E-1	1.004789E+0	1.053271E+0	1.021454E+0	1.039153E+0	1.023778E+0	1.032489E+0	9.829334E-1	1.051494E+0	1.005276E+0	9.987540E-1	1.018027E+0	1.022473E+0	1.029053E+0	1.050949E+0	1.050102E+0	1.039832E+0	9.702729E-1	1.044840E+0	1.017096E+0	9.944656E-1	9.754534E-1	9.891277E-1	1.045563E+0	1.055453E+0	9.984197E-1	1.038275E+0	1.014577E+0	1.047642E+0	1.010896E+0	9.988390E-1	1.004593E+0	1.024136E+0	1.028490E+0	1.043507E+0	1.038848E+0	1.011421E+0	1.018704E+0	1.006117E+0	1.055821E+0	1.019592E+0	1.005438E+0	1.013649E+0	1.060937E+0	1.028848E+0	1.037387E+0	1.072184E+0	1.058433E+0	1.011210E+0	9.967703E-1	1.011334E+0	1.023796E+0	1.007781E+0	1.045802E+0	9.908886E-1	1.015178E+0	1.020448E+0	9.981621E-1	1.027338E+0	1.032783E+0	1.011904E+0	9.935896E-1	1.023381E+0	9.771116E-1	1.036977E+0	1.013403E+0	1.033156E+0	9.577112E-1	1.050344E+0	9.831422E-1	9.820914E-1	1.045286E+0	1.000943E+0	9.994640E-1	1.029643E+0	1.005580E+0	1.024518E+0	1.024611E+0	1.019104E+0	1.057300E+0	9.894140E-1	1.025353E+0	1.049098E+0	1.008432E+0	9.998214E-1	9.910947E-1	9.821325E-1	9.781326E-1	1.036790E+0	9.889311E-1	1.016289E+0	1.060679E+0	1.034668E+0	1.014793E+0
5.605150E+2	9.995701E-1	1.025198E+0	9.869124E-1	1.017221E+0	9.983939E-1	9.760578E-1	1.028469E+0	9.935247E-1	1.017093E+0	1.006223E+0	1.030667E+0	1.017955E+0	1.052792E+0	9.755992E-1	9.875491E-1	1.026437E+0	1.026576E+0	1.044405E+0	1.039051E+0	1.019362E+0	9.898984E-1	9.956620E-1	1.013578E+0	1.007315E+0	1.040737E+0	1.015633E+0	9.877201E-1	9.700026E-1	9.966873E-1	9.876059E-1	1.031435E+0	9.586635E-1	9.925612E-1	1.020827E+0	1.021768E+0	1.001415E+0	1.006295E+0	9.810317E-1	1.024698E+0	9.858590E-1	1.024075E+0	9.945627E-1	9.800227E-1	1.014724E+0	9.958090E-1	9.899538E-1	9.957718E-1	1.045604E+0	1.007260E+0	9.993943E-1	1.054637E+0	1.007394E+0	1.026818E+0	1.010199E+0	9.778299E-1	1.017485E+0	9.686741E-1	9.969305E-1	1.033546E+0	9.940300E-1	1.023643E+0	1.048139E+0	1.078279E+0	1.042914E+0	1.004786E+0	9.867825E-1	9.235555E-1	1.013767E+0	1.010760E+0	1.001882E+0	1.020025E+0	1.039035E+0	9.960689E-1	9.939373E-1	9.932115E-1	1.026506E+0	1.044975E+0	1.066441E+0	9.988634E-1	1.051151E+0	1.011221E+0	1.017944E+0	1.066356E+0	1.035111E+0	9.992823E-1	1.003445E+0	1.049999E+0	9.830005E-1	1.010684E+0	1.042701E+0	9.937800E-1	1.008621E+0	1.014688E+0	1.034964E+0	1.008393E+0	1.008637E+0	9.829667E-1	1.018127E+0	1.026713E+0	1.003570E+0	9.700151E-1	9.794222E-1	1.020589E+0	1.002345E+0	1.036689E+0	1.006561E+0	1.008837E+0	9.965324E-1	1.041982E+0	1.019683E+0	1.001273E+0	1.000966E+0	9.903360E-1	9.764749E-1	1.017064E+0	1.034898E+0	1.004303E+0	1.015450E+0	1.024235E+0	9.880490E-1	1.024821E+0	1.019712E+0	9.976966E-1	1.016420E+0	9.734271E-1	1.065585E+0	1.011265E+0	9.613092E-1	9.911597E-1	1.041497E+0	1.059914E+0	1.020855E+0	1.043638E+0	9.678762E-1	9.999940E-1	9.861481E-1	1.038266E+0	1.017653E+0	9.551936E-1	1.008449E+0	9.916096E-1	1.008565E+0	1.002226E+0	9.810913E-1	9.814245E-1	1.043419E+0	1.061655E+0	1.006396E+0	9.836778E-1	9.795785E-1	9.688644E-1	1.045926E+0	9.798298E-1	1.044414E+0	1.040532E+0	1.019920E+0	9.928807E-1	9.947122E-1	1.020318E+0	9.817981E-1	1.015906E+0	1.028971E+0	9.864832E-1	1.012467E+0	1.010430E+0	9.684791E-1	1.010980E+0	1.041311E+0	9.474280E-1	1.008995E+0
5.610180E+2	9.743145E-1	9.814174E-1	9.790076E-1	9.898160E-1	1.009927E+0	9.590658E-1	9.556768E-1	9.703980E-1	9.924066E-1	1.000009E+0	1.014595E+0	1.012986E+0	1.019517E+0	9.994881E-1	1.006858E+0	9.894903E-1	9.857485E-1	9.818151E-1	1.022316E+0	1.002189E+0	1.030079E+0	9.821268E-1	1.009284E+0	1.022846E+0	1.006746E+0	1.005622E+0	9.829078E-1	9.938640E-1	1.004917E+0	9.894343E-1	9.858604E-1	9.910832E-1	1.003540E+0	9.914025E-1	1.007067E+0	1.037574E+0	1.011271E+0	1.003832E+0	9.827143E-1	9.812343E-1	9.576648E-1	1.021551E+0	1.023726E+0	9.975139E-1	9.906105E-1	1.004916E+0	9.811547E-1	9.978436E-1	1.025789E+0	9.917520E-1	9.630508E-1	9.793621E-1	1.006981E+0	1.001396E+0	9.622435E-1	9.840497E-1	1.026552E+0	1.009485E+0	9.976427E-1	1.006110E+0	9.604623E-1	9.785188E-1	9.470860E-1	9.909875E-1	9.876070E-1	9.428932E-1	1.015952E+0	9.800559E-1	1.014378E+0	1.030929E+0	1.030485E+0	9.854822E-1	1.003852E+0	9.597750E-1	9.987912E-1	9.926047E-1	1.003895E+0	9.946610E-1	9.907398E-1	9.943467E-1	9.586938E-1	9.864675E-1	1.029056E+0	9.792614E-1	9.879920E-1	9.866098E-1	9.850274E-1	1.002601E+0	9.853920E-1	1.005518E+0	1.031008E+0	9.851334E-1	9.787467E-1	9.949129E-1	1.000931E+0	9.805733E-1	1.030569E+0	1.012714E+0	1.014324E+0	1.027656E+0	9.946710E-1	9.967182E-1	9.893896E-1	9.909131E-1	9.676066E-1	1.043726E+0	1.004198E+0	9.727808E-1	9.826465E-1	9.860055E-1	9.824871E-1	9.954074E-1	9.972166E-1	9.843984E-1	9.729091E-1	9.424082E-1	9.734178E-1	1.008335E+0	9.757147E-1	1.000246E+0	9.606248E-1	9.756334E-1	9.737871E-1	1.016210E+0	9.469070E-1	1.032542E+0	9.798053E-1	1.003829E+0	1.016734E+0	1.008231E+0	9.758885E-1	1.010249E+0	9.895440E-1	1.015720E+0	9.803131E-1	1.010732E+0	1.013156E+0	9.751425E-1	9.995265E-1	1.023006E+0	9.782450E-1	1.041995E+0	9.402122E-1	9.706482E-1	9.878825E-1	9.796026E-1	1.021486E+0	9.757250E-1	1.020371E+0	1.029743E+0	9.927434E-1	1.000856E+0	9.707305E-1	9.673884E-1	9.845045E-1	9.890949E-1	1.001875E+0	1.032764E+0	9.984805E-1	1.008447E+0	9.665085E-1	9.778391E-1	1.024158E+0	9.499798E-1	1.009115E+0	9.864596E-1	9.509184E-1	1.008592E+0	9.780413E-1	1.005635E+0
