Photon Energy (eV)	#1	#2	#3	#4	#5	#6	#7	#8	#9	#10	#11	#12	#13	#14	#15	#16	#17	#18	#19	#20	#21	#22	#23	#24	#25	#26	#27	#28	#29	#30	#31	#32	#33	#34	#35	#36	#37	#38	#39	#40	#41	#42	#43	#44	#45	#46	#47	#48	#49	#50	#51	#52	#53	#54	#55	#56	#57	#58	#59	#60	#61	#62	#63	#64	#65	#66	#67	#68	#69	#70	#71	#72	#73	#74	#75	#76	#77	#78	#79	#80	#81	#82	#83	#84	#85	#86	#87	#88	#89	#90	#91	#92	#93	#94	#95	#96	#97	#98	#99	#100	#101	#102	#103	#104	#105	#106	#107	#108	#109	#110	#111	#112	#113	#114	#115	#116	#117	#118	#119	#120	#121	#122	#123	#124	#125	#126	#127	#128	#129	#130	#131	#132	#133	#134	#135	#136	#137	#138	#139	#140	#141	#142	#143	#144	#145	#146	#147	#148	#149	#150	#151	#152	#153	#154	#155	#156	#157	#158	#159	#160	#161	#162	#163	#164	#165	#166	#167	#168	#169	#170	#171	
5.300220E+2	-2.882895E-3	-3.400140E-3	-5.012353E-3	-5.917092E-3	-1.538525E-2	3.023562E-3	-9.073403E-3	-7.553423E-3	-7.958631E-3	-1.071801E-2	-6.857570E-3	-1.102966E-3	-5.414159E-3	-6.792586E-5	-6.620175E-3	-5.049077E-3	-1.173522E-2	5.158628E-3	-1.802033E-4	-5.455131E-4	-1.989357E-3	-1.201624E-2	-1.333905E-3	-9.501915E-3	-6.912825E-3	-6.315538E-3	-6.216929E-3	-8.750937E-3	-4.726498E-3	-7.615393E-3	-1.494508E-3	-1.002935E-2	-1.032863E-2	-1.095797E-2	-7.835630E-3	-5.341545E-3	-8.977600E-3	-1.243082E-2	-1.856150E-3	-4.144145E-3	-7.874014E-3	-4.961706E-3	-6.265345E-3	-8.998119E-3	-5.325454E-3	-7.253689E-3	-4.469426E-3	-6.715952E-3	-9.471565E-3	-1.517224E-2	-4.899498E-3	-2.346648E-3	-6.624052E-3	-7.658801E-3	2.094579E-3	-2.415082E-3	-1.332546E-2	-1.404473E-2	-6.121854E-3	-4.647416E-3	-1.603050E-2	-1.105265E-2	-1.017006E-2	-5.814186E-3	-6.914052E-3	-3.560390E-3	-6.568743E-3	-6.000118E-3	-8.710844E-4	-4.618950E-3	-7.932429E-4	1.998892E-3	-4.554090E-3	-1.210824E-2	-1.192302E-2	-3.435054E-3	-9.122300E-3	3.642083E-3	-1.954793E-3	-6.393807E-3	-1.003696E-2	-1.064233E-2	-5.709250E-3	-4.862155E-3	-4.278034E-3	1.804874E-3	-5.246588E-3	-7.233649E-4	-1.914897E-3	-2.077923E-3	-9.722890E-3	5.843828E-4	-5.515715E-3	-1.155526E-2	-3.439772E-3	-1.552539E-2	-3.016512E-3	-9.500942E-3	-2.809426E-3	-3.718911E-3	-6.513301E-3	-9.432651E-3	-8.317322E-3	-5.225026E-3	2.587615E-3	-3.631378E-3	6.006232E-3	-1.740230E-2	-1.507461E-3	-5.599461E-3	-1.500949E-2	-2.768559E-3	-5.602635E-3	-2.022325E-3	-4.314485E-3	-1.006012E-2	-1.322282E-2	-8.212472E-3	-7.642504E-3	-1.018906E-2	-8.432697E-3	-1.750824E-3	-9.025468E-3	-8.325613E-4	-1.602669E-2	-2.592789E-3	-8.197820E-3	-4.265310E-3	-6.510698E-3	-8.243660E-3	-9.497622E-3	-7.851953E-3	-1.220332E-2	-1.752573E-3	7.109907E-3	-4.078328E-3	-7.524373E-3	-7.090985E-4	8.705993E-3	-8.131229E-3	-7.340831E-3	-1.437498E-2	-9.053031E-3	-3.353639E-3	-3.192772E-3	-7.274145E-3	-9.937999E-3	-1.110455E-2	-2.867014E-3	-3.497236E-3	-1.683669E-3	-1.278603E-2	-1.279435E-2	-2.989685E-4	-1.419625E-4	-1.115109E-2	-2.911897E-3	-1.440561E-2	-9.092186E-3	-7.122438E-3	-6.336927E-4	-1.083395E-2	-2.846785E-3	-1.336432E-2	-4.908670E-3	-8.498317E-3	-7.818346E-4	-3.867452E-3	-8.995407E-3	-1.235352E-3	-7.497017E-3
5.305130E+2	-3.777040E-3	-3.713126E-3	-6.304542E-5	1.189602E-4	-4.931431E-3	-1.181093E-2	-5.739180E-3	-9.547665E-3	-2.592611E-3	-5.022618E-3	-3.240739E-3	-3.918186E-3	-4.830147E-3	-5.800486E-3	-1.040690E-2	-7.106069E-3	-6.176827E-3	-1.061153E-2	-2.732127E-3	-2.477690E-3	1.553050E-3	-1.473494E-3	-6.077832E-3	-4.137064E-3	-2.431915E-4	-6.608410E-3	-1.104539E-2	-6.973174E-3	-8.543316E-3	-2.741273E-3	-5.710658E-3	2.102341E-3	-1.351955E-2	-2.933105E-3	-7.660430E-3	-8.205823E-3	-6.302593E-3	-9.455768E-4	-6.587678E-3	-3.260202E-3	-4.797148E-3	-9.414733E-3	-6.031791E-3	-5.575429E-3	-4.071246E-3	-3.974968E-3	-1.122047E-3	-1.394218E-2	-8.620992E-3	-3.344143E-3	-4.685256E-3	-6.783504E-3	-1.581679E-3	-1.318845E-3	-2.517088E-3	-8.790887E-3	2.441586E-3	3.231854E-3	-4.205608E-4	-9.182283E-4	-5.341303E-4	-3.528906E-3	-3.929038E-3	-7.574487E-3	-8.943617E-3	1.430120E-3	-2.953437E-3	-9.747617E-3	-3.742224E-3	-4.945265E-3	-9.482858E-3	-1.039493E-2	-1.176447E-2	-7.868148E-3	-1.044566E-2	-1.622022E-2	-5.070271E-3	-6.917277E-3	-1.191429E-2	-1.966448E-3	-6.897847E-3	-4.505527E-3	-8.136612E-3	-2.702383E-3	2.503254E-4	-7.956373E-3	-3.906184E-4	-1.063895E-3	-3.228609E-3	-4.580978E-3	-2.684488E-3	-2.709054E-3	-7.125538E-3	-4.554820E-3	4.547852E-3	-1.006952E-3	-5.060313E-3	2.489156E-3	2.922123E-4	-9.648372E-4	-8.497328E-3	-3.686672E-3	-1.999235E-3	-7.093798E-3	-3.252499E-3	-8.620654E-3	-1.842259E-2	8.259255E-4	-3.351317E-3	-4.247895E-3	-1.181754E-3	-5.157826E-3	-4.702632E-3	-1.035121E-2	-1.035027E-2	-8.127799E-3	3.137375E-3	-1.995321E-3	-4.479559E-3	-7.169460E-3	-2.863886E-3	-4.255091E-3	-8.659212E-3	-8.734199E-3	-8.293285E-3	-8.694117E-3	-9.424044E-3	-9.554292E-3	2.177618E-3	-7.418730E-3	-3.085013E-3	-4.391681E-3	-1.108947E-3	-4.815475E-3	-2.359444E-3	-3.436931E-3	-3.684096E-3	-2.497002E-3	-6.214689E-4	-1.067846E-2	-7.605533E-3	-8.703626E-3	1.655818E-3	-5.570087E-3	-6.619162E-3	2.821102E-3	-5.061488E-3	-9.262805E-3	-3.679333E-3	-3.879332E-3	-4.212151E-3	-5.387398E-3	4.426204E-3	-1.069255E-2	-6.636794E-3	-6.229727E-3	-5.701640E-3	-4.060452E-3	-1.045200E-2	-4.447933E-3	-1.185763E-2	-8.971398E-3	-8.030952E-3	-6.251041E-3	2.193955E-3	-2.736469E-3	-4.963566E-3	-8.825195E-3	-5.805790E-3	3.568528E-3	1.250913E-2
5.310150E+2	8.838119E-4	-9.253384E-4	-9.187749E-3	-1.164050E-3	8.211896E-4	1.027201E-2	-2.217253E-3	-9.903510E-4	-5.812274E-3	5.411157E-3	-2.257885E-3	-3.505695E-3	-3.962218E-3	-9.460945E-3	-8.535535E-3	-6.271196E-3	7.511587E-3	-4.717537E-3	-3.993200E-3	-4.791073E-3	-4.181783E-4	-2.009456E-3	-3.683378E-3	1.567599E-3	4.512228E-3	-3.295960E-3	-5.117058E-3	8.649122E-3	-6.854612E-3	-3.863002E-3	-3.079991E-4	5.597605E-3	1.886309E-3	2.447550E-3	-1.864122E-3	4.045672E-3	-1.871246E-3	3.528374E-3	-3.231063E-3	-3.214221E-3	-3.811409E-3	-1.240350E-3	-5.040021E-3	-1.977516E-3	-1.455980E-3	-3.552743E-3	-7.033306E-3	-4.868037E-3	-3.478725E-3	1.999732E-3	-3.847219E-4	-3.798558E-3	-4.557203E-3	-2.934378E-3	-8.745482E-3	-4.041057E-3	1.017309E-3	-8.663550E-3	-5.431207E-4	1.094552E-4	-7.318093E-3	1.876049E-4	-2.488668E-3	4.048090E-3	-1.069332E-3	-6.763018E-3	-8.204268E-3	9.360923E-4	-1.780306E-3	-4.539709E-3	-4.657535E-3	-3.994132E-5	2.977803E-3	-1.119109E-3	2.750423E-4	2.347556E-3	1.190103E-3	-7.939560E-3	5.356780E-3	-2.049772E-3	-3.005906E-3	6.281798E-4	3.437940E-3	-4.269047E-3	8.979367E-3	-1.102150E-3	-4.205185E-3	-1.604859E-4	6.592213E-4	-3.650084E-3	-2.224001E-3	-5.191255E-3	-7.608693E-3	-5.016013E-3	3.778029E-4	-3.104148E-3	3.427421E-3	-6.199363E-3	-4.401160E-3	-5.808448E-3	-2.773844E-3	1.043633E-3	-4.092824E-3	-4.077374E-3	-5.034613E-3	-1.629296E-4	9.365120E-4	-5.023160E-4	-6.503065E-3	-2.094181E-3	-9.281814E-3	-1.635070E-4	-1.178996E-3	2.041287E-3	3.704799E-3	-2.109190E-3	-3.949968E-3	-6.121504E-3	3.330705E-3	-4.355614E-3	-9.321519E-3	-9.983965E-3	-1.897766E-3	-4.828180E-3	4.906233E-3	-4.729547E-3	-3.214766E-3	3.782692E-4	-1.092664E-2	3.058484E-3	-5.199349E-3	-1.374934E-2	-5.872268E-3	-7.033769E-3	-6.961339E-3	-3.962309E-3	-7.935806E-3	-4.515086E-3	-5.127771E-3	1.565399E-3	1.091342E-4	9.763945E-3	-1.057802E-2	-1.082334E-2	-9.818085E-3	-8.342449E-3	7.987159E-3	-8.880554E-3	-8.106588E-3	1.422834E-3	5.618222E-3	-2.648520E-3	1.102048E-3	-4.185540E-3	-4.456040E-3	-2.845416E-3	-8.641485E-3	-9.830574E-4	-1.192057E-3	-4.505947E-3	1.179674E-3	4.129963E-3	1.665770E-3	1.599833E-3	-5.776255E-3	4.023034E-3	-3.971381E-3	-8.430034E-3	-9.860735E-4	-5.696805E-4	-9.561471E-3
5.315130E+2	2.312801E-3	4.342105E-3	1.378010E-3	-2.563611E-3	-6.315606E-3	-3.527713E-3	3.942722E-3	-1.069444E-3	-3.411053E-3	-3.787066E-3	2.664809E-3	-1.661121E-4	2.762210E-3	-2.326448E-3	8.303254E-4	1.121132E-3	1.829719E-5	6.300159E-4	-9.245941E-3	-3.883231E-3	-2.017660E-3	-7.649109E-3	4.581352E-3	-1.133062E-3	-4.372012E-3	-1.492206E-3	9.514011E-3	-7.855471E-3	-1.190983E-3	-4.041766E-3	-1.595889E-3	-3.566007E-3	7.174478E-3	-8.597927E-3	5.925762E-3	-2.891467E-3	6.576364E-3	-6.030261E-3	1.576746E-3	4.490630E-3	-6.087731E-4	4.873811E-3	-6.227399E-4	-2.181277E-3	8.165779E-6	1.475131E-3	3.334549E-3	1.632926E-3	2.845541E-3	-2.514212E-3	2.769439E-3	3.290889E-3	2.774717E-3	1.565980E-3	7.851962E-3	2.008627E-3	-1.972606E-3	2.525278E-3	-4.092844E-3	-5.436917E-3	2.163889E-3	7.636244E-3	2.966551E-3	3.944757E-3	-7.323275E-4	4.443472E-3	-2.719907E-3	1.682311E-4	4.692789E-3	2.230502E-3	3.648505E-3	-3.601355E-3	-3.189436E-3	-7.698639E-4	-5.772319E-3	2.157849E-3	1.568619E-3	-1.766833E-3	1.092403E-2	-9.205669E-3	-2.657055E-3	1.020052E-3	5.979383E-4	-6.465418E-3	-4.945988E-3	-3.216127E-3	3.279009E-3	-2.516240E-3	-1.488961E-3	-3.288382E-3	-1.304492E-3	2.864368E-3	-1.465133E-3	1.267604E-2	-3.965593E-3	-2.751286E-3	1.386104E-3	-4.800661E-3	-2.450764E-3	-3.388429E-3	7.760811E-4	3.463378E-4	-9.512382E-3	3.583509E-3	-5.834705E-3	-1.956337E-3	1.295068E-3	-5.571530E-3	1.560508E-3	2.103814E-3	-3.290460E-4	-1.728187E-3	-3.225900E-3	1.204102E-3	1.582308E-2	1.073146E-2	3.137690E-3	8.509201E-3	-2.214972E-3	-2.535602E-3	4.293265E-3	4.173939E-3	-2.093707E-3	-2.094867E-3	-1.797461E-3	4.778703E-4	3.123578E-4	1.277399E-3	-4.863181E-3	2.936129E-3	2.976232E-3	1.342704E-2	1.251979E-3	3.216908E-3	-2.504555E-3	1.128397E-3	1.438981E-3	-4.152633E-3	-1.160817E-2	7.085812E-3	-4.134239E-3	-2.004089E-3	6.793102E-3	6.269799E-3	-6.004441E-4	4.462679E-6	-7.811884E-4	1.083829E-2	7.968575E-3	-4.795951E-3	-8.216516E-5	9.605060E-4	-1.351108E-2	-2.333913E-3	-2.003465E-3	5.769197E-3	-3.829261E-3	-2.554746E-3	1.267761E-2	-3.675416E-3	-8.138449E-5	-4.379710E-3	-3.465816E-3	6.599195E-3	-2.381575E-3	-1.645242E-3	-6.426464E-3	-4.376046E-4	-1.125557E-2	-3.695563E-3	-6.911549E-3
5.320220E+2	4.916663E-3	-2.378540E-3	1.327485E-3	3.871644E-3	7.259272E-3	-9.164733E-3	-1.364408E-3	-1.966396E-3	1.431434E-2	3.755386E-3	-3.088552E-3	2.805929E-3	1.364225E-3	-1.447461E-3	1.134329E-2	-4.213880E-3	4.427970E-3	5.753564E-4	5.826404E-3	4.195707E-4	2.410014E-3	1.180520E-2	-3.833647E-3	-7.200744E-4	-1.684573E-3	9.325210E-3	1.302327E-3	9.558697E-3	4.146268E-3	6.995514E-3	-2.156525E-3	2.055872E-3	-6.954171E-4	1.798072E-3	5.024504E-4	6.962732E-3	-5.426934E-4	6.911144E-3	6.510761E-3	8.134577E-3	9.671948E-3	4.302689E-3	1.158109E-2	1.543289E-3	4.854215E-3	1.079839E-2	4.360098E-3	1.081620E-2	1.173260E-2	7.273055E-3	7.217562E-3	1.326227E-4	3.223683E-3	8.789531E-3	-1.286814E-3	-6.789509E-3	8.625150E-4	7.905943E-3	-5.243911E-3	-2.533237E-3	7.444961E-3	3.824608E-3	7.027463E-3	-3.968676E-3	5.606612E-3	3.839920E-3	1.506296E-2	9.312875E-3	-1.973157E-3	-2.772489E-3	1.620591E-3	-5.728753E-4	3.319521E-3	1.090719E-2	1.390474E-2	2.098067E-3	1.524909E-3	5.487190E-3	-2.018153E-3	2.002734E-3	1.419225E-2	5.676551E-3	5.386747E-3	8.615532E-3	-7.206365E-3	-4.257406E-3	-1.533386E-3	-4.361566E-3	-4.525894E-3	1.955890E-3	7.656203E-3	-2.541475E-3	1.597606E-2	-1.055957E-3	-8.905219E-4	8.576031E-3	-4.481133E-3	1.196380E-2	2.624423E-3	8.244084E-3	3.387137E-3	3.154536E-3	2.813255E-3	3.432889E-3	-2.042311E-3	1.173966E-3	5.372692E-3	-2.032175E-4	-3.141814E-3	1.030163E-3	9.497283E-3	4.895459E-3	1.202977E-3	1.161890E-3	-8.528125E-3	5.056739E-3	5.610854E-4	9.605684E-3	1.755619E-3	1.330093E-2	1.256279E-2	7.041112E-4	8.234034E-3	2.617272E-3	9.148718E-3	5.318104E-3	8.144796E-3	-3.806152E-3	3.756017E-3	-3.092177E-3	3.474487E-3	-1.961890E-3	8.944020E-3	4.676194E-3	1.569790E-3	-4.591202E-3	2.469088E-3	-5.813869E-3	-4.801870E-3	7.048372E-3	4.153748E-3	5.936636E-3	1.459949E-3	5.758772E-3	1.035726E-2	2.642919E-3	2.145174E-3	5.416282E-3	-6.255219E-3	-2.423510E-4	-3.450873E-3	1.241858E-2	4.808521E-3	2.684668E-3	-4.614024E-4	9.262641E-3	1.398685E-2	-6.045517E-4	2.934283E-3	9.851521E-3	-1.222549E-3	1.026978E-2	1.408632E-3	2.148592E-4	-1.905419E-3	1.872644E-3	-3.195278E-4	2.489520E-3	3.764616E-3	3.280175E-3	1.147747E-2
5.325170E+2	-1.453342E-3	6.075039E-3	1.155765E-2	5.654150E-3	1.855183E-2	1.120780E-2	1.445152E-2	2.112728E-2	5.460232E-3	1.036115E-2	1.277994E-2	5.887030E-3	1.008009E-2	1.910327E-2	1.338900E-2	2.151909E-2	5.954191E-3	8.965066E-3	1.032507E-2	1.127794E-2	4.621323E-4	1.134310E-2	1.034741E-2	1.392452E-2	8.700374E-3	8.386903E-3	1.156304E-2	5.371763E-3	1.716914E-2	1.126592E-2	1.126558E-2	3.839542E-3	1.548281E-2	1.824338E-2	1.093197E-2	5.430432E-3	1.111777E-2	8.967136E-3	3.587383E-3	-2.006638E-3	7.419397E-3	6.440289E-3	6.378808E-3	1.718905E-2	5.990299E-3	2.507880E-3	4.930131E-3	1.307705E-2	6.993145E-3	1.175781E-2	-1.752444E-5	9.505199E-3	6.764533E-3	1.556514E-3	2.602843E-3	2.002791E-2	1.097666E-2	9.045205E-3	1.642229E-2	1.342634E-2	1.427388E-2	2.933098E-3	6.593749E-3	9.364502E-3	1.205272E-2	6.098962E-4	5.383397E-3	5.330537E-3	3.673982E-3	1.464591E-2	9.664540E-3	1.261021E-2	1.321067E-2	1.095817E-2	1.396121E-2	1.305180E-2	9.908940E-3	7.494397E-3	-3.935765E-4	1.761296E-2	8.405522E-3	7.823075E-3	4.423237E-3	9.683471E-3	7.200694E-3	1.472718E-2	8.096768E-3	8.825552E-3	1.049914E-2	1.164148E-2	8.279668E-3	6.993033E-3	5.739016E-3	9.506010E-3	3.370233E-3	1.381174E-2	7.744433E-3	6.048005E-3	6.744715E-3	5.636541E-3	1.362126E-2	8.574817E-3	2.110851E-2	9.379800E-3	1.357651E-2	1.319733E-2	4.812084E-3	2.285344E-2	1.294315E-2	8.807559E-3	1.630482E-2	4.922620E-3	1.350719E-2	7.966252E-3	3.665001E-3	4.508906E-3	1.033664E-2	-1.785586E-3	9.250711E-3	1.094881E-2	3.762049E-3	1.111183E-2	1.344212E-2	1.387254E-2	1.206248E-2	1.022048E-2	1.237948E-2	1.597009E-2	1.636688E-2	1.275995E-2	1.133127E-2	1.452783E-2	8.988536E-3	5.708716E-3	3.145641E-3	1.494037E-2	1.523621E-2	1.768769E-2	1.345329E-2	3.110103E-3	1.481772E-2	9.382116E-3	9.722183E-3	7.718497E-3	9.873200E-3	1.014811E-2	5.648342E-3	1.299333E-2	1.293958E-2	1.099204E-2	3.810636E-3	7.442859E-3	1.596866E-2	1.482630E-2	1.369966E-2	5.194392E-3	7.097431E-3	2.260842E-2	5.124345E-3	9.900214E-3	1.261558E-2	9.785318E-3	1.126915E-2	1.120147E-2	1.277797E-2	6.984349E-3	1.646277E-2	1.907076E-2	2.327823E-2	-1.348108E-3	-1.657134E-5
5.330280E+2	1.813869E-2	1.676698E-2	2.435772E-2	1.669478E-2	2.603369E-2	1.773536E-2	2.171579E-2	2.682594E-2	2.682110E-2	2.243090E-2	2.363404E-2	1.406353E-2	2.289323E-2	2.646590E-2	3.252538E-2	1.963263E-2	2.130211E-2	1.893096E-2	3.168598E-2	2.107220E-2	2.078934E-2	2.785420E-2	1.088882E-2	1.836959E-2	3.262620E-2	1.321642E-2	2.471824E-2	1.868698E-2	2.301402E-2	2.500584E-2	3.185047E-2	3.069443E-2	3.317342E-2	2.373493E-2	3.416496E-2	3.528504E-2	1.609950E-2	3.103122E-2	1.756316E-2	2.219675E-2	2.684730E-2	1.577031E-2	2.515953E-2	3.453831E-2	1.241404E-2	1.964523E-2	1.886135E-2	2.158883E-2	7.382961E-3	1.863572E-2	2.228277E-2	2.142152E-2	5.654222E-3	2.228587E-2	1.954935E-2	2.095650E-2	2.776795E-2	1.327903E-2	2.172073E-2	2.630798E-2	2.685688E-2	2.132762E-2	2.466195E-2	2.809531E-2	2.181343E-2	2.778152E-2	2.128182E-2	2.134825E-2	1.530993E-2	1.156191E-2	2.158158E-2	3.329551E-2	2.351978E-2	2.585658E-2	2.253965E-2	1.636133E-2	2.116482E-2	2.014636E-2	9.291067E-3	2.130730E-2	2.699093E-2	1.613261E-2	1.126243E-2	2.937750E-2	2.595195E-2	2.821544E-2	2.387018E-2	4.159923E-2	2.345163E-2	3.048616E-2	2.002938E-2	2.589618E-2	3.140997E-2	2.325300E-2	2.218856E-2	2.153915E-2	1.749287E-2	1.903930E-2	2.453812E-2	1.938377E-2	2.485054E-2	2.992999E-2	2.116178E-2	3.055395E-2	3.576226E-2	1.856760E-2	2.385133E-2	1.847544E-2	3.156483E-2	1.696435E-2	3.220676E-2	2.376310E-2	1.818902E-2	2.383538E-2	2.105403E-2	3.042239E-2	1.847394E-2	2.551531E-2	1.711531E-2	2.537790E-2	2.157905E-2	1.549912E-2	2.599686E-2	2.615618E-2	1.967456E-2	1.549088E-2	2.175664E-2	1.995487E-2	1.502150E-2	2.030320E-2	2.956983E-2	2.323149E-2	2.200727E-2	2.451451E-2	2.361553E-2	3.687776E-2	3.381619E-2	8.233115E-3	2.531576E-2	1.888644E-2	2.404647E-2	2.518115E-2	3.318983E-2	1.485394E-2	2.501244E-2	1.484038E-2	2.466660E-2	2.315090E-2	3.457461E-2	2.673922E-2	2.654015E-2	3.387175E-2	1.918242E-2	3.704717E-2	1.621080E-2	2.591020E-2	2.444101E-2	2.061412E-2	1.796401E-2	3.409451E-2	2.246127E-2	2.177105E-2	3.763993E-2	2.320492E-2	1.675727E-2	1.653517E-2	2.585274E-2	3.505122E-2	2.996607E-2	1.310561E-2	5.356419E-2
5.331630E+2	4.100939E-2	4.175196E-2	3.932844E-2	2.367831E-2	1.619423E-2	2.937888E-2	3.164894E-2	2.497120E-2	3.142285E-2	2.079308E-2	2.908816E-2	3.218091E-2	2.278572E-2	2.497864E-2	2.845564E-2	3.426894E-2	4.060415E-2	3.449225E-2	3.367135E-2	3.790732E-2	3.314882E-2	4.029021E-2	2.834114E-2	2.316512E-2	3.686393E-2	3.543676E-2	3.694286E-2	3.570414E-2	4.182471E-2	2.967025E-2	1.898436E-2	3.374220E-2	4.189581E-2	2.763673E-2	2.022622E-2	3.257603E-2	2.919316E-2	2.738011E-2	3.237830E-2	2.169690E-2	3.766534E-2	1.986840E-2	2.905412E-2	4.220957E-2	2.163078E-2	3.161825E-2	2.868634E-2	2.211217E-2	4.510228E-2	1.955718E-2	2.381920E-2	1.980578E-2	2.506924E-2	3.314015E-2	2.474591E-2	3.234865E-2	3.343697E-2	2.792377E-2	2.970113E-2	3.157939E-2	3.162599E-2	3.356425E-2	3.128861E-2	3.952192E-2	2.054286E-2	2.822454E-2	3.113004E-2	3.513756E-2	2.800484E-2	3.292013E-2	3.777183E-2	3.100162E-2	2.953446E-2	3.914216E-2	3.153537E-2	2.584682E-2	3.393151E-2	3.577024E-2	2.226392E-2	3.622985E-2	2.984549E-2	2.452374E-2	2.640915E-2	3.248256E-2	4.971352E-2	3.012288E-2	3.167065E-2	3.971445E-2	3.541027E-2	2.797304E-2	3.206252E-2	3.022862E-2	2.909287E-2	3.882218E-2	4.228174E-2	3.371473E-2	2.435057E-2	3.374618E-2	3.862297E-2	3.064454E-2	3.552868E-2	2.495258E-2	2.187049E-2	3.946549E-2	3.957546E-2	2.557660E-2	2.071076E-2	2.567559E-2	1.742322E-2	3.563148E-2	3.144066E-2	3.698796E-2	2.489973E-2	2.927301E-2	3.954401E-2	3.883577E-2	2.147810E-2	3.515028E-2	2.353113E-2	3.061214E-2	3.838314E-2	2.383947E-2	3.107855E-2	3.852121E-2	2.725640E-2	3.347691E-2	3.376768E-2	4.275406E-2	2.872781E-2	3.883016E-2	2.893437E-2	1.926876E-2	2.530552E-2	3.138994E-2	3.072307E-2	3.534748E-2	2.836522E-2	2.185434E-2	2.576941E-2	4.159984E-2	2.720693E-2	4.105263E-2	3.246664E-2	3.115581E-2	2.859545E-2	2.440560E-2	3.341377E-2	3.009903E-2	2.360768E-2	2.510080E-2	2.922413E-2	2.961034E-2	3.471407E-2	2.882822E-2	3.977466E-2	4.301235E-2	1.985553E-2	3.142996E-2	3.195238E-2	2.995064E-2	3.124111E-2	3.591722E-2	3.256458E-2	3.179567E-2	4.102023E-2	3.071616E-2	3.191154E-2	4.210516E-2	3.161129E-2	1.652944E-2	5.339736E-2
5.333130E+2	3.343315E-2	3.374173E-2	3.439674E-2	3.129723E-2	4.283836E-2	3.390839E-2	2.629637E-2	3.017254E-2	4.447074E-2	4.001517E-2	3.611731E-2	3.667279E-2	3.969967E-2	3.730426E-2	4.201656E-2	5.028907E-2	3.705587E-2	3.329565E-2	4.841042E-2	4.766365E-2	3.059204E-2	3.319302E-2	3.705040E-2	2.623836E-2	2.913749E-2	5.074141E-2	4.541368E-2	3.403885E-2	4.762580E-2	2.960607E-2	3.887607E-2	4.422893E-2	4.428290E-2	4.906180E-2	2.724971E-2	4.352629E-2	3.521804E-2	2.531436E-2	4.750430E-2	4.179708E-2	4.796223E-2	2.875525E-2	3.799142E-2	3.454710E-2	2.047437E-2	3.784059E-2	3.965400E-2	4.068417E-2	4.381328E-2	4.572009E-2	3.945460E-2	3.695959E-2	3.801390E-2	3.986183E-2	3.042462E-2	3.099227E-2	4.638485E-2	3.768645E-2	5.038887E-2	3.742560E-2	3.838513E-2	5.294182E-2	3.907792E-2	4.143907E-2	5.494585E-2	3.581903E-2	4.016693E-2	2.465552E-2	4.022904E-2	4.682326E-2	4.770793E-2	3.668717E-2	5.159845E-2	3.960782E-2	5.087456E-2	3.915151E-2	4.620139E-2	3.327389E-2	3.637250E-2	3.567423E-2	4.618105E-2	4.343052E-2	3.755159E-2	5.277089E-2	3.853372E-2	3.408177E-2	5.318082E-2	4.378053E-2	4.790538E-2	2.696437E-2	3.282087E-2	3.870563E-2	4.081544E-2	4.110551E-2	3.972754E-2	3.071399E-2	4.621671E-2	4.405135E-2	3.043960E-2	4.352184E-2	4.353015E-2	3.889812E-2	2.288599E-2	4.201512E-2	5.009861E-2	3.588226E-2	3.495711E-2	4.323099E-2	4.189076E-2	4.382917E-2	4.010974E-2	4.393488E-2	4.167561E-2	4.790686E-2	2.515973E-2	3.661346E-2	3.739661E-2	3.912172E-2	3.672231E-2	3.544365E-2	3.536622E-2	3.423387E-2	3.705570E-2	3.566906E-2	3.831245E-2	3.888254E-2	3.086788E-2	4.052651E-2	3.158012E-2	3.226290E-2	4.011342E-2	3.368986E-2	2.672801E-2	4.481150E-2	2.625833E-2	4.204879E-2	4.270861E-2	5.144040E-2	3.135525E-2	3.481785E-2	4.343895E-2	4.587934E-2	4.691670E-2	4.955555E-2	5.012430E-2	3.831787E-2	5.236944E-2	4.420288E-2	4.135200E-2	3.632429E-2	4.708772E-2	3.193191E-2	3.132508E-2	3.235134E-2	5.233128E-2	6.136277E-2	3.078752E-2	4.228893E-2	4.217318E-2	3.900211E-2	4.505739E-2	3.901700E-2	5.347953E-2	4.160030E-2	4.098358E-2	3.271022E-2	4.476364E-2	5.873078E-2	3.867316E-2	3.527085E-2	5.793890E-2
5.334520E+2	4.376275E-2	6.994802E-2	3.995875E-2	5.284013E-2	4.619296E-2	5.659441E-2	4.761257E-2	4.699956E-2	5.043466E-2	4.986307E-2	4.288726E-2	4.648202E-2	4.587334E-2	5.998645E-2	4.927320E-2	4.962406E-2	5.170289E-2	4.635330E-2	4.701502E-2	5.059205E-2	4.875645E-2	5.600782E-2	4.163812E-2	3.844456E-2	5.448951E-2	5.492866E-2	6.222823E-2	3.528337E-2	5.505993E-2	3.456528E-2	5.206296E-2	5.016744E-2	5.089269E-2	4.877784E-2	5.904988E-2	4.634235E-2	4.709637E-2	5.668048E-2	4.526676E-2	5.026164E-2	3.834327E-2	4.735616E-2	3.818493E-2	4.342445E-2	4.089553E-2	5.009741E-2	6.625185E-2	5.867471E-2	6.081809E-2	5.585500E-2	4.940402E-2	3.976245E-2	5.174656E-2	4.475731E-2	4.638171E-2	5.374733E-2	5.094780E-2	5.866755E-2	5.497454E-2	5.957250E-2	5.954090E-2	4.368920E-2	5.746593E-2	5.703526E-2	6.452093E-2	5.243542E-2	5.233847E-2	6.072298E-2	5.120349E-2	4.703902E-2	5.343861E-2	4.616450E-2	5.372748E-2	5.161529E-2	5.945927E-2	5.212014E-2	5.037465E-2	5.408404E-2	5.310946E-2	5.324508E-2	5.754046E-2	5.684615E-2	4.233367E-2	6.216692E-2	4.151183E-2	6.038375E-2	6.668121E-2	6.045070E-2	4.963687E-2	5.867583E-2	4.373495E-2	6.530434E-2	4.873520E-2	5.054868E-2	5.481439E-2	6.864158E-2	4.703602E-2	5.192728E-2	5.394882E-2	4.534116E-2	6.046758E-2	5.127463E-2	4.878860E-2	4.062390E-2	5.868813E-2	3.826135E-2	4.260103E-2	5.264188E-2	6.607377E-2	4.846854E-2	5.843274E-2	5.137084E-2	5.183590E-2	4.376920E-2	5.352536E-2	4.928318E-2	5.051478E-2	3.874500E-2	5.726902E-2	5.503716E-2	5.797291E-2	5.880550E-2	3.544528E-2	4.904927E-2	5.731000E-2	5.088312E-2	4.913422E-2	5.166828E-2	5.715503E-2	5.336778E-2	4.383106E-2	5.940764E-2	5.995817E-2	5.403124E-2	5.913796E-2	5.426277E-2	4.346777E-2	5.443047E-2	5.686145E-2	3.935195E-2	5.301698E-2	4.561110E-2	5.028617E-2	4.488507E-2	4.935441E-2	5.096963E-2	4.861011E-2	5.659083E-2	5.791864E-2	5.859423E-2	5.774652E-2	5.307804E-2	4.719167E-2	4.779649E-2	5.093521E-2	5.561010E-2	5.353374E-2	4.161040E-2	6.182045E-2	4.321745E-2	4.977717E-2	5.515665E-2	5.494495E-2	6.114322E-2	5.238222E-2	5.437732E-2	4.163810E-2	5.009925E-2	6.115189E-2	4.374014E-2	7.608170E-2
5.336080E+2	8.245797E-2	8.843183E-2	6.066635E-2	6.155465E-2	6.427383E-2	7.161354E-2	6.473876E-2	7.082667E-2	5.591780E-2	6.224384E-2	7.549271E-2	5.832995E-2	7.767502E-2	6.195791E-2	6.786101E-2	6.946355E-2	5.885529E-2	7.512157E-2	5.993866E-2	5.635016E-2	7.788110E-2	7.125193E-2	6.426911E-2	8.132912E-2	7.875373E-2	7.792207E-2	7.326666E-2	7.444189E-2	7.275949E-2	6.453001E-2	6.423852E-2	7.887199E-2	5.306951E-2	7.097950E-2	6.300108E-2	7.651187E-2	7.013822E-2	6.539967E-2	6.896674E-2	7.547782E-2	6.225412E-2	8.434279E-2	6.384162E-2	7.297398E-2	6.682833E-2	6.918539E-2	6.977912E-2	7.081817E-2	7.785130E-2	6.595721E-2	6.373137E-2	6.502970E-2	6.845649E-2	7.263678E-2	7.089845E-2	7.112729E-2	8.722436E-2	6.816878E-2	6.994242E-2	8.529714E-2	7.288661E-2	7.140409E-2	7.288037E-2	7.854571E-2	8.695947E-2	6.854752E-2	6.510743E-2	7.079064E-2	6.982544E-2	7.616654E-2	7.063922E-2	6.878326E-2	6.804738E-2	6.738963E-2	6.750888E-2	7.673168E-2	7.671091E-2	6.312409E-2	8.627134E-2	6.975272E-2	8.121863E-2	6.655054E-2	5.987005E-2	7.709124E-2	6.839907E-2	7.909802E-2	6.683925E-2	6.746780E-2	8.047377E-2	7.241505E-2	7.046186E-2	7.154663E-2	6.565761E-2	5.947899E-2	8.321295E-2	5.733733E-2	7.623710E-2	6.690990E-2	6.774437E-2	5.844617E-2	6.928286E-2	7.586026E-2	5.976878E-2	6.788392E-2	8.681514E-2	7.455127E-2	6.717060E-2	6.699827E-2	6.990738E-2	6.746536E-2	8.416855E-2	7.008400E-2	6.642017E-2	7.070979E-2	7.267762E-2	5.466445E-2	6.208081E-2	8.833893E-2	7.778280E-2	7.458477E-2	6.814753E-2	6.843313E-2	5.554613E-2	4.756622E-2	6.998482E-2	6.283778E-2	5.857061E-2	8.053798E-2	6.027892E-2	6.513349E-2	5.897766E-2	5.799101E-2	8.002439E-2	7.217929E-2	6.493105E-2	7.360741E-2	6.715863E-2	6.181636E-2	6.221397E-2	6.600649E-2	8.524943E-2	6.476339E-2	6.429594E-2	6.931147E-2	7.642733E-2	7.536615E-2	6.838277E-2	7.853947E-2	7.935936E-2	6.495414E-2	8.257467E-2	7.921192E-2	7.314620E-2	7.539982E-2	7.284849E-2	6.428864E-2	7.120083E-2	7.161909E-2	6.830313E-2	6.942942E-2	5.393618E-2	9.495297E-2	9.117887E-2	7.766259E-2	7.086168E-2	7.395960E-2	6.561461E-2	7.005225E-2	8.037455E-2	5.402985E-2	6.082561E-2
5.337580E+2	1.046127E-1	1.086646E-1	1.056044E-1	8.644417E-2	1.102031E-1	9.226426E-2	9.446686E-2	1.018957E-1	1.176409E-1	1.062116E-1	9.855730E-2	8.989588E-2	9.778849E-2	8.883146E-2	9.948691E-2	9.985488E-2	9.493082E-2	1.077919E-1	1.125699E-1	1.031640E-1	1.152307E-1	9.056398E-2	9.579120E-2	1.090166E-1	9.750689E-2	1.070399E-1	1.010984E-1	9.006960E-2	9.926117E-2	9.605085E-2	1.024586E-1	1.062470E-1	1.124390E-1	8.717260E-2	8.966500E-2	9.780477E-2	9.678991E-2	1.019197E-1	9.769061E-2	9.947340E-2	1.004150E-1	1.024967E-1	8.994555E-2	8.171312E-2	1.015193E-1	1.166908E-1	8.723077E-2	1.060264E-1	9.832065E-2	9.594000E-2	1.029150E-1	1.009191E-1	1.154244E-1	9.371419E-2	9.506281E-2	1.012149E-1	9.961176E-2	1.132556E-1	1.050998E-1	1.043897E-1	9.259217E-2	9.495737E-2	9.078513E-2	1.087128E-1	9.932410E-2	1.048671E-1	1.068790E-1	9.294310E-2	1.033955E-1	8.883165E-2	1.104941E-1	9.251764E-2	1.075285E-1	8.948001E-2	9.638937E-2	9.654491E-2	9.473786E-2	8.440063E-2	9.028763E-2	9.542597E-2	8.946476E-2	1.116847E-1	8.851629E-2	9.412046E-2	1.047000E-1	9.137865E-2	9.834426E-2	9.472464E-2	9.476148E-2	9.499987E-2	1.203229E-1	1.034032E-1	1.076890E-1	1.040468E-1	9.988783E-2	1.078673E-1	8.661286E-2	1.164040E-1	1.047990E-1	1.063607E-1	1.083228E-1	1.175461E-1	9.167943E-2	1.019742E-1	9.469035E-2	1.019353E-1	1.226353E-1	9.213205E-2	9.717589E-2	8.978623E-2	1.030002E-1	9.663320E-2	9.694223E-2	9.428047E-2	9.707384E-2	1.050832E-1	1.031720E-1	1.075251E-1	1.039744E-1	1.084490E-1	9.599835E-2	1.081084E-1	8.475168E-2	1.115390E-1	1.050178E-1	1.215952E-1	1.145870E-1	1.008297E-1	1.036662E-1	1.099019E-1	1.015894E-1	8.795628E-2	9.446890E-2	9.190051E-2	1.079884E-1	1.210515E-1	9.514056E-2	9.603324E-2	1.072200E-1	9.713205E-2	1.099071E-1	9.768336E-2	1.168007E-1	1.060915E-1	1.014749E-1	9.493073E-2	1.022516E-1	1.010610E-1	8.807288E-2	1.098643E-1	9.701585E-2	9.960632E-2	1.092043E-1	9.749709E-2	1.049657E-1	1.068419E-1	1.040438E-1	9.528006E-2	1.153987E-1	8.842592E-2	1.013334E-1	9.094338E-2	1.031305E-1	8.056383E-2	9.297807E-2	1.049068E-1	1.185492E-1	1.137488E-1	1.075379E-1	9.410777E-2	9.083802E-2
5.339190E+2	1.631965E-1	1.655654E-1	1.542980E-1	1.716945E-1	1.758524E-1	1.746348E-1	1.640858E-1	1.673137E-1	1.725845E-1	1.495731E-1	1.704947E-1	1.474262E-1	1.949370E-1	1.702951E-1	1.536493E-1	1.674750E-1	1.620844E-1	1.623781E-1	1.749802E-1	1.809091E-1	1.626401E-1	1.624258E-1	1.646442E-1	1.677948E-1	1.696215E-1	1.489725E-1	1.675496E-1	1.684687E-1	1.825268E-1	1.537462E-1	1.714062E-1	1.537715E-1	1.659690E-1	1.723677E-1	1.500124E-1	1.835545E-1	1.622329E-1	1.708137E-1	1.608984E-1	1.769158E-1	1.734880E-1	1.692423E-1	1.683717E-1	1.917549E-1	1.631655E-1	1.535836E-1	1.471027E-1	1.495719E-1	1.675961E-1	1.347563E-1	1.644740E-1	1.725200E-1	1.405700E-1	1.710494E-1	1.634392E-1	1.691352E-1	1.593907E-1	1.660476E-1	1.710952E-1	1.705402E-1	1.687375E-1	1.701507E-1	1.650224E-1	1.773848E-1	1.473418E-1	1.709568E-1	1.675806E-1	1.810272E-1	1.710216E-1	1.561865E-1	1.523058E-1	1.833947E-1	1.708099E-1	1.704966E-1	1.768709E-1	1.606510E-1	1.669055E-1	1.595344E-1	1.411340E-1	1.737120E-1	1.690555E-1	1.733250E-1	1.777842E-1	1.831021E-1	1.695360E-1	1.707626E-1	1.589033E-1	1.611666E-1	1.946425E-1	1.619503E-1	1.500694E-1	1.921070E-1	1.785427E-1	1.616780E-1	1.522937E-1	1.601031E-1	1.583472E-1	1.581770E-1	1.702848E-1	1.891225E-1	1.761768E-1	1.778980E-1	1.523387E-1	1.601051E-1	1.909085E-1	1.503138E-1	1.663816E-1	1.516462E-1	2.001783E-1	1.652237E-1	1.657524E-1	1.723523E-1	1.709751E-1	1.672880E-1	1.745118E-1	1.569993E-1	1.545026E-1	1.780988E-1	1.714331E-1	1.851984E-1	1.870053E-1	1.656935E-1	1.699136E-1	1.682904E-1	1.870560E-1	1.784318E-1	1.777067E-1	1.746895E-1	1.819146E-1	1.673592E-1	1.859116E-1	1.652671E-1	1.703725E-1	1.657678E-1	1.529745E-1	1.528843E-1	1.708750E-1	1.500952E-1	1.745027E-1	1.861294E-1	1.770764E-1	1.578191E-1	1.652005E-1	1.593823E-1	1.662048E-1	1.842760E-1	1.858619E-1	1.776565E-1	1.673086E-1	1.738873E-1	1.636076E-1	1.755122E-1	1.881952E-1	1.557324E-1	1.742154E-1	1.728375E-1	1.646483E-1	1.608564E-1	1.662836E-1	1.863988E-1	1.690405E-1	1.792484E-1	1.657515E-1	1.640194E-1	1.559166E-1	1.547103E-1	1.574717E-1	2.019686E-1	1.695058E-1	1.698074E-1	2.165596E-1
5.340690E+2	2.824102E-1	2.564142E-1	3.013039E-1	2.558258E-1	2.801047E-1	2.788782E-1	2.530426E-1	2.665257E-1	2.636382E-1	2.778140E-1	2.835851E-1	2.710000E-1	2.802208E-1	2.682431E-1	2.743479E-1	2.765428E-1	2.657204E-1	2.880385E-1	2.477732E-1	2.595314E-1	2.767047E-1	2.828012E-1	2.766561E-1	2.897991E-1	2.679356E-1	2.743401E-1	2.884049E-1	2.725818E-1	2.681073E-1	2.649916E-1	2.857765E-1	2.855025E-1	2.641026E-1	2.976722E-1	2.730502E-1	2.799051E-1	2.570512E-1	2.933349E-1	2.362052E-1	2.603150E-1	2.878581E-1	2.712411E-1	2.663631E-1	2.787700E-1	2.595257E-1	2.808538E-1	2.626187E-1	2.642223E-1	2.820906E-1	2.584881E-1	2.750639E-1	2.649097E-1	2.693788E-1	2.808250E-1	2.827993E-1	2.831524E-1	2.926753E-1	2.825554E-1	2.848795E-1	2.886070E-1	2.762337E-1	2.730606E-1	2.599271E-1	2.744169E-1	2.775967E-1	2.677427E-1	2.474944E-1	2.841987E-1	2.634361E-1	2.687102E-1	2.691818E-1	2.931098E-1	2.620063E-1	2.745867E-1	2.618023E-1	2.806850E-1	2.668178E-1	2.672065E-1	2.567698E-1	2.349401E-1	2.654461E-1	2.670913E-1	2.496881E-1	2.721441E-1	2.727399E-1	2.620232E-1	2.502377E-1	2.670804E-1	2.785771E-1	2.737968E-1	2.567904E-1	2.700297E-1	2.738971E-1	2.698292E-1	2.537164E-1	2.733219E-1	2.857378E-1	2.809862E-1	2.799888E-1	2.633640E-1	2.852123E-1	2.627350E-1	2.548086E-1	2.902048E-1	2.884804E-1	2.600806E-1	2.890058E-1	2.716237E-1	2.933685E-1	2.682750E-1	2.743723E-1	2.627610E-1	2.823450E-1	2.953279E-1	2.735814E-1	2.539046E-1	2.625222E-1	2.796333E-1	2.784610E-1	2.910330E-1	2.747266E-1	2.745989E-1	2.934606E-1	2.975273E-1	2.853198E-1	2.684996E-1	2.605713E-1	2.579961E-1	2.579146E-1	2.665813E-1	2.744446E-1	2.640202E-1	2.547924E-1	2.665547E-1	3.149035E-1	2.730129E-1	2.737348E-1	2.948998E-1	2.970378E-1	2.688467E-1	2.872557E-1	2.594968E-1	2.601879E-1	2.943921E-1	3.026542E-1	2.607184E-1	2.657860E-1	2.709231E-1	2.548002E-1	2.831600E-1	2.790888E-1	3.089815E-1	2.817451E-1	2.680651E-1	2.617686E-1	2.806374E-1	2.713407E-1	2.758942E-1	2.711778E-1	2.954845E-1	2.792691E-1	2.521964E-1	2.808897E-1	2.794530E-1	2.663642E-1	2.738747E-1	2.625504E-1	2.661301E-1	2.908377E-1	2.742037E-1	2.883137E-1
5.342040E+2	5.064759E-1	4.582207E-1	4.810857E-1	4.660853E-1	4.629510E-1	4.535832E-1	4.960747E-1	4.701873E-1	4.718235E-1	4.560658E-1	4.505722E-1	4.659199E-1	4.792107E-1	4.376720E-1	4.727294E-1	4.560289E-1	4.806489E-1	4.372372E-1	4.783346E-1	4.719732E-1	4.765198E-1	4.903108E-1	4.656889E-1	4.673362E-1	4.842694E-1	4.822022E-1	4.494318E-1	4.871930E-1	4.774613E-1	4.681960E-1	4.557859E-1	4.769897E-1	4.765863E-1	4.933221E-1	4.634194E-1	4.748033E-1	4.649672E-1	4.876456E-1	4.951386E-1	4.729747E-1	4.739530E-1	4.584138E-1	4.592254E-1	4.757083E-1	4.505098E-1	4.783826E-1	4.829397E-1	4.413716E-1	4.827438E-1	4.828366E-1	4.545685E-1	4.391066E-1	4.635796E-1	4.770143E-1	4.685171E-1	4.601120E-1	4.772965E-1	4.736469E-1	4.647592E-1	5.087836E-1	4.526119E-1	4.676436E-1	4.715247E-1	4.364268E-1	4.530834E-1	4.604973E-1	4.889007E-1	4.722115E-1	4.953313E-1	4.762459E-1	4.557927E-1	5.046113E-1	4.841143E-1	4.776164E-1	4.449296E-1	4.802127E-1	4.899778E-1	4.619969E-1	4.666297E-1	4.964791E-1	4.820498E-1	4.639715E-1	4.752794E-1	4.535191E-1	4.961431E-1	4.489505E-1	4.548495E-1	4.758284E-1	4.354401E-1	4.642594E-1	4.384641E-1	4.863941E-1	4.723180E-1	4.516576E-1	4.812499E-1	4.694701E-1	4.997702E-1	4.909342E-1	4.565126E-1	4.681724E-1	4.687317E-1	4.540710E-1	4.678650E-1	4.618406E-1	4.560799E-1	4.554250E-1	4.426368E-1	5.100871E-1	4.723865E-1	4.493644E-1	4.759667E-1	4.661262E-1	4.941379E-1	4.576671E-1	4.562432E-1	4.554515E-1	4.712958E-1	4.930186E-1	4.586272E-1	4.889431E-1	4.810397E-1	4.834410E-1	4.449228E-1	4.849234E-1	5.016585E-1	4.718710E-1	4.843225E-1	4.961733E-1	4.607835E-1	4.872556E-1	4.708234E-1	4.639767E-1	4.409423E-1	4.566870E-1	4.615629E-1	4.789483E-1	4.719657E-1	4.550193E-1	4.708440E-1	5.110193E-1	4.537171E-1	4.896566E-1	4.679202E-1	4.593646E-1	4.404161E-1	5.264646E-1	4.666117E-1	4.944644E-1	4.789573E-1	4.679422E-1	4.784133E-1	4.562731E-1	5.000876E-1	4.989470E-1	4.636511E-1	4.836150E-1	4.561161E-1	4.771246E-1	4.865569E-1	4.755015E-1	5.041012E-1	4.742165E-1	4.677177E-1	4.454161E-1	5.059599E-1	4.987702E-1	4.509832E-1	4.753533E-1	5.180382E-1	4.710866E-1	4.169281E-1
5.343650E+2	7.916619E-1	8.293752E-1	7.992099E-1	7.753870E-1	8.409329E-1	7.558599E-1	7.627996E-1	7.906056E-1	8.083298E-1	8.135545E-1	7.835728E-1	8.009139E-1	8.177590E-1	8.102952E-1	8.195276E-1	7.616205E-1	8.152441E-1	8.169125E-1	7.841161E-1	8.274471E-1	7.907915E-1	7.901292E-1	7.860761E-1	7.923259E-1	8.046889E-1	7.904870E-1	8.354779E-1	8.289405E-1	7.714672E-1	7.860206E-1	8.196845E-1	8.173995E-1	8.063505E-1	7.920923E-1	8.056249E-1	8.024451E-1	8.405604E-1	7.635634E-1	8.069715E-1	8.057743E-1	8.158172E-1	7.782871E-1	7.686693E-1	7.821662E-1	7.552196E-1	8.194336E-1	7.747132E-1	7.669672E-1	7.973563E-1	7.921483E-1	7.898352E-1	8.026892E-1	7.589887E-1	7.864839E-1	8.277465E-1	7.960668E-1	7.685811E-1	7.988398E-1	7.674770E-1	8.019363E-1	7.798837E-1	7.657111E-1	7.874445E-1	8.162544E-1	8.069974E-1	8.116900E-1	7.590699E-1	7.753152E-1	7.770067E-1	7.895644E-1	7.870005E-1	8.041910E-1	8.110522E-1	8.163522E-1	8.263366E-1	8.119219E-1	8.248130E-1	8.124664E-1	8.264094E-1	7.889602E-1	8.222364E-1	8.096333E-1	7.689286E-1	7.968306E-1	8.008299E-1	8.099463E-1	7.749041E-1	8.168602E-1	7.962256E-1	7.754742E-1	7.670302E-1	7.873446E-1	8.037756E-1	7.962040E-1	8.069694E-1	8.129600E-1	7.873262E-1	8.144495E-1	7.757380E-1	8.220243E-1	8.187494E-1	7.715460E-1	8.059809E-1	7.943055E-1	8.211914E-1	8.194418E-1	8.419513E-1	7.818133E-1	8.065507E-1	7.763291E-1	8.036750E-1	8.007808E-1	8.007175E-1	7.782883E-1	7.795117E-1	7.905567E-1	8.062634E-1	7.734362E-1	8.096730E-1	7.994063E-1	8.494777E-1	7.851141E-1	8.013877E-1	7.879309E-1	8.185515E-1	8.031368E-1	7.612870E-1	7.872248E-1	7.440798E-1	7.820153E-1	7.852479E-1	8.383725E-1	7.463520E-1	8.044128E-1	7.679726E-1	8.206495E-1	8.020953E-1	8.178345E-1	8.254805E-1	8.232758E-1	7.791218E-1	7.977332E-1	8.265747E-1	8.267646E-1	7.966834E-1	8.076515E-1	7.803328E-1	7.871883E-1	7.983620E-1	7.976043E-1	8.297564E-1	8.286558E-1	8.034761E-1	8.002174E-1	8.169442E-1	8.184761E-1	7.837339E-1	7.761286E-1	7.888677E-1	8.301698E-1	8.271295E-1	7.531074E-1	7.854526E-1	7.635094E-1	8.150302E-1	7.870595E-1	7.761115E-1	8.073820E-1	7.922251E-1	8.162701E-1	8.143427E-1
5.345160E+2	1.241188E+0	1.222719E+0	1.214179E+0	1.208323E+0	1.219424E+0	1.194034E+0	1.189995E+0	1.244526E+0	1.271412E+0	1.219424E+0	1.232760E+0	1.229931E+0	1.206818E+0	1.167726E+0	1.210114E+0	1.206736E+0	1.224651E+0	1.271591E+0	1.196517E+0	1.204667E+0	1.304188E+0	1.248262E+0	1.178804E+0	1.221197E+0	1.229401E+0	1.247160E+0	1.202427E+0	1.235236E+0	1.252047E+0	1.251098E+0	1.274698E+0	1.168914E+0	1.246167E+0	1.216997E+0	1.240577E+0	1.220547E+0	1.215722E+0	1.270027E+0	1.229911E+0	1.231571E+0	1.272292E+0	1.245580E+0	1.179220E+0	1.207613E+0	1.194946E+0	1.219299E+0	1.190201E+0	1.212621E+0	1.186106E+0	1.198152E+0	1.174041E+0	1.226944E+0	1.218524E+0	1.212200E+0	1.176389E+0	1.165042E+0	1.183125E+0	1.256303E+0	1.198327E+0	1.271391E+0	1.211514E+0	1.230183E+0	1.196313E+0	1.194469E+0	1.317154E+0	1.260152E+0	1.242159E+0	1.231276E+0	1.231023E+0	1.204100E+0	1.223706E+0	1.244024E+0	1.238049E+0	1.173044E+0	1.242370E+0	1.224145E+0	1.232642E+0	1.230158E+0	1.208810E+0	1.210964E+0	1.200360E+0	1.233722E+0	1.194915E+0	1.160343E+0	1.233790E+0	1.175485E+0	1.218675E+0	1.203394E+0	1.210078E+0	1.178459E+0	1.218107E+0	1.224795E+0	1.218406E+0	1.228753E+0	1.237389E+0	1.231651E+0	1.220551E+0	1.235010E+0	1.184011E+0	1.203049E+0	1.240344E+0	1.209006E+0	1.204776E+0	1.218830E+0	1.222556E+0	1.211286E+0	1.258786E+0	1.225497E+0	1.197930E+0	1.195205E+0	1.218737E+0	1.196427E+0	1.219227E+0	1.215329E+0	1.233540E+0	1.206864E+0	1.231175E+0	1.191781E+0	1.200750E+0	1.206140E+0	1.280566E+0	1.214249E+0	1.198016E+0	1.155519E+0	1.214092E+0	1.216055E+0	1.233969E+0	1.222070E+0	1.225794E+0	1.223227E+0	1.251168E+0	1.173917E+0	1.152369E+0	1.199619E+0	1.202985E+0	1.222352E+0	1.160654E+0	1.208290E+0	1.178397E+0	1.231581E+0	1.211494E+0	1.186065E+0	1.221008E+0	1.297928E+0	1.179702E+0	1.245034E+0	1.183978E+0	1.161256E+0	1.245532E+0	1.199983E+0	1.147472E+0	1.191181E+0	1.266697E+0	1.196693E+0	1.234630E+0	1.281899E+0	1.224897E+0	1.223383E+0	1.217833E+0	1.177454E+0	1.233925E+0	1.182496E+0	1.179651E+0	1.223594E+0	1.244132E+0	1.218366E+0	1.144347E+0	1.224275E+0	1.246443E+0	1.254431E+0	1.166445E+0
5.346620E+2	1.590663E+0	1.501750E+0	1.552367E+0	1.617260E+0	1.604039E+0	1.560689E+0	1.541466E+0	1.637949E+0	1.618459E+0	1.596580E+0	1.594421E+0	1.524918E+0	1.649130E+0	1.579271E+0	1.581402E+0	1.562195E+0	1.612819E+0	1.611271E+0	1.566898E+0	1.596241E+0	1.598956E+0	1.615723E+0	1.536921E+0	1.579958E+0	1.610227E+0	1.598915E+0	1.584240E+0	1.639256E+0	1.618597E+0	1.601380E+0	1.592378E+0	1.601248E+0	1.564882E+0	1.591401E+0	1.548783E+0	1.593920E+0	1.622235E+0	1.567463E+0	1.568634E+0	1.577983E+0	1.641188E+0	1.598206E+0	1.615431E+0	1.517870E+0	1.571956E+0	1.610409E+0	1.547010E+0	1.606250E+0	1.612786E+0	1.561804E+0	1.563463E+0	1.586177E+0	1.561429E+0	1.577023E+0	1.604231E+0	1.475367E+0	1.587640E+0	1.650964E+0	1.522064E+0	1.597891E+0	1.563871E+0	1.571832E+0	1.617008E+0	1.600919E+0	1.597410E+0	1.574727E+0	1.625375E+0	1.591010E+0	1.617110E+0	1.532031E+0	1.552313E+0	1.594936E+0	1.610214E+0	1.553563E+0	1.552122E+0	1.598599E+0	1.529095E+0	1.553199E+0	1.550552E+0	1.581883E+0	1.588403E+0	1.602757E+0	1.594185E+0	1.541576E+0	1.595717E+0	1.544522E+0	1.500052E+0	1.586026E+0	1.609994E+0	1.576147E+0	1.579054E+0	1.591882E+0	1.570827E+0	1.546737E+0	1.536375E+0	1.636675E+0	1.524524E+0	1.616792E+0	1.572306E+0	1.547981E+0	1.609815E+0	1.528265E+0	1.584767E+0	1.617215E+0	1.602823E+0	1.590139E+0	1.592429E+0	1.518027E+0	1.543684E+0	1.587542E+0	1.526419E+0	1.539619E+0	1.577162E+0	1.578286E+0	1.505672E+0	1.589968E+0	1.643295E+0	1.574813E+0	1.563520E+0	1.584427E+0	1.600496E+0	1.578095E+0	1.534892E+0	1.559110E+0	1.602460E+0	1.588136E+0	1.517257E+0	1.556814E+0	1.549209E+0	1.491902E+0	1.570134E+0	1.529511E+0	1.524746E+0	1.557617E+0	1.597819E+0	1.560365E+0	1.563342E+0	1.564466E+0	1.583533E+0	1.550572E+0	1.508818E+0	1.539353E+0	1.563112E+0	1.533780E+0	1.584442E+0	1.535082E+0	1.542323E+0	1.539067E+0	1.596047E+0	1.558381E+0	1.590800E+0	1.584643E+0	1.570244E+0	1.535623E+0	1.526286E+0	1.526070E+0	1.528834E+0	1.531944E+0	1.551023E+0	1.501893E+0	1.517722E+0	1.577398E+0	1.641669E+0	1.537273E+0	1.526038E+0	1.500498E+0	1.537526E+0	1.585856E+0	1.565045E+0	1.548619E+0	1.458392E+0
5.348280E+2	2.079781E+0	1.902925E+0	1.976337E+0	1.978115E+0	1.955068E+0	1.919368E+0	1.879154E+0	1.987299E+0	1.996881E+0	1.992543E+0	1.924469E+0	1.931641E+0	1.979451E+0	1.957208E+0	2.009015E+0	1.941712E+0	1.937557E+0	2.058961E+0	1.981081E+0	1.946995E+0	2.019177E+0	2.009368E+0	1.897934E+0	1.977167E+0	2.009378E+0	1.980008E+0	1.974493E+0	1.988774E+0	1.944534E+0	1.924418E+0	2.066366E+0	1.952903E+0	2.028063E+0	1.980873E+0	1.931340E+0	1.970077E+0	1.967465E+0	1.952887E+0	1.979451E+0	1.942059E+0	1.975957E+0	1.981993E+0	1.938980E+0	1.909942E+0	2.021482E+0	1.983522E+0	1.957159E+0	1.958723E+0	2.003219E+0	1.971050E+0	1.890607E+0	1.947106E+0	1.887257E+0	1.967299E+0	1.944111E+0	1.986456E+0	1.962941E+0	1.969379E+0	1.878107E+0	1.981448E+0	1.879741E+0	1.859759E+0	1.892454E+0	1.981922E+0	2.010511E+0	1.919985E+0	1.948437E+0	1.895746E+0	1.981850E+0	1.925387E+0	1.956057E+0	1.969074E+0	1.955251E+0	1.874501E+0	1.936153E+0	1.977626E+0	1.958820E+0	1.943274E+0	1.881862E+0	1.941503E+0	1.965187E+0	1.967085E+0	1.898730E+0	1.924409E+0	1.995790E+0	1.945696E+0	1.878497E+0	1.908530E+0	1.996727E+0	1.978957E+0	1.915673E+0	2.004452E+0	1.931610E+0	1.946236E+0	1.929044E+0	1.911695E+0	1.881737E+0	1.936033E+0	2.004142E+0	1.929359E+0	1.983175E+0	1.906516E+0	1.911039E+0	1.994126E+0	1.971907E+0	1.939837E+0	1.935009E+0	1.975899E+0	1.918124E+0	1.895982E+0	1.867500E+0	1.909058E+0	1.921094E+0	1.941742E+0	1.893140E+0	1.895281E+0	1.970565E+0	1.961089E+0	1.896189E+0	1.933062E+0	1.927070E+0	1.945719E+0	1.887155E+0	1.891834E+0	1.940729E+0	1.895928E+0	1.930434E+0	1.897663E+0	1.865535E+0	1.935539E+0	1.878784E+0	1.931126E+0	1.897432E+0	1.866040E+0	1.824614E+0	1.924882E+0	1.866980E+0	1.921453E+0	1.887500E+0	1.863134E+0	1.857128E+0	1.940460E+0	1.978553E+0	1.901065E+0	1.904828E+0	1.943326E+0	1.929879E+0	1.805616E+0	1.926618E+0	1.904260E+0	1.920217E+0	1.906267E+0	1.970176E+0	1.893068E+0	1.866152E+0	1.878647E+0	1.881780E+0	1.929824E+0	1.885982E+0	1.854589E+0	1.844155E+0	1.890502E+0	1.865137E+0	1.851458E+0	1.916974E+0	1.866786E+0	1.875533E+0	1.915753E+0	1.916973E+0	1.841821E+0	1.757228E+0
5.349740E+2	2.157313E+0	2.179209E+0	2.121437E+0	2.141326E+0	2.156106E+0	2.059194E+0	2.103820E+0	2.124621E+0	2.136433E+0	2.133852E+0	2.072666E+0	2.124228E+0	2.148113E+0	2.072012E+0	2.101843E+0	2.131849E+0	2.143507E+0	2.171219E+0	2.095991E+0	2.057408E+0	2.173935E+0	2.098582E+0	2.088221E+0	2.138574E+0	2.080888E+0	2.104825E+0	2.053671E+0	2.154496E+0	2.056855E+0	2.162273E+0	2.105966E+0	2.121662E+0	2.148448E+0	2.109264E+0	2.112060E+0	2.058115E+0	2.134733E+0	2.099685E+0	2.068017E+0	2.100066E+0	2.184369E+0	2.072190E+0	2.069949E+0	2.123271E+0	2.119716E+0	2.151515E+0	2.010634E+0	2.109444E+0	2.114474E+0	2.101071E+0	2.071565E+0	2.091715E+0	2.143814E+0	2.087602E+0	2.111417E+0	2.092796E+0	2.080021E+0	2.097959E+0	2.055545E+0	2.119046E+0	2.100697E+0	2.039492E+0	2.087660E+0	2.126218E+0	2.141564E+0	2.032916E+0	2.158429E+0	2.089546E+0	2.137759E+0	2.122876E+0	2.070232E+0	2.045908E+0	2.064274E+0	2.112797E+0	2.170177E+0	2.086187E+0	2.060920E+0	2.127479E+0	2.112351E+0	2.116590E+0	2.025865E+0	2.069959E+0	2.073347E+0	2.034772E+0	2.114526E+0	2.126834E+0	2.037246E+0	2.108151E+0	2.151265E+0	2.036878E+0	2.050688E+0	2.034176E+0	2.033105E+0	2.073917E+0	2.035772E+0	2.076877E+0	1.996827E+0	2.090505E+0	2.018100E+0	2.052867E+0	2.128407E+0	2.062645E+0	2.115435E+0	2.129182E+0	2.126952E+0	2.089718E+0	2.032024E+0	2.114202E+0	2.041918E+0	2.084323E+0	2.064230E+0	2.091663E+0	2.098080E+0	2.038468E+0	2.075551E+0	2.020550E+0	2.035539E+0	2.107647E+0	1.990215E+0	2.071164E+0	2.066737E+0	2.079153E+0	1.971579E+0	2.064013E+0	2.066991E+0	2.079098E+0	2.019086E+0	2.081683E+0	2.056107E+0	2.099737E+0	1.929663E+0	2.084472E+0	2.041624E+0	2.022308E+0	2.016751E+0	2.007668E+0	2.005220E+0	2.083443E+0	2.041624E+0	2.041179E+0	2.018521E+0	2.034501E+0	2.019379E+0	2.058020E+0	2.026730E+0	2.054714E+0	2.041875E+0	2.014830E+0	2.048327E+0	2.009674E+0	2.019435E+0	1.990491E+0	2.054984E+0	2.018160E+0	2.041888E+0	2.061730E+0	2.006849E+0	2.064874E+0	2.014644E+0	2.021325E+0	2.010513E+0	2.035538E+0	2.060407E+0	1.998282E+0	2.006125E+0	1.911768E+0	1.985543E+0	2.022851E+0	2.046087E+0	1.956617E+0	1.915350E+0
5.351090E+2	2.154810E+0	2.113399E+0	2.067658E+0	2.120421E+0	2.107836E+0	1.998022E+0	2.010030E+0	2.086852E+0	2.094363E+0	2.057102E+0	2.059816E+0	2.000035E+0	2.092971E+0	2.067769E+0	2.071100E+0	2.018881E+0	2.028240E+0	2.142478E+0	2.035555E+0	2.062071E+0	2.069630E+0	2.086300E+0	2.049734E+0	2.099577E+0	2.111439E+0	2.048507E+0	2.121170E+0	2.069085E+0	1.999255E+0	2.130968E+0	2.097760E+0	2.047547E+0	2.093126E+0	2.161176E+0	2.068966E+0	1.999417E+0	2.057196E+0	2.049388E+0	2.079063E+0	2.022076E+0	2.153064E+0	2.082333E+0	2.016088E+0	2.109068E+0	2.083453E+0	1.994870E+0	2.041002E+0	2.057774E+0	2.085306E+0	2.062175E+0	2.040829E+0	2.013856E+0	2.066292E+0	2.090023E+0	1.975824E+0	1.999837E+0	2.144265E+0	2.076729E+0	1.997508E+0	2.066326E+0	2.086706E+0	2.084904E+0	2.078710E+0	2.060490E+0	2.163982E+0	1.980955E+0	2.041932E+0	2.032839E+0	2.037952E+0	1.976047E+0	1.987031E+0	2.055167E+0	2.000089E+0	2.062661E+0	2.062337E+0	2.091113E+0	1.993841E+0	2.011833E+0	2.063881E+0	2.012452E+0	2.072256E+0	2.123186E+0	2.022952E+0	1.990840E+0	2.119238E+0	2.023882E+0	1.914105E+0	2.016534E+0	2.045756E+0	2.009441E+0	1.959996E+0	2.066453E+0	2.056145E+0	2.021814E+0	2.032857E+0	2.019750E+0	2.006106E+0	2.037994E+0	1.985194E+0	1.923630E+0	2.119728E+0	2.024028E+0	1.985803E+0	2.008201E+0	2.060974E+0	2.066330E+0	2.044685E+0	2.055445E+0	2.021604E+0	2.003411E+0	2.003032E+0	1.972055E+0	2.050190E+0	2.055923E+0	2.011168E+0	2.045531E+0	2.130054E+0	2.091883E+0	2.010776E+0	2.056306E+0	2.037902E+0	2.054032E+0	1.942366E+0	1.962897E+0	1.979022E+0	1.990856E+0	2.026965E+0	2.030831E+0	1.971963E+0	2.073267E+0	1.989195E+0	1.970193E+0	1.986234E+0	1.950851E+0	1.946172E+0	1.963465E+0	2.013152E+0	2.006744E+0	1.946832E+0	2.010433E+0	2.007498E+0	1.952439E+0	1.953580E+0	1.992700E+0	1.984621E+0	1.996993E+0	1.970031E+0	1.958019E+0	2.022411E+0	1.986915E+0	1.974658E+0	1.985949E+0	2.014346E+0	1.989690E+0	2.030859E+0	1.956545E+0	2.000115E+0	2.041470E+0	1.959851E+0	1.973184E+0	2.007754E+0	2.028367E+0	1.995248E+0	1.942871E+0	2.049981E+0	1.924483E+0	1.906162E+0	2.015420E+0	1.986213E+0	1.920680E+0	1.980752E+0
5.352600E+2	1.910608E+0	1.832393E+0	1.824700E+0	1.806587E+0	1.871746E+0	1.781819E+0	1.775209E+0	1.830805E+0	1.833950E+0	1.796776E+0	1.787513E+0	1.781973E+0	1.854751E+0	1.837800E+0	1.797460E+0	1.809494E+0	1.790985E+0	1.869692E+0	1.773153E+0	1.792818E+0	1.825244E+0	1.816673E+0	1.776354E+0	1.851142E+0	1.814551E+0	1.841794E+0	1.821370E+0	1.762219E+0	1.837943E+0	1.834485E+0	1.831117E+0	1.785633E+0	1.826374E+0	1.837218E+0	1.845685E+0	1.833824E+0	1.827175E+0	1.813653E+0	1.872234E+0	1.778699E+0	1.866041E+0	1.807732E+0	1.821553E+0	1.814243E+0	1.830193E+0	1.742205E+0	1.802352E+0	1.802443E+0	1.835171E+0	1.815116E+0	1.769264E+0	1.791957E+0	1.815902E+0	1.825630E+0	1.790609E+0	1.813883E+0	1.850849E+0	1.807569E+0	1.781812E+0	1.784609E+0	1.765784E+0	1.776229E+0	1.824874E+0	1.805307E+0	1.827148E+0	1.786352E+0	1.798276E+0	1.848508E+0	1.808594E+0	1.742474E+0	1.791018E+0	1.876843E+0	1.819035E+0	1.795397E+0	1.788320E+0	1.784543E+0	1.782425E+0	1.783065E+0	1.809378E+0	1.775111E+0	1.800015E+0	1.804502E+0	1.770397E+0	1.698074E+0	1.861952E+0	1.843187E+0	1.754817E+0	1.800080E+0	1.825405E+0	1.800825E+0	1.764543E+0	1.744719E+0	1.837760E+0	1.792729E+0	1.803073E+0	1.800390E+0	1.832980E+0	1.782557E+0	1.787025E+0	1.780428E+0	1.859761E+0	1.782905E+0	1.765958E+0	1.800425E+0	1.847096E+0	1.807487E+0	1.795534E+0	1.808236E+0	1.818143E+0	1.776944E+0	1.777360E+0	1.728793E+0	1.798731E+0	1.832667E+0	1.787222E+0	1.745690E+0	1.868864E+0	1.776512E+0	1.810674E+0	1.818606E+0	1.790606E+0	1.709418E+0	1.738754E+0	1.765059E+0	1.817174E+0	1.793829E+0	1.737755E+0	1.791185E+0	1.731880E+0	1.784461E+0	1.804542E+0	1.769822E+0	1.765614E+0	1.839147E+0	1.705928E+0	1.763887E+0	1.775165E+0	1.814869E+0	1.837056E+0	1.760749E+0	1.789053E+0	1.770908E+0	1.868766E+0	1.759040E+0	1.745372E+0	1.764734E+0	1.725509E+0	1.735597E+0	1.775894E+0	1.834279E+0	1.783329E+0	1.749835E+0	1.830004E+0	1.764628E+0	1.739735E+0	1.759664E+0	1.791818E+0	1.726549E+0	1.787271E+0	1.724375E+0	1.741375E+0	1.773062E+0	1.790047E+0	1.706429E+0	1.801251E+0	1.733346E+0	1.735431E+0	1.773128E+0	1.790774E+0	1.727235E+0	1.834606E+0
5.354110E+2	1.618206E+0	1.543479E+0	1.550798E+0	1.600148E+0	1.557640E+0	1.531777E+0	1.483643E+0	1.569923E+0	1.620473E+0	1.589948E+0	1.558762E+0	1.557700E+0	1.593770E+0	1.576310E+0	1.530700E+0	1.573567E+0	1.611882E+0	1.599836E+0	1.541851E+0	1.601522E+0	1.567968E+0	1.553210E+0	1.532027E+0	1.535888E+0	1.621090E+0	1.541899E+0	1.546203E+0	1.578878E+0	1.537705E+0	1.543780E+0	1.522032E+0	1.536364E+0	1.591846E+0	1.605876E+0	1.538251E+0	1.543045E+0	1.558510E+0	1.527542E+0	1.556713E+0	1.556769E+0	1.566563E+0	1.571292E+0	1.521118E+0	1.543866E+0	1.595247E+0	1.572173E+0	1.524846E+0	1.513526E+0	1.546567E+0	1.528691E+0	1.577596E+0	1.585628E+0	1.582504E+0	1.562553E+0	1.589060E+0	1.563663E+0	1.520309E+0	1.529843E+0	1.536094E+0	1.575022E+0	1.536213E+0	1.560217E+0	1.558508E+0	1.557536E+0	1.582060E+0	1.566999E+0	1.559009E+0	1.509503E+0	1.624249E+0	1.516269E+0	1.575955E+0	1.592321E+0	1.542258E+0	1.505029E+0	1.531035E+0	1.537418E+0	1.565647E+0	1.548776E+0	1.541973E+0	1.562828E+0	1.506265E+0	1.552246E+0	1.449612E+0	1.510411E+0	1.551027E+0	1.562037E+0	1.476481E+0	1.557073E+0	1.508872E+0	1.569510E+0	1.550300E+0	1.575323E+0	1.573913E+0	1.554536E+0	1.535921E+0	1.487973E+0	1.530960E+0	1.574058E+0	1.514195E+0	1.532962E+0	1.583376E+0	1.529518E+0	1.572898E+0	1.516372E+0	1.521562E+0	1.522902E+0	1.516598E+0	1.585710E+0	1.557141E+0	1.564344E+0	1.580818E+0	1.531079E+0	1.541461E+0	1.570508E+0	1.555762E+0	1.534277E+0	1.579239E+0	1.518575E+0	1.526481E+0	1.548469E+0	1.534698E+0	1.538850E+0	1.532652E+0	1.544035E+0	1.545482E+0	1.542019E+0	1.556965E+0	1.553847E+0	1.557649E+0	1.558324E+0	1.543087E+0	1.541645E+0	1.535135E+0	1.530476E+0	1.536455E+0	1.545487E+0	1.552747E+0	1.555002E+0	1.514441E+0	1.544788E+0	1.552605E+0	1.546764E+0	1.528849E+0	1.564744E+0	1.562869E+0	1.548162E+0	1.549350E+0	1.499958E+0	1.563638E+0	1.572777E+0	1.508025E+0	1.480298E+0	1.490915E+0	1.533491E+0	1.514374E+0	1.579554E+0	1.543363E+0	1.542581E+0	1.546053E+0	1.531548E+0	1.478972E+0	1.482292E+0	1.510299E+0	1.529534E+0	1.516784E+0	1.498356E+0	1.488229E+0	1.523094E+0	1.544054E+0	1.581918E+0	1.411999E+0
5.355630E+2	1.334536E+0	1.359849E+0	1.251629E+0	1.289936E+0	1.344760E+0	1.284297E+0	1.307494E+0	1.300830E+0	1.307085E+0	1.319717E+0	1.254354E+0	1.281642E+0	1.350928E+0	1.305704E+0	1.312862E+0	1.256463E+0	1.294261E+0	1.361484E+0	1.283625E+0	1.262107E+0	1.328359E+0	1.326535E+0	1.290379E+0	1.288370E+0	1.325414E+0	1.270441E+0	1.301021E+0	1.264015E+0	1.256303E+0	1.298370E+0	1.345992E+0	1.306934E+0	1.303943E+0	1.365876E+0	1.300369E+0	1.304408E+0	1.273214E+0	1.265928E+0	1.305495E+0	1.297521E+0	1.272283E+0	1.302849E+0	1.336698E+0	1.272391E+0	1.347820E+0	1.302666E+0	1.273466E+0	1.264214E+0	1.303398E+0	1.310714E+0	1.303122E+0	1.279772E+0	1.268251E+0	1.269098E+0	1.295018E+0	1.250481E+0	1.297847E+0	1.388936E+0	1.298951E+0	1.299774E+0	1.291700E+0	1.300436E+0	1.326739E+0	1.328169E+0	1.367363E+0	1.294154E+0	1.326029E+0	1.295097E+0	1.319733E+0	1.266626E+0	1.313659E+0	1.333342E+0	1.267619E+0	1.297676E+0	1.253843E+0	1.308585E+0	1.252807E+0	1.312068E+0	1.272114E+0	1.293305E+0	1.237839E+0	1.260061E+0	1.280034E+0	1.276036E+0	1.350547E+0	1.318779E+0	1.277393E+0	1.270155E+0	1.252990E+0	1.312073E+0	1.283398E+0	1.300111E+0	1.255275E+0	1.310694E+0	1.261105E+0	1.311273E+0	1.292950E+0	1.296677E+0	1.263051E+0	1.259064E+0	1.295383E+0	1.270270E+0	1.306487E+0	1.304959E+0	1.300359E+0	1.281039E+0	1.288963E+0	1.295423E+0	1.290925E+0	1.299160E+0	1.300751E+0	1.258416E+0	1.260400E+0	1.298281E+0	1.256974E+0	1.257408E+0	1.277619E+0	1.320951E+0	1.329723E+0	1.277687E+0	1.293271E+0	1.262962E+0	1.298146E+0	1.249739E+0	1.319011E+0	1.265844E+0	1.275791E+0	1.344936E+0	1.307143E+0	1.299833E+0	1.252178E+0	1.272574E+0	1.258887E+0	1.299307E+0	1.291567E+0	1.296909E+0	1.240692E+0	1.297237E+0	1.248597E+0	1.329109E+0	1.285445E+0	1.276558E+0	1.340425E+0	1.225127E+0	1.254967E+0	1.282490E+0	1.272549E+0	1.260686E+0	1.266220E+0	1.254048E+0	1.282095E+0	1.256031E+0	1.256987E+0	1.304548E+0	1.279707E+0	1.304331E+0	1.279674E+0	1.291860E+0	1.271511E+0	1.304896E+0	1.293731E+0	1.334425E+0	1.331148E+0	1.217501E+0	1.337361E+0	1.280139E+0	1.270389E+0	1.300402E+0	1.222813E+0	1.268052E+0	1.313937E+0
5.357190E+2	1.149402E+0	1.126739E+0	1.083352E+0	1.140019E+0	1.109615E+0	1.121669E+0	1.094691E+0	1.097111E+0	1.136955E+0	1.153530E+0	1.129093E+0	1.066678E+0	1.127381E+0	1.158433E+0	1.136114E+0	1.148964E+0	1.156368E+0	1.171559E+0	1.155750E+0	1.135235E+0	1.137722E+0	1.139500E+0	1.135749E+0	1.136313E+0	1.126980E+0	1.134914E+0	1.152463E+0	1.092277E+0	1.132300E+0	1.154610E+0	1.122737E+0	1.113290E+0	1.175969E+0	1.148096E+0	1.109205E+0	1.098519E+0	1.122850E+0	1.087905E+0	1.154078E+0	1.102690E+0	1.177557E+0	1.174928E+0	1.055659E+0	1.179773E+0	1.114665E+0	1.143204E+0	1.132367E+0	1.131300E+0	1.113479E+0	1.159404E+0	1.130523E+0	1.180966E+0	1.150749E+0	1.116944E+0	1.133726E+0	1.149826E+0	1.120835E+0	1.144506E+0	1.139516E+0	1.095784E+0	1.124345E+0	1.147464E+0	1.144660E+0	1.152346E+0	1.176376E+0	1.119369E+0	1.109100E+0	1.090797E+0	1.162426E+0	1.151835E+0	1.142368E+0	1.184735E+0	1.101783E+0	1.115626E+0	1.119011E+0	1.091223E+0	1.127594E+0	1.137917E+0	1.148045E+0	1.154787E+0	1.097422E+0	1.136580E+0	1.145028E+0	1.117661E+0	1.122574E+0	1.160504E+0	1.081778E+0	1.153130E+0	1.131692E+0	1.153076E+0	1.144479E+0	1.146818E+0	1.150560E+0	1.102273E+0	1.099930E+0	1.150247E+0	1.161112E+0	1.131558E+0	1.080521E+0	1.091437E+0	1.187173E+0	1.075237E+0	1.151759E+0	1.168113E+0	1.136207E+0	1.119589E+0	1.075204E+0	1.114951E+0	1.127485E+0	1.102862E+0	1.148053E+0	1.109610E+0	1.151471E+0	1.121153E+0	1.162078E+0	1.152900E+0	1.095715E+0	1.147478E+0	1.136354E+0	1.145951E+0	1.171895E+0	1.110128E+0	1.097288E+0	1.145338E+0	1.193480E+0	1.146786E+0	1.121667E+0	1.123817E+0	1.117118E+0	1.137295E+0	1.099388E+0	1.192847E+0	1.115481E+0	1.154161E+0	1.157846E+0	1.114540E+0	1.091426E+0	1.188546E+0	1.123555E+0	1.104893E+0	1.118996E+0	1.135148E+0	1.146398E+0	1.112338E+0	1.112812E+0	1.150416E+0	1.115709E+0	1.122097E+0	1.116566E+0	1.209289E+0	1.167819E+0	1.118210E+0	1.159095E+0	1.126675E+0	1.148090E+0	1.173503E+0	1.118885E+0	1.182218E+0	1.093431E+0	1.054127E+0	1.087848E+0	1.139137E+0	1.152720E+0	1.141947E+0	1.113693E+0	1.073655E+0	1.114932E+0	1.118059E+0	1.059912E+0	1.022741E+0	9.821430E-1
5.358650E+2	1.004307E+0	9.722361E-1	9.980520E-1	9.863399E-1	9.859541E-1	9.825307E-1	9.555142E-1	9.611066E-1	9.300107E-1	9.258937E-1	9.232232E-1	9.119367E-1	9.725622E-1	9.545413E-1	9.470161E-1	9.798985E-1	9.359783E-1	9.942080E-1	9.518969E-1	9.912742E-1	9.828253E-1	1.018260E+0	9.790672E-1	9.573921E-1	9.839208E-1	9.720508E-1	9.518616E-1	9.629374E-1	9.488692E-1	9.950303E-1	9.635467E-1	9.383829E-1	9.463894E-1	1.024180E+0	9.361691E-1	9.935452E-1	9.752323E-1	9.463803E-1	9.784317E-1	9.368106E-1	9.644030E-1	9.197501E-1	9.530503E-1	9.719661E-1	9.892012E-1	9.813194E-1	9.830045E-1	9.481620E-1	9.713699E-1	9.827562E-1	8.855751E-1	9.321690E-1	9.626543E-1	1.027650E+0	9.659678E-1	9.647870E-1	9.427206E-1	9.801317E-1	9.335325E-1	1.025477E+0	9.304906E-1	9.511043E-1	1.010700E+0	9.978096E-1	1.030153E+0	9.478990E-1	9.747140E-1	9.712064E-1	9.474403E-1	9.471429E-1	9.378954E-1	9.987963E-1	9.650901E-1	9.804246E-1	9.590563E-1	9.603566E-1	9.588952E-1	9.864263E-1	9.718135E-1	9.583776E-1	9.244475E-1	9.605797E-1	9.537882E-1	9.370425E-1	9.892516E-1	9.817105E-1	9.462853E-1	9.428369E-1	9.731660E-1	9.501063E-1	9.696102E-1	9.719055E-1	9.393588E-1	9.524907E-1	9.105971E-1	9.969169E-1	9.849866E-1	9.825987E-1	9.529723E-1	9.580607E-1	9.891057E-1	9.738966E-1	9.574139E-1	9.967565E-1	9.927938E-1	9.833472E-1	9.652499E-1	1.005794E+0	1.006772E+0	9.842705E-1	9.658436E-1	9.664734E-1	9.220724E-1	9.573180E-1	9.398786E-1	9.703273E-1	9.284920E-1	9.545358E-1	9.906419E-1	9.898257E-1	9.663829E-1	9.695064E-1	9.417331E-1	9.668596E-1	9.780667E-1	1.017360E+0	9.953693E-1	9.592664E-1	9.761484E-1	9.636384E-1	9.402487E-1	9.862341E-1	9.731979E-1	9.421932E-1	9.495146E-1	9.741652E-1	9.660194E-1	1.003740E+0	9.842985E-1	9.499878E-1	9.393352E-1	9.770250E-1	9.980726E-1	9.562573E-1	9.502075E-1	9.768444E-1	9.647996E-1	9.159033E-1	9.783052E-1	9.662117E-1	9.683640E-1	9.627473E-1	9.530394E-1	9.384120E-1	1.018904E+0	9.407746E-1	9.516814E-1	9.779310E-1	9.665839E-1	9.640860E-1	9.365359E-1	9.511451E-1	1.010714E+0	9.783831E-1	9.642118E-1	9.272330E-1	9.700290E-1	9.655268E-1	9.747698E-1	1.008131E+0	9.119528E-1
5.360120E+2	8.518913E-1	8.290723E-1	8.222213E-1	7.944614E-1	8.141703E-1	8.065925E-1	8.092512E-1	7.891935E-1	8.204180E-1	8.042211E-1	7.950678E-1	8.106100E-1	8.235911E-1	8.104182E-1	8.216482E-1	7.959892E-1	8.329231E-1	8.282125E-1	8.169170E-1	8.157346E-1	8.089974E-1	8.532887E-1	7.668728E-1	8.447975E-1	7.752538E-1	7.973075E-1	8.049796E-1	8.134404E-1	8.030375E-1	7.807646E-1	8.177026E-1	8.295454E-1	8.002975E-1	8.063918E-1	7.678970E-1	8.458013E-1	8.060129E-1	8.087441E-1	7.970973E-1	8.126896E-1	8.298512E-1	8.516815E-1	8.160728E-1	8.019247E-1	8.391267E-1	8.346507E-1	8.209221E-1	8.203479E-1	7.920000E-1	8.378032E-1	8.189851E-1	8.273338E-1	7.901672E-1	8.181242E-1	8.422274E-1	7.366764E-1	7.956955E-1	8.350079E-1	7.532240E-1	7.956503E-1	7.819955E-1	7.966234E-1	8.083442E-1	8.150428E-1	8.531809E-1	8.270414E-1	8.345206E-1	8.260700E-1	8.372364E-1	8.299557E-1	8.319240E-1	7.842899E-1	8.483100E-1	7.954483E-1	8.047499E-1	8.522846E-1	8.295429E-1	7.856881E-1	8.044295E-1	8.273708E-1	7.988407E-1	8.546612E-1	7.806553E-1	7.851196E-1	8.471595E-1	8.348246E-1	7.974737E-1	7.851254E-1	8.001156E-1	8.360780E-1	8.163940E-1	8.000096E-1	8.111699E-1	7.745438E-1	8.143993E-1	8.097817E-1	7.890793E-1	8.509878E-1	8.360601E-1	7.993109E-1	8.351275E-1	7.707402E-1	8.050083E-1	8.128505E-1	8.265616E-1	8.077919E-1	7.768387E-1	7.977881E-1	8.318109E-1	8.187110E-1	8.375436E-1	8.206859E-1	8.025299E-1	8.000112E-1	8.637296E-1	8.066458E-1	8.028868E-1	8.493040E-1	8.267823E-1	8.270530E-1	8.403812E-1	7.816508E-1	7.829609E-1	8.235499E-1	8.037205E-1	8.009832E-1	8.309434E-1	7.992336E-1	8.172842E-1	7.846038E-1	8.314237E-1	8.263819E-1	8.289694E-1	7.948483E-1	8.072105E-1	8.148898E-1	8.669279E-1	8.616709E-1	8.276691E-1	8.267502E-1	7.730701E-1	8.043849E-1	8.133015E-1	7.913835E-1	7.916772E-1	7.918346E-1	8.039655E-1	8.234029E-1	7.949959E-1	8.161525E-1	8.480585E-1	8.130170E-1	8.277603E-1	8.527192E-1	8.578718E-1	7.840872E-1	8.219282E-1	8.372966E-1	8.061685E-1	8.687851E-1	8.024684E-1	7.981008E-1	8.332803E-1	7.978707E-1	8.001840E-1	8.274825E-1	8.059464E-1	8.185206E-1	8.136673E-1	7.503886E-1	8.330498E-1
5.362730E+2	6.127438E-1	6.187997E-1	6.126357E-1	6.427586E-1	6.272005E-1	6.131711E-1	5.838558E-1	6.128040E-1	6.077144E-1	6.170187E-1	5.985770E-1	5.959080E-1	5.843220E-1	6.152350E-1	6.334149E-1	6.217105E-1	6.274002E-1	6.272598E-1	6.356523E-1	6.099426E-1	6.111062E-1	5.902581E-1	5.961654E-1	6.237966E-1	6.205883E-1	5.849888E-1	5.640491E-1	6.194643E-1	5.923094E-1	6.069465E-1	6.085926E-1	6.262881E-1	6.128557E-1	5.975031E-1	5.866353E-1	6.155206E-1	5.906304E-1	6.464477E-1	5.983106E-1	6.236575E-1	6.062982E-1	6.290994E-1	6.100253E-1	6.372851E-1	6.150230E-1	6.051272E-1	6.121135E-1	6.212416E-1	6.101842E-1	6.363212E-1	5.955937E-1	6.428279E-1	5.694000E-1	5.989851E-1	6.213826E-1	5.726209E-1	6.048173E-1	6.029113E-1	6.090197E-1	5.971020E-1	6.313519E-1	5.996185E-1	6.043778E-1	6.080548E-1	6.310432E-1	6.077779E-1	5.998672E-1	6.111184E-1	6.278514E-1	5.594728E-1	6.299968E-1	6.080442E-1	6.467910E-1	6.349650E-1	6.367596E-1	6.091367E-1	5.988796E-1	5.995615E-1	6.041362E-1	6.106701E-1	6.476049E-1	6.252260E-1	6.363609E-1	6.224350E-1	6.466530E-1	5.955243E-1	6.019638E-1	6.023313E-1	6.212239E-1	6.219981E-1	6.194405E-1	6.570850E-1	6.220968E-1	6.325931E-1	5.619605E-1	6.216805E-1	5.818082E-1	6.449738E-1	6.215146E-1	6.369466E-1	6.081090E-1	6.064811E-1	6.094351E-1	6.245460E-1	6.032496E-1	5.948473E-1	6.037359E-1	6.216764E-1	6.060238E-1	6.052109E-1	6.107768E-1	5.772042E-1	6.046186E-1	6.239850E-1	6.000220E-1	5.791304E-1	5.993393E-1	6.124605E-1	6.380745E-1	6.254620E-1	5.949305E-1	5.810916E-1	6.010013E-1	6.051742E-1	6.184594E-1	6.171070E-1	5.965561E-1	6.202102E-1	6.002426E-1	6.086915E-1	6.166752E-1	6.218279E-1	6.242242E-1	6.148867E-1	6.269133E-1	5.874363E-1	6.270849E-1	6.385069E-1	6.168563E-1	6.128302E-1	6.291556E-1	6.095583E-1	6.268269E-1	6.227922E-1	6.102762E-1	6.594238E-1	6.617821E-1	6.183593E-1	5.930571E-1	6.207183E-1	6.210625E-1	5.987697E-1	6.281252E-1	6.210982E-1	6.374994E-1	6.036031E-1	6.537869E-1	6.138341E-1	6.121026E-1	6.171125E-1	6.048758E-1	6.464896E-1	6.215041E-1	6.086405E-1	6.243397E-1	6.025549E-1	6.515380E-1	6.519451E-1	5.864600E-1	6.069013E-1	6.246866E-1
5.365140E+2	5.515033E-1	5.108068E-1	5.357402E-1	5.621666E-1	5.576311E-1	5.305546E-1	4.985783E-1	5.420112E-1	5.341549E-1	5.159684E-1	5.466092E-1	5.499081E-1	4.895582E-1	5.484147E-1	5.311648E-1	5.151937E-1	5.008351E-1	5.451000E-1	5.300886E-1	4.944500E-1	5.665497E-1	4.954916E-1	5.028129E-1	5.232700E-1	5.489048E-1	5.008503E-1	5.445563E-1	5.196739E-1	5.471819E-1	5.532346E-1	5.236238E-1	5.302039E-1	5.591265E-1	5.407529E-1	5.028942E-1	5.534250E-1	5.238215E-1	5.433755E-1	5.432299E-1	5.269652E-1	5.522550E-1	5.314138E-1	5.129549E-1	5.368184E-1	5.271837E-1	5.349820E-1	5.239732E-1	5.365039E-1	5.067051E-1	5.457727E-1	5.325612E-1	5.135753E-1	5.195548E-1	5.089989E-1	5.333292E-1	5.338794E-1	5.455808E-1	5.444981E-1	5.200746E-1	5.491120E-1	5.343846E-1	5.700278E-1	5.411262E-1	5.303177E-1	5.548751E-1	5.192932E-1	5.361906E-1	5.649047E-1	5.575172E-1	5.331342E-1	5.466681E-1	5.471205E-1	5.186084E-1	5.598954E-1	5.269125E-1	5.123556E-1	5.221961E-1	5.344081E-1	5.145221E-1	5.094809E-1	5.064636E-1	5.642749E-1	5.006007E-1	5.453872E-1	5.679227E-1	5.336612E-1	5.463824E-1	5.094117E-1	5.530073E-1	5.267347E-1	5.534184E-1	5.273052E-1	5.189606E-1	5.475924E-1	5.424890E-1	5.421265E-1	5.420304E-1	5.443898E-1	5.486812E-1	5.308114E-1	5.673369E-1	5.240365E-1	5.254771E-1	5.381164E-1	5.503563E-1	5.652099E-1	4.988487E-1	5.204328E-1	5.149296E-1	5.341906E-1	5.144128E-1	5.344348E-1	5.618743E-1	5.107991E-1	5.356751E-1	5.120002E-1	5.410113E-1	5.595540E-1	5.294203E-1	5.430647E-1	5.123066E-1	5.225984E-1	5.379821E-1	5.401920E-1	5.516860E-1	5.488183E-1	5.194526E-1	5.679645E-1	5.765309E-1	5.205733E-1	5.318837E-1	5.419663E-1	5.093521E-1	5.450062E-1	5.249101E-1	5.160821E-1	5.321753E-1	5.476011E-1	5.708926E-1	5.668597E-1	5.238673E-1	5.679983E-1	5.469578E-1	5.421953E-1	5.408182E-1	5.528735E-1	5.478503E-1	5.396862E-1	5.342597E-1	5.553398E-1	5.602436E-1	5.363492E-1	5.430703E-1	5.296495E-1	5.249096E-1	5.208373E-1	5.492068E-1	5.460644E-1	5.305393E-1	5.660842E-1	5.456625E-1	5.628342E-1	5.557277E-1	5.022421E-1	5.255344E-1	5.520135E-1	5.171366E-1	5.452731E-1	5.171557E-1	5.037589E-1	4.821601E-1
5.367710E+2	5.399026E-1	5.112962E-1	5.048823E-1	4.822109E-1	5.127545E-1	5.371638E-1	5.498894E-1	5.178800E-1	5.393755E-1	5.235672E-1	5.266078E-1	5.300626E-1	5.188040E-1	5.383312E-1	5.125541E-1	5.014822E-1	5.525306E-1	5.141754E-1	5.539492E-1	5.340336E-1	5.250565E-1	5.083832E-1	4.886357E-1	5.232723E-1	5.429593E-1	5.277376E-1	4.739397E-1	5.252506E-1	4.920359E-1	5.367309E-1	5.002137E-1	5.275263E-1	5.443062E-1	5.109057E-1	5.022850E-1	5.098925E-1	5.185456E-1	5.292293E-1	5.556416E-1	5.383742E-1	5.280784E-1	5.468491E-1	5.262965E-1	5.388974E-1	5.264738E-1	4.904016E-1	5.254370E-1	5.495793E-1	5.044440E-1	5.330063E-1	4.912940E-1	5.151420E-1	4.939699E-1	5.307818E-1	5.588740E-1	5.148302E-1	5.204182E-1	5.336067E-1	5.154390E-1	5.168889E-1	4.990010E-1	5.010905E-1	5.343346E-1	5.099544E-1	5.250403E-1	5.146951E-1	5.069643E-1	5.162291E-1	5.417267E-1	5.108077E-1	5.380357E-1	5.381733E-1	5.334465E-1	4.997467E-1	5.332074E-1	5.036152E-1	5.357229E-1	5.077650E-1	5.277778E-1	4.847266E-1	5.202955E-1	5.214654E-1	5.275679E-1	5.437432E-1	5.469510E-1	5.126533E-1	5.287976E-1	5.384858E-1	5.352215E-1	5.112757E-1	5.046636E-1	5.561649E-1	5.531403E-1	5.370189E-1	5.408530E-1	5.214165E-1	5.167728E-1	5.233178E-1	4.863141E-1	5.089425E-1	5.658463E-1	5.001212E-1	5.280606E-1	5.252643E-1	5.108377E-1	4.758828E-1	5.009517E-1	5.073549E-1	5.481380E-1	5.087273E-1	5.490225E-1	5.532123E-1	5.038677E-1	5.079152E-1	5.026557E-1	5.286615E-1	5.238552E-1	5.459306E-1	5.334618E-1	5.177379E-1	5.245929E-1	5.361183E-1	5.148461E-1	5.261083E-1	4.827633E-1	5.201848E-1	5.365270E-1	5.381354E-1	4.935868E-1	5.254560E-1	5.452674E-1	5.413265E-1	5.213711E-1	5.527176E-1	5.451210E-1	5.195824E-1	5.127013E-1	5.155688E-1	5.448215E-1	5.269190E-1	5.268662E-1	5.319372E-1	5.433317E-1	5.100664E-1	5.263258E-1	5.165567E-1	5.274655E-1	4.929885E-1	5.344942E-1	5.059196E-1	5.310623E-1	5.011110E-1	5.039150E-1	5.155109E-1	5.194756E-1	5.478533E-1	5.487098E-1	4.952953E-1	5.169419E-1	5.365908E-1	5.048444E-1	5.390996E-1	5.304819E-1	5.518971E-1	5.477654E-1	5.322824E-1	5.463928E-1	5.108981E-1	5.263366E-1	5.317562E-1	5.699730E-1
5.370010E+2	5.593288E-1	5.324891E-1	5.538908E-1	5.195037E-1	5.283918E-1	5.632037E-1	5.454368E-1	5.616153E-1	5.290603E-1	5.011190E-1	5.240672E-1	5.192699E-1	5.475579E-1	5.456304E-1	5.927572E-1	5.407925E-1	5.149257E-1	5.731972E-1	5.609628E-1	5.590342E-1	5.566086E-1	5.210345E-1	5.401691E-1	5.229381E-1	5.729686E-1	5.304933E-1	5.366471E-1	5.561889E-1	5.453915E-1	5.330545E-1	5.340153E-1	5.974983E-1	5.692822E-1	5.345619E-1	5.291737E-1	5.514499E-1	5.695012E-1	5.486332E-1	5.384229E-1	5.527022E-1	5.626147E-1	5.727129E-1	5.647831E-1	5.620637E-1	5.522864E-1	5.943603E-1	5.336855E-1	5.431609E-1	5.491218E-1	5.328051E-1	5.389850E-1	5.653271E-1	5.438221E-1	5.304501E-1	5.402324E-1	5.479952E-1	5.364541E-1	5.550901E-1	5.389811E-1	5.708207E-1	5.281941E-1	5.222343E-1	5.564635E-1	5.442422E-1	5.594515E-1	5.544791E-1	5.667288E-1	5.396892E-1	5.648770E-1	5.510299E-1	5.605020E-1	5.605324E-1	5.623796E-1	5.585592E-1	5.444723E-1	5.763446E-1	5.842780E-1	5.521262E-1	5.760968E-1	5.543215E-1	5.315047E-1	5.405003E-1	5.820499E-1	5.277970E-1	5.472775E-1	5.594782E-1	5.442320E-1	5.632700E-1	5.456876E-1	5.679547E-1	5.292872E-1	5.719334E-1	5.317489E-1	5.282754E-1	5.393618E-1	5.672442E-1	5.376750E-1	5.654034E-1	5.651993E-1	5.368927E-1	5.399129E-1	5.548927E-1	5.643503E-1	5.553312E-1	5.582697E-1	5.459489E-1	5.687930E-1	5.673626E-1	5.656149E-1	5.325684E-1	5.479672E-1	5.574049E-1	5.378614E-1	5.662884E-1	5.793813E-1	5.500318E-1	5.487065E-1	5.505214E-1	5.720914E-1	5.237642E-1	5.568329E-1	5.815419E-1	5.618466E-1	5.705677E-1	5.411840E-1	5.521739E-1	5.298404E-1	5.535417E-1	4.805020E-1	5.417491E-1	5.596847E-1	5.623531E-1	5.554322E-1	5.522445E-1	5.623556E-1	5.563198E-1	5.108820E-1	5.337498E-1	5.562827E-1	6.025028E-1	5.384031E-1	5.261802E-1	5.529709E-1	5.542779E-1	5.779168E-1	5.583146E-1	5.654553E-1	5.917775E-1	5.584268E-1	6.162542E-1	5.301640E-1	6.007603E-1	5.758936E-1	5.618386E-1	5.449342E-1	5.613199E-1	5.724148E-1	5.358353E-1	5.496969E-1	5.586218E-1	5.311929E-1	5.572933E-1	5.724157E-1	5.626851E-1	5.612995E-1	5.529122E-1	5.936627E-1	5.826817E-1	5.590255E-1	5.172351E-1	5.152529E-1
5.372640E+2	6.328014E-1	6.250713E-1	6.552737E-1	6.354116E-1	6.608737E-1	6.477435E-1	6.578564E-1	6.084742E-1	6.261661E-1	6.585956E-1	6.089491E-1	6.810458E-1	6.193414E-1	6.126653E-1	6.142336E-1	6.463012E-1	6.370268E-1	6.464054E-1	6.461724E-1	6.397594E-1	6.363368E-1	6.531251E-1	6.388025E-1	6.467331E-1	6.300140E-1	6.025793E-1	6.356962E-1	6.204883E-1	6.181208E-1	6.073792E-1	6.485661E-1	6.298244E-1	5.886702E-1	6.239919E-1	6.210193E-1	6.066598E-1	6.285969E-1	6.215805E-1	6.135506E-1	6.279249E-1	6.193699E-1	6.157866E-1	6.288887E-1	6.524013E-1	6.406248E-1	6.472964E-1	6.155531E-1	6.031212E-1	6.109936E-1	6.309563E-1	6.450830E-1	6.474724E-1	6.175450E-1	6.195449E-1	6.365359E-1	6.341211E-1	6.377817E-1	6.610608E-1	6.011673E-1	6.346767E-1	6.613263E-1	6.534126E-1	6.042489E-1	6.566495E-1	6.944870E-1	6.430943E-1	6.165062E-1	6.439252E-1	6.447738E-1	6.175688E-1	6.263954E-1	6.642069E-1	6.223519E-1	6.261997E-1	6.466498E-1	6.284278E-1	6.343383E-1	6.623572E-1	6.459536E-1	6.455554E-1	6.071477E-1	6.482165E-1	5.987206E-1	6.238565E-1	6.056124E-1	6.510325E-1	6.438832E-1	5.892734E-1	6.341082E-1	6.488279E-1	6.606712E-1	6.378653E-1	6.591926E-1	6.304984E-1	6.508452E-1	6.705304E-1	6.444040E-1	6.708034E-1	6.611967E-1	6.271138E-1	6.123656E-1	5.916498E-1	6.358923E-1	6.468065E-1	6.514236E-1	6.387654E-1	6.432858E-1	6.579901E-1	6.311512E-1	6.486815E-1	6.463605E-1	6.395601E-1	6.468119E-1	6.409585E-1	6.169019E-1	6.384451E-1	6.736705E-1	6.522071E-1	6.429877E-1	6.125308E-1	6.566045E-1	6.474052E-1	6.352391E-1	6.261168E-1	6.684437E-1	6.329503E-1	6.441733E-1	6.241998E-1	6.366226E-1	6.517959E-1	6.537650E-1	6.405470E-1	6.392138E-1	6.254779E-1	6.526664E-1	6.129708E-1	6.508089E-1	6.501916E-1	6.609389E-1	6.473364E-1	6.371125E-1	6.343879E-1	6.275168E-1	6.307094E-1	6.369418E-1	6.373652E-1	6.306954E-1	6.694428E-1	6.274992E-1	6.503621E-1	6.385310E-1	6.802510E-1	6.528416E-1	6.595632E-1	6.360330E-1	6.047724E-1	6.493394E-1	6.113552E-1	6.398898E-1	6.173607E-1	6.202043E-1	6.390961E-1	6.446089E-1	6.118283E-1	6.265407E-1	6.345491E-1	6.336578E-1	6.758327E-1	6.718856E-1	6.068863E-1	6.618579E-1
5.375160E+2	7.633793E-1	7.664894E-1	7.125332E-1	7.271304E-1	7.272988E-1	7.288382E-1	7.306004E-1	7.640019E-1	7.229134E-1	7.577555E-1	7.812376E-1	7.486665E-1	7.582001E-1	7.838721E-1	7.774682E-1	7.855292E-1	7.452675E-1	7.751302E-1	7.210016E-1	7.329895E-1	7.912220E-1	7.493384E-1	7.647937E-1	7.705157E-1	7.177340E-1	7.507443E-1	7.633410E-1	7.396240E-1	7.323885E-1	7.575920E-1	7.508111E-1	7.518807E-1	7.477856E-1	7.397620E-1	7.359226E-1	7.408235E-1	7.832791E-1	7.468880E-1	7.798918E-1	7.413313E-1	7.589549E-1	7.335728E-1	7.144138E-1	7.356085E-1	7.562405E-1	7.223007E-1	7.358051E-1	7.395021E-1	7.263781E-1	7.412639E-1	7.658076E-1	7.758367E-1	7.663659E-1	7.703215E-1	7.824927E-1	7.178601E-1	7.456473E-1	7.592462E-1	7.329047E-1	7.379149E-1	7.355116E-1	7.604989E-1	7.184256E-1	7.532492E-1	7.215641E-1	7.340234E-1	7.544277E-1	7.663757E-1	7.533763E-1	7.672132E-1	7.475466E-1	7.424505E-1	7.440178E-1	7.971733E-1	7.669515E-1	7.886494E-1	7.938617E-1	7.753922E-1	7.519980E-1	7.745644E-1	7.573353E-1	7.527423E-1	7.108657E-1	7.596028E-1	7.255479E-1	7.416222E-1	7.343640E-1	7.644588E-1	8.021408E-1	7.456160E-1	7.363219E-1	7.849895E-1	7.531277E-1	7.638482E-1	7.503501E-1	7.350200E-1	7.625205E-1	7.684298E-1	7.232185E-1	7.324921E-1	7.354190E-1	7.344008E-1	7.683125E-1	7.833206E-1	7.384686E-1	7.383523E-1	7.266788E-1	7.499804E-1	7.758410E-1	7.375392E-1	7.500935E-1	7.834340E-1	7.498513E-1	7.580811E-1	7.430284E-1	7.239959E-1	7.635866E-1	7.899371E-1	7.535560E-1	7.957584E-1	7.496178E-1	7.732179E-1	7.286301E-1	7.040259E-1	7.521619E-1	7.633061E-1	7.325945E-1	7.682587E-1	7.747561E-1	7.843022E-1	7.340929E-1	7.225262E-1	7.426982E-1	7.159823E-1	7.482759E-1	7.808219E-1	7.502073E-1	7.718807E-1	7.504797E-1	7.939133E-1	7.450598E-1	7.572214E-1	7.604167E-1	7.458757E-1	7.770267E-1	7.221122E-1	7.599784E-1	7.500568E-1	7.417992E-1	7.401303E-1	7.715762E-1	7.434478E-1	7.585866E-1	7.290432E-1	7.618004E-1	7.368784E-1	7.703179E-1	7.565889E-1	7.514610E-1	8.043896E-1	7.468373E-1	7.287366E-1	7.638517E-1	7.088494E-1	7.444155E-1	7.320091E-1	7.625663E-1	7.848579E-1	7.474554E-1	7.597509E-1	7.779964E-1
5.377580E+2	8.366146E-1	8.184092E-1	8.528494E-1	8.722102E-1	8.459544E-1	8.562468E-1	8.165969E-1	8.705143E-1	8.548440E-1	8.886964E-1	8.724759E-1	8.300157E-1	8.714302E-1	8.284259E-1	8.437582E-1	8.194742E-1	8.520889E-1	8.446674E-1	8.124793E-1	8.722921E-1	8.760376E-1	9.021741E-1	8.039272E-1	8.623020E-1	8.637593E-1	8.195294E-1	8.246514E-1	8.386169E-1	8.577677E-1	8.575839E-1	8.681422E-1	8.452734E-1	8.273076E-1	8.575186E-1	8.819475E-1	8.571016E-1	8.600262E-1	8.131339E-1	8.416989E-1	8.290095E-1	8.193804E-1	8.367204E-1	8.242838E-1	8.394161E-1	8.651344E-1	8.860777E-1	8.291728E-1	8.881330E-1	8.638081E-1	8.641265E-1	8.473232E-1	8.488381E-1	8.531071E-1	8.367666E-1	8.810634E-1	8.465025E-1	8.311220E-1	8.388624E-1	8.352837E-1	8.808821E-1	8.257916E-1	8.512505E-1	8.548356E-1	8.915610E-1	8.773246E-1	8.786103E-1	8.944934E-1	8.414937E-1	8.331512E-1	8.355327E-1	8.601099E-1	8.640598E-1	8.533710E-1	8.176226E-1	8.318369E-1	8.841321E-1	8.520270E-1	8.790626E-1	8.396762E-1	8.588587E-1	8.468623E-1	8.624677E-1	8.782131E-1	8.273409E-1	8.411013E-1	8.821983E-1	8.691695E-1	8.358884E-1	8.661463E-1	8.081959E-1	8.332435E-1	8.486270E-1	8.347428E-1	8.608721E-1	8.600571E-1	8.067277E-1	8.166929E-1	8.283081E-1	8.462009E-1	8.324477E-1	8.760589E-1	8.520216E-1	8.293787E-1	8.740718E-1	8.514241E-1	8.444971E-1	8.074930E-1	8.501248E-1	8.755279E-1	8.329483E-1	8.475698E-1	8.205753E-1	8.534272E-1	8.399740E-1	8.479145E-1	8.181347E-1	8.477051E-1	8.475406E-1	8.449145E-1	8.483136E-1	8.513462E-1	7.867718E-1	8.184347E-1	8.470442E-1	8.771837E-1	8.617407E-1	8.622138E-1	8.428175E-1	7.726627E-1	8.132970E-1	8.664744E-1	8.270832E-1	8.265916E-1	8.357417E-1	8.218024E-1	8.547475E-1	8.281896E-1	8.530271E-1	8.255271E-1	8.190518E-1	8.428664E-1	8.898618E-1	8.376294E-1	8.059781E-1	8.670199E-1	8.418562E-1	8.913238E-1	8.266272E-1	8.311674E-1	8.290918E-1	8.332738E-1	8.431599E-1	8.749065E-1	8.434223E-1	8.399749E-1	8.793170E-1	8.403104E-1	8.693089E-1	8.584247E-1	8.243808E-1	8.668705E-1	8.650243E-1	8.817555E-1	8.539606E-1	8.546433E-1	8.356813E-1	8.928611E-1	8.748902E-1	8.757928E-1	8.117814E-1	8.924958E-1
5.380160E+2	1.006991E+0	9.920586E-1	1.010345E+0	9.756816E-1	1.017600E+0	9.775670E-1	9.837270E-1	9.922427E-1	1.012400E+0	1.033652E+0	9.732215E-1	9.563154E-1	9.832936E-1	9.838654E-1	9.740766E-1	9.978939E-1	9.905173E-1	1.016026E+0	9.371776E-1	9.894495E-1	9.531997E-1	9.881420E-1	9.850560E-1	9.694568E-1	9.649272E-1	9.651122E-1	9.645257E-1	1.002446E+0	9.482861E-1	9.661353E-1	1.018447E+0	9.678343E-1	9.402629E-1	9.652394E-1	1.007217E+0	1.014707E+0	1.017805E+0	1.027062E+0	9.751562E-1	9.961612E-1	1.014906E+0	9.931035E-1	1.000642E+0	9.829592E-1	9.991090E-1	9.716977E-1	9.454376E-1	9.204737E-1	9.755334E-1	9.700984E-1	9.756450E-1	1.006573E+0	9.911254E-1	9.879548E-1	9.831599E-1	9.688047E-1	9.770689E-1	1.007758E+0	9.113505E-1	9.755574E-1	9.826039E-1	9.642807E-1	9.773909E-1	9.853384E-1	9.990156E-1	9.918443E-1	9.674712E-1	1.010460E+0	9.875166E-1	9.598846E-1	1.003981E+0	1.002365E+0	1.016773E+0	9.875322E-1	1.017042E+0	1.005024E+0	1.014932E+0	9.699938E-1	1.003699E+0	9.924635E-1	9.974409E-1	1.006503E+0	9.733347E-1	9.842791E-1	9.941890E-1	1.008567E+0	9.453240E-1	9.658413E-1	1.014931E+0	9.929056E-1	9.971206E-1	1.013740E+0	9.787620E-1	9.586182E-1	1.025368E+0	9.858886E-1	9.873983E-1	1.013394E+0	9.682983E-1	9.591836E-1	1.018006E+0	9.867682E-1	9.940601E-1	9.944543E-1	1.022480E+0	9.941306E-1	9.607451E-1	1.006371E+0	9.694299E-1	9.959141E-1	1.000772E+0	9.846470E-1	9.071538E-1	9.843760E-1	9.957537E-1	1.017598E+0	9.790594E-1	1.004539E+0	1.002769E+0	1.020548E+0	1.028232E+0	1.002034E+0	9.496844E-1	9.656429E-1	1.006091E+0	9.688939E-1	1.002567E+0	9.854456E-1	9.566461E-1	9.531151E-1	9.911586E-1	9.534560E-1	9.818194E-1	9.261342E-1	1.023918E+0	9.990800E-1	9.611105E-1	9.644590E-1	9.551816E-1	9.697832E-1	9.739411E-1	9.700831E-1	1.014300E+0	9.675074E-1	9.869379E-1	1.013987E+0	1.001782E+0	9.959296E-1	9.997252E-1	9.899867E-1	1.002251E+0	9.833259E-1	9.901454E-1	9.884231E-1	1.002529E+0	9.419302E-1	9.811565E-1	9.793094E-1	9.801401E-1	1.000074E+0	9.492686E-1	1.013566E+0	9.994183E-1	9.822989E-1	9.553454E-1	9.859086E-1	1.029355E+0	9.792960E-1	9.461396E-1	1.000088E+0	9.903185E-1
5.382690E+2	1.168172E+0	1.153989E+0	1.154380E+0	1.155927E+0	1.144466E+0	1.104466E+0	1.094086E+0	1.113602E+0	1.134554E+0	1.119861E+0	1.122749E+0	1.133073E+0	1.142945E+0	1.127018E+0	1.132400E+0	1.161348E+0	1.128579E+0	1.187942E+0	1.131839E+0	1.164348E+0	1.133786E+0	1.171652E+0	1.113400E+0	1.153824E+0	1.159199E+0	1.130678E+0	1.127822E+0	1.133692E+0	1.112041E+0	1.145518E+0	1.172961E+0	1.129084E+0	1.150183E+0	1.132758E+0	1.136859E+0	1.171000E+0	1.137553E+0	1.144467E+0	1.123194E+0	1.112801E+0	1.123253E+0	1.113898E+0	1.127514E+0	1.135770E+0	1.167907E+0	1.170148E+0	1.142536E+0	1.142443E+0	1.107691E+0	1.139686E+0	1.083385E+0	1.104224E+0	1.192338E+0	1.114027E+0	1.094420E+0	1.150855E+0	1.138073E+0	1.185487E+0	1.123319E+0	1.114377E+0	1.080125E+0	1.091533E+0	1.110992E+0	1.176309E+0	1.124136E+0	1.080496E+0	1.110026E+0	1.123352E+0	1.150396E+0	1.104490E+0	1.129551E+0	1.131082E+0	1.075936E+0	1.129019E+0	1.146032E+0	1.137446E+0	1.174868E+0	1.152269E+0	1.146766E+0	1.127415E+0	1.149981E+0	1.097315E+0	1.145333E+0	1.099723E+0	1.177176E+0	1.091544E+0	1.097577E+0	1.120551E+0	1.126050E+0	1.092662E+0	1.143746E+0	1.133228E+0	1.114801E+0	1.129090E+0	1.149814E+0	1.129223E+0	1.155570E+0	1.131395E+0	1.117853E+0	1.077140E+0	1.129067E+0	1.103389E+0	1.134790E+0	1.112291E+0	1.200957E+0	1.120247E+0	1.169684E+0	1.123878E+0	1.127543E+0	1.124251E+0	1.145482E+0	1.134320E+0	1.179006E+0	1.190498E+0	1.147091E+0	1.141834E+0	1.142581E+0	1.122994E+0	1.124367E+0	1.158410E+0	1.174745E+0	1.155980E+0	1.115910E+0	1.118329E+0	1.147597E+0	1.159710E+0	1.139990E+0	1.144155E+0	1.148644E+0	1.130803E+0	1.136378E+0	1.157532E+0	1.063728E+0	1.139196E+0	1.152321E+0	1.093565E+0	1.120327E+0	1.124864E+0	1.134145E+0	1.044302E+0	1.101587E+0	1.116276E+0	1.140338E+0	1.145858E+0	1.123403E+0	1.133569E+0	1.133558E+0	1.077257E+0	1.137133E+0	1.063120E+0	1.159237E+0	1.106425E+0	1.123349E+0	1.102986E+0	1.114950E+0	1.138008E+0	1.186012E+0	1.119557E+0	1.150945E+0	1.120007E+0	1.115604E+0	1.154445E+0	1.112863E+0	1.128287E+0	1.172229E+0	1.100527E+0	1.106167E+0	1.188876E+0	1.116363E+0	1.140037E+0	1.152203E+0
5.385170E+2	1.405429E+0	1.361963E+0	1.316911E+0	1.339644E+0	1.382300E+0	1.343924E+0	1.350431E+0	1.347641E+0	1.394900E+0	1.393887E+0	1.382444E+0	1.357651E+0	1.366003E+0	1.337526E+0	1.382304E+0	1.344460E+0	1.377540E+0	1.380009E+0	1.356316E+0	1.353538E+0	1.398073E+0	1.406430E+0	1.307003E+0	1.363478E+0	1.412368E+0	1.335900E+0	1.387153E+0	1.427837E+0	1.316515E+0	1.363842E+0	1.383593E+0	1.387306E+0	1.366575E+0	1.370113E+0	1.368137E+0	1.380810E+0	1.337369E+0	1.394923E+0	1.413717E+0	1.398220E+0	1.369213E+0	1.372906E+0	1.344718E+0	1.374829E+0	1.359540E+0	1.410354E+0	1.367518E+0	1.377003E+0	1.380109E+0	1.366413E+0	1.335086E+0	1.356875E+0	1.378677E+0	1.391864E+0	1.360714E+0	1.363920E+0	1.386351E+0	1.375840E+0	1.368897E+0	1.388287E+0	1.387300E+0	1.391770E+0	1.385981E+0	1.417248E+0	1.437699E+0	1.333074E+0	1.349953E+0	1.341745E+0	1.424506E+0	1.334277E+0	1.383341E+0	1.394606E+0	1.369814E+0	1.364013E+0	1.352621E+0	1.396162E+0	1.365671E+0	1.395062E+0	1.357962E+0	1.388836E+0	1.365831E+0	1.378270E+0	1.276052E+0	1.376593E+0	1.374553E+0	1.363736E+0	1.339053E+0	1.394585E+0	1.357443E+0	1.382211E+0	1.330748E+0	1.358844E+0	1.386869E+0	1.362336E+0	1.422845E+0	1.321459E+0	1.389381E+0	1.382644E+0	1.392933E+0	1.369161E+0	1.340243E+0	1.323591E+0	1.376460E+0	1.364389E+0	1.366873E+0	1.375691E+0	1.378407E+0	1.385111E+0	1.378375E+0	1.377302E+0	1.380722E+0	1.357659E+0	1.346996E+0	1.318338E+0	1.371899E+0	1.339363E+0	1.376248E+0	1.337335E+0	1.337139E+0	1.426606E+0	1.400002E+0	1.362572E+0	1.387203E+0	1.343345E+0	1.372893E+0	1.351942E+0	1.382146E+0	1.386176E+0	1.331277E+0	1.402085E+0	1.375394E+0	1.367577E+0	1.372509E+0	1.371055E+0	1.320401E+0	1.371199E+0	1.344511E+0	1.382418E+0	1.379036E+0	1.331147E+0	1.378981E+0	1.347907E+0	1.376459E+0	1.396752E+0	1.350222E+0	1.298717E+0	1.355231E+0	1.344340E+0	1.347964E+0	1.352313E+0	1.343526E+0	1.364106E+0	1.327586E+0	1.325091E+0	1.383254E+0	1.401882E+0	1.329361E+0	1.355298E+0	1.369674E+0	1.358672E+0	1.311099E+0	1.359783E+0	1.351606E+0	1.352733E+0	1.366510E+0	1.319698E+0	1.414489E+0	1.357614E+0	1.337786E+0	1.322606E+0	1.374775E+0
5.387650E+2	1.606602E+0	1.533582E+0	1.583741E+0	1.590235E+0	1.632622E+0	1.517542E+0	1.562523E+0	1.655425E+0	1.637088E+0	1.627713E+0	1.586740E+0	1.612541E+0	1.540593E+0	1.557004E+0	1.564180E+0	1.562174E+0	1.612142E+0	1.580705E+0	1.609954E+0	1.546243E+0	1.614590E+0	1.554737E+0	1.566822E+0	1.556850E+0	1.577068E+0	1.529514E+0	1.556650E+0	1.573539E+0	1.521932E+0	1.624407E+0	1.600875E+0	1.612212E+0	1.568440E+0	1.634217E+0	1.583425E+0	1.571603E+0	1.597828E+0	1.562042E+0	1.606758E+0	1.559786E+0	1.602986E+0	1.557877E+0	1.528772E+0	1.661241E+0	1.660145E+0	1.663232E+0	1.530290E+0	1.575850E+0	1.604232E+0	1.582239E+0	1.608782E+0	1.582671E+0	1.595022E+0	1.591116E+0	1.567357E+0	1.610244E+0	1.581021E+0	1.582327E+0	1.583847E+0	1.532211E+0	1.569842E+0	1.577862E+0	1.607849E+0	1.639907E+0	1.590930E+0	1.569712E+0	1.636003E+0	1.603974E+0	1.582986E+0	1.562924E+0	1.564823E+0	1.614682E+0	1.590232E+0	1.597284E+0	1.574020E+0	1.581801E+0	1.618754E+0	1.602927E+0	1.585989E+0	1.584165E+0	1.593105E+0	1.570567E+0	1.518414E+0	1.649923E+0	1.614794E+0	1.561689E+0	1.511412E+0	1.525527E+0	1.620086E+0	1.567828E+0	1.496566E+0	1.578003E+0	1.571584E+0	1.517564E+0	1.576498E+0	1.611390E+0	1.600869E+0	1.610709E+0	1.550901E+0	1.541552E+0	1.582243E+0	1.548048E+0	1.546810E+0	1.575905E+0	1.532881E+0	1.591996E+0	1.612130E+0	1.639629E+0	1.559021E+0	1.487682E+0	1.585834E+0	1.530895E+0	1.577977E+0	1.571114E+0	1.525069E+0	1.557293E+0	1.509240E+0	1.559826E+0	1.536635E+0	1.568259E+0	1.574195E+0	1.582269E+0	1.573038E+0	1.517982E+0	1.601042E+0	1.561820E+0	1.574518E+0	1.581458E+0	1.583557E+0	1.589697E+0	1.539572E+0	1.575728E+0	1.525146E+0	1.569727E+0	1.536471E+0	1.531562E+0	1.482751E+0	1.544844E+0	1.545647E+0	1.629673E+0	1.580628E+0	1.460362E+0	1.583576E+0	1.564723E+0	1.567148E+0	1.491155E+0	1.533773E+0	1.549399E+0	1.568712E+0	1.566263E+0	1.560100E+0	1.612948E+0	1.578652E+0	1.517123E+0	1.527436E+0	1.576450E+0	1.586113E+0	1.594226E+0	1.550562E+0	1.585631E+0	1.524238E+0	1.508215E+0	1.553080E+0	1.567973E+0	1.569917E+0	1.483345E+0	1.511952E+0	1.590893E+0	1.495212E+0	1.493830E+0	1.588411E+0
5.390240E+2	1.822104E+0	1.785129E+0	1.785260E+0	1.742739E+0	1.852918E+0	1.786446E+0	1.707210E+0	1.775594E+0	1.743321E+0	1.732435E+0	1.708293E+0	1.762441E+0	1.750127E+0	1.805464E+0	1.778959E+0	1.742464E+0	1.717626E+0	1.776829E+0	1.738873E+0	1.790406E+0	1.778547E+0	1.869363E+0	1.730410E+0	1.818701E+0	1.775910E+0	1.783647E+0	1.722704E+0	1.817461E+0	1.792638E+0	1.813458E+0	1.779631E+0	1.833768E+0	1.771641E+0	1.799222E+0	1.718447E+0	1.816781E+0	1.819898E+0	1.752154E+0	1.795969E+0	1.778433E+0	1.722679E+0	1.700603E+0	1.759732E+0	1.819283E+0	1.779912E+0	1.823027E+0	1.778097E+0	1.747438E+0	1.777843E+0	1.776395E+0	1.748561E+0	1.782046E+0	1.730610E+0	1.704748E+0	1.739586E+0	1.752697E+0	1.745738E+0	1.818309E+0	1.788175E+0	1.791776E+0	1.770489E+0	1.720023E+0	1.748395E+0	1.780942E+0	1.792133E+0	1.794252E+0	1.767552E+0	1.726440E+0	1.792235E+0	1.756497E+0	1.772276E+0	1.769537E+0	1.748079E+0	1.801919E+0	1.715632E+0	1.742479E+0	1.752487E+0	1.818942E+0	1.769132E+0	1.758140E+0	1.773312E+0	1.759235E+0	1.682625E+0	1.766214E+0	1.744442E+0	1.790028E+0	1.714936E+0	1.780276E+0	1.766924E+0	1.763916E+0	1.732393E+0	1.764344E+0	1.779682E+0	1.728838E+0	1.727160E+0	1.720299E+0	1.717510E+0	1.717761E+0	1.733160E+0	1.734105E+0	1.783826E+0	1.725550E+0	1.710614E+0	1.837215E+0	1.792174E+0	1.786996E+0	1.689231E+0	1.746686E+0	1.775734E+0	1.738694E+0	1.696388E+0	1.731511E+0	1.750919E+0	1.733910E+0	1.804399E+0	1.788519E+0	1.695888E+0	1.762295E+0	1.733310E+0	1.695970E+0	1.768062E+0	1.680194E+0	1.741845E+0	1.729525E+0	1.768751E+0	1.746987E+0	1.739032E+0	1.763585E+0	1.722650E+0	1.740374E+0	1.707220E+0	1.725719E+0	1.740489E+0	1.716014E+0	1.724039E+0	1.726285E+0	1.753423E+0	1.761163E+0	1.731119E+0	1.737261E+0	1.676448E+0	1.656979E+0	1.736511E+0	1.690484E+0	1.746497E+0	1.748610E+0	1.708972E+0	1.704459E+0	1.726485E+0	1.731286E+0	1.684259E+0	1.743990E+0	1.750167E+0	1.731825E+0	1.686099E+0	1.745621E+0	1.743285E+0	1.675868E+0	1.754719E+0	1.681376E+0	1.726487E+0	1.717142E+0	1.722075E+0	1.758228E+0	1.745588E+0	1.643594E+0	1.706752E+0	1.813948E+0	1.722490E+0	1.625874E+0	1.633528E+0
5.392720E+2	2.018356E+0	1.968723E+0	1.921105E+0	1.906077E+0	1.926681E+0	1.886841E+0	1.876853E+0	1.957186E+0	1.936850E+0	1.903680E+0	1.889992E+0	1.900611E+0	1.926605E+0	1.937219E+0	1.927143E+0	1.958757E+0	1.861430E+0	1.971935E+0	1.873383E+0	1.922611E+0	1.908981E+0	1.922448E+0	1.929082E+0	1.969091E+0	1.978608E+0	1.888823E+0	1.926793E+0	1.945462E+0	1.876397E+0	1.984954E+0	1.933138E+0	1.950004E+0	1.955095E+0	1.985245E+0	1.915956E+0	1.901671E+0	1.987656E+0	1.948471E+0	1.943031E+0	1.956348E+0	1.971015E+0	1.911716E+0	1.890623E+0	1.967288E+0	2.015235E+0	1.922073E+0	1.888343E+0	1.926321E+0	1.891505E+0	1.937738E+0	1.902089E+0	1.943949E+0	1.933533E+0	1.899431E+0	1.847339E+0	1.886842E+0	1.870471E+0	1.950959E+0	1.888633E+0	1.931770E+0	1.891924E+0	1.892016E+0	1.863657E+0	1.945483E+0	1.935147E+0	1.919441E+0	1.896708E+0	1.869427E+0	1.960268E+0	1.952530E+0	1.917464E+0	1.903868E+0	1.892572E+0	1.895119E+0	1.922369E+0	1.884899E+0	1.894054E+0	1.883322E+0	1.915142E+0	1.944493E+0	1.912172E+0	1.904716E+0	1.856809E+0	1.913381E+0	1.942649E+0	1.906358E+0	1.871832E+0	1.882048E+0	1.954462E+0	1.870186E+0	1.916600E+0	1.949847E+0	1.938059E+0	1.960670E+0	1.872128E+0	1.895760E+0	1.861360E+0	1.894055E+0	1.883636E+0	1.843729E+0	1.940449E+0	1.852428E+0	1.845025E+0	1.930541E+0	1.897065E+0	1.875479E+0	1.833531E+0	1.932038E+0	1.958297E+0	1.871596E+0	1.825932E+0	1.916953E+0	1.901207E+0	1.845245E+0	1.905502E+0	1.843861E+0	1.912371E+0	1.838901E+0	1.850876E+0	1.907594E+0	1.930745E+0	1.894294E+0	1.849310E+0	1.891955E+0	1.922368E+0	1.894628E+0	1.891969E+0	1.895926E+0	1.862416E+0	1.860886E+0	1.847628E+0	1.808452E+0	1.910561E+0	1.863609E+0	1.825762E+0	1.841810E+0	1.909157E+0	1.943297E+0	1.882435E+0	1.887949E+0	1.892765E+0	1.867583E+0	2.037882E+0	1.906213E+0	1.883331E+0	1.926992E+0	1.894138E+0	1.921597E+0	1.859628E+0	1.872558E+0	1.779903E+0	1.877812E+0	1.870211E+0	1.877302E+0	1.855195E+0	1.902641E+0	1.897872E+0	1.838653E+0	1.808226E+0	1.880521E+0	1.811487E+0	1.863971E+0	1.918981E+0	1.880767E+0	1.885347E+0	1.815828E+0	1.798365E+0	1.865284E+0	1.818514E+0	1.715772E+0	1.788414E+0
5.395160E+2	2.118164E+0	2.009337E+0	2.061378E+0	2.013167E+0	2.111127E+0	1.988881E+0	1.987348E+0	2.026573E+0	2.048840E+0	2.042693E+0	1.998511E+0	2.000345E+0	2.011934E+0	2.052366E+0	2.001305E+0	2.036499E+0	1.992423E+0	2.008370E+0	2.012856E+0	1.975804E+0	1.993020E+0	2.023843E+0	1.981999E+0	2.010231E+0	2.068830E+0	1.976664E+0	2.052870E+0	2.049892E+0	2.036587E+0	2.095181E+0	2.035266E+0	2.034692E+0	2.091110E+0	2.004317E+0	2.040558E+0	1.996940E+0	1.994060E+0	2.054916E+0	1.975103E+0	2.019396E+0	2.081879E+0	1.986030E+0	2.006848E+0	2.027928E+0	1.996756E+0	2.038661E+0	1.964479E+0	1.997241E+0	2.035658E+0	2.000036E+0	2.023786E+0	2.060506E+0	2.074305E+0	2.078465E+0	1.993870E+0	2.012728E+0	1.980920E+0	2.044589E+0	2.016868E+0	2.016356E+0	2.015470E+0	1.956476E+0	2.008837E+0	2.002159E+0	2.014578E+0	2.009564E+0	2.001253E+0	2.003868E+0	2.039411E+0	2.013782E+0	1.998166E+0	2.045742E+0	1.991932E+0	1.952488E+0	1.983184E+0	2.002276E+0	2.045897E+0	2.014349E+0	1.983560E+0	1.994458E+0	1.980528E+0	1.983113E+0	1.930164E+0	1.949333E+0	2.016450E+0	2.089502E+0	1.978128E+0	1.986709E+0	2.015152E+0	2.027595E+0	2.048546E+0	2.050190E+0	1.981317E+0	1.994410E+0	1.972884E+0	2.036831E+0	1.974326E+0	2.005981E+0	1.994328E+0	1.950715E+0	2.002634E+0	1.915339E+0	2.013417E+0	1.985884E+0	2.008833E+0	1.998807E+0	1.980146E+0	2.018887E+0	2.004400E+0	2.034839E+0	1.989885E+0	1.966805E+0	1.974765E+0	1.960899E+0	1.992616E+0	1.953898E+0	1.950047E+0	1.956020E+0	1.936690E+0	1.984493E+0	1.925001E+0	1.980150E+0	1.968514E+0	1.973584E+0	2.049963E+0	1.964573E+0	1.912231E+0	1.978230E+0	2.004517E+0	2.024585E+0	1.920093E+0	2.030644E+0	1.967442E+0	1.975367E+0	1.947437E+0	1.990577E+0	1.979505E+0	1.982868E+0	1.969001E+0	2.002974E+0	1.957283E+0	2.003791E+0	2.008805E+0	1.946896E+0	1.969507E+0	1.997835E+0	1.935513E+0	1.955944E+0	1.951754E+0	1.979066E+0	1.984961E+0	2.035894E+0	1.982257E+0	1.951625E+0	1.984868E+0	1.973310E+0	2.008854E+0	2.002419E+0	1.917260E+0	1.962917E+0	1.886697E+0	1.964521E+0	1.969420E+0	1.952452E+0	2.036576E+0	1.944761E+0	1.882083E+0	1.979037E+0	1.897595E+0	1.847003E+0	1.850772E+0
5.397810E+2	2.112168E+0	2.039859E+0	2.017893E+0	2.084421E+0	2.139619E+0	2.072630E+0	2.023924E+0	2.114583E+0	2.146600E+0	2.092334E+0	2.040321E+0	2.054218E+0	2.128660E+0	2.070168E+0	2.094634E+0	2.067668E+0	2.038306E+0	2.036562E+0	2.054771E+0	2.010699E+0	2.062018E+0	2.019606E+0	2.030004E+0	2.045316E+0	2.104413E+0	2.092199E+0	2.054153E+0	2.058197E+0	2.010089E+0	2.117857E+0	2.025107E+0	2.073624E+0	2.116101E+0	2.110527E+0	2.041216E+0	2.048685E+0	2.074116E+0	1.989822E+0	2.028601E+0	2.060406E+0	2.141350E+0	2.084390E+0	2.030293E+0	2.068174E+0	2.085136E+0	2.100609E+0	2.058538E+0	2.042390E+0	2.031705E+0	2.069374E+0	2.022681E+0	2.092264E+0	2.093790E+0	2.085690E+0	1.957002E+0	2.026901E+0	2.046537E+0	2.088515E+0	1.954383E+0	2.009655E+0	2.065748E+0	2.030845E+0	2.033151E+0	2.017708E+0	2.110494E+0	2.071525E+0	2.075605E+0	2.038087E+0	2.089604E+0	2.011627E+0	1.974420E+0	2.035721E+0	2.059337E+0	2.055129E+0	2.116585E+0	1.985311E+0	1.965974E+0	2.158760E+0	2.026292E+0	2.020107E+0	2.057518E+0	2.089760E+0	1.936764E+0	1.974488E+0	2.053970E+0	2.069693E+0	2.004880E+0	2.024156E+0	2.068332E+0	2.022565E+0	1.990257E+0	2.036838E+0	2.022090E+0	1.986202E+0	2.026401E+0	2.058814E+0	2.034936E+0	2.076769E+0	2.044858E+0	2.005647E+0	2.000349E+0	1.958161E+0	1.945295E+0	2.063161E+0	2.049171E+0	1.979670E+0	1.969142E+0	1.962455E+0	2.044684E+0	2.072195E+0	2.001323E+0	1.970645E+0	2.031596E+0	2.019458E+0	2.005743E+0	2.017458E+0	1.989598E+0	1.987647E+0	1.983190E+0	1.998854E+0	2.053847E+0	2.035035E+0	1.991240E+0	2.021400E+0	2.063733E+0	1.975424E+0	1.933580E+0	2.041367E+0	1.964444E+0	2.051049E+0	2.037066E+0	1.970915E+0	1.945311E+0	1.984772E+0	1.965518E+0	2.008377E+0	1.960402E+0	2.068718E+0	1.986899E+0	2.027490E+0	1.985011E+0	1.954091E+0	2.107104E+0	1.934120E+0	2.007924E+0	2.028628E+0	1.992630E+0	2.007419E+0	1.982907E+0	1.957590E+0	1.968413E+0	1.966281E+0	1.951041E+0	2.006082E+0	1.951319E+0	1.986103E+0	1.994187E+0	1.980823E+0	1.986771E+0	2.040992E+0	1.940656E+0	1.978567E+0	2.005181E+0	1.906971E+0	2.049821E+0	1.989224E+0	2.006275E+0	1.994972E+0	1.923647E+0	1.976639E+0	1.988486E+0
5.400240E+2	2.101015E+0	1.991045E+0	1.972749E+0	2.110103E+0	2.087416E+0	1.981735E+0	1.980490E+0	2.092519E+0	2.038344E+0	1.987598E+0	1.988911E+0	1.991272E+0	1.975616E+0	2.016720E+0	1.999067E+0	2.022056E+0	2.057335E+0	2.081299E+0	2.004394E+0	2.060135E+0	2.098836E+0	2.048941E+0	1.962063E+0	2.029110E+0	2.013060E+0	1.976438E+0	2.050477E+0	2.022133E+0	2.061666E+0	1.998998E+0	1.987277E+0	2.060009E+0	1.990495E+0	2.055302E+0	2.015503E+0	1.983874E+0	2.015138E+0	1.986964E+0	2.037389E+0	1.967544E+0	2.036624E+0	2.026145E+0	1.955818E+0	2.010079E+0	2.038120E+0	1.949037E+0	1.997180E+0	2.028517E+0	2.013780E+0	2.034568E+0	1.971747E+0	2.093321E+0	2.075313E+0	2.036758E+0	1.987980E+0	1.999833E+0	1.991892E+0	2.067147E+0	2.001326E+0	1.995942E+0	2.074551E+0	2.020876E+0	1.973594E+0	2.042369E+0	2.067673E+0	1.995098E+0	2.006103E+0	2.046896E+0	2.034956E+0	2.006843E+0	2.016425E+0	2.039674E+0	1.980244E+0	1.975984E+0	2.004326E+0	1.977866E+0	1.954253E+0	2.046187E+0	2.000883E+0	2.017076E+0	1.998286E+0	2.004935E+0	1.891316E+0	1.953989E+0	2.016796E+0	2.004119E+0	1.948952E+0	1.976709E+0	2.067007E+0	2.000571E+0	2.051835E+0	1.961240E+0	1.977998E+0	1.973424E+0	1.951757E+0	2.012860E+0	1.960206E+0	1.981092E+0	1.959079E+0	1.939190E+0	2.043336E+0	1.984516E+0	2.041052E+0	2.006575E+0	2.025137E+0	1.991540E+0	1.968452E+0	1.992261E+0	1.989994E+0	1.963452E+0	2.024412E+0	1.964189E+0	1.988291E+0	2.033735E+0	1.983872E+0	1.931006E+0	1.945770E+0	1.994085E+0	1.962172E+0	2.029009E+0	1.957720E+0	1.973827E+0	2.002356E+0	1.971473E+0	2.007272E+0	1.978867E+0	1.974233E+0	1.969430E+0	1.978685E+0	1.959532E+0	1.958235E+0	1.973604E+0	1.946160E+0	1.992066E+0	1.919276E+0	1.927308E+0	1.950250E+0	1.956042E+0	1.939334E+0	1.974815E+0	1.923107E+0	1.936073E+0	2.011986E+0	1.923199E+0	1.985166E+0	1.914335E+0	1.913879E+0	1.927417E+0	1.973143E+0	1.948767E+0	1.945549E+0	1.979205E+0	1.932822E+0	1.913680E+0	1.956336E+0	1.990850E+0	2.013915E+0	1.976539E+0	1.988851E+0	1.908080E+0	1.896515E+0	1.921818E+0	1.925772E+0	1.927096E+0	1.979723E+0	1.890795E+0	1.957671E+0	2.031712E+0	1.966050E+0	1.901424E+0	1.962894E+0
5.402850E+2	2.086684E+0	1.886489E+0	1.948614E+0	1.895554E+0	1.954342E+0	1.902239E+0	1.866901E+0	1.956105E+0	1.971604E+0	1.961181E+0	1.856075E+0	1.917849E+0	2.007916E+0	1.893646E+0	1.936438E+0	1.922130E+0	1.900627E+0	1.910097E+0	1.888289E+0	1.970285E+0	2.018459E+0	1.984267E+0	1.906993E+0	1.995740E+0	1.977836E+0	1.890081E+0	1.920740E+0	1.936407E+0	1.880058E+0	1.930268E+0	1.935856E+0	1.930421E+0	1.971197E+0	1.950505E+0	1.860672E+0	1.910642E+0	1.896234E+0	1.919030E+0	1.876304E+0	1.957947E+0	1.951668E+0	1.883930E+0	1.981729E+0	1.907987E+0	1.967826E+0	1.843630E+0	1.915185E+0	1.871033E+0	1.887604E+0	1.996516E+0	1.869561E+0	1.916501E+0	1.888767E+0	1.962865E+0	1.927059E+0	1.882254E+0	1.904949E+0	1.970546E+0	1.874922E+0	1.896513E+0	1.916446E+0	1.903428E+0	1.878167E+0	1.868873E+0	1.948574E+0	1.876657E+0	1.911082E+0	1.883457E+0	1.960469E+0	1.928424E+0	1.922373E+0	1.903797E+0	1.957803E+0	1.917380E+0	1.913762E+0	1.914533E+0	1.887555E+0	1.958493E+0	1.886930E+0	1.891768E+0	1.867572E+0	1.901490E+0	1.827817E+0	1.768966E+0	2.005581E+0	1.906180E+0	1.880371E+0	1.884310E+0	1.932021E+0	1.889224E+0	1.907206E+0	1.884978E+0	1.956656E+0	1.872207E+0	1.884122E+0	1.879459E+0	1.876501E+0	1.861157E+0	1.911241E+0	1.824347E+0	1.877383E+0	1.848782E+0	1.867155E+0	1.898215E+0	1.883275E+0	1.874818E+0	1.899813E+0	1.813096E+0	1.915368E+0	1.846965E+0	1.909985E+0	1.840250E+0	1.894181E+0	1.856321E+0	1.871542E+0	1.840713E+0	1.923898E+0	1.880472E+0	1.876198E+0	1.848102E+0	1.875644E+0	1.947611E+0	1.880323E+0	1.908698E+0	1.885845E+0	1.883316E+0	1.873296E+0	1.861580E+0	1.862463E+0	1.907025E+0	1.849431E+0	1.875659E+0	1.806141E+0	1.881434E+0	1.890306E+0	1.839107E+0	1.873337E+0	1.844533E+0	1.847329E+0	1.906848E+0	1.827104E+0	1.899085E+0	1.860403E+0	1.879269E+0	1.898328E+0	1.837880E+0	1.842133E+0	1.838704E+0	1.899216E+0	1.905885E+0	1.928806E+0	1.816333E+0	1.874620E+0	1.809369E+0	1.856570E+0	1.911081E+0	1.865687E+0	1.906117E+0	1.882569E+0	1.830273E+0	1.855971E+0	1.910687E+0	1.813637E+0	1.879499E+0	1.849146E+0	1.869922E+0	1.804752E+0	1.833545E+0	1.822771E+0	1.822948E+0	1.723655E+0
5.405130E+2	1.872067E+0	1.781508E+0	1.811830E+0	1.795770E+0	1.865895E+0	1.774694E+0	1.814209E+0	1.784754E+0	1.853142E+0	1.857247E+0	1.762790E+0	1.732011E+0	1.798838E+0	1.788942E+0	1.782529E+0	1.776069E+0	1.813955E+0	1.833938E+0	1.770789E+0	1.800233E+0	1.834842E+0	1.836543E+0	1.761028E+0	1.800893E+0	1.826930E+0	1.832095E+0	1.786543E+0	1.801535E+0	1.763359E+0	1.768893E+0	1.821204E+0	1.799964E+0	1.831050E+0	1.794527E+0	1.800455E+0	1.758558E+0	1.796569E+0	1.804378E+0	1.808201E+0	1.780582E+0	1.873462E+0	1.707892E+0	1.750889E+0	1.864527E+0	1.837031E+0	1.844138E+0	1.800692E+0	1.838655E+0	1.809749E+0	1.822872E+0	1.746780E+0	1.767989E+0	1.844389E+0	1.832391E+0	1.696141E+0	1.782550E+0	1.797612E+0	1.831535E+0	1.753737E+0	1.817465E+0	1.734338E+0	1.752401E+0	1.766545E+0	1.811743E+0	1.830038E+0	1.781093E+0	1.829345E+0	1.694997E+0	1.785250E+0	1.719734E+0	1.818922E+0	1.785043E+0	1.774291E+0	1.782190E+0	1.765835E+0	1.707144E+0	1.830236E+0	1.749842E+0	1.790616E+0	1.807053E+0	1.759958E+0	1.766610E+0	1.735628E+0	1.718541E+0	1.839624E+0	1.810959E+0	1.821252E+0	1.785040E+0	1.792486E+0	1.770519E+0	1.715538E+0	1.729593E+0	1.760776E+0	1.823345E+0	1.693182E+0	1.820275E+0	1.709180E+0	1.815371E+0	1.742068E+0	1.693598E+0	1.778712E+0	1.789387E+0	1.725300E+0	1.794469E+0	1.800457E+0	1.854880E+0	1.769644E+0	1.801207E+0	1.793436E+0	1.840380E+0	1.769782E+0	1.781459E+0	1.728431E+0	1.788608E+0	1.782995E+0	1.680416E+0	1.808075E+0	1.761855E+0	1.761817E+0	1.747952E+0	1.740388E+0	1.758241E+0	1.725970E+0	1.693413E+0	1.805794E+0	1.765285E+0	1.803531E+0	1.752811E+0	1.749773E+0	1.827254E+0	1.732986E+0	1.739123E+0	1.766884E+0	1.721131E+0	1.716537E+0	1.709879E+0	1.727066E+0	1.775961E+0	1.784299E+0	1.757327E+0	1.739915E+0	1.777478E+0	1.749534E+0	1.742023E+0	1.767484E+0	1.765807E+0	1.697144E+0	1.738755E+0	1.763617E+0	1.799693E+0	1.748341E+0	1.729728E+0	1.823335E+0	1.703986E+0	1.791314E+0	1.729006E+0	1.726026E+0	1.683761E+0	1.734494E+0	1.771317E+0	1.687785E+0	1.738935E+0	1.738008E+0	1.733643E+0	1.819796E+0	1.685592E+0	1.769941E+0	1.710687E+0	1.766386E+0	1.733810E+0	1.649627E+0
5.407680E+2	1.790290E+0	1.701827E+0	1.793935E+0	1.790097E+0	1.753576E+0	1.697779E+0	1.638005E+0	1.721053E+0	1.728644E+0	1.742311E+0	1.661533E+0	1.688233E+0	1.768363E+0	1.718051E+0	1.664919E+0	1.705821E+0	1.706239E+0	1.750020E+0	1.674365E+0	1.673652E+0	1.714814E+0	1.710391E+0	1.701695E+0	1.685328E+0	1.699361E+0	1.678984E+0	1.684023E+0	1.681912E+0	1.696352E+0	1.792917E+0	1.696990E+0	1.736005E+0	1.766212E+0	1.746597E+0	1.708145E+0	1.718468E+0	1.755319E+0	1.729233E+0	1.693696E+0	1.705698E+0	1.689791E+0	1.726358E+0	1.685175E+0	1.673476E+0	1.739817E+0	1.703596E+0	1.694408E+0	1.653603E+0	1.690488E+0	1.699219E+0	1.704003E+0	1.693461E+0	1.717721E+0	1.709216E+0	1.728366E+0	1.644757E+0	1.670824E+0	1.704627E+0	1.634161E+0	1.728137E+0	1.659423E+0	1.742007E+0	1.745105E+0	1.733513E+0	1.774823E+0	1.708382E+0	1.713874E+0	1.713802E+0	1.707555E+0	1.704258E+0	1.728390E+0	1.705687E+0	1.703431E+0	1.701505E+0	1.736766E+0	1.655930E+0	1.659996E+0	1.706265E+0	1.725264E+0	1.739505E+0	1.693993E+0	1.662757E+0	1.631320E+0	1.639730E+0	1.742921E+0	1.670628E+0	1.696752E+0	1.677973E+0	1.769967E+0	1.686850E+0	1.679068E+0	1.700304E+0	1.739653E+0	1.661427E+0	1.636131E+0	1.713333E+0	1.648999E+0	1.702106E+0	1.703245E+0	1.634928E+0	1.693286E+0	1.662511E+0	1.643020E+0	1.674965E+0	1.760553E+0	1.725986E+0	1.702246E+0	1.691936E+0	1.739484E+0	1.747562E+0	1.714662E+0	1.648315E+0	1.684885E+0	1.651600E+0	1.691535E+0	1.727386E+0	1.733674E+0	1.695211E+0	1.671134E+0	1.685123E+0	1.689106E+0	1.640948E+0	1.696603E+0	1.671656E+0	1.752306E+0	1.702645E+0	1.730580E+0	1.685253E+0	1.721703E+0	1.666072E+0	1.695083E+0	1.636900E+0	1.645133E+0	1.648287E+0	1.615626E+0	1.646544E+0	1.717096E+0	1.685865E+0	1.723224E+0	1.661726E+0	1.684257E+0	1.665882E+0	1.748971E+0	1.642670E+0	1.703538E+0	1.657424E+0	1.649903E+0	1.616800E+0	1.702246E+0	1.702439E+0	1.684197E+0	1.673230E+0	1.653762E+0	1.624902E+0	1.688992E+0	1.729884E+0	1.695058E+0	1.659140E+0	1.616146E+0	1.645243E+0	1.629403E+0	1.662720E+0	1.652791E+0	1.647564E+0	1.669093E+0	1.614067E+0	1.671626E+0	1.662517E+0	1.676306E+0	1.692246E+0	1.669742E+0
5.410290E+2	1.742984E+0	1.634694E+0	1.602816E+0	1.635262E+0	1.642054E+0	1.623247E+0	1.644072E+0	1.655473E+0	1.724595E+0	1.714373E+0	1.575959E+0	1.667956E+0	1.628610E+0	1.584543E+0	1.624003E+0	1.627109E+0	1.654485E+0	1.601269E+0	1.631221E+0	1.641127E+0	1.657318E+0	1.674066E+0	1.641513E+0	1.611797E+0	1.638057E+0	1.592632E+0	1.628616E+0	1.607118E+0	1.618960E+0	1.633494E+0	1.690749E+0	1.657940E+0	1.641854E+0	1.604608E+0	1.575022E+0	1.641697E+0	1.667289E+0	1.633732E+0	1.641493E+0	1.600671E+0	1.592390E+0	1.673667E+0	1.608736E+0	1.639175E+0	1.687709E+0	1.618404E+0	1.603655E+0	1.602687E+0	1.632044E+0	1.626785E+0	1.595154E+0	1.690359E+0	1.640849E+0	1.622939E+0	1.610054E+0	1.607610E+0	1.650306E+0	1.643988E+0	1.599141E+0	1.618130E+0	1.651083E+0	1.596687E+0	1.602244E+0	1.683882E+0	1.607292E+0	1.637978E+0	1.649573E+0	1.562552E+0	1.663246E+0	1.609136E+0	1.605443E+0	1.636405E+0	1.653648E+0	1.549128E+0	1.623625E+0	1.674052E+0	1.675228E+0	1.624569E+0	1.637791E+0	1.610235E+0	1.586833E+0	1.629909E+0	1.583457E+0	1.579271E+0	1.661471E+0	1.651518E+0	1.565437E+0	1.608482E+0	1.643416E+0	1.592096E+0	1.613894E+0	1.619612E+0	1.652594E+0	1.653088E+0	1.605625E+0	1.637496E+0	1.593404E+0	1.618133E+0	1.613188E+0	1.541674E+0	1.602601E+0	1.601059E+0	1.593446E+0	1.580899E+0	1.695094E+0	1.618997E+0	1.590229E+0	1.601958E+0	1.628312E+0	1.612145E+0	1.635904E+0	1.613002E+0	1.608284E+0	1.593715E+0	1.625328E+0	1.659819E+0	1.603476E+0	1.641392E+0	1.559142E+0	1.565934E+0	1.698806E+0	1.577413E+0	1.589637E+0	1.594774E+0	1.690054E+0	1.572868E+0	1.627591E+0	1.600985E+0	1.591550E+0	1.603087E+0	1.590056E+0	1.575195E+0	1.561521E+0	1.609084E+0	1.571839E+0	1.587737E+0	1.555545E+0	1.586848E+0	1.575271E+0	1.636680E+0	1.582922E+0	1.545604E+0	1.650825E+0	1.628823E+0	1.588939E+0	1.575494E+0	1.579385E+0	1.567468E+0	1.605093E+0	1.578176E+0	1.579769E+0	1.615233E+0	1.590927E+0	1.582347E+0	1.635091E+0	1.652418E+0	1.653983E+0	1.597839E+0	1.620028E+0	1.564051E+0	1.552213E+0	1.600270E+0	1.614246E+0	1.579026E+0	1.662630E+0	1.568065E+0	1.569746E+0	1.539448E+0	1.558383E+0	1.536709E+0	1.519204E+0
5.412790E+2	1.600996E+0	1.553362E+0	1.581810E+0	1.583518E+0	1.562359E+0	1.497988E+0	1.501512E+0	1.535338E+0	1.545824E+0	1.522009E+0	1.512422E+0	1.491184E+0	1.519953E+0	1.581182E+0	1.562541E+0	1.560495E+0	1.560849E+0	1.574682E+0	1.484574E+0	1.537372E+0	1.569524E+0	1.577696E+0	1.584608E+0	1.528442E+0	1.545496E+0	1.497096E+0	1.529691E+0	1.584647E+0	1.521739E+0	1.573434E+0	1.582214E+0	1.512854E+0	1.569334E+0	1.580951E+0	1.473644E+0	1.515401E+0	1.561190E+0	1.548498E+0	1.514766E+0	1.516310E+0	1.540800E+0	1.514553E+0	1.537241E+0	1.560630E+0	1.510714E+0	1.580485E+0	1.478914E+0	1.537541E+0	1.531769E+0	1.553889E+0	1.519722E+0	1.555117E+0	1.530373E+0	1.496283E+0	1.555422E+0	1.536218E+0	1.519882E+0	1.612661E+0	1.519917E+0	1.522034E+0	1.515283E+0	1.517223E+0	1.527778E+0	1.538689E+0	1.562013E+0	1.541398E+0	1.467449E+0	1.504146E+0	1.538986E+0	1.521916E+0	1.583536E+0	1.529886E+0	1.509366E+0	1.586650E+0	1.595440E+0	1.528436E+0	1.541907E+0	1.528196E+0	1.490083E+0	1.507636E+0	1.508473E+0	1.572112E+0	1.507749E+0	1.539757E+0	1.546302E+0	1.551639E+0	1.519069E+0	1.460739E+0	1.546759E+0	1.486666E+0	1.497128E+0	1.554348E+0	1.526006E+0	1.513276E+0	1.499149E+0	1.542758E+0	1.544142E+0	1.569844E+0	1.499254E+0	1.548045E+0	1.560864E+0	1.528779E+0	1.476190E+0	1.536840E+0	1.535767E+0	1.526994E+0	1.532355E+0	1.526397E+0	1.561255E+0	1.510022E+0	1.511912E+0	1.504400E+0	1.533609E+0	1.556289E+0	1.519133E+0	1.544813E+0	1.544741E+0	1.538458E+0	1.538442E+0	1.493701E+0	1.554545E+0	1.501990E+0	1.520157E+0	1.565269E+0	1.578641E+0	1.508684E+0	1.526543E+0	1.512771E+0	1.534478E+0	1.531197E+0	1.553567E+0	1.513235E+0	1.508716E+0	1.477286E+0	1.533253E+0	1.486708E+0	1.548318E+0	1.488186E+0	1.488088E+0	1.518636E+0	1.538772E+0	1.510721E+0	1.569835E+0	1.471495E+0	1.499827E+0	1.483237E+0	1.489837E+0	1.526779E+0	1.544859E+0	1.531173E+0	1.509429E+0	1.517525E+0	1.538050E+0	1.520012E+0	1.494295E+0	1.504213E+0	1.526110E+0	1.484691E+0	1.457570E+0	1.538696E+0	1.488066E+0	1.523546E+0	1.576667E+0	1.512299E+0	1.551287E+0	1.501738E+0	1.482775E+0	1.543803E+0	1.483357E+0	1.528131E+0	1.476042E+0
5.415140E+2	1.424396E+0	1.395033E+0	1.394951E+0	1.347751E+0	1.450696E+0	1.350218E+0	1.340868E+0	1.391372E+0	1.413955E+0	1.431713E+0	1.391472E+0	1.423998E+0	1.390185E+0	1.410615E+0	1.443261E+0	1.364188E+0	1.408023E+0	1.420444E+0	1.403905E+0	1.361126E+0	1.409985E+0	1.427641E+0	1.356589E+0	1.397535E+0	1.441780E+0	1.372103E+0	1.431979E+0	1.344738E+0	1.329512E+0	1.390104E+0	1.443883E+0	1.449302E+0	1.376045E+0	1.432757E+0	1.423310E+0	1.389044E+0	1.401744E+0	1.384056E+0	1.336182E+0	1.411534E+0	1.393239E+0	1.392840E+0	1.352092E+0	1.379251E+0	1.363487E+0	1.377912E+0	1.414389E+0	1.428354E+0	1.409605E+0	1.386556E+0	1.359266E+0	1.373822E+0	1.390383E+0	1.365863E+0	1.341652E+0	1.348202E+0	1.364265E+0	1.473781E+0	1.373517E+0	1.398894E+0	1.363297E+0	1.416296E+0	1.419179E+0	1.403196E+0	1.386278E+0	1.388452E+0	1.418723E+0	1.376390E+0	1.411783E+0	1.355111E+0	1.387720E+0	1.430112E+0	1.371618E+0	1.432186E+0	1.422942E+0	1.373697E+0	1.381660E+0	1.423041E+0	1.374648E+0	1.382263E+0	1.350313E+0	1.390947E+0	1.359233E+0	1.395448E+0	1.393082E+0	1.398332E+0	1.307195E+0	1.410316E+0	1.388428E+0	1.386150E+0	1.368413E+0	1.347549E+0	1.374681E+0	1.409409E+0	1.371664E+0	1.349096E+0	1.348497E+0	1.355770E+0	1.383129E+0	1.393100E+0	1.405217E+0	1.432695E+0	1.347767E+0	1.374779E+0	1.379757E+0	1.307158E+0	1.378050E+0	1.372688E+0	1.456561E+0	1.378102E+0	1.425779E+0	1.390574E+0	1.362904E+0	1.410023E+0	1.374007E+0	1.415572E+0	1.400227E+0	1.365423E+0	1.424577E+0	1.337729E+0	1.393829E+0	1.377447E+0	1.346386E+0	1.399858E+0	1.438901E+0	1.397099E+0	1.385860E+0	1.409949E+0	1.395546E+0	1.362202E+0	1.375507E+0	1.433209E+0	1.382640E+0	1.354063E+0	1.359029E+0	1.379942E+0	1.392064E+0	1.371592E+0	1.399891E+0	1.401238E+0	1.396904E+0	1.365070E+0	1.363784E+0	1.394545E+0	1.395351E+0	1.319736E+0	1.337554E+0	1.377258E+0	1.377369E+0	1.469993E+0	1.417806E+0	1.368945E+0	1.410718E+0	1.336391E+0	1.365540E+0	1.398421E+0	1.412827E+0	1.360787E+0	1.357161E+0	1.293990E+0	1.392973E+0	1.374140E+0	1.442708E+0	1.314656E+0	1.390338E+0	1.347248E+0	1.359509E+0	1.375993E+0	1.442924E+0	1.336001E+0	1.271004E+0
5.417760E+2	1.232889E+0	1.223428E+0	1.190931E+0	1.194172E+0	1.244385E+0	1.243524E+0	1.156902E+0	1.189860E+0	1.222269E+0	1.232494E+0	1.212157E+0	1.191375E+0	1.202586E+0	1.246679E+0	1.175694E+0	1.223005E+0	1.188579E+0	1.297402E+0	1.150045E+0	1.188549E+0	1.223940E+0	1.227643E+0	1.178688E+0	1.214531E+0	1.217216E+0	1.225606E+0	1.254473E+0	1.183942E+0	1.193852E+0	1.205258E+0	1.246637E+0	1.219615E+0	1.207597E+0	1.196599E+0	1.181234E+0	1.216368E+0	1.201442E+0	1.192033E+0	1.223085E+0	1.147278E+0	1.204089E+0	1.217657E+0	1.172384E+0	1.193155E+0	1.201915E+0	1.212639E+0	1.145308E+0	1.209366E+0	1.212918E+0	1.251489E+0	1.205090E+0	1.194467E+0	1.231745E+0	1.165517E+0	1.173167E+0	1.187011E+0	1.226693E+0	1.232106E+0	1.147694E+0	1.163442E+0	1.191546E+0	1.172375E+0	1.143734E+0	1.200413E+0	1.193724E+0	1.182348E+0	1.180986E+0	1.211034E+0	1.236074E+0	1.190579E+0	1.175940E+0	1.249577E+0	1.176376E+0	1.247863E+0	1.202472E+0	1.170240E+0	1.178441E+0	1.185832E+0	1.221284E+0	1.233512E+0	1.142616E+0	1.223663E+0	1.143848E+0	1.144937E+0	1.235675E+0	1.208623E+0	1.188690E+0	1.195395E+0	1.206124E+0	1.204985E+0	1.249200E+0	1.260696E+0	1.212744E+0	1.211222E+0	1.242621E+0	1.204364E+0	1.201398E+0	1.180735E+0	1.158746E+0	1.231699E+0	1.215613E+0	1.189973E+0	1.181521E+0	1.213943E+0	1.187496E+0	1.190090E+0	1.172490E+0	1.206560E+0	1.233039E+0	1.237587E+0	1.214123E+0	1.195555E+0	1.158970E+0	1.235396E+0	1.243513E+0	1.197519E+0	1.197887E+0	1.234240E+0	1.181133E+0	1.225600E+0	1.185321E+0	1.191513E+0	1.195924E+0	1.240127E+0	1.214324E+0	1.226807E+0	1.207381E+0	1.209878E+0	1.196578E+0	1.196126E+0	1.197857E+0	1.204790E+0	1.204401E+0	1.151790E+0	1.214435E+0	1.159791E+0	1.223358E+0	1.211510E+0	1.232374E+0	1.190857E+0	1.214419E+0	1.185162E+0	1.180252E+0	1.187429E+0	1.196250E+0	1.197129E+0	1.171546E+0	1.198765E+0	1.257899E+0	1.208141E+0	1.205770E+0	1.240285E+0	1.226825E+0	1.180491E+0	1.239533E+0	1.172855E+0	1.222281E+0	1.217185E+0	1.137358E+0	1.198361E+0	1.162240E+0	1.202791E+0	1.250603E+0	1.154340E+0	1.246357E+0	1.230494E+0	1.184881E+0	1.221657E+0	1.256811E+0	1.237933E+0	1.196244E+0
5.420160E+2	1.074717E+0	1.024822E+0	1.017269E+0	1.040234E+0	1.081764E+0	1.047636E+0	1.019472E+0	1.044506E+0	1.071845E+0	1.074917E+0	1.042641E+0	1.035538E+0	1.022127E+0	1.038196E+0	1.038660E+0	1.066387E+0	1.044598E+0	9.818847E-1	1.036521E+0	1.055302E+0	1.051913E+0	1.039065E+0	1.066526E+0	1.068589E+0	1.048256E+0	1.006449E+0	1.040599E+0	1.042268E+0	1.029505E+0	1.076455E+0	1.041343E+0	1.072765E+0	1.057292E+0	1.085141E+0	1.026154E+0	1.073398E+0	1.061397E+0	1.103496E+0	1.020069E+0	1.005600E+0	1.028059E+0	1.077814E+0	9.828113E-1	1.064496E+0	1.096215E+0	1.072621E+0	1.066044E+0	1.080827E+0	1.027213E+0	1.115317E+0	1.064010E+0	1.057464E+0	1.053093E+0	1.092703E+0	1.053247E+0	1.045586E+0	1.069716E+0	1.066708E+0	1.037697E+0	9.919292E-1	1.045730E+0	1.058687E+0	1.095432E+0	1.059714E+0	1.059613E+0	1.046427E+0	1.078861E+0	1.069075E+0	1.080949E+0	1.060718E+0	1.085281E+0	1.106316E+0	1.045250E+0	1.030187E+0	1.069837E+0	1.067834E+0	1.049100E+0	1.087724E+0	1.069116E+0	1.075895E+0	1.046839E+0	1.084962E+0	1.033439E+0	1.031188E+0	1.030542E+0	1.071308E+0	1.035237E+0	1.053450E+0	1.045286E+0	1.050205E+0	1.015936E+0	1.035243E+0	1.069731E+0	1.085871E+0	1.034524E+0	1.088412E+0	9.830216E-1	1.039636E+0	1.020620E+0	1.038488E+0	1.061996E+0	1.062965E+0	1.054656E+0	1.076469E+0	1.078843E+0	1.040889E+0	1.072336E+0	1.019439E+0	1.056976E+0	1.093823E+0	1.088543E+0	1.050484E+0	1.051450E+0	1.049815E+0	1.053732E+0	1.020347E+0	1.080846E+0	1.027090E+0	1.028939E+0	1.015143E+0	1.044613E+0	1.037642E+0	1.018176E+0	1.058301E+0	1.072018E+0	1.046229E+0	1.050059E+0	1.055493E+0	1.035101E+0	1.066426E+0	1.025395E+0	1.069026E+0	1.030504E+0	1.072376E+0	9.981238E-1	1.017292E+0	1.012221E+0	1.030625E+0	1.063980E+0	1.052422E+0	1.050138E+0	1.033479E+0	1.079618E+0	1.057598E+0	1.047391E+0	1.005572E+0	1.063388E+0	1.022410E+0	1.065408E+0	1.048117E+0	1.029902E+0	1.052786E+0	1.052595E+0	1.048348E+0	9.957417E-1	1.038820E+0	1.064912E+0	1.070866E+0	1.046069E+0	1.065556E+0	1.032701E+0	1.048575E+0	1.102658E+0	1.031534E+0	1.018709E+0	1.032260E+0	1.072299E+0	1.090683E+0	1.075596E+0	1.049553E+0	1.059764E+0
5.422670E+2	9.640236E-1	9.346640E-1	9.725669E-1	9.811250E-1	1.008604E+0	9.671763E-1	9.593378E-1	9.389437E-1	9.847469E-1	8.972608E-1	9.017689E-1	9.365780E-1	9.066093E-1	9.229623E-1	9.286606E-1	9.609379E-1	9.307834E-1	9.557892E-1	9.163477E-1	1.000481E+0	9.702654E-1	9.478769E-1	9.192088E-1	9.483440E-1	9.348785E-1	9.268552E-1	9.370762E-1	9.313379E-1	9.372655E-1	9.494277E-1	9.737600E-1	9.729033E-1	9.177257E-1	9.606285E-1	9.254731E-1	9.831519E-1	9.236657E-1	9.861607E-1	9.714339E-1	9.271830E-1	9.738524E-1	9.702014E-1	9.337293E-1	9.219340E-1	9.590012E-1	9.860708E-1	9.690500E-1	9.450557E-1	9.040171E-1	9.528047E-1	9.443346E-1	9.472615E-1	9.367024E-1	9.515687E-1	9.395956E-1	9.379933E-1	9.338960E-1	9.543673E-1	9.540839E-1	9.389040E-1	9.615427E-1	9.510675E-1	9.083226E-1	9.376761E-1	9.380129E-1	9.622940E-1	9.565968E-1	9.658151E-1	9.454558E-1	9.670171E-1	9.146385E-1	9.335757E-1	9.440926E-1	9.609921E-1	9.878544E-1	9.205273E-1	9.583190E-1	9.653621E-1	9.711945E-1	1.001268E+0	9.151669E-1	8.831398E-1	9.536155E-1	9.417339E-1	9.643511E-1	9.646413E-1	9.014528E-1	9.094805E-1	9.593594E-1	9.847382E-1	9.165102E-1	9.148006E-1	9.354919E-1	9.244292E-1	9.624843E-1	9.475286E-1	9.299646E-1	9.276365E-1	8.970770E-1	9.089375E-1	9.227125E-1	9.566597E-1	9.668073E-1	9.695737E-1	9.884711E-1	9.907266E-1	9.789242E-1	9.402513E-1	9.127836E-1	9.392481E-1	9.644201E-1	9.449849E-1	9.592133E-1	9.199071E-1	9.237518E-1	9.281059E-1	9.463846E-1	9.646715E-1	9.634044E-1	9.428002E-1	9.223400E-1	9.208524E-1	9.641922E-1	9.588672E-1	9.654221E-1	9.734418E-1	9.244767E-1	9.544418E-1	9.426465E-1	9.806961E-1	9.258906E-1	9.741912E-1	9.633831E-1	9.226214E-1	9.816139E-1	9.503261E-1	9.436861E-1	9.562558E-1	9.551499E-1	9.206811E-1	9.369466E-1	9.271491E-1	9.868008E-1	9.575751E-1	9.403376E-1	9.082307E-1	9.672878E-1	9.531477E-1	9.427533E-1	9.762218E-1	9.251600E-1	9.352587E-1	1.000649E+0	9.362761E-1	9.945791E-1	9.711211E-1	9.692325E-1	9.631089E-1	9.215684E-1	9.175587E-1	9.146439E-1	9.408932E-1	9.620386E-1	9.521723E-1	9.309146E-1	9.141113E-1	9.453882E-1	9.651439E-1	9.089339E-1	8.722793E-1	9.424939E-1
5.425300E+2	9.699316E-1	9.229377E-1	8.941833E-1	9.173192E-1	9.532313E-1	9.133421E-1	9.092593E-1	9.456061E-1	9.494572E-1	9.536134E-1	9.059878E-1	9.105469E-1	9.190021E-1	9.078847E-1	9.574316E-1	9.486739E-1	9.340671E-1	9.715305E-1	8.905402E-1	9.469276E-1	9.242433E-1	9.388042E-1	9.300239E-1	9.654494E-1	9.645710E-1	9.393392E-1	8.934214E-1	9.229904E-1	9.394038E-1	9.588977E-1	9.456797E-1	9.482099E-1	8.931671E-1	9.334438E-1	9.025598E-1	9.059805E-1	9.265013E-1	9.201231E-1	9.537452E-1	9.611054E-1	9.453529E-1	9.691056E-1	9.974307E-1	9.208534E-1	9.486693E-1	9.789349E-1	9.230161E-1	9.263163E-1	8.966534E-1	9.598966E-1	9.192746E-1	9.630878E-1	9.064032E-1	9.196212E-1	9.434288E-1	9.143543E-1	8.760546E-1	9.360859E-1	9.372322E-1	9.344137E-1	8.916583E-1	9.354166E-1	9.131557E-1	9.486035E-1	9.240590E-1	9.277351E-1	9.452572E-1	9.327279E-1	9.227860E-1	9.397190E-1	9.530353E-1	9.090646E-1	9.315064E-1	9.307239E-1	9.781589E-1	9.658163E-1	9.040078E-1	9.368744E-1	9.921593E-1	9.262356E-1	9.285715E-1	9.585520E-1	8.979085E-1	9.580928E-1	9.767543E-1	9.381374E-1	9.335397E-1	9.445373E-1	9.523217E-1	9.123379E-1	9.302258E-1	8.829508E-1	9.441616E-1	9.427333E-1	9.203724E-1	9.604694E-1	9.539415E-1	9.428274E-1	9.315443E-1	9.089623E-1	9.416396E-1	9.455956E-1	9.010129E-1	9.385019E-1	9.349439E-1	9.136471E-1	9.293868E-1	9.709107E-1	9.712350E-1	9.608617E-1	9.515426E-1	9.294808E-1	8.991950E-1	9.558836E-1	9.329207E-1	9.762453E-1	9.462055E-1	9.154636E-1	9.425264E-1	9.189860E-1	9.172825E-1	9.745210E-1	9.150502E-1	9.480242E-1	9.425220E-1	9.271401E-1	9.347950E-1	9.163944E-1	9.207687E-1	9.506914E-1	9.331586E-1	9.020867E-1	9.349472E-1	9.531966E-1	9.957965E-1	9.473353E-1	9.429891E-1	9.075048E-1	9.705911E-1	9.239422E-1	9.058038E-1	9.605047E-1	9.569837E-1	9.598396E-1	9.704276E-1	9.135535E-1	9.172172E-1	8.837123E-1	9.425312E-1	9.141319E-1	9.618192E-1	9.414282E-1	8.997427E-1	9.284447E-1	9.456554E-1	9.592227E-1	9.388052E-1	9.064967E-1	9.417019E-1	9.487514E-1	9.375882E-1	9.668372E-1	9.173494E-1	9.424663E-1	9.596640E-1	9.211205E-1	9.600064E-1	8.940791E-1	9.226550E-1	8.680945E-1	8.347130E-1
5.427650E+2	1.059226E+0	9.989325E-1	1.026721E+0	9.946006E-1	9.808519E-1	9.800946E-1	1.033499E+0	9.815485E-1	1.070780E+0	1.074436E+0	9.892299E-1	9.662184E-1	1.007582E+0	1.010939E+0	1.045773E+0	9.691048E-1	1.006214E+0	1.072786E+0	9.710698E-1	9.844366E-1	1.004165E+0	1.001676E+0	9.664345E-1	1.005719E+0	1.036521E+0	1.023579E+0	9.977141E-1	1.016344E+0	9.862218E-1	9.903859E-1	1.041759E+0	9.699556E-1	1.030853E+0	1.034878E+0	1.000197E+0	1.006934E+0	1.002375E+0	9.701172E-1	1.003750E+0	9.849069E-1	1.023289E+0	1.029856E+0	1.039910E+0	1.004158E+0	1.045429E+0	1.053089E+0	9.492395E-1	9.867139E-1	1.045346E+0	9.754669E-1	9.927846E-1	1.025075E+0	1.012129E+0	1.007763E+0	9.853707E-1	9.834454E-1	1.028316E+0	1.066804E+0	9.780429E-1	1.022101E+0	1.002376E+0	1.017472E+0	9.766492E-1	9.896970E-1	9.753436E-1	9.839917E-1	9.693565E-1	9.937985E-1	1.020032E+0	1.018562E+0	1.018466E+0	1.015645E+0	1.022446E+0	1.019760E+0	1.017151E+0	9.984682E-1	1.016389E+0	1.046233E+0	1.011990E+0	9.768488E-1	1.026968E+0	9.628825E-1	9.788627E-1	9.992698E-1	1.062060E+0	1.035831E+0	9.735668E-1	1.041638E+0	1.074752E+0	1.003088E+0	9.754119E-1	9.856852E-1	1.006485E+0	1.044713E+0	1.016839E+0	1.013122E+0	1.019024E+0	1.022136E+0	9.977880E-1	9.623114E-1	1.053915E+0	1.025482E+0	9.924636E-1	1.005553E+0	1.019951E+0	9.763690E-1	1.020476E+0	9.945004E-1	1.012388E+0	9.994212E-1	1.030233E+0	1.005045E+0	1.011057E+0	9.924664E-1	9.906200E-1	9.973367E-1	1.004735E+0	1.027297E+0	1.017436E+0	1.002241E+0	1.000468E+0	1.062299E+0	9.974470E-1	1.043046E+0	1.029754E+0	1.031949E+0	9.900061E-1	9.889610E-1	1.006956E+0	1.000184E+0	9.859923E-1	1.066720E+0	1.015904E+0	9.861297E-1	1.028837E+0	1.031797E+0	1.032108E+0	9.967933E-1	9.895864E-1	9.953270E-1	1.005560E+0	1.027316E+0	1.030549E+0	1.035375E+0	9.961811E-1	1.040632E+0	9.870840E-1	9.522340E-1	1.007594E+0	1.053186E+0	1.013083E+0	1.055255E+0	9.777075E-1	1.021750E+0	9.786343E-1	1.049140E+0	9.904721E-1	1.061471E+0	9.863834E-1	1.016487E+0	9.994644E-1	1.022502E+0	1.012950E+0	1.008844E+0	1.073703E+0	1.012820E+0	9.682217E-1	1.039701E+0	1.008457E+0	9.946342E-1	9.509701E-1
5.430170E+2	1.230310E+0	1.125357E+0	1.151091E+0	1.108097E+0	1.190375E+0	1.126983E+0	1.086532E+0	1.107497E+0	1.151425E+0	1.111203E+0	1.136850E+0	1.126442E+0	1.164264E+0	1.145447E+0	1.151755E+0	1.153545E+0	1.134163E+0	1.163985E+0	1.123970E+0	1.166539E+0	1.192704E+0	1.142157E+0	1.154132E+0	1.149169E+0	1.183174E+0	1.170756E+0	1.149679E+0	1.161441E+0	1.095712E+0	1.136094E+0	1.170500E+0	1.131941E+0	1.174479E+0	1.152142E+0	1.163090E+0	1.112808E+0	1.175382E+0	1.133824E+0	1.163010E+0	1.171031E+0	1.141399E+0	1.068259E+0	1.131808E+0	1.094766E+0	1.153328E+0	1.200842E+0	1.168625E+0	1.182923E+0	1.128119E+0	1.097381E+0	1.166655E+0	1.189136E+0	1.152160E+0	1.140881E+0	1.146250E+0	1.130568E+0	1.089778E+0	1.180275E+0	1.097326E+0	1.182424E+0	1.126580E+0	1.138947E+0	1.169984E+0	1.199375E+0	1.186016E+0	1.204381E+0	1.130703E+0	1.170585E+0	1.145060E+0	1.142668E+0	1.130776E+0	1.178589E+0	1.179942E+0	1.149398E+0	1.083009E+0	1.146484E+0	1.090110E+0	1.142834E+0	1.134645E+0	1.169793E+0	1.153763E+0	1.158831E+0	1.093607E+0	1.139556E+0	1.140788E+0	1.183572E+0	1.144428E+0	1.133885E+0	1.168138E+0	1.155425E+0	1.145924E+0	1.157859E+0	1.118829E+0	1.118230E+0	1.142930E+0	1.106799E+0	1.178086E+0	1.232265E+0	1.102360E+0	1.148491E+0	1.214927E+0	1.110992E+0	1.060548E+0	1.148786E+0	1.181175E+0	1.118383E+0	1.127800E+0	1.160328E+0	1.158296E+0	1.170003E+0	1.184075E+0	1.177761E+0	1.144161E+0	1.130441E+0	1.183474E+0	1.140762E+0	1.142600E+0	1.157059E+0	1.144793E+0	1.158617E+0	1.156528E+0	1.156616E+0	1.139153E+0	1.151171E+0	1.145954E+0	1.144276E+0	1.133248E+0	1.149951E+0	1.105527E+0	1.152002E+0	1.164866E+0	1.134043E+0	1.113684E+0	1.174268E+0	1.105182E+0	1.077535E+0	1.157182E+0	1.111516E+0	1.176440E+0	1.137498E+0	1.190055E+0	1.112326E+0	1.155284E+0	1.150655E+0	1.120349E+0	1.174208E+0	1.138091E+0	1.121763E+0	1.135039E+0	1.121721E+0	1.146175E+0	1.161847E+0	1.166773E+0	1.199293E+0	1.177314E+0	1.133013E+0	1.118616E+0	1.164131E+0	1.172709E+0	1.141588E+0	1.109705E+0	1.113773E+0	1.119429E+0	1.183783E+0	1.141780E+0	1.118496E+0	1.149984E+0	1.105634E+0	1.108883E+0	1.181300E+0	1.229547E+0
5.432800E+2	1.286137E+0	1.320536E+0	1.295520E+0	1.331932E+0	1.371726E+0	1.322788E+0	1.279709E+0	1.314360E+0	1.327067E+0	1.295197E+0	1.315250E+0	1.281671E+0	1.297604E+0	1.320722E+0	1.320076E+0	1.302989E+0	1.299477E+0	1.323683E+0	1.279640E+0	1.326391E+0	1.253392E+0	1.323792E+0	1.299974E+0	1.315270E+0	1.307652E+0	1.217974E+0	1.275448E+0	1.259042E+0	1.291860E+0	1.277346E+0	1.305910E+0	1.314923E+0	1.321567E+0	1.296134E+0	1.281590E+0	1.315266E+0	1.337685E+0	1.284988E+0	1.317513E+0	1.281801E+0	1.296797E+0	1.270907E+0	1.270184E+0	1.273278E+0	1.216033E+0	1.244165E+0	1.266792E+0	1.288080E+0	1.289591E+0	1.306300E+0	1.230358E+0	1.316094E+0	1.282961E+0	1.333169E+0	1.256833E+0	1.262357E+0	1.294624E+0	1.333976E+0	1.279730E+0	1.274655E+0	1.269001E+0	1.299900E+0	1.243074E+0	1.294640E+0	1.333567E+0	1.264043E+0	1.360938E+0	1.318191E+0	1.258805E+0	1.313891E+0	1.228888E+0	1.310222E+0	1.287595E+0	1.256892E+0	1.267891E+0	1.292140E+0	1.266200E+0	1.366196E+0	1.320401E+0	1.309020E+0	1.283207E+0	1.303538E+0	1.229118E+0	1.247404E+0	1.300125E+0	1.290878E+0	1.259333E+0	1.269166E+0	1.263334E+0	1.289597E+0	1.289281E+0	1.297094E+0	1.302778E+0	1.311836E+0	1.283812E+0	1.306630E+0	1.268359E+0	1.321846E+0	1.292739E+0	1.247322E+0	1.295515E+0	1.300329E+0	1.234958E+0	1.280396E+0	1.309184E+0	1.280730E+0	1.301388E+0	1.262974E+0	1.309543E+0	1.335335E+0	1.277068E+0	1.319576E+0	1.294835E+0	1.266395E+0	1.268941E+0	1.309655E+0	1.314583E+0	1.313592E+0	1.296379E+0	1.273044E+0	1.264163E+0	1.273254E+0	1.265147E+0	1.291765E+0	1.291350E+0	1.300560E+0	1.286078E+0	1.299971E+0	1.309038E+0	1.298328E+0	1.279876E+0	1.312988E+0	1.264717E+0	1.258065E+0	1.293258E+0	1.233057E+0	1.257867E+0	1.313090E+0	1.280650E+0	1.317899E+0	1.245977E+0	1.278628E+0	1.283117E+0	1.269956E+0	1.343254E+0	1.305233E+0	1.273423E+0	1.288844E+0	1.296217E+0	1.326260E+0	1.299744E+0	1.267997E+0	1.278880E+0	1.247410E+0	1.343683E+0	1.281877E+0	1.316509E+0	1.299173E+0	1.297947E+0	1.281520E+0	1.245770E+0	1.298877E+0	1.350115E+0	1.277333E+0	1.339455E+0	1.258850E+0	1.261631E+0	1.292540E+0	1.166457E+0	1.298678E+0	1.273660E+0
5.435540E+2	1.503655E+0	1.416138E+0	1.504973E+0	1.434740E+0	1.536143E+0	1.444280E+0	1.422584E+0	1.437558E+0	1.468486E+0	1.429548E+0	1.426746E+0	1.477717E+0	1.483175E+0	1.425654E+0	1.399071E+0	1.448278E+0	1.475186E+0	1.439253E+0	1.436375E+0	1.470780E+0	1.414646E+0	1.439068E+0	1.452081E+0	1.455682E+0	1.466254E+0	1.431328E+0	1.409138E+0	1.462793E+0	1.448837E+0	1.398920E+0	1.492679E+0	1.485078E+0	1.454005E+0	1.470165E+0	1.430997E+0	1.406266E+0	1.487783E+0	1.436166E+0	1.458645E+0	1.443692E+0	1.441257E+0	1.465957E+0	1.448330E+0	1.470206E+0	1.488414E+0	1.474817E+0	1.435318E+0	1.427061E+0	1.425876E+0	1.482262E+0	1.417976E+0	1.478404E+0	1.406686E+0	1.477894E+0	1.457679E+0	1.452617E+0	1.445126E+0	1.513829E+0	1.404338E+0	1.445297E+0	1.405141E+0	1.427843E+0	1.446049E+0	1.437064E+0	1.459408E+0	1.419018E+0	1.398127E+0	1.377190E+0	1.436501E+0	1.458762E+0	1.407727E+0	1.442393E+0	1.425967E+0	1.434549E+0	1.462418E+0	1.466271E+0	1.444203E+0	1.455958E+0	1.470458E+0	1.443534E+0	1.428265E+0	1.428428E+0	1.411405E+0	1.379046E+0	1.428689E+0	1.459835E+0	1.418139E+0	1.405125E+0	1.452356E+0	1.443705E+0	1.411202E+0	1.493839E+0	1.487382E+0	1.452340E+0	1.436733E+0	1.467356E+0	1.437886E+0	1.427154E+0	1.430858E+0	1.421721E+0	1.434223E+0	1.443213E+0	1.418079E+0	1.412476E+0	1.433915E+0	1.423123E+0	1.444556E+0	1.414474E+0	1.423852E+0	1.433743E+0	1.415549E+0	1.433938E+0	1.397141E+0	1.419614E+0	1.464890E+0	1.478840E+0	1.417976E+0	1.425765E+0	1.399248E+0	1.437982E+0	1.434867E+0	1.406917E+0	1.413217E+0	1.440803E+0	1.432958E+0	1.413556E+0	1.463088E+0	1.449581E+0	1.399554E+0	1.440671E+0	1.444768E+0	1.462878E+0	1.438013E+0	1.414371E+0	1.431108E+0	1.393721E+0	1.448985E+0	1.446234E+0	1.488871E+0	1.446122E+0	1.436690E+0	1.391024E+0	1.416081E+0	1.432818E+0	1.388438E+0	1.420503E+0	1.434797E+0	1.390711E+0	1.443071E+0	1.382753E+0	1.498027E+0	1.491956E+0	1.436592E+0	1.456877E+0	1.436581E+0	1.440954E+0	1.425142E+0	1.456334E+0	1.428663E+0	1.391290E+0	1.388509E+0	1.405995E+0	1.431178E+0	1.443416E+0	1.361846E+0	1.383805E+0	1.404698E+0	1.412282E+0	1.397922E+0	1.397776E+0	1.483340E+0
5.437640E+2	1.563409E+0	1.497446E+0	1.517525E+0	1.533445E+0	1.552069E+0	1.514062E+0	1.490991E+0	1.528290E+0	1.518933E+0	1.497559E+0	1.566624E+0	1.481579E+0	1.512109E+0	1.530423E+0	1.503485E+0	1.523744E+0	1.516596E+0	1.534306E+0	1.534671E+0	1.544294E+0	1.508555E+0	1.529103E+0	1.542719E+0	1.573078E+0	1.514199E+0	1.502797E+0	1.518971E+0	1.515107E+0	1.498392E+0	1.508218E+0	1.546119E+0	1.545342E+0	1.505357E+0	1.549287E+0	1.471150E+0	1.529331E+0	1.527146E+0	1.539550E+0	1.599599E+0	1.497125E+0	1.478744E+0	1.561416E+0	1.507843E+0	1.545508E+0	1.538569E+0	1.591451E+0	1.519500E+0	1.493244E+0	1.487218E+0	1.480299E+0	1.476788E+0	1.529781E+0	1.486027E+0	1.488768E+0	1.465928E+0	1.468614E+0	1.468974E+0	1.526489E+0	1.483023E+0	1.468207E+0	1.466614E+0	1.476181E+0	1.552995E+0	1.533246E+0	1.484334E+0	1.538846E+0	1.532387E+0	1.530496E+0	1.524643E+0	1.556693E+0	1.483756E+0	1.503818E+0	1.518392E+0	1.519836E+0	1.555163E+0	1.470677E+0	1.504652E+0	1.491647E+0	1.505798E+0	1.538690E+0	1.558513E+0	1.531097E+0	1.501072E+0	1.496547E+0	1.580996E+0	1.551996E+0	1.499980E+0	1.517747E+0	1.509703E+0	1.525352E+0	1.502515E+0	1.469983E+0	1.521226E+0	1.491160E+0	1.512730E+0	1.535431E+0	1.490384E+0	1.553138E+0	1.488900E+0	1.496288E+0	1.501627E+0	1.477537E+0	1.565896E+0	1.532657E+0	1.482229E+0	1.486191E+0	1.465666E+0	1.502754E+0	1.529371E+0	1.511791E+0	1.483846E+0	1.415242E+0	1.478242E+0	1.446169E+0	1.510684E+0	1.552306E+0	1.511292E+0	1.492437E+0	1.499771E+0	1.462070E+0	1.531509E+0	1.488081E+0	1.521659E+0	1.546543E+0	1.499355E+0	1.494374E+0	1.540614E+0	1.490369E+0	1.487185E+0	1.471478E+0	1.503653E+0	1.484842E+0	1.503296E+0	1.457374E+0	1.494215E+0	1.419066E+0	1.512576E+0	1.509909E+0	1.497264E+0	1.483837E+0	1.487638E+0	1.431986E+0	1.505957E+0	1.490099E+0	1.550203E+0	1.457282E+0	1.556820E+0	1.487165E+0	1.495522E+0	1.488177E+0	1.508179E+0	1.510100E+0	1.473060E+0	1.483955E+0	1.497087E+0	1.498097E+0	1.493141E+0	1.445195E+0	1.509578E+0	1.492511E+0	1.434733E+0	1.475283E+0	1.484583E+0	1.480983E+0	1.500351E+0	1.443096E+0	1.522020E+0	1.528418E+0	1.449591E+0	1.398940E+0	1.484288E+0
5.440120E+2	1.637236E+0	1.546275E+0	1.602256E+0	1.567318E+0	1.658196E+0	1.562334E+0	1.550769E+0	1.523053E+0	1.618001E+0	1.539029E+0	1.620734E+0	1.549376E+0	1.584707E+0	1.540693E+0	1.642844E+0	1.570942E+0	1.567793E+0	1.586971E+0	1.567797E+0	1.597376E+0	1.579116E+0	1.568704E+0	1.543017E+0	1.612081E+0	1.551808E+0	1.617329E+0	1.626624E+0	1.562979E+0	1.537139E+0	1.545255E+0	1.612271E+0	1.597921E+0	1.563187E+0	1.534437E+0	1.562812E+0	1.563687E+0	1.597574E+0	1.589243E+0	1.550833E+0	1.582460E+0	1.530125E+0	1.572958E+0	1.549735E+0	1.635036E+0	1.556769E+0	1.563677E+0	1.497853E+0	1.577272E+0	1.602071E+0	1.542245E+0	1.536247E+0	1.573588E+0	1.574132E+0	1.593660E+0	1.578284E+0	1.586075E+0	1.593325E+0	1.542628E+0	1.559262E+0	1.561682E+0	1.559497E+0	1.566248E+0	1.536669E+0	1.532787E+0	1.583373E+0	1.562053E+0	1.592676E+0	1.575401E+0	1.541648E+0	1.593790E+0	1.556650E+0	1.589314E+0	1.574412E+0	1.527549E+0	1.570416E+0	1.568675E+0	1.592008E+0	1.615877E+0	1.543817E+0	1.541570E+0	1.540122E+0	1.633070E+0	1.570553E+0	1.547141E+0	1.572437E+0	1.523887E+0	1.493162E+0	1.531544E+0	1.581961E+0	1.555242E+0	1.572219E+0	1.562881E+0	1.587794E+0	1.548478E+0	1.546321E+0	1.564232E+0	1.583988E+0	1.618125E+0	1.555154E+0	1.552711E+0	1.623719E+0	1.469601E+0	1.528052E+0	1.568630E+0	1.588407E+0	1.564958E+0	1.514785E+0	1.578754E+0	1.580311E+0	1.545631E+0	1.585891E+0	1.513452E+0	1.528449E+0	1.526021E+0	1.507337E+0	1.546113E+0	1.642865E+0	1.559041E+0	1.527229E+0	1.532294E+0	1.569543E+0	1.629440E+0	1.552694E+0	1.569599E+0	1.547660E+0	1.551306E+0	1.562554E+0	1.539457E+0	1.496679E+0	1.616152E+0	1.534931E+0	1.549373E+0	1.574975E+0	1.552410E+0	1.567273E+0	1.517095E+0	1.535000E+0	1.529444E+0	1.542091E+0	1.534737E+0	1.546227E+0	1.497866E+0	1.582972E+0	1.538390E+0	1.544145E+0	1.537842E+0	1.577517E+0	1.543670E+0	1.538108E+0	1.561234E+0	1.506665E+0	1.550216E+0	1.511880E+0	1.579431E+0	1.602723E+0	1.622726E+0	1.568749E+0	1.558405E+0	1.560057E+0	1.518940E+0	1.547925E+0	1.596505E+0	1.560001E+0	1.524879E+0	1.567494E+0	1.547718E+0	1.525960E+0	1.569643E+0	1.467719E+0	1.506125E+0	1.537282E+0
5.442860E+2	1.670327E+0	1.519347E+0	1.639873E+0	1.576247E+0	1.607844E+0	1.556259E+0	1.607049E+0	1.587718E+0	1.650234E+0	1.599083E+0	1.537230E+0	1.536115E+0	1.565260E+0	1.469872E+0	1.582565E+0	1.590548E+0	1.558012E+0	1.547848E+0	1.546418E+0	1.582347E+0	1.620005E+0	1.586746E+0	1.556571E+0	1.595549E+0	1.566976E+0	1.603511E+0	1.603934E+0	1.623312E+0	1.536913E+0	1.573694E+0	1.616329E+0	1.569695E+0	1.588362E+0	1.628436E+0	1.563893E+0	1.523549E+0	1.608073E+0	1.536576E+0	1.565679E+0	1.560615E+0	1.548562E+0	1.542169E+0	1.509548E+0	1.566619E+0	1.509558E+0	1.532023E+0	1.510431E+0	1.520341E+0	1.548947E+0	1.577963E+0	1.541592E+0	1.548561E+0	1.577228E+0	1.543084E+0	1.564982E+0	1.548825E+0	1.615521E+0	1.569129E+0	1.541343E+0	1.503714E+0	1.533852E+0	1.575745E+0	1.611032E+0	1.585902E+0	1.616935E+0	1.558611E+0	1.597367E+0	1.584495E+0	1.595666E+0	1.570639E+0	1.560563E+0	1.589996E+0	1.557099E+0	1.571911E+0	1.581279E+0	1.606470E+0	1.601069E+0	1.595767E+0	1.628247E+0	1.623428E+0	1.531019E+0	1.536007E+0	1.519587E+0	1.539770E+0	1.593165E+0	1.578043E+0	1.589877E+0	1.538040E+0	1.620705E+0	1.557925E+0	1.550970E+0	1.587732E+0	1.533422E+0	1.510644E+0	1.621323E+0	1.563876E+0	1.595806E+0	1.569870E+0	1.545022E+0	1.539883E+0	1.594179E+0	1.556377E+0	1.576488E+0	1.567360E+0	1.574104E+0	1.561471E+0	1.536365E+0	1.596871E+0	1.586280E+0	1.576594E+0	1.612575E+0	1.509143E+0	1.554597E+0	1.572041E+0	1.570795E+0	1.551066E+0	1.561970E+0	1.526828E+0	1.587667E+0	1.567451E+0	1.606883E+0	1.603716E+0	1.552975E+0	1.547974E+0	1.548473E+0	1.563608E+0	1.606289E+0	1.575288E+0	1.593988E+0	1.514576E+0	1.579969E+0	1.497172E+0	1.559973E+0	1.533625E+0	1.527863E+0	1.544809E+0	1.495955E+0	1.579119E+0	1.508728E+0	1.546961E+0	1.518888E+0	1.510406E+0	1.600133E+0	1.544455E+0	1.532565E+0	1.542171E+0	1.556655E+0	1.530248E+0	1.577027E+0	1.568967E+0	1.556464E+0	1.589578E+0	1.556113E+0	1.510441E+0	1.597088E+0	1.553854E+0	1.555771E+0	1.531736E+0	1.579697E+0	1.542102E+0	1.530716E+0	1.568038E+0	1.542248E+0	1.541560E+0	1.559033E+0	1.516727E+0	1.540635E+0	1.575171E+0	1.477123E+0	1.547449E+0	1.492311E+0
5.445290E+2	1.602015E+0	1.535830E+0	1.567800E+0	1.477822E+0	1.547894E+0	1.517381E+0	1.535616E+0	1.546366E+0	1.585202E+0	1.559414E+0	1.567034E+0	1.571869E+0	1.566992E+0	1.507453E+0	1.613758E+0	1.547274E+0	1.556398E+0	1.563800E+0	1.500741E+0	1.531202E+0	1.555847E+0	1.565908E+0	1.577081E+0	1.505380E+0	1.578842E+0	1.604239E+0	1.572146E+0	1.540485E+0	1.558568E+0	1.547867E+0	1.579438E+0	1.573965E+0	1.580459E+0	1.542367E+0	1.541895E+0	1.533858E+0	1.572462E+0	1.570723E+0	1.535794E+0	1.527010E+0	1.558308E+0	1.527373E+0	1.572932E+0	1.557488E+0	1.545220E+0	1.564887E+0	1.513531E+0	1.597281E+0	1.517489E+0	1.563644E+0	1.510308E+0	1.571737E+0	1.576908E+0	1.557135E+0	1.538804E+0	1.543001E+0	1.545529E+0	1.554243E+0	1.577771E+0	1.526353E+0	1.533745E+0	1.583854E+0	1.555060E+0	1.589952E+0	1.527426E+0	1.539235E+0	1.542956E+0	1.543265E+0	1.604000E+0	1.565294E+0	1.545867E+0	1.549102E+0	1.550862E+0	1.553832E+0	1.516744E+0	1.475054E+0	1.547685E+0	1.523163E+0	1.489890E+0	1.494220E+0	1.516375E+0	1.553120E+0	1.556263E+0	1.512720E+0	1.566526E+0	1.544010E+0	1.492820E+0	1.500209E+0	1.582441E+0	1.546980E+0	1.517369E+0	1.592739E+0	1.551089E+0	1.494538E+0	1.572065E+0	1.503500E+0	1.537071E+0	1.535687E+0	1.556198E+0	1.535632E+0	1.592122E+0	1.521362E+0	1.554075E+0	1.533877E+0	1.537776E+0	1.501697E+0	1.541760E+0	1.557068E+0	1.543863E+0	1.563817E+0	1.596678E+0	1.567862E+0	1.474298E+0	1.540582E+0	1.554206E+0	1.529871E+0	1.563238E+0	1.529702E+0	1.515347E+0	1.550102E+0	1.490733E+0	1.554114E+0	1.524969E+0	1.546336E+0	1.531371E+0	1.497251E+0	1.567375E+0	1.568908E+0	1.497408E+0	1.560001E+0	1.590534E+0	1.511892E+0	1.515279E+0	1.536145E+0	1.490814E+0	1.555868E+0	1.531292E+0	1.491881E+0	1.596143E+0	1.543415E+0	1.484754E+0	1.545343E+0	1.609183E+0	1.482386E+0	1.482475E+0	1.453884E+0	1.502419E+0	1.560085E+0	1.582443E+0	1.547858E+0	1.550331E+0	1.519817E+0	1.520071E+0	1.555800E+0	1.585022E+0	1.566982E+0	1.506691E+0	1.510961E+0	1.558937E+0	1.505044E+0	1.468915E+0	1.521963E+0	1.523891E+0	1.482783E+0	1.531377E+0	1.542409E+0	1.512668E+0	1.541380E+0	1.510960E+0	1.462819E+0	1.512930E+0
5.447660E+2	1.505382E+0	1.429379E+0	1.498445E+0	1.453599E+0	1.522061E+0	1.465145E+0	1.468269E+0	1.437398E+0	1.457235E+0	1.454104E+0	1.471440E+0	1.378511E+0	1.471730E+0	1.404418E+0	1.514853E+0	1.482593E+0	1.460035E+0	1.465544E+0	1.458591E+0	1.507594E+0	1.506257E+0	1.446611E+0	1.462271E+0	1.472031E+0	1.466582E+0	1.477857E+0	1.475190E+0	1.437249E+0	1.479590E+0	1.450702E+0	1.478390E+0	1.470699E+0	1.527432E+0	1.436524E+0	1.495077E+0	1.447871E+0	1.529743E+0	1.484890E+0	1.478188E+0	1.423302E+0	1.456964E+0	1.464233E+0	1.456394E+0	1.477393E+0	1.476276E+0	1.437102E+0	1.506401E+0	1.492841E+0	1.427228E+0	1.448978E+0	1.461569E+0	1.525738E+0	1.439937E+0	1.500669E+0	1.467564E+0	1.453394E+0	1.473480E+0	1.435600E+0	1.435867E+0	1.455716E+0	1.411043E+0	1.438388E+0	1.475674E+0	1.480123E+0	1.475899E+0	1.406184E+0	1.399140E+0	1.428321E+0	1.483236E+0	1.461998E+0	1.428899E+0	1.456209E+0	1.476630E+0	1.470417E+0	1.473358E+0	1.462840E+0	1.454877E+0	1.440241E+0	1.461062E+0	1.502647E+0	1.419872E+0	1.475624E+0	1.474335E+0	1.469819E+0	1.457461E+0	1.459382E+0	1.439976E+0	1.426726E+0	1.473065E+0	1.455405E+0	1.389297E+0	1.453299E+0	1.477857E+0	1.408372E+0	1.447722E+0	1.409798E+0	1.437137E+0	1.462856E+0	1.454834E+0	1.431108E+0	1.463867E+0	1.410174E+0	1.445694E+0	1.396798E+0	1.447714E+0	1.471923E+0	1.441472E+0	1.446479E+0	1.446288E+0	1.464935E+0	1.463101E+0	1.406700E+0	1.433439E+0	1.464502E+0	1.466571E+0	1.387522E+0	1.481052E+0	1.472480E+0	1.421921E+0	1.389944E+0	1.457013E+0	1.411668E+0	1.408856E+0	1.451406E+0	1.424752E+0	1.417549E+0	1.461778E+0	1.432171E+0	1.425212E+0	1.409318E+0	1.466016E+0	1.448043E+0	1.441796E+0	1.495984E+0	1.439553E+0	1.448572E+0	1.387672E+0	1.448826E+0	1.474664E+0	1.463607E+0	1.427977E+0	1.405376E+0	1.485694E+0	1.423611E+0	1.422121E+0	1.416640E+0	1.416282E+0	1.351915E+0	1.335949E+0	1.496484E+0	1.503419E+0	1.405598E+0	1.498665E+0	1.411468E+0	1.446468E+0	1.463811E+0	1.431348E+0	1.488371E+0	1.443978E+0	1.416102E+0	1.412380E+0	1.442887E+0	1.444869E+0	1.434066E+0	1.431051E+0	1.446908E+0	1.395550E+0	1.444334E+0	1.416064E+0	1.351820E+0	1.433555E+0
5.450200E+2	1.436595E+0	1.352092E+0	1.398357E+0	1.309845E+0	1.354999E+0	1.349172E+0	1.345411E+0	1.433479E+0	1.399067E+0	1.366413E+0	1.390780E+0	1.350589E+0	1.336007E+0	1.338486E+0	1.410263E+0	1.408028E+0	1.345911E+0	1.402119E+0	1.347488E+0	1.359874E+0	1.355818E+0	1.342869E+0	1.301967E+0	1.381943E+0	1.394372E+0	1.378028E+0	1.328224E+0	1.381668E+0	1.336030E+0	1.413935E+0	1.362873E+0	1.372143E+0	1.390324E+0	1.335974E+0	1.334544E+0	1.346106E+0	1.346236E+0	1.364892E+0	1.341997E+0	1.355601E+0	1.356537E+0	1.383481E+0	1.354085E+0	1.342383E+0	1.380897E+0	1.359541E+0	1.358707E+0	1.373829E+0	1.368316E+0	1.380354E+0	1.343297E+0	1.349595E+0	1.318795E+0	1.339325E+0	1.373338E+0	1.371608E+0	1.332674E+0	1.359556E+0	1.358934E+0	1.350388E+0	1.359469E+0	1.360308E+0	1.306261E+0	1.358167E+0	1.361715E+0	1.309365E+0	1.349893E+0	1.384060E+0	1.398450E+0	1.333588E+0	1.365175E+0	1.361039E+0	1.339129E+0	1.336532E+0	1.338643E+0	1.378489E+0	1.332436E+0	1.357405E+0	1.356530E+0	1.343623E+0	1.351197E+0	1.348895E+0	1.327572E+0	1.318620E+0	1.355233E+0	1.336057E+0	1.332942E+0	1.350378E+0	1.359709E+0	1.363372E+0	1.397020E+0	1.377260E+0	1.417887E+0	1.333132E+0	1.375166E+0	1.371912E+0	1.344623E+0	1.387464E+0	1.335664E+0	1.320392E+0	1.433540E+0	1.321709E+0	1.363687E+0	1.315540E+0	1.393283E+0	1.316462E+0	1.353031E+0	1.329440E+0	1.376048E+0	1.348958E+0	1.376673E+0	1.377496E+0	1.327427E+0	1.344798E+0	1.358836E+0	1.330053E+0	1.383553E+0	1.315171E+0	1.335678E+0	1.325350E+0	1.385017E+0	1.305848E+0	1.361999E+0	1.368721E+0	1.365526E+0	1.361234E+0	1.380967E+0	1.345217E+0	1.303110E+0	1.347402E+0	1.377097E+0	1.398740E+0	1.356791E+0	1.370853E+0	1.338659E+0	1.371277E+0	1.307163E+0	1.370791E+0	1.339962E+0	1.361339E+0	1.350452E+0	1.370461E+0	1.383013E+0	1.325391E+0	1.345564E+0	1.321224E+0	1.348023E+0	1.276353E+0	1.315222E+0	1.332088E+0	1.312423E+0	1.328583E+0	1.375171E+0	1.309948E+0	1.393230E+0	1.348121E+0	1.311265E+0	1.318896E+0	1.366332E+0	1.330979E+0	1.337150E+0	1.313634E+0	1.387512E+0	1.330450E+0	1.384898E+0	1.350037E+0	1.330048E+0	1.365223E+0	1.327530E+0	1.288393E+0	1.276279E+0
5.452740E+2	1.367689E+0	1.276962E+0	1.359139E+0	1.269643E+0	1.327687E+0	1.293862E+0	1.319582E+0	1.281247E+0	1.319526E+0	1.325300E+0	1.239046E+0	1.283385E+0	1.265401E+0	1.245104E+0	1.294435E+0	1.250834E+0	1.262227E+0	1.284406E+0	1.232738E+0	1.276770E+0	1.261821E+0	1.261435E+0	1.253158E+0	1.292194E+0	1.311691E+0	1.320792E+0	1.256797E+0	1.312012E+0	1.242423E+0	1.289307E+0	1.314183E+0	1.269782E+0	1.289812E+0	1.320894E+0	1.274260E+0	1.259295E+0	1.292742E+0	1.300102E+0	1.331551E+0	1.281814E+0	1.279518E+0	1.246447E+0	1.224350E+0	1.313446E+0	1.286525E+0	1.289383E+0	1.270336E+0	1.295542E+0	1.241570E+0	1.287729E+0	1.290866E+0	1.274973E+0	1.279586E+0	1.307375E+0	1.251062E+0	1.291353E+0	1.283090E+0	1.309001E+0	1.317146E+0	1.304703E+0	1.226998E+0	1.289355E+0	1.278617E+0	1.264681E+0	1.288229E+0	1.243698E+0	1.299775E+0	1.275506E+0	1.322484E+0	1.296108E+0	1.263998E+0	1.261942E+0	1.257727E+0	1.286345E+0	1.255031E+0	1.269587E+0	1.287767E+0	1.277041E+0	1.288630E+0	1.304726E+0	1.315479E+0	1.333696E+0	1.225779E+0	1.249097E+0	1.257214E+0	1.246210E+0	1.256209E+0	1.308650E+0	1.280227E+0	1.313899E+0	1.290579E+0	1.253218E+0	1.301660E+0	1.261609E+0	1.227655E+0	1.315632E+0	1.263263E+0	1.276503E+0	1.278603E+0	1.247389E+0	1.285870E+0	1.222715E+0	1.273602E+0	1.261659E+0	1.293439E+0	1.311113E+0	1.271153E+0	1.272116E+0	1.268056E+0	1.340016E+0	1.272659E+0	1.295903E+0	1.284869E+0	1.265630E+0	1.276691E+0	1.281716E+0	1.248752E+0	1.235554E+0	1.293219E+0	1.277458E+0	1.263117E+0	1.264009E+0	1.233897E+0	1.290412E+0	1.315709E+0	1.242683E+0	1.316637E+0	1.279797E+0	1.256745E+0	1.262347E+0	1.296033E+0	1.257766E+0	1.271596E+0	1.275867E+0	1.255851E+0	1.310114E+0	1.250776E+0	1.268836E+0	1.321660E+0	1.313028E+0	1.252979E+0	1.259942E+0	1.255375E+0	1.305372E+0	1.289486E+0	1.309933E+0	1.268464E+0	1.238057E+0	1.306239E+0	1.284269E+0	1.284926E+0	1.301528E+0	1.286705E+0	1.232751E+0	1.243023E+0	1.303966E+0	1.248941E+0	1.234589E+0	1.239480E+0	1.255432E+0	1.261402E+0	1.269438E+0	1.252986E+0	1.243750E+0	1.303439E+0	1.248413E+0	1.283430E+0	1.260693E+0	1.249594E+0	1.258764E+0	1.285661E+0
5.455290E+2	1.272027E+0	1.195307E+0	1.268416E+0	1.209869E+0	1.252953E+0	1.226543E+0	1.208470E+0	1.211484E+0	1.274346E+0	1.209794E+0	1.192125E+0	1.253662E+0	1.199615E+0	1.213356E+0	1.237972E+0	1.194590E+0	1.256131E+0	1.240897E+0	1.230240E+0	1.203062E+0	1.202692E+0	1.235539E+0	1.200571E+0	1.227011E+0	1.212830E+0	1.238787E+0	1.196519E+0	1.253629E+0	1.217502E+0	1.177993E+0	1.212290E+0	1.257836E+0	1.255058E+0	1.261402E+0	1.258362E+0	1.216847E+0	1.183326E+0	1.256990E+0	1.218712E+0	1.221601E+0	1.225593E+0	1.264818E+0	1.238289E+0	1.224148E+0	1.239339E+0	1.245552E+0	1.231321E+0	1.214196E+0	1.204618E+0	1.190600E+0	1.189865E+0	1.258898E+0	1.245723E+0	1.208310E+0	1.264756E+0	1.213886E+0	1.224660E+0	1.234945E+0	1.193670E+0	1.227773E+0	1.213760E+0	1.203809E+0	1.176043E+0	1.240488E+0	1.264503E+0	1.232764E+0	1.194146E+0	1.239498E+0	1.171907E+0	1.242166E+0	1.204946E+0	1.234142E+0	1.255285E+0	1.209727E+0	1.212933E+0	1.244821E+0	1.266883E+0	1.216738E+0	1.228609E+0	1.277805E+0	1.225751E+0	1.230624E+0	1.218205E+0	1.255095E+0	1.256927E+0	1.212495E+0	1.217063E+0	1.216149E+0	1.217261E+0	1.175018E+0	1.173265E+0	1.242813E+0	1.248312E+0	1.253429E+0	1.275930E+0	1.241004E+0	1.226458E+0	1.235732E+0	1.176475E+0	1.182833E+0	1.280052E+0	1.191874E+0	1.223075E+0	1.239331E+0	1.233277E+0	1.241094E+0	1.232627E+0	1.247992E+0	1.281491E+0	1.169363E+0	1.238956E+0	1.266488E+0	1.212626E+0	1.190888E+0	1.235001E+0	1.200017E+0	1.232053E+0	1.173853E+0	1.205416E+0	1.205735E+0	1.212570E+0	1.226444E+0	1.206171E+0	1.247265E+0	1.224951E+0	1.177407E+0	1.312824E+0	1.282793E+0	1.212747E+0	1.245611E+0	1.180154E+0	1.219290E+0	1.171232E+0	1.221578E+0	1.210562E+0	1.197195E+0	1.274702E+0	1.193453E+0	1.203296E+0	1.247511E+0	1.229193E+0	1.208487E+0	1.194638E+0	1.200866E+0	1.227653E+0	1.194058E+0	1.218936E+0	1.147154E+0	1.225166E+0	1.219351E+0	1.205450E+0	1.229901E+0	1.238067E+0	1.241023E+0	1.171956E+0	1.219903E+0	1.209183E+0	1.180836E+0	1.246385E+0	1.238042E+0	1.166179E+0	1.220354E+0	1.271096E+0	1.180219E+0	1.237712E+0	1.196174E+0	1.227361E+0	1.165816E+0	1.198021E+0	1.149370E+0	1.160743E+0
5.457990E+2	1.215725E+0	1.166248E+0	1.241858E+0	1.207336E+0	1.218388E+0	1.183929E+0	1.212826E+0	1.183124E+0	1.219169E+0	1.203068E+0	1.187573E+0	1.187330E+0	1.215122E+0	1.195958E+0	1.221633E+0	1.150266E+0	1.172146E+0	1.251456E+0	1.220870E+0	1.211064E+0	1.194722E+0	1.226086E+0	1.155516E+0	1.207482E+0	1.185261E+0	1.215553E+0	1.203051E+0	1.231851E+0	1.166289E+0	1.185599E+0	1.182113E+0	1.210705E+0	1.249292E+0	1.183727E+0	1.206632E+0	1.255456E+0	1.210435E+0	1.210111E+0	1.188527E+0	1.203019E+0	1.235135E+0	1.208551E+0	1.200061E+0	1.234374E+0	1.153413E+0	1.197544E+0	1.206272E+0	1.213650E+0	1.204686E+0	1.225145E+0	1.206591E+0	1.171864E+0	1.194782E+0	1.213655E+0	1.162747E+0	1.169487E+0	1.209116E+0	1.192217E+0	1.174372E+0	1.206444E+0	1.203829E+0	1.214327E+0	1.148977E+0	1.199527E+0	1.217668E+0	1.182258E+0	1.192061E+0	1.193010E+0	1.194687E+0	1.226271E+0	1.192019E+0	1.156492E+0	1.213940E+0	1.203183E+0	1.197389E+0	1.184629E+0	1.210098E+0	1.227412E+0	1.138829E+0	1.185518E+0	1.188044E+0	1.222412E+0	1.165329E+0	1.153398E+0	1.187289E+0	1.207389E+0	1.182273E+0	1.202531E+0	1.261327E+0	1.181544E+0	1.241149E+0	1.192497E+0	1.197329E+0	1.221331E+0	1.171620E+0	1.247320E+0	1.182401E+0	1.162667E+0	1.166391E+0	1.211822E+0	1.223506E+0	1.204340E+0	1.202082E+0	1.219262E+0	1.175805E+0	1.169653E+0	1.193195E+0	1.196621E+0	1.184659E+0	1.181280E+0	1.180792E+0	1.226261E+0	1.152285E+0	1.190563E+0	1.136937E+0	1.125973E+0	1.203818E+0	1.230496E+0	1.170131E+0	1.195345E+0	1.180630E+0	1.189313E+0	1.188685E+0	1.209618E+0	1.217616E+0	1.132300E+0	1.175024E+0	1.206170E+0	1.180542E+0	1.161976E+0	1.160589E+0	1.198718E+0	1.178285E+0	1.185945E+0	1.196580E+0	1.155911E+0	1.180870E+0	1.201569E+0	1.195797E+0	1.250107E+0	1.170186E+0	1.188729E+0	1.208844E+0	1.236891E+0	1.148023E+0	1.206481E+0	1.250426E+0	1.149700E+0	1.232479E+0	1.176107E+0	1.174855E+0	1.187185E+0	1.210822E+0	1.171936E+0	1.233795E+0	1.217398E+0	1.213157E+0	1.201948E+0	1.193398E+0	1.211091E+0	1.145442E+0	1.219956E+0	1.129769E+0	1.220251E+0	1.251474E+0	1.156166E+0	1.143977E+0	1.198483E+0	1.158826E+0	1.150928E+0	1.248386E+0
5.460060E+2	1.222231E+0	1.212868E+0	1.210909E+0	1.196082E+0	1.230981E+0	1.237519E+0	1.178039E+0	1.177714E+0	1.199267E+0	1.197855E+0	1.161077E+0	1.188440E+0	1.204529E+0	1.132832E+0	1.164902E+0	1.225953E+0	1.172451E+0	1.187833E+0	1.181027E+0	1.203663E+0	1.167433E+0	1.202643E+0	1.169551E+0	1.193972E+0	1.139701E+0	1.139262E+0	1.218983E+0	1.171483E+0	1.142916E+0	1.162225E+0	1.204525E+0	1.182534E+0	1.189696E+0	1.224285E+0	1.193476E+0	1.192826E+0	1.224374E+0	1.219914E+0	1.172307E+0	1.151579E+0	1.201991E+0	1.224359E+0	1.162461E+0	1.209522E+0	1.151356E+0	1.202420E+0	1.136549E+0	1.210696E+0	1.176128E+0	1.169636E+0	1.186704E+0	1.237842E+0	1.160778E+0	1.187882E+0	1.173670E+0	1.189046E+0	1.225466E+0	1.246633E+0	1.175117E+0	1.151520E+0	1.204727E+0	1.196282E+0	1.153155E+0	1.184754E+0	1.241987E+0	1.149813E+0	1.201912E+0	1.157343E+0	1.183273E+0	1.200891E+0	1.199949E+0	1.217868E+0	1.225114E+0	1.155807E+0	1.176670E+0	1.159497E+0	1.165242E+0	1.187561E+0	1.170131E+0	1.226095E+0	1.122429E+0	1.173287E+0	1.159189E+0	1.127797E+0	1.171046E+0	1.199275E+0	1.147632E+0	1.180077E+0	1.219302E+0	1.148652E+0	1.222754E+0	1.221724E+0	1.169527E+0	1.205150E+0	1.225176E+0	1.170875E+0	1.173231E+0	1.195913E+0	1.214818E+0	1.139112E+0	1.252545E+0	1.148408E+0	1.208137E+0	1.216833E+0	1.156303E+0	1.138428E+0	1.162287E+0	1.190729E+0	1.181307E+0	1.185323E+0	1.176650E+0	1.197336E+0	1.154356E+0	1.140922E+0	1.199911E+0	1.222760E+0	1.176296E+0	1.196652E+0	1.168280E+0	1.184204E+0	1.148141E+0	1.182575E+0	1.212932E+0	1.161192E+0	1.253397E+0	1.168315E+0	1.157163E+0	1.195237E+0	1.151820E+0	1.158215E+0	1.187259E+0	1.185754E+0	1.184205E+0	1.216371E+0	1.162188E+0	1.167574E+0	1.128711E+0	1.182102E+0	1.180137E+0	1.194461E+0	1.165950E+0	1.161194E+0	1.250494E+0	1.177349E+0	1.192803E+0	1.152616E+0	1.195888E+0	1.181633E+0	1.206279E+0	1.142121E+0	1.193783E+0	1.162613E+0	1.223356E+0	1.185225E+0	1.176916E+0	1.142358E+0	1.169923E+0	1.186658E+0	1.213201E+0	1.161387E+0	1.181937E+0	1.174497E+0	1.173720E+0	1.179949E+0	1.169850E+0	1.136568E+0	1.178362E+0	1.162324E+0	1.159266E+0	1.214960E+0	1.130748E+0
5.467710E+2	1.288859E+0	1.265587E+0	1.266099E+0	1.227560E+0	1.242804E+0	1.184156E+0	1.192826E+0	1.249969E+0	1.235464E+0	1.180203E+0	1.225310E+0	1.213484E+0	1.237293E+0	1.218575E+0	1.228526E+0	1.261283E+0	1.264217E+0	1.289881E+0	1.250021E+0	1.240435E+0	1.255525E+0	1.229600E+0	1.228415E+0	1.204823E+0	1.203882E+0	1.219581E+0	1.231404E+0	1.312458E+0	1.230758E+0	1.273048E+0	1.231349E+0	1.279471E+0	1.268004E+0	1.241932E+0	1.219483E+0	1.238245E+0	1.263670E+0	1.188622E+0	1.237152E+0	1.234094E+0	1.228606E+0	1.232380E+0	1.237475E+0	1.240380E+0	1.254968E+0	1.259081E+0	1.261086E+0	1.281655E+0	1.268548E+0	1.248204E+0	1.229298E+0	1.263036E+0	1.210254E+0	1.271095E+0	1.225977E+0	1.198313E+0	1.216353E+0	1.323003E+0	1.257233E+0	1.250400E+0	1.254251E+0	1.178708E+0	1.234649E+0	1.227755E+0	1.259741E+0	1.197482E+0	1.205690E+0	1.245407E+0	1.232948E+0	1.208807E+0	1.248691E+0	1.275553E+0	1.268386E+0	1.265542E+0	1.206442E+0	1.222960E+0	1.214240E+0	1.275761E+0	1.216202E+0	1.251381E+0	1.237516E+0	1.303913E+0	1.191110E+0	1.206290E+0	1.255987E+0	1.217275E+0	1.242332E+0	1.230850E+0	1.231828E+0	1.235291E+0	1.225197E+0	1.263468E+0	1.218063E+0	1.175266E+0	1.211628E+0	1.246726E+0	1.232469E+0	1.229061E+0	1.182556E+0	1.239638E+0	1.246127E+0	1.261877E+0	1.253335E+0	1.243388E+0	1.226770E+0	1.223086E+0	1.230887E+0	1.216756E+0	1.256530E+0	1.211616E+0	1.256117E+0	1.278469E+0	1.225446E+0	1.222426E+0	1.248800E+0	1.214820E+0	1.229045E+0	1.207089E+0	1.236457E+0	1.206948E+0	1.231171E+0	1.244068E+0	1.223175E+0	1.208823E+0	1.243963E+0	1.258265E+0	1.291054E+0	1.207773E+0	1.231147E+0	1.161256E+0	1.210628E+0	1.240054E+0	1.236707E+0	1.199043E+0	1.199910E+0	1.179508E+0	1.220494E+0	1.266464E+0	1.209394E+0	1.267139E+0	1.250433E+0	1.236498E+0	1.205811E+0	1.227100E+0	1.224467E+0	1.264754E+0	1.260667E+0	1.215363E+0	1.211876E+0	1.190350E+0	1.256288E+0	1.249651E+0	1.214805E+0	1.214679E+0	1.178655E+0	1.319089E+0	1.239296E+0	1.240974E+0	1.198576E+0	1.201457E+0	1.167051E+0	1.227227E+0	1.226434E+0	1.180390E+0	1.260714E+0	1.245595E+0	1.209110E+0	1.240510E+0	1.216124E+0	1.182064E+0	1.221245E+0
5.475120E+2	1.393121E+0	1.325752E+0	1.287013E+0	1.319440E+0	1.379116E+0	1.319414E+0	1.355328E+0	1.319458E+0	1.354424E+0	1.324601E+0	1.286513E+0	1.280236E+0	1.326494E+0	1.318904E+0	1.361441E+0	1.282218E+0	1.348441E+0	1.354881E+0	1.308159E+0	1.351247E+0	1.348903E+0	1.366671E+0	1.325425E+0	1.301417E+0	1.291279E+0	1.324885E+0	1.322646E+0	1.322042E+0	1.361050E+0	1.382226E+0	1.349356E+0	1.354693E+0	1.370531E+0	1.393260E+0	1.394304E+0	1.288812E+0	1.404433E+0	1.354349E+0	1.308822E+0	1.356012E+0	1.331929E+0	1.381275E+0	1.259786E+0	1.345335E+0	1.375763E+0	1.265674E+0	1.301371E+0	1.311495E+0	1.329752E+0	1.292795E+0	1.377916E+0	1.357277E+0	1.336627E+0	1.373225E+0	1.354639E+0	1.309987E+0	1.371468E+0	1.363078E+0	1.270271E+0	1.380877E+0	1.282039E+0	1.305100E+0	1.302925E+0	1.329587E+0	1.321467E+0	1.366236E+0	1.329254E+0	1.339244E+0	1.347548E+0	1.322325E+0	1.346847E+0	1.336705E+0	1.322829E+0	1.341252E+0	1.340077E+0	1.308121E+0	1.309573E+0	1.347728E+0	1.329907E+0	1.395269E+0	1.302896E+0	1.311458E+0	1.319149E+0	1.313109E+0	1.342315E+0	1.318193E+0	1.310271E+0	1.351430E+0	1.344493E+0	1.370890E+0	1.314755E+0	1.324065E+0	1.350005E+0	1.247335E+0	1.351138E+0	1.352214E+0	1.356190E+0	1.332306E+0	1.292902E+0	1.319096E+0	1.324857E+0	1.296642E+0	1.300622E+0	1.345686E+0	1.393872E+0	1.301054E+0	1.286465E+0	1.345867E+0	1.340888E+0	1.336962E+0	1.296536E+0	1.298263E+0	1.278966E+0	1.284687E+0	1.378730E+0	1.288159E+0	1.327680E+0	1.385937E+0	1.300342E+0	1.313672E+0	1.341832E+0	1.294497E+0	1.275415E+0	1.402554E+0	1.320226E+0	1.345206E+0	1.305281E+0	1.360899E+0	1.296917E+0	1.305987E+0	1.349478E+0	1.348221E+0	1.349123E+0	1.318437E+0	1.325249E+0	1.287227E+0	1.312186E+0	1.299804E+0	1.323269E+0	1.334005E+0	1.317023E+0	1.309732E+0	1.316257E+0	1.290355E+0	1.258377E+0	1.308595E+0	1.308104E+0	1.374882E+0	1.348187E+0	1.303538E+0	1.306799E+0	1.361903E+0	1.344047E+0	1.304966E+0	1.349378E+0	1.357094E+0	1.323239E+0	1.354199E+0	1.301697E+0	1.302227E+0	1.243229E+0	1.283080E+0	1.323798E+0	1.324352E+0	1.307367E+0	1.311220E+0	1.264616E+0	1.376088E+0	1.359489E+0	1.336413E+0	1.253677E+0
5.482600E+2	1.464662E+0	1.368271E+0	1.447537E+0	1.344796E+0	1.468772E+0	1.451490E+0	1.374224E+0	1.386635E+0	1.386471E+0	1.403474E+0	1.449107E+0	1.330216E+0	1.464491E+0	1.422298E+0	1.409536E+0	1.403244E+0	1.479721E+0	1.433859E+0	1.361513E+0	1.422953E+0	1.427343E+0	1.436102E+0	1.412418E+0	1.410099E+0	1.420116E+0	1.418307E+0	1.388274E+0	1.432203E+0	1.393330E+0	1.425360E+0	1.408211E+0	1.418730E+0	1.439035E+0	1.435930E+0	1.380550E+0	1.383612E+0	1.441638E+0	1.424846E+0	1.391513E+0	1.379974E+0	1.428478E+0	1.411108E+0	1.380472E+0	1.427301E+0	1.422968E+0	1.398343E+0	1.423728E+0	1.373424E+0	1.435612E+0	1.434987E+0	1.359756E+0	1.357603E+0	1.358864E+0	1.406533E+0	1.344751E+0	1.428520E+0	1.423303E+0	1.396490E+0	1.389146E+0	1.391418E+0	1.392030E+0	1.387160E+0	1.395594E+0	1.419644E+0	1.456300E+0	1.383905E+0	1.444517E+0	1.400056E+0	1.404036E+0	1.408662E+0	1.352986E+0	1.450404E+0	1.386680E+0	1.375060E+0	1.397704E+0	1.339938E+0	1.442796E+0	1.378872E+0	1.385541E+0	1.412274E+0	1.370876E+0	1.414709E+0	1.348012E+0	1.340234E+0	1.429502E+0	1.417528E+0	1.366488E+0	1.355670E+0	1.451693E+0	1.397175E+0	1.378406E+0	1.392887E+0	1.426716E+0	1.402798E+0	1.399812E+0	1.388435E+0	1.376738E+0	1.379846E+0	1.354717E+0	1.411577E+0	1.390606E+0	1.372254E+0	1.387531E+0	1.357038E+0	1.417482E+0	1.348933E+0	1.375152E+0	1.360454E+0	1.334534E+0	1.395568E+0	1.414104E+0	1.427207E+0	1.375766E+0	1.408373E+0	1.375506E+0	1.372870E+0	1.393267E+0	1.395462E+0	1.381698E+0	1.413721E+0	1.441594E+0	1.392842E+0	1.362628E+0	1.415613E+0	1.382356E+0	1.409039E+0	1.377237E+0	1.393093E+0	1.411938E+0	1.341088E+0	1.395167E+0	1.430937E+0	1.395349E+0	1.404806E+0	1.383848E+0	1.355365E+0	1.401186E+0	1.416633E+0	1.430852E+0	1.424511E+0	1.379204E+0	1.383202E+0	1.374053E+0	1.361500E+0	1.339137E+0	1.353764E+0	1.375023E+0	1.426387E+0	1.364850E+0	1.387802E+0	1.336743E+0	1.357521E+0	1.418529E+0	1.361569E+0	1.401370E+0	1.402625E+0	1.412777E+0	1.406448E+0	1.369178E+0	1.389904E+0	1.385349E+0	1.421175E+0	1.359976E+0	1.411639E+0	1.414437E+0	1.356046E+0	1.391606E+0	1.354441E+0	1.350922E+0	1.354637E+0	1.355523E+0
5.490490E+2	1.420899E+0	1.399608E+0	1.389714E+0	1.385718E+0	1.428121E+0	1.413512E+0	1.375253E+0	1.430445E+0	1.455346E+0	1.362009E+0	1.369324E+0	1.299122E+0	1.456470E+0	1.366516E+0	1.381466E+0	1.385450E+0	1.385576E+0	1.390513E+0	1.350747E+0	1.387991E+0	1.457256E+0	1.407949E+0	1.383063E+0	1.385888E+0	1.413289E+0	1.359248E+0	1.394627E+0	1.370886E+0	1.420000E+0	1.365289E+0	1.416215E+0	1.409387E+0	1.390611E+0	1.413547E+0	1.378912E+0	1.325419E+0	1.450315E+0	1.414494E+0	1.449910E+0	1.414448E+0	1.420418E+0	1.460279E+0	1.387839E+0	1.383033E+0	1.426343E+0	1.368397E+0	1.337915E+0	1.386481E+0	1.391612E+0	1.403840E+0	1.356233E+0	1.370208E+0	1.383787E+0	1.385863E+0	1.392440E+0	1.390111E+0	1.403653E+0	1.368405E+0	1.381656E+0	1.362929E+0	1.372723E+0	1.343562E+0	1.358986E+0	1.376338E+0	1.450548E+0	1.385462E+0	1.389062E+0	1.314272E+0	1.414605E+0	1.403812E+0	1.385836E+0	1.406753E+0	1.397603E+0	1.370829E+0	1.403262E+0	1.353032E+0	1.315166E+0	1.414068E+0	1.395555E+0	1.347564E+0	1.372851E+0	1.424763E+0	1.361216E+0	1.346817E+0	1.412040E+0	1.392224E+0	1.356409E+0	1.382045E+0	1.391042E+0	1.361862E+0	1.367428E+0	1.322786E+0	1.382140E+0	1.330102E+0	1.362035E+0	1.398406E+0	1.394372E+0	1.439476E+0	1.371206E+0	1.399513E+0	1.446934E+0	1.339931E+0	1.367172E+0	1.360052E+0	1.444801E+0	1.400649E+0	1.363851E+0	1.423692E+0	1.438625E+0	1.382997E+0	1.369635E+0	1.357095E+0	1.371450E+0	1.367296E+0	1.382186E+0	1.357650E+0	1.400787E+0	1.417510E+0	1.398994E+0	1.362658E+0	1.393401E+0	1.375026E+0	1.383099E+0	1.419896E+0	1.392427E+0	1.376316E+0	1.378323E+0	1.376915E+0	1.350166E+0	1.345135E+0	1.373633E+0	1.372829E+0	1.363666E+0	1.364952E+0	1.389720E+0	1.358988E+0	1.370962E+0	1.419935E+0	1.411337E+0	1.367113E+0	1.410163E+0	1.302743E+0	1.410059E+0	1.380965E+0	1.320985E+0	1.343171E+0	1.379979E+0	1.387152E+0	1.430019E+0	1.357225E+0	1.351666E+0	1.395166E+0	1.384503E+0	1.402190E+0	1.384957E+0	1.388410E+0	1.379818E+0	1.379380E+0	1.365814E+0	1.410524E+0	1.298757E+0	1.330788E+0	1.322441E+0	1.379708E+0	1.397757E+0	1.370312E+0	1.339644E+0	1.350838E+0	1.435664E+0	1.440272E+0	1.384034E+0
5.497850E+2	1.420058E+0	1.383503E+0	1.412228E+0	1.315000E+0	1.401851E+0	1.383996E+0	1.370574E+0	1.373085E+0	1.429939E+0	1.389517E+0	1.361235E+0	1.289986E+0	1.397161E+0	1.321888E+0	1.365290E+0	1.344914E+0	1.420303E+0	1.369951E+0	1.351387E+0	1.374515E+0	1.408122E+0	1.346176E+0	1.341115E+0	1.374879E+0	1.338034E+0	1.384476E+0	1.381819E+0	1.427029E+0	1.360170E+0	1.348435E+0	1.404086E+0	1.352617E+0	1.409670E+0	1.413113E+0	1.375506E+0	1.335944E+0	1.407748E+0	1.402959E+0	1.347231E+0	1.379704E+0	1.388432E+0	1.344253E+0	1.375351E+0	1.413921E+0	1.329920E+0	1.359449E+0	1.347299E+0	1.404913E+0	1.374858E+0	1.335607E+0	1.335167E+0	1.368816E+0	1.362501E+0	1.395313E+0	1.379360E+0	1.299709E+0	1.287032E+0	1.437933E+0	1.358081E+0	1.389544E+0	1.366260E+0	1.343710E+0	1.433356E+0	1.347763E+0	1.408836E+0	1.374457E+0	1.351591E+0	1.345448E+0	1.371690E+0	1.395483E+0	1.345763E+0	1.360784E+0	1.420553E+0	1.375468E+0	1.370577E+0	1.377627E+0	1.356648E+0	1.380868E+0	1.366756E+0	1.370057E+0	1.350536E+0	1.402450E+0	1.328713E+0	1.376406E+0	1.355145E+0	1.398430E+0	1.344694E+0	1.340932E+0	1.433308E+0	1.393843E+0	1.357113E+0	1.360523E+0	1.377190E+0	1.362020E+0	1.373916E+0	1.343341E+0	1.406711E+0	1.375422E+0	1.409409E+0	1.348635E+0	1.458237E+0	1.418734E+0	1.398934E+0	1.316473E+0	1.395275E+0	1.316813E+0	1.331311E+0	1.338649E+0	1.366155E+0	1.395686E+0	1.389942E+0	1.383566E+0	1.386744E+0	1.375669E+0	1.331623E+0	1.353584E+0	1.394693E+0	1.373616E+0	1.351602E+0	1.335647E+0	1.373011E+0	1.362991E+0	1.355333E+0	1.357403E+0	1.412179E+0	1.335303E+0	1.346960E+0	1.341299E+0	1.288611E+0	1.379174E+0	1.395596E+0	1.347605E+0	1.380871E+0	1.344087E+0	1.359306E+0	1.321997E+0	1.359708E+0	1.349040E+0	1.350273E+0	1.339263E+0	1.379533E+0	1.376973E+0	1.447709E+0	1.347489E+0	1.319026E+0	1.357698E+0	1.356106E+0	1.364807E+0	1.366794E+0	1.370540E+0	1.377281E+0	1.378555E+0	1.358006E+0	1.339818E+0	1.364367E+0	1.406851E+0	1.304538E+0	1.307910E+0	1.376733E+0	1.336305E+0	1.326873E+0	1.403245E+0	1.360537E+0	1.362902E+0	1.385999E+0	1.335237E+0	1.358706E+0	1.414772E+0	1.370523E+0	1.367017E+0	1.378922E+0
5.505170E+2	1.417354E+0	1.379409E+0	1.352603E+0	1.364841E+0	1.388358E+0	1.348589E+0	1.348375E+0	1.358511E+0	1.372147E+0	1.348438E+0	1.353406E+0	1.265203E+0	1.367883E+0	1.324672E+0	1.396709E+0	1.344127E+0	1.305153E+0	1.306044E+0	1.337977E+0	1.308850E+0	1.343541E+0	1.348622E+0	1.352431E+0	1.366363E+0	1.353960E+0	1.349498E+0	1.314252E+0	1.300970E+0	1.317027E+0	1.338159E+0	1.388158E+0	1.356801E+0	1.341623E+0	1.390198E+0	1.365518E+0	1.374916E+0	1.361099E+0	1.311870E+0	1.362582E+0	1.288343E+0	1.326229E+0	1.345911E+0	1.293045E+0	1.353400E+0	1.409991E+0	1.342718E+0	1.324692E+0	1.347656E+0	1.317973E+0	1.375202E+0	1.365136E+0	1.321373E+0	1.358064E+0	1.311291E+0	1.360083E+0	1.324108E+0	1.386681E+0	1.402551E+0	1.301817E+0	1.343397E+0	1.353199E+0	1.374275E+0	1.294483E+0	1.317991E+0	1.370360E+0	1.344702E+0	1.339637E+0	1.352460E+0	1.371332E+0	1.339770E+0	1.343754E+0	1.333611E+0	1.364288E+0	1.341096E+0	1.310820E+0	1.366791E+0	1.371938E+0	1.335627E+0	1.290703E+0	1.358892E+0	1.311894E+0	1.392271E+0	1.288133E+0	1.351475E+0	1.312109E+0	1.362557E+0	1.356807E+0	1.335511E+0	1.320454E+0	1.330262E+0	1.362080E+0	1.315029E+0	1.319982E+0	1.341022E+0	1.303082E+0	1.323716E+0	1.347118E+0	1.367151E+0	1.322375E+0	1.343017E+0	1.357570E+0	1.292267E+0	1.332163E+0	1.370797E+0	1.330593E+0	1.341974E+0	1.309907E+0	1.376367E+0	1.355257E+0	1.314893E+0	1.352108E+0	1.312661E+0	1.350714E+0	1.338107E+0	1.346973E+0	1.343534E+0	1.365139E+0	1.307487E+0	1.347140E+0	1.323957E+0	1.349421E+0	1.326073E+0	1.267844E+0	1.320678E+0	1.341695E+0	1.345050E+0	1.334261E+0	1.357403E+0	1.265958E+0	1.349289E+0	1.306554E+0	1.316833E+0	1.345449E+0	1.309589E+0	1.319972E+0	1.251518E+0	1.359263E+0	1.342227E+0	1.286932E+0	1.328533E+0	1.303288E+0	1.295789E+0	1.352332E+0	1.330796E+0	1.327707E+0	1.353303E+0	1.342272E+0	1.322891E+0	1.280868E+0	1.339382E+0	1.325021E+0	1.332981E+0	1.310582E+0	1.358832E+0	1.338941E+0	1.350962E+0	1.306114E+0	1.292294E+0	1.309083E+0	1.326549E+0	1.279930E+0	1.337673E+0	1.339124E+0	1.342736E+0	1.319669E+0	1.291893E+0	1.276915E+0	1.366160E+0	1.372277E+0	1.265817E+0	1.420129E+0
5.512620E+2	1.333103E+0	1.303584E+0	1.262421E+0	1.312380E+0	1.370573E+0	1.286512E+0	1.308728E+0	1.285960E+0	1.366549E+0	1.283033E+0	1.263990E+0	1.279216E+0	1.309312E+0	1.280723E+0	1.333796E+0	1.297887E+0	1.324917E+0	1.333178E+0	1.325208E+0	1.329247E+0	1.321573E+0	1.326147E+0	1.351206E+0	1.333864E+0	1.300267E+0	1.332795E+0	1.245393E+0	1.368554E+0	1.295126E+0	1.340483E+0	1.363949E+0	1.322077E+0	1.311092E+0	1.361225E+0	1.340994E+0	1.318415E+0	1.334633E+0	1.301176E+0	1.315931E+0	1.306559E+0	1.285427E+0	1.308227E+0	1.313012E+0	1.316045E+0	1.295704E+0	1.246091E+0	1.304137E+0	1.328785E+0	1.267519E+0	1.298266E+0	1.285329E+0	1.273191E+0	1.310482E+0	1.314734E+0	1.332625E+0	1.295978E+0	1.360765E+0	1.323899E+0	1.261408E+0	1.306785E+0	1.277118E+0	1.340139E+0	1.291662E+0	1.289587E+0	1.344143E+0	1.278861E+0	1.306952E+0	1.291966E+0	1.337536E+0	1.281429E+0	1.324937E+0	1.324983E+0	1.338050E+0	1.348023E+0	1.299379E+0	1.334992E+0	1.276727E+0	1.352661E+0	1.271522E+0	1.289596E+0	1.288727E+0	1.311739E+0	1.240351E+0	1.259579E+0	1.353886E+0	1.323338E+0	1.306246E+0	1.283792E+0	1.352668E+0	1.256333E+0	1.293672E+0	1.303501E+0	1.278155E+0	1.279178E+0	1.298611E+0	1.314136E+0	1.336762E+0	1.284598E+0	1.323142E+0	1.304739E+0	1.297456E+0	1.304051E+0	1.278635E+0	1.293454E+0	1.277177E+0	1.346963E+0	1.281806E+0	1.295317E+0	1.312235E+0	1.284824E+0	1.288888E+0	1.295891E+0	1.240489E+0	1.367712E+0	1.328165E+0	1.283393E+0	1.334084E+0	1.311540E+0	1.295201E+0	1.271126E+0	1.283434E+0	1.303382E+0	1.271319E+0	1.316856E+0	1.287672E+0	1.345087E+0	1.267831E+0	1.324985E+0	1.313159E+0	1.284758E+0	1.300978E+0	1.311152E+0	1.320167E+0	1.281735E+0	1.301565E+0	1.311186E+0	1.306150E+0	1.300579E+0	1.312101E+0	1.330745E+0	1.290678E+0	1.295676E+0	1.311763E+0	1.287886E+0	1.263221E+0	1.259956E+0	1.336510E+0	1.264416E+0	1.330568E+0	1.315614E+0	1.294857E+0	1.248308E+0	1.299359E+0	1.268719E+0	1.294248E+0	1.282515E+0	1.355632E+0	1.319951E+0	1.309742E+0	1.272932E+0	1.320024E+0	1.271677E+0	1.353249E+0	1.275801E+0	1.313379E+0	1.284723E+0	1.288874E+0	1.263427E+0	1.320523E+0	1.255238E+0	1.258883E+0
5.520260E+2	1.289529E+0	1.275538E+0	1.287435E+0	1.299781E+0	1.302503E+0	1.266690E+0	1.275378E+0	1.234474E+0	1.285335E+0	1.295769E+0	1.234127E+0	1.302259E+0	1.288433E+0	1.260555E+0	1.270066E+0	1.265042E+0	1.258690E+0	1.239650E+0	1.221157E+0	1.287016E+0	1.310875E+0	1.335443E+0	1.234494E+0	1.223463E+0	1.262371E+0	1.278487E+0	1.254069E+0	1.238890E+0	1.208307E+0	1.277905E+0	1.261518E+0	1.290190E+0	1.291327E+0	1.312954E+0	1.333182E+0	1.236472E+0	1.260562E+0	1.258296E+0	1.312758E+0	1.254605E+0	1.260854E+0	1.292325E+0	1.235111E+0	1.273099E+0	1.270802E+0	1.302294E+0	1.275383E+0	1.243545E+0	1.284013E+0	1.287666E+0	1.265603E+0	1.274116E+0	1.296178E+0	1.260988E+0	1.273417E+0	1.217001E+0	1.265343E+0	1.271265E+0	1.208987E+0	1.282572E+0	1.257141E+0	1.208284E+0	1.266140E+0	1.240811E+0	1.308586E+0	1.213902E+0	1.311226E+0	1.266045E+0	1.265507E+0	1.314997E+0	1.237382E+0	1.308599E+0	1.263163E+0	1.277648E+0	1.235413E+0	1.263290E+0	1.239466E+0	1.245736E+0	1.265511E+0	1.260294E+0	1.272870E+0	1.280299E+0	1.236819E+0	1.255566E+0	1.280083E+0	1.271555E+0	1.244416E+0	1.216728E+0	1.327250E+0	1.248710E+0	1.268439E+0	1.280144E+0	1.324523E+0	1.231192E+0	1.301919E+0	1.249203E+0	1.256714E+0	1.305151E+0	1.222147E+0	1.271126E+0	1.324722E+0	1.272197E+0	1.270083E+0	1.238271E+0	1.288477E+0	1.290679E+0	1.320945E+0	1.298027E+0	1.288328E+0	1.306616E+0	1.260273E+0	1.263867E+0	1.271183E+0	1.279263E+0	1.213670E+0	1.269616E+0	1.277524E+0	1.280167E+0	1.276655E+0	1.202688E+0	1.286033E+0	1.238581E+0	1.262760E+0	1.297559E+0	1.277406E+0	1.273849E+0	1.265261E+0	1.268652E+0	1.268729E+0	1.217598E+0	1.249889E+0	1.240308E+0	1.252377E+0	1.240321E+0	1.212913E+0	1.232527E+0	1.217256E+0	1.297264E+0	1.298710E+0	1.199559E+0	1.219574E+0	1.252351E+0	1.268960E+0	1.249116E+0	1.285573E+0	1.247934E+0	1.283912E+0	1.268305E+0	1.291958E+0	1.233378E+0	1.253985E+0	1.234279E+0	1.233383E+0	1.256908E+0	1.257521E+0	1.257604E+0	1.239084E+0	1.226396E+0	1.260634E+0	1.270303E+0	1.279025E+0	1.267271E+0	1.207154E+0	1.218916E+0	1.256851E+0	1.191575E+0	1.201430E+0	1.286355E+0	1.241810E+0	1.185389E+0	1.228205E+0
5.527650E+2	1.213730E+0	1.282426E+0	1.212910E+0	1.240993E+0	1.251294E+0	1.209891E+0	1.228571E+0	1.241665E+0	1.290609E+0	1.294618E+0	1.238753E+0	1.202184E+0	1.231951E+0	1.246041E+0	1.236327E+0	1.207419E+0	1.239892E+0	1.224583E+0	1.171872E+0	1.227830E+0	1.253071E+0	1.244932E+0	1.230400E+0	1.196332E+0	1.224088E+0	1.256022E+0	1.267371E+0	1.268144E+0	1.190821E+0	1.213725E+0	1.263965E+0	1.246852E+0	1.244383E+0	1.245312E+0	1.218434E+0	1.202958E+0	1.253525E+0	1.251063E+0	1.216272E+0	1.207527E+0	1.219029E+0	1.273412E+0	1.260058E+0	1.234853E+0	1.261443E+0	1.237632E+0	1.236694E+0	1.213300E+0	1.241198E+0	1.248495E+0	1.238452E+0	1.157242E+0	1.230583E+0	1.216250E+0	1.187348E+0	1.213959E+0	1.215504E+0	1.273002E+0	1.205697E+0	1.198919E+0	1.256384E+0	1.242643E+0	1.172015E+0	1.224390E+0	1.247803E+0	1.252005E+0	1.243462E+0	1.275912E+0	1.240037E+0	1.217531E+0	1.244969E+0	1.254514E+0	1.235472E+0	1.301040E+0	1.234219E+0	1.238046E+0	1.200044E+0	1.248570E+0	1.230711E+0	1.175602E+0	1.201747E+0	1.232325E+0	1.208696E+0	1.226917E+0	1.279979E+0	1.163029E+0	1.164804E+0	1.180895E+0	1.230481E+0	1.238812E+0	1.249520E+0	1.256953E+0	1.205471E+0	1.243139E+0	1.217886E+0	1.225533E+0	1.195079E+0	1.271448E+0	1.229355E+0	1.181721E+0	1.242667E+0	1.206817E+0	1.210328E+0	1.221821E+0	1.278906E+0	1.231976E+0	1.217852E+0	1.206993E+0	1.205923E+0	1.240127E+0	1.238514E+0	1.237694E+0	1.160750E+0	1.221488E+0	1.248044E+0	1.192035E+0	1.243097E+0	1.253325E+0	1.255977E+0	1.226046E+0	1.211556E+0	1.226646E+0	1.206655E+0	1.233493E+0	1.201190E+0	1.292530E+0	1.263791E+0	1.185759E+0	1.209057E+0	1.192781E+0	1.215407E+0	1.203677E+0	1.257258E+0	1.202386E+0	1.197212E+0	1.207448E+0	1.222492E+0	1.246840E+0	1.266367E+0	1.248528E+0	1.223152E+0	1.235975E+0	1.227826E+0	1.167701E+0	1.228707E+0	1.191401E+0	1.202979E+0	1.196166E+0	1.183240E+0	1.179112E+0	1.197641E+0	1.248712E+0	1.280980E+0	1.296018E+0	1.253247E+0	1.246838E+0	1.223782E+0	1.218829E+0	1.222814E+0	1.247685E+0	1.186972E+0	1.194407E+0	1.248669E+0	1.177772E+0	1.264432E+0	1.206989E+0	1.260269E+0	1.157852E+0	1.209513E+0	1.184177E+0	1.100966E+0
5.535440E+2	1.190641E+0	1.218402E+0	1.182183E+0	1.153521E+0	1.182311E+0	1.200041E+0	1.143148E+0	1.196748E+0	1.196186E+0	1.179908E+0	1.159281E+0	1.157862E+0	1.210299E+0	1.149200E+0	1.177703E+0	1.204370E+0	1.156767E+0	1.186069E+0	1.094762E+0	1.188183E+0	1.193612E+0	1.211802E+0	1.157439E+0	1.200324E+0	1.149462E+0	1.145551E+0	1.207239E+0	1.161909E+0	1.171981E+0	1.211406E+0	1.175320E+0	1.196860E+0	1.163471E+0	1.175958E+0	1.188176E+0	1.168999E+0	1.196613E+0	1.191075E+0	1.200222E+0	1.188986E+0	1.142596E+0	1.203132E+0	1.172159E+0	1.197295E+0	1.200698E+0	1.162538E+0	1.205476E+0	1.167172E+0	1.158044E+0	1.207552E+0	1.155363E+0	1.167455E+0	1.156599E+0	1.162086E+0	1.163066E+0	1.153466E+0	1.176769E+0	1.189045E+0	1.171849E+0	1.162902E+0	1.128401E+0	1.198904E+0	1.176893E+0	1.125054E+0	1.185478E+0	1.170803E+0	1.177092E+0	1.154657E+0	1.153131E+0	1.194821E+0	1.186851E+0	1.170914E+0	1.162196E+0	1.172142E+0	1.192129E+0	1.173594E+0	1.181457E+0	1.194106E+0	1.176501E+0	1.173499E+0	1.187101E+0	1.195499E+0	1.149835E+0	1.137409E+0	1.180318E+0	1.161969E+0	1.174565E+0	1.168281E+0	1.164129E+0	1.131802E+0	1.130727E+0	1.152005E+0	1.168041E+0	1.141717E+0	1.144119E+0	1.188873E+0	1.184387E+0	1.217687E+0	1.206279E+0	1.201548E+0	1.220025E+0	1.180858E+0	1.149577E+0	1.118681E+0	1.201546E+0	1.217944E+0	1.193466E+0	1.216767E+0	1.195041E+0	1.235209E+0	1.203496E+0	1.169275E+0	1.142614E+0	1.227895E+0	1.167775E+0	1.103437E+0	1.178626E+0	1.161427E+0	1.184688E+0	1.180808E+0	1.161499E+0	1.141639E+0	1.143344E+0	1.171454E+0	1.170407E+0	1.190253E+0	1.189531E+0	1.138158E+0	1.157225E+0	1.166170E+0	1.173582E+0	1.192522E+0	1.211015E+0	1.186030E+0	1.152790E+0	1.155406E+0	1.156059E+0	1.173006E+0	1.180480E+0	1.163175E+0	1.193152E+0	1.147615E+0	1.158465E+0	1.135756E+0	1.147677E+0	1.197350E+0	1.164490E+0	1.170581E+0	1.161212E+0	1.180553E+0	1.166350E+0	1.201365E+0	1.161767E+0	1.152313E+0	1.191544E+0	1.167657E+0	1.189339E+0	1.154001E+0	1.134786E+0	1.129783E+0	1.182829E+0	1.206301E+0	1.175330E+0	1.151729E+0	1.206758E+0	1.145085E+0	1.159921E+0	1.154377E+0	1.120455E+0	1.176423E+0	1.045921E+0
5.542580E+2	1.086105E+0	1.129184E+0	1.185178E+0	1.124619E+0	1.104687E+0	1.132447E+0	1.140799E+0	1.110728E+0	1.127442E+0	1.096232E+0	1.108613E+0	1.081303E+0	1.166159E+0	1.111710E+0	1.084106E+0	1.115070E+0	1.104805E+0	1.118412E+0	1.109761E+0	1.158731E+0	1.163083E+0	1.129639E+0	1.143691E+0	1.101004E+0	1.119017E+0	1.111817E+0	1.100181E+0	1.127080E+0	1.116168E+0	1.124889E+0	1.119247E+0	1.122534E+0	1.175366E+0	1.146096E+0	1.105643E+0	1.116798E+0	1.123792E+0	1.103416E+0	1.091089E+0	1.070737E+0	1.122015E+0	1.117167E+0	1.106176E+0	1.096802E+0	1.079277E+0	1.140702E+0	1.136511E+0	1.096741E+0	1.116640E+0	1.122894E+0	1.052283E+0	1.145184E+0	1.124903E+0	1.078313E+0	1.104880E+0	1.119743E+0	1.096061E+0	1.135430E+0	1.098963E+0	1.090491E+0	1.123728E+0	1.130526E+0	1.074508E+0	1.075731E+0	1.151690E+0	1.126011E+0	1.131672E+0	1.092417E+0	1.121198E+0	1.103399E+0	1.104001E+0	1.113241E+0	1.097819E+0	1.119730E+0	1.106547E+0	1.151925E+0	1.067588E+0	1.224657E+0	1.092996E+0	1.123097E+0	1.085431E+0	1.132895E+0	1.090045E+0	1.061716E+0	1.078271E+0	1.113525E+0	1.097761E+0	1.106564E+0	1.124126E+0	1.123977E+0	1.123274E+0	1.099189E+0	1.092018E+0	1.101536E+0	1.105995E+0	1.111992E+0	1.141793E+0	1.122591E+0	1.118378E+0	1.084433E+0	1.121842E+0	1.083930E+0	1.051737E+0	1.109505E+0	1.145105E+0	1.117514E+0	1.082204E+0	1.129652E+0	1.088948E+0	1.123431E+0	1.113803E+0	1.073543E+0	1.117267E+0	1.076541E+0	1.164624E+0	1.099319E+0	1.163265E+0	1.124316E+0	1.124985E+0	1.115984E+0	1.119068E+0	1.106017E+0	1.106937E+0	1.083146E+0	1.150033E+0	1.088387E+0	1.119859E+0	1.112708E+0	1.122198E+0	1.156521E+0	1.068189E+0	1.082729E+0	1.134077E+0	1.105884E+0	1.099462E+0	1.098312E+0	1.130794E+0	1.095636E+0	1.125891E+0	1.122087E+0	1.110005E+0	1.148761E+0	1.126456E+0	1.090119E+0	1.083877E+0	1.119027E+0	1.053616E+0	1.059957E+0	1.129962E+0	1.122171E+0	1.155502E+0	1.057803E+0	1.075500E+0	1.078247E+0	1.095161E+0	1.092393E+0	1.118312E+0	1.070000E+0	1.117153E+0	1.104105E+0	1.129049E+0	1.115648E+0	1.114555E+0	1.060705E+0	1.121695E+0	1.139985E+0	1.090038E+0	1.148352E+0	1.091071E+0	1.110929E+0	1.109008E+0
5.550190E+2	1.043498E+0	1.048231E+0	1.060369E+0	1.027743E+0	1.041050E+0	1.029380E+0	1.014594E+0	1.012107E+0	1.084424E+0	1.090275E+0	1.012881E+0	1.017321E+0	1.040478E+0	9.984498E-1	1.003702E+0	1.028852E+0	1.040646E+0	1.092317E+0	1.062797E+0	1.027706E+0	1.022135E+0	1.049649E+0	1.040655E+0	1.008975E+0	9.824164E-1	1.052855E+0	9.925204E-1	1.029602E+0	1.026383E+0	9.879129E-1	1.043508E+0	1.018212E+0	1.001841E+0	1.044382E+0	1.009289E+0	1.017108E+0	9.983261E-1	1.019509E+0	1.054411E+0	1.038249E+0	9.539387E-1	1.036973E+0	9.865051E-1	1.026819E+0	1.020819E+0	1.072933E+0	1.040749E+0	1.031736E+0	1.027711E+0	1.040231E+0	9.831095E-1	1.044603E+0	9.910048E-1	1.052709E+0	9.688833E-1	1.002064E+0	1.033543E+0	1.099533E+0	1.012786E+0	1.012301E+0	1.057537E+0	1.080451E+0	1.016596E+0	1.041639E+0	1.006342E+0	9.973672E-1	1.049765E+0	1.016255E+0	9.991204E-1	1.039489E+0	9.933249E-1	1.047044E+0	1.005434E+0	1.031582E+0	1.025717E+0	1.014462E+0	1.042775E+0	1.070540E+0	1.038780E+0	1.041928E+0	1.022206E+0	1.058668E+0	1.010189E+0	1.031779E+0	1.007641E+0	1.092026E+0	9.930127E-1	1.007255E+0	1.032864E+0	1.033897E+0	1.022751E+0	1.010029E+0	1.017350E+0	1.023817E+0	1.033651E+0	1.001564E+0	1.043385E+0	1.037932E+0	1.077893E+0	1.021850E+0	1.046645E+0	1.005339E+0	9.998400E-1	1.012477E+0	1.039292E+0	9.941588E-1	1.015821E+0	1.024767E+0	1.067938E+0	1.042453E+0	1.049922E+0	9.766900E-1	1.018853E+0	1.059043E+0	9.748366E-1	1.028939E+0	1.040137E+0	1.038101E+0	1.017750E+0	1.093616E+0	1.046810E+0	1.038123E+0	1.051610E+0	1.025153E+0	1.050640E+0	1.003099E+0	1.021559E+0	1.020455E+0	1.037458E+0	1.001450E+0	9.716240E-1	1.035837E+0	1.056867E+0	1.024358E+0	9.854042E-1	1.005623E+0	1.005375E+0	1.051735E+0	1.003817E+0	1.045906E+0	1.035606E+0	1.033560E+0	9.656516E-1	1.021564E+0	1.058795E+0	1.004092E+0	9.913601E-1	1.008675E+0	1.039116E+0	1.043800E+0	9.827518E-1	1.050989E+0	1.053517E+0	9.862478E-1	1.009279E+0	1.065517E+0	1.027807E+0	1.036732E+0	1.034684E+0	1.016160E+0	1.032498E+0	1.051282E+0	9.959224E-1	9.648833E-1	1.053847E+0	1.026512E+0	1.021396E+0	1.052345E+0	1.023567E+0	9.700017E-1	9.982319E-1
5.557660E+2	9.528002E-1	9.958857E-1	9.940531E-1	9.606347E-1	1.009334E+0	9.449485E-1	1.003043E+0	9.844076E-1	9.837933E-1	1.006749E+0	9.756793E-1	9.337177E-1	1.012970E+0	9.673911E-1	9.551330E-1	9.485907E-1	9.775650E-1	9.609089E-1	9.779479E-1	9.599207E-1	9.750302E-1	9.786763E-1	9.514096E-1	9.916425E-1	9.540685E-1	9.413179E-1	9.470668E-1	9.772796E-1	9.596335E-1	9.477887E-1	9.382896E-1	9.803900E-1	9.803461E-1	9.307039E-1	9.123401E-1	9.674141E-1	9.350708E-1	9.785127E-1	9.583686E-1	9.434835E-1	9.460810E-1	9.370099E-1	9.518295E-1	9.829880E-1	9.894460E-1	9.502374E-1	9.786264E-1	9.312693E-1	9.600860E-1	9.212375E-1	9.127345E-1	9.671583E-1	9.873294E-1	9.760635E-1	9.594759E-1	9.512657E-1	9.582703E-1	1.020769E+0	9.440864E-1	9.521300E-1	9.371594E-1	9.368135E-1	9.193042E-1	9.373060E-1	9.497705E-1	9.725503E-1	9.799885E-1	9.439470E-1	9.418067E-1	9.831198E-1	9.941904E-1	9.424527E-1	9.394863E-1	1.011714E+0	9.813008E-1	9.428739E-1	9.214489E-1	9.796666E-1	9.353620E-1	9.778585E-1	9.675094E-1	9.518601E-1	9.310785E-1	9.729020E-1	9.567326E-1	9.321884E-1	9.303606E-1	9.829835E-1	9.784642E-1	9.412911E-1	9.762769E-1	9.691057E-1	9.657221E-1	9.392085E-1	9.663513E-1	9.595002E-1	9.380102E-1	9.919544E-1	9.651452E-1	9.311422E-1	9.693031E-1	9.274349E-1	9.782408E-1	9.504050E-1	9.824372E-1	9.696466E-1	9.509687E-1	9.984281E-1	9.949896E-1	9.973897E-1	1.018072E+0	9.509194E-1	9.849455E-1	9.281551E-1	9.659755E-1	9.477053E-1	9.235343E-1	9.769465E-1	9.851765E-1	9.780046E-1	9.577421E-1	9.984818E-1	9.736587E-1	9.636417E-1	9.644657E-1	9.222781E-1	9.858239E-1	9.595489E-1	9.800955E-1	9.248307E-1	9.906473E-1	9.784398E-1	9.445937E-1	9.522729E-1	9.752105E-1	9.382352E-1	9.410285E-1	1.020706E+0	9.937643E-1	9.531035E-1	9.512948E-1	9.496880E-1	9.850869E-1	9.303793E-1	9.835572E-1	9.751953E-1	1.001732E+0	8.842511E-1	9.659440E-1	1.034490E+0	9.321236E-1	9.635615E-1	9.671981E-1	9.469254E-1	9.439946E-1	1.003374E+0	9.699660E-1	9.673355E-1	9.629138E-1	9.471632E-1	9.523295E-1	9.104478E-1	9.958193E-1	9.447410E-1	9.964626E-1	9.384489E-1	9.965965E-1	9.328258E-1	1.003546E+0	9.383176E-1	8.855337E-1
5.560240E+2	9.289872E-1	9.496078E-1	9.487164E-1	9.614477E-1	9.586571E-1	9.375051E-1	9.470332E-1	9.549503E-1	9.400400E-1	9.458978E-1	9.439288E-1	9.187084E-1	9.528391E-1	9.745760E-1	9.353135E-1	9.624304E-1	9.568411E-1	9.340948E-1	9.365798E-1	9.437829E-1	9.337117E-1	9.882464E-1	9.327612E-1	9.621933E-1	9.667592E-1	9.749836E-1	9.252380E-1	9.400148E-1	9.213467E-1	9.555467E-1	9.265144E-1	9.667909E-1	9.713834E-1	9.862373E-1	9.370611E-1	9.292642E-1	9.542249E-1	9.607868E-1	9.652519E-1	9.563879E-1	9.294852E-1	9.528801E-1	9.477015E-1	9.778255E-1	9.486902E-1	9.556239E-1	9.482025E-1	9.372601E-1	9.581207E-1	9.123401E-1	9.865028E-1	9.616048E-1	9.350576E-1	9.541004E-1	9.700120E-1	9.630963E-1	9.472329E-1	1.006542E+0	9.275685E-1	9.258895E-1	9.563314E-1	8.746911E-1	9.201844E-1	9.679201E-1	9.270080E-1	9.833413E-1	9.971703E-1	9.251233E-1	9.534961E-1	9.914181E-1	9.629946E-1	9.742201E-1	9.711860E-1	8.957302E-1	9.628486E-1	9.462842E-1	9.498959E-1	9.569412E-1	9.671850E-1	9.970020E-1	9.673252E-1	9.199926E-1	9.134973E-1	9.974908E-1	9.657779E-1	9.718357E-1	9.343491E-1	9.573968E-1	9.708851E-1	9.941713E-1	9.197954E-1	9.822040E-1	9.409546E-1	9.363199E-1	9.469151E-1	9.387986E-1	9.386502E-1	9.767694E-1	9.301780E-1	9.410200E-1	9.804416E-1	9.137488E-1	9.663922E-1	9.791180E-1	8.995948E-1	9.486607E-1	9.612510E-1	9.520076E-1	9.061524E-1	9.112228E-1	9.341364E-1	9.521089E-1	9.127294E-1	9.433988E-1	1.002204E+0	9.457537E-1	9.707499E-1	1.017707E+0	9.416198E-1	9.875955E-1	9.532024E-1	9.577314E-1	9.649623E-1	9.932649E-1	9.659462E-1	9.926406E-1	9.660464E-1	9.428657E-1	9.049133E-1	9.658122E-1	9.956061E-1	9.155448E-1	9.398241E-1	9.664615E-1	9.483124E-1	9.212043E-1	9.445513E-1	1.038629E+0	9.550661E-1	9.589295E-1	9.752318E-1	8.966049E-1	9.303026E-1	9.576564E-1	9.264491E-1	9.161843E-1	9.508769E-1	9.896511E-1	9.531234E-1	9.449759E-1	9.141132E-1	9.648244E-1	9.588645E-1	9.620797E-1	9.321976E-1	9.628289E-1	9.323897E-1	9.598390E-1	9.114100E-1	9.584988E-1	9.304729E-1	9.811118E-1	9.905773E-1	9.911964E-1	9.422843E-1	9.337759E-1	1.005405E+0	9.006989E-1	9.224278E-1	8.789693E-1	9.168055E-1
5.565200E+2	9.849182E-1	9.374449E-1	9.766460E-1	9.297849E-1	9.172430E-1	9.489680E-1	9.745569E-1	1.029595E+0	9.802048E-1	9.862469E-1	9.533249E-1	9.527922E-1	9.369666E-1	9.421018E-1	9.633470E-1	9.621344E-1	9.921742E-1	9.376729E-1	9.798711E-1	9.639616E-1	9.582982E-1	9.277134E-1	9.430100E-1	9.294622E-1	9.394524E-1	9.869182E-1	9.979843E-1	9.761126E-1	9.707925E-1	9.297955E-1	9.516123E-1	9.461053E-1	9.730008E-1	9.776091E-1	9.500615E-1	9.555280E-1	9.090434E-1	1.010210E+0	9.512920E-1	9.691375E-1	9.632245E-1	9.772739E-1	9.393672E-1	9.592374E-1	9.759921E-1	9.863242E-1	9.542905E-1	1.018694E+0	9.826712E-1	9.527204E-1	9.738244E-1	9.106417E-1	9.292891E-1	9.800424E-1	9.714051E-1	9.331798E-1	9.656023E-1	9.248624E-1	9.480457E-1	9.352775E-1	9.243598E-1	9.915596E-1	9.335095E-1	1.001741E+0	9.326257E-1	9.688136E-1	9.315063E-1	9.699460E-1	9.549112E-1	9.810272E-1	9.549562E-1	9.511642E-1	9.513921E-1	9.807226E-1	9.538167E-1	9.640173E-1	9.404196E-1	1.005416E+0	9.390512E-1	9.298426E-1	9.778369E-1	9.328191E-1	9.405665E-1	9.393120E-1	1.002311E+0	9.633474E-1	9.093242E-1	9.517901E-1	9.765235E-1	9.574137E-1	9.281535E-1	9.423731E-1	9.737255E-1	9.297130E-1	9.852960E-1	9.415651E-1	9.312889E-1	9.287955E-1	9.895862E-1	9.659476E-1	9.528750E-1	9.413969E-1	9.898686E-1	9.677024E-1	9.296991E-1	9.576999E-1	9.384610E-1	9.714955E-1	9.448062E-1	9.823383E-1	9.976005E-1	9.661122E-1	9.266167E-1	9.131606E-1	9.343892E-1	9.628345E-1	9.563408E-1	9.686337E-1	9.269415E-1	9.478285E-1	9.755007E-1	9.070113E-1	9.377623E-1	9.395432E-1	9.765740E-1	9.759606E-1	9.556552E-1	9.611975E-1	9.283152E-1	9.633756E-1	9.582354E-1	9.667651E-1	9.584681E-1	9.481033E-1	9.447715E-1	9.244571E-1	9.633410E-1	9.582228E-1	9.821590E-1	9.847568E-1	9.367238E-1	9.646530E-1	9.434096E-1	9.300526E-1	9.517221E-1	9.283293E-1	8.983786E-1	9.119480E-1	9.293145E-1	9.658697E-1	9.914160E-1	9.148784E-1	9.366641E-1	9.485202E-1	9.768656E-1	9.856574E-1	9.646048E-1	9.598562E-1	9.882772E-1	9.384038E-1	9.917704E-1	9.571303E-1	9.536173E-1	9.698145E-1	9.577195E-1	9.567926E-1	1.014945E+0	9.352880E-1	9.494064E-1	9.905804E-1	1.002785E+0
5.570560E+2	9.764607E-1	1.019930E+0	9.542943E-1	1.000366E+0	1.023619E+0	1.012197E+0	9.587296E-1	9.793427E-1	9.970057E-1	9.977695E-1	9.265189E-1	9.754707E-1	9.848657E-1	9.819710E-1	1.021339E+0	9.726908E-1	1.005298E+0	1.036584E+0	9.563324E-1	1.002941E+0	9.868026E-1	9.996393E-1	9.834758E-1	9.613996E-1	9.823185E-1	9.613600E-1	9.152655E-1	9.941633E-1	9.785135E-1	1.010918E+0	9.970597E-1	1.043914E+0	9.948891E-1	9.800706E-1	1.007346E+0	9.879031E-1	9.880029E-1	9.786914E-1	9.599090E-1	1.011605E+0	9.601248E-1	9.955497E-1	9.620628E-1	9.757857E-1	9.978463E-1	1.013081E+0	1.017389E+0	9.575502E-1	9.916097E-1	9.928986E-1	1.021119E+0	1.042276E+0	9.749843E-1	9.895340E-1	9.710261E-1	9.771463E-1	9.762702E-1	9.953100E-1	9.943444E-1	9.903486E-1	9.977059E-1	9.654586E-1	1.025353E+0	1.004241E+0	9.979431E-1	9.688746E-1	1.019098E+0	1.001323E+0	9.818957E-1	1.016287E+0	9.670411E-1	1.015301E+0	9.692973E-1	1.001243E+0	1.002201E+0	9.898694E-1	9.872948E-1	9.484635E-1	9.767643E-1	9.904290E-1	1.023014E+0	9.928011E-1	9.817340E-1	9.855988E-1	1.015851E+0	9.714691E-1	9.995201E-1	9.700856E-1	1.005456E+0	1.028448E+0	9.628332E-1	1.014117E+0	9.852385E-1	1.004713E+0	9.996714E-1	9.510198E-1	9.888471E-1	1.002074E+0	1.011876E+0	9.436424E-1	1.019080E+0	9.823669E-1	9.576703E-1	9.978147E-1	9.962238E-1	1.056405E+0	1.002035E+0	9.585798E-1	9.674406E-1	9.711353E-1	9.899237E-1	9.729105E-1	1.042096E+0	1.020652E+0	1.012028E+0	9.696236E-1	9.961435E-1	9.829568E-1	1.011854E+0	9.739467E-1	9.748232E-1	1.008912E+0	1.005392E+0	9.887220E-1	9.952493E-1	9.700530E-1	1.009443E+0	9.577695E-1	9.776487E-1	9.997915E-1	9.932542E-1	9.654698E-1	9.691937E-1	1.004743E+0	1.028545E+0	9.783159E-1	9.902903E-1	9.739200E-1	9.790213E-1	9.735048E-1	1.024898E+0	9.438727E-1	9.534877E-1	9.805484E-1	9.720454E-1	9.771965E-1	1.004325E+0	9.695552E-1	9.498495E-1	9.824880E-1	9.686135E-1	9.911862E-1	1.004569E+0	1.000572E+0	1.006116E+0	9.717700E-1	9.979529E-1	1.052774E+0	1.017040E+0	9.846397E-1	9.756344E-1	1.012263E+0	9.502758E-1	9.844533E-1	9.935836E-1	9.917671E-1	9.675894E-1	1.011265E+0	9.477272E-1	9.016401E-1	9.685975E-1
5.575360E+2	1.001954E+0	1.036141E+0	9.752272E-1	1.016687E+0	1.001064E+0	1.006958E+0	1.049158E+0	9.847143E-1	1.003392E+0	1.003471E+0	1.044015E+0	1.072508E+0	1.016806E+0	9.703299E-1	1.005158E+0	1.025954E+0	9.910653E-1	1.013693E+0	9.858850E-1	1.014032E+0	1.028177E+0	1.020565E+0	1.049198E+0	9.836714E-1	1.014951E+0	9.776231E-1	1.036404E+0	1.021215E+0	1.012337E+0	9.830255E-1	9.963384E-1	9.783277E-1	1.013345E+0	9.974460E-1	9.805037E-1	1.009350E+0	1.021544E+0	1.025770E+0	1.063702E+0	9.692443E-1	1.013729E+0	1.043594E+0	1.009052E+0	9.745756E-1	1.015817E+0	1.013217E+0	9.910566E-1	1.005230E+0	9.945332E-1	9.943600E-1	1.011286E+0	1.018089E+0	1.009931E+0	1.026340E+0	1.022913E+0	9.766565E-1	1.036634E+0	1.060727E+0	9.816579E-1	9.936859E-1	1.026969E+0	1.025443E+0	1.043202E+0	9.764946E-1	9.777808E-1	1.006147E+0	1.018810E+0	1.002103E+0	1.050919E+0	1.008413E+0	1.011278E+0	9.674752E-1	1.025733E+0	1.034329E+0	9.632961E-1	1.008011E+0	1.022493E+0	1.023634E+0	1.017174E+0	1.018013E+0	1.001375E+0	9.716284E-1	1.009274E+0	1.023180E+0	9.951748E-1	9.878718E-1	1.011132E+0	1.034877E+0	9.500271E-1	1.020944E+0	1.042638E+0	1.039968E+0	1.049035E+0	1.006235E+0	9.873200E-1	1.000391E+0	1.025989E+0	1.038850E+0	9.484522E-1	1.036093E+0	9.605464E-1	9.799645E-1	9.970546E-1	9.769209E-1	9.841505E-1	9.508442E-1	9.953649E-1	9.962868E-1	9.967325E-1	9.774948E-1	9.956091E-1	1.028189E+0	1.052915E+0	1.024176E+0	1.049846E+0	1.024780E+0	1.014008E+0	1.054356E+0	9.907240E-1	1.016497E+0	1.020594E+0	1.021912E+0	9.969514E-1	1.009829E+0	1.007162E+0	1.008025E+0	1.025527E+0	9.802868E-1	1.005776E+0	9.907843E-1	1.040420E+0	1.024119E+0	1.029608E+0	1.008097E+0	9.951393E-1	1.003979E+0	9.915258E-1	1.025509E+0	9.885823E-1	1.050169E+0	1.013115E+0	1.003426E+0	9.781258E-1	1.023762E+0	9.860159E-1	1.036173E+0	1.000071E+0	9.814804E-1	9.802391E-1	9.914648E-1	9.971770E-1	1.026475E+0	1.086525E+0	1.012974E+0	9.583072E-1	1.009057E+0	1.014145E+0	1.025101E+0	9.881895E-1	1.019400E+0	1.030366E+0	9.825848E-1	9.637001E-1	9.570206E-1	1.012591E+0	1.049510E+0	9.669553E-1	1.016993E+0	1.024518E+0	1.040227E+0	9.988775E-1
5.580170E+2	1.009708E+0	1.043025E+0	1.025584E+0	9.850467E-1	9.783329E-1	1.012348E+0	9.504317E-1	1.010923E+0	1.016659E+0	9.462095E-1	9.912191E-1	9.929611E-1	1.019122E+0	9.780864E-1	1.003828E+0	9.957356E-1	9.970656E-1	9.929105E-1	1.002036E+0	9.938424E-1	9.871379E-1	1.001330E+0	1.029990E+0	1.020408E+0	1.033101E+0	1.012863E+0	1.030166E+0	9.900148E-1	1.011267E+0	9.979688E-1	9.928391E-1	9.716852E-1	9.830078E-1	9.668514E-1	1.002490E+0	1.000244E+0	1.001104E+0	1.009825E+0	1.046628E+0	9.917858E-1	1.045429E+0	1.020113E+0	1.011655E+0	1.015804E+0	1.032959E+0	1.047940E+0	1.001357E+0	9.776976E-1	1.032046E+0	1.053828E+0	9.520690E-1	1.020459E+0	1.034471E+0	1.014367E+0	9.879125E-1	1.022468E+0	1.003383E+0	9.946055E-1	9.793473E-1	9.927505E-1	1.002303E+0	1.021316E+0	9.884529E-1	1.018786E+0	1.043292E+0	1.013731E+0	1.023765E+0	9.636721E-1	1.010915E+0	1.007491E+0	9.759229E-1	1.031925E+0	1.029760E+0	1.020207E+0	1.047870E+0	1.022969E+0	1.031907E+0	1.029316E+0	1.050448E+0	9.926842E-1	9.771808E-1	1.000247E+0	1.016058E+0	9.746127E-1	1.011288E+0	9.975697E-1	1.004781E+0	1.006999E+0	9.851824E-1	1.010967E+0	1.029761E+0	9.872612E-1	1.013668E+0	1.013994E+0	9.709956E-1	1.014525E+0	1.029906E+0	1.060400E+0	9.999085E-1	1.045485E+0	1.029058E+0	1.060067E+0	1.022152E+0	1.017392E+0	1.013843E+0	1.021802E+0	1.054643E+0	1.017329E+0	9.952811E-1	1.027129E+0	9.733756E-1	1.015939E+0	9.711138E-1	1.022188E+0	1.004712E+0	1.009243E+0	1.019068E+0	1.019158E+0	9.895544E-1	9.880423E-1	1.013419E+0	1.005822E+0	1.006012E+0	9.887809E-1	9.791039E-1	1.013693E+0	9.871293E-1	1.017806E+0	1.015184E+0	1.017067E+0	1.019818E+0	9.946489E-1	9.979492E-1	1.020065E+0	9.864899E-1	1.024279E+0	1.003936E+0	1.006087E+0	9.964771E-1	1.048748E+0	9.981483E-1	1.018748E+0	9.779936E-1	9.892733E-1	9.884082E-1	1.018315E+0	1.030927E+0	1.022819E+0	1.036359E+0	1.018328E+0	1.001634E+0	1.027995E+0	9.840910E-1	1.007920E+0	9.828850E-1	9.932367E-1	1.006666E+0	9.884034E-1	9.906704E-1	9.923541E-1	9.979006E-1	9.471924E-1	9.920424E-1	1.018658E+0	9.677249E-1	1.009885E+0	1.046931E+0	1.061989E+0	9.842196E-1	9.413015E-1	9.515975E-1
5.585160E+2	1.016718E+0	9.803081E-1	1.039764E+0	9.615435E-1	1.013903E+0	1.025594E+0	9.759250E-1	9.634366E-1	9.983708E-1	1.013718E+0	1.058005E+0	1.000627E+0	9.530546E-1	1.025788E+0	1.006692E+0	1.013855E+0	1.002000E+0	1.004991E+0	1.044859E+0	1.001789E+0	9.710845E-1	1.007382E+0	1.032693E+0	1.011381E+0	9.779008E-1	9.739492E-1	1.013734E+0	9.927324E-1	9.539569E-1	1.011245E+0	9.950110E-1	9.896048E-1	9.874728E-1	1.046993E+0	1.024481E+0	1.013783E+0	9.887670E-1	9.737615E-1	1.028204E+0	1.013378E+0	9.905970E-1	9.771480E-1	1.002305E+0	1.000236E+0	9.540485E-1	1.001057E+0	1.005223E+0	1.030593E+0	1.033442E+0	1.023810E+0	1.013188E+0	9.989930E-1	9.883844E-1	9.961790E-1	1.030397E+0	1.038737E+0	9.992641E-1	9.788385E-1	1.009384E+0	1.050566E+0	1.013981E+0	1.014489E+0	1.003652E+0	9.947896E-1	1.009680E+0	1.020277E+0	9.942602E-1	1.044363E+0	9.907296E-1	9.891442E-1	1.007761E+0	9.879904E-1	9.573046E-1	9.999158E-1	9.959555E-1	9.440715E-1	9.845452E-1	1.030759E+0	9.995177E-1	9.999018E-1	1.011293E+0	1.046693E+0	1.042713E+0	1.030606E+0	1.000513E+0	1.011617E+0	1.022148E+0	9.592798E-1	9.697435E-1	1.018117E+0	9.926187E-1	1.031807E+0	9.754125E-1	9.949806E-1	1.026159E+0	1.005802E+0	1.018349E+0	1.011038E+0	1.025824E+0	9.826738E-1	1.001014E+0	1.046829E+0	9.940605E-1	9.877895E-1	9.973796E-1	1.034576E+0	9.518972E-1	9.900692E-1	9.864951E-1	1.026260E+0	1.003990E+0	1.010647E+0	1.011792E+0	9.996566E-1	9.500577E-1	1.019666E+0	1.015655E+0	1.017614E+0	9.885141E-1	1.041967E+0	1.003788E+0	1.044524E+0	9.954656E-1	1.007572E+0	9.873138E-1	1.011617E+0	1.009719E+0	1.017845E+0	9.644744E-1	1.025638E+0	1.034152E+0	9.828897E-1	9.693116E-1	1.030806E+0	9.805700E-1	1.000036E+0	9.723741E-1	1.056649E+0	9.945857E-1	9.864777E-1	1.011275E+0	9.804859E-1	9.804743E-1	1.019781E+0	9.994530E-1	1.028073E+0	1.046818E+0	1.021765E+0	1.009917E+0	9.961456E-1	1.023502E+0	1.006560E+0	1.011926E+0	1.013328E+0	1.040267E+0	9.571847E-1	9.901865E-1	9.891732E-1	1.004517E+0	9.943573E-1	1.032494E+0	1.053541E+0	9.855830E-1	1.034300E+0	1.007403E+0	9.665709E-1	1.018260E+0	9.767778E-1	9.730684E-1	1.018723E+0	1.065690E+0
5.590160E+2	1.018529E+0	1.022010E+0	9.812963E-1	1.051726E+0	1.004035E+0	1.001433E+0	1.012136E+0	9.976916E-1	1.030079E+0	1.015002E+0	9.760908E-1	9.948375E-1	1.003895E+0	1.040668E+0	1.027256E+0	1.006541E+0	1.002604E+0	9.812033E-1	9.797898E-1	1.017135E+0	9.879088E-1	1.015734E+0	1.001897E+0	9.896890E-1	1.003861E+0	9.708312E-1	1.006163E+0	9.982432E-1	1.055894E+0	9.863998E-1	1.016891E+0	1.018147E+0	1.075678E+0	1.002614E+0	9.876037E-1	1.007494E+0	1.050580E+0	9.612463E-1	9.738029E-1	1.005770E+0	1.018560E+0	1.002532E+0	9.988433E-1	1.006824E+0	1.001554E+0	9.402791E-1	1.023404E+0	9.999770E-1	9.923568E-1	1.003010E+0	1.013541E+0	9.899857E-1	1.011401E+0	9.701224E-1	1.005749E+0	9.513528E-1	9.870315E-1	1.019418E+0	9.984656E-1	9.483603E-1	1.018140E+0	9.595928E-1	9.963203E-1	9.797222E-1	1.000918E+0	9.704334E-1	9.457883E-1	9.905897E-1	9.798506E-1	1.011051E+0	1.030090E+0	1.038879E+0	9.969742E-1	9.860049E-1	9.760203E-1	9.909585E-1	1.009426E+0	9.932440E-1	1.024582E+0	1.025211E+0	9.936167E-1	1.028137E+0	9.645800E-1	9.524675E-1	9.741651E-1	9.890014E-1	1.006665E+0	1.014964E+0	1.026857E+0	9.728085E-1	1.032122E+0	1.002971E+0	9.824144E-1	1.016131E+0	9.849484E-1	9.792094E-1	1.034831E+0	9.771973E-1	1.012696E+0	9.788116E-1	9.972480E-1	1.000369E+0	9.846901E-1	1.013305E+0	1.026361E+0	9.584009E-1	1.029185E+0	1.038206E+0	1.050724E+0	1.000720E+0	1.039851E+0	9.992243E-1	9.893834E-1	1.020337E+0	9.733481E-1	9.747505E-1	9.605997E-1	1.002006E+0	1.015314E+0	1.011826E+0	1.009645E+0	1.011351E+0	1.020716E+0	1.009540E+0	9.813909E-1	9.949080E-1	9.868335E-1	1.019782E+0	1.050025E+0	1.005792E+0	9.721275E-1	1.018616E+0	9.955185E-1	1.010101E+0	1.034491E+0	9.949629E-1	1.028513E+0	1.004705E+0	9.828927E-1	1.024960E+0	1.044845E+0	1.038031E+0	1.028283E+0	1.022653E+0	1.014500E+0	1.001216E+0	1.009838E+0	1.023675E+0	1.023336E+0	9.949533E-1	1.015870E+0	1.009034E+0	9.906978E-1	9.795870E-1	9.790848E-1	1.030460E+0	1.018121E+0	9.815351E-1	9.929037E-1	9.928310E-1	9.749494E-1	9.887539E-1	1.036541E+0	1.016548E+0	1.017798E+0	1.007755E+0	9.963165E-1	1.020938E+0	1.019560E+0	1.063114E+0	9.652633E-1
5.595110E+2	1.014538E+0	9.883492E-1	1.067792E+0	9.988931E-1	1.020269E+0	9.829591E-1	9.998769E-1	1.030335E+0	1.002239E+0	1.057689E+0	1.001904E+0	1.010391E+0	1.028065E+0	1.005217E+0	9.466153E-1	1.044963E+0	1.019785E+0	1.035777E+0	1.041442E+0	1.013537E+0	1.002695E+0	1.013930E+0	9.877213E-1	1.028094E+0	1.048423E+0	1.007631E+0	9.777559E-1	1.022552E+0	1.006720E+0	9.881661E-1	1.027794E+0	9.995457E-1	1.008987E+0	1.020584E+0	1.018197E+0	1.023278E+0	1.033789E+0	1.042742E+0	1.005555E+0	9.888048E-1	1.006478E+0	1.005202E+0	1.051053E+0	1.041282E+0	9.775945E-1	1.009553E+0	1.006655E+0	1.001804E+0	1.010713E+0	9.863143E-1	1.040723E+0	1.021625E+0	1.026651E+0	9.869050E-1	1.008939E+0	9.951869E-1	1.010134E+0	1.005118E+0	1.028520E+0	1.027766E+0	1.029824E+0	1.024717E+0	9.812995E-1	1.021678E+0	1.030001E+0	9.721212E-1	1.025278E+0	1.033445E+0	9.887628E-1	1.006985E+0	1.026149E+0	1.029717E+0	1.017040E+0	9.998591E-1	9.894023E-1	1.013463E+0	1.018258E+0	9.838520E-1	1.028736E+0	1.021113E+0	9.971296E-1	9.847007E-1	1.020508E+0	1.009892E+0	1.024541E+0	9.919792E-1	1.049620E+0	1.011063E+0	9.957316E-1	9.931259E-1	1.037890E+0	1.001161E+0	9.940563E-1	1.075538E+0	9.958708E-1	1.039812E+0	9.629232E-1	9.944346E-1	1.029069E+0	1.024248E+0	9.949955E-1	1.002922E+0	9.944065E-1	1.029402E+0	1.008260E+0	1.046287E+0	9.949842E-1	1.011788E+0	1.013544E+0	9.973574E-1	1.025875E+0	9.910902E-1	9.879612E-1	1.019147E+0	1.031134E+0	1.020542E+0	1.010147E+0	9.962167E-1	9.907783E-1	1.015554E+0	9.971381E-1	1.017004E+0	1.033728E+0	1.004108E+0	1.040049E+0	1.023270E+0	9.759363E-1	1.039722E+0	1.041225E+0	9.937467E-1	9.954619E-1	1.036964E+0	1.037764E+0	9.769854E-1	1.000936E+0	1.034327E+0	1.051550E+0	9.908827E-1	1.009606E+0	9.735108E-1	9.968954E-1	1.019630E+0	1.008971E+0	1.008105E+0	1.004707E+0	9.881207E-1	9.869649E-1	9.978744E-1	1.015502E+0	9.927703E-1	9.668848E-1	9.916559E-1	1.036131E+0	1.029923E+0	1.035755E+0	1.021221E+0	9.570916E-1	1.013185E+0	9.934965E-1	1.015315E+0	1.049680E+0	1.007175E+0	1.034235E+0	1.020518E+0	1.021390E+0	9.907154E-1	1.007997E+0	1.000415E+0	1.029412E+0	9.921344E-1	1.037066E+0
5.600520E+2	9.898997E-1	1.044085E+0	9.873961E-1	1.023356E+0	1.067560E+0	1.007046E+0	1.016789E+0	1.017121E+0	1.029367E+0	1.016519E+0	1.043095E+0	1.010082E+0	1.024600E+0	1.006714E+0	1.003565E+0	1.004227E+0	1.017570E+0	1.027858E+0	9.968096E-1	1.023384E+0	1.020761E+0	1.027793E+0	9.773041E-1	1.038286E+0	1.030997E+0	1.025813E+0	1.036855E+0	1.027394E+0	1.011621E+0	1.026256E+0	9.823664E-1	1.039555E+0	9.993923E-1	9.964218E-1	1.047778E+0	1.013404E+0	1.000198E+0	1.012359E+0	1.034558E+0	1.012546E+0	9.817177E-1	1.010380E+0	1.030487E+0	1.012821E+0	1.017303E+0	1.009647E+0	1.006712E+0	1.042992E+0	1.016725E+0	9.940509E-1	1.017686E+0	1.024274E+0	1.016454E+0	1.004085E+0	1.048332E+0	1.039338E+0	1.051966E+0	1.021035E+0	1.055040E+0	1.047684E+0	1.012966E+0	9.683914E-1	1.003145E+0	9.979864E-1	1.009960E+0	1.053883E+0	1.023820E+0	9.906580E-1	1.017617E+0	1.039895E+0	1.021656E+0	1.039523E+0	1.009103E+0	9.790523E-1	1.017547E+0	1.035389E+0	1.023558E+0	9.895389E-1	9.688471E-1	1.020717E+0	9.635065E-1	1.019100E+0	1.020033E+0	1.043269E+0	1.025303E+0	1.040284E+0	1.005966E+0	1.028446E+0	1.055430E+0	1.005688E+0	9.979901E-1	9.769766E-1	1.012681E+0	1.029963E+0	1.021591E+0	1.013175E+0	1.002444E+0	1.023761E+0	1.012306E+0	1.015860E+0	9.969684E-1	1.030195E+0	1.085892E+0	1.027029E+0	9.826137E-1	9.960951E-1	1.030929E+0	1.025206E+0	1.074063E+0	9.971226E-1	9.617917E-1	1.011508E+0	1.000486E+0	1.020654E+0	9.904084E-1	9.859665E-1	9.782079E-1	9.865490E-1	1.057153E+0	1.029559E+0	9.996137E-1	1.022859E+0	1.010426E+0	1.023428E+0	1.030762E+0	1.039888E+0	1.040409E+0	1.027960E+0	9.932283E-1	1.014419E+0	1.019682E+0	1.014058E+0	1.038075E+0	9.721550E-1	1.008327E+0	1.003842E+0	1.005049E+0	1.008937E+0	1.030143E+0	1.015802E+0	1.030234E+0	1.018171E+0	1.088302E+0	1.051236E+0	1.036624E+0	1.012904E+0	1.019194E+0	1.017254E+0	1.023256E+0	1.045495E+0	9.909850E-1	1.002586E+0	9.603688E-1	9.945503E-1	1.057137E+0	9.920961E-1	1.057089E+0	1.010172E+0	1.037522E+0	9.962868E-1	9.838797E-1	1.014527E+0	1.066136E+0	1.012858E+0	1.018798E+0	9.937878E-1	9.995008E-1	1.011472E+0	1.031046E+0	1.049750E+0	1.061963E+0
5.605150E+2	1.004033E+0	9.681213E-1	1.007175E+0	1.034117E+0	9.667938E-1	1.003016E+0	1.058921E+0	9.810103E-1	1.013235E+0	1.011453E+0	1.013768E+0	1.008479E+0	9.984088E-1	1.034785E+0	1.019841E+0	1.009136E+0	9.728684E-1	9.607667E-1	9.991686E-1	9.584632E-1	1.029590E+0	9.705560E-1	1.011850E+0	1.026230E+0	9.698110E-1	1.016650E+0	9.908917E-1	1.011224E+0	9.898140E-1	1.039361E+0	1.018093E+0	1.018848E+0	9.980696E-1	9.768887E-1	9.794348E-1	9.920833E-1	1.000035E+0	9.762338E-1	9.850640E-1	1.024321E+0	1.003896E+0	1.001406E+0	1.005089E+0	9.833898E-1	1.006356E+0	9.982736E-1	9.787527E-1	1.000695E+0	9.689311E-1	9.971437E-1	9.639977E-1	9.878721E-1	9.939074E-1	1.020691E+0	9.719546E-1	1.021240E+0	9.999272E-1	9.984772E-1	1.010905E+0	9.745901E-1	9.962578E-1	9.910896E-1	1.029356E+0	9.983231E-1	1.013472E+0	1.004943E+0	1.057372E+0	9.895824E-1	1.020117E+0	9.758288E-1	1.011060E+0	1.003839E+0	1.051836E+0	9.877040E-1	1.026583E+0	1.016185E+0	9.863326E-1	1.001261E+0	1.034375E+0	1.012012E+0	9.771400E-1	1.012701E+0	9.754149E-1	1.035959E+0	9.788985E-1	1.006038E+0	1.015166E+0	1.005597E+0	9.948841E-1	1.023422E+0	9.946720E-1	9.950574E-1	9.911827E-1	9.807776E-1	1.011920E+0	1.041367E+0	1.025325E+0	9.587811E-1	9.889558E-1	1.019061E+0	1.027571E+0	9.725243E-1	9.882721E-1	1.003202E+0	1.019911E+0	9.856474E-1	1.004431E+0	1.005912E+0	9.900754E-1	1.041477E+0	1.039174E+0	1.011495E+0	1.038004E+0	9.858610E-1	1.036348E+0	1.044880E+0	1.050436E+0	9.837927E-1	1.030032E+0	1.002097E+0	1.025001E+0	9.577753E-1	1.002702E+0	1.025856E+0	9.957099E-1	9.733206E-1	9.957438E-1	9.522501E-1	1.039876E+0	1.013624E+0	9.728723E-1	1.030301E+0	1.015539E+0	1.032178E+0	9.856093E-1	9.967735E-1	1.031545E+0	1.006088E+0	1.041065E+0	9.944671E-1	9.417340E-1	1.002895E+0	1.007821E+0	1.000040E+0	1.037629E+0	1.018082E+0	9.865308E-1	1.059955E+0	1.018164E+0	1.028672E+0	1.034423E+0	1.028057E+0	1.000139E+0	1.019110E+0	1.006642E+0	1.011721E+0	1.009519E+0	1.031181E+0	1.012145E+0	1.042821E+0	9.766872E-1	1.012490E+0	9.818158E-1	9.967423E-1	1.022104E+0	1.043758E+0	9.590459E-1	9.779524E-1	1.023132E+0	9.916437E-1	9.894415E-1
5.610180E+2	9.832413E-1	9.605850E-1	9.848247E-1	9.984786E-1	1.007179E+0	9.994810E-1	1.003476E+0	1.005829E+0	9.294481E-1	9.519231E-1	9.920590E-1	9.818499E-1	1.034218E+0	1.014338E+0	1.002361E+0	9.647632E-1	9.995698E-1	1.008544E+0	1.013806E+0	1.010915E+0	1.027545E+0	1.015357E+0	9.828604E-1	1.011379E+0	9.991836E-1	1.066361E+0	9.947805E-1	9.663484E-1	1.009083E+0	1.026865E+0	1.021995E+0	9.942666E-1	9.661577E-1	1.034521E+0	1.002104E+0	9.969325E-1	1.006936E+0	1.009161E+0	9.512848E-1	1.013407E+0	1.016245E+0	9.668016E-1	9.900863E-1	1.030045E+0	1.020529E+0	9.806290E-1	1.015159E+0	9.647667E-1	9.769714E-1	1.001864E+0	9.925672E-1	9.857850E-1	1.014526E+0	1.011735E+0	9.813715E-1	1.044695E+0	9.697872E-1	1.001608E+0	9.942915E-1	1.038971E+0	9.774931E-1	1.037942E+0	9.957091E-1	1.006239E+0	9.843281E-1	1.020775E+0	9.603021E-1	1.014318E+0	1.004282E+0	9.638790E-1	9.940863E-1	9.341874E-1	9.915592E-1	1.010962E+0	1.027308E+0	1.015066E+0	9.957664E-1	9.945146E-1	9.605048E-1	9.900766E-1	1.077908E+0	1.011173E+0	1.029119E+0	1.005104E+0	9.719548E-1	1.040822E+0	9.756782E-1	1.016899E+0	1.040165E+0	9.690659E-1	9.813208E-1	1.008307E+0	1.022586E+0	9.479542E-1	1.016228E+0	1.013134E+0	9.800972E-1	1.004668E+0	9.813258E-1	9.881775E-1	1.020644E+0	9.833648E-1	9.859335E-1	9.794423E-1	1.041558E+0	9.922427E-1	9.980695E-1	9.851279E-1	9.808374E-1	9.789654E-1	9.728097E-1	9.928848E-1	9.796321E-1	9.741673E-1	1.017729E+0	9.877143E-1	9.993949E-1	9.887166E-1	9.991355E-1	9.726825E-1	9.804768E-1	1.002829E+0	9.908457E-1	1.002621E+0	1.006684E+0	9.892655E-1	1.013604E+0	1.025381E+0	9.842467E-1	9.757611E-1	9.939770E-1	9.661680E-1	9.885733E-1	9.967658E-1	1.035120E+0	1.039028E+0	9.618751E-1	9.690002E-1	9.954673E-1	9.476034E-1	1.002132E+0	1.010088E+0	1.033133E+0	9.745473E-1	1.008895E+0	9.915903E-1	1.016953E+0	9.936734E-1	1.014064E+0	9.838131E-1	1.009494E+0	1.001572E+0	9.888877E-1	9.935165E-1	9.569396E-1	1.027596E+0	9.846240E-1	9.486208E-1	9.752391E-1	1.023592E+0	9.866382E-1	1.024342E+0	1.036053E+0	9.890871E-1	9.808880E-1	9.894586E-1	1.022460E+0	9.869105E-1	1.017910E+0	1.010886E+0	9.587181E-1
