Photon Energy (eV)	#1	#2	#3	#4	#5	#6	#7	#8	#9	#10	#11	#12	#13	#14	#15	#16	#17	#18	#19	#20	#21	#22	#23	#24	#25	#26	#27	#28	#29	#30	#31	#32	#33	#34	#35	#36	#37	#38	#39	#40	#41	#42	#43	#44	#45	#46	#47	#48	#49	#50	#51	#52	#53	#54	#55	#56	#57	#58	#59	#60	#61	#62	#63	#64	#65	#66	#67	#68	#69	#70	#71	#72	#73	#74	#75	#76	#77	#78	#79	#80	#81	#82	#83	#84	#85	#86	#87	#88	#89	#90	#91	#92	#93	#94	#95	#96	#97	#98	#99	#100	#101	#102	#103	#104	#105	#106	#107	#108	#109	#110	#111	#112	#113	#114	#115	#116	#117	#118	#119	#120	#121	#122	#123	#124	#125	#126	#127	#128	#129	#130	#131	#132	#133	#134	#135	#136	#137	#138	#139	#140	#141	#142	#143	#144	#145	#146	#147	#148	#149	#150	#151	#152	#153	#154	#155	#156	#157	#158	#159	#160	#161	#162	#163	#164	#165	#166	#167	#168	#169	#170	
5.300220E+2	-1.262986E-2	4.045008E-4	-1.252767E-2	-1.433729E-2	-1.604498E-3	-2.948266E-4	-4.450206E-3	-6.183669E-3	1.174071E-3	-7.793156E-3	3.303948E-4	-1.132862E-2	-5.436158E-3	-3.474309E-3	-2.813333E-4	-3.064507E-3	-2.721120E-3	-1.638641E-2	-6.382206E-3	-1.080353E-2	-3.391928E-3	-6.485840E-3	-1.019550E-2	-4.787132E-3	-1.556492E-2	-8.023035E-3	-6.507624E-3	-4.945918E-3	-6.595853E-3	-1.489272E-2	-8.433590E-3	-1.979928E-3	-6.811537E-3	-7.580882E-3	-7.072133E-3	-1.055507E-2	-7.712734E-3	-8.808608E-3	-4.602831E-3	9.929347E-4	-1.404053E-2	-1.814329E-3	-1.208128E-2	-7.820327E-3	-4.526749E-3	-4.215769E-3	-7.931835E-3	-9.277195E-3	-4.438295E-3	-4.668860E-3	-1.346822E-2	-7.598624E-3	-2.589590E-3	-4.038139E-3	2.209361E-3	-1.167424E-2	-2.383872E-3	1.899341E-3	-2.785125E-3	-5.884781E-3	-6.060190E-3	-8.152542E-4	-3.564617E-3	-8.421172E-3	-6.111288E-3	-5.838427E-3	-5.890155E-3	-1.375144E-2	-9.619442E-3	-2.942500E-3	-1.543191E-2	-1.156181E-3	-1.268110E-4	-8.547004E-3	-1.028266E-2	6.079343E-5	-9.518718E-3	-1.409969E-3	-3.680930E-4	-3.037296E-3	-6.074401E-3	-1.026583E-2	-8.079919E-3	3.197396E-3	-1.586167E-3	-9.647298E-3	-6.918752E-3	-1.034673E-2	-2.023710E-3	4.163146E-3	-5.467724E-3	-5.176379E-3	-6.962636E-3	-7.798084E-3	-1.265456E-2	-1.185771E-2	-7.329524E-3	-9.846032E-4	-7.646905E-4	-3.227113E-4	-1.099807E-2	-9.381662E-3	-8.786131E-3	-1.043496E-2	-5.269894E-3	-6.706069E-3	-1.068587E-2	-1.112297E-2	-4.477539E-3	-5.155113E-3	-1.150652E-2	-6.028743E-3	1.601123E-3	-3.601344E-3	2.127570E-3	1.045756E-3	-1.782461E-3	-2.156166E-3	-8.979975E-3	2.552497E-3	-3.110495E-3	-2.124309E-3	-9.825365E-3	-6.616000E-3	-5.625459E-3	-7.963588E-3	7.169343E-4	-2.623847E-3	-6.227804E-3	-1.997485E-3	-1.175056E-2	-1.044189E-2	-5.758550E-3	-4.621245E-3	-5.680291E-3	3.971446E-3	-1.875798E-3	-9.916984E-3	-7.891002E-3	-1.310458E-2	-5.292209E-3	-5.911101E-3	-1.254210E-2	-3.621196E-3	-7.401270E-3	-4.769975E-3	-1.167840E-3	-6.135084E-3	-1.473174E-2	-9.202955E-3	-7.447196E-3	-5.133826E-3	-8.480895E-3	-2.409379E-3	-8.650359E-4	-8.827100E-3	3.840754E-3	1.136868E-3	-2.183303E-3	-3.185974E-3	-4.696173E-3	-2.664482E-3	-4.438609E-3	-3.936297E-3	-5.034734E-3	-1.015137E-2	-2.486612E-3	-1.442711E-3	-1.740785E-2	-1.270463E-2
5.305130E+2	-5.628788E-3	-8.367185E-3	-4.450288E-3	2.974174E-3	-6.729256E-3	-4.599505E-3	-5.685582E-3	-2.379851E-3	2.055483E-3	1.511467E-3	3.099682E-3	-4.524159E-3	-6.138041E-3	-3.129058E-3	-6.178998E-3	-6.947200E-3	-3.892882E-3	7.005152E-3	-7.070949E-3	-1.819000E-3	-4.568965E-3	-4.042470E-3	-3.192237E-3	8.446999E-4	-8.737604E-3	-9.670745E-3	-8.227466E-3	-9.833755E-3	-2.569918E-3	1.310085E-4	-1.372046E-2	-8.072927E-3	-8.430804E-3	8.062714E-3	-9.650301E-3	-6.284671E-3	-1.042350E-2	-3.300753E-3	-3.223839E-3	-7.698151E-3	6.495257E-5	-3.545083E-3	2.138683E-3	-6.833305E-3	-5.200173E-3	-7.549702E-3	-8.042898E-3	-3.128081E-3	-1.492659E-3	-2.781472E-3	-9.948116E-3	-1.191704E-2	-3.775682E-3	-6.380202E-3	-4.648596E-5	-2.624007E-3	-1.365890E-2	-1.120111E-2	-5.259426E-3	-4.402329E-4	-6.166681E-3	7.446680E-4	-4.247325E-3	-8.025272E-3	-1.924180E-3	-9.833891E-4	5.850952E-3	-4.987878E-3	-2.033392E-3	-1.041756E-2	9.578198E-4	-5.337115E-3	-5.130615E-3	-1.724103E-3	-8.484096E-3	-6.667780E-3	-7.578039E-3	-9.165162E-3	-3.633582E-3	-2.621301E-3	-6.710466E-3	-2.485242E-3	-9.335764E-3	-1.205795E-3	-2.860881E-3	4.893279E-3	-9.045528E-3	-2.062774E-3	-4.717798E-3	-1.132769E-2	1.082263E-2	-8.929669E-3	-3.963090E-3	-8.903425E-4	-4.149450E-3	-8.716717E-3	1.519672E-3	-7.295562E-3	-9.850942E-3	-2.285408E-3	1.399198E-3	2.560938E-4	-2.501859E-3	-6.654784E-3	-1.944970E-3	-1.803566E-3	-1.929092E-3	-8.597883E-3	-5.102620E-3	6.536695E-4	1.219732E-3	-2.551503E-3	-1.251124E-2	-8.223197E-3	2.466029E-3	-1.498342E-2	-5.063256E-3	-6.046904E-3	-4.560818E-4	-5.983491E-3	-9.999418E-3	-1.020321E-2	-1.265180E-2	-2.378414E-3	-5.318263E-3	5.043460E-3	-7.836071E-3	-6.832449E-3	7.884865E-3	-3.489426E-3	-6.442126E-3	3.486031E-3	1.199283E-4	5.945976E-4	2.088390E-3	-7.574493E-3	-8.136968E-3	-3.195268E-3	-7.350262E-3	-3.765614E-3	-5.933733E-3	-1.118873E-2	3.759550E-3	-4.805445E-3	-5.356133E-3	4.829340E-3	-4.228542E-3	-1.213409E-3	-4.321713E-3	3.267664E-3	4.514910E-3	-3.433272E-3	-6.302638E-3	-5.042239E-3	-3.877904E-6	-2.874424E-3	4.851931E-4	1.855731E-3	4.832093E-3	-8.003735E-3	-6.523122E-3	-5.692299E-3	-9.543326E-3	2.534140E-3	-3.168409E-3	-1.138456E-2	-4.500592E-3	-5.956105E-3	4.669447E-3	-2.162025E-3
5.310150E+2	5.872709E-3	-4.588106E-3	-5.411877E-3	-1.241205E-2	-3.336840E-3	-6.069490E-3	-5.032276E-3	2.237831E-3	-5.784036E-3	-3.577567E-3	-8.586733E-3	-5.996815E-3	-6.013553E-3	-2.550710E-3	2.139413E-3	1.464348E-3	2.356645E-3	-5.983512E-3	1.000183E-2	-2.863648E-3	1.526616E-3	-3.935645E-3	-3.075723E-3	-7.131651E-3	6.135930E-3	-9.071009E-4	-6.015081E-3	-3.862013E-3	-1.283690E-4	1.331096E-3	-2.753001E-3	-3.010686E-3	3.103789E-3	-4.514603E-3	-3.009582E-3	-8.887208E-3	-9.984674E-4	-2.674436E-3	-7.086108E-3	-2.956967E-5	-1.274301E-2	-3.980150E-3	-3.087634E-3	-2.823637E-3	-4.536788E-3	-7.444188E-3	-4.080980E-3	-3.448873E-3	2.211172E-3	-5.199760E-3	6.351876E-3	7.864744E-3	-8.190366E-3	-1.058115E-2	-1.026861E-2	-2.038447E-3	-1.010091E-3	4.497431E-3	-9.775725E-3	-2.775027E-3	-9.063756E-3	-1.552187E-3	-4.664775E-3	4.148217E-3	6.064253E-4	-9.760785E-3	-8.239605E-3	-9.547772E-3	2.708081E-3	-9.790264E-3	-5.579326E-3	-5.217073E-3	1.218820E-3	-8.190670E-3	2.987071E-3	-5.368811E-3	6.352050E-3	2.919570E-3	-6.135927E-3	-4.715179E-3	-9.609834E-3	6.217179E-3	-3.555959E-3	-7.879733E-3	5.166710E-3	-1.265619E-2	2.892507E-3	-4.735465E-3	4.560637E-3	-6.303379E-3	-8.213905E-3	-1.445637E-3	-5.652149E-3	-1.695726E-3	-3.532729E-3	-8.079053E-3	7.602942E-3	-1.138828E-3	-3.154097E-3	-6.579935E-3	-7.761202E-3	-5.077318E-3	-7.165302E-3	-2.223216E-3	6.792913E-3	-2.352125E-3	-6.138611E-3	-5.437841E-3	-7.247693E-4	-4.776106E-3	-5.532783E-3	-1.395512E-3	-9.217650E-4	2.416185E-3	-7.544225E-3	-3.104837E-3	-3.897988E-3	-3.036048E-3	-3.879390E-3	-3.417983E-3	3.972768E-4	-6.149586E-3	7.438797E-3	-4.327546E-4	-6.616329E-3	-5.411602E-3	-1.783464E-3	-5.691604E-3	-1.201332E-2	-3.135916E-3	-2.006925E-3	2.501988E-3	-7.797911E-3	-2.567694E-3	-4.613471E-3	-1.087322E-2	-1.908100E-3	-5.154595E-3	-1.925067E-3	-5.960905E-3	-5.456538E-4	-7.504796E-4	-3.208114E-3	4.869758E-3	-2.492633E-3	-8.726874E-3	2.379271E-3	-7.813408E-3	-4.681705E-3	-6.838127E-3	-5.051871E-4	-3.292157E-3	9.701537E-3	-1.330603E-2	-5.497666E-3	5.104493E-3	-1.968999E-2	-9.489921E-3	-6.879125E-3	-6.816343E-3	-5.933911E-4	-5.097744E-3	1.221664E-4	-5.073901E-3	6.226272E-4	4.590649E-3	-9.063496E-3	2.559915E-3	-5.251107E-3	1.042412E-2
5.315130E+2	5.997264E-3	2.404313E-3	1.862212E-3	-9.717839E-4	1.898621E-3	-5.429622E-3	-2.704457E-3	-3.002316E-3	-1.152387E-2	-1.897514E-3	-7.289404E-3	3.602057E-3	2.095252E-3	-1.966916E-3	-9.524345E-3	-3.022721E-3	-1.104179E-3	-7.301478E-4	-6.826824E-3	8.061466E-3	-2.334308E-3	-3.311753E-3	-2.432073E-3	2.935800E-3	5.141323E-3	2.469752E-4	-4.839955E-3	4.821751E-3	1.051421E-7	4.156494E-3	4.272958E-3	-4.226763E-3	2.532555E-4	-6.439771E-3	-3.389401E-3	4.553330E-4	2.762117E-3	-2.550718E-3	-4.988358E-3	5.393188E-4	6.201215E-3	9.129834E-3	-2.372632E-3	-5.483734E-3	3.315907E-3	-9.021147E-4	8.182496E-3	1.653701E-3	2.328726E-3	3.053495E-3	-6.864022E-3	-4.262147E-3	-4.048924E-3	3.055474E-3	7.198385E-4	-9.932269E-4	-4.388782E-3	3.515840E-3	6.566086E-3	-5.123316E-3	3.092701E-3	-9.734580E-3	-9.338720E-3	4.288923E-3	-2.916075E-3	-2.976014E-3	-9.919377E-3	-4.771723E-3	1.811245E-3	5.462681E-3	1.211290E-3	2.421408E-3	3.944802E-4	6.749579E-3	1.168720E-4	-2.876219E-3	2.402510E-3	7.568864E-3	6.021205E-3	3.692351E-3	3.714135E-3	-6.028027E-3	5.423920E-4	8.273232E-5	-9.362265E-4	7.181691E-3	-2.402955E-3	-1.329819E-3	9.594992E-5	2.221145E-4	2.374997E-3	4.217447E-3	5.970199E-3	7.917955E-4	-2.383450E-3	1.060830E-3	-8.442930E-3	-7.139146E-3	-4.950392E-3	1.814285E-3	1.624837E-3	3.420264E-3	-2.870710E-3	-2.701152E-3	-3.423669E-3	-7.239004E-3	-4.743146E-4	8.265190E-3	-7.943501E-5	1.182030E-3	9.192314E-4	-2.234680E-3	5.413635E-4	-1.251073E-3	2.259245E-3	4.142491E-3	4.558068E-4	4.790256E-3	3.654537E-4	-4.730741E-3	-4.642254E-3	-9.461180E-4	5.254369E-3	9.540541E-4	3.306863E-4	-5.755109E-3	1.033572E-3	3.697626E-3	1.703183E-3	-1.378458E-4	-4.539082E-3	-7.101365E-4	3.465212E-3	3.247116E-3	3.461020E-3	1.048603E-3	-1.758251E-3	5.544317E-3	9.833004E-3	6.086346E-4	-2.775740E-3	-3.821480E-6	5.902268E-4	-6.022437E-3	-1.650887E-4	-4.214634E-3	-1.555718E-3	-3.181118E-3	-5.057805E-4	-1.925652E-3	-4.970322E-3	-7.874763E-4	-9.240680E-4	3.589868E-3	-1.842468E-7	-5.586999E-3	-7.836422E-3	1.612391E-4	5.191025E-4	7.938627E-3	-6.224599E-3	-1.393602E-4	2.158611E-3	-1.330866E-2	-8.055307E-3	6.910566E-3	3.857276E-3	-1.863088E-3	1.385506E-2	-1.184113E-2
5.320220E+2	1.292927E-4	-1.157315E-3	6.363629E-3	1.530798E-2	2.637338E-3	8.921751E-3	1.050589E-2	2.956278E-4	-6.096553E-3	1.884997E-3	6.473960E-3	6.914356E-3	1.072165E-2	9.908390E-4	1.951254E-3	-1.173361E-4	2.615984E-3	1.198978E-2	9.623715E-4	1.966668E-3	-1.707455E-3	7.028210E-3	7.401008E-3	6.261944E-3	2.435778E-3	6.532272E-3	5.844079E-3	8.723942E-3	-1.264371E-3	-3.088422E-5	8.506285E-3	2.231259E-3	8.368329E-3	-2.029048E-4	8.255984E-4	1.201445E-2	6.025626E-3	1.346440E-2	6.626643E-3	2.719319E-4	1.106704E-2	-5.395551E-3	7.322483E-3	2.091029E-2	1.288628E-4	-2.419364E-4	2.813007E-3	1.346879E-3	-5.695653E-4	-2.422427E-3	6.060329E-3	6.545547E-3	5.169593E-3	9.706833E-3	-8.554117E-3	-3.995365E-4	1.793967E-3	-3.628268E-3	4.386335E-3	9.197177E-3	5.742627E-3	1.149430E-2	6.265967E-3	-6.234290E-4	-3.418914E-3	4.392638E-3	-4.422525E-3	1.116204E-2	1.945390E-3	1.941644E-3	9.593353E-3	-5.448162E-4	-8.623719E-3	-2.850426E-4	9.253199E-3	6.151494E-3	-1.056515E-3	-3.295734E-3	-5.920467E-3	3.264286E-3	4.437986E-3	9.178826E-3	1.094325E-2	5.459569E-3	-7.632427E-3	-1.822386E-3	2.182536E-3	8.676377E-3	6.352617E-3	-1.625587E-3	-2.755920E-3	-4.303954E-3	4.288313E-3	9.269074E-4	4.087620E-3	1.237214E-2	5.295714E-3	8.478132E-3	4.733488E-3	-8.345627E-4	2.841633E-3	-6.961725E-3	8.923110E-3	1.467223E-2	-4.512053E-3	5.600947E-3	1.202247E-2	2.793630E-3	-4.944783E-4	-2.659604E-3	4.218477E-3	6.302357E-3	1.046761E-2	1.037045E-2	-5.633613E-3	7.279298E-3	1.165691E-2	1.978521E-4	6.151232E-3	2.770057E-3	8.312158E-3	-2.810166E-3	1.100587E-4	-4.403106E-3	1.023820E-2	4.950053E-3	-1.487320E-3	2.355375E-4	-3.447985E-3	2.205190E-5	9.060152E-3	-1.015609E-5	-3.972705E-3	-7.213231E-4	-2.739974E-3	5.648376E-3	7.882460E-3	-4.307622E-3	7.096138E-3	7.213916E-3	1.223141E-2	5.815661E-3	5.629849E-3	-2.357338E-3	2.714646E-3	6.924518E-3	-9.777953E-3	3.166744E-3	9.284831E-3	-2.297829E-3	1.530308E-3	-3.466797E-3	-2.487100E-3	1.661011E-3	-1.460010E-3	1.084903E-2	1.125907E-2	3.262661E-4	-1.578703E-3	-2.855340E-4	5.472985E-3	4.841272E-3	4.098838E-4	2.937129E-3	1.468666E-3	4.938318E-3	3.999359E-3	-4.013373E-3	-2.443985E-3	4.101964E-3
5.325170E+2	6.259385E-3	1.130379E-2	1.416400E-2	9.438969E-3	7.134635E-3	7.471693E-3	7.366635E-3	9.032376E-3	2.017491E-2	9.871774E-3	5.972101E-3	1.133318E-2	4.770855E-3	1.013016E-2	1.189401E-2	1.168742E-2	2.745552E-3	4.105133E-3	9.315773E-3	5.458041E-3	1.047604E-2	1.074750E-2	1.149452E-2	1.876339E-3	1.058949E-2	1.182163E-2	1.974605E-2	5.095994E-3	1.055841E-2	9.305010E-3	1.212781E-2	1.505904E-2	3.516967E-3	1.067545E-2	2.229582E-2	1.325717E-2	1.034696E-2	3.870113E-3	1.327449E-2	5.923535E-3	9.450324E-3	5.605278E-3	8.080383E-3	2.050713E-3	1.081894E-2	2.035371E-2	9.060211E-3	1.285357E-2	1.960621E-3	1.201902E-2	1.786815E-2	9.367520E-3	1.343497E-2	8.237184E-3	1.594002E-2	1.772946E-2	1.964768E-2	4.916765E-3	6.867855E-3	5.026180E-3	1.245530E-2	-1.369456E-4	1.554947E-2	8.632733E-3	1.376403E-2	1.516598E-2	2.262071E-2	2.189678E-2	5.188117E-3	1.574600E-2	9.248774E-3	9.833776E-3	1.226785E-2	1.199724E-2	6.409616E-3	8.700523E-3	9.398711E-3	3.382432E-3	1.003686E-2	3.417138E-3	1.424258E-2	3.383092E-3	9.485999E-3	3.458302E-4	7.848991E-3	1.205091E-2	1.329219E-2	9.798408E-3	-4.267696E-3	1.487140E-2	3.239920E-3	1.563819E-2	6.319363E-3	8.665450E-3	1.863257E-2	1.522052E-2	1.354125E-3	8.080007E-3	1.398663E-2	8.208332E-3	1.289360E-2	1.774435E-2	1.240089E-2	7.341882E-3	8.357673E-3	1.249982E-2	7.205417E-3	1.409987E-2	1.087884E-2	1.075512E-2	1.068186E-2	5.908082E-3	8.229148E-4	2.889786E-4	6.324993E-3	5.620710E-3	-1.369009E-3	6.251011E-3	6.798761E-3	8.809662E-3	9.042733E-3	2.223339E-2	9.673934E-3	1.287622E-2	6.991161E-3	9.136788E-3	9.356349E-3	1.121474E-2	1.210106E-2	8.738621E-3	1.567854E-2	5.174166E-3	1.394403E-2	4.068550E-3	7.484326E-3	7.779285E-3	5.796657E-3	1.703015E-2	2.371890E-4	1.500855E-2	2.315925E-3	1.203848E-2	5.770589E-3	1.193666E-2	1.270048E-2	5.957624E-3	1.435078E-2	1.517627E-2	1.495611E-2	1.699690E-2	6.877487E-3	1.611353E-2	8.493165E-3	1.550677E-2	7.826774E-3	1.335005E-3	1.194140E-2	6.009816E-3	5.289935E-3	1.035296E-2	1.256430E-2	8.752612E-3	1.129127E-2	1.684759E-2	1.416716E-2	5.096395E-3	8.194065E-3	1.071536E-2	6.578430E-3	1.218170E-2
5.330280E+2	1.897911E-2	3.073556E-2	6.639843E-3	1.258056E-2	1.736803E-2	2.404257E-2	1.900936E-2	1.691463E-2	4.176263E-2	2.841920E-2	1.386931E-2	3.789911E-2	5.911720E-3	2.935398E-2	1.588804E-2	2.480610E-2	2.979954E-2	3.771991E-2	1.691953E-2	1.141622E-2	2.373531E-2	3.968462E-2	2.244666E-2	1.845078E-2	3.485543E-2	3.052991E-2	1.244126E-2	3.842595E-2	2.529548E-2	2.580404E-2	1.093035E-2	4.989644E-3	2.176691E-2	2.526311E-2	1.625389E-2	2.945684E-2	2.621471E-2	1.692018E-2	3.601898E-2	3.241201E-2	2.622637E-2	3.251735E-2	2.520286E-2	2.762768E-2	1.992198E-2	2.165348E-2	1.657655E-2	1.862791E-2	3.178871E-2	2.810308E-2	1.758638E-2	3.000176E-2	2.428618E-2	1.277025E-2	1.286264E-2	3.136217E-2	1.327824E-2	2.083763E-2	3.024005E-2	2.258459E-2	2.377467E-2	2.372231E-2	3.257030E-2	3.269795E-2	3.348869E-2	1.758133E-2	2.691641E-2	1.738768E-2	2.347939E-2	2.647025E-2	2.856477E-2	3.099483E-2	1.487966E-2	3.654301E-2	1.201067E-2	1.903271E-2	2.509598E-2	1.312800E-2	2.182902E-2	2.754603E-2	3.440527E-2	2.251180E-2	9.666624E-3	3.061268E-2	3.027222E-2	2.958103E-2	2.295437E-2	2.040273E-2	4.061607E-2	1.905112E-2	2.981877E-2	2.887024E-2	2.087911E-2	3.072710E-2	3.058312E-2	2.666112E-2	3.092520E-2	2.332148E-2	1.967565E-2	2.345179E-2	1.750241E-2	2.154719E-2	2.232923E-2	2.562106E-2	1.546639E-2	2.165661E-2	1.112543E-2	1.614238E-2	2.016219E-2	1.883229E-2	3.560416E-2	2.445489E-2	3.696865E-2	1.965019E-2	3.454719E-2	1.346954E-2	2.514420E-2	1.174644E-2	2.336287E-2	1.931862E-2	2.072482E-2	1.377154E-2	1.632678E-2	2.347492E-2	2.429526E-2	1.941182E-2	2.617262E-2	2.692885E-2	3.306412E-2	1.865503E-2	1.152902E-2	3.635909E-2	2.227776E-2	1.718541E-2	2.895765E-2	4.064205E-2	2.727312E-2	1.777385E-2	1.908739E-2	3.346838E-2	2.367000E-2	1.526574E-2	1.573768E-2	2.581119E-2	2.110609E-2	3.762189E-2	1.986150E-2	2.499008E-2	2.671626E-2	2.519171E-2	1.108940E-2	2.212432E-2	2.238523E-2	1.886623E-2	1.716250E-2	1.195722E-2	1.107865E-2	2.233764E-2	1.163725E-2	2.637766E-2	1.388569E-2	3.430638E-2	2.096409E-2	3.385809E-2	2.117031E-2	1.174067E-2	2.735056E-2	2.252179E-2	3.221407E-2	2.825625E-2
5.331630E+2	3.064456E-2	2.783415E-2	3.537128E-2	2.476889E-2	3.116536E-2	3.431146E-2	2.631363E-2	2.346042E-2	3.231306E-2	3.650343E-2	3.933377E-2	2.953769E-2	2.219404E-2	3.526934E-2	3.143915E-2	3.955800E-2	3.828670E-2	4.138831E-2	2.881105E-2	3.385222E-2	3.603455E-2	3.114187E-2	2.667646E-2	2.868829E-2	3.102644E-2	4.001471E-2	3.533380E-2	3.435848E-2	2.831999E-2	3.470961E-2	1.899764E-2	3.446838E-2	3.906807E-2	3.937578E-2	4.174562E-2	3.684608E-2	3.112311E-2	2.690368E-2	3.144129E-2	2.499654E-2	4.067162E-2	3.380056E-2	2.343582E-2	3.029153E-2	4.582024E-2	3.432627E-2	1.089796E-2	4.375681E-2	3.078803E-2	3.862514E-2	3.713959E-2	3.997841E-2	2.293632E-2	2.714554E-2	2.201207E-2	3.019842E-2	2.971605E-2	1.988428E-2	2.723397E-2	2.157677E-2	3.970462E-2	2.047426E-2	3.289430E-2	3.765389E-2	4.533967E-2	2.732837E-2	4.276519E-2	3.352752E-2	3.197340E-2	2.983292E-2	3.008341E-2	2.629839E-2	2.961604E-2	2.231296E-2	4.252752E-2	3.220599E-2	3.572533E-2	3.307054E-2	3.232740E-2	3.604289E-2	1.218035E-2	3.418386E-2	3.409858E-2	4.585604E-2	2.704477E-2	2.365467E-2	3.331026E-2	3.250843E-2	3.363630E-2	3.021922E-2	3.219236E-2	3.310515E-2	2.624363E-2	3.719894E-2	4.159737E-2	3.254563E-2	3.053430E-2	2.804252E-2	2.152749E-2	3.330923E-2	4.202531E-2	3.835078E-2	3.778947E-2	3.185589E-2	3.250970E-2	3.871029E-2	3.316420E-2	2.816659E-2	3.595003E-2	4.216914E-2	2.752040E-2	3.678571E-2	4.039779E-2	2.367028E-2	1.851843E-2	2.916627E-2	3.170989E-2	3.636964E-2	3.642777E-2	3.435548E-2	2.873793E-2	3.695219E-2	4.318866E-2	2.859435E-2	3.432871E-2	3.075332E-2	3.122042E-2	2.504359E-2	3.864460E-2	3.494057E-2	3.772163E-2	3.488682E-2	3.832754E-2	2.517737E-2	2.115733E-2	3.594397E-2	4.098729E-2	3.927494E-2	3.451141E-2	4.846744E-2	3.160890E-2	2.064366E-2	3.066405E-2	3.010628E-2	3.395796E-2	3.896428E-2	3.038465E-2	2.406880E-2	2.999350E-2	2.754884E-2	4.038306E-2	2.711127E-2	4.094117E-2	3.495817E-2	3.088391E-2	2.310108E-2	2.829492E-2	2.761907E-2	3.214764E-2	4.191811E-2	2.163711E-2	2.154007E-2	2.942427E-2	2.865011E-2	4.082542E-2	3.142622E-2	2.958716E-2	5.756056E-2	5.285058E-2	5.238779E-2
5.333130E+2	4.954404E-2	4.058478E-2	3.393715E-2	5.695970E-2	3.535076E-2	4.517953E-2	3.696917E-2	3.963396E-2	3.790300E-2	4.570303E-2	4.116521E-2	3.833040E-2	3.525416E-2	4.220095E-2	4.981993E-2	3.792484E-2	4.371739E-2	3.872349E-2	3.070411E-2	4.896297E-2	3.423993E-2	4.116505E-2	3.551764E-2	3.854561E-2	4.969219E-2	5.267883E-2	3.116540E-2	5.255284E-2	3.986799E-2	4.858378E-2	3.110116E-2	4.939169E-2	4.132629E-2	3.753999E-2	5.462203E-2	4.754811E-2	4.290905E-2	4.473060E-2	4.457426E-2	3.888098E-2	4.150395E-2	5.982023E-2	3.400441E-2	4.922927E-2	4.998932E-2	4.378876E-2	3.720270E-2	3.390661E-2	4.194596E-2	4.660082E-2	4.924825E-2	5.428066E-2	3.948642E-2	4.051432E-2	4.157007E-2	3.974375E-2	4.371575E-2	4.666058E-2	3.953495E-2	4.735738E-2	5.267426E-2	4.004659E-2	4.394864E-2	4.351912E-2	5.171563E-2	3.768587E-2	4.478547E-2	5.328509E-2	3.688804E-2	4.117233E-2	4.951110E-2	4.896920E-2	3.471806E-2	4.810865E-2	3.350291E-2	2.706114E-2	3.909613E-2	4.244773E-2	4.226642E-2	4.083544E-2	4.279577E-2	4.095727E-2	4.460205E-2	4.561103E-2	4.961712E-2	3.771865E-2	3.732260E-2	5.133034E-2	3.231504E-2	3.645349E-2	3.707146E-2	3.977441E-2	4.657077E-2	3.509097E-2	4.425249E-2	5.517694E-2	6.255544E-2	5.236352E-2	5.006508E-2	4.038351E-2	3.562402E-2	3.598427E-2	6.139255E-2	4.907717E-2	5.019935E-2	3.277567E-2	4.146929E-2	5.024476E-2	3.627095E-2	5.337734E-2	3.308201E-2	5.114008E-2	3.164090E-2	4.784817E-2	4.206079E-2	3.668074E-2	4.998172E-2	4.799660E-2	3.280594E-2	5.448316E-2	4.623071E-2	4.134316E-2	4.166912E-2	5.375784E-2	3.712338E-2	2.905228E-2	5.195948E-2	5.958056E-2	5.150207E-2	3.526423E-2	3.353409E-2	4.662619E-2	4.167783E-2	4.525021E-2	3.121516E-2	3.227135E-2	5.480996E-2	4.294582E-2	2.942627E-2	4.294906E-2	4.497384E-2	3.882027E-2	3.109161E-2	3.864277E-2	5.849092E-2	3.812281E-2	4.860026E-2	5.059546E-2	5.362061E-2	4.551306E-2	4.303294E-2	5.469587E-2	3.834523E-2	5.170918E-2	4.143779E-2	4.045471E-2	4.045802E-2	3.497196E-2	3.747326E-2	4.430305E-2	3.645342E-2	3.803360E-2	4.558251E-2	6.150724E-2	4.217264E-2	5.178229E-2	5.098049E-2	3.929553E-2	3.523010E-2	5.068952E-2
5.334520E+2	4.480632E-2	6.021307E-2	6.010886E-2	7.115688E-2	5.472184E-2	4.861080E-2	4.820431E-2	5.223325E-2	5.806228E-2	6.288167E-2	5.887883E-2	6.543454E-2	4.837037E-2	6.785728E-2	4.874087E-2	5.658227E-2	6.792096E-2	5.460025E-2	4.549676E-2	7.045116E-2	4.612519E-2	6.726310E-2	4.439067E-2	4.751916E-2	7.304913E-2	5.139164E-2	3.631860E-2	5.007019E-2	5.761607E-2	5.375949E-2	5.361532E-2	6.668716E-2	5.775611E-2	4.915502E-2	6.218878E-2	5.774134E-2	5.685045E-2	5.224631E-2	6.821009E-2	4.812527E-2	5.367948E-2	5.238454E-2	3.258836E-2	6.938343E-2	5.305107E-2	4.893131E-2	5.759438E-2	5.443985E-2	7.083957E-2	5.564166E-2	5.913646E-2	4.315335E-2	4.996476E-2	5.393384E-2	6.271720E-2	8.059502E-2	5.880205E-2	5.711810E-2	5.362474E-2	4.760411E-2	5.600805E-2	5.474329E-2	6.591033E-2	6.172363E-2	6.180598E-2	5.316728E-2	5.037825E-2	5.235252E-2	5.226346E-2	5.840019E-2	5.445946E-2	6.366016E-2	5.888726E-2	6.677308E-2	4.897514E-2	4.661264E-2	7.219944E-2	5.237100E-2	6.462833E-2	5.745836E-2	5.462412E-2	5.049395E-2	6.282187E-2	5.386935E-2	5.619481E-2	6.214510E-2	4.794774E-2	5.401219E-2	5.535282E-2	4.572444E-2	4.369589E-2	4.818307E-2	5.715992E-2	5.646193E-2	6.537759E-2	6.143080E-2	6.770387E-2	5.937370E-2	4.748063E-2	4.683415E-2	5.641787E-2	5.750105E-2	6.756794E-2	5.759098E-2	4.870151E-2	6.571511E-2	6.777802E-2	6.311834E-2	5.651872E-2	6.613304E-2	5.310546E-2	5.726419E-2	5.523000E-2	6.296863E-2	4.860961E-2	5.247004E-2	4.865221E-2	5.664939E-2	5.609480E-2	4.931815E-2	4.650734E-2	6.063438E-2	5.936122E-2	5.472484E-2	5.025419E-2	3.798605E-2	5.054725E-2	6.216965E-2	6.559561E-2	6.446981E-2	4.783649E-2	6.633456E-2	6.250441E-2	5.233125E-2	5.541380E-2	5.552375E-2	5.396905E-2	6.070655E-2	3.626985E-2	6.147510E-2	6.232412E-2	5.508395E-2	6.409654E-2	7.015048E-2	5.995689E-2	5.461033E-2	5.687241E-2	6.772009E-2	6.157235E-2	5.066602E-2	6.743838E-2	6.275191E-2	5.533402E-2	5.628831E-2	5.143419E-2	6.460568E-2	6.261174E-2	4.295211E-2	5.190434E-2	7.016476E-2	5.021955E-2	6.452534E-2	4.928523E-2	5.833472E-2	5.459009E-2	4.338705E-2	5.273877E-2	6.995137E-2	5.601474E-2	5.901150E-2
5.336080E+2	8.371191E-2	5.601338E-2	7.641649E-2	8.862960E-2	7.870004E-2	7.509747E-2	6.723288E-2	5.898898E-2	7.779209E-2	7.694748E-2	7.774423E-2	7.918539E-2	6.202541E-2	7.005935E-2	6.359737E-2	8.720806E-2	7.551271E-2	8.334509E-2	7.160345E-2	8.174047E-2	7.283958E-2	8.207796E-2	6.863538E-2	6.439349E-2	9.534593E-2	7.973385E-2	9.137033E-2	8.260622E-2	8.539984E-2	7.869585E-2	8.716864E-2	7.209319E-2	7.783237E-2	8.420777E-2	6.883540E-2	8.907598E-2	7.825926E-2	9.104930E-2	7.898232E-2	7.286077E-2	8.028486E-2	8.185191E-2	7.609985E-2	7.423842E-2	7.637944E-2	5.793133E-2	8.011265E-2	7.973378E-2	8.091621E-2	8.911055E-2	7.534334E-2	9.448453E-2	7.951250E-2	7.402142E-2	8.046470E-2	8.797692E-2	1.021069E-1	6.705397E-2	7.933506E-2	7.921377E-2	8.189173E-2	7.701690E-2	8.956469E-2	8.260516E-2	7.503825E-2	6.363939E-2	8.405328E-2	6.867722E-2	6.979345E-2	7.304610E-2	8.395748E-2	7.254891E-2	7.878510E-2	7.601519E-2	8.035658E-2	8.383666E-2	7.149388E-2	8.174107E-2	7.203272E-2	8.607119E-2	6.895259E-2	8.257001E-2	7.078006E-2	7.929022E-2	9.449314E-2	7.946851E-2	6.405141E-2	7.538198E-2	7.382792E-2	8.369078E-2	6.422934E-2	8.310347E-2	7.251495E-2	9.287023E-2	8.136866E-2	8.623069E-2	7.038702E-2	6.697952E-2	9.299500E-2	7.814967E-2	7.395637E-2	7.974155E-2	7.213063E-2	6.061449E-2	8.641987E-2	8.926460E-2	8.141736E-2	6.907795E-2	9.476378E-2	6.944065E-2	7.707748E-2	7.193842E-2	7.175662E-2	7.490356E-2	6.097902E-2	7.138356E-2	7.987120E-2	8.880596E-2	7.488401E-2	8.501373E-2	7.254606E-2	6.662708E-2	6.808644E-2	6.993013E-2	7.631736E-2	8.271021E-2	7.178532E-2	8.355010E-2	7.912383E-2	7.174315E-2	6.572770E-2	8.263452E-2	8.087145E-2	7.098309E-2	7.747458E-2	6.886421E-2	8.034704E-2	5.365617E-2	7.307484E-2	7.853388E-2	6.654140E-2	7.823168E-2	7.726195E-2	7.718465E-2	8.743633E-2	7.502237E-2	7.577361E-2	7.090367E-2	8.590630E-2	8.009032E-2	8.267820E-2	7.417291E-2	9.207041E-2	6.940601E-2	7.330179E-2	8.596497E-2	5.981361E-2	7.798866E-2	8.145710E-2	7.269404E-2	7.223471E-2	7.468859E-2	7.532830E-2	8.174066E-2	7.555847E-2	7.752279E-2	7.929488E-2	8.278063E-2	8.459899E-2	9.549157E-2
5.337580E+2	1.006243E-1	9.849425E-2	9.669589E-2	9.624320E-2	9.833414E-2	1.006204E-1	9.909208E-2	9.975769E-2	1.019547E-1	1.150633E-1	9.139272E-2	1.087054E-1	9.878378E-2	1.055696E-1	1.100648E-1	1.232449E-1	1.046145E-1	9.764797E-2	1.124908E-1	1.064843E-1	8.538352E-2	1.052896E-1	1.098810E-1	8.598515E-2	1.427428E-1	1.197032E-1	1.125583E-1	1.136818E-1	1.138337E-1	1.268611E-1	1.187763E-1	1.386664E-1	1.168012E-1	1.011896E-1	1.312790E-1	1.106547E-1	1.151222E-1	1.070777E-1	1.453734E-1	1.106696E-1	1.238422E-1	1.103718E-1	1.000472E-1	1.076889E-1	1.263681E-1	1.118432E-1	1.199349E-1	1.163832E-1	1.112586E-1	1.081590E-1	9.159474E-2	1.097243E-1	1.158770E-1	9.641759E-2	9.581281E-2	1.043484E-1	9.430370E-2	1.214863E-1	9.704978E-2	1.285728E-1	1.073656E-1	9.236154E-2	1.039364E-1	1.216732E-1	1.198411E-1	1.161797E-1	1.250526E-1	9.649743E-2	1.125919E-1	9.788426E-2	9.788349E-2	1.122864E-1	1.007274E-1	1.065879E-1	1.211671E-1	1.048135E-1	1.027351E-1	1.091662E-1	1.082881E-1	1.068640E-1	9.928081E-2	1.004750E-1	1.126437E-1	1.021682E-1	1.110067E-1	1.082355E-1	1.025621E-1	1.083666E-1	1.205135E-1	1.152717E-1	9.444352E-2	1.181458E-1	1.086067E-1	1.197888E-1	1.365172E-1	1.007442E-1	1.196515E-1	1.147077E-1	1.013698E-1	1.090358E-1	1.138865E-1	1.278806E-1	1.108389E-1	1.067691E-1	1.218714E-1	9.571309E-2	1.273986E-1	1.169207E-1	1.157735E-1	1.129869E-1	1.027690E-1	1.049035E-1	1.086338E-1	1.031618E-1	9.975628E-2	1.147605E-1	1.016348E-1	1.036477E-1	1.108493E-1	1.064216E-1	1.141679E-1	1.160952E-1	9.903279E-2	1.152675E-1	1.075225E-1	1.077267E-1	1.065403E-1	1.272688E-1	1.048218E-1	1.133935E-1	1.008776E-1	1.231095E-1	1.060704E-1	1.150019E-1	1.209593E-1	1.144640E-1	1.017620E-1	9.082599E-2	1.111548E-1	1.239268E-1	1.138437E-1	1.152816E-1	1.135643E-1	1.054870E-1	8.170279E-2	1.061998E-1	1.191167E-1	1.098388E-1	1.068474E-1	1.058976E-1	1.032014E-1	1.093541E-1	1.127640E-1	1.147592E-1	9.777357E-2	1.123524E-1	9.827963E-2	9.937843E-2	1.063769E-1	1.047267E-1	9.847166E-2	1.112036E-1	1.080725E-1	1.235534E-1	1.062107E-1	9.924417E-2	1.129054E-1	1.238659E-1	8.882998E-2	1.120160E-1
5.339190E+2	1.625611E-1	1.746446E-1	1.782455E-1	1.753065E-1	1.721724E-1	1.429087E-1	1.666169E-1	1.559264E-1	1.723932E-1	1.783878E-1	1.760629E-1	1.768124E-1	1.676940E-1	1.988391E-1	1.765206E-1	1.797157E-1	1.758103E-1	1.786840E-1	1.706248E-1	1.595955E-1	1.794506E-1	1.609306E-1	1.482520E-1	1.820541E-1	2.555751E-1	2.027295E-1	2.023857E-1	2.230106E-1	2.001266E-1	1.901760E-1	2.075069E-1	2.008886E-1	1.906400E-1	1.876702E-1	1.871855E-1	1.879339E-1	2.116157E-1	1.854488E-1	1.910126E-1	1.766991E-1	1.959140E-1	2.061153E-1	1.852645E-1	1.774162E-1	1.833932E-1	2.033808E-1	1.843550E-1	1.834363E-1	1.952154E-1	2.023443E-1	2.010960E-1	1.867136E-1	1.741251E-1	2.041560E-1	1.844438E-1	1.923413E-1	2.033573E-1	1.922280E-1	1.794135E-1	2.078448E-1	1.973326E-1	1.906099E-1	1.809109E-1	1.832538E-1	2.033033E-1	1.803737E-1	1.776479E-1	1.771628E-1	1.751005E-1	1.950630E-1	1.858872E-1	1.845218E-1	1.829068E-1	1.744673E-1	1.759387E-1	1.819346E-1	1.946451E-1	1.834016E-1	1.997449E-1	1.945478E-1	1.820539E-1	1.769242E-1	1.920300E-1	1.689601E-1	1.774502E-1	1.802532E-1	1.900790E-1	1.753691E-1	1.748076E-1	1.758596E-1	1.945138E-1	1.850914E-1	1.770191E-1	1.672206E-1	2.015260E-1	1.739637E-1	1.724477E-1	1.802850E-1	1.903967E-1	1.623251E-1	1.551929E-1	1.911536E-1	1.790984E-1	1.831829E-1	1.829555E-1	1.837612E-1	1.792313E-1	2.138597E-1	1.925887E-1	1.909905E-1	1.890948E-1	1.840727E-1	1.799348E-1	1.871262E-1	1.603371E-1	1.913557E-1	1.879120E-1	1.936226E-1	1.938628E-1	1.810330E-1	1.639047E-1	1.875173E-1	1.750407E-1	1.812963E-1	1.847054E-1	1.857507E-1	1.965178E-1	1.897534E-1	1.802333E-1	1.458859E-1	1.741799E-1	2.171545E-1	1.992393E-1	1.692042E-1	1.902206E-1	1.864483E-1	1.734089E-1	1.816234E-1	1.909448E-1	1.972465E-1	1.819728E-1	1.844912E-1	1.790711E-1	1.992441E-1	1.807551E-1	1.841450E-1	1.733862E-1	1.841306E-1	1.657653E-1	1.692264E-1	1.699447E-1	1.946284E-1	1.906640E-1	1.764184E-1	1.894352E-1	2.015628E-1	2.073458E-1	1.691453E-1	1.816082E-1	1.853945E-1	1.916455E-1	1.918138E-1	1.967193E-1	1.758812E-1	1.807016E-1	1.677117E-1	1.711655E-1	1.784877E-1	2.145998E-1	2.094556E-1
5.340690E+2	2.958999E-1	2.852732E-1	2.791140E-1	2.589682E-1	2.817622E-1	2.807743E-1	2.734045E-1	2.853757E-1	2.883298E-1	2.821052E-1	2.755617E-1	2.934610E-1	2.900696E-1	2.834109E-1	2.695834E-1	2.596279E-1	2.853195E-1	2.690182E-1	2.995513E-1	2.711079E-1	2.743609E-1	3.056921E-1	2.758199E-1	2.986317E-1	3.917630E-1	3.788410E-1	3.349945E-1	3.512307E-1	3.496522E-1	3.375099E-1	3.064330E-1	3.400245E-1	3.108740E-1	3.136617E-1	3.245522E-1	3.157847E-1	3.615492E-1	3.356175E-1	3.200397E-1	2.923624E-1	3.664380E-1	3.356680E-1	3.085546E-1	3.110747E-1	3.329378E-1	3.483335E-1	3.204903E-1	3.142339E-1	3.124326E-1	3.383733E-1	3.015123E-1	3.069016E-1	2.997026E-1	3.235245E-1	3.228121E-1	3.121732E-1	3.161881E-1	3.091768E-1	3.304597E-1	3.027558E-1	3.317654E-1	3.005964E-1	3.174391E-1	2.815275E-1	3.001017E-1	2.912621E-1	3.383163E-1	3.143214E-1	3.269143E-1	3.120472E-1	3.232801E-1	3.088127E-1	3.111188E-1	3.087106E-1	3.080637E-1	2.899371E-1	2.829180E-1	3.320692E-1	3.146068E-1	3.191313E-1	3.158043E-1	3.317133E-1	3.300761E-1	3.169463E-1	3.116173E-1	3.312254E-1	2.940594E-1	3.093687E-1	3.191145E-1	3.016916E-1	3.107838E-1	2.942889E-1	2.842133E-1	3.057228E-1	2.956716E-1	2.908071E-1	3.244811E-1	3.128370E-1	3.118148E-1	3.218460E-1	3.023624E-1	3.293617E-1	2.800835E-1	2.910201E-1	3.109596E-1	3.053063E-1	2.923391E-1	3.095846E-1	3.299017E-1	2.970590E-1	3.268773E-1	3.119646E-1	2.866279E-1	2.983516E-1	2.918357E-1	3.114105E-1	3.037890E-1	3.083448E-1	3.215429E-1	3.319307E-1	2.784646E-1	3.205223E-1	3.017779E-1	3.122421E-1	2.877649E-1	2.857900E-1	2.941945E-1	3.019799E-1	2.790751E-1	3.054035E-1	3.303872E-1	3.122457E-1	3.142242E-1	3.013953E-1	2.726581E-1	3.042625E-1	3.214024E-1	2.967516E-1	3.047715E-1	3.004653E-1	3.030677E-1	2.902310E-1	3.090653E-1	3.304533E-1	3.038211E-1	2.901053E-1	3.001685E-1	3.184554E-1	2.961560E-1	2.986739E-1	3.260889E-1	2.973573E-1	2.972526E-1	3.062336E-1	2.781228E-1	3.409967E-1	3.016937E-1	2.923333E-1	2.758874E-1	2.945775E-1	3.471044E-1	2.612639E-1	2.925544E-1	3.032179E-1	3.202515E-1	3.257189E-1	2.733444E-1	3.269991E-1	3.157965E-1	2.830362E-1
5.342040E+2	4.883232E-1	4.674809E-1	4.492040E-1	4.466081E-1	4.812192E-1	4.922681E-1	4.789148E-1	4.614052E-1	5.102078E-1	4.774630E-1	4.769089E-1	4.771259E-1	4.935250E-1	4.714295E-1	4.824135E-1	5.068165E-1	4.819805E-1	4.712462E-1	4.686789E-1	4.664157E-1	4.857296E-1	4.983135E-1	4.818041E-1	4.938220E-1	6.594948E-1	6.104278E-1	5.935283E-1	5.951477E-1	5.552247E-1	5.463138E-1	5.689817E-1	5.343660E-1	5.145518E-1	5.864661E-1	5.082106E-1	5.619591E-1	5.712589E-1	5.374878E-1	5.489464E-1	5.511771E-1	5.246814E-1	5.131370E-1	5.081619E-1	5.372364E-1	5.248173E-1	5.363664E-1	5.353773E-1	5.282813E-1	5.523813E-1	5.594236E-1	5.529491E-1	5.115390E-1	5.246066E-1	5.329551E-1	5.465116E-1	5.367680E-1	5.314618E-1	5.305409E-1	4.885288E-1	5.190444E-1	5.030820E-1	5.454828E-1	5.155972E-1	5.262843E-1	5.346134E-1	5.334984E-1	5.345538E-1	4.950794E-1	4.981675E-1	5.074809E-1	5.600274E-1	5.239036E-1	5.321807E-1	5.367852E-1	5.273820E-1	5.018809E-1	5.259539E-1	5.090074E-1	5.181547E-1	5.272779E-1	5.157822E-1	5.498550E-1	5.091649E-1	5.275519E-1	5.345751E-1	5.168225E-1	5.082617E-1	4.739096E-1	4.907163E-1	5.008264E-1	5.015018E-1	5.108750E-1	4.748896E-1	5.138933E-1	5.085725E-1	5.032707E-1	5.160697E-1	5.040779E-1	5.050418E-1	5.045454E-1	5.119628E-1	4.833132E-1	5.277446E-1	4.952866E-1	5.150857E-1	4.754665E-1	5.015658E-1	5.208946E-1	5.021383E-1	5.066882E-1	5.066339E-1	5.251392E-1	5.497696E-1	5.274575E-1	4.860777E-1	5.149515E-1	5.234675E-1	5.126003E-1	4.997725E-1	5.108669E-1	5.295586E-1	5.168650E-1	4.946739E-1	5.118433E-1	5.102684E-1	5.073573E-1	4.940842E-1	5.016467E-1	5.153779E-1	5.395709E-1	5.261708E-1	4.892051E-1	5.143129E-1	4.948310E-1	4.821375E-1	5.185671E-1	4.943685E-1	4.988342E-1	4.851125E-1	5.191657E-1	5.310013E-1	4.856941E-1	4.992661E-1	5.213478E-1	5.082877E-1	5.023499E-1	5.228297E-1	5.109725E-1	4.914123E-1	5.225796E-1	5.260616E-1	4.860635E-1	5.300646E-1	4.966938E-1	5.195722E-1	5.329703E-1	5.054200E-1	4.900770E-1	5.242851E-1	5.007417E-1	5.127912E-1	5.178399E-1	4.820121E-1	5.080805E-1	5.173840E-1	5.304140E-1	5.088351E-1	4.905973E-1	5.016133E-1	5.276104E-1
5.343650E+2	8.205734E-1	8.239904E-1	7.902240E-1	8.721151E-1	8.547163E-1	8.096806E-1	8.032583E-1	8.566007E-1	8.298807E-1	8.160886E-1	8.226362E-1	8.202678E-1	8.442760E-1	8.095035E-1	8.413560E-1	8.152537E-1	8.508267E-1	8.562310E-1	8.476135E-1	8.492831E-1	7.914578E-1	8.262058E-1	7.936060E-1	8.092116E-1	1.011636E+0	9.536630E-1	9.429339E-1	9.242901E-1	9.432136E-1	9.389500E-1	9.249117E-1	9.185643E-1	9.116358E-1	9.126425E-1	9.090449E-1	9.441538E-1	9.063440E-1	9.294993E-1	8.987510E-1	9.203778E-1	9.596783E-1	8.471580E-1	8.585108E-1	9.111910E-1	9.530560E-1	9.171641E-1	8.807883E-1	8.687657E-1	8.983835E-1	8.664959E-1	8.560657E-1	8.894182E-1	8.904768E-1	8.865896E-1	8.990838E-1	8.898194E-1	8.603711E-1	8.784320E-1	8.417837E-1	8.950814E-1	9.001792E-1	9.118053E-1	9.250863E-1	8.890955E-1	9.369008E-1	8.460178E-1	8.939758E-1	8.832005E-1	8.693804E-1	8.541502E-1	9.009209E-1	8.741048E-1	8.685115E-1	9.092128E-1	8.555117E-1	8.930481E-1	9.371921E-1	8.829485E-1	8.348833E-1	8.846710E-1	8.524031E-1	8.808769E-1	8.987421E-1	8.529233E-1	9.173365E-1	8.491907E-1	8.403304E-1	8.837863E-1	9.085318E-1	8.378813E-1	8.302721E-1	8.332966E-1	8.464823E-1	8.475993E-1	8.414655E-1	9.296290E-1	8.779075E-1	8.558116E-1	8.788801E-1	8.561330E-1	8.401350E-1	8.470737E-1	9.098105E-1	8.755060E-1	9.064577E-1	8.927385E-1	8.156573E-1	8.771986E-1	8.651292E-1	8.468150E-1	8.692694E-1	8.783263E-1	8.278753E-1	8.736361E-1	8.477132E-1	8.636040E-1	8.877024E-1	8.714588E-1	8.609783E-1	8.943068E-1	8.746185E-1	8.509311E-1	8.948245E-1	8.661855E-1	8.913869E-1	8.282570E-1	8.479313E-1	8.143713E-1	8.609590E-1	8.356176E-1	8.329933E-1	8.742827E-1	8.926485E-1	8.543000E-1	8.603781E-1	8.600498E-1	8.280411E-1	8.611269E-1	8.715838E-1	8.301489E-1	8.590617E-1	8.745530E-1	8.612247E-1	9.162089E-1	9.469947E-1	8.543480E-1	8.481403E-1	8.487941E-1	8.606666E-1	8.830039E-1	8.525269E-1	8.623993E-1	8.439307E-1	9.020336E-1	8.459045E-1	9.036581E-1	8.569834E-1	8.396424E-1	8.655673E-1	8.907797E-1	8.090280E-1	8.336406E-1	8.641246E-1	8.263547E-1	8.539854E-1	8.689095E-1	8.646440E-1	9.145317E-1	8.998591E-1	8.935511E-1
5.345160E+2	1.264970E+0	1.266659E+0	1.229242E+0	1.188511E+0	1.306912E+0	1.228955E+0	1.230329E+0	1.302584E+0	1.267725E+0	1.273086E+0	1.238939E+0	1.320407E+0	1.269751E+0	1.241939E+0	1.253485E+0	1.271956E+0	1.273613E+0	1.287158E+0	1.273940E+0	1.312060E+0	1.252225E+0	1.250319E+0	1.276772E+0	1.260001E+0	1.485714E+0	1.385566E+0	1.336164E+0	1.356757E+0	1.389700E+0	1.340018E+0	1.340601E+0	1.331572E+0	1.351055E+0	1.348958E+0	1.369434E+0	1.303117E+0	1.321960E+0	1.328165E+0	1.288155E+0	1.285976E+0	1.356476E+0	1.299160E+0	1.317345E+0	1.303710E+0	1.338061E+0	1.321957E+0	1.238115E+0	1.332487E+0	1.308082E+0	1.272926E+0	1.338926E+0	1.287328E+0	1.311307E+0	1.331836E+0	1.309163E+0	1.336014E+0	1.312684E+0	1.346239E+0	1.285843E+0	1.377503E+0	1.321704E+0	1.277450E+0	1.305025E+0	1.289028E+0	1.375664E+0	1.295127E+0	1.294346E+0	1.286213E+0	1.297210E+0	1.332082E+0	1.319284E+0	1.316574E+0	1.296179E+0	1.330519E+0	1.283887E+0	1.315005E+0	1.303586E+0	1.296046E+0	1.284264E+0	1.292920E+0	1.345636E+0	1.311025E+0	1.360595E+0	1.281350E+0	1.327651E+0	1.300067E+0	1.267613E+0	1.315687E+0	1.338511E+0	1.308406E+0	1.264107E+0	1.294768E+0	1.343766E+0	1.320122E+0	1.289277E+0	1.298231E+0	1.336813E+0	1.273952E+0	1.292557E+0	1.302544E+0	1.306389E+0	1.271290E+0	1.290121E+0	1.279149E+0	1.306786E+0	1.297901E+0	1.297189E+0	1.304736E+0	1.291591E+0	1.307970E+0	1.278812E+0	1.261784E+0	1.262489E+0	1.280938E+0	1.280140E+0	1.246590E+0	1.269910E+0	1.316616E+0	1.262393E+0	1.250759E+0	1.351267E+0	1.256346E+0	1.204014E+0	1.303930E+0	1.238376E+0	1.301585E+0	1.268316E+0	1.257410E+0	1.347761E+0	1.342535E+0	1.282931E+0	1.281438E+0	1.336170E+0	1.253484E+0	1.309658E+0	1.263149E+0	1.267851E+0	1.279253E+0	1.310602E+0	1.307419E+0	1.267723E+0	1.241404E+0	1.297011E+0	1.302824E+0	1.267904E+0	1.239327E+0	1.253426E+0	1.275130E+0	1.278562E+0	1.313150E+0	1.299693E+0	1.261319E+0	1.310313E+0	1.275214E+0	1.267383E+0	1.297474E+0	1.291769E+0	1.280451E+0	1.301861E+0	1.266495E+0	1.283367E+0	1.276095E+0	1.301431E+0	1.259609E+0	1.324674E+0	1.249628E+0	1.266666E+0	1.305091E+0	1.285218E+0	1.220683E+0
5.346620E+2	1.677811E+0	1.623087E+0	1.598523E+0	1.650440E+0	1.626279E+0	1.655019E+0	1.592018E+0	1.631008E+0	1.614122E+0	1.633457E+0	1.629561E+0	1.603451E+0	1.673944E+0	1.608500E+0	1.672297E+0	1.670363E+0	1.620674E+0	1.683866E+0	1.621963E+0	1.680358E+0	1.627807E+0	1.641722E+0	1.581031E+0	1.572982E+0	1.804147E+0	1.685187E+0	1.691640E+0	1.711994E+0	1.651808E+0	1.702666E+0	1.705721E+0	1.678945E+0	1.693532E+0	1.664330E+0	1.693340E+0	1.686936E+0	1.696785E+0	1.678489E+0	1.719294E+0	1.651110E+0	1.705736E+0	1.672898E+0	1.653892E+0	1.676016E+0	1.621093E+0	1.738127E+0	1.717704E+0	1.665576E+0	1.656192E+0	1.696470E+0	1.650478E+0	1.638686E+0	1.656532E+0	1.688602E+0	1.656302E+0	1.645303E+0	1.653449E+0	1.686927E+0	1.609614E+0	1.651248E+0	1.628332E+0	1.631012E+0	1.645529E+0	1.642087E+0	1.769953E+0	1.606112E+0	1.656132E+0	1.670200E+0	1.663616E+0	1.593585E+0	1.601093E+0	1.653083E+0	1.705528E+0	1.641936E+0	1.642749E+0	1.642268E+0	1.688020E+0	1.623500E+0	1.665769E+0	1.634994E+0	1.662098E+0	1.661880E+0	1.667533E+0	1.658088E+0	1.677450E+0	1.594223E+0	1.602216E+0	1.643338E+0	1.685600E+0	1.636797E+0	1.676153E+0	1.648848E+0	1.633243E+0	1.633141E+0	1.562962E+0	1.623787E+0	1.657140E+0	1.626966E+0	1.589290E+0	1.655728E+0	1.644765E+0	1.645721E+0	1.619229E+0	1.677735E+0	1.707685E+0	1.690918E+0	1.677890E+0	1.652476E+0	1.668304E+0	1.644482E+0	1.625267E+0	1.582614E+0	1.710282E+0	1.626585E+0	1.635683E+0	1.629550E+0	1.643714E+0	1.700730E+0	1.590310E+0	1.650040E+0	1.643836E+0	1.610419E+0	1.587606E+0	1.593851E+0	1.628748E+0	1.599355E+0	1.623022E+0	1.630635E+0	1.632687E+0	1.668946E+0	1.608707E+0	1.599093E+0	1.647709E+0	1.631931E+0	1.675258E+0	1.582076E+0	1.659185E+0	1.666542E+0	1.554187E+0	1.624288E+0	1.604379E+0	1.590902E+0	1.640579E+0	1.579952E+0	1.644530E+0	1.591055E+0	1.568113E+0	1.631458E+0	1.618351E+0	1.653964E+0	1.573148E+0	1.586089E+0	1.618600E+0	1.593041E+0	1.631368E+0	1.635158E+0	1.661166E+0	1.585748E+0	1.684568E+0	1.636432E+0	1.639886E+0	1.586361E+0	1.576488E+0	1.540138E+0	1.627702E+0	1.634084E+0	1.595199E+0	1.610043E+0	1.565415E+0	1.682457E+0
5.348280E+2	2.086831E+0	2.097205E+0	2.049427E+0	1.943522E+0	2.070208E+0	1.999898E+0	1.989386E+0	2.072790E+0	2.066398E+0	2.036733E+0	2.075912E+0	2.016749E+0	2.072165E+0	2.046696E+0	1.944850E+0	2.030976E+0	1.979773E+0	2.059659E+0	2.069380E+0	2.059017E+0	2.038542E+0	2.062691E+0	1.987209E+0	2.050375E+0	2.127821E+0	2.065397E+0	2.044046E+0	2.038919E+0	2.074914E+0	2.077490E+0	2.056290E+0	2.053717E+0	2.032588E+0	2.020213E+0	1.997149E+0	2.093260E+0	2.125430E+0	2.045874E+0	1.980734E+0	1.996684E+0	2.101727E+0	2.080061E+0	1.992157E+0	2.064840E+0	1.996344E+0	2.060539E+0	2.074138E+0	2.040679E+0	2.000688E+0	2.035453E+0	2.027586E+0	2.029081E+0	1.981785E+0	2.019894E+0	2.035064E+0	2.023195E+0	2.065797E+0	2.077075E+0	2.038478E+0	2.040505E+0	1.983652E+0	2.033965E+0	2.013763E+0	1.990313E+0	2.028132E+0	1.939009E+0	2.077899E+0	2.010669E+0	1.991438E+0	2.042660E+0	1.962582E+0	1.975160E+0	2.086288E+0	2.035488E+0	1.961447E+0	2.044596E+0	2.027117E+0	2.006341E+0	1.973756E+0	2.076393E+0	2.038894E+0	2.082069E+0	2.014927E+0	1.991666E+0	2.076705E+0	2.056728E+0	1.946706E+0	1.974160E+0	1.997509E+0	2.018460E+0	2.027866E+0	2.003305E+0	1.994896E+0	1.988831E+0	1.955933E+0	1.955340E+0	2.030398E+0	1.999966E+0	2.011592E+0	2.000151E+0	2.054969E+0	2.010659E+0	2.007822E+0	2.006571E+0	2.081110E+0	1.979959E+0	1.908510E+0	2.016785E+0	2.013078E+0	1.995801E+0	2.004169E+0	2.015241E+0	2.047411E+0	1.976546E+0	1.952263E+0	1.987525E+0	1.986273E+0	2.041576E+0	1.931411E+0	1.959646E+0	1.981799E+0	1.970824E+0	1.939685E+0	2.006779E+0	1.964212E+0	1.913268E+0	1.956592E+0	2.033013E+0	1.991631E+0	2.051846E+0	1.990314E+0	2.049687E+0	1.980506E+0	1.973876E+0	1.959450E+0	1.975143E+0	2.043720E+0	1.985706E+0	1.917384E+0	1.991334E+0	2.004795E+0	1.939557E+0	1.989118E+0	1.955411E+0	2.002469E+0	1.970492E+0	1.957743E+0	1.975150E+0	2.002456E+0	1.981937E+0	1.979497E+0	1.968704E+0	1.950693E+0	1.920539E+0	1.977186E+0	2.047498E+0	2.013463E+0	1.914831E+0	1.959714E+0	1.985535E+0	2.026513E+0	1.972515E+0	1.974992E+0	1.913946E+0	1.986869E+0	1.966145E+0	1.934770E+0	1.929569E+0	2.023054E+0	2.033518E+0
5.349740E+2	2.274295E+0	2.159650E+0	2.149220E+0	2.207976E+0	2.245122E+0	2.208420E+0	2.095511E+0	2.193196E+0	2.195168E+0	2.271575E+0	2.161800E+0	2.225276E+0	2.247699E+0	2.211574E+0	2.166708E+0	2.211363E+0	2.166559E+0	2.228505E+0	2.241554E+0	2.196459E+0	2.151760E+0	2.176308E+0	2.132052E+0	2.178686E+0	2.220557E+0	2.199970E+0	2.110821E+0	2.117805E+0	2.187621E+0	2.219268E+0	2.153914E+0	2.146111E+0	2.186581E+0	2.199638E+0	2.140831E+0	2.224421E+0	2.221246E+0	2.136683E+0	2.141138E+0	2.092463E+0	2.211094E+0	2.143381E+0	2.173500E+0	2.179208E+0	2.166016E+0	2.153697E+0	2.131137E+0	2.152561E+0	2.150941E+0	2.132942E+0	2.110047E+0	2.134181E+0	2.188085E+0	2.185510E+0	2.143230E+0	2.186884E+0	2.151494E+0	2.177800E+0	2.207042E+0	2.186438E+0	2.120365E+0	2.140957E+0	2.132779E+0	2.126104E+0	2.233464E+0	2.062241E+0	2.192218E+0	2.187417E+0	2.112309E+0	2.136152E+0	2.112568E+0	2.136242E+0	2.133216E+0	2.154583E+0	2.169391E+0	2.170720E+0	2.191799E+0	2.169711E+0	2.078528E+0	2.085673E+0	2.173266E+0	2.219093E+0	2.145774E+0	2.162502E+0	2.296971E+0	2.201704E+0	2.179540E+0	2.116898E+0	2.152259E+0	2.128470E+0	2.127024E+0	2.167475E+0	2.163284E+0	2.118871E+0	2.058155E+0	2.145263E+0	2.207370E+0	2.067145E+0	2.107918E+0	2.092755E+0	2.138054E+0	2.059603E+0	2.183136E+0	2.158549E+0	2.239232E+0	2.107211E+0	2.188606E+0	2.146551E+0	2.177767E+0	2.170840E+0	2.099660E+0	2.079363E+0	2.122947E+0	2.099950E+0	2.039848E+0	2.172132E+0	2.106057E+0	2.150744E+0	2.108316E+0	2.165294E+0	2.193038E+0	2.141870E+0	2.113896E+0	2.070396E+0	2.138154E+0	2.158365E+0	2.093549E+0	2.081909E+0	2.128416E+0	2.107500E+0	2.085886E+0	2.095032E+0	2.186249E+0	2.078443E+0	2.115748E+0	2.092960E+0	2.168079E+0	2.145963E+0	2.116823E+0	2.203423E+0	2.087199E+0	2.143754E+0	2.144693E+0	2.129181E+0	2.189554E+0	2.098382E+0	2.055112E+0	1.977255E+0	2.039724E+0	2.154889E+0	2.187630E+0	2.107043E+0	2.180250E+0	2.076096E+0	2.126544E+0	2.125458E+0	2.160742E+0	2.006434E+0	2.068678E+0	2.104765E+0	2.058749E+0	2.055924E+0	2.070187E+0	2.024549E+0	2.075788E+0	2.131095E+0	2.085015E+0	2.072391E+0	2.097854E+0	2.018101E+0
5.351090E+2	2.164061E+0	2.142966E+0	2.050722E+0	2.131124E+0	2.166172E+0	2.184962E+0	2.103202E+0	2.111979E+0	2.114208E+0	2.140857E+0	2.123257E+0	2.102395E+0	2.138654E+0	2.202991E+0	2.134690E+0	2.108456E+0	2.122500E+0	2.158924E+0	2.111571E+0	2.169271E+0	2.116827E+0	2.070862E+0	2.136917E+0	2.135219E+0	2.135450E+0	2.086741E+0	2.026810E+0	2.043497E+0	2.066323E+0	2.094378E+0	2.102709E+0	2.081623E+0	2.104193E+0	2.106252E+0	2.044801E+0	2.068514E+0	2.110217E+0	2.051500E+0	2.063218E+0	2.071217E+0	2.080177E+0	2.116739E+0	2.019522E+0	2.089191E+0	2.145127E+0	1.998329E+0	2.056562E+0	2.050220E+0	2.090798E+0	2.145701E+0	2.023244E+0	2.148525E+0	2.094082E+0	2.103976E+0	2.074328E+0	2.151836E+0	2.118565E+0	2.123337E+0	2.076832E+0	2.071954E+0	2.060589E+0	2.119169E+0	2.124757E+0	2.024856E+0	2.161211E+0	2.073963E+0	2.104840E+0	2.071137E+0	2.053101E+0	2.109973E+0	2.117486E+0	2.067754E+0	2.110193E+0	2.060118E+0	2.043496E+0	2.113467E+0	2.123966E+0	2.114997E+0	2.072675E+0	2.074323E+0	2.067705E+0	2.073258E+0	2.135820E+0	2.098674E+0	2.113697E+0	2.061548E+0	2.004878E+0	2.072776E+0	2.076213E+0	2.081846E+0	2.039378E+0	2.148636E+0	2.053606E+0	2.067130E+0	2.039970E+0	2.074022E+0	2.137225E+0	2.066838E+0	2.054552E+0	2.101163E+0	2.122433E+0	2.018025E+0	2.091404E+0	2.098241E+0	2.100280E+0	2.053063E+0	2.069033E+0	2.079020E+0	2.085830E+0	2.075397E+0	2.048818E+0	2.014058E+0	2.071757E+0	2.067357E+0	2.041196E+0	2.109666E+0	2.117499E+0	2.118854E+0	1.970296E+0	2.058918E+0	2.116846E+0	2.027782E+0	2.123120E+0	1.998404E+0	2.085739E+0	2.058942E+0	1.997350E+0	1.984420E+0	2.053030E+0	2.042159E+0	2.029019E+0	2.026507E+0	2.095403E+0	2.050327E+0	1.987030E+0	2.035027E+0	2.132505E+0	2.073344E+0	1.941549E+0	2.035924E+0	2.023135E+0	2.007060E+0	2.046280E+0	2.082244E+0	2.044203E+0	2.052241E+0	1.950185E+0	2.075441E+0	2.039064E+0	2.091272E+0	2.000027E+0	2.017154E+0	1.974766E+0	1.978565E+0	2.049966E+0	2.055747E+0	2.089478E+0	1.987202E+0	2.022962E+0	2.068481E+0	2.014631E+0	2.077613E+0	2.045157E+0	1.920552E+0	2.026772E+0	2.027344E+0	1.987207E+0	2.140021E+0	2.058396E+0	2.097888E+0
5.352600E+2	1.918111E+0	1.964825E+0	1.887339E+0	1.909440E+0	1.865485E+0	1.907912E+0	1.877003E+0	1.832565E+0	1.828525E+0	1.936437E+0	1.842365E+0	1.877085E+0	1.907239E+0	1.816950E+0	1.806505E+0	1.901775E+0	1.848352E+0	1.975611E+0	1.842272E+0	1.905719E+0	1.784325E+0	1.869731E+0	1.830634E+0	1.888844E+0	1.783254E+0	1.752630E+0	1.811179E+0	1.762080E+0	1.791180E+0	1.833655E+0	1.840948E+0	1.830006E+0	1.801078E+0	1.818315E+0	1.813532E+0	1.815528E+0	1.841570E+0	1.789305E+0	1.806707E+0	1.762221E+0	1.861248E+0	1.890279E+0	1.813531E+0	1.814938E+0	1.812504E+0	1.913847E+0	1.815014E+0	1.800690E+0	1.750922E+0	1.830233E+0	1.837425E+0	1.828646E+0	1.768945E+0	1.839060E+0	1.851093E+0	1.842185E+0	1.895106E+0	1.862388E+0	1.884004E+0	1.868082E+0	1.808293E+0	1.802153E+0	1.835672E+0	1.768930E+0	1.885752E+0	1.815087E+0	1.824805E+0	1.830335E+0	1.821263E+0	1.841878E+0	1.851722E+0	1.832611E+0	1.859088E+0	1.844264E+0	1.809972E+0	1.812692E+0	1.862636E+0	1.831719E+0	1.748677E+0	1.872228E+0	1.866317E+0	1.910258E+0	1.806284E+0	1.822869E+0	1.798022E+0	1.850353E+0	1.802614E+0	1.856720E+0	1.811131E+0	1.790607E+0	1.830496E+0	1.855088E+0	1.783020E+0	1.791413E+0	1.807109E+0	1.818171E+0	1.834659E+0	1.810779E+0	1.819413E+0	1.798413E+0	1.784671E+0	1.789693E+0	1.723086E+0	1.833265E+0	1.934659E+0	1.818666E+0	1.827180E+0	1.851520E+0	1.834573E+0	1.829563E+0	1.766309E+0	1.746900E+0	1.824582E+0	1.803365E+0	1.825867E+0	1.829405E+0	1.779346E+0	1.895531E+0	1.749628E+0	1.768280E+0	1.838396E+0	1.839019E+0	1.782663E+0	1.789490E+0	1.823757E+0	1.877637E+0	1.745899E+0	1.796636E+0	1.799580E+0	1.834254E+0	1.771574E+0	1.827905E+0	1.836712E+0	1.735233E+0	1.801681E+0	1.792174E+0	1.921498E+0	1.861763E+0	1.755707E+0	1.844104E+0	1.859146E+0	1.827609E+0	1.828828E+0	1.817497E+0	1.855495E+0	1.803148E+0	1.758268E+0	1.821603E+0	1.774709E+0	1.853006E+0	1.805778E+0	1.707624E+0	1.846307E+0	1.830235E+0	1.764488E+0	1.741112E+0	1.812127E+0	1.785599E+0	1.748127E+0	1.816852E+0	1.808985E+0	1.771990E+0	1.802948E+0	1.776105E+0	1.806863E+0	1.738404E+0	1.788292E+0	1.825039E+0	1.776044E+0	1.844887E+0
5.354110E+2	1.649062E+0	1.655415E+0	1.575918E+0	1.619218E+0	1.591142E+0	1.592309E+0	1.557020E+0	1.672683E+0	1.576039E+0	1.638708E+0	1.541329E+0	1.607492E+0	1.621027E+0	1.584494E+0	1.597813E+0	1.652710E+0	1.622249E+0	1.702751E+0	1.638580E+0	1.612125E+0	1.529709E+0	1.620360E+0	1.559853E+0	1.594695E+0	1.639589E+0	1.525138E+0	1.560898E+0	1.570263E+0	1.627424E+0	1.608830E+0	1.574556E+0	1.593504E+0	1.551925E+0	1.635372E+0	1.549170E+0	1.639890E+0	1.557299E+0	1.533992E+0	1.558580E+0	1.565886E+0	1.606897E+0	1.573869E+0	1.517234E+0	1.589290E+0	1.606723E+0	1.598241E+0	1.617221E+0	1.567379E+0	1.541345E+0	1.590863E+0	1.615341E+0	1.607435E+0	1.553368E+0	1.581143E+0	1.619915E+0	1.616247E+0	1.565717E+0	1.597682E+0	1.565930E+0	1.627452E+0	1.533474E+0	1.602260E+0	1.559731E+0	1.568201E+0	1.596656E+0	1.560986E+0	1.616327E+0	1.555060E+0	1.526486E+0	1.585800E+0	1.570356E+0	1.577777E+0	1.566919E+0	1.543707E+0	1.606618E+0	1.549330E+0	1.552464E+0	1.553873E+0	1.528868E+0	1.552239E+0	1.632560E+0	1.578049E+0	1.640624E+0	1.601533E+0	1.573113E+0	1.619070E+0	1.550215E+0	1.578103E+0	1.551448E+0	1.579146E+0	1.575807E+0	1.606950E+0	1.599701E+0	1.607598E+0	1.555002E+0	1.597764E+0	1.563864E+0	1.613112E+0	1.608650E+0	1.564426E+0	1.577746E+0	1.526889E+0	1.593956E+0	1.591562E+0	1.603617E+0	1.584095E+0	1.595994E+0	1.554656E+0	1.620371E+0	1.625050E+0	1.516611E+0	1.594177E+0	1.578654E+0	1.567446E+0	1.550060E+0	1.592145E+0	1.637138E+0	1.528861E+0	1.537197E+0	1.553745E+0	1.582549E+0	1.569296E+0	1.511531E+0	1.627454E+0	1.576590E+0	1.629263E+0	1.563373E+0	1.528084E+0	1.572667E+0	1.626393E+0	1.574170E+0	1.603795E+0	1.575244E+0	1.573353E+0	1.600479E+0	1.563589E+0	1.520945E+0	1.550316E+0	1.552675E+0	1.543795E+0	1.616288E+0	1.582253E+0	1.541771E+0	1.634073E+0	1.587323E+0	1.591686E+0	1.543980E+0	1.537190E+0	1.567481E+0	1.602984E+0	1.508616E+0	1.607090E+0	1.604234E+0	1.568552E+0	1.577310E+0	1.604555E+0	1.588818E+0	1.517006E+0	1.549609E+0	1.543568E+0	1.622868E+0	1.539238E+0	1.610015E+0	1.538788E+0	1.582994E+0	1.535322E+0	1.573900E+0	1.610970E+0	1.595423E+0	1.598509E+0
5.355630E+2	1.408328E+0	1.306948E+0	1.380597E+0	1.301686E+0	1.324929E+0	1.353340E+0	1.290185E+0	1.329937E+0	1.352915E+0	1.372532E+0	1.321531E+0	1.330081E+0	1.295515E+0	1.343792E+0	1.306413E+0	1.333279E+0	1.348798E+0	1.354361E+0	1.349412E+0	1.321076E+0	1.298651E+0	1.358473E+0	1.306090E+0	1.313531E+0	1.289872E+0	1.306543E+0	1.258522E+0	1.270118E+0	1.247823E+0	1.309125E+0	1.272487E+0	1.272632E+0	1.369472E+0	1.331310E+0	1.329280E+0	1.285234E+0	1.262674E+0	1.323185E+0	1.291087E+0	1.308825E+0	1.329744E+0	1.297225E+0	1.338161E+0	1.298767E+0	1.333253E+0	1.271044E+0	1.310625E+0	1.327910E+0	1.302933E+0	1.356049E+0	1.274665E+0	1.318683E+0	1.284877E+0	1.322230E+0	1.311017E+0	1.337855E+0	1.327232E+0	1.345185E+0	1.283198E+0	1.318689E+0	1.296569E+0	1.309280E+0	1.317105E+0	1.328125E+0	1.371440E+0	1.292922E+0	1.378311E+0	1.282014E+0	1.332380E+0	1.383944E+0	1.343379E+0	1.274485E+0	1.299714E+0	1.308561E+0	1.358602E+0	1.224907E+0	1.341450E+0	1.333648E+0	1.278745E+0	1.314138E+0	1.331053E+0	1.373985E+0	1.403647E+0	1.363024E+0	1.331955E+0	1.326476E+0	1.244196E+0	1.344178E+0	1.310697E+0	1.287334E+0	1.340575E+0	1.352845E+0	1.356617E+0	1.355734E+0	1.288775E+0	1.298003E+0	1.303830E+0	1.325831E+0	1.370279E+0	1.339184E+0	1.291409E+0	1.351975E+0	1.292928E+0	1.327268E+0	1.378303E+0	1.364011E+0	1.357822E+0	1.314977E+0	1.355699E+0	1.311279E+0	1.292484E+0	1.321003E+0	1.327009E+0	1.339282E+0	1.286479E+0	1.353559E+0	1.299721E+0	1.330767E+0	1.282841E+0	1.334501E+0	1.362113E+0	1.356665E+0	1.294094E+0	1.308248E+0	1.312443E+0	1.340091E+0	1.306623E+0	1.298626E+0	1.311601E+0	1.386671E+0	1.322447E+0	1.263092E+0	1.288192E+0	1.332761E+0	1.338782E+0	1.260568E+0	1.357320E+0	1.287154E+0	1.312192E+0	1.294206E+0	1.312474E+0	1.281767E+0	1.344940E+0	1.277726E+0	1.327025E+0	1.274399E+0	1.339361E+0	1.316223E+0	1.289431E+0	1.274340E+0	1.293223E+0	1.309396E+0	1.328470E+0	1.280356E+0	1.310694E+0	1.295668E+0	1.299098E+0	1.282417E+0	1.342940E+0	1.280685E+0	1.305070E+0	1.284362E+0	1.353006E+0	1.339209E+0	1.370097E+0	1.343261E+0	1.260589E+0	1.329578E+0	1.279278E+0	1.290154E+0
5.357190E+2	1.189804E+0	1.162904E+0	1.148687E+0	1.196053E+0	1.178874E+0	1.186941E+0	1.173174E+0	1.162672E+0	1.171133E+0	1.219046E+0	1.125994E+0	1.124557E+0	1.166602E+0	1.180429E+0	1.161378E+0	1.143208E+0	1.130100E+0	1.187834E+0	1.144304E+0	1.186950E+0	1.147700E+0	1.134992E+0	1.158805E+0	1.176152E+0	1.184988E+0	1.125856E+0	1.104680E+0	1.148154E+0	1.128798E+0	1.176100E+0	1.169668E+0	1.174203E+0	1.130358E+0	1.202296E+0	1.145393E+0	1.155757E+0	1.156623E+0	1.126503E+0	1.151511E+0	1.184979E+0	1.163817E+0	1.133751E+0	1.169159E+0	1.187909E+0	1.129160E+0	1.175811E+0	1.137560E+0	1.149580E+0	1.102048E+0	1.167994E+0	1.173456E+0	1.166561E+0	1.124380E+0	1.156473E+0	1.136700E+0	1.158316E+0	1.189729E+0	1.165242E+0	1.182881E+0	1.138885E+0	1.154783E+0	1.167208E+0	1.186692E+0	1.132421E+0	1.161613E+0	1.127879E+0	1.222235E+0	1.156940E+0	1.134972E+0	1.178015E+0	1.163603E+0	1.176540E+0	1.203200E+0	1.163425E+0	1.206617E+0	1.133219E+0	1.125600E+0	1.139398E+0	1.122067E+0	1.145212E+0	1.154829E+0	1.166875E+0	1.171456E+0	1.158386E+0	1.141778E+0	1.164370E+0	1.188557E+0	1.085666E+0	1.158380E+0	1.190990E+0	1.207579E+0	1.158200E+0	1.142751E+0	1.161308E+0	1.118623E+0	1.151581E+0	1.143597E+0	1.162576E+0	1.149382E+0	1.135618E+0	1.160943E+0	1.128672E+0	1.194242E+0	1.159096E+0	1.145440E+0	1.177353E+0	1.123466E+0	1.103913E+0	1.231708E+0	1.156707E+0	1.100900E+0	1.152344E+0	1.141406E+0	1.193977E+0	1.124465E+0	1.163377E+0	1.155355E+0	1.206855E+0	1.124265E+0	1.143639E+0	1.122907E+0	1.186226E+0	1.116915E+0	1.138850E+0	1.134722E+0	1.156259E+0	1.156181E+0	1.123499E+0	1.178378E+0	1.140619E+0	1.129360E+0	1.108682E+0	1.156692E+0	1.172545E+0	1.143491E+0	1.174484E+0	1.165442E+0	1.114879E+0	1.117264E+0	1.136791E+0	1.174097E+0	1.098303E+0	1.206404E+0	1.157940E+0	1.136032E+0	1.139184E+0	1.154560E+0	1.115538E+0	1.142710E+0	1.196507E+0	1.171222E+0	1.204097E+0	1.107058E+0	1.181314E+0	1.153238E+0	1.122203E+0	1.158499E+0	1.126647E+0	1.128622E+0	1.152177E+0	1.128606E+0	1.137347E+0	1.146560E+0	1.137081E+0	1.133203E+0	1.165585E+0	1.136172E+0	1.176459E+0	1.182936E+0	1.196372E+0
5.358650E+2	1.037958E+0	9.991930E-1	9.599461E-1	9.568952E-1	1.001978E+0	1.003607E+0	9.913351E-1	1.001799E+0	9.586883E-1	1.072117E+0	1.007676E+0	1.008881E+0	9.458050E-1	1.021153E+0	9.400091E-1	1.005125E+0	1.000849E+0	1.039658E+0	9.997315E-1	9.730593E-1	1.000763E+0	9.506472E-1	9.738357E-1	1.002093E+0	9.856084E-1	1.001487E+0	9.454942E-1	1.005525E+0	1.001235E+0	1.000012E+0	9.720488E-1	9.825897E-1	9.677814E-1	1.019278E+0	9.819289E-1	1.002791E+0	9.904622E-1	1.033171E+0	9.626006E-1	9.275408E-1	9.897176E-1	9.805485E-1	9.861467E-1	1.011274E+0	9.753259E-1	1.018663E+0	1.008677E+0	9.652312E-1	9.741418E-1	1.013254E+0	1.029674E+0	9.422720E-1	9.586245E-1	9.909243E-1	9.581804E-1	9.742404E-1	1.018481E+0	1.014087E+0	1.030957E+0	1.027749E+0	9.979201E-1	9.962409E-1	1.033900E+0	9.839138E-1	9.949642E-1	1.002503E+0	1.050265E+0	1.026897E+0	1.009831E+0	1.017296E+0	1.049850E+0	9.842707E-1	9.814862E-1	9.674097E-1	1.023108E+0	9.493271E-1	9.571290E-1	1.042867E+0	9.764834E-1	9.912343E-1	9.794840E-1	1.023499E+0	9.688310E-1	9.633726E-1	9.981169E-1	9.821230E-1	9.972821E-1	9.858312E-1	9.719058E-1	1.017276E+0	1.004252E+0	9.749650E-1	9.665919E-1	9.909424E-1	9.761928E-1	9.721523E-1	9.914098E-1	9.691460E-1	1.037638E+0	1.007107E+0	9.829209E-1	1.001319E+0	9.523628E-1	1.014561E+0	1.030569E+0	9.962719E-1	9.998602E-1	9.694289E-1	9.858131E-1	1.009237E+0	9.948025E-1	9.683284E-1	1.005670E+0	1.020992E+0	9.468863E-1	1.021493E+0	9.789153E-1	1.011292E+0	9.762429E-1	9.908030E-1	1.002763E+0	9.917803E-1	9.753658E-1	1.006948E+0	9.509193E-1	1.040128E+0	1.003522E+0	9.620471E-1	9.728248E-1	1.002246E+0	1.077262E+0	1.049640E+0	1.041473E+0	1.007609E+0	9.696871E-1	9.793045E-1	1.039758E+0	1.002130E+0	9.773176E-1	1.023616E+0	9.722346E-1	9.629578E-1	1.025854E+0	1.015098E+0	1.008087E+0	1.012812E+0	9.931275E-1	9.954246E-1	9.944242E-1	9.977099E-1	9.961450E-1	9.962669E-1	1.033337E+0	9.709064E-1	9.973806E-1	1.054542E+0	9.728017E-1	9.861581E-1	9.722700E-1	9.625135E-1	9.958100E-1	9.948967E-1	9.887472E-1	9.838232E-1	1.072178E+0	9.709819E-1	1.002032E+0	1.027123E+0	9.831097E-1	1.015226E+0
5.360120E+2	8.411298E-1	8.348485E-1	8.238718E-1	8.589124E-1	8.401904E-1	8.692676E-1	8.168344E-1	7.643387E-1	8.101561E-1	8.362077E-1	7.945319E-1	8.145606E-1	8.358621E-1	8.416063E-1	8.424162E-1	8.382873E-1	8.451010E-1	8.514462E-1	8.446607E-1	8.873031E-1	8.395253E-1	8.577361E-1	8.028724E-1	8.310940E-1	8.658316E-1	8.684508E-1	8.137295E-1	8.309676E-1	8.528185E-1	8.321428E-1	8.514473E-1	8.438674E-1	8.371648E-1	8.388178E-1	8.288995E-1	8.294085E-1	8.559200E-1	8.306146E-1	8.077560E-1	8.292833E-1	8.488991E-1	8.521161E-1	8.365834E-1	8.620656E-1	8.647877E-1	8.113548E-1	8.421064E-1	8.160991E-1	8.090473E-1	8.263389E-1	7.801531E-1	7.880216E-1	8.115514E-1	8.587715E-1	8.625405E-1	8.490167E-1	8.427978E-1	8.590930E-1	8.286348E-1	8.547045E-1	8.288363E-1	8.556322E-1	8.693090E-1	8.288150E-1	8.543357E-1	8.183845E-1	8.386315E-1	8.529756E-1	8.133614E-1	8.392653E-1	8.314350E-1	8.537424E-1	8.230651E-1	8.064971E-1	8.939056E-1	8.301810E-1	8.418276E-1	8.821299E-1	8.258999E-1	8.371595E-1	8.125948E-1	8.630487E-1	8.808675E-1	8.072808E-1	8.611584E-1	8.831436E-1	7.722642E-1	8.497440E-1	8.409911E-1	8.685826E-1	7.941446E-1	8.684022E-1	8.393360E-1	8.215962E-1	8.392347E-1	8.444816E-1	8.679727E-1	8.291909E-1	8.514894E-1	8.209812E-1	8.495898E-1	8.424267E-1	8.156082E-1	8.178203E-1	8.646594E-1	8.102082E-1	8.469230E-1	8.535221E-1	8.652170E-1	8.721258E-1	7.998718E-1	8.329960E-1	8.403102E-1	8.640789E-1	8.169739E-1	8.486970E-1	8.292192E-1	8.352268E-1	8.327331E-1	8.332497E-1	8.372411E-1	8.683685E-1	8.654028E-1	8.299202E-1	8.481599E-1	8.666553E-1	8.713068E-1	8.410944E-1	8.178349E-1	8.673659E-1	8.306034E-1	8.375845E-1	8.483171E-1	8.522372E-1	8.381396E-1	8.196606E-1	7.990470E-1	8.397622E-1	8.532164E-1	8.667387E-1	8.380129E-1	8.500719E-1	8.635456E-1	8.600635E-1	8.279489E-1	8.468510E-1	8.511365E-1	8.363278E-1	8.218605E-1	8.748721E-1	8.685716E-1	8.458562E-1	7.914652E-1	8.514457E-1	8.159895E-1	8.626695E-1	8.687709E-1	8.416976E-1	8.427537E-1	8.503846E-1	8.723869E-1	8.048344E-1	8.975203E-1	8.207597E-1	8.257048E-1	8.608556E-1	8.432927E-1	8.722024E-1	8.093663E-1	8.352835E-1
5.362730E+2	6.920109E-1	5.944623E-1	6.329223E-1	6.120217E-1	6.149908E-1	6.084868E-1	6.446510E-1	6.231793E-1	6.468198E-1	6.223994E-1	5.914144E-1	6.248402E-1	6.693693E-1	6.230301E-1	6.372240E-1	6.370442E-1	6.044543E-1	6.608788E-1	6.219805E-1	6.376221E-1	6.186324E-1	6.032320E-1	6.142998E-1	6.079251E-1	6.798813E-1	6.635567E-1	6.451478E-1	6.342062E-1	6.555376E-1	6.634600E-1	6.582516E-1	6.156990E-1	6.199837E-1	6.507430E-1	5.978926E-1	6.507967E-1	6.018018E-1	6.133381E-1	6.026613E-1	6.041390E-1	5.945114E-1	6.756270E-1	6.246900E-1	6.265396E-1	6.425821E-1	6.426646E-1	6.394561E-1	5.930276E-1	5.903241E-1	6.659027E-1	6.534667E-1	6.357662E-1	6.260860E-1	6.494204E-1	6.122678E-1	6.585172E-1	6.368634E-1	6.123628E-1	6.411920E-1	6.116546E-1	6.352236E-1	6.534338E-1	6.255083E-1	6.260844E-1	6.841686E-1	6.291699E-1	6.454670E-1	5.791963E-1	6.246322E-1	6.467055E-1	5.925007E-1	6.269173E-1	6.744664E-1	6.139728E-1	6.459847E-1	6.574497E-1	6.565203E-1	6.502674E-1	6.180495E-1	6.330204E-1	6.092444E-1	6.709678E-1	6.701852E-1	6.251719E-1	6.279309E-1	6.296595E-1	6.100531E-1	6.274273E-1	6.403969E-1	6.475391E-1	6.100693E-1	6.372714E-1	6.307061E-1	6.589006E-1	6.043748E-1	6.102440E-1	6.171388E-1	6.380212E-1	5.961957E-1	6.500649E-1	6.507022E-1	6.117676E-1	6.201760E-1	6.576418E-1	6.389947E-1	6.529623E-1	6.517534E-1	6.758808E-1	6.305924E-1	6.523596E-1	6.309006E-1	6.541456E-1	5.755990E-1	6.053522E-1	6.056269E-1	6.310596E-1	6.431927E-1	6.788299E-1	6.242452E-1	6.543954E-1	6.494290E-1	6.331229E-1	6.065249E-1	6.806980E-1	6.284813E-1	6.243302E-1	6.189995E-1	6.146880E-1	6.493260E-1	6.461529E-1	6.369680E-1	6.792351E-1	6.474521E-1	6.741668E-1	6.427217E-1	6.240777E-1	6.560097E-1	6.206151E-1	6.377601E-1	6.182675E-1	6.692034E-1	6.490832E-1	6.529438E-1	6.480465E-1	6.287264E-1	6.261273E-1	6.605780E-1	6.779937E-1	6.313643E-1	6.641883E-1	6.335595E-1	6.640315E-1	6.406167E-1	6.414391E-1	6.317914E-1	6.442199E-1	6.339716E-1	6.393823E-1	6.192837E-1	6.516385E-1	6.397939E-1	6.175270E-1	6.327880E-1	6.334366E-1	6.309109E-1	6.326967E-1	5.953102E-1	6.936970E-1	6.233979E-1	6.878490E-1
5.365140E+2	5.515101E-1	5.343287E-1	5.519516E-1	5.405300E-1	5.455562E-1	5.374321E-1	5.243030E-1	5.318304E-1	5.657134E-1	5.237435E-1	5.894040E-1	5.821745E-1	5.390302E-1	5.531448E-1	5.573475E-1	5.666742E-1	5.453754E-1	5.420524E-1	5.589309E-1	5.563911E-1	5.568271E-1	5.481588E-1	5.259671E-1	5.580531E-1	5.563355E-1	5.724197E-1	5.427117E-1	5.650763E-1	5.582844E-1	5.507426E-1	5.314230E-1	5.781792E-1	5.542188E-1	5.441427E-1	5.611649E-1	5.199344E-1	5.478488E-1	5.721786E-1	5.578839E-1	5.246682E-1	5.497352E-1	5.307477E-1	5.585755E-1	5.358435E-1	5.798748E-1	5.407574E-1	5.806565E-1	5.486454E-1	5.633932E-1	5.758145E-1	5.661877E-1	5.741066E-1	5.560287E-1	5.314978E-1	5.458268E-1	5.662837E-1	5.510985E-1	5.866448E-1	5.542182E-1	5.778672E-1	5.583781E-1	5.461409E-1	5.374155E-1	5.927671E-1	5.944015E-1	5.355617E-1	5.329398E-1	5.441741E-1	5.282136E-1	5.836074E-1	5.507621E-1	5.551642E-1	5.514840E-1	5.552286E-1	5.207118E-1	5.346797E-1	5.705252E-1	5.323279E-1	5.517125E-1	5.869139E-1	5.347433E-1	5.727475E-1	5.969766E-1	5.572631E-1	5.495353E-1	5.632974E-1	5.260223E-1	5.646259E-1	5.550534E-1	5.654446E-1	5.765466E-1	5.731096E-1	5.393787E-1	5.556733E-1	5.574799E-1	5.477053E-1	5.437327E-1	5.815071E-1	5.450468E-1	5.313714E-1	5.476104E-1	5.540694E-1	5.565134E-1	5.222765E-1	5.621687E-1	5.647907E-1	5.448051E-1	5.469591E-1	5.602847E-1	5.425940E-1	5.414259E-1	5.463156E-1	5.458323E-1	5.626749E-1	5.335339E-1	5.609880E-1	5.287419E-1	5.862282E-1	5.351712E-1	5.420719E-1	5.561351E-1	5.183419E-1	5.430053E-1	5.602234E-1	5.077135E-1	5.437539E-1	5.486067E-1	5.549012E-1	5.289331E-1	5.981489E-1	5.259343E-1	5.552929E-1	5.727308E-1	5.902106E-1	5.637194E-1	5.442630E-1	5.779093E-1	5.283886E-1	5.333665E-1	5.613401E-1	5.355412E-1	5.293736E-1	5.649350E-1	5.364220E-1	5.565517E-1	5.766934E-1	5.419000E-1	5.453464E-1	5.619518E-1	5.486436E-1	5.270287E-1	5.607878E-1	5.533505E-1	5.426134E-1	5.568988E-1	5.732223E-1	5.653670E-1	5.443489E-1	5.571538E-1	5.406556E-1	5.613961E-1	5.487620E-1	5.898753E-1	5.695047E-1	5.750128E-1	5.536482E-1	5.326887E-1	5.767779E-1	5.622633E-1	6.225725E-1
5.367710E+2	5.506552E-1	5.105822E-1	5.321269E-1	5.404226E-1	4.912536E-1	5.584558E-1	5.341646E-1	5.414505E-1	5.039902E-1	5.500831E-1	5.580176E-1	5.398695E-1	5.566294E-1	5.765373E-1	5.526622E-1	5.422711E-1	5.568587E-1	5.339640E-1	5.442402E-1	5.105666E-1	5.210955E-1	5.059564E-1	5.541981E-1	5.365955E-1	5.534828E-1	5.521219E-1	5.337301E-1	5.562156E-1	5.537901E-1	5.062814E-1	5.715634E-1	5.623756E-1	5.459361E-1	5.564225E-1	5.625798E-1	5.779733E-1	5.636782E-1	5.381789E-1	5.466243E-1	5.537995E-1	5.787656E-1	5.787773E-1	5.646246E-1	5.221842E-1	5.976439E-1	5.845566E-1	5.269736E-1	5.474657E-1	5.507488E-1	5.401881E-1	5.261200E-1	5.562353E-1	5.357397E-1	5.466335E-1	5.810749E-1	5.487899E-1	5.461021E-1	5.682081E-1	5.539966E-1	5.699403E-1	5.854395E-1	5.565911E-1	5.922291E-1	5.341565E-1	6.050706E-1	5.225584E-1	5.518303E-1	5.346353E-1	5.187051E-1	5.492952E-1	5.570721E-1	5.316002E-1	5.467518E-1	5.731668E-1	5.573369E-1	5.454470E-1	5.682201E-1	5.502050E-1	5.373680E-1	5.357503E-1	5.603180E-1	5.170812E-1	5.601339E-1	5.351097E-1	5.579146E-1	5.339256E-1	5.708471E-1	5.765009E-1	5.200474E-1	5.155021E-1	5.540456E-1	5.286346E-1	5.131343E-1	5.673663E-1	4.922077E-1	5.685387E-1	5.359302E-1	5.785914E-1	5.560433E-1	5.397387E-1	5.199762E-1	5.674417E-1	5.551514E-1	5.313423E-1	5.604567E-1	5.414888E-1	5.795887E-1	5.291743E-1	5.882245E-1	5.538806E-1	5.611018E-1	5.297487E-1	5.395496E-1	5.248428E-1	5.165336E-1	5.478210E-1	5.339560E-1	5.519069E-1	5.538231E-1	5.400364E-1	5.191526E-1	5.473579E-1	5.258270E-1	5.599105E-1	5.454753E-1	5.504855E-1	5.705172E-1	5.589807E-1	5.539594E-1	5.923350E-1	5.575599E-1	5.859476E-1	5.887977E-1	5.814321E-1	5.582751E-1	5.259409E-1	5.431144E-1	5.570770E-1	5.828596E-1	5.297450E-1	5.360196E-1	5.588904E-1	5.559522E-1	5.429354E-1	5.521558E-1	5.102348E-1	5.492881E-1	5.542559E-1	5.100143E-1	5.380593E-1	5.459055E-1	5.406748E-1	5.702339E-1	5.699455E-1	5.569764E-1	5.581336E-1	5.333287E-1	5.216238E-1	5.561338E-1	5.681495E-1	5.505380E-1	5.415500E-1	5.483348E-1	5.424001E-1	5.660994E-1	5.556683E-1	5.326529E-1	5.783489E-1	5.339332E-1	5.585948E-1
5.370010E+2	5.658803E-1	5.520438E-1	5.504350E-1	5.747603E-1	5.549046E-1	5.644070E-1	5.773777E-1	5.728642E-1	5.332029E-1	5.312169E-1	5.493493E-1	5.851268E-1	5.771990E-1	5.680062E-1	5.551006E-1	5.681942E-1	5.657511E-1	5.848615E-1	5.509570E-1	5.506107E-1	5.493398E-1	5.431741E-1	5.361936E-1	5.639502E-1	5.837048E-1	5.988648E-1	5.627649E-1	5.768520E-1	5.682765E-1	5.805001E-1	6.037033E-1	5.717701E-1	5.818812E-1	6.030353E-1	5.558277E-1	5.805690E-1	5.558265E-1	5.798208E-1	5.870992E-1	5.852530E-1	5.729465E-1	6.525788E-1	5.844368E-1	5.414706E-1	5.758006E-1	5.979374E-1	5.533883E-1	6.015696E-1	5.637361E-1	5.764391E-1	5.586076E-1	5.904923E-1	5.551128E-1	5.565428E-1	5.720501E-1	5.606432E-1	5.861217E-1	5.995367E-1	5.784536E-1	5.382635E-1	5.848223E-1	5.189758E-1	6.194311E-1	5.624341E-1	5.681561E-1	5.370416E-1	5.902658E-1	5.710551E-1	5.596924E-1	5.922655E-1	5.673227E-1	5.650615E-1	5.702902E-1	5.895621E-1	5.736806E-1	5.450649E-1	5.878397E-1	5.853849E-1	5.343860E-1	5.716741E-1	5.859318E-1	5.622761E-1	5.748224E-1	5.799374E-1	5.742547E-1	5.822325E-1	5.665771E-1	5.910254E-1	5.968075E-1	5.426591E-1	5.774042E-1	5.820949E-1	5.967640E-1	5.920693E-1	5.663691E-1	5.229663E-1	5.636400E-1	6.073397E-1	5.656360E-1	5.765078E-1	5.700616E-1	5.651490E-1	5.934446E-1	6.210302E-1	5.486562E-1	5.614446E-1	5.639180E-1	5.774152E-1	5.449564E-1	5.887700E-1	5.456584E-1	5.641476E-1	5.635939E-1	5.545571E-1	5.857246E-1	5.882751E-1	5.937368E-1	5.649285E-1	5.854597E-1	5.793342E-1	5.751305E-1	5.902179E-1	5.191871E-1	5.903107E-1	6.111344E-1	5.686953E-1	5.795260E-1	5.522845E-1	5.724944E-1	5.850702E-1	5.523545E-1	5.678696E-1	6.064415E-1	5.539135E-1	5.769407E-1	5.671364E-1	5.636001E-1	5.790300E-1	5.570599E-1	5.730888E-1	5.393374E-1	5.677527E-1	5.777807E-1	5.644155E-1	5.668807E-1	5.638821E-1	5.526255E-1	5.945733E-1	5.756034E-1	5.425773E-1	5.612181E-1	5.652747E-1	5.762810E-1	5.572019E-1	5.589165E-1	5.797523E-1	5.680988E-1	5.678983E-1	5.480082E-1	5.933915E-1	5.826732E-1	5.337339E-1	5.564083E-1	5.809669E-1	5.582918E-1	5.437073E-1	5.685387E-1	5.792655E-1	5.616353E-1	6.001877E-1
5.372640E+2	6.898956E-1	6.636138E-1	6.614034E-1	6.512991E-1	6.570385E-1	6.329794E-1	6.422402E-1	6.498547E-1	6.745663E-1	6.678875E-1	6.848283E-1	6.851479E-1	6.735500E-1	6.472901E-1	6.419721E-1	6.694357E-1	6.802089E-1	6.611994E-1	6.344869E-1	6.662353E-1	6.808411E-1	6.482114E-1	6.318479E-1	6.630602E-1	7.270215E-1	6.566391E-1	6.720464E-1	6.637230E-1	6.995336E-1	6.787828E-1	6.718503E-1	6.473467E-1	6.630814E-1	6.962145E-1	6.733924E-1	6.603326E-1	6.971962E-1	6.757316E-1	6.367655E-1	6.500205E-1	6.873966E-1	6.754537E-1	6.661540E-1	6.759025E-1	6.842123E-1	6.649473E-1	6.669175E-1	6.689982E-1	6.175595E-1	7.040178E-1	6.707318E-1	6.494865E-1	6.974472E-1	6.506671E-1	6.348586E-1	6.672857E-1	6.727910E-1	6.541724E-1	6.481517E-1	6.766457E-1	6.940953E-1	6.757290E-1	6.988415E-1	6.755354E-1	6.637963E-1	6.689662E-1	6.465196E-1	6.680376E-1	6.945806E-1	6.513138E-1	6.688214E-1	6.830766E-1	6.965319E-1	6.656499E-1	6.586848E-1	6.429842E-1	6.620635E-1	7.045835E-1	6.833197E-1	6.594218E-1	6.706126E-1	6.892840E-1	6.735846E-1	6.315476E-1	6.458532E-1	6.927859E-1	6.728636E-1	6.930675E-1	6.677221E-1	6.513456E-1	6.686169E-1	6.773145E-1	6.661256E-1	7.011404E-1	6.741473E-1	6.728938E-1	7.066007E-1	6.982842E-1	6.827476E-1	6.637159E-1	6.573426E-1	6.245099E-1	6.656844E-1	6.873058E-1	6.732406E-1	6.657785E-1	7.239315E-1	6.781604E-1	6.738594E-1	6.293611E-1	6.584604E-1	6.529870E-1	6.270795E-1	7.000763E-1	6.430814E-1	7.124034E-1	6.883811E-1	7.035492E-1	6.828539E-1	6.421969E-1	7.363394E-1	6.583192E-1	6.691097E-1	6.508823E-1	6.453301E-1	6.779174E-1	6.719092E-1	6.735546E-1	6.594076E-1	6.628965E-1	6.526325E-1	6.714543E-1	6.937055E-1	6.719386E-1	6.521086E-1	6.753263E-1	6.693244E-1	6.630427E-1	6.519543E-1	6.873256E-1	6.653788E-1	7.046788E-1	6.625132E-1	6.787370E-1	7.015450E-1	6.697246E-1	6.942568E-1	6.372805E-1	6.705464E-1	6.868000E-1	6.345248E-1	6.600785E-1	6.633695E-1	6.538831E-1	6.898110E-1	6.848906E-1	6.979770E-1	6.775288E-1	6.357571E-1	6.830846E-1	6.556073E-1	6.221479E-1	7.011154E-1	6.731823E-1	6.667659E-1	6.798950E-1	6.828476E-1	6.927733E-1	6.451852E-1	6.896879E-1
5.375160E+2	8.520838E-1	7.503487E-1	7.497802E-1	7.854981E-1	7.937222E-1	7.615683E-1	7.528718E-1	7.852372E-1	7.972248E-1	7.948527E-1	7.547899E-1	7.686399E-1	7.394955E-1	7.826216E-1	7.786331E-1	7.628473E-1	7.796758E-1	7.685748E-1	7.516344E-1	7.657567E-1	7.495740E-1	7.447128E-1	7.447128E-1	7.515722E-1	8.574514E-1	8.045574E-1	7.856893E-1	8.094025E-1	8.239279E-1	7.920913E-1	7.933307E-1	7.939859E-1	7.759129E-1	7.988230E-1	8.160917E-1	7.459100E-1	7.843956E-1	7.957346E-1	7.823113E-1	7.824894E-1	7.930899E-1	7.782489E-1	7.647855E-1	7.479220E-1	7.953559E-1	7.589437E-1	7.406052E-1	7.586592E-1	7.573625E-1	8.212869E-1	7.688300E-1	7.724005E-1	7.712419E-1	7.674511E-1	8.001809E-1	8.393574E-1	7.846715E-1	8.025256E-1	7.506246E-1	8.238698E-1	8.210733E-1	7.651385E-1	7.606718E-1	7.954842E-1	8.253432E-1	7.675671E-1	7.768235E-1	7.736489E-1	7.857681E-1	7.988129E-1	8.010423E-1	7.697408E-1	8.043393E-1	7.674481E-1	7.531154E-1	7.441867E-1	7.547499E-1	7.710833E-1	7.841571E-1	8.060358E-1	7.740983E-1	8.154106E-1	7.780787E-1	7.588121E-1	7.757584E-1	7.851478E-1	7.649009E-1	7.476442E-1	8.100180E-1	7.855142E-1	7.664433E-1	7.913422E-1	7.685541E-1	7.739257E-1	7.815645E-1	7.629060E-1	7.517955E-1	7.771246E-1	7.900070E-1	7.690421E-1	7.966074E-1	7.847045E-1	8.013071E-1	7.988370E-1	7.637573E-1	7.577927E-1	7.951476E-1	7.829448E-1	8.355669E-1	7.822122E-1	7.930206E-1	8.130124E-1	7.761230E-1	7.778793E-1	7.826597E-1	8.027251E-1	7.546209E-1	7.763555E-1	7.767818E-1	7.858570E-1	8.044952E-1	7.636897E-1	7.474038E-1	7.823694E-1	7.720257E-1	7.821808E-1	7.631494E-1	8.023829E-1	7.839635E-1	8.115870E-1	8.344946E-1	7.863434E-1	7.814613E-1	7.562217E-1	7.869836E-1	7.823474E-1	7.718852E-1	7.405707E-1	7.499255E-1	7.960672E-1	7.687999E-1	7.421958E-1	7.997593E-1	8.006039E-1	7.945541E-1	7.900221E-1	7.841360E-1	7.733973E-1	7.864026E-1	7.909748E-1	8.062970E-1	7.475132E-1	7.670791E-1	7.722432E-1	8.046365E-1	8.129625E-1	7.764258E-1	7.478168E-1	8.061992E-1	7.686532E-1	7.688782E-1	8.122322E-1	8.054635E-1	7.520381E-1	7.578643E-1	8.068134E-1	7.846380E-1	7.858112E-1	7.779332E-1	7.716008E-1
5.377580E+2	8.533057E-1	8.225629E-1	8.966412E-1	8.495169E-1	9.284389E-1	8.868541E-1	8.847268E-1	8.577807E-1	8.773461E-1	8.923887E-1	8.575930E-1	8.721381E-1	8.620562E-1	9.201604E-1	8.438311E-1	8.910735E-1	9.108199E-1	8.169809E-1	8.482085E-1	9.190978E-1	8.818227E-1	8.857146E-1	8.955536E-1	8.589583E-1	8.821911E-1	9.200796E-1	8.699135E-1	8.455385E-1	8.771548E-1	8.590885E-1	9.233610E-1	8.668033E-1	8.774609E-1	9.356644E-1	9.039498E-1	8.599042E-1	8.893753E-1	8.810524E-1	8.978731E-1	9.057839E-1	8.892028E-1	9.047244E-1	8.665855E-1	8.945060E-1	9.025141E-1	8.798629E-1	8.903003E-1	9.032297E-1	8.760954E-1	8.908129E-1	8.720679E-1	8.783641E-1	8.720383E-1	9.069219E-1	8.950165E-1	9.135891E-1	9.112894E-1	8.914039E-1	8.361108E-1	8.862131E-1	8.643377E-1	9.009810E-1	8.697604E-1	8.719080E-1	9.083230E-1	8.301538E-1	8.658146E-1	8.606155E-1	8.900095E-1	8.920499E-1	8.981819E-1	8.568858E-1	9.213182E-1	8.746220E-1	8.658945E-1	9.145133E-1	9.113087E-1	8.915472E-1	8.949884E-1	9.029555E-1	8.396653E-1	8.383423E-1	8.846390E-1	8.443864E-1	9.177084E-1	8.327259E-1	8.349037E-1	8.709133E-1	8.777039E-1	8.701800E-1	8.586365E-1	9.039938E-1	8.587865E-1	9.005903E-1	8.633236E-1	8.391674E-1	8.788067E-1	9.126155E-1	8.860286E-1	9.108745E-1	8.819765E-1	8.654642E-1	8.482416E-1	9.093413E-1	8.554444E-1	8.952222E-1	8.690003E-1	8.657121E-1	8.692394E-1	9.114072E-1	8.787370E-1	8.885288E-1	8.549602E-1	8.656248E-1	8.116505E-1	9.018049E-1	8.853656E-1	8.609877E-1	8.818826E-1	8.830497E-1	8.774403E-1	8.444563E-1	8.906687E-1	8.811871E-1	8.946506E-1	9.008506E-1	8.573258E-1	8.773819E-1	8.660287E-1	8.918987E-1	8.744042E-1	8.862039E-1	8.603697E-1	8.624988E-1	8.834247E-1	8.657164E-1	8.888801E-1	8.639281E-1	8.902883E-1	8.667248E-1	9.058382E-1	8.785814E-1	9.037692E-1	8.599992E-1	8.816178E-1	8.854511E-1	8.796805E-1	9.003194E-1	8.599787E-1	9.056648E-1	8.758687E-1	9.055487E-1	8.714566E-1	8.955051E-1	8.796726E-1	8.945715E-1	8.914114E-1	8.494810E-1	8.777842E-1	9.203070E-1	9.004302E-1	8.725546E-1	9.157253E-1	8.821450E-1	8.450022E-1	8.626236E-1	8.372591E-1	8.501807E-1	8.969631E-1	8.991480E-1
5.380160E+2	1.025338E+0	9.741340E-1	9.606888E-1	9.991925E-1	1.029781E+0	1.051105E+0	9.798746E-1	9.990999E-1	1.026825E+0	1.069286E+0	1.010825E+0	1.018350E+0	1.041563E+0	1.012522E+0	1.014995E+0	1.047837E+0	1.063105E+0	1.042125E+0	9.893698E-1	1.001666E+0	1.021829E+0	9.644599E-1	9.937947E-1	1.012669E+0	1.092814E+0	1.044459E+0	1.056166E+0	1.099982E+0	1.026865E+0	1.098320E+0	1.064146E+0	1.027638E+0	1.080554E+0	1.061691E+0	1.072011E+0	1.006019E+0	1.047501E+0	1.006490E+0	1.011028E+0	1.021054E+0	1.024318E+0	1.041982E+0	1.033159E+0	1.058339E+0	1.014336E+0	1.031991E+0	1.003469E+0	1.008529E+0	9.934834E-1	1.057871E+0	1.008035E+0	1.038931E+0	1.038637E+0	1.004890E+0	1.043088E+0	1.065052E+0	1.050351E+0	1.120078E+0	9.905756E-1	1.084121E+0	1.061191E+0	1.004432E+0	1.063917E+0	1.031205E+0	1.018745E+0	9.883392E-1	1.001625E+0	1.007761E+0	9.989596E-1	1.008331E+0	1.017241E+0	1.029792E+0	1.056739E+0	1.034293E+0	9.957368E-1	1.056945E+0	1.023216E+0	9.861283E-1	1.014658E+0	1.004683E+0	1.003903E+0	1.059210E+0	9.997662E-1	1.016182E+0	1.055125E+0	9.982282E-1	1.011914E+0	1.063873E+0	1.044306E+0	1.023617E+0	1.019840E+0	1.069315E+0	9.814224E-1	9.826512E-1	1.022923E+0	1.052855E+0	1.007599E+0	1.010982E+0	9.605073E-1	9.892991E-1	9.993623E-1	9.705968E-1	1.041229E+0	1.033729E+0	1.028172E+0	1.029807E+0	9.942307E-1	9.730807E-1	1.048144E+0	1.057366E+0	9.929907E-1	9.951272E-1	9.879919E-1	1.051936E+0	1.017761E+0	1.037531E+0	1.041271E+0	1.061646E+0	9.971497E-1	1.015937E+0	1.049738E+0	1.023950E+0	1.025103E+0	1.054415E+0	1.032051E+0	1.038349E+0	1.022327E+0	9.687949E-1	9.904358E-1	1.058721E+0	1.017102E+0	1.084614E+0	1.015461E+0	9.929229E-1	1.050979E+0	1.016733E+0	1.044524E+0	1.021485E+0	9.821457E-1	1.061251E+0	1.014000E+0	9.966106E-1	1.007190E+0	1.085695E+0	1.043792E+0	1.033760E+0	1.016402E+0	1.032825E+0	9.893825E-1	1.009029E+0	1.043789E+0	1.052438E+0	1.050500E+0	1.015705E+0	1.042836E+0	9.941512E-1	9.767852E-1	1.001624E+0	1.031533E+0	1.016634E+0	1.020004E+0	1.003517E+0	1.014014E+0	1.003652E+0	1.054900E+0	1.000416E+0	1.035198E+0	1.056561E+0	1.075852E+0	1.015406E+0
5.382690E+2	1.141007E+0	1.168072E+0	1.122347E+0	1.146212E+0	1.176246E+0	1.182575E+0	1.138927E+0	1.178327E+0	1.156228E+0	1.185998E+0	1.135415E+0	1.132647E+0	1.207143E+0	1.135144E+0	1.160646E+0	1.193598E+0	1.187425E+0	1.152803E+0	1.185213E+0	1.152144E+0	1.141625E+0	1.159165E+0	1.143288E+0	1.116724E+0	1.260563E+0	1.144092E+0	1.151273E+0	1.198495E+0	1.207264E+0	1.207198E+0	1.205012E+0	1.182111E+0	1.176114E+0	1.190580E+0	1.158749E+0	1.205113E+0	1.142895E+0	1.152726E+0	1.193947E+0	1.156438E+0	1.214834E+0	1.189665E+0	1.141626E+0	1.197614E+0	1.197878E+0	1.193709E+0	1.167634E+0	1.190474E+0	1.183712E+0	1.164768E+0	1.160062E+0	1.180735E+0	1.152118E+0	1.180062E+0	1.139923E+0	1.183445E+0	1.158696E+0	1.186944E+0	1.168955E+0	1.177643E+0	1.188362E+0	1.235164E+0	1.247006E+0	1.189221E+0	1.197911E+0	1.149380E+0	1.203539E+0	1.170353E+0	1.188435E+0	1.220283E+0	1.158931E+0	1.162388E+0	1.230301E+0	1.190870E+0	1.190087E+0	1.180227E+0	1.162159E+0	1.173402E+0	1.181025E+0	1.206304E+0	1.152989E+0	1.173813E+0	1.163472E+0	1.222682E+0	1.143948E+0	1.228035E+0	1.199477E+0	1.217250E+0	1.164872E+0	1.173346E+0	1.181258E+0	1.154145E+0	1.177408E+0	1.167693E+0	1.141616E+0	1.188747E+0	1.190899E+0	1.140422E+0	1.195485E+0	1.146299E+0	1.128567E+0	1.204834E+0	1.179965E+0	1.182176E+0	1.164416E+0	1.217731E+0	1.186239E+0	1.155450E+0	1.215698E+0	1.150443E+0	1.147117E+0	1.155578E+0	1.167481E+0	1.159336E+0	1.139929E+0	1.174304E+0	1.161862E+0	1.195401E+0	1.126912E+0	1.145440E+0	1.148293E+0	1.184062E+0	1.144928E+0	1.228203E+0	1.149797E+0	1.151951E+0	1.169510E+0	1.149734E+0	1.103150E+0	1.143014E+0	1.206935E+0	1.198613E+0	1.208092E+0	1.145280E+0	1.127921E+0	1.158024E+0	1.138000E+0	1.174264E+0	1.157371E+0	1.177907E+0	1.187308E+0	1.167564E+0	1.150075E+0	1.218468E+0	1.238931E+0	1.113275E+0	1.135287E+0	1.191414E+0	1.082927E+0	1.179337E+0	1.149587E+0	1.177288E+0	1.136472E+0	1.174058E+0	1.186569E+0	1.192246E+0	1.168044E+0	1.096568E+0	1.163136E+0	1.132890E+0	1.120291E+0	1.211027E+0	1.156809E+0	1.190965E+0	1.157547E+0	1.161611E+0	1.128910E+0	1.179414E+0	1.098797E+0	1.132494E+0
5.385170E+2	1.494932E+0	1.423455E+0	1.406575E+0	1.432210E+0	1.404429E+0	1.375130E+0	1.410573E+0	1.450079E+0	1.446310E+0	1.463556E+0	1.421181E+0	1.439020E+0	1.412181E+0	1.415004E+0	1.400811E+0	1.470688E+0	1.408587E+0	1.424847E+0	1.400213E+0	1.453493E+0	1.384191E+0	1.396453E+0	1.390560E+0	1.427839E+0	1.450928E+0	1.460653E+0	1.411953E+0	1.459881E+0	1.466209E+0	1.491237E+0	1.461350E+0	1.447014E+0	1.421663E+0	1.455578E+0	1.422873E+0	1.501175E+0	1.432826E+0	1.379696E+0	1.404584E+0	1.460279E+0	1.490982E+0	1.437324E+0	1.349584E+0	1.450175E+0	1.424766E+0	1.428021E+0	1.458211E+0	1.425788E+0	1.392287E+0	1.429971E+0	1.397080E+0	1.438644E+0	1.383272E+0	1.432455E+0	1.441960E+0	1.461118E+0	1.441527E+0	1.472852E+0	1.396250E+0	1.511992E+0	1.452832E+0	1.422184E+0	1.440335E+0	1.473127E+0	1.471897E+0	1.391405E+0	1.405520E+0	1.396985E+0	1.388066E+0	1.434666E+0	1.434432E+0	1.424504E+0	1.416807E+0	1.474121E+0	1.386079E+0	1.417724E+0	1.458864E+0	1.398834E+0	1.455529E+0	1.440628E+0	1.373291E+0	1.422212E+0	1.422374E+0	1.444786E+0	1.395311E+0	1.428307E+0	1.460972E+0	1.421454E+0	1.441887E+0	1.430300E+0	1.361412E+0	1.426970E+0	1.368659E+0	1.394231E+0	1.375658E+0	1.402673E+0	1.391217E+0	1.420068E+0	1.399553E+0	1.415583E+0	1.427055E+0	1.410564E+0	1.385057E+0	1.380012E+0	1.388449E+0	1.393439E+0	1.408341E+0	1.380734E+0	1.421161E+0	1.425759E+0	1.392108E+0	1.337225E+0	1.364903E+0	1.392234E+0	1.385281E+0	1.429463E+0	1.395629E+0	1.415678E+0	1.376177E+0	1.415687E+0	1.427547E+0	1.397253E+0	1.396058E+0	1.375777E+0	1.404250E+0	1.404162E+0	1.411466E+0	1.412775E+0	1.441698E+0	1.402419E+0	1.402376E+0	1.381809E+0	1.450462E+0	1.379104E+0	1.379804E+0	1.443053E+0	1.422321E+0	1.357848E+0	1.391241E+0	1.420517E+0	1.414494E+0	1.385165E+0	1.424951E+0	1.430421E+0	1.391530E+0	1.364057E+0	1.347607E+0	1.417670E+0	1.440917E+0	1.422159E+0	1.434018E+0	1.429787E+0	1.398894E+0	1.427805E+0	1.384490E+0	1.368571E+0	1.438511E+0	1.398082E+0	1.400560E+0	1.415139E+0	1.396737E+0	1.375532E+0	1.360857E+0	1.355229E+0	1.442032E+0	1.427070E+0	1.437075E+0	1.425247E+0	1.437227E+0	1.458754E+0
5.387650E+2	1.698782E+0	1.589979E+0	1.601805E+0	1.660632E+0	1.640061E+0	1.587287E+0	1.613154E+0	1.713495E+0	1.588158E+0	1.633989E+0	1.650384E+0	1.707172E+0	1.671828E+0	1.623730E+0	1.601189E+0	1.645356E+0	1.685931E+0	1.632102E+0	1.647026E+0	1.654768E+0	1.549623E+0	1.583138E+0	1.635243E+0	1.689351E+0	1.697455E+0	1.690906E+0	1.624995E+0	1.697120E+0	1.633778E+0	1.614775E+0	1.651974E+0	1.690043E+0	1.701740E+0	1.646232E+0	1.588367E+0	1.616760E+0	1.598479E+0	1.646994E+0	1.672920E+0	1.596021E+0	1.730078E+0	1.647816E+0	1.614630E+0	1.639088E+0	1.636307E+0	1.677365E+0	1.596835E+0	1.675127E+0	1.597638E+0	1.622528E+0	1.644385E+0	1.681996E+0	1.620658E+0	1.670634E+0	1.594924E+0	1.649870E+0	1.645380E+0	1.640360E+0	1.601291E+0	1.677868E+0	1.668552E+0	1.591626E+0	1.616132E+0	1.602593E+0	1.731703E+0	1.611594E+0	1.628659E+0	1.710296E+0	1.624051E+0	1.634895E+0	1.623017E+0	1.651641E+0	1.630479E+0	1.645532E+0	1.599211E+0	1.587757E+0	1.644615E+0	1.611224E+0	1.566096E+0	1.630100E+0	1.648123E+0	1.622513E+0	1.623198E+0	1.584626E+0	1.661565E+0	1.608050E+0	1.556101E+0	1.607140E+0	1.632166E+0	1.633459E+0	1.566683E+0	1.720637E+0	1.580002E+0	1.615185E+0	1.606744E+0	1.617234E+0	1.638817E+0	1.639240E+0	1.636664E+0	1.625020E+0	1.608674E+0	1.637359E+0	1.581108E+0	1.645890E+0	1.653505E+0	1.658151E+0	1.608133E+0	1.658244E+0	1.667180E+0	1.608661E+0	1.670372E+0	1.585739E+0	1.625541E+0	1.605531E+0	1.591618E+0	1.627113E+0	1.596187E+0	1.648385E+0	1.603992E+0	1.656156E+0	1.641145E+0	1.625700E+0	1.581496E+0	1.587734E+0	1.627231E+0	1.640230E+0	1.581167E+0	1.658804E+0	1.584509E+0	1.635971E+0	1.627346E+0	1.637893E+0	1.584617E+0	1.621771E+0	1.614598E+0	1.605892E+0	1.658425E+0	1.611967E+0	1.545657E+0	1.580930E+0	1.587919E+0	1.639341E+0	1.622206E+0	1.642696E+0	1.614479E+0	1.590643E+0	1.537539E+0	1.657101E+0	1.587175E+0	1.582720E+0	1.684329E+0	1.638241E+0	1.620815E+0	1.560824E+0	1.574740E+0	1.624508E+0	1.651430E+0	1.563156E+0	1.589553E+0	1.654949E+0	1.638585E+0	1.593003E+0	1.568819E+0	1.544789E+0	1.607117E+0	1.604431E+0	1.545075E+0	1.679161E+0	1.650356E+0	1.651116E+0
5.390240E+2	1.891457E+0	1.777640E+0	1.806141E+0	1.807980E+0	1.881795E+0	1.836483E+0	1.778213E+0	1.858633E+0	1.839752E+0	1.852581E+0	1.804274E+0	1.878362E+0	1.931974E+0	1.899320E+0	1.864855E+0	1.892154E+0	1.833404E+0	1.857129E+0	1.862853E+0	1.825890E+0	1.791062E+0	1.814817E+0	1.770048E+0	1.827980E+0	1.926109E+0	1.841149E+0	1.848619E+0	1.821120E+0	1.845131E+0	1.789757E+0	1.792761E+0	1.852952E+0	1.869588E+0	1.824230E+0	1.797443E+0	1.890599E+0	1.838492E+0	1.851925E+0	1.808242E+0	1.868307E+0	1.914202E+0	1.833069E+0	1.783609E+0	1.910308E+0	1.873583E+0	1.853261E+0	1.867556E+0	1.842859E+0	1.804390E+0	1.863127E+0	1.842409E+0	1.819392E+0	1.755003E+0	1.838627E+0	1.758972E+0	1.762695E+0	1.834172E+0	1.834723E+0	1.819986E+0	1.863207E+0	1.872032E+0	1.802127E+0	1.878365E+0	1.795214E+0	1.905793E+0	1.807887E+0	1.782185E+0	1.775388E+0	1.749394E+0	1.799632E+0	1.843099E+0	1.802019E+0	1.810157E+0	1.833864E+0	1.808660E+0	1.820693E+0	1.813068E+0	1.815557E+0	1.804465E+0	1.764946E+0	1.787316E+0	1.855826E+0	1.822270E+0	1.797669E+0	1.846387E+0	1.835587E+0	1.791985E+0	1.813195E+0	1.869416E+0	1.817617E+0	1.809763E+0	1.871764E+0	1.891046E+0	1.768978E+0	1.804922E+0	1.849893E+0	1.723392E+0	1.741696E+0	1.816262E+0	1.726434E+0	1.804716E+0	1.831386E+0	1.752038E+0	1.833957E+0	1.872649E+0	1.775376E+0	1.800194E+0	1.830826E+0	1.746441E+0	1.826540E+0	1.817183E+0	1.777390E+0	1.769040E+0	1.902491E+0	1.747177E+0	1.802660E+0	1.746258E+0	1.735198E+0	1.740047E+0	1.809753E+0	1.813487E+0	1.765398E+0	1.721113E+0	1.818754E+0	1.816754E+0	1.786869E+0	1.729626E+0	1.796249E+0	1.866986E+0	1.893502E+0	1.746082E+0	1.813820E+0	1.827933E+0	1.790105E+0	1.771604E+0	1.822337E+0	1.831056E+0	1.828736E+0	1.735169E+0	1.762835E+0	1.781430E+0	1.793051E+0	1.820807E+0	1.840900E+0	1.753734E+0	1.786799E+0	1.775337E+0	1.826626E+0	1.766534E+0	1.822927E+0	1.811515E+0	1.795767E+0	1.760214E+0	1.731585E+0	1.743061E+0	1.813560E+0	1.847352E+0	1.778962E+0	1.809936E+0	1.847526E+0	1.781398E+0	1.749001E+0	1.804840E+0	1.827224E+0	1.822259E+0	1.811273E+0	1.729260E+0	1.843828E+0	1.826905E+0	1.677957E+0
5.392720E+2	2.101616E+0	1.945366E+0	1.965725E+0	1.969845E+0	2.044724E+0	2.041088E+0	1.992492E+0	2.015495E+0	1.956287E+0	2.019371E+0	2.028004E+0	2.048343E+0	2.024628E+0	2.001665E+0	2.004590E+0	2.033469E+0	2.006172E+0	1.985941E+0	1.979080E+0	1.999629E+0	1.963743E+0	2.034217E+0	2.002970E+0	2.004201E+0	2.053574E+0	2.040182E+0	1.982797E+0	1.986310E+0	1.990722E+0	1.924616E+0	2.047068E+0	2.011802E+0	2.002844E+0	2.011913E+0	1.947978E+0	2.044697E+0	1.916701E+0	1.920608E+0	1.966087E+0	1.991478E+0	2.039116E+0	1.947306E+0	1.866336E+0	2.049374E+0	1.991634E+0	2.009205E+0	1.984519E+0	1.978919E+0	1.969710E+0	1.985412E+0	1.982018E+0	2.018629E+0	1.988613E+0	2.003857E+0	1.966324E+0	1.948405E+0	1.985723E+0	2.022315E+0	1.955536E+0	2.071600E+0	2.022318E+0	1.985779E+0	1.987834E+0	1.931869E+0	2.006547E+0	1.920852E+0	2.032423E+0	1.973808E+0	1.986543E+0	2.000086E+0	1.920564E+0	2.023653E+0	1.940697E+0	2.001950E+0	1.965169E+0	2.028440E+0	1.978190E+0	1.954488E+0	1.945791E+0	1.995587E+0	1.965879E+0	2.067996E+0	1.985470E+0	1.907066E+0	1.994594E+0	1.939056E+0	1.929643E+0	1.959088E+0	1.940283E+0	1.937958E+0	1.984373E+0	1.931884E+0	1.905366E+0	1.987471E+0	1.962561E+0	1.908816E+0	1.953052E+0	1.956893E+0	1.942742E+0	1.977069E+0	1.935852E+0	1.882789E+0	1.872489E+0	1.952674E+0	1.956507E+0	1.910457E+0	1.986462E+0	1.981617E+0	1.926155E+0	1.964346E+0	1.945291E+0	1.927917E+0	1.905582E+0	1.986721E+0	1.949617E+0	2.030339E+0	1.953039E+0	2.008542E+0	1.927502E+0	1.901283E+0	1.937419E+0	1.922184E+0	1.987489E+0	1.949033E+0	1.918008E+0	1.965316E+0	1.886199E+0	1.906514E+0	1.905714E+0	1.973030E+0	1.908091E+0	1.912176E+0	1.947155E+0	1.922556E+0	1.938640E+0	1.943078E+0	1.918338E+0	1.925770E+0	1.861123E+0	1.965552E+0	1.958544E+0	1.899897E+0	1.974823E+0	1.939366E+0	1.956191E+0	1.887940E+0	1.923557E+0	1.974195E+0	1.889064E+0	2.010166E+0	2.025684E+0	1.914992E+0	1.880108E+0	1.992924E+0	1.929809E+0	1.902657E+0	1.944065E+0	1.848467E+0	1.940191E+0	1.861932E+0	1.984488E+0	1.871388E+0	1.900189E+0	1.974603E+0	1.923450E+0	1.861033E+0	1.899318E+0	1.895217E+0	2.027439E+0	1.973556E+0
5.395160E+2	2.217643E+0	2.038318E+0	2.075278E+0	2.065672E+0	2.144042E+0	2.075853E+0	2.161799E+0	2.091605E+0	2.082997E+0	2.153704E+0	2.068566E+0	2.145040E+0	2.127234E+0	2.118281E+0	2.150537E+0	2.134794E+0	2.143020E+0	2.194337E+0	2.104554E+0	2.123490E+0	2.078569E+0	2.101053E+0	2.094154E+0	2.059704E+0	2.115535E+0	2.058272E+0	2.085527E+0	2.089631E+0	2.068770E+0	2.163024E+0	2.080463E+0	2.138250E+0	2.104072E+0	2.056536E+0	2.068097E+0	2.092147E+0	2.041407E+0	2.075070E+0	1.994043E+0	2.097426E+0	2.157879E+0	2.003671E+0	2.004613E+0	2.115697E+0	2.171350E+0	2.096844E+0	2.119020E+0	2.077220E+0	2.087628E+0	2.082280E+0	2.038552E+0	2.155254E+0	2.035355E+0	2.079437E+0	2.072355E+0	2.081157E+0	2.121566E+0	2.067337E+0	2.096138E+0	2.152753E+0	2.061208E+0	2.114772E+0	2.054122E+0	2.074506E+0	2.082727E+0	2.049170E+0	2.079037E+0	2.047805E+0	2.018561E+0	2.070954E+0	2.148117E+0	2.033740E+0	2.055222E+0	2.043803E+0	2.046686E+0	2.072532E+0	2.072278E+0	2.037288E+0	2.033104E+0	2.166565E+0	2.052742E+0	2.069980E+0	2.073827E+0	2.009652E+0	2.083164E+0	2.024106E+0	2.030802E+0	2.095019E+0	2.094512E+0	2.009416E+0	2.046994E+0	2.057131E+0	2.051830E+0	2.106067E+0	2.052101E+0	2.111643E+0	2.072445E+0	2.112863E+0	2.107784E+0	2.046581E+0	2.053379E+0	1.997261E+0	2.038151E+0	2.133830E+0	2.140754E+0	2.013170E+0	2.101145E+0	2.062473E+0	2.066242E+0	2.010077E+0	2.102640E+0	2.009993E+0	2.041223E+0	2.042808E+0	1.984104E+0	2.096680E+0	2.059816E+0	2.047502E+0	1.978572E+0	2.017333E+0	2.076595E+0	2.025397E+0	2.036332E+0	2.048999E+0	2.072508E+0	2.108582E+0	2.092764E+0	1.974482E+0	1.998248E+0	2.060635E+0	1.958001E+0	2.059468E+0	2.029812E+0	2.112442E+0	2.044380E+0	2.031055E+0	2.044751E+0	2.025741E+0	1.986161E+0	2.039866E+0	2.014804E+0	2.056986E+0	2.093082E+0	2.043738E+0	2.149414E+0	1.924551E+0	2.025415E+0	2.084110E+0	1.976242E+0	2.075042E+0	2.005725E+0	2.045018E+0	2.022730E+0	2.061250E+0	2.023880E+0	2.079886E+0	2.063766E+0	1.934483E+0	1.970349E+0	2.061910E+0	2.054450E+0	2.070108E+0	2.000463E+0	2.045875E+0	2.022525E+0	1.949556E+0	1.993568E+0	2.081911E+0	2.016889E+0	2.071891E+0
5.397810E+2	2.179871E+0	2.098885E+0	2.121436E+0	2.104054E+0	2.230287E+0	2.105509E+0	2.085018E+0	2.121615E+0	2.120575E+0	2.146267E+0	2.073363E+0	2.147623E+0	2.199190E+0	2.132255E+0	2.110929E+0	2.194425E+0	2.139862E+0	2.144281E+0	2.159487E+0	2.159997E+0	2.038201E+0	2.143807E+0	2.094753E+0	2.094655E+0	2.119675E+0	2.134036E+0	2.083053E+0	2.087753E+0	2.104983E+0	2.097321E+0	2.068061E+0	2.105893E+0	2.161367E+0	2.088706E+0	2.096937E+0	2.069452E+0	2.063107E+0	2.126662E+0	2.071579E+0	2.070977E+0	2.135854E+0	2.091664E+0	2.061408E+0	2.033390E+0	2.094481E+0	2.076762E+0	2.108751E+0	2.087945E+0	2.047975E+0	2.231792E+0	2.055471E+0	2.108154E+0	2.100582E+0	2.048834E+0	2.059566E+0	2.143953E+0	2.121605E+0	2.187775E+0	2.063647E+0	2.120948E+0	2.157994E+0	2.074714E+0	2.136693E+0	2.092968E+0	2.118300E+0	2.065979E+0	2.108236E+0	2.062167E+0	2.100652E+0	2.104061E+0	2.076942E+0	2.015345E+0	2.089826E+0	2.089787E+0	2.133419E+0	2.113923E+0	2.165214E+0	2.060414E+0	2.055337E+0	2.082845E+0	2.137396E+0	2.057620E+0	2.057872E+0	2.076036E+0	2.174188E+0	2.085177E+0	2.069641E+0	2.124011E+0	2.078196E+0	2.088307E+0	2.084892E+0	2.177335E+0	2.096302E+0	2.071972E+0	2.051558E+0	2.098116E+0	2.051660E+0	2.090306E+0	2.041260E+0	2.069337E+0	2.039909E+0	2.064662E+0	2.050831E+0	2.153850E+0	2.148000E+0	2.052369E+0	2.045994E+0	2.104399E+0	2.056131E+0	2.071783E+0	2.061294E+0	2.008419E+0	2.078179E+0	2.124534E+0	1.979132E+0	2.069444E+0	2.070360E+0	2.105712E+0	2.013168E+0	2.056902E+0	2.090431E+0	2.032961E+0	1.996852E+0	2.115130E+0	2.051531E+0	2.087073E+0	2.056206E+0	1.944879E+0	2.069924E+0	2.108898E+0	2.094921E+0	2.059492E+0	2.102857E+0	2.061645E+0	2.031494E+0	2.027335E+0	2.130597E+0	2.050563E+0	2.029056E+0	2.092112E+0	2.095214E+0	2.047261E+0	2.099368E+0	2.061528E+0	2.068001E+0	2.024048E+0	2.038788E+0	2.074419E+0	2.012920E+0	2.084464E+0	2.099740E+0	2.055524E+0	2.056647E+0	2.031938E+0	2.056192E+0	2.002636E+0	2.069248E+0	1.978342E+0	2.017976E+0	2.108667E+0	2.060127E+0	2.055859E+0	2.076587E+0	1.980529E+0	2.069749E+0	1.939656E+0	2.009979E+0	1.995796E+0	2.119696E+0	2.136254E+0
5.400240E+2	2.139041E+0	2.003292E+0	2.137694E+0	2.033855E+0	2.134013E+0	2.069036E+0	2.025867E+0	2.069095E+0	2.205963E+0	2.100738E+0	2.049804E+0	2.122325E+0	2.120895E+0	2.167144E+0	2.078723E+0	2.065872E+0	2.179812E+0	2.108631E+0	2.022842E+0	2.099813E+0	2.086266E+0	2.067612E+0	2.083845E+0	2.026761E+0	2.150434E+0	2.077280E+0	2.036675E+0	2.054877E+0	2.094028E+0	2.038580E+0	2.090213E+0	2.106075E+0	2.022480E+0	2.115997E+0	2.067992E+0	2.057191E+0	2.034360E+0	2.051681E+0	1.957472E+0	2.000763E+0	2.094765E+0	2.068836E+0	2.007967E+0	2.117436E+0	2.105129E+0	2.106590E+0	2.040525E+0	2.012086E+0	2.016786E+0	2.072815E+0	2.103333E+0	2.099041E+0	2.006765E+0	2.049917E+0	2.054891E+0	2.054877E+0	2.114477E+0	2.087209E+0	2.084973E+0	2.086696E+0	2.036123E+0	2.049688E+0	2.033117E+0	2.072852E+0	2.165905E+0	2.044304E+0	2.029230E+0	2.045964E+0	2.041302E+0	2.111919E+0	2.054640E+0	2.013438E+0	2.013317E+0	2.099272E+0	2.091483E+0	2.032465E+0	2.130101E+0	2.069289E+0	2.021464E+0	2.103715E+0	2.032520E+0	2.097316E+0	2.010675E+0	2.056656E+0	2.053414E+0	2.003205E+0	2.032588E+0	2.012914E+0	1.990529E+0	2.062163E+0	2.038716E+0	2.113125E+0	2.053864E+0	2.119049E+0	2.005176E+0	2.016994E+0	2.015794E+0	2.054436E+0	2.007080E+0	1.996338E+0	1.998278E+0	2.007960E+0	2.013305E+0	2.085079E+0	2.158601E+0	1.987746E+0	1.983081E+0	2.097374E+0	2.034898E+0	2.021287E+0	2.014555E+0	1.952402E+0	2.038610E+0	2.045594E+0	1.972997E+0	2.026605E+0	2.028334E+0	2.028904E+0	2.002991E+0	1.931428E+0	2.080869E+0	2.026139E+0	1.975333E+0	2.055080E+0	2.042123E+0	2.000182E+0	2.003501E+0	2.005383E+0	2.015653E+0	2.020527E+0	1.994048E+0	2.052976E+0	1.944858E+0	1.984387E+0	1.991481E+0	2.037725E+0	2.094933E+0	1.989220E+0	2.015494E+0	2.028996E+0	1.991929E+0	1.990125E+0	2.069708E+0	2.059090E+0	2.049596E+0	1.994653E+0	2.002822E+0	2.067928E+0	1.996396E+0	2.023719E+0	2.021683E+0	2.068730E+0	1.995978E+0	2.002839E+0	2.057231E+0	2.028652E+0	2.069057E+0	1.954922E+0	2.054277E+0	2.050200E+0	2.004232E+0	1.944204E+0	1.923045E+0	2.027069E+0	2.016272E+0	2.029524E+0	2.006353E+0	1.967992E+0	1.929178E+0	2.051730E+0
5.402850E+2	2.048004E+0	1.925022E+0	1.909696E+0	1.896486E+0	1.995928E+0	1.961609E+0	1.968729E+0	1.973456E+0	1.996295E+0	1.982740E+0	1.906860E+0	2.051530E+0	1.969795E+0	2.019637E+0	1.963295E+0	1.980469E+0	1.980741E+0	2.030844E+0	1.934724E+0	1.954510E+0	1.897388E+0	1.944850E+0	1.994153E+0	1.914271E+0	1.990034E+0	1.842200E+0	1.949853E+0	1.927855E+0	1.867347E+0	2.009449E+0	1.912415E+0	1.936906E+0	1.944033E+0	1.955273E+0	1.858729E+0	1.977898E+0	1.886431E+0	1.896085E+0	1.881322E+0	1.937253E+0	1.982472E+0	1.935287E+0	1.888902E+0	1.965089E+0	2.036611E+0	1.958782E+0	1.880612E+0	1.937349E+0	1.958056E+0	1.911807E+0	1.962578E+0	1.936326E+0	1.904638E+0	1.971494E+0	1.930851E+0	1.923574E+0	1.982413E+0	1.933657E+0	1.920128E+0	1.948858E+0	1.989213E+0	1.970348E+0	1.993036E+0	1.956335E+0	1.967286E+0	1.944001E+0	1.943801E+0	1.909162E+0	1.930483E+0	2.014515E+0	1.966694E+0	1.921812E+0	1.957630E+0	1.947688E+0	1.910062E+0	1.969588E+0	1.980971E+0	1.955159E+0	1.942007E+0	1.936725E+0	1.926591E+0	1.940249E+0	1.976139E+0	1.875075E+0	1.987773E+0	1.855105E+0	1.863371E+0	1.903410E+0	1.911675E+0	1.900491E+0	1.946463E+0	1.959405E+0	1.946549E+0	1.970806E+0	1.895608E+0	1.889471E+0	1.948382E+0	1.969035E+0	1.933707E+0	1.928511E+0	1.935930E+0	1.889583E+0	1.869368E+0	1.939297E+0	1.997259E+0	1.911024E+0	1.828918E+0	1.913791E+0	1.948900E+0	1.951457E+0	1.856926E+0	1.888361E+0	1.950745E+0	1.941408E+0	1.894541E+0	1.955589E+0	1.924009E+0	1.950711E+0	1.927164E+0	1.848196E+0	1.956025E+0	1.928314E+0	1.842509E+0	1.934959E+0	1.947690E+0	1.988522E+0	1.923209E+0	1.845947E+0	1.926244E+0	1.964279E+0	1.873719E+0	1.886939E+0	1.975519E+0	1.875295E+0	1.887145E+0	1.906635E+0	1.881265E+0	1.874083E+0	1.848208E+0	1.955193E+0	1.898556E+0	1.917923E+0	1.938743E+0	1.892620E+0	2.000869E+0	1.854501E+0	1.862342E+0	1.959131E+0	1.900094E+0	1.931571E+0	1.884493E+0	1.898965E+0	1.916754E+0	1.872791E+0	1.925773E+0	1.884406E+0	1.932418E+0	1.810484E+0	1.920081E+0	1.907479E+0	1.869000E+0	1.850951E+0	1.897112E+0	1.911124E+0	1.930886E+0	1.884575E+0	1.834812E+0	1.883508E+0	1.866140E+0	1.895963E+0
5.405130E+2	1.905100E+0	1.813890E+0	1.794148E+0	1.824071E+0	1.881596E+0	1.868651E+0	1.809699E+0	1.865189E+0	1.916204E+0	1.927945E+0	1.838803E+0	1.855898E+0	1.841860E+0	1.839269E+0	1.779583E+0	1.913668E+0	1.893000E+0	1.889578E+0	1.866703E+0	1.868613E+0	1.820671E+0	1.856945E+0	1.797015E+0	1.818625E+0	1.907234E+0	1.849362E+0	1.849791E+0	1.787069E+0	1.841316E+0	1.803588E+0	1.825107E+0	1.820185E+0	1.878499E+0	1.841366E+0	1.781094E+0	1.841731E+0	1.826564E+0	1.833075E+0	1.792236E+0	1.827013E+0	1.870068E+0	1.808816E+0	1.745254E+0	1.845350E+0	1.864440E+0	1.824224E+0	1.842851E+0	1.855812E+0	1.775680E+0	1.765154E+0	1.751117E+0	1.877730E+0	1.804220E+0	1.788310E+0	1.831380E+0	1.808037E+0	1.856061E+0	1.902203E+0	1.808152E+0	1.837552E+0	1.792328E+0	1.822533E+0	1.916559E+0	1.844790E+0	1.852154E+0	1.787564E+0	1.891825E+0	1.824620E+0	1.795965E+0	1.883975E+0	1.831207E+0	1.805378E+0	1.834384E+0	1.813785E+0	1.845927E+0	1.776545E+0	1.907294E+0	1.881242E+0	1.830249E+0	1.844254E+0	1.801062E+0	1.801881E+0	1.861133E+0	1.865520E+0	1.918394E+0	1.830846E+0	1.732744E+0	1.760674E+0	1.800851E+0	1.825169E+0	1.860551E+0	1.865034E+0	1.768907E+0	1.823231E+0	1.780650E+0	1.798457E+0	1.789734E+0	1.814291E+0	1.815564E+0	1.791592E+0	1.804840E+0	1.770975E+0	1.841805E+0	1.808454E+0	1.897591E+0	1.779503E+0	1.770087E+0	1.799926E+0	1.877030E+0	1.804229E+0	1.861319E+0	1.789780E+0	1.810169E+0	1.800632E+0	1.750797E+0	1.821696E+0	1.828597E+0	1.869086E+0	1.815656E+0	1.758309E+0	1.842252E+0	1.823201E+0	1.803591E+0	1.784103E+0	1.787645E+0	1.797053E+0	1.787816E+0	1.785765E+0	1.789926E+0	1.823348E+0	1.747963E+0	1.771113E+0	1.856423E+0	1.781297E+0	1.800387E+0	1.771247E+0	1.826916E+0	1.814252E+0	1.799257E+0	1.765715E+0	1.822476E+0	1.783030E+0	1.815458E+0	1.786413E+0	1.820170E+0	1.775983E+0	1.810780E+0	1.806974E+0	1.765523E+0	1.832852E+0	1.834438E+0	1.802333E+0	1.798453E+0	1.793849E+0	1.835035E+0	1.819834E+0	1.797892E+0	1.769289E+0	1.782368E+0	1.823007E+0	1.835484E+0	1.772115E+0	1.766147E+0	1.755009E+0	1.801489E+0	1.768070E+0	1.851880E+0	1.798802E+0	1.786108E+0	1.748197E+0
5.407680E+2	1.795176E+0	1.675954E+0	1.817606E+0	1.696738E+0	1.793530E+0	1.793346E+0	1.746445E+0	1.779602E+0	1.764868E+0	1.761923E+0	1.706832E+0	1.760656E+0	1.764165E+0	1.763187E+0	1.757843E+0	1.822128E+0	1.798292E+0	1.807037E+0	1.780479E+0	1.784324E+0	1.740321E+0	1.775180E+0	1.737111E+0	1.778072E+0	1.826915E+0	1.721441E+0	1.751292E+0	1.704206E+0	1.768000E+0	1.751966E+0	1.733552E+0	1.735650E+0	1.797589E+0	1.785916E+0	1.734112E+0	1.775924E+0	1.761193E+0	1.704682E+0	1.675806E+0	1.720184E+0	1.788253E+0	1.815449E+0	1.715263E+0	1.763234E+0	1.811561E+0	1.709851E+0	1.705298E+0	1.735045E+0	1.704886E+0	1.770635E+0	1.747878E+0	1.728685E+0	1.696606E+0	1.774808E+0	1.731607E+0	1.735114E+0	1.806772E+0	1.786497E+0	1.752412E+0	1.771399E+0	1.718518E+0	1.772916E+0	1.715769E+0	1.733479E+0	1.761483E+0	1.732103E+0	1.785845E+0	1.741353E+0	1.678403E+0	1.769226E+0	1.714697E+0	1.695135E+0	1.739654E+0	1.725301E+0	1.743254E+0	1.740890E+0	1.718311E+0	1.788751E+0	1.740863E+0	1.720426E+0	1.683380E+0	1.745281E+0	1.787543E+0	1.741662E+0	1.725115E+0	1.728825E+0	1.685232E+0	1.722379E+0	1.758836E+0	1.688646E+0	1.751034E+0	1.710552E+0	1.762307E+0	1.734841E+0	1.697782E+0	1.702215E+0	1.738252E+0	1.749225E+0	1.718724E+0	1.742349E+0	1.778054E+0	1.678707E+0	1.710892E+0	1.748846E+0	1.780647E+0	1.705303E+0	1.757703E+0	1.661349E+0	1.799068E+0	1.734390E+0	1.719053E+0	1.689106E+0	1.743805E+0	1.730479E+0	1.776748E+0	1.687062E+0	1.723421E+0	1.716834E+0	1.692010E+0	1.665531E+0	1.790448E+0	1.727881E+0	1.673366E+0	1.695756E+0	1.717762E+0	1.720252E+0	1.718744E+0	1.665213E+0	1.720160E+0	1.721473E+0	1.697958E+0	1.707906E+0	1.759762E+0	1.663487E+0	1.734066E+0	1.749950E+0	1.729599E+0	1.718100E+0	1.714119E+0	1.708228E+0	1.685110E+0	1.653746E+0	1.720754E+0	1.689706E+0	1.720182E+0	1.671893E+0	1.716975E+0	1.695553E+0	1.695924E+0	1.726083E+0	1.687704E+0	1.720804E+0	1.749736E+0	1.707340E+0	1.700732E+0	1.723002E+0	1.740293E+0	1.653011E+0	1.751997E+0	1.667421E+0	1.687923E+0	1.701869E+0	1.641784E+0	1.725311E+0	1.738836E+0	1.707742E+0	1.662911E+0	1.657768E+0	1.768317E+0	1.693130E+0
5.410290E+2	1.722455E+0	1.605766E+0	1.696532E+0	1.615757E+0	1.697171E+0	1.661120E+0	1.678979E+0	1.656444E+0	1.683884E+0	1.686913E+0	1.579874E+0	1.713723E+0	1.703906E+0	1.662423E+0	1.687847E+0	1.753291E+0	1.675274E+0	1.693658E+0	1.709298E+0	1.633694E+0	1.673358E+0	1.660392E+0	1.698978E+0	1.683814E+0	1.741736E+0	1.659317E+0	1.688281E+0	1.644200E+0	1.685371E+0	1.685867E+0	1.649148E+0	1.668855E+0	1.690708E+0	1.687078E+0	1.644931E+0	1.669194E+0	1.660507E+0	1.696399E+0	1.615832E+0	1.655754E+0	1.700358E+0	1.644896E+0	1.627178E+0	1.672410E+0	1.657465E+0	1.690520E+0	1.692679E+0	1.674360E+0	1.626672E+0	1.682448E+0	1.630090E+0	1.691016E+0	1.640089E+0	1.654326E+0	1.689554E+0	1.654898E+0	1.701241E+0	1.688829E+0	1.652972E+0	1.709254E+0	1.663720E+0	1.651187E+0	1.651032E+0	1.661500E+0	1.770026E+0	1.616101E+0	1.675988E+0	1.613673E+0	1.629976E+0	1.622746E+0	1.648156E+0	1.600810E+0	1.714608E+0	1.694855E+0	1.667430E+0	1.673873E+0	1.690693E+0	1.662548E+0	1.644390E+0	1.725595E+0	1.656032E+0	1.649507E+0	1.640831E+0	1.633111E+0	1.648247E+0	1.679070E+0	1.564531E+0	1.633778E+0	1.664893E+0	1.689135E+0	1.595310E+0	1.709451E+0	1.735617E+0	1.720113E+0	1.672725E+0	1.682202E+0	1.624287E+0	1.668416E+0	1.617678E+0	1.649781E+0	1.645602E+0	1.655169E+0	1.683936E+0	1.641381E+0	1.717628E+0	1.670797E+0	1.662680E+0	1.643164E+0	1.700947E+0	1.653453E+0	1.709173E+0	1.646463E+0	1.632871E+0	1.687447E+0	1.630132E+0	1.662624E+0	1.626968E+0	1.659199E+0	1.580774E+0	1.592538E+0	1.731681E+0	1.655825E+0	1.622465E+0	1.651185E+0	1.735391E+0	1.644486E+0	1.642653E+0	1.663491E+0	1.636451E+0	1.647543E+0	1.591120E+0	1.667840E+0	1.668753E+0	1.658019E+0	1.630556E+0	1.651128E+0	1.718459E+0	1.665983E+0	1.611699E+0	1.646452E+0	1.590961E+0	1.650874E+0	1.688921E+0	1.729821E+0	1.632604E+0	1.560423E+0	1.652583E+0	1.701121E+0	1.646516E+0	1.658490E+0	1.655294E+0	1.667442E+0	1.599255E+0	1.669420E+0	1.666630E+0	1.615019E+0	1.662996E+0	1.660072E+0	1.698825E+0	1.668877E+0	1.719845E+0	1.598559E+0	1.688457E+0	1.655663E+0	1.671724E+0	1.607489E+0	1.635357E+0	1.587030E+0	1.668878E+0	1.725952E+0
5.412790E+2	1.694185E+0	1.519720E+0	1.534469E+0	1.565848E+0	1.556764E+0	1.624764E+0	1.567119E+0	1.619169E+0	1.630051E+0	1.595973E+0	1.614586E+0	1.575317E+0	1.608765E+0	1.576624E+0	1.543510E+0	1.637469E+0	1.620489E+0	1.571020E+0	1.624390E+0	1.634021E+0	1.543124E+0	1.592670E+0	1.568756E+0	1.568293E+0	1.559420E+0	1.565202E+0	1.534663E+0	1.563817E+0	1.580086E+0	1.576972E+0	1.594310E+0	1.570503E+0	1.611996E+0	1.583513E+0	1.551438E+0	1.574193E+0	1.596114E+0	1.561547E+0	1.558574E+0	1.544299E+0	1.610266E+0	1.571503E+0	1.528201E+0	1.589656E+0	1.550401E+0	1.600880E+0	1.508053E+0	1.575768E+0	1.569256E+0	1.576424E+0	1.557376E+0	1.610503E+0	1.550104E+0	1.588784E+0	1.595466E+0	1.556887E+0	1.625901E+0	1.575105E+0	1.588625E+0	1.602310E+0	1.548357E+0	1.646656E+0	1.546574E+0	1.525404E+0	1.630631E+0	1.559456E+0	1.572436E+0	1.547421E+0	1.535308E+0	1.631724E+0	1.583262E+0	1.547042E+0	1.597049E+0	1.570361E+0	1.567677E+0	1.532074E+0	1.612139E+0	1.621322E+0	1.537959E+0	1.603967E+0	1.559232E+0	1.595229E+0	1.599933E+0	1.542238E+0	1.610059E+0	1.618465E+0	1.566730E+0	1.553258E+0	1.575478E+0	1.594465E+0	1.535863E+0	1.555222E+0	1.593324E+0	1.579211E+0	1.534911E+0	1.573237E+0	1.599013E+0	1.549159E+0	1.592528E+0	1.549167E+0	1.551666E+0	1.584806E+0	1.502101E+0	1.571866E+0	1.608107E+0	1.592339E+0	1.602424E+0	1.532677E+0	1.564730E+0	1.558207E+0	1.614337E+0	1.494900E+0	1.533934E+0	1.564923E+0	1.543351E+0	1.640025E+0	1.547937E+0	1.535811E+0	1.535972E+0	1.494601E+0	1.589686E+0	1.525491E+0	1.560871E+0	1.584799E+0	1.531399E+0	1.567982E+0	1.489369E+0	1.601704E+0	1.548488E+0	1.539394E+0	1.557513E+0	1.550969E+0	1.591061E+0	1.555041E+0	1.556276E+0	1.535041E+0	1.667585E+0	1.532189E+0	1.519872E+0	1.585933E+0	1.542142E+0	1.484682E+0	1.529956E+0	1.562770E+0	1.573807E+0	1.539770E+0	1.480780E+0	1.576781E+0	1.561750E+0	1.616963E+0	1.510341E+0	1.575099E+0	1.577729E+0	1.504565E+0	1.574113E+0	1.525474E+0	1.591200E+0	1.540625E+0	1.523585E+0	1.570051E+0	1.576542E+0	1.476292E+0	1.500805E+0	1.601362E+0	1.539930E+0	1.529474E+0	1.547207E+0	1.581500E+0	1.495626E+0	1.600637E+0
5.415140E+2	1.423219E+0	1.413985E+0	1.402664E+0	1.389864E+0	1.527168E+0	1.414966E+0	1.377726E+0	1.397729E+0	1.423538E+0	1.461178E+0	1.419410E+0	1.468439E+0	1.406761E+0	1.469907E+0	1.382767E+0	1.461011E+0	1.415224E+0	1.433096E+0	1.402447E+0	1.436935E+0	1.396478E+0	1.441339E+0	1.489237E+0	1.387354E+0	1.453324E+0	1.371383E+0	1.454951E+0	1.378006E+0	1.420388E+0	1.431090E+0	1.426676E+0	1.436374E+0	1.424986E+0	1.403499E+0	1.387306E+0	1.426857E+0	1.397416E+0	1.401782E+0	1.371235E+0	1.395055E+0	1.419005E+0	1.452072E+0	1.381107E+0	1.492866E+0	1.393865E+0	1.440419E+0	1.402578E+0	1.419977E+0	1.364049E+0	1.437437E+0	1.489879E+0	1.414217E+0	1.417836E+0	1.429046E+0	1.391334E+0	1.384005E+0	1.397540E+0	1.422276E+0	1.401891E+0	1.455709E+0	1.450331E+0	1.439326E+0	1.412425E+0	1.372556E+0	1.463988E+0	1.447267E+0	1.447502E+0	1.333183E+0	1.361094E+0	1.451196E+0	1.396148E+0	1.377959E+0	1.393646E+0	1.427591E+0	1.381340E+0	1.399836E+0	1.408364E+0	1.384934E+0	1.423656E+0	1.383057E+0	1.421202E+0	1.394196E+0	1.395778E+0	1.364569E+0	1.427207E+0	1.481183E+0	1.373812E+0	1.380039E+0	1.415253E+0	1.407762E+0	1.410085E+0	1.447780E+0	1.410495E+0	1.450888E+0	1.373124E+0	1.403286E+0	1.381676E+0	1.462908E+0	1.370074E+0	1.429348E+0	1.376306E+0	1.382968E+0	1.395423E+0	1.366238E+0	1.348685E+0	1.357457E+0	1.394485E+0	1.420363E+0	1.425338E+0	1.452852E+0	1.360209E+0	1.377147E+0	1.432131E+0	1.430632E+0	1.335595E+0	1.444528E+0	1.437992E+0	1.447606E+0	1.374971E+0	1.398238E+0	1.427066E+0	1.469345E+0	1.346637E+0	1.409670E+0	1.377900E+0	1.405294E+0	1.438043E+0	1.336305E+0	1.440466E+0	1.455746E+0	1.391537E+0	1.389869E+0	1.456689E+0	1.398584E+0	1.393971E+0	1.387254E+0	1.404760E+0	1.413245E+0	1.343329E+0	1.394370E+0	1.388599E+0	1.406942E+0	1.471743E+0	1.399813E+0	1.428338E+0	1.404291E+0	1.337201E+0	1.378397E+0	1.378182E+0	1.411866E+0	1.401664E+0	1.411367E+0	1.328346E+0	1.425679E+0	1.437043E+0	1.413273E+0	1.522101E+0	1.420361E+0	1.399312E+0	1.432102E+0	1.414564E+0	1.361644E+0	1.333751E+0	1.345676E+0	1.408658E+0	1.413902E+0	1.382426E+0	1.453283E+0	1.432330E+0	1.366307E+0
5.417760E+2	1.316615E+0	1.203839E+0	1.272024E+0	1.214937E+0	1.286512E+0	1.228409E+0	1.211371E+0	1.260121E+0	1.276134E+0	1.272678E+0	1.190278E+0	1.255310E+0	1.288189E+0	1.222914E+0	1.259476E+0	1.259300E+0	1.240946E+0	1.235710E+0	1.202924E+0	1.219553E+0	1.265227E+0	1.195747E+0	1.185490E+0	1.215787E+0	1.278667E+0	1.225712E+0	1.217998E+0	1.178253E+0	1.213831E+0	1.211299E+0	1.250714E+0	1.243484E+0	1.223671E+0	1.250558E+0	1.270010E+0	1.259701E+0	1.216847E+0	1.207085E+0	1.168244E+0	1.185888E+0	1.229849E+0	1.263049E+0	1.156498E+0	1.251784E+0	1.223536E+0	1.280927E+0	1.222482E+0	1.209309E+0	1.196444E+0	1.291812E+0	1.229642E+0	1.239714E+0	1.202839E+0	1.235664E+0	1.234710E+0	1.318794E+0	1.257902E+0	1.300296E+0	1.194201E+0	1.248419E+0	1.219724E+0	1.251205E+0	1.242883E+0	1.227013E+0	1.269512E+0	1.220392E+0	1.234046E+0	1.189160E+0	1.225159E+0	1.220113E+0	1.221605E+0	1.207836E+0	1.243501E+0	1.261306E+0	1.223453E+0	1.240723E+0	1.257179E+0	1.219598E+0	1.223364E+0	1.246858E+0	1.222383E+0	1.214710E+0	1.218870E+0	1.246510E+0	1.225161E+0	1.248697E+0	1.202265E+0	1.203924E+0	1.217880E+0	1.262520E+0	1.238524E+0	1.242249E+0	1.221381E+0	1.234722E+0	1.195199E+0	1.251688E+0	1.216141E+0	1.199267E+0	1.241972E+0	1.270401E+0	1.263340E+0	1.214112E+0	1.210583E+0	1.210509E+0	1.244225E+0	1.226486E+0	1.203887E+0	1.220524E+0	1.248279E+0	1.281543E+0	1.235389E+0	1.213219E+0	1.224062E+0	1.249152E+0	1.221201E+0	1.244590E+0	1.200522E+0	1.275783E+0	1.225608E+0	1.191899E+0	1.250812E+0	1.241547E+0	1.219593E+0	1.185440E+0	1.213211E+0	1.207253E+0	1.241817E+0	1.261097E+0	1.228928E+0	1.227054E+0	1.225815E+0	1.228581E+0	1.241106E+0	1.203046E+0	1.222339E+0	1.245785E+0	1.235852E+0	1.205327E+0	1.194120E+0	1.198490E+0	1.211038E+0	1.212487E+0	1.250327E+0	1.268804E+0	1.267845E+0	1.171572E+0	1.208526E+0	1.206132E+0	1.247126E+0	1.238748E+0	1.235699E+0	1.239364E+0	1.231446E+0	1.182717E+0	1.233427E+0	1.207875E+0	1.250363E+0	1.201959E+0	1.236239E+0	1.271565E+0	1.197096E+0	1.214377E+0	1.228793E+0	1.136409E+0	1.257234E+0	1.215446E+0	1.202194E+0	1.247982E+0	1.298427E+0	1.280209E+0
5.420160E+2	1.088057E+0	1.060745E+0	1.088110E+0	1.043081E+0	1.099293E+0	1.083571E+0	1.075814E+0	1.052248E+0	1.080690E+0	1.090756E+0	1.014495E+0	1.088500E+0	1.104094E+0	1.111002E+0	1.057666E+0	1.097821E+0	1.112575E+0	1.081051E+0	1.106236E+0	1.106072E+0	1.077651E+0	1.079214E+0	1.097247E+0	1.012131E+0	1.057666E+0	1.088001E+0	1.045195E+0	1.047591E+0	1.092537E+0	1.076968E+0	1.054976E+0	1.123278E+0	1.114841E+0	1.090799E+0	1.055270E+0	1.051023E+0	1.068285E+0	1.106952E+0	1.088267E+0	1.045234E+0	1.061628E+0	1.117215E+0	1.084966E+0	1.076080E+0	1.095520E+0	1.075254E+0	1.086168E+0	1.088143E+0	1.011733E+0	1.078765E+0	1.064902E+0	1.099731E+0	1.050556E+0	1.093766E+0	1.030800E+0	1.105545E+0	1.082402E+0	1.109974E+0	1.106151E+0	1.090292E+0	1.073041E+0	1.063864E+0	1.091157E+0	1.056859E+0	1.116272E+0	1.048370E+0	1.068769E+0	1.070328E+0	1.058054E+0	1.106950E+0	1.085033E+0	1.103881E+0	1.080901E+0	1.053905E+0	1.057160E+0	1.068319E+0	1.089968E+0	1.102510E+0	1.080798E+0	1.106212E+0	1.105292E+0	1.089059E+0	1.068007E+0	1.081176E+0	1.080034E+0	1.059204E+0	1.076182E+0	1.064983E+0	1.065861E+0	1.052206E+0	1.091431E+0	1.042758E+0	1.056812E+0	1.132282E+0	1.050016E+0	1.108831E+0	1.047982E+0	1.121395E+0	1.114194E+0	1.018682E+0	1.063891E+0	1.065306E+0	1.084358E+0	1.092334E+0	1.101816E+0	1.099262E+0	1.020253E+0	1.099360E+0	1.073545E+0	1.102002E+0	1.088972E+0	1.064888E+0	1.060483E+0	1.083877E+0	1.018209E+0	1.084203E+0	1.107956E+0	1.127271E+0	1.122074E+0	1.041439E+0	1.091832E+0	1.055629E+0	1.107467E+0	1.057784E+0	1.110449E+0	1.078109E+0	1.066585E+0	1.073401E+0	1.046575E+0	1.104810E+0	1.015196E+0	1.101453E+0	1.082173E+0	1.033835E+0	1.044782E+0	1.058892E+0	1.081591E+0	1.100534E+0	1.067753E+0	1.042213E+0	1.058777E+0	1.090165E+0	1.130417E+0	1.090970E+0	1.075671E+0	1.086585E+0	1.045063E+0	1.098743E+0	1.102629E+0	1.064527E+0	1.065755E+0	1.097058E+0	1.051088E+0	1.041887E+0	1.050532E+0	1.066743E+0	1.057133E+0	1.063463E+0	1.069289E+0	1.058815E+0	1.093215E+0	1.049873E+0	1.053139E+0	1.050280E+0	1.075847E+0	1.030555E+0	1.104398E+0	1.069410E+0	1.066955E+0	1.085814E+0
5.422670E+2	1.025520E+0	9.681223E-1	9.803584E-1	9.569501E-1	1.032146E+0	9.816315E-1	9.870530E-1	9.924312E-1	9.696939E-1	9.776722E-1	9.730291E-1	1.002162E+0	9.545607E-1	9.722801E-1	9.697241E-1	9.887898E-1	9.193382E-1	9.629275E-1	9.647999E-1	1.028649E+0	9.669511E-1	9.768324E-1	9.659435E-1	9.741615E-1	9.938386E-1	9.869917E-1	9.955081E-1	1.001242E+0	1.009411E+0	9.920603E-1	1.032127E+0	9.735109E-1	1.013740E+0	9.600469E-1	9.569180E-1	9.907619E-1	9.576943E-1	9.982491E-1	9.730323E-1	9.458243E-1	9.786337E-1	9.957821E-1	9.546295E-1	1.023309E+0	9.685544E-1	1.029479E+0	9.847337E-1	9.708105E-1	9.841398E-1	1.011896E+0	9.735851E-1	1.001805E+0	9.616896E-1	1.004402E+0	9.403514E-1	9.679580E-1	1.012533E+0	9.965585E-1	1.004977E+0	9.520516E-1	9.257557E-1	9.963922E-1	1.008798E+0	9.544137E-1	1.019629E+0	9.870526E-1	9.996082E-1	9.798823E-1	9.753540E-1	1.013320E+0	1.014572E+0	9.969602E-1	9.795780E-1	9.819891E-1	9.671552E-1	9.842538E-1	9.821824E-1	9.707719E-1	9.704350E-1	9.260451E-1	9.399610E-1	9.738730E-1	1.008342E+0	9.935701E-1	9.436049E-1	1.012139E+0	9.280552E-1	9.492545E-1	9.785268E-1	9.710142E-1	9.651880E-1	9.711719E-1	9.830518E-1	9.695984E-1	9.644593E-1	9.837300E-1	9.754903E-1	1.017911E+0	9.764796E-1	9.540254E-1	9.941189E-1	9.936885E-1	9.659351E-1	9.914620E-1	1.002170E+0	9.889832E-1	9.668353E-1	9.591361E-1	9.962714E-1	9.453467E-1	9.670260E-1	9.478656E-1	9.671162E-1	1.000861E+0	9.630532E-1	9.995791E-1	1.020527E+0	1.011009E+0	9.546888E-1	9.567443E-1	9.771990E-1	9.550894E-1	9.427528E-1	9.918372E-1	9.648487E-1	1.001907E+0	9.655801E-1	9.194871E-1	9.806107E-1	1.014767E+0	9.636494E-1	9.422715E-1	1.002631E+0	1.017587E+0	9.813851E-1	9.630095E-1	1.000995E+0	9.709854E-1	9.901913E-1	1.008791E+0	9.543556E-1	9.478755E-1	9.854948E-1	1.033747E+0	1.018429E+0	1.003067E+0	9.804929E-1	1.037647E+0	9.698640E-1	9.922071E-1	9.749195E-1	9.711947E-1	9.631876E-1	9.618220E-1	1.023107E+0	9.217620E-1	1.003352E+0	9.619144E-1	9.529483E-1	9.851324E-1	9.410675E-1	9.720219E-1	9.907225E-1	9.675857E-1	1.018663E+0	1.007505E+0	1.035287E+0	9.726397E-1	9.945147E-1	9.738132E-1
5.425300E+2	9.691572E-1	9.316404E-1	9.221594E-1	1.026297E+0	9.618672E-1	9.464629E-1	9.140949E-1	9.732342E-1	1.011911E+0	1.021873E+0	9.844054E-1	9.760139E-1	9.666709E-1	9.900410E-1	9.721210E-1	9.807626E-1	9.687223E-1	9.874152E-1	9.604282E-1	9.530779E-1	9.534974E-1	9.938057E-1	9.678330E-1	9.759309E-1	1.013612E+0	1.010619E+0	1.014565E+0	9.886470E-1	9.604382E-1	1.036938E+0	9.648830E-1	9.968724E-1	1.013191E+0	1.014226E+0	9.783888E-1	9.980298E-1	9.553739E-1	9.994900E-1	9.629143E-1	9.629673E-1	9.800425E-1	9.602269E-1	9.680266E-1	9.735577E-1	9.963390E-1	9.680663E-1	1.027039E+0	9.714995E-1	9.174239E-1	9.833804E-1	1.046075E+0	9.468720E-1	9.598619E-1	9.788933E-1	9.724003E-1	9.708792E-1	1.032071E+0	1.007114E+0	9.741865E-1	9.914008E-1	9.833084E-1	1.004489E+0	1.008497E+0	9.932953E-1	1.018413E+0	9.820529E-1	9.513402E-1	9.199618E-1	9.105904E-1	9.823483E-1	9.915093E-1	9.764404E-1	9.490479E-1	9.704087E-1	9.527477E-1	9.539619E-1	1.031350E+0	9.253138E-1	9.693712E-1	9.627633E-1	1.005238E+0	1.014477E+0	9.949060E-1	9.181282E-1	9.632801E-1	9.521019E-1	9.502102E-1	9.438833E-1	9.709891E-1	9.715432E-1	9.869393E-1	9.446176E-1	9.595771E-1	9.551612E-1	9.602292E-1	9.527522E-1	9.311481E-1	9.859530E-1	9.513474E-1	9.402458E-1	9.651125E-1	9.494577E-1	9.277868E-1	9.744982E-1	9.550660E-1	9.650685E-1	9.838795E-1	9.678597E-1	9.735788E-1	1.031771E+0	9.393968E-1	9.513873E-1	9.434529E-1	9.852721E-1	9.319787E-1	9.798776E-1	9.625193E-1	9.650780E-1	9.573966E-1	9.569470E-1	9.656397E-1	9.635151E-1	9.294888E-1	9.584548E-1	9.559510E-1	1.002651E+0	9.733310E-1	9.632734E-1	9.852177E-1	1.026063E+0	9.988627E-1	9.597550E-1	9.958149E-1	9.868467E-1	9.509690E-1	9.757878E-1	9.758375E-1	9.863237E-1	9.858836E-1	9.654521E-1	9.569773E-1	9.617504E-1	9.857441E-1	9.636276E-1	9.921929E-1	9.802421E-1	1.014420E+0	9.308975E-1	9.684717E-1	1.001149E+0	9.699701E-1	9.979338E-1	9.569922E-1	9.910096E-1	9.732295E-1	9.436831E-1	9.476404E-1	9.443916E-1	9.857303E-1	9.650518E-1	9.411381E-1	9.410194E-1	9.498686E-1	9.803884E-1	9.579400E-1	9.644176E-1	9.449446E-1	9.210959E-1	9.312560E-1	1.005670E+0
5.427650E+2	1.120953E+0	1.037640E+0	1.003385E+0	9.893445E-1	1.033703E+0	1.018817E+0	1.003171E+0	1.030166E+0	1.030210E+0	1.064488E+0	1.000030E+0	1.047365E+0	1.030161E+0	1.047348E+0	1.010088E+0	1.067622E+0	1.078738E+0	1.017801E+0	1.041859E+0	1.069868E+0	9.778297E-1	1.052112E+0	1.037480E+0	1.018298E+0	1.074313E+0	1.082482E+0	1.024236E+0	1.049315E+0	1.095840E+0	1.039317E+0	1.037413E+0	1.057220E+0	1.064155E+0	1.063813E+0	1.084126E+0	1.070610E+0	1.051736E+0	1.042711E+0	1.064784E+0	1.027124E+0	1.032602E+0	1.060772E+0	1.005846E+0	1.055006E+0	1.050891E+0	1.063073E+0	1.038054E+0	1.050159E+0	1.027534E+0	1.101458E+0	1.049441E+0	1.037761E+0	1.091297E+0	1.000154E+0	1.059968E+0	1.033172E+0	1.062636E+0	1.108518E+0	1.090428E+0	1.072342E+0	1.085893E+0	1.067482E+0	1.018651E+0	1.082741E+0	1.075020E+0	1.012041E+0	1.040836E+0	1.005382E+0	1.015299E+0	1.053437E+0	1.010888E+0	1.045992E+0	1.040275E+0	1.103123E+0	1.073303E+0	9.731351E-1	1.069287E+0	1.040938E+0	1.053853E+0	1.038670E+0	1.047465E+0	1.070218E+0	1.040798E+0	1.046732E+0	1.071298E+0	1.058748E+0	1.010152E+0	1.027468E+0	1.063948E+0	1.006308E+0	1.066264E+0	1.091838E+0	1.030671E+0	1.032327E+0	1.060163E+0	1.039761E+0	1.000338E+0	9.856518E-1	1.038928E+0	1.014092E+0	1.012901E+0	1.015890E+0	1.080688E+0	1.096191E+0	1.088983E+0	1.029741E+0	1.065297E+0	1.095241E+0	1.015182E+0	1.054333E+0	1.005653E+0	1.022846E+0	1.026246E+0	1.031978E+0	1.028292E+0	1.076936E+0	1.047440E+0	1.064416E+0	1.007489E+0	1.017351E+0	1.037662E+0	1.017809E+0	1.021712E+0	1.062005E+0	1.045798E+0	1.011235E+0	1.046016E+0	1.048815E+0	1.075542E+0	1.067330E+0	1.034330E+0	9.897441E-1	1.077487E+0	1.089390E+0	1.005587E+0	1.050387E+0	1.072305E+0	1.078370E+0	1.023503E+0	1.039677E+0	1.010178E+0	1.015817E+0	1.063581E+0	1.071738E+0	1.057827E+0	1.015217E+0	1.038211E+0	1.037215E+0	1.007779E+0	1.031206E+0	1.054093E+0	1.035494E+0	1.036993E+0	1.033393E+0	1.085492E+0	1.050524E+0	1.024299E+0	1.041592E+0	1.061151E+0	1.053285E+0	1.081115E+0	9.672806E-1	9.844797E-1	1.029854E+0	1.045675E+0	1.066154E+0	1.000171E+0	1.089425E+0	1.035083E+0	1.098938E+0
5.430170E+2	1.226103E+0	1.160714E+0	1.125405E+0	1.152975E+0	1.161808E+0	1.155757E+0	1.172043E+0	1.161382E+0	1.184315E+0	1.204997E+0	1.174509E+0	1.155260E+0	1.188113E+0	1.197636E+0	1.207465E+0	1.189368E+0	1.177172E+0	1.202043E+0	1.168432E+0	1.169436E+0	1.141897E+0	1.114931E+0	1.150155E+0	1.175899E+0	1.259302E+0	1.153172E+0	1.250790E+0	1.186148E+0	1.184954E+0	1.170064E+0	1.233406E+0	1.225347E+0	1.219219E+0	1.230390E+0	1.181323E+0	1.239613E+0	1.201829E+0	1.188082E+0	1.172909E+0	1.179148E+0	1.184933E+0	1.212429E+0	1.157880E+0	1.220461E+0	1.172148E+0	1.193900E+0	1.197771E+0	1.208356E+0	1.144329E+0	1.222966E+0	1.148776E+0	1.174135E+0	1.218526E+0	1.179280E+0	1.210292E+0	1.217679E+0	1.231480E+0	1.181850E+0	1.201292E+0	1.172516E+0	1.161689E+0	1.185821E+0	1.178160E+0	1.182338E+0	1.252524E+0	1.143790E+0	1.207970E+0	1.170668E+0	1.167960E+0	1.217744E+0	1.198026E+0	1.204568E+0	1.138450E+0	1.130360E+0	1.216671E+0	1.227126E+0	1.179301E+0	1.177199E+0	1.154815E+0	1.184721E+0	1.198593E+0	1.208283E+0	1.203852E+0	1.163953E+0	1.159965E+0	1.175847E+0	1.174392E+0	1.163859E+0	1.157727E+0	1.139258E+0	1.156066E+0	1.140085E+0	1.181271E+0	1.189440E+0	1.121749E+0	1.159311E+0	1.209673E+0	1.225526E+0	1.186577E+0	1.186215E+0	1.209284E+0	1.153811E+0	1.218383E+0	1.156839E+0	1.212135E+0	1.202990E+0	1.179079E+0	1.225717E+0	1.201943E+0	1.209184E+0	1.183264E+0	1.188594E+0	1.198577E+0	1.173438E+0	1.172962E+0	1.165827E+0	1.191292E+0	1.194920E+0	1.184295E+0	1.172064E+0	1.213323E+0	1.148492E+0	1.155920E+0	1.153829E+0	1.247665E+0	1.151713E+0	1.174316E+0	1.145452E+0	1.153106E+0	1.189098E+0	1.158187E+0	1.159844E+0	1.238535E+0	1.189479E+0	1.149097E+0	1.186682E+0	1.158844E+0	1.177497E+0	1.189216E+0	1.196054E+0	1.186568E+0	1.194415E+0	1.189689E+0	1.169726E+0	1.178930E+0	1.167860E+0	1.156889E+0	1.160743E+0	1.156139E+0	1.165961E+0	1.176738E+0	1.163557E+0	1.149060E+0	1.183404E+0	1.141973E+0	1.223657E+0	1.173903E+0	1.185652E+0	1.167661E+0	1.200854E+0	1.162322E+0	1.192744E+0	1.177146E+0	1.184809E+0	1.157550E+0	1.192002E+0	1.199719E+0	1.123841E+0	1.185879E+0	1.162924E+0
5.432800E+2	1.379455E+0	1.352151E+0	1.289345E+0	1.272715E+0	1.348629E+0	1.366917E+0	1.311747E+0	1.316933E+0	1.364049E+0	1.390689E+0	1.324963E+0	1.318326E+0	1.317379E+0	1.307836E+0	1.321337E+0	1.390687E+0	1.355593E+0	1.363796E+0	1.324274E+0	1.312333E+0	1.347659E+0	1.271148E+0	1.342042E+0	1.307717E+0	1.382398E+0	1.370957E+0	1.357447E+0	1.345147E+0	1.433790E+0	1.359119E+0	1.360278E+0	1.382486E+0	1.343477E+0	1.363326E+0	1.374749E+0	1.283021E+0	1.396532E+0	1.374684E+0	1.342967E+0	1.335608E+0	1.315013E+0	1.319532E+0	1.316047E+0	1.370145E+0	1.394350E+0	1.343170E+0	1.366724E+0	1.361155E+0	1.302859E+0	1.381955E+0	1.387213E+0	1.370489E+0	1.353445E+0	1.352199E+0	1.302541E+0	1.338097E+0	1.306991E+0	1.386702E+0	1.376379E+0	1.339564E+0	1.366291E+0	1.359285E+0	1.345257E+0	1.373908E+0	1.385997E+0	1.346117E+0	1.295956E+0	1.292798E+0	1.350724E+0	1.322772E+0	1.363637E+0	1.290754E+0	1.328963E+0	1.339342E+0	1.314887E+0	1.335089E+0	1.349609E+0	1.328121E+0	1.360603E+0	1.391767E+0	1.388078E+0	1.314985E+0	1.343295E+0	1.261199E+0	1.380621E+0	1.360908E+0	1.244217E+0	1.333574E+0	1.313872E+0	1.364751E+0	1.363365E+0	1.343990E+0	1.297576E+0	1.373590E+0	1.303605E+0	1.332901E+0	1.307156E+0	1.364901E+0	1.299537E+0	1.321506E+0	1.362339E+0	1.328829E+0	1.346929E+0	1.291764E+0	1.355945E+0	1.320476E+0	1.358875E+0	1.355127E+0	1.314435E+0	1.321425E+0	1.314624E+0	1.318166E+0	1.332482E+0	1.362151E+0	1.297906E+0	1.340618E+0	1.324510E+0	1.285451E+0	1.357380E+0	1.320528E+0	1.389904E+0	1.321838E+0	1.352028E+0	1.302249E+0	1.315955E+0	1.299983E+0	1.318066E+0	1.316020E+0	1.367946E+0	1.358543E+0	1.277549E+0	1.312021E+0	1.389664E+0	1.343676E+0	1.273100E+0	1.321316E+0	1.385448E+0	1.372282E+0	1.306051E+0	1.366690E+0	1.330246E+0	1.308644E+0	1.350457E+0	1.349780E+0	1.309871E+0	1.293312E+0	1.289088E+0	1.313762E+0	1.367294E+0	1.364117E+0	1.317780E+0	1.313937E+0	1.300767E+0	1.343068E+0	1.328770E+0	1.290713E+0	1.344615E+0	1.318600E+0	1.337171E+0	1.375458E+0	1.349824E+0	1.317276E+0	1.320271E+0	1.312170E+0	1.307101E+0	1.307005E+0	1.338787E+0	1.360620E+0	1.304535E+0	1.399288E+0
5.435540E+2	1.534092E+0	1.456277E+0	1.473378E+0	1.469110E+0	1.489994E+0	1.483787E+0	1.486596E+0	1.484428E+0	1.498088E+0	1.500574E+0	1.488040E+0	1.496439E+0	1.521695E+0	1.472364E+0	1.480277E+0	1.495134E+0	1.499427E+0	1.556565E+0	1.498647E+0	1.523222E+0	1.479484E+0	1.491400E+0	1.474202E+0	1.521755E+0	1.541762E+0	1.459526E+0	1.409971E+0	1.449818E+0	1.514041E+0	1.519058E+0	1.460999E+0	1.534031E+0	1.469757E+0	1.495782E+0	1.494154E+0	1.531155E+0	1.490165E+0	1.519375E+0	1.469500E+0	1.485543E+0	1.474417E+0	1.490716E+0	1.450913E+0	1.527479E+0	1.521495E+0	1.503497E+0	1.507503E+0	1.503913E+0	1.433179E+0	1.472034E+0	1.476874E+0	1.473330E+0	1.439159E+0	1.497146E+0	1.465730E+0	1.488328E+0	1.450899E+0	1.477974E+0	1.485167E+0	1.481029E+0	1.470859E+0	1.486954E+0	1.528564E+0	1.465705E+0	1.505741E+0	1.432916E+0	1.471433E+0	1.456859E+0	1.441971E+0	1.528281E+0	1.528995E+0	1.466680E+0	1.445947E+0	1.477885E+0	1.500483E+0	1.470415E+0	1.462095E+0	1.495134E+0	1.503783E+0	1.496388E+0	1.435070E+0	1.477051E+0	1.481527E+0	1.440500E+0	1.488173E+0	1.480750E+0	1.438392E+0	1.457251E+0	1.478298E+0	1.462691E+0	1.458910E+0	1.494909E+0	1.499465E+0	1.451121E+0	1.445587E+0	1.442609E+0	1.441425E+0	1.484598E+0	1.427101E+0	1.472915E+0	1.488951E+0	1.466567E+0	1.458443E+0	1.445214E+0	1.460731E+0	1.421717E+0	1.465312E+0	1.561189E+0	1.499539E+0	1.488199E+0	1.514537E+0	1.459224E+0	1.472022E+0	1.487092E+0	1.440969E+0	1.494125E+0	1.492708E+0	1.450710E+0	1.448935E+0	1.463809E+0	1.491484E+0	1.441039E+0	1.416050E+0	1.519577E+0	1.497700E+0	1.461189E+0	1.471635E+0	1.447420E+0	1.451757E+0	1.477649E+0	1.456008E+0	1.496625E+0	1.560260E+0	1.446705E+0	1.432781E+0	1.406162E+0	1.493692E+0	1.437318E+0	1.477388E+0	1.504617E+0	1.465795E+0	1.479961E+0	1.505175E+0	1.439570E+0	1.441283E+0	1.453479E+0	1.470582E+0	1.491494E+0	1.428418E+0	1.469866E+0	1.508948E+0	1.469060E+0	1.427631E+0	1.466164E+0	1.453886E+0	1.462084E+0	1.449940E+0	1.451741E+0	1.500927E+0	1.478111E+0	1.446331E+0	1.455118E+0	1.439973E+0	1.427631E+0	1.456658E+0	1.455424E+0	1.438069E+0	1.469280E+0	1.534555E+0	1.441048E+0
5.437640E+2	1.548457E+0	1.461697E+0	1.572598E+0	1.543089E+0	1.628915E+0	1.561991E+0	1.518001E+0	1.526299E+0	1.587814E+0	1.584710E+0	1.590637E+0	1.574820E+0	1.562272E+0	1.540456E+0	1.520255E+0	1.615439E+0	1.557308E+0	1.580697E+0	1.560168E+0	1.542046E+0	1.529385E+0	1.531898E+0	1.496674E+0	1.597562E+0	1.615765E+0	1.499052E+0	1.574457E+0	1.607316E+0	1.522528E+0	1.540741E+0	1.540420E+0	1.594859E+0	1.541880E+0	1.525227E+0	1.561176E+0	1.553406E+0	1.543113E+0	1.515430E+0	1.470290E+0	1.524882E+0	1.556098E+0	1.568749E+0	1.498274E+0	1.572707E+0	1.536820E+0	1.552990E+0	1.561870E+0	1.565792E+0	1.533828E+0	1.553555E+0	1.518303E+0	1.552933E+0	1.542833E+0	1.569703E+0	1.574333E+0	1.544522E+0	1.570034E+0	1.595378E+0	1.557484E+0	1.569454E+0	1.538039E+0	1.543029E+0	1.573745E+0	1.549068E+0	1.637748E+0	1.597206E+0	1.567259E+0	1.576726E+0	1.539630E+0	1.568706E+0	1.547344E+0	1.557790E+0	1.512854E+0	1.547745E+0	1.567309E+0	1.614782E+0	1.581551E+0	1.540399E+0	1.468910E+0	1.555043E+0	1.523410E+0	1.514504E+0	1.609173E+0	1.550759E+0	1.557684E+0	1.549114E+0	1.486560E+0	1.487881E+0	1.539308E+0	1.502679E+0	1.528370E+0	1.557595E+0	1.553601E+0	1.578476E+0	1.556369E+0	1.549987E+0	1.534681E+0	1.514209E+0	1.547385E+0	1.567746E+0	1.541167E+0	1.469442E+0	1.555621E+0	1.575625E+0	1.592103E+0	1.534287E+0	1.590870E+0	1.515990E+0	1.565970E+0	1.530467E+0	1.510709E+0	1.528952E+0	1.535172E+0	1.540453E+0	1.493152E+0	1.573298E+0	1.524224E+0	1.553561E+0	1.523083E+0	1.508868E+0	1.553295E+0	1.526990E+0	1.504973E+0	1.512829E+0	1.582031E+0	1.519939E+0	1.552260E+0	1.514390E+0	1.521292E+0	1.550010E+0	1.577334E+0	1.576971E+0	1.607864E+0	1.567765E+0	1.544870E+0	1.479436E+0	1.577463E+0	1.517372E+0	1.545361E+0	1.515273E+0	1.503398E+0	1.494662E+0	1.530802E+0	1.530822E+0	1.582407E+0	1.521036E+0	1.505313E+0	1.554122E+0	1.468833E+0	1.487579E+0	1.553755E+0	1.570687E+0	1.514972E+0	1.523557E+0	1.509005E+0	1.526504E+0	1.553529E+0	1.503341E+0	1.518641E+0	1.519702E+0	1.521429E+0	1.513230E+0	1.539928E+0	1.566408E+0	1.545557E+0	1.524721E+0	1.449130E+0	1.572322E+0	1.532597E+0	1.479103E+0
5.440120E+2	1.695221E+0	1.610105E+0	1.674208E+0	1.612901E+0	1.665317E+0	1.645800E+0	1.570031E+0	1.646858E+0	1.650102E+0	1.646526E+0	1.632875E+0	1.593357E+0	1.646100E+0	1.639090E+0	1.627334E+0	1.677901E+0	1.598176E+0	1.683852E+0	1.671146E+0	1.572194E+0	1.671199E+0	1.594669E+0	1.568972E+0	1.684879E+0	1.607411E+0	1.616382E+0	1.579289E+0	1.611071E+0	1.559110E+0	1.607833E+0	1.680572E+0	1.630193E+0	1.525176E+0	1.598362E+0	1.595331E+0	1.654237E+0	1.594346E+0	1.647297E+0	1.581396E+0	1.612236E+0	1.647907E+0	1.647759E+0	1.571005E+0	1.589566E+0	1.665888E+0	1.621881E+0	1.642821E+0	1.652179E+0	1.579294E+0	1.613753E+0	1.554940E+0	1.657038E+0	1.593970E+0	1.639940E+0	1.580733E+0	1.612002E+0	1.592190E+0	1.660468E+0	1.633934E+0	1.618800E+0	1.618911E+0	1.617403E+0	1.635794E+0	1.636244E+0	1.651988E+0	1.569892E+0	1.686654E+0	1.556998E+0	1.630794E+0	1.655163E+0	1.604664E+0	1.605968E+0	1.589926E+0	1.653605E+0	1.635959E+0	1.582720E+0	1.603321E+0	1.558140E+0	1.605671E+0	1.651902E+0	1.613684E+0	1.608617E+0	1.618079E+0	1.589147E+0	1.582784E+0	1.576599E+0	1.563781E+0	1.606028E+0	1.635681E+0	1.577238E+0	1.623857E+0	1.619776E+0	1.618645E+0	1.570798E+0	1.599290E+0	1.644156E+0	1.598095E+0	1.576159E+0	1.633204E+0	1.631672E+0	1.636269E+0	1.503853E+0	1.606007E+0	1.598547E+0	1.609650E+0	1.562214E+0	1.606236E+0	1.618368E+0	1.596594E+0	1.598172E+0	1.584642E+0	1.563578E+0	1.552435E+0	1.638492E+0	1.594207E+0	1.616909E+0	1.575234E+0	1.619683E+0	1.619929E+0	1.588109E+0	1.582296E+0	1.579586E+0	1.574117E+0	1.661144E+0	1.574798E+0	1.599020E+0	1.567812E+0	1.597345E+0	1.615443E+0	1.613194E+0	1.611833E+0	1.548834E+0	1.623393E+0	1.571609E+0	1.553707E+0	1.579128E+0	1.606649E+0	1.567975E+0	1.602862E+0	1.561498E+0	1.606666E+0	1.552328E+0	1.636399E+0	1.634673E+0	1.586361E+0	1.577244E+0	1.628553E+0	1.602500E+0	1.577794E+0	1.623486E+0	1.617783E+0	1.589496E+0	1.565065E+0	1.556450E+0	1.601814E+0	1.622919E+0	1.602188E+0	1.568770E+0	1.627465E+0	1.670362E+0	1.637223E+0	1.545825E+0	1.616638E+0	1.569494E+0	1.632640E+0	1.641145E+0	1.583011E+0	1.551210E+0	1.530598E+0	1.606181E+0
5.442860E+2	1.671150E+0	1.639219E+0	1.695355E+0	1.567651E+0	1.680627E+0	1.652425E+0	1.687457E+0	1.617703E+0	1.622482E+0	1.701883E+0	1.617850E+0	1.651566E+0	1.642456E+0	1.635546E+0	1.620934E+0	1.673398E+0	1.621200E+0	1.604996E+0	1.685775E+0	1.665101E+0	1.628655E+0	1.611746E+0	1.617959E+0	1.605353E+0	1.674102E+0	1.597684E+0	1.615714E+0	1.620211E+0	1.642894E+0	1.614666E+0	1.693197E+0	1.654018E+0	1.608714E+0	1.667391E+0	1.585467E+0	1.647273E+0	1.633019E+0	1.604871E+0	1.613304E+0	1.589447E+0	1.675565E+0	1.670866E+0	1.633336E+0	1.680394E+0	1.578995E+0	1.587046E+0	1.629468E+0	1.646519E+0	1.563305E+0	1.653123E+0	1.659713E+0	1.634319E+0	1.624240E+0	1.610916E+0	1.604439E+0	1.691942E+0	1.686664E+0	1.601448E+0	1.639355E+0	1.638221E+0	1.646333E+0	1.639403E+0	1.619421E+0	1.628171E+0	1.653553E+0	1.626083E+0	1.729227E+0	1.601280E+0	1.618717E+0	1.669441E+0	1.612484E+0	1.588484E+0	1.644377E+0	1.599318E+0	1.653667E+0	1.622331E+0	1.661167E+0	1.605307E+0	1.646650E+0	1.637089E+0	1.636969E+0	1.623981E+0	1.596320E+0	1.594873E+0	1.613353E+0	1.608563E+0	1.583785E+0	1.607289E+0	1.665472E+0	1.641713E+0	1.643564E+0	1.669591E+0	1.643992E+0	1.581328E+0	1.614904E+0	1.580134E+0	1.564962E+0	1.619357E+0	1.650187E+0	1.608107E+0	1.606528E+0	1.589055E+0	1.638015E+0	1.626996E+0	1.662497E+0	1.653317E+0	1.670564E+0	1.575458E+0	1.597229E+0	1.616015E+0	1.609134E+0	1.582963E+0	1.577564E+0	1.599862E+0	1.559894E+0	1.642160E+0	1.641136E+0	1.651389E+0	1.588634E+0	1.568728E+0	1.619940E+0	1.593895E+0	1.584117E+0	1.677583E+0	1.568253E+0	1.561916E+0	1.599866E+0	1.607624E+0	1.578815E+0	1.644790E+0	1.626265E+0	1.585086E+0	1.630628E+0	1.608539E+0	1.629522E+0	1.568962E+0	1.649659E+0	1.610849E+0	1.586429E+0	1.571602E+0	1.629598E+0	1.609932E+0	1.681275E+0	1.575551E+0	1.659966E+0	1.665611E+0	1.643448E+0	1.584523E+0	1.561677E+0	1.632384E+0	1.610536E+0	1.614195E+0	1.625077E+0	1.601089E+0	1.600877E+0	1.601631E+0	1.611485E+0	1.561432E+0	1.615936E+0	1.604286E+0	1.569052E+0	1.560310E+0	1.616519E+0	1.607784E+0	1.617962E+0	1.658086E+0	1.594119E+0	1.577839E+0	1.621447E+0	1.690955E+0
5.445290E+2	1.627370E+0	1.575412E+0	1.607499E+0	1.566761E+0	1.661492E+0	1.620544E+0	1.558321E+0	1.622646E+0	1.609481E+0	1.555643E+0	1.601073E+0	1.631053E+0	1.592520E+0	1.604944E+0	1.631172E+0	1.660980E+0	1.588381E+0	1.614067E+0	1.541271E+0	1.615702E+0	1.610776E+0	1.624104E+0	1.571996E+0	1.620019E+0	1.586573E+0	1.616804E+0	1.573951E+0	1.593788E+0	1.543264E+0	1.603260E+0	1.592922E+0	1.665629E+0	1.583004E+0	1.542362E+0	1.580975E+0	1.633218E+0	1.585750E+0	1.606372E+0	1.581508E+0	1.533152E+0	1.586564E+0	1.606689E+0	1.573146E+0	1.606645E+0	1.559186E+0	1.589957E+0	1.581300E+0	1.522230E+0	1.552008E+0	1.611239E+0	1.575932E+0	1.629677E+0	1.600084E+0	1.614748E+0	1.551230E+0	1.598768E+0	1.641488E+0	1.509914E+0	1.607174E+0	1.661500E+0	1.580388E+0	1.575637E+0	1.593154E+0	1.565809E+0	1.625605E+0	1.523744E+0	1.598226E+0	1.615010E+0	1.594115E+0	1.579436E+0	1.590819E+0	1.611040E+0	1.544559E+0	1.562697E+0	1.580211E+0	1.604147E+0	1.602278E+0	1.596022E+0	1.578383E+0	1.606666E+0	1.598981E+0	1.589182E+0	1.622020E+0	1.528818E+0	1.641146E+0	1.562070E+0	1.539369E+0	1.559697E+0	1.565004E+0	1.540276E+0	1.567294E+0	1.625945E+0	1.581537E+0	1.591418E+0	1.648239E+0	1.612103E+0	1.589606E+0	1.598736E+0	1.580171E+0	1.561242E+0	1.586270E+0	1.567841E+0	1.587511E+0	1.610693E+0	1.626990E+0	1.527439E+0	1.591213E+0	1.577525E+0	1.589844E+0	1.591161E+0	1.603911E+0	1.591402E+0	1.555268E+0	1.596707E+0	1.565677E+0	1.535130E+0	1.557662E+0	1.630830E+0	1.632821E+0	1.578147E+0	1.560623E+0	1.546921E+0	1.574165E+0	1.619802E+0	1.564924E+0	1.592145E+0	1.570450E+0	1.565966E+0	1.595620E+0	1.631261E+0	1.625644E+0	1.519167E+0	1.549530E+0	1.552232E+0	1.557942E+0	1.591897E+0	1.630522E+0	1.562953E+0	1.536667E+0	1.618551E+0	1.522047E+0	1.548415E+0	1.653499E+0	1.575766E+0	1.605157E+0	1.540552E+0	1.511196E+0	1.572553E+0	1.579815E+0	1.597839E+0	1.543312E+0	1.570575E+0	1.540521E+0	1.577583E+0	1.640128E+0	1.603164E+0	1.597227E+0	1.502170E+0	1.584966E+0	1.578523E+0	1.553119E+0	1.552149E+0	1.619192E+0	1.628055E+0	1.594839E+0	1.592633E+0	1.541552E+0	1.524022E+0	1.589631E+0	1.585698E+0
5.447660E+2	1.625719E+0	1.495087E+0	1.536881E+0	1.454116E+0	1.496816E+0	1.519009E+0	1.467040E+0	1.517063E+0	1.470761E+0	1.500774E+0	1.530061E+0	1.542888E+0	1.480784E+0	1.471711E+0	1.506840E+0	1.561824E+0	1.534654E+0	1.532217E+0	1.525997E+0	1.517985E+0	1.516907E+0	1.474705E+0	1.538352E+0	1.504139E+0	1.504467E+0	1.473195E+0	1.470495E+0	1.511394E+0	1.478652E+0	1.489557E+0	1.491054E+0	1.499204E+0	1.495748E+0	1.497248E+0	1.501318E+0	1.558690E+0	1.488197E+0	1.485385E+0	1.510966E+0	1.500525E+0	1.460935E+0	1.508020E+0	1.435493E+0	1.505520E+0	1.494039E+0	1.563105E+0	1.488051E+0	1.537451E+0	1.495946E+0	1.522913E+0	1.503821E+0	1.476627E+0	1.481693E+0	1.508611E+0	1.450686E+0	1.490064E+0	1.506803E+0	1.530272E+0	1.450643E+0	1.526200E+0	1.502648E+0	1.463031E+0	1.479777E+0	1.495159E+0	1.602244E+0	1.472390E+0	1.517342E+0	1.436998E+0	1.472176E+0	1.524002E+0	1.529733E+0	1.458159E+0	1.517975E+0	1.505721E+0	1.540358E+0	1.537186E+0	1.522114E+0	1.479306E+0	1.428364E+0	1.459266E+0	1.529317E+0	1.497861E+0	1.542463E+0	1.568615E+0	1.497502E+0	1.537747E+0	1.476825E+0	1.517055E+0	1.515688E+0	1.493608E+0	1.464167E+0	1.514585E+0	1.461906E+0	1.489827E+0	1.508252E+0	1.535010E+0	1.477849E+0	1.526716E+0	1.476441E+0	1.452842E+0	1.492517E+0	1.489006E+0	1.495514E+0	1.438090E+0	1.475994E+0	1.532188E+0	1.509025E+0	1.505251E+0	1.504368E+0	1.472225E+0	1.467837E+0	1.511495E+0	1.551382E+0	1.496901E+0	1.444272E+0	1.481859E+0	1.484910E+0	1.490893E+0	1.451654E+0	1.449917E+0	1.513805E+0	1.404492E+0	1.487538E+0	1.537338E+0	1.428322E+0	1.476722E+0	1.501288E+0	1.487968E+0	1.506610E+0	1.478871E+0	1.519935E+0	1.455968E+0	1.497416E+0	1.484976E+0	1.487179E+0	1.444082E+0	1.541656E+0	1.448522E+0	1.527398E+0	1.446913E+0	1.494956E+0	1.506058E+0	1.536353E+0	1.534882E+0	1.486929E+0	1.492096E+0	1.500738E+0	1.459981E+0	1.480415E+0	1.477955E+0	1.550433E+0	1.475182E+0	1.439498E+0	1.521164E+0	1.471893E+0	1.511892E+0	1.473164E+0	1.435767E+0	1.505296E+0	1.478478E+0	1.457721E+0	1.503049E+0	1.524731E+0	1.489642E+0	1.480614E+0	1.472673E+0	1.463189E+0	1.432667E+0	1.507350E+0	1.435969E+0
5.450200E+2	1.485222E+0	1.359754E+0	1.391213E+0	1.401741E+0	1.408936E+0	1.494438E+0	1.384852E+0	1.437016E+0	1.381170E+0	1.419695E+0	1.364580E+0	1.432586E+0	1.442440E+0	1.430008E+0	1.456645E+0	1.412277E+0	1.400655E+0	1.383425E+0	1.407453E+0	1.469091E+0	1.403210E+0	1.384247E+0	1.387427E+0	1.398474E+0	1.402715E+0	1.414797E+0	1.400171E+0	1.407261E+0	1.355609E+0	1.407138E+0	1.487889E+0	1.425459E+0	1.406244E+0	1.401742E+0	1.434543E+0	1.420269E+0	1.364558E+0	1.398371E+0	1.368182E+0	1.410490E+0	1.388812E+0	1.417885E+0	1.346575E+0	1.393142E+0	1.370558E+0	1.352864E+0	1.397535E+0	1.439835E+0	1.372296E+0	1.438045E+0	1.412577E+0	1.393603E+0	1.369956E+0	1.384812E+0	1.361572E+0	1.377119E+0	1.413083E+0	1.406094E+0	1.459869E+0	1.433424E+0	1.375750E+0	1.383841E+0	1.354795E+0	1.399679E+0	1.450514E+0	1.380540E+0	1.368729E+0	1.393467E+0	1.363826E+0	1.502823E+0	1.365825E+0	1.360057E+0	1.373920E+0	1.380125E+0	1.375489E+0	1.382497E+0	1.360170E+0	1.412199E+0	1.349102E+0	1.369962E+0	1.359991E+0	1.428616E+0	1.343805E+0	1.396950E+0	1.397146E+0	1.372465E+0	1.382799E+0	1.380351E+0	1.412919E+0	1.398002E+0	1.391720E+0	1.433852E+0	1.399061E+0	1.433223E+0	1.361263E+0	1.420871E+0	1.325098E+0	1.373553E+0	1.407282E+0	1.393271E+0	1.431464E+0	1.402731E+0	1.428850E+0	1.377004E+0	1.375740E+0	1.367280E+0	1.353753E+0	1.430501E+0	1.355284E+0	1.388323E+0	1.398819E+0	1.355895E+0	1.440956E+0	1.395359E+0	1.381825E+0	1.440813E+0	1.422062E+0	1.377399E+0	1.368698E+0	1.395583E+0	1.363435E+0	1.361280E+0	1.413947E+0	1.425899E+0	1.315434E+0	1.342469E+0	1.392082E+0	1.428607E+0	1.370278E+0	1.381204E+0	1.434919E+0	1.425828E+0	1.420343E+0	1.424187E+0	1.358752E+0	1.339717E+0	1.440982E+0	1.358311E+0	1.418093E+0	1.352484E+0	1.395672E+0	1.353909E+0	1.360880E+0	1.403099E+0	1.424838E+0	1.391148E+0	1.386326E+0	1.343262E+0	1.380130E+0	1.426069E+0	1.412462E+0	1.388511E+0	1.358735E+0	1.393831E+0	1.388506E+0	1.421680E+0	1.419065E+0	1.420044E+0	1.432038E+0	1.383634E+0	1.422838E+0	1.370092E+0	1.468246E+0	1.367830E+0	1.431998E+0	1.405054E+0	1.406506E+0	1.468935E+0	1.327339E+0	1.269054E+0
5.452740E+2	1.387549E+0	1.296002E+0	1.292595E+0	1.312109E+0	1.351436E+0	1.351224E+0	1.301481E+0	1.329249E+0	1.293822E+0	1.367208E+0	1.288062E+0	1.340802E+0	1.345683E+0	1.411534E+0	1.346917E+0	1.385090E+0	1.353995E+0	1.399256E+0	1.383156E+0	1.310819E+0	1.324733E+0	1.330445E+0	1.319195E+0	1.314093E+0	1.298802E+0	1.354475E+0	1.266487E+0	1.332396E+0	1.330840E+0	1.294453E+0	1.350177E+0	1.344094E+0	1.322367E+0	1.311701E+0	1.273127E+0	1.305633E+0	1.296846E+0	1.295257E+0	1.276831E+0	1.306620E+0	1.309655E+0	1.287763E+0	1.340698E+0	1.336826E+0	1.337353E+0	1.340019E+0	1.336130E+0	1.334740E+0	1.299495E+0	1.354904E+0	1.332485E+0	1.356416E+0	1.334333E+0	1.297489E+0	1.265692E+0	1.340609E+0	1.319544E+0	1.328691E+0	1.359554E+0	1.372616E+0	1.316037E+0	1.299751E+0	1.323492E+0	1.353156E+0	1.308981E+0	1.333839E+0	1.297139E+0	1.374306E+0	1.343815E+0	1.333784E+0	1.344650E+0	1.319564E+0	1.287098E+0	1.298188E+0	1.296032E+0	1.355838E+0	1.356994E+0	1.323946E+0	1.306631E+0	1.298759E+0	1.320054E+0	1.394009E+0	1.327702E+0	1.288382E+0	1.345628E+0	1.311360E+0	1.327371E+0	1.310188E+0	1.349329E+0	1.327316E+0	1.296382E+0	1.348261E+0	1.251384E+0	1.314482E+0	1.310650E+0	1.309234E+0	1.320459E+0	1.297061E+0	1.363411E+0	1.291656E+0	1.349434E+0	1.287771E+0	1.393057E+0	1.257020E+0	1.312805E+0	1.310957E+0	1.318847E+0	1.319557E+0	1.325998E+0	1.320685E+0	1.323064E+0	1.329622E+0	1.311711E+0	1.269926E+0	1.276843E+0	1.318615E+0	1.310810E+0	1.286802E+0	1.303592E+0	1.305484E+0	1.357422E+0	1.294986E+0	1.242147E+0	1.335149E+0	1.288873E+0	1.322503E+0	1.335370E+0	1.264796E+0	1.326333E+0	1.317021E+0	1.294691E+0	1.339633E+0	1.331580E+0	1.346581E+0	1.279528E+0	1.296271E+0	1.354379E+0	1.312889E+0	1.304455E+0	1.269246E+0	1.318588E+0	1.290399E+0	1.347391E+0	1.351645E+0	1.327606E+0	1.294326E+0	1.265696E+0	1.331657E+0	1.315259E+0	1.318665E+0	1.333723E+0	1.307423E+0	1.296336E+0	1.346989E+0	1.321080E+0	1.352056E+0	1.279175E+0	1.292745E+0	1.313964E+0	1.355333E+0	1.336826E+0	1.256753E+0	1.280248E+0	1.315145E+0	1.323781E+0	1.299720E+0	1.280493E+0	1.296429E+0	1.295536E+0	1.365948E+0
5.455290E+2	1.277231E+0	1.276362E+0	1.260012E+0	1.236921E+0	1.280300E+0	1.245305E+0	1.240509E+0	1.297270E+0	1.301957E+0	1.269077E+0	1.224728E+0	1.266790E+0	1.277687E+0	1.269942E+0	1.219626E+0	1.305731E+0	1.237291E+0	1.282730E+0	1.267930E+0	1.250960E+0	1.234154E+0	1.240426E+0	1.247733E+0	1.257759E+0	1.272034E+0	1.238504E+0	1.267279E+0	1.249176E+0	1.242768E+0	1.285462E+0	1.313087E+0	1.251846E+0	1.267870E+0	1.268184E+0	1.226403E+0	1.234583E+0	1.276943E+0	1.254850E+0	1.207463E+0	1.232559E+0	1.255717E+0	1.303223E+0	1.244937E+0	1.233442E+0	1.239120E+0	1.293580E+0	1.259857E+0	1.273001E+0	1.219386E+0	1.219854E+0	1.260572E+0	1.234929E+0	1.268519E+0	1.243072E+0	1.242397E+0	1.262259E+0	1.224234E+0	1.245030E+0	1.248075E+0	1.323952E+0	1.287368E+0	1.325397E+0	1.283132E+0	1.256769E+0	1.281114E+0	1.183011E+0	1.242564E+0	1.253881E+0	1.249736E+0	1.262305E+0	1.239716E+0	1.271661E+0	1.277949E+0	1.260918E+0	1.233780E+0	1.272442E+0	1.260109E+0	1.216708E+0	1.280063E+0	1.321239E+0	1.240203E+0	1.261690E+0	1.266624E+0	1.252899E+0	1.225769E+0	1.226908E+0	1.230303E+0	1.205992E+0	1.237216E+0	1.233364E+0	1.258364E+0	1.282934E+0	1.238827E+0	1.245892E+0	1.248317E+0	1.305818E+0	1.251433E+0	1.268207E+0	1.231595E+0	1.277720E+0	1.296015E+0	1.202537E+0	1.240590E+0	1.224976E+0	1.243165E+0	1.241177E+0	1.240294E+0	1.279471E+0	1.273636E+0	1.197677E+0	1.262077E+0	1.238149E+0	1.201368E+0	1.257268E+0	1.226699E+0	1.251197E+0	1.291535E+0	1.256020E+0	1.212742E+0	1.290597E+0	1.285780E+0	1.258045E+0	1.210238E+0	1.259951E+0	1.264388E+0	1.259236E+0	1.240052E+0	1.278696E+0	1.278717E+0	1.235471E+0	1.256756E+0	1.280535E+0	1.290942E+0	1.271149E+0	1.262307E+0	1.262632E+0	1.276246E+0	1.262737E+0	1.199252E+0	1.252978E+0	1.228088E+0	1.235216E+0	1.240899E+0	1.285682E+0	1.271286E+0	1.226484E+0	1.219191E+0	1.252897E+0	1.238322E+0	1.274128E+0	1.255725E+0	1.211119E+0	1.269346E+0	1.237417E+0	1.224527E+0	1.222847E+0	1.217906E+0	1.234830E+0	1.231429E+0	1.228385E+0	1.257330E+0	1.239157E+0	1.285479E+0	1.225488E+0	1.208150E+0	1.239594E+0	1.194818E+0	1.293197E+0	1.232627E+0	1.271671E+0
5.457990E+2	1.313511E+0	1.203829E+0	1.221437E+0	1.204952E+0	1.244454E+0	1.252826E+0	1.194577E+0	1.240547E+0	1.231646E+0	1.279805E+0	1.207432E+0	1.292739E+0	1.235053E+0	1.237525E+0	1.259157E+0	1.268523E+0	1.233900E+0	1.204172E+0	1.262295E+0	1.216205E+0	1.198952E+0	1.243915E+0	1.183194E+0	1.223816E+0	1.262333E+0	1.199695E+0	1.245947E+0	1.240677E+0	1.248132E+0	1.292633E+0	1.223859E+0	1.247869E+0	1.243603E+0	1.201997E+0	1.281855E+0	1.229766E+0	1.249661E+0	1.211952E+0	1.189439E+0	1.204179E+0	1.233967E+0	1.281419E+0	1.195774E+0	1.262962E+0	1.179107E+0	1.244884E+0	1.219049E+0	1.277574E+0	1.253163E+0	1.224851E+0	1.231022E+0	1.259972E+0	1.232206E+0	1.224804E+0	1.236756E+0	1.252443E+0	1.269380E+0	1.317119E+0	1.224156E+0	1.301050E+0	1.298959E+0	1.202690E+0	1.253160E+0	1.256115E+0	1.262928E+0	1.180341E+0	1.229134E+0	1.200431E+0	1.286523E+0	1.251636E+0	1.250852E+0	1.183226E+0	1.240682E+0	1.235615E+0	1.210029E+0	1.225907E+0	1.257742E+0	1.264781E+0	1.253234E+0	1.217899E+0	1.233904E+0	1.229870E+0	1.275053E+0	1.293602E+0	1.250199E+0	1.233823E+0	1.203912E+0	1.183236E+0	1.235122E+0	1.248392E+0	1.211887E+0	1.254954E+0	1.254389E+0	1.231743E+0	1.233045E+0	1.221281E+0	1.263328E+0	1.224313E+0	1.179936E+0	1.206052E+0	1.229515E+0	1.197670E+0	1.170873E+0	1.232373E+0	1.238120E+0	1.221121E+0	1.215784E+0	1.214205E+0	1.262037E+0	1.238313E+0	1.216221E+0	1.217303E+0	1.199953E+0	1.246332E+0	1.162985E+0	1.208588E+0	1.216080E+0	1.281760E+0	1.175787E+0	1.253703E+0	1.215873E+0	1.194864E+0	1.237565E+0	1.277452E+0	1.284600E+0	1.208011E+0	1.242688E+0	1.210224E+0	1.263461E+0	1.200128E+0	1.260697E+0	1.228539E+0	1.224741E+0	1.236153E+0	1.256517E+0	1.236555E+0	1.233185E+0	1.215357E+0	1.242827E+0	1.210912E+0	1.176083E+0	1.192695E+0	1.250138E+0	1.266554E+0	1.247624E+0	1.212669E+0	1.253280E+0	1.253719E+0	1.215626E+0	1.267351E+0	1.197733E+0	1.280160E+0	1.239606E+0	1.218446E+0	1.228464E+0	1.214604E+0	1.233576E+0	1.188213E+0	1.263380E+0	1.178934E+0	1.229717E+0	1.186410E+0	1.188242E+0	1.208612E+0	1.276481E+0	1.203771E+0	1.227528E+0	1.229430E+0	1.293539E+0	1.251713E+0
5.460060E+2	1.218425E+0	1.260279E+0	1.227480E+0	1.197854E+0	1.241442E+0	1.202949E+0	1.141673E+0	1.227921E+0	1.248342E+0	1.180253E+0	1.212972E+0	1.256475E+0	1.239189E+0	1.201291E+0	1.209120E+0	1.219838E+0	1.188287E+0	1.195524E+0	1.221378E+0	1.258477E+0	1.195273E+0	1.213870E+0	1.241707E+0	1.219233E+0	1.255901E+0	1.242929E+0	1.226944E+0	1.270983E+0	1.220995E+0	1.246090E+0	1.251062E+0	1.239798E+0	1.179403E+0	1.215028E+0	1.213671E+0	1.277056E+0	1.243689E+0	1.252634E+0	1.198697E+0	1.218260E+0	1.191222E+0	1.238173E+0	1.175504E+0	1.241945E+0	1.232736E+0	1.180255E+0	1.160002E+0	1.203841E+0	1.175186E+0	1.219735E+0	1.206085E+0	1.267787E+0	1.248167E+0	1.251797E+0	1.199650E+0	1.234380E+0	1.247107E+0	1.179523E+0	1.232556E+0	1.217018E+0	1.234580E+0	1.193486E+0	1.229950E+0	1.230956E+0	1.225065E+0	1.185984E+0	1.218593E+0	1.190869E+0	1.179284E+0	1.189320E+0	1.207676E+0	1.189693E+0	1.220087E+0	1.201212E+0	1.175543E+0	1.166923E+0	1.213233E+0	1.226685E+0	1.195258E+0	1.207705E+0	1.231885E+0	1.220259E+0	1.242204E+0	1.205279E+0	1.283990E+0	1.220030E+0	1.183762E+0	1.208907E+0	1.227299E+0	1.204837E+0	1.207612E+0	1.251287E+0	1.188134E+0	1.209670E+0	1.239469E+0	1.270846E+0	1.166971E+0	1.282938E+0	1.217200E+0	1.212605E+0	1.192224E+0	1.207747E+0	1.174529E+0	1.212013E+0	1.253933E+0	1.212346E+0	1.209799E+0	1.202307E+0	1.210374E+0	1.199875E+0	1.201175E+0	1.224333E+0	1.225124E+0	1.190427E+0	1.141078E+0	1.202120E+0	1.191060E+0	1.202039E+0	1.196461E+0	1.168762E+0	1.205695E+0	1.199788E+0	1.144551E+0	1.217472E+0	1.203429E+0	1.206161E+0	1.161637E+0	1.216877E+0	1.200878E+0	1.250210E+0	1.210108E+0	1.189475E+0	1.235137E+0	1.187133E+0	1.190841E+0	1.157043E+0	1.213796E+0	1.187967E+0	1.214092E+0	1.236824E+0	1.230438E+0	1.165053E+0	1.171074E+0	1.246396E+0	1.203357E+0	1.232706E+0	1.221557E+0	1.254445E+0	1.186674E+0	1.227387E+0	1.120444E+0	1.219562E+0	1.205835E+0	1.198336E+0	1.164594E+0	1.215748E+0	1.210305E+0	1.151232E+0	1.227352E+0	1.294483E+0	1.237445E+0	1.219490E+0	1.223622E+0	1.218767E+0	1.198608E+0	1.171593E+0	1.220740E+0	1.227128E+0	1.260741E+0	1.253309E+0
5.467710E+2	1.299626E+0	1.198211E+0	1.240679E+0	1.242735E+0	1.320237E+0	1.253273E+0	1.277453E+0	1.261924E+0	1.250243E+0	1.293941E+0	1.274891E+0	1.287481E+0	1.280066E+0	1.282239E+0	1.272811E+0	1.278981E+0	1.235793E+0	1.326359E+0	1.280221E+0	1.264889E+0	1.252431E+0	1.254884E+0	1.219040E+0	1.247082E+0	1.272066E+0	1.255086E+0	1.271766E+0	1.199454E+0	1.270425E+0	1.288014E+0	1.258353E+0	1.320331E+0	1.261754E+0	1.298163E+0	1.266932E+0	1.314672E+0	1.277352E+0	1.293008E+0	1.246008E+0	1.300070E+0	1.290372E+0	1.250547E+0	1.254288E+0	1.271144E+0	1.278679E+0	1.273018E+0	1.268737E+0	1.297471E+0	1.259033E+0	1.304421E+0	1.253187E+0	1.286366E+0	1.229069E+0	1.303237E+0	1.258375E+0	1.309871E+0	1.270126E+0	1.248820E+0	1.251350E+0	1.289543E+0	1.271190E+0	1.293913E+0	1.231977E+0	1.310184E+0	1.270457E+0	1.213480E+0	1.209388E+0	1.258702E+0	1.288241E+0	1.291468E+0	1.237285E+0	1.275020E+0	1.300259E+0	1.224245E+0	1.237302E+0	1.237969E+0	1.261615E+0	1.213650E+0	1.275779E+0	1.253234E+0	1.225772E+0	1.306671E+0	1.256723E+0	1.276208E+0	1.373918E+0	1.256165E+0	1.215613E+0	1.231288E+0	1.276300E+0	1.230053E+0	1.264526E+0	1.313073E+0	1.263539E+0	1.230615E+0	1.231267E+0	1.228418E+0	1.281909E+0	1.260990E+0	1.261213E+0	1.242148E+0	1.276491E+0	1.283545E+0	1.256615E+0	1.241710E+0	1.282180E+0	1.292639E+0	1.309950E+0	1.270970E+0	1.260001E+0	1.241781E+0	1.174593E+0	1.193955E+0	1.240907E+0	1.272066E+0	1.228610E+0	1.231942E+0	1.273103E+0	1.288927E+0	1.261090E+0	1.238985E+0	1.322657E+0	1.234579E+0	1.198263E+0	1.290357E+0	1.245646E+0	1.242576E+0	1.268739E+0	1.254761E+0	1.289680E+0	1.284586E+0	1.250916E+0	1.186798E+0	1.308119E+0	1.281883E+0	1.262256E+0	1.273880E+0	1.275440E+0	1.237023E+0	1.239152E+0	1.244128E+0	1.298860E+0	1.279801E+0	1.255430E+0	1.254057E+0	1.232310E+0	1.209305E+0	1.218435E+0	1.248989E+0	1.286056E+0	1.293739E+0	1.245306E+0	1.281227E+0	1.303777E+0	1.282593E+0	1.244123E+0	1.287234E+0	1.279312E+0	1.289983E+0	1.247469E+0	1.271475E+0	1.247606E+0	1.274977E+0	1.249501E+0	1.233143E+0	1.309794E+0	1.213236E+0	1.224380E+0	1.282623E+0	1.260247E+0	1.275386E+0
5.475120E+2	1.439520E+0	1.279071E+0	1.397295E+0	1.352012E+0	1.403076E+0	1.343973E+0	1.413738E+0	1.323926E+0	1.305882E+0	1.341587E+0	1.308017E+0	1.350640E+0	1.351246E+0	1.339807E+0	1.374069E+0	1.335602E+0	1.326548E+0	1.367179E+0	1.349396E+0	1.334199E+0	1.330205E+0	1.366484E+0	1.304336E+0	1.352945E+0	1.377921E+0	1.330020E+0	1.362573E+0	1.376960E+0	1.403660E+0	1.325770E+0	1.349810E+0	1.378719E+0	1.407277E+0	1.372595E+0	1.424510E+0	1.385503E+0	1.338033E+0	1.421381E+0	1.394696E+0	1.317070E+0	1.366170E+0	1.350870E+0	1.347146E+0	1.348377E+0	1.347001E+0	1.354939E+0	1.336422E+0	1.359787E+0	1.293572E+0	1.395388E+0	1.338049E+0	1.331912E+0	1.358939E+0	1.331310E+0	1.347409E+0	1.365112E+0	1.362584E+0	1.365293E+0	1.367706E+0	1.428666E+0	1.372544E+0	1.351386E+0	1.405199E+0	1.362133E+0	1.409757E+0	1.342493E+0	1.344837E+0	1.348536E+0	1.366294E+0	1.316252E+0	1.341609E+0	1.324444E+0	1.378854E+0	1.346101E+0	1.329910E+0	1.394964E+0	1.395677E+0	1.316313E+0	1.283406E+0	1.403591E+0	1.344408E+0	1.382372E+0	1.395613E+0	1.347708E+0	1.372294E+0	1.347920E+0	1.300439E+0	1.341778E+0	1.354173E+0	1.303503E+0	1.366206E+0	1.383854E+0	1.323264E+0	1.403199E+0	1.344418E+0	1.382671E+0	1.325429E+0	1.386685E+0	1.387101E+0	1.327210E+0	1.367137E+0	1.259102E+0	1.368526E+0	1.359017E+0	1.400933E+0	1.330236E+0	1.404434E+0	1.318678E+0	1.320663E+0	1.359954E+0	1.348185E+0	1.342923E+0	1.361597E+0	1.305953E+0	1.381961E+0	1.374228E+0	1.377932E+0	1.347916E+0	1.348314E+0	1.392804E+0	1.425087E+0	1.326916E+0	1.315738E+0	1.326182E+0	1.357806E+0	1.375026E+0	1.344978E+0	1.337386E+0	1.333788E+0	1.396816E+0	1.310198E+0	1.330233E+0	1.364309E+0	1.314498E+0	1.315076E+0	1.349302E+0	1.381189E+0	1.319981E+0	1.365519E+0	1.274686E+0	1.374314E+0	1.375553E+0	1.327884E+0	1.429663E+0	1.354965E+0	1.294859E+0	1.319678E+0	1.352022E+0	1.355493E+0	1.374563E+0	1.346699E+0	1.318040E+0	1.313258E+0	1.340249E+0	1.336233E+0	1.359125E+0	1.348803E+0	1.354017E+0	1.324423E+0	1.373538E+0	1.291781E+0	1.370407E+0	1.323615E+0	1.304081E+0	1.378929E+0	1.320677E+0	1.267036E+0	1.323497E+0	1.370882E+0	1.303953E+0
5.482600E+2	1.481679E+0	1.374719E+0	1.407919E+0	1.398532E+0	1.506889E+0	1.375570E+0	1.391210E+0	1.449563E+0	1.450304E+0	1.419915E+0	1.425041E+0	1.380298E+0	1.437967E+0	1.479957E+0	1.481131E+0	1.484694E+0	1.461963E+0	1.398077E+0	1.417878E+0	1.414370E+0	1.435656E+0	1.417234E+0	1.454825E+0	1.436918E+0	1.414893E+0	1.463802E+0	1.400241E+0	1.405588E+0	1.498443E+0	1.441801E+0	1.360841E+0	1.414373E+0	1.400511E+0	1.413374E+0	1.463634E+0	1.414015E+0	1.406334E+0	1.464164E+0	1.400194E+0	1.383173E+0	1.383267E+0	1.495575E+0	1.398584E+0	1.362750E+0	1.417021E+0	1.404443E+0	1.428043E+0	1.394551E+0	1.410613E+0	1.484179E+0	1.438692E+0	1.425492E+0	1.363246E+0	1.475719E+0	1.385841E+0	1.473481E+0	1.508958E+0	1.418973E+0	1.398591E+0	1.462530E+0	1.481128E+0	1.470037E+0	1.481696E+0	1.405824E+0	1.442270E+0	1.444573E+0	1.458217E+0	1.389689E+0	1.442111E+0	1.435902E+0	1.437427E+0	1.426369E+0	1.390812E+0	1.418872E+0	1.440110E+0	1.439458E+0	1.427726E+0	1.420957E+0	1.381987E+0	1.430995E+0	1.444759E+0	1.465842E+0	1.448035E+0	1.385555E+0	1.513784E+0	1.444139E+0	1.419555E+0	1.350812E+0	1.433597E+0	1.373913E+0	1.448680E+0	1.446864E+0	1.452371E+0	1.441076E+0	1.423817E+0	1.449638E+0	1.390260E+0	1.431844E+0	1.440726E+0	1.387393E+0	1.409869E+0	1.420490E+0	1.401620E+0	1.380114E+0	1.427768E+0	1.424830E+0	1.429247E+0	1.405162E+0	1.457162E+0	1.389967E+0	1.389759E+0	1.407402E+0	1.425489E+0	1.411652E+0	1.454344E+0	1.486312E+0	1.449072E+0	1.456243E+0	1.440396E+0	1.405323E+0	1.425877E+0	1.407556E+0	1.423008E+0	1.435450E+0	1.404845E+0	1.395653E+0	1.420557E+0	1.377791E+0	1.419900E+0	1.459473E+0	1.432483E+0	1.412774E+0	1.412858E+0	1.482292E+0	1.389963E+0	1.382553E+0	1.432404E+0	1.403484E+0	1.398127E+0	1.419243E+0	1.420013E+0	1.403522E+0	1.426724E+0	1.439465E+0	1.429030E+0	1.432307E+0	1.395269E+0	1.423847E+0	1.390437E+0	1.463972E+0	1.374711E+0	1.392325E+0	1.427303E+0	1.418660E+0	1.448796E+0	1.455917E+0	1.428691E+0	1.423655E+0	1.406955E+0	1.401209E+0	1.434585E+0	1.421563E+0	1.388795E+0	1.441303E+0	1.415805E+0	1.458404E+0	1.409032E+0	1.376820E+0	1.417455E+0	1.524633E+0
5.490490E+2	1.496401E+0	1.402910E+0	1.433645E+0	1.370245E+0	1.443237E+0	1.420884E+0	1.426469E+0	1.425920E+0	1.421971E+0	1.407915E+0	1.429106E+0	1.449479E+0	1.437288E+0	1.440291E+0	1.459662E+0	1.439932E+0	1.424234E+0	1.402603E+0	1.445472E+0	1.466289E+0	1.375308E+0	1.431722E+0	1.391222E+0	1.439938E+0	1.459340E+0	1.421725E+0	1.408644E+0	1.420501E+0	1.446549E+0	1.455772E+0	1.394792E+0	1.408519E+0	1.411995E+0	1.383627E+0	1.435879E+0	1.382945E+0	1.465242E+0	1.441252E+0	1.424516E+0	1.371289E+0	1.420113E+0	1.463484E+0	1.369765E+0	1.431699E+0	1.411475E+0	1.474000E+0	1.387455E+0	1.392779E+0	1.370122E+0	1.413475E+0	1.436918E+0	1.363269E+0	1.402553E+0	1.406156E+0	1.382233E+0	1.473557E+0	1.421724E+0	1.455649E+0	1.442673E+0	1.397401E+0	1.419869E+0	1.406112E+0	1.403567E+0	1.418782E+0	1.434915E+0	1.378375E+0	1.456457E+0	1.379768E+0	1.424523E+0	1.452053E+0	1.392187E+0	1.361897E+0	1.406404E+0	1.396572E+0	1.448825E+0	1.431513E+0	1.443857E+0	1.439751E+0	1.408231E+0	1.390888E+0	1.420113E+0	1.405315E+0	1.459403E+0	1.440309E+0	1.490012E+0	1.407899E+0	1.436117E+0	1.378736E+0	1.437425E+0	1.404489E+0	1.441042E+0	1.435196E+0	1.408190E+0	1.400459E+0	1.394922E+0	1.394105E+0	1.405753E+0	1.455172E+0	1.400605E+0	1.419249E+0	1.376354E+0	1.409296E+0	1.381096E+0	1.406499E+0	1.391604E+0	1.396980E+0	1.463459E+0	1.438665E+0	1.411964E+0	1.373984E+0	1.399580E+0	1.372251E+0	1.355610E+0	1.437250E+0	1.365278E+0	1.358571E+0	1.396500E+0	1.410271E+0	1.348116E+0	1.357455E+0	1.407810E+0	1.387730E+0	1.394944E+0	1.379571E+0	1.430733E+0	1.395478E+0	1.393069E+0	1.364821E+0	1.445838E+0	1.475533E+0	1.378164E+0	1.364919E+0	1.507439E+0	1.414126E+0	1.402149E+0	1.389144E+0	1.455733E+0	1.399015E+0	1.364684E+0	1.477488E+0	1.418917E+0	1.368657E+0	1.479767E+0	1.419888E+0	1.410472E+0	1.430093E+0	1.369163E+0	1.392012E+0	1.418526E+0	1.380699E+0	1.434716E+0	1.390797E+0	1.379342E+0	1.419946E+0	1.404962E+0	1.460920E+0	1.404268E+0	1.399896E+0	1.385093E+0	1.432610E+0	1.430274E+0	1.385766E+0	1.383444E+0	1.450522E+0	1.385068E+0	1.384006E+0	1.323045E+0	1.435089E+0	1.412440E+0	1.384519E+0
5.497850E+2	1.514747E+0	1.400536E+0	1.465054E+0	1.390122E+0	1.458537E+0	1.390673E+0	1.368570E+0	1.389796E+0	1.396750E+0	1.462207E+0	1.383632E+0	1.431613E+0	1.451040E+0	1.405647E+0	1.446330E+0	1.435262E+0	1.406141E+0	1.399755E+0	1.399411E+0	1.419009E+0	1.351995E+0	1.401351E+0	1.412342E+0	1.387422E+0	1.450255E+0	1.389130E+0	1.394419E+0	1.400660E+0	1.458896E+0	1.418329E+0	1.354424E+0	1.418010E+0	1.380797E+0	1.485524E+0	1.427861E+0	1.431574E+0	1.387912E+0	1.428180E+0	1.413844E+0	1.356607E+0	1.420704E+0	1.428217E+0	1.379892E+0	1.427661E+0	1.396062E+0	1.428684E+0	1.394121E+0	1.415732E+0	1.392819E+0	1.437806E+0	1.409645E+0	1.414708E+0	1.372529E+0	1.446390E+0	1.406383E+0	1.405424E+0	1.411274E+0	1.430948E+0	1.337136E+0	1.440153E+0	1.433247E+0	1.380468E+0	1.430096E+0	1.431499E+0	1.396824E+0	1.372089E+0	1.322171E+0	1.393327E+0	1.400967E+0	1.393140E+0	1.446705E+0	1.434297E+0	1.380465E+0	1.369668E+0	1.434669E+0	1.393550E+0	1.490995E+0	1.407234E+0	1.400850E+0	1.346229E+0	1.336280E+0	1.416811E+0	1.440363E+0	1.395311E+0	1.447102E+0	1.400582E+0	1.367625E+0	1.413867E+0	1.447744E+0	1.409912E+0	1.421746E+0	1.435700E+0	1.381150E+0	1.414746E+0	1.371083E+0	1.411837E+0	1.390239E+0	1.448576E+0	1.386582E+0	1.362614E+0	1.432921E+0	1.381548E+0	1.366248E+0	1.411337E+0	1.408322E+0	1.377887E+0	1.348122E+0	1.393163E+0	1.394463E+0	1.368041E+0	1.393563E+0	1.382888E+0	1.377298E+0	1.363392E+0	1.406056E+0	1.411177E+0	1.397444E+0	1.375871E+0	1.348475E+0	1.393472E+0	1.422234E+0	1.374144E+0	1.365729E+0	1.362717E+0	1.381612E+0	1.415189E+0	1.404913E+0	1.369976E+0	1.419175E+0	1.462364E+0	1.382040E+0	1.396963E+0	1.440097E+0	1.414287E+0	1.395068E+0	1.406008E+0	1.437019E+0	1.422303E+0	1.375884E+0	1.399326E+0	1.367723E+0	1.403999E+0	1.408559E+0	1.392528E+0	1.429565E+0	1.382658E+0	1.338137E+0	1.352695E+0	1.404469E+0	1.429885E+0	1.410324E+0	1.415323E+0	1.403440E+0	1.377622E+0	1.450102E+0	1.387617E+0	1.443969E+0	1.394212E+0	1.396172E+0	1.426270E+0	1.339833E+0	1.384261E+0	1.410304E+0	1.357365E+0	1.411338E+0	1.334755E+0	1.465250E+0	1.413107E+0	1.390325E+0	1.475498E+0
5.505170E+2	1.370970E+0	1.345111E+0	1.339169E+0	1.287803E+0	1.433480E+0	1.365924E+0	1.309063E+0	1.342996E+0	1.389029E+0	1.396005E+0	1.333705E+0	1.414854E+0	1.396946E+0	1.392485E+0	1.350246E+0	1.389584E+0	1.408256E+0	1.402327E+0	1.396618E+0	1.405525E+0	1.332015E+0	1.395300E+0	1.368663E+0	1.411286E+0	1.350420E+0	1.377519E+0	1.376343E+0	1.393090E+0	1.388180E+0	1.381834E+0	1.359531E+0	1.385235E+0	1.375116E+0	1.368918E+0	1.315672E+0	1.375950E+0	1.393869E+0	1.390457E+0	1.361488E+0	1.353685E+0	1.414367E+0	1.405411E+0	1.379780E+0	1.423530E+0	1.369092E+0	1.365148E+0	1.347640E+0	1.351388E+0	1.376398E+0	1.425827E+0	1.421205E+0	1.359102E+0	1.381773E+0	1.380841E+0	1.347231E+0	1.402481E+0	1.389382E+0	1.383002E+0	1.374524E+0	1.417949E+0	1.352323E+0	1.382171E+0	1.396053E+0	1.360142E+0	1.438151E+0	1.395333E+0	1.369237E+0	1.312755E+0	1.372560E+0	1.348809E+0	1.354792E+0	1.351204E+0	1.429371E+0	1.398833E+0	1.348977E+0	1.347247E+0	1.414921E+0	1.328952E+0	1.354836E+0	1.361761E+0	1.357396E+0	1.391687E+0	1.404969E+0	1.384865E+0	1.393549E+0	1.383095E+0	1.419884E+0	1.368021E+0	1.360892E+0	1.323443E+0	1.381503E+0	1.395952E+0	1.355272E+0	1.368222E+0	1.365924E+0	1.366627E+0	1.400350E+0	1.406283E+0	1.357857E+0	1.336732E+0	1.335537E+0	1.311085E+0	1.370197E+0	1.406353E+0	1.362028E+0	1.387869E+0	1.308220E+0	1.331270E+0	1.380344E+0	1.357521E+0	1.358234E+0	1.331098E+0	1.375380E+0	1.415484E+0	1.380025E+0	1.363376E+0	1.382856E+0	1.357011E+0	1.338776E+0	1.365315E+0	1.384233E+0	1.358047E+0	1.318084E+0	1.362797E+0	1.375408E+0	1.356581E+0	1.350013E+0	1.311472E+0	1.402863E+0	1.381632E+0	1.378867E+0	1.397142E+0	1.407559E+0	1.364265E+0	1.345758E+0	1.329897E+0	1.396027E+0	1.351346E+0	1.332606E+0	1.361477E+0	1.338591E+0	1.344095E+0	1.425380E+0	1.404905E+0	1.334347E+0	1.361819E+0	1.327340E+0	1.328786E+0	1.370089E+0	1.358711E+0	1.383312E+0	1.372939E+0	1.395877E+0	1.336623E+0	1.361645E+0	1.336053E+0	1.398278E+0	1.297421E+0	1.367870E+0	1.350730E+0	1.444755E+0	1.387141E+0	1.382385E+0	1.326647E+0	1.357221E+0	1.357781E+0	1.340173E+0	1.386986E+0	1.311936E+0	1.432241E+0
5.512620E+2	1.336312E+0	1.306359E+0	1.310358E+0	1.305799E+0	1.348034E+0	1.364180E+0	1.344453E+0	1.338897E+0	1.340002E+0	1.374776E+0	1.301882E+0	1.356007E+0	1.302687E+0	1.362352E+0	1.358219E+0	1.346437E+0	1.370340E+0	1.350440E+0	1.302685E+0	1.297601E+0	1.290411E+0	1.339525E+0	1.344089E+0	1.355715E+0	1.310020E+0	1.330672E+0	1.338367E+0	1.366519E+0	1.354915E+0	1.331107E+0	1.348264E+0	1.347567E+0	1.335279E+0	1.323457E+0	1.311249E+0	1.370426E+0	1.300169E+0	1.343297E+0	1.299123E+0	1.293948E+0	1.351232E+0	1.370435E+0	1.291961E+0	1.337092E+0	1.343333E+0	1.403410E+0	1.358923E+0	1.290360E+0	1.265828E+0	1.364327E+0	1.356045E+0	1.343063E+0	1.306836E+0	1.344131E+0	1.347068E+0	1.346994E+0	1.385654E+0	1.384731E+0	1.327794E+0	1.318704E+0	1.337020E+0	1.327455E+0	1.339573E+0	1.303436E+0	1.388787E+0	1.320248E+0	1.323578E+0	1.338517E+0	1.285628E+0	1.357417E+0	1.324205E+0	1.330298E+0	1.352774E+0	1.325608E+0	1.276610E+0	1.377063E+0	1.373541E+0	1.332919E+0	1.322231E+0	1.312175E+0	1.368678E+0	1.348003E+0	1.400740E+0	1.385506E+0	1.357315E+0	1.323876E+0	1.315200E+0	1.277588E+0	1.322771E+0	1.323327E+0	1.321480E+0	1.356363E+0	1.293453E+0	1.323257E+0	1.322640E+0	1.345102E+0	1.344958E+0	1.334854E+0	1.341867E+0	1.299805E+0	1.370174E+0	1.364061E+0	1.348684E+0	1.365878E+0	1.402078E+0	1.334620E+0	1.327572E+0	1.325949E+0	1.327256E+0	1.305487E+0	1.338922E+0	1.266063E+0	1.371157E+0	1.307942E+0	1.344524E+0	1.303612E+0	1.293644E+0	1.337516E+0	1.339757E+0	1.354165E+0	1.367002E+0	1.297904E+0	1.301811E+0	1.320311E+0	1.336840E+0	1.298858E+0	1.287443E+0	1.290946E+0	1.345042E+0	1.288181E+0	1.318600E+0	1.344181E+0	1.382833E+0	1.366103E+0	1.302848E+0	1.310205E+0	1.356834E+0	1.323277E+0	1.309123E+0	1.324161E+0	1.351447E+0	1.330789E+0	1.320466E+0	1.334892E+0	1.366359E+0	1.315010E+0	1.314228E+0	1.337216E+0	1.348184E+0	1.377453E+0	1.341623E+0	1.357817E+0	1.337477E+0	1.341617E+0	1.302783E+0	1.327289E+0	1.337982E+0	1.321678E+0	1.326974E+0	1.343483E+0	1.328143E+0	1.325555E+0	1.346507E+0	1.327185E+0	1.317793E+0	1.321871E+0	1.280594E+0	1.288798E+0	1.335692E+0	1.414288E+0
5.520260E+2	1.299968E+0	1.302714E+0	1.317780E+0	1.327865E+0	1.324780E+0	1.272036E+0	1.234924E+0	1.275253E+0	1.374854E+0	1.299923E+0	1.320487E+0	1.321445E+0	1.345798E+0	1.307764E+0	1.299241E+0	1.321563E+0	1.299616E+0	1.298411E+0	1.307086E+0	1.339714E+0	1.284978E+0	1.297840E+0	1.313883E+0	1.251761E+0	1.287404E+0	1.308639E+0	1.303645E+0	1.252854E+0	1.314542E+0	1.292785E+0	1.356266E+0	1.265875E+0	1.277795E+0	1.268404E+0	1.266989E+0	1.317126E+0	1.286971E+0	1.294427E+0	1.249584E+0	1.291433E+0	1.311590E+0	1.313174E+0	1.308163E+0	1.355589E+0	1.325836E+0	1.345097E+0	1.337035E+0	1.277275E+0	1.283647E+0	1.296153E+0	1.317955E+0	1.291801E+0	1.341488E+0	1.373621E+0	1.343251E+0	1.316907E+0	1.329982E+0	1.261359E+0	1.288563E+0	1.323932E+0	1.311563E+0	1.297579E+0	1.306114E+0	1.319603E+0	1.368733E+0	1.327121E+0	1.329128E+0	1.245637E+0	1.304107E+0	1.305616E+0	1.320975E+0	1.274867E+0	1.300447E+0	1.293199E+0	1.240027E+0	1.260509E+0	1.279561E+0	1.325778E+0	1.263724E+0	1.360704E+0	1.267193E+0	1.276339E+0	1.349625E+0	1.311542E+0	1.308089E+0	1.286673E+0	1.271868E+0	1.273094E+0	1.311821E+0	1.283969E+0	1.294366E+0	1.277160E+0	1.300513E+0	1.315277E+0	1.265838E+0	1.287139E+0	1.261089E+0	1.297064E+0	1.328034E+0	1.297860E+0	1.256646E+0	1.292821E+0	1.312564E+0	1.306594E+0	1.294048E+0	1.276269E+0	1.250532E+0	1.252052E+0	1.278244E+0	1.265166E+0	1.250370E+0	1.290989E+0	1.286726E+0	1.274547E+0	1.268344E+0	1.258232E+0	1.320930E+0	1.318210E+0	1.287748E+0	1.267891E+0	1.255003E+0	1.290780E+0	1.242288E+0	1.296292E+0	1.332111E+0	1.289780E+0	1.278917E+0	1.294991E+0	1.338626E+0	1.330041E+0	1.294865E+0	1.219975E+0	1.338798E+0	1.232581E+0	1.307144E+0	1.270272E+0	1.344081E+0	1.272193E+0	1.305399E+0	1.333614E+0	1.307488E+0	1.320415E+0	1.329767E+0	1.335857E+0	1.348288E+0	1.281060E+0	1.252606E+0	1.254318E+0	1.238957E+0	1.358341E+0	1.332927E+0	1.286543E+0	1.305517E+0	1.258467E+0	1.295775E+0	1.300767E+0	1.294165E+0	1.253512E+0	1.266606E+0	1.306357E+0	1.283098E+0	1.269068E+0	1.311309E+0	1.327426E+0	1.347593E+0	1.293968E+0	1.239419E+0	1.333649E+0	1.325047E+0	1.261762E+0
5.527650E+2	1.275288E+0	1.251541E+0	1.260472E+0	1.211996E+0	1.234351E+0	1.277821E+0	1.214082E+0	1.255899E+0	1.270765E+0	1.299013E+0	1.275973E+0	1.293989E+0	1.299427E+0	1.212954E+0	1.274036E+0	1.272673E+0	1.268728E+0	1.311408E+0	1.274075E+0	1.243396E+0	1.236052E+0	1.250215E+0	1.266161E+0	1.265554E+0	1.284798E+0	1.261829E+0	1.251926E+0	1.230334E+0	1.312776E+0	1.253683E+0	1.261598E+0	1.258243E+0	1.284422E+0	1.287303E+0	1.217951E+0	1.261588E+0	1.301920E+0	1.308568E+0	1.267558E+0	1.221585E+0	1.303374E+0	1.283772E+0	1.242640E+0	1.205925E+0	1.247280E+0	1.257634E+0	1.261019E+0	1.236839E+0	1.278097E+0	1.234440E+0	1.234254E+0	1.250419E+0	1.248951E+0	1.281277E+0	1.268387E+0	1.279567E+0	1.308938E+0	1.284992E+0	1.279243E+0	1.223156E+0	1.288657E+0	1.259234E+0	1.229959E+0	1.273816E+0	1.309390E+0	1.272053E+0	1.293950E+0	1.275152E+0	1.286076E+0	1.255000E+0	1.286842E+0	1.272890E+0	1.298467E+0	1.306253E+0	1.201392E+0	1.258786E+0	1.293349E+0	1.230440E+0	1.265146E+0	1.269368E+0	1.276161E+0	1.251067E+0	1.252839E+0	1.226591E+0	1.325075E+0	1.260251E+0	1.243944E+0	1.263634E+0	1.323040E+0	1.244436E+0	1.265346E+0	1.298012E+0	1.222270E+0	1.273117E+0	1.235158E+0	1.257655E+0	1.259424E+0	1.253142E+0	1.285935E+0	1.216850E+0	1.261871E+0	1.243000E+0	1.306342E+0	1.229952E+0	1.266431E+0	1.252257E+0	1.272044E+0	1.271649E+0	1.275980E+0	1.292102E+0	1.260020E+0	1.186534E+0	1.246211E+0	1.222565E+0	1.258963E+0	1.258929E+0	1.302309E+0	1.282262E+0	1.173612E+0	1.256249E+0	1.313690E+0	1.209718E+0	1.268708E+0	1.255281E+0	1.261472E+0	1.257626E+0	1.220155E+0	1.240057E+0	1.294613E+0	1.264333E+0	1.239656E+0	1.250963E+0	1.276859E+0	1.288679E+0	1.231899E+0	1.231186E+0	1.270414E+0	1.246114E+0	1.237107E+0	1.280571E+0	1.254680E+0	1.226635E+0	1.261325E+0	1.267101E+0	1.264590E+0	1.258101E+0	1.238132E+0	1.304789E+0	1.254979E+0	1.240695E+0	1.268400E+0	1.202216E+0	1.237284E+0	1.293761E+0	1.266383E+0	1.263619E+0	1.238010E+0	1.229570E+0	1.212317E+0	1.249902E+0	1.273613E+0	1.237192E+0	1.296046E+0	1.304968E+0	1.247880E+0	1.260651E+0	1.165131E+0	1.262672E+0	1.291988E+0	1.191742E+0
5.535440E+2	1.182764E+0	1.210177E+0	1.197543E+0	1.217001E+0	1.251517E+0	1.209418E+0	1.180950E+0	1.171655E+0	1.186546E+0	1.208200E+0	1.250624E+0	1.204531E+0	1.181857E+0	1.217322E+0	1.181091E+0	1.203653E+0	1.266500E+0	1.208162E+0	1.221139E+0	1.236057E+0	1.191326E+0	1.236805E+0	1.208359E+0	1.162490E+0	1.187893E+0	1.208505E+0	1.224174E+0	1.185254E+0	1.201542E+0	1.188836E+0	1.165889E+0	1.202423E+0	1.203562E+0	1.240914E+0	1.161496E+0	1.230511E+0	1.190097E+0	1.205622E+0	1.193149E+0	1.152468E+0	1.175468E+0	1.187819E+0	1.187301E+0	1.220472E+0	1.183991E+0	1.230625E+0	1.230729E+0	1.168844E+0	1.196408E+0	1.184696E+0	1.206157E+0	1.216028E+0	1.249083E+0	1.230729E+0	1.221444E+0	1.206915E+0	1.245168E+0	1.192340E+0	1.181366E+0	1.294098E+0	1.190870E+0	1.216004E+0	1.230731E+0	1.172759E+0	1.233703E+0	1.209938E+0	1.232461E+0	1.230305E+0	1.234847E+0	1.263298E+0	1.239109E+0	1.179072E+0	1.176885E+0	1.219680E+0	1.166133E+0	1.178335E+0	1.243388E+0	1.191678E+0	1.157934E+0	1.184089E+0	1.194617E+0	1.203103E+0	1.218265E+0	1.138930E+0	1.241979E+0	1.249529E+0	1.181225E+0	1.200643E+0	1.194357E+0	1.244283E+0	1.174560E+0	1.216325E+0	1.163178E+0	1.160102E+0	1.204014E+0	1.163704E+0	1.167189E+0	1.242938E+0	1.244482E+0	1.187337E+0	1.237491E+0	1.178916E+0	1.218240E+0	1.221628E+0	1.253906E+0	1.225252E+0	1.245097E+0	1.175249E+0	1.204711E+0	1.246492E+0	1.168007E+0	1.186558E+0	1.185955E+0	1.219706E+0	1.148185E+0	1.212271E+0	1.193207E+0	1.243907E+0	1.181314E+0	1.172002E+0	1.290348E+0	1.195392E+0	1.181208E+0	1.213740E+0	1.206948E+0	1.227754E+0	1.190501E+0	1.179762E+0	1.248799E+0	1.189719E+0	1.170619E+0	1.213286E+0	1.174696E+0	1.180723E+0	1.214878E+0	1.173502E+0	1.248208E+0	1.203073E+0	1.140362E+0	1.207334E+0	1.206181E+0	1.200585E+0	1.180731E+0	1.233425E+0	1.204568E+0	1.218871E+0	1.205390E+0	1.208790E+0	1.161697E+0	1.194630E+0	1.221727E+0	1.214511E+0	1.209476E+0	1.187207E+0	1.197625E+0	1.266228E+0	1.178544E+0	1.184827E+0	1.221978E+0	1.181259E+0	1.189660E+0	1.240247E+0	1.176436E+0	1.197178E+0	1.244831E+0	1.181644E+0	1.180965E+0	1.186821E+0	1.199357E+0	1.250888E+0
5.542580E+2	1.115229E+0	1.100375E+0	1.122108E+0	1.124490E+0	1.117001E+0	1.151102E+0	1.141854E+0	1.131759E+0	1.088379E+0	1.112699E+0	1.132013E+0	1.115792E+0	1.147825E+0	1.133391E+0	1.172036E+0	1.158161E+0	1.115474E+0	1.097527E+0	1.087907E+0	1.149272E+0	1.122958E+0	1.114339E+0	1.105629E+0	1.085250E+0	1.107875E+0	1.115910E+0	1.073304E+0	1.091998E+0	1.139517E+0	1.104948E+0	1.096603E+0	1.124689E+0	1.113875E+0	1.092389E+0	1.158442E+0	1.123391E+0	1.150043E+0	1.128560E+0	1.121274E+0	1.140534E+0	1.124008E+0	1.113096E+0	1.112023E+0	1.116701E+0	1.149831E+0	1.129293E+0	1.146141E+0	1.121838E+0	1.140566E+0	1.185880E+0	1.109814E+0	1.133067E+0	1.105474E+0	1.170634E+0	1.149042E+0	1.133645E+0	1.139201E+0	1.131795E+0	1.096607E+0	1.183272E+0	1.120834E+0	1.140913E+0	1.143777E+0	1.097672E+0	1.142475E+0	1.184640E+0	1.194188E+0	1.138424E+0	1.122496E+0	1.168445E+0	1.111242E+0	1.122903E+0	1.143008E+0	1.113835E+0	1.156834E+0	1.168341E+0	1.129529E+0	1.145162E+0	1.090522E+0	1.111238E+0	1.195444E+0	1.137670E+0	1.180886E+0	1.118625E+0	1.141428E+0	1.167718E+0	1.125862E+0	1.110386E+0	1.162337E+0	1.137921E+0	1.104846E+0	1.133033E+0	1.105267E+0	1.154284E+0	1.116461E+0	1.109774E+0	1.172620E+0	1.154049E+0	1.156567E+0	1.122620E+0	1.123510E+0	1.128139E+0	1.117514E+0	1.121039E+0	1.192459E+0	1.173773E+0	1.144418E+0	1.160268E+0	1.116401E+0	1.104491E+0	1.095210E+0	1.074684E+0	1.154159E+0	1.124876E+0	1.146559E+0	1.145583E+0	1.158834E+0	1.158866E+0	1.079897E+0	1.145866E+0	1.139895E+0	1.133231E+0	1.127183E+0	1.144238E+0	1.131799E+0	1.076979E+0	1.089614E+0	1.066803E+0	1.133862E+0	1.162601E+0	1.136043E+0	1.061114E+0	1.158398E+0	1.139514E+0	1.166281E+0	1.099061E+0	1.147705E+0	1.148271E+0	1.088321E+0	1.141427E+0	1.158503E+0	1.116140E+0	1.140159E+0	1.154565E+0	1.154804E+0	1.097321E+0	1.118315E+0	1.114412E+0	1.115521E+0	1.138192E+0	1.119863E+0	1.103609E+0	1.125945E+0	1.155754E+0	1.163896E+0	1.140191E+0	1.124668E+0	1.153931E+0	1.150083E+0	1.189559E+0	1.101600E+0	1.150853E+0	1.138618E+0	1.101740E+0	1.172544E+0	1.173616E+0	1.052887E+0	1.129413E+0	1.177788E+0	1.169986E+0
5.550190E+2	1.061536E+0	1.039608E+0	1.068294E+0	9.790939E-1	1.054869E+0	1.066470E+0	1.005410E+0	1.053490E+0	1.021285E+0	1.049391E+0	1.067251E+0	1.055615E+0	1.071626E+0	1.022421E+0	1.041097E+0	1.084981E+0	1.046552E+0	1.115984E+0	1.067839E+0	1.066653E+0	1.058465E+0	1.077317E+0	1.047486E+0	1.067951E+0	1.042890E+0	1.078267E+0	1.036195E+0	1.043548E+0	1.048812E+0	1.048277E+0	1.103730E+0	1.039589E+0	1.044257E+0	1.057185E+0	1.063311E+0	9.946291E-1	1.054148E+0	1.071157E+0	1.030875E+0	1.026954E+0	1.025979E+0	1.055391E+0	1.047101E+0	1.064570E+0	1.067115E+0	1.029552E+0	1.022934E+0	1.017180E+0	1.021392E+0	1.078511E+0	1.056372E+0	1.065342E+0	1.047022E+0	1.090853E+0	1.018975E+0	9.974406E-1	1.075503E+0	1.098858E+0	1.061053E+0	1.098176E+0	1.020448E+0	1.063854E+0	1.069875E+0	1.020387E+0	1.040574E+0	1.035465E+0	1.059849E+0	1.045525E+0	1.021698E+0	1.120818E+0	1.033765E+0	1.051203E+0	9.811927E-1	1.047364E+0	1.049274E+0	1.038219E+0	1.089508E+0	1.082909E+0	1.022607E+0	1.043130E+0	1.021397E+0	1.042040E+0	1.067944E+0	1.015747E+0	1.053093E+0	1.063186E+0	1.026864E+0	1.026497E+0	1.062152E+0	1.055812E+0	1.034101E+0	1.053551E+0	1.050713E+0	1.044531E+0	1.019097E+0	1.042715E+0	1.038988E+0	1.035531E+0	1.078511E+0	1.014615E+0	1.079161E+0	1.068260E+0	1.084472E+0	1.052862E+0	1.061588E+0	1.059638E+0	1.018948E+0	1.058840E+0	1.084130E+0	1.061800E+0	1.092736E+0	1.025286E+0	1.049037E+0	1.015825E+0	1.031851E+0	1.016160E+0	1.069475E+0	1.054704E+0	1.027915E+0	1.037526E+0	1.039434E+0	9.881120E-1	1.036217E+0	1.015818E+0	1.070969E+0	1.061172E+0	9.998875E-1	1.022089E+0	1.029553E+0	1.065688E+0	1.033107E+0	1.066462E+0	1.046963E+0	1.061755E+0	1.067447E+0	1.050259E+0	1.092903E+0	1.060496E+0	1.032091E+0	1.026999E+0	1.039913E+0	1.039090E+0	1.071751E+0	1.047635E+0	1.094090E+0	1.010716E+0	1.043155E+0	1.033990E+0	1.023416E+0	1.078212E+0	9.973329E-1	1.060823E+0	1.044781E+0	1.057495E+0	1.039475E+0	1.069747E+0	1.056094E+0	9.797971E-1	1.072899E+0	1.090614E+0	1.050808E+0	1.058343E+0	1.075222E+0	1.043177E+0	1.104157E+0	1.022126E+0	1.047605E+0	1.060548E+0	1.071313E+0	1.036841E+0
5.557660E+2	9.721205E-1	9.571046E-1	9.735444E-1	9.442840E-1	9.791776E-1	9.901237E-1	9.526223E-1	9.813963E-1	9.705305E-1	1.002103E+0	9.964266E-1	9.530324E-1	9.542016E-1	1.007068E+0	9.892436E-1	9.979270E-1	9.786982E-1	9.676201E-1	9.527708E-1	9.743791E-1	9.565232E-1	9.436861E-1	9.840396E-1	9.851908E-1	9.147188E-1	1.006503E+0	9.677023E-1	1.009243E+0	9.845581E-1	9.416132E-1	9.469579E-1	9.861306E-1	9.851284E-1	1.010391E+0	9.609922E-1	9.913867E-1	9.461229E-1	9.958869E-1	9.787461E-1	9.738673E-1	9.288978E-1	9.601538E-1	9.434692E-1	9.993133E-1	9.299273E-1	9.882550E-1	9.752069E-1	9.832062E-1	9.598448E-1	9.699886E-1	9.746144E-1	9.663978E-1	9.598006E-1	9.906962E-1	9.597888E-1	9.781481E-1	9.384702E-1	9.834011E-1	9.636259E-1	9.976598E-1	9.542237E-1	9.461339E-1	9.474866E-1	1.027903E+0	1.002903E+0	9.900694E-1	9.800993E-1	1.016151E+0	9.590096E-1	9.711248E-1	1.013286E+0	9.670871E-1	9.504519E-1	9.872973E-1	9.879233E-1	9.308982E-1	9.201673E-1	1.002615E+0	9.388348E-1	9.977771E-1	9.649807E-1	9.950374E-1	9.965583E-1	9.753135E-1	9.463668E-1	9.514708E-1	9.747860E-1	9.918071E-1	9.604292E-1	9.947377E-1	1.013254E+0	1.009089E+0	9.569168E-1	9.881936E-1	1.005529E+0	9.636339E-1	1.019480E+0	9.887807E-1	1.011913E+0	9.881736E-1	9.631965E-1	9.488853E-1	1.000681E+0	9.931703E-1	9.747366E-1	9.835731E-1	9.528686E-1	9.618555E-1	9.648430E-1	9.809532E-1	9.804243E-1	9.916055E-1	9.519133E-1	9.704309E-1	9.190111E-1	9.802816E-1	9.381044E-1	1.016160E+0	9.664406E-1	9.806088E-1	1.001831E+0	1.015809E+0	9.831711E-1	9.711736E-1	9.227145E-1	9.733783E-1	9.959874E-1	9.748269E-1	9.764249E-1	9.518971E-1	1.007017E+0	9.617065E-1	1.024048E+0	9.884570E-1	9.858653E-1	9.247082E-1	9.657663E-1	9.861382E-1	9.579017E-1	9.657694E-1	9.715831E-1	9.736044E-1	9.489932E-1	9.860304E-1	9.482021E-1	9.543302E-1	9.664409E-1	1.010445E+0	9.896989E-1	1.030029E+0	1.028241E+0	9.528719E-1	9.827649E-1	9.583373E-1	9.897796E-1	9.897555E-1	1.024503E+0	9.814942E-1	9.507203E-1	9.847966E-1	9.631144E-1	9.846719E-1	9.875859E-1	9.747877E-1	9.873375E-1	9.749319E-1	9.388842E-1	9.436522E-1	9.087439E-1	8.785474E-1
5.560240E+2	9.335477E-1	9.985898E-1	9.714927E-1	9.730172E-1	9.932883E-1	9.976505E-1	9.792606E-1	9.544128E-1	9.588145E-1	9.668615E-1	9.690182E-1	9.692744E-1	9.851241E-1	9.775867E-1	9.985476E-1	9.981549E-1	9.736074E-1	9.546529E-1	9.459949E-1	9.679048E-1	9.444896E-1	9.896393E-1	9.755874E-1	9.856777E-1	9.722922E-1	9.705469E-1	9.709129E-1	9.558431E-1	9.514936E-1	9.814432E-1	9.844079E-1	9.768161E-1	9.745767E-1	1.005716E+0	9.765260E-1	9.678761E-1	9.173850E-1	9.666550E-1	9.917853E-1	9.373288E-1	9.427955E-1	9.829765E-1	9.145031E-1	9.490276E-1	9.308307E-1	9.604379E-1	9.502216E-1	9.847097E-1	9.750892E-1	1.009316E+0	9.938273E-1	9.894280E-1	9.418908E-1	1.002767E+0	9.603273E-1	9.845547E-1	1.011820E+0	9.888250E-1	9.641123E-1	1.000896E+0	9.663243E-1	9.819339E-1	9.667642E-1	9.845480E-1	9.815940E-1	9.839740E-1	9.783602E-1	9.132645E-1	9.869339E-1	9.954774E-1	9.619586E-1	9.490723E-1	9.567794E-1	1.027205E+0	9.438004E-1	1.018889E+0	1.001501E+0	9.675057E-1	9.799148E-1	9.498119E-1	9.953215E-1	9.988533E-1	1.031277E+0	1.005418E+0	9.920726E-1	1.006640E+0	9.134739E-1	9.885953E-1	9.734984E-1	9.664344E-1	9.528662E-1	9.683438E-1	9.603727E-1	9.966448E-1	9.378210E-1	9.564627E-1	9.606212E-1	1.026141E+0	9.580464E-1	9.583451E-1	9.686765E-1	1.002710E+0	9.738028E-1	9.475993E-1	9.905894E-1	1.024942E+0	9.695373E-1	9.882445E-1	9.487551E-1	9.522850E-1	9.847155E-1	9.588312E-1	9.244848E-1	9.637693E-1	9.027626E-1	9.040046E-1	9.706763E-1	1.025713E+0	9.517964E-1	9.853717E-1	9.600892E-1	9.735118E-1	9.889417E-1	9.749925E-1	9.554277E-1	9.457819E-1	9.688292E-1	9.702627E-1	9.731223E-1	1.022313E+0	9.977911E-1	9.838069E-1	9.929387E-1	9.646463E-1	9.736601E-1	9.672126E-1	1.007147E+0	9.553206E-1	9.900772E-1	9.595609E-1	9.553670E-1	9.836616E-1	9.455226E-1	9.485804E-1	9.460231E-1	1.015569E+0	9.809865E-1	9.672044E-1	9.677767E-1	9.804603E-1	9.736391E-1	9.697108E-1	9.994432E-1	9.777406E-1	9.866994E-1	9.213294E-1	9.559155E-1	9.211664E-1	9.961497E-1	9.745078E-1	9.978289E-1	9.855176E-1	9.813932E-1	9.723331E-1	9.802296E-1	1.032156E+0	9.938721E-1	9.393416E-1	9.478587E-1	1.077747E+0
5.565200E+2	9.889345E-1	9.622112E-1	9.673754E-1	9.792717E-1	9.452655E-1	9.710455E-1	9.303412E-1	1.001249E+0	9.599252E-1	9.579288E-1	9.746208E-1	9.605753E-1	9.653742E-1	9.693557E-1	9.659460E-1	9.619760E-1	9.310733E-1	9.570239E-1	9.578886E-1	9.618120E-1	9.420999E-1	1.012203E+0	9.653214E-1	9.852641E-1	9.646482E-1	9.586518E-1	9.894615E-1	9.988855E-1	1.000516E+0	9.998811E-1	9.509125E-1	9.628256E-1	9.621960E-1	9.497119E-1	9.903442E-1	9.671656E-1	9.894758E-1	9.919689E-1	9.434435E-1	9.660395E-1	9.646665E-1	9.692765E-1	9.509600E-1	9.401275E-1	9.591609E-1	9.708360E-1	9.672252E-1	9.405601E-1	9.610664E-1	9.547567E-1	9.695809E-1	1.007969E+0	9.771069E-1	9.380549E-1	9.303917E-1	9.654852E-1	9.431202E-1	9.456268E-1	9.804871E-1	9.618303E-1	9.682789E-1	9.780009E-1	1.004186E+0	9.584405E-1	9.467745E-1	9.991169E-1	9.934318E-1	9.825000E-1	9.432624E-1	9.684237E-1	9.660722E-1	9.625740E-1	9.443443E-1	9.297360E-1	9.569169E-1	9.802448E-1	9.245171E-1	9.586280E-1	9.592644E-1	9.603884E-1	9.541086E-1	9.439536E-1	9.443666E-1	9.708624E-1	9.550497E-1	1.019630E+0	9.666764E-1	9.884441E-1	9.710312E-1	9.459850E-1	9.603577E-1	9.593430E-1	9.451927E-1	9.412741E-1	9.708510E-1	9.831525E-1	9.724044E-1	9.789637E-1	9.676892E-1	9.260265E-1	9.506652E-1	9.689898E-1	9.857940E-1	9.872364E-1	9.470291E-1	9.871757E-1	9.398073E-1	9.945692E-1	9.580138E-1	9.429717E-1	9.194505E-1	1.005951E+0	9.534235E-1	9.813159E-1	9.561839E-1	1.006996E+0	9.589525E-1	9.666648E-1	9.884502E-1	9.561455E-1	1.005814E+0	9.406369E-1	9.736155E-1	9.394084E-1	9.781998E-1	9.493690E-1	9.689514E-1	9.408252E-1	9.818869E-1	9.504537E-1	9.762478E-1	1.006670E+0	9.465324E-1	9.309781E-1	9.800233E-1	9.801022E-1	9.855398E-1	1.045154E+0	9.931388E-1	9.803312E-1	9.537433E-1	9.856662E-1	9.751144E-1	9.890427E-1	9.856758E-1	9.640875E-1	9.424917E-1	9.609604E-1	9.469461E-1	9.441804E-1	9.616690E-1	9.266273E-1	9.647988E-1	9.636886E-1	9.428697E-1	9.562431E-1	9.683801E-1	9.705235E-1	9.579341E-1	9.969101E-1	9.547461E-1	9.851532E-1	9.626497E-1	9.690640E-1	9.803256E-1	9.642716E-1	9.220680E-1	9.514576E-1	1.032273E+0	9.882512E-1
5.570560E+2	9.849547E-1	1.014388E+0	1.025037E+0	9.787131E-1	1.009991E+0	1.006393E+0	1.008782E+0	9.707699E-1	9.968631E-1	1.013506E+0	1.021733E+0	1.019842E+0	9.987178E-1	1.022006E+0	1.040020E+0	9.927602E-1	1.011235E+0	9.555432E-1	9.895126E-1	9.924075E-1	9.765583E-1	9.744658E-1	9.569810E-1	1.006903E+0	1.028217E+0	1.017428E+0	9.964782E-1	9.745705E-1	1.009086E+0	9.737294E-1	9.978419E-1	9.748083E-1	9.742180E-1	9.964675E-1	9.960610E-1	9.886924E-1	1.010811E+0	1.056065E+0	9.795738E-1	9.858667E-1	1.001498E+0	9.623613E-1	9.942600E-1	9.882270E-1	1.040250E+0	1.010766E+0	1.003815E+0	1.006113E+0	1.004194E+0	9.589022E-1	1.004777E+0	9.772152E-1	9.621885E-1	1.020123E+0	9.896320E-1	9.727588E-1	9.699700E-1	1.009969E+0	9.804609E-1	1.004279E+0	1.009658E+0	9.571570E-1	1.015715E+0	1.021678E+0	1.001163E+0	1.012445E+0	9.673724E-1	9.740292E-1	1.011976E+0	9.862343E-1	9.543262E-1	1.028932E+0	1.036512E+0	1.010616E+0	9.434931E-1	9.897550E-1	1.011079E+0	1.022683E+0	9.837840E-1	9.755272E-1	9.919852E-1	1.020790E+0	1.007650E+0	1.002361E+0	1.040144E+0	9.871164E-1	9.418314E-1	9.849261E-1	9.747840E-1	1.009838E+0	9.988086E-1	9.760364E-1	9.902215E-1	9.993271E-1	9.805494E-1	9.939683E-1	1.038091E+0	9.720124E-1	9.763724E-1	9.610064E-1	1.004432E+0	9.975298E-1	1.003689E+0	9.896159E-1	9.870411E-1	1.008816E+0	9.708982E-1	1.003042E+0	9.877424E-1	9.928852E-1	1.009624E+0	9.970344E-1	9.983589E-1	1.028343E+0	1.032688E+0	9.850921E-1	9.876226E-1	9.894196E-1	9.960640E-1	1.026719E+0	1.020096E+0	9.952531E-1	1.001789E+0	1.017372E+0	9.955301E-1	1.006859E+0	1.003870E+0	1.013980E+0	9.922332E-1	9.922426E-1	9.856467E-1	9.849778E-1	9.979525E-1	1.037929E+0	1.082930E+0	9.812532E-1	9.819940E-1	9.872406E-1	1.022159E+0	9.963603E-1	1.020306E+0	9.910909E-1	9.864952E-1	9.987646E-1	1.022451E+0	9.931111E-1	1.006310E+0	1.001798E+0	9.777740E-1	1.014609E+0	9.950875E-1	1.010293E+0	9.912335E-1	9.977949E-1	1.034236E+0	9.937401E-1	9.865164E-1	9.990262E-1	9.998095E-1	1.030181E+0	9.699433E-1	1.004968E+0	1.003565E+0	1.011402E+0	9.888783E-1	1.005016E+0	9.869118E-1	1.015594E+0	1.022461E+0	9.939205E-1
5.575360E+2	1.046404E+0	1.016073E+0	1.023761E+0	1.025839E+0	1.038960E+0	1.036174E+0	1.033150E+0	1.049502E+0	1.019566E+0	1.046942E+0	9.963160E-1	1.036061E+0	9.837563E-1	9.892673E-1	9.944841E-1	1.016745E+0	1.075343E+0	1.057223E+0	1.013635E+0	1.003503E+0	1.016343E+0	1.038554E+0	1.017586E+0	9.858724E-1	1.041112E+0	1.041942E+0	1.047243E+0	1.020815E+0	1.005965E+0	9.781758E-1	1.018605E+0	1.085781E+0	1.026722E+0	1.015904E+0	1.027319E+0	1.013716E+0	1.028090E+0	1.020728E+0	1.007906E+0	1.056535E+0	1.005102E+0	1.035735E+0	1.013227E+0	9.761014E-1	1.018869E+0	1.000640E+0	1.036876E+0	1.030502E+0	1.037351E+0	1.026284E+0	1.031880E+0	1.037631E+0	1.025339E+0	1.058147E+0	9.977563E-1	1.071123E+0	1.006043E+0	1.013031E+0	1.010722E+0	1.020219E+0	1.041546E+0	1.052165E+0	9.889328E-1	1.011020E+0	1.009659E+0	1.013453E+0	1.011315E+0	1.018877E+0	1.029041E+0	1.025801E+0	1.036185E+0	1.001302E+0	9.895457E-1	1.027002E+0	1.018979E+0	9.924947E-1	1.033569E+0	1.009967E+0	1.009320E+0	9.940223E-1	1.025361E+0	1.011251E+0	9.876147E-1	1.003740E+0	1.007869E+0	1.051361E+0	1.048611E+0	1.040201E+0	1.044990E+0	1.000505E+0	1.031445E+0	1.005539E+0	1.026926E+0	1.028716E+0	1.045549E+0	1.005803E+0	1.011732E+0	1.065138E+0	1.016107E+0	9.945656E-1	1.020436E+0	1.060646E+0	1.002317E+0	1.048963E+0	1.059872E+0	1.038578E+0	1.036475E+0	1.032816E+0	1.017819E+0	1.011432E+0	1.078112E+0	1.001886E+0	9.846672E-1	1.018369E+0	1.034326E+0	9.940554E-1	1.022822E+0	1.033215E+0	1.031851E+0	9.948253E-1	1.023662E+0	9.914507E-1	1.013816E+0	1.010568E+0	1.036787E+0	9.896408E-1	1.016840E+0	1.039526E+0	9.820129E-1	9.893156E-1	9.919520E-1	1.014606E+0	1.044216E+0	1.030425E+0	1.003136E+0	1.020194E+0	1.000933E+0	1.016899E+0	1.049409E+0	1.058322E+0	9.703070E-1	9.651675E-1	9.978397E-1	1.040514E+0	1.015239E+0	1.014306E+0	9.975914E-1	1.048831E+0	1.016893E+0	1.020236E+0	1.032327E+0	1.056832E+0	1.032140E+0	9.712379E-1	9.972269E-1	1.024969E+0	1.045212E+0	9.782110E-1	1.003517E+0	9.602002E-1	1.041326E+0	1.007589E+0	1.018763E+0	1.055435E+0	9.986475E-1	1.025274E+0	9.981260E-1	9.907998E-1	9.923866E-1	1.059915E+0
5.580170E+2	1.003746E+0	1.005846E+0	1.016582E+0	9.681586E-1	1.007193E+0	1.035808E+0	1.018044E+0	1.009155E+0	1.032154E+0	9.963196E-1	1.012117E+0	9.704335E-1	9.864397E-1	1.000941E+0	1.021560E+0	1.026126E+0	9.820367E-1	1.014704E+0	9.731199E-1	9.743895E-1	1.009258E+0	1.002931E+0	1.007612E+0	1.011114E+0	1.005137E+0	9.966295E-1	9.962143E-1	1.021526E+0	9.763995E-1	1.002914E+0	9.812609E-1	9.894899E-1	9.945826E-1	1.047007E+0	9.756882E-1	9.872643E-1	9.855456E-1	9.912311E-1	9.865972E-1	1.017116E+0	9.723212E-1	1.023622E+0	9.961404E-1	1.030943E+0	1.004898E+0	1.015553E+0	1.022561E+0	1.002218E+0	9.966980E-1	1.037384E+0	9.952702E-1	1.049246E+0	9.710390E-1	1.010912E+0	1.016827E+0	1.018803E+0	1.035962E+0	9.268447E-1	9.623449E-1	1.015524E+0	9.774056E-1	1.003553E+0	9.963141E-1	9.799499E-1	1.009153E+0	1.041820E+0	9.904725E-1	1.052013E+0	1.016556E+0	9.810913E-1	9.496827E-1	1.022235E+0	9.704398E-1	1.024723E+0	1.029416E+0	9.848016E-1	1.015162E+0	1.012170E+0	9.978041E-1	9.969185E-1	1.003920E+0	1.018090E+0	1.000165E+0	1.036708E+0	9.908166E-1	9.898333E-1	1.038578E+0	1.013327E+0	1.042242E+0	1.016472E+0	9.805223E-1	1.040883E+0	9.910944E-1	1.026362E+0	9.823227E-1	9.994539E-1	1.043155E+0	9.994693E-1	9.908741E-1	1.017540E+0	9.805535E-1	9.984578E-1	9.784294E-1	9.945912E-1	1.002915E+0	1.027004E+0	1.015495E+0	1.033543E+0	9.756451E-1	1.032789E+0	9.986209E-1	9.585751E-1	1.051775E+0	1.033458E+0	1.001381E+0	1.019303E+0	1.029204E+0	1.000931E+0	1.000210E+0	1.014519E+0	1.017215E+0	1.032159E+0	9.848590E-1	1.011420E+0	1.004101E+0	1.038769E+0	1.008183E+0	1.040128E+0	1.014020E+0	1.022767E+0	9.804932E-1	9.989793E-1	9.719325E-1	1.055185E+0	9.735576E-1	1.022218E+0	1.026538E+0	9.956608E-1	1.049801E+0	1.012223E+0	9.897273E-1	9.929129E-1	1.005300E+0	1.020008E+0	9.879947E-1	9.957705E-1	1.011856E+0	1.004805E+0	1.018017E+0	1.051598E+0	1.060566E+0	9.757295E-1	1.053212E+0	1.027594E+0	1.009035E+0	9.746615E-1	9.960023E-1	9.956173E-1	9.598877E-1	1.030640E+0	1.040806E+0	1.032160E+0	1.008088E+0	9.992233E-1	1.001659E+0	1.050983E+0	1.020370E+0	1.011212E+0	1.051946E+0	1.001536E+0
5.585160E+2	1.018601E+0	9.988053E-1	1.017906E+0	9.974877E-1	1.018506E+0	1.033994E+0	1.006871E+0	1.015954E+0	1.019543E+0	1.004374E+0	1.021189E+0	1.007743E+0	1.011798E+0	1.043021E+0	1.034594E+0	9.989548E-1	9.997420E-1	1.005835E+0	1.001920E+0	1.025571E+0	1.019520E+0	1.010022E+0	1.044189E+0	1.009157E+0	9.825611E-1	1.025334E+0	9.789101E-1	1.039746E+0	1.030517E+0	1.039778E+0	1.023714E+0	1.007564E+0	1.020105E+0	9.889371E-1	9.963290E-1	1.002878E+0	1.009720E+0	1.025314E+0	1.015335E+0	1.011932E+0	1.027606E+0	9.841504E-1	1.006171E+0	1.027053E+0	1.016572E+0	1.043675E+0	1.015043E+0	1.003115E+0	1.029995E+0	9.932773E-1	9.365852E-1	9.758826E-1	1.007064E+0	9.772490E-1	1.020217E+0	9.713805E-1	1.001009E+0	1.068491E+0	1.037804E+0	1.009701E+0	1.014024E+0	1.009213E+0	1.015170E+0	1.027863E+0	1.004034E+0	9.869951E-1	1.013712E+0	1.002322E+0	9.910131E-1	1.035376E+0	1.058752E+0	9.776686E-1	1.019614E+0	1.014695E+0	1.030906E+0	1.012408E+0	1.020007E+0	9.680180E-1	1.034413E+0	1.015195E+0	1.022024E+0	1.003404E+0	1.015897E+0	1.038200E+0	1.021338E+0	1.006509E+0	1.058704E+0	1.012325E+0	9.872212E-1	9.928346E-1	9.919121E-1	9.944606E-1	9.697656E-1	9.922811E-1	1.008365E+0	1.043651E+0	9.956292E-1	9.984675E-1	9.966761E-1	1.034287E+0	1.014411E+0	1.026000E+0	1.001520E+0	1.026433E+0	9.923452E-1	1.005053E+0	9.937796E-1	1.019266E+0	1.035516E+0	1.002984E+0	1.004777E+0	1.037111E+0	1.000972E+0	9.899611E-1	9.922210E-1	9.770438E-1	1.024714E+0	9.818227E-1	1.006394E+0	9.853450E-1	1.005321E+0	1.016914E+0	1.033761E+0	9.700535E-1	1.039628E+0	1.000926E+0	9.866639E-1	9.862154E-1	1.017532E+0	9.759233E-1	1.037340E+0	1.013296E+0	1.011710E+0	1.012323E+0	1.004329E+0	9.820095E-1	1.003266E+0	9.831675E-1	9.703119E-1	9.978964E-1	1.048829E+0	1.004870E+0	1.075697E+0	1.049183E+0	1.026759E+0	1.056486E+0	1.015621E+0	9.906107E-1	1.048117E+0	1.060940E+0	9.493591E-1	1.038592E+0	9.922125E-1	1.024909E+0	9.774352E-1	1.032671E+0	9.970490E-1	9.872784E-1	9.942762E-1	1.003531E+0	1.006425E+0	1.016104E+0	1.000897E+0	1.018920E+0	1.024621E+0	1.003758E+0	1.030026E+0	9.481824E-1	9.567555E-1	9.817252E-1
5.590160E+2	9.664383E-1	1.004199E+0	9.840675E-1	1.052618E+0	9.416677E-1	1.029890E+0	1.029324E+0	1.008145E+0	9.653101E-1	9.927865E-1	9.769301E-1	1.004646E+0	9.905547E-1	1.023907E+0	1.050743E+0	1.027733E+0	9.896822E-1	9.825579E-1	9.885861E-1	1.023504E+0	1.020834E+0	9.968707E-1	9.853572E-1	1.026005E+0	9.805051E-1	1.000726E+0	9.943372E-1	9.806308E-1	9.704242E-1	1.027247E+0	1.030392E+0	9.874431E-1	1.034687E+0	1.007131E+0	1.008130E+0	1.017513E+0	9.653073E-1	1.008640E+0	1.052094E+0	1.027527E+0	1.031144E+0	1.013242E+0	1.021220E+0	9.872740E-1	9.825002E-1	9.684689E-1	9.781448E-1	9.987449E-1	9.734749E-1	1.025439E+0	1.004834E+0	9.824110E-1	9.968455E-1	9.759132E-1	1.019651E+0	9.772085E-1	1.047824E+0	1.027652E+0	1.004012E+0	1.046890E+0	1.009893E+0	9.682832E-1	9.796184E-1	9.881135E-1	1.033179E+0	1.010111E+0	1.083755E+0	9.687035E-1	1.003765E+0	9.766089E-1	1.005383E+0	9.887313E-1	1.044535E+0	1.014253E+0	1.018590E+0	1.040000E+0	9.689574E-1	1.011362E+0	9.961987E-1	1.022690E+0	1.003878E+0	9.875847E-1	9.846170E-1	1.006057E+0	1.005790E+0	9.913412E-1	9.883446E-1	9.997577E-1	9.559949E-1	9.839882E-1	1.035804E+0	1.028460E+0	1.053792E+0	1.016297E+0	1.019854E+0	1.023606E+0	9.777314E-1	1.003834E+0	1.045210E+0	1.015570E+0	1.018114E+0	1.038553E+0	1.006007E+0	1.024768E+0	1.017061E+0	9.729017E-1	9.984292E-1	9.908409E-1	1.014067E+0	1.010737E+0	1.004255E+0	1.001499E+0	1.002839E+0	9.772453E-1	9.762508E-1	1.067638E+0	1.014729E+0	1.009368E+0	9.888165E-1	9.986913E-1	9.606866E-1	1.023056E+0	1.040091E+0	9.900552E-1	1.025042E+0	9.715367E-1	1.043952E+0	1.009686E+0	1.000203E+0	9.728811E-1	1.004149E+0	9.855066E-1	1.003168E+0	1.004913E+0	1.005030E+0	1.018850E+0	9.902649E-1	1.025689E+0	9.957219E-1	9.967580E-1	1.022462E+0	1.003591E+0	1.014378E+0	1.024893E+0	9.672207E-1	1.008149E+0	1.035883E+0	9.954206E-1	1.015756E+0	9.604149E-1	1.048433E+0	9.807588E-1	1.021755E+0	1.009767E+0	1.016148E+0	9.712896E-1	1.050252E+0	1.022405E+0	1.066995E+0	1.022902E+0	1.000189E+0	1.036370E+0	9.967164E-1	1.024243E+0	9.771537E-1	1.017173E+0	1.024682E+0	9.982048E-1	1.029252E+0	9.938642E-1
5.595110E+2	1.000332E+0	9.830460E-1	9.760420E-1	9.986879E-1	1.033919E+0	9.840169E-1	9.828944E-1	9.644976E-1	9.868557E-1	9.718197E-1	9.477269E-1	1.000563E+0	9.939942E-1	9.908611E-1	9.538272E-1	9.593520E-1	9.929953E-1	1.000294E+0	9.931839E-1	9.928236E-1	9.986582E-1	1.011127E+0	9.943526E-1	9.914148E-1	9.823492E-1	9.764064E-1	1.034041E+0	1.013710E+0	1.022846E+0	9.954091E-1	9.847176E-1	1.030114E+0	9.809804E-1	1.004478E+0	9.989576E-1	9.851389E-1	1.006974E+0	9.524111E-1	1.048220E+0	1.000328E+0	1.017586E+0	9.746625E-1	1.029578E+0	1.020321E+0	9.941943E-1	9.730171E-1	1.019775E+0	9.911364E-1	9.896307E-1	1.013727E+0	9.936503E-1	1.008345E+0	1.020650E+0	1.026549E+0	1.045156E+0	1.014711E+0	1.002582E+0	1.011874E+0	1.001202E+0	9.954269E-1	9.962366E-1	1.004593E+0	9.776453E-1	9.936334E-1	9.849332E-1	9.891683E-1	1.021712E+0	1.002351E+0	1.000759E+0	1.011255E+0	9.698204E-1	1.007688E+0	9.766343E-1	1.029883E+0	1.015312E+0	9.940440E-1	1.016601E+0	9.786703E-1	1.003390E+0	9.954328E-1	1.016440E+0	1.013717E+0	9.595436E-1	9.718966E-1	9.675359E-1	9.860570E-1	9.508630E-1	9.847132E-1	1.032047E+0	1.000336E+0	9.531412E-1	9.785768E-1	1.016748E+0	1.022606E+0	9.657563E-1	9.712741E-1	9.808476E-1	1.003152E+0	1.004219E+0	1.001584E+0	1.018381E+0	9.626775E-1	1.001157E+0	9.479541E-1	9.690022E-1	9.273356E-1	1.060233E+0	9.790937E-1	9.895663E-1	9.990103E-1	9.851825E-1	9.900139E-1	1.035898E+0	1.018841E+0	1.037781E+0	9.437213E-1	9.916472E-1	1.016552E+0	1.001721E+0	1.001704E+0	9.801344E-1	9.948176E-1	9.357518E-1	9.973728E-1	1.015975E+0	9.756734E-1	9.962074E-1	1.007763E+0	1.023526E+0	1.028054E+0	1.024459E+0	9.770792E-1	9.981286E-1	9.739589E-1	9.707067E-1	9.930293E-1	9.755894E-1	9.870102E-1	9.687852E-1	9.771564E-1	1.014715E+0	1.020081E+0	9.964922E-1	9.952058E-1	1.002255E+0	9.890896E-1	9.525689E-1	9.973131E-1	9.988973E-1	9.670027E-1	9.884717E-1	9.862431E-1	9.965692E-1	9.955952E-1	1.006004E+0	1.007313E+0	9.997261E-1	1.021458E+0	9.770223E-1	9.841807E-1	1.031111E+0	9.470359E-1	1.043830E+0	1.007949E+0	9.997725E-1	1.016783E+0	1.065989E+0	1.001202E+0	9.819693E-1	9.788292E-1
5.600520E+2	1.038858E+0	1.031113E+0	1.045556E+0	1.014484E+0	1.018595E+0	9.895589E-1	1.028480E+0	1.039032E+0	1.032564E+0	1.032511E+0	1.026869E+0	9.917933E-1	1.019772E+0	1.007787E+0	9.671461E-1	1.022797E+0	1.027882E+0	1.022863E+0	1.043476E+0	1.026890E+0	1.019349E+0	9.981967E-1	1.028217E+0	9.768025E-1	9.907020E-1	9.843018E-1	1.014859E+0	1.008406E+0	1.005016E+0	1.028017E+0	1.017748E+0	1.034414E+0	1.032804E+0	1.000372E+0	1.000794E+0	1.021428E+0	1.009095E+0	9.914289E-1	9.814236E-1	9.898285E-1	1.020292E+0	1.043330E+0	1.007229E+0	1.039983E+0	1.019476E+0	1.044622E+0	1.001857E+0	1.006652E+0	9.972591E-1	1.021219E+0	1.067732E+0	9.966933E-1	1.028353E+0	1.003923E+0	1.061995E+0	1.029151E+0	1.020845E+0	1.012569E+0	1.014273E+0	9.685401E-1	1.020881E+0	1.022703E+0	1.019139E+0	1.007838E+0	1.040923E+0	1.038984E+0	1.001060E+0	1.027534E+0	1.001058E+0	1.005125E+0	1.032045E+0	1.008569E+0	1.040863E+0	1.017187E+0	1.016658E+0	1.009629E+0	9.837885E-1	1.000005E+0	1.048384E+0	1.016692E+0	1.034251E+0	1.018973E+0	1.027698E+0	9.781455E-1	1.046514E+0	1.000412E+0	9.939080E-1	1.013156E+0	1.017692E+0	1.024285E+0	1.046038E+0	1.045198E+0	1.034979E+0	9.656218E-1	1.039911E+0	1.012196E+0	9.896860E-1	9.707479E-1	9.844315E-1	1.040794E+0	1.050542E+0	9.935221E-1	1.033412E+0	1.009646E+0	1.042671E+0	1.006029E+0	9.941707E-1	9.996984E-1	1.019296E+0	1.023675E+0	1.038541E+0	1.033942E+0	1.006694E+0	1.013831E+0	1.001313E+0	1.050784E+0	1.014717E+0	1.000702E+0	1.008793E+0	1.056041E+0	1.023871E+0	1.032522E+0	1.067086E+0	1.053600E+0	1.006266E+0	9.920802E-1	1.006497E+0	1.018964E+0	1.003077E+0	1.041061E+0	9.861667E-1	1.010366E+0	1.015616E+0	9.933266E-1	1.022361E+0	1.027942E+0	1.007130E+0	9.887359E-1	1.018424E+0	9.723533E-1	1.032108E+0	1.008750E+0	1.028163E+0	9.528953E-1	1.045384E+0	9.783634E-1	9.773942E-1	1.040343E+0	9.961788E-1	9.946267E-1	1.024758E+0	1.000768E+0	1.019606E+0	1.019772E+0	1.014308E+0	1.052394E+0	9.846247E-1	1.020635E+0	1.044208E+0	1.003633E+0	9.950452E-1	9.862331E-1	9.774622E-1	9.732929E-1	1.031953E+0	9.841141E-1	1.011537E+0	1.055874E+0	1.029683E+0	1.009933E+0
5.605150E+2	9.936032E-1	1.019161E+0	9.809599E-1	1.011249E+0	9.925424E-1	9.700923E-1	1.022377E+0	9.875121E-1	1.011134E+0	1.000263E+0	1.024617E+0	1.011984E+0	1.046775E+0	9.697814E-1	9.815569E-1	1.020401E+0	1.020537E+0	1.038344E+0	1.033085E+0	1.013404E+0	9.841074E-1	9.897354E-1	1.007663E+0	1.001400E+0	1.034640E+0	1.009592E+0	9.818347E-1	9.642063E-1	9.908147E-1	9.817441E-1	1.025355E+0	9.528778E-1	9.866816E-1	1.014878E+0	1.015806E+0	9.955652E-1	1.000360E+0	9.750504E-1	1.018787E+0	9.799144E-1	1.018044E+0	9.887412E-1	9.742539E-1	1.008850E+0	9.898652E-1	9.840641E-1	9.898322E-1	1.039539E+0	1.001339E+0	9.935465E-1	1.048546E+0	1.001435E+0	1.020903E+0	1.004257E+0	9.720513E-1	1.011533E+0	9.629308E-1	9.910454E-1	1.027519E+0	9.881016E-1	1.017572E+0	1.042043E+0	1.071998E+0	1.036832E+0	9.988640E-1	9.808079E-1	9.179312E-1	1.007811E+0	1.004840E+0	9.960182E-1	1.014083E+0	1.033017E+0	9.901756E-1	9.880375E-1	9.873728E-1	1.020481E+0	1.038933E+0	1.060283E+0	9.929941E-1	1.045116E+0	1.005249E+0	1.011999E+0	1.060265E+0	1.029000E+0	9.933142E-1	9.974494E-1	1.043816E+0	9.771091E-1	1.004791E+0	1.036712E+0	9.878894E-1	1.002676E+0	1.008743E+0	1.028960E+0	1.002421E+0	1.002613E+0	9.770968E-1	1.012146E+0	1.020749E+0	9.977581E-1	9.642214E-1	9.734641E-1	1.014613E+0	9.963127E-1	1.030569E+0	1.000558E+0	1.002992E+0	9.905293E-1	1.035910E+0	1.013735E+0	9.952818E-1	9.950250E-1	9.845358E-1	9.705969E-1	1.011073E+0	1.028744E+0	9.983275E-1	1.009532E+0	1.018184E+0	9.822201E-1	1.018685E+0	1.013730E+0	9.916771E-1	1.010544E+0	9.674761E-1	1.059511E+0	1.005277E+0	9.555657E-1	9.853742E-1	1.035577E+0	1.053804E+0	1.014868E+0	1.037556E+0	9.620197E-1	9.939550E-1	9.803045E-1	1.032241E+0	1.011573E+0	9.493360E-1	1.002455E+0	9.857347E-1	1.002777E+0	9.961672E-1	9.750899E-1	9.755299E-1	1.037287E+0	1.055535E+0	1.000411E+0	9.778350E-1	9.736702E-1	9.630331E-1	1.039815E+0	9.739201E-1	1.038333E+0	1.034495E+0	1.013952E+0	9.869484E-1	9.889333E-1	1.014342E+0	9.759579E-1	1.009930E+0	1.022831E+0	9.806736E-1	1.006377E+0	1.004505E+0	9.626043E-1	1.005093E+0	1.035371E+0	9.415899E-1	1.003002E+0
5.610180E+2	9.581286E-1	9.651581E-1	9.627120E-1	9.734921E-1	9.933600E-1	9.430272E-1	9.397375E-1	9.541836E-1	9.760850E-1	9.835487E-1	9.978814E-1	9.963603E-1	1.002818E+0	9.830723E-1	9.901229E-1	9.731559E-1	9.694738E-1	9.656129E-1	1.005593E+0	9.856945E-1	1.013272E+0	9.658945E-1	9.927206E-1	1.006068E+0	9.901286E-1	9.889879E-1	9.666213E-1	9.775037E-1	9.884170E-1	9.731046E-1	9.694525E-1	9.746831E-1	9.870236E-1	9.751137E-1	9.905710E-1	1.020639E+0	9.946216E-1	9.871625E-1	9.666206E-1	9.649134E-1	9.417398E-1	1.004880E+0	1.006960E+0	9.811206E-1	9.742139E-1	9.883583E-1	9.648703E-1	9.814196E-1	1.008992E+0	9.754647E-1	9.471432E-1	9.631718E-1	9.905116E-1	9.848713E-1	9.463224E-1	9.678454E-1	1.009714E+0	9.928954E-1	9.811747E-1	9.894877E-1	9.445047E-1	9.622886E-1	9.312810E-1	9.746327E-1	9.713186E-1	9.270989E-1	9.992381E-1	9.638600E-1	9.977298E-1	1.014066E+0	1.013650E+0	9.692829E-1	9.873369E-1	9.438678E-1	9.823558E-1	9.761415E-1	9.873850E-1	9.782139E-1	9.744464E-1	9.780178E-1	9.427826E-1	9.702377E-1	1.012182E+0	9.630294E-1	9.716276E-1	9.702907E-1	9.686674E-1	9.860402E-1	9.692067E-1	9.890442E-1	1.014081E+0	9.688269E-1	9.625379E-1	9.785550E-1	9.844199E-1	9.642809E-1	1.013627E+0	9.960691E-1	9.976708E-1	1.010867E+0	9.782430E-1	9.801594E-1	9.730613E-1	9.744791E-1	9.514947E-1	1.026549E+0	9.877200E-1	9.566014E-1	9.664246E-1	9.697811E-1	9.661551E-1	9.789635E-1	9.808364E-1	9.680389E-1	9.567808E-1	9.266218E-1	9.572632E-1	9.917915E-1	9.595163E-1	9.837894E-1	9.445140E-1	9.594617E-1	9.575550E-1	9.996063E-1	9.309959E-1	1.015635E+0	9.635582E-1	9.873475E-1	1.000135E+0	9.917241E-1	9.597411E-1	9.936519E-1	9.731870E-1	9.989406E-1	9.639710E-1	9.940966E-1	9.965023E-1	9.588710E-1	9.829131E-1	1.006144E+0	9.620676E-1	1.025092E+0	9.243535E-1	9.544035E-1	9.714913E-1	9.633495E-1	1.004749E+0	9.595077E-1	1.003586E+0	1.012723E+0	9.762957E-1	9.843413E-1	9.545525E-1	9.513086E-1	9.682416E-1	9.727654E-1	9.852888E-1	1.015912E+0	9.820091E-1	9.918642E-1	9.504783E-1	9.615556E-1	1.007355E+0	9.340933E-1	9.924849E-1	9.700218E-1	9.351966E-1	9.921030E-1	9.616843E-1	9.890231E-1
