Photon Energy (eV)	#1	#2	#3	#4	#5	#6	#7	#8	#9	#10	#11	#12	#13	#14	#15	#16	#17	#18	#19	#20	#21	#22	#23	#24	#25	#26	#27	#28	#29	#30	#31	#32	#33	#34	#35	#36	#37	#38	#39	#40	#41	#42	#43	#44	#45	#46	#47	#48	#49	#50	#51	#52	#53	#54	#55	#56	#57	#58	#59	#60	#61	#62	#63	#64	#65	#66	#67	#68	#69	#70	#71	#72	#73	#74	#75	#76	#77	#78	#79	#80	#81	#82	#83	#84	#85	#86	#87	#88	#89	#90	#91	#92	#93	#94	#95	#96	#97	#98	#99	#100	#101	#102	#103	#104	#105	#106	#107	#108	#109	#110	#111	#112	#113	#114	#115	#116	#117	#118	#119	#120	#121	#122	#123	#124	#125	#126	#127	#128	#129	#130	#131	#132	#133	#134	#135	#136	#137	#138	#139	#140	#141	#142	#143	#144	#145	#146	#147	#148	#149	#150	#151	#152	#153	#154	#155	#156	#157	#158	#159	#160	#161	#162	#163	#164	#165	#166	#167	#168	#169	#170	
5.300110E+2	-6.220465E-3	-1.044442E-2	-1.563084E-4	-2.125028E-3	-2.325530E-3	-4.814426E-3	-2.224424E-3	-4.012800E-3	3.061061E-3	-6.715185E-3	1.292366E-3	-1.572192E-2	-2.151935E-3	-9.366250E-3	-1.427554E-2	-1.131418E-2	-1.294208E-2	-1.092585E-3	-7.621802E-3	-6.814977E-3	-9.891104E-3	-8.173389E-3	-7.514777E-3	-6.130861E-3	-3.172395E-3	1.564445E-5	-5.977918E-3	-1.108683E-2	-8.974494E-3	-1.146556E-2	-1.939508E-3	-3.867166E-3	-9.934484E-4	3.675641E-3	-7.974441E-3	-7.803655E-3	1.843046E-3	-1.053015E-2	-3.405203E-3	-9.060129E-3	-2.030051E-3	-1.074816E-2	2.449826E-3	-9.217503E-3	-6.614490E-3	-3.147631E-3	-5.216280E-3	-6.648038E-3	-6.396779E-3	-1.104417E-3	-7.989140E-3	-5.762615E-3	-1.386197E-3	-2.080331E-3	-3.411564E-3	-6.985072E-3	-6.438295E-3	-8.936894E-3	1.086818E-3	-1.211340E-2	-2.661816E-3	1.677853E-3	1.694169E-3	-5.768403E-3	-7.587906E-3	-1.067048E-2	-4.967486E-3	-3.992081E-3	-1.190027E-2	5.354971E-3	-1.083212E-2	-7.387025E-3	-9.439489E-3	-1.131643E-2	-7.321012E-3	-4.491000E-3	-6.405809E-3	-4.254497E-3	-9.270224E-3	-5.238141E-3	-8.736817E-3	-9.122190E-3	-7.708014E-3	-1.225988E-2	-1.196367E-3	-1.209824E-2	-5.290306E-3	-1.116569E-3	-1.411843E-2	-8.180930E-3	-1.669198E-2	-6.400359E-3	-8.145782E-3	-7.127401E-3	-3.676361E-3	-5.762190E-3	-1.085126E-2	-1.425144E-3	-3.119252E-3	-5.074788E-3	1.059004E-2	-1.952510E-3	-1.122067E-2	1.638201E-3	-8.055707E-3	-9.805388E-3	-1.907171E-2	-6.968381E-3	-3.770409E-3	6.461804E-3	-9.518880E-3	-9.301416E-3	-7.836479E-3	-1.041112E-2	-1.733346E-3	-3.832357E-3	-5.871569E-3	-1.230159E-2	-1.105430E-2	-6.088790E-3	-3.750875E-3	2.786824E-3	2.580762E-3	-1.698989E-2	-9.161006E-3	-1.119948E-2	-7.811251E-3	-2.723459E-3	2.019130E-3	-7.382581E-3	-1.125577E-2	-9.397972E-3	-1.193633E-2	-4.995537E-3	-3.847937E-3	-3.774608E-3	-6.916234E-3	-2.302466E-3	-4.539957E-3	-1.471492E-3	-5.037375E-3	-1.009429E-2	-9.151905E-4	-7.802256E-3	-5.460298E-3	-8.776933E-3	5.711542E-3	1.234806E-3	2.563376E-3	-4.777045E-3	-3.532317E-3	1.401371E-3	2.317348E-3	-1.319799E-2	-1.272973E-2	-1.572623E-3	-9.541312E-3	-4.921133E-3	-1.049500E-2	-8.087361E-3	-9.862083E-3	-5.211938E-3	-1.087686E-2	-1.274299E-3	-9.699230E-3	-9.366656E-3	4.428147E-4	2.118821E-4	8.581694E-3	-1.889367E-2
5.305130E+2	-1.418591E-3	-4.154793E-3	-3.493598E-3	-8.635050E-3	3.017051E-3	5.318135E-3	-9.920394E-3	-8.424920E-3	-4.485290E-3	-1.348578E-2	-4.662927E-3	-7.767699E-3	-6.803153E-3	-2.975737E-3	6.930230E-4	-8.726049E-3	-4.384424E-3	-5.566048E-4	7.179866E-3	6.425093E-5	-4.862116E-3	-8.124239E-3	-4.577962E-3	-8.058284E-3	-9.735970E-3	4.540984E-3	-5.417095E-3	-5.726446E-3	-7.549242E-4	3.777730E-3	-1.060146E-3	-1.196584E-2	-9.893417E-3	-4.730863E-3	-5.473946E-3	-9.970437E-3	-1.029144E-2	-5.961035E-3	-2.033740E-3	-9.048218E-3	-7.130531E-3	1.900308E-3	-6.538655E-3	-4.371708E-3	2.844959E-3	-1.234037E-3	-6.585596E-4	-9.246482E-3	-3.387848E-3	-5.249752E-3	-7.452626E-3	2.497900E-3	-1.307603E-2	-6.321429E-3	-9.422247E-3	-5.377151E-3	-3.051461E-3	-7.590837E-3	-5.824363E-3	-6.177431E-3	-8.965553E-3	2.751438E-3	-6.830843E-3	-9.207330E-3	1.355936E-3	-3.500512E-3	3.526969E-3	-8.906290E-3	2.012494E-3	-6.245362E-3	-4.532054E-3	-1.586936E-2	1.386398E-3	-1.076046E-2	-1.892145E-3	-6.168548E-3	-4.769783E-3	-7.131269E-3	-7.378563E-3	-9.918913E-3	-1.419742E-2	1.341749E-4	-4.814920E-3	-9.618916E-3	-8.352839E-3	-4.901031E-4	-2.779744E-3	-8.618925E-3	-2.149550E-3	-4.925741E-3	9.831188E-4	-1.345315E-2	-1.152762E-2	-1.326745E-3	-2.327230E-4	-4.487948E-3	1.714125E-2	-1.334854E-2	2.633881E-3	-6.700303E-3	-9.440203E-3	-4.092610E-3	-5.102303E-3	-8.692879E-3	-7.445779E-3	-1.361627E-2	-4.174313E-3	4.528149E-3	-9.913831E-3	-6.460953E-3	-9.299401E-3	6.447228E-4	-1.075197E-2	1.028223E-3	-5.792865E-3	-4.366718E-3	-7.510698E-3	-8.372673E-4	-1.043848E-2	2.140201E-4	-8.717239E-4	-8.369586E-3	-9.004788E-3	6.305895E-3	-1.012372E-2	-5.548854E-3	6.591331E-3	-4.149543E-3	-1.800414E-2	-6.230299E-3	-3.863395E-3	-7.349788E-3	-9.778434E-3	8.904122E-4	-7.331856E-3	-1.103346E-2	-5.826428E-3	-1.438303E-2	1.855577E-3	-1.494861E-2	-5.019194E-3	-6.984018E-3	-5.557205E-3	-1.319388E-2	-3.509039E-3	-2.204660E-3	-1.229839E-2	-1.076979E-2	-9.307274E-3	-5.800775E-3	1.720037E-3	3.954507E-4	-2.019341E-3	1.472809E-3	-5.593611E-3	-1.211269E-2	-9.494399E-3	2.489025E-3	-3.033992E-3	-3.992129E-5	-6.195653E-3	-7.144647E-3	-4.480879E-3	-7.964630E-3	4.467151E-3	-8.267892E-4	-1.087695E-2	-2.714414E-3	-1.021289E-2	-1.367245E-2
5.310050E+2	-7.583284E-3	-5.182769E-3	-3.290423E-3	-6.460513E-3	-9.059305E-3	-4.039700E-3	2.392471E-3	-2.830412E-3	-6.974776E-3	-9.093743E-3	-3.461695E-3	3.008288E-3	-1.037614E-3	-3.233646E-3	-6.545186E-3	-3.475865E-3	-4.183307E-3	-3.636104E-3	2.881542E-5	-5.882394E-3	8.598073E-3	9.257969E-3	-4.364965E-4	2.287171E-3	-2.344675E-3	-9.371229E-3	-1.034190E-2	-8.334033E-4	-3.429202E-3	-1.014562E-2	7.152103E-5	4.921923E-3	-2.538207E-3	-5.087639E-3	-5.259790E-3	5.866909E-3	-5.886036E-3	-2.717793E-3	-5.537201E-3	-2.898465E-3	-3.483737E-3	-3.113515E-3	-9.814136E-3	-1.750034E-3	-4.884808E-3	-7.801946E-3	-4.168869E-4	-2.222087E-3	-2.034864E-3	-1.223134E-2	-2.658055E-3	-4.130335E-4	-6.499630E-3	-3.445689E-3	-3.197229E-3	-9.920497E-3	-6.189581E-3	-8.005275E-3	-2.720087E-3	-3.061062E-3	-5.371389E-3	-6.349670E-3	8.418493E-4	-4.930283E-3	9.620401E-4	-1.221197E-2	-7.479085E-3	-6.198689E-3	-1.961149E-3	-6.556501E-3	-5.360413E-3	3.447003E-4	-2.334198E-3	-3.048698E-4	5.212528E-4	-1.120364E-3	7.657535E-3	-2.684356E-4	2.133890E-3	1.466698E-3	4.077224E-3	3.935793E-4	-5.680659E-3	-1.125638E-2	-2.624142E-3	-4.766363E-3	-6.773002E-3	-2.909415E-3	-1.155585E-2	3.860042E-3	-5.144365E-3	-8.950495E-3	-4.492471E-4	3.561578E-4	-1.361558E-2	1.405061E-4	-7.595069E-3	-1.686091E-3	-1.270458E-2	9.559262E-4	-5.121109E-3	-1.163102E-3	-1.274100E-3	-1.002268E-2	1.765461E-3	1.955596E-3	-1.220552E-2	2.180209E-3	2.735052E-3	-2.756368E-3	1.017326E-2	-7.721323E-4	8.446885E-3	5.832378E-3	-4.764940E-3	-5.492787E-3	-1.134049E-3	-1.642070E-3	-5.716181E-3	-2.684930E-3	5.139024E-4	8.783452E-4	-6.112584E-3	-4.418701E-4	-6.784703E-3	3.295885E-4	-1.209009E-2	2.759361E-3	5.865469E-3	-5.969383E-3	-6.691384E-4	-3.282388E-3	-3.910887E-3	6.536430E-4	-5.374498E-4	2.222502E-3	-5.583742E-3	1.656381E-3	-5.047678E-3	-7.153277E-3	-2.220226E-3	5.514542E-3	-8.396185E-3	-7.875476E-3	2.375451E-3	-1.959391E-3	-3.035516E-3	3.366158E-3	-9.115195E-3	4.011721E-3	-5.673214E-3	-3.164988E-4	-8.726473E-3	3.790580E-3	-2.932440E-3	-4.618803E-3	-3.630894E-3	-3.922663E-3	3.849317E-3	-6.516387E-3	-5.031557E-5	-6.185809E-3	3.317680E-3	1.996277E-4	-9.942650E-3	-1.692127E-3	-1.118158E-2	-3.976638E-3	-1.119996E-2	1.676794E-3
5.315130E+2	-1.119893E-2	6.252397E-3	-1.302678E-2	-7.619278E-3	5.812145E-3	-1.114632E-3	-8.431311E-3	2.475312E-3	8.502288E-4	3.373650E-3	-2.166554E-3	5.567518E-3	-6.834442E-3	-5.406336E-3	-4.919705E-3	-5.928227E-4	5.723293E-3	-2.833329E-3	9.246496E-4	-3.292431E-3	-4.962538E-4	2.232244E-3	-1.572672E-3	3.180648E-3	3.459313E-3	1.665260E-3	-8.470064E-4	-5.794956E-4	2.158614E-3	4.946405E-3	-2.359311E-3	7.539971E-4	-4.130639E-3	-7.165732E-3	3.099925E-3	-5.085138E-3	-1.323849E-2	-3.433899E-3	8.704576E-4	5.337508E-3	4.871730E-3	3.516211E-3	1.160297E-2	-7.553325E-3	5.469110E-3	2.800986E-3	2.300224E-3	1.826665E-3	4.746806E-4	1.814048E-3	-2.349957E-3	-4.692374E-3	8.322528E-3	1.654109E-3	-4.961205E-3	1.567587E-3	-5.375268E-3	7.056352E-3	-7.289694E-3	6.599515E-3	-7.526637E-3	1.080180E-3	-1.040779E-3	1.123753E-2	-7.317955E-4	2.635284E-3	-3.425669E-3	6.653970E-3	5.438389E-3	-7.945162E-3	3.812305E-3	1.397330E-2	4.316292E-3	5.278196E-3	2.400580E-3	3.389244E-3	-1.188109E-2	2.011817E-3	3.942385E-3	2.366650E-3	4.360980E-3	-3.982596E-3	8.683698E-3	-1.471997E-3	-1.313692E-4	-1.925110E-3	2.043777E-3	-5.547154E-4	1.113352E-2	-4.988439E-3	7.557694E-3	8.046402E-3	-1.169204E-4	4.163720E-3	7.521308E-3	-1.067441E-2	-3.304443E-3	7.315079E-3	-3.306258E-3	5.539221E-4	4.397899E-4	-6.345985E-3	6.941406E-3	9.623230E-3	8.327298E-3	2.166205E-5	2.681748E-3	-7.059262E-3	3.072892E-3	2.123835E-3	4.025555E-3	-5.196303E-3	1.361328E-3	5.072282E-3	-8.123948E-3	1.413587E-2	4.883926E-3	-5.560653E-3	5.481905E-3	-7.195792E-3	-3.217872E-3	1.650748E-4	-5.306854E-3	-4.959467E-3	-3.361931E-3	4.070706E-3	2.895201E-3	2.515226E-3	3.828027E-3	4.187909E-3	-3.547514E-3	1.365651E-4	5.473328E-4	1.019670E-3	3.585795E-3	-2.646459E-3	-3.810219E-4	-2.820101E-3	-8.459375E-3	1.065212E-2	5.855610E-3	2.339223E-3	1.941578E-3	8.554392E-3	7.810006E-4	5.944284E-4	-2.884514E-3	-6.660394E-3	2.515936E-3	-3.174722E-3	3.071618E-3	4.974319E-3	-9.939753E-3	-1.723801E-3	2.666689E-3	5.962261E-3	2.932036E-3	2.988170E-3	-1.773910E-4	2.017055E-3	1.403387E-2	3.713103E-3	-6.872123E-3	4.586146E-3	-4.035614E-4	-7.832839E-4	-3.776290E-3	-1.019695E-2	-3.053561E-3	7.603582E-4
5.320120E+2	7.074187E-3	1.244864E-2	1.074067E-2	3.090366E-3	9.324928E-3	1.551791E-3	8.858660E-3	2.943204E-3	-2.856000E-4	1.031627E-2	-2.709937E-3	1.060486E-2	-7.324412E-4	4.541054E-3	9.719439E-3	9.264877E-3	2.803983E-3	4.940385E-3	-7.203862E-3	1.175870E-2	2.809656E-3	-3.035479E-4	2.861467E-3	7.090882E-3	-2.799750E-3	4.480354E-3	1.190201E-3	5.549455E-4	-3.247764E-3	1.159145E-3	-2.852832E-3	6.382049E-3	4.292944E-3	-3.947138E-4	1.538122E-3	5.111794E-3	8.203226E-3	4.713722E-3	2.252222E-3	2.518905E-3	-5.124402E-3	2.928230E-3	-4.622779E-3	2.799242E-4	3.620085E-4	2.263641E-3	-1.005149E-3	-3.596324E-4	8.655252E-3	1.329717E-2	5.881963E-3	-2.817940E-4	1.769475E-3	1.056970E-3	3.664994E-3	2.589054E-3	8.298070E-3	4.589121E-3	-2.493580E-4	2.995498E-3	2.743853E-3	-3.994887E-3	1.029008E-2	-8.284761E-3	-1.437054E-3	1.282605E-3	9.631913E-3	5.944844E-3	1.734667E-3	9.076278E-3	7.448320E-3	1.207435E-3	-1.075682E-2	4.705036E-3	6.689840E-4	2.710410E-3	6.940247E-3	5.225003E-4	8.156378E-3	-4.593853E-4	-8.402368E-4	-5.264599E-3	-3.322667E-3	1.801981E-2	5.973574E-3	4.626022E-3	-5.561825E-3	5.928189E-3	1.334948E-2	2.039882E-3	6.439542E-3	1.169808E-2	1.192487E-2	-3.189706E-3	4.100082E-3	5.988226E-3	-4.462552E-3	6.687050E-3	1.915899E-3	7.436451E-3	2.151392E-3	1.865267E-3	1.400396E-3	2.769084E-3	-5.975800E-3	5.226863E-3	7.128308E-3	9.988759E-4	2.086517E-3	5.886714E-4	1.230966E-3	7.050730E-3	-2.418410E-3	-9.384134E-3	7.477563E-4	-2.620110E-3	9.395051E-3	5.991167E-3	6.017484E-3	7.109337E-3	-3.259261E-3	-2.558621E-3	2.510868E-3	1.511578E-2	1.028025E-2	8.334855E-3	5.497225E-3	-8.507856E-3	-2.830307E-3	6.903950E-3	1.063217E-2	1.413370E-2	1.204684E-2	-5.497944E-3	-2.485068E-3	3.148080E-3	9.931015E-3	7.346747E-3	7.836765E-3	-1.360600E-3	1.688157E-3	-5.462029E-3	9.993871E-3	1.299217E-2	-4.345311E-3	-1.823691E-3	5.135860E-3	-5.793192E-4	7.313731E-3	-4.286777E-3	-2.275626E-3	-7.896059E-3	9.060776E-4	4.061944E-3	1.504594E-3	5.307803E-3	1.067916E-2	-7.531560E-4	2.256002E-3	7.440226E-3	-5.824762E-3	5.732381E-3	-8.885361E-4	5.551442E-4	-2.650558E-3	3.269687E-4	9.552461E-3	-7.060804E-3	1.044559E-2	1.798759E-2
5.325170E+2	1.934708E-2	1.080941E-3	9.226441E-3	2.174950E-2	-6.769290E-3	3.098832E-3	9.324998E-3	9.849617E-3	7.834376E-3	1.560479E-2	1.170875E-2	4.308951E-3	1.755959E-2	1.644092E-2	1.532797E-2	1.484404E-2	1.298253E-2	3.178239E-3	6.692333E-3	4.166846E-3	3.841746E-3	5.110962E-3	1.124044E-2	1.630443E-3	1.459348E-2	-1.331013E-3	2.139372E-2	1.767123E-2	1.424777E-2	1.172790E-2	8.140276E-3	3.775041E-3	1.326277E-2	1.370331E-2	1.407013E-2	1.188053E-2	1.936969E-2	1.792916E-2	7.853464E-3	1.315040E-2	1.289699E-2	5.516927E-3	6.922774E-3	2.261265E-2	2.823220E-3	7.118988E-3	4.996652E-3	1.664957E-2	2.689559E-3	3.474290E-3	1.456781E-2	8.651917E-3	1.086986E-2	9.136370E-3	1.732725E-2	1.812608E-2	1.275654E-2	1.288753E-2	1.499668E-2	1.175688E-2	2.178154E-2	4.835086E-3	-4.954477E-3	1.695325E-2	7.438779E-3	2.246508E-2	2.713359E-3	6.498246E-3	4.675869E-3	6.315776E-3	9.463961E-3	7.730953E-3	1.682782E-2	1.239853E-2	5.622341E-3	5.680257E-3	8.458898E-3	9.119885E-3	2.416135E-3	1.178309E-2	1.533627E-2	1.784163E-2	1.284256E-2	1.658736E-2	6.331143E-3	1.465379E-2	1.836110E-2	7.271437E-3	3.340831E-3	1.219519E-2	6.855989E-3	9.059521E-3	8.314695E-3	7.123974E-3	5.903277E-3	1.479581E-2	9.072074E-3	2.457646E-3	1.458031E-2	2.828792E-3	1.380091E-3	1.168894E-2	9.255267E-3	4.685038E-3	1.138453E-2	1.621754E-2	2.564149E-2	6.320410E-3	5.789779E-3	4.301125E-5	3.388496E-3	7.574399E-3	1.119865E-2	7.862373E-3	1.966734E-2	2.176106E-3	2.373399E-4	1.435042E-2	1.570957E-2	8.646156E-3	1.058583E-2	7.097964E-3	1.533260E-2	9.695549E-4	1.915111E-2	4.013189E-3	4.917586E-3	1.010627E-2	9.121816E-3	8.490404E-3	8.703647E-3	5.759884E-3	1.303148E-2	7.929757E-3	1.061651E-2	1.208394E-2	8.776411E-3	1.050247E-2	8.354669E-3	1.428187E-2	4.733027E-3	1.468657E-2	2.933132E-3	7.325059E-3	1.015820E-2	1.417025E-2	7.371017E-3	1.340854E-2	6.029427E-3	1.402760E-2	6.689501E-3	1.441417E-3	1.746214E-2	5.596455E-3	1.708450E-2	7.034053E-3	9.055409E-3	4.119756E-3	7.601067E-3	5.186389E-3	7.898945E-3	9.096911E-3	1.980071E-2	3.898011E-3	1.822885E-2	1.234189E-2	1.583954E-2	2.373693E-2	5.439132E-3	1.214138E-2
5.330180E+2	1.915718E-2	3.781058E-2	2.078239E-2	1.674893E-2	2.439580E-2	1.044153E-2	1.245496E-2	2.269108E-2	2.679090E-2	5.692256E-3	2.258214E-2	2.560146E-2	1.083144E-2	2.283720E-2	3.136000E-2	2.243598E-2	3.056669E-2	3.096766E-2	1.186759E-2	2.764927E-2	7.508040E-3	1.991857E-2	2.606626E-2	2.506404E-2	2.453482E-2	4.046214E-2	2.595426E-2	2.102812E-2	1.751831E-2	1.635072E-2	2.419405E-2	2.009103E-2	2.029037E-2	2.202286E-2	1.341467E-2	1.393214E-2	2.134181E-2	1.008384E-2	3.190654E-2	2.658124E-2	1.674280E-2	2.347049E-2	3.007725E-2	1.937719E-2	1.580834E-2	2.132043E-2	2.314793E-2	2.453181E-2	1.179949E-2	2.692986E-2	2.219591E-2	1.089233E-2	1.337396E-2	2.912726E-2	2.282494E-2	8.257508E-3	2.920242E-2	2.405136E-2	1.652289E-2	2.158464E-2	1.973752E-2	9.612158E-3	3.009133E-2	1.442455E-2	2.707383E-2	3.255358E-2	3.154558E-2	1.769717E-2	2.745875E-2	1.305497E-2	3.041467E-2	1.882153E-2	2.359258E-2	2.008172E-2	2.219997E-2	1.277254E-2	2.663115E-2	2.979234E-2	7.924375E-3	2.029038E-2	5.601321E-3	4.217360E-3	1.491098E-2	2.496483E-2	1.851913E-2	1.761782E-2	2.361870E-2	2.390122E-2	3.145415E-2	2.510564E-2	2.180660E-2	3.321431E-2	1.974818E-2	2.070684E-2	2.916943E-2	2.150217E-2	2.057838E-2	1.563721E-2	2.552964E-2	3.793709E-2	2.686829E-2	2.575986E-2	2.425572E-2	6.634782E-3	1.990183E-2	1.306509E-2	6.721646E-3	2.424076E-2	2.944188E-2	1.044894E-2	2.586391E-2	2.373534E-2	1.214719E-2	8.757993E-3	2.302347E-2	1.363679E-2	1.252288E-2	2.209295E-2	1.204795E-2	2.441864E-2	2.313460E-2	1.664056E-2	1.401216E-2	2.815693E-2	2.482568E-2	1.962305E-2	2.112307E-2	2.310840E-2	3.238099E-2	2.485251E-2	1.149339E-2	1.376154E-2	2.179266E-2	2.028334E-2	3.132296E-2	1.669682E-2	1.732747E-2	2.215861E-2	2.798925E-2	2.221764E-2	1.906026E-2	2.129504E-2	2.270928E-2	3.012340E-2	1.303493E-2	2.285809E-2	2.267453E-2	2.099457E-3	2.273332E-2	3.338006E-2	1.713568E-2	2.603861E-2	2.037946E-2	2.391633E-2	1.972465E-2	2.005305E-2	2.242155E-2	3.909108E-2	7.452776E-3	2.085069E-2	2.988968E-2	5.949574E-3	1.745497E-2	1.049841E-2	2.468826E-2	1.703891E-3	2.257722E-2	9.859143E-3	1.441388E-2	-4.824180E-3
5.331630E+2	3.880435E-2	2.081930E-2	2.988336E-2	2.005669E-2	3.819263E-2	3.396665E-2	1.755051E-2	2.736568E-2	3.242312E-2	2.789842E-2	2.220799E-2	2.575786E-2	3.540226E-2	1.695246E-2	2.967765E-2	2.342031E-2	3.245572E-2	2.098729E-2	1.905553E-2	3.456001E-2	3.265384E-2	2.153938E-2	2.627990E-2	3.530832E-2	3.204243E-2	1.972303E-2	2.292483E-2	3.095229E-2	2.069589E-2	3.155304E-2	2.487195E-2	2.494906E-2	3.179554E-2	3.076543E-2	2.275207E-2	1.654112E-2	2.317378E-2	1.686606E-2	2.737496E-2	2.611649E-2	3.036528E-2	2.357490E-2	2.056922E-2	1.601864E-2	3.485704E-2	2.898398E-2	1.483825E-2	2.555042E-2	3.617971E-2	2.579021E-2	2.653178E-2	2.650940E-2	2.492129E-2	1.050571E-2	2.502799E-2	2.286604E-2	1.723378E-2	2.832758E-2	2.248593E-2	3.060975E-2	2.041496E-2	3.161464E-2	3.738969E-2	1.206636E-2	2.388699E-2	3.261792E-2	2.299554E-2	2.796744E-2	1.643937E-2	2.713705E-2	2.632558E-2	2.413048E-2	2.431252E-2	2.497805E-2	3.131979E-2	1.832772E-2	1.642776E-2	1.930121E-2	3.191120E-2	2.106157E-2	1.387309E-2	1.841484E-2	2.246412E-2	3.253292E-2	3.173280E-2	1.834764E-2	2.656379E-2	1.751562E-2	2.474541E-2	1.815293E-2	1.760491E-2	1.948610E-2	3.053275E-2	2.824292E-2	2.754583E-2	2.447739E-2	4.091395E-2	2.806556E-2	2.387151E-2	1.847568E-2	2.586422E-2	2.203219E-2	3.667137E-2	2.800428E-2	2.199519E-2	1.358855E-2	1.570005E-2	1.736578E-2	1.607184E-2	2.118929E-2	3.490035E-2	2.198983E-2	3.598038E-2	1.745088E-2	2.967363E-2	1.773227E-2	4.015330E-2	1.738060E-2	2.018764E-2	2.665973E-2	3.670620E-2	1.231137E-2	1.686082E-2	3.491783E-2	1.857562E-2	1.783641E-2	2.339958E-2	2.650084E-2	4.222445E-2	2.161573E-2	2.265466E-2	3.695438E-2	2.560779E-2	2.039459E-2	3.090218E-2	2.964515E-2	1.630551E-2	2.442235E-2	2.689116E-2	2.222981E-2	2.753096E-2	2.771266E-2	2.553979E-2	2.062818E-2	1.618055E-2	2.165069E-2	2.211676E-2	1.994493E-2	1.540852E-2	1.713861E-2	1.396752E-2	2.669777E-2	2.950713E-2	3.307952E-2	1.868323E-2	1.762721E-2	3.483680E-2	2.979803E-2	3.088633E-2	2.535540E-2	3.614985E-2	3.030953E-2	1.974130E-2	3.584775E-2	1.753986E-2	3.253401E-2	3.415053E-2	2.889397E-2	2.007836E-2	9.241574E-3
5.333080E+2	3.984471E-2	3.661504E-2	3.479707E-2	3.766116E-2	4.657234E-2	2.847812E-2	3.620119E-2	3.342272E-2	2.245159E-2	3.332319E-2	3.890372E-2	3.771360E-2	3.207170E-2	3.212937E-2	4.168056E-2	3.605545E-2	3.772486E-2	1.474798E-2	1.796787E-2	3.060820E-2	2.014932E-2	4.224562E-2	3.585715E-2	3.570807E-2	3.544855E-2	2.202352E-2	3.240662E-2	2.097404E-2	4.166509E-2	3.211204E-2	4.034421E-2	2.318390E-2	3.462867E-2	2.332065E-2	2.947311E-2	4.162276E-2	2.601243E-2	2.620101E-2	3.986464E-2	3.295974E-2	2.799710E-2	3.327754E-2	2.825329E-2	2.929026E-2	3.002291E-2	2.604637E-2	3.197449E-2	2.406315E-2	4.248059E-2	2.343301E-2	2.720720E-2	3.350768E-2	2.471091E-2	3.588913E-2	3.077054E-2	2.591305E-2	1.905765E-2	2.711237E-2	3.385877E-2	3.458932E-2	3.921998E-2	2.717439E-2	3.310707E-2	2.659131E-2	2.471500E-2	3.731635E-2	4.736882E-2	3.135229E-2	2.661434E-2	3.688767E-2	2.157767E-2	3.275853E-2	2.383971E-2	3.450292E-2	4.782346E-2	2.919664E-2	2.581866E-2	3.452203E-2	3.151160E-2	3.295799E-2	2.620401E-2	4.270693E-2	2.652343E-2	4.533597E-2	4.204323E-2	3.600881E-2	3.800976E-2	3.130258E-2	3.358589E-2	4.132431E-2	3.241857E-2	4.417610E-2	2.706840E-2	4.171585E-2	2.998955E-2	3.466250E-2	2.715148E-2	2.335295E-2	2.504989E-2	3.184258E-2	2.706066E-2	2.706392E-2	2.679281E-2	1.583012E-2	3.195564E-2	3.713824E-2	2.219766E-2	3.512860E-2	3.906409E-2	3.345471E-2	3.100223E-2	3.973945E-2	2.653549E-2	3.088891E-2	2.967294E-2	3.038863E-2	2.751534E-2	3.019801E-2	2.776519E-2	3.959182E-2	2.737097E-2	3.199658E-2	4.524424E-2	3.693297E-2	4.416306E-2	3.523434E-2	3.143407E-2	3.985860E-2	4.894016E-2	3.501905E-2	3.268542E-2	2.985891E-2	2.724362E-2	1.992113E-2	3.704221E-2	2.914449E-2	3.177336E-2	3.258957E-2	3.220933E-2	2.667487E-2	2.755537E-2	3.088977E-2	4.468800E-2	1.951743E-2	2.774736E-2	4.336745E-2	3.205454E-2	2.554829E-2	3.136522E-2	3.031150E-2	4.412338E-2	3.574579E-2	3.989719E-2	3.685066E-2	3.908978E-2	2.494442E-2	2.646465E-2	3.542675E-2	2.547114E-2	1.653798E-2	3.861705E-2	3.661994E-2	1.867262E-2	4.684479E-2	3.433919E-2	2.671957E-2	3.481773E-2	3.453322E-2	2.640601E-2	1.896086E-2
5.334680E+2	4.562505E-2	3.640121E-2	4.800155E-2	3.540232E-2	4.995399E-2	5.508802E-2	3.769764E-2	4.232751E-2	3.222980E-2	4.834372E-2	3.671162E-2	5.034607E-2	4.625323E-2	4.357715E-2	4.726584E-2	3.681821E-2	4.857563E-2	3.381459E-2	3.086200E-2	4.621140E-2	3.870659E-2	4.407408E-2	4.222585E-2	6.188137E-2	5.179575E-2	3.811737E-2	5.223412E-2	2.514323E-2	6.130980E-2	4.002415E-2	4.345752E-2	3.935694E-2	5.293156E-2	3.521186E-2	4.107721E-2	3.559937E-2	5.414280E-2	4.157721E-2	3.539374E-2	4.669252E-2	4.495343E-2	4.065103E-2	4.087690E-2	3.078986E-2	2.422142E-2	5.686053E-2	4.176104E-2	4.218054E-2	5.007375E-2	4.475799E-2	4.484459E-2	4.021778E-2	3.553848E-2	4.177165E-2	3.319340E-2	4.369279E-2	5.014155E-2	4.634980E-2	4.501029E-2	5.041632E-2	3.212801E-2	4.393538E-2	3.623856E-2	4.064012E-2	3.518846E-2	5.281067E-2	5.181406E-2	3.073151E-2	4.192016E-2	3.240946E-2	3.423710E-2	5.268049E-2	2.018427E-2	3.117083E-2	5.386967E-2	4.464771E-2	5.213766E-2	2.560277E-2	4.385282E-2	3.954696E-2	4.709561E-2	4.909750E-2	3.950078E-2	5.200419E-2	4.882022E-2	3.940190E-2	4.980527E-2	4.902720E-2	3.632066E-2	3.728929E-2	4.372099E-2	4.436340E-2	5.265461E-2	3.865733E-2	5.165827E-2	5.430831E-2	5.085009E-2	4.630034E-2	4.754077E-2	4.616400E-2	4.119388E-2	5.303435E-2	4.394057E-2	3.305253E-2	3.442470E-2	2.582587E-2	4.800223E-2	4.961500E-2	4.776496E-2	3.739253E-2	3.254724E-2	5.278332E-2	4.032175E-2	3.072737E-2	3.851327E-2	4.110379E-2	4.348932E-2	3.962180E-2	2.527934E-2	4.834971E-2	3.370136E-2	3.730622E-2	3.941744E-2	5.433346E-2	5.784635E-2	3.317820E-2	2.915274E-2	3.302376E-2	4.995157E-2	3.373747E-2	5.684267E-2	3.998141E-2	3.241116E-2	3.949662E-2	4.130796E-2	4.506671E-2	3.052984E-2	4.818207E-2	6.210660E-2	5.066643E-2	4.519895E-2	6.324432E-2	5.105320E-2	4.144689E-2	4.039075E-2	4.318437E-2	3.247283E-2	4.208312E-2	3.365615E-2	3.344514E-2	4.180414E-2	4.510712E-2	6.238756E-2	5.166467E-2	3.891882E-2	4.364434E-2	5.736110E-2	5.146618E-2	4.274419E-2	5.120163E-2	5.058543E-2	3.502025E-2	2.739348E-2	2.938625E-2	3.363617E-2	3.879601E-2	4.690467E-2	3.838480E-2	4.120677E-2	3.432181E-2
5.336030E+2	4.764359E-2	6.719463E-2	5.122662E-2	5.069052E-2	5.574377E-2	5.221663E-2	5.448707E-2	5.536640E-2	4.531076E-2	5.255202E-2	6.650151E-2	5.880823E-2	5.865773E-2	4.754244E-2	6.113724E-2	5.507435E-2	5.773457E-2	3.870795E-2	4.595851E-2	6.067653E-2	4.932515E-2	5.964729E-2	5.374236E-2	6.089840E-2	5.678107E-2	5.363624E-2	6.322623E-2	6.394726E-2	6.127386E-2	5.123359E-2	5.463873E-2	5.393677E-2	4.778291E-2	6.151184E-2	5.224728E-2	5.035399E-2	5.784440E-2	5.341740E-2	5.546306E-2	6.152870E-2	6.965119E-2	5.995394E-2	7.051879E-2	5.358598E-2	4.979263E-2	4.880294E-2	5.927956E-2	5.737404E-2	5.951356E-2	5.749060E-2	4.894327E-2	4.060096E-2	4.086753E-2	5.486532E-2	5.686316E-2	4.464718E-2	4.129055E-2	5.526271E-2	6.037248E-2	5.993404E-2	6.105474E-2	5.112798E-2	5.366977E-2	4.975260E-2	5.531313E-2	4.928643E-2	6.264346E-2	4.709875E-2	4.661602E-2	6.580302E-2	5.280141E-2	4.613399E-2	5.687941E-2	5.266634E-2	5.827705E-2	5.305476E-2	4.983339E-2	5.880434E-2	5.628899E-2	7.196676E-2	4.940503E-2	6.311653E-2	4.741818E-2	4.595106E-2	6.582665E-2	5.703683E-2	4.803640E-2	4.282666E-2	6.190182E-2	6.195673E-2	5.017084E-2	5.480821E-2	4.441743E-2	7.000306E-2	5.601149E-2	6.067581E-2	6.220000E-2	6.093056E-2	4.558484E-2	6.110496E-2	7.941999E-2	6.073601E-2	4.683403E-2	5.570176E-2	5.037663E-2	5.739727E-2	3.736679E-2	6.366676E-2	5.020044E-2	5.781691E-2	6.161814E-2	5.175835E-2	6.244482E-2	6.512801E-2	5.289228E-2	6.554731E-2	5.569928E-2	5.923334E-2	4.898232E-2	4.909854E-2	5.062131E-2	5.523805E-2	5.690448E-2	5.899794E-2	5.387030E-2	5.441401E-2	5.475832E-2	4.778753E-2	6.578393E-2	5.821838E-2	5.365950E-2	6.670564E-2	4.895844E-2	5.307675E-2	6.067388E-2	5.014038E-2	5.585572E-2	6.061532E-2	5.433272E-2	6.662586E-2	4.306254E-2	6.587968E-2	5.207054E-2	6.200425E-2	4.412181E-2	7.617992E-2	6.551021E-2	5.607639E-2	3.712853E-2	5.907148E-2	5.786064E-2	4.727507E-2	5.900609E-2	7.088778E-2	4.673199E-2	3.917355E-2	5.100790E-2	6.691172E-2	4.567439E-2	5.552885E-2	5.954695E-2	3.680642E-2	3.939829E-2	5.460018E-2	5.811554E-2	6.434927E-2	7.575305E-2	4.444636E-2	3.538802E-2	5.615309E-2
5.337580E+2	7.767110E-2	6.659015E-2	1.079688E-1	9.148376E-2	8.163306E-2	6.324087E-2	6.984128E-2	7.871178E-2	8.083043E-2	7.547926E-2	7.569751E-2	7.923514E-2	8.751148E-2	8.007100E-2	9.633453E-2	7.853711E-2	7.237185E-2	8.925529E-2	7.604567E-2	7.832154E-2	7.841216E-2	6.830994E-2	9.220454E-2	6.586165E-2	9.972270E-2	9.911908E-2	6.539732E-2	7.917361E-2	7.377259E-2	9.512310E-2	1.030206E-1	7.441377E-2	8.559218E-2	6.789302E-2	7.643821E-2	6.796173E-2	7.317546E-2	7.373407E-2	9.013121E-2	8.716295E-2	7.144743E-2	8.595546E-2	7.725016E-2	7.830430E-2	7.716206E-2	7.996895E-2	9.501653E-2	7.937941E-2	8.604385E-2	7.785388E-2	8.367995E-2	7.289791E-2	7.728794E-2	8.528933E-2	6.985454E-2	8.231493E-2	7.559261E-2	7.659188E-2	8.256769E-2	8.239267E-2	8.617673E-2	8.627256E-2	6.856777E-2	6.091470E-2	9.350582E-2	8.403447E-2	6.670602E-2	8.253343E-2	8.310237E-2	7.937578E-2	7.531310E-2	7.429702E-2	7.508245E-2	8.017165E-2	7.535868E-2	7.193903E-2	4.984940E-2	6.571650E-2	7.990521E-2	6.158363E-2	7.745137E-2	7.882575E-2	6.671420E-2	8.974335E-2	7.870135E-2	8.073967E-2	7.502222E-2	7.380088E-2	7.333926E-2	5.700938E-2	8.748715E-2	7.597678E-2	7.371530E-2	9.116132E-2	7.634297E-2	6.596132E-2	7.373823E-2	8.562000E-2	6.739756E-2	6.564638E-2	8.525186E-2	6.751241E-2	7.852042E-2	6.649118E-2	7.823963E-2	7.467991E-2	7.261929E-2	9.738988E-2	7.586236E-2	9.227309E-2	8.476023E-2	7.581712E-2	8.738261E-2	8.223996E-2	6.747863E-2	6.302614E-2	8.476995E-2	6.791232E-2	6.251178E-2	9.598415E-2	7.195199E-2	8.659547E-2	1.082681E-1	6.751051E-2	8.154959E-2	7.394878E-2	6.510493E-2	8.632538E-2	7.488195E-2	8.411416E-2	8.648923E-2	6.908873E-2	7.802778E-2	8.313867E-2	7.640518E-2	7.553599E-2	7.092963E-2	6.889338E-2	7.811630E-2	7.812290E-2	7.625890E-2	8.137574E-2	8.680911E-2	8.048846E-2	7.697672E-2	8.306516E-2	7.923863E-2	7.101086E-2	9.123555E-2	7.675930E-2	8.610088E-2	6.785654E-2	8.915512E-2	9.195586E-2	7.470162E-2	7.834861E-2	8.801970E-2	8.649549E-2	9.637371E-2	7.874967E-2	8.596778E-2	8.545476E-2	6.346775E-2	7.845288E-2	6.905444E-2	7.612423E-2	8.299782E-2	6.976396E-2	8.438153E-2	8.743441E-2
5.339090E+2	1.097160E-1	1.100503E-1	1.146339E-1	1.033123E-1	1.105710E-1	1.283868E-1	1.047422E-1	1.013282E-1	1.078446E-1	1.243570E-1	1.171728E-1	1.096218E-1	1.143052E-1	1.180005E-1	1.188585E-1	1.119472E-1	1.095006E-1	1.140104E-1	1.031578E-1	1.138884E-1	1.032377E-1	1.061281E-1	1.067293E-1	1.118341E-1	1.074968E-1	1.146257E-1	1.212684E-1	1.272895E-1	1.134493E-1	1.019609E-1	1.174899E-1	1.040580E-1	1.131808E-1	1.016648E-1	9.063785E-2	1.045403E-1	1.353332E-1	9.904191E-2	1.241922E-1	1.061509E-1	1.144837E-1	1.350393E-1	1.207713E-1	1.151213E-1	1.141436E-1	1.220264E-1	1.173109E-1	1.066444E-1	1.207427E-1	1.003901E-1	1.166771E-1	9.281216E-2	1.135042E-1	1.149465E-1	1.137484E-1	1.219342E-1	1.195472E-1	1.329692E-1	1.116608E-1	1.212171E-1	1.151524E-1	1.177943E-1	1.207194E-1	1.037814E-1	1.135985E-1	9.875648E-2	1.040783E-1	9.829657E-2	1.211696E-1	1.252682E-1	1.169065E-1	1.133540E-1	1.118133E-1	1.064250E-1	1.132410E-1	1.100107E-1	1.200021E-1	1.151916E-1	1.077132E-1	1.262254E-1	1.029854E-1	1.189136E-1	1.077200E-1	1.192302E-1	1.081401E-1	1.023814E-1	1.206171E-1	9.917448E-2	1.304203E-1	1.069329E-1	1.031489E-1	1.141901E-1	1.240795E-1	1.157687E-1	9.576412E-2	1.061217E-1	1.273370E-1	1.233562E-1	1.367675E-1	1.093460E-1	1.222664E-1	1.124746E-1	1.098009E-1	1.049348E-1	1.272100E-1	1.148145E-1	1.094829E-1	1.083760E-1	9.751881E-2	1.234879E-1	1.262103E-1	1.411431E-1	1.260014E-1	1.201782E-1	1.119283E-1	1.106428E-1	1.259046E-1	1.234346E-1	1.213113E-1	1.347204E-1	1.072321E-1	1.133237E-1	1.092372E-1	1.143852E-1	1.045360E-1	1.082964E-1	1.197035E-1	1.127234E-1	1.282924E-1	1.198153E-1	1.119997E-1	1.096836E-1	1.142582E-1	1.048672E-1	1.287001E-1	1.278343E-1	9.512550E-2	1.063760E-1	1.312704E-1	1.064150E-1	1.295021E-1	1.118557E-1	1.245330E-1	1.098724E-1	1.150663E-1	1.051966E-1	1.235280E-1	1.013136E-1	1.144590E-1	1.057259E-1	1.183808E-1	1.163858E-1	1.234173E-1	1.213825E-1	1.018115E-1	1.260585E-1	1.163824E-1	1.390308E-1	1.088674E-1	1.301355E-1	1.207378E-1	1.126415E-1	1.385674E-1	1.029857E-1	1.202371E-1	1.174919E-1	1.391157E-1	1.333705E-1	1.035928E-1	1.385827E-1
5.340850E+2	1.726012E-1	1.587181E-1	1.717740E-1	1.553231E-1	1.810513E-1	1.711370E-1	1.716082E-1	1.708052E-1	1.538972E-1	1.635972E-1	1.756298E-1	1.670706E-1	1.643469E-1	1.749393E-1	1.699751E-1	1.454516E-1	1.873889E-1	1.969290E-1	1.725376E-1	1.672203E-1	1.787249E-1	1.725441E-1	1.685084E-1	1.614305E-1	2.136960E-1	1.804874E-1	1.959437E-1	1.853841E-1	1.897711E-1	1.865413E-1	1.734362E-1	1.872330E-1	1.770047E-1	1.789640E-1	1.765917E-1	1.829549E-1	1.764327E-1	1.819010E-1	1.637044E-1	1.574490E-1	1.904566E-1	1.886721E-1	1.701294E-1	1.773936E-1	1.668074E-1	1.904353E-1	1.645404E-1	1.753817E-1	1.864235E-1	1.601677E-1	1.640561E-1	1.649079E-1	1.764602E-1	1.697234E-1	1.614854E-1	1.707748E-1	1.455828E-1	1.540893E-1	1.799257E-1	1.837629E-1	1.744414E-1	1.636544E-1	1.774981E-1	1.580050E-1	1.893272E-1	1.747350E-1	1.718339E-1	1.715025E-1	1.991307E-1	1.528636E-1	1.634878E-1	1.712649E-1	1.651661E-1	1.842352E-1	1.723948E-1	1.763378E-1	1.893338E-1	1.781881E-1	1.723828E-1	1.682400E-1	1.736062E-1	1.755957E-1	1.761348E-1	1.694036E-1	1.661352E-1	1.888954E-1	1.612128E-1	1.664041E-1	1.834066E-1	1.933983E-1	1.796509E-1	1.699708E-1	1.676259E-1	1.681111E-1	1.810002E-1	1.504826E-1	1.671234E-1	1.935455E-1	1.756895E-1	1.886543E-1	1.644726E-1	1.527510E-1	1.655381E-1	1.746335E-1	1.768250E-1	1.898074E-1	1.673725E-1	1.672413E-1	1.730172E-1	1.491160E-1	1.446420E-1	1.796662E-1	1.781238E-1	1.799912E-1	1.649679E-1	1.933566E-1	1.936495E-1	1.619644E-1	1.703507E-1	1.900968E-1	1.861405E-1	1.808435E-1	1.742311E-1	1.625921E-1	1.794304E-1	1.792781E-1	1.621102E-1	1.955442E-1	1.762785E-1	1.702225E-1	1.924392E-1	1.830457E-1	1.779523E-1	1.893799E-1	1.828362E-1	1.877449E-1	1.817120E-1	1.872672E-1	1.721061E-1	1.799753E-1	1.850588E-1	1.429458E-1	1.794452E-1	1.708068E-1	1.702077E-1	1.838420E-1	1.843907E-1	1.764719E-1	1.637309E-1	1.728436E-1	1.892879E-1	1.700351E-1	1.701894E-1	2.043069E-1	1.820789E-1	1.817314E-1	1.936384E-1	1.664553E-1	1.685783E-1	1.956678E-1	1.785532E-1	1.680432E-1	1.669246E-1	1.753848E-1	1.883851E-1	1.754342E-1	1.609619E-1	1.695641E-1	1.542715E-1	1.957524E-1
5.342040E+2	3.111533E-1	2.929035E-1	2.821786E-1	2.775623E-1	2.700322E-1	2.859156E-1	2.597664E-1	2.758886E-1	3.080336E-1	2.671438E-1	2.913111E-1	2.669069E-1	2.704111E-1	2.901049E-1	2.753437E-1	2.722223E-1	2.997318E-1	3.043064E-1	2.736234E-1	2.850641E-1	2.491125E-1	2.566184E-1	2.862399E-1	2.781092E-1	3.291540E-1	3.195411E-1	3.106161E-1	2.930113E-1	3.033692E-1	2.929340E-1	2.828727E-1	2.877489E-1	2.980065E-1	2.850178E-1	2.972675E-1	2.956417E-1	3.033478E-1	3.061894E-1	2.883886E-1	2.757541E-1	2.756728E-1	2.834558E-1	3.052902E-1	2.914229E-1	2.988567E-1	2.857006E-1	2.792968E-1	2.930996E-1	3.030113E-1	3.001804E-1	2.927829E-1	2.912122E-1	2.846091E-1	2.529427E-1	2.789093E-1	2.695207E-1	2.606039E-1	2.724835E-1	2.918253E-1	2.843292E-1	2.760934E-1	2.941097E-1	2.710721E-1	2.729773E-1	2.789994E-1	3.201592E-1	2.805272E-1	2.690860E-1	2.954277E-1	2.869800E-1	2.604010E-1	2.700440E-1	2.842706E-1	2.939598E-1	2.867197E-1	2.814657E-1	2.822112E-1	2.727777E-1	3.191510E-1	2.840952E-1	2.833744E-1	2.926968E-1	3.062240E-1	3.169684E-1	2.947124E-1	2.756886E-1	2.727319E-1	2.795351E-1	2.791011E-1	2.918225E-1	3.028800E-1	2.932012E-1	2.832021E-1	2.782193E-1	2.993090E-1	2.837391E-1	2.893535E-1	2.683965E-1	2.723221E-1	2.792130E-1	2.947773E-1	2.830873E-1	2.811843E-1	2.723868E-1	2.912032E-1	2.928135E-1	2.790463E-1	2.671014E-1	2.509298E-1	2.751838E-1	2.700549E-1	2.763473E-1	2.989844E-1	3.134016E-1	2.715870E-1	2.581611E-1	2.854293E-1	2.810307E-1	2.983782E-1	2.946697E-1	2.775478E-1	3.041481E-1	3.010301E-1	2.841707E-1	2.720363E-1	2.797176E-1	2.880574E-1	3.021205E-1	2.739456E-1	2.670713E-1	3.041837E-1	2.565733E-1	2.813618E-1	2.852529E-1	2.646943E-1	3.014892E-1	2.922614E-1	2.680017E-1	2.960486E-1	2.929629E-1	2.792946E-1	3.093909E-1	2.832953E-1	3.017662E-1	2.836090E-1	2.871069E-1	2.784403E-1	3.101209E-1	2.863953E-1	2.829509E-1	3.091658E-1	2.879884E-1	2.772276E-1	2.676312E-1	2.534783E-1	2.812782E-1	3.036409E-1	2.853846E-1	2.969421E-1	3.107206E-1	2.567906E-1	2.870445E-1	2.890575E-1	2.851602E-1	2.704120E-1	2.736226E-1	2.659710E-1	2.881836E-1	3.156049E-1	2.627127E-1
5.343600E+2	5.077443E-1	5.089118E-1	5.075101E-1	4.804094E-1	5.300147E-1	4.843037E-1	4.756155E-1	4.929748E-1	4.688754E-1	4.878438E-1	4.934801E-1	5.034487E-1	5.095497E-1	5.111644E-1	5.122071E-1	4.918635E-1	4.999267E-1	5.139238E-1	5.019020E-1	5.208808E-1	4.883083E-1	5.297234E-1	4.684272E-1	5.237208E-1	5.583824E-1	5.236060E-1	5.307566E-1	5.516421E-1	5.382062E-1	5.131170E-1	5.406242E-1	5.298138E-1	5.292029E-1	4.952606E-1	5.210300E-1	4.811055E-1	5.351318E-1	4.986218E-1	5.142420E-1	5.265600E-1	5.099696E-1	5.165180E-1	5.016622E-1	5.195707E-1	5.039299E-1	5.206290E-1	5.206129E-1	5.182433E-1	4.805520E-1	5.089550E-1	4.954957E-1	5.290871E-1	5.504025E-1	4.907209E-1	5.156760E-1	5.209189E-1	5.095539E-1	5.374175E-1	5.163752E-1	5.369428E-1	5.275312E-1	5.034834E-1	5.113395E-1	5.222804E-1	5.393940E-1	5.143415E-1	5.288630E-1	5.216437E-1	5.298801E-1	5.268230E-1	4.992690E-1	5.223476E-1	4.958845E-1	5.050811E-1	5.096109E-1	5.209375E-1	5.002354E-1	5.021140E-1	5.179455E-1	5.180250E-1	5.397298E-1	5.139246E-1	5.208804E-1	5.331389E-1	5.381570E-1	5.194483E-1	5.121526E-1	5.283415E-1	5.047493E-1	5.332889E-1	5.036699E-1	5.188671E-1	5.367744E-1	5.267443E-1	4.916188E-1	5.656214E-1	5.476627E-1	5.129866E-1	4.759374E-1	5.154084E-1	5.187567E-1	4.991305E-1	4.980224E-1	5.058763E-1	5.139568E-1	5.047231E-1	4.999443E-1	5.093216E-1	5.095456E-1	5.225893E-1	5.074616E-1	5.171197E-1	5.167635E-1	5.674033E-1	4.939045E-1	4.901911E-1	5.011730E-1	5.107285E-1	4.950410E-1	5.153992E-1	5.033130E-1	4.909631E-1	5.266333E-1	5.329037E-1	5.526178E-1	5.297631E-1	5.387715E-1	4.935793E-1	5.144893E-1	5.262138E-1	4.906484E-1	5.272766E-1	5.296865E-1	5.052439E-1	5.289244E-1	5.609166E-1	5.401063E-1	5.099976E-1	5.324731E-1	5.271199E-1	5.171282E-1	4.948526E-1	5.033478E-1	5.172666E-1	5.138037E-1	4.824255E-1	5.232524E-1	5.596298E-1	5.166269E-1	5.050576E-1	5.109586E-1	4.729494E-1	5.276182E-1	5.130139E-1	4.811971E-1	5.444549E-1	4.782517E-1	5.244618E-1	4.915715E-1	5.063613E-1	5.113147E-1	5.345312E-1	5.247828E-1	5.433069E-1	5.189429E-1	5.431275E-1	5.003114E-1	5.204231E-1	5.247900E-1	4.858165E-1
5.345160E+2	9.050077E-1	8.525553E-1	9.210226E-1	9.121276E-1	9.279673E-1	9.162462E-1	9.227177E-1	9.410492E-1	8.811459E-1	8.529070E-1	9.094955E-1	8.483937E-1	9.247890E-1	9.113578E-1	9.242460E-1	8.908798E-1	9.166431E-1	9.211761E-1	8.900567E-1	8.700283E-1	8.947125E-1	8.868148E-1	8.773185E-1	9.044366E-1	9.567228E-1	9.810402E-1	9.388574E-1	9.451340E-1	9.344634E-1	9.466633E-1	9.564990E-1	8.985796E-1	9.557780E-1	9.351682E-1	9.223185E-1	9.574282E-1	8.988627E-1	9.015816E-1	8.896518E-1	9.281638E-1	9.035051E-1	9.332953E-1	9.097175E-1	9.126027E-1	9.074793E-1	9.479649E-1	9.358218E-1	8.977456E-1	8.927955E-1	8.774583E-1	9.168971E-1	9.216302E-1	9.009444E-1	9.199548E-1	9.364847E-1	9.464139E-1	9.182369E-1	8.790138E-1	9.018688E-1	9.391154E-1	9.463594E-1	9.379043E-1	9.255876E-1	9.274605E-1	9.272385E-1	9.152232E-1	9.111495E-1	9.289546E-1	8.968289E-1	9.052408E-1	9.008452E-1	9.427166E-1	9.267552E-1	8.829885E-1	9.341397E-1	9.208578E-1	8.977409E-1	8.644022E-1	9.259177E-1	9.279983E-1	9.241650E-1	8.985468E-1	9.330308E-1	9.473194E-1	9.129268E-1	9.218354E-1	9.287042E-1	9.336939E-1	9.329849E-1	8.866783E-1	9.208796E-1	9.117379E-1	8.750142E-1	9.101343E-1	9.364509E-1	9.060751E-1	9.444016E-1	9.416342E-1	9.010158E-1	9.550502E-1	9.198058E-1	8.948633E-1	9.156430E-1	9.105028E-1	9.416092E-1	9.051050E-1	8.716530E-1	9.182426E-1	9.161865E-1	9.082981E-1	9.226143E-1	9.222269E-1	9.005496E-1	8.942204E-1	9.273967E-1	9.053527E-1	9.136966E-1	9.137990E-1	9.604377E-1	8.938840E-1	9.335614E-1	9.758882E-1	8.752746E-1	8.844537E-1	9.406312E-1	9.246701E-1	9.247638E-1	8.923999E-1	9.069163E-1	9.325653E-1	9.493116E-1	9.262333E-1	8.924747E-1	8.909622E-1	8.659187E-1	9.151502E-1	9.130937E-1	8.952319E-1	8.779418E-1	8.856217E-1	9.027632E-1	9.143795E-1	9.133904E-1	8.932326E-1	9.377272E-1	9.145129E-1	8.800393E-1	9.212986E-1	8.950790E-1	9.365986E-1	9.017587E-1	9.237359E-1	9.744236E-1	9.048188E-1	9.260123E-1	8.729038E-1	9.591709E-1	9.334042E-1	8.723321E-1	9.099563E-1	9.250706E-1	9.282564E-1	9.709029E-1	8.983806E-1	9.380102E-1	8.647365E-1	9.225465E-1	9.467205E-1	9.235041E-1	8.786081E-1
5.346510E+2	1.325217E+0	1.319276E+0	1.345196E+0	1.276664E+0	1.289982E+0	1.313436E+0	1.304764E+0	1.310849E+0	1.279770E+0	1.246520E+0	1.296740E+0	1.282843E+0	1.223073E+0	1.298370E+0	1.289929E+0	1.247351E+0	1.264758E+0	1.321273E+0	1.323150E+0	1.289063E+0	1.298066E+0	1.337420E+0	1.285101E+0	1.316440E+0	1.385282E+0	1.360238E+0	1.351607E+0	1.316636E+0	1.345089E+0	1.361284E+0	1.295494E+0	1.337822E+0	1.301332E+0	1.321799E+0	1.282186E+0	1.359431E+0	1.350948E+0	1.272733E+0	1.321909E+0	1.328690E+0	1.319020E+0	1.323273E+0	1.252471E+0	1.351396E+0	1.331002E+0	1.320079E+0	1.346746E+0	1.300294E+0	1.353157E+0	1.336863E+0	1.303252E+0	1.344389E+0	1.328766E+0	1.318199E+0	1.280809E+0	1.265048E+0	1.280836E+0	1.315247E+0	1.324196E+0	1.320709E+0	1.322612E+0	1.337207E+0	1.344954E+0	1.265720E+0	1.312386E+0	1.376696E+0	1.299912E+0	1.302605E+0	1.272392E+0	1.264411E+0	1.303398E+0	1.303112E+0	1.278927E+0	1.318683E+0	1.307254E+0	1.310367E+0	1.302339E+0	1.263579E+0	1.265403E+0	1.312526E+0	1.289104E+0	1.337932E+0	1.323521E+0	1.320874E+0	1.314878E+0	1.263234E+0	1.300311E+0	1.328029E+0	1.336563E+0	1.322420E+0	1.275777E+0	1.291543E+0	1.300302E+0	1.286628E+0	1.330734E+0	1.263075E+0	1.302543E+0	1.359214E+0	1.335040E+0	1.309225E+0	1.311497E+0	1.272004E+0	1.307847E+0	1.303204E+0	1.326270E+0	1.295625E+0	1.254465E+0	1.255274E+0	1.269723E+0	1.253082E+0	1.300465E+0	1.301090E+0	1.310888E+0	1.254052E+0	1.318367E+0	1.303406E+0	1.330954E+0	1.328141E+0	1.278809E+0	1.250364E+0	1.291182E+0	1.278780E+0	1.259748E+0	1.306586E+0	1.220065E+0	1.299325E+0	1.305149E+0	1.260784E+0	1.302093E+0	1.238629E+0	1.290591E+0	1.246213E+0	1.287787E+0	1.237099E+0	1.277389E+0	1.274724E+0	1.261632E+0	1.314371E+0	1.261769E+0	1.255107E+0	1.304651E+0	1.305909E+0	1.345880E+0	1.280594E+0	1.252751E+0	1.328181E+0	1.279618E+0	1.297064E+0	1.278769E+0	1.274857E+0	1.295642E+0	1.249610E+0	1.334325E+0	1.292061E+0	1.264758E+0	1.277078E+0	1.251069E+0	1.297739E+0	1.266778E+0	1.306512E+0	1.232835E+0	1.304501E+0	1.321723E+0	1.300171E+0	1.320028E+0	1.230256E+0	1.262791E+0	1.296464E+0	1.285940E+0	1.339995E+0
5.348020E+2	1.727243E+0	1.736936E+0	1.726608E+0	1.719849E+0	1.724034E+0	1.745012E+0	1.698126E+0	1.779478E+0	1.696398E+0	1.706912E+0	1.739481E+0	1.716226E+0	1.693752E+0	1.746576E+0	1.760121E+0	1.739082E+0	1.755726E+0	1.728347E+0	1.790188E+0	1.718982E+0	1.689081E+0	1.712660E+0	1.730135E+0	1.706487E+0	1.750430E+0	1.750412E+0	1.795928E+0	1.752487E+0	1.737486E+0	1.750038E+0	1.703246E+0	1.710797E+0	1.796049E+0	1.668228E+0	1.794468E+0	1.779495E+0	1.756525E+0	1.733010E+0	1.723580E+0	1.670022E+0	1.746189E+0	1.705792E+0	1.732404E+0	1.705289E+0	1.745862E+0	1.785230E+0	1.708700E+0	1.704196E+0	1.645006E+0	1.722959E+0	1.697336E+0	1.782300E+0	1.805992E+0	1.677906E+0	1.683117E+0	1.793968E+0	1.703691E+0	1.720092E+0	1.739862E+0	1.729275E+0	1.718246E+0	1.692143E+0	1.736913E+0	1.715242E+0	1.758410E+0	1.753750E+0	1.694370E+0	1.651416E+0	1.654365E+0	1.705967E+0	1.723598E+0	1.769402E+0	1.752897E+0	1.704244E+0	1.706099E+0	1.724934E+0	1.707715E+0	1.700099E+0	1.666344E+0	1.718551E+0	1.712350E+0	1.732638E+0	1.724006E+0	1.714270E+0	1.719504E+0	1.654042E+0	1.670227E+0	1.707209E+0	1.763358E+0	1.754531E+0	1.668693E+0	1.720843E+0	1.723088E+0	1.704575E+0	1.729111E+0	1.714272E+0	1.771149E+0	1.674848E+0	1.716445E+0	1.706715E+0	1.784605E+0	1.719606E+0	1.712676E+0	1.676091E+0	1.702829E+0	1.716828E+0	1.712078E+0	1.681408E+0	1.735336E+0	1.691880E+0	1.682553E+0	1.710521E+0	1.704293E+0	1.726052E+0	1.673246E+0	1.747350E+0	1.713294E+0	1.744064E+0	1.679317E+0	1.780243E+0	1.674174E+0	1.683076E+0	1.735160E+0	1.677930E+0	1.685625E+0	1.705553E+0	1.633092E+0	1.679429E+0	1.734923E+0	1.669982E+0	1.698057E+0	1.706034E+0	1.678342E+0	1.606560E+0	1.680473E+0	1.687533E+0	1.682840E+0	1.639436E+0	1.667002E+0	1.714231E+0	1.660800E+0	1.703081E+0	1.707977E+0	1.643381E+0	1.692396E+0	1.733561E+0	1.703783E+0	1.714240E+0	1.694479E+0	1.685548E+0	1.703581E+0	1.729032E+0	1.772398E+0	1.643821E+0	1.658745E+0	1.650505E+0	1.692173E+0	1.831854E+0	1.700214E+0	1.734835E+0	1.740699E+0	1.680739E+0	1.675609E+0	1.672656E+0	1.698161E+0	1.676572E+0	1.765346E+0	1.642366E+0	1.728490E+0	1.654318E+0
5.349580E+2	2.013771E+0	2.030793E+0	1.985375E+0	2.010769E+0	1.994583E+0	2.029513E+0	2.027576E+0	2.082130E+0	2.037237E+0	2.028938E+0	2.013948E+0	1.930716E+0	1.983814E+0	2.003596E+0	2.059800E+0	2.096868E+0	1.981771E+0	2.058526E+0	2.039683E+0	2.046615E+0	1.995072E+0	2.096115E+0	1.968727E+0	2.022775E+0	1.950572E+0	2.019103E+0	2.078083E+0	2.006146E+0	2.018056E+0	2.065046E+0	2.022902E+0	2.014601E+0	2.025671E+0	2.035064E+0	1.988819E+0	1.937973E+0	1.981279E+0	1.995440E+0	2.018546E+0	1.968747E+0	2.034082E+0	2.018385E+0	2.020421E+0	2.008750E+0	1.950701E+0	2.008201E+0	2.067598E+0	1.987876E+0	2.028689E+0	2.039680E+0	1.995311E+0	1.995498E+0	1.946276E+0	2.040468E+0	1.956013E+0	2.056866E+0	1.982516E+0	2.021911E+0	1.927152E+0	1.964285E+0	1.984849E+0	2.013728E+0	1.952574E+0	2.013869E+0	1.955070E+0	2.016291E+0	1.958832E+0	1.974655E+0	1.914006E+0	2.039365E+0	1.915078E+0	2.014239E+0	1.947453E+0	2.010951E+0	1.988646E+0	1.970398E+0	1.977470E+0	1.941086E+0	1.981115E+0	1.990378E+0	1.941954E+0	1.971927E+0	1.934874E+0	1.976602E+0	1.934916E+0	1.932353E+0	1.966009E+0	2.014389E+0	1.989010E+0	1.953806E+0	1.953381E+0	2.001146E+0	2.020807E+0	1.947235E+0	1.968599E+0	1.973987E+0	1.973319E+0	1.994556E+0	1.927648E+0	1.935937E+0	1.990687E+0	1.961257E+0	1.983502E+0	1.936417E+0	1.907529E+0	1.961990E+0	1.987178E+0	1.913519E+0	1.954445E+0	1.922958E+0	1.967618E+0	1.995765E+0	2.057697E+0	1.942705E+0	1.995743E+0	1.951386E+0	1.961287E+0	1.977920E+0	1.909994E+0	1.933146E+0	1.994046E+0	1.923035E+0	1.955903E+0	1.888331E+0	1.957505E+0	1.963241E+0	1.996782E+0	1.898221E+0	1.994164E+0	1.947652E+0	1.835795E+0	1.992531E+0	1.940112E+0	1.909097E+0	1.939667E+0	1.962130E+0	1.956195E+0	1.992811E+0	1.892310E+0	1.891883E+0	1.958593E+0	1.929981E+0	2.039005E+0	1.949978E+0	1.893731E+0	1.912992E+0	1.960216E+0	1.926000E+0	1.969803E+0	1.887011E+0	1.959753E+0	1.947455E+0	2.005868E+0	1.946531E+0	1.902599E+0	1.931676E+0	1.916680E+0	2.044262E+0	1.858877E+0	1.924233E+0	1.902789E+0	1.907829E+0	1.937809E+0	1.942304E+0	1.971790E+0	1.904485E+0	1.977518E+0	1.923486E+0	1.915848E+0	1.915361E+0
5.351140E+2	2.139666E+0	2.149607E+0	2.144339E+0	2.195944E+0	2.175119E+0	2.099501E+0	2.107909E+0	2.130581E+0	2.141751E+0	2.131740E+0	2.094862E+0	2.091263E+0	2.176176E+0	2.152981E+0	2.136756E+0	2.104325E+0	2.121694E+0	2.176929E+0	2.165859E+0	2.106342E+0	2.141216E+0	2.155971E+0	2.146821E+0	2.183309E+0	2.108520E+0	2.172896E+0	2.234906E+0	2.120608E+0	2.112301E+0	2.150338E+0	2.076676E+0	2.166363E+0	2.135380E+0	2.129892E+0	2.122464E+0	2.112547E+0	2.078666E+0	2.152749E+0	2.128895E+0	2.084366E+0	2.172264E+0	2.085477E+0	2.059633E+0	2.119821E+0	2.117839E+0	2.101663E+0	2.225116E+0	2.116876E+0	2.092859E+0	2.165619E+0	2.119444E+0	2.141859E+0	2.128641E+0	2.121867E+0	2.127192E+0	2.095406E+0	2.115668E+0	2.027973E+0	2.108819E+0	2.145947E+0	2.101045E+0	2.064087E+0	2.083684E+0	2.032593E+0	2.103932E+0	2.146962E+0	2.033967E+0	2.088129E+0	2.102872E+0	2.123248E+0	2.119895E+0	2.128652E+0	2.092585E+0	2.094500E+0	2.111520E+0	2.059821E+0	2.022884E+0	2.058274E+0	2.055474E+0	2.089566E+0	2.044125E+0	2.104550E+0	2.227874E+0	2.095835E+0	2.065082E+0	2.111025E+0	2.089694E+0	2.118744E+0	2.073439E+0	2.116113E+0	2.148760E+0	2.085496E+0	2.082523E+0	2.083589E+0	2.057658E+0	2.157488E+0	2.091118E+0	2.127509E+0	2.125254E+0	2.084443E+0	2.115441E+0	2.058386E+0	2.127966E+0	2.134002E+0	2.122161E+0	2.068957E+0	2.178990E+0	2.017358E+0	2.077998E+0	2.048708E+0	2.089079E+0	2.033873E+0	2.101355E+0	2.122322E+0	2.132420E+0	2.066486E+0	2.036128E+0	2.179139E+0	2.118400E+0	2.186117E+0	2.117347E+0	2.048474E+0	2.146256E+0	2.072124E+0	2.056778E+0	2.011393E+0	2.039390E+0	2.062976E+0	2.047897E+0	2.096760E+0	2.078094E+0	2.074933E+0	2.043517E+0	2.094426E+0	2.052854E+0	2.099394E+0	2.058028E+0	1.997733E+0	2.034566E+0	2.145644E+0	1.990246E+0	2.074101E+0	2.146717E+0	2.107180E+0	1.989810E+0	2.038194E+0	1.989488E+0	2.078384E+0	2.088471E+0	2.066621E+0	2.059838E+0	2.038112E+0	2.140702E+0	2.054170E+0	2.056321E+0	2.085670E+0	2.012576E+0	2.113421E+0	1.977754E+0	2.083103E+0	2.079141E+0	2.021519E+0	2.038695E+0	2.069088E+0	2.100997E+0	2.037145E+0	2.048211E+0	2.015039E+0	2.068832E+0	2.035565E+0
5.352600E+2	2.146068E+0	2.214958E+0	2.148926E+0	2.109491E+0	2.099377E+0	2.116863E+0	2.069549E+0	2.109757E+0	2.106062E+0	2.101600E+0	2.028095E+0	2.081585E+0	2.086578E+0	2.138578E+0	2.119145E+0	2.114985E+0	2.072056E+0	2.121126E+0	2.128147E+0	2.139062E+0	2.058779E+0	2.161702E+0	2.063358E+0	2.126916E+0	2.085233E+0	2.062578E+0	2.090303E+0	2.109347E+0	2.041074E+0	2.049500E+0	2.067103E+0	2.033403E+0	2.075742E+0	2.095540E+0	2.046861E+0	2.099431E+0	2.032212E+0	2.095775E+0	2.059278E+0	2.037676E+0	2.066937E+0	2.072789E+0	2.060096E+0	2.028971E+0	2.000223E+0	2.111023E+0	2.094374E+0	2.089821E+0	2.031443E+0	2.135066E+0	2.018275E+0	2.044008E+0	2.054483E+0	2.108754E+0	2.085612E+0	2.109658E+0	2.027540E+0	2.036697E+0	2.062030E+0	2.019160E+0	2.049117E+0	2.116677E+0	2.037916E+0	2.014732E+0	2.039442E+0	2.149796E+0	2.051702E+0	2.033151E+0	2.074100E+0	2.062309E+0	2.050831E+0	2.108069E+0	2.069541E+0	2.031271E+0	1.963116E+0	2.097312E+0	2.029484E+0	2.006467E+0	2.087193E+0	2.136357E+0	2.032322E+0	1.996412E+0	2.070203E+0	2.062437E+0	2.024413E+0	2.001528E+0	2.046260E+0	2.115208E+0	2.030939E+0	2.100414E+0	2.011294E+0	2.045565E+0	1.991236E+0	2.013200E+0	2.028138E+0	2.067001E+0	2.063520E+0	2.059178E+0	2.060810E+0	2.137047E+0	2.080574E+0	2.069152E+0	2.040046E+0	2.054486E+0	2.007861E+0	2.064031E+0	2.124493E+0	2.095208E+0	1.992827E+0	1.992655E+0	2.091132E+0	2.057199E+0	2.003780E+0	2.037190E+0	2.053943E+0	2.041277E+0	2.063547E+0	2.044283E+0	2.065290E+0	2.019704E+0	2.004342E+0	2.040378E+0	2.024729E+0	2.007050E+0	2.030137E+0	1.971044E+0	2.066491E+0	1.945429E+0	2.088112E+0	2.021552E+0	2.053533E+0	2.045035E+0	2.004925E+0	2.027822E+0	1.989801E+0	2.067988E+0	1.951749E+0	2.002799E+0	2.056275E+0	2.114374E+0	2.019078E+0	2.007692E+0	2.039988E+0	2.001192E+0	1.966200E+0	2.092987E+0	1.981746E+0	2.047287E+0	2.022685E+0	2.084363E+0	1.975446E+0	1.973645E+0	2.076916E+0	1.984959E+0	2.003140E+0	2.011788E+0	2.042053E+0	2.109454E+0	2.007867E+0	1.972859E+0	1.987895E+0	2.052394E+0	2.031612E+0	2.029698E+0	2.023337E+0	1.981943E+0	2.005625E+0	1.943855E+0	1.973859E+0	1.850768E+0
5.354110E+2	1.905304E+0	1.940044E+0	1.984034E+0	1.931079E+0	1.941425E+0	1.921308E+0	1.862084E+0	1.947615E+0	1.876571E+0	1.906252E+0	1.852995E+0	1.965429E+0	1.901892E+0	1.978793E+0	1.956842E+0	1.850883E+0	1.911166E+0	1.964781E+0	1.977151E+0	1.946959E+0	1.938407E+0	1.871799E+0	1.922378E+0	1.936551E+0	1.837633E+0	1.892588E+0	1.899954E+0	1.899039E+0	1.879464E+0	1.959284E+0	1.889343E+0	1.850934E+0	1.857583E+0	1.837367E+0	1.900618E+0	1.916582E+0	1.847440E+0	1.880975E+0	1.861489E+0	1.880044E+0	1.835475E+0	1.911104E+0	1.839640E+0	1.892836E+0	1.832623E+0	1.872415E+0	1.944124E+0	1.869952E+0	1.931473E+0	1.862167E+0	1.897943E+0	1.905214E+0	1.823172E+0	1.890675E+0	1.898563E+0	1.919671E+0	1.867205E+0	1.949230E+0	1.906671E+0	1.951193E+0	1.841385E+0	1.905175E+0	1.866120E+0	1.930122E+0	1.882909E+0	1.950325E+0	1.846120E+0	1.870668E+0	1.816647E+0	1.892815E+0	1.850458E+0	1.854849E+0	1.859811E+0	1.807251E+0	1.847398E+0	1.861243E+0	1.894123E+0	1.811530E+0	1.861305E+0	1.904686E+0	1.870476E+0	1.843516E+0	1.901458E+0	1.795235E+0	1.852157E+0	1.885639E+0	1.835915E+0	1.861035E+0	1.882783E+0	1.839516E+0	1.866085E+0	1.916500E+0	1.862673E+0	1.824738E+0	1.866547E+0	1.840033E+0	1.902667E+0	1.950823E+0	1.807320E+0	1.904037E+0	1.945541E+0	1.890178E+0	1.818931E+0	1.882471E+0	1.819089E+0	1.807631E+0	1.900133E+0	1.928107E+0	1.862024E+0	1.901318E+0	1.897350E+0	1.851632E+0	1.875961E+0	1.862197E+0	1.918917E+0	1.915180E+0	1.870524E+0	1.848992E+0	1.842640E+0	1.865058E+0	1.815859E+0	1.865709E+0	1.852701E+0	1.747945E+0	1.887446E+0	1.815641E+0	1.855336E+0	1.821270E+0	1.906808E+0	1.840958E+0	1.840943E+0	1.823261E+0	1.852166E+0	1.814912E+0	1.936438E+0	1.900927E+0	1.765287E+0	1.828403E+0	1.892753E+0	1.840126E+0	1.848528E+0	1.838545E+0	1.855136E+0	1.869032E+0	1.814421E+0	1.831506E+0	1.805712E+0	1.866922E+0	1.865825E+0	1.852641E+0	1.828921E+0	1.862166E+0	1.884123E+0	1.819373E+0	1.858358E+0	1.805869E+0	1.844337E+0	1.925117E+0	1.823312E+0	1.843611E+0	1.841584E+0	1.810861E+0	1.850423E+0	1.809828E+0	1.830943E+0	1.860098E+0	1.839981E+0	1.836655E+0	1.987855E+0	1.745818E+0
5.355630E+2	1.621964E+0	1.622687E+0	1.689543E+0	1.590123E+0	1.601391E+0	1.692986E+0	1.656168E+0	1.610978E+0	1.614906E+0	1.582348E+0	1.628594E+0	1.575696E+0	1.631224E+0	1.653891E+0	1.635382E+0	1.637703E+0	1.559010E+0	1.644835E+0	1.660569E+0	1.612904E+0	1.635387E+0	1.613259E+0	1.634540E+0	1.611612E+0	1.560158E+0	1.636445E+0	1.649263E+0	1.597185E+0	1.553495E+0	1.602330E+0	1.602564E+0	1.587942E+0	1.606765E+0	1.640623E+0	1.559697E+0	1.635626E+0	1.617581E+0	1.558780E+0	1.611131E+0	1.612833E+0	1.572420E+0	1.591347E+0	1.573248E+0	1.624312E+0	1.586328E+0	1.628299E+0	1.599474E+0	1.579156E+0	1.595757E+0	1.663993E+0	1.609290E+0	1.649644E+0	1.605410E+0	1.579408E+0	1.582776E+0	1.640156E+0	1.604430E+0	1.631518E+0	1.554817E+0	1.614516E+0	1.618446E+0	1.584976E+0	1.572792E+0	1.618177E+0	1.650349E+0	1.612791E+0	1.604392E+0	1.607405E+0	1.532353E+0	1.617616E+0	1.571604E+0	1.620333E+0	1.613573E+0	1.567411E+0	1.585846E+0	1.667543E+0	1.635448E+0	1.563685E+0	1.594248E+0	1.626351E+0	1.627582E+0	1.587924E+0	1.592988E+0	1.622846E+0	1.611914E+0	1.579520E+0	1.573622E+0	1.605855E+0	1.587519E+0	1.621180E+0	1.566905E+0	1.555046E+0	1.605503E+0	1.622049E+0	1.566437E+0	1.596112E+0	1.565061E+0	1.644133E+0	1.570159E+0	1.597847E+0	1.666870E+0	1.617613E+0	1.665315E+0	1.609876E+0	1.570501E+0	1.601714E+0	1.653670E+0	1.556493E+0	1.573356E+0	1.589523E+0	1.624301E+0	1.580331E+0	1.587926E+0	1.605374E+0	1.596315E+0	1.593574E+0	1.576612E+0	1.620641E+0	1.603235E+0	1.589220E+0	1.576903E+0	1.623097E+0	1.567757E+0	1.631258E+0	1.606230E+0	1.596018E+0	1.580411E+0	1.614489E+0	1.598479E+0	1.616556E+0	1.614446E+0	1.594003E+0	1.562870E+0	1.534194E+0	1.575719E+0	1.634656E+0	1.576743E+0	1.585702E+0	1.575599E+0	1.615060E+0	1.555735E+0	1.626549E+0	1.625349E+0	1.566661E+0	1.537075E+0	1.597482E+0	1.597699E+0	1.610077E+0	1.582912E+0	1.601007E+0	1.536620E+0	1.625788E+0	1.611761E+0	1.563584E+0	1.580190E+0	1.560303E+0	1.564885E+0	1.632343E+0	1.554926E+0	1.575924E+0	1.617824E+0	1.543240E+0	1.629868E+0	1.583784E+0	1.560808E+0	1.557961E+0	1.597087E+0	1.573009E+0	1.615900E+0	1.592393E+0
5.357090E+2	1.408284E+0	1.428496E+0	1.360283E+0	1.404013E+0	1.411719E+0	1.391635E+0	1.428583E+0	1.389804E+0	1.369503E+0	1.338393E+0	1.383801E+0	1.352686E+0	1.342883E+0	1.382724E+0	1.355897E+0	1.412638E+0	1.411354E+0	1.339202E+0	1.387900E+0	1.371418E+0	1.346615E+0	1.410150E+0	1.413874E+0	1.358412E+0	1.326761E+0	1.372050E+0	1.364938E+0	1.376171E+0	1.356724E+0	1.338192E+0	1.392375E+0	1.347260E+0	1.389977E+0	1.382244E+0	1.398467E+0	1.386166E+0	1.365110E+0	1.372168E+0	1.380058E+0	1.325187E+0	1.399490E+0	1.346484E+0	1.339378E+0	1.355286E+0	1.330114E+0	1.356729E+0	1.330983E+0	1.398783E+0	1.348534E+0	1.392286E+0	1.373179E+0	1.386514E+0	1.399047E+0	1.359286E+0	1.358800E+0	1.412490E+0	1.351660E+0	1.397677E+0	1.383712E+0	1.363453E+0	1.432062E+0	1.357999E+0	1.411435E+0	1.346117E+0	1.355474E+0	1.364125E+0	1.340330E+0	1.375210E+0	1.321850E+0	1.349998E+0	1.410041E+0	1.411516E+0	1.385526E+0	1.390265E+0	1.331100E+0	1.392254E+0	1.358346E+0	1.316890E+0	1.350889E+0	1.373216E+0	1.289520E+0	1.344102E+0	1.378158E+0	1.420697E+0	1.348045E+0	1.363014E+0	1.378571E+0	1.393131E+0	1.343889E+0	1.383928E+0	1.384924E+0	1.351981E+0	1.376457E+0	1.358228E+0	1.336473E+0	1.358799E+0	1.419559E+0	1.323853E+0	1.345705E+0	1.335443E+0	1.371296E+0	1.401351E+0	1.364481E+0	1.434481E+0	1.342134E+0	1.415523E+0	1.341290E+0	1.388635E+0	1.316801E+0	1.400412E+0	1.377995E+0	1.429088E+0	1.328087E+0	1.403358E+0	1.378896E+0	1.428726E+0	1.354459E+0	1.380059E+0	1.377984E+0	1.331422E+0	1.387335E+0	1.385574E+0	1.434473E+0	1.337173E+0	1.332185E+0	1.352228E+0	1.367865E+0	1.367523E+0	1.392657E+0	1.403470E+0	1.404710E+0	1.367193E+0	1.363894E+0	1.347211E+0	1.351059E+0	1.409098E+0	1.328027E+0	1.292274E+0	1.395624E+0	1.424190E+0	1.390678E+0	1.361837E+0	1.341959E+0	1.361574E+0	1.316469E+0	1.377021E+0	1.376570E+0	1.377297E+0	1.387947E+0	1.428707E+0	1.344907E+0	1.302191E+0	1.397052E+0	1.366464E+0	1.349276E+0	1.373192E+0	1.429568E+0	1.471809E+0	1.372427E+0	1.382509E+0	1.389787E+0	1.379216E+0	1.388663E+0	1.351527E+0	1.317490E+0	1.359046E+0	1.439754E+0	1.386301E+0	1.399854E+0	1.447480E+0
5.358650E+2	1.093933E+0	1.079265E+0	1.123709E+0	1.142006E+0	1.112085E+0	1.125918E+0	1.141780E+0	1.096411E+0	1.086784E+0	1.133989E+0	1.063764E+0	1.081487E+0	1.120568E+0	1.133434E+0	1.120528E+0	1.150950E+0	1.125977E+0	1.132627E+0	1.190306E+0	1.148187E+0	1.109019E+0	1.134103E+0	1.117380E+0	1.089952E+0	1.101666E+0	1.147344E+0	1.106811E+0	1.110149E+0	1.154830E+0	1.115652E+0	1.143466E+0	1.140101E+0	1.088532E+0	1.109435E+0	1.140509E+0	1.068901E+0	1.091272E+0	1.098205E+0	1.128251E+0	1.112870E+0	1.125005E+0	1.116959E+0	1.093540E+0	1.088172E+0	1.102381E+0	1.174273E+0	1.147283E+0	1.102361E+0	1.153392E+0	1.158003E+0	1.129286E+0	1.073354E+0	1.119794E+0	1.157545E+0	1.109436E+0	1.136361E+0	1.110507E+0	1.108458E+0	1.100229E+0	1.143515E+0	1.192965E+0	1.111731E+0	1.119295E+0	1.123396E+0	1.174937E+0	1.186227E+0	1.084744E+0	1.098511E+0	1.062574E+0	1.092973E+0	1.128009E+0	1.092900E+0	1.095992E+0	1.124838E+0	1.056024E+0	1.133449E+0	1.090648E+0	1.109141E+0	1.131116E+0	1.126432E+0	1.115348E+0	1.137561E+0	1.095621E+0	1.077674E+0	1.101090E+0	1.115668E+0	1.065067E+0	1.128739E+0	1.115271E+0	1.134983E+0	1.127907E+0	1.161446E+0	1.120307E+0	1.115262E+0	1.102340E+0	1.105586E+0	1.103603E+0	1.113956E+0	1.069864E+0	1.142609E+0	1.131257E+0	1.113065E+0	1.117113E+0	1.060870E+0	1.137670E+0	1.099023E+0	1.076834E+0	1.118646E+0	1.116244E+0	1.112980E+0	1.142746E+0	1.079528E+0	1.136385E+0	1.190808E+0	1.106093E+0	1.133261E+0	1.146658E+0	1.119281E+0	1.109090E+0	1.105432E+0	1.111446E+0	1.131641E+0	1.147006E+0	1.114989E+0	1.074502E+0	1.104800E+0	1.094218E+0	1.085583E+0	1.082275E+0	1.121333E+0	1.134585E+0	1.103801E+0	1.092472E+0	1.112096E+0	1.095884E+0	1.135798E+0	1.122559E+0	1.104851E+0	1.133922E+0	1.121685E+0	1.106941E+0	1.114360E+0	1.144038E+0	1.092736E+0	1.130456E+0	1.095189E+0	1.132719E+0	1.107198E+0	1.103948E+0	1.104125E+0	1.085767E+0	1.080602E+0	1.112382E+0	1.148892E+0	1.100531E+0	1.103132E+0	1.157272E+0	1.161790E+0	1.110013E+0	1.157732E+0	1.090998E+0	1.116146E+0	1.091059E+0	1.099448E+0	1.075364E+0	1.082562E+0	1.150707E+0	1.149589E+0	1.172158E+0	1.148117E+0
5.360070E+2	9.707824E-1	9.633553E-1	9.780780E-1	9.671606E-1	1.003927E+0	9.697038E-1	1.003244E+0	1.034065E+0	9.329549E-1	9.255309E-1	9.373775E-1	9.785379E-1	9.258911E-1	9.416203E-1	9.310584E-1	9.601262E-1	9.689668E-1	9.761252E-1	1.008985E+0	9.788248E-1	9.689128E-1	9.196701E-1	9.927379E-1	9.646965E-1	9.288073E-1	9.542585E-1	1.016768E+0	8.930944E-1	9.501684E-1	9.397949E-1	9.690752E-1	9.328817E-1	9.293219E-1	9.495201E-1	9.615409E-1	9.429497E-1	9.613205E-1	9.078364E-1	9.476446E-1	9.580349E-1	1.000264E+0	9.664048E-1	9.419365E-1	1.004093E+0	9.515904E-1	9.913153E-1	9.942529E-1	9.400811E-1	9.244741E-1	1.013068E+0	9.991056E-1	9.443428E-1	9.585837E-1	1.011711E+0	9.395665E-1	9.524506E-1	9.118564E-1	9.881069E-1	9.218877E-1	9.574226E-1	9.676180E-1	9.437820E-1	9.091410E-1	9.105921E-1	9.493594E-1	9.347466E-1	9.099725E-1	9.409123E-1	9.389126E-1	9.265586E-1	9.823731E-1	9.531061E-1	9.265006E-1	9.805017E-1	9.581920E-1	9.542603E-1	9.286431E-1	9.447371E-1	9.639942E-1	9.696393E-1	9.973069E-1	9.882356E-1	9.522810E-1	1.003335E+0	9.453883E-1	9.557892E-1	9.074323E-1	9.495110E-1	9.875587E-1	9.392830E-1	9.469128E-1	9.779383E-1	9.845467E-1	9.443609E-1	9.363188E-1	9.589848E-1	1.003941E+0	1.000263E+0	9.931185E-1	9.436114E-1	1.005837E+0	9.424754E-1	1.013602E+0	9.229763E-1	9.367107E-1	9.660880E-1	9.582427E-1	9.509587E-1	9.985646E-1	9.380748E-1	9.386530E-1	9.791903E-1	9.913416E-1	9.510018E-1	9.850866E-1	1.025712E+0	9.746651E-1	1.009710E+0	9.151865E-1	9.781731E-1	9.553310E-1	9.467654E-1	9.640367E-1	1.000101E+0	9.719389E-1	9.517101E-1	9.736923E-1	9.495284E-1	9.277296E-1	9.413263E-1	9.861774E-1	9.742112E-1	9.078724E-1	9.329598E-1	9.447349E-1	9.497545E-1	9.251609E-1	9.331622E-1	9.504090E-1	9.636160E-1	9.715035E-1	9.142404E-1	9.970853E-1	9.046811E-1	9.287126E-1	9.262696E-1	9.563454E-1	9.339549E-1	9.593774E-1	9.126905E-1	9.535827E-1	9.650471E-1	1.026037E+0	9.109019E-1	9.679773E-1	9.457457E-1	9.587833E-1	9.915653E-1	9.562194E-1	9.662408E-1	9.697988E-1	9.321826E-1	9.660468E-1	9.398719E-1	9.845901E-1	9.648506E-1	9.778643E-1	9.712982E-1	9.411040E-1	9.670967E-1
5.362680E+2	7.292704E-1	7.155293E-1	7.335066E-1	7.328768E-1	7.200468E-1	7.262098E-1	7.095959E-1	7.234223E-1	7.379041E-1	7.283014E-1	7.419416E-1	7.671370E-1	7.241973E-1	7.630388E-1	7.548793E-1	7.395257E-1	7.427391E-1	7.233423E-1	7.386690E-1	7.298285E-1	7.320757E-1	7.449324E-1	7.273688E-1	6.975364E-1	7.025211E-1	7.076229E-1	7.560586E-1	7.240052E-1	7.259811E-1	7.241892E-1	7.421858E-1	7.527957E-1	7.211941E-1	6.866135E-1	6.956126E-1	7.147160E-1	7.299502E-1	7.357906E-1	7.254373E-1	7.114677E-1	7.437811E-1	7.460015E-1	6.873632E-1	6.993408E-1	7.146485E-1	7.149545E-1	7.233922E-1	7.399806E-1	7.285734E-1	7.425815E-1	7.354397E-1	7.069868E-1	7.107386E-1	7.328582E-1	6.953733E-1	7.314784E-1	7.291198E-1	7.708177E-1	7.264271E-1	7.623949E-1	7.353616E-1	7.335364E-1	7.474568E-1	7.524888E-1	7.346651E-1	7.185076E-1	7.752937E-1	7.399075E-1	7.071825E-1	7.469324E-1	7.325922E-1	7.210485E-1	7.467393E-1	7.454299E-1	6.739802E-1	7.736218E-1	7.157692E-1	7.171694E-1	7.333287E-1	7.576362E-1	7.303819E-1	7.524720E-1	7.740290E-1	7.749532E-1	7.554830E-1	7.227695E-1	7.668080E-1	7.423074E-1	7.661812E-1	7.360093E-1	7.654737E-1	7.326700E-1	7.207092E-1	7.469484E-1	7.374800E-1	6.864041E-1	7.305035E-1	7.353570E-1	7.483225E-1	7.449901E-1	7.196388E-1	7.541365E-1	7.633799E-1	7.255070E-1	7.177444E-1	7.358061E-1	7.879683E-1	7.199087E-1	7.318901E-1	7.341377E-1	7.422119E-1	6.854965E-1	7.480321E-1	7.405918E-1	7.756725E-1	7.620544E-1	7.315714E-1	7.520979E-1	7.246679E-1	7.271637E-1	7.439133E-1	7.203285E-1	7.833067E-1	7.135760E-1	7.502194E-1	7.151735E-1	7.300439E-1	7.185105E-1	7.523595E-1	6.940358E-1	7.029930E-1	6.912699E-1	7.601644E-1	7.137734E-1	6.974946E-1	7.139785E-1	7.371058E-1	6.948717E-1	7.512693E-1	7.389648E-1	7.463474E-1	7.226766E-1	7.793039E-1	7.432507E-1	7.236341E-1	7.169162E-1	7.516122E-1	7.246135E-1	7.073215E-1	7.530513E-1	7.106506E-1	7.221786E-1	7.289768E-1	7.326038E-1	7.204441E-1	7.345730E-1	7.272135E-1	7.824724E-1	7.020694E-1	7.487670E-1	7.262324E-1	7.485169E-1	7.606227E-1	7.352862E-1	7.434345E-1	7.294588E-1	7.430069E-1	7.697605E-1	7.430998E-1	6.662734E-1
5.365140E+2	6.003026E-1	6.360768E-1	5.822177E-1	5.926449E-1	6.104086E-1	6.452958E-1	5.918030E-1	6.103975E-1	6.029233E-1	6.221832E-1	6.013129E-1	5.916688E-1	6.132860E-1	5.911873E-1	6.053311E-1	6.054204E-1	6.249394E-1	5.822953E-1	6.162546E-1	5.885211E-1	5.968740E-1	5.808309E-1	5.844860E-1	6.221644E-1	5.972946E-1	6.253535E-1	6.175913E-1	5.973513E-1	6.455323E-1	5.821951E-1	5.980774E-1	6.124918E-1	5.970988E-1	6.015370E-1	6.033645E-1	6.105617E-1	5.850943E-1	5.827260E-1	5.898316E-1	6.323072E-1	6.116218E-1	6.386450E-1	5.848014E-1	6.255340E-1	6.087882E-1	5.847546E-1	6.118984E-1	6.119540E-1	6.354505E-1	6.296883E-1	5.868319E-1	6.135029E-1	5.775055E-1	6.018554E-1	5.905924E-1	6.354749E-1	6.210221E-1	6.226680E-1	6.240329E-1	6.141243E-1	6.127240E-1	5.811672E-1	6.293764E-1	6.065748E-1	6.084023E-1	5.712633E-1	6.311351E-1	5.959572E-1	5.553426E-1	6.109627E-1	6.088274E-1	6.029056E-1	6.091884E-1	5.797490E-1	6.445174E-1	6.265972E-1	5.740264E-1	5.881278E-1	6.158599E-1	6.060141E-1	6.253870E-1	6.105790E-1	6.046649E-1	6.059833E-1	5.946399E-1	5.889028E-1	5.855153E-1	6.074026E-1	5.842975E-1	5.826511E-1	5.885897E-1	6.063794E-1	6.404806E-1	6.094786E-1	5.968670E-1	6.192059E-1	5.905640E-1	5.844753E-1	6.226703E-1	6.341555E-1	6.026423E-1	6.099674E-1	5.696521E-1	6.423574E-1	6.032430E-1	6.008190E-1	6.300048E-1	6.136799E-1	5.973650E-1	6.044473E-1	6.011812E-1	6.159720E-1	5.916325E-1	5.833981E-1	6.416446E-1	6.512328E-1	5.826916E-1	6.341358E-1	5.926671E-1	5.887262E-1	5.915817E-1	6.446325E-1	6.257474E-1	6.072315E-1	6.128263E-1	6.060950E-1	5.838779E-1	5.730870E-1	6.068227E-1	6.027989E-1	6.334700E-1	6.224625E-1	6.341346E-1	6.315549E-1	6.135658E-1	5.977268E-1	6.004536E-1	6.173053E-1	6.292759E-1	6.100371E-1	5.863392E-1	6.051474E-1	5.986238E-1	5.706057E-1	6.047665E-1	6.082599E-1	6.337738E-1	5.955593E-1	6.033394E-1	6.000045E-1	6.307722E-1	5.979241E-1	6.062983E-1	5.969124E-1	5.978629E-1	6.167713E-1	6.269388E-1	6.240502E-1	6.114160E-1	6.449540E-1	5.907577E-1	6.067264E-1	6.053290E-1	6.268757E-1	6.206822E-1	5.940866E-1	5.606212E-1	6.117926E-1	6.107286E-1	6.054083E-1
5.367660E+2	5.606227E-1	5.319807E-1	5.589936E-1	5.589305E-1	5.253483E-1	5.293672E-1	5.236652E-1	5.864014E-1	5.273558E-1	5.517083E-1	5.366526E-1	5.424463E-1	5.626588E-1	5.600665E-1	5.235214E-1	5.456441E-1	5.746272E-1	5.626915E-1	5.285266E-1	5.818839E-1	5.746814E-1	5.328292E-1	5.681180E-1	5.575236E-1	5.516646E-1	5.334232E-1	5.748583E-1	5.401795E-1	5.801405E-1	5.292977E-1	6.013951E-1	5.647905E-1	5.757757E-1	5.327544E-1	5.463350E-1	5.894494E-1	5.436572E-1	5.261760E-1	5.720247E-1	5.776871E-1	5.659849E-1	5.568400E-1	5.633200E-1	5.409911E-1	5.544960E-1	5.742318E-1	5.688880E-1	5.399065E-1	5.309071E-1	5.362296E-1	5.596082E-1	5.640526E-1	5.583610E-1	5.745424E-1	5.289682E-1	5.860654E-1	5.233402E-1	5.254913E-1	5.368114E-1	5.642300E-1	5.284005E-1	5.180338E-1	5.538541E-1	5.469889E-1	5.544314E-1	5.403309E-1	5.720029E-1	5.111788E-1	5.564673E-1	5.536248E-1	5.456830E-1	5.577256E-1	5.512741E-1	5.263335E-1	5.663700E-1	5.620436E-1	5.453612E-1	5.663027E-1	5.565344E-1	5.864452E-1	5.423293E-1	5.528895E-1	5.620961E-1	5.650656E-1	5.437660E-1	5.482323E-1	5.492334E-1	5.578155E-1	5.733748E-1	5.230592E-1	5.466327E-1	5.494001E-1	5.805203E-1	5.671998E-1	5.826226E-1	5.474234E-1	5.734153E-1	5.920981E-1	5.794148E-1	5.519650E-1	5.603949E-1	5.533051E-1	5.790316E-1	5.437798E-1	5.827781E-1	5.683922E-1	5.367304E-1	5.860798E-1	5.620267E-1	5.239759E-1	5.577078E-1	5.568216E-1	5.411777E-1	5.393535E-1	5.576812E-1	5.920861E-1	5.413479E-1	5.610658E-1	5.846329E-1	5.422335E-1	5.440506E-1	5.572307E-1	5.516823E-1	5.835844E-1	5.579268E-1	5.579749E-1	5.574842E-1	5.161271E-1	5.094835E-1	5.892636E-1	5.496717E-1	5.517549E-1	5.118489E-1	5.624843E-1	5.487060E-1	5.594776E-1	5.668870E-1	5.310491E-1	5.337045E-1	5.689716E-1	5.507725E-1	5.426657E-1	5.800989E-1	5.717917E-1	5.432910E-1	5.128242E-1	5.925498E-1	5.314247E-1	5.496856E-1	5.752100E-1	5.389748E-1	5.707512E-1	5.910807E-1	5.457087E-1	5.337562E-1	5.794345E-1	5.359945E-1	5.797919E-1	5.757407E-1	5.923820E-1	5.556542E-1	5.321891E-1	5.658494E-1	5.472692E-1	5.717969E-1	5.673027E-1	5.808211E-1	5.447108E-1	6.016002E-1	5.006807E-1
5.370120E+2	5.321238E-1	5.375505E-1	5.612907E-1	5.069537E-1	5.923832E-1	5.399648E-1	5.400810E-1	5.467283E-1	5.311234E-1	5.458934E-1	5.442144E-1	5.128167E-1	5.599331E-1	5.770773E-1	5.662231E-1	5.610110E-1	5.408479E-1	5.624487E-1	5.400325E-1	5.219068E-1	5.520198E-1	5.318049E-1	5.148018E-1	5.556269E-1	5.482318E-1	5.901914E-1	5.563842E-1	5.343570E-1	5.517915E-1	5.733005E-1	5.514209E-1	5.572096E-1	5.627905E-1	5.567097E-1	5.622835E-1	5.855923E-1	5.651893E-1	5.433053E-1	5.650906E-1	5.558213E-1	5.567847E-1	5.781767E-1	5.410860E-1	5.990803E-1	5.369952E-1	5.544113E-1	5.905050E-1	5.451147E-1	5.742536E-1	5.356992E-1	5.428582E-1	5.412799E-1	5.926910E-1	5.656953E-1	5.400868E-1	5.642740E-1	5.721986E-1	5.607969E-1	5.740025E-1	6.045345E-1	5.374546E-1	5.547610E-1	5.298292E-1	5.390726E-1	5.555363E-1	5.432686E-1	5.403938E-1	5.534853E-1	5.414478E-1	5.653249E-1	5.319512E-1	6.039719E-1	5.489384E-1	5.524481E-1	5.184732E-1	5.576978E-1	5.959785E-1	5.337076E-1	5.306996E-1	5.840896E-1	5.370069E-1	5.385007E-1	5.727166E-1	5.606194E-1	5.305655E-1	5.372851E-1	5.504391E-1	5.444214E-1	5.821763E-1	5.540296E-1	5.449036E-1	5.174088E-1	5.575290E-1	5.445596E-1	5.508670E-1	5.431566E-1	5.418445E-1	5.450438E-1	5.404474E-1	5.744143E-1	5.584017E-1	5.472409E-1	5.966401E-1	5.659515E-1	5.950312E-1	5.701995E-1	5.170685E-1	5.691356E-1	5.313853E-1	5.754358E-1	5.693722E-1	5.628709E-1	5.425645E-1	5.628546E-1	5.643254E-1	5.929381E-1	5.524709E-1	5.678292E-1	5.796531E-1	5.682675E-1	5.698624E-1	5.438646E-1	5.619012E-1	5.411809E-1	5.763393E-1	5.466061E-1	5.665492E-1	5.489548E-1	5.671662E-1	5.661635E-1	5.665221E-1	5.290408E-1	5.709312E-1	5.573858E-1	5.550958E-1	5.709956E-1	5.427771E-1	5.710010E-1	5.674363E-1	5.652710E-1	5.553039E-1	5.577555E-1	5.584007E-1	5.326745E-1	5.580710E-1	5.794776E-1	5.905162E-1	5.524148E-1	5.528227E-1	5.585840E-1	5.674478E-1	5.576458E-1	5.994401E-1	5.368959E-1	5.453590E-1	5.520012E-1	5.873524E-1	5.771985E-1	5.819785E-1	5.247274E-1	5.604253E-1	5.479156E-1	5.580153E-1	5.946881E-1	5.530706E-1	5.591385E-1	5.939049E-1	5.726628E-1	6.036582E-1	5.383248E-1
5.372590E+2	6.163505E-1	6.219936E-1	6.181572E-1	5.950493E-1	6.409540E-1	6.228728E-1	6.068507E-1	6.107819E-1	6.313464E-1	5.726270E-1	6.159445E-1	6.125274E-1	6.320947E-1	6.108789E-1	6.405023E-1	6.107412E-1	6.225665E-1	5.945075E-1	6.467852E-1	5.940968E-1	5.858545E-1	5.829173E-1	6.444690E-1	6.149620E-1	6.063948E-1	6.118817E-1	6.038672E-1	5.767840E-1	6.073232E-1	6.071327E-1	6.550930E-1	6.643915E-1	6.205849E-1	6.102913E-1	6.391268E-1	6.245749E-1	6.165129E-1	5.963172E-1	6.193722E-1	6.285955E-1	6.389294E-1	6.194647E-1	6.441107E-1	6.215761E-1	6.149110E-1	6.561829E-1	6.580148E-1	5.905190E-1	6.157944E-1	6.078636E-1	6.057645E-1	6.304206E-1	6.167265E-1	6.094465E-1	6.010545E-1	6.481229E-1	6.414954E-1	6.020630E-1	6.203968E-1	6.294368E-1	6.102599E-1	5.962241E-1	6.086737E-1	6.228805E-1	6.137841E-1	6.559825E-1	6.303737E-1	5.510026E-1	6.237286E-1	6.110694E-1	6.137912E-1	6.114380E-1	6.194778E-1	5.970123E-1	6.579931E-1	6.242370E-1	6.407228E-1	5.995443E-1	6.060459E-1	6.303430E-1	6.342390E-1	6.112055E-1	6.123883E-1	6.145663E-1	5.845577E-1	6.260516E-1	5.890024E-1	6.233857E-1	6.102042E-1	6.088227E-1	6.541406E-1	6.349382E-1	6.303942E-1	6.341907E-1	6.249055E-1	5.846968E-1	6.261156E-1	6.053025E-1	5.951399E-1	6.312121E-1	5.998254E-1	6.197242E-1	6.437740E-1	6.063712E-1	6.109186E-1	5.655875E-1	5.890654E-1	6.319103E-1	6.130574E-1	5.972203E-1	6.360057E-1	6.114315E-1	5.648791E-1	6.303458E-1	6.597480E-1	6.535132E-1	6.292444E-1	6.403953E-1	6.532694E-1	6.096555E-1	5.985381E-1	6.491007E-1	6.316535E-1	6.297216E-1	6.315448E-1	6.443973E-1	6.117718E-1	6.051007E-1	5.934171E-1	6.130018E-1	6.206279E-1	6.201665E-1	6.140332E-1	6.115819E-1	6.192641E-1	6.521964E-1	6.249789E-1	5.745229E-1	6.139975E-1	6.101170E-1	6.263183E-1	6.083715E-1	6.227174E-1	6.140201E-1	6.067354E-1	6.161893E-1	6.474934E-1	6.503482E-1	6.539740E-1	6.061869E-1	5.802604E-1	6.064393E-1	6.481318E-1	6.286859E-1	5.896373E-1	6.318588E-1	6.510006E-1	7.190849E-1	6.291431E-1	6.196391E-1	6.285848E-1	6.111569E-1	6.019313E-1	6.309163E-1	6.218430E-1	5.994818E-1	6.064600E-1	6.218070E-1	6.544852E-1	6.239042E-1
5.375110E+2	6.932515E-1	6.918266E-1	7.127194E-1	7.151756E-1	7.289854E-1	6.947716E-1	7.046894E-1	6.960525E-1	6.537077E-1	6.956951E-1	7.006428E-1	7.014489E-1	6.598675E-1	7.072958E-1	6.852926E-1	7.477033E-1	7.000748E-1	6.885715E-1	7.399260E-1	7.366269E-1	6.970661E-1	7.036054E-1	7.198178E-1	7.164163E-1	6.802518E-1	7.094584E-1	7.091204E-1	7.226894E-1	7.053242E-1	7.427319E-1	7.558276E-1	7.212198E-1	6.675419E-1	6.942859E-1	7.443967E-1	6.840459E-1	7.252257E-1	6.715998E-1	7.275554E-1	7.416979E-1	7.131151E-1	7.074764E-1	6.908324E-1	6.978452E-1	6.755711E-1	7.434527E-1	7.819255E-1	6.871117E-1	7.112841E-1	6.840348E-1	6.879617E-1	7.255691E-1	7.327715E-1	6.951143E-1	7.042920E-1	7.058574E-1	6.966468E-1	6.647608E-1	7.302896E-1	7.295838E-1	6.841902E-1	7.397336E-1	7.183682E-1	7.432175E-1	7.135861E-1	6.988832E-1	6.849943E-1	7.216573E-1	7.446960E-1	7.112932E-1	6.755578E-1	7.435873E-1	7.027461E-1	7.386494E-1	7.007604E-1	7.490039E-1	7.161294E-1	6.971352E-1	7.025025E-1	7.100271E-1	6.946689E-1	7.192358E-1	6.875143E-1	7.117395E-1	6.993301E-1	7.244881E-1	8.039096E-1	7.192721E-1	7.424597E-1	7.025302E-1	7.337460E-1	7.058121E-1	6.936722E-1	7.425131E-1	6.796274E-1	7.114994E-1	7.568507E-1	6.929226E-1	6.995030E-1	7.049704E-1	7.323202E-1	7.060035E-1	7.478969E-1	7.016516E-1	7.438232E-1	7.383448E-1	7.205757E-1	7.364053E-1	6.546627E-1	7.536621E-1	7.296027E-1	6.833781E-1	7.170423E-1	7.158875E-1	7.455248E-1	7.664381E-1	7.124165E-1	7.194531E-1	7.353510E-1	6.741048E-1	7.284511E-1	7.053112E-1	7.267523E-1	7.367074E-1	7.437481E-1	7.443358E-1	7.033735E-1	7.351544E-1	7.060252E-1	6.978717E-1	7.134129E-1	7.213608E-1	6.864603E-1	7.144948E-1	6.967283E-1	7.317620E-1	6.739808E-1	7.227626E-1	7.500448E-1	7.554485E-1	6.909264E-1	7.166981E-1	7.269401E-1	7.046605E-1	7.072381E-1	6.939106E-1	7.644873E-1	7.254543E-1	7.328975E-1	6.783597E-1	7.375130E-1	7.212160E-1	7.310551E-1	7.250911E-1	6.895813E-1	7.008588E-1	7.236061E-1	7.049597E-1	7.665846E-1	7.524941E-1	6.960109E-1	7.119164E-1	7.092356E-1	7.470572E-1	7.176341E-1	7.310023E-1	7.669479E-1	7.607873E-1	7.212003E-1	7.645629E-1
5.377580E+2	8.024361E-1	7.875278E-1	8.083821E-1	8.031496E-1	8.503119E-1	7.821736E-1	8.225402E-1	7.973865E-1	7.771262E-1	8.103568E-1	7.723636E-1	7.830249E-1	7.802975E-1	8.575628E-1	7.698711E-1	7.584855E-1	8.535347E-1	8.064201E-1	8.385078E-1	7.788817E-1	8.660809E-1	7.660612E-1	8.087539E-1	8.215796E-1	8.352443E-1	7.854583E-1	7.779090E-1	8.338228E-1	7.902526E-1	7.929643E-1	8.214958E-1	8.155301E-1	8.216388E-1	8.139163E-1	8.352555E-1	8.190620E-1	7.653647E-1	7.893263E-1	7.973485E-1	7.952492E-1	8.062067E-1	8.218502E-1	7.819240E-1	8.227152E-1	7.786209E-1	8.003671E-1	8.084794E-1	8.337209E-1	8.145113E-1	8.006180E-1	8.108448E-1	7.964871E-1	8.170781E-1	8.237624E-1	8.301000E-1	7.738163E-1	7.900017E-1	8.005193E-1	8.329044E-1	8.109489E-1	8.095901E-1	8.032068E-1	8.029648E-1	8.010473E-1	7.917922E-1	8.162822E-1	7.673315E-1	8.366095E-1	7.768414E-1	8.017474E-1	8.012764E-1	8.706486E-1	7.847898E-1	7.858760E-1	7.780531E-1	8.628828E-1	8.041436E-1	7.892276E-1	7.760157E-1	7.982748E-1	7.756006E-1	7.923034E-1	8.081995E-1	8.034111E-1	7.973636E-1	7.782229E-1	7.983321E-1	8.105175E-1	8.430357E-1	7.898363E-1	8.138751E-1	8.049204E-1	8.091652E-1	8.386735E-1	8.322265E-1	8.027793E-1	7.597246E-1	7.872147E-1	8.074778E-1	7.944957E-1	8.202687E-1	7.475837E-1	8.110571E-1	7.987382E-1	7.959549E-1	8.051392E-1	8.288571E-1	8.135995E-1	7.803706E-1	7.757583E-1	8.130607E-1	7.855597E-1	7.716598E-1	8.144363E-1	8.273056E-1	8.310553E-1	8.120752E-1	8.398285E-1	8.108598E-1	7.957322E-1	8.368874E-1	7.958753E-1	7.910221E-1	8.127941E-1	7.891610E-1	8.129878E-1	7.845945E-1	8.015064E-1	7.907666E-1	7.642334E-1	8.206536E-1	8.475000E-1	8.216881E-1	7.793615E-1	7.651894E-1	8.391912E-1	8.045681E-1	7.459136E-1	8.098060E-1	7.610111E-1	8.006726E-1	8.160798E-1	7.675963E-1	8.294419E-1	7.912683E-1	7.867125E-1	8.332237E-1	8.255095E-1	8.059075E-1	7.979891E-1	8.513214E-1	7.971442E-1	8.123246E-1	8.137916E-1	7.984099E-1	8.012814E-1	7.933085E-1	8.528654E-1	7.783419E-1	8.363674E-1	7.953983E-1	8.241027E-1	7.881095E-1	8.415583E-1	7.719676E-1	7.931708E-1	8.579002E-1	7.825522E-1	8.595673E-1	8.338400E-1
5.380110E+2	8.857161E-1	9.362216E-1	9.567751E-1	8.771568E-1	9.648291E-1	9.071950E-1	9.477349E-1	9.267730E-1	8.788363E-1	9.380984E-1	9.500612E-1	9.820863E-1	9.257387E-1	9.629987E-1	9.602701E-1	9.284795E-1	9.704277E-1	9.644873E-1	9.583252E-1	9.276571E-1	9.216554E-1	9.384738E-1	9.539606E-1	9.251696E-1	9.778297E-1	9.137833E-1	9.654317E-1	9.543872E-1	9.277173E-1	9.553525E-1	8.813254E-1	9.302432E-1	9.951687E-1	9.117663E-1	9.372633E-1	9.640255E-1	9.591502E-1	9.389209E-1	9.700294E-1	9.378533E-1	9.555610E-1	9.599836E-1	9.324736E-1	9.528228E-1	9.426060E-1	9.756995E-1	9.435616E-1	9.655148E-1	9.368071E-1	9.283416E-1	9.376237E-1	9.361401E-1	9.349528E-1	9.517523E-1	9.472751E-1	9.574850E-1	9.068147E-1	9.243691E-1	9.514726E-1	9.238567E-1	9.310548E-1	9.459062E-1	9.310818E-1	9.641539E-1	9.741529E-1	9.865853E-1	9.477805E-1	9.427549E-1	8.856069E-1	9.839050E-1	9.287756E-1	9.136220E-1	9.977190E-1	9.414301E-1	9.539112E-1	9.512559E-1	9.259223E-1	8.986725E-1	9.564619E-1	9.489576E-1	9.377676E-1	9.159734E-1	9.812605E-1	9.144047E-1	9.147229E-1	9.394155E-1	9.289423E-1	9.599935E-1	9.617121E-1	8.964143E-1	9.603708E-1	9.471767E-1	9.303212E-1	9.306362E-1	9.351874E-1	9.541911E-1	9.206935E-1	9.911404E-1	9.504865E-1	9.235560E-1	8.919611E-1	8.950938E-1	9.731492E-1	9.178021E-1	9.356906E-1	9.558023E-1	8.736440E-1	9.856160E-1	9.481216E-1	9.152366E-1	9.537786E-1	9.650307E-1	9.820892E-1	9.387862E-1	9.038337E-1	9.816374E-1	9.048378E-1	9.417486E-1	9.642999E-1	9.262382E-1	9.683298E-1	9.046279E-1	9.653236E-1	8.869380E-1	9.320749E-1	9.129849E-1	9.298797E-1	9.677226E-1	9.598810E-1	9.471089E-1	9.707369E-1	9.862046E-1	9.565719E-1	9.199811E-1	8.811973E-1	9.998121E-1	9.394897E-1	9.443858E-1	9.718566E-1	9.641300E-1	9.314209E-1	9.319042E-1	9.503186E-1	9.349453E-1	8.760955E-1	9.264044E-1	9.675324E-1	9.663562E-1	9.321029E-1	9.754850E-1	9.580489E-1	9.099834E-1	9.656080E-1	9.350354E-1	8.700874E-1	9.099594E-1	9.418229E-1	1.034491E+0	9.414559E-1	9.719134E-1	9.540013E-1	9.174300E-1	9.170159E-1	9.564081E-1	9.061632E-1	8.808668E-1	9.924103E-1	9.354807E-1	9.831110E-1	9.136848E-1
5.382850E+2	1.086617E+0	1.112750E+0	1.093619E+0	1.064834E+0	1.076958E+0	1.087788E+0	1.079244E+0	1.157915E+0	1.114880E+0	1.107372E+0	1.067999E+0	1.095866E+0	1.093532E+0	1.102342E+0	1.075474E+0	1.067044E+0	1.146041E+0	1.133570E+0	1.107073E+0	1.132594E+0	1.113488E+0	1.057237E+0	1.071767E+0	1.083216E+0	1.081385E+0	1.159615E+0	1.097612E+0	1.131111E+0	1.104740E+0	1.081615E+0	1.080826E+0	1.115925E+0	1.083973E+0	1.119754E+0	1.070223E+0	1.136044E+0	1.139652E+0	1.061355E+0	1.115672E+0	1.105670E+0	1.096254E+0	1.147992E+0	1.103976E+0	1.094948E+0	1.064231E+0	1.072469E+0	1.147971E+0	1.115341E+0	1.109692E+0	1.100567E+0	1.066386E+0	1.137076E+0	1.086151E+0	1.069924E+0	1.064138E+0	1.153338E+0	1.064546E+0	1.086738E+0	1.090089E+0	1.117973E+0	1.135599E+0	1.189048E+0	1.086079E+0	1.094185E+0	1.076276E+0	1.069051E+0	1.063674E+0	1.128142E+0	1.060193E+0	1.067152E+0	1.075920E+0	1.082312E+0	1.076808E+0	1.114816E+0	1.092499E+0	1.086186E+0	1.129030E+0	1.005654E+0	1.091912E+0	1.126032E+0	1.101616E+0	1.120237E+0	1.085292E+0	1.143912E+0	1.129087E+0	1.041500E+0	1.083284E+0	1.089614E+0	1.141514E+0	1.080196E+0	1.079904E+0	1.094806E+0	1.121509E+0	1.063481E+0	1.057915E+0	1.103795E+0	1.107350E+0	1.103995E+0	1.100313E+0	1.129438E+0	1.126768E+0	1.084856E+0	1.126036E+0	1.101215E+0	1.083366E+0	1.094589E+0	1.091739E+0	1.129070E+0	1.118557E+0	1.085134E+0	1.088657E+0	1.066855E+0	1.071986E+0	1.114476E+0	1.126101E+0	1.113850E+0	1.131612E+0	1.114253E+0	1.118970E+0	1.063964E+0	1.070941E+0	1.080327E+0	1.078439E+0	1.080658E+0	1.104297E+0	1.099802E+0	1.100113E+0	1.065448E+0	1.105265E+0	1.120008E+0	1.140245E+0	1.127460E+0	1.081870E+0	1.078026E+0	1.114686E+0	1.119931E+0	1.099944E+0	1.101481E+0	1.105840E+0	1.115088E+0	1.045705E+0	1.115339E+0	1.091336E+0	1.063649E+0	1.107912E+0	1.087982E+0	1.108984E+0	1.116066E+0	1.112589E+0	1.059801E+0	1.104330E+0	1.104335E+0	1.124973E+0	1.080309E+0	1.132811E+0	1.105289E+0	1.136949E+0	1.116459E+0	1.065296E+0	1.121924E+0	1.132589E+0	1.123866E+0	1.089983E+0	1.120076E+0	1.114173E+0	1.070091E+0	1.109940E+0	1.130648E+0	1.051386E+0	1.127512E+0
5.385110E+2	1.328438E+0	1.303295E+0	1.309977E+0	1.338720E+0	1.382196E+0	1.295311E+0	1.327305E+0	1.338268E+0	1.286443E+0	1.329276E+0	1.252434E+0	1.315225E+0	1.232060E+0	1.305730E+0	1.305672E+0	1.317406E+0	1.343908E+0	1.305338E+0	1.344313E+0	1.316945E+0	1.339610E+0	1.273844E+0	1.309535E+0	1.345550E+0	1.279969E+0	1.309153E+0	1.324418E+0	1.368084E+0	1.329639E+0	1.316143E+0	1.339427E+0	1.329865E+0	1.315436E+0	1.290096E+0	1.259529E+0	1.339254E+0	1.308360E+0	1.334677E+0	1.352221E+0	1.324729E+0	1.365137E+0	1.310173E+0	1.243314E+0	1.325026E+0	1.295552E+0	1.333233E+0	1.321773E+0	1.342103E+0	1.360564E+0	1.332566E+0	1.371519E+0	1.300063E+0	1.314604E+0	1.286303E+0	1.282021E+0	1.317083E+0	1.277550E+0	1.311452E+0	1.299695E+0	1.356914E+0	1.405965E+0	1.269465E+0	1.319568E+0	1.336314E+0	1.311714E+0	1.384940E+0	1.289441E+0	1.356437E+0	1.246166E+0	1.350847E+0	1.305089E+0	1.370525E+0	1.336969E+0	1.342316E+0	1.331509E+0	1.341834E+0	1.291576E+0	1.297701E+0	1.315481E+0	1.370569E+0	1.286046E+0	1.330066E+0	1.290404E+0	1.368002E+0	1.294432E+0	1.283082E+0	1.310448E+0	1.323671E+0	1.348635E+0	1.316413E+0	1.325935E+0	1.326400E+0	1.310814E+0	1.271635E+0	1.239798E+0	1.354804E+0	1.345097E+0	1.297519E+0	1.312675E+0	1.307936E+0	1.330649E+0	1.208771E+0	1.306078E+0	1.307901E+0	1.270073E+0	1.260022E+0	1.322349E+0	1.356269E+0	1.325168E+0	1.262796E+0	1.293009E+0	1.302922E+0	1.329964E+0	1.346234E+0	1.287271E+0	1.383399E+0	1.302950E+0	1.289328E+0	1.329688E+0	1.290405E+0	1.374561E+0	1.305177E+0	1.338670E+0	1.277802E+0	1.341358E+0	1.277915E+0	1.289460E+0	1.290850E+0	1.291315E+0	1.295671E+0	1.300092E+0	1.266900E+0	1.336652E+0	1.300129E+0	1.278402E+0	1.286039E+0	1.268044E+0	1.332008E+0	1.324829E+0	1.328019E+0	1.309017E+0	1.271549E+0	1.325324E+0	1.309651E+0	1.306645E+0	1.350354E+0	1.368854E+0	1.307936E+0	1.280100E+0	1.260108E+0	1.268939E+0	1.264049E+0	1.337910E+0	1.289563E+0	1.269319E+0	1.343862E+0	1.327503E+0	1.357022E+0	1.263898E+0	1.290650E+0	1.345775E+0	1.312985E+0	1.298891E+0	1.343490E+0	1.308199E+0	1.275191E+0	1.312180E+0	1.292747E+0	1.304757E+0	1.343862E+0
5.387700E+2	1.500037E+0	1.557684E+0	1.534622E+0	1.504698E+0	1.575983E+0	1.521497E+0	1.538442E+0	1.552498E+0	1.523188E+0	1.489002E+0	1.442051E+0	1.497359E+0	1.511482E+0	1.592901E+0	1.516283E+0	1.531263E+0	1.594349E+0	1.477294E+0	1.497303E+0	1.552118E+0	1.502560E+0	1.546866E+0	1.545255E+0	1.527734E+0	1.555049E+0	1.539795E+0	1.574253E+0	1.480419E+0	1.498754E+0	1.547701E+0	1.550827E+0	1.482834E+0	1.497377E+0	1.509412E+0	1.474979E+0	1.568899E+0	1.498067E+0	1.503443E+0	1.535126E+0	1.519534E+0	1.570165E+0	1.513859E+0	1.520952E+0	1.527018E+0	1.533875E+0	1.490202E+0	1.538244E+0	1.496397E+0	1.509997E+0	1.538601E+0	1.555566E+0	1.522729E+0	1.507383E+0	1.492604E+0	1.432928E+0	1.565592E+0	1.547872E+0	1.496678E+0	1.520077E+0	1.520995E+0	1.541368E+0	1.494374E+0	1.477734E+0	1.495813E+0	1.573059E+0	1.497752E+0	1.533867E+0	1.521707E+0	1.489190E+0	1.516229E+0	1.516946E+0	1.570379E+0	1.523914E+0	1.464004E+0	1.465139E+0	1.506052E+0	1.491017E+0	1.482899E+0	1.510703E+0	1.581435E+0	1.546635E+0	1.439714E+0	1.538029E+0	1.588529E+0	1.478265E+0	1.521203E+0	1.480220E+0	1.585749E+0	1.407574E+0	1.495374E+0	1.489465E+0	1.571905E+0	1.487228E+0	1.472241E+0	1.508838E+0	1.492191E+0	1.515167E+0	1.464354E+0	1.461484E+0	1.559077E+0	1.570176E+0	1.483469E+0	1.533639E+0	1.483283E+0	1.439249E+0	1.507000E+0	1.541060E+0	1.511315E+0	1.573378E+0	1.463325E+0	1.532283E+0	1.510447E+0	1.502814E+0	1.466214E+0	1.528832E+0	1.549711E+0	1.493040E+0	1.462777E+0	1.523389E+0	1.491195E+0	1.510749E+0	1.493385E+0	1.547894E+0	1.513681E+0	1.493641E+0	1.497601E+0	1.473256E+0	1.522579E+0	1.497789E+0	1.557153E+0	1.521362E+0	1.547430E+0	1.529710E+0	1.514547E+0	1.508954E+0	1.487784E+0	1.528802E+0	1.484918E+0	1.486723E+0	1.513551E+0	1.511995E+0	1.457716E+0	1.547395E+0	1.522576E+0	1.505103E+0	1.414884E+0	1.488401E+0	1.498531E+0	1.481416E+0	1.515232E+0	1.507696E+0	1.522279E+0	1.528792E+0	1.446075E+0	1.476685E+0	1.528956E+0	1.509214E+0	1.562908E+0	1.445935E+0	1.541696E+0	1.531720E+0	1.510956E+0	1.535591E+0	1.466768E+0	1.496557E+0	1.453198E+0	1.522085E+0	1.513501E+0	1.590298E+0	1.390276E+0
5.390450E+2	1.742180E+0	1.778833E+0	1.808821E+0	1.772981E+0	1.841460E+0	1.786338E+0	1.826306E+0	1.829899E+0	1.784286E+0	1.817548E+0	1.793351E+0	1.803566E+0	1.804977E+0	1.835455E+0	1.789662E+0	1.787061E+0	1.877139E+0	1.721621E+0	1.793240E+0	1.765015E+0	1.810582E+0	1.765129E+0	1.817341E+0	1.868168E+0	1.759841E+0	1.783218E+0	1.814842E+0	1.851676E+0	1.856479E+0	1.765611E+0	1.767766E+0	1.790136E+0	1.826845E+0	1.772264E+0	1.732414E+0	1.869206E+0	1.832573E+0	1.770795E+0	1.811004E+0	1.778728E+0	1.849729E+0	1.794606E+0	1.817406E+0	1.830544E+0	1.755850E+0	1.864649E+0	1.759138E+0	1.853588E+0	1.788304E+0	1.767652E+0	1.740424E+0	1.816369E+0	1.760012E+0	1.725633E+0	1.727675E+0	1.832065E+0	1.762460E+0	1.701947E+0	1.755558E+0	1.762617E+0	1.781610E+0	1.777214E+0	1.784026E+0	1.768536E+0	1.755957E+0	1.760958E+0	1.765519E+0	1.798376E+0	1.740865E+0	1.743985E+0	1.752916E+0	1.798569E+0	1.792006E+0	1.745463E+0	1.789503E+0	1.750700E+0	1.765765E+0	1.642626E+0	1.766380E+0	1.796655E+0	1.719121E+0	1.769108E+0	1.791899E+0	1.843343E+0	1.737296E+0	1.731134E+0	1.780850E+0	1.789072E+0	1.798121E+0	1.754125E+0	1.775439E+0	1.802863E+0	1.767885E+0	1.772072E+0	1.710327E+0	1.772940E+0	1.781269E+0	1.798585E+0	1.748196E+0	1.730007E+0	1.727644E+0	1.783314E+0	1.802125E+0	1.735220E+0	1.791238E+0	1.758984E+0	1.673785E+0	1.807517E+0	1.824909E+0	1.727911E+0	1.764523E+0	1.795928E+0	1.785795E+0	1.795365E+0	1.809460E+0	1.824622E+0	1.737239E+0	1.780516E+0	1.729329E+0	1.751190E+0	1.806662E+0	1.720813E+0	1.746885E+0	1.755809E+0	1.759045E+0	1.719837E+0	1.795003E+0	1.753169E+0	1.675846E+0	1.790995E+0	1.754429E+0	1.794748E+0	1.690252E+0	1.760711E+0	1.711298E+0	1.779008E+0	1.717508E+0	1.685754E+0	1.742152E+0	1.764569E+0	1.744174E+0	1.714076E+0	1.788119E+0	1.740362E+0	1.741345E+0	1.709898E+0	1.754081E+0	1.748092E+0	1.770149E+0	1.681940E+0	1.716150E+0	1.766253E+0	1.754810E+0	1.726337E+0	1.724973E+0	1.716607E+0	1.796668E+0	1.767327E+0	1.747586E+0	1.724267E+0	1.767604E+0	1.694221E+0	1.746066E+0	1.726120E+0	1.778337E+0	1.679968E+0	1.721054E+0	1.683885E+0	1.772589E+0	1.826364E+0
5.392620E+2	1.989301E+0	1.995270E+0	1.998287E+0	1.906800E+0	2.001531E+0	1.971178E+0	1.961414E+0	2.056812E+0	1.972015E+0	1.899696E+0	1.907267E+0	1.953365E+0	2.006636E+0	2.011139E+0	1.986526E+0	1.993922E+0	1.994528E+0	1.951450E+0	2.023450E+0	1.995919E+0	2.005008E+0	1.964777E+0	2.044849E+0	2.001016E+0	1.961541E+0	1.953657E+0	2.043653E+0	1.998836E+0	1.954042E+0	1.966286E+0	1.966888E+0	2.056158E+0	2.034936E+0	1.931592E+0	1.977305E+0	2.026560E+0	1.966342E+0	1.975217E+0	1.993604E+0	1.955347E+0	2.030988E+0	1.989047E+0	1.989431E+0	2.009649E+0	1.905911E+0	1.920258E+0	1.978846E+0	1.978620E+0	2.004484E+0	1.961612E+0	1.982583E+0	2.064229E+0	1.945623E+0	1.912427E+0	1.953991E+0	2.057956E+0	2.002188E+0	1.954701E+0	1.977039E+0	1.984830E+0	2.033802E+0	1.896376E+0	1.971644E+0	1.931047E+0	2.015637E+0	1.926027E+0	1.890346E+0	2.031153E+0	1.910195E+0	2.005319E+0	1.872022E+0	2.013734E+0	1.894920E+0	1.993202E+0	1.906144E+0	1.931570E+0	1.972020E+0	1.967325E+0	1.978113E+0	2.012551E+0	1.964675E+0	1.931202E+0	1.968292E+0	2.034882E+0	2.035731E+0	1.922480E+0	1.905304E+0	2.005317E+0	1.939754E+0	1.973764E+0	2.002092E+0	2.012949E+0	1.963860E+0	1.905336E+0	1.931012E+0	1.941472E+0	2.002914E+0	1.914167E+0	1.908229E+0	1.984428E+0	1.981622E+0	1.907195E+0	1.946345E+0	1.980326E+0	2.023840E+0	1.947349E+0	1.908561E+0	1.977658E+0	1.918351E+0	1.929657E+0	1.894018E+0	1.925823E+0	1.953451E+0	1.973210E+0	2.011405E+0	1.970835E+0	1.912748E+0	1.870154E+0	1.970165E+0	1.909823E+0	1.882833E+0	1.994860E+0	1.959663E+0	1.957115E+0	1.939479E+0	1.914483E+0	1.984499E+0	1.900468E+0	1.930597E+0	1.929374E+0	1.925424E+0	1.917315E+0	1.915234E+0	1.913280E+0	1.838041E+0	1.898111E+0	1.946840E+0	1.920631E+0	1.974315E+0	1.909766E+0	1.959071E+0	1.908088E+0	2.000778E+0	1.919589E+0	1.957899E+0	1.866476E+0	1.960422E+0	1.954857E+0	1.862781E+0	1.913353E+0	1.855566E+0	1.916365E+0	1.948157E+0	1.887268E+0	1.843888E+0	1.959133E+0	1.942366E+0	1.999246E+0	1.893009E+0	1.934136E+0	1.915506E+0	1.898220E+0	1.834691E+0	1.887597E+0	1.905956E+0	1.867075E+0	1.925615E+0	1.964753E+0	2.007670E+0	1.973908E+0
5.395370E+2	2.207096E+0	2.214978E+0	2.187869E+0	2.213533E+0	2.246053E+0	2.176564E+0	2.177121E+0	2.246776E+0	2.149475E+0	2.197529E+0	2.186173E+0	2.221902E+0	2.188209E+0	2.190245E+0	2.213077E+0	2.199124E+0	2.195458E+0	2.162442E+0	2.213275E+0	2.224209E+0	2.144508E+0	2.182773E+0	2.207915E+0	2.210949E+0	2.134599E+0	2.170744E+0	2.180938E+0	2.223266E+0	2.151310E+0	2.155166E+0	2.270902E+0	2.172598E+0	2.235136E+0	2.123219E+0	2.161688E+0	2.222393E+0	2.193362E+0	2.171266E+0	2.153746E+0	2.176408E+0	2.127364E+0	2.222565E+0	2.116749E+0	2.212790E+0	2.160065E+0	2.205609E+0	2.167499E+0	2.180192E+0	2.128696E+0	2.203403E+0	2.143357E+0	2.191718E+0	2.204628E+0	2.144788E+0	2.139726E+0	2.224588E+0	2.200864E+0	2.141037E+0	2.073341E+0	2.217197E+0	2.230292E+0	2.118103E+0	2.118408E+0	2.183019E+0	2.244930E+0	2.127023E+0	2.097643E+0	2.155357E+0	2.043508E+0	2.198453E+0	2.146533E+0	2.227138E+0	2.151933E+0	2.114481E+0	2.104420E+0	2.206544E+0	2.112742E+0	2.121072E+0	2.092867E+0	2.212085E+0	2.070840E+0	2.131377E+0	2.211623E+0	2.210013E+0	2.063363E+0	2.064556E+0	2.087442E+0	2.181081E+0	2.184255E+0	2.190366E+0	2.121203E+0	2.250968E+0	2.176115E+0	2.077992E+0	2.177734E+0	2.111473E+0	2.161185E+0	2.201157E+0	2.109748E+0	2.222470E+0	2.227291E+0	2.063234E+0	2.160674E+0	2.181268E+0	2.144341E+0	2.183253E+0	2.087714E+0	2.203609E+0	2.149617E+0	2.116635E+0	2.097656E+0	2.097489E+0	2.148975E+0	2.092631E+0	2.155759E+0	2.181316E+0	2.172415E+0	2.141533E+0	2.105908E+0	2.175400E+0	2.156159E+0	2.048455E+0	2.121545E+0	2.151153E+0	2.145922E+0	2.102961E+0	2.128902E+0	2.133192E+0	2.201081E+0	2.089787E+0	2.145368E+0	2.107475E+0	2.075529E+0	2.060660E+0	2.067431E+0	2.225935E+0	2.120992E+0	2.028947E+0	2.127909E+0	2.124576E+0	2.154118E+0	2.041373E+0	2.178595E+0	2.164834E+0	2.145868E+0	2.117891E+0	2.121380E+0	2.109531E+0	2.122372E+0	2.030211E+0	2.119022E+0	2.102521E+0	2.189365E+0	2.084709E+0	2.040115E+0	2.105729E+0	2.124732E+0	2.207797E+0	2.119069E+0	2.147645E+0	2.100748E+0	2.089893E+0	2.160989E+0	2.120193E+0	2.098653E+0	2.108188E+0	2.131024E+0	2.106855E+0	2.115929E+0	2.063518E+0
5.397860E+2	2.233313E+0	2.235340E+0	2.232100E+0	2.145113E+0	2.210831E+0	2.193454E+0	2.251904E+0	2.257921E+0	2.219707E+0	2.212083E+0	2.170081E+0	2.166024E+0	2.239143E+0	2.253374E+0	2.192454E+0	2.177482E+0	2.196676E+0	2.241006E+0	2.186786E+0	2.258870E+0	2.193818E+0	2.153052E+0	2.202415E+0	2.232654E+0	2.151685E+0	2.170313E+0	2.149139E+0	2.200694E+0	2.183636E+0	2.249966E+0	2.087197E+0	2.153066E+0	2.152340E+0	2.130244E+0	2.176040E+0	2.209643E+0	2.164775E+0	2.174444E+0	2.125870E+0	2.192072E+0	2.222547E+0	2.075131E+0	2.116188E+0	2.227666E+0	2.109621E+0	2.156120E+0	2.191972E+0	2.174577E+0	2.134003E+0	2.162650E+0	2.194762E+0	2.224482E+0	2.181378E+0	2.073743E+0	2.096374E+0	2.249821E+0	2.156615E+0	2.127455E+0	2.185829E+0	2.202351E+0	2.225942E+0	2.122441E+0	2.166462E+0	2.143669E+0	2.136451E+0	2.102672E+0	2.091846E+0	2.129556E+0	2.078066E+0	2.183773E+0	2.146045E+0	2.192039E+0	2.169537E+0	2.142609E+0	2.118255E+0	2.253368E+0	2.115631E+0	2.079189E+0	2.149927E+0	2.154890E+0	2.145855E+0	2.185071E+0	2.193107E+0	2.201411E+0	2.087284E+0	2.050558E+0	2.151421E+0	2.184065E+0	2.212207E+0	2.195135E+0	2.137600E+0	2.206716E+0	2.143147E+0	2.120001E+0	2.117564E+0	2.197892E+0	2.182209E+0	2.113777E+0	2.072380E+0	2.171481E+0	2.128238E+0	2.065285E+0	2.154306E+0	2.217538E+0	2.118236E+0	2.139662E+0	2.114607E+0	2.153088E+0	2.108561E+0	2.085595E+0	2.108772E+0	2.089669E+0	2.124055E+0	2.056902E+0	2.176147E+0	2.194454E+0	2.119444E+0	2.112803E+0	2.154475E+0	2.123325E+0	2.085755E+0	2.037422E+0	2.128200E+0	2.150235E+0	2.180655E+0	2.049479E+0	2.192488E+0	2.048388E+0	2.194391E+0	2.090335E+0	2.103143E+0	2.101564E+0	2.052414E+0	2.088005E+0	2.085416E+0	2.194381E+0	2.105537E+0	2.143008E+0	2.109815E+0	2.087471E+0	2.173191E+0	2.086186E+0	2.174566E+0	2.135531E+0	2.088659E+0	2.103620E+0	2.088430E+0	2.146673E+0	2.131175E+0	2.067789E+0	2.073384E+0	2.081884E+0	2.159836E+0	2.089006E+0	2.180520E+0	2.109017E+0	2.059061E+0	2.191844E+0	2.094320E+0	2.078205E+0	2.096371E+0	2.141729E+0	2.100527E+0	2.138450E+0	2.056927E+0	2.074274E+0	2.108246E+0	2.138219E+0	2.161870E+0	2.036275E+0
5.400240E+2	2.099210E+0	2.066934E+0	2.084737E+0	2.079098E+0	2.187237E+0	2.091704E+0	2.117267E+0	2.139089E+0	2.062010E+0	2.099835E+0	2.115951E+0	2.130814E+0	2.048284E+0	2.096407E+0	2.094871E+0	2.059198E+0	2.128175E+0	2.108762E+0	2.189654E+0	2.079968E+0	2.148977E+0	2.082206E+0	2.105886E+0	2.085321E+0	2.093401E+0	2.147054E+0	2.147304E+0	2.107345E+0	2.076563E+0	1.992501E+0	2.117861E+0	2.086303E+0	2.019415E+0	2.077641E+0	2.081447E+0	2.125087E+0	2.102495E+0	1.993167E+0	2.060850E+0	2.097047E+0	2.106179E+0	2.071239E+0	2.007000E+0	2.033173E+0	2.082919E+0	2.093460E+0	2.210629E+0	2.005669E+0	2.041702E+0	2.016232E+0	2.059747E+0	2.078841E+0	2.095313E+0	2.031696E+0	2.041946E+0	2.102528E+0	1.957414E+0	2.051705E+0	2.029094E+0	2.149057E+0	2.075135E+0	2.068686E+0	2.092492E+0	2.028649E+0	2.054699E+0	2.133331E+0	1.955879E+0	2.034925E+0	2.000424E+0	2.062327E+0	2.075923E+0	2.044756E+0	2.066968E+0	2.004246E+0	2.045322E+0	2.049986E+0	2.001473E+0	2.030839E+0	2.035325E+0	2.068337E+0	2.076934E+0	2.021491E+0	2.080683E+0	2.057765E+0	2.051903E+0	1.979503E+0	2.022001E+0	2.109423E+0	2.070683E+0	2.132650E+0	2.093960E+0	2.058254E+0	2.084327E+0	2.023732E+0	2.048877E+0	2.099879E+0	2.120162E+0	2.047450E+0	1.958000E+0	2.092267E+0	2.155631E+0	2.025234E+0	2.025902E+0	2.010562E+0	2.004958E+0	2.067611E+0	2.010790E+0	2.115855E+0	2.053425E+0	2.029218E+0	2.050305E+0	2.075216E+0	2.016764E+0	2.069218E+0	2.008423E+0	2.077341E+0	2.052444E+0	1.980755E+0	2.025388E+0	2.042576E+0	2.055871E+0	2.017314E+0	2.031499E+0	2.014092E+0	2.020430E+0	2.043372E+0	2.044640E+0	1.992058E+0	2.076046E+0	2.014685E+0	2.095969E+0	2.039532E+0	2.037591E+0	2.001860E+0	1.962666E+0	2.079740E+0	2.016496E+0	2.039433E+0	2.006774E+0	2.026954E+0	2.017881E+0	2.032543E+0	2.140007E+0	2.052222E+0	1.986486E+0	2.014602E+0	2.061242E+0	2.040816E+0	2.001842E+0	1.972601E+0	1.958723E+0	2.059459E+0	1.979168E+0	1.988328E+0	2.099561E+0	2.013278E+0	2.028918E+0	2.067250E+0	2.020152E+0	2.016944E+0	2.024113E+0	1.991677E+0	1.974100E+0	2.031293E+0	2.090812E+0	1.914639E+0	1.996100E+0	2.053165E+0	2.080780E+0	1.991684E+0
5.402740E+2	2.061944E+0	2.004159E+0	1.994693E+0	1.994115E+0	2.099223E+0	2.035340E+0	1.981179E+0	2.032626E+0	2.033771E+0	2.006890E+0	1.950087E+0	2.009659E+0	1.982191E+0	1.982737E+0	2.020671E+0	2.049516E+0	2.055971E+0	1.979881E+0	1.984769E+0	2.005285E+0	1.991942E+0	1.969515E+0	2.035365E+0	2.007638E+0	1.987816E+0	1.930001E+0	2.015157E+0	1.994556E+0	2.100817E+0	2.008554E+0	2.033884E+0	1.977404E+0	1.969776E+0	1.934595E+0	2.019170E+0	2.016858E+0	2.015395E+0	1.979613E+0	1.997294E+0	1.934094E+0	2.064463E+0	1.991008E+0	1.936971E+0	1.988842E+0	1.970993E+0	2.006873E+0	1.978551E+0	1.995872E+0	2.002927E+0	2.003392E+0	1.923851E+0	2.001735E+0	1.942640E+0	1.951036E+0	1.918864E+0	1.955102E+0	1.999027E+0	1.995321E+0	2.048728E+0	2.075319E+0	1.939064E+0	2.001927E+0	1.953535E+0	1.968944E+0	1.979890E+0	2.001108E+0	1.916367E+0	2.026686E+0	1.944992E+0	1.981372E+0	2.004946E+0	2.000951E+0	1.981445E+0	2.037851E+0	1.939789E+0	1.957212E+0	2.008590E+0	1.995235E+0	2.012763E+0	1.928303E+0	1.950791E+0	1.968595E+0	1.985507E+0	1.997984E+0	1.945639E+0	1.939031E+0	1.930393E+0	1.987803E+0	2.055071E+0	1.929185E+0	1.984124E+0	1.989323E+0	1.974350E+0	1.968430E+0	2.005246E+0	2.022083E+0	1.992097E+0	1.995093E+0	1.960046E+0	2.049728E+0	2.004047E+0	1.957942E+0	1.924104E+0	1.948605E+0	1.930561E+0	1.963986E+0	1.936421E+0	1.954862E+0	1.988553E+0	1.960278E+0	1.936223E+0	1.954726E+0	1.952430E+0	1.989127E+0	1.946371E+0	1.967639E+0	1.945614E+0	1.964405E+0	2.004526E+0	1.971757E+0	2.006456E+0	1.929178E+0	1.992590E+0	2.001516E+0	2.006734E+0	1.939302E+0	1.974469E+0	1.924398E+0	1.900960E+0	1.979505E+0	1.917722E+0	1.973551E+0	1.936625E+0	1.934570E+0	1.907937E+0	2.044884E+0	2.040907E+0	1.881794E+0	1.901264E+0	1.953759E+0	1.865671E+0	1.963028E+0	1.977154E+0	1.887422E+0	1.915678E+0	1.880662E+0	1.934283E+0	1.959593E+0	1.948100E+0	1.889599E+0	1.857867E+0	1.954222E+0	1.939497E+0	1.903977E+0	1.959436E+0	1.986977E+0	1.962247E+0	2.040647E+0	1.892982E+0	1.979340E+0	1.962152E+0	1.945428E+0	1.888390E+0	1.962870E+0	1.909732E+0	1.914428E+0	1.945212E+0	1.928327E+0	2.003637E+0	1.887169E+0
5.405080E+2	1.943704E+0	1.961778E+0	1.973091E+0	1.943074E+0	1.995971E+0	1.941854E+0	1.944082E+0	1.970039E+0	1.939230E+0	1.930034E+0	1.939221E+0	1.878623E+0	1.909508E+0	1.949968E+0	1.918452E+0	1.996405E+0	1.952826E+0	1.876579E+0	1.939580E+0	1.966914E+0	1.941122E+0	1.862650E+0	1.873066E+0	1.926394E+0	1.874396E+0	1.924726E+0	1.992196E+0	1.949355E+0	1.895557E+0	1.929628E+0	1.934702E+0	1.941553E+0	1.873453E+0	1.951653E+0	1.925455E+0	1.946599E+0	1.980687E+0	1.895444E+0	1.962841E+0	1.908868E+0	1.957629E+0	1.973305E+0	1.876060E+0	1.986501E+0	1.947161E+0	1.930085E+0	1.940453E+0	1.921440E+0	1.937064E+0	1.958136E+0	1.920224E+0	1.899965E+0	1.900794E+0	1.939283E+0	1.856235E+0	1.957942E+0	1.945023E+0	1.874009E+0	1.957814E+0	1.896182E+0	1.936916E+0	1.979667E+0	1.923355E+0	1.883707E+0	2.014275E+0	1.975457E+0	1.905343E+0	1.902047E+0	1.858424E+0	1.909010E+0	1.946836E+0	1.954888E+0	1.982694E+0	1.880943E+0	1.920394E+0	1.898828E+0	1.911795E+0	1.932303E+0	1.884580E+0	1.962997E+0	1.911936E+0	1.892663E+0	1.923056E+0	1.950273E+0	1.886784E+0	1.926635E+0	1.899402E+0	1.903470E+0	1.931679E+0	1.884420E+0	1.901385E+0	1.942109E+0	1.968559E+0	1.959672E+0	1.895503E+0	1.906880E+0	1.907074E+0	1.945601E+0	1.883600E+0	1.933447E+0	1.978233E+0	1.890397E+0	1.885134E+0	1.892049E+0	1.882882E+0	1.907089E+0	1.871993E+0	1.916694E+0	1.910014E+0	1.878092E+0	1.892302E+0	1.918201E+0	1.986680E+0	1.892258E+0	1.923205E+0	1.911270E+0	1.898646E+0	1.862237E+0	1.958357E+0	1.875738E+0	1.895765E+0	1.899904E+0	1.915342E+0	1.847030E+0	1.975880E+0	1.953786E+0	1.935566E+0	1.884516E+0	1.868359E+0	1.895980E+0	1.919638E+0	1.936286E+0	1.827278E+0	1.853172E+0	1.869852E+0	1.940620E+0	1.919021E+0	1.920963E+0	1.867124E+0	1.961049E+0	1.869429E+0	1.879022E+0	1.929711E+0	1.895004E+0	1.894496E+0	1.811878E+0	1.876147E+0	1.912242E+0	1.902401E+0	1.828035E+0	1.875359E+0	1.882477E+0	1.975109E+0	1.877845E+0	1.868647E+0	1.856009E+0	1.949625E+0	1.936582E+0	1.896633E+0	1.965890E+0	1.828802E+0	1.895525E+0	1.870795E+0	1.896311E+0	1.911485E+0	1.852403E+0	1.925198E+0	1.871101E+0	1.890962E+0	1.857144E+0
5.407630E+2	1.969657E+0	1.899502E+0	1.918584E+0	1.855171E+0	1.947764E+0	1.875320E+0	1.937722E+0	1.907802E+0	1.923451E+0	1.923608E+0	1.886048E+0	1.822950E+0	1.873405E+0	1.963008E+0	1.952565E+0	1.884896E+0	1.969858E+0	1.935966E+0	1.927400E+0	1.897342E+0	1.931319E+0	1.870533E+0	1.878062E+0	1.897624E+0	1.828559E+0	1.900450E+0	1.871584E+0	1.816571E+0	1.865679E+0	1.909771E+0	1.889238E+0	1.880755E+0	1.942963E+0	1.883443E+0	1.854605E+0	1.904443E+0	1.923603E+0	1.802076E+0	1.869211E+0	1.834304E+0	1.932814E+0	1.884009E+0	1.927299E+0	1.921608E+0	1.883708E+0	1.884383E+0	1.946204E+0	1.904858E+0	1.911375E+0	1.906602E+0	1.882953E+0	1.926113E+0	1.917867E+0	1.806769E+0	1.828247E+0	1.917801E+0	1.863210E+0	1.833079E+0	1.856950E+0	1.930538E+0	1.895581E+0	1.832942E+0	1.829949E+0	1.899044E+0	1.907476E+0	1.883709E+0	1.834364E+0	1.940158E+0	1.798095E+0	1.786910E+0	1.877700E+0	1.841785E+0	1.930233E+0	1.855723E+0	1.883940E+0	1.839018E+0	1.812790E+0	1.804019E+0	1.858226E+0	1.906141E+0	1.918255E+0	1.845480E+0	1.913376E+0	1.858620E+0	1.810426E+0	1.825938E+0	1.832380E+0	1.885555E+0	1.890149E+0	1.859194E+0	1.901803E+0	1.890586E+0	1.881233E+0	1.897510E+0	1.902873E+0	1.912771E+0	1.893420E+0	1.834916E+0	1.849481E+0	1.841996E+0	1.955406E+0	1.820417E+0	1.858810E+0	1.795880E+0	1.874205E+0	1.865382E+0	1.810290E+0	1.956411E+0	1.833268E+0	1.830906E+0	1.906708E+0	1.876066E+0	1.824590E+0	1.883908E+0	1.888858E+0	1.838181E+0	1.863308E+0	1.835292E+0	1.838044E+0	1.826398E+0	1.813664E+0	1.861921E+0	1.841819E+0	1.824951E+0	1.864904E+0	1.877947E+0	1.837609E+0	1.822194E+0	1.889657E+0	1.889029E+0	1.887401E+0	1.844966E+0	1.855512E+0	1.839788E+0	1.824282E+0	1.942815E+0	1.785372E+0	1.849602E+0	1.830873E+0	1.843805E+0	1.853485E+0	1.816104E+0	1.936359E+0	1.857942E+0	1.891948E+0	1.773657E+0	1.822310E+0	1.830859E+0	1.849174E+0	1.876213E+0	1.843442E+0	1.772650E+0	1.873335E+0	1.821815E+0	1.822799E+0	1.859390E+0	1.872594E+0	1.857417E+0	1.802369E+0	1.892062E+0	1.867659E+0	1.861574E+0	1.800133E+0	1.870869E+0	1.833408E+0	1.795241E+0	1.793292E+0	1.859301E+0	1.825477E+0	1.717920E+0
5.410190E+2	1.801270E+0	1.872041E+0	1.835605E+0	1.777833E+0	1.828814E+0	1.873553E+0	1.818884E+0	1.814641E+0	1.773512E+0	1.757118E+0	1.766655E+0	1.803944E+0	1.795921E+0	1.865399E+0	1.801864E+0	1.833152E+0	1.810341E+0	1.780070E+0	1.801086E+0	1.818692E+0	1.869758E+0	1.799131E+0	1.835137E+0	1.767901E+0	1.722738E+0	1.853791E+0	1.822348E+0	1.835405E+0	1.799322E+0	1.839226E+0	1.829488E+0	1.739936E+0	1.851063E+0	1.790443E+0	1.720690E+0	1.860880E+0	1.838261E+0	1.805501E+0	1.794799E+0	1.733831E+0	1.831941E+0	1.807388E+0	1.803508E+0	1.853712E+0	1.819075E+0	1.863660E+0	1.824596E+0	1.753856E+0	1.802139E+0	1.800211E+0	1.826075E+0	1.772809E+0	1.805248E+0	1.735721E+0	1.757147E+0	1.799601E+0	1.753484E+0	1.762144E+0	1.761343E+0	1.783491E+0	1.846708E+0	1.793569E+0	1.764351E+0	1.822864E+0	1.739872E+0	1.770647E+0	1.755473E+0	1.686001E+0	1.751162E+0	1.849622E+0	1.700180E+0	1.799602E+0	1.827698E+0	1.750669E+0	1.762184E+0	1.857010E+0	1.771465E+0	1.741344E+0	1.757442E+0	1.800395E+0	1.754729E+0	1.747552E+0	1.779555E+0	1.794552E+0	1.778224E+0	1.778768E+0	1.802221E+0	1.755479E+0	1.783379E+0	1.738208E+0	1.804624E+0	1.822379E+0	1.824221E+0	1.801250E+0	1.758357E+0	1.764907E+0	1.866511E+0	1.759621E+0	1.736822E+0	1.770759E+0	1.835325E+0	1.762952E+0	1.824185E+0	1.781345E+0	1.776907E+0	1.777431E+0	1.735024E+0	1.773232E+0	1.742745E+0	1.769104E+0	1.777175E+0	1.792683E+0	1.763083E+0	1.755156E+0	1.802765E+0	1.758302E+0	1.787369E+0	1.755506E+0	1.827908E+0	1.694272E+0	1.841865E+0	1.731430E+0	1.813955E+0	1.737748E+0	1.707926E+0	1.754285E+0	1.786464E+0	1.712193E+0	1.749166E+0	1.738369E+0	1.776999E+0	1.725722E+0	1.777905E+0	1.740475E+0	1.710318E+0	1.778724E+0	1.743441E+0	1.708806E+0	1.779201E+0	1.766596E+0	1.792805E+0	1.800695E+0	1.761508E+0	1.785737E+0	1.767238E+0	1.715558E+0	1.792971E+0	1.761074E+0	1.794802E+0	1.809173E+0	1.751157E+0	1.710003E+0	1.866067E+0	1.723677E+0	1.794707E+0	1.748295E+0	1.784407E+0	1.814347E+0	1.671335E+0	1.812586E+0	1.767116E+0	1.767354E+0	1.736626E+0	1.708922E+0	1.772890E+0	1.762844E+0	1.662620E+0	1.763577E+0	1.741972E+0	1.661009E+0
5.412690E+2	1.687219E+0	1.657737E+0	1.658469E+0	1.607609E+0	1.657200E+0	1.623217E+0	1.667315E+0	1.658042E+0	1.612137E+0	1.625988E+0	1.622402E+0	1.644477E+0	1.607455E+0	1.681459E+0	1.654928E+0	1.676756E+0	1.647369E+0	1.708043E+0	1.628319E+0	1.633480E+0	1.694407E+0	1.645237E+0	1.660629E+0	1.643567E+0	1.617843E+0	1.638625E+0	1.719827E+0	1.652409E+0	1.627087E+0	1.573342E+0	1.597059E+0	1.627145E+0	1.615785E+0	1.655732E+0	1.636345E+0	1.632561E+0	1.619641E+0	1.651878E+0	1.662457E+0	1.607534E+0	1.686570E+0	1.667018E+0	1.645562E+0	1.650675E+0	1.653779E+0	1.656409E+0	1.607145E+0	1.626965E+0	1.645595E+0	1.657126E+0	1.617443E+0	1.666257E+0	1.725934E+0	1.612284E+0	1.629776E+0	1.643376E+0	1.621637E+0	1.649269E+0	1.645324E+0	1.680012E+0	1.634758E+0	1.645461E+0	1.685472E+0	1.650451E+0	1.691680E+0	1.653517E+0	1.610780E+0	1.571428E+0	1.595829E+0	1.622674E+0	1.618173E+0	1.643115E+0	1.622969E+0	1.651056E+0	1.661924E+0	1.710322E+0	1.607467E+0	1.603420E+0	1.615304E+0	1.611145E+0	1.623988E+0	1.649094E+0	1.621124E+0	1.651324E+0	1.574950E+0	1.601669E+0	1.588517E+0	1.607141E+0	1.652928E+0	1.670017E+0	1.614837E+0	1.652033E+0	1.658119E+0	1.613144E+0	1.628437E+0	1.651674E+0	1.644584E+0	1.694969E+0	1.579770E+0	1.631142E+0	1.638743E+0	1.571871E+0	1.596184E+0	1.624494E+0	1.588410E+0	1.668882E+0	1.583334E+0	1.625216E+0	1.603289E+0	1.622848E+0	1.610517E+0	1.614071E+0	1.601673E+0	1.612975E+0	1.638734E+0	1.613088E+0	1.657790E+0	1.620651E+0	1.624416E+0	1.579131E+0	1.664780E+0	1.595813E+0	1.697908E+0	1.634230E+0	1.664488E+0	1.600815E+0	1.664739E+0	1.634871E+0	1.585735E+0	1.608229E+0	1.603675E+0	1.641028E+0	1.612233E+0	1.571023E+0	1.571552E+0	1.636909E+0	1.655046E+0	1.626386E+0	1.638438E+0	1.626203E+0	1.607931E+0	1.658966E+0	1.645057E+0	1.665245E+0	1.604435E+0	1.610628E+0	1.582005E+0	1.545488E+0	1.643146E+0	1.586227E+0	1.597997E+0	1.562011E+0	1.667418E+0	1.646537E+0	1.619336E+0	1.615835E+0	1.587920E+0	1.670250E+0	1.554999E+0	1.597141E+0	1.574994E+0	1.641871E+0	1.592901E+0	1.599090E+0	1.610991E+0	1.552580E+0	1.599111E+0	1.685169E+0	1.631723E+0	1.608687E+0
5.415140E+2	1.492390E+0	1.518624E+0	1.507416E+0	1.532504E+0	1.509309E+0	1.507236E+0	1.486949E+0	1.514786E+0	1.505577E+0	1.449289E+0	1.463318E+0	1.516396E+0	1.489572E+0	1.535341E+0	1.515536E+0	1.524039E+0	1.531915E+0	1.480514E+0	1.516183E+0	1.451405E+0	1.499816E+0	1.472032E+0	1.509683E+0	1.516482E+0	1.506126E+0	1.508049E+0	1.465242E+0	1.468979E+0	1.460109E+0	1.516927E+0	1.493774E+0	1.458409E+0	1.524349E+0	1.527433E+0	1.492031E+0	1.530686E+0	1.490774E+0	1.491741E+0	1.487706E+0	1.459593E+0	1.565177E+0	1.458381E+0	1.459117E+0	1.517382E+0	1.512831E+0	1.512234E+0	1.541640E+0	1.473847E+0	1.531278E+0	1.511467E+0	1.463980E+0	1.453975E+0	1.519951E+0	1.445596E+0	1.492358E+0	1.493386E+0	1.598084E+0	1.469999E+0	1.411459E+0	1.547143E+0	1.547224E+0	1.441510E+0	1.442378E+0	1.510174E+0	1.528519E+0	1.454980E+0	1.435938E+0	1.494903E+0	1.493828E+0	1.511180E+0	1.482953E+0	1.504552E+0	1.504526E+0	1.458949E+0	1.522920E+0	1.528565E+0	1.487205E+0	1.471516E+0	1.487810E+0	1.510373E+0	1.462486E+0	1.463999E+0	1.518265E+0	1.500367E+0	1.440403E+0	1.493282E+0	1.449836E+0	1.446878E+0	1.546580E+0	1.500837E+0	1.407187E+0	1.490158E+0	1.457104E+0	1.510380E+0	1.494647E+0	1.526082E+0	1.475850E+0	1.475327E+0	1.438541E+0	1.467796E+0	1.524231E+0	1.439783E+0	1.508433E+0	1.490819E+0	1.477945E+0	1.469307E+0	1.462579E+0	1.471988E+0	1.485667E+0	1.472394E+0	1.446759E+0	1.519490E+0	1.490561E+0	1.489228E+0	1.523000E+0	1.467743E+0	1.500385E+0	1.459189E+0	1.515626E+0	1.433390E+0	1.540749E+0	1.423899E+0	1.501552E+0	1.469019E+0	1.502364E+0	1.487371E+0	1.547279E+0	1.451664E+0	1.470517E+0	1.497368E+0	1.468332E+0	1.460576E+0	1.441381E+0	1.423511E+0	1.394305E+0	1.486427E+0	1.431845E+0	1.506898E+0	1.525974E+0	1.438072E+0	1.480861E+0	1.440680E+0	1.510044E+0	1.495692E+0	1.506556E+0	1.493071E+0	1.469515E+0	1.446469E+0	1.499455E+0	1.419882E+0	1.476426E+0	1.416855E+0	1.488496E+0	1.470671E+0	1.496533E+0	1.473321E+0	1.448789E+0	1.535210E+0	1.460691E+0	1.487729E+0	1.441316E+0	1.481545E+0	1.483584E+0	1.398805E+0	1.428700E+0	1.478564E+0	1.446066E+0	1.466661E+0	1.532748E+0	1.337747E+0
5.417920E+2	1.386233E+0	1.310923E+0	1.287785E+0	1.273601E+0	1.367366E+0	1.292504E+0	1.279135E+0	1.272535E+0	1.331527E+0	1.253841E+0	1.328628E+0	1.290367E+0	1.260057E+0	1.334979E+0	1.289479E+0	1.259087E+0	1.290536E+0	1.270160E+0	1.307735E+0	1.326702E+0	1.285943E+0	1.315107E+0	1.335622E+0	1.306141E+0	1.261084E+0	1.351817E+0	1.302154E+0	1.316964E+0	1.300331E+0	1.288771E+0	1.296290E+0	1.302482E+0	1.297007E+0	1.355883E+0	1.268833E+0	1.315370E+0	1.324554E+0	1.265936E+0	1.291211E+0	1.292498E+0	1.344013E+0	1.356365E+0	1.347037E+0	1.351914E+0	1.296873E+0	1.362141E+0	1.356472E+0	1.277571E+0	1.308925E+0	1.277381E+0	1.263448E+0	1.313193E+0	1.294979E+0	1.261355E+0	1.255379E+0	1.291087E+0	1.337019E+0	1.299139E+0	1.321375E+0	1.315885E+0	1.261194E+0	1.278128E+0	1.325000E+0	1.294236E+0	1.346653E+0	1.350710E+0	1.269571E+0	1.310863E+0	1.288003E+0	1.338052E+0	1.249034E+0	1.303813E+0	1.329272E+0	1.303942E+0	1.300621E+0	1.350526E+0	1.301947E+0	1.287761E+0	1.265248E+0	1.316468E+0	1.250450E+0	1.251699E+0	1.298897E+0	1.312712E+0	1.287872E+0	1.264897E+0	1.258400E+0	1.279370E+0	1.322842E+0	1.241230E+0	1.320661E+0	1.300510E+0	1.307718E+0	1.346701E+0	1.302172E+0	1.318983E+0	1.296495E+0	1.365062E+0	1.225816E+0	1.287008E+0	1.313836E+0	1.330145E+0	1.298067E+0	1.287569E+0	1.307920E+0	1.322730E+0	1.297740E+0	1.335308E+0	1.338254E+0	1.300241E+0	1.377005E+0	1.314833E+0	1.311408E+0	1.293802E+0	1.321143E+0	1.290810E+0	1.315139E+0	1.302938E+0	1.265250E+0	1.290531E+0	1.295797E+0	1.286980E+0	1.302850E+0	1.300507E+0	1.301455E+0	1.256396E+0	1.326953E+0	1.286955E+0	1.291593E+0	1.328006E+0	1.238345E+0	1.288700E+0	1.306194E+0	1.257786E+0	1.313914E+0	1.317142E+0	1.293897E+0	1.238278E+0	1.307949E+0	1.254838E+0	1.326723E+0	1.328354E+0	1.337069E+0	1.311917E+0	1.287429E+0	1.253941E+0	1.353620E+0	1.303583E+0	1.234976E+0	1.269701E+0	1.274302E+0	1.272887E+0	1.378863E+0	1.289918E+0	1.319814E+0	1.300698E+0	1.319610E+0	1.309962E+0	1.280951E+0	1.289019E+0	1.303022E+0	1.328270E+0	1.288857E+0	1.242512E+0	1.310245E+0	1.293945E+0	1.288292E+0	1.308844E+0	1.347107E+0	1.157259E+0
5.420110E+2	1.181685E+0	1.209259E+0	1.220965E+0	1.115458E+0	1.203162E+0	1.161635E+0	1.194765E+0	1.191053E+0	1.204965E+0	1.117350E+0	1.212548E+0	1.178114E+0	1.153118E+0	1.229475E+0	1.157187E+0	1.177183E+0	1.144220E+0	1.192153E+0	1.165576E+0	1.118786E+0	1.175168E+0	1.155980E+0	1.171465E+0	1.155001E+0	1.115678E+0	1.200029E+0	1.212400E+0	1.117118E+0	1.180467E+0	1.156437E+0	1.176574E+0	1.216987E+0	1.149855E+0	1.203787E+0	1.195222E+0	1.196075E+0	1.173026E+0	1.152869E+0	1.140057E+0	1.133666E+0	1.191290E+0	1.207279E+0	1.182765E+0	1.170342E+0	1.178185E+0	1.196345E+0	1.178180E+0	1.156232E+0	1.175395E+0	1.198281E+0	1.151168E+0	1.169181E+0	1.144533E+0	1.154109E+0	1.150190E+0	1.202552E+0	1.199060E+0	1.108553E+0	1.196875E+0	1.183703E+0	1.190045E+0	1.200810E+0	1.172122E+0	1.174790E+0	1.157218E+0	1.217548E+0	1.158590E+0	1.158421E+0	1.185135E+0	1.169462E+0	1.175819E+0	1.191042E+0	1.210175E+0	1.187140E+0	1.186435E+0	1.176012E+0	1.203353E+0	1.160017E+0	1.207221E+0	1.207452E+0	1.154722E+0	1.179364E+0	1.164081E+0	1.135537E+0	1.135220E+0	1.153548E+0	1.114260E+0	1.131508E+0	1.172913E+0	1.183103E+0	1.172047E+0	1.232119E+0	1.189174E+0	1.192015E+0	1.221072E+0	1.203113E+0	1.191099E+0	1.153558E+0	1.109225E+0	1.181113E+0	1.153137E+0	1.158836E+0	1.202960E+0	1.121033E+0	1.144607E+0	1.199429E+0	1.146095E+0	1.171123E+0	1.164454E+0	1.128998E+0	1.210580E+0	1.156819E+0	1.193217E+0	1.175168E+0	1.137384E+0	1.158410E+0	1.143375E+0	1.193847E+0	1.230803E+0	1.185761E+0	1.189412E+0	1.124675E+0	1.204653E+0	1.133921E+0	1.221984E+0	1.075611E+0	1.161288E+0	1.172939E+0	1.159116E+0	1.152020E+0	1.182305E+0	1.201557E+0	1.159984E+0	1.178725E+0	1.134146E+0	1.180011E+0	1.179316E+0	1.230016E+0	1.196952E+0	1.189881E+0	1.203026E+0	1.157441E+0	1.162444E+0	1.149831E+0	1.161221E+0	1.149870E+0	1.192202E+0	1.174487E+0	1.142827E+0	1.169211E+0	1.119234E+0	1.179258E+0	1.170415E+0	1.161068E+0	1.145330E+0	1.156915E+0	1.137042E+0	1.247361E+0	1.154268E+0	1.157938E+0	1.154030E+0	1.211155E+0	1.150540E+0	1.144407E+0	1.160095E+0	1.139975E+0	1.145900E+0	1.189072E+0	1.123264E+0	1.116007E+0
5.422670E+2	1.052300E+0	9.948919E-1	1.069050E+0	1.056056E+0	1.074286E+0	1.068010E+0	1.050205E+0	1.031019E+0	1.015848E+0	1.023497E+0	1.061563E+0	1.036195E+0	1.027014E+0	1.076937E+0	1.019453E+0	1.058399E+0	1.124599E+0	1.087601E+0	1.041685E+0	1.032118E+0	1.050823E+0	1.053991E+0	1.111057E+0	1.042843E+0	1.052158E+0	1.108611E+0	1.030142E+0	1.066702E+0	1.044679E+0	1.072371E+0	1.072763E+0	1.033097E+0	1.070738E+0	1.080797E+0	1.039172E+0	1.059735E+0	1.038633E+0	1.036552E+0	1.037706E+0	9.906009E-1	1.104487E+0	1.048091E+0	1.022719E+0	1.081259E+0	1.069656E+0	1.085640E+0	1.106505E+0	1.033546E+0	1.031342E+0	1.036776E+0	1.073811E+0	1.057586E+0	1.061673E+0	1.041188E+0	1.045208E+0	1.031116E+0	1.061592E+0	1.063588E+0	1.043808E+0	1.049637E+0	1.062003E+0	1.019600E+0	1.062580E+0	1.008741E+0	1.069502E+0	1.103939E+0	1.022723E+0	1.061580E+0	1.056582E+0	1.065735E+0	1.029624E+0	1.011964E+0	1.019803E+0	1.050749E+0	1.031985E+0	1.054073E+0	1.055761E+0	1.027932E+0	1.062950E+0	1.077498E+0	1.046461E+0	1.024877E+0	1.091602E+0	1.105813E+0	1.029313E+0	1.084133E+0	1.028913E+0	1.050758E+0	1.038976E+0	1.094968E+0	9.947774E-1	1.067077E+0	1.080504E+0	1.080406E+0	1.102747E+0	1.032317E+0	1.089649E+0	1.101860E+0	1.028763E+0	1.034991E+0	1.104023E+0	1.050183E+0	1.088863E+0	1.020684E+0	9.982791E-1	1.071111E+0	1.038646E+0	1.066722E+0	1.054540E+0	1.082035E+0	1.065341E+0	1.077131E+0	1.070792E+0	1.087969E+0	1.064849E+0	1.051768E+0	1.078305E+0	1.049880E+0	1.090302E+0	1.036512E+0	1.048203E+0	1.035920E+0	1.050503E+0	1.094908E+0	1.057262E+0	1.054756E+0	1.046926E+0	1.070313E+0	1.036979E+0	1.000654E+0	1.049639E+0	1.074904E+0	9.952581E-1	1.000347E+0	1.058763E+0	1.036195E+0	1.076563E+0	1.092438E+0	1.055283E+0	1.078122E+0	1.038027E+0	1.070264E+0	1.080955E+0	1.073863E+0	1.046036E+0	1.020541E+0	1.031275E+0	1.077347E+0	1.041356E+0	1.062500E+0	1.054029E+0	1.032245E+0	1.079018E+0	1.079893E+0	1.053750E+0	1.104262E+0	1.040277E+0	1.142527E+0	1.056934E+0	1.029053E+0	1.050878E+0	1.095847E+0	1.087773E+0	1.098954E+0	1.072565E+0	1.049845E+0	1.102219E+0	1.105196E+0	1.045947E+0	1.135901E+0
5.425350E+2	9.988513E-1	9.943349E-1	1.015166E+0	9.727800E-1	9.918632E-1	1.028471E+0	9.594865E-1	9.906658E-1	9.866545E-1	9.883364E-1	9.588757E-1	9.773857E-1	9.654599E-1	1.060830E+0	9.794828E-1	1.002996E+0	9.943764E-1	9.783159E-1	9.970026E-1	9.920651E-1	1.017731E+0	9.713080E-1	9.636212E-1	9.699307E-1	9.825409E-1	9.701198E-1	1.012314E+0	9.639453E-1	9.637487E-1	1.011894E+0	9.937020E-1	9.951621E-1	9.753919E-1	9.794934E-1	9.706749E-1	1.048100E+0	9.391360E-1	9.854355E-1	1.019504E+0	1.010039E+0	1.009100E+0	1.013751E+0	1.005743E+0	9.998947E-1	9.993358E-1	1.014031E+0	1.038314E+0	1.006287E+0	9.951899E-1	9.612653E-1	9.691005E-1	9.864178E-1	9.810880E-1	9.547101E-1	9.894994E-1	1.005554E+0	9.809933E-1	1.026506E+0	9.658448E-1	1.000925E+0	9.746837E-1	1.000522E+0	9.756687E-1	9.705915E-1	9.813576E-1	1.000263E+0	9.909853E-1	9.501674E-1	9.918947E-1	1.027049E+0	9.782871E-1	9.816179E-1	1.019137E+0	9.651376E-1	9.588491E-1	9.931439E-1	1.006355E+0	9.818857E-1	9.891210E-1	1.023579E+0	9.592627E-1	1.037668E+0	1.036717E+0	1.020686E+0	1.003920E+0	9.614870E-1	9.667254E-1	1.023231E+0	1.036390E+0	9.960578E-1	1.019628E+0	1.006530E+0	1.008830E+0	9.691056E-1	9.835845E-1	9.705961E-1	1.023212E+0	1.014601E+0	9.702183E-1	9.689972E-1	1.007300E+0	9.671124E-1	1.001382E+0	9.608700E-1	9.834962E-1	1.019407E+0	9.830010E-1	1.007671E+0	9.827155E-1	9.920978E-1	9.991587E-1	1.042348E+0	9.836147E-1	9.480531E-1	9.712253E-1	9.252669E-1	9.843012E-1	9.762262E-1	9.845039E-1	1.002789E+0	1.007177E+0	9.799736E-1	9.804162E-1	9.607289E-1	1.019691E+0	9.691494E-1	1.001309E+0	9.682196E-1	9.669783E-1	1.024730E+0	9.356046E-1	9.768955E-1	9.690453E-1	9.641849E-1	9.512510E-1	9.864236E-1	1.077031E+0	9.560514E-1	9.893473E-1	9.991667E-1	9.800964E-1	1.015869E+0	1.044225E+0	1.003567E+0	9.881887E-1	9.729126E-1	9.596032E-1	1.017882E+0	9.792629E-1	9.926136E-1	1.009321E+0	9.715770E-1	1.022720E+0	9.498607E-1	1.005439E+0	1.000124E+0	9.642128E-1	1.014333E+0	9.645692E-1	1.000769E+0	9.953175E-1	9.834925E-1	9.767727E-1	1.049510E+0	9.883960E-1	9.686423E-1	9.644371E-1	9.695875E-1	9.681360E-1	9.122551E-1
5.427650E+2	9.820991E-1	1.017840E+0	1.033085E+0	9.906001E-1	1.024642E+0	1.004803E+0	1.022417E+0	1.036643E+0	1.016030E+0	1.008496E+0	1.053507E+0	9.877167E-1	1.052175E+0	1.047963E+0	1.043771E+0	1.023803E+0	9.892277E-1	9.944936E-1	1.021611E+0	1.004373E+0	1.023401E+0	1.038489E+0	1.014242E+0	1.009351E+0	1.011525E+0	1.076554E+0	1.004760E+0	9.980385E-1	9.840457E-1	1.044106E+0	1.004616E+0	1.042795E+0	1.025359E+0	1.012390E+0	9.637426E-1	9.844064E-1	1.031617E+0	9.805545E-1	1.011822E+0	1.013668E+0	1.011493E+0	1.037555E+0	9.928898E-1	1.037126E+0	1.063251E+0	1.034782E+0	1.047568E+0	1.018877E+0	1.044614E+0	1.035139E+0	1.022436E+0	1.030562E+0	1.015394E+0	1.016970E+0	1.017117E+0	1.006893E+0	1.025374E+0	1.012793E+0	9.556215E-1	9.986152E-1	1.037971E+0	1.005713E+0	1.022065E+0	1.019707E+0	1.010204E+0	1.002550E+0	1.008044E+0	9.745279E-1	1.000062E+0	1.032785E+0	1.015747E+0	9.887603E-1	1.038004E+0	1.002434E+0	9.972005E-1	1.048617E+0	9.970251E-1	1.001876E+0	1.017966E+0	1.006873E+0	1.003813E+0	1.000154E+0	1.055431E+0	1.011532E+0	1.033349E+0	1.009013E+0	1.032911E+0	1.016644E+0	9.972651E-1	1.040341E+0	1.036190E+0	1.000999E+0	1.001159E+0	1.020756E+0	1.023033E+0	1.023766E+0	9.761760E-1	1.002486E+0	1.000514E+0	1.041056E+0	1.027255E+0	9.965012E-1	1.015080E+0	9.884912E-1	1.021433E+0	1.005252E+0	9.627277E-1	1.001807E+0	9.853613E-1	1.068290E+0	9.866410E-1	9.933676E-1	1.010282E+0	1.022032E+0	1.015761E+0	1.052626E+0	1.066409E+0	9.838617E-1	9.943782E-1	9.953186E-1	1.063847E+0	1.005779E+0	1.031152E+0	1.010653E+0	1.039798E+0	1.031314E+0	1.035007E+0	1.033413E+0	1.029345E+0	1.033522E+0	1.003959E+0	1.018018E+0	1.047958E+0	9.914898E-1	9.670322E-1	1.038040E+0	9.757406E-1	9.990537E-1	1.037377E+0	1.021128E+0	1.011737E+0	9.989452E-1	1.070526E+0	9.778609E-1	1.020789E+0	1.019924E+0	9.997030E-1	9.949896E-1	9.848852E-1	1.026999E+0	1.037609E+0	1.017150E+0	1.045904E+0	1.022182E+0	1.059931E+0	9.975306E-1	1.036093E+0	1.088562E+0	1.002630E+0	1.045447E+0	1.045801E+0	1.030707E+0	9.940281E-1	1.023732E+0	1.021800E+0	9.615594E-1	9.728703E-1	9.452944E-1	1.000150E+0	1.043189E+0
5.430120E+2	1.114798E+0	1.117398E+0	1.184078E+0	1.100728E+0	1.110124E+0	1.160889E+0	1.135779E+0	1.148310E+0	1.132054E+0	1.126545E+0	1.102293E+0	1.085644E+0	1.110970E+0	1.157322E+0	1.117363E+0	1.133302E+0	1.145952E+0	1.058982E+0	1.188532E+0	1.134082E+0	1.124868E+0	1.119074E+0	1.134461E+0	1.146533E+0	1.131274E+0	1.132632E+0	1.129033E+0	1.134005E+0	1.046143E+0	1.152005E+0	1.142379E+0	1.156685E+0	1.108502E+0	1.129151E+0	1.120934E+0	1.121393E+0	1.084062E+0	1.123828E+0	1.092306E+0	1.112138E+0	1.171811E+0	1.131737E+0	1.119673E+0	1.122790E+0	1.147392E+0	1.137155E+0	1.165088E+0	1.145993E+0	1.113346E+0	1.140545E+0	1.097333E+0	1.109888E+0	1.105754E+0	1.109725E+0	1.097727E+0	1.124059E+0	1.085677E+0	1.107706E+0	1.129252E+0	1.132083E+0	1.124552E+0	1.165920E+0	1.101870E+0	1.089170E+0	1.092292E+0	1.173424E+0	1.150251E+0	1.109528E+0	1.156224E+0	1.129504E+0	1.098321E+0	1.092567E+0	1.111330E+0	1.199985E+0	1.150838E+0	1.103665E+0	1.075166E+0	1.149405E+0	1.097277E+0	1.108129E+0	1.088669E+0	1.153813E+0	1.146397E+0	1.108854E+0	1.113059E+0	1.108392E+0	1.065645E+0	1.117751E+0	1.147510E+0	1.126525E+0	1.123127E+0	1.123815E+0	1.117649E+0	1.160639E+0	1.117918E+0	1.138390E+0	1.142439E+0	1.172880E+0	1.133364E+0	1.211324E+0	1.139964E+0	1.064110E+0	1.107687E+0	1.081927E+0	1.110118E+0	1.139750E+0	1.090655E+0	1.151241E+0	1.079115E+0	1.130728E+0	1.176896E+0	1.140220E+0	1.114898E+0	1.142633E+0	1.107073E+0	1.121638E+0	1.097799E+0	1.082990E+0	1.087736E+0	1.070654E+0	1.166341E+0	1.167062E+0	1.135151E+0	1.086262E+0	1.162863E+0	1.102038E+0	1.120977E+0	1.124521E+0	1.136986E+0	1.130472E+0	1.166036E+0	1.110692E+0	1.092357E+0	1.108291E+0	1.084667E+0	1.184095E+0	1.095749E+0	1.114184E+0	1.123158E+0	1.130527E+0	1.087388E+0	1.138513E+0	1.188677E+0	1.151629E+0	1.067182E+0	1.185031E+0	1.177512E+0	1.140487E+0	1.080245E+0	1.095006E+0	1.146860E+0	1.087859E+0	1.066086E+0	1.095564E+0	1.142261E+0	1.106321E+0	1.068664E+0	1.149430E+0	1.079993E+0	1.142951E+0	1.084031E+0	1.129858E+0	1.128175E+0	1.152147E+0	1.103137E+0	1.091394E+0	1.097195E+0	1.110258E+0	1.205538E+0	1.147276E+0
5.432800E+2	1.304657E+0	1.269302E+0	1.246415E+0	1.266491E+0	1.308515E+0	1.315798E+0	1.282687E+0	1.311318E+0	1.298581E+0	1.328197E+0	1.305014E+0	1.282086E+0	1.291757E+0	1.316923E+0	1.258422E+0	1.284054E+0	1.362964E+0	1.319713E+0	1.314740E+0	1.347698E+0	1.342882E+0	1.293278E+0	1.342993E+0	1.295182E+0	1.308835E+0	1.326236E+0	1.359727E+0	1.360489E+0	1.282704E+0	1.365358E+0	1.313738E+0	1.311269E+0	1.329319E+0	1.297430E+0	1.352849E+0	1.353975E+0	1.327504E+0	1.308278E+0	1.313688E+0	1.294437E+0	1.321657E+0	1.297938E+0	1.294662E+0	1.335322E+0	1.301152E+0	1.356492E+0	1.352586E+0	1.313404E+0	1.274650E+0	1.255723E+0	1.324124E+0	1.326106E+0	1.290823E+0	1.287701E+0	1.270255E+0	1.329165E+0	1.286810E+0	1.280254E+0	1.343998E+0	1.295166E+0	1.334388E+0	1.306403E+0	1.322751E+0	1.315295E+0	1.252241E+0	1.376242E+0	1.297664E+0	1.357086E+0	1.268346E+0	1.290898E+0	1.292394E+0	1.295998E+0	1.287224E+0	1.276134E+0	1.333951E+0	1.237208E+0	1.265261E+0	1.328651E+0	1.274954E+0	1.282800E+0	1.303192E+0	1.318564E+0	1.319976E+0	1.303172E+0	1.240793E+0	1.302837E+0	1.291852E+0	1.312823E+0	1.334017E+0	1.360496E+0	1.283204E+0	1.303746E+0	1.278622E+0	1.313303E+0	1.292125E+0	1.342160E+0	1.319897E+0	1.305777E+0	1.287135E+0	1.295743E+0	1.375187E+0	1.285523E+0	1.243242E+0	1.297931E+0	1.263532E+0	1.302019E+0	1.282355E+0	1.337095E+0	1.266543E+0	1.350274E+0	1.262094E+0	1.293591E+0	1.242088E+0	1.272895E+0	1.353622E+0	1.319279E+0	1.329109E+0	1.322734E+0	1.364339E+0	1.249944E+0	1.262144E+0	1.259097E+0	1.330636E+0	1.277658E+0	1.311197E+0	1.301602E+0	1.304822E+0	1.302671E+0	1.278370E+0	1.258832E+0	1.326739E+0	1.281124E+0	1.275401E+0	1.313944E+0	1.289117E+0	1.328210E+0	1.252413E+0	1.310416E+0	1.297072E+0	1.281183E+0	1.253665E+0	1.273558E+0	1.311313E+0	1.290066E+0	1.255590E+0	1.253293E+0	1.315477E+0	1.303058E+0	1.316957E+0	1.250332E+0	1.267947E+0	1.276280E+0	1.282877E+0	1.299974E+0	1.253085E+0	1.275631E+0	1.275554E+0	1.261532E+0	1.277320E+0	1.343227E+0	1.306054E+0	1.259261E+0	1.277758E+0	1.283044E+0	1.312498E+0	1.261879E+0	1.246990E+0	1.307314E+0	1.361482E+0	1.310770E+0
5.435270E+2	1.522035E+0	1.504245E+0	1.482871E+0	1.498155E+0	1.560167E+0	1.527484E+0	1.502807E+0	1.520159E+0	1.503231E+0	1.493556E+0	1.558305E+0	1.489897E+0	1.507974E+0	1.532375E+0	1.490219E+0	1.522068E+0	1.493885E+0	1.502380E+0	1.478626E+0	1.455273E+0	1.506208E+0	1.473921E+0	1.529629E+0	1.490786E+0	1.479861E+0	1.473219E+0	1.527775E+0	1.461206E+0	1.462766E+0	1.524979E+0	1.539602E+0	1.472623E+0	1.510429E+0	1.489448E+0	1.513109E+0	1.502651E+0	1.495235E+0	1.499732E+0	1.500902E+0	1.460208E+0	1.510349E+0	1.499633E+0	1.457942E+0	1.483770E+0	1.460690E+0	1.514411E+0	1.519349E+0	1.491901E+0	1.485159E+0	1.506146E+0	1.507032E+0	1.447726E+0	1.553976E+0	1.478392E+0	1.465655E+0	1.452856E+0	1.504198E+0	1.533523E+0	1.532307E+0	1.443979E+0	1.484857E+0	1.526266E+0	1.560945E+0	1.488588E+0	1.469130E+0	1.538356E+0	1.468256E+0	1.499059E+0	1.487733E+0	1.537657E+0	1.420610E+0	1.492195E+0	1.455585E+0	1.488602E+0	1.457741E+0	1.466247E+0	1.427877E+0	1.516651E+0	1.511919E+0	1.504565E+0	1.501406E+0	1.444665E+0	1.512442E+0	1.535006E+0	1.435016E+0	1.479935E+0	1.502643E+0	1.530543E+0	1.505558E+0	1.482097E+0	1.472731E+0	1.498201E+0	1.470329E+0	1.465965E+0	1.473998E+0	1.486832E+0	1.547474E+0	1.471588E+0	1.456978E+0	1.509760E+0	1.503548E+0	1.443558E+0	1.501632E+0	1.521898E+0	1.447984E+0	1.469256E+0	1.495303E+0	1.516969E+0	1.464729E+0	1.514043E+0	1.489073E+0	1.482507E+0	1.481345E+0	1.512028E+0	1.486274E+0	1.463635E+0	1.489199E+0	1.472789E+0	1.471815E+0	1.458617E+0	1.457520E+0	1.450564E+0	1.550659E+0	1.428214E+0	1.495761E+0	1.448368E+0	1.502620E+0	1.461829E+0	1.506459E+0	1.416912E+0	1.471012E+0	1.438038E+0	1.460355E+0	1.471754E+0	1.460909E+0	1.537067E+0	1.422572E+0	1.509673E+0	1.498557E+0	1.478479E+0	1.457021E+0	1.500898E+0	1.487313E+0	1.471156E+0	1.422163E+0	1.429592E+0	1.503914E+0	1.481914E+0	1.499326E+0	1.493041E+0	1.432119E+0	1.456321E+0	1.479946E+0	1.451037E+0	1.456692E+0	1.505728E+0	1.455642E+0	1.474893E+0	1.491209E+0	1.505272E+0	1.439205E+0	1.504475E+0	1.446264E+0	1.438299E+0	1.515766E+0	1.431033E+0	1.555477E+0	1.531838E+0	1.474337E+0	1.392867E+0
5.437590E+2	1.624692E+0	1.591956E+0	1.631440E+0	1.618141E+0	1.645301E+0	1.560095E+0	1.592201E+0	1.646696E+0	1.594904E+0	1.555589E+0	1.632150E+0	1.557688E+0	1.587924E+0	1.591664E+0	1.592320E+0	1.622331E+0	1.613518E+0	1.605187E+0	1.575739E+0	1.619793E+0	1.652518E+0	1.564824E+0	1.601762E+0	1.610469E+0	1.551827E+0	1.552322E+0	1.601778E+0	1.599070E+0	1.516895E+0	1.629411E+0	1.618501E+0	1.564940E+0	1.543985E+0	1.558920E+0	1.579139E+0	1.604814E+0	1.548384E+0	1.585048E+0	1.625037E+0	1.588507E+0	1.620875E+0	1.633607E+0	1.575905E+0	1.563698E+0	1.604937E+0	1.664951E+0	1.616449E+0	1.631547E+0	1.542415E+0	1.561370E+0	1.573991E+0	1.613835E+0	1.627571E+0	1.544062E+0	1.525358E+0	1.577160E+0	1.495022E+0	1.600328E+0	1.593251E+0	1.577331E+0	1.568966E+0	1.587735E+0	1.575628E+0	1.561071E+0	1.566569E+0	1.612019E+0	1.556526E+0	1.584477E+0	1.546628E+0	1.582171E+0	1.640825E+0	1.589208E+0	1.565332E+0	1.556158E+0	1.638617E+0	1.618602E+0	1.558304E+0	1.571700E+0	1.649480E+0	1.657822E+0	1.516809E+0	1.613918E+0	1.600885E+0	1.601334E+0	1.617658E+0	1.603359E+0	1.568775E+0	1.566980E+0	1.567599E+0	1.601743E+0	1.638137E+0	1.624217E+0	1.601230E+0	1.641490E+0	1.605747E+0	1.612156E+0	1.588131E+0	1.600808E+0	1.515839E+0	1.595909E+0	1.624617E+0	1.557627E+0	1.555715E+0	1.593449E+0	1.563159E+0	1.553246E+0	1.540253E+0	1.552679E+0	1.574147E+0	1.547702E+0	1.603834E+0	1.549591E+0	1.543985E+0	1.603600E+0	1.581993E+0	1.618860E+0	1.649689E+0	1.574501E+0	1.588383E+0	1.524967E+0	1.573658E+0	1.632116E+0	1.633287E+0	1.597530E+0	1.585057E+0	1.591713E+0	1.572887E+0	1.513418E+0	1.619822E+0	1.564087E+0	1.530043E+0	1.555458E+0	1.539112E+0	1.578728E+0	1.576019E+0	1.608170E+0	1.574728E+0	1.598790E+0	1.594721E+0	1.602380E+0	1.550253E+0	1.530122E+0	1.572561E+0	1.583012E+0	1.519388E+0	1.518570E+0	1.554729E+0	1.600692E+0	1.580750E+0	1.569539E+0	1.626808E+0	1.515883E+0	1.559380E+0	1.555249E+0	1.509645E+0	1.572200E+0	1.608135E+0	1.573566E+0	1.618739E+0	1.567390E+0	1.587520E+0	1.561148E+0	1.497777E+0	1.560816E+0	1.581311E+0	1.573091E+0	1.560553E+0	1.613819E+0	1.560749E+0	1.544726E+0
5.440170E+2	1.647965E+0	1.677596E+0	1.662377E+0	1.662105E+0	1.675203E+0	1.665887E+0	1.712944E+0	1.663700E+0	1.665376E+0	1.698653E+0	1.695710E+0	1.715918E+0	1.630757E+0	1.696732E+0	1.649815E+0	1.657572E+0	1.676536E+0	1.745744E+0	1.666824E+0	1.711365E+0	1.688759E+0	1.675712E+0	1.716751E+0	1.643775E+0	1.667987E+0	1.675309E+0	1.752504E+0	1.705015E+0	1.649903E+0	1.677936E+0	1.756235E+0	1.708300E+0	1.746395E+0	1.644143E+0	1.673516E+0	1.735291E+0	1.716468E+0	1.605487E+0	1.697643E+0	1.637937E+0	1.738074E+0	1.694772E+0	1.638698E+0	1.683357E+0	1.685418E+0	1.698084E+0	1.698602E+0	1.712173E+0	1.686990E+0	1.686679E+0	1.668253E+0	1.732587E+0	1.717396E+0	1.716223E+0	1.642502E+0	1.666939E+0	1.613130E+0	1.718621E+0	1.696458E+0	1.676304E+0	1.638538E+0	1.668023E+0	1.675951E+0	1.710123E+0	1.616801E+0	1.749623E+0	1.603617E+0	1.609420E+0	1.627467E+0	1.634043E+0	1.623738E+0	1.715650E+0	1.657667E+0	1.668569E+0	1.623371E+0	1.682596E+0	1.673582E+0	1.656913E+0	1.669814E+0	1.676038E+0	1.641184E+0	1.668371E+0	1.717016E+0	1.690799E+0	1.657445E+0	1.658457E+0	1.696443E+0	1.623375E+0	1.658699E+0	1.646822E+0	1.634499E+0	1.652268E+0	1.647319E+0	1.714354E+0	1.623159E+0	1.681449E+0	1.681452E+0	1.657275E+0	1.608495E+0	1.734096E+0	1.652147E+0	1.648698E+0	1.632257E+0	1.662590E+0	1.624788E+0	1.699274E+0	1.708319E+0	1.695411E+0	1.645806E+0	1.666664E+0	1.645708E+0	1.695320E+0	1.637319E+0	1.587376E+0	1.682138E+0	1.612506E+0	1.685192E+0	1.709459E+0	1.671853E+0	1.595298E+0	1.625215E+0	1.661089E+0	1.644510E+0	1.629355E+0	1.670370E+0	1.690963E+0	1.695899E+0	1.585617E+0	1.652665E+0	1.610578E+0	1.636132E+0	1.639981E+0	1.650636E+0	1.608027E+0	1.629442E+0	1.653716E+0	1.556619E+0	1.707584E+0	1.607921E+0	1.619688E+0	1.683036E+0	1.677759E+0	1.723731E+0	1.706919E+0	1.581235E+0	1.630420E+0	1.670773E+0	1.702058E+0	1.639958E+0	1.577254E+0	1.631855E+0	1.594848E+0	1.627214E+0	1.640115E+0	1.697786E+0	1.679486E+0	1.590586E+0	1.686911E+0	1.652569E+0	1.662844E+0	1.660250E+0	1.636725E+0	1.604007E+0	1.661402E+0	1.649996E+0	1.597116E+0	1.655323E+0	1.673731E+0	1.718449E+0	1.688540E+0
5.442700E+2	1.615412E+0	1.697282E+0	1.655665E+0	1.560083E+0	1.704985E+0	1.659100E+0	1.601232E+0	1.721502E+0	1.585612E+0	1.630936E+0	1.611713E+0	1.646389E+0	1.600269E+0	1.644002E+0	1.636330E+0	1.606662E+0	1.648259E+0	1.695953E+0	1.677383E+0	1.665702E+0	1.596578E+0	1.587501E+0	1.662318E+0	1.634532E+0	1.651625E+0	1.600481E+0	1.655751E+0	1.666369E+0	1.546546E+0	1.627630E+0	1.667434E+0	1.636562E+0	1.609769E+0	1.623416E+0	1.622185E+0	1.629947E+0	1.626590E+0	1.639839E+0	1.655553E+0	1.621222E+0	1.627275E+0	1.591373E+0	1.619400E+0	1.605661E+0	1.609527E+0	1.637705E+0	1.698699E+0	1.623305E+0	1.659533E+0	1.603524E+0	1.639514E+0	1.626866E+0	1.656800E+0	1.621937E+0	1.625070E+0	1.630248E+0	1.675994E+0	1.601480E+0	1.585465E+0	1.684826E+0	1.635883E+0	1.627256E+0	1.640975E+0	1.605921E+0	1.648655E+0	1.669615E+0	1.606453E+0	1.641541E+0	1.555420E+0	1.595902E+0	1.637020E+0	1.645378E+0	1.625375E+0	1.627648E+0	1.676892E+0	1.671105E+0	1.584931E+0	1.506043E+0	1.655655E+0	1.674541E+0	1.571213E+0	1.647849E+0	1.577157E+0	1.606118E+0	1.610208E+0	1.601853E+0	1.607441E+0	1.603010E+0	1.605192E+0	1.639984E+0	1.668755E+0	1.656315E+0	1.661428E+0	1.651333E+0	1.643830E+0	1.602168E+0	1.621485E+0	1.636563E+0	1.547285E+0	1.575729E+0	1.639896E+0	1.613715E+0	1.577958E+0	1.635402E+0	1.612917E+0	1.641849E+0	1.516153E+0	1.554392E+0	1.586072E+0	1.591450E+0	1.608532E+0	1.647601E+0	1.631606E+0	1.631633E+0	1.621994E+0	1.596534E+0	1.578292E+0	1.628127E+0	1.668982E+0	1.568775E+0	1.683060E+0	1.590033E+0	1.615448E+0	1.622231E+0	1.618496E+0	1.552903E+0	1.599632E+0	1.559043E+0	1.596612E+0	1.601119E+0	1.560097E+0	1.606339E+0	1.551626E+0	1.589922E+0	1.533860E+0	1.590007E+0	1.590186E+0	1.555108E+0	1.629154E+0	1.570080E+0	1.578363E+0	1.606829E+0	1.610675E+0	1.598182E+0	1.583605E+0	1.557250E+0	1.625190E+0	1.662493E+0	1.633459E+0	1.568623E+0	1.667531E+0	1.580931E+0	1.552313E+0	1.595486E+0	1.662886E+0	1.616013E+0	1.548109E+0	1.614868E+0	1.620895E+0	1.627098E+0	1.643251E+0	1.610098E+0	1.590486E+0	1.617239E+0	1.621495E+0	1.592525E+0	1.663115E+0	1.634794E+0	1.633589E+0	1.495784E+0
5.445180E+2	1.716861E+0	1.682405E+0	1.599425E+0	1.581248E+0	1.615988E+0	1.617457E+0	1.652704E+0	1.654536E+0	1.590972E+0	1.630813E+0	1.566440E+0	1.644743E+0	1.632491E+0	1.623579E+0	1.632927E+0	1.611133E+0	1.643130E+0	1.568958E+0	1.609176E+0	1.596254E+0	1.640779E+0	1.594652E+0	1.647397E+0	1.661754E+0	1.638719E+0	1.599355E+0	1.647319E+0	1.646909E+0	1.544936E+0	1.580349E+0	1.667248E+0	1.576436E+0	1.601051E+0	1.598775E+0	1.614013E+0	1.612505E+0	1.654236E+0	1.572070E+0	1.569103E+0	1.633296E+0	1.615977E+0	1.575289E+0	1.611450E+0	1.564621E+0	1.603908E+0	1.601189E+0	1.653541E+0	1.608090E+0	1.649009E+0	1.629270E+0	1.625500E+0	1.657207E+0	1.633443E+0	1.520203E+0	1.632356E+0	1.617794E+0	1.634411E+0	1.567387E+0	1.628420E+0	1.589286E+0	1.608043E+0	1.656254E+0	1.658613E+0	1.630820E+0	1.562669E+0	1.612786E+0	1.627081E+0	1.608371E+0	1.602343E+0	1.650690E+0	1.613879E+0	1.610319E+0	1.566980E+0	1.606162E+0	1.652285E+0	1.613351E+0	1.581727E+0	1.558178E+0	1.605728E+0	1.638176E+0	1.546955E+0	1.616811E+0	1.632521E+0	1.625153E+0	1.599324E+0	1.620937E+0	1.559946E+0	1.593455E+0	1.625835E+0	1.590140E+0	1.668642E+0	1.608356E+0	1.610818E+0	1.640310E+0	1.595000E+0	1.630217E+0	1.643788E+0	1.553833E+0	1.577323E+0	1.633666E+0	1.658981E+0	1.556071E+0	1.623401E+0	1.619091E+0	1.550551E+0	1.553784E+0	1.607157E+0	1.640468E+0	1.550425E+0	1.561629E+0	1.567637E+0	1.604987E+0	1.632824E+0	1.635284E+0	1.583158E+0	1.544171E+0	1.564547E+0	1.588263E+0	1.627205E+0	1.602472E+0	1.569175E+0	1.616748E+0	1.650900E+0	1.585504E+0	1.634779E+0	1.541436E+0	1.578728E+0	1.529275E+0	1.547172E+0	1.569967E+0	1.607816E+0	1.657394E+0	1.609670E+0	1.573901E+0	1.511258E+0	1.614084E+0	1.547711E+0	1.628837E+0	1.571367E+0	1.642297E+0	1.587801E+0	1.600142E+0	1.620709E+0	1.559165E+0	1.557334E+0	1.607290E+0	1.605964E+0	1.636906E+0	1.628123E+0	1.616238E+0	1.626364E+0	1.550397E+0	1.603828E+0	1.551083E+0	1.548985E+0	1.552879E+0	1.567031E+0	1.575176E+0	1.622273E+0	1.595294E+0	1.612851E+0	1.605117E+0	1.563383E+0	1.623889E+0	1.629352E+0	1.539809E+0	1.621231E+0	1.541482E+0	1.623734E+0	1.612980E+0
5.447610E+2	1.633615E+0	1.559902E+0	1.537540E+0	1.554937E+0	1.658959E+0	1.527179E+0	1.511913E+0	1.544605E+0	1.561050E+0	1.494862E+0	1.609594E+0	1.584248E+0	1.567108E+0	1.607999E+0	1.562727E+0	1.605549E+0	1.580394E+0	1.587746E+0	1.620751E+0	1.569939E+0	1.591920E+0	1.519641E+0	1.575559E+0	1.569762E+0	1.507898E+0	1.511585E+0	1.574646E+0	1.591261E+0	1.500909E+0	1.604025E+0	1.613216E+0	1.584108E+0	1.556583E+0	1.523925E+0	1.553348E+0	1.536571E+0	1.514832E+0	1.491644E+0	1.606047E+0	1.486495E+0	1.611599E+0	1.577252E+0	1.547983E+0	1.595355E+0	1.520562E+0	1.578726E+0	1.609855E+0	1.554885E+0	1.590757E+0	1.530767E+0	1.530843E+0	1.605924E+0	1.606283E+0	1.530721E+0	1.539189E+0	1.561776E+0	1.529783E+0	1.526006E+0	1.585603E+0	1.528269E+0	1.554799E+0	1.537445E+0	1.518972E+0	1.520797E+0	1.553434E+0	1.562295E+0	1.551636E+0	1.554746E+0	1.485331E+0	1.571974E+0	1.566122E+0	1.582584E+0	1.461683E+0	1.534047E+0	1.554211E+0	1.537937E+0	1.546386E+0	1.521988E+0	1.550894E+0	1.548127E+0	1.584048E+0	1.541614E+0	1.594523E+0	1.557971E+0	1.598879E+0	1.567385E+0	1.533301E+0	1.541919E+0	1.602703E+0	1.486765E+0	1.575075E+0	1.562860E+0	1.518461E+0	1.533611E+0	1.528949E+0	1.583994E+0	1.583245E+0	1.547221E+0	1.524029E+0	1.513863E+0	1.570153E+0	1.514303E+0	1.545518E+0	1.538190E+0	1.549236E+0	1.531658E+0	1.513708E+0	1.493057E+0	1.505085E+0	1.503743E+0	1.541741E+0	1.556630E+0	1.522627E+0	1.535206E+0	1.553642E+0	1.532283E+0	1.514463E+0	1.508086E+0	1.525246E+0	1.529816E+0	1.548653E+0	1.503910E+0	1.607409E+0	1.552656E+0	1.524712E+0	1.534800E+0	1.581318E+0	1.586746E+0	1.579975E+0	1.606795E+0	1.490111E+0	1.524514E+0	1.453388E+0	1.537565E+0	1.522132E+0	1.604223E+0	1.528187E+0	1.491597E+0	1.554429E+0	1.550855E+0	1.548330E+0	1.521628E+0	1.575659E+0	1.533123E+0	1.575211E+0	1.492368E+0	1.507190E+0	1.595670E+0	1.540401E+0	1.530417E+0	1.568807E+0	1.549519E+0	1.516105E+0	1.540412E+0	1.541621E+0	1.549573E+0	1.500263E+0	1.592999E+0	1.585631E+0	1.531133E+0	1.555701E+0	1.528192E+0	1.543488E+0	1.559468E+0	1.548341E+0	1.550374E+0	1.534201E+0	1.543423E+0	1.594787E+0	1.585944E+0
5.450090E+2	1.570943E+0	1.477123E+0	1.436407E+0	1.461273E+0	1.476563E+0	1.484253E+0	1.484554E+0	1.533089E+0	1.468835E+0	1.450564E+0	1.481910E+0	1.408822E+0	1.476377E+0	1.529090E+0	1.467918E+0	1.479689E+0	1.561879E+0	1.456346E+0	1.505409E+0	1.481967E+0	1.543269E+0	1.429530E+0	1.426783E+0	1.489413E+0	1.482191E+0	1.479755E+0	1.495329E+0	1.470542E+0	1.424484E+0	1.484646E+0	1.510700E+0	1.512070E+0	1.496100E+0	1.469396E+0	1.431467E+0	1.470225E+0	1.459203E+0	1.431118E+0	1.444961E+0	1.467306E+0	1.523436E+0	1.491120E+0	1.427082E+0	1.497196E+0	1.455480E+0	1.455915E+0	1.479559E+0	1.431389E+0	1.472699E+0	1.440070E+0	1.460167E+0	1.504830E+0	1.526589E+0	1.461559E+0	1.438001E+0	1.408510E+0	1.440811E+0	1.431678E+0	1.441921E+0	1.419515E+0	1.440551E+0	1.476399E+0	1.433210E+0	1.462720E+0	1.425485E+0	1.380867E+0	1.469082E+0	1.445485E+0	1.414050E+0	1.453374E+0	1.443917E+0	1.529168E+0	1.476491E+0	1.438926E+0	1.445635E+0	1.461092E+0	1.466121E+0	1.418686E+0	1.447691E+0	1.510337E+0	1.430939E+0	1.458089E+0	1.487917E+0	1.469684E+0	1.470234E+0	1.410293E+0	1.434215E+0	1.475718E+0	1.440508E+0	1.452986E+0	1.512324E+0	1.449261E+0	1.458988E+0	1.488217E+0	1.454547E+0	1.516724E+0	1.441085E+0	1.499323E+0	1.398152E+0	1.468768E+0	1.452540E+0	1.447210E+0	1.421233E+0	1.435400E+0	1.446482E+0	1.449634E+0	1.460938E+0	1.448323E+0	1.445513E+0	1.414959E+0	1.451828E+0	1.456061E+0	1.422313E+0	1.472733E+0	1.452728E+0	1.511088E+0	1.466702E+0	1.503873E+0	1.516012E+0	1.434314E+0	1.418367E+0	1.385088E+0	1.473571E+0	1.483730E+0	1.501720E+0	1.417655E+0	1.496851E+0	1.459081E+0	1.439156E+0	1.436529E+0	1.426170E+0	1.470672E+0	1.453765E+0	1.394238E+0	1.455610E+0	1.453217E+0	1.375422E+0	1.450322E+0	1.411387E+0	1.440916E+0	1.410226E+0	1.432013E+0	1.480120E+0	1.467014E+0	1.411608E+0	1.448601E+0	1.492815E+0	1.436795E+0	1.444271E+0	1.436466E+0	1.444591E+0	1.400633E+0	1.453869E+0	1.466818E+0	1.444690E+0	1.483138E+0	1.421490E+0	1.480626E+0	1.496679E+0	1.510234E+0	1.459983E+0	1.447256E+0	1.472745E+0	1.415828E+0	1.498935E+0	1.442356E+0	1.412793E+0	1.496966E+0	1.468781E+0	1.444752E+0
5.452690E+2	1.379946E+0	1.340101E+0	1.399193E+0	1.297854E+0	1.362587E+0	1.427601E+0	1.339325E+0	1.335234E+0	1.341876E+0	1.342698E+0	1.439180E+0	1.315498E+0	1.384281E+0	1.438123E+0	1.383566E+0	1.375382E+0	1.360564E+0	1.303896E+0	1.396613E+0	1.434788E+0	1.357737E+0	1.342762E+0	1.359634E+0	1.397567E+0	1.316074E+0	1.319868E+0	1.383059E+0	1.334600E+0	1.307360E+0	1.355708E+0	1.415947E+0	1.348544E+0	1.340112E+0	1.335206E+0	1.338997E+0	1.381507E+0	1.370666E+0	1.332240E+0	1.340393E+0	1.339737E+0	1.371962E+0	1.316900E+0	1.302594E+0	1.353752E+0	1.372365E+0	1.364123E+0	1.359039E+0	1.335996E+0	1.348368E+0	1.346314E+0	1.358460E+0	1.354402E+0	1.358551E+0	1.365651E+0	1.318572E+0	1.368589E+0	1.338016E+0	1.326546E+0	1.359383E+0	1.371057E+0	1.372213E+0	1.381808E+0	1.351265E+0	1.353770E+0	1.297468E+0	1.290032E+0	1.397104E+0	1.375910E+0	1.295054E+0	1.348487E+0	1.363384E+0	1.366977E+0	1.349779E+0	1.343516E+0	1.334287E+0	1.396161E+0	1.314798E+0	1.310013E+0	1.353807E+0	1.374932E+0	1.256880E+0	1.330607E+0	1.341737E+0	1.326146E+0	1.338821E+0	1.293030E+0	1.342297E+0	1.310611E+0	1.359113E+0	1.368345E+0	1.377045E+0	1.341102E+0	1.375739E+0	1.362816E+0	1.348383E+0	1.329609E+0	1.342797E+0	1.308123E+0	1.349971E+0	1.354825E+0	1.388563E+0	1.365750E+0	1.394138E+0	1.349973E+0	1.335493E+0	1.291838E+0	1.334880E+0	1.369357E+0	1.338491E+0	1.306822E+0	1.375382E+0	1.338223E+0	1.322000E+0	1.344069E+0	1.322113E+0	1.403299E+0	1.397324E+0	1.350869E+0	1.350750E+0	1.306462E+0	1.390224E+0	1.336708E+0	1.387639E+0	1.324144E+0	1.319806E+0	1.326240E+0	1.373765E+0	1.350423E+0	1.360116E+0	1.335874E+0	1.379038E+0	1.332736E+0	1.320004E+0	1.308547E+0	1.321552E+0	1.406977E+0	1.374895E+0	1.364209E+0	1.386623E+0	1.344963E+0	1.339728E+0	1.321681E+0	1.439669E+0	1.308253E+0	1.411846E+0	1.274880E+0	1.319722E+0	1.389686E+0	1.306604E+0	1.321736E+0	1.334772E+0	1.391775E+0	1.400927E+0	1.267846E+0	1.328666E+0	1.311992E+0	1.307553E+0	1.339660E+0	1.340276E+0	1.317945E+0	1.344540E+0	1.287871E+0	1.305971E+0	1.353718E+0	1.330113E+0	1.292037E+0	1.339674E+0	1.292586E+0	1.401078E+0	1.280813E+0
5.455290E+2	1.287696E+0	1.313898E+0	1.320439E+0	1.307955E+0	1.344777E+0	1.330993E+0	1.256942E+0	1.312233E+0	1.349282E+0	1.286276E+0	1.301496E+0	1.301715E+0	1.277199E+0	1.374463E+0	1.294000E+0	1.271194E+0	1.323846E+0	1.367123E+0	1.356782E+0	1.318912E+0	1.349137E+0	1.269155E+0	1.331977E+0	1.291438E+0	1.313954E+0	1.307070E+0	1.297721E+0	1.283316E+0	1.248611E+0	1.246242E+0	1.362943E+0	1.314052E+0	1.335387E+0	1.233558E+0	1.339294E+0	1.308763E+0	1.323860E+0	1.250463E+0	1.288704E+0	1.247082E+0	1.267890E+0	1.281427E+0	1.257154E+0	1.297156E+0	1.260213E+0	1.313809E+0	1.316829E+0	1.305840E+0	1.313205E+0	1.268076E+0	1.298101E+0	1.321619E+0	1.366504E+0	1.277433E+0	1.315693E+0	1.340560E+0	1.273856E+0	1.324986E+0	1.287199E+0	1.332909E+0	1.259975E+0	1.368545E+0	1.349342E+0	1.278216E+0	1.332840E+0	1.284717E+0	1.336839E+0	1.325771E+0	1.297493E+0	1.258341E+0	1.315025E+0	1.322624E+0	1.322006E+0	1.326327E+0	1.305625E+0	1.381076E+0	1.258330E+0	1.316886E+0	1.284539E+0	1.368389E+0	1.300265E+0	1.295220E+0	1.328877E+0	1.326466E+0	1.313356E+0	1.271150E+0	1.235142E+0	1.346970E+0	1.285383E+0	1.331935E+0	1.350463E+0	1.322597E+0	1.271604E+0	1.288532E+0	1.338497E+0	1.336277E+0	1.317943E+0	1.334715E+0	1.313310E+0	1.342569E+0	1.352872E+0	1.280481E+0	1.298407E+0	1.237059E+0	1.263605E+0	1.355101E+0	1.312292E+0	1.337081E+0	1.261620E+0	1.290956E+0	1.294041E+0	1.328065E+0	1.322677E+0	1.273009E+0	1.275194E+0	1.313959E+0	1.311786E+0	1.285429E+0	1.345775E+0	1.261748E+0	1.338318E+0	1.290184E+0	1.317666E+0	1.299766E+0	1.264676E+0	1.311371E+0	1.241133E+0	1.322744E+0	1.252546E+0	1.365214E+0	1.316175E+0	1.244195E+0	1.268360E+0	1.280044E+0	1.272655E+0	1.287157E+0	1.246102E+0	1.280875E+0	1.341134E+0	1.315266E+0	1.259514E+0	1.276347E+0	1.359638E+0	1.279332E+0	1.305745E+0	1.312816E+0	1.305072E+0	1.303881E+0	1.284356E+0	1.284724E+0	1.291931E+0	1.283871E+0	1.288952E+0	1.308397E+0	1.288892E+0	1.298565E+0	1.291647E+0	1.323427E+0	1.288043E+0	1.361075E+0	1.273823E+0	1.247393E+0	1.279507E+0	1.314834E+0	1.254016E+0	1.229885E+0	1.311151E+0	1.292783E+0	1.301185E+0	1.338516E+0
5.457670E+2	1.227119E+0	1.243463E+0	1.297327E+0	1.191727E+0	1.250186E+0	1.232443E+0	1.229363E+0	1.264102E+0	1.230033E+0	1.188279E+0	1.219226E+0	1.318333E+0	1.238215E+0	1.243536E+0	1.188588E+0	1.246990E+0	1.275311E+0	1.242469E+0	1.268522E+0	1.289489E+0	1.313319E+0	1.216691E+0	1.255812E+0	1.252022E+0	1.249319E+0	1.204307E+0	1.231983E+0	1.234649E+0	1.240173E+0	1.234545E+0	1.203851E+0	1.216294E+0	1.258555E+0	1.219456E+0	1.211386E+0	1.262880E+0	1.266249E+0	1.280651E+0	1.266067E+0	1.222618E+0	1.280266E+0	1.262491E+0	1.243941E+0	1.196345E+0	1.220845E+0	1.267492E+0	1.264157E+0	1.229399E+0	1.241786E+0	1.204911E+0	1.204890E+0	1.298172E+0	1.261867E+0	1.194663E+0	1.184316E+0	1.266000E+0	1.282942E+0	1.197027E+0	1.214416E+0	1.274958E+0	1.267384E+0	1.221857E+0	1.199432E+0	1.275675E+0	1.192239E+0	1.279450E+0	1.201432E+0	1.289450E+0	1.249147E+0	1.249752E+0	1.240952E+0	1.256501E+0	1.262894E+0	1.277764E+0	1.239268E+0	1.255548E+0	1.215559E+0	1.216303E+0	1.249865E+0	1.240291E+0	1.230352E+0	1.216963E+0	1.271474E+0	1.278704E+0	1.217578E+0	1.230024E+0	1.225665E+0	1.197030E+0	1.278434E+0	1.243804E+0	1.302813E+0	1.282713E+0	1.223309E+0	1.213536E+0	1.212832E+0	1.221644E+0	1.239990E+0	1.243884E+0	1.249597E+0	1.249721E+0	1.297130E+0	1.248848E+0	1.259252E+0	1.218778E+0	1.243361E+0	1.191592E+0	1.230913E+0	1.231974E+0	1.241436E+0	1.234658E+0	1.282885E+0	1.206858E+0	1.243932E+0	1.315188E+0	1.228042E+0	1.280003E+0	1.257871E+0	1.221386E+0	1.283594E+0	1.229637E+0	1.213768E+0	1.242896E+0	1.276709E+0	1.273487E+0	1.207565E+0	1.241811E+0	1.306085E+0	1.252704E+0	1.221800E+0	1.204744E+0	1.268970E+0	1.234100E+0	1.242524E+0	1.187046E+0	1.222455E+0	1.272143E+0	1.227017E+0	1.218599E+0	1.277840E+0	1.219310E+0	1.210600E+0	1.233232E+0	1.249192E+0	1.248752E+0	1.213232E+0	1.221357E+0	1.238120E+0	1.271529E+0	1.216493E+0	1.229776E+0	1.193581E+0	1.173901E+0	1.224918E+0	1.228250E+0	1.191309E+0	1.216245E+0	1.210518E+0	1.253853E+0	1.261539E+0	1.215244E+0	1.254035E+0	1.241988E+0	1.275715E+0	1.293081E+0	1.212117E+0	1.175984E+0	1.215974E+0	1.172599E+0	1.248858E+0	1.238523E+0
5.460220E+2	1.199751E+0	1.220002E+0	1.177066E+0	1.128017E+0	1.234299E+0	1.207550E+0	1.187274E+0	1.185490E+0	1.149201E+0	1.186355E+0	1.129793E+0	1.195169E+0	1.163365E+0	1.206173E+0	1.190824E+0	1.171276E+0	1.208172E+0	1.208005E+0	1.175697E+0	1.192611E+0	1.155481E+0	1.256798E+0	1.170549E+0	1.203599E+0	1.174385E+0	1.198576E+0	1.271357E+0	1.225477E+0	1.185915E+0	1.193474E+0	1.201858E+0	1.203331E+0	1.149850E+0	1.192149E+0	1.159771E+0	1.192406E+0	1.125279E+0	1.152311E+0	1.189831E+0	1.154852E+0	1.257737E+0	1.174425E+0	1.172752E+0	1.216996E+0	1.143035E+0	1.160635E+0	1.245588E+0	1.234599E+0	1.196017E+0	1.164127E+0	1.152697E+0	1.215080E+0	1.194059E+0	1.184258E+0	1.190651E+0	1.185210E+0	1.157740E+0	1.185501E+0	1.239191E+0	1.186555E+0	1.130149E+0	1.223474E+0	1.178932E+0	1.223363E+0	1.169265E+0	1.185064E+0	1.187972E+0	1.175310E+0	1.179856E+0	1.181639E+0	1.150539E+0	1.215797E+0	1.186603E+0	1.125976E+0	1.184162E+0	1.203281E+0	1.182203E+0	1.154504E+0	1.188191E+0	1.253669E+0	1.178455E+0	1.158820E+0	1.232844E+0	1.229833E+0	1.176228E+0	1.187441E+0	1.155662E+0	1.203248E+0	1.226810E+0	1.203456E+0	1.203179E+0	1.189067E+0	1.192084E+0	1.156140E+0	1.211063E+0	1.206704E+0	1.232235E+0	1.164590E+0	1.127166E+0	1.175028E+0	1.190564E+0	1.177901E+0	1.190159E+0	1.202649E+0	1.162776E+0	1.163454E+0	1.121500E+0	1.247118E+0	1.247836E+0	1.171361E+0	1.239350E+0	1.190844E+0	1.203930E+0	1.165596E+0	1.216004E+0	1.276686E+0	1.178655E+0	1.207306E+0	1.206260E+0	1.146119E+0	1.246990E+0	1.191342E+0	1.176312E+0	1.184147E+0	1.164495E+0	1.182013E+0	1.199005E+0	1.171657E+0	1.227583E+0	1.201059E+0	1.184722E+0	1.196966E+0	1.167549E+0	1.132071E+0	1.200471E+0	1.194075E+0	1.185745E+0	1.120541E+0	1.179627E+0	1.207348E+0	1.142022E+0	1.153563E+0	1.225245E+0	1.190022E+0	1.210303E+0	1.156811E+0	1.194000E+0	1.155117E+0	1.180221E+0	1.136926E+0	1.141693E+0	1.167088E+0	1.219472E+0	1.155904E+0	1.196092E+0	1.217447E+0	1.159603E+0	1.191160E+0	1.221818E+0	1.186491E+0	1.211441E+0	1.211401E+0	1.187959E+0	1.177733E+0	1.171073E+0	1.179000E+0	1.206495E+0	1.174134E+0	1.177292E+0	1.177402E+0
5.467660E+2	1.284916E+0	1.237926E+0	1.318692E+0	1.274395E+0	1.325489E+0	1.302160E+0	1.346233E+0	1.251239E+0	1.271384E+0	1.286328E+0	1.297579E+0	1.314871E+0	1.267937E+0	1.296592E+0	1.308286E+0	1.265741E+0	1.273837E+0	1.275086E+0	1.323620E+0	1.301466E+0	1.303548E+0	1.326537E+0	1.294915E+0	1.249670E+0	1.299713E+0	1.345763E+0	1.303341E+0	1.295953E+0	1.324467E+0	1.269483E+0	1.268499E+0	1.356074E+0	1.274271E+0	1.282971E+0	1.288837E+0	1.368207E+0	1.337328E+0	1.272421E+0	1.315236E+0	1.261388E+0	1.286985E+0	1.247291E+0	1.245621E+0	1.297896E+0	1.304155E+0	1.295030E+0	1.298757E+0	1.328982E+0	1.293327E+0	1.307012E+0	1.317476E+0	1.331417E+0	1.294463E+0	1.260722E+0	1.283502E+0	1.293723E+0	1.279853E+0	1.300907E+0	1.264528E+0	1.327053E+0	1.290196E+0	1.315134E+0	1.260707E+0	1.337414E+0	1.272220E+0	1.313795E+0	1.272650E+0	1.312850E+0	1.241416E+0	1.279209E+0	1.301978E+0	1.312927E+0	1.250110E+0	1.266583E+0	1.293522E+0	1.335608E+0	1.245398E+0	1.285833E+0	1.321067E+0	1.383752E+0	1.299217E+0	1.297464E+0	1.298888E+0	1.327152E+0	1.286217E+0	1.325946E+0	1.296962E+0	1.302806E+0	1.297494E+0	1.288552E+0	1.312887E+0	1.278935E+0	1.316343E+0	1.308244E+0	1.294273E+0	1.291161E+0	1.284093E+0	1.250145E+0	1.256560E+0	1.314846E+0	1.340201E+0	1.285549E+0	1.281112E+0	1.228118E+0	1.323580E+0	1.298776E+0	1.293295E+0	1.285040E+0	1.308901E+0	1.263600E+0	1.264863E+0	1.315692E+0	1.288220E+0	1.316779E+0	1.277627E+0	1.319535E+0	1.318096E+0	1.269913E+0	1.288640E+0	1.267920E+0	1.294599E+0	1.272651E+0	1.323525E+0	1.297657E+0	1.300997E+0	1.277963E+0	1.243283E+0	1.315169E+0	1.230133E+0	1.295149E+0	1.223868E+0	1.321564E+0	1.245109E+0	1.253069E+0	1.301578E+0	1.331772E+0	1.239902E+0	1.263092E+0	1.268751E+0	1.294453E+0	1.252364E+0	1.278425E+0	1.368200E+0	1.360576E+0	1.326377E+0	1.254324E+0	1.261994E+0	1.278702E+0	1.292147E+0	1.232679E+0	1.331139E+0	1.307329E+0	1.288047E+0	1.260411E+0	1.300741E+0	1.291681E+0	1.246953E+0	1.298796E+0	1.316119E+0	1.331638E+0	1.320875E+0	1.321583E+0	1.303469E+0	1.295640E+0	1.323626E+0	1.259644E+0	1.261529E+0	1.292253E+0	1.317738E+0	1.186838E+0
5.475120E+2	1.426186E+0	1.447550E+0	1.440668E+0	1.452771E+0	1.423366E+0	1.419545E+0	1.415884E+0	1.440500E+0	1.406144E+0	1.396253E+0	1.440463E+0	1.447013E+0	1.450730E+0	1.405765E+0	1.405710E+0	1.391400E+0	1.442449E+0	1.412523E+0	1.429036E+0	1.424788E+0	1.456873E+0	1.423903E+0	1.355027E+0	1.386404E+0	1.378184E+0	1.390349E+0	1.460747E+0	1.380883E+0	1.409004E+0	1.363748E+0	1.405927E+0	1.427508E+0	1.423624E+0	1.437967E+0	1.342366E+0	1.441750E+0	1.384894E+0	1.406816E+0	1.424812E+0	1.418582E+0	1.444896E+0	1.422684E+0	1.415946E+0	1.452311E+0	1.412301E+0	1.453014E+0	1.442920E+0	1.414370E+0	1.434197E+0	1.404726E+0	1.409794E+0	1.402575E+0	1.435888E+0	1.333893E+0	1.414804E+0	1.448101E+0	1.393599E+0	1.366911E+0	1.399850E+0	1.483826E+0	1.427007E+0	1.418089E+0	1.383441E+0	1.450402E+0	1.329086E+0	1.363200E+0	1.331872E+0	1.435083E+0	1.416883E+0	1.397928E+0	1.387985E+0	1.394222E+0	1.404223E+0	1.437483E+0	1.415109E+0	1.462086E+0	1.371750E+0	1.356557E+0	1.431896E+0	1.491761E+0	1.379065E+0	1.363937E+0	1.458438E+0	1.434597E+0	1.383835E+0	1.417545E+0	1.409750E+0	1.419703E+0	1.425575E+0	1.444491E+0	1.411634E+0	1.487419E+0	1.420931E+0	1.406761E+0	1.371317E+0	1.420323E+0	1.446867E+0	1.393098E+0	1.411540E+0	1.445169E+0	1.492533E+0	1.404051E+0	1.389748E+0	1.375066E+0	1.346827E+0	1.376018E+0	1.395559E+0	1.426802E+0	1.386225E+0	1.405798E+0	1.432835E+0	1.422731E+0	1.432381E+0	1.397337E+0	1.413183E+0	1.412999E+0	1.403099E+0	1.395353E+0	1.415245E+0	1.374970E+0	1.381578E+0	1.368515E+0	1.459930E+0	1.378715E+0	1.381997E+0	1.386766E+0	1.407965E+0	1.413946E+0	1.392054E+0	1.398352E+0	1.483411E+0	1.430389E+0	1.428417E+0	1.362621E+0	1.351101E+0	1.421806E+0	1.385115E+0	1.419516E+0	1.448698E+0	1.463384E+0	1.389839E+0	1.373896E+0	1.400936E+0	1.471777E+0	1.419763E+0	1.409906E+0	1.435242E+0	1.463420E+0	1.377082E+0	1.422800E+0	1.391932E+0	1.329408E+0	1.436777E+0	1.403504E+0	1.400980E+0	1.440287E+0	1.371362E+0	1.449413E+0	1.368744E+0	1.439376E+0	1.429358E+0	1.409543E+0	1.352061E+0	1.417829E+0	1.410487E+0	1.361554E+0	1.441066E+0	1.454702E+0	1.445706E+0	1.290775E+0
5.482600E+2	1.471154E+0	1.495974E+0	1.472824E+0	1.417487E+0	1.414336E+0	1.515499E+0	1.503894E+0	1.489639E+0	1.406916E+0	1.400383E+0	1.438624E+0	1.419721E+0	1.486413E+0	1.466113E+0	1.428936E+0	1.520270E+0	1.446594E+0	1.490907E+0	1.419632E+0	1.484353E+0	1.463865E+0	1.420292E+0	1.473765E+0	1.489187E+0	1.387756E+0	1.482576E+0	1.507739E+0	1.508848E+0	1.427513E+0	1.396715E+0	1.476578E+0	1.447167E+0	1.431345E+0	1.435367E+0	1.493773E+0	1.486494E+0	1.470537E+0	1.493783E+0	1.462711E+0	1.448282E+0	1.426353E+0	1.424205E+0	1.393261E+0	1.454172E+0	1.450619E+0	1.495284E+0	1.508452E+0	1.467544E+0	1.448991E+0	1.355631E+0	1.430750E+0	1.444741E+0	1.424048E+0	1.458200E+0	1.468403E+0	1.457981E+0	1.471734E+0	1.487655E+0	1.402474E+0	1.461487E+0	1.438627E+0	1.464180E+0	1.424381E+0	1.490195E+0	1.377387E+0	1.412518E+0	1.431665E+0	1.406857E+0	1.374900E+0	1.466915E+0	1.415272E+0	1.464036E+0	1.436052E+0	1.408344E+0	1.414363E+0	1.457859E+0	1.445883E+0	1.442845E+0	1.451249E+0	1.513085E+0	1.372052E+0	1.430370E+0	1.471119E+0	1.439412E+0	1.441234E+0	1.401364E+0	1.415194E+0	1.467761E+0	1.456298E+0	1.419806E+0	1.444373E+0	1.471558E+0	1.464248E+0	1.461227E+0	1.458299E+0	1.428337E+0	1.395654E+0	1.441783E+0	1.363173E+0	1.426906E+0	1.457289E+0	1.413868E+0	1.414076E+0	1.415710E+0	1.428925E+0	1.415935E+0	1.409301E+0	1.430927E+0	1.401703E+0	1.399118E+0	1.407254E+0	1.499877E+0	1.351635E+0	1.409209E+0	1.454172E+0	1.432822E+0	1.435947E+0	1.395714E+0	1.456637E+0	1.437528E+0	1.419998E+0	1.388997E+0	1.439790E+0	1.474289E+0	1.449330E+0	1.427895E+0	1.364406E+0	1.389489E+0	1.426602E+0	1.419205E+0	1.453411E+0	1.432874E+0	1.458411E+0	1.354802E+0	1.448415E+0	1.452139E+0	1.377683E+0	1.430227E+0	1.432319E+0	1.514910E+0	1.416171E+0	1.418486E+0	1.440478E+0	1.541416E+0	1.384709E+0	1.436461E+0	1.406403E+0	1.434350E+0	1.432922E+0	1.438942E+0	1.420759E+0	1.390936E+0	1.475361E+0	1.469676E+0	1.399002E+0	1.399927E+0	1.428549E+0	1.432911E+0	1.423217E+0	1.496008E+0	1.457871E+0	1.467476E+0	1.484436E+0	1.487702E+0	1.448790E+0	1.411076E+0	1.400935E+0	1.425774E+0	1.489851E+0	1.382521E+0
5.490490E+2	1.461114E+0	1.459313E+0	1.451698E+0	1.442203E+0	1.468046E+0	1.457730E+0	1.482755E+0	1.453628E+0	1.383973E+0	1.401161E+0	1.406486E+0	1.437180E+0	1.396331E+0	1.467009E+0	1.445421E+0	1.492885E+0	1.474478E+0	1.469661E+0	1.451542E+0	1.484027E+0	1.404115E+0	1.449969E+0	1.440829E+0	1.468415E+0	1.416218E+0	1.467606E+0	1.476517E+0	1.451342E+0	1.444019E+0	1.449215E+0	1.446031E+0	1.473191E+0	1.436500E+0	1.403400E+0	1.440193E+0	1.467632E+0	1.473110E+0	1.398726E+0	1.448931E+0	1.434878E+0	1.482591E+0	1.427475E+0	1.400843E+0	1.478879E+0	1.425404E+0	1.443373E+0	1.460922E+0	1.427217E+0	1.430760E+0	1.396999E+0	1.401079E+0	1.479804E+0	1.451317E+0	1.433337E+0	1.406440E+0	1.448154E+0	1.427848E+0	1.451063E+0	1.429878E+0	1.419774E+0	1.423072E+0	1.407212E+0	1.459426E+0	1.489874E+0	1.441906E+0	1.407320E+0	1.389841E+0	1.383755E+0	1.405395E+0	1.408708E+0	1.414817E+0	1.402311E+0	1.481847E+0	1.393682E+0	1.401313E+0	1.452078E+0	1.468910E+0	1.391869E+0	1.387761E+0	1.487377E+0	1.433992E+0	1.437191E+0	1.446395E+0	1.455926E+0	1.459217E+0	1.423423E+0	1.391497E+0	1.509053E+0	1.453555E+0	1.393431E+0	1.420176E+0	1.392509E+0	1.431146E+0	1.421549E+0	1.385277E+0	1.493353E+0	1.459688E+0	1.420373E+0	1.418903E+0	1.457413E+0	1.503716E+0	1.442701E+0	1.420998E+0	1.447935E+0	1.414580E+0	1.412640E+0	1.368418E+0	1.416211E+0	1.454093E+0	1.348272E+0	1.446921E+0	1.433891E+0	1.448661E+0	1.447177E+0	1.377393E+0	1.441762E+0	1.411278E+0	1.438779E+0	1.382302E+0	1.388380E+0	1.458195E+0	1.439923E+0	1.408568E+0	1.431605E+0	1.489391E+0	1.417103E+0	1.416952E+0	1.357767E+0	1.401819E+0	1.452818E+0	1.408350E+0	1.410637E+0	1.472109E+0	1.419216E+0	1.367985E+0	1.438209E+0	1.403847E+0	1.402664E+0	1.401581E+0	1.454382E+0	1.396351E+0	1.406059E+0	1.399936E+0	1.496026E+0	1.388453E+0	1.419725E+0	1.418110E+0	1.462965E+0	1.473662E+0	1.409416E+0	1.409655E+0	1.413641E+0	1.480296E+0	1.395076E+0	1.425800E+0	1.436831E+0	1.402856E+0	1.425910E+0	1.424476E+0	1.453091E+0	1.436692E+0	1.366694E+0	1.438320E+0	1.415655E+0	1.405899E+0	1.393976E+0	1.450666E+0	1.508978E+0	1.449807E+0	1.519496E+0
5.497790E+2	1.406872E+0	1.393044E+0	1.418418E+0	1.365542E+0	1.392476E+0	1.341057E+0	1.457957E+0	1.393653E+0	1.394829E+0	1.407410E+0	1.374266E+0	1.419246E+0	1.374094E+0	1.438212E+0	1.428081E+0	1.402446E+0	1.440483E+0	1.416567E+0	1.426683E+0	1.414612E+0	1.455692E+0	1.401981E+0	1.413007E+0	1.406442E+0	1.341657E+0	1.376207E+0	1.401341E+0	1.428439E+0	1.390007E+0	1.401576E+0	1.344537E+0	1.385002E+0	1.446407E+0	1.381772E+0	1.418497E+0	1.411069E+0	1.413438E+0	1.392602E+0	1.381721E+0	1.393033E+0	1.390476E+0	1.363933E+0	1.319753E+0	1.362561E+0	1.464821E+0	1.404494E+0	1.381911E+0	1.423621E+0	1.434091E+0	1.342062E+0	1.354981E+0	1.399873E+0	1.436795E+0	1.349859E+0	1.353029E+0	1.379568E+0	1.376790E+0	1.408866E+0	1.392923E+0	1.435756E+0	1.360999E+0	1.398879E+0	1.334432E+0	1.381175E+0	1.349121E+0	1.409261E+0	1.401554E+0	1.347355E+0	1.331268E+0	1.307370E+0	1.408637E+0	1.472746E+0	1.423296E+0	1.443350E+0	1.344893E+0	1.417509E+0	1.364797E+0	1.398152E+0	1.373406E+0	1.400750E+0	1.431322E+0	1.411923E+0	1.378507E+0	1.450152E+0	1.386549E+0	1.349940E+0	1.423483E+0	1.393249E+0	1.423588E+0	1.383701E+0	1.381810E+0	1.391823E+0	1.438029E+0	1.397477E+0	1.396418E+0	1.421400E+0	1.427976E+0	1.419859E+0	1.371374E+0	1.395282E+0	1.451986E+0	1.399137E+0	1.377228E+0	1.394348E+0	1.412568E+0	1.397055E+0	1.396671E+0	1.387101E+0	1.366891E+0	1.367954E+0	1.373836E+0	1.398417E+0	1.408087E+0	1.325952E+0	1.375929E+0	1.401328E+0	1.384961E+0	1.416633E+0	1.387525E+0	1.425254E+0	1.420230E+0	1.300556E+0	1.427838E+0	1.444967E+0	1.396561E+0	1.371826E+0	1.374645E+0	1.383830E+0	1.348599E+0	1.360932E+0	1.374555E+0	1.426885E+0	1.380606E+0	1.355603E+0	1.383004E+0	1.415720E+0	1.373447E+0	1.351860E+0	1.337805E+0	1.420927E+0	1.394775E+0	1.344601E+0	1.371007E+0	1.363098E+0	1.354018E+0	1.337784E+0	1.401934E+0	1.399571E+0	1.385371E+0	1.326749E+0	1.437117E+0	1.376073E+0	1.407803E+0	1.379911E+0	1.322305E+0	1.380235E+0	1.377965E+0	1.407684E+0	1.402258E+0	1.433450E+0	1.412251E+0	1.348627E+0	1.370508E+0	1.376346E+0	1.359714E+0	1.346071E+0	1.347823E+0	1.328646E+0	1.423882E+0	1.432530E+0
5.505110E+2	1.336049E+0	1.359860E+0	1.390743E+0	1.354200E+0	1.373305E+0	1.357903E+0	1.321139E+0	1.368706E+0	1.369852E+0	1.281544E+0	1.292568E+0	1.388605E+0	1.297260E+0	1.339695E+0	1.317730E+0	1.342337E+0	1.354133E+0	1.365697E+0	1.354447E+0	1.359405E+0	1.272321E+0	1.370385E+0	1.318492E+0	1.314263E+0	1.296428E+0	1.274486E+0	1.361602E+0	1.386758E+0	1.295229E+0	1.357547E+0	1.317599E+0	1.314909E+0	1.274868E+0	1.282186E+0	1.321001E+0	1.379651E+0	1.346567E+0	1.280538E+0	1.352601E+0	1.311561E+0	1.316819E+0	1.307450E+0	1.344564E+0	1.351503E+0	1.347921E+0	1.322726E+0	1.343700E+0	1.294910E+0	1.323792E+0	1.317113E+0	1.360431E+0	1.355679E+0	1.358233E+0	1.322177E+0	1.275611E+0	1.320472E+0	1.344793E+0	1.339967E+0	1.294886E+0	1.316083E+0	1.342799E+0	1.275976E+0	1.347456E+0	1.327310E+0	1.307837E+0	1.335413E+0	1.313476E+0	1.329549E+0	1.256069E+0	1.293797E+0	1.315646E+0	1.368180E+0	1.340620E+0	1.364352E+0	1.312363E+0	1.347439E+0	1.351706E+0	1.247364E+0	1.306894E+0	1.355428E+0	1.324937E+0	1.342457E+0	1.372616E+0	1.342147E+0	1.369042E+0	1.326107E+0	1.336194E+0	1.297749E+0	1.364583E+0	1.337102E+0	1.350393E+0	1.320876E+0	1.341891E+0	1.334411E+0	1.303302E+0	1.342360E+0	1.330601E+0	1.296952E+0	1.326362E+0	1.358942E+0	1.368613E+0	1.347500E+0	1.303987E+0	1.293136E+0	1.322293E+0	1.275838E+0	1.324698E+0	1.387752E+0	1.327860E+0	1.282249E+0	1.365938E+0	1.390195E+0	1.365279E+0	1.291860E+0	1.355989E+0	1.330245E+0	1.322461E+0	1.325477E+0	1.367032E+0	1.315957E+0	1.339078E+0	1.351429E+0	1.376352E+0	1.333075E+0	1.366891E+0	1.309449E+0	1.390740E+0	1.368146E+0	1.332265E+0	1.315236E+0	1.283138E+0	1.351940E+0	1.344310E+0	1.307085E+0	1.328635E+0	1.336287E+0	1.295078E+0	1.301604E+0	1.342978E+0	1.305818E+0	1.319052E+0	1.300955E+0	1.330796E+0	1.323709E+0	1.274888E+0	1.300347E+0	1.330258E+0	1.318043E+0	1.317976E+0	1.291444E+0	1.345043E+0	1.313056E+0	1.332556E+0	1.317444E+0	1.271087E+0	1.392400E+0	1.273664E+0	1.298148E+0	1.312591E+0	1.366133E+0	1.361099E+0	1.315381E+0	1.319859E+0	1.285076E+0	1.365770E+0	1.373777E+0	1.280896E+0	1.368366E+0	1.328545E+0	1.240415E+0
5.512570E+2	1.395362E+0	1.420083E+0	1.384440E+0	1.419337E+0	1.372911E+0	1.377921E+0	1.431770E+0	1.372477E+0	1.361063E+0	1.336934E+0	1.372420E+0	1.359939E+0	1.372670E+0	1.372848E+0	1.362269E+0	1.427684E+0	1.359674E+0	1.355096E+0	1.368500E+0	1.406323E+0	1.458754E+0	1.343669E+0	1.383214E+0	1.349067E+0	1.330764E+0	1.395676E+0	1.414430E+0	1.407372E+0	1.423430E+0	1.397429E+0	1.345899E+0	1.374650E+0	1.307819E+0	1.389259E+0	1.364807E+0	1.442833E+0	1.362398E+0	1.362255E+0	1.426017E+0	1.329301E+0	1.444493E+0	1.369200E+0	1.344880E+0	1.373708E+0	1.303643E+0	1.399489E+0	1.412339E+0	1.435727E+0	1.390501E+0	1.347551E+0	1.348706E+0	1.383227E+0	1.388210E+0	1.328987E+0	1.374078E+0	1.445971E+0	1.347753E+0	1.388994E+0	1.282481E+0	1.392750E+0	1.376818E+0	1.410895E+0	1.343510E+0	1.376090E+0	1.307929E+0	1.316665E+0	1.402246E+0	1.387681E+0	1.374223E+0	1.355087E+0	1.367420E+0	1.374817E+0	1.386966E+0	1.349623E+0	1.384636E+0	1.384260E+0	1.395080E+0	1.333358E+0	1.375810E+0	1.477992E+0	1.284689E+0	1.397214E+0	1.415008E+0	1.444117E+0	1.404011E+0	1.337141E+0	1.375538E+0	1.419360E+0	1.412345E+0	1.359392E+0	1.335943E+0	1.407694E+0	1.419268E+0	1.320812E+0	1.377435E+0	1.383550E+0	1.371738E+0	1.374310E+0	1.355378E+0	1.416414E+0	1.395561E+0	1.373050E+0	1.398451E+0	1.337716E+0	1.375458E+0	1.334037E+0	1.354087E+0	1.403386E+0	1.382825E+0	1.351921E+0	1.329877E+0	1.364812E+0	1.350021E+0	1.390735E+0	1.338429E+0	1.369241E+0	1.409676E+0	1.331907E+0	1.364328E+0	1.358065E+0	1.384619E+0	1.354501E+0	1.350940E+0	1.350798E+0	1.382009E+0	1.340890E+0	1.356820E+0	1.340429E+0	1.323483E+0	1.332806E+0	1.353338E+0	1.329094E+0	1.343558E+0	1.321538E+0	1.339755E+0	1.357200E+0	1.341062E+0	1.356950E+0	1.377597E+0	1.361398E+0	1.323228E+0	1.366817E+0	1.405365E+0	1.399120E+0	1.350110E+0	1.348120E+0	1.327744E+0	1.368905E+0	1.395232E+0	1.298431E+0	1.343065E+0	1.318971E+0	1.378409E+0	1.331455E+0	1.332821E+0	1.347431E+0	1.334429E+0	1.357467E+0	1.336368E+0	1.388542E+0	1.400664E+0	1.346077E+0	1.347417E+0	1.403295E+0	1.377035E+0	1.367987E+0	1.379833E+0	1.400409E+0	1.383196E+0	1.317008E+0
5.520260E+2	1.417526E+0	1.356343E+0	1.364393E+0	1.353621E+0	1.440563E+0	1.361169E+0	1.392875E+0	1.373009E+0	1.376433E+0	1.307545E+0	1.362643E+0	1.335291E+0	1.394112E+0	1.426548E+0	1.403125E+0	1.372463E+0	1.373718E+0	1.347618E+0	1.315203E+0	1.351145E+0	1.382200E+0	1.386043E+0	1.433808E+0	1.376938E+0	1.367022E+0	1.374365E+0	1.407528E+0	1.306341E+0	1.335789E+0	1.326298E+0	1.343277E+0	1.354928E+0	1.415365E+0	1.325242E+0	1.389163E+0	1.385575E+0	1.340985E+0	1.365904E+0	1.356577E+0	1.367909E+0	1.413074E+0	1.376956E+0	1.382512E+0	1.394534E+0	1.380323E+0	1.368730E+0	1.377997E+0	1.398670E+0	1.375339E+0	1.327114E+0	1.341516E+0	1.379398E+0	1.372698E+0	1.327384E+0	1.350246E+0	1.423935E+0	1.345114E+0	1.424083E+0	1.347615E+0	1.451437E+0	1.346771E+0	1.382760E+0	1.367965E+0	1.378988E+0	1.344729E+0	1.376195E+0	1.357302E+0	1.339077E+0	1.364535E+0	1.412202E+0	1.398125E+0	1.391200E+0	1.404707E+0	1.340258E+0	1.356696E+0	1.358335E+0	1.381740E+0	1.366320E+0	1.344453E+0	1.419455E+0	1.348749E+0	1.320467E+0	1.371631E+0	1.409154E+0	1.362819E+0	1.320872E+0	1.310699E+0	1.351949E+0	1.353936E+0	1.345500E+0	1.387006E+0	1.417820E+0	1.331495E+0	1.349601E+0	1.363236E+0	1.379920E+0	1.355422E+0	1.389422E+0	1.279576E+0	1.385628E+0	1.422843E+0	1.345883E+0	1.331963E+0	1.349209E+0	1.357954E+0	1.300909E+0	1.343984E+0	1.336790E+0	1.341576E+0	1.380666E+0	1.380414E+0	1.392259E+0	1.376736E+0	1.359841E+0	1.344855E+0	1.324365E+0	1.344299E+0	1.406999E+0	1.363763E+0	1.312773E+0	1.359492E+0	1.332750E+0	1.386403E+0	1.381371E+0	1.335529E+0	1.337479E+0	1.355771E+0	1.372213E+0	1.414123E+0	1.346337E+0	1.324132E+0	1.376131E+0	1.322670E+0	1.303455E+0	1.321900E+0	1.400945E+0	1.389121E+0	1.323843E+0	1.366162E+0	1.361023E+0	1.342992E+0	1.399633E+0	1.385348E+0	1.326516E+0	1.280919E+0	1.333587E+0	1.387911E+0	1.414989E+0	1.362542E+0	1.319566E+0	1.392726E+0	1.353259E+0	1.380785E+0	1.369968E+0	1.384245E+0	1.414368E+0	1.325141E+0	1.340871E+0	1.371962E+0	1.389818E+0	1.336151E+0	1.344291E+0	1.388681E+0	1.338820E+0	1.372227E+0	1.372792E+0	1.420698E+0	1.403394E+0	1.445622E+0	1.341662E+0
5.527590E+2	1.299325E+0	1.324945E+0	1.233811E+0	1.308629E+0	1.317633E+0	1.248690E+0	1.294345E+0	1.307221E+0	1.216093E+0	1.236162E+0	1.220370E+0	1.233400E+0	1.236133E+0	1.281708E+0	1.268999E+0	1.208703E+0	1.250137E+0	1.275014E+0	1.340483E+0	1.284336E+0	1.292543E+0	1.259473E+0	1.253305E+0	1.303274E+0	1.289919E+0	1.278660E+0	1.243242E+0	1.196676E+0	1.281667E+0	1.273327E+0	1.246546E+0	1.291001E+0	1.268647E+0	1.267210E+0	1.234510E+0	1.275296E+0	1.233350E+0	1.253342E+0	1.232923E+0	1.262889E+0	1.299367E+0	1.272097E+0	1.275087E+0	1.264442E+0	1.285636E+0	1.303867E+0	1.280486E+0	1.277193E+0	1.249064E+0	1.243621E+0	1.265649E+0	1.229856E+0	1.294088E+0	1.282328E+0	1.181951E+0	1.279370E+0	1.258300E+0	1.237216E+0	1.312400E+0	1.309716E+0	1.228800E+0	1.284674E+0	1.250029E+0	1.282743E+0	1.211891E+0	1.247938E+0	1.231947E+0	1.201612E+0	1.226144E+0	1.287576E+0	1.289621E+0	1.285048E+0	1.260965E+0	1.275322E+0	1.260294E+0	1.272849E+0	1.261552E+0	1.242278E+0	1.243834E+0	1.304750E+0	1.283151E+0	1.245625E+0	1.273763E+0	1.291849E+0	1.296883E+0	1.248208E+0	1.273011E+0	1.266908E+0	1.294085E+0	1.295336E+0	1.258022E+0	1.290512E+0	1.228841E+0	1.243049E+0	1.280549E+0	1.274087E+0	1.270206E+0	1.306486E+0	1.228715E+0	1.253246E+0	1.237901E+0	1.284760E+0	1.247124E+0	1.208666E+0	1.229298E+0	1.273761E+0	1.238118E+0	1.279400E+0	1.212484E+0	1.261645E+0	1.254914E+0	1.250995E+0	1.310454E+0	1.243025E+0	1.257778E+0	1.267324E+0	1.262432E+0	1.299569E+0	1.252285E+0	1.217219E+0	1.262736E+0	1.291272E+0	1.291983E+0	1.299128E+0	1.265952E+0	1.251871E+0	1.263176E+0	1.293139E+0	1.256701E+0	1.282173E+0	1.247839E+0	1.243426E+0	1.256733E+0	1.206031E+0	1.320551E+0	1.249756E+0	1.239863E+0	1.247441E+0	1.259704E+0	1.257816E+0	1.243309E+0	1.208720E+0	1.260334E+0	1.280792E+0	1.282604E+0	1.298695E+0	1.259835E+0	1.319508E+0	1.287197E+0	1.243711E+0	1.291902E+0	1.234956E+0	1.281618E+0	1.237603E+0	1.256851E+0	1.292719E+0	1.224772E+0	1.275065E+0	1.274038E+0	1.296051E+0	1.312259E+0	1.267068E+0	1.206114E+0	1.233625E+0	1.295603E+0	1.270025E+0	1.254004E+0	1.263203E+0	1.317887E+0	1.297190E+0
5.535330E+2	1.259899E+0	1.254420E+0	1.216184E+0	1.236067E+0	1.261216E+0	1.260196E+0	1.260169E+0	1.257535E+0	1.249160E+0	1.202835E+0	1.207565E+0	1.245170E+0	1.257053E+0	1.247023E+0	1.180616E+0	1.208962E+0	1.229085E+0	1.286212E+0	1.252100E+0	1.237665E+0	1.296090E+0	1.238818E+0	1.272254E+0	1.198013E+0	1.209936E+0	1.274904E+0	1.287745E+0	1.209265E+0	1.235608E+0	1.253568E+0	1.262125E+0	1.246776E+0	1.220604E+0	1.185396E+0	1.267822E+0	1.266619E+0	1.240833E+0	1.199782E+0	1.243192E+0	1.194221E+0	1.312452E+0	1.221370E+0	1.251325E+0	1.243401E+0	1.233890E+0	1.238279E+0	1.239252E+0	1.201569E+0	1.225542E+0	1.245332E+0	1.234649E+0	1.258687E+0	1.316661E+0	1.200375E+0	1.250274E+0	1.253179E+0	1.259081E+0	1.223488E+0	1.210261E+0	1.216981E+0	1.242936E+0	1.244185E+0	1.186189E+0	1.198368E+0	1.215244E+0	1.208353E+0	1.298821E+0	1.228339E+0	1.215406E+0	1.235436E+0	1.239546E+0	1.208532E+0	1.203845E+0	1.224023E+0	1.232730E+0	1.179342E+0	1.191603E+0	1.200128E+0	1.244829E+0	1.203669E+0	1.234161E+0	1.252563E+0	1.263384E+0	1.252866E+0	1.255919E+0	1.229083E+0	1.226150E+0	1.211669E+0	1.191458E+0	1.236803E+0	1.265224E+0	1.261918E+0	1.251601E+0	1.243099E+0	1.201509E+0	1.239060E+0	1.288114E+0	1.193691E+0	1.200874E+0	1.287269E+0	1.256622E+0	1.216516E+0	1.231866E+0	1.281031E+0	1.186726E+0	1.241712E+0	1.189385E+0	1.236866E+0	1.274491E+0	1.268799E+0	1.232006E+0	1.201623E+0	1.194281E+0	1.228917E+0	1.232337E+0	1.167166E+0	1.252086E+0	1.239899E+0	1.215196E+0	1.189179E+0	1.209591E+0	1.200254E+0	1.214130E+0	1.178173E+0	1.277762E+0	1.236654E+0	1.228100E+0	1.194501E+0	1.215657E+0	1.239265E+0	1.216191E+0	1.211550E+0	1.182217E+0	1.217254E+0	1.187315E+0	1.210558E+0	1.217454E+0	1.197131E+0	1.240414E+0	1.277672E+0	1.201596E+0	1.279709E+0	1.236612E+0	1.191576E+0	1.240573E+0	1.185154E+0	1.242711E+0	1.272368E+0	1.243007E+0	1.243029E+0	1.268434E+0	1.215070E+0	1.258195E+0	1.223142E+0	1.197172E+0	1.233575E+0	1.186827E+0	1.227874E+0	1.237446E+0	1.227223E+0	1.229600E+0	1.250146E+0	1.234773E+0	1.181513E+0	1.242610E+0	1.240940E+0	1.217747E+0	1.244709E+0	1.211177E+0	1.161080E+0
5.542580E+2	1.179328E+0	1.161859E+0	1.148509E+0	1.163515E+0	1.204789E+0	1.146864E+0	1.141055E+0	1.108101E+0	1.094643E+0	1.164974E+0	1.113576E+0	1.138541E+0	1.138448E+0	1.170676E+0	1.151855E+0	1.164173E+0	1.208744E+0	1.138800E+0	1.157897E+0	1.145622E+0	1.162672E+0	1.128124E+0	1.139158E+0	1.139053E+0	1.199364E+0	1.152125E+0	1.127332E+0	1.127224E+0	1.155420E+0	1.149702E+0	1.130945E+0	1.116776E+0	1.143895E+0	1.181598E+0	1.123752E+0	1.149968E+0	1.130212E+0	1.135962E+0	1.169875E+0	1.134808E+0	1.207549E+0	1.119360E+0	1.147387E+0	1.130580E+0	1.150528E+0	1.162182E+0	1.156012E+0	1.137150E+0	1.150519E+0	1.104904E+0	1.088029E+0	1.136587E+0	1.185303E+0	1.105337E+0	1.152283E+0	1.152831E+0	1.200203E+0	1.147185E+0	1.087666E+0	1.117791E+0	1.176648E+0	1.158349E+0	1.175407E+0	1.119794E+0	1.125372E+0	1.131550E+0	1.136988E+0	1.149028E+0	1.114726E+0	1.106588E+0	1.134477E+0	1.149675E+0	1.186879E+0	1.153297E+0	1.190040E+0	1.162210E+0	1.155109E+0	1.113641E+0	1.162238E+0	1.114743E+0	1.127173E+0	1.155669E+0	1.197067E+0	1.185795E+0	1.191976E+0	1.151198E+0	1.133449E+0	1.142316E+0	1.165715E+0	1.090593E+0	1.137393E+0	1.151597E+0	1.125392E+0	1.127170E+0	1.146773E+0	1.164809E+0	1.191409E+0	1.163581E+0	1.152201E+0	1.164367E+0	1.180119E+0	1.135952E+0	1.185020E+0	1.122066E+0	1.100110E+0	1.165116E+0	1.110403E+0	1.117645E+0	1.152547E+0	1.108277E+0	1.111209E+0	1.111360E+0	1.169573E+0	1.114358E+0	1.090830E+0	1.162556E+0	1.201595E+0	1.108102E+0	1.111067E+0	1.139253E+0	1.203307E+0	1.149354E+0	1.097068E+0	1.128406E+0	1.186874E+0	1.137863E+0	1.156316E+0	1.122349E+0	1.167859E+0	1.157975E+0	1.147021E+0	1.125855E+0	1.149903E+0	1.182025E+0	1.140124E+0	1.141900E+0	1.174180E+0	1.132265E+0	1.099854E+0	1.178292E+0	1.197754E+0	1.149565E+0	1.169477E+0	1.168022E+0	1.083709E+0	1.073849E+0	1.149602E+0	1.141560E+0	1.133379E+0	1.123656E+0	1.170115E+0	1.114689E+0	1.168888E+0	1.169152E+0	1.119190E+0	1.205475E+0	1.121337E+0	1.159519E+0	1.093446E+0	1.216234E+0	1.157583E+0	1.147217E+0	1.108869E+0	1.167873E+0	1.186561E+0	1.095348E+0	1.183321E+0	1.234335E+0	1.167220E+0	1.218868E+0
5.550140E+2	1.004857E+0	9.887863E-1	1.020247E+0	1.041291E+0	1.000893E+0	1.030627E+0	1.024150E+0	1.036877E+0	9.861729E-1	9.938268E-1	1.019328E+0	9.679152E-1	1.042142E+0	9.819630E-1	1.019270E+0	9.934949E-1	1.034589E+0	1.049327E+0	1.021772E+0	1.019632E+0	1.037375E+0	9.868418E-1	1.053149E+0	9.938898E-1	9.817955E-1	1.020447E+0	1.035499E+0	9.886219E-1	9.845517E-1	9.730045E-1	1.005369E+0	1.045769E+0	9.975855E-1	1.034405E+0	1.028126E+0	1.009244E+0	1.026609E+0	9.921821E-1	9.974252E-1	1.016683E+0	1.045970E+0	1.055562E+0	9.892871E-1	9.831905E-1	1.026376E+0	1.024333E+0	1.048018E+0	9.975368E-1	1.095236E+0	9.911271E-1	1.024357E+0	9.975977E-1	1.033469E+0	9.822060E-1	9.846907E-1	1.014844E+0	9.956444E-1	9.990010E-1	1.037427E+0	1.041436E+0	1.010823E+0	1.042480E+0	9.927625E-1	9.622074E-1	1.052143E+0	1.013940E+0	1.012146E+0	1.011647E+0	1.059654E+0	9.753149E-1	9.681440E-1	1.077738E+0	1.034966E+0	1.023237E+0	1.006063E+0	1.002142E+0	1.011470E+0	9.954707E-1	9.899672E-1	1.012046E+0	1.024952E+0	1.032174E+0	1.035505E+0	1.008661E+0	1.005391E+0	1.020090E+0	1.012106E+0	1.032678E+0	1.024104E+0	1.037174E+0	1.020340E+0	1.020788E+0	1.022233E+0	1.041766E+0	1.019033E+0	1.015593E+0	1.012964E+0	1.051152E+0	9.981136E-1	1.031930E+0	1.051869E+0	1.011523E+0	1.027118E+0	1.023391E+0	1.056975E+0	1.004371E+0	1.029298E+0	9.555535E-1	1.007562E+0	9.873770E-1	1.002542E+0	1.009332E+0	1.031838E+0	1.054493E+0	9.657815E-1	1.033644E+0	9.782687E-1	1.076044E+0	1.014914E+0	1.001418E+0	1.002693E+0	9.752797E-1	1.032274E+0	9.797240E-1	1.014110E+0	1.007402E+0	1.042693E+0	1.022861E+0	1.024957E+0	9.964233E-1	9.953167E-1	1.035178E+0	9.968081E-1	1.026636E+0	9.959580E-1	9.807538E-1	1.023725E+0	1.041470E+0	9.947668E-1	1.044505E+0	1.000128E+0	1.021220E+0	1.046920E+0	1.018341E+0	9.642153E-1	9.948947E-1	1.025564E+0	1.029632E+0	9.764526E-1	9.939079E-1	1.051715E+0	1.042067E+0	1.021892E+0	1.026357E+0	1.000214E+0	1.039043E+0	1.040398E+0	1.053664E+0	1.001597E+0	1.003501E+0	1.088226E+0	9.972176E-1	9.980929E-1	1.044913E+0	1.049362E+0	9.725608E-1	1.006930E+0	9.804836E-1	1.029301E+0	9.801012E-1
5.557600E+2	1.021147E+0	1.035054E+0	1.009123E+0	1.004445E+0	1.025862E+0	1.005468E+0	1.032660E+0	1.041588E+0	1.014506E+0	9.549012E-1	9.920619E-1	9.995407E-1	9.917227E-1	1.057453E+0	9.804703E-1	1.004564E+0	1.032873E+0	1.015411E+0	1.034855E+0	9.686190E-1	1.032536E+0	1.024413E+0	9.731156E-1	9.957015E-1	1.013424E+0	1.016888E+0	9.960471E-1	1.023499E+0	9.725073E-1	9.982906E-1	1.006091E+0	1.027628E+0	1.029496E+0	9.796066E-1	9.956236E-1	1.004743E+0	1.020536E+0	1.015963E+0	1.036958E+0	1.023638E+0	1.054703E+0	9.995958E-1	9.926222E-1	1.007663E+0	1.040761E+0	1.038428E+0	1.053873E+0	9.811723E-1	9.903877E-1	9.936843E-1	1.020309E+0	9.934364E-1	1.047345E+0	1.038449E+0	9.701918E-1	1.027350E+0	1.022164E+0	1.039326E+0	9.928996E-1	9.786962E-1	9.881166E-1	1.018085E+0	1.011846E+0	9.925766E-1	9.510191E-1	9.729851E-1	9.973575E-1	1.009036E+0	1.025753E+0	1.012467E+0	1.004983E+0	1.022674E+0	9.973724E-1	9.840231E-1	9.836459E-1	1.068284E+0	1.021697E+0	9.977495E-1	1.043047E+0	1.025377E+0	1.007415E+0	9.843522E-1	1.017918E+0	1.048694E+0	9.736092E-1	9.879173E-1	1.029951E+0	9.976052E-1	9.979156E-1	1.012929E+0	1.006192E+0	1.054524E+0	9.944271E-1	1.003745E+0	9.986484E-1	1.029296E+0	1.006116E+0	9.923962E-1	9.557611E-1	9.646841E-1	1.016642E+0	9.919090E-1	1.011751E+0	9.896636E-1	1.055006E+0	9.858881E-1	1.001407E+0	9.813314E-1	1.004116E+0	1.006394E+0	1.003050E+0	1.000116E+0	1.025655E+0	1.043566E+0	9.575738E-1	9.973780E-1	1.048713E+0	1.000744E+0	1.006210E+0	9.516595E-1	1.062773E+0	9.722291E-1	9.510997E-1	1.015467E+0	1.047537E+0	9.942770E-1	1.006312E+0	9.725004E-1	9.993915E-1	9.735281E-1	1.018552E+0	1.013327E+0	1.058336E+0	9.959821E-1	1.002196E+0	1.026145E+0	1.011285E+0	9.726973E-1	1.006199E+0	1.034784E+0	9.632115E-1	1.000559E+0	1.019194E+0	1.014449E+0	9.931760E-1	9.969293E-1	9.862822E-1	1.014349E+0	1.013740E+0	1.019835E+0	9.922622E-1	9.868812E-1	9.800312E-1	1.018074E+0	1.033645E+0	1.047134E+0	1.005308E+0	1.039834E+0	1.020557E+0	1.040000E+0	1.034576E+0	9.839388E-1	1.043274E+0	9.936606E-1	1.007536E+0	9.991558E-1	1.063679E+0	1.018362E+0	1.146389E+0	9.985517E-1
5.560190E+2	9.944532E-1	1.009641E+0	1.003226E+0	9.870649E-1	1.046680E+0	9.864881E-1	1.017246E+0	9.861459E-1	9.617095E-1	1.009821E+0	9.707224E-1	1.017906E+0	1.006498E+0	9.986837E-1	9.769316E-1	1.023746E+0	1.026073E+0	1.009293E+0	9.499131E-1	1.037317E+0	1.018333E+0	9.988230E-1	1.020318E+0	9.892556E-1	9.952305E-1	9.946405E-1	1.012085E+0	9.617168E-1	9.971973E-1	9.967866E-1	1.027482E+0	1.010258E+0	9.736112E-1	9.852951E-1	9.703173E-1	1.020305E+0	1.010500E+0	1.019300E+0	9.919239E-1	1.023541E+0	1.003410E+0	9.672096E-1	9.636860E-1	1.027868E+0	1.034635E+0	1.020063E+0	1.058618E+0	9.970525E-1	1.017548E+0	1.040318E+0	9.648962E-1	1.012658E+0	1.009675E+0	9.281920E-1	1.002456E+0	1.038104E+0	1.005846E+0	9.575301E-1	9.511196E-1	9.914686E-1	1.043403E+0	9.863971E-1	9.935534E-1	9.877712E-1	1.008077E+0	9.888378E-1	1.037265E+0	1.000419E+0	9.884574E-1	9.985065E-1	9.803420E-1	9.879964E-1	1.025419E+0	9.692241E-1	9.650133E-1	1.001145E+0	9.901702E-1	9.632487E-1	1.040208E+0	1.027909E+0	1.030679E+0	1.053290E+0	1.000381E+0	9.774615E-1	9.689969E-1	1.026188E+0	1.009495E+0	9.983780E-1	1.027884E+0	9.882132E-1	1.004262E+0	1.006553E+0	9.931272E-1	9.837603E-1	9.894987E-1	1.033551E+0	1.039640E+0	9.930067E-1	1.005175E+0	9.498685E-1	1.031236E+0	9.811857E-1	9.876922E-1	9.668953E-1	1.005835E+0	1.006873E+0	9.506867E-1	1.021257E+0	9.646621E-1	1.001559E+0	1.003167E+0	1.011450E+0	1.022687E+0	1.010806E+0	1.020135E+0	1.022551E+0	9.838131E-1	1.026309E+0	1.013809E+0	9.956659E-1	1.027540E+0	9.862002E-1	9.641476E-1	9.963488E-1	1.007782E+0	9.882181E-1	1.014708E+0	9.863460E-1	1.020389E+0	1.005984E+0	1.054381E+0	1.014473E+0	9.627264E-1	9.905352E-1	9.561743E-1	9.942326E-1	9.675444E-1	9.820458E-1	9.906250E-1	9.715810E-1	1.014365E+0	1.004797E+0	1.010542E+0	9.722269E-1	9.928833E-1	9.863181E-1	9.744718E-1	1.001359E+0	1.015030E+0	1.003639E+0	9.809056E-1	9.676810E-1	1.016606E+0	9.799390E-1	9.952764E-1	9.755497E-1	9.948596E-1	1.045641E+0	1.036964E+0	1.003338E+0	1.027528E+0	1.010991E+0	9.982832E-1	9.972828E-1	1.049983E+0	1.041687E+0	1.011276E+0	9.978070E-1	9.668836E-1	1.050346E+0
5.565370E+2	9.471138E-1	9.745732E-1	9.504479E-1	9.307014E-1	9.492591E-1	9.008659E-1	9.076107E-1	9.068719E-1	9.576493E-1	9.202476E-1	9.172066E-1	9.436441E-1	9.625178E-1	8.983287E-1	9.446126E-1	9.313085E-1	9.438121E-1	9.048899E-1	9.047685E-1	9.647577E-1	9.726789E-1	8.961782E-1	9.665676E-1	9.073121E-1	9.127798E-1	9.216847E-1	9.157364E-1	9.664461E-1	8.921748E-1	9.295284E-1	9.222477E-1	9.454869E-1	9.971421E-1	9.250172E-1	9.363140E-1	9.062015E-1	9.504110E-1	9.182034E-1	9.389748E-1	9.608835E-1	9.608778E-1	9.789471E-1	9.405604E-1	9.764588E-1	8.783587E-1	9.539288E-1	9.454153E-1	9.475902E-1	9.532095E-1	9.451479E-1	9.532226E-1	9.459257E-1	9.720482E-1	8.964754E-1	9.471561E-1	9.255063E-1	9.355086E-1	9.137397E-1	1.004143E+0	9.327745E-1	9.722176E-1	9.795621E-1	9.624322E-1	9.532940E-1	9.571670E-1	9.768093E-1	8.989139E-1	9.402120E-1	9.709279E-1	9.411190E-1	9.412406E-1	9.108083E-1	9.286787E-1	9.475258E-1	9.235668E-1	9.359159E-1	9.630376E-1	9.654570E-1	9.423672E-1	9.313319E-1	9.492112E-1	9.631380E-1	9.735084E-1	9.524365E-1	9.828252E-1	9.076155E-1	9.094303E-1	9.405437E-1	9.385315E-1	9.482548E-1	9.296041E-1	9.504144E-1	9.455558E-1	9.637143E-1	9.298833E-1	9.066335E-1	9.491381E-1	9.109944E-1	9.500317E-1	9.326814E-1	9.245647E-1	9.299464E-1	9.265662E-1	9.094315E-1	9.386706E-1	9.598768E-1	9.410383E-1	9.696042E-1	9.542027E-1	9.098707E-1	9.319194E-1	9.834711E-1	9.478224E-1	9.050966E-1	9.240488E-1	9.528365E-1	9.518975E-1	9.490127E-1	9.525351E-1	9.358540E-1	9.417820E-1	9.476313E-1	9.149592E-1	9.410130E-1	9.395135E-1	9.529125E-1	9.582693E-1	9.250631E-1	9.514791E-1	9.072815E-1	9.372635E-1	9.433971E-1	9.849251E-1	9.604897E-1	9.223138E-1	9.480378E-1	9.347277E-1	9.186979E-1	9.764550E-1	9.236153E-1	9.139808E-1	9.435129E-1	9.185408E-1	9.271842E-1	9.481333E-1	9.646145E-1	9.434553E-1	9.516440E-1	9.711229E-1	9.325242E-1	9.229882E-1	9.480005E-1	9.635195E-1	9.249456E-1	9.699625E-1	9.486485E-1	9.677249E-1	9.481273E-1	9.501644E-1	9.366294E-1	9.258505E-1	8.830493E-1	9.517475E-1	9.627050E-1	9.421931E-1	9.000533E-1	9.281022E-1	9.671234E-1	8.836671E-1	8.939727E-1
5.570050E+2	9.887287E-1	1.049096E+0	9.940184E-1	1.058975E+0	1.024557E+0	1.042130E+0	1.056909E+0	9.538217E-1	1.046219E+0	1.019786E+0	1.048991E+0	1.067336E+0	1.023606E+0	1.048160E+0	1.055402E+0	1.029590E+0	1.027389E+0	1.053838E+0	1.014743E+0	1.024712E+0	1.018916E+0	1.037637E+0	1.087087E+0	1.069029E+0	1.054726E+0	1.026276E+0	1.019908E+0	1.045882E+0	1.014087E+0	1.039248E+0	1.007580E+0	1.037742E+0	1.040082E+0	1.049651E+0	1.011937E+0	9.842348E-1	1.022342E+0	1.006914E+0	1.051571E+0	1.074713E+0	1.061293E+0	9.980281E-1	1.030296E+0	9.847751E-1	1.005410E+0	1.031877E+0	9.935369E-1	1.047396E+0	1.086358E+0	1.028114E+0	1.022346E+0	9.897851E-1	1.034608E+0	1.027575E+0	1.044312E+0	9.888504E-1	9.976575E-1	1.055443E+0	9.922554E-1	1.015608E+0	1.028296E+0	1.022659E+0	1.002001E+0	1.054990E+0	1.054578E+0	1.031258E+0	1.046278E+0	1.003709E+0	1.037543E+0	1.028115E+0	1.050852E+0	1.010827E+0	1.070816E+0	1.029186E+0	1.041505E+0	1.066237E+0	1.033531E+0	1.052143E+0	1.015305E+0	1.034957E+0	1.029054E+0	1.037729E+0	9.963875E-1	1.016299E+0	1.013218E+0	1.042209E+0	1.032767E+0	1.030227E+0	1.047608E+0	1.037355E+0	1.045235E+0	1.000837E+0	1.018874E+0	1.009690E+0	1.054647E+0	1.027307E+0	1.015489E+0	1.043667E+0	1.110767E+0	1.077362E+0	1.048883E+0	1.021655E+0	1.020176E+0	1.030772E+0	1.028841E+0	1.024568E+0	1.028648E+0	1.021869E+0	1.025635E+0	1.044073E+0	1.082304E+0	1.012515E+0	1.010003E+0	1.032855E+0	1.036101E+0	1.029047E+0	1.031424E+0	1.023312E+0	1.014216E+0	1.019152E+0	1.035606E+0	1.000188E+0	1.037530E+0	1.043661E+0	1.051474E+0	9.927828E-1	1.049278E+0	1.008415E+0	1.070295E+0	1.032394E+0	1.063914E+0	9.979022E-1	1.019683E+0	9.945525E-1	1.065353E+0	1.020041E+0	9.999792E-1	1.043197E+0	1.022666E+0	1.072792E+0	1.037593E+0	1.066592E+0	1.063920E+0	1.021567E+0	9.966222E-1	1.024671E+0	1.028271E+0	1.048045E+0	1.010739E+0	1.029333E+0	1.025559E+0	1.049553E+0	9.820051E-1	1.023490E+0	9.769543E-1	1.031938E+0	1.039143E+0	1.053646E+0	1.018105E+0	1.032167E+0	1.052032E+0	1.068481E+0	1.004018E+0	1.023646E+0	1.019858E+0	1.028615E+0	1.035992E+0	1.022769E+0	1.032626E+0	1.012918E+0
5.575130E+2	1.059822E+0	1.042895E+0	1.023087E+0	1.033045E+0	1.014722E+0	1.021822E+0	1.053213E+0	1.049707E+0	1.074264E+0	1.046264E+0	1.032020E+0	9.618085E-1	1.040558E+0	1.049454E+0	1.033690E+0	1.068120E+0	1.038441E+0	1.026420E+0	1.089973E+0	1.013606E+0	1.043343E+0	1.073207E+0	1.026866E+0	1.009680E+0	1.040125E+0	1.045575E+0	1.036785E+0	1.059400E+0	1.077795E+0	1.009873E+0	1.037202E+0	9.989627E-1	1.036107E+0	1.031652E+0	1.002050E+0	1.012674E+0	1.024200E+0	1.047983E+0	1.036768E+0	1.034220E+0	1.033986E+0	1.053402E+0	1.013500E+0	9.990725E-1	1.034544E+0	1.017066E+0	1.025802E+0	1.005300E+0	1.057711E+0	1.031188E+0	9.873577E-1	1.072157E+0	1.062982E+0	1.035353E+0	1.001117E+0	1.057076E+0	1.026296E+0	1.016643E+0	1.033090E+0	1.052210E+0	9.724779E-1	1.021255E+0	9.993147E-1	1.029896E+0	1.023404E+0	9.815647E-1	1.006019E+0	1.048965E+0	1.032296E+0	1.062134E+0	1.077832E+0	1.089879E+0	1.020588E+0	1.006471E+0	1.045909E+0	1.048381E+0	1.062679E+0	9.886658E-1	1.008879E+0	1.093409E+0	1.069164E+0	1.041169E+0	1.021919E+0	1.062620E+0	1.047828E+0	1.077738E+0	1.054573E+0	1.016904E+0	1.052411E+0	1.054840E+0	1.055979E+0	1.016720E+0	1.015182E+0	1.028586E+0	9.996716E-1	1.063016E+0	1.033255E+0	1.040704E+0	1.026452E+0	1.050089E+0	1.059129E+0	1.022527E+0	9.889892E-1	1.037398E+0	1.044368E+0	1.033035E+0	1.028426E+0	1.071977E+0	1.045674E+0	1.006479E+0	1.017932E+0	1.015089E+0	1.055025E+0	1.015362E+0	1.055194E+0	1.026320E+0	1.019544E+0	1.025953E+0	1.041667E+0	1.037103E+0	1.055375E+0	1.055972E+0	1.046709E+0	1.036669E+0	1.056063E+0	1.000079E+0	1.049545E+0	1.028494E+0	9.826811E-1	1.024064E+0	9.625111E-1	1.056762E+0	1.029512E+0	1.043072E+0	9.932773E-1	1.013830E+0	1.024296E+0	1.085439E+0	1.014617E+0	9.855617E-1	1.033897E+0	1.073466E+0	9.920902E-1	1.012864E+0	1.059450E+0	1.059884E+0	1.041614E+0	1.019424E+0	1.047966E+0	1.043364E+0	1.029413E+0	1.008634E+0	1.046282E+0	1.054193E+0	1.037812E+0	1.032587E+0	1.012373E+0	1.016086E+0	1.052452E+0	1.057044E+0	1.055955E+0	1.045160E+0	1.028916E+0	1.020859E+0	1.044860E+0	1.044700E+0	1.064515E+0	1.074669E+0	1.026894E+0	1.116233E+0
5.580570E+2	9.911827E-1	9.608295E-1	9.760892E-1	9.716834E-1	9.415680E-1	9.577984E-1	9.779719E-1	9.985805E-1	9.325492E-1	9.414196E-1	9.880704E-1	9.604054E-1	9.481641E-1	9.794887E-1	9.716222E-1	9.728637E-1	9.795002E-1	9.853152E-1	9.844011E-1	9.709428E-1	9.492533E-1	9.645272E-1	9.604811E-1	9.722369E-1	1.011932E+0	9.803953E-1	9.699576E-1	9.314521E-1	9.188282E-1	9.446805E-1	9.961039E-1	9.871686E-1	9.629303E-1	9.356549E-1	9.483015E-1	1.033420E+0	9.982371E-1	9.902840E-1	9.835903E-1	9.406823E-1	9.542976E-1	1.018100E+0	9.763182E-1	9.752932E-1	1.002237E+0	9.541013E-1	9.763452E-1	9.580406E-1	9.751348E-1	1.000933E+0	9.605508E-1	9.321415E-1	9.638162E-1	1.001522E+0	9.752105E-1	9.692214E-1	9.644076E-1	1.031484E+0	9.521914E-1	9.399588E-1	9.894957E-1	9.855780E-1	9.725363E-1	9.760110E-1	9.722098E-1	9.652167E-1	9.779044E-1	9.261949E-1	9.743998E-1	9.642211E-1	9.371975E-1	9.512942E-1	9.843262E-1	9.762705E-1	9.757782E-1	9.815319E-1	9.735464E-1	9.430033E-1	9.501325E-1	9.616570E-1	9.855456E-1	9.631442E-1	9.521676E-1	9.765455E-1	9.962380E-1	9.460130E-1	9.596794E-1	9.625966E-1	9.631956E-1	9.798452E-1	9.914407E-1	9.449914E-1	9.872877E-1	9.308432E-1	9.762034E-1	9.785288E-1	9.946249E-1	9.791229E-1	9.849521E-1	9.739642E-1	9.877189E-1	1.007687E+0	9.625713E-1	9.518470E-1	9.876285E-1	9.805407E-1	9.610039E-1	9.608326E-1	9.699781E-1	9.294687E-1	9.634808E-1	9.729361E-1	9.846419E-1	9.808840E-1	9.687938E-1	9.722045E-1	9.608493E-1	9.435571E-1	9.842608E-1	9.740536E-1	9.724515E-1	9.518020E-1	9.825293E-1	9.651778E-1	9.444267E-1	9.965887E-1	9.383640E-1	9.499205E-1	1.010507E+0	9.629953E-1	9.866607E-1	9.759392E-1	9.738348E-1	9.237560E-1	9.932269E-1	9.542557E-1	9.838650E-1	9.669108E-1	9.929635E-1	9.811075E-1	9.472315E-1	9.729540E-1	9.606145E-1	9.613344E-1	1.013182E+0	9.217490E-1	9.574737E-1	9.848709E-1	9.887552E-1	9.726656E-1	9.660275E-1	9.521277E-1	1.001298E+0	1.002382E+0	1.019780E+0	9.888077E-1	1.003313E+0	9.417994E-1	9.561125E-1	9.772512E-1	9.327186E-1	9.461524E-1	9.225306E-1	1.020645E+0	9.370674E-1	9.473368E-1	1.015425E+0	9.295043E-1	9.432510E-1	9.712810E-1
5.585270E+2	1.026606E+0	1.058078E+0	1.037891E+0	1.058557E+0	1.002880E+0	1.044065E+0	1.006398E+0	1.055860E+0	1.016258E+0	1.022081E+0	9.910575E-1	1.071925E+0	1.044351E+0	1.050707E+0	1.019813E+0	1.004663E+0	1.014753E+0	1.006872E+0	1.038918E+0	1.059782E+0	1.014054E+0	1.001264E+0	1.045922E+0	9.940040E-1	9.996359E-1	1.004764E+0	1.042949E+0	1.040730E+0	1.044797E+0	9.832172E-1	1.048028E+0	1.014046E+0	1.033575E+0	1.058741E+0	1.055938E+0	1.039770E+0	1.006345E+0	1.033818E+0	1.034715E+0	1.018090E+0	9.964121E-1	9.924920E-1	1.033613E+0	1.039844E+0	1.047507E+0	1.086283E+0	1.006714E+0	1.044936E+0	1.008564E+0	1.021404E+0	1.049927E+0	1.032488E+0	1.040248E+0	9.928207E-1	1.034873E+0	1.050312E+0	1.029537E+0	1.054455E+0	1.015210E+0	1.012923E+0	1.033296E+0	1.029824E+0	1.079929E+0	1.022704E+0	1.028965E+0	1.022380E+0	1.049405E+0	1.066016E+0	1.023701E+0	1.014369E+0	1.071253E+0	1.004083E+0	1.020055E+0	1.000297E+0	1.018542E+0	1.034467E+0	1.001885E+0	1.012116E+0	1.038002E+0	1.008035E+0	9.934163E-1	9.986931E-1	1.019147E+0	1.011525E+0	1.055959E+0	1.028525E+0	1.035829E+0	1.036963E+0	1.015088E+0	1.019474E+0	1.019926E+0	1.038606E+0	1.056790E+0	1.054300E+0	1.046108E+0	1.020314E+0	1.019668E+0	1.002149E+0	1.017792E+0	1.020413E+0	1.032992E+0	9.785737E-1	1.043780E+0	1.029701E+0	1.053849E+0	1.057989E+0	1.051450E+0	1.034936E+0	1.032256E+0	1.005327E+0	1.011378E+0	1.027925E+0	1.035380E+0	1.011085E+0	1.004212E+0	1.024945E+0	1.016709E+0	1.051159E+0	1.031266E+0	1.002197E+0	1.030797E+0	1.020853E+0	1.041184E+0	1.016558E+0	1.019271E+0	1.034963E+0	1.032987E+0	1.038547E+0	1.044730E+0	1.019352E+0	1.007194E+0	1.026478E+0	1.034170E+0	1.038840E+0	9.848079E-1	1.037762E+0	1.014343E+0	1.021459E+0	1.005278E+0	1.021919E+0	1.000249E+0	9.774905E-1	1.007708E+0	1.078906E+0	9.952336E-1	1.055590E+0	1.000928E+0	9.848989E-1	1.040201E+0	1.015519E+0	1.033040E+0	1.033028E+0	1.043093E+0	1.059949E+0	1.023891E+0	1.004229E+0	1.000432E+0	1.047106E+0	1.027561E+0	1.024585E+0	1.020792E+0	1.007127E+0	1.049434E+0	9.988461E-1	1.065302E+0	1.029648E+0	1.018698E+0	1.042896E+0	1.013341E+0	1.161768E+0
5.590390E+2	9.925547E-1	1.002114E+0	1.017077E+0	1.047939E+0	1.013046E+0	1.011710E+0	9.735672E-1	9.944226E-1	9.762578E-1	1.038067E+0	1.019783E+0	9.898529E-1	1.005928E+0	1.022437E+0	1.000694E+0	1.002735E+0	1.018245E+0	1.022250E+0	1.043484E+0	9.939862E-1	1.002531E+0	1.005315E+0	9.812260E-1	1.036285E+0	1.010227E+0	1.022683E+0	9.692163E-1	1.053083E+0	1.009414E+0	1.016605E+0	1.003676E+0	1.008231E+0	9.905114E-1	9.788711E-1	1.029600E+0	1.015777E+0	1.001471E+0	1.036291E+0	9.866444E-1	1.022385E+0	9.575754E-1	1.033563E+0	1.000702E+0	1.013759E+0	1.036533E+0	9.820161E-1	1.010521E+0	1.017852E+0	1.007325E+0	9.973031E-1	1.015893E+0	1.022484E+0	1.000791E+0	1.033479E+0	9.987285E-1	1.010640E+0	9.825190E-1	1.062833E+0	9.888318E-1	1.041759E+0	9.974181E-1	9.845925E-1	1.032307E+0	1.010274E+0	9.979521E-1	1.030634E+0	1.027799E+0	1.068828E+0	1.006793E+0	1.031817E+0	1.001615E+0	1.055550E+0	9.986322E-1	9.983561E-1	9.906750E-1	1.021559E+0	9.892698E-1	1.035570E+0	1.008589E+0	9.799136E-1	1.015545E+0	1.038768E+0	9.765057E-1	1.027979E+0	9.861811E-1	1.045998E+0	9.956860E-1	9.938348E-1	9.851462E-1	1.021388E+0	1.022687E+0	1.056220E+0	1.003359E+0	1.022055E+0	1.007216E+0	1.011182E+0	9.922300E-1	1.002624E+0	9.862222E-1	1.025931E+0	1.012531E+0	9.955241E-1	9.871521E-1	9.955629E-1	9.635286E-1	9.866840E-1	1.022235E+0	9.906627E-1	1.017802E+0	1.013638E+0	1.021266E+0	9.992805E-1	9.816814E-1	1.032504E+0	1.006571E+0	9.975137E-1	1.001424E+0	9.802287E-1	1.006596E+0	1.021888E+0	1.036580E+0	1.029914E+0	9.997357E-1	9.726830E-1	1.012945E+0	1.032372E+0	1.034462E+0	1.020961E+0	9.858603E-1	1.035720E+0	1.046598E+0	1.040078E+0	1.052680E+0	1.043911E+0	1.033353E+0	1.022647E+0	1.056179E+0	1.017577E+0	1.022962E+0	1.086047E+0	1.041596E+0	9.834126E-1	1.026580E+0	1.021832E+0	1.049402E+0	9.815353E-1	9.939812E-1	1.020767E+0	1.022485E+0	9.905568E-1	1.011906E+0	9.779597E-1	1.000749E+0	1.036384E+0	1.010782E+0	1.017070E+0	9.718939E-1	1.024462E+0	9.977450E-1	9.921280E-1	9.954242E-1	9.796524E-1	1.055062E+0	1.015106E+0	1.016307E+0	9.982743E-1	1.032781E+0	1.023791E+0	1.059505E+0	1.074063E+0
5.595220E+2	9.544480E-1	9.226094E-1	9.539304E-1	9.179578E-1	1.011372E+0	9.836298E-1	9.653546E-1	9.566316E-1	9.948269E-1	9.504264E-1	9.542599E-1	9.476278E-1	9.217019E-1	9.686519E-1	9.004787E-1	9.253658E-1	9.702310E-1	9.521434E-1	9.633824E-1	9.484040E-1	9.542860E-1	9.491853E-1	9.409485E-1	9.731092E-1	9.451562E-1	9.464064E-1	9.511170E-1	9.158621E-1	9.526074E-1	9.633745E-1	9.561470E-1	9.759067E-1	9.172097E-1	9.480738E-1	9.747243E-1	9.546459E-1	9.453426E-1	9.368089E-1	9.369735E-1	9.543420E-1	9.661462E-1	9.243553E-1	9.497975E-1	9.563295E-1	9.641470E-1	9.015617E-1	9.728184E-1	9.774436E-1	9.283477E-1	9.599010E-1	9.493752E-1	1.008133E+0	9.536319E-1	9.858156E-1	9.679220E-1	9.223327E-1	9.724220E-1	9.190911E-1	9.539802E-1	9.192754E-1	9.809943E-1	9.764246E-1	9.236635E-1	9.548647E-1	9.547565E-1	9.545517E-1	9.570004E-1	9.693847E-1	9.242125E-1	9.487951E-1	9.783949E-1	9.597553E-1	9.690357E-1	9.833539E-1	9.670531E-1	9.256975E-1	9.971493E-1	9.830867E-1	9.525316E-1	9.155414E-1	9.455843E-1	9.519025E-1	9.332754E-1	9.649375E-1	9.565376E-1	9.504508E-1	9.802834E-1	9.639716E-1	9.362847E-1	9.540592E-1	9.443209E-1	9.724058E-1	9.401141E-1	9.222909E-1	9.784299E-1	9.599279E-1	9.868071E-1	9.633566E-1	9.374765E-1	9.241759E-1	9.469661E-1	9.956546E-1	9.321993E-1	9.593706E-1	9.314389E-1	9.562007E-1	9.451282E-1	9.395195E-1	9.507195E-1	9.924838E-1	9.694414E-1	9.742375E-1	9.225128E-1	9.601119E-1	9.482795E-1	9.488395E-1	1.009948E+0	9.875317E-1	9.351122E-1	1.004941E+0	9.397045E-1	9.607577E-1	9.930259E-1	9.570401E-1	9.528415E-1	9.696411E-1	8.978593E-1	9.643438E-1	9.557715E-1	9.594530E-1	9.633731E-1	9.192055E-1	9.261838E-1	9.686686E-1	9.784579E-1	9.672149E-1	9.705375E-1	9.659377E-1	9.519683E-1	9.455922E-1	9.594429E-1	9.644945E-1	9.518926E-1	9.576550E-1	8.927371E-1	9.695691E-1	9.822127E-1	9.293699E-1	9.278242E-1	9.632947E-1	9.529974E-1	9.679073E-1	9.616984E-1	9.098194E-1	9.393458E-1	9.831343E-1	9.791941E-1	9.571605E-1	9.338353E-1	9.593873E-1	9.517233E-1	9.528637E-1	9.732938E-1	9.525695E-1	9.290277E-1	9.819663E-1	9.368802E-1	9.089079E-1	9.886163E-1	9.683605E-1
5.600070E+2	1.056499E+0	1.032964E+0	9.973209E-1	1.044559E+0	1.013696E+0	1.003934E+0	1.047667E+0	1.072885E+0	9.851600E-1	1.038557E+0	1.022611E+0	1.061849E+0	1.062746E+0	1.011632E+0	9.952942E-1	1.015778E+0	1.047417E+0	1.021203E+0	1.002425E+0	1.052856E+0	1.002453E+0	1.054305E+0	1.014489E+0	1.033271E+0	1.048606E+0	1.057787E+0	1.023607E+0	1.043203E+0	1.068730E+0	1.103296E+0	9.871399E-1	1.045881E+0	1.035594E+0	9.931074E-1	1.059652E+0	1.019660E+0	1.028017E+0	1.040791E+0	1.007607E+0	1.016471E+0	1.065912E+0	1.018981E+0	1.036264E+0	1.070082E+0	1.028807E+0	1.013728E+0	1.033014E+0	1.016430E+0	1.005478E+0	1.017714E+0	1.043083E+0	1.028415E+0	9.868588E-1	1.011937E+0	1.044726E+0	1.052660E+0	1.026648E+0	1.041957E+0	1.034225E+0	1.031539E+0	1.053553E+0	1.009541E+0	1.021820E+0	1.030189E+0	1.009516E+0	1.014349E+0	9.942266E-1	9.938059E-1	1.049182E+0	1.043726E+0	9.702167E-1	1.031245E+0	1.062724E+0	1.022159E+0	1.038951E+0	1.019356E+0	9.947474E-1	1.020946E+0	1.016822E+0	1.030719E+0	9.926064E-1	1.001504E+0	1.037109E+0	1.031296E+0	1.021432E+0	1.033104E+0	9.914278E-1	1.040504E+0	1.080609E+0	1.016630E+0	9.937244E-1	1.028472E+0	1.010670E+0	1.053860E+0	1.014377E+0	1.054485E+0	1.054567E+0	1.011158E+0	9.912425E-1	1.022915E+0	9.946461E-1	1.043091E+0	1.099994E+0	1.063028E+0	1.039734E+0	1.023449E+0	1.005289E+0	1.018059E+0	1.033256E+0	1.047349E+0	1.041843E+0	1.042258E+0	1.056801E+0	1.042826E+0	1.028235E+0	1.047565E+0	1.018386E+0	1.031774E+0	1.057702E+0	1.005869E+0	1.015851E+0	1.063013E+0	1.030222E+0	1.063074E+0	1.011947E+0	1.004027E+0	1.017843E+0	1.033735E+0	1.045332E+0	1.039962E+0	1.028040E+0	1.045201E+0	1.020181E+0	1.002026E+0	1.043166E+0	1.039602E+0	1.010217E+0	9.915459E-1	9.837522E-1	1.036680E+0	1.053430E+0	1.009879E+0	1.060646E+0	1.038786E+0	1.053827E+0	1.064840E+0	1.008793E+0	1.056870E+0	1.007227E+0	1.051935E+0	1.064840E+0	1.067285E+0	1.037152E+0	1.004411E+0	1.008485E+0	9.806689E-1	1.085582E+0	9.989626E-1	1.049239E+0	9.954425E-1	1.037546E+0	1.083402E+0	1.026975E+0	1.021482E+0	1.046620E+0	1.093400E+0	1.031776E+0	1.035413E+0	1.062215E+0	1.011370E+0
5.605260E+2	1.029363E+0	9.991419E-1	1.044315E+0	1.030348E+0	1.037250E+0	1.065591E+0	1.051228E+0	1.029841E+0	1.083383E+0	1.026906E+0	1.063026E+0	1.038231E+0	1.015734E+0	1.041894E+0	1.109314E+0	1.069939E+0	9.995109E-1	1.038781E+0	1.026573E+0	1.056732E+0	1.053371E+0	1.063250E+0	1.023550E+0	1.059790E+0	1.024297E+0	1.047736E+0	1.056571E+0	1.001135E+0	1.056489E+0	1.036082E+0	1.076373E+0	1.041434E+0	1.034061E+0	1.036199E+0	1.043533E+0	1.084310E+0	1.075150E+0	1.047110E+0	1.099621E+0	1.011409E+0	1.023516E+0	1.023486E+0	1.044544E+0	1.013088E+0	1.045732E+0	1.060631E+0	1.024660E+0	1.038916E+0	1.033147E+0	1.041954E+0	1.072423E+0	1.025401E+0	1.055794E+0	1.066258E+0	1.038706E+0	1.055191E+0	1.076666E+0	9.845209E-1	1.048795E+0	1.069241E+0	9.869996E-1	1.024774E+0	1.072834E+0	1.053012E+0	1.007563E+0	1.054062E+0	1.065745E+0	1.001862E+0	1.024309E+0	1.027575E+0	1.041757E+0	1.019205E+0	1.014313E+0	1.035954E+0	1.045483E+0	1.009937E+0	1.028683E+0	1.061904E+0	1.081270E+0	1.050938E+0	1.066468E+0	1.049321E+0	1.086343E+0	9.708106E-1	1.018792E+0	1.045921E+0	1.069427E+0	1.057338E+0	1.015678E+0	1.045325E+0	1.017515E+0	1.023672E+0	1.062906E+0	1.088644E+0	1.016639E+0	1.048656E+0	1.005960E+0	1.087101E+0	1.030678E+0	1.048239E+0	1.082783E+0	1.011879E+0	1.058145E+0	1.061809E+0	1.055172E+0	1.051606E+0	1.044914E+0	1.004241E+0	1.022960E+0	1.066036E+0	9.840639E-1	1.033229E+0	1.053491E+0	1.077926E+0	1.083068E+0	1.036605E+0	1.027485E+0	1.052228E+0	1.035649E+0	1.026032E+0	1.016827E+0	1.020648E+0	1.048595E+0	1.032752E+0	1.026796E+0	1.010946E+0	1.045418E+0	1.060869E+0	1.020612E+0	1.032987E+0	1.031971E+0	1.053474E+0	1.020498E+0	1.078780E+0	1.026144E+0	1.049998E+0	1.031225E+0	1.024973E+0	1.071427E+0	1.016013E+0	1.023568E+0	1.036238E+0	1.037230E+0	1.025947E+0	1.043788E+0	9.944014E-1	1.058825E+0	1.026206E+0	1.065172E+0	1.044867E+0	1.024825E+0	1.031930E+0	1.009853E+0	1.038596E+0	1.032293E+0	1.040455E+0	1.004814E+0	1.052572E+0	1.040108E+0	1.034666E+0	1.079980E+0	1.066923E+0	1.056332E+0	1.061686E+0	1.053563E+0	1.010082E+0	9.946768E-1	1.032622E+0	1.034129E+0	8.911519E-1
5.610010E+2	9.536832E-1	9.576999E-1	1.005824E+0	9.062343E-1	9.916499E-1	9.684543E-1	9.600816E-1	9.813775E-1	9.334325E-1	9.962462E-1	9.629757E-1	9.573208E-1	9.746926E-1	9.292471E-1	9.690799E-1	9.796374E-1	9.607013E-1	9.882862E-1	9.313316E-1	9.142207E-1	9.891135E-1	9.551314E-1	9.528623E-1	9.452835E-1	9.525143E-1	9.466930E-1	1.014153E+0	9.428059E-1	9.650777E-1	9.740958E-1	9.655035E-1	9.451425E-1	9.527874E-1	1.043033E+0	9.379501E-1	9.493059E-1	9.484839E-1	9.417953E-1	9.235369E-1	9.668040E-1	9.799835E-1	9.586462E-1	9.744054E-1	9.712972E-1	9.567231E-1	9.988064E-1	1.011173E+0	9.460945E-1	9.447250E-1	9.563414E-1	9.458227E-1	9.430707E-1	9.292216E-1	9.487643E-1	9.472486E-1	9.682090E-1	9.883376E-1	9.198328E-1	9.772777E-1	9.847115E-1	9.852515E-1	9.657898E-1	9.331629E-1	9.147653E-1	9.938894E-1	9.691747E-1	9.767085E-1	9.810229E-1	9.566357E-1	9.381281E-1	9.296402E-1	9.673525E-1	9.308305E-1	1.000427E+0	9.525368E-1	9.569181E-1	9.554717E-1	9.371083E-1	9.861033E-1	9.934990E-1	9.534039E-1	9.546321E-1	1.003637E+0	9.855495E-1	9.209898E-1	9.224258E-1	9.708971E-1	9.571184E-1	9.654475E-1	9.228286E-1	9.795689E-1	9.676621E-1	9.592617E-1	9.260153E-1	9.768248E-1	9.299495E-1	9.482615E-1	9.591225E-1	9.643855E-1	9.242306E-1	9.097871E-1	9.934618E-1	9.804254E-1	9.610802E-1	9.567701E-1	9.260501E-1	9.718663E-1	9.882991E-1	9.475171E-1	9.852756E-1	9.763712E-1	9.390590E-1	9.526415E-1	9.413501E-1	9.454963E-1	9.641235E-1	9.623333E-1	9.552439E-1	9.409972E-1	9.729115E-1	9.550267E-1	9.492209E-1	9.055090E-1	9.713732E-1	9.847225E-1	1.005689E+0	9.759733E-1	9.696515E-1	9.327317E-1	9.857914E-1	9.724749E-1	9.415635E-1	9.383322E-1	9.459030E-1	9.599000E-1	9.466125E-1	9.746303E-1	9.642624E-1	9.579115E-1	9.306713E-1	9.890129E-1	9.719611E-1	9.807782E-1	9.539250E-1	9.476256E-1	9.631452E-1	9.844467E-1	9.779044E-1	9.185074E-1	9.559407E-1	9.684041E-1	9.635746E-1	9.543488E-1	9.458294E-1	9.806935E-1	9.724621E-1	9.355312E-1	9.600780E-1	9.746764E-1	9.907002E-1	9.479781E-1	9.671889E-1	9.316921E-1	9.224547E-1	9.452025E-1	9.659243E-1	9.411544E-1	9.623038E-1	9.557553E-1	8.988817E-1
