Photon Energy (eV)	#1	#2	#3	#4	#5	#6	#7	#8	#9	#10	#11	#12	#13	#14	#15	#16	#17	#18	#19	#20	#21	#22	#23	#24	#25	#26	#27	#28	#29	#30	#31	#32	#33	#34	#35	#36	#37	#38	#39	#40	#41	#42	#43	#44	#45	#46	#47	#48	#49	#50	#51	#52	#53	#54	#55	#56	#57	#58	#59	#60	#61	#62	#63	#64	#65	#66	#67	#68	#69	#70	#71	#72	#73	#74	#75	#76	#77	#78	#79	#80	#81	#82	#83	#84	#85	#86	#87	#88	#89	#90	#91	#92	#93	#94	#95	#96	#97	#98	#99	#100	#101	#102	#103	#104	#105	#106	#107	#108	#109	#110	#111	#112	#113	#114	#115	#116	#117	#118	#119	#120	#121	#122	#123	#124	#125	#126	#127	#128	#129	#130	#131	#132	#133	#134	#135	#136	#137	#138	#139	#140	#141	#142	#143	#144	#145	#146	#147	#148	#149	#150	#151	#152	#153	#154	#155	#156	#157	#158	#159	#160	#161	#162	#163	#164	#165	#166	#167	#168	#169	#170	
5.300110E+2	-6.085966E-3	-1.050913E-2	3.656185E-4	-1.682267E-3	-1.974945E-3	-4.600994E-3	-1.800082E-3	-3.718895E-3	3.771719E-3	-6.594402E-3	1.901661E-3	-1.614664E-2	-1.780678E-3	-9.389466E-3	-1.465320E-2	-1.146038E-2	-1.319123E-2	-6.175647E-4	-7.543830E-3	-6.713834E-3	-9.955924E-3	-8.164108E-3	-7.431561E-3	-5.959995E-3	-2.871501E-3	5.437606E-4	-5.825143E-3	-1.120937E-2	-9.045468E-3	-1.162416E-2	-1.577121E-3	-3.534853E-3	-4.952856E-4	4.428226E-3	-7.911470E-3	-7.729802E-3	2.461149E-3	-1.062399E-2	-3.099351E-3	-9.068349E-3	-1.635172E-3	-1.088740E-2	3.144129E-3	-9.212617E-3	-6.505861E-3	-2.804929E-3	-5.012188E-3	-6.489374E-3	-6.284655E-3	-6.042146E-4	-7.925696E-3	-5.593808E-3	-9.108323E-4	-1.700542E-3	-3.088039E-3	-6.844909E-3	-6.253423E-3	-8.966659E-3	1.647236E-3	-1.230164E-2	-2.278235E-3	2.294671E-3	2.314507E-3	-5.527038E-3	-7.512109E-3	-1.078306E-2	-4.794165E-3	-3.647049E-3	-1.214034E-2	6.217980E-3	-1.095992E-2	-7.240785E-3	-9.452315E-3	-1.142618E-2	-7.292790E-3	-4.226488E-3	-6.288422E-3	-3.989971E-3	-9.311080E-3	-4.988930E-3	-8.712911E-3	-9.137578E-3	-7.604751E-3	-1.249256E-2	-7.318957E-4	-1.229038E-2	-5.075276E-3	-6.299450E-4	-1.435984E-2	-8.140779E-3	-1.713834E-2	-6.190798E-3	-8.101518E-3	-7.033078E-3	-3.362417E-3	-5.546950E-3	-1.099728E-2	-9.442296E-4	-2.799078E-3	-4.842402E-3	1.177559E-2	-1.530258E-3	-1.132673E-2	2.342444E-3	-8.005239E-3	-9.833826E-3	-1.962321E-2	-6.869638E-3	-3.480124E-3	7.411936E-3	-9.555104E-3	-9.340567E-3	-7.765076E-3	-1.051425E-2	-1.296876E-3	-3.467392E-3	-5.645349E-3	-1.253424E-2	-1.111862E-2	-5.947839E-3	-3.424823E-3	3.507493E-3	3.302309E-3	-1.749148E-2	-9.146489E-3	-1.133287E-2	-7.696057E-3	-2.391230E-3	2.702708E-3	-7.265639E-3	-1.141144E-2	-9.378398E-3	-1.211316E-2	-4.784784E-3	-3.555166E-3	-3.432826E-3	-6.748352E-3	-1.895932E-3	-4.295603E-3	-9.589618E-4	-4.796132E-3	-1.016926E-2	-4.154315E-4	-7.698769E-3	-5.228009E-3	-8.812626E-3	6.573096E-3	1.893123E-3	3.287547E-3	-4.541610E-3	-3.209445E-3	1.999257E-3	2.981018E-3	-1.353201E-2	-1.291306E-2	-1.080398E-3	-9.546911E-3	-4.736007E-3	-1.058626E-2	-8.032674E-3	-9.911436E-3	-4.917189E-3	-1.097998E-2	-7.770583E-4	-9.757248E-3	-9.363590E-3	1.002076E-3	8.031882E-4	9.707324E-3	-1.941389E-2
5.305130E+2	-1.188567E-3	-4.031819E-3	-3.386943E-3	-8.797395E-3	3.494725E-3	5.935938E-3	-1.016886E-2	-8.587250E-3	-4.439766E-3	-1.393537E-2	-4.625758E-3	-7.871650E-3	-6.901661E-3	-2.809358E-3	1.050574E-3	-8.888831E-3	-4.292678E-3	-2.672544E-4	7.929583E-3	3.872873E-4	-4.813106E-3	-8.285641E-3	-4.511757E-3	-8.192884E-3	-1.000140E-2	5.120635E-3	-5.412536E-3	-5.713301E-3	-5.017568E-4	4.344579E-3	-8.379124E-4	-1.232151E-2	-1.013776E-2	-4.705333E-3	-5.450206E-3	-1.021704E-2	-1.059650E-2	-5.965052E-3	-1.840465E-3	-9.232225E-3	-7.233282E-3	2.335915E-3	-6.593908E-3	-4.278520E-3	3.328062E-3	-9.803682E-4	-3.791367E-4	-9.438639E-3	-3.274336E-3	-5.209467E-3	-7.545906E-3	2.956641E-3	-1.349443E-2	-6.384237E-3	-9.650987E-3	-5.338344E-3	-2.875124E-3	-7.703203E-3	-5.875932E-3	-6.184826E-3	-9.162142E-3	3.212377E-3	-6.923564E-3	-9.378130E-3	1.764572E-3	-3.361216E-3	4.023980E-3	-9.063459E-3	2.437395E-3	-6.301413E-3	-4.456377E-3	-1.642125E-2	1.816485E-3	-1.102054E-2	-1.709169E-3	-6.199012E-3	-4.744119E-3	-7.228202E-3	-7.478448E-3	-1.015239E-2	-1.467890E-2	4.734250E-4	-4.737591E-3	-9.842393E-3	-8.515486E-3	-1.732885E-4	-2.613188E-3	-8.789860E-3	-1.868155E-3	-4.883832E-3	1.416161E-3	-1.386001E-2	-1.186032E-2	-1.079050E-3	8.758686E-5	-4.409429E-3	1.846096E-2	-1.378333E-2	3.096233E-3	-6.759644E-3	-9.687464E-3	-4.011785E-3	-5.033248E-3	-8.838842E-3	-7.543210E-3	-1.405379E-2	-4.011575E-3	5.107554E-3	-1.017458E-2	-6.522509E-3	-9.504518E-3	1.008636E-3	-1.104333E-2	1.418383E-3	-5.810440E-3	-4.253061E-3	-7.587970E-3	-5.600782E-4	-1.065981E-2	5.380026E-4	-5.922050E-4	-8.539054E-3	-9.201782E-3	7.020937E-3	-1.035476E-2	-5.523207E-3	7.347491E-3	-4.095015E-3	-1.872641E-2	-6.239056E-3	-3.753612E-3	-7.405962E-3	-9.994641E-3	1.252590E-3	-7.439655E-3	-1.133454E-2	-5.801174E-3	-1.489322E-2	2.277839E-3	-1.545452E-2	-4.975084E-3	-7.056312E-3	-5.545370E-3	-1.359373E-2	-3.372649E-3	-2.023310E-3	-1.271999E-2	-1.106472E-2	-9.510880E-3	-5.824342E-3	2.146432E-3	7.173277E-4	-1.835024E-3	1.854348E-3	-5.543194E-3	-1.246339E-2	-9.683690E-3	2.929527E-3	-2.869247E-3	3.008950E-4	-6.207309E-3	-7.186092E-3	-4.397013E-3	-8.085560E-3	5.060877E-3	-5.181762E-4	-1.118903E-2	-2.539221E-3	-1.046826E-2	-1.405553E-2
5.310050E+2	-7.802244E-3	-5.218831E-3	-3.272853E-3	-6.595658E-3	-9.365362E-3	-4.066290E-3	2.753020E-3	-2.763459E-3	-7.164470E-3	-9.366821E-3	-3.453175E-3	3.427317E-3	-8.978835E-4	-3.185484E-3	-6.694773E-3	-3.428526E-3	-4.175479E-3	-3.629427E-3	2.461595E-4	-5.996677E-3	9.312442E-3	9.996248E-3	-2.341067E-4	2.649915E-3	-2.269461E-3	-9.693960E-3	-1.070633E-2	-6.411934E-4	-3.419662E-3	-1.048338E-2	2.622042E-4	5.438557E-3	-2.456224E-3	-5.179396E-3	-5.319853E-3	6.430800E-3	-6.022025E-3	-2.634203E-3	-5.639116E-3	-2.820915E-3	-3.467310E-3	-3.066283E-3	-1.014611E-2	-1.613694E-3	-4.946415E-3	-8.022886E-3	-2.269273E-4	-2.107353E-3	-1.936289E-3	-1.268490E-2	-2.572501E-3	-2.306160E-4	-6.626094E-3	-3.432290E-3	-3.159314E-3	-1.023871E-2	-6.300980E-3	-8.222435E-3	-2.684459E-3	-2.985450E-3	-5.454364E-3	-6.512964E-3	1.094339E-3	-4.954169E-3	1.236202E-3	-1.266233E-2	-7.705867E-3	-6.296841E-3	-1.858783E-3	-6.724252E-3	-5.424430E-3	6.335353E-4	-2.232112E-3	-6.026932E-5	7.502416E-4	-9.580707E-4	8.291721E-3	-6.566605E-5	2.486065E-3	1.788877E-3	4.552230E-3	6.365604E-4	-5.754414E-3	-1.164808E-2	-2.551748E-3	-4.799110E-3	-6.934173E-3	-2.847414E-3	-1.192287E-2	4.300808E-3	-5.172361E-3	-9.186615E-3	-2.358054E-4	5.964027E-4	-1.415587E-2	3.763832E-4	-7.820194E-3	-1.539325E-3	-1.321659E-2	1.237153E-3	-5.210781E-3	-1.016744E-3	-1.089862E-3	-1.034193E-2	2.098762E-3	2.317115E-3	-1.260996E-2	2.508774E-3	3.106854E-3	-2.703268E-3	1.098405E-2	-5.959178E-4	9.156630E-3	6.385089E-3	-4.821474E-3	-5.549778E-3	-9.467544E-4	-1.512355E-3	-5.764863E-3	-2.629096E-3	7.608171E-4	1.140567E-3	-6.238862E-3	-2.302944E-4	-6.916617E-3	5.930306E-4	-1.252806E-2	3.112919E-3	6.423435E-3	-6.060307E-3	-4.752558E-4	-3.207502E-3	-3.881140E-3	8.960543E-4	-3.489320E-4	2.583983E-3	-5.648077E-3	1.977482E-3	-5.125815E-3	-7.299884E-3	-2.114103E-3	6.057575E-3	-8.641744E-3	-8.055050E-3	2.739345E-3	-1.858718E-3	-3.008245E-3	3.781824E-3	-9.398275E-3	4.449690E-3	-5.777316E-3	-1.392127E-4	-9.023462E-3	4.205433E-3	-2.835949E-3	-4.631533E-3	-3.579118E-3	-3.945650E-3	4.300912E-3	-6.650375E-3	1.924810E-4	-6.277161E-3	3.739582E-3	4.454882E-4	-1.028063E-2	-1.546791E-3	-1.159118E-2	-3.986827E-3	-1.160714E-2	2.069670E-3
5.315130E+2	-1.219336E-2	6.007407E-3	-1.413904E-2	-8.512537E-3	5.593401E-3	-1.684723E-3	-9.357571E-3	2.071564E-3	3.639135E-4	3.064164E-3	-2.802344E-3	5.334524E-3	-7.639400E-3	-6.177834E-3	-5.591316E-3	-1.112687E-3	5.478943E-3	-3.506373E-3	3.900303E-4	-3.930652E-3	-1.055918E-3	1.828578E-3	-2.170221E-3	2.801196E-3	3.138654E-3	1.206871E-3	-1.369628E-3	-1.134513E-3	1.789800E-3	4.648526E-3	-2.961441E-3	2.389544E-4	-4.856611E-3	-8.025539E-3	2.717875E-3	-5.847845E-3	-1.431440E-2	-4.105210E-3	4.058309E-4	5.071477E-3	4.578817E-3	3.172547E-3	1.159009E-2	-8.449559E-3	5.204272E-3	2.403568E-3	1.875786E-3	1.369274E-3	1.777740E-5	1.369101E-3	-2.975046E-3	-5.437789E-3	8.173631E-3	1.234493E-3	-5.691468E-3	1.106713E-3	-6.174307E-3	6.908402E-3	-8.113163E-3	6.383810E-3	-8.388837E-3	5.907511E-4	-1.597240E-3	1.117020E-2	-1.315033E-3	2.259671E-3	-4.042806E-3	6.400968E-3	5.212871E-3	-8.831105E-3	3.494362E-3	1.405138E-2	3.934999E-3	4.977654E-3	2.040659E-3	3.018179E-3	-1.292415E-2	1.590545E-3	3.626466E-3	1.919312E-3	4.031309E-3	-4.713351E-3	8.521601E-3	-1.962408E-3	-6.548486E-4	-2.532181E-3	1.604702E-3	-1.114757E-3	1.107741E-2	-5.746290E-3	7.362975E-3	7.877064E-3	-6.138003E-4	3.819023E-3	7.347667E-3	-1.171681E-2	-4.002497E-3	7.111923E-3	-3.955723E-3	5.596095E-5	-8.622557E-5	-7.176696E-3	6.700151E-3	9.481375E-3	8.170317E-3	-5.038374E-4	2.256738E-3	-7.922918E-3	2.706095E-3	1.654910E-3	3.671338E-3	-5.947044E-3	8.797592E-4	4.745364E-3	-9.025383E-3	1.418699E-2	4.549182E-3	-6.305433E-3	5.172560E-3	-8.024414E-3	-3.935295E-3	-3.879165E-4	-6.098116E-3	-5.696172E-3	-4.032244E-3	3.737579E-3	2.444503E-3	2.112056E-3	3.448871E-3	3.845712E-3	-4.206419E-3	-4.041495E-4	8.389664E-5	5.311998E-4	3.228033E-3	-3.322058E-3	-9.539434E-4	-3.463425E-3	-9.356757E-3	1.056994E-2	5.584940E-3	1.907368E-3	1.502585E-3	8.431488E-3	2.402834E-4	1.338674E-4	-3.514016E-3	-7.550732E-3	2.089540E-3	-3.853243E-3	2.664357E-3	4.652778E-3	-1.091241E-2	-2.259806E-3	2.224042E-3	5.677704E-3	2.538706E-3	2.632380E-3	-7.279594E-4	1.582920E-3	1.413004E-2	3.298170E-3	-7.738267E-3	4.223135E-3	-9.473821E-4	-1.389957E-3	-4.432958E-3	-1.125724E-2	-3.768484E-3	2.452789E-4
5.320120E+2	7.066673E-3	1.270536E-2	1.087643E-2	2.867647E-3	9.457788E-3	1.283948E-3	8.905644E-3	2.755454E-3	-6.380887E-4	1.051380E-2	-3.190095E-3	1.080508E-2	-1.100687E-3	4.405948E-3	9.877061E-3	9.385282E-3	2.629606E-3	4.811492E-3	-7.913160E-3	1.198196E-2	2.594097E-3	-6.370476E-4	2.654170E-3	7.092517E-3	-3.226232E-3	4.344002E-3	9.373055E-4	2.441612E-4	-3.690675E-3	8.915195E-4	-3.312629E-3	6.328448E-3	4.137269E-3	-7.761119E-4	1.284295E-3	4.999975E-3	8.248884E-3	4.599503E-3	2.033956E-3	2.326704E-3	-5.681917E-3	2.750245E-3	-5.160807E-3	-7.550851E-5	6.003388E-5	2.037220E-3	-1.389135E-3	-7.163295E-4	8.750027E-3	1.358243E-2	5.821556E-3	-6.506754E-4	1.535190E-3	7.915852E-4	3.501821E-3	2.375791E-3	8.321383E-3	4.524106E-3	-5.971294E-4	2.824322E-3	2.522901E-3	-4.530555E-3	1.043263E-2	-9.015197E-3	-1.861257E-3	1.037411E-3	9.772919E-3	5.881840E-3	1.526759E-3	9.138263E-3	7.492011E-3	9.412522E-4	-1.162113E-2	4.595243E-3	4.044998E-4	2.506650E-3	6.910475E-3	2.221610E-4	8.229424E-3	-8.313090E-4	-1.203872E-3	-5.872128E-3	-3.814727E-3	1.858723E-2	5.916530E-3	4.507294E-3	-6.157453E-3	5.859070E-3	1.364352E-2	1.782691E-3	6.416709E-3	1.192434E-2	1.216772E-2	-3.672292E-3	3.977548E-3	5.887806E-3	-5.033785E-3	6.671777E-3	1.675994E-3	7.447033E-3	1.893748E-3	1.588137E-3	1.126281E-3	2.545390E-3	-6.576877E-3	5.137904E-3	7.129070E-3	6.765431E-4	1.865154E-3	2.498170E-4	9.528120E-4	7.035905E-3	-2.876163E-3	-1.017177E-2	4.227800E-4	-3.093788E-3	9.487575E-3	5.944445E-3	5.959038E-3	7.100847E-3	-3.789103E-3	-3.042603E-3	2.261063E-3	1.548377E-2	1.042752E-2	8.402960E-3	5.385790E-3	-9.233228E-3	-3.310700E-3	6.896788E-3	1.080384E-2	1.444655E-2	1.230033E-2	-6.098237E-3	-2.927394E-3	2.933094E-3	1.004066E-2	7.352823E-3	7.850776E-3	-1.761697E-3	1.434614E-3	-6.055329E-3	1.012553E-2	1.329459E-2	-4.918940E-3	-2.217757E-3	5.044639E-3	-1.001205E-3	7.310806E-3	-4.838305E-3	-2.729303E-3	-8.611681E-3	5.870592E-4	3.952688E-3	1.224003E-3	5.212901E-3	1.085016E-2	-1.099051E-3	2.013112E-3	7.454991E-3	-6.409930E-3	5.636067E-3	-1.298362E-3	2.213423E-4	-3.110276E-3	-2.548413E-5	9.677102E-3	-7.799882E-3	1.055521E-2	1.848381E-2
5.325170E+2	2.020347E-2	1.047017E-3	9.556788E-3	2.272021E-2	-7.205606E-3	3.132121E-3	9.667848E-3	1.024259E-2	8.106691E-3	1.631863E-2	1.216971E-2	4.451364E-3	1.832031E-2	1.715619E-2	1.601165E-2	1.550514E-2	1.355084E-2	3.209126E-3	6.891217E-3	4.271917E-3	3.918409E-3	5.261971E-3	1.169348E-2	1.609251E-3	1.522994E-2	-1.521309E-3	2.237633E-2	1.845422E-2	1.486776E-2	1.222291E-2	8.426899E-3	3.850407E-3	1.380862E-2	1.425815E-2	1.467936E-2	1.236392E-2	2.022290E-2	1.872896E-2	8.139145E-3	1.372331E-2	1.343886E-2	5.694979E-3	7.166611E-3	2.362990E-2	2.859909E-3	7.367396E-3	5.131600E-3	1.738242E-2	2.727474E-3	3.547054E-3	1.519759E-2	8.956247E-3	1.132253E-2	9.490990E-3	1.808799E-2	1.893945E-2	1.328245E-2	1.345979E-2	1.562345E-2	1.226379E-2	2.276068E-2	4.945719E-3	-5.320667E-3	1.770434E-2	7.687625E-3	2.350953E-2	2.745939E-3	6.724540E-3	4.822100E-3	6.500528E-3	9.854357E-3	8.035869E-3	1.755407E-2	1.293409E-2	5.806559E-3	5.858742E-3	8.754494E-3	9.471132E-3	2.447573E-3	1.226444E-2	1.601215E-2	1.861307E-2	1.338988E-2	1.735821E-2	6.537447E-3	1.528767E-2	1.917539E-2	7.522906E-3	3.429937E-3	1.268740E-2	7.114859E-3	9.436016E-3	8.643717E-3	7.368995E-3	6.105490E-3	1.540900E-2	9.392797E-3	2.483187E-3	1.519917E-2	2.861899E-3	1.315134E-3	1.214735E-2	9.623403E-3	4.811561E-3	1.185625E-2	1.693643E-2	2.685894E-2	6.499685E-3	5.976602E-3	-9.088645E-5	3.451426E-3	7.838988E-3	1.164818E-2	8.137183E-3	2.053139E-2	2.177027E-3	1.433161E-4	1.496766E-2	1.641170E-2	8.962499E-3	1.098061E-2	7.321513E-3	1.597539E-2	9.132394E-4	2.002259E-2	4.122505E-3	5.046331E-3	1.049450E-2	9.462095E-3	8.822503E-3	9.042894E-3	5.949464E-3	1.360472E-2	8.203176E-3	1.104311E-2	1.257234E-2	9.110883E-3	1.092227E-2	8.649559E-3	1.490513E-2	4.865764E-3	1.531595E-2	2.974428E-3	7.621476E-3	1.053997E-2	1.477854E-2	7.624511E-3	1.394171E-2	6.221261E-3	1.460781E-2	6.905275E-3	1.381531E-3	1.820282E-2	5.779347E-3	1.784416E-2	7.284717E-3	9.420853E-3	4.218802E-3	7.869438E-3	5.344242E-3	8.206155E-3	9.446206E-3	2.067404E-2	3.972653E-3	1.903466E-2	1.284400E-2	1.653399E-2	2.477998E-2	5.581344E-3	1.267066E-2
5.330180E+2	1.981709E-2	3.938154E-2	2.149995E-2	1.727310E-2	2.533520E-2	1.068180E-2	1.277561E-2	2.353361E-2	2.781022E-2	5.762077E-3	2.339293E-2	2.661285E-2	1.109170E-2	2.367053E-2	3.263865E-2	2.328225E-2	3.180176E-2	3.218117E-2	1.214831E-2	2.872562E-2	7.606415E-3	2.062950E-2	2.705550E-2	2.602063E-2	2.547890E-2	4.213465E-2	2.696565E-2	2.178022E-2	1.813173E-2	1.689576E-2	2.509498E-2	2.079146E-2	2.099143E-2	2.280032E-2	1.381415E-2	1.433715E-2	2.210508E-2	1.031805E-2	3.318396E-2	2.762209E-2	1.730005E-2	2.435346E-2	3.127179E-2	2.002798E-2	1.632368E-2	2.209016E-2	2.400034E-2	2.545244E-2	1.213337E-2	2.797222E-2	2.300946E-2	1.113979E-2	1.377747E-2	3.028091E-2	2.366419E-2	8.405270E-3	3.033477E-2	2.499106E-2	1.705089E-2	2.239053E-2	2.041846E-2	9.800441E-3	3.127181E-2	1.485859E-2	2.809906E-2	3.388356E-2	3.281945E-2	1.829399E-2	2.854731E-2	1.340398E-2	3.164132E-2	1.948929E-2	2.444859E-2	2.080556E-2	2.303275E-2	1.313515E-2	2.763350E-2	3.096988E-2	8.078068E-3	2.100114E-2	5.628513E-3	4.142402E-3	1.537636E-2	2.596344E-2	1.914954E-2	1.821163E-2	2.449569E-2	2.478662E-2	3.273003E-2	2.603866E-2	2.261665E-2	3.457624E-2	2.046355E-2	2.144163E-2	3.033097E-2	2.224630E-2	2.128230E-2	1.614554E-2	2.649796E-2	3.949818E-2	2.787690E-2	2.671859E-2	2.517120E-2	6.690800E-3	2.061029E-2	1.344469E-2	6.805797E-3	2.511637E-2	3.060486E-2	1.067078E-2	2.685117E-2	2.461032E-2	1.246786E-2	8.911151E-3	2.385260E-2	1.402974E-2	1.286807E-2	2.290488E-2	1.237886E-2	2.532913E-2	2.395336E-2	1.715690E-2	1.440393E-2	2.925691E-2	2.577235E-2	2.032738E-2	2.186259E-2	2.395783E-2	3.366532E-2	2.580281E-2	1.180440E-2	1.416771E-2	2.260985E-2	2.098714E-2	3.257506E-2	1.722498E-2	1.789760E-2	2.296708E-2	2.906076E-2	2.303376E-2	1.972573E-2	2.205912E-2	2.354975E-2	3.134766E-2	1.337699E-2	2.371093E-2	2.350688E-2	1.897176E-3	2.356224E-2	3.470829E-2	1.769186E-2	2.701332E-2	2.107335E-2	2.482823E-2	2.041196E-2	2.076131E-2	2.325633E-2	4.071477E-2	7.548178E-3	2.160264E-2	3.108726E-2	5.965302E-3	1.801257E-2	1.072973E-2	2.561343E-2	1.508346E-3	2.341579E-2	1.001525E-2	1.482108E-2	-5.295442E-3
5.331630E+2	3.983549E-2	2.110715E-2	3.051322E-2	2.025825E-2	3.925196E-2	3.479837E-2	1.765541E-2	2.793280E-2	3.318500E-2	2.854356E-2	2.252902E-2	2.629572E-2	3.629513E-2	1.705435E-2	3.038729E-2	2.383839E-2	3.325218E-2	2.124967E-2	1.920972E-2	3.543085E-2	3.341242E-2	2.187582E-2	2.677803E-2	3.620229E-2	3.284320E-2	1.995208E-2	2.333284E-2	3.164216E-2	2.103573E-2	3.229654E-2	2.534354E-2	2.537747E-2	3.250279E-2	3.143698E-2	2.312064E-2	1.662290E-2	2.356435E-2	1.697981E-2	2.794820E-2	2.664482E-2	3.106519E-2	2.399681E-2	2.085433E-2	1.604827E-2	3.574725E-2	2.961042E-2	1.487191E-2	2.601454E-2	3.713918E-2	2.627739E-2	2.704843E-2	2.700304E-2	2.538794E-2	1.039330E-2	2.548792E-2	2.322646E-2	1.732161E-2	2.899051E-2	2.284461E-2	3.132381E-2	2.066154E-2	3.232977E-2	3.836536E-2	1.195315E-2	2.426685E-2	3.342298E-2	2.342138E-2	2.852907E-2	1.660488E-2	2.765533E-2	2.687368E-2	2.455006E-2	2.469436E-2	2.542967E-2	3.209616E-2	1.851074E-2	1.651232E-2	1.953460E-2	3.269337E-2	2.132695E-2	1.387054E-2	1.855738E-2	2.280245E-2	3.338930E-2	3.246492E-2	1.852223E-2	2.708206E-2	1.764562E-2	2.517668E-2	1.829879E-2	1.775488E-2	1.971849E-2	3.124694E-2	2.883050E-2	2.813473E-2	2.485040E-2	4.199610E-2	2.865655E-2	2.429330E-2	1.865872E-2	2.633164E-2	2.233112E-2	3.760047E-2	2.855381E-2	2.233410E-2	1.356197E-2	1.574742E-2	1.746261E-2	1.617961E-2	2.145245E-2	3.576427E-2	2.231070E-2	3.687404E-2	1.757104E-2	3.029486E-2	1.784938E-2	4.121965E-2	1.753381E-2	2.041724E-2	2.718638E-2	3.759184E-2	1.219938E-2	1.693414E-2	3.578503E-2	1.875931E-2	1.800881E-2	2.373458E-2	2.703172E-2	4.337435E-2	2.193241E-2	2.302946E-2	3.788235E-2	2.611841E-2	2.064794E-2	3.161627E-2	3.025470E-2	1.636366E-2	2.485264E-2	2.741121E-2	2.255170E-2	2.809497E-2	2.827186E-2	2.602081E-2	2.093387E-2	1.621458E-2	2.200068E-2	2.247024E-2	2.010947E-2	1.545014E-2	1.724694E-2	1.394747E-2	2.721262E-2	3.012051E-2	3.392391E-2	1.883829E-2	1.775682E-2	3.570227E-2	3.049051E-2	3.156625E-2	2.582793E-2	3.708760E-2	3.093993E-2	1.992687E-2	3.671650E-2	1.767915E-2	3.325669E-2	3.500736E-2	2.941163E-2	2.026997E-2	9.006958E-3
5.333080E+2	4.121478E-2	3.785342E-2	3.591872E-2	3.890126E-2	4.828347E-2	2.934007E-2	3.738473E-2	3.451928E-2	2.303976E-2	3.446054E-2	4.021894E-2	3.903455E-2	3.309404E-2	3.314496E-2	4.317862E-2	3.728560E-2	3.903021E-2	1.497335E-2	1.831674E-2	3.157919E-2	2.062792E-2	4.374278E-2	3.704322E-2	3.690623E-2	3.665989E-2	2.258935E-2	3.347666E-2	2.149480E-2	4.315923E-2	3.315480E-2	4.174548E-2	2.379412E-2	3.574386E-2	2.392892E-2	3.038955E-2	4.306475E-2	2.676779E-2	2.696330E-2	4.124814E-2	3.404756E-2	2.885353E-2	3.437291E-2	2.911790E-2	3.015480E-2	3.097339E-2	2.680474E-2	3.299486E-2	2.472181E-2	4.399610E-2	2.407340E-2	2.801499E-2	3.457302E-2	2.541997E-2	3.710736E-2	3.173812E-2	2.666216E-2	1.946992E-2	2.796928E-2	3.495908E-2	3.575280E-2	4.055160E-2	2.796141E-2	3.417730E-2	2.735507E-2	2.538682E-2	3.860460E-2	4.911078E-2	3.233858E-2	2.743893E-2	3.810276E-2	2.216462E-2	3.382593E-2	2.446335E-2	3.564620E-2	4.958776E-2	3.009568E-2	2.654606E-2	3.566547E-2	3.254356E-2	3.400829E-2	2.697409E-2	4.417982E-2	2.729785E-2	4.702015E-2	4.350703E-2	3.720956E-2	3.930059E-2	3.228407E-2	3.468548E-2	4.274318E-2	3.347116E-2	4.576113E-2	2.789442E-2	4.316789E-2	3.094387E-2	3.576028E-2	2.792408E-2	2.399757E-2	2.576608E-2	3.285584E-2	2.783669E-2	2.783805E-2	2.757820E-2	1.610694E-2	3.298331E-2	3.838925E-2	2.278022E-2	3.625436E-2	4.041383E-2	3.451728E-2	3.197874E-2	4.109743E-2	2.729899E-2	3.184634E-2	3.056654E-2	3.132002E-2	2.832591E-2	3.114894E-2	2.858984E-2	4.095170E-2	2.813896E-2	3.298538E-2	4.682718E-2	3.817844E-2	4.573620E-2	3.641794E-2	3.239694E-2	4.123570E-2	5.070408E-2	3.618620E-2	3.375355E-2	3.077320E-2	2.807953E-2	2.038898E-2	3.829943E-2	3.001073E-2	3.276798E-2	3.363734E-2	3.322563E-2	2.745250E-2	2.838299E-2	3.185650E-2	4.628621E-2	2.001387E-2	2.853873E-2	4.491442E-2	3.308668E-2	2.622082E-2	3.234675E-2	3.123966E-2	4.567656E-2	3.692001E-2	4.124192E-2	3.812214E-2	4.041278E-2	2.564223E-2	2.724605E-2	3.662305E-2	2.618619E-2	1.687085E-2	3.995470E-2	3.782716E-2	1.905924E-2	4.850590E-2	3.546031E-2	2.747242E-2	3.597967E-2	3.559127E-2	2.713631E-2	1.938572E-2
5.334680E+2	4.770177E-2	3.804996E-2	5.018616E-2	3.696617E-2	5.226622E-2	5.763501E-2	3.938078E-2	4.425972E-2	3.364231E-2	5.060214E-2	3.834287E-2	5.269913E-2	4.835497E-2	4.556029E-2	4.945436E-2	3.849452E-2	5.082977E-2	3.530533E-2	3.219142E-2	4.832513E-2	4.044737E-2	4.608976E-2	4.413987E-2	6.478522E-2	5.419525E-2	3.982202E-2	5.466529E-2	2.621897E-2	6.417901E-2	4.185222E-2	4.542353E-2	4.113279E-2	5.536414E-2	3.676365E-2	4.294948E-2	3.718856E-2	5.663668E-2	4.347027E-2	3.697442E-2	4.885023E-2	4.700943E-2	4.249706E-2	4.273568E-2	3.212889E-2	2.525807E-2	5.950316E-2	4.365449E-2	4.410135E-2	5.238398E-2	4.681087E-2	4.689951E-2	4.201494E-2	3.713859E-2	4.367451E-2	3.466429E-2	4.569493E-2	5.245371E-2	4.849698E-2	4.704552E-2	5.276702E-2	3.353947E-2	4.591392E-2	3.785059E-2	4.248623E-2	3.674596E-2	5.527399E-2	5.421160E-2	3.209149E-2	4.383682E-2	3.381955E-2	3.578135E-2	5.514513E-2	2.099979E-2	3.256674E-2	5.636770E-2	4.668640E-2	5.452383E-2	2.670332E-2	4.587399E-2	4.133443E-2	4.926812E-2	5.133946E-2	4.129896E-2	5.444339E-2	5.105271E-2	4.118616E-2	5.210114E-2	5.128056E-2	3.798174E-2	3.895071E-2	4.573936E-2	4.641901E-2	5.510665E-2	4.039417E-2	5.405831E-2	5.680728E-2	5.316906E-2	4.843896E-2	4.971538E-2	4.827607E-2	4.303660E-2	5.547475E-2	4.596300E-2	3.452401E-2	3.596624E-2	2.694444E-2	5.024182E-2	5.186989E-2	4.995694E-2	3.905790E-2	3.399242E-2	5.521299E-2	4.214192E-2	3.207043E-2	4.023329E-2	4.297341E-2	4.548003E-2	4.141623E-2	2.637829E-2	5.056352E-2	3.517072E-2	3.895844E-2	4.117773E-2	5.685951E-2	6.055624E-2	3.466922E-2	3.041827E-2	3.447937E-2	5.224269E-2	3.525529E-2	5.949843E-2	4.179989E-2	3.386856E-2	4.126416E-2	4.318617E-2	4.711813E-2	3.187506E-2	5.039617E-2	6.499155E-2	5.301813E-2	4.727505E-2	6.620428E-2	5.341993E-2	4.336348E-2	4.220004E-2	4.515049E-2	3.390474E-2	4.396765E-2	3.514669E-2	3.491502E-2	4.369395E-2	4.714748E-2	6.526913E-2	5.404956E-2	4.068263E-2	4.564359E-2	6.004551E-2	5.383746E-2	4.468630E-2	5.357371E-2	5.293855E-2	3.659143E-2	2.856258E-2	3.065933E-2	3.512744E-2	4.053996E-2	4.905675E-2	4.006823E-2	4.306338E-2	3.586929E-2
5.336030E+2	4.964070E-2	7.014173E-2	5.338144E-2	5.281664E-2	5.815442E-2	5.443460E-2	5.680454E-2	5.774849E-2	4.719310E-2	5.483404E-2	6.939229E-2	6.138021E-2	6.117308E-2	4.953709E-2	6.381080E-2	5.745865E-2	6.024211E-2	4.027356E-2	4.785096E-2	6.330015E-2	5.140438E-2	6.223281E-2	5.603076E-2	6.354795E-2	5.923682E-2	5.591618E-2	6.599577E-2	6.672221E-2	6.394595E-2	5.342835E-2	5.696869E-2	5.623718E-2	4.977580E-2	6.416137E-2	5.448053E-2	5.248450E-2	6.032573E-2	5.570159E-2	5.784077E-2	6.421259E-2	7.270809E-2	6.254906E-2	7.362043E-2	5.585490E-2	5.191003E-2	5.086500E-2	6.183837E-2	5.984358E-2	6.209166E-2	5.997145E-2	5.101506E-2	4.224753E-2	4.256081E-2	5.722565E-2	5.930522E-2	4.651691E-2	4.298416E-2	5.765977E-2	6.296461E-2	6.255160E-2	6.368897E-2	5.327516E-2	5.595073E-2	5.185686E-2	5.766838E-2	5.139369E-2	6.537592E-2	4.908233E-2	4.859309E-2	6.864645E-2	5.507057E-2	4.808978E-2	5.930861E-2	5.493328E-2	6.080181E-2	5.531734E-2	5.192170E-2	6.134312E-2	5.873095E-2	7.513159E-2	5.150515E-2	6.583866E-2	4.942303E-2	4.792499E-2	6.868163E-2	5.949164E-2	5.006195E-2	4.459806E-2	6.461520E-2	6.462616E-2	5.231768E-2	5.718112E-2	4.628961E-2	7.306396E-2	5.843242E-2	6.327757E-2	6.487009E-2	6.358692E-2	4.748924E-2	6.374803E-2	8.291054E-2	6.335037E-2	4.881358E-2	5.809498E-2	5.251907E-2	5.987140E-2	3.890407E-2	6.640305E-2	5.233012E-2	6.029462E-2	6.429291E-2	5.394822E-2	6.514734E-2	6.796083E-2	5.513086E-2	6.840754E-2	5.809286E-2	6.179478E-2	5.106223E-2	5.116739E-2	5.273524E-2	5.757830E-2	5.932697E-2	6.155094E-2	5.618624E-2	5.676043E-2	5.709067E-2	4.979460E-2	6.864043E-2	6.074642E-2	5.596646E-2	6.962408E-2	5.104644E-2	5.532405E-2	6.330642E-2	5.225071E-2	5.825395E-2	6.323821E-2	5.664059E-2	6.954586E-2	4.485846E-2	6.875373E-2	5.429717E-2	6.472695E-2	4.593339E-2	7.953952E-2	6.836390E-2	5.845012E-2	3.862496E-2	6.160575E-2	6.034361E-2	4.924376E-2	6.151916E-2	7.400189E-2	4.869382E-2	4.077913E-2	5.318703E-2	6.983447E-2	4.757969E-2	5.791796E-2	6.213964E-2	3.829277E-2	4.098790E-2	5.692108E-2	6.061375E-2	6.714333E-2	7.909533E-2	4.624315E-2	3.678646E-2	5.856748E-2
5.337580E+2	8.136505E-2	6.976315E-2	1.131714E-1	9.586506E-2	8.554289E-2	6.622526E-2	7.315781E-2	8.248036E-2	8.467804E-2	7.911138E-2	7.929772E-2	8.305069E-2	9.168503E-2	8.389961E-2	1.009806E-1	8.231359E-2	7.583568E-2	9.353967E-2	7.965087E-2	8.205185E-2	8.215707E-2	7.155725E-2	9.662837E-2	6.899805E-2	1.045217E-1	1.038820E-1	6.851326E-2	8.295292E-2	7.729048E-2	9.972332E-2	1.079648E-1	7.796521E-2	8.967895E-2	7.110212E-2	8.009542E-2	7.119186E-2	7.664404E-2	7.725431E-2	9.444936E-2	9.135685E-2	7.484628E-2	9.006920E-2	8.094367E-2	8.203918E-2	8.084946E-2	8.379231E-2	9.958815E-2	8.318061E-2	9.016042E-2	8.158194E-2	8.769596E-2	7.634540E-2	8.098162E-2	8.937892E-2	7.317112E-2	8.626913E-2	7.921051E-2	8.025749E-2	8.648979E-2	8.636493E-2	9.030264E-2	9.037923E-2	7.180586E-2	6.379969E-2	9.799463E-2	8.807804E-2	6.987079E-2	8.649867E-2	8.707596E-2	8.314323E-2	7.891316E-2	7.787137E-2	7.865857E-2	8.404092E-2	7.894828E-2	7.536048E-2	5.215322E-2	6.882991E-2	8.374508E-2	6.449912E-2	8.116284E-2	8.257927E-2	6.989907E-2	9.407269E-2	8.244116E-2	8.460586E-2	7.860460E-2	7.731835E-2	7.687710E-2	5.967768E-2	9.171470E-2	7.963611E-2	7.724314E-2	9.552929E-2	7.999933E-2	6.907568E-2	7.722633E-2	8.974834E-2	7.058587E-2	6.875493E-2	8.930980E-2	7.070766E-2	8.230115E-2	6.966171E-2	8.198281E-2	7.824900E-2	7.612085E-2	1.020507E-1	7.947395E-2	9.671046E-2	8.882948E-2	7.942077E-2	9.157143E-2	8.617719E-2	7.066977E-2	6.601948E-2	8.884934E-2	7.113781E-2	6.549176E-2	1.005944E-1	7.535421E-2	9.072680E-2	1.134842E-1	7.072473E-2	8.547418E-2	7.749339E-2	6.819255E-2	9.045115E-2	7.844354E-2	8.817136E-2	9.065249E-2	7.238666E-2	8.176619E-2	8.709951E-2	8.005638E-2	7.913714E-2	7.431922E-2	7.216687E-2	8.183080E-2	8.187524E-2	7.991223E-2	8.527321E-2	9.098961E-2	8.437179E-2	8.063860E-2	8.702865E-2	8.301662E-2	7.437350E-2	9.560820E-2	8.041004E-2	9.022400E-2	7.105587E-2	9.339849E-2	9.635640E-2	7.827986E-2	8.210823E-2	9.226124E-2	9.062877E-2	1.010154E-1	8.252379E-2	9.011133E-2	8.958612E-2	6.646019E-2	8.219485E-2	7.233003E-2	7.976408E-2	8.696456E-2	7.304413E-2	8.843010E-2	9.164486E-2
5.339090E+2	1.150080E-1	1.153886E-1	1.201790E-1	1.082919E-1	1.159233E-1	1.346231E-1	1.098117E-1	1.062302E-1	1.130416E-1	1.304216E-1	1.228496E-1	1.149536E-1	1.198156E-1	1.237272E-1	1.246299E-1	1.173943E-1	1.148149E-1	1.195407E-1	1.081228E-1	1.193873E-1	1.082279E-1	1.112627E-1	1.118841E-1	1.172700E-1	1.126898E-1	1.201694E-1	1.271714E-1	1.334663E-1	1.189392E-1	1.069113E-1	1.231611E-1	1.090967E-1	1.186479E-1	1.065687E-1	9.500933E-2	1.096043E-1	1.418945E-1	1.038297E-1	1.302085E-1	1.112960E-1	1.200275E-1	1.415917E-1	1.266375E-1	1.207028E-1	1.196771E-1	1.279501E-1	1.230023E-1	1.118124E-1	1.265837E-1	1.052482E-1	1.223448E-1	9.725727E-2	1.190013E-1	1.205178E-1	1.192544E-1	1.278715E-1	1.253756E-1	1.394239E-1	1.170324E-1	1.271314E-1	1.207302E-1	1.234746E-1	1.265490E-1	1.088110E-1	1.190983E-1	1.035397E-1	1.091035E-1	1.030562E-1	1.270302E-1	1.313250E-1	1.225728E-1	1.188851E-1	1.172314E-1	1.116155E-1	1.187116E-1	1.153305E-1	1.257972E-1	1.207694E-1	1.129438E-1	1.323773E-1	1.079756E-1	1.246740E-1	1.129615E-1	1.250233E-1	1.133450E-1	1.073325E-1	1.264806E-1	1.039645E-1	1.368199E-1	1.120907E-1	1.081661E-1	1.197622E-1	1.301161E-1	1.213673E-1	1.003937E-1	1.112517E-1	1.335007E-1	1.293762E-1	1.434061E-1	1.146331E-1	1.281725E-1	1.179244E-1	1.151552E-1	1.100375E-1	1.333957E-1	1.203873E-1	1.148367E-1	1.135929E-1	1.022110E-1	1.294972E-1	1.323532E-1	1.479985E-1	1.321218E-1	1.260180E-1	1.173446E-1	1.160231E-1	1.320467E-1	1.294257E-1	1.272335E-1	1.412665E-1	1.124022E-1	1.187948E-1	1.145117E-1	1.199427E-1	1.096156E-1	1.135592E-1	1.255293E-1	1.181693E-1	1.345202E-1	1.256641E-1	1.174422E-1	1.150145E-1	1.197984E-1	1.099160E-1	1.349626E-1	1.340546E-1	9.973311E-2	1.115218E-1	1.376365E-1	1.115876E-1	1.358198E-1	1.172805E-1	1.306050E-1	1.152246E-1	1.206372E-1	1.102626E-1	1.295151E-1	1.062029E-1	1.199938E-1	1.108275E-1	1.241211E-1	1.220060E-1	1.293706E-1	1.272440E-1	1.067523E-1	1.322084E-1	1.220439E-1	1.457734E-1	1.141412E-1	1.364777E-1	1.266210E-1	1.181483E-1	1.453150E-1	1.079591E-1	1.260642E-1	1.232116E-1	1.458700E-1	1.398399E-1	1.086135E-1	1.453427E-1
5.340850E+2	1.810117E-1	1.664710E-1	1.801673E-1	1.628914E-1	1.898955E-1	1.795007E-1	1.800194E-1	1.791621E-1	1.613790E-1	1.716067E-1	1.842203E-1	1.752522E-1	1.723363E-1	1.835011E-1	1.782782E-1	1.525643E-1	1.965670E-1	2.066011E-1	1.809594E-1	1.753575E-1	1.874751E-1	1.809786E-1	1.767319E-1	1.693373E-1	2.241443E-1	1.893059E-1	2.055602E-1	1.944437E-1	1.990381E-1	1.957074E-1	1.818804E-1	1.964200E-1	1.856433E-1	1.877281E-1	1.852366E-1	1.919321E-1	1.850321E-1	1.908109E-1	1.716787E-1	1.651390E-1	1.997718E-1	1.978780E-1	1.784488E-1	1.860824E-1	1.749569E-1	1.997599E-1	1.725831E-1	1.839728E-1	1.955108E-1	1.680000E-1	1.720813E-1	1.729347E-1	1.850763E-1	1.780143E-1	1.693625E-1	1.791444E-1	1.527139E-1	1.615843E-1	1.886777E-1	1.927904E-1	1.829701E-1	1.716099E-1	1.861394E-1	1.657363E-1	1.986012E-1	1.832902E-1	1.802174E-1	1.799096E-1	2.088374E-1	1.602904E-1	1.714576E-1	1.796834E-1	1.732460E-1	1.933145E-1	1.807891E-1	1.849497E-1	1.985709E-1	1.868927E-1	1.808270E-1	1.764888E-1	1.821089E-1	1.841802E-1	1.847931E-1	1.776714E-1	1.742086E-1	1.981484E-1	1.690985E-1	1.745432E-1	1.924530E-1	2.028539E-1	1.884806E-1	1.783214E-1	1.758232E-1	1.763069E-1	1.898647E-1	1.578290E-1	1.752654E-1	2.030662E-1	1.842579E-1	1.978799E-1	1.724746E-1	1.602119E-1	1.736796E-1	1.832236E-1	1.854753E-1	1.991071E-1	1.756203E-1	1.753860E-1	1.814476E-1	1.564068E-1	1.517016E-1	1.884325E-1	1.868373E-1	1.888153E-1	1.730284E-1	2.028683E-1	2.031722E-1	1.698679E-1	1.787185E-1	1.993953E-1	1.952451E-1	1.896750E-1	1.827431E-1	1.705498E-1	1.882439E-1	1.880735E-1	1.700549E-1	2.051033E-1	1.848926E-1	1.785869E-1	2.018862E-1	1.920346E-1	1.866440E-1	1.986260E-1	1.917919E-1	1.969543E-1	1.906480E-1	1.964352E-1	1.805012E-1	1.888169E-1	1.941463E-1	1.499183E-1	1.882562E-1	1.791861E-1	1.785282E-1	1.927952E-1	1.934007E-1	1.851258E-1	1.717106E-1	1.812865E-1	1.985598E-1	1.783216E-1	1.784630E-1	2.142590E-1	1.910274E-1	1.906589E-1	2.031417E-1	1.745539E-1	1.768269E-1	2.052726E-1	1.873128E-1	1.763327E-1	1.750855E-1	1.839657E-1	1.975976E-1	1.840535E-1	1.687965E-1	1.778417E-1	1.618316E-1	2.053497E-1
5.342040E+2	3.246624E-1	3.056169E-1	2.944332E-1	2.895817E-1	2.817315E-1	2.983438E-1	2.710393E-1	2.878665E-1	3.214066E-1	2.787407E-1	3.039844E-1	2.784869E-1	2.820869E-1	3.027156E-1	2.872838E-1	2.840529E-1	3.127634E-1	3.175884E-1	2.854696E-1	2.973901E-1	2.598844E-1	2.677279E-1	2.986501E-1	2.902109E-1	3.434725E-1	3.334565E-1	3.241711E-1	3.057130E-1	3.165450E-1	3.057108E-1	2.951205E-1	3.002694E-1	3.109325E-1	2.974240E-1	3.101972E-1	3.085278E-1	3.165148E-1	3.195210E-1	3.008875E-1	2.877110E-1	2.876222E-1	2.957180E-1	3.185824E-1	3.040966E-1	3.118586E-1	2.981082E-1	2.914327E-1	3.058509E-1	3.161413E-1	3.132475E-1	3.055198E-1	3.038297E-1	2.969342E-1	2.638866E-1	2.910009E-1	2.812229E-1	2.719392E-1	2.842491E-1	3.044485E-1	2.967130E-1	2.880678E-1	3.068477E-1	2.827735E-1	2.848237E-1	2.911101E-1	3.341166E-1	2.926956E-1	2.807642E-1	3.082092E-1	2.994070E-1	2.716421E-1	2.817931E-1	2.966257E-1	3.068112E-1	2.991346E-1	2.936624E-1	2.944242E-1	2.845922E-1	3.330813E-1	2.964657E-1	2.956875E-1	3.054144E-1	3.196101E-1	3.307352E-1	3.074497E-1	2.876443E-1	2.845808E-1	2.916782E-1	2.912769E-1	3.044770E-1	3.160981E-1	3.059844E-1	2.954979E-1	2.902618E-1	3.123363E-1	2.960760E-1	3.018969E-1	2.800736E-1	2.841046E-1	2.913105E-1	3.075530E-1	2.954070E-1	2.934578E-1	2.842550E-1	3.038541E-1	3.055310E-1	2.912244E-1	2.786411E-1	2.617426E-1	2.871702E-1	2.817757E-1	2.883007E-1	3.119832E-1	3.270852E-1	2.833696E-1	2.693642E-1	2.978600E-1	2.932191E-1	3.113888E-1	3.074734E-1	2.895758E-1	3.173619E-1	3.141147E-1	2.965302E-1	2.838653E-1	2.918830E-1	3.006023E-1	3.152500E-1	2.858118E-1	2.786963E-1	3.174501E-1	2.676924E-1	2.935393E-1	2.976097E-1	2.761751E-1	3.146234E-1	3.050127E-1	2.796129E-1	3.088995E-1	3.057302E-1	2.914535E-1	3.228778E-1	2.956399E-1	3.149151E-1	2.959199E-1	2.995188E-1	2.905159E-1	3.236659E-1	2.987972E-1	2.952307E-1	3.226344E-1	3.004773E-1	2.891988E-1	2.791680E-1	2.644665E-1	2.935229E-1	3.168604E-1	2.977374E-1	3.098657E-1	3.242725E-1	2.679270E-1	2.996171E-1	3.016175E-1	2.975410E-1	2.821160E-1	2.855349E-1	2.774545E-1	3.006905E-1	3.294249E-1	2.740551E-1
5.343600E+2	5.355364E-1	5.368244E-1	5.354127E-1	5.068129E-1	5.589993E-1	5.109022E-1	5.018450E-1	5.200445E-1	4.945566E-1	5.145817E-1	5.206137E-1	5.310550E-1	5.374081E-1	5.392635E-1	5.402303E-1	5.188925E-1	5.273327E-1	5.422345E-1	5.294895E-1	5.493374E-1	5.151570E-1	5.587694E-1	4.941278E-1	5.525294E-1	5.888772E-1	5.523294E-1	5.598911E-1	5.818717E-1	5.676046E-1	5.413554E-1	5.701800E-1	5.589767E-1	5.582279E-1	5.225275E-1	5.496336E-1	5.076077E-1	5.644147E-1	5.260160E-1	5.423826E-1	5.554213E-1	5.379127E-1	5.447474E-1	5.291962E-1	5.481835E-1	5.315656E-1	5.491986E-1	5.492148E-1	5.467403E-1	5.067910E-1	5.369221E-1	5.227299E-1	5.580808E-1	5.805238E-1	5.176183E-1	5.439538E-1	5.495734E-1	5.377114E-1	5.667043E-1	5.445824E-1	5.664637E-1	5.565078E-1	5.310442E-1	5.392893E-1	5.510256E-1	5.690476E-1	5.425504E-1	5.577867E-1	5.503495E-1	5.587522E-1	5.556925E-1	5.265632E-1	5.511296E-1	5.231965E-1	5.329661E-1	5.374203E-1	5.494850E-1	5.276357E-1	5.296300E-1	5.463702E-1	5.465717E-1	5.693732E-1	5.421788E-1	5.496038E-1	5.622156E-1	5.675478E-1	5.479681E-1	5.403174E-1	5.573868E-1	5.326331E-1	5.625387E-1	5.314073E-1	5.474357E-1	5.661993E-1	5.555983E-1	5.185958E-1	5.967918E-1	5.777055E-1	5.412382E-1	5.019994E-1	5.436664E-1	5.471799E-1	5.266276E-1	5.255310E-1	5.338218E-1	5.421565E-1	5.324371E-1	5.275806E-1	5.372653E-1	5.374034E-1	5.514205E-1	5.353602E-1	5.454482E-1	5.451496E-1	5.986291E-1	5.210744E-1	5.172332E-1	5.287965E-1	5.387259E-1	5.223377E-1	5.436694E-1	5.309959E-1	5.179243E-1	5.555751E-1	5.622019E-1	5.830378E-1	5.588805E-1	5.684936E-1	5.206235E-1	5.427361E-1	5.552165E-1	5.176217E-1	5.563158E-1	5.586554E-1	5.329285E-1	5.579675E-1	5.917955E-1	5.699079E-1	5.379924E-1	5.616704E-1	5.561591E-1	5.455913E-1	5.220638E-1	5.310665E-1	5.456768E-1	5.420795E-1	5.087605E-1	5.519245E-1	5.905296E-1	5.449403E-1	5.327967E-1	5.390393E-1	4.988831E-1	5.564943E-1	5.409578E-1	5.077438E-1	5.744473E-1	5.045408E-1	5.531031E-1	5.186123E-1	5.342004E-1	5.394194E-1	5.641658E-1	5.536659E-1	5.731815E-1	5.474018E-1	5.731178E-1	5.276651E-1	5.491028E-1	5.537975E-1	5.125070E-1
5.345160E+2	9.430978E-1	8.884391E-1	9.599982E-1	9.506421E-1	9.670425E-1	9.549816E-1	9.618695E-1	9.808104E-1	9.182378E-1	8.888296E-1	9.479829E-1	8.841294E-1	9.636852E-1	9.498814E-1	9.631595E-1	9.285152E-1	9.552699E-1	9.602467E-1	9.276575E-1	9.065436E-1	9.325335E-1	9.242285E-1	9.142877E-1	9.427178E-1	9.969600E-1	1.022490E+0	9.785492E-1	9.849573E-1	9.737680E-1	9.867704E-1	9.967807E-1	9.366145E-1	9.960977E-1	9.748293E-1	9.612590E-1	9.980212E-1	9.367087E-1	9.396554E-1	9.270863E-1	9.672871E-1	9.415894E-1	9.725161E-1	9.481243E-1	9.512427E-1	9.457726E-1	9.880045E-1	9.754082E-1	9.356932E-1	9.302593E-1	9.145107E-1	9.556489E-1	9.604793E-1	9.388337E-1	9.587664E-1	9.759981E-1	9.864668E-1	9.572809E-1	9.158167E-1	9.397621E-1	9.788524E-1	9.863655E-1	9.774078E-1	9.644979E-1	9.666970E-1	9.664673E-1	9.538242E-1	9.495220E-1	9.682586E-1	9.343992E-1	9.433905E-1	9.386779E-1	9.826669E-1	9.660055E-1	9.204661E-1	9.733757E-1	9.596643E-1	9.355523E-1	9.008085E-1	9.650265E-1	9.673453E-1	9.632052E-1	9.365295E-1	9.726235E-1	9.870563E-1	9.512386E-1	9.607532E-1	9.680143E-1	9.731946E-1	9.725952E-1	9.240548E-1	9.598644E-1	9.503203E-1	9.118844E-1	9.484683E-1	9.759854E-1	9.444874E-1	9.842746E-1	9.815512E-1	9.389551E-1	9.953326E-1	9.585744E-1	9.327961E-1	9.545453E-1	9.491884E-1	9.813521E-1	9.432841E-1	9.086484E-1	9.569887E-1	9.546987E-1	9.468902E-1	9.616315E-1	9.610717E-1	9.385780E-1	9.320954E-1	9.666547E-1	9.437357E-1	9.524147E-1	9.523271E-1	1.001142E+0	9.316033E-1	9.730545E-1	1.017133E+0	9.122421E-1	9.218441E-1	9.804757E-1	9.637697E-1	9.639980E-1	9.300199E-1	9.451969E-1	9.721257E-1	9.894799E-1	9.654465E-1	9.299624E-1	9.284990E-1	9.024885E-1	9.539060E-1	9.518454E-1	9.330135E-1	9.149582E-1	9.231134E-1	9.409959E-1	9.530501E-1	9.520989E-1	9.309282E-1	9.774183E-1	9.528857E-1	9.171447E-1	9.604519E-1	9.327628E-1	9.761883E-1	9.398794E-1	9.627121E-1	1.015473E+0	9.427172E-1	9.652673E-1	9.098668E-1	9.996981E-1	9.726383E-1	9.092037E-1	9.484328E-1	9.641822E-1	9.678727E-1	1.012024E+0	9.363553E-1	9.775780E-1	9.014457E-1	9.613213E-1	9.868561E-1	9.627981E-1	9.155834E-1
5.346510E+2	1.394392E+0	1.388215E+0	1.415751E+0	1.343543E+0	1.357268E+0	1.382237E+0	1.373370E+0	1.379466E+0	1.346604E+0	1.311615E+0	1.364750E+0	1.349868E+0	1.286853E+0	1.366417E+0	1.357213E+0	1.312668E+0	1.330825E+0	1.390704E+0	1.392512E+0	1.356210E+0	1.366108E+0	1.407365E+0	1.352298E+0	1.385488E+0	1.457448E+0	1.431416E+0	1.422363E+0	1.385428E+0	1.415171E+0	1.432701E+0	1.363078E+0	1.408038E+0	1.369393E+0	1.391231E+0	1.349287E+0	1.430819E+0	1.421479E+0	1.339380E+0	1.390893E+0	1.398107E+0	1.387941E+0	1.392220E+0	1.318010E+0	1.422358E+0	1.400606E+0	1.389158E+0	1.417319E+0	1.368455E+0	1.423583E+0	1.406885E+0	1.371528E+0	1.414667E+0	1.398090E+0	1.387097E+0	1.347784E+0	1.331382E+0	1.348318E+0	1.383565E+0	1.393206E+0	1.389928E+0	1.391899E+0	1.407034E+0	1.415066E+0	1.332113E+0	1.381208E+0	1.448659E+0	1.367734E+0	1.370925E+0	1.338498E+0	1.330509E+0	1.371294E+0	1.371529E+0	1.346080E+0	1.388057E+0	1.375287E+0	1.378834E+0	1.370381E+0	1.329601E+0	1.331609E+0	1.381488E+0	1.356603E+0	1.408082E+0	1.393095E+0	1.389525E+0	1.383352E+0	1.329352E+0	1.368501E+0	1.397653E+0	1.406878E+0	1.391593E+0	1.342714E+0	1.359292E+0	1.368255E+0	1.353837E+0	1.400334E+0	1.329479E+0	1.370716E+0	1.430572E+0	1.404744E+0	1.377661E+0	1.380049E+0	1.338844E+0	1.376690E+0	1.371824E+0	1.395642E+0	1.363416E+0	1.320504E+0	1.320967E+0	1.335908E+0	1.319041E+0	1.368625E+0	1.369054E+0	1.379543E+0	1.319896E+0	1.387533E+0	1.371923E+0	1.400867E+0	1.397559E+0	1.345971E+0	1.315780E+0	1.358911E+0	1.345748E+0	1.325778E+0	1.375079E+0	1.284096E+0	1.367404E+0	1.373797E+0	1.326675E+0	1.370259E+0	1.303710E+0	1.358221E+0	1.311625E+0	1.354902E+0	1.301751E+0	1.344285E+0	1.341656E+0	1.328001E+0	1.383159E+0	1.327768E+0	1.321007E+0	1.373121E+0	1.374367E+0	1.416542E+0	1.347601E+0	1.318491E+0	1.397296E+0	1.346510E+0	1.365397E+0	1.345578E+0	1.341638E+0	1.363548E+0	1.314965E+0	1.403997E+0	1.359174E+0	1.331226E+0	1.344152E+0	1.316573E+0	1.365340E+0	1.333204E+0	1.374986E+0	1.297421E+0	1.373453E+0	1.391091E+0	1.368348E+0	1.389053E+0	1.295041E+0	1.328605E+0	1.364621E+0	1.353734E+0	1.410057E+0
5.348020E+2	1.802377E+0	1.812555E+0	1.802129E+0	1.794937E+0	1.798990E+0	1.821244E+0	1.772594E+0	1.857145E+0	1.770225E+0	1.781200E+0	1.815570E+0	1.790952E+0	1.767347E+0	1.822892E+0	1.836645E+0	1.815002E+0	1.832157E+0	1.804109E+0	1.868439E+0	1.793572E+0	1.762888E+0	1.787330E+0	1.805530E+0	1.781120E+0	1.826426E+0	1.826778E+0	1.874340E+0	1.828780E+0	1.812937E+0	1.826609E+0	1.777306E+0	1.785660E+0	1.874346E+0	1.741316E+0	1.872762E+0	1.857439E+0	1.832969E+0	1.808656E+0	1.798537E+0	1.742716E+0	1.822248E+0	1.779827E+0	1.807977E+0	1.779938E+0	1.821980E+0	1.863123E+0	1.783360E+0	1.778659E+0	1.716309E+0	1.798184E+0	1.771456E+0	1.859968E+0	1.884505E+0	1.751009E+0	1.756467E+0	1.872408E+0	1.778567E+0	1.794493E+0	1.815421E+0	1.804837E+0	1.793284E+0	1.765774E+0	1.812357E+0	1.790233E+0	1.835304E+0	1.830162E+0	1.768059E+0	1.723595E+0	1.725938E+0	1.780292E+0	1.798384E+0	1.846862E+0	1.829644E+0	1.779017E+0	1.780079E+0	1.800042E+0	1.782072E+0	1.774130E+0	1.739013E+0	1.793848E+0	1.787081E+0	1.808377E+0	1.799586E+0	1.788473E+0	1.794082E+0	1.726179E+0	1.743251E+0	1.781828E+0	1.840714E+0	1.831025E+0	1.741665E+0	1.796087E+0	1.798133E+0	1.778770E+0	1.804499E+0	1.789428E+0	1.848434E+0	1.748162E+0	1.791135E+0	1.781059E+0	1.862368E+0	1.794976E+0	1.787869E+0	1.749691E+0	1.777058E+0	1.791680E+0	1.787224E+0	1.754744E+0	1.810701E+0	1.766182E+0	1.756063E+0	1.784973E+0	1.778689E+0	1.801636E+0	1.746433E+0	1.823945E+0	1.788330E+0	1.820046E+0	1.752819E+0	1.857907E+0	1.747373E+0	1.756537E+0	1.810981E+0	1.751251E+0	1.759370E+0	1.780047E+0	1.704690E+0	1.752590E+0	1.810629E+0	1.743145E+0	1.772244E+0	1.780673E+0	1.751182E+0	1.676508E+0	1.753840E+0	1.761403E+0	1.756655E+0	1.710932E+0	1.739671E+0	1.789264E+0	1.733471E+0	1.777510E+0	1.782762E+0	1.715021E+0	1.766428E+0	1.808708E+0	1.778034E+0	1.789572E+0	1.768229E+0	1.759153E+0	1.778021E+0	1.804422E+0	1.849531E+0	1.714921E+0	1.731403E+0	1.722765E+0	1.766000E+0	1.911398E+0	1.774535E+0	1.810641E+0	1.816724E+0	1.754863E+0	1.748908E+0	1.745754E+0	1.772158E+0	1.750202E+0	1.842006E+0	1.714333E+0	1.804521E+0	1.726318E+0
5.349580E+2	2.109900E+0	2.127820E+0	2.080638E+0	2.107109E+0	2.089727E+0	2.126771E+0	2.125122E+0	2.181823E+0	2.134543E+0	2.125824E+0	2.110584E+0	2.022946E+0	2.078420E+0	2.099642E+0	2.158054E+0	2.197299E+0	2.076426E+0	2.157508E+0	2.137493E+0	2.144091E+0	2.090728E+0	2.196393E+0	2.062865E+0	2.119826E+0	2.043485E+0	2.115745E+0	2.177597E+0	2.101987E+0	2.114210E+0	2.164156E+0	2.119427E+0	2.111323E+0	2.122560E+0	2.132884E+0	2.084004E+0	2.031063E+0	2.075880E+0	2.091003E+0	2.114878E+0	2.062796E+0	2.131291E+0	2.114538E+0	2.117119E+0	2.105236E+0	2.043997E+0	2.104318E+0	2.166718E+0	2.083180E+0	2.125227E+0	2.137391E+0	2.090916E+0	2.090903E+0	2.039106E+0	2.138019E+0	2.049553E+0	2.155518E+0	2.078084E+0	2.117909E+0	2.018988E+0	2.058437E+0	2.079953E+0	2.109901E+0	2.045643E+0	2.110482E+0	2.048849E+0	2.112673E+0	2.052301E+0	2.069372E+0	2.004903E+0	2.136877E+0	2.006269E+0	2.110960E+0	2.040982E+0	2.107730E+0	2.083279E+0	2.064542E+0	2.071958E+0	2.033833E+0	2.075913E+0	2.086043E+0	2.034939E+0	2.066497E+0	2.027909E+0	2.070503E+0	2.027030E+0	2.024839E+0	2.060317E+0	2.110990E+0	2.084712E+0	2.047266E+0	2.047107E+0	2.097142E+0	2.117380E+0	2.040246E+0	2.062759E+0	2.068928E+0	2.067785E+0	2.090341E+0	2.019683E+0	2.028472E+0	2.085854E+0	2.055545E+0	2.079016E+0	2.029691E+0	1.998763E+0	2.055856E+0	2.082856E+0	2.005106E+0	2.047591E+0	2.015576E+0	2.061939E+0	2.091099E+0	2.156270E+0	2.036016E+0	2.091527E+0	2.045211E+0	2.055517E+0	2.072461E+0	2.001719E+0	2.025648E+0	2.089726E+0	2.015140E+0	2.049670E+0	1.978858E+0	2.051463E+0	2.057315E+0	2.092857E+0	1.988951E+0	2.089643E+0	2.041258E+0	1.923768E+0	2.088179E+0	2.032537E+0	2.000337E+0	2.032575E+0	2.056369E+0	2.050328E+0	2.088196E+0	1.982830E+0	1.982722E+0	2.052617E+0	2.022514E+0	2.136944E+0	2.043267E+0	1.984620E+0	2.003995E+0	2.053942E+0	2.018835E+0	2.063901E+0	1.977418E+0	2.053704E+0	2.040616E+0	2.101655E+0	2.038960E+0	1.994041E+0	2.024468E+0	2.008437E+0	2.141645E+0	1.948018E+0	2.016465E+0	1.993945E+0	2.000096E+0	2.030828E+0	2.035452E+0	2.066078E+0	1.996231E+0	2.071748E+0	2.015989E+0	2.008261E+0	2.006887E+0
5.351140E+2	2.233843E+0	2.244299E+0	2.239246E+0	2.292978E+0	2.270802E+0	2.192289E+0	2.201449E+0	2.224650E+0	2.236076E+0	2.225604E+0	2.187568E+0	2.183380E+0	2.271873E+0	2.248167E+0	2.230733E+0	2.197260E+0	2.215133E+0	2.273492E+0	2.261645E+0	2.198816E+0	2.235903E+0	2.251084E+0	2.241485E+0	2.279938E+0	2.201124E+0	2.268816E+0	2.333626E+0	2.214012E+0	2.205095E+0	2.245526E+0	2.168034E+0	2.262298E+0	2.229555E+0	2.224332E+0	2.216138E+0	2.206152E+0	2.170178E+0	2.247829E+0	2.222571E+0	2.176171E+0	2.267998E+0	2.177056E+0	2.150523E+0	2.213727E+0	2.211253E+0	2.194420E+0	2.323514E+0	2.210471E+0	2.184661E+0	2.261295E+0	2.213097E+0	2.236289E+0	2.222248E+0	2.215412E+0	2.221003E+0	2.188080E+0	2.209758E+0	2.116702E+0	2.201477E+0	2.240819E+0	2.193884E+0	2.154967E+0	2.175248E+0	2.122496E+0	2.197011E+0	2.241599E+0	2.123452E+0	2.180493E+0	2.194932E+0	2.216857E+0	2.212958E+0	2.222923E+0	2.185277E+0	2.187477E+0	2.204156E+0	2.150558E+0	2.111993E+0	2.148954E+0	2.146169E+0	2.182197E+0	2.134374E+0	2.197632E+0	2.326717E+0	2.187608E+0	2.155700E+0	2.204201E+0	2.182147E+0	2.212449E+0	2.165447E+0	2.209454E+0	2.243856E+0	2.177751E+0	2.174280E+0	2.175352E+0	2.148409E+0	2.253213E+0	2.183427E+0	2.221751E+0	2.218827E+0	2.176311E+0	2.208693E+0	2.149661E+0	2.222498E+0	2.228837E+0	2.215767E+0	2.160219E+0	2.275774E+0	2.106385E+0	2.169297E+0	2.139739E+0	2.181434E+0	2.123433E+0	2.194173E+0	2.216356E+0	2.226818E+0	2.158123E+0	2.126342E+0	2.275199E+0	2.212232E+0	2.282608E+0	2.211044E+0	2.138945E+0	2.241156E+0	2.163743E+0	2.147821E+0	2.100261E+0	2.129879E+0	2.153908E+0	2.138300E+0	2.189715E+0	2.169950E+0	2.166781E+0	2.133249E+0	2.186732E+0	2.143534E+0	2.192391E+0	2.149368E+0	2.085885E+0	2.124310E+0	2.240680E+0	2.078350E+0	2.165812E+0	2.241829E+0	2.200139E+0	2.077870E+0	2.127568E+0	2.077190E+0	2.170802E+0	2.180451E+0	2.157937E+0	2.150903E+0	2.128012E+0	2.234960E+0	2.144073E+0	2.147470E+0	2.178079E+0	2.101407E+0	2.206236E+0	2.065208E+0	2.175188E+0	2.171001E+0	2.111718E+0	2.128937E+0	2.160593E+0	2.193635E+0	2.127669E+0	2.138176E+0	2.104403E+0	2.160899E+0	2.125219E+0
5.352600E+2	2.244452E+0	2.316594E+0	2.247971E+0	2.206555E+0	2.195549E+0	2.214294E+0	2.165175E+0	2.206764E+0	2.202660E+0	2.197972E+0	2.121549E+0	2.177081E+0	2.182133E+0	2.237042E+0	2.216215E+0	2.212264E+0	2.167091E+0	2.219088E+0	2.226158E+0	2.236890E+0	2.153576E+0	2.261019E+0	2.158105E+0	2.224930E+0	2.180619E+0	2.157382E+0	2.186431E+0	2.206116E+0	2.134453E+0	2.143959E+0	2.161817E+0	2.127153E+0	2.171080E+0	2.192287E+0	2.140933E+0	2.196301E+0	2.125388E+0	2.192166E+0	2.153644E+0	2.131148E+0	2.161790E+0	2.167601E+0	2.154779E+0	2.122558E+0	2.092088E+0	2.208060E+0	2.190798E+0	2.186045E+0	2.124253E+0	2.233296E+0	2.111139E+0	2.137848E+0	2.148577E+0	2.205573E+0	2.181399E+0	2.206830E+0	2.121415E+0	2.129531E+0	2.156393E+0	2.112103E+0	2.143406E+0	2.213757E+0	2.131189E+0	2.107542E+0	2.133393E+0	2.248490E+0	2.145719E+0	2.126804E+0	2.168682E+0	2.156997E+0	2.144602E+0	2.205290E+0	2.165004E+0	2.125156E+0	2.052802E+0	2.193547E+0	2.122602E+0	2.098528E+0	2.183112E+0	2.234989E+0	2.125774E+0	2.088351E+0	2.165817E+0	2.156510E+0	2.116946E+0	2.093519E+0	2.140532E+0	2.212630E+0	2.124785E+0	2.196908E+0	2.103970E+0	2.139798E+0	2.082602E+0	2.105538E+0	2.121294E+0	2.162486E+0	2.158386E+0	2.154152E+0	2.155302E+0	2.235156E+0	2.176092E+0	2.164701E+0	2.134399E+0	2.149543E+0	2.100082E+0	2.158860E+0	2.222745E+0	2.191529E+0	2.084016E+0	2.084839E+0	2.187409E+0	2.151560E+0	2.095943E+0	2.131170E+0	2.148615E+0	2.135540E+0	2.158768E+0	2.138115E+0	2.160551E+0	2.112516E+0	2.096694E+0	2.134232E+0	2.117944E+0	2.099459E+0	2.123719E+0	2.061736E+0	2.161986E+0	2.034719E+0	2.184126E+0	2.114865E+0	2.148059E+0	2.139309E+0	2.096627E+0	2.120893E+0	2.081329E+0	2.163382E+0	2.041937E+0	2.094848E+0	2.150748E+0	2.211896E+0	2.112167E+0	2.100135E+0	2.134090E+0	2.093124E+0	2.056822E+0	2.188599E+0	2.072734E+0	2.142077E+0	2.115462E+0	2.180285E+0	2.066386E+0	2.064304E+0	2.172154E+0	2.075448E+0	2.095602E+0	2.104601E+0	2.135936E+0	2.205947E+0	2.100344E+0	2.063668E+0	2.079350E+0	2.147752E+0	2.125270E+0	2.123177E+0	2.116243E+0	2.073645E+0	2.097382E+0	2.033621E+0	2.065307E+0	1.935653E+0
5.354110E+2	1.980029E+0	2.016197E+0	2.062344E+0	2.007117E+0	2.017548E+0	1.997019E+0	1.935747E+0	2.024280E+0	1.950206E+0	1.981066E+0	1.926089E+0	2.042614E+0	1.976404E+0	2.056794E+0	2.033560E+0	1.923733E+0	1.986174E+0	2.042508E+0	2.055103E+0	2.023127E+0	2.014825E+0	1.945390E+0	1.997918E+0	2.012966E+0	1.909533E+0	1.967042E+0	1.974757E+0	1.973563E+0	1.953038E+0	2.036628E+0	1.963420E+0	1.923976E+0	1.930562E+0	1.909988E+0	1.975379E+0	1.992302E+0	1.919909E+0	1.955007E+0	1.934465E+0	1.953835E+0	1.907540E+0	1.985881E+0	1.911989E+0	1.967574E+0	1.904652E+0	1.946065E+0	2.020765E+0	1.943633E+0	2.006967E+0	1.935473E+0	1.972696E+0	1.980062E+0	1.894572E+0	1.964970E+0	1.973182E+0	1.995362E+0	1.941245E+0	2.025224E+0	1.981318E+0	2.028106E+0	1.913889E+0	1.979932E+0	1.939174E+0	2.006237E+0	1.957158E+0	2.026958E+0	1.918510E+0	1.944415E+0	1.887469E+0	1.967175E+0	1.922812E+0	1.928060E+0	1.933233E+0	1.878758E+0	1.919601E+0	1.934300E+0	1.968489E+0	1.882634E+0	1.934512E+0	1.979971E+0	1.944082E+0	1.916172E+0	1.976660E+0	1.865238E+0	1.924542E+0	1.959810E+0	1.908309E+0	1.934390E+0	1.957269E+0	1.911799E+0	1.939686E+0	1.992081E+0	1.935807E+0	1.896327E+0	1.939921E+0	1.912783E+0	1.977524E+0	2.027887E+0	1.878200E+0	1.978825E+0	2.021984E+0	1.964920E+0	1.890954E+0	1.957059E+0	1.890569E+0	1.878657E+0	1.975369E+0	2.003965E+0	1.934907E+0	1.976677E+0	1.972123E+0	1.924280E+0	1.949806E+0	1.935745E+0	1.994648E+0	1.990907E+0	1.944410E+0	1.921604E+0	1.915367E+0	1.938409E+0	1.887445E+0	1.939144E+0	1.925690E+0	1.816790E+0	1.961931E+0	1.887136E+0	1.928722E+0	1.892804E+0	1.981839E+0	1.913711E+0	1.913473E+0	1.895175E+0	1.924612E+0	1.886166E+0	2.012715E+0	1.975994E+0	1.835099E+0	1.900306E+0	1.967172E+0	1.912752E+0	1.921491E+0	1.910997E+0	1.928403E+0	1.942508E+0	1.885981E+0	1.903041E+0	1.876653E+0	1.940937E+0	1.939032E+0	1.925600E+0	1.900980E+0	1.935375E+0	1.958030E+0	1.890288E+0	1.931781E+0	1.877169E+0	1.916881E+0	2.000461E+0	1.895175E+0	1.916245E+0	1.914098E+0	1.882917E+0	1.923425E+0	1.881137E+0	1.902864E+0	1.933800E+0	1.911975E+0	1.909250E+0	2.066793E+0	1.814257E+0
5.355630E+2	1.706162E+0	1.707005E+0	1.777677E+0	1.672964E+0	1.684456E+0	1.781185E+0	1.742775E+0	1.694838E+0	1.698778E+0	1.664514E+0	1.713542E+0	1.657559E+0	1.715823E+0	1.740093E+0	1.720208E+0	1.722981E+0	1.639991E+0	1.730797E+0	1.747143E+0	1.696453E+0	1.720638E+0	1.697163E+0	1.719536E+0	1.695673E+0	1.640983E+0	1.721605E+0	1.735122E+0	1.680170E+0	1.633987E+0	1.685927E+0	1.685710E+0	1.670825E+0	1.690336E+0	1.726335E+0	1.640868E+0	1.721044E+0	1.701567E+0	1.639951E+0	1.694743E+0	1.696623E+0	1.654126E+0	1.673800E+0	1.655116E+0	1.709134E+0	1.668825E+0	1.713036E+0	1.682828E+0	1.661474E+0	1.678347E+0	1.750665E+0	1.693132E+0	1.735407E+0	1.688699E+0	1.661502E+0	1.665084E+0	1.725681E+0	1.688496E+0	1.715785E+0	1.635399E+0	1.698660E+0	1.702763E+0	1.667286E+0	1.654328E+0	1.702586E+0	1.736419E+0	1.696624E+0	1.687638E+0	1.691241E+0	1.611520E+0	1.701717E+0	1.653012E+0	1.704928E+0	1.697830E+0	1.649410E+0	1.667919E+0	1.754189E+0	1.720426E+0	1.644934E+0	1.677194E+0	1.711329E+0	1.712328E+0	1.670723E+0	1.676262E+0	1.706713E+0	1.695391E+0	1.661733E+0	1.655690E+0	1.689579E+0	1.670567E+0	1.705512E+0	1.648656E+0	1.636159E+0	1.688937E+0	1.706311E+0	1.647909E+0	1.679567E+0	1.646524E+0	1.729970E+0	1.651686E+0	1.680907E+0	1.753521E+0	1.702149E+0	1.752487E+0	1.694174E+0	1.652190E+0	1.685052E+0	1.740233E+0	1.637505E+0	1.654913E+0	1.672736E+0	1.708962E+0	1.662425E+0	1.670631E+0	1.689202E+0	1.679603E+0	1.676878E+0	1.658969E+0	1.704877E+0	1.686962E+0	1.671908E+0	1.659166E+0	1.707632E+0	1.649480E+0	1.716296E+0	1.690057E+0	1.679176E+0	1.663078E+0	1.698404E+0	1.681698E+0	1.701022E+0	1.698577E+0	1.677202E+0	1.643863E+0	1.613931E+0	1.657782E+0	1.720015E+0	1.659228E+0	1.668230E+0	1.657562E+0	1.699386E+0	1.636929E+0	1.711344E+0	1.710213E+0	1.648174E+0	1.617291E+0	1.680148E+0	1.680760E+0	1.694439E+0	1.665152E+0	1.684414E+0	1.616712E+0	1.710354E+0	1.695458E+0	1.644348E+0	1.662772E+0	1.641797E+0	1.646361E+0	1.716904E+0	1.636011E+0	1.658059E+0	1.702104E+0	1.624359E+0	1.714937E+0	1.666374E+0	1.641970E+0	1.639551E+0	1.679861E+0	1.655255E+0	1.700625E+0	1.675180E+0
5.357090E+2	1.468199E+0	1.489327E+0	1.418455E+0	1.463958E+0	1.471762E+0	1.451090E+0	1.489869E+0	1.449120E+0	1.427788E+0	1.395358E+0	1.442993E+0	1.410284E+0	1.399936E+0	1.441801E+0	1.413541E+0	1.472961E+0	1.471447E+0	1.396592E+0	1.447205E+0	1.429609E+0	1.404151E+0	1.470292E+0	1.474134E+0	1.416510E+0	1.383077E+0	1.430577E+0	1.423208E+0	1.434746E+0	1.414339E+0	1.395436E+0	1.451592E+0	1.404901E+0	1.449215E+0	1.441479E+0	1.458129E+0	1.445531E+0	1.423197E+0	1.430735E+0	1.438752E+0	1.381591E+0	1.459109E+0	1.403626E+0	1.396503E+0	1.413290E+0	1.386809E+0	1.414600E+0	1.387842E+0	1.458562E+0	1.405705E+0	1.451736E+0	1.431823E+0	1.445584E+0	1.458515E+0	1.417209E+0	1.416709E+0	1.472885E+0	1.409744E+0	1.456811E+0	1.442473E+0	1.421715E+0	1.493239E+0	1.415779E+0	1.471394E+0	1.403654E+0	1.413418E+0	1.422243E+0	1.397337E+0	1.434002E+0	1.377775E+0	1.407501E+0	1.469884E+0	1.471949E+0	1.444838E+0	1.449929E+0	1.387541E+0	1.451541E+0	1.416175E+0	1.372952E+0	1.408511E+0	1.432051E+0	1.344525E+0	1.401537E+0	1.437244E+0	1.480861E+0	1.405204E+0	1.421153E+0	1.437526E+0	1.452685E+0	1.401521E+0	1.442920E+0	1.444165E+0	1.409784E+0	1.435086E+0	1.416036E+0	1.393444E+0	1.417040E+0	1.480131E+0	1.380518E+0	1.402960E+0	1.392316E+0	1.429708E+0	1.461424E+0	1.423063E+0	1.496113E+0	1.399339E+0	1.475887E+0	1.398850E+0	1.447868E+0	1.372703E+0	1.460570E+0	1.436879E+0	1.489933E+0	1.384762E+0	1.463462E+0	1.437885E+0	1.489980E+0	1.412461E+0	1.438853E+0	1.436970E+0	1.388196E+0	1.446657E+0	1.444718E+0	1.495780E+0	1.394309E+0	1.389172E+0	1.409984E+0	1.426521E+0	1.425789E+0	1.452084E+0	1.463625E+0	1.464746E+0	1.425682E+0	1.421785E+0	1.404582E+0	1.408745E+0	1.469432E+0	1.384979E+0	1.347371E+0	1.455135E+0	1.485170E+0	1.450207E+0	1.420036E+0	1.399414E+0	1.419634E+0	1.372758E+0	1.435393E+0	1.435244E+0	1.436477E+0	1.447026E+0	1.489744E+0	1.402366E+0	1.357683E+0	1.456495E+0	1.424278E+0	1.407071E+0	1.431997E+0	1.490586E+0	1.534322E+0	1.431095E+0	1.441586E+0	1.449151E+0	1.438708E+0	1.448075E+0	1.409281E+0	1.373612E+0	1.417411E+0	1.500908E+0	1.445713E+0	1.460072E+0	1.509116E+0
5.358650E+2	1.136759E+0	1.121537E+0	1.167967E+0	1.186892E+0	1.155642E+0	1.170221E+0	1.186884E+0	1.139488E+0	1.129351E+0	1.178467E+0	1.105631E+0	1.123884E+0	1.164409E+0	1.178029E+0	1.164413E+0	1.196225E+0	1.170119E+0	1.177348E+0	1.237168E+0	1.193058E+0	1.152652E+0	1.178651E+0	1.161213E+0	1.132874E+0	1.144736E+0	1.192429E+0	1.150333E+0	1.153638E+0	1.200026E+0	1.159618E+0	1.188260E+0	1.185036E+0	1.131210E+0	1.153216E+0	1.185319E+0	1.111022E+0	1.134017E+0	1.141353E+0	1.172440E+0	1.156497E+0	1.169137E+0	1.160607E+0	1.136486E+0	1.131031E+0	1.145661E+0	1.220436E+0	1.192452E+0	1.145722E+0	1.198443E+0	1.203552E+0	1.173703E+0	1.115420E+0	1.163607E+0	1.203004E+0	1.152972E+0	1.181102E+0	1.154455E+0	1.151629E+0	1.143233E+0	1.188537E+0	1.239918E+0	1.155279E+0	1.163061E+0	1.167612E+0	1.221225E+0	1.232811E+0	1.127233E+0	1.141736E+0	1.103953E+0	1.135822E+0	1.172083E+0	1.135964E+0	1.139168E+0	1.169297E+0	1.097240E+0	1.177893E+0	1.133384E+0	1.152631E+0	1.175571E+0	1.170879E+0	1.159178E+0	1.182334E+0	1.138865E+0	1.119674E+0	1.144059E+0	1.159486E+0	1.106982E+0	1.173171E+0	1.159318E+0	1.179527E+0	1.172338E+0	1.207204E+0	1.164250E+0	1.158965E+0	1.145618E+0	1.149209E+0	1.146932E+0	1.157883E+0	1.111757E+0	1.187436E+0	1.175628E+0	1.156994E+0	1.161287E+0	1.102790E+0	1.182340E+0	1.142145E+0	1.119369E+0	1.162567E+0	1.159889E+0	1.157005E+0	1.187726E+0	1.121802E+0	1.181057E+0	1.237812E+0	1.149655E+0	1.177990E+0	1.191895E+0	1.163189E+0	1.152791E+0	1.148843E+0	1.155185E+0	1.176115E+0	1.192135E+0	1.158870E+0	1.116814E+0	1.148255E+0	1.137401E+0	1.128162E+0	1.124764E+0	1.165594E+0	1.179247E+0	1.147267E+0	1.135149E+0	1.155703E+0	1.138972E+0	1.180574E+0	1.166903E+0	1.148241E+0	1.178444E+0	1.165894E+0	1.150571E+0	1.158214E+0	1.189178E+0	1.135634E+0	1.174977E+0	1.137918E+0	1.177192E+0	1.150989E+0	1.147189E+0	1.147534E+0	1.128470E+0	1.123002E+0	1.155940E+0	1.193669E+0	1.143926E+0	1.146622E+0	1.202759E+0	1.207232E+0	1.153698E+0	1.203312E+0	1.133895E+0	1.160485E+0	1.134008E+0	1.142693E+0	1.117528E+0	1.125352E+0	1.195708E+0	1.194949E+0	1.218619E+0	1.193096E+0
5.360070E+2	1.006197E+0	9.985107E-1	1.013968E+0	1.002542E+0	1.040601E+0	1.005254E+0	1.040181E+0	1.071981E+0	9.669791E-1	9.593241E-1	9.717495E-1	1.014307E+0	9.595991E-1	9.760974E-1	9.650108E-1	9.952954E-1	1.004352E+0	1.012033E+0	1.045974E+0	1.014449E+0	1.004428E+0	9.532856E-1	1.029029E+0	1.000104E+0	9.626206E-1	9.891640E-1	1.054073E+0	9.256139E-1	9.847950E-1	9.742822E-1	1.004436E+0	9.670874E-1	9.632317E-1	9.844203E-1	9.967166E-1	9.775683E-1	9.964078E-1	9.410194E-1	9.821998E-1	9.930165E-1	1.036846E+0	1.001581E+0	9.763915E-1	1.040971E+0	9.863952E-1	1.027613E+0	1.030731E+0	9.745062E-1	9.580655E-1	1.050204E+0	1.035731E+0	9.788132E-1	9.935065E-1	1.048752E+0	9.738929E-1	9.873601E-1	9.454255E-1	1.023978E+0	9.554236E-1	9.925251E-1	1.003056E+0	9.781976E-1	9.422037E-1	9.439147E-1	9.841521E-1	9.688919E-1	9.431622E-1	9.753815E-1	9.729800E-1	9.603655E-1	1.018133E+0	9.880897E-1	9.604656E-1	1.016617E+0	9.930620E-1	9.890943E-1	9.625147E-1	9.792323E-1	9.992898E-1	1.005276E+0	1.033841E+0	1.024468E+0	9.872952E-1	1.039814E+0	9.797314E-1	9.907442E-1	9.406778E-1	9.843073E-1	1.023906E+0	9.735806E-1	9.816380E-1	1.013815E+0	1.020536E+0	9.788099E-1	9.705507E-1	9.942215E-1	1.040689E+0	1.037044E+0	1.029391E+0	9.780604E-1	1.042605E+0	9.771076E-1	1.050984E+0	9.569407E-1	9.709374E-1	1.001399E+0	9.935101E-1	9.857138E-1	1.034959E+0	9.726251E-1	9.730345E-1	1.014932E+0	1.027649E+0	9.859241E-1	1.021246E+0	1.063461E+0	1.010472E+0	1.046643E+0	9.487264E-1	1.013975E+0	9.903315E-1	9.813909E-1	9.993413E-1	1.036796E+0	1.007618E+0	9.865780E-1	1.009495E+0	9.842285E-1	9.616337E-1	9.759212E-1	1.022356E+0	1.009951E+0	9.408673E-1	9.670078E-1	9.793356E-1	9.845996E-1	9.591611E-1	9.672772E-1	9.851454E-1	9.989845E-1	1.007190E+0	9.477119E-1	1.033754E+0	9.377275E-1	9.627298E-1	9.599111E-1	9.913155E-1	9.683293E-1	9.943705E-1	9.460746E-1	9.885232E-1	1.000338E+0	1.063504E+0	9.439227E-1	1.003532E+0	9.804648E-1	9.938570E-1	1.027699E+0	9.912652E-1	1.001660E+0	1.005340E+0	9.666483E-1	1.001472E+0	9.742833E-1	1.020583E+0	1.000390E+0	1.013478E+0	1.006963E+0	9.757988E-1	1.002343E+0
5.362680E+2	7.551456E-1	7.409100E-1	7.596762E-1	7.589394E-1	7.456241E-1	7.521034E-1	7.349475E-1	7.491830E-1	7.641108E-1	7.542116E-1	7.684339E-1	7.944614E-1	7.498644E-1	7.902628E-1	7.817242E-1	7.658973E-1	7.691430E-1	7.492036E-1	7.649737E-1	7.556631E-1	7.581717E-1	7.714735E-1	7.532085E-1	7.224058E-1	7.274094E-1	7.327802E-1	7.830553E-1	7.496824E-1	7.517436E-1	7.500532E-1	7.685505E-1	7.796850E-1	7.467924E-1	7.111150E-1	7.203288E-1	7.402286E-1	7.558740E-1	7.619934E-1	7.511808E-1	7.367276E-1	7.702438E-1	7.724386E-1	7.117902E-1	7.242441E-1	7.400747E-1	7.403882E-1	7.491864E-1	7.663604E-1	7.543610E-1	7.690434E-1	7.616479E-1	7.320672E-1	7.359092E-1	7.589491E-1	7.200619E-1	7.575630E-1	7.552509E-1	7.980883E-1	7.521592E-1	7.896328E-1	7.615570E-1	7.595696E-1	7.739570E-1	7.793263E-1	7.608612E-1	7.440529E-1	8.029046E-1	7.662920E-1	7.321533E-1	7.734798E-1	7.585353E-1	7.467854E-1	7.733984E-1	7.721424E-1	6.978053E-1	8.011488E-1	7.411668E-1	7.426439E-1	7.594642E-1	7.847420E-1	7.563882E-1	7.793065E-1	8.017685E-1	8.024140E-1	7.822176E-1	7.484753E-1	7.942178E-1	7.687881E-1	7.936288E-1	7.621657E-1	7.928301E-1	7.588086E-1	7.463226E-1	7.734839E-1	7.637418E-1	7.108651E-1	7.564782E-1	7.616463E-1	7.749181E-1	7.714752E-1	7.451840E-1	7.811276E-1	7.907672E-1	7.514871E-1	7.432596E-1	7.619658E-1	8.162404E-1	7.454853E-1	7.578271E-1	7.604543E-1	7.686857E-1	7.097710E-1	7.746777E-1	7.670617E-1	8.034005E-1	7.893197E-1	7.577002E-1	7.788611E-1	7.505145E-1	7.530440E-1	7.704280E-1	7.459410E-1	8.112603E-1	7.390025E-1	7.770232E-1	7.406552E-1	7.561286E-1	7.440554E-1	7.791479E-1	7.188186E-1	7.280421E-1	7.158723E-1	7.871138E-1	7.391101E-1	7.223239E-1	7.394341E-1	7.634784E-1	7.195598E-1	7.780088E-1	7.653496E-1	7.730313E-1	7.484340E-1	8.072201E-1	7.697199E-1	7.494141E-1	7.422633E-1	7.783848E-1	7.505443E-1	7.323858E-1	7.799025E-1	7.359590E-1	7.478570E-1	7.548235E-1	7.584910E-1	7.461545E-1	7.608139E-1	7.530871E-1	8.102653E-1	7.270625E-1	7.754863E-1	7.521185E-1	7.754657E-1	7.877716E-1	7.614809E-1	7.698707E-1	7.555765E-1	7.693426E-1	7.972655E-1	7.697619E-1	6.897915E-1
5.365140E+2	6.264706E-1	6.638594E-1	6.077029E-1	6.185431E-1	6.370390E-1	6.735725E-1	6.177818E-1	6.371034E-1	6.292192E-1	6.493741E-1	6.276558E-1	6.175097E-1	6.400035E-1	6.170544E-1	6.317373E-1	6.319244E-1	6.522363E-1	6.078415E-1	6.432223E-1	6.141158E-1	6.230010E-1	6.062061E-1	6.099926E-1	6.494525E-1	6.233047E-1	6.527022E-1	6.446375E-1	6.234023E-1	6.736850E-1	6.077140E-1	6.241448E-1	6.393466E-1	6.231584E-1	6.279333E-1	6.297455E-1	6.373504E-1	6.106000E-1	6.082009E-1	6.155388E-1	6.599326E-1	6.383346E-1	6.664660E-1	6.103608E-1	6.529674E-1	6.354023E-1	6.103074E-1	6.386983E-1	6.387524E-1	6.631078E-1	6.572598E-1	6.125035E-1	6.402826E-1	6.026527E-1	6.281531E-1	6.163818E-1	6.633353E-1	6.483655E-1	6.497152E-1	6.512069E-1	6.410393E-1	6.395370E-1	6.064871E-1	6.567937E-1	6.331425E-1	6.350476E-1	5.962028E-1	6.586903E-1	6.220565E-1	5.794289E-1	6.376297E-1	6.353300E-1	6.293561E-1	6.358951E-1	6.052250E-1	6.725868E-1	6.539598E-1	5.990445E-1	6.137923E-1	6.428112E-1	6.326119E-1	6.527607E-1	6.373095E-1	6.312260E-1	6.323268E-1	6.204823E-1	6.146374E-1	6.111594E-1	6.340047E-1	6.099664E-1	6.080772E-1	6.143841E-1	6.329614E-1	6.684796E-1	6.360702E-1	6.229565E-1	6.463899E-1	6.163540E-1	6.101103E-1	6.498440E-1	6.618628E-1	6.289375E-1	6.367439E-1	5.946850E-1	6.706420E-1	6.296038E-1	6.270691E-1	6.577323E-1	6.404918E-1	6.233723E-1	6.310307E-1	6.275036E-1	6.428464E-1	6.174983E-1	6.089722E-1	6.697856E-1	6.798569E-1	6.082421E-1	6.618500E-1	6.186519E-1	6.144486E-1	6.174663E-1	6.728419E-1	6.531407E-1	6.338300E-1	6.397055E-1	6.326381E-1	6.094990E-1	5.980927E-1	6.333491E-1	6.292718E-1	6.612382E-1	6.497588E-1	6.617633E-1	6.591370E-1	6.404280E-1	6.239259E-1	6.268333E-1	6.443026E-1	6.567824E-1	6.367959E-1	6.120452E-1	6.316490E-1	6.248900E-1	5.955405E-1	6.312537E-1	6.347055E-1	6.614832E-1	6.217371E-1	6.296528E-1	6.262507E-1	6.584059E-1	6.240374E-1	6.327207E-1	6.228198E-1	6.240936E-1	6.438412E-1	6.543751E-1	6.512312E-1	6.381976E-1	6.732273E-1	6.166160E-1	6.335219E-1	6.318458E-1	6.543332E-1	6.477992E-1	6.202041E-1	5.849996E-1	6.386182E-1	6.376215E-1	6.318151E-1
5.367660E+2	5.819193E-1	5.521648E-1	5.803266E-1	5.801974E-1	5.453000E-1	5.495315E-1	5.436501E-1	6.087926E-1	5.473568E-1	5.727213E-1	5.571142E-1	5.630873E-1	5.840172E-1	5.814209E-1	5.433990E-1	5.664493E-1	5.965076E-1	5.842235E-1	5.486133E-1	6.039684E-1	5.966213E-1	5.531059E-1	5.897352E-1	5.788262E-1	5.726095E-1	5.537072E-1	5.968260E-1	5.606702E-1	6.022137E-1	5.494971E-1	6.243032E-1	5.863624E-1	5.976801E-1	5.530987E-1	5.671319E-1	6.120181E-1	5.643060E-1	5.461852E-1	5.937772E-1	5.996880E-1	5.875373E-1	5.779553E-1	5.847954E-1	5.616088E-1	5.756223E-1	5.961299E-1	5.906143E-1	5.604711E-1	5.510008E-1	5.566421E-1	5.809478E-1	5.854975E-1	5.795529E-1	5.964543E-1	5.490653E-1	6.084658E-1	5.433538E-1	5.453434E-1	5.571441E-1	5.857856E-1	5.484989E-1	5.376559E-1	5.748552E-1	5.678291E-1	5.755736E-1	5.608871E-1	5.937905E-1	5.306159E-1	5.775328E-1	5.746598E-1	5.663621E-1	5.790395E-1	5.723034E-1	5.464595E-1	5.878715E-1	5.834174E-1	5.660683E-1	5.878575E-1	5.777624E-1	6.089019E-1	5.629782E-1	5.739561E-1	5.836134E-1	5.864925E-1	5.643292E-1	5.690961E-1	5.701969E-1	5.790966E-1	5.953406E-1	5.429013E-1	5.674949E-1	5.703663E-1	6.026442E-1	5.887642E-1	6.048548E-1	5.683217E-1	5.952513E-1	6.147871E-1	6.014669E-1	5.729479E-1	5.816958E-1	5.744579E-1	6.012505E-1	5.645947E-1	6.049971E-1	5.900308E-1	5.572565E-1	6.084071E-1	5.833554E-1	5.440137E-1	5.789841E-1	5.779710E-1	5.617686E-1	5.599425E-1	5.789656E-1	6.147635E-1	5.620121E-1	5.824212E-1	6.069890E-1	5.628693E-1	5.647613E-1	5.784389E-1	5.726882E-1	6.058873E-1	5.792397E-1	5.792680E-1	5.787911E-1	5.357247E-1	5.288136E-1	6.118567E-1	5.706487E-1	5.728010E-1	5.312040E-1	5.838747E-1	5.696294E-1	5.808365E-1	5.885897E-1	5.512417E-1	5.539827E-1	5.907163E-1	5.718191E-1	5.633500E-1	6.023160E-1	5.935986E-1	5.639833E-1	5.321983E-1	6.151615E-1	5.517266E-1	5.705475E-1	5.971556E-1	5.595068E-1	5.924915E-1	6.135536E-1	5.663468E-1	5.541133E-1	6.016057E-1	5.563826E-1	6.018229E-1	5.977247E-1	6.150297E-1	5.768544E-1	5.526234E-1	5.874368E-1	5.681103E-1	5.935644E-1	5.890408E-1	6.028802E-1	5.654640E-1	6.247286E-1	5.195901E-1
5.370120E+2	5.520338E-1	5.576807E-1	5.824313E-1	5.259124E-1	6.146667E-1	5.602745E-1	5.604416E-1	5.672822E-1	5.510040E-1	5.664045E-1	5.646996E-1	5.320354E-1	5.809037E-1	5.988116E-1	5.874905E-1	5.821388E-1	5.611299E-1	5.836872E-1	5.602987E-1	5.413820E-1	5.727869E-1	5.517733E-1	5.340614E-1	5.765744E-1	5.687681E-1	6.124138E-1	5.773456E-1	5.543480E-1	5.724801E-1	5.949484E-1	5.720935E-1	5.781998E-1	5.838998E-1	5.777210E-1	5.834245E-1	6.077136E-1	5.863997E-1	5.637140E-1	5.862878E-1	5.766841E-1	5.776962E-1	5.998373E-1	5.614136E-1	6.216922E-1	5.571630E-1	5.752503E-1	6.127876E-1	5.656084E-1	5.957538E-1	5.558193E-1	5.632630E-1	5.615558E-1	6.149309E-1	5.869764E-1	5.603483E-1	5.855297E-1	5.938621E-1	5.817438E-1	5.955043E-1	6.273757E-1	5.576376E-1	5.755456E-1	5.496222E-1	5.593259E-1	5.764411E-1	5.636663E-1	5.606719E-1	5.743109E-1	5.616570E-1	5.865352E-1	5.518252E-1	6.268085E-1	5.695964E-1	5.733283E-1	5.378434E-1	5.786200E-1	6.183755E-1	5.537131E-1	5.506439E-1	6.061585E-1	5.571743E-1	5.587261E-1	5.943649E-1	5.815932E-1	5.503444E-1	5.574459E-1	5.711722E-1	5.648986E-1	6.041955E-1	5.748098E-1	5.654211E-1	5.368491E-1	5.784698E-1	5.649603E-1	5.715735E-1	5.636094E-1	5.621630E-1	5.655980E-1	5.606984E-1	5.959904E-1	5.793429E-1	5.678766E-1	6.192563E-1	5.873589E-1	6.174338E-1	5.916214E-1	5.365502E-1	5.905087E-1	5.512466E-1	5.972249E-1	5.908216E-1	5.839743E-1	5.629352E-1	5.840885E-1	5.855875E-1	6.153498E-1	5.732945E-1	5.891651E-1	6.015188E-1	5.896422E-1	5.913039E-1	5.642705E-1	5.830259E-1	5.615377E-1	5.980884E-1	5.671750E-1	5.879274E-1	5.695665E-1	5.884814E-1	5.875572E-1	5.878783E-1	5.489199E-1	5.923106E-1	5.782951E-1	5.759915E-1	5.925208E-1	5.632483E-1	5.924786E-1	5.887559E-1	5.865831E-1	5.762492E-1	5.787533E-1	5.794786E-1	5.526737E-1	5.790640E-1	6.011657E-1	6.127531E-1	5.732689E-1	5.735282E-1	5.795925E-1	5.888169E-1	5.785901E-1	6.219408E-1	5.569218E-1	5.658971E-1	5.728081E-1	6.094662E-1	5.988402E-1	6.039155E-1	5.444417E-1	5.815310E-1	5.686970E-1	5.790101E-1	6.171007E-1	5.738228E-1	5.802685E-1	6.161794E-1	5.942323E-1	6.265639E-1	5.584372E-1
5.372590E+2	6.418428E-1	6.477471E-1	6.438486E-1	6.197012E-1	6.675067E-1	6.487516E-1	6.321254E-1	6.361281E-1	6.574845E-1	5.963316E-1	6.415501E-1	6.379152E-1	6.582275E-1	6.362402E-1	6.670347E-1	6.361048E-1	6.483578E-1	6.192516E-1	6.736532E-1	6.185992E-1	6.101617E-1	6.070697E-1	6.711886E-1	6.405420E-1	6.314489E-1	6.372525E-1	6.289452E-1	6.006120E-1	6.324286E-1	6.323915E-1	6.822241E-1	6.920650E-1	6.462846E-1	6.357005E-1	6.656586E-1	6.505776E-1	6.420268E-1	6.210458E-1	6.449968E-1	6.546430E-1	6.654216E-1	6.450464E-1	6.708595E-1	6.474229E-1	6.404151E-1	6.834380E-1	6.853925E-1	6.150226E-1	6.412041E-1	6.330899E-1	6.309083E-1	6.565317E-1	6.422197E-1	6.347127E-1	6.259517E-1	6.750866E-1	6.683040E-1	6.268534E-1	6.460187E-1	6.556160E-1	6.355838E-1	6.208659E-1	6.338059E-1	6.487623E-1	6.392809E-1	6.832105E-1	6.564883E-1	5.738386E-1	6.494340E-1	6.363619E-1	6.391331E-1	6.368826E-1	6.452388E-1	6.219034E-1	6.851942E-1	6.500896E-1	6.672611E-1	6.243635E-1	6.311976E-1	6.566017E-1	6.605772E-1	6.365796E-1	6.379068E-1	6.399137E-1	6.086324E-1	6.520246E-1	6.134682E-1	6.492924E-1	6.356414E-1	6.340341E-1	6.813813E-1	6.613574E-1	6.565294E-1	6.604519E-1	6.508352E-1	6.090047E-1	6.520737E-1	6.304972E-1	6.197525E-1	6.573679E-1	6.246403E-1	6.455357E-1	6.706675E-1	6.316669E-1	6.362417E-1	5.889840E-1	6.136163E-1	6.581074E-1	6.383808E-1	6.221261E-1	6.624454E-1	6.367247E-1	5.882684E-1	6.565925E-1	6.872129E-1	6.807622E-1	6.554478E-1	6.669500E-1	6.804792E-1	6.349344E-1	6.233722E-1	6.760472E-1	6.578824E-1	6.559016E-1	6.578318E-1	6.711952E-1	6.372473E-1	6.301664E-1	6.180021E-1	6.385433E-1	6.464270E-1	6.459534E-1	6.393902E-1	6.368993E-1	6.449862E-1	6.793536E-1	6.510373E-1	5.983156E-1	6.394408E-1	6.354944E-1	6.523946E-1	6.336409E-1	6.486538E-1	6.394961E-1	6.319319E-1	6.416032E-1	6.743635E-1	6.775078E-1	6.810622E-1	6.313385E-1	6.043287E-1	6.315643E-1	6.749536E-1	6.545900E-1	6.141552E-1	6.581730E-1	6.780401E-1	7.488733E-1	6.552934E-1	6.453876E-1	6.547097E-1	6.367582E-1	6.269279E-1	6.571266E-1	6.476096E-1	6.244754E-1	6.315004E-1	6.476653E-1	6.818600E-1	6.497112E-1
5.375110E+2	7.150197E-1	7.135445E-1	7.352524E-1	7.376970E-1	7.519828E-1	7.167144E-1	7.270113E-1	7.180057E-1	6.741883E-1	7.176231E-1	7.227902E-1	7.235500E-1	6.805226E-1	7.296141E-1	7.068469E-1	7.713802E-1	7.221007E-1	7.103656E-1	7.632969E-1	7.597627E-1	7.190596E-1	7.258062E-1	7.424845E-1	7.391004E-1	7.016018E-1	7.318311E-1	7.315491E-1	7.454086E-1	7.275165E-1	7.662999E-1	7.796799E-1	7.440353E-1	6.884651E-1	7.162721E-1	7.679186E-1	7.056588E-1	7.480738E-1	6.927254E-1	7.504639E-1	7.650940E-1	7.355943E-1	7.296688E-1	7.126058E-1	7.198655E-1	6.968443E-1	7.669543E-1	8.067520E-1	7.087656E-1	7.335961E-1	7.055797E-1	7.096451E-1	7.484160E-1	7.558075E-1	7.170331E-1	7.264756E-1	7.281500E-1	7.187494E-1	6.855092E-1	7.532430E-1	7.526842E-1	7.057384E-1	7.630308E-1	7.409260E-1	7.667168E-1	7.361285E-1	7.208990E-1	7.065599E-1	7.444570E-1	7.680668E-1	7.336703E-1	6.967004E-1	7.671616E-1	7.249366E-1	7.621354E-1	7.227637E-1	7.726277E-1	7.386638E-1	7.190730E-1	7.246862E-1	7.325058E-1	7.165597E-1	7.419452E-1	7.092726E-1	7.340606E-1	7.212018E-1	7.473425E-1	8.294779E-1	7.420083E-1	7.660303E-1	7.246233E-1	7.569779E-1	7.281097E-1	7.155037E-1	7.659095E-1	7.010288E-1	7.340090E-1	7.807583E-1	7.148499E-1	7.215020E-1	7.271495E-1	7.553915E-1	7.283667E-1	7.716985E-1	7.239052E-1	7.673133E-1	7.616272E-1	7.434336E-1	7.596280E-1	6.751375E-1	7.776754E-1	7.526788E-1	7.048178E-1	7.396588E-1	7.385613E-1	7.691457E-1	7.907799E-1	7.349587E-1	7.421319E-1	7.586204E-1	6.953184E-1	7.514563E-1	7.275254E-1	7.496931E-1	7.600254E-1	7.673215E-1	7.679041E-1	7.256178E-1	7.583701E-1	7.282627E-1	7.199784E-1	7.359784E-1	7.441575E-1	7.079536E-1	7.369875E-1	7.187270E-1	7.549225E-1	6.952779E-1	7.455707E-1	7.737341E-1	7.794007E-1	7.127786E-1	7.393496E-1	7.500014E-1	7.268747E-1	7.295516E-1	7.156369E-1	7.886834E-1	7.484797E-1	7.559523E-1	6.997219E-1	7.608485E-1	7.439655E-1	7.540434E-1	7.478154E-1	7.113509E-1	7.230205E-1	7.464319E-1	7.271031E-1	7.908790E-1	7.763325E-1	7.179803E-1	7.346123E-1	7.316190E-1	7.706778E-1	7.402372E-1	7.542233E-1	7.910971E-1	7.848887E-1	7.441315E-1	7.885982E-1
5.377580E+2	8.336016E-1	8.181219E-1	8.399494E-1	8.344279E-1	8.833983E-1	8.126760E-1	8.547573E-1	8.284637E-1	8.073041E-1	8.418989E-1	8.025018E-1	8.134814E-1	8.105565E-1	8.910570E-1	7.997657E-1	7.880337E-1	8.867658E-1	8.379850E-1	8.712270E-1	8.090432E-1	8.999268E-1	7.958749E-1	8.402178E-1	8.536953E-1	8.676775E-1	8.160379E-1	8.082410E-1	8.662418E-1	8.209217E-1	8.239510E-1	8.534237E-1	8.473982E-1	8.536059E-1	8.457747E-1	8.678190E-1	8.511005E-1	7.950796E-1	8.200766E-1	8.283163E-1	8.261700E-1	8.375781E-1	8.537245E-1	8.123748E-1	8.548655E-1	8.089307E-1	8.315466E-1	8.400384E-1	8.662706E-1	8.460714E-1	8.318282E-1	8.424720E-1	8.274506E-1	8.487973E-1	8.558579E-1	8.624319E-1	8.039946E-1	8.209834E-1	8.314633E-1	8.652263E-1	8.426156E-1	8.411582E-1	8.344078E-1	8.341041E-1	8.322989E-1	8.226828E-1	8.480666E-1	7.971415E-1	8.692875E-1	8.068645E-1	8.329209E-1	8.323311E-1	9.047382E-1	8.154279E-1	8.166598E-1	8.081942E-1	8.964811E-1	8.354007E-1	8.199144E-1	8.062467E-1	8.294945E-1	8.058057E-1	8.231981E-1	8.398441E-1	8.345075E-1	8.282242E-1	8.085115E-1	8.295078E-1	8.421551E-1	8.760835E-1	8.205510E-1	8.456741E-1	8.363527E-1	8.406536E-1	8.712962E-1	8.646680E-1	8.341770E-1	7.892622E-1	8.179897E-1	8.388641E-1	8.253885E-1	8.521767E-1	7.767862E-1	8.428636E-1	8.300505E-1	8.269370E-1	8.364754E-1	8.613585E-1	8.452749E-1	8.106196E-1	8.061575E-1	8.447942E-1	8.160663E-1	8.017014E-1	8.462896E-1	8.596345E-1	8.635893E-1	8.438332E-1	8.725355E-1	8.425455E-1	8.267228E-1	8.695635E-1	8.268690E-1	8.218492E-1	8.445250E-1	8.199834E-1	8.447174E-1	8.152769E-1	8.327004E-1	8.215518E-1	7.941139E-1	8.527030E-1	8.806320E-1	8.535555E-1	8.096474E-1	7.950068E-1	8.720093E-1	8.360738E-1	7.749208E-1	8.413331E-1	7.907103E-1	8.319725E-1	8.479383E-1	7.975915E-1	8.617748E-1	8.221380E-1	8.171597E-1	8.656917E-1	8.578890E-1	8.372160E-1	8.290979E-1	8.845781E-1	8.281718E-1	8.438712E-1	8.452619E-1	8.296212E-1	8.326074E-1	8.242054E-1	8.859831E-1	8.086941E-1	8.690332E-1	8.264235E-1	8.565704E-1	8.188576E-1	8.744151E-1	8.019746E-1	8.242534E-1	8.912109E-1	8.131060E-1	8.933609E-1	8.662352E-1
5.380110E+2	9.169307E-1	9.692788E-1	9.907581E-1	9.081415E-1	9.989376E-1	9.393512E-1	9.814802E-1	9.596005E-1	9.098210E-1	9.712788E-1	9.838103E-1	1.016856E+0	9.583716E-1	9.971625E-1	9.942056E-1	9.613892E-1	1.004747E+0	9.988401E-1	9.923024E-1	9.603066E-1	9.543283E-1	9.717090E-1	9.876980E-1	9.580217E-1	1.012343E+0	9.461153E-1	9.997015E-1	9.880898E-1	9.604411E-1	9.893189E-1	9.123957E-1	9.632695E-1	1.030391E+0	9.441880E-1	9.704453E-1	9.983201E-1	9.930509E-1	9.721801E-1	1.004301E+0	9.709971E-1	9.893705E-1	9.938138E-1	9.654959E-1	9.866660E-1	9.759867E-1	1.010286E+0	9.770482E-1	9.997756E-1	9.697768E-1	9.612276E-1	9.708590E-1	9.692199E-1	9.679132E-1	9.854564E-1	9.807946E-1	9.914742E-1	9.391365E-1	9.568153E-1	9.850130E-1	9.566307E-1	9.640429E-1	9.793080E-1	9.638858E-1	9.983680E-1	1.008749E+0	1.021529E+0	9.812894E-1	9.761986E-1	9.166779E-1	1.018720E+0	9.614704E-1	9.460596E-1	1.033206E+0	9.749797E-1	9.875262E-1	9.848780E-1	9.586206E-1	9.304067E-1	9.903724E-1	9.827148E-1	9.709854E-1	9.484295E-1	1.016229E+0	9.465362E-1	9.468668E-1	9.726693E-1	9.619190E-1	9.940719E-1	9.959674E-1	9.280665E-1	9.944879E-1	9.808008E-1	9.632103E-1	9.634957E-1	9.682961E-1	9.881384E-1	9.532561E-1	1.026433E+0	9.840716E-1	9.561857E-1	9.234378E-1	9.269013E-1	1.007877E+0	9.505025E-1	9.687961E-1	9.896206E-1	9.047000E-1	1.020529E+0	9.815442E-1	9.478618E-1	9.876232E-1	9.991282E-1	1.016914E+0	9.721611E-1	9.358906E-1	1.016588E+0	9.369654E-1	9.750547E-1	9.985654E-1	9.590258E-1	1.002696E+0	9.366231E-1	9.995579E-1	9.183576E-1	9.651745E-1	9.453429E-1	9.629485E-1	1.001987E+0	9.938777E-1	9.808236E-1	1.005215E+0	1.021252E+0	9.902729E-1	9.524788E-1	9.123956E-1	1.035382E+0	9.729373E-1	9.778279E-1	1.006273E+0	9.983992E-1	9.645222E-1	9.649581E-1	9.841294E-1	9.680402E-1	9.071130E-1	9.589822E-1	1.001806E+0	1.000832E+0	9.649970E-1	1.010096E+0	9.920484E-1	9.421605E-1	9.997037E-1	9.678745E-1	9.009413E-1	9.422743E-1	9.751695E-1	1.071036E+0	9.748558E-1	1.006421E+0	9.878469E-1	9.502652E-1	9.495307E-1	9.903304E-1	9.381732E-1	9.122070E-1	1.027423E+0	9.687051E-1	1.018254E+0	9.458699E-1
5.382850E+2	1.131168E+0	1.158422E+0	1.138705E+0	1.108623E+0	1.121111E+0	1.132585E+0	1.123850E+0	1.205589E+0	1.160631E+0	1.152840E+0	1.112022E+0	1.140867E+0	1.138327E+0	1.147744E+0	1.119560E+0	1.110954E+0	1.193103E+0	1.180434E+0	1.152667E+0	1.178943E+0	1.159368E+0	1.100684E+0	1.115775E+0	1.127881E+0	1.125650E+0	1.207336E+0	1.142800E+0	1.177535E+0	1.149989E+0	1.126229E+0	1.125132E+0	1.161967E+0	1.128487E+0	1.166026E+0	1.114221E+0	1.182965E+0	1.186429E+0	1.105008E+0	1.161427E+0	1.151061E+0	1.141273E+0	1.194994E+0	1.149386E+0	1.140120E+0	1.107965E+0	1.116564E+0	1.195294E+0	1.161293E+0	1.155064E+0	1.145868E+0	1.110275E+0	1.183789E+0	1.130646E+0	1.113878E+0	1.107847E+0	1.200897E+0	1.108633E+0	1.131061E+0	1.134709E+0	1.164049E+0	1.182368E+0	1.237870E+0	1.130540E+0	1.139272E+0	1.120621E+0	1.112955E+0	1.107293E+0	1.174650E+0	1.103439E+0	1.110957E+0	1.119925E+0	1.126968E+0	1.121223E+0	1.160947E+0	1.137178E+0	1.130765E+0	1.175386E+0	1.046897E+0	1.136828E+0	1.172557E+0	1.146946E+0	1.166400E+0	1.130143E+0	1.190638E+0	1.175258E+0	1.084300E+0	1.127941E+0	1.134508E+0	1.188740E+0	1.124566E+0	1.124427E+0	1.139938E+0	1.167578E+0	1.107100E+0	1.101388E+0	1.149404E+0	1.152886E+0	1.149575E+0	1.145455E+0	1.175834E+0	1.173049E+0	1.129672E+0	1.172664E+0	1.146810E+0	1.127885E+0	1.139571E+0	1.136910E+0	1.175504E+0	1.164364E+0	1.130060E+0	1.133499E+0	1.110609E+0	1.116083E+0	1.160493E+0	1.172554E+0	1.159876E+0	1.178351E+0	1.160026E+0	1.165152E+0	1.107698E+0	1.115057E+0	1.124762E+0	1.122836E+0	1.125177E+0	1.149855E+0	1.145100E+0	1.145585E+0	1.109201E+0	1.150726E+0	1.166297E+0	1.187246E+0	1.173971E+0	1.126135E+0	1.122278E+0	1.160590E+0	1.166154E+0	1.145431E+0	1.146782E+0	1.151295E+0	1.161109E+0	1.088831E+0	1.161303E+0	1.136393E+0	1.107367E+0	1.153594E+0	1.132440E+0	1.154564E+0	1.162296E+0	1.158241E+0	1.103411E+0	1.149826E+0	1.149729E+0	1.171118E+0	1.124373E+0	1.179611E+0	1.150923E+0	1.183736E+0	1.162166E+0	1.109177E+0	1.168156E+0	1.179247E+0	1.170614E+0	1.134921E+0	1.166230E+0	1.159951E+0	1.114379E+0	1.155379E+0	1.177357E+0	1.094947E+0	1.173774E+0
5.385110E+2	1.383010E+0	1.356864E+0	1.364083E+0	1.393913E+0	1.438988E+0	1.348744E+0	1.382286E+0	1.393434E+0	1.339303E+0	1.383935E+0	1.304143E+0	1.369317E+0	1.282581E+0	1.359598E+0	1.359284E+0	1.371727E+0	1.399167E+0	1.359374E+0	1.399792E+0	1.370907E+0	1.394908E+0	1.326286E+0	1.363417E+0	1.401150E+0	1.332438E+0	1.363082E+0	1.379035E+0	1.424335E+0	1.384183E+0	1.370533E+0	1.394446E+0	1.384829E+0	1.369564E+0	1.343479E+0	1.311390E+0	1.394655E+0	1.362124E+0	1.389700E+0	1.407773E+0	1.379201E+0	1.421313E+0	1.363871E+0	1.294507E+0	1.379802E+0	1.348892E+0	1.388168E+0	1.376326E+0	1.397497E+0	1.416291E+0	1.387518E+0	1.428111E+0	1.353537E+0	1.368554E+0	1.339235E+0	1.334776E+0	1.371458E+0	1.330564E+0	1.365023E+0	1.352984E+0	1.412935E+0	1.463989E+0	1.321609E+0	1.373689E+0	1.391492E+0	1.365872E+0	1.441957E+0	1.342409E+0	1.412456E+0	1.297067E+0	1.406436E+0	1.358560E+0	1.427206E+0	1.392246E+0	1.397960E+0	1.386053E+0	1.397019E+0	1.344670E+0	1.351064E+0	1.369682E+0	1.427307E+0	1.339040E+0	1.384970E+0	1.343824E+0	1.423953E+0	1.347427E+0	1.335924E+0	1.364570E+0	1.378315E+0	1.404517E+0	1.370597E+0	1.380712E+0	1.381180E+0	1.364731E+0	1.323885E+0	1.290820E+0	1.410909E+0	1.400520E+0	1.351169E+0	1.366619E+0	1.361736E+0	1.385392E+0	1.258757E+0	1.360237E+0	1.362149E+0	1.322342E+0	1.311872E+0	1.377169E+0	1.412149E+0	1.379517E+0	1.315158E+0	1.346358E+0	1.356466E+0	1.384796E+0	1.401924E+0	1.340440E+0	1.440691E+0	1.356836E+0	1.342361E+0	1.384660E+0	1.343549E+0	1.431343E+0	1.358969E+0	1.393910E+0	1.330528E+0	1.396801E+0	1.330620E+0	1.342848E+0	1.343958E+0	1.344509E+0	1.349290E+0	1.353740E+0	1.319219E+0	1.391448E+0	1.353599E+0	1.331111E+0	1.339190E+0	1.320557E+0	1.386890E+0	1.379381E+0	1.382921E+0	1.363128E+0	1.324014E+0	1.380145E+0	1.363585E+0	1.360614E+0	1.405643E+0	1.425224E+0	1.362207E+0	1.332694E+0	1.312055E+0	1.321285E+0	1.316073E+0	1.392882E+0	1.342243E+0	1.321812E+0	1.399454E+0	1.382208E+0	1.412671E+0	1.316052E+0	1.343901E+0	1.401299E+0	1.367686E+0	1.352542E+0	1.398952E+0	1.362030E+0	1.328069E+0	1.365979E+0	1.346229E+0	1.358951E+0	1.399098E+0
5.387700E+2	1.560272E+0	1.620304E+0	1.596616E+0	1.565342E+0	1.639282E+0	1.582882E+0	1.600766E+0	1.615075E+0	1.584400E+0	1.548842E+0	1.500271E+0	1.557557E+0	1.572120E+0	1.657197E+0	1.577153E+0	1.593000E+0	1.658458E+0	1.537086E+0	1.557706E+0	1.614306E+0	1.563191E+0	1.609163E+0	1.607436E+0	1.589452E+0	1.617398E+0	1.601830E+0	1.637745E+0	1.539892E+0	1.558845E+0	1.610254E+0	1.613111E+0	1.542742E+0	1.557614E+0	1.570503E+0	1.534370E+0	1.632374E+0	1.558251E+0	1.564032E+0	1.596775E+0	1.580618E+0	1.633337E+0	1.574519E+0	1.582222E+0	1.588749E+0	1.595637E+0	1.550219E+0	1.600329E+0	1.556767E+0	1.570436E+0	1.600640E+0	1.618315E+0	1.583981E+0	1.567858E+0	1.552661E+0	1.490563E+0	1.628811E+0	1.610725E+0	1.556432E+0	1.581020E+0	1.582375E+0	1.603536E+0	1.554405E+0	1.536971E+0	1.556188E+0	1.636596E+0	1.557998E+0	1.595487E+0	1.583139E+0	1.548670E+0	1.577220E+0	1.577709E+0	1.633880E+0	1.585519E+0	1.523315E+0	1.523785E+0	1.566593E+0	1.550949E+0	1.542515E+0	1.571558E+0	1.645455E+0	1.608977E+0	1.497788E+0	1.600313E+0	1.652038E+0	1.537428E+0	1.582477E+0	1.539986E+0	1.649787E+0	1.464543E+0	1.555547E+0	1.549614E+0	1.635398E+0	1.547026E+0	1.531389E+0	1.569582E+0	1.552592E+0	1.576198E+0	1.523546E+0	1.520183E+0	1.621800E+0	1.633354E+0	1.543507E+0	1.595842E+0	1.543438E+0	1.497152E+0	1.567657E+0	1.603540E+0	1.572180E+0	1.636483E+0	1.522671E+0	1.594119E+0	1.571141E+0	1.563384E+0	1.525489E+0	1.590602E+0	1.612452E+0	1.553417E+0	1.521595E+0	1.584968E+0	1.551246E+0	1.571745E+0	1.553565E+0	1.610354E+0	1.574772E+0	1.553986E+0	1.558003E+0	1.532903E+0	1.583842E+0	1.558123E+0	1.620193E+0	1.582756E+0	1.609958E+0	1.591010E+0	1.575457E+0	1.569802E+0	1.547918E+0	1.590747E+0	1.544720E+0	1.546565E+0	1.574729E+0	1.573112E+0	1.516525E+0	1.609992E+0	1.583884E+0	1.565895E+0	1.471462E+0	1.548295E+0	1.559341E+0	1.540929E+0	1.576341E+0	1.568534E+0	1.583570E+0	1.590204E+0	1.503805E+0	1.536410E+0	1.590796E+0	1.570014E+0	1.625565E+0	1.504274E+0	1.603915E+0	1.593502E+0	1.572522E+0	1.597635E+0	1.525942E+0	1.556764E+0	1.512122E+0	1.583098E+0	1.574752E+0	1.654943E+0	1.446076E+0
5.390450E+2	1.818944E+0	1.857286E+0	1.888975E+0	1.851401E+0	1.922579E+0	1.865388E+0	1.907457E+0	1.910805E+0	1.862962E+0	1.897693E+0	1.872818E+0	1.883126E+0	1.884446E+0	1.916708E+0	1.868478E+0	1.866090E+0	1.959937E+0	1.798053E+0	1.872632E+0	1.842603E+0	1.890748E+0	1.843089E+0	1.897578E+0	1.950962E+0	1.837231E+0	1.862024E+0	1.895100E+0	1.933352E+0	1.938161E+0	1.843858E+0	1.845637E+0	1.869500E+0	1.907518E+0	1.850935E+0	1.808957E+0	1.952152E+0	1.913371E+0	1.849094E+0	1.890799E+0	1.857179E+0	1.931360E+0	1.873524E+0	1.897727E+0	1.911743E+0	1.833391E+0	1.947072E+0	1.837003E+0	1.935660E+0	1.866857E+0	1.845832E+0	1.817415E+0	1.896549E+0	1.837501E+0	1.801795E+0	1.803948E+0	1.913209E+0	1.840928E+0	1.776511E+0	1.832786E+0	1.840634E+0	1.860432E+0	1.855566E+0	1.862528E+0	1.846867E+0	1.833730E+0	1.838672E+0	1.843307E+0	1.878031E+0	1.817175E+0	1.820955E+0	1.829964E+0	1.878324E+0	1.871483E+0	1.823037E+0	1.868120E+0	1.827919E+0	1.843656E+0	1.715062E+0	1.844427E+0	1.876406E+0	1.795115E+0	1.847445E+0	1.871481E+0	1.924190E+0	1.813624E+0	1.807626E+0	1.859741E+0	1.868295E+0	1.878023E+0	1.831586E+0	1.854106E+0	1.882726E+0	1.845884E+0	1.850217E+0	1.785850E+0	1.851683E+0	1.859998E+0	1.878358E+0	1.825255E+0	1.806342E+0	1.803879E+0	1.862496E+0	1.882282E+0	1.812411E+0	1.870349E+0	1.836673E+0	1.748184E+0	1.887404E+0	1.905208E+0	1.804777E+0	1.842627E+0	1.875127E+0	1.864774E+0	1.875012E+0	1.889661E+0	1.905651E+0	1.814308E+0	1.859093E+0	1.806007E+0	1.828561E+0	1.886709E+0	1.796899E+0	1.824203E+0	1.833541E+0	1.837010E+0	1.795925E+0	1.874760E+0	1.830545E+0	1.749900E+0	1.870499E+0	1.832077E+0	1.874301E+0	1.764561E+0	1.838403E+0	1.786980E+0	1.857909E+0	1.793821E+0	1.760230E+0	1.819096E+0	1.842812E+0	1.821496E+0	1.789952E+0	1.867439E+0	1.817232E+0	1.818512E+0	1.784971E+0	1.831520E+0	1.825907E+0	1.848208E+0	1.756332E+0	1.792107E+0	1.844267E+0	1.832157E+0	1.801992E+0	1.801522E+0	1.792746E+0	1.876091E+0	1.845042E+0	1.824974E+0	1.800577E+0	1.845803E+0	1.769899E+0	1.823451E+0	1.802542E+0	1.856848E+0	1.754695E+0	1.796744E+0	1.758635E+0	1.851570E+0	1.906929E+0
5.392620E+2	2.057848E+0	2.064068E+0	2.067609E+0	1.972730E+0	2.070490E+0	2.039454E+0	2.029652E+0	2.127993E+0	2.040009E+0	1.965177E+0	1.973395E+0	2.020741E+0	2.075712E+0	2.080807E+0	2.054945E+0	2.062925E+0	2.063309E+0	2.019304E+0	2.093562E+0	2.064492E+0	2.074487E+0	2.032674E+0	2.115476E+0	2.070433E+0	2.028977E+0	2.021195E+0	2.114414E+0	2.067752E+0	2.021245E+0	2.034505E+0	2.034648E+0	2.127544E+0	2.105221E+0	1.998732E+0	2.045655E+0	2.096973E+0	2.034131E+0	2.043544E+0	2.062290E+0	2.022773E+0	2.101109E+0	2.057404E+0	2.058221E+0	2.079420E+0	1.971737E+0	1.986623E+0	2.047411E+0	2.047155E+0	2.073298E+0	2.029484E+0	2.051218E+0	2.135525E+0	2.012561E+0	1.978450E+0	2.021468E+0	2.129312E+0	2.072042E+0	2.021588E+0	2.045030E+0	2.053592E+0	2.104234E+0	1.961715E+0	2.039453E+0	1.997941E+0	2.085530E+0	1.992489E+0	1.955465E+0	2.101568E+0	1.975583E+0	2.074557E+0	1.936274E+0	2.083638E+0	1.960653E+0	2.062596E+0	1.971572E+0	1.998176E+0	2.040050E+0	2.035203E+0	2.046509E+0	2.082508E+0	2.032624E+0	1.998098E+0	2.036737E+0	2.104615E+0	2.105637E+0	1.988910E+0	1.971341E+0	2.074824E+0	2.007209E+0	2.041931E+0	2.071526E+0	2.082735E+0	2.031618E+0	1.971001E+0	1.997712E+0	2.008966E+0	2.072177E+0	1.980606E+0	1.973984E+0	2.052917E+0	2.050024E+0	1.973479E+0	2.014136E+0	2.049340E+0	2.093773E+0	2.014595E+0	1.974972E+0	2.046023E+0	1.984293E+0	1.996907E+0	1.959589E+0	1.992196E+0	2.021025E+0	2.041743E+0	2.081202E+0	2.039337E+0	1.979148E+0	1.934658E+0	2.038529E+0	1.975818E+0	1.948057E+0	2.063886E+0	2.027525E+0	2.024917E+0	2.006747E+0	1.980745E+0	2.053531E+0	1.966060E+0	1.997331E+0	1.996415E+0	1.992103E+0	1.983782E+0	1.981010E+0	1.979282E+0	1.901608E+0	1.963962E+0	2.014572E+0	1.987005E+0	2.042534E+0	1.976010E+0	2.027067E+0	1.974171E+0	2.070284E+0	1.985884E+0	2.025794E+0	1.930471E+0	2.028138E+0	2.023017E+0	1.926942E+0	1.979568E+0	1.919796E+0	1.982562E+0	2.015284E+0	1.951849E+0	1.907876E+0	2.027160E+0	2.009503E+0	2.067985E+0	1.958574E+0	2.001115E+0	1.981791E+0	1.964670E+0	1.898256E+0	1.952951E+0	1.971730E+0	1.932092E+0	1.991790E+0	2.033040E+0	2.077781E+0	2.041915E+0
5.395370E+2	2.276146E+0	2.284318E+0	2.256809E+0	2.283092E+0	2.316328E+0	2.245043E+0	2.245949E+0	2.317385E+0	2.216750E+0	2.266342E+0	2.255067E+0	2.291512E+0	2.256579E+0	2.259144E+0	2.282284E+0	2.268241E+0	2.264190E+0	2.230765E+0	2.282922E+0	2.293574E+0	2.211973E+0	2.251279E+0	2.277138E+0	2.280625E+0	2.201197E+0	2.238900E+0	2.249495E+0	2.292865E+0	2.218470E+0	2.223081E+0	2.341978E+0	2.241074E+0	2.305230E+0	2.190269E+0	2.229532E+0	2.292541E+0	2.262026E+0	2.239470E+0	2.221090E+0	2.244551E+0	2.194005E+0	2.291905E+0	2.183180E+0	2.282578E+0	2.227836E+0	2.274873E+0	2.235708E+0	2.248777E+0	2.194981E+0	2.272658E+0	2.210723E+0	2.260417E+0	2.273500E+0	2.212040E+0	2.206811E+0	2.294630E+0	2.270645E+0	2.207496E+0	2.138013E+0	2.286976E+0	2.300437E+0	2.184368E+0	2.184511E+0	2.251726E+0	2.315653E+0	2.193663E+0	2.163250E+0	2.223182E+0	2.106944E+0	2.267371E+0	2.213427E+0	2.297370E+0	2.219771E+0	2.181328E+0	2.169976E+0	2.275660E+0	2.178884E+0	2.187493E+0	2.158540E+0	2.281942E+0	2.135829E+0	2.198433E+0	2.281518E+0	2.278720E+0	2.127579E+0	2.129303E+0	2.153149E+0	2.249734E+0	2.253283E+0	2.259061E+0	2.187979E+0	2.321864E+0	2.244288E+0	2.142992E+0	2.246061E+0	2.178144E+0	2.229031E+0	2.270605E+0	2.175749E+0	2.292131E+0	2.297121E+0	2.128360E+0	2.229062E+0	2.250344E+0	2.211584E+0	2.251722E+0	2.153699E+0	2.272796E+0	2.216698E+0	2.183667E+0	2.163612E+0	2.163100E+0	2.216479E+0	2.158618E+0	2.223683E+0	2.250198E+0	2.240952E+0	2.208631E+0	2.172244E+0	2.243697E+0	2.224039E+0	2.112747E+0	2.188247E+0	2.218836E+0	2.213529E+0	2.169055E+0	2.196151E+0	2.200060E+0	2.270207E+0	2.155735E+0	2.212857E+0	2.173823E+0	2.140195E+0	2.125174E+0	2.132381E+0	2.296154E+0	2.188021E+0	2.092569E+0	2.194651E+0	2.191521E+0	2.222033E+0	2.105547E+0	2.247342E+0	2.232738E+0	2.213451E+0	2.183809E+0	2.187901E+0	2.176347E+0	2.188762E+0	2.093976E+0	2.185673E+0	2.168465E+0	2.257871E+0	2.149431E+0	2.104420E+0	2.172120E+0	2.191406E+0	2.276703E+0	2.185742E+0	2.215197E+0	2.166758E+0	2.156394E+0	2.229063E+0	2.186877E+0	2.164405E+0	2.174919E+0	2.197493E+0	2.173346E+0	2.183038E+0	2.127980E+0
5.397860E+2	2.303941E+0	2.306073E+0	2.303202E+0	2.213202E+0	2.280724E+0	2.263205E+0	2.323889E+0	2.329638E+0	2.289955E+0	2.282095E+0	2.239185E+0	2.234580E+0	2.309875E+0	2.325043E+0	2.261737E+0	2.246635E+0	2.266180E+0	2.312601E+0	2.256316E+0	2.330085E+0	2.263592E+0	2.221328E+0	2.272197E+0	2.303769E+0	2.219540E+0	2.239179E+0	2.217397E+0	2.270309E+0	2.252546E+0	2.321667E+0	2.153135E+0	2.221635E+0	2.220514E+0	2.198231E+0	2.245068E+0	2.280120E+0	2.233252E+0	2.243476E+0	2.193038E+0	2.261445E+0	2.292957E+0	2.140493E+0	2.183307E+0	2.298675E+0	2.176489E+0	2.224525E+0	2.261695E+0	2.243709E+0	2.201167E+0	2.231326E+0	2.264503E+0	2.294967E+0	2.250240E+0	2.139424E+0	2.162778E+0	2.321421E+0	2.225691E+0	2.194195E+0	2.254795E+0	2.272390E+0	2.296692E+0	2.189552E+0	2.234812E+0	2.211833E+0	2.204415E+0	2.169238E+0	2.157966E+0	2.197267E+0	2.143284E+0	2.252952E+0	2.213639E+0	2.261878E+0	2.238665E+0	2.211077E+0	2.184953E+0	2.324724E+0	2.182573E+0	2.144972E+0	2.218136E+0	2.223630E+0	2.213955E+0	2.254575E+0	2.263139E+0	2.270579E+0	2.152953E+0	2.115544E+0	2.219895E+0	2.253543E+0	2.282873E+0	2.264714E+0	2.205615E+0	2.276933E+0	2.210986E+0	2.187044E+0	2.184681E+0	2.268076E+0	2.251455E+0	2.181130E+0	2.137884E+0	2.240243E+0	2.195622E+0	2.131167E+0	2.223210E+0	2.288523E+0	2.185353E+0	2.207456E+0	2.182165E+0	2.221381E+0	2.175044E+0	2.152325E+0	2.175787E+0	2.155730E+0	2.191473E+0	2.122430E+0	2.245451E+0	2.264493E+0	2.186990E+0	2.179692E+0	2.223089E+0	2.190670E+0	2.152078E+0	2.102043E+0	2.195827E+0	2.218607E+0	2.250103E+0	2.114549E+0	2.262516E+0	2.113239E+0	2.264036E+0	2.157000E+0	2.169984E+0	2.168426E+0	2.117034E+0	2.154086E+0	2.151636E+0	2.264321E+0	2.172773E+0	2.210984E+0	2.176684E+0	2.153926E+0	2.242443E+0	2.152491E+0	2.243909E+0	2.203214E+0	2.155107E+0	2.169788E+0	2.154597E+0	2.215405E+0	2.198557E+0	2.133446E+0	2.139268E+0	2.147865E+0	2.228124E+0	2.154559E+0	2.250062E+0	2.176219E+0	2.124328E+0	2.260974E+0	2.160902E+0	2.144232E+0	2.162941E+0	2.210629E+0	2.167366E+0	2.206434E+0	2.122037E+0	2.140606E+0	2.174696E+0	2.206435E+0	2.231186E+0	2.100553E+0
5.400240E+2	2.178854E+0	2.145395E+0	2.164318E+0	2.158286E+0	2.270213E+0	2.171444E+0	2.198342E+0	2.220550E+0	2.140282E+0	2.179555E+0	2.196740E+0	2.211752E+0	2.125895E+0	2.176331E+0	2.174300E+0	2.137617E+0	2.208981E+0	2.189465E+0	2.273188E+0	2.158655E+0	2.230950E+0	2.161411E+0	2.185938E+0	2.164918E+0	2.172652E+0	2.228794E+0	2.229115E+0	2.187350E+0	2.155197E+0	2.068547E+0	2.198202E+0	2.165980E+0	2.096157E+0	2.157123E+0	2.160651E+0	2.206328E+0	2.182305E+0	2.069033E+0	2.139008E+0	2.176678E+0	2.186207E+0	2.149618E+0	2.083354E+0	2.110830E+0	2.162142E+0	2.173138E+0	2.294972E+0	2.082109E+0	2.118863E+0	2.093008E+0	2.138223E+0	2.157844E+0	2.174720E+0	2.108915E+0	2.119570E+0	2.182732E+0	2.032485E+0	2.129036E+0	2.105915E+0	2.231016E+0	2.154204E+0	2.147203E+0	2.171745E+0	2.106014E+0	2.133086E+0	2.214416E+0	2.030044E+0	2.112531E+0	2.075849E+0	2.140701E+0	2.154446E+0	2.122843E+0	2.145930E+0	2.080985E+0	2.122647E+0	2.127827E+0	2.077463E+0	2.107964E+0	2.112764E+0	2.147431E+0	2.156011E+0	2.098571E+0	2.160304E+0	2.135394E+0	2.129473E+0	2.054795E+0	2.099145E+0	2.189891E+0	2.149946E+0	2.213763E+0	2.173880E+0	2.136768E+0	2.163506E+0	2.100542E+0	2.126791E+0	2.180246E+0	2.200874E+0	2.125673E+0	2.032272E+0	2.171769E+0	2.237576E+0	2.102703E+0	2.103533E+0	2.087626E+0	2.081175E+0	2.146233E+0	2.087798E+0	2.196391E+0	2.131173E+0	2.107025E+0	2.128466E+0	2.153994E+0	2.093551E+0	2.148301E+0	2.085078E+0	2.156806E+0	2.130884E+0	2.055986E+0	2.102730E+0	2.120291E+0	2.134312E+0	2.094121E+0	2.108929E+0	2.090875E+0	2.097553E+0	2.121234E+0	2.122895E+0	2.067747E+0	2.155071E+0	2.091718E+0	2.175887E+0	2.117377E+0	2.114678E+0	2.077894E+0	2.037404E+0	2.159200E+0	2.093689E+0	2.117033E+0	2.083081E+0	2.104357E+0	2.094938E+0	2.110040E+0	2.221819E+0	2.130267E+0	2.062285E+0	2.090708E+0	2.139611E+0	2.119107E+0	2.077803E+0	2.047735E+0	2.033368E+0	2.137794E+0	2.054236E+0	2.063278E+0	2.179846E+0	2.090198E+0	2.106122E+0	2.145494E+0	2.097191E+0	2.093819E+0	2.101220E+0	2.068376E+0	2.049428E+0	2.108745E+0	2.170293E+0	1.987997E+0	2.071636E+0	2.131706E+0	2.160702E+0	2.067237E+0
5.402740E+2	2.134483E+0	2.074685E+0	2.065299E+0	2.064523E+0	2.173067E+0	2.107305E+0	2.051517E+0	2.104395E+0	2.105359E+0	2.077529E+0	2.019100E+0	2.080420E+0	2.051814E+0	2.052812E+0	2.091705E+0	2.121916E+0	2.128350E+0	2.050139E+0	2.054927E+0	2.075599E+0	2.062372E+0	2.038969E+0	2.107098E+0	2.078707E+0	2.057568E+0	1.998075E+0	2.086342E+0	2.064734E+0	2.174609E+0	2.079680E+0	2.105417E+0	2.047418E+0	2.039173E+0	2.003210E+0	2.090414E+0	2.088356E+0	2.086320E+0	2.049495E+0	2.067519E+0	2.002146E+0	2.137210E+0	2.060839E+0	2.005293E+0	2.059290E+0	2.040490E+0	2.077692E+0	2.048504E+0	2.066426E+0	2.073100E+0	2.074147E+0	1.991786E+0	2.072258E+0	2.010848E+0	2.019788E+0	1.986468E+0	2.024229E+0	2.070185E+0	2.065022E+0	2.120663E+0	2.148724E+0	2.007544E+0	2.072369E+0	2.022093E+0	2.038565E+0	2.049928E+0	2.071610E+0	1.983746E+0	2.098379E+0	2.012958E+0	2.051173E+0	2.075238E+0	2.071822E+0	2.051630E+0	2.110264E+0	2.007754E+0	2.026098E+0	2.079318E+0	2.065498E+0	2.083793E+0	1.996657E+0	2.019633E+0	2.038200E+0	2.055965E+0	2.067846E+0	2.013786E+0	2.007414E+0	1.998679E+0	2.058101E+0	2.128052E+0	1.997157E+0	2.054332E+0	2.059688E+0	2.043871E+0	2.037693E+0	2.075961E+0	2.093854E+0	2.062390E+0	2.065792E+0	2.028995E+0	2.121949E+0	2.074650E+0	2.027403E+0	1.992473E+0	2.017879E+0	1.998595E+0	2.033205E+0	2.005190E+0	2.023812E+0	2.058344E+0	2.030000E+0	2.004647E+0	2.023492E+0	2.021351E+0	2.059629E+0	2.015257E+0	2.037424E+0	2.014551E+0	2.033594E+0	2.075520E+0	2.041315E+0	2.077450E+0	1.997265E+0	2.063019E+0	2.072293E+0	2.077788E+0	2.007807E+0	2.044548E+0	1.992187E+0	1.968002E+0	2.049714E+0	1.985488E+0	2.043395E+0	2.004516E+0	2.002685E+0	1.975306E+0	2.117352E+0	2.113406E+0	1.948140E+0	1.968269E+0	2.022937E+0	1.931702E+0	2.032430E+0	2.047228E+0	1.953928E+0	1.983446E+0	1.946478E+0	2.002450E+0	2.029311E+0	2.016622E+0	1.956319E+0	1.923494E+0	2.023126E+0	2.007694E+0	1.970480E+0	2.028887E+0	2.057393E+0	2.031470E+0	2.112266E+0	1.959888E+0	2.049306E+0	2.031462E+0	2.014937E+0	1.955185E+0	2.032261E+0	1.976990E+0	1.982478E+0	2.013443E+0	1.996698E+0	2.075026E+0	1.953484E+0
5.405080E+2	2.010298E+0	2.029040E+0	2.041160E+0	2.009916E+0	2.064367E+0	2.008739E+0	2.011346E+0	2.037811E+0	2.005717E+0	1.996216E+0	2.006111E+0	1.943037E+0	1.974842E+0	2.017125E+0	1.984142E+0	2.065124E+0	2.019787E+0	1.941442E+0	2.006382E+0	2.034112E+0	2.007996E+0	1.926624E+0	1.937331E+0	1.992828E+0	1.938450E+0	1.990892E+0	2.060783E+0	2.016178E+0	1.960372E+0	1.996199E+0	2.000980E+0	2.008544E+0	1.937734E+0	2.019137E+0	1.991629E+0	2.013833E+0	2.048609E+0	1.960621E+0	2.030088E+0	1.974315E+0	2.024821E+0	2.040748E+0	1.940529E+0	2.055088E+0	2.014070E+0	1.996436E+0	2.007309E+0	1.987609E+0	2.003175E+0	2.025522E+0	1.986312E+0	1.965157E+0	1.965814E+0	2.005886E+0	1.919944E+0	2.025419E+0	2.012490E+0	1.937753E+0	2.024773E+0	1.961479E+0	2.003586E+0	2.047549E+0	1.989124E+0	1.948585E+0	2.083746E+0	2.043281E+0	1.970632E+0	1.967570E+0	1.921673E+0	1.974522E+0	2.013330E+0	2.022357E+0	2.051150E+0	1.946023E+0	1.985961E+0	1.963936E+0	1.977362E+0	1.998597E+0	1.949349E+0	2.030841E+0	1.977680E+0	1.957852E+0	1.989547E+0	2.016712E+0	1.951157E+0	1.992852E+0	1.964878E+0	1.969043E+0	1.998488E+0	1.949106E+0	1.966925E+0	2.009045E+0	2.036116E+0	2.026872E+0	1.960608E+0	1.972796E+0	1.972621E+0	2.012784E+0	1.948143E+0	1.999792E+0	2.046148E+0	1.955736E+0	1.950409E+0	1.957588E+0	1.947529E+0	1.972570E+0	1.936762E+0	1.982565E+0	1.975311E+0	1.943169E+0	1.957460E+0	1.983951E+0	2.055050E+0	1.957588E+0	1.989539E+0	1.977315E+0	1.964194E+0	1.926117E+0	2.025940E+0	1.940190E+0	1.961089E+0	1.965243E+0	1.981289E+0	1.910620E+0	2.044061E+0	2.021063E+0	2.002510E+0	1.949200E+0	1.932562E+0	1.961491E+0	1.985757E+0	2.003059E+0	1.889652E+0	1.916725E+0	1.934188E+0	2.007607E+0	1.985413E+0	1.986991E+0	1.931240E+0	2.028733E+0	1.933922E+0	1.943733E+0	1.996356E+0	1.960086E+0	1.959806E+0	1.873638E+0	1.940565E+0	1.978535E+0	1.967593E+0	1.890915E+0	1.939934E+0	1.947137E+0	2.042811E+0	1.941751E+0	1.933159E+0	1.920058E+0	2.016654E+0	2.002780E+0	1.961972E+0	2.033618E+0	1.891703E+0	1.961525E+0	1.935282E+0	1.961617E+0	1.977096E+0	1.916554E+0	1.991001E+0	1.935732E+0	1.956585E+0	1.920720E+0
5.407630E+2	2.028516E+0	1.956249E+0	1.976314E+0	1.910772E+0	2.005962E+0	1.931648E+0	1.996240E+0	1.965028E+0	1.980950E+0	1.981136E+0	1.942790E+0	1.877422E+0	1.929266E+0	2.021998E+0	2.010889E+0	1.941447E+0	2.028771E+0	1.994406E+0	1.985299E+0	1.953808E+0	1.989364E+0	1.926573E+0	1.934246E+0	1.954715E+0	1.883009E+0	1.957424E+0	1.927753E+0	1.870782E+0	1.921288E+0	1.967258E+0	1.945656E+0	1.937340E+0	2.001128E+0	1.940257E+0	1.910156E+0	1.961824E+0	1.981107E+0	1.856062E+0	1.925004E+0	1.889098E+0	1.990667E+0	1.940093E+0	1.985096E+0	1.979462E+0	1.940141E+0	1.940863E+0	2.004720E+0	1.962070E+0	1.968223E+0	1.963809E+0	1.939462E+0	1.983758E+0	1.975060E+0	1.860828E+0	1.882945E+0	1.975444E+0	1.919585E+0	1.887376E+0	1.912265E+0	1.988558E+0	1.952475E+0	1.887668E+0	1.884443E+0	1.956097E+0	1.964824E+0	1.940071E+0	1.889148E+0	1.998480E+0	1.851379E+0	1.840305E+0	1.933561E+0	1.897182E+0	1.988357E+0	1.911746E+0	1.939997E+0	1.893962E+0	1.866943E+0	1.857922E+0	1.913920E+0	1.963605E+0	1.975791E+0	1.900895E+0	1.971111E+0	1.913755E+0	1.864197E+0	1.880609E+0	1.887454E+0	1.942212E+0	1.947171E+0	1.914824E+0	1.958992E+0	1.947401E+0	1.937493E+0	1.954215E+0	1.959883E+0	1.970472E+0	1.950167E+0	1.890150E+0	1.904719E+0	1.897060E+0	2.013945E+0	1.875285E+0	1.914972E+0	1.850114E+0	1.930315E+0	1.921203E+0	1.864900E+0	2.015073E+0	1.887855E+0	1.886262E+0	1.963989E+0	1.932107E+0	1.879271E+0	1.940661E+0	1.945684E+0	1.893557E+0	1.919412E+0	1.890170E+0	1.893308E+0	1.881103E+0	1.868121E+0	1.917742E+0	1.897086E+0	1.879740E+0	1.920994E+0	1.934323E+0	1.893006E+0	1.876707E+0	1.946294E+0	1.945988E+0	1.944104E+0	1.900412E+0	1.910713E+0	1.894790E+0	1.879009E+0	2.001333E+0	1.839192E+0	1.905010E+0	1.885676E+0	1.899260E+0	1.909269E+0	1.870623E+0	1.994732E+0	1.913564E+0	1.948839E+0	1.826306E+0	1.876851E+0	1.886208E+0	1.904380E+0	1.932528E+0	1.898794E+0	1.825685E+0	1.929267E+0	1.875805E+0	1.877662E+0	1.915370E+0	1.928698E+0	1.912731E+0	1.856473E+0	1.948895E+0	1.923708E+0	1.918160E+0	1.854207E+0	1.927049E+0	1.888238E+0	1.849459E+0	1.846645E+0	1.915315E+0	1.880740E+0	1.769055E+0
5.410190E+2	1.854615E+0	1.927551E+0	1.890395E+0	1.830684E+0	1.883005E+0	1.929428E+0	1.873348E+0	1.868630E+0	1.826061E+0	1.809202E+0	1.819352E+0	1.857452E+0	1.849042E+0	1.920996E+0	1.855221E+0	1.887728E+0	1.864006E+0	1.833326E+0	1.854723E+0	1.872383E+0	1.925515E+0	1.852606E+0	1.889618E+0	1.820632E+0	1.773609E+0	1.908942E+0	1.876622E+0	1.889798E+0	1.852534E+0	1.894155E+0	1.883698E+0	1.791821E+0	1.906024E+0	1.844009E+0	1.771778E+0	1.916524E+0	1.892773E+0	1.859207E+0	1.847944E+0	1.785192E+0	1.886326E+0	1.860760E+0	1.857134E+0	1.909080E+0	1.873146E+0	1.919110E+0	1.878994E+0	1.806062E+0	1.855292E+0	1.853776E+0	1.880452E+0	1.825392E+0	1.858630E+0	1.787241E+0	1.809297E+0	1.853233E+0	1.806090E+0	1.813925E+0	1.813376E+0	1.836624E+0	1.901711E+0	1.846712E+0	1.816475E+0	1.877189E+0	1.791702E+0	1.823181E+0	1.807483E+0	1.736161E+0	1.802655E+0	1.904540E+0	1.750293E+0	1.853319E+0	1.882276E+0	1.803077E+0	1.814177E+0	1.912108E+0	1.823979E+0	1.792964E+0	1.809680E+0	1.854218E+0	1.806885E+0	1.799587E+0	1.832786E+0	1.847370E+0	1.830638E+0	1.831617E+0	1.855984E+0	1.807769E+0	1.836727E+0	1.789768E+0	1.858443E+0	1.876712E+0	1.878353E+0	1.854635E+0	1.810577E+0	1.817670E+0	1.922036E+0	1.812165E+0	1.788257E+0	1.823271E+0	1.889804E+0	1.815673E+0	1.878888E+0	1.834749E+0	1.829664E+0	1.830183E+0	1.786939E+0	1.825908E+0	1.794209E+0	1.822173E+0	1.830105E+0	1.845798E+0	1.815503E+0	1.807572E+0	1.856562E+0	1.810841E+0	1.840754E+0	1.807574E+0	1.882470E+0	1.744574E+0	1.896795E+0	1.782882E+0	1.867980E+0	1.789491E+0	1.758828E+0	1.806497E+0	1.839900E+0	1.762982E+0	1.801129E+0	1.790318E+0	1.829938E+0	1.777134E+0	1.830371E+0	1.792074E+0	1.761190E+0	1.831813E+0	1.795594E+0	1.759542E+0	1.832044E+0	1.819299E+0	1.846342E+0	1.854357E+0	1.814127E+0	1.838772E+0	1.819917E+0	1.766081E+0	1.846234E+0	1.813886E+0	1.847966E+0	1.863048E+0	1.803303E+0	1.760758E+0	1.921380E+0	1.774337E+0	1.848321E+0	1.800483E+0	1.837432E+0	1.867968E+0	1.721060E+0	1.866596E+0	1.819708E+0	1.820630E+0	1.788375E+0	1.759765E+0	1.825493E+0	1.815684E+0	1.711648E+0	1.816260E+0	1.794274E+0	1.710051E+0
5.412690E+2	1.748440E+0	1.717912E+0	1.719011E+0	1.666122E+0	1.717312E+0	1.682383E+0	1.728367E+0	1.718415E+0	1.670637E+0	1.685019E+0	1.681616E+0	1.704203E+0	1.665682E+0	1.742767E+0	1.714943E+0	1.737845E+0	1.707172E+0	1.770580E+0	1.687665E+0	1.692559E+0	1.756216E+0	1.705090E+0	1.720985E+0	1.703563E+0	1.676403E+0	1.698256E+0	1.782518E+0	1.712380E+0	1.686010E+0	1.630759E+0	1.654963E+0	1.686552E+0	1.674489E+0	1.716314E+0	1.695881E+0	1.692224E+0	1.678413E+0	1.712028E+0	1.722760E+0	1.665883E+0	1.747867E+0	1.727348E+0	1.705450E+0	1.710969E+0	1.713939E+0	1.716696E+0	1.665732E+0	1.686266E+0	1.705075E+0	1.717488E+0	1.676360E+0	1.726810E+0	1.788507E+0	1.670888E+0	1.689021E+0	1.703313E+0	1.681134E+0	1.708722E+0	1.704898E+0	1.741286E+0	1.694313E+0	1.705177E+0	1.746525E+0	1.710645E+0	1.753421E+0	1.713610E+0	1.669217E+0	1.628702E+0	1.653365E+0	1.681624E+0	1.676688E+0	1.703127E+0	1.682238E+0	1.711538E+0	1.722030E+0	1.772460E+0	1.665822E+0	1.661642E+0	1.674082E+0	1.670044E+0	1.683102E+0	1.709233E+0	1.680435E+0	1.710910E+0	1.631840E+0	1.659925E+0	1.646462E+0	1.665736E+0	1.713435E+0	1.730742E+0	1.673754E+0	1.712303E+0	1.718359E+0	1.671684E+0	1.687659E+0	1.712108E+0	1.704429E+0	1.756935E+0	1.637073E+0	1.690393E+0	1.698279E+0	1.629343E+0	1.654666E+0	1.684045E+0	1.646140E+0	1.729571E+0	1.641303E+0	1.684336E+0	1.661319E+0	1.682360E+0	1.669216E+0	1.672637E+0	1.659975E+0	1.671911E+0	1.698557E+0	1.672071E+0	1.718387E+0	1.679527E+0	1.683727E+0	1.636562E+0	1.725523E+0	1.653893E+0	1.759822E+0	1.693820E+0	1.725271E+0	1.659135E+0	1.725677E+0	1.694294E+0	1.643416E+0	1.667037E+0	1.662129E+0	1.700922E+0	1.670547E+0	1.628059E+0	1.628780E+0	1.696700E+0	1.715652E+0	1.685561E+0	1.698025E+0	1.685586E+0	1.666652E+0	1.719471E+0	1.705188E+0	1.725822E+0	1.662969E+0	1.668808E+0	1.639502E+0	1.602127E+0	1.702776E+0	1.643997E+0	1.656240E+0	1.618785E+0	1.727922E+0	1.705913E+0	1.678519E+0	1.674870E+0	1.645678E+0	1.730721E+0	1.611668E+0	1.655346E+0	1.632350E+0	1.702362E+0	1.651015E+0	1.657371E+0	1.669525E+0	1.609459E+0	1.656972E+0	1.746819E+0	1.691645E+0	1.667016E+0
5.415140E+2	1.534782E+0	1.561793E+0	1.550567E+0	1.576232E+0	1.552227E+0	1.550336E+0	1.529638E+0	1.558032E+0	1.548391E+0	1.490503E+0	1.505183E+0	1.559568E+0	1.531834E+0	1.579231E+0	1.558618E+0	1.567579E+0	1.575505E+0	1.523004E+0	1.559499E+0	1.492462E+0	1.542684E+0	1.513995E+0	1.552663E+0	1.559913E+0	1.548850E+0	1.551071E+0	1.507086E+0	1.510686E+0	1.501524E+0	1.560391E+0	1.536228E+0	1.500122E+0	1.567748E+0	1.571307E+0	1.534566E+0	1.574588E+0	1.533163E+0	1.534297E+0	1.529965E+0	1.501076E+0	1.609796E+0	1.499660E+0	1.500709E+0	1.560832E+0	1.555982E+0	1.555380E+0	1.585762E+0	1.515932E+0	1.574636E+0	1.554620E+0	1.505758E+0	1.495316E+0	1.563078E+0	1.486764E+0	1.534867E+0	1.536075E+0	1.644191E+0	1.511442E+0	1.451411E+0	1.591416E+0	1.591445E+0	1.482436E+0	1.483227E+0	1.553333E+0	1.572256E+0	1.496379E+0	1.476745E+0	1.537624E+0	1.535998E+0	1.554200E+0	1.524925E+0	1.547638E+0	1.547604E+0	1.500843E+0	1.566078E+0	1.572066E+0	1.529500E+0	1.513375E+0	1.530262E+0	1.553696E+0	1.504180E+0	1.505807E+0	1.561862E+0	1.542751E+0	1.481085E+0	1.535846E+0	1.491290E+0	1.488201E+0	1.591006E+0	1.543571E+0	1.447365E+0	1.532757E+0	1.498544E+0	1.553328E+0	1.537257E+0	1.569881E+0	1.517905E+0	1.517598E+0	1.479397E+0	1.509539E+0	1.567632E+0	1.481058E+0	1.551825E+0	1.533695E+0	1.520037E+0	1.511119E+0	1.504559E+0	1.513916E+0	1.527776E+0	1.514765E+0	1.488064E+0	1.562694E+0	1.533083E+0	1.531912E+0	1.566615E+0	1.509802E+0	1.543379E+0	1.500702E+0	1.559012E+0	1.474223E+0	1.584828E+0	1.464454E+0	1.544436E+0	1.510991E+0	1.545372E+0	1.529858E+0	1.591716E+0	1.492990E+0	1.512421E+0	1.540334E+0	1.510293E+0	1.502316E+0	1.482147E+0	1.463962E+0	1.434059E+0	1.528978E+0	1.472900E+0	1.549877E+0	1.569484E+0	1.479188E+0	1.523279E+0	1.481817E+0	1.553355E+0	1.538313E+0	1.549647E+0	1.535296E+0	1.511385E+0	1.488041E+0	1.542055E+0	1.460370E+0	1.518610E+0	1.457179E+0	1.530769E+0	1.512162E+0	1.539409E+0	1.515515E+0	1.490049E+0	1.578767E+0	1.502416E+0	1.530242E+0	1.482441E+0	1.524389E+0	1.526004E+0	1.438678E+0	1.469317E+0	1.521075E+0	1.487004E+0	1.508656E+0	1.576957E+0	1.375538E+0
5.417920E+2	1.434760E+0	1.356790E+0	1.333083E+0	1.318264E+0	1.415233E+0	1.337926E+0	1.324254E+0	1.317182E+0	1.378136E+0	1.297717E+0	1.375402E+0	1.335549E+0	1.304042E+0	1.381903E+0	1.334563E+0	1.303275E+0	1.335695E+0	1.314942E+0	1.353676E+0	1.372978E+0	1.331129E+0	1.361245E+0	1.382428E+0	1.352111E+0	1.305084E+0	1.399275E+0	1.347899E+0	1.363035E+0	1.345749E+0	1.334136E+0	1.341619E+0	1.348324E+0	1.342427E+0	1.403741E+0	1.313315E+0	1.361722E+0	1.370916E+0	1.310341E+0	1.336351E+0	1.337734E+0	1.391120E+0	1.403713E+0	1.394331E+0	1.399536E+0	1.342353E+0	1.409970E+0	1.404198E+0	1.322445E+0	1.354543E+0	1.322212E+0	1.307796E+0	1.359188E+0	1.340200E+0	1.305550E+0	1.299345E+0	1.336470E+0	1.384336E+0	1.344291E+0	1.367509E+0	1.362154E+0	1.305456E+0	1.322820E+0	1.371265E+0	1.339718E+0	1.394037E+0	1.398067E+0	1.313981E+0	1.356949E+0	1.332789E+0	1.384937E+0	1.292551E+0	1.349718E+0	1.376083E+0	1.349988E+0	1.345974E+0	1.397831E+0	1.347519E+0	1.332847E+0	1.309629E+0	1.362880E+0	1.294299E+0	1.295653E+0	1.344714E+0	1.358397E+0	1.332725E+0	1.309234E+0	1.302644E+0	1.324332E+0	1.369527E+0	1.284674E+0	1.367134E+0	1.346242E+0	1.353521E+0	1.393851E+0	1.347838E+0	1.365501E+0	1.341959E+0	1.413199E+0	1.268654E+0	1.332066E+0	1.359853E+0	1.377078E+0	1.343931E+0	1.333062E+0	1.353771E+0	1.369096E+0	1.343557E+0	1.382152E+0	1.384989E+0	1.346214E+0	1.425452E+0	1.360837E+0	1.357442E+0	1.339379E+0	1.367646E+0	1.336303E+0	1.361477E+0	1.348580E+0	1.309753E+0	1.335796E+0	1.341344E+0	1.332131E+0	1.348614E+0	1.346223E+0	1.347260E+0	1.300510E+0	1.373772E+0	1.332048E+0	1.336891E+0	1.374854E+0	1.281836E+0	1.334022E+0	1.351751E+0	1.301800E+0	1.360081E+0	1.363524E+0	1.339553E+0	1.281671E+0	1.353806E+0	1.298976E+0	1.373465E+0	1.375068E+0	1.384212E+0	1.357926E+0	1.332697E+0	1.297590E+0	1.401113E+0	1.349666E+0	1.278122E+0	1.314275E+0	1.319071E+0	1.317499E+0	1.427127E+0	1.334761E+0	1.366324E+0	1.346514E+0	1.365911E+0	1.355686E+0	1.325969E+0	1.334315E+0	1.348799E+0	1.375459E+0	1.334182E+0	1.286128E+0	1.356152E+0	1.339667E+0	1.333236E+0	1.354961E+0	1.394826E+0	1.197590E+0
5.420110E+2	1.223801E+0	1.252400E+0	1.264774E+0	1.155292E+0	1.246076E+0	1.203234E+0	1.237737E+0	1.233672E+0	1.247957E+0	1.157194E+0	1.256058E+0	1.220170E+0	1.194155E+0	1.273535E+0	1.198423E+0	1.219318E+0	1.185015E+0	1.235017E+0	1.207288E+0	1.158510E+0	1.217259E+0	1.197292E+0	1.213281E+0	1.196411E+0	1.155341E+0	1.242951E+0	1.255835E+0	1.156896E+0	1.222501E+0	1.197915E+0	1.218513E+0	1.260666E+0	1.190875E+0	1.247071E+0	1.237963E+0	1.239030E+0	1.214857E+0	1.194089E+0	1.180661E+0	1.174083E+0	1.233833E+0	1.250226E+0	1.225065E+0	1.212312E+0	1.220301E+0	1.239136E+0	1.220394E+0	1.197620E+0	1.217149E+0	1.241173E+0	1.192355E+0	1.210902E+0	1.185253E+0	1.195334E+0	1.191255E+0	1.245657E+0	1.242291E+0	1.147790E+0	1.239471E+0	1.226120E+0	1.232645E+0	1.243638E+0	1.213821E+0	1.216867E+0	1.198669E+0	1.261057E+0	1.199908E+0	1.199906E+0	1.227160E+0	1.211196E+0	1.217612E+0	1.233787E+0	1.253610E+0	1.229866E+0	1.228617E+0	1.217967E+0	1.246301E+0	1.201408E+0	1.250425E+0	1.250845E+0	1.196008E+0	1.221604E+0	1.205917E+0	1.175796E+0	1.175498E+0	1.194764E+0	1.154166E+0	1.172013E+0	1.215078E+0	1.225353E+0	1.214063E+0	1.276317E+0	1.231632E+0	1.234535E+0	1.264748E+0	1.246357E+0	1.233680E+0	1.194959E+0	1.148734E+0	1.223270E+0	1.194273E+0	1.200468E+0	1.246293E+0	1.161358E+0	1.185476E+0	1.242282E+0	1.187306E+0	1.212965E+0	1.205875E+0	1.169637E+0	1.253965E+0	1.198050E+0	1.235909E+0	1.217358E+0	1.178139E+0	1.200006E+0	1.184394E+0	1.236483E+0	1.274989E+0	1.228163E+0	1.232028E+0	1.164854E+0	1.247795E+0	1.174513E+0	1.265847E+0	1.114055E+0	1.203009E+0	1.214832E+0	1.200538E+0	1.193402E+0	1.224669E+0	1.244649E+0	1.201211E+0	1.220794E+0	1.174723E+0	1.222346E+0	1.221726E+0	1.274029E+0	1.239732E+0	1.232575E+0	1.246223E+0	1.198892E+0	1.204180E+0	1.190907E+0	1.202825E+0	1.190682E+0	1.234816E+0	1.216786E+0	1.183540E+0	1.211057E+0	1.159281E+0	1.221400E+0	1.212116E+0	1.202214E+0	1.186422E+0	1.198429E+0	1.177663E+0	1.291785E+0	1.195604E+0	1.199401E+0	1.195333E+0	1.255003E+0	1.191758E+0	1.185361E+0	1.201504E+0	1.180994E+0	1.186637E+0	1.231765E+0	1.163732E+0	1.155704E+0
5.422670E+2	1.090141E+0	1.030641E+0	1.107733E+0	1.094151E+0	1.112958E+0	1.106622E+0	1.088296E+0	1.068220E+0	1.052373E+0	1.060347E+0	1.099979E+0	1.073511E+0	1.063890E+0	1.115859E+0	1.056104E+0	1.096630E+0	1.165137E+0	1.127070E+0	1.079292E+0	1.069122E+0	1.088796E+0	1.092015E+0	1.151123E+0	1.080575E+0	1.089947E+0	1.148648E+0	1.067346E+0	1.105080E+0	1.082215E+0	1.111210E+0	1.111365E+0	1.070463E+0	1.109311E+0	1.120008E+0	1.076645E+0	1.098126E+0	1.076000E+0	1.073950E+0	1.075014E+0	1.026218E+0	1.144319E+0	1.085694E+0	1.059599E+0	1.120406E+0	1.108252E+0	1.124835E+0	1.146548E+0	1.070871E+0	1.068302E+0	1.074194E+0	1.112610E+0	1.095672E+0	1.099817E+0	1.078724E+0	1.082874E+0	1.068373E+0	1.100195E+0	1.101635E+0	1.081275E+0	1.087583E+0	1.100358E+0	1.056250E+0	1.100737E+0	1.045155E+0	1.108180E+0	1.143761E+0	1.059521E+0	1.099956E+0	1.094395E+0	1.104123E+0	1.066540E+0	1.048565E+0	1.056678E+0	1.088895E+0	1.068996E+0	1.092019E+0	1.093765E+0	1.064934E+0	1.101327E+0	1.116563E+0	1.084223E+0	1.061885E+0	1.131224E+0	1.145447E+0	1.066175E+0	1.123259E+0	1.066116E+0	1.088739E+0	1.076650E+0	1.134450E+0	1.030715E+0	1.105675E+0	1.119448E+0	1.119304E+0	1.142559E+0	1.069710E+0	1.128971E+0	1.141816E+0	1.065766E+0	1.072250E+0	1.143819E+0	1.088257E+0	1.128446E+0	1.057736E+0	1.034223E+0	1.109723E+0	1.076334E+0	1.105189E+0	1.092403E+0	1.121386E+0	1.103851E+0	1.115901E+0	1.109450E+0	1.127406E+0	1.103382E+0	1.089882E+0	1.117379E+0	1.087702E+0	1.129785E+0	1.073893E+0	1.086078E+0	1.073280E+0	1.088437E+0	1.134520E+0	1.095527E+0	1.092869E+0	1.084874E+0	1.108904E+0	1.074367E+0	1.036894E+0	1.087583E+0	1.113797E+0	1.030921E+0	1.036328E+0	1.097018E+0	1.073683E+0	1.115638E+0	1.131877E+0	1.093327E+0	1.117163E+0	1.075605E+0	1.108963E+0	1.120145E+0	1.112608E+0	1.083848E+0	1.057088E+0	1.068445E+0	1.116508E+0	1.078801E+0	1.100880E+0	1.092122E+0	1.069447E+0	1.117833E+0	1.118546E+0	1.091914E+0	1.144297E+0	1.077792E+0	1.183614E+0	1.095141E+0	1.066226E+0	1.088842E+0	1.135878E+0	1.127136E+0	1.138694E+0	1.111221E+0	1.087977E+0	1.141819E+0	1.145260E+0	1.083992E+0	1.176787E+0
5.425350E+2	1.023762E+0	1.019112E+0	1.040692E+0	9.970496E-1	1.016658E+0	1.054347E+0	9.836043E-1	1.015487E+0	1.011266E+0	1.013062E+0	9.829243E-1	1.001803E+0	9.894701E-1	1.087508E+0	1.003936E+0	1.028163E+0	1.019203E+0	1.002947E+0	1.021960E+0	1.016715E+0	1.043287E+0	9.956164E-1	9.876351E-1	9.942822E-1	1.007023E+0	9.943737E-1	1.037766E+0	9.879088E-1	9.877663E-1	1.037374E+0	1.018517E+0	1.020150E+0	9.996926E-1	1.004162E+0	9.949298E-1	1.074540E+0	9.625155E-1	1.010092E+0	1.044972E+0	1.035281E+0	1.034357E+0	1.038983E+0	1.030952E+0	1.024986E+0	1.024379E+0	1.039450E+0	1.064451E+0	1.031521E+0	1.019927E+0	9.852934E-1	9.933494E-1	1.011027E+0	1.005480E+0	9.785775E-1	1.014235E+0	1.030793E+0	1.005750E+0	1.051984E+0	9.898490E-1	1.026066E+0	9.990718E-1	1.025483E+0	9.999208E-1	9.948618E-1	1.005955E+0	1.025287E+0	1.015778E+0	9.739144E-1	1.016499E+0	1.052733E+0	1.002579E+0	1.006258E+0	1.044749E+0	9.894399E-1	9.826856E-1	1.017930E+0	1.031488E+0	1.006405E+0	1.013920E+0	1.049371E+0	9.832286E-1	1.063734E+0	1.062893E+0	1.046064E+0	1.028825E+0	9.854860E-1	9.909779E-1	1.048943E+0	1.062531E+0	1.020926E+0	1.045257E+0	1.031795E+0	1.034063E+0	9.932420E-1	1.008200E+0	9.949596E-1	1.048833E+0	1.040168E+0	9.944093E-1	9.931542E-1	1.032464E+0	9.914322E-1	1.026664E+0	9.850622E-1	1.008074E+0	1.044894E+0	1.007739E+0	1.032869E+0	1.007157E+0	1.017171E+0	1.024227E+0	1.068401E+0	1.008213E+0	9.718385E-1	9.955822E-1	9.484216E-1	1.009022E+0	1.000603E+0	1.009179E+0	1.027916E+0	1.032425E+0	1.004463E+0	1.004939E+0	9.847863E-1	1.045339E+0	9.934247E-1	1.026493E+0	9.924184E-1	9.911175E-1	1.050589E+0	9.590200E-1	1.001360E+0	9.930850E-1	9.882209E-1	9.750639E-1	1.011175E+0	1.104274E+0	9.799232E-1	1.014080E+0	1.024257E+0	1.004737E+0	1.041385E+0	1.070591E+0	1.028685E+0	1.012944E+0	9.970457E-1	9.835916E-1	1.043584E+0	1.003631E+0	1.017489E+0	1.034661E+0	9.958578E-1	1.048236E+0	9.733640E-1	1.030703E+0	1.025269E+0	9.882792E-1	1.039630E+0	9.887133E-1	1.025885E+0	1.020282E+0	1.008428E+0	1.001228E+0	1.075873E+0	1.013075E+0	9.930322E-1	9.883870E-1	9.938669E-1	9.925648E-1	9.347604E-1
5.427650E+2	1.013148E+0	1.050062E+0	1.066006E+0	1.022009E+0	1.057122E+0	1.036775E+0	1.055079E+0	1.069611E+0	1.048210E+0	1.040484E+0	1.087113E+0	1.019017E+0	1.085480E+0	1.081320E+0	1.076863E+0	1.056371E+0	1.020546E+0	1.026233E+0	1.054082E+0	1.036059E+0	1.055967E+0	1.071503E+0	1.046390E+0	1.041513E+0	1.043508E+0	1.110807E+0	1.036728E+0	1.029600E+0	1.015157E+0	1.077427E+0	1.036422E+0	1.076042E+0	1.057856E+0	1.044719E+0	9.942888E-1	1.015768E+0	1.064316E+0	1.011668E+0	1.043849E+0	1.045789E+0	1.043574E+0	1.070337E+0	1.024411E+0	1.070175E+0	1.097071E+0	1.067670E+0	1.080951E+0	1.051282E+0	1.077602E+0	1.068057E+0	1.054950E+0	1.063235E+0	1.047486E+0	1.049268E+0	1.049389E+0	1.038926E+0	1.058214E+0	1.044665E+0	9.857564E-1	1.030390E+0	1.070987E+0	1.037541E+0	1.054363E+0	1.052136E+0	1.042347E+0	1.034345E+0	1.040001E+0	1.005483E+0	1.031544E+0	1.065533E+0	1.047807E+0	1.020242E+0	1.071089E+0	1.034471E+0	1.028684E+0	1.081874E+0	1.028591E+0	1.033626E+0	1.050330E+0	1.038986E+0	1.035690E+0	1.031943E+0	1.089180E+0	1.043411E+0	1.065933E+0	1.041036E+0	1.065835E+0	1.048999E+0	1.029085E+0	1.073348E+0	1.069208E+0	1.032845E+0	1.032892E+0	1.053085E+0	1.055529E+0	1.056433E+0	1.007111E+0	1.034456E+0	1.032193E+0	1.074077E+0	1.059821E+0	1.028297E+0	1.047552E+0	1.020081E+0	1.053851E+0	1.037116E+0	9.934297E-1	1.033573E+0	1.016465E+0	1.102552E+0	1.018001E+0	1.024791E+0	1.042365E+0	1.054639E+0	1.048115E+0	1.086244E+0	1.100464E+0	1.015032E+0	1.026017E+0	1.026912E+0	1.097733E+0	1.037702E+0	1.063939E+0	1.042811E+0	1.072951E+0	1.064140E+0	1.068054E+0	1.066228E+0	1.062034E+0	1.066543E+0	1.035910E+0	1.050421E+0	1.081067E+0	1.022890E+0	9.977484E-1	1.071133E+0	1.006859E+0	1.030760E+0	1.070317E+0	1.053664E+0	1.043999E+0	1.030716E+0	1.104748E+0	1.008865E+0	1.053273E+0	1.052090E+0	1.031431E+0	1.026788E+0	1.016017E+0	1.059663E+0	1.070645E+0	1.049438E+0	1.079024E+0	1.054373E+0	1.093765E+0	1.029315E+0	1.069006E+0	1.123039E+0	1.034518E+0	1.078744E+0	1.079098E+0	1.063858E+0	1.025634E+0	1.056287E+0	1.054204E+0	9.922508E-1	1.003557E+0	9.753230E-1	1.032175E+0	1.076167E+0
5.430120E+2	1.162456E+0	1.165209E+0	1.235000E+0	1.147937E+0	1.157575E+0	1.210749E+0	1.184733E+0	1.197577E+0	1.180484E+0	1.174762E+0	1.149667E+0	1.132107E+0	1.158416E+0	1.207030E+0	1.165122E+0	1.181941E+0	1.194999E+0	1.104571E+0	1.239594E+0	1.182459E+0	1.173182E+0	1.167037E+0	1.183051E+0	1.195836E+0	1.179563E+0	1.181197E+0	1.177488E+0	1.182522E+0	1.090779E+0	1.201562E+0	1.191217E+0	1.206445E+0	1.155969E+0	1.177780E+0	1.168994E+0	1.169655E+0	1.130413E+0	1.172041E+0	1.138988E+0	1.159731E+0	1.222001E+0	1.180029E+0	1.167682E+0	1.171087E+0	1.196575E+0	1.185919E+0	1.215146E+0	1.195219E+0	1.160799E+0	1.189497E+0	1.144424E+0	1.157400E+0	1.152985E+0	1.157259E+0	1.144743E+0	1.172354E+0	1.132550E+0	1.154812E+0	1.177453E+0	1.180716E+0	1.172818E+0	1.215803E+0	1.148900E+0	1.135951E+0	1.139210E+0	1.223702E+0	1.199451E+0	1.157194E+0	1.205431E+0	1.177868E+0	1.145162E+0	1.139560E+0	1.159130E+0	1.251773E+0	1.199918E+0	1.150890E+0	1.121154E+0	1.198619E+0	1.144322E+0	1.155837E+0	1.135356E+0	1.203386E+0	1.195804E+0	1.156053E+0	1.160501E+0	1.155908E+0	1.111422E+0	1.165765E+0	1.196991E+0	1.174785E+0	1.171413E+0	1.172117E+0	1.165499E+0	1.210311E+0	1.165829E+0	1.187434E+0	1.191425E+0	1.223377E+0	1.181845E+0	1.263226E+0	1.188775E+0	1.109916E+0	1.155479E+0	1.128605E+0	1.157682E+0	1.188597E+0	1.137690E+0	1.200601E+0	1.125163E+0	1.179537E+0	1.227465E+0	1.189004E+0	1.162727E+0	1.191816E+0	1.154660E+0	1.169949E+0	1.145040E+0	1.129348E+0	1.134516E+0	1.116530E+0	1.216475E+0	1.217144E+0	1.183893E+0	1.132908E+0	1.212891E+0	1.149347E+0	1.169284E+0	1.172682E+0	1.185747E+0	1.179167E+0	1.216136E+0	1.158442E+0	1.138957E+0	1.155729E+0	1.131207E+0	1.235063E+0	1.142975E+0	1.161952E+0	1.171287E+0	1.179165E+0	1.134151E+0	1.187425E+0	1.239868E+0	1.201009E+0	1.113028E+0	1.235552E+0	1.227982E+0	1.189734E+0	1.126437E+0	1.141992E+0	1.196125E+0	1.134459E+0	1.111641E+0	1.142155E+0	1.191449E+0	1.153929E+0	1.114473E+0	1.198491E+0	1.126373E+0	1.192047E+0	1.130553E+0	1.178834E+0	1.176678E+0	1.201647E+0	1.150376E+0	1.138484E+0	1.144013E+0	1.158055E+0	1.257680E+0	1.196365E+0
5.432800E+2	1.352327E+0	1.315685E+0	1.292193E+0	1.312900E+0	1.356337E+0	1.364121E+0	1.329958E+0	1.359414E+0	1.346056E+0	1.376805E+0	1.352993E+0	1.328988E+0	1.338899E+0	1.365274E+0	1.304375E+0	1.331156E+0	1.412843E+0	1.368356E+0	1.363004E+0	1.396834E+0	1.392222E+0	1.340667E+0	1.392173E+0	1.342797E+0	1.356583E+0	1.374863E+0	1.409664E+0	1.410252E+0	1.329505E+0	1.415616E+0	1.361747E+0	1.359493E+0	1.377987E+0	1.345228E+0	1.402461E+0	1.403845E+0	1.376054E+0	1.356258E+0	1.361690E+0	1.341778E+0	1.370041E+0	1.345248E+0	1.342118E+0	1.384453E+0	1.348828E+0	1.406250E+0	1.402296E+0	1.361631E+0	1.321053E+0	1.301758E+0	1.372729E+0	1.374646E+0	1.337927E+0	1.334858E+0	1.316752E+0	1.378006E+0	1.334347E+0	1.326746E+0	1.393044E+0	1.342732E+0	1.383371E+0	1.354157E+0	1.371013E+0	1.363608E+0	1.298213E+0	1.426668E+0	1.345107E+0	1.406967E+0	1.314425E+0	1.338130E+0	1.339482E+0	1.343666E+0	1.334557E+0	1.323194E+0	1.382574E+0	1.282419E+0	1.311515E+0	1.377282E+0	1.321687E+0	1.330025E+0	1.350980E+0	1.366994E+0	1.368632E+0	1.350560E+0	1.285929E+0	1.350582E+0	1.339330E+0	1.361051E+0	1.383210E+0	1.410343E+0	1.330357E+0	1.351649E+0	1.325398E+0	1.361327E+0	1.339463E+0	1.391629E+0	1.368277E+0	1.353840E+0	1.334183E+0	1.343152E+0	1.425553E+0	1.332876E+0	1.289094E+0	1.345847E+0	1.309787E+0	1.349696E+0	1.329646E+0	1.386106E+0	1.312719E+0	1.400177E+0	1.308412E+0	1.340874E+0	1.287600E+0	1.319727E+0	1.403420E+0	1.367879E+0	1.378044E+0	1.371161E+0	1.414553E+0	1.295726E+0	1.308477E+0	1.305236E+0	1.379493E+0	1.324568E+0	1.359417E+0	1.349384E+0	1.352905E+0	1.350370E+0	1.325210E+0	1.305179E+0	1.375483E+0	1.328198E+0	1.321871E+0	1.362029E+0	1.336424E+0	1.377083E+0	1.298555E+0	1.358451E+0	1.344581E+0	1.328290E+0	1.299760E+0	1.320315E+0	1.359594E+0	1.337325E+0	1.301699E+0	1.298887E+0	1.363672E+0	1.351181E+0	1.365101E+0	1.296183E+0	1.314486E+0	1.323020E+0	1.329737E+0	1.347209E+0	1.299177E+0	1.322560E+0	1.322291E+0	1.307516E+0	1.324222E+0	1.392577E+0	1.353994E+0	1.305942E+0	1.324702E+0	1.330140E+0	1.360550E+0	1.308439E+0	1.292428E+0	1.355443E+0	1.411867E+0	1.358652E+0
5.435270E+2	1.574263E+0	1.555878E+0	1.534059E+0	1.549736E+0	1.613732E+0	1.580180E+0	1.554853E+0	1.572525E+0	1.554839E+0	1.544855E+0	1.612155E+0	1.541078E+0	1.559656E+0	1.585225E+0	1.541332E+0	1.574525E+0	1.545174E+0	1.554392E+0	1.529585E+0	1.505025E+0	1.558160E+0	1.524629E+0	1.582219E+0	1.542262E+0	1.530527E+0	1.523915E+0	1.580449E+0	1.511326E+0	1.512863E+0	1.577677E+0	1.592447E+0	1.523468E+0	1.562343E+0	1.540995E+0	1.565191E+0	1.554606E+0	1.546563E+0	1.551380E+0	1.552388E+0	1.510330E+0	1.562261E+0	1.550948E+0	1.508107E+0	1.535015E+0	1.510927E+0	1.566551E+0	1.571773E+0	1.543337E+0	1.535919E+0	1.558037E+0	1.558974E+0	1.497439E+0	1.607252E+0	1.529230E+0	1.516034E+0	1.502947E+0	1.556422E+0	1.585818E+0	1.584798E+0	1.493752E+0	1.536016E+0	1.578666E+0	1.614436E+0	1.539924E+0	1.519804E+0	1.591258E+0	1.518644E+0	1.550769E+0	1.538474E+0	1.590521E+0	1.469155E+0	1.543743E+0	1.505841E+0	1.540182E+0	1.507579E+0	1.516581E+0	1.476872E+0	1.568768E+0	1.563984E+0	1.556613E+0	1.553109E+0	1.494455E+0	1.564807E+0	1.587410E+0	1.484017E+0	1.530852E+0	1.554522E+0	1.583364E+0	1.557689E+0	1.533040E+0	1.523552E+0	1.549896E+0	1.520831E+0	1.516270E+0	1.524698E+0	1.538276E+0	1.600762E+0	1.522446E+0	1.506966E+0	1.561639E+0	1.555214E+0	1.493487E+0	1.553706E+0	1.574701E+0	1.497752E+0	1.519755E+0	1.547114E+0	1.569176E+0	1.514863E+0	1.566593E+0	1.540419E+0	1.533381E+0	1.532351E+0	1.564314E+0	1.537590E+0	1.514246E+0	1.540675E+0	1.523390E+0	1.522631E+0	1.508799E+0	1.507776E+0	1.500483E+0	1.604146E+0	1.477434E+0	1.547418E+0	1.498269E+0	1.554636E+0	1.512071E+0	1.558316E+0	1.465891E+0	1.521736E+0	1.487638E+0	1.510294E+0	1.522304E+0	1.511243E+0	1.590199E+0	1.471791E+0	1.561641E+0	1.550106E+0	1.529539E+0	1.507347E+0	1.552671E+0	1.538738E+0	1.521749E+0	1.471198E+0	1.478401E+0	1.555649E+0	1.533325E+0	1.550778E+0	1.544497E+0	1.481469E+0	1.506399E+0	1.530706E+0	1.500496E+0	1.507028E+0	1.557783E+0	1.505715E+0	1.525374E+0	1.542648E+0	1.557188E+0	1.488777E+0	1.556923E+0	1.496154E+0	1.487856E+0	1.567879E+0	1.480623E+0	1.608757E+0	1.584837E+0	1.525546E+0	1.440554E+0
5.437590E+2	1.675765E+0	1.641999E+0	1.683088E+0	1.669198E+0	1.697048E+0	1.609379E+0	1.642741E+0	1.698693E+0	1.645060E+0	1.604516E+0	1.683832E+0	1.606688E+0	1.637761E+0	1.641941E+0	1.642353E+0	1.673568E+0	1.664276E+0	1.656131E+0	1.625496E+0	1.670548E+0	1.704783E+0	1.614147E+0	1.652195E+0	1.661447E+0	1.600476E+0	1.601252E+0	1.652374E+0	1.649332E+0	1.564454E+0	1.681022E+0	1.669386E+0	1.614450E+0	1.592552E+0	1.608357E+0	1.628918E+0	1.655673E+0	1.597048E+0	1.635052E+0	1.676118E+0	1.638473E+0	1.671926E+0	1.684824E+0	1.625600E+0	1.613173E+0	1.655543E+0	1.717510E+0	1.667564E+0	1.683117E+0	1.590666E+0	1.610629E+0	1.623678E+0	1.664648E+0	1.678663E+0	1.592690E+0	1.573365E+0	1.627003E+0	1.542529E+0	1.650277E+0	1.643220E+0	1.627175E+0	1.618488E+0	1.637648E+0	1.625033E+0	1.610377E+0	1.616084E+0	1.662792E+0	1.605459E+0	1.634548E+0	1.594905E+0	1.631969E+0	1.692247E+0	1.639516E+0	1.614865E+0	1.605562E+0	1.689977E+0	1.669537E+0	1.607306E+0	1.621152E+0	1.701555E+0	1.710424E+0	1.564610E+0	1.664936E+0	1.651684E+0	1.651376E+0	1.668293E+0	1.653915E+0	1.618391E+0	1.616496E+0	1.617320E+0	1.652193E+0	1.689983E+0	1.675588E+0	1.651634E+0	1.693139E+0	1.656372E+0	1.663300E+0	1.638200E+0	1.651534E+0	1.563453E+0	1.646140E+0	1.675776E+0	1.607018E+0	1.605140E+0	1.644112E+0	1.612389E+0	1.602138E+0	1.589128E+0	1.601593E+0	1.623499E+0	1.596910E+0	1.654522E+0	1.598278E+0	1.592668E+0	1.654423E+0	1.632049E+0	1.670204E+0	1.701993E+0	1.624061E+0	1.638645E+0	1.573015E+0	1.623389E+0	1.683636E+0	1.684900E+0	1.648028E+0	1.635215E+0	1.641992E+0	1.622769E+0	1.561043E+0	1.670920E+0	1.613674E+0	1.578363E+0	1.604629E+0	1.587293E+0	1.628409E+0	1.625787E+0	1.659097E+0	1.624702E+0	1.649210E+0	1.644979E+0	1.653109E+0	1.599324E+0	1.578442E+0	1.622388E+0	1.632893E+0	1.567387E+0	1.566038E+0	1.603705E+0	1.651614E+0	1.630425E+0	1.619091E+0	1.678245E+0	1.563614E+0	1.608357E+0	1.603790E+0	1.557413E+0	1.621990E+0	1.658850E+0	1.622898E+0	1.669927E+0	1.616903E+0	1.637654E+0	1.611026E+0	1.545082E+0	1.610106E+0	1.631096E+0	1.623093E+0	1.609453E+0	1.664979E+0	1.610441E+0	1.593184E+0
5.440170E+2	1.708760E+0	1.739539E+0	1.724092E+0	1.723661E+0	1.737008E+0	1.727657E+0	1.776749E+0	1.725309E+0	1.726864E+0	1.761401E+0	1.758686E+0	1.779331E+0	1.690847E+0	1.759654E+0	1.710659E+0	1.718977E+0	1.738447E+0	1.810757E+0	1.728626E+0	1.774355E+0	1.751403E+0	1.737722E+0	1.780235E+0	1.704794E+0	1.729412E+0	1.737328E+0	1.817480E+0	1.767975E+0	1.710678E+0	1.740262E+0	1.821069E+0	1.771770E+0	1.810993E+0	1.705311E+0	1.735457E+0	1.799835E+0	1.779860E+0	1.664917E+0	1.760286E+0	1.698417E+0	1.802338E+0	1.757164E+0	1.699346E+0	1.745905E+0	1.747784E+0	1.760957E+0	1.761619E+0	1.775684E+0	1.749024E+0	1.749175E+0	1.730080E+0	1.796654E+0	1.780715E+0	1.779713E+0	1.703231E+0	1.728779E+0	1.673312E+0	1.781661E+0	1.758954E+0	1.738477E+0	1.699247E+0	1.729598E+0	1.737689E+0	1.773584E+0	1.676771E+0	1.814334E+0	1.662780E+0	1.669097E+0	1.687161E+0	1.694422E+0	1.683459E+0	1.779410E+0	1.719250E+0	1.730734E+0	1.683065E+0	1.744752E+0	1.735406E+0	1.718127E+0	1.731632E+0	1.738381E+0	1.701948E+0	1.730256E+0	1.780948E+0	1.752867E+0	1.718382E+0	1.719834E+0	1.759430E+0	1.683575E+0	1.720449E+0	1.707709E+0	1.695156E+0	1.713570E+0	1.708178E+0	1.777676E+0	1.683190E+0	1.744030E+0	1.743698E+0	1.718870E+0	1.667848E+0	1.798210E+0	1.713198E+0	1.710043E+0	1.693092E+0	1.724589E+0	1.684864E+0	1.762135E+0	1.771993E+0	1.758169E+0	1.706412E+0	1.728838E+0	1.706727E+0	1.757924E+0	1.697951E+0	1.646346E+0	1.744609E+0	1.672467E+0	1.747848E+0	1.772661E+0	1.733959E+0	1.654312E+0	1.685500E+0	1.722608E+0	1.705467E+0	1.689773E+0	1.732405E+0	1.753659E+0	1.759046E+0	1.644204E+0	1.713839E+0	1.670470E+0	1.696797E+0	1.700854E+0	1.711378E+0	1.667421E+0	1.689815E+0	1.715155E+0	1.614533E+0	1.770810E+0	1.667377E+0	1.679834E+0	1.745578E+0	1.739997E+0	1.787842E+0	1.770086E+0	1.639891E+0	1.690329E+0	1.732571E+0	1.765586E+0	1.700484E+0	1.635669E+0	1.692359E+0	1.653820E+0	1.687244E+0	1.700267E+0	1.760931E+0	1.741920E+0	1.649429E+0	1.749031E+0	1.713872E+0	1.724506E+0	1.721782E+0	1.698040E+0	1.663526E+0	1.723017E+0	1.710987E+0	1.656644E+0	1.716267E+0	1.735995E+0	1.782669E+0	1.750857E+0
5.442700E+2	1.686647E+0	1.772211E+0	1.729084E+0	1.629115E+0	1.780155E+0	1.732579E+0	1.672412E+0	1.797684E+0	1.655566E+0	1.702903E+0	1.683172E+0	1.719071E+0	1.670763E+0	1.716824E+0	1.708450E+0	1.677760E+0	1.721002E+0	1.771331E+0	1.751706E+0	1.738991E+0	1.667303E+0	1.657661E+0	1.735764E+0	1.707008E+0	1.724323E+0	1.671253E+0	1.729029E+0	1.739918E+0	1.614612E+0	1.699819E+0	1.740952E+0	1.709167E+0	1.680890E+0	1.695529E+0	1.693919E+0	1.702307E+0	1.698347E+0	1.712405E+0	1.728554E+0	1.692779E+0	1.699127E+0	1.661394E+0	1.691013E+0	1.676914E+0	1.680658E+0	1.710134E+0	1.773966E+0	1.695215E+0	1.732491E+0	1.674493E+0	1.712105E+0	1.698722E+0	1.729812E+0	1.693586E+0	1.696877E+0	1.702494E+0	1.750681E+0	1.671708E+0	1.655255E+0	1.759473E+0	1.708310E+0	1.699048E+0	1.713237E+0	1.677095E+0	1.721737E+0	1.743368E+0	1.677285E+0	1.714301E+0	1.623645E+0	1.666385E+0	1.709038E+0	1.718394E+0	1.697507E+0	1.700046E+0	1.750629E+0	1.744885E+0	1.654885E+0	1.572503E+0	1.728875E+0	1.748931E+0	1.640717E+0	1.720875E+0	1.647235E+0	1.676604E+0	1.681010E+0	1.672688E+0	1.678695E+0	1.674035E+0	1.676562E+0	1.712464E+0	1.742760E+0	1.729743E+0	1.734795E+0	1.724214E+0	1.716491E+0	1.673367E+0	1.693199E+0	1.709201E+0	1.615525E+0	1.645305E+0	1.712326E+0	1.685411E+0	1.648176E+0	1.708215E+0	1.684198E+0	1.714425E+0	1.583587E+0	1.623111E+0	1.655895E+0	1.662295E+0	1.679781E+0	1.720312E+0	1.703817E+0	1.704063E+0	1.693926E+0	1.667464E+0	1.648354E+0	1.700032E+0	1.743061E+0	1.638127E+0	1.757689E+0	1.660388E+0	1.687001E+0	1.694104E+0	1.690286E+0	1.621649E+0	1.670744E+0	1.627889E+0	1.667231E+0	1.672236E+0	1.629183E+0	1.677582E+0	1.619892E+0	1.660122E+0	1.601734E+0	1.660562E+0	1.660894E+0	1.623864E+0	1.701168E+0	1.639736E+0	1.648379E+0	1.678017E+0	1.682169E+0	1.668827E+0	1.653826E+0	1.625670E+0	1.696996E+0	1.736564E+0	1.705545E+0	1.638058E+0	1.741414E+0	1.650798E+0	1.620766E+0	1.665464E+0	1.736754E+0	1.687752E+0	1.616571E+0	1.685932E+0	1.692729E+0	1.699172E+0	1.716009E+0	1.682082E+0	1.661021E+0	1.688899E+0	1.693131E+0	1.663425E+0	1.736334E+0	1.707439E+0	1.706427E+0	1.561767E+0
5.445180E+2	1.784955E+0	1.749168E+0	1.663188E+0	1.644143E+0	1.680026E+0	1.681867E+0	1.718801E+0	1.720361E+0	1.654065E+0	1.695515E+0	1.628879E+0	1.710024E+0	1.697141E+0	1.688236E+0	1.697632E+0	1.675240E+0	1.708320E+0	1.631640E+0	1.673260E+0	1.659354E+0	1.706148E+0	1.658019E+0	1.712829E+0	1.728032E+0	1.703558E+0	1.662938E+0	1.712885E+0	1.712241E+0	1.606051E+0	1.643368E+0	1.733343E+0	1.639302E+0	1.664627E+0	1.662646E+0	1.678177E+0	1.676878E+0	1.719854E+0	1.634591E+0	1.631271E+0	1.698104E+0	1.680125E+0	1.637572E+0	1.675521E+0	1.627029E+0	1.667640E+0	1.664847E+0	1.719423E+0	1.672133E+0	1.714165E+0	1.694109E+0	1.690208E+0	1.723019E+0	1.698132E+0	1.580549E+0	1.697206E+0	1.682255E+0	1.699918E+0	1.629132E+0	1.692860E+0	1.652579E+0	1.672046E+0	1.721952E+0	1.724270E+0	1.695809E+0	1.624924E+0	1.676822E+0	1.691592E+0	1.672457E+0	1.665510E+0	1.716244E+0	1.677680E+0	1.674567E+0	1.629485E+0	1.670413E+0	1.717592E+0	1.677367E+0	1.644478E+0	1.619998E+0	1.669569E+0	1.703618E+0	1.608461E+0	1.681224E+0	1.697777E+0	1.689252E+0	1.662507E+0	1.685382E+0	1.622109E+0	1.656932E+0	1.690847E+0	1.653296E+0	1.735189E+0	1.672453E+0	1.674753E+0	1.705385E+0	1.658374E+0	1.695375E+0	1.709156E+0	1.615828E+0	1.639859E+0	1.698526E+0	1.724861E+0	1.618226E+0	1.688391E+0	1.683926E+0	1.612129E+0	1.615490E+0	1.671462E+0	1.705693E+0	1.611751E+0	1.624150E+0	1.630054E+0	1.668641E+0	1.697795E+0	1.700574E+0	1.646278E+0	1.605835E+0	1.626988E+0	1.651309E+0	1.692133E+0	1.666173E+0	1.631695E+0	1.681068E+0	1.716658E+0	1.648654E+0	1.699989E+0	1.602779E+0	1.641826E+0	1.589972E+0	1.608668E+0	1.632669E+0	1.671853E+0	1.723503E+0	1.673323E+0	1.636361E+0	1.571371E+0	1.678493E+0	1.609579E+0	1.693603E+0	1.633791E+0	1.707833E+0	1.651144E+0	1.663882E+0	1.685413E+0	1.621105E+0	1.619403E+0	1.670763E+0	1.669759E+0	1.702499E+0	1.692701E+0	1.680578E+0	1.691150E+0	1.611982E+0	1.667409E+0	1.612198E+0	1.610815E+0	1.614843E+0	1.629324E+0	1.637468E+0	1.686917E+0	1.658824E+0	1.677055E+0	1.669680E+0	1.625703E+0	1.688583E+0	1.694065E+0	1.601439E+0	1.685371E+0	1.603030E+0	1.688859E+0	1.676938E+0
5.447610E+2	1.697103E+0	1.620536E+0	1.597607E+0	1.615557E+0	1.723426E+0	1.586765E+0	1.571134E+0	1.604808E+0	1.621726E+0	1.552955E+0	1.672516E+0	1.645871E+0	1.627921E+0	1.670773E+0	1.623408E+0	1.668179E+0	1.641839E+0	1.649947E+0	1.684035E+0	1.630765E+0	1.654079E+0	1.578812E+0	1.636877E+0	1.631108E+0	1.566339E+0	1.570461E+0	1.636066E+0	1.653119E+0	1.559098E+0	1.666746E+0	1.675894E+0	1.646045E+0	1.617156E+0	1.583582E+0	1.613863E+0	1.596678E+0	1.573685E+0	1.549765E+0	1.668442E+0	1.544260E+0	1.674316E+0	1.638384E+0	1.608297E+0	1.657755E+0	1.579763E+0	1.640249E+0	1.672723E+0	1.615570E+0	1.652352E+0	1.590449E+0	1.590548E+0	1.668425E+0	1.668634E+0	1.590295E+0	1.599098E+0	1.622761E+0	1.589852E+0	1.584919E+0	1.647097E+0	1.587914E+0	1.615446E+0	1.597182E+0	1.577861E+0	1.580163E+0	1.614103E+0	1.623088E+0	1.611921E+0	1.615455E+0	1.542686E+0	1.633143E+0	1.626795E+0	1.644476E+0	1.518792E+0	1.594181E+0	1.614399E+0	1.597729E+0	1.606512E+0	1.581168E+0	1.611325E+0	1.608722E+0	1.645807E+0	1.601793E+0	1.656997E+0	1.618185E+0	1.660798E+0	1.628455E+0	1.593193E+0	1.602116E+0	1.665525E+0	1.544607E+0	1.636622E+0	1.623903E+0	1.577509E+0	1.593213E+0	1.588479E+0	1.646043E+0	1.644944E+0	1.607741E+0	1.583241E+0	1.572735E+0	1.631243E+0	1.573586E+0	1.606147E+0	1.598545E+0	1.609551E+0	1.591278E+0	1.573045E+0	1.551190E+0	1.563425E+0	1.562744E+0	1.601911E+0	1.617131E+0	1.581977E+0	1.595258E+0	1.614358E+0	1.592265E+0	1.573696E+0	1.566739E+0	1.584866E+0	1.589405E+0	1.609133E+0	1.562515E+0	1.670159E+0	1.613270E+0	1.584293E+0	1.594676E+0	1.643282E+0	1.648512E+0	1.641554E+0	1.669729E+0	1.548247E+0	1.584072E+0	1.509664E+0	1.597367E+0	1.581493E+0	1.666980E+0	1.588068E+0	1.549684E+0	1.614960E+0	1.611489E+0	1.608872E+0	1.581017E+0	1.637316E+0	1.592821E+0	1.636768E+0	1.550095E+0	1.565846E+0	1.658342E+0	1.600259E+0	1.590108E+0	1.630051E+0	1.609859E+0	1.574986E+0	1.599904E+0	1.601945E+0	1.610191E+0	1.558699E+0	1.654764E+0	1.647561E+0	1.590885E+0	1.616392E+0	1.588426E+0	1.603796E+0	1.620347E+0	1.608594E+0	1.611216E+0	1.593667E+0	1.603839E+0	1.657490E+0	1.647575E+0
5.450090E+2	1.640820E+0	1.542859E+0	1.500606E+0	1.526478E+0	1.542188E+0	1.550524E+0	1.551097E+0	1.601488E+0	1.534180E+0	1.515099E+0	1.548159E+0	1.471515E+0	1.541959E+0	1.597390E+0	1.533151E+0	1.545716E+0	1.631400E+0	1.521582E+0	1.572654E+0	1.547707E+0	1.612223E+0	1.493228E+0	1.490321E+0	1.556001E+0	1.547970E+0	1.545735E+0	1.562054E+0	1.535974E+0	1.487705E+0	1.551039E+0	1.577859E+0	1.579712E+0	1.562754E+0	1.535201E+0	1.495280E+0	1.536028E+0	1.524104E+0	1.494955E+0	1.509188E+0	1.532606E+0	1.591273E+0	1.557288E+0	1.490701E+0	1.564192E+0	1.520335E+0	1.520828E+0	1.545640E+0	1.495308E+0	1.537974E+0	1.504326E+0	1.525344E+0	1.571852E+0	1.594428E+0	1.526655E+0	1.502056E+0	1.471425E+0	1.505519E+0	1.494982E+0	1.505918E+0	1.482902E+0	1.504843E+0	1.542073E+0	1.496831E+0	1.528083E+0	1.489173E+0	1.442339E+0	1.534397E+0	1.510071E+0	1.476593E+0	1.518093E+0	1.507958E+0	1.597597E+0	1.542554E+0	1.503446E+0	1.509716E+0	1.526119E+0	1.531373E+0	1.481824E+0	1.512232E+0	1.577982E+0	1.494763E+0	1.523226E+0	1.554590E+0	1.534727E+0	1.535420E+0	1.473160E+0	1.498307E+0	1.541647E+0	1.505079E+0	1.517721E+0	1.579946E+0	1.514027E+0	1.523939E+0	1.554440E+0	1.519364E+0	1.584697E+0	1.505335E+0	1.566422E+0	1.460322E+0	1.534169E+0	1.517213E+0	1.512029E+0	1.484993E+0	1.499818E+0	1.510932E+0	1.514232E+0	1.526476E+0	1.512890E+0	1.509678E+0	1.478452E+0	1.516663E+0	1.520840E+0	1.485763E+0	1.538644E+0	1.517677E+0	1.578791E+0	1.532356E+0	1.570847E+0	1.583856E+0	1.498247E+0	1.481742E+0	1.446861E+0	1.539378E+0	1.550013E+0	1.568889E+0	1.480935E+0	1.563953E+0	1.524057E+0	1.503332E+0	1.500857E+0	1.489850E+0	1.536439E+0	1.518272E+0	1.456291E+0	1.520571E+0	1.518235E+0	1.437062E+0	1.514985E+0	1.474270E+0	1.505373E+0	1.473292E+0	1.495972E+0	1.546365E+0	1.532404E+0	1.474706E+0	1.512787E+0	1.559322E+0	1.501309E+0	1.508524E+0	1.500577E+0	1.509104E+0	1.463032E+0	1.518522E+0	1.531695E+0	1.509376E+0	1.549525E+0	1.484877E+0	1.546328E+0	1.563561E+0	1.577693E+0	1.525153E+0	1.512484E+0	1.538602E+0	1.479063E+0	1.565711E+0	1.507093E+0	1.475484E+0	1.564032E+0	1.534801E+0	1.509039E+0
5.452690E+2	1.441533E+0	1.399952E+0	1.461977E+0	1.355958E+0	1.423370E+0	1.491591E+0	1.399564E+0	1.395002E+0	1.401786E+0	1.402657E+0	1.503773E+0	1.374257E+0	1.446003E+0	1.502601E+0	1.445286E+0	1.436983E+0	1.421327E+0	1.362500E+0	1.459226E+0	1.498688E+0	1.418603E+0	1.402818E+0	1.420415E+0	1.460282E+0	1.374684E+0	1.378919E+0	1.445002E+0	1.394193E+0	1.365595E+0	1.416552E+0	1.479130E+0	1.409075E+0	1.400021E+0	1.395210E+0	1.398910E+0	1.443570E+0	1.431858E+0	1.391886E+0	1.400192E+0	1.399574E+0	1.433269E+0	1.375537E+0	1.360871E+0	1.414538E+0	1.433748E+0	1.425170E+0	1.419956E+0	1.395876E+0	1.408351E+0	1.406611E+0	1.419321E+0	1.414933E+0	1.419131E+0	1.426704E+0	1.377518E+0	1.429963E+0	1.398325E+0	1.385421E+0	1.419946E+0	1.432521E+0	1.433690E+0	1.443503E+0	1.411475E+0	1.414485E+0	1.355639E+0	1.347675E+0	1.459459E+0	1.437622E+0	1.352545E+0	1.408753E+0	1.424086E+0	1.428359E+0	1.410385E+0	1.403981E+0	1.393650E+0	1.458539E+0	1.373515E+0	1.368527E+0	1.414389E+0	1.436730E+0	1.313126E+0	1.390257E+0	1.402068E+0	1.385049E+0	1.398392E+0	1.350876E+0	1.402504E+0	1.369361E+0	1.420265E+0	1.429538E+0	1.438837E+0	1.401255E+0	1.437217E+0	1.423677E+0	1.408692E+0	1.389387E+0	1.402884E+0	1.366857E+0	1.410235E+0	1.415371E+0	1.450626E+0	1.427149E+0	1.456933E+0	1.410783E+0	1.395215E+0	1.349601E+0	1.394976E+0	1.430634E+0	1.398125E+0	1.365672E+0	1.437038E+0	1.397974E+0	1.381191E+0	1.404434E+0	1.381429E+0	1.466403E+0	1.460112E+0	1.411240E+0	1.411404E+0	1.364903E+0	1.452591E+0	1.396556E+0	1.449841E+0	1.383500E+0	1.379034E+0	1.385660E+0	1.435567E+0	1.410781E+0	1.420996E+0	1.395914E+0	1.440856E+0	1.392543E+0	1.378785E+0	1.367004E+0	1.380739E+0	1.470174E+0	1.436767E+0	1.425261E+0	1.448652E+0	1.405350E+0	1.399870E+0	1.380925E+0	1.504358E+0	1.366769E+0	1.475218E+0	1.331559E+0	1.378716E+0	1.452328E+0	1.364936E+0	1.380938E+0	1.394597E+0	1.454034E+0	1.463470E+0	1.324108E+0	1.388369E+0	1.370914E+0	1.366070E+0	1.399318E+0	1.400373E+0	1.377008E+0	1.404776E+0	1.346106E+0	1.364563E+0	1.414412E+0	1.389569E+0	1.350222E+0	1.399349E+0	1.350670E+0	1.464294E+0	1.337997E+0
5.455290E+2	1.331274E+0	1.358402E+0	1.365434E+0	1.352384E+0	1.390346E+0	1.376310E+0	1.299851E+0	1.356836E+0	1.395022E+0	1.329875E+0	1.345842E+0	1.345850E+0	1.320369E+0	1.421269E+0	1.337804E+0	1.314395E+0	1.368716E+0	1.413869E+0	1.402966E+0	1.363441E+0	1.395082E+0	1.312234E+0	1.377165E+0	1.335438E+0	1.358371E+0	1.351468E+0	1.341861E+0	1.326751E+0	1.290801E+0	1.288686E+0	1.409131E+0	1.358839E+0	1.380687E+0	1.275634E+0	1.384801E+0	1.353413E+0	1.368723E+0	1.292915E+0	1.332317E+0	1.289303E+0	1.310865E+0	1.324682E+0	1.299828E+0	1.341355E+0	1.302976E+0	1.358444E+0	1.361664E+0	1.350266E+0	1.357514E+0	1.311154E+0	1.342238E+0	1.366439E+0	1.412748E+0	1.320778E+0	1.360345E+0	1.386219E+0	1.317463E+0	1.369578E+0	1.330683E+0	1.378301E+0	1.302783E+0	1.414938E+0	1.394972E+0	1.321691E+0	1.378239E+0	1.328284E+0	1.382159E+0	1.370908E+0	1.341171E+0	1.300970E+0	1.359420E+0	1.367725E+0	1.367077E+0	1.371696E+0	1.349706E+0	1.427933E+0	1.300938E+0	1.361542E+0	1.328176E+0	1.415140E+0	1.344443E+0	1.339286E+0	1.374286E+0	1.371163E+0	1.357649E+0	1.314289E+0	1.277169E+0	1.392852E+0	1.329277E+0	1.377135E+0	1.396495E+0	1.367641E+0	1.314698E+0	1.332167E+0	1.383968E+0	1.381921E+0	1.362703E+0	1.380271E+0	1.357804E+0	1.388113E+0	1.398774E+0	1.324192E+0	1.342828E+0	1.279339E+0	1.306459E+0	1.401110E+0	1.357161E+0	1.382495E+0	1.304221E+0	1.335149E+0	1.338068E+0	1.373059E+0	1.367636E+0	1.316414E+0	1.318619E+0	1.358813E+0	1.356534E+0	1.329011E+0	1.391664E+0	1.304574E+0	1.383894E+0	1.334006E+0	1.362488E+0	1.344003E+0	1.307744E+0	1.355989E+0	1.283464E+0	1.367641E+0	1.295043E+0	1.411877E+0	1.360986E+0	1.286521E+0	1.311155E+0	1.323423E+0	1.315923E+0	1.331018E+0	1.288637E+0	1.324361E+0	1.386682E+0	1.360103E+0	1.302434E+0	1.319769E+0	1.406075E+0	1.322745E+0	1.350208E+0	1.357092E+0	1.349376E+0	1.348512E+0	1.327827E+0	1.328400E+0	1.335888E+0	1.327442E+0	1.332570E+0	1.352440E+0	1.332844E+0	1.342851E+0	1.335502E+0	1.368158E+0	1.331874E+0	1.407434E+0	1.317130E+0	1.290245E+0	1.323061E+0	1.359573E+0	1.296511E+0	1.271911E+0	1.355447E+0	1.336870E+0	1.345785E+0	1.383814E+0
5.457670E+2	1.271865E+0	1.288842E+0	1.344964E+0	1.235302E+0	1.295800E+0	1.277611E+0	1.274588E+0	1.310392E+0	1.274916E+0	1.231647E+0	1.263954E+0	1.366535E+0	1.283327E+0	1.289102E+0	1.231909E+0	1.292665E+0	1.321887E+0	1.288171E+0	1.315014E+0	1.336423E+0	1.361507E+0	1.261184E+0	1.301701E+0	1.297980E+0	1.294818E+0	1.248346E+0	1.277113E+0	1.279689E+0	1.285355E+0	1.279866E+0	1.247738E+0	1.260920E+0	1.304541E+0	1.264288E+0	1.255683E+0	1.309293E+0	1.312477E+0	1.327556E+0	1.312256E+0	1.267245E+0	1.327065E+0	1.308444E+0	1.289463E+0	1.240227E+0	1.265487E+0	1.313887E+0	1.310520E+0	1.274444E+0	1.286929E+0	1.249007E+0	1.249001E+0	1.345627E+0	1.307852E+0	1.238316E+0	1.227570E+0	1.312436E+0	1.330288E+0	1.240407E+0	1.258614E+0	1.321724E+0	1.313820E+0	1.266424E+0	1.243078E+0	1.322462E+0	1.235926E+0	1.326230E+0	1.245260E+0	1.336757E+0	1.294473E+0	1.295408E+0	1.286091E+0	1.302647E+0	1.309270E+0	1.324839E+0	1.284345E+0	1.301397E+0	1.259920E+0	1.260712E+0	1.295618E+0	1.285879E+0	1.275380E+0	1.261552E+0	1.318266E+0	1.325145E+0	1.261811E+0	1.275012E+0	1.270625E+0	1.240888E+0	1.325497E+0	1.289260E+0	1.350653E+0	1.329785E+0	1.267985E+0	1.257806E+0	1.257174E+0	1.266546E+0	1.285345E+0	1.289586E+0	1.295205E+0	1.295373E+0	1.344544E+0	1.294781E+0	1.305661E+0	1.263676E+0	1.288821E+0	1.235112E+0	1.276228E+0	1.277021E+0	1.286637E+0	1.280170E+0	1.329935E+0	1.250873E+0	1.289470E+0	1.363559E+0	1.273097E+0	1.327085E+0	1.304093E+0	1.265999E+0	1.330740E+0	1.274619E+0	1.258248E+0	1.288386E+0	1.323505E+0	1.320197E+0	1.251866E+0	1.287317E+0	1.354169E+0	1.298499E+0	1.266487E+0	1.249022E+0	1.315511E+0	1.279371E+0	1.287731E+0	1.230366E+0	1.267230E+0	1.318871E+0	1.272162E+0	1.263169E+0	1.324587E+0	1.264058E+0	1.255042E+0	1.278438E+0	1.295103E+0	1.294428E+0	1.257713E+0	1.265727E+0	1.283391E+0	1.318421E+0	1.260858E+0	1.274816E+0	1.237299E+0	1.216785E+0	1.269579E+0	1.272795E+0	1.235043E+0	1.260907E+0	1.254787E+0	1.299507E+0	1.307806E+0	1.259771E+0	1.299990E+0	1.287972E+0	1.322538E+0	1.340506E+0	1.256388E+0	1.219272E+0	1.260220E+0	1.215629E+0	1.294956E+0	1.283672E+0
5.460220E+2	1.251499E+0	1.272677E+0	1.228098E+0	1.176809E+0	1.287539E+0	1.259859E+0	1.238891E+0	1.236785E+0	1.198776E+0	1.237570E+0	1.178760E+0	1.246784E+0	1.213481E+0	1.258426E+0	1.242169E+0	1.221973E+0	1.260331E+0	1.260507E+0	1.226617E+0	1.243928E+0	1.205531E+0	1.311162E+0	1.221113E+0	1.255803E+0	1.224943E+0	1.250419E+0	1.326423E+0	1.278379E+0	1.236988E+0	1.245251E+0	1.253686E+0	1.255542E+0	1.199513E+0	1.243941E+0	1.209921E+0	1.244176E+0	1.173807E+0	1.202165E+0	1.241140E+0	1.204697E+0	1.312084E+0	1.224968E+0	1.223472E+0	1.269819E+0	1.192432E+0	1.210825E+0	1.299576E+0	1.288105E+0	1.247446E+0	1.214511E+0	1.202595E+0	1.267572E+0	1.245520E+0	1.235430E+0	1.242107E+0	1.236578E+0	1.208170E+0	1.236361E+0	1.292567E+0	1.237968E+0	1.179057E+0	1.276274E+0	1.229699E+0	1.276404E+0	1.219939E+0	1.236262E+0	1.239217E+0	1.226248E+0	1.230490E+0	1.232675E+0	1.200033E+0	1.268573E+0	1.238095E+0	1.174937E+0	1.235091E+0	1.255236E+0	1.233236E+0	1.204344E+0	1.239589E+0	1.308152E+0	1.229448E+0	1.209020E+0	1.286449E+0	1.282655E+0	1.226804E+0	1.238800E+0	1.205756E+0	1.255398E+0	1.280178E+0	1.255471E+0	1.255365E+0	1.240621E+0	1.243571E+0	1.206024E+0	1.263431E+0	1.259151E+0	1.285545E+0	1.215137E+0	1.175777E+0	1.225773E+0	1.241983E+0	1.229077E+0	1.241968E+0	1.255018E+0	1.213028E+0	1.213738E+0	1.170278E+0	1.301071E+0	1.301595E+0	1.222356E+0	1.293064E+0	1.242236E+0	1.256043E+0	1.216188E+0	1.268753E+0	1.332197E+0	1.229830E+0	1.259463E+0	1.258618E+0	1.195667E+0	1.301067E+0	1.242897E+0	1.227256E+0	1.235459E+0	1.215006E+0	1.233207E+0	1.251136E+0	1.222268E+0	1.280702E+0	1.253249E+0	1.236050E+0	1.248888E+0	1.217798E+0	1.180937E+0	1.252453E+0	1.245898E+0	1.237312E+0	1.168981E+0	1.230615E+0	1.259752E+0	1.191563E+0	1.203535E+0	1.278457E+0	1.241482E+0	1.262798E+0	1.206525E+0	1.245602E+0	1.205413E+0	1.231150E+0	1.186132E+0	1.191137E+0	1.217529E+0	1.272085E+0	1.205490E+0	1.248046E+0	1.270317E+0	1.209761E+0	1.242436E+0	1.274786E+0	1.237894E+0	1.263912E+0	1.264379E+0	1.239480E+0	1.228761E+0	1.221665E+0	1.230331E+0	1.258446E+0	1.225129E+0	1.228616E+0	1.228210E+0
5.467660E+2	1.316327E+0	1.268127E+0	1.351227E+0	1.305633E+0	1.357991E+0	1.334247E+0	1.379595E+0	1.281950E+0	1.302479E+0	1.317865E+0	1.329587E+0	1.347124E+0	1.298880E+0	1.328483E+0	1.340330E+0	1.296845E+0	1.305002E+0	1.306608E+0	1.356186E+0	1.333182E+0	1.335641E+0	1.359166E+0	1.326637E+0	1.280447E+0	1.331469E+0	1.378875E+0	1.335449E+0	1.327627E+0	1.356885E+0	1.300787E+0	1.299527E+0	1.389572E+0	1.305444E+0	1.314700E+0	1.320469E+0	1.402073E+0	1.370124E+0	1.303653E+0	1.347431E+0	1.292241E+0	1.318539E+0	1.277647E+0	1.276173E+0	1.329877E+0	1.336204E+0	1.326842E+0	1.330760E+0	1.361710E+0	1.324830E+0	1.339147E+0	1.349899E+0	1.364069E+0	1.326051E+0	1.291654E+0	1.314973E+0	1.325570E+0	1.311587E+0	1.332493E+0	1.295360E+0	1.359774E+0	1.321910E+0	1.347332E+0	1.291433E+0	1.370350E+0	1.303521E+0	1.346035E+0	1.303832E+0	1.345170E+0	1.271532E+0	1.310526E+0	1.333706E+0	1.345321E+0	1.280865E+0	1.297913E+0	1.325081E+0	1.368353E+0	1.275837E+0	1.317335E+0	1.353580E+0	1.418033E+0	1.331136E+0	1.329387E+0	1.331012E+0	1.359461E+0	1.317486E+0	1.358520E+0	1.328943E+0	1.334892E+0	1.329558E+0	1.320116E+0	1.345250E+0	1.310402E+0	1.348628E+0	1.340270E+0	1.326056E+0	1.323042E+0	1.315590E+0	1.280973E+0	1.287284E+0	1.347074E+0	1.373081E+0	1.317329E+0	1.312842E+0	1.258470E+0	1.356080E+0	1.330603E+0	1.325281E+0	1.316548E+0	1.340854E+0	1.294923E+0	1.295962E+0	1.347895E+0	1.319852E+0	1.349323E+0	1.309104E+0	1.352141E+0	1.350646E+0	1.301019E+0	1.320369E+0	1.299040E+0	1.326446E+0	1.303872E+0	1.356090E+0	1.329611E+0	1.333076E+0	1.309394E+0	1.273926E+0	1.347471E+0	1.260248E+0	1.327172E+0	1.253941E+0	1.354129E+0	1.275386E+0	1.283722E+0	1.333626E+0	1.364647E+0	1.270497E+0	1.294069E+0	1.299851E+0	1.326356E+0	1.283236E+0	1.309882E+0	1.402092E+0	1.394032E+0	1.359062E+0	1.284814E+0	1.292955E+0	1.310366E+0	1.323726E+0	1.262928E+0	1.363949E+0	1.339437E+0	1.319521E+0	1.291001E+0	1.332828E+0	1.323550E+0	1.277496E+0	1.330513E+0	1.348539E+0	1.364460E+0	1.353403E+0	1.354565E+0	1.335565E+0	1.327497E+0	1.356096E+0	1.290808E+0	1.292262E+0	1.324108E+0	1.350487E+0	1.215623E+0
5.475120E+2	1.455328E+0	1.477136E+0	1.470404E+0	1.482593E+0	1.452512E+0	1.448801E+0	1.445195E+0	1.470131E+0	1.434886E+0	1.424848E+0	1.470214E+0	1.476685E+0	1.480363E+0	1.434656E+0	1.434454E+0	1.419988E+0	1.471978E+0	1.441766E+0	1.458410E+0	1.453771E+0	1.486903E+0	1.453163E+0	1.382685E+0	1.414977E+0	1.406265E+0	1.418866E+0	1.490886E+0	1.409019E+0	1.437782E+0	1.391846E+0	1.434676E+0	1.456949E+0	1.452745E+0	1.467774E+0	1.369819E+0	1.471562E+0	1.413197E+0	1.435688E+0	1.453935E+0	1.447603E+0	1.474542E+0	1.451641E+0	1.445030E+0	1.482276E+0	1.441303E+0	1.482892E+0	1.472685E+0	1.443450E+0	1.463377E+0	1.433569E+0	1.438767E+0	1.431259E+0	1.465162E+0	1.361194E+0	1.443804E+0	1.477945E+0	1.422517E+0	1.394537E+0	1.428363E+0	1.514466E+0	1.456348E+0	1.447073E+0	1.411589E+0	1.480253E+0	1.356347E+0	1.391076E+0	1.359079E+0	1.464620E+0	1.445613E+0	1.426515E+0	1.416176E+0	1.422945E+0	1.433147E+0	1.467301E+0	1.443940E+0	1.492041E+0	1.399758E+0	1.384268E+0	1.461353E+0	1.522678E+0	1.407334E+0	1.391926E+0	1.488667E+0	1.463728E+0	1.411874E+0	1.446616E+0	1.438818E+0	1.448938E+0	1.455051E+0	1.474092E+0	1.440704E+0	1.518117E+0	1.450033E+0	1.435500E+0	1.399414E+0	1.449671E+0	1.476575E+0	1.421859E+0	1.440408E+0	1.474774E+0	1.523169E+0	1.433095E+0	1.418542E+0	1.403535E+0	1.374354E+0	1.404133E+0	1.424410E+0	1.456059E+0	1.414432E+0	1.435004E+0	1.462343E+0	1.451802E+0	1.461803E+0	1.426187E+0	1.442318E+0	1.442173E+0	1.432039E+0	1.423914E+0	1.444381E+0	1.403162E+0	1.409947E+0	1.396539E+0	1.489979E+0	1.407055E+0	1.410447E+0	1.415266E+0	1.437041E+0	1.442953E+0	1.420574E+0	1.427262E+0	1.514052E+0	1.459843E+0	1.457468E+0	1.390452E+0	1.378840E+0	1.451125E+0	1.413734E+0	1.448650E+0	1.478441E+0	1.493602E+0	1.418517E+0	1.402130E+0	1.429886E+0	1.502016E+0	1.448983E+0	1.438540E+0	1.464733E+0	1.493834E+0	1.405138E+0	1.452068E+0	1.420557E+0	1.356588E+0	1.466129E+0	1.431944E+0	1.429854E+0	1.470043E+0	1.399424E+0	1.479004E+0	1.396856E+0	1.469031E+0	1.458777E+0	1.438981E+0	1.379806E+0	1.446970E+0	1.439360E+0	1.389718E+0	1.470433E+0	1.484744E+0	1.475806E+0	1.316847E+0
5.482600E+2	1.501897E+0	1.527250E+0	1.503896E+0	1.447154E+0	1.443895E+0	1.547492E+0	1.535783E+0	1.520977E+0	1.436280E+0	1.429668E+0	1.468955E+0	1.449415E+0	1.517452E+0	1.496948E+0	1.458793E+0	1.552307E+0	1.476835E+0	1.522509E+0	1.449414E+0	1.515252E+0	1.494678E+0	1.450084E+0	1.504627E+0	1.520641E+0	1.416638E+0	1.513731E+0	1.539545E+0	1.540397E+0	1.457300E+0	1.426133E+0	1.507482E+0	1.477661E+0	1.461250E+0	1.465735E+0	1.525151E+0	1.517924E+0	1.501320E+0	1.525187E+0	1.493280E+0	1.478567E+0	1.456212E+0	1.453807E+0	1.422452E+0	1.484806E+0	1.481073E+0	1.526721E+0	1.540291E+0	1.498413E+0	1.479110E+0	1.383992E+0	1.460795E+0	1.474960E+0	1.453680E+0	1.488816E+0	1.499195E+0	1.488668E+0	1.503009E+0	1.518488E+0	1.431646E+0	1.492270E+0	1.468841E+0	1.494789E+0	1.454021E+0	1.521556E+0	1.406296E+0	1.442068E+0	1.461635E+0	1.436386E+0	1.403326E+0	1.497626E+0	1.444656E+0	1.494913E+0	1.466291E+0	1.438130E+0	1.443784E+0	1.488350E+0	1.476117E+0	1.473042E+0	1.481749E+0	1.545120E+0	1.400761E+0	1.460423E+0	1.502260E+0	1.469263E+0	1.471123E+0	1.430688E+0	1.444989E+0	1.498674E+0	1.487077E+0	1.449484E+0	1.474780E+0	1.502544E+0	1.494915E+0	1.491772E+0	1.488907E+0	1.458477E+0	1.424851E+0	1.472229E+0	1.391585E+0	1.456731E+0	1.487789E+0	1.443736E+0	1.444015E+0	1.445684E+0	1.458845E+0	1.445525E+0	1.439063E+0	1.460890E+0	1.430845E+0	1.428781E+0	1.436811E+0	1.531258E+0	1.379886E+0	1.438927E+0	1.484828E+0	1.463050E+0	1.466225E+0	1.424884E+0	1.487306E+0	1.467695E+0	1.449819E+0	1.418065E+0	1.470021E+0	1.505345E+0	1.479874E+0	1.457903E+0	1.393117E+0	1.418565E+0	1.456487E+0	1.449183E+0	1.484024E+0	1.463001E+0	1.488732E+0	1.383048E+0	1.478891E+0	1.482747E+0	1.406735E+0	1.460209E+0	1.462323E+0	1.546906E+0	1.446034E+0	1.448302E+0	1.470913E+0	1.573824E+0	1.413762E+0	1.466280E+0	1.435875E+0	1.464743E+0	1.462802E+0	1.469180E+0	1.450624E+0	1.420048E+0	1.506181E+0	1.500155E+0	1.428438E+0	1.429405E+0	1.458468E+0	1.462763E+0	1.453129E+0	1.527538E+0	1.488537E+0	1.498833E+0	1.515712E+0	1.519008E+0	1.479115E+0	1.440940E+0	1.430044E+0	1.455797E+0	1.521568E+0	1.411173E+0
5.490490E+2	1.494599E+0	1.492747E+0	1.485249E+0	1.475353E+0	1.501751E+0	1.491398E+0	1.517187E+0	1.487119E+0	1.415644E+0	1.433304E+0	1.438961E+0	1.470172E+0	1.428227E+0	1.500845E+0	1.478565E+0	1.527343E+0	1.508322E+0	1.503775E+0	1.484985E+0	1.517924E+0	1.436458E+0	1.483356E+0	1.473892E+0	1.502389E+0	1.448590E+0	1.501407E+0	1.510622E+0	1.484575E+0	1.477087E+0	1.482743E+0	1.479192E+0	1.507260E+0	1.469440E+0	1.435908E+0	1.473312E+0	1.501625E+0	1.506933E+0	1.430872E+0	1.482133E+0	1.467780E+0	1.516691E+0	1.460043E+0	1.433048E+0	1.513072E+0	1.458193E+0	1.476593E+0	1.494671E+0	1.460095E+0	1.463378E+0	1.429119E+0	1.433316E+0	1.513800E+0	1.484493E+0	1.466309E+0	1.438722E+0	1.481568E+0	1.461048E+0	1.484038E+0	1.462548E+0	1.452518E+0	1.455835E+0	1.439424E+0	1.492792E+0	1.524258E+0	1.475181E+0	1.439613E+0	1.421708E+0	1.415591E+0	1.437329E+0	1.440999E+0	1.447062E+0	1.434672E+0	1.516122E+0	1.425980E+0	1.433286E+0	1.485388E+0	1.502631E+0	1.423770E+0	1.419677E+0	1.521862E+0	1.466986E+0	1.470320E+0	1.479927E+0	1.489079E+0	1.492459E+0	1.456128E+0	1.423597E+0	1.543944E+0	1.487236E+0	1.425363E+0	1.452936E+0	1.424578E+0	1.463989E+0	1.454107E+0	1.417087E+0	1.527985E+0	1.493268E+0	1.453231E+0	1.451418E+0	1.490868E+0	1.538288E+0	1.476147E+0	1.453987E+0	1.481581E+0	1.447058E+0	1.445032E+0	1.400062E+0	1.448729E+0	1.487330E+0	1.379544E+0	1.480298E+0	1.466732E+0	1.482005E+0	1.480682E+0	1.409147E+0	1.475126E+0	1.443881E+0	1.471818E+0	1.414139E+0	1.420281E+0	1.491833E+0	1.473048E+0	1.440975E+0	1.464623E+0	1.523852E+0	1.449752E+0	1.449730E+0	1.388901E+0	1.434008E+0	1.486499E+0	1.440826E+0	1.443145E+0	1.505714E+0	1.451764E+0	1.399461E+0	1.471435E+0	1.436347E+0	1.434889E+0	1.433756E+0	1.487991E+0	1.428614E+0	1.438459E+0	1.432315E+0	1.530468E+0	1.420420E+0	1.452056E+0	1.450715E+0	1.496983E+0	1.507432E+0	1.441866E+0	1.442139E+0	1.446126E+0	1.514227E+0	1.426758E+0	1.458741E+0	1.470056E+0	1.435063E+0	1.458495E+0	1.457315E+0	1.486621E+0	1.469807E+0	1.398568E+0	1.471499E+0	1.448243E+0	1.438136E+0	1.426302E+0	1.483804E+0	1.543935E+0	1.483578E+0	1.554260E+0
5.497790E+2	1.431573E+0	1.417459E+0	1.443606E+0	1.389543E+0	1.416985E+0	1.364763E+0	1.484013E+0	1.418278E+0	1.419335E+0	1.432226E+0	1.398633E+0	1.444262E+0	1.398147E+0	1.463688E+0	1.453233E+0	1.427259E+0	1.465853E+0	1.441839E+0	1.451914E+0	1.439335E+0	1.481530E+0	1.426758E+0	1.437873E+0	1.431424E+0	1.365121E+0	1.400475E+0	1.426185E+0	1.453511E+0	1.414412E+0	1.426484E+0	1.368119E+0	1.409538E+0	1.471878E+0	1.406387E+0	1.443539E+0	1.436163E+0	1.438319E+0	1.417173E+0	1.405964E+0	1.417514E+0	1.414969E+0	1.387726E+0	1.342965E+0	1.386645E+0	1.490778E+0	1.429299E+0	1.406391E+0	1.448822E+0	1.459178E+0	1.365690E+0	1.378874E+0	1.424489E+0	1.461978E+0	1.373644E+0	1.376813E+0	1.403960E+0	1.401379E+0	1.433366E+0	1.417306E+0	1.461242E+0	1.385000E+0	1.423445E+0	1.357704E+0	1.405547E+0	1.372944E+0	1.434102E+0	1.426264E+0	1.371106E+0	1.354371E+0	1.330241E+0	1.433244E+0	1.498963E+0	1.448552E+0	1.469158E+0	1.368381E+0	1.442445E+0	1.388746E+0	1.422762E+0	1.397666E+0	1.425653E+0	1.456626E+0	1.436908E+0	1.403026E+0	1.475484E+0	1.410676E+0	1.373669E+0	1.448774E+0	1.417913E+0	1.448930E+0	1.408017E+0	1.406263E+0	1.416444E+0	1.463390E+0	1.422015E+0	1.421064E+0	1.446688E+0	1.453183E+0	1.445138E+0	1.395452E+0	1.419812E+0	1.477592E+0	1.424060E+0	1.401789E+0	1.419233E+0	1.437475E+0	1.421618E+0	1.421528E+0	1.411518E+0	1.390771E+0	1.392401E+0	1.398119E+0	1.422956E+0	1.432945E+0	1.349432E+0	1.400304E+0	1.426220E+0	1.409526E+0	1.441602E+0	1.412064E+0	1.450461E+0	1.445367E+0	1.323362E+0	1.453095E+0	1.470613E+0	1.421322E+0	1.396068E+0	1.399034E+0	1.408229E+0	1.372303E+0	1.385117E+0	1.398890E+0	1.452165E+0	1.404677E+0	1.379397E+0	1.407476E+0	1.440842E+0	1.397860E+0	1.375649E+0	1.361308E+0	1.446139E+0	1.419564E+0	1.368337E+0	1.395371E+0	1.387074E+0	1.377907E+0	1.361047E+0	1.426697E+0	1.424552E+0	1.409634E+0	1.350119E+0	1.462611E+0	1.400324E+0	1.432499E+0	1.403911E+0	1.345645E+0	1.404713E+0	1.402215E+0	1.432362E+0	1.427078E+0	1.458872E+0	1.437254E+0	1.372825E+0	1.394715E+0	1.400629E+0	1.383588E+0	1.370020E+0	1.371329E+0	1.352089E+0	1.449409E+0	1.457547E+0
5.505110E+2	1.371350E+0	1.395813E+0	1.427827E+0	1.390119E+0	1.409672E+0	1.394049E+0	1.356415E+0	1.405079E+0	1.406112E+0	1.315437E+0	1.326953E+0	1.425423E+0	1.331461E+0	1.375292E+0	1.352559E+0	1.378006E+0	1.389969E+0	1.402209E+0	1.390434E+0	1.395221E+0	1.306080E+0	1.406784E+0	1.353374E+0	1.349251E+0	1.330604E+0	1.308239E+0	1.397836E+0	1.423439E+0	1.329403E+0	1.393749E+0	1.352425E+0	1.349897E+0	1.308533E+0	1.316382E+0	1.356019E+0	1.416485E+0	1.382200E+0	1.314464E+0	1.388362E+0	1.346236E+0	1.351684E+0	1.341865E+0	1.380256E+0	1.387494E+0	1.383696E+0	1.357810E+0	1.379460E+0	1.329275E+0	1.358624E+0	1.352062E+0	1.396592E+0	1.391577E+0	1.394075E+0	1.357236E+0	1.309352E+0	1.355570E+0	1.380828E+0	1.375123E+0	1.328995E+0	1.351072E+0	1.378468E+0	1.309645E+0	1.382995E+0	1.362564E+0	1.342594E+0	1.370790E+0	1.348233E+0	1.364880E+0	1.288983E+0	1.327997E+0	1.350266E+0	1.404653E+0	1.376317E+0	1.400863E+0	1.346932E+0	1.383094E+0	1.387480E+0	1.280302E+0	1.341571E+0	1.391605E+0	1.360084E+0	1.378142E+0	1.409309E+0	1.377421E+0	1.405063E+0	1.361256E+0	1.371773E+0	1.332224E+0	1.401036E+0	1.372503E+0	1.386341E+0	1.355988E+0	1.377425E+0	1.369689E+0	1.337839E+0	1.378176E+0	1.365871E+0	1.331505E+0	1.361435E+0	1.394929E+0	1.404868E+0	1.383495E+0	1.338845E+0	1.327693E+0	1.357321E+0	1.309555E+0	1.360076E+0	1.424584E+0	1.362863E+0	1.316548E+0	1.402283E+0	1.426991E+0	1.401537E+0	1.326268E+0	1.392115E+0	1.365714E+0	1.357693E+0	1.360571E+0	1.403440E+0	1.350857E+0	1.374673E+0	1.387295E+0	1.412945E+0	1.368524E+0	1.403319E+0	1.344228E+0	1.427906E+0	1.404446E+0	1.367586E+0	1.350330E+0	1.317223E+0	1.387914E+0	1.379711E+0	1.341654E+0	1.363949E+0	1.371873E+0	1.329623E+0	1.336094E+0	1.378581E+0	1.340553E+0	1.354203E+0	1.335515E+0	1.366299E+0	1.358785E+0	1.308724E+0	1.334518E+0	1.365538E+0	1.353295E+0	1.352770E+0	1.325710E+0	1.380816E+0	1.347853E+0	1.367748E+0	1.352017E+0	1.304883E+0	1.429569E+0	1.307367E+0	1.332355E+0	1.347468E+0	1.402486E+0	1.397295E+0	1.350763E+0	1.354944E+0	1.319160E+0	1.401962E+0	1.410575E+0	1.314601E+0	1.404854E+0	1.364159E+0	1.272993E+0
5.512570E+2	1.427424E+0	1.452730E+0	1.416513E+0	1.452090E+0	1.404492E+0	1.409814E+0	1.465116E+0	1.404163E+0	1.392332E+0	1.367685E+0	1.404220E+0	1.391228E+0	1.404149E+0	1.404560E+0	1.393574E+0	1.460727E+0	1.390916E+0	1.386574E+0	1.400086E+0	1.438521E+0	1.492575E+0	1.374646E+0	1.415043E+0	1.380302E+0	1.361243E+0	1.427898E+0	1.447194E+0	1.439703E+0	1.456160E+0	1.429856E+0	1.376810E+0	1.406482E+0	1.337808E+0	1.421575E+0	1.396261E+0	1.476380E+0	1.393717E+0	1.393670E+0	1.458825E+0	1.359817E+0	1.477835E+0	1.400527E+0	1.375884E+0	1.405501E+0	1.333647E+0	1.431805E+0	1.445069E+0	1.468966E+0	1.422313E+0	1.378625E+0	1.379828E+0	1.415052E+0	1.420028E+0	1.359599E+0	1.405731E+0	1.479488E+0	1.379144E+0	1.420650E+0	1.311772E+0	1.424993E+0	1.408615E+0	1.443347E+0	1.374254E+0	1.407873E+0	1.338106E+0	1.346926E+0	1.434560E+0	1.419763E+0	1.405566E+0	1.386236E+0	1.398684E+0	1.406662E+0	1.419092E+0	1.380997E+0	1.416362E+0	1.416094E+0	1.427180E+0	1.364000E+0	1.407587E+0	1.512409E+0	1.314227E+0	1.429528E+0	1.447932E+0	1.477146E+0	1.436090E+0	1.367916E+0	1.407401E+0	1.452239E+0	1.445178E+0	1.390653E+0	1.366812E+0	1.440282E+0	1.451980E+0	1.351098E+0	1.409206E+0	1.415663E+0	1.403348E+0	1.406200E+0	1.386518E+0	1.449039E+0	1.427687E+0	1.404953E+0	1.431042E+0	1.368821E+0	1.407145E+0	1.364685E+0	1.385529E+0	1.435747E+0	1.414510E+0	1.383429E+0	1.360573E+0	1.396144E+0	1.381134E+0	1.423022E+0	1.369385E+0	1.400994E+0	1.442393E+0	1.362525E+0	1.395877E+0	1.389383E+0	1.416626E+0	1.385713E+0	1.382101E+0	1.382012E+0	1.414022E+0	1.371847E+0	1.388283E+0	1.371292E+0	1.353929E+0	1.363721E+0	1.384633E+0	1.359773E+0	1.374246E+0	1.351884E+0	1.370696E+0	1.388611E+0	1.372181E+0	1.388222E+0	1.409344E+0	1.392903E+0	1.353864E+0	1.398418E+0	1.438028E+0	1.431385E+0	1.381295E+0	1.378895E+0	1.358322E+0	1.400774E+0	1.427273E+0	1.328343E+0	1.374087E+0	1.349322E+0	1.410048E+0	1.361775E+0	1.363651E+0	1.378635E+0	1.365134E+0	1.388568E+0	1.367223E+0	1.420665E+0	1.433063E+0	1.377591E+0	1.378542E+0	1.435737E+0	1.408728E+0	1.399828E+0	1.411431E+0	1.432877E+0	1.415489E+0	1.347058E+0
5.520260E+2	1.443864E+0	1.381446E+0	1.389938E+0	1.378775E+0	1.467429E+0	1.386638E+0	1.419099E+0	1.398637E+0	1.401989E+0	1.331811E+0	1.388174E+0	1.360082E+0	1.419953E+0	1.453252E+0	1.429228E+0	1.398101E+0	1.399225E+0	1.372941E+0	1.339653E+0	1.376052E+0	1.408044E+0	1.411924E+0	1.460522E+0	1.402758E+0	1.392343E+0	1.399994E+0	1.433916E+0	1.330443E+0	1.360532E+0	1.351121E+0	1.368197E+0	1.380270E+0	1.441687E+0	1.350124E+0	1.415061E+0	1.411591E+0	1.365863E+0	1.391359E+0	1.381723E+0	1.393307E+0	1.439424E+0	1.402388E+0	1.408314E+0	1.420649E+0	1.406083E+0	1.394249E+0	1.403801E+0	1.424818E+0	1.400723E+0	1.351809E+0	1.366518E+0	1.405028E+0	1.398073E+0	1.352092E+0	1.375349E+0	1.450617E+0	1.370464E+0	1.450304E+0	1.372516E+0	1.478692E+0	1.371872E+0	1.408425E+0	1.393253E+0	1.404723E+0	1.369838E+0	1.401808E+0	1.382555E+0	1.364035E+0	1.389636E+0	1.438487E+0	1.423952E+0	1.417277E+0	1.431038E+0	1.365454E+0	1.381777E+0	1.383535E+0	1.407410E+0	1.391717E+0	1.369530E+0	1.446160E+0	1.373861E+0	1.345056E+0	1.397415E+0	1.435149E+0	1.387886E+0	1.345396E+0	1.335177E+0	1.377202E+0	1.379325E+0	1.370462E+0	1.412970E+0	1.444376E+0	1.356201E+0	1.374608E+0	1.388639E+0	1.405820E+0	1.380632E+0	1.415532E+0	1.303227E+0	1.411383E+0	1.449341E+0	1.371156E+0	1.357012E+0	1.374602E+0	1.383209E+0	1.324979E+0	1.369202E+0	1.361614E+0	1.366343E+0	1.406761E+0	1.406226E+0	1.418096E+0	1.402398E+0	1.385352E+0	1.370006E+0	1.349135E+0	1.369457E+0	1.433213E+0	1.389240E+0	1.337185E+0	1.384856E+0	1.357524E+0	1.412281E+0	1.407212E+0	1.360487E+0	1.362429E+0	1.381182E+0	1.397784E+0	1.440506E+0	1.371613E+0	1.348856E+0	1.401846E+0	1.347002E+0	1.327591E+0	1.346557E+0	1.427210E+0	1.415251E+0	1.348449E+0	1.391589E+0	1.386478E+0	1.368160E+0	1.425837E+0	1.411394E+0	1.351150E+0	1.304722E+0	1.358125E+0	1.413816E+0	1.441709E+0	1.387760E+0	1.344142E+0	1.418791E+0	1.378454E+0	1.406374E+0	1.395169E+0	1.410182E+0	1.440937E+0	1.349742E+0	1.365659E+0	1.397602E+0	1.415822E+0	1.361070E+0	1.369778E+0	1.414650E+0	1.363754E+0	1.397732E+0	1.398654E+0	1.447008E+0	1.429703E+0	1.473041E+0	1.366336E+0
5.527590E+2	1.323486E+0	1.349592E+0	1.256894E+0	1.333048E+0	1.342236E+0	1.272069E+0	1.318744E+0	1.331702E+0	1.238625E+0	1.259170E+0	1.243204E+0	1.256328E+0	1.259009E+0	1.305677E+0	1.292613E+0	1.231229E+0	1.273354E+0	1.299035E+0	1.365606E+0	1.308089E+0	1.316757E+0	1.282995E+0	1.276589E+0	1.327781E+0	1.313884E+0	1.302542E+0	1.266513E+0	1.218753E+0	1.305504E+0	1.297248E+0	1.269709E+0	1.315223E+0	1.292211E+0	1.291083E+0	1.257485E+0	1.299256E+0	1.256250E+0	1.276709E+0	1.255779E+0	1.286364E+0	1.323624E+0	1.295625E+0	1.298911E+0	1.288102E+0	1.309674E+0	1.328257E+0	1.304501E+0	1.301073E+0	1.272125E+0	1.266807E+0	1.289296E+0	1.252669E+0	1.318072E+0	1.306302E+0	1.203858E+0	1.303322E+0	1.282050E+0	1.259945E+0	1.336770E+0	1.334305E+0	1.251699E+0	1.308556E+0	1.273147E+0	1.306713E+0	1.234492E+0	1.271163E+0	1.254876E+0	1.223970E+0	1.248695E+0	1.311545E+0	1.313476E+0	1.309158E+0	1.284566E+0	1.299369E+0	1.283639E+0	1.296513E+0	1.284996E+0	1.265370E+0	1.267065E+0	1.329311E+0	1.307116E+0	1.268873E+0	1.297737E+0	1.315714E+0	1.320816E+0	1.271441E+0	1.296893E+0	1.290619E+0	1.318429E+0	1.319462E+0	1.281561E+0	1.314683E+0	1.251665E+0	1.266100E+0	1.304469E+0	1.298013E+0	1.293877E+0	1.331095E+0	1.251513E+0	1.276529E+0	1.260880E+0	1.308963E+0	1.270617E+0	1.231370E+0	1.252149E+0	1.297451E+0	1.261355E+0	1.303240E+0	1.234860E+0	1.285491E+0	1.278375E+0	1.274189E+0	1.334958E+0	1.266345E+0	1.281340E+0	1.291105E+0	1.286102E+0	1.323814E+0	1.275682E+0	1.239881E+0	1.286318E+0	1.315380E+0	1.316135E+0	1.323487E+0	1.289675E+0	1.275270E+0	1.286877E+0	1.317301E+0	1.280103E+0	1.306319E+0	1.271195E+0	1.266637E+0	1.279925E+0	1.228383E+0	1.345346E+0	1.273142E+0	1.263137E+0	1.270681E+0	1.283170E+0	1.281359E+0	1.266633E+0	1.231258E+0	1.284029E+0	1.304678E+0	1.306602E+0	1.322710E+0	1.283353E+0	1.344458E+0	1.311083E+0	1.266927E+0	1.316112E+0	1.257951E+0	1.305402E+0	1.260374E+0	1.280384E+0	1.317006E+0	1.247527E+0	1.298716E+0	1.297877E+0	1.320344E+0	1.336865E+0	1.291138E+0	1.228572E+0	1.256608E+0	1.319747E+0	1.293968E+0	1.277186E+0	1.286843E+0	1.342878E+0	1.321145E+0
5.535330E+2	1.284196E+0	1.278580E+0	1.239804E+0	1.259936E+0	1.285618E+0	1.284727E+0	1.284800E+0	1.281940E+0	1.273265E+0	1.226059E+0	1.231026E+0	1.269243E+0	1.281264E+0	1.271210E+0	1.203340E+0	1.232379E+0	1.252782E+0	1.311401E+0	1.276363E+0	1.261399E+0	1.321323E+0	1.262833E+0	1.296849E+0	1.221280E+0	1.233201E+0	1.299643E+0	1.312847E+0	1.232482E+0	1.259434E+0	1.278010E+0	1.286519E+0	1.271021E+0	1.244102E+0	1.208483E+0	1.292392E+0	1.291333E+0	1.264789E+0	1.222956E+0	1.267161E+0	1.217203E+0	1.337928E+0	1.244787E+0	1.275588E+0	1.267550E+0	1.257796E+0	1.262263E+0	1.263346E+0	1.224811E+0	1.249034E+0	1.269465E+0	1.258578E+0	1.282998E+0	1.342055E+0	1.223590E+0	1.274462E+0	1.277523E+0	1.283772E+0	1.246841E+0	1.233490E+0	1.240600E+0	1.267031E+0	1.268170E+0	1.208909E+0	1.221520E+0	1.238805E+0	1.231673E+0	1.324025E+0	1.252138E+0	1.238632E+0	1.259269E+0	1.263317E+0	1.231987E+0	1.227178E+0	1.247929E+0	1.256430E+0	1.202006E+0	1.214524E+0	1.223258E+0	1.268990E+0	1.227070E+0	1.258049E+0	1.276869E+0	1.288075E+0	1.276878E+0	1.279960E+0	1.252835E+0	1.249988E+0	1.235157E+0	1.214601E+0	1.260665E+0	1.289836E+0	1.286439E+0	1.275794E+0	1.267061E+0	1.224728E+0	1.263188E+0	1.313086E+0	1.216900E+0	1.223996E+0	1.312173E+0	1.280895E+0	1.240230E+0	1.255954E+0	1.306147E+0	1.209597E+0	1.265672E+0	1.212510E+0	1.260761E+0	1.299026E+0	1.293721E+0	1.255909E+0	1.224714E+0	1.217330E+0	1.252854E+0	1.256290E+0	1.189779E+0	1.276467E+0	1.263860E+0	1.238739E+0	1.212151E+0	1.232991E+0	1.223416E+0	1.237608E+0	1.200966E+0	1.302659E+0	1.260653E+0	1.251994E+0	1.217568E+0	1.239128E+0	1.263453E+0	1.239802E+0	1.235009E+0	1.204800E+0	1.240722E+0	1.210306E+0	1.234042E+0	1.241170E+0	1.220242E+0	1.264403E+0	1.302553E+0	1.224960E+0	1.304612E+0	1.260734E+0	1.214553E+0	1.264634E+0	1.207795E+0	1.266795E+0	1.297292E+0	1.266923E+0	1.267143E+0	1.293101E+0	1.238557E+0	1.282433E+0	1.246520E+0	1.220379E+0	1.257573E+0	1.209694E+0	1.251487E+0	1.261456E+0	1.251033E+0	1.253447E+0	1.274790E+0	1.258717E+0	1.204316E+0	1.266605E+0	1.265204E+0	1.241102E+0	1.268890E+0	1.234881E+0	1.183177E+0
5.542580E+2	1.201620E+0	1.183768E+0	1.170380E+0	1.185533E+0	1.227680E+0	1.168704E+0	1.162851E+0	1.129082E+0	1.115237E+0	1.187078E+0	1.134749E+0	1.160081E+0	1.159886E+0	1.192930E+0	1.173651E+0	1.186320E+0	1.231669E+0	1.160566E+0	1.179857E+0	1.167134E+0	1.184787E+0	1.149517E+0	1.160664E+0	1.160757E+0	1.222062E+0	1.173981E+0	1.148777E+0	1.148416E+0	1.177264E+0	1.171641E+0	1.152307E+0	1.137978E+0	1.165470E+0	1.204260E+0	1.145006E+0	1.171905E+0	1.151556E+0	1.157478E+0	1.191992E+0	1.156231E+0	1.230506E+0	1.140357E+0	1.169161E+0	1.152037E+0	1.172373E+0	1.184247E+0	1.178036E+0	1.158717E+0	1.172141E+0	1.125796E+0	1.108591E+0	1.158038E+0	1.207650E+0	1.126264E+0	1.174106E+0	1.174747E+0	1.223301E+0	1.168651E+0	1.108058E+0	1.139020E+0	1.199019E+0	1.180223E+0	1.197562E+0	1.140979E+0	1.146729E+0	1.152953E+0	1.158530E+0	1.170836E+0	1.135577E+0	1.127429E+0	1.155764E+0	1.171563E+0	1.209510E+0	1.175380E+0	1.212521E+0	1.184180E+0	1.176938E+0	1.134660E+0	1.184349E+0	1.135955E+0	1.148510E+0	1.177616E+0	1.220017E+0	1.208096E+0	1.214359E+0	1.172997E+0	1.155023E+0	1.164025E+0	1.187976E+0	1.111106E+0	1.159006E+0	1.173483E+0	1.146650E+0	1.148409E+0	1.168524E+0	1.187036E+0	1.214025E+0	1.185821E+0	1.173982E+0	1.186390E+0	1.202464E+0	1.157644E+0	1.207775E+0	1.143507E+0	1.120865E+0	1.187148E+0	1.131542E+0	1.138737E+0	1.174242E+0	1.129494E+0	1.132272E+0	1.132261E+0	1.191767E+0	1.135572E+0	1.111509E+0	1.184730E+0	1.224568E+0	1.129014E+0	1.132107E+0	1.160857E+0	1.226223E+0	1.171121E+0	1.117785E+0	1.149831E+0	1.209527E+0	1.159475E+0	1.178363E+0	1.143595E+0	1.189996E+0	1.180122E+0	1.168858E+0	1.147195E+0	1.171487E+0	1.204419E+0	1.161802E+0	1.163613E+0	1.196642E+0	1.153699E+0	1.120607E+0	1.200751E+0	1.220688E+0	1.171422E+0	1.191854E+0	1.190170E+0	1.104175E+0	1.093899E+0	1.171424E+0	1.163389E+0	1.154698E+0	1.144957E+0	1.192393E+0	1.135769E+0	1.190941E+0	1.191091E+0	1.140435E+0	1.228533E+0	1.142516E+0	1.181392E+0	1.114134E+0	1.239459E+0	1.179595E+0	1.169337E+0	1.129857E+0	1.190049E+0	1.209049E+0	1.116223E+0	1.205624E+0	1.257936E+0	1.189653E+0	1.241800E+0
5.550140E+2	1.028749E+0	1.012255E+0	1.044711E+0	1.066153E+0	1.024757E+0	1.055355E+0	1.048790E+0	1.061707E+0	1.009615E+0	1.017535E+0	1.043788E+0	9.909482E-1	1.066949E+0	1.005396E+0	1.043579E+0	1.017246E+0	1.059264E+0	1.074622E+0	1.046186E+0	1.043812E+0	1.062236E+0	1.010405E+0	1.078293E+0	1.017711E+0	1.005111E+0	1.044836E+0	1.060355E+0	1.012074E+0	1.007966E+0	9.963093E-1	1.029317E+0	1.070875E+0	1.021300E+0	1.059326E+0	1.052694E+0	1.033464E+0	1.051092E+0	1.015852E+0	1.021145E+0	1.040910E+0	1.070978E+0	1.080658E+0	1.012902E+0	1.006678E+0	1.050933E+0	1.048825E+0	1.073187E+0	1.021367E+0	1.121316E+0	1.014781E+0	1.048868E+0	1.021332E+0	1.058028E+0	1.005649E+0	1.008145E+0	1.039138E+0	1.019620E+0	1.022597E+0	1.062099E+0	1.066432E+0	1.034982E+0	1.067327E+0	1.016301E+0	9.851197E-1	1.077387E+0	1.038137E+0	1.036315E+0	1.035835E+0	1.084791E+0	9.984877E-1	9.910351E-1	1.103669E+0	1.059783E+0	1.047887E+0	1.029962E+0	1.025990E+0	1.035553E+0	1.019182E+0	1.013630E+0	1.036341E+0	1.049454E+0	1.056883E+0	1.060433E+0	1.032551E+0	1.029156E+0	1.044441E+0	1.036377E+0	1.057431E+0	1.048711E+0	1.061913E+0	1.044789E+0	1.045233E+0	1.046623E+0	1.066598E+0	1.043392E+0	1.039962E+0	1.037126E+0	1.076459E+0	1.021871E+0	1.056538E+0	1.076979E+0	1.035839E+0	1.051881E+0	1.048051E+0	1.082256E+0	1.028281E+0	1.054060E+0	9.782480E-1	1.031476E+0	1.011163E+0	1.026523E+0	1.033332E+0	1.056503E+0	1.079875E+0	9.888572E-1	1.058471E+0	1.001676E+0	1.101797E+0	1.039202E+0	1.025335E+0	1.026641E+0	9.984970E-1	1.056960E+0	1.003134E+0	1.038418E+0	1.031509E+0	1.067754E+0	1.047306E+0	1.049427E+0	1.020358E+0	1.019147E+0	1.059975E+0	1.020407E+0	1.051118E+0	1.019787E+0	1.004199E+0	1.048342E+0	1.066380E+0	1.018476E+0	1.069574E+0	1.024127E+0	1.045680E+0	1.072132E+0	1.042655E+0	9.871959E-1	1.018440E+0	1.050095E+0	1.054436E+0	9.995989E-1	1.017651E+0	1.076947E+0	1.066992E+0	1.046188E+0	1.050658E+0	1.024160E+0	1.064005E+0	1.065259E+0	1.078764E+0	1.025546E+0	1.027512E+0	1.114379E+0	1.021346E+0	1.021940E+0	1.069927E+0	1.074422E+0	9.959076E-1	1.030816E+0	1.003895E+0	1.054159E+0	1.003236E+0
5.557600E+2	1.038224E+0	1.052351E+0	1.026143E+0	1.021223E+0	1.043124E+0	1.022438E+0	1.050183E+0	1.059170E+0	1.031482E+0	9.708660E-1	1.008787E+0	1.016295E+0	1.008243E+0	1.075311E+0	9.968748E-1	1.021475E+0	1.050198E+0	1.032632E+0	1.052253E+0	9.846541E-1	1.049952E+0	1.041686E+0	9.893194E-1	1.012503E+0	1.030386E+0	1.033985E+0	1.012856E+0	1.040569E+0	9.887526E-1	1.015155E+0	1.022952E+0	1.044974E+0	1.046712E+0	9.961694E-1	1.012303E+0	1.021709E+0	1.037654E+0	1.033027E+0	1.054349E+0	1.040794E+0	1.072486E+0	1.016213E+0	1.009285E+0	1.024599E+0	1.058331E+0	1.055929E+0	1.071739E+0	9.976053E-1	1.006843E+0	1.010345E+0	1.037481E+0	1.010015E+0	1.064843E+0	1.055985E+0	9.863918E-1	1.044671E+0	1.039546E+0	1.056604E+0	1.009430E+0	9.951491E-1	1.004679E+0	1.035110E+0	1.028707E+0	1.009189E+0	9.669152E-1	9.892465E-1	1.014118E+0	1.025982E+0	1.042818E+0	1.029400E+0	1.021686E+0	1.039935E+0	1.014128E+0	1.000663E+0	1.000044E+0	1.086253E+0	1.038805E+0	1.014451E+0	1.060684E+0	1.042728E+0	1.024323E+0	1.000840E+0	1.035164E+0	1.066200E+0	9.896681E-1	1.004435E+0	1.047378E+0	1.014380E+0	1.014735E+0	1.029865E+0	1.023128E+0	1.072346E+0	1.011068E+0	1.020501E+0	1.015419E+0	1.046692E+0	1.022963E+0	1.009158E+0	9.716714E-1	9.807379E-1	1.033658E+0	1.008672E+0	1.028923E+0	1.006404E+0	1.072775E+0	1.002318E+0	1.018310E+0	9.977021E-1	1.020840E+0	1.023518E+0	1.019923E+0	1.016789E+0	1.042886E+0	1.061273E+0	9.736224E-1	1.014171E+0	1.066471E+0	1.017506E+0	1.023105E+0	9.675582E-1	1.080710E+0	9.884502E-1	9.669411E-1	1.032580E+0	1.065266E+0	1.010993E+0	1.023267E+0	9.887842E-1	1.016115E+0	9.899509E-1	1.035758E+0	1.030354E+0	1.075999E+0	1.012628E+0	1.019084E+0	1.043452E+0	1.028381E+0	9.889556E-1	1.023064E+0	1.052252E+0	9.794205E-1	1.017390E+0	1.036473E+0	1.031471E+0	1.009819E+0	1.013479E+0	1.002840E+0	1.031530E+0	1.030633E+0	1.037006E+0	1.008938E+0	1.003413E+0	9.963143E-1	1.034996E+0	1.051087E+0	1.064869E+0	1.022137E+0	1.057259E+0	1.037742E+0	1.057570E+0	1.052041E+0	1.000691E+0	1.060859E+0	1.010298E+0	1.024393E+0	1.016062E+0	1.081483E+0	1.035480E+0	1.166143E+0	1.015022E+0
5.560190E+2	1.007836E+0	1.023211E+0	1.016900E+0	1.000324E+0	1.060976E+0	9.999262E-1	1.031193E+0	9.995174E-1	9.746080E-1	1.023558E+0	9.839134E-1	1.031728E+0	1.020055E+0	1.012219E+0	9.901329E-1	1.037720E+0	1.039973E+0	1.023143E+0	9.626431E-1	1.051282E+0	1.032201E+0	1.012408E+0	1.034109E+0	1.002746E+0	1.008666E+0	1.008119E+0	1.025940E+0	9.745330E-1	1.010700E+0	1.010409E+0	1.041443E+0	1.024015E+0	9.866414E-1	9.987852E-1	9.833928E-1	1.034271E+0	1.024186E+0	1.033141E+0	1.005293E+0	1.037403E+0	1.017017E+0	9.801169E-1	9.767020E-1	1.041861E+0	1.048769E+0	1.033941E+0	1.073172E+0	1.010561E+0	1.031237E+0	1.054496E+0	9.779159E-1	1.026330E+0	1.023227E+0	9.406922E-1	1.016025E+0	1.052279E+0	1.019662E+0	9.702424E-1	9.638179E-1	1.004962E+0	1.057637E+0	9.996577E-1	1.006881E+0	1.001095E+0	1.021787E+0	1.002208E+0	1.051442E+0	1.013969E+0	1.001674E+0	1.011962E+0	9.934373E-1	1.001412E+0	1.039387E+0	9.824459E-1	9.779731E-1	1.014646E+0	1.003503E+0	9.762061E-1	1.054453E+0	1.041989E+0	1.044700E+0	1.067673E+0	1.014064E+0	9.905346E-1	9.818453E-1	1.040111E+0	1.023286E+0	1.011945E+0	1.041941E+0	1.001499E+0	1.017918E+0	1.020226E+0	1.006545E+0	9.969750E-1	1.002913E+0	1.047686E+0	1.053763E+0	1.006575E+0	1.018767E+0	9.625776E-1	1.045204E+0	9.945758E-1	1.001212E+0	9.800690E-1	1.019451E+0	1.020442E+0	9.635411E-1	1.035078E+0	9.775530E-1	1.015357E+0	1.016806E+0	1.025074E+0	1.036564E+0	1.024637E+0	1.034066E+0	1.036510E+0	9.971676E-1	1.040244E+0	1.027564E+0	1.009176E+0	1.041498E+0	9.994948E-1	9.771104E-1	1.009889E+0	1.021513E+0	1.001633E+0	1.028536E+0	9.997136E-1	1.034213E+0	1.019769E+0	1.068867E+0	1.028240E+0	9.755277E-1	1.003888E+0	9.691189E-1	1.007724E+0	9.806778E-1	9.953089E-1	1.004007E+0	9.847157E-1	1.028262E+0	1.018465E+0	1.024401E+0	9.853252E-1	1.006306E+0	9.995038E-1	9.876746E-1	1.015048E+0	1.028673E+0	1.017272E+0	9.942019E-1	9.807359E-1	1.030292E+0	9.930239E-1	1.008772E+0	9.887829E-1	1.008280E+0	1.059825E+0	1.051113E+0	1.016989E+0	1.041553E+0	1.024981E+0	1.011793E+0	1.010762E+0	1.064250E+0	1.056031E+0	1.024867E+0	1.011300E+0	9.800931E-1	1.064377E+0
5.565370E+2	9.645545E-1	9.925351E-1	9.681105E-1	9.478158E-1	9.668374E-1	9.175352E-1	9.244484E-1	9.236103E-1	9.753232E-1	9.372527E-1	9.342122E-1	9.610890E-1	9.802549E-1	9.148682E-1	9.620775E-1	9.485617E-1	9.612171E-1	9.216949E-1	9.213999E-1	9.824814E-1	9.907576E-1	9.127119E-1	9.844180E-1	9.241258E-1	9.295588E-1	9.386995E-1	9.327254E-1	9.842300E-1	9.085724E-1	9.468101E-1	9.392450E-1	9.630289E-1	1.015581E+0	9.422494E-1	9.536065E-1	9.229842E-1	9.679669E-1	9.351329E-1	9.562728E-1	9.786348E-1	9.786768E-1	9.969696E-1	9.579759E-1	9.946010E-1	8.945260E-1	9.716039E-1	9.629860E-1	9.651341E-1	9.707206E-1	9.626363E-1	9.708895E-1	9.633544E-1	9.899351E-1	9.130203E-1	9.646608E-1	9.426238E-1	9.529709E-1	9.303995E-1	1.022706E+0	9.500796E-1	9.902622E-1	9.976616E-1	9.801396E-1	9.709233E-1	9.749319E-1	9.949238E-1	9.154989E-1	9.575987E-1	9.887589E-1	9.584522E-1	9.584941E-1	9.276508E-1	9.458542E-1	9.652177E-1	9.405459E-1	9.531474E-1	9.808184E-1	9.833232E-1	9.598568E-1	9.486265E-1	9.667747E-1	9.809944E-1	9.917030E-1	9.699226E-1	1.000847E+0	9.243073E-1	9.262726E-1	9.579770E-1	9.559610E-1	9.657274E-1	9.468161E-1	9.680355E-1	9.630205E-1	9.814918E-1	9.470786E-1	9.233904E-1	9.666629E-1	9.279034E-1	9.675702E-1	9.498505E-1	9.415667E-1	9.472510E-1	9.438339E-1	9.263320E-1	9.559994E-1	9.775829E-1	9.585361E-1	9.875312E-1	9.717499E-1	9.268424E-1	9.491740E-1	1.001632E+0	9.653405E-1	9.218687E-1	9.411655E-1	9.705434E-1	9.695861E-1	9.665507E-1	9.701756E-1	9.531703E-1	9.591839E-1	9.651312E-1	9.318077E-1	9.584605E-1	9.569450E-1	9.706020E-1	9.760823E-1	9.421579E-1	9.690542E-1	9.241277E-1	9.546684E-1	9.608490E-1	1.003037E+0	9.782330E-1	9.394016E-1	9.656211E-1	9.521014E-1	9.356368E-1	9.945510E-1	9.406986E-1	9.309447E-1	9.610071E-1	9.356174E-1	9.442865E-1	9.656744E-1	9.823295E-1	9.609406E-1	9.693886E-1	9.890041E-1	9.497760E-1	9.400632E-1	9.655429E-1	9.812585E-1	9.418558E-1	9.879905E-1	9.662771E-1	9.856274E-1	9.655955E-1	9.677764E-1	9.539876E-1	9.429871E-1	8.995104E-1	9.693654E-1	9.805300E-1	9.595630E-1	9.167463E-1	9.451118E-1	9.850554E-1	9.000682E-1	9.101603E-1
5.570050E+2	9.870769E-1	1.047418E+0	9.924902E-1	1.057323E+0	1.023109E+0	1.040721E+0	1.055488E+0	9.522337E-1	1.044649E+0	1.018318E+0	1.047570E+0	1.065853E+0	1.021994E+0	1.046619E+0	1.053951E+0	1.028107E+0	1.025801E+0	1.052464E+0	1.013099E+0	1.023035E+0	1.017371E+0	1.036188E+0	1.085521E+0	1.067641E+0	1.053232E+0	1.024746E+0	1.018507E+0	1.044186E+0	1.012605E+0	1.037837E+0	1.006058E+0	1.036216E+0	1.038408E+0	1.048305E+0	1.010351E+0	9.826990E-1	1.020801E+0	1.005316E+0	1.050024E+0	1.073174E+0	1.059819E+0	9.963397E-1	1.028795E+0	9.831138E-1	1.003919E+0	1.030358E+0	9.920470E-1	1.045848E+0	1.084788E+0	1.026551E+0	1.020794E+0	9.881156E-1	1.032921E+0	1.026136E+0	1.042774E+0	9.872580E-1	9.961786E-1	1.053785E+0	9.906136E-1	1.014122E+0	1.026741E+0	1.021040E+0	1.000332E+0	1.053382E+0	1.053073E+0	1.029724E+0	1.044883E+0	1.002078E+0	1.035920E+0	1.026492E+0	1.049197E+0	1.009267E+0	1.069291E+0	1.027757E+0	1.039997E+0	1.064668E+0	1.031934E+0	1.050618E+0	1.013846E+0	1.033470E+0	1.027488E+0	1.036159E+0	9.948863E-1	1.014681E+0	1.011434E+0	1.040627E+0	1.031316E+0	1.028709E+0	1.046077E+0	1.035715E+0	1.043712E+0	9.992372E-1	1.017306E+0	1.008042E+0	1.053178E+0	1.025751E+0	1.013867E+0	1.042256E+0	1.109300E+0	1.075801E+0	1.047294E+0	1.020214E+0	1.018734E+0	1.029317E+0	1.027270E+0	1.022897E+0	1.027102E+0	1.020234E+0	1.023997E+0	1.042752E+0	1.080851E+0	1.010845E+0	1.008384E+0	1.031409E+0	1.034610E+0	1.027491E+0	1.029891E+0	1.021754E+0	1.012564E+0	1.017639E+0	1.033995E+0	9.985402E-1	1.035929E+0	1.042167E+0	1.049983E+0	9.912360E-1	1.047728E+0	1.006914E+0	1.068733E+0	1.030971E+0	1.062508E+0	9.962441E-1	1.017956E+0	9.929260E-1	1.063945E+0	1.018465E+0	9.984256E-1	1.041655E+0	1.021092E+0	1.071281E+0	1.036175E+0	1.065121E+0	1.062558E+0	1.019982E+0	9.949618E-1	1.023012E+0	1.026813E+0	1.046567E+0	1.009012E+0	1.027808E+0	1.024043E+0	1.048054E+0	9.802877E-1	1.021858E+0	9.752836E-1	1.030420E+0	1.037528E+0	1.052123E+0	1.016537E+0	1.030664E+0	1.050557E+0	1.067178E+0	1.002368E+0	1.022018E+0	1.018238E+0	1.027135E+0	1.034347E+0	1.021102E+0	1.031206E+0	1.010953E+0
5.575130E+2	1.069158E+0	1.051987E+0	1.032174E+0	1.042064E+0	1.023697E+0	1.030929E+0	1.062682E+0	1.059055E+0	1.083781E+0	1.055581E+0	1.041236E+0	9.701599E-1	1.049678E+0	1.058760E+0	1.042842E+0	1.077688E+0	1.047574E+0	1.035624E+0	1.099680E+0	1.022370E+0	1.052610E+0	1.082835E+0	1.035845E+0	1.018655E+0	1.049301E+0	1.054851E+0	1.046080E+0	1.068659E+0	1.087417E+0	1.018866E+0	1.046375E+0	1.007746E+0	1.045144E+0	1.040937E+0	1.010818E+0	1.021664E+0	1.033211E+0	1.057258E+0	1.045883E+0	1.043307E+0	1.043134E+0	1.062608E+0	1.022443E+0	1.007808E+0	1.043743E+0	1.026033E+0	1.034941E+0	1.014114E+0	1.066981E+0	1.040289E+0	9.959913E-1	1.081632E+0	1.072280E+0	1.044577E+0	1.009875E+0	1.066491E+0	1.035508E+0	1.025409E+0	1.042122E+0	1.061624E+0	9.809375E-1	1.030174E+0	1.007956E+0	1.038934E+0	1.032450E+0	9.901234E-1	1.014926E+0	1.058247E+0	1.041269E+0	1.071502E+0	1.087285E+0	1.099679E+0	1.029580E+0	1.015448E+0	1.055134E+0	1.057605E+0	1.072063E+0	9.972862E-1	1.017820E+0	1.103291E+0	1.078676E+0	1.050375E+0	1.031039E+0	1.071937E+0	1.056879E+0	1.087314E+0	1.064031E+0	1.025889E+0	1.061801E+0	1.064114E+0	1.065389E+0	1.025674E+0	1.024089E+0	1.037576E+0	1.008463E+0	1.072519E+0	1.042333E+0	1.050042E+0	1.035474E+0	1.059331E+0	1.068472E+0	1.031669E+0	9.977731E-1	1.046708E+0	1.053591E+0	1.042061E+0	1.037562E+0	1.081464E+0	1.054821E+0	1.015528E+0	1.026927E+0	1.023912E+0	1.064359E+0	1.024399E+0	1.064627E+0	1.035408E+0	1.028566E+0	1.034982E+0	1.050856E+0	1.046305E+0	1.064711E+0	1.065302E+0	1.055948E+0	1.045878E+0	1.065494E+0	1.008888E+0	1.058882E+0	1.037609E+0	9.912014E-1	1.033227E+0	9.709487E-1	1.066124E+0	1.038416E+0	1.052257E+0	1.002047E+0	1.022761E+0	1.033405E+0	1.095130E+0	1.023517E+0	9.941748E-1	1.043155E+0	1.083078E+0	1.000904E+0	1.021742E+0	1.068838E+0	1.069148E+0	1.050892E+0	1.028495E+0	1.057105E+0	1.052629E+0	1.038540E+0	1.017502E+0	1.055428E+0	1.063396E+0	1.046992E+0	1.041764E+0	1.021211E+0	1.024979E+0	1.061806E+0	1.066481E+0	1.065379E+0	1.054672E+0	1.037967E+0	1.029808E+0	1.054053E+0	1.054077E+0	1.073850E+0	1.084217E+0	1.036124E+0	1.125933E+0
5.580570E+2	9.933224E-1	9.627462E-1	9.782809E-1	9.736620E-1	9.436319E-1	9.599544E-1	9.801974E-1	1.000864E+0	9.344331E-1	9.434697E-1	9.903548E-1	9.624840E-1	9.501053E-1	9.816210E-1	9.737940E-1	9.750396E-1	9.816098E-1	9.876248E-1	9.864994E-1	9.729276E-1	9.512685E-1	9.666844E-1	9.624583E-1	9.744521E-1	1.014249E+0	9.825653E-1	9.722061E-1	9.332157E-1	9.207649E-1	9.467748E-1	9.983672E-1	9.893669E-1	9.648671E-1	9.377460E-1	9.502816E-1	1.035906E+0	1.000479E+0	9.924615E-1	9.857313E-1	9.426081E-1	9.563579E-1	1.020314E+0	9.784909E-1	9.773724E-1	1.004568E+0	9.561497E-1	9.785721E-1	9.600628E-1	9.771862E-1	1.003173E+0	9.626108E-1	9.339880E-1	9.657522E-1	1.003874E+0	9.773281E-1	9.713263E-1	9.665932E-1	1.033729E+0	9.541512E-1	9.419886E-1	9.916859E-1	9.876895E-1	9.745573E-1	9.780581E-1	9.743324E-1	9.673052E-1	9.801645E-1	9.280371E-1	9.764381E-1	9.662230E-1	9.390278E-1	9.533183E-1	9.864699E-1	9.785187E-1	9.779267E-1	9.836285E-1	9.756110E-1	9.449731E-1	9.522368E-1	9.637685E-1	9.877054E-1	9.651815E-1	9.542688E-1	9.786155E-1	9.982482E-1	9.479539E-1	9.618166E-1	9.646887E-1	9.652600E-1	9.818981E-1	9.936550E-1	9.469583E-1	9.894614E-1	9.326832E-1	9.783794E-1	9.806702E-1	9.967889E-1	9.813820E-1	9.871149E-1	9.760206E-1	9.898425E-1	1.010087E+0	9.647499E-1	9.539447E-1	9.897921E-1	9.825828E-1	9.630681E-1	9.628148E-1	9.719953E-1	9.315565E-1	9.655782E-1	9.749513E-1	9.867692E-1	9.831303E-1	9.709336E-1	9.743127E-1	9.629193E-1	9.455283E-1	9.863584E-1	9.762166E-1	9.744983E-1	9.537536E-1	9.846327E-1	9.672899E-1	9.464307E-1	9.988622E-1	9.402804E-1	9.519885E-1	1.012743E+0	9.651772E-1	9.889354E-1	9.780081E-1	9.757926E-1	9.255976E-1	9.955294E-1	9.562659E-1	9.860738E-1	9.689874E-1	9.951556E-1	9.832484E-1	9.493325E-1	9.750986E-1	9.628016E-1	9.633690E-1	1.015433E+0	9.235273E-1	9.595979E-1	9.870910E-1	9.907950E-1	9.748001E-1	9.681436E-1	9.541645E-1	1.003432E+0	1.004545E+0	1.022087E+0	9.910299E-1	1.005502E+0	9.437681E-1	9.581413E-1	9.794271E-1	9.346832E-1	9.483023E-1	9.243342E-1	1.022926E+0	9.389532E-1	9.493909E-1	1.017634E+0	9.312991E-1	9.453328E-1	9.730186E-1
5.585270E+2	1.035385E+0	1.067133E+0	1.046943E+0	1.067655E+0	1.011535E+0	1.053219E+0	1.015147E+0	1.065073E+0	1.024948E+0	1.030939E+0	9.996273E-1	1.081269E+0	1.053312E+0	1.059825E+0	1.028620E+0	1.013339E+0	1.023433E+0	1.015664E+0	1.047860E+0	1.068840E+0	1.022802E+0	1.009913E+0	1.054908E+0	1.002615E+0	1.008185E+0	1.013399E+0	1.052113E+0	1.049586E+0	1.053865E+0	9.917248E-1	1.057118E+0	1.022801E+0	1.042386E+0	1.068126E+0	1.065095E+0	1.048862E+0	1.014969E+0	1.042739E+0	1.043610E+0	1.026806E+0	1.004959E+0	1.000852E+0	1.042579E+0	1.048834E+0	1.056648E+0	1.095803E+0	1.015448E+0	1.053988E+0	1.017115E+0	1.030201E+0	1.059050E+0	1.041332E+0	1.049101E+0	1.001390E+0	1.043803E+0	1.059450E+0	1.038586E+0	1.063420E+0	1.023855E+0	1.021708E+0	1.042229E+0	1.038639E+0	1.089234E+0	1.031466E+0	1.037875E+0	1.031188E+0	1.058582E+0	1.075283E+0	1.032387E+0	1.023021E+0	1.080431E+0	1.012736E+0	1.028845E+0	1.009011E+0	1.027279E+0	1.043340E+0	1.010413E+0	1.020798E+0	1.047063E+0	1.016768E+0	1.001903E+0	1.007235E+0	1.028040E+0	1.020107E+0	1.064895E+0	1.037363E+0	1.044880E+0	1.045971E+0	1.023863E+0	1.028165E+0	1.028739E+0	1.047603E+0	1.065948E+0	1.063369E+0	1.055207E+0	1.029141E+0	1.028400E+0	1.010865E+0	1.026525E+0	1.029135E+0	1.041851E+0	9.870341E-1	1.052981E+0	1.038726E+0	1.062974E+0	1.067086E+0	1.060643E+0	1.043817E+0	1.041062E+0	1.014169E+0	1.020106E+0	1.036690E+0	1.044299E+0	1.019881E+0	1.012885E+0	1.033820E+0	1.025503E+0	1.060262E+0	1.040140E+0	1.010823E+0	1.039662E+0	1.029599E+0	1.050162E+0	1.025350E+0	1.028098E+0	1.043958E+0	1.041939E+0	1.047573E+0	1.053733E+0	1.028265E+0	1.015931E+0	1.035306E+0	1.042926E+0	1.047780E+0	9.932946E-1	1.046760E+0	1.023144E+0	1.030251E+0	1.013883E+0	1.030741E+0	1.008940E+0	9.858523E-1	1.016502E+0	1.088301E+0	1.003715E+0	1.064606E+0	1.009569E+0	9.933882E-1	1.049056E+0	1.024281E+0	1.042010E+0	1.041966E+0	1.052005E+0	1.069012E+0	1.032717E+0	1.012896E+0	1.008946E+0	1.056132E+0	1.036442E+0	1.033466E+0	1.029632E+0	1.016008E+0	1.058511E+0	1.007358E+0	1.074515E+0	1.038655E+0	1.027344E+0	1.051885E+0	1.022221E+0	1.171741E+0
5.590390E+2	9.939489E-1	1.003464E+0	1.018700E+0	1.049493E+0	1.014677E+0	1.013362E+0	9.750289E-1	9.959323E-1	9.776073E-1	1.039785E+0	1.021451E+0	9.913202E-1	1.007376E+0	1.024003E+0	1.002245E+0	1.004295E+0	1.019766E+0	1.023969E+0	1.045080E+0	9.953239E-1	1.004046E+0	1.006906E+0	9.825565E-1	1.038030E+0	1.011774E+0	1.024282E+0	9.707270E-1	1.054622E+0	1.011005E+0	1.018283E+0	1.005216E+0	1.009767E+0	9.918270E-1	9.804352E-1	1.031190E+0	1.017404E+0	1.002971E+0	1.037906E+0	9.880528E-1	1.023921E+0	9.589252E-1	1.035067E+0	1.002234E+0	1.015258E+0	1.038244E+0	9.834535E-1	1.012149E+0	1.019393E+0	1.008761E+0	9.987675E-1	1.017451E+0	1.023986E+0	1.002140E+0	1.035203E+0	1.000201E+0	1.012181E+0	9.840485E-1	1.064417E+0	9.902127E-1	1.043494E+0	9.988895E-1	9.859529E-1	1.033823E+0	1.011720E+0	9.994429E-1	1.032252E+0	1.029517E+0	1.070559E+0	1.008216E+0	1.033360E+0	1.002981E+0	1.057289E+0	1.000087E+0	9.999562E-1	9.921439E-1	1.023070E+0	9.906588E-1	1.037194E+0	1.010209E+0	9.813704E-1	1.017080E+0	1.040388E+0	9.779854E-1	1.029503E+0	9.873978E-1	1.047626E+0	9.972444E-1	9.953248E-1	9.865693E-1	1.022865E+0	1.024278E+0	1.057930E+0	1.004849E+0	1.023551E+0	1.008778E+0	1.012718E+0	9.936289E-1	1.004239E+0	9.876442E-1	1.027456E+0	1.014005E+0	9.971071E-1	9.887037E-1	9.971252E-1	9.648453E-1	9.880052E-1	1.023830E+0	9.920361E-1	1.019270E+0	1.015386E+0	1.022871E+0	1.000662E+0	9.830480E-1	1.034224E+0	1.008133E+0	9.989888E-1	1.002934E+0	9.816303E-1	1.008038E+0	1.023507E+0	1.038156E+0	1.031463E+0	1.001163E+0	9.740923E-1	1.014517E+0	1.034037E+0	1.036077E+0	1.022594E+0	9.872288E-1	1.037479E+0	1.048373E+0	1.041673E+0	1.054203E+0	1.045533E+0	1.035069E+0	1.024220E+0	1.057951E+0	1.019126E+0	1.024523E+0	1.087885E+0	1.043374E+0	9.848611E-1	1.028316E+0	1.023380E+0	1.051036E+0	9.828414E-1	9.955272E-1	1.022395E+0	1.023909E+0	9.920264E-1	1.013479E+0	9.793787E-1	1.002122E+0	1.037917E+0	1.012274E+0	1.018660E+0	9.731928E-1	1.026037E+0	9.992195E-1	9.936232E-1	9.969369E-1	9.812309E-1	1.056720E+0	1.016589E+0	1.017800E+0	9.998282E-1	1.034290E+0	1.025282E+0	1.061384E+0	1.075470E+0
5.595220E+2	9.505766E-1	9.186739E-1	9.501623E-1	9.140171E-1	1.007613E+0	9.799026E-1	9.615865E-1	9.528566E-1	9.909301E-1	9.467162E-1	9.505295E-1	9.438499E-1	9.178775E-1	9.647902E-1	8.968142E-1	9.216368E-1	9.663638E-1	9.484431E-1	9.594591E-1	9.444868E-1	9.504707E-1	9.454660E-1	9.370586E-1	9.693710E-1	9.414045E-1	9.426152E-1	9.474619E-1	9.119188E-1	9.488971E-1	9.596594E-1	9.523913E-1	9.720603E-1	9.132844E-1	9.444136E-1	9.708628E-1	9.508781E-1	9.415580E-1	9.329761E-1	9.331654E-1	9.504897E-1	9.623604E-1	9.204808E-1	9.460277E-1	9.524290E-1	9.604061E-1	8.978202E-1	9.690772E-1	9.735660E-1	9.245158E-1	9.560551E-1	9.455562E-1	1.004180E+0	9.496794E-1	9.820832E-1	9.640827E-1	9.185351E-1	9.686686E-1	9.152280E-1	9.501224E-1	9.155600E-1	9.771345E-1	9.725242E-1	9.198028E-1	9.509325E-1	9.509326E-1	9.507488E-1	9.533343E-1	9.654843E-1	9.203901E-1	9.449070E-1	9.744390E-1	9.559233E-1	9.651469E-1	9.796028E-1	9.632780E-1	9.218519E-1	9.932344E-1	9.792409E-1	9.488234E-1	9.117819E-1	9.417493E-1	9.480366E-1	9.295396E-1	9.610812E-1	9.525115E-1	9.465815E-1	9.765217E-1	9.601595E-1	9.324367E-1	9.501346E-1	9.404990E-1	9.685376E-1	9.363074E-1	9.184314E-1	9.746382E-1	9.560674E-1	9.828909E-1	9.596317E-1	9.336807E-1	9.203233E-1	9.430920E-1	9.918964E-1	9.284822E-1	9.556027E-1	9.276204E-1	9.522557E-1	9.412811E-1	9.356290E-1	9.468360E-1	9.888130E-1	9.656268E-1	9.702954E-1	9.186665E-1	9.563652E-1	9.444964E-1	9.449865E-1	1.006070E+0	9.836783E-1	9.311985E-1	1.001119E+0	9.358055E-1	9.568572E-1	9.890924E-1	9.532429E-1	9.490337E-1	9.658452E-1	8.940169E-1	9.605912E-1	9.518794E-1	9.557290E-1	9.596377E-1	9.153246E-1	9.222448E-1	9.647969E-1	9.747082E-1	9.633455E-1	9.667096E-1	9.620936E-1	9.481318E-1	9.417378E-1	9.557233E-1	9.606845E-1	9.481992E-1	9.538021E-1	8.888778E-1	9.656498E-1	9.784628E-1	9.255661E-1	9.238753E-1	9.594813E-1	9.492054E-1	9.641008E-1	9.577567E-1	9.060197E-1	9.354574E-1	9.792946E-1	9.752635E-1	9.533641E-1	9.300136E-1	9.555951E-1	9.479458E-1	9.491694E-1	9.693663E-1	9.486599E-1	9.251726E-1	9.781597E-1	9.329963E-1	9.049753E-1	9.848560E-1	9.641148E-1
5.600070E+2	1.054473E+0	1.030832E+0	9.953750E-1	1.042447E+0	1.011812E+0	1.002055E+0	1.045790E+0	1.070986E+0	9.831080E-1	1.036672E+0	1.020724E+0	1.059913E+0	1.060727E+0	1.009617E+0	9.933645E-1	1.013850E+0	1.045409E+0	1.019352E+0	1.000340E+0	1.050762E+0	1.000463E+0	1.052432E+0	1.012413E+0	1.031401E+0	1.046667E+0	1.055849E+0	1.021780E+0	1.041064E+0	1.066851E+0	1.101503E+0	9.851815E-1	1.043924E+0	1.033477E+0	9.912631E-1	1.057674E+0	1.017740E+0	1.026048E+0	1.038794E+0	1.005590E+0	1.014441E+0	1.063994E+0	1.016883E+0	1.034332E+0	1.068082E+0	1.026909E+0	1.011761E+0	1.031138E+0	1.014413E+0	1.003413E+0	1.015709E+0	1.041115E+0	1.026354E+0	9.847069E-1	1.010055E+0	1.042747E+0	1.050704E+0	1.024778E+0	1.039851E+0	1.032189E+0	1.029636E+0	1.051585E+0	1.007483E+0	1.019740E+0	1.028114E+0	1.007526E+0	1.012368E+0	9.923603E-1	9.917416E-1	1.047128E+0	1.041680E+0	9.680773E-1	1.029275E+0	1.060739E+0	1.020286E+0	1.037005E+0	1.017305E+0	9.926875E-1	1.018957E+0	1.014937E+0	1.028789E+0	9.905770E-1	9.994637E-1	1.035225E+0	1.029257E+0	1.019225E+0	1.031076E+0	9.895048E-1	1.038559E+0	1.078666E+0	1.014537E+0	9.917151E-1	1.026471E+0	1.008666E+0	1.051815E+0	1.012434E+0	1.052521E+0	1.052546E+0	1.009277E+0	9.892304E-1	1.020861E+0	9.925757E-1	1.041238E+0	1.098203E+0	1.061170E+0	1.037737E+0	1.021344E+0	1.003282E+0	1.015989E+0	1.031191E+0	1.045590E+0	1.039900E+0	1.040179E+0	1.054792E+0	1.040952E+0	1.026298E+0	1.045591E+0	1.016404E+0	1.029790E+0	1.055659E+0	1.003917E+0	1.013783E+0	1.060993E+0	1.028176E+0	1.061155E+0	1.009976E+0	1.002069E+0	1.015816E+0	1.031827E+0	1.043299E+0	1.038110E+0	1.026155E+0	1.043162E+0	1.018024E+0	9.999848E-1	1.041291E+0	1.037612E+0	1.008249E+0	9.895248E-1	9.817174E-1	1.034683E+0	1.051588E+0	1.007910E+0	1.058833E+0	1.036782E+0	1.051796E+0	1.062770E+0	1.006889E+0	1.054958E+0	1.005070E+0	1.049994E+0	1.062924E+0	1.065358E+0	1.035056E+0	1.002342E+0	1.006429E+0	9.786660E-1	1.083564E+0	9.969676E-1	1.047268E+0	9.934730E-1	1.035616E+0	1.081664E+0	1.024920E+0	1.019418E+0	1.044589E+0	1.091554E+0	1.029693E+0	1.033324E+0	1.060391E+0	1.008974E+0
5.605260E+2	1.017823E+0	9.877287E-1	1.032760E+0	1.018672E+0	1.025849E+0	1.053947E+0	1.039623E+0	1.018400E+0	1.071425E+0	1.015558E+0	1.051367E+0	1.026709E+0	1.004319E+0	1.030268E+0	1.097282E+0	1.058191E+0	9.882329E-1	1.027341E+0	1.014994E+0	1.044911E+0	1.041691E+0	1.051597E+0	1.012015E+0	1.048163E+0	1.012926E+0	1.036124E+0	1.045045E+0	9.896902E-1	1.044910E+0	1.024658E+0	1.064586E+0	1.029831E+0	1.022373E+0	1.024822E+0	1.031905E+0	1.072439E+0	1.063326E+0	1.035442E+0	1.087557E+0	1.000031E+0	1.012131E+0	1.011953E+0	1.032984E+0	1.001628E+0	1.034213E+0	1.048919E+0	1.013313E+0	1.027304E+0	1.021590E+0	1.030336E+0	1.060581E+0	1.013861E+0	1.043945E+0	1.054610E+0	1.027138E+0	1.043482E+0	1.064883E+0	9.733221E-1	1.037116E+0	1.057508E+0	9.758278E-1	1.013266E+0	1.060913E+0	1.041201E+0	9.962364E-1	1.042393E+0	1.054145E+0	9.905062E-1	1.012832E+0	1.016021E+0	1.030056E+0	1.007775E+0	1.002868E+0	1.024498E+0	1.033945E+0	9.985443E-1	1.017150E+0	1.050161E+0	1.069486E+0	1.039300E+0	1.054652E+0	1.037614E+0	1.074470E+0	9.598026E-1	1.007173E+0	1.034237E+0	1.057707E+0	1.045640E+0	1.004228E+0	1.033591E+0	1.006096E+0	1.012181E+0	1.051144E+0	1.076594E+0	1.005312E+0	1.036963E+0	9.945861E-1	1.075263E+0	1.019190E+0	1.036527E+0	1.070798E+0	1.000622E+0	1.046512E+0	1.050113E+0	1.043449E+0	1.039797E+0	1.033245E+0	9.928579E-1	1.011457E+0	1.054447E+0	9.729508E-1	1.021600E+0	1.041742E+0	1.066134E+0	1.071185E+0	1.025002E+0	1.015985E+0	1.040559E+0	1.023972E+0	1.014625E+0	1.005327E+0	1.009143E+0	1.036861E+0	1.021258E+0	1.015328E+0	9.996414E-1	1.033715E+0	1.049218E+0	1.009111E+0	1.021569E+0	1.020561E+0	1.041680E+0	1.008916E+0	1.066855E+0	1.014783E+0	1.038293E+0	1.019710E+0	1.013504E+0	1.059581E+0	1.004570E+0	1.012233E+0	1.024710E+0	1.025809E+0	1.014448E+0	1.032073E+0	9.831271E-1	1.047214E+0	1.014723E+0	1.053218E+0	1.033269E+0	1.013398E+0	1.020454E+0	9.984019E-1	1.027003E+0	1.020675E+0	1.028871E+0	9.934194E-1	1.040935E+0	1.028505E+0	1.023165E+0	1.068127E+0	1.055262E+0	1.044519E+0	1.049831E+0	1.041811E+0	9.987594E-1	9.833868E-1	1.020931E+0	1.022674E+0	8.803139E-1
5.610010E+2	9.336820E-1	9.374823E-1	9.850041E-1	8.868499E-1	9.712383E-1	9.483733E-1	9.400084E-1	9.609896E-1	9.137958E-1	9.757085E-1	9.429299E-1	9.373518E-1	9.543565E-1	9.096287E-1	9.490093E-1	9.592921E-1	9.405945E-1	9.678229E-1	9.115892E-1	8.948622E-1	9.685208E-1	9.352670E-1	9.328062E-1	9.255458E-1	9.327028E-1	9.268682E-1	9.933545E-1	9.228275E-1	9.451131E-1	9.538847E-1	9.454619E-1	9.252587E-1	9.326522E-1	1.021702E+0	9.182161E-1	9.294228E-1	9.286698E-1	9.219749E-1	9.041133E-1	9.465872E-1	9.596440E-1	9.385334E-1	9.541389E-1	9.508735E-1	9.368246E-1	9.780979E-1	9.903294E-1	9.261769E-1	9.249297E-1	9.362821E-1	9.259609E-1	9.231965E-1	9.095401E-1	9.290511E-1	9.273900E-1	9.479495E-1	9.677855E-1	9.004389E-1	9.569123E-1	9.642795E-1	9.647079E-1	9.455705E-1	9.135017E-1	8.952690E-1	9.732004E-1	9.489739E-1	9.565891E-1	9.604645E-1	9.366619E-1	9.183418E-1	9.100116E-1	9.470867E-1	9.111193E-1	9.797045E-1	9.327458E-1	9.368389E-1	9.354302E-1	9.174488E-1	9.657216E-1	9.728326E-1	9.333950E-1	9.345526E-1	9.828423E-1	9.650928E-1	9.013902E-1	9.029129E-1	9.507068E-1	9.370815E-1	9.451386E-1	9.032528E-1	9.591017E-1	9.473718E-1	9.392092E-1	9.064465E-1	9.565329E-1	9.102593E-1	9.282964E-1	9.391415E-1	9.442708E-1	9.046936E-1	8.905030E-1	9.728812E-1	9.600271E-1	9.409615E-1	9.367220E-1	9.063892E-1	9.514512E-1	9.676271E-1	9.276208E-1	9.649154E-1	9.560147E-1	9.192332E-1	9.325998E-1	9.216370E-1	9.256660E-1	9.438573E-1	9.421415E-1	9.352648E-1	9.210390E-1	9.526781E-1	9.348776E-1	9.292172E-1	8.862276E-1	9.511063E-1	9.641938E-1	9.848620E-1	9.554646E-1	9.495276E-1	9.130178E-1	9.653452E-1	9.522824E-1	9.216297E-1	9.184835E-1	9.260364E-1	9.399318E-1	9.266578E-1	9.542311E-1	9.440913E-1	9.378494E-1	9.109806E-1	9.685351E-1	9.516770E-1	9.604596E-1	9.339081E-1	9.275943E-1	9.429889E-1	9.640940E-1	9.574277E-1	8.989559E-1	9.359348E-1	9.481937E-1	9.434788E-1	9.342521E-1	9.260513E-1	9.600954E-1	9.521218E-1	9.157458E-1	9.400991E-1	9.542908E-1	9.701176E-1	9.281362E-1	9.470027E-1	9.119287E-1	9.028616E-1	9.253061E-1	9.456939E-1	9.213474E-1	9.419289E-1	9.357423E-1	8.793218E-1
