Photon Energy (eV)	#1	#2	#3	#4	#5	#6	#7	#8	#9	#10	#11	#12	#13	#14	#15	#16	#17	#18	#19	#20	#21	#22	#23	#24	#25	#26	#27	#28	#29	#30	#31	#32	#33	#34	#35	#36	#37	#38	#39	#40	#41	#42	#43	#44	#45	#46	#47	#48	#49	#50	#51	#52	#53	#54	#55	#56	#57	#58	#59	#60	#61	#62	#63	#64	#65	#66	#67	#68	#69	#70	#71	#72	#73	#74	#75	#76	#77	#78	#79	#80	#81	#82	#83	#84	#85	#86	#87	#88	#89	#90	#91	#92	#93	#94	#95	#96	#97	#98	#99	#100	#101	#102	#103	#104	#105	#106	#107	#108	#109	#110	#111	#112	#113	#114	#115	#116	#117	#118	#119	#120	#121	#122	#123	#124	#125	#126	#127	#128	#129	#130	#131	#132	#133	#134	#135	#136	#137	#138	#139	#140	#141	#142	#143	#144	#145	#146	#147	#148	#149	#150	#151	#152	#153	#154	#155	#156	#157	#158	#159	#160	#161	#162	#163	#164	#165	#166	#167	#168	#169	#170	#171	
5.300110E+2	-4.952463E-3	-4.827206E-3	-4.547252E-3	-9.849538E-3	-5.210910E-3	-9.341219E-3	-8.529650E-3	-1.019802E-2	9.202324E-4	-7.115753E-3	-8.459478E-3	-1.668937E-3	-3.325811E-3	5.531601E-4	7.922844E-4	-8.999097E-3	-4.715992E-3	5.549000E-3	-9.060728E-3	-8.664308E-3	-2.844257E-3	-1.241225E-2	-4.654711E-3	1.900489E-4	-6.759910E-4	-9.665035E-3	2.972104E-3	-1.003962E-2	-1.794142E-3	-7.655571E-3	-6.537742E-3	-1.319641E-2	-6.952115E-3	-1.277755E-2	-2.554281E-3	-5.575126E-3	-3.297522E-3	-3.032416E-3	-1.085640E-2	-6.351750E-3	-7.800577E-3	-6.637124E-3	-8.430023E-3	-1.055819E-2	-5.266546E-3	-4.554704E-3	-4.330707E-3	-1.143245E-2	-1.475358E-2	-1.638687E-2	7.079695E-5	-3.098280E-3	-1.542104E-3	-7.562334E-3	-3.104046E-3	-9.434356E-3	-9.513221E-3	-5.347999E-3	-7.045601E-3	2.026715E-3	-1.048471E-2	3.011090E-3	-5.686613E-3	-4.941389E-3	-6.166477E-3	-2.233439E-3	-7.462968E-3	-7.582300E-3	-9.406218E-3	-1.572104E-3	-1.423361E-2	-8.182189E-3	-8.141299E-3	-9.588405E-3	-9.112748E-3	-3.019483E-3	-5.740844E-3	-3.637198E-3	-1.450566E-2	-6.134835E-3	-8.660505E-3	-8.462167E-3	-8.389327E-4	-1.485061E-3	-1.456674E-2	6.562085E-4	-9.596271E-3	-2.679617E-3	-3.973490E-3	-1.361349E-2	2.284487E-3	-7.362456E-3	-4.273499E-3	-5.838386E-3	-4.610828E-3	-4.398205E-3	-1.056059E-2	-1.497554E-2	-7.094477E-3	5.057386E-3	-1.776475E-3	-9.488225E-3	-7.450268E-3	-1.170844E-2	2.318440E-3	-1.067679E-2	-1.307052E-2	-4.241281E-3	-4.400471E-3	4.822912E-3	-7.264600E-3	-6.899135E-3	-4.310648E-3	-1.715935E-3	-3.217478E-4	-1.127217E-2	-4.944823E-3	-4.387449E-3	-1.145178E-3	-1.610227E-2	-5.335437E-3	6.662852E-4	-6.615742E-3	3.621759E-3	-1.670859E-3	-1.615874E-2	-1.091024E-3	-5.133098E-3	2.239300E-3	-6.630781E-3	-9.031881E-3	-5.317661E-3	6.933160E-4	-1.284563E-2	-5.352969E-3	-6.488667E-3	-7.020873E-3	2.214912E-3	-7.724300E-3	-7.855841E-3	-8.470399E-3	-4.304536E-3	1.534476E-3	-7.542694E-3	-5.429573E-3	-5.168027E-3	-1.376698E-2	3.237402E-4	-8.700447E-3	-9.123813E-3	-6.936549E-3	-9.013773E-3	-7.961102E-3	-5.003036E-3	-8.749620E-3	-9.131183E-3	-1.276029E-2	-3.165918E-3	-3.290042E-3	-1.121092E-2	2.473187E-3	-8.701303E-3	-9.564246E-3	-7.570712E-3	-9.878589E-3	-7.862863E-3	-1.709457E-2	-1.350230E-2	-1.048931E-2	-1.703173E-2	7.361835E-3
5.305130E+2	-9.778006E-3	-1.069060E-2	-6.477409E-3	-7.715001E-3	-3.378563E-3	5.514237E-3	-1.010954E-2	4.876677E-3	-3.438964E-3	-1.154806E-4	-1.193225E-2	-1.365940E-2	-9.373820E-3	1.448571E-3	-1.325991E-2	-6.426500E-3	-1.694685E-2	-1.318416E-2	-5.876156E-3	-7.894118E-3	-4.990876E-3	-1.331687E-2	-9.492401E-3	-6.098241E-3	-5.749533E-3	-6.709095E-3	-3.218513E-3	-1.763630E-3	-6.773413E-3	-6.026946E-3	-9.693079E-3	-3.041481E-3	-9.083102E-4	-1.307913E-3	-1.099683E-2	-6.628420E-3	-9.591297E-3	-9.879592E-4	-8.083424E-3	-4.504458E-3	-3.409322E-4	-9.755478E-3	-2.854696E-3	-4.466122E-3	1.704541E-3	4.580011E-3	-8.363607E-3	-3.387287E-3	-3.650184E-3	-4.942013E-3	1.584283E-3	1.429040E-3	-1.107655E-2	-2.032849E-3	-3.113712E-3	-7.291006E-3	-1.052093E-2	-4.679262E-3	-1.046773E-2	-6.643006E-3	-5.224754E-3	-5.205495E-3	-9.343257E-3	-7.240157E-3	-2.221533E-3	-9.251571E-3	-7.991613E-3	-2.992302E-3	-3.733878E-3	-1.575264E-3	2.989832E-3	-7.181974E-3	-4.114933E-3	-2.982292E-3	-1.036426E-2	-6.514371E-3	-8.866848E-3	-6.516794E-3	-4.150375E-4	-3.440572E-3	-2.410583E-3	-3.186688E-3	-4.602063E-3	-2.507476E-4	-1.808199E-3	-1.403809E-2	-2.729003E-3	1.294447E-3	-2.817781E-3	-8.663296E-3	-6.236270E-3	-1.497661E-2	1.152657E-3	3.779393E-4	-8.444487E-3	-1.368065E-2	-1.383096E-2	-9.081274E-3	-3.396718E-3	-4.775423E-3	-9.893158E-3	-6.685864E-4	-4.942549E-3	2.761410E-3	-8.183141E-3	-6.399966E-3	-8.600738E-3	-7.995355E-3	-2.212522E-3	-4.132064E-3	2.975692E-3	-3.605916E-4	-9.621290E-3	-7.385204E-3	2.650976E-3	-6.934111E-3	-4.345630E-3	-4.877198E-3	-6.226454E-3	-1.753856E-2	-1.341743E-3	1.222709E-3	-5.066583E-3	-1.842093E-4	-1.389772E-2	-7.122897E-3	-2.950638E-3	-8.787997E-3	-1.142378E-2	-1.087843E-2	-7.478669E-3	-2.685771E-3	-1.586220E-2	-8.333234E-3	-4.460539E-3	-2.334285E-3	-7.512115E-3	-6.398784E-3	7.501469E-5	2.645255E-3	-2.350100E-3	-5.282865E-3	-3.137103E-3	-9.682972E-3	3.388567E-3	-1.452381E-2	1.299872E-3	-3.861355E-3	-9.211939E-3	-8.016949E-3	-1.148138E-3	-5.543576E-3	-7.224545E-3	-1.132617E-2	-9.466136E-4	-4.268033E-3	5.517593E-3	1.639267E-3	-7.771784E-3	-9.003852E-3	-1.137157E-2	-9.839976E-3	1.452633E-3	-6.903363E-3	-5.535298E-3	3.368429E-3	-3.257550E-3	-4.131147E-3	-1.486285E-3	-1.134886E-2	-1.866995E-2
5.310050E+2	7.124308E-3	-8.729022E-3	-5.590860E-3	-9.407612E-4	-4.350539E-3	-2.724332E-3	-8.270905E-3	-9.445433E-3	-2.136984E-3	-6.321093E-3	4.818595E-3	-5.457449E-3	2.880379E-3	-2.187822E-3	-6.531209E-3	5.540386E-3	2.831849E-3	-3.318420E-4	-5.659785E-3	-1.019407E-2	-9.134531E-3	7.999022E-3	-1.314725E-4	-3.965476E-3	-1.121660E-2	-6.525531E-3	-6.053438E-3	-1.525909E-3	-4.576981E-3	2.665606E-3	-4.972845E-3	3.769916E-3	-2.479012E-3	-4.504559E-3	6.797733E-4	-9.172764E-3	6.435275E-4	-6.922656E-3	-7.861399E-3	1.203664E-3	3.300645E-3	2.690103E-3	-7.676716E-3	-2.447106E-3	-5.526373E-3	-3.372368E-3	-5.821511E-4	-3.175867E-3	1.096027E-2	-2.344290E-3	-7.379184E-3	-7.304438E-3	-2.942458E-3	-4.001414E-3	-5.432857E-3	7.761188E-4	3.272283E-3	-3.877354E-3	-8.510669E-3	-7.009494E-3	-8.820172E-3	-1.542184E-2	-2.738386E-3	1.819426E-3	5.676607E-3	7.115778E-3	3.631014E-3	-9.145438E-3	-4.753172E-3	-3.028131E-4	3.242503E-3	-6.469669E-3	5.277818E-3	-4.264374E-3	-1.970081E-4	5.660983E-3	1.445737E-3	-4.876704E-3	-5.289420E-3	-3.806050E-5	-1.572395E-3	5.691424E-3	-2.182415E-3	-6.643446E-3	-5.995064E-3	-2.681475E-3	-8.763066E-4	-9.514573E-4	-2.604906E-3	-4.295355E-4	-5.488149E-3	3.590599E-3	-1.090776E-2	-5.600248E-3	-5.853901E-3	-7.906336E-3	-1.252214E-2	-3.142075E-3	-4.349257E-3	-4.564050E-3	-5.013122E-3	2.854024E-3	-1.795054E-3	-2.653483E-3	-2.494759E-3	-4.493769E-3	-5.067330E-3	-4.418859E-3	-1.037456E-2	-5.890088E-3	-7.693760E-3	-6.442007E-3	-1.182438E-2	-6.581223E-3	-5.202912E-3	-5.317000E-3	-6.369550E-3	4.138656E-3	-6.586944E-3	8.237521E-3	-1.181530E-2	-8.060849E-3	-4.716319E-3	-1.677026E-3	-1.388932E-3	-1.112092E-2	-5.855821E-3	1.025359E-3	-3.443387E-3	1.792331E-3	-5.500901E-4	-7.980153E-3	-4.796036E-3	5.233838E-3	-4.162812E-3	-1.561635E-3	-1.054670E-2	8.492061E-4	1.196379E-3	-4.252199E-3	2.020041E-3	-7.084034E-3	-7.209753E-3	4.051785E-3	1.166383E-3	-1.017105E-2	-9.554594E-3	-4.754547E-3	-1.018798E-2	4.395198E-3	-1.720699E-4	2.093957E-3	3.597197E-3	-4.203197E-3	-1.074503E-2	-2.680357E-3	-2.290190E-3	1.967059E-3	-9.760017E-3	-3.122873E-3	-3.623989E-3	-2.277904E-4	-4.574539E-3	6.745244E-3	1.691726E-3	-7.584231E-3	-3.698142E-3	4.582065E-4	3.047169E-3	-5.001327E-3	-1.041975E-2
5.315130E+2	-5.597179E-3	4.102340E-3	7.630233E-4	8.013021E-3	-5.967950E-3	-4.583043E-3	-2.507663E-3	3.976366E-3	-9.114823E-3	-1.434108E-4	-2.392996E-3	6.994793E-3	2.371959E-3	-4.817785E-3	-1.099627E-4	3.192304E-4	1.989723E-3	5.523468E-3	1.046519E-3	5.562109E-3	3.703657E-3	6.969132E-3	-1.218016E-3	-6.623031E-3	1.545243E-3	1.246757E-2	-1.098574E-2	-3.639316E-3	2.568811E-4	-5.589418E-3	-2.381050E-3	-1.986176E-3	3.117114E-3	-8.477476E-4	7.563027E-3	-2.887589E-3	3.849596E-4	4.232985E-3	1.041151E-2	-7.861068E-4	-6.794095E-3	1.924410E-3	2.282207E-3	6.915775E-3	7.265452E-4	-2.098839E-3	-8.806549E-3	-2.490848E-4	-9.154580E-3	-3.313343E-3	5.249584E-3	1.302534E-3	-9.945253E-4	-2.088286E-3	5.153359E-3	1.115793E-3	-6.807898E-3	8.918240E-3	5.807118E-4	-3.661549E-4	-8.126191E-4	-9.224280E-4	1.106314E-2	2.724913E-3	-1.834116E-3	8.808767E-4	9.228585E-3	1.095948E-2	1.419150E-2	-6.918141E-3	9.668541E-4	6.333098E-3	-1.171851E-2	-1.888808E-3	8.508884E-3	1.777496E-3	2.830026E-3	-3.170655E-3	3.956877E-3	3.254449E-4	-3.907307E-3	4.273648E-3	8.620978E-3	-5.230966E-3	5.911275E-3	-1.385195E-3	-2.730986E-3	-3.175469E-3	-6.882349E-3	-3.964255E-3	-3.612557E-3	5.737655E-3	2.314712E-4	1.415233E-3	2.785873E-4	8.774690E-3	1.269693E-2	5.280005E-3	-3.596103E-3	-2.494099E-3	5.293784E-3	-4.004687E-3	-5.205083E-3	-1.807771E-3	9.075730E-4	-3.648637E-3	8.760750E-3	4.415036E-4	-2.876137E-3	9.208270E-4	5.133572E-3	5.012369E-3	-1.342119E-3	5.853401E-3	-3.793642E-3	1.835415E-3	2.983792E-3	-1.235910E-3	1.078272E-3	2.185219E-3	7.744939E-3	-1.489319E-3	-2.788735E-3	-5.510152E-3	-2.646952E-3	4.937292E-3	-3.355941E-4	-3.140409E-3	-5.651893E-3	-1.114449E-3	-4.652503E-3	-4.717147E-3	1.337634E-2	2.172650E-3	4.748159E-4	4.025172E-3	1.061446E-2	1.152978E-3	2.003732E-3	-9.491358E-4	1.936897E-3	4.554031E-3	-7.647375E-3	4.901920E-4	-2.398198E-3	5.589604E-3	3.042483E-3	-2.349526E-4	1.223320E-2	4.294909E-3	3.326762E-3	-6.985761E-3	-2.400088E-3	1.282684E-2	1.457406E-3	7.225060E-3	1.157123E-3	-6.811086E-3	-2.871608E-3	-3.198447E-3	6.000497E-3	1.018025E-2	-4.705072E-4	-1.904053E-3	-8.290637E-3	-5.622892E-3	4.041547E-3	-9.244683E-3	-8.325150E-3	3.310852E-3	-8.359161E-3
5.320120E+2	-2.367871E-3	5.867291E-3	4.165976E-3	2.623206E-3	5.926935E-3	-6.779743E-3	1.196794E-2	5.918367E-3	4.155690E-3	9.039498E-4	3.674926E-3	1.216638E-2	3.756837E-3	2.535605E-3	2.223067E-3	4.560507E-3	2.499867E-3	-4.053135E-3	6.879192E-3	5.612617E-3	3.646553E-3	-5.556235E-3	5.097702E-3	-1.251856E-3	-6.568635E-3	2.678052E-3	1.179154E-2	1.001891E-2	1.717914E-3	1.356626E-3	8.156107E-3	-4.642424E-4	-6.593459E-3	-3.231412E-4	1.420717E-3	6.576646E-3	-7.354147E-4	-1.553084E-3	2.335933E-3	6.173707E-3	1.566547E-2	5.656887E-3	-1.354573E-3	1.370506E-3	1.692068E-3	-8.023550E-3	6.104603E-3	1.263762E-2	6.008801E-3	9.929854E-3	-3.611466E-3	1.884263E-3	2.703224E-3	5.106198E-3	-1.099240E-3	6.378546E-3	6.262888E-4	1.641473E-3	7.697784E-3	7.519446E-4	1.571041E-3	7.928726E-3	-4.071731E-4	5.056650E-3	1.999010E-3	-2.462704E-3	-3.568779E-3	-1.038096E-4	-2.165486E-3	-4.840009E-3	7.785802E-3	1.330127E-2	-7.410486E-4	8.897138E-3	1.133506E-3	-6.176435E-3	6.561847E-3	6.684458E-4	4.863216E-3	-4.066527E-3	4.665448E-3	-2.864346E-3	-1.040877E-2	3.848202E-3	3.039772E-3	5.213794E-3	8.604525E-3	3.848219E-3	5.995341E-3	1.069996E-2	3.358294E-3	2.536705E-3	5.194915E-3	2.883830E-3	6.476726E-3	5.250244E-3	7.464535E-3	6.398504E-3	7.551530E-3	3.804779E-3	1.040448E-3	-2.927281E-3	5.541994E-3	3.917521E-3	-9.849521E-5	8.187369E-3	4.812492E-3	9.159098E-3	3.025743E-3	3.930643E-4	2.348915E-3	-2.715727E-3	1.144725E-2	1.751252E-3	-5.031917E-3	7.387596E-3	5.799370E-3	5.569875E-3	1.043176E-3	1.082611E-2	1.979245E-3	-1.511235E-3	9.346972E-3	-6.232879E-3	7.226183E-3	1.883311E-2	6.975311E-3	-3.173953E-3	6.447792E-3	4.971848E-4	1.276628E-2	5.343006E-3	2.266627E-3	6.386194E-4	-1.214135E-3	2.420579E-3	8.366677E-3	-8.216987E-3	-8.131435E-3	-2.866334E-3	3.979001E-3	3.487158E-3	5.291224E-3	2.146601E-3	-3.077190E-3	1.157424E-2	-2.100184E-3	1.252740E-2	1.157742E-2	2.644640E-3	-3.584045E-3	4.501793E-3	8.157129E-5	-1.243940E-3	1.419746E-3	-1.859251E-3	6.076988E-4	1.089036E-3	8.431244E-3	1.716803E-2	-4.660841E-3	6.717119E-3	6.064239E-3	2.589223E-3	-1.775109E-3	1.031930E-2	3.994187E-3	1.012232E-2	2.992498E-3	1.942852E-2	7.941842E-3
5.325170E+2	1.557121E-2	1.427719E-2	1.168652E-2	7.869074E-3	1.298103E-2	1.791410E-2	1.744982E-2	4.872043E-3	9.614848E-3	1.279179E-2	1.429120E-2	1.624620E-3	3.690456E-3	2.468271E-3	1.688573E-2	5.005474E-3	1.434140E-2	6.496672E-3	1.267096E-2	1.557777E-2	9.619453E-3	1.631721E-2	1.039890E-2	1.774856E-2	2.266552E-2	7.754044E-3	5.494051E-3	6.949568E-3	1.116974E-2	1.524970E-2	1.542861E-2	1.491839E-2	1.381578E-2	1.976091E-2	3.887598E-3	1.768725E-2	1.259575E-2	8.263130E-3	1.405378E-2	4.264943E-3	-4.030508E-3	6.121203E-3	1.803380E-2	9.185139E-3	6.669764E-3	1.346945E-2	1.597841E-2	5.607074E-3	1.058928E-2	1.705666E-2	4.085986E-3	5.786881E-3	1.385242E-2	1.057869E-2	7.596495E-3	8.454904E-3	2.294348E-2	3.344902E-3	1.774550E-2	1.124000E-2	2.377122E-2	1.060994E-2	7.112286E-3	2.580558E-3	2.546508E-3	5.951060E-3	6.163762E-3	8.864367E-3	5.867252E-3	1.520833E-2	-7.513789E-4	2.199461E-3	1.943797E-2	9.826742E-3	1.003162E-2	8.271809E-3	3.770081E-3	1.753291E-2	1.139003E-2	1.335455E-2	1.188534E-2	4.548129E-3	9.411199E-3	9.762020E-3	1.341896E-2	1.223476E-2	7.328041E-3	1.663877E-3	1.028318E-2	1.597062E-2	9.694194E-3	1.047411E-2	8.602220E-3	6.761631E-3	1.215390E-2	1.196026E-2	1.675222E-2	1.552038E-2	1.088503E-2	2.971407E-3	1.034852E-2	1.423476E-2	1.385096E-2	9.490762E-3	7.550382E-3	1.703179E-2	1.316534E-2	7.054893E-3	1.683794E-2	3.885349E-3	4.500180E-3	1.140509E-2	1.565119E-2	8.077709E-3	1.169924E-2	1.430027E-2	6.876841E-3	7.920251E-4	1.183713E-2	1.239198E-2	8.768292E-3	9.172408E-3	9.840406E-3	9.982508E-3	1.237828E-2	1.063216E-2	3.257767E-3	1.921010E-2	1.183197E-2	1.633414E-2	8.946861E-3	1.535773E-2	4.321950E-3	1.313375E-2	1.471564E-2	3.938837E-3	6.098555E-3	1.039867E-2	1.258061E-2	1.327825E-2	2.884560E-3	8.630247E-3	1.116853E-2	1.053709E-2	6.350010E-3	1.269904E-2	2.107940E-2	-4.000288E-3	4.289743E-3	5.806015E-3	8.514040E-3	1.494736E-2	1.390697E-2	8.949505E-3	1.756412E-2	1.071376E-2	7.768064E-3	5.281642E-3	1.526221E-2	9.368062E-3	1.118271E-2	1.871704E-3	7.092421E-3	7.043660E-3	2.378791E-2	7.382259E-3	1.601453E-2	1.629760E-2	1.426108E-2	1.064255E-2	2.214518E-2
5.330180E+2	1.811224E-2	3.596352E-2	1.481133E-2	1.757618E-2	1.689597E-2	1.558288E-2	1.668690E-2	2.294332E-2	9.366791E-3	2.732958E-2	1.669189E-2	1.300682E-2	2.196448E-2	3.756900E-3	2.822886E-2	1.629038E-2	1.758088E-2	2.476739E-2	6.030159E-3	1.211603E-2	1.491511E-2	2.669509E-2	2.105135E-2	2.646280E-2	1.150264E-2	2.297183E-2	1.310268E-2	1.745408E-2	2.663761E-2	1.669327E-2	1.902605E-2	2.717124E-2	2.685517E-2	2.244397E-2	2.405403E-2	1.805165E-2	2.316141E-2	2.166219E-2	1.490757E-2	2.326892E-2	3.271528E-2	2.434701E-2	1.996308E-2	1.685230E-2	2.268179E-2	2.022817E-2	2.635803E-2	2.595950E-2	3.495379E-2	1.499936E-2	2.207401E-2	1.199512E-2	1.368721E-2	3.329471E-2	1.415124E-2	1.519949E-2	1.698441E-2	1.749478E-2	2.711839E-2	2.280491E-2	1.543530E-2	1.707821E-2	2.158728E-2	1.674326E-2	1.259818E-2	1.744665E-2	9.389644E-3	1.247366E-2	2.877318E-2	2.674015E-2	2.764321E-2	1.158471E-2	1.926778E-2	1.173783E-2	3.519752E-2	2.200522E-2	4.606308E-3	1.790389E-2	2.926778E-2	3.247933E-2	1.908467E-2	2.009941E-2	8.628765E-3	1.263039E-2	1.773008E-2	2.138193E-2	2.950802E-2	2.492977E-2	9.533042E-3	1.416152E-2	1.759528E-2	1.392698E-2	2.897145E-2	1.626271E-2	1.688950E-2	2.444518E-2	1.291657E-2	1.417343E-2	2.897398E-2	2.114558E-2	1.129798E-2	8.953822E-3	3.278187E-2	1.827845E-2	1.605052E-2	1.916482E-2	1.741830E-2	1.210843E-2	2.141679E-2	2.497716E-2	2.081583E-2	1.649842E-2	1.354524E-2	2.298525E-2	3.613973E-2	2.659830E-2	2.552665E-2	2.904609E-2	1.620217E-2	3.613642E-2	2.112076E-2	3.158593E-2	1.572951E-2	1.509631E-2	1.690594E-2	2.158836E-2	1.462415E-2	2.692253E-2	2.983456E-2	2.607625E-2	2.679623E-2	2.583844E-2	2.156105E-2	2.861599E-2	1.893852E-2	1.741017E-2	1.528816E-2	2.452024E-2	2.128262E-2	1.173669E-2	1.622673E-2	1.573061E-2	1.909990E-2	1.597406E-2	5.373593E-3	1.726340E-2	2.430595E-2	2.809798E-2	1.002925E-2	1.368667E-2	3.113647E-2	1.833674E-2	2.123942E-2	2.500863E-2	2.690688E-2	1.888510E-2	2.364913E-2	2.521537E-2	1.563223E-2	8.613254E-3	1.977945E-2	1.784025E-2	2.498439E-2	2.722050E-2	3.022950E-2	2.547288E-2	8.681898E-3	1.102816E-2	1.809796E-2	9.744529E-3	1.638985E-2
5.331630E+2	2.755597E-2	2.989101E-2	2.170771E-2	2.628149E-2	2.652470E-2	2.162903E-2	2.914497E-2	2.303114E-2	1.997420E-2	2.523733E-2	2.141591E-2	2.305767E-2	2.468803E-2	2.523799E-2	3.038033E-2	2.617553E-2	3.029048E-2	1.129436E-2	1.693384E-2	2.652420E-2	1.344504E-2	2.283153E-2	1.875677E-2	1.911297E-2	2.373990E-2	1.489271E-2	2.524028E-2	1.839433E-2	2.803527E-2	1.296956E-2	3.271948E-2	1.874204E-2	3.221676E-2	1.612109E-2	3.451914E-2	2.968429E-2	2.610583E-2	3.391159E-2	3.037636E-2	3.590199E-2	2.821816E-2	1.897597E-2	2.216529E-2	2.818190E-2	3.048900E-2	2.137203E-2	2.110464E-2	2.374474E-2	2.566900E-2	1.928763E-2	3.426440E-2	3.383090E-2	8.352468E-3	2.276290E-2	2.520015E-2	2.484412E-2	3.040941E-2	3.208336E-2	2.479825E-2	1.574799E-2	2.098255E-2	2.726037E-2	1.891255E-2	2.768219E-2	2.434088E-2	2.404752E-2	1.405842E-2	2.416532E-2	1.998045E-2	1.883631E-2	1.764638E-2	3.350489E-2	1.290985E-2	2.070041E-2	3.027438E-2	1.225185E-2	2.043857E-2	1.951387E-2	2.951507E-2	2.150416E-2	2.732106E-2	1.965518E-2	2.552826E-2	2.390074E-2	1.219477E-2	3.255285E-2	2.263731E-2	2.468223E-2	3.745283E-2	2.856071E-2	1.826688E-2	2.022783E-2	2.862869E-2	2.168657E-2	2.200269E-2	4.071603E-2	1.228202E-2	2.129154E-2	2.197244E-2	2.840891E-2	2.580474E-2	3.315958E-2	2.318471E-2	1.637921E-2	1.862540E-2	2.572510E-2	2.327698E-2	1.265812E-2	2.241541E-2	2.612387E-2	3.589326E-2	3.204789E-2	1.472063E-2	3.069368E-2	1.806526E-2	1.878537E-2	2.561582E-2	2.174827E-2	2.779327E-2	3.028816E-2	3.157676E-2	2.898468E-2	2.583588E-2	1.775740E-2	2.223260E-2	2.417386E-2	2.317706E-2	2.930432E-2	2.009085E-2	1.620732E-2	2.369097E-2	2.585791E-2	2.698952E-2	2.219229E-2	2.623007E-2	3.500856E-2	3.041502E-2	3.684164E-2	3.034512E-2	2.112123E-2	2.577838E-2	2.419688E-2	2.354167E-2	2.342812E-2	2.125197E-2	2.638073E-2	1.576189E-2	1.462084E-2	2.822936E-2	1.917607E-2	2.167200E-2	2.808149E-2	3.159295E-2	1.912884E-2	3.322556E-2	2.798225E-2	2.658291E-2	1.538882E-2	2.270545E-2	1.923333E-2	2.343557E-2	2.666532E-2	2.840810E-2	3.244396E-2	9.973147E-3	1.692679E-2	1.651885E-2	2.047421E-2	1.431598E-2	2.037603E-2	2.731282E-2
5.333080E+2	3.138319E-2	3.169958E-2	2.728567E-2	3.368529E-2	3.434940E-2	3.034615E-2	3.591082E-2	3.998551E-2	4.295813E-2	2.963106E-2	3.482109E-2	2.874386E-2	2.183546E-2	2.923327E-2	2.701752E-2	2.552038E-2	2.683087E-2	2.148654E-2	2.453275E-2	3.319932E-2	2.352058E-2	1.576002E-2	2.519977E-2	3.464289E-2	2.139099E-2	4.322994E-2	2.891345E-2	3.547886E-2	2.513268E-2	2.333990E-2	2.671215E-2	3.209845E-2	3.564109E-2	2.550490E-2	3.458585E-2	3.351547E-2	3.331461E-2	2.705150E-2	1.892586E-2	2.831811E-2	3.347677E-2	4.196973E-2	3.930845E-2	4.458107E-2	3.436688E-2	2.640242E-2	2.807195E-2	3.649816E-2	3.663027E-2	2.061203E-2	3.337038E-2	2.761122E-2	1.954685E-2	4.196563E-2	3.206811E-2	3.669135E-2	3.283467E-2	3.329837E-2	4.055135E-2	3.334631E-2	3.463151E-2	2.395280E-2	2.616020E-2	2.717899E-2	1.786475E-2	3.146893E-2	2.063578E-2	2.548299E-2	1.778681E-2	2.584403E-2	2.948164E-2	2.446541E-2	2.359888E-2	3.223713E-2	3.659555E-2	4.049303E-2	3.699033E-2	2.841559E-2	3.054975E-2	2.582353E-2	3.064471E-2	3.924134E-2	3.740072E-2	4.040380E-2	3.316454E-2	4.042110E-2	3.148710E-2	3.285841E-2	4.608776E-2	3.247139E-2	3.904665E-2	2.904654E-2	2.721075E-2	3.498387E-2	2.741839E-2	3.436197E-2	2.645812E-2	3.484468E-2	4.700226E-2	3.285886E-2	3.902872E-2	2.980899E-2	2.803447E-2	4.879524E-2	3.221651E-2	3.175520E-2	3.181994E-2	4.200506E-2	4.121184E-2	3.279844E-2	2.587772E-2	2.725602E-2	2.152115E-2	2.717450E-2	4.236201E-2	3.577309E-2	2.795362E-2	2.976194E-2	3.070349E-2	3.032082E-2	3.337095E-2	4.095831E-2	3.592907E-2	2.735689E-2	3.333947E-2	2.275454E-2	2.002055E-2	4.807669E-2	3.546356E-2	3.178590E-2	3.254748E-2	3.480904E-2	3.237640E-2	3.494730E-2	4.022522E-2	3.079619E-2	3.435337E-2	2.962475E-2	2.974972E-2	4.258274E-2	2.475225E-2	3.211972E-2	3.616846E-2	3.373895E-2	3.152420E-2	3.433690E-2	3.131267E-2	2.390621E-2	3.191162E-2	2.519844E-2	1.474225E-2	3.065689E-2	3.288643E-2	3.719498E-2	2.984762E-2	3.530086E-2	3.082814E-2	1.354114E-2	3.124503E-2	3.323453E-2	2.406181E-2	4.042838E-2	4.507597E-2	2.560144E-2	2.493598E-2	1.867679E-2	2.267093E-2	3.633907E-2	3.209810E-2	2.289910E-2	4.800599E-2
5.334680E+2	3.340583E-2	4.439273E-2	3.548843E-2	2.469938E-2	3.957260E-2	2.580784E-2	3.740927E-2	5.524951E-2	3.492041E-2	4.045308E-2	4.134546E-2	4.722498E-2	3.554622E-2	4.651768E-2	4.515363E-2	3.690789E-2	5.040256E-2	3.943315E-2	3.139934E-2	3.124756E-2	3.732056E-2	4.588412E-2	4.879264E-2	3.593887E-2	5.029638E-2	3.841988E-2	3.661679E-2	1.958869E-2	4.076239E-2	3.678523E-2	4.007232E-2	4.121690E-2	4.958400E-2	3.874903E-2	2.825964E-2	2.813167E-2	5.219122E-2	2.690078E-2	2.977355E-2	3.931198E-2	3.212892E-2	4.834701E-2	3.395336E-2	4.046083E-2	4.240192E-2	3.270664E-2	4.351624E-2	4.671762E-2	4.956411E-2	4.122149E-2	4.580792E-2	3.504468E-2	3.898129E-2	4.740448E-2	4.811455E-2	4.225105E-2	4.779350E-2	4.281137E-2	4.095058E-2	3.640688E-2	3.403682E-2	2.886618E-2	4.031384E-2	3.616389E-2	4.769425E-2	3.527085E-2	3.103901E-2	4.882128E-2	3.803395E-2	3.481708E-2	5.178244E-2	3.480761E-2	4.458890E-2	4.615140E-2	3.870021E-2	4.906360E-2	3.541864E-2	4.350775E-2	4.001463E-2	3.325692E-2	3.600872E-2	4.919549E-2	3.612472E-2	2.853863E-2	4.837867E-2	4.331351E-2	3.960695E-2	5.218779E-2	4.362356E-2	4.716899E-2	5.031060E-2	3.876240E-2	4.906316E-2	4.620268E-2	4.841449E-2	4.080530E-2	3.032136E-2	5.009367E-2	4.222202E-2	3.647448E-2	3.259537E-2	3.809365E-2	3.397560E-2	3.886781E-2	3.779612E-2	5.497418E-2	4.150984E-2	3.763543E-2	3.058110E-2	3.726499E-2	4.634768E-2	3.955166E-2	4.248352E-2	3.523018E-2	4.702959E-2	3.389689E-2	4.167074E-2	3.864139E-2	3.573917E-2	4.039454E-2	3.729150E-2	4.514937E-2	2.683889E-2	4.019402E-2	3.901294E-2	4.546882E-2	3.421126E-2	3.369271E-2	3.835113E-2	3.827662E-2	3.738764E-2	4.035163E-2	4.397254E-2	3.936904E-2	4.116353E-2	4.126167E-2	4.592922E-2	4.781932E-2	4.039608E-2	4.114035E-2	4.193444E-2	4.196663E-2	5.185262E-2	4.839934E-2	4.479300E-2	4.208255E-2	4.605632E-2	3.422481E-2	4.146482E-2	3.702174E-2	4.991486E-2	4.622074E-2	3.080061E-2	4.904266E-2	5.175210E-2	5.217037E-2	4.690725E-2	4.360271E-2	5.204485E-2	5.759676E-2	3.107961E-2	4.916020E-2	4.380855E-2	3.919277E-2	2.921777E-2	4.852611E-2	3.923118E-2	4.188200E-2	4.078480E-2	3.656356E-2	3.956771E-2
5.336030E+2	4.704731E-2	4.660736E-2	4.357439E-2	3.989593E-2	4.960510E-2	3.596407E-2	4.172480E-2	7.765803E-2	6.055111E-2	6.289957E-2	4.949800E-2	5.812278E-2	5.078561E-2	5.744987E-2	5.956481E-2	5.443590E-2	6.302251E-2	6.535324E-2	4.262841E-2	4.752202E-2	6.459303E-2	5.338212E-2	4.525051E-2	4.803753E-2	5.305477E-2	5.791490E-2	6.436665E-2	4.275774E-2	4.679548E-2	5.464027E-2	5.215171E-2	5.359911E-2	5.306536E-2	5.727160E-2	6.162250E-2	6.039492E-2	4.769044E-2	6.266977E-2	6.085336E-2	5.878716E-2	4.887206E-2	5.809052E-2	5.306063E-2	4.367539E-2	6.696420E-2	4.802163E-2	4.991800E-2	5.666377E-2	5.775810E-2	3.977164E-2	5.570654E-2	4.599784E-2	6.888748E-2	5.235095E-2	5.431821E-2	5.942144E-2	4.294221E-2	5.538096E-2	7.226559E-2	5.751919E-2	5.421192E-2	5.688808E-2	5.504356E-2	6.203326E-2	5.542781E-2	4.961033E-2	5.492554E-2	5.508037E-2	6.457364E-2	3.949362E-2	4.739786E-2	5.202242E-2	5.091546E-2	6.439371E-2	5.507610E-2	5.232367E-2	5.231557E-2	6.017803E-2	4.762248E-2	5.521953E-2	4.711026E-2	4.778979E-2	3.598938E-2	4.684259E-2	4.540296E-2	5.740481E-2	4.771650E-2	6.956499E-2	5.431831E-2	5.698059E-2	6.333301E-2	5.581802E-2	6.122045E-2	5.893841E-2	4.790781E-2	6.767857E-2	4.503445E-2	6.709117E-2	5.699002E-2	5.804189E-2	6.388004E-2	5.540856E-2	5.802914E-2	5.785848E-2	5.168839E-2	6.022772E-2	5.903226E-2	5.704540E-2	6.648520E-2	5.157167E-2	5.468800E-2	5.108819E-2	6.051704E-2	5.574095E-2	5.673283E-2	6.153718E-2	5.621791E-2	5.769859E-2	4.775670E-2	6.292260E-2	3.945992E-2	7.880494E-2	5.021883E-2	6.520488E-2	6.358630E-2	4.595702E-2	6.716990E-2	5.447089E-2	5.420082E-2	4.709733E-2	6.130778E-2	6.147240E-2	6.176441E-2	8.924962E-2	5.447326E-2	5.684869E-2	5.875248E-2	6.443269E-2	7.096803E-2	6.956680E-2	5.876811E-2	4.713869E-2	6.165217E-2	6.394654E-2	6.782798E-2	5.470244E-2	6.145152E-2	6.045997E-2	5.228751E-2	5.270919E-2	6.378943E-2	5.197224E-2	4.469227E-2	5.718241E-2	8.230128E-2	5.870611E-2	4.684694E-2	6.941587E-2	5.701076E-2	5.696826E-2	6.496390E-2	5.715699E-2	6.865214E-2	5.793534E-2	5.011365E-2	5.071091E-2	5.754566E-2	6.201678E-2	3.408818E-2	4.075423E-2	4.825796E-2
5.337580E+2	7.865064E-2	6.634594E-2	7.382970E-2	8.733559E-2	8.349934E-2	6.169663E-2	6.158468E-2	7.672631E-2	7.577042E-2	6.901731E-2	8.057865E-2	6.864276E-2	8.729532E-2	7.904544E-2	8.186373E-2	7.860861E-2	9.505235E-2	8.414905E-2	6.877526E-2	7.650488E-2	6.968248E-2	7.674463E-2	5.921073E-2	8.133863E-2	8.401951E-2	7.998470E-2	6.390055E-2	8.035141E-2	8.111984E-2	7.927841E-2	6.859268E-2	7.808923E-2	8.765734E-2	9.187139E-2	8.957307E-2	7.770477E-2	7.669392E-2	8.757489E-2	6.620213E-2	7.468717E-2	8.695599E-2	7.844586E-2	8.539910E-2	6.845824E-2	8.296629E-2	7.550367E-2	8.315559E-2	8.527846E-2	8.054629E-2	7.230706E-2	6.945396E-2	8.127864E-2	7.219305E-2	5.519691E-2	8.376486E-2	8.041678E-2	5.406745E-2	7.914519E-2	6.623105E-2	6.022596E-2	8.546750E-2	8.573961E-2	8.544755E-2	7.141296E-2	1.040299E-1	7.424273E-2	6.669721E-2	7.605342E-2	9.264511E-2	8.314490E-2	8.178686E-2	7.137825E-2	7.216200E-2	7.333957E-2	8.651523E-2	6.927372E-2	8.098785E-2	7.599451E-2	6.497128E-2	7.086684E-2	8.668705E-2	7.658899E-2	8.881678E-2	8.828105E-2	7.975859E-2	7.552231E-2	7.287777E-2	8.781015E-2	7.576585E-2	6.639781E-2	7.047352E-2	7.962664E-2	7.147561E-2	9.116167E-2	7.835955E-2	7.738914E-2	9.044693E-2	7.165750E-2	7.056201E-2	8.560934E-2	7.937468E-2	7.750326E-2	7.758041E-2	6.707866E-2	7.018851E-2	8.268116E-2	7.888318E-2	8.073515E-2	8.957072E-2	7.584035E-2	6.542796E-2	1.006078E-1	8.126297E-2	7.650230E-2	8.429279E-2	6.889561E-2	6.852663E-2	9.147188E-2	6.121690E-2	8.421390E-2	7.791296E-2	8.764715E-2	6.324544E-2	8.184295E-2	7.453349E-2	8.275032E-2	7.748294E-2	7.918295E-2	7.328483E-2	7.400784E-2	7.224876E-2	7.046246E-2	8.404988E-2	7.815820E-2	8.879190E-2	8.616317E-2	7.346408E-2	1.013822E-1	8.314032E-2	8.028718E-2	7.945785E-2	9.173157E-2	8.989536E-2	6.121694E-2	7.161518E-2	7.327597E-2	9.058514E-2	7.387105E-2	8.158782E-2	6.702078E-2	6.879259E-2	7.119937E-2	8.733767E-2	7.650224E-2	9.210978E-2	9.352900E-2	8.576337E-2	7.640147E-2	8.327751E-2	7.435772E-2	6.866079E-2	8.283589E-2	8.499301E-2	8.444941E-2	7.816177E-2	7.221461E-2	7.668893E-2	8.733810E-2	7.863594E-2	6.987584E-2	6.910878E-2
5.339090E+2	8.620169E-2	1.202832E-1	1.064535E-1	1.031898E-1	1.180925E-1	1.167150E-1	9.983163E-2	1.150902E-1	1.138492E-1	1.068999E-1	1.140439E-1	1.053744E-1	1.015841E-1	1.099556E-1	1.092963E-1	1.091205E-1	1.011864E-1	1.032197E-1	1.039298E-1	1.105252E-1	1.132237E-1	1.110635E-1	1.023152E-1	1.179196E-1	9.250641E-2	1.151378E-1	1.185321E-1	1.193950E-1	1.085994E-1	1.157169E-1	1.265397E-1	1.033261E-1	9.287894E-2	1.215238E-1	1.080143E-1	9.322035E-2	1.136904E-1	9.584745E-2	1.045075E-1	1.160925E-1	1.060298E-1	1.359569E-1	1.019011E-1	1.143697E-1	1.183392E-1	1.067944E-1	1.102783E-1	1.360404E-1	1.108437E-1	1.260918E-1	1.130856E-1	1.039598E-1	1.042483E-1	1.234630E-1	1.156540E-1	1.227223E-1	1.228281E-1	1.263830E-1	1.102467E-1	9.884753E-2	1.150896E-1	1.256876E-1	1.078925E-1	1.129946E-1	1.357021E-1	1.098558E-1	1.017357E-1	1.049218E-1	1.325828E-1	1.050396E-1	1.262089E-1	1.088892E-1	8.898513E-2	1.188001E-1	1.074231E-1	1.062961E-1	1.227107E-1	1.034802E-1	1.071756E-1	9.480936E-2	1.054483E-1	1.066200E-1	1.128581E-1	1.088735E-1	1.095712E-1	1.077573E-1	1.080502E-1	1.112506E-1	1.091876E-1	1.125376E-1	9.428545E-2	1.026568E-1	1.163524E-1	1.169368E-1	1.133614E-1	1.236080E-1	1.034354E-1	1.098929E-1	1.206236E-1	1.149021E-1	1.100759E-1	1.099876E-1	1.204623E-1	1.133149E-1	9.982405E-2	1.097469E-1	9.966115E-2	1.229103E-1	1.228176E-1	1.065798E-1	1.212808E-1	1.156945E-1	9.410995E-2	9.575305E-2	1.121353E-1	1.221274E-1	1.038996E-1	1.137922E-1	1.162268E-1	1.302648E-1	1.167836E-1	1.076637E-1	1.125431E-1	1.166651E-1	1.020917E-1	1.134913E-1	1.232975E-1	1.080490E-1	1.165846E-1	1.017338E-1	1.112957E-1	1.012299E-1	1.232208E-1	1.122867E-1	1.161126E-1	1.127800E-1	9.122506E-2	1.163127E-1	9.919382E-2	1.377888E-1	9.997872E-2	1.180741E-1	1.084300E-1	1.291260E-1	1.181097E-1	1.275917E-1	1.048131E-1	1.102734E-1	1.083200E-1	1.100674E-1	1.343164E-1	1.049247E-1	9.539497E-2	1.197421E-1	1.152539E-1	1.072834E-1	1.060199E-1	1.053572E-1	1.254255E-1	1.087249E-1	1.009063E-1	1.288837E-1	1.172302E-1	1.044902E-1	1.026395E-1	1.067842E-1	1.258468E-1	1.167086E-1	1.101569E-1	1.246018E-1	1.255751E-1
5.340850E+2	1.644877E-1	1.743722E-1	1.567691E-1	1.699886E-1	1.676702E-1	1.664075E-1	1.762751E-1	1.782168E-1	1.633737E-1	1.593632E-1	1.699714E-1	1.489053E-1	1.771172E-1	1.550728E-1	1.936213E-1	1.546066E-1	1.612060E-1	1.576817E-1	1.549901E-1	1.600486E-1	1.447414E-1	1.892549E-1	1.685489E-1	1.767357E-1	1.550631E-1	1.754489E-1	1.744446E-1	1.585792E-1	1.706029E-1	1.665582E-1	1.649666E-1	1.888177E-1	1.651079E-1	1.612567E-1	1.784083E-1	1.623868E-1	1.695892E-1	1.817287E-1	1.656398E-1	1.810884E-1	1.628317E-1	1.870905E-1	1.644840E-1	1.553533E-1	1.703901E-1	1.672360E-1	1.740859E-1	1.774614E-1	1.683263E-1	1.369431E-1	1.770211E-1	1.710006E-1	1.825434E-1	1.687373E-1	1.561293E-1	1.573178E-1	1.660347E-1	1.737790E-1	1.617048E-1	1.723093E-1	1.612323E-1	1.879239E-1	1.764515E-1	1.725003E-1	1.788722E-1	1.222042E-1	1.723529E-1	1.859469E-1	1.713983E-1	1.827480E-1	1.648582E-1	1.530481E-1	1.763270E-1	1.596936E-1	1.651140E-1	1.632767E-1	1.751077E-1	1.776295E-1	1.732483E-1	1.468887E-1	1.671827E-1	1.621207E-1	1.564342E-1	1.471305E-1	1.757347E-1	1.874941E-1	1.597098E-1	1.653652E-1	1.986572E-1	1.608278E-1	1.760720E-1	1.841977E-1	1.923716E-1	1.691119E-1	1.642085E-1	1.789909E-1	1.709503E-1	1.567694E-1	1.615454E-1	1.657634E-1	1.866524E-1	1.592238E-1	1.648079E-1	1.594180E-1	1.761301E-1	2.014017E-1	1.734060E-1	1.782135E-1	1.719021E-1	1.689035E-1	1.891291E-1	1.581309E-1	2.062097E-1	1.742989E-1	1.718718E-1	1.775567E-1	1.635729E-1	1.774819E-1	1.609281E-1	1.878866E-1	1.741167E-1	1.665941E-1	1.812033E-1	1.703548E-1	1.672038E-1	1.688796E-1	1.821361E-1	1.703236E-1	1.774776E-1	1.760346E-1	1.898894E-1	1.772770E-1	1.700458E-1	1.757534E-1	1.620767E-1	1.757669E-1	1.817593E-1	1.952018E-1	1.692000E-1	1.756491E-1	1.785619E-1	1.667936E-1	1.794557E-1	1.752158E-1	1.803660E-1	1.974201E-1	1.659997E-1	1.586393E-1	1.763144E-1	1.702575E-1	1.536326E-1	1.737357E-1	1.712923E-1	1.548451E-1	1.841071E-1	1.916403E-1	1.759526E-1	1.704215E-1	1.787584E-1	1.776953E-1	1.534338E-1	1.902179E-1	1.651364E-1	1.564804E-1	1.694898E-1	1.885856E-1	1.661497E-1	1.742313E-1	1.917300E-1	1.909123E-1	1.822036E-1
5.342040E+2	2.787759E-1	2.637259E-1	2.896328E-1	2.509001E-1	2.841134E-1	2.834680E-1	2.786714E-1	2.759784E-1	2.736128E-1	2.709235E-1	2.846583E-1	2.686515E-1	2.701412E-1	2.817770E-1	2.834831E-1	2.898121E-1	2.917472E-1	2.918628E-1	2.698125E-1	2.636774E-1	2.632360E-1	2.684084E-1	2.803192E-1	2.506798E-1	2.511450E-1	2.844694E-1	2.646226E-1	2.692056E-1	2.737712E-1	2.937062E-1	2.858761E-1	2.602573E-1	3.105620E-1	3.014057E-1	2.872093E-1	2.656038E-1	2.649577E-1	2.556828E-1	2.562144E-1	2.894095E-1	2.776499E-1	2.916075E-1	2.931089E-1	2.808967E-1	2.954327E-1	2.864729E-1	2.709276E-1	2.888024E-1	2.762614E-1	2.804618E-1	2.661874E-1	2.772323E-1	2.521738E-1	2.441483E-1	2.676583E-1	2.717888E-1	2.617349E-1	2.480223E-1	2.742638E-1	2.611123E-1	2.635874E-1	2.782476E-1	2.808847E-1	2.972581E-1	2.788571E-1	2.573955E-1	2.679578E-1	2.783640E-1	2.640785E-1	2.667488E-1	2.658740E-1	2.984244E-1	2.752592E-1	2.614715E-1	2.631637E-1	2.755648E-1	2.804304E-1	2.671417E-1	2.771065E-1	2.539741E-1	2.576655E-1	2.780681E-1	3.026313E-1	2.628502E-1	2.777062E-1	2.637138E-1	2.766875E-1	2.685111E-1	2.667407E-1	2.597143E-1	2.513619E-1	2.995308E-1	2.907528E-1	2.878353E-1	2.750886E-1	2.475421E-1	2.616356E-1	2.629572E-1	2.647666E-1	2.639765E-1	2.728015E-1	3.070865E-1	2.487796E-1	2.886096E-1	2.551236E-1	2.784346E-1	2.570395E-1	2.608209E-1	2.721606E-1	2.762128E-1	2.906489E-1	3.001159E-1	2.517750E-1	2.787130E-1	2.642509E-1	2.914049E-1	2.825039E-1	3.062697E-1	2.629812E-1	2.830867E-1	2.941824E-1	2.675844E-1	2.529335E-1	2.679377E-1	2.583336E-1	2.690896E-1	2.752305E-1	2.680233E-1	2.936514E-1	2.997069E-1	2.782312E-1	2.682714E-1	2.920088E-1	2.731074E-1	2.856531E-1	2.756068E-1	2.795322E-1	2.925444E-1	2.954080E-1	2.819732E-1	2.607691E-1	2.722976E-1	2.952357E-1	2.641519E-1	2.845043E-1	2.946381E-1	2.645490E-1	2.501505E-1	2.920376E-1	2.371999E-1	2.651177E-1	3.018135E-1	2.816586E-1	2.558453E-1	2.560365E-1	2.961476E-1	2.772354E-1	2.649372E-1	2.952955E-1	2.956454E-1	2.674662E-1	2.883089E-1	2.895857E-1	2.750843E-1	2.663311E-1	2.607246E-1	2.539092E-1	2.689485E-1	2.951269E-1	3.026033E-1	2.259249E-1
5.343600E+2	5.232261E-1	4.675032E-1	4.848097E-1	4.750582E-1	5.179680E-1	5.073547E-1	4.725613E-1	5.311403E-1	5.024992E-1	5.055549E-1	4.762196E-1	5.206084E-1	4.570663E-1	4.964669E-1	5.023458E-1	4.911562E-1	5.057945E-1	4.920981E-1	5.014744E-1	4.768725E-1	4.653816E-1	4.861682E-1	5.129056E-1	4.737569E-1	5.301465E-1	4.779423E-1	4.980426E-1	5.016888E-1	5.569987E-1	5.006294E-1	4.906379E-1	4.938546E-1	5.514469E-1	5.048897E-1	5.388825E-1	4.701531E-1	5.499265E-1	5.273610E-1	4.916014E-1	4.891329E-1	4.984398E-1	5.105253E-1	5.023836E-1	4.781325E-1	4.789308E-1	5.344801E-1	4.639395E-1	5.131673E-1	4.807067E-1	5.203653E-1	4.829985E-1	5.015757E-1	4.942640E-1	4.932104E-1	5.045921E-1	5.139146E-1	5.139908E-1	4.800663E-1	5.114934E-1	5.037643E-1	4.951324E-1	4.867065E-1	5.389983E-1	5.364998E-1	5.147223E-1	5.392284E-1	4.966731E-1	5.187478E-1	5.036495E-1	5.135250E-1	4.989146E-1	4.882597E-1	5.010780E-1	4.984756E-1	5.043929E-1	4.569712E-1	4.947455E-1	4.896502E-1	5.026251E-1	5.332029E-1	4.969324E-1	4.955623E-1	4.868236E-1	4.831773E-1	4.968712E-1	4.850531E-1	5.233547E-1	5.054731E-1	4.635658E-1	5.529412E-1	5.086494E-1	4.765663E-1	5.013586E-1	5.142443E-1	5.059857E-1	4.921983E-1	5.353787E-1	4.911469E-1	4.986208E-1	4.978574E-1	4.948689E-1	4.840463E-1	5.272014E-1	4.987885E-1	5.050964E-1	5.221388E-1	4.866073E-1	5.111279E-1	4.962333E-1	5.093753E-1	4.905539E-1	5.256436E-1	5.074885E-1	5.204031E-1	5.454359E-1	5.261044E-1	5.042102E-1	5.000687E-1	4.974447E-1	4.938492E-1	5.078034E-1	5.162222E-1	4.854387E-1	4.993495E-1	5.150465E-1	4.898724E-1	4.996781E-1	4.897095E-1	5.219238E-1	5.027497E-1	5.046966E-1	5.159076E-1	4.877884E-1	4.821181E-1	4.779544E-1	4.974026E-1	4.760328E-1	4.969386E-1	5.022731E-1	4.887619E-1	4.963645E-1	4.787650E-1	5.036008E-1	4.941171E-1	4.968549E-1	4.818931E-1	4.939633E-1	4.827642E-1	4.700762E-1	4.562086E-1	5.468951E-1	4.971083E-1	5.050369E-1	5.292218E-1	5.129073E-1	5.234952E-1	5.202436E-1	4.926636E-1	4.974999E-1	5.051637E-1	4.883361E-1	4.846185E-1	5.052183E-1	5.153585E-1	5.032845E-1	5.289514E-1	5.120797E-1	5.249485E-1	4.947759E-1	5.311477E-1	4.450805E-1
5.345160E+2	8.805144E-1	8.372534E-1	9.326272E-1	8.853902E-1	9.115878E-1	8.697353E-1	8.689407E-1	9.228207E-1	8.664749E-1	8.851572E-1	9.003440E-1	9.201230E-1	8.611258E-1	8.964301E-1	8.982568E-1	9.174520E-1	8.751243E-1	9.312485E-1	8.768740E-1	8.968430E-1	9.121357E-1	9.065377E-1	8.979856E-1	9.285948E-1	9.280442E-1	8.840530E-1	8.759402E-1	9.387775E-1	9.095272E-1	8.790163E-1	8.698373E-1	8.638463E-1	9.032037E-1	8.867201E-1	8.789334E-1	8.993477E-1	9.352546E-1	9.144068E-1	8.951790E-1	9.123625E-1	9.127810E-1	8.942647E-1	8.801565E-1	9.186153E-1	8.708516E-1	9.141513E-1	8.792852E-1	9.174733E-1	9.182433E-1	8.341367E-1	8.533264E-1	9.043061E-1	9.101224E-1	9.167767E-1	8.955625E-1	9.344407E-1	8.541770E-1	8.804091E-1	8.887187E-1	8.654436E-1	9.060396E-1	8.917292E-1	8.906171E-1	8.914924E-1	9.165578E-1	9.350626E-1	8.858095E-1	9.501409E-1	9.031654E-1	8.962748E-1	8.737516E-1	8.609554E-1	8.591585E-1	8.679538E-1	9.354142E-1	8.854920E-1	9.248518E-1	8.855442E-1	8.399969E-1	8.843387E-1	9.133859E-1	8.791227E-1	8.571511E-1	8.607624E-1	8.922643E-1	8.644690E-1	9.064382E-1	9.181680E-1	9.001413E-1	8.958752E-1	8.853358E-1	8.840217E-1	9.204430E-1	9.007139E-1	9.019455E-1	9.173359E-1	9.192261E-1	8.790503E-1	8.841261E-1	9.109706E-1	9.016999E-1	9.058973E-1	8.954632E-1	9.072078E-1	8.886413E-1	9.215234E-1	9.119118E-1	9.059490E-1	9.049727E-1	9.075080E-1	8.704365E-1	8.967249E-1	8.851873E-1	8.968642E-1	8.618062E-1	9.349564E-1	8.960201E-1	9.205218E-1	9.126574E-1	8.776707E-1	8.756547E-1	9.077357E-1	9.246522E-1	9.256658E-1	8.800683E-1	8.815317E-1	8.703127E-1	9.363781E-1	8.584614E-1	8.858035E-1	9.216734E-1	9.049480E-1	8.988790E-1	8.592911E-1	8.789589E-1	9.408858E-1	9.153029E-1	8.749714E-1	9.021803E-1	8.553925E-1	8.863508E-1	8.758881E-1	9.140674E-1	8.892878E-1	8.618909E-1	8.966962E-1	8.751530E-1	9.011490E-1	9.245536E-1	8.787002E-1	8.855726E-1	8.648086E-1	8.749037E-1	9.318962E-1	8.381020E-1	8.829826E-1	8.909497E-1	8.917562E-1	8.960971E-1	9.391875E-1	9.242926E-1	8.435389E-1	8.427619E-1	9.173255E-1	8.786572E-1	8.854039E-1	9.357387E-1	9.016227E-1	8.898490E-1	9.355019E-1	8.682983E-1
5.346510E+2	1.275432E+0	1.296149E+0	1.266489E+0	1.261317E+0	1.311149E+0	1.284441E+0	1.304785E+0	1.297319E+0	1.316208E+0	1.292106E+0	1.310865E+0	1.316035E+0	1.286848E+0	1.285522E+0	1.275469E+0	1.323998E+0	1.313493E+0	1.340400E+0	1.325193E+0	1.293966E+0	1.256219E+0	1.333726E+0	1.220167E+0	1.275499E+0	1.258912E+0	1.279671E+0	1.320697E+0	1.268861E+0	1.288929E+0	1.334617E+0	1.266185E+0	1.281779E+0	1.264891E+0	1.309877E+0	1.286252E+0	1.306370E+0	1.265880E+0	1.293106E+0	1.254786E+0	1.272240E+0	1.281570E+0	1.344973E+0	1.286703E+0	1.305110E+0	1.298746E+0	1.270976E+0	1.275704E+0	1.302923E+0	1.293657E+0	1.316306E+0	1.266953E+0	1.304577E+0	1.315225E+0	1.292110E+0	1.275760E+0	1.296620E+0	1.257682E+0	1.261066E+0	1.277806E+0	1.286312E+0	1.280698E+0	1.260652E+0	1.293536E+0	1.287481E+0	1.349868E+0	1.345012E+0	1.279166E+0	1.319089E+0	1.277849E+0	1.277492E+0	1.238513E+0	1.283480E+0	1.302565E+0	1.226924E+0	1.252336E+0	1.324377E+0	1.292644E+0	1.258959E+0	1.227519E+0	1.284067E+0	1.313579E+0	1.272325E+0	1.273929E+0	1.264660E+0	1.243896E+0	1.285277E+0	1.304750E+0	1.346307E+0	1.302782E+0	1.313275E+0	1.293335E+0	1.328950E+0	1.295743E+0	1.299502E+0	1.283618E+0	1.342948E+0	1.310686E+0	1.308304E+0	1.246059E+0	1.322335E+0	1.299522E+0	1.327956E+0	1.239904E+0	1.270041E+0	1.270775E+0	1.278475E+0	1.223620E+0	1.255836E+0	1.342345E+0	1.260645E+0	1.326714E+0	1.301945E+0	1.340802E+0	1.309276E+0	1.282204E+0	1.318050E+0	1.312949E+0	1.262365E+0	1.242117E+0	1.280390E+0	1.263223E+0	1.243765E+0	1.262661E+0	1.312091E+0	1.283529E+0	1.267647E+0	1.295291E+0	1.311799E+0	1.236293E+0	1.272992E+0	1.256528E+0	1.260503E+0	1.315804E+0	1.265592E+0	1.252383E+0	1.290956E+0	1.273082E+0	1.266435E+0	1.343100E+0	1.266100E+0	1.283357E+0	1.216263E+0	1.231886E+0	1.284640E+0	1.318927E+0	1.292683E+0	1.300874E+0	1.277407E+0	1.245138E+0	1.258165E+0	1.289294E+0	1.270943E+0	1.301333E+0	1.296829E+0	1.324187E+0	1.235281E+0	1.288871E+0	1.262195E+0	1.275118E+0	1.282195E+0	1.304950E+0	1.252769E+0	1.278061E+0	1.297211E+0	1.255286E+0	1.263774E+0	1.259610E+0	1.228088E+0	1.311654E+0	1.256154E+0	1.347281E+0
5.348020E+2	1.753250E+0	1.653869E+0	1.697791E+0	1.751495E+0	1.740486E+0	1.725811E+0	1.686744E+0	1.746381E+0	1.791591E+0	1.711832E+0	1.745564E+0	1.733246E+0	1.683159E+0	1.730488E+0	1.760813E+0	1.749022E+0	1.722501E+0	1.710076E+0	1.759668E+0	1.743596E+0	1.674568E+0	1.756195E+0	1.677154E+0	1.692216E+0	1.715682E+0	1.774235E+0	1.726103E+0	1.772752E+0	1.740752E+0	1.742329E+0	1.698847E+0	1.684082E+0	1.718251E+0	1.669852E+0	1.719951E+0	1.665858E+0	1.709677E+0	1.753183E+0	1.673013E+0	1.679051E+0	1.725795E+0	1.814463E+0	1.743902E+0	1.699146E+0	1.695506E+0	1.729239E+0	1.757336E+0	1.698618E+0	1.743166E+0	1.752094E+0	1.710952E+0	1.729904E+0	1.660340E+0	1.774938E+0	1.692448E+0	1.690529E+0	1.728853E+0	1.730228E+0	1.751371E+0	1.660824E+0	1.684002E+0	1.668996E+0	1.718231E+0	1.752491E+0	1.757988E+0	1.768830E+0	1.659681E+0	1.720266E+0	1.754808E+0	1.696410E+0	1.640459E+0	1.691950E+0	1.725448E+0	1.735780E+0	1.728914E+0	1.687815E+0	1.692100E+0	1.657887E+0	1.703170E+0	1.744002E+0	1.663176E+0	1.744584E+0	1.703718E+0	1.745190E+0	1.706492E+0	1.732575E+0	1.691047E+0	1.746470E+0	1.674410E+0	1.740256E+0	1.669271E+0	1.763036E+0	1.647412E+0	1.685574E+0	1.671295E+0	1.776388E+0	1.678321E+0	1.688842E+0	1.692604E+0	1.708848E+0	1.766462E+0	1.716442E+0	1.616252E+0	1.702615E+0	1.682883E+0	1.722651E+0	1.719620E+0	1.704471E+0	1.675320E+0	1.726005E+0	1.689517E+0	1.713700E+0	1.638389E+0	1.702292E+0	1.711455E+0	1.698203E+0	1.730136E+0	1.678774E+0	1.689604E+0	1.732630E+0	1.650731E+0	1.658993E+0	1.721640E+0	1.709756E+0	1.639931E+0	1.740473E+0	1.707984E+0	1.673487E+0	1.714870E+0	1.678165E+0	1.658672E+0	1.720255E+0	1.717322E+0	1.637937E+0	1.710733E+0	1.684004E+0	1.678524E+0	1.741193E+0	1.722535E+0	1.671453E+0	1.692045E+0	1.709016E+0	1.673481E+0	1.720376E+0	1.683828E+0	1.664993E+0	1.627795E+0	1.694670E+0	1.648912E+0	1.641416E+0	1.663560E+0	1.731740E+0	1.627477E+0	1.677928E+0	1.600626E+0	1.710995E+0	1.661614E+0	1.682186E+0	1.584275E+0	1.688020E+0	1.667156E+0	1.644320E+0	1.753933E+0	1.713816E+0	1.700296E+0	1.709710E+0	1.668210E+0	1.654616E+0	1.667178E+0	1.732898E+0	1.561789E+0
5.349580E+2	2.061263E+0	1.985424E+0	2.005021E+0	2.070078E+0	2.038221E+0	1.969783E+0	2.026236E+0	2.024400E+0	2.041851E+0	1.954431E+0	2.015809E+0	2.051037E+0	1.978402E+0	2.014342E+0	2.056336E+0	1.994512E+0	1.968806E+0	2.019623E+0	2.033103E+0	2.040775E+0	1.962583E+0	1.995670E+0	1.948865E+0	2.042747E+0	2.017339E+0	1.994760E+0	2.004691E+0	1.989057E+0	2.031756E+0	2.062049E+0	2.012307E+0	1.999160E+0	1.959713E+0	2.046724E+0	2.015434E+0	1.980174E+0	1.995764E+0	2.007689E+0	1.978954E+0	2.007975E+0	1.943416E+0	2.079335E+0	2.029192E+0	2.021864E+0	1.911313E+0	1.990710E+0	1.940836E+0	1.957997E+0	1.967046E+0	1.987766E+0	1.937028E+0	2.024885E+0	1.953861E+0	1.998381E+0	1.994869E+0	2.002494E+0	1.995025E+0	1.980875E+0	1.991784E+0	1.980873E+0	1.941444E+0	1.911324E+0	1.974055E+0	1.969904E+0	2.076035E+0	2.128991E+0	1.965088E+0	1.997794E+0	1.962947E+0	2.020770E+0	1.954499E+0	1.951182E+0	1.987720E+0	1.954536E+0	1.977073E+0	1.994131E+0	1.956629E+0	2.019218E+0	1.945832E+0	1.973164E+0	1.885743E+0	2.002529E+0	2.017037E+0	1.987623E+0	1.864654E+0	2.048931E+0	2.043003E+0	1.983272E+0	1.908667E+0	2.002217E+0	1.948226E+0	1.949933E+0	2.003212E+0	1.967190E+0	1.980300E+0	2.000429E+0	1.991094E+0	1.909546E+0	1.897238E+0	1.985056E+0	1.941720E+0	2.031011E+0	1.975892E+0	1.982493E+0	1.986526E+0	2.014774E+0	2.028135E+0	1.948974E+0	1.954683E+0	1.956175E+0	1.961617E+0	2.012416E+0	1.868564E+0	1.980796E+0	1.958284E+0	1.962213E+0	1.974744E+0	1.905077E+0	1.985002E+0	1.995949E+0	1.903562E+0	1.958019E+0	1.948636E+0	1.966633E+0	1.965150E+0	2.026388E+0	2.025207E+0	1.972873E+0	2.001293E+0	1.928621E+0	1.952284E+0	1.909780E+0	1.955445E+0	1.899360E+0	1.935835E+0	1.976844E+0	1.933161E+0	1.933322E+0	1.920547E+0	1.974110E+0	1.970286E+0	1.987526E+0	1.995255E+0	1.988711E+0	1.886952E+0	1.968540E+0	1.876171E+0	1.972947E+0	1.937955E+0	1.935266E+0	1.957703E+0	1.950488E+0	1.957473E+0	1.975384E+0	1.922384E+0	1.922075E+0	1.954206E+0	1.962826E+0	1.969804E+0	1.961313E+0	1.982063E+0	1.917699E+0	1.902872E+0	1.922319E+0	1.918588E+0	1.879268E+0	1.949413E+0	1.865431E+0	1.909395E+0	1.951581E+0	1.990212E+0
5.351140E+2	2.142882E+0	2.085011E+0	2.161013E+0	2.139827E+0	2.213657E+0	2.186184E+0	2.172399E+0	2.091588E+0	2.143341E+0	2.177892E+0	2.118242E+0	2.151371E+0	2.166299E+0	2.089423E+0	2.112690E+0	2.095671E+0	2.133030E+0	2.177785E+0	2.097275E+0	2.152369E+0	2.176852E+0	2.128840E+0	2.102090E+0	2.138633E+0	2.179775E+0	2.182945E+0	2.132493E+0	2.089865E+0	2.142891E+0	2.168815E+0	2.158304E+0	2.173364E+0	2.117966E+0	2.164105E+0	2.194031E+0	2.161362E+0	2.146234E+0	2.069585E+0	2.120598E+0	2.102903E+0	2.123017E+0	2.200812E+0	2.165233E+0	2.173728E+0	2.053639E+0	2.099996E+0	2.074569E+0	2.194698E+0	2.162452E+0	2.064695E+0	2.110527E+0	2.181319E+0	2.037151E+0	2.184327E+0	2.109563E+0	2.089471E+0	2.084620E+0	2.087684E+0	2.188423E+0	2.099071E+0	2.066144E+0	2.113268E+0	2.165230E+0	2.183847E+0	2.133425E+0	2.151597E+0	2.072150E+0	2.110918E+0	2.125888E+0	2.027810E+0	2.135271E+0	2.140283E+0	2.129825E+0	2.104717E+0	2.109795E+0	2.181301E+0	2.100494E+0	2.080468E+0	2.085772E+0	2.065306E+0	2.035076E+0	2.182788E+0	2.060502E+0	2.150580E+0	2.083520E+0	2.083042E+0	2.132904E+0	2.141173E+0	2.045442E+0	2.097190E+0	2.125680E+0	2.084777E+0	2.085723E+0	2.064873E+0	2.137592E+0	2.185713E+0	2.161578E+0	2.045486E+0	2.143310E+0	2.103846E+0	2.068592E+0	2.161764E+0	2.152840E+0	2.095846E+0	2.089866E+0	2.115294E+0	2.156626E+0	2.089826E+0	2.044596E+0	2.148607E+0	2.123521E+0	2.091423E+0	2.039174E+0	2.119165E+0	2.088537E+0	2.125528E+0	2.130477E+0	2.009582E+0	2.109306E+0	2.091749E+0	2.061972E+0	2.068481E+0	2.078816E+0	2.110984E+0	2.061758E+0	2.076774E+0	2.127148E+0	2.099014E+0	2.086976E+0	2.051124E+0	2.130952E+0	2.032303E+0	2.041391E+0	1.997619E+0	2.087628E+0	2.085508E+0	2.126663E+0	2.115896E+0	2.106946E+0	2.071343E+0	2.047770E+0	2.065254E+0	2.061092E+0	2.071774E+0	2.133715E+0	2.085455E+0	2.076696E+0	2.040086E+0	2.052176E+0	2.095311E+0	1.998220E+0	2.087772E+0	2.097545E+0	2.020285E+0	2.006615E+0	2.090988E+0	2.026365E+0	2.147209E+0	2.104089E+0	2.104751E+0	2.031843E+0	2.038010E+0	2.106103E+0	1.976416E+0	2.023336E+0	2.026880E+0	2.035122E+0	1.988721E+0	2.006498E+0	2.022189E+0	1.979110E+0
5.352600E+2	2.179109E+0	2.052531E+0	2.079534E+0	2.061980E+0	2.060430E+0	2.115304E+0	2.094216E+0	2.137963E+0	2.078399E+0	2.135448E+0	2.170398E+0	2.134069E+0	2.072354E+0	2.065347E+0	2.111883E+0	2.144106E+0	2.051932E+0	2.163038E+0	2.108889E+0	2.057755E+0	2.044158E+0	2.068441E+0	2.063511E+0	2.121618E+0	2.046782E+0	2.126938E+0	2.049464E+0	2.136749E+0	2.128175E+0	2.131690E+0	2.105046E+0	2.088328E+0	2.061799E+0	2.127385E+0	2.067496E+0	2.091979E+0	2.021031E+0	2.102457E+0	2.046613E+0	2.044117E+0	2.045402E+0	2.074699E+0	2.070901E+0	2.121447E+0	2.109931E+0	2.114972E+0	2.019523E+0	2.150082E+0	2.086273E+0	2.110961E+0	2.063355E+0	2.123295E+0	2.096114E+0	2.077613E+0	2.074375E+0	1.968584E+0	2.024190E+0	2.097109E+0	2.065059E+0	2.069123E+0	2.068487E+0	2.044201E+0	2.158089E+0	2.142644E+0	2.107825E+0	2.135186E+0	2.066585E+0	2.099234E+0	2.055251E+0	2.070304E+0	2.014596E+0	2.089906E+0	2.061214E+0	2.049067E+0	2.028908E+0	2.035606E+0	2.063506E+0	2.050825E+0	2.002977E+0	2.081795E+0	1.993122E+0	2.019812E+0	2.064919E+0	2.009927E+0	1.980369E+0	2.050890E+0	2.076341E+0	2.157707E+0	1.992931E+0	2.134533E+0	2.065722E+0	2.010902E+0	2.034113E+0	1.992833E+0	2.090937E+0	2.106454E+0	2.023727E+0	2.105927E+0	2.063042E+0	2.063855E+0	2.001157E+0	2.094277E+0	2.048477E+0	2.037874E+0	2.016170E+0	2.101554E+0	2.100668E+0	2.028460E+0	2.007472E+0	2.012492E+0	2.095658E+0	2.094793E+0	1.981552E+0	2.104939E+0	2.067512E+0	2.107696E+0	2.017648E+0	2.070366E+0	2.031340E+0	2.072765E+0	2.003067E+0	2.019867E+0	2.019597E+0	2.148894E+0	2.073324E+0	2.097299E+0	2.000240E+0	2.049344E+0	2.009405E+0	2.005012E+0	2.072964E+0	2.052100E+0	2.033084E+0	1.980265E+0	2.035240E+0	1.979805E+0	1.942700E+0	2.137363E+0	2.085030E+0	1.986687E+0	2.027178E+0	2.032520E+0	2.017357E+0	1.984624E+0	2.037360E+0	2.029755E+0	1.999176E+0	1.996847E+0	1.986820E+0	1.988251E+0	2.013843E+0	2.000457E+0	2.017514E+0	2.053140E+0	2.051106E+0	2.021540E+0	1.967899E+0	2.025621E+0	1.992173E+0	2.087981E+0	1.992883E+0	1.989275E+0	1.986533E+0	1.982445E+0	1.956783E+0	1.942424E+0	2.015089E+0	1.954823E+0	1.916730E+0	2.041311E+0	1.937281E+0
5.354110E+2	1.918323E+0	1.857063E+0	1.898336E+0	1.872482E+0	1.889487E+0	1.982998E+0	1.917561E+0	1.919496E+0	1.858349E+0	1.931909E+0	1.931148E+0	1.960394E+0	1.899920E+0	1.977987E+0	1.929178E+0	1.923553E+0	1.888978E+0	1.961237E+0	1.955088E+0	1.947532E+0	1.923261E+0	1.893902E+0	1.853458E+0	1.912393E+0	1.860797E+0	1.919216E+0	1.932737E+0	1.895827E+0	1.900224E+0	1.918006E+0	1.912652E+0	1.898723E+0	1.927849E+0	1.941501E+0	1.909680E+0	1.858656E+0	1.898239E+0	1.896340E+0	1.915953E+0	1.850737E+0	1.915785E+0	1.959472E+0	1.910909E+0	1.937222E+0	1.854418E+0	1.956850E+0	1.862850E+0	1.951828E+0	1.876150E+0	1.909708E+0	1.933630E+0	1.995574E+0	1.896918E+0	1.917737E+0	1.908994E+0	1.914871E+0	1.897387E+0	1.874093E+0	1.901928E+0	1.911909E+0	1.847443E+0	1.830815E+0	1.924273E+0	1.902440E+0	1.972063E+0	2.007155E+0	1.867426E+0	1.904850E+0	1.908712E+0	1.915406E+0	1.883015E+0	1.868654E+0	1.902411E+0	1.859344E+0	1.843853E+0	1.879612E+0	1.866918E+0	1.860941E+0	1.878062E+0	1.883586E+0	1.774452E+0	1.878613E+0	1.820504E+0	1.878585E+0	1.865338E+0	1.887507E+0	1.878524E+0	1.874087E+0	1.839486E+0	1.902793E+0	1.899763E+0	1.854233E+0	1.873959E+0	1.886059E+0	1.949984E+0	1.911439E+0	1.879313E+0	1.889965E+0	1.930155E+0	1.881123E+0	1.835995E+0	1.896094E+0	1.904398E+0	1.853390E+0	1.866460E+0	1.861871E+0	1.858215E+0	1.868896E+0	1.891679E+0	1.858363E+0	1.854328E+0	1.917050E+0	1.816924E+0	1.840480E+0	1.855563E+0	1.906563E+0	1.866082E+0	1.911946E+0	1.791455E+0	1.875396E+0	1.845111E+0	1.871567E+0	1.894421E+0	1.836102E+0	1.848373E+0	1.839621E+0	1.871104E+0	1.858289E+0	1.860228E+0	1.836634E+0	1.852650E+0	1.820274E+0	1.834547E+0	1.823414E+0	1.848972E+0	1.837719E+0	1.844112E+0	1.891500E+0	1.869579E+0	1.882729E+0	1.849529E+0	1.860281E+0	1.876936E+0	1.831652E+0	1.855983E+0	1.932952E+0	1.839083E+0	1.870574E+0	1.813895E+0	1.902568E+0	1.867801E+0	1.858537E+0	1.918384E+0	1.897989E+0	1.833470E+0	1.880165E+0	1.887274E+0	1.895212E+0	1.850295E+0	1.906529E+0	1.860058E+0	1.815879E+0	1.766669E+0	1.837432E+0	1.823669E+0	1.821605E+0	1.856391E+0	1.846007E+0	1.760779E+0	1.871823E+0	1.836303E+0
5.355630E+2	1.624154E+0	1.576409E+0	1.636606E+0	1.661510E+0	1.669480E+0	1.630340E+0	1.608961E+0	1.618453E+0	1.673040E+0	1.618022E+0	1.631882E+0	1.620976E+0	1.593892E+0	1.648333E+0	1.610151E+0	1.648924E+0	1.653656E+0	1.645737E+0	1.610382E+0	1.590752E+0	1.599430E+0	1.597683E+0	1.587639E+0	1.587443E+0	1.628768E+0	1.616705E+0	1.606707E+0	1.549187E+0	1.615625E+0	1.655508E+0	1.600883E+0	1.613066E+0	1.665175E+0	1.608394E+0	1.611524E+0	1.588671E+0	1.607137E+0	1.668527E+0	1.625763E+0	1.543420E+0	1.593817E+0	1.664210E+0	1.630598E+0	1.661821E+0	1.567028E+0	1.619799E+0	1.613198E+0	1.675663E+0	1.617080E+0	1.653651E+0	1.641116E+0	1.633546E+0	1.607876E+0	1.621665E+0	1.584710E+0	1.617401E+0	1.601324E+0	1.680670E+0	1.696621E+0	1.510089E+0	1.574790E+0	1.606736E+0	1.593274E+0	1.630205E+0	1.651130E+0	1.649700E+0	1.589804E+0	1.611491E+0	1.565773E+0	1.606862E+0	1.548378E+0	1.630429E+0	1.631851E+0	1.593800E+0	1.611156E+0	1.580637E+0	1.593748E+0	1.572946E+0	1.579302E+0	1.592588E+0	1.543107E+0	1.638373E+0	1.638523E+0	1.631116E+0	1.577537E+0	1.584917E+0	1.629406E+0	1.538712E+0	1.549713E+0	1.576905E+0	1.575061E+0	1.567710E+0	1.589375E+0	1.551071E+0	1.576940E+0	1.612960E+0	1.556383E+0	1.583129E+0	1.587008E+0	1.625866E+0	1.592721E+0	1.605903E+0	1.595587E+0	1.571072E+0	1.581000E+0	1.636033E+0	1.650936E+0	1.542313E+0	1.649496E+0	1.583241E+0	1.583123E+0	1.613196E+0	1.594637E+0	1.630491E+0	1.576084E+0	1.635331E+0	1.573891E+0	1.555733E+0	1.584122E+0	1.614720E+0	1.555499E+0	1.606447E+0	1.537425E+0	1.571891E+0	1.548557E+0	1.634221E+0	1.640147E+0	1.616072E+0	1.564059E+0	1.630896E+0	1.642455E+0	1.553089E+0	1.591474E+0	1.579278E+0	1.572033E+0	1.601999E+0	1.650417E+0	1.608310E+0	1.599812E+0	1.542047E+0	1.544395E+0	1.647567E+0	1.635674E+0	1.609492E+0	1.544406E+0	1.610735E+0	1.570904E+0	1.609323E+0	1.613961E+0	1.545521E+0	1.578539E+0	1.602880E+0	1.596502E+0	1.568801E+0	1.625252E+0	1.598902E+0	1.575990E+0	1.613359E+0	1.551068E+0	1.593715E+0	1.592636E+0	1.532136E+0	1.618699E+0	1.615945E+0	1.532249E+0	1.522595E+0	1.576198E+0	1.477492E+0	1.545781E+0	1.583185E+0	1.682100E+0
5.357090E+2	1.386017E+0	1.335777E+0	1.398537E+0	1.381239E+0	1.395597E+0	1.400136E+0	1.354119E+0	1.407668E+0	1.363864E+0	1.368223E+0	1.422961E+0	1.364385E+0	1.393249E+0	1.406945E+0	1.342720E+0	1.392956E+0	1.370148E+0	1.386667E+0	1.397237E+0	1.360824E+0	1.392207E+0	1.387859E+0	1.384433E+0	1.432399E+0	1.365650E+0	1.438041E+0	1.359118E+0	1.336313E+0	1.382786E+0	1.367085E+0	1.385027E+0	1.363574E+0	1.328387E+0	1.404658E+0	1.406719E+0	1.356882E+0	1.420111E+0	1.381378E+0	1.386738E+0	1.375333E+0	1.344395E+0	1.439126E+0	1.328696E+0	1.370163E+0	1.322079E+0	1.336911E+0	1.354296E+0	1.414387E+0	1.383664E+0	1.327518E+0	1.364976E+0	1.387988E+0	1.357533E+0	1.392376E+0	1.397380E+0	1.409254E+0	1.366441E+0	1.356002E+0	1.368612E+0	1.356348E+0	1.371099E+0	1.363477E+0	1.354639E+0	1.377293E+0	1.357109E+0	1.401544E+0	1.412883E+0	1.380002E+0	1.364315E+0	1.362692E+0	1.323461E+0	1.335042E+0	1.367687E+0	1.393933E+0	1.398292E+0	1.360402E+0	1.350314E+0	1.387797E+0	1.378063E+0	1.390382E+0	1.322640E+0	1.342635E+0	1.356797E+0	1.349764E+0	1.358125E+0	1.381688E+0	1.408449E+0	1.390582E+0	1.394272E+0	1.338134E+0	1.401038E+0	1.367244E+0	1.360899E+0	1.360134E+0	1.359567E+0	1.414378E+0	1.415720E+0	1.360490E+0	1.369219E+0	1.314499E+0	1.418144E+0	1.406959E+0	1.397812E+0	1.399719E+0	1.352045E+0	1.423345E+0	1.388896E+0	1.330412E+0	1.378066E+0	1.356399E+0	1.367501E+0	1.336793E+0	1.355491E+0	1.367988E+0	1.377491E+0	1.383248E+0	1.371272E+0	1.420163E+0	1.389452E+0	1.391024E+0	1.394612E+0	1.317534E+0	1.360161E+0	1.410743E+0	1.358041E+0	1.383011E+0	1.376419E+0	1.345417E+0	1.344562E+0	1.345721E+0	1.402739E+0	1.383324E+0	1.369604E+0	1.357313E+0	1.339542E+0	1.372376E+0	1.400637E+0	1.398116E+0	1.383850E+0	1.336709E+0	1.329525E+0	1.372294E+0	1.420371E+0	1.358577E+0	1.311793E+0	1.352137E+0	1.331667E+0	1.400293E+0	1.366524E+0	1.347216E+0	1.361294E+0	1.369112E+0	1.381328E+0	1.339084E+0	1.303827E+0	1.383526E+0	1.449797E+0	1.449016E+0	1.389700E+0	1.473699E+0	1.410981E+0	1.371016E+0	1.448126E+0	1.377419E+0	1.380368E+0	1.377621E+0	1.411591E+0	1.365730E+0	1.290428E+0	1.358093E+0	1.487630E+0
5.358650E+2	1.080385E+0	1.077763E+0	1.145776E+0	1.086717E+0	1.159614E+0	1.120096E+0	1.163366E+0	1.147424E+0	1.120074E+0	1.107656E+0	1.152775E+0	1.193778E+0	1.136260E+0	1.157234E+0	1.113331E+0	1.158926E+0	1.122176E+0	1.127725E+0	1.129873E+0	1.138482E+0	1.082891E+0	1.146755E+0	1.143480E+0	1.135340E+0	1.124153E+0	1.137189E+0	1.144321E+0	1.133828E+0	1.136273E+0	1.143528E+0	1.099066E+0	1.139958E+0	1.128586E+0	1.171876E+0	1.150464E+0	1.128894E+0	1.117286E+0	1.117043E+0	1.125275E+0	1.111992E+0	1.122347E+0	1.134415E+0	1.133073E+0	1.147031E+0	1.074237E+0	1.136673E+0	1.126439E+0	1.106162E+0	1.071595E+0	1.161128E+0	1.169957E+0	1.160148E+0	1.093596E+0	1.062400E+0	1.074894E+0	1.125976E+0	1.122148E+0	1.134936E+0	1.144736E+0	1.117253E+0	1.059136E+0	1.043259E+0	1.146234E+0	1.150145E+0	1.152226E+0	1.165846E+0	1.119139E+0	1.144210E+0	1.109933E+0	1.129882E+0	1.122728E+0	1.125435E+0	1.133700E+0	1.075659E+0	1.096103E+0	1.124338E+0	1.139186E+0	1.138588E+0	1.095058E+0	1.101773E+0	1.091207E+0	1.180699E+0	1.092752E+0	1.151580E+0	1.132520E+0	1.117313E+0	1.171436E+0	1.173510E+0	1.132432E+0	1.136024E+0	1.092092E+0	1.109644E+0	1.099727E+0	1.114641E+0	1.158881E+0	1.163717E+0	1.141205E+0	1.121340E+0	1.097911E+0	1.154665E+0	1.100695E+0	1.130183E+0	1.139411E+0	1.086255E+0	1.113665E+0	1.138903E+0	1.110546E+0	1.122509E+0	1.099014E+0	1.142255E+0	1.076749E+0	1.161170E+0	1.090706E+0	1.117137E+0	1.140596E+0	1.173289E+0	1.083217E+0	1.128911E+0	1.024708E+0	1.167843E+0	1.122282E+0	1.104693E+0	1.143269E+0	1.177174E+0	1.081692E+0	1.178807E+0	1.112465E+0	1.146138E+0	1.152196E+0	1.110713E+0	1.162694E+0	1.126081E+0	1.058244E+0	1.123022E+0	1.126296E+0	1.125202E+0	1.089726E+0	1.172057E+0	1.148029E+0	1.169307E+0	1.112937E+0	1.106297E+0	1.118087E+0	1.116735E+0	1.120022E+0	1.120820E+0	1.106001E+0	1.163708E+0	1.153703E+0	1.108234E+0	1.123719E+0	1.151702E+0	1.076094E+0	1.129228E+0	1.130818E+0	1.146160E+0	1.137431E+0	1.122872E+0	1.111720E+0	1.178624E+0	1.122254E+0	1.080100E+0	1.135237E+0	1.092262E+0	1.119706E+0	1.082453E+0	1.123945E+0	1.071802E+0	1.118299E+0	1.065397E+0	1.238134E+0
5.360070E+2	9.551899E-1	9.329975E-1	9.897873E-1	9.087002E-1	9.983050E-1	9.221760E-1	9.988211E-1	9.327936E-1	1.005766E+0	9.312785E-1	9.817962E-1	9.380388E-1	9.571508E-1	9.066269E-1	9.748648E-1	9.524248E-1	9.536004E-1	9.874307E-1	1.002419E+0	9.374937E-1	9.763544E-1	9.513894E-1	9.529030E-1	9.756197E-1	9.358081E-1	9.566222E-1	9.633942E-1	9.948668E-1	9.558662E-1	9.913607E-1	9.757632E-1	9.849319E-1	9.387288E-1	9.754600E-1	9.452610E-1	9.548175E-1	9.434056E-1	9.564222E-1	9.825940E-1	9.410673E-1	9.969558E-1	9.744260E-1	9.212789E-1	1.007445E+0	9.220066E-1	9.576227E-1	9.247877E-1	9.307842E-1	9.801893E-1	9.884448E-1	9.633273E-1	1.001799E+0	9.866993E-1	9.759223E-1	9.466384E-1	9.657289E-1	9.676262E-1	1.010794E+0	9.720523E-1	9.480291E-1	9.696776E-1	9.413403E-1	9.518699E-1	9.858155E-1	9.096702E-1	9.959023E-1	9.392514E-1	9.947470E-1	9.732844E-1	9.252440E-1	9.800264E-1	9.831269E-1	9.361958E-1	9.666044E-1	9.488234E-1	9.599508E-1	9.156626E-1	9.574214E-1	9.354638E-1	9.604392E-1	9.611102E-1	9.598689E-1	9.926167E-1	9.250276E-1	9.836091E-1	9.724130E-1	9.586684E-1	9.738422E-1	9.482950E-1	9.621577E-1	9.608659E-1	9.752921E-1	9.372902E-1	9.334454E-1	9.590297E-1	1.007460E+0	9.217841E-1	9.791195E-1	9.403278E-1	9.778184E-1	1.003062E+0	9.947625E-1	9.888039E-1	9.579322E-1	9.026083E-1	9.918765E-1	1.034337E+0	9.945632E-1	9.750577E-1	9.252234E-1	9.748495E-1	9.303282E-1	9.753070E-1	9.776928E-1	1.000438E+0	9.812510E-1	9.391021E-1	9.945925E-1	9.388686E-1	9.488223E-1	9.243789E-1	9.413838E-1	9.450430E-1	9.398773E-1	9.195285E-1	9.395145E-1	9.712113E-1	9.787136E-1	9.653574E-1	9.584672E-1	9.931185E-1	9.531701E-1	9.528157E-1	9.320395E-1	9.938922E-1	9.409381E-1	9.178537E-1	9.835253E-1	9.788476E-1	9.295582E-1	9.682256E-1	9.794269E-1	9.358344E-1	9.662305E-1	9.629496E-1	9.394795E-1	9.764815E-1	9.789312E-1	9.635621E-1	9.747091E-1	9.917399E-1	9.535991E-1	9.983179E-1	1.013907E+0	9.356003E-1	1.013940E+0	9.459340E-1	9.570927E-1	9.389543E-1	1.022937E+0	9.082786E-1	9.408133E-1	1.006206E+0	9.105912E-1	9.759558E-1	9.097485E-1	9.923553E-1	9.396866E-1	9.034461E-1	9.816182E-1	9.456471E-1
5.362680E+2	7.650670E-1	6.822111E-1	6.918552E-1	7.240940E-1	7.204621E-1	6.785710E-1	7.144587E-1	7.066582E-1	6.964070E-1	7.233826E-1	7.499187E-1	7.576977E-1	7.327553E-1	7.536162E-1	7.511487E-1	7.367945E-1	7.128006E-1	7.116561E-1	7.500463E-1	7.253332E-1	7.090498E-1	7.438200E-1	7.716706E-1	7.381058E-1	7.158504E-1	7.145497E-1	6.928327E-1	7.090119E-1	7.200779E-1	7.381004E-1	6.936593E-1	7.286883E-1	7.251626E-1	7.201289E-1	7.298261E-1	7.128837E-1	7.226363E-1	7.149425E-1	7.455322E-1	7.313993E-1	7.775713E-1	7.226611E-1	6.772026E-1	7.154670E-1	7.082172E-1	7.345357E-1	7.100417E-1	7.487694E-1	7.655253E-1	7.591557E-1	7.299396E-1	7.730152E-1	7.113495E-1	7.186801E-1	7.477256E-1	7.130790E-1	7.168207E-1	7.318721E-1	7.063964E-1	6.931029E-1	7.196723E-1	6.897015E-1	7.461205E-1	7.533103E-1	7.217634E-1	7.221685E-1	7.458787E-1	7.273528E-1	7.497731E-1	7.366423E-1	7.357716E-1	7.220031E-1	7.129146E-1	7.154391E-1	7.110394E-1	6.947954E-1	7.118039E-1	7.328465E-1	7.063501E-1	7.402159E-1	7.010894E-1	7.723437E-1	7.229474E-1	6.991096E-1	7.362312E-1	7.015965E-1	7.530681E-1	7.502261E-1	7.122618E-1	7.608346E-1	7.602632E-1	7.525308E-1	7.664022E-1	7.534957E-1	7.600474E-1	7.539370E-1	7.352908E-1	7.359375E-1	7.624670E-1	7.355143E-1	7.219267E-1	7.257097E-1	7.521370E-1	7.149675E-1	7.247197E-1	7.575494E-1	7.754293E-1	7.099137E-1	7.669854E-1	7.271379E-1	7.744772E-1	7.292677E-1	6.833637E-1	7.678279E-1	7.418171E-1	7.080871E-1	7.260326E-1	7.543005E-1	7.199586E-1	7.112815E-1	7.265854E-1	7.259258E-1	7.108958E-1	7.773910E-1	7.210072E-1	7.433979E-1	7.388156E-1	7.114404E-1	7.276369E-1	7.156704E-1	7.228535E-1	7.147011E-1	7.094316E-1	7.458567E-1	7.501653E-1	6.868968E-1	7.305760E-1	7.603884E-1	7.697126E-1	7.501589E-1	7.079694E-1	7.291069E-1	7.679202E-1	7.422654E-1	7.188862E-1	7.431469E-1	7.262383E-1	6.961943E-1	7.252716E-1	6.921672E-1	7.494440E-1	7.327694E-1	7.621430E-1	7.623442E-1	6.999424E-1	7.419190E-1	7.375833E-1	7.168553E-1	7.432204E-1	7.246355E-1	6.999965E-1	7.097898E-1	7.052143E-1	7.373672E-1	6.865589E-1	7.166905E-1	7.259004E-1	7.495027E-1	7.231963E-1	7.281458E-1	7.372156E-1
5.365140E+2	6.005664E-1	5.867644E-1	5.828593E-1	5.860574E-1	6.036839E-1	6.186277E-1	6.080921E-1	5.909647E-1	6.445064E-1	6.068131E-1	5.979288E-1	5.907899E-1	5.786889E-1	6.072191E-1	5.776319E-1	6.135101E-1	5.850063E-1	6.108130E-1	6.114151E-1	6.575372E-1	5.830739E-1	5.841764E-1	6.046085E-1	6.046037E-1	6.176341E-1	6.201747E-1	6.099381E-1	6.007607E-1	6.274430E-1	6.274657E-1	5.821931E-1	6.150208E-1	5.914091E-1	6.005097E-1	6.538597E-1	5.884347E-1	6.192757E-1	5.867858E-1	6.079363E-1	6.210656E-1	5.961669E-1	5.979905E-1	5.984657E-1	6.213376E-1	6.073441E-1	5.847780E-1	5.883719E-1	6.110512E-1	6.094569E-1	6.027920E-1	5.764598E-1	6.088839E-1	6.062000E-1	6.031623E-1	6.112483E-1	6.044658E-1	6.200865E-1	5.660542E-1	5.983913E-1	6.184059E-1	5.877801E-1	5.760604E-1	5.986973E-1	6.124428E-1	6.296422E-1	6.060301E-1	6.188396E-1	6.640541E-1	6.410513E-1	5.909416E-1	6.264285E-1	6.012887E-1	6.253584E-1	5.704868E-1	6.181134E-1	5.849370E-1	6.216739E-1	6.052077E-1	5.946678E-1	6.192747E-1	5.963717E-1	5.838723E-1	5.951713E-1	6.254563E-1	6.028396E-1	5.935587E-1	6.214308E-1	6.191322E-1	6.094028E-1	6.039814E-1	6.248189E-1	5.669658E-1	6.090282E-1	6.048885E-1	6.043876E-1	6.232936E-1	5.741719E-1	5.869374E-1	6.068891E-1	5.854468E-1	6.279845E-1	6.003546E-1	5.960866E-1	6.082980E-1	5.977606E-1	5.896379E-1	6.705370E-1	5.976442E-1	5.974151E-1	6.090362E-1	6.567119E-1	6.364817E-1	6.143384E-1	6.331234E-1	6.378882E-1	6.238073E-1	5.844367E-1	5.747814E-1	6.296308E-1	6.043616E-1	6.139247E-1	6.036609E-1	6.088645E-1	6.376999E-1	6.078785E-1	6.279858E-1	6.022675E-1	6.204461E-1	5.967551E-1	5.656785E-1	6.546443E-1	6.360798E-1	6.154501E-1	6.013351E-1	5.723849E-1	6.209945E-1	5.977684E-1	6.448584E-1	6.397303E-1	6.210101E-1	6.213070E-1	6.106786E-1	6.274289E-1	6.107652E-1	6.061070E-1	6.194360E-1	6.246221E-1	5.919792E-1	5.863336E-1	6.265136E-1	6.306147E-1	5.953390E-1	5.893373E-1	5.836947E-1	6.037942E-1	6.320445E-1	6.284237E-1	6.165320E-1	5.949105E-1	6.029309E-1	6.065263E-1	5.957879E-1	6.368174E-1	6.048530E-1	5.996977E-1	5.975930E-1	6.307553E-1	6.114923E-1	6.003484E-1	6.487058E-1	6.245302E-1
5.367660E+2	5.286598E-1	5.660899E-1	5.448553E-1	5.628337E-1	5.586097E-1	5.599047E-1	5.557373E-1	5.360750E-1	5.776042E-1	5.628745E-1	5.658989E-1	5.412754E-1	5.348475E-1	5.496508E-1	5.326073E-1	5.349629E-1	5.292908E-1	5.386324E-1	5.420144E-1	5.439363E-1	5.376680E-1	5.556361E-1	5.273238E-1	5.664149E-1	5.389198E-1	5.816403E-1	5.706904E-1	5.318808E-1	5.674732E-1	5.544423E-1	6.012888E-1	5.465282E-1	5.627732E-1	5.649712E-1	5.395455E-1	5.404158E-1	5.332664E-1	5.272429E-1	5.406483E-1	5.716524E-1	5.419801E-1	5.790232E-1	5.518689E-1	5.412514E-1	5.276186E-1	5.471490E-1	5.329730E-1	5.553624E-1	5.573055E-1	5.208372E-1	5.574650E-1	5.527709E-1	5.153279E-1	5.856621E-1	5.600870E-1	5.715546E-1	5.548303E-1	5.282522E-1	5.246447E-1	5.282331E-1	5.064028E-1	5.246847E-1	5.665719E-1	5.539725E-1	5.382460E-1	5.870584E-1	5.436627E-1	5.423019E-1	5.603254E-1	5.410058E-1	5.683904E-1	5.457337E-1	5.502770E-1	5.353083E-1	5.600331E-1	5.478450E-1	5.759676E-1	5.380152E-1	5.500407E-1	5.428918E-1	5.237215E-1	5.752719E-1	5.622538E-1	5.620323E-1	5.289311E-1	5.118897E-1	5.305507E-1	5.525270E-1	5.126064E-1	5.357856E-1	5.564796E-1	5.510660E-1	5.578561E-1	5.395487E-1	5.532942E-1	5.557344E-1	5.582118E-1	5.330759E-1	5.294207E-1	5.911066E-1	5.658826E-1	5.420205E-1	5.621014E-1	5.577181E-1	5.565062E-1	5.624587E-1	5.701210E-1	5.537989E-1	5.556412E-1	5.105211E-1	5.622331E-1	5.409294E-1	5.439098E-1	5.293845E-1	5.918661E-1	5.521795E-1	5.300163E-1	5.653562E-1	5.440783E-1	5.436655E-1	5.622321E-1	5.514747E-1	5.631447E-1	5.494947E-1	5.792873E-1	5.789324E-1	5.398770E-1	5.857075E-1	5.354773E-1	5.554072E-1	5.736367E-1	5.415294E-1	5.859561E-1	5.213748E-1	5.722148E-1	5.577360E-1	5.709398E-1	5.803736E-1	5.704792E-1	5.702069E-1	5.758994E-1	5.457779E-1	5.740253E-1	5.648383E-1	5.434929E-1	5.474990E-1	5.501272E-1	5.757699E-1	5.862391E-1	5.484398E-1	5.742606E-1	5.577043E-1	5.601934E-1	5.663916E-1	5.873543E-1	5.947690E-1	5.689631E-1	5.707046E-1	5.536301E-1	5.676794E-1	5.693647E-1	5.323792E-1	5.723634E-1	5.654366E-1	5.570199E-1	5.703067E-1	6.038046E-1	5.635155E-1	5.788243E-1	5.497977E-1	5.593091E-1
5.370120E+2	5.488909E-1	5.126449E-1	5.752900E-1	5.365964E-1	5.476472E-1	5.228731E-1	5.644139E-1	5.336027E-1	5.535867E-1	5.450634E-1	5.362803E-1	5.737547E-1	5.240336E-1	5.408984E-1	5.580711E-1	5.558651E-1	5.458577E-1	5.617062E-1	5.355108E-1	5.548146E-1	5.660121E-1	5.686307E-1	5.236661E-1	5.385719E-1	5.555779E-1	5.159531E-1	5.466927E-1	5.490675E-1	6.076814E-1	5.504478E-1	5.708771E-1	5.672468E-1	5.249123E-1	5.284336E-1	5.726550E-1	5.682197E-1	5.355169E-1	5.524108E-1	5.521460E-1	5.576482E-1	5.209168E-1	5.438230E-1	5.785259E-1	5.792384E-1	5.212701E-1	5.593748E-1	5.656452E-1	5.722517E-1	5.466997E-1	5.522948E-1	5.733404E-1	5.531984E-1	5.570194E-1	5.459593E-1	5.663655E-1	5.627996E-1	5.410971E-1	5.403095E-1	5.390563E-1	5.462640E-1	5.354934E-1	5.695327E-1	5.542348E-1	5.699558E-1	5.857420E-1	5.619779E-1	5.384388E-1	5.774233E-1	5.638800E-1	5.646884E-1	5.495127E-1	5.528077E-1	5.596560E-1	5.323042E-1	5.380283E-1	5.728616E-1	5.396102E-1	5.310258E-1	5.436799E-1	5.394132E-1	5.429945E-1	5.543153E-1	5.739351E-1	5.474747E-1	5.244774E-1	5.306454E-1	5.980083E-1	5.587363E-1	5.586743E-1	5.690009E-1	5.052041E-1	5.269138E-1	5.103058E-1	5.459451E-1	5.498791E-1	5.606098E-1	5.715619E-1	5.393417E-1	5.827320E-1	5.598501E-1	5.634031E-1	5.486447E-1	5.397834E-1	5.526754E-1	5.328292E-1	5.696724E-1	5.220045E-1	5.541672E-1	5.623843E-1	5.571658E-1	5.679678E-1	5.577210E-1	5.498800E-1	5.846802E-1	5.589533E-1	5.424410E-1	5.478781E-1	5.394733E-1	5.452121E-1	5.673329E-1	5.651455E-1	5.704497E-1	5.864399E-1	5.640366E-1	5.419396E-1	5.767469E-1	5.556657E-1	5.268729E-1	5.422709E-1	5.707998E-1	5.684902E-1	5.544359E-1	5.607870E-1	5.628069E-1	5.888480E-1	5.736140E-1	5.549242E-1	5.605633E-1	6.093991E-1	5.599504E-1	5.288140E-1	5.721552E-1	5.721538E-1	5.857058E-1	5.420817E-1	5.665516E-1	5.826053E-1	5.555484E-1	5.218997E-1	5.468494E-1	5.393533E-1	5.682373E-1	5.651903E-1	5.251455E-1	5.894196E-1	5.742436E-1	5.702213E-1	5.501108E-1	5.678447E-1	5.544603E-1	5.701177E-1	5.254857E-1	5.543085E-1	5.475217E-1	5.511200E-1	5.329031E-1	5.571207E-1	5.541302E-1	5.288124E-1	5.377234E-1	6.051330E-1
5.372590E+2	6.110984E-1	5.985996E-1	6.375614E-1	6.296269E-1	6.310653E-1	6.216550E-1	6.539781E-1	6.850623E-1	6.127417E-1	6.035936E-1	5.851865E-1	6.546228E-1	6.097051E-1	6.216621E-1	6.239500E-1	6.218724E-1	6.240290E-1	6.004081E-1	6.116215E-1	6.618455E-1	6.495044E-1	6.309112E-1	6.118685E-1	6.278824E-1	6.258762E-1	5.952951E-1	6.443739E-1	6.020172E-1	6.231084E-1	6.330580E-1	6.055903E-1	6.282396E-1	5.994909E-1	6.362324E-1	6.036146E-1	6.209914E-1	6.426588E-1	6.155764E-1	6.130367E-1	5.963620E-1	6.060593E-1	6.371048E-1	6.669872E-1	6.470532E-1	6.230249E-1	6.369300E-1	5.785660E-1	6.322203E-1	5.941953E-1	6.128581E-1	6.200851E-1	6.640115E-1	5.808552E-1	6.193703E-1	6.461243E-1	6.312053E-1	6.074200E-1	5.908862E-1	6.639737E-1	6.077843E-1	6.369067E-1	5.992151E-1	5.993020E-1	6.096243E-1	6.044791E-1	5.980639E-1	6.091807E-1	6.193445E-1	6.285481E-1	6.125952E-1	6.126194E-1	6.113330E-1	6.200041E-1	6.217455E-1	6.174733E-1	5.787548E-1	6.070625E-1	6.307516E-1	6.066735E-1	6.266522E-1	5.883554E-1	5.984780E-1	6.190161E-1	5.831631E-1	6.501941E-1	6.266566E-1	6.122346E-1	6.434462E-1	5.809163E-1	6.374163E-1	5.839125E-1	6.472582E-1	6.228641E-1	6.061525E-1	6.417661E-1	6.321589E-1	6.087036E-1	6.204132E-1	6.339201E-1	6.189683E-1	6.442721E-1	6.024777E-1	6.496428E-1	5.869747E-1	6.209597E-1	6.004224E-1	6.276324E-1	6.526236E-1	6.352964E-1	5.952798E-1	6.012757E-1	6.331418E-1	6.266609E-1	6.209579E-1	6.463070E-1	6.425938E-1	6.165875E-1	6.035546E-1	6.482560E-1	6.546288E-1	5.742149E-1	5.941493E-1	6.271559E-1	5.852815E-1	6.220006E-1	5.974412E-1	6.126106E-1	6.065252E-1	6.179430E-1	6.174704E-1	6.250819E-1	6.600337E-1	6.468213E-1	6.291100E-1	6.449974E-1	6.685290E-1	6.022558E-1	6.512385E-1	6.555139E-1	6.098309E-1	6.339944E-1	6.279679E-1	6.336954E-1	6.293473E-1	6.164412E-1	6.129717E-1	6.215382E-1	6.047120E-1	6.168978E-1	6.072390E-1	6.391092E-1	6.499991E-1	6.043483E-1	6.254572E-1	6.251949E-1	6.202703E-1	6.313353E-1	6.666289E-1	5.867324E-1	6.502656E-1	6.256623E-1	6.320230E-1	6.349174E-1	5.863912E-1	5.938922E-1	6.206640E-1	6.771017E-1	6.426927E-1	6.331007E-1	5.385477E-1	6.134070E-1
5.375110E+2	6.942895E-1	6.975525E-1	7.025289E-1	6.687244E-1	6.756707E-1	7.127035E-1	7.169327E-1	7.129880E-1	7.079638E-1	6.583562E-1	7.105078E-1	7.127630E-1	6.787733E-1	7.107153E-1	7.237322E-1	7.220072E-1	7.267132E-1	7.043699E-1	7.075033E-1	6.947252E-1	6.826563E-1	6.869443E-1	6.937788E-1	6.998310E-1	7.077733E-1	7.118615E-1	7.209406E-1	6.934641E-1	7.066349E-1	7.102406E-1	6.974418E-1	7.229247E-1	7.037368E-1	7.315400E-1	7.095266E-1	6.969520E-1	7.197824E-1	7.128770E-1	7.413618E-1	7.042478E-1	7.031955E-1	7.176079E-1	7.324811E-1	7.237831E-1	6.879669E-1	7.324899E-1	6.974197E-1	7.455186E-1	7.337097E-1	7.307759E-1	7.163172E-1	7.291630E-1	7.240587E-1	7.166683E-1	7.165303E-1	7.084135E-1	7.352496E-1	6.881857E-1	7.653104E-1	7.107510E-1	7.087765E-1	7.105723E-1	6.967023E-1	7.077528E-1	6.994720E-1	7.368573E-1	7.062398E-1	7.470039E-1	7.035783E-1	7.176815E-1	6.977932E-1	7.241202E-1	7.309614E-1	7.099181E-1	6.943443E-1	7.003249E-1	7.348073E-1	6.747459E-1	7.108488E-1	7.065124E-1	7.140993E-1	7.120369E-1	6.991947E-1	6.974351E-1	6.786526E-1	7.275819E-1	7.424515E-1	6.956961E-1	6.689365E-1	7.682322E-1	7.143994E-1	7.517488E-1	6.677403E-1	7.076267E-1	7.000503E-1	7.507869E-1	7.241936E-1	7.003071E-1	7.400228E-1	7.253869E-1	7.341264E-1	7.039693E-1	7.171860E-1	7.217820E-1	7.030435E-1	7.447193E-1	7.294257E-1	7.287494E-1	7.118093E-1	7.120816E-1	7.217738E-1	7.446876E-1	7.180280E-1	7.041762E-1	7.136946E-1	7.037598E-1	6.898414E-1	6.816001E-1	7.349087E-1	7.184858E-1	6.809301E-1	7.230194E-1	6.799302E-1	6.833920E-1	7.169499E-1	6.867038E-1	7.181558E-1	7.045575E-1	7.266051E-1	7.033032E-1	7.622116E-1	6.834213E-1	6.994468E-1	7.042446E-1	6.953855E-1	7.645064E-1	6.981205E-1	7.587708E-1	7.659948E-1	7.164339E-1	7.039915E-1	6.713645E-1	7.270334E-1	6.955022E-1	6.927040E-1	7.055867E-1	7.318217E-1	7.086748E-1	7.340684E-1	7.141223E-1	6.856831E-1	7.243505E-1	7.021149E-1	7.293334E-1	7.438174E-1	7.285248E-1	6.927137E-1	7.212256E-1	6.946644E-1	7.376388E-1	7.104921E-1	7.296355E-1	7.541951E-1	7.208150E-1	6.767533E-1	7.126574E-1	7.146943E-1	6.717128E-1	7.138146E-1	7.362158E-1	6.812521E-1
5.377580E+2	7.743939E-1	7.813702E-1	7.993411E-1	8.245628E-1	8.061297E-1	7.773613E-1	8.253240E-1	7.779350E-1	7.952251E-1	7.746186E-1	7.912368E-1	8.365805E-1	7.824162E-1	8.180290E-1	8.041384E-1	8.168923E-1	8.379141E-1	8.002554E-1	8.426057E-1	7.809102E-1	8.129568E-1	7.884035E-1	7.866208E-1	7.932688E-1	7.861473E-1	7.587239E-1	8.131264E-1	8.202448E-1	8.283909E-1	8.323177E-1	8.243058E-1	8.159117E-1	8.007969E-1	8.084191E-1	8.255423E-1	7.864269E-1	7.893382E-1	8.296380E-1	7.659095E-1	7.955494E-1	7.648131E-1	8.036675E-1	8.219943E-1	8.015309E-1	8.052820E-1	7.843203E-1	7.807451E-1	7.724152E-1	7.854689E-1	7.826717E-1	8.219042E-1	7.839000E-1	8.271925E-1	8.254803E-1	8.281656E-1	8.165050E-1	8.296552E-1	7.400780E-1	8.145113E-1	7.946820E-1	7.892709E-1	8.163686E-1	8.389510E-1	8.150710E-1	7.969430E-1	7.744959E-1	8.441564E-1	8.566389E-1	7.846839E-1	8.202830E-1	7.861489E-1	8.127539E-1	8.440715E-1	7.865312E-1	8.203727E-1	8.297281E-1	7.986233E-1	7.725538E-1	7.687863E-1	7.756356E-1	7.659519E-1	7.796535E-1	7.985372E-1	8.000430E-1	7.894802E-1	8.089907E-1	7.900340E-1	8.440750E-1	8.039509E-1	8.320374E-1	7.984818E-1	8.134069E-1	8.402744E-1	8.151060E-1	8.134163E-1	8.519230E-1	7.764477E-1	8.299084E-1	8.041670E-1	8.205840E-1	7.949366E-1	8.287337E-1	8.466052E-1	8.047596E-1	7.993934E-1	8.444257E-1	7.608542E-1	8.096753E-1	7.794075E-1	8.398341E-1	8.120099E-1	8.109685E-1	7.946778E-1	8.094900E-1	7.984777E-1	8.500496E-1	7.590158E-1	7.859821E-1	8.050420E-1	8.146369E-1	7.959223E-1	8.301644E-1	8.308324E-1	8.090108E-1	7.959094E-1	8.001017E-1	8.046811E-1	8.658697E-1	8.074662E-1	7.780838E-1	8.214389E-1	8.289102E-1	7.734150E-1	8.093650E-1	8.484546E-1	7.903717E-1	7.924367E-1	7.959600E-1	8.345798E-1	7.861044E-1	7.709406E-1	7.904875E-1	8.485797E-1	8.042766E-1	7.857577E-1	8.076803E-1	7.742127E-1	7.999588E-1	7.971833E-1	7.879781E-1	8.322781E-1	7.868389E-1	8.102303E-1	8.084419E-1	8.042977E-1	7.866794E-1	8.387427E-1	7.993031E-1	7.899412E-1	7.871598E-1	7.694883E-1	8.065699E-1	8.172465E-1	8.021073E-1	8.081487E-1	7.857287E-1	7.853002E-1	7.971281E-1	8.451714E-1	8.216317E-1	7.872989E-1
5.380110E+2	9.002407E-1	9.588529E-1	9.306752E-1	9.098129E-1	9.432728E-1	9.677175E-1	9.440369E-1	9.352610E-1	9.318162E-1	9.719938E-1	9.189954E-1	9.194248E-1	9.354356E-1	8.844215E-1	9.410576E-1	9.725069E-1	9.797645E-1	9.713156E-1	9.707294E-1	9.198048E-1	9.745013E-1	9.276188E-1	9.164695E-1	9.629622E-1	9.745351E-1	9.760840E-1	9.352869E-1	9.522956E-1	9.200393E-1	9.126571E-1	9.394731E-1	9.221076E-1	9.776079E-1	9.547101E-1	9.905560E-1	9.094843E-1	9.518082E-1	9.529027E-1	9.188626E-1	9.469875E-1	9.628400E-1	9.862620E-1	9.088279E-1	9.523635E-1	9.231829E-1	8.962967E-1	9.377703E-1	9.627551E-1	9.359247E-1	8.971615E-1	9.400208E-1	9.273827E-1	9.431505E-1	9.329050E-1	9.397815E-1	9.424677E-1	9.682113E-1	9.525521E-1	9.268762E-1	9.127898E-1	9.344029E-1	9.091179E-1	9.224807E-1	9.192120E-1	9.335918E-1	9.794110E-1	9.078174E-1	9.892254E-1	9.120632E-1	9.383197E-1	1.031071E+0	9.238372E-1	9.621662E-1	9.157999E-1	9.529118E-1	8.568544E-1	9.096159E-1	9.416011E-1	9.355486E-1	9.531202E-1	8.951558E-1	9.201501E-1	9.762670E-1	9.182385E-1	9.169454E-1	9.149523E-1	9.475857E-1	9.554619E-1	9.421595E-1	9.313309E-1	9.250017E-1	9.459703E-1	8.977099E-1	9.240690E-1	9.064294E-1	9.240643E-1	9.468848E-1	9.395291E-1	9.247706E-1	9.742415E-1	9.396243E-1	9.045722E-1	9.178753E-1	9.812113E-1	9.139529E-1	9.647674E-1	9.420738E-1	9.757682E-1	9.283063E-1	9.366610E-1	9.593237E-1	8.922510E-1	8.840044E-1	9.606481E-1	9.672111E-1	9.471577E-1	9.327929E-1	9.221104E-1	8.873129E-1	9.473280E-1	9.573466E-1	9.163460E-1	9.316266E-1	9.430576E-1	9.186056E-1	9.226766E-1	8.970543E-1	9.709014E-1	9.619575E-1	9.307392E-1	9.721246E-1	9.578272E-1	9.388440E-1	9.389812E-1	9.510498E-1	9.288420E-1	9.295640E-1	9.542802E-1	9.873812E-1	9.276151E-1	9.284732E-1	9.036128E-1	9.118175E-1	9.296242E-1	9.189691E-1	9.556379E-1	9.302563E-1	9.340563E-1	8.904447E-1	9.487498E-1	9.629892E-1	9.284848E-1	9.695315E-1	9.736053E-1	9.427927E-1	9.889101E-1	9.817230E-1	9.878393E-1	9.333790E-1	9.390269E-1	9.084766E-1	8.798724E-1	9.531024E-1	9.025406E-1	9.380089E-1	8.852705E-1	9.388818E-1	9.528357E-1	9.572303E-1	9.827229E-1	9.325259E-1
5.382850E+2	1.095882E+0	1.058132E+0	1.103012E+0	1.130545E+0	1.109373E+0	1.090169E+0	1.086177E+0	1.110703E+0	1.140515E+0	1.104957E+0	1.104878E+0	1.069040E+0	1.113766E+0	1.065309E+0	1.101656E+0	1.061117E+0	1.135146E+0	1.109690E+0	1.094936E+0	1.091793E+0	1.090650E+0	1.104915E+0	1.086884E+0	1.077779E+0	1.099491E+0	1.102714E+0	1.097591E+0	1.090078E+0	1.112301E+0	1.124417E+0	1.138742E+0	1.122379E+0	1.131303E+0	1.111909E+0	1.085404E+0	1.089299E+0	1.125416E+0	1.150358E+0	1.078074E+0	1.120212E+0	1.098902E+0	1.107752E+0	1.034079E+0	1.093686E+0	1.075347E+0	1.150737E+0	1.070050E+0	1.107608E+0	1.091411E+0	1.054375E+0	1.117742E+0	1.146120E+0	1.081129E+0	1.147066E+0	1.088674E+0	1.062801E+0	1.129147E+0	1.071328E+0	1.080152E+0	1.108987E+0	1.143277E+0	1.093861E+0	1.090390E+0	1.114322E+0	1.156870E+0	1.066281E+0	1.076825E+0	1.148661E+0	1.085163E+0	1.085323E+0	1.106109E+0	1.117656E+0	1.141435E+0	1.077139E+0	1.133348E+0	1.090055E+0	1.112242E+0	1.051111E+0	1.072683E+0	1.055353E+0	1.027849E+0	1.085604E+0	1.094536E+0	1.143506E+0	1.076437E+0	1.087637E+0	1.090927E+0	1.068336E+0	1.066864E+0	1.121960E+0	1.042482E+0	1.084392E+0	1.069095E+0	1.053139E+0	1.092577E+0	1.127945E+0	1.068730E+0	1.035566E+0	1.129258E+0	1.088209E+0	1.098282E+0	1.130744E+0	1.057621E+0	1.052477E+0	1.159650E+0	1.114926E+0	1.113541E+0	1.085251E+0	1.151247E+0	1.127322E+0	1.111372E+0	1.130271E+0	1.091027E+0	1.059003E+0	1.171373E+0	1.138274E+0	1.125533E+0	1.068878E+0	1.058946E+0	1.107822E+0	1.071062E+0	1.066187E+0	1.078958E+0	1.110062E+0	1.128319E+0	1.154179E+0	1.125748E+0	1.092337E+0	1.064719E+0	1.061232E+0	1.107771E+0	1.105710E+0	1.085618E+0	1.089077E+0	1.087313E+0	1.112845E+0	1.105836E+0	1.111573E+0	1.143899E+0	1.125923E+0	1.084803E+0	1.069390E+0	1.131388E+0	1.089990E+0	1.027607E+0	1.108089E+0	1.079233E+0	1.091181E+0	1.084593E+0	1.097165E+0	1.119706E+0	1.056017E+0	1.134721E+0	1.086706E+0	1.095821E+0	1.097615E+0	1.093260E+0	1.119016E+0	1.056460E+0	1.125437E+0	1.073056E+0	1.116842E+0	1.109144E+0	1.075585E+0	1.041398E+0	1.054767E+0	1.146623E+0	1.102624E+0	1.085350E+0	1.105696E+0	1.073210E+0
5.385110E+2	1.257499E+0	1.310234E+0	1.321014E+0	1.329674E+0	1.333490E+0	1.350712E+0	1.328334E+0	1.321087E+0	1.289551E+0	1.328603E+0	1.342942E+0	1.400319E+0	1.311180E+0	1.322508E+0	1.318068E+0	1.307083E+0	1.306703E+0	1.302716E+0	1.327946E+0	1.291910E+0	1.281085E+0	1.314736E+0	1.344896E+0	1.307181E+0	1.324905E+0	1.273465E+0	1.281629E+0	1.272396E+0	1.321248E+0	1.290771E+0	1.294697E+0	1.310178E+0	1.308224E+0	1.310030E+0	1.281712E+0	1.327546E+0	1.361903E+0	1.336796E+0	1.337670E+0	1.310859E+0	1.299450E+0	1.313183E+0	1.337334E+0	1.280850E+0	1.274372E+0	1.319143E+0	1.284929E+0	1.314037E+0	1.324981E+0	1.270335E+0	1.303041E+0	1.325001E+0	1.309009E+0	1.284352E+0	1.305194E+0	1.305815E+0	1.360373E+0	1.308985E+0	1.274505E+0	1.330309E+0	1.328022E+0	1.300659E+0	1.269641E+0	1.329940E+0	1.359469E+0	1.286357E+0	1.278795E+0	1.345261E+0	1.329265E+0	1.285949E+0	1.325122E+0	1.308764E+0	1.374541E+0	1.287769E+0	1.271626E+0	1.307233E+0	1.298090E+0	1.296297E+0	1.307902E+0	1.328676E+0	1.237230E+0	1.323583E+0	1.294595E+0	1.353627E+0	1.251984E+0	1.308207E+0	1.332987E+0	1.378548E+0	1.279237E+0	1.346604E+0	1.339473E+0	1.352326E+0	1.370716E+0	1.328273E+0	1.278959E+0	1.329684E+0	1.338626E+0	1.265404E+0	1.311658E+0	1.359693E+0	1.334124E+0	1.266089E+0	1.309347E+0	1.296589E+0	1.331926E+0	1.312392E+0	1.300085E+0	1.303751E+0	1.282195E+0	1.300087E+0	1.321892E+0	1.281252E+0	1.260539E+0	1.288320E+0	1.350541E+0	1.342978E+0	1.269467E+0	1.256712E+0	1.287723E+0	1.309231E+0	1.283750E+0	1.290404E+0	1.274644E+0	1.351919E+0	1.317483E+0	1.318807E+0	1.310259E+0	1.310942E+0	1.268036E+0	1.291482E+0	1.307063E+0	1.327187E+0	1.302645E+0	1.273420E+0	1.244028E+0	1.321482E+0	1.330847E+0	1.311391E+0	1.372807E+0	1.266093E+0	1.297836E+0	1.302968E+0	1.300199E+0	1.291173E+0	1.242957E+0	1.254279E+0	1.287482E+0	1.343739E+0	1.292329E+0	1.260371E+0	1.337383E+0	1.324333E+0	1.319836E+0	1.269537E+0	1.300906E+0	1.265197E+0	1.348000E+0	1.335440E+0	1.315867E+0	1.299372E+0	1.291747E+0	1.272401E+0	1.312780E+0	1.293908E+0	1.276017E+0	1.238809E+0	1.378196E+0	1.291826E+0	1.224143E+0	1.266819E+0	1.291735E+0
5.387700E+2	1.576769E+0	1.493571E+0	1.487326E+0	1.515919E+0	1.525966E+0	1.522619E+0	1.520172E+0	1.550753E+0	1.506234E+0	1.479857E+0	1.551577E+0	1.554998E+0	1.473067E+0	1.506449E+0	1.515247E+0	1.517603E+0	1.554396E+0	1.553968E+0	1.502536E+0	1.499142E+0	1.465933E+0	1.512335E+0	1.510966E+0	1.515337E+0	1.512858E+0	1.499457E+0	1.476319E+0	1.519727E+0	1.552469E+0	1.542963E+0	1.543996E+0	1.504652E+0	1.514218E+0	1.533350E+0	1.501411E+0	1.532247E+0	1.526725E+0	1.521305E+0	1.573667E+0	1.511595E+0	1.534187E+0	1.524402E+0	1.531558E+0	1.607624E+0	1.479649E+0	1.520468E+0	1.496645E+0	1.509981E+0	1.482059E+0	1.512882E+0	1.526660E+0	1.567352E+0	1.492148E+0	1.511744E+0	1.459149E+0	1.587394E+0	1.551603E+0	1.481190E+0	1.524949E+0	1.548984E+0	1.583788E+0	1.554293E+0	1.519693E+0	1.539736E+0	1.561226E+0	1.524571E+0	1.461781E+0	1.500257E+0	1.453576E+0	1.534527E+0	1.494879E+0	1.512729E+0	1.519590E+0	1.428170E+0	1.506519E+0	1.469304E+0	1.515803E+0	1.478105E+0	1.501419E+0	1.512421E+0	1.510539E+0	1.520914E+0	1.512529E+0	1.536040E+0	1.452770E+0	1.509077E+0	1.484460E+0	1.526734E+0	1.493965E+0	1.488372E+0	1.493768E+0	1.523196E+0	1.493556E+0	1.505537E+0	1.508233E+0	1.550779E+0	1.580051E+0	1.458780E+0	1.511120E+0	1.575637E+0	1.521140E+0	1.467809E+0	1.469359E+0	1.542971E+0	1.491357E+0	1.525306E+0	1.536989E+0	1.551194E+0	1.463010E+0	1.496907E+0	1.453098E+0	1.564292E+0	1.538913E+0	1.510030E+0	1.516857E+0	1.534380E+0	1.473203E+0	1.469682E+0	1.529035E+0	1.508921E+0	1.483931E+0	1.509882E+0	1.467291E+0	1.546179E+0	1.517117E+0	1.524811E+0	1.503111E+0	1.520482E+0	1.492577E+0	1.459191E+0	1.503546E+0	1.574836E+0	1.492793E+0	1.482114E+0	1.490317E+0	1.577223E+0	1.486507E+0	1.497424E+0	1.517883E+0	1.487707E+0	1.521293E+0	1.458824E+0	1.524362E+0	1.476950E+0	1.487823E+0	1.435010E+0	1.492288E+0	1.528383E+0	1.456809E+0	1.456432E+0	1.484481E+0	1.497350E+0	1.509089E+0	1.493574E+0	1.544785E+0	1.507812E+0	1.523228E+0	1.537734E+0	1.508552E+0	1.584845E+0	1.525512E+0	1.440751E+0	1.435247E+0	1.523255E+0	1.450016E+0	1.448596E+0	1.525403E+0	1.431635E+0	1.480523E+0	1.544077E+0	1.409450E+0
5.390450E+2	1.832593E+0	1.758509E+0	1.811856E+0	1.820158E+0	1.829218E+0	1.778341E+0	1.786631E+0	1.786553E+0	1.783489E+0	1.808282E+0	1.808614E+0	1.844738E+0	1.785294E+0	1.813646E+0	1.824092E+0	1.777120E+0	1.789884E+0	1.764358E+0	1.815729E+0	1.786236E+0	1.811991E+0	1.769629E+0	1.824003E+0	1.805637E+0	1.784597E+0	1.770815E+0	1.754452E+0	1.801104E+0	1.817693E+0	1.810434E+0	1.755792E+0	1.819009E+0	1.801788E+0	1.776245E+0	1.761329E+0	1.862089E+0	1.795520E+0	1.764140E+0	1.783649E+0	1.783026E+0	1.769960E+0	1.782465E+0	1.753761E+0	1.775590E+0	1.818189E+0	1.771611E+0	1.733754E+0	1.827306E+0	1.746915E+0	1.697453E+0	1.820750E+0	1.827820E+0	1.737521E+0	1.788584E+0	1.748202E+0	1.818801E+0	1.784939E+0	1.757951E+0	1.753267E+0	1.798220E+0	1.829495E+0	1.753366E+0	1.759067E+0	1.819316E+0	1.904241E+0	1.821071E+0	1.725706E+0	1.806922E+0	1.776836E+0	1.826509E+0	1.743115E+0	1.758831E+0	1.770033E+0	1.701503E+0	1.719241E+0	1.747946E+0	1.737430E+0	1.751669E+0	1.732688E+0	1.742970E+0	1.706101E+0	1.767096E+0	1.803435E+0	1.830749E+0	1.686092E+0	1.789872E+0	1.737830E+0	1.816060E+0	1.715534E+0	1.779011E+0	1.795670E+0	1.783432E+0	1.760668E+0	1.721820E+0	1.756217E+0	1.802029E+0	1.718679E+0	1.742036E+0	1.709169E+0	1.794655E+0	1.768083E+0	1.755968E+0	1.700879E+0	1.717242E+0	1.708105E+0	1.774493E+0	1.793504E+0	1.811045E+0	1.737140E+0	1.757296E+0	1.723064E+0	1.814595E+0	1.714055E+0	1.714737E+0	1.794171E+0	1.839525E+0	1.817450E+0	1.731608E+0	1.748699E+0	1.835587E+0	1.712914E+0	1.670459E+0	1.743348E+0	1.732279E+0	1.792979E+0	1.735366E+0	1.760513E+0	1.769085E+0	1.824545E+0	1.750083E+0	1.713505E+0	1.757815E+0	1.741862E+0	1.741751E+0	1.716500E+0	1.756486E+0	1.729794E+0	1.794598E+0	1.845419E+0	1.820363E+0	1.702315E+0	1.701015E+0	1.805452E+0	1.718426E+0	1.706818E+0	1.768357E+0	1.689388E+0	1.805244E+0	1.649253E+0	1.762783E+0	1.704423E+0	1.730333E+0	1.834572E+0	1.763810E+0	1.762892E+0	1.763312E+0	1.741539E+0	1.768603E+0	1.790636E+0	1.753143E+0	1.710273E+0	1.723032E+0	1.716395E+0	1.765921E+0	1.771216E+0	1.731681E+0	1.685149E+0	1.763217E+0	1.680085E+0	1.670023E+0	1.820314E+0
5.392620E+2	2.034875E+0	1.940825E+0	2.042342E+0	1.960797E+0	1.981511E+0	1.975099E+0	2.019084E+0	1.986139E+0	2.025196E+0	1.940798E+0	2.011778E+0	2.005832E+0	1.961419E+0	1.941537E+0	1.986388E+0	2.008111E+0	2.004307E+0	2.052421E+0	2.014163E+0	2.023938E+0	1.971104E+0	2.013114E+0	1.953114E+0	1.926655E+0	1.984352E+0	1.933916E+0	2.013413E+0	1.984900E+0	1.991555E+0	1.951868E+0	1.962398E+0	1.988239E+0	1.945009E+0	1.954964E+0	1.949579E+0	1.950902E+0	1.992013E+0	1.969617E+0	1.957996E+0	1.967175E+0	2.055233E+0	1.935029E+0	2.026038E+0	2.028023E+0	1.974226E+0	1.992529E+0	1.872856E+0	1.974633E+0	1.931598E+0	1.898389E+0	1.959172E+0	2.052533E+0	1.973553E+0	1.947388E+0	1.981986E+0	1.970053E+0	1.934369E+0	1.930098E+0	1.901920E+0	1.939129E+0	1.945856E+0	1.937477E+0	1.938634E+0	2.006675E+0	2.010888E+0	2.035096E+0	1.886182E+0	2.026478E+0	1.961477E+0	1.947894E+0	1.892433E+0	1.997024E+0	1.958761E+0	1.946328E+0	1.884353E+0	1.927400E+0	1.940350E+0	1.924123E+0	1.925057E+0	1.998840E+0	1.900482E+0	1.929881E+0	1.941871E+0	2.012568E+0	1.920752E+0	1.964320E+0	1.949080E+0	1.973761E+0	2.012809E+0	2.034973E+0	1.960350E+0	1.925440E+0	1.974603E+0	1.943224E+0	1.972885E+0	2.030412E+0	1.968810E+0	1.852261E+0	1.910926E+0	1.959308E+0	1.943931E+0	1.928812E+0	1.857485E+0	1.955590E+0	1.959075E+0	2.032697E+0	1.943686E+0	2.031295E+0	1.959145E+0	1.925871E+0	1.911194E+0	1.927672E+0	1.866525E+0	1.904452E+0	1.959839E+0	2.034224E+0	1.919552E+0	1.924674E+0	1.949859E+0	1.985650E+0	1.818587E+0	1.899685E+0	1.933400E+0	1.954097E+0	1.992214E+0	1.915298E+0	1.941780E+0	1.961641E+0	1.902081E+0	1.905889E+0	1.970791E+0	1.945581E+0	1.897231E+0	1.913890E+0	1.840805E+0	1.940299E+0	1.913958E+0	1.980474E+0	1.967805E+0	1.939886E+0	1.895687E+0	2.000266E+0	1.950201E+0	1.978432E+0	1.946080E+0	1.933315E+0	1.972107E+0	1.934003E+0	1.875762E+0	1.868945E+0	1.896262E+0	1.964657E+0	2.013707E+0	1.941211E+0	1.959507E+0	1.903987E+0	1.947557E+0	1.941476E+0	1.841912E+0	1.927585E+0	1.842929E+0	1.928308E+0	1.938136E+0	1.923893E+0	1.945468E+0	1.873813E+0	1.911767E+0	1.929872E+0	1.905504E+0	1.941309E+0	1.874741E+0
5.395370E+2	2.211218E+0	2.188991E+0	2.137556E+0	2.207734E+0	2.285116E+0	2.219928E+0	2.146838E+0	2.163763E+0	2.169449E+0	2.222389E+0	2.286291E+0	2.168165E+0	2.228667E+0	2.146072E+0	2.210215E+0	2.240935E+0	2.239374E+0	2.204221E+0	2.253916E+0	2.197347E+0	2.184818E+0	2.138083E+0	2.105729E+0	2.241531E+0	2.157254E+0	2.164682E+0	2.158470E+0	2.244727E+0	2.223498E+0	2.225413E+0	2.184398E+0	2.211686E+0	2.177889E+0	2.082078E+0	2.129264E+0	2.150667E+0	2.146081E+0	2.181926E+0	2.157345E+0	2.215638E+0	2.187159E+0	2.243642E+0	2.133088E+0	2.237360E+0	2.153894E+0	2.149663E+0	2.161987E+0	2.240186E+0	2.096488E+0	2.129391E+0	2.150974E+0	2.202351E+0	2.151343E+0	2.161648E+0	2.142058E+0	2.191804E+0	2.150303E+0	2.095862E+0	2.102523E+0	2.196118E+0	2.184069E+0	2.131193E+0	2.251212E+0	2.218913E+0	2.217194E+0	2.252974E+0	2.155197E+0	2.300925E+0	2.162462E+0	2.161746E+0	2.123296E+0	2.172308E+0	2.174971E+0	2.120412E+0	2.143310E+0	2.177304E+0	2.149403E+0	2.195150E+0	2.130395E+0	2.154611E+0	2.118033E+0	2.154255E+0	2.183039E+0	2.185144E+0	2.147424E+0	2.170231E+0	2.175484E+0	2.133952E+0	2.135828E+0	2.160717E+0	2.121273E+0	2.131627E+0	2.144313E+0	2.101793E+0	2.155221E+0	2.125274E+0	2.162520E+0	2.079736E+0	2.129082E+0	2.180589E+0	2.131532E+0	2.183413E+0	2.094085E+0	2.211263E+0	2.128371E+0	2.195807E+0	2.146666E+0	2.158442E+0	2.151581E+0	2.134643E+0	2.145083E+0	2.128418E+0	2.212642E+0	2.150884E+0	2.127390E+0	2.187752E+0	2.206894E+0	2.077001E+0	2.141294E+0	2.180404E+0	2.067318E+0	2.088441E+0	2.086998E+0	2.138611E+0	2.157814E+0	2.079797E+0	2.156351E+0	2.168711E+0	2.144041E+0	2.068629E+0	2.106287E+0	2.181661E+0	2.179171E+0	2.045042E+0	2.080248E+0	2.159456E+0	2.122670E+0	2.165245E+0	2.185839E+0	2.148227E+0	2.155478E+0	2.127859E+0	2.184030E+0	2.158919E+0	2.117084E+0	2.155245E+0	2.066206E+0	2.149085E+0	2.037173E+0	2.064090E+0	2.127156E+0	2.136805E+0	2.187613E+0	2.097898E+0	2.102897E+0	2.097283E+0	2.139974E+0	2.185448E+0	2.142818E+0	2.136702E+0	2.085026E+0	2.085511E+0	2.162873E+0	2.100331E+0	2.062253E+0	2.074971E+0	2.046341E+0	2.169146E+0	2.017004E+0	2.077307E+0	2.073177E+0
5.397860E+2	2.235642E+0	2.156565E+0	2.175604E+0	2.193617E+0	2.253821E+0	2.168516E+0	2.244585E+0	2.273270E+0	2.245820E+0	2.133011E+0	2.280196E+0	2.230227E+0	2.185136E+0	2.241811E+0	2.150300E+0	2.278949E+0	2.253476E+0	2.188028E+0	2.158371E+0	2.204829E+0	2.169231E+0	2.153644E+0	2.152540E+0	2.226440E+0	2.151928E+0	2.245934E+0	2.199263E+0	2.233459E+0	2.210322E+0	2.199035E+0	2.154010E+0	2.219726E+0	2.221107E+0	2.203642E+0	2.211843E+0	2.222718E+0	2.231842E+0	2.212871E+0	2.181221E+0	2.117273E+0	2.132998E+0	2.164404E+0	2.231606E+0	2.168772E+0	2.115138E+0	2.138436E+0	2.125142E+0	2.210434E+0	2.123783E+0	2.205150E+0	2.136795E+0	2.175187E+0	2.097395E+0	2.177209E+0	2.192293E+0	2.216731E+0	2.222500E+0	2.146083E+0	2.142330E+0	2.108993E+0	2.155035E+0	2.192460E+0	2.156721E+0	2.187107E+0	2.198531E+0	2.189747E+0	2.149390E+0	2.237974E+0	2.204261E+0	2.128981E+0	2.178680E+0	2.141495E+0	2.170201E+0	2.098103E+0	2.103191E+0	2.114165E+0	2.155328E+0	2.069331E+0	2.152169E+0	2.175934E+0	2.174734E+0	2.126219E+0	2.154230E+0	2.185772E+0	2.102699E+0	2.117231E+0	2.124572E+0	2.143049E+0	2.146541E+0	2.119275E+0	2.108800E+0	2.217789E+0	2.116005E+0	2.175515E+0	2.155765E+0	2.140170E+0	2.133681E+0	2.087117E+0	2.139938E+0	2.230559E+0	2.196266E+0	2.209264E+0	2.110458E+0	2.101255E+0	2.121625E+0	2.191196E+0	2.164927E+0	2.195180E+0	2.166342E+0	2.121519E+0	2.151536E+0	2.162950E+0	2.087662E+0	2.153572E+0	2.132298E+0	2.235414E+0	2.155528E+0	2.116065E+0	2.121716E+0	2.150110E+0	2.209559E+0	2.134914E+0	2.169873E+0	2.119714E+0	2.114017E+0	2.150911E+0	2.156777E+0	2.124064E+0	2.151917E+0	2.146549E+0	2.126112E+0	2.129440E+0	2.198052E+0	2.072472E+0	2.133673E+0	2.049965E+0	2.110436E+0	2.157851E+0	2.151971E+0	2.137048E+0	2.107735E+0	2.163793E+0	2.166876E+0	2.121864E+0	2.130577E+0	2.103078E+0	2.089438E+0	2.186208E+0	2.086447E+0	2.020748E+0	2.079108E+0	2.123120E+0	2.076176E+0	2.125413E+0	2.076845E+0	2.121411E+0	2.147191E+0	2.141726E+0	2.175253E+0	2.137175E+0	2.079582E+0	2.107311E+0	2.155549E+0	2.106495E+0	2.028600E+0	2.033087E+0	2.077671E+0	2.138095E+0	2.055435E+0	2.051678E+0	2.124160E+0
5.400240E+2	2.165795E+0	2.025478E+0	2.087006E+0	2.113187E+0	2.132688E+0	2.098273E+0	2.127415E+0	2.047974E+0	2.116762E+0	2.082449E+0	2.088581E+0	2.116964E+0	2.090943E+0	2.109443E+0	2.123293E+0	2.087187E+0	2.165162E+0	2.165189E+0	2.113778E+0	2.169500E+0	2.082528E+0	2.089488E+0	2.008828E+0	2.116093E+0	2.103700E+0	2.069626E+0	2.120489E+0	2.077684E+0	2.137310E+0	2.094699E+0	2.089985E+0	2.107885E+0	2.077961E+0	2.094908E+0	2.080094E+0	2.077994E+0	2.098676E+0	2.085924E+0	2.065965E+0	2.035926E+0	2.038460E+0	2.139770E+0	2.074739E+0	2.136021E+0	2.016056E+0	2.094616E+0	2.040577E+0	2.083379E+0	2.071408E+0	2.011113E+0	2.093746E+0	2.104158E+0	2.025272E+0	2.076167E+0	2.073621E+0	2.106516E+0	2.111834E+0	1.978886E+0	2.136510E+0	2.129095E+0	2.027008E+0	2.006413E+0	2.112638E+0	2.070786E+0	2.138569E+0	2.135873E+0	1.988870E+0	2.176236E+0	2.119824E+0	2.007777E+0	1.981284E+0	2.049145E+0	2.056195E+0	2.027956E+0	2.035977E+0	2.118855E+0	2.096346E+0	2.019737E+0	2.079744E+0	2.086004E+0	2.051931E+0	2.068215E+0	2.083155E+0	2.054537E+0	2.034004E+0	2.053016E+0	2.024857E+0	2.043123E+0	2.008464E+0	2.034930E+0	2.008282E+0	2.043863E+0	2.045981E+0	2.029526E+0	2.040074E+0	2.102177E+0	2.058850E+0	2.048320E+0	1.981447E+0	2.098425E+0	2.064252E+0	2.008355E+0	2.003228E+0	2.133894E+0	2.031958E+0	2.098982E+0	2.024364E+0	2.050496E+0	2.102596E+0	2.045285E+0	2.007845E+0	2.060814E+0	2.054930E+0	2.036873E+0	2.058156E+0	2.065628E+0	2.131965E+0	2.042181E+0	2.001737E+0	2.050589E+0	2.017610E+0	1.999690E+0	2.039889E+0	2.019634E+0	2.051108E+0	2.105222E+0	2.088880E+0	2.099435E+0	2.039759E+0	2.023472E+0	2.059998E+0	2.073117E+0	2.029747E+0	2.033793E+0	1.968155E+0	2.060610E+0	2.113379E+0	2.059194E+0	2.098293E+0	2.079320E+0	2.008981E+0	1.997321E+0	2.032426E+0	1.997066E+0	2.064375E+0	2.050660E+0	1.999342E+0	2.091165E+0	2.042944E+0	1.951636E+0	1.901484E+0	2.077164E+0	2.060789E+0	1.978586E+0	2.066795E+0	2.007203E+0	2.082523E+0	2.087628E+0	2.031583E+0	2.071530E+0	1.977786E+0	1.916713E+0	2.097345E+0	1.985859E+0	2.041328E+0	1.943422E+0	2.029833E+0	1.964945E+0	1.919650E+0	1.975165E+0	1.861924E+0
5.402740E+2	2.045995E+0	1.987849E+0	2.042270E+0	1.954858E+0	2.003814E+0	2.040706E+0	2.002071E+0	1.999349E+0	2.067796E+0	1.923778E+0	2.041212E+0	2.018412E+0	2.001133E+0	2.061274E+0	2.019560E+0	1.953593E+0	2.037894E+0	2.067619E+0	1.996269E+0	2.050890E+0	2.028202E+0	1.987887E+0	1.962474E+0	1.954065E+0	2.026036E+0	1.996891E+0	2.058675E+0	1.937297E+0	2.065624E+0	2.025557E+0	1.968187E+0	2.071791E+0	1.998284E+0	1.972497E+0	1.985633E+0	2.011924E+0	1.936580E+0	1.995879E+0	1.988677E+0	2.000139E+0	1.996432E+0	2.083795E+0	1.977801E+0	1.946408E+0	1.975162E+0	1.973743E+0	1.920391E+0	2.065259E+0	1.931064E+0	1.909633E+0	1.987436E+0	2.051652E+0	1.942404E+0	1.970558E+0	1.987729E+0	1.964240E+0	2.034511E+0	1.969887E+0	1.952614E+0	1.962468E+0	1.940994E+0	2.013530E+0	1.935438E+0	2.002073E+0	2.005121E+0	2.007818E+0	1.921855E+0	1.987544E+0	2.020319E+0	1.909706E+0	1.989345E+0	1.907714E+0	2.045714E+0	1.947935E+0	1.958874E+0	1.984944E+0	2.035549E+0	1.975214E+0	1.901224E+0	2.046720E+0	1.962591E+0	1.962061E+0	1.976883E+0	1.986303E+0	1.933759E+0	1.967348E+0	1.908561E+0	2.056839E+0	1.958443E+0	1.980309E+0	1.956694E+0	1.962492E+0	1.925500E+0	1.914946E+0	1.976340E+0	2.044491E+0	1.933148E+0	1.945740E+0	1.933848E+0	2.054232E+0	1.954183E+0	1.900622E+0	1.925493E+0	1.939340E+0	1.961403E+0	1.991328E+0	1.971970E+0	1.985932E+0	2.003333E+0	1.932226E+0	1.991557E+0	1.969028E+0	1.930339E+0	1.959430E+0	1.990373E+0	1.974036E+0	1.986680E+0	1.922959E+0	1.962803E+0	2.010195E+0	1.968257E+0	1.917635E+0	1.941834E+0	1.972965E+0	1.948421E+0	1.976470E+0	1.985075E+0	1.928875E+0	2.003065E+0	1.928252E+0	1.903618E+0	1.988663E+0	2.006977E+0	1.961938E+0	1.959990E+0	1.939602E+0	1.951916E+0	1.999805E+0	2.038304E+0	1.925901E+0	1.882170E+0	1.880109E+0	1.969540E+0	1.955035E+0	1.946710E+0	1.894095E+0	1.927511E+0	1.935456E+0	1.985903E+0	1.886288E+0	1.878895E+0	1.912777E+0	1.943572E+0	1.919947E+0	1.902026E+0	2.053172E+0	1.983646E+0	1.948143E+0	1.882618E+0	1.934930E+0	1.887696E+0	1.948266E+0	1.941762E+0	2.025408E+0	1.935207E+0	1.890756E+0	1.960966E+0	1.952492E+0	1.874866E+0	1.917982E+0	1.895193E+0
5.405080E+2	1.992540E+0	1.942136E+0	1.964872E+0	1.915290E+0	2.005888E+0	1.913789E+0	1.941293E+0	1.937005E+0	1.883407E+0	1.989897E+0	1.959449E+0	1.946691E+0	1.924365E+0	1.935935E+0	1.963102E+0	1.995406E+0	1.959676E+0	1.909875E+0	1.873496E+0	2.022005E+0	1.947811E+0	1.912604E+0	1.878375E+0	1.899143E+0	1.995100E+0	1.887058E+0	1.971963E+0	1.998771E+0	1.993143E+0	1.987989E+0	1.965362E+0	1.942667E+0	1.943014E+0	1.925183E+0	1.959895E+0	1.915849E+0	1.945659E+0	2.002232E+0	1.914761E+0	1.928107E+0	1.925996E+0	1.967424E+0	1.898049E+0	1.882194E+0	1.924066E+0	1.919789E+0	1.850669E+0	1.978719E+0	1.904557E+0	1.840330E+0	1.927111E+0	1.981966E+0	1.970538E+0	1.938989E+0	1.951870E+0	1.891877E+0	2.004924E+0	1.901301E+0	1.972151E+0	1.977971E+0	1.934077E+0	1.914663E+0	1.924105E+0	1.953325E+0	2.001229E+0	1.969606E+0	1.891488E+0	1.962836E+0	2.019105E+0	1.929906E+0	1.898428E+0	1.873583E+0	1.981610E+0	1.919783E+0	1.927917E+0	1.877803E+0	1.931838E+0	1.935168E+0	1.912543E+0	1.931909E+0	1.884577E+0	1.933799E+0	1.945289E+0	1.945930E+0	1.889835E+0	1.929956E+0	1.930891E+0	1.890689E+0	1.919371E+0	1.931102E+0	1.902619E+0	1.894225E+0	1.863946E+0	1.887855E+0	1.923623E+0	1.932660E+0	1.876668E+0	1.925997E+0	1.844695E+0	1.913707E+0	1.916463E+0	1.882703E+0	1.844551E+0	1.897042E+0	1.892090E+0	1.933821E+0	1.917549E+0	1.872800E+0	1.897221E+0	1.896027E+0	1.890058E+0	1.900893E+0	1.889520E+0	1.885710E+0	1.994470E+0	1.902279E+0	1.923364E+0	1.888639E+0	1.982133E+0	1.922250E+0	1.854975E+0	1.927320E+0	1.859338E+0	1.942660E+0	1.910795E+0	1.875408E+0	1.913866E+0	1.857331E+0	1.946005E+0	1.899344E+0	1.878731E+0	1.923305E+0	1.930181E+0	1.870478E+0	1.823514E+0	1.879432E+0	1.900770E+0	1.959619E+0	1.910428E+0	1.819728E+0	1.889465E+0	1.905816E+0	1.907556E+0	1.927492E+0	1.865673E+0	1.910580E+0	1.891279E+0	1.893227E+0	1.885360E+0	1.783099E+0	1.854826E+0	1.940722E+0	1.904700E+0	1.921053E+0	1.877446E+0	1.916985E+0	1.829941E+0	1.877852E+0	1.910564E+0	1.887707E+0	1.867472E+0	1.855704E+0	1.851501E+0	1.865893E+0	1.817837E+0	1.804960E+0	1.918536E+0	1.874452E+0	1.834486E+0	1.905001E+0	1.830530E+0
5.407630E+2	1.966455E+0	1.811966E+0	1.945305E+0	1.865321E+0	1.941829E+0	1.886727E+0	1.935459E+0	1.855606E+0	1.897538E+0	1.890198E+0	1.879187E+0	1.881527E+0	1.839425E+0	1.884951E+0	1.899248E+0	1.918846E+0	1.873977E+0	1.881931E+0	1.951429E+0	1.904979E+0	1.934630E+0	1.845897E+0	1.835971E+0	1.952613E+0	1.876391E+0	1.902844E+0	1.879404E+0	1.875407E+0	1.963364E+0	1.952091E+0	1.892826E+0	1.863129E+0	1.916737E+0	1.833393E+0	1.927944E+0	1.903350E+0	1.833445E+0	1.901100E+0	1.864501E+0	1.908900E+0	1.950123E+0	2.026316E+0	1.904391E+0	1.921402E+0	1.888672E+0	1.894207E+0	1.893171E+0	1.966608E+0	1.882393E+0	1.830769E+0	1.905843E+0	1.940417E+0	1.861452E+0	1.899573E+0	1.869148E+0	1.814390E+0	1.953834E+0	1.878320E+0	1.888453E+0	1.871411E+0	1.956128E+0	1.884916E+0	1.872890E+0	1.925109E+0	1.945126E+0	1.885846E+0	1.903568E+0	1.869391E+0	1.881168E+0	1.865404E+0	1.899043E+0	1.865105E+0	1.958029E+0	1.879655E+0	1.863880E+0	1.872446E+0	1.883240E+0	1.902219E+0	1.887483E+0	1.848099E+0	1.852371E+0	1.838676E+0	1.840576E+0	1.873872E+0	1.836355E+0	1.889370E+0	1.881790E+0	1.884943E+0	1.870555E+0	1.872937E+0	1.893866E+0	1.915383E+0	1.866009E+0	1.850546E+0	1.817501E+0	1.974546E+0	1.871099E+0	1.855334E+0	1.855051E+0	1.792131E+0	1.819819E+0	1.849156E+0	1.767635E+0	1.851953E+0	1.819163E+0	1.898115E+0	1.840766E+0	1.874102E+0	1.878430E+0	1.884644E+0	1.849679E+0	1.926332E+0	1.910607E+0	1.904163E+0	1.866054E+0	1.868618E+0	1.939962E+0	1.811299E+0	1.815661E+0	1.846911E+0	1.881371E+0	1.858126E+0	1.863313E+0	1.815675E+0	1.886872E+0	1.801979E+0	1.915201E+0	1.889457E+0	1.901829E+0	1.830987E+0	1.822466E+0	1.824795E+0	1.851694E+0	1.874930E+0	1.779846E+0	1.819699E+0	1.889037E+0	1.833608E+0	1.915685E+0	1.853207E+0	1.858392E+0	1.832210E+0	1.883208E+0	1.805834E+0	1.781628E+0	1.862149E+0	1.773691E+0	1.865462E+0	1.828485E+0	1.819135E+0	1.821874E+0	1.909565E+0	1.898852E+0	1.811744E+0	1.875622E+0	1.858115E+0	1.851627E+0	1.852663E+0	1.827266E+0	1.879987E+0	1.911015E+0	1.845158E+0	1.882024E+0	1.833218E+0	1.838537E+0	1.778671E+0	1.854556E+0	1.882880E+0	1.819481E+0	1.952462E+0	1.913958E+0
5.410190E+2	1.792645E+0	1.765765E+0	1.827455E+0	1.771214E+0	1.814065E+0	1.881916E+0	1.810333E+0	1.821665E+0	1.807549E+0	1.802534E+0	1.817031E+0	1.825573E+0	1.857482E+0	1.802723E+0	1.776921E+0	1.851231E+0	1.802150E+0	1.798555E+0	1.791122E+0	1.822768E+0	1.783651E+0	1.811217E+0	1.776653E+0	1.792047E+0	1.835078E+0	1.868440E+0	1.788442E+0	1.794897E+0	1.864915E+0	1.861765E+0	1.835356E+0	1.758512E+0	1.827477E+0	1.798336E+0	1.772986E+0	1.802082E+0	1.847824E+0	1.797897E+0	1.751686E+0	1.777231E+0	1.792758E+0	1.816685E+0	1.808969E+0	1.757014E+0	1.704799E+0	1.830590E+0	1.789141E+0	1.834732E+0	1.727677E+0	1.765541E+0	1.804443E+0	1.884239E+0	1.818962E+0	1.806816E+0	1.796618E+0	1.730986E+0	1.849700E+0	1.706462E+0	1.795374E+0	1.778627E+0	1.805781E+0	1.773864E+0	1.789189E+0	1.853189E+0	1.809411E+0	1.809666E+0	1.726399E+0	1.816165E+0	1.792963E+0	1.762616E+0	1.753973E+0	1.804127E+0	1.760297E+0	1.731641E+0	1.783694E+0	1.722813E+0	1.738656E+0	1.726332E+0	1.772871E+0	1.824792E+0	1.795215E+0	1.730124E+0	1.766286E+0	1.766193E+0	1.758746E+0	1.764337E+0	1.784143E+0	1.799366E+0	1.817980E+0	1.748896E+0	1.761208E+0	1.797843E+0	1.767420E+0	1.751630E+0	1.762763E+0	1.838387E+0	1.758368E+0	1.779664E+0	1.781616E+0	1.813827E+0	1.769277E+0	1.775788E+0	1.747512E+0	1.745074E+0	1.774545E+0	1.822935E+0	1.797648E+0	1.851733E+0	1.787611E+0	1.760532E+0	1.812133E+0	1.805756E+0	1.753550E+0	1.761903E+0	1.761116E+0	1.731105E+0	1.838561E+0	1.738883E+0	1.729598E+0	1.769565E+0	1.740066E+0	1.845512E+0	1.750807E+0	1.836678E+0	1.757074E+0	1.772831E+0	1.813094E+0	1.764023E+0	1.805268E+0	1.773222E+0	1.753471E+0	1.706374E+0	1.761128E+0	1.768615E+0	1.703164E+0	1.711105E+0	1.775199E+0	1.801529E+0	1.763030E+0	1.783909E+0	1.783396E+0	1.788936E+0	1.752581E+0	1.752830E+0	1.777383E+0	1.789519E+0	1.715737E+0	1.786720E+0	1.801705E+0	1.734257E+0	1.755818E+0	1.757191E+0	1.804172E+0	1.717057E+0	1.790817E+0	1.825418E+0	1.730957E+0	1.783771E+0	1.747452E+0	1.711511E+0	1.711686E+0	1.751037E+0	1.747790E+0	1.774305E+0	1.735732E+0	1.742391E+0	1.757493E+0	1.761180E+0	1.723452E+0	1.707042E+0	1.814526E+0
5.412690E+2	1.647672E+0	1.597143E+0	1.666312E+0	1.659055E+0	1.697032E+0	1.618610E+0	1.607858E+0	1.639079E+0	1.651591E+0	1.633751E+0	1.665642E+0	1.721759E+0	1.655822E+0	1.605479E+0	1.668051E+0	1.680428E+0	1.708905E+0	1.674633E+0	1.600493E+0	1.698756E+0	1.631670E+0	1.684099E+0	1.639200E+0	1.599801E+0	1.690057E+0	1.644014E+0	1.662626E+0	1.609610E+0	1.651346E+0	1.647052E+0	1.659535E+0	1.649479E+0	1.665363E+0	1.661566E+0	1.664628E+0	1.628610E+0	1.683862E+0	1.630449E+0	1.588242E+0	1.566308E+0	1.668420E+0	1.714858E+0	1.613666E+0	1.695438E+0	1.527279E+0	1.605414E+0	1.681613E+0	1.696676E+0	1.612208E+0	1.626194E+0	1.637413E+0	1.726584E+0	1.627522E+0	1.593509E+0	1.614616E+0	1.602498E+0	1.649549E+0	1.557140E+0	1.682165E+0	1.652088E+0	1.638954E+0	1.644505E+0	1.621516E+0	1.689535E+0	1.672925E+0	1.664981E+0	1.636743E+0	1.684164E+0	1.674890E+0	1.628509E+0	1.637200E+0	1.672538E+0	1.625534E+0	1.573047E+0	1.611127E+0	1.605152E+0	1.653360E+0	1.655952E+0	1.601405E+0	1.596805E+0	1.619767E+0	1.651899E+0	1.594706E+0	1.649082E+0	1.593737E+0	1.700359E+0	1.610972E+0	1.633197E+0	1.605136E+0	1.629223E+0	1.635723E+0	1.618518E+0	1.597005E+0	1.618097E+0	1.730056E+0	1.646637E+0	1.576822E+0	1.662945E+0	1.620537E+0	1.654554E+0	1.656190E+0	1.638553E+0	1.522743E+0	1.608196E+0	1.630431E+0	1.692542E+0	1.585340E+0	1.643689E+0	1.650414E+0	1.607069E+0	1.659144E+0	1.655876E+0	1.602106E+0	1.641168E+0	1.620495E+0	1.639769E+0	1.679235E+0	1.624604E+0	1.584164E+0	1.657837E+0	1.597017E+0	1.588218E+0	1.564662E+0	1.633883E+0	1.599322E+0	1.622904E+0	1.625659E+0	1.589998E+0	1.646828E+0	1.642806E+0	1.594304E+0	1.574190E+0	1.611456E+0	1.562417E+0	1.641230E+0	1.634452E+0	1.668337E+0	1.639548E+0	1.679485E+0	1.621764E+0	1.606097E+0	1.615565E+0	1.576709E+0	1.635756E+0	1.597092E+0	1.608470E+0	1.577227E+0	1.671394E+0	1.565015E+0	1.577744E+0	1.602737E+0	1.597470E+0	1.650209E+0	1.629456E+0	1.582256E+0	1.672711E+0	1.599197E+0	1.699972E+0	1.644552E+0	1.644702E+0	1.583127E+0	1.566546E+0	1.660596E+0	1.560355E+0	1.634718E+0	1.533587E+0	1.635148E+0	1.624066E+0	1.597613E+0	1.629423E+0	1.644181E+0
5.415140E+2	1.539987E+0	1.461281E+0	1.497910E+0	1.503375E+0	1.479225E+0	1.551225E+0	1.490538E+0	1.450843E+0	1.494211E+0	1.486860E+0	1.525469E+0	1.582913E+0	1.499627E+0	1.500973E+0	1.533479E+0	1.521858E+0	1.533351E+0	1.460513E+0	1.504137E+0	1.501351E+0	1.512184E+0	1.442355E+0	1.457985E+0	1.453973E+0	1.518671E+0	1.570990E+0	1.535079E+0	1.563525E+0	1.485815E+0	1.493024E+0	1.485536E+0	1.508494E+0	1.493953E+0	1.495036E+0	1.508806E+0	1.465458E+0	1.498097E+0	1.499057E+0	1.457507E+0	1.450342E+0	1.490925E+0	1.520855E+0	1.545942E+0	1.497149E+0	1.458445E+0	1.476732E+0	1.492041E+0	1.539114E+0	1.517891E+0	1.509020E+0	1.490421E+0	1.525699E+0	1.486591E+0	1.523583E+0	1.444436E+0	1.511070E+0	1.516374E+0	1.464542E+0	1.445565E+0	1.468217E+0	1.482742E+0	1.518925E+0	1.466402E+0	1.524128E+0	1.459007E+0	1.477551E+0	1.473511E+0	1.533795E+0	1.530486E+0	1.495079E+0	1.445455E+0	1.476007E+0	1.506423E+0	1.527815E+0	1.462327E+0	1.472705E+0	1.491940E+0	1.492512E+0	1.515458E+0	1.509574E+0	1.469830E+0	1.421470E+0	1.497721E+0	1.469770E+0	1.494320E+0	1.507252E+0	1.480357E+0	1.497595E+0	1.517100E+0	1.439043E+0	1.521682E+0	1.524437E+0	1.480391E+0	1.436299E+0	1.545735E+0	1.511382E+0	1.485710E+0	1.467372E+0	1.465845E+0	1.535813E+0	1.506439E+0	1.479566E+0	1.425392E+0	1.474451E+0	1.495298E+0	1.520680E+0	1.457031E+0	1.558826E+0	1.482599E+0	1.538152E+0	1.444197E+0	1.509246E+0	1.505970E+0	1.462859E+0	1.501184E+0	1.451190E+0	1.560476E+0	1.498231E+0	1.487904E+0	1.479447E+0	1.494950E+0	1.450857E+0	1.491435E+0	1.493619E+0	1.466912E+0	1.554375E+0	1.480093E+0	1.438823E+0	1.533427E+0	1.475518E+0	1.458798E+0	1.436101E+0	1.535037E+0	1.471819E+0	1.483846E+0	1.521423E+0	1.543758E+0	1.518823E+0	1.474366E+0	1.506018E+0	1.540645E+0	1.454595E+0	1.469925E+0	1.495525E+0	1.496052E+0	1.469644E+0	1.503898E+0	1.513327E+0	1.470128E+0	1.428328E+0	1.488315E+0	1.437023E+0	1.498864E+0	1.473842E+0	1.496862E+0	1.484036E+0	1.514757E+0	1.475749E+0	1.532800E+0	1.482579E+0	1.446013E+0	1.445825E+0	1.444409E+0	1.446866E+0	1.464357E+0	1.460868E+0	1.511363E+0	1.422467E+0	1.449051E+0	1.480892E+0	1.429708E+0
5.417920E+2	1.349236E+0	1.259604E+0	1.269502E+0	1.253061E+0	1.302855E+0	1.346088E+0	1.312955E+0	1.320469E+0	1.308457E+0	1.263567E+0	1.285760E+0	1.306985E+0	1.228177E+0	1.278235E+0	1.328282E+0	1.318005E+0	1.307486E+0	1.341547E+0	1.284482E+0	1.294584E+0	1.405640E+0	1.329299E+0	1.291450E+0	1.297225E+0	1.333883E+0	1.323555E+0	1.322849E+0	1.206190E+0	1.352721E+0	1.344070E+0	1.280273E+0	1.295427E+0	1.334387E+0	1.295775E+0	1.356565E+0	1.286284E+0	1.301951E+0	1.327697E+0	1.287744E+0	1.283388E+0	1.285327E+0	1.282214E+0	1.345804E+0	1.333000E+0	1.267941E+0	1.297152E+0	1.221480E+0	1.349297E+0	1.274853E+0	1.333629E+0	1.300750E+0	1.321812E+0	1.285488E+0	1.337617E+0	1.299231E+0	1.310521E+0	1.307740E+0	1.317052E+0	1.336948E+0	1.283661E+0	1.268425E+0	1.274902E+0	1.342008E+0	1.304889E+0	1.360402E+0	1.314008E+0	1.325548E+0	1.318428E+0	1.318171E+0	1.245737E+0	1.260815E+0	1.295792E+0	1.336520E+0	1.275118E+0	1.325061E+0	1.308525E+0	1.303028E+0	1.310071E+0	1.257947E+0	1.285847E+0	1.210103E+0	1.292504E+0	1.315243E+0	1.282592E+0	1.286360E+0	1.284454E+0	1.279890E+0	1.348138E+0	1.330435E+0	1.331614E+0	1.332037E+0	1.287428E+0	1.278969E+0	1.328417E+0	1.354288E+0	1.340652E+0	1.322646E+0	1.297302E+0	1.313327E+0	1.225111E+0	1.333574E+0	1.351109E+0	1.285088E+0	1.282833E+0	1.300759E+0	1.309352E+0	1.268110E+0	1.294499E+0	1.308114E+0	1.277032E+0	1.295340E+0	1.266989E+0	1.286313E+0	1.315366E+0	1.313149E+0	1.296958E+0	1.316769E+0	1.278890E+0	1.305813E+0	1.274111E+0	1.280180E+0	1.223569E+0	1.298474E+0	1.304796E+0	1.359784E+0	1.290295E+0	1.269342E+0	1.317869E+0	1.280067E+0	1.243654E+0	1.289499E+0	1.272485E+0	1.262915E+0	1.311040E+0	1.294359E+0	1.297946E+0	1.254925E+0	1.321285E+0	1.326529E+0	1.283448E+0	1.322672E+0	1.299702E+0	1.295433E+0	1.300697E+0	1.258812E+0	1.269797E+0	1.272538E+0	1.260654E+0	1.298269E+0	1.255970E+0	1.341157E+0	1.259874E+0	1.314609E+0	1.289767E+0	1.297072E+0	1.284010E+0	1.288084E+0	1.289782E+0	1.223831E+0	1.342296E+0	1.311233E+0	1.255009E+0	1.308892E+0	1.274513E+0	1.232897E+0	1.287708E+0	1.307626E+0	1.268886E+0	1.268669E+0	1.319255E+0	1.211838E+0
5.420110E+2	1.190005E+0	1.129486E+0	1.173262E+0	1.179360E+0	1.245416E+0	1.175706E+0	1.168061E+0	1.147753E+0	1.169605E+0	1.176130E+0	1.195716E+0	1.204408E+0	1.162627E+0	1.181788E+0	1.220029E+0	1.149176E+0	1.156880E+0	1.173990E+0	1.131866E+0	1.150002E+0	1.189261E+0	1.174511E+0	1.147694E+0	1.211892E+0	1.170285E+0	1.219740E+0	1.144522E+0	1.173595E+0	1.199664E+0	1.145807E+0	1.151466E+0	1.188490E+0	1.160622E+0	1.210830E+0	1.141445E+0	1.145247E+0	1.151584E+0	1.163076E+0	1.148144E+0	1.181093E+0	1.129336E+0	1.214384E+0	1.204039E+0	1.177071E+0	1.157027E+0	1.142751E+0	1.187632E+0	1.153416E+0	1.192242E+0	1.147438E+0	1.161376E+0	1.157385E+0	1.113047E+0	1.184104E+0	1.165222E+0	1.137639E+0	1.220497E+0	1.143858E+0	1.129558E+0	1.193105E+0	1.153412E+0	1.207041E+0	1.182082E+0	1.204975E+0	1.218672E+0	1.205017E+0	1.127084E+0	1.204342E+0	1.162956E+0	1.118034E+0	1.129571E+0	1.183183E+0	1.187328E+0	1.128469E+0	1.173554E+0	1.197169E+0	1.220720E+0	1.163625E+0	1.092468E+0	1.183951E+0	1.105141E+0	1.124197E+0	1.144666E+0	1.148426E+0	1.166487E+0	1.107392E+0	1.155330E+0	1.142000E+0	1.190307E+0	1.198669E+0	1.201800E+0	1.159660E+0	1.192170E+0	1.142280E+0	1.199120E+0	1.250413E+0	1.140430E+0	1.135649E+0	1.164049E+0	1.206056E+0	1.180268E+0	1.138410E+0	1.140890E+0	1.142311E+0	1.160037E+0	1.165049E+0	1.173404E+0	1.181370E+0	1.188268E+0	1.142567E+0	1.186965E+0	1.168498E+0	1.179883E+0	1.191906E+0	1.183704E+0	1.146852E+0	1.172286E+0	1.189929E+0	1.158347E+0	1.125526E+0	1.168663E+0	1.206572E+0	1.210403E+0	1.134234E+0	1.201989E+0	1.163037E+0	1.139206E+0	1.182903E+0	1.207575E+0	1.162998E+0	1.152824E+0	1.197231E+0	1.220597E+0	1.137122E+0	1.117263E+0	1.155641E+0	1.213261E+0	1.208140E+0	1.186230E+0	1.200212E+0	1.153612E+0	1.200915E+0	1.165366E+0	1.152818E+0	1.163795E+0	1.131991E+0	1.116732E+0	1.176988E+0	1.145755E+0	1.112119E+0	1.133171E+0	1.151853E+0	1.204706E+0	1.178546E+0	1.199910E+0	1.165931E+0	1.164224E+0	1.204064E+0	1.151298E+0	1.170655E+0	1.103600E+0	1.168074E+0	1.153595E+0	1.173177E+0	1.105608E+0	1.158865E+0	1.168331E+0	1.164053E+0	1.167696E+0	1.123897E+0	1.145252E+0
5.422670E+2	1.071712E+0	1.059277E+0	1.033713E+0	9.885066E-1	9.962453E-1	1.065271E+0	1.096233E+0	9.957970E-1	1.043551E+0	1.058001E+0	1.044505E+0	1.106378E+0	1.022617E+0	1.042297E+0	1.082895E+0	1.088509E+0	1.077551E+0	1.083349E+0	1.082662E+0	1.081170E+0	1.053428E+0	1.064048E+0	1.034616E+0	1.019709E+0	1.079815E+0	1.021621E+0	1.047317E+0	1.050803E+0	1.046240E+0	1.051168E+0	1.014361E+0	1.089290E+0	1.042921E+0	1.043426E+0	1.068731E+0	1.025794E+0	1.083453E+0	1.055070E+0	1.033635E+0	1.024134E+0	1.065715E+0	1.071556E+0	1.052231E+0	1.043781E+0	1.072640E+0	1.061602E+0	9.999981E-1	1.037196E+0	1.019569E+0	1.016435E+0	1.080622E+0	1.052350E+0	1.092327E+0	1.008532E+0	1.017557E+0	1.049304E+0	1.021613E+0	1.061259E+0	1.045338E+0	1.061878E+0	1.035981E+0	1.073749E+0	1.078288E+0	1.102459E+0	1.048607E+0	1.097448E+0	1.059532E+0	1.061960E+0	1.099238E+0	1.047396E+0	1.022899E+0	1.030660E+0	1.059287E+0	1.023180E+0	1.048598E+0	1.037115E+0	1.034486E+0	1.055345E+0	1.043286E+0	1.034539E+0	1.072827E+0	1.042128E+0	1.104235E+0	1.027192E+0	1.046254E+0	1.083191E+0	1.079455E+0	1.019366E+0	1.096842E+0	1.137126E+0	1.043658E+0	1.049120E+0	1.025916E+0	1.001158E+0	1.112044E+0	1.102209E+0	1.007638E+0	9.951999E-1	1.072066E+0	1.040161E+0	1.029463E+0	1.060807E+0	1.044084E+0	1.018620E+0	1.068619E+0	1.051218E+0	1.064201E+0	1.015341E+0	1.038087E+0	1.029291E+0	1.051281E+0	1.052400E+0	1.047495E+0	1.045513E+0	1.061989E+0	1.053450E+0	1.075296E+0	1.040840E+0	1.045533E+0	1.025074E+0	1.040999E+0	1.058521E+0	1.064636E+0	1.078951E+0	1.075154E+0	1.019871E+0	1.086764E+0	1.063198E+0	1.052797E+0	1.039613E+0	1.023156E+0	1.030509E+0	1.041923E+0	1.025492E+0	1.032333E+0	1.045137E+0	1.083283E+0	1.044213E+0	1.066004E+0	1.024419E+0	1.060159E+0	1.089098E+0	1.073912E+0	1.028990E+0	1.050005E+0	1.042692E+0	1.027489E+0	1.039691E+0	9.913369E-1	9.887030E-1	1.005763E+0	1.040843E+0	1.060878E+0	1.024754E+0	1.033370E+0	1.002817E+0	1.091439E+0	1.101726E+0	1.003522E+0	1.105323E+0	1.079965E+0	1.042436E+0	1.012149E+0	1.026327E+0	9.861926E-1	1.058761E+0	1.048132E+0	1.046139E+0	1.027962E+0	1.096628E+0	1.021519E+0
5.425350E+2	1.000892E+0	9.902560E-1	9.656754E-1	9.489418E-1	9.815200E-1	9.629891E-1	9.397277E-1	9.797264E-1	9.792206E-1	1.032056E+0	9.980374E-1	1.014627E+0	9.286041E-1	1.023885E+0	9.563658E-1	1.001382E+0	9.711231E-1	1.008892E+0	9.933392E-1	9.769450E-1	9.960185E-1	1.001023E+0	1.022773E+0	9.893618E-1	9.953546E-1	9.764079E-1	9.957430E-1	1.014770E+0	1.000507E+0	1.011890E+0	1.046358E+0	1.014760E+0	9.520478E-1	1.011852E+0	1.010476E+0	9.692053E-1	1.015982E+0	9.683827E-1	9.833436E-1	9.797462E-1	1.022272E+0	9.933412E-1	1.010456E+0	9.870854E-1	9.744038E-1	9.710030E-1	9.226219E-1	1.002807E+0	1.005525E+0	1.014728E+0	9.857075E-1	1.042489E+0	9.540258E-1	9.720258E-1	9.837566E-1	9.660444E-1	9.228764E-1	9.437677E-1	9.417172E-1	9.924110E-1	9.338936E-1	9.814298E-1	1.021271E+0	9.960944E-1	9.735111E-1	1.028576E+0	9.893295E-1	1.031353E+0	9.741661E-1	1.022376E+0	9.942556E-1	9.636477E-1	9.521105E-1	9.791628E-1	1.004658E+0	9.904134E-1	9.685322E-1	9.688469E-1	9.939477E-1	9.966503E-1	9.725347E-1	9.825178E-1	9.889627E-1	9.880683E-1	1.010336E+0	1.017366E+0	9.681179E-1	9.990987E-1	9.964910E-1	1.002108E+0	9.966648E-1	9.950753E-1	9.526324E-1	1.018031E+0	1.021752E+0	1.035094E+0	9.652373E-1	9.830808E-1	9.875839E-1	9.558624E-1	9.818989E-1	1.024619E+0	9.693109E-1	9.451281E-1	9.414679E-1	1.017797E+0	9.661060E-1	9.485916E-1	9.871033E-1	9.360905E-1	9.605030E-1	9.755576E-1	9.631551E-1	1.055416E+0	1.018276E+0	1.029897E+0	9.604117E-1	9.618316E-1	9.740855E-1	9.764755E-1	9.824196E-1	9.801643E-1	1.002878E+0	9.801585E-1	9.945200E-1	9.772046E-1	9.918453E-1	9.616714E-1	9.605463E-1	1.012938E+0	9.560787E-1	9.845068E-1	1.018931E+0	9.794056E-1	1.004883E+0	9.621625E-1	9.836125E-1	1.022522E+0	1.017411E+0	9.550673E-1	1.002290E+0	1.003878E+0	9.924739E-1	9.781253E-1	1.005770E+0	9.865416E-1	9.551377E-1	9.946525E-1	9.877190E-1	9.802649E-1	9.656277E-1	9.812541E-1	9.766213E-1	9.603959E-1	9.878056E-1	9.685216E-1	9.779510E-1	9.968536E-1	9.724214E-1	9.886028E-1	9.539241E-1	1.023587E+0	1.011168E+0	9.861032E-1	9.779864E-1	1.020374E+0	9.645233E-1	9.350232E-1	1.003095E+0	9.637149E-1	9.376342E-1
5.427650E+2	1.004868E+0	1.018378E+0	1.035240E+0	9.919217E-1	1.008050E+0	9.955251E-1	1.030344E+0	9.991665E-1	9.648337E-1	9.980730E-1	1.019983E+0	1.024011E+0	9.584353E-1	1.049970E+0	1.010778E+0	1.054251E+0	1.031795E+0	1.050073E+0	1.027330E+0	1.027681E+0	9.837336E-1	1.020106E+0	1.012485E+0	1.007354E+0	1.036294E+0	1.057145E+0	1.016479E+0	1.015837E+0	1.006854E+0	1.062237E+0	1.041683E+0	1.043334E+0	9.896111E-1	1.028428E+0	1.029874E+0	9.625353E-1	1.025032E+0	1.023176E+0	1.053245E+0	1.008833E+0	1.041294E+0	1.043138E+0	9.946542E-1	9.968504E-1	9.920124E-1	9.726373E-1	1.028918E+0	9.897885E-1	9.558449E-1	9.912646E-1	9.950855E-1	9.695532E-1	1.070505E+0	9.843615E-1	1.009254E+0	1.062473E+0	1.020730E+0	1.010487E+0	1.003675E+0	1.043152E+0	1.010698E+0	9.766060E-1	1.009688E+0	1.040940E+0	1.004290E+0	1.014914E+0	1.030402E+0	1.026558E+0	1.031427E+0	9.659876E-1	9.892484E-1	9.983646E-1	1.022154E+0	9.967238E-1	9.858309E-1	9.845956E-1	9.967494E-1	1.033282E+0	9.845437E-1	1.031090E+0	9.918653E-1	9.837027E-1	9.954729E-1	1.062745E+0	9.893033E-1	1.016725E+0	1.060891E+0	1.019439E+0	9.940891E-1	9.825722E-1	1.020905E+0	9.981595E-1	9.961575E-1	9.720673E-1	9.868020E-1	1.027449E+0	1.001923E+0	1.030694E+0	1.020395E+0	1.028511E+0	9.587902E-1	1.015919E+0	1.011977E+0	1.041923E+0	1.008007E+0	1.018967E+0	9.858800E-1	1.046750E+0	9.983996E-1	1.027953E+0	1.054948E+0	1.043174E+0	1.014026E+0	1.028499E+0	1.061813E+0	1.041924E+0	1.031216E+0	1.004730E+0	1.023773E+0	1.015604E+0	9.310836E-1	1.028261E+0	1.040731E+0	1.015386E+0	9.906737E-1	1.015515E+0	1.060697E+0	1.016660E+0	9.971458E-1	1.022333E+0	1.007892E+0	9.704317E-1	1.028378E+0	9.830593E-1	1.026510E+0	1.000219E+0	9.734914E-1	1.011147E+0	9.983424E-1	9.769487E-1	1.011428E+0	1.033550E+0	1.008527E+0	1.013581E+0	1.015626E+0	1.032894E+0	1.016288E+0	1.025079E+0	1.030702E+0	9.944384E-1	1.025216E+0	9.643598E-1	1.015979E+0	1.073974E+0	1.038059E+0	9.954540E-1	9.889709E-1	1.066109E+0	1.022520E+0	1.050780E+0	1.035958E+0	1.019107E+0	1.005738E+0	1.030164E+0	1.021182E+0	1.008870E+0	9.934441E-1	9.857171E-1	9.352262E-1	1.020021E+0	1.022703E+0
5.430120E+2	1.143930E+0	1.073939E+0	1.111278E+0	1.111110E+0	1.135600E+0	1.087119E+0	1.140293E+0	1.157949E+0	1.115385E+0	1.127659E+0	1.095277E+0	1.129796E+0	1.068537E+0	1.154447E+0	1.159335E+0	1.165770E+0	1.121234E+0	1.138048E+0	1.099221E+0	1.132391E+0	1.131739E+0	1.168475E+0	1.132084E+0	1.097214E+0	1.122425E+0	1.099091E+0	1.109305E+0	1.091382E+0	1.133305E+0	1.129718E+0	1.065349E+0	1.162340E+0	1.120553E+0	1.168281E+0	1.098445E+0	1.108597E+0	1.148171E+0	1.091955E+0	1.155095E+0	1.113984E+0	1.164895E+0	1.143535E+0	1.109480E+0	1.143677E+0	1.127265E+0	1.136799E+0	1.109197E+0	1.098206E+0	1.135154E+0	1.092258E+0	1.122667E+0	1.116813E+0	1.143364E+0	1.139249E+0	1.084497E+0	1.077087E+0	1.084234E+0	1.148229E+0	1.142432E+0	1.102139E+0	1.106664E+0	1.106692E+0	1.108013E+0	1.166025E+0	1.107845E+0	1.156166E+0	1.096130E+0	1.167400E+0	1.126337E+0	1.110280E+0	1.073848E+0	1.151133E+0	1.171402E+0	1.103426E+0	1.084044E+0	1.085492E+0	1.109745E+0	1.151815E+0	1.109017E+0	1.141632E+0	1.091281E+0	1.088906E+0	1.113108E+0	1.058539E+0	1.122406E+0	1.107592E+0	1.146863E+0	1.119005E+0	1.116809E+0	1.178232E+0	1.129843E+0	1.128728E+0	1.070635E+0	1.135857E+0	1.091135E+0	1.120219E+0	1.078259E+0	1.128534E+0	1.086205E+0	1.127382E+0	1.132683E+0	1.124383E+0	1.067626E+0	1.086813E+0	1.130532E+0	1.172953E+0	1.118459E+0	1.128709E+0	1.104616E+0	1.147863E+0	1.085731E+0	1.103641E+0	1.141666E+0	1.167960E+0	1.167111E+0	1.080602E+0	1.120272E+0	1.164477E+0	1.133084E+0	1.134761E+0	1.089236E+0	1.090753E+0	1.101493E+0	1.168508E+0	1.139181E+0	1.143127E+0	1.159346E+0	1.134934E+0	1.161498E+0	1.194189E+0	1.109665E+0	1.113751E+0	1.159875E+0	1.128063E+0	1.087727E+0	1.109536E+0	1.095941E+0	1.129735E+0	1.095688E+0	1.109443E+0	1.128770E+0	1.138383E+0	1.137865E+0	1.101851E+0	1.083526E+0	1.134779E+0	1.123515E+0	1.108925E+0	1.139248E+0	1.121949E+0	1.076875E+0	1.133420E+0	1.089034E+0	1.133436E+0	1.157284E+0	1.156119E+0	1.095961E+0	1.132488E+0	1.136692E+0	1.112256E+0	1.098449E+0	1.077930E+0	1.084160E+0	1.150230E+0	1.073619E+0	1.148553E+0	1.114187E+0	1.124931E+0	1.090089E+0	1.081372E+0	1.126426E+0
5.432800E+2	1.314809E+0	1.259676E+0	1.296128E+0	1.341320E+0	1.341210E+0	1.306799E+0	1.319140E+0	1.307570E+0	1.280221E+0	1.323641E+0	1.301617E+0	1.307696E+0	1.267133E+0	1.300846E+0	1.293786E+0	1.269234E+0	1.302672E+0	1.299227E+0	1.309120E+0	1.302242E+0	1.301029E+0	1.305178E+0	1.247260E+0	1.303128E+0	1.294648E+0	1.233722E+0	1.318339E+0	1.343861E+0	1.299347E+0	1.309776E+0	1.315536E+0	1.262901E+0	1.290797E+0	1.272171E+0	1.290851E+0	1.276020E+0	1.308495E+0	1.299026E+0	1.276717E+0	1.250945E+0	1.249329E+0	1.338319E+0	1.320969E+0	1.275638E+0	1.301568E+0	1.281506E+0	1.261594E+0	1.327473E+0	1.291685E+0	1.267281E+0	1.321606E+0	1.321154E+0	1.295149E+0	1.324133E+0	1.327568E+0	1.275968E+0	1.303932E+0	1.302998E+0	1.300818E+0	1.309461E+0	1.261394E+0	1.269661E+0	1.314882E+0	1.317186E+0	1.264933E+0	1.317289E+0	1.335653E+0	1.278099E+0	1.316652E+0	1.264907E+0	1.290608E+0	1.310591E+0	1.296213E+0	1.301838E+0	1.289844E+0	1.252286E+0	1.305401E+0	1.252132E+0	1.277381E+0	1.300079E+0	1.270862E+0	1.241984E+0	1.247096E+0	1.279414E+0	1.227023E+0	1.287761E+0	1.264701E+0	1.242862E+0	1.321697E+0	1.294875E+0	1.290774E+0	1.328840E+0	1.293611E+0	1.264202E+0	1.333506E+0	1.366293E+0	1.237750E+0	1.273850E+0	1.235777E+0	1.303380E+0	1.338856E+0	1.242133E+0	1.273719E+0	1.254150E+0	1.300221E+0	1.343793E+0	1.312483E+0	1.318035E+0	1.245764E+0	1.288434E+0	1.268743E+0	1.338199E+0	1.249258E+0	1.343977E+0	1.349716E+0	1.326177E+0	1.309658E+0	1.241659E+0	1.325280E+0	1.337020E+0	1.282333E+0	1.324618E+0	1.251535E+0	1.304216E+0	1.250714E+0	1.257538E+0	1.327499E+0	1.260861E+0	1.282763E+0	1.286335E+0	1.304157E+0	1.279490E+0	1.308232E+0	1.275235E+0	1.249584E+0	1.298664E+0	1.306063E+0	1.307128E+0	1.351988E+0	1.233057E+0	1.263408E+0	1.287122E+0	1.339267E+0	1.287567E+0	1.285699E+0	1.317020E+0	1.311061E+0	1.293485E+0	1.313958E+0	1.251285E+0	1.278196E+0	1.268541E+0	1.261301E+0	1.319250E+0	1.289768E+0	1.324749E+0	1.286225E+0	1.274272E+0	1.353980E+0	1.316706E+0	1.260827E+0	1.287607E+0	1.281997E+0	1.244031E+0	1.244723E+0	1.260361E+0	1.252979E+0	1.287486E+0	1.238923E+0	1.376785E+0	1.223792E+0
5.435270E+2	1.516143E+0	1.448866E+0	1.506467E+0	1.487837E+0	1.577243E+0	1.504335E+0	1.497153E+0	1.471749E+0	1.466326E+0	1.496952E+0	1.550732E+0	1.535424E+0	1.480847E+0	1.483692E+0	1.509905E+0	1.505421E+0	1.491332E+0	1.537893E+0	1.479592E+0	1.487840E+0	1.471579E+0	1.482005E+0	1.451498E+0	1.487591E+0	1.484734E+0	1.480908E+0	1.547098E+0	1.543251E+0	1.468351E+0	1.473066E+0	1.513114E+0	1.509953E+0	1.447440E+0	1.492619E+0	1.519596E+0	1.498795E+0	1.514139E+0	1.502595E+0	1.473175E+0	1.453441E+0	1.518049E+0	1.580147E+0	1.521032E+0	1.541812E+0	1.460262E+0	1.496514E+0	1.461043E+0	1.544354E+0	1.492832E+0	1.481460E+0	1.496485E+0	1.502782E+0	1.426542E+0	1.536181E+0	1.482905E+0	1.473667E+0	1.469910E+0	1.495312E+0	1.462785E+0	1.448029E+0	1.515396E+0	1.502179E+0	1.512597E+0	1.542235E+0	1.461402E+0	1.544297E+0	1.472437E+0	1.555293E+0	1.541247E+0	1.471840E+0	1.461437E+0	1.451927E+0	1.443936E+0	1.448635E+0	1.451467E+0	1.473280E+0	1.471836E+0	1.480037E+0	1.456016E+0	1.451868E+0	1.403183E+0	1.476390E+0	1.507957E+0	1.430831E+0	1.423224E+0	1.444122E+0	1.516389E+0	1.476217E+0	1.465040E+0	1.524929E+0	1.517599E+0	1.496452E+0	1.464909E+0	1.494276E+0	1.456677E+0	1.504332E+0	1.560124E+0	1.523696E+0	1.433724E+0	1.511206E+0	1.470300E+0	1.452512E+0	1.498248E+0	1.482768E+0	1.466907E+0	1.558742E+0	1.460829E+0	1.505351E+0	1.419122E+0	1.473556E+0	1.491929E+0	1.533951E+0	1.449828E+0	1.506428E+0	1.529510E+0	1.470278E+0	1.495245E+0	1.457236E+0	1.488410E+0	1.444805E+0	1.527680E+0	1.507099E+0	1.444670E+0	1.422921E+0	1.438565E+0	1.477798E+0	1.461500E+0	1.479026E+0	1.508815E+0	1.544437E+0	1.456893E+0	1.459292E+0	1.474616E+0	1.477127E+0	1.435662E+0	1.508473E+0	1.509411E+0	1.496332E+0	1.513509E+0	1.491624E+0	1.417322E+0	1.448590E+0	1.536271E+0	1.507712E+0	1.493930E+0	1.503247E+0	1.452954E+0	1.516372E+0	1.474077E+0	1.444777E+0	1.467160E+0	1.470884E+0	1.455993E+0	1.463998E+0	1.422193E+0	1.459521E+0	1.449521E+0	1.508457E+0	1.435502E+0	1.517675E+0	1.400868E+0	1.491959E+0	1.482301E+0	1.530267E+0	1.454650E+0	1.467950E+0	1.465895E+0	1.476407E+0	1.367693E+0	1.436886E+0	1.438762E+0
5.437590E+2	1.613036E+0	1.574493E+0	1.574860E+0	1.574691E+0	1.632592E+0	1.579932E+0	1.677492E+0	1.637470E+0	1.551528E+0	1.536908E+0	1.602111E+0	1.599782E+0	1.588781E+0	1.575843E+0	1.600541E+0	1.625028E+0	1.590322E+0	1.619319E+0	1.553689E+0	1.626119E+0	1.550334E+0	1.537632E+0	1.587268E+0	1.592795E+0	1.591970E+0	1.527970E+0	1.631039E+0	1.619485E+0	1.648753E+0	1.583752E+0	1.585689E+0	1.600033E+0	1.603491E+0	1.594355E+0	1.620654E+0	1.572815E+0	1.631458E+0	1.588443E+0	1.579604E+0	1.601520E+0	1.547271E+0	1.626530E+0	1.588233E+0	1.609417E+0	1.573761E+0	1.550371E+0	1.602819E+0	1.643840E+0	1.640074E+0	1.518705E+0	1.547979E+0	1.606456E+0	1.630113E+0	1.621579E+0	1.589171E+0	1.567513E+0	1.605100E+0	1.579661E+0	1.548799E+0	1.612048E+0	1.583443E+0	1.557040E+0	1.574524E+0	1.590702E+0	1.586852E+0	1.610967E+0	1.584280E+0	1.651386E+0	1.592961E+0	1.558043E+0	1.601827E+0	1.541567E+0	1.568774E+0	1.619692E+0	1.580935E+0	1.496705E+0	1.585016E+0	1.565181E+0	1.566646E+0	1.549507E+0	1.523894E+0	1.591990E+0	1.562433E+0	1.593679E+0	1.547181E+0	1.573267E+0	1.566672E+0	1.552468E+0	1.496911E+0	1.614739E+0	1.602259E+0	1.580812E+0	1.561500E+0	1.561190E+0	1.576658E+0	1.636258E+0	1.597709E+0	1.552413E+0	1.544631E+0	1.557263E+0	1.601494E+0	1.585277E+0	1.579222E+0	1.565289E+0	1.510070E+0	1.623187E+0	1.564542E+0	1.571263E+0	1.573415E+0	1.569231E+0	1.534364E+0	1.589856E+0	1.598959E+0	1.591424E+0	1.614211E+0	1.551582E+0	1.582694E+0	1.556070E+0	1.574315E+0	1.549252E+0	1.550096E+0	1.561507E+0	1.583688E+0	1.589999E+0	1.559865E+0	1.593853E+0	1.564469E+0	1.572151E+0	1.598465E+0	1.532930E+0	1.611297E+0	1.562045E+0	1.559679E+0	1.514253E+0	1.562693E+0	1.555833E+0	1.556505E+0	1.644039E+0	1.604915E+0	1.535581E+0	1.543116E+0	1.602165E+0	1.597654E+0	1.542107E+0	1.552530E+0	1.566025E+0	1.565512E+0	1.564011E+0	1.571286E+0	1.473004E+0	1.636271E+0	1.582596E+0	1.591982E+0	1.535568E+0	1.600414E+0	1.553833E+0	1.532411E+0	1.591272E+0	1.592100E+0	1.612201E+0	1.520824E+0	1.571936E+0	1.543509E+0	1.567125E+0	1.515341E+0	1.631145E+0	1.584303E+0	1.532915E+0	1.475401E+0	1.549393E+0	1.545011E+0
5.440170E+2	1.736625E+0	1.638907E+0	1.680360E+0	1.616968E+0	1.712505E+0	1.607064E+0	1.679163E+0	1.689203E+0	1.724083E+0	1.673005E+0	1.697783E+0	1.710791E+0	1.603499E+0	1.684884E+0	1.671950E+0	1.731671E+0	1.699346E+0	1.638740E+0	1.687886E+0	1.709593E+0	1.632190E+0	1.694699E+0	1.647721E+0	1.722119E+0	1.646590E+0	1.646325E+0	1.664930E+0	1.694881E+0	1.666438E+0	1.693115E+0	1.639738E+0	1.641248E+0	1.706689E+0	1.626752E+0	1.662541E+0	1.651536E+0	1.688028E+0	1.659901E+0	1.636756E+0	1.668709E+0	1.646284E+0	1.806292E+0	1.680295E+0	1.709562E+0	1.656863E+0	1.748543E+0	1.643579E+0	1.692757E+0	1.669757E+0	1.615677E+0	1.684968E+0	1.669148E+0	1.672439E+0	1.668733E+0	1.608189E+0	1.661250E+0	1.702197E+0	1.685765E+0	1.642039E+0	1.697855E+0	1.565264E+0	1.691972E+0	1.654229E+0	1.700604E+0	1.706169E+0	1.734797E+0	1.658343E+0	1.711220E+0	1.623059E+0	1.625491E+0	1.710321E+0	1.620227E+0	1.672399E+0	1.680181E+0	1.725222E+0	1.683434E+0	1.606556E+0	1.686155E+0	1.662071E+0	1.701568E+0	1.594020E+0	1.655082E+0	1.632598E+0	1.640957E+0	1.630941E+0	1.610115E+0	1.697230E+0	1.630832E+0	1.618752E+0	1.700161E+0	1.680986E+0	1.672089E+0	1.681540E+0	1.645143E+0	1.714228E+0	1.673506E+0	1.616130E+0	1.735599E+0	1.644971E+0	1.667977E+0	1.671076E+0	1.614030E+0	1.613259E+0	1.649227E+0	1.645893E+0	1.670868E+0	1.646668E+0	1.620509E+0	1.595091E+0	1.686140E+0	1.654239E+0	1.677898E+0	1.632552E+0	1.694771E+0	1.701891E+0	1.669900E+0	1.664419E+0	1.639215E+0	1.689382E+0	1.687551E+0	1.589359E+0	1.667255E+0	1.655756E+0	1.658699E+0	1.622466E+0	1.706843E+0	1.718210E+0	1.633503E+0	1.625260E+0	1.674948E+0	1.641228E+0	1.655531E+0	1.687621E+0	1.672708E+0	1.618658E+0	1.649438E+0	1.710271E+0	1.705839E+0	1.640385E+0	1.631136E+0	1.627604E+0	1.673559E+0	1.641702E+0	1.659492E+0	1.626927E+0	1.690429E+0	1.573339E+0	1.653333E+0	1.579782E+0	1.577645E+0	1.644016E+0	1.622705E+0	1.610438E+0	1.685893E+0	1.669926E+0	1.704325E+0	1.645693E+0	1.669424E+0	1.631922E+0	1.693962E+0	1.528310E+0	1.609949E+0	1.628013E+0	1.635746E+0	1.601535E+0	1.580066E+0	1.622700E+0	1.564076E+0	1.600032E+0	1.688266E+0	1.527142E+0
5.442700E+2	1.691149E+0	1.615384E+0	1.645603E+0	1.640360E+0	1.718118E+0	1.593596E+0	1.642340E+0	1.630535E+0	1.658965E+0	1.599336E+0	1.659002E+0	1.639521E+0	1.603846E+0	1.629897E+0	1.608194E+0	1.655383E+0	1.585505E+0	1.615294E+0	1.699985E+0	1.637671E+0	1.647184E+0	1.586133E+0	1.631313E+0	1.629529E+0	1.609966E+0	1.608729E+0	1.671855E+0	1.637528E+0	1.634028E+0	1.647980E+0	1.631895E+0	1.694227E+0	1.610105E+0	1.621750E+0	1.669036E+0	1.633747E+0	1.640284E+0	1.633159E+0	1.650742E+0	1.600428E+0	1.610852E+0	1.685881E+0	1.666900E+0	1.653585E+0	1.610982E+0	1.665317E+0	1.627393E+0	1.714089E+0	1.615729E+0	1.596886E+0	1.625076E+0	1.646731E+0	1.593474E+0	1.631736E+0	1.608804E+0	1.616932E+0	1.616970E+0	1.529786E+0	1.631542E+0	1.656946E+0	1.623218E+0	1.606650E+0	1.628415E+0	1.692063E+0	1.632559E+0	1.687641E+0	1.606435E+0	1.609397E+0	1.641249E+0	1.593344E+0	1.616432E+0	1.581456E+0	1.645833E+0	1.581333E+0	1.682857E+0	1.587602E+0	1.590681E+0	1.678511E+0	1.665063E+0	1.623138E+0	1.536985E+0	1.592161E+0	1.607077E+0	1.619231E+0	1.642874E+0	1.617563E+0	1.599485E+0	1.621725E+0	1.618754E+0	1.610525E+0	1.662439E+0	1.647897E+0	1.589643E+0	1.638328E+0	1.693193E+0	1.675739E+0	1.575336E+0	1.575846E+0	1.542386E+0	1.648969E+0	1.676085E+0	1.637409E+0	1.603709E+0	1.600748E+0	1.537102E+0	1.632502E+0	1.639003E+0	1.623372E+0	1.612554E+0	1.627443E+0	1.628945E+0	1.645232E+0	1.559974E+0	1.626091E+0	1.608794E+0	1.637705E+0	1.631460E+0	1.623152E+0	1.613326E+0	1.621552E+0	1.572362E+0	1.618126E+0	1.611638E+0	1.636684E+0	1.616035E+0	1.643503E+0	1.605793E+0	1.595559E+0	1.590470E+0	1.598430E+0	1.643612E+0	1.589424E+0	1.624981E+0	1.548823E+0	1.616881E+0	1.612207E+0	1.606927E+0	1.668920E+0	1.656840E+0	1.609426E+0	1.544251E+0	1.608562E+0	1.626449E+0	1.642804E+0	1.588716E+0	1.626784E+0	1.597396E+0	1.654564E+0	1.646299E+0	1.612045E+0	1.652941E+0	1.621468E+0	1.544801E+0	1.622333E+0	1.571229E+0	1.627938E+0	1.600662E+0	1.588519E+0	1.632117E+0	1.611200E+0	1.629298E+0	1.555744E+0	1.610538E+0	1.602909E+0	1.647220E+0	1.579822E+0	1.561888E+0	1.591219E+0	1.550495E+0	1.595586E+0	1.645664E+0
5.445180E+2	1.670017E+0	1.605541E+0	1.587471E+0	1.620832E+0	1.628087E+0	1.599202E+0	1.623270E+0	1.573132E+0	1.560851E+0	1.596768E+0	1.615777E+0	1.617893E+0	1.600537E+0	1.642517E+0	1.686851E+0	1.626375E+0	1.643808E+0	1.630260E+0	1.700198E+0	1.642933E+0	1.615004E+0	1.571942E+0	1.568042E+0	1.669879E+0	1.666386E+0	1.607147E+0	1.681787E+0	1.619535E+0	1.631256E+0	1.671084E+0	1.652536E+0	1.635923E+0	1.634862E+0	1.653350E+0	1.674181E+0	1.593626E+0	1.648439E+0	1.566041E+0	1.650208E+0	1.601612E+0	1.588042E+0	1.650068E+0	1.678926E+0	1.603369E+0	1.603757E+0	1.623443E+0	1.608372E+0	1.596473E+0	1.546424E+0	1.561396E+0	1.667422E+0	1.666834E+0	1.591309E+0	1.639092E+0	1.627917E+0	1.581982E+0	1.612215E+0	1.612231E+0	1.556979E+0	1.610120E+0	1.561274E+0	1.598321E+0	1.600865E+0	1.643546E+0	1.657954E+0	1.660509E+0	1.659474E+0	1.683436E+0	1.609754E+0	1.616680E+0	1.609215E+0	1.635626E+0	1.562310E+0	1.593811E+0	1.622044E+0	1.620442E+0	1.536862E+0	1.656479E+0	1.592392E+0	1.607847E+0	1.540659E+0	1.602250E+0	1.574630E+0	1.626725E+0	1.617359E+0	1.602315E+0	1.621518E+0	1.643940E+0	1.514688E+0	1.609935E+0	1.699984E+0	1.597914E+0	1.582072E+0	1.624563E+0	1.611732E+0	1.661768E+0	1.576428E+0	1.571783E+0	1.564754E+0	1.643141E+0	1.573556E+0	1.622271E+0	1.616298E+0	1.587781E+0	1.597967E+0	1.624132E+0	1.614284E+0	1.631902E+0	1.590826E+0	1.589338E+0	1.609673E+0	1.641838E+0	1.605010E+0	1.577423E+0	1.643222E+0	1.581059E+0	1.605647E+0	1.600434E+0	1.575815E+0	1.552930E+0	1.611402E+0	1.592380E+0	1.593805E+0	1.642832E+0	1.593868E+0	1.593257E+0	1.691584E+0	1.593245E+0	1.619907E+0	1.574891E+0	1.607690E+0	1.622840E+0	1.595444E+0	1.592573E+0	1.610518E+0	1.621475E+0	1.632253E+0	1.602785E+0	1.631741E+0	1.573352E+0	1.554485E+0	1.614998E+0	1.568565E+0	1.644895E+0	1.518161E+0	1.576648E+0	1.570503E+0	1.584714E+0	1.563188E+0	1.571153E+0	1.518332E+0	1.625323E+0	1.562004E+0	1.627425E+0	1.577267E+0	1.579447E+0	1.641660E+0	1.580523E+0	1.604960E+0	1.697585E+0	1.564422E+0	1.595321E+0	1.614799E+0	1.571142E+0	1.568535E+0	1.551157E+0	1.611520E+0	1.614144E+0	1.565769E+0	1.568710E+0	1.582664E+0
5.447610E+2	1.628716E+0	1.573732E+0	1.561608E+0	1.549482E+0	1.612868E+0	1.575625E+0	1.605912E+0	1.591417E+0	1.531913E+0	1.573636E+0	1.555890E+0	1.606798E+0	1.561035E+0	1.563535E+0	1.595623E+0	1.633432E+0	1.531014E+0	1.617357E+0	1.643358E+0	1.562162E+0	1.579538E+0	1.569529E+0	1.561560E+0	1.557523E+0	1.585117E+0	1.532767E+0	1.556000E+0	1.570586E+0	1.552858E+0	1.564524E+0	1.581860E+0	1.585220E+0	1.540614E+0	1.529803E+0	1.595374E+0	1.528995E+0	1.566873E+0	1.557319E+0	1.575543E+0	1.547587E+0	1.540285E+0	1.585356E+0	1.599269E+0	1.597455E+0	1.543002E+0	1.562172E+0	1.551214E+0	1.569258E+0	1.564398E+0	1.552627E+0	1.602882E+0	1.568821E+0	1.516301E+0	1.566286E+0	1.550611E+0	1.572082E+0	1.567820E+0	1.569217E+0	1.644097E+0	1.561621E+0	1.520098E+0	1.562552E+0	1.566658E+0	1.588186E+0	1.548463E+0	1.618675E+0	1.522986E+0	1.554381E+0	1.599835E+0	1.539359E+0	1.543469E+0	1.510205E+0	1.516757E+0	1.499344E+0	1.612419E+0	1.559725E+0	1.572651E+0	1.576747E+0	1.538657E+0	1.580463E+0	1.555388E+0	1.527444E+0	1.564414E+0	1.561978E+0	1.492216E+0	1.620092E+0	1.609895E+0	1.575463E+0	1.493963E+0	1.519395E+0	1.545546E+0	1.522489E+0	1.526008E+0	1.490326E+0	1.577005E+0	1.606411E+0	1.555238E+0	1.544901E+0	1.539212E+0	1.517062E+0	1.529271E+0	1.511916E+0	1.529974E+0	1.520692E+0	1.522225E+0	1.553929E+0	1.521960E+0	1.554524E+0	1.530906E+0	1.585281E+0	1.580897E+0	1.558854E+0	1.465848E+0	1.500797E+0	1.599257E+0	1.569205E+0	1.562889E+0	1.512365E+0	1.547465E+0	1.573752E+0	1.515445E+0	1.520705E+0	1.589704E+0	1.557491E+0	1.543800E+0	1.559090E+0	1.569084E+0	1.609291E+0	1.563380E+0	1.570143E+0	1.577672E+0	1.520897E+0	1.572792E+0	1.580435E+0	1.569764E+0	1.480331E+0	1.534759E+0	1.618565E+0	1.593160E+0	1.501792E+0	1.526093E+0	1.489787E+0	1.585237E+0	1.520784E+0	1.563899E+0	1.562323E+0	1.583691E+0	1.513747E+0	1.513583E+0	1.561217E+0	1.487417E+0	1.572518E+0	1.528842E+0	1.529805E+0	1.530400E+0	1.582441E+0	1.578765E+0	1.542513E+0	1.576251E+0	1.573079E+0	1.531657E+0	1.559408E+0	1.501896E+0	1.531454E+0	1.514404E+0	1.504674E+0	1.522356E+0	1.529604E+0	1.582553E+0	1.517369E+0	1.448741E+0
5.450090E+2	1.504002E+0	1.448444E+0	1.413196E+0	1.449905E+0	1.474802E+0	1.439867E+0	1.498114E+0	1.462334E+0	1.504704E+0	1.482699E+0	1.451212E+0	1.481316E+0	1.470355E+0	1.494033E+0	1.526190E+0	1.489852E+0	1.508331E+0	1.474966E+0	1.469468E+0	1.439991E+0	1.507456E+0	1.471255E+0	1.474260E+0	1.472499E+0	1.455748E+0	1.470920E+0	1.483432E+0	1.485758E+0	1.506058E+0	1.457092E+0	1.490494E+0	1.481595E+0	1.436140E+0	1.466740E+0	1.477997E+0	1.540543E+0	1.495172E+0	1.511290E+0	1.483651E+0	1.417915E+0	1.466203E+0	1.512673E+0	1.470264E+0	1.466364E+0	1.443067E+0	1.448907E+0	1.431351E+0	1.537293E+0	1.472775E+0	1.509752E+0	1.501091E+0	1.480309E+0	1.515190E+0	1.460956E+0	1.496549E+0	1.478063E+0	1.451700E+0	1.428058E+0	1.511222E+0	1.461845E+0	1.467236E+0	1.465579E+0	1.459503E+0	1.513347E+0	1.480762E+0	1.486223E+0	1.490264E+0	1.501488E+0	1.476283E+0	1.458834E+0	1.451689E+0	1.452240E+0	1.453415E+0	1.422331E+0	1.460727E+0	1.494393E+0	1.467797E+0	1.477224E+0	1.409885E+0	1.486417E+0	1.421451E+0	1.482091E+0	1.462253E+0	1.476037E+0	1.434938E+0	1.488159E+0	1.495720E+0	1.520893E+0	1.464870E+0	1.465336E+0	1.487203E+0	1.515036E+0	1.449128E+0	1.415304E+0	1.517284E+0	1.497283E+0	1.471976E+0	1.429354E+0	1.439382E+0	1.457284E+0	1.489730E+0	1.459615E+0	1.453542E+0	1.436497E+0	1.432634E+0	1.505560E+0	1.479295E+0	1.470288E+0	1.546905E+0	1.442776E+0	1.493039E+0	1.500549E+0	1.425536E+0	1.458964E+0	1.550773E+0	1.468014E+0	1.507548E+0	1.410181E+0	1.483393E+0	1.448947E+0	1.453421E+0	1.415259E+0	1.471223E+0	1.452981E+0	1.469340E+0	1.471453E+0	1.492456E+0	1.521547E+0	1.467926E+0	1.471486E+0	1.530897E+0	1.481175E+0	1.465906E+0	1.425143E+0	1.425144E+0	1.458092E+0	1.452896E+0	1.440780E+0	1.517202E+0	1.438196E+0	1.462516E+0	1.436647E+0	1.547781E+0	1.410203E+0	1.441272E+0	1.398702E+0	1.405156E+0	1.461029E+0	1.435789E+0	1.404554E+0	1.441487E+0	1.403848E+0	1.421220E+0	1.396799E+0	1.518275E+0	1.441618E+0	1.426454E+0	1.454576E+0	1.499438E+0	1.464861E+0	1.456335E+0	1.446672E+0	1.439061E+0	1.451045E+0	1.432601E+0	1.437311E+0	1.473294E+0	1.470836E+0	1.413351E+0	1.461421E+0	1.437852E+0
5.452690E+2	1.354957E+0	1.288135E+0	1.340783E+0	1.358785E+0	1.380448E+0	1.370544E+0	1.291402E+0	1.340584E+0	1.338585E+0	1.394635E+0	1.339665E+0	1.406433E+0	1.361129E+0	1.337494E+0	1.340174E+0	1.381785E+0	1.365143E+0	1.332695E+0	1.344929E+0	1.389255E+0	1.365421E+0	1.313269E+0	1.313992E+0	1.357261E+0	1.342725E+0	1.356483E+0	1.365075E+0	1.333447E+0	1.328419E+0	1.315393E+0	1.385704E+0	1.376400E+0	1.368120E+0	1.386830E+0	1.323222E+0	1.351097E+0	1.399769E+0	1.352227E+0	1.322877E+0	1.341951E+0	1.352262E+0	1.352668E+0	1.398932E+0	1.382087E+0	1.327814E+0	1.302486E+0	1.344851E+0	1.403316E+0	1.394752E+0	1.259011E+0	1.325015E+0	1.431906E+0	1.383373E+0	1.387642E+0	1.303453E+0	1.379124E+0	1.336629E+0	1.356981E+0	1.346146E+0	1.319921E+0	1.343063E+0	1.335110E+0	1.322782E+0	1.355391E+0	1.345686E+0	1.364038E+0	1.371957E+0	1.376230E+0	1.350525E+0	1.368506E+0	1.359572E+0	1.338595E+0	1.321060E+0	1.322063E+0	1.404851E+0	1.316787E+0	1.337701E+0	1.306418E+0	1.355142E+0	1.336595E+0	1.305850E+0	1.356175E+0	1.358545E+0	1.333634E+0	1.347620E+0	1.362547E+0	1.383067E+0	1.363257E+0	1.346985E+0	1.384206E+0	1.388211E+0	1.365894E+0	1.353742E+0	1.351090E+0	1.405772E+0	1.424470E+0	1.361876E+0	1.366152E+0	1.422121E+0	1.350273E+0	1.421613E+0	1.385530E+0	1.356192E+0	1.309516E+0	1.288026E+0	1.353595E+0	1.343358E+0	1.397906E+0	1.342852E+0	1.303337E+0	1.373682E+0	1.349632E+0	1.321810E+0	1.361712E+0	1.357727E+0	1.361194E+0	1.387305E+0	1.307576E+0	1.316357E+0	1.364246E+0	1.344883E+0	1.342061E+0	1.309905E+0	1.357113E+0	1.266847E+0	1.359620E+0	1.392902E+0	1.369356E+0	1.354509E+0	1.330985E+0	1.330373E+0	1.310587E+0	1.338682E+0	1.322405E+0	1.353263E+0	1.310636E+0	1.323284E+0	1.318161E+0	1.368645E+0	1.304846E+0	1.332295E+0	1.339496E+0	1.372215E+0	1.358112E+0	1.287889E+0	1.356217E+0	1.304518E+0	1.316827E+0	1.322076E+0	1.262795E+0	1.329342E+0	1.306361E+0	1.323252E+0	1.335676E+0	1.353969E+0	1.372485E+0	1.329783E+0	1.320622E+0	1.360278E+0	1.376821E+0	1.325904E+0	1.283083E+0	1.379280E+0	1.305571E+0	1.354269E+0	1.348509E+0	1.350257E+0	1.350185E+0	1.396217E+0	1.400970E+0	1.262787E+0
5.455290E+2	1.362810E+0	1.272294E+0	1.308408E+0	1.265450E+0	1.292142E+0	1.299207E+0	1.294917E+0	1.336377E+0	1.374513E+0	1.286002E+0	1.277797E+0	1.327676E+0	1.291900E+0	1.280524E+0	1.288111E+0	1.334121E+0	1.322621E+0	1.333159E+0	1.305710E+0	1.358711E+0	1.274880E+0	1.324505E+0	1.313232E+0	1.288719E+0	1.326156E+0	1.319138E+0	1.343095E+0	1.264537E+0	1.290291E+0	1.335653E+0	1.325210E+0	1.323647E+0	1.279093E+0	1.334461E+0	1.254704E+0	1.300285E+0	1.320470E+0	1.325642E+0	1.310816E+0	1.278963E+0	1.277367E+0	1.300845E+0	1.322737E+0	1.365920E+0	1.323332E+0	1.313148E+0	1.282735E+0	1.291416E+0	1.270560E+0	1.299743E+0	1.333446E+0	1.343826E+0	1.295111E+0	1.306612E+0	1.292213E+0	1.298431E+0	1.355586E+0	1.261045E+0	1.330196E+0	1.307161E+0	1.262716E+0	1.304887E+0	1.355613E+0	1.356080E+0	1.301805E+0	1.368808E+0	1.279986E+0	1.348396E+0	1.357042E+0	1.272898E+0	1.262098E+0	1.288682E+0	1.329071E+0	1.284163E+0	1.317092E+0	1.292689E+0	1.260879E+0	1.306281E+0	1.297291E+0	1.342131E+0	1.265248E+0	1.292455E+0	1.277768E+0	1.319156E+0	1.289908E+0	1.332925E+0	1.317755E+0	1.313508E+0	1.296699E+0	1.281166E+0	1.304760E+0	1.309718E+0	1.304884E+0	1.308489E+0	1.374480E+0	1.366268E+0	1.268687E+0	1.336787E+0	1.315632E+0	1.311019E+0	1.326003E+0	1.284152E+0	1.295819E+0	1.233627E+0	1.321817E+0	1.391248E+0	1.340892E+0	1.318239E+0	1.279708E+0	1.293989E+0	1.335138E+0	1.293625E+0	1.291497E+0	1.261020E+0	1.309387E+0	1.314109E+0	1.316722E+0	1.288437E+0	1.300526E+0	1.342987E+0	1.329857E+0	1.295318E+0	1.362933E+0	1.382997E+0	1.261367E+0	1.289900E+0	1.321495E+0	1.259725E+0	1.267862E+0	1.279860E+0	1.283842E+0	1.290457E+0	1.269705E+0	1.305038E+0	1.299392E+0	1.281406E+0	1.376810E+0	1.293859E+0	1.303952E+0	1.263953E+0	1.281591E+0	1.261361E+0	1.310832E+0	1.326673E+0	1.269872E+0	1.329942E+0	1.269101E+0	1.265327E+0	1.268751E+0	1.288866E+0	1.277627E+0	1.265235E+0	1.254365E+0	1.276507E+0	1.309963E+0	1.299132E+0	1.305359E+0	1.271170E+0	1.296185E+0	1.313940E+0	1.253471E+0	1.273240E+0	1.330889E+0	1.311230E+0	1.270266E+0	1.271522E+0	1.304782E+0	1.277235E+0	1.237462E+0	1.338598E+0	1.323362E+0
5.457670E+2	1.293936E+0	1.217976E+0	1.224630E+0	1.246298E+0	1.260365E+0	1.238964E+0	1.256773E+0	1.208637E+0	1.203272E+0	1.220464E+0	1.238345E+0	1.307692E+0	1.182433E+0	1.258671E+0	1.277744E+0	1.253008E+0	1.225525E+0	1.222476E+0	1.240736E+0	1.230189E+0	1.278591E+0	1.214474E+0	1.192166E+0	1.252381E+0	1.222405E+0	1.203207E+0	1.212977E+0	1.285640E+0	1.209025E+0	1.186018E+0	1.260083E+0	1.273065E+0	1.200220E+0	1.233184E+0	1.272453E+0	1.233274E+0	1.221934E+0	1.224944E+0	1.207147E+0	1.182741E+0	1.265242E+0	1.250134E+0	1.261690E+0	1.250776E+0	1.240289E+0	1.270588E+0	1.256187E+0	1.249008E+0	1.211670E+0	1.153283E+0	1.276970E+0	1.282151E+0	1.256780E+0	1.249883E+0	1.237468E+0	1.255503E+0	1.233820E+0	1.211911E+0	1.198322E+0	1.270566E+0	1.197844E+0	1.233389E+0	1.245343E+0	1.198659E+0	1.232858E+0	1.230428E+0	1.283097E+0	1.265157E+0	1.232739E+0	1.221759E+0	1.242200E+0	1.280684E+0	1.247003E+0	1.253576E+0	1.243204E+0	1.268521E+0	1.267388E+0	1.203252E+0	1.236616E+0	1.258600E+0	1.154738E+0	1.228967E+0	1.239102E+0	1.218170E+0	1.221214E+0	1.265340E+0	1.260039E+0	1.256907E+0	1.275035E+0	1.260121E+0	1.265735E+0	1.226595E+0	1.211567E+0	1.213648E+0	1.218385E+0	1.274000E+0	1.225219E+0	1.205452E+0	1.215738E+0	1.294693E+0	1.235864E+0	1.254400E+0	1.203458E+0	1.232504E+0	1.211646E+0	1.279422E+0	1.252323E+0	1.260992E+0	1.212856E+0	1.217944E+0	1.203461E+0	1.220330E+0	1.205874E+0	1.262714E+0	1.245994E+0	1.254940E+0	1.258645E+0	1.222299E+0	1.233223E+0	1.241794E+0	1.203170E+0	1.209810E+0	1.263427E+0	1.285928E+0	1.208514E+0	1.290756E+0	1.293731E+0	1.245211E+0	1.241020E+0	1.237522E+0	1.266986E+0	1.250589E+0	1.268309E+0	1.224395E+0	1.182897E+0	1.218165E+0	1.210085E+0	1.271247E+0	1.244130E+0	1.291485E+0	1.218858E+0	1.150278E+0	1.302575E+0	1.250056E+0	1.215734E+0	1.271887E+0	1.206132E+0	1.276950E+0	1.206735E+0	1.207934E+0	1.211400E+0	1.236737E+0	1.198084E+0	1.258503E+0	1.261423E+0	1.235709E+0	1.230447E+0	1.180853E+0	1.207730E+0	1.226576E+0	1.185871E+0	1.237664E+0	1.245818E+0	1.258951E+0	1.213815E+0	1.214384E+0	1.207438E+0	1.232280E+0	1.205045E+0	1.196392E+0	1.160640E+0
5.460220E+2	1.182298E+0	1.195769E+0	1.191055E+0	1.225887E+0	1.169268E+0	1.165044E+0	1.215182E+0	1.205134E+0	1.159229E+0	1.217373E+0	1.198900E+0	1.247867E+0	1.141524E+0	1.168196E+0	1.182628E+0	1.232413E+0	1.199116E+0	1.208348E+0	1.142427E+0	1.158829E+0	1.211404E+0	1.179210E+0	1.224270E+0	1.165900E+0	1.219819E+0	1.183912E+0	1.173798E+0	1.255986E+0	1.174276E+0	1.166793E+0	1.205409E+0	1.166711E+0	1.212073E+0	1.189819E+0	1.193401E+0	1.213864E+0	1.216151E+0	1.230876E+0	1.185166E+0	1.190243E+0	1.166672E+0	1.178927E+0	1.194777E+0	1.213830E+0	1.163104E+0	1.139680E+0	1.195100E+0	1.191053E+0	1.172897E+0	1.181723E+0	1.209145E+0	1.185443E+0	1.143266E+0	1.141883E+0	1.198904E+0	1.157240E+0	1.185351E+0	1.181907E+0	1.160112E+0	1.246629E+0	1.146081E+0	1.205813E+0	1.165420E+0	1.216873E+0	1.228082E+0	1.231986E+0	1.202071E+0	1.147197E+0	1.199745E+0	1.217001E+0	1.167098E+0	1.200396E+0	1.186349E+0	1.194921E+0	1.188660E+0	1.168770E+0	1.196837E+0	1.159908E+0	1.173752E+0	1.235440E+0	1.135521E+0	1.178709E+0	1.178617E+0	1.184964E+0	1.162159E+0	1.196818E+0	1.193107E+0	1.243351E+0	1.185635E+0	1.187724E+0	1.205208E+0	1.179318E+0	1.138425E+0	1.154963E+0	1.189631E+0	1.212569E+0	1.170502E+0	1.180050E+0	1.142991E+0	1.175710E+0	1.199429E+0	1.191630E+0	1.181146E+0	1.212206E+0	1.164915E+0	1.150432E+0	1.183945E+0	1.180774E+0	1.215747E+0	1.225934E+0	1.176374E+0	1.211748E+0	1.140757E+0	1.163824E+0	1.148103E+0	1.207983E+0	1.208798E+0	1.141539E+0	1.189759E+0	1.172177E+0	1.168239E+0	1.144589E+0	1.207351E+0	1.207340E+0	1.211066E+0	1.182968E+0	1.212789E+0	1.196942E+0	1.200934E+0	1.158997E+0	1.177063E+0	1.174450E+0	1.221582E+0	1.170668E+0	1.130025E+0	1.154982E+0	1.173341E+0	1.175991E+0	1.234576E+0	1.204747E+0	1.194470E+0	1.119219E+0	1.179480E+0	1.193673E+0	1.169745E+0	1.179097E+0	1.205798E+0	1.173489E+0	1.189121E+0	1.178344E+0	1.138782E+0	1.149470E+0	1.177734E+0	1.211030E+0	1.208236E+0	1.202035E+0	1.163421E+0	1.150419E+0	1.189476E+0	1.267064E+0	1.165509E+0	1.176298E+0	1.149041E+0	1.188003E+0	1.173136E+0	1.191603E+0	1.208078E+0	1.163828E+0	1.156812E+0	1.089355E+0	1.140519E+0
5.467660E+2	1.283566E+0	1.279895E+0	1.272086E+0	1.287754E+0	1.275573E+0	1.280591E+0	1.283368E+0	1.264119E+0	1.308828E+0	1.264607E+0	1.300384E+0	1.335547E+0	1.262872E+0	1.292346E+0	1.247446E+0	1.304761E+0	1.347184E+0	1.258981E+0	1.285830E+0	1.371251E+0	1.284556E+0	1.307470E+0	1.283205E+0	1.307720E+0	1.289429E+0	1.303551E+0	1.322885E+0	1.310279E+0	1.291658E+0	1.327249E+0	1.321765E+0	1.339435E+0	1.258269E+0	1.297593E+0	1.267598E+0	1.288703E+0	1.295607E+0	1.283104E+0	1.267808E+0	1.337681E+0	1.277958E+0	1.279745E+0	1.321850E+0	1.318348E+0	1.256181E+0	1.336394E+0	1.232604E+0	1.325828E+0	1.244676E+0	1.323814E+0	1.272513E+0	1.353805E+0	1.275551E+0	1.310177E+0	1.294446E+0	1.336681E+0	1.261652E+0	1.259789E+0	1.303474E+0	1.300296E+0	1.277515E+0	1.293867E+0	1.314512E+0	1.333870E+0	1.250980E+0	1.285496E+0	1.283608E+0	1.325208E+0	1.322241E+0	1.282759E+0	1.317085E+0	1.303827E+0	1.284889E+0	1.275943E+0	1.313221E+0	1.291721E+0	1.267535E+0	1.240619E+0	1.277914E+0	1.282992E+0	1.245143E+0	1.272459E+0	1.245049E+0	1.328770E+0	1.283854E+0	1.284042E+0	1.283354E+0	1.269015E+0	1.272734E+0	1.265058E+0	1.274702E+0	1.329917E+0	1.215196E+0	1.237317E+0	1.314606E+0	1.353893E+0	1.259579E+0	1.315938E+0	1.190787E+0	1.284837E+0	1.313136E+0	1.327345E+0	1.308666E+0	1.281652E+0	1.317481E+0	1.302151E+0	1.303674E+0	1.340580E+0	1.300684E+0	1.272771E+0	1.322627E+0	1.281281E+0	1.255737E+0	1.295424E+0	1.273272E+0	1.351787E+0	1.349746E+0	1.238201E+0	1.231067E+0	1.273211E+0	1.266380E+0	1.270264E+0	1.257097E+0	1.306583E+0	1.314852E+0	1.229141E+0	1.282644E+0	1.279670E+0	1.265988E+0	1.245271E+0	1.304534E+0	1.298613E+0	1.303817E+0	1.250293E+0	1.312395E+0	1.309809E+0	1.302804E+0	1.269418E+0	1.315237E+0	1.321265E+0	1.280641E+0	1.309242E+0	1.271690E+0	1.280643E+0	1.310570E+0	1.278640E+0	1.302857E+0	1.317886E+0	1.325518E+0	1.247341E+0	1.262265E+0	1.293403E+0	1.265246E+0	1.309360E+0	1.303917E+0	1.269432E+0	1.300897E+0	1.257030E+0	1.362456E+0	1.292758E+0	1.255001E+0	1.260713E+0	1.233146E+0	1.285571E+0	1.257064E+0	1.201318E+0	1.255983E+0	1.242197E+0	1.202414E+0	1.261178E+0	1.241615E+0
5.475120E+2	1.474721E+0	1.336868E+0	1.457543E+0	1.350463E+0	1.454417E+0	1.421208E+0	1.420914E+0	1.429948E+0	1.405731E+0	1.415144E+0	1.380033E+0	1.412280E+0	1.422962E+0	1.440854E+0	1.432319E+0	1.486524E+0	1.415353E+0	1.420983E+0	1.390030E+0	1.405722E+0	1.431561E+0	1.473955E+0	1.385883E+0	1.410906E+0	1.448310E+0	1.419661E+0	1.428533E+0	1.439037E+0	1.401040E+0	1.463606E+0	1.384597E+0	1.423046E+0	1.428209E+0	1.422299E+0	1.415732E+0	1.408894E+0	1.419418E+0	1.414330E+0	1.409440E+0	1.407199E+0	1.375729E+0	1.415296E+0	1.397502E+0	1.417953E+0	1.455056E+0	1.388322E+0	1.411786E+0	1.464685E+0	1.431116E+0	1.391510E+0	1.433823E+0	1.453746E+0	1.445504E+0	1.395281E+0	1.392701E+0	1.410908E+0	1.429887E+0	1.392292E+0	1.366887E+0	1.433989E+0	1.433175E+0	1.389633E+0	1.396299E+0	1.442577E+0	1.363654E+0	1.387969E+0	1.454162E+0	1.468316E+0	1.462966E+0	1.433688E+0	1.403950E+0	1.424038E+0	1.449519E+0	1.406420E+0	1.386734E+0	1.419538E+0	1.414188E+0	1.404762E+0	1.401912E+0	1.402442E+0	1.430810E+0	1.438848E+0	1.375541E+0	1.401779E+0	1.382582E+0	1.391958E+0	1.477452E+0	1.400528E+0	1.387026E+0	1.411916E+0	1.410522E+0	1.426804E+0	1.385464E+0	1.378845E+0	1.419127E+0	1.448419E+0	1.356953E+0	1.368260E+0	1.381655E+0	1.429555E+0	1.433640E+0	1.465792E+0	1.412688E+0	1.380981E+0	1.448001E+0	1.444736E+0	1.387891E+0	1.440335E+0	1.390044E+0	1.375811E+0	1.421329E+0	1.461595E+0	1.335706E+0	1.426912E+0	1.390637E+0	1.397343E+0	1.453305E+0	1.405616E+0	1.440141E+0	1.441231E+0	1.388210E+0	1.377818E+0	1.378999E+0	1.430721E+0	1.325202E+0	1.440964E+0	1.371777E+0	1.436764E+0	1.420374E+0	1.435065E+0	1.401634E+0	1.369378E+0	1.465093E+0	1.350663E+0	1.335926E+0	1.417023E+0	1.358688E+0	1.406240E+0	1.410229E+0	1.441195E+0	1.410195E+0	1.396196E+0	1.445679E+0	1.464256E+0	1.443551E+0	1.408794E+0	1.309025E+0	1.417255E+0	1.384545E+0	1.355943E+0	1.415280E+0	1.377913E+0	1.414921E+0	1.397868E+0	1.385424E+0	1.439525E+0	1.393264E+0	1.418651E+0	1.403059E+0	1.419583E+0	1.396584E+0	1.367982E+0	1.351915E+0	1.425004E+0	1.385172E+0	1.388416E+0	1.448545E+0	1.382230E+0	1.325052E+0	1.396731E+0	1.440274E+0
5.482600E+2	1.465625E+0	1.418888E+0	1.400391E+0	1.471649E+0	1.517013E+0	1.444694E+0	1.446055E+0	1.430764E+0	1.449170E+0	1.429756E+0	1.437801E+0	1.427648E+0	1.425306E+0	1.446511E+0	1.421908E+0	1.508566E+0	1.462002E+0	1.459338E+0	1.468280E+0	1.440921E+0	1.487473E+0	1.419250E+0	1.448521E+0	1.440038E+0	1.466146E+0	1.489168E+0	1.417432E+0	1.519830E+0	1.423546E+0	1.435586E+0	1.473820E+0	1.493822E+0	1.469558E+0	1.453485E+0	1.461928E+0	1.400471E+0	1.464377E+0	1.457157E+0	1.418254E+0	1.449091E+0	1.426037E+0	1.444131E+0	1.440459E+0	1.492238E+0	1.415034E+0	1.405831E+0	1.435058E+0	1.446554E+0	1.434018E+0	1.436648E+0	1.425158E+0	1.464969E+0	1.477011E+0	1.516926E+0	1.421720E+0	1.419043E+0	1.442326E+0	1.423532E+0	1.391613E+0	1.453384E+0	1.425195E+0	1.478633E+0	1.411586E+0	1.468182E+0	1.450055E+0	1.431083E+0	1.381778E+0	1.543020E+0	1.439960E+0	1.451710E+0	1.399924E+0	1.430771E+0	1.454478E+0	1.447444E+0	1.430216E+0	1.488412E+0	1.419199E+0	1.434844E+0	1.399105E+0	1.417650E+0	1.479097E+0	1.435799E+0	1.459559E+0	1.549097E+0	1.413660E+0	1.449149E+0	1.445816E+0	1.417613E+0	1.407946E+0	1.488465E+0	1.399614E+0	1.524328E+0	1.437940E+0	1.376119E+0	1.436285E+0	1.484709E+0	1.465594E+0	1.472069E+0	1.344129E+0	1.478535E+0	1.410604E+0	1.418769E+0	1.416195E+0	1.405071E+0	1.380650E+0	1.457567E+0	1.427154E+0	1.452551E+0	1.432565E+0	1.389133E+0	1.421153E+0	1.488252E+0	1.400269E+0	1.454824E+0	1.458827E+0	1.471646E+0	1.420163E+0	1.415492E+0	1.466072E+0	1.434947E+0	1.456044E+0	1.342073E+0	1.442851E+0	1.417407E+0	1.418159E+0	1.477917E+0	1.459625E+0	1.448586E+0	1.434406E+0	1.442389E+0	1.474637E+0	1.438073E+0	1.437173E+0	1.417488E+0	1.370948E+0	1.465242E+0	1.429772E+0	1.456324E+0	1.453420E+0	1.427087E+0	1.411874E+0	1.394321E+0	1.483207E+0	1.480182E+0	1.365512E+0	1.447874E+0	1.433941E+0	1.444406E+0	1.427199E+0	1.411183E+0	1.440057E+0	1.457456E+0	1.427680E+0	1.436409E+0	1.309317E+0	1.431087E+0	1.430735E+0	1.407979E+0	1.407630E+0	1.456804E+0	1.358107E+0	1.401187E+0	1.444469E+0	1.499272E+0	1.441976E+0	1.396456E+0	1.433792E+0	1.399615E+0	1.363788E+0	1.478947E+0	1.403500E+0
5.490490E+2	1.413845E+0	1.372597E+0	1.449855E+0	1.447582E+0	1.466672E+0	1.427071E+0	1.469445E+0	1.509506E+0	1.449230E+0	1.333924E+0	1.438294E+0	1.415055E+0	1.450546E+0	1.449434E+0	1.440902E+0	1.440986E+0	1.414252E+0	1.429482E+0	1.445878E+0	1.476938E+0	1.434943E+0	1.471721E+0	1.357071E+0	1.453487E+0	1.441065E+0	1.394256E+0	1.444712E+0	1.423469E+0	1.404236E+0	1.445429E+0	1.422124E+0	1.413287E+0	1.423338E+0	1.471038E+0	1.416380E+0	1.485071E+0	1.461430E+0	1.465284E+0	1.395450E+0	1.426875E+0	1.410406E+0	1.486326E+0	1.431777E+0	1.439004E+0	1.412004E+0	1.435999E+0	1.391971E+0	1.473480E+0	1.480626E+0	1.404645E+0	1.482997E+0	1.447014E+0	1.438719E+0	1.424603E+0	1.386249E+0	1.408262E+0	1.419467E+0	1.470836E+0	1.406822E+0	1.428788E+0	1.452902E+0	1.446769E+0	1.422015E+0	1.487881E+0	1.429321E+0	1.433867E+0	1.444725E+0	1.459593E+0	1.431479E+0	1.428861E+0	1.404429E+0	1.436752E+0	1.484118E+0	1.417522E+0	1.387018E+0	1.425099E+0	1.446718E+0	1.404395E+0	1.410423E+0	1.464660E+0	1.455560E+0	1.408644E+0	1.392761E+0	1.480197E+0	1.411364E+0	1.308031E+0	1.460731E+0	1.405558E+0	1.425610E+0	1.412992E+0	1.386154E+0	1.445809E+0	1.498919E+0	1.376578E+0	1.408473E+0	1.505539E+0	1.444298E+0	1.426019E+0	1.414362E+0	1.444943E+0	1.411977E+0	1.419660E+0	1.444697E+0	1.379505E+0	1.436439E+0	1.445472E+0	1.464371E+0	1.444655E+0	1.395478E+0	1.405398E+0	1.424623E+0	1.417878E+0	1.359966E+0	1.506064E+0	1.454552E+0	1.432478E+0	1.488037E+0	1.403221E+0	1.418948E+0	1.427672E+0	1.423491E+0	1.408825E+0	1.428618E+0	1.450669E+0	1.472118E+0	1.454736E+0	1.421858E+0	1.437754E+0	1.440102E+0	1.410597E+0	1.390820E+0	1.421636E+0	1.424005E+0	1.375874E+0	1.362371E+0	1.429020E+0	1.468784E+0	1.466774E+0	1.456864E+0	1.470244E+0	1.425965E+0	1.444244E+0	1.453076E+0	1.421652E+0	1.463681E+0	1.421132E+0	1.370457E+0	1.495798E+0	1.378375E+0	1.400903E+0	1.438722E+0	1.431577E+0	1.381759E+0	1.432125E+0	1.477067E+0	1.476307E+0	1.429570E+0	1.376872E+0	1.401086E+0	1.468536E+0	1.427565E+0	1.436511E+0	1.380495E+0	1.457458E+0	1.422022E+0	1.378239E+0	1.376626E+0	1.431941E+0	1.394934E+0	1.433830E+0	1.448122E+0
5.497790E+2	1.434444E+0	1.330630E+0	1.421969E+0	1.388968E+0	1.395005E+0	1.400759E+0	1.399691E+0	1.405714E+0	1.390690E+0	1.374472E+0	1.404470E+0	1.456420E+0	1.366029E+0	1.433869E+0	1.388844E+0	1.469614E+0	1.421765E+0	1.415366E+0	1.392424E+0	1.405642E+0	1.350465E+0	1.409260E+0	1.417207E+0	1.365833E+0	1.358111E+0	1.442577E+0	1.375508E+0	1.403937E+0	1.409360E+0	1.383054E+0	1.433169E+0	1.409963E+0	1.367083E+0	1.419856E+0	1.421707E+0	1.422232E+0	1.424981E+0	1.400208E+0	1.444030E+0	1.391221E+0	1.358875E+0	1.364164E+0	1.378773E+0	1.409850E+0	1.410607E+0	1.380976E+0	1.377890E+0	1.461897E+0	1.395330E+0	1.390276E+0	1.348484E+0	1.430514E+0	1.344008E+0	1.395535E+0	1.461112E+0	1.431022E+0	1.377212E+0	1.347457E+0	1.377718E+0	1.372878E+0	1.340456E+0	1.418006E+0	1.395341E+0	1.434362E+0	1.361068E+0	1.387678E+0	1.422107E+0	1.398398E+0	1.430231E+0	1.399415E+0	1.427015E+0	1.399858E+0	1.408146E+0	1.329795E+0	1.357669E+0	1.407769E+0	1.392555E+0	1.372978E+0	1.439688E+0	1.404544E+0	1.419394E+0	1.375436E+0	1.366770E+0	1.466243E+0	1.378375E+0	1.407421E+0	1.413392E+0	1.404510E+0	1.365093E+0	1.408223E+0	1.341170E+0	1.398497E+0	1.372136E+0	1.407567E+0	1.377256E+0	1.448319E+0	1.366300E+0	1.372235E+0	1.335938E+0	1.370231E+0	1.362387E+0	1.406673E+0	1.435439E+0	1.424020E+0	1.369593E+0	1.443720E+0	1.391283E+0	1.424687E+0	1.379819E+0	1.349702E+0	1.364126E+0	1.409238E+0	1.293379E+0	1.437349E+0	1.373432E+0	1.421917E+0	1.347556E+0	1.374091E+0	1.407082E+0	1.363666E+0	1.372032E+0	1.405127E+0	1.387763E+0	1.400169E+0	1.371218E+0	1.378682E+0	1.404190E+0	1.433361E+0	1.430526E+0	1.383331E+0	1.429567E+0	1.379646E+0	1.400109E+0	1.341657E+0	1.373977E+0	1.397610E+0	1.438893E+0	1.329243E+0	1.444394E+0	1.365112E+0	1.387080E+0	1.372086E+0	1.391707E+0	1.417936E+0	1.319989E+0	1.348543E+0	1.365116E+0	1.442260E+0	1.347399E+0	1.384388E+0	1.389840E+0	1.381326E+0	1.351813E+0	1.352974E+0	1.417366E+0	1.421149E+0	1.343904E+0	1.416244E+0	1.354008E+0	1.465346E+0	1.335395E+0	1.390429E+0	1.380975E+0	1.411434E+0	1.374797E+0	1.354091E+0	1.416659E+0	1.377569E+0	1.376446E+0	1.386814E+0	1.311698E+0
5.505110E+2	1.352648E+0	1.349430E+0	1.376308E+0	1.323973E+0	1.353459E+0	1.299843E+0	1.376054E+0	1.344271E+0	1.301591E+0	1.371017E+0	1.381192E+0	1.358190E+0	1.305227E+0	1.342691E+0	1.316088E+0	1.373192E+0	1.372871E+0	1.371447E+0	1.331854E+0	1.356989E+0	1.343605E+0	1.312778E+0	1.335301E+0	1.298228E+0	1.309718E+0	1.299441E+0	1.302449E+0	1.345895E+0	1.301780E+0	1.334996E+0	1.343861E+0	1.342188E+0	1.316678E+0	1.323218E+0	1.327899E+0	1.329968E+0	1.353036E+0	1.344562E+0	1.324237E+0	1.304743E+0	1.339828E+0	1.398579E+0	1.335288E+0	1.373482E+0	1.352865E+0	1.298779E+0	1.330686E+0	1.346615E+0	1.304510E+0	1.279878E+0	1.350788E+0	1.359754E+0	1.350934E+0	1.367116E+0	1.332103E+0	1.338471E+0	1.327787E+0	1.357261E+0	1.317390E+0	1.384355E+0	1.302917E+0	1.359652E+0	1.312945E+0	1.346973E+0	1.322627E+0	1.313447E+0	1.344131E+0	1.365788E+0	1.361835E+0	1.322749E+0	1.287809E+0	1.355806E+0	1.357441E+0	1.335905E+0	1.312426E+0	1.349699E+0	1.299267E+0	1.317121E+0	1.321113E+0	1.340007E+0	1.321573E+0	1.350121E+0	1.313412E+0	1.331012E+0	1.306697E+0	1.342271E+0	1.299387E+0	1.388217E+0	1.274330E+0	1.345784E+0	1.334865E+0	1.343085E+0	1.331827E+0	1.316534E+0	1.310570E+0	1.435882E+0	1.332981E+0	1.315194E+0	1.359161E+0	1.360110E+0	1.363569E+0	1.336585E+0	1.306396E+0	1.351694E+0	1.354171E+0	1.334543E+0	1.331678E+0	1.306226E+0	1.292397E+0	1.297870E+0	1.328053E+0	1.389417E+0	1.345305E+0	1.291874E+0	1.284923E+0	1.345287E+0	1.355607E+0	1.328616E+0	1.311051E+0	1.346749E+0	1.333164E+0	1.247128E+0	1.317540E+0	1.293042E+0	1.369422E+0	1.342613E+0	1.347829E+0	1.359799E+0	1.361950E+0	1.317256E+0	1.359044E+0	1.305126E+0	1.308482E+0	1.316620E+0	1.317154E+0	1.309867E+0	1.340487E+0	1.356215E+0	1.371271E+0	1.294361E+0	1.306279E+0	1.326505E+0	1.361789E+0	1.357724E+0	1.316698E+0	1.314951E+0	1.307011E+0	1.347114E+0	1.283081E+0	1.291441E+0	1.321845E+0	1.319063E+0	1.299781E+0	1.364471E+0	1.326385E+0	1.325176E+0	1.347860E+0	1.247914E+0	1.315369E+0	1.343764E+0	1.310500E+0	1.306052E+0	1.317453E+0	1.333921E+0	1.319563E+0	1.309352E+0	1.355518E+0	1.330753E+0	1.241335E+0	1.325950E+0	1.264602E+0
5.512570E+2	1.437274E+0	1.348066E+0	1.426534E+0	1.358596E+0	1.407670E+0	1.421788E+0	1.346538E+0	1.399637E+0	1.400060E+0	1.406525E+0	1.426311E+0	1.407310E+0	1.333413E+0	1.408433E+0	1.391918E+0	1.352404E+0	1.382080E+0	1.334939E+0	1.380682E+0	1.404010E+0	1.413773E+0	1.390012E+0	1.373976E+0	1.393875E+0	1.410194E+0	1.368926E+0	1.386943E+0	1.389553E+0	1.447272E+0	1.421849E+0	1.382525E+0	1.331415E+0	1.422534E+0	1.409497E+0	1.357646E+0	1.402710E+0	1.408481E+0	1.385209E+0	1.341388E+0	1.341531E+0	1.395030E+0	1.414217E+0	1.376196E+0	1.402043E+0	1.346079E+0	1.386243E+0	1.356747E+0	1.387674E+0	1.347336E+0	1.299766E+0	1.375457E+0	1.409553E+0	1.353846E+0	1.412162E+0	1.362309E+0	1.369498E+0	1.368324E+0	1.406417E+0	1.345057E+0	1.350171E+0	1.359622E+0	1.372121E+0	1.356328E+0	1.392320E+0	1.366073E+0	1.363029E+0	1.366970E+0	1.358998E+0	1.397251E+0	1.439457E+0	1.404650E+0	1.326014E+0	1.397261E+0	1.375797E+0	1.391888E+0	1.383717E+0	1.365158E+0	1.403389E+0	1.345018E+0	1.382625E+0	1.352476E+0	1.373634E+0	1.384354E+0	1.385754E+0	1.359069E+0	1.370749E+0	1.390538E+0	1.405573E+0	1.351258E+0	1.360516E+0	1.344255E+0	1.342138E+0	1.350945E+0	1.314380E+0	1.320602E+0	1.422521E+0	1.306719E+0	1.336268E+0	1.335453E+0	1.392117E+0	1.410461E+0	1.359373E+0	1.381048E+0	1.419634E+0	1.386267E+0	1.366449E+0	1.348282E+0	1.417089E+0	1.315249E+0	1.374203E+0	1.378260E+0	1.395379E+0	1.352919E+0	1.353345E+0	1.347379E+0	1.410422E+0	1.433199E+0	1.332821E+0	1.340245E+0	1.396256E+0	1.354924E+0	1.314657E+0	1.351787E+0	1.329008E+0	1.375614E+0	1.432521E+0	1.328239E+0	1.377557E+0	1.387209E+0	1.408040E+0	1.359677E+0	1.415482E+0	1.376657E+0	1.368847E+0	1.404563E+0	1.373600E+0	1.356379E+0	1.362651E+0	1.393508E+0	1.386479E+0	1.326153E+0	1.382461E+0	1.356189E+0	1.418747E+0	1.423346E+0	1.343603E+0	1.345933E+0	1.387401E+0	1.301773E+0	1.335249E+0	1.330127E+0	1.377401E+0	1.328869E+0	1.390043E+0	1.325774E+0	1.424699E+0	1.393573E+0	1.414835E+0	1.396175E+0	1.382233E+0	1.396580E+0	1.352486E+0	1.343869E+0	1.344101E+0	1.353793E+0	1.326625E+0	1.396560E+0	1.314110E+0	1.292218E+0	1.377041E+0	1.347340E+0
5.520260E+2	1.320192E+0	1.327887E+0	1.369754E+0	1.340329E+0	1.385779E+0	1.375638E+0	1.362697E+0	1.360217E+0	1.341520E+0	1.404391E+0	1.407187E+0	1.453512E+0	1.377164E+0	1.381050E+0	1.396304E+0	1.393078E+0	1.436826E+0	1.371302E+0	1.371983E+0	1.406096E+0	1.392747E+0	1.373937E+0	1.323966E+0	1.367851E+0	1.356762E+0	1.310679E+0	1.357832E+0	1.387453E+0	1.357655E+0	1.378062E+0	1.341457E+0	1.338377E+0	1.374883E+0	1.347954E+0	1.370833E+0	1.393690E+0	1.340250E+0	1.390549E+0	1.355385E+0	1.310931E+0	1.330971E+0	1.401684E+0	1.347913E+0	1.393032E+0	1.348208E+0	1.370616E+0	1.350183E+0	1.399141E+0	1.373394E+0	1.341409E+0	1.357386E+0	1.425562E+0	1.368284E+0	1.358979E+0	1.401201E+0	1.340700E+0	1.389714E+0	1.377643E+0	1.328147E+0	1.327446E+0	1.323290E+0	1.391316E+0	1.344662E+0	1.420678E+0	1.382737E+0	1.343867E+0	1.313886E+0	1.415686E+0	1.405204E+0	1.384015E+0	1.366153E+0	1.363081E+0	1.317251E+0	1.326849E+0	1.334443E+0	1.409713E+0	1.341973E+0	1.378804E+0	1.344060E+0	1.365317E+0	1.324721E+0	1.341240E+0	1.377984E+0	1.364739E+0	1.356557E+0	1.399743E+0	1.353567E+0	1.365697E+0	1.345587E+0	1.400233E+0	1.367960E+0	1.405973E+0	1.342440E+0	1.322193E+0	1.409963E+0	1.365195E+0	1.329315E+0	1.309446E+0	1.349486E+0	1.362798E+0	1.366670E+0	1.340470E+0	1.342614E+0	1.346551E+0	1.383799E+0	1.402387E+0	1.307872E+0	1.332941E+0	1.331415E+0	1.336496E+0	1.375213E+0	1.382759E+0	1.325920E+0	1.330324E+0	1.359520E+0	1.437809E+0	1.343959E+0	1.390289E+0	1.364157E+0	1.380575E+0	1.398375E+0	1.307435E+0	1.346153E+0	1.376194E+0	1.339608E+0	1.347140E+0	1.348228E+0	1.384227E+0	1.376267E+0	1.335230E+0	1.377145E+0	1.332367E+0	1.431035E+0	1.285580E+0	1.351126E+0	1.359609E+0	1.389511E+0	1.390695E+0	1.331629E+0	1.372201E+0	1.368990E+0	1.342419E+0	1.345819E+0	1.363790E+0	1.321928E+0	1.329381E+0	1.362064E+0	1.364534E+0	1.397750E+0	1.306420E+0	1.355212E+0	1.324845E+0	1.322618E+0	1.322481E+0	1.361200E+0	1.351650E+0	1.332436E+0	1.314910E+0	1.376417E+0	1.362668E+0	1.337024E+0	1.304748E+0	1.346225E+0	1.384251E+0	1.316600E+0	1.323391E+0	1.406510E+0	1.376676E+0	1.363300E+0	1.402343E+0	1.201832E+0
5.527590E+2	1.321178E+0	1.234999E+0	1.241547E+0	1.275172E+0	1.276470E+0	1.296375E+0	1.290896E+0	1.287477E+0	1.284256E+0	1.256390E+0	1.295542E+0	1.262951E+0	1.260036E+0	1.254115E+0	1.281529E+0	1.296776E+0	1.243615E+0	1.243128E+0	1.247784E+0	1.322953E+0	1.258027E+0	1.269857E+0	1.249622E+0	1.278477E+0	1.251954E+0	1.276697E+0	1.247530E+0	1.229905E+0	1.330159E+0	1.293360E+0	1.281902E+0	1.293345E+0	1.267866E+0	1.276139E+0	1.273844E+0	1.264394E+0	1.292696E+0	1.320235E+0	1.246173E+0	1.287271E+0	1.267499E+0	1.284667E+0	1.289375E+0	1.271402E+0	1.272225E+0	1.265796E+0	1.271961E+0	1.307010E+0	1.320750E+0	1.222035E+0	1.281850E+0	1.229163E+0	1.279092E+0	1.286575E+0	1.267302E+0	1.244366E+0	1.271933E+0	1.281779E+0	1.238565E+0	1.259542E+0	1.286094E+0	1.286479E+0	1.200046E+0	1.306259E+0	1.257499E+0	1.249714E+0	1.294028E+0	1.249813E+0	1.342278E+0	1.305057E+0	1.232507E+0	1.276349E+0	1.320869E+0	1.293255E+0	1.250274E+0	1.273618E+0	1.247632E+0	1.222733E+0	1.257839E+0	1.278719E+0	1.282814E+0	1.277119E+0	1.241773E+0	1.212086E+0	1.282235E+0	1.290151E+0	1.254805E+0	1.300925E+0	1.242431E+0	1.265572E+0	1.281959E+0	1.249434E+0	1.271393E+0	1.233536E+0	1.273391E+0	1.264355E+0	1.277742E+0	1.274879E+0	1.247373E+0	1.273018E+0	1.251590E+0	1.248145E+0	1.256365E+0	1.251591E+0	1.254048E+0	1.253450E+0	1.262448E+0	1.283556E+0	1.271442E+0	1.227217E+0	1.275923E+0	1.306879E+0	1.269949E+0	1.264805E+0	1.258979E+0	1.280670E+0	1.238560E+0	1.249449E+0	1.289572E+0	1.254106E+0	1.269219E+0	1.258757E+0	1.309411E+0	1.263859E+0	1.234384E+0	1.289588E+0	1.257717E+0	1.301630E+0	1.277204E+0	1.281919E+0	1.263145E+0	1.218564E+0	1.249262E+0	1.236666E+0	1.257968E+0	1.240798E+0	1.215162E+0	1.283539E+0	1.254802E+0	1.287246E+0	1.234979E+0	1.269730E+0	1.277556E+0	1.290173E+0	1.242557E+0	1.266027E+0	1.255667E+0	1.250436E+0	1.239768E+0	1.219528E+0	1.287818E+0	1.244435E+0	1.257129E+0	1.316334E+0	1.240572E+0	1.234631E+0	1.273491E+0	1.248269E+0	1.239712E+0	1.336081E+0	1.239705E+0	1.237691E+0	1.239081E+0	1.265104E+0	1.311065E+0	1.277011E+0	1.307016E+0	1.239236E+0	1.258661E+0	1.279439E+0	1.224968E+0
5.535330E+2	1.288181E+0	1.249320E+0	1.263372E+0	1.215931E+0	1.315130E+0	1.213083E+0	1.237582E+0	1.263214E+0	1.229783E+0	1.209233E+0	1.286748E+0	1.298541E+0	1.233713E+0	1.261951E+0	1.236245E+0	1.227896E+0	1.286617E+0	1.199758E+0	1.234810E+0	1.213202E+0	1.192827E+0	1.215474E+0	1.156147E+0	1.237542E+0	1.241078E+0	1.217150E+0	1.237761E+0	1.243716E+0	1.276063E+0	1.233267E+0	1.263026E+0	1.232880E+0	1.264157E+0	1.313093E+0	1.272687E+0	1.238746E+0	1.257485E+0	1.232041E+0	1.199816E+0	1.242509E+0	1.244404E+0	1.276098E+0	1.192357E+0	1.174480E+0	1.194384E+0	1.260711E+0	1.219377E+0	1.243675E+0	1.214835E+0	1.252225E+0	1.207730E+0	1.229529E+0	1.254961E+0	1.296621E+0	1.230458E+0	1.207010E+0	1.299159E+0	1.262338E+0	1.223747E+0	1.211017E+0	1.260169E+0	1.279797E+0	1.181846E+0	1.241011E+0	1.242983E+0	1.236402E+0	1.243051E+0	1.269594E+0	1.269555E+0	1.243889E+0	1.262735E+0	1.210127E+0	1.250237E+0	1.227251E+0	1.194190E+0	1.209346E+0	1.228808E+0	1.161205E+0	1.272188E+0	1.237108E+0	1.227198E+0	1.227846E+0	1.225890E+0	1.255644E+0	1.267490E+0	1.223329E+0	1.264551E+0	1.248641E+0	1.235989E+0	1.267924E+0	1.230491E+0	1.237980E+0	1.202149E+0	1.166604E+0	1.286589E+0	1.231221E+0	1.255993E+0	1.213628E+0	1.222985E+0	1.209134E+0	1.264696E+0	1.271122E+0	1.220632E+0	1.238053E+0	1.232483E+0	1.204058E+0	1.227991E+0	1.197361E+0	1.246715E+0	1.188901E+0	1.243380E+0	1.283438E+0	1.252735E+0	1.254249E+0	1.256647E+0	1.212977E+0	1.258010E+0	1.234704E+0	1.215042E+0	1.233281E+0	1.210438E+0	1.175522E+0	1.220619E+0	1.255742E+0	1.202234E+0	1.222360E+0	1.271024E+0	1.220690E+0	1.235216E+0	1.237290E+0	1.231862E+0	1.229728E+0	1.253241E+0	1.228075E+0	1.229026E+0	1.246849E+0	1.205655E+0	1.287168E+0	1.271709E+0	1.240686E+0	1.195846E+0	1.199531E+0	1.204945E+0	1.267569E+0	1.260494E+0	1.163452E+0	1.218780E+0	1.231118E+0	1.291098E+0	1.177037E+0	1.249339E+0	1.219137E+0	1.199074E+0	1.272696E+0	1.225913E+0	1.294712E+0	1.217588E+0	1.233082E+0	1.238392E+0	1.296736E+0	1.246083E+0	1.194663E+0	1.242345E+0	1.238101E+0	1.200832E+0	1.224060E+0	1.186405E+0	1.205867E+0	1.192477E+0	1.278630E+0	1.199367E+0
5.542580E+2	1.172878E+0	1.054690E+0	1.141778E+0	1.135176E+0	1.133262E+0	1.175956E+0	1.115628E+0	1.126533E+0	1.135294E+0	1.159663E+0	1.164982E+0	1.138888E+0	1.132883E+0	1.186675E+0	1.134378E+0	1.158838E+0	1.172073E+0	1.165669E+0	1.160396E+0	1.109987E+0	1.155747E+0	1.127344E+0	1.186334E+0	1.147986E+0	1.100575E+0	1.131904E+0	1.123928E+0	1.109678E+0	1.161742E+0	1.159764E+0	1.133234E+0	1.174326E+0	1.132627E+0	1.115727E+0	1.162008E+0	1.186144E+0	1.108474E+0	1.178783E+0	1.193024E+0	1.118203E+0	1.129453E+0	1.165364E+0	1.153670E+0	1.129400E+0	1.161235E+0	1.146171E+0	1.128095E+0	1.195880E+0	1.184515E+0	1.100980E+0	1.213243E+0	1.171438E+0	1.175287E+0	1.182331E+0	1.140917E+0	1.164562E+0	1.144570E+0	1.153954E+0	1.142062E+0	1.207509E+0	1.104227E+0	1.089669E+0	1.107579E+0	1.196764E+0	1.150475E+0	1.173864E+0	1.184729E+0	1.212437E+0	1.219770E+0	1.125710E+0	1.141037E+0	1.160335E+0	1.109317E+0	1.172320E+0	1.177926E+0	1.161048E+0	1.151525E+0	1.125003E+0	1.139367E+0	1.136493E+0	1.118365E+0	1.115775E+0	1.135704E+0	1.159102E+0	1.088683E+0	1.148184E+0	1.137020E+0	1.117302E+0	1.148761E+0	1.144148E+0	1.086917E+0	1.172930E+0	1.139139E+0	1.120186E+0	1.135003E+0	1.181242E+0	1.118817E+0	1.142272E+0	1.161344E+0	1.163516E+0	1.112165E+0	1.160938E+0	1.108982E+0	1.131925E+0	1.118457E+0	1.156063E+0	1.171011E+0	1.108379E+0	1.144629E+0	1.139271E+0	1.191060E+0	1.191373E+0	1.131978E+0	1.147410E+0	1.164631E+0	1.152804E+0	1.156287E+0	1.124733E+0	1.148590E+0	1.120795E+0	1.207231E+0	1.151530E+0	1.143811E+0	1.105413E+0	1.137230E+0	1.078443E+0	1.152447E+0	1.145806E+0	1.189561E+0	1.133005E+0	1.183913E+0	1.145564E+0	1.194511E+0	1.123946E+0	1.140397E+0	1.156625E+0	1.176207E+0	1.179623E+0	1.145427E+0	1.172765E+0	1.167013E+0	1.144019E+0	1.163441E+0	1.110078E+0	1.130160E+0	1.131903E+0	1.120192E+0	1.142498E+0	1.140019E+0	1.133331E+0	1.121660E+0	1.117079E+0	1.159285E+0	1.134035E+0	1.131415E+0	1.161731E+0	1.136460E+0	1.127686E+0	1.089777E+0	1.203151E+0	1.154237E+0	1.095293E+0	1.116337E+0	1.143415E+0	1.146494E+0	1.169632E+0	1.136300E+0	1.103437E+0	1.223977E+0	1.168804E+0	1.106949E+0
5.550140E+2	1.003367E+0	9.836619E-1	1.013921E+0	9.805445E-1	1.051475E+0	1.005362E+0	9.931035E-1	9.960810E-1	9.891150E-1	1.007017E+0	1.009939E+0	1.070253E+0	1.003617E+0	1.046086E+0	1.037253E+0	1.036409E+0	1.002770E+0	1.026973E+0	1.019156E+0	1.024530E+0	1.025934E+0	1.034432E+0	1.013838E+0	1.021627E+0	1.003693E+0	9.655671E-1	1.018858E+0	1.004227E+0	1.025860E+0	1.016044E+0	1.059263E+0	1.010665E+0	1.009841E+0	1.012114E+0	9.877844E-1	1.072577E+0	1.040334E+0	1.020822E+0	1.018173E+0	1.044517E+0	1.037046E+0	9.889911E-1	1.025588E+0	1.017597E+0	1.011699E+0	9.661358E-1	9.655729E-1	1.010244E+0	1.010963E+0	1.045980E+0	1.036507E+0	1.033597E+0	9.924905E-1	1.005799E+0	1.034067E+0	1.003157E+0	1.047069E+0	9.736477E-1	9.605874E-1	1.041738E+0	1.027778E+0	1.032094E+0	9.637803E-1	1.018175E+0	9.974712E-1	9.901275E-1	1.030719E+0	9.947746E-1	1.065992E+0	1.002249E+0	1.001208E+0	1.014651E+0	1.028453E+0	9.961375E-1	1.000696E+0	1.019562E+0	1.044148E+0	9.902424E-1	1.050342E+0	1.031951E+0	9.984881E-1	1.017353E+0	1.020130E+0	9.950144E-1	9.731763E-1	1.050188E+0	1.017965E+0	9.803846E-1	1.049176E+0	9.749752E-1	1.050429E+0	9.815503E-1	1.002582E+0	9.770953E-1	1.010700E+0	1.055008E+0	1.053310E+0	9.779397E-1	9.887512E-1	1.012172E+0	1.057575E+0	1.003916E+0	9.730811E-1	1.042911E+0	1.025474E+0	1.030090E+0	9.956187E-1	9.719794E-1	9.940541E-1	1.056898E+0	1.021589E+0	9.881106E-1	1.047734E+0	1.035958E+0	1.022674E+0	1.040445E+0	1.041523E+0	1.019806E+0	1.007940E+0	1.003105E+0	1.008863E+0	9.551019E-1	9.688869E-1	9.787605E-1	9.638636E-1	1.029995E+0	1.004534E+0	1.047975E+0	1.044688E+0	9.682899E-1	1.069348E+0	1.030503E+0	1.032498E+0	9.830423E-1	1.041198E+0	1.022288E+0	9.995152E-1	1.058762E+0	9.957047E-1	1.027383E+0	1.037845E+0	9.964036E-1	1.054667E+0	1.073910E+0	1.036761E+0	1.010685E+0	1.004512E+0	1.032707E+0	9.791654E-1	9.669981E-1	1.000370E+0	1.006607E+0	1.032635E+0	1.020807E+0	9.918877E-1	1.021275E+0	1.000842E+0	1.014613E+0	9.987766E-1	9.874420E-1	1.033355E+0	9.663286E-1	1.059916E+0	9.855668E-1	1.060944E+0	9.609137E-1	1.016312E+0	1.019642E+0	9.934011E-1	1.014681E+0	9.407691E-1
5.557600E+2	1.050539E+0	9.895603E-1	9.543781E-1	1.016186E+0	9.971700E-1	1.028567E+0	1.036496E+0	1.022364E+0	9.806767E-1	1.039787E+0	1.022410E+0	1.059698E+0	9.742723E-1	1.051014E+0	9.989378E-1	1.019928E+0	9.919850E-1	9.740735E-1	1.056326E+0	1.017272E+0	1.044726E+0	1.004395E+0	1.002753E+0	1.025251E+0	9.657131E-1	9.937234E-1	1.027556E+0	1.019551E+0	1.025271E+0	1.028552E+0	9.958657E-1	1.012838E+0	9.935104E-1	1.008106E+0	1.027374E+0	9.935639E-1	1.038368E+0	1.034478E+0	9.826802E-1	9.799119E-1	9.912290E-1	1.000079E+0	9.825514E-1	9.770457E-1	9.736922E-1	1.019973E+0	9.748974E-1	1.036431E+0	9.912822E-1	9.952312E-1	1.007428E+0	9.794368E-1	9.991364E-1	1.012517E+0	1.066108E+0	9.630231E-1	1.011252E+0	9.852922E-1	1.022990E+0	9.787439E-1	1.030476E+0	9.762355E-1	1.000696E+0	1.032761E+0	9.963070E-1	1.025785E+0	9.926597E-1	1.019581E+0	1.015097E+0	9.678679E-1	1.008927E+0	1.005843E+0	1.031914E+0	9.876547E-1	1.001512E+0	9.749907E-1	1.023328E+0	1.000781E+0	1.002498E+0	9.884870E-1	1.022292E+0	9.982686E-1	1.005630E+0	1.010296E+0	1.014038E+0	9.997579E-1	1.021666E+0	1.040873E+0	1.016465E+0	1.003387E+0	9.933625E-1	9.439253E-1	1.022416E+0	9.899654E-1	9.767310E-1	1.049643E+0	9.877214E-1	1.055260E+0	1.000131E+0	1.021983E+0	1.045079E+0	9.744054E-1	1.015789E+0	1.020683E+0	1.023729E+0	1.006467E+0	1.033849E+0	9.873642E-1	1.069664E+0	1.015981E+0	9.822089E-1	1.036703E+0	1.013720E+0	1.012604E+0	1.024621E+0	9.805968E-1	1.009242E+0	9.791465E-1	1.052403E+0	1.025459E+0	1.023810E+0	1.029721E+0	9.795331E-1	9.733157E-1	1.047654E+0	9.924972E-1	1.036535E+0	9.955718E-1	9.648428E-1	1.033978E+0	1.043250E+0	9.988263E-1	9.802358E-1	9.547213E-1	9.952999E-1	9.812831E-1	1.034382E+0	1.031693E+0	1.025389E+0	9.891607E-1	1.008392E+0	9.973981E-1	1.022940E+0	9.897155E-1	1.028836E+0	1.002724E+0	1.025832E+0	1.010475E+0	9.898306E-1	9.579317E-1	1.009432E+0	1.018167E+0	1.001772E+0	1.002605E+0	9.721643E-1	1.004896E+0	9.807893E-1	1.006621E+0	9.872146E-1	9.912491E-1	9.815606E-1	9.987968E-1	1.031812E+0	1.004801E+0	1.006362E+0	1.016256E+0	1.019856E+0	1.050560E+0	1.026794E+0	1.055388E+0	9.580774E-1
5.560190E+2	9.872148E-1	9.744740E-1	9.649946E-1	1.049204E+0	1.066406E+0	1.005256E+0	9.757379E-1	1.038966E+0	9.521024E-1	9.949084E-1	9.938507E-1	1.025591E+0	1.021475E+0	1.003073E+0	1.001060E+0	1.014723E+0	9.932716E-1	9.732294E-1	1.038911E+0	9.761235E-1	1.006055E+0	1.040716E+0	9.548710E-1	9.815058E-1	1.018675E+0	1.015961E+0	9.679092E-1	1.031516E+0	1.007356E+0	1.053404E+0	1.016164E+0	1.005993E+0	9.855179E-1	1.021081E+0	9.803527E-1	9.943037E-1	1.045607E+0	1.012018E+0	1.021394E+0	1.021352E+0	1.013377E+0	9.976771E-1	9.869471E-1	9.605793E-1	9.536147E-1	1.036405E+0	9.952095E-1	1.011996E+0	1.067117E+0	9.672337E-1	1.017259E+0	1.010750E+0	1.043408E+0	1.031978E+0	1.011484E+0	1.029307E+0	9.821578E-1	9.937580E-1	1.001403E+0	9.999599E-1	9.666166E-1	9.714906E-1	1.033981E+0	1.006241E+0	1.021798E+0	9.941960E-1	9.835593E-1	1.014214E+0	1.053488E+0	1.014061E+0	1.012237E+0	9.622662E-1	9.811440E-1	9.598569E-1	9.441037E-1	1.055071E+0	9.790778E-1	9.797592E-1	1.033789E+0	9.747798E-1	1.000143E+0	1.014526E+0	1.009527E+0	1.000171E+0	9.797606E-1	9.605362E-1	1.046334E+0	9.718842E-1	1.015477E+0	1.009827E+0	9.936119E-1	1.030227E+0	9.993227E-1	1.007159E+0	1.010510E+0	1.004261E+0	9.720934E-1	1.006361E+0	1.013371E+0	1.053802E+0	1.011638E+0	1.006922E+0	1.001599E+0	1.022398E+0	9.683076E-1	1.033891E+0	9.578874E-1	1.030244E+0	1.033720E+0	9.974273E-1	1.031274E+0	1.009996E+0	1.012108E+0	1.027031E+0	9.953419E-1	1.042791E+0	9.962302E-1	9.774222E-1	9.823737E-1	9.958537E-1	1.002650E+0	1.004796E+0	1.015260E+0	9.894163E-1	9.951706E-1	9.916579E-1	1.014868E+0	1.000421E+0	1.006285E+0	1.013158E+0	1.049865E+0	9.790024E-1	1.011724E+0	9.923942E-1	9.837818E-1	1.034746E+0	1.005947E+0	1.015615E+0	1.051589E+0	9.829400E-1	9.982611E-1	9.695741E-1	1.031972E+0	1.016300E+0	1.018806E+0	9.843617E-1	1.029291E+0	9.910180E-1	1.011329E+0	9.531457E-1	1.024218E+0	1.035305E+0	1.002653E+0	9.982914E-1	9.276127E-1	1.001304E+0	9.651943E-1	1.032583E+0	9.372654E-1	1.001027E+0	1.015257E+0	1.007018E+0	9.872636E-1	9.740833E-1	1.022034E+0	9.995093E-1	1.007905E+0	9.792518E-1	9.842967E-1	1.059979E+0	1.006503E+0
5.565370E+2	9.279021E-1	9.533323E-1	9.646242E-1	9.535853E-1	9.474074E-1	9.347827E-1	9.268810E-1	9.248848E-1	9.320240E-1	9.245998E-1	9.361319E-1	9.639504E-1	9.774801E-1	9.376828E-1	9.078086E-1	9.725147E-1	9.237814E-1	9.306506E-1	9.683919E-1	9.462335E-1	9.209695E-1	9.330806E-1	9.333928E-1	9.377104E-1	9.468909E-1	9.490615E-1	9.191422E-1	9.315542E-1	9.444226E-1	9.430512E-1	9.492016E-1	9.358498E-1	9.445592E-1	9.230481E-1	9.521015E-1	9.392621E-1	9.665670E-1	9.977843E-1	9.456779E-1	9.252824E-1	9.442690E-1	9.276658E-1	9.696714E-1	9.439372E-1	9.274020E-1	9.590711E-1	9.339259E-1	9.184876E-1	9.212507E-1	9.383693E-1	1.001538E+0	9.156480E-1	9.375896E-1	9.825097E-1	9.376946E-1	9.438328E-1	9.579108E-1	9.609285E-1	9.434108E-1	9.510432E-1	9.556986E-1	9.357369E-1	9.516527E-1	9.474815E-1	9.646522E-1	9.436195E-1	9.176105E-1	9.226368E-1	9.261574E-1	9.630713E-1	9.712311E-1	9.162613E-1	9.419382E-1	9.761831E-1	9.271538E-1	9.071650E-1	9.364474E-1	9.473616E-1	9.292702E-1	9.571335E-1	9.322147E-1	9.328758E-1	8.974637E-1	9.235196E-1	9.139480E-1	9.067478E-1	9.557162E-1	8.966034E-1	9.288506E-1	9.497030E-1	9.258277E-1	9.743601E-1	9.707310E-1	9.261974E-1	9.368736E-1	9.342295E-1	9.112256E-1	9.365414E-1	9.535884E-1	9.476730E-1	9.468831E-1	9.366247E-1	9.496074E-1	9.665031E-1	9.379023E-1	9.853264E-1	9.045953E-1	9.368908E-1	8.791222E-1	9.065850E-1	9.164901E-1	9.625948E-1	9.095545E-1	9.138874E-1	9.469332E-1	9.737675E-1	9.587365E-1	9.545057E-1	9.352886E-1	9.028799E-1	9.965904E-1	9.164100E-1	9.159490E-1	9.817655E-1	9.645522E-1	9.427565E-1	9.319507E-1	9.603361E-1	9.361561E-1	9.821537E-1	9.669793E-1	9.511290E-1	9.378854E-1	9.402308E-1	9.433112E-1	9.387066E-1	9.334146E-1	8.961251E-1	9.464611E-1	9.679956E-1	9.653105E-1	9.331835E-1	9.237519E-1	9.298022E-1	9.364446E-1	9.529430E-1	9.308353E-1	9.391324E-1	9.506407E-1	9.480384E-1	9.570179E-1	9.429815E-1	9.216521E-1	9.456946E-1	9.163346E-1	9.116159E-1	9.077890E-1	9.654331E-1	9.186514E-1	9.273902E-1	9.458710E-1	8.927226E-1	9.338293E-1	8.911870E-1	9.564480E-1	9.559039E-1	9.239788E-1	9.294292E-1	9.777968E-1	9.205745E-1	9.516407E-1
5.570050E+2	1.004942E+0	1.029127E+0	1.042465E+0	1.051735E+0	1.017818E+0	1.050793E+0	1.053594E+0	1.059723E+0	1.042508E+0	1.014295E+0	1.000302E+0	1.013115E+0	1.022076E+0	9.672191E-1	1.026495E+0	1.027956E+0	1.054209E+0	1.047492E+0	1.051702E+0	1.061440E+0	1.088835E+0	1.010559E+0	1.021283E+0	1.039175E+0	1.042716E+0	9.871715E-1	1.025436E+0	1.054641E+0	1.012149E+0	1.051068E+0	1.084495E+0	1.001288E+0	1.038191E+0	1.057740E+0	1.003945E+0	1.060479E+0	1.046468E+0	9.736725E-1	1.018798E+0	9.881774E-1	9.952317E-1	9.923284E-1	1.018408E+0	1.029381E+0	1.063103E+0	1.016894E+0	1.041936E+0	1.035517E+0	1.015993E+0	1.071725E+0	1.014676E+0	1.033232E+0	1.057898E+0	9.996218E-1	1.022652E+0	1.034523E+0	1.012137E+0	1.030047E+0	1.019260E+0	1.028884E+0	1.041830E+0	1.048189E+0	1.043157E+0	1.047654E+0	1.008521E+0	1.010438E+0	1.059109E+0	1.027500E+0	1.032951E+0	9.892322E-1	1.019472E+0	1.039634E+0	1.013246E+0	1.054064E+0	1.023527E+0	1.050912E+0	9.772731E-1	1.018922E+0	1.006667E+0	1.011204E+0	1.050246E+0	1.036494E+0	1.065461E+0	1.032209E+0	1.035630E+0	1.002933E+0	1.056859E+0	1.001048E+0	1.090369E+0	1.065649E+0	1.017255E+0	1.070672E+0	1.076119E+0	1.003278E+0	1.035904E+0	1.016282E+0	1.055886E+0	1.040582E+0	1.051105E+0	1.006060E+0	1.037208E+0	9.849905E-1	9.744195E-1	1.044281E+0	1.016303E+0	1.003539E+0	1.062947E+0	1.038880E+0	1.037212E+0	1.040982E+0	1.065466E+0	1.040996E+0	1.069333E+0	1.056300E+0	1.016697E+0	9.651950E-1	1.042280E+0	9.864802E-1	1.015856E+0	1.054828E+0	1.012798E+0	1.037260E+0	9.966789E-1	1.016673E+0	9.859756E-1	1.007577E+0	1.031871E+0	1.023882E+0	1.007889E+0	1.041010E+0	9.782922E-1	9.889087E-1	1.039654E+0	1.022443E+0	1.018832E+0	1.031723E+0	9.710539E-1	1.040108E+0	1.022977E+0	1.059231E+0	9.977854E-1	1.049095E+0	1.058475E+0	1.049605E+0	1.071506E+0	1.065625E+0	9.838079E-1	1.074806E+0	1.093782E+0	1.051386E+0	9.967803E-1	1.049199E+0	1.016936E+0	1.046538E+0	1.035447E+0	1.001160E+0	1.043344E+0	1.030347E+0	1.007893E+0	1.033444E+0	1.026411E+0	1.018622E+0	1.005601E+0	9.975056E-1	1.037035E+0	1.005564E+0	1.040536E+0	1.034127E+0	1.102452E+0	1.012945E+0	9.610801E-1
5.575130E+2	1.038205E+0	1.017136E+0	1.048073E+0	1.019796E+0	1.044894E+0	1.035136E+0	1.048736E+0	9.875911E-1	1.019423E+0	1.061366E+0	1.081545E+0	9.974347E-1	1.053461E+0	1.014939E+0	1.043432E+0	1.016100E+0	1.025083E+0	1.026275E+0	1.053783E+0	1.035506E+0	1.029841E+0	1.047311E+0	1.021400E+0	1.025001E+0	9.874045E-1	1.097445E+0	1.073295E+0	1.025519E+0	1.006525E+0	9.750335E-1	1.068330E+0	1.046536E+0	1.037289E+0	1.047338E+0	1.053423E+0	1.025325E+0	1.009313E+0	1.006931E+0	1.076623E+0	1.024378E+0	1.049490E+0	1.033178E+0	9.821395E-1	1.012713E+0	1.040314E+0	1.061974E+0	1.084092E+0	1.051742E+0	1.062894E+0	1.087508E+0	1.073213E+0	1.033950E+0	1.023523E+0	1.021461E+0	1.040432E+0	1.033663E+0	1.038522E+0	9.953606E-1	1.066428E+0	1.035504E+0	1.017572E+0	1.062259E+0	1.007403E+0	1.052613E+0	1.064963E+0	1.046563E+0	1.009707E+0	1.005069E+0	1.071157E+0	1.052708E+0	1.009766E+0	1.031520E+0	1.046942E+0	9.728535E-1	1.027488E+0	1.062023E+0	1.080053E+0	1.020314E+0	1.054595E+0	1.050721E+0	1.048059E+0	1.016629E+0	1.039671E+0	1.027972E+0	1.033407E+0	1.005210E+0	1.008902E+0	1.048701E+0	1.024101E+0	1.031535E+0	1.060339E+0	1.028677E+0	1.072100E+0	1.019772E+0	1.040169E+0	1.045273E+0	1.059564E+0	1.005656E+0	1.055891E+0	1.052374E+0	1.022640E+0	1.045890E+0	1.059191E+0	9.943488E-1	1.031926E+0	1.059424E+0	1.031510E+0	9.898558E-1	1.087485E+0	1.045568E+0	1.047515E+0	1.021419E+0	1.036314E+0	1.043486E+0	1.015671E+0	1.075874E+0	1.006304E+0	1.040242E+0	1.077173E+0	1.046697E+0	1.018460E+0	1.033640E+0	1.072112E+0	1.007400E+0	1.090300E+0	1.021909E+0	1.031107E+0	1.063835E+0	9.938673E-1	1.031961E+0	1.062313E+0	1.006580E+0	1.034461E+0	1.004283E+0	9.966826E-1	1.019337E+0	1.045908E+0	1.041885E+0	1.024766E+0	1.013571E+0	1.035266E+0	1.062061E+0	1.022361E+0	1.012592E+0	9.892866E-1	1.005976E+0	1.051439E+0	1.016719E+0	1.046042E+0	1.044515E+0	1.067091E+0	1.006271E+0	1.062690E+0	1.039572E+0	1.010297E+0	1.028966E+0	1.053244E+0	1.008912E+0	1.001059E+0	1.001015E+0	1.007119E+0	1.001367E+0	1.032296E+0	1.111475E+0	1.069601E+0	1.037012E+0	1.063962E+0	1.043002E+0	1.037353E+0	1.019708E+0	1.132315E+0
5.580570E+2	9.485918E-1	9.964238E-1	9.506464E-1	9.745964E-1	9.715810E-1	9.674347E-1	9.386514E-1	9.763338E-1	9.509516E-1	9.418564E-1	9.592436E-1	9.686637E-1	9.592318E-1	9.489398E-1	9.578664E-1	9.649850E-1	9.615794E-1	9.987231E-1	9.643418E-1	9.416854E-1	9.653320E-1	1.004268E+0	9.584825E-1	9.686391E-1	9.745615E-1	9.609228E-1	9.560376E-1	9.885607E-1	9.764002E-1	1.002917E+0	9.709625E-1	9.965678E-1	9.567512E-1	1.008392E+0	9.487600E-1	9.485554E-1	9.713953E-1	9.874734E-1	9.529777E-1	9.366160E-1	9.962450E-1	9.321978E-1	9.947583E-1	9.872178E-1	9.497560E-1	9.616386E-1	9.327656E-1	9.691379E-1	9.271396E-1	9.458429E-1	9.583797E-1	9.670059E-1	1.021631E+0	9.755209E-1	9.434583E-1	9.672179E-1	9.637335E-1	9.660295E-1	9.787100E-1	9.564405E-1	9.722022E-1	9.842202E-1	9.979851E-1	9.751669E-1	9.660323E-1	9.855004E-1	9.579169E-1	9.723823E-1	1.007901E+0	9.632798E-1	9.474473E-1	9.650893E-1	9.850642E-1	9.628705E-1	1.009091E+0	9.459798E-1	9.819269E-1	9.553633E-1	1.012286E+0	9.726735E-1	9.991341E-1	9.990011E-1	9.519917E-1	9.415726E-1	1.025514E+0	9.781183E-1	9.374522E-1	9.750656E-1	9.584677E-1	9.578916E-1	9.714848E-1	9.661772E-1	9.567029E-1	9.680612E-1	9.746233E-1	9.578367E-1	1.004836E+0	9.364810E-1	9.667753E-1	9.714642E-1	9.783565E-1	9.859428E-1	9.806578E-1	9.709814E-1	9.868253E-1	9.553563E-1	9.483489E-1	9.466673E-1	9.508782E-1	9.803719E-1	9.827746E-1	9.914817E-1	9.884229E-1	9.355077E-1	9.812099E-1	9.828214E-1	9.863908E-1	1.022362E+0	9.840307E-1	9.600701E-1	9.608737E-1	9.756367E-1	9.947676E-1	1.007001E+0	9.514801E-1	9.950879E-1	9.441247E-1	9.605729E-1	9.749502E-1	9.640611E-1	9.581952E-1	1.009282E+0	9.952660E-1	9.803838E-1	1.000758E+0	9.554302E-1	9.714517E-1	9.393967E-1	9.622464E-1	9.641045E-1	9.494400E-1	9.414681E-1	9.613184E-1	9.686838E-1	9.856202E-1	9.614546E-1	9.497779E-1	9.768588E-1	9.886246E-1	9.487362E-1	9.459115E-1	9.672721E-1	9.975125E-1	9.533009E-1	9.594559E-1	9.341928E-1	9.396543E-1	9.678030E-1	1.017124E+0	9.953694E-1	9.982386E-1	9.802007E-1	9.516369E-1	9.693514E-1	1.000846E+0	9.656613E-1	9.591150E-1	9.807865E-1	9.714339E-1	9.238777E-1	9.330365E-1
5.585270E+2	1.081922E+0	1.002182E+0	9.930707E-1	1.015016E+0	1.002167E+0	9.635358E-1	1.024721E+0	1.055423E+0	1.041236E+0	1.031688E+0	9.925927E-1	1.026803E+0	1.015752E+0	1.063287E+0	1.059445E+0	1.023244E+0	1.019244E+0	1.010084E+0	1.012802E+0	1.012188E+0	1.036686E+0	1.031580E+0	1.025101E+0	1.044951E+0	1.055196E+0	1.056462E+0	1.010923E+0	9.892462E-1	1.038683E+0	1.030281E+0	9.917596E-1	1.027883E+0	1.052609E+0	9.714997E-1	1.044381E+0	1.029832E+0	9.898899E-1	1.057758E+0	1.017836E+0	1.050225E+0	9.952139E-1	1.011521E+0	1.029898E+0	1.050781E+0	1.039029E+0	1.064022E+0	1.034061E+0	1.025063E+0	1.019289E+0	1.002917E+0	1.024132E+0	1.047919E+0	1.000359E+0	1.015628E+0	9.899724E-1	1.014003E+0	1.043520E+0	1.029729E+0	1.052025E+0	1.055432E+0	1.021770E+0	1.006719E+0	9.882687E-1	1.053582E+0	1.025000E+0	9.944335E-1	1.022123E+0	1.014274E+0	9.995007E-1	1.037221E+0	1.038216E+0	1.026085E+0	1.003872E+0	1.077638E+0	1.039965E+0	9.912117E-1	1.023469E+0	1.049379E+0	1.027771E+0	9.815001E-1	1.007191E+0	1.002977E+0	1.054601E+0	1.032356E+0	1.001230E+0	1.036149E+0	1.050560E+0	1.058274E+0	1.010934E+0	1.021538E+0	1.045447E+0	1.012554E+0	9.869129E-1	1.092599E+0	1.085273E+0	1.002560E+0	1.008387E+0	1.020843E+0	1.031727E+0	1.059580E+0	1.045733E+0	1.035032E+0	1.004611E+0	9.957454E-1	1.038266E+0	9.982427E-1	1.042112E+0	1.023732E+0	1.013289E+0	1.032867E+0	9.965977E-1	1.018031E+0	1.006447E+0	1.017580E+0	1.066582E+0	1.069343E+0	1.021906E+0	9.990003E-1	1.009341E+0	1.040244E+0	1.018967E+0	9.974081E-1	1.056284E+0	9.954696E-1	1.015149E+0	1.037077E+0	1.056848E+0	1.002664E+0	1.021362E+0	9.787630E-1	9.585198E-1	1.043308E+0	1.006683E+0	1.005251E+0	1.031245E+0	1.025869E+0	1.000642E+0	1.049205E+0	1.009647E+0	1.028998E+0	1.042593E+0	1.043472E+0	1.044539E+0	1.016059E+0	1.027571E+0	1.017459E+0	1.042748E+0	1.029261E+0	1.012609E+0	9.860943E-1	9.910884E-1	1.035094E+0	1.026544E+0	1.019646E+0	1.042174E+0	1.061218E+0	1.069761E+0	9.901316E-1	1.029999E+0	1.047074E+0	1.007402E+0	1.005843E+0	1.053993E+0	1.042877E+0	1.025752E+0	1.009312E+0	1.075620E+0	1.063991E+0	1.035406E+0	1.067411E+0	1.088896E+0
5.590390E+2	1.012512E+0	1.005515E+0	1.007686E+0	1.028903E+0	1.001605E+0	1.014702E+0	1.013852E+0	9.867063E-1	1.004614E+0	1.024547E+0	9.999931E-1	1.005120E+0	1.039293E+0	1.010176E+0	1.013000E+0	1.013648E+0	1.014881E+0	1.019764E+0	1.040273E+0	1.017890E+0	1.020026E+0	1.023212E+0	1.019014E+0	9.699380E-1	1.014300E+0	9.821375E-1	1.055626E+0	1.034453E+0	1.024612E+0	9.772008E-1	1.012302E+0	1.019185E+0	9.967589E-1	1.057493E+0	1.040496E+0	1.027057E+0	1.001672E+0	1.010927E+0	1.002214E+0	1.024576E+0	1.044399E+0	1.039282E+0	1.017199E+0	9.681718E-1	1.004660E+0	9.959434E-1	1.005495E+0	1.013467E+0	1.007282E+0	1.030284E+0	1.018448E+0	1.012695E+0	1.000797E+0	1.046441E+0	1.044094E+0	1.045644E+0	1.022057E+0	1.023264E+0	9.722780E-1	1.009856E+0	1.008517E+0	1.015270E+0	9.862555E-1	9.822670E-1	1.010424E+0	1.022594E+0	1.024421E+0	1.024834E+0	9.848482E-1	9.709680E-1	1.015630E+0	1.005492E+0	9.944780E-1	1.015319E+0	1.019419E+0	1.036610E+0	1.026571E+0	1.035966E+0	1.006314E+0	9.763780E-1	1.013335E+0	9.999554E-1	1.017171E+0	1.054710E+0	9.987029E-1	1.016439E+0	9.790594E-1	1.006463E+0	1.007950E+0	9.780490E-1	1.007714E+0	1.010139E+0	9.923450E-1	9.850948E-1	9.762011E-1	1.032609E+0	1.002877E+0	1.005260E+0	1.008206E+0	9.911018E-1	1.014554E+0	9.744811E-1	1.035015E+0	1.009217E+0	1.029301E+0	1.001017E+0	1.031723E+0	1.021137E+0	1.020799E+0	1.001925E+0	9.799539E-1	9.979488E-1	1.049998E+0	9.780688E-1	1.007488E+0	9.998814E-1	1.027336E+0	1.041592E+0	1.017108E+0	9.880326E-1	1.002872E+0	1.038728E+0	9.679996E-1	1.034098E+0	1.039557E+0	1.013569E+0	1.004726E+0	1.045260E+0	1.012910E+0	1.034625E+0	9.931954E-1	1.047807E+0	1.032699E+0	1.037399E+0	1.017876E+0	1.018168E+0	1.034556E+0	1.021217E+0	1.036305E+0	1.018321E+0	1.005351E+0	1.012840E+0	1.011017E+0	1.044950E+0	1.032486E+0	9.948020E-1	1.052879E+0	1.031429E+0	1.017624E+0	1.017201E+0	1.039955E+0	9.982215E-1	1.033448E+0	9.962859E-1	1.010136E+0	1.037240E+0	1.014796E+0	1.003133E+0	9.901322E-1	1.006478E+0	9.766122E-1	1.051406E+0	1.027140E+0	1.010031E+0	9.650862E-1	1.041434E+0	1.025044E+0	9.854787E-1	1.009175E+0	1.006056E+0	9.391414E-1
5.595220E+2	9.658056E-1	9.526487E-1	9.855254E-1	9.354793E-1	9.553224E-1	9.415156E-1	9.365121E-1	9.683884E-1	9.346211E-1	9.402897E-1	9.734019E-1	9.850223E-1	9.696437E-1	9.789137E-1	9.690768E-1	9.734288E-1	9.138451E-1	9.322888E-1	9.491914E-1	9.334088E-1	9.126247E-1	9.337794E-1	9.570944E-1	9.640858E-1	9.668462E-1	9.160951E-1	9.871660E-1	9.530129E-1	9.618512E-1	9.791133E-1	9.023845E-1	9.563355E-1	9.584155E-1	9.710514E-1	9.763164E-1	9.364229E-1	9.634534E-1	9.585186E-1	9.340063E-1	9.553331E-1	9.778526E-1	9.705429E-1	9.194507E-1	9.613195E-1	9.882477E-1	9.477365E-1	9.419833E-1	9.421613E-1	9.461882E-1	9.268169E-1	9.354615E-1	9.463017E-1	9.369321E-1	9.255716E-1	9.429638E-1	9.559719E-1	9.652676E-1	9.680277E-1	9.532626E-1	9.384979E-1	9.456132E-1	9.822443E-1	9.728044E-1	9.277475E-1	9.445088E-1	9.492646E-1	9.215275E-1	9.677515E-1	9.865054E-1	9.340045E-1	9.646356E-1	9.797263E-1	9.861537E-1	9.623978E-1	9.375426E-1	9.560274E-1	9.363704E-1	9.418425E-1	9.578289E-1	9.978954E-1	9.146276E-1	9.599057E-1	9.305853E-1	9.578920E-1	9.418443E-1	9.875694E-1	9.441060E-1	9.874496E-1	9.693465E-1	9.542293E-1	9.739601E-1	9.545966E-1	8.955338E-1	9.652708E-1	9.428515E-1	9.923587E-1	9.371478E-1	9.238204E-1	9.554515E-1	9.620022E-1	9.430238E-1	9.538900E-1	9.686745E-1	9.905547E-1	9.548363E-1	9.486275E-1	9.609526E-1	9.245978E-1	9.579567E-1	9.396466E-1	9.443018E-1	9.441006E-1	9.338944E-1	9.498024E-1	9.575056E-1	9.429579E-1	9.504923E-1	9.306823E-1	9.385727E-1	9.674892E-1	9.337534E-1	9.974448E-1	9.700842E-1	9.541138E-1	9.464213E-1	9.870929E-1	9.439853E-1	9.303972E-1	9.901428E-1	9.374534E-1	9.948714E-1	9.643158E-1	9.431094E-1	9.869925E-1	9.847301E-1	9.616004E-1	9.549117E-1	9.656148E-1	9.330980E-1	9.371839E-1	9.805965E-1	9.372689E-1	9.608135E-1	9.613874E-1	9.175630E-1	9.926388E-1	9.602831E-1	9.515051E-1	9.307424E-1	9.894215E-1	9.821846E-1	9.657646E-1	9.622613E-1	9.149835E-1	9.554312E-1	9.528974E-1	9.381630E-1	9.620864E-1	1.001151E+0	9.437701E-1	9.647550E-1	9.578019E-1	9.140598E-1	9.295039E-1	9.266697E-1	9.584405E-1	9.288166E-1	9.639673E-1	9.572204E-1	1.016382E+0	1.003561E+0
5.600070E+2	1.028618E+0	1.054490E+0	1.040528E+0	9.922233E-1	1.033123E+0	1.071507E+0	1.047360E+0	1.013087E+0	1.059075E+0	1.045415E+0	1.031018E+0	1.056943E+0	1.002079E+0	1.048651E+0	1.021307E+0	1.019042E+0	1.052997E+0	1.052615E+0	1.028682E+0	1.085035E+0	1.025404E+0	1.037304E+0	1.062979E+0	1.053750E+0	1.052205E+0	1.053278E+0	1.028745E+0	1.002578E+0	1.014592E+0	1.045818E+0	1.034268E+0	1.039404E+0	1.037876E+0	1.013707E+0	9.842856E-1	1.020067E+0	1.012769E+0	1.036789E+0	1.020118E+0	1.060426E+0	1.003091E+0	1.045512E+0	1.055626E+0	1.057952E+0	1.022635E+0	9.932658E-1	1.055257E+0	1.039212E+0	1.086171E+0	1.048984E+0	1.028869E+0	1.044909E+0	1.053640E+0	1.002529E+0	1.032293E+0	1.043789E+0	1.016913E+0	1.036614E+0	1.020354E+0	1.024009E+0	1.046069E+0	1.010084E+0	1.087171E+0	1.028864E+0	1.066132E+0	1.020423E+0	1.073146E+0	1.078542E+0	1.041437E+0	1.070388E+0	1.068312E+0	1.015187E+0	1.023732E+0	1.037996E+0	1.039551E+0	1.034096E+0	1.045139E+0	1.040289E+0	9.843226E-1	1.056458E+0	1.049273E+0	1.005792E+0	1.009120E+0	1.059561E+0	1.092308E+0	1.008343E+0	1.061082E+0	1.016752E+0	1.014303E+0	1.016322E+0	1.019216E+0	9.728506E-1	1.101069E+0	1.027763E+0	1.022440E+0	1.029818E+0	1.039090E+0	1.052379E+0	1.010852E+0	9.907669E-1	1.021712E+0	1.042796E+0	1.041966E+0	1.016589E+0	1.050363E+0	1.027840E+0	1.049177E+0	1.034156E+0	1.015645E+0	1.032165E+0	1.061774E+0	1.027878E+0	1.040203E+0	1.078793E+0	1.029302E+0	1.005194E+0	1.046120E+0	1.026084E+0	1.018929E+0	1.019572E+0	1.035354E+0	1.016780E+0	1.040287E+0	1.047082E+0	1.031259E+0	9.996660E-1	1.023340E+0	1.007899E+0	1.028598E+0	1.014356E+0	1.045105E+0	1.015847E+0	1.018701E+0	1.031700E+0	1.081657E+0	1.062195E+0	1.069644E+0	9.962753E-1	1.065084E+0	1.014220E+0	1.000988E+0	1.034143E+0	1.056238E+0	1.047785E+0	1.016588E+0	1.021696E+0	1.066279E+0	1.034427E+0	1.009594E+0	1.039371E+0	1.041003E+0	1.032314E+0	1.042959E+0	1.025322E+0	1.035970E+0	1.038596E+0	1.018589E+0	1.024523E+0	9.914667E-1	1.068924E+0	1.031501E+0	1.019343E+0	1.055352E+0	1.041280E+0	1.005634E+0	9.821539E-1	1.020134E+0	1.014861E+0	9.388151E-1	1.049843E+0	1.010800E+0
5.605260E+2	1.039690E+0	1.001148E+0	1.046145E+0	1.074333E+0	1.064716E+0	1.053492E+0	1.036122E+0	1.057415E+0	1.036371E+0	1.051417E+0	1.077064E+0	1.045104E+0	1.048276E+0	1.039884E+0	1.049012E+0	1.020545E+0	1.100221E+0	1.051903E+0	1.015615E+0	1.031758E+0	1.045014E+0	1.020143E+0	1.045611E+0	1.031370E+0	1.027840E+0	1.050510E+0	1.004839E+0	1.050968E+0	1.066855E+0	1.039147E+0	1.019561E+0	1.020647E+0	1.046392E+0	1.022510E+0	1.066977E+0	1.046225E+0	1.022921E+0	1.028091E+0	1.073153E+0	1.022903E+0	1.032334E+0	1.066256E+0	1.009720E+0	1.025881E+0	1.027263E+0	1.078327E+0	1.020813E+0	1.051836E+0	1.048355E+0	1.032105E+0	1.029912E+0	1.056059E+0	1.023239E+0	1.073697E+0	1.077083E+0	1.045768E+0	9.967649E-1	1.044395E+0	9.975107E-1	1.081059E+0	1.026200E+0	1.013457E+0	1.026485E+0	1.040666E+0	1.048944E+0	1.078883E+0	1.038442E+0	1.003643E+0	1.029329E+0	1.044649E+0	1.021436E+0	1.051235E+0	1.047829E+0	1.026543E+0	1.012292E+0	1.039709E+0	1.047903E+0	1.036972E+0	1.062548E+0	1.020352E+0	1.029463E+0	1.030108E+0	1.051457E+0	1.050211E+0	1.036441E+0	1.062359E+0	1.049033E+0	1.051560E+0	1.032600E+0	1.021567E+0	1.023359E+0	1.068778E+0	1.019219E+0	1.015288E+0	1.008659E+0	1.027505E+0	1.019178E+0	1.078233E+0	1.009576E+0	1.036178E+0	1.012952E+0	1.053145E+0	1.065529E+0	1.065982E+0	1.026275E+0	1.073422E+0	1.020049E+0	1.089836E+0	1.066460E+0	1.063891E+0	1.060074E+0	1.051102E+0	1.017961E+0	1.082363E+0	1.062712E+0	1.021298E+0	1.052863E+0	1.053798E+0	1.022122E+0	1.077632E+0	1.051858E+0	1.018802E+0	1.033115E+0	1.002129E+0	1.043911E+0	1.036693E+0	1.053255E+0	1.028895E+0	1.050060E+0	1.033329E+0	1.048538E+0	1.023165E+0	1.045437E+0	1.045908E+0	9.846613E-1	1.061961E+0	1.087924E+0	1.040566E+0	1.030109E+0	1.046186E+0	1.034191E+0	1.035713E+0	1.030283E+0	1.044227E+0	1.056691E+0	1.024625E+0	1.006769E+0	9.955876E-1	9.983916E-1	1.050714E+0	1.023811E+0	1.040174E+0	1.038824E+0	1.042670E+0	1.072145E+0	1.040458E+0	1.067082E+0	1.035441E+0	1.058830E+0	1.040426E+0	1.069872E+0	1.090803E+0	1.025902E+0	1.017760E+0	1.055093E+0	1.039992E+0	1.034984E+0	1.002179E+0	1.062379E+0	1.008847E+0	1.099369E+0
5.610010E+2	9.518114E-1	9.879969E-1	9.212356E-1	9.543330E-1	9.613660E-1	9.671013E-1	9.735704E-1	9.704465E-1	9.791763E-1	9.645281E-1	9.487078E-1	9.378429E-1	9.127078E-1	9.903070E-1	9.525577E-1	9.685357E-1	9.341590E-1	9.302036E-1	9.152186E-1	9.348552E-1	9.552672E-1	9.587634E-1	9.556422E-1	9.653798E-1	9.320403E-1	9.469168E-1	9.387893E-1	9.694663E-1	9.539108E-1	9.563707E-1	9.667355E-1	9.563034E-1	9.311588E-1	9.272194E-1	9.293157E-1	9.667754E-1	1.015553E+0	9.420544E-1	9.585962E-1	1.012083E+0	9.618742E-1	9.815157E-1	1.003130E+0	9.626466E-1	9.375901E-1	9.211268E-1	9.496717E-1	9.533768E-1	9.654375E-1	9.154473E-1	9.153704E-1	9.422807E-1	9.443928E-1	9.570206E-1	9.693565E-1	9.155896E-1	9.831744E-1	9.456046E-1	9.967610E-1	9.192749E-1	9.645264E-1	9.418210E-1	9.388163E-1	9.439583E-1	9.008219E-1	9.482803E-1	9.759973E-1	9.833678E-1	9.202129E-1	9.744785E-1	9.438532E-1	9.697705E-1	9.567450E-1	9.141365E-1	9.639704E-1	9.762665E-1	9.448476E-1	9.535902E-1	9.583976E-1	9.756841E-1	9.564555E-1	1.016262E+0	9.824792E-1	9.199975E-1	9.209744E-1	9.961309E-1	9.572309E-1	9.580829E-1	9.630782E-1	1.003516E+0	9.553960E-1	9.411956E-1	9.292678E-1	9.966756E-1	9.770058E-1	9.615292E-1	9.618079E-1	1.000204E+0	9.568271E-1	9.827994E-1	9.769367E-1	9.872084E-1	9.203279E-1	9.457982E-1	9.280013E-1	9.472050E-1	9.485849E-1	9.942463E-1	9.711536E-1	9.559998E-1	9.450537E-1	9.444492E-1	9.478733E-1	9.442124E-1	9.158987E-1	9.636669E-1	9.075720E-1	9.452530E-1	9.815807E-1	9.425553E-1	9.684753E-1	9.678901E-1	9.527226E-1	9.542681E-1	9.313951E-1	9.585716E-1	9.787924E-1	9.762587E-1	9.840651E-1	9.822883E-1	9.939911E-1	9.496569E-1	9.461047E-1	9.454083E-1	9.402477E-1	9.250105E-1	9.304950E-1	1.009607E+0	9.693058E-1	9.501880E-1	9.884790E-1	9.507563E-1	9.312027E-1	9.249089E-1	9.662433E-1	9.627809E-1	9.551818E-1	9.502743E-1	9.519489E-1	9.245229E-1	9.551570E-1	9.627089E-1	8.971734E-1	1.015987E+0	9.626096E-1	9.936567E-1	9.475773E-1	1.012190E+0	9.836930E-1	9.361103E-1	9.722167E-1	9.818916E-1	1.000190E+0	9.890288E-1	9.578351E-1	1.004527E+0	9.278106E-1	9.821791E-1	9.079684E-1	9.743570E-1	8.801605E-1
