Photon Energy (eV)	#1	#2	#3	#4	#5	#6	#7	#8	#9	#10	#11	#12	#13	#14	#15	#16	#17	#18	#19	#20	#21	#22	#23	#24	#25	#26	#27	#28	#29	#30	#31	#32	#33	#34	#35	#36	#37	#38	#39	#40	#41	#42	#43	#44	#45	#46	#47	#48	#49	#50	#51	#52	#53	#54	#55	#56	#57	#58	#59	#60	#61	#62	#63	#64	#65	#66	#67	#68	#69	#70	#71	#72	#73	#74	#75	#76	#77	#78	#79	#80	#81	#82	#83	#84	#85	#86	#87	#88	#89	#90	#91	#92	#93	#94	#95	#96	#97	#98	#99	#100	#101	#102	#103	#104	#105	#106	#107	#108	#109	#110	#111	#112	#113	#114	#115	#116	#117	#118	#119	#120	#121	#122	#123	#124	#125	#126	#127	#128	#129	#130	#131	#132	#133	#134	#135	#136	#137	#138	#139	#140	#141	#142	#143	#144	#145	#146	#147	#148	#149	#150	#151	#152	#153	#154	#155	#156	#157	#158	#159	#160	#161	#162	#163	#164	#165	#166	#167	#168	#169	#170	
2.790040E+2	-1.841274E-3	-8.050815E-3	-1.571862E-3	-4.991692E-3	3.449770E-3	4.231805E-4	-8.080740E-3	-6.874337E-3	6.269087E-3	-4.455944E-3	-6.164963E-3	1.540196E-3	-3.055087E-3	4.274426E-3	-3.355068E-3	5.056697E-4	-1.535197E-3	-2.491394E-3	-7.278052E-3	-1.440744E-2	-1.560926E-2	-7.325242E-3	-1.627059E-2	-5.587660E-3	-7.079147E-3	-1.200553E-2	8.298994E-3	-2.780336E-3	-2.033440E-2	-3.122314E-3	-1.215891E-2	-2.149438E-2	5.173864E-3	-3.316653E-3	-1.730466E-3	-8.431596E-3	-6.930588E-3	1.811510E-3	-1.413089E-2	2.199400E-3	-1.069394E-2	6.127743E-3	-4.167291E-3	-1.207692E-2	-8.672216E-3	-8.089691E-3	-1.457306E-2	-7.152613E-3	-8.046021E-3	-8.575473E-4	-5.858175E-3	-7.257126E-3	3.035234E-3	8.621810E-3	5.554754E-3	-5.560702E-3	5.504610E-3	-5.881474E-3	-8.263687E-3	1.961298E-3	-1.263565E-2	-1.724563E-3	6.508851E-4	-9.168952E-3	-5.608558E-3	-2.707927E-3	-3.961470E-3	-1.111685E-2	-8.956001E-3	-1.098362E-2	-2.133330E-3	-6.721065E-3	-2.555091E-3	-1.441869E-3	-2.225841E-2	1.802153E-3	-3.534194E-3	4.624123E-3	-1.611496E-2	1.288974E-4	-2.261998E-3	3.147069E-3	-1.591218E-3	-1.651429E-3	-6.804946E-3	3.745275E-3	-1.076601E-2	1.297762E-2	-6.369408E-3	-6.519840E-3	-4.259222E-3	6.017759E-3	-5.364856E-3	5.191160E-3	9.253423E-4	1.354631E-3	-6.385474E-3	-2.206801E-2	-1.269739E-2	-4.888337E-3	1.296406E-4	-2.516347E-3	-8.668845E-3	-1.173676E-2	-2.500263E-3	-3.201128E-3	4.360300E-3	2.018250E-3	-7.383094E-3	1.454951E-3	-5.079782E-3	5.035377E-3	-1.213089E-3	-1.537644E-2	5.563037E-3	4.567128E-3	-3.361337E-3	-6.600144E-3	3.128789E-3	-2.426164E-3	-9.939420E-4	-8.427683E-3	-7.946173E-3	-1.356389E-2	-7.556696E-3	-6.219417E-3	-4.424502E-4	-6.091350E-3	-6.420407E-3	-6.906747E-3	-1.703877E-2	-2.719591E-3	3.077417E-3	-1.176370E-2	-3.549669E-3	4.500159E-3	-6.115445E-3	-2.879614E-3	4.979105E-3	-2.595416E-3	3.280600E-3	-8.929874E-3	4.104844E-3	-1.602896E-3	-1.769683E-2	-2.039833E-2	4.155701E-3	1.126135E-2	-1.435673E-2	-1.558994E-3	-7.609743E-3	-1.143743E-2	-7.261521E-4	-1.294494E-2	-5.669929E-3	-1.761624E-3	-1.557991E-2	5.914210E-3	1.551738E-3	7.563373E-9	3.084961E-3	-8.984065E-3	-3.344457E-3	6.969290E-4	-1.449936E-2	-1.370600E-2	-1.946242E-2	-1.188716E-2	-3.203224E-3	-2.216427E-2
2.795020E+2	-1.043370E-2	5.069033E-3	1.100288E-2	-3.743721E-3	-7.960834E-4	-5.219860E-3	-1.028416E-3	-1.023897E-3	-6.560722E-3	-1.114031E-3	-4.990740E-3	-8.317085E-3	-6.546699E-3	-7.859505E-3	-1.006520E-2	-2.528250E-3	-4.186957E-4	1.009667E-2	-1.310045E-2	1.037961E-2	-1.141180E-2	6.580271E-3	-6.804044E-3	3.352539E-3	-4.767585E-3	1.137329E-3	-4.227764E-3	-2.780291E-3	2.440107E-3	-5.203791E-3	1.269928E-2	-1.395742E-3	-3.539966E-3	-6.500647E-3	-2.884045E-3	2.218813E-3	2.628852E-3	-4.951495E-3	-2.057890E-3	-1.649556E-2	1.527704E-3	3.949007E-3	1.580702E-3	-1.341890E-3	-5.781735E-4	1.040103E-2	-1.498154E-3	2.227883E-3	-1.038663E-2	-4.287778E-3	-4.686632E-3	7.257191E-3	-1.187712E-3	-4.761324E-3	-5.254485E-3	-6.672800E-3	-8.401720E-3	-9.324328E-3	-1.610719E-2	-9.246309E-3	-3.121756E-3	-5.666459E-3	2.733510E-3	-5.149667E-3	-3.365106E-3	3.481644E-3	5.428649E-3	-9.850437E-4	1.029276E-2	1.851128E-3	-8.533374E-3	-1.424858E-2	-5.961929E-3	-2.490522E-3	-1.077019E-2	5.406520E-3	7.340270E-3	-1.284468E-2	1.804326E-2	-9.153039E-3	-3.393018E-3	1.299879E-2	-5.303742E-4	-5.254504E-3	-1.076423E-2	-1.444627E-2	7.177481E-4	-1.762214E-2	-7.477138E-3	-1.984240E-3	3.434862E-3	-5.444704E-3	6.437769E-3	2.076506E-3	-3.304916E-3	-1.164992E-2	-5.224479E-3	-9.854274E-3	-5.051662E-3	-6.038552E-3	1.166835E-3	-1.056866E-2	-8.668859E-3	1.041799E-2	-2.472450E-2	4.592854E-3	-6.892018E-3	2.018257E-3	-1.175831E-2	-6.614045E-4	-2.940882E-3	-1.063036E-2	-6.065446E-3	1.590655E-3	-8.926662E-3	-3.425310E-3	5.602258E-3	-4.569305E-3	5.214651E-3	-1.284409E-3	5.821956E-3	2.446753E-3	-9.168731E-3	-4.024474E-3	-6.437151E-3	-6.219398E-3	7.373138E-4	-4.060837E-3	2.512345E-3	-1.028607E-3	5.875811E-4	-3.864632E-3	1.230390E-4	-3.878051E-4	9.938870E-4	2.646750E-4	-7.976705E-4	5.759013E-4	1.357901E-3	8.651644E-4	3.280544E-3	-7.758781E-3	8.969779E-3	1.869991E-2	3.231611E-3	-1.113946E-2	-9.601209E-3	-1.218700E-2	1.520972E-2	6.377883E-3	4.097567E-3	1.433709E-2	-7.261025E-4	1.078750E-2	-1.992078E-3	-9.982406E-3	2.045868E-3	1.887488E-3	-2.172300E-3	-5.510673E-3	-5.889532E-3	4.284711E-3	-2.118173E-2	1.811992E-3	-4.065487E-4	-8.331102E-3	1.191571E-3	-1.375190E-2	-1.459248E-2	2.477185E-2
2.799980E+2	-4.296208E-3	-1.162909E-2	-2.829256E-3	-2.495819E-3	-1.247231E-2	4.232287E-4	-1.043139E-2	2.486491E-3	-3.061672E-3	-3.342003E-3	-1.673348E-2	-4.620578E-3	-5.382883E-3	-8.962609E-3	-5.591837E-3	-5.056512E-4	-2.651767E-3	-6.687319E-3	4.366783E-3	-3.253314E-3	1.180522E-3	-1.030501E-2	7.395747E-3	2.235097E-3	1.025761E-2	-9.983614E-3	-9.238513E-3	-4.016098E-3	-4.066807E-3	-1.904597E-8	-1.540125E-2	8.374341E-4	-7.896911E-3	-3.316685E-3	8.652106E-3	-1.479213E-4	-2.389468E-4	-1.086921E-3	-3.155425E-3	-1.319652E-2	1.708252E-2	-6.944758E-3	-7.184868E-4	-1.565529E-2	2.890714E-3	1.155692E-3	-2.587816E-3	-3.400481E-3	1.462537E-4	-8.576170E-4	-1.640300E-2	5.582402E-4	3.035227E-3	3.474517E-3	-2.852413E-3	-7.785012E-3	-4.925183E-3	-1.391483E-2	-1.540675E-3	-1.260859E-2	-3.121756E-3	7.144614E-3	-1.288672E-2	8.792183E-4	5.608531E-3	-2.707964E-3	-6.308954E-3	-7.739578E-3	-2.539823E-3	-5.059827E-3	-9.600018E-3	-2.688513E-4	-3.690734E-3	1.704002E-3	-1.077020E-2	-6.007249E-4	-1.005894E-2	-5.138433E-4	-5.096161E-3	-2.965050E-3	4.523992E-3	-9.988581E-3	-4.773763E-3	-7.656503E-3	5.072787E-3	-3.745363E-3	-1.191445E-2	5.327604E-3	-1.523125E-2	-6.519930E-3	-8.655849E-3	-1.576081E-2	-2.145960E-3	-1.038281E-3	-1.493852E-2	-2.980248E-3	-1.915637E-2	3.469814E-3	-3.959368E-3	-6.038573E-3	3.241268E-3	1.459486E-2	5.779526E-4	-1.173676E-2	8.334311E-4	-1.544884E-2	2.109787E-3	-2.594883E-3	5.742346E-3	-1.335922E-2	-1.363513E-2	-7.273426E-3	-1.213097E-3	-6.892901E-3	-7.891634E-3	-5.708893E-3	-8.963604E-3	-4.569323E-3	-3.128803E-3	-6.992986E-3	-1.916979E-2	-8.156055E-4	-4.278790E-3	-1.639631E-3	3.638402E-3	-9.262785E-4	-1.106034E-2	-1.116754E-2	-8.653583E-3	-1.028572E-3	-5.875757E-4	-1.574529E-3	-2.831230E-3	-9.695411E-3	-2.413716E-3	-1.350040E-2	-6.115361E-3	-4.031485E-3	-4.677346E-3	-8.362975E-3	-1.426318E-4	-3.074216E-3	-1.535504E-2	3.740012E-3	1.184917E-2	8.535361E-3	-3.869181E-3	-6.016351E-3	-6.396601E-3	-1.403128E-2	-9.951208E-3	-1.127621E-3	-1.888018E-3	-1.078757E-3	-5.669899E-3	1.233121E-2	4.563798E-3	-4.152524E-3	3.102605E-4	1.212343E-2	7.572272E-3	-1.244028E-3	-7.962331E-4	-4.181003E-4	-4.065024E-4	1.343717E-3	-6.752312E-3	2.540599E-2	-1.174514E-2	3.911281E-3
2.805030E+2	-7.978695E-3	1.341817E-2	-1.288909E-2	4.991631E-3	1.088013E-2	-9.734343E-3	-2.203832E-3	4.826664E-3	-6.560722E-3	3.341987E-3	-1.555927E-2	-7.084943E-3	3.928054E-3	-1.227192E-2	-1.006531E-2	-1.567506E-2	-4.884844E-3	7.998552E-3	-4.949014E-3	-2.013945E-3	3.279288E-3	-2.358967E-3	-1.153738E-2	-1.005771E-2	-7.079225E-3	-8.846057E-4	-1.049119E-2	4.633874E-3	7.862588E-3	-5.203860E-3	1.891434E-3	8.653569E-3	-1.661067E-2	-1.326327E-4	-1.095937E-2	1.168587E-2	9.320470E-3	1.340524E-2	-1.193581E-2	3.299091E-3	-1.291603E-2	-3.676638E-3	1.580709E-3	-3.727481E-3	1.907882E-2	1.155660E-3	8.308004E-3	-2.462388E-3	2.486912E-3	3.716047E-3	1.405971E-2	3.907678E-3	-2.243450E-3	-4.761280E-3	-1.125962E-2	3.336389E-3	1.013999E-2	-2.438697E-3	-1.498673E-2	8.406276E-4	8.770601E-3	3.202789E-3	-1.184531E-2	3.893691E-3	-2.243418E-3	-2.707958E-3	7.336396E-4	-2.110783E-3	6.015245E-3	-1.295819E-2	1.173341E-2	-3.494893E-3	-3.690769E-3	-1.441817E-3	9.908542E-3	5.406454E-3	-1.359315E-3	-7.706776E-3	1.363574E-2	-6.059023E-3	-1.131001E-2	9.578133E-4	-1.591153E-3	-1.246065E-2	-2.845686E-3	-1.605062E-3	3.014475E-3	-5.600899E-3	2.492366E-3	1.162240E-2	-1.305246E-2	-7.737160E-3	-4.291865E-3	5.304118E-8	7.270895E-3	-2.980201E-3	-7.546468E-3	7.911170E-3	4.096326E-4	1.351477E-2	-8.168066E-3	6.542561E-3	-4.045485E-3	-1.319074E-4	3.055819E-3	1.795412E-2	-5.766778E-3	2.018250E-3	-8.202874E-4	8.862032E-3	-5.079730E-3	-1.174936E-2	-2.426254E-3	5.302376E-4	1.423059E-3	4.567086E-3	6.722703E-3	7.615524E-3	-9.386409E-3	-9.276440E-3	1.277957E-3	2.446773E-3	1.405874E-2	-4.024466E-3	8.116426E-3	2.249539E-3	1.253505E-2	5.076081E-3	-1.311994E-2	1.322535E-3	5.287857E-3	3.005851E-3	-7.755121E-3	6.463881E-4	-2.172372E-2	7.676643E-3	-2.924766E-3	-7.487042E-3	7.393266E-3	8.939687E-3	-4.706855E-3	8.637084E-3	1.672280E-3	-6.945667E-3	-2.923843E-3	5.063492E-3	-1.074753E-2	1.388475E-3	-2.985125E-3	5.243990E-3	-7.609750E-3	-1.143750E-2	-3.049799E-3	1.078728E-3	-1.992197E-3	-1.761588E-3	-4.721761E-4	-5.159178E-3	-1.582704E-2	-7.714895E-3	-2.524055E-3	-3.455481E-3	-7.166711E-3	-1.533259E-3	6.097860E-3	1.343717E-3	-8.341091E-3	-1.188720E-2	1.103336E-2	3.911377E-3
2.810040E+2	-7.978747E-3	1.490905E-3	-1.414647E-2	4.991699E-3	-1.565679E-2	-7.477036E-3	2.497681E-3	-2.193926E-3	-1.895310E-3	-1.002597E-2	3.229195E-3	4.004524E-3	-3.055136E-3	-7.859599E-3	-4.473439E-3	9.607287E-3	-4.884878E-3	-3.933616E-4	2.037908E-3	-9.450075E-3	7.476803E-3	-1.365728E-3	-1.035398E-2	3.352655E-3	3.322856E-3	1.137341E-3	-5.480451E-3	-7.723180E-3	-4.066879E-3	-6.244608E-3	-2.702048E-4	1.200334E-2	1.062000E-2	9.286556E-4	-1.730430E-3	-1.079832E-2	-1.266628E-2	-7.849939E-3	2.332295E-3	7.697993E-3	-6.249705E-3	-1.457033E-2	1.580660E-3	-7.305794E-3	-4.047061E-3	-6.035184E-3	6.809829E-4	-7.152641E-3	1.184956E-2	7.146244E-3	2.343307E-3	-1.507257E-2	-6.466389E-3	3.860372E-4	-1.366163E-2	5.560746E-3	8.692022E-4	-9.324349E-3	7.002784E-4	-1.400953E-3	-1.263561E-2	-3.695499E-3	7.940249E-3	-2.135224E-3	6.842400E-9	3.869123E-4	-1.569914E-2	1.407235E-4	3.876513E-3	2.838468E-3	-2.133395E-3	1.048479E-2	-7.097523E-3	-3.539130E-3	1.680150E-2	-3.003646E-3	-7.884013E-3	-1.078951E-2	-5.096168E-3	1.147355E-2	-1.017912E-2	-1.368047E-4	-1.538192E-2	-1.651363E-3	5.072799E-3	-5.350589E-4	-7.320999E-3	1.407035E-2	2.769528E-4	-4.252154E-3	-2.060902E-3	8.310257E-3	-1.072956E-3	-1.453531E-2	9.254584E-4	-1.896520E-3	-1.219038E-2	3.469814E-3	-1.051294E-2	-2.587936E-3	1.050179E-2	-8.555636E-3	-1.733741E-3	1.147303E-2	7.500731E-3	-9.742044E-4	-2.391157E-3	-2.594897E-3	1.367306E-3	2.513147E-3	-8.288084E-3	7.273383E-3	2.426206E-3	9.013800E-3	5.562955E-3	4.352998E-9	-3.361324E-3	-5.584690E-3	-1.042929E-3	3.282476E-3	4.685944E-3	-2.990478E-3	-6.723750E-3	4.322523E-3	-8.676160E-3	-9.262979E-4	-9.880526E-3	-4.060979E-3	2.512400E-3	-8.082308E-3	-2.937703E-3	3.005900E-3	-1.169419E-2	-3.878051E-4	5.537380E-3	2.382385E-3	8.774243E-3	-8.638885E-3	-5.884405E-3	8.651222E-4	-8.130066E-3	-3.074195E-3	1.672332E-3	5.343281E-4	-4.616641E-4	1.591340E-3	-2.722708E-3	-3.548104E-3	-6.396650E-3	7.511693E-3	-1.756127E-3	9.182282E-3	-3.049820E-3	-3.236275E-3	6.589401E-3	2.935987E-3	-1.054396E-2	-5.159153E-3	5.275662E-3	6.612843E-3	-5.889539E-3	3.179066E-3	1.067050E-2	-7.108684E-3	-7.994969E-3	1.854342E-2	1.191600E-3	1.165399E-3	8.186019E-3	-1.303766E-3
2.815070E+2	1.841257E-3	-8.050888E-3	1.854765E-2	3.743737E-3	-1.857597E-3	1.551875E-3	1.322243E-3	-1.506511E-2	-5.394374E-3	3.341940E-3	1.497208E-2	5.236688E-3	7.419631E-3	2.068319E-3	5.591842E-3	-4.550849E-3	-1.158411E-2	-3.540408E-3	6.695743E-3	9.140178E-3	-3.016967E-3	4.593792E-3	-2.070824E-3	-2.641554E-8	-3.611824E-3	1.137391E-3	1.456238E-2	-1.143034E-2	-1.897911E-3	-1.040704E-3	8.105551E-4	-4.745539E-3	-2.450776E-3	-1.326586E-4	4.037719E-3	-1.079828E-2	6.452648E-3	-8.816051E-3	1.371525E-4	3.299097E-3	1.527691E-3	-8.034163E-3	3.879834E-3	4.622043E-3	-5.203286E-3	-7.062415E-3	-1.675211E-2	-2.462382E-3	-1.389765E-2	-2.000862E-3	8.201510E-3	1.674704E-3	-4.354926E-3	-4.761306E-3	7.506616E-4	-6.672834E-3	-2.607433E-3	1.592313E-2	9.664347E-3	8.685902E-3	-4.310954E-3	-1.724635E-3	6.898869E-3	8.791570E-4	-1.121640E-3	2.450061E-3	-4.401666E-4	-7.739571E-3	-1.430292E-2	-2.097896E-3	1.066669E-3	5.107994E-3	3.122907E-3	-3.932538E-4	-1.306781E-2	-4.205019E-3	5.165397E-3	1.489973E-2	-8.401812E-3	4.254188E-3	5.655059E-3	9.578200E-4	-3.712932E-3	7.506507E-4	1.237097E-4	1.605222E-3	5.311244E-3	-1.325077E-2	2.492359E-3	-6.519874E-3	5.633175E-3	1.432860E-3	-3.218814E-3	-5.191257E-3	-6.477757E-3	6.773198E-3	1.567336E-2	2.359416E-3	-2.867195E-3	-1.293969E-2	2.204093E-3	-5.535992E-3	-1.733671E-3	-3.296790E-3	-9.167529E-3	-2.087666E-3	-6.892011E-3	-1.441595E-3	-1.914177E-3	4.629457E-3	1.416983E-2	7.273452E-3	3.639275E-3	1.590603E-3	3.880438E-4	5.708818E-3	-2.240926E-3	3.553915E-3	-4.171722E-3	5.565846E-3	4.685910E-3	-1.903045E-3	-1.833697E-3	9.092311E-3	1.399325E-3	-4.102148E-3	-3.981749E-3	1.116756E-2	4.745481E-3	-6.906718E-3	9.988276E-3	-6.154881E-3	1.231111E-4	9.953849E-3	8.945059E-3	2.382501E-3	-2.924734E-3	-5.759277E-4	-7.091441E-3	-1.066995E-2	-1.269436E-2	-1.903116E-3	8.969787E-3	-1.015138E-2	5.693752E-3	4.340198E-4	9.887806E-3	-1.079848E-3	3.837952E-3	1.318089E-2	-1.756106E-3	4.027193E-3	-7.261308E-4	5.393743E-3	5.363401E-3	-5.871709E-4	3.304764E-3	2.894137E-3	-5.896324E-3	1.102062E-3	8.413393E-4	3.178978E-3	4.299966E-3	8.502515E-3	1.151811E-2	-1.263100E-2	4.369137E-3	-4.428512E-3	-6.050548E-3	-2.216430E-2
2.820030E+2	5.523752E-3	-6.858166E-3	3.458082E-3	2.495865E-3	1.088015E-2	-2.962629E-3	2.497674E-3	-3.364027E-3	1.443360E-2	-2.227993E-3	9.100677E-3	2.772375E-3	-1.891341E-3	1.530548E-2	1.677541E-2	3.539589E-3	1.632935E-2	-1.298135E-2	2.037844E-3	5.422170E-3	1.692092E-2	8.566834E-3	2.987873E-2	7.822628E-3	3.322877E-3	4.170404E-3	-2.975092E-3	1.328382E-2	7.862615E-3	1.665220E-2	-3.512511E-3	1.423656E-2	1.170914E-2	8.357984E-3	-1.730409E-3	1.405260E-2	-5.974702E-3	-2.053040E-3	1.371927E-4	7.697973E-3	3.749831E-3	1.157457E-2	-9.915185E-3	2.012825E-2	-7.515843E-3	-8.988838E-4	7.218408E-3	5.980095E-3	8.338643E-3	-7.717967E-3	4.686601E-3	1.674751E-3	8.313911E-3	-3.731814E-3	1.396186E-2	8.897100E-3	-8.401769E-3	3.299388E-3	2.423083E-2	1.428971E-2	1.114912E-2	8.130148E-3	2.733574E-3	4.898436E-3	1.682559E-2	-1.199227E-2	2.538270E-2	1.590130E-2	-1.470398E-3	6.787600E-3	3.200004E-3	5.108000E-3	3.122887E-3	-4.587739E-3	6.462055E-3	-9.010774E-3	8.427703E-3	7.706854E-3	3.718764E-3	3.222908E-3	-4.524064E-3	-5.609988E-3	2.068602E-2	2.597217E-2	1.002186E-2	1.658641E-2	3.014545E-3	7.513358E-3	5.815556E-3	1.502410E-2	3.434848E-3	-8.883357E-3	6.437743E-3	-3.958297E-9	4.098157E-3	-1.896546E-3	1.799538E-2	1.388294E-4	1.897786E-2	4.313267E-3	-6.093570E-3	-5.032799E-4	8.668779E-3	8.308040E-3	1.527915E-2	-9.881757E-3	3.235060E-3	5.478087E-3	3.554839E-3	1.454957E-3	4.544993E-3	-1.678437E-3	7.278630E-3	6.892933E-3	8.667943E-3	-5.708837E-3	2.240923E-3	4.569250E-3	1.147229E-2	-3.567904E-3	-1.121786E-2	-1.903058E-3	1.039114E-2	4.322567E-3	-1.959113E-3	5.425434E-3	-4.423854E-4	9.137039E-3	-3.070663E-3	1.778099E-2	-2.937660E-3	-1.188043E-2	1.587958E-2	-1.422005E-3	2.129854E-3	-5.029571E-3	5.583642E-3	1.785372E-2	2.565033E-3	8.939716E-3	2.496075E-2	8.637149E-3	-1.535496E-2	2.671383E-3	7.694627E-4	8.535411E-3	1.561984E-2	8.793060E-3	-7.107127E-4	-1.062978E-2	1.463419E-2	-2.416377E-3	2.759361E-3	1.078760E-3	7.815356E-3	-1.761631E-3	7.869191E-4	-4.152499E-3	1.272368E-2	-8.817030E-3	6.450410E-3	8.707657E-3	8.122260E-3	-1.533232E-3	7.181924E-3	6.718635E-3	1.549055E-2	8.624087E-3	2.242260E-2	2.477185E-2
2.825060E+2	2.516362E-2	1.461085E-2	-1.571939E-3	-4.991699E-3	5.572726E-3	2.299558E-2	1.542678E-2	2.120814E-2	2.770115E-3	1.448201E-2	1.614650E-2	6.468822E-3	8.583461E-3	1.530540E-2	1.118361E-2	9.607262E-3	9.630144E-3	7.998616E-3	1.018924E-2	4.182816E-3	1.180502E-3	1.614050E-3	9.762336E-3	-1.117523E-3	5.634440E-3	1.529128E-2	9.551635E-3	1.081255E-2	1.220068E-2	4.163100E-3	1.594160E-2	-8.095248E-3	2.995311E-3	4.112637E-3	6.344898E-3	2.218827E-3	7.408546E-3	9.540693E-3	2.867337E-2	5.498525E-3	5.971930E-3	1.157457E-2	6.179058E-3	1.535708E-2	4.047045E-3	9.373792E-3	1.920374E-2	1.442253E-2	9.508936E-3	4.859481E-3	-2.343323E-3	7.257130E-3	-1.318964E-4	5.533361E-3	1.276087E-2	8.897113E-3	7.822304E-3	2.166117E-2	6.302827E-3	-2.521685E-3	1.590601E-2	-5.666393E-3	3.774941E-3	5.903340E-3	-1.009540E-2	1.379750E-2	-5.135255E-3	1.364981E-2	7.084631E-3	1.962234E-2	6.400036E-3	4.032605E-3	1.675025E-2	1.219033E-2	2.369451E-2	4.205037E-3	1.903091E-3	4.624098E-3	-6.886751E-4	-9.024330E-4	2.148916E-2	-2.326114E-3	6.895332E-3	1.951624E-3	1.237097E-4	-1.605160E-3	1.794344E-2	-3.415125E-3	1.800056E-2	-8.504661E-4	1.552555E-2	2.206515E-2	3.218939E-3	1.349713E-2	1.150134E-2	1.327560E-2	1.683443E-2	1.457324E-2	1.570106E-2	1.466505E-2	-2.981987E-3	6.542493E-3	1.560387E-2	-3.296847E-3	9.723153E-3	9.046619E-3	1.223682E-2	-4.901467E-3	1.121138E-2	-4.893915E-3	1.630878E-2	1.174938E-2	-2.426225E-3	2.651110E-3	-4.786741E-3	4.352998E-9	3.361306E-3	5.584772E-3	-2.085866E-3	1.469958E-2	1.490983E-2	1.114634E-2	5.501255E-3	5.515058E-3	1.147497E-2	1.071857E-2	1.253508E-2	2.167512E-8	2.149437E-2	4.849425E-3	7.637999E-3	2.018231E-2	3.077393E-3	1.305649E-2	1.008093E-2	1.323611E-3	4.520091E-3	5.183330E-3	1.357886E-3	2.018654E-3	-5.847986E-3	7.465949E-3	5.320981E-3	-6.945694E-3	-4.616566E-4	7.378168E-3	-2.722715E-3	1.388422E-3	1.179814E-2	-6.094406E-3	9.951175E-3	-1.127636E-3	7.406662E-3	-1.078757E-3	-4.444056E-3	5.872174E-4	1.589469E-2	7.927519E-3	4.034329E-3	2.204257E-3	-3.645856E-3	-5.666839E-3	9.396407E-3	-4.181615E-4	-1.490520E-3	6.718615E-3	1.231297E-2	6.759298E-3	-6.050582E-3	-1.173402E-2
2.830030E+2	-6.137737E-4	2.683641E-3	-3.143763E-4	3.743797E-3	3.449848E-3	4.232563E-4	1.895286E-2	1.067725E-2	4.373990E-4	8.911934E-3	1.732076E-2	2.772435E-3	-6.546720E-3	-2.344125E-3	1.118400E-3	-1.061852E-2	8.513527E-3	6.556324E-4	2.037816E-3	9.140246E-3	7.476745E-3	1.154658E-2	1.212891E-2	3.493669E-8	-4.767627E-3	-4.928592E-3	1.205698E-2	-6.487471E-3	1.545414E-2	1.040764E-2	1.161847E-2	-2.791606E-4	-5.718458E-3	8.358049E-3	-4.037751E-3	1.168583E-2	-1.194950E-3	-1.207442E-4	6.722394E-3	8.797650E-3	1.527711E-3	9.395904E-3	1.767498E-2	-1.341883E-3	5.203292E-3	9.373742E-3	5.039238E-3	-4.338465E-3	2.486926E-3	-5.431226E-3	-9.373126E-3	-5.024186E-3	-9.633513E-3	4.504014E-3	-4.503706E-4	-1.112150E-3	-4.925091E-3	1.477549E-2	5.182302E-3	-1.148783E-2	-7.433312E-4	7.144595E-3	2.147787E-2	-6.154436E-3	1.570390E-2	1.586077E-2	4.254858E-3	5.769470E-3	7.084599E-3	-6.047179E-3	7.466648E-3	4.032664E-3	7.665381E-3	-2.490451E-3	2.254558E-2	6.607856E-3	2.256455E-2	2.568913E-3	2.134890E-2	2.178685E-2	-4.523981E-3	4.241728E-3	4.773657E-3	-5.254394E-3	-1.855869E-3	-1.605088E-3	-1.578986E-3	1.407038E-2	4.707853E-3	2.551243E-3	1.442638E-2	-2.005953E-3	3.218919E-3	-1.038262E-3	-1.189790E-3	2.086163E-2	-1.102941E-2	1.013189E-2	4.096126E-4	-9.489104E-3	1.296026E-4	1.560143E-2	1.444806E-2	8.308117E-3	1.861277E-2	-4.314549E-3	2.911530E-2	-7.208100E-3	1.367166E-3	1.454963E-3	-1.871532E-3	-2.797475E-3	-1.091785E-2	5.302376E-4	7.632928E-3	6.850633E-3	1.568621E-2	4.569281E-3	2.503044E-2	-1.270157E-2	1.604581E-2	1.440864E-2	3.056281E-3	3.055598E-2	5.877459E-3	-4.102180E-3	8.995748E-3	7.106631E-3	8.095211E-3	1.072742E-2	5.874664E-4	7.586175E-3	-8.739926E-3	-7.627012E-3	1.008094E-2	4.500159E-3	5.583629E-3	1.727808E-3	7.393281E-3	2.018647E-3	-5.847972E-3	1.215051E-2	2.356453E-2	1.015144E-2	1.061812E-2	-5.352773E-3	5.302167E-3	1.372964E-2	-1.847957E-3	-1.559084E-3	-6.439050E-3	1.610808E-4	-1.887976E-3	5.393756E-3	-1.179959E-2	1.350561E-2	8.340753E-3	3.900840E-3	5.275685E-3	-7.714909E-3	8.694032E-3	6.496205E-3	-2.070318E-3	5.157311E-3	1.585439E-2	5.643618E-3	2.502307E-2	-2.563825E-3	5.338712E-3	1.955677E-2
2.835020E+2	1.779871E-2	-8.945447E-4	3.363725E-2	2.371053E-2	2.043343E-2	4.937657E-3	1.307607E-2	3.656549E-3	5.102739E-3	7.797985E-3	1.027499E-2	1.879042E-2	1.323890E-2	6.480668E-3	-2.236684E-3	2.376540E-2	1.814396E-3	-5.638332E-3	5.531220E-3	1.161896E-2	1.482223E-2	4.593834E-3	1.449566E-2	4.470097E-3	3.337346E-2	9.225308E-3	1.205706E-2	1.451963E-2	2.087665E-2	9.366859E-3	4.052947E-3	5.303935E-3	1.279841E-2	5.174003E-3	1.442027E-2	3.402148E-3	1.123236E-2	9.540634E-3	1.221013E-2	1.429613E-2	1.486042E-2	3.949007E-3	-6.466409E-3	1.297151E-2	-4.047047E-3	2.581008E-2	3.227855E-2	5.042059E-3	2.486983E-3	3.715978E-3	5.858202E-3	6.140714E-3	7.258199E-3	1.994593E-2	2.357005E-2	5.560780E-3	3.186924E-3	-1.435010E-4	6.302765E-3	4.202871E-3	1.947380E-2	6.159206E-3	6.898952E-3	6.908103E-3	6.730253E-3	1.482918E-2	8.949939E-3	-1.111685E-2	6.683157E-4	1.666046E-2	2.240003E-2	-3.494886E-3	1.561466E-2	1.428759E-2	4.164490E-3	-4.205056E-3	9.515162E-3	5.651644E-3	4.820699E-3	1.353614E-2	1.017911E-2	1.299882E-2	3.023341E-2	1.876587E-2	6.062597E-3	2.514711E-2	8.756418E-3	-1.229417E-3	4.707806E-3	5.952944E-3	1.992218E-2	8.310229E-3	6.437841E-3	3.114714E-3	1.890453E-2	1.869416E-2	1.567341E-2	-6.523208E-3	-7.236109E-3	1.006414E-2	-6.093627E-3	1.157520E-2	1.098050E-2	3.046296E-2	3.055799E-3	1.391624E-4	3.136575E-2	2.047096E-2	1.230514E-2	8.862103E-3	2.058637E-2	5.594734E-4	1.849980E-9	1.537642E-2	8.667861E-3	2.511891E-2	1.120454E-2	1.523070E-3	2.294459E-2	8.990956E-3	2.740568E-2	2.446780E-3	1.894864E-2	7.452338E-4	4.757906E-3	1.601168E-2	1.917171E-3	1.319799E-2	4.745542E-3	1.072736E-2	4.112836E-3	8.731314E-3	-3.816059E-3	9.953906E-3	2.143968E-2	5.558985E-3	2.392982E-3	2.476485E-2	2.308504E-2	-2.884163E-4	2.039648E-2	2.386174E-2	8.969794E-3	3.739986E-3	2.046680E-2	1.547956E-2	1.218053E-2	1.388384E-3	4.264137E-4	1.771620E-2	2.634147E-2	-1.014872E-2	1.786319E-2	2.049620E-2	1.271898E-2	1.937754E-2	3.477943E-2	1.598085E-2	2.265435E-2	8.817005E-3	7.572224E-3	4.284684E-3	3.487817E-2	1.407797E-2	6.097827E-3	9.943553E-3	2.025691E-2	1.421797E-2	-6.050530E-3	2.477182E-2
2.840030E+2	3.866607E-2	3.488720E-2	7.136127E-2	5.740432E-2	4.803190E-2	2.863865E-2	3.070672E-2	2.705864E-2	2.726344E-2	3.564798E-2	3.610922E-2	2.741559E-2	2.022211E-2	2.743941E-2	4.920787E-2	2.376539E-2	4.647588E-2	2.897850E-2	3.231436E-2	3.392715E-2	4.420442E-2	2.346566E-2	5.472838E-2	4.246601E-2	2.412719E-2	3.854419E-2	3.460511E-2	1.204817E-2	4.148219E-2	3.850825E-2	3.971895E-2	2.986885E-2	1.388766E-2	2.003281E-2	4.902897E-2	3.653667E-2	3.991085E-2	3.562660E-2	3.635623E-2	4.618767E-2	3.041521E-2	3.227269E-2	5.791073E-2	3.324883E-2	3.642316E-2	3.916454E-2	4.317420E-2	5.382060E-2	5.983328E-2	3.687469E-2	3.397774E-2	3.740238E-2	2.309426E-2	2.612278E-2	5.479650E-2	3.002778E-2	1.825212E-2	2.854683E-2	4.103830E-2	2.549737E-2	4.325853E-2	3.276663E-2	3.189133E-2	3.403806E-2	3.028601E-2	2.617670E-2	5.237927E-2	3.503918E-2	1.777833E-2	3.640634E-2	2.559995E-2	3.414279E-2	2.583524E-2	2.372521E-2	3.173621E-2	4.625550E-2	5.083820E-2	2.106524E-2	2.906205E-2	4.963261E-2	3.506131E-2	5.350058E-2	3.871998E-2	2.356997E-2	3.575701E-2	2.514711E-2	2.942722E-2	1.625610E-2	4.126281E-2	4.677323E-2	3.970695E-2	2.779631E-2	2.896988E-2	3.633850E-2	1.255895E-2	4.036850E-2	5.282507E-2	1.568359E-2	2.443909E-2	5.377169E-2	2.813430E-2	3.069959E-2	3.756501E-2	1.885807E-2	4.639318E-2	3.465553E-2	4.486856E-2	2.969733E-2	2.871205E-2	3.531590E-2	4.304428E-2	3.524801E-2	2.304899E-2	1.749741E-2	4.489200E-2	1.484302E-2	3.473394E-2	2.183110E-2	4.901787E-2	3.525051E-2	2.286179E-2	3.289534E-2	6.051353E-2	4.248025E-2	3.050653E-2	3.506680E-2	2.433270E-2	1.827415E-2	3.042716E-2	1.895670E-2	2.996480E-2	1.445685E-2	3.557505E-2	3.580819E-2	3.393440E-2	2.355961E-2	2.472744E-2	3.167592E-2	6.291812E-2	3.893115E-2	5.576957E-2	5.196899E-2	4.667312E-2	2.831699E-2	4.139526E-2	3.631192E-2	4.427997E-2	1.619789E-2	1.975835E-2	1.318087E-2	2.751221E-2	1.433700E-2	1.786323E-2	4.422869E-2	4.091540E-2	4.403993E-2	3.729737E-2	3.812761E-2	4.872252E-2	4.849369E-2	1.766855E-2	2.639947E-2	5.016712E-2	3.526461E-2	3.103117E-2	4.326790E-2	4.885477E-2	1.794735E-2	1.672797E-2	9.126519E-3
2.841010E+2	3.498362E-2	2.653809E-2	3.489465E-2	2.121455E-2	4.909334E-2	3.089580E-2	4.833728E-2	3.758961E-2	2.493079E-2	3.119193E-2	4.080635E-2	2.371910E-2	5.164637E-2	1.309925E-2	4.361604E-2	2.882181E-2	2.079548E-2	4.366446E-2	3.231439E-2	4.260259E-2	5.469807E-2	3.439141E-2	5.117842E-2	3.017322E-2	3.452930E-2	2.236820E-2	3.084717E-2	2.193394E-2	4.582020E-2	2.601911E-2	2.242633E-2	2.763563E-2	4.002902E-2	3.276875E-2	3.864640E-2	2.588625E-2	3.130722E-2	2.693124E-2	4.294141E-2	3.739002E-2	3.597058E-2	2.682584E-2	2.457246E-2	3.921279E-2	4.336096E-2	4.121906E-2	3.336818E-2	5.475870E-2	3.993753E-2	2.429720E-2	4.686593E-2	4.968377E-2	2.309416E-2	3.847632E-2	4.398734E-2	8.897161E-3	2.636410E-2	5.035143E-2	5.000231E-2	3.894650E-2	3.612310E-2	2.488301E-2	2.772599E-2	4.509107E-2	3.365120E-2	2.101868E-2	6.059570E-2	3.391340E-2	3.381895E-2	3.640621E-2	2.880000E-2	3.736899E-2	4.286938E-2	3.945467E-2	2.599206E-2	4.865834E-2	4.431356E-2	3.031337E-2	3.787707E-2	3.003742E-2	2.148918E-2	5.568994E-2	4.084160E-2	3.317822E-2	1.992002E-2	3.370783E-2	4.205940E-2	4.248443E-2	2.575458E-2	1.615797E-2	4.080602E-2	5.415991E-2	2.360514E-2	3.322367E-2	3.053812E-2	4.036851E-2	4.121517E-2	2.789734E-2	5.065310E-2	4.341994E-2	4.991566E-2	4.277806E-2	3.062992E-2	4.312274E-2	4.194835E-2	3.576896E-2	2.686482E-2	4.699676E-2	3.746237E-2	2.473438E-2	1.310047E-2	2.965309E-2	4.609783E-2	2.598099E-2	3.557726E-2	3.082782E-2	3.585422E-2	2.792349E-2	6.049017E-2	2.840016E-2	3.535758E-2	4.485733E-2	4.828852E-2	2.697861E-2	5.289669E-2	4.565297E-2	3.495061E-2	4.263952E-2	4.829253E-2	3.423958E-2	3.584026E-2	3.506861E-2	1.784905E-2	2.546653E-2	4.529319E-2	4.791313E-2	3.323584E-2	1.900554E-2	4.481215E-2	3.547052E-2	3.294822E-2	4.845559E-2	6.734920E-2	3.365990E-2	5.124393E-2	5.367208E-2	1.791258E-2	4.458269E-2	4.363902E-2	3.018849E-2	4.273173E-2	3.237929E-2	2.948150E-2	3.236250E-2	2.988202E-2	4.756313E-2	2.596652E-2	2.906757E-2	3.630908E-2	2.755332E-2	3.337391E-2	4.077411E-2	5.144132E-2	5.533618E-2	2.994706E-2	2.284329E-2	4.091097E-2	2.540600E-2	3.381188E-2	4.563236E-2
2.842010E+2	6.198857E-2	6.351252E-2	7.136118E-2	7.237938E-2	7.138447E-2	4.105335E-2	7.302025E-2	7.854322E-2	4.009326E-2	5.012994E-2	5.842053E-2	4.466581E-2	5.862958E-2	4.177969E-2	6.821994E-2	6.118327E-2	5.875777E-2	6.779132E-2	4.512379E-2	4.879939E-2	6.309294E-2	5.028347E-2	6.064494E-2	4.023091E-2	8.538405E-2	5.674214E-2	7.844878E-2	5.776959E-2	7.293267E-2	5.932354E-2	6.025400E-2	6.559968E-2	7.052735E-2	3.276874E-2	5.479715E-2	6.257087E-2	6.285351E-2	5.398335E-2	6.818491E-2	7.258061E-2	7.152445E-2	5.950708E-2	6.480814E-2	5.471893E-2	3.989205E-2	6.073712E-2	6.714483E-2	6.507721E-2	6.217391E-2	7.689377E-2	9.607507E-2	4.410119E-2	5.898915E-2	3.744698E-2	7.040974E-2	4.337350E-2	5.997101E-2	5.723714E-2	7.689435E-2	6.920706E-2	3.850156E-2	6.824341E-2	5.896639E-2	5.915837E-2	7.291088E-2	7.259829E-2	8.172344E-2	3.841640E-2	3.061083E-2	7.984695E-2	7.573344E-2	2.769071E-2	8.034450E-2	4.994096E-2	5.930782E-2	6.427721E-2	5.736290E-2	5.805789E-2	7.093336E-2	6.510243E-2	6.446751E-2	6.335243E-2	7.054461E-2	4.759042E-2	5.357363E-2	5.724987E-2	6.043350E-2	5.013435E-2	5.123234E-2	5.697821E-2	7.048314E-2	5.072117E-2	7.832620E-2	6.852400E-2	5.697792E-2	6.312647E-2	4.237616E-2	3.344900E-2	4.409954E-2	6.872430E-2	7.273430E-2	6.190234E-2	7.108451E-2	5.261765E-2	4.417071E-2	6.249125E-2	8.312624E-2	3.892362E-2	6.918238E-2	5.859532E-2	6.229390E-2	6.769859E-2	5.216331E-2	5.249205E-2	5.524175E-2	5.137963E-2	5.378148E-2	4.620063E-2	8.864936E-2	5.351790E-2	6.262122E-2	6.551888E-2	8.129582E-2	6.394393E-2	5.849425E-2	5.835651E-2	6.916382E-2	5.380704E-2	7.509080E-2	4.599565E-2	7.344294E-2	6.713109E-2	2.966642E-2	5.545746E-2	7.141837E-2	4.791321E-2	7.365068E-2	7.083893E-2	7.136753E-2	7.238302E-2	7.174435E-2	5.665352E-2	8.316018E-2	8.174533E-2	5.616830E-2	5.135751E-2	5.001192E-2	7.296755E-2	4.705050E-2	6.873910E-2	5.326825E-2	4.268917E-2	4.458543E-2	5.933116E-2	8.014506E-2	7.809748E-2	5.618215E-2	5.926768E-2	9.713459E-2	5.951508E-2	5.468825E-2	4.298552E-2	6.545632E-2	7.206247E-2	4.729204E-2	6.261747E-2	1.012843E-1	4.032320E-2	8.221633E-2	6.649280E-2
2.843010E+2	6.812607E-2	8.855982E-2	9.651053E-2	9.608990E-2	6.076951E-2	8.958380E-2	1.118077E-1	7.503290E-2	8.791371E-2	5.792783E-2	9.012626E-2	8.902346E-2	1.028563E-1	6.494467E-2	1.017708E-1	9.253332E-2	8.220513E-2	8.142842E-2	9.403197E-2	7.606501E-2	5.469809E-2	8.008104E-2	9.732774E-2	8.716710E-2	1.004094E-1	8.606087E-2	9.598623E-2	8.619095E-2	8.594664E-2	7.181260E-2	7.538498E-2	1.191961E-1	8.468733E-2	8.901959E-2	8.825225E-2	9.097184E-2	7.910459E-2	8.393379E-2	8.684316E-2	1.011730E-1	7.263550E-2	9.981394E-2	1.188388E-1	7.499620E-2	8.961260E-2	8.025516E-2	9.438415E-2	8.571432E-2	1.031355E-1	8.032393E-2	9.373174E-2	7.536279E-2	8.327096E-2	7.759617E-2	9.202820E-2	8.229842E-2	7.387745E-2	9.166544E-2	8.473788E-2	5.687868E-2	8.607109E-2	8.203995E-2	7.562802E-2	8.126442E-2	7.515424E-2	1.056093E-1	9.698238E-2	9.245267E-2	6.162281E-2	7.096131E-2	9.066671E-2	9.113721E-2	7.693763E-2	9.083762E-2	9.032600E-2	7.509015E-2	7.367465E-2	8.066448E-2	1.017859E-1	8.572904E-2	8.934967E-2	8.415053E-2	1.002475E-1	7.881695E-2	8.623747E-2	9.363297E-2	9.029141E-2	7.745549E-2	7.227907E-2	9.893228E-2	7.817729E-2	9.313211E-2	7.403433E-2	8.617410E-2	8.976338E-2	7.938227E-2	9.578181E-2	9.562803E-2	7.795938E-2	8.942786E-2	7.273436E-2	7.297427E-2	1.080716E-1	7.477251E-2	8.417437E-2	8.364651E-2	1.247598E-1	5.852946E-2	7.246376E-2	8.293286E-2	1.029320E-1	7.217459E-2	8.613015E-2	8.112409E-2	8.629098E-2	8.334917E-2	7.731082E-2	8.681672E-2	1.001216E-1	7.635218E-2	8.874896E-2	8.509289E-2	9.718821E-2	8.421533E-2	8.088434E-2	8.376335E-2	7.034359E-2	7.918783E-2	9.630595E-2	7.773703E-2	7.814339E-2	6.255068E-2	8.185966E-2	1.019950E-1	9.867950E-2	7.014914E-2	6.088807E-2	1.065464E-1	1.015441E-1	8.045756E-2	9.456560E-2	7.422059E-2	8.680891E-2	7.533393E-2	1.004873E-1	9.765148E-2	7.523279E-2	9.147938E-2	8.230267E-2	8.801443E-2	9.424394E-2	9.166085E-2	8.408770E-2	8.198496E-2	9.608210E-2	7.692309E-2	1.128364E-1	8.443441E-2	1.107892E-1	6.943433E-2	8.273349E-2	7.615748E-2	9.093800E-2	9.770953E-2	9.607476E-2	7.766729E-2	8.380776E-2	9.812759E-2	9.360531E-2	9.256845E-2
2.844040E+2	8.776601E-2	1.028725E-1	1.053128E-1	8.485868E-2	1.117205E-1	1.200564E-1	1.294383E-1	1.311978E-1	1.229042E-1	1.036019E-1	1.535376E-1	1.050416E-1	1.086756E-1	9.914059E-2	9.617888E-2	1.269172E-1	1.302163E-1	9.191830E-2	1.149926E-1	1.182029E-1	9.352444E-2	1.019327E-1	1.233606E-1	1.575712E-1	1.073441E-1	1.244787E-1	1.260505E-1	1.393266E-1	9.028466E-2	1.061579E-1	1.110510E-1	1.292455E-1	1.304348E-1	1.176757E-1	1.170929E-1	1.004389E-1	1.125628E-1	1.177488E-1	1.395252E-1	1.352640E-1	1.059673E-1	1.324952E-1	1.372323E-1	9.646644E-2	1.196762E-1	1.110731E-1	1.281609E-1	1.091655E-1	1.195202E-1	1.203431E-1	1.359110E-1	1.490511E-1	1.096644E-1	1.033329E-1	1.292599E-1	1.801669E-1	1.329793E-1	1.249462E-1	1.217142E-1	1.151583E-1	1.039097E-1	8.203990E-2	1.110339E-1	1.144233E-1	1.379697E-1	1.128304E-1	1.286741E-1	9.357849E-2	1.033284E-1	9.959277E-2	1.152000E-1	1.018908E-1	1.178197E-1	1.191506E-1	1.144512E-1	1.339607E-1	1.226098E-1	1.104641E-1	1.326385E-1	1.063556E-1	1.232799E-1	1.060435E-1	1.267681E-1	1.172497E-1	1.149421E-1	1.150347E-1	1.098139E-1	1.200765E-1	9.775683E-2	9.099495E-2	1.078544E-1	1.011559E-1	9.334764E-2	9.967116E-2	9.822408E-2	1.075589E-1	1.085527E-1	1.100625E-1	1.041733E-1	9.977957E-2	1.256320E-1	1.142426E-1	1.346562E-1	1.148621E-1	1.197332E-1	1.125956E-1	1.157579E-1	1.231139E-1	9.433963E-2	1.189101E-1	1.072097E-1	1.135770E-1	9.947426E-2	1.118770E-1	1.287250E-1	8.334920E-2	9.635855E-2	1.091557E-1	1.324526E-1	1.003282E-1	1.387324E-1	1.068420E-1	1.204157E-1	1.211805E-1	8.536238E-2	1.070530E-1	9.629852E-2	1.005076E-1	1.063553E-1	9.889792E-2	1.110458E-1	1.014838E-1	9.170739E-2	8.441422E-2	1.202612E-1	9.132617E-2	1.013029E-1	1.123056E-1	1.413770E-1	1.046814E-1	1.002710E-1	1.257503E-1	1.123499E-1	1.009795E-1	1.127982E-1	1.126971E-1	1.038930E-1	1.124595E-1	9.026301E-2	1.072896E-1	1.258536E-1	1.200129E-1	1.084863E-1	9.924482E-2	1.487970E-1	9.219023E-2	1.304621E-1	1.136278E-1	1.145133E-1	1.058045E-1	1.365803E-1	1.225984E-1	1.304347E-1	8.990392E-2	1.188400E-1	1.217414E-1	1.505361E-1	1.018570E-1	1.249259E-1	2.020859E-1
2.845030E+2	1.393208E-1	1.350760E-1	1.920779E-1	1.497505E-1	1.467493E-1	1.415001E-1	1.646996E-1	1.897031E-1	1.159061E-1	1.515038E-1	1.617576E-1	1.678817E-1	1.622133E-1	1.542953E-1	1.565703E-1	1.552334E-1	1.547801E-1	1.758378E-1	1.557497E-1	1.429899E-1	1.250054E-1	1.655010E-1	1.529435E-1	1.810394E-1	1.732243E-1	1.901934E-1	1.749048E-1	2.245908E-1	1.759602E-1	1.654814E-1	1.877870E-1	1.861915E-1	1.761823E-1	1.718039E-1	1.586233E-1	1.560574E-1	1.689633E-1	1.815145E-1	1.987929E-1	1.990469E-1	1.526318E-1	1.760702E-1	2.188533E-1	1.763829E-1	1.647715E-1	1.757908E-1	1.891769E-1	1.804575E-1	1.721850E-1	1.546451E-1	1.757470E-1	1.613323E-1	1.466151E-1	1.630419E-1	1.797026E-1	1.957367E-1	1.619508E-1	1.570793E-1	1.676548E-1	2.014569E-1	1.538575E-1	1.421533E-1	1.641429E-1	1.626543E-1	1.615256E-1	1.303675E-1	2.002738E-1	1.464890E-1	1.332709E-1	1.499445E-1	1.813331E-1	1.545837E-1	1.382607E-1	1.422205E-1	1.822317E-1	1.651983E-1	1.715450E-1	1.320431E-1	1.745099E-1	1.651413E-1	1.402451E-1	1.640593E-1	1.532885E-1	1.484762E-1	1.753204E-1	1.578385E-1	1.947939E-1	1.801831E-1	1.509277E-1	1.329492E-1	1.661095E-1	2.111949E-1	1.169528E-1	1.713099E-1	1.447583E-1	1.747495E-1	1.828561E-1	1.244969E-1	1.598781E-1	1.664908E-1	1.432646E-1	1.655762E-1	1.462146E-1	1.465120E-1	1.719603E-1	1.226165E-1	1.956489E-1	1.750120E-1	1.643424E-1	1.527710E-1	1.596116E-1	1.773592E-1	1.443591E-1	1.383882E-1	1.556341E-1	1.404377E-1	1.546219E-1	1.771874E-1	1.845995E-1	1.288711E-1	1.659961E-1	1.492524E-1	1.644254E-1	1.569534E-1	1.592499E-1	1.546910E-1	1.670845E-1	1.045684E-1	1.108216E-1	1.470978E-1	1.580493E-1	1.575934E-1	1.635961E-1	1.485328E-1	1.850065E-1	1.686226E-1	1.310822E-1	1.434057E-1	2.017301E-1	1.623570E-1	1.561831E-1	1.398038E-1	1.719455E-1	1.458593E-1	1.497307E-1	1.624632E-1	1.898735E-1	1.618244E-1	1.323382E-1	1.617140E-1	1.808781E-1	1.612521E-1	1.410176E-1	1.434736E-1	1.917047E-1	1.497358E-1	1.443108E-1	1.488611E-1	1.629254E-1	1.388684E-1	1.578948E-1	1.281271E-1	1.686575E-1	1.534638E-1	1.741272E-1	1.346412E-1	1.886669E-1	1.950898E-1	1.277732E-1	1.603652E-1
2.846010E+2	2.903027E-1	2.388431E-1	3.052492E-1	2.483361E-1	2.274212E-1	2.171173E-1	2.516778E-1	2.739504E-1	2.313749E-1	2.116599E-1	2.650944E-1	2.750793E-1	2.483390E-1	2.149653E-1	2.326188E-1	2.361367E-1	2.117238E-1	2.345818E-1	2.291118E-1	2.557706E-1	2.152505E-1	2.082110E-1	2.641751E-1	2.760293E-1	2.830244E-1	2.741061E-1	2.951615E-1	2.950259E-1	2.616354E-1	2.872504E-1	2.645228E-1	2.866843E-1	2.556952E-1	2.694469E-1	2.636028E-1	2.791285E-1	2.932366E-1	2.684670E-1	2.975713E-1	2.958207E-1	2.504048E-1	2.338064E-1	2.671360E-1	3.052030E-1	2.480245E-1	2.538628E-1	2.741638E-1	2.583151E-1	2.763447E-1	2.804196E-1	3.034562E-1	2.752139E-1	2.638013E-1	2.814311E-1	2.529653E-1	3.025022E-1	2.361180E-1	2.488882E-1	2.696204E-1	2.653402E-1	2.727814E-1	2.377431E-1	2.318307E-1	2.802176E-1	2.299497E-1	2.520954E-1	2.730474E-1	2.444300E-1	2.070581E-1	2.378130E-1	2.709335E-1	2.513664E-1	2.404656E-1	2.365969E-1	2.569046E-1	2.733282E-1	2.313546E-1	2.337727E-1	2.692709E-1	2.641486E-1	2.510835E-1	2.198858E-1	2.593710E-1	2.421553E-1	2.604445E-1	2.477261E-1	3.073354E-1	3.058605E-1	2.063139E-1	2.304638E-1	2.848180E-1	2.834083E-1	2.607293E-1	2.408716E-1	2.335960E-1	2.386884E-1	2.374226E-1	2.444140E-1	2.570883E-1	2.700080E-1	2.428368E-1	2.269756E-1	2.745133E-1	2.667809E-1	2.430782E-1	2.361864E-1	2.395327E-1	3.007205E-1	2.682524E-1	2.236676E-1	2.387485E-1	2.568071E-1	2.474726E-1	2.539764E-1	2.746560E-1	2.420549E-1	2.016806E-1	2.299882E-1	2.221450E-1	2.852862E-1	2.500589E-1	2.264608E-1	2.451098E-1	2.463855E-1	2.017912E-1	2.192667E-1	2.331514E-1	2.548224E-1	2.135478E-1	2.529021E-1	2.450060E-1	2.091228E-1	2.512412E-1	2.012756E-1	2.486153E-1	2.353305E-1	2.395642E-1	2.205798E-1	2.657041E-1	2.165721E-1	2.246472E-1	2.252964E-1	2.801904E-1	2.623331E-1	2.482174E-1	2.596807E-1	2.689754E-1	2.654904E-1	2.233121E-1	1.957289E-1	2.686831E-1	2.656388E-1	2.362876E-1	2.189858E-1	2.333861E-1	2.025834E-1	2.450298E-1	2.183215E-1	2.783695E-1	2.766346E-1	2.038887E-1	2.066342E-1	2.858739E-1	2.225993E-1	2.196576E-1	2.647134E-1	2.506288E-1	2.305180E-1	2.445129E-1	2.333771E-1
2.847030E+2	4.903852E-1	3.998603E-1	5.353667E-1	5.079039E-1	4.089339E-1	4.247827E-1	5.396436E-1	5.196713E-1	4.658113E-1	4.389158E-1	4.905566E-1	5.289048E-1	4.869316E-1	4.587491E-1	4.596458E-1	4.869368E-1	4.651780E-1	4.727041E-1	4.457059E-1	4.825716E-1	4.020369E-1	4.426189E-1	4.949213E-1	4.883588E-1	4.748859E-1	4.955131E-1	5.707497E-1	5.347547E-1	4.796199E-1	4.194273E-1	5.249929E-1	6.015634E-1	4.996822E-1	4.498742E-1	5.012499E-1	4.826691E-1	4.844265E-1	4.665272E-1	5.884207E-1	5.982399E-1	5.092824E-1	4.810947E-1	5.338415E-1	5.449527E-1	4.735017E-1	4.562341E-1	5.498252E-1	4.918893E-1	5.022190E-1	4.816582E-1	5.354418E-1	5.040931E-1	4.570005E-1	4.461459E-1	5.460148E-1	5.238186E-1	4.481898E-1	4.634917E-1	5.318173E-1	5.612214E-1	4.868439E-1	4.535602E-1	4.473900E-1	5.263968E-1	4.565336E-1	4.831720E-1	4.960630E-1	4.493175E-1	4.915117E-1	4.352709E-1	5.621337E-1	5.040770E-1	5.073336E-1	4.746363E-1	5.234316E-1	4.691629E-1	4.901678E-1	4.701150E-1	5.227032E-1	5.085728E-1	4.614519E-1	4.683688E-1	5.203325E-1	5.267979E-1	4.613766E-1	4.510429E-1	5.668695E-1	5.364510E-1	4.300750E-1	4.583766E-1	4.529885E-1	5.218263E-1	4.302575E-1	4.599418E-1	4.324245E-1	4.857762E-1	4.394356E-1	4.742540E-1	4.405869E-1	4.356370E-1	4.388694E-1	4.625066E-1	4.825662E-1	5.558485E-1	4.342069E-1	4.622127E-1	5.185896E-1	5.186930E-1	4.837305E-1	4.395311E-1	4.408700E-1	4.436785E-1	4.245861E-1	4.766701E-1	4.899305E-1	5.286388E-1	4.403363E-1	3.965137E-1	5.318966E-1	5.353218E-1	4.772562E-1	4.907110E-1	5.128359E-1	5.039505E-1	4.514415E-1	4.574573E-1	4.726447E-1	4.822330E-1	4.469156E-1	4.351212E-1	4.576972E-1	4.438664E-1	4.137292E-1	4.525792E-1	4.678409E-1	5.074554E-1	4.299383E-1	4.843542E-1	5.107370E-1	5.441701E-1	4.528600E-1	4.197042E-1	5.088430E-1	5.006239E-1	4.796609E-1	4.448576E-1	4.501081E-1	5.419348E-1	4.245904E-1	4.689846E-1	5.719023E-1	4.808575E-1	4.512269E-1	4.768065E-1	5.214792E-1	4.726951E-1	5.068982E-1	4.297219E-1	4.484327E-1	4.871425E-1	4.349817E-1	4.897029E-1	5.164836E-1	4.768389E-1	4.776642E-1	4.743354E-1	5.810936E-1	4.859761E-1	4.637563E-1	4.889181E-1
2.848030E+2	9.286018E-1	8.328206E-1	1.047155E+0	8.935116E-1	8.430783E-1	8.480139E-1	1.013320E+0	9.865442E-1	8.355442E-1	9.067949E-1	9.626183E-1	9.244278E-1	8.989384E-1	8.382136E-1	8.835042E-1	9.066238E-1	8.392179E-1	8.797143E-1	8.707430E-1	9.659185E-1	8.784487E-1	8.478670E-1	1.004930E+0	1.047122E+0	8.632309E-1	9.272090E-1	1.019208E+0	9.981462E-1	8.418435E-1	7.868172E-1	9.140770E-1	9.231416E-1	8.645724E-1	8.107281E-1	8.715635E-1	1.003354E+0	8.601134E-1	8.307634E-1	1.010975E+0	1.064516E+0	8.381558E-1	8.449451E-1	9.361981E-1	9.719696E-1	8.758909E-1	8.507043E-1	9.170110E-1	9.149503E-1	9.024713E-1	9.058592E-1	9.466901E-1	9.384068E-1	8.159510E-1	7.941069E-1	1.001200E+0	9.875802E-1	9.186859E-1	9.122069E-1	1.030439E+0	1.005043E+0	8.507502E-1	8.644993E-1	8.753846E-1	8.630108E-1	8.513749E-1	7.864603E-1	9.373986E-1	8.557153E-1	8.198104E-1	8.380841E-1	9.525342E-1	9.191687E-1	8.218990E-1	8.930401E-1	1.032358E+0	9.016816E-1	8.066155E-1	7.907174E-1	9.480282E-1	9.221350E-1	8.324215E-1	8.941850E-1	9.032890E-1	8.798980E-1	8.711596E-1	9.111828E-1	9.917706E-1	9.943535E-1	8.366105E-1	9.323451E-1	9.706896E-1	9.757378E-1	8.304727E-1	9.043091E-1	8.988234E-1	8.910865E-1	8.167564E-1	8.151287E-1	9.004242E-1	8.796130E-1	8.433810E-1	8.772026E-1	1.006165E+0	9.894505E-1	8.498006E-1	8.140571E-1	9.754323E-1	1.031908E+0	9.124963E-1	8.553860E-1	9.167637E-1	1.033383E+0	9.183181E-1	9.676567E-1	9.836120E-1	8.962885E-1	8.784310E-1	8.412601E-1	9.887017E-1	1.034251E+0	8.578120E-1	8.789304E-1	1.067849E+0	1.007154E+0	8.678978E-1	8.322093E-1	8.843832E-1	9.969541E-1	8.321395E-1	8.795010E-1	8.795536E-1	7.954100E-1	8.578633E-1	7.793763E-1	9.710350E-1	1.034766E+0	8.606758E-1	8.794393E-1	9.995988E-1	1.020571E+0	8.784762E-1	7.874391E-1	9.515532E-1	9.772032E-1	9.277764E-1	8.661321E-1	9.029375E-1	9.516640E-1	7.486851E-1	9.372614E-1	9.758053E-1	9.628413E-1	7.347150E-1	8.284791E-1	1.019207E+0	9.060489E-1	9.110317E-1	8.615832E-1	1.018207E+0	8.772969E-1	7.793775E-1	8.313757E-1	9.433018E-1	8.938815E-1	8.939438E-1	9.247510E-1	9.766987E-1	1.084531E+0	8.396013E-1	1.114733E+0
2.849020E+2	1.078355E+0	9.962237E-1	1.135178E+0	1.033277E+0	9.916851E-1	1.043264E+0	1.109701E+0	1.035688E+0	9.545120E-1	9.948011E-1	1.218612E+0	1.194271E+0	1.075844E+0	1.029049E+0	1.098230E+0	1.012809E+0	9.698526E-1	9.804185E-1	1.053566E+0	1.118357E+0	1.029557E+0	8.856106E-1	1.129179E+0	1.157759E+0	9.568513E-1	9.454059E-1	1.050526E+0	1.021625E+0	9.079989E-1	9.814404E-1	1.013510E+0	1.063832E+0	8.950715E-1	9.232293E-1	1.005384E+0	9.998032E-1	8.801880E-1	9.467013E-1	1.172315E+0	1.192082E+0	9.470391E-1	9.778506E-1	1.044259E+0	1.047115E+0	9.348620E-1	9.606215E-1	9.921908E-1	9.534093E-1	9.223682E-1	9.241550E-1	1.016989E+0	1.025493E+0	8.602917E-1	9.289671E-1	1.117700E+0	1.144393E+0	9.731521E-1	1.008606E+0	1.133525E+0	1.098067E+0	1.037461E+0	9.315100E-1	8.951710E-1	1.060959E+0	9.444763E-1	9.298524E-1	9.749601E-1	9.559083E-1	9.834249E-1	1.009873E+0	1.097601E+0	1.018102E+0	9.524937E-1	9.182070E-1	1.126562E+0	1.039848E+0	1.033893E+0	9.088893E-1	1.121023E+0	1.018048E+0	1.015645E+0	8.930907E-1	9.743643E-1	1.106891E+0	9.998353E-1	9.775280E-1	1.058376E+0	1.140795E+0	9.562449E-1	9.674953E-1	1.048729E+0	1.075462E+0	9.324033E-1	9.884066E-1	9.421846E-1	1.031970E+0	9.595580E-1	9.306036E-1	1.028217E+0	9.647270E-1	9.533248E-1	9.788625E-1	1.088230E+0	1.066464E+0	9.742570E-1	9.220606E-1	1.140842E+0	1.154156E+0	9.551548E-1	9.008865E-1	1.002317E+0	1.053525E+0	1.021431E+0	9.528106E-1	9.753334E-1	9.876308E-1	1.014006E+0	9.783381E-1	1.060663E+0	1.165549E+0	9.520987E-1	9.463526E-1	1.115525E+0	1.098971E+0	8.835707E-1	9.730058E-1	1.023596E+0	9.766490E-1	9.583144E-1	9.018371E-1	1.081668E+0	9.637383E-1	8.962703E-1	9.665624E-1	9.437742E-1	1.121592E+0	9.691569E-1	9.324247E-1	1.067193E+0	1.138229E+0	9.925835E-1	9.841891E-1	1.097502E+0	1.038112E+0	1.077968E+0	9.378889E-1	9.476472E-1	1.044223E+0	8.885568E-1	9.792136E-1	1.142049E+0	1.147129E+0	9.206079E-1	9.795039E-1	1.152834E+0	1.022313E+0	1.077217E+0	9.803698E-1	1.072825E+0	1.018368E+0	9.139948E-1	9.264686E-1	1.065615E+0	9.663616E-1	9.687428E-1	1.018275E+0	1.138752E+0	1.062154E+0	9.449522E-1	9.947837E-1
2.850030E+2	9.347385E-1	8.185070E-1	9.817671E-1	9.396838E-1	8.335249E-1	8.615557E-1	1.018022E+0	1.002926E+0	8.355440E-1	8.678061E-1	1.044819E+0	9.687858E-1	9.140680E-1	9.275632E-1	9.841569E-1	9.733688E-1	9.173762E-1	8.702740E-1	8.951956E-1	8.927964E-1	8.490670E-1	8.895827E-1	9.516810E-1	1.099647E+0	7.788590E-1	8.938465E-1	8.463393E-1	1.008032E+0	8.461819E-1	7.909800E-1	8.848951E-1	9.343069E-1	7.948621E-1	8.202809E-1	9.027100E-1	9.003995E-1	8.285669E-1	8.056428E-1	1.023048E+0	9.985335E-1	8.359329E-1	8.830735E-1	9.270002E-1	9.051736E-1	8.585472E-1	7.972857E-1	8.810556E-1	9.018178E-1	8.685323E-1	8.406861E-1	9.256003E-1	8.680684E-1	7.747775E-1	8.188142E-1	9.411497E-1	9.875807E-1	8.746504E-1	8.376126E-1	9.676926E-1	9.893527E-1	8.067491E-1	8.654846E-1	9.159975E-1	8.971732E-1	8.367917E-1	8.081234E-1	9.115762E-1	8.906145E-1	8.166012E-1	8.232751E-1	9.941330E-1	9.643335E-1	8.003216E-1	7.913226E-1	9.094350E-1	9.257107E-1	8.316271E-1	7.824968E-1	9.535379E-1	8.643814E-1	8.471254E-1	8.788599E-1	9.626945E-1	9.159293E-1	8.266186E-1	9.550557E-1	9.688021E-1	9.703114E-1	8.886736E-1	8.518377E-1	8.805591E-1	1.060561E+0	8.637333E-1	8.534354E-1	7.994098E-1	9.008398E-1	8.597139E-1	8.040255E-1	8.119502E-1	8.991655E-1	8.859072E-1	8.902867E-1	9.056064E-1	9.303708E-1	8.031298E-1	8.474601E-1	9.956863E-1	9.950019E-1	9.092147E-1	8.575015E-1	8.857502E-1	9.382691E-1	8.370407E-1	8.838817E-1	9.163396E-1	9.499521E-1	8.661059E-1	8.361815E-1	9.699284E-1	1.020551E+0	8.828046E-1	8.245580E-1	9.749391E-1	9.713826E-1	8.477471E-1	9.020779E-1	9.126970E-1	9.533001E-1	8.198572E-1	8.618672E-1	9.618100E-1	9.007588E-1	8.618037E-1	8.683154E-1	9.403660E-1	1.052766E+0	8.319598E-1	8.448848E-1	9.718343E-1	1.056329E+0	8.271286E-1	8.834715E-1	1.058582E+0	9.707925E-1	9.437809E-1	8.684481E-1	8.203969E-1	9.689421E-1	7.827998E-1	9.043792E-1	9.664389E-1	1.046609E+0	8.288225E-1	8.349505E-1	1.002043E+0	8.954800E-1	9.588727E-1	8.625899E-1	1.033103E+0	8.717853E-1	8.163975E-1	8.733936E-1	1.043957E+0	8.961120E-1	8.917754E-1	8.903519E-1	1.010063E+0	1.028590E+0	9.079373E-1	1.062582E+0
2.851080E+2	8.856386E-1	8.137364E-1	9.352406E-1	8.498342E-1	8.303412E-1	8.570427E-1	9.028356E-1	9.069768E-1	8.600370E-1	8.544380E-1	1.006068E+0	9.256603E-1	8.814804E-1	8.139452E-1	9.338305E-1	8.752732E-1	8.570836E-1	8.576858E-1	9.056763E-1	9.002323E-1	8.553624E-1	7.753595E-1	8.854154E-1	9.610729E-1	8.042858E-1	8.503724E-1	8.789077E-1	8.943466E-1	8.570265E-1	7.836948E-1	8.719268E-1	8.996938E-1	7.807021E-1	7.629678E-1	8.657951E-1	8.790989E-1	7.788587E-1	7.756934E-1	9.264645E-1	9.600435E-1	7.770468E-1	8.122646E-1	9.315980E-1	9.027885E-1	7.648865E-1	7.931771E-1	9.006671E-1	7.892516E-1	8.146976E-1	8.098145E-1	8.564734E-1	8.289916E-1	7.631636E-1	7.817532E-1	8.666868E-1	9.519920E-1	8.607436E-1	8.490889E-1	8.735699E-1	9.534879E-1	8.257774E-1	7.639809E-1	8.587231E-1	8.017167E-1	7.930455E-1	8.163762E-1	8.129795E-1	8.174403E-1	8.272954E-1	7.512032E-1	9.034665E-1	8.901336E-1	7.594400E-1	7.734963E-1	9.622804E-1	8.536246E-1	8.327137E-1	7.650286E-1	9.127679E-1	8.324097E-1	7.939670E-1	8.558723E-1	8.905594E-1	8.318570E-1	7.998929E-1	8.319960E-1	9.354995E-1	9.265973E-1	8.033789E-1	7.917419E-1	8.684679E-1	9.230113E-1	8.100863E-1	8.357853E-1	8.279649E-1	8.997572E-1	8.272066E-1	8.184596E-1	8.152279E-1	7.967983E-1	8.236744E-1	8.369409E-1	8.952031E-1	8.681253E-1	8.153536E-1	8.463459E-1	9.045430E-1	8.969729E-1	9.070279E-1	8.130599E-1	8.675702E-1	8.991061E-1	8.261213E-1	8.266166E-1	9.049547E-1	8.357750E-1	7.865542E-1	8.635977E-1	8.875369E-1	9.417726E-1	7.533016E-1	8.223834E-1	9.883864E-1	9.296466E-1	7.425136E-1	7.771598E-1	8.537082E-1	8.375631E-1	7.707273E-1	7.736953E-1	8.936541E-1	8.343433E-1	7.889296E-1	7.886847E-1	7.949735E-1	8.918206E-1	7.894174E-1	8.667698E-1	8.873418E-1	9.559747E-1	8.499495E-1	8.120334E-1	9.187146E-1	8.703472E-1	8.403691E-1	7.723872E-1	8.330065E-1	8.479965E-1	6.997866E-1	8.885058E-1	9.570736E-1	9.100041E-1	8.683249E-1	7.777774E-1	9.885585E-1	9.060483E-1	9.676862E-1	8.152766E-1	9.586231E-1	8.409261E-1	8.175190E-1	8.634419E-1	8.948887E-1	8.336668E-1	8.158903E-1	7.936041E-1	9.798755E-1	1.022998E+0	8.509899E-1	8.904826E-1
2.852010E+2	9.040509E-1	7.302456E-1	9.327257E-1	8.523299E-1	7.432998E-1	8.164125E-1	8.863805E-1	8.847451E-1	7.492344E-1	7.942820E-1	9.168221E-1	8.751408E-1	9.070848E-1	7.841619E-1	9.383044E-1	8.287542E-1	8.526169E-1	7.737660E-1	8.765649E-1	8.841211E-1	7.766608E-1	7.505273E-1	8.191501E-1	8.917862E-1	8.320256E-1	8.220652E-1	8.726451E-1	9.314192E-1	8.939003E-1	8.013881E-1	7.833012E-1	8.315809E-1	7.915952E-1	7.555394E-1	8.208042E-1	8.495152E-1	7.281930E-1	8.095087E-1	9.363427E-1	9.226540E-1	8.337111E-1	8.079062E-1	8.511281E-1	8.514995E-1	8.839847E-1	7.387320E-1	8.995775E-1	8.173929E-1	8.474664E-1	7.766557E-1	7.838319E-1	8.714179E-1	7.673869E-1	7.539569E-1	8.907067E-1	8.663571E-1	7.726703E-1	8.376137E-1	9.475235E-1	8.727938E-1	8.364797E-1	7.117523E-1	8.233184E-1	8.780830E-1	8.311829E-1	7.194069E-1	8.388026E-1	8.084327E-1	8.091163E-1	7.946436E-1	8.181337E-1	9.105656E-1	8.094070E-1	7.902732E-1	8.382083E-1	8.860630E-1	7.750785E-1	7.609179E-1	8.620808E-1	7.932193E-1	8.324219E-1	7.770584E-1	8.544911E-1	8.378621E-1	8.573020E-1	8.159444E-1	9.044943E-1	9.571971E-1	7.845463E-1	8.473026E-1	8.201057E-1	8.232885E-1	7.478540E-1	8.067138E-1	7.507604E-1	7.946363E-1	8.155954E-1	7.529497E-1	7.748141E-1	8.451061E-1	8.257483E-1	8.047302E-1	9.229431E-1	8.955556E-1	7.975732E-1	7.728602E-1	8.730376E-1	8.681407E-1	8.031168E-1	7.770825E-1	8.312096E-1	8.006337E-1	7.848767E-1	8.531282E-1	8.573453E-1	8.392012E-1	8.078433E-1	7.904893E-1	8.552059E-1	9.577565E-1	8.101007E-1	7.930226E-1	9.443765E-1	8.270984E-1	7.167649E-1	8.258571E-1	8.525291E-1	8.690349E-1	7.361124E-1	7.866279E-1	8.537017E-1	7.759440E-1	7.308277E-1	7.948895E-1	8.313224E-1	8.822907E-1	7.543210E-1	7.907465E-1	8.945833E-1	9.132947E-1	8.237058E-1	8.237447E-1	8.773631E-1	8.692788E-1	8.354446E-1	7.284079E-1	7.905908E-1	8.072707E-1	7.611936E-1	8.057361E-1	9.008784E-1	8.571662E-1	8.439272E-1	7.443362E-1	9.113253E-1	8.273636E-1	9.563545E-1	7.438022E-1	9.400017E-1	7.670831E-1	7.300187E-1	7.849346E-1	8.553910E-1	7.712210E-1	7.302504E-1	8.194032E-1	9.878193E-1	8.980667E-1	7.570295E-1	8.591918E-1
2.853000E+2	6.131339E-1	5.751917E-1	6.787181E-1	6.726296E-1	5.936315E-1	5.952031E-1	7.053725E-1	6.238124E-1	6.722556E-1	6.004458E-1	6.537829E-1	6.940135E-1	6.359044E-1	5.745745E-1	6.083881E-1	6.244737E-1	6.438232E-1	5.859957E-1	7.135367E-1	6.573193E-1	6.213543E-1	5.439309E-1	6.558522E-1	6.459305E-1	5.823745E-1	5.733599E-1	6.684585E-1	6.509111E-1	6.683237E-1	5.849094E-1	6.417188E-1	6.640921E-1	6.205860E-1	5.634371E-1	6.546814E-1	5.927228E-1	6.125232E-1	5.438181E-1	6.861018E-1	7.126098E-1	6.170550E-1	6.477690E-1	6.775397E-1	6.022060E-1	6.342261E-1	5.702604E-1	6.206469E-1	6.297831E-1	6.637246E-1	5.971413E-1	6.198009E-1	6.369556E-1	5.995254E-1	5.243856E-1	6.877347E-1	6.973116E-1	5.930471E-1	5.966144E-1	6.483498E-1	6.789025E-1	6.806897E-1	5.599908E-1	5.515257E-1	6.339123E-1	6.719003E-1	5.543527E-1	6.944296E-1	6.193071E-1	6.412242E-1	5.507833E-1	6.154670E-1	6.341971E-1	5.993188E-1	5.721589E-1	6.325692E-1	6.818187E-1	7.337565E-1	4.916940E-1	6.857815E-1	5.921108E-1	7.034875E-1	5.340487E-1	6.274758E-1	6.420954E-1	5.999507E-1	5.858745E-1	7.138613E-1	6.457357E-1	6.106340E-1	6.329969E-1	6.299521E-1	6.318657E-1	6.351935E-1	5.980270E-1	5.773144E-1	6.342453E-1	6.228717E-1	5.597510E-1	5.519952E-1	6.162177E-1	5.446646E-1	5.832920E-1	7.137351E-1	6.718976E-1	5.964440E-1	5.824638E-1	6.930001E-1	6.836125E-1	6.445178E-1	5.559275E-1	5.777566E-1	6.529279E-1	6.429435E-1	6.060449E-1	5.986026E-1	6.039960E-1	6.039214E-1	6.148249E-1	6.518339E-1	6.780357E-1	5.738154E-1	5.864070E-1	6.680929E-1	6.601577E-1	5.779459E-1	5.908432E-1	6.519684E-1	5.807103E-1	5.675068E-1	5.432771E-1	5.916565E-1	6.121950E-1	5.821262E-1	5.601328E-1	6.234559E-1	6.991083E-1	6.203137E-1	6.444622E-1	5.819542E-1	6.526003E-1	5.977749E-1	6.082560E-1	6.827645E-1	6.512908E-1	6.261606E-1	5.976274E-1	6.220680E-1	6.616443E-1	5.098784E-1	6.220529E-1	6.667313E-1	7.063849E-1	6.382830E-1	5.469258E-1	6.649139E-1	6.594243E-1	6.428681E-1	5.485094E-1	7.115975E-1	6.061716E-1	5.897914E-1	5.870077E-1	6.782929E-1	6.262606E-1	5.567998E-1	5.904324E-1	7.018401E-1	7.432992E-1	7.029301E-1	6.610166E-1
2.854130E+2	4.732007E-1	4.320640E-1	5.416538E-1	4.742097E-1	4.747467E-1	4.834697E-1	5.079100E-1	5.220131E-1	4.261559E-1	4.545110E-1	5.398765E-1	4.820819E-1	4.718007E-1	3.870484E-1	4.697110E-1	4.353619E-1	3.959529E-1	4.223525E-1	4.224158E-1	4.553061E-1	4.450613E-1	3.869967E-1	4.641555E-1	5.263558E-1	4.656396E-1	4.126118E-1	5.469496E-1	5.149832E-1	4.958880E-1	4.412841E-1	4.590651E-1	5.278683E-1	4.746302E-1	4.042362E-1	4.677940E-1	4.779349E-1	4.165538E-1	4.307791E-1	5.686655E-1	5.102636E-1	4.770611E-1	4.331620E-1	5.165974E-1	4.626515E-1	4.607827E-1	3.853524E-1	4.637496E-1	4.149691E-1	5.010488E-1	4.164837E-1	4.698299E-1	4.103087E-1	4.327197E-1	4.420283E-1	4.811589E-1	5.104727E-1	4.539842E-1	4.898866E-1	4.623462E-1	5.029416E-1	4.916014E-1	4.348365E-1	3.984468E-1	4.731418E-1	4.823333E-1	4.326239E-1	4.455912E-1	4.436882E-1	4.091699E-1	4.155251E-1	4.447998E-1	4.976253E-1	4.709946E-1	4.232537E-1	5.096453E-1	4.847817E-1	5.043049E-1	4.177084E-1	5.028694E-1	4.229731E-1	4.761545E-1	4.180158E-1	4.333457E-1	4.859632E-1	4.643465E-1	4.435532E-1	4.876315E-1	5.135010E-1	4.311827E-1	4.436360E-1	4.419965E-1	4.954633E-1	5.257510E-1	4.391768E-1	4.281938E-1	4.641021E-1	4.347913E-1	4.253994E-1	4.100036E-1	4.448381E-1	4.274597E-1	4.715650E-1	4.490462E-1	4.978241E-1	4.264291E-1	4.176756E-1	4.713299E-1	4.967811E-1	5.449816E-1	4.300076E-1	4.387311E-1	4.917938E-1	4.864539E-1	4.034996E-1	4.557764E-1	4.647001E-1	4.403366E-1	4.482993E-1	5.110381E-1	5.273300E-1	4.738485E-1	4.602630E-1	4.639366E-1	4.860627E-1	5.197318E-1	4.468703E-1	4.584872E-1	4.456850E-1	5.351266E-1	4.445266E-1	4.482961E-1	4.381411E-1	4.206230E-1	4.081098E-1	5.110039E-1	4.682785E-1	4.214300E-1	4.394321E-1	4.769402E-1	4.530420E-1	5.019257E-1	4.688918E-1	4.662750E-1	4.557439E-1	5.018212E-1	3.985626E-1	4.363502E-1	4.555456E-1	4.541576E-1	4.508427E-1	5.262438E-1	5.220968E-1	4.616836E-1	4.099247E-1	5.128981E-1	3.693483E-1	5.068993E-1	4.256956E-1	5.216724E-1	3.967668E-1	4.473212E-1	4.532135E-1	4.935494E-1	4.534225E-1	4.397225E-1	4.571349E-1	4.603472E-1	4.934338E-1	4.893819E-1	4.471968E-1
2.855050E+2	3.332653E-1	2.829740E-1	3.882432E-1	3.344426E-1	3.155239E-1	3.209494E-1	3.915469E-1	3.769198E-1	3.165183E-1	3.631642E-1	4.283199E-1	3.687241E-1	3.682173E-1	3.208627E-1	3.578756E-1	3.473793E-1	3.803202E-1	3.289915E-1	3.211056E-1	3.499611E-1	3.443220E-1	3.274015E-1	3.055914E-1	3.699013E-1	3.408143E-1	3.337547E-1	3.239729E-1	3.395116E-1	3.581560E-1	3.486555E-1	3.747639E-1	3.380478E-1	3.591721E-1	2.938578E-1	3.582006E-1	3.737984E-1	3.238269E-1	3.274028E-1	3.941557E-1	4.178883E-1	3.670661E-1	3.383866E-1	3.912918E-1	3.851202E-1	3.659661E-1	3.309078E-1	3.438960E-1	3.521205E-1	3.535870E-1	3.147214E-1	3.233743E-1	3.500190E-1	3.472051E-1	3.555522E-1	3.502475E-1	3.636704E-1	3.763390E-1	3.292214E-1	3.491760E-1	3.684502E-1	3.833805E-1	3.185513E-1	3.276343E-1	3.535691E-1	3.544585E-1	2.974856E-1	3.364307E-1	3.423708E-1	3.439380E-1	3.167963E-1	3.434669E-1	3.438477E-1	3.540271E-1	3.068555E-1	3.786805E-1	3.634358E-1	3.901225E-1	2.943991E-1	3.530141E-1	3.353100E-1	3.347780E-1	3.085521E-1	3.495408E-1	3.154177E-1	3.465583E-1	3.151423E-1	3.934640E-1	3.845451E-1	3.359175E-1	3.223094E-1	3.529652E-1	3.590597E-1	3.894848E-1	3.083577E-1	3.044552E-1	3.589818E-1	3.558439E-1	3.054823E-1	3.215310E-1	3.252184E-1	3.434456E-1	3.014595E-1	3.496431E-1	3.659498E-1	3.008609E-1	3.252608E-1	3.284257E-1	4.033632E-1	3.645066E-1	2.860985E-1	2.836645E-1	3.183511E-1	3.433080E-1	2.910928E-1	3.367545E-1	3.402474E-1	3.596643E-1	3.254354E-1	3.472972E-1	4.028826E-1	3.670658E-1	3.167200E-1	3.649141E-1	3.680124E-1	3.674786E-1	3.050148E-1	3.487688E-1	3.512687E-1	3.709876E-1	2.928731E-1	3.754403E-1	3.201965E-1	3.142674E-1	3.408887E-1	3.951443E-1	3.348626E-1	3.480459E-1	3.196391E-1	4.093442E-1	3.330775E-1	3.638567E-1	3.225005E-1	3.251915E-1	3.884237E-1	4.168762E-1	3.464817E-1	3.366138E-1	3.839664E-1	3.120113E-1	3.374599E-1	3.681947E-1	3.738920E-1	3.547943E-1	3.462782E-1	3.817236E-1	3.564301E-1	3.230860E-1	3.300615E-1	3.962972E-1	3.526818E-1	2.723190E-1	3.581199E-1	3.801559E-1	3.530646E-1	3.302318E-1	3.087883E-1	4.381039E-1	3.591793E-1	3.413218E-1	3.794004E-1
2.856030E+2	2.436580E-1	2.114105E-1	2.788432E-1	2.408486E-1	2.083151E-1	2.205029E-1	2.845879E-1	2.844810E-1	2.337075E-1	2.473078E-1	2.357376E-1	2.726151E-1	2.401920E-1	2.304088E-1	2.393289E-1	2.229899E-1	2.340544E-1	2.094061E-1	2.314409E-1	2.446166E-1	2.068558E-1	2.539008E-1	2.700922E-1	2.514433E-1	2.483503E-1	2.296216E-1	2.412965E-1	2.666052E-1	2.757345E-1	2.216829E-1	2.212917E-1	2.208060E-1	2.317330E-1	1.962146E-1	2.578351E-1	2.235097E-1	2.148486E-1	1.882776E-1	2.986696E-1	2.727267E-1	2.415167E-1	2.207342E-1	2.418450E-1	2.217085E-1	2.526493E-1	2.240721E-1	1.935351E-1	2.395542E-1	2.529379E-1	2.266790E-1	2.343293E-1	2.327873E-1	2.046804E-1	2.114272E-1	2.877945E-1	2.435585E-1	2.488649E-1	2.213457E-1	2.539332E-1	2.339590E-1	2.513749E-1	2.140923E-1	2.162102E-1	2.289725E-1	2.310713E-1	2.252739E-1	2.143591E-1	2.151604E-1	2.038496E-1	2.131310E-1	2.229334E-1	2.416884E-1	2.245671E-1	1.894091E-1	2.546069E-1	2.456948E-1	2.846397E-1	1.988352E-1	2.472339E-1	1.950497E-1	2.431668E-1	2.187911E-1	2.413366E-1	2.277438E-1	2.554951E-1	2.605669E-1	2.441743E-1	2.719819E-1	1.996676E-1	2.100537E-1	2.320586E-1	2.387045E-1	2.414166E-1	2.263364E-1	2.060987E-1	2.386889E-1	2.467102E-1	1.811243E-1	2.090292E-1	2.055973E-1	2.376507E-1	2.118774E-1	2.479290E-1	2.509558E-1	2.264094E-1	2.050101E-1	2.451589E-1	3.041803E-1	2.595024E-1	2.067367E-1	2.494428E-1	2.780680E-1	2.620299E-1	2.168613E-1	2.311871E-1	2.317790E-1	2.431367E-1	2.106955E-1	2.482181E-1	2.601687E-1	2.080277E-1	2.047125E-1	2.426649E-1	2.308840E-1	2.723202E-1	2.277359E-1	2.366909E-1	2.203043E-1	2.559786E-1	1.847172E-1	2.379550E-1	2.079776E-1	2.335150E-1	2.198903E-1	2.736048E-1	2.501538E-1	2.310554E-1	2.009983E-1	2.608760E-1	2.523305E-1	2.839822E-1	2.100715E-1	2.473522E-1	2.634010E-1	2.383687E-1	2.376910E-1	2.414616E-1	2.519153E-1	2.528784E-1	2.535554E-1	2.686832E-1	2.359986E-1	2.537155E-1	2.157496E-1	2.873272E-1	2.495597E-1	2.588781E-1	2.414746E-1	2.485773E-1	2.358559E-1	2.139854E-1	1.878369E-1	2.438286E-1	2.382105E-1	2.348347E-1	2.303143E-1	2.538064E-1	2.752699E-1	2.416657E-1	2.333768E-1
2.858030E+2	2.829377E-1	2.579269E-1	3.077653E-1	2.970049E-1	2.613887E-1	3.062784E-1	3.504092E-1	3.500069E-1	2.896926E-1	3.264017E-1	3.332032E-1	3.416161E-1	3.065324E-1	3.098311E-1	3.041942E-1	2.735549E-1	2.865318E-1	2.838842E-1	3.013098E-1	3.041059E-1	3.075939E-1	2.707858E-1	3.552903E-1	3.062024E-1	3.257883E-1	2.842158E-1	3.415105E-1	3.036757E-1	3.473118E-1	2.862100E-1	3.099162E-1	3.279980E-1	3.145140E-1	2.450361E-1	3.489713E-1	3.217298E-1	2.865453E-1	2.761966E-1	3.184246E-1	3.200147E-1	2.926253E-1	2.762918E-1	3.257652E-1	3.195165E-1	3.463090E-1	2.702994E-1	3.406271E-1	3.145984E-1	3.208174E-1	3.215823E-1	2.917401E-1	2.819126E-1	2.754141E-1	2.526053E-1	3.574532E-1	4.048198E-1	2.732012E-1	2.821688E-1	3.065968E-1	3.079297E-1	3.227289E-1	2.702636E-1	2.807743E-1	3.354829E-1	3.107121E-1	2.789166E-1	2.695265E-1	2.995919E-1	2.658736E-1	2.802666E-1	3.296001E-1	3.126620E-1	2.915683E-1	2.743478E-1	3.063034E-1	3.141776E-1	3.292252E-1	2.522692E-1	3.100407E-1	3.095273E-1	3.381706E-1	2.822798E-1	3.389325E-1	3.298304E-1	3.138946E-1	3.162120E-1	3.440837E-1	3.517598E-1	3.093331E-1	2.928281E-1	3.221893E-1	3.235267E-1	2.907726E-1	2.927840E-1	2.727273E-1	2.733675E-1	2.908279E-1	2.899373E-1	3.411911E-1	2.976131E-1	3.175161E-1	2.873681E-1	3.369295E-1	3.427399E-1	3.097511E-1	2.517746E-1	3.284258E-1	3.180202E-1	3.360673E-1	2.691678E-1	3.061223E-1	3.105188E-1	3.360289E-1	3.101807E-1	3.129499E-1	3.037107E-1	2.991601E-1	2.797433E-1	3.160090E-1	3.275301E-1	3.102662E-1	3.199821E-1	3.209049E-1	3.310475E-1	2.935903E-1	2.309120E-1	3.015779E-1	3.035534E-1	3.185079E-1	2.752387E-1	3.084606E-1	2.766827E-1	2.955560E-1	2.819410E-1	3.167687E-1	3.539222E-1	2.576442E-1	2.942984E-1	3.007093E-1	3.273095E-1	3.558691E-1	2.873661E-1	3.555976E-1	3.531613E-1	3.134647E-1	3.025029E-1	2.781462E-1	3.074508E-1	3.097361E-1	3.147825E-1	3.225366E-1	3.184769E-1	3.350435E-1	2.524271E-1	2.946825E-1	3.000587E-1	3.520433E-1	2.606013E-1	3.627806E-1	3.273326E-1	2.768066E-1	2.884586E-1	2.960659E-1	3.329920E-1	3.052980E-1	3.012625E-1	2.506290E-1	3.106980E-1	2.644444E-1	2.855280E-1
2.860040E+2	5.272095E-1	4.928937E-1	6.296760E-1	5.378538E-1	5.002210E-1	5.263584E-1	6.101669E-1	6.062604E-1	4.914712E-1	5.447454E-1	5.962419E-1	6.016021E-1	5.870233E-1	5.304503E-1	5.804285E-1	5.071635E-1	5.131894E-1	4.873907E-1	5.703061E-1	6.312936E-1	5.699353E-1	4.863219E-1	6.321864E-1	6.436953E-1	5.916205E-1	5.905472E-1	5.857810E-1	6.187829E-1	6.010845E-1	5.162188E-1	4.904087E-1	6.004468E-1	5.672147E-1	5.050628E-1	5.335512E-1	5.761545E-1	5.599465E-1	5.167663E-1	6.290304E-1	5.894435E-1	5.781678E-1	5.159545E-1	5.924703E-1	5.890867E-1	5.868175E-1	4.665065E-1	5.378392E-1	5.856947E-1	5.864829E-1	5.251074E-1	5.026360E-1	5.353547E-1	4.643917E-1	5.336513E-1	5.952566E-1	5.816497E-1	5.675520E-1	5.518575E-1	6.024089E-1	5.959655E-1	5.546305E-1	4.860807E-1	5.036231E-1	5.284069E-1	5.877732E-1	5.038036E-1	5.418401E-1	5.371260E-1	4.989973E-1	4.688389E-1	5.376000E-1	5.901071E-1	5.516224E-1	5.281162E-1	5.360685E-1	5.628750E-1	5.826005E-1	4.711428E-1	5.800006E-1	5.075417E-1	5.519317E-1	5.340479E-1	5.723126E-1	5.856477E-1	5.761951E-1	5.056170E-1	5.909858E-1	5.910938E-1	5.364161E-1	5.468200E-1	5.991755E-1	5.504825E-1	5.804721E-1	5.066622E-1	5.360681E-1	5.486321E-1	5.845593E-1	5.319908E-1	5.159516E-1	5.196014E-1	5.529625E-1	5.269250E-1	5.588516E-1	5.758941E-1	5.719979E-1	5.056370E-1	5.906035E-1	5.717443E-1	5.723272E-1	5.030201E-1	5.488815E-1	5.600524E-1	6.016980E-1	5.498411E-1	5.313287E-1	5.035203E-1	5.053229E-1	4.939919E-1	5.673561E-1	5.866987E-1	5.374634E-1	5.026729E-1	6.008561E-1	6.172308E-1	6.361603E-1	4.987434E-1	5.682053E-1	5.401017E-1	5.161447E-1	4.833214E-1	6.092836E-1	5.091370E-1	4.885723E-1	5.198004E-1	5.428086E-1	6.133421E-1	5.416114E-1	4.912650E-1	5.602272E-1	6.179950E-1	6.205963E-1	5.321325E-1	5.355998E-1	5.497769E-1	5.744547E-1	4.564309E-1	5.349417E-1	5.592119E-1	5.428569E-1	5.245430E-1	5.707311E-1	5.878215E-1	5.836756E-1	5.080905E-1	5.901318E-1	5.502051E-1	6.227249E-1	4.709951E-1	5.576704E-1	5.146953E-1	5.056552E-1	5.217698E-1	6.196852E-1	5.180975E-1	5.221106E-1	5.420591E-1	5.874492E-1	5.568332E-1	5.320917E-1	5.827901E-1
2.862020E+2	8.537239E-1	7.207038E-1	8.660806E-1	8.485863E-1	8.154797E-1	8.525277E-1	9.192911E-1	8.473003E-1	8.658697E-1	8.332709E-1	8.710248E-1	8.554264E-1	9.047572E-1	9.385949E-1	8.499533E-1	8.520137E-1	8.124209E-1	8.681756E-1	8.101885E-1	9.783117E-1	7.430814E-1	7.813176E-1	8.925156E-1	8.247351E-1	7.441854E-1	7.502844E-1	9.102257E-1	8.869326E-1	8.353368E-1	7.941023E-1	7.562819E-1	7.701674E-1	8.558594E-1	8.117895E-1	7.815813E-1	7.856125E-1	7.855504E-1	7.708624E-1	9.143909E-1	8.786652E-1	7.692697E-1	7.469025E-1	9.534420E-1	7.847029E-1	8.446716E-1	7.233237E-1	7.492165E-1	7.948797E-1	8.802368E-1	7.777985E-1	8.260111E-1	8.077786E-1	7.420499E-1	7.395447E-1	8.919079E-1	9.219651E-1	7.645578E-1	7.664611E-1	8.690885E-1	8.593445E-1	8.507504E-1	7.403301E-1	7.847878E-1	8.137745E-1	7.593944E-1	6.802067E-1	8.165012E-1	6.969841E-1	7.556469E-1	7.008513E-1	8.053337E-1	8.514200E-1	7.673894E-1	7.221138E-1	8.152320E-1	8.524227E-1	9.175354E-1	7.239249E-1	8.003756E-1	7.406209E-1	9.082001E-1	7.650170E-1	8.046329E-1	8.330578E-1	8.196891E-1	7.966822E-1	8.757838E-1	8.610263E-1	7.623924E-1	7.497875E-1	8.343943E-1	8.748688E-1	8.648064E-1	7.724516E-1	8.068121E-1	7.718780E-1	8.063080E-1	7.374047E-1	7.475078E-1	7.645928E-1	7.977433E-1	7.795667E-1	8.281633E-1	8.544111E-1	7.875727E-1	7.505911E-1	8.482811E-1	8.104752E-1	8.818707E-1	7.453376E-1	7.927097E-1	8.677730E-1	8.855645E-1	8.191934E-1	7.993871E-1	8.392010E-1	8.112043E-1	8.016595E-1	8.020160E-1	8.949616E-1	7.748857E-1	7.625732E-1	8.404647E-1	8.712168E-1	8.634194E-1	7.729259E-1	7.640460E-1	7.969542E-1	8.589371E-1	7.748718E-1	8.231489E-1	7.736531E-1	7.426454E-1	7.617957E-1	8.347290E-1	8.399360E-1	7.936712E-1	7.273954E-1	8.414719E-1	8.337018E-1	8.419633E-1	7.441076E-1	8.919578E-1	8.254671E-1	8.526798E-1	8.071079E-1	7.527590E-1	8.541669E-1	8.044060E-1	7.705860E-1	8.704379E-1	9.009828E-1	9.275792E-1	7.562026E-1	8.880318E-1	8.297126E-1	8.631907E-1	7.659490E-1	8.903496E-1	7.847166E-1	7.143128E-1	7.119562E-1	9.420284E-1	7.734518E-1	7.963779E-1	8.301531E-1	9.004371E-1	8.794190E-1	9.022428E-1	8.644073E-1
2.864060E+2	7.628889E-1	6.968492E-1	8.497327E-1	7.849431E-1	7.188856E-1	7.193511E-1	8.558207E-1	8.508113E-1	7.002477E-1	7.753431E-1	7.700364E-1	8.554268E-1	8.151403E-1	8.404194E-1	7.571301E-1	7.003201E-1	7.175158E-1	7.674726E-1	8.032022E-1	7.589473E-1	6.528350E-1	7.247026E-1	7.197512E-1	8.090892E-1	6.783053E-1	7.300643E-1	8.087587E-1	7.534758E-1	7.756894E-1	7.670427E-1	7.389894E-1	7.578855E-1	7.643634E-1	7.406791E-1	7.458179E-1	7.359109E-1	6.650996E-1	6.356025E-1	7.958570E-1	8.280791E-1	7.270494E-1	7.447238E-1	7.810030E-1	7.381843E-1	7.810750E-1	7.099690E-1	7.404990E-1	7.357826E-1	7.667137E-1	7.915201E-1	7.498545E-1	7.653517E-1	6.544235E-1	6.427743E-1	8.186456E-1	7.829480E-1	7.796234E-1	7.400656E-1	7.727252E-1	7.909778E-1	7.246920E-1	7.491994E-1	6.369162E-1	7.936784E-1	6.988222E-1	6.379119E-1	7.225994E-1	6.373177E-1	6.946939E-1	7.314574E-1	7.498669E-1	7.718437E-1	7.458122E-1	7.179185E-1	7.348141E-1	7.731274E-1	7.848655E-1	6.540508E-1	7.089196E-1	6.921497E-1	7.973613E-1	7.891000E-1	7.462875E-1	7.237650E-1	7.444625E-1	7.067949E-1	7.678357E-1	8.555623E-1	6.892824E-1	7.089678E-1	7.563541E-1	8.129722E-1	8.293995E-1	7.195020E-1	6.312516E-1	7.306967E-1	8.179184E-1	6.696741E-1	7.158334E-1	7.208857E-1	7.593671E-1	7.272270E-1	8.154505E-1	7.689566E-1	7.409019E-1	6.737644E-1	7.582623E-1	7.874101E-1	7.987425E-1	6.532782E-1	7.199899E-1	7.816112E-1	7.994345E-1	6.760350E-1	7.114148E-1	7.364415E-1	6.991593E-1	6.980877E-1	7.227531E-1	8.013421E-1	7.476211E-1	7.092893E-1	8.196823E-1	8.282905E-1	7.637835E-1	6.405988E-1	7.534282E-1	7.360398E-1	7.528617E-1	6.643651E-1	7.573449E-1	7.163986E-1	7.239346E-1	7.121557E-1	8.040609E-1	8.674667E-1	7.468760E-1	7.158765E-1	7.521501E-1	7.990962E-1	7.860504E-1	6.457325E-1	8.068213E-1	7.175422E-1	8.071301E-1	6.485512E-1	7.057560E-1	6.752202E-1	7.429993E-1	7.739874E-1	8.037073E-1	7.978842E-1	7.881587E-1	7.443368E-1	8.573848E-1	7.392847E-1	8.266802E-1	7.216561E-1	8.307645E-1	6.238064E-1	6.312987E-1	6.599859E-1	8.260867E-1	7.589564E-1	7.540988E-1	6.388068E-1	8.066996E-1	8.234787E-1	7.399464E-1	7.340286E-1
2.866050E+2	1.040303E+0	9.175035E-1	1.063502E+0	9.933445E-1	9.269353E-1	9.958615E-1	1.114403E+0	1.074302E+0	9.323513E-1	1.008169E+0	1.080047E+0	1.037787E+0	1.039765E+0	1.068760E+0	1.061324E+0	9.753917E-1	9.843674E-1	1.039162E+0	9.732163E-1	9.993792E-1	9.067810E-1	9.442123E-1	1.028596E+0	1.023655E+0	9.811227E-1	1.005055E+0	1.014198E+0	1.074761E+0	9.741536E-1	1.041803E+0	9.292090E-1	1.019168E+0	9.778526E-1	1.003892E+0	1.004230E+0	9.193335E-1	9.050429E-1	9.660232E-1	1.076828E+0	1.060118E+0	9.881486E-1	1.043211E+0	1.051156E+0	9.552713E-1	1.065524E+0	1.102384E+0	9.725790E-1	8.596050E-1	9.996101E-1	1.062506E+0	9.326304E-1	9.518047E-1	8.676817E-1	8.898469E-1	1.028825E+0	1.045413E+0	9.511348E-1	9.695888E-1	1.061814E+0	9.848702E-1	1.058867E+0	1.027100E+0	9.066261E-1	9.454060E-1	1.003925E+0	1.021663E+0	9.479633E-1	9.018721E-1	9.588300E-1	9.338517E-1	1.000534E+0	9.836902E-1	9.082049E-1	9.035262E-1	1.067972E+0	9.533443E-1	1.085001E+0	1.029115E+0	9.502319E-1	8.788200E-1	9.794536E-1	9.489166E-1	9.987630E-1	9.795825E-1	9.147116E-1	9.807378E-1	1.041151E+0	9.823321E-1	1.023816E+0	9.073991E-1	1.028945E+0	1.075461E+0	1.031116E+0	1.039280E+0	8.935361E-1	9.333525E-1	1.038506E+0	9.572525E-1	9.452055E-1	8.646605E-1	9.149491E-1	9.627580E-1	1.000385E+0	1.026374E+0	9.175845E-1	8.608207E-1	1.015940E+0	1.071120E+0	1.125787E+0	8.765485E-1	9.563317E-1	9.349130E-1	1.028711E+0	9.623545E-1	1.000172E+0	9.362514E-1	9.467782E-1	9.021828E-1	9.907875E-1	1.020551E+0	9.452833E-1	8.560947E-1	1.037287E+0	1.001192E+0	1.058214E+0	9.105468E-1	9.764049E-1	9.350251E-1	9.560810E-1	9.124179E-1	1.000587E+0	9.293860E-1	8.647575E-1	8.921017E-1	1.050547E+0	1.105708E+0	9.723478E-1	9.151470E-1	1.064780E+0	1.052870E+0	1.005135E+0	9.373449E-1	1.011148E+0	9.376672E-1	1.082893E+0	8.950677E-1	8.375924E-1	1.072607E+0	9.795306E-1	9.588042E-1	1.091707E+0	1.019545E+0	1.000775E+0	9.039906E-1	1.131991E+0	9.565476E-1	1.025600E+0	8.464839E-1	1.054204E+0	9.390155E-1	8.982899E-1	8.557013E-1	1.028668E+0	9.496354E-1	9.232127E-1	9.580756E-1	1.072026E+0	1.019268E+0	1.053148E+0	1.083441E+0
2.868020E+2	1.263708E+0	1.123844E+0	1.366551E+0	1.259152E+0	1.217780E+0	1.249800E+0	1.420002E+0	1.308322E+0	1.239102E+0	1.304492E+0	1.412371E+0	1.342130E+0	1.335386E+0	1.423956E+0	1.267102E+0	1.262599E+0	1.256803E+0	1.432537E+0	1.268996E+0	1.311697E+0	1.198505E+0	1.209410E+0	1.336259E+0	1.414789E+0	1.241175E+0	1.217363E+0	1.225898E+0	1.262588E+0	1.191053E+0	1.285342E+0	1.201568E+0	1.291617E+0	1.194608E+0	1.262858E+0	1.230340E+0	1.262511E+0	1.089541E+0	1.180509E+0	1.306215E+0	1.338343E+0	1.248137E+0	1.288321E+0	1.262681E+0	1.241539E+0	1.358066E+0	1.353036E+0	1.188313E+0	1.184170E+0	1.286341E+0	1.382659E+0	1.244288E+0	1.218645E+0	1.116835E+0	1.132801E+0	1.377120E+0	1.354587E+0	1.244326E+0	1.284034E+0	1.244456E+0	1.326702E+0	1.280065E+0	1.370042E+0	1.189873E+0	1.217710E+0	1.272013E+0	1.238299E+0	1.187411E+0	1.137154E+0	1.111750E+0	1.164878E+0	1.223468E+0	1.281567E+0	1.253430E+0	1.255866E+0	1.381600E+0	1.295755E+0	1.309017E+0	1.309642E+0	1.237822E+0	1.162434E+0	1.336852E+0	1.295918E+0	1.256542E+0	1.237801E+0	1.156226E+0	1.248262E+0	1.297239E+0	1.351715E+0	1.271947E+0	1.296324E+0	1.282848E+0	1.331073E+0	1.303649E+0	1.389168E+0	1.157934E+0	1.238960E+0	1.291602E+0	1.312562E+0	1.177855E+0	1.176363E+0	1.176325E+0	1.296930E+0	1.310151E+0	1.328103E+0	1.196499E+0	1.214892E+0	1.353510E+0	1.270639E+0	1.342357E+0	1.277590E+0	1.271813E+0	1.192279E+0	1.348969E+0	1.320784E+0	1.174048E+0	1.252522E+0	1.186555E+0	1.256558E+0	1.305753E+0	1.399600E+0	1.264496E+0	1.169280E+0	1.350244E+0	1.222984E+0	1.307865E+0	1.162499E+0	1.261908E+0	1.162436E+0	1.284358E+0	1.227481E+0	1.206229E+0	1.182451E+0	1.267531E+0	1.226139E+0	1.253870E+0	1.323832E+0	1.232917E+0	1.155884E+0	1.296534E+0	1.313563E+0	1.275566E+0	1.161031E+0	1.281154E+0	1.269991E+0	1.335266E+0	1.096445E+0	1.123048E+0	1.313261E+0	1.188771E+0	1.246800E+0	1.371512E+0	1.362347E+0	1.274968E+0	1.169364E+0	1.348982E+0	1.301821E+0	1.452395E+0	1.154524E+0	1.358333E+0	1.116459E+0	1.109190E+0	1.155356E+0	1.366300E+0	1.223947E+0	1.153034E+0	1.231121E+0	1.481928E+0	1.386604E+0	1.258157E+0	1.411995E+0
2.870010E+2	1.127455E+0	9.950304E-1	1.269727E+0	1.050749E+0	9.800082E-1	1.065836E+0	1.200206E+0	1.190142E+0	9.416822E-1	1.070553E+0	1.205696E+0	1.127733E+0	1.106105E+0	1.249667E+0	1.127307E+0	1.087646E+0	1.149616E+0	1.167141E+0	1.079185E+0	1.088613E+0	1.043199E+0	1.011753E+0	1.168229E+0	1.143231E+0	9.996145E-1	1.109188E+0	1.143222E+0	1.054990E+0	1.037053E+0	1.153165E+0	1.066469E+0	1.060483E+0	1.080239E+0	1.048467E+0	1.052683E+0	1.060155E+0	9.872536E-1	9.940421E-1	1.165729E+0	1.146994E+0	1.103699E+0	1.049749E+0	1.044259E+0	1.082899E+0	1.114087E+0	1.128066E+0	1.030326E+0	9.571623E-1	1.085045E+0	1.073939E+0	1.059168E+0	1.005396E+0	9.595311E-1	1.038091E+0	1.094880E+0	1.122150E+0	1.038049E+0	1.074021E+0	1.103272E+0	1.141776E+0	1.055299E+0	1.155212E+0	1.009720E+0	1.061963E+0	1.065620E+0	1.091812E+0	1.024258E+0	9.919318E-1	1.041171E+0	1.073059E+0	1.124267E+0	1.085850E+0	9.808840E-1	1.069210E+0	1.141497E+0	1.083100E+0	1.140461E+0	1.142148E+0	1.071438E+0	1.022174E+0	1.127615E+0	1.206158E+0	1.056047E+0	1.001202E+0	1.021611E+0	1.155164E+0	1.111201E+0	1.102546E+0	1.064802E+0	1.087688E+0	1.027845E+0	1.054828E+0	1.157725E+0	1.157641E+0	1.004582E+0	1.065566E+0	1.066370E+0	1.136018E+0	1.125427E+0	1.111953E+0	1.052898E+0	1.054353E+0	1.139087E+0	1.162469E+0	9.831463E-1	1.041198E+0	1.089081E+0	1.143777E+0	1.164069E+0	1.110401E+0	1.052580E+0	1.058001E+0	1.150020E+0	1.138388E+0	1.061236E+0	1.012750E+0	1.029692E+0	1.070740E+0	1.159742E+0	1.167833E+0	1.033891E+0	1.074671E+0	1.100856E+0	1.146669E+0	1.151133E+0	1.124388E+0	1.050730E+0	1.052792E+0	1.047642E+0	1.163996E+0	1.062867E+0	1.096569E+0	1.013458E+0	1.005860E+0	1.155047E+0	1.178770E+0	1.005319E+0	1.008447E+0	1.115476E+0	1.010190E+0	1.099843E+0	1.070854E+0	1.136421E+0	1.144969E+0	1.160452E+0	1.119594E+0	1.068020E+0	1.119504E+0	1.078465E+0	1.071053E+0	1.175999E+0	1.130375E+0	1.099531E+0	1.115426E+0	1.128315E+0	1.071638E+0	1.216965E+0	9.723165E-1	1.121237E+0	1.019471E+0	8.926799E-1	9.784375E-1	1.130594E+0	1.053339E+0	1.047880E+0	1.092448E+0	1.199126E+0	1.116231E+0	1.130028E+0	1.135593E+0
2.872050E+2	8.389930E-1	7.505223E-1	8.799121E-1	8.298668E-1	8.006193E-1	7.690100E-1	8.722752E-1	9.093164E-1	7.795595E-1	9.179348E-1	9.684905E-1	7.814974E-1	8.838078E-1	9.562443E-1	8.767939E-1	8.459461E-1	8.961617E-1	8.797151E-1	8.416299E-1	9.213005E-1	7.882028E-1	8.369407E-1	9.244654E-1	8.638484E-1	8.539858E-1	7.866807E-1	8.726446E-1	8.375043E-1	9.101670E-1	9.044227E-1	7.789788E-1	9.153252E-1	9.016072E-1	8.701628E-1	8.219573E-1	8.719983E-1	7.473119E-1	7.766592E-1	9.297574E-1	8.918620E-1	7.792685E-1	7.839412E-1	8.120418E-1	8.670044E-1	8.261704E-1	9.000129E-1	7.938889E-1	7.639237E-1	8.755552E-1	9.184382E-1	8.517870E-1	8.234086E-1	7.483839E-1	7.796940E-1	8.474702E-1	8.296568E-1	8.190245E-1	8.605655E-1	9.228718E-1	8.671900E-1	9.423221E-1	9.039176E-1	7.754152E-1	7.595148E-1	8.446445E-1	8.143125E-1	8.399766E-1	6.778467E-1	7.278436E-1	7.897075E-1	8.832004E-1	8.395914E-1	7.935091E-1	7.944685E-1	8.703754E-1	8.848615E-1	9.099235E-1	8.184622E-1	8.257206E-1	7.911562E-1	9.161163E-1	8.722916E-1	8.311531E-1	8.006306E-1	7.504027E-1	8.031037E-1	9.561701E-1	9.397115E-1	8.000555E-1	8.336961E-1	7.893296E-1	8.783071E-1	8.905583E-1	9.686794E-1	7.380692E-1	8.325665E-1	9.398220E-1	8.217899E-1	7.890143E-1	8.025491E-1	7.904840E-1	8.621043E-1	9.414367E-1	8.417510E-1	8.331324E-1	8.675019E-1	8.617843E-1	8.981260E-1	8.895272E-1	8.913633E-1	8.354866E-1	7.670645E-1	8.176308E-1	9.199363E-1	7.817932E-1	8.551855E-1	8.022417E-1	7.549492E-1	8.687635E-1	9.132301E-1	8.475890E-1	8.985047E-1	9.003667E-1	9.117613E-1	9.115594E-1	8.936086E-1	8.230354E-1	8.487306E-1	8.086915E-1	9.359300E-1	8.631024E-1	7.530417E-1	7.406752E-1	8.662477E-1	8.370020E-1	7.880524E-1	7.617658E-1	8.644663E-1	8.933759E-1	9.132941E-1	8.419624E-1	9.221195E-1	9.211470E-1	7.752448E-1	8.686845E-1	8.730765E-1	7.768338E-1	8.159100E-1	7.839379E-1	8.193415E-1	9.032192E-1	8.919607E-1	8.113953E-1	7.907223E-1	9.211321E-1	8.308867E-1	8.820751E-1	8.958095E-1	8.431775E-1	8.265983E-1	7.345048E-1	8.479609E-1	8.745022E-1	8.002149E-1	7.974618E-1	8.462766E-1	9.131464E-1	8.589074E-1	7.114725E-1	8.748372E-1
2.874030E+2	5.493048E-1	5.537221E-1	5.693178E-1	5.752917E-1	5.034057E-1	5.906885E-1	6.454291E-1	6.167904E-1	5.229619E-1	5.625687E-1	6.150304E-1	6.373347E-1	6.405604E-1	6.562031E-1	5.547064E-1	6.032361E-1	6.092114E-1	5.797017E-1	5.935954E-1	5.742842E-1	5.741333E-1	5.618094E-1	5.777542E-1	6.090521E-1	6.078009E-1	5.834708E-1	5.945512E-1	5.915976E-1	5.631269E-1	6.078057E-1	5.314785E-1	6.093794E-1	6.086045E-1	5.825407E-1	5.646990E-1	5.631377E-1	5.723731E-1	5.438182E-1	6.301275E-1	6.367303E-1	5.426139E-1	5.747811E-1	6.396030E-1	5.914714E-1	5.856623E-1	6.822318E-1	5.846904E-1	5.622430E-1	5.665874E-1	6.463081E-1	6.221442E-1	6.001113E-1	5.625747E-1	5.336511E-1	5.712363E-1	5.972193E-1	5.768231E-1	5.851380E-1	6.281806E-1	5.578591E-1	5.914966E-1	5.944815E-1	5.390288E-1	5.314209E-1	5.698258E-1	5.677631E-1	5.723576E-1	5.213663E-1	5.492579E-1	5.705295E-1	5.728002E-1	5.825794E-1	5.641149E-1	5.281164E-1	5.636407E-1	6.445731E-1	6.250113E-1	6.458298E-1	5.546581E-1	6.034547E-1	6.062204E-1	5.986321E-1	5.553394E-1	5.928536E-1	5.554091E-1	5.741043E-1	6.633325E-1	6.315281E-1	5.563557E-1	6.035154E-1	5.848865E-1	6.387427E-1	5.954943E-1	6.198300E-1	5.180889E-1	5.497156E-1	6.251933E-1	6.230393E-1	5.028444E-1	4.942973E-1	5.571105E-1	5.853049E-1	6.282022E-1	6.149279E-1	5.619957E-1	5.791230E-1	6.187352E-1	5.832773E-1	6.335799E-1	6.278828E-1	5.670624E-1	5.768369E-1	5.895668E-1	5.996814E-1	5.644488E-1	5.902949E-1	5.535019E-1	5.346083E-1	5.809135E-1	6.415012E-1	5.794952E-1	6.114182E-1	5.922979E-1	6.172303E-1	6.249652E-1	6.278945E-1	5.328127E-1	5.370562E-1	5.630414E-1	5.585603E-1	5.693311E-1	5.778419E-1	5.476588E-1	6.025339E-1	5.996025E-1	6.144006E-1	5.852171E-1	5.718950E-1	5.940253E-1	5.672400E-1	5.863639E-1	6.047429E-1	6.073582E-1	5.679426E-1	6.113871E-1	6.022570E-1	5.372353E-1	5.814258E-1	5.519549E-1	5.914394E-1	6.374632E-1	6.251946E-1	5.964560E-1	5.868391E-1	6.661389E-1	5.866122E-1	6.139118E-1	6.491754E-1	6.358744E-1	5.378397E-1	4.966810E-1	6.422943E-1	5.903803E-1	5.526643E-1	5.210258E-1	5.958076E-1	7.018407E-1	5.829378E-1	5.292445E-1	4.993479E-1
2.876020E+2	4.400565E-1	4.225226E-1	5.253063E-1	5.141438E-1	4.163638E-1	4.608979E-1	4.844016E-1	4.705282E-1	4.133255E-1	4.422580E-1	5.657112E-1	5.091895E-1	5.218471E-1	5.326563E-1	4.149119E-1	4.333385E-1	4.662952E-1	4.695570E-1	4.748179E-1	4.515874E-1	4.608012E-1	4.227543E-1	4.866387E-1	4.425406E-1	4.644843E-1	4.722613E-1	4.742941E-1	4.655547E-1	4.731129E-1	5.120553E-1	4.590653E-1	4.619891E-1	4.430429E-1	4.711004E-1	4.020381E-1	4.661009E-1	4.194219E-1	4.278817E-1	5.115928E-1	4.662757E-1	4.581727E-1	4.582177E-1	4.453226E-1	4.829283E-1	4.769702E-1	4.911616E-1	4.800924E-1	4.721908E-1	4.413615E-1	4.965225E-1	4.428834E-1	4.337546E-1	4.327191E-1	4.451160E-1	4.895663E-1	4.915665E-1	4.238532E-1	4.393918E-1	4.959617E-1	4.771644E-1	4.749515E-1	5.373252E-1	4.307284E-1	4.319446E-1	4.666294E-1	4.429398E-1	4.890202E-1	4.222993E-1	4.401821E-1	4.490932E-1	4.288001E-1	4.761180E-1	4.289773E-1	4.316422E-1	4.751804E-1	4.667601E-1	4.923427E-1	4.495637E-1	4.830355E-1	4.714448E-1	4.535335E-1	5.023034E-1	4.991158E-1	4.331180E-1	4.099060E-1	4.638843E-1	5.048565E-1	4.982014E-1	4.710607E-1	4.844562E-1	5.035498E-1	4.507597E-1	4.570810E-1	5.108150E-1	4.059843E-1	4.662698E-1	4.603328E-1	5.486459E-1	4.329401E-1	4.609413E-1	4.357579E-1	4.464016E-1	4.952794E-1	5.052087E-1	4.219838E-1	4.577594E-1	4.724558E-1	4.806351E-1	5.001364E-1	5.125438E-1	4.943414E-1	4.593434E-1	4.803884E-1	5.127254E-1	4.754403E-1	4.738344E-1	4.470584E-1	4.493145E-1	4.411614E-1	4.576847E-1	4.113691E-1	3.939290E-1	4.822739E-1	4.991797E-1	5.152529E-1	4.796872E-1	4.089365E-1	4.598984E-1	4.781808E-1	4.409993E-1	4.236192E-1	4.083687E-1	4.196380E-1	4.205195E-1	4.837430E-1	4.682788E-1	4.416383E-1	4.808985E-1	5.529854E-1	4.461214E-1	4.813857E-1	4.642081E-1	4.905991E-1	4.621546E-1	4.821232E-1	4.436992E-1	4.501075E-1	4.802289E-1	4.757645E-1	4.542447E-1	5.075124E-1	5.001878E-1	4.558744E-1	5.134848E-1	5.325122E-1	4.574285E-1	4.741649E-1	5.042154E-1	4.782250E-1	4.121971E-1	4.002060E-1	4.631652E-1	4.833576E-1	4.790693E-1	4.039476E-1	4.958341E-1	4.889457E-1	5.102173E-1	4.352830E-1	4.576270E-1
2.878020E+2	4.155075E-1	4.201373E-1	4.888402E-1	4.617309E-1	4.556396E-1	4.360686E-1	4.561930E-1	4.822287E-1	4.541474E-1	4.767911E-1	4.623738E-1	4.685293E-1	4.787836E-1	5.150073E-1	4.943150E-1	4.151358E-1	4.796930E-1	4.989294E-1	4.922849E-1	4.639813E-1	4.471600E-1	4.177874E-1	5.032044E-1	5.118275E-1	4.390561E-1	4.439531E-1	4.492409E-1	4.717339E-1	4.926337E-1	4.974845E-1	4.385306E-1	4.463569E-1	4.430424E-1	4.509351E-1	4.677949E-1	4.684682E-1	4.184660E-1	4.501027E-1	4.863493E-1	5.289590E-1	4.437300E-1	4.712910E-1	4.614167E-1	4.519160E-1	4.492198E-1	4.562343E-1	4.397776E-1	4.271652E-1	4.811528E-1	4.828009E-1	4.604572E-1	4.024935E-1	4.116041E-1	4.111437E-1	4.715508E-1	4.593139E-1	4.168999E-1	4.302106E-1	4.634661E-1	4.771642E-1	4.238149E-1	4.624292E-1	4.130254E-1	4.319452E-1	3.959619E-1	4.367507E-1	4.819775E-1	4.346823E-1	4.359045E-1	3.789960E-1	5.066669E-1	4.567608E-1	4.539609E-1	4.536636E-1	4.751812E-1	3.994799E-1	4.771183E-1	4.947766E-1	4.687104E-1	4.353493E-1	4.659761E-1	5.165337E-1	4.545618E-1	4.847617E-1	4.504889E-1	4.553231E-1	5.048563E-1	5.288021E-1	4.345057E-1	4.663137E-1	4.793682E-1	4.725381E-1	4.721030E-1	5.128918E-1	4.038686E-1	4.673533E-1	5.009680E-1	4.875784E-1	4.274792E-1	4.735932E-1	4.482040E-1	4.353294E-1	4.398001E-1	4.303037E-1	4.664320E-1	4.599854E-1	4.409485E-1	4.921671E-1	4.979489E-1	4.977294E-1	4.430090E-1	4.794850E-1	4.609787E-1	4.968183E-1	4.185175E-1	4.532820E-1	4.235290E-1	4.411916E-1	4.568054E-1	4.828038E-1	4.409053E-1	4.700493E-1	4.627145E-1	5.146814E-1	4.424847E-1	4.394596E-1	4.148357E-1	4.395944E-1	5.072113E-1	4.844973E-1	4.529968E-1	4.507371E-1	4.206224E-1	4.215539E-1	4.951015E-1	5.106322E-1	3.671899E-1	4.855069E-1	4.733195E-1	4.864939E-1	4.768216E-1	5.719513E-1	4.711402E-1	4.236865E-1	4.771997E-1	4.691615E-1	4.134229E-1	4.703553E-1	4.348258E-1	4.689849E-1	5.121947E-1	5.156529E-1	4.489029E-1	4.261057E-1	4.981869E-1	4.738702E-1	5.434090E-1	4.971693E-1	4.931213E-1	4.562823E-1	4.428342E-1	4.996541E-1	4.629721E-1	4.300052E-1	5.025973E-1	4.592852E-1	4.285711E-1	5.083526E-1	4.666034E-1	4.784877E-1
2.880040E+2	5.014324E-1	3.843550E-1	4.963847E-1	4.804499E-1	4.471471E-1	3.830238E-1	4.691220E-1	4.716982E-1	4.331536E-1	4.066093E-1	4.647224E-1	5.141187E-1	4.869311E-1	4.973565E-1	4.976701E-1	4.313164E-1	4.618287E-1	4.947331E-1	5.691412E-1	4.441513E-1	4.513575E-1	4.167944E-1	5.174051E-1	4.816536E-1	4.656397E-1	4.752941E-1	5.244012E-1	4.618476E-1	5.121558E-1	5.068518E-1	4.623073E-1	4.954875E-1	4.397753E-1	4.413832E-1	5.197074E-1	4.365170E-1	4.719987E-1	4.356100E-1	5.291534E-1	4.926679E-1	4.259520E-1	4.495029E-1	4.418744E-1	4.769646E-1	4.723458E-1	5.188977E-1	4.615702E-1	4.524912E-1	4.811526E-1	4.656500E-1	4.885769E-1	4.382212E-1	4.084372E-1	4.111438E-1	4.499324E-1	5.026879E-1	5.014972E-1	4.439825E-1	4.645865E-1	4.345753E-1	4.916008E-1	4.890365E-1	4.494725E-1	4.319448E-1	4.464386E-1	4.718247E-1	4.538079E-1	3.840234E-1	3.974066E-1	4.273726E-1	4.789324E-1	4.212745E-1	4.085358E-1	4.589074E-1	4.430145E-1	4.751703E-1	4.608060E-1	4.752532E-1	4.698133E-1	4.105972E-1	4.704995E-1	4.815050E-1	4.333449E-1	4.259117E-1	4.158450E-1	4.114500E-1	4.704056E-1	4.588587E-1	4.333983E-1	4.447698E-1	4.343029E-1	5.229733E-1	4.656652E-1	5.128920E-1	4.451148E-1	4.630184E-1	4.533671E-1	4.520478E-1	4.351251E-1	4.528897E-1	4.388697E-1	4.313036E-1	4.617609E-1	4.988788E-1	4.619872E-1	4.354905E-1	4.499504E-1	4.887072E-1	5.034190E-1	4.744504E-1	4.547723E-1	4.761287E-1	5.155686E-1	5.084835E-1	4.454267E-1	4.338725E-1	4.033616E-1	4.340839E-1	4.703634E-1	5.022119E-1	4.545373E-1	4.493883E-1	4.492667E-1	4.908335E-1	4.469631E-1	4.786297E-1	4.431506E-1	4.223346E-1	4.815304E-1	4.750928E-1	4.576975E-1	3.740159E-1	4.422874E-1	4.349982E-1	4.769268E-1	4.396894E-1	4.203674E-1	4.751392E-1	4.588340E-1	4.391994E-1	4.574236E-1	4.946566E-1	4.857348E-1	4.728403E-1	4.956652E-1	4.680036E-1	3.927875E-1	4.370346E-1	3.950245E-1	4.258984E-1	4.747319E-1	4.898786E-1	4.767873E-1	4.670981E-1	4.932827E-1	4.339396E-1	4.867540E-1	4.911287E-1	4.906376E-1	4.077889E-1	3.766479E-1	4.830688E-1	4.591493E-1	4.132792E-1	3.551643E-1	4.420861E-1	5.000664E-1	5.251346E-1	4.324359E-1	4.263366E-1
2.882080E+2	5.186177E-1	4.177517E-1	5.957244E-1	5.266225E-1	4.651930E-1	4.270401E-1	5.772564E-1	5.419049E-1	4.413180E-1	4.990717E-1	5.751051E-1	5.067258E-1	4.927507E-1	5.348631E-1	6.162163E-1	4.990729E-1	5.478023E-1	5.545258E-1	5.027658E-1	4.627424E-1	4.450621E-1	4.912878E-1	5.836709E-1	5.352953E-1	4.991579E-1	5.308976E-1	5.381807E-1	5.137478E-1	4.991407E-1	5.536861E-1	5.541738E-1	4.787386E-1	5.247355E-1	5.273516E-1	5.970012E-1	4.980521E-1	4.825134E-1	4.723240E-1	6.048838E-1	5.355575E-1	4.781723E-1	4.756483E-1	5.499356E-1	5.377965E-1	5.336288E-1	4.993793E-1	5.454662E-1	4.609341E-1	5.303067E-1	5.365416E-1	5.541889E-1	4.694830E-1	4.802268E-1	4.574700E-1	5.640289E-1	5.516223E-1	4.875907E-1	5.300533E-1	5.699142E-1	5.657045E-1	5.141969E-1	5.166296E-1	5.390290E-1	4.902239E-1	5.395390E-1	4.821401E-1	5.747056E-1	4.999762E-1	4.733330E-1	4.668642E-1	5.184004E-1	5.202079E-1	4.823500E-1	4.977062E-1	5.303240E-1	5.268318E-1	5.575895E-1	5.327968E-1	5.138880E-1	4.889783E-1	5.066919E-1	4.618013E-1	5.553398E-1	4.799576E-1	4.613761E-1	5.248794E-1	5.553851E-1	5.309869E-1	4.411516E-1	5.230085E-1	5.453172E-1	5.275579E-1	5.096566E-1	5.461149E-1	4.916490E-1	5.009486E-1	5.009681E-1	5.031231E-1	5.104903E-1	5.299533E-1	4.264228E-1	4.594873E-1	5.010595E-1	5.421339E-1	4.942121E-1	5.134307E-1	4.949597E-1	5.013934E-1	5.220125E-1	5.675679E-1	4.676055E-1	5.220072E-1	5.143554E-1	5.371156E-1	4.795804E-1	4.304472E-1	5.165275E-1	4.513457E-1	4.964366E-1	5.787069E-1	4.579449E-1	5.189854E-1	5.580678E-1	4.920253E-1	4.738314E-1	5.125047E-1	5.021382E-1	4.659898E-1	5.183774E-1	5.185895E-1	5.199761E-1	4.152397E-1	4.560750E-1	4.587834E-1	5.632537E-1	5.593394E-1	4.841804E-1	4.912656E-1	5.409151E-1	4.634233E-1	5.430035E-1	5.719505E-1	5.270862E-1	4.952801E-1	5.498325E-1	5.108262E-1	4.512542E-1	4.962720E-1	4.848609E-1	4.678510E-1	5.168785E-1	5.169415E-1	5.197749E-1	5.199573E-1	5.128981E-1	4.867887E-1	5.119342E-1	5.203226E-1	5.167063E-1	4.673034E-1	4.304946E-1	5.140293E-1	5.330461E-1	4.879900E-1	4.386383E-1	5.001342E-1	5.270761E-1	5.195396E-1	4.950766E-1	5.462838E-1
2.884070E+2	6.524139E-1	6.491403E-1	7.327890E-1	6.626458E-1	7.008400E-1	6.459912E-1	7.735445E-1	8.227298E-1	6.862511E-1	6.828820E-1	6.866620E-1	7.999795E-1	7.534553E-1	7.279035E-1	7.906797E-1	7.023423E-1	6.985337E-1	7.076796E-1	8.090241E-1	6.585592E-1	6.864150E-1	6.859660E-1	7.481519E-1	6.984542E-1	6.632800E-1	7.250094E-1	7.749361E-1	7.744827E-1	7.323089E-1	7.618385E-1	8.265335E-1	7.031732E-1	7.120807E-1	7.863175E-1	7.538933E-1	6.921258E-1	6.440696E-1	6.500943E-1	7.651257E-1	7.521994E-1	6.892734E-1	7.065952E-1	7.913492E-1	7.024012E-1	7.498557E-1	7.551685E-1	7.786351E-1	6.269686E-1	7.503301E-1	7.595047E-1	7.908616E-1	7.541868E-1	6.227512E-1	6.365982E-1	8.030322E-1	7.073216E-1	6.788027E-1	6.826852E-1	8.197862E-1	7.259739E-1	7.401511E-1	7.294903E-1	7.879121E-1	7.062591E-1	6.629271E-1	6.874271E-1	8.282387E-1	6.271866E-1	6.914853E-1	6.662958E-1	7.520003E-1	7.094728E-1	6.810825E-1	6.864595E-1	7.612369E-1	7.070489E-1	7.794290E-1	7.496148E-1	7.684216E-1	7.261829E-1	7.430725E-1	7.825309E-1	7.876593E-1	7.153581E-1	6.771557E-1	6.907435E-1	7.483139E-1	7.506485E-1	6.593745E-1	7.237081E-1	7.123887E-1	6.949091E-1	6.931328E-1	7.755672E-1	7.486447E-1	6.895152E-1	7.145898E-1	6.929918E-1	7.475082E-1	6.656763E-1	6.369758E-1	7.111225E-1	7.992683E-1	7.394173E-1	6.964530E-1	6.492686E-1	8.055229E-1	7.839503E-1	7.615533E-1	7.442793E-1	7.691838E-1	7.413274E-1	7.290743E-1	7.014849E-1	8.035274E-1	7.215991E-1	6.341738E-1	7.569810E-1	7.748985E-1	7.431139E-1	7.078620E-1	7.179878E-1	7.426658E-1	7.281255E-1	6.854186E-1	7.496365E-1	6.920803E-1	6.071064E-1	7.014987E-1	7.419543E-1	6.868394E-1	6.442579E-1	6.353045E-1	6.873357E-1	7.325007E-1	7.435807E-1	6.766822E-1	6.617393E-1	7.159382E-1	7.541088E-1	7.301384E-1	7.312255E-1	7.703344E-1	7.047192E-1	7.554241E-1	7.064177E-1	6.323867E-1	7.307551E-1	6.793177E-1	7.082252E-1	7.264387E-1	7.334476E-1	6.940512E-1	7.206034E-1	7.629871E-1	7.122725E-1	7.511405E-1	7.266890E-1	7.314571E-1	6.502565E-1	6.425170E-1	7.020045E-1	7.165152E-1	7.210426E-1	6.706263E-1	7.387794E-1	7.685691E-1	7.619454E-1	6.630675E-1	7.235985E-1
2.886010E+2	9.764733E-1	9.890664E-1	1.098711E+0	9.958408E-1	9.524099E-1	1.011663E+0	1.085018E+0	1.045049E+0	9.066910E-1	1.007055E+0	1.130542E+0	1.100626E+0	1.068862E+0	1.078687E+0	1.049021E+0	9.956174E-1	1.060292E+0	1.058044E+0	1.119942E+0	1.047716E+0	9.623974E-1	1.025659E+0	1.116162E+0	1.051593E+0	9.256435E-1	9.848353E-1	1.014197E+0	1.035218E+0	1.009940E+0	1.019947E+0	1.037287E+0	1.020284E+0	1.000726E+0	9.794811E-1	1.018073E+0	9.678517E-1	9.059989E-1	9.727861E-1	1.094388E+0	1.075514E+0	9.648169E-1	9.909219E-1	1.068400E+0	1.017296E+0	9.660822E-1	1.045884E+0	1.039042E+0	9.384012E-1	1.030038E+0	1.000763E+0	1.070884E+0	8.903985E-1	8.349539E-1	9.886758E-1	1.085273E+0	1.040964E+0	9.383870E-1	1.041888E+0	1.122322E+0	1.055478E+0	1.018433E+0	1.066519E+0	1.051373E+0	8.881313E-1	9.220416E-1	9.824630E-1	1.148677E+0	8.793565E-1	9.267471E-1	9.832161E-1	1.033600E+0	1.003047E+0	9.967829E-1	9.800767E-1	1.046145E+0	9.425312E-1	1.036067E+0	1.026031E+0	1.074744E+0	8.922266E-1	1.023562E+0	1.082463E+0	1.144095E+0	9.423512E-1	9.493549E-1	1.004281E+0	1.122686E+0	1.031510E+0	1.011631E+0	9.924414E-1	1.114679E+0	1.140797E+0	1.005365E+0	1.083924E+0	1.049001E+0	9.994592E-1	1.037344E+0	9.850106E-1	1.100305E+0	9.164194E-1	9.336177E-1	1.013085E+0	1.095164E+0	1.048530E+0	9.431429E-1	9.599161E-1	1.056449E+0	1.023835E+0	1.033908E+0	1.110401E+0	1.072899E+0	9.998135E-1	9.801855E-1	9.973490E-1	1.080900E+0	9.853477E-1	1.033053E+0	1.029109E+0	1.112810E+0	1.066219E+0	9.691393E-1	1.009425E+0	1.034841E+0	1.081085E+0	1.021270E+0	1.080985E+0	1.109718E+0	9.756339E-1	9.761800E-1	1.100514E+0	1.018213E+0	9.041941E-1	9.011940E-1	1.034817E+0	1.082351E+0	1.017823E+0	9.532040E-1	9.738921E-1	1.047881E+0	1.030952E+0	1.018828E+0	1.143463E+0	1.080475E+0	9.515582E-1	1.089049E+0	1.042050E+0	9.178416E-1	9.491954E-1	9.124379E-1	1.052913E+0	1.055415E+0	1.062073E+0	1.001937E+0	9.665591E-1	1.084181E+0	9.577216E-1	1.047001E+0	1.111237E+0	1.060412E+0	9.996328E-1	9.151169E-1	1.068002E+0	1.059244E+0	9.741684E-1	9.210445E-1	9.484012E-1	1.079969E+0	1.017403E+0	1.010441E+0	1.172098E+0
2.887970E+2	1.029256E+0	9.401652E-1	1.106256E+0	1.051997E+0	9.481646E-1	9.710326E-1	1.110878E+0	1.091854E+0	9.743408E-1	9.858888E-1	1.138762E+0	1.052573E+0	1.128219E+0	1.211059E+0	1.141845E+0	1.032024E+0	1.043545E+0	1.074828E+0	1.124599E+0	1.022928E+0	9.959771E-1	1.014733E+0	1.101963E+0	1.137642E+0	9.822773E-1	1.039429E+0	1.098126E+0	1.085882E+0	1.025124E+0	1.106332E+0	1.139963E+0	1.019169E+0	1.022510E+0	9.211062E-1	1.112672E+0	9.678526E-1	8.945269E-1	9.582948E-1	1.143777E+0	1.066715E+0	9.825936E-1	9.843852E-1	1.135077E+0	1.037573E+0	1.016959E+0	1.042803E+0	1.073908E+0	9.449673E-1	1.078022E+0	1.107099E+0	1.054482E+0	1.000931E+0	9.162453E-1	9.639686E-1	1.084072E+0	1.077665E+0	9.766298E-1	9.764744E-1	1.076381E+0	1.111516E+0	1.064813E+0	1.050752E+0	1.122185E+0	9.624873E-1	9.927091E-1	1.044358E+0	1.131071E+0	9.615368E-1	1.010159E+0	1.038505E+0	1.093333E+0	1.006273E+0	1.031987E+0	9.968544E-1	1.172516E+0	1.073488E+0	1.069778E+0	1.037336E+0	1.090170E+0	9.685450E-1	1.127615E+0	1.152520E+0	1.115453E+0	1.045638E+0	9.800383E-1	9.978604E-1	1.095125E+0	1.097081E+0	9.662142E-1	1.082019E+0	1.080605E+0	1.077752E+0	1.121245E+0	1.119225E+0	1.166395E+0	1.014631E+0	1.025735E+0	1.053852E+0	1.126519E+0	1.010736E+0	1.043563E+0	1.055360E+0	1.172606E+0	1.048530E+0	9.975918E-1	1.002227E+0	1.155469E+0	1.058433E+0	1.121411E+0	1.069132E+0	1.140273E+0	1.022193E+0	1.019006E+0	1.173383E+0	1.128510E+0	1.024167E+0	1.017367E+0	9.570145E-1	1.136797E+0	1.105038E+0	1.008898E+0	9.572273E-1	1.100856E+0	1.094202E+0	1.085083E+0	1.104275E+0	1.092023E+0	9.553295E-1	9.605472E-1	1.107568E+0	1.111046E+0	9.477077E-1	9.681587E-1	9.438100E-1	1.097118E+0	1.095121E+0	9.861743E-1	1.048762E+0	1.093748E+0	1.100163E+0	1.074739E+0	1.100131E+0	1.130340E+0	1.126803E+0	1.064428E+0	1.112650E+0	9.350376E-1	1.002263E+0	1.037526E+0	1.137951E+0	1.104586E+0	1.100735E+0	1.073970E+0	1.061489E+0	1.182255E+0	1.082209E+0	1.106174E+0	1.140430E+0	1.074067E+0	9.346066E-1	9.274560E-1	1.105598E+0	1.111482E+0	9.284489E-1	9.557343E-1	1.037624E+0	1.072024E+0	1.067749E+0	1.047457E+0	1.078227E+0
2.890110E+2	9.126440E-1	9.222739E-1	1.023264E+0	9.708825E-1	8.791685E-1	9.168585E-1	1.002743E+0	1.093023E+0	9.218547E-1	9.613805E-1	1.021334E+0	9.613919E-1	1.010668E+0	1.038976E+0	1.047903E+0	8.793189E-1	8.995106E-1	1.002448E+0	1.004656E+0	1.050194E+0	8.983863E-1	9.491779E-1	1.008481E+0	1.041536E+0	8.447389E-1	9.241756E-1	1.044261E+0	9.598395E-1	9.351108E-1	9.720732E-1	1.084843E+0	9.700387E-1	9.756735E-1	9.221684E-1	1.003077E+0	8.861989E-1	8.562893E-1	8.829353E-1	1.064755E+0	1.031524E+0	8.392658E-1	9.277376E-1	9.913779E-1	9.481138E-1	9.209867E-1	9.544585E-1	1.004177E+0	9.036940E-1	9.364116E-1	1.017913E+0	1.072057E+0	8.680681E-1	8.719046E-1	9.341145E-1	1.019216E+0	9.052830E-1	8.225007E-1	9.638493E-1	1.014754E+0	9.826288E-1	9.827561E-1	1.040897E+0	1.007637E+0	9.042070E-1	9.680317E-1	9.453254E-1	1.023084E+0	8.478351E-1	8.411976E-1	8.904108E-1	9.535995E-1	9.428263E-1	8.661877E-1	9.035254E-1	1.088651E+0	9.677614E-1	9.642953E-1	9.499913E-1	9.755749E-1	8.808812E-1	9.477853E-1	9.631475E-1	1.029526E+0	9.315419E-1	8.582914E-1	9.272339E-1	9.860283E-1	9.615684E-1	9.905841E-1	9.448178E-1	1.021250E+0	9.986624E-1	1.011803E+0	1.083925E+0	9.432424E-1	9.105932E-1	9.189246E-1	9.228314E-1	1.032585E+0	9.624271E-1	9.481393E-1	9.496722E-1	1.031593E+0	1.014770E+0	9.320299E-1	9.320804E-1	1.037320E+0	9.903892E-1	9.967190E-1	9.601426E-1	1.057927E+0	9.494595E-1	1.002022E+0	9.931070E-1	1.079864E+0	9.613705E-1	8.605039E-1	8.869525E-1	1.053364E+0	1.022833E+0	9.623235E-1	9.148168E-1	1.111858E+0	9.213001E-1	1.038063E+0	9.804161E-1	1.054269E+0	8.812185E-1	9.270498E-1	9.441595E-1	1.015863E+0	8.538101E-1	8.460463E-1	9.438095E-1	9.948885E-1	1.018883E+0	8.553579E-1	9.347291E-1	9.078612E-1	9.190619E-1	9.754673E-1	1.040404E+0	1.018446E+0	9.686546E-1	9.659400E-1	9.899695E-1	8.868882E-1	1.051628E+0	9.056145E-1	9.463312E-1	1.042537E+0	1.053053E+0	9.740531E-1	9.449837E-1	9.395212E-1	9.307112E-1	9.853113E-1	9.914431E-1	1.002069E+0	9.015437E-1	8.500521E-1	9.684864E-1	1.071986E+0	9.273338E-1	8.798492E-1	9.602264E-1	9.560444E-1	9.912976E-1	8.908521E-1	1.015644E+0
2.892050E+2	7.518409E-1	7.755694E-1	8.811697E-1	7.387690E-1	6.785495E-1	7.362804E-1	8.393647E-1	8.110287E-1	7.189086E-1	7.586335E-1	8.451908E-1	8.344805E-1	7.918625E-1	8.602752E-1	8.085747E-1	7.225691E-1	7.733424E-1	8.020880E-1	8.066962E-1	7.936488E-1	7.357354E-1	7.684061E-1	9.007981E-1	7.856208E-1	7.476524E-1	7.796031E-1	8.538555E-1	7.831336E-1	7.887023E-1	7.972244E-1	7.389897E-1	8.148319E-1	7.817920E-1	7.438640E-1	8.081131E-1	6.873929E-1	6.803948E-1	7.128934E-1	8.529289E-1	7.785926E-1	6.859407E-1	7.577955E-1	7.901999E-1	7.715828E-1	7.799181E-1	7.952317E-1	7.437694E-1	7.385976E-1	7.433077E-1	7.938066E-1	8.096082E-1	6.827323E-1	6.713150E-1	7.004244E-1	7.621972E-1	8.040781E-1	7.460152E-1	7.389181E-1	8.276290E-1	7.932198E-1	6.973388E-1	8.408467E-1	8.503933E-1	7.444424E-1	7.986533E-1	7.586079E-1	8.411500E-1	7.127441E-1	6.529875E-1	7.363937E-1	7.808005E-1	7.653912E-1	7.265065E-1	6.717785E-1	8.359106E-1	7.743299E-1	7.696413E-1	7.413942E-1	8.719991E-1	7.158693E-1	7.724790E-1	7.475025E-1	8.163021E-1	6.949403E-1	7.009119E-1	7.742110E-1	8.321462E-1	7.801555E-1	7.136526E-1	7.157700E-1	8.157085E-1	7.889011E-1	8.047213E-1	8.814674E-1	8.216191E-1	6.754268E-1	7.714785E-1	7.318533E-1	8.064905E-1	6.518738E-1	6.774270E-1	7.564170E-1	9.333464E-1	7.721217E-1	7.020093E-1	7.327768E-1	8.156498E-1	7.412772E-1	7.823354E-1	7.929541E-1	8.600841E-1	7.323765E-1	7.266481E-1	8.244962E-1	8.180166E-1	7.318744E-1	7.719885E-1	7.102718E-1	8.239176E-1	8.732701E-1	7.703404E-1	7.506121E-1	8.539119E-1	7.794007E-1	7.324373E-1	8.046847E-1	8.348320E-1	7.289331E-1	7.696104E-1	8.042618E-1	7.831960E-1	7.255597E-1	7.190105E-1	7.007797E-1	8.074684E-1	7.372270E-1	7.128423E-1	7.815326E-1	7.581855E-1	7.575699E-1	7.598062E-1	8.319422E-1	8.080377E-1	7.549420E-1	7.800457E-1	7.793314E-1	6.908521E-1	7.566719E-1	7.827994E-1	7.240994E-1	8.610739E-1	8.069056E-1	7.672463E-1	7.777784E-1	8.304135E-1	7.052262E-1	8.392694E-1	8.193031E-1	8.034564E-1	6.778101E-1	6.582219E-1	7.384932E-1	8.502948E-1	7.110073E-1	7.280809E-1	8.065036E-1	7.892230E-1	7.600809E-1	6.801518E-1	9.634943E-1
2.894050E+2	5.493054E-1	5.799623E-1	6.208739E-1	5.852746E-1	5.076510E-1	5.850463E-1	6.560073E-1	6.331725E-1	5.626180E-1	5.603415E-1	6.068103E-1	6.434948E-1	6.359057E-1	5.911197E-1	6.486485E-1	6.153725E-1	6.293093E-1	5.954366E-1	6.180491E-1	6.511232E-1	5.972189E-1	5.528704E-1	6.452035E-1	5.665863E-1	6.089574E-1	5.935805E-1	6.045728E-1	6.299044E-1	6.097605E-1	6.223761E-1	6.201027E-1	6.216618E-1	5.868207E-1	5.602537E-1	6.616035E-1	5.477541E-1	5.312672E-1	5.853628E-1	6.202499E-1	6.521259E-1	6.148326E-1	5.529934E-1	6.510996E-1	5.986281E-1	6.030059E-1	6.277873E-1	6.664090E-1	5.828809E-1	5.455210E-1	7.057645E-1	6.842414E-1	6.001116E-1	5.541282E-1	5.532112E-1	6.517041E-1	6.272479E-1	5.455325E-1	5.633335E-1	6.786031E-1	6.508824E-1	5.534415E-1	6.358714E-1	6.514952E-1	5.957294E-1	6.438589E-1	5.553832E-1	6.709537E-1	5.179884E-1	5.695761E-1	5.586821E-1	6.250670E-1	6.223673E-1	5.879619E-1	5.490898E-1	6.762248E-1	5.845007E-1	5.891259E-1	6.191134E-1	6.483176E-1	5.271373E-1	5.813382E-1	6.402281E-1	6.465704E-1	5.640294E-1	5.306629E-1	5.494915E-1	6.128042E-1	6.599427E-1	5.607868E-1	5.717658E-1	6.453399E-1	6.204032E-1	6.781121E-1	6.675899E-1	6.672100E-1	5.919802E-1	6.321588E-1	6.141576E-1	6.404679E-1	5.863127E-1	5.436276E-1	5.732263E-1	6.490081E-1	6.191483E-1	5.586627E-1	6.281143E-1	5.962304E-1	6.086501E-1	5.985775E-1	6.342316E-1	6.675878E-1	6.148828E-1	6.114028E-1	5.880171E-1	6.772607E-1	5.743103E-1	5.826328E-1	5.792857E-1	6.372321E-1	6.643353E-1	5.908555E-1	6.135934E-1	6.375304E-1	6.541954E-1	6.473554E-1	6.204845E-1	6.177560E-1	5.380708E-1	5.474086E-1	6.655408E-1	6.116337E-1	5.125729E-1	5.555376E-1	5.673719E-1	6.007382E-1	6.175763E-1	5.650096E-1	5.776539E-1	6.217878E-1	6.306837E-1	6.057624E-1	6.855515E-1	6.426292E-1	6.406056E-1	6.446273E-1	5.710077E-1	5.257703E-1	5.912992E-1	5.621890E-1	6.322570E-1	6.234141E-1	6.200395E-1	6.557103E-1	5.685005E-1	7.029172E-1	6.030536E-1	5.962859E-1	6.089093E-1	5.874621E-1	5.356355E-1	4.899508E-1	5.682098E-1	6.502633E-1	6.028433E-1	5.372882E-1	6.065576E-1	6.239908E-1	6.593892E-1	5.975791E-1	6.192957E-1
2.896060E+2	5.222998E-1	5.763843E-1	6.196160E-1	5.366062E-1	4.704998E-1	5.545737E-1	6.007648E-1	5.758370E-1	4.856400E-1	5.280361E-1	6.267739E-1	5.917449E-1	5.940063E-1	6.164910E-1	5.379303E-1	5.850324E-1	5.790646E-1	5.461342E-1	6.355165E-1	6.114641E-1	4.649990E-1	5.071807E-1	5.978707E-1	6.425775E-1	5.095600E-1	5.470743E-1	5.544644E-1	5.767690E-1	5.577050E-1	5.588896E-1	5.822751E-1	5.702980E-1	5.258238E-1	5.602538E-1	5.439337E-1	5.737883E-1	4.748663E-1	4.955113E-1	5.851280E-1	6.114366E-1	4.948378E-1	5.464572E-1	5.890206E-1	5.950498E-1	5.636920E-1	5.774514E-1	5.890500E-1	6.035178E-1	5.818010E-1	5.353978E-1	5.764503E-1	5.945297E-1	4.707258E-1	5.223271E-1	5.808442E-1	5.849863E-1	5.165624E-1	5.139863E-1	5.799992E-1	5.982076E-1	5.451174E-1	5.304263E-1	5.640209E-1	5.977396E-1	5.687041E-1	5.626047E-1	6.134392E-1	6.170552E-1	4.915116E-1	5.024070E-1	5.717334E-1	5.664484E-1	5.300464E-1	5.365054E-1	6.199325E-1	5.232281E-1	6.130485E-1	6.129475E-1	6.075476E-1	5.683897E-1	5.813384E-1	5.756441E-1	6.168676E-1	6.072655E-1	4.979998E-1	4.970569E-1	6.105077E-1	5.670510E-1	4.987541E-1	5.411509E-1	5.486145E-1	5.596522E-1	5.600861E-1	5.720714E-1	5.826023E-1	4.641022E-1	5.230272E-1	4.675922E-1	5.836718E-1	5.299534E-1	5.342923E-1	5.098139E-1	6.154884E-1	5.495186E-1	5.131028E-1	5.635361E-1	6.187344E-1	5.279191E-1	5.417010E-1	5.294738E-1	5.916583E-1	5.175309E-1	5.774366E-1	5.562029E-1	6.317213E-1	5.217891E-1	5.266100E-1	5.102387E-1	6.320179E-1	5.866992E-1	5.545040E-1	5.646584E-1	6.338632E-1	5.754949E-1	5.611529E-1	5.781397E-1	5.882620E-1	5.116751E-1	5.887228E-1	5.526830E-1	6.374855E-1	5.171523E-1	5.259940E-1	5.177311E-1	5.723415E-1	5.635755E-1	5.405476E-1	5.419468E-1	5.819537E-1	5.833901E-1	5.464272E-1	5.614106E-1	5.611414E-1	5.764917E-1	6.015383E-1	5.351309E-1	5.097206E-1	5.690859E-1	5.178393E-1	5.903067E-1	5.707326E-1	5.388491E-1	5.883237E-1	5.436894E-1	6.109722E-1	5.513795E-1	6.000629E-1	5.978357E-1	5.787730E-1	4.331371E-1	5.325796E-1	6.069109E-1	5.776401E-1	4.879893E-1	4.928411E-1	5.248592E-1	5.826828E-1	5.792081E-1	5.263972E-1	5.462841E-1
2.898050E+2	5.112527E-1	5.620712E-1	5.328512E-1	5.066562E-1	4.630698E-1	4.721848E-1	5.631516E-1	5.863682E-1	4.623126E-1	5.414035E-1	5.692334E-1	5.510839E-1	5.148640E-1	5.999448E-1	5.547060E-1	5.304232E-1	4.997906E-1	5.104680E-1	5.237255E-1	5.371030E-1	4.838878E-1	4.753960E-1	5.777540E-1	5.945242E-1	5.303634E-1	4.641720E-1	6.095836E-1	5.199259E-1	4.969717E-1	5.505644E-1	5.444475E-1	5.814645E-1	5.301801E-1	4.923278E-1	5.254759E-1	5.205361E-1	4.863380E-1	4.578323E-1	5.576900E-1	5.465538E-1	4.815060E-1	5.312063E-1	5.200460E-1	5.568805E-1	5.313167E-1	5.877249E-1	5.432874E-1	6.035181E-1	5.595655E-1	5.605530E-1	5.342713E-1	5.320060E-1	4.474997E-1	4.646765E-1	5.844476E-1	5.616319E-1	4.667305E-1	5.266104E-1	5.497460E-1	5.802743E-1	5.034937E-1	5.028329E-1	5.671454E-1	5.394604E-1	5.148624E-1	5.017410E-1	5.512300E-1	5.157366E-1	4.316268E-1	4.757496E-1	5.685334E-1	5.406401E-1	5.232335E-1	5.134355E-1	5.751285E-1	5.424510E-1	5.380155E-1	5.348520E-1	5.766954E-1	5.508578E-1	5.394908E-1	5.340482E-1	5.330622E-1	5.628288E-1	5.078983E-1	4.949171E-1	5.599787E-1	5.692366E-1	4.533370E-1	5.162049E-1	5.211358E-1	5.883086E-1	5.643777E-1	5.326181E-1	5.593353E-1	5.096180E-1	4.847133E-1	5.131167E-1	5.170438E-1	5.736607E-1	4.730975E-1	5.027678E-1	5.380468E-1	5.241992E-1	4.975463E-1	4.844812E-1	5.523460E-1	5.509844E-1	5.198254E-1	5.188921E-1	5.692015E-1	5.712420E-1	5.010111E-1	6.007421E-1	5.872180E-1	5.229305E-1	4.459384E-1	4.858697E-1	5.652695E-1	5.672902E-1	4.795283E-1	5.211605E-1	5.654033E-1	5.122964E-1	5.633917E-1	5.590841E-1	5.741036E-1	5.197964E-1	5.083278E-1	5.691402E-1	5.505292E-1	4.759292E-1	4.659225E-1	5.011849E-1	5.598466E-1	5.371034E-1	4.958787E-1	5.200615E-1	5.119446E-1	5.314815E-1	5.053489E-1	5.309619E-1	5.623577E-1	5.016918E-1	4.882783E-1	5.131408E-1	4.902316E-1	5.555098E-1	4.894098E-1	6.107150E-1	5.578544E-1	5.401384E-1	5.546301E-1	5.188777E-1	5.570309E-1	5.149732E-1	5.534802E-1	5.666294E-1	5.402925E-1	4.397506E-1	4.955594E-1	5.272979E-1	5.241285E-1	4.891050E-1	5.025971E-1	5.130347E-1	5.477301E-1	5.978554E-1	4.324356E-1	6.036509E-1
2.900050E+2	5.431672E-1	4.964716E-1	6.082992E-1	4.529945E-1	4.864218E-1	4.270397E-1	5.220136E-1	5.138216E-1	5.171316E-1	5.068696E-1	5.950680E-1	5.794234E-1	5.136999E-1	5.249350E-1	5.837838E-1	5.182873E-1	4.875090E-1	4.569687E-1	5.190681E-1	5.718055E-1	4.786405E-1	4.604975E-1	5.907704E-1	5.609985E-1	4.610169E-1	4.672061E-1	5.782661E-1	5.557610E-1	5.110703E-1	5.339112E-1	5.379625E-1	5.155860E-1	5.040394E-1	5.369040E-1	5.300902E-1	5.406541E-1	4.653069E-1	4.558994E-1	5.708599E-1	5.421551E-1	5.115040E-1	4.919885E-1	5.568334E-1	5.342182E-1	5.324726E-1	5.065705E-1	4.898985E-1	5.641193E-1	5.150924E-1	5.205334E-1	5.530168E-1	5.331231E-1	4.559454E-1	4.420280E-1	5.448127E-1	5.037997E-1	4.563020E-1	4.784103E-1	5.609512E-1	5.253571E-1	4.927900E-1	5.343680E-1	5.494425E-1	5.525226E-1	5.137416E-1	4.759510E-1	5.711837E-1	5.742768E-1	4.594310E-1	4.885840E-1	5.162666E-1	5.481673E-1	5.096055E-1	4.683443E-1	5.418122E-1	5.304364E-1	5.227907E-1	5.194391E-1	5.689827E-1	5.745776E-1	5.180017E-1	5.690764E-1	5.585226E-1	5.364065E-1	4.762233E-1	4.767248E-1	5.473466E-1	5.681435E-1	4.921073E-1	4.946616E-1	5.453178E-1	5.103642E-1	5.053647E-1	5.564977E-1	5.603934E-1	5.952309E-1	5.241878E-1	5.264404E-1	5.705639E-1	5.449056E-1	4.928041E-1	4.987415E-1	5.276439E-1	5.590139E-1	5.019912E-1	4.733476E-1	5.399688E-1	4.944737E-1	5.307631E-1	4.956136E-1	5.488815E-1	5.466244E-1	4.731092E-1	4.883346E-1	5.654837E-1	5.411991E-1	4.661060E-1	5.132847E-1	5.610989E-1	5.490221E-1	5.011123E-1	5.374718E-1	5.275057E-1	5.325680E-1	4.917432E-1	5.601426E-1	5.257342E-1	5.898477E-1	4.993954E-1	4.927265E-1	5.599296E-1	5.343284E-1	4.600142E-1	5.239364E-1	5.428077E-1	5.455741E-1	4.618449E-1	5.269728E-1	4.841829E-1	5.441695E-1	5.281698E-1	5.485297E-1	5.574926E-1	5.198579E-1	4.870485E-1	4.795771E-1	4.673037E-1	5.160181E-1	4.632549E-1	4.848595E-1	4.969753E-1	5.104974E-1	5.360409E-1	4.768065E-1	5.680652E-1	4.562542E-1	5.434090E-1	5.042154E-1	5.651188E-1	5.025710E-1	4.394689E-1	5.483069E-1	5.547069E-1	4.891052E-1	4.776636E-1	5.463587E-1	5.238981E-1	5.102160E-1	4.893821E-1	5.514992E-1
2.905120E+2	6.180436E-1	6.026238E-1	6.812319E-1	5.515810E-1	5.532953E-1	5.985898E-1	6.289736E-1	6.331723E-1	5.696164E-1	5.982178E-1	6.608287E-1	6.607456E-1	6.463800E-1	6.297292E-1	6.464127E-1	6.295295E-1	6.069779E-1	6.038289E-1	5.994176E-1	7.180485E-1	6.286993E-1	5.687623E-1	6.499359E-1	5.855843E-1	5.997116E-1	6.168335E-1	7.148081E-1	6.212545E-1	6.347037E-1	6.817005E-1	6.438801E-1	6.942410E-1	6.652444E-1	5.708658E-1	6.569891E-1	6.187565E-1	5.895805E-1	5.544466E-1	7.234191E-1	6.521264E-1	6.192771E-1	5.965683E-1	6.568470E-1	6.713884E-1	6.608206E-1	6.657959E-1	6.609615E-1	7.029514E-1	6.204217E-1	6.268707E-1	6.690106E-1	6.224415E-1	5.393476E-1	5.995372E-1	6.673174E-1	6.784051E-1	5.826170E-1	6.103864E-1	6.225777E-1	6.475206E-1	6.343094E-1	6.910569E-1	6.535783E-1	7.203267E-1	6.303981E-1	5.822048E-1	6.310462E-1	6.688397E-1	5.546049E-1	5.359741E-1	6.293342E-1	6.417240E-1	5.834210E-1	5.878883E-1	6.095928E-1	6.241497E-1	6.467600E-1	6.252787E-1	6.714570E-1	7.169017E-1	6.469369E-1	6.719725E-1	6.295972E-1	6.637151E-1	5.969807E-1	6.072767E-1	6.415142E-1	6.457362E-1	5.330925E-1	6.329968E-1	6.442405E-1	6.158178E-1	6.040770E-1	6.385182E-1	6.132729E-1	6.277438E-1	5.764323E-1	6.441361E-1	6.535755E-1	7.013321E-1	5.519253E-1	6.094613E-1	6.952415E-1	6.803376E-1	5.219923E-1	6.180935E-1	6.344879E-1	6.455551E-1	6.543614E-1	5.601605E-1	6.461991E-1	6.786654E-1	6.308124E-1	6.463415E-1	6.720859E-1	6.382496E-1	5.736687E-1	5.803010E-1	6.341037E-1	6.643362E-1	5.931278E-1	5.951067E-1	6.644254E-1	5.933826E-1	5.969767E-1	6.405978E-1	7.498893E-1	6.487308E-1	6.043553E-1	6.761214E-1	6.245590E-1	6.396775E-1	5.200850E-1	5.818500E-1	6.393588E-1	6.726373E-1	5.735177E-1	6.110585E-1	6.423073E-1	6.802846E-1	6.571103E-1	6.937491E-1	6.462779E-1	6.566345E-1	6.335467E-1	6.867437E-1	5.395268E-1	6.567084E-1	5.894808E-1	6.594706E-1	5.918050E-1	6.380815E-1	6.812696E-1	6.569571E-1	6.918835E-1	6.441581E-1	6.491641E-1	6.934695E-1	6.184956E-1	7.130782E-1	4.978036E-1	7.075328E-1	6.260554E-1	6.474469E-1	5.665570E-1	6.420315E-1	6.128688E-1	6.668478E-1	6.716108E-1	8.122553E-1
2.910040E+2	7.432494E-1	8.089650E-1	8.648227E-1	7.624798E-1	6.615658E-1	7.893250E-1	8.240856E-1	8.297495E-1	7.842242E-1	7.998514E-1	8.815926E-1	7.778009E-1	7.534547E-1	8.602749E-1	8.421261E-1	8.580824E-1	8.012558E-1	8.104809E-1	8.451234E-1	8.258713E-1	7.315378E-1	7.435750E-1	8.085003E-1	8.549073E-1	7.730793E-1	7.765701E-1	8.851729E-1	9.005253E-1	8.028014E-1	8.763224E-1	8.957040E-1	8.617299E-1	7.698096E-1	7.619068E-1	8.369548E-1	8.542476E-1	7.453992E-1	6.974357E-1	8.628063E-1	8.236802E-1	7.226058E-1	7.643320E-1	7.936485E-1	8.169077E-1	7.683564E-1	7.726312E-1	8.145908E-1	8.999410E-1	7.912909E-1	8.109580E-1	8.822497E-1	8.725348E-1	7.145999E-1	7.220434E-1	8.006306E-1	8.763668E-1	7.529689E-1	7.515415E-1	8.578828E-1	8.246011E-1	8.043707E-1	8.231099E-1	8.326905E-1	9.363617E-1	7.762202E-1	7.792397E-1	9.045330E-1	8.500867E-1	7.043167E-1	7.541649E-1	8.479998E-1	8.073305E-1	7.412706E-1	7.850313E-1	8.680777E-1	8.464156E-1	8.229273E-1	8.081870E-1	9.072581E-1	8.602563E-1	7.724782E-1	8.252223E-1	8.937415E-1	8.967122E-1	6.939823E-1	8.052436E-1	8.091780E-1	8.632123E-1	7.911933E-1	8.563734E-1	8.376925E-1	8.656990E-1	8.401285E-1	8.700465E-1	8.332525E-1	8.314818E-1	8.724843E-1	8.140176E-1	8.785788E-1	8.589089E-1	7.334368E-1	7.715147E-1	8.246963E-1	7.974419E-1	7.509030E-1	7.784277E-1	8.032730E-1	8.658338E-1	8.654635E-1	8.225828E-1	8.590147E-1	8.655359E-1	8.054999E-1	8.351007E-1	8.035272E-1	8.460516E-1	6.812318E-1	7.315955E-1	8.656352E-1	9.052375E-1	7.521652E-1	7.582245E-1	8.832518E-1	8.485607E-1	8.130419E-1	8.036262E-1	8.478099E-1	8.893404E-1	7.830094E-1	8.348276E-1	8.337250E-1	8.412138E-1	7.209803E-1	7.462837E-1	7.870228E-1	8.928791E-1	6.734914E-1	7.711655E-1	8.354364E-1	7.944824E-1	8.294115E-1	8.577072E-1	8.566866E-1	8.735529E-1	7.923568E-1	7.897480E-1	6.621928E-1	8.085053E-1	7.259411E-1	8.306799E-1	8.072198E-1	8.984049E-1	7.835115E-1	7.540450E-1	9.297136E-1	8.379340E-1	8.040175E-1	8.354092E-1	8.220753E-1	8.761940E-1	7.457231E-1	8.136847E-1	8.451990E-1	8.437024E-1	7.259133E-1	7.377037E-1	7.971673E-1	8.775544E-1	6.801525E-1	8.122555E-1
2.915060E+2	8.635430E-1	8.817214E-1	1.018233E+0	8.797841E-1	7.751438E-1	8.378563E-1	9.357461E-1	8.648537E-1	7.772270E-1	8.143339E-1	9.743620E-1	9.700178E-1	9.815725E-1	1.015812E+0	9.237656E-1	9.490987E-1	8.972777E-1	9.615369E-1	9.965055E-1	1.000619E+0	7.556727E-1	8.687243E-1	9.682471E-1	1.012479E+0	7.626776E-1	8.645266E-1	9.315199E-1	9.079399E-1	8.917303E-1	8.960970E-1	9.281277E-1	9.622218E-1	7.926843E-1	8.616728E-1	9.603922E-1	9.228836E-1	7.606946E-1	7.959817E-1	1.005488E+0	9.017595E-1	8.403779E-1	8.983246E-1	9.879284E-1	9.111381E-1	9.105795E-1	8.640587E-1	9.693098E-1	9.158880E-1	8.650218E-1	9.184373E-1	8.939665E-1	9.361741E-1	7.948362E-1	8.085201E-1	9.195314E-1	9.575533E-1	8.364075E-1	8.995840E-1	9.195117E-1	9.725412E-1	8.995095E-1	8.654837E-1	9.399483E-1	9.745446E-1	8.278182E-1	8.658930E-1	9.667432E-1	9.412726E-1	7.460231E-1	8.153767E-1	9.344001E-1	8.664757E-1	8.480170E-1	8.626293E-1	8.967974E-1	9.761715E-1	9.425466E-1	8.698402E-1	9.799828E-1	9.252293E-1	8.346844E-1	8.941847E-1	9.245048E-1	9.231347E-1	8.157299E-1	8.319958E-1	9.090865E-1	9.724958E-1	8.155633E-1	8.631767E-1	9.520040E-1	9.321811E-1	8.862662E-1	8.741998E-1	9.781433E-1	9.463559E-1	9.038312E-1	9.061766E-1	9.506665E-1	9.486242E-1	8.392319E-1	8.530450E-1	1.017724E+0	9.282601E-1	7.975745E-1	8.875436E-1	8.842894E-1	8.831333E-1	9.092157E-1	8.691419E-1	9.263880E-1	9.293177E-1	8.879904E-1	9.528103E-1	9.391091E-1	9.248332E-1	8.661064E-1	8.341516E-1	9.887006E-1	9.429147E-1	8.157804E-1	9.093791E-1	9.517122E-1	9.177224E-1	9.361888E-1	8.925504E-1	9.009000E-1	9.482239E-1	8.567053E-1	9.476847E-1	9.089306E-1	9.522879E-1	7.771129E-1	8.641785E-1	9.767148E-1	9.955876E-1	8.191967E-1	9.024765E-1	9.307962E-1	9.029127E-1	8.625017E-1	9.396868E-1	9.126332E-1	9.333928E-1	8.920747E-1	9.135847E-1	8.043473E-1	9.380887E-1	8.521673E-1	9.417962E-1	9.430246E-1	9.602643E-1	8.567064E-1	8.554475E-1	9.346175E-1	9.471523E-1	8.707443E-1	9.199700E-1	9.027627E-1	1.033799E+0	9.611109E-1	8.667589E-1	9.038063E-1	9.295645E-1	8.668413E-1	8.903517E-1	9.719307E-1	9.558694E-1	9.477990E-1	1.010431E+0
2.920050E+2	7.727096E-1	7.743765E-1	7.529087E-1	7.212975E-1	7.570982E-1	7.340218E-1	8.370150E-1	8.040068E-1	7.364041E-1	7.252131E-1	8.264010E-1	8.480342E-1	7.953547E-1	8.360076E-1	8.644923E-1	7.518954E-1	7.632935E-1	8.241181E-1	8.684136E-1	8.258717E-1	7.105505E-1	7.147704E-1	8.392658E-1	8.426151E-1	7.268493E-1	7.108560E-1	8.062536E-1	7.707751E-1	8.049706E-1	8.607116E-1	8.135638E-1	8.192979E-1	7.567397E-1	7.735813E-1	7.688913E-1	7.477446E-1	6.832631E-1	7.244869E-1	9.089031E-1	7.994873E-1	7.259391E-1	7.828518E-1	7.982472E-1	8.061717E-1	7.695121E-1	7.952317E-1	7.982474E-1	8.202074E-1	8.416148E-1	8.018104E-1	8.142948E-1	8.423900E-1	7.019308E-1	7.302797E-1	9.087231E-1	8.696938E-1	7.749873E-1	7.595756E-1	8.567629E-1	8.615858E-1	7.805862E-1	7.955153E-1	8.472688E-1	8.419089E-1	7.448122E-1	6.987752E-1	8.822316E-1	7.915471E-1	6.743749E-1	7.275080E-1	7.776008E-1	8.331390E-1	7.730671E-1	7.441337E-1	7.980000E-1	8.019632E-1	8.000902E-1	8.523722E-1	8.730997E-1	8.004384E-1	7.849200E-1	8.175607E-1	8.067545E-1	7.706055E-1	7.197176E-1	7.870516E-1	7.643915E-1	8.522836E-1	7.169758E-1	7.486535E-1	8.168085E-1	8.347503E-1	7.832623E-1	8.440905E-1	8.364254E-1	8.347341E-1	7.970190E-1	8.062459E-1	7.955665E-1	7.795450E-1	7.458832E-1	7.906390E-1	8.674626E-1	9.103257E-1	7.464584E-1	7.984685E-1	8.719117E-1	8.473810E-1	8.085855E-1	8.172918E-1	9.050002E-1	7.827301E-1	7.788111E-1	8.160126E-1	8.066324E-1	7.889629E-1	7.058829E-1	7.417496E-1	9.094382E-1	8.207514E-1	7.396698E-1	7.332133E-1	8.600238E-1	8.282907E-1	7.928909E-1	7.665745E-1	8.076983E-1	8.477154E-1	7.193640E-1	8.559880E-1	7.914217E-1	7.770882E-1	6.904518E-1	7.566252E-1	7.733917E-1	8.081713E-1	7.181608E-1	7.642547E-1	8.330229E-1	7.748722E-1	8.590788E-1	8.377989E-1	8.262811E-1	8.917183E-1	7.837402E-1	7.411395E-1	6.748038E-1	8.418267E-1	7.259412E-1	7.785237E-1	8.880002E-1	8.210810E-1	7.846732E-1	7.486513E-1	8.046681E-1	8.414560E-1	7.813555E-1	8.404434E-1	8.444194E-1	8.265981E-1	7.614279E-1	8.214242E-1	8.745026E-1	8.459326E-1	6.998961E-1	7.817787E-1	7.796900E-1	8.719599E-1	8.054332E-1	7.705352E-1
2.924990E+2	7.862115E-1	6.622606E-1	8.120083E-1	7.400171E-1	7.762043E-1	6.584051E-1	7.876491E-1	7.396521E-1	7.608975E-1	7.497209E-1	8.134858E-1	7.888904E-1	8.069921E-1	8.415229E-1	7.794966E-1	7.852686E-1	7.554778E-1	7.643250E-1	7.473067E-1	8.023236E-1	7.241921E-1	6.730539E-1	7.327674E-1	7.722115E-1	8.493624E-1	7.007453E-1	7.361026E-1	7.584174E-1	7.973784E-1	7.014750E-1	8.016758E-1	7.511865E-1	7.828808E-1	6.833675E-1	7.723515E-1	7.359107E-1	6.708360E-1	7.003341E-1	8.353683E-1	8.247802E-1	6.981621E-1	6.684675E-1	7.729558E-1	7.429557E-1	8.007317E-1	7.613324E-1	7.568433E-1	7.779952E-1	7.760761E-1	7.526446E-1	8.072644E-1	7.887983E-1	6.470334E-1	6.788056E-1	7.802129E-1	7.451343E-1	6.950261E-1	7.308861E-1	7.514349E-1	7.338183E-1	7.104204E-1	7.905890E-1	8.160287E-1	7.966927E-1	7.134043E-1	6.915537E-1	8.106331E-1	7.915476E-1	6.743744E-1	6.495129E-1	7.477332E-1	7.503355E-1	7.026595E-1	6.602438E-1	7.267732E-1	7.551062E-1	7.381056E-1	7.259808E-1	8.124965E-1	7.994073E-1	7.498589E-1	7.956665E-1	8.163016E-1	7.826151E-1	6.801248E-1	7.656504E-1	7.138615E-1	7.572052E-1	6.671277E-1	7.078337E-1	7.926264E-1	7.361740E-1	7.263949E-1	8.243642E-1	8.142156E-1	7.588724E-1	6.960145E-1	7.651631E-1	7.835527E-1	8.013998E-1	6.587578E-1	7.131357E-1	7.484109E-1	7.183174E-1	7.431250E-1	7.093939E-1	7.616389E-1	7.931757E-1	7.199890E-1	7.411046E-1	7.927102E-1	8.286091E-1	7.399928E-1	7.566284E-1	7.807582E-1	7.227401E-1	7.159662E-1	6.676255E-1	8.385188E-1	7.967753E-1	7.078623E-1	7.212505E-1	7.756726E-1	8.437928E-1	7.122871E-1	7.623405E-1	7.829230E-1	7.299484E-1	6.880988E-1	7.795747E-1	7.796713E-1	7.484621E-1	6.481064E-1	7.100877E-1	7.381800E-1	7.340504E-1	6.798727E-1	6.836248E-1	7.738777E-1	7.979424E-1	7.358436E-1	7.663589E-1	7.800642E-1	7.944798E-1	7.357270E-1	7.480830E-1	6.885601E-1	7.640769E-1	6.963750E-1	7.309016E-1	7.720968E-1	7.205602E-1	7.277438E-1	6.440129E-1	7.764727E-1	8.308868E-1	7.675076E-1	7.438025E-1	8.183514E-1	7.891255E-1	7.647944E-1	7.462331E-1	7.674787E-1	8.124805E-1	6.782150E-1	6.990062E-1	7.526814E-1	7.787266E-1	8.111288E-1	7.340286E-1
2.930130E+2	7.604338E-1	6.419842E-1	6.975795E-1	6.539105E-1	7.454221E-1	5.918178E-1	7.218285E-1	7.279507E-1	7.130768E-1	6.316378E-1	6.749198E-1	6.792275E-1	6.964253E-1	7.190800E-1	7.101589E-1	6.669476E-1	6.717373E-1	6.101229E-1	6.646277E-1	6.672350E-1	7.451797E-1	6.502085E-1	6.641361E-1	7.174531E-1	7.719248E-1	6.744602E-1	7.373564E-1	6.768613E-1	6.704922E-1	6.764960E-1	6.654954E-1	7.054057E-1	6.826720E-1	6.557730E-1	6.662182E-1	7.015933E-1	7.119416E-1	6.442974E-1	6.893946E-1	7.104107E-1	7.559370E-1	6.728244E-1	7.143262E-1	6.976292E-1	6.400071E-1	6.853149E-1	7.535741E-1	7.142083E-1	7.035167E-1	6.474508E-1	7.065037E-1	6.548190E-1	6.702600E-1	5.449745E-1	6.913367E-1	7.128827E-1	7.077743E-1	6.390769E-1	7.054949E-1	6.923513E-1	7.330165E-1	7.078100E-1	6.837759E-1	7.263549E-1	6.696576E-1	6.265634E-1	7.155573E-1	6.891035E-1	5.738537E-1	5.547328E-1	7.071999E-1	6.901160E-1	6.220309E-1	6.130553E-1	7.072427E-1	6.998389E-1	6.804714E-1	6.848775E-1	7.342644E-1	7.437156E-1	6.435439E-1	6.752565E-1	7.282533E-1	7.285693E-1	5.821343E-1	6.415194E-1	7.069713E-1	7.353492E-1	6.350048E-1	6.318624E-1	7.365693E-1	6.742772E-1	6.416310E-1	6.509770E-1	6.947076E-1	7.285302E-1	6.426089E-1	6.485769E-1	6.623128E-1	6.737269E-1	6.027486E-1	6.517359E-1	7.102671E-1	7.183169E-1	5.919991E-1	6.180934E-1	6.907496E-1	7.032187E-1	6.981128E-1	6.532775E-1	7.467256E-1	7.099959E-1	6.769109E-1	6.569468E-1	7.269392E-1	7.410087E-1	6.252096E-1	6.138095E-1	7.154526E-1	7.431143E-1	6.874141E-1	6.908014E-1	7.536676E-1	6.911609E-1	7.010909E-1	6.882366E-1	7.180356E-1	7.015233E-1	6.378522E-1	7.360756E-1	7.068152E-1	6.797559E-1	5.860657E-1	5.746113E-1	6.416304E-1	7.351104E-1	6.043612E-1	7.158763E-1	6.411009E-1	7.114297E-1	6.582513E-1	6.820375E-1	6.900627E-1	7.207482E-1	6.692487E-1	6.439214E-1	6.128978E-1	7.011367E-1	5.860701E-1	6.481310E-1	6.503418E-1	7.643768E-1	6.719753E-1	5.987054E-1	7.188543E-1	6.465067E-1	6.844149E-1	7.075617E-1	7.488364E-1	7.053644E-1	6.705628E-1	6.809950E-1	6.630043E-1	6.998563E-1	6.337683E-1	6.818057E-1	7.145512E-1	7.544871E-1	6.943878E-1	6.192964E-1
2.935030E+2	8.451315E-1	7.707980E-1	8.459600E-1	7.400170E-1	7.379924E-1	7.159660E-1	7.888234E-1	7.595433E-1	7.935554E-1	7.541774E-1	7.559444E-1	8.049088E-1	8.302702E-1	8.128423E-1	7.280528E-1	7.458280E-1	8.392188E-1	7.171205E-1	7.705965E-1	7.973666E-1	7.777102E-1	7.137769E-1	8.120502E-1	7.096300E-1	7.106676E-1	7.169222E-1	7.611579E-1	7.683042E-1	7.529149E-1	7.701648E-1	7.389896E-1	7.869168E-1	7.730788E-1	7.173307E-1	7.942700E-1	8.187469E-1	7.884172E-1	6.549252E-1	7.453696E-1	7.708946E-1	7.226056E-1	7.654216E-1	7.879003E-1	7.656180E-1	7.776061E-1	7.274326E-1	7.459483E-1	7.845611E-1	8.404452E-1	7.686523E-1	8.213240E-1	8.088940E-1	7.494397E-1	6.788059E-1	7.694039E-1	7.484700E-1	8.027996E-1	6.849807E-1	7.021343E-1	7.876167E-1	7.591793E-1	7.649664E-1	7.691672E-1	7.755916E-1	7.683677E-1	7.039324E-1	7.777663E-1	7.330077E-1	7.620633E-1	6.623473E-1	7.594665E-1	7.524864E-1	7.673896E-1	7.263076E-1	8.025948E-1	8.103722E-1	8.087902E-1	7.568066E-1	8.147016E-1	7.767181E-1	7.475964E-1	7.880048E-1	7.409837E-1	7.621979E-1	7.464430E-1	7.057254E-1	7.793197E-1	7.211417E-1	7.435612E-1	6.749508E-1	8.058169E-1	7.212728E-1	7.618032E-1	7.994462E-1	8.099847E-1	7.729615E-1	6.936916E-1	7.263006E-1	7.584310E-1	7.553918E-1	6.909114E-1	7.201811E-1	7.437872E-1	7.911116E-1	6.920087E-1	7.561587E-1	8.055227E-1	7.193655E-1	7.834293E-1	7.485121E-1	7.905712E-1	8.095857E-1	7.314999E-1	7.651117E-1	7.704077E-1	7.969556E-1	6.442575E-1	7.427655E-1	7.686419E-1	7.990580E-1	6.953659E-1	6.690537E-1	7.781173E-1	7.925174E-1	7.324380E-1	7.305812E-1	8.277535E-1	7.725894E-1	7.282956E-1	7.760475E-1	8.184490E-1	7.736541E-1	6.737106E-1	7.100875E-1	7.620330E-1	7.742865E-1	6.788094E-1	8.057214E-1	6.930041E-1	7.887149E-1	7.472549E-1	7.944669E-1	7.751998E-1	7.902052E-1	7.578871E-1	7.596563E-1	6.346780E-1	7.986321E-1	6.861401E-1	7.864604E-1	7.603914E-1	7.411804E-1	6.894030E-1	7.055014E-1	7.580839E-1	7.580733E-1	7.901698E-1	7.840693E-1	7.848354E-1	7.814114E-1	7.670384E-1	7.561855E-1	7.993302E-1	7.689911E-1	6.858033E-1	6.914811E-1	7.367939E-1	7.899151E-1	6.886929E-1	7.809648E-1
2.940070E+2	8.242634E-1	7.719912E-1	7.340460E-1	6.975873E-1	7.624068E-1	6.753350E-1	7.829469E-1	7.747549E-1	7.912236E-1	7.285552E-1	8.510622E-1	7.987477E-1	7.976823E-1	7.609972E-1	7.392356E-1	7.893146E-1	7.755751E-1	7.601286E-1	8.113532E-1	7.948873E-1	7.598698E-1	6.770267E-1	8.144161E-1	7.956791E-1	7.626777E-1	6.795142E-1	7.486302E-1	8.436823E-1	7.908719E-1	7.732878E-1	7.184552E-1	7.813347E-1	8.003087E-1	6.865520E-1	7.515864E-1	7.205269E-1	7.798142E-1	6.742477E-1	8.331734E-1	8.247801E-1	7.481596E-1	7.523482E-1	7.856021E-1	7.369909E-1	7.671996E-1	7.469498E-1	7.720981E-1	7.958181E-1	8.287419E-1	7.938070E-1	7.896896E-1	7.709345E-1	7.241021E-1	6.324798E-1	8.474706E-1	7.651523E-1	7.877358E-1	7.228525E-1	7.794480E-1	8.055476E-1	8.257768E-1	7.294909E-1	7.764570E-1	7.976976E-1	7.863157E-1	7.018694E-1	8.059373E-1	7.645291E-1	7.930750E-1	6.574112E-1	7.658667E-1	8.084064E-1	8.003222E-1	7.137240E-1	7.566422E-1	7.731271E-1	7.935655E-1	7.187872E-1	7.849498E-1	7.973448E-1	7.894439E-1	8.011404E-1	7.876586E-1	8.702899E-1	7.949440E-1	7.067943E-1	8.229582E-1	8.063851E-1	7.900855E-1	7.554573E-1	7.904286E-1	7.877548E-1	7.360513E-1	7.755662E-1	7.856609E-1	8.271478E-1	8.063073E-1	7.473969E-1	7.551537E-1	8.036996E-1	7.251400E-1	7.292404E-1	7.264498E-1	7.805614E-1	7.975736E-1	7.260959E-1	7.110037E-1	7.355120E-1	8.140549E-1	7.474539E-1	8.600837E-1	7.816118E-1	7.994341E-1	7.036054E-1	7.817923E-1	7.969552E-1	7.619038E-1	7.214415E-1	8.218317E-1	7.385463E-1	7.464853E-1	7.234258E-1	8.074579E-1	7.412426E-1	7.178838E-1	7.199956E-1	7.782036E-1	8.030455E-1	8.008740E-1	7.901546E-1	8.008222E-1	8.274723E-1	6.343197E-1	7.214639E-1	7.359073E-1	7.573457E-1	7.202882E-1	7.746211E-1	7.328380E-1	7.783331E-1	7.552424E-1	7.804133E-1	7.435771E-1	8.190562E-1	7.615792E-1	7.307228E-1	7.080489E-1	7.961638E-1	7.361755E-1	7.309024E-1	7.756098E-1	7.824191E-1	7.161262E-1	7.346282E-1	8.402214E-1	7.392849E-1	8.291974E-1	7.669560E-1	8.109043E-1	7.957382E-1	7.087038E-1	7.185895E-1	8.553910E-1	7.466900E-1	6.933920E-1	7.549037E-1	8.130552E-1	7.507577E-1	7.257089E-1	7.548892E-1
2.945060E+2	7.236086E-1	7.218973E-1	7.679973E-1	7.337776E-1	7.326848E-1	6.843648E-1	7.394584E-1	7.396513E-1	8.110518E-1	7.263270E-1	7.899989E-1	7.383718E-1	7.965178E-1	8.084297E-1	7.616029E-1	7.225685E-1	7.610606E-1	7.380998E-1	7.298401E-1	7.948876E-1	7.451796E-1	6.631215E-1	7.031851E-1	7.699763E-1	8.135326E-1	6.754707E-1	7.473770E-1	7.720108E-1	7.680980E-1	7.836949E-1	7.184544E-1	7.779844E-1	7.676321E-1	6.748771E-1	7.550471E-1	7.844286E-1	7.081178E-1	6.597559E-1	7.530530E-1	8.126832E-1	7.959356E-1	7.381876E-1	7.166256E-1	7.703895E-1	7.579483E-1	7.428408E-1	7.437692E-1	8.633574E-1	7.936319E-1	7.377795E-1	7.451671E-1	7.407894E-1	7.811113E-1	6.757173E-1	7.718062E-1	7.340132E-1	7.912121E-1	7.630186E-1	7.839293E-1	7.349397E-1	7.235023E-1	7.413158E-1	7.514648E-1	7.474572E-1	7.347167E-1	6.915538E-1	7.589865E-1	7.543973E-1	8.037694E-1	6.781439E-1	7.520001E-1	7.202265E-1	7.355921E-1	6.434658E-1	7.187310E-1	7.563081E-1	7.696416E-1	6.992630E-1	8.003767E-1	7.715606E-1	7.724786E-1	7.420304E-1	7.134016E-1	7.273681E-1	7.791069E-1	6.757619E-1	7.563518E-1	7.582995E-1	7.956242E-1	7.486532E-1	7.761400E-1	7.270033E-1	7.263949E-1	7.641466E-1	7.317234E-1	7.697100E-1	7.447754E-1	7.118667E-1	7.977524E-1	7.174350E-1	7.635157E-1	6.909920E-1	7.888658E-1	7.605168E-1	7.586813E-1	6.860124E-1	7.695152E-1	7.516580E-1	7.506152E-1	7.241745E-1	7.606275E-1	7.950393E-1	7.412050E-1	7.460230E-1	7.507438E-1	7.273076E-1	7.518205E-1	7.041802E-1	7.842862E-1	7.693737E-1	7.896537E-1	7.332126E-1	7.414430E-1	8.080195E-1	7.917714E-1	7.559881E-1	7.758442E-1	7.766501E-1	7.014978E-1	6.925799E-1	7.949475E-1	7.736539E-1	7.564325E-1	6.211493E-1	7.552181E-1	7.573452E-1	7.500668E-1	7.158771E-1	7.280091E-1	7.794870E-1	8.077306E-1	7.124870E-1	7.642530E-1	7.699021E-1	7.923576E-1	7.203064E-1	6.220678E-1	7.480321E-1	7.918969E-1	7.240985E-1	7.486831E-1	7.540681E-1	6.917259E-1	6.796109E-1	7.826021E-1	7.662946E-1	7.549177E-1	7.508498E-1	7.848352E-1	7.692880E-1	7.143125E-1	7.152728E-1	7.509169E-1	7.009710E-1	6.890555E-1	7.721044E-1	7.892224E-1	7.675391E-1	6.915422E-1	8.018253E-1
2.950050E+2	8.709084E-1	8.101580E-1	9.025467E-1	9.284525E-1	8.717379E-1	7.723966E-1	9.275187E-1	9.186779E-1	8.752002E-1	8.533233E-1	9.356110E-1	8.825345E-1	9.466568E-1	8.779250E-1	8.499535E-1	8.692059E-1	8.626645E-1	8.650293E-1	9.219797E-1	8.965147E-1	9.435089E-1	7.942310E-1	8.309837E-1	8.962566E-1	8.655428E-1	8.402636E-1	9.077200E-1	9.314182E-1	8.732937E-1	8.284475E-1	9.216432E-1	9.432408E-1	8.471456E-1	8.139130E-1	8.588732E-1	9.015823E-1	8.295233E-1	7.476755E-1	8.869535E-1	9.149565E-1	9.248186E-1	8.122647E-1	9.338981E-1	8.956320E-1	9.533629E-1	8.507041E-1	9.366234E-1	9.308972E-1	9.621596E-1	8.898523E-1	9.232582E-1	8.825822E-1	8.761276E-1	7.467508E-1	9.351442E-1	9.097313E-1	9.082574E-1	9.030267E-1	9.083048E-1	9.389190E-1	9.221050E-1	8.398619E-1	8.701782E-1	9.675104E-1	8.861462E-1	8.235974E-1	9.327045E-1	8.230685E-1	9.032215E-1	8.262373E-1	8.864002E-1	8.718524E-1	9.604429E-1	8.070522E-1	9.209240E-1	8.524228E-1	8.675124E-1	8.729235E-1	8.576741E-1	8.942888E-1	9.670128E-1	8.482098E-1	8.597955E-1	8.582792E-1	8.830371E-1	8.373459E-1	9.159763E-1	9.528256E-1	8.665183E-1	7.928757E-1	9.322187E-1	8.771617E-1	8.637333E-1	8.046378E-1	8.935358E-1	9.105939E-1	9.154412E-1	8.773074E-1	9.244529E-1	9.164196E-1	9.253209E-1	8.137901E-1	8.755535E-1	9.250957E-1	9.075847E-1	8.318711E-1	8.359042E-1	8.427670E-1	8.917146E-1	8.437463E-1	9.007219E-1	9.561734E-1	8.867775E-1	9.156948E-1	9.059902E-1	9.396761E-1	9.120447E-1	8.026741E-1	9.250827E-1	9.223635E-1	8.759883E-1	7.995464E-1	9.455993E-1	8.712179E-1	9.361880E-1	9.158395E-1	8.867428E-1	9.563450E-1	8.522384E-1	8.430575E-1	9.253817E-1	9.030496E-1	8.765750E-1	8.476320E-1	8.710779E-1	9.013491E-1	8.936454E-1	8.506427E-1	8.704419E-1	9.352103E-1	8.967339E-1	8.694186E-1	9.162817E-1	9.675863E-1	9.203897E-1	8.626615E-1	8.513496E-1	9.491955E-1	9.192609E-1	8.204758E-1	8.950246E-1	9.203136E-1	9.159605E-1	8.036681E-1	9.039703E-1	8.990018E-1	8.745217E-1	8.595692E-1	8.593145E-1	8.728873E-1	8.522952E-1	8.446438E-1	9.229173E-1	9.172981E-1	9.167079E-1	8.548778E-1	7.606241E-1	9.614645E-1	9.136310E-1	9.061276E-1
2.955070E+2	1.239158E+0	1.047511E+0	1.164100E+0	1.121880E+0	1.052189E+0	1.034235E+0	1.028601E+0	1.180781E+0	1.097973E+0	1.022651E+0	1.150504E+0	1.141288E+0	1.114253E+0	1.126121E+0	1.158621E+0	1.157424E+0	1.100488E+0	1.104200E+0	1.064046E+0	1.144385E+0	1.128197E+0	1.005793E+0	1.127995E+0	1.145465E+0	1.124440E+0	1.068748E+0	1.126939E+0	1.083411E+0	1.147673E+0	1.073027E+0	1.081600E+0	1.097330E+0	1.160843E+0	1.032548E+0	1.138050E+0	1.111040E+0	1.097188E+0	1.007568E+0	1.163534E+0	1.179985E+0	1.168140E+0	1.036675E+0	1.131628E+0	1.093634E+0	1.145307E+0	1.123956E+0	1.112045E+0	1.062224E+0	1.220802E+0	1.086518E+0	1.158758E+0	1.081317E+0	1.118946E+0	9.732343E-1	1.087674E+0	1.176645E+0	1.158571E+0	1.012050E+0	1.215322E+0	1.137293E+0	1.134978E+0	1.087215E+0	1.100317E+0	1.138329E+0	1.083566E+0	1.023726E+0	1.156892E+0	1.057226E+0	1.095710E+0	1.000988E+0	1.067734E+0	1.126713E+0	1.110344E+0	1.001049E+0	1.119670E+0	1.105927E+0	1.077391E+0	1.002398E+0	1.083558E+0	1.063427E+0	1.149104E+0	1.074801E+0	1.140913E+0	1.109292E+0	1.080009E+0	1.008561E+0	1.203073E+0	1.100360E+0	1.201053E+0	1.046868E+0	1.075109E+0	1.089216E+0	1.169529E+0	1.132722E+0	1.124091E+0	1.119752E+0	1.165055E+0	1.074947E+0	1.163656E+0	1.080897E+0	1.135874E+0	1.026171E+0	1.154113E+0	1.066464E+0	1.110936E+0	1.018929E+0	1.067701E+0	1.108025E+0	1.146569E+0	1.044796E+0	1.144551E+0	1.144163E+0	1.140315E+0	1.091728E+0	1.164733E+0	1.018459E+0	1.202241E+0	9.803688E-1	1.128455E+0	1.126731E+0	1.083874E+0	1.071409E+0	1.183986E+0	1.156208E+0	1.102995E+0	1.023819E+0	1.160448E+0	1.131980E+0	1.063274E+0	1.098163E+0	1.068743E+0	1.135504E+0	1.117845E+0	1.015168E+0	1.109612E+0	1.137474E+0	1.112736E+0	1.043004E+0	1.102198E+0	1.089782E+0	1.126087E+0	1.206704E+0	1.098718E+0	1.164203E+0	1.176456E+0	1.120750E+0	9.763075E-1	1.142953E+0	1.103482E+0	1.049511E+0	1.064781E+0	1.189657E+0	1.068161E+0	1.015103E+0	1.151607E+0	1.078685E+0	1.098620E+0	1.060903E+0	1.188270E+0	1.144012E+0	1.100216E+0	1.046994E+0	1.185380E+0	1.204990E+0	1.100998E+0	1.093523E+0	1.045015E+0	1.082665E+0	1.132876E+0	1.046936E+0
2.960050E+2	1.217063E+0	1.071365E+0	1.211883E+0	1.264144E+0	1.137107E+0	1.118881E+0	1.187276E+0	1.201843E+0	1.193614E+0	1.124025E+0	1.200998E+0	1.253415E+0	1.194559E+0	1.185688E+0	1.175396E+0	1.171583E+0	1.230007E+0	1.212247E+0	1.190975E+0	1.197677E+0	1.199554E+0	9.759954E-1	1.175329E+0	1.195754E+0	1.153335E+0	1.115253E+0	1.133201E+0	1.211924E+0	1.242025E+0	1.183347E+0	1.157255E+0	1.166558E+0	1.220750E+0	1.095167E+0	1.217651E+0	1.073172E+0	1.141162E+0	1.018196E+0	1.249142E+0	1.177786E+0	1.214805E+0	1.129272E+0	1.237391E+0	1.135381E+0	1.192715E+0	1.114711E+0	1.192672E+0	1.220754E+0	1.234846E+0	1.221439E+0	1.245460E+0	1.171753E+0	1.171732E+0	1.037061E+0	1.198170E+0	1.214457E+0	1.169000E+0	1.134845E+0	1.192913E+0	1.155226E+0	1.189683E+0	1.141415E+0	1.206535E+0	1.147374E+0	1.182277E+0	1.069117E+0	1.261359E+0	1.224964E+0	1.187675E+0	1.078983E+0	1.114667E+0	1.171879E+0	1.236397E+0	1.056626E+0	1.192045E+0	1.208051E+0	1.186135E+0	1.093851E+0	1.231211E+0	1.224314E+0	1.190952E+0	1.162371E+0	1.208805E+0	1.130910E+0	1.188890E+0	1.155164E+0	1.234078E+0	1.313465E+0	1.172251E+0	1.116036E+0	1.172934E+0	1.184354E+0	1.142704E+0	1.190864E+0	1.178029E+0	1.189108E+0	1.177825E+0	1.149341E+0	1.183316E+0	1.247676E+0	1.252042E+0	1.123805E+0	1.149488E+0	1.219437E+0	1.148717E+0	1.087961E+0	1.267991E+0	1.239499E+0	1.220946E+0	1.119925E+0	1.238660E+0	1.231444E+0	1.126971E+0	1.180805E+0	1.238216E+0	1.198859E+0	1.224650E+0	1.102217E+0	1.193116E+0	1.220351E+0	1.263360E+0	1.124694E+0	1.155868E+0	1.133552E+0	1.164567E+0	1.200608E+0	1.306738E+0	1.180710E+0	1.214014E+0	1.061719E+0	1.202703E+0	1.212224E+0	1.129662E+0	1.046192E+0	1.169814E+0	1.162887E+0	1.268015E+0	1.064888E+0	1.150481E+0	1.176295E+0	1.215090E+0	1.093106E+0	1.155881E+0	1.249688E+0	1.210926E+0	1.124223E+0	9.327438E-1	1.121973E+0	1.134187E+0	1.184438E+0	1.137366E+0	1.227031E+0	1.188991E+0	1.072276E+0	1.134443E+0	1.159719E+0	1.189267E+0	1.150497E+0	1.205648E+0	1.220058E+0	1.169768E+0	1.144299E+0	1.207039E+0	1.138086E+0	1.133520E+0	1.162322E+0	1.226136E+0	1.285913E+0	1.075929E+0	1.093872E+0
2.965070E+2	1.145868E+0	1.123845E+0	1.180447E+0	1.136856E+0	1.163645E+0	1.140325E+0	1.179049E+0	1.224075E+0	1.275259E+0	1.137393E+0	1.156375E+0	1.172091E+0	1.174772E+0	1.235327E+0	1.170922E+0	1.177650E+0	1.073691E+0	1.120984E+0	1.263173E+0	1.232378E+0	1.125049E+0	1.049497E+0	1.193077E+0	1.225927E+0	1.215748E+0	1.071781E+0	1.138212E+0	1.131604E+0	1.131405E+0	1.187511E+0	1.130236E+0	1.242486E+0	1.131433E+0	1.086677E+0	1.192271E+0	1.153642E+0	1.089540E+0	1.007567E+0	1.204143E+0	1.256964E+0	1.223693E+0	1.167400E+0	1.147723E+0	1.082898E+0	1.220466E+0	1.159911E+0	1.159985E+0	1.201055E+0	1.202076E+0	1.075084E+0	1.199767E+0	1.165053E+0	1.169622E+0	9.783812E-1	1.223390E+0	1.301204E+0	1.202608E+0	1.144024E+0	1.113358E+0	1.216869E+0	1.212278E+0	1.153240E+0	1.151343E+0	1.220725E+0	1.175547E+0	1.155771E+0	1.263707E+0	1.125897E+0	1.150248E+0	1.055288E+0	1.210666E+0	1.247155E+0	1.202328E+0	9.926594E-1	1.119669E+0	1.152783E+0	1.250294E+0	1.122624E+0	1.180524E+0	1.150058E+0	1.205655E+0	1.152520E+0	1.175920E+0	1.290647E+0	1.200767E+0	1.060994E+0	1.161730E+0	1.211830E+0	1.196622E+0	1.046868E+0	1.186124E+0	1.168305E+0	1.250000E+0	1.184634E+0	1.222448E+0	1.209699E+0	1.230070E+0	1.136018E+0	1.216084E+0	1.180963E+0	1.224037E+0	1.108707E+0	1.187632E+0	1.146643E+0	1.187611E+0	1.073487E+0	1.162221E+0	1.117251E+0	1.237353E+0	1.099819E+0	1.219410E+0	1.206826E+0	1.177922E+0	1.183987E+0	1.239251E+0	1.154329E+0	1.257143E+0	1.044339E+0	1.233790E+0	1.174683E+0	1.178160E+0	1.062709E+0	1.174206E+0	1.163362E+0	1.197034E+0	1.105333E+0	1.191123E+0	1.137055E+0	1.183865E+0	1.139310E+0	1.187426E+0	1.166421E+0	1.174962E+0	1.059637E+0	1.074400E+0	1.223241E+0	1.205265E+0	1.116722E+0	1.142031E+0	1.177449E+0	1.205961E+0	1.213731E+0	1.193585E+0	1.220837E+0	1.226930E+0	1.080243E+0	1.004968E+0	1.154060E+0	1.108031E+0	1.091463E+0	1.170147E+0	1.239918E+0	1.223846E+0	1.080906E+0	1.133218E+0	1.177334E+0	1.148980E+0	1.182711E+0	1.247854E+0	1.210140E+0	1.231467E+0	1.117761E+0	1.238891E+0	1.179344E+0	1.174715E+0	1.177371E+0	1.224547E+0	1.159117E+0	1.178431E+0	1.177315E+0
2.970040E+2	1.170419E+0	1.167976E+0	1.221943E+0	1.138102E+0	1.164706E+0	1.232871E+0	1.177873E+0	1.130467E+0	1.149292E+0	1.171926E+0	1.129367E+0	1.226306E+0	1.120072E+0	1.182377E+0	1.196645E+0	1.211023E+0	1.207675E+0	1.182875E+0	1.192139E+0	1.255926E+0	1.297146E+0	1.100153E+0	1.142195E+0	1.060534E+0	1.171828E+0	1.206243E+0	1.230910E+0	1.171146E+0	1.178039E+0	1.196878E+0	1.197244E+0	1.206755E+0	1.216393E+0	1.112147E+0	1.208421E+0	1.187959E+0	1.133514E+0	1.046214E+0	1.279874E+0	1.204178E+0	1.249248E+0	1.131452E+0	1.247738E+0	1.203370E+0	1.174214E+0	1.182511E+0	1.185046E+0	1.232949E+0	1.280490E+0	1.144830E+0	1.234916E+0	1.134908E+0	1.152729E+0	9.680863E-1	1.232998E+0	1.189991E+0	1.180590E+0	1.059102E+0	1.173864E+0	1.240404E+0	1.234874E+0	1.100024E+0	1.165922E+0	1.169478E+0	1.190128E+0	1.085623E+0	1.227319E+0	1.124771E+0	1.190883E+0	1.053313E+0	1.153067E+0	1.069720E+0	1.164852E+0	9.916109E-1	1.211575E+0	1.121546E+0	1.135026E+0	1.162699E+0	1.265369E+0	1.153152E+0	1.178512E+0	1.131722E+0	1.236386E+0	1.176550E+0	1.136429E+0	1.042804E+0	1.199626E+0	1.146259E+0	1.203267E+0	1.055940E+0	1.156446E+0	1.180916E+0	1.110515E+0	1.173214E+0	1.134667E+0	1.257383E+0	1.176664E+0	1.053852E+0	1.172394E+0	1.129206E+0	1.198107E+0	1.105688E+0	1.162203E+0	1.217328E+0	1.188721E+0	1.095755E+0	1.192601E+0	1.110331E+0	1.261417E+0	1.102994E+0	1.172355E+0	1.207945E+0	1.208249E+0	1.180805E+0	1.243391E+0	1.139485E+0	1.241457E+0	1.082924E+0	1.175386E+0	1.163266E+0	1.229280E+0	1.108382E+0	1.236553E+0	1.230138E+0	1.179121E+0	1.123330E+0	1.239492E+0	1.222335E+0	1.198381E+0	1.162822E+0	1.180376E+0	1.135503E+0	1.245866E+0	1.107209E+0	1.189124E+0	1.222182E+0	1.168040E+0	1.024572E+0	1.082885E+0	1.178602E+0	1.241334E+0	1.204363E+0	1.109664E+0	1.209083E+0	1.212157E+0	1.057096E+0	1.030189E+0	1.178742E+0	1.202416E+0	1.120943E+0	1.219318E+0	1.211566E+0	1.199448E+0	1.055016E+0	1.114829E+0	1.147974E+0	1.133871E+0	1.136403E+0	1.194476E+0	1.151727E+0	1.281948E+0	1.129924E+0	1.200668E+0	1.175998E+0	1.203983E+0	1.126848E+0	1.186416E+0	1.276591E+0	1.161348E+0	1.099087E+0
2.975020E+2	1.008387E+0	9.604414E-1	9.805091E-1	1.050748E+0	9.375496E-1	9.405598E-1	9.815859E-1	1.005265E+0	1.045488E+0	1.015967E+0	9.931501E-1	9.145698E-1	9.513123E-1	1.016913E+0	9.550792E-1	9.966288E-1	1.012281E+0	9.982514E-1	9.208151E-1	9.820292E-1	9.582009E-1	9.750030E-1	1.004930E+0	1.020302E+0	1.005394E+0	9.787686E-1	9.164887E-1	1.001853E+0	9.459562E-1	9.283611E-1	9.410965E-1	1.028101E+0	9.985476E-1	9.285368E-1	9.730817E-1	9.489179E-1	1.011153E+0	1.022060E+0	9.593910E-1	9.611438E-1	9.681499E-1	9.571507E-1	9.476938E-1	9.194870E-1	9.394877E-1	9.708941E-1	9.649523E-1	1.010632E+0	9.680103E-1	9.893286E-1	9.548919E-1	9.372909E-1	9.943693E-1	9.876466E-1	9.219338E-1	9.964780E-1	9.673585E-1	1.009754E+0	9.452820E-1	9.501264E-1	1.011298E+0	9.630447E-1	9.576518E-1	9.835879E-1	9.882220E-1	9.267569E-1	1.026605E+0	1.006567E+0	1.001604E+0	8.637549E-1	1.006933E+0	9.396004E-1	9.956471E-1	9.874160E-1	9.496435E-1	9.605529E-1	9.490710E-1	8.914196E-1	9.006468E-1	9.943278E-1	9.749302E-1	9.686208E-1	9.138967E-1	9.891913E-1	9.731101E-1	9.058324E-1	1.025073E+0	9.867038E-1	9.761839E-1	9.425496E-1	9.607974E-1	1.015856E+0	9.860513E-1	9.198820E-1	9.538190E-1	9.561100E-1	1.016447E+0	9.272718E-1	1.020570E+0	1.022236E+0	9.616234E-1	8.792144E-1	9.795802E-1	9.472500E-1	9.431427E-1	9.131529E-1	9.866852E-1	9.961557E-1	9.879686E-1	9.209909E-1	9.445681E-1	9.841477E-1	9.668416E-1	9.199355E-1	1.006383E+0	9.705043E-1	9.983202E-1	8.554743E-1	9.647144E-1	9.520476E-1	1.016850E+0	8.669678E-1	9.566013E-1	9.916533E-1	9.966412E-1	9.274839E-1	9.563478E-1	9.340103E-1	1.001860E+0	9.582664E-1	9.947120E-1	9.591587E-1	9.770219E-1	8.548708E-1	9.596763E-1	9.733523E-1	9.500137E-1	8.828951E-1	1.027360E+0	1.007882E+0	9.651972E-1	9.478851E-1	1.031824E+0	9.932325E-1	9.967176E-1	9.934416E-1	8.421785E-1	9.528984E-1	9.954512E-1	8.998436E-1	9.945366E-1	9.757284E-1	9.879942E-1	9.492980E-1	9.922360E-1	9.389313E-1	9.525784E-1	9.099034E-1	1.014482E+0	1.034901E+0	1.001496E+0	8.999304E-1	1.024845E+0	9.864331E-1	9.557344E-1	8.925019E-1	9.623994E-1	9.987569E-1	1.027525E+0	8.487614E-1
2.980040E+2	1.058716E+0	1.048702E+0	1.043383E+0	1.058236E+0	1.074480E+0	1.033106E+0	1.052108E+0	1.125786E+0	1.017495E+0	1.066098E+0	1.061258E+0	1.030393E+0	1.018816E+0	1.034564E+0	1.062442E+0	1.024946E+0	1.007816E+0	1.008742E+0	1.054731E+0	1.013013E+0	1.041100E+0	1.021686E+0	1.061730E+0	1.014714E+0	1.035445E+0	1.002022E+0	1.045514E+0	1.010503E+0	1.073926E+0	1.033478E+0	1.012429E+0	1.019168E+0	1.055188E+0	1.034670E+0	1.033071E+0	1.055422E+0	1.024536E+0	1.063605E+0	1.029634E+0	1.013930E+0	1.012592E+0	1.058463E+0	1.028165E+0	1.101983E+0	1.065523E+0	1.027393E+0	1.039043E+0	1.037834E+0	1.042913E+0	1.095664E+0	1.061511E+0	1.076851E+0	1.021819E+0	1.017501E+0	1.037232E+0	1.006487E+0	1.072815E+0	1.059102E+0	1.097670E+0	9.859906E-1	1.064813E+0	1.085243E+0	1.098234E+0	1.013732E+0	1.089175E+0	1.045390E+0	1.082947E+0	1.040340E+0	1.057211E+0	1.080958E+0	1.053867E+0	1.013800E+0	9.945110E-1	1.050334E+0	1.019721E+0	1.033840E+0	1.087177E+0	1.025004E+0	1.002020E+0	1.005673E+0	1.077851E+0	1.024447E+0	1.043317E+0	1.074463E+0	1.088918E+0	1.032103E+0	1.097421E+0	1.066481E+0	1.001662E+0	9.969766E-1	1.063018E+0	1.007833E+0	1.043991E+0	1.038242E+0	1.049002E+0	1.125169E+0	1.026896E+0	1.039418E+0	1.005279E+0	1.010736E+0	9.999993E-1	9.677904E-1	9.946058E-1	1.075960E+0	1.018705E+0	1.040083E+0	1.042946E+0	1.013455E+0	1.090785E+0	9.971787E-1	1.047233E+0	1.069191E+0	1.054185E+0	1.028102E+0	1.045711E+0	1.026451E+0	1.015125E+0	9.235070E-1	1.015817E+0	1.025118E+0	1.058882E+0	9.517907E-1	1.003056E+0	1.013117E+0	1.022391E+0	9.592435E-1	1.061348E+0	1.023351E+0	1.054342E+0	9.935341E-1	1.069917E+0	1.023284E+0	1.104059E+0	9.500154E-1	9.994327E-1	1.031589E+0	9.904289E-1	9.485515E-1	1.032188E+0	1.020571E+0	1.014264E+0	1.028693E+0	1.040339E+0	1.026358E+0	1.007797E+0	1.001542E+0	9.751614E-1	1.003497E+0	1.025017E+0	9.497333E-1	9.910239E-1	1.040165E+0	1.021688E+0	9.838192E-1	1.057210E+0	1.000000E+0	1.019304E+0	1.012583E+0	1.081514E+0	1.055841E+0	1.025053E+0	1.043677E+0	9.968153E-1	1.051108E+0	1.076065E+0	1.044074E+0	1.051371E+0	9.857050E-1	1.084471E+0	9.843547E-1
2.985020E+2	1.034165E+0	1.058245E+0	1.003144E+0	1.064477E+0	1.016100E+0	1.061321E+0	1.038004E+0	1.042709E+0	9.988336E-1	1.005941E+0	9.790584E-1	1.089537E+0	1.070026E+0	1.046698E+0	1.042312E+0	1.006741E+0	1.074808E+0	9.919576E-1	1.044251E+0	1.021689E+0	1.008569E+0	9.859291E-1	9.871814E-1	1.050475E+0	1.082832E+0	1.017187E+0	1.014197E+0	1.078468E+0	1.052237E+0	1.044926E+0	1.071873E+0	9.789705E-1	1.035581E+0	1.062265E+0	1.094213E+0	1.064888E+0	1.040787E+0	1.037518E+0	9.967073E-1	1.005131E+0	1.085923E+0	1.098770E+0	1.048858E+0	9.982114E-1	1.059741E+0	1.063348E+0	1.073909E+0	9.759240E-1	1.031209E+0	1.020200E+0	1.111892E+0	1.053405E+0	1.087274E+0	1.001028E+0	1.093679E+0	1.023170E+0	1.004443E+0	1.045330E+0	9.878617E-1	1.077893E+0	9.815665E-1	1.032027E+0	1.020133E+0	1.062969E+0	1.021874E+0	1.105222E+0	1.017215E+0	1.021202E+0	1.061489E+0	1.088856E+0	1.018666E+0	1.084774E+0	9.899691E-1	1.048237E+0	1.054186E+0	1.027833E+0	1.034979E+0	1.110293E+0	1.083559E+0	1.066520E+0	9.873704E-1	9.981759E-1	1.066655E+0	1.034830E+0	1.046356E+0	1.110219E+0	9.998085E-1	1.005283E+0	1.065909E+0	1.095625E+0	1.042134E+0	1.002102E+0	1.012876E+0	1.043433E+0	1.025735E+0	1.041724E+0	1.023413E+0	1.057183E+0	9.736041E-1	1.068245E+0	1.062233E+0	1.095622E+0	1.043151E+0	1.017935E+0	1.030930E+0	1.062352E+0	1.071077E+0	1.039981E+0	1.062347E+0	1.020457E+0	1.038677E+0	1.034502E+0	1.027497E+0	1.064157E+0	1.067446E+0	1.076688E+0	1.043137E+0	1.136741E+0	1.035634E+0	1.005708E+0	1.073650E+0	1.095333E+0	1.078851E+0	1.056044E+0	1.034704E+0	1.065105E+0	1.001181E+0	1.080203E+0	1.024193E+0	1.055842E+0	1.021739E+0	1.058782E+0	1.080423E+0	9.717322E-1	1.049411E+0	1.063355E+0	1.026589E+0	1.008447E+0	1.027360E+0	1.105931E+0	1.099843E+0	9.947297E-1	1.059799E+0	1.089404E+0	1.052116E+0	9.355747E-1	1.113876E+0	1.129378E+0	1.030703E+0	9.406621E-1	1.036684E+0	1.096869E+0	1.066999E+0	9.967640E-1	1.033917E+0	1.051674E+0	1.068405E+0	1.056877E+0	1.071583E+0	1.021676E+0	1.066561E+0	1.012716E+0	1.012103E+0	1.073410E+0	1.040291E+0	1.006450E+0	1.060903E+0	1.008081E+0	9.962038E-1	1.010430E+0
2.990020E+2	1.009616E+0	1.066593E+0	1.171644E+0	1.002079E+0	1.078725E+0	1.078251E+0	1.087370E+0	9.783528E-1	1.055985E+0	1.092834E+0	1.073002E+0	1.079681E+0	1.106106E+0	1.043389E+0	1.062441E+0	1.070453E+0	1.063643E+0	1.039163E+0	1.101310E+0	1.071262E+0	1.077828E+0	1.098167E+0	1.034514E+0	1.060533E+0	1.025042E+0	1.097056E+0	1.039250E+0	1.031511E+0	1.072842E+0	1.045967E+0	1.094569E+0	1.077231E+0	1.104202E+0	1.051652E+0	1.039992E+0	1.082638E+0	1.014021E+0	1.017230E+0	1.053779E+0	1.070015E+0	1.069255E+0	1.044301E+0	1.052307E+0	1.087669E+0	1.075929E+0	1.105467E+0	1.071730E+0	1.078171E+0	1.085045E+0	1.049928E+0	1.012303E+0	1.074619E+0	1.022874E+0	1.149273E+0	1.068458E+0	1.082113E+0	1.082086E+0	1.101564E+0	1.064056E+0	1.100308E+0	1.044597E+0	1.047795E+0	1.068035E+0	1.039857E+0	1.017386E+0	1.048485E+0	1.051254E+0	1.061729E+0	1.037963E+0	1.083919E+0	1.064533E+0	1.107357E+0	1.053564E+0	1.058723E+0	1.064525E+0	1.050661E+0	1.038242E+0	1.065080E+0	1.095680E+0	1.060333E+0	1.073327E+0	1.083558E+0	1.093176E+0	1.013211E+0	1.043387E+0	1.010700E+0	1.026222E+0	1.066482E+0	1.027139E+0	1.063875E+0	1.037738E+0	1.063998E+0	1.043992E+0	1.101574E+0	1.052175E+0	1.051476E+0	1.038507E+0	1.106037E+0	1.081738E+0	1.097000E+0	1.050823E+0	1.098641E+0	1.090541E+0	1.104444E+0	1.087601E+0	1.072373E+0	1.067701E+0	1.096492E+0	1.024064E+0	1.104052E+0	1.042955E+0	1.016598E+0	1.086938E+0	1.109756E+0	1.033291E+0	1.062987E+0	1.028571E+0	1.077848E+0	1.118025E+0	1.091337E+0	9.827704E-1	1.075759E+0	1.060514E+0	1.045311E+0	1.031347E+0	1.109568E+0	1.113258E+0	1.021319E+0	9.918115E-1	1.065246E+0	1.074618E+0	1.024429E+0	1.045956E+0	1.219934E+0	1.063041E+0	1.045355E+0	1.042542E+0	1.153580E+0	1.033395E+0	9.813506E-1	1.094138E+0	1.093105E+0	1.039122E+0	1.017809E+0	1.033649E+0	1.149685E+0	1.090948E+0	9.837500E-1	1.076191E+0	1.107338E+0	1.088195E+0	1.046609E+0	1.079780E+0	1.056095E+0	1.065791E+0	1.069290E+0	1.114988E+0	1.074997E+0	1.052964E+0	1.033798E+0	1.047490E+0	1.050311E+0	1.077083E+0	1.092366E+0	1.027282E+0	1.046224E+0	1.065669E+0	1.069613E+0	1.061692E+0	1.104303E+0
2.995040E+2	9.727909E-1	1.035583E+0	9.779936E-1	9.846091E-1	9.980546E-1	1.050035E+0	1.019198E+0	9.923941E-1	1.008164E+0	9.580391E-1	1.001369E+0	1.016839E+0	9.908829E-1	1.008090E+0	1.038956E+0	1.007754E+0	1.014514E+0	1.071681E+0	1.030277E+0	1.058870E+0	1.022212E+0	1.000827E+0	1.016764E+0	9.342525E-1	1.013484E+0	1.037407E+0	1.083094E+0	1.022861E+0	9.947591E-1	1.067824E+0	1.038368E+0	1.018052E+0	9.865667E-1	1.068632E+0	9.800038E-1	1.053055E+0	9.853421E-1	1.011433E+0	1.039512E+0	1.030425E+0	1.020369E+0	1.069357E+0	1.076448E+0	1.004175E+0	1.003084E+0	1.006848E+0	9.867439E-1	1.039711E+0	9.621588E-1	9.653168E-1	9.490338E-1	9.808333E-1	1.018651E+0	1.027796E+0	9.867894E-1	1.025394E+0	1.020666E+0	9.776213E-1	1.023717E+0	9.927147E-1	1.023190E+0	1.016260E+0	1.025339E+0	1.004690E+0	1.026360E+0	1.017537E+0	9.831764E-1	1.008819E+0	1.015507E+0	1.038504E+0	1.001600E+0	9.912177E-1	1.063783E+0	9.528115E-1	1.058782E+0	1.050661E+0	1.003444E+0	1.014729E+0	1.004223E+0	1.033518E+0	1.002073E+0	1.012406E+0	1.013613E+0	1.015613E+0	9.533140E-1	1.052435E+0	9.688024E-1	1.012932E+0	1.065910E+0	1.048001E+0	1.035539E+0	1.062852E+0	1.027897E+0	1.045510E+0	1.019389E+0	9.604439E-1	1.024574E+0	1.004997E+0	1.020570E+0	1.002684E+0	1.015559E+0	1.059386E+0	1.036217E+0	9.810101E-1	1.069821E+0	1.027836E+0	9.788086E-1	9.604034E-1	9.617175E-1	1.055376E+0	1.042955E+0	1.075906E+0	9.801866E-1	1.028102E+0	9.825777E-1	1.028735E+0	1.061065E+0	1.064647E+0	9.918303E-1	1.063937E+0	9.793630E-1	1.047486E+0	1.071516E+0	1.004770E+0	1.027988E+0	1.066164E+0	9.964606E-1	9.898474E-1	1.081139E+0	1.058192E+0	9.817869E-1	1.035879E+0	9.563414E-1	1.103073E+0	1.030100E+0	1.001941E+0	1.043605E+0	1.067191E+0	1.021324E+0	1.058637E+0	9.560693E-1	1.082564E+0	9.819597E-1	9.579694E-1	1.022569E+0	1.017747E+0	1.054262E+0	1.029413E+0	1.004549E+0	1.069920E+0	1.065951E+0	1.011814E+0	1.003098E+0	1.071197E+0	1.002044E+0	1.066940E+0	9.676860E-1	1.088084E+0	9.536568E-1	1.005143E+0	1.001496E+0	1.044783E+0	9.840742E-1	9.964688E-1	1.013189E+0	1.072024E+0	9.655766E-1	1.041644E+0	9.221730E-1	1.093872E+0
3.000060E+2	9.163254E-1	8.304351E-1	8.233264E-1	8.398505E-1	8.950910E-1	8.367267E-1	8.217345E-1	8.554926E-1	8.740343E-1	8.611214E-1	8.921620E-1	8.689805E-1	8.628574E-1	8.503461E-1	8.387702E-1	8.934776E-1	8.269375E-1	8.902054E-1	8.486164E-1	8.531369E-1	8.920903E-1	9.183874E-1	8.948815E-1	9.197242E-1	8.378032E-1	8.675597E-1	9.014562E-1	8.548043E-1	8.602797E-1	8.794449E-1	8.416651E-1	8.784771E-1	8.199146E-1	8.542437E-1	8.796386E-1	7.950782E-1	9.241617E-1	8.481545E-1	9.209763E-1	9.193546E-1	8.437113E-1	7.719584E-1	8.465297E-1	8.884752E-1	8.562351E-1	8.260501E-1	8.636216E-1	8.577287E-1	9.106651E-1	8.795619E-1	9.103686E-1	8.770002E-1	8.550128E-1	8.167548E-1	8.919075E-1	8.663581E-1	8.526310E-1	8.066279E-1	8.814136E-1	8.929678E-1	8.745361E-1	8.556301E-1	8.306072E-1	8.951645E-1	8.569827E-1	8.566087E-1	8.388021E-1	8.613444E-1	8.262260E-1	8.440084E-1	8.544004E-1	8.632496E-1	9.025259E-1	9.024777E-1	8.531431E-1	8.764518E-1	8.870865E-1	8.934753E-1	9.138708E-1	8.396284E-1	8.844485E-1	9.127929E-1	8.693422E-1	8.726911E-1	8.949145E-1	8.887104E-1	8.826739E-1	8.621182E-1	8.631962E-1	8.529720E-1	8.607737E-1	8.473592E-1	8.851930E-1	8.513582E-1	8.998806E-1	8.650768E-1	8.701629E-1	8.650934E-1	8.982387E-1	7.990987E-1	9.097626E-1	8.993461E-1	8.559052E-1	8.734012E-1	8.498009E-1	8.842040E-1	8.527825E-1	8.935124E-1	8.731192E-1	9.019443E-1	8.836112E-1	8.196563E-1	8.843511E-1	8.499470E-1	8.645914E-1	8.346347E-1	8.537812E-1	9.417835E-1	8.739790E-1	8.618527E-1	8.884840E-1	9.626642E-1	8.294613E-1	8.891042E-1	8.869295E-1	8.724358E-1	8.714051E-1	9.512695E-1	8.466548E-1	8.689195E-1	8.572269E-1	8.984678E-1	8.361991E-1	9.003749E-1	8.983390E-1	8.844082E-1	9.468220E-1	9.393359E-1	8.583721E-1	8.256283E-1	8.704891E-1	8.530225E-1	8.469562E-1	9.152272E-1	8.871507E-1	9.020106E-1	9.235738E-1	9.010642E-1	8.680883E-1	1.032503E+0	8.236092E-1	8.288143E-1	8.404413E-1	9.428270E-1	8.488020E-1	8.731647E-1	8.770384E-1	8.575555E-1	8.257998E-1	8.486412E-1	8.579036E-1	9.485830E-1	9.050804E-1	8.002139E-1	8.874383E-1	9.387263E-1	8.940813E-1	8.962007E-1	9.079354E-1	9.582788E-1
