Photon Energy (eV)	#1	#2	#3	#4	#5	#6	#7	#8	#9	#10	#11	#12	#13	#14	#15	#16	#17	#18	#19	#20	#21	#22	#23	#24	#25	#26	#27	#28	#29	#30	#31	#32	#33	#34	#35	#36	#37	#38	#39	#40	#41	#42	#43	#44	#45	#46	#47	#48	#49	#50	#51	#52	#53	#54	#55	#56	#57	#58	#59	#60	#61	#62	#63	#64	#65	#66	#67	#68	#69	#70	#71	#72	#73	#74	#75	#76	#77	#78	#79	#80	#81	#82	#83	#84	#85	#86	#87	#88	#89	#90	#91	#92	#93	#94	#95	#96	#97	#98	#99	#100	#101	#102	#103	#104	#105	#106	#107	#108	#109	#110	#111	#112	#113	#114	#115	#116	#117	#118	#119	#120	#121	#122	#123	#124	#125	#126	#127	#128	#129	#130	#131	#132	#133	#134	#135	#136	#137	#138	#139	#140	#141	#142	#143	#144	#145	#146	#147	#148	#149	#150	#151	#152	#153	#154	#155	#156	#157	#158	#159	#160	#161	#162	#163	#164	#165	#166	#167	#168	#169	#170	
2.790040E+2	-2.520931E-3	-8.677192E-3	6.404506E-4	-5.375467E-3	3.041313E-3	-2.062761E-4	-3.315624E-3	-7.430499E-3	5.789861E-3	-4.899216E-3	-2.258556E-3	8.905448E-4	-3.390972E-3	3.706528E-3	-2.266525E-3	-6.468628E-5	-2.011063E-3	-2.986692E-3	-6.196421E-3	-1.419783E-2	-1.610284E-2	-7.930118E-3	-1.342355E-2	-5.757888E-3	-7.856243E-3	-1.223753E-2	9.440660E-3	-3.293795E-3	-2.097853E-2	-3.771130E-3	-1.166052E-2	-2.076471E-2	4.805903E-3	-4.002130E-3	-3.246576E-4	-8.386960E-3	-7.595179E-3	1.267949E-3	-1.066166E-2	1.346060E-3	-1.182835E-2	5.495963E-3	-2.169136E-3	-1.262637E-2	-9.167010E-3	-8.827354E-3	-1.408979E-2	-7.687804E-3	-8.415347E-3	-1.348562E-3	-5.460732E-3	-7.853789E-3	2.635461E-3	8.195915E-3	7.840410E-3	-6.251945E-3	4.968351E-3	-6.482527E-3	-6.353960E-3	1.322032E-3	-1.327143E-2	-2.268996E-3	1.208652E-3	-9.840069E-3	-5.971686E-3	-3.328443E-3	-3.297845E-3	-1.143532E-2	-9.809622E-3	-1.174817E-2	-3.589868E-4	-6.960254E-3	-3.200910E-3	-2.041237E-3	-1.997919E-2	1.204894E-3	-4.037994E-3	4.363479E-3	-1.525538E-2	-3.179181E-4	-2.803122E-3	2.673289E-3	-1.200735E-3	-2.232036E-3	-7.304959E-3	2.876766E-3	-9.524346E-3	1.263282E-2	-7.085948E-3	-6.726199E-3	-3.461639E-3	5.453678E-3	-6.010800E-3	4.467459E-3	1.069680E-3	8.426529E-4	-6.913555E-3	-2.300572E-2	-1.337064E-2	-5.940792E-3	-3.824751E-4	-3.100652E-3	-8.672748E-3	-1.271570E-2	-3.084332E-3	-3.806595E-3	4.574826E-3	1.583348E-3	-7.759974E-3	9.027448E-4	-5.488517E-3	4.325600E-3	-1.721178E-3	-1.556185E-2	5.254893E-3	4.036737E-3	-3.908074E-3	-6.965710E-3	2.994958E-3	-2.995433E-3	-1.493628E-3	-8.919456E-3	-8.338842E-3	-1.270763E-2	-8.433933E-3	-6.804025E-3	-9.144248E-4	-6.457344E-3	-7.172646E-3	-7.215009E-3	-1.737613E-2	-3.363478E-3	2.601801E-3	-1.098780E-2	-4.058404E-3	3.995794E-3	-6.835740E-3	-2.282457E-3	4.216325E-3	-3.171958E-3	2.726515E-3	-9.193294E-3	3.062484E-3	-2.137372E-3	-1.732755E-2	-1.985308E-2	3.878128E-3	9.731828E-3	-1.635449E-2	2.960791E-3	-8.466507E-3	-1.122808E-2	-1.338683E-3	-9.942429E-3	-6.165145E-3	-2.256266E-3	-1.432978E-2	7.309490E-3	8.183819E-4	-5.811045E-4	2.701485E-3	-7.459857E-3	-3.569426E-3	1.434741E-4	-1.473003E-2	-9.085576E-3	-1.819621E-2	-1.270723E-2	-3.790464E-3	-1.722310E-2
2.795020E+2	-1.195766E-2	4.869193E-3	1.252746E-2	-4.060649E-3	-1.146607E-3	-5.432353E-3	3.949531E-3	-1.587935E-3	-6.957086E-3	-1.499863E-3	-9.715600E-4	-8.840198E-3	-6.568144E-3	-8.385596E-3	-8.501663E-3	-2.852998E-3	-7.842137E-4	9.775455E-3	-1.163221E-2	9.399597E-3	-1.180877E-2	6.334322E-3	-4.354281E-3	2.612584E-3	-5.330032E-3	6.902102E-4	-2.428680E-3	-3.152266E-3	2.097550E-3	-5.800083E-3	1.260364E-2	-1.727602E-3	-3.944452E-3	-7.245052E-3	-1.360268E-3	1.596663E-3	2.281417E-3	-5.377429E-3	1.589332E-3	-1.567912E-2	1.255614E-3	3.503769E-3	3.732123E-3	-1.854386E-3	-9.179166E-4	1.034104E-2	-1.108581E-3	1.803428E-3	-1.060439E-2	-4.628670E-3	-4.162463E-3	6.955837E-3	-1.580619E-3	-5.174566E-3	-2.919088E-3	-7.233722E-3	-8.867841E-3	-9.836075E-3	-1.403442E-2	-9.820074E-3	-3.541502E-3	-6.103601E-3	3.499337E-3	-5.650021E-3	-3.647788E-3	3.258869E-3	6.709292E-3	-1.443041E-3	1.029313E-2	1.400974E-3	-6.962109E-3	-1.388181E-2	-6.653683E-3	-2.963242E-3	-8.591935E-3	4.851358E-3	7.077028E-3	-1.405070E-2	1.787559E-2	-9.303642E-3	-3.781162E-3	1.255817E-2	-4.976915E-5	-5.704260E-3	-1.117922E-2	-1.383933E-2	2.611496E-3	-1.831221E-2	-8.097593E-3	-2.264874E-3	4.714362E-3	-5.962244E-3	6.182887E-3	1.613196E-3	-3.364532E-3	-1.217776E-2	-5.678570E-3	-1.050935E-2	-5.187317E-3	-7.128307E-3	8.366573E-4	-1.104942E-2	-8.599155E-3	1.044228E-2	-2.541633E-2	4.119964E-3	-6.625091E-3	1.690732E-3	-1.191234E-2	-1.053174E-3	-3.155539E-3	-1.091191E-2	-6.387666E-3	1.102184E-3	-9.477678E-3	-3.762785E-3	5.205128E-3	-4.862269E-3	5.323042E-3	-1.707278E-3	5.584296E-3	2.058087E-3	-9.444355E-3	-1.910367E-3	-7.149383E-3	-6.667099E-3	4.190452E-4	-4.169663E-3	2.211771E-3	-1.508666E-3	1.663513E-4	-4.401704E-3	-2.874703E-4	-9.748482E-4	6.295857E-4	-1.192560E-4	-1.238003E-3	3.355085E-5	9.801711E-4	5.540247E-4	2.883735E-3	-8.371585E-3	7.549767E-3	1.786014E-2	2.690790E-3	-1.184884E-2	-1.089829E-2	-1.171642E-2	1.638125E-2	4.909360E-3	3.836057E-3	1.283406E-2	-1.155589E-3	9.496802E-3	-2.282944E-3	-1.009576E-2	1.451210E-3	1.250932E-3	-2.328230E-3	-5.977954E-3	-6.513341E-3	3.883026E-3	-1.901301E-2	1.464597E-3	-7.933825E-4	-8.310705E-3	6.578692E-4	-1.440623E-2	-1.502303E-2	2.253186E-2
2.799980E+2	-5.011367E-3	-1.213594E-2	-2.590565E-4	-2.729375E-3	-1.291187E-2	1.213322E-4	-5.431981E-3	1.990678E-3	-3.318193E-3	-3.549334E-3	-1.236628E-2	-5.029298E-3	-5.341454E-3	-9.367761E-3	-4.129560E-3	-7.588204E-4	-2.820706E-3	-6.937161E-3	5.223177E-3	-3.379785E-3	9.311989E-4	-1.074844E-2	9.299046E-3	1.738417E-3	1.051758E-2	-1.003922E-2	-7.056740E-3	-4.190911E-3	-4.354444E-3	-2.519981E-4	-1.453461E-2	5.206224E-4	-8.288292E-3	-3.757025E-3	1.056465E-2	-4.576762E-4	-5.014087E-4	-1.347792E-3	6.593978E-4	-1.254818E-2	1.794635E-2	-7.175254E-3	1.628107E-3	-1.600165E-2	2.704585E-3	9.566176E-4	-1.989676E-3	-3.685805E-3	-9.853912E-5	-1.084942E-3	-1.573116E-2	2.990444E-4	2.923038E-3	3.301033E-3	-3.756471E-4	-8.237291E-3	-5.238533E-3	-1.437827E-2	5.859812E-4	-1.310231E-2	-3.424739E-3	6.989113E-3	-1.253083E-2	5.923718E-4	5.283405E-3	-3.068153E-3	-5.527994E-3	-7.906281E-3	-2.894306E-3	-5.455411E-3	-7.982877E-3	-6.367652E-4	-4.152087E-3	1.485916E-3	-8.487738E-3	-8.791266E-4	-1.041876E-2	-8.193665E-4	-4.369922E-3	-3.163898E-3	4.238888E-3	-1.012898E-2	-4.150372E-3	-8.066749E-3	4.808996E-3	-3.796446E-3	-1.049584E-2	5.127069E-3	-1.606254E-2	-6.493602E-3	-7.820559E-3	-1.637289E-2	-2.445221E-3	-1.249418E-3	-1.572832E-2	-3.281663E-3	-1.949914E-2	3.284669E-3	-3.905614E-3	-7.065803E-3	3.009358E-3	1.447640E-2	1.558550E-3	-1.249699E-2	5.826241E-4	-1.574860E-2	2.610778E-3	-2.883983E-3	5.353358E-3	-1.360764E-2	-1.400903E-2	-7.451077E-3	-1.424094E-3	-7.011180E-3	-8.274781E-3	-5.895990E-3	-9.223287E-3	-4.684361E-3	-3.325306E-3	-7.348481E-3	-1.984174E-2	-1.045978E-3	-4.369289E-3	9.068550E-4	3.415292E-3	-1.196692E-3	-1.127248E-2	-1.158725E-2	-9.258256E-3	-1.347772E-3	-8.321078E-4	-1.874623E-3	-3.186062E-3	-9.939225E-3	-2.608374E-3	-1.394291E-2	-6.535969E-3	-4.347343E-3	-4.610360E-3	-8.914311E-3	-3.482869E-4	-3.451885E-3	-1.381533E-2	3.418938E-3	1.107215E-2	8.225567E-3	-4.471540E-3	-5.880636E-3	-7.304361E-3	-1.432555E-2	-1.042527E-2	-1.351755E-3	-2.321844E-3	-1.647610E-3	-5.703080E-3	1.179456E-2	3.845717E-3	-4.714135E-3	7.435980E-5	1.202714E-2	7.735725E-3	-1.761604E-3	-9.343601E-4	-6.921188E-4	-6.409384E-4	3.054468E-4	-6.321876E-3	2.542679E-2	-1.204701E-2	2.737739E-3
2.805030E+2	-9.002473E-3	1.374538E-2	-9.582274E-3	4.668463E-3	1.103613E-2	-9.460883E-3	3.071325E-3	4.446229E-3	-6.720460E-3	3.168451E-3	-1.109412E-2	-7.385027E-3	3.650348E-3	-1.259813E-2	-8.271321E-3	-1.534980E-2	-4.863939E-3	8.002661E-3	-3.562986E-3	-2.058091E-3	3.190618E-3	-2.509184E-3	-8.580316E-3	-9.495819E-3	-7.523434E-3	-9.917296E-4	-8.153362E-3	4.275620E-3	7.878898E-3	-5.541883E-3	2.482892E-3	8.076022E-3	-1.711757E-2	-2.343205E-4	-9.334289E-3	1.070321E-2	9.460461E-3	1.348091E-2	-8.036871E-3	2.791862E-3	-1.388877E-2	-3.779214E-3	4.122581E-3	-3.993951E-3	1.921187E-2	1.107658E-3	8.973552E-3	-2.602113E-3	2.367314E-3	3.646546E-3	1.489843E-2	3.852992E-3	-2.412273E-3	-4.920027E-3	-8.756501E-3	3.152688E-3	1.016757E-2	-2.624470E-3	-1.269891E-2	6.331940E-4	8.800015E-3	3.162364E-3	-1.133489E-2	3.816107E-3	-2.290640E-3	-2.924054E-3	2.044073E-3	-2.255090E-3	6.184241E-3	-1.337993E-2	1.479777E-2	-3.519738E-3	-4.026719E-3	-1.607749E-3	1.216415E-2	5.121768E-3	-1.480373E-3	-8.370896E-3	1.404942E-2	-6.084391E-3	-1.154000E-2	8.568254E-4	-7.785303E-4	-1.281292E-2	-2.997424E-3	-1.615482E-3	5.289336E-3	-5.896677E-3	2.390928E-3	1.104224E-2	-1.231195E-2	-8.098284E-3	-4.506191E-3	-9.365994E-5	8.499373E-3	-3.167978E-3	-7.743600E-3	7.962364E-3	8.695324E-4	1.504246E-2	-8.306495E-3	6.498511E-3	-3.282020E-3	-3.098206E-4	2.988883E-3	1.802615E-2	-5.220235E-3	2.032441E-3	-8.945132E-4	8.832959E-3	-5.063358E-3	-1.173688E-2	-2.488028E-3	4.174526E-4	1.485553E-3	4.506423E-3	6.697135E-3	7.264985E-3	-9.825201E-3	-9.545885E-3	1.210971E-3	2.382294E-3	1.434649E-2	-2.663894E-3	8.268460E-3	2.165810E-3	1.263770E-2	5.648615E-3	-1.380144E-2	1.214425E-3	5.162388E-3	3.037222E-3	-8.164702E-3	3.717926E-4	-2.171943E-2	7.755050E-3	-3.103386E-3	-7.622088E-3	6.995588E-3	9.267115E-3	-4.737697E-3	8.665307E-3	1.426396E-3	-6.913906E-3	-2.875481E-3	4.858687E-3	-1.190071E-2	1.125750E-3	-3.388911E-3	4.216989E-3	-7.900458E-3	-1.081599E-2	-3.497984E-3	5.543686E-4	-1.993286E-3	-1.814534E-3	-5.050593E-4	-5.595998E-3	-1.451770E-2	-7.926299E-3	-2.715109E-3	-3.826328E-3	-6.424891E-3	-1.701466E-3	5.920023E-3	4.676135E-4	-7.628221E-3	-1.222783E-2	1.104194E-2	2.894720E-3
2.810040E+2	-8.900612E-3	1.597322E-3	-1.407736E-2	5.038357E-3	-1.596873E-2	-7.113702E-3	-1.381075E-3	-1.932167E-3	-1.829385E-3	-9.811293E-3	5.586072E-4	4.243838E-3	-2.845358E-3	-7.938199E-3	-4.880158E-3	9.469735E-3	-4.722356E-3	-2.995216E-4	2.456374E-3	-8.987658E-3	7.582849E-3	-1.343864E-3	-8.542693E-3	3.161315E-3	3.556930E-3	1.155086E-3	-4.329872E-3	-7.426015E-3	-4.106449E-3	-6.492455E-3	7.637369E-5	1.146137E-2	1.098027E-2	1.048604E-3	2.427896E-4	-1.008610E-2	-1.295760E-2	-7.899195E-3	6.555162E-3	7.024133E-3	-6.651071E-3	-1.453026E-2	4.266638E-3	-7.457071E-3	-4.040156E-3	-6.217035E-3	1.576517E-3	-7.177696E-3	1.182103E-2	7.249525E-3	3.322337E-3	-1.535075E-2	-6.678016E-3	4.665470E-4	-1.108678E-2	5.573947E-3	9.428761E-4	-9.504216E-3	3.138983E-3	-1.486780E-3	-1.286333E-2	-3.698711E-3	9.366848E-3	-2.178443E-3	5.800113E-5	4.626278E-4	-1.522465E-2	1.038540E-4	4.119080E-3	2.931161E-3	2.277453E-4	9.846279E-3	-7.514035E-3	-3.628062E-3	1.917947E-2	-2.964488E-3	-7.994875E-3	-1.155045E-2	-4.031339E-3	1.131236E-2	-1.027347E-2	-1.341023E-4	-1.453781E-2	-1.802490E-3	5.116377E-3	-4.902200E-4	-5.441066E-3	1.434120E-2	1.855804E-4	-4.085118E-3	-6.036772E-4	8.423983E-3	-1.046926E-3	-1.423327E-2	1.807248E-3	-1.955636E-3	-1.234122E-2	3.542192E-3	-1.063663E-2	-3.011719E-3	1.063598E-2	-8.579250E-3	-6.439224E-4	1.198378E-2	7.672652E-3	-8.335734E-4	-1.661370E-3	-2.594407E-3	1.421716E-3	2.629498E-3	-8.248982E-3	7.284764E-3	2.504984E-3	8.942999E-3	5.939018E-3	8.439615E-5	-3.298373E-3	-5.335268E-3	-8.648785E-4	3.406587E-3	4.868261E-3	-2.934375E-3	-6.562253E-3	2.343838E-3	-8.895665E-3	-8.591217E-4	-9.797426E-3	-4.628663E-3	2.696341E-3	-8.298063E-3	-2.857880E-3	3.211242E-3	-1.214188E-2	-4.811520E-4	5.598235E-3	2.529604E-3	9.146031E-3	-8.636508E-3	-5.522863E-3	9.739439E-4	-8.007287E-3	-3.152925E-3	1.589246E-3	6.800899E-4	-3.697963E-4	1.484117E-3	-2.921405E-3	-3.162893E-3	-7.040462E-3	6.578808E-3	-1.736036E-3	8.753037E-3	-3.378279E-3	-3.440195E-3	6.516142E-3	2.979355E-3	-9.392996E-3	-5.451497E-3	4.906790E-3	6.817935E-3	-6.122611E-3	2.927079E-3	9.517104E-3	-7.336991E-3	-7.837714E-3	1.680813E-2	1.144476E-3	1.250983E-3	8.339673E-3	-1.743439E-3
2.815070E+2	2.213282E-3	-8.148743E-3	1.351039E-2	3.974536E-3	-1.715527E-3	1.740939E-3	-3.454015E-3	-1.458438E-2	-5.262435E-3	3.545616E-3	9.908013E-3	5.671200E-3	7.299708E-3	2.337580E-3	4.103336E-3	-4.210261E-3	-1.118623E-2	-3.356856E-3	4.782313E-3	9.043362E-3	-2.876147E-3	4.926195E-3	-4.269509E-3	3.536511E-4	-3.609805E-3	1.326248E-3	1.073909E-2	-1.075014E-2	-1.769245E-3	-8.837985E-4	8.139888E-5	-4.289769E-3	-2.344967E-3	5.309068E-5	1.093217E-3	-9.791297E-3	6.902965E-3	-8.727586E-3	-4.941766E-3	3.486117E-3	1.869291E-3	-7.794734E-3	-4.668575E-4	4.982571E-3	-5.068274E-3	-7.117279E-3	-1.710768E-2	-2.252452E-3	-1.365673E-2	-1.791674E-3	7.891768E-3	1.940171E-3	-4.332200E-3	-4.634851E-3	2.029424E-4	-6.571488E-3	-2.400403E-3	1.642117E-2	8.926226E-3	9.106406E-3	-4.232117E-3	-1.527692E-3	6.833713E-3	1.122560E-3	-9.008580E-4	2.799493E-3	1.040049E-3	-7.482457E-3	-1.477294E-2	-1.964472E-3	3.789651E-3	4.940274E-3	3.474185E-3	-2.124419E-4	-1.034588E-2	-4.002867E-3	5.453114E-3	1.619584E-2	-7.121953E-3	4.344951E-3	5.894905E-3	1.150889E-3	-2.633563E-3	9.006845E-4	2.919544E-4	1.692899E-3	8.081417E-3	-1.347331E-2	2.718356E-3	-6.118950E-3	7.689713E-3	1.559978E-3	-3.105972E-3	-4.904436E-3	-6.090193E-3	7.042582E-3	1.602138E-2	2.568324E-3	-2.270554E-3	-1.454380E-2	2.426159E-3	-5.397717E-3	-5.202367E-4	-3.317277E-3	-9.189908E-3	-1.855922E-3	-6.121783E-3	-1.291705E-3	-1.667507E-3	4.908907E-3	1.517621E-2	7.449287E-3	3.851105E-3	1.784556E-3	7.050211E-4	5.949235E-3	-2.037681E-3	3.700984E-3	-4.080212E-3	5.886028E-3	5.013918E-3	-1.711358E-3	-1.462513E-3	7.388238E-3	1.764632E-3	-3.944772E-3	-3.706249E-3	1.154641E-2	5.162554E-3	-6.965423E-3	1.019521E-2	-6.219973E-3	3.592190E-4	9.903347E-3	9.150764E-3	2.683919E-3	-2.806569E-3	-5.226832E-4	-6.573159E-3	-1.100209E-2	-1.244961E-2	-1.808123E-3	8.255203E-3	-9.733815E-3	5.683313E-3	4.364290E-4	1.115857E-2	-6.969644E-4	4.482659E-3	1.220669E-2	-1.606558E-3	4.099984E-3	-6.239451E-4	4.993100E-3	5.475671E-3	-3.339183E-4	3.147773E-3	2.933192E-3	-5.201508E-3	1.404357E-3	1.113757E-3	3.061560E-3	4.014992E-3	9.182659E-3	1.161542E-2	-1.239073E-2	4.174772E-3	-4.232362E-3	-5.940139E-3	-2.083346E-2
2.820030E+2	6.463784E-3	-6.815902E-3	7.231943E-4	2.873627E-3	1.150467E-2	-2.478243E-3	-2.319456E-3	-2.806872E-3	1.502521E-2	-1.849819E-3	4.977901E-3	3.279087E-3	-1.494182E-3	1.604016E-2	1.445768E-2	3.837325E-3	1.642106E-2	-1.283547E-2	6.417805E-4	5.618838E-3	1.746552E-2	9.161480E-3	2.360551E-2	7.821827E-3	3.833846E-3	4.463585E-3	-4.752519E-3	1.339265E-2	8.326894E-3	1.788004E-2	-3.916118E-3	1.398578E-2	1.239962E-2	9.282165E-3	-4.306385E-3	1.371754E-2	-5.797314E-3	-1.703211E-3	-4.979572E-3	7.751735E-3	4.383828E-3	1.205739E-2	-1.282827E-2	2.082159E-2	-7.314827E-3	-5.639133E-4	6.014964E-3	6.435954E-3	8.637875E-3	-7.445643E-3	2.930666E-3	2.137020E-3	9.090494E-3	-3.446402E-3	8.004400E-3	9.705495E-3	-8.153741E-3	3.705982E-3	1.815764E-2	1.523918E-2	1.174989E-2	8.729074E-3	8.996248E-4	5.475523E-3	1.705152E-2	-1.230976E-2	2.197425E-2	1.624011E-2	-1.140565E-3	7.385263E-3	-3.271550E-3	5.546225E-3	3.683833E-3	-4.353916E-3	5.295053E-4	-8.289153E-3	8.981717E-3	8.701756E-3	1.391071E-3	3.516879E-3	-4.253393E-3	-5.215005E-3	1.962933E-2	2.697140E-2	1.055753E-2	1.600880E-2	1.049179E-3	8.228656E-3	6.478381E-3	1.491984E-2	2.326688E-3	-8.745096E-3	7.041622E-3	3.869501E-4	4.078569E-3	-1.634349E-3	1.856861E-2	5.264264E-4	2.125239E-2	5.241588E-3	-5.810858E-3	-1.297604E-4	1.093096E-2	9.115902E-3	1.596982E-2	-9.658532E-3	4.310056E-3	6.053497E-3	3.860953E-3	1.835238E-3	5.331299E-3	-1.306483E-3	7.645315E-3	7.182747E-3	9.470167E-3	-5.410576E-3	2.642741E-3	4.857599E-3	1.270634E-2	-3.340677E-3	-1.129592E-2	-1.593891E-3	1.113526E-2	2.616511E-3	-1.619432E-3	5.879691E-3	1.771372E-5	9.577674E-3	-2.927198E-3	1.866923E-2	-2.590935E-3	-1.209528E-2	1.706518E-2	-1.213872E-3	2.447052E-3	-4.783283E-3	6.167599E-3	1.792518E-2	2.785363E-3	9.729629E-3	2.533033E-2	9.189677E-3	-1.336062E-2	3.124507E-3	1.092725E-3	8.874736E-3	1.768392E-2	8.705263E-3	-4.480981E-4	-1.052382E-2	1.550862E-2	-1.819828E-3	3.454169E-3	9.763740E-4	8.028758E-3	-1.357637E-3	1.017969E-3	-4.148265E-3	1.205483E-2	-8.602096E-3	7.191387E-3	8.747944E-3	7.563461E-3	-1.180631E-3	7.477140E-3	6.024927E-3	1.445670E-2	9.318251E-3	2.312361E-2	2.263570E-2
2.825060E+2	2.871597E-2	1.556588E-2	-3.482809E-3	-4.389492E-3	6.160634E-3	2.282919E-2	8.881295E-3	2.190495E-2	3.272491E-3	1.489546E-2	1.124600E-2	7.169854E-3	8.690054E-3	1.620541E-2	9.488214E-3	9.929501E-3	9.967446E-3	8.637589E-3	8.287972E-3	4.561564E-3	1.617569E-3	2.109606E-3	6.265795E-3	-4.340864E-4	6.411159E-3	1.563335E-2	6.541421E-3	1.114486E-2	1.290533E-2	4.861312E-3	1.486694E-2	-7.261715E-3	3.509487E-3	4.854669E-3	3.424945E-3	2.704617E-3	8.206660E-3	1.030635E-2	1.981597E-2	5.827392E-3	6.913106E-3	1.222234E-2	1.714816E-3	1.612926E-2	4.591729E-3	1.032026E-2	1.773069E-2	1.516649E-2	9.948781E-3	5.403420E-3	-3.688846E-3	8.019475E-3	3.541151E-4	6.212351E-3	7.090261E-3	9.862316E-3	8.581723E-3	2.269841E-2	2.278459E-3	-1.891645E-3	1.678321E-2	-5.281552E-3	2.057542E-3	6.661970E-3	-9.581953E-3	1.510941E-2	-7.717177E-3	1.417823E-2	8.020988E-3	2.083058E-2	-2.396387E-4	4.665786E-3	1.838942E-2	1.332073E-2	1.553162E-2	4.957615E-3	2.420142E-3	5.530347E-3	-2.537480E-3	-3.043390E-4	2.251736E-2	-1.761079E-3	3.721451E-3	2.746371E-3	7.067418E-4	-8.369880E-4	8.429826E-3	-2.647553E-3	1.947283E-2	-2.733374E-4	9.467057E-3	2.374088E-2	3.890602E-3	1.401318E-2	9.728173E-3	1.433215E-2	1.758610E-2	1.563110E-2	1.324883E-2	1.740638E-2	-2.408323E-3	7.281885E-3	9.228572E-3	-2.702182E-3	1.047659E-2	9.757109E-3	8.132819E-3	-4.589924E-3	1.159830E-2	-4.448530E-3	1.545791E-2	1.234669E-2	-1.980437E-3	3.143088E-3	-5.102193E-3	4.925593E-4	3.922410E-3	6.024040E-3	-2.928745E-3	1.564514E-2	1.595385E-2	1.176468E-2	4.695502E-3	4.026453E-3	1.265003E-2	1.142621E-2	1.261612E-2	7.022042E-5	2.308888E-2	5.451282E-3	8.133101E-3	2.170659E-2	3.753916E-3	1.332176E-2	1.056058E-2	1.881079E-3	5.206037E-3	5.452346E-3	1.728934E-3	2.563649E-3	-5.397699E-3	8.122828E-3	5.292857E-3	-6.298587E-3	3.385490E-5	7.822381E-3	-2.528663E-3	1.894077E-3	1.367241E-2	-6.023267E-3	1.079015E-2	-4.714194E-4	8.862156E-3	-9.904104E-4	-3.876116E-3	1.084201E-3	1.476516E-2	8.416281E-3	4.193071E-3	2.838025E-3	-3.391294E-3	-5.571821E-3	8.846131E-3	1.204763E-4	-1.010523E-3	6.180890E-3	1.171249E-2	7.577635E-3	-5.704575E-3	-1.100003E-2
2.830030E+2	-2.138788E-4	3.306919E-3	-2.281775E-3	4.336520E-3	4.094449E-3	1.086256E-3	1.207863E-2	1.151360E-2	1.018212E-3	9.510845E-3	1.244254E-2	3.521690E-3	-5.744169E-3	-1.771450E-3	3.961514E-4	-9.842651E-3	9.019238E-3	1.285396E-3	9.073984E-4	9.494181E-3	8.164100E-3	1.253839E-2	8.478724E-3	7.550653E-4	-4.513636E-3	-4.291868E-3	8.921869E-3	-5.589518E-3	1.640146E-2	1.162141E-2	1.089577E-2	3.709902E-4	-5.410713E-3	9.566262E-3	-6.242216E-3	1.179502E-2	-5.820634E-4	5.509548E-4	1.015153E-3	9.075008E-3	2.243558E-3	1.019067E-2	1.220357E-2	-7.018311E-4	5.912492E-3	1.048373E-2	4.232129E-3	-3.774754E-3	3.058391E-3	-4.898976E-3	-1.033219E-2	-4.520911E-3	-9.538456E-3	5.297891E-3	-4.524139E-3	-2.995538E-4	-4.339132E-3	1.579165E-2	1.416412E-3	-1.100699E-2	-1.993937E-4	8.044533E-3	1.968343E-2	-5.663066E-3	1.627106E-2	1.747662E-2	1.614290E-3	6.507831E-3	8.183735E-3	-5.580186E-3	8.742938E-4	4.812395E-3	8.814547E-3	-1.898596E-3	1.472142E-2	7.485819E-3	2.382813E-2	3.442562E-3	1.806177E-2	2.250102E-2	-3.927691E-3	4.971874E-3	1.850492E-3	-4.518346E-3	-1.203660E-3	-7.053562E-4	-8.647122E-3	1.574005E-2	5.683776E-3	3.167392E-3	8.615749E-3	-1.101814E-3	4.045596E-3	-3.012310E-4	-3.216931E-3	2.233633E-2	-1.067366E-2	1.121470E-2	-3.344777E-3	-1.001490E-2	8.908332E-4	1.675156E-2	5.183501E-3	9.965826E-3	1.983333E-2	-3.591302E-3	2.158900E-2	-6.866682E-3	2.003318E-3	2.163192E-3	-3.408447E-3	-2.042675E-3	-1.041037E-2	1.205623E-3	4.490036E-3	7.736496E-3	1.667932E-2	5.249508E-3	1.707076E-2	-1.221659E-2	1.737079E-2	1.533375E-2	-3.716613E-3	3.053869E-2	6.942194E-3	-3.532242E-3	6.179816E-3	7.865136E-3	9.111689E-3	1.174481E-2	-1.848021E-3	8.798746E-3	-8.556325E-3	-7.094328E-3	5.074658E-3	5.550455E-3	6.517363E-3	2.194280E-3	3.372955E-3	2.884961E-3	-5.263211E-3	1.318405E-2	1.953729E-2	1.098069E-2	1.091331E-2	-5.115301E-3	5.244260E-3	1.374198E-2	-1.436606E-3	-1.471370E-3	-8.010916E-3	1.006972E-3	-1.570487E-3	5.434976E-3	-1.228245E-2	1.412299E-2	8.111684E-3	4.442174E-3	4.764932E-3	-7.179961E-3	9.889255E-3	6.819418E-3	-1.279033E-3	6.153393E-3	1.645231E-2	5.325422E-3	2.351737E-2	-1.840205E-3	6.049594E-3	1.817025E-2
2.835020E+2	2.074181E-2	-2.995718E-4	2.717039E-2	2.422766E-2	2.182061E-2	5.641529E-3	7.192389E-3	4.606795E-3	5.921439E-3	8.551221E-3	6.466220E-3	2.007539E-2	1.349059E-2	7.476448E-3	-2.555555E-3	2.423463E-2	2.530774E-3	-5.018420E-3	4.289489E-3	1.205049E-2	1.582124E-2	5.472455E-3	1.071167E-2	5.121774E-3	3.624739E-2	9.951641E-3	9.068223E-3	1.511466E-2	2.215528E-2	1.068482E-2	3.779949E-3	5.891567E-3	1.397602E-2	6.278664E-3	1.136985E-2	4.109326E-3	1.252385E-2	1.065985E-2	5.961751E-3	1.443804E-2	1.684470E-2	4.844674E-3	-9.391448E-3	1.402401E-2	-3.436013E-3	2.796043E-2	3.079871E-2	5.950911E-3	3.203475E-3	4.537759E-3	4.493354E-3	7.166786E-3	8.441900E-3	2.143741E-2	1.706619E-2	6.753520E-3	4.161591E-3	5.774511E-4	2.583041E-3	5.341517E-3	2.080716E-2	7.197540E-3	5.442503E-3	8.026597E-3	7.473989E-3	1.656704E-2	6.386226E-3	-1.017669E-2	1.558240E-3	1.819046E-2	1.461925E-2	-2.288134E-3	1.752267E-2	1.589096E-2	-1.007929E-3	-3.167354E-3	1.054785E-2	6.991455E-3	2.885572E-3	1.435265E-2	1.135687E-2	1.398557E-2	2.586060E-2	2.040997E-2	7.102739E-3	2.489708E-2	6.086888E-4	-1.984879E-4	5.863570E-3	6.643470E-3	1.392905E-2	9.848031E-3	7.602370E-3	4.023744E-3	1.775721E-2	2.032015E-2	1.669948E-2	-5.970995E-3	-1.076609E-2	1.111129E-2	-5.253292E-3	1.272030E-2	2.193021E-3	3.342869E-2	3.917703E-3	1.007798E-3	2.380817E-2	2.241750E-2	1.298722E-2	9.875500E-3	1.923471E-2	1.484030E-3	7.364357E-4	1.617072E-2	5.662423E-3	2.649266E-2	1.228154E-2	2.422329E-3	1.532690E-2	1.047435E-2	2.937788E-2	3.291110E-3	1.072730E-2	-4.001614E-4	5.911823E-3	1.726023E-2	-4.910533E-4	1.452980E-2	5.709309E-3	1.192044E-2	2.861182E-4	1.025292E-2	-3.205453E-3	1.064472E-2	1.293574E-2	6.921983E-3	3.354270E-3	2.545366E-2	1.522193E-2	6.470409E-4	2.133615E-2	2.554245E-2	6.099616E-3	4.768178E-3	2.064869E-2	1.652420E-2	7.933991E-3	2.407988E-3	1.293242E-3	1.744718E-2	1.445428E-2	-8.307375E-3	2.121805E-2	2.035835E-2	4.583453E-3	2.048831E-2	3.227127E-2	1.716979E-2	1.744022E-2	1.016591E-2	8.864843E-3	4.753418E-3	2.997879E-2	1.581898E-2	6.892233E-3	9.618855E-3	1.578886E-2	1.584786E-2	-5.434476E-3	2.325501E-2
2.840030E+2	4.457504E-2	3.722755E-2	6.004044E-2	5.784739E-2	5.068515E-2	2.897409E-2	2.257757E-2	2.839079E-2	2.883069E-2	3.662330E-2	2.925305E-2	2.921374E-2	2.041691E-2	2.931456E-2	4.504948E-2	2.449334E-2	4.709889E-2	3.064505E-2	2.932819E-2	3.391448E-2	4.609508E-2	2.528168E-2	4.618473E-2	4.129116E-2	2.657564E-2	3.943145E-2	2.950246E-2	1.290682E-2	4.361758E-2	4.185017E-2	3.842155E-2	2.980007E-2	1.526070E-2	2.250262E-2	4.440523E-2	3.575778E-2	4.267899E-2	3.776461E-2	2.717509E-2	4.481894E-2	3.391997E-2	3.378940E-2	4.895007E-2	3.490413E-2	3.830728E-2	4.226461E-2	4.161571E-2	5.610944E-2	6.114369E-2	3.850763E-2	3.185840E-2	3.975773E-2	2.536863E-2	2.802061E-2	4.519494E-2	3.226428E-2	1.984835E-2	3.039308E-2	3.410395E-2	2.756271E-2	4.558566E-2	3.490769E-2	3.040593E-2	3.641836E-2	3.123562E-2	2.885048E-2	4.937801E-2	3.611494E-2	1.988425E-2	3.897372E-2	1.771771E-2	3.428503E-2	2.868716E-2	2.600858E-2	2.308570E-2	4.749244E-2	5.346410E-2	2.391133E-2	2.565743E-2	5.085429E-2	3.693373E-2	5.505064E-2	3.407976E-2	2.555035E-2	3.774795E-2	2.504298E-2	1.916893E-2	1.838245E-2	4.461287E-2	4.679369E-2	3.259643E-2	3.022508E-2	3.126939E-2	3.737433E-2	1.136246E-2	4.293898E-2	5.502876E-2	1.737552E-2	2.076284E-2	5.038287E-2	3.025319E-2	3.279861E-2	2.667391E-2	1.962926E-2	4.911521E-2	3.665706E-2	3.636334E-2	3.241421E-2	2.965110E-2	3.716117E-2	4.203463E-2	3.671638E-2	2.426217E-2	1.852703E-2	4.140612E-2	1.622175E-2	3.662229E-2	2.267164E-2	3.966172E-2	3.807758E-2	2.483570E-2	3.463778E-2	4.844108E-2	4.345566E-2	3.339160E-2	3.709873E-2	2.139251E-2	2.016198E-2	3.317526E-2	2.071904E-2	2.465970E-2	1.652653E-2	3.883557E-2	3.679985E-2	2.417432E-2	2.589345E-2	2.699979E-2	3.262135E-2	4.979428E-2	4.267241E-2	5.732084E-2	5.505043E-2	3.892443E-2	2.966388E-2	4.124979E-2	3.829110E-2	4.094320E-2	1.666321E-2	2.324856E-2	1.325759E-2	1.567724E-2	1.533890E-2	2.141390E-2	4.375667E-2	2.914780E-2	4.541922E-2	3.480131E-2	4.040824E-2	4.048481E-2	5.154441E-2	1.984407E-2	2.733539E-2	4.262967E-2	3.852508E-2	3.210833E-2	4.168396E-2	3.895254E-2	2.002328E-2	1.809522E-2	8.865889E-3
2.841010E+2	4.061367E-2	2.870336E-2	2.867835E-2	2.214405E-2	5.204510E-2	3.142539E-2	3.804934E-2	3.926654E-2	2.662327E-2	3.238056E-2	3.359978E-2	2.562480E-2	5.111665E-2	1.467646E-2	4.012832E-2	2.974206E-2	2.175224E-2	4.599081E-2	2.955237E-2	4.261146E-2	5.713779E-2	3.689941E-2	4.331151E-2	2.991734E-2	3.791252E-2	2.346037E-2	2.630287E-2	2.293864E-2	4.834115E-2	2.877321E-2	2.190191E-2	2.793434E-2	4.276130E-2	3.651179E-2	3.477147E-2	2.586063E-2	3.392147E-2	2.900753E-2	3.316391E-2	3.673840E-2	4.018997E-2	2.846343E-2	1.898742E-2	4.131737E-2	4.568116E-2	4.467407E-2	3.230907E-2	5.742816E-2	4.130766E-2	2.586627E-2	4.458019E-2	5.279489E-2	2.555281E-2	4.106584E-2	3.573931E-2	1.052698E-2	2.842311E-2	5.321294E-2	4.245080E-2	4.174736E-2	3.840983E-2	2.695263E-2	2.646279E-2	4.818116E-2	3.480802E-2	2.352539E-2	5.774573E-2	3.520980E-2	3.715761E-2	3.922165E-2	2.083433E-2	3.763259E-2	4.726106E-2	4.282598E-2	1.828392E-2	5.012480E-2	4.693560E-2	3.420534E-2	3.411384E-2	3.126742E-2	2.313450E-2	5.735590E-2	3.624823E-2	3.549379E-2	2.156647E-2	3.341839E-2	3.051716E-2	4.604979E-2	2.826409E-2	1.693823E-2	3.370758E-2	5.798031E-2	2.586559E-2	3.448267E-2	3.036080E-2	4.332661E-2	4.326116E-2	3.023254E-2	4.683533E-2	3.980307E-2	5.294871E-2	4.550243E-2	2.062584E-2	4.523368E-2	4.480065E-2	3.823112E-2	2.035147E-2	5.122774E-2	3.868443E-2	2.656721E-2	1.214116E-2	3.133430E-2	4.792078E-2	2.727835E-2	3.253403E-2	3.280106E-2	3.805114E-2	2.896324E-2	5.059962E-2	3.116360E-2	3.814879E-2	4.718303E-2	3.769294E-2	2.744101E-2	5.745628E-2	4.831162E-2	3.194285E-2	4.654780E-2	5.245917E-2	3.695125E-2	3.042066E-2	3.869381E-2	2.021371E-2	2.665968E-2	3.447776E-2	5.162321E-2	3.620480E-2	2.007816E-2	3.440157E-2	3.921578E-2	3.447444E-2	5.170067E-2	5.716404E-2	3.530794E-2	5.114370E-2	5.657176E-2	1.420432E-2	4.396279E-2	5.047421E-2	3.009494E-2	2.918715E-2	3.290207E-2	3.498021E-2	3.239699E-2	1.982758E-2	4.922929E-2	2.469684E-2	3.123725E-2	2.984135E-2	3.005133E-2	3.690058E-2	4.216912E-2	4.400999E-2	6.013877E-2	3.125735E-2	2.236386E-2	3.237871E-2	2.802572E-2	3.587391E-2	4.324072E-2
2.842010E+2	7.158970E-2	6.773597E-2	6.063449E-2	7.332011E-2	7.558977E-2	4.164982E-2	5.973665E-2	8.104398E-2	4.247954E-2	5.169660E-2	4.935918E-2	4.748846E-2	5.818415E-2	4.468269E-2	6.320003E-2	6.222212E-2	5.990463E-2	7.116300E-2	4.175194E-2	4.892330E-2	6.608047E-2	5.379906E-2	5.193659E-2	3.974730E-2	9.274331E-2	5.823160E-2	6.955229E-2	5.856794E-2	7.674223E-2	6.461423E-2	5.888922E-2	6.506650E-2	7.498176E-2	3.675141E-2	5.043896E-2	6.114948E-2	6.734415E-2	5.734818E-2	5.556562E-2	7.056892E-2	7.929891E-2	6.209788E-2	5.577442E-2	5.756413E-2	4.234459E-2	6.565179E-2	6.555672E-2	6.843143E-2	6.408631E-2	8.002019E-2	9.273887E-2	4.726947E-2	6.401668E-2	4.025917E-2	5.976491E-2	4.668727E-2	6.351361E-2	6.065821E-2	6.713354E-2	7.368944E-2	4.111896E-2	7.232454E-2	5.786734E-2	6.326962E-2	7.461496E-2	7.908921E-2	7.900049E-2	4.001682E-2	3.398713E-2	8.505299E-2	6.407855E-2	2.847959E-2	8.810100E-2	5.419984E-2	4.760136E-2	6.618284E-2	6.077452E-2	6.485067E-2	6.538947E-2	6.699117E-2	6.764051E-2	6.543551E-2	6.461005E-2	5.072765E-2	5.659561E-2	5.619923E-2	4.723327E-2	5.443706E-2	5.551864E-2	5.732622E-2	6.189051E-2	5.476539E-2	8.359714E-2	7.028801E-2	5.822096E-2	6.748372E-2	4.471389E-2	3.627469E-2	4.060833E-2	6.616197E-2	7.689011E-2	6.559538E-2	5.794938E-2	5.549342E-2	4.737194E-2	6.608390E-2	7.206641E-2	4.281963E-2	7.087559E-2	6.166870E-2	6.207504E-2	7.022950E-2	5.436784E-2	5.421116E-2	5.219879E-2	5.414003E-2	5.679006E-2	4.737665E-2	7.712064E-2	5.776086E-2	6.704439E-2	6.874555E-2	6.792315E-2	6.657719E-2	6.370786E-2	6.176270E-2	6.551687E-2	5.884756E-2	8.136867E-2	4.954753E-2	6.606705E-2	7.320240E-2	3.306649E-2	5.718298E-2	5.796021E-2	5.191594E-2	7.917340E-2	7.268902E-2	5.768430E-2	7.907368E-2	7.415967E-2	6.061460E-2	7.124085E-2	8.419258E-2	5.623783E-2	5.443951E-2	4.740185E-2	7.139140E-2	5.461765E-2	6.812533E-2	3.866385E-2	4.308395E-2	5.262322E-2	5.912778E-2	6.376322E-2	8.027272E-2	5.253787E-2	6.305952E-2	8.365954E-2	6.365183E-2	6.007188E-2	4.466755E-2	5.652001E-2	7.829262E-2	4.901105E-2	6.085691E-2	8.466603E-2	4.386465E-2	8.606778E-2	6.309951E-2
2.843010E+2	7.887966E-2	9.436423E-2	8.285956E-2	9.209822E-2	6.493615E-2	8.972910E-2	9.382964E-2	6.364525E-2	9.295859E-2	5.992067E-2	7.774138E-2	7.786164E-2	1.023509E-1	6.914875E-2	9.482362E-2	8.878728E-2	8.391263E-2	8.561493E-2	8.784058E-2	7.498602E-2	5.774079E-2	8.540205E-2	8.469751E-2	8.056638E-2	1.095533E-1	8.812778E-2	8.581098E-2	8.140090E-2	9.083983E-2	7.834829E-2	7.397692E-2	1.145479E-1	9.031017E-2	9.836519E-2	8.278090E-2	8.825383E-2	8.485821E-2	8.887419E-2	7.231257E-2	9.651336E-2	8.095797E-2	1.037520E-1	1.053704E-1	7.706878E-2	9.421003E-2	8.674162E-2	9.257693E-2	8.963645E-2	1.060461E-1	8.390823E-2	9.087098E-2	8.026050E-2	9.030767E-2	8.252414E-2	7.960819E-2	8.767566E-2	7.832326E-2	9.688022E-2	7.462093E-2	6.114530E-2	9.094999E-2	8.708765E-2	7.485273E-2	8.682171E-2	7.724125E-2	1.149952E-1	9.455295E-2	9.481829E-2	6.749295E-2	7.614893E-2	7.817574E-2	9.067671E-2	8.479838E-2	9.795123E-2	7.509212E-2	7.746498E-2	7.811542E-2	9.004124E-2	9.478258E-2	8.828748E-2	9.374527E-2	8.710610E-2	9.322128E-2	8.368062E-2	9.097909E-2	9.142288E-2	7.442622E-2	8.377642E-2	7.839858E-2	9.909432E-2	6.959276E-2	9.980197E-2	7.946020E-2	8.842848E-2	9.284678E-2	8.497364E-2	1.002862E-1	1.019780E-1	7.476846E-2	8.804243E-2	7.720795E-2	7.756351E-2	9.227256E-2	7.919232E-2	8.945822E-2	8.823058E-2	1.105715E-1	6.391700E-2	7.458190E-2	8.708945E-2	1.035828E-1	7.511290E-2	8.932129E-2	8.339936E-2	8.322253E-2	8.731557E-2	8.139704E-2	8.811518E-2	8.818244E-2	8.206649E-2	9.488259E-2	8.928048E-2	8.272324E-2	8.827833E-2	8.790233E-2	8.846822E-2	6.698386E-2	8.654111E-2	1.044434E-1	8.321811E-2	7.082211E-2	6.861065E-2	8.928300E-2	1.046072E-1	8.256991E-2	7.560932E-2	6.601041E-2	1.092069E-1	8.423926E-2	8.808686E-2	9.774988E-2	7.930561E-2	7.476110E-2	7.806085E-2	1.001079E-1	1.030171E-1	7.365994E-2	8.945028E-2	9.528873E-2	8.737640E-2	7.492452E-2	9.069751E-2	9.887360E-2	8.169712E-2	7.798487E-2	7.940395E-2	1.048561E-1	8.974671E-2	9.608054E-2	7.434015E-2	9.062911E-2	7.882976E-2	7.913838E-2	1.060571E-1	9.877582E-2	7.569029E-2	6.993087E-2	1.047263E-1	9.830309E-2	8.794723E-2
2.844040E+2	1.015708E-1	1.097783E-1	9.086701E-2	8.056522E-2	1.188003E-1	1.201711E-1	1.096018E-1	1.112373E-1	1.299528E-1	1.064869E-1	1.342745E-1	8.968319E-2	1.085801E-1	1.052009E-1	8.997774E-2	1.210889E-1	1.326187E-1	9.681020E-2	1.078808E-1	1.148077E-1	9.825165E-2	1.087621E-1	1.081296E-1	1.374089E-1	1.178127E-1	1.273575E-1	1.135320E-1	1.220431E-1	9.606202E-2	1.156322E-1	1.092186E-1	1.199357E-1	1.391205E-1	1.300813E-1	1.108335E-1	9.518556E-2	1.206897E-1	1.245603E-1	1.191214E-1	1.164269E-1	1.185490E-1	1.378210E-1	1.227086E-1	8.749648E-2	1.264550E-1	1.200172E-1	1.262322E-1	1.105505E-1	1.233235E-1	1.255013E-1	1.325181E-1	1.487900E-1	1.192536E-1	1.098955E-1	1.137038E-1	1.604580E-1	1.415451E-1	1.322160E-1	1.089039E-1	1.007334E-1	1.110297E-1	8.754235E-2	1.108692E-1	1.134381E-1	1.417209E-1	1.232331E-1	1.266041E-1	9.557512E-2	1.126667E-1	1.067131E-1	1.011928E-1	9.830240E-2	1.298463E-1	1.285672E-1	9.668812E-2	1.329483E-1	1.298327E-1	1.232688E-1	1.243300E-1	1.086396E-1	1.293573E-1	1.097864E-1	1.188083E-1	1.231868E-1	1.212594E-1	1.124443E-1	9.231421E-2	1.263574E-1	1.060386E-1	9.164181E-2	9.795839E-2	1.061901E-1	1.002700E-1	1.024753E-1	1.022069E-1	1.140159E-1	1.138861E-1	1.175330E-1	1.013627E-1	9.907541E-2	1.327113E-1	1.209385E-1	1.172092E-1	1.219358E-1	1.271322E-1	1.186993E-1	1.027269E-1	1.333782E-1	9.715700E-2	1.247073E-1	1.083649E-1	1.177465E-1	1.033653E-1	1.149179E-1	1.257344E-1	8.767211E-2	1.015095E-1	1.108437E-1	1.188711E-1	1.077002E-1	1.481727E-1	1.121651E-1	1.043054E-1	1.277563E-1	9.308111E-2	1.131186E-1	9.273711E-2	1.100006E-1	1.156515E-1	1.059018E-1	1.023085E-1	1.107230E-1	1.002726E-1	8.718663E-2	1.022302E-1	9.830607E-2	1.092690E-1	1.154757E-1	1.193738E-1	1.145790E-1	1.039791E-1	1.339245E-1	9.749719E-2	1.045311E-1	1.126645E-1	1.191488E-1	1.036173E-1	1.099956E-1	1.048333E-1	1.067452E-1	1.031524E-1	1.185511E-1	1.276849E-1	9.909799E-2	1.244835E-1	9.522138E-2	1.215339E-1	1.208613E-1	9.979564E-2	1.128448E-1	1.492930E-1	1.267696E-1	1.141893E-1	9.807925E-2	1.224587E-1	1.186788E-1	1.280967E-1	1.090810E-1	1.313806E-1	1.917104E-1
2.845030E+2	1.475111E-1	1.447191E-1	1.673764E-1	1.433566E-1	1.542194E-1	1.419263E-1	1.408640E-1	1.638633E-1	1.230391E-1	1.555176E-1	1.420413E-1	1.470808E-1	1.617421E-1	1.633826E-1	1.468374E-1	1.487954E-1	1.578595E-1	1.844698E-1	1.466626E-1	1.392156E-1	1.313041E-1	1.762998E-1	1.348306E-1	1.587872E-1	1.896659E-1	1.944087E-1	1.584394E-1	1.997406E-1	1.863391E-1	1.799953E-1	1.848403E-1	1.737491E-1	1.879814E-1	1.898620E-1	1.512130E-1	1.480747E-1	1.809481E-1	1.917693E-1	1.719811E-1	1.731228E-1	1.705272E-1	1.831767E-1	1.980192E-1	1.632010E-1	1.740187E-1	1.896609E-1	1.868041E-1	1.832267E-1	1.775395E-1	1.613297E-1	1.720162E-1	1.601717E-1	1.594362E-1	1.730606E-1	1.598899E-1	1.709949E-1	1.726797E-1	1.663832E-1	1.514538E-1	1.763672E-1	1.642553E-1	1.510397E-1	1.647820E-1	1.605678E-1	1.662094E-1	1.426099E-1	1.986068E-1	1.476349E-1	1.453682E-1	1.603641E-1	1.627445E-1	1.404931E-1	1.530460E-1	1.537126E-1	1.568944E-1	1.539758E-1	1.820997E-1	1.475639E-1	1.644670E-1	1.657432E-1	1.474822E-1	1.693850E-1	1.445155E-1	1.453623E-1	1.850242E-1	1.544105E-1	1.691103E-1	1.560308E-1	1.646703E-1	1.337008E-1	1.534971E-1	1.852863E-1	1.266315E-1	1.757425E-1	1.518962E-1	1.718855E-1	1.917267E-1	1.329270E-1	1.574918E-1	1.618056E-1	1.518734E-1	1.749929E-1	1.286461E-1	1.352604E-1	1.832671E-1	1.297346E-1	1.774242E-1	1.649184E-1	1.693916E-1	1.604426E-1	1.624148E-1	1.751152E-1	1.502150E-1	1.423324E-1	1.531272E-1	1.469530E-1	1.625620E-1	1.795457E-1	1.684082E-1	1.383316E-1	1.777152E-1	1.566606E-1	1.450442E-1	1.661342E-1	1.728512E-1	1.633482E-1	1.626433E-1	1.148570E-1	1.209339E-1	1.573384E-1	1.473854E-1	1.715521E-1	1.783240E-1	1.528890E-1	1.607537E-1	1.805278E-1	1.414774E-1	1.476051E-1	1.726428E-1	1.773615E-1	1.617203E-1	1.498610E-1	1.502085E-1	1.507631E-1	1.496195E-1	1.718653E-1	1.931297E-1	1.580626E-1	1.534642E-1	1.609640E-1	1.522452E-1	1.590867E-1	1.660485E-1	1.433003E-1	1.626238E-1	1.540532E-1	1.347895E-1	1.585243E-1	1.432254E-1	1.481098E-1	1.729830E-1	1.329301E-1	1.483256E-1	1.668238E-1	1.793373E-1	1.316656E-1	1.617251E-1	2.077531E-1	1.348217E-1	1.528636E-1
2.846010E+2	2.740984E-1	2.568672E-1	2.676290E-1	2.390861E-1	2.345169E-1	2.176944E-1	2.176390E-1	2.398282E-1	2.444938E-1	2.172584E-1	2.345723E-1	2.451266E-1	2.473884E-1	2.276372E-1	2.186973E-1	2.274123E-1	2.159755E-1	2.463069E-1	2.164010E-1	2.491253E-1	2.256891E-1	2.221002E-1	2.344951E-1	2.441187E-1	3.096502E-1	2.803739E-1	2.688372E-1	2.643919E-1	2.770745E-1	3.122137E-1	2.608885E-1	2.687611E-1	2.729530E-1	2.977744E-1	2.530358E-1	2.651091E-1	3.137094E-1	2.837497E-1	2.601845E-1	2.593736E-1	2.794820E-1	2.434643E-1	2.431413E-1	2.855762E-1	2.618743E-1	2.740562E-1	2.713926E-1	2.630431E-1	2.848384E-1	2.921399E-1	2.981717E-1	2.748111E-1	2.864028E-1	2.984532E-1	2.271446E-1	2.685814E-1	2.515323E-1	2.635386E-1	2.457664E-1	2.351202E-1	2.906234E-1	2.522975E-1	2.337720E-1	2.785440E-1	2.366568E-1	2.751631E-1	2.722236E-1	2.464656E-1	2.256253E-1	2.542020E-1	2.464928E-1	2.302979E-1	2.657877E-1	2.553873E-1	2.235430E-1	2.568834E-1	2.458192E-1	2.608489E-1	2.550553E-1	2.656564E-1	2.635627E-1	2.273672E-1	2.466160E-1	2.389695E-1	2.751209E-1	2.418142E-1	2.717506E-1	2.700200E-1	2.254870E-1	2.314908E-1	2.674356E-1	2.517352E-1	2.801476E-1	2.471646E-1	2.462772E-1	2.356053E-1	2.494279E-1	2.606264E-1	2.561289E-1	2.612196E-1	2.572360E-1	2.403050E-1	2.481918E-1	2.335229E-1	2.595171E-1	2.484295E-1	2.183851E-1	2.662239E-1	2.759000E-1	2.348434E-1	2.440290E-1	2.477101E-1	2.573044E-1	2.605015E-1	2.725999E-1	2.363502E-1	2.127461E-1	2.333211E-1	2.044714E-1	2.597552E-1	2.698314E-1	2.378037E-1	2.198829E-1	2.239498E-1	2.206793E-1	2.316480E-1	2.284540E-1	2.601578E-1	2.330352E-1	2.701409E-1	2.307721E-1	2.228185E-1	2.739310E-1	2.073008E-1	2.185723E-1	2.370141E-1	2.585461E-1	2.270203E-1	2.294980E-1	2.219671E-1	2.331668E-1	2.414866E-1	2.459925E-1	2.632552E-1	2.479377E-1	2.747382E-1	2.759307E-1	2.586077E-1	2.584224E-1	1.952288E-1	2.306366E-1	2.613149E-1	2.778565E-1	2.187902E-1	1.998701E-1	2.083241E-1	2.284359E-1	2.325362E-1	2.465102E-1	2.939048E-1	2.235675E-1	2.142844E-1	2.523530E-1	2.418857E-1	2.265520E-1	2.587343E-1	2.162856E-1	2.458607E-1	2.572216E-1	2.226856E-1
2.847030E+2	4.703458E-1	4.298249E-1	4.713709E-1	4.908057E-1	4.226275E-1	4.251738E-1	4.716011E-1	4.610376E-1	4.915409E-1	4.498656E-1	4.366476E-1	4.774707E-1	4.845277E-1	4.850420E-1	4.329493E-1	4.708344E-1	4.736515E-1	4.959427E-1	4.219877E-1	4.705140E-1	4.213195E-1	4.716244E-1	4.415207E-1	4.349115E-1	5.196916E-1	5.068585E-1	5.220867E-1	4.835080E-1	5.078547E-1	4.563498E-1	5.183345E-1	5.662314E-1	5.332743E-1	4.974206E-1	4.837119E-1	4.590796E-1	5.185424E-1	4.931794E-1	5.196454E-1	5.285214E-1	5.679766E-1	5.003898E-1	4.898655E-1	5.137071E-1	4.995823E-1	4.924921E-1	5.452391E-1	5.019989E-1	5.175866E-1	5.019137E-1	5.277160E-1	5.055391E-1	4.961620E-1	4.734348E-1	4.952363E-1	4.709457E-1	4.765872E-1	4.905881E-1	4.882726E-1	5.055960E-1	5.183880E-1	4.810187E-1	4.528245E-1	5.258609E-1	4.693083E-1	5.272200E-1	4.971773E-1	4.533144E-1	5.344270E-1	4.650199E-1	5.181195E-1	4.646628E-1	5.601428E-1	5.117929E-1	4.605886E-1	4.434661E-1	5.201765E-1	5.241383E-1	4.970844E-1	5.122267E-1	4.841077E-1	4.836096E-1	4.977995E-1	5.224442E-1	4.871311E-1	4.402325E-1	5.075718E-1	4.801368E-1	4.679771E-1	4.596179E-1	4.279036E-1	4.701419E-1	4.625914E-1	4.717423E-1	4.582288E-1	4.833756E-1	4.613324E-1	5.049851E-1	4.416871E-1	4.266669E-1	4.643261E-1	4.885876E-1	4.428938E-1	4.959928E-1	4.634036E-1	4.858101E-1	4.790842E-1	4.655073E-1	4.978696E-1	4.611264E-1	4.523927E-1	4.303688E-1	4.414434E-1	4.888279E-1	4.893251E-1	5.135368E-1	4.637473E-1	4.021336E-1	4.982563E-1	4.810225E-1	5.153814E-1	5.148206E-1	4.674498E-1	4.552207E-1	4.930165E-1	4.827889E-1	4.660237E-1	4.897413E-1	4.874809E-1	4.648542E-1	4.347286E-1	4.554364E-1	4.518920E-1	4.655055E-1	4.172419E-1	4.582784E-1	4.663584E-1	4.984495E-1	4.465060E-1	4.985811E-1	4.720353E-1	4.489723E-1	4.490669E-1	4.775982E-1	4.799280E-1	4.710339E-1	4.657117E-1	5.170666E-1	4.913368E-1	4.673503E-1	5.011521E-1	4.362693E-1	5.323738E-1	4.765418E-1	4.550396E-1	4.529713E-1	4.734749E-1	4.576284E-1	3.994291E-1	5.090532E-1	4.767059E-1	5.074604E-1	4.574858E-1	4.947992E-1	4.928749E-1	4.643432E-1	5.060449E-1	4.704222E-1	4.898998E-1	4.669304E-1
2.848030E+2	9.008945E-1	8.949079E-1	9.249673E-1	8.655853E-1	8.732648E-1	8.486422E-1	8.903984E-1	8.820553E-1	8.824809E-1	9.296929E-1	8.603420E-1	8.403769E-1	8.960843E-1	8.866586E-1	8.337294E-1	8.791318E-1	8.557874E-1	9.235413E-1	8.260056E-1	9.428859E-1	9.210072E-1	9.040759E-1	8.997075E-1	9.373727E-1	9.454282E-1	9.493361E-1	9.351327E-1	9.077971E-1	8.922226E-1	8.565750E-1	9.039426E-1	8.714024E-1	9.237140E-1	8.970987E-1	8.440491E-1	9.555314E-1	9.215893E-1	8.790395E-1	8.978416E-1	9.448391E-1	9.357856E-1	8.795688E-1	8.632706E-1	9.207717E-1	9.247376E-1	9.189850E-1	9.111815E-1	9.358351E-1	9.308992E-1	9.446653E-1	9.354595E-1	9.442102E-1	8.866353E-1	8.435058E-1	9.130544E-1	8.957617E-1	9.767444E-1	9.662354E-1	9.505074E-1	9.127357E-1	9.064056E-1	9.175150E-1	8.887468E-1	8.653062E-1	8.758378E-1	8.592916E-1	9.432218E-1	8.644479E-1	8.924338E-1	8.960339E-1	8.837990E-1	8.508761E-1	9.086614E-1	9.636431E-1	9.144235E-1	8.561203E-1	8.570449E-1	8.826449E-1	9.045314E-1	9.307205E-1	8.741972E-1	9.248664E-1	8.679179E-1	8.772681E-1	9.212327E-1	8.899148E-1	8.968465E-1	8.990648E-1	9.126963E-1	9.361605E-1	9.255858E-1	8.871799E-1	8.933060E-1	9.279863E-1	9.567962E-1	8.892414E-1	8.593729E-1	8.705878E-1	9.095245E-1	8.713691E-1	8.927788E-1	9.287978E-1	9.338486E-1	8.930077E-1	9.069325E-1	8.565152E-1	9.064248E-1	9.346372E-1	9.391756E-1	8.976716E-1	9.431529E-1	1.006415E+0	9.544494E-1	9.926144E-1	9.865341E-1	8.737442E-1	9.250177E-1	8.527832E-1	9.327524E-1	9.372252E-1	9.268504E-1	9.227743E-1	9.812672E-1	9.195438E-1	9.477689E-1	8.787565E-1	8.750909E-1	1.017212E+0	9.080722E-1	9.396906E-1	8.396178E-1	8.187311E-1	9.370119E-1	8.022599E-1	8.735591E-1	9.430242E-1	9.334482E-1	9.057225E-1	8.795704E-1	9.426268E-1	9.157465E-1	8.430861E-1	8.421463E-1	9.362415E-1	9.283940E-1	9.175392E-1	9.397149E-1	9.058491E-1	8.666985E-1	9.347576E-1	8.625423E-1	8.637529E-1	8.680328E-1	8.290646E-1	8.967383E-1	8.597264E-1	8.518711E-1	9.181125E-1	9.109005E-1	9.148365E-1	8.546453E-1	8.625846E-1	8.376232E-1	9.025530E-1	9.240528E-1	9.066075E-1	8.543421E-1	9.939488E-1	8.901539E-1	1.065823E+0
2.849020E+2	1.049860E+0	1.072455E+0	1.005269E+0	1.003352E+0	1.029775E+0	1.046149E+0	9.779681E-1	9.286403E-1	1.010532E+0	1.022286E+0	1.092305E+0	1.089798E+0	1.075222E+0	1.090672E+0	1.038843E+0	9.847301E-1	9.915248E-1	1.031595E+0	1.001919E+0	1.094195E+0	1.081937E+0	9.467493E-1	1.013696E+0	1.039328E+0	1.051019E+0	9.705926E-1	9.662488E-1	9.314827E-1	9.661630E-1	1.070585E+0	1.004604E+0	1.006826E+0	9.596991E-1	1.023793E+0	9.762874E-1	9.545065E-1	9.458542E-1	1.004145E+0	1.044560E+0	1.061171E+0	1.059877E+0	1.020197E+0	9.656295E-1	9.945150E-1	9.900528E-1	1.040037E+0	9.883626E-1	9.778688E-1	9.542302E-1	9.661066E-1	1.007478E+0	1.034575E+0	9.371795E-1	9.888929E-1	1.022246E+0	1.041723E+0	1.037028E+0	1.070698E+0	1.048494E+0	1.000491E+0	1.107722E+0	9.911076E-1	9.111937E-1	1.066924E+0	9.739552E-1	1.018154E+0	9.835535E-1	9.679151E-1	1.072858E+0	1.082118E+0	1.021824E+0	9.451749E-1	1.055152E+0	9.932160E-1	1.000822E+0	9.899528E-1	1.100636E+0	1.016788E+0	1.072494E+0	1.030071E+0	1.068560E+0	9.261753E-1	9.387094E-1	1.107047E+0	1.059910E+0	9.585677E-1	9.605496E-1	1.036743E+0	1.045630E+0	9.736169E-1	1.002954E+0	9.809430E-1	1.006636E+0	1.016680E+0	1.007291E+0	1.033583E+0	1.012047E+0	9.961522E-1	1.041657E+0	9.579931E-1	1.011450E+0	1.039351E+0	1.015360E+0	9.664525E-1	1.042290E+0	9.740092E-1	1.065377E+0	1.049062E+0	9.873578E-1	9.478631E-1	1.034077E+0	1.028922E+0	1.064073E+0	9.801451E-1	9.810551E-1	9.655131E-1	1.070232E+0	9.942661E-1	1.003941E+0	1.060022E+0	1.031531E+0	9.960550E-1	1.028094E+0	1.006865E+0	9.672700E-1	1.029831E+0	1.015720E+0	9.993548E-1	1.048027E+0	9.659624E-1	1.035809E+0	9.947603E-1	9.815494E-1	9.972071E-1	8.512901E-1	1.025742E+0	1.053581E+0	9.626719E-1	9.418342E-1	1.054920E+0	1.037116E+0	1.058155E+0	9.740086E-1	9.975636E-1	1.081105E+0	9.958371E-1	9.890058E-1	9.963919E-1	1.030734E+0	9.791815E-1	1.013569E+0	1.032215E+0	1.089651E+0	9.825142E-1	1.017738E+0	9.727945E-1	1.009407E+0	1.047263E+0	9.624165E-1	1.064577E+0	1.004434E+0	9.635740E-1	9.486679E-1	9.784944E-1	1.003817E+0	1.000933E+0	9.989866E-1	9.760593E-1	1.003936E+0	9.536697E-1
2.850030E+2	9.115571E-1	8.837480E-1	8.717352E-1	9.148006E-1	8.680024E-1	8.668308E-1	8.995431E-1	9.017471E-1	8.873210E-1	8.945602E-1	9.390853E-1	8.856178E-1	9.164094E-1	9.859310E-1	9.336740E-1	9.491625E-1	9.406062E-1	9.184657E-1	8.538248E-1	8.762448E-1	8.953645E-1	9.537448E-1	8.568661E-1	9.901628E-1	8.584035E-1	9.205786E-1	7.805621E-1	9.216376E-1	9.029335E-1	8.655654E-1	8.798146E-1	8.868266E-1	8.548865E-1	9.123653E-1	8.791132E-1	8.622909E-1	8.933872E-1	8.577201E-1	9.142983E-1	8.914686E-1	9.388393E-1	9.243474E-1	8.595719E-1	8.617260E-1	9.124771E-1	8.660469E-1	8.803206E-1	9.279312E-1	9.014800E-1	8.815747E-1	9.197172E-1	8.783289E-1	8.469556E-1	8.747048E-1	8.631088E-1	9.012263E-1	9.354908E-1	8.922966E-1	8.976706E-1	9.036263E-1	8.655743E-1	9.238259E-1	9.351901E-1	9.049007E-1	8.665250E-1	8.877432E-1	9.223026E-1	9.046437E-1	8.943245E-1	8.855164E-1	9.281464E-1	8.980927E-1	8.897943E-1	8.590709E-1	8.098616E-1	8.837279E-1	8.891760E-1	8.783531E-1	9.150639E-1	8.779822E-1	8.956595E-1	9.155124E-1	9.313988E-1	9.190262E-1	8.808228E-1	9.387061E-1	8.816860E-1	8.832312E-1	9.747399E-1	8.602249E-1	8.443656E-1	9.704702E-1	9.352041E-1	8.810428E-1	8.575984E-1	9.050778E-1	9.094916E-1	8.632489E-1	8.248099E-1	8.971061E-1	9.440649E-1	9.479958E-1	8.449460E-1	8.443294E-1	8.616261E-1	8.969293E-1	9.318279E-1	9.061628E-1	9.416730E-1	9.048989E-1	9.164422E-1	9.189279E-1	8.746454E-1	9.120112E-1	9.243272E-1	9.311754E-1	9.169548E-1	8.526679E-1	9.204311E-1	9.301789E-1	9.587794E-1	8.705948E-1	9.004525E-1	8.917026E-1	9.306289E-1	9.576358E-1	9.080982E-1	9.783432E-1	8.993469E-1	9.256725E-1	9.234628E-1	9.323003E-1	9.466573E-1	8.987317E-1	8.507120E-1	9.654809E-1	9.073536E-1	8.747834E-1	8.597775E-1	9.814653E-1	8.669603E-1	9.517338E-1	9.421026E-1	9.356172E-1	9.493448E-1	9.247427E-1	8.582151E-1	9.271487E-1	9.107313E-1	9.071469E-1	8.591910E-1	9.442205E-1	9.836685E-1	8.400958E-1	8.864770E-1	8.542621E-1	9.011089E-1	9.243310E-1	9.293304E-1	9.141268E-1	8.997708E-1	9.110179E-1	9.320288E-1	9.099737E-1	9.269280E-1	8.781016E-1	8.884534E-1	9.480094E-1	9.672622E-1	1.021344E+0
2.851080E+2	8.635183E-1	8.806958E-1	8.325113E-1	8.292963E-1	8.668916E-1	8.645547E-1	7.996528E-1	8.172555E-1	8.978772E-1	8.838711E-1	9.069083E-1	8.484478E-1	8.281850E-1	8.704509E-1	8.887850E-1	8.563367E-1	8.315335E-1	9.098762E-1	8.663827E-1	8.862185E-1	8.887162E-1	8.344935E-1	7.994377E-1	8.678544E-1	8.595527E-1	8.796091E-1	8.131070E-1	8.200023E-1	8.680844E-1	8.621902E-1	8.697611E-1	8.568358E-1	8.078129E-1	8.526484E-1	8.456183E-1	8.445450E-1	8.325324E-1	8.288315E-1	8.303724E-1	8.598214E-1	8.751364E-1	8.530329E-1	8.665272E-1	8.620951E-1	8.155207E-1	8.641928E-1	9.026001E-1	8.148229E-1	8.481329E-1	8.517521E-1	8.535858E-1	8.413009E-1	8.367499E-1	8.378736E-1	7.971099E-1	8.713983E-1	9.234675E-1	9.072563E-1	8.127869E-1	8.734439E-1	8.885098E-1	8.183677E-1	8.794434E-1	8.111687E-1	8.238460E-1	8.995971E-1	8.250361E-1	8.329993E-1	9.088780E-1	8.109465E-1	8.459451E-1	8.316292E-1	8.471839E-1	8.424947E-1	8.598110E-1	8.172152E-1	8.933450E-1	8.629657E-1	8.787670E-1	8.497627E-1	8.438817E-1	8.946689E-1	8.654840E-1	8.374822E-1	8.557724E-1	8.210890E-1	8.537250E-1	8.446480E-1	8.845369E-1	8.023252E-1	8.351406E-1	8.466778E-1	8.820250E-1	8.660419E-1	8.879007E-1	9.068882E-1	8.780525E-1	8.808796E-1	8.302826E-1	7.965668E-1	8.817047E-1	8.934814E-1	8.360122E-1	7.893612E-1	8.767537E-1	8.965399E-1	8.464083E-1	8.184287E-1	9.397411E-1	8.603506E-1	8.999382E-1	8.829024E-1	8.653042E-1	8.553209E-1	9.153039E-1	8.212782E-1	8.350656E-1	8.829583E-1	8.442539E-1	8.603962E-1	8.204258E-1	8.706294E-1	9.153846E-1	8.554507E-1	8.174725E-1	8.275658E-1	8.515551E-1	8.617996E-1	8.476605E-1	8.333069E-1	8.601513E-1	8.657211E-1	8.692061E-1	8.188139E-1	7.204997E-1	8.195658E-1	8.634616E-1	8.998488E-1	7.869549E-1	8.903071E-1	8.931863E-1	8.754336E-1	8.198849E-1	8.411042E-1	8.477907E-1	8.247234E-1	8.736298E-1	8.137036E-1	8.163739E-1	8.939689E-1	8.532239E-1	8.229852E-1	9.180435E-1	7.893481E-1	8.775029E-1	8.674468E-1	8.983599E-1	8.775619E-1	8.643984E-1	8.842560E-1	9.032272E-1	9.031714E-1	8.010877E-1	8.487066E-1	8.506397E-1	7.854743E-1	8.642444E-1	9.457368E-1	9.091005E-1	8.593688E-1
2.852010E+2	8.854267E-1	7.922190E-1	8.321800E-1	8.335530E-1	7.778909E-1	8.256640E-1	7.869887E-1	7.990466E-1	7.808166E-1	8.238517E-1	8.283913E-1	8.037945E-1	8.423349E-1	8.411842E-1	8.952118E-1	8.129388E-1	8.191897E-1	8.234676E-1	8.405785E-1	8.724510E-1	8.059886E-1	8.099093E-1	7.413557E-1	8.072660E-1	8.457480E-1	8.541199E-1	8.094822E-1	8.565446E-1	8.339030E-1	8.872592E-1	7.838595E-1	7.945726E-1	7.693257E-1	8.489962E-1	8.038391E-1	8.185370E-1	7.655955E-1	8.677812E-1	8.415955E-1	8.286308E-1	8.757105E-1	8.531760E-1	7.939288E-1	8.155876E-1	8.408397E-1	8.111975E-1	9.044838E-1	8.468939E-1	8.160162E-1	8.220247E-1	7.834729E-1	8.871097E-1	8.260283E-1	8.109513E-1	8.214024E-1	7.949313E-1	8.040511E-1	8.987037E-1	8.844307E-1	8.016346E-1	8.273525E-1	7.673752E-1	8.459458E-1	8.915792E-1	8.134477E-1	7.973246E-1	8.537379E-1	8.263421E-1	8.672943E-1	8.610992E-1	7.679413E-1	8.533772E-1	8.830548E-1	8.641073E-1	7.508338E-1	8.508642E-1	7.951016E-1	8.629961E-1	8.326439E-1	8.123081E-1	8.514104E-1	8.162717E-1	8.327287E-1	8.459621E-1	9.079028E-1	8.079630E-1	8.278856E-1	8.755587E-1	8.659210E-1	8.613838E-1	7.908639E-1	7.572114E-1	8.174729E-1	8.384578E-1	8.073485E-1	8.028519E-1	8.678453E-1	8.125998E-1	7.911617E-1	8.474371E-1	8.862906E-1	8.614906E-1	8.644872E-1	8.169794E-1	8.595272E-1	8.212010E-1	8.190456E-1	7.941213E-1	8.345620E-1	8.245624E-1	8.645480E-1	7.882832E-1	8.242489E-1	8.851754E-1	8.695083E-1	8.267876E-1	8.598031E-1	8.107857E-1	8.155913E-1	8.775255E-1	8.844987E-1	8.417801E-1	8.766711E-1	7.624144E-1	7.911614E-1	8.816379E-1	8.525330E-1	8.968079E-1	8.117412E-1	8.493412E-1	8.238274E-1	8.072424E-1	8.076243E-1	8.275817E-1	7.556825E-1	8.131630E-1	8.273291E-1	8.232091E-1	7.954439E-1	8.526625E-1	8.678809E-1	8.904703E-1	7.851356E-1	8.425806E-1	8.450388E-1	7.799740E-1	8.312314E-1	7.767618E-1	8.900195E-1	8.132354E-1	8.049737E-1	7.771448E-1	8.320708E-1	7.600436E-1	8.111371E-1	7.946489E-1	8.815575E-1	8.036150E-1	8.498047E-1	8.090731E-1	8.088804E-1	8.234670E-1	7.678505E-1	7.871551E-1	7.637031E-1	8.138854E-1	8.735566E-1	8.320717E-1	8.109544E-1	8.328050E-1
2.853000E+2	5.997323E-1	6.259171E-1	6.069201E-1	6.593651E-1	6.229732E-1	6.042530E-1	6.274411E-1	5.635113E-1	7.024028E-1	6.249495E-1	5.920494E-1	6.380414E-1	5.916200E-1	6.186503E-1	5.823262E-1	6.142307E-1	6.199146E-1	6.258157E-1	6.861158E-1	6.506544E-1	6.466879E-1	5.891208E-1	5.949848E-1	5.858894E-1	5.929267E-1	5.981053E-1	6.215380E-1	5.992640E-1	6.241170E-1	6.499747E-1	6.440880E-1	6.362596E-1	6.040953E-1	6.353014E-1	6.426217E-1	5.729931E-1	6.459064E-1	5.854302E-1	6.176616E-1	6.413661E-1	6.484651E-1	6.864128E-1	6.332788E-1	5.775803E-1	6.024686E-1	6.285281E-1	6.261360E-1	6.546517E-1	6.392663E-1	6.342296E-1	6.211923E-1	6.500224E-1	6.469426E-1	5.662649E-1	6.352916E-1	6.405111E-1	6.078438E-1	6.429543E-1	6.064261E-1	6.241530E-1	6.444933E-1	6.071293E-1	5.684704E-1	6.455922E-1	6.376103E-1	6.175073E-1	7.085438E-1	6.352926E-1	6.790787E-1	5.997448E-1	5.783638E-1	5.958824E-1	6.188787E-1	6.295421E-1	5.677088E-1	6.565046E-1	6.760231E-1	5.628697E-1	6.648308E-1	6.089220E-1	6.542287E-1	5.660502E-1	6.133758E-1	6.504685E-1	6.180127E-1	5.835757E-1	6.541795E-1	5.907215E-1	6.325217E-1	6.476216E-1	6.086902E-1	5.818841E-1	6.039970E-1	6.268070E-1	6.228848E-1	6.431371E-1	6.021258E-1	6.074382E-1	5.649565E-1	6.185016E-1	5.707550E-1	6.274955E-1	6.691087E-1	6.132985E-1	6.316578E-1	6.219563E-1	6.514457E-1	6.260517E-1	6.440592E-1	5.933880E-1	6.029174E-1	6.447306E-1	6.521481E-1	6.322326E-1	6.085742E-1	5.965746E-1	6.378575E-1	6.334901E-1	6.224825E-1	6.215989E-1	6.289014E-1	6.249593E-1	6.206685E-1	6.088663E-1	6.401254E-1	6.333259E-1	6.536019E-1	6.004792E-1	6.278896E-1	5.890015E-1	5.719807E-1	6.384628E-1	6.457045E-1	5.857250E-1	5.673047E-1	6.452563E-1	6.827987E-1	6.732378E-1	5.178262E-1	6.094801E-1	6.322623E-1	6.598424E-1	6.127241E-1	6.328875E-1	6.357371E-1	6.420904E-1	6.552782E-1	6.386244E-1	5.986882E-1	6.302479E-1	5.957464E-1	6.419077E-1	6.295378E-1	5.607598E-1	5.922450E-1	6.348674E-1	5.946445E-1	5.950504E-1	6.449113E-1	6.416040E-1	6.557418E-1	6.180911E-1	6.106887E-1	6.407944E-1	5.846667E-1	5.887679E-1	6.219577E-1	6.897488E-1	7.551115E-1	6.429119E-1
2.854130E+2	4.624141E-1	4.719462E-1	4.856088E-1	4.660695E-1	4.997419E-1	4.926687E-1	4.524324E-1	4.720520E-1	4.469256E-1	4.749652E-1	4.900955E-1	4.429572E-1	4.398036E-1	4.188510E-1	4.510683E-1	4.295248E-1	3.819803E-1	4.530412E-1	4.077378E-1	4.524374E-1	4.648258E-1	4.210005E-1	4.221204E-1	4.785067E-1	4.749167E-1	4.323824E-1	5.097734E-1	4.748183E-1	4.633423E-1	4.923415E-1	4.625098E-1	5.072010E-1	4.626323E-1	4.576627E-1	4.602375E-1	4.635321E-1	4.409102E-1	4.655522E-1	5.129653E-1	4.600766E-1	5.023958E-1	4.611646E-1	4.836798E-1	4.443174E-1	4.380336E-1	4.267527E-1	4.694630E-1	4.330651E-1	4.834005E-1	4.442442E-1	4.721852E-1	4.197822E-1	4.684891E-1	4.789154E-1	4.449020E-1	4.688072E-1	4.665384E-1	5.296845E-1	4.332244E-1	4.622956E-1	4.655929E-1	4.733387E-1	4.118223E-1	4.830797E-1	4.582741E-1	4.836676E-1	4.554297E-1	4.567850E-1	4.346253E-1	4.543229E-1	4.180074E-1	4.686302E-1	4.871803E-1	4.675963E-1	4.580114E-1	4.675741E-1	4.645079E-1	4.789897E-1	4.887690E-1	4.355788E-1	4.420119E-1	4.438310E-1	4.236176E-1	4.925052E-1	4.787395E-1	4.431682E-1	4.458798E-1	4.704109E-1	4.397176E-1	4.559151E-1	4.272897E-1	4.559869E-1	4.840347E-1	4.623020E-1	4.639818E-1	4.719868E-1	4.112926E-1	4.650643E-1	4.202229E-1	4.455765E-1	4.456703E-1	5.102069E-1	4.209288E-1	4.547426E-1	4.341280E-1	4.493869E-1	4.448905E-1	4.552377E-1	4.991494E-1	4.631707E-1	4.598714E-1	4.876373E-1	4.564072E-1	4.247883E-1	4.648981E-1	4.606421E-1	4.554140E-1	4.648441E-1	4.888489E-1	4.840792E-1	4.783694E-1	4.943305E-1	4.313701E-1	4.483825E-1	4.846599E-1	4.847771E-1	4.615150E-1	4.627764E-1	5.187539E-1	4.869805E-1	4.346871E-1	4.588504E-1	4.486136E-1	4.297368E-1	4.657751E-1	4.322421E-1	4.585173E-1	4.616360E-1	4.252258E-1	4.230078E-1	5.160420E-1	5.117912E-1	4.200631E-1	4.442771E-1	5.006484E-1	4.307934E-1	4.603646E-1	4.417056E-1	4.754554E-1	4.611541E-1	4.706758E-1	4.759841E-1	4.487872E-1	4.226191E-1	4.572566E-1	3.563943E-1	4.705439E-1	4.639693E-1	4.740892E-1	4.218875E-1	4.994047E-1	4.791568E-1	4.459601E-1	4.651483E-1	4.638129E-1	4.578798E-1	4.088506E-1	4.575693E-1	5.281734E-1	4.370415E-1
2.855050E+2	3.245501E-1	3.111799E-1	3.490304E-1	3.296897E-1	3.334496E-1	3.292681E-1	3.492977E-1	3.406338E-1	3.332575E-1	3.812067E-1	3.898193E-1	3.387074E-1	3.439871E-1	3.487483E-1	3.449631E-1	3.438416E-1	3.678904E-1	3.545192E-1	3.111355E-1	3.491753E-1	3.610007E-1	3.575578E-1	2.786901E-1	3.369199E-1	3.481567E-1	3.513254E-1	3.028176E-1	3.130807E-1	3.346034E-1	3.907276E-1	3.790339E-1	3.259608E-1	3.505285E-1	3.343830E-1	3.533386E-1	3.639373E-1	3.440810E-1	3.555827E-1	3.559011E-1	3.776568E-1	3.874571E-1	3.619715E-1	3.670157E-1	3.704941E-1	3.482950E-1	3.679321E-1	3.495911E-1	3.688646E-1	3.416857E-1	3.373176E-1	3.261496E-1	3.590931E-1	3.772794E-1	3.868495E-1	3.241824E-1	3.335756E-1	3.879104E-1	3.579004E-1	3.279157E-1	3.383468E-1	3.633720E-1	3.486311E-1	3.397080E-1	3.620728E-1	3.372700E-1	3.344356E-1	3.446710E-1	3.539592E-1	3.664711E-1	3.481647E-1	3.228802E-1	3.246833E-1	3.668788E-1	3.408691E-1	3.406341E-1	3.512731E-1	3.594274E-1	3.395121E-1	3.442794E-1	3.464745E-1	3.104381E-1	3.289704E-1	3.424136E-1	3.201830E-1	3.584270E-1	3.168177E-1	3.592889E-1	3.518410E-1	3.428195E-1	3.329726E-1	3.415078E-1	3.300596E-1	3.583859E-1	3.264309E-1	3.308264E-1	3.659367E-1	3.367063E-1	3.359919E-1	3.298944E-1	3.247444E-1	3.590676E-1	3.284769E-1	3.280404E-1	3.336990E-1	3.073794E-1	3.519505E-1	3.104379E-1	3.698287E-1	3.339252E-1	3.102918E-1	2.986470E-1	3.167308E-1	3.222643E-1	3.084375E-1	3.444829E-1	3.382304E-1	3.734185E-1	3.395683E-1	3.320617E-1	3.699017E-1	3.699989E-1	3.422622E-1	3.395045E-1	3.390011E-1	3.395105E-1	3.331648E-1	3.521777E-1	3.657738E-1	3.574832E-1	3.230861E-1	3.649777E-1	3.364719E-1	3.358269E-1	3.606515E-1	3.603800E-1	3.088568E-1	3.645603E-1	3.382429E-1	3.657516E-1	3.107933E-1	3.451236E-1	3.554718E-1	2.942512E-1	3.800797E-1	3.944374E-1	3.769451E-1	3.557749E-1	3.739067E-1	3.093636E-1	3.477765E-1	3.285410E-1	3.416893E-1	3.387010E-1	3.587834E-1	3.403290E-1	3.450546E-1	2.951620E-1	3.618467E-1	3.612269E-1	3.764636E-1	3.035569E-1	3.803338E-1	3.447532E-1	3.631635E-1	3.497121E-1	3.111145E-1	3.901912E-1	3.327871E-1	3.546440E-1	3.729657E-1
2.856030E+2	2.361849E-1	2.341969E-1	2.514196E-1	2.381937E-1	2.212433E-1	2.281373E-1	2.541118E-1	2.568336E-1	2.472338E-1	2.613988E-1	2.151122E-1	2.500306E-1	2.247383E-1	2.523243E-1	2.319453E-1	2.216607E-1	2.268271E-1	2.278369E-1	2.252878E-1	2.453756E-1	2.181832E-1	2.790839E-1	2.470015E-1	2.293974E-1	2.540259E-1	2.436129E-1	2.261932E-1	2.460792E-1	2.575253E-1	2.503946E-1	2.254334E-1	2.138106E-1	2.260482E-1	2.249902E-1	2.550225E-1	2.190518E-1	2.295263E-1	2.065846E-1	2.699907E-1	2.468072E-1	2.554569E-1	2.380129E-1	2.269958E-1	2.130958E-1	2.403269E-1	2.509315E-1	1.981841E-1	2.523159E-1	2.447908E-1	2.445359E-1	2.373091E-1	2.396069E-1	2.238554E-1	2.319808E-1	2.667799E-1	2.225366E-1	2.575259E-1	2.423138E-1	2.389295E-1	2.137731E-1	2.377769E-1	2.361493E-1	2.251006E-1	2.352667E-1	2.199653E-1	2.547427E-1	2.201209E-1	2.240361E-1	2.182555E-1	2.360906E-1	2.089935E-1	2.288671E-1	2.330064E-1	2.123365E-1	2.289355E-1	2.379193E-1	2.619317E-1	2.310905E-1	2.420888E-1	2.029198E-1	2.250702E-1	2.348524E-1	2.370135E-1	2.317705E-1	2.653079E-1	2.637748E-1	2.217409E-1	2.480810E-1	2.040026E-1	2.186097E-1	2.240271E-1	2.183615E-1	2.211247E-1	2.415503E-1	2.249607E-1	2.440559E-1	2.332339E-1	2.010730E-1	2.145416E-1	2.038526E-1	2.498008E-1	2.324328E-1	2.315756E-1	2.276951E-1	2.321522E-1	2.244003E-1	2.318831E-1	2.784794E-1	2.376662E-1	2.259397E-1	2.635959E-1	2.775843E-1	2.460893E-1	2.314922E-1	2.371322E-1	2.310426E-1	2.537169E-1	2.219372E-1	2.370193E-1	2.380139E-1	2.099593E-1	2.231148E-1	2.251931E-1	2.110175E-1	2.510407E-1	2.504812E-1	2.397987E-1	2.298990E-1	2.463791E-1	2.057064E-1	2.316399E-1	2.193850E-1	2.506567E-1	2.345638E-1	2.491390E-1	2.303961E-1	2.430661E-1	2.144955E-1	2.328617E-1	2.350698E-1	2.697877E-1	2.335850E-1	2.247580E-1	2.585148E-1	2.260218E-1	2.602784E-1	2.554064E-1	2.468227E-1	2.505005E-1	2.629689E-1	2.388206E-1	2.159428E-1	2.408757E-1	2.254068E-1	2.559620E-1	2.421809E-1	2.374240E-1	2.664350E-1	2.272414E-1	2.533736E-1	2.398163E-1	2.013444E-1	2.222113E-1	2.455972E-1	2.504081E-1	2.334542E-1	2.264167E-1	2.547307E-1	2.489395E-1	2.313075E-1
2.858030E+2	2.760982E-1	2.858034E-1	2.782347E-1	2.943932E-1	2.780033E-1	3.164055E-1	3.141992E-1	3.178975E-1	3.068370E-1	3.450056E-1	3.050459E-1	3.153134E-1	2.879479E-1	3.391278E-1	2.952218E-1	2.726065E-1	2.786410E-1	3.086235E-1	2.936763E-1	3.053749E-1	3.244596E-1	2.983215E-1	3.258370E-1	2.804578E-1	3.346537E-1	3.017320E-1	3.209710E-1	2.814993E-1	3.263423E-1	3.233028E-1	3.157421E-1	3.181821E-1	3.084423E-1	2.811786E-1	3.461675E-1	3.152872E-1	3.065074E-1	3.025880E-1	2.889683E-1	2.907636E-1	3.105750E-1	2.980432E-1	3.071884E-1	3.088653E-1	3.313965E-1	3.030886E-1	3.483461E-1	3.318213E-1	3.116695E-1	3.470679E-1	2.960422E-1	2.909463E-1	3.013770E-1	2.777542E-1	3.328228E-1	3.741676E-1	2.835211E-1	3.091348E-1	2.895823E-1	2.837439E-1	3.071240E-1	2.982400E-1	2.929940E-1	3.456517E-1	2.972024E-1	3.159117E-1	2.776696E-1	3.118054E-1	2.852055E-1	3.105919E-1	3.116290E-1	2.970490E-1	3.037075E-1	3.069868E-1	2.767663E-1	3.052855E-1	3.045739E-1	2.931051E-1	3.042761E-1	3.218250E-1	3.155744E-1	3.029726E-1	3.340073E-1	3.366084E-1	3.267634E-1	3.202115E-1	3.154629E-1	3.233961E-1	3.174296E-1	3.045922E-1	3.131475E-1	2.987575E-1	2.684210E-1	3.122080E-1	2.984332E-1	2.803511E-1	2.763652E-1	3.207060E-1	3.520541E-1	2.983391E-1	3.340791E-1	3.150689E-1	3.177676E-1	3.142239E-1	3.183699E-1	2.753822E-1	3.123462E-1	2.922985E-1	3.097112E-1	2.939680E-1	3.242301E-1	3.109232E-1	3.173281E-1	3.304969E-1	3.221477E-1	3.037060E-1	3.127498E-1	2.943461E-1	3.037778E-1	3.018127E-1	3.143505E-1	3.478577E-1	2.999870E-1	3.062666E-1	2.719948E-1	2.547282E-1	3.064145E-1	3.180429E-1	3.083390E-1	3.056063E-1	3.014854E-1	2.925457E-1	3.179361E-1	3.007285E-1	2.899425E-1	3.289187E-1	2.718196E-1	3.135074E-1	2.696320E-1	3.072996E-1	3.396623E-1	3.190220E-1	3.236826E-1	3.477733E-1	2.982820E-1	3.313171E-1	2.953822E-1	3.016061E-1	3.089803E-1	3.266427E-1	2.888676E-1	2.926589E-1	3.214427E-1	2.639947E-1	2.634857E-1	2.921708E-1	3.234661E-1	2.881953E-1	3.326391E-1	3.516578E-1	3.103010E-1	3.086320E-1	2.703545E-1	3.445209E-1	3.255057E-1	3.055008E-1	2.242885E-1	2.891253E-1	2.731355E-1	2.832092E-1
2.860040E+2	5.212601E-1	5.446040E-1	5.705098E-1	5.340459E-1	5.320056E-1	5.425948E-1	5.499107E-1	5.550780E-1	5.204086E-1	5.723498E-1	5.475370E-1	5.598487E-1	5.536411E-1	5.725206E-1	5.635046E-1	5.061133E-1	5.008514E-1	5.239040E-1	5.562026E-1	6.331526E-1	6.012009E-1	5.325238E-1	5.812380E-1	5.921102E-1	6.102586E-1	6.248980E-1	5.517292E-1	5.773140E-1	5.689575E-1	5.818541E-1	4.996058E-1	5.833758E-1	5.594835E-1	5.776136E-1	5.306951E-1	5.642585E-1	5.989918E-1	5.646953E-1	5.744326E-1	5.379687E-1	6.157342E-1	5.549959E-1	5.612189E-1	5.725505E-1	5.649474E-1	5.220182E-1	5.503275E-1	6.178752E-1	5.721613E-1	5.660609E-1	5.105459E-1	5.536282E-1	5.080252E-1	5.846524E-1	5.568879E-1	5.412592E-1	5.893946E-1	6.031018E-1	5.713278E-1	5.551433E-1	5.315309E-1	5.351516E-1	5.262183E-1	5.458366E-1	5.649185E-1	5.697097E-1	5.597655E-1	5.582865E-1	5.356652E-1	5.187385E-1	5.118819E-1	5.621428E-1	5.768616E-1	5.892187E-1	4.875027E-1	5.487432E-1	5.436099E-1	5.458416E-1	5.700213E-1	5.277284E-1	5.188196E-1	5.723931E-1	5.656270E-1	5.988683E-1	6.003540E-1	5.120509E-1	5.466780E-1	5.481289E-1	5.523211E-1	5.660327E-1	5.851644E-1	5.121435E-1	5.415392E-1	5.397583E-1	5.871960E-1	5.639157E-1	5.595952E-1	5.864706E-1	5.342655E-1	5.263030E-1	5.819537E-1	5.765449E-1	5.309698E-1	5.333480E-1	5.891045E-1	5.508442E-1	5.651141E-1	5.317679E-1	5.314302E-1	5.477587E-1	5.822336E-1	5.623102E-1	5.721326E-1	5.848226E-1	5.489624E-1	5.052258E-1	5.287923E-1	5.184419E-1	5.501568E-1	5.460082E-1	5.466485E-1	5.461324E-1	5.667289E-1	5.782058E-1	5.974450E-1	5.473844E-1	5.787987E-1	5.681448E-1	5.033630E-1	5.353980E-1	5.983195E-1	5.394435E-1	5.264289E-1	5.531832E-1	5.010587E-1	5.750577E-1	5.721003E-1	5.227050E-1	5.059903E-1	5.860865E-1	5.955327E-1	5.896413E-1	4.885427E-1	5.432327E-1	5.486328E-1	4.997543E-1	5.715331E-1	5.482923E-1	5.471953E-1	5.435606E-1	5.175351E-1	5.425667E-1	5.671122E-1	5.296105E-1	5.332870E-1	5.376003E-1	5.729982E-1	5.196344E-1	5.129163E-1	5.530264E-1	5.659970E-1	5.575888E-1	5.660849E-1	5.377966E-1	5.557908E-1	5.490343E-1	5.280511E-1	5.235921E-1	5.501632E-1	5.765149E-1
2.862020E+2	8.495114E-1	7.962690E-1	7.859765E-1	8.436343E-1	8.680386E-1	8.781829E-1	8.311690E-1	7.789689E-1	9.171389E-1	8.213121E-1	8.037410E-1	7.997837E-1	8.560015E-1	8.683073E-1	8.318059E-1	8.520479E-1	7.958205E-1	8.254240E-1	7.957016E-1	9.824170E-1	7.857190E-1	8.073595E-1	8.243960E-1	7.607880E-1	7.701006E-1	7.683817E-1	8.603265E-1	8.304257E-1	7.942113E-1	8.220569E-1	7.736543E-1	7.502138E-1	8.477462E-1	8.721741E-1	7.811807E-1	7.705132E-1	8.419402E-1	8.299178E-1	8.385635E-1	8.044490E-1	8.214340E-1	8.031635E-1	9.060871E-1	7.650813E-1	8.164092E-1	8.092787E-1	7.678112E-1	8.399753E-1	8.613364E-1	8.386579E-1	8.401257E-1	8.370381E-1	8.122405E-1	8.107751E-1	8.374574E-1	8.627500E-1	7.956079E-1	8.382676E-1	8.268373E-1	8.045760E-1	8.190432E-1	8.151653E-1	8.215331E-1	8.426383E-1	7.321171E-1	7.698306E-1	8.456448E-1	7.253658E-1	8.124517E-1	7.755198E-1	7.704249E-1	8.131998E-1	8.047408E-1	8.063337E-1	7.444620E-1	8.332946E-1	8.607222E-1	8.387221E-1	7.883579E-1	7.711491E-1	8.584453E-1	8.205471E-1	7.974156E-1	8.544342E-1	8.558434E-1	8.065198E-1	8.150869E-1	8.031518E-1	7.877766E-1	7.784246E-1	8.194474E-1	8.204887E-1	8.131482E-1	8.238103E-1	8.859703E-1	7.955538E-1	7.753051E-1	8.145395E-1	7.768142E-1	7.787667E-1	8.409698E-1	8.552368E-1	7.925813E-1	7.970362E-1	8.150996E-1	8.184124E-1	8.144726E-1	7.585709E-1	8.241655E-1	8.113664E-1	8.420652E-1	8.728010E-1	8.450850E-1	8.712286E-1	8.278888E-1	8.437876E-1	8.495615E-1	8.405958E-1	7.809478E-1	8.369442E-1	7.910152E-1	8.281871E-1	7.957627E-1	8.204418E-1	8.147949E-1	8.478849E-1	7.797460E-1	8.404409E-1	8.416461E-1	8.577382E-1	8.104504E-1	8.210004E-1	8.012563E-1	8.108628E-1	7.742532E-1	7.910273E-1	8.397566E-1	7.738836E-1	7.629748E-1	7.939968E-1	8.105300E-1	8.261499E-1	8.146394E-1	8.175121E-1	8.162358E-1	8.828598E-1	8.066815E-1	8.378834E-1	8.151113E-1	7.984474E-1	7.951797E-1	8.338278E-1	9.075211E-1	7.882010E-1	8.084818E-1	8.123282E-1	7.954829E-1	8.446503E-1	8.223432E-1	8.431960E-1	7.999145E-1	7.613022E-1	8.623983E-1	8.046067E-1	8.475639E-1	8.411538E-1	8.118678E-1	8.315722E-1	9.340274E-1	8.553014E-1
2.864060E+2	7.601527E-1	7.715955E-1	7.728901E-1	7.821488E-1	7.671667E-1	7.433652E-1	7.756138E-1	7.841226E-1	7.438638E-1	7.660710E-1	7.123757E-1	8.016516E-1	7.730130E-1	7.790269E-1	7.430602E-1	7.023634E-1	7.046716E-1	7.312976E-1	7.907740E-1	7.645182E-1	6.922802E-1	7.508281E-1	6.666292E-1	7.482982E-1	7.035656E-1	7.162866E-1	7.681723E-1	7.072043E-1	7.395836E-1	7.110802E-1	7.621295E-1	7.407477E-1	7.597330E-1	7.330156E-1	7.502632E-1	7.240179E-1	7.156034E-1	6.720838E-1	7.322962E-1	7.602587E-1	7.785053E-1	7.572041E-1	7.459576E-1	7.219336E-1	7.573322E-1	6.801708E-1	7.668194E-1	7.807693E-1	7.533558E-1	7.585018E-1	7.691288E-1	7.956808E-1	7.192385E-1	6.767422E-1	7.721356E-1	7.343151E-1	8.138951E-1	7.872875E-1	7.382461E-1	7.427171E-1	6.996814E-1	7.740481E-1	6.712350E-1	8.248544E-1	6.761593E-1	6.863977E-1	7.525983E-1	6.656472E-1	7.495380E-1	7.966664E-1	7.200923E-1	7.396281E-1	7.845846E-1	8.035383E-1	6.731278E-1	7.581684E-1	7.382138E-1	7.606647E-1	7.007630E-1	7.241951E-1	7.556231E-1	8.506761E-1	7.425014E-1	7.463437E-1	7.810303E-1	7.190876E-1	7.179537E-1	8.021863E-1	7.159380E-1	7.388952E-1	7.457337E-1	7.646228E-1	7.818086E-1	7.694455E-1	6.965830E-1	7.554284E-1	7.901624E-1	7.431789E-1	7.475447E-1	7.372655E-1	8.041072E-1	8.013669E-1	7.831346E-1	7.198101E-1	7.666360E-1	7.368739E-1	7.297046E-1	7.369129E-1	7.465875E-1	7.131896E-1	7.666878E-1	7.879369E-1	7.643965E-1	7.214028E-1	7.386201E-1	7.421557E-1	7.342147E-1	7.344247E-1	7.052873E-1	7.507666E-1	7.652346E-1	7.723652E-1	7.778142E-1	7.815147E-1	7.220456E-1	7.050882E-1	7.707074E-1	7.781319E-1	7.392523E-1	7.376778E-1	7.474535E-1	7.621064E-1	7.831838E-1	7.601275E-1	7.475363E-1	8.192646E-1	7.922923E-1	7.634328E-1	6.833929E-1	7.627258E-1	7.585658E-1	7.183729E-1	7.389019E-1	7.126071E-1	7.747158E-1	7.118190E-1	7.581377E-1	6.645473E-1	7.544748E-1	8.039283E-1	7.357544E-1	7.400651E-1	7.720580E-1	7.777802E-1	7.825045E-1	7.256340E-1	7.638767E-1	7.981850E-1	7.693983E-1	6.727098E-1	7.091433E-1	7.077204E-1	7.584595E-1	7.915930E-1	8.047616E-1	6.497380E-1	7.298720E-1	7.805352E-1	7.680441E-1	7.285197E-1
2.866050E+2	1.040969E+0	1.016837E+0	9.693500E-1	9.916505E-1	9.908596E-1	1.029816E+0	1.012737E+0	9.932914E-1	9.918142E-1	9.984241E-1	1.001407E+0	9.754796E-1	9.885080E-1	9.946293E-1	1.043003E+0	9.800492E-1	9.690474E-1	9.937635E-1	9.598512E-1	1.008111E+0	9.629328E-1	9.805587E-1	9.545545E-1	9.491619E-1	1.020207E+0	9.886834E-1	9.651565E-1	1.011766E+0	9.318607E-1	9.705175E-1	9.596740E-1	9.980328E-1	9.747386E-1	9.972982E-1	1.012325E+0	9.058904E-1	9.754300E-1	1.023015E+0	9.939538E-1	9.758883E-1	1.060601E+0	1.055612E+0	1.006981E+0	9.367871E-1	1.036446E+0	1.042289E+0	1.009514E+0	9.141989E-1	9.849800E-1	1.007367E+0	9.590255E-1	9.917625E-1	9.551395E-1	9.337094E-1	9.732350E-1	9.844545E-1	9.949842E-1	9.869430E-1	1.018892E+0	9.284684E-1	1.026470E+0	9.623106E-1	9.619816E-1	9.856581E-1	9.751547E-1	1.015665E+0	9.936250E-1	9.432598E-1	1.037134E+0	9.893445E-1	9.655065E-1	9.450652E-1	9.582298E-1	9.438604E-1	9.847515E-1	9.378303E-1	1.025425E+0	1.012341E+0	9.485317E-1	9.226168E-1	9.329495E-1	8.956077E-1	1.000788E+0	1.013328E+0	9.633319E-1	9.554281E-1	9.797570E-1	9.246702E-1	1.067118E+0	9.258760E-1	1.019336E+0	1.015979E+0	9.757256E-1	1.062425E+0	9.884199E-1	9.687863E-1	1.007239E+0	1.021366E+0	9.915500E-1	8.889421E-1	9.717183E-1	1.040216E+0	9.643384E-1	9.657267E-1	9.516103E-1	9.419362E-1	9.810878E-1	1.006705E+0	1.055826E+0	9.578156E-1	1.020429E+0	9.447184E-1	9.864778E-1	1.027529E+0	1.041020E+0	9.457519E-1	9.957417E-1	9.502125E-1	9.707416E-1	9.598422E-1	9.700711E-1	9.336753E-1	9.878027E-1	9.483146E-1	1.004881E+0	1.002846E+0	1.001091E+0	9.910740E-1	9.419516E-1	1.013779E+0	9.902763E-1	9.907172E-1	9.375843E-1	9.536593E-1	9.803258E-1	1.048166E+0	1.033656E+0	9.772129E-1	9.707668E-1	1.008788E+0	9.729557E-1	1.041867E+0	9.280773E-1	9.336020E-1	1.042067E+0	9.833963E-1	9.023879E-1	1.056637E+0	9.988466E-1	9.975508E-1	1.004169E+0	9.481745E-1	9.847358E-1	9.462263E-1	1.036780E+0	9.411225E-1	9.496435E-1	9.380290E-1	9.786998E-1	1.013587E+0	1.010301E+0	9.191215E-1	9.465106E-1	9.930932E-1	9.870182E-1	9.754679E-1	9.725689E-1	9.697095E-1	1.095274E+0	1.076161E+0
2.868020E+2	1.268708E+0	1.247264E+0	1.248358E+0	1.259439E+0	1.304297E+0	1.294470E+0	1.294228E+0	1.213518E+0	1.320428E+0	1.295179E+0	1.312779E+0	1.265661E+0	1.272893E+0	1.330600E+0	1.247911E+0	1.271545E+0	1.240246E+0	1.374723E+0	1.253761E+0	1.325375E+0	1.275029E+0	1.259131E+0	1.242938E+0	1.315387E+0	1.293983E+0	1.200892E+0	1.169255E+0	1.191891E+0	1.143102E+0	1.202299E+0	1.243084E+0	1.267658E+0	1.194252E+0	1.258681E+0	1.243120E+0	1.245935E+0	1.176981E+0	1.253068E+0	1.209334E+0	1.235454E+0	1.343041E+0	1.306982E+0	1.212917E+0	1.221028E+0	1.325113E+0	1.284094E+0	1.235854E+0	1.261884E+0	1.270820E+0	1.315241E+0	1.281989E+0	1.272774E+0	1.231624E+0	1.191366E+0	1.306387E+0	1.280260E+0	1.304437E+0	1.310430E+0	1.197291E+0	1.255658E+0	1.244642E+0	1.288908E+0	1.265264E+0	1.272750E+0	1.239140E+0	1.235071E+0	1.247534E+0	1.191485E+0	1.205401E+0	1.237098E+0	1.184424E+0	1.234335E+0	1.325915E+0	1.301903E+0	1.278382E+0	1.277889E+0	1.241441E+0	1.263265E+0	1.239703E+0	1.222189E+0	1.278275E+0	1.203974E+0	1.263472E+0	1.283448E+0	1.220032E+0	1.210549E+0	1.225356E+0	1.277529E+0	1.328989E+0	1.253179E+0	1.277383E+0	1.262321E+0	1.239111E+0	1.269812E+0	1.289114E+0	1.290815E+0	1.258023E+0	1.268184E+0	1.244037E+0	1.214772E+0	1.253051E+0	1.330620E+0	1.268704E+0	1.254733E+0	1.244646E+0	1.249439E+0	1.312096E+0	1.198795E+0	1.265347E+0	1.245483E+0	1.366625E+0	1.208645E+0	1.299033E+0	1.286585E+0	1.230133E+0	1.268956E+0	1.251738E+0	1.279583E+0	1.285832E+0	1.321688E+0	1.301845E+0	1.260662E+0	1.291102E+0	1.163033E+0	1.246644E+0	1.253325E+0	1.298427E+0	1.235705E+0	1.270055E+0	1.335718E+0	1.198146E+0	1.263453E+0	1.377360E+0	1.300662E+0	1.174557E+0	1.259493E+0	1.314024E+0	1.236217E+0	1.185959E+0	1.263235E+0	1.238533E+0	1.292604E+0	1.178759E+0	1.267903E+0	1.288166E+0	1.206678E+0	1.213554E+0	1.296365E+0	1.216428E+0	1.299468E+0	1.266654E+0	1.270583E+0	1.259822E+0	1.226307E+0	1.239837E+0	1.284215E+0	1.347734E+0	1.281404E+0	1.264474E+0	1.207789E+0	1.249760E+0	1.243024E+0	1.259926E+0	1.283352E+0	1.234976E+0	1.256058E+0	1.348217E+0	1.324453E+0	1.311636E+0	1.405182E+0
2.870010E+2	1.133875E+0	1.107255E+0	1.162865E+0	1.053662E+0	1.052613E+0	1.107320E+0	1.096521E+0	1.106382E+0	1.006462E+0	1.065674E+0	1.123651E+0	1.065605E+0	1.057069E+0	1.170373E+0	1.113375E+0	1.098406E+0	1.137490E+0	1.122593E+0	1.069275E+0	1.103117E+0	1.113013E+0	1.056199E+0	1.089522E+0	1.065649E+0	1.044606E+0	1.097176E+0	1.093141E+0	9.981907E-1	9.975640E-1	1.081163E+0	1.106481E+0	1.043759E+0	1.082519E+0	1.047146E+0	1.066286E+0	1.049166E+0	1.069460E+0	1.058307E+0	1.082001E+0	1.061641E+0	1.190524E+0	1.067868E+0	1.005604E+0	1.067484E+0	1.089515E+0	1.072828E+0	1.074541E+0	1.023271E+0	1.074519E+0	1.023511E+0	1.094161E+0	1.052785E+0	1.061058E+0	1.094597E+0	1.041052E+0	1.062673E+0	1.091142E+0	1.098801E+0	1.064125E+0	1.082851E+0	1.028142E+0	1.089231E+0	1.076615E+0	1.112916E+0	1.040458E+0	1.091402E+0	1.078703E+0	1.042198E+0	1.131677E+0	1.142752E+0	1.090877E+0	1.048575E+0	1.039956E+0	1.111228E+0	1.058588E+0	1.070659E+0	1.083890E+0	1.104015E+0	1.075883E+0	1.076255E+0	1.080361E+0	1.122682E+0	1.064809E+0	1.038443E+0	1.079468E+0	1.122463E+0	1.050089E+0	1.041956E+0	1.113625E+0	1.054065E+0	1.025452E+0	1.002046E+0	1.104493E+0	1.061267E+0	1.122211E+0	1.111335E+0	1.039684E+0	1.099794E+0	1.192297E+0	1.148187E+0	1.122848E+0	1.086494E+0	1.108556E+0	1.100730E+0	1.028423E+0	1.054995E+0	1.061503E+0	1.082643E+0	1.103485E+0	1.047279E+0	1.136820E+0	1.076242E+0	1.110946E+0	1.080117E+0	1.116979E+0	1.029318E+0	1.090194E+0	1.081729E+0	1.145891E+0	1.105639E+0	1.067734E+0	1.079361E+0	1.058692E+0	1.093988E+0	1.100717E+0	1.061557E+0	1.091703E+0	1.123480E+0	1.039878E+0	1.114947E+0	1.064544E+0	1.175688E+0	1.105935E+0	1.011898E+0	1.087469E+0	1.124784E+0	1.075401E+0	1.028003E+0	1.025181E+0	9.737165E-1	1.071491E+0	1.067314E+0	1.053680E+0	1.147391E+0	1.123900E+0	1.124270E+0	1.161967E+0	1.109028E+0	1.107152E+0	1.079681E+0	1.090257E+0	1.057286E+0	1.089122E+0	1.163823E+0	1.040046E+0	1.060304E+0	1.132963E+0	1.064271E+0	1.047841E+0	1.106468E+0	1.009362E+0	1.040753E+0	1.046517E+0	1.107710E+0	1.125872E+0	1.110865E+0	1.094514E+0	1.068700E+0	1.181441E+0	1.133686E+0
2.872050E+2	8.443176E-1	8.380689E-1	8.084439E-1	8.343526E-1	8.624559E-1	8.022521E-1	7.989682E-1	8.467258E-1	8.356521E-1	9.161259E-1	9.052322E-1	7.392339E-1	8.468619E-1	8.970215E-1	8.688641E-1	8.569807E-1	8.891348E-1	8.478382E-1	8.365857E-1	9.362784E-1	8.437424E-1	8.761421E-1	8.645667E-1	8.073530E-1	8.944795E-1	7.803854E-1	8.367946E-1	7.942408E-1	8.776009E-1	8.492883E-1	8.114216E-1	9.035384E-1	9.056903E-1	8.708601E-1	8.349526E-1	8.656060E-1	8.123637E-1	8.296671E-1	8.651427E-1	8.276518E-1	8.427940E-1	7.998292E-1	7.840019E-1	8.566127E-1	8.096532E-1	8.576599E-1	8.309931E-1	8.195859E-1	8.692664E-1	8.772667E-1	8.825979E-1	8.646202E-1	8.302926E-1	8.247083E-1	8.076417E-1	7.868314E-1	8.635298E-1	8.827675E-1	8.925335E-1	8.237629E-1	9.201623E-1	8.540707E-1	8.294743E-1	7.985363E-1	8.267680E-1	8.157129E-1	8.869932E-1	7.151870E-1	7.937957E-1	8.438676E-1	8.587793E-1	8.131519E-1	8.434218E-1	8.279668E-1	8.090264E-1	8.769274E-1	8.665405E-1	7.919531E-1	8.318938E-1	8.357939E-1	8.795700E-1	8.133147E-1	8.408143E-1	8.320125E-1	7.956835E-1	7.831818E-1	9.044191E-1	8.894153E-1	8.379480E-1	8.095876E-1	7.885806E-1	8.358378E-1	8.508516E-1	8.902236E-1	8.260261E-1	8.708578E-1	9.176935E-1	7.967817E-1	8.369331E-1	8.294804E-1	8.460470E-1	8.911445E-1	9.177998E-1	7.971478E-1	8.749727E-1	8.820104E-1	8.422611E-1	8.517419E-1	8.453763E-1	8.426740E-1	9.054399E-1	7.829679E-1	7.916082E-1	8.752571E-1	8.255447E-1	8.717678E-1	8.524126E-1	7.658016E-1	8.602774E-1	8.664102E-1	8.777823E-1	9.051405E-1	8.678354E-1	8.712843E-1	8.733259E-1	8.456659E-1	8.578533E-1	9.084576E-1	8.044454E-1	8.983345E-1	8.669476E-1	8.100653E-1	8.112918E-1	8.741535E-1	7.895332E-1	7.531576E-1	8.177243E-1	8.581634E-1	8.240676E-1	8.826928E-1	8.226416E-1	8.640465E-1	8.593721E-1	7.797738E-1	8.443011E-1	8.326307E-1	8.493263E-1	8.115971E-1	8.061633E-1	8.108037E-1	8.392177E-1	8.366763E-1	8.044882E-1	7.699834E-1	8.536328E-1	8.249656E-1	8.245859E-1	8.340582E-1	7.970652E-1	9.014331E-1	8.349528E-1	7.863663E-1	8.174988E-1	8.444692E-1	8.611610E-1	8.087207E-1	8.382913E-1	8.240574E-1	7.470059E-1	8.525748E-1
2.874030E+2	5.523090E-1	6.208138E-1	5.253953E-1	5.802188E-1	5.445468E-1	6.189196E-1	5.930239E-1	5.748422E-1	5.629285E-1	5.632071E-1	5.770027E-1	6.039044E-1	6.155210E-1	6.159830E-1	5.525112E-1	6.134022E-1	6.062317E-1	5.595102E-1	5.928738E-1	5.863839E-1	6.169876E-1	5.900601E-1	5.425442E-1	5.709203E-1	6.381622E-1	5.806328E-1	5.721412E-1	5.622518E-1	5.435430E-1	5.706887E-1	5.566779E-1	6.038480E-1	6.126294E-1	5.835563E-1	5.761351E-1	5.615930E-1	6.245900E-1	5.833766E-1	5.881364E-1	5.925344E-1	5.885673E-1	5.883386E-1	6.192609E-1	5.855869E-1	5.750302E-1	6.510609E-1	6.146006E-1	6.057840E-1	5.639681E-1	6.183172E-1	6.471310E-1	6.321826E-1	6.265637E-1	5.666408E-1	5.456964E-1	5.670546E-1	6.103942E-1	6.019949E-1	6.093420E-1	5.301510E-1	5.782964E-1	5.622161E-1	5.788833E-1	5.607124E-1	5.591862E-1	5.696796E-1	6.063088E-1	5.523918E-1	6.012094E-1	6.120548E-1	5.578115E-1	5.661757E-1	6.012539E-1	5.520284E-1	5.250182E-1	6.405278E-1	5.959636E-1	6.257028E-1	5.611598E-1	6.399326E-1	5.827412E-1	5.588496E-1	5.637347E-1	6.180272E-1	5.911988E-1	5.621262E-1	6.280517E-1	5.982147E-1	5.844021E-1	5.876638E-1	5.854581E-1	6.086371E-1	5.691800E-1	5.702786E-1	5.820532E-1	5.769646E-1	6.114268E-1	6.050632E-1	5.349056E-1	5.104754E-1	5.987613E-1	6.069713E-1	6.125913E-1	5.825164E-1	5.924070E-1	5.907141E-1	6.061197E-1	5.538829E-1	6.035874E-1	5.946208E-1	6.171786E-1	5.909166E-1	5.719925E-1	5.718137E-1	5.980919E-1	6.036635E-1	5.906728E-1	5.447197E-1	5.760396E-1	6.093684E-1	6.018073E-1	6.177826E-1	5.717251E-1	5.898323E-1	5.992818E-1	5.951423E-1	5.575896E-1	5.767723E-1	5.610424E-1	5.362698E-1	5.736332E-1	6.236524E-1	6.023135E-1	6.101895E-1	5.664762E-1	5.882990E-1	6.304968E-1	5.693955E-1	5.489730E-1	5.484620E-1	5.742957E-1	5.668108E-1	5.691322E-1	5.732726E-1	5.961268E-1	5.749773E-1	5.888174E-1	5.809548E-1	5.679975E-1	5.873918E-1	5.925582E-1	5.880987E-1	5.914053E-1	5.732051E-1	6.183748E-1	5.841865E-1	5.761463E-1	6.051216E-1	6.031934E-1	5.895379E-1	5.673951E-1	5.965348E-1	5.543413E-1	5.850694E-1	5.658572E-1	5.711770E-1	6.462592E-1	5.598536E-1	5.576762E-1	4.773889E-1
2.876020E+2	4.426342E-1	4.759972E-1	4.862481E-1	5.200892E-1	4.520493E-1	4.853422E-1	4.462036E-1	4.390455E-1	4.467741E-1	4.442049E-1	5.324107E-1	4.832302E-1	5.029711E-1	5.007674E-1	4.153825E-1	4.425630E-1	4.655554E-1	4.541643E-1	4.762952E-1	4.630732E-1	4.972158E-1	4.455904E-1	4.585565E-1	4.161751E-1	4.890507E-1	4.715834E-1	4.580712E-1	4.436009E-1	4.576807E-1	4.815161E-1	4.829690E-1	4.596731E-1	4.470234E-1	4.727502E-1	4.120282E-1	4.666771E-1	4.598699E-1	4.610146E-1	4.790370E-1	4.352731E-1	4.985345E-1	4.707141E-1	4.325762E-1	4.793833E-1	4.694483E-1	4.690976E-1	5.069571E-1	5.108693E-1	4.406299E-1	4.758302E-1	4.631478E-1	4.586537E-1	4.840759E-1	4.743116E-1	4.692430E-1	4.675899E-1	4.505163E-1	4.535303E-1	4.827707E-1	4.544002E-1	4.653167E-1	5.094897E-1	4.646841E-1	4.575170E-1	4.591763E-1	4.452843E-1	5.204185E-1	4.494669E-1	4.836741E-1	4.837544E-1	4.188248E-1	4.643526E-1	4.585358E-1	4.526302E-1	4.440320E-1	4.653248E-1	4.702818E-1	4.355047E-1	4.905341E-1	5.020528E-1	4.366364E-1	4.698786E-1	5.085016E-1	4.531463E-1	4.382800E-1	4.560641E-1	4.788177E-1	4.725272E-1	4.963106E-1	4.730210E-1	5.051714E-1	4.295688E-1	4.370961E-1	4.708856E-1	4.578010E-1	4.910650E-1	4.510968E-1	5.340926E-1	4.617698E-1	4.769761E-1	4.703996E-1	4.646848E-1	4.833200E-1	4.792112E-1	4.464673E-1	4.684626E-1	4.639870E-1	4.576835E-1	4.776842E-1	4.864607E-1	5.400613E-1	4.723260E-1	4.672384E-1	4.903280E-1	5.055442E-1	4.861739E-1	4.790911E-1	4.597357E-1	4.382031E-1	4.351597E-1	4.284862E-1	3.994101E-1	4.664474E-1	4.774928E-1	4.949317E-1	4.554645E-1	4.296652E-1	4.955827E-1	4.776063E-1	4.240216E-1	4.282379E-1	4.426006E-1	4.635817E-1	4.275902E-1	4.579138E-1	4.491096E-1	4.778011E-1	4.802643E-1	5.124390E-1	4.319266E-1	4.728125E-1	4.354402E-1	4.616274E-1	4.681831E-1	4.716895E-1	4.240235E-1	4.946894E-1	4.818388E-1	4.905089E-1	4.528853E-1	4.722006E-1	4.719532E-1	4.519268E-1	5.031348E-1	4.953315E-1	4.570612E-1	4.467932E-1	4.706024E-1	4.553877E-1	4.541026E-1	4.592500E-1	4.305853E-1	4.556681E-1	5.087458E-1	4.410649E-1	4.769396E-1	4.517665E-1	4.911365E-1	4.603658E-1	4.389452E-1
2.878020E+2	4.187270E-1	4.745229E-1	4.538192E-1	4.684127E-1	4.957670E-1	4.607284E-1	4.213963E-1	4.512600E-1	4.918075E-1	4.801030E-1	4.341125E-1	4.457084E-1	4.627952E-1	4.854476E-1	4.839152E-1	4.257139E-1	4.802735E-1	4.841789E-1	4.825527E-1	4.774935E-1	4.839547E-1	4.416916E-1	4.720775E-1	4.827534E-1	4.634937E-1	4.446684E-1	4.342165E-1	4.507995E-1	4.780482E-1	4.691044E-1	4.598372E-1	4.455920E-1	4.482909E-1	4.537507E-1	4.779306E-1	4.703541E-1	4.601600E-1	4.862076E-1	4.561481E-1	4.951478E-1	4.841704E-1	4.854859E-1	4.494695E-1	4.497957E-1	4.433510E-1	4.368769E-1	4.660893E-1	4.638818E-1	4.816729E-1	4.639494E-1	4.826913E-1	4.268492E-1	4.618606E-1	4.395215E-1	4.531432E-1	4.379718E-1	4.443925E-1	4.453660E-1	4.525268E-1	4.557524E-1	4.162483E-1	4.394684E-1	4.470179E-1	4.588742E-1	3.907584E-1	4.403397E-1	5.143557E-1	4.637935E-1	4.803354E-1	4.098371E-1	4.966606E-1	4.467967E-1	4.865181E-1	4.770773E-1	4.453411E-1	3.994926E-1	4.570423E-1	4.812442E-1	4.775677E-1	4.651806E-1	4.499866E-1	4.846860E-1	4.649451E-1	5.083736E-1	4.827910E-1	4.489581E-1	4.805134E-1	5.032340E-1	4.591320E-1	4.561282E-1	4.820536E-1	4.514330E-1	4.528037E-1	4.742996E-1	4.578511E-1	4.936511E-1	4.922900E-1	4.756866E-1	4.576487E-1	4.915809E-1	4.850952E-1	4.544292E-1	4.310193E-1	4.084930E-1	4.945686E-1	4.718995E-1	4.345930E-1	4.696949E-1	4.771157E-1	4.737890E-1	4.857042E-1	4.944403E-1	4.496083E-1	4.766407E-1	4.465277E-1	4.664976E-1	4.553701E-1	4.529420E-1	4.552486E-1	4.606399E-1	4.604347E-1	4.779366E-1	4.487373E-1	4.939001E-1	4.257956E-1	4.183801E-1	4.370712E-1	4.751416E-1	5.082091E-1	4.676104E-1	4.592088E-1	4.896632E-1	4.660916E-1	4.299689E-1	4.701170E-1	4.915089E-1	3.988637E-1	4.862716E-1	4.396750E-1	4.726908E-1	4.697034E-1	5.391641E-1	4.447018E-1	4.306449E-1	4.682080E-1	4.498753E-1	4.556452E-1	4.733223E-1	4.492538E-1	4.689099E-1	4.779593E-1	4.879612E-1	4.462402E-1	4.188665E-1	4.645689E-1	4.749710E-1	5.130821E-1	4.654955E-1	4.707993E-1	5.038332E-1	5.089909E-1	4.661447E-1	4.377457E-1	4.580272E-1	5.490750E-1	4.431241E-1	3.972101E-1	4.908037E-1	4.946260E-1	4.601472E-1
2.880040E+2	5.075285E-1	4.355464E-1	4.619687E-1	4.884911E-1	4.877728E-1	4.063344E-1	4.345330E-1	4.424931E-1	4.704028E-1	4.107386E-1	4.316609E-1	4.910154E-1	4.719358E-1	4.701271E-1	4.625209E-1	4.444751E-1	4.638786E-1	4.816226E-1	5.274578E-1	4.597033E-1	4.898650E-1	4.420938E-1	4.786688E-1	4.559277E-1	4.928365E-1	4.774033E-1	4.872332E-1	4.433155E-1	4.986362E-1	4.796526E-1	4.264020E-1	4.987055E-1	4.465688E-1	4.458983E-1	4.785756E-1	4.419984E-1	5.203523E-1	4.723423E-1	4.848456E-1	4.630569E-1	4.661536E-1	4.645763E-1	4.179509E-1	4.767392E-1	4.676724E-1	4.991062E-1	4.528978E-1	4.942399E-1	4.833556E-1	4.490496E-1	4.774382E-1	4.674723E-1	4.597691E-1	4.410665E-1	4.224980E-1	4.816050E-1	5.355990E-1	4.610052E-1	4.522180E-1	4.162085E-1	4.845628E-1	4.665727E-1	4.797927E-1	4.607005E-1	4.419608E-1	4.774184E-1	4.785939E-1	4.117402E-1	4.395122E-1	4.632468E-1	4.674719E-1	4.136635E-1	4.391503E-1	4.841070E-1	4.163667E-1	4.764860E-1	4.427542E-1	4.635734E-1	4.801663E-1	4.402661E-1	4.557765E-1	4.530703E-1	4.446117E-1	4.483026E-1	4.472581E-1	4.072485E-1	4.488828E-1	4.376966E-1	4.593855E-1	4.365266E-1	4.380126E-1	5.017419E-1	4.478847E-1	4.757379E-1	5.051938E-1	4.905252E-1	4.468095E-1	4.422841E-1	4.674120E-1	4.713329E-1	4.765531E-1	4.517552E-1	4.542101E-1	4.759975E-1	4.913649E-1	4.482828E-1	4.447867E-1	4.688805E-1	4.835222E-1	4.528827E-1	4.999107E-1	4.923829E-1	5.043529E-1	4.894269E-1	4.765432E-1	4.478903E-1	4.350673E-1	4.470805E-1	4.702266E-1	4.806981E-1	4.760278E-1	4.582706E-1	4.368684E-1	4.721384E-1	4.313988E-1	4.573900E-1	4.680075E-1	4.579159E-1	4.837893E-1	4.598624E-1	4.653094E-1	4.078518E-1	4.914108E-1	4.450139E-1	4.540695E-1	4.242023E-1	4.575566E-1	4.772445E-1	4.273681E-1	4.276794E-1	4.519016E-1	4.671958E-1	4.597401E-1	4.819396E-1	4.877006E-1	4.501363E-1	4.341309E-1	4.413533E-1	4.090198E-1	4.272970E-1	4.440053E-1	4.650683E-1	4.757196E-1	4.604437E-1	4.612811E-1	4.367924E-1	4.610901E-1	4.613575E-1	4.697537E-1	4.525329E-1	4.347205E-1	4.519623E-1	4.353809E-1	4.416661E-1	3.906286E-1	4.278707E-1	4.645609E-1	5.089886E-1	4.598824E-1	4.113256E-1
2.882080E+2	5.262334E-1	4.739845E-1	5.552827E-1	5.364004E-1	5.084794E-1	4.534978E-1	5.360381E-1	5.099872E-1	4.802841E-1	5.051043E-1	5.353681E-1	4.850698E-1	4.787540E-1	5.072517E-1	5.741677E-1	5.151856E-1	5.513447E-1	5.414782E-1	4.670523E-1	4.799246E-1	4.842879E-1	5.221835E-1	5.412457E-1	5.079263E-1	5.295619E-1	5.345854E-1	5.012552E-1	4.944027E-1	4.872030E-1	5.259166E-1	5.130215E-1	4.831899E-1	5.343050E-1	5.346413E-1	5.517216E-1	5.050055E-1	5.333138E-1	5.132824E-1	5.560606E-1	5.047242E-1	5.245251E-1	4.928481E-1	5.082521E-1	5.396498E-1	5.299635E-1	4.817245E-1	5.030915E-1	5.062216E-1	5.343303E-1	5.194526E-1	5.117472E-1	5.034531E-1	5.415052E-1	4.921038E-1	5.200173E-1	5.307547E-1	5.222969E-1	5.517983E-1	5.257654E-1	5.456325E-1	5.085535E-1	4.948661E-1	4.952593E-1	5.277154E-1	5.362271E-1	4.900606E-1	5.282856E-1	5.398716E-1	5.248387E-1	5.078699E-1	4.735705E-1	5.135426E-1	5.200710E-1	5.268673E-1	4.930769E-1	5.301086E-1	5.380212E-1	5.221560E-1	4.936906E-1	5.272210E-1	4.928987E-1	4.361606E-1	5.340669E-1	5.095086E-1	4.979641E-1	5.206897E-1	5.198956E-1	5.100337E-1	4.699747E-1	5.158676E-1	5.392945E-1	5.088263E-1	4.929780E-1	5.085962E-1	5.276786E-1	5.332522E-1	4.963097E-1	4.946589E-1	5.269196E-1	5.552410E-1	4.646925E-1	4.826746E-1	4.851368E-1	5.202163E-1	5.256607E-1	5.290748E-1	4.902127E-1	4.825469E-1	5.015437E-1	5.436082E-1	5.150852E-1	5.409038E-1	5.043000E-1	5.183223E-1	5.141206E-1	4.453788E-1	5.573494E-1	4.658685E-1	4.976091E-1	5.557917E-1	4.807521E-1	5.304188E-1	5.444019E-1	4.745100E-1	4.587232E-1	4.912645E-1	5.311286E-1	5.064285E-1	5.221756E-1	5.034867E-1	5.296753E-1	4.536511E-1	5.079232E-1	4.704721E-1	5.379898E-1	5.418674E-1	5.279368E-1	4.946488E-1	5.052044E-1	4.526149E-1	5.378130E-1	5.422440E-1	4.998241E-1	5.060676E-1	5.421486E-1	4.928828E-1	4.999298E-1	5.018465E-1	5.041010E-1	4.704894E-1	4.851076E-1	4.919895E-1	5.204440E-1	5.137867E-1	4.809164E-1	4.910386E-1	4.859533E-1	4.905040E-1	4.958447E-1	5.192025E-1	4.973946E-1	4.825011E-1	5.062207E-1	5.226874E-1	4.824936E-1	4.853919E-1	4.908640E-1	5.050528E-1	5.274034E-1	5.278748E-1
2.884070E+2	6.646989E-1	7.353607E-1	6.842526E-1	6.758937E-1	7.663176E-1	6.847958E-1	7.201037E-1	7.774332E-1	7.466025E-1	6.924010E-1	6.407137E-1	7.690842E-1	7.334060E-1	6.935385E-1	7.386244E-1	7.257408E-1	7.044045E-1	6.932693E-1	7.538893E-1	6.827926E-1	7.467829E-1	7.303350E-1	6.952546E-1	6.641578E-1	7.051897E-1	7.315947E-1	7.235018E-1	7.472024E-1	7.174954E-1	7.274303E-1	7.683511E-1	7.100904E-1	7.270098E-1	8.004081E-1	6.993955E-1	7.017531E-1	7.125049E-1	7.070213E-1	7.056497E-1	7.104775E-1	7.574296E-1	7.331469E-1	7.342303E-1	7.065574E-1	7.469779E-1	7.322690E-1	7.214248E-1	6.889591E-1	7.576025E-1	7.379277E-1	7.336131E-1	8.092231E-1	7.027538E-1	6.855336E-1	7.431842E-1	6.831499E-1	7.276978E-1	7.121754E-1	7.590670E-1	7.028294E-1	7.344846E-1	7.019903E-1	7.281399E-1	7.611857E-1	6.604567E-1	7.012640E-1	7.657376E-1	6.775921E-1	7.672177E-1	7.254831E-1	6.911725E-1	7.014593E-1	7.357394E-1	7.281628E-1	7.043090E-1	7.129988E-1	7.551195E-1	7.385335E-1	7.102812E-1	7.841485E-1	7.258671E-1	7.429824E-1	7.283359E-1	7.617103E-1	7.311361E-1	6.863812E-1	6.915410E-1	7.242997E-1	7.032552E-1	7.154858E-1	6.590850E-1	6.750939E-1	6.741053E-1	7.259823E-1	6.888623E-1	7.383673E-1	7.110383E-1	6.850634E-1	6.876667E-1	7.051587E-1	6.944783E-1	7.487860E-1	7.367129E-1	7.137393E-1	7.417284E-1	6.715307E-1	7.645600E-1	7.593454E-1	7.344421E-1	7.160693E-1	7.571317E-1	7.731528E-1	7.175983E-1	6.798525E-1	7.827825E-1	7.510307E-1	6.855258E-1	7.819124E-1	7.368952E-1	7.183498E-1	7.448723E-1	7.359505E-1	7.257856E-1	7.064554E-1	6.670228E-1	7.219350E-1	7.329627E-1	6.612628E-1	7.091561E-1	7.235481E-1	7.010041E-1	7.042966E-1	7.082089E-1	7.058712E-1	7.020476E-1	7.233785E-1	7.387873E-1	6.678294E-1	6.707074E-1	7.405987E-1	7.252357E-1	6.963787E-1	7.309061E-1	7.213723E-1	7.462664E-1	6.844493E-1	7.022542E-1	7.389560E-1	7.095747E-1	7.130442E-1	6.854637E-1	6.996254E-1	6.988020E-1	7.136302E-1	7.182941E-1	7.198743E-1	7.135865E-1	6.887915E-1	7.027795E-1	7.226010E-1	7.418690E-1	6.619126E-1	6.810394E-1	7.737614E-1	7.367977E-1	7.186401E-1	7.170556E-1	7.441225E-1	7.072925E-1	7.004363E-1
2.886010E+2	9.995059E-1	1.010372E+0	1.031640E+0	1.017729E+0	1.043730E+0	1.054734E+0	1.013315E+0	9.905256E-1	9.876803E-1	1.023039E+0	1.056905E+0	1.061620E+0	1.042556E+0	1.032413E+0	9.825417E-1	1.030321E+0	1.071404E+0	1.040114E+0	1.046695E+0	1.086291E+0	1.048197E+0	1.093911E+0	1.039323E+0	1.001983E+0	9.862442E-1	9.959680E-1	9.492443E-1	1.001227E+0	9.929763E-1	9.781866E-1	9.676140E-1	1.031642E+0	1.024470E+0	1.000352E+0	9.481586E-1	9.820295E-1	1.003348E+0	1.058973E+0	1.012749E+0	1.018170E+0	1.062371E+0	1.030097E+0	9.946412E-1	1.025878E+0	9.651231E-1	1.018435E+0	9.664908E-1	1.031867E+0	1.042378E+0	9.753794E-1	9.970936E-1	9.573189E-1	9.431306E-1	1.065891E+0	1.007680E+0	1.009355E+0	1.007275E+0	1.089032E+0	1.042766E+0	1.025697E+0	1.013744E+0	1.030613E+0	9.758937E-1	9.590545E-1	9.207123E-1	1.005495E+0	1.066861E+0	9.502117E-1	1.029733E+0	1.071888E+0	9.545383E-1	9.934399E-1	1.079035E+0	1.041903E+0	9.709270E-1	9.523398E-1	1.007156E+0	1.015239E+0	9.969900E-1	9.648188E-1	1.003103E+0	1.031373E+0	1.062278E+0	1.003850E+0	1.026448E+0	9.991441E-1	1.042572E+0	9.982812E-1	1.079910E+0	9.824214E-1	1.035321E+0	1.112881E+0	9.815358E-1	1.018627E+0	9.711436E-1	1.071909E+0	1.033881E+0	9.765743E-1	1.019026E+0	9.730919E-1	1.018656E+0	1.068979E+0	1.013731E+0	1.016303E+0	1.007710E+0	9.952170E-1	9.806741E-1	9.970098E-1	1.000930E+0	1.072889E+0	9.942835E-1	1.048025E+0	9.682163E-1	9.704987E-1	9.996430E-1	1.030881E+0	1.117738E+0	1.065510E+0	1.028220E+0	1.036369E+0	1.022531E+0	1.037589E+0	9.622256E-1	1.056436E+0	9.987372E-1	1.045856E+0	1.033004E+0	1.070471E+0	9.910485E-1	1.078844E+0	9.460627E-1	9.944902E-1	1.006446E+0	1.065607E+0	1.003894E+0	9.953973E-1	1.042406E+0	9.855268E-1	9.806966E-1	1.016694E+0	1.014926E+0	1.094503E+0	1.017929E+0	9.764827E-1	1.078231E+0	1.013937E+0	1.017324E+0	9.612458E-1	9.568227E-1	1.061946E+0	9.998413E-1	1.015408E+0	1.014122E+0	9.595621E-1	1.020558E+0	9.704045E-1	9.963648E-1	1.058789E+0	1.012103E+0	1.111685E+0	1.057334E+0	1.011436E+0	1.001786E+0	1.047937E+0	1.012584E+0	9.249140E-1	1.008724E+0	9.974669E-1	1.079114E+0	1.136273E+0
2.887970E+2	1.056397E+0	9.393534E-1	1.042153E+0	1.079495E+0	1.041763E+0	1.011009E+0	1.040189E+0	1.038636E+0	1.063526E+0	1.004088E+0	1.067319E+0	1.017949E+0	1.103142E+0	1.162643E+0	1.072238E+0	1.070813E+0	1.057197E+0	1.059420E+0	1.053757E+0	1.063700E+0	1.087306E+0	1.085027E+0	1.028710E+0	1.087001E+0	1.049041E+0	1.053881E+0	1.030317E+0	1.053011E+0	1.010491E+0	1.064356E+0	1.066515E+0	1.033218E+0	1.049461E+0	9.430839E-1	1.039276E+0	9.844192E-1	9.932901E-1	1.046035E+0	1.061461E+0	1.012535E+0	1.084564E+0	1.026002E+0	1.059647E+0	1.048964E+0	1.018596E+0	1.018362E+0	1.001858E+0	1.041884E+0	1.093652E+0	1.082036E+0	9.843820E-1	1.078532E+0	1.037040E+0	1.041987E+0	1.009125E+0	1.047819E+0	1.050761E+0	1.023387E+0	1.002753E+0	1.083124E+0	1.062679E+0	1.018322E+0	1.044894E+0	1.041898E+0	9.938377E-1	1.071830E+0	1.053277E+0	1.041048E+0	1.124910E+0	1.134949E+0	1.012764E+0	9.991927E-1	1.119816E+0	1.062481E+0	1.091124E+0	1.087097E+0	1.042755E+0	1.029393E+0	1.014154E+0	1.049640E+0	1.108138E+0	1.101197E+0	1.038519E+0	1.115476E+0	1.062273E+0	9.954345E-1	1.019557E+0	1.064541E+0	1.033864E+0	1.072388E+0	1.005842E+0	1.053937E+0	1.097045E+0	1.054731E+0	1.084095E+0	1.091332E+0	1.024408E+0	1.047428E+0	1.046893E+0	1.076041E+0	1.141133E+0	1.116292E+0	1.087950E+0	1.019274E+0	1.069501E+0	1.042002E+0	1.076023E+0	1.034353E+0	1.088973E+0	1.036058E+0	1.060418E+0	1.074419E+0	1.009365E+0	1.145414E+0	1.047266E+0	1.074310E+0	1.103836E+0	9.941218E-1	1.053792E+0	1.077318E+0	1.067112E+0	9.868433E-1	1.026822E+0	1.072314E+0	1.064326E+0	1.071703E+0	1.019424E+0	1.051239E+0	9.778725E-1	1.088855E+0	1.035621E+0	1.044993E+0	1.084081E+0	9.749474E-1	1.020507E+0	1.074305E+0	1.081371E+0	1.064120E+0	1.023338E+0	1.088269E+0	1.073647E+0	1.055940E+0	1.056900E+0	1.159653E+0	1.056828E+0	1.085951E+0	1.034216E+0	1.017616E+0	1.091398E+0	1.150797E+0	1.048844E+0	1.055167E+0	1.090462E+0	1.056688E+0	1.105365E+0	1.099774E+0	1.055389E+0	1.090220E+0	1.004976E+0	1.043535E+0	1.074415E+0	1.050241E+0	1.037073E+0	1.002229E+0	1.053309E+0	1.014842E+0	1.001479E+0	1.050004E+0	1.121441E+0	1.048284E+0
2.890110E+2	9.392169E-1	9.244625E-1	9.671026E-1	9.999810E-1	9.692182E-1	9.580400E-1	9.421186E-1	1.043528E+0	1.009570E+0	9.825974E-1	9.607218E-1	9.328077E-1	9.919038E-1	1.000665E+0	9.875438E-1	9.166429E-1	9.146872E-1	9.914524E-1	9.444650E-1	1.097006E+0	9.843540E-1	1.018487E+0	9.446250E-1	9.997779E-1	9.052128E-1	9.406283E-1	9.830427E-1	9.345098E-1	9.248672E-1	9.382324E-1	1.018519E+0	9.872279E-1	1.004755E+0	9.474802E-1	9.398419E-1	9.055811E-1	9.544075E-1	9.674983E-1	9.916810E-1	9.832713E-1	9.296528E-1	9.705042E-1	9.285080E-1	9.619683E-1	9.256037E-1	9.353518E-1	9.400952E-1	1.000483E+0	9.533071E-1	9.982006E-1	1.004329E+0	9.394040E-1	9.902776E-1	1.013198E+0	9.518823E-1	8.833695E-1	8.884134E-1	1.013504E+0	9.486298E-1	9.607041E-1	9.839836E-1	1.012625E+0	9.413993E-1	9.826073E-1	9.724122E-1	9.735027E-1	9.556704E-1	9.219159E-1	9.404770E-1	9.770785E-1	8.860089E-1	9.398741E-1	9.430504E-1	9.664960E-1	1.016513E+0	9.834086E-1	9.430189E-1	9.458844E-1	9.107868E-1	9.582173E-1	9.343978E-1	9.232469E-1	9.618967E-1	9.970551E-1	9.339885E-1	9.284875E-1	9.207788E-1	9.360089E-1	1.063336E+0	9.391890E-1	9.536537E-1	9.791971E-1	9.923014E-1	1.025407E+0	8.806154E-1	9.832701E-1	9.209490E-1	9.203499E-1	9.629141E-1	1.027839E+0	1.040857E+0	1.008806E+0	9.597072E-1	9.906743E-1	1.003436E+0	9.724706E-1	9.694117E-1	9.712916E-1	9.734506E-1	9.340108E-1	9.876386E-1	1.001881E+0	9.961387E-1	9.733066E-1	1.006159E+0	1.012135E+0	9.376502E-1	9.252689E-1	9.800679E-1	1.000767E+0	1.021684E+0	9.467682E-1	1.041012E+0	9.055814E-1	1.021953E+0	9.550990E-1	9.878652E-1	9.734578E-1	9.471712E-1	9.313301E-1	9.502304E-1	9.450225E-1	9.513431E-1	9.787377E-1	9.285909E-1	1.003240E+0	9.417710E-1	9.519876E-1	8.523129E-1	9.120170E-1	9.781479E-1	1.002249E+0	9.560260E-1	1.000993E+0	9.626554E-1	9.694903E-1	9.843605E-1	1.071119E+0	9.556480E-1	9.610311E-1	9.933051E-1	1.012988E+0	9.920857E-1	9.443583E-1	8.811812E-1	9.493926E-1	9.437368E-1	9.512208E-1	9.410066E-1	1.010318E+0	9.884117E-1	9.232073E-1	1.003803E+0	1.004465E+0	9.735106E-1	9.428433E-1	8.964503E-1	9.782785E-1	9.573660E-1	9.910223E-1
2.892050E+2	7.750082E-1	7.791661E-1	8.352472E-1	7.634795E-1	7.507440E-1	7.723571E-1	7.906888E-1	7.758990E-1	7.901537E-1	7.778156E-1	7.973914E-1	8.114993E-1	7.796181E-1	8.304379E-1	7.643209E-1	7.560052E-1	7.887838E-1	7.953660E-1	7.604168E-1	8.324283E-1	8.089868E-1	8.271443E-1	8.461336E-1	7.566081E-1	8.033118E-1	7.961119E-1	8.060092E-1	7.647120E-1	7.820521E-1	7.710954E-1	6.954196E-1	8.321857E-1	8.073229E-1	7.660412E-1	7.587681E-1	7.053623E-1	7.613310E-1	7.842147E-1	7.965856E-1	7.446595E-1	7.621768E-1	7.954436E-1	7.419461E-1	7.851377E-1	7.860096E-1	7.812645E-1	6.977967E-1	8.212249E-1	7.590456E-1	7.803903E-1	7.599649E-1	7.418448E-1	7.654988E-1	7.627064E-1	7.134253E-1	7.869469E-1	8.083182E-1	7.795724E-1	7.757680E-1	7.775454E-1	6.999293E-1	8.201858E-1	7.962854E-1	8.122782E-1	8.047365E-1	7.833025E-1	7.870592E-1	7.788057E-1	7.329122E-1	8.110813E-1	7.268215E-1	7.661723E-1	7.933521E-1	7.211119E-1	7.825782E-1	7.895259E-1	7.545556E-1	7.396090E-1	8.163216E-1	7.822884E-1	7.635916E-1	7.182015E-1	7.644033E-1	7.478060E-1	7.655999E-1	7.780824E-1	7.786215E-1	7.619052E-1	7.686371E-1	7.141045E-1	7.630177E-1	7.759693E-1	7.914785E-1	8.365221E-1	7.685642E-1	7.323623E-1	7.751287E-1	7.315876E-1	7.528225E-1	6.972239E-1	7.468343E-1	8.063126E-1	8.702496E-1	7.551604E-1	7.583482E-1	7.670711E-1	7.637181E-1	7.284454E-1	7.662102E-1	7.733661E-1	8.045357E-1	7.757508E-1	7.242672E-1	8.104453E-1	7.633780E-1	7.730765E-1	8.438593E-1	7.439478E-1	7.677638E-1	8.564699E-1	8.201130E-1	7.792644E-1	8.007910E-1	7.675638E-1	7.222762E-1	7.859214E-1	7.837221E-1	8.078732E-1	7.883108E-1	7.952084E-1	7.339381E-1	8.056466E-1	8.113776E-1	7.294377E-1	7.551689E-1	7.275689E-1	7.876087E-1	7.983531E-1	7.135963E-1	7.534334E-1	7.641504E-1	8.029938E-1	7.612123E-1	7.829507E-1	7.798595E-1	7.648577E-1	7.688476E-1	7.740627E-1	8.278657E-1	7.380770E-1	8.220201E-1	7.786382E-1	7.825074E-1	7.796969E-1	7.807704E-1	7.218022E-1	8.064784E-1	7.879224E-1	7.568115E-1	7.629904E-1	7.684949E-1	7.054685E-1	7.988758E-1	7.726848E-1	8.087370E-1	7.944664E-1	7.423040E-1	7.518041E-1	7.335892E-1	9.427293E-1
2.894050E+2	5.668154E-1	5.842149E-1	5.912667E-1	6.073626E-1	5.643638E-1	6.168365E-1	6.202151E-1	6.074133E-1	6.211578E-1	5.769043E-1	5.748687E-1	6.110360E-1	6.291263E-1	5.718518E-1	6.155141E-1	5.815547E-1	6.478119E-1	5.927245E-1	5.851784E-1	6.175897E-1	6.626344E-1	5.981201E-1	6.089927E-1	5.368328E-1	6.572177E-1	6.088075E-1	5.728477E-1	5.992811E-1	6.071107E-1	6.035122E-1	5.856899E-1	5.915134E-1	6.103159E-1	5.789416E-1	6.234133E-1	5.225390E-1	5.993211E-1	6.472056E-1	5.815524E-1	6.172954E-1	6.860639E-1	5.832553E-1	6.134260E-1	5.903769E-1	6.107938E-1	6.187869E-1	6.276700E-1	6.005361E-1	5.619389E-1	6.966637E-1	6.448253E-1	6.120621E-1	6.367948E-1	6.054003E-1	6.122343E-1	6.042738E-1	5.947219E-1	5.969530E-1	6.384137E-1	6.397573E-1	5.575186E-1	6.223391E-1	6.117173E-1	6.531854E-1	6.513850E-1	5.754904E-1	6.292038E-1	5.695401E-1	6.420642E-1	6.185960E-1	5.832049E-1	6.257654E-1	6.447203E-1	5.919974E-1	6.353464E-1	5.986233E-1	5.795460E-1	6.195926E-1	6.090447E-1	5.794572E-1	5.766173E-1	6.172509E-1	6.073088E-1	6.097549E-1	5.827748E-1	5.555315E-1	5.744586E-1	6.467297E-1	6.066989E-1	5.730738E-1	6.053007E-1	6.121307E-1	6.695487E-1	6.354721E-1	6.247163E-1	6.453909E-1	6.374524E-1	6.159864E-1	5.989280E-1	6.295661E-1	6.026029E-1	6.140652E-1	6.055974E-1	6.074716E-1	6.062144E-1	6.602582E-1	5.595856E-1	5.999056E-1	5.880150E-1	6.205299E-1	6.259083E-1	6.541445E-1	6.115166E-1	5.802603E-1	6.338749E-1	6.093617E-1	6.403057E-1	6.098950E-1	5.950439E-1	6.535137E-1	6.317159E-1	6.395582E-1	5.990571E-1	6.458406E-1	6.403559E-1	6.079460E-1	5.811939E-1	5.991513E-1	5.624627E-1	6.601693E-1	5.747198E-1	5.722310E-1	6.302185E-1	5.933590E-1	5.631812E-1	6.115500E-1	6.273235E-1	5.925465E-1	5.870932E-1	6.290804E-1	6.115655E-1	6.636615E-1	6.082589E-1	6.673119E-1	6.472389E-1	5.619651E-1	5.873915E-1	6.081371E-1	5.960183E-1	6.472716E-1	5.962902E-1	6.007724E-1	6.707395E-1	5.724964E-1	6.629591E-1	6.195993E-1	5.772826E-1	5.870876E-1	5.557225E-1	6.063049E-1	5.765290E-1	5.442392E-1	6.137539E-1	6.577473E-1	6.007418E-1	6.001788E-1	5.892918E-1	6.543461E-1	6.474548E-1	6.091052E-1
2.896060E+2	5.399277E-1	5.819494E-1	5.914503E-1	5.583542E-1	5.245513E-1	5.864029E-1	5.694836E-1	5.535832E-1	5.380240E-1	5.450976E-1	5.952284E-1	5.629789E-1	5.892316E-1	5.980875E-1	5.119353E-1	5.543393E-1	5.977872E-1	5.450175E-1	6.032359E-1	5.814513E-1	5.182587E-1	5.503074E-1	5.658521E-1	6.102842E-1	5.514737E-1	5.627868E-1	5.267124E-1	5.488716E-1	5.566813E-1	5.430817E-1	5.513935E-1	5.412525E-1	5.484632E-1	5.804687E-1	5.134987E-1	5.458171E-1	5.377519E-1	5.500365E-1	5.501491E-1	5.797923E-1	5.540194E-1	5.778825E-1	5.562985E-1	5.643409E-1	5.734579E-1	5.707250E-1	5.563344E-1	5.673379E-1	6.040624E-1	5.301245E-1	5.449599E-1	5.618182E-1	5.452259E-1	5.735404E-1	5.473718E-1	5.520904E-1	5.654024E-1	5.463189E-1	5.471708E-1	5.670154E-1	5.516356E-1	5.205934E-1	5.309103E-1	5.677253E-1	5.815188E-1	5.853157E-1	5.774122E-1	5.893655E-1	5.598516E-1	5.586861E-1	5.352765E-1	5.378948E-1	5.847354E-1	5.803159E-1	5.844075E-1	5.177637E-1	6.058477E-1	6.154873E-1	5.727377E-1	5.831468E-1	5.803834E-1	5.568719E-1	5.815382E-1	6.183321E-1	5.502450E-1	5.046329E-1	5.743375E-1	5.467321E-1	5.424219E-1	5.452076E-1	5.167759E-1	5.534337E-1	5.550560E-1	5.460335E-1	5.457379E-1	5.074527E-1	5.296551E-1	4.706396E-1	5.469030E-1	5.702805E-1	5.939965E-1	5.483689E-1	5.763749E-1	5.410369E-1	5.575395E-1	5.941656E-1	5.823599E-1	5.213948E-1	5.325649E-1	5.192469E-1	5.558003E-1	5.525607E-1	5.790177E-1	5.503604E-1	5.925523E-1	5.551859E-1	5.806245E-1	5.391948E-1	5.917482E-1	5.784498E-1	5.945994E-1	5.902173E-1	5.970907E-1	5.691633E-1	5.562635E-1	5.678968E-1	5.547739E-1	5.713540E-1	6.065479E-1	5.493044E-1	6.007433E-1	5.787078E-1	5.985884E-1	5.431562E-1	5.378921E-1	5.595192E-1	6.019634E-1	5.574071E-1	5.508403E-1	5.832393E-1	5.531853E-1	5.443824E-1	5.329418E-1	6.024185E-1	6.056965E-1	5.279677E-1	5.710025E-1	5.870389E-1	5.502933E-1	6.062492E-1	5.471149E-1	5.237329E-1	6.029368E-1	5.490528E-1	5.775766E-1	5.681272E-1	5.823536E-1	5.780523E-1	5.489771E-1	4.927350E-1	6.277818E-1	5.831232E-1	5.470644E-1	5.343780E-1	5.531254E-1	5.211311E-1	5.519375E-1	5.762046E-1	5.723436E-1	5.390095E-1
2.898050E+2	5.296845E-1	5.688261E-1	5.102689E-1	5.285668E-1	5.175724E-1	5.013298E-1	5.352255E-1	5.651231E-1	5.135990E-1	5.602094E-1	5.421560E-1	5.254537E-1	5.122911E-1	5.835860E-1	5.292826E-1	5.039032E-1	5.176257E-1	5.107401E-1	4.985104E-1	5.120278E-1	5.404526E-1	5.173363E-1	5.482879E-1	5.662546E-1	5.753434E-1	4.791770E-1	5.804248E-1	4.960410E-1	4.973169E-1	5.364938E-1	5.169915E-1	5.533863E-1	5.544423E-1	5.112607E-1	4.973739E-1	4.965548E-1	5.521124E-1	5.099999E-1	5.258960E-1	5.198251E-1	5.405474E-1	5.633704E-1	4.924144E-1	5.294351E-1	5.420030E-1	5.826729E-1	5.144895E-1	5.692028E-1	5.825531E-1	5.565905E-1	5.063613E-1	5.038534E-1	5.199223E-1	5.120524E-1	5.522837E-1	5.314618E-1	5.126777E-1	5.612158E-1	5.201164E-1	5.500350E-1	5.109242E-1	4.949921E-1	5.355634E-1	5.086438E-1	5.284115E-1	5.235387E-1	5.200130E-1	4.890726E-1	4.938361E-1	5.308278E-1	5.339450E-1	5.127641E-1	5.789577E-1	5.570617E-1	5.437466E-1	5.154968E-1	5.340454E-1	5.384918E-1	5.455016E-1	5.211114E-1	5.424551E-1	5.184869E-1	5.040741E-1	5.336465E-1	5.649169E-1	5.042082E-1	5.289758E-1	5.386620E-1	4.960002E-1	5.218013E-1	4.924791E-1	5.576164E-1	5.606272E-1	5.100064E-1	5.257253E-1	4.800331E-1	4.948179E-1	5.179434E-1	4.857281E-1	5.415586E-1	5.319457E-1	5.421808E-1	5.053726E-1	4.930047E-1	5.426354E-1	5.123529E-1	5.210199E-1	5.302965E-1	5.129269E-1	5.103221E-1	5.362512E-1	5.692376E-1	5.053006E-1	5.962607E-1	5.523871E-1	5.205671E-1	4.951277E-1	5.151343E-1	5.304522E-1	5.465130E-1	5.165143E-1	5.463336E-1	5.337457E-1	5.029231E-1	5.602714E-1	5.507312E-1	5.428867E-1	5.626270E-1	5.258442E-1	5.673320E-1	5.199272E-1	5.165442E-1	5.328349E-1	5.273762E-1	5.275173E-1	5.292342E-1	5.543236E-1	5.364105E-1	4.858037E-1	5.323840E-1	5.131451E-1	5.161420E-1	5.354965E-1	5.260854E-1	4.934898E-1	5.075398E-1	5.505103E-1	5.745383E-1	5.213562E-1	6.287687E-1	5.360922E-1	5.263346E-1	5.697364E-1	5.255595E-1	5.278640E-1	5.321672E-1	5.389155E-1	5.494195E-1	5.139840E-1	5.014734E-1	5.860696E-1	5.077622E-1	4.980240E-1	5.369961E-1	5.655141E-1	5.109298E-1	5.203646E-1	5.965660E-1	4.721587E-1	5.968740E-1
2.900050E+2	5.641012E-1	5.033572E-1	5.831192E-1	4.737647E-1	5.445061E-1	4.547966E-1	4.972053E-1	4.960641E-1	5.750970E-1	5.257813E-1	5.678781E-1	5.537708E-1	5.123010E-1	5.114935E-1	5.582030E-1	4.935283E-1	5.060700E-1	4.582044E-1	4.951206E-1	5.462875E-1	5.357413E-1	5.023057E-1	5.618378E-1	5.355816E-1	5.014451E-1	4.834509E-1	5.518657E-1	5.314194E-1	5.125890E-1	5.214632E-1	5.120147E-1	4.918772E-1	5.282315E-1	5.589158E-1	5.028975E-1	5.168511E-1	5.296966E-1	5.090954E-1	5.396459E-1	5.169399E-1	5.753483E-1	5.232137E-1	5.285344E-1	5.088318E-1	5.443711E-1	5.031283E-1	4.649957E-1	5.333260E-1	5.376483E-1	5.180665E-1	5.254577E-1	5.062120E-1	5.308714E-1	4.884360E-1	5.160303E-1	4.776076E-1	5.025035E-1	5.111983E-1	5.320371E-1	4.988645E-1	5.011967E-1	5.274945E-1	5.201099E-1	5.225130E-1	5.285213E-1	4.978522E-1	5.403716E-1	5.461896E-1	5.266028E-1	5.464316E-1	4.857706E-1	5.212958E-1	5.651993E-1	5.095837E-1	5.134673E-1	5.052648E-1	5.202041E-1	5.242614E-1	5.396379E-1	5.459748E-1	5.229759E-1	5.553045E-1	5.305778E-1	5.110442E-1	5.324319E-1	4.883054E-1	5.191014E-1	5.396490E-1	5.398957E-1	5.013916E-1	5.168260E-1	4.845490E-1	5.046341E-1	5.348512E-1	5.295009E-1	5.645288E-1	5.363427E-1	5.341022E-1	5.394629E-1	5.164549E-1	5.560369E-1	5.397575E-1	4.966907E-1	5.285566E-1	5.491757E-1	5.019636E-1	5.106040E-1	4.682851E-1	5.254124E-1	4.885858E-1	5.183520E-1	5.185604E-1	4.793692E-1	4.860582E-1	5.333016E-1	5.137057E-1	5.195164E-1	5.452718E-1	5.279097E-1	5.199682E-1	5.419970E-1	5.645748E-1	4.988934E-1	5.046613E-1	4.907730E-1	5.532034E-1	4.982318E-1	5.565706E-1	5.212732E-1	4.925364E-1	5.307297E-1	5.056634E-1	5.301435E-1	5.526498E-1	5.130478E-1	5.153662E-1	5.187801E-1	5.447167E-1	4.606148E-1	5.296386E-1	5.381635E-1	5.346459E-1	5.322601E-1	5.169429E-1	4.946774E-1	4.754698E-1	5.262046E-1	5.098922E-1	4.954546E-1	5.011227E-1	4.784025E-1	4.925146E-1	5.519252E-1	4.841959E-1	5.396052E-1	4.651878E-1	5.307601E-1	4.899472E-1	5.388238E-1	5.530957E-1	5.224906E-1	5.294771E-1	5.281157E-1	5.227243E-1	5.396473E-1	5.453283E-1	4.989512E-1	5.049131E-1	5.352770E-1	5.468366E-1
2.905120E+2	6.439684E-1	6.126861E-1	6.542626E-1	5.775063E-1	6.206948E-1	6.368425E-1	6.004441E-1	6.131634E-1	6.347841E-1	6.216880E-1	6.320564E-1	6.334706E-1	6.457908E-1	6.157454E-1	6.195975E-1	6.013916E-1	6.309809E-1	6.072247E-1	5.731784E-1	6.878171E-1	7.039230E-1	6.213560E-1	6.195180E-1	5.605265E-1	6.533885E-1	6.392273E-1	6.835477E-1	5.956850E-1	6.384347E-1	6.686162E-1	6.147144E-1	6.640854E-1	6.986822E-1	5.959357E-1	6.255191E-1	5.928669E-1	6.715328E-1	6.197663E-1	6.857584E-1	6.232301E-1	6.977622E-1	6.354240E-1	6.253353E-1	6.418167E-1	6.772302E-1	6.638151E-1	6.296837E-1	6.673669E-1	6.486570E-1	6.256167E-1	6.377618E-1	5.932014E-1	6.284360E-1	6.627639E-1	6.339046E-1	6.460490E-1	6.419164E-1	6.532380E-1	5.921555E-1	6.173424E-1	6.467681E-1	6.845986E-1	6.211019E-1	6.843654E-1	6.496248E-1	6.106324E-1	5.990218E-1	6.381168E-1	6.362303E-1	6.005804E-1	5.945996E-1	6.118897E-1	6.482742E-1	6.406946E-1	5.792508E-1	5.962905E-1	6.455187E-1	6.334573E-1	6.387442E-1	6.829303E-1	6.538367E-1	6.562459E-1	5.991191E-1	6.334960E-1	6.672693E-1	6.210098E-1	6.099754E-1	6.150503E-1	5.859678E-1	6.425339E-1	6.127755E-1	5.869202E-1	6.050673E-1	6.155242E-1	5.820791E-1	5.971313E-1	5.917264E-1	6.556321E-1	6.203663E-1	6.680356E-1	6.231648E-1	6.619407E-1	6.584045E-1	6.466298E-1	5.737039E-1	6.566191E-1	6.023022E-1	6.147530E-1	6.505088E-1	5.541597E-1	6.130504E-1	6.464996E-1	6.407641E-1	6.452623E-1	6.368255E-1	6.082419E-1	6.400501E-1	6.178487E-1	5.992196E-1	6.319366E-1	6.428901E-1	6.267960E-1	6.311858E-1	5.646517E-1	5.980812E-1	6.348636E-1	7.141577E-1	6.147813E-1	6.327085E-1	6.784380E-1	5.941510E-1	6.082288E-1	6.005633E-1	6.152904E-1	6.065845E-1	6.383234E-1	6.450693E-1	6.331283E-1	6.128020E-1	6.479237E-1	6.719464E-1	6.791032E-1	6.184152E-1	6.246224E-1	6.459222E-1	6.837188E-1	6.094053E-1	6.235253E-1	6.339392E-1	6.823794E-1	5.721649E-1	6.103517E-1	7.049456E-1	6.683008E-1	6.594716E-1	6.151488E-1	6.368849E-1	6.772784E-1	5.916103E-1	6.783687E-1	5.973322E-1	6.863713E-1	5.980632E-1	6.151499E-1	6.441594E-1	6.426164E-1	5.854750E-1	6.340074E-1	7.365470E-1	8.061164E-1
2.910040E+2	7.773241E-1	8.248556E-1	8.317149E-1	7.987771E-1	7.441647E-1	8.400121E-1	7.883406E-1	8.058668E-1	8.751020E-1	8.324696E-1	8.447070E-1	7.480465E-1	7.546086E-1	8.443346E-1	8.089110E-1	8.223728E-1	8.343159E-1	8.173497E-1	8.099107E-1	7.932101E-1	8.207181E-1	8.135884E-1	7.720690E-1	8.198443E-1	8.441555E-1	8.062617E-1	8.483334E-1	8.658845E-1	8.099174E-1	8.628769E-1	8.577626E-1	8.264539E-1	8.106150E-1	7.978381E-1	7.994792E-1	8.200657E-1	8.503915E-1	7.803713E-1	8.200838E-1	7.888888E-1	8.162284E-1	8.152336E-1	7.576776E-1	7.834205E-1	7.894683E-1	7.727856E-1	7.784714E-1	8.576951E-1	8.286016E-1	8.114550E-1	8.437982E-1	8.350530E-1	8.328083E-1	7.993524E-1	7.625947E-1	8.377408E-1	8.301918E-1	8.056726E-1	8.182356E-1	7.891266E-1	8.221105E-1	8.179490E-1	7.943441E-1	8.931741E-1	8.013207E-1	8.194043E-1	8.624721E-1	8.134998E-1	8.084703E-1	8.452840E-1	8.044874E-1	7.716718E-1	8.248978E-1	8.567369E-1	8.268198E-1	8.109872E-1	8.236021E-1	8.216766E-1	8.654183E-1	8.219261E-1	7.825193E-1	8.077946E-1	8.533653E-1	8.582939E-1	7.753476E-1	8.234419E-1	7.707540E-1	8.238884E-1	8.677708E-1	8.689817E-1	7.978501E-1	8.285958E-1	8.439815E-1	8.432858E-1	7.950405E-1	7.944605E-1	8.983122E-1	8.289611E-1	8.368138E-1	8.212337E-1	8.269409E-1	8.380740E-1	7.850000E-1	7.594370E-1	8.266382E-1	8.287869E-1	7.656546E-1	8.290739E-1	8.643066E-1	8.169514E-1	8.191583E-1	8.279660E-1	8.205150E-1	8.363905E-1	7.648808E-1	8.096673E-1	7.613561E-1	7.802065E-1	8.224935E-1	8.651765E-1	8.170428E-1	8.005142E-1	8.428149E-1	8.123561E-1	8.178741E-1	7.993727E-1	8.103863E-1	8.476471E-1	8.221827E-1	8.406242E-1	7.964483E-1	8.038849E-1	8.331239E-1	7.906958E-1	7.495552E-1	8.513034E-1	7.590114E-1	8.008425E-1	7.994245E-1	7.597752E-1	8.503497E-1	8.429578E-1	8.209937E-1	8.343206E-1	8.093765E-1	7.888441E-1	7.497972E-1	7.698044E-1	7.833977E-1	8.611274E-1	7.839156E-1	8.613846E-1	8.137946E-1	7.690212E-1	8.891535E-1	8.030191E-1	7.899633E-1	8.191166E-1	7.878737E-1	8.370206E-1	8.352355E-1	7.938735E-1	8.086903E-1	8.058010E-1	8.177823E-1	7.405027E-1	7.628131E-1	8.381977E-1	7.478549E-1	8.083442E-1
2.915060E+2	9.066569E-1	9.021110E-1	9.818730E-1	9.240696E-1	8.740269E-1	8.941286E-1	8.979210E-1	8.427377E-1	8.700791E-1	8.502761E-1	9.365859E-1	9.366270E-1	9.858099E-1	1.001019E+0	8.904277E-1	9.131680E-1	9.372757E-1	9.732099E-1	9.581235E-1	9.642340E-1	8.505019E-1	9.531263E-1	9.273230E-1	9.740115E-1	8.355929E-1	9.004196E-1	8.957551E-1	8.761097E-1	9.030436E-1	8.857864E-1	8.922761E-1	9.262378E-1	8.379042E-1	9.055884E-1	9.209384E-1	8.887626E-1	8.711585E-1	8.930392E-1	9.591047E-1	8.666277E-1	9.522731E-1	9.608780E-1	9.467491E-1	8.771576E-1	9.389062E-1	8.678007E-1	9.300888E-1	8.764982E-1	9.092697E-1	9.223768E-1	8.580246E-1	8.993045E-1	9.302959E-1	8.976785E-1	8.789030E-1	9.189392E-1	9.259791E-1	9.671421E-1	8.802337E-1	9.346016E-1	9.227892E-1	8.635444E-1	9.004639E-1	9.333220E-1	8.577394E-1	9.138123E-1	9.252820E-1	9.040513E-1	8.601102E-1	9.167863E-1	8.900099E-1	8.311573E-1	9.473687E-1	9.443740E-1	8.571743E-1	9.386280E-1	9.469319E-1	8.878188E-1	9.382153E-1	8.874105E-1	8.485275E-1	8.785298E-1	8.860168E-1	8.867350E-1	9.141122E-1	8.536746E-1	8.693610E-1	9.320069E-1	8.978283E-1	8.782932E-1	9.103715E-1	8.946998E-1	8.927850E-1	8.501156E-1	9.383453E-1	9.083839E-1	9.332729E-1	9.261592E-1	9.093233E-1	9.108815E-1	9.486298E-1	9.295442E-1	9.735904E-1	8.880561E-1	8.806631E-1	9.475133E-1	8.462423E-1	8.499583E-1	9.117703E-1	8.665813E-1	8.872878E-1	8.926472E-1	9.077047E-1	9.579193E-1	8.982849E-1	8.886135E-1	9.698397E-1	8.922729E-1	9.438185E-1	9.048036E-1	8.887888E-1	9.632412E-1	9.117619E-1	8.823136E-1	9.456242E-1	8.914462E-1	8.646870E-1	9.079076E-1	9.028295E-1	9.579679E-1	8.717946E-1	9.141128E-1	9.008553E-1	9.184218E-1	9.341637E-1	9.533604E-1	9.255124E-1	9.401310E-1	8.938405E-1	8.672991E-1	8.875036E-1	9.282152E-1	8.775583E-1	8.952166E-1	9.139970E-1	9.160254E-1	9.135593E-1	8.962409E-1	9.230396E-1	9.793223E-1	9.195507E-1	9.237792E-1	8.934401E-1	8.752815E-1	8.970833E-1	9.111839E-1	8.581447E-1	9.059438E-1	8.680829E-1	9.921177E-1	9.747150E-1	8.522460E-1	8.681072E-1	8.922747E-1	9.636938E-1	8.970288E-1	9.324088E-1	9.168749E-1	1.043761E+0	1.008027E+0
2.920050E+2	7.940119E-1	7.948640E-1	7.288930E-1	7.602644E-1	8.172923E-1	7.876996E-1	8.056623E-1	7.857276E-1	7.919176E-1	7.608126E-1	7.969150E-1	8.207536E-1	7.923679E-1	8.260675E-1	8.355936E-1	7.253795E-1	7.996700E-1	8.364702E-1	8.373190E-1	7.980659E-1	8.021952E-1	7.869312E-1	8.063258E-1	8.130553E-1	7.984484E-1	7.429085E-1	7.775120E-1	7.456464E-1	8.173173E-1	8.531669E-1	7.843264E-1	7.909797E-1	8.021426E-1	8.152064E-1	7.390738E-1	7.224093E-1	7.852721E-1	8.155680E-1	8.695113E-1	7.706962E-1	8.251727E-1	8.400885E-1	7.670933E-1	7.779885E-1	7.958125E-1	8.009354E-1	7.680799E-1	7.873018E-1	8.872357E-1	8.075497E-1	7.836860E-1	8.113298E-1	8.244720E-1	8.134135E-1	8.709341E-1	8.367615E-1	8.607007E-1	8.192877E-1	8.225139E-1	8.300878E-1	8.031707E-1	7.961667E-1	8.140385E-1	8.085498E-1	7.743664E-1	7.397138E-1	8.466015E-1	7.623018E-1	7.803491E-1	8.209330E-1	7.423770E-1	8.016078E-1	8.663611E-1	8.174459E-1	7.650831E-1	7.732495E-1	8.062406E-1	8.727744E-1	8.385764E-1	7.699939E-1	8.007666E-1	8.057266E-1	7.754077E-1	7.419194E-1	8.102627E-1	8.102645E-1	7.327755E-1	8.189706E-1	7.927529E-1	7.660518E-1	7.838296E-1	8.038588E-1	7.925591E-1	8.231201E-1	8.034968E-1	8.029152E-1	8.265129E-1	8.266608E-1	7.623061E-1	7.493657E-1	8.471661E-1	8.650839E-1	8.321304E-1	8.735658E-1	8.275204E-1	8.551120E-1	8.364821E-1	8.161558E-1	8.132389E-1	8.168574E-1	8.690261E-1	7.535203E-1	7.980291E-1	8.226663E-1	7.731984E-1	7.597279E-1	7.934137E-1	7.960967E-1	8.701656E-1	7.892417E-1	8.078018E-1	7.791455E-1	8.256680E-1	7.978025E-1	8.026261E-1	7.675589E-1	7.769404E-1	8.134976E-1	7.600102E-1	8.673082E-1	7.607899E-1	7.471539E-1	8.031225E-1	8.066492E-1	7.412335E-1	7.754961E-1	8.140420E-1	7.984794E-1	8.019163E-1	7.456717E-1	8.861411E-1	8.296366E-1	7.967779E-1	8.575028E-1	8.053519E-1	7.453532E-1	7.683962E-1	8.063484E-1	7.880283E-1	8.128561E-1	8.678177E-1	7.920157E-1	8.199303E-1	7.684250E-1	7.741044E-1	8.114488E-1	7.723613E-1	8.298240E-1	8.141249E-1	7.948858E-1	7.738330E-1	8.096977E-1	8.421006E-1	8.138877E-1	7.812210E-1	7.901107E-1	7.503739E-1	8.383677E-1	8.897359E-1	7.714774E-1
2.924990E+2	7.624593E-1	6.831872E-1	7.879958E-1	7.821393E-1	7.489835E-1	7.130262E-1	7.607302E-1	7.253742E-1	7.368843E-1	7.920522E-1	7.868699E-1	7.658827E-1	7.827278E-1	8.346648E-1	7.555867E-1	7.598826E-1	7.433211E-1	7.800184E-1	7.230516E-1	7.778944E-1	7.209360E-1	7.474375E-1	7.068467E-1	7.481182E-1	8.424753E-1	7.373667E-1	7.121966E-1	7.361676E-1	7.793761E-1	6.979960E-1	7.752171E-1	7.276263E-1	8.069030E-1	7.232044E-1	7.447013E-1	7.133162E-1	7.289270E-1	7.929503E-1	8.018914E-1	7.976931E-1	7.534072E-1	7.216697E-1	7.450241E-1	7.190995E-1	8.121543E-1	7.697867E-1	7.305009E-1	7.492366E-1	8.203335E-1	7.604237E-1	7.792699E-1	7.618355E-1	7.625917E-1	7.586499E-1	7.498153E-1	7.185989E-1	7.745092E-1	7.907029E-1	7.235178E-1	7.085783E-1	7.330509E-1	7.938358E-1	7.864109E-1	7.674923E-1	7.439688E-1	7.343924E-1	7.799294E-1	7.645622E-1	7.825167E-1	7.356862E-1	7.158834E-1	7.241524E-1	7.898320E-1	7.278071E-1	6.988775E-1	7.301081E-1	7.460032E-1	7.453856E-1	7.828083E-1	7.714069E-1	7.672823E-1	7.866209E-1	7.869710E-1	7.561475E-1	7.683210E-1	7.908295E-1	6.864381E-1	7.297568E-1	7.403393E-1	7.263425E-1	7.634541E-1	7.107923E-1	7.373383E-1	8.050123E-1	7.845689E-1	7.318698E-1	7.238485E-1	7.873665E-1	7.533492E-1	7.726831E-1	7.510965E-1	7.825530E-1	7.181912E-1	6.911365E-1	8.263166E-1	7.623763E-1	7.325921E-1	7.656501E-1	7.264895E-1	7.427427E-1	7.629851E-1	8.000526E-1	7.602732E-1	7.650815E-1	7.505236E-1	6.978353E-1	8.068070E-1	7.192392E-1	8.044102E-1	7.683353E-1	7.754982E-1	7.686510E-1	7.464778E-1	8.150799E-1	7.228833E-1	7.656228E-1	7.550796E-1	7.020303E-1	7.289594E-1	7.920453E-1	7.516061E-1	7.216203E-1	7.563870E-1	7.595232E-1	7.093959E-1	7.062809E-1	7.730556E-1	7.165173E-1	7.470350E-1	7.701228E-1	7.613518E-1	7.624385E-1	7.545029E-1	7.661760E-1	7.582150E-1	7.561229E-1	7.859014E-1	7.340745E-1	7.578644E-1	7.669158E-1	7.561412E-1	6.971327E-1	7.622623E-1	6.635980E-1	7.489711E-1	8.034404E-1	7.607037E-1	7.372054E-1	7.912282E-1	7.609854E-1	7.794174E-1	7.392419E-1	7.413437E-1	7.838309E-1	7.591819E-1	7.099338E-1	7.262402E-1	7.505153E-1	8.982274E-1	7.375936E-1
2.930130E+2	7.390727E-1	6.636965E-1	6.789316E-1	6.930547E-1	7.209643E-1	6.430917E-1	6.989561E-1	7.155094E-1	6.920818E-1	6.693841E-1	6.548895E-1	6.606137E-1	6.771586E-1	7.147403E-1	6.901480E-1	6.469862E-1	6.522000E-1	6.247076E-1	6.448672E-1	6.487004E-1	7.218416E-1	7.249569E-1	6.425167E-1	6.971005E-1	7.485003E-1	7.122921E-1	7.151150E-1	6.586529E-1	6.501152E-1	6.750032E-1	6.452165E-1	6.851430E-1	6.617113E-1	6.977100E-1	6.440998E-1	6.822111E-1	6.873955E-1	7.360227E-1	6.641509E-1	6.898563E-1	7.310950E-1	7.319015E-1	6.905246E-1	6.774301E-1	6.203114E-1	6.958828E-1	7.294074E-1	6.898972E-1	6.994448E-1	6.576861E-1	6.839888E-1	6.341197E-1	6.844573E-1	6.155218E-1	6.667170E-1	6.900132E-1	7.129363E-1	6.967525E-1	6.814066E-1	6.706928E-1	7.239527E-1	7.139679E-1	6.605297E-1	7.017905E-1	6.912208E-1	6.677313E-1	6.900906E-1	6.675132E-1	6.479269E-1	6.317605E-1	6.790221E-1	6.681220E-1	6.836824E-1	6.786670E-1	6.820273E-1	6.784902E-1	6.845664E-1	7.054329E-1	7.095410E-1	7.197663E-1	6.603082E-1	6.697229E-1	7.041374E-1	7.056584E-1	6.603849E-1	6.655937E-1	6.816799E-1	7.106700E-1	7.067243E-1	6.505898E-1	7.116622E-1	6.525665E-1	6.528754E-1	6.378277E-1	6.706299E-1	7.045088E-1	6.708753E-1	6.696285E-1	6.380350E-1	6.502273E-1	6.897119E-1	7.179391E-1	6.833281E-1	6.932572E-1	6.608459E-1	6.665100E-1	6.660845E-1	6.802990E-1	7.063043E-1	6.564945E-1	7.205171E-1	6.871449E-1	6.972470E-1	6.663104E-1	7.004674E-1	7.173509E-1	7.069764E-1	6.635297E-1	6.876307E-1	7.183322E-1	7.552780E-1	7.382417E-1	7.270799E-1	6.685309E-1	7.133800E-1	6.930684E-1	6.941087E-1	6.764897E-1	6.774365E-1	7.496347E-1	6.829678E-1	6.567836E-1	6.863459E-1	6.170633E-1	6.179947E-1	7.093694E-1	6.895488E-1	7.521527E-1	6.204996E-1	6.881049E-1	6.830120E-1	6.799769E-1	6.696390E-1	6.969781E-1	6.917585E-1	6.524504E-1	7.014451E-1	6.755245E-1	6.393177E-1	6.824708E-1	6.382304E-1	7.413247E-1	7.054090E-1	6.188264E-1	6.951401E-1	6.266970E-1	6.805544E-1	7.034744E-1	7.260545E-1	6.818443E-1	6.849884E-1	6.768110E-1	6.426093E-1	6.765796E-1	7.117212E-1	6.947487E-1	6.913168E-1	7.291426E-1	7.715600E-1	6.246704E-1
2.935030E+2	8.239755E-1	7.986158E-1	8.243493E-1	7.854575E-1	7.155660E-1	7.782749E-1	7.654553E-1	7.483270E-1	7.722978E-1	8.003518E-1	7.348948E-1	7.850024E-1	8.090423E-1	8.101969E-1	7.092329E-1	7.254249E-1	8.169856E-1	7.359665E-1	7.492589E-1	7.769233E-1	7.554406E-1	7.973703E-1	7.867913E-1	6.912744E-1	6.905016E-1	7.588302E-1	7.398418E-1	7.493627E-1	7.321889E-1	7.708084E-1	7.183093E-1	7.661456E-1	7.516063E-1	7.651419E-1	7.700171E-1	7.977083E-1	7.637610E-1	7.498960E-1	7.198685E-1	7.502732E-1	7.005396E-1	8.339815E-1	7.635562E-1	7.454328E-1	7.560583E-1	7.406909E-1	7.239468E-1	7.602571E-1	8.174465E-1	7.834732E-1	7.974446E-1	7.860878E-1	7.271227E-1	7.693121E-1	7.441001E-1	7.268338E-1	7.796514E-1	7.497651E-1	6.799962E-1	7.655495E-1	7.381684E-1	7.742911E-1	7.454140E-1	7.518111E-1	7.472105E-1	7.539994E-1	7.526527E-1	7.123643E-1	7.386555E-1	7.603009E-1	7.321034E-1	7.313346E-1	7.442150E-1	8.099722E-1	7.763505E-1	7.885755E-1	7.852948E-1	7.831162E-1	7.895176E-1	7.540946E-1	7.398748E-1	7.850159E-1	7.186634E-1	7.408797E-1	7.615959E-1	7.366063E-1	7.548745E-1	6.999450E-1	7.552416E-1	6.997842E-1	7.815593E-1	7.007782E-1	7.520192E-1	7.863262E-1	7.849252E-1	7.499720E-1	7.169422E-1	7.529051E-1	7.339925E-1	7.323452E-1	7.695800E-1	7.955176E-1	7.176150E-1	7.666405E-1	7.551630E-1	8.172006E-1	7.791804E-1	6.976311E-1	7.889064E-1	7.545546E-1	7.652395E-1	7.859137E-1	7.550340E-1	7.780654E-1	7.447808E-1	7.737529E-1	7.301468E-1	8.039020E-1	7.411544E-1	7.745678E-1	7.659499E-1	7.169770E-1	7.526940E-1	7.691438E-1	7.472574E-1	7.378934E-1	8.026614E-1	7.476744E-1	7.753784E-1	7.925407E-1	7.931563E-1	7.500681E-1	7.901524E-1	7.636381E-1	7.361320E-1	7.494347E-1	7.757623E-1	8.484290E-1	6.723669E-1	7.652865E-1	7.771571E-1	7.949544E-1	7.536367E-1	7.664508E-1	7.848258E-1	7.718803E-1	7.280380E-1	7.712342E-1	7.505000E-1	8.293285E-1	7.486040E-1	7.207790E-1	7.257295E-1	7.307026E-1	7.350686E-1	7.369886E-1	7.869381E-1	7.820808E-1	7.627414E-1	7.578202E-1	7.859134E-1	7.536206E-1	7.756791E-1	7.459197E-1	7.715973E-1	7.065979E-1	7.145664E-1	7.658083E-1	7.672681E-1	7.887446E-1
2.940070E+2	8.053299E-1	8.017609E-1	7.176111E-1	6.836150E-1	7.435194E-1	7.367886E-1	7.622575E-1	7.570418E-1	7.723721E-1	7.751463E-1	8.290996E-1	7.808043E-1	7.792187E-1	7.604637E-1	7.219016E-1	7.698796E-1	7.570589E-1	7.822146E-1	7.909447E-1	7.765401E-1	7.401705E-1	7.584878E-1	7.910517E-1	7.768039E-1	7.431601E-1	7.213273E-1	7.293738E-1	8.247778E-1	7.712377E-1	7.760176E-1	7.002930E-1	7.627908E-1	7.803154E-1	7.342771E-1	7.304658E-1	7.041009E-1	7.576750E-1	7.737865E-1	8.066541E-1	8.045656E-1	7.274554E-1	8.218005E-1	7.632523E-1	7.194145E-1	7.479053E-1	7.626934E-1	7.513191E-1	7.735364E-1	8.081961E-1	8.110528E-1	7.686745E-1	7.510457E-1	7.043216E-1	7.189000E-1	8.215017E-1	7.450277E-1	7.669273E-1	7.928772E-1	7.568119E-1	7.850934E-1	8.051813E-1	7.404465E-1	7.545522E-1	7.755107E-1	7.666051E-1	7.536803E-1	7.819622E-1	7.448675E-1	7.709653E-1	7.565331E-1	7.402144E-1	7.875821E-1	7.783912E-1	7.980462E-1	7.338358E-1	7.541983E-1	7.725197E-1	7.456417E-1	7.626939E-1	7.761655E-1	7.686659E-1	8.004452E-1	7.660333E-1	8.479546E-1	7.724353E-1	7.420336E-1	7.987208E-1	7.845019E-1	7.683313E-1	7.865345E-1	7.674322E-1	7.678292E-1	7.161742E-1	7.654452E-1	7.634054E-1	8.051762E-1	7.851244E-1	7.769832E-1	7.320185E-1	7.819716E-1	7.046077E-1	8.105133E-1	7.024641E-1	7.583162E-1	7.755709E-1	7.894411E-1	6.900459E-1	7.161380E-1	7.924210E-1	7.568905E-1	8.354946E-1	7.613175E-1	7.960244E-1	7.189680E-1	7.585195E-1	7.765022E-1	7.821830E-1	7.864930E-1	7.956108E-1	7.184658E-1	7.591140E-1	7.796481E-1	7.835964E-1	7.216074E-1	7.109201E-1	7.304063E-1	7.568337E-1	7.800616E-1	8.398741E-1	8.100776E-1	7.785691E-1	8.051455E-1	7.189263E-1	7.793868E-1	7.131101E-1	7.354043E-1	7.991599E-1	8.191652E-1	7.129310E-1	7.574531E-1	7.776328E-1	7.836547E-1	7.252225E-1	7.970120E-1	7.917383E-1	7.446920E-1	8.142319E-1	7.711367E-1	8.076955E-1	7.734155E-1	7.658114E-1	7.627256E-1	7.560809E-1	7.629408E-1	8.170536E-1	7.207201E-1	8.277878E-1	7.675314E-1	7.902590E-1	7.741737E-1	7.282187E-1	7.184009E-1	8.319921E-1	7.263569E-1	7.822161E-1	7.733999E-1	7.902569E-1	7.298914E-1	8.103166E-1	7.647343E-1
2.945060E+2	7.077126E-1	7.514445E-1	7.522629E-1	7.193535E-1	7.162827E-1	7.483006E-1	7.217721E-1	7.242502E-1	7.936969E-1	7.745539E-1	7.716893E-1	7.232877E-1	7.799725E-1	8.099817E-1	7.454942E-1	7.066188E-1	7.447404E-1	7.614846E-1	7.134509E-1	7.783975E-1	7.277719E-1	7.448108E-1	6.850650E-1	7.536262E-1	7.948887E-1	7.188411E-1	7.298136E-1	7.565552E-1	7.508702E-1	7.885106E-1	7.020877E-1	7.614169E-1	7.502909E-1	7.235795E-1	7.356656E-1	7.681947E-1	6.897264E-1	7.591886E-1	7.310828E-1	7.947593E-1	7.762170E-1	8.083479E-1	6.979458E-1	7.538912E-1	7.407322E-1	7.604836E-1	7.256378E-1	8.417210E-1	7.758520E-1	7.557151E-1	7.270967E-1	7.234488E-1	7.620396E-1	7.695189E-1	7.499927E-1	7.164505E-1	7.723192E-1	8.386663E-1	7.630425E-1	7.178756E-1	7.069145E-1	7.544834E-1	7.321558E-1	7.285469E-1	7.180669E-1	7.444807E-1	7.380754E-1	7.368704E-1	7.835019E-1	7.821312E-1	7.286493E-1	7.036662E-1	7.169457E-1	7.216593E-1	6.988200E-1	7.395569E-1	7.510721E-1	7.272005E-1	7.796436E-1	7.530387E-1	7.540307E-1	7.432570E-1	6.955678E-1	7.101124E-1	7.591090E-1	7.116785E-1	7.357552E-1	7.394787E-1	7.757765E-1	7.800642E-1	7.549277E-1	7.098642E-1	7.077034E-1	7.569568E-1	7.126943E-1	7.511797E-1	7.274839E-1	7.421667E-1	7.756540E-1	6.989515E-1	7.440099E-1	7.705662E-1	7.660080E-1	7.408036E-1	7.393450E-1	7.487968E-1	7.489793E-1	7.341967E-1	7.331066E-1	7.353867E-1	7.407411E-1	7.766382E-1	7.246551E-1	7.649352E-1	7.305565E-1	7.106174E-1	7.335549E-1	7.716848E-1	7.615383E-1	7.509855E-1	7.702116E-1	7.937152E-1	7.214048E-1	7.893686E-1	7.725798E-1	7.695780E-1	7.566279E-1	7.566432E-1	6.844332E-1	7.142808E-1	7.753365E-1	7.551443E-1	7.362274E-1	6.784663E-1	7.345153E-1	7.384865E-1	7.304129E-1	7.640105E-1	7.104274E-1	7.614145E-1	7.889009E-1	7.175765E-1	7.472830E-1	7.515701E-1	7.964449E-1	7.370589E-1	7.176727E-1	7.268821E-1	8.127996E-1	7.704668E-1	7.414427E-1	7.375382E-1	6.984936E-1	7.092797E-1	7.630610E-1	7.492819E-1	7.469301E-1	7.538692E-1	7.669045E-1	7.506089E-1	7.258450E-1	7.175661E-1	7.330316E-1	6.837439E-1	7.504232E-1	7.943993E-1	7.693395E-1	7.485107E-1	7.477541E-1	8.152314E-1
2.950050E+2	8.551907E-1	8.454983E-1	8.853254E-1	9.123040E-1	8.547930E-1	8.457329E-1	9.069151E-1	9.018913E-1	8.587412E-1	9.118907E-1	9.156114E-1	8.668803E-1	9.291494E-1	8.823217E-1	8.337559E-1	8.522548E-1	8.463762E-1	8.946112E-1	9.029208E-1	8.799061E-1	9.243723E-1	8.933961E-1	8.109597E-1	8.790509E-1	8.481314E-1	8.955945E-1	8.880072E-1	9.148122E-1	8.562073E-1	8.360078E-1	9.028656E-1	9.252522E-1	8.304013E-1	8.747415E-1	8.390473E-1	8.847126E-1	8.107848E-1	8.617075E-1	8.631262E-1	8.967891E-1	9.051003E-1	8.911676E-1	9.117680E-1	8.788919E-1	9.345304E-1	8.733699E-1	9.162678E-1	9.103599E-1	9.432296E-1	9.135499E-1	9.033392E-1	8.645905E-1	8.574581E-1	8.519523E-1	9.109027E-1	8.908319E-1	8.892227E-1	9.942471E-1	8.863205E-1	9.201179E-1	9.037748E-1	8.571984E-1	8.504313E-1	9.464061E-1	8.684173E-1	8.886944E-1	9.100485E-1	8.061107E-1	8.833609E-1	9.539655E-1	8.616246E-1	8.537519E-1	9.397813E-1	9.063334E-1	8.972497E-1	8.355995E-1	8.490420E-1	9.105874E-1	8.376536E-1	8.752774E-1	9.468725E-1	8.517970E-1	8.407163E-1	8.404753E-1	8.631462E-1	8.825783E-1	8.937914E-1	9.322297E-1	8.474248E-1	8.277169E-1	9.094570E-1	8.588832E-1	8.436172E-1	7.995982E-1	8.739308E-1	8.915974E-1	8.967868E-1	9.169016E-1	9.018761E-1	8.971736E-1	9.045683E-1	9.083125E-1	8.530078E-1	9.042010E-1	8.868183E-1	9.106934E-1	8.160022E-1	8.265130E-1	8.734672E-1	8.592406E-1	8.803169E-1	9.369632E-1	8.696237E-1	9.412170E-1	8.849423E-1	9.210737E-1	8.928904E-1	8.812127E-1	9.015457E-1	9.033454E-1	8.570342E-1	8.676482E-1	9.231407E-1	8.538676E-1	9.167085E-1	9.349850E-1	8.674930E-1	9.355285E-1	8.345720E-1	8.718340E-1	9.052527E-1	8.845889E-1	8.564442E-1	9.264939E-1	8.497769E-1	8.819534E-1	8.734600E-1	9.095239E-1	8.514335E-1	9.166996E-1	8.784008E-1	8.786925E-1	8.973834E-1	9.475394E-1	9.025357E-1	8.861626E-1	9.839612E-1	9.244752E-1	8.987538E-1	8.766948E-1	8.894085E-1	9.023896E-1	8.968239E-1	8.416883E-1	8.839085E-1	8.817309E-1	8.585584E-1	8.660411E-1	8.415581E-1	8.545630E-1	8.342260E-1	8.511704E-1	9.024274E-1	8.986491E-1	8.972930E-1	8.855889E-1	7.441288E-1	9.417664E-1	8.954446E-1	9.271047E-1
2.955070E+2	1.222529E+0	1.095883E+0	1.143428E+0	1.105087E+0	1.034845E+0	1.133195E+0	1.008016E+0	1.162189E+0	1.080314E+0	1.095875E+0	1.127842E+0	1.124033E+0	1.096091E+0	1.135701E+0	1.138524E+0	1.137874E+0	1.082520E+0	1.144883E+0	1.044484E+0	1.125641E+0	1.108569E+0	1.133269E+0	1.102423E+0	1.125511E+0	1.105455E+0	1.142390E+0	1.104551E+0	1.066396E+0	1.128512E+0	1.088476E+0	1.062059E+0	1.078854E+0	1.141588E+0	1.113128E+0	1.114719E+0	1.092268E+0	1.076177E+0	1.161870E+0	1.134716E+0	1.158619E+0	1.147290E+0	1.138957E+0	1.107411E+0	1.075999E+0	1.125856E+0	1.157272E+0	1.090691E+0	1.041972E+0	1.199895E+0	1.117939E+0	1.136706E+0	1.062355E+0	1.098851E+0	1.111198E+0	1.061990E+0	1.155654E+0	1.137780E+0	1.116369E+0	1.188568E+0	1.117680E+0	1.115625E+0	1.112493E+0	1.078683E+0	1.116875E+0	1.064530E+0	1.106967E+0	1.132148E+0	1.038080E+0	1.075139E+0	1.157167E+0	1.041034E+0	1.105588E+0	1.089808E+0	1.125805E+0	1.093217E+0	1.086703E+0	1.057458E+0	1.048482E+0	1.060612E+0	1.043540E+0	1.128124E+0	1.081754E+0	1.118524E+0	1.089370E+0	1.058880E+0	1.064173E+0	1.177376E+0	1.079613E+0	1.178767E+0	1.092903E+0	1.051736E+0	1.067507E+0	1.145917E+0	1.127663E+0	1.103788E+0	1.099973E+0	1.144466E+0	1.125742E+0	1.139328E+0	1.061820E+0	1.112862E+0	1.146971E+0	1.129391E+0	1.045479E+0	1.088136E+0	1.116920E+0	1.045338E+0	1.091920E+0	1.125824E+0	1.067092E+0	1.122944E+0	1.124781E+0	1.121780E+0	1.125167E+0	1.142133E+0	1.001381E+0	1.181173E+0	1.077952E+0	1.103905E+0	1.107249E+0	1.063669E+0	1.164671E+0	1.159624E+0	1.137742E+0	1.083830E+0	1.048352E+0	1.139058E+0	1.111608E+0	1.045070E+0	1.138791E+0	1.048648E+0	1.116353E+0	1.096635E+0	1.111699E+0	1.085850E+0	1.116861E+0	1.091621E+0	1.117314E+0	1.080629E+0	1.071717E+0	1.106463E+0	1.226479E+0	1.078065E+0	1.143618E+0	1.156599E+0	1.154413E+0	1.131034E+0	1.115828E+0	1.083392E+0	1.122867E+0	1.061362E+0	1.168795E+0	1.050074E+0	1.065061E+0	1.129055E+0	1.060884E+0	1.080318E+0	1.072368E+0	1.165459E+0	1.123907E+0	1.081040E+0	1.057953E+0	1.160593E+0	1.184780E+0	1.080887E+0	1.134674E+0	1.023495E+0	1.063853E+0	1.113709E+0	1.073117E+0
2.960050E+2	1.203594E+0	1.123639E+0	1.193028E+0	1.248295E+0	1.121533E+0	1.228436E+0	1.165947E+0	1.185951E+0	1.177425E+0	1.207063E+0	1.180037E+0	1.237549E+0	1.178005E+0	1.199012E+0	1.157970E+0	1.154992E+0	1.213196E+0	1.260283E+0	1.171882E+0	1.181157E+0	1.182056E+0	1.102945E+0	1.151506E+0	1.177927E+0	1.136858E+0	1.195721E+0	1.113370E+0	1.195762E+0	1.224651E+0	1.204293E+0	1.139375E+0	1.149984E+0	1.203861E+0	1.183953E+0	1.195980E+0	1.057889E+0	1.122711E+0	1.177694E+0	1.221493E+0	1.159483E+0	1.196440E+0	1.244807E+0	1.214053E+0	1.119942E+0	1.175565E+0	1.152052E+0	1.172929E+0	1.201253E+0	1.216924E+0	1.260265E+0	1.225050E+0	1.154438E+0	1.153967E+0	1.187420E+0	1.172878E+0	1.195973E+0	1.151031E+0	1.255822E+0	1.169755E+0	1.138279E+0	1.172416E+0	1.172077E+0	1.186269E+0	1.129040E+0	1.164562E+0	1.159316E+0	1.237764E+0	1.205944E+0	1.168906E+0	1.250082E+0	1.089823E+0	1.152824E+0	1.217219E+0	1.191253E+0	1.166773E+0	1.190039E+0	1.167513E+0	1.147500E+0	1.208220E+0	1.204740E+0	1.172347E+0	1.172920E+0	1.188276E+0	1.113451E+0	1.169133E+0	1.220944E+0	1.210918E+0	1.292581E+0	1.153536E+0	1.167684E+0	1.150617E+0	1.163900E+0	1.122626E+0	1.188175E+0	1.160319E+0	1.170810E+0	1.160075E+0	1.206438E+0	1.161779E+0	1.229517E+0	1.229158E+0	1.258881E+0	1.127675E+0	1.199026E+0	1.128099E+0	1.193702E+0	1.244576E+0	1.224699E+0	1.201727E+0	1.147059E+0	1.219125E+0	1.214164E+0	1.111749E+0	1.220389E+0	1.218053E+0	1.182286E+0	1.206767E+0	1.214485E+0	1.170867E+0	1.202801E+0	1.242211E+0	1.225766E+0	1.135153E+0	1.118454E+0	1.147754E+0	1.232816E+0	1.286397E+0	1.163238E+0	1.197106E+0	1.104059E+0	1.183555E+0	1.195403E+0	1.111787E+0	1.148639E+0	1.147940E+0	1.145224E+0	1.248042E+0	1.143619E+0	1.130817E+0	1.160225E+0	1.197307E+0	1.113681E+0	1.136882E+0	1.231253E+0	1.193733E+0	1.161137E+0	1.083531E+0	1.098367E+0	1.116909E+0	1.269876E+0	1.136842E+0	1.208572E+0	1.172866E+0	1.127866E+0	1.115199E+0	1.143681E+0	1.172129E+0	1.166468E+0	1.185573E+0	1.202258E+0	1.152909E+0	1.159427E+0	1.184740E+0	1.122074E+0	1.116025E+0	1.209074E+0	1.203180E+0	1.267508E+0	1.060546E+0	1.123800E+0
2.965070E+2	1.135564E+0	1.165464E+0	1.165548E+0	1.125370E+0	1.150737E+0	1.224319E+0	1.161932E+0	1.211114E+0	1.261422E+0	1.200945E+0	1.140073E+0	1.160083E+0	1.161533E+0	1.245550E+0	1.156748E+0	1.164121E+0	1.061798E+0	1.168427E+0	1.245856E+0	1.218282E+0	1.111695E+0	1.188716E+0	1.171869E+0	1.210798E+0	1.201769E+0	1.152396E+0	1.120977E+0	1.119296E+0	1.118377E+0	1.211832E+0	1.115742E+0	1.227890E+0	1.118714E+0	1.177892E+0	1.174167E+0	1.140075E+0	1.075112E+0	1.168901E+0	1.180901E+0	1.240717E+0	1.208665E+0	1.290031E+0	1.129106E+0	1.070901E+0	1.206087E+0	1.202157E+0	1.143945E+0	1.185603E+0	1.187937E+0	1.112517E+0	1.183499E+0	1.151175E+0	1.155410E+0	1.124106E+0	1.200848E+0	1.285235E+0	1.187549E+0	1.269997E+0	1.094881E+0	1.202463E+0	1.197953E+0	1.188099E+0	1.135333E+0	1.205146E+0	1.161378E+0	1.256999E+0	1.243804E+0	1.111729E+0	1.135416E+0	1.226854E+0	1.187437E+0	1.230390E+0	1.186962E+0	1.123461E+0	1.099167E+0	1.138807E+0	1.234315E+0	1.182056E+0	1.162054E+0	1.135242E+0	1.190501E+0	1.166772E+0	1.159595E+0	1.274685E+0	1.184628E+0	1.125769E+0	1.143259E+0	1.195936E+0	1.181048E+0	1.100188E+0	1.167085E+0	1.152936E+0	1.232865E+0	1.188544E+0	1.207067E+0	1.194947E+0	1.215077E+0	1.196502E+0	1.197430E+0	1.167069E+0	1.207320E+0	1.245279E+0	1.167613E+0	1.130757E+0	1.170135E+0	1.182322E+0	1.144075E+0	1.105209E+0	1.222235E+0	1.129139E+0	1.203116E+0	1.192779E+0	1.164579E+0	1.226553E+0	1.222203E+0	1.141032E+0	1.241912E+0	1.153844E+0	1.213926E+0	1.160574E+0	1.162271E+0	1.161213E+0	1.155826E+0	1.150640E+0	1.182729E+0	1.137836E+0	1.175293E+0	1.123083E+0	1.170177E+0	1.187481E+0	1.171350E+0	1.153019E+0	1.159759E+0	1.166219E+0	1.056831E+0	1.207955E+0	1.189372E+0	1.201907E+0	1.125113E+0	1.164248E+0	1.191275E+0	1.237771E+0	1.176712E+0	1.205838E+0	1.212304E+0	1.118242E+0	1.170294E+0	1.132379E+0	1.093793E+0	1.173514E+0	1.172851E+0	1.224003E+0	1.210504E+0	1.139633E+0	1.116770E+0	1.163770E+0	1.135102E+0	1.202328E+0	1.229740E+0	1.195579E+0	1.217045E+0	1.135306E+0	1.218755E+0	1.165862E+0	1.159761E+0	1.227866E+0	1.204528E+0	1.145364E+0	1.164617E+0	1.211974E+0
2.970040E+2	1.162467E+0	1.159134E+0	1.211198E+0	1.129264E+0	1.154893E+0	1.221836E+0	1.167673E+0	1.121553E+0	1.140158E+0	1.162121E+0	1.119170E+0	1.216946E+0	1.110601E+0	1.172310E+0	1.185827E+0	1.200038E+0	1.197321E+0	1.184790E+0	1.180968E+0	1.244850E+0	1.285631E+0	1.119383E+0	1.130773E+0	1.051250E+0	1.162318E+0	1.215079E+0	1.219202E+0	1.161361E+0	1.167937E+0	1.194008E+0	1.186001E+0	1.195802E+0	1.206129E+0	1.157748E+0	1.195441E+0	1.177239E+0	1.122279E+0	1.127777E+0	1.262700E+0	1.192419E+0	1.238076E+0	1.190037E+0	1.233337E+0	1.193267E+0	1.163682E+0	1.202260E+0	1.172965E+0	1.220728E+0	1.269218E+0	1.187123E+0	1.221759E+0	1.124639E+0	1.142031E+0	1.115323E+0	1.213620E+0	1.178491E+0	1.168847E+0	1.178890E+0	1.157489E+0	1.228999E+0	1.223460E+0	1.136565E+0	1.153190E+0	1.158076E+0	1.179154E+0	1.184249E+0	1.211569E+0	1.113857E+0	1.179129E+0	1.228040E+0	1.134143E+0	1.058642E+0	1.152951E+0	1.125358E+0	1.192608E+0	1.110941E+0	1.123607E+0	1.227860E+0	1.249323E+0	1.141967E+0	1.167078E+0	1.150048E+0	1.223242E+0	1.166224E+0	1.124607E+0	1.110539E+0	1.184966E+0	1.135490E+0	1.192078E+0	1.115184E+0	1.142868E+0	1.169975E+0	1.099714E+0	1.181427E+0	1.123155E+0	1.245942E+0	1.166069E+0	1.114383E+0	1.158273E+0	1.119153E+0	1.185261E+0	1.247467E+0	1.146824E+0	1.205249E+0	1.176550E+0	1.209565E+0	1.176855E+0	1.100931E+0	1.248653E+0	1.134986E+0	1.159371E+0	1.196466E+0	1.197083E+0	1.226029E+0	1.229140E+0	1.128751E+0	1.229236E+0	1.198987E+0	1.159104E+0	1.151892E+0	1.216774E+0	1.213578E+0	1.220060E+0	1.219645E+0	1.167751E+0	1.159112E+0	1.225923E+0	1.210540E+0	1.187324E+0	1.214589E+0	1.167099E+0	1.124991E+0	1.233195E+0	1.221234E+0	1.172467E+0	1.210022E+0	1.155629E+0	1.105562E+0	1.069360E+0	1.168149E+0	1.229162E+0	1.231234E+0	1.097776E+0	1.197219E+0	1.200418E+0	1.096686E+0	1.204217E+0	1.158967E+0	1.190501E+0	1.207726E+0	1.226428E+0	1.198550E+0	1.189071E+0	1.114994E+0	1.101515E+0	1.137317E+0	1.122662E+0	1.158185E+0	1.180969E+0	1.140712E+0	1.270206E+0	1.150385E+0	1.186567E+0	1.165254E+0	1.191708E+0	1.178205E+0	1.171343E+0	1.264565E+0	1.150437E+0	1.134240E+0
2.975020E+2	1.002795E+0	9.548323E-1	9.749179E-1	1.044795E+0	9.315684E-1	9.347566E-1	9.758018E-1	9.994795E-1	1.039413E+0	1.009851E+0	9.869029E-1	9.092281E-1	9.456964E-1	1.010490E+0	9.492405E-1	9.901657E-1	1.006062E+0	9.917624E-1	9.153763E-1	9.761033E-1	9.519312E-1	9.684573E-1	9.989920E-1	1.014052E+0	9.993964E-1	9.722494E-1	9.113967E-1	9.959757E-1	9.400358E-1	9.220000E-1	9.350820E-1	1.021589E+0	9.922993E-1	9.222755E-1	9.671367E-1	9.435536E-1	1.004161E+0	1.014999E+0	9.534021E-1	9.552802E-1	9.619024E-1	9.510244E-1	9.419486E-1	9.139676E-1	9.336100E-1	9.643535E-1	9.588325E-1	1.003479E+0	9.621230E-1	9.849028E-1	9.489499E-1	9.313290E-1	9.879420E-1	9.863615E-1	9.163404E-1	9.902162E-1	9.612259E-1	1.007566E+0	9.393848E-1	9.441120E-1	1.005202E+0	9.578973E-1	9.513851E-1	9.768724E-1	9.822010E-1	9.575609E-1	1.018625E+0	1.000060E+0	9.948240E-1	9.170090E-1	9.974765E-1	9.334342E-1	9.886807E-1	1.036387E+0	9.414114E-1	9.545939E-1	9.425851E-1	9.091978E-1	8.939615E-1	9.883242E-1	9.687977E-1	9.870699E-1	9.079300E-1	9.848869E-1	9.667187E-1	9.690635E-1	1.017213E+0	9.816503E-1	9.704999E-1	9.995660E-1	9.529833E-1	1.009319E+0	9.795972E-1	9.296729E-1	9.465517E-1	9.496667E-1	1.010438E+0	9.848382E-1	1.012777E+0	1.016412E+0	9.544829E-1	9.953139E-1	9.682086E-1	9.409194E-1	9.348684E-1	1.009318E+0	9.759449E-1	9.890050E-1	9.795914E-1	9.500926E-1	9.360970E-1	9.770625E-1	9.598764E-1	9.580885E-1	9.969706E-1	9.634446E-1	9.905723E-1	9.509735E-1	9.531836E-1	9.446267E-1	1.008811E+0	9.522833E-1	9.457587E-1	9.846611E-1	9.889794E-1	9.595885E-1	9.478684E-1	9.266145E-1	9.945671E-1	1.003308E+0	9.857092E-1	9.520009E-1	9.692095E-1	9.464669E-1	9.483971E-1	9.657805E-1	9.420786E-1	9.555182E-1	1.016961E+0	1.000913E+0	9.580948E-1	9.699137E-1	1.023555E+0	9.860026E-1	9.896843E-1	1.033022E+0	9.871944E-1	9.396510E-1	9.869985E-1	9.731995E-1	1.002505E+0	9.681644E-1	9.808485E-1	1.006165E+0	9.829137E-1	9.325276E-1	9.462051E-1	9.297186E-1	1.006246E+0	1.027523E+0	9.942131E-1	9.185165E-1	1.016620E+0	9.794296E-1	9.486060E-1	9.366507E-1	9.537412E-1	9.915507E-1	1.020336E+0	8.793176E-1
2.980040E+2	1.055506E+0	1.045235E+0	1.039487E+0	1.054760E+0	1.070503E+0	1.029177E+0	1.048181E+0	1.121949E+0	1.014014E+0	1.062302E+0	1.056807E+0	1.026894E+0	1.015102E+0	1.030738E+0	1.058162E+0	1.020964E+0	1.004200E+0	1.004779E+0	1.050649E+0	1.009346E+0	1.037064E+0	1.017574E+0	1.057714E+0	1.010996E+0	1.031923E+0	9.979895E-1	1.041597E+0	1.006974E+0	1.070049E+0	1.029419E+0	1.008506E+0	1.015352E+0	1.051395E+0	1.030786E+0	1.029339E+0	1.051590E+0	1.020308E+0	1.059275E+0	1.025568E+0	1.010038E+0	1.008732E+0	1.054450E+0	1.024316E+0	1.098153E+0	1.061640E+0	1.023380E+0	1.035044E+0	1.033483E+0	1.039109E+0	1.091384E+0	1.057636E+0	1.072890E+0	1.017959E+0	1.012459E+0	1.033579E+0	1.002713E+0	1.068901E+0	1.054406E+0	1.093475E+0	9.822908E-1	1.061147E+0	1.080575E+0	1.094154E+0	1.009606E+0	1.085217E+0	1.033679E+0	1.079716E+0	1.036557E+0	1.053381E+0	1.063920E+0	1.050703E+0	1.010045E+0	9.908672E-1	1.034702E+0	1.016592E+0	1.030271E+0	1.083305E+0	1.016050E+0	9.983558E-1	1.001887E+0	1.073917E+0	1.017512E+0	1.039321E+0	1.071451E+0	1.084468E+0	1.017733E+0	1.095376E+0	1.063731E+0	9.985968E-1	9.865148E-1	1.060734E+0	1.004369E+0	1.040710E+0	1.032002E+0	1.044696E+0	1.120466E+0	1.024213E+0	1.043978E+0	1.001739E+0	1.007535E+0	9.958043E-1	9.784519E-1	9.897548E-1	1.073106E+0	1.014632E+0	1.047016E+0	1.037186E+0	1.009158E+0	1.084854E+0	9.974174E-1	1.042449E+0	1.064652E+0	1.049838E+0	1.072580E+0	1.039249E+0	1.021858E+0	1.010328E+0	1.028887E+0	1.006797E+0	1.020137E+0	1.053648E+0	1.047687E+0	9.944523E-1	1.008704E+0	1.017398E+0	9.951342E-1	1.055154E+0	1.018657E+0	1.049784E+0	1.043008E+0	1.063358E+0	1.018755E+0	1.098874E+0	1.053944E+0	9.905320E-1	1.026619E+0	9.850391E-1	1.028847E+0	1.024497E+0	1.016377E+0	1.009569E+0	1.055937E+0	1.034913E+0	1.021949E+0	1.003430E+0	1.044353E+0	1.028274E+0	9.964332E-1	1.020042E+0	1.030448E+0	9.901129E-1	1.035156E+0	1.017177E+0	1.045467E+0	1.050084E+0	9.958033E-1	1.014849E+0	1.037761E+0	1.075491E+0	1.051392E+0	1.020632E+0	1.068256E+0	9.915995E-1	1.046747E+0	1.071129E+0	1.097792E+0	1.044187E+0	9.812779E-1	1.079931E+0	1.021450E+0
2.985020E+2	1.033236E+0	1.057207E+0	1.001918E+0	1.063472E+0	1.014907E+0	1.059943E+0	1.036647E+0	1.041634E+0	9.977935E-1	1.004864E+0	9.777324E-1	1.088331E+0	1.068565E+0	1.045540E+0	1.040692E+0	1.005500E+0	1.073612E+0	9.907484E-1	1.042829E+0	1.020497E+0	1.007337E+0	9.846574E-1	9.860959E-1	1.049088E+0	1.081874E+0	1.015831E+0	1.012764E+0	1.077092E+0	1.051059E+0	1.043677E+0	1.070346E+0	9.779428E-1	1.034491E+0	1.061165E+0	1.092954E+0	1.063503E+0	1.039472E+0	1.036247E+0	9.953942E-1	1.003797E+0	1.084869E+0	1.097488E+0	1.047442E+0	9.970360E-1	1.058510E+0	1.062161E+0	1.072592E+0	9.746711E-1	1.030013E+0	1.018739E+0	1.110529E+0	1.052163E+0	1.086094E+0	9.987399E-1	1.092214E+0	1.021916E+0	1.003267E+0	1.043345E+0	9.867500E-1	1.076636E+0	9.804898E-1	1.030457E+0	1.018992E+0	1.061674E+0	1.020710E+0	1.095974E+0	1.016554E+0	1.020041E+0	1.060458E+0	1.074764E+0	1.018145E+0	1.083286E+0	9.888073E-1	1.035427E+0	1.053361E+0	1.026724E+0	1.033915E+0	1.103885E+0	1.082215E+0	1.065098E+0	9.861514E-1	9.915490E-1	1.065236E+0	1.033108E+0	1.044987E+0	1.091654E+0	9.992356E-1	1.003789E+0	1.064386E+0	1.080607E+0	1.042417E+0	1.001192E+0	1.012121E+0	1.038535E+0	1.023727E+0	1.040203E+0	1.021958E+0	1.036867E+0	9.724032E-1	1.067322E+0	1.060897E+0	1.058784E+0	1.043391E+0	1.017890E+0	1.030279E+0	1.030536E+0	1.070024E+0	1.038724E+0	1.060391E+0	1.008695E+0	1.037628E+0	1.033184E+0	1.026232E+0	1.042668E+0	1.067017E+0	1.075508E+0	1.041985E+0	1.088720E+0	1.036151E+0	1.004590E+0	1.073112E+0	1.053017E+0	1.079441E+0	1.054984E+0	1.033676E+0	1.047191E+0	1.000612E+0	1.078805E+0	1.023123E+0	1.074808E+0	1.019704E+0	1.057358E+0	1.079118E+0	1.011440E+0	1.045949E+0	1.061784E+0	1.024677E+0	1.040582E+0	1.024666E+0	1.104690E+0	1.098113E+0	1.004928E+0	1.057851E+0	1.087853E+0	1.050601E+0	9.776965E-1	1.054361E+0	1.129759E+0	1.029545E+0	1.024369E+0	1.025177E+0	1.094986E+0	1.065223E+0	1.061936E+0	1.029635E+0	1.049926E+0	1.066092E+0	1.086256E+0	1.068730E+0	1.020388E+0	1.065182E+0	1.039604E+0	1.009592E+0	1.072144E+0	1.038587E+0	1.061352E+0	1.056319E+0	1.006293E+0	9.945316E-1	1.050858E+0
2.990020E+2	1.010838E+0	1.068057E+0	1.171942E+0	1.003477E+0	1.080214E+0	1.079530E+0	1.088293E+0	9.797041E-1	1.057403E+0	1.094281E+0	1.073682E+0	1.080917E+0	1.107211E+0	1.044940E+0	1.063300E+0	1.071850E+0	1.065061E+0	1.040535E+0	1.102294E+0	1.072467E+0	1.079313E+0	1.099775E+0	1.035564E+0	1.061732E+0	1.026451E+0	1.098466E+0	1.039990E+0	1.032728E+0	1.074302E+0	1.047372E+0	1.095695E+0	1.078498E+0	1.105963E+0	1.053203E+0	1.041309E+0	1.083724E+0	1.015563E+0	1.018863E+0	1.054883E+0	1.070975E+0	1.070887E+0	1.045761E+0	1.053415E+0	1.088961E+0	1.077354E+0	1.107284E+0	1.073088E+0	1.079833E+0	1.086365E+0	1.051032E+0	1.013644E+0	1.076113E+0	1.024336E+0	1.149809E+0	1.069597E+0	1.083552E+0	1.083527E+0	1.102354E+0	1.065281E+0	1.101685E+0	1.045979E+0	1.049104E+0	1.069572E+0	1.041343E+0	1.018712E+0	1.042343E+0	1.053156E+0	1.063062E+0	1.039560E+0	1.072917E+0	1.066663E+0	1.108482E+0	1.055093E+0	1.048633E+0	1.066132E+0	1.051878E+0	1.039714E+0	1.061624E+0	1.096937E+0	1.061587E+0	1.074726E+0	1.079012E+0	1.094421E+0	1.013844E+0	1.044817E+0	9.974910E-1	1.027369E+0	1.067229E+0	1.028136E+0	1.049877E+0	1.039123E+0	1.065664E+0	1.045524E+0	1.099262E+0	1.054231E+0	1.052962E+0	1.039474E+0	1.087845E+0	1.083576E+0	1.098713E+0	1.052279E+0	1.063227E+0	1.094317E+0	1.105387E+0	1.089950E+0	1.044117E+0	1.071425E+0	1.098480E+0	1.026182E+0	1.094783E+0	1.045109E+0	1.018335E+0	1.088669E+0	1.084066E+0	1.036289E+0	1.064913E+0	1.030522E+0	1.021344E+0	1.122821E+0	1.093446E+0	9.850795E-1	1.024444E+0	1.064644E+0	1.047239E+0	1.033425E+0	1.088424E+0	1.116102E+0	1.023014E+0	9.935809E-1	1.022326E+0	1.078318E+0	1.026290E+0	1.048403E+0	1.128124E+0	1.068660E+0	1.047561E+0	1.044789E+0	1.083288E+0	1.038076E+0	9.830501E-1	1.096272E+0	1.068968E+0	1.041622E+0	1.019521E+0	1.035353E+0	1.115044E+0	1.038697E+0	9.878112E-1	1.079120E+0	1.047701E+0	1.086012E+0	1.048762E+0	1.082353E+0	1.009553E+0	1.069567E+0	1.070785E+0	1.116281E+0	1.054921E+0	1.055728E+0	1.035676E+0	1.049591E+0	1.061792E+0	1.077753E+0	1.094374E+0	1.028867E+0	1.067770E+0	1.065738E+0	1.071066E+0	1.063098E+0	1.122211E+0
2.995040E+2	9.760816E-1	1.039352E+0	9.819375E-1	9.882271E-1	1.001926E+0	1.054029E+0	1.023004E+0	9.961874E-1	1.011990E+0	9.618764E-1	1.005273E+0	1.020441E+0	9.946262E-1	1.012260E+0	1.042841E+0	1.011794E+0	1.018508E+0	1.075992E+0	1.034003E+0	1.062698E+0	1.026335E+0	1.004966E+0	1.020356E+0	9.381591E-1	1.017488E+0	1.041715E+0	1.086356E+0	1.026649E+0	9.986854E-1	1.072303E+0	1.042365E+0	1.022043E+0	9.906024E-1	1.073103E+0	9.838098E-1	1.056806E+0	9.896953E-1	1.016062E+0	1.043429E+0	1.034236E+0	1.024593E+0	1.073827E+0	1.080348E+0	1.007880E+0	1.007059E+0	1.011173E+0	9.907401E-1	1.044403E+0	9.659116E-1	9.688670E-1	9.528468E-1	9.847526E-1	1.022976E+0	1.031108E+0	9.905049E-1	1.029514E+0	1.024776E+0	9.808814E-1	1.027667E+0	9.965410E-1	1.027169E+0	1.020483E+0	1.029670E+0	1.009065E+0	1.030415E+0	1.014466E+0	9.874510E-1	1.012937E+0	1.019950E+0	1.031133E+0	1.006334E+0	9.952580E-1	1.068193E+0	9.462438E-1	1.063113E+0	1.054576E+0	1.007558E+0	1.014196E+0	1.008322E+0	1.037685E+0	1.006140E+0	1.010944E+0	1.017731E+0	1.018955E+0	9.575267E-1	1.041583E+0	9.724658E-1	1.016395E+0	1.069921E+0	1.037131E+0	1.039283E+0	1.067249E+0	1.032173E+0	1.046328E+0	1.024467E+0	9.647490E-1	1.028339E+0	9.911579E-1	1.025107E+0	1.006796E+0	1.020174E+0	1.028538E+0	1.042648E+0	9.844122E-1	1.075345E+0	1.003489E+0	9.849192E-1	9.645989E-1	9.664411E-1	1.049544E+0	1.048176E+0	1.080761E+0	9.843981E-1	1.007284E+0	9.882898E-1	1.033423E+0	1.066158E+0	1.012047E+0	9.986940E-1	1.068943E+0	9.842000E-1	1.000472E+0	1.078548E+0	1.009219E+0	1.032936E+0	1.048932E+0	1.001721E+0	9.944073E-1	1.086242E+0	1.018429E+0	9.878837E-1	1.040669E+0	9.613927E-1	1.022974E+0	1.038375E+0	1.006948E+0	1.049013E+0	1.004914E+0	1.028611E+0	1.063557E+0	9.606997E-1	1.061679E+0	9.872891E-1	9.623992E-1	1.027055E+0	9.689752E-1	1.007317E+0	1.036282E+0	1.009885E+0	9.778406E-1	1.068604E+0	1.016948E+0	1.008235E+0	9.969304E-1	1.009827E+0	1.071463E+0	9.723684E-1	1.056587E+0	9.598293E-1	1.009946E+0	1.006324E+0	1.000784E+0	9.905531E-1	1.001333E+0	1.018236E+0	9.778110E-1	9.746978E-1	1.046779E+0	9.269634E-1	1.025336E+0
3.000060E+2	9.215443E-1	8.353170E-1	8.297983E-1	8.452688E-1	9.008813E-1	8.425638E-1	8.280730E-1	8.610463E-1	8.793873E-1	8.668263E-1	8.996025E-1	8.741889E-1	8.687988E-1	8.560322E-1	8.457639E-1	8.997271E-1	8.325576E-1	8.961836E-1	8.548492E-1	8.588872E-1	8.980198E-1	9.245699E-1	9.012788E-1	9.259730E-1	8.428677E-1	8.737493E-1	9.078969E-1	8.605816E-1	8.658687E-1	8.852298E-1	8.480054E-1	8.845758E-1	8.252498E-1	8.594673E-1	8.854512E-1	8.008232E-1	9.308011E-1	8.545549E-1	9.273237E-1	9.256739E-1	8.490164E-1	7.774485E-1	8.525301E-1	8.940024E-1	8.618272E-1	8.316482E-1	8.697030E-1	8.641316E-1	9.164784E-1	8.850754E-1	9.163944E-1	8.827527E-1	8.606936E-1	8.215218E-1	8.977649E-1	8.720883E-1	8.583035E-1	8.114483E-1	8.874417E-1	8.987350E-1	8.800123E-1	8.614834E-1	8.362262E-1	9.014391E-1	8.627451E-1	8.559759E-1	8.444980E-1	8.673434E-1	8.318268E-1	8.402577E-1	8.606787E-1	8.694951E-1	9.083584E-1	8.986080E-1	8.593911E-1	8.819575E-1	8.929223E-1	8.950463E-1	9.202089E-1	8.454182E-1	8.902691E-1	9.139131E-1	8.753609E-1	8.777556E-1	9.014825E-1	8.824758E-1	8.883406E-1	8.672055E-1	8.684602E-1	8.463046E-1	8.654594E-1	8.522063E-1	8.898748E-1	8.542016E-1	9.063281E-1	8.719536E-1	8.755776E-1	8.553135E-1	9.043965E-1	8.032222E-1	9.163624E-1	8.756845E-1	8.616809E-1	8.782849E-1	8.549242E-1	8.655246E-1	8.605007E-1	9.000340E-1	8.825399E-1	8.994672E-1	8.905409E-1	8.260053E-1	8.909871E-1	8.353135E-1	8.721854E-1	8.408533E-1	8.604354E-1	8.980276E-1	8.823533E-1	8.682580E-1	8.951492E-1	9.220957E-1	8.371562E-1	8.951928E-1	8.935858E-1	8.607315E-1	8.785426E-1	9.585016E-1	8.527032E-1	8.381207E-1	8.650283E-1	9.049270E-1	8.430025E-1	8.370515E-1	9.080880E-1	8.913073E-1	9.544029E-1	8.868505E-1	8.671883E-1	8.314129E-1	8.772518E-1	8.385746E-1	8.547694E-1	9.222752E-1	8.938771E-1	8.609100E-1	8.841560E-1	9.100633E-1	8.744088E-1	9.464413E-1	8.275890E-1	8.359837E-1	8.461630E-1	8.799493E-1	8.579735E-1	8.794953E-1	8.842034E-1	8.347574E-1	8.339748E-1	8.550746E-1	8.640580E-1	9.110465E-1	9.138821E-1	8.059729E-1	8.945754E-1	8.586239E-1	9.053162E-1	9.030341E-1	9.151410E-1	9.008267E-1
