Photon Energy (eV)	#1	#2	#3	#4	#5	#6	#7	#8	#9	#10	#11	#12	#13	#14	#15	#16	#17	#18	#19	#20	#21	#22	#23	#24	#25	#26	#27	#28	#29	#30	#31	#32	#33	#34	#35	#36	#37	#38	#39	#40	#41	#42	#43	#44	#45	#46	#47	#48	#49	#50	#51	#52	#53	#54	#55	#56	#57	#58	#59	#60	#61	#62	#63	#64	#65	#66	#67	#68	#69	#70	#71	#72	#73	#74	#75	#76	#77	#78	#79	#80	#81	#82	#83	#84	#85	#86	#87	#88	#89	#90	#91	#92	#93	#94	#95	#96	#97	#98	#99	#100	#101	#102	#103	#104	#105	#106	#107	#108	#109	#110	#111	#112	#113	#114	#115	#116	#117	#118	#119	#120	#121	#122	#123	#124	#125	#126	#127	#128	#129	#130	#131	#132	#133	#134	#135	#136	#137	#138	#139	#140	#141	#142	#143	#144	#145	#146	#147	#148	#149	#150	#151	#152	#153	#154	#155	#156	#157	#158	#159	#160	#161	#162	#163	#164	#165	#166	#167	#168	#169	#170	
2.790040E+2	-2.746999E-3	-1.174070E-2	1.679802E-3	-6.975322E-3	5.156262E-3	6.448670E-4	-3.968449E-3	-9.937743E-3	9.187446E-3	-6.252271E-3	-2.406036E-3	2.124943E-3	-4.080167E-3	6.323129E-3	-2.479268E-3	6.870887E-4	-2.084218E-3	-3.537307E-3	-8.118444E-3	-1.974700E-2	-2.251301E-2	-1.071896E-2	-1.866814E-2	-7.530084E-3	-1.059386E-2	-1.689859E-2	1.445359E-2	-3.852231E-3	-2.956787E-2	-4.634346E-3	-1.604689E-2	-2.926564E-2	7.707516E-3	-4.984492E-3	3.188696E-4	-1.132694E-2	-1.020063E-2	2.641029E-3	-1.461307E-2	2.768623E-3	-1.637838E-2	8.802218E-3	-2.349548E-3	-1.744803E-2	-1.249188E-2	-1.200822E-2	-1.957023E-2	-1.035331E-2	-1.136795E-2	-1.136602E-3	-7.045195E-3	-1.060384E-2	4.598460E-3	1.263283E-2	1.214785E-2	-8.180363E-3	8.151501E-3	-8.504462E-3	-8.380006E-3	2.836112E-3	-1.839097E-2	-2.499752E-3	2.522306E-3	-1.345348E-2	-7.872222E-3	-4.024045E-3	-3.991673E-3	-1.570749E-2	-1.339727E-2	-1.617229E-2	3.292458E-4	-9.226620E-3	-3.820438E-3	-2.115101E-3	-2.808882E-2	2.515272E-3	-5.094826E-3	7.188930E-3	-2.133782E-2	2.545874E-4	-3.183370E-3	4.625484E-3	-9.686070E-4	-2.321607E-3	-9.787869E-3	5.078371E-3	-1.292246E-2	1.909433E-2	-9.351565E-3	-8.934429E-3	-4.208133E-3	8.826315E-3	-7.872393E-3	7.260458E-3	2.466000E-3	2.056476E-3	-9.144395E-3	-3.246087E-2	-1.850320E-2	-7.745336E-3	2.303354E-4	-3.713025E-3	-1.172527E-2	-1.760437E-2	-3.606589E-3	-4.635180E-3	7.359145E-3	3.062369E-3	-1.040209E-2	2.149912E-3	-7.090136E-3	7.200664E-3	-1.640804E-3	-2.169071E-2	8.419605E-3	6.632647E-3	-4.812695E-3	-9.214826E-3	5.001878E-3	-3.504143E-3	-1.386605E-3	-1.214424E-2	-1.119677E-2	-1.759830E-2	-1.137659E-2	-9.031702E-3	-4.547166E-4	-8.520960E-3	-9.597095E-3	-9.589166E-3	-2.432220E-2	-3.997785E-3	4.587339E-3	-1.505598E-2	-5.095472E-3	6.644318E-3	-9.066129E-3	-2.515315E-3	6.812186E-3	-3.812858E-3	4.688375E-3	-1.243032E-2	5.290756E-3	-2.336043E-3	-2.431242E-2	-2.791047E-2	6.570986E-3	1.497339E-2	-2.285675E-2	5.239962E-3	-1.143459E-2	-1.543157E-2	-1.111485E-3	-1.365288E-2	-8.078341E-3	-2.472157E-3	-1.996550E-2	1.139948E-2	1.978111E-3	1.631589E-5	4.725046E-3	-1.005015E-2	-4.309661E-3	1.032494E-3	-2.052677E-2	-1.234305E-2	-2.552025E-2	-1.754212E-2	-4.607312E-3	-2.423207E-2
2.795020E+2	-1.650097E-2	7.847929E-3	1.883721E-2	-5.116953E-3	-9.537432E-4	-7.014195E-3	6.515739E-3	-1.510949E-3	-9.336611E-3	-1.372719E-3	-5.897192E-4	-1.203229E-2	-8.730916E-3	-1.130363E-2	-1.155335E-2	-3.402218E-3	-3.568801E-4	1.492412E-2	-1.605472E-2	1.446127E-2	-1.632679E-2	9.893170E-3	-5.565447E-3	4.563282E-3	-6.978273E-3	1.796264E-3	-2.806530E-3	-3.702251E-3	3.805596E-3	-7.627245E-3	1.912367E-2	-1.693109E-3	-4.997075E-3	-9.730352E-3	-1.234436E-3	3.102455E-3	4.076274E-3	-7.038568E-3	3.148254E-3	-2.194209E-2	2.530890E-3	5.854698E-3	6.158558E-3	-1.877721E-3	-5.841838E-4	1.571507E-2	-7.731030E-4	3.346863E-3	-1.458450E-2	-5.940967E-3	-5.209555E-3	1.080640E-2	-1.563792E-3	-6.783618E-3	-3.505052E-3	-9.653565E-3	-1.202208E-2	-1.340256E-2	-1.955362E-2	-1.339848E-2	-4.322150E-3	-8.105018E-3	5.787920E-3	-7.423796E-3	-4.550069E-3	5.471377E-3	1.045156E-2	-1.253125E-3	1.571495E-2	2.859288E-3	-9.293851E-3	-1.930618E-2	-8.872809E-3	-3.504045E-3	-1.161137E-2	7.749271E-3	1.094795E-2	-1.958003E-2	2.670300E-2	-1.276767E-2	-4.657543E-3	1.889530E-2	6.505400E-4	-7.420698E-3	-1.543938E-2	-1.925558E-2	4.647427E-3	-2.580857E-2	-1.086881E-2	-2.517318E-3	7.593230E-3	-7.805519E-3	9.786772E-3	3.068222E-3	-4.033647E-3	-1.685744E-2	-7.398894E-3	-1.436429E-2	-6.657725E-3	-9.512687E-3	1.947493E-3	-1.527685E-2	-1.166268E-2	1.593309E-2	-3.603193E-2	6.816595E-3	-8.895011E-3	3.166644E-3	-1.646689E-2	-7.400309E-4	-3.752981E-3	-1.498642E-2	-8.463252E-3	2.435612E-3	-1.297099E-2	-4.713128E-3	8.363895E-3	-6.208667E-3	8.319306E-3	-1.684919E-3	8.806935E-3	3.720189E-3	-1.284911E-2	-1.989124E-3	-9.557895E-3	-8.878047E-3	1.427178E-3	-5.247423E-3	3.946454E-3	-1.355971E-3	1.093317E-3	-5.558589E-3	3.460475E-4	-5.827668E-4	1.651973E-3	6.187826E-4	-9.815351E-4	7.922742E-4	2.081938E-3	1.534559E-3	4.864206E-3	-1.128436E-2	1.174095E-2	2.662697E-2	4.702777E-3	-1.634633E-2	-1.496539E-2	-1.621617E-2	2.467781E-2	8.013278E-3	6.349656E-3	1.946254E-2	-8.973059E-4	1.443033E-2	-2.495176E-3	-1.389100E-2	2.847880E-3	2.558511E-3	-2.629526E-3	-7.874631E-3	-8.689952E-3	6.335849E-3	-2.674875E-2	2.893812E-3	-3.610017E-4	-1.126266E-2	1.793780E-3	-2.006904E-2	-2.094482E-2	3.342083E-2
2.799980E+2	-6.475857E-3	-1.684490E-2	2.669117E-4	-3.247104E-3	-1.802083E-2	9.905423E-4	-7.145548E-3	3.612201E-3	-4.121723E-3	-4.403205E-3	-1.717069E-2	-6.564067E-3	-7.008721E-3	-1.278882E-2	-5.277588E-3	-4.272110E-4	-3.369473E-3	-9.369304E-3	8.333800E-3	-4.148020E-3	2.065758E-3	-1.488357E-2	1.414461E-2	3.229441E-3	1.589905E-2	-1.380105E-2	-9.564466E-3	-5.278441E-3	-5.586837E-3	3.602871E-4	-2.031023E-2	1.503285E-3	-1.132570E-2	-4.731761E-3	1.597970E-2	6.032428E-5	-1.996660E-5	-1.260573E-3	1.728459E-3	-1.745026E-2	2.662096E-2	-9.685177E-3	3.042812E-3	-2.241745E-2	4.599579E-3	2.058795E-3	-2.115457E-3	-4.654833E-3	5.838292E-4	-8.657738E-4	-2.203055E-2	1.103327E-3	4.896927E-3	5.423720E-3	1.207747E-4	-1.116605E-2	-6.810900E-3	-2.002102E-2	1.572012E-3	-1.821551E-2	-4.211607E-3	1.079796E-2	-1.745424E-2	1.558574E-3	8.321269E-3	-3.751832E-3	-7.322736E-3	-1.068657E-2	-3.473991E-3	-7.144828E-3	-1.082709E-2	-1.671427E-4	-5.301882E-3	2.882457E-3	-1.151283E-2	-6.168259E-4	-1.441702E-2	-4.485107E-4	-5.637277E-3	-3.948688E-3	6.920232E-3	-1.402255E-2	-5.341926E-3	-1.091201E-2	7.645707E-3	-4.733296E-3	-1.443330E-2	8.088325E-3	-2.248197E-2	-8.694052E-3	-1.062452E-2	-2.296514E-2	-2.807382E-3	-1.140872E-3	-2.204684E-2	-4.027242E-3	-2.745683E-2	5.577661E-3	-4.858821E-3	-9.477533E-3	5.033087E-3	2.162842E-2	3.001940E-3	-1.737579E-2	1.598599E-3	-2.206461E-2	4.405404E-3	-3.515818E-3	8.494471E-3	-1.899806E-2	-1.953966E-2	-1.001987E-2	-1.324682E-3	-9.386390E-3	-1.127967E-2	-7.854435E-3	-1.263279E-2	-6.011703E-3	-4.229252E-3	-9.919399E-3	-2.800843E-2	-8.352364E-4	-5.542674E-3	2.031486E-3	5.705118E-3	-1.009177E-3	-1.559290E-2	-1.605330E-2	-1.270432E-2	-1.188097E-3	-4.203145E-4	-1.951938E-3	-3.913313E-3	-1.362961E-2	-3.095965E-3	-1.948004E-2	-8.734924E-3	-5.609688E-3	-6.053251E-3	-1.221941E-2	1.264577E-4	-4.203484E-3	-1.928858E-2	5.606347E-3	1.678879E-2	1.266639E-2	-5.689616E-3	-7.803887E-3	-9.807258E-3	-2.002396E-2	-1.436663E-2	-1.203184E-3	-2.648435E-3	-1.745925E-3	-7.513759E-3	1.778053E-2	6.251141E-3	-6.145091E-3	7.875701E-4	1.818423E-2	1.189633E-2	-1.894730E-3	-5.987188E-4	-2.942150E-4	-2.005494E-4	1.157679E-3	-8.387496E-3	3.787688E-2	-1.667915E-2	4.630977E-3
2.805030E+2	-1.320116E-2	1.932099E-2	-1.404479E-2	6.347942E-3	1.544972E-2	-1.394737E-2	4.034266E-3	6.006127E-3	-9.939385E-3	4.197408E-3	-1.618254E-2	-1.086689E-2	4.910436E-3	-1.839454E-2	-1.209803E-2	-2.225565E-2	-7.305140E-3	1.108809E-2	-5.429745E-3	-3.288498E-3	4.289402E-3	-3.872226E-3	-1.257065E-2	-1.393861E-2	-1.107905E-2	-1.702759E-3	-1.197615E-2	5.745229E-3	1.097350E-2	-8.261707E-3	3.215665E-3	1.123619E-2	-2.471046E-2	-6.405506E-4	-1.372021E-2	1.494416E-2	1.319310E-2	1.891293E-2	-1.187414E-2	3.726452E-3	-2.018184E-2	-5.779056E-3	5.527241E-3	-5.959503E-3	2.710651E-2	1.223249E-3	1.250019E-2	-4.019714E-3	3.073414E-3	4.872500E-3	2.100435E-2	5.165967E-3	-3.809611E-3	-7.385147E-3	-1.286994E-2	4.189553E-3	1.419111E-2	-3.995542E-3	-1.842620E-2	5.850472E-4	1.227689E-2	4.168533E-3	-1.648030E-2	5.151329E-3	-3.607798E-3	-4.509341E-3	2.572973E-3	-3.544793E-3	8.467897E-3	-1.945506E-2	2.082542E-2	-5.329140E-3	-6.054190E-3	-2.654394E-3	1.712326E-2	6.956155E-3	-2.413528E-3	-1.229238E-2	1.973560E-2	-8.930704E-3	-1.689239E-2	8.686614E-4	-1.434469E-3	-1.869955E-2	-4.578940E-3	-2.656962E-3	7.240616E-3	-8.783601E-3	3.130572E-3	1.545369E-2	-1.791357E-2	-1.191793E-2	-6.826798E-3	-4.963243E-4	1.183166E-2	-4.826746E-3	-1.130423E-2	1.109901E-2	9.211743E-4	2.116652E-2	-1.223593E-2	8.935060E-3	-5.008696E-3	-7.696548E-4	3.986580E-3	2.544909E-2	-7.775832E-3	2.554343E-3	-1.598242E-3	1.230774E-2	-7.521214E-3	-1.714432E-2	-3.902119E-3	2.846212E-4	1.804207E-3	6.108033E-3	9.226869E-3	1.006643E-2	-1.432156E-2	-1.396283E-2	1.450085E-3	3.088132E-3	2.020917E-2	-4.112041E-3	1.149833E-2	2.780432E-3	1.773752E-2	7.791105E-3	-1.997702E-2	1.377287E-3	7.065687E-3	3.994966E-3	-1.201929E-2	2.373935E-4	-3.133682E-2	1.075055E-2	-4.777539E-3	-1.121115E-2	9.647701E-3	1.290770E-2	-7.124509E-3	1.207424E-2	1.681574E-3	-1.031366E-2	-4.468302E-3	6.648598E-3	-1.741253E-2	1.263691E-3	-5.226896E-3	5.662858E-3	-1.160046E-2	-1.587148E-2	-5.345343E-3	4.754095E-4	-3.181377E-3	-2.946160E-3	-1.025849E-3	-8.359534E-3	-2.107132E-2	-1.174240E-2	-4.252769E-3	-5.780358E-3	-9.472765E-3	-2.791072E-3	8.160240E-3	3.547845E-4	-1.120345E-2	-1.799346E-2	1.549060E-2	3.741919E-3
2.810040E+2	-1.303795E-2	1.985708E-3	-2.044584E-2	6.896505E-3	-2.306246E-2	-1.056282E-2	-2.310368E-3	-3.093118E-3	-2.935514E-3	-1.433422E-2	5.030150E-4	5.770935E-3	-4.348968E-3	-1.170275E-2	-7.241417E-3	1.321379E-2	-7.084636E-3	-7.628840E-4	3.202336E-3	-1.318588E-2	1.058164E-2	-2.191785E-3	-1.250143E-2	4.179872E-3	4.759516E-3	1.383374E-3	-6.496760E-3	-1.100534E-2	-6.111581E-3	-9.604070E-3	-2.066915E-4	1.609914E-2	1.536169E-2	1.211422E-3	-1.259491E-5	-1.475215E-2	-1.883604E-2	-1.160476E-2	9.057427E-3	9.790452E-3	-9.833114E-3	-2.113035E-2	5.754232E-3	-1.089005E-2	-6.078400E-3	-9.219018E-3	1.939311E-3	-1.053443E-2	1.660695E-2	1.004231E-2	4.476833E-3	-2.224311E-2	-9.885833E-3	3.219647E-4	-1.618441E-2	7.675961E-3	9.958674E-4	-1.379571E-2	4.218300E-3	-2.429200E-3	-1.867295E-2	-5.614648E-3	1.307450E-2	-3.391122E-3	-2.351068E-4	3.462810E-4	-2.206364E-2	-1.505331E-4	5.536994E-3	3.890480E-3	2.583296E-5	1.379520E-2	-1.102171E-2	-5.524111E-3	2.717634E-2	-4.580452E-3	-1.169270E-2	-1.682367E-2	-6.111475E-3	1.586019E-2	-1.506134E-2	-5.281764E-4	-2.106412E-2	-2.910138E-3	7.022446E-3	-1.025405E-3	-8.095147E-3	2.014900E-2	-5.377618E-6	-6.124492E-3	-1.168190E-3	1.174894E-2	-1.854021E-3	-2.068485E-2	2.268086E-3	-3.077064E-3	-1.785520E-2	4.799388E-3	-1.554017E-2	-4.597845E-3	1.486630E-2	-1.258390E-2	-1.218077E-3	1.682586E-2	1.070268E-2	-1.510865E-3	-2.683348E-3	-4.034015E-3	1.732166E-3	3.457422E-3	-1.205922E-2	1.010868E-2	3.260220E-3	1.249546E-2	8.182931E-3	-1.847842E-4	-5.055520E-3	-7.954348E-3	-1.539442E-3	4.574090E-3	6.684976E-3	-4.488141E-3	-9.696875E-3	3.062022E-3	-1.303956E-2	-1.522948E-3	-1.434275E-2	-6.885546E-3	3.584276E-3	-1.221466E-2	-4.386524E-3	4.266260E-3	-1.768506E-2	-9.619531E-4	7.703351E-3	3.299419E-3	1.278750E-2	-1.264427E-2	-8.183351E-3	1.092786E-3	-1.177493E-2	-4.824971E-3	1.935111E-3	5.679948E-4	-8.634539E-4	1.848860E-3	-4.527524E-3	-4.853093E-3	-1.043927E-2	9.074440E-3	-2.775760E-3	1.216487E-2	-5.155793E-3	-5.204559E-3	9.007880E-3	3.927967E-3	-1.369643E-2	-8.135585E-3	6.674046E-3	9.383215E-3	-9.105308E-3	3.880141E-3	1.333506E-2	-1.082372E-2	-1.148315E-2	2.371571E-2	1.361576E-3	1.395244E-3	1.165065E-2	-2.873832E-3
2.815070E+2	2.521777E-3	-1.221178E-2	1.854524E-2	5.044926E-3	-3.001646E-3	1.758446E-3	-5.582946E-3	-2.142737E-2	-8.120510E-3	4.410974E-3	1.349224E-2	7.462221E-3	9.788057E-3	2.647872E-3	5.257590E-3	-6.610129E-3	-1.658358E-2	-5.431696E-3	6.169016E-3	1.223054E-2	-4.638407E-3	6.438487E-3	-6.676434E-3	-1.642008E-4	-5.763344E-3	1.308839E-3	1.467510E-2	-1.606980E-2	-3.063972E-3	-1.897204E-3	-5.361658E-4	-6.718690E-3	-3.915591E-3	-5.205346E-4	8.754212E-4	-1.460077E-2	9.202609E-3	-1.305045E-2	-7.734941E-3	4.420333E-3	2.015521E-3	-1.178615E-2	-1.331635E-3	6.546934E-3	-7.825206E-3	-1.077742E-2	-2.503242E-2	-3.789518E-3	-2.004662E-2	-3.185979E-3	1.064171E-2	2.135696E-3	-6.822352E-3	-7.241709E-3	-3.628011E-4	-1.000041E-2	-4.139363E-3	2.279389E-2	1.212708E-2	1.234334E-2	-6.628162E-3	-2.816604E-3	9.122075E-3	1.012716E-3	-1.907384E-3	3.356017E-3	8.419915E-4	-1.129287E-2	-2.172740E-2	-3.430790E-3	4.773018E-3	6.431701E-3	4.356088E-3	-9.687119E-4	-1.529115E-2	-6.351358E-3	7.175783E-3	2.244472E-2	-1.081525E-2	5.641765E-3	7.717035E-3	9.971653E-4	-4.350491E-3	6.071748E-4	-1.684978E-4	1.749377E-3	1.087090E-2	-1.982489E-2	3.265144E-3	-9.300958E-3	1.032500E-2	1.575859E-3	-5.124415E-3	-7.637722E-3	-9.354481E-3	9.422150E-3	2.225285E-2	3.054433E-3	-3.888039E-3	-2.130967E-2	2.797506E-3	-8.316930E-3	-1.361437E-3	-5.352141E-3	-1.366569E-2	-3.301132E-3	-9.303122E-3	-2.472358E-3	-2.996922E-3	6.369132E-3	2.103172E-2	9.954265E-3	4.832959E-3	1.918542E-3	3.967146E-4	7.848325E-3	-3.574086E-3	4.622454E-3	-6.370573E-3	7.766087E-3	6.573912E-3	-3.033548E-3	-2.728726E-3	9.914354E-3	1.874193E-3	-6.226289E-3	-5.938293E-3	1.586614E-2	6.778472E-3	-1.060958E-2	1.389148E-2	-9.550654E-3	-1.480611E-4	1.349953E-2	1.242183E-2	3.179161E-3	-4.647515E-3	-1.357964E-3	-9.926851E-3	-1.623673E-2	-1.834531E-2	-3.234947E-3	1.108632E-2	-1.460026E-2	7.433574E-3	2.976078E-5	1.522772E-2	-1.646473E-3	5.690385E-3	1.671381E-2	-2.899166E-3	5.128668E-3	-1.538889E-3	6.505380E-3	7.157355E-3	-1.125334E-3	3.886242E-3	3.512601E-3	-8.040338E-3	1.279066E-3	9.093262E-4	3.757756E-3	5.126955E-3	1.239905E-2	1.594029E-2	-1.823357E-2	5.344768E-3	-6.848250E-3	-9.058072E-3	-3.038833E-2
2.820030E+2	8.929195E-3	-1.005857E-2	6.564208E-4	3.780932E-3	1.611202E-2	-3.943254E-3	-3.676652E-3	-4.368263E-3	2.111133E-2	-2.979033E-3	6.797165E-3	4.365875E-3	-2.442419E-3	2.260811E-2	2.033503E-2	5.141853E-3	2.310272E-2	-1.870961E-2	5.795419E-4	7.689017E-3	2.466417E-2	1.277832E-2	3.338877E-2	1.081614E-2	5.128937E-3	6.084421E-3	-7.121928E-3	1.880358E-2	1.160679E-2	2.523403E-2	-5.944413E-3	1.967695E-2	1.735676E-2	1.294821E-2	-6.539188E-3	1.924532E-2	-8.620721E-3	-2.777464E-3	-7.498866E-3	1.080298E-2	5.898117E-3	1.684897E-2	-1.870957E-2	2.947813E-2	-1.077627E-2	-1.168980E-3	8.261324E-3	8.873874E-3	1.202820E-2	-1.098032E-2	3.890281E-3	2.710158E-3	1.261396E-2	-5.286793E-3	1.107178E-2	1.355757E-2	-1.206548E-2	5.030786E-3	2.564564E-2	2.148395E-2	1.648664E-2	1.211424E-2	9.683935E-4	7.515212E-3	2.400609E-2	-1.791695E-2	3.101458E-2	2.290064E-2	-2.010579E-3	1.023208E-2	-4.999181E-3	7.620843E-3	4.959056E-3	-6.585967E-3	4.888335E-4	-1.221121E-2	1.250641E-2	1.211544E-2	1.621581E-3	4.735106E-3	-6.463368E-3	-7.808127E-3	2.769264E-2	3.826940E-2	1.476239E-2	2.256652E-2	1.167265E-3	1.138725E-2	8.974860E-3	2.098249E-2	2.993765E-3	-1.284843E-2	9.698939E-3	1.849501E-4	5.493378E-3	-2.641770E-3	2.626208E-2	4.588362E-4	3.010446E-2	7.163855E-3	-8.673096E-3	-5.370431E-4	1.530203E-2	1.269634E-2	2.253181E-2	-1.416078E-2	5.809574E-3	8.289652E-3	5.192053E-3	2.295577E-3	7.333811E-3	-2.219105E-3	1.058477E-2	9.949366E-3	1.319687E-2	-8.050826E-3	3.419826E-3	6.613459E-3	1.777318E-2	-5.097253E-3	-1.638928E-2	-2.595978E-3	1.560630E-2	3.426077E-3	-2.652657E-3	8.081229E-3	-3.231401E-4	1.340239E-2	-4.464249E-3	2.634276E-2	-4.029684E-3	-1.768294E-2	2.401184E-2	-2.033985E-3	3.176382E-3	-7.183074E-3	8.492520E-3	2.526732E-2	3.640414E-3	1.356152E-2	3.577753E-2	1.281808E-2	-1.946014E-2	4.038026E-3	1.203066E-3	1.237819E-2	2.496461E-2	1.210082E-2	-1.019649E-3	-1.548261E-2	2.183265E-2	-2.999815E-3	4.582822E-3	1.072147E-3	1.114168E-2	-2.298235E-3	1.142670E-3	-6.295827E-3	1.684890E-2	-1.271465E-2	9.899500E-3	1.216512E-2	1.051376E-2	-2.052559E-3	1.037923E-2	8.285162E-3	2.037033E-2	1.295343E-2	3.275321E-2	3.197328E-2
2.825060E+2	4.051196E-2	2.170132E-2	-5.494957E-3	-6.730925E-3	8.320671E-3	3.207378E-2	1.213396E-2	3.071912E-2	4.154969E-3	2.073307E-2	1.555657E-2	9.739280E-3	1.191270E-2	2.261063E-2	1.305704E-2	1.365248E-2	1.368121E-2	1.179858E-2	1.131821E-2	5.988558E-3	1.877237E-3	2.556559E-3	8.448730E-3	-1.155843E-3	8.627023E-3	2.182950E-2	8.837135E-3	1.535926E-2	1.794437E-2	6.430258E-3	2.070505E-2	-1.083812E-2	4.522866E-3	6.448062E-3	4.332434E-3	3.327612E-3	1.120537E-2	1.417786E-2	2.778688E-2	7.883503E-3	9.327854E-3	1.687484E-2	1.907906E-3	2.256769E-2	6.049856E-3	1.417653E-2	2.479039E-2	2.113107E-2	1.370667E-2	7.194833E-3	-5.727874E-3	1.092540E-2	-2.776194E-5	8.318752E-3	9.581809E-3	1.357731E-2	1.169935E-2	3.189461E-2	2.796791E-3	-3.205257E-3	2.346230E-2	-8.044714E-3	2.459348E-3	9.030569E-3	-1.415478E-2	2.102850E-2	-1.150305E-2	1.973474E-2	1.088941E-2	2.922112E-2	-8.333950E-4	6.181337E-3	2.575588E-2	1.846987E-2	2.171574E-2	6.539144E-3	2.987934E-3	7.395497E-3	-4.158363E-3	-8.445909E-4	3.162075E-2	-3.027750E-3	4.816430E-3	3.387431E-3	5.441451E-4	-1.723022E-3	1.152470E-2	-4.301844E-3	2.733714E-2	-8.649350E-4	1.300242E-2	3.338590E-2	4.999298E-3	1.944613E-2	1.337585E-2	1.995164E-2	2.464461E-2	2.183584E-2	1.842232E-2	2.431270E-2	-3.965701E-3	9.864263E-3	1.267220E-2	-4.353341E-3	1.448453E-2	1.340689E-2	1.108319E-2	-7.050816E-3	1.604546E-2	-6.841694E-3	2.159768E-2	1.710611E-2	-3.347088E-3	3.993503E-3	-7.749667E-3	2.141676E-4	5.064504E-3	8.087199E-3	-4.633539E-3	2.182836E-2	2.226840E-2	1.628882E-2	6.198676E-3	5.265524E-3	1.754906E-2	1.580650E-2	1.748710E-2	-3.524114E-4	3.243348E-2	7.237425E-3	1.110824E-2	3.048069E-2	4.820494E-3	1.852736E-2	1.457472E-2	2.170884E-3	6.927625E-3	7.278791E-3	1.981214E-3	3.172430E-3	-8.211813E-3	1.108576E-2	7.014009E-3	-9.589373E-3	-4.840304E-4	1.068501E-2	-4.168256E-3	2.181716E-3	1.898162E-2	-9.197776E-3	1.489430E-2	-1.250032E-3	1.211443E-2	-1.879905E-3	-6.038268E-3	1.024386E-3	2.055985E-2	1.146545E-2	5.452561E-3	3.468861E-3	-5.382173E-3	-8.413630E-3	1.215412E-2	-3.637930E-4	-1.908275E-3	8.325940E-3	1.624074E-2	1.022731E-2	-8.605104E-3	-1.627277E-2
2.830030E+2	5.306024E-4	5.564180E-3	-2.618316E-3	7.020011E-3	6.612603E-3	2.443828E-3	1.827961E-2	1.746602E-2	2.199618E-3	1.456613E-2	1.884811E-2	5.867381E-3	-7.553315E-3	-1.715513E-3	1.311384E-3	-1.354317E-2	1.383162E-2	2.591542E-3	2.122540E-3	1.457586E-2	1.258132E-2	1.885408E-2	1.300596E-2	1.849854E-3	-5.812454E-3	-5.439871E-3	1.362359E-2	-7.264680E-3	2.448701E-2	1.762922E-2	1.662181E-2	1.331129E-3	-7.132338E-3	1.461081E-2	-8.329007E-3	1.786526E-2	-9.383848E-5	1.531685E-3	2.293344E-3	1.389450E-2	3.943002E-3	1.552718E-2	1.842100E-2	-2.252778E-4	9.289828E-3	1.589988E-2	6.956282E-3	-4.745343E-3	5.202643E-3	-6.349512E-3	-1.417165E-2	-5.834493E-3	-1.310909E-2	8.359305E-3	-5.847958E-3	3.904173E-4	-5.458958E-3	2.366568E-2	2.817925E-3	-1.513779E-2	5.052532E-4	1.237577E-2	2.918513E-2	-7.458430E-3	2.428093E-2	2.604406E-2	3.055281E-3	1.026095E-2	1.263330E-2	-7.284736E-3	2.046140E-3	7.774283E-3	1.353007E-2	-1.978458E-3	2.216627E-2	1.154732E-2	3.516553E-2	5.776370E-3	2.694816E-2	3.314692E-2	-4.889124E-3	7.884593E-3	3.384362E-3	-5.716539E-3	-1.012664E-3	-2.014764E-4	-1.171205E-2	2.351033E-2	9.120477E-3	5.330475E-3	1.322605E-2	-7.693402E-4	6.661680E-3	2.753297E-4	-3.838070E-3	3.311649E-2	-1.464890E-2	1.712842E-2	-3.999813E-3	-1.370987E-2	2.007451E-3	2.497847E-2	8.303014E-3	1.522014E-2	2.954570E-2	-4.392408E-3	3.189586E-2	-9.243001E-3	3.687753E-3	3.906276E-3	-4.137064E-3	-2.126541E-3	-1.431529E-2	2.566000E-3	7.237468E-3	1.191568E-2	2.499270E-2	8.455338E-3	2.527586E-2	-1.693944E-2	2.583472E-2	2.293200E-2	-4.551945E-3	4.500813E-2	1.087042E-2	-4.351195E-3	9.766182E-3	1.218664E-2	1.391429E-2	1.785566E-2	-1.848362E-3	1.359717E-2	-1.165122E-2	-9.470117E-3	8.073371E-3	8.821985E-3	1.026305E-2	3.904013E-3	5.524602E-3	4.890056E-3	-6.945610E-3	1.999529E-2	2.909769E-2	1.662287E-2	1.661299E-2	-6.607244E-3	8.472522E-3	2.070720E-2	-1.238152E-3	-1.289964E-3	-1.083356E-2	2.268072E-3	-1.516953E-3	8.535821E-3	-1.701353E-2	2.120990E-2	1.247098E-2	7.164345E-3	7.620583E-3	-9.637367E-3	1.506869E-2	1.056882E-2	-1.055250E-3	9.666871E-3	2.461434E-2	8.471687E-3	3.492645E-2	-1.777564E-3	9.591373E-3	2.706663E-2
2.835020E+2	3.308672E-2	1.805632E-3	4.218015E-2	3.790614E-2	3.418722E-2	1.091375E-2	1.291832E-2	9.099600E-3	1.090781E-2	1.491731E-2	1.187004E-2	3.186770E-2	2.212757E-2	1.356120E-2	-1.634916E-3	3.789795E-2	6.009190E-3	-5.222131E-3	8.689648E-3	2.016476E-2	2.549191E-2	1.012638E-2	1.794479E-2	9.834452E-3	5.563381E-2	1.690970E-2	1.547039E-2	2.492557E-2	3.480331E-2	1.806015E-2	7.957781E-3	1.098779E-2	2.263083E-2	1.145125E-2	1.899936E-2	8.356946E-3	2.071054E-2	1.791966E-2	1.123929E-2	2.342823E-2	2.696562E-2	9.445349E-3	-1.166449E-2	2.290796E-2	-2.914748E-3	4.343320E-2	4.790846E-2	1.088267E-2	6.963176E-3	8.920930E-3	8.937249E-3	1.270856E-2	1.462088E-2	3.373575E-2	2.735009E-2	1.236142E-2	8.665676E-3	3.111175E-3	6.003185E-3	1.031455E-2	3.301207E-2	1.279570E-2	1.010655E-2	1.399782E-2	1.317161E-2	2.662454E-2	1.157848E-2	-1.267496E-2	4.613773E-3	2.921841E-2	2.385368E-2	-1.091635E-3	2.806024E-2	2.578399E-2	8.145637E-4	-2.539908E-3	1.758122E-2	1.261257E-2	6.508002E-3	2.302167E-2	1.922214E-2	2.273029E-2	4.024856E-2	3.267153E-2	1.260163E-2	3.923540E-2	3.314838E-3	1.862540E-3	1.111542E-2	1.197378E-2	2.275237E-2	1.696236E-2	1.361050E-2	8.107915E-3	2.871182E-2	3.220099E-2	2.688112E-2	-6.403047E-3	-1.347341E-2	1.869700E-2	-5.585432E-3	2.092424E-2	5.524749E-3	5.163974E-2	8.051530E-3	3.874663E-3	3.711637E-2	3.519440E-2	2.145947E-2	1.684146E-2	3.069486E-2	4.635317E-3	3.402782E-3	2.623687E-2	1.051657E-2	4.120111E-2	2.049934E-2	5.998763E-3	2.444043E-2	1.772067E-2	4.534368E-2	6.980270E-3	1.828732E-2	1.616556E-3	1.106655E-2	2.771957E-2	1.620931E-3	2.369467E-2	1.051467E-2	2.002801E-2	2.813835E-3	1.757837E-2	-2.496727E-3	1.802839E-2	2.121850E-2	1.250613E-2	7.293376E-3	3.971503E-2	2.439086E-2	3.065339E-3	3.353910E-2	4.024487E-2	1.131674E-2	9.259058E-3	3.284009E-2	2.667154E-2	1.424515E-2	5.839369E-3	4.417495E-3	2.837961E-2	2.358176E-2	-9.863250E-3	3.358769E-2	3.201793E-2	9.097168E-3	3.247032E-2	4.972753E-2	2.755650E-2	2.790036E-2	1.742114E-2	1.532609E-2	9.079819E-3	4.655038E-2	2.561087E-2	1.239820E-2	1.640532E-2	2.566305E-2	2.623282E-2	-5.697044E-3	3.657855E-2
2.840030E+2	7.248187E-2	6.091313E-2	9.521482E-2	9.196619E-2	8.077472E-2	4.917378E-2	3.882639E-2	4.765048E-2	4.803552E-2	6.009955E-2	4.898443E-2	4.871816E-2	3.533276E-2	4.950836E-2	7.248121E-2	4.138036E-2	7.598125E-2	5.089287E-2	4.918893E-2	5.617217E-2	7.409680E-2	4.237369E-2	7.427127E-2	6.720280E-2	4.458003E-2	6.417178E-2	4.889803E-2	2.467927E-2	7.027602E-2	6.805415E-2	6.304880E-2	4.973245E-2	2.715464E-2	3.844257E-2	7.180744E-2	5.881091E-2	6.916037E-2	6.161642E-2	4.612449E-2	7.211730E-2	5.564483E-2	5.585005E-2	7.871678E-2	5.725119E-2	6.235934E-2	6.842337E-2	6.791448E-2	8.920105E-2	9.718796E-2	6.282850E-2	5.287383E-2	6.452665E-2	4.279322E-2	4.670292E-2	7.286585E-2	5.369539E-2	3.516279E-2	5.045044E-2	5.603637E-2	4.664206E-2	7.367143E-2	5.727296E-2	5.018762E-2	5.946965E-2	5.162408E-2	4.806856E-2	7.914091E-2	5.950858E-2	3.479391E-2	6.378978E-2	3.135854E-2	5.652389E-2	4.783610E-2	4.406451E-2	3.953100E-2	7.633200E-2	8.501668E-2	4.081276E-2	4.344177E-2	8.064648E-2	6.095459E-2	8.766655E-2	5.582738E-2	4.372539E-2	6.140950E-2	4.281875E-2	3.388358E-2	3.218667E-2	7.258649E-2	7.522845E-2	5.378424E-2	5.065765E-2	5.223840E-2	6.103090E-2	2.207681E-2	6.947666E-2	8.780291E-2	3.112154E-2	3.641248E-2	8.093570E-2	5.026518E-2	5.402484E-2	4.499664E-2	3.426977E-2	7.898177E-2	6.039576E-2	5.911354E-2	5.336877E-2	4.949636E-2	6.087148E-2	6.827771E-2	6.062762E-2	4.143214E-2	3.274465E-2	6.704950E-2	2.880499E-2	6.028368E-2	3.923005E-2	6.375531E-2	6.223833E-2	4.164692E-2	5.673717E-2	7.838453E-2	7.027679E-2	5.532121E-2	6.069896E-2	3.714266E-2	3.498274E-2	5.439625E-2	3.624149E-2	4.215833E-2	2.989364E-2	6.335269E-2	6.037363E-2	4.087310E-2	4.382802E-2	4.566039E-2	5.373467E-2	7.930198E-2	6.884091E-2	9.101905E-2	8.852598E-2	6.366480E-2	4.951537E-2	6.725628E-2	6.255422E-2	6.722999E-2	2.983605E-2	4.032637E-2	2.519522E-2	2.821038E-2	2.814330E-2	3.697228E-2	7.026820E-2	4.884737E-2	7.333351E-2	5.695369E-2	6.570792E-2	6.569443E-2	8.309861E-2	3.457467E-2	4.554312E-2	6.916016E-2	6.293357E-2	5.309364E-2	6.757654E-2	6.372261E-2	3.592497E-2	3.203884E-2	1.789062E-2
2.841010E+2	6.764328E-2	4.897832E-2	4.866522E-2	3.875972E-2	8.404927E-2	5.403172E-2	6.344168E-2	6.530548E-2	4.564542E-2	5.471705E-2	5.665860E-2	4.422528E-2	8.314870E-2	2.814988E-2	6.612256E-2	5.032417E-2	3.844994E-2	7.539283E-2	5.056666E-2	7.058330E-2	9.214115E-2	6.102072E-2	7.105871E-2	5.096196E-2	6.285703E-2	4.086376E-2	4.497235E-2	4.096483E-2	7.862578E-2	4.919858E-2	3.890357E-2	4.789545E-2	6.989180E-2	6.076580E-2	5.826234E-2	4.477237E-2	5.692230E-2	4.932719E-2	5.634062E-2	6.091276E-2	6.626102E-2	4.878689E-2	3.411482E-2	6.810173E-2	7.472106E-2	7.325846E-2	5.485599E-2	9.250421E-2	6.823056E-2	4.461052E-2	7.338147E-2	8.555861E-2	4.402115E-2	6.759858E-2	5.958809E-2	2.148403E-2	4.928383E-2	8.630205E-2	6.983813E-2	6.940016E-2	6.389824E-2	4.617048E-2	4.514005E-2	7.850955E-2	5.808996E-2	4.091356E-2	9.315604E-2	5.924050E-2	6.214926E-2	6.531500E-2	3.699473E-2	6.271432E-2	7.722245E-2	7.078950E-2	3.311467E-2	8.156541E-2	7.628399E-2	5.751765E-2	5.736060E-2	5.195891E-2	4.095687E-2	9.247507E-2	6.016589E-2	5.999055E-2	3.775911E-2	5.665186E-2	5.219153E-2	7.534694E-2	4.877211E-2	3.080411E-2	5.651426E-2	9.422602E-2	4.503084E-2	5.770153E-2	5.204223E-2	7.122555E-2	7.111158E-2	5.169888E-2	7.733562E-2	6.603545E-2	8.600011E-2	7.447417E-2	3.672495E-2	7.433492E-2	7.362195E-2	6.393980E-2	3.571089E-2	8.313614E-2	6.433145E-2	4.575824E-2	2.369089E-2	5.353132E-2	7.861721E-2	4.703319E-2	5.462127E-2	5.494937E-2	6.359834E-2	4.984270E-2	8.146987E-2	5.276946E-2	6.285699E-2	7.695168E-2	6.320222E-2	4.695090E-2	9.324678E-2	7.894212E-2	5.423882E-2	7.624194E-2	8.485294E-2	6.205022E-2	5.196299E-2	6.477478E-2	3.600844E-2	4.596835E-2	5.753537E-2	8.418291E-2	6.077137E-2	3.558257E-2	5.699581E-2	6.469184E-2	5.743181E-2	8.476651E-2	9.271715E-2	5.918278E-2	8.358187E-2	9.161510E-2	2.744913E-2	7.250629E-2	8.308636E-2	5.193842E-2	4.970481E-2	5.595108E-2	5.863961E-2	5.404847E-2	3.560983E-2	8.036010E-2	4.255462E-2	5.282005E-2	5.056399E-2	5.150367E-2	6.156700E-2	6.914425E-2	7.243679E-2	9.710810E-2	5.281884E-2	3.918816E-2	5.479807E-2	4.926727E-2	6.012456E-2	7.128837E-2
2.842010E+2	1.163085E-1	1.098062E-1	9.853464E-2	1.181095E-1	1.211648E-1	7.069250E-2	9.770566E-2	1.305146E-1	7.077819E-2	8.526326E-2	8.176519E-2	7.861131E-2	9.499610E-2	7.512425E-2	1.024391E-1	1.010452E-1	9.788296E-2	1.150856E-1	7.016740E-2	8.124019E-2	1.069041E-1	8.780402E-2	8.521457E-2	6.689744E-2	1.480025E-1	9.506926E-2	1.122383E-1	9.674617E-2	1.231955E-1	1.051926E-1	9.662868E-2	1.058300E-1	1.202161E-1	6.196799E-2	8.321382E-2	9.985096E-2	1.091899E-1	9.368556E-2	9.176632E-2	1.137509E-1	1.272507E-1	1.013506E-1	9.143588E-2	9.396611E-2	7.050857E-2	1.064362E-1	1.069166E-1	1.104308E-1	1.041758E-1	1.286821E-1	1.484509E-1	7.804425E-2	1.039238E-1	6.723311E-2	9.738673E-2	7.782619E-2	1.042653E-1	9.873602E-2	1.086965E-1	1.195690E-1	6.893808E-2	1.167183E-1	9.410789E-2	1.026489E-1	1.201225E-1	1.270816E-1	1.268651E-1	6.750514E-2	5.814636E-2	1.367863E-1	1.042450E-1	4.949145E-2	1.410080E-1	8.922942E-2	7.891729E-2	1.072393E-1	9.844610E-2	1.055464E-1	1.063774E-1	1.074571E-1	1.103583E-1	1.059229E-1	1.045869E-1	8.437516E-2	9.228377E-2	9.262951E-2	7.877889E-2	8.917766E-2	9.158963E-2	9.354422E-2	1.006856E-1	9.035537E-2	1.348217E-1	1.136172E-1	9.584808E-2	1.092804E-1	7.424181E-2	6.182300E-2	6.872168E-2	1.074630E-1	1.238557E-1	1.062987E-1	9.488912E-2	9.106338E-2	7.850339E-2	1.077465E-1	1.157888E-1	7.117522E-2	1.147514E-1	1.005695E-1	1.011897E-1	1.143353E-1	8.952213E-2	8.927643E-2	8.564830E-2	8.853927E-2	9.336171E-2	7.904736E-2	1.230681E-1	9.451443E-2	1.080497E-1	1.110413E-1	1.106911E-1	1.079154E-1	1.039425E-1	1.005970E-1	1.067970E-1	9.611314E-2	1.302408E-1	8.235087E-2	1.076911E-1	1.189088E-1	5.648012E-2	9.370562E-2	9.446126E-2	8.563497E-2	1.279023E-1	1.171747E-1	9.351498E-2	1.267864E-1	1.192262E-1	9.954588E-2	1.154496E-1	1.353302E-1	9.243743E-2	8.937430E-2	7.936618E-2	1.156964E-1	9.052150E-2	1.115311E-1	6.506226E-2	7.251130E-2	8.663105E-2	9.586297E-2	1.039706E-1	1.291219E-1	8.605981E-2	1.025893E-1	1.340647E-1	1.041233E-1	9.809144E-2	7.385153E-2	9.261084E-2	1.261155E-1	8.093044E-2	9.909515E-2	1.361405E-1	7.465465E-2	1.382489E-1	1.028006E-1
2.843010E+2	1.275969E-1	1.508308E-1	1.327419E-1	1.470239E-1	1.048411E-1	1.449765E-1	1.502427E-1	1.037737E-1	1.484737E-1	9.796298E-2	1.255293E-1	1.254011E-1	1.629878E-1	1.129037E-1	1.511003E-1	1.419572E-1	1.348805E-1	1.373906E-1	1.412244E-1	1.214476E-1	9.412217E-2	1.364283E-1	1.356533E-1	1.298020E-1	1.739078E-1	1.411144E-1	1.373060E-1	1.320401E-1	1.449121E-1	1.263996E-1	1.199238E-1	1.820654E-1	1.437986E-1	1.568148E-1	1.330456E-1	1.416234E-1	1.362020E-1	1.422263E-1	1.176575E-1	1.537030E-1	1.298518E-1	1.655258E-1	1.678512E-1	1.240170E-1	1.503205E-1	1.389206E-1	1.486010E-1	1.430761E-1	1.688118E-1	1.347168E-1	1.456306E-1	1.288278E-1	1.444191E-1	1.322480E-1	1.279696E-1	1.410310E-1	1.271699E-1	1.544479E-1	1.202631E-1	1.002782E-1	1.456980E-1	1.394824E-1	1.202507E-1	1.389206E-1	1.242105E-1	1.823657E-1	1.508287E-1	1.519709E-1	1.097841E-1	1.231248E-1	1.259883E-1	1.452680E-1	1.359775E-1	1.566531E-1	1.212798E-1	1.246497E-1	1.251367E-1	1.443951E-1	1.517166E-1	1.401629E-1	1.506737E-1	1.393072E-1	1.486285E-1	1.352534E-1	1.451893E-1	1.469909E-1	1.207334E-1	1.343621E-1	1.269105E-1	1.578151E-1	1.125820E-1	1.598187E-1	1.284958E-1	1.415835E-1	1.493151E-1	1.362310E-1	1.597598E-1	1.630747E-1	1.214577E-1	1.411680E-1	1.243947E-1	1.247563E-1	1.477835E-1	1.275929E-1	1.433335E-1	1.419212E-1	1.749839E-1	1.036583E-1	1.205048E-1	1.397699E-1	1.651564E-1	1.219144E-1	1.434149E-1	1.342637E-1	1.333959E-1	1.395842E-1	1.313299E-1	1.419138E-1	1.400910E-1	1.319848E-1	1.508566E-1	1.426800E-1	1.335555E-1	1.413564E-1	1.412717E-1	1.417458E-1	1.091042E-1	1.388065E-1	1.657597E-1	1.342836E-1	1.150641E-1	1.118747E-1	1.430105E-1	1.667493E-1	1.323674E-1	1.221695E-1	1.076491E-1	1.734005E-1	1.343339E-1	1.406895E-1	1.555374E-1	1.284148E-1	1.209184E-1	1.259365E-1	1.600872E-1	1.641517E-1	1.199297E-1	1.435744E-1	1.533320E-1	1.413199E-1	1.208939E-1	1.459662E-1	1.578604E-1	1.305727E-1	1.259196E-1	1.278350E-1	1.665354E-1	1.437117E-1	1.532133E-1	1.206476E-1	1.451786E-1	1.264227E-1	1.274749E-1	1.688861E-1	1.575709E-1	1.219568E-1	1.134967E-1	1.688826E-1	1.571427E-1	1.411330E-1
2.844040E+2	1.645241E-1	1.765517E-1	1.467976E-1	1.309178E-1	1.896557E-1	1.942141E-1	1.765479E-1	1.791017E-1	2.076195E-1	1.716158E-1	2.149397E-1	1.453449E-1	1.745448E-1	1.705360E-1	1.453720E-1	1.937630E-1	2.121462E-1	1.564703E-1	1.741138E-1	1.849164E-1	1.582475E-1	1.742715E-1	1.736521E-1	2.197049E-1	1.886893E-1	2.036791E-1	1.819745E-1	1.970280E-1	1.547285E-1	1.859298E-1	1.762649E-1	1.924939E-1	2.210435E-1	2.078492E-1	1.782529E-1	1.541367E-1	1.934996E-1	1.992956E-1	1.920753E-1	1.863672E-1	1.897400E-1	2.203482E-1	1.967128E-1	1.417622E-1	2.020998E-1	1.922198E-1	2.027052E-1	1.771979E-1	1.975684E-1	2.009210E-1	2.120477E-1	2.366897E-1	1.910601E-1	1.763084E-1	1.824795E-1	2.558496E-1	2.272221E-1	2.110132E-1	1.749830E-1	1.632514E-1	1.786343E-1	1.418987E-1	1.775651E-1	1.818775E-1	2.257629E-1	1.971880E-1	2.022996E-1	1.549957E-1	1.814252E-1	1.721922E-1	1.633169E-1	1.588727E-1	2.075476E-1	2.060608E-1	1.563691E-1	2.123156E-1	2.067975E-1	1.977548E-1	1.994383E-1	1.732587E-1	2.079057E-1	1.761694E-1	1.900483E-1	1.984314E-1	1.938489E-1	1.814903E-1	1.501397E-1	2.020705E-1	1.715280E-1	1.481115E-1	1.580754E-1	1.716661E-1	1.625183E-1	1.651043E-1	1.657201E-1	1.829459E-1	1.827084E-1	1.891709E-1	1.644408E-1	1.600219E-1	2.121374E-1	1.936063E-1	1.882829E-1	1.955588E-1	2.035418E-1	1.910250E-1	1.647933E-1	2.127500E-1	1.571128E-1	1.998996E-1	1.745036E-1	1.898106E-1	1.669988E-1	1.848862E-1	2.009425E-1	1.418319E-1	1.642624E-1	1.790289E-1	1.892010E-1	1.734330E-1	2.351221E-1	1.798845E-1	1.688095E-1	2.043153E-1	1.510735E-1	1.817244E-1	1.506174E-1	1.769270E-1	1.850104E-1	1.712486E-1	1.655236E-1	1.789094E-1	1.618101E-1	1.416675E-1	1.644921E-1	1.590025E-1	1.764001E-1	1.850908E-1	1.903321E-1	1.834307E-1	1.670085E-1	2.149993E-1	1.578031E-1	1.686738E-1	1.815015E-1	1.910869E-1	1.681656E-1	1.772565E-1	1.700847E-1	1.732972E-1	1.662474E-1	1.910883E-1	2.044361E-1	1.591099E-1	1.997391E-1	1.540140E-1	1.942859E-1	1.937407E-1	1.607925E-1	1.821053E-1	2.379875E-1	2.023061E-1	1.834918E-1	1.584824E-1	1.961696E-1	1.901843E-1	2.053331E-1	1.777659E-1	2.103562E-1	3.040349E-1
2.845030E+2	2.372801E-1	2.320708E-1	2.668021E-1	2.295118E-1	2.458633E-1	2.294343E-1	2.263731E-1	2.622470E-1	1.980678E-1	2.490885E-1	2.283135E-1	2.357289E-1	2.584113E-1	2.624845E-1	2.347974E-1	2.380605E-1	2.527240E-1	2.941330E-1	2.357009E-1	2.241360E-1	2.106964E-1	2.804261E-1	2.162948E-1	2.543176E-1	3.016724E-1	3.093183E-1	2.530268E-1	3.196679E-1	2.961630E-1	2.874521E-1	2.953384E-1	2.775317E-1	2.982380E-1	3.021834E-1	2.422809E-1	2.375630E-1	2.885758E-1	3.051385E-1	2.758442E-1	2.757511E-1	2.717843E-1	2.923243E-1	3.152847E-1	2.605949E-1	2.773448E-1	3.018086E-1	2.984115E-1	2.913718E-1	2.832267E-1	2.579316E-1	2.748601E-1	2.557461E-1	2.547888E-1	2.756896E-1	2.555427E-1	2.737331E-1	2.772125E-1	2.653978E-1	2.423311E-1	2.823497E-1	2.626898E-1	2.417375E-1	2.625014E-1	2.563596E-1	2.651831E-1	2.285314E-1	3.155617E-1	2.371970E-1	2.335334E-1	2.569291E-1	2.602542E-1	2.256328E-1	2.449097E-1	2.464905E-1	2.512004E-1	2.463120E-1	2.892938E-1	2.368226E-1	2.632388E-1	2.629394E-1	2.374588E-1	2.700579E-1	2.311937E-1	2.342762E-1	2.942356E-1	2.481337E-1	2.709626E-1	2.494807E-1	2.641286E-1	2.145381E-1	2.455941E-1	2.961725E-1	2.047212E-1	2.802863E-1	2.443933E-1	2.741693E-1	3.050165E-1	2.143380E-1	2.531578E-1	2.587292E-1	2.432450E-1	2.789417E-1	2.072538E-1	2.174995E-1	2.922245E-1	2.094103E-1	2.819588E-1	2.630848E-1	2.706877E-1	2.568092E-1	2.598421E-1	2.805309E-1	2.411232E-1	2.287552E-1	2.447663E-1	2.350152E-1	2.605662E-1	2.874038E-1	2.672526E-1	2.222561E-1	2.823693E-1	2.502680E-1	2.334642E-1	2.653006E-1	2.764991E-1	2.610949E-1	2.606640E-1	1.855817E-1	1.943307E-1	2.525851E-1	2.368871E-1	2.750303E-1	2.844062E-1	2.449897E-1	2.566625E-1	2.882193E-1	2.277939E-1	2.362385E-1	2.742504E-1	2.822149E-1	2.578909E-1	2.411594E-1	2.409842E-1	2.418401E-1	2.402742E-1	2.743384E-1	3.090912E-1	2.533395E-1	2.471577E-1	2.592027E-1	2.437603E-1	2.555414E-1	2.654236E-1	2.288262E-1	2.604020E-1	2.467186E-1	2.160638E-1	2.535874E-1	2.293995E-1	2.382807E-1	2.762644E-1	2.130722E-1	2.378096E-1	2.665732E-1	2.859629E-1	2.115490E-1	2.589881E-1	3.335066E-1	2.169612E-1	2.450827E-1
2.846010E+2	4.365754E-1	4.083968E-1	4.244702E-1	3.799983E-1	3.722437E-1	3.493354E-1	3.474625E-1	3.822070E-1	3.887640E-1	3.467132E-1	3.741265E-1	3.900551E-1	3.933608E-1	3.643198E-1	3.480369E-1	3.619488E-1	3.446919E-1	3.921041E-1	3.459077E-1	3.972033E-1	3.590839E-1	3.531179E-1	3.729935E-1	3.889197E-1	4.903365E-1	4.449600E-1	4.266810E-1	4.224034E-1	4.390453E-1	4.955938E-1	4.156327E-1	4.273123E-1	4.319849E-1	4.721076E-1	4.025711E-1	4.216273E-1	4.974129E-1	4.501336E-1	4.153177E-1	4.116604E-1	4.431164E-1	3.878459E-1	3.871747E-1	4.529501E-1	4.157759E-1	4.349221E-1	4.320776E-1	4.172223E-1	4.521923E-1	4.635301E-1	4.733480E-1	4.359505E-1	4.543063E-1	4.726677E-1	3.617842E-1	4.276656E-1	4.020414E-1	4.181959E-1	3.907916E-1	3.755779E-1	4.614449E-1	4.010518E-1	3.713017E-1	4.417821E-1	3.763842E-1	4.366515E-1	4.318397E-1	3.929108E-1	3.601303E-1	4.048646E-1	3.923117E-1	3.670599E-1	4.222505E-1	4.066286E-1	3.565188E-1	4.082652E-1	3.899551E-1	4.151157E-1	4.061637E-1	4.196819E-1	4.203988E-1	3.618124E-1	3.916810E-1	3.820155E-1	4.361610E-1	3.861389E-1	4.328339E-1	4.287110E-1	3.605303E-1	3.682413E-1	4.247545E-1	4.014718E-1	4.461344E-1	3.931265E-1	3.933898E-1	3.748987E-1	3.964361E-1	4.151332E-1	4.088373E-1	4.151861E-1	4.091040E-1	3.821843E-1	3.951739E-1	3.721491E-1	4.126871E-1	3.961598E-1	3.470498E-1	4.224615E-1	4.383891E-1	3.743268E-1	3.886278E-1	3.954452E-1	4.097713E-1	4.146039E-1	4.324392E-1	3.756448E-1	3.402689E-1	3.728759E-1	3.245823E-1	4.131676E-1	4.272691E-1	3.781482E-1	3.517065E-1	3.568093E-1	3.525520E-1	3.690009E-1	3.648178E-1	4.137413E-1	3.702362E-1	4.302812E-1	3.684438E-1	3.565624E-1	4.350310E-1	3.311433E-1	3.481230E-1	3.778161E-1	4.122403E-1	3.613654E-1	3.640781E-1	3.530409E-1	3.705521E-1	3.857593E-1	3.918580E-1	4.189436E-1	3.952386E-1	4.362664E-1	4.402002E-1	4.118276E-1	4.127937E-1	3.141277E-1	3.673513E-1	4.167789E-1	4.413672E-1	3.476052E-1	3.198068E-1	3.326911E-1	3.632654E-1	3.704032E-1	3.917068E-1	4.676492E-1	3.565497E-1	3.410950E-1	4.015297E-1	3.850353E-1	3.609909E-1	4.110462E-1	3.454796E-1	3.948380E-1	4.093784E-1	3.554405E-1
2.847030E+2	7.435303E-1	6.784103E-1	7.422210E-1	7.726548E-1	6.655197E-1	6.744217E-1	7.442639E-1	7.278481E-1	7.744245E-1	7.100332E-1	6.899834E-1	7.529365E-1	7.635514E-1	7.672313E-1	6.822640E-1	7.419557E-1	7.471756E-1	7.822276E-1	6.673482E-1	7.433968E-1	6.643613E-1	7.423888E-1	6.961430E-1	6.870505E-1	8.180138E-1	7.985519E-1	8.221535E-1	7.655974E-1	7.989442E-1	7.208191E-1	8.182048E-1	8.921099E-1	8.375562E-1	7.837756E-1	7.629127E-1	7.245867E-1	8.173513E-1	7.769979E-1	8.216668E-1	8.317482E-1	8.932898E-1	7.892315E-1	7.726985E-1	8.090686E-1	7.867636E-1	7.758084E-1	8.602800E-1	7.899750E-1	8.157086E-1	7.910671E-1	8.319631E-1	7.960384E-1	7.817271E-1	7.455558E-1	7.804938E-1	7.440547E-1	7.544769E-1	7.722480E-1	7.694370E-1	7.987601E-1	8.172411E-1	7.581503E-1	7.128616E-1	8.277835E-1	7.395143E-1	8.300779E-1	7.827834E-1	7.162421E-1	8.427824E-1	7.343340E-1	8.165657E-1	7.331430E-1	8.820597E-1	8.073285E-1	7.268410E-1	6.996186E-1	8.178040E-1	8.266512E-1	7.845940E-1	8.034112E-1	7.655639E-1	7.618575E-1	7.836318E-1	8.257936E-1	7.668755E-1	6.965791E-1	8.016410E-1	7.567219E-1	7.399247E-1	7.242007E-1	6.752422E-1	7.430526E-1	7.315469E-1	7.438307E-1	7.251788E-1	7.616594E-1	7.271513E-1	7.970918E-1	6.992458E-1	6.733625E-1	7.326485E-1	7.697853E-1	6.993449E-1	7.822219E-1	7.311425E-1	7.673288E-1	7.534402E-1	7.334105E-1	7.850822E-1	7.279944E-1	7.142013E-1	6.811857E-1	6.975770E-1	7.713373E-1	7.705775E-1	8.080972E-1	7.328333E-1	6.369881E-1	7.821427E-1	7.588754E-1	8.099970E-1	8.106409E-1	7.389971E-1	7.179460E-1	7.784321E-1	7.612539E-1	7.363185E-1	7.725012E-1	7.671226E-1	7.347179E-1	6.872808E-1	7.207181E-1	7.128018E-1	7.344841E-1	6.582742E-1	7.236168E-1	7.374753E-1	7.851021E-1	7.022150E-1	7.845032E-1	7.431525E-1	7.103986E-1	7.091100E-1	7.539898E-1	7.579964E-1	7.426473E-1	7.373154E-1	8.159869E-1	7.775081E-1	7.407398E-1	7.897616E-1	6.904393E-1	8.388662E-1	7.493895E-1	7.186223E-1	7.150169E-1	7.455517E-1	7.219603E-1	6.301940E-1	8.041538E-1	7.520133E-1	7.986373E-1	7.219486E-1	7.799120E-1	7.769940E-1	7.319469E-1	7.984243E-1	7.474423E-1	7.729075E-1	7.373429E-1
2.848030E+2	1.416600E+0	1.404196E+0	1.449252E+0	1.356753E+0	1.367731E+0	1.337504E+0	1.398077E+0	1.385239E+0	1.384203E+0	1.459004E+0	1.351843E+0	1.319256E+0	1.405530E+0	1.395339E+0	1.307026E+0	1.378842E+0	1.343528E+0	1.449947E+0	1.298620E+0	1.481615E+0	1.443728E+0	1.416510E+0	1.410917E+0	1.471841E+0	1.481799E+0	1.488907E+0	1.466641E+0	1.429712E+0	1.397894E+0	1.346081E+0	1.420655E+0	1.368345E+0	1.445313E+0	1.407344E+0	1.325327E+0	1.499643E+0	1.446511E+0	1.378815E+0	1.413436E+0	1.480982E+0	1.466639E+0	1.381079E+0	1.355661E+0	1.444052E+0	1.449811E+0	1.440953E+0	1.431928E+0	1.466237E+0	1.460771E+0	1.481978E+0	1.468522E+0	1.480191E+0	1.390824E+0	1.322396E+0	1.432488E+0	1.407853E+0	1.537268E+0	1.513498E+0	1.490658E+0	1.435202E+0	1.422917E+0	1.439177E+0	1.392127E+0	1.357069E+0	1.373557E+0	1.347881E+0	1.478196E+0	1.358486E+0	1.401723E+0	1.407512E+0	1.387164E+0	1.335931E+0	1.425881E+0	1.512927E+0	1.435341E+0	1.343643E+0	1.342580E+0	1.386476E+0	1.421169E+0	1.454193E+0	1.375632E+0	1.450206E+0	1.360653E+0	1.380690E+0	1.443619E+0	1.399757E+0	1.409959E+0	1.410296E+0	1.435212E+0	1.467301E+0	1.451915E+0	1.394846E+0	1.405043E+0	1.455851E+0	1.505218E+0	1.394686E+0	1.347940E+0	1.368066E+0	1.431111E+0	1.367059E+0	1.401630E+0	1.456491E+0	1.465971E+0	1.401958E+0	1.423509E+0	1.346476E+0	1.419051E+0	1.465040E+0	1.473917E+0	1.409822E+0	1.480615E+0	1.582023E+0	1.499086E+0	1.557985E+0	1.545913E+0	1.369509E+0	1.453721E+0	1.341757E+0	1.458242E+0	1.471203E+0	1.450832E+0	1.446984E+0	1.542274E+0	1.442514E+0	1.488995E+0	1.379187E+0	1.375505E+0	1.596292E+0	1.422632E+0	1.476784E+0	1.319818E+0	1.288962E+0	1.469725E+0	1.260000E+0	1.370248E+0	1.480743E+0	1.468089E+0	1.420344E+0	1.376559E+0	1.476543E+0	1.434778E+0	1.326627E+0	1.322794E+0	1.470489E+0	1.458776E+0	1.439201E+0	1.479077E+0	1.423403E+0	1.364801E+0	1.472920E+0	1.353519E+0	1.358809E+0	1.362569E+0	1.298375E+0	1.408428E+0	1.350164E+0	1.335381E+0	1.440695E+0	1.427686E+0	1.438407E+0	1.341921E+0	1.352268E+0	1.315318E+0	1.416018E+0	1.449945E+0	1.421805E+0	1.342289E+0	1.569026E+0	1.397777E+0	1.673239E+0
2.849020E+2	1.643648E+0	1.675348E+0	1.568799E+0	1.565945E+0	1.605944E+0	1.640965E+0	1.529302E+0	1.452711E+0	1.578352E+0	1.597801E+0	1.708231E+0	1.702629E+0	1.679080E+0	1.708423E+0	1.621110E+0	1.538084E+0	1.549869E+0	1.612938E+0	1.567945E+0	1.712006E+0	1.688753E+0	1.477703E+0	1.583098E+0	1.625257E+0	1.640601E+0	1.516570E+0	1.509740E+0	1.461435E+0	1.507725E+0	1.674583E+0	1.572316E+0	1.574189E+0	1.495937E+0	1.599352E+0	1.526332E+0	1.492586E+0	1.479021E+0	1.568389E+0	1.637235E+0	1.656543E+0	1.654261E+0	1.594949E+0	1.510086E+0	1.553527E+0	1.546123E+0	1.623978E+0	1.546954E+0	1.526257E+0	1.491770E+0	1.509953E+0	1.575308E+0	1.615362E+0	1.464385E+0	1.543580E+0	1.597200E+0	1.630147E+0	1.625732E+0	1.670339E+0	1.637704E+0	1.566765E+0	1.731147E+0	1.548440E+0	1.421943E+0	1.665710E+0	1.521159E+0	1.590060E+0	1.535530E+0	1.514691E+0	1.677572E+0	1.692195E+0	1.596913E+0	1.477823E+0	1.648708E+0	1.553472E+0	1.564609E+0	1.547026E+0	1.716210E+0	1.590348E+0	1.677691E+0	1.603015E+0	1.673739E+0	1.446973E+0	1.465772E+0	1.734054E+0	1.653968E+0	1.501680E+0	1.504083E+0	1.619361E+0	1.637216E+0	1.520210E+0	1.567020E+0	1.535879E+0	1.576617E+0	1.588581E+0	1.578498E+0	1.614119E+0	1.580482E+0	1.558643E+0	1.631983E+0	1.496800E+0	1.581295E+0	1.623174E+0	1.587544E+0	1.511179E+0	1.629026E+0	1.524612E+0	1.660791E+0	1.637661E+0	1.543550E+0	1.482852E+0	1.616815E+0	1.611354E+0	1.664399E+0	1.532906E+0	1.531789E+0	1.507179E+0	1.674718E+0	1.557457E+0	1.563439E+0	1.657050E+0	1.608167E+0	1.555727E+0	1.609650E+0	1.573140E+0	1.513955E+0	1.609279E+0	1.589605E+0	1.562701E+0	1.634993E+0	1.512330E+0	1.620621E+0	1.558819E+0	1.533664E+0	1.558805E+0	1.330610E+0	1.604178E+0	1.650112E+0	1.503761E+0	1.468240E+0	1.645708E+0	1.618216E+0	1.657107E+0	1.523245E+0	1.560658E+0	1.691416E+0	1.555760E+0	1.550580E+0	1.559296E+0	1.615757E+0	1.536916E+0	1.583557E+0	1.616468E+0	1.702505E+0	1.531984E+0	1.591716E+0	1.521298E+0	1.575413E+0	1.636455E+0	1.502572E+0	1.666567E+0	1.570183E+0	1.504378E+0	1.483368E+0	1.528999E+0	1.568817E+0	1.563346E+0	1.562660E+0	1.535280E+0	1.569826E+0	1.492438E+0
2.850030E+2	1.431329E+0	1.384886E+0	1.364369E+0	1.431576E+0	1.357686E+0	1.364130E+0	1.410443E+0	1.414082E+0	1.389869E+0	1.402222E+0	1.472929E+0	1.388026E+0	1.435310E+0	1.548608E+0	1.460955E+0	1.486147E+0	1.473995E+0	1.440060E+0	1.340284E+0	1.375525E+0	1.401811E+0	1.491974E+0	1.342218E+0	1.552235E+0	1.344182E+0	1.442051E+0	1.223601E+0	1.449409E+0	1.412684E+0	1.358285E+0	1.381042E+0	1.390549E+0	1.336272E+0	1.429242E+0	1.378224E+0	1.352146E+0	1.400548E+0	1.343707E+0	1.437248E+0	1.395796E+0	1.469413E+0	1.449059E+0	1.348044E+0	1.350038E+0	1.428738E+0	1.356486E+0	1.381787E+0	1.451942E+0	1.412900E+0	1.381575E+0	1.441966E+0	1.375500E+0	1.327070E+0	1.369204E+0	1.352650E+0	1.414470E+0	1.470656E+0	1.396300E+0	1.406254E+0	1.419015E+0	1.357278E+0	1.447067E+0	1.462566E+0	1.416945E+0	1.357176E+0	1.390399E+0	1.443601E+0	1.419387E+0	1.402765E+0	1.389180E+0	1.454448E+0	1.407766E+0	1.394518E+0	1.347673E+0	1.270263E+0	1.384877E+0	1.390798E+0	1.377891E+0	1.435685E+0	1.370269E+0	1.407301E+0	1.433661E+0	1.457731E+0	1.444084E+0	1.378706E+0	1.474094E+0	1.384357E+0	1.383694E+0	1.530199E+0	1.346986E+0	1.323292E+0	1.523045E+0	1.468603E+0	1.380664E+0	1.348080E+0	1.417480E+0	1.424230E+0	1.354743E+0	1.296727E+0	1.405318E+0	1.479756E+0	1.484449E+0	1.325261E+0	1.324104E+0	1.350897E+0	1.407746E+0	1.456676E+0	1.418681E+0	1.475815E+0	1.419188E+0	1.436925E+0	1.443174E+0	1.372461E+0	1.430102E+0	1.446888E+0	1.457126E+0	1.439152E+0	1.339743E+0	1.437118E+0	1.458214E+0	1.498576E+0	1.363676E+0	1.413930E+0	1.397143E+0	1.460209E+0	1.500345E+0	1.425176E+0	1.533478E+0	1.407117E+0	1.452883E+0	1.448921E+0	1.464747E+0	1.482771E+0	1.408761E+0	1.332767E+0	1.513786E+0	1.425305E+0	1.370188E+0	1.343897E+0	1.535041E+0	1.356839E+0	1.494595E+0	1.476954E+0	1.467519E+0	1.489512E+0	1.448479E+0	1.349608E+0	1.454731E+0	1.431794E+0	1.427688E+0	1.346451E+0	1.482682E+0	1.541077E+0	1.313784E+0	1.390496E+0	1.339799E+0	1.410279E+0	1.448440E+0	1.454463E+0	1.435338E+0	1.410492E+0	1.425911E+0	1.460808E+0	1.425663E+0	1.452465E+0	1.375440E+0	1.393704E+0	1.494842E+0	1.516193E+0	1.601532E+0
2.851080E+2	1.346655E+0	1.370377E+0	1.294050E+0	1.289192E+0	1.346420E+0	1.350874E+0	1.245661E+0	1.273123E+0	1.396413E+0	1.375753E+0	1.412650E+0	1.320640E+0	1.288578E+0	1.358371E+0	1.381228E+0	1.331964E+0	1.294614E+0	1.416598E+0	1.350257E+0	1.381254E+0	1.381656E+0	1.296984E+0	1.243817E+0	1.351708E+0	1.336466E+0	1.368444E+0	1.265346E+0	1.281194E+0	1.348835E+0	1.343440E+0	1.355664E+0	1.334243E+0	1.254107E+0	1.326682E+0	1.316578E+0	1.315069E+0	1.296354E+0	1.289476E+0	1.296690E+0	1.336981E+0	1.360482E+0	1.328311E+0	1.349289E+0	1.341083E+0	1.268568E+0	1.344031E+0	1.406556E+0	1.266710E+0	1.320276E+0	1.325618E+0	1.329296E+0	1.308471E+0	1.301879E+0	1.302547E+0	1.240851E+0	1.358196E+0	1.441559E+0	1.409597E+0	1.264874E+0	1.362131E+0	1.383225E+0	1.273541E+0	1.366070E+0	1.261845E+0	1.281517E+0	1.398948E+0	1.282899E+0	1.298248E+0	1.415402E+0	1.263734E+0	1.316843E+0	1.294843E+0	1.318666E+0	1.312425E+0	1.338656E+0	1.272061E+0	1.387474E+0	1.344291E+0	1.369257E+0	1.317100E+0	1.316933E+0	1.391300E+0	1.345463E+0	1.307233E+0	1.330227E+0	1.281111E+0	1.331162E+0	1.314174E+0	1.379417E+0	1.247854E+0	1.299644E+0	1.320236E+0	1.375679E+0	1.347680E+0	1.385564E+0	1.410295E+0	1.365525E+0	1.372474E+0	1.295990E+0	1.239713E+0	1.372688E+0	1.389595E+0	1.302025E+0	1.229537E+0	1.364789E+0	1.397177E+0	1.314377E+0	1.272874E+0	1.462426E+0	1.340107E+0	1.401214E+0	1.377044E+0	1.348259E+0	1.332132E+0	1.422742E+0	1.276816E+0	1.301942E+0	1.377248E+0	1.309387E+0	1.339779E+0	1.274158E+0	1.354117E+0	1.427090E+0	1.331136E+0	1.274386E+0	1.288276E+0	1.327390E+0	1.342045E+0	1.317255E+0	1.299321E+0	1.340496E+0	1.351002E+0	1.352377E+0	1.274985E+0	1.121697E+0	1.276908E+0	1.347084E+0	1.399337E+0	1.221881E+0	1.383248E+0	1.387852E+0	1.365598E+0	1.277112E+0	1.310601E+0	1.321479E+0	1.283380E+0	1.363949E+0	1.268496E+0	1.275060E+0	1.397060E+0	1.327687E+0	1.284033E+0	1.428570E+0	1.226060E+0	1.366748E+0	1.350761E+0	1.396100E+0	1.365772E+0	1.343739E+0	1.378822E+0	1.405888E+0	1.403746E+0	1.247605E+0	1.320710E+0	1.324041E+0	1.222305E+0	1.346317E+0	1.480671E+0	1.415376E+0	1.339067E+0
2.852010E+2	1.376038E+0	1.229188E+0	1.289218E+0	1.291452E+0	1.204722E+0	1.286071E+0	1.221912E+0	1.240717E+0	1.211063E+0	1.278461E+0	1.286570E+0	1.247265E+0	1.306114E+0	1.308514E+0	1.386552E+0	1.260534E+0	1.271214E+0	1.278353E+0	1.305842E+0	1.355348E+0	1.249398E+0	1.254744E+0	1.150001E+0	1.253558E+0	1.310709E+0	1.324531E+0	1.255525E+0	1.333476E+0	1.291633E+0	1.377711E+0	1.218298E+0	1.233588E+0	1.190630E+0	1.316618E+0	1.247637E+0	1.270490E+0	1.188608E+0	1.345288E+0	1.309714E+0	1.284396E+0	1.356839E+0	1.324086E+0	1.232609E+0	1.264817E+0	1.303404E+0	1.257756E+0	1.404770E+0	1.311955E+0	1.266260E+0	1.275284E+0	1.216523E+0	1.374807E+0	1.280977E+0	1.256668E+0	1.274211E+0	1.235412E+0	1.251800E+0	1.391720E+0	1.371263E+0	1.246478E+0	1.284131E+0	1.190551E+0	1.309879E+0	1.381738E+0	1.261186E+0	1.236433E+0	1.322893E+0	1.283603E+0	1.346417E+0	1.337006E+0	1.191970E+0	1.324102E+0	1.369673E+0	1.341428E+0	1.165839E+0	1.319776E+0	1.231383E+0	1.339847E+0	1.293372E+0	1.255095E+0	1.324164E+0	1.265653E+0	1.290445E+0	1.315965E+0	1.406220E+0	1.256496E+0	1.286736E+0	1.357509E+0	1.346002E+0	1.334806E+0	1.226935E+0	1.177434E+0	1.271190E+0	1.300588E+0	1.256225E+0	1.245020E+0	1.345225E+0	1.262342E+0	1.231079E+0	1.314071E+0	1.375199E+0	1.335587E+0	1.341663E+0	1.268077E+0	1.333628E+0	1.276017E+0	1.267828E+0	1.231111E+0	1.295096E+0	1.280319E+0	1.341861E+0	1.226037E+0	1.280284E+0	1.373801E+0	1.347353E+0	1.281052E+0	1.335832E+0	1.260957E+0	1.260908E+0	1.361773E+0	1.368673E+0	1.305075E+0	1.362440E+0	1.183037E+0	1.229428E+0	1.367478E+0	1.324457E+0	1.391669E+0	1.257470E+0	1.319753E+0	1.279852E+0	1.255949E+0	1.252787E+0	1.284256E+0	1.172242E+0	1.262734E+0	1.286653E+0	1.276383E+0	1.230887E+0	1.320594E+0	1.344207E+0	1.384290E+0	1.219139E+0	1.308496E+0	1.312799E+0	1.210004E+0	1.293718E+0	1.207119E+0	1.384804E+0	1.267231E+0	1.248755E+0	1.208790E+0	1.291034E+0	1.176801E+0	1.259620E+0	1.233763E+0	1.365542E+0	1.247008E+0	1.316743E+0	1.257904E+0	1.255460E+0	1.276101E+0	1.192079E+0	1.221264E+0	1.185348E+0	1.262060E+0	1.356210E+0	1.299201E+0	1.259019E+0	1.293522E+0
2.853000E+2	9.297802E-1	9.679657E-1	9.374813E-1	1.018139E+0	9.614877E-1	9.386504E-1	9.709675E-1	8.727384E-1	1.085099E+0	9.668233E-1	9.170140E-1	9.867590E-1	9.148862E-1	9.596514E-1	8.997670E-1	9.494582E-1	9.590412E-1	9.684838E-1	1.062172E+0	1.007744E+0	9.990206E-1	9.100029E-1	9.198473E-1	9.072603E-1	9.164007E-1	9.250083E-1	9.609182E-1	9.306341E-1	9.637011E-1	1.006261E+0	9.975965E-1	9.844911E-1	9.318238E-1	9.821814E-1	9.940483E-1	8.870861E-1	9.991396E-1	9.052920E-1	9.584963E-1	9.908738E-1	1.001641E+0	1.061627E+0	9.798995E-1	8.932812E-1	9.312482E-1	9.713889E-1	9.699262E-1	1.010810E+0	9.887387E-1	9.807948E-1	9.613794E-1	1.004316E+0	9.999436E-1	8.751736E-1	9.823169E-1	9.920839E-1	9.435754E-1	9.928013E-1	9.377369E-1	9.674547E-1	9.970755E-1	9.388369E-1	8.780039E-1	9.975313E-1	9.852973E-1	9.545155E-1	1.093927E+0	9.837536E-1	1.050759E+0	9.287903E-1	8.950587E-1	9.221345E-1	9.572553E-1	9.744759E-1	8.788957E-1	1.014984E+0	1.043047E+0	8.719381E-1	1.029207E+0	9.378418E-1	1.014318E+0	8.753610E-1	9.476567E-1	1.008719E+0	9.546437E-1	9.051079E-1	1.013435E+0	9.135560E-1	9.804049E-1	1.000417E+0	9.413308E-1	9.020899E-1	9.365455E-1	9.693058E-1	9.662081E-1	9.939616E-1	9.308454E-1	9.408826E-1	8.768585E-1	9.563135E-1	8.835932E-1	9.699386E-1	1.035074E+0	9.490631E-1	9.771652E-1	9.635094E-1	1.004937E+0	9.673319E-1	9.962784E-1	9.188022E-1	9.332944E-1	9.993407E-1	1.009619E+0	9.784976E-1	9.404256E-1	9.216956E-1	9.880685E-1	9.820922E-1	9.591992E-1	9.619327E-1	9.703016E-1	9.659559E-1	9.620044E-1	9.416297E-1	9.913497E-1	9.795026E-1	1.012213E+0	9.294822E-1	9.694937E-1	9.129422E-1	8.864032E-1	9.901275E-1	9.982426E-1	9.065208E-1	8.773876E-1	9.986693E-1	1.058125E+0	1.040162E+0	7.994379E-1	9.412432E-1	9.763269E-1	1.022738E+0	9.484016E-1	9.798443E-1	9.846400E-1	9.926155E-1	1.016583E+0	9.889907E-1	9.293661E-1	9.790669E-1	9.214781E-1	9.949812E-1	9.737769E-1	8.656750E-1	9.171223E-1	9.823714E-1	9.187262E-1	9.206577E-1	9.961152E-1	9.942762E-1	1.014267E+0	9.548468E-1	9.449665E-1	9.907660E-1	9.046697E-1	9.104028E-1	9.629306E-1	1.073253E+0	1.167457E+0	9.953724E-1
2.854130E+2	7.148862E-1	7.278235E-1	7.476901E-1	7.179016E-1	7.687479E-1	7.628954E-1	6.984501E-1	7.286075E-1	6.891660E-1	7.327277E-1	7.565570E-1	6.835265E-1	6.783367E-1	6.486166E-1	6.949039E-1	6.624335E-1	5.902903E-1	6.993433E-1	6.305695E-1	6.992223E-1	7.162265E-1	6.487257E-1	6.510791E-1	7.385638E-1	7.316771E-1	6.670844E-1	7.854406E-1	7.352124E-1	7.134817E-1	7.600464E-1	7.146514E-1	7.823101E-1	7.115050E-1	7.057640E-1	7.101723E-1	7.153573E-1	6.805822E-1	7.176830E-1	7.933435E-1	7.089672E-1	7.736344E-1	7.117884E-1	7.462497E-1	6.852169E-1	6.753744E-1	6.581927E-1	7.252955E-1	6.673140E-1	7.455401E-1	6.854311E-1	7.287207E-1	6.474206E-1	7.222436E-1	7.375672E-1	6.863278E-1	7.243040E-1	7.222550E-1	8.151108E-1	6.683123E-1	7.147488E-1	7.185010E-1	7.297452E-1	6.345036E-1	7.443129E-1	7.063759E-1	7.453421E-1	7.017862E-1	7.056530E-1	6.714120E-1	7.016844E-1	6.453972E-1	7.230327E-1	7.512117E-1	7.218900E-1	7.068453E-1	7.210718E-1	7.149601E-1	7.393913E-1	7.546186E-1	6.691042E-1	6.840035E-1	6.842909E-1	6.530344E-1	7.616655E-1	7.372742E-1	6.855294E-1	6.893806E-1	7.252156E-1	6.801613E-1	7.025886E-1	6.593142E-1	7.048729E-1	7.482012E-1	7.130074E-1	7.178710E-1	7.275141E-1	6.345621E-1	7.183664E-1	6.506710E-1	6.872941E-1	6.879171E-1	7.860133E-1	6.501710E-1	7.018610E-1	6.701745E-1	6.945316E-1	6.847199E-1	7.015743E-1	7.698107E-1	7.150517E-1	7.098683E-1	7.537794E-1	7.049944E-1	6.562280E-1	7.163324E-1	7.095826E-1	7.038071E-1	7.188469E-1	7.508446E-1	7.468714E-1	7.358626E-1	7.616305E-1	6.672554E-1	6.916356E-1	7.484855E-1	7.475739E-1	7.130925E-1	7.142535E-1	7.982113E-1	7.523209E-1	6.718720E-1	7.099156E-1	6.919978E-1	6.634782E-1	7.179680E-1	6.677007E-1	7.091210E-1	7.115958E-1	6.543073E-1	6.518115E-1	7.941616E-1	7.909303E-1	6.489207E-1	6.862764E-1	7.730351E-1	6.646803E-1	7.126690E-1	6.825700E-1	7.358758E-1	7.146836E-1	7.258010E-1	7.358956E-1	6.925486E-1	6.506165E-1	7.060803E-1	5.512289E-1	7.247242E-1	7.157188E-1	7.303050E-1	6.527250E-1	7.702063E-1	7.379567E-1	6.883440E-1	7.173766E-1	7.154622E-1	7.059287E-1	6.319515E-1	7.108515E-1	8.145419E-1	6.752376E-1
2.855050E+2	5.002837E-1	4.786869E-1	5.355290E-1	5.061940E-1	5.113878E-1	5.086414E-1	5.371477E-1	5.240170E-1	5.120265E-1	5.855748E-1	5.992201E-1	5.206711E-1	5.284307E-1	5.376856E-1	5.293731E-1	5.280535E-1	5.652606E-1	5.450422E-1	4.794601E-1	5.375644E-1	5.539916E-1	5.483670E-1	4.288439E-1	5.183926E-1	5.344631E-1	5.396905E-1	4.656580E-1	4.837253E-1	5.134658E-1	6.006299E-1	5.830978E-1	5.015419E-1	5.369910E-1	5.138591E-1	5.430986E-1	5.593775E-1	5.290026E-1	5.460282E-1	5.487588E-1	5.793446E-1	5.941944E-1	5.564298E-1	5.640642E-1	5.687626E-1	5.347744E-1	5.647399E-1	5.381842E-1	5.656917E-1	5.252643E-1	5.185056E-1	5.018724E-1	5.511896E-1	5.791076E-1	5.931568E-1	4.983929E-1	5.137662E-1	5.978437E-1	5.490830E-1	5.039843E-1	5.213704E-1	5.584986E-1	5.355444E-1	5.210656E-1	5.557435E-1	5.180065E-1	5.137777E-1	5.291018E-1	5.446828E-1	5.635223E-1	5.356906E-1	4.966380E-1	4.994666E-1	5.635376E-1	5.244606E-1	5.238254E-1	5.396705E-1	5.509618E-1	5.224053E-1	5.298293E-1	5.299405E-1	4.790534E-1	5.053676E-1	5.255835E-1	4.940624E-1	5.498880E-1	4.886060E-1	5.531778E-1	5.403930E-1	5.282392E-1	5.113448E-1	5.247555E-1	5.085778E-1	5.520112E-1	5.018495E-1	5.102853E-1	5.617829E-1	5.172402E-1	5.173228E-1	5.088497E-1	4.992561E-1	5.518656E-1	5.047267E-1	5.047365E-1	5.132685E-1	4.730825E-1	5.417980E-1	4.762901E-1	5.674418E-1	5.135688E-1	4.777791E-1	4.599531E-1	4.885076E-1	4.962811E-1	4.749939E-1	5.288587E-1	5.191556E-1	5.745569E-1	5.233739E-1	5.083632E-1	5.684778E-1	5.668191E-1	5.256411E-1	5.230991E-1	5.209616E-1	5.227078E-1	5.122333E-1	5.421058E-1	5.621953E-1	5.482447E-1	4.978920E-1	5.615647E-1	5.188399E-1	5.161502E-1	5.542805E-1	5.532658E-1	4.756425E-1	5.614800E-1	5.195434E-1	5.600668E-1	4.772535E-1	5.295133E-1	5.476991E-1	4.533151E-1	5.843130E-1	6.065009E-1	5.787375E-1	5.486739E-1	5.751097E-1	4.778174E-1	5.370712E-1	5.050723E-1	5.265920E-1	5.207476E-1	5.497316E-1	5.236674E-1	5.305999E-1	4.536192E-1	5.559275E-1	5.542815E-1	5.794960E-1	4.672882E-1	5.832415E-1	5.300629E-1	5.578363E-1	5.374287E-1	4.783257E-1	5.997190E-1	5.154515E-1	5.453408E-1	5.735093E-1
2.856030E+2	3.644713E-1	3.604786E-1	3.860182E-1	3.660250E-1	3.398463E-1	3.531161E-1	3.910681E-1	3.952588E-1	3.800489E-1	4.020049E-1	3.319512E-1	3.845731E-1	3.459374E-1	3.894400E-1	3.564713E-1	3.411153E-1	3.494327E-1	3.510126E-1	3.475989E-1	3.782332E-1	3.357108E-1	4.278745E-1	3.796005E-1	3.535488E-1	3.901823E-1	3.746697E-1	3.480273E-1	3.803307E-1	3.951910E-1	3.856168E-1	3.478913E-1	3.297438E-1	3.469199E-1	3.463354E-1	3.922663E-1	3.377085E-1	3.535009E-1	3.183146E-1	4.164321E-1	3.791672E-1	3.922804E-1	3.665735E-1	3.497334E-1	3.282110E-1	3.694439E-1	3.856196E-1	3.064254E-1	3.873519E-1	3.766523E-1	3.761898E-1	3.655087E-1	3.683248E-1	3.445669E-1	3.565675E-1	4.098916E-1	3.434825E-1	3.976206E-1	3.722912E-1	3.674983E-1	3.303772E-1	3.661448E-1	3.632875E-1	3.458474E-1	3.617461E-1	3.385210E-1	3.914260E-1	3.386607E-1	3.456487E-1	3.366910E-1	3.638666E-1	3.222757E-1	3.525463E-1	3.586357E-1	3.276553E-1	3.526893E-1	3.660303E-1	4.016441E-1	3.561640E-1	3.729925E-1	3.112114E-1	3.477821E-1	3.611084E-1	3.642148E-1	3.581041E-1	4.071405E-1	4.065781E-1	3.424203E-1	3.813845E-1	3.155386E-1	3.363952E-1	3.449110E-1	3.372596E-1	3.415912E-1	3.715779E-1	3.476892E-1	3.752382E-1	3.587704E-1	3.107643E-1	3.318214E-1	3.143438E-1	3.843330E-1	3.575400E-1	3.567759E-1	3.508040E-1	3.575120E-1	3.463336E-1	3.559270E-1	4.272977E-1	3.659384E-1	3.482554E-1	4.054703E-1	4.276438E-1	3.791252E-1	3.567731E-1	3.645158E-1	3.551221E-1	3.909370E-1	3.429028E-1	3.630686E-1	3.665082E-1	3.226557E-1	3.433094E-1	3.477451E-1	3.251629E-1	3.867580E-1	3.852662E-1	3.697189E-1	3.541510E-1	3.782383E-1	3.179779E-1	3.572848E-1	3.391395E-1	3.854384E-1	3.612293E-1	3.828745E-1	3.550874E-1	3.750040E-1	3.302494E-1	3.571675E-1	3.611109E-1	4.138294E-1	3.607006E-1	3.464780E-1	3.979089E-1	3.486980E-1	4.000510E-1	3.943247E-1	3.802788E-1	3.868727E-1	4.063258E-1	3.674627E-1	3.337845E-1	3.707428E-1	3.460536E-1	3.940295E-1	3.728204E-1	3.648038E-1	4.095130E-1	3.494778E-1	3.906493E-1	3.691873E-1	3.099932E-1	3.424303E-1	3.778069E-1	3.851379E-1	3.591375E-1	3.491161E-1	3.948280E-1	3.832413E-1	3.565286E-1
2.858030E+2	4.200185E-1	4.335917E-1	4.215616E-1	4.459205E-1	4.208750E-1	4.817858E-1	4.766416E-1	4.822746E-1	4.649775E-1	5.228326E-1	4.631274E-1	4.780367E-1	4.366385E-1	5.154106E-1	4.471262E-1	4.134410E-1	4.229680E-1	4.682107E-1	4.461845E-1	4.638802E-1	4.912551E-1	4.516487E-1	4.934652E-1	4.259548E-1	5.065699E-1	4.574418E-1	4.862544E-1	4.289508E-1	4.937547E-1	4.906337E-1	4.794892E-1	4.826121E-1	4.662594E-1	4.265043E-1	5.245685E-1	4.782135E-1	4.649153E-1	4.585963E-1	4.399148E-1	4.406053E-1	4.703146E-1	4.523010E-1	4.660262E-1	4.680789E-1	5.017745E-1	4.592722E-1	5.285824E-1	5.020772E-1	4.726054E-1	5.257485E-1	4.493345E-1	4.409476E-1	4.568074E-1	4.209073E-1	5.042350E-1	5.674872E-1	4.318475E-1	4.680501E-1	4.391251E-1	4.315668E-1	4.659292E-1	4.521429E-1	4.435142E-1	5.232104E-1	4.503837E-1	4.785830E-1	4.208810E-1	4.734149E-1	4.331679E-1	4.714528E-1	4.725524E-1	4.506956E-1	4.605430E-1	4.659256E-1	4.202346E-1	4.628269E-1	4.608333E-1	4.450532E-1	4.620018E-1	4.855719E-1	4.797814E-1	4.590606E-1	5.054900E-1	5.116134E-1	4.945448E-1	4.866002E-1	4.792330E-1	4.899377E-1	4.823697E-1	4.613870E-1	4.746181E-1	4.540590E-1	4.085104E-1	4.732511E-1	4.540405E-1	4.251645E-1	4.191493E-1	4.868448E-1	5.348737E-1	4.523537E-1	5.064278E-1	4.773384E-1	4.820095E-1	4.765939E-1	4.827657E-1	4.187071E-1	4.723318E-1	4.429070E-1	4.697616E-1	4.462852E-1	4.917656E-1	4.726227E-1	4.816656E-1	5.012735E-1	4.877684E-1	4.598897E-1	4.749991E-1	4.476588E-1	4.587791E-1	4.579578E-1	4.753363E-1	5.265884E-1	4.560082E-1	4.642925E-1	4.135126E-1	3.869008E-1	4.654137E-1	4.824016E-1	4.666905E-1	4.643206E-1	4.579421E-1	4.451060E-1	4.818406E-1	4.562458E-1	4.395360E-1	4.989323E-1	4.136679E-1	4.749487E-1	4.079672E-1	4.651460E-1	5.137930E-1	4.848911E-1	4.909559E-1	5.273949E-1	4.531168E-1	5.019517E-1	4.496738E-1	4.580619E-1	4.702051E-1	4.973780E-1	4.381528E-1	4.450854E-1	4.873179E-1	3.997004E-1	4.004763E-1	4.434324E-1	4.895812E-1	4.372381E-1	5.034682E-1	5.338524E-1	4.706331E-1	4.673121E-1	4.105510E-1	5.218652E-1	4.933692E-1	4.629773E-1	3.415057E-1	4.418148E-1	4.148971E-1	4.302145E-1
2.860040E+2	7.810551E-1	8.141821E-1	8.516711E-1	7.975071E-1	7.939591E-1	8.143888E-1	8.225828E-1	8.304058E-1	7.778152E-1	8.557743E-1	8.195076E-1	8.370364E-1	8.273685E-1	8.581038E-1	8.413567E-1	7.564697E-1	7.492082E-1	7.838981E-1	8.326858E-1	9.476091E-1	8.978137E-1	7.951367E-1	8.683233E-1	8.857079E-1	9.112088E-1	9.336500E-1	8.246305E-1	8.660011E-1	8.492608E-1	8.707708E-1	7.483577E-1	8.724674E-1	8.341855E-1	8.632210E-1	7.937573E-1	8.438623E-1	8.956062E-1	8.437466E-1	8.613535E-1	8.037258E-1	9.192946E-1	8.300982E-1	8.394436E-1	8.555587E-1	8.439475E-1	7.800723E-1	8.239864E-1	9.222254E-1	8.554612E-1	8.461858E-1	7.639799E-1	8.270890E-1	7.594353E-1	8.728514E-1	8.324551E-1	8.104937E-1	8.838149E-1	9.001301E-1	8.538266E-1	8.316593E-1	7.951400E-1	7.999222E-1	7.854659E-1	8.155259E-1	8.439409E-1	8.511548E-1	8.359565E-1	8.356496E-1	8.015996E-1	7.764860E-1	7.656068E-1	8.406113E-1	8.623983E-1	8.814069E-1	7.294938E-1	8.203652E-1	8.112923E-1	8.168516E-1	8.531778E-1	7.859533E-1	7.778242E-1	8.551498E-1	8.446902E-1	8.974960E-1	8.962479E-1	7.674763E-1	8.187960E-1	8.192028E-1	8.275017E-1	8.453755E-1	8.745055E-1	7.672781E-1	8.114698E-1	8.069548E-1	8.801088E-1	8.425729E-1	8.360965E-1	8.776664E-1	8.010090E-1	7.866849E-1	8.702840E-1	8.614039E-1	7.943903E-1	7.978177E-1	8.808187E-1	8.247672E-1	8.429429E-1	7.944234E-1	7.948723E-1	8.196384E-1	8.708887E-1	8.424770E-1	8.562429E-1	8.747519E-1	8.199718E-1	7.546466E-1	7.919484E-1	7.770768E-1	8.197162E-1	8.167904E-1	8.154897E-1	8.160879E-1	8.488685E-1	8.641678E-1	8.942071E-1	8.184563E-1	8.664682E-1	8.498704E-1	7.516825E-1	8.018482E-1	8.954339E-1	8.087231E-1	7.869689E-1	8.272568E-1	7.490154E-1	8.603406E-1	8.572686E-1	7.811740E-1	7.547049E-1	8.747403E-1	8.888687E-1	8.833669E-1	7.311748E-1	8.130413E-1	8.214284E-1	7.472128E-1	8.570266E-1	8.208683E-1	8.206979E-1	8.161110E-1	7.737837E-1	8.129740E-1	8.478900E-1	7.901125E-1	7.980694E-1	8.042779E-1	8.555111E-1	7.771096E-1	7.661775E-1	8.284042E-1	8.463829E-1	8.327040E-1	8.465564E-1	8.039395E-1	8.310046E-1	8.204150E-1	7.903574E-1	7.878755E-1	8.230421E-1	8.627863E-1
2.862020E+2	1.253392E+0	1.172654E+0	1.156117E+0	1.240897E+0	1.276112E+0	1.297802E+0	1.224637E+0	1.148021E+0	1.349890E+0	1.209800E+0	1.184962E+0	1.178052E+0	1.260099E+0	1.281791E+0	1.223602E+0	1.254173E+0	1.172257E+0	1.216416E+0	1.173450E+0	1.448559E+0	1.156376E+0	1.187601E+0	1.213512E+0	1.121418E+0	1.133273E+0	1.131522E+0	1.266758E+0	1.226958E+0	1.168104E+0	1.212081E+0	1.141101E+0	1.105592E+0	1.245322E+0	1.284133E+0	1.150904E+0	1.135278E+0	1.240398E+0	1.221647E+0	1.238606E+0	1.183992E+0	1.208635E+0	1.183343E+0	1.334950E+0	1.126531E+0	1.201582E+0	1.191124E+0	1.132449E+0	1.235565E+0	1.268683E+0	1.235055E+0	1.237947E+0	1.231905E+0	1.195799E+0	1.192724E+0	1.233251E+0	1.272286E+0	1.175323E+0	1.232796E+0	1.217437E+0	1.187251E+0	1.206770E+0	1.200229E+0	1.207935E+0	1.240191E+0	1.077763E+0	1.133269E+0	1.244120E+0	1.069709E+0	1.197446E+0	1.143281E+0	1.134882E+0	1.197953E+0	1.185405E+0	1.188421E+0	1.097009E+0	1.227209E+0	1.265468E+0	1.236286E+0	1.162554E+0	1.131622E+0	1.267184E+0	1.207876E+0	1.173350E+0	1.261452E+0	1.258991E+0	1.190311E+0	1.202391E+0	1.182508E+0	1.162569E+0	1.145500E+0	1.206651E+0	1.210372E+0	1.200068E+0	1.213194E+0	1.308037E+0	1.171119E+0	1.141306E+0	1.200916E+0	1.147038E+0	1.146525E+0	1.239088E+0	1.258913E+0	1.167956E+0	1.174353E+0	1.200819E+0	1.206954E+0	1.197069E+0	1.116432E+0	1.214113E+0	1.195954E+0	1.240912E+0	1.287896E+0	1.245885E+0	1.283739E+0	1.218186E+0	1.241215E+0	1.252971E+0	1.240605E+0	1.146631E+0	1.233240E+0	1.162656E+0	1.219158E+0	1.174148E+0	1.208144E+0	1.201589E+0	1.248763E+0	1.150063E+0	1.238546E+0	1.237816E+0	1.265008E+0	1.195041E+0	1.212179E+0	1.179768E+0	1.194491E+0	1.139957E+0	1.165991E+0	1.239589E+0	1.139267E+0	1.121071E+0	1.167780E+0	1.192166E+0	1.219295E+0	1.200390E+0	1.205206E+0	1.203754E+0	1.299651E+0	1.191518E+0	1.235587E+0	1.203977E+0	1.180602E+0	1.170940E+0	1.230418E+0	1.336483E+0	1.158474E+0	1.191636E+0	1.197083E+0	1.170284E+0	1.244009E+0	1.209780E+0	1.243983E+0	1.178465E+0	1.120291E+0	1.270437E+0	1.184725E+0	1.248349E+0	1.238135E+0	1.196773E+0	1.231807E+0	1.376076E+0	1.261017E+0
2.864060E+2	1.108540E+0	1.123042E+0	1.123583E+0	1.137126E+0	1.114859E+0	1.085852E+0	1.129478E+0	1.142031E+0	1.082340E+0	1.115293E+0	1.038074E+0	1.166984E+0	1.124778E+0	1.136633E+0	1.080434E+0	1.021985E+0	1.025938E+0	1.065229E+0	1.152494E+0	1.114433E+0	1.007081E+0	1.091654E+0	9.700307E-1	1.090050E+0	1.023315E+0	1.042515E+0	1.118031E+0	1.032768E+0	1.075136E+0	1.036328E+0	1.110886E+0	1.078814E+0	1.103169E+0	1.066858E+0	1.092425E+0	1.054292E+0	1.042126E+0	9.779580E-1	1.069099E+0	1.105968E+0	1.132160E+0	1.102597E+0	1.086429E+0	1.050609E+0	1.101695E+0	9.895519E-1	1.117662E+0	1.135183E+0	1.096839E+0	1.104071E+0	1.120185E+0	1.157442E+0	1.046616E+0	9.840838E-1	1.123873E+0	1.070393E+0	1.188124E+0	1.144387E+0	1.074431E+0	1.083180E+0	1.019003E+0	1.126424E+0	9.756306E-1	1.199904E+0	9.837669E-1	9.987127E-1	1.094434E+0	9.701308E-1	1.091843E+0	1.160616E+0	1.048353E+0	1.076919E+0	1.142240E+0	1.170414E+0	9.803341E-1	1.103635E+0	1.072898E+0	1.108227E+0	1.021374E+0	1.050422E+0	1.102471E+0	1.237593E+0	1.079862E+0	1.089097E+0	1.135667E+0	1.048923E+0	1.046802E+0	1.167278E+0	1.044228E+0	1.074654E+0	1.085375E+0	1.114801E+0	1.140308E+0	1.119965E+0	1.016650E+0	1.099093E+0	1.149538E+0	1.082950E+0	1.090848E+0	1.072737E+0	1.170997E+0	1.165942E+0	1.140517E+0	1.048242E+0	1.116282E+0	1.074064E+0	1.060092E+0	1.071874E+0	1.087066E+0	1.039070E+0	1.116743E+0	1.149176E+0	1.113853E+0	1.050755E+0	1.074267E+0	1.079123E+0	1.070330E+0	1.071349E+0	1.023588E+0	1.093449E+0	1.111690E+0	1.123805E+0	1.134192E+0	1.137434E+0	1.052455E+0	1.026517E+0	1.123374E+0	1.133430E+0	1.074707E+0	1.075356E+0	1.089300E+0	1.112093E+0	1.139672E+0	1.106710E+0	1.087782E+0	1.193409E+0	1.155904E+0	1.110738E+0	9.925185E-1	1.108728E+0	1.102780E+0	1.047929E+0	1.076124E+0	1.038372E+0	1.129184E+0	1.035872E+0	1.106691E+0	9.687375E-1	1.101373E+0	1.174667E+0	1.070823E+0	1.079358E+0	1.123919E+0	1.129847E+0	1.139859E+0	1.056929E+0	1.110704E+0	1.161910E+0	1.118735E+0	9.810410E-1	1.032609E+0	1.029333E+0	1.104427E+0	1.151919E+0	1.171544E+0	9.454624E-1	1.063412E+0	1.142605E+0	1.118587E+0	1.061707E+0
2.866050E+2	1.499924E+0	1.462413E+0	1.392513E+0	1.424646E+0	1.422946E+0	1.486189E+0	1.457251E+0	1.429493E+0	1.425968E+0	1.436278E+0	1.441779E+0	1.403237E+0	1.421281E+0	1.433866E+0	1.498559E+0	1.409040E+0	1.393957E+0	1.430310E+0	1.382295E+0	1.452004E+0	1.384096E+0	1.408808E+0	1.372377E+0	1.366186E+0	1.466153E+0	1.421809E+0	1.388128E+0	1.459697E+0	1.338588E+0	1.397523E+0	1.382152E+0	1.436191E+0	1.398644E+0	1.434238E+0	1.456471E+0	1.303379E+0	1.403563E+0	1.470754E+0	1.433712E+0	1.402852E+0	1.524155E+0	1.518803E+0	1.449142E+0	1.347052E+0	1.489838E+0	1.498223E+0	1.453852E+0	1.313492E+0	1.417024E+0	1.448894E+0	1.380160E+0	1.425636E+0	1.373342E+0	1.341530E+0	1.399805E+0	1.417848E+0	1.435179E+0	1.417607E+0	1.465244E+0	1.337893E+0	1.477023E+0	1.383805E+0	1.381532E+0	1.416935E+0	1.401817E+0	1.460120E+0	1.427789E+0	1.358153E+0	1.492754E+0	1.424208E+0	1.388858E+0	1.359645E+0	1.378542E+0	1.358509E+0	1.416936E+0	1.348983E+0	1.472678E+0	1.457350E+0	1.365965E+0	1.322442E+0	1.344934E+0	1.287669E+0	1.438245E+0	1.460971E+0	1.384196E+0	1.376957E+0	1.411378E+0	1.329620E+0	1.537729E+0	1.330607E+0	1.465953E+0	1.463593E+0	1.406207E+0	1.528070E+0	1.425211E+0	1.392777E+0	1.447997E+0	1.470508E+0	1.429586E+0	1.278016E+0	1.398364E+0	1.495571E+0	1.387749E+0	1.389571E+0	1.369169E+0	1.356544E+0	1.408407E+0	1.446911E+0	1.519005E+0	1.378808E+0	1.468671E+0	1.361426E+0	1.420350E+0	1.478716E+0	1.496084E+0	1.358849E+0	1.434227E+0	1.369537E+0	1.392193E+0	1.381332E+0	1.392629E+0	1.342455E+0	1.423223E+0	1.363858E+0	1.447189E+0	1.442562E+0	1.441801E+0	1.426495E+0	1.353162E+0	1.460146E+0	1.425932E+0	1.428430E+0	1.348180E+0	1.371965E+0	1.409613E+0	1.508775E+0	1.490125E+0	1.404927E+0	1.393134E+0	1.449055E+0	1.397715E+0	1.501552E+0	1.335512E+0	1.344149E+0	1.500788E+0	1.413971E+0	1.301501E+0	1.521755E+0	1.440628E+0	1.440193E+0	1.444061E+0	1.366317E+0	1.416497E+0	1.358344E+0	1.492300E+0	1.354474E+0	1.364475E+0	1.349329E+0	1.406198E+0	1.460315E+0	1.453548E+0	1.320922E+0	1.361877E+0	1.428002E+0	1.419882E+0	1.402375E+0	1.400087E+0	1.402472E+0	1.576162E+0	1.549640E+0
2.868020E+2	1.813139E+0	1.779190E+0	1.778727E+0	1.794630E+0	1.857874E+0	1.852828E+0	1.847114E+0	1.732162E+0	1.882994E+0	1.847984E+0	1.874669E+0	1.805827E+0	1.815262E+0	1.902517E+0	1.778386E+0	1.813260E+0	1.769507E+0	1.962546E+0	1.790799E+0	1.893398E+0	1.817779E+0	1.794346E+0	1.772438E+0	1.877884E+0	1.844480E+0	1.712893E+0	1.667969E+0	1.705447E+0	1.628623E+0	1.717138E+0	1.775684E+0	1.809309E+0	1.699680E+0	1.795400E+0	1.773950E+0	1.777978E+0	1.679749E+0	1.786827E+0	1.730100E+0	1.761526E+0	1.914384E+0	1.865156E+0	1.731266E+0	1.741445E+0	1.889309E+0	1.830790E+0	1.765263E+0	1.798277E+0	1.813344E+0	1.876315E+0	1.829887E+0	1.814703E+0	1.756452E+0	1.697768E+0	1.863699E+0	1.828813E+0	1.866140E+0	1.866915E+0	1.707761E+0	1.794544E+0	1.776351E+0	1.838366E+0	1.802311E+0	1.814757E+0	1.766799E+0	1.761078E+0	1.778047E+0	1.701506E+0	1.720765E+0	1.766308E+0	1.689839E+0	1.761301E+0	1.891987E+0	1.858552E+0	1.824425E+0	1.823168E+0	1.768438E+0	1.803747E+0	1.770706E+0	1.737624E+0	1.827674E+0	1.716919E+0	1.800993E+0	1.835284E+0	1.738767E+0	1.730343E+0	1.750721E+0	1.822052E+0	1.899462E+0	1.786305E+0	1.822113E+0	1.803606E+0	1.771192E+0	1.811499E+0	1.843588E+0	1.840626E+0	1.793785E+0	1.810940E+0	1.778926E+0	1.732160E+0	1.788531E+0	1.897564E+0	1.810852E+0	1.790686E+0	1.776166E+0	1.784674E+0	1.868309E+0	1.708964E+0	1.805606E+0	1.778284E+0	1.950937E+0	1.727486E+0	1.855117E+0	1.836417E+0	1.753475E+0	1.808387E+0	1.788227E+0	1.829168E+0	1.829158E+0	1.886578E+0	1.853750E+0	1.797847E+0	1.845009E+0	1.658998E+0	1.780706E+0	1.788173E+0	1.854773E+0	1.764100E+0	1.809659E+0	1.908135E+0	1.711125E+0	1.806769E+0	1.964432E+0	1.855903E+0	1.675133E+0	1.798190E+0	1.878866E+0	1.762820E+0	1.688123E+0	1.799799E+0	1.764766E+0	1.847694E+0	1.682356E+0	1.810578E+0	1.840096E+0	1.720842E+0	1.735911E+0	1.851804E+0	1.740054E+0	1.860720E+0	1.806686E+0	1.815922E+0	1.797416E+0	1.746102E+0	1.770003E+0	1.833200E+0	1.920728E+0	1.828245E+0	1.802005E+0	1.725866E+0	1.783406E+0	1.771887E+0	1.798032E+0	1.830333E+0	1.762099E+0	1.791045E+0	1.925035E+0	1.899799E+0	1.872152E+0	2.007006E+0
2.870010E+2	1.614554E+0	1.573733E+0	1.650932E+0	1.495929E+0	1.493906E+0	1.579133E+0	1.559230E+0	1.573501E+0	1.429971E+0	1.514953E+0	1.598748E+0	1.514840E+0	1.501972E+0	1.667323E+0	1.580918E+0	1.560666E+0	1.617017E+0	1.596756E+0	1.521704E+0	1.570120E+0	1.581052E+0	1.499681E+0	1.548026E+0	1.515767E+0	1.483555E+0	1.559290E+0	1.553759E+0	1.422998E+0	1.416093E+0	1.538514E+0	1.574797E+0	1.484285E+0	1.535087E+0	1.488210E+0	1.516043E+0	1.491696E+0	1.520754E+0	1.503592E+0	1.542281E+0	1.508207E+0	1.690850E+0	1.518325E+0	1.430081E+0	1.516932E+0	1.547734E+0	1.523989E+0	1.529238E+0	1.452903E+0	1.527649E+0	1.454760E+0	1.556095E+0	1.495561E+0	1.507681E+0	1.554214E+0	1.479718E+0	1.512432E+0	1.555259E+0	1.559725E+0	1.512308E+0	1.541918E+0	1.461986E+0	1.547903E+0	1.528016E+0	1.581104E+0	1.478092E+0	1.550568E+0	1.531822E+0	1.482874E+0	1.609666E+0	1.625691E+0	1.550727E+0	1.490770E+0	1.478506E+0	1.580562E+0	1.505234E+0	1.521933E+0	1.538413E+0	1.570626E+0	1.531108E+0	1.524623E+0	1.539030E+0	1.595211E+0	1.512285E+0	1.479458E+0	1.532857E+0	1.598606E+0	1.494810E+0	1.480622E+0	1.585838E+0	1.497002E+0	1.457381E+0	1.426436E+0	1.573010E+0	1.508455E+0	1.599040E+0	1.578940E+0	1.477053E+0	1.564757E+0	1.698779E+0	1.631300E+0	1.596873E+0	1.543762E+0	1.576513E+0	1.565186E+0	1.462236E+0	1.501408E+0	1.505971E+0	1.537782E+0	1.568904E+0	1.489822E+0	1.616974E+0	1.532626E+0	1.580726E+0	1.536078E+0	1.586418E+0	1.461510E+0	1.551759E+0	1.540672E+0	1.624215E+0	1.572436E+0	1.514861E+0	1.533693E+0	1.507333E+0	1.554866E+0	1.566539E+0	1.509042E+0	1.553768E+0	1.598084E+0	1.476285E+0	1.586920E+0	1.514773E+0	1.675172E+0	1.571542E+0	1.438552E+0	1.545321E+0	1.600031E+0	1.532034E+0	1.460549E+0	1.453963E+0	1.382197E+0	1.521192E+0	1.520052E+0	1.498351E+0	1.632535E+0	1.599601E+0	1.597521E+0	1.656094E+0	1.578424E+0	1.577960E+0	1.540311E+0	1.549421E+0	1.505513E+0	1.548209E+0	1.651179E+0	1.479336E+0	1.508028E+0	1.608785E+0	1.512892E+0	1.487813E+0	1.575324E+0	1.435052E+0	1.478148E+0	1.488018E+0	1.574070E+0	1.600613E+0	1.578264E+0	1.557074E+0	1.527252E+0	1.680217E+0	1.613305E+0
2.872050E+2	1.196660E+0	1.185637E+0	1.142390E+0	1.179124E+0	1.218469E+0	1.138671E+0	1.130798E+0	1.198642E+0	1.181851E+0	1.296443E+0	1.282089E+0	1.045927E+0	1.197775E+0	1.271986E+0	1.228088E+0	1.212049E+0	1.258151E+0	1.200375E+0	1.185052E+0	1.326589E+0	1.193050E+0	1.238380E+0	1.222782E+0	1.143024E+0	1.264580E+0	1.103900E+0	1.183926E+0	1.126951E+0	1.240176E+0	1.202984E+0	1.149457E+0	1.279054E+0	1.278521E+0	1.232033E+0	1.181646E+0	1.225069E+0	1.149816E+0	1.173318E+0	1.227479E+0	1.170409E+0	1.191426E+0	1.131905E+0	1.109756E+0	1.211720E+0	1.144839E+0	1.212740E+0	1.177145E+0	1.158364E+0	1.230187E+0	1.241221E+0	1.249473E+0	1.222652E+0	1.174337E+0	1.165580E+0	1.142644E+0	1.114606E+0	1.225121E+0	1.247357E+0	1.262689E+0	1.167537E+0	1.302537E+0	1.208135E+0	1.171846E+0	1.129200E+0	1.169120E+0	1.153522E+0	1.253838E+0	1.012748E+0	1.123753E+0	1.194921E+0	1.215177E+0	1.150722E+0	1.193606E+0	1.172181E+0	1.145060E+0	1.240851E+0	1.224318E+0	1.121403E+0	1.178402E+0	1.178598E+0	1.247223E+0	1.150265E+0	1.188683E+0	1.179862E+0	1.124647E+0	1.110138E+0	1.281580E+0	1.258116E+0	1.187727E+0	1.144482E+0	1.115543E+0	1.184360E+0	1.206152E+0	1.259574E+0	1.171505E+0	1.231609E+0	1.297870E+0	1.128339E+0	1.186871E+0	1.173010E+0	1.197652E+0	1.260423E+0	1.299289E+0	1.128215E+0	1.238399E+0	1.249477E+0	1.189461E+0	1.204257E+0	1.196382E+0	1.193252E+0	1.281989E+0	1.109740E+0	1.121066E+0	1.239029E+0	1.167076E+0	1.232182E+0	1.207695E+0	1.085555E+0	1.213808E+0	1.226546E+0	1.239718E+0	1.280308E+0	1.229919E+0	1.232673E+0	1.237200E+0	1.196623E+0	1.215304E+0	1.286346E+0	1.136799E+0	1.272733E+0	1.227940E+0	1.148776E+0	1.147477E+0	1.237077E+0	1.116733E+0	1.066308E+0	1.159531E+0	1.213689E+0	1.163395E+0	1.247343E+0	1.162511E+0	1.224889E+0	1.216423E+0	1.104220E+0	1.196080E+0	1.177642E+0	1.204838E+0	1.149716E+0	1.143565E+0	1.151285E+0	1.187154E+0	1.185841E+0	1.138264E+0	1.087305E+0	1.208611E+0	1.167894E+0	1.165481E+0	1.180163E+0	1.126486E+0	1.277503E+0	1.181630E+0	1.111686E+0	1.157020E+0	1.194443E+0	1.218654E+0	1.143652E+0	1.187058E+0	1.172085E+0	1.057324E+0	1.207638E+0
2.874030E+2	7.832544E-1	8.789294E-1	7.428371E-1	8.205292E-1	7.697917E-1	8.791110E-1	8.399203E-1	8.142680E-1	7.966403E-1	7.974503E-1	8.176973E-1	8.551556E-1	8.712070E-1	8.740329E-1	7.814107E-1	8.681637E-1	8.583896E-1	7.926327E-1	8.403956E-1	8.313022E-1	8.730728E-1	8.345788E-1	7.677742E-1	8.088223E-1	9.028497E-1	8.219467E-1	8.100166E-1	7.982837E-1	7.685566E-1	8.088638E-1	7.890827E-1	8.553654E-1	8.654055E-1	8.261116E-1	8.158788E-1	7.952668E-1	8.847225E-1	8.255687E-1	8.349789E-1	8.385318E-1	8.325912E-1	8.331868E-1	8.772506E-1	8.289101E-1	8.136423E-1	9.213057E-1	8.712426E-1	8.568217E-1	7.986125E-1	8.754443E-1	9.168106E-1	8.946169E-1	8.868500E-1	8.013586E-1	7.725184E-1	8.038257E-1	8.665582E-1	8.512103E-1	8.626413E-1	7.518122E-1	8.190920E-1	7.957681E-1	8.183807E-1	7.934367E-1	7.912363E-1	8.061342E-1	8.576333E-1	7.828051E-1	8.517359E-1	8.672891E-1	7.897766E-1	8.017520E-1	8.514951E-1	7.819893E-1	7.435347E-1	9.070013E-1	8.426039E-1	8.866968E-1	7.953854E-1	9.031247E-1	8.268129E-1	7.908828E-1	7.974753E-1	8.770439E-1	8.362410E-1	7.973301E-1	8.905626E-1	8.467387E-1	8.289018E-1	8.313515E-1	8.288047E-1	8.630333E-1	8.073385E-1	8.073514E-1	8.260370E-1	8.164897E-1	8.653143E-1	8.574908E-1	7.589754E-1	7.222603E-1	8.481727E-1	8.590567E-1	8.677812E-1	8.250274E-1	8.390258E-1	8.373410E-1	8.565883E-1	7.835846E-1	8.547971E-1	8.425776E-1	8.744440E-1	8.381452E-1	8.106028E-1	8.099607E-1	8.461304E-1	8.538160E-1	8.374055E-1	7.726668E-1	8.132977E-1	8.632576E-1	8.505429E-1	8.744389E-1	8.107522E-1	8.350310E-1	8.495313E-1	8.427092E-1	7.903830E-1	8.171899E-1	7.933789E-1	7.601293E-1	8.129884E-1	8.850870E-1	8.525158E-1	8.641196E-1	8.017953E-1	8.335438E-1	8.947299E-1	8.057926E-1	7.755141E-1	7.754790E-1	8.120975E-1	8.039954E-1	8.060759E-1	8.123466E-1	8.450690E-1	8.137705E-1	8.358152E-1	8.235460E-1	8.062315E-1	8.346115E-1	8.388072E-1	8.340603E-1	8.373686E-1	8.100278E-1	8.761438E-1	8.275837E-1	8.148889E-1	8.568259E-1	8.531222E-1	8.359670E-1	8.034768E-1	8.439609E-1	7.850745E-1	8.280761E-1	8.012610E-1	8.082798E-1	9.158487E-1	7.967410E-1	7.899174E-1	6.764382E-1
2.876020E+2	6.261112E-1	6.721867E-1	6.858947E-1	7.337834E-1	6.374753E-1	6.875910E-1	6.303082E-1	6.202791E-1	6.306551E-1	6.273393E-1	7.527667E-1	6.825735E-1	7.101663E-1	7.087677E-1	5.859362E-1	6.247159E-1	6.574985E-1	6.417756E-1	6.734460E-1	6.548081E-1	7.018758E-1	6.286341E-1	6.473379E-1	5.879924E-1	6.901423E-1	6.659268E-1	6.469012E-1	6.281628E-1	6.455801E-1	6.808074E-1	6.829421E-1	6.494614E-1	6.298310E-1	6.675927E-1	5.818794E-1	6.592132E-1	6.496993E-1	6.507555E-1	6.783770E-1	6.143891E-1	7.035295E-1	6.649169E-1	6.111178E-1	6.769215E-1	6.626048E-1	6.620660E-1	7.168795E-1	7.208488E-1	6.223598E-1	6.719871E-1	6.544312E-1	6.473541E-1	6.834309E-1	6.691405E-1	6.626755E-1	6.611757E-1	6.378558E-1	6.396435E-1	6.817601E-1	6.427994E-1	6.574191E-1	7.194582E-1	6.553058E-1	6.458078E-1	6.481126E-1	6.284945E-1	7.343868E-1	6.353364E-1	6.834955E-1	6.837571E-1	5.914203E-1	6.559292E-1	6.477207E-1	6.395661E-1	6.272972E-1	6.571823E-1	6.632601E-1	6.154883E-1	6.936124E-1	7.068235E-1	6.178523E-1	6.633475E-1	7.176712E-1	6.413360E-1	6.183293E-1	6.452448E-1	6.771989E-1	6.671470E-1	7.022433E-1	6.675084E-1	7.134412E-1	6.074505E-1	6.183466E-1	6.649882E-1	6.480235E-1	6.932564E-1	6.367657E-1	7.551284E-1	6.535929E-1	6.732969E-1	6.646528E-1	6.559926E-1	6.829377E-1	6.770365E-1	6.306959E-1	6.623551E-1	6.540609E-1	6.458868E-1	6.747910E-1	6.876139E-1	7.633882E-1	6.682318E-1	6.604892E-1	6.928568E-1	7.134844E-1	6.859431E-1	6.775081E-1	6.504983E-1	6.171192E-1	6.148162E-1	6.039975E-1	5.637527E-1	6.597945E-1	6.743180E-1	6.998784E-1	6.432716E-1	6.074471E-1	7.004808E-1	6.737732E-1	5.994452E-1	6.053066E-1	6.264249E-1	6.544644E-1	6.038930E-1	6.465232E-1	6.346752E-1	6.762935E-1	6.780076E-1	7.222628E-1	6.091529E-1	6.669443E-1	6.160208E-1	6.521614E-1	6.617552E-1	6.669648E-1	5.985342E-1	7.004614E-1	6.813543E-1	6.945352E-1	6.417881E-1	6.667567E-1	6.676245E-1	6.382195E-1	7.093415E-1	7.000574E-1	6.458375E-1	6.303281E-1	6.646514E-1	6.424032E-1	6.422225E-1	6.486904E-1	6.075743E-1	6.437279E-1	7.183281E-1	6.229570E-1	6.732733E-1	6.385096E-1	6.972206E-1	6.504629E-1	6.204850E-1
2.878020E+2	5.915526E-1	6.693469E-1	6.393553E-1	6.600262E-1	6.984444E-1	6.519080E-1	5.945202E-1	6.368432E-1	6.935556E-1	6.773627E-1	6.128821E-1	6.287774E-1	6.526199E-1	6.862676E-1	6.820127E-1	6.002098E-1	6.775559E-1	6.834943E-1	6.815382E-1	6.744712E-1	6.823669E-1	6.224245E-1	6.657087E-1	6.814718E-1	6.532837E-1	6.271510E-1	6.124663E-1	6.376433E-1	6.735994E-1	6.624814E-1	6.494392E-1	6.288191E-1	6.309104E-1	6.399980E-1	6.743724E-1	6.636650E-1	6.493761E-1	6.856072E-1	6.451705E-1	6.982578E-1	6.824627E-1	6.850465E-1	6.343086E-1	6.343648E-1	6.250031E-1	6.158151E-1	6.582489E-1	6.537201E-1	6.796654E-1	6.544418E-1	6.813239E-1	6.017070E-1	6.512805E-1	6.192778E-1	6.391786E-1	6.185170E-1	6.284459E-1	6.274005E-1	6.382658E-1	6.439817E-1	5.873084E-1	6.197259E-1	6.296446E-1	6.469983E-1	5.507505E-1	6.207998E-1	7.250097E-1	6.548798E-1	6.780025E-1	5.784436E-1	7.007475E-1	6.303741E-1	6.865422E-1	6.734104E-1	6.284365E-1	5.634049E-1	6.438382E-1	6.794802E-1	6.744869E-1	6.541181E-1	6.360523E-1	6.835207E-1	6.553726E-1	7.188318E-1	6.804681E-1	6.344483E-1	6.788318E-1	7.097792E-1	6.488166E-1	6.429072E-1	6.799797E-1	6.376992E-1	6.398804E-1	6.690644E-1	6.473560E-1	6.961328E-1	6.942268E-1	6.716699E-1	6.470111E-1	6.931663E-1	6.846827E-1	6.407672E-1	6.082242E-1	5.763013E-1	6.979752E-1	6.664665E-1	6.118697E-1	6.621216E-1	6.732272E-1	6.689197E-1	6.856773E-1	6.987824E-1	6.348021E-1	6.727243E-1	6.293585E-1	6.574002E-1	6.431736E-1	6.401380E-1	6.404482E-1	6.501442E-1	6.483787E-1	6.740393E-1	6.339759E-1	6.967441E-1	6.012684E-1	5.901345E-1	6.172316E-1	6.707914E-1	7.162127E-1	6.604375E-1	6.484271E-1	6.923754E-1	6.572708E-1	6.065663E-1	6.630363E-1	6.939181E-1	5.637263E-1	6.857334E-1	6.188665E-1	6.659945E-1	6.618085E-1	7.621818E-1	6.274924E-1	6.079050E-1	6.612842E-1	6.343707E-1	6.443422E-1	6.685360E-1	6.352873E-1	6.637818E-1	6.741422E-1	6.895285E-1	6.294593E-1	5.897001E-1	6.557670E-1	6.704327E-1	7.231953E-1	6.566847E-1	6.634339E-1	7.118851E-1	7.182687E-1	6.570983E-1	6.176650E-1	6.458692E-1	7.749071E-1	6.247540E-1	5.606249E-1	6.959487E-1	6.981647E-1	6.497767E-1
2.880040E+2	7.163338E-1	6.134693E-1	6.500145E-1	6.874794E-1	6.862856E-1	5.740131E-1	6.122869E-1	6.236290E-1	6.624610E-1	5.785618E-1	6.086141E-1	6.919162E-1	6.646703E-1	6.636965E-1	6.509698E-1	6.258967E-1	6.535326E-1	6.790002E-1	7.441134E-1	6.484477E-1	6.898261E-1	6.221862E-1	6.741489E-1	6.426959E-1	6.938202E-1	6.725310E-1	6.865001E-1	6.262042E-1	7.017541E-1	6.765263E-1	6.013346E-1	7.030022E-1	6.276697E-1	6.280851E-1	6.744089E-1	6.227649E-1	7.335291E-1	6.651598E-1	6.849457E-1	6.520934E-1	6.561737E-1	6.546328E-1	5.889678E-1	6.715604E-1	6.584992E-1	7.027956E-1	6.387458E-1	6.956798E-1	6.811621E-1	6.325609E-1	6.730228E-1	6.582280E-1	6.474839E-1	6.206498E-1	5.950918E-1	6.793724E-1	7.567174E-1	6.486271E-1	6.370017E-1	5.872211E-1	6.830006E-1	6.571673E-1	6.750204E-1	6.487371E-1	6.222571E-1	6.723013E-1	6.736490E-1	5.804761E-1	6.194583E-1	6.531286E-1	6.586391E-1	5.827736E-1	6.187845E-1	6.824640E-1	5.867055E-1	6.713478E-1	6.228707E-1	6.536355E-1	6.772844E-1	6.182366E-1	6.434067E-1	6.380318E-1	6.258493E-1	6.329071E-1	6.294884E-1	5.746256E-1	6.332329E-1	6.163832E-1	6.483254E-1	6.144288E-1	6.169452E-1	7.079833E-1	6.320839E-1	6.702284E-1	7.134961E-1	6.908257E-1	6.291731E-1	6.236026E-1	6.599752E-1	6.637030E-1	6.717345E-1	6.361622E-1	6.401764E-1	6.708598E-1	6.925515E-1	6.322199E-1	6.254371E-1	6.601171E-1	6.813989E-1	6.385187E-1	7.048560E-1	6.949635E-1	7.113233E-1	6.899066E-1	6.708724E-1	6.303141E-1	6.136338E-1	6.310076E-1	6.607079E-1	6.776265E-1	6.695114E-1	6.454219E-1	6.163619E-1	6.651331E-1	6.083955E-1	6.444271E-1	6.601442E-1	6.455933E-1	6.808717E-1	6.486220E-1	6.561992E-1	5.757185E-1	6.921448E-1	6.270102E-1	6.395360E-1	5.979426E-1	6.460114E-1	6.721136E-1	6.007345E-1	6.016850E-1	6.358566E-1	6.594136E-1	6.479066E-1	6.795838E-1	6.879722E-1	6.339118E-1	6.130433E-1	6.224840E-1	5.775024E-1	6.039519E-1	6.253522E-1	6.562553E-1	6.702507E-1	6.475067E-1	6.502680E-1	6.156414E-1	6.489598E-1	6.499902E-1	6.611001E-1	6.384272E-1	6.124781E-1	6.362490E-1	6.135186E-1	6.219391E-1	5.502390E-1	6.024199E-1	6.550264E-1	7.208398E-1	6.481970E-1	5.799365E-1
2.882080E+2	7.424035E-1	6.673775E-1	7.811757E-1	7.546431E-1	7.151070E-1	6.404725E-1	7.552385E-1	7.185850E-1	6.760577E-1	7.114154E-1	7.547563E-1	6.831741E-1	6.739462E-1	7.158481E-1	8.079842E-1	7.252970E-1	7.766120E-1	7.631585E-1	6.584072E-1	6.766814E-1	6.816131E-1	7.347384E-1	7.620547E-1	7.157802E-1	7.452384E-1	7.528475E-1	7.059337E-1	6.981723E-1	6.852894E-1	7.415261E-1	7.233878E-1	6.807432E-1	7.508379E-1	7.529473E-1	7.772947E-1	7.113639E-1	7.514514E-1	7.225543E-1	7.853529E-1	7.105127E-1	7.381227E-1	6.941965E-1	7.161348E-1	7.599480E-1	7.459936E-1	6.779293E-1	7.093197E-1	7.122130E-1	7.527465E-1	7.315622E-1	7.211082E-1	7.086260E-1	7.624336E-1	6.922610E-1	7.323703E-1	7.484565E-1	7.375097E-1	7.762091E-1	7.404198E-1	7.698399E-1	7.165123E-1	6.967401E-1	6.964653E-1	7.429017E-1	7.548615E-1	6.897855E-1	7.433471E-1	7.611328E-1	7.396040E-1	7.158009E-1	6.669060E-1	7.234149E-1	7.326559E-1	7.424835E-1	6.946635E-1	7.466649E-1	7.567601E-1	7.360225E-1	6.960418E-1	7.401798E-1	6.955650E-1	6.138569E-1	7.516321E-1	7.191346E-1	7.006324E-1	7.346883E-1	7.332441E-1	7.180970E-1	6.629570E-1	7.259566E-1	7.595037E-1	7.176310E-1	6.955030E-1	7.162443E-1	7.449313E-1	7.507260E-1	6.986485E-1	6.972417E-1	7.437882E-1	7.816871E-1	6.546486E-1	6.794420E-1	6.835011E-1	7.329258E-1	7.405986E-1	7.460206E-1	6.890849E-1	6.790476E-1	7.064821E-1	7.662964E-1	7.259193E-1	7.631916E-1	7.108853E-1	7.303412E-1	7.235028E-1	6.264512E-1	7.860808E-1	6.572409E-1	6.988964E-1	7.832831E-1	6.758245E-1	7.468463E-1	7.680108E-1	6.681387E-1	6.466789E-1	6.918922E-1	7.489756E-1	7.137529E-1	7.346161E-1	7.099177E-1	7.467701E-1	6.401881E-1	7.150815E-1	6.626103E-1	7.575734E-1	7.637696E-1	7.451999E-1	6.963150E-1	7.099986E-1	6.365095E-1	7.565956E-1	7.651643E-1	7.041516E-1	7.133117E-1	7.645384E-1	6.938720E-1	7.058073E-1	7.076201E-1	7.117111E-1	6.648010E-1	6.830080E-1	6.939674E-1	7.330125E-1	7.222917E-1	6.776549E-1	6.919048E-1	6.836698E-1	6.907827E-1	6.975339E-1	7.323161E-1	7.006117E-1	6.789749E-1	7.131782E-1	7.358968E-1	6.795782E-1	6.832231E-1	6.918300E-1	7.148822E-1	7.431719E-1	7.442640E-1
2.884070E+2	9.397663E-1	1.037922E+0	9.646077E-1	9.528915E-1	1.080185E+0	9.696176E-1	1.016825E+0	1.098047E+0	1.053485E+0	9.774228E-1	9.051320E-1	1.085817E+0	1.034897E+0	9.810032E-1	1.041573E+0	1.024028E+0	9.943304E-1	9.791806E-1	1.065455E+0	9.649977E-1	1.053534E+0	1.029879E+0	9.809648E-1	9.380172E-1	9.945617E-1	1.032550E+0	1.021260E+0	1.057789E+0	1.011534E+0	1.027959E+0	1.085992E+0	1.002776E+0	1.023854E+0	1.129813E+0	9.874430E-1	9.907759E-1	1.006131E+0	9.975193E-1	9.987651E-1	1.002378E+0	1.068302E+0	1.035158E+0	1.036951E+0	9.971019E-1	1.053825E+0	1.033009E+0	1.019536E+0	9.714488E-1	1.069681E+0	1.041617E+0	1.036107E+0	1.141756E+0	9.916006E-1	9.665717E-1	1.049061E+0	9.654490E-1	1.029940E+0	1.003916E+0	1.071378E+0	9.937731E-1	1.037213E+0	9.906381E-1	1.026315E+0	1.073984E+0	9.316765E-1	9.893507E-1	1.079924E+0	9.573272E-1	1.083702E+0	1.024876E+0	9.756542E-1	9.903344E-1	1.038807E+0	1.028482E+0	9.945263E-1	1.006480E+0	1.064447E+0	1.043391E+0	1.003759E+0	1.103320E+0	1.026801E+0	1.048405E+0	1.027282E+0	1.077690E+0	1.031071E+0	9.706319E-1	9.775033E-1	1.022109E+0	9.944373E-1	1.009117E+0	9.301290E-1	9.542607E-1	9.532448E-1	1.024739E+0	9.746232E-1	1.041793E+0	1.003186E+0	9.678372E-1	9.728351E-1	9.948462E-1	9.807384E-1	1.056589E+0	1.040437E+0	1.007831E+0	1.047357E+0	9.489368E-1	1.077285E+0	1.071160E+0	1.036966E+0	1.011590E+0	1.069493E+0	1.093399E+0	1.013911E+0	9.600489E-1	1.104154E+0	1.059069E+0	9.688855E-1	1.105977E+0	1.037327E+0	1.014531E+0	1.049573E+0	1.038530E+0	1.026155E+0	9.970914E-1	9.425964E-1	1.019149E+0	1.035928E+0	9.339951E-1	9.998341E-1	1.022618E+0	9.904996E-1	9.964249E-1	9.993347E-1	9.965332E-1	9.907013E-1	1.021848E+0	1.045189E+0	9.421970E-1	9.446317E-1	1.044101E+0	1.022494E+0	9.847984E-1	1.032140E+0	1.019180E+0	1.054746E+0	9.657451E-1	9.937933E-1	1.044413E+0	1.004177E+0	1.010081E+0	9.673286E-1	9.892054E-1	9.864078E-1	1.005452E+0	1.014582E+0	1.016742E+0	1.006249E+0	9.722802E-1	9.909226E-1	1.021569E+0	1.047468E+0	9.335322E-1	9.615932E-1	1.091941E+0	1.040234E+0	1.013918E+0	1.012998E+0	1.055909E+0	9.988492E-1	9.897533E-1
2.886010E+2	1.414945E+0	1.427737E+0	1.456169E+0	1.436615E+0	1.472849E+0	1.495431E+0	1.432578E+0	1.400551E+0	1.395221E+0	1.445968E+0	1.495122E+0	1.500540E+0	1.472863E+0	1.462221E+0	1.387076E+0	1.455511E+0	1.514307E+0	1.470915E+0	1.481005E+0	1.537301E+0	1.480442E+0	1.544410E+0	1.468228E+0	1.416974E+0	1.392595E+0	1.407279E+0	1.341400E+0	1.419078E+0	1.401509E+0	1.383906E+0	1.369123E+0	1.458633E+0	1.444440E+0	1.413527E+0	1.340244E+0	1.388161E+0	1.418518E+0	1.495934E+0	1.435208E+0	1.438159E+0	1.500145E+0	1.456183E+0	1.406359E+0	1.449444E+0	1.363077E+0	1.438394E+0	1.367460E+0	1.456740E+0	1.473448E+0	1.378347E+0	1.409844E+0	1.352073E+0	1.332325E+0	1.504790E+0	1.424051E+0	1.428250E+0	1.427370E+0	1.537024E+0	1.473467E+0	1.452097E+0	1.433232E+0	1.456175E+0	1.377070E+0	1.354607E+0	1.300373E+0	1.420275E+0	1.506340E+0	1.344131E+0	1.456181E+0	1.516097E+0	1.349019E+0	1.404236E+0	1.525329E+0	1.473406E+0	1.372598E+0	1.345884E+0	1.421291E+0	1.435984E+0	1.410629E+0	1.358906E+0	1.420681E+0	1.457034E+0	1.500077E+0	1.421900E+0	1.449204E+0	1.414699E+0	1.475576E+0	1.410394E+0	1.528986E+0	1.387205E+0	1.462991E+0	1.575217E+0	1.389751E+0	1.439521E+0	1.375697E+0	1.514197E+0	1.460402E+0	1.381360E+0	1.443438E+0	1.374471E+0	1.440325E+0	1.510186E+0	1.433325E+0	1.436789E+0	1.424554E+0	1.408136E+0	1.383285E+0	1.407980E+0	1.414856E+0	1.517541E+0	1.406036E+0	1.483841E+0	1.369613E+0	1.372165E+0	1.411563E+0	1.455358E+0	1.581879E+0	1.508848E+0	1.449064E+0	1.465433E+0	1.442423E+0	1.465887E+0	1.362014E+0	1.492883E+0	1.413161E+0	1.478200E+0	1.461740E+0	1.513950E+0	1.398885E+0	1.526696E+0	1.338332E+0	1.408711E+0	1.421891E+0	1.506267E+0	1.418341E+0	1.407757E+0	1.476485E+0	1.392144E+0	1.382897E+0	1.434978E+0	1.432604E+0	1.549848E+0	1.439169E+0	1.381248E+0	1.525779E+0	1.432414E+0	1.441484E+0	1.360118E+0	1.355703E+0	1.506271E+0	1.412714E+0	1.437516E+0	1.433270E+0	1.353476E+0	1.443264E+0	1.372175E+0	1.406638E+0	1.496480E+0	1.428807E+0	1.573680E+0	1.494679E+0	1.428279E+0	1.416213E+0	1.480556E+0	1.431239E+0	1.306393E+0	1.426732E+0	1.417122E+0	1.525847E+0	1.607757E+0
2.887970E+2	1.488429E+0	1.320967E+0	1.464044E+0	1.516653E+0	1.463124E+0	1.426517E+0	1.463605E+0	1.461646E+0	1.495327E+0	1.412401E+0	1.502695E+0	1.431933E+0	1.551143E+0	1.639003E+0	1.506635E+0	1.505595E+0	1.487112E+0	1.491132E+0	1.483912E+0	1.498148E+0	1.528458E+0	1.524627E+0	1.446334E+0	1.530008E+0	1.474312E+0	1.482110E+0	1.449158E+0	1.485407E+0	1.419486E+0	1.498766E+0	1.502004E+0	1.453919E+0	1.472703E+0	1.326194E+0	1.462171E+0	1.384904E+0	1.397605E+0	1.470633E+0	1.497134E+0	1.423418E+0	1.524260E+0	1.443483E+0	1.491237E+0	1.475063E+0	1.431830E+0	1.431456E+0	1.410778E+0	1.463927E+0	1.538659E+0	1.521942E+0	1.385225E+0	1.516196E+0	1.458145E+0	1.464043E+0	1.419319E+0	1.475663E+0	1.481936E+0	1.437456E+0	1.410157E+0	1.526170E+0	1.495339E+0	1.431961E+0	1.467531E+0	1.464734E+0	1.397068E+0	1.506874E+0	1.480095E+0	1.465723E+0	1.583340E+0	1.597753E+0	1.424565E+0	1.405649E+0	1.575536E+0	1.495387E+0	1.535340E+0	1.529214E+0	1.464606E+0	1.449096E+0	1.428105E+0	1.471489E+0	1.562108E+0	1.548397E+0	1.459556E+0	1.572634E+0	1.492722E+0	1.402709E+0	1.436091E+0	1.496953E+0	1.456768E+0	1.507167E+0	1.414549E+0	1.484623E+0	1.546060E+0	1.483513E+0	1.528532E+0	1.534356E+0	1.440144E+0	1.474610E+0	1.475874E+0	1.512789E+0	1.606011E+0	1.569620E+0	1.531050E+0	1.434139E+0	1.504801E+0	1.467364E+0	1.510710E+0	1.453830E+0	1.532107E+0	1.458445E+0	1.492514E+0	1.513999E+0	1.421066E+0	1.612006E+0	1.471851E+0	1.509538E+0	1.554773E+0	1.400953E+0	1.478128E+0	1.516157E+0	1.498245E+0	1.387521E+0	1.446595E+0	1.508158E+0	1.498884E+0	1.507577E+0	1.435634E+0	1.479682E+0	1.373722E+0	1.533546E+0	1.458153E+0	1.473256E+0	1.524397E+0	1.371454E+0	1.434992E+0	1.512231E+0	1.524445E+0	1.496131E+0	1.436248E+0	1.528812E+0	1.508386E+0	1.488075E+0	1.487207E+0	1.632813E+0	1.488359E+0	1.526954E+0	1.458437E+0	1.433091E+0	1.539186E+0	1.624643E+0	1.474971E+0	1.486730E+0	1.533938E+0	1.483534E+0	1.555878E+0	1.547892E+0	1.482974E+0	1.533635E+0	1.411993E+0	1.470089E+0	1.511635E+0	1.476100E+0	1.459171E+0	1.409182E+0	1.481783E+0	1.426705E+0	1.409729E+0	1.484678E+0	1.578228E+0	1.476119E+0
2.890110E+2	1.323500E+0	1.300339E+0	1.358855E+0	1.405195E+0	1.361494E+0	1.352041E+0	1.325813E+0	1.468914E+0	1.419754E+0	1.382495E+0	1.352816E+0	1.312384E+0	1.394945E+0	1.410799E+0	1.387877E+0	1.288955E+0	1.286779E+0	1.395731E+0	1.330193E+0	1.545500E+0	1.383964E+0	1.431413E+0	1.328341E+0	1.407478E+0	1.272308E+0	1.323029E+0	1.382957E+0	1.318401E+0	1.299427E+0	1.321331E+0	1.434710E+0	1.389495E+0	1.410270E+0	1.332725E+0	1.322472E+0	1.274201E+0	1.343183E+0	1.360457E+0	1.398970E+0	1.382595E+0	1.306676E+0	1.365671E+0	1.306837E+0	1.352964E+0	1.301317E+0	1.314991E+0	1.324053E+0	1.406061E+0	1.341369E+0	1.404270E+0	1.413686E+0	1.320767E+0	1.392685E+0	1.423917E+0	1.339068E+0	1.244152E+0	1.253042E+0	1.423925E+0	1.334312E+0	1.353853E+0	1.384853E+0	1.424307E+0	1.322379E+0	1.381657E+0	1.367269E+0	1.368856E+0	1.343146E+0	1.298157E+0	1.323833E+0	1.375654E+0	1.246410E+0	1.322456E+0	1.326956E+0	1.360507E+0	1.430625E+0	1.383572E+0	1.324734E+0	1.331763E+0	1.282723E+0	1.343560E+0	1.317283E+0	1.298284E+0	1.352114E+0	1.405874E+0	1.312627E+0	1.308605E+0	1.297145E+0	1.316373E+0	1.498722E+0	1.320130E+0	1.341425E+0	1.379588E+0	1.398655E+0	1.442596E+0	1.241664E+0	1.382642E+0	1.294897E+0	1.295860E+0	1.357710E+0	1.445327E+0	1.465129E+0	1.418708E+0	1.350752E+0	1.394215E+0	1.412121E+0	1.369700E+0	1.361244E+0	1.365458E+0	1.369772E+0	1.314990E+0	1.390339E+0	1.412040E+0	1.402785E+0	1.369919E+0	1.414385E+0	1.422458E+0	1.320807E+0	1.304153E+0	1.374977E+0	1.408681E+0	1.434774E+0	1.331459E+0	1.466984E+0	1.273766E+0	1.439520E+0	1.343739E+0	1.391501E+0	1.370449E+0	1.330892E+0	1.311799E+0	1.338144E+0	1.332509E+0	1.337907E+0	1.377145E+0	1.305955E+0	1.412461E+0	1.327795E+0	1.338669E+0	1.196300E+0	1.281317E+0	1.374442E+0	1.412697E+0	1.345464E+0	1.409562E+0	1.355946E+0	1.363397E+0	1.388413E+0	1.508904E+0	1.347885E+0	1.356818E+0	1.397149E+0	1.427602E+0	1.395778E+0	1.326027E+0	1.240341E+0	1.336378E+0	1.326282E+0	1.338257E+0	1.322363E+0	1.423608E+0	1.390870E+0	1.297724E+0	1.412677E+0	1.412692E+0	1.369769E+0	1.325727E+0	1.262060E+0	1.383497E+0	1.347457E+0	1.395762E+0
2.892050E+2	1.089328E+0	1.093229E+0	1.170716E+0	1.070070E+0	1.051895E+0	1.087149E+0	1.109915E+0	1.089295E+0	1.108338E+0	1.091553E+0	1.120004E+0	1.138919E+0	1.093592E+0	1.167840E+0	1.071402E+0	1.060390E+0	1.106906E+0	1.116836E+0	1.068220E+0	1.169704E+0	1.134578E+0	1.159606E+0	1.186989E+0	1.062330E+0	1.126342E+0	1.116990E+0	1.131072E+0	1.076052E+0	1.096062E+0	1.083194E+0	9.768344E-1	1.168376E+0	1.130314E+0	1.074779E+0	1.064936E+0	9.898555E-1	1.068709E+0	1.099934E+0	1.120855E+0	1.044369E+0	1.068568E+0	1.116483E+0	1.041558E+0	1.101493E+0	1.102321E+0	1.095607E+0	9.801243E-1	1.151265E+0	1.065291E+0	1.095022E+0	1.066918E+0	1.040318E+0	1.073766E+0	1.069073E+0	1.000944E+0	1.105637E+0	1.137298E+0	1.092446E+0	1.088426E+0	1.092930E+0	9.823917E-1	1.150724E+0	1.115780E+0	1.139314E+0	1.128680E+0	1.098614E+0	1.103388E+0	1.093889E+0	1.028939E+0	1.139074E+0	1.019854E+0	1.075309E+0	1.113547E+0	1.012359E+0	1.098548E+0	1.107970E+0	1.057301E+0	1.038622E+0	1.146895E+0	1.094170E+0	1.073714E+0	1.007311E+0	1.071763E+0	1.051595E+0	1.073269E+0	1.093850E+0	1.094121E+0	1.068792E+0	1.080453E+0	1.001108E+0	1.070529E+0	1.090430E+0	1.112712E+0	1.173910E+0	1.080975E+0	1.027101E+0	1.087162E+0	1.027400E+0	1.058694E+0	9.776892E-1	1.048431E+0	1.131059E+0	1.221917E+0	1.059979E+0	1.064424E+0	1.077589E+0	1.069673E+0	1.021354E+0	1.075373E+0	1.086073E+0	1.129728E+0	1.090465E+0	1.017166E+0	1.137833E+0	1.070307E+0	1.083672E+0	1.185816E+0	1.045862E+0	1.074401E+0	1.202614E+0	1.148832E+0	1.093148E+0	1.125524E+0	1.076946E+0	1.014612E+0	1.102937E+0	1.101097E+0	1.134505E+0	1.104927E+0	1.117263E+0	1.030827E+0	1.133145E+0	1.138239E+0	1.023636E+0	1.059369E+0	1.021578E+0	1.107649E+0	1.119840E+0	9.990905E-1	1.055857E+0	1.070976E+0	1.128931E+0	1.068519E+0	1.099650E+0	1.095658E+0	1.072855E+0	1.081580E+0	1.087519E+0	1.164752E+0	1.039243E+0	1.153338E+0	1.094430E+0	1.098082E+0	1.092089E+0	1.096309E+0	1.013329E+0	1.130602E+0	1.105722E+0	1.060796E+0	1.072232E+0	1.078590E+0	9.890594E-1	1.121418E+0	1.083871E+0	1.135090E+0	1.114318E+0	1.042392E+0	1.060322E+0	1.029784E+0	1.324658E+0
2.894050E+2	8.014997E-1	8.246578E-1	8.336721E-1	8.564777E-1	7.955329E-1	8.735867E-1	8.759327E-1	8.579645E-1	8.766068E-1	8.144891E-1	8.122961E-1	8.627647E-1	8.879179E-1	8.089578E-1	8.681087E-1	8.206587E-1	9.146862E-1	8.373094E-1	8.270578E-1	8.730541E-1	9.350450E-1	8.435565E-1	8.594335E-1	7.582421E-1	9.271677E-1	8.593852E-1	8.086718E-1	8.484356E-1	8.560665E-1	8.529616E-1	8.278371E-1	8.354420E-1	8.596564E-1	8.171964E-1	8.803611E-1	7.377185E-1	8.464343E-1	9.133654E-1	8.232062E-1	8.710970E-1	9.678918E-1	8.235725E-1	8.664622E-1	8.332815E-1	8.618098E-1	8.730599E-1	8.872106E-1	8.469432E-1	7.934196E-1	9.836672E-1	9.109077E-1	8.636170E-1	8.987517E-1	8.537666E-1	8.643274E-1	8.541587E-1	8.418090E-1	8.416321E-1	9.012417E-1	9.048190E-1	7.873266E-1	8.784278E-1	8.623611E-1	9.217856E-1	9.192026E-1	8.120033E-1	8.874906E-1	8.047781E-1	9.070537E-1	8.740280E-1	8.233729E-1	8.836724E-1	9.104934E-1	8.362403E-1	8.973714E-1	8.451502E-1	8.170060E-1	8.754890E-1	8.608404E-1	8.153578E-1	8.157183E-1	8.711150E-1	8.567111E-1	8.627684E-1	8.219300E-1	7.856524E-1	8.121030E-1	9.128546E-1	8.580595E-1	8.083378E-1	8.544497E-1	8.654698E-1	9.471440E-1	8.971657E-1	8.840812E-1	9.108035E-1	8.995884E-1	8.704534E-1	8.474555E-1	8.884033E-1	8.511511E-1	8.666003E-1	8.553770E-1	8.579204E-1	8.561183E-1	9.333334E-1	7.884673E-1	8.463200E-1	8.303002E-1	8.767911E-1	8.842659E-1	9.252477E-1	8.641682E-1	8.195439E-1	8.942280E-1	8.593996E-1	9.052285E-1	8.627171E-1	8.377505E-1	9.231995E-1	8.902976E-1	9.026940E-1	8.470827E-1	9.117795E-1	9.052003E-1	8.583694E-1	8.214810E-1	8.464765E-1	7.930874E-1	9.332784E-1	8.121508E-1	8.096494E-1	8.894817E-1	8.378207E-1	7.948147E-1	8.640153E-1	8.876451E-1	8.361677E-1	8.270399E-1	8.870419E-1	8.623696E-1	9.388211E-1	8.590594E-1	9.430541E-1	9.149606E-1	7.930161E-1	8.313458E-1	8.596252E-1	8.435808E-1	9.171284E-1	8.416500E-1	8.495697E-1	9.470972E-1	8.066906E-1	9.366758E-1	8.752742E-1	8.141352E-1	8.288489E-1	7.836181E-1	8.572671E-1	8.140508E-1	7.676616E-1	8.667998E-1	9.283810E-1	8.482532E-1	8.469099E-1	8.326086E-1	9.286900E-1	9.145866E-1	8.608548E-1
2.896060E+2	7.684579E-1	8.268071E-1	8.393430E-1	7.924138E-1	7.441580E-1	8.358930E-1	8.094507E-1	7.869547E-1	7.641029E-1	7.745717E-1	8.465857E-1	8.000095E-1	8.369461E-1	8.516792E-1	7.265780E-1	7.873016E-1	8.494582E-1	7.748638E-1	8.581740E-1	8.272740E-1	7.358773E-1	7.810831E-1	8.036690E-1	8.677567E-1	7.828876E-1	7.995205E-1	7.483154E-1	7.821089E-1	7.899766E-1	7.724735E-1	7.844170E-1	7.693749E-1	7.774492E-1	8.246803E-1	7.297129E-1	7.756983E-1	7.643397E-1	7.811393E-1	7.838208E-1	8.234118E-1	7.864819E-1	8.213124E-1	7.908001E-1	8.016720E-1	8.143250E-1	8.104071E-1	7.914104E-1	8.052610E-1	8.585141E-1	7.531588E-1	7.747086E-1	7.977942E-1	7.743810E-1	8.140369E-1	7.776861E-1	7.854244E-1	8.055266E-1	7.751913E-1	7.773246E-1	8.070687E-1	7.841083E-1	7.394531E-1	7.531883E-1	8.062519E-1	8.258210E-1	8.312540E-1	8.196433E-1	8.382738E-1	7.959442E-1	7.944440E-1	7.605768E-1	7.644148E-1	8.310419E-1	8.250743E-1	8.307128E-1	7.356351E-1	8.596364E-1	8.753262E-1	8.147398E-1	8.258313E-1	8.264428E-1	7.909104E-1	8.256302E-1	8.806369E-1	7.810470E-1	7.183001E-1	8.172584E-1	7.765752E-1	7.720867E-1	7.740028E-1	7.341167E-1	7.875137E-1	7.901354E-1	7.757748E-1	7.772536E-1	7.206180E-1	7.521823E-1	6.692363E-1	7.788441E-1	8.098957E-1	8.444294E-1	7.788201E-1	8.193607E-1	7.689843E-1	7.924352E-1	8.452743E-1	8.259113E-1	7.402343E-1	7.568381E-1	7.383241E-1	7.902305E-1	7.865251E-1	8.235280E-1	7.823599E-1	8.412831E-1	7.879976E-1	8.261126E-1	7.676033E-1	8.384606E-1	8.223541E-1	8.433355E-1	8.383660E-1	8.498181E-1	8.086324E-1	7.913321E-1	8.069804E-1	7.892351E-1	8.124115E-1	8.608499E-1	7.814600E-1	8.545199E-1	8.241982E-1	8.502758E-1	7.718727E-1	7.640329E-1	7.955813E-1	8.572631E-1	7.916427E-1	7.809370E-1	8.276563E-1	7.850209E-1	7.749535E-1	7.574973E-1	8.567655E-1	8.617343E-1	7.498712E-1	8.134402E-1	8.351734E-1	7.839179E-1	8.645565E-1	7.772041E-1	7.453756E-1	8.567760E-1	7.786386E-1	8.212249E-1	8.077023E-1	8.266236E-1	8.213947E-1	7.791555E-1	7.010949E-1	8.922724E-1	8.279115E-1	7.775544E-1	7.589874E-1	7.860335E-1	7.400498E-1	7.848735E-1	8.230473E-1	8.136388E-1	7.666492E-1
2.898050E+2	7.588249E-1	8.133996E-1	7.287768E-1	7.549996E-1	7.390187E-1	7.192734E-1	7.657000E-1	8.086134E-1	7.341588E-1	8.012558E-1	7.760844E-1	7.515233E-1	7.323403E-1	8.364504E-1	7.561107E-1	7.202936E-1	7.402839E-1	7.308490E-1	7.137520E-1	7.332163E-1	7.724007E-1	7.390236E-1	7.837606E-1	8.103450E-1	8.220962E-1	6.851312E-1	8.300177E-1	7.114674E-1	7.102849E-1	7.680866E-1	7.402782E-1	7.917682E-1	7.910155E-1	7.310306E-1	7.114308E-1	7.102811E-1	7.898797E-1	7.289788E-1	7.541736E-1	7.429909E-1	7.723342E-1	8.058952E-1	7.045154E-1	7.569511E-1	7.746308E-1	8.327493E-1	7.366569E-1	8.131343E-1	8.332867E-1	7.959435E-1	7.245242E-1	7.200980E-1	7.432414E-1	7.314441E-1	7.897755E-1	7.610187E-1	7.351847E-1	8.015184E-1	7.436849E-1	7.880116E-1	7.309603E-1	7.076758E-1	7.647306E-1	7.270037E-1	7.552349E-1	7.483062E-1	7.429215E-1	7.001111E-1	7.066457E-1	7.597485E-1	7.636464E-1	7.334551E-1	8.281494E-1	7.971573E-1	7.779149E-1	7.372033E-1	7.625935E-1	7.707477E-1	7.810301E-1	7.426838E-1	7.774645E-1	7.411506E-1	7.202412E-1	7.649357E-1	8.070811E-1	7.224438E-1	7.576094E-1	7.700910E-1	7.106281E-1	7.455840E-1	7.041691E-1	7.986661E-1	8.032982E-1	7.292928E-1	7.536615E-1	6.861383E-1	7.072818E-1	7.414221E-1	6.962455E-1	7.741013E-1	7.610820E-1	7.750382E-1	7.230679E-1	7.052738E-1	7.762658E-1	7.335965E-1	7.436538E-1	7.577919E-1	7.336937E-1	7.303866E-1	7.673937E-1	8.155900E-1	7.233280E-1	8.531709E-1	7.893086E-1	7.436413E-1	7.090199E-1	7.381602E-1	7.563954E-1	7.819810E-1	7.372677E-1	7.810223E-1	7.645830E-1	7.191332E-1	8.022422E-1	7.876657E-1	7.773711E-1	8.051877E-1	7.510801E-1	8.124139E-1	7.443410E-1	7.404416E-1	7.617489E-1	7.543399E-1	7.541648E-1	7.574126E-1	7.945216E-1	7.667595E-1	6.931522E-1	7.603473E-1	7.329049E-1	7.395714E-1	7.661237E-1	7.530127E-1	7.066020E-1	7.255685E-1	7.893838E-1	8.226923E-1	7.475745E-1	9.025403E-1	7.665075E-1	7.540296E-1	8.148271E-1	7.501327E-1	7.554076E-1	7.614780E-1	7.698900E-1	7.857630E-1	7.342248E-1	7.182735E-1	8.383449E-1	7.255331E-1	7.124508E-1	7.677032E-1	8.088715E-1	7.303055E-1	7.447968E-1	8.577775E-1	6.755508E-1	8.545364E-1
2.900050E+2	8.146241E-1	7.255570E-1	8.394706E-1	6.821693E-1	7.836539E-1	6.578790E-1	7.170481E-1	7.155144E-1	8.286311E-1	7.580477E-1	8.194093E-1	7.983571E-1	7.382378E-1	7.390507E-1	8.037730E-1	7.111338E-1	7.295961E-1	6.609764E-1	7.146448E-1	7.885768E-1	7.717684E-1	7.232835E-1	8.095193E-1	7.725909E-1	7.222356E-1	6.968244E-1	7.954386E-1	7.684194E-1	7.379583E-1	7.525653E-1	7.390795E-1	7.094297E-1	7.596124E-1	8.055537E-1	7.251383E-1	7.452845E-1	7.638740E-1	7.335365E-1	7.801394E-1	7.447667E-1	8.286008E-1	7.544643E-1	7.622834E-1	7.333223E-1	7.842239E-1	7.248182E-1	6.712089E-1	7.679432E-1	7.751930E-1	7.467894E-1	7.578966E-1	7.292778E-1	7.649769E-1	7.033191E-1	7.438369E-1	6.894496E-1	7.264662E-1	7.359342E-1	7.668142E-1	7.204826E-1	7.228243E-1	7.602029E-1	7.485887E-1	7.528063E-1	7.614341E-1	7.173100E-1	7.781856E-1	7.881808E-1	7.596253E-1	7.883643E-1	7.003509E-1	7.516569E-1	8.148933E-1	7.350853E-1	7.404953E-1	7.283731E-1	7.487416E-1	7.564060E-1	7.788271E-1	7.842681E-1	7.556029E-1	8.001128E-1	7.641725E-1	7.384759E-1	7.667272E-1	7.053451E-1	7.494757E-1	7.776704E-1	7.797648E-1	7.221718E-1	7.449233E-1	6.996319E-1	7.289041E-1	7.709554E-1	7.652086E-1	8.133755E-1	7.727746E-1	7.707179E-1	7.795330E-1	7.441545E-1	8.019102E-1	7.777370E-1	7.163856E-1	7.622221E-1	7.919019E-1	7.245446E-1	7.346053E-1	6.745592E-1	7.575990E-1	7.049209E-1	7.477333E-1	7.489774E-1	6.917726E-1	7.010909E-1	7.681200E-1	7.397156E-1	7.499637E-1	7.876497E-1	7.587307E-1	7.499659E-1	7.797927E-1	8.135165E-1	7.204464E-1	7.274232E-1	7.083971E-1	7.975201E-1	7.191912E-1	8.028666E-1	7.504905E-1	7.110126E-1	7.659352E-1	7.307201E-1	7.639850E-1	7.968245E-1	7.393459E-1	7.435014E-1	7.495574E-1	7.848469E-1	6.624861E-1	7.624634E-1	7.747811E-1	7.722813E-1	7.676190E-1	7.458856E-1	7.140436E-1	6.852209E-1	7.606395E-1	7.359862E-1	7.162220E-1	7.251322E-1	6.895383E-1	7.113133E-1	7.956626E-1	6.966181E-1	7.784186E-1	6.710092E-1	7.642892E-1	7.063413E-1	7.758782E-1	7.986217E-1	7.533796E-1	7.626013E-1	7.615719E-1	7.533072E-1	7.780348E-1	7.857157E-1	7.199134E-1	7.319161E-1	7.720353E-1	7.891423E-1
2.905120E+2	9.484877E-1	9.007068E-1	9.605258E-1	8.481203E-1	9.109446E-1	9.396077E-1	8.832328E-1	9.020404E-1	9.327820E-1	9.141656E-1	9.301730E-1	9.313814E-1	9.489903E-1	9.075182E-1	9.098638E-1	8.837645E-1	9.277560E-1	8.933384E-1	8.439285E-1	1.012507E+0	1.033887E+0	9.123590E-1	9.103412E-1	8.248601E-1	9.596509E-1	9.395405E-1	1.004594E+0	8.787335E-1	9.372541E-1	9.839954E-1	9.050404E-1	9.766989E-1	1.024382E+0	8.760340E-1	9.198717E-1	8.720071E-1	9.875161E-1	9.107257E-1	1.011006E+0	9.156329E-1	1.024657E+0	9.345034E-1	9.198265E-1	9.432246E-1	9.948324E-1	9.751749E-1	9.269946E-1	9.798499E-1	9.537547E-1	9.197300E-1	9.381228E-1	8.716058E-1	9.235381E-1	9.731392E-1	9.318497E-1	9.510869E-1	9.465471E-1	9.589632E-1	8.704611E-1	9.093859E-1	9.512152E-1	1.006036E+0	9.116237E-1	1.005351E+0	9.543937E-1	8.972766E-1	8.798390E-1	9.391665E-1	9.360347E-1	8.838324E-1	8.743461E-1	8.998504E-1	9.531541E-1	9.425732E-1	8.520698E-1	8.767087E-1	9.473878E-1	9.321026E-1	9.401730E-1	1.000139E+0	9.634703E-1	9.642191E-1	8.800343E-1	9.336980E-1	9.798027E-1	9.149250E-1	8.982999E-1	9.039552E-1	8.633211E-1	9.437377E-1	9.007670E-1	8.644342E-1	8.914691E-1	9.048879E-1	8.581327E-1	8.775176E-1	8.695594E-1	9.648631E-1	9.143798E-1	9.815809E-1	9.165914E-1	9.726184E-1	9.683891E-1	9.509725E-1	8.438541E-1	9.665748E-1	8.836998E-1	9.030798E-1	9.565540E-1	8.155864E-1	9.019214E-1	9.523574E-1	9.430140E-1	9.491659E-1	9.353772E-1	8.932250E-1	9.423418E-1	9.103457E-1	8.782176E-1	9.295409E-1	9.431621E-1	9.210702E-1	9.296411E-1	8.301872E-1	8.805325E-1	9.334082E-1	1.051143E+0	9.044714E-1	9.288969E-1	9.987548E-1	8.746597E-1	8.965268E-1	8.827501E-1	9.048265E-1	8.914821E-1	9.391639E-1	9.505264E-1	9.303020E-1	8.987358E-1	9.511458E-1	9.864317E-1	1.000395E+0	9.096674E-1	9.192096E-1	9.508522E-1	1.004691E+0	8.986060E-1	9.179109E-1	9.347271E-1	1.007021E+0	8.411713E-1	8.991617E-1	1.036270E+0	9.803287E-1	9.701931E-1	9.049271E-1	9.352295E-1	9.956458E-1	8.688987E-1	9.989589E-1	8.785075E-1	1.007958E+0	8.796434E-1	9.041757E-1	9.470929E-1	9.442256E-1	8.616516E-1	9.375599E-1	1.083142E+0	1.185983E+0
2.910040E+2	1.159479E+0	1.227738E+0	1.236406E+0	1.187645E+0	1.106010E+0	1.254926E+0	1.174179E+0	1.200399E+0	1.301882E+0	1.239396E+0	1.258640E+0	1.113874E+0	1.123058E+0	1.259923E+0	1.202735E+0	1.223537E+0	1.242083E+0	1.217481E+0	1.207253E+0	1.182603E+0	1.220742E+0	1.209556E+0	1.148833E+0	1.221327E+0	1.255385E+0	1.199968E+0	1.262478E+0	1.293071E+0	1.203934E+0	1.285817E+0	1.278541E+0	1.230842E+0	1.203603E+0	1.187472E+0	1.190506E+0	1.221174E+0	1.266262E+0	1.161203E+0	1.224438E+0	1.173582E+0	1.213874E+0	1.214045E+0	1.128671E+0	1.165892E+0	1.174487E+0	1.149760E+0	1.160570E+0	1.275073E+0	1.233646E+0	1.207909E+0	1.256701E+0	1.242157E+0	1.239189E+0	1.188583E+0	1.135284E+0	1.248768E+0	1.239587E+0	1.197672E+0	1.217718E+0	1.177091E+0	1.224305E+0	1.217257E+0	1.180546E+0	1.328486E+0	1.192138E+0	1.219077E+0	1.282422E+0	1.212371E+0	1.204445E+0	1.259346E+0	1.197733E+0	1.149150E+0	1.228082E+0	1.276152E+0	1.231238E+0	1.207234E+0	1.223913E+0	1.224231E+0	1.289690E+0	1.218873E+0	1.167809E+0	1.201890E+0	1.268973E+0	1.280800E+0	1.153013E+0	1.228357E+0	1.149428E+0	1.226014E+0	1.294177E+0	1.292218E+0	1.187534E+0	1.235492E+0	1.258914E+0	1.255148E+0	1.186708E+0	1.182094E+0	1.336190E+0	1.235314E+0	1.248800E+0	1.221949E+0	1.231532E+0	1.246911E+0	1.169283E+0	1.131141E+0	1.230871E+0	1.235406E+0	1.137512E+0	1.233106E+0	1.286807E+0	1.217123E+0	1.220184E+0	1.235037E+0	1.222752E+0	1.245748E+0	1.137742E+0	1.203878E+0	1.135257E+0	1.164099E+0	1.220416E+0	1.288436E+0	1.213696E+0	1.191131E+0	1.256849E+0	1.209108E+0	1.219117E+0	1.190096E+0	1.208070E+0	1.262534E+0	1.222173E+0	1.253177E+0	1.187120E+0	1.199783E+0	1.239796E+0	1.177393E+0	1.115544E+0	1.268164E+0	1.132722E+0	1.191555E+0	1.187113E+0	1.129556E+0	1.264027E+0	1.257477E+0	1.222772E+0	1.243177E+0	1.206527E+0	1.173977E+0	1.119709E+0	1.147623E+0	1.169784E+0	1.286861E+0	1.166822E+0	1.284712E+0	1.211556E+0	1.142457E+0	1.324390E+0	1.196120E+0	1.174660E+0	1.219430E+0	1.171630E+0	1.248212E+0	1.243643E+0	1.180675E+0	1.204257E+0	1.199266E+0	1.217489E+0	1.101991E+0	1.136744E+0	1.255101E+0	1.114126E+0	1.204724E+0
2.915060E+2	1.420990E+0	1.410865E+0	1.533063E+0	1.443304E+0	1.364507E+0	1.404181E+0	1.405260E+0	1.319499E+0	1.360425E+0	1.330630E+0	1.466268E+0	1.464837E+0	1.540621E+0	1.569237E+0	1.390967E+0	1.427351E+0	1.466042E+0	1.522642E+0	1.500325E+0	1.510102E+0	1.329388E+0	1.488227E+0	1.449337E+0	1.524165E+0	1.306169E+0	1.407968E+0	1.400618E+0	1.375574E+0	1.410209E+0	1.387241E+0	1.397861E+0	1.449317E+0	1.307388E+0	1.416012E+0	1.440764E+0	1.390819E+0	1.363295E+0	1.396138E+0	1.504492E+0	1.354530E+0	1.487558E+0	1.503224E+0	1.481299E+0	1.371517E+0	1.467179E+0	1.356661E+0	1.456757E+0	1.369240E+0	1.422375E+0	1.442496E+0	1.343162E+0	1.405552E+0	1.454276E+0	1.402359E+0	1.374694E+0	1.439416E+0	1.453030E+0	1.510033E+0	1.376473E+0	1.464649E+0	1.443830E+0	1.350524E+0	1.405850E+0	1.458511E+0	1.340954E+0	1.428352E+0	1.445528E+0	1.415790E+0	1.346817E+0	1.435283E+0	1.392340E+0	1.300889E+0	1.481551E+0	1.478021E+0	1.341544E+0	1.467752E+0	1.477976E+0	1.390044E+0	1.469073E+0	1.382338E+0	1.331102E+0	1.373420E+0	1.384410E+0	1.390969E+0	1.427892E+0	1.338678E+0	1.362526E+0	1.457009E+0	1.407368E+0	1.372557E+0	1.423546E+0	1.402041E+0	1.399667E+0	1.329919E+0	1.471548E+0	1.419963E+0	1.458561E+0	1.450216E+0	1.426149E+0	1.424108E+0	1.484093E+0	1.452954E+0	1.523136E+0	1.389706E+0	1.377998E+0	1.483940E+0	1.320964E+0	1.328581E+0	1.426480E+0	1.356817E+0	1.388810E+0	1.399460E+0	1.421393E+0	1.498918E+0	1.403666E+0	1.388206E+0	1.518892E+0	1.398991E+0	1.470745E+0	1.415951E+0	1.387025E+0	1.505298E+0	1.428899E+0	1.379902E+0	1.480839E+0	1.394479E+0	1.354818E+0	1.420879E+0	1.409897E+0	1.500492E+0	1.365667E+0	1.433605E+0	1.408702E+0	1.436770E+0	1.460143E+0	1.492063E+0	1.450956E+0	1.469303E+0	1.394291E+0	1.354670E+0	1.386234E+0	1.455094E+0	1.373647E+0	1.401799E+0	1.431611E+0	1.432192E+0	1.433445E+0	1.403817E+0	1.448303E+0	1.537773E+0	1.437866E+0	1.448005E+0	1.397707E+0	1.365990E+0	1.404400E+0	1.425947E+0	1.340817E+0	1.417092E+0	1.356483E+0	1.554255E+0	1.524549E+0	1.331817E+0	1.358520E+0	1.395435E+0	1.506988E+0	1.402305E+0	1.459567E+0	1.443271E+0	1.632504E+0	1.577780E+0
2.920050E+2	1.321552E+0	1.319800E+0	1.209450E+0	1.261167E+0	1.353631E+0	1.314126E+0	1.338617E+0	1.305957E+0	1.314286E+0	1.264291E+0	1.324878E+0	1.362586E+0	1.315136E+0	1.375639E+0	1.384887E+0	1.204578E+0	1.328235E+0	1.389245E+0	1.392022E+0	1.327565E+0	1.330451E+0	1.304470E+0	1.337721E+0	1.351092E+0	1.324418E+0	1.233919E+0	1.290588E+0	1.244213E+0	1.354425E+0	1.417661E+0	1.304889E+0	1.314276E+0	1.327827E+0	1.352880E+0	1.228506E+0	1.201330E+0	1.304548E+0	1.353223E+0	1.447787E+0	1.278620E+0	1.368214E+0	1.395265E+0	1.274917E+0	1.291346E+0	1.320319E+0	1.328958E+0	1.278085E+0	1.305379E+0	1.472191E+0	1.340747E+0	1.302351E+0	1.345812E+0	1.368019E+0	1.348626E+0	1.444881E+0	1.391299E+0	1.433705E+0	1.358046E+0	1.364814E+0	1.381142E+0	1.334222E+0	1.321560E+0	1.348679E+0	1.341232E+0	1.285087E+0	1.228267E+0	1.403482E+0	1.268160E+0	1.297425E+0	1.364396E+0	1.233725E+0	1.331427E+0	1.437558E+0	1.358423E+0	1.271379E+0	1.284106E+0	1.335636E+0	1.449600E+0	1.393730E+0	1.272863E+0	1.333569E+0	1.336730E+0	1.286177E+0	1.236765E+0	1.343315E+0	1.348717E+0	1.220337E+0	1.359013E+0	1.319634E+0	1.271068E+0	1.301366E+0	1.337514E+0	1.319475E+0	1.366245E+0	1.338322E+0	1.332332E+0	1.370978E+0	1.374245E+0	1.270281E+0	1.244662E+0	1.406603E+0	1.434652E+0	1.382130E+0	1.450148E+0	1.374047E+0	1.421580E+0	1.384890E+0	1.353553E+0	1.350664E+0	1.357274E+0	1.442925E+0	1.255185E+0	1.326894E+0	1.366841E+0	1.282826E+0	1.260230E+0	1.319946E+0	1.325450E+0	1.438125E+0	1.311369E+0	1.337649E+0	1.293017E+0	1.373750E+0	1.324398E+0	1.334784E+0	1.275014E+0	1.292647E+0	1.351308E+0	1.260169E+0	1.442008E+0	1.265853E+0	1.245202E+0	1.333251E+0	1.339759E+0	1.230710E+0	1.289254E+0	1.354978E+0	1.324889E+0	1.327349E+0	1.236712E+0	1.467838E+0	1.380888E+0	1.324109E+0	1.424732E+0	1.339364E+0	1.238039E+0	1.281105E+0	1.340815E+0	1.313591E+0	1.356059E+0	1.439732E+0	1.318727E+0	1.361468E+0	1.272912E+0	1.287063E+0	1.347978E+0	1.280970E+0	1.377601E+0	1.350036E+0	1.323104E+0	1.285824E+0	1.342453E+0	1.398157E+0	1.351112E+0	1.297466E+0	1.311287E+0	1.248020E+0	1.401632E+0	1.477122E+0	1.283025E+0
2.924990E+2	1.197114E+0	1.070978E+0	1.232625E+0	1.223627E+0	1.171119E+0	1.122247E+0	1.192592E+0	1.137641E+0	1.154117E+0	1.241014E+0	1.233995E+0	1.199994E+0	1.225603E+0	1.310769E+0	1.182261E+0	1.189807E+0	1.165036E+0	1.222696E+0	1.134871E+0	1.220631E+0	1.128764E+0	1.169337E+0	1.107172E+0	1.173221E+0	1.317975E+0	1.155143E+0	1.115800E+0	1.158028E+0	1.218954E+0	1.095476E+0	1.216407E+0	1.140932E+0	1.260290E+0	1.133067E+0	1.167289E+0	1.118540E+0	1.142736E+0	1.241426E+0	1.260102E+0	1.248316E+0	1.179208E+0	1.131646E+0	1.168056E+0	1.126472E+0	1.271029E+0	1.205172E+0	1.146613E+0	1.172314E+0	1.284964E+0	1.191368E+0	1.221516E+0	1.192660E+0	1.194273E+0	1.187139E+0	1.174712E+0	1.128069E+0	1.217580E+0	1.236772E+0	1.133494E+0	1.113082E+0	1.149290E+0	1.243064E+0	1.229587E+0	1.201491E+0	1.164907E+0	1.150131E+0	1.220474E+0	1.199417E+0	1.226965E+0	1.154082E+0	1.122178E+0	1.135223E+0	1.237280E+0	1.141598E+0	1.095947E+0	1.144058E+0	1.166607E+0	1.169093E+0	1.227864E+0	1.203366E+0	1.205349E+0	1.231417E+0	1.231370E+0	1.188190E+0	1.202156E+0	1.241692E+0	1.078233E+0	1.143181E+0	1.162719E+0	1.137152E+0	1.195852E+0	1.116233E+0	1.158159E+0	1.260756E+0	1.232593E+0	1.146259E+0	1.133659E+0	1.234975E+0	1.183753E+0	1.210078E+0	1.177393E+0	1.225227E+0	1.126277E+0	1.083937E+0	1.294448E+0	1.196361E+0	1.145326E+0	1.198425E+0	1.138919E+0	1.164843E+0	1.196176E+0	1.256091E+0	1.192635E+0	1.199558E+0	1.174803E+0	1.092433E+0	1.265782E+0	1.130017E+0	1.255374E+0	1.204390E+0	1.211999E+0	1.203470E+0	1.172137E+0	1.276310E+0	1.134590E+0	1.199583E+0	1.184954E+0	1.101074E+0	1.140506E+0	1.242873E+0	1.179346E+0	1.134165E+0	1.184847E+0	1.190350E+0	1.111255E+0	1.108040E+0	1.214090E+0	1.122272E+0	1.167224E+0	1.204590E+0	1.191069E+0	1.197508E+0	1.182978E+0	1.201708E+0	1.189770E+0	1.184339E+0	1.235206E+0	1.151994E+0	1.191457E+0	1.206875E+0	1.184510E+0	1.095431E+0	1.194472E+0	1.037944E+0	1.174641E+0	1.259159E+0	1.190274E+0	1.155337E+0	1.237996E+0	1.194821E+0	1.221438E+0	1.157001E+0	1.162086E+0	1.227682E+0	1.189551E+0	1.112109E+0	1.139292E+0	1.183858E+0	1.406995E+0	1.157236E+0
2.930130E+2	1.111414E+0	9.963559E-1	1.017856E+0	1.039064E+0	1.080131E+0	9.693095E-1	1.049738E+0	1.074676E+0	1.038415E+0	1.005172E+0	9.843203E-1	9.919189E-1	1.016164E+0	1.075617E+0	1.034745E+0	9.708953E-1	9.794100E-1	9.386878E-1	9.696063E-1	9.755051E-1	1.082550E+0	1.086640E+0	9.641916E-1	1.047239E+0	1.122308E+0	1.068909E+0	1.073116E+0	9.923497E-1	9.746618E-1	1.014558E+0	9.702385E-1	1.029068E+0	9.908388E-1	1.047097E+0	9.674031E-1	1.024546E+0	1.032291E+0	1.104114E+0	1.000211E+0	1.034784E+0	1.096214E+0	1.098976E+0	1.037140E+0	1.016604E+0	9.308498E-1	1.043912E+0	1.096340E+0	1.034327E+0	1.050128E+0	9.874163E-1	1.027414E+0	9.514945E-1	1.027096E+0	9.232309E-1	1.000861E+0	1.037360E+0	1.073541E+0	1.044429E+0	1.022664E+0	1.008960E+0	1.087092E+0	1.071356E+0	9.899729E-1	1.052738E+0	1.036940E+0	1.001902E+0	1.034862E+0	1.003358E+0	9.736469E-1	9.495779E-1	1.019503E+0	1.003335E+0	1.026463E+0	1.019644E+0	1.024277E+0	1.018534E+0	1.025842E+0	1.059867E+0	1.066373E+0	1.076126E+0	9.938732E-1	1.004889E+0	1.055883E+0	1.062062E+0	9.903187E-1	1.001487E+0	1.025143E+0	1.066365E+0	1.063035E+0	9.759108E-1	1.068018E+0	9.815239E-1	9.823987E-1	9.576515E-1	1.009572E+0	1.056955E+0	1.006592E+0	1.006506E+0	9.606078E-1	9.759006E-1	1.035848E+0	1.077089E+0	1.026389E+0	1.041107E+0	9.924819E-1	1.002117E+0	9.978312E-1	1.020407E+0	1.060516E+0	9.864922E-1	1.082179E+0	1.033770E+0	1.047839E+0	1.001019E+0	1.050492E+0	1.075430E+0	1.062858E+0	9.984672E-1	1.028801E+0	1.078786E+0	1.131039E+0	1.107428E+0	1.093382E+0	1.003514E+0	1.072263E+0	1.040474E+0	1.043477E+0	1.016242E+0	1.015515E+0	1.126820E+0	1.026604E+0	9.887177E-1	1.030066E+0	9.269099E-1	9.276204E-1	1.065675E+0	1.037605E+0	1.128187E+0	9.293545E-1	1.031435E+0	1.023917E+0	1.023135E+0	1.005916E+0	1.047330E+0	1.039909E+0	9.793054E-1	1.056168E+0	1.015526E+0	9.629808E-1	1.028790E+0	9.581572E-1	1.114955E+0	1.058993E+0	9.272017E-1	1.044359E+0	9.416220E-1	1.020438E+0	1.056054E+0	1.088543E+0	1.025568E+0	1.028626E+0	1.015004E+0	9.652312E-1	1.015503E+0	1.068421E+0	1.042359E+0	1.038753E+0	1.101095E+0	1.158527E+0	9.391378E-1
2.935030E+2	1.179251E+0	1.140829E+0	1.176241E+0	1.120820E+0	1.020685E+0	1.115532E+0	1.093976E+0	1.069655E+0	1.102869E+0	1.143571E+0	1.050903E+0	1.121619E+0	1.155416E+0	1.160068E+0	1.012135E+0	1.035910E+0	1.167284E+0	1.052095E+0	1.071701E+0	1.111445E+0	1.078544E+0	1.137927E+0	1.123563E+0	9.882181E-1	9.856030E-1	1.083905E+0	1.056892E+0	1.073752E+0	1.044675E+0	1.102442E+0	1.027498E+0	1.095055E+0	1.071214E+0	1.092952E+0	1.100359E+0	1.139960E+0	1.091566E+0	1.070818E+0	1.031295E+0	1.071275E+0	9.999058E-1	1.191830E+0	1.091398E+0	1.064668E+0	1.079467E+0	1.057494E+0	1.035512E+0	1.084949E+0	1.168088E+0	1.119264E+0	1.139883E+0	1.122371E+0	1.038403E+0	1.097861E+0	1.063000E+0	1.039709E+0	1.116933E+0	1.069678E+0	9.712737E-1	1.095647E+0	1.054999E+0	1.105913E+0	1.063297E+0	1.073484E+0	1.066884E+0	1.076632E+0	1.074217E+0	1.018727E+0	1.055935E+0	1.087081E+0	1.045981E+0	1.045031E+0	1.063426E+0	1.157919E+0	1.109545E+0	1.126638E+0	1.120246E+0	1.119753E+0	1.129283E+0	1.073644E+0	1.059336E+0	1.121050E+0	1.025826E+0	1.060906E+0	1.086953E+0	1.054375E+0	1.080049E+0	9.996429E-1	1.080954E+0	9.988699E-1	1.116422E+0	1.002659E+0	1.076439E+0	1.123336E+0	1.124120E+0	1.070918E+0	1.023723E+0	1.076660E+0	1.051058E+0	1.045733E+0	1.099990E+0	1.136054E+0	1.025696E+0	1.095651E+0	1.079185E+0	1.168941E+0	1.111035E+0	9.958944E-1	1.127340E+0	1.078861E+0	1.093962E+0	1.124889E+0	1.079747E+0	1.112151E+0	1.063131E+0	1.104227E+0	1.044532E+0	1.150814E+0	1.055789E+0	1.107171E+0	1.092209E+0	1.023913E+0	1.077124E+0	1.098712E+0	1.068882E+0	1.054262E+0	1.148203E+0	1.068901E+0	1.106381E+0	1.133764E+0	1.134369E+0	1.074114E+0	1.128501E+0	1.091168E+0	1.051344E+0	1.071472E+0	1.110785E+0	1.211583E+0	9.583809E-1	1.091880E+0	1.108910E+0	1.137947E+0	1.077130E+0	1.096003E+0	1.122667E+0	1.102355E+0	1.042867E+0	1.103216E+0	1.075069E+0	1.189203E+0	1.069268E+0	1.031551E+0	1.036849E+0	1.041882E+0	1.050861E+0	1.053495E+0	1.123084E+0	1.117395E+0	1.088503E+0	1.084398E+0	1.123072E+0	1.075769E+0	1.108544E+0	1.065313E+0	1.102504E+0	1.008957E+0	1.021701E+0	1.099986E+0	1.096701E+0	1.128093E+0
2.940070E+2	1.069684E+0	1.063255E+0	9.501380E-1	9.049386E-1	9.846963E-1	9.792121E-1	1.010914E+0	1.004128E+0	1.023858E+0	1.027902E+0	1.100749E+0	1.035599E+0	1.033018E+0	1.009982E+0	9.561561E-1	1.020627E+0	1.003717E+0	1.038015E+0	1.049978E+0	1.030882E+0	9.809219E-1	1.005019E+0	1.048858E+0	1.030667E+0	9.845294E-1	9.560958E-1	9.671180E-1	1.096604E+0	1.021677E+0	1.030130E+0	9.290052E-1	1.011830E+0	1.032722E+0	9.734147E-1	9.685196E-1	9.332699E-1	1.005036E+0	1.025658E+0	1.072487E+0	1.066879E+0	9.636380E-1	1.090184E+0	1.012518E+0	9.535483E-1	9.911224E-1	1.010696E+0	9.970466E-1	1.024925E+0	1.072204E+0	1.075721E+0	1.019751E+0	9.953469E-1	9.332032E-1	9.520121E-1	1.089747E+0	9.887484E-1	1.019120E+0	1.050192E+0	1.003453E+0	1.042671E+0	1.068335E+0	9.814698E-1	9.992449E-1	1.028044E+0	1.016093E+0	9.988602E-1	1.036080E+0	9.882881E-1	1.022722E+0	1.003702E+0	9.813521E-1	1.044652E+0	1.032590E+0	1.058899E+0	9.731849E-1	1.000120E+0	1.023324E+0	9.893239E-1	1.012404E+0	1.026504E+0	1.021065E+0	1.061413E+0	1.015165E+0	1.127077E+0	1.023519E+0	9.852924E-1	1.060543E+0	1.040143E+0	1.020349E+0	1.042346E+0	1.017565E+0	1.019360E+0	9.507603E-1	1.014975E+0	1.014299E+0	1.067500E+0	1.040825E+0	1.031040E+0	9.722378E-1	1.036374E+0	9.343579E-1	1.074726E+0	9.313749E-1	1.005761E+0	1.028800E+0	1.047914E+0	9.130751E-1	9.487068E-1	1.051095E+0	1.004356E+0	1.109068E+0	1.010900E+0	1.056592E+0	9.532925E-1	1.005051E+0	1.028807E+0	1.038431E+0	1.044748E+0	1.052854E+0	9.528363E-1	1.005090E+0	1.033768E+0	1.040535E+0	9.565122E-1	9.432557E-1	9.683598E-1	1.004515E+0	1.035275E+0	1.113176E+0	1.075478E+0	1.033278E+0	1.070033E+0	9.525799E-1	1.033658E+0	9.451579E-1	9.755373E-1	1.062098E+0	1.086251E+0	9.433671E-1	1.003247E+0	1.030172E+0	1.040829E+0	9.615401E-1	1.057877E+0	1.051138E+0	9.869235E-1	1.082293E+0	1.023719E+0	1.073546E+0	1.028678E+0	1.015252E+0	1.012636E+0	1.002447E+0	1.010119E+0	1.084320E+0	9.559118E-1	1.097170E+0	1.017798E+0	1.046967E+0	1.027810E+0	9.654756E-1	9.518184E-1	1.104043E+0	9.624270E-1	1.037559E+0	1.025137E+0	1.048794E+0	9.716697E-1	1.075194E+0	1.015056E+0
2.945060E+2	9.412673E-1	9.982297E-1	9.983162E-1	9.544822E-1	9.503828E-1	9.966727E-1	9.588952E-1	9.623696E-1	1.054423E+0	1.029218E+0	1.026242E+0	9.608869E-1	1.036137E+0	1.078356E+0	9.895931E-1	9.382528E-1	9.893241E-1	1.012431E+0	9.485016E-1	1.035484E+0	9.663798E-1	9.888199E-1	9.094970E-1	1.001802E+0	1.055581E+0	9.547401E-1	9.696853E-1	1.007462E+0	9.965931E-1	1.048946E+0	9.333297E-1	1.012070E+0	9.948170E-1	9.611252E-1	9.774595E-1	1.020831E+0	9.163040E-1	1.008268E+0	9.734654E-1	1.055958E+0	1.030688E+0	1.074440E+0	9.273203E-1	1.001539E+0	9.835774E-1	1.009817E+0	9.647573E-1	1.117985E+0	1.031183E+0	1.004007E+0	9.662801E-1	9.605459E-1	1.012191E+0	1.021504E+0	9.964562E-1	9.525676E-1	1.028448E+0	1.113406E+0	1.013826E+0	9.548739E-1	9.392161E-1	1.002228E+0	9.714172E-1	9.674501E-1	9.533758E-1	9.886250E-1	9.796349E-1	9.796318E-1	1.041580E+0	1.039984E+0	9.679212E-1	9.346850E-1	9.526139E-1	9.589739E-1	9.284014E-1	9.826112E-1	9.968031E-1	9.667052E-1	1.037148E+0	9.978008E-1	1.003577E+0	9.872202E-1	9.231992E-1	9.448432E-1	1.007826E+0	9.467030E-1	9.784942E-1	9.821487E-1	1.032411E+0	1.035839E+0	1.002948E+0	9.439183E-1	9.413916E-1	1.005715E+0	9.484913E-1	9.975927E-1	9.660064E-1	9.866131E-1	1.032667E+0	9.276670E-1	9.889376E-1	1.023581E+0	1.018211E+0	9.844258E-1	9.825071E-1	9.957115E-1	9.935132E-1	9.747578E-1	9.740037E-1	9.776715E-1	9.846923E-1	1.033486E+0	9.633353E-1	1.016687E+0	9.697899E-1	9.430025E-1	9.755218E-1	1.027077E+0	1.009607E+0	9.982556E-1	1.021931E+0	1.054658E+0	9.594686E-1	1.048972E+0	1.027663E+0	1.022673E+0	1.006307E+0	1.006091E+0	9.080799E-1	9.495601E-1	1.031079E+0	1.005285E+0	9.776443E-1	9.009598E-1	9.756787E-1	9.816649E-1	9.722439E-1	1.014828E+0	9.419586E-1	1.010581E+0	1.047305E+0	9.545394E-1	9.930026E-1	9.992861E-1	1.059587E+0	9.787591E-1	9.551997E-1	9.666340E-1	1.082591E+0	1.026850E+0	9.847905E-1	9.810222E-1	9.275825E-1	9.406425E-1	1.014372E+0	9.960505E-1	9.915157E-1	1.001633E+0	1.017945E+0	9.983997E-1	9.642924E-1	9.526536E-1	9.740756E-1	9.075098E-1	9.972095E-1	1.055268E+0	1.022981E+0	9.987053E-1	9.937908E-1	1.084664E+0
2.950050E+2	1.113530E+0	1.099180E+0	1.150147E+0	1.185468E+0	1.110357E+0	1.102280E+0	1.179877E+0	1.173500E+0	1.116280E+0	1.186158E+0	1.192010E+0	1.127461E+0	1.208386E+0	1.149302E+0	1.083115E+0	1.107910E+0	1.100363E+0	1.164346E+0	1.175539E+0	1.145537E+0	1.202063E+0	1.161233E+0	1.053934E+0	1.143808E+0	1.101958E+0	1.164775E+0	1.155227E+0	1.192633E+0	1.112266E+0	1.088009E+0	1.175496E+0	1.204118E+0	1.077487E+0	1.137576E+0	1.091079E+0	1.150716E+0	1.054354E+0	1.120060E+0	1.124998E+0	1.166202E+0	1.176462E+0	1.159113E+0	1.186568E+0	1.142930E+0	1.215225E+0	1.135108E+0	1.192967E+0	1.183236E+0	1.227448E+0	1.188289E+0	1.175521E+0	1.123834E+0	1.114636E+0	1.106724E+0	1.184950E+0	1.159767E+0	1.158918E+0	1.292239E+0	1.152723E+0	1.198629E+0	1.175976E+0	1.114436E+0	1.104486E+0	1.230921E+0	1.128852E+0	1.155344E+0	1.182739E+0	1.048533E+0	1.149261E+0	1.241968E+0	1.120424E+0	1.110281E+0	1.223093E+0	1.179396E+0	1.167429E+0	1.086545E+0	1.102869E+0	1.185364E+0	1.090226E+0	1.135334E+0	1.234099E+0	1.107380E+0	1.092475E+0	1.094649E+0	1.121599E+0	1.149581E+0	1.163765E+0	1.212523E+0	1.103427E+0	1.075324E+0	1.182934E+0	1.118100E+0	1.098528E+0	1.039286E+0	1.138756E+0	1.159162E+0	1.165998E+0	1.193488E+0	1.175259E+0	1.166195E+0	1.177220E+0	1.181155E+0	1.109568E+0	1.176451E+0	1.153740E+0	1.185645E+0	1.059167E+0	1.073903E+0	1.136065E+0	1.118170E+0	1.145602E+0	1.220682E+0	1.131758E+0	1.224901E+0	1.150148E+0	1.197154E+0	1.162565E+0	1.147867E+0	1.170153E+0	1.175601E+0	1.112876E+0	1.128183E+0	1.202430E+0	1.110250E+0	1.193709E+0	1.216508E+0	1.129209E+0	1.218060E+0	1.084133E+0	1.134750E+0	1.178377E+0	1.152689E+0	1.113195E+0	1.205382E+0	1.104881E+0	1.147723E+0	1.138197E+0	1.182739E+0	1.105257E+0	1.191211E+0	1.141240E+0	1.144409E+0	1.167423E+0	1.233772E+0	1.175154E+0	1.152060E+0	1.283127E+0	1.203993E+0	1.171341E+0	1.143459E+0	1.156522E+0	1.175201E+0	1.166409E+0	1.092772E+0	1.150109E+0	1.147401E+0	1.115533E+0	1.126243E+0	1.093042E+0	1.112403E+0	1.084710E+0	1.106261E+0	1.174168E+0	1.168324E+0	1.167342E+0	1.151279E+0	9.673458E-1	1.230477E+0	1.165069E+0	1.207313E+0
2.955070E+2	1.573521E+0	1.407505E+0	1.467449E+0	1.418065E+0	1.327469E+0	1.459582E+0	1.294424E+0	1.493872E+0	1.387114E+0	1.407660E+0	1.450146E+0	1.444246E+0	1.407517E+0	1.461514E+0	1.461539E+0	1.461549E+0	1.390322E+0	1.471952E+0	1.342555E+0	1.447685E+0	1.423516E+0	1.454963E+0	1.415804E+0	1.446732E+0	1.418991E+0	1.467620E+0	1.419209E+0	1.372652E+0	1.448362E+0	1.399557E+0	1.365318E+0	1.386220E+0	1.463772E+0	1.429930E+0	1.432301E+0	1.403153E+0	1.382814E+0	1.492279E+0	1.461330E+0	1.488353E+0	1.473020E+0	1.463422E+0	1.423245E+0	1.381879E+0	1.445707E+0	1.486087E+0	1.402246E+0	1.336996E+0	1.542353E+0	1.436102E+0	1.461070E+0	1.363806E+0	1.411100E+0	1.426107E+0	1.363989E+0	1.486389E+0	1.464938E+0	1.432276E+0	1.527336E+0	1.437887E+0	1.433689E+0	1.428886E+0	1.383807E+0	1.434307E+0	1.366632E+0	1.421391E+0	1.453250E+0	1.334013E+0	1.381413E+0	1.487744E+0	1.336856E+0	1.420430E+0	1.400324E+0	1.446959E+0	1.404717E+0	1.396041E+0	1.356664E+0	1.347478E+0	1.363614E+0	1.336568E+0	1.451890E+0	1.389185E+0	1.436090E+0	1.401803E+0	1.358885E+0	1.368842E+0	1.514658E+0	1.386375E+0	1.517004E+0	1.402843E+0	1.350598E+0	1.372632E+0	1.474654E+0	1.448745E+0	1.420748E+0	1.412385E+0	1.469860E+0	1.447184E+0	1.466580E+0	1.362842E+0	1.430373E+0	1.473230E+0	1.451531E+0	1.342967E+0	1.398109E+0	1.436139E+0	1.340364E+0	1.401777E+0	1.446564E+0	1.371571E+0	1.443544E+0	1.447057E+0	1.442286E+0	1.445937E+0	1.466402E+0	1.284536E+0	1.519532E+0	1.386764E+0	1.414971E+0	1.423093E+0	1.364135E+0	1.496315E+0	1.491959E+0	1.461695E+0	1.393560E+0	1.346427E+0	1.464948E+0	1.429107E+0	1.340899E+0	1.464449E+0	1.347690E+0	1.436961E+0	1.408113E+0	1.428229E+0	1.394640E+0	1.435687E+0	1.405040E+0	1.434934E+0	1.385616E+0	1.375015E+0	1.419928E+0	1.578788E+0	1.384956E+0	1.470507E+0	1.487681E+0	1.482685E+0	1.456109E+0	1.435070E+0	1.394399E+0	1.446869E+0	1.362811E+0	1.503820E+0	1.348460E+0	1.365858E+0	1.451239E+0	1.363294E+0	1.386460E+0	1.377382E+0	1.496001E+0	1.445581E+0	1.388719E+0	1.358067E+0	1.491723E+0	1.521844E+0	1.388618E+0	1.457151E+0	1.315091E+0	1.372111E+0	1.431216E+0	1.379701E+0
2.960050E+2	1.516271E+0	1.412814E+0	1.499176E+0	1.569110E+0	1.408951E+0	1.549432E+0	1.466784E+0	1.492364E+0	1.480594E+0	1.518545E+0	1.485557E+0	1.557389E+0	1.481358E+0	1.510748E+0	1.455307E+0	1.452365E+0	1.526213E+0	1.587001E+0	1.475403E+0	1.487343E+0	1.486411E+0	1.385993E+0	1.447981E+0	1.482475E+0	1.428694E+0	1.504116E+0	1.400414E+0	1.507541E+0	1.539334E+0	1.516621E+0	1.434241E+0	1.446878E+0	1.511576E+0	1.489332E+0	1.504848E+0	1.329857E+0	1.412426E+0	1.480802E+0	1.540445E+0	1.458118E+0	1.504097E+0	1.566429E+0	1.528145E+0	1.408237E+0	1.478048E+0	1.448110E+0	1.476654E+0	1.510052E+0	1.531400E+0	1.585838E+0	1.542027E+0	1.451397E+0	1.450967E+0	1.492332E+0	1.475418E+0	1.506004E+0	1.450596E+0	1.578236E+0	1.471365E+0	1.433476E+0	1.475242E+0	1.474060E+0	1.490522E+0	1.419409E+0	1.464219E+0	1.457550E+0	1.556093E+0	1.518263E+0	1.470800E+0	1.573949E+0	1.370200E+0	1.450136E+0	1.531984E+0	1.499180E+0	1.468081E+0	1.497285E+0	1.467085E+0	1.444268E+0	1.521694E+0	1.511721E+0	1.477146E+0	1.475144E+0	1.493992E+0	1.402500E+0	1.469523E+0	1.538491E+0	1.525100E+0	1.626473E+0	1.452899E+0	1.467732E+0	1.447082E+0	1.465600E+0	1.413849E+0	1.494706E+0	1.462264E+0	1.472107E+0	1.458585E+0	1.518709E+0	1.463927E+0	1.546024E+0	1.547376E+0	1.583712E+0	1.418636E+0	1.508830E+0	1.419083E+0	1.502949E+0	1.563689E+0	1.540059E+0	1.512029E+0	1.443761E+0	1.534810E+0	1.529651E+0	1.399009E+0	1.535864E+0	1.531460E+0	1.485964E+0	1.519825E+0	1.530398E+0	1.469729E+0	1.513960E+0	1.560862E+0	1.542086E+0	1.429318E+0	1.406417E+0	1.444973E+0	1.551322E+0	1.620618E+0	1.464278E+0	1.504708E+0	1.389354E+0	1.489910E+0	1.506723E+0	1.397440E+0	1.444734E+0	1.443717E+0	1.441199E+0	1.573627E+0	1.437898E+0	1.419781E+0	1.457802E+0	1.504773E+0	1.402361E+0	1.430006E+0	1.550405E+0	1.503251E+0	1.459863E+0	1.364857E+0	1.382536E+0	1.407195E+0	1.602804E+0	1.429405E+0	1.522354E+0	1.475224E+0	1.416350E+0	1.402944E+0	1.439224E+0	1.473219E+0	1.467275E+0	1.489860E+0	1.514196E+0	1.450239E+0	1.457672E+0	1.490789E+0	1.410361E+0	1.403686E+0	1.520477E+0	1.514689E+0	1.601825E+0	1.333575E+0	1.414640E+0
2.965070E+2	1.331690E+0	1.365397E+0	1.364337E+0	1.316905E+0	1.347292E+0	1.438018E+0	1.361450E+0	1.419923E+0	1.478740E+0	1.407417E+0	1.336463E+0	1.359463E+0	1.360603E+0	1.462105E+0	1.354465E+0	1.363883E+0	1.242647E+0	1.370038E+0	1.461839E+0	1.429332E+0	1.301820E+0	1.392638E+0	1.373095E+0	1.419838E+0	1.407630E+0	1.350138E+0	1.313620E+0	1.313019E+0	1.308935E+0	1.421827E+0	1.307668E+0	1.439930E+0	1.308145E+0	1.380432E+0	1.376096E+0	1.335476E+0	1.259248E+0	1.369148E+0	1.386670E+0	1.454689E+0	1.415892E+0	1.512862E+0	1.323146E+0	1.253824E+0	1.413157E+0	1.408223E+0	1.340966E+0	1.388625E+0	1.392523E+0	1.302870E+0	1.387476E+0	1.348311E+0	1.353365E+0	1.315581E+0	1.407641E+0	1.508538E+0	1.393948E+0	1.487433E+0	1.282251E+0	1.410980E+0	1.404479E+0	1.392214E+0	1.328722E+0	1.412303E+0	1.360374E+0	1.473372E+0	1.457130E+0	1.302671E+0	1.330232E+0	1.438871E+0	1.391539E+0	1.442565E+0	1.391681E+0	1.316199E+0	1.287562E+0	1.334387E+0	1.446032E+0	1.386170E+0	1.362935E+0	1.327205E+0	1.397160E+0	1.367148E+0	1.358180E+0	1.497012E+0	1.387520E+0	1.320217E+0	1.340366E+0	1.401438E+0	1.385675E+0	1.287618E+0	1.367534E+0	1.351950E+0	1.447237E+0	1.392979E+0	1.417193E+0	1.399991E+0	1.423910E+0	1.402870E+0	1.405556E+0	1.366503E+0	1.415919E+0	1.459736E+0	1.368563E+0	1.324819E+0	1.371556E+0	1.386391E+0	1.338674E+0	1.293782E+0	1.432879E+0	1.323610E+0	1.411029E+0	1.399370E+0	1.365396E+0	1.438068E+0	1.431912E+0	1.335763E+0	1.457350E+0	1.353586E+0	1.420641E+0	1.360487E+0	1.360385E+0	1.360667E+0	1.355492E+0	1.348110E+0	1.387233E+0	1.333049E+0	1.378317E+0	1.316586E+0	1.370370E+0	1.392431E+0	1.373255E+0	1.353058E+0	1.358230E+0	1.366488E+0	1.237277E+0	1.416632E+0	1.396494E+0	1.408476E+0	1.316222E+0	1.362997E+0	1.395005E+0	1.452824E+0	1.378941E+0	1.414302E+0	1.422268E+0	1.309146E+0	1.373434E+0	1.327778E+0	1.282623E+0	1.378423E+0	1.374034E+0	1.436129E+0	1.418723E+0	1.333567E+0	1.308363E+0	1.364410E+0	1.328874E+0	1.409262E+0	1.440223E+0	1.402350E+0	1.426732E+0	1.329684E+0	1.429080E+0	1.365304E+0	1.359224E+0	1.438879E+0	1.412636E+0	1.346194E+0	1.364914E+0	1.421999E+0
2.970040E+2	1.252771E+0	1.247900E+0	1.303835E+0	1.214457E+0	1.243208E+0	1.318277E+0	1.257244E+0	1.207068E+0	1.227158E+0	1.251061E+0	1.205090E+0	1.311531E+0	1.194866E+0	1.263248E+0	1.276774E+0	1.292872E+0	1.289411E+0	1.277029E+0	1.272613E+0	1.342621E+0	1.386363E+0	1.204804E+0	1.217298E+0	1.130491E+0	1.250893E+0	1.309334E+0	1.314674E+0	1.251720E+0	1.257130E+0	1.287338E+0	1.278045E+0	1.288495E+0	1.297710E+0	1.246868E+0	1.287889E+0	1.267625E+0	1.208408E+0	1.213451E+0	1.363605E+0	1.284943E+0	1.333758E+0	1.281448E+0	1.329714E+0	1.285681E+0	1.252800E+0	1.294538E+0	1.263654E+0	1.314948E+0	1.368735E+0	1.278603E+0	1.316961E+0	1.210281E+0	1.229180E+0	1.199421E+0	1.307893E+0	1.269900E+0	1.259954E+0	1.268225E+0	1.246638E+0	1.325555E+0	1.318746E+0	1.223383E+0	1.240825E+0	1.246988E+0	1.269781E+0	1.275193E+0	1.304469E+0	1.198947E+0	1.269854E+0	1.323731E+0	1.220670E+0	1.138334E+0	1.242105E+0	1.211237E+0	1.285071E+0	1.195880E+0	1.209029E+0	1.323992E+0	1.347908E+0	1.227781E+0	1.257987E+0	1.238441E+0	1.317960E+0	1.256982E+0	1.210051E+0	1.196004E+0	1.276928E+0	1.222177E+0	1.285223E+0	1.199556E+0	1.230448E+0	1.260663E+0	1.184210E+0	1.272583E+0	1.210258E+0	1.342556E+0	1.255517E+0	1.199280E+0	1.248508E+0	1.203394E+0	1.277411E+0	1.344465E+0	1.234926E+0	1.298702E+0	1.267546E+0	1.303634E+0	1.266349E+0	1.184241E+0	1.345913E+0	1.222608E+0	1.249139E+0	1.289715E+0	1.290147E+0	1.321121E+0	1.323998E+0	1.214309E+0	1.325545E+0	1.292903E+0	1.246938E+0	1.240792E+0	1.310168E+0	1.307931E+0	1.315550E+0	1.314354E+0	1.258378E+0	1.248233E+0	1.321843E+0	1.305484E+0	1.278548E+0	1.308972E+0	1.257088E+0	1.212277E+0	1.328343E+0	1.315853E+0	1.263107E+0	1.304261E+0	1.246349E+0	1.189580E+0	1.149258E+0	1.257170E+0	1.323785E+0	1.327867E+0	1.180806E+0	1.290371E+0	1.294084E+0	1.179314E+0	1.298713E+0	1.249022E+0	1.283618E+0	1.303567E+0	1.321326E+0	1.291684E+0	1.280540E+0	1.199090E+0	1.185262E+0	1.225007E+0	1.207813E+0	1.247075E+0	1.270757E+0	1.228376E+0	1.369448E+0	1.238713E+0	1.278442E+0	1.253930E+0	1.284127E+0	1.268527E+0	1.262003E+0	1.366725E+0	1.238733E+0	1.221957E+0
2.975020E+2	1.037176E+0	9.859194E-1	1.006540E+0	1.080129E+0	9.619519E-1	9.651293E-1	1.007839E+0	1.033021E+0	1.075144E+0	1.043711E+0	1.020321E+0	9.382692E-1	9.763728E-1	1.044796E+0	9.801402E-1	1.023611E+0	1.039606E+0	1.025764E+0	9.446695E-1	1.008827E+0	9.834911E-1	1.000989E+0	1.032995E+0	1.048669E+0	1.032615E+0	1.004671E+0	9.413964E-1	1.029693E+0	9.704159E-1	9.522124E-1	9.653488E-1	1.056665E+0	1.024667E+0	9.521626E-1	9.990771E-1	9.737971E-1	1.038616E+0	1.049227E+0	9.857074E-1	9.873656E-1	9.933168E-1	9.814779E-1	9.728495E-1	9.434961E-1	9.636927E-1	9.956519E-1	9.902925E-1	1.037349E+0	9.940848E-1	1.017722E+0	9.801351E-1	9.614060E-1	1.020857E+0	1.018772E+0	9.458258E-1	1.023618E+0	9.930735E-1	1.040583E+0	9.702701E-1	9.751558E-1	1.039430E+0	9.893510E-1	9.822092E-1	1.009590E+0	1.014956E+0	9.888083E-1	1.052702E+0	1.033817E+0	1.027892E+0	9.461843E-1	1.030885E+0	9.635107E-1	1.022556E+0	1.071927E+0	9.722421E-1	9.863118E-1	9.734639E-1	9.384343E-1	9.226482E-1	1.020862E+0	1.001273E+0	1.020520E+0	9.369038E-1	1.018150E+0	9.986205E-1	1.001565E+0	1.051974E+0	1.014361E+0	1.003091E+0	1.032926E+0	9.843356E-1	1.043784E+0	1.012751E+0	9.597276E-1	9.780999E-1	9.804766E-1	1.044728E+0	1.017510E+0	1.047878E+0	1.050013E+0	9.863595E-1	1.028795E+0	1.000323E+0	9.715031E-1	9.653934E-1	1.043510E+0	1.007887E+0	1.022039E+0	1.012090E+0	9.817848E-1	9.669533E-1	1.009653E+0	9.916149E-1	9.892129E-1	1.030234E+0	9.948991E-1	1.024093E+0	9.825125E-1	9.842696E-1	9.757999E-1	1.042784E+0	9.839726E-1	9.767019E-1	1.017752E+0	1.022582E+0	9.912553E-1	9.789775E-1	9.573765E-1	1.028088E+0	1.036947E+0	1.018553E+0	9.838879E-1	1.000641E+0	9.770910E-1	9.799344E-1	9.979187E-1	9.740370E-1	9.869866E-1	1.051259E+0	1.034288E+0	9.892056E-1	1.002164E+0	1.058140E+0	1.019274E+0	1.023274E+0	1.067987E+0	1.020576E+0	9.707868E-1	1.020284E+0	1.006454E+0	1.036108E+0	9.999292E-1	1.013194E+0	1.039909E+0	1.015615E+0	9.631729E-1	9.769053E-1	9.595993E-1	1.039359E+0	1.062666E+0	1.027463E+0	9.483627E-1	1.051523E+0	1.011182E+0	9.799612E-1	9.666982E-1	9.852291E-1	1.025923E+0	1.055139E+0	9.071478E-1
2.980040E+2	1.069098E+0	1.057796E+0	1.051297E+0	1.067069E+0	1.084374E+0	1.041682E+0	1.060647E+0	1.137097E+0	1.025671E+0	1.075208E+0	1.070373E+0	1.039306E+0	1.026767E+0	1.042911E+0	1.071231E+0	1.033223E+0	1.015078E+0	1.016940E+0	1.063830E+0	1.021186E+0	1.050015E+0	1.030008E+0	1.071252E+0	1.022722E+0	1.043796E+0	1.009426E+0	1.055372E+0	1.018502E+0	1.083445E+0	1.042458E+0	1.020128E+0	1.027293E+0	1.063417E+0	1.043462E+0	1.041578E+0	1.064128E+0	1.032767E+0	1.072196E+0	1.038850E+0	1.022486E+0	1.020067E+0	1.066878E+0	1.036741E+0	1.113101E+0	1.074860E+0	1.034918E+0	1.047441E+0	1.045876E+0	1.051979E+0	1.105573E+0	1.071063E+0	1.086597E+0	1.029685E+0	1.023602E+0	1.046270E+0	1.014218E+0	1.082775E+0	1.066339E+0	1.108273E+0	9.932905E-1	1.074661E+0	1.094501E+0	1.108134E+0	1.021488E+0	1.099276E+0	1.045878E+0	1.092944E+0	1.049027E+0	1.066008E+0	1.077302E+0	1.063459E+0	1.021609E+0	1.002643E+0	1.046908E+0	1.028710E+0	1.043027E+0	1.097494E+0	1.028341E+0	1.010371E+0	1.012874E+0	1.088160E+0	1.029841E+0	1.052088E+0	1.085480E+0	1.098455E+0	1.030021E+0	1.109898E+0	1.077085E+0	1.010232E+0	9.970764E-1	1.074187E+0	1.015914E+0	1.053863E+0	1.044481E+0	1.058264E+0	1.135449E+0	1.036326E+0	1.056440E+0	1.013586E+0	1.018042E+0	1.007585E+0	9.890798E-1	1.000792E+0	1.086870E+0	1.026739E+0	1.059752E+0	1.049214E+0	1.020686E+0	1.098801E+0	1.009300E+0	1.055767E+0	1.078192E+0	1.062969E+0	1.085914E+0	1.051537E+0	1.033570E+0	1.022192E+0	1.041620E+0	1.018256E+0	1.032553E+0	1.066517E+0	1.061106E+0	1.005673E+0	1.020487E+0	1.029691E+0	1.006391E+0	1.068510E+0	1.031630E+0	1.062825E+0	1.055371E+0	1.076607E+0	1.031439E+0	1.112726E+0	1.066786E+0	1.002155E+0	1.039045E+0	9.972062E-1	1.041238E+0	1.036388E+0	1.027864E+0	1.020833E+0	1.069239E+0	1.046874E+0	1.034237E+0	1.015190E+0	1.056540E+0	1.040756E+0	1.008294E+0	1.032141E+0	1.043697E+0	1.000820E+0	1.047329E+0	1.028660E+0	1.057991E+0	1.062900E+0	1.007549E+0	1.026506E+0	1.050246E+0	1.088262E+0	1.064193E+0	1.032410E+0	1.082274E+0	1.002868E+0	1.058662E+0	1.085186E+0	1.111976E+0	1.057214E+0	9.926199E-1	1.093802E+0	1.034203E+0
2.985020E+2	1.055054E+0	1.079311E+0	1.021215E+0	1.085236E+0	1.035792E+0	1.082833E+0	1.057730E+0	1.063142E+0	1.017575E+0	1.024608E+0	9.971412E-1	1.112169E+0	1.091196E+0	1.067356E+0	1.062190E+0	1.025964E+0	1.096072E+0	1.011046E+0	1.064807E+0	1.041601E+0	1.028042E+0	1.004556E+0	1.005860E+0	1.071193E+0	1.104678E+0	1.036648E+0	1.034353E+0	1.100545E+0	1.072920E+0	1.066257E+0	1.093375E+0	9.971463E-1	1.054909E+0	1.084003E+0	1.116753E+0	1.085654E+0	1.061572E+0	1.057392E+0	1.016299E+0	1.024720E+0	1.107990E+0	1.120846E+0	1.069716E+0	1.017336E+0	1.080772E+0	1.084129E+0	1.095584E+0	9.936380E-1	1.051508E+0	1.039380E+0	1.135319E+0	1.074290E+0	1.109412E+0	1.018094E+0	1.116259E+0	1.042972E+0	1.023583E+0	1.063947E+0	1.006623E+0	1.100261E+0	9.998504E-1	1.051672E+0	1.039419E+0	1.084398E+0	1.041522E+0	1.119641E+0	1.036570E+0	1.040827E+0	1.082527E+0	1.097831E+0	1.038665E+0	1.106640E+0	1.009091E+0	1.056651E+0	1.075819E+0	1.048252E+0	1.055466E+0	1.128686E+0	1.106462E+0	1.087050E+0	1.005934E+0	1.011624E+0	1.088015E+0	1.054802E+0	1.066739E+0	1.116002E+0	1.019173E+0	1.023894E+0	1.087558E+0	1.103495E+0	1.064292E+0	1.021358E+0	1.033104E+0	1.060220E+0	1.045486E+0	1.061594E+0	1.042841E+0	1.058107E+0	9.917255E-1	1.088999E+0	1.084030E+0	1.081165E+0	1.065263E+0	1.038657E+0	1.051834E+0	1.051680E+0	1.092270E+0	1.060176E+0	1.082715E+0	1.029717E+0	1.059780E+0	1.054638E+0	1.047485E+0	1.064058E+0	1.089402E+0	1.098194E+0	1.063995E+0	1.113002E+0	1.057377E+0	1.025209E+0	1.095806E+0	1.075700E+0	1.102977E+0	1.077402E+0	1.055508E+0	1.069226E+0	1.020823E+0	1.103119E+0	1.044152E+0	1.097602E+0	1.040349E+0	1.080612E+0	1.101663E+0	1.031663E+0	1.068406E+0	1.084598E+0	1.047156E+0	1.062348E+0	1.045381E+0	1.128460E+0	1.121628E+0	1.025229E+0	1.079754E+0	1.111798E+0	1.073099E+0	9.962187E-1	1.076975E+0	1.155944E+0	1.050982E+0	1.046366E+0	1.045912E+0	1.118758E+0	1.087511E+0	1.084100E+0	1.050711E+0	1.072576E+0	1.088567E+0	1.109730E+0	1.090517E+0	1.041018E+0	1.087662E+0	1.061676E+0	1.030218E+0	1.094167E+0	1.060564E+0	1.083533E+0	1.078916E+0	1.027473E+0	1.014209E+0	1.073727E+0
2.990020E+2	1.027683E+0	1.086397E+0	1.193416E+0	1.018897E+0	1.099445E+0	1.098997E+0	1.107226E+0	9.947503E-1	1.075443E+0	1.113396E+0	1.092887E+0	1.100196E+0	1.127063E+0	1.062578E+0	1.081526E+0	1.090796E+0	1.082968E+0	1.058805E+0	1.122438E+0	1.091538E+0	1.098685E+0	1.119959E+0	1.053260E+0	1.080173E+0	1.042985E+0	1.118341E+0	1.058606E+0	1.050105E+0	1.092871E+0	1.065970E+0	1.115470E+0	1.097624E+0	1.124813E+0	1.071570E+0	1.058862E+0	1.102438E+0	1.032661E+0	1.035285E+0	1.074219E+0	1.090410E+0	1.089239E+0	1.062845E+0	1.071782E+0	1.108726E+0	1.096143E+0	1.126726E+0	1.091858E+0	1.098759E+0	1.105908E+0	1.068855E+0	1.030398E+0	1.094981E+0	1.041101E+0	1.170693E+0	1.088505E+0	1.102938E+0	1.103070E+0	1.120964E+0	1.084171E+0	1.122030E+0	1.063927E+0	1.066947E+0	1.087801E+0	1.059149E+0	1.035429E+0	1.059731E+0	1.070495E+0	1.081457E+0	1.056644E+0	1.091669E+0	1.084973E+0	1.128513E+0	1.073956E+0	1.066263E+0	1.084917E+0	1.070298E+0	1.057417E+0	1.080463E+0	1.117483E+0	1.079269E+0	1.094091E+0	1.098404E+0	1.114080E+0	1.030667E+0	1.062456E+0	1.013817E+0	1.044430E+0	1.085721E+0	1.045675E+0	1.067401E+0	1.056769E+0	1.084361E+0	1.063803E+0	1.119117E+0	1.073138E+0	1.070724E+0	1.056974E+0	1.106929E+0	1.103440E+0	1.117337E+0	1.070905E+0	1.081605E+0	1.113994E+0	1.125427E+0	1.109681E+0	1.061700E+0	1.089528E+0	1.118029E+0	1.043040E+0	1.115100E+0	1.063449E+0	1.035105E+0	1.108255E+0	1.102899E+0	1.053361E+0	1.082992E+0	1.047962E+0	1.038664E+0	1.142972E+0	1.113455E+0	1.000465E+0	1.041932E+0	1.083331E+0	1.065216E+0	1.051157E+0	1.107872E+0	1.136806E+0	1.040962E+0	1.009527E+0	1.038834E+0	1.097172E+0	1.044115E+0	1.065560E+0	1.148719E+0	1.087843E+0	1.065641E+0	1.064005E+0	1.102530E+0	1.055245E+0	9.981221E-1	1.115415E+0	1.087792E+0	1.058732E+0	1.036553E+0	1.053105E+0	1.134766E+0	1.056492E+0	1.004063E+0	1.098449E+0	1.066574E+0	1.104957E+0	1.066387E+0	1.101082E+0	1.025710E+0	1.088088E+0	1.090086E+0	1.136387E+0	1.072946E+0	1.072841E+0	1.052851E+0	1.067283E+0	1.080588E+0	1.096953E+0	1.112993E+0	1.046387E+0	1.086010E+0	1.084523E+0	1.090990E+0	1.081428E+0	1.143677E+0
2.995040E+2	9.491674E-1	1.011844E+0	9.542516E-1	9.605171E-1	9.753914E-1	1.026603E+0	9.952669E-1	9.687489E-1	9.847548E-1	9.343717E-1	9.783731E-1	9.934660E-1	9.674258E-1	9.845883E-1	1.015563E+0	9.849733E-1	9.906838E-1	1.049308E+0	1.006796E+0	1.035480E+0	9.996756E-1	9.785811E-1	9.935982E-1	9.111787E-1	9.898969E-1	1.014662E+0	1.060122E+0	9.990777E-1	9.716126E-1	1.045643E+0	1.014994E+0	9.949176E-1	9.629236E-1	1.046112E+0	9.566585E-1	1.028928E+0	9.630706E-1	9.885992E-1	1.017054E+0	1.007929E+0	9.971952E-1	1.045666E+0	1.053235E+0	9.812525E-1	9.799046E-1	9.835111E-1	9.633584E-1	1.017234E+0	9.391744E-1	9.417354E-1	9.260161E-1	9.578260E-1	9.956228E-1	1.003366E+0	9.637252E-1	1.002261E+0	9.973770E-1	9.528549E-1	1.000940E+0	9.695193E-1	1.000091E+0	9.933007E-1	1.002297E+0	9.822609E-1	1.003238E+0	9.871314E-1	9.598358E-1	9.855602E-1	9.921642E-1	1.003726E+0	9.789349E-1	9.680371E-1	1.041642E+0	9.189047E-1	1.036010E+0	1.027741E+0	9.808899E-1	9.874002E-1	9.818511E-1	1.010329E+0	9.790824E-1	9.843212E-1	9.908559E-1	9.917175E-1	9.307287E-1	1.014525E+0	9.451351E-1	9.892119E-1	1.042833E+0	1.009602E+0	1.012201E+0	1.039871E+0	1.005201E+0	1.019168E+0	9.977312E-1	9.375993E-1	1.001188E+0	9.635689E-1	9.981588E-1	9.785653E-1	9.935877E-1	1.001368E+0	1.015398E+0	9.573219E-1	1.048266E+0	9.760007E-1	9.576630E-1	9.376438E-1	9.392180E-1	1.022891E+0	1.021463E+0	1.053227E+0	9.573288E-1	9.796373E-1	9.610267E-1	1.005964E+0	1.038920E+0	9.850907E-1	9.718975E-1	1.042004E+0	9.573091E-1	9.740074E-1	1.051157E+0	9.822796E-1	1.005993E+0	1.021737E+0	9.746000E-1	9.683418E-1	1.059032E+0	9.906299E-1	9.604195E-1	1.013957E+0	9.337265E-1	9.954762E-1	1.011814E+0	9.799469E-1	1.023032E+0	9.779905E-1	1.001432E+0	1.035919E+0	9.335481E-1	1.034237E+0	9.595907E-1	9.355052E-1	1.000062E+0	9.414118E-1	9.800125E-1	1.009638E+0	9.824773E-1	9.511270E-1	1.040933E+0	9.891655E-1	9.806451E-1	9.698729E-1	9.823931E-1	1.044670E+0	9.453771E-1	1.029177E+0	9.320163E-1	9.822764E-1	9.789100E-1	9.743389E-1	9.636752E-1	9.732424E-1	9.914691E-1	9.505329E-1	9.477864E-1	1.019845E+0	8.998986E-1	9.987785E-1
3.000060E+2	8.618212E-1	7.787321E-1	7.732804E-1	7.881517E-1	8.430465E-1	7.847558E-1	7.712916E-1	8.032403E-1	8.214123E-1	8.087046E-1	8.409041E-1	8.165940E-1	8.111756E-1	7.977700E-1	7.893496E-1	8.414332E-1	7.755919E-1	8.381365E-1	7.974591E-1	8.013671E-1	8.400907E-1	8.659078E-1	8.430357E-1	8.660648E-1	7.860290E-1	8.162529E-1	8.501502E-1	8.020779E-1	8.087345E-1	8.274597E-1	7.906837E-1	8.263538E-1	7.692707E-1	8.026910E-1	8.270711E-1	7.450543E-1	8.713145E-1	7.973003E-1	8.678716E-1	8.670907E-1	7.921914E-1	7.222876E-1	7.956766E-1	8.360883E-1	8.046280E-1	7.750638E-1	8.114670E-1	8.071432E-1	8.573457E-1	8.267351E-1	8.570682E-1	8.248997E-1	8.033224E-1	7.654717E-1	8.394149E-1	8.139926E-1	8.001208E-1	7.553112E-1	8.297238E-1	8.397430E-1	8.220416E-1	8.042276E-1	7.801405E-1	8.431139E-1	8.055792E-1	7.988106E-1	7.874534E-1	8.093116E-1	7.747643E-1	7.832879E-1	8.030824E-1	8.116898E-1	8.501114E-1	8.393459E-1	8.023013E-1	8.243699E-1	8.352687E-1	8.366761E-1	8.611852E-1	7.896164E-1	8.314594E-1	8.552894E-1	8.180572E-1	8.191831E-1	8.430016E-1	8.240692E-1	8.293902E-1	8.097276E-1	8.106105E-1	7.895000E-1	8.082145E-1	7.947116E-1	8.312777E-1	7.972877E-1	8.472805E-1	8.141568E-1	8.179429E-1	7.974451E-1	8.452118E-1	7.470430E-1	8.575329E-1	8.179869E-1	8.042302E-1	8.202207E-1	7.980863E-1	8.073576E-1	8.034380E-1	8.414272E-1	8.241357E-1	8.412071E-1	8.325884E-1	7.691846E-1	8.323479E-1	7.782786E-1	8.144392E-1	7.843801E-1	8.028380E-1	8.391105E-1	8.252274E-1	8.109787E-1	8.371188E-1	8.632818E-1	7.801608E-1	8.368631E-1	8.350694E-1	8.035181E-1	8.202838E-1	8.985703E-1	7.963763E-1	7.806158E-1	8.069006E-1	8.459893E-1	7.856828E-1	7.802643E-1	8.498476E-1	8.328503E-1	8.945635E-1	8.289067E-1	8.102959E-1	7.753461E-1	8.193703E-1	7.813397E-1	7.969085E-1	8.626323E-1	8.352705E-1	8.030768E-1	8.251899E-1	8.512751E-1	8.156668E-1	8.857817E-1	7.712693E-1	7.784312E-1	7.889084E-1	8.224167E-1	8.002935E-1	8.219454E-1	8.262578E-1	7.783017E-1	7.770047E-1	7.969954E-1	8.062704E-1	8.527601E-1	8.547630E-1	7.497540E-1	8.364323E-1	8.012509E-1	8.463309E-1	8.431490E-1	8.555239E-1	8.424666E-1
