Photon Energy (eV)	#1	#2	#3	#4	#5	#6	#7	#8	#9	#10	#11	#12	#13	#14	#15	#16	#17	#18	#19	#20	#21	#22	#23	#24	#25	#26	#27	#28	#29	#30	#31	#32	#33	#34	#35	#36	#37	#38	#39	#40	#41	#42	#43	#44	#45	#46	#47	#48	#49	#50	#51	#52	#53	#54	#55	#56	#57	#58	#59	#60	#61	#62	#63	#64	#65	#66	#67	#68	#69	#70	#71	#72	#73	#74	#75	#76	#77	#78	#79	#80	#81	#82	#83	#84	#85	#86	#87	#88	#89	#90	#91	#92	#93	#94	#95	#96	#97	#98	#99	#100	#101	#102	#103	#104	#105	#106	#107	#108	#109	#110	#111	#112	#113	#114	#115	#116	#117	#118	#119	#120	#121	#122	#123	#124	#125	#126	#127	#128	#129	#130	#131	#132	#133	#134	#135	#136	#137	#138	#139	#140	#141	#142	#143	#144	#145	#146	#147	#148	#149	#150	#151	#152	#153	#154	#155	#156	#157	#158	#159	#160	#161	#162	#163	#164	#165	#166	#167	#168	#169	#170	#171	
2.790040E+2	3.211969E-3	-6.692684E-3	-8.918376E-3	1.694358E-3	4.334560E-3	8.467598E-3	1.096801E-2	2.211441E-2	3.538482E-3	2.407312E-3	-1.299751E-2	-1.936201E-3	-9.001624E-3	1.399462E-2	-2.500190E-2	1.335914E-2	4.843228E-3	3.842587E-3	7.286400E-3	-1.780671E-2	3.446885E-3	-5.942012E-3	6.714328E-3	-1.565355E-3	-1.213714E-3	-1.846579E-2	2.617507E-3	4.854242E-3	-1.191672E-2	-2.489446E-3	-9.265206E-3	-1.373853E-2	2.876434E-2	1.127037E-3	-9.699824E-3	-9.231675E-3	-4.027942E-3	2.882835E-3	1.904333E-2	-5.571392E-3	1.800354E-2	-8.178496E-3	-3.050891E-3	6.153362E-3	-1.017855E-2	7.852228E-3	-1.571815E-2	9.422650E-3	-6.199182E-3	2.945072E-3	7.435249E-3	-6.550663E-3	8.553548E-4	9.024222E-3	-1.824712E-2	-2.518068E-2	-1.288971E-2	-6.377671E-3	-1.046949E-2	-1.688857E-3	-1.319132E-2	2.582619E-2	-1.444439E-2	-5.817341E-3	-1.235443E-2	6.394724E-3	6.767253E-5	-5.583547E-3	-4.992114E-3	-2.303811E-2	-2.033862E-3	-1.164228E-2	1.102582E-2	-4.459613E-3	2.568117E-3	-2.599336E-2	4.032146E-3	1.376814E-2	6.700430E-3	-3.148468E-3	-1.105490E-2	2.075107E-3	-2.631969E-3	-2.573239E-2	-1.706146E-2	-3.428625E-3	1.093126E-2	1.365618E-2	7.338142E-3	8.652649E-3	-9.312396E-3	-2.057696E-2	7.988765E-3	-3.642082E-4	2.653605E-3	-1.217509E-2	1.745955E-2	7.215284E-3	9.156206E-3	7.939016E-3	4.143002E-3	5.878587E-3	-7.388709E-3	-5.850478E-3	-7.989919E-3	7.360435E-3	-2.168916E-3	-3.208046E-3	-7.219047E-3	-9.728297E-3	-2.011532E-2	-1.177725E-2	3.790080E-3	-6.370417E-3	-1.025302E-2	5.041533E-3	-2.294536E-2	-1.619650E-2	-1.511867E-2	-1.256447E-2	-1.537957E-2	2.265096E-2	1.250240E-2	9.519133E-3	5.981965E-3	-3.260642E-3	7.817829E-3	2.615902E-3	2.150097E-2	-7.285035E-3	-3.707621E-4	1.124457E-2	-1.750659E-2	-7.183292E-3	1.037062E-2	2.006578E-3	6.877362E-3	2.545916E-3	-1.301066E-3	-8.496497E-3	-7.896555E-3	-2.031234E-2	3.578264E-3	-1.986189E-2	-1.012901E-2	-1.498695E-2	-2.725767E-3	-1.103131E-3	-1.520452E-2	-9.360669E-3	-5.196262E-3	-1.293686E-2	2.396243E-3	-9.376216E-3	-1.378322E-2	-1.498448E-2	-1.113749E-2	-9.052987E-3	-1.721286E-2	3.130976E-3	-9.136685E-3	-6.505093E-4	-2.208421E-3	-5.749055E-3	9.037673E-3	-4.347461E-3	-1.101071E-3	-6.854179E-3	2.314203E-2	1.493519E-3	-3.226024E-2
2.795020E+2	-2.219844E-2	-4.778752E-3	-2.084793E-2	-6.969994E-3	-3.358790E-4	2.520531E-3	-4.334926E-3	7.124472E-3	-1.861075E-2	-1.787166E-2	3.518749E-3	-7.169808E-3	3.829280E-3	-1.764032E-3	-3.740303E-3	4.846392E-3	-1.326303E-3	-1.117229E-2	-8.950977E-3	3.675490E-4	-9.224327E-4	-1.426191E-3	-1.467819E-2	-4.440743E-3	-9.951140E-3	3.697140E-3	1.342461E-2	-3.490976E-3	-8.686845E-3	-1.172472E-2	8.871248E-3	-3.020610E-3	-1.580822E-3	-1.350711E-2	5.651051E-3	2.363602E-3	-1.931732E-2	-1.247223E-3	-2.962856E-3	-5.402284E-3	5.111763E-3	-1.919539E-3	-1.132589E-2	-2.260585E-3	-1.832448E-3	-5.998262E-3	-7.985170E-5	2.986997E-3	-1.787441E-2	8.030656E-3	-1.291459E-2	8.404306E-3	7.424238E-3	-5.505982E-6	-8.345490E-4	-2.156755E-3	6.780300E-4	3.761694E-3	1.081988E-2	1.665837E-2	-1.128098E-2	-2.088307E-2	1.647984E-2	1.705944E-4	3.859497E-3	-8.812728E-3	-5.092561E-3	1.004293E-3	1.938467E-2	-5.489748E-3	-5.228960E-3	7.254450E-3	-2.321857E-2	-1.217656E-2	1.577445E-2	-1.574720E-2	8.860166E-4	-8.008812E-3	-2.221702E-2	-6.048698E-3	-2.760306E-3	1.948633E-2	-4.076217E-3	6.754484E-5	1.671886E-2	-1.353668E-2	1.111323E-2	-2.703709E-2	-7.532614E-4	-2.632019E-3	5.826723E-3	2.169050E-3	-2.953065E-3	-1.171876E-2	1.425313E-2	2.447542E-3	1.197395E-3	-1.084516E-2	7.585368E-3	-3.544579E-3	-1.824596E-2	4.338341E-4	1.034196E-2	-1.060340E-2	-9.519595E-3	-5.282521E-3	2.156665E-2	-1.013525E-2	1.783801E-3	-9.588125E-3	-1.069040E-2	5.706098E-3	2.214756E-3	1.277239E-2	-2.514660E-3	-1.472694E-2	4.193367E-3	8.186995E-3	1.734402E-2	-2.074070E-2	1.318770E-2	5.833773E-3	1.266007E-2	-2.776217E-4	-1.063040E-2	-1.078962E-2	-1.982926E-3	-2.384633E-2	-1.702334E-3	2.206924E-2	-1.661356E-2	2.660721E-3	1.952062E-2	-3.015264E-3	-8.013253E-3	-1.828996E-2	5.519533E-3	-1.780417E-2	2.339503E-2	-1.287401E-3	-1.427051E-2	-2.533565E-3	-2.534233E-3	-3.072873E-3	-1.834314E-2	-1.573271E-2	-1.890592E-2	5.544292E-3	-7.847486E-3	-1.725714E-3	-2.810279E-2	1.002453E-2	7.526042E-4	-1.761647E-2	1.739069E-2	1.056793E-2	5.044392E-3	-1.033085E-3	-4.164855E-3	8.031274E-3	-1.063702E-2	-3.776820E-3	-3.486580E-3	-1.710653E-2	-1.590125E-2	-7.195471E-3	-8.912722E-3	3.122175E-3	-1.312179E-2	-1.858510E-2	3.586078E-2
2.799980E+2	-2.401287E-3	-2.433499E-2	-5.196449E-3	2.485487E-2	-1.468794E-2	2.689828E-3	-7.431720E-4	-1.637838E-2	-4.766107E-3	-8.332789E-3	1.517658E-2	-7.060919E-3	-3.099488E-2	-6.411126E-3	-9.664711E-3	-2.258248E-3	-1.228732E-2	4.160334E-3	-2.526040E-2	1.696039E-2	-1.137003E-2	-8.588912E-3	-2.876662E-3	1.385800E-2	8.190933E-4	-2.040396E-3	-9.365617E-3	1.365526E-2	-2.337741E-3	1.655747E-2	-1.495200E-2	3.176532E-3	-7.902014E-3	-8.475780E-3	4.110128E-3	-7.338651E-3	1.176672E-2	-1.839675E-2	-1.869580E-2	-2.281903E-3	-6.212341E-3	-4.847241E-3	-4.388273E-3	-7.291575E-3	-1.723422E-3	-8.986012E-3	-4.532668E-3	-2.079933E-2	-2.545390E-3	-3.382821E-3	-1.793797E-2	-4.635516E-3	-4.841466E-4	-2.955595E-3	-5.931832E-3	1.243388E-3	-1.768998E-2	-1.777400E-2	-3.686295E-3	-1.633791E-2	-7.606602E-3	-2.076495E-2	3.660852E-3	3.219620E-4	-1.374282E-2	-5.619185E-3	-8.536572E-3	-1.336949E-2	3.370406E-3	3.436319E-3	-1.185435E-2	-2.441178E-2	-7.520227E-4	-1.207141E-2	-2.167038E-2	1.313302E-2	2.700654E-3	-9.510427E-3	-6.781550E-3	-5.980736E-3	-1.252516E-2	-5.601386E-3	-1.316474E-2	-1.189665E-2	-2.568634E-2	-1.344340E-2	-2.853090E-2	-1.553605E-2	2.548693E-3	-1.072081E-2	1.261553E-2	-1.171097E-2	-1.239145E-2	-1.733578E-2	-5.253943E-3	9.600118E-4	-3.138080E-2	4.328183E-3	-2.853994E-2	-1.512583E-2	8.967539E-3	-1.325824E-2	1.771329E-2	1.564786E-2	3.944617E-3	1.257647E-2	-8.616868E-3	-1.875523E-2	3.497396E-3	6.527206E-3	1.893022E-3	-1.146848E-2	-8.096702E-3	2.751348E-3	8.317452E-3	-6.235983E-3	1.202821E-3	-1.445906E-2	-1.807617E-2	-1.394746E-2	6.656315E-3	-1.416896E-2	-3.145484E-2	-6.112866E-3	-2.226903E-2	-4.476781E-3	-1.828602E-3	-1.430093E-2	-1.327567E-2	-4.079114E-3	-1.650207E-2	-1.122996E-2	1.999504E-3	-1.174523E-2	-1.126670E-2	-1.973033E-2	-1.319379E-2	-4.248216E-3	-7.889081E-3	-1.174822E-2	8.755369E-3	-7.247667E-4	-1.819875E-2	4.687344E-3	-1.320187E-2	1.871219E-2	-1.144063E-2	-5.603007E-3	-5.915938E-3	-3.738256E-5	8.156839E-3	-1.088856E-2	-1.773719E-2	-5.138256E-3	-1.151067E-2	-6.207817E-3	-1.242811E-2	-5.295938E-3	-7.225472E-3	1.608411E-2	-2.094435E-3	-4.026124E-3	2.934816E-3	-2.135515E-3	-4.717678E-3	-9.293197E-3	-7.064612E-3	-1.042028E-2	-1.299649E-2	4.898181E-3	1.583725E-2
2.805030E+2	1.217808E-2	3.340578E-3	1.106392E-2	-3.025056E-2	1.007443E-2	-1.042592E-2	9.649327E-5	-7.163883E-3	1.482391E-2	8.098640E-3	9.343012E-3	-3.084011E-2	1.409750E-2	-1.196757E-2	4.632894E-3	-7.311721E-3	1.055823E-2	-7.249907E-3	5.058750E-3	4.572383E-3	-1.353982E-2	5.137871E-3	-1.193304E-2	-5.059889E-3	-3.544393E-3	7.381840E-3	-4.915496E-3	-1.596054E-2	1.227559E-2	-4.529943E-3	-7.327809E-4	-1.420545E-2	-2.134070E-2	6.033022E-4	-6.773181E-3	-1.296134E-2	2.454619E-3	3.809356E-3	4.287618E-3	-3.162876E-3	1.161123E-3	-2.599625E-3	-1.803988E-3	-1.223173E-3	4.092539E-3	5.685930E-3	2.393747E-2	8.879344E-3	-1.680850E-2	-7.363699E-3	-1.515677E-2	-1.359222E-2	1.943361E-3	-8.270551E-3	8.812495E-3	1.824507E-2	2.486188E-2	-1.350970E-2	-7.719358E-3	-3.887659E-3	2.165719E-3	1.853537E-3	-1.969296E-2	2.831106E-2	1.431848E-2	1.270108E-3	-5.245723E-4	1.463996E-2	-1.349995E-2	-1.909558E-2	-1.591289E-2	-9.179280E-3	1.044924E-2	2.002092E-2	-2.752812E-3	-1.233105E-3	-1.605224E-3	-8.572467E-4	4.681683E-3	-3.701318E-3	-5.102733E-3	-6.349078E-3	-1.531277E-2	1.437114E-2	8.519694E-3	6.225954E-3	-1.201518E-2	-3.291335E-3	-6.473153E-3	-9.889722E-3	-9.729906E-3	1.429139E-3	-9.902909E-3	2.065952E-2	-1.736800E-2	1.672476E-3	-1.080117E-2	-1.790520E-2	1.671976E-3	-5.949607E-4	-2.031135E-2	6.819191E-3	-2.538012E-2	6.468816E-3	1.280166E-2	-9.887421E-4	-9.363394E-3	1.722107E-2	-4.638612E-3	-6.953737E-3	1.492650E-2	-2.829803E-3	-5.431500E-3	1.059598E-2	1.498172E-2	1.149068E-3	2.238355E-2	4.680896E-3	-5.925620E-3	2.158408E-2	2.424612E-3	-1.025303E-2	6.670953E-3	-1.243831E-2	2.202302E-3	1.003896E-2	-2.605582E-3	1.728985E-2	-1.722563E-2	-1.182781E-2	-8.017353E-4	5.411040E-3	-9.064946E-3	8.054202E-4	-3.601543E-3	-6.328588E-3	1.106020E-4	8.167073E-3	1.553435E-2	-1.973011E-3	1.375274E-3	-1.510083E-3	-9.419646E-3	7.594975E-4	1.097829E-2	-2.681775E-3	2.226875E-2	-4.818882E-3	-1.302391E-3	-8.380273E-3	-3.580019E-2	-9.870849E-3	-7.310234E-3	-1.273048E-3	-1.400062E-2	1.377974E-3	-6.773004E-3	-2.143301E-4	-3.238138E-3	-1.142900E-2	-1.295715E-2	-6.354381E-3	8.328622E-3	3.166661E-4	8.513713E-3	-9.987486E-3	7.088895E-3	-3.404644E-3	1.739543E-2	-9.367679E-3	-2.568590E-2
2.810040E+2	-1.099813E-2	5.333702E-3	1.168909E-2	-8.897650E-3	-4.011264E-3	-1.625531E-2	-1.008806E-2	4.682312E-4	-1.722426E-2	-1.032279E-2	1.696983E-3	1.242312E-2	-2.504116E-2	-1.012332E-2	1.497715E-3	-9.895263E-3	-1.276538E-2	1.562685E-2	-8.746839E-3	-9.846017E-3	3.161425E-3	-7.629994E-3	2.417474E-3	5.758366E-3	1.608489E-2	4.733993E-3	-6.642301E-3	-1.234663E-2	-7.548509E-3	-1.519026E-2	-1.146874E-2	-6.458787E-3	-1.000638E-2	8.337542E-4	1.271174E-4	1.888985E-3	-1.404237E-2	1.266290E-2	7.684532E-3	-1.026035E-2	-5.113803E-3	-5.415804E-3	-9.968655E-3	9.178207E-3	7.568278E-3	5.939680E-3	4.175062E-3	-1.592534E-2	1.529474E-2	-5.539965E-3	1.053239E-2	-1.991986E-2	-1.058392E-2	-2.028512E-2	-1.331712E-2	-1.400398E-2	1.563724E-4	-5.046895E-3	-1.073726E-2	1.112814E-2	1.301319E-2	2.117124E-3	3.039620E-3	-6.064574E-3	-9.408678E-3	-4.618631E-3	-2.896039E-4	1.491793E-2	-1.009331E-2	1.290375E-2	-5.690861E-3	1.540525E-2	-6.418499E-3	-3.173824E-3	-9.034683E-3	-6.058239E-3	-2.998356E-3	-8.443672E-3	1.408502E-2	3.991714E-3	4.816256E-3	-3.089459E-3	-2.280099E-2	-1.427327E-2	1.020722E-2	6.169361E-4	3.595937E-3	-7.974307E-3	-9.620123E-3	6.595734E-3	2.198534E-2	1.199448E-2	2.923762E-3	1.667439E-2	8.318488E-4	-4.524752E-3	7.127021E-4	3.364712E-4	-3.301666E-3	-4.610861E-4	-3.680544E-3	-9.556590E-3	1.520699E-2	-7.856674E-3	-5.069818E-5	8.759563E-4	1.772012E-2	-1.918104E-2	-1.771503E-2	-3.560839E-3	1.057092E-2	-1.010089E-3	-5.187982E-6	-6.544625E-3	-2.874890E-3	3.072620E-3	-1.522818E-2	3.547845E-3	-2.472046E-3	2.069348E-3	1.433057E-2	7.730739E-4	-7.152695E-3	1.115001E-2	-4.051262E-3	-2.180579E-2	1.419675E-2	-8.286451E-3	-7.036647E-3	5.722753E-4	1.046435E-3	9.163857E-3	-3.064895E-5	8.409653E-3	7.269599E-6	1.758564E-3	-1.187191E-3	3.460082E-3	-1.368086E-2	-2.105105E-2	4.873305E-3	3.644782E-3	1.118995E-2	8.680733E-3	-3.723031E-3	-1.267437E-2	8.004657E-3	-1.141617E-3	-1.006723E-2	-2.120188E-3	2.353023E-2	9.705976E-3	3.951323E-3	-1.176949E-2	4.882696E-3	6.743830E-3	-2.083399E-4	2.209571E-2	1.706830E-4	-1.120977E-2	7.265860E-3	1.167725E-2	-1.476822E-2	2.517264E-2	2.535843E-3	-1.252102E-2	-1.924955E-2	7.422994E-4	-1.089365E-2	1.115324E-2	2.834552E-2
2.815070E+2	-1.441237E-3	1.401128E-2	-1.748289E-2	3.271586E-3	-4.151861E-3	-7.232546E-3	5.288501E-3	-6.358290E-3	8.204187E-3	-7.300540E-3	2.988559E-4	-1.621879E-2	1.638467E-3	7.182651E-3	8.770062E-4	-7.103072E-3	9.099141E-3	-2.672319E-2	1.052452E-3	-9.855036E-3	-1.442263E-3	-4.848746E-4	-1.100548E-2	-3.154929E-3	-1.751271E-2	1.049676E-2	-1.812385E-2	-1.735792E-2	-3.022050E-3	-1.526177E-2	1.565018E-3	2.495635E-3	7.438448E-3	1.050175E-2	-7.753964E-3	3.706230E-3	-1.530814E-3	-1.028030E-2	1.623679E-3	-9.247099E-4	-8.393917E-3	-1.148994E-2	7.014403E-3	-1.607092E-2	-3.960421E-3	-6.500401E-3	-9.335205E-3	2.567272E-3	1.011319E-2	-2.353047E-3	1.170257E-2	2.255312E-2	-7.474464E-3	5.599437E-3	2.640830E-2	7.356859E-4	-2.491369E-2	3.148969E-3	8.375920E-3	-1.675389E-2	5.276708E-4	-1.399518E-2	-7.150982E-3	-8.951705E-3	-3.099845E-3	5.993434E-3	6.555919E-3	2.042261E-3	9.058316E-3	-7.414393E-3	7.558266E-3	-6.188635E-3	-1.384640E-3	1.420881E-3	-1.027763E-3	1.734950E-2	-8.082340E-3	-3.860155E-3	-8.867446E-3	-6.586655E-3	2.574825E-2	-1.564385E-3	2.755406E-2	2.728177E-3	-7.289586E-3	-5.279263E-3	5.246013E-3	3.361116E-3	-3.090840E-3	-8.130662E-3	-1.456485E-2	6.708062E-3	-1.914932E-3	-9.279067E-3	2.034203E-2	1.495298E-4	-2.551589E-3	2.338372E-4	1.290636E-4	-6.280012E-3	-9.758290E-3	6.993108E-3	-7.780963E-3	-6.297014E-3	-1.823051E-2	-2.485511E-3	-2.098833E-2	1.385357E-2	1.318202E-2	4.237868E-3	1.190328E-3	1.988670E-3	-5.350711E-3	-8.529513E-4	3.049455E-3	-5.335430E-3	-1.376725E-2	1.052293E-2	3.817922E-3	-4.668396E-3	-5.739235E-3	9.885375E-3	-7.265598E-3	2.003123E-3	-9.179471E-3	4.112544E-3	-2.469568E-3	-7.515161E-4	1.141551E-3	-1.303358E-3	-1.210143E-2	-1.013620E-2	-1.187575E-2	-5.205987E-4	-5.187768E-3	1.729310E-2	-5.995039E-3	-1.660921E-2	-2.593339E-2	2.440858E-2	-1.121534E-4	8.453039E-3	6.352060E-3	5.562505E-3	7.769206E-3	2.518102E-3	-6.698574E-3	-1.249467E-2	7.709572E-3	7.874932E-4	-1.066863E-2	2.704576E-2	3.809512E-3	1.875547E-2	9.824673E-3	-1.524950E-2	9.200114E-3	-3.005772E-3	-1.586084E-2	-9.702134E-3	4.540703E-4	1.154352E-2	6.703494E-4	-7.616456E-3	-6.974971E-3	5.292764E-3	2.544878E-2	2.642263E-3	-5.824236E-3	-1.606593E-2	1.468481E-2
2.820030E+2	6.916422E-3	2.116340E-3	1.406430E-2	2.489624E-2	1.725202E-2	7.051566E-3	-2.745422E-3	-7.542716E-3	2.243356E-2	5.664825E-3	-6.382058E-3	1.822867E-2	4.175174E-2	1.410515E-2	2.143231E-2	-3.797218E-3	-2.196584E-2	5.441901E-3	1.399813E-2	5.336486E-3	8.064037E-3	2.038019E-2	5.923378E-3	-8.766734E-3	5.883786E-3	-6.587478E-3	1.474196E-2	1.702426E-2	3.630511E-3	2.255666E-2	1.954168E-2	2.266874E-2	7.929049E-3	4.456746E-3	1.871908E-2	-8.911678E-3	-1.026610E-3	5.985010E-3	5.249226E-4	1.900523E-2	5.062392E-3	2.256392E-2	1.322496E-2	-2.543077E-4	4.659711E-3	6.450656E-3	5.993716E-3	4.323551E-4	7.318326E-3	1.614992E-2	3.295224E-3	6.859363E-3	1.216272E-2	-1.076812E-2	1.541879E-3	-5.077920E-3	1.069562E-2	7.067145E-3	1.646306E-3	7.095739E-3	1.529687E-2	1.437092E-2	1.207631E-2	-4.002700E-3	1.663239E-2	6.529487E-3	-3.420572E-3	-1.489981E-2	-3.240740E-3	9.138666E-3	2.080366E-2	2.008503E-3	-9.475393E-3	4.749049E-4	7.344537E-3	1.862850E-2	5.858096E-3	2.806711E-2	7.618198E-3	1.056721E-2	-1.274502E-3	-1.192518E-2	2.749728E-2	1.036505E-2	9.390514E-3	1.723209E-2	4.079478E-3	1.892557E-2	-1.400569E-2	3.890573E-3	-7.688841E-3	9.151372E-3	6.506133E-3	2.776768E-3	-1.991853E-2	-4.084292E-3	7.745449E-3	1.409234E-2	1.095418E-2	1.564771E-2	3.137481E-2	-5.016275E-3	-1.088687E-2	1.053190E-2	1.030266E-2	-1.328775E-2	1.288195E-3	2.143941E-2	1.964227E-2	7.907280E-3	-4.532671E-3	-2.195208E-3	2.086369E-3	-1.057640E-2	-1.469067E-2	-9.797280E-3	4.129524E-3	3.974659E-3	5.967061E-3	1.407490E-2	-6.945714E-3	-1.279329E-2	-1.588980E-3	-1.060132E-3	2.147846E-2	7.692439E-3	-1.198187E-2	1.360962E-2	1.664737E-2	-7.835182E-3	3.415256E-2	-2.690164E-3	1.067791E-2	1.030887E-2	3.659227E-4	1.005664E-2	-3.935336E-3	-6.149876E-3	4.070865E-3	3.758541E-4	6.895563E-3	1.228335E-2	5.300812E-3	8.862920E-5	2.334118E-2	1.156702E-2	-1.170727E-2	1.546174E-2	2.081622E-2	2.254941E-2	2.584358E-2	-3.974801E-4	-4.986004E-3	1.782035E-2	-1.521666E-3	1.056355E-2	1.294348E-2	-6.930848E-3	3.749651E-3	3.322659E-3	2.611107E-2	-9.099178E-3	1.207301E-2	7.671672E-3	4.526354E-3	3.217295E-2	4.394874E-3	1.098733E-2	1.027809E-2	2.857567E-2	1.882934E-3
2.825060E+2	1.473262E-2	1.100453E-2	1.562834E-2	-8.598841E-3	-8.474052E-3	1.318425E-2	1.558580E-3	7.736152E-3	-8.399018E-3	2.765701E-2	-1.065461E-2	3.257403E-2	3.720667E-3	-5.016372E-3	9.966993E-3	1.215999E-2	2.384425E-2	1.607371E-2	1.556248E-2	1.027096E-2	1.260220E-2	-1.446076E-3	2.543819E-2	3.371287E-3	9.434185E-3	7.839294E-4	8.263195E-3	1.362231E-2	1.760576E-2	1.008201E-2	6.440777E-3	9.082477E-3	-3.301932E-3	4.460299E-3	-4.380410E-3	3.048452E-2	2.572372E-2	4.584166E-3	-1.150543E-2	8.598280E-3	-9.618755E-3	1.188673E-2	1.029834E-2	1.176899E-2	1.374311E-3	-4.443820E-3	-4.440372E-3	1.243605E-2	1.070122E-2	-8.486113E-3	1.304391E-2	6.881480E-3	-3.843150E-3	2.766123E-2	1.567940E-3	2.619519E-2	1.910149E-2	2.873046E-2	1.177030E-2	3.786069E-3	1.075450E-3	1.147543E-2	6.031705E-3	-3.967294E-3	3.795402E-3	-1.137210E-3	1.124029E-2	1.248408E-3	1.270822E-5	2.955910E-2	1.235900E-2	2.675378E-2	1.977406E-2	9.964699E-3	8.798532E-3	-7.911449E-5	-7.909912E-4	-1.115494E-2	4.780686E-3	1.090695E-2	2.153098E-3	6.968055E-3	2.935351E-3	2.437040E-2	5.201099E-3	1.161298E-2	5.580165E-3	1.789592E-2	2.405623E-2	1.223426E-2	8.684000E-4	8.358298E-4	9.743692E-3	-1.412864E-3	4.459855E-3	1.555458E-2	1.761846E-2	2.544238E-3	2.344814E-3	2.419743E-3	7.510792E-3	7.706384E-3	8.174419E-3	-2.041016E-3	8.741791E-3	1.231658E-3	5.625357E-4	-1.234488E-3	-8.532796E-3	1.115864E-2	6.757622E-3	2.158606E-2	1.079289E-2	-1.775326E-3	3.984619E-3	2.683242E-2	2.003152E-2	-2.577630E-4	1.446350E-2	1.419269E-2	-8.534682E-3	-1.927905E-3	1.562868E-2	-2.783338E-3	1.646743E-2	1.848889E-2	-1.146025E-3	1.366985E-2	-4.960995E-5	9.688979E-3	1.119056E-2	-4.423874E-3	6.279902E-3	2.940439E-3	1.732545E-2	1.323400E-2	1.180386E-2	3.063840E-2	5.804152E-3	1.977175E-2	3.797031E-4	6.995915E-4	3.731541E-3	3.156053E-3	3.308367E-3	1.327849E-2	2.120476E-2	4.155270E-3	1.181178E-2	-1.712671E-3	2.223722E-2	-1.268252E-2	1.912375E-2	8.597660E-3	8.718124E-3	7.188516E-3	3.358958E-3	3.437247E-3	4.378183E-2	1.771890E-3	9.942887E-4	6.862407E-4	-3.543584E-3	-5.534142E-4	2.980322E-3	5.878918E-3	-6.045975E-4	3.185038E-3	-7.979384E-3	-2.101894E-3	-3.866516E-2
2.830030E+2	-2.516987E-2	1.635804E-2	4.722580E-3	3.034446E-2	4.448805E-3	2.287375E-2	1.658554E-3	-1.460678E-2	1.211764E-2	2.955979E-2	1.240327E-2	1.268690E-2	1.173699E-2	-1.656071E-2	2.470765E-2	9.323019E-3	1.603835E-2	1.475718E-2	1.574232E-2	2.694629E-2	1.579539E-2	-1.519441E-3	1.982299E-2	2.185139E-2	9.256925E-3	2.172180E-2	-9.801464E-3	4.949758E-3	1.967122E-3	1.642775E-2	6.017182E-4	1.571638E-3	1.598957E-2	2.262803E-2	1.261348E-2	1.580109E-2	-2.385330E-2	-8.521940E-3	2.038906E-3	2.557746E-2	2.484967E-2	-1.981185E-3	1.497955E-2	2.035570E-2	1.944521E-2	1.808852E-3	1.374670E-2	6.235410E-4	1.248814E-2	9.446280E-3	1.804530E-2	2.867231E-2	5.590347E-3	1.549983E-2	1.364189E-2	3.150669E-2	1.074255E-2	-4.813773E-3	-2.592087E-3	3.580875E-2	2.642995E-3	7.298680E-3	7.665202E-3	2.131186E-2	2.491468E-2	8.105135E-3	-5.219251E-3	6.035685E-3	-6.709302E-3	6.531006E-3	2.140708E-2	3.307348E-2	1.616798E-2	8.394974E-3	2.044590E-2	1.693135E-2	-7.623397E-3	2.840685E-2	-3.902414E-3	1.708690E-2	-8.125274E-3	1.655084E-2	4.437376E-3	-1.581924E-3	-5.916341E-4	1.329636E-2	-4.428515E-3	2.308442E-2	7.454026E-3	1.403057E-2	2.742319E-2	3.067842E-2	-8.113735E-3	-1.173503E-2	2.185511E-2	-7.339331E-3	-1.395940E-2	7.386218E-3	1.479891E-2	2.398699E-2	2.950223E-3	3.069451E-2	2.494277E-3	-4.131622E-4	-2.874755E-3	6.120550E-3	9.971918E-3	3.841547E-3	1.386044E-2	-1.997045E-4	1.220964E-3	7.515919E-3	3.673878E-3	1.189595E-3	-1.871463E-3	-2.165797E-2	-1.036537E-2	1.150582E-2	1.906420E-2	-1.238313E-2	-1.227896E-2	7.594016E-3	6.721261E-3	1.589134E-2	1.130279E-2	2.350049E-2	9.547888E-3	1.559944E-2	2.349025E-2	2.210076E-2	1.473994E-2	-1.354364E-2	1.091212E-2	-9.112318E-3	5.340678E-3	-6.657489E-4	4.048937E-3	-2.163706E-2	-2.736787E-2	1.839178E-2	1.018337E-2	7.222860E-3	-9.649901E-3	-1.266737E-3	2.527134E-2	2.791091E-3	2.291573E-2	2.564340E-3	6.236580E-4	5.952938E-3	1.983081E-2	1.019332E-2	1.148755E-2	2.589948E-2	2.669743E-3	5.530122E-3	1.636040E-3	5.049661E-3	1.081492E-3	-1.267981E-2	9.264890E-4	1.203283E-2	1.048230E-2	-1.082477E-2	2.386364E-2	-8.089289E-3	2.467112E-2	6.753345E-3	3.943353E-3	2.539433E-3	-9.972690E-3
2.835020E+2	-5.401112E-3	2.213399E-2	3.086068E-2	3.286139E-3	1.640601E-2	-8.273812E-3	1.829717E-2	1.532250E-2	2.117487E-2	1.213570E-2	2.021785E-2	1.645582E-2	4.006781E-2	9.714255E-3	1.637116E-2	1.712111E-2	9.753014E-3	2.622968E-2	2.261508E-2	2.228592E-2	1.617791E-2	3.192766E-2	-2.968956E-3	9.749794E-3	3.139512E-2	3.914139E-2	8.718676E-3	4.957132E-3	1.494008E-2	1.509466E-2	2.502926E-2	1.437742E-2	3.292048E-2	1.954849E-2	1.283758E-2	2.806333E-2	3.718141E-3	2.148356E-2	1.633167E-2	1.401702E-2	1.677065E-2	3.151291E-2	2.467523E-2	2.950256E-2	1.617741E-2	1.012935E-2	1.886915E-2	2.312213E-2	2.509935E-2	1.631230E-2	1.670520E-2	2.245729E-2	3.228097E-2	1.264550E-2	1.083251E-2	3.387072E-2	4.069033E-2	1.590314E-2	2.316259E-2	2.787791E-2	7.727374E-4	-1.521262E-2	1.589592E-2	1.443134E-2	1.030828E-2	3.712000E-2	1.336497E-2	2.633637E-2	1.590120E-3	1.458354E-2	1.484343E-2	2.023660E-2	9.038044E-3	2.667174E-2	-6.743398E-3	1.202402E-3	5.324320E-2	2.574934E-2	2.246131E-3	1.741607E-2	-6.645963E-3	7.191144E-3	2.090882E-2	2.880756E-2	1.349586E-2	2.447679E-2	3.121298E-3	2.340786E-2	1.101214E-2	3.493456E-2	2.799938E-2	3.654693E-2	2.808109E-2	3.652748E-2	1.912469E-2	2.277858E-2	2.640033E-3	1.771087E-2	2.661606E-2	1.995361E-2	6.406273E-3	1.389726E-2	-7.940852E-3	5.951938E-3	1.955994E-2	1.943007E-2	2.115577E-2	2.570551E-2	1.561755E-2	1.300101E-2	2.291506E-2	1.764201E-2	1.817914E-2	1.355199E-2	2.326391E-2	2.831389E-2	1.092338E-3	1.792954E-2	-4.021980E-4	1.260558E-3	2.223381E-2	4.182148E-2	2.447562E-2	1.807367E-2	4.109329E-2	2.083169E-2	1.790763E-2	4.012472E-2	2.209837E-2	2.060321E-2	1.610566E-2	6.255965E-3	1.897189E-2	1.081412E-2	1.130344E-2	1.612171E-2	2.069091E-2	2.680266E-2	1.877076E-2	7.728101E-3	-3.228930E-3	2.621792E-2	9.700287E-3	3.376863E-2	4.834215E-2	6.263934E-3	3.339123E-2	4.635827E-3	2.289674E-2	2.680266E-2	-3.660851E-3	3.297658E-2	2.116072E-2	3.137661E-2	1.102766E-2	1.667348E-2	2.666231E-2	2.543943E-2	4.301308E-2	-4.561445E-3	2.022123E-2	-1.415525E-3	2.137882E-2	3.195485E-2	8.164378E-3	1.220586E-2	2.023293E-2	1.694937E-2	1.112594E-2	4.307715E-2	2.893207E-2
2.840030E+2	6.014751E-2	5.768165E-2	6.593744E-2	4.534389E-2	8.672373E-2	5.652411E-2	5.346602E-2	4.229485E-2	6.089415E-2	3.826688E-2	3.378809E-2	6.364493E-2	3.514639E-2	4.150667E-2	8.371678E-2	8.057280E-2	6.646438E-2	3.913370E-2	7.404459E-2	6.050194E-2	6.097848E-2	7.891550E-2	4.924143E-2	5.947585E-2	6.124420E-2	8.520574E-2	4.636027E-2	2.208927E-2	4.761962E-2	3.950431E-2	2.654170E-2	3.352020E-2	2.919319E-2	8.209090E-2	7.820649E-2	7.349054E-2	4.244634E-2	4.456461E-2	5.945388E-2	2.820829E-2	5.273229E-2	5.286150E-2	5.629788E-2	5.465893E-2	7.867258E-2	3.634051E-2	6.513043E-2	3.618515E-2	5.549036E-2	7.708761E-2	4.559382E-2	5.556356E-2	9.551863E-2	3.336459E-2	4.865413E-2	5.837892E-2	4.254820E-2	3.310267E-2	4.335771E-2	6.133579E-2	6.997703E-2	5.142197E-2	6.445786E-2	5.489905E-2	6.624282E-2	5.863054E-2	4.584891E-2	4.848266E-2	3.691100E-2	4.410434E-2	6.191305E-2	4.640535E-2	4.083526E-2	1.025113E-1	4.513547E-2	6.549084E-2	6.466945E-2	8.421514E-2	5.886622E-2	6.084889E-2	6.689612E-2	4.828983E-2	4.063867E-2	5.610120E-2	3.832132E-2	2.434064E-2	3.335723E-2	4.435554E-2	3.307962E-2	5.608328E-2	7.464491E-2	5.637439E-2	4.297927E-2	6.010424E-2	8.359739E-2	4.988969E-2	5.594825E-2	3.658123E-2	8.905364E-2	5.632325E-2	8.872681E-2	7.392434E-2	2.568460E-2	2.893298E-2	5.850176E-2	5.688463E-2	4.662829E-2	2.887237E-2	5.024343E-2	5.499452E-2	5.134556E-2	4.608580E-2	8.283361E-2	6.343607E-2	6.423854E-2	3.181919E-2	4.967162E-2	4.546137E-2	8.397047E-2	6.832996E-2	4.322799E-2	4.890871E-2	5.058845E-2	5.634868E-2	6.977779E-2	4.196353E-2	6.448949E-2	5.038225E-2	5.190609E-2	5.555840E-2	4.799338E-2	4.093346E-2	5.360564E-2	8.334034E-2	4.744814E-2	7.187319E-2	5.593012E-2	4.277323E-2	4.355991E-2	7.116781E-2	5.852263E-2	3.282101E-2	4.792483E-2	5.202415E-2	5.933387E-2	3.812551E-2	2.799110E-2	2.818003E-2	4.128827E-2	6.260699E-2	3.111207E-2	6.483590E-2	3.603103E-2	4.617296E-2	2.836169E-2	5.252253E-2	4.354209E-2	5.564516E-2	4.998935E-2	5.690897E-2	3.597568E-2	5.491194E-2	4.104159E-2	6.191060E-2	7.511989E-2	6.403871E-2	2.934286E-2	5.362148E-2	7.815644E-2	7.563030E-2	6.466002E-2
2.841010E+2	4.051512E-2	2.251043E-2	6.242368E-2	7.906414E-2	5.718478E-2	4.974207E-2	5.644014E-2	3.820996E-2	4.379350E-2	3.943974E-2	5.352674E-2	6.320626E-2	4.149332E-2	5.834539E-2	4.960948E-2	5.392254E-2	5.254954E-2	6.175454E-2	7.059541E-2	5.661428E-2	3.954653E-2	6.004005E-2	4.411576E-2	4.291108E-2	5.118373E-2	5.185210E-2	3.190965E-2	6.019112E-2	3.713576E-2	9.481640E-2	7.501194E-2	2.665065E-2	1.050009E-1	3.929774E-2	6.476157E-2	6.089482E-2	7.729787E-2	5.055567E-2	6.964218E-2	6.018134E-2	6.112954E-2	4.098160E-2	5.450377E-2	1.064092E-1	6.415840E-2	7.307183E-2	5.530340E-2	5.624097E-2	8.251012E-2	6.260140E-2	5.565793E-2	8.736917E-2	8.856162E-2	6.445540E-2	6.452508E-2	8.475480E-2	2.020350E-2	5.052767E-2	5.875654E-2	6.998964E-2	9.656907E-2	6.398827E-2	5.112740E-2	5.634119E-2	6.419285E-2	5.501791E-2	5.421240E-2	8.300868E-2	5.035951E-2	5.335138E-2	4.346568E-2	6.812446E-2	5.126050E-2	4.627453E-2	6.014488E-2	6.323619E-2	3.913340E-2	6.711677E-2	7.127167E-2	6.544744E-2	6.646645E-2	8.329313E-2	4.948541E-2	5.537390E-2	6.490860E-2	5.561874E-2	4.216959E-2	6.155076E-2	8.221482E-2	6.994558E-2	8.695543E-2	7.276410E-2	3.213749E-2	3.177884E-2	5.346563E-2	7.941728E-2	5.542041E-2	9.149717E-2	5.124012E-2	7.065881E-2	6.251249E-2	6.026798E-2	7.139655E-2	6.294227E-2	6.729058E-2	6.029300E-2	5.476134E-2	5.320894E-2	7.254463E-2	4.430275E-2	7.847649E-2	4.748614E-2	5.252350E-2	6.342103E-2	7.346109E-2	5.299439E-2	5.283451E-2	4.685092E-2	7.680710E-2	8.807406E-2	6.267151E-2	2.676638E-2	6.532592E-2	7.760080E-2	4.940683E-2	6.331424E-2	6.602323E-2	6.185137E-2	7.138152E-2	6.649793E-2	3.941395E-2	6.128608E-2	7.427454E-2	8.667634E-2	2.801658E-2	4.775363E-2	8.303716E-2	9.133952E-2	3.145621E-2	5.163995E-2	4.404904E-2	6.269354E-2	7.056259E-2	2.879363E-2	6.805500E-2	5.233522E-2	5.816397E-2	5.756449E-2	4.252247E-2	4.930850E-2	6.819192E-2	7.786865E-2	6.538429E-2	5.584254E-2	3.283378E-2	4.656205E-2	3.442097E-2	3.946103E-2	6.283935E-2	4.297362E-2	6.268542E-2	4.035649E-2	8.810233E-2	7.593805E-2	3.924624E-2	4.901085E-2	7.263389E-2	1.060678E-1	7.412626E-2	8.081941E-2	1.009531E-1
2.842010E+2	7.369324E-2	9.144910E-2	8.751552E-2	1.188978E-1	1.181802E-1	7.774459E-2	7.485872E-2	5.420829E-2	8.040982E-2	1.039415E-1	1.203438E-1	7.422769E-2	7.198695E-2	1.031175E-1	1.197374E-1	6.773862E-2	9.508051E-2	8.123336E-2	1.127551E-1	8.651960E-2	9.333832E-2	8.196908E-2	6.656204E-2	1.152894E-1	9.103062E-2	1.108973E-1	6.486559E-2	1.153792E-1	8.731383E-2	1.082481E-1	9.867740E-2	9.709662E-2	8.726140E-2	1.119839E-1	8.114970E-2	1.069917E-1	9.257030E-2	9.112400E-2	1.062386E-1	9.255929E-2	8.909249E-2	1.139432E-1	7.184689E-2	8.926948E-2	6.530720E-2	9.150695E-2	8.102690E-2	8.373798E-2	1.042532E-1	8.893379E-2	1.082637E-1	9.429228E-2	1.232791E-1	1.110612E-1	1.017661E-1	8.628345E-2	9.445691E-2	9.718272E-2	1.025853E-1	1.060139E-1	1.117272E-1	8.619247E-2	1.138513E-1	9.602299E-2	8.297950E-2	8.643918E-2	1.158420E-1	7.743002E-2	1.132903E-1	1.230642E-1	8.185741E-2	9.643029E-2	1.425112E-1	8.702244E-2	1.121548E-1	1.296215E-1	9.136478E-2	1.009636E-1	8.209692E-2	1.032207E-1	8.906310E-2	1.035375E-1	1.187472E-1	9.973424E-2	9.830415E-2	8.407308E-2	1.028644E-1	8.988242E-2	9.625639E-2	1.251175E-1	1.394091E-1	1.085109E-1	1.129864E-1	1.246272E-1	8.339361E-2	1.003543E-1	9.410753E-2	9.475959E-2	1.075386E-1	1.060632E-1	1.200819E-1	9.823292E-2	1.015230E-1	8.517866E-2	1.030656E-1	8.257726E-2	8.033811E-2	8.896306E-2	9.341198E-2	9.769903E-2	1.139174E-1	9.699735E-2	9.557654E-2	1.287148E-1	9.029460E-2	8.887150E-2	9.575500E-2	9.181728E-2	9.193389E-2	9.870139E-2	7.668845E-2	7.699286E-2	1.646195E-1	8.102423E-2	1.222236E-1	1.269592E-1	1.135932E-1	1.070012E-1	1.018884E-1	1.559122E-1	9.844437E-2	1.009781E-1	9.018852E-2	9.947814E-2	8.402983E-2	7.840904E-2	1.189575E-1	1.112270E-1	7.498614E-2	8.958493E-2	1.129493E-1	1.164757E-1	1.015917E-1	9.296617E-2	1.223119E-1	1.245592E-1	1.014092E-1	9.612217E-2	1.144210E-1	1.136543E-1	7.946428E-2	1.257068E-1	9.298430E-2	1.009190E-1	8.281427E-2	1.128698E-1	1.193851E-1	1.020824E-1	1.301124E-1	1.113420E-1	6.762952E-2	1.233595E-1	9.777373E-2	8.271331E-2	1.195942E-1	7.900059E-2	8.757377E-2	6.907830E-2	1.210867E-1	1.082272E-1	1.236101E-1
2.843010E+2	1.447963E-1	1.074595E-1	1.306702E-1	1.796913E-1	1.401878E-1	1.235871E-1	1.286568E-1	1.321346E-1	1.269314E-1	1.389994E-1	1.430413E-1	1.442687E-1	1.271973E-1	1.176999E-1	1.267377E-1	1.631160E-1	1.478206E-1	1.565482E-1	9.967379E-2	1.252364E-1	1.286000E-1	1.191950E-1	1.229462E-1	1.486611E-1	1.326203E-1	9.698543E-2	1.418394E-1	1.085379E-1	1.510745E-1	1.019617E-1	1.216130E-1	1.367697E-1	1.582514E-1	1.251020E-1	1.458692E-1	1.554292E-1	1.271076E-1	1.501608E-1	1.790498E-1	1.508929E-1	1.595241E-1	1.447377E-1	1.388332E-1	1.378686E-1	1.722085E-1	1.809510E-1	1.093786E-1	1.026081E-1	1.362825E-1	1.416550E-1	1.479730E-1	1.309343E-1	1.520173E-1	1.386196E-1	1.433827E-1	1.680069E-1	1.520154E-1	1.689052E-1	1.189809E-1	1.831535E-1	1.395517E-1	1.334518E-1	1.594985E-1	1.029931E-1	1.081302E-1	1.510224E-1	1.485432E-1	1.699334E-1	1.493301E-1	1.125837E-1	1.166570E-1	1.416338E-1	1.620070E-1	1.186556E-1	1.251193E-1	1.732058E-1	1.468473E-1	1.462735E-1	1.301106E-1	1.686863E-1	1.074618E-1	1.523896E-1	1.179407E-1	1.193217E-1	1.168129E-1	1.360279E-1	1.303664E-1	1.574649E-1	1.133102E-1	1.293877E-1	1.434648E-1	1.378959E-1	1.518682E-1	1.268047E-1	1.483732E-1	1.222792E-1	1.181086E-1	1.536288E-1	1.151806E-1	1.561542E-1	1.388828E-1	1.481659E-1	1.261187E-1	1.611438E-1	1.544626E-1	1.411029E-1	1.085309E-1	1.646866E-1	1.592714E-1	1.611590E-1	1.535061E-1	1.373403E-1	1.170225E-1	1.116420E-1	1.389510E-1	1.021271E-1	1.119325E-1	1.378300E-1	1.244640E-1	1.230238E-1	1.193393E-1	1.353678E-1	1.449553E-1	1.433188E-1	1.448454E-1	1.444658E-1	1.227288E-1	1.126165E-1	1.683627E-1	1.872581E-1	1.521561E-1	1.438695E-1	1.490781E-1	1.211214E-1	1.121163E-1	1.049724E-1	1.212759E-1	1.301443E-1	1.283169E-1	1.288973E-1	1.600264E-1	1.042174E-1	1.418572E-1	9.181072E-2	1.266394E-1	1.326076E-1	9.092572E-2	1.785781E-1	1.746907E-1	1.208448E-1	1.572682E-1	1.553650E-1	1.162096E-1	1.437133E-1	8.494419E-2	1.731419E-1	1.077657E-1	1.009682E-1	1.108542E-1	1.326319E-1	1.636052E-1	1.721931E-1	1.131636E-1	1.356760E-1	1.479559E-1	9.622039E-2	1.665218E-1	1.404831E-1	1.790178E-1	1.798181E-1	1.032335E-1
2.844040E+2	1.881969E-1	1.428351E-1	1.966710E-1	1.878369E-1	1.568422E-1	1.478199E-1	1.736442E-1	1.424934E-1	1.826363E-1	1.377302E-1	1.675429E-1	1.986295E-1	2.089043E-1	1.762717E-1	1.527163E-1	1.884533E-1	1.939924E-1	1.824677E-1	1.549915E-1	1.559353E-1	1.842699E-1	1.632119E-1	1.699484E-1	1.581383E-1	1.864672E-1	1.673280E-1	1.478818E-1	1.878051E-1	1.764042E-1	1.557203E-1	1.738524E-1	2.102555E-1	2.214462E-1	1.871023E-1	1.755142E-1	1.718614E-1	1.684242E-1	1.701433E-1	1.624392E-1	2.108047E-1	1.991392E-1	1.793924E-1	1.904563E-1	1.841182E-1	1.883765E-1	1.630501E-1	1.993302E-1	1.594181E-1	2.042958E-1	1.730018E-1	1.791055E-1	1.936845E-1	1.867865E-1	1.681642E-1	2.221158E-1	1.803412E-1	1.596949E-1	1.569820E-1	1.773541E-1	1.846728E-1	2.008052E-1	1.766166E-1	1.588711E-1	2.079688E-1	1.658474E-1	2.096623E-1	1.528625E-1	2.086423E-1	1.893870E-1	1.792798E-1	1.691981E-1	1.756418E-1	2.333232E-1	1.802334E-1	1.725901E-1	1.717473E-1	2.181071E-1	2.251693E-1	1.739823E-1	1.863955E-1	2.213698E-1	1.582104E-1	1.858963E-1	1.865313E-1	1.758643E-1	1.659845E-1	1.818471E-1	1.721658E-1	2.142328E-1	1.844054E-1	1.957657E-1	1.941837E-1	1.824994E-1	1.578969E-1	1.938322E-1	1.712716E-1	1.418696E-1	1.835028E-1	1.784335E-1	1.528175E-1	1.714746E-1	1.628987E-1	2.241332E-1	1.725390E-1	1.845882E-1	1.755150E-1	1.965260E-1	2.044498E-1	1.767435E-1	1.901609E-1	2.118616E-1	1.256421E-1	1.403362E-1	1.915448E-1	1.569521E-1	1.669394E-1	1.668584E-1	1.496878E-1	1.590683E-1	1.992753E-1	1.883106E-1	2.013423E-1	1.815406E-1	1.719245E-1	1.657831E-1	1.929733E-1	1.943831E-1	1.779783E-1	1.801931E-1	2.540894E-1	1.864584E-1	1.754217E-1	1.924874E-1	1.593560E-1	1.617536E-1	1.526753E-1	1.757948E-1	1.992254E-1	2.029736E-1	1.840850E-1	2.113886E-1	1.868899E-1	1.910935E-1	1.897839E-1	1.510629E-1	1.670201E-1	1.593702E-1	2.029242E-1	1.874044E-1	2.476640E-1	1.566200E-1	1.715180E-1	1.966494E-1	1.785493E-1	1.628375E-1	1.739477E-1	1.363962E-1	1.948866E-1	1.597395E-1	1.488541E-1	1.514103E-1	2.072874E-1	1.803992E-1	1.543711E-1	1.855743E-1	1.688795E-1	2.104864E-1	1.645326E-1	2.080009E-1	2.012886E-1	1.124356E-1
2.845030E+2	2.542146E-1	2.362978E-1	2.542505E-1	2.762483E-1	2.326756E-1	2.213053E-1	2.423778E-1	2.565803E-1	2.668782E-1	2.880401E-1	2.490215E-1	2.353398E-1	2.409970E-1	2.899879E-1	2.728152E-1	1.995701E-1	2.875165E-1	2.586878E-1	2.815969E-1	2.458578E-1	2.550270E-1	2.298551E-1	2.285323E-1	2.004998E-1	2.713812E-1	2.888267E-1	2.254347E-1	2.483479E-1	2.214838E-1	2.791896E-1	2.520201E-1	2.348695E-1	2.556506E-1	2.144341E-1	2.287849E-1	2.650891E-1	2.753999E-1	2.249124E-1	2.331043E-1	2.556580E-1	2.740374E-1	2.527949E-1	2.071484E-1	2.870470E-1	2.729286E-1	2.430195E-1	2.479633E-1	2.393097E-1	2.777249E-1	2.790263E-1	2.368920E-1	2.494971E-1	2.637603E-1	2.435286E-1	2.625505E-1	2.594531E-1	2.990623E-1	2.440837E-1	2.371886E-1	2.550889E-1	3.346630E-1	3.178781E-1	2.182948E-1	2.353446E-1	2.501686E-1	2.424272E-1	2.360466E-1	2.597106E-1	2.236784E-1	2.379701E-1	2.311563E-1	2.941976E-1	2.513764E-1	2.507039E-1	2.608680E-1	2.797331E-1	2.730870E-1	2.482325E-1	2.209125E-1	2.443702E-1	3.106796E-1	2.782069E-1	2.224260E-1	2.705416E-1	2.599024E-1	2.679061E-1	2.521598E-1	2.461765E-1	2.642541E-1	1.936102E-1	2.300185E-1	2.720389E-1	2.123268E-1	2.486441E-1	3.085606E-1	2.455622E-1	2.513413E-1	2.846188E-1	2.661832E-1	2.740010E-1	2.869310E-1	2.348430E-1	2.365379E-1	2.573330E-1	2.559758E-1	2.097680E-1	2.474524E-1	2.764027E-1	2.644510E-1	2.402285E-1	2.771030E-1	2.440693E-1	2.161655E-1	2.604818E-1	2.932305E-1	2.279367E-1	2.609825E-1	2.616722E-1	2.400305E-1	2.945365E-1	2.370370E-1	2.414819E-1	2.506642E-1	2.345128E-1	2.331426E-1	2.430778E-1	2.452702E-1	2.332117E-1	2.155825E-1	2.231602E-1	2.780446E-1	2.634732E-1	2.258805E-1	2.470997E-1	2.544056E-1	2.587757E-1	2.585214E-1	2.105339E-1	2.500914E-1	2.728054E-1	2.680698E-1	2.710088E-1	3.176973E-1	2.409648E-1	2.049512E-1	2.241521E-1	2.635345E-1	2.720465E-1	2.093814E-1	2.313067E-1	2.638939E-1	2.601375E-1	2.524776E-1	2.647732E-1	2.045549E-1	2.156072E-1	2.415640E-1	2.812125E-1	2.203940E-1	2.807768E-1	2.503314E-1	2.911241E-1	2.243147E-1	2.573406E-1	2.649820E-1	2.217736E-1	2.333293E-1	2.450116E-1	3.061687E-1	2.754932E-1	1.992642E-1
2.846010E+2	4.027252E-1	3.740819E-1	3.893353E-1	3.504745E-1	4.088816E-1	3.386261E-1	3.389457E-1	3.718486E-1	4.348239E-1	3.605822E-1	3.617849E-1	3.774553E-1	3.660973E-1	4.119173E-1	3.506319E-1	3.666694E-1	3.658956E-1	3.287207E-1	3.570446E-1	3.692227E-1	3.263538E-1	3.313984E-1	4.003750E-1	3.945653E-1	3.849424E-1	3.670412E-1	3.837919E-1	3.980334E-1	3.664533E-1	3.864299E-1	3.980264E-1	3.764437E-1	3.873700E-1	3.963256E-1	3.516619E-1	4.567010E-1	3.407478E-1	3.449242E-1	3.482127E-1	3.054761E-1	3.606757E-1	3.423641E-1	3.767517E-1	3.471255E-1	3.545951E-1	4.200923E-1	3.624244E-1	3.681506E-1	3.821241E-1	3.916761E-1	3.752893E-1	4.252971E-1	4.243224E-1	3.541225E-1	3.941056E-1	3.650323E-1	3.354448E-1	3.395282E-1	3.607804E-1	3.730927E-1	4.194659E-1	3.599873E-1	3.740561E-1	4.028623E-1	4.094110E-1	3.082217E-1	3.620504E-1	3.690039E-1	3.506086E-1	3.774371E-1	4.229373E-1	3.332312E-1	3.520241E-1	4.227673E-1	3.594989E-1	3.671235E-1	3.636165E-1	3.983004E-1	3.719989E-1	3.865660E-1	3.496076E-1	3.507431E-1	3.165790E-1	3.293280E-1	3.612305E-1	3.685952E-1	4.204361E-1	3.764456E-1	3.489602E-1	3.540476E-1	3.717146E-1	3.869434E-1	3.747932E-1	4.327845E-1	3.472079E-1	3.848034E-1	3.546184E-1	4.360930E-1	4.245440E-1	3.990312E-1	3.731471E-1	3.678640E-1	2.959013E-1	3.651960E-1	3.332415E-1	4.383488E-1	3.864381E-1	3.869341E-1	3.384160E-1	4.034092E-1	4.094024E-1	3.930582E-1	3.552262E-1	3.446739E-1	3.751137E-1	3.329421E-1	3.746881E-1	4.214628E-1	3.655211E-1	4.070106E-1	3.887274E-1	3.727978E-1	3.797911E-1	3.448014E-1	3.770123E-1	3.317093E-1	3.672366E-1	4.219086E-1	3.741218E-1	3.940465E-1	3.961074E-1	3.913877E-1	3.974471E-1	4.055651E-1	3.396307E-1	3.491537E-1	3.711530E-1	3.044823E-1	3.972383E-1	3.170718E-1	4.268427E-1	3.425671E-1	3.963390E-1	3.910525E-1	3.346591E-1	3.566054E-1	4.005206E-1	3.613818E-1	3.427021E-1	3.168306E-1	3.553516E-1	3.753127E-1	3.900837E-1	4.020571E-1	3.955734E-1	3.758980E-1	3.782618E-1	3.815534E-1	3.864947E-1	3.696425E-1	3.595038E-1	3.646334E-1	3.582738E-1	4.205501E-1	4.071303E-1	3.421783E-1	3.556936E-1	3.526038E-1	3.436209E-1	3.694534E-1	4.155878E-1
2.847030E+2	7.868871E-1	7.931999E-1	7.390467E-1	7.838219E-1	7.397229E-1	7.757509E-1	7.291018E-1	7.881586E-1	7.471650E-1	7.286951E-1	6.911991E-1	7.264109E-1	7.464533E-1	8.053229E-1	7.117769E-1	6.961815E-1	7.330049E-1	7.694916E-1	7.184318E-1	6.863766E-1	7.326773E-1	7.156471E-1	6.544402E-1	7.370546E-1	6.813445E-1	7.173091E-1	7.459390E-1	7.839568E-1	6.859609E-1	7.420875E-1	7.353034E-1	7.095289E-1	8.037431E-1	8.137271E-1	8.119727E-1	7.834697E-1	7.298467E-1	7.092525E-1	6.790891E-1	7.367139E-1	7.411147E-1	7.201432E-1	7.108254E-1	6.716894E-1	7.414881E-1	7.405068E-1	6.965650E-1	7.053644E-1	6.885119E-1	7.545816E-1	7.465338E-1	7.008933E-1	7.539281E-1	7.302215E-1	6.884007E-1	7.633263E-1	7.370466E-1	7.131755E-1	7.502374E-1	7.291127E-1	7.100929E-1	7.912113E-1	8.086373E-1	7.202875E-1	7.238008E-1	7.811759E-1	6.885112E-1	7.460233E-1	7.239686E-1	7.523317E-1	7.310274E-1	6.284919E-1	7.813675E-1	7.149232E-1	7.331088E-1	7.114056E-1	7.674397E-1	7.772985E-1	7.257172E-1	7.086934E-1	7.005180E-1	7.350204E-1	6.729001E-1	6.817266E-1	7.026082E-1	6.904610E-1	7.486659E-1	7.360392E-1	7.096976E-1	7.592028E-1	6.932948E-1	7.353704E-1	7.459979E-1	7.243277E-1	7.256109E-1	7.677018E-1	7.330648E-1	7.424101E-1	7.144258E-1	7.626547E-1	7.909536E-1	6.905331E-1	6.601157E-1	7.055681E-1	6.901939E-1	6.729298E-1	8.254950E-1	7.277570E-1	6.915682E-1	7.351476E-1	7.166682E-1	7.016041E-1	7.036596E-1	7.215046E-1	7.595092E-1	7.091405E-1	7.456674E-1	7.276472E-1	6.754091E-1	6.820321E-1	7.058981E-1	6.556669E-1	6.581576E-1	7.098568E-1	7.480346E-1	8.051381E-1	7.430208E-1	7.264937E-1	7.695834E-1	7.340696E-1	6.689355E-1	7.767293E-1	7.446467E-1	6.856693E-1	7.326229E-1	7.484292E-1	7.761166E-1	7.432038E-1	7.967386E-1	7.583620E-1	7.299418E-1	7.339057E-1	7.347744E-1	7.538204E-1	8.102804E-1	6.715794E-1	7.889672E-1	7.298161E-1	7.157303E-1	7.218259E-1	7.586743E-1	8.000607E-1	7.159545E-1	7.721200E-1	7.229990E-1	7.590409E-1	7.201071E-1	7.214219E-1	7.361652E-1	7.261853E-1	7.381528E-1	7.416935E-1	7.263798E-1	6.766694E-1	7.597010E-1	6.437253E-1	7.684729E-1	7.774826E-1	6.385569E-1	6.704188E-1	8.834829E-1
2.848030E+2	1.378219E+0	1.430844E+0	1.421596E+0	1.476603E+0	1.416542E+0	1.445606E+0	1.428255E+0	1.392878E+0	1.359250E+0	1.345629E+0	1.424922E+0	1.377450E+0	1.436446E+0	1.445643E+0	1.504510E+0	1.399690E+0	1.465831E+0	1.351641E+0	1.485673E+0	1.421232E+0	1.419404E+0	1.406461E+0	1.461829E+0	1.376890E+0	1.440765E+0	1.394036E+0	1.379582E+0	1.309028E+0	1.329198E+0	1.392675E+0	1.279024E+0	1.404113E+0	1.453142E+0	1.387368E+0	1.431817E+0	1.343120E+0	1.425166E+0	1.395139E+0	1.376655E+0	1.454085E+0	1.379419E+0	1.356125E+0	1.451686E+0	1.377902E+0	1.382544E+0	1.461003E+0	1.357136E+0	1.388045E+0	1.524340E+0	1.405436E+0	1.453491E+0	1.411107E+0	1.426599E+0	1.364214E+0	1.370644E+0	1.399990E+0	1.499777E+0	1.405416E+0	1.478280E+0	1.513479E+0	1.467100E+0	1.416466E+0	1.397796E+0	1.385544E+0	1.295354E+0	1.373816E+0	1.300193E+0	1.433153E+0	1.393701E+0	1.354007E+0	1.405736E+0	1.326054E+0	1.397001E+0	1.507895E+0	1.324390E+0	1.370706E+0	1.474686E+0	1.364901E+0	1.405135E+0	1.362432E+0	1.337733E+0	1.363463E+0	1.377626E+0	1.461920E+0	1.417630E+0	1.403020E+0	1.440150E+0	1.446859E+0	1.452134E+0	1.393098E+0	1.461995E+0	1.452375E+0	1.284112E+0	1.439933E+0	1.444549E+0	1.447680E+0	1.393746E+0	1.405839E+0	1.494003E+0	1.344144E+0	1.464233E+0	1.440979E+0	1.299531E+0	1.388939E+0	1.398921E+0	1.397824E+0	1.469309E+0	1.434592E+0	1.427759E+0	1.469081E+0	1.381377E+0	1.455076E+0	1.412516E+0	1.304090E+0	1.388107E+0	1.456195E+0	1.341957E+0	1.422397E+0	1.402047E+0	1.413675E+0	1.451805E+0	1.301982E+0	1.314217E+0	1.492877E+0	1.403758E+0	1.413884E+0	1.342743E+0	1.458370E+0	1.401941E+0	1.447887E+0	1.375314E+0	1.350137E+0	1.463435E+0	1.399591E+0	1.485913E+0	1.427981E+0	1.380412E+0	1.432271E+0	1.437533E+0	1.394736E+0	1.474068E+0	1.397446E+0	1.429871E+0	1.459760E+0	1.412986E+0	1.318949E+0	1.296748E+0	1.343003E+0	1.358082E+0	1.479589E+0	1.472911E+0	1.411791E+0	1.475181E+0	1.434088E+0	1.389535E+0	1.329362E+0	1.393616E+0	1.460128E+0	1.405162E+0	1.457019E+0	1.336815E+0	1.459831E+0	1.252141E+0	1.358954E+0	1.288829E+0	1.299106E+0	1.551325E+0	1.346128E+0	1.404276E+0	1.372783E+0	1.453865E+0
2.849020E+2	1.618286E+0	1.605799E+0	1.570749E+0	1.630234E+0	1.715229E+0	1.569914E+0	1.565286E+0	1.656736E+0	1.588336E+0	1.690382E+0	1.608763E+0	1.643097E+0	1.652641E+0	1.646416E+0	1.538467E+0	1.537655E+0	1.633899E+0	1.590634E+0	1.604883E+0	1.721409E+0	1.516465E+0	1.546095E+0	1.666289E+0	1.646020E+0	1.629950E+0	1.593321E+0	1.595109E+0	1.507809E+0	1.526353E+0	1.745981E+0	1.607388E+0	1.627392E+0	1.529102E+0	1.573711E+0	1.601982E+0	1.631178E+0	1.568549E+0	1.655313E+0	1.666344E+0	1.647294E+0	1.604885E+0	1.490722E+0	1.536754E+0	1.590859E+0	1.634748E+0	1.668260E+0	1.591444E+0	1.511252E+0	1.648701E+0	1.688405E+0	1.627145E+0	1.585753E+0	1.689007E+0	1.663801E+0	1.544652E+0	1.714976E+0	1.606302E+0	1.574269E+0	1.556449E+0	1.589644E+0	1.590422E+0	1.645340E+0	1.705114E+0	1.615661E+0	1.761938E+0	1.625007E+0	1.626374E+0	1.546227E+0	1.566795E+0	1.628508E+0	1.554840E+0	1.501380E+0	1.567869E+0	1.678486E+0	1.565963E+0	1.555998E+0	1.668892E+0	1.543699E+0	1.475369E+0	1.555240E+0	1.581700E+0	1.577067E+0	1.577208E+0	1.524838E+0	1.595286E+0	1.561233E+0	1.442729E+0	1.753806E+0	1.653144E+0	1.578035E+0	1.559282E+0	1.552068E+0	1.693175E+0	1.529774E+0	1.531345E+0	1.556877E+0	1.427597E+0	1.630401E+0	1.636586E+0	1.693563E+0	1.580735E+0	1.595325E+0	1.489918E+0	1.576021E+0	1.528933E+0	1.594565E+0	1.510938E+0	1.548953E+0	1.641473E+0	1.656484E+0	1.644686E+0	1.579897E+0	1.568043E+0	1.695539E+0	1.617240E+0	1.634018E+0	1.600971E+0	1.573183E+0	1.719521E+0	1.523797E+0	1.561221E+0	1.582647E+0	1.592115E+0	1.602677E+0	1.644196E+0	1.628094E+0	1.541281E+0	1.577562E+0	1.658834E+0	1.556689E+0	1.585960E+0	1.662659E+0	1.579043E+0	1.573849E+0	1.588130E+0	1.611460E+0	1.548804E+0	1.538330E+0	1.590574E+0	1.599339E+0	1.628031E+0	1.513423E+0	1.651625E+0	1.687365E+0	1.528602E+0	1.537005E+0	1.667741E+0	1.475794E+0	1.580103E+0	1.527875E+0	1.637423E+0	1.710500E+0	1.656166E+0	1.679883E+0	1.521097E+0	1.620075E+0	1.576529E+0	1.712626E+0	1.570519E+0	1.565561E+0	1.427814E+0	1.559303E+0	1.456576E+0	1.543395E+0	1.590666E+0	1.590945E+0	1.576001E+0	1.552206E+0	1.550653E+0	1.751971E+0	1.710638E+0
2.850030E+2	1.437628E+0	1.445770E+0	1.465880E+0	1.397931E+0	1.384964E+0	1.435773E+0	1.463359E+0	1.454046E+0	1.467936E+0	1.292346E+0	1.476161E+0	1.432327E+0	1.442785E+0	1.483407E+0	1.354644E+0	1.430791E+0	1.482841E+0	1.365479E+0	1.461742E+0	1.490744E+0	1.393135E+0	1.362946E+0	1.471550E+0	1.473585E+0	1.298816E+0	1.503499E+0	1.401541E+0	1.466429E+0	1.428121E+0	1.526808E+0	1.383055E+0	1.459052E+0	1.353219E+0	1.420445E+0	1.397644E+0	1.406815E+0	1.441611E+0	1.460454E+0	1.465588E+0	1.443767E+0	1.474675E+0	1.348050E+0	1.358938E+0	1.460901E+0	1.466368E+0	1.540943E+0	1.357643E+0	1.460653E+0	1.495321E+0	1.420319E+0	1.452217E+0	1.392360E+0	1.452933E+0	1.371921E+0	1.361407E+0	1.446707E+0	1.410861E+0	1.492281E+0	1.438984E+0	1.445433E+0	1.576425E+0	1.482593E+0	1.491661E+0	1.479218E+0	1.396915E+0	1.262874E+0	1.432603E+0	1.332812E+0	1.460512E+0	1.462578E+0	1.487900E+0	1.355292E+0	1.455484E+0	1.296558E+0	1.389312E+0	1.381578E+0	1.483977E+0	1.342140E+0	1.337717E+0	1.407895E+0	1.440924E+0	1.424502E+0	1.470273E+0	1.386436E+0	1.411356E+0	1.433468E+0	1.351534E+0	1.400919E+0	1.490235E+0	1.489965E+0	1.374395E+0	1.414671E+0	1.410292E+0	1.456213E+0	1.416738E+0	1.340285E+0	1.421836E+0	1.369879E+0	1.425566E+0	1.444983E+0	1.406774E+0	1.342224E+0	1.466866E+0	1.389192E+0	1.517106E+0	1.429739E+0	1.438663E+0	1.408878E+0	1.380502E+0	1.449894E+0	1.436108E+0	1.444470E+0	1.435563E+0	1.521845E+0	1.355742E+0	1.444497E+0	1.439306E+0	1.506667E+0	1.388087E+0	1.410343E+0	1.476553E+0	1.379539E+0	1.372270E+0	1.490512E+0	1.468427E+0	1.391840E+0	1.376670E+0	1.458467E+0	1.403498E+0	1.504868E+0	1.417106E+0	1.461377E+0	1.374031E+0	1.410742E+0	1.398495E+0	1.416366E+0	1.452522E+0	1.451104E+0	1.373020E+0	1.400882E+0	1.349726E+0	1.459126E+0	1.408435E+0	1.405330E+0	1.477296E+0	1.343311E+0	1.449433E+0	1.353661E+0	1.426433E+0	1.473804E+0	1.494788E+0	1.423029E+0	1.433870E+0	1.401440E+0	1.420726E+0	1.420591E+0	1.331645E+0	1.365588E+0	1.455410E+0	1.485811E+0	1.396911E+0	1.449126E+0	1.368315E+0	1.420658E+0	1.534372E+0	1.319162E+0	1.476613E+0	1.473789E+0	1.445160E+0	1.443752E+0	1.610889E+0
2.851080E+2	1.401740E+0	1.292122E+0	1.374999E+0	1.332527E+0	1.286798E+0	1.332601E+0	1.313576E+0	1.375819E+0	1.281000E+0	1.330101E+0	1.289446E+0	1.334814E+0	1.295668E+0	1.314059E+0	1.320206E+0	1.359541E+0	1.299428E+0	1.282375E+0	1.383856E+0	1.295417E+0	1.281077E+0	1.354801E+0	1.323341E+0	1.290255E+0	1.523940E+0	1.357965E+0	1.299033E+0	1.308920E+0	1.276251E+0	1.328451E+0	1.297192E+0	1.318164E+0	1.282464E+0	1.274550E+0	1.317180E+0	1.346815E+0	1.291658E+0	1.464978E+0	1.367318E+0	1.328382E+0	1.342554E+0	1.261531E+0	1.313442E+0	1.294741E+0	1.419246E+0	1.372953E+0	1.347016E+0	1.264420E+0	1.462300E+0	1.321906E+0	1.404198E+0	1.305548E+0	1.403498E+0	1.363076E+0	1.258001E+0	1.213934E+0	1.433665E+0	1.281664E+0	1.302988E+0	1.316821E+0	1.434680E+0	1.330797E+0	1.375797E+0	1.311787E+0	1.224074E+0	1.252661E+0	1.326133E+0	1.338148E+0	1.361874E+0	1.271233E+0	1.373284E+0	1.274747E+0	1.379918E+0	1.426741E+0	1.364766E+0	1.377628E+0	1.387798E+0	1.312489E+0	1.288514E+0	1.384766E+0	1.364236E+0	1.334431E+0	1.285540E+0	1.260411E+0	1.293809E+0	1.295736E+0	1.347545E+0	1.335069E+0	1.374096E+0	1.437932E+0	1.339003E+0	1.361980E+0	1.348232E+0	1.343274E+0	1.341476E+0	1.371035E+0	1.279587E+0	1.307489E+0	1.399520E+0	1.366364E+0	1.346138E+0	1.316925E+0	1.378626E+0	1.381278E+0	1.404929E+0	1.317748E+0	1.337868E+0	1.367387E+0	1.275346E+0	1.393011E+0	1.349245E+0	1.365734E+0	1.340379E+0	1.353287E+0	1.314628E+0	1.237589E+0	1.328488E+0	1.353071E+0	1.352351E+0	1.414008E+0	1.296430E+0	1.242013E+0	1.345286E+0	1.346448E+0	1.425441E+0	1.303917E+0	1.276673E+0	1.289541E+0	1.395119E+0	1.312578E+0	1.308164E+0	1.407691E+0	1.389772E+0	1.376238E+0	1.317274E+0	1.345993E+0	1.421138E+0	1.333378E+0	1.368876E+0	1.315056E+0	1.415971E+0	1.352262E+0	1.402314E+0	1.306489E+0	1.344032E+0	1.283125E+0	1.380660E+0	1.343939E+0	1.356666E+0	1.323729E+0	1.385141E+0	1.431475E+0	1.375629E+0	1.341988E+0	1.336352E+0	1.287146E+0	1.363287E+0	1.351768E+0	1.324456E+0	1.238352E+0	1.329996E+0	1.389664E+0	1.154575E+0	1.428216E+0	1.324315E+0	1.347075E+0	1.343898E+0	1.346806E+0	1.251928E+0	1.250092E+0	1.531541E+0
2.852010E+2	1.217225E+0	1.278367E+0	1.327974E+0	1.310123E+0	1.195414E+0	1.315736E+0	1.264119E+0	1.319437E+0	1.264670E+0	1.327145E+0	1.246329E+0	1.254360E+0	1.238112E+0	1.331475E+0	1.272114E+0	1.266064E+0	1.209326E+0	1.341618E+0	1.221429E+0	1.285040E+0	1.286728E+0	1.315979E+0	1.262960E+0	1.374736E+0	1.323604E+0	1.375933E+0	1.250682E+0	1.238459E+0	1.271057E+0	1.221126E+0	1.283523E+0	1.340859E+0	1.246650E+0	1.201309E+0	1.288579E+0	1.300873E+0	1.278441E+0	1.305566E+0	1.316461E+0	1.255050E+0	1.168988E+0	1.176128E+0	1.152823E+0	1.271633E+0	1.270247E+0	1.237583E+0	1.306470E+0	1.217853E+0	1.302659E+0	1.214287E+0	1.240903E+0	1.194155E+0	1.293860E+0	1.377036E+0	1.278998E+0	1.327065E+0	1.338060E+0	1.226275E+0	1.273314E+0	1.271291E+0	1.346335E+0	1.319611E+0	1.344753E+0	1.224892E+0	1.274508E+0	1.270808E+0	1.294382E+0	1.188783E+0	1.345684E+0	1.334542E+0	1.249308E+0	1.148372E+0	1.339878E+0	1.247745E+0	1.278445E+0	1.252423E+0	1.330991E+0	1.293834E+0	1.283415E+0	1.426387E+0	1.314563E+0	1.339637E+0	1.225582E+0	1.254286E+0	1.292974E+0	1.181155E+0	1.227364E+0	1.322310E+0	1.292097E+0	1.276841E+0	1.315506E+0	1.333287E+0	1.290759E+0	1.200456E+0	1.321429E+0	1.280831E+0	1.224806E+0	1.360483E+0	1.418135E+0	1.233511E+0	1.353818E+0	1.232141E+0	1.191074E+0	1.273345E+0	1.283380E+0	1.288001E+0	1.338702E+0	1.254371E+0	1.245768E+0	1.327269E+0	1.370087E+0	1.324471E+0	1.258696E+0	1.284945E+0	1.280306E+0	1.320957E+0	1.257434E+0	1.321689E+0	1.285655E+0	1.244001E+0	1.276637E+0	1.179726E+0	1.218633E+0	1.349131E+0	1.285093E+0	1.336101E+0	1.307430E+0	1.284051E+0	1.290215E+0	1.473076E+0	1.204683E+0	1.303305E+0	1.245233E+0	1.268514E+0	1.306372E+0	1.273183E+0	1.339597E+0	1.283211E+0	1.260780E+0	1.287045E+0	1.263111E+0	1.218652E+0	1.374168E+0	1.200353E+0	1.199513E+0	1.168585E+0	1.263126E+0	1.328650E+0	1.282413E+0	1.225325E+0	1.269288E+0	1.265691E+0	1.275734E+0	1.333185E+0	1.349524E+0	1.276376E+0	1.223673E+0	1.308346E+0	1.280946E+0	1.255144E+0	1.262851E+0	1.331860E+0	1.192946E+0	1.359514E+0	1.244943E+0	1.223438E+0	1.307854E+0	1.313661E+0	1.366124E+0	1.305203E+0	1.120826E+0
2.853000E+2	9.325923E-1	1.006746E+0	9.892504E-1	9.761920E-1	1.007961E+0	9.360265E-1	9.596030E-1	9.419973E-1	9.504018E-1	9.662088E-1	9.285692E-1	8.638483E-1	8.991625E-1	1.018250E+0	9.612277E-1	1.018069E+0	9.989435E-1	9.427954E-1	9.095635E-1	9.828535E-1	9.119535E-1	8.858013E-1	9.266953E-1	9.596671E-1	9.473520E-1	9.367389E-1	9.418679E-1	8.912434E-1	8.789091E-1	9.204726E-1	9.873749E-1	9.344590E-1	9.338038E-1	9.270615E-1	9.377182E-1	9.581615E-1	8.574815E-1	9.473492E-1	9.294761E-1	9.949857E-1	9.518067E-1	1.015123E+0	9.773258E-1	9.806855E-1	8.813767E-1	9.956634E-1	9.556304E-1	9.113146E-1	1.034478E+0	9.915300E-1	9.448051E-1	9.770512E-1	9.103176E-1	9.711533E-1	8.483456E-1	8.934067E-1	9.518364E-1	9.544625E-1	8.937319E-1	9.687166E-1	1.016116E+0	9.087234E-1	9.601104E-1	1.008845E+0	9.676483E-1	9.351501E-1	9.920342E-1	8.714463E-1	9.548659E-1	8.939913E-1	9.206725E-1	8.962247E-1	1.003538E+0	1.043379E+0	9.686779E-1	9.516557E-1	1.035294E+0	9.446417E-1	9.533203E-1	1.022100E+0	9.339249E-1	9.281825E-1	9.729926E-1	9.291682E-1	9.200841E-1	1.066382E+0	9.227323E-1	9.896924E-1	9.438200E-1	9.551628E-1	9.534704E-1	1.041065E+0	9.565517E-1	9.397139E-1	9.388804E-1	9.412319E-1	9.570431E-1	9.474878E-1	9.806614E-1	1.020696E+0	9.523764E-1	8.530752E-1	9.102960E-1	9.037682E-1	9.703099E-1	1.032114E+0	1.012322E+0	8.930483E-1	9.376947E-1	1.106074E+0	1.007006E+0	9.615031E-1	9.226499E-1	9.957352E-1	9.653106E-1	9.644561E-1	9.165562E-1	1.031361E+0	9.295098E-1	9.057995E-1	9.798665E-1	9.469943E-1	9.570688E-1	9.788945E-1	9.783058E-1	9.172907E-1	8.831691E-1	9.391482E-1	9.090844E-1	1.013920E+0	9.293293E-1	1.051178E+0	9.578133E-1	9.944138E-1	9.274712E-1	9.641830E-1	9.715558E-1	9.739025E-1	9.519833E-1	9.875590E-1	8.950270E-1	9.975810E-1	1.011220E+0	9.873621E-1	9.936266E-1	9.568374E-1	9.586190E-1	9.580792E-1	8.743080E-1	9.203294E-1	9.276177E-1	9.601016E-1	9.827685E-1	9.768727E-1	9.991398E-1	9.713608E-1	9.903364E-1	9.986493E-1	8.949232E-1	9.271051E-1	9.797752E-1	9.757477E-1	9.615870E-1	9.411290E-1	9.970695E-1	8.860995E-1	9.500632E-1	8.838252E-1	9.260173E-1	9.986850E-1	9.966957E-1
2.854130E+2	6.417044E-1	7.164300E-1	6.870053E-1	6.776802E-1	7.317303E-1	6.179591E-1	7.059800E-1	6.557290E-1	7.221720E-1	7.265475E-1	6.939176E-1	6.483044E-1	7.005023E-1	7.726166E-1	6.306666E-1	6.960971E-1	7.047605E-1	7.603203E-1	7.455133E-1	7.797784E-1	7.011590E-1	6.714844E-1	7.044502E-1	6.660068E-1	7.157739E-1	7.410398E-1	6.706377E-1	6.479260E-1	6.535841E-1	7.037225E-1	6.629796E-1	7.408631E-1	6.987777E-1	7.387395E-1	7.092830E-1	6.962754E-1	6.530894E-1	6.973749E-1	7.328139E-1	6.787626E-1	6.276158E-1	7.185860E-1	6.810515E-1	6.627342E-1	7.321865E-1	7.244974E-1	6.748538E-1	6.846011E-1	7.273855E-1	6.678697E-1	7.134291E-1	7.343748E-1	6.646853E-1	6.807005E-1	6.917450E-1	6.971987E-1	7.202790E-1	6.527639E-1	7.165679E-1	7.395210E-1	6.892116E-1	7.192193E-1	8.005075E-1	7.092134E-1	6.528266E-1	6.853347E-1	7.542266E-1	6.745191E-1	6.721043E-1	7.492512E-1	6.807729E-1	6.982529E-1	7.092751E-1	6.588885E-1	6.640833E-1	6.617947E-1	7.445427E-1	6.534550E-1	6.603051E-1	7.535317E-1	7.471595E-1	7.350818E-1	6.646246E-1	7.121842E-1	7.672180E-1	7.354324E-1	7.503746E-1	7.590700E-1	7.061739E-1	7.588346E-1	6.970236E-1	7.769707E-1	6.944597E-1	6.596313E-1	7.043847E-1	6.682529E-1	7.386331E-1	6.550762E-1	7.442702E-1	7.197182E-1	6.434621E-1	6.869876E-1	6.729514E-1	7.012232E-1	6.783965E-1	7.290949E-1	7.042105E-1	6.668536E-1	6.937364E-1	6.963634E-1	7.007321E-1	7.345490E-1	6.698687E-1	7.365459E-1	7.315383E-1	6.639993E-1	6.971300E-1	7.535672E-1	7.202914E-1	7.280593E-1	6.989263E-1	6.930521E-1	6.935165E-1	6.968626E-1	7.337755E-1	7.201383E-1	6.516814E-1	7.167688E-1	7.166497E-1	7.043625E-1	7.034120E-1	7.131611E-1	7.418107E-1	7.576548E-1	6.715095E-1	7.362627E-1	7.699442E-1	6.869734E-1	6.847528E-1	7.369760E-1	6.936179E-1	7.120527E-1	7.264130E-1	6.989659E-1	7.996953E-1	6.987131E-1	7.772150E-1	7.479611E-1	7.632050E-1	7.343251E-1	6.922612E-1	7.184750E-1	6.693927E-1	7.834461E-1	6.668877E-1	7.103696E-1	7.244901E-1	7.452283E-1	7.239546E-1	7.165870E-1	7.560791E-1	6.794686E-1	6.498591E-1	6.696584E-1	7.039222E-1	6.814695E-1	6.951363E-1	6.565139E-1	7.620801E-1	7.626849E-1	7.159139E-1
2.855050E+2	4.991592E-1	5.110372E-1	5.158904E-1	5.511660E-1	5.031876E-1	5.082594E-1	5.133961E-1	5.524630E-1	5.544004E-1	5.276655E-1	5.507998E-1	5.169155E-1	5.399015E-1	5.790482E-1	5.129377E-1	5.118090E-1	5.600841E-1	5.556845E-1	5.709122E-1	4.918844E-1	5.468252E-1	5.323510E-1	5.394755E-1	5.301839E-1	4.626133E-1	5.388189E-1	5.305709E-1	5.574209E-1	4.988205E-1	5.329185E-1	5.662155E-1	5.683367E-1	4.982650E-1	5.524499E-1	5.139292E-1	5.338443E-1	5.238654E-1	5.626020E-1	4.637788E-1	4.907598E-1	5.469754E-1	4.742628E-1	5.230463E-1	5.415640E-1	5.465789E-1	5.731666E-1	5.253226E-1	4.669507E-1	5.608076E-1	5.735422E-1	5.768083E-1	5.673778E-1	5.094267E-1	5.975785E-1	5.050105E-1	5.758340E-1	5.612253E-1	4.863103E-1	5.136868E-1	5.009470E-1	5.047983E-1	5.381535E-1	5.710214E-1	5.138331E-1	5.336202E-1	5.431755E-1	4.788495E-1	5.118834E-1	5.169565E-1	5.391717E-1	5.304960E-1	5.433606E-1	5.569500E-1	5.468763E-1	4.945455E-1	4.861050E-1	5.837088E-1	5.504263E-1	5.771643E-1	5.658343E-1	4.620433E-1	5.963911E-1	5.383296E-1	5.094584E-1	4.626313E-1	5.254179E-1	5.380680E-1	5.493724E-1	5.049779E-1	4.611485E-1	5.293411E-1	5.460817E-1	5.321570E-1	4.942765E-1	5.242865E-1	5.126579E-1	5.012360E-1	5.264458E-1	5.274478E-1	5.304037E-1	5.156585E-1	5.227010E-1	5.434192E-1	5.647182E-1	5.185988E-1	5.233299E-1	5.414761E-1	5.049966E-1	5.867896E-1	4.678286E-1	4.438775E-1	5.182728E-1	6.048917E-1	5.334862E-1	5.402427E-1	5.746566E-1	5.622296E-1	5.085451E-1	5.262958E-1	5.047706E-1	5.234588E-1	4.605480E-1	5.318491E-1	5.492353E-1	5.032395E-1	5.842925E-1	5.125573E-1	5.399474E-1	5.258443E-1	5.645123E-1	5.142985E-1	5.970342E-1	5.963651E-1	4.907232E-1	5.184319E-1	5.721328E-1	5.498011E-1	5.395381E-1	4.595185E-1	5.184738E-1	5.205640E-1	5.219680E-1	5.721433E-1	5.508998E-1	5.796591E-1	5.485289E-1	5.525606E-1	5.057292E-1	5.395729E-1	5.175288E-1	5.456003E-1	5.581126E-1	5.192353E-1	5.666731E-1	4.707428E-1	5.594417E-1	4.855869E-1	5.037625E-1	5.190150E-1	5.219232E-1	5.020512E-1	5.041147E-1	5.278382E-1	5.554750E-1	5.503148E-1	4.766269E-1	4.524603E-1	4.865500E-1	5.643464E-1	4.777141E-1	5.283472E-1
2.856030E+2	3.036004E-1	3.458867E-1	3.331624E-1	3.874086E-1	3.525155E-1	3.526289E-1	3.615787E-1	3.055314E-1	3.647166E-1	3.522551E-1	3.796613E-1	3.667829E-1	3.618560E-1	3.991091E-1	3.460455E-1	3.313497E-1	3.779944E-1	3.099726E-1	3.378808E-1	3.799116E-1	3.897806E-1	3.715667E-1	3.466506E-1	3.509485E-1	3.326581E-1	3.326880E-1	4.127028E-1	3.323208E-1	3.813210E-1	3.750526E-1	3.215806E-1	3.593656E-1	3.845814E-1	3.761275E-1	3.812567E-1	3.125683E-1	3.232990E-1	3.414008E-1	3.327833E-1	3.341783E-1	3.283298E-1	3.405032E-1	3.756303E-1	3.247173E-1	3.931270E-1	3.418631E-1	3.545896E-1	3.505655E-1	4.229120E-1	3.287134E-1	3.483304E-1	3.573640E-1	3.581756E-1	3.463741E-1	3.290028E-1	3.582220E-1	3.992168E-1	3.332877E-1	3.729761E-1	3.387487E-1	3.721604E-1	3.909643E-1	3.526801E-1	3.919019E-1	3.456836E-1	3.239461E-1	3.752186E-1	3.302215E-1	3.658571E-1	3.463109E-1	3.570609E-1	3.235358E-1	4.248893E-1	3.342915E-1	3.462006E-1	3.852464E-1	3.606387E-1	3.168859E-1	4.072159E-1	3.209347E-1	3.625406E-1	3.288996E-1	3.272345E-1	3.406203E-1	3.457983E-1	3.628819E-1	3.084009E-1	3.612602E-1	3.638664E-1	3.742420E-1	3.997199E-1	3.426967E-1	3.065286E-1	3.627800E-1	3.819001E-1	3.068228E-1	3.914919E-1	3.435521E-1	4.142253E-1	3.996417E-1	3.396872E-1	3.459152E-1	3.125666E-1	3.708335E-1	3.380031E-1	3.510332E-1	3.603749E-1	3.685245E-1	4.078898E-1	3.637435E-1	3.524508E-1	3.645086E-1	2.986388E-1	3.162207E-1	3.702346E-1	3.353130E-1	3.310888E-1	3.671929E-1	3.641396E-1	3.527056E-1	3.755932E-1	3.140000E-1	4.019005E-1	4.038410E-1	3.767959E-1	2.955181E-1	3.719700E-1	3.798672E-1	3.976353E-1	3.655796E-1	3.818012E-1	3.541096E-1	3.447155E-1	3.759720E-1	3.642086E-1	3.550939E-1	3.763546E-1	3.347207E-1	3.550077E-1	3.917924E-1	3.732493E-1	3.446927E-1	3.503622E-1	3.742978E-1	3.820176E-1	3.373338E-1	3.807324E-1	3.225143E-1	4.009621E-1	4.268169E-1	3.453513E-1	3.815560E-1	3.342077E-1	3.465901E-1	3.101628E-1	4.265910E-1	3.736620E-1	3.973467E-1	3.399562E-1	4.110385E-1	3.531903E-1	3.253140E-1	3.775120E-1	3.605502E-1	3.414459E-1	3.519140E-1	4.003238E-1	3.492077E-1	3.614230E-1	3.436524E-1	4.214860E-1
2.858030E+2	4.377444E-1	4.831599E-1	5.111948E-1	4.415898E-1	4.394571E-1	4.904098E-1	4.311047E-1	4.587938E-1	4.897866E-1	4.866727E-1	4.556276E-1	4.482901E-1	4.338148E-1	4.699089E-1	4.384460E-1	5.013498E-1	4.878642E-1	5.146253E-1	5.364976E-1	5.375803E-1	4.599705E-1	4.830851E-1	4.298901E-1	4.710737E-1	4.512529E-1	4.953567E-1	4.664388E-1	4.254345E-1	4.218675E-1	4.884085E-1	4.788656E-1	4.830727E-1	4.245811E-1	5.042856E-1	4.752238E-1	4.594783E-1	4.388351E-1	4.732919E-1	4.958682E-1	4.851260E-1	4.643158E-1	4.379051E-1	4.330848E-1	4.414795E-1	4.633521E-1	4.188585E-1	3.845432E-1	4.601941E-1	4.605248E-1	4.871099E-1	4.458110E-1	4.495055E-1	4.892442E-1	4.889707E-1	4.241351E-1	4.685885E-1	4.741530E-1	4.952388E-1	4.289829E-1	5.062750E-1	4.704785E-1	4.713531E-1	4.747614E-1	4.542827E-1	4.193993E-1	4.858886E-1	4.673509E-1	4.419182E-1	4.848646E-1	4.863377E-1	4.232980E-1	4.221271E-1	4.317024E-1	4.508273E-1	4.229321E-1	4.150339E-1	4.584412E-1	4.947221E-1	4.034542E-1	5.130828E-1	3.959452E-1	4.428076E-1	4.014086E-1	4.759411E-1	4.649992E-1	4.642644E-1	4.872223E-1	4.560898E-1	4.134193E-1	4.790243E-1	5.667270E-1	4.915357E-1	4.876482E-1	4.871408E-1	4.907852E-1	4.778666E-1	4.270492E-1	4.438909E-1	4.858884E-1	4.926512E-1	4.851433E-1	3.929354E-1	3.980597E-1	4.358038E-1	4.775380E-1	5.107093E-1	4.436677E-1	4.660896E-1	4.896438E-1	4.603366E-1	5.328085E-1	4.658006E-1	4.851861E-1	4.211621E-1	4.616704E-1	4.379018E-1	4.409793E-1	4.468978E-1	4.911135E-1	4.768323E-1	4.566288E-1	4.878505E-1	4.344750E-1	4.053524E-1	4.069027E-1	4.879330E-1	4.785565E-1	4.552304E-1	4.577957E-1	4.598677E-1	4.779041E-1	4.843170E-1	5.061554E-1	4.568700E-1	4.349890E-1	4.233168E-1	5.101457E-1	4.061014E-1	4.971279E-1	5.277363E-1	5.312154E-1	5.267360E-1	4.581094E-1	4.863479E-1	4.844824E-1	4.541289E-1	4.828440E-1	4.536089E-1	4.455188E-1	4.569948E-1	4.691713E-1	4.900999E-1	5.234141E-1	4.561377E-1	4.700647E-1	4.807808E-1	4.181209E-1	5.128102E-1	4.525042E-1	4.588985E-1	4.366149E-1	4.816577E-1	4.260058E-1	4.633967E-1	4.735783E-1	4.618069E-1	5.108020E-1	5.015351E-1	5.026044E-1	4.662735E-1	4.527535E-1
2.860040E+2	8.318929E-1	8.785340E-1	8.123346E-1	8.624854E-1	8.759866E-1	8.309909E-1	8.388071E-1	8.045675E-1	8.186161E-1	8.265701E-1	8.371181E-1	7.835663E-1	8.562188E-1	8.691490E-1	7.835362E-1	7.690957E-1	8.136401E-1	7.713241E-1	8.649892E-1	7.912976E-1	7.820629E-1	8.262375E-1	8.593471E-1	8.534303E-1	8.010292E-1	8.628347E-1	8.215385E-1	7.786173E-1	7.497646E-1	8.045602E-1	8.448756E-1	8.066571E-1	7.832188E-1	8.826568E-1	8.229620E-1	8.064921E-1	7.902163E-1	8.569805E-1	7.669160E-1	7.751302E-1	7.956915E-1	8.589869E-1	7.481215E-1	8.620677E-1	8.503632E-1	8.561207E-1	7.873045E-1	7.712519E-1	8.577035E-1	7.537839E-1	8.638859E-1	7.442686E-1	8.752184E-1	8.348952E-1	7.692723E-1	8.755341E-1	7.718055E-1	7.635935E-1	8.467343E-1	8.240017E-1	8.152080E-1	7.942140E-1	8.610876E-1	8.819099E-1	7.945350E-1	7.752890E-1	8.415356E-1	9.173014E-1	8.250367E-1	8.021368E-1	8.154330E-1	7.845101E-1	8.098967E-1	8.558858E-1	7.932170E-1	7.777031E-1	9.108948E-1	7.978344E-1	7.961495E-1	8.520264E-1	8.438138E-1	8.164736E-1	8.440897E-1	8.308802E-1	7.882953E-1	7.611698E-1	7.554457E-1	8.834225E-1	8.167403E-1	8.022465E-1	8.655350E-1	7.975947E-1	8.069261E-1	7.913382E-1	8.297913E-1	7.976176E-1	8.062320E-1	8.360703E-1	7.341130E-1	7.553265E-1	8.041160E-1	8.454932E-1	7.910948E-1	8.194113E-1	8.229950E-1	7.740742E-1	8.705028E-1	8.446921E-1	7.683071E-1	7.776141E-1	8.772084E-1	8.419584E-1	8.095273E-1	9.103586E-1	9.416401E-1	8.688794E-1	8.170558E-1	7.974611E-1	8.156411E-1	8.481107E-1	8.304333E-1	8.663887E-1	8.778298E-1	8.140297E-1	8.010285E-1	8.325995E-1	7.922780E-1	8.271847E-1	9.106994E-1	8.076787E-1	7.828481E-1	7.809144E-1	8.199930E-1	8.442731E-1	7.213956E-1	8.323034E-1	8.769797E-1	8.290344E-1	7.753169E-1	8.675290E-1	8.231149E-1	8.528681E-1	7.803385E-1	8.268632E-1	8.242181E-1	7.949324E-1	7.682654E-1	7.974215E-1	7.413868E-1	8.270589E-1	7.844805E-1	8.651287E-1	8.377759E-1	8.902453E-1	8.297097E-1	9.175382E-1	7.054376E-1	8.126813E-1	7.989773E-1	8.212317E-1	8.366026E-1	8.071030E-1	8.558695E-1	8.612240E-1	8.905770E-1	8.013637E-1	7.679430E-1	8.330196E-1	8.686274E-1	8.372453E-1	9.269559E-1
2.862020E+2	1.100097E+0	1.225847E+0	1.265259E+0	1.306550E+0	1.147198E+0	1.178407E+0	1.245043E+0	1.227861E+0	1.205874E+0	1.222099E+0	1.234817E+0	1.251301E+0	1.244014E+0	1.304346E+0	1.186587E+0	1.284714E+0	1.189701E+0	1.238939E+0	1.217728E+0	1.238267E+0	1.231596E+0	1.254931E+0	1.310271E+0	1.247183E+0	1.207970E+0	1.354706E+0	1.255482E+0	1.065087E+0	1.203310E+0	1.205471E+0	1.178108E+0	1.185051E+0	1.139398E+0	1.205196E+0	1.280434E+0	1.239076E+0	1.146023E+0	1.232099E+0	1.250098E+0	1.217350E+0	1.266411E+0	1.268330E+0	1.271300E+0	1.235917E+0	1.190309E+0	1.278675E+0	1.137630E+0	1.184656E+0	1.253020E+0	1.368410E+0	1.359501E+0	1.220189E+0	1.189049E+0	1.122516E+0	1.184021E+0	1.233090E+0	1.257839E+0	1.291632E+0	1.244629E+0	1.231661E+0	1.255955E+0	1.185668E+0	1.185790E+0	1.242930E+0	1.156836E+0	1.260193E+0	1.248478E+0	1.229639E+0	1.144036E+0	1.203260E+0	1.258100E+0	1.174904E+0	1.209552E+0	1.233190E+0	1.144719E+0	1.251771E+0	1.240005E+0	1.204491E+0	1.134751E+0	1.237246E+0	1.130452E+0	1.114652E+0	1.271311E+0	1.147233E+0	1.255768E+0	1.252201E+0	1.211239E+0	1.300740E+0	1.267800E+0	1.276562E+0	1.297525E+0	1.244296E+0	1.229758E+0	1.240651E+0	1.177328E+0	1.261826E+0	1.120460E+0	1.310859E+0	1.271983E+0	1.173582E+0	1.241467E+0	1.184673E+0	1.178335E+0	1.270687E+0	1.179391E+0	1.245530E+0	1.292641E+0	1.178060E+0	1.172738E+0	1.218798E+0	1.248813E+0	1.305424E+0	1.197814E+0	1.176105E+0	1.233507E+0	1.144877E+0	1.280302E+0	1.194651E+0	1.231265E+0	1.182144E+0	1.198697E+0	1.170949E+0	1.282053E+0	1.281922E+0	1.252236E+0	1.218227E+0	1.256261E+0	1.180936E+0	1.157115E+0	1.289592E+0	1.191673E+0	1.172476E+0	1.127697E+0	1.274742E+0	1.206894E+0	1.345597E+0	1.299260E+0	1.192889E+0	1.237518E+0	1.233749E+0	1.248715E+0	1.276888E+0	1.199192E+0	1.187197E+0	1.299311E+0	1.236363E+0	1.232781E+0	1.225102E+0	1.238474E+0	1.216864E+0	1.202125E+0	1.179891E+0	1.235729E+0	1.215444E+0	1.193992E+0	1.151898E+0	1.233284E+0	1.210863E+0	1.167881E+0	1.259333E+0	1.162116E+0	1.329469E+0	1.220973E+0	1.173982E+0	1.363435E+0	1.113158E+0	1.208095E+0	1.201666E+0	1.164136E+0	1.235280E+0	1.223615E+0
2.864060E+2	9.950170E-1	1.123325E+0	1.142368E+0	1.117963E+0	1.090544E+0	1.097652E+0	1.119182E+0	1.070552E+0	1.071163E+0	1.086704E+0	1.108630E+0	1.080932E+0	1.115962E+0	1.091589E+0	1.059941E+0	1.149483E+0	1.100301E+0	1.040370E+0	1.148940E+0	1.118451E+0	1.085909E+0	1.048677E+0	1.036655E+0	1.147604E+0	1.141868E+0	1.051950E+0	1.063872E+0	1.045411E+0	1.036247E+0	1.101691E+0	1.106820E+0	1.148376E+0	1.090887E+0	1.154844E+0	1.122769E+0	1.085507E+0	1.063722E+0	1.069859E+0	1.133316E+0	1.123229E+0	1.149397E+0	1.094635E+0	1.116799E+0	1.051101E+0	1.110111E+0	1.161293E+0	1.034808E+0	1.052606E+0	1.142136E+0	1.119337E+0	1.120333E+0	1.055721E+0	1.159025E+0	1.149722E+0	1.057067E+0	1.140918E+0	1.137421E+0	1.062602E+0	1.072184E+0	1.020635E+0	1.207853E+0	1.020825E+0	1.104791E+0	1.167030E+0	1.090101E+0	1.122487E+0	1.115574E+0	1.055451E+0	1.055364E+0	1.123963E+0	1.000104E+0	1.014177E+0	1.071521E+0	1.173651E+0	1.077028E+0	1.141833E+0	1.088577E+0	1.120736E+0	1.103182E+0	1.067111E+0	1.125368E+0	1.129554E+0	1.078409E+0	1.141420E+0	1.108927E+0	1.173956E+0	1.019603E+0	1.149307E+0	1.072642E+0	1.066260E+0	1.072466E+0	1.154119E+0	1.100240E+0	1.080467E+0	1.156870E+0	1.058207E+0	1.053706E+0	1.151195E+0	1.134908E+0	1.123960E+0	1.127039E+0	1.047046E+0	1.018834E+0	1.089198E+0	1.063337E+0	1.022370E+0	1.086012E+0	1.064428E+0	1.077852E+0	1.095955E+0	1.100094E+0	1.089072E+0	1.081472E+0	1.093316E+0	1.072833E+0	1.171086E+0	1.088048E+0	1.079332E+0	1.070428E+0	1.096647E+0	1.105341E+0	1.102470E+0	1.018437E+0	1.079738E+0	1.063825E+0	1.119288E+0	1.038722E+0	1.096377E+0	1.152926E+0	1.157501E+0	1.065565E+0	1.081930E+0	9.770615E-1	1.148589E+0	1.062408E+0	1.047494E+0	1.086683E+0	1.225168E+0	1.035316E+0	1.091361E+0	1.123459E+0	1.030392E+0	1.068571E+0	1.128621E+0	1.103085E+0	1.007775E+0	1.112988E+0	1.172375E+0	9.889671E-1	1.119359E+0	1.106309E+0	1.064881E+0	1.106114E+0	9.947033E-1	1.072610E+0	1.074394E+0	1.037002E+0	1.088757E+0	1.067170E+0	1.145592E+0	1.066809E+0	1.126797E+0	1.041450E+0	1.161584E+0	1.131745E+0	1.039586E+0	1.086750E+0	1.009674E+0	1.131540E+0	1.019791E+0	1.304955E+0
2.866050E+2	1.428109E+0	1.435155E+0	1.469571E+0	1.402392E+0	1.449028E+0	1.421847E+0	1.387306E+0	1.295132E+0	1.535314E+0	1.445317E+0	1.415054E+0	1.411730E+0	1.454861E+0	1.446161E+0	1.367515E+0	1.434331E+0	1.459995E+0	1.418046E+0	1.454515E+0	1.374135E+0	1.503561E+0	1.441382E+0	1.387392E+0	1.390216E+0	1.465850E+0	1.424643E+0	1.473371E+0	1.364018E+0	1.370890E+0	1.438321E+0	1.408498E+0	1.457894E+0	1.411459E+0	1.414273E+0	1.457728E+0	1.357796E+0	1.333173E+0	1.425596E+0	1.490685E+0	1.433967E+0	1.415396E+0	1.373636E+0	1.493817E+0	1.373156E+0	1.405568E+0	1.439393E+0	1.404557E+0	1.429203E+0	1.393168E+0	1.401649E+0	1.432062E+0	1.394918E+0	1.500808E+0	1.314467E+0	1.335603E+0	1.452270E+0	1.542646E+0	1.333777E+0	1.314813E+0	1.457267E+0	1.441399E+0	1.373367E+0	1.391964E+0	1.388772E+0	1.329627E+0	1.323108E+0	1.413134E+0	1.435250E+0	1.459582E+0	1.529395E+0	1.396233E+0	1.393275E+0	1.400928E+0	1.389446E+0	1.368446E+0	1.388255E+0	1.407341E+0	1.301381E+0	1.402172E+0	1.514047E+0	1.346852E+0	1.359772E+0	1.323055E+0	1.344630E+0	1.386435E+0	1.406232E+0	1.329795E+0	1.451683E+0	1.416227E+0	1.451266E+0	1.331514E+0	1.434466E+0	1.442760E+0	1.394609E+0	1.392678E+0	1.411386E+0	1.380471E+0	1.489499E+0	1.417082E+0	1.315258E+0	1.468934E+0	1.482539E+0	1.312800E+0	1.372454E+0	1.413221E+0	1.296197E+0	1.473910E+0	1.460424E+0	1.401808E+0	1.502438E+0	1.412555E+0	1.394949E+0	1.339486E+0	1.332495E+0	1.412370E+0	1.429755E+0	1.317382E+0	1.384025E+0	1.492273E+0	1.452554E+0	1.373953E+0	1.376542E+0	1.413282E+0	1.421250E+0	1.337263E+0	1.327320E+0	1.376282E+0	1.392212E+0	1.383843E+0	1.565188E+0	1.401426E+0	1.347441E+0	1.406763E+0	1.433457E+0	1.329683E+0	1.521144E+0	1.409524E+0	1.431446E+0	1.480470E+0	1.318039E+0	1.466186E+0	1.425396E+0	1.339746E+0	1.327690E+0	1.431913E+0	1.426744E+0	1.489530E+0	1.279160E+0	1.403957E+0	1.436147E+0	1.461695E+0	1.358566E+0	1.483680E+0	1.372348E+0	1.450439E+0	1.412484E+0	1.359388E+0	1.474826E+0	1.330089E+0	1.442473E+0	1.317303E+0	1.433146E+0	1.339961E+0	1.357730E+0	1.520284E+0	1.378835E+0	1.287574E+0	1.363134E+0	1.354477E+0	1.495531E+0	1.361138E+0
2.868020E+2	1.821464E+0	1.770107E+0	1.906674E+0	1.751941E+0	1.871033E+0	1.811858E+0	1.778767E+0	1.851441E+0	1.840987E+0	1.763408E+0	1.876811E+0	1.792825E+0	1.791091E+0	1.935330E+0	1.760489E+0	1.766479E+0	1.919182E+0	1.815666E+0	1.829071E+0	1.859749E+0	1.777089E+0	1.801525E+0	1.819897E+0	1.810000E+0	1.825507E+0	1.949617E+0	1.847785E+0	1.765667E+0	1.816772E+0	1.889786E+0	1.860009E+0	1.772927E+0	1.759018E+0	1.842862E+0	1.849234E+0	1.797198E+0	1.799714E+0	1.868009E+0	1.812488E+0	1.777895E+0	1.809795E+0	1.758280E+0	1.778703E+0	1.772481E+0	1.952624E+0	1.874604E+0	1.827889E+0	1.829427E+0	1.850410E+0	1.844500E+0	2.023592E+0	1.909581E+0	1.758953E+0	1.791985E+0	1.696441E+0	1.872187E+0	1.890966E+0	1.715379E+0	1.820114E+0	1.702696E+0	1.895777E+0	1.759227E+0	1.830467E+0	1.784456E+0	1.731916E+0	1.752990E+0	1.886595E+0	1.814395E+0	1.865973E+0	1.858525E+0	1.793607E+0	1.742744E+0	1.818736E+0	1.783794E+0	1.809317E+0	1.804233E+0	1.956519E+0	1.812778E+0	1.790470E+0	1.970347E+0	1.774327E+0	1.838245E+0	1.765145E+0	1.886939E+0	1.819931E+0	1.822350E+0	1.908124E+0	1.828094E+0	1.905255E+0	1.876331E+0	1.841000E+0	1.876686E+0	1.792772E+0	1.733139E+0	1.845138E+0	1.895549E+0	1.741718E+0	1.777090E+0	1.830868E+0	1.877340E+0	1.783608E+0	1.769012E+0	1.702914E+0	1.878572E+0	1.895061E+0	1.857541E+0	1.691263E+0	1.891892E+0	1.755427E+0	1.918581E+0	1.823406E+0	1.797086E+0	1.761079E+0	1.724946E+0	1.779036E+0	1.772418E+0	1.857756E+0	1.751446E+0	1.962751E+0	1.842696E+0	1.822482E+0	1.825997E+0	1.840233E+0	1.907442E+0	1.915126E+0	1.886703E+0	1.798227E+0	1.840754E+0	1.786645E+0	1.828553E+0	1.821845E+0	1.703253E+0	1.860304E+0	1.853231E+0	1.841392E+0	1.827558E+0	1.797667E+0	1.829573E+0	1.921924E+0	1.850226E+0	1.741469E+0	1.865635E+0	1.755915E+0	1.834609E+0	1.851179E+0	1.875658E+0	1.858900E+0	1.648452E+0	1.771695E+0	1.717718E+0	1.827310E+0	1.797310E+0	1.919701E+0	1.791540E+0	1.751968E+0	1.926917E+0	1.767762E+0	1.825897E+0	1.804480E+0	1.786778E+0	1.691020E+0	1.780034E+0	1.680996E+0	1.940973E+0	1.920464E+0	1.742242E+0	1.749937E+0	1.762370E+0	1.918154E+0	1.739766E+0	1.803627E+0
2.870010E+2	1.521084E+0	1.608401E+0	1.613340E+0	1.538766E+0	1.607241E+0	1.524438E+0	1.572919E+0	1.448730E+0	1.545845E+0	1.509317E+0	1.627267E+0	1.596443E+0	1.632163E+0	1.521601E+0	1.453827E+0	1.534720E+0	1.612770E+0	1.612241E+0	1.602412E+0	1.579171E+0	1.592622E+0	1.534512E+0	1.566771E+0	1.601344E+0	1.542885E+0	1.493190E+0	1.599869E+0	1.488277E+0	1.494564E+0	1.681274E+0	1.456906E+0	1.540786E+0	1.505971E+0	1.597021E+0	1.558154E+0	1.647686E+0	1.533357E+0	1.613006E+0	1.607812E+0	1.566833E+0	1.514786E+0	1.510609E+0	1.517174E+0	1.498838E+0	1.580632E+0	1.555399E+0	1.457509E+0	1.442425E+0	1.550100E+0	1.506781E+0	1.604385E+0	1.560439E+0	1.505441E+0	1.495289E+0	1.478566E+0	1.665645E+0	1.665770E+0	1.566185E+0	1.556601E+0	1.578203E+0	1.542792E+0	1.536515E+0	1.670993E+0	1.528712E+0	1.566168E+0	1.610389E+0	1.664552E+0	1.520266E+0	1.539039E+0	1.525580E+0	1.569462E+0	1.421902E+0	1.549347E+0	1.541148E+0	1.573006E+0	1.532057E+0	1.597567E+0	1.627016E+0	1.557725E+0	1.631654E+0	1.562091E+0	1.610288E+0	1.528896E+0	1.515487E+0	1.555923E+0	1.514199E+0	1.406820E+0	1.574251E+0	1.579990E+0	1.490836E+0	1.536412E+0	1.571525E+0	1.534747E+0	1.604587E+0	1.565433E+0	1.635500E+0	1.477759E+0	1.566904E+0	1.590658E+0	1.654946E+0	1.519471E+0	1.480453E+0	1.507565E+0	1.616921E+0	1.609942E+0	1.552733E+0	1.585610E+0	1.583511E+0	1.486761E+0	1.671366E+0	1.537872E+0	1.573043E+0	1.508512E+0	1.617198E+0	1.585366E+0	1.524898E+0	1.508266E+0	1.488634E+0	1.580645E+0	1.649121E+0	1.509253E+0	1.536815E+0	1.518023E+0	1.577611E+0	1.538472E+0	1.550142E+0	1.493145E+0	1.516575E+0	1.577094E+0	1.502122E+0	1.549859E+0	1.517564E+0	1.542687E+0	1.596071E+0	1.473012E+0	1.504030E+0	1.525483E+0	1.614223E+0	1.614667E+0	1.599375E+0	1.578341E+0	1.529813E+0	1.509630E+0	1.512311E+0	1.506009E+0	1.612445E+0	1.550351E+0	1.489974E+0	1.559940E+0	1.563445E+0	1.550335E+0	1.684998E+0	1.538290E+0	1.524684E+0	1.482532E+0	1.559100E+0	1.512072E+0	1.504339E+0	1.530005E+0	1.560895E+0	1.478745E+0	1.507720E+0	1.522631E+0	1.643593E+0	1.615222E+0	1.457517E+0	1.503062E+0	1.575488E+0	1.551090E+0	1.471139E+0	1.740991E+0
2.872050E+2	1.077063E+0	1.197927E+0	1.240571E+0	1.183945E+0	1.116729E+0	1.252892E+0	1.191996E+0	1.209732E+0	1.168483E+0	1.215570E+0	1.188126E+0	1.176914E+0	1.201024E+0	1.113476E+0	1.114569E+0	1.143931E+0	1.250638E+0	1.152216E+0	1.209009E+0	1.133530E+0	1.124307E+0	1.130941E+0	1.118166E+0	1.151111E+0	1.209289E+0	1.252662E+0	1.176898E+0	1.164481E+0	1.095048E+0	1.233268E+0	1.233766E+0	1.186316E+0	1.181319E+0	1.140573E+0	1.181247E+0	1.256490E+0	1.224260E+0	1.283057E+0	1.212805E+0	1.237916E+0	1.131781E+0	1.262392E+0	1.188831E+0	1.231465E+0	1.133001E+0	1.227434E+0	1.275142E+0	1.217810E+0	1.149815E+0	1.213777E+0	1.246000E+0	1.171242E+0	1.142914E+0	1.215567E+0	1.132315E+0	1.240483E+0	1.191842E+0	1.233083E+0	1.184627E+0	1.131503E+0	1.358075E+0	1.217674E+0	1.262243E+0	1.216713E+0	1.197339E+0	1.216785E+0	1.214276E+0	1.136299E+0	1.200485E+0	1.278707E+0	1.161198E+0	1.156204E+0	1.176313E+0	1.243453E+0	1.168887E+0	1.182295E+0	1.204660E+0	1.173895E+0	1.209776E+0	1.192193E+0	1.188781E+0	1.137668E+0	1.141935E+0	1.135256E+0	1.264031E+0	1.222151E+0	1.201932E+0	1.167481E+0	1.268940E+0	1.202365E+0	1.182648E+0	1.245144E+0	1.165280E+0	1.215260E+0	1.162392E+0	1.215827E+0	1.109835E+0	1.207536E+0	1.353714E+0	1.178499E+0	1.199946E+0	1.092006E+0	1.144429E+0	1.172333E+0	1.171363E+0	1.192861E+0	1.228956E+0	1.241331E+0	1.168425E+0	1.215005E+0	1.201968E+0	1.191158E+0	1.135829E+0	1.223254E+0	1.279948E+0	1.247945E+0	1.252750E+0	1.202274E+0	1.131067E+0	1.174843E+0	1.151773E+0	1.270180E+0	1.195678E+0	1.118893E+0	1.192108E+0	1.172501E+0	1.241158E+0	1.222531E+0	1.171182E+0	1.206865E+0	1.153358E+0	1.255313E+0	1.203025E+0	1.167824E+0	1.169499E+0	1.138531E+0	1.195554E+0	1.185988E+0	1.152660E+0	1.195906E+0	1.162372E+0	1.220531E+0	1.280799E+0	1.183869E+0	1.344193E+0	1.126805E+0	1.200838E+0	1.116965E+0	1.153045E+0	1.172610E+0	1.149869E+0	1.233621E+0	1.328986E+0	1.243445E+0	1.149572E+0	1.238465E+0	1.118283E+0	1.180569E+0	1.136759E+0	1.224816E+0	1.145573E+0	1.174710E+0	1.090735E+0	1.249153E+0	1.255033E+0	1.153647E+0	1.221627E+0	1.240314E+0	1.072403E+0	1.219335E+0	1.242651E+0
2.874030E+2	7.983630E-1	7.974244E-1	7.932296E-1	8.227700E-1	8.103017E-1	8.001333E-1	8.309999E-1	8.838777E-1	8.167843E-1	8.638020E-1	8.605271E-1	7.884756E-1	8.560921E-1	8.624850E-1	8.428968E-1	8.094058E-1	8.346741E-1	8.382808E-1	8.340510E-1	8.055039E-1	8.192571E-1	8.181155E-1	8.599281E-1	8.507446E-1	8.192559E-1	8.942043E-1	7.877607E-1	8.119429E-1	8.467131E-1	8.340931E-1	8.181128E-1	7.913673E-1	8.035455E-1	7.399363E-1	7.548686E-1	7.706136E-1	8.658101E-1	8.864771E-1	8.214315E-1	8.185148E-1	8.017976E-1	7.667543E-1	7.889408E-1	7.351375E-1	8.532254E-1	8.471079E-1	7.773407E-1	8.252439E-1	9.303775E-1	8.138460E-1	8.750348E-1	7.763109E-1	8.449642E-1	8.479878E-1	8.176294E-1	8.215526E-1	8.714928E-1	8.433304E-1	8.433964E-1	8.331454E-1	8.090434E-1	8.087372E-1	8.761803E-1	8.235483E-1	8.424024E-1	8.261018E-1	7.927950E-1	8.548786E-1	8.681102E-1	8.382412E-1	8.486793E-1	7.564571E-1	7.939321E-1	8.643685E-1	8.719847E-1	7.929492E-1	8.053292E-1	8.812486E-1	8.819406E-1	8.717399E-1	7.782987E-1	7.854640E-1	8.317943E-1	7.655893E-1	8.198105E-1	8.400119E-1	8.389459E-1	8.288189E-1	8.464261E-1	8.213369E-1	8.452925E-1	8.836241E-1	8.837429E-1	7.056948E-1	7.874061E-1	8.232725E-1	8.206210E-1	8.139993E-1	9.342775E-1	9.048052E-1	8.249026E-1	8.141467E-1	8.232876E-1	7.507099E-1	8.277081E-1	8.667896E-1	8.409274E-1	8.245948E-1	7.504606E-1	8.993413E-1	8.655431E-1	7.861844E-1	8.439401E-1	8.363687E-1	8.248409E-1	9.003596E-1	7.957099E-1	8.687154E-1	8.691445E-1	8.376502E-1	8.497089E-1	7.949903E-1	8.110980E-1	8.632796E-1	8.023948E-1	8.945262E-1	8.179348E-1	7.842371E-1	8.575182E-1	7.649909E-1	8.244157E-1	7.889148E-1	8.005412E-1	8.346794E-1	8.399513E-1	7.696221E-1	8.633652E-1	9.149141E-1	8.477915E-1	8.091054E-1	8.449311E-1	7.843580E-1	8.130332E-1	8.667800E-1	8.135854E-1	7.543322E-1	8.966039E-1	7.541682E-1	8.423405E-1	8.270915E-1	7.699285E-1	8.122762E-1	8.695882E-1	8.371645E-1	8.305141E-1	8.586745E-1	7.947002E-1	7.969851E-1	8.114387E-1	7.751797E-1	8.029053E-1	8.121858E-1	7.713127E-1	8.103873E-1	9.670515E-1	8.420605E-1	8.167271E-1	7.812794E-1	8.704562E-1	8.925222E-1	8.173500E-1
2.876020E+2	6.249856E-1	6.819027E-1	6.725179E-1	6.727449E-1	5.753378E-1	6.388072E-1	7.017278E-1	6.203723E-1	6.240703E-1	6.571244E-1	6.512398E-1	6.091214E-1	6.629860E-1	6.369043E-1	6.290332E-1	6.404684E-1	6.470309E-1	6.366123E-1	7.345822E-1	7.008482E-1	7.061765E-1	6.571314E-1	6.921088E-1	6.305162E-1	6.417236E-1	6.399148E-1	6.426039E-1	6.274073E-1	6.225222E-1	6.703952E-1	7.183587E-1	6.509914E-1	6.642455E-1	5.891489E-1	7.076897E-1	5.892081E-1	6.613929E-1	6.572272E-1	6.519907E-1	6.679386E-1	6.148408E-1	6.410547E-1	6.880873E-1	6.588325E-1	6.487172E-1	6.629767E-1	6.588362E-1	6.306880E-1	6.906451E-1	6.484438E-1	7.143334E-1	6.698149E-1	6.641627E-1	6.521219E-1	6.181031E-1	6.672324E-1	6.659371E-1	7.030399E-1	6.379166E-1	6.693916E-1	6.338821E-1	6.214194E-1	6.619877E-1	6.748963E-1	6.899393E-1	6.885369E-1	6.440746E-1	6.106103E-1	6.578365E-1	7.102743E-1	6.457126E-1	6.110683E-1	7.023058E-1	6.424806E-1	6.563420E-1	6.937372E-1	6.789974E-1	6.494885E-1	7.015787E-1	7.273194E-1	7.050498E-1	6.753824E-1	5.913699E-1	6.880472E-1	6.494769E-1	6.494028E-1	6.367725E-1	6.404472E-1	6.661546E-1	6.893100E-1	6.857966E-1	6.572853E-1	6.509245E-1	6.660706E-1	6.723428E-1	6.611103E-1	6.518128E-1	6.170417E-1	7.274733E-1	6.571924E-1	6.758140E-1	6.738739E-1	6.751037E-1	6.825484E-1	6.750080E-1	6.739919E-1	6.901891E-1	6.744444E-1	5.745197E-1	7.352941E-1	6.531926E-1	6.378737E-1	6.654323E-1	5.850726E-1	6.068315E-1	6.387278E-1	6.725322E-1	6.575132E-1	6.512396E-1	6.865323E-1	6.353310E-1	6.330142E-1	6.951392E-1	6.793557E-1	6.633332E-1	7.081905E-1	6.543031E-1	7.074602E-1	7.194799E-1	7.136710E-1	6.598724E-1	6.288083E-1	6.867646E-1	6.409828E-1	6.734714E-1	6.428376E-1	6.640834E-1	6.896161E-1	6.477095E-1	7.223592E-1	6.520621E-1	5.982610E-1	7.060046E-1	6.996506E-1	6.902389E-1	6.785371E-1	6.081226E-1	6.747322E-1	6.886442E-1	6.308806E-1	5.862667E-1	6.232400E-1	5.907503E-1	6.244281E-1	6.862216E-1	6.763328E-1	6.996145E-1	6.611109E-1	6.404985E-1	6.446653E-1	6.894320E-1	6.894744E-1	6.221310E-1	6.624956E-1	6.612344E-1	6.588570E-1	6.215667E-1	6.137946E-1	6.757432E-1	7.709747E-1	5.165792E-1
2.878020E+2	6.540071E-1	6.543275E-1	6.818832E-1	6.736575E-1	6.866088E-1	6.185576E-1	6.295215E-1	5.675666E-1	6.553784E-1	6.738602E-1	6.424808E-1	6.052132E-1	6.546313E-1	6.643634E-1	6.301976E-1	7.137735E-1	7.115043E-1	6.967933E-1	6.324116E-1	6.130138E-1	6.157240E-1	6.524835E-1	6.612041E-1	6.558586E-1	6.689105E-1	5.970154E-1	6.214400E-1	6.102863E-1	6.280448E-1	6.018573E-1	6.179245E-1	5.933408E-1	6.326965E-1	6.040351E-1	6.737809E-1	6.091083E-1	6.390961E-1	6.165224E-1	6.378974E-1	6.808727E-1	6.419787E-1	6.761116E-1	6.399702E-1	6.197651E-1	6.372182E-1	6.615214E-1	6.809992E-1	6.570580E-1	6.516924E-1	6.433570E-1	6.857797E-1	6.691541E-1	6.551017E-1	7.020137E-1	5.676119E-1	6.273052E-1	5.878417E-1	6.478378E-1	5.785004E-1	6.659903E-1	6.316556E-1	5.942989E-1	7.323471E-1	6.954158E-1	6.579668E-1	6.475474E-1	6.381473E-1	6.371296E-1	6.605936E-1	6.276173E-1	6.117039E-1	5.931002E-1	6.812049E-1	6.342146E-1	6.453821E-1	6.052054E-1	6.679205E-1	6.196650E-1	5.950904E-1	6.392157E-1	6.077084E-1	6.737006E-1	6.725400E-1	6.735709E-1	5.809286E-1	6.791380E-1	6.059254E-1	6.551377E-1	6.820581E-1	6.211264E-1	6.333894E-1	6.578988E-1	6.607388E-1	6.593643E-1	7.304497E-1	6.721120E-1	6.621734E-1	6.648201E-1	6.646788E-1	6.970929E-1	6.943058E-1	6.523503E-1	6.224303E-1	6.995957E-1	6.760045E-1	6.748860E-1	6.160960E-1	6.270420E-1	6.028471E-1	6.190942E-1	6.768350E-1	7.032322E-1	6.565374E-1	6.383080E-1	6.478364E-1	6.298659E-1	6.489359E-1	6.441344E-1	7.171046E-1	6.371577E-1	6.296594E-1	6.357507E-1	6.796635E-1	6.200544E-1	6.846036E-1	6.953366E-1	6.045516E-1	6.326503E-1	6.449879E-1	6.206066E-1	6.642869E-1	6.906227E-1	6.605712E-1	6.437248E-1	6.284926E-1	6.441185E-1	6.717727E-1	6.209601E-1	6.052753E-1	7.220261E-1	6.484903E-1	6.794196E-1	6.239026E-1	6.245430E-1	6.763087E-1	6.144361E-1	6.720750E-1	5.992483E-1	6.598871E-1	6.475437E-1	6.666452E-1	7.341157E-1	5.788101E-1	7.293755E-1	5.873983E-1	6.658652E-1	6.495915E-1	6.155101E-1	6.595271E-1	6.526678E-1	6.672641E-1	6.620781E-1	6.361068E-1	6.140473E-1	6.894747E-1	6.265308E-1	6.895579E-1	6.533813E-1	6.794443E-1	6.567998E-1	6.338882E-1
2.880040E+2	6.951418E-1	6.188811E-1	6.511177E-1	6.116089E-1	6.706988E-1	6.601926E-1	6.763422E-1	6.221970E-1	6.454236E-1	6.921584E-1	6.379022E-1	6.716778E-1	6.792499E-1	6.933780E-1	6.115957E-1	6.491375E-1	6.112575E-1	6.563598E-1	6.944905E-1	6.414601E-1	6.262080E-1	6.228395E-1	6.432283E-1	6.376934E-1	6.873099E-1	6.862762E-1	6.529309E-1	6.437228E-1	6.409511E-1	7.430407E-1	6.137218E-1	5.963230E-1	6.185456E-1	6.318104E-1	6.514466E-1	6.476805E-1	6.066585E-1	6.389370E-1	6.364327E-1	6.621171E-1	6.233798E-1	6.742669E-1	6.036461E-1	5.997822E-1	6.573489E-1	6.372741E-1	6.615426E-1	6.659749E-1	6.799445E-1	6.464377E-1	7.071532E-1	6.892889E-1	7.236479E-1	6.042196E-1	6.277726E-1	6.428220E-1	6.215796E-1	6.672842E-1	6.703197E-1	5.994775E-1	7.056484E-1	6.744767E-1	7.200731E-1	6.943189E-1	7.145533E-1	6.240402E-1	6.503132E-1	6.402986E-1	6.384527E-1	6.002653E-1	6.707740E-1	5.885417E-1	6.412503E-1	6.762743E-1	6.737624E-1	7.096952E-1	7.220886E-1	6.618968E-1	6.948524E-1	6.755194E-1	6.519600E-1	6.238082E-1	6.092190E-1	6.401002E-1	6.639661E-1	6.078431E-1	6.208923E-1	6.474734E-1	6.206228E-1	6.993015E-1	6.643556E-1	6.867582E-1	6.103533E-1	6.578264E-1	6.485886E-1	6.732266E-1	5.737800E-1	6.536097E-1	6.353963E-1	6.277387E-1	6.687181E-1	6.904713E-1	6.252506E-1	6.394562E-1	7.008338E-1	6.521399E-1	6.106627E-1	5.910987E-1	5.720738E-1	6.544737E-1	6.955333E-1	6.175854E-1	6.776411E-1	6.451630E-1	6.627239E-1	6.175152E-1	6.730757E-1	6.393731E-1	6.416845E-1	6.397656E-1	6.390445E-1	6.706619E-1	7.006959E-1	6.496744E-1	6.563945E-1	6.292118E-1	6.003043E-1	6.010960E-1	6.982446E-1	6.983123E-1	6.669664E-1	5.878425E-1	5.973816E-1	6.208661E-1	6.278895E-1	6.556535E-1	6.533939E-1	6.286044E-1	7.034650E-1	6.403917E-1	6.431908E-1	6.413490E-1	6.707317E-1	6.349100E-1	6.841259E-1	6.027531E-1	6.946796E-1	6.104434E-1	6.276736E-1	6.548597E-1	6.467254E-1	6.586728E-1	6.792024E-1	6.623123E-1	6.513029E-1	6.438537E-1	6.356270E-1	6.841509E-1	6.245129E-1	6.893392E-1	6.520814E-1	6.904644E-1	5.767191E-1	6.284471E-1	6.633723E-1	6.164500E-1	6.570148E-1	6.053986E-1	5.973343E-1	7.417580E-1	6.072488E-1
2.882080E+2	6.452289E-1	7.857319E-1	7.155883E-1	7.204608E-1	7.238565E-1	6.893161E-1	7.190783E-1	7.456859E-1	7.201561E-1	7.486801E-1	7.284875E-1	6.930258E-1	6.979971E-1	7.066587E-1	7.183467E-1	7.044317E-1	7.030526E-1	6.866541E-1	7.176611E-1	7.328415E-1	6.750332E-1	6.758489E-1	6.698060E-1	6.934194E-1	6.798653E-1	7.600349E-1	6.759935E-1	7.846596E-1	6.951923E-1	7.433833E-1	7.087736E-1	7.055612E-1	6.714044E-1	7.346815E-1	7.927667E-1	7.286183E-1	7.214428E-1	7.500260E-1	7.484487E-1	6.799239E-1	6.738557E-1	7.531998E-1	7.523857E-1	6.623760E-1	6.652119E-1	7.492149E-1	6.765770E-1	6.934093E-1	6.935011E-1	7.387978E-1	7.638143E-1	6.978774E-1	7.169703E-1	7.149866E-1	6.695617E-1	7.780828E-1	7.232010E-1	8.089443E-1	6.534200E-1	7.326412E-1	7.381811E-1	7.447707E-1	7.028747E-1	6.993966E-1	7.361020E-1	6.675241E-1	7.194385E-1	7.270715E-1	7.773933E-1	7.665624E-1	6.954159E-1	7.038165E-1	7.698049E-1	7.162440E-1	6.750798E-1	6.660621E-1	7.958267E-1	6.625874E-1	7.683607E-1	7.538455E-1	6.819802E-1	7.505981E-1	7.361720E-1	7.068602E-1	6.816570E-1	7.068543E-1	7.261723E-1	7.448205E-1	7.443128E-1	7.076268E-1	6.878498E-1	7.660501E-1	7.267178E-1	7.827565E-1	6.750642E-1	7.321047E-1	7.074676E-1	7.516529E-1	7.629404E-1	7.674222E-1	7.308063E-1	7.149718E-1	6.255642E-1	7.028126E-1	7.951813E-1	7.923558E-1	7.377127E-1	6.858836E-1	6.947722E-1	7.334876E-1	7.192878E-1	7.699797E-1	7.158402E-1	7.450685E-1	6.946432E-1	6.572278E-1	7.090152E-1	7.042549E-1	7.242431E-1	6.997099E-1	7.423072E-1	6.549948E-1	7.420852E-1	6.780202E-1	6.592680E-1	7.930725E-1	7.049842E-1	7.831529E-1	7.375733E-1	7.519512E-1	7.058965E-1	7.539252E-1	6.937370E-1	6.913246E-1	7.443614E-1	7.323727E-1	7.454766E-1	7.684665E-1	7.367515E-1	6.807853E-1	7.576811E-1	6.972226E-1	7.408412E-1	7.651726E-1	6.955300E-1	7.096104E-1	7.591095E-1	7.055771E-1	6.989333E-1	7.061754E-1	7.033889E-1	7.422007E-1	7.605996E-1	7.321199E-1	7.416181E-1	7.184137E-1	6.931059E-1	7.668574E-1	7.307660E-1	7.574655E-1	7.247851E-1	7.556766E-1	6.825071E-1	7.094346E-1	6.886449E-1	6.894906E-1	6.869593E-1	7.429752E-1	7.650692E-1	6.976584E-1	7.459070E-1
2.884070E+2	1.012191E+0	1.031763E+0	1.033228E+0	9.290001E-1	1.053361E+0	1.001801E+0	9.577910E-1	1.018292E+0	1.123226E+0	1.066980E+0	9.900186E-1	1.032040E+0	1.001228E+0	1.031216E+0	9.594534E-1	9.859648E-1	1.022008E+0	9.229612E-1	1.057832E+0	1.016140E+0	9.740200E-1	1.019892E+0	9.578246E-1	9.316016E-1	9.854032E-1	9.662737E-1	9.731558E-1	9.231915E-1	1.015195E+0	9.637356E-1	9.675119E-1	9.820979E-1	9.661094E-1	1.025154E+0	9.412745E-1	1.033944E+0	9.731228E-1	9.795811E-1	1.090361E+0	1.006452E+0	9.926422E-1	1.041090E+0	1.042982E+0	1.072074E+0	1.067975E+0	1.056077E+0	1.007109E+0	1.001122E+0	1.028611E+0	9.707739E-1	1.001147E+0	9.398674E-1	1.024992E+0	1.053010E+0	1.040044E+0	9.905865E-1	9.759634E-1	1.021677E+0	1.016018E+0	9.459677E-1	9.990097E-1	9.688084E-1	9.965583E-1	1.053209E+0	9.958974E-1	1.004428E+0	1.053652E+0	1.044401E+0	9.869669E-1	1.001396E+0	9.764501E-1	9.967236E-1	9.381158E-1	9.933487E-1	9.753090E-1	1.020796E+0	1.051556E+0	9.921350E-1	9.603120E-1	9.828948E-1	1.019331E+0	1.001784E+0	9.614997E-1	9.104197E-1	1.022430E+0	1.095462E+0	9.966157E-1	1.052066E+0	1.026296E+0	1.033021E+0	9.652574E-1	9.952317E-1	9.517922E-1	1.014964E+0	9.956011E-1	9.685916E-1	1.030566E+0	1.022480E+0	1.013037E+0	1.023643E+0	9.891823E-1	9.955411E-1	9.553786E-1	1.009269E+0	1.122178E+0	1.006868E+0	1.081995E+0	1.039331E+0	1.011056E+0	1.000149E+0	1.004962E+0	1.053436E+0	9.900644E-1	9.462300E-1	9.433290E-1	1.056160E+0	9.206083E-1	9.119918E-1	1.106677E+0	9.330725E-1	1.039988E+0	9.871346E-1	1.030743E+0	1.055663E+0	9.941914E-1	9.746061E-1	1.047686E+0	1.099836E+0	1.032085E+0	1.027660E+0	9.941123E-1	9.372803E-1	9.943166E-1	9.617656E-1	9.612967E-1	1.008498E+0	9.507801E-1	1.020130E+0	9.931423E-1	1.041966E+0	1.046264E+0	1.023055E+0	1.010730E+0	1.093988E+0	9.217192E-1	9.986475E-1	1.068407E+0	1.020938E+0	9.348313E-1	9.440942E-1	1.055891E+0	9.054311E-1	1.057698E+0	1.011810E+0	9.952872E-1	1.024773E+0	1.022016E+0	9.876689E-1	1.000853E+0	9.637221E-1	9.270568E-1	1.008609E+0	9.185292E-1	9.991225E-1	1.006157E+0	9.899037E-1	1.084853E+0	9.699955E-1	1.113760E+0	1.060048E+0	1.046031E+0
2.886010E+2	1.410986E+0	1.406908E+0	1.354471E+0	1.388920E+0	1.502164E+0	1.449077E+0	1.440995E+0	1.470928E+0	1.465044E+0	1.388334E+0	1.427837E+0	1.467004E+0	1.484171E+0	1.521720E+0	1.419945E+0	1.442505E+0	1.477293E+0	1.429337E+0	1.385755E+0	1.487479E+0	1.357449E+0	1.439936E+0	1.415459E+0	1.437037E+0	1.486371E+0	1.516234E+0	1.391447E+0	1.378390E+0	1.402113E+0	1.436530E+0	1.328992E+0	1.431801E+0	1.444792E+0	1.428675E+0	1.431190E+0	1.546372E+0	1.470650E+0	1.412754E+0	1.504084E+0	1.481885E+0	1.294777E+0	1.469139E+0	1.368446E+0	1.465274E+0	1.504815E+0	1.422332E+0	1.427048E+0	1.381386E+0	1.404238E+0	1.434684E+0	1.425538E+0	1.449802E+0	1.422688E+0	1.365552E+0	1.441899E+0	1.452171E+0	1.468000E+0	1.512136E+0	1.400033E+0	1.433237E+0	1.478318E+0	1.428794E+0	1.473035E+0	1.437425E+0	1.514036E+0	1.388692E+0	1.494002E+0	1.449595E+0	1.353600E+0	1.519205E+0	1.406156E+0	1.316223E+0	1.493417E+0	1.381381E+0	1.353323E+0	1.445439E+0	1.527994E+0	1.426291E+0	1.377648E+0	1.459542E+0	1.437518E+0	1.487186E+0	1.403306E+0	1.399131E+0	1.460158E+0	1.403341E+0	1.345823E+0	1.450935E+0	1.471750E+0	1.481014E+0	1.412235E+0	1.541704E+0	1.407336E+0	1.398810E+0	1.409448E+0	1.419862E+0	1.349369E+0	1.444102E+0	1.491248E+0	1.486875E+0	1.471654E+0	1.374165E+0	1.466216E+0	1.406817E+0	1.367742E+0	1.449786E+0	1.464868E+0	1.405764E+0	1.357042E+0	1.432425E+0	1.440742E+0	1.377712E+0	1.425310E+0	1.489765E+0	1.388906E+0	1.477395E+0	1.428991E+0	1.367293E+0	1.464718E+0	1.465415E+0	1.453910E+0	1.402064E+0	1.548076E+0	1.474347E+0	1.460617E+0	1.462058E+0	1.475157E+0	1.517238E+0	1.402687E+0	1.484235E+0	1.445815E+0	1.478255E+0	1.434625E+0	1.404416E+0	1.458511E+0	1.481240E+0	1.339763E+0	1.505653E+0	1.434394E+0	1.508713E+0	1.415071E+0	1.437901E+0	1.452800E+0	1.406378E+0	1.520452E+0	1.318498E+0	1.389491E+0	1.399905E+0	1.516076E+0	1.440638E+0	1.446790E+0	1.428452E+0	1.397396E+0	1.458972E+0	1.443743E+0	1.537429E+0	1.502951E+0	1.453340E+0	1.392832E+0	1.448728E+0	1.419859E+0	1.343666E+0	1.346728E+0	1.467551E+0	1.493192E+0	1.440198E+0	1.387040E+0	1.402002E+0	1.407205E+0	1.452543E+0	1.412075E+0
2.887970E+2	1.453734E+0	1.591509E+0	1.468612E+0	1.433379E+0	1.524164E+0	1.426993E+0	1.474933E+0	1.531352E+0	1.609318E+0	1.586480E+0	1.506856E+0	1.497681E+0	1.601652E+0	1.505286E+0	1.437236E+0	1.514968E+0	1.609838E+0	1.526391E+0	1.549854E+0	1.510747E+0	1.467466E+0	1.463479E+0	1.432902E+0	1.451062E+0	1.511024E+0	1.456730E+0	1.472390E+0	1.412219E+0	1.372437E+0	1.576153E+0	1.479544E+0	1.633240E+0	1.460492E+0	1.561691E+0	1.385810E+0	1.488863E+0	1.513390E+0	1.532098E+0	1.535311E+0	1.600574E+0	1.491027E+0	1.487785E+0	1.529908E+0	1.478917E+0	1.547799E+0	1.585273E+0	1.574643E+0	1.361551E+0	1.561398E+0	1.472457E+0	1.578633E+0	1.456728E+0	1.544837E+0	1.483299E+0	1.449582E+0	1.479904E+0	1.457643E+0	1.597655E+0	1.440158E+0	1.503391E+0	1.446028E+0	1.486522E+0	1.562905E+0	1.490178E+0	1.486889E+0	1.468334E+0	1.512416E+0	1.560256E+0	1.541812E+0	1.556839E+0	1.547447E+0	1.459869E+0	1.605309E+0	1.519481E+0	1.519951E+0	1.597570E+0	1.570221E+0	1.513493E+0	1.522599E+0	1.529121E+0	1.534008E+0	1.503287E+0	1.540301E+0	1.523192E+0	1.553432E+0	1.548218E+0	1.479429E+0	1.564607E+0	1.491372E+0	1.522115E+0	1.590064E+0	1.484482E+0	1.510115E+0	1.442141E+0	1.455768E+0	1.546433E+0	1.461520E+0	1.555691E+0	1.493479E+0	1.506493E+0	1.578507E+0	1.532387E+0	1.521665E+0	1.543773E+0	1.551304E+0	1.468057E+0	1.518475E+0	1.532182E+0	1.464003E+0	1.515702E+0	1.464551E+0	1.595100E+0	1.473246E+0	1.456041E+0	1.463089E+0	1.525362E+0	1.542833E+0	1.502084E+0	1.541625E+0	1.462709E+0	1.539852E+0	1.517500E+0	1.541952E+0	1.500376E+0	1.571194E+0	1.455231E+0	1.528276E+0	1.566376E+0	1.495602E+0	1.496177E+0	1.423498E+0	1.592818E+0	1.550811E+0	1.485105E+0	1.485200E+0	1.484481E+0	1.539223E+0	1.480779E+0	1.457299E+0	1.509185E+0	1.454059E+0	1.598303E+0	1.438470E+0	1.538621E+0	1.505599E+0	1.528433E+0	1.563274E+0	1.481356E+0	1.580055E+0	1.477071E+0	1.643684E+0	1.495815E+0	1.501428E+0	1.473417E+0	1.603599E+0	1.533256E+0	1.498270E+0	1.456570E+0	1.507776E+0	1.455542E+0	1.592912E+0	1.510375E+0	1.419017E+0	1.530610E+0	1.632047E+0	1.478561E+0	1.522085E+0	1.462287E+0	1.522999E+0	1.400207E+0	1.476961E+0
2.890110E+2	1.394893E+0	1.347074E+0	1.399203E+0	1.309889E+0	1.395740E+0	1.328253E+0	1.398194E+0	1.429976E+0	1.441031E+0	1.342681E+0	1.344533E+0	1.314162E+0	1.299874E+0	1.441572E+0	1.343565E+0	1.297628E+0	1.380074E+0	1.321022E+0	1.401742E+0	1.463871E+0	1.376704E+0	1.363058E+0	1.304356E+0	1.352673E+0	1.360836E+0	1.404399E+0	1.416888E+0	1.381226E+0	1.260588E+0	1.286561E+0	1.313106E+0	1.393341E+0	1.346008E+0	1.506998E+0	1.345367E+0	1.285949E+0	1.331944E+0	1.360601E+0	1.408306E+0	1.348152E+0	1.307951E+0	1.330909E+0	1.367625E+0	1.420094E+0	1.331014E+0	1.370452E+0	1.422698E+0	1.232000E+0	1.441710E+0	1.362993E+0	1.374579E+0	1.260112E+0	1.424329E+0	1.432849E+0	1.288184E+0	1.361002E+0	1.394896E+0	1.478920E+0	1.398068E+0	1.307460E+0	1.353564E+0	1.368715E+0	1.371800E+0	1.362997E+0	1.287346E+0	1.354158E+0	1.430473E+0	1.346004E+0	1.357063E+0	1.448842E+0	1.287352E+0	1.287397E+0	1.341288E+0	1.373983E+0	1.374949E+0	1.322068E+0	1.433019E+0	1.348933E+0	1.399129E+0	1.458333E+0	1.494355E+0	1.365466E+0	1.338863E+0	1.372928E+0	1.410252E+0	1.367396E+0	1.269736E+0	1.404292E+0	1.481579E+0	1.348045E+0	1.360161E+0	1.331907E+0	1.324001E+0	1.329511E+0	1.374171E+0	1.394538E+0	1.307866E+0	1.376634E+0	1.367312E+0	1.337633E+0	1.333421E+0	1.318238E+0	1.280532E+0	1.331728E+0	1.453897E+0	1.372792E+0	1.329190E+0	1.314997E+0	1.375888E+0	1.404317E+0	1.391207E+0	1.401688E+0	1.405876E+0	1.342513E+0	1.374203E+0	1.374196E+0	1.413178E+0	1.370595E+0	1.432490E+0	1.418584E+0	1.275723E+0	1.291314E+0	1.371797E+0	1.369821E+0	1.327985E+0	1.393108E+0	1.336000E+0	1.442896E+0	1.397385E+0	1.350230E+0	1.296068E+0	1.300763E+0	1.315184E+0	1.319509E+0	1.364833E+0	1.351898E+0	1.260531E+0	1.402248E+0	1.353417E+0	1.312942E+0	1.363261E+0	1.277330E+0	1.283207E+0	1.411471E+0	1.349968E+0	1.387425E+0	1.478860E+0	1.326479E+0	1.368960E+0	1.438866E+0	1.420777E+0	1.340763E+0	1.347284E+0	1.309738E+0	1.330804E+0	1.461530E+0	1.365242E+0	1.334609E+0	1.360774E+0	1.341255E+0	1.268787E+0	1.288635E+0	1.288693E+0	1.323566E+0	1.332542E+0	1.311814E+0	1.380775E+0	1.384441E+0	1.387428E+0	1.323992E+0	1.333293E+0
2.892050E+2	9.957434E-1	1.133056E+0	1.114162E+0	1.079494E+0	1.130486E+0	1.077126E+0	1.088864E+0	1.125912E+0	1.077572E+0	1.069471E+0	1.007543E+0	1.110224E+0	1.100937E+0	1.116295E+0	1.073036E+0	1.137847E+0	1.133609E+0	1.004258E+0	1.071470E+0	1.107053E+0	1.074898E+0	1.095409E+0	1.142530E+0	1.116668E+0	1.117281E+0	1.094252E+0	1.071110E+0	1.032813E+0	1.006346E+0	1.087744E+0	1.085298E+0	1.068591E+0	1.140089E+0	1.090091E+0	1.090938E+0	1.132601E+0	1.026305E+0	1.074848E+0	1.108747E+0	1.083319E+0	1.100203E+0	1.112789E+0	1.119423E+0	1.045792E+0	1.157213E+0	1.145863E+0	1.089989E+0	1.089226E+0	1.183165E+0	1.039312E+0	1.129201E+0	1.066895E+0	1.125268E+0	1.081143E+0	1.104915E+0	1.091673E+0	9.948342E-1	1.033994E+0	1.090906E+0	1.167707E+0	1.071362E+0	1.080538E+0	1.173791E+0	1.178267E+0	1.139143E+0	1.025223E+0	1.109233E+0	1.151653E+0	1.089860E+0	1.065182E+0	1.101482E+0	1.097031E+0	1.174284E+0	1.137586E+0	1.014026E+0	1.079358E+0	1.169671E+0	1.068862E+0	1.073118E+0	1.143208E+0	1.136048E+0	1.049301E+0	1.059056E+0	1.029298E+0	1.037617E+0	1.034504E+0	1.030961E+0	1.018623E+0	1.103675E+0	1.102420E+0	9.925102E-1	1.096159E+0	1.029205E+0	1.107252E+0	1.046972E+0	1.116218E+0	1.077338E+0	1.114545E+0	1.093938E+0	1.237656E+0	1.061788E+0	1.042186E+0	1.056805E+0	1.140096E+0	1.138327E+0	1.117020E+0	1.097506E+0	1.036968E+0	1.006083E+0	1.127060E+0	1.051850E+0	1.127261E+0	1.113913E+0	1.090871E+0	1.060458E+0	1.135624E+0	1.067046E+0	1.106239E+0	1.095391E+0	1.137733E+0	1.049508E+0	1.064195E+0	1.090288E+0	1.018655E+0	1.024400E+0	1.078357E+0	1.081991E+0	1.089165E+0	1.034563E+0	1.094846E+0	1.039326E+0	1.081259E+0	1.156188E+0	1.168172E+0	1.079936E+0	1.066246E+0	1.110542E+0	1.100947E+0	1.109654E+0	1.027526E+0	1.104612E+0	1.080459E+0	1.122854E+0	1.052336E+0	1.085351E+0	1.052011E+0	1.107619E+0	1.057901E+0	1.016000E+0	1.075987E+0	1.142887E+0	1.110025E+0	1.075732E+0	1.121932E+0	1.144254E+0	1.152081E+0	1.088283E+0	1.070687E+0	1.046152E+0	1.103879E+0	1.126669E+0	1.090497E+0	1.027443E+0	1.096209E+0	1.161255E+0	1.053329E+0	1.144605E+0	1.069303E+0	1.051685E+0	1.037645E+0	1.080743E+0
2.894050E+2	8.529920E-1	9.002000E-1	8.574457E-1	8.149186E-1	8.784981E-1	8.403989E-1	8.464320E-1	7.794674E-1	8.139139E-1	8.678096E-1	8.694260E-1	8.377116E-1	8.564208E-1	8.686776E-1	7.996240E-1	8.495502E-1	9.000354E-1	8.914094E-1	8.723526E-1	7.974904E-1	8.552225E-1	8.599644E-1	9.440557E-1	8.678341E-1	9.595145E-1	8.377574E-1	8.754263E-1	9.125536E-1	8.422350E-1	7.985210E-1	7.373450E-1	9.223741E-1	8.934792E-1	8.726267E-1	8.510210E-1	8.071226E-1	8.304613E-1	8.976439E-1	8.516615E-1	8.527393E-1	8.879352E-1	8.493057E-1	8.192216E-1	8.262872E-1	9.065641E-1	8.204822E-1	8.517806E-1	8.732350E-1	9.117420E-1	8.690279E-1	9.150625E-1	8.232641E-1	8.382353E-1	8.618487E-1	8.330689E-1	8.216942E-1	9.844852E-1	8.729983E-1	9.083889E-1	8.710721E-1	9.543143E-1	8.957728E-1	8.854086E-1	8.556071E-1	9.113049E-1	8.461658E-1	9.229948E-1	8.702088E-1	8.609966E-1	8.274582E-1	7.868341E-1	9.157179E-1	8.581162E-1	8.695202E-1	8.067939E-1	8.148751E-1	8.260268E-1	8.440554E-1	9.519643E-1	8.348671E-1	7.612462E-1	8.522177E-1	8.673351E-1	8.185003E-1	8.450322E-1	8.596819E-1	8.194871E-1	8.087784E-1	8.354547E-1	8.698199E-1	8.073849E-1	8.970939E-1	8.658169E-1	8.082239E-1	8.242927E-1	9.556448E-1	8.679514E-1	9.004836E-1	8.810947E-1	8.243978E-1	8.401891E-1	8.429478E-1	8.062118E-1	7.980807E-1	8.980976E-1	7.875342E-1	8.571263E-1	8.417241E-1	8.593141E-1	8.712683E-1	8.636969E-1	8.211225E-1	8.606285E-1	7.966613E-1	8.270830E-1	7.938711E-1	8.834332E-1	8.634462E-1	8.542998E-1	8.082407E-1	9.287990E-1	8.244495E-1	8.486797E-1	9.064357E-1	8.708037E-1	8.279005E-1	8.816736E-1	9.212220E-1	8.170045E-1	9.075292E-1	8.572948E-1	8.444453E-1	8.830302E-1	8.730238E-1	7.979335E-1	8.466625E-1	9.053183E-1	8.888896E-1	9.233090E-1	8.718648E-1	9.010195E-1	8.580852E-1	8.666488E-1	8.939852E-1	9.384616E-1	8.180150E-1	8.947354E-1	9.066175E-1	7.866940E-1	8.724061E-1	8.318746E-1	9.961868E-1	7.921770E-1	8.415469E-1	8.820831E-1	8.782782E-1	8.326555E-1	8.542077E-1	8.163559E-1	8.152167E-1	8.757123E-1	8.711595E-1	7.881540E-1	8.026995E-1	9.009529E-1	8.322869E-1	8.981690E-1	8.549446E-1	7.998013E-1	7.691281E-1	8.298204E-1
2.896060E+2	8.334215E-1	8.527736E-1	7.757486E-1	8.072665E-1	7.951136E-1	8.083405E-1	7.674477E-1	7.702460E-1	8.321711E-1	8.107742E-1	8.088822E-1	7.730477E-1	7.877014E-1	8.177850E-1	8.113363E-1	8.336206E-1	8.359336E-1	8.001366E-1	8.067796E-1	7.837284E-1	7.877380E-1	7.221352E-1	8.132023E-1	7.903480E-1	8.240395E-1	7.924404E-1	7.440986E-1	8.159423E-1	8.393964E-1	8.261256E-1	8.031599E-1	7.513459E-1	7.841915E-1	7.604207E-1	7.304332E-1	8.595952E-1	7.806291E-1	8.302534E-1	8.114850E-1	7.863670E-1	7.563059E-1	7.297653E-1	7.723045E-1	7.788586E-1	7.920467E-1	8.770484E-1	8.248406E-1	7.570472E-1	8.903606E-1	8.326620E-1	7.454047E-1	8.186624E-1	7.793643E-1	8.489293E-1	8.539806E-1	7.999708E-1	8.150332E-1	8.023091E-1	8.033452E-1	8.582048E-1	9.141231E-1	7.614008E-1	7.964259E-1	8.062618E-1	7.756056E-1	7.691381E-1	7.964220E-1	7.599718E-1	7.850038E-1	7.630821E-1	7.731340E-1	7.976902E-1	8.015506E-1	7.660751E-1	7.580190E-1	8.007279E-1	8.369047E-1	8.071182E-1	8.397222E-1	8.551940E-1	8.222532E-1	8.231639E-1	8.362794E-1	7.961640E-1	7.832393E-1	8.478782E-1	7.725604E-1	7.524109E-1	8.261699E-1	8.004758E-1	7.574927E-1	8.851019E-1	7.581437E-1	8.077124E-1	8.398458E-1	7.837446E-1	7.473938E-1	8.872950E-1	7.634838E-1	8.045172E-1	7.991639E-1	7.987567E-1	8.270388E-1	8.051008E-1	7.816518E-1	7.336369E-1	7.638592E-1	8.079213E-1	8.052506E-1	8.331113E-1	7.748921E-1	8.135430E-1	8.580533E-1	8.127436E-1	8.086758E-1	7.680149E-1	7.516461E-1	8.530734E-1	8.067579E-1	8.140915E-1	8.513921E-1	7.399231E-1	8.334354E-1	7.739729E-1	7.628276E-1	8.029594E-1	8.202600E-1	8.168111E-1	7.755668E-1	8.030559E-1	7.571851E-1	7.854418E-1	7.964902E-1	8.268239E-1	7.577183E-1	8.470021E-1	7.387541E-1	7.699228E-1	8.236549E-1	7.994737E-1	8.337764E-1	7.739430E-1	7.785535E-1	8.011290E-1	8.189410E-1	7.531870E-1	8.056221E-1	7.306861E-1	7.699567E-1	8.404642E-1	8.246903E-1	8.094078E-1	8.028572E-1	8.284653E-1	7.999182E-1	8.546564E-1	7.379139E-1	8.094401E-1	7.714970E-1	8.072383E-1	8.010277E-1	7.982752E-1	7.477752E-1	7.573253E-1	7.712202E-1	8.040745E-1	8.204335E-1	8.004652E-1	8.017151E-1	8.624953E-1	7.847900E-1
2.898050E+2	7.571834E-1	7.644236E-1	7.722820E-1	7.603499E-1	7.970838E-1	7.407288E-1	7.886934E-1	7.312762E-1	7.579104E-1	7.608981E-1	7.739078E-1	7.327695E-1	7.719171E-1	7.462781E-1	7.753587E-1	7.610048E-1	8.004392E-1	8.179394E-1	7.964220E-1	7.386395E-1	8.014108E-1	7.440844E-1	7.895970E-1	7.607428E-1	7.679401E-1	7.845122E-1	7.093657E-1	7.029710E-1	6.720161E-1	7.072544E-1	7.541375E-1	7.809898E-1	7.556206E-1	6.940308E-1	7.512523E-1	7.660579E-1	8.001081E-1	7.274451E-1	8.029690E-1	7.575251E-1	7.920423E-1	8.264091E-1	7.324572E-1	7.406314E-1	7.745642E-1	7.917497E-1	7.690732E-1	7.732474E-1	7.844366E-1	7.707049E-1	7.701240E-1	7.576074E-1	7.547770E-1	7.633565E-1	7.336917E-1	7.158152E-1	7.276838E-1	7.666074E-1	7.207716E-1	7.850958E-1	7.497854E-1	7.532609E-1	7.938680E-1	7.536140E-1	7.269389E-1	7.521693E-1	7.328033E-1	7.350728E-1	7.683641E-1	8.125425E-1	7.211487E-1	7.932404E-1	7.788471E-1	7.160796E-1	7.326944E-1	7.266756E-1	7.880506E-1	7.973852E-1	8.021897E-1	7.050498E-1	7.978951E-1	7.189008E-1	6.397353E-1	6.932459E-1	7.858947E-1	7.760399E-1	6.836339E-1	7.688818E-1	7.604296E-1	8.252814E-1	7.426001E-1	7.865366E-1	7.617794E-1	7.441514E-1	6.793514E-1	7.882368E-1	7.270482E-1	7.815241E-1	8.250711E-1	7.430269E-1	7.646322E-1	6.998696E-1	6.911993E-1	7.672441E-1	7.703549E-1	7.035233E-1	7.380341E-1	7.678372E-1	7.109845E-1	7.368902E-1	7.116127E-1	7.630327E-1	7.477934E-1	8.103256E-1	7.835122E-1	7.585936E-1	7.521217E-1	7.748760E-1	8.505877E-1	7.520781E-1	7.283589E-1	7.756100E-1	7.786339E-1	7.686943E-1	7.285433E-1	7.417938E-1	7.484975E-1	7.905612E-1	7.361817E-1	7.732820E-1	7.331731E-1	7.755331E-1	7.506424E-1	7.064851E-1	7.311403E-1	7.718561E-1	7.578033E-1	7.269149E-1	7.153941E-1	7.947363E-1	7.010104E-1	7.261143E-1	7.673166E-1	6.970912E-1	7.654311E-1	6.771824E-1	8.017070E-1	7.443700E-1	7.770209E-1	7.738438E-1	6.994236E-1	7.316437E-1	7.256480E-1	7.071762E-1	7.477201E-1	7.440857E-1	7.241626E-1	7.246198E-1	7.291393E-1	7.020850E-1	7.342945E-1	8.338901E-1	6.783970E-1	7.127064E-1	7.960980E-1	7.243413E-1	7.655212E-1	7.832528E-1	7.144889E-1	7.830619E-1	7.987872E-1
2.900050E+2	7.538834E-1	7.193413E-1	7.484713E-1	7.771526E-1	8.225712E-1	7.111980E-1	7.084597E-1	7.454472E-1	7.599312E-1	7.933326E-1	7.422118E-1	7.538647E-1	7.252864E-1	8.431037E-1	7.047238E-1	6.949090E-1	6.833926E-1	7.342112E-1	7.085834E-1	7.017188E-1	7.097074E-1	7.316291E-1	7.185794E-1	8.336882E-1	8.014752E-1	7.031967E-1	6.887802E-1	7.287538E-1	7.466034E-1	7.499660E-1	8.219443E-1	7.283607E-1	7.861545E-1	7.478537E-1	6.770873E-1	8.208549E-1	7.234495E-1	8.183798E-1	7.505092E-1	7.106951E-1	7.007830E-1	7.069811E-1	7.606445E-1	7.054979E-1	6.925554E-1	7.670184E-1	7.190673E-1	6.873591E-1	7.730735E-1	7.296727E-1	7.537330E-1	7.749328E-1	7.536911E-1	7.084193E-1	7.365247E-1	7.959698E-1	7.876985E-1	7.710314E-1	7.346032E-1	7.729943E-1	7.451077E-1	8.142470E-1	7.101774E-1	7.496058E-1	7.077504E-1	7.355106E-1	7.998278E-1	7.663975E-1	7.377393E-1	7.486441E-1	7.694687E-1	7.027932E-1	7.346925E-1	7.334954E-1	7.684801E-1	7.408844E-1	7.407990E-1	7.745451E-1	7.270300E-1	8.030214E-1	7.666353E-1	7.206330E-1	6.945965E-1	7.089912E-1	7.156238E-1	7.718306E-1	7.860715E-1	7.397855E-1	7.654736E-1	7.617363E-1	7.625189E-1	7.492187E-1	7.457215E-1	7.188373E-1	7.203980E-1	7.132359E-1	6.682248E-1	7.341038E-1	8.174170E-1	7.576131E-1	7.670964E-1	7.496743E-1	7.109372E-1	6.744829E-1	7.985187E-1	6.892070E-1	7.205610E-1	7.671158E-1	7.699502E-1	7.790786E-1	7.735984E-1	7.004332E-1	7.218583E-1	6.975713E-1	6.760795E-1	7.523970E-1	8.189337E-1	7.053739E-1	8.031347E-1	7.080558E-1	7.128552E-1	7.479869E-1	7.284648E-1	7.695488E-1	8.507894E-1	7.843762E-1	7.895336E-1	7.856220E-1	8.273717E-1	7.819653E-1	7.620317E-1	7.767248E-1	7.527140E-1	7.550629E-1	7.184354E-1	7.766644E-1	7.298089E-1	7.501967E-1	7.492286E-1	8.113051E-1	7.693531E-1	7.734180E-1	7.552131E-1	7.118805E-1	7.929568E-1	7.011747E-1	7.859753E-1	7.742998E-1	7.742132E-1	7.623089E-1	7.459788E-1	7.771108E-1	7.231343E-1	7.388514E-1	7.772872E-1	7.009946E-1	7.755713E-1	7.438074E-1	7.484950E-1	7.938009E-1	7.113839E-1	7.364219E-1	7.122440E-1	7.584030E-1	8.498138E-1	7.275915E-1	7.208630E-1	7.834426E-1	8.065165E-1	7.213222E-1	6.795399E-1
2.905120E+2	8.276396E-1	9.748992E-1	9.902557E-1	9.538145E-1	9.616259E-1	9.574592E-1	9.195904E-1	1.027095E+0	8.979753E-1	9.021184E-1	8.963807E-1	8.790647E-1	9.515031E-1	8.859520E-1	9.307070E-1	8.795502E-1	9.256402E-1	9.407700E-1	8.576600E-1	9.061154E-1	9.483086E-1	9.659256E-1	9.472915E-1	9.398017E-1	9.859291E-1	1.031265E+0	9.475244E-1	9.368542E-1	9.237688E-1	9.577477E-1	9.663294E-1	9.237779E-1	8.776072E-1	8.963709E-1	9.740712E-1	9.559013E-1	9.309685E-1	9.028811E-1	9.253849E-1	9.733437E-1	9.405332E-1	9.035219E-1	9.172054E-1	8.605080E-1	9.257684E-1	9.887139E-1	8.805914E-1	8.705536E-1	9.353228E-1	1.019879E+0	9.122689E-1	8.543275E-1	9.010085E-1	9.559089E-1	8.952484E-1	9.055782E-1	9.587437E-1	9.381615E-1	9.675699E-1	9.230374E-1	9.638976E-1	8.931017E-1	9.013790E-1	9.270094E-1	8.809057E-1	9.592201E-1	9.586286E-1	9.407352E-1	9.338985E-1	9.382352E-1	9.422713E-1	8.778074E-1	9.821211E-1	9.373832E-1	8.626768E-1	9.752855E-1	8.801548E-1	9.944633E-1	8.706985E-1	9.027830E-1	9.260708E-1	9.084678E-1	9.032847E-1	9.751315E-1	8.576558E-1	9.548428E-1	8.879963E-1	9.107119E-1	9.351361E-1	9.355560E-1	9.683751E-1	9.009640E-1	9.146784E-1	9.512876E-1	9.125552E-1	9.974355E-1	9.827652E-1	9.444928E-1	8.850730E-1	9.477829E-1	9.442860E-1	9.420081E-1	8.534494E-1	9.185549E-1	9.490165E-1	9.698223E-1	9.204410E-1	9.492204E-1	9.298479E-1	1.050204E+0	9.014158E-1	9.729130E-1	9.501975E-1	8.668725E-1	9.063240E-1	9.290502E-1	9.393372E-1	9.648543E-1	9.214275E-1	9.044286E-1	8.925793E-1	9.388559E-1	9.794862E-1	8.984568E-1	1.027535E+0	9.706935E-1	9.797271E-1	9.800464E-1	9.454147E-1	9.208691E-1	9.049018E-1	9.380275E-1	8.908235E-1	9.658743E-1	9.122434E-1	8.191222E-1	9.500342E-1	9.514983E-1	9.271050E-1	9.488257E-1	9.794211E-1	9.406715E-1	9.105678E-1	9.244910E-1	9.504004E-1	9.315942E-1	9.325613E-1	8.502399E-1	9.899733E-1	9.450634E-1	9.234256E-1	8.870523E-1	9.743339E-1	8.790462E-1	9.474654E-1	9.747563E-1	9.451127E-1	9.615561E-1	9.213234E-1	9.978415E-1	9.284233E-1	9.746920E-1	9.041429E-1	8.781741E-1	1.000446E+0	8.515015E-1	9.208232E-1	9.320651E-1	9.359026E-1	9.288627E-1	9.637624E-1
2.910040E+2	1.290356E+0	1.251127E+0	1.269912E+0	1.205817E+0	1.337712E+0	1.219648E+0	1.133458E+0	1.228990E+0	1.289616E+0	1.213185E+0	1.172713E+0	1.239309E+0	1.162370E+0	1.229740E+0	1.217818E+0	1.213638E+0	1.191172E+0	1.238953E+0	1.184447E+0	1.212158E+0	1.203194E+0	1.168394E+0	1.237226E+0	1.146032E+0	1.255918E+0	1.221785E+0	1.212600E+0	1.180832E+0	1.241119E+0	1.184722E+0	1.119805E+0	1.211017E+0	1.192167E+0	1.200659E+0	1.136221E+0	1.212368E+0	1.175406E+0	1.260823E+0	1.258382E+0	1.262220E+0	1.193596E+0	1.152666E+0	1.179431E+0	1.104860E+0	1.209290E+0	1.261200E+0	1.265802E+0	1.215776E+0	1.283758E+0	1.220252E+0	1.292595E+0	1.172057E+0	1.183277E+0	1.244925E+0	1.180551E+0	1.226966E+0	1.179589E+0	1.146041E+0	1.141298E+0	1.178632E+0	1.235198E+0	1.220354E+0	1.267089E+0	1.224006E+0	1.296514E+0	1.204903E+0	1.263700E+0	1.241135E+0	1.275826E+0	1.204697E+0	1.204792E+0	1.076919E+0	1.205380E+0	1.307622E+0	1.182241E+0	1.188842E+0	1.331752E+0	1.219800E+0	1.222291E+0	1.250072E+0	1.288382E+0	1.170932E+0	1.237884E+0	1.212294E+0	1.229703E+0	1.268561E+0	1.228981E+0	1.220292E+0	1.214139E+0	1.291988E+0	1.214274E+0	1.185228E+0	1.198622E+0	1.166136E+0	1.193179E+0	1.207397E+0	1.235168E+0	1.173369E+0	1.215418E+0	1.301765E+0	1.183930E+0	1.173204E+0	1.207253E+0	1.185357E+0	1.294070E+0	1.231425E+0	1.208483E+0	1.227819E+0	1.213114E+0	1.228482E+0	1.222242E+0	1.255220E+0	1.169446E+0	1.193110E+0	1.170842E+0	1.212586E+0	1.295990E+0	1.253074E+0	1.218223E+0	1.211537E+0	1.212855E+0	1.193941E+0	1.260677E+0	1.254253E+0	1.269376E+0	1.183914E+0	1.289209E+0	1.180768E+0	1.161726E+0	1.191720E+0	1.151054E+0	1.170531E+0	1.198736E+0	1.189229E+0	1.185689E+0	1.246653E+0	1.221004E+0	1.168050E+0	1.153919E+0	1.180471E+0	1.193040E+0	1.219484E+0	1.180401E+0	1.182901E+0	1.227830E+0	1.106472E+0	1.189862E+0	1.164340E+0	1.207162E+0	1.161654E+0	1.266157E+0	1.207501E+0	1.252517E+0	1.185188E+0	1.241883E+0	1.167007E+0	1.236247E+0	1.240681E+0	1.202308E+0	1.188707E+0	1.217290E+0	1.199040E+0	1.221194E+0	1.183283E+0	1.301047E+0	1.138552E+0	1.233339E+0	1.137416E+0	1.224950E+0	1.194392E+0	1.153603E+0
2.915060E+2	1.493503E+0	1.375358E+0	1.459207E+0	1.369769E+0	1.426226E+0	1.396352E+0	1.337259E+0	1.387221E+0	1.582201E+0	1.476567E+0	1.419600E+0	1.355390E+0	1.410424E+0	1.394758E+0	1.393349E+0	1.390573E+0	1.382077E+0	1.348262E+0	1.446055E+0	1.443439E+0	1.410344E+0	1.435868E+0	1.430921E+0	1.400051E+0	1.507995E+0	1.414832E+0	1.471946E+0	1.453669E+0	1.378101E+0	1.416578E+0	1.371845E+0	1.531482E+0	1.465065E+0	1.418913E+0	1.474866E+0	1.422970E+0	1.362047E+0	1.497743E+0	1.445461E+0	1.463200E+0	1.376795E+0	1.382022E+0	1.486040E+0	1.299541E+0	1.405997E+0	1.362167E+0	1.498286E+0	1.336800E+0	1.501795E+0	1.425958E+0	1.536996E+0	1.430178E+0	1.414348E+0	1.421026E+0	1.470405E+0	1.523099E+0	1.541671E+0	1.509151E+0	1.379552E+0	1.335425E+0	1.352055E+0	1.508133E+0	1.477998E+0	1.423886E+0	1.455192E+0	1.445060E+0	1.486488E+0	1.379168E+0	1.393394E+0	1.453446E+0	1.459700E+0	1.413524E+0	1.414944E+0	1.445521E+0	1.429369E+0	1.311490E+0	1.587403E+0	1.437592E+0	1.431413E+0	1.409532E+0	1.502594E+0	1.451649E+0	1.369583E+0	1.467569E+0	1.439578E+0	1.391762E+0	1.362976E+0	1.453696E+0	1.511279E+0	1.485379E+0	1.481291E+0	1.447373E+0	1.469052E+0	1.327755E+0	1.497227E+0	1.448780E+0	1.443345E+0	1.483014E+0	1.439330E+0	1.489866E+0	1.505118E+0	1.515142E+0	1.353761E+0	1.532306E+0	1.480994E+0	1.410245E+0	1.378905E+0	1.474209E+0	1.378698E+0	1.443226E+0	1.483459E+0	1.432435E+0	1.465678E+0	1.445019E+0	1.482915E+0	1.345751E+0	1.399454E+0	1.398564E+0	1.403137E+0	1.339819E+0	1.428362E+0	1.404657E+0	1.422071E+0	1.464274E+0	1.360231E+0	1.455265E+0	1.481964E+0	1.452842E+0	1.376962E+0	1.341599E+0	1.221266E+0	1.367192E+0	1.396965E+0	1.373320E+0	1.480761E+0	1.502195E+0	1.475561E+0	1.329921E+0	1.493731E+0	1.413230E+0	1.386551E+0	1.331272E+0	1.574200E+0	1.405548E+0	1.387709E+0	1.377620E+0	1.493854E+0	1.332815E+0	1.444818E+0	1.478306E+0	1.488074E+0	1.455154E+0	1.453669E+0	1.388743E+0	1.547418E+0	1.418937E+0	1.493713E+0	1.456558E+0	1.430313E+0	1.338486E+0	1.440084E+0	1.376123E+0	1.319919E+0	1.345490E+0	1.536362E+0	1.370647E+0	1.382742E+0	1.398556E+0	1.546357E+0	1.526893E+0	1.335341E+0
2.920050E+2	1.294710E+0	1.323520E+0	1.317680E+0	1.374160E+0	1.279897E+0	1.416368E+0	1.396770E+0	1.193036E+0	1.360745E+0	1.417925E+0	1.388881E+0	1.370573E+0	1.269498E+0	1.329645E+0	1.266806E+0	1.384980E+0	1.259048E+0	1.301598E+0	1.398737E+0	1.323729E+0	1.336415E+0	1.321795E+0	1.365774E+0	1.277268E+0	1.330364E+0	1.329875E+0	1.248477E+0	1.272585E+0	1.296774E+0	1.360400E+0	1.281518E+0	1.252872E+0	1.385272E+0	1.239284E+0	1.400743E+0	1.339056E+0	1.313168E+0	1.291245E+0	1.334896E+0	1.373275E+0	1.230460E+0	1.359475E+0	1.417458E+0	1.317752E+0	1.352521E+0	1.435550E+0	1.309037E+0	1.242432E+0	1.493021E+0	1.361427E+0	1.333527E+0	1.348381E+0	1.296527E+0	1.337141E+0	1.356012E+0	1.323699E+0	1.470126E+0	1.419726E+0	1.294698E+0	1.283695E+0	1.307049E+0	1.303476E+0	1.474526E+0	1.266764E+0	1.356398E+0	1.329418E+0	1.389088E+0	1.335033E+0	1.401094E+0	1.371354E+0	1.353268E+0	1.232881E+0	1.296952E+0	1.392531E+0	1.336150E+0	1.322763E+0	1.410868E+0	1.314182E+0	1.405501E+0	1.359325E+0	1.374307E+0	1.268915E+0	1.320735E+0	1.238136E+0	1.334770E+0	1.350356E+0	1.327533E+0	1.375685E+0	1.408426E+0	1.426533E+0	1.228860E+0	1.389550E+0	1.295928E+0	1.379685E+0	1.427054E+0	1.324300E+0	1.340797E+0	1.535643E+0	1.435889E+0	1.377408E+0	1.359358E+0	1.274870E+0	1.374526E+0	1.418789E+0	1.287851E+0	1.377309E+0	1.352698E+0	1.367958E+0	1.339054E+0	1.323825E+0	1.317281E+0	1.365253E+0	1.232925E+0	1.339517E+0	1.309907E+0	1.374830E+0	1.381375E+0	1.420731E+0	1.405199E+0	1.304557E+0	1.382168E+0	1.299518E+0	1.227302E+0	1.418059E+0	1.378531E+0	1.281989E+0	1.328107E+0	1.334711E+0	1.427116E+0	1.371160E+0	1.295027E+0	1.253090E+0	1.289263E+0	1.316179E+0	1.295818E+0	1.333777E+0	1.290135E+0	1.321796E+0	1.332074E+0	1.344024E+0	1.296285E+0	1.346011E+0	1.374934E+0	1.369755E+0	1.369076E+0	1.274055E+0	1.296416E+0	1.286335E+0	1.370052E+0	1.370751E+0	1.348948E+0	1.325687E+0	1.276326E+0	1.286697E+0	1.322586E+0	1.339006E+0	1.380563E+0	1.240835E+0	1.387821E+0	1.277007E+0	1.273703E+0	1.433418E+0	1.263769E+0	1.341884E+0	1.421127E+0	1.187262E+0	1.269784E+0	1.273326E+0	1.308552E+0	1.355247E+0	1.312576E+0
2.924990E+2	1.102918E+0	1.155860E+0	1.137251E+0	1.178869E+0	1.121704E+0	1.205878E+0	1.237587E+0	1.175513E+0	1.202836E+0	1.173370E+0	1.087430E+0	1.194423E+0	1.108100E+0	1.213226E+0	1.181549E+0	1.304582E+0	1.232722E+0	1.176265E+0	1.199139E+0	1.171670E+0	1.170403E+0	1.123027E+0	1.093954E+0	1.132756E+0	1.114788E+0	1.207024E+0	1.199774E+0	1.128324E+0	1.179225E+0	1.182861E+0	1.088799E+0	1.200159E+0	1.098515E+0	1.142249E+0	1.141168E+0	1.169804E+0	1.068474E+0	1.228127E+0	1.211398E+0	1.174053E+0	1.174901E+0	1.262391E+0	1.261523E+0	1.268698E+0	1.239646E+0	1.166767E+0	1.210694E+0	1.099773E+0	1.132537E+0	1.222387E+0	1.226112E+0	1.114824E+0	1.183809E+0	1.203670E+0	1.137842E+0	1.155783E+0	1.140979E+0	1.205654E+0	1.143273E+0	1.251785E+0	1.300373E+0	1.283515E+0	1.288001E+0	1.183550E+0	1.171613E+0	1.135238E+0	1.186202E+0	1.182344E+0	1.194411E+0	1.174496E+0	1.225752E+0	1.035661E+0	1.199536E+0	1.227222E+0	1.159631E+0	1.175416E+0	1.205272E+0	1.216036E+0	1.172611E+0	1.179164E+0	1.175344E+0	1.097691E+0	1.196793E+0	1.139440E+0	1.183459E+0	1.190735E+0	1.182537E+0	1.231887E+0	1.300914E+0	1.198393E+0	1.168792E+0	1.249320E+0	1.209479E+0	1.079331E+0	1.183560E+0	1.279326E+0	1.082223E+0	1.204029E+0	1.203294E+0	1.224898E+0	1.159799E+0	1.203866E+0	1.141274E+0	1.259100E+0	1.188677E+0	1.078378E+0	1.194584E+0	1.196003E+0	1.156763E+0	1.252406E+0	1.148942E+0	1.209798E+0	1.208152E+0	1.226565E+0	1.216421E+0	1.115907E+0	1.062054E+0	1.187491E+0	1.176716E+0	1.167345E+0	1.209758E+0	1.140399E+0	1.148179E+0	1.118177E+0	1.144470E+0	1.239391E+0	1.121768E+0	1.132259E+0	1.189041E+0	1.253938E+0	1.194345E+0	1.160427E+0	1.107872E+0	1.252253E+0	1.170452E+0	1.177706E+0	1.294497E+0	1.219277E+0	1.106642E+0	1.117140E+0	1.114172E+0	1.145078E+0	1.134512E+0	1.254004E+0	1.168983E+0	1.272178E+0	1.075944E+0	1.232663E+0	1.203963E+0	1.144842E+0	1.239774E+0	1.245949E+0	1.203447E+0	1.180299E+0	1.116764E+0	1.116090E+0	1.187586E+0	1.157750E+0	1.250643E+0	1.157729E+0	1.165538E+0	1.241985E+0	1.174798E+0	1.246217E+0	1.238623E+0	1.111623E+0	1.123719E+0	1.186167E+0	1.240545E+0	1.058294E+0	1.394521E+0
2.930130E+2	1.017058E+0	1.051549E+0	1.118952E+0	1.072174E+0	1.070247E+0	1.037909E+0	9.852639E-1	1.045578E+0	1.057030E+0	1.032251E+0	1.028900E+0	1.022453E+0	9.913173E-1	1.140403E+0	9.496362E-1	1.008307E+0	1.040031E+0	1.082141E+0	1.004020E+0	1.005251E+0	9.956492E-1	9.698769E-1	1.041353E+0	1.002629E+0	9.943430E-1	1.107893E+0	9.524525E-1	9.780595E-1	9.757720E-1	1.071115E+0	1.036072E+0	1.048111E+0	1.037035E+0	9.653237E-1	1.001574E+0	1.005202E+0	1.044874E+0	1.084176E+0	1.181505E+0	9.816212E-1	1.024004E+0	1.018945E+0	1.063234E+0	1.072660E+0	1.027676E+0	1.068231E+0	9.563976E-1	8.969839E-1	9.892776E-1	9.715769E-1	1.051004E+0	1.030285E+0	1.062031E+0	1.049269E+0	1.044257E+0	1.029624E+0	1.052027E+0	1.107607E+0	9.726497E-1	1.056489E+0	1.030678E+0	1.023095E+0	1.034860E+0	1.052312E+0	1.014784E+0	1.053747E+0	1.007647E+0	1.038274E+0	1.043686E+0	1.025996E+0	1.039487E+0	9.947697E-1	1.132922E+0	9.831184E-1	9.834898E-1	1.041869E+0	1.093737E+0	1.032020E+0	1.041047E+0	9.184092E-1	9.910401E-1	1.004217E+0	1.012770E+0	1.063218E+0	1.029947E+0	1.038399E+0	1.038296E+0	1.088349E+0	1.055682E+0	1.103748E+0	9.285230E-1	1.031737E+0	1.082992E+0	9.980249E-1	1.006632E+0	1.090544E+0	1.013809E+0	9.957011E-1	1.046558E+0	1.047609E+0	9.976360E-1	1.039105E+0	9.711844E-1	1.010466E+0	1.008056E+0	9.892880E-1	1.001719E+0	1.054586E+0	9.966436E-1	1.030957E+0	1.017342E+0	1.014209E+0	1.045952E+0	1.057678E+0	1.059173E+0	9.839800E-1	1.020996E+0	1.028802E+0	1.034934E+0	9.910904E-1	1.010139E+0	1.043701E+0	1.053600E+0	1.073316E+0	1.082096E+0	9.657478E-1	9.409908E-1	9.823932E-1	9.354414E-1	1.106457E+0	9.945403E-1	1.076865E+0	1.010837E+0	1.008114E+0	1.108425E+0	1.070372E+0	9.202318E-1	1.049038E+0	1.067683E+0	1.018112E+0	9.991097E-1	9.228967E-1	1.018179E+0	1.023398E+0	1.096267E+0	1.074780E+0	1.020698E+0	9.979877E-1	1.051089E+0	1.001024E+0	1.073821E+0	1.030464E+0	1.047470E+0	9.721519E-1	9.907881E-1	1.078537E+0	1.000791E+0	1.070316E+0	9.845967E-1	1.052606E+0	9.749122E-1	9.994381E-1	1.014971E+0	9.715391E-1	1.058408E+0	9.917137E-1	1.102802E+0	1.017266E+0	1.054824E+0	9.856390E-1	1.055273E+0
2.935030E+2	1.051512E+0	1.002819E+0	1.160860E+0	1.166664E+0	1.093808E+0	1.103856E+0	1.098188E+0	1.026897E+0	1.062591E+0	1.066657E+0	1.102946E+0	1.085461E+0	1.029056E+0	1.105310E+0	1.032438E+0	1.136253E+0	1.129832E+0	9.957893E-1	1.079124E+0	1.068703E+0	1.112152E+0	1.072559E+0	1.124763E+0	1.039656E+0	1.059725E+0	1.116779E+0	1.107325E+0	1.002654E+0	1.044846E+0	1.119017E+0	1.046243E+0	1.099709E+0	1.091152E+0	1.040057E+0	1.057444E+0	1.050285E+0	1.046060E+0	1.060037E+0	1.033268E+0	1.130381E+0	9.964925E-1	1.144748E+0	1.030480E+0	1.068341E+0	1.013963E+0	1.084616E+0	1.078229E+0	1.028885E+0	1.166951E+0	1.082042E+0	1.083596E+0	1.133005E+0	1.002054E+0	1.167166E+0	1.044213E+0	1.095281E+0	1.081609E+0	1.097611E+0	1.052558E+0	1.014704E+0	1.090382E+0	1.076834E+0	1.103377E+0	1.073255E+0	1.084640E+0	1.054886E+0	1.165349E+0	1.014969E+0	1.109190E+0	1.067206E+0	1.048940E+0	1.010902E+0	1.016723E+0	1.162945E+0	9.404443E-1	1.036960E+0	1.120560E+0	1.054482E+0	9.723790E-1	1.130826E+0	1.102264E+0	1.078204E+0	1.087645E+0	1.088672E+0	1.207556E+0	1.072203E+0	9.984668E-1	1.191705E+0	1.101703E+0	1.089418E+0	1.150319E+0	1.071426E+0	1.071612E+0	1.093989E+0	1.080858E+0	1.059516E+0	9.402561E-1	1.147855E+0	1.146965E+0	1.081605E+0	1.179447E+0	1.134060E+0	1.113653E+0	1.107857E+0	1.137562E+0	1.082160E+0	1.151346E+0	1.099414E+0	1.074282E+0	1.100091E+0	1.118745E+0	1.110443E+0	1.124295E+0	1.133911E+0	1.193723E+0	1.012213E+0	9.931716E-1	1.116840E+0	1.078594E+0	1.108920E+0	1.087853E+0	1.051276E+0	1.084498E+0	1.123022E+0	1.072160E+0	1.095686E+0	1.067801E+0	1.074920E+0	1.116952E+0	1.092404E+0	9.872836E-1	1.087842E+0	1.095183E+0	1.107126E+0	1.037954E+0	1.097374E+0	1.174401E+0	9.954246E-1	1.115417E+0	1.097144E+0	1.059801E+0	1.054888E+0	1.128076E+0	1.068348E+0	1.113971E+0	1.049541E+0	1.086544E+0	1.010090E+0	1.036463E+0	1.092228E+0	1.123736E+0	1.075332E+0	1.098117E+0	1.038031E+0	1.047946E+0	1.057623E+0	1.137544E+0	1.061956E+0	1.062019E+0	1.071817E+0	1.046686E+0	1.110905E+0	1.054720E+0	1.077141E+0	1.135148E+0	1.096931E+0	1.101893E+0	1.026455E+0	1.114519E+0	9.187147E-1	1.087452E+0
2.940070E+2	9.930179E-1	1.027178E+0	1.060471E+0	9.638243E-1	1.030472E+0	1.006369E+0	9.876246E-1	1.036819E+0	1.027421E+0	1.036278E+0	1.074388E+0	1.035563E+0	1.102855E+0	1.025461E+0	1.017673E+0	1.017752E+0	9.817601E-1	1.105121E+0	1.016477E+0	1.013175E+0	1.065198E+0	1.030348E+0	9.950704E-1	9.731689E-1	1.103659E+0	9.765333E-1	9.867146E-1	1.026363E+0	9.957514E-1	1.069627E+0	9.569436E-1	9.872879E-1	9.917737E-1	1.009155E+0	1.013901E+0	9.770753E-1	9.277054E-1	9.802002E-1	9.571465E-1	1.065861E+0	1.019934E+0	1.051371E+0	1.006457E+0	9.974980E-1	1.035159E+0	1.006241E+0	9.876570E-1	9.658658E-1	1.013564E+0	1.050458E+0	9.898805E-1	1.038243E+0	9.339150E-1	1.009316E+0	9.287957E-1	9.987667E-1	9.851417E-1	1.024214E+0	9.906951E-1	1.072301E+0	1.049084E+0	9.882675E-1	9.888206E-1	1.034705E+0	1.033016E+0	9.262149E-1	1.084357E+0	1.034294E+0	1.079762E+0	1.124482E+0	1.038110E+0	9.846307E-1	9.905244E-1	1.065230E+0	1.034080E+0	1.080263E+0	1.067368E+0	9.306203E-1	1.089496E+0	9.794380E-1	1.025800E+0	9.598653E-1	1.034212E+0	1.036453E+0	1.015880E+0	1.059745E+0	1.026783E+0	1.083981E+0	1.072290E+0	1.095695E+0	9.610060E-1	1.056307E+0	9.862734E-1	1.005257E+0	1.037585E+0	9.904829E-1	9.468086E-1	1.019080E+0	1.050460E+0	1.026597E+0	1.026531E+0	9.945523E-1	1.025831E+0	1.025321E+0	1.091350E+0	1.053357E+0	9.661495E-1	1.073513E+0	1.091056E+0	1.101689E+0	1.031215E+0	1.036870E+0	1.032139E+0	9.662081E-1	1.067530E+0	9.749076E-1	1.058275E+0	9.966709E-1	1.000357E+0	9.549577E-1	9.618380E-1	1.070119E+0	1.043073E+0	1.034316E+0	1.045132E+0	9.629145E-1	1.004561E+0	1.066030E+0	9.561796E-1	1.042096E+0	9.802967E-1	1.031085E+0	9.817873E-1	1.043044E+0	1.014922E+0	1.025711E+0	1.052195E+0	1.042522E+0	1.059279E+0	1.021300E+0	9.767674E-1	1.029328E+0	9.532640E-1	1.020610E+0	1.094954E+0	9.562921E-1	9.914893E-1	9.629330E-1	1.105212E+0	1.055375E+0	9.281458E-1	1.079932E+0	1.075502E+0	1.058650E+0	1.075779E+0	1.007373E+0	9.981406E-1	1.020935E+0	1.022929E+0	9.837398E-1	9.828052E-1	1.022701E+0	9.136753E-1	1.068519E+0	1.061335E+0	1.001760E+0	9.940501E-1	1.043578E+0	1.034643E+0	9.765584E-1	1.054979E+0
2.945060E+2	9.924869E-1	9.831435E-1	9.542039E-1	1.010556E+0	1.073938E+0	1.017244E+0	9.661759E-1	1.058335E+0	9.826928E-1	9.592002E-1	9.157513E-1	9.608185E-1	1.014206E+0	1.092931E+0	9.477892E-1	9.886975E-1	9.788945E-1	9.679299E-1	1.034974E+0	9.661586E-1	9.791074E-1	9.863795E-1	9.744692E-1	1.027625E+0	9.642027E-1	1.005962E+0	9.595646E-1	9.636626E-1	9.030386E-1	1.021453E+0	9.572003E-1	1.004797E+0	1.003499E+0	1.016780E+0	1.006545E+0	9.592107E-1	1.021702E+0	1.026758E+0	1.006680E+0	9.910520E-1	1.014972E+0	9.586831E-1	9.253041E-1	9.708567E-1	9.999409E-1	9.752565E-1	1.029133E+0	9.658822E-1	1.044498E+0	9.571682E-1	1.108693E+0	9.609287E-1	1.036184E+0	9.347926E-1	1.018888E+0	9.637800E-1	9.521787E-1	1.005477E+0	9.703140E-1	1.031203E+0	9.314451E-1	1.020278E+0	1.028875E+0	9.853714E-1	9.741095E-1	8.997801E-1	1.010341E+0	1.025673E+0	1.011856E+0	1.078339E+0	1.018669E+0	9.463707E-1	8.917297E-1	1.068430E+0	9.882560E-1	9.032162E-1	1.051484E+0	1.000096E+0	1.019209E+0	9.924156E-1	9.894219E-1	9.964661E-1	9.905558E-1	9.153144E-1	1.072027E+0	1.010157E+0	9.335223E-1	1.012179E+0	1.036858E+0	9.741950E-1	9.705155E-1	1.014147E+0	9.727828E-1	9.380840E-1	9.957713E-1	9.236359E-1	9.327612E-1	1.005261E+0	1.086338E+0	1.023372E+0	9.677503E-1	9.796981E-1	1.008050E+0	9.780085E-1	9.649866E-1	1.059315E+0	1.050675E+0	9.619107E-1	9.253959E-1	1.071192E+0	9.683223E-1	1.010238E+0	9.964004E-1	9.336224E-1	9.918804E-1	9.602478E-1	9.446711E-1	9.785008E-1	9.946520E-1	1.028170E+0	1.000578E+0	9.800433E-1	9.960715E-1	1.054095E+0	1.027182E+0	1.011400E+0	9.511512E-1	9.875886E-1	1.039219E+0	9.933013E-1	1.009347E+0	9.693780E-1	9.452014E-1	9.121726E-1	1.049972E+0	1.060207E+0	9.629305E-1	1.029000E+0	8.295519E-1	1.045690E+0	1.005255E+0	9.982695E-1	9.818235E-1	9.939934E-1	1.080468E+0	1.006881E+0	1.005203E+0	1.028841E+0	9.894336E-1	9.201011E-1	9.927001E-1	1.043138E+0	9.642654E-1	9.928256E-1	9.571575E-1	1.057961E+0	9.138688E-1	1.073741E+0	9.485760E-1	9.381751E-1	9.090626E-1	9.522061E-1	1.015119E+0	9.544079E-1	9.942990E-1	9.535454E-1	1.040404E+0	1.010477E+0	9.571092E-1	9.824273E-1	1.047176E+0
2.950050E+2	1.130450E+0	1.086983E+0	1.107291E+0	1.205194E+0	1.199066E+0	1.192187E+0	1.157567E+0	1.115291E+0	1.108740E+0	1.139490E+0	1.159722E+0	1.135401E+0	1.139648E+0	1.176652E+0	1.221609E+0	1.193760E+0	1.237715E+0	1.208580E+0	1.159860E+0	1.190836E+0	1.128396E+0	1.074018E+0	1.116384E+0	1.173893E+0	1.197222E+0	1.186977E+0	1.142103E+0	1.027869E+0	1.122812E+0	1.202186E+0	1.139058E+0	1.167876E+0	1.176820E+0	1.172891E+0	1.126261E+0	1.068308E+0	1.130107E+0	1.258976E+0	1.169830E+0	1.116646E+0	1.164659E+0	1.209833E+0	1.066448E+0	1.101502E+0	1.127202E+0	1.222860E+0	1.128798E+0	1.088399E+0	1.099952E+0	1.187342E+0	1.199443E+0	1.169628E+0	1.123327E+0	1.110423E+0	1.081823E+0	1.196966E+0	1.132625E+0	1.248238E+0	1.129718E+0	1.174161E+0	1.128276E+0	1.095570E+0	1.203178E+0	1.094747E+0	1.219512E+0	1.153299E+0	1.103901E+0	1.109379E+0	1.149473E+0	1.165293E+0	1.157294E+0	1.177652E+0	1.165784E+0	1.165147E+0	1.113029E+0	1.090019E+0	1.193142E+0	1.178250E+0	1.083081E+0	1.190050E+0	1.218027E+0	1.123595E+0	1.129161E+0	1.168444E+0	1.153287E+0	1.143943E+0	1.103152E+0	1.166074E+0	1.149997E+0	1.110667E+0	1.163002E+0	1.226515E+0	1.114252E+0	1.188381E+0	1.052493E+0	1.184359E+0	1.057690E+0	1.125523E+0	1.143240E+0	1.181672E+0	1.159292E+0	1.084023E+0	1.087315E+0	1.198822E+0	1.124863E+0	1.093784E+0	1.159195E+0	1.109150E+0	1.125918E+0	1.137252E+0	1.151698E+0	1.190696E+0	1.145432E+0	1.196921E+0	1.186089E+0	1.200690E+0	1.145733E+0	1.157978E+0	1.235998E+0	1.137745E+0	1.077022E+0	1.092810E+0	1.151959E+0	1.123831E+0	1.104144E+0	1.177023E+0	1.160173E+0	1.148160E+0	1.179328E+0	1.187279E+0	1.135202E+0	1.158242E+0	1.173107E+0	1.124328E+0	1.165707E+0	1.180395E+0	1.095197E+0	1.066233E+0	1.068382E+0	1.168839E+0	1.212653E+0	1.160956E+0	1.088433E+0	1.117282E+0	1.167800E+0	1.181624E+0	1.171879E+0	1.108783E+0	1.190996E+0	1.170775E+0	1.190496E+0	1.120086E+0	1.202710E+0	1.161058E+0	1.148837E+0	1.188772E+0	1.120685E+0	1.143909E+0	1.116301E+0	1.175276E+0	1.096567E+0	1.106201E+0	1.100382E+0	1.113136E+0	1.186239E+0	1.178698E+0	1.171069E+0	1.202541E+0	1.202609E+0	1.063982E+0	1.214512E+0
2.955070E+2	1.392533E+0	1.367328E+0	1.335957E+0	1.316427E+0	1.523896E+0	1.367905E+0	1.376648E+0	1.381056E+0	1.439475E+0	1.395112E+0	1.420601E+0	1.480501E+0	1.404135E+0	1.445474E+0	1.348781E+0	1.356880E+0	1.453651E+0	1.536359E+0	1.479587E+0	1.478037E+0	1.476966E+0	1.417336E+0	1.499031E+0	1.379833E+0	1.415147E+0	1.417107E+0	1.364226E+0	1.415649E+0	1.323673E+0	1.463732E+0	1.380182E+0	1.373598E+0	1.336721E+0	1.477990E+0	1.444690E+0	1.447200E+0	1.335134E+0	1.521084E+0	1.392589E+0	1.446145E+0	1.359896E+0	1.490915E+0	1.429692E+0	1.427506E+0	1.372018E+0	1.445789E+0	1.427583E+0	1.357187E+0	1.466033E+0	1.403879E+0	1.388798E+0	1.430235E+0	1.456208E+0	1.432711E+0	1.400572E+0	1.413131E+0	1.477800E+0	1.473017E+0	1.451765E+0	1.434752E+0	1.489296E+0	1.419953E+0	1.463310E+0	1.446419E+0	1.525060E+0	1.398814E+0	1.445519E+0	1.368672E+0	1.469768E+0	1.401235E+0	1.422093E+0	1.366083E+0	1.398315E+0	1.490278E+0	1.367205E+0	1.414313E+0	1.511081E+0	1.400646E+0	1.504339E+0	1.438770E+0	1.473828E+0	1.439365E+0	1.469381E+0	1.302811E+0	1.430264E+0	1.479032E+0	1.410900E+0	1.430582E+0	1.478282E+0	1.518185E+0	1.378818E+0	1.372487E+0	1.382424E+0	1.382103E+0	1.357658E+0	1.462789E+0	1.356606E+0	1.351254E+0	1.455144E+0	1.314160E+0	1.440569E+0	1.359139E+0	1.453000E+0	1.402376E+0	1.532252E+0	1.399417E+0	1.423299E+0	1.430318E+0	1.436066E+0	1.414051E+0	1.331771E+0	1.352223E+0	1.429461E+0	1.443638E+0	1.413306E+0	1.399019E+0	1.391239E+0	1.562982E+0	1.396334E+0	1.471062E+0	1.388353E+0	1.425813E+0	1.401877E+0	1.495184E+0	1.340829E+0	1.395289E+0	1.362754E+0	1.418887E+0	1.475166E+0	1.442767E+0	1.300226E+0	1.415340E+0	1.430677E+0	1.364747E+0	1.458308E+0	1.450133E+0	1.453414E+0	1.484487E+0	1.444471E+0	1.492265E+0	1.467699E+0	1.426066E+0	1.449750E+0	1.360215E+0	1.532151E+0	1.356873E+0	1.372657E+0	1.319964E+0	1.377052E+0	1.377908E+0	1.491066E+0	1.494125E+0	1.452945E+0	1.454696E+0	1.452379E+0	1.381768E+0	1.422829E+0	1.427696E+0	1.380708E+0	1.490409E+0	1.415693E+0	1.460422E+0	1.385025E+0	1.399384E+0	1.482818E+0	1.354866E+0	1.381078E+0	1.359229E+0	1.427091E+0	1.535376E+0	1.423787E+0
2.960050E+2	1.453606E+0	1.443752E+0	1.485880E+0	1.450145E+0	1.583132E+0	1.492093E+0	1.471196E+0	1.539269E+0	1.511112E+0	1.481478E+0	1.521296E+0	1.423437E+0	1.376504E+0	1.571996E+0	1.469951E+0	1.533201E+0	1.561291E+0	1.502685E+0	1.499221E+0	1.555068E+0	1.507021E+0	1.425076E+0	1.518896E+0	1.496226E+0	1.478200E+0	1.484370E+0	1.384248E+0	1.496047E+0	1.382643E+0	1.525641E+0	1.464719E+0	1.545121E+0	1.534816E+0	1.550509E+0	1.470876E+0	1.482514E+0	1.460113E+0	1.437673E+0	1.480017E+0	1.435738E+0	1.566903E+0	1.531300E+0	1.469155E+0	1.494421E+0	1.431309E+0	1.466917E+0	1.543221E+0	1.347281E+0	1.519913E+0	1.517881E+0	1.513467E+0	1.456893E+0	1.480170E+0	1.459750E+0	1.384860E+0	1.518439E+0	1.592267E+0	1.489919E+0	1.524095E+0	1.511335E+0	1.476587E+0	1.555008E+0	1.493037E+0	1.372915E+0	1.513825E+0	1.431800E+0	1.479386E+0	1.468105E+0	1.553994E+0	1.510326E+0	1.424309E+0	1.491086E+0	1.526218E+0	1.519891E+0	1.420991E+0	1.476189E+0	1.481596E+0	1.450722E+0	1.457535E+0	1.478588E+0	1.589423E+0	1.500646E+0	1.491151E+0	1.512572E+0	1.454092E+0	1.548514E+0	1.444100E+0	1.505099E+0	1.518537E+0	1.527186E+0	1.427282E+0	1.497268E+0	1.480059E+0	1.526070E+0	1.514610E+0	1.491139E+0	1.496008E+0	1.443689E+0	1.557419E+0	1.383156E+0	1.521353E+0	1.506087E+0	1.448465E+0	1.593365E+0	1.589348E+0	1.368396E+0	1.560516E+0	1.491904E+0	1.401328E+0	1.445223E+0	1.507871E+0	1.527375E+0	1.509216E+0	1.468562E+0	1.480562E+0	1.499962E+0	1.412245E+0	1.483331E+0	1.527954E+0	1.463821E+0	1.441588E+0	1.458383E+0	1.540321E+0	1.501362E+0	1.515409E+0	1.578543E+0	1.444661E+0	1.530828E+0	1.437180E+0	1.416144E+0	1.414783E+0	1.409802E+0	1.430663E+0	1.505413E+0	1.540102E+0	1.512034E+0	1.514112E+0	1.461555E+0	1.491818E+0	1.488268E+0	1.543226E+0	1.394999E+0	1.490103E+0	1.536379E+0	1.340772E+0	1.467610E+0	1.560200E+0	1.484838E+0	1.447987E+0	1.529623E+0	1.584948E+0	1.601014E+0	1.508055E+0	1.539024E+0	1.458661E+0	1.496986E+0	1.549278E+0	1.479190E+0	1.412383E+0	1.461862E+0	1.433898E+0	1.478781E+0	1.347129E+0	1.485172E+0	1.499813E+0	1.411866E+0	1.597978E+0	1.425735E+0	1.468056E+0	1.440187E+0	1.633973E+0
2.965070E+2	1.288784E+0	1.403100E+0	1.411773E+0	1.435018E+0	1.376016E+0	1.359924E+0	1.353372E+0	1.414753E+0	1.392229E+0	1.343351E+0	1.375295E+0	1.385584E+0	1.281194E+0	1.453617E+0	1.352886E+0	1.409727E+0	1.435060E+0	1.472851E+0	1.360169E+0	1.389739E+0	1.331420E+0	1.406103E+0	1.344418E+0	1.389860E+0	1.335418E+0	1.435424E+0	1.330322E+0	1.292575E+0	1.342225E+0	1.425595E+0	1.283560E+0	1.444403E+0	1.373129E+0	1.330812E+0	1.316716E+0	1.340697E+0	1.344145E+0	1.386163E+0	1.392854E+0	1.363990E+0	1.289010E+0	1.430403E+0	1.282171E+0	1.362764E+0	1.431256E+0	1.312432E+0	1.341491E+0	1.295116E+0	1.405802E+0	1.400396E+0	1.396203E+0	1.366175E+0	1.397293E+0	1.419532E+0	1.311555E+0	1.380730E+0	1.377392E+0	1.381838E+0	1.316122E+0	1.364209E+0	1.434412E+0	1.372677E+0	1.372246E+0	1.316104E+0	1.424095E+0	1.332732E+0	1.376651E+0	1.358354E+0	1.414492E+0	1.352007E+0	1.335495E+0	1.330497E+0	1.442475E+0	1.443746E+0	1.316855E+0	1.321720E+0	1.376860E+0	1.363028E+0	1.337628E+0	1.434247E+0	1.418906E+0	1.342337E+0	1.319113E+0	1.334668E+0	1.425502E+0	1.408205E+0	1.347709E+0	1.460745E+0	1.457762E+0	1.377196E+0	1.316103E+0	1.478732E+0	1.384259E+0	1.371456E+0	1.382269E+0	1.485985E+0	1.310786E+0	1.425158E+0	1.410494E+0	1.417839E+0	1.381692E+0	1.307929E+0	1.306967E+0	1.371727E+0	1.425859E+0	1.404210E+0	1.386826E+0	1.336606E+0	1.355766E+0	1.436504E+0	1.313368E+0	1.414625E+0	1.366243E+0	1.419258E+0	1.363964E+0	1.369103E+0	1.404328E+0	1.443545E+0	1.461572E+0	1.476783E+0	1.371294E+0	1.400222E+0	1.349899E+0	1.398540E+0	1.444633E+0	1.287935E+0	1.303616E+0	1.397726E+0	1.426916E+0	1.449245E+0	1.401715E+0	1.394430E+0	1.419292E+0	1.439995E+0	1.370723E+0	1.341737E+0	1.365816E+0	1.444918E+0	1.410426E+0	1.402202E+0	1.334822E+0	1.471662E+0	1.431863E+0	1.356022E+0	1.369066E+0	1.330285E+0	1.431832E+0	1.361104E+0	1.364350E+0	1.343399E+0	1.423831E+0	1.359977E+0	1.301013E+0	1.380709E+0	1.354583E+0	1.295175E+0	1.351282E+0	1.317330E+0	1.377829E+0	1.330053E+0	1.307541E+0	1.408667E+0	1.300518E+0	1.304571E+0	1.391751E+0	1.434586E+0	1.366257E+0	1.406382E+0	1.404755E+0	1.333060E+0	1.319571E+0
2.970040E+2	1.233308E+0	1.287721E+0	1.225984E+0	1.262536E+0	1.244925E+0	1.182501E+0	1.276281E+0	1.237068E+0	1.222082E+0	1.253453E+0	1.215909E+0	1.271489E+0	1.242776E+0	1.292224E+0	1.330617E+0	1.279229E+0	1.305811E+0	1.284468E+0	1.252795E+0	1.251174E+0	1.299407E+0	1.225900E+0	1.287863E+0	1.273116E+0	1.240417E+0	1.278932E+0	1.318592E+0	1.218424E+0	1.266004E+0	1.277642E+0	1.327511E+0	1.216270E+0	1.297649E+0	1.249602E+0	1.239328E+0	1.244737E+0	1.210288E+0	1.219595E+0	1.320989E+0	1.310884E+0	1.262333E+0	1.174721E+0	1.249877E+0	1.271548E+0	1.256469E+0	1.278388E+0	1.221923E+0	1.184534E+0	1.309639E+0	1.265914E+0	1.344772E+0	1.209193E+0	1.273465E+0	1.366240E+0	1.257175E+0	1.300430E+0	1.230337E+0	1.267289E+0	1.277915E+0	1.261963E+0	1.318957E+0	1.207124E+0	1.251963E+0	1.337407E+0	1.265289E+0	1.279313E+0	1.203342E+0	1.182930E+0	1.278300E+0	1.240527E+0	1.277778E+0	1.231051E+0	1.324163E+0	1.231615E+0	1.219739E+0	1.233547E+0	1.258324E+0	1.354231E+0	1.261175E+0	1.143273E+0	1.236641E+0	1.324396E+0	1.208063E+0	1.299313E+0	1.304146E+0	1.342980E+0	1.241647E+0	1.221670E+0	1.339216E+0	1.225403E+0	1.235684E+0	1.350039E+0	1.238413E+0	1.202036E+0	1.251005E+0	1.244418E+0	1.176737E+0	1.275161E+0	1.230275E+0	1.322382E+0	1.280471E+0	1.218125E+0	1.301085E+0	1.362806E+0	1.268274E+0	1.238020E+0	1.273950E+0	1.295051E+0	1.253636E+0	1.339883E+0	1.253930E+0	1.247807E+0	1.294750E+0	1.284108E+0	1.276554E+0	1.239045E+0	1.264974E+0	1.195871E+0	1.234390E+0	1.266089E+0	1.255912E+0	1.308698E+0	1.270014E+0	1.278359E+0	1.263488E+0	1.244679E+0	1.167359E+0	1.263442E+0	1.266783E+0	1.354015E+0	1.231345E+0	1.295854E+0	1.247455E+0	1.239575E+0	1.231820E+0	1.319498E+0	1.292585E+0	1.262961E+0	1.237244E+0	1.253578E+0	1.277783E+0	1.284967E+0	1.255505E+0	1.252336E+0	1.306955E+0	1.250355E+0	1.273814E+0	1.237655E+0	1.188491E+0	1.248877E+0	1.323165E+0	1.284714E+0	1.215824E+0	1.349312E+0	1.251451E+0	1.292470E+0	1.280690E+0	1.269470E+0	1.183644E+0	1.272977E+0	1.265122E+0	1.269300E+0	1.236273E+0	1.187099E+0	1.294106E+0	1.281155E+0	1.256016E+0	1.315787E+0	1.269048E+0	1.321342E+0	1.229937E+0
2.975020E+2	1.003982E+0	1.005941E+0	1.022080E+0	1.011567E+0	9.762090E-1	1.022353E+0	9.245276E-1	1.086882E+0	9.726606E-1	1.029860E+0	1.002261E+0	1.002845E+0	9.934848E-1	1.104115E+0	1.045448E+0	1.034429E+0	9.853498E-1	9.069242E-1	1.039928E+0	1.032323E+0	1.023122E+0	1.015989E+0	9.973048E-1	1.006864E+0	1.056751E+0	1.021133E+0	1.006922E+0	9.974575E-1	1.030401E+0	1.016267E+0	1.026407E+0	9.793262E-1	9.720833E-1	1.051040E+0	1.011364E+0	9.975644E-1	1.030082E+0	9.920204E-1	9.707695E-1	1.032106E+0	9.941303E-1	9.709871E-1	1.013631E+0	1.056823E+0	1.003659E+0	1.046369E+0	9.928058E-1	1.046499E+0	9.568656E-1	1.029797E+0	9.482762E-1	1.020300E+0	9.686967E-1	1.004197E+0	9.993141E-1	1.055345E+0	9.959541E-1	9.963337E-1	9.822022E-1	1.044067E+0	1.029541E+0	1.043826E+0	9.700904E-1	9.756661E-1	1.002539E+0	1.045863E+0	9.558861E-1	9.836374E-1	9.813847E-1	1.034616E+0	1.071101E+0	1.013112E+0	9.980352E-1	1.015633E+0	1.028069E+0	1.012930E+0	1.013305E+0	1.032624E+0	1.024720E+0	1.009762E+0	9.676740E-1	9.778542E-1	1.047431E+0	1.037012E+0	9.809096E-1	1.023393E+0	1.031495E+0	1.036813E+0	1.004505E+0	9.348369E-1	9.683994E-1	9.691498E-1	9.742984E-1	1.048829E+0	9.680433E-1	9.862620E-1	1.033496E+0	9.702432E-1	9.584555E-1	9.889257E-1	9.912026E-1	1.004338E+0	1.025223E+0	9.416651E-1	9.451977E-1	1.006394E+0	1.021770E+0	1.043792E+0	1.049603E+0	1.003809E+0	9.919835E-1	9.841264E-1	1.064720E+0	1.014161E+0	9.835448E-1	1.017589E+0	1.013896E+0	1.020420E+0	1.001721E+0	1.024650E+0	9.917374E-1	9.834863E-1	9.793512E-1	1.017744E+0	1.018260E+0	1.001881E+0	1.006612E+0	9.862560E-1	9.369712E-1	9.980003E-1	9.478010E-1	1.093196E+0	9.641834E-1	1.001357E+0	9.826544E-1	1.021442E+0	1.022399E+0	9.417273E-1	1.029177E+0	1.018780E+0	1.030297E+0	1.022451E+0	1.032070E+0	1.044122E+0	1.006491E+0	1.042637E+0	9.757353E-1	9.863907E-1	1.062634E+0	9.840737E-1	9.867821E-1	1.008569E+0	9.831291E-1	1.053932E+0	1.019333E+0	1.022211E+0	1.031322E+0	1.008331E+0	9.913840E-1	1.019212E+0	9.920368E-1	9.562592E-1	1.048195E+0	9.861333E-1	9.928472E-1	9.792931E-1	1.039266E+0	1.070081E+0	1.038481E+0	9.366220E-1	9.719098E-1
2.980040E+2	1.056074E+0	1.089339E+0	1.007407E+0	1.052710E+0	1.015817E+0	1.066302E+0	1.099700E+0	9.983482E-1	9.877629E-1	1.010139E+0	1.027834E+0	1.057051E+0	1.079885E+0	1.039271E+0	1.078369E+0	1.027562E+0	1.013767E+0	1.101129E+0	1.042973E+0	9.867309E-1	9.939875E-1	9.915326E-1	1.062031E+0	1.034989E+0	9.989850E-1	1.002761E+0	1.072110E+0	1.054819E+0	1.044575E+0	1.049361E+0	1.014486E+0	1.021733E+0	1.141659E+0	1.038825E+0	1.028591E+0	1.078337E+0	1.052657E+0	1.029056E+0	1.009041E+0	1.058866E+0	1.037485E+0	1.003744E+0	1.053456E+0	1.058603E+0	1.053202E+0	1.042574E+0	1.037418E+0	1.004147E+0	1.149917E+0	1.050275E+0	1.087236E+0	1.029529E+0	1.054914E+0	1.064888E+0	1.022926E+0	1.030501E+0	9.850552E-1	1.067035E+0	1.049147E+0	9.948698E-1	1.040978E+0	1.057133E+0	1.060843E+0	1.062162E+0	1.015941E+0	1.028130E+0	1.035596E+0	1.071643E+0	1.022739E+0	1.045760E+0	1.000229E+0	1.059642E+0	1.007769E+0	1.019492E+0	1.038779E+0	1.056748E+0	1.022446E+0	1.055273E+0	1.069375E+0	1.055883E+0	1.090191E+0	1.078692E+0	1.018844E+0	1.043724E+0	1.036354E+0	1.078840E+0	9.867976E-1	1.091181E+0	1.057176E+0	1.113062E+0	1.087277E+0	1.072977E+0	1.049434E+0	1.012012E+0	1.065243E+0	1.042733E+0	1.026129E+0	1.058789E+0	1.079905E+0	1.029048E+0	1.095768E+0	1.016713E+0	1.041430E+0	1.073010E+0	1.031161E+0	1.020325E+0	1.043137E+0	9.659911E-1	1.033460E+0	1.085899E+0	1.041216E+0	1.070093E+0	1.044844E+0	1.060774E+0	1.060684E+0	1.050366E+0	1.042195E+0	1.059544E+0	9.926339E-1	1.096124E+0	1.058061E+0	1.043354E+0	1.047659E+0	9.753516E-1	1.047578E+0	1.030402E+0	1.055928E+0	1.119072E+0	1.083003E+0	1.013631E+0	1.108689E+0	9.954871E-1	1.056438E+0	1.051233E+0	1.075403E+0	1.045197E+0	1.000809E+0	1.147890E+0	1.036867E+0	1.076836E+0	1.038914E+0	1.026162E+0	1.034055E+0	1.054148E+0	1.019742E+0	9.865009E-1	1.083866E+0	1.040958E+0	1.022322E+0	1.097512E+0	1.036603E+0	1.029898E+0	1.054227E+0	1.040173E+0	1.066000E+0	1.060680E+0	1.063857E+0	1.003246E+0	1.046036E+0	1.004421E+0	1.024541E+0	1.065571E+0	1.077199E+0	1.058137E+0	1.041278E+0	1.052636E+0	1.052143E+0	1.085484E+0	1.046593E+0	1.122396E+0	1.023098E+0
2.985020E+2	9.810010E-1	1.102535E+0	1.018477E+0	1.115123E+0	1.061502E+0	1.089814E+0	1.079068E+0	1.045375E+0	1.044069E+0	1.081159E+0	1.020127E+0	1.078819E+0	1.035424E+0	1.020367E+0	1.015094E+0	1.060605E+0	1.105520E+0	1.079941E+0	1.053352E+0	1.053532E+0	1.118907E+0	1.095450E+0	1.069987E+0	1.051164E+0	1.041835E+0	1.115695E+0	1.024427E+0	1.086713E+0	1.049592E+0	1.073118E+0	1.054601E+0	1.041305E+0	1.035532E+0	9.857617E-1	1.063846E+0	1.058578E+0	1.047952E+0	1.093265E+0	1.022584E+0	1.045369E+0	1.074608E+0	1.033897E+0	1.038717E+0	1.036811E+0	1.042484E+0	1.098017E+0	1.110162E+0	1.068335E+0	1.007818E+0	1.079669E+0	1.146030E+0	1.095931E+0	1.147950E+0	1.010511E+0	1.061046E+0	1.017488E+0	1.065526E+0	1.086109E+0	1.060880E+0	1.027217E+0	1.053826E+0	1.049503E+0	1.073997E+0	1.043413E+0	1.117850E+0	1.025056E+0	1.082310E+0	1.063424E+0	1.103704E+0	1.041601E+0	1.059606E+0	1.069199E+0	1.030700E+0	1.028893E+0	1.049018E+0	1.069599E+0	1.041201E+0	1.091497E+0	1.037138E+0	1.043246E+0	9.947490E-1	1.021284E+0	1.051236E+0	1.110137E+0	1.087057E+0	1.067360E+0	1.027539E+0	1.044100E+0	1.024139E+0	1.049804E+0	1.064749E+0	1.060226E+0	1.039744E+0	1.112064E+0	1.025172E+0	1.042152E+0	1.078403E+0	1.030829E+0	1.056528E+0	1.053752E+0	1.092194E+0	1.084629E+0	1.109005E+0	9.904862E-1	1.084833E+0	1.036808E+0	1.048575E+0	1.162403E+0	1.088660E+0	1.042397E+0	1.084354E+0	1.077947E+0	1.053170E+0	1.079373E+0	1.049460E+0	1.091922E+0	1.094953E+0	1.049798E+0	1.091727E+0	1.014312E+0	1.056656E+0	1.105409E+0	1.041104E+0	1.133099E+0	1.041946E+0	1.044476E+0	1.063566E+0	1.047275E+0	1.025324E+0	1.032182E+0	1.062106E+0	1.014471E+0	1.036570E+0	1.097374E+0	1.088439E+0	1.061136E+0	1.115613E+0	1.102827E+0	1.053673E+0	1.083087E+0	1.022661E+0	1.017165E+0	1.084824E+0	1.054197E+0	1.032889E+0	1.075832E+0	1.017328E+0	1.055840E+0	1.036132E+0	1.125838E+0	1.092218E+0	1.070589E+0	1.091049E+0	1.090098E+0	1.043974E+0	1.041440E+0	1.008859E+0	1.038549E+0	1.070713E+0	1.029575E+0	1.104538E+0	1.043841E+0	9.843528E-1	1.016528E+0	1.055718E+0	1.136340E+0	1.093031E+0	1.051953E+0	1.041496E+0	1.048404E+0	1.095524E+0
2.990020E+2	1.071110E+0	1.037085E+0	1.149533E+0	1.058694E+0	1.089649E+0	1.095261E+0	1.100456E+0	1.078414E+0	1.115967E+0	1.034870E+0	1.111699E+0	1.073292E+0	1.060346E+0	1.034949E+0	1.051210E+0	1.062562E+0	1.069071E+0	1.065512E+0	1.073928E+0	1.081765E+0	1.024558E+0	1.119847E+0	1.059657E+0	1.114091E+0	1.123316E+0	1.063726E+0	1.088671E+0	1.114296E+0	1.080190E+0	1.056631E+0	1.103999E+0	1.120084E+0	1.078338E+0	1.062562E+0	1.107568E+0	9.838137E-1	1.098339E+0	1.123985E+0	1.088915E+0	1.015148E+0	1.074355E+0	1.108788E+0	1.013286E+0	1.061193E+0	1.044624E+0	1.029408E+0	1.108683E+0	1.081555E+0	1.076342E+0	1.034484E+0	1.092883E+0	1.115531E+0	1.030946E+0	1.110444E+0	1.101190E+0	1.061614E+0	1.134519E+0	1.045776E+0	1.065251E+0	1.152930E+0	1.101502E+0	1.081744E+0	1.091747E+0	1.056644E+0	1.093980E+0	1.028087E+0	1.092898E+0	1.043018E+0	1.119073E+0	1.050718E+0	1.074190E+0	1.045751E+0	1.174974E+0	1.103983E+0	1.101992E+0	1.091586E+0	1.126243E+0	1.059645E+0	1.020949E+0	1.066217E+0	1.113587E+0	1.151019E+0	1.026668E+0	9.926200E-1	1.077457E+0	1.050288E+0	1.101062E+0	1.068823E+0	1.111208E+0	1.117696E+0	1.017144E+0	1.047653E+0	1.126307E+0	1.062133E+0	1.138329E+0	1.037744E+0	1.066276E+0	1.052686E+0	1.070527E+0	1.085699E+0	1.082284E+0	1.073337E+0	9.945828E-1	1.161643E+0	1.053133E+0	1.118376E+0	1.008367E+0	1.031568E+0	1.077825E+0	1.092652E+0	1.061850E+0	1.051777E+0	1.086172E+0	1.067699E+0	1.105293E+0	1.040589E+0	1.062161E+0	1.105974E+0	1.074969E+0	1.061730E+0	1.049872E+0	1.051287E+0	1.108725E+0	1.029678E+0	1.118213E+0	1.089699E+0	1.059218E+0	1.050781E+0	1.098434E+0	1.087729E+0	1.063866E+0	1.050408E+0	1.056850E+0	1.057184E+0	1.119689E+0	1.036350E+0	1.081653E+0	1.093384E+0	1.075874E+0	1.048132E+0	1.107724E+0	1.044129E+0	1.049510E+0	1.042300E+0	1.087417E+0	1.055382E+0	1.063237E+0	1.077798E+0	1.093747E+0	1.024842E+0	1.041433E+0	1.056860E+0	1.070936E+0	1.061834E+0	1.064653E+0	1.070586E+0	1.034306E+0	1.097393E+0	1.094953E+0	1.120409E+0	1.112093E+0	1.107095E+0	1.004315E+0	1.086694E+0	1.119494E+0	1.058280E+0	1.043437E+0	1.067774E+0	1.102222E+0	1.001742E+0	1.044803E+0
2.995040E+2	1.009258E+0	9.494825E-1	1.024468E+0	9.936619E-1	9.967429E-1	9.462883E-1	1.001875E+0	9.931561E-1	1.033770E+0	1.008093E+0	1.009478E+0	9.810837E-1	9.856777E-1	1.024091E+0	9.943990E-1	1.026668E+0	9.873426E-1	1.039874E+0	9.885983E-1	1.029123E+0	1.038992E+0	9.876150E-1	9.979163E-1	1.001152E+0	9.847467E-1	9.572304E-1	1.001762E+0	9.636357E-1	9.863102E-1	1.016999E+0	9.411815E-1	1.030236E+0	9.812308E-1	1.009751E+0	9.880851E-1	1.002598E+0	1.027324E+0	9.741309E-1	1.030543E+0	1.025357E+0	1.014877E+0	1.052150E+0	1.016662E+0	9.893273E-1	1.003401E+0	9.726363E-1	9.755782E-1	9.856419E-1	9.883756E-1	9.923342E-1	9.796748E-1	9.612185E-1	1.008462E+0	9.410826E-1	9.419401E-1	1.022817E+0	9.733127E-1	9.744796E-1	9.787778E-1	9.633084E-1	9.773070E-1	1.015780E+0	1.012734E+0	1.060440E+0	9.669349E-1	1.012818E+0	9.968206E-1	9.708347E-1	9.500161E-1	1.042409E+0	9.829306E-1	9.779321E-1	9.829836E-1	9.838728E-1	9.486228E-1	9.955037E-1	9.865513E-1	9.721530E-1	1.005344E+0	1.010313E+0	9.697202E-1	9.651554E-1	1.035892E+0	1.003183E+0	1.001600E+0	9.712501E-1	1.037906E+0	9.608788E-1	9.997484E-1	9.882576E-1	1.017355E+0	9.872101E-1	9.688946E-1	9.650302E-1	9.921683E-1	1.044085E+0	9.732838E-1	1.035544E+0	9.875442E-1	1.016349E+0	9.431315E-1	9.858778E-1	9.835313E-1	1.006575E+0	1.040644E+0	1.000970E+0	1.049358E+0	9.941254E-1	9.417557E-1	9.962364E-1	1.045106E+0	1.017695E+0	9.299734E-1	1.005407E+0	9.913147E-1	9.954455E-1	9.837911E-1	9.587704E-1	1.027015E+0	9.650899E-1	1.006891E+0	9.821002E-1	1.000643E+0	1.025322E+0	9.336455E-1	1.008468E+0	9.679593E-1	9.745201E-1	1.028374E+0	1.066388E+0	1.021917E+0	9.898610E-1	1.012346E+0	9.587305E-1	9.304190E-1	1.030621E+0	9.719709E-1	9.149507E-1	9.780439E-1	9.770656E-1	1.021786E+0	1.030424E+0	9.955220E-1	9.911770E-1	1.018875E+0	1.046630E+0	1.001977E+0	9.721750E-1	9.325068E-1	9.936929E-1	1.007536E+0	9.603815E-1	1.004756E+0	9.843213E-1	1.005229E+0	1.020890E+0	1.014379E+0	1.004474E+0	1.007228E+0	9.945095E-1	1.004730E+0	9.799641E-1	1.037985E+0	9.856139E-1	9.571278E-1	9.675696E-1	9.556305E-1	9.219718E-1	9.716976E-1	1.055092E+0	1.011406E+0
3.000060E+2	8.785738E-1	8.156173E-1	7.780359E-1	7.682438E-1	8.600799E-1	7.799816E-1	7.943738E-1	7.978247E-1	8.457706E-1	8.358792E-1	8.286023E-1	8.069081E-1	8.451824E-1	7.772063E-1	8.154797E-1	7.881735E-1	8.389500E-1	8.066195E-1	8.012198E-1	8.165258E-1	8.004339E-1	7.895671E-1	8.131031E-1	7.917398E-1	7.943659E-1	8.394536E-1	8.061082E-1	7.830795E-1	8.089325E-1	7.876240E-1	8.593248E-1	8.073147E-1	7.911576E-1	8.520615E-1	8.005466E-1	8.791088E-1	7.436462E-1	7.875434E-1	8.781485E-1	8.231540E-1	8.045443E-1	8.304341E-1	8.642474E-1	7.972429E-1	8.526298E-1	8.109952E-1	7.753528E-1	8.138217E-1	8.206815E-1	8.134408E-1	7.459000E-1	7.774892E-1	7.890314E-1	8.688773E-1	8.735849E-1	8.122349E-1	8.456332E-1	8.302668E-1	8.637421E-1	8.176075E-1	7.968454E-1	7.520143E-1	7.905896E-1	8.016744E-1	8.027539E-1	8.600469E-1	8.364888E-1	8.674433E-1	8.230832E-1	7.848965E-1	8.119435E-1	8.343633E-1	8.055378E-1	8.481263E-1	8.335193E-1	7.736335E-1	8.102536E-1	7.888086E-1	8.424738E-1	8.145787E-1	8.640789E-1	8.059951E-1	8.199287E-1	8.133247E-1	8.166226E-1	8.088683E-1	8.152006E-1	7.982041E-1	8.032227E-1	7.963431E-1	8.450757E-1	8.627840E-1	8.413216E-1	7.999325E-1	8.110452E-1	8.470228E-1	8.224126E-1	8.519098E-1	8.470402E-1	8.262265E-1	7.954200E-1	8.351054E-1	8.462280E-1	8.266218E-1	8.450311E-1	8.171272E-1	8.287925E-1	8.021205E-1	8.086953E-1	7.790070E-1	7.754907E-1	7.983611E-1	8.211203E-1	7.725862E-1	8.097038E-1	8.040883E-1	8.030043E-1	8.054939E-1	8.119344E-1	8.380938E-1	8.367826E-1	8.343633E-1	8.225178E-1	8.188061E-1	8.403570E-1	8.250738E-1	8.467171E-1	8.220956E-1	8.278933E-1	8.020698E-1	7.956215E-1	8.565764E-1	8.736119E-1	8.341211E-1	8.033946E-1	8.052539E-1	8.075556E-1	7.992203E-1	8.263639E-1	7.960989E-1	7.786177E-1	8.596695E-1	8.040194E-1	8.140555E-1	8.345858E-1	7.930178E-1	8.578568E-1	8.668392E-1	8.526579E-1	7.740412E-1	8.354275E-1	8.737016E-1	7.959026E-1	7.696419E-1	8.008115E-1	7.841925E-1	8.472771E-1	8.480067E-1	7.896857E-1	8.318733E-1	7.620624E-1	8.472698E-1	8.479528E-1	8.668938E-1	8.335355E-1	8.058820E-1	8.164922E-1	8.027361E-1	7.995108E-1	8.357448E-1	8.532588E-1
