Photon Energy (eV)	#1	#2	#3	#4	#5	#6	#7	#8	#9	#10	#11	#12	#13	#14	#15	#16	#17	#18	#19	#20	#21	#22	#23	#24	#25	#26	#27	#28	#29	#30	#31	#32	#33	#34	#35	#36	#37	#38	#39	#40	#41	#42	#43	#44	#45	#46	#47	#48	#49	#50	#51	#52	#53	#54	#55	#56	#57	#58	#59	#60	#61	#62	#63	#64	#65	#66	#67	#68	#69	#70	#71	#72	#73	#74	#75	#76	#77	#78	#79	#80	#81	#82	#83	#84	#85	#86	#87	#88	#89	#90	#91	#92	#93	#94	#95	#96	#97	#98	#99	#100	#101	#102	#103	#104	#105	#106	#107	#108	#109	#110	#111	#112	#113	#114	#115	#116	#117	#118	#119	#120	#121	#122	#123	#124	#125	#126	#127	#128	#129	#130	#131	#132	#133	#134	#135	#136	#137	#138	#139	#140	#141	#142	#143	#144	#145	#146	#147	#148	#149	#150	#151	#152	#153	#154	#155	#156	#157	#158	#159	#160	#161	#162	#163	#164	#165	#166	#167	#168	#169	#170	#171	
2.790040E+2	1.817823E-3	-4.655823E-3	-9.856910E-3	1.256586E-3	2.860146E-3	6.081782E-3	2.192441E-3	1.570373E-2	2.352958E-3	1.662072E-3	-1.268984E-2	-1.232743E-3	-6.641650E-3	9.520392E-3	-1.980198E-2	9.584651E-3	3.367638E-3	2.607759E-3	3.846538E-3	-1.300384E-2	2.341943E-3	-4.076601E-3	2.111160E-3	-1.131013E-3	-8.791910E-4	-1.312997E-2	-4.767724E-4	3.518837E-3	-8.233748E-3	-1.687644E-3	-7.323293E-3	-1.007686E-2	1.945312E-2	6.694500E-4	-8.470932E-3	-6.853878E-3	-2.733000E-3	1.972718E-3	9.653285E-3	-4.024648E-3	1.168352E-2	-5.709239E-3	-5.199293E-3	4.311401E-3	-7.078778E-3	5.213819E-3	-1.182333E-2	6.536874E-3	-4.424365E-3	1.995575E-3	4.149390E-3	-4.482643E-3	5.352667E-4	6.153665E-3	-1.508728E-2	-1.724056E-2	-8.893539E-3	-4.400280E-3	-9.712374E-3	-1.132937E-3	-9.094606E-3	1.765520E-2	-1.082247E-2	-3.958441E-3	-8.789364E-3	4.200761E-3	-1.307794E-3	-3.984827E-3	-3.353409E-3	-1.564873E-2	-4.396425E-3	-8.498603E-3	7.211131E-3	-3.039261E-3	-5.723831E-4	-1.846565E-2	2.696656E-3	8.926257E-3	3.821040E-3	-2.263729E-3	-7.723585E-3	1.367458E-3	-2.788948E-3	-1.771676E-2	-1.179621E-2	-2.586308E-3	5.120461E-3	9.286259E-3	4.832282E-3	6.198890E-3	-7.312052E-3	-1.406780E-2	5.377310E-3	-2.554598E-4	1.184687E-3	-8.349698E-3	1.198590E-2	4.917324E-3	5.488548E-3	4.749666E-3	2.857418E-3	4.083579E-3	-5.809327E-3	-3.915254E-3	-5.481880E-3	5.112671E-3	-2.167786E-3	-2.206892E-3	-5.137215E-3	-6.752686E-3	-1.382481E-2	-8.278104E-3	2.576920E-3	-4.519812E-3	-7.016812E-3	3.451566E-3	-1.587011E-2	-1.165516E-2	-1.018292E-2	-8.620277E-3	-1.045887E-2	1.564241E-2	8.336264E-3	2.905655E-3	4.074011E-3	-2.248557E-3	5.293071E-3	1.145271E-3	1.431022E-2	-5.323357E-3	-2.868799E-4	7.447075E-3	-1.166167E-2	-6.272905E-3	7.236022E-3	1.339400E-3	4.625364E-3	4.415063E-4	-9.532980E-4	-5.714289E-3	-5.563230E-3	-1.419267E-2	2.774629E-3	-1.399443E-2	-7.425407E-3	-1.182774E-2	-1.726455E-3	-7.529880E-4	-9.608195E-3	-1.078645E-2	-3.329656E-3	-9.609632E-3	1.430331E-3	-1.021404E-2	-9.724420E-3	-1.064629E-2	-8.699248E-3	-7.661655E-3	-1.308183E-2	2.147411E-3	-6.074020E-3	-2.701544E-3	-1.688555E-3	-3.846847E-3	6.364731E-3	-8.334384E-3	-6.410486E-4	-4.667702E-3	1.595623E-2	-3.556421E-3	-2.306764E-2
2.795020E+2	-1.393662E-2	-3.454309E-3	-1.875992E-2	-5.026191E-3	-4.085942E-4	1.658686E-3	-8.331309E-3	5.037038E-3	-1.294117E-2	-1.274234E-2	-1.153618E-3	-4.931147E-3	2.598920E-3	-1.360015E-3	-4.400455E-3	3.367588E-3	-1.122514E-3	-7.823361E-3	-7.988965E-3	1.494845E-4	-7.806032E-4	-1.111792E-3	-1.357194E-2	-3.393100E-3	-6.740246E-3	2.469986E-3	7.152370E-3	-2.600875E-3	-6.108933E-3	-7.919020E-3	5.459119E-3	-2.346670E-3	-1.224318E-3	-8.970416E-3	1.866484E-3	1.675415E-3	-1.318964E-2	-9.863760E-4	-5.574411E-3	-4.024573E-3	3.186429E-3	-1.460503E-3	-1.097637E-2	-1.635354E-3	-1.415814E-3	-4.170997E-3	-9.512586E-4	1.949644E-3	-1.268315E-2	5.416694E-3	-1.007707E-2	5.603310E-3	4.817087E-3	-1.309289E-4	-3.254089E-3	-1.541817E-3	2.868771E-4	2.413025E-3	4.926534E-3	1.132930E-2	-7.881983E-3	-1.439959E-2	9.740220E-3	-8.300347E-9	2.551772E-3	-5.982954E-3	-4.795347E-3	5.692818E-4	1.274309E-2	-3.819729E-3	-6.594597E-3	5.311637E-3	-1.541217E-2	-8.324865E-3	8.586110E-3	-1.125959E-2	4.257415E-4	-5.355809E-3	-1.692139E-2	-4.394324E-3	-2.106480E-3	1.340147E-2	-3.851429E-3	-1.464607E-4	1.129424E-2	-1.020921E-2	5.120433E-3	-1.843384E-2	-6.902837E-4	-2.066376E-3	2.621252E-3	1.332746E-3	-2.150955E-3	-8.430565E-3	8.555998E-3	1.505646E-3	7.050510E-4	-7.446245E-3	4.362738E-3	-2.374780E-3	-1.272842E-2	2.402233E-4	5.525928E-3	-7.155378E-3	-6.606374E-3	-3.730802E-3	1.401802E-2	-6.914816E-3	1.185519E-3	-6.752753E-3	-7.564580E-3	3.863153E-3	1.364280E-3	8.910476E-3	-1.913673E-3	-1.035473E-2	2.736306E-3	5.763551E-3	1.097637E-2	-1.427292E-2	8.762821E-3	3.877247E-3	8.336213E-3	-3.211481E-3	-7.164602E-3	-7.539348E-3	-1.573627E-3	-1.616124E-2	-1.250398E-3	1.478705E-2	-1.176022E-2	1.606274E-3	1.288926E-2	-2.090919E-3	-5.759285E-3	-1.259041E-2	3.568170E-3	-1.250919E-2	1.684148E-2	-1.025621E-3	-1.012789E-2	-1.826795E-3	-2.158084E-3	-2.265736E-3	-1.348686E-2	-1.065954E-2	-1.208510E-2	4.066079E-3	-5.086682E-3	-8.297154E-4	-1.906971E-2	7.329401E-3	2.860878E-4	-1.245281E-2	1.215558E-2	7.347373E-3	3.728226E-3	-6.280299E-4	-3.346581E-3	5.368612E-3	-7.178292E-3	-2.701489E-3	-2.916666E-3	-1.154062E-2	-1.134576E-2	-5.257106E-3	-7.051298E-3	2.000397E-3	-9.214099E-3	-1.390239E-2	2.549587E-2
2.799980E+2	-1.817840E-3	-1.667084E-2	-7.313158E-3	1.759165E-2	-1.021474E-2	1.658700E-3	-5.992681E-3	-1.155559E-2	-3.529422E-3	-6.094138E-3	6.921746E-3	-4.931215E-3	-2.281259E-2	-4.624209E-3	-8.800898E-3	-1.813267E-3	-8.980353E-3	2.607798E-3	-1.982443E-2	1.210700E-2	-8.066585E-3	-6.053119E-3	-5.127126E-3	1.017912E-2	2.930601E-4	-1.689956E-3	-9.377450E-3	9.638443E-3	-1.859205E-3	1.077502E-2	-1.158401E-2	2.070537E-3	-5.577470E-3	-5.757136E-3	7.178592E-4	-5.635332E-3	7.723708E-3	-1.282261E-2	-1.645138E-2	-1.804118E-3	-4.248572E-3	-3.584907E-3	-6.354712E-3	-5.203434E-3	-1.415738E-3	-6.256568E-3	-4.212892E-3	-1.456476E-2	-2.064635E-3	-2.565865E-3	-1.363367E-2	-3.361968E-3	-5.352618E-4	-2.225817E-3	-6.804040E-3	7.007997E-4	-1.233625E-2	-1.234915E-2	-5.208079E-3	-1.132930E-2	-5.456745E-3	-1.439963E-2	1.082282E-3	-2.037358E-8	-9.923469E-3	-3.946168E-3	-7.120402E-3	-9.677403E-3	2.012065E-3	2.094736E-3	-1.099104E-2	-1.805950E-2	-7.069981E-4	-8.324852E-3	-1.774471E-2	9.157727E-3	1.561244E-3	-6.375911E-3	-6.004342E-3	-4.394330E-3	-8.847026E-3	-4.102495E-3	-1.022619E-2	-8.345976E-3	-1.781979E-2	-1.020919E-2	-2.105066E-2	-1.067222E-2	1.518700E-3	-7.970055E-3	7.036088E-3	-8.144490E-3	-8.603650E-3	-1.251810E-2	-4.080542E-3	4.106290E-4	-2.185664E-2	2.669382E-3	-1.928036E-2	-9.499314E-3	5.974519E-3	-9.368286E-3	1.005999E-2	1.012555E-2	2.389534E-3	8.428906E-3	-6.792211E-3	-1.279980E-2	2.239285E-3	4.272119E-3	7.825226E-4	-8.278144E-3	-5.911730E-3	1.678804E-3	5.230698E-3	-4.602060E-3	5.472098E-4	-1.063060E-2	-1.229886E-2	-9.750804E-3	4.240100E-3	-1.002719E-2	-2.197746E-2	-6.881758E-3	-1.503161E-2	-3.306690E-3	-1.573599E-3	-1.005302E-2	-9.030732E-3	-2.957389E-3	-1.176023E-2	-7.739134E-3	1.104774E-3	-8.363824E-3	-8.122115E-3	-1.366194E-2	-9.118579E-3	-3.090530E-3	-6.037554E-3	-8.058584E-3	5.848483E-3	-7.026029E-4	-1.448977E-2	3.065439E-3	-9.849981E-3	1.270379E-2	-7.481248E-3	-4.367255E-3	-3.956316E-3	2.765853E-4	5.145778E-3	-8.306648E-3	-1.115668E-2	-3.497955E-3	-8.508931E-3	-4.648354E-3	-9.941949E-3	-3.642467E-3	-5.780301E-3	1.073734E-2	-1.656616E-3	-2.701572E-3	1.995648E-3	-1.648708E-3	-3.597383E-3	-6.282857E-3	-5.769242E-3	-7.334947E-3	-9.214165E-3	4.203033E-3	1.092676E-2
2.805030E+2	7.877233E-3	2.553157E-3	5.405456E-3	-2.136129E-2	7.218369E-3	-7.187586E-3	-4.823442E-3	-4.444432E-3	1.058820E-2	6.094205E-3	3.460833E-3	-2.095746E-2	1.068434E-2	-7.888310E-3	2.200194E-3	-4.921849E-3	7.857756E-3	-4.694042E-3	2.662942E-3	3.736732E-3	-9.107493E-3	3.829510E-3	-1.115918E-2	-3.393024E-3	-2.051342E-3	5.589929E-3	-5.562983E-3	-1.116833E-2	8.764892E-3	-2.726190E-3	-9.320320E-4	-1.007681E-2	-1.428375E-2	6.694565E-4	-6.173716E-3	-9.290761E-3	2.019999E-3	2.959095E-3	-1.359616E-4	-1.804166E-3	1.062152E-3	-1.460529E-3	-4.043873E-3	-4.459582E-4	3.114640E-3	4.171069E-3	1.644393E-2	6.536963E-3	-1.150326E-2	-4.846467E-3	-1.126261E-2	-8.965275E-3	1.605691E-3	-5.368098E-3	3.845734E-3	1.303555E-2	1.750016E-2	-8.942532E-3	-7.460227E-3	-2.265892E-3	1.818969E-3	1.627816E-3	-1.406926E-2	1.979218E-2	1.049047E-2	1.145667E-3	-1.307829E-3	1.081594E-2	-8.718967E-3	-1.269151E-2	-1.318922E-2	-6.374001E-3	7.211179E-3	1.387483E-2	-4.006841E-3	-4.503687E-4	-7.096362E-4	-2.550200E-4	2.729300E-3	-2.263716E-3	-3.229846E-3	-4.102475E-3	-1.128873E-2	1.039583E-2	6.274593E-3	5.036470E-3	-9.671935E-3	-1.801816E-3	-4.003927E-3	-6.789298E-3	-7.312045E-3	1.332710E-3	-6.452778E-3	1.507283E-2	-1.145185E-2	1.505640E-3	-7.191527E-3	-1.194208E-2	9.851135E-4	-1.086483E-8	-1.376741E-2	5.044434E-3	-1.714449E-2	4.725226E-3	9.136473E-3	-4.145808E-4	-6.792232E-3	1.191709E-2	-3.029594E-3	-4.547768E-3	1.017299E-2	-1.655611E-3	-3.486502E-3	7.877439E-3	1.033380E-2	1.150511E-3	1.587011E-2	3.714333E-3	-3.835198E-3	1.512087E-2	1.978687E-3	-6.818517E-3	4.698587E-3	-9.328661E-3	1.826272E-3	7.274815E-3	-1.573585E-3	1.132558E-2	-1.125362E-2	-7.689267E-3	-2.867819E-4	3.942553E-3	-5.769497E-3	1.045528E-3	-2.215095E-3	-4.018258E-3	3.964067E-4	6.328238E-3	1.175720E-2	-1.025671E-3	1.283824E-3	-7.025892E-4	-7.090723E-3	9.329962E-4	8.334657E-3	-1.314149E-3	1.438708E-2	-3.162485E-3	-5.651685E-4	-5.254898E-3	-2.391283E-2	-7.003657E-3	-4.290996E-3	-1.399185E-4	-9.724398E-3	1.349612E-3	-4.971013E-3	3.767456E-4	-2.129631E-3	-7.516131E-3	-8.282739E-3	-3.839050E-3	6.907790E-3	5.495180E-4	6.364718E-3	-6.282901E-3	5.769279E-3	-2.000425E-3	1.236043E-2	-6.142901E-3	-1.821132E-2
2.810040E+2	-6.665347E-3	3.754700E-3	1.176465E-2	-6.282786E-3	-2.587746E-3	-1.161082E-2	-3.654089E-3	2.963172E-4	-1.176469E-2	-7.202283E-3	4.614539E-3	8.629508E-3	-1.819232E-2	-6.800265E-3	2.200214E-3	-6.994216E-3	-8.980332E-3	1.095271E-2	-6.805391E-3	-7.025026E-3	2.341867E-3	-5.064809E-3	9.048060E-4	4.524057E-3	1.084303E-2	3.509942E-3	-5.562883E-3	-8.720504E-3	-5.046499E-3	-9.996051E-3	-8.388437E-3	-4.555267E-3	-6.665755E-3	6.694173E-4	-1.579300E-3	1.675415E-3	-9.387198E-3	8.877211E-3	2.039430E-3	-7.355310E-3	-3.186427E-3	-3.584874E-3	-9.820901E-3	6.690092E-3	5.379901E-3	4.171018E-3	2.310322E-3	-1.089490E-2	1.091342E-2	-3.706180E-3	6.520479E-3	-1.344787E-2	-6.958074E-3	-1.374770E-2	-1.153731E-2	-9.391213E-3	2.868771E-4	-3.264698E-3	-9.712354E-3	7.930494E-3	9.094572E-3	1.627829E-3	1.082335E-3	-3.958417E-3	-6.521105E-3	-2.927766E-3	-1.307801E-3	1.081592E-2	-6.572749E-3	8.994940E-3	-6.594557E-3	1.168554E-2	-4.100473E-3	-1.982122E-3	-8.586143E-3	-4.053414E-3	-1.845097E-3	-5.355765E-3	9.279421E-3	3.062666E-3	3.510783E-3	-1.914530E-3	-1.660103E-2	-9.517312E-3	7.278511E-3	6.806066E-4	5.689007E-4	-5.128232E-3	-6.212924E-3	5.018212E-3	1.365836E-2	8.440664E-3	2.150947E-3	1.200714E-2	1.316041E-4	-2.874450E-3	7.050648E-4	4.214879E-4	-2.392435E-3	-2.535127E-8	-2.337881E-3	-6.485732E-3	8.926498E-3	-4.995258E-3	1.405447E-4	6.909073E-4	1.170576E-2	-1.279976E-2	-1.251375E-2	-2.342790E-3	7.042869E-3	-5.518674E-4	1.515513E-4	-4.519831E-3	-1.913648E-3	2.301070E-3	-1.039768E-2	2.689639E-3	-1.719184E-3	1.554481E-3	9.893541E-3	6.684788E-4	-5.001759E-3	1.024620E-2	-2.669172E-3	-1.494646E-2	9.870753E-3	-4.962873E-3	-4.584844E-3	5.914695E-4	8.605452E-4	6.278861E-3	1.227214E-4	6.272817E-3	1.476629E-4	1.339400E-3	-6.607488E-4	2.796116E-3	-9.850676E-3	-1.391940E-2	3.566254E-3	2.669864E-3	8.940504E-3	6.264132E-3	-2.576140E-3	-8.323210E-3	5.179290E-3	-7.529659E-4	-6.217000E-3	-8.296884E-4	1.604274E-2	7.329440E-3	2.574602E-3	-7.975380E-3	3.646675E-3	4.948204E-3	-9.475973E-10	1.544910E-2	3.042522E-4	-7.516079E-3	4.969669E-3	8.673435E-3	-1.151309E-2	1.703610E-2	1.937059E-3	-8.334403E-3	-1.474356E-2	6.668518E-4	-7.416271E-3	9.375992E-3	2.063937E-2
2.815070E+2	-6.059079E-4	9.762188E-3	-1.112873E-2	2.513043E-3	-2.587726E-3	-4.975998E-3	1.037768E-2	-4.444440E-3	5.882310E-3	-4.986121E-3	4.614447E-3	-1.109509E-2	1.443820E-3	5.168153E-3	2.200268E-3	-4.921805E-3	6.735222E-3	-1.825453E-2	2.662992E-3	-7.025099E-3	-7.806413E-4	-1.235365E-4	-5.127148E-3	-2.262053E-3	-1.142916E-2	7.669973E-3	-1.064902E-2	-1.239227E-2	-1.859198E-3	-9.996146E-3	2.263530E-3	2.070611E-3	5.305397E-3	7.096010E-3	-2.727953E-3	2.893775E-3	-8.318292E-4	-6.904450E-3	7.477873E-3	-6.938906E-4	-5.310685E-3	-7.833610E-3	9.820910E-3	-1.115021E-2	-2.548380E-3	-4.171055E-3	-5.300178E-3	1.949627E-3	7.373928E-3	-1.425425E-3	8.891510E-3	1.568919E-2	-4.817128E-3	4.058860E-3	2.041223E-2	7.007997E-4	-1.692647E-2	2.413004E-3	7.178627E-3	-1.132926E-2	6.062947E-4	-9.391115E-3	-4.329011E-3	-5.937630E-3	-1.984670E-3	4.200836E-3	3.342245E-3	1.707785E-3	6.304580E-3	-4.805505E-3	2.198219E-3	-4.249218E-3	-7.069636E-4	1.189282E-3	-2.862045E-3	1.276092E-2	-5.251452E-3	-2.295367E-3	-7.096149E-3	-4.394298E-3	1.811539E-2	-8.205270E-4	1.846034E-2	2.196282E-3	-4.768689E-3	-3.675330E-3	1.706867E-3	2.633447E-3	-1.794836E-3	-5.608526E-3	-1.062311E-2	4.886763E-3	-1.075496E-3	-6.386799E-3	1.276823E-2	4.106758E-4	-1.551092E-3	4.214605E-4	-1.407177E-4	-3.562234E-3	-6.494074E-3	5.044475E-3	-5.809327E-3	-3.915175E-3	-1.222886E-2	-1.519941E-3	-1.488507E-2	9.563088E-3	9.615829E-3	3.169636E-3	7.825353E-4	1.655552E-3	-3.486450E-3	-3.874139E-4	2.168874E-3	-3.451677E-3	-9.303176E-3	7.812876E-3	2.512682E-3	-2.967611E-3	-3.674755E-3	7.085892E-3	-5.001744E-3	4.129088E-3	-6.040767E-3	3.042189E-3	-1.573613E-3	1.272710E-4	9.725121E-4	-5.914713E-4	-8.318225E-3	-6.570913E-3	-7.733536E-3	-2.471250E-8	-3.396506E-3	1.205464E-2	-3.832428E-3	-1.133183E-2	-1.874802E-2	1.655677E-2	1.426541E-4	6.042433E-3	5.241020E-3	4.131690E-3	5.909950E-3	2.190339E-3	-4.028379E-3	-9.186359E-3	5.086608E-3	1.382872E-3	-6.961945E-3	2.035938E-2	2.574643E-3	1.441166E-2	7.293336E-3	-1.064625E-2	7.456476E-3	-1.632861E-3	-1.186492E-2	-6.442371E-3	5.521503E-4	8.673351E-3	7.675531E-4	-4.945953E-3	-4.704424E-3	5.000655E-3	1.987178E-2	2.000429E-3	-3.820494E-3	-1.131589E-2	1.092688E-2
2.820030E+2	4.241621E-3	1.351687E-3	1.430836E-2	1.759171E-2	1.157672E-2	4.976092E-3	3.361758E-3	-5.629636E-3	1.529409E-2	3.878125E-3	-1.153618E-3	1.232797E-2	3.032053E-2	9.520385E-3	1.760177E-2	-2.849514E-3	-1.571563E-2	3.650955E-3	1.213132E-2	3.736747E-3	5.464477E-3	1.371214E-2	8.143180E-3	-6.786041E-3	3.809685E-3	-4.809969E-3	1.478141E-2	1.208627E-2	2.390420E-3	1.492925E-2	1.504594E-2	1.642668E-2	5.305417E-3	2.811632E-3	1.679834E-2	-6.853789E-3	-8.317944E-4	3.945351E-3	6.390227E-3	1.373917E-2	3.186390E-3	1.553446E-2	1.444252E-2	-4.460235E-4	3.114660E-3	4.170993E-3	5.571888E-3	1.146879E-4	5.014240E-3	1.111856E-2	4.149375E-3	4.482560E-3	8.028588E-3	-7.463050E-3	6.212409E-3	-3.784522E-3	7.172262E-3	4.684210E-3	6.052666E-3	4.531703E-3	1.030714E-2	9.641444E-3	1.082243E-2	-2.968870E-3	1.162464E-2	4.200749E-3	1.017140E-3	-1.081595E-2	-2.280391E-3	6.037680E-3	2.308115E-2	1.062350E-3	-6.362755E-3	1.321109E-4	1.202063E-2	1.276082E-2	3.832179E-3	1.810766E-2	8.187774E-3	7.323895E-3	-9.830516E-4	-8.478398E-3	2.058522E-2	6.881747E-3	6.274618E-3	1.265947E-2	5.120440E-3	1.261260E-2	-9.526473E-3	2.656661E-3	-4.000955E-3	6.071346E-3	4.301865E-3	1.788262E-3	-1.250497E-2	-2.874524E-3	5.217364E-3	9.413257E-3	6.614435E-3	9.499321E-3	2.156032E-2	-3.603162E-3	-8.076305E-3	6.885352E-3	6.887512E-3	-9.258014E-3	1.444862E-4	1.427098E-2	1.383096E-2	5.374608E-3	-3.390997E-3	-1.655651E-3	1.364258E-3	-7.619092E-3	-1.007868E-2	-6.903186E-3	2.736233E-3	2.689633E-3	3.570705E-3	9.468131E-3	-4.805406E-3	-8.957657E-3	-1.364088E-3	1.682162E-3	1.418873E-2	5.158492E-3	-8.440228E-3	9.289566E-3	1.097576E-2	-5.323299E-3	2.380726E-2	-1.898276E-3	6.997046E-3	7.318344E-3	1.476701E-4	6.697097E-3	-2.775189E-3	-4.267870E-3	2.859917E-3	1.465663E-4	4.707278E-3	8.290818E-3	4.007813E-3	-1.332675E-4	1.682073E-2	8.031191E-3	-7.481297E-3	1.129461E-2	1.299928E-2	1.687100E-2	1.725355E-2	-4.886357E-4	-3.146767E-3	1.329228E-2	-1.215579E-3	7.347380E-3	9.942008E-3	-4.647285E-3	2.738158E-3	2.147483E-3	1.711764E-2	-6.114068E-3	9.363996E-3	4.945977E-3	3.044006E-3	2.449035E-2	3.205143E-3	7.334992E-3	6.966825E-3	2.230852E-2	1.214054E-3
2.825060E+2	9.089039E-3	7.359234E-3	1.558026E-2	-6.282725E-3	-5.856433E-3	9.399140E-3	6.869639E-3	5.037009E-3	-5.882278E-3	1.939048E-2	-4.614489E-3	2.219018E-2	2.598949E-3	-3.536131E-3	8.800884E-3	8.548411E-3	1.683821E-2	1.095271E-2	1.331499E-2	7.323995E-3	8.587036E-3	-1.111792E-3	2.382625E-2	2.262053E-3	6.154165E-3	3.900626E-4	9.695332E-3	9.638428E-3	1.195227E-2	6.620776E-3	5.459177E-3	6.487778E-3	-2.312636E-3	2.811587E-3	-4.307870E-4	2.238916E-2	1.722975E-2	2.959059E-3	-3.399059E-3	5.967536E-3	-6.372804E-3	8.099205E-3	1.213172E-2	7.879488E-3	8.495094E-4	-3.128279E-3	-2.038478E-3	8.371863E-3	7.373827E-3	-5.986893E-3	1.126260E-2	4.482689E-3	-2.676169E-3	1.872307E-2	6.212344E-3	1.752096E-2	1.291009E-2	1.944642E-2	1.393521E-2	2.265889E-3	6.063613E-4	7.638039E-3	6.493469E-3	-2.968798E-3	2.551731E-3	-8.911242E-4	1.147979E-2	5.692540E-4	-1.342188E-4	1.983812E-2	1.648647E-2	1.912179E-2	1.286705E-2	6.474874E-3	1.316538E-2	-4.504347E-4	-7.096362E-4	-7.396050E-3	6.004347E-3	7.323836E-3	1.263818E-3	4.649493E-3	5.710763E-3	1.625265E-2	3.262736E-3	8.303491E-3	1.308550E-2	1.150380E-2	1.587746E-2	8.560491E-3	5.932463E-3	1.480548E-4	6.452756E-3	-1.277311E-3	5.396846E-3	1.026608E-2	1.198588E-2	1.545414E-3	4.362683E-3	1.187378E-3	4.935527E-3	5.044469E-3	1.232703E-2	-1.755062E-3	5.763052E-3	6.908534E-4	4.769031E-3	-1.029891E-3	-6.191038E-3	7.579634E-3	5.999465E-3	1.490067E-2	7.427672E-3	-1.420570E-3	3.189441E-3	1.840851E-2	1.368111E-2	-3.842672E-4	1.097641E-2	9.468138E-3	-5.936119E-3	-1.470661E-3	1.197399E-2	4.587958E-4	1.081714E-2	1.256556E-2	-4.291717E-4	9.289441E-3	-1.389090E-4	6.506260E-3	7.744536E-3	-3.066441E-3	4.050907E-3	2.090984E-3	1.196165E-2	8.840068E-3	7.797005E-3	2.163356E-2	4.130950E-3	1.304023E-2	1.426262E-4	4.215412E-4	2.774607E-3	1.999175E-3	2.273045E-3	9.199321E-3	1.323611E-2	2.861360E-3	7.347471E-3	-8.297086E-4	1.483207E-2	-9.609648E-3	1.172878E-2	6.576168E-3	6.077735E-3	4.948321E-3	2.485501E-3	2.386456E-3	3.316085E-2	1.073737E-3	5.522109E-4	7.109375E-4	-2.916673E-3	-5.494677E-4	1.937053E-3	5.000649E-3	-6.410564E-4	2.000405E-3	-5.618454E-3	-9.699416E-4	-2.792396E-2
2.830030E+2	-1.636031E-2	9.762203E-3	5.405448E-3	2.010469E-2	1.770597E-3	1.492814E-2	5.700393E-3	-1.155556E-2	7.058821E-3	1.939053E-2	1.268983E-2	7.396772E-3	7.219125E-3	-1.224051E-2	1.870184E-2	5.439974E-3	1.010289E-2	8.866492E-3	1.213135E-2	1.808578E-2	9.627963E-3	-2.100078E-3	1.779424E-2	1.470316E-2	4.981914E-3	1.390991E-2	-5.562952E-3	2.294867E-3	2.656238E-4	9.736474E-3	1.331316E-4	-1.379720E-4	9.658523E-3	1.352264E-2	1.105525E-2	1.020458E-2	-1.699205E-2	-6.904552E-3	6.390227E-3	1.706989E-2	1.486992E-2	-2.522657E-3	1.444255E-2	1.263696E-2	1.217556E-2	-6.599323E-8	9.920735E-3	-8.028264E-4	7.373949E-3	5.416680E-3	1.363367E-2	1.793057E-2	2.676193E-3	9.296054E-3	1.449557E-2	1.976361E-2	6.024646E-3	-4.400211E-3	1.548378E-3	2.265858E-2	6.062725E-4	3.631228E-3	6.493515E-3	1.286488E-2	1.616113E-2	4.200836E-3	-1.307857E-3	2.846315E-3	-5.499692E-3	3.080481E-3	2.198210E-2	2.230885E-2	9.473557E-3	4.360602E-3	2.117920E-2	1.035884E-2	-6.386843E-3	1.708752E-2	-1.637594E-3	1.051977E-2	-6.600205E-3	1.011945E-2	5.710782E-3	-2.489140E-3	-1.756802E-3	8.303437E-3	3.982619E-3	1.372147E-2	3.727750E-3	8.560506E-3	2.469533E-2	1.910259E-2	-6.452745E-3	-9.452454E-3	1.592742E-2	-6.159603E-3	-1.057581E-2	3.793398E-3	1.336965E-2	1.306161E-2	7.792831E-4	1.945712E-2	1.005996E-2	-1.755095E-3	-3.232973E-3	2.901749E-3	1.286188E-2	1.324132E-3	8.562077E-3	-1.240341E-3	1.825958E-3	3.863173E-3	1.364295E-3	-3.874580E-4	1.148239E-3	-1.610743E-2	-8.208728E-3	6.788208E-3	2.155610E-2	-9.750859E-3	-9.328183E-3	3.877202E-3	1.076145E-2	1.146972E-2	6.321653E-3	1.468194E-2	8.726361E-3	9.289410E-3	1.431017E-2	1.360415E-2	1.233391E-2	-1.007546E-2	6.015006E-3	-7.318342E-3	8.417426E-3	-1.875138E-3	1.453730E-3	-1.604119E-2	-1.747697E-2	1.069605E-2	5.848504E-3	3.794070E-3	-7.090753E-3	-2.265717E-3	1.682078E-2	1.022145E-3	1.438705E-2	4.518046E-4	-5.651823E-4	3.595481E-3	1.483201E-2	6.026441E-3	6.007477E-3	1.776974E-2	2.431148E-3	2.549138E-3	-2.368993E-8	2.386352E-3	3.041928E-4	-9.663545E-3	-5.521688E-4	7.535908E-3	6.907895E-3	-8.243353E-3	1.521998E-2	-6.282801E-3	1.730765E-2	3.334072E-3	1.573110E-3	1.616491E-3	-8.498618E-3
2.835020E+2	-5.453444E-3	1.216517E-2	2.448342E-2	-3.257592E-8	8.307951E-3	-8.293390E-3	1.739348E-2	7.407380E-3	1.176475E-2	6.094151E-3	1.730437E-2	8.629598E-3	2.570025E-2	4.080102E-3	1.100110E-2	9.584639E-3	4.490139E-3	1.512525E-2	1.568200E-2	1.330283E-2	8.587036E-3	1.865345E-2	-1.508020E-3	4.524071E-3	1.787635E-2	2.430994E-2	7.152292E-3	1.070966E-3	7.702614E-3	7.659317E-3	1.611113E-2	7.592114E-3	1.945307E-2	1.030933E-2	9.906699E-3	1.751538E-2	1.188576E-4	1.183623E-2	1.617946E-2	7.077777E-3	8.497108E-3	1.872099E-2	2.021957E-2	1.739435E-2	8.777714E-3	4.171056E-3	1.209515E-2	1.295919E-2	1.445288E-2	8.837721E-3	1.126262E-2	1.232733E-2	1.873325E-2	6.153684E-3	1.094569E-2	1.976361E-2	2.438555E-2	8.090873E-3	1.956556E-2	1.586104E-2	-1.818914E-3	-1.239616E-2	1.082253E-2	6.927280E-3	4.819990E-3	2.151309E-2	1.031730E-2	1.536999E-2	-1.207249E-3	7.023461E-3	1.538751E-2	1.168555E-2	3.817725E-3	1.493193E-2	-1.717298E-3	-1.651416E-3	3.221843E-2	1.402703E-2	1.637533E-3	9.454548E-3	-6.600164E-3	2.461514E-3	1.633546E-2	1.625263E-2	6.274562E-3	1.483726E-2	8.534026E-3	1.261271E-2	4.832255E-3	2.154877E-2	2.359163E-2	2.147189E-2	1.613195E-2	2.222597E-2	1.276817E-2	1.245609E-2	-4.230237E-4	9.413209E-3	2.012479E-2	1.068676E-2	1.818382E-3	6.966126E-3	9.919030E-4	1.485049E-3	1.026097E-2	1.063986E-2	1.979862E-2	1.427101E-2	8.561993E-3	6.477097E-3	1.539000E-2	9.381869E-3	9.852892E-3	6.844333E-3	1.747820E-2	1.610737E-2	-1.641680E-3	9.862126E-3	5.686628E-3	-1.837133E-3	1.215485E-2	2.526854E-2	2.288687E-2	1.146966E-2	2.430345E-2	1.150744E-2	1.330409E-2	2.354182E-2	1.208723E-2	1.123816E-2	1.348122E-2	1.606196E-3	9.943197E-3	5.227380E-3	1.432440E-2	7.768579E-3	1.096872E-2	1.574688E-2	1.938355E-2	2.490890E-3	-4.422067E-3	1.503581E-2	7.707456E-3	2.012529E-2	3.136839E-2	2.190317E-3	2.474586E-2	4.517458E-4	1.186891E-2	1.687097E-2	6.356566E-3	2.035943E-2	1.058455E-2	2.000841E-2	1.458675E-2	8.546935E-3	1.739855E-2	1.444425E-2	3.437787E-2	-5.368684E-3	1.049141E-2	-2.701642E-3	1.550423E-2	1.813517E-2	3.044040E-3	7.052176E-3	1.602560E-2	8.668626E-3	5.168843E-3	3.006784E-2	2.063940E-2
2.840030E+2	3.090284E-2	3.259078E-2	4.864862E-2	2.638743E-2	5.080126E-2	3.372646E-2	4.194887E-2	2.281477E-2	3.529407E-2	2.160656E-2	2.537973E-2	3.698380E-2	1.992500E-2	2.257680E-2	5.720573E-2	4.999563E-2	4.041161E-2	2.138383E-2	5.000501E-2	3.721791E-2	3.564927E-2	4.632489E-2	3.589020E-2	3.732331E-2	3.428734E-2	5.238975E-2	3.258273E-2	1.086241E-2	2.682595E-2	2.116064E-2	1.504592E-2	1.863523E-2	1.509999E-2	4.672645E-2	5.355349E-2	4.675838E-2	2.293345E-2	2.465885E-2	4.663493E-2	1.484942E-2	2.867763E-2	3.040494E-2	4.101673E-2	3.166664E-2	4.728642E-2	1.876956E-2	4.144964E-2	1.938153E-2	3.215026E-2	4.646974E-2	2.904567E-2	3.137850E-2	5.619978E-2	1.767550E-2	3.697856E-2	3.321967E-2	2.323800E-2	1.717533E-2	3.195234E-2	3.512086E-2	4.062246E-2	2.867392E-2	4.112550E-2	3.067785E-2	3.997738E-2	3.271528E-2	3.007993E-2	2.789369E-2	1.918171E-2	2.378115E-2	4.726140E-2	2.762039E-2	2.191641E-2	6.038850E-2	3.606182E-2	3.918329E-2	3.676020E-2	4.769198E-2	3.984715E-2	3.608683E-2	3.946071E-2	2.762331E-2	2.802256E-2	3.148031E-2	2.032954E-2	1.265941E-2	2.901571E-2	2.370061E-2	1.698195E-2	3.335633E-2	5.449527E-2	3.213385E-2	2.366013E-2	3.551050E-2	5.173087E-2	2.778668E-2	3.229144E-2	1.952884E-2	5.952995E-2	3.799719E-2	5.273187E-2	4.347829E-2	2.366225E-2	1.552585E-2	3.275073E-2	3.274843E-2	3.598435E-2	1.427101E-2	2.963773E-2	3.183430E-2	3.208417E-2	2.593822E-2	4.987119E-2	3.783736E-2	4.299383E-2	1.610733E-2	2.790955E-2	2.625624E-2	6.387485E-2	3.886189E-2	2.346183E-2	2.740767E-2	3.986266E-2	3.349138E-2	4.003750E-2	2.314714E-2	4.305947E-2	2.761392E-2	2.875929E-2	3.134861E-2	3.413333E-2	2.146505E-2	2.958392E-2	5.122844E-2	3.913357E-2	4.098578E-2	3.105593E-2	2.398823E-2	3.590723E-2	4.000003E-2	3.437781E-2	1.728425E-2	3.483706E-2	2.972139E-2	3.621758E-2	2.088097E-2	1.899103E-2	1.490885E-2	2.091192E-2	3.899689E-2	3.057207E-2	3.990455E-2	1.745016E-2	2.784389E-2	2.552677E-2	3.013952E-2	2.734053E-2	3.152604E-2	3.681172E-2	3.221189E-2	1.822195E-2	3.256077E-2	2.901301E-2	3.462179E-2	4.510657E-2	4.090272E-2	2.243585E-2	3.000669E-2	4.652029E-2	5.075966E-2	4.492110E-2
2.841010E+2	1.878404E-2	9.762218E-3	4.483309E-2	4.774869E-2	3.118901E-2	2.819756E-2	4.311812E-2	1.925920E-2	2.352949E-2	2.160662E-2	3.922326E-2	3.575103E-2	2.339007E-2	3.236921E-2	3.190319E-2	3.134443E-2	3.030868E-2	3.494439E-2	4.645423E-2	3.363060E-2	2.107730E-2	3.347740E-2	3.106463E-2	2.488223E-2	2.725410E-2	2.950984E-2	2.113913E-2	3.534085E-2	1.938910E-2	5.439430E-2	4.700184E-2	1.311371E-2	6.189641E-2	1.994914E-2	4.321604E-2	3.701061E-2	4.384681E-2	2.761792E-2	5.316108E-2	3.594384E-2	3.292613E-2	2.190760E-2	3.870595E-2	6.377912E-2	3.709302E-2	4.066737E-2	3.383921E-2	3.130853E-2	4.866777E-2	3.620644E-2	3.497332E-2	5.042960E-2	5.084745E-2	3.652948E-2	4.762844E-2	4.891836E-2	8.319753E-3	2.739532E-2	4.208697E-2	3.965257E-2	5.638636E-2	3.568595E-2	3.138519E-2	3.067788E-2	3.770911E-2	2.966011E-2	3.472991E-2	4.952558E-2	2.669350E-2	2.870986E-2	3.297303E-2	4.143061E-2	2.757220E-2	2.444613E-2	4.636520E-2	3.678128E-2	1.972847E-2	3.647024E-2	4.748909E-2	3.821739E-2	3.833735E-2	4.950314E-2	3.333488E-2	3.030893E-2	3.639258E-2	3.334995E-2	3.470509E-2	3.367988E-2	4.680379E-2	4.162159E-2	6.222117E-2	4.161118E-2	1.613191E-2	1.609464E-2	3.172306E-2	4.530726E-2	3.116335E-2	5.324768E-2	3.363511E-2	4.630914E-2	3.506799E-2	3.386978E-2	5.540078E-2	3.604697E-2	3.724871E-2	3.385374E-2	4.060890E-2	2.839488E-2	4.333703E-2	2.411684E-2	4.877836E-2	2.593817E-2	2.925572E-2	3.680424E-2	4.809692E-2	2.876317E-2	2.900403E-2	2.625623E-2	5.752697E-2	5.016718E-2	3.476865E-2	1.243377E-2	4.956299E-2	4.572567E-2	2.655121E-2	3.584502E-2	4.305947E-2	3.372210E-2	3.987408E-2	3.726338E-2	2.724931E-2	3.314678E-2	4.136825E-2	5.227387E-2	2.377548E-2	2.491302E-2	4.691420E-2	5.459899E-2	2.573884E-2	2.710626E-2	2.410726E-2	3.527094E-2	5.086829E-2	1.372786E-2	4.106686E-2	2.905820E-2	3.740651E-2	3.418500E-2	2.091178E-2	2.904032E-2	5.720918E-2	4.772245E-2	3.347005E-2	3.344058E-2	2.795789E-2	2.534109E-2	1.988399E-2	2.047305E-2	4.533010E-2	2.254835E-2	3.368302E-2	2.232338E-2	6.339877E-2	4.231542E-2	2.075452E-2	2.961916E-2	5.448716E-2	6.201387E-2	4.292455E-2	5.334647E-2	6.920297E-2
2.842010E+2	3.696223E-2	5.181472E-2	6.263917E-2	7.287965E-2	6.823439E-2	4.589019E-2	5.598049E-2	2.874076E-2	4.588236E-2	6.260385E-2	8.767543E-2	4.191496E-2	4.302630E-2	5.957018E-2	8.030801E-2	3.963391E-2	5.724982E-2	4.641862E-2	7.485949E-2	5.276266E-2	5.438465E-2	4.632482E-2	4.674777E-2	7.351559E-2	5.069841E-2	6.694976E-2	4.402651E-2	7.083470E-2	5.019925E-2	6.166428E-2	6.191462E-2	5.949480E-2	4.992516E-2	6.279286E-2	5.355355E-2	6.747225E-2	5.240235E-2	5.227685E-2	7.926583E-2	5.703846E-2	4.885823E-2	6.758132E-2	5.025999E-2	5.188559E-2	3.709296E-2	5.109481E-2	5.014721E-2	4.782292E-2	6.164585E-2	5.217139E-2	6.935380E-2	5.379155E-2	7.118636E-2	6.481038E-2	7.366140E-2	4.891836E-2	5.422200E-2	5.578426E-2	7.249101E-2	6.117828E-2	6.487474E-2	4.870825E-2	7.142859E-2	5.442844E-2	4.905024E-2	4.799081E-2	7.425525E-2	4.497143E-2	6.425213E-2	7.109699E-2	5.935150E-2	5.949008E-2	8.186830E-2	4.876006E-2	8.414418E-2	7.881695E-2	5.152103E-2	5.585314E-2	5.403919E-2	6.165390E-2	5.181871E-2	6.153706E-2	8.008320E-2	5.725032E-2	5.647111E-2	5.186258E-2	7.794422E-2	5.031190E-2	5.453548E-2	7.704416E-2	9.753966E-2	6.293502E-2	6.560313E-2	7.536406E-2	4.962486E-2	5.735273E-2	5.485303E-2	5.437175E-2	6.966278E-2	6.768250E-2	7.039570E-2	5.693008E-2	7.580414E-2	4.900767E-2	5.861409E-2	4.711899E-2	5.795072E-2	4.958067E-2	5.598242E-2	5.719142E-2	7.068951E-2	5.684335E-2	5.593453E-2	7.812833E-2	5.830321E-2	5.062321E-2	5.527175E-2	5.494592E-2	6.704875E-2	5.581985E-2	4.268351E-2	4.345111E-2	1.198909E-1	4.694909E-2	7.038167E-2	7.499672E-2	7.395929E-2	6.019088E-2	5.765763E-2	9.167981E-2	6.740610E-2	5.651012E-2	5.020660E-2	5.959226E-2	6.394286E-2	4.312886E-2	6.805881E-2	6.637231E-2	5.751500E-2	4.937731E-2	6.747182E-2	6.787201E-2	7.306546E-2	5.424496E-2	7.622369E-2	7.344855E-2	6.387875E-2	5.948502E-2	6.160511E-2	7.107956E-2	6.447382E-2	7.899462E-2	4.834562E-2	6.254367E-2	6.442468E-2	6.732650E-2	7.953601E-2	5.865604E-2	9.400667E-2	6.442383E-2	3.589185E-2	7.464802E-2	6.953896E-2	4.561277E-2	7.167234E-2	4.910883E-2	6.474356E-2	3.800843E-2	7.169072E-2	7.145159E-2	8.377181E-2
2.843010E+2	7.695417E-2	6.142680E-2	9.443561E-2	1.181153E-1	8.130918E-2	7.574638E-2	9.573685E-2	9.511112E-2	7.411770E-2	8.476441E-2	1.038262E-1	1.023216E-1	7.883333E-2	6.827457E-2	8.470848E-2	1.069855E-1	9.092613E-2	9.335885E-2	6.539101E-2	7.906933E-2	7.624248E-2	6.905497E-2	8.776519E-2	1.006598E-1	7.531498E-2	5.758974E-2	9.870194E-2	7.083481E-2	8.950859E-2	5.751008E-2	7.682744E-2	8.820679E-2	9.345668E-2	7.029055E-2	9.720027E-2	1.003706E-1	7.331569E-2	8.877197E-2	1.325629E-1	9.811723E-2	9.028150E-2	8.670058E-2	9.763141E-2	8.399817E-2	1.039170E-1	1.053181E-1	6.862967E-2	5.974998E-2	8.170284E-2	8.524184E-2	9.543564E-2	7.620467E-2	8.831398E-2	8.156935E-2	1.032442E-1	9.937860E-2	8.979628E-2	1.000710E-1	8.375167E-2	1.087612E-1	8.185115E-2	7.775783E-2	1.006493E-1	5.838689E-2	6.492766E-2	8.668903E-2	9.518038E-2	1.041746E-1	8.571423E-2	6.419681E-2	8.353177E-2	8.923514E-2	9.317995E-2	6.778845E-2	9.330281E-2	1.064404E-1	8.558455E-2	8.237697E-2	8.679038E-2	1.032003E-1	6.305293E-2	9.216885E-2	7.902071E-2	6.896381E-2	6.751452E-2	8.670994E-2	9.728810E-2	9.133760E-2	6.447607E-2	7.940566E-2	9.974703E-2	8.070480E-2	8.926330E-2	7.638592E-2	8.964066E-2	7.049323E-2	6.951818E-2	9.033855E-2	7.416610E-2	9.855535E-2	8.182530E-2	8.767715E-2	9.280683E-2	9.545022E-2	9.009980E-2	8.359816E-2	7.760499E-2	9.548325E-2	9.813394E-2	9.688086E-2	9.573082E-2	8.222957E-2	6.927393E-2	6.676423E-2	8.994263E-2	5.867686E-2	6.512214E-2	8.466035E-2	8.926609E-2	7.051676E-2	6.868924E-2	7.981633E-2	1.053403E-1	8.487539E-2	8.386800E-2	8.557823E-2	7.968143E-2	6.324496E-2	9.767044E-2	1.106071E-1	1.041209E-1	8.220980E-2	8.556003E-2	7.318351E-2	8.402651E-2	5.920171E-2	6.911598E-2	7.814565E-2	9.691775E-2	7.282054E-2	9.714226E-2	6.000279E-2	1.026616E-1	5.317874E-2	7.864830E-2	7.812121E-2	5.697289E-2	1.149039E-1	9.551622E-2	7.550472E-2	1.213804E-1	9.853957E-2	6.093258E-2	9.052751E-2	6.564024E-2	1.057129E-1	7.083682E-2	5.765120E-2	7.940376E-2	7.730860E-2	9.331861E-2	1.053604E-1	8.059157E-2	7.748673E-2	8.938290E-2	6.039230E-2	1.237180E-1	8.201827E-2	1.076485E-1	1.205949E-1	6.920285E-2
2.844040E+2	9.997984E-2	8.185238E-2	1.414944E-1	1.231414E-1	9.002586E-2	9.012156E-2	1.273081E-1	1.045926E-1	1.070588E-1	8.254841E-2	1.199769E-1	1.430038E-1	1.308114E-1	1.030919E-1	1.012102E-1	1.235644E-1	1.189898E-1	1.079625E-1	1.020812E-1	9.939707E-2	1.095498E-1	9.474977E-2	1.203379E-1	1.131009E-1	1.057927E-1	1.012696E-1	1.012451E-1	1.332552E-1	1.033201E-1	8.866661E-2	1.098486E-1	1.412138E-1	1.304584E-1	1.056367E-1	1.155779E-1	1.125552E-1	9.708089E-2	9.962187E-2	1.184229E-1	1.525188E-1	1.115241E-1	1.068821E-1	1.322936E-1	1.256256E-1	1.118452E-1	9.280500E-2	1.262514E-1	9.736610E-2	1.229968E-1	1.034877E-1	1.144043E-1	1.210310E-1	1.075825E-1	9.832849E-2	1.576766E-1	1.274121E-1	9.209141E-2	9.098647E-2	1.231642E-1	1.302871E-1	1.170170E-1	1.028006E-1	9.848481E-2	1.306284E-1	1.000850E-1	1.202954E-1	9.634295E-2	1.280834E-1	1.082496E-1	1.036268E-1	1.187031E-1	1.136685E-1	1.339019E-1	1.037308E-1	1.265027E-1	1.076415E-1	1.275962E-1	1.272634E-1	1.151746E-1	1.138533E-1	1.327061E-1	9.435687E-2	1.236443E-1	1.099615E-1	1.026521E-1	1.052225E-1	1.325621E-1	1.013167E-1	1.241199E-1	1.136476E-1	1.339619E-1	1.162446E-1	1.064706E-1	9.477986E-2	1.159668E-1	1.000593E-1	8.305524E-2	1.071980E-1	1.135712E-1	9.499306E-2	1.005282E-1	9.536391E-2	1.596845E-1	1.008505E-1	1.069671E-1	1.034960E-1	1.377235E-1	1.178460E-1	1.076181E-1	1.134182E-1	1.312060E-1	7.339957E-2	8.261331E-2	1.163531E-1	1.001488E-1	9.779474E-2	9.795688E-2	9.080814E-2	1.114833E-1	1.157380E-1	1.093940E-1	1.193903E-1	1.295912E-1	1.007800E-1	9.510657E-2	1.141484E-1	1.254590E-1	1.009119E-1	1.032279E-1	1.496452E-1	1.259203E-1	9.973234E-2	1.101108E-1	9.618400E-2	1.182869E-1	8.706130E-2	1.008326E-1	1.205299E-1	1.503019E-1	1.044689E-1	1.279540E-1	1.094665E-1	1.371903E-1	1.139544E-1	9.319590E-2	9.797999E-2	9.840784E-2	1.293610E-1	1.011681E-1	1.573706E-1	1.189588E-1	1.076607E-1	1.044149E-1	1.117951E-1	1.215560E-1	1.045135E-1	8.947801E-2	1.139209E-1	1.134774E-1	8.589844E-2	8.448364E-2	1.258353E-1	1.284860E-1	8.737863E-2	1.115211E-1	1.075779E-1	1.544872E-1	9.535462E-2	1.238294E-1	1.335275E-1	7.405935E-2
2.845030E+2	1.484548E-1	1.371215E-1	1.821941E-1	1.809425E-1	1.368775E-1	1.365648E-1	1.764190E-1	1.851854E-1	1.576469E-1	1.767312E-1	1.776582E-1	1.676598E-1	1.504476E-1	1.716386E-1	1.826182E-1	1.297815E-1	1.773618E-1	1.538595E-1	1.872966E-1	1.579891E-1	1.522251E-1	1.342805E-1	1.613552E-1	1.425070E-1	1.550259E-1	1.771891E-1	1.546490E-1	1.748686E-1	1.298805E-1	1.613656E-1	1.599130E-1	1.566742E-1	1.500476E-1	1.206320E-1	1.500360E-1	1.746967E-1	1.607716E-1	1.321713E-1	1.684568E-1	1.836054E-1	1.540093E-1	1.514937E-1	1.426920E-1	1.946084E-1	1.628126E-1	1.397287E-1	1.566932E-1	1.469091E-1	1.678299E-1	1.684882E-1	1.511560E-1	1.568920E-1	1.525421E-1	1.433681E-1	1.848926E-1	1.857217E-1	1.758632E-1	1.432222E-1	1.637029E-1	1.824020E-1	1.970492E-1	1.879463E-1	1.352813E-1	1.484413E-1	1.522540E-1	1.386261E-1	1.486559E-1	1.611003E-1	1.275654E-1	1.381279E-1	1.604690E-1	2.029037E-1	1.429514E-1	1.449590E-1	1.894677E-1	1.881098E-1	1.593887E-1	1.395053E-1	1.457424E-1	1.522038E-1	1.866313E-1	1.687483E-1	1.470185E-1	1.720436E-1	1.528486E-1	1.716500E-1	1.814905E-1	1.778238E-1	1.517327E-1	1.183704E-1	1.560358E-1	1.944321E-1	1.226026E-1	1.509836E-1	1.844146E-1	1.559062E-1	1.496122E-1	1.678921E-1	1.687382E-1	1.757372E-1	1.701446E-1	1.386020E-1	1.664857E-1	1.732148E-1	1.485734E-1	1.233937E-1	1.712510E-1	1.837575E-1	1.613613E-1	1.431854E-1	1.708547E-1	1.539733E-1	1.286948E-1	1.587103E-1	1.869020E-1	1.346117E-1	1.548708E-1	1.615079E-1	1.654395E-1	1.722644E-1	1.376613E-1	1.429207E-1	1.768808E-1	1.374828E-1	1.344416E-1	1.437768E-1	1.575033E-1	1.324708E-1	1.232344E-1	1.295348E-1	1.867291E-1	1.511317E-1	1.287696E-1	1.505489E-1	1.832637E-1	1.502813E-1	1.494648E-1	1.264165E-1	1.833489E-1	1.560439E-1	1.621893E-1	1.589303E-1	2.284454E-1	1.448754E-1	1.271405E-1	1.318569E-1	1.617111E-1	1.739371E-1	1.124718E-1	1.452014E-1	1.952380E-1	1.649927E-1	1.341661E-1	1.666433E-1	1.507294E-1	1.297046E-1	1.615576E-1	1.651665E-1	1.560694E-1	1.653544E-1	1.419105E-1	1.770226E-1	1.591874E-1	1.478292E-1	1.602251E-1	1.414285E-1	1.698718E-1	1.433653E-1	1.831597E-1	1.826706E-1	1.323353E-1
2.846010E+2	2.672188E-1	2.176220E-1	2.788554E-1	2.286912E-1	2.480136E-1	2.106523E-1	2.454085E-1	2.657779E-1	2.588233E-1	2.210523E-1	2.572584E-1	2.662828E-1	2.301469E-1	2.445373E-1	2.343235E-1	2.396163E-1	2.256313E-1	1.955842E-1	2.370058E-1	2.381046E-1	1.948996E-1	1.945647E-1	2.832008E-1	2.804899E-1	2.206698E-1	2.250289E-1	2.639997E-1	2.789030E-1	2.169986E-1	2.236787E-1	2.536502E-1	2.516450E-1	2.284040E-1	2.255989E-1	2.304376E-1	3.026347E-1	1.987959E-1	2.041757E-1	2.500338E-1	2.180228E-1	2.028675E-1	2.056646E-1	2.593879E-1	2.338568E-1	2.115148E-1	2.440043E-1	2.295357E-1	2.267287E-1	2.315409E-1	2.369096E-1	2.400716E-1	2.678369E-1	2.467438E-1	2.093567E-1	2.760084E-1	2.586083E-1	1.965188E-1	1.999998E-1	2.481583E-1	2.639726E-1	2.467660E-1	2.119870E-1	2.326838E-1	2.543296E-1	2.509217E-1	1.763057E-1	2.277064E-1	2.294115E-1	2.016096E-1	2.209305E-1	2.912617E-1	2.283991E-1	2.006407E-1	2.464432E-1	2.593021E-1	2.457587E-1	2.127546E-1	2.251977E-1	2.461789E-1	2.416880E-1	2.090998E-1	2.125079E-1	2.086415E-1	2.083556E-1	2.130842E-1	2.369886E-1	2.986916E-1	2.687458E-1	2.003314E-1	2.199154E-1	2.498501E-1	2.738043E-1	2.193936E-1	2.654345E-1	2.065286E-1	2.446043E-1	2.116571E-1	2.578091E-1	2.678143E-1	2.588559E-1	2.210576E-1	2.183525E-1	2.061588E-1	2.617793E-1	1.935531E-1	2.626775E-1	2.660529E-1	2.755620E-1	2.066740E-1	2.424086E-1	2.522387E-1	2.555184E-1	2.135819E-1	2.103653E-1	2.379331E-1	2.128475E-1	2.227293E-1	2.619221E-1	2.490188E-1	2.807955E-1	2.258547E-1	2.220682E-1	2.653970E-1	2.378037E-1	2.176074E-1	1.966842E-1	2.353248E-1	2.597244E-1	2.154866E-1	2.312696E-1	2.647483E-1	2.305669E-1	2.289369E-1	2.488237E-1	2.423328E-1	2.167156E-1	2.150125E-1	1.841059E-1	2.888460E-1	1.935532E-1	2.591887E-1	2.005246E-1	2.839379E-1	2.440356E-1	2.095776E-1	2.112924E-1	2.445808E-1	2.317655E-1	1.859454E-1	1.994099E-1	2.594089E-1	2.392639E-1	2.085441E-1	2.539521E-1	2.880868E-1	2.292698E-1	2.547640E-1	2.244505E-1	2.741098E-1	2.179674E-1	2.048590E-1	2.213850E-1	2.549761E-1	2.434514E-1	2.476708E-1	2.193874E-1	2.583332E-1	2.073795E-1	2.047345E-1	2.447462E-1	2.780249E-1
2.847030E+2	5.168648E-1	4.675342E-1	5.319552E-1	5.151828E-1	4.517637E-1	4.904163E-1	5.283806E-1	5.608886E-1	4.482356E-1	4.515236E-1	4.925976E-1	5.103764E-1	4.750213E-1	4.828181E-1	4.796476E-1	4.572144E-1	4.568751E-1	4.647079E-1	4.808164E-1	4.461667E-1	4.436640E-1	4.258189E-1	4.641600E-1	5.247879E-1	3.941583E-1	4.444675E-1	5.157616E-1	5.493909E-1	4.103582E-1	4.334676E-1	4.720162E-1	4.769238E-1	4.787101E-1	4.676668E-1	5.348173E-1	5.219579E-1	4.316949E-1	4.251189E-1	4.871516E-1	5.277791E-1	4.216669E-1	4.382824E-1	4.904678E-1	4.526982E-1	4.470985E-1	4.337846E-1	4.448023E-1	4.377466E-1	4.214920E-1	4.604199E-1	4.807354E-1	4.426601E-1	4.415695E-1	4.366519E-1	4.819056E-1	5.378224E-1	4.386534E-1	4.259759E-1	5.172896E-1	5.132177E-1	4.213827E-1	4.724321E-1	5.064933E-1	4.562101E-1	4.471217E-1	4.543221E-1	4.346336E-1	4.685010E-1	4.215969E-1	4.456813E-1	5.022897E-1	4.323652E-1	4.506292E-1	4.198121E-1	5.283343E-1	4.775550E-1	4.557409E-1	4.435093E-1	4.830793E-1	4.462252E-1	4.236765E-1	4.509980E-1	4.455717E-1	4.344281E-1	4.198951E-1	4.482514E-1	5.296797E-1	5.215518E-1	4.135022E-1	4.785006E-1	4.661757E-1	5.178437E-1	4.409392E-1	4.473303E-1	4.339871E-1	4.887987E-1	4.429148E-1	4.421393E-1	4.513296E-1	4.915888E-1	4.745861E-1	4.143647E-1	4.555338E-1	5.015530E-1	4.072064E-1	4.052780E-1	5.666463E-1	5.144913E-1	4.269155E-1	4.452664E-1	4.431784E-1	4.575054E-1	4.282249E-1	4.459128E-1	4.828830E-1	4.613609E-1	4.481942E-1	4.555780E-1	4.574383E-1	4.808987E-1	4.135496E-1	3.942685E-1	4.581929E-1	4.971710E-1	4.356351E-1	4.845030E-1	4.779457E-1	4.531497E-1	4.477833E-1	4.347401E-1	4.471741E-1	4.793869E-1	4.322188E-1	4.234188E-1	5.199612E-1	5.242434E-1	4.528879E-1	4.572476E-1	5.773752E-1	5.252754E-1	4.440592E-1	4.354768E-1	5.281065E-1	4.999337E-1	5.138656E-1	4.017036E-1	4.816803E-1	4.835600E-1	3.928038E-1	4.604956E-1	5.475733E-1	5.584997E-1	3.847619E-1	4.912553E-1	5.239055E-1	5.015748E-1	4.884001E-1	4.284273E-1	5.235780E-1	4.402292E-1	4.257314E-1	4.545711E-1	5.202368E-1	4.127125E-1	4.657321E-1	4.163354E-1	5.596152E-1	5.087796E-1	3.827248E-1	4.464923E-1	5.936868E-1
2.848030E+2	8.998176E-1	8.472083E-1	1.025437E+0	9.725655E-1	8.679805E-1	9.183560E-1	1.034690E+0	9.887410E-1	8.188234E-1	8.371186E-1	1.016343E+0	9.652763E-1	9.174130E-1	8.701610E-1	1.017601E+0	9.214224E-1	9.171187E-1	8.193666E-1	9.980281E-1	9.280553E-1	8.631275E-1	8.408898E-1	1.039610E+0	9.805845E-1	8.384286E-1	8.677473E-1	9.557081E-1	9.165695E-1	7.992026E-1	8.166945E-1	8.235323E-1	9.462569E-1	8.683186E-1	7.997049E-1	9.437190E-1	8.972431E-1	8.471109E-1	8.403750E-1	9.864035E-1	1.041820E+0	7.881047E-1	8.291659E-1	1.002311E+0	9.284407E-1	8.367149E-1	8.602716E-1	8.698986E-1	8.643675E-1	9.394358E-1	8.606865E-1	9.383526E-1	8.931640E-1	8.387151E-1	8.189681E-1	9.587814E-1	9.829931E-1	8.976766E-1	8.438607E-1	1.019519E+0	1.061556E+0	8.761111E-1	8.490760E-1	8.766237E-1	8.787726E-1	8.032321E-1	8.015878E-1	8.217490E-1	9.034154E-1	8.154256E-1	8.054788E-1	9.639124E-1	9.135975E-1	8.080782E-1	8.902341E-1	9.530624E-1	9.207326E-1	8.803995E-1	7.811777E-1	9.372273E-1	8.606244E-1	8.123869E-1	8.393654E-1	9.130545E-1	9.322554E-1	8.515853E-1	9.154228E-1	1.013276E+0	1.019404E+0	8.486816E-1	8.811368E-1	9.793983E-1	1.018953E+0	7.614269E-1	8.938941E-1	8.646835E-1	9.235294E-1	8.445128E-1	8.388986E-1	9.422058E-1	8.620620E-1	8.818949E-1	8.678837E-1	8.919387E-1	9.800195E-1	8.311389E-1	8.463449E-1	1.007130E+0	1.010004E+0	8.863660E-1	8.939782E-1	8.563598E-1	9.508828E-1	8.647868E-1	8.095654E-1	8.829685E-1	9.491849E-1	8.104695E-1	8.951466E-1	9.462200E-1	9.930281E-1	8.556482E-1	7.878685E-1	9.128983E-1	1.039150E+0	8.211187E-1	8.537974E-1	8.647657E-1	9.102440E-1	8.190163E-1	8.617903E-1	9.198774E-1	8.345095E-1	8.535130E-1	8.687928E-1	1.051587E+0	9.967848E-1	8.091721E-1	8.857977E-1	1.040038E+0	9.624914E-1	9.016695E-1	8.323114E-1	1.030007E+0	9.690792E-1	8.993796E-1	7.930403E-1	7.912916E-1	8.967923E-1	7.488700E-1	9.483729E-1	1.057310E+0	1.001520E+0	7.967005E-1	9.154887E-1	1.004052E+0	8.914375E-1	9.494617E-1	8.715520E-1	1.000608E+0	8.901221E-1	7.747102E-1	8.981936E-1	8.984814E-1	8.567509E-1	7.922696E-1	8.440830E-1	1.130129E+0	9.355411E-1	8.447815E-1	9.172338E-1	9.773381E-1
2.849020E+2	1.057363E+0	9.529409E-1	1.134817E+0	1.075602E+0	1.053208E+0	9.990789E-1	1.135251E+0	1.177185E+0	9.588234E-1	1.054294E+0	1.149010E+0	1.152661E+0	1.057177E+0	9.931089E-1	1.041804E+0	1.013644E+0	1.023761E+0	9.664462E-1	1.079693E+0	1.126551E+0	9.234971E-1	9.258796E-1	1.186791E+0	1.173988E+0	9.497895E-1	9.935863E-1	1.107019E+0	1.057320E+0	9.181937E-1	1.026483E+0	1.037637E+0	1.098651E+0	9.140256E-1	9.089566E-1	1.057429E+0	1.092197E+0	9.336162E-1	9.991778E-1	1.195241E+0	1.181709E+0	9.187462E-1	9.130784E-1	1.062392E+0	1.073542E+0	9.907503E-1	9.843589E-1	1.022107E+0	9.423528E-1	1.017303E+0	1.036302E+0	1.052164E+0	1.005230E+0	9.950047E-1	1.001222E+0	1.081846E+0	1.205018E+0	9.630867E-1	9.471968E-1	1.074696E+0	1.115937E+0	9.512932E-1	9.883136E-1	1.071429E+0	1.026225E+0	1.095831E+0	9.502695E-1	1.029837E+0	9.762808E-1	9.184438E-1	9.710853E-1	1.067229E+0	1.035765E+0	9.087525E-1	9.927759E-1	1.128220E+0	1.046839E+0	9.984860E-1	8.852328E-1	9.852623E-1	9.841980E-1	9.629273E-1	9.728322E-1	1.046926E+0	9.732537E-1	9.600103E-1	1.018875E+0	1.015551E+0	1.234512E+0	9.679693E-1	1.000393E+0	1.045619E+0	1.090033E+0	1.005556E+0	9.511196E-1	9.162828E-1	9.936125E-1	8.659463E-1	9.748980E-1	1.033401E+0	1.087670E+0	9.535893E-1	9.620472E-1	1.021159E+0	1.111786E+0	9.098535E-1	9.657314E-1	1.034876E+0	1.091216E+0	1.019144E+0	1.009738E+0	1.021215E+0	1.033664E+0	9.618006E-1	1.055443E+0	1.029938E+0	1.066539E+0	9.691705E-1	9.914619E-1	1.160988E+0	1.071035E+0	9.212283E-1	9.600689E-1	1.106907E+0	1.116226E+0	9.638494E-1	9.850100E-1	9.940870E-1	9.855779E-1	9.712871E-1	9.280359E-1	1.062147E+0	1.029593E+0	9.222560E-1	9.785673E-1	1.124834E+0	1.125369E+0	9.096079E-1	9.529060E-1	1.151891E+0	1.104322E+0	9.975284E-1	9.008845E-1	1.191552E+0	1.121550E+0	9.745412E-1	9.262112E-1	1.019183E+0	9.871489E-1	8.732108E-1	9.804551E-1	1.175966E+0	1.215213E+0	8.962527E-1	1.074436E+0	1.100081E+0	1.088169E+0	1.076222E+0	1.024283E+0	1.119866E+0	9.577670E-1	8.288248E-1	9.607557E-1	1.047075E+0	9.743538E-1	9.804447E-1	1.035902E+0	1.149359E+0	1.079573E+0	9.346775E-1	1.173295E+0	1.152163E+0
2.850030E+2	9.349620E-1	8.532163E-1	1.053417E+0	9.172774E-1	8.450990E-1	9.084042E-1	1.055738E+0	1.027852E+0	8.811764E-1	8.005540E-1	1.048645E+0	9.997940E-1	9.174127E-1	8.897456E-1	9.119917E-1	9.380024E-1	9.238542E-1	8.245822E-1	9.779078E-1	9.699063E-1	8.433516E-1	8.112414E-1	1.042022E+0	1.045052E+0	7.516857E-1	9.322264E-1	9.671527E-1	1.023050E+0	8.544478E-1	8.925093E-1	8.874438E-1	9.793862E-1	8.041080E-1	8.157725E-1	9.173008E-1	9.362343E-1	8.528143E-1	8.758828E-1	1.045139E+0	1.029606E+0	8.390861E-1	8.206680E-1	9.341422E-1	9.807721E-1	8.831527E-1	9.040671E-1	8.666368E-1	9.056535E-1	9.170191E-1	8.663877E-1	9.336108E-1	8.774750E-1	8.504908E-1	8.200150E-1	9.481307E-1	1.011027E+0	8.402984E-1	8.926900E-1	9.879883E-1	1.009441E+0	9.367420E-1	8.851371E-1	9.318184E-1	9.341906E-1	8.622061E-1	7.333565E-1	9.019623E-1	8.362425E-1	8.508387E-1	8.665945E-1	1.015570E+0	9.295329E-1	8.386195E-1	7.612646E-1	9.954206E-1	9.243361E-1	8.815344E-1	7.648564E-1	8.880999E-1	8.851255E-1	8.708054E-1	8.721857E-1	9.693659E-1	8.795450E-1	8.425500E-1	9.306686E-1	9.461414E-1	9.817040E-1	8.674577E-1	9.389943E-1	9.164865E-1	9.881531E-1	8.324078E-1	9.000256E-1	8.425692E-1	8.501619E-1	8.580488E-1	8.141709E-1	8.949191E-1	9.214327E-1	8.424108E-1	8.044679E-1	1.001890E+0	9.756981E-1	8.986082E-1	8.618212E-1	9.805377E-1	9.876412E-1	8.526457E-1	8.785437E-1	8.866184E-1	9.398461E-1	8.757010E-1	9.418020E-1	8.584732E-1	9.376802E-1	8.662896E-1	9.443284E-1	9.324666E-1	9.862451E-1	8.669555E-1	8.317218E-1	9.492744E-1	1.033032E+0	8.559584E-1	8.368681E-1	8.830768E-1	9.061715E-1	8.167928E-1	8.925478E-1	9.439714E-1	8.999271E-1	7.975365E-1	8.719288E-1	9.854289E-1	9.839268E-1	8.482893E-1	8.940399E-1	9.891958E-1	9.624909E-1	8.217869E-1	8.649114E-1	1.010277E+0	9.285617E-1	9.369599E-1	8.047212E-1	8.810664E-1	9.004062E-1	7.839115E-1	9.406288E-1	1.068207E+0	1.005429E+0	7.715265E-1	8.908626E-1	1.022285E+0	9.490168E-1	9.034788E-1	8.112626E-1	1.032249E+0	9.040798E-1	8.067358E-1	8.879572E-1	9.783034E-1	8.919222E-1	9.405950E-1	8.533144E-1	1.071154E+0	1.019560E+0	8.663571E-1	9.612033E-1	1.079321E+0
2.851080E+2	9.179963E-1	7.655067E-1	9.923683E-1	8.783248E-1	7.884419E-1	8.464803E-1	9.516683E-1	9.768891E-1	7.870585E-1	8.271468E-1	9.194382E-1	9.356895E-1	8.850706E-1	7.885571E-1	8.921890E-1	8.944826E-1	8.609909E-1	7.755561E-1	9.293819E-1	8.455474E-1	7.923502E-1	8.092654E-1	9.406865E-1	9.183780E-1	9.169675E-1	8.438258E-1	8.997612E-1	9.165686E-1	8.098269E-1	7.772293E-1	8.352491E-1	8.877284E-1	7.975787E-1	7.332979E-1	8.679107E-1	8.996804E-1	7.758148E-1	8.818019E-1	9.787899E-1	9.507798E-1	7.668619E-1	7.707462E-1	9.064126E-1	8.725409E-1	8.582348E-1	8.081336E-1	8.633747E-1	7.863835E-1	9.005011E-1	8.093704E-1	9.063427E-1	8.259245E-1	8.247988E-1	8.179198E-1	8.794991E-1	8.517963E-1	8.575118E-1	7.689146E-1	8.979025E-1	9.233386E-1	8.554969E-1	7.969873E-1	8.625542E-1	8.312713E-1	7.578680E-1	7.303013E-1	8.380232E-1	8.430736E-1	7.961100E-1	7.552060E-1	9.408315E-1	8.774782E-1	7.978973E-1	8.416063E-1	9.816830E-1	9.255366E-1	8.270338E-1	7.495542E-1	8.586254E-1	8.723424E-1	8.258669E-1	8.196737E-1	8.493071E-1	8.022360E-1	7.742826E-1	8.435500E-1	9.472783E-1	9.406790E-1	8.022918E-1	9.094756E-1	8.966193E-1	9.549830E-1	7.969177E-1	8.325809E-1	8.036067E-1	8.731575E-1	7.745698E-1	7.804522E-1	8.825345E-1	8.751229E-1	8.081213E-1	7.929382E-1	9.474806E-1	9.746189E-1	8.356373E-1	7.988116E-1	9.181077E-1	9.629251E-1	7.925804E-1	8.476737E-1	8.365361E-1	8.923831E-1	8.211306E-1	8.405582E-1	8.360192E-1	8.065195E-1	8.028085E-1	8.510865E-1	9.123648E-1	9.930286E-1	7.640629E-1	7.515038E-1	9.347240E-1	9.376053E-1	8.346050E-1	7.871347E-1	8.224215E-1	8.043696E-1	8.156806E-1	7.813488E-1	8.751321E-1	8.707226E-1	8.103031E-1	8.541563E-1	9.322662E-1	9.389229E-1	8.334879E-1	8.245773E-1	9.904671E-1	9.073996E-1	8.662934E-1	8.064545E-1	1.010276E+0	8.667196E-1	8.557357E-1	7.720133E-1	8.430840E-1	8.979974E-1	7.488696E-1	8.477000E-1	9.943495E-1	1.015854E+0	8.367498E-1	8.516856E-1	9.651541E-1	8.626473E-1	9.432474E-1	8.052342E-1	9.434141E-1	7.559056E-1	7.713967E-1	8.549694E-1	8.284809E-1	9.007145E-1	8.144075E-1	8.748556E-1	9.788457E-1	9.355417E-1	7.530892E-1	8.344646E-1	1.030757E+0
2.852010E+2	7.968082E-1	7.582983E-1	9.593005E-1	8.645024E-1	7.328730E-1	8.365276E-1	9.165898E-1	9.377786E-1	7.811762E-1	8.260388E-1	8.894442E-1	8.802141E-1	8.585048E-1	7.994385E-1	8.602866E-1	8.333484E-1	8.115984E-1	8.120656E-1	8.204949E-1	8.395683E-1	7.996344E-1	7.865351E-1	8.984621E-1	9.794536E-1	8.396015E-1	8.542272E-1	8.667017E-1	8.676117E-1	8.788850E-1	7.117996E-1	8.267277E-1	9.031877E-1	8.280505E-1	6.893831E-1	8.495334E-1	8.692188E-1	7.834197E-1	7.851386E-1	9.428955E-1	8.985982E-1	7.180030E-1	7.165749E-1	7.954936E-1	8.570789E-1	8.627657E-1	7.247128E-1	8.372823E-1	7.570237E-1	8.698257E-1	7.409485E-1	8.008301E-1	7.553230E-1	7.766280E-1	8.262996E-1	8.948813E-1	9.314117E-1	8.276758E-1	7.348469E-1	8.776330E-1	8.916165E-1	8.761113E-1	7.879712E-1	8.430733E-1	7.758536E-1	8.406580E-1	7.394667E-1	8.182611E-1	7.485763E-1	8.089874E-1	7.926641E-1	8.562008E-1	7.903682E-1	7.945048E-1	7.348367E-1	9.198626E-1	8.414649E-1	8.327104E-1	7.373118E-1	8.553497E-1	8.989741E-1	8.292382E-1	8.218613E-1	8.099957E-1	7.987212E-1	7.843219E-1	7.684107E-1	8.630759E-1	9.318091E-1	7.547977E-1	8.067498E-1	8.811679E-1	9.348433E-1	7.625027E-1	7.436772E-1	7.920230E-1	8.162154E-1	7.418568E-1	8.130476E-1	8.949193E-1	7.908174E-1	8.133172E-1	7.420128E-1	8.193933E-1	8.990143E-1	7.636706E-1	7.811253E-1	9.192641E-1	8.840666E-1	7.746655E-1	8.079839E-1	8.500993E-1	8.658943E-1	7.714111E-1	7.982008E-1	8.145865E-1	8.617446E-1	7.601235E-1	8.316193E-1	8.679308E-1	8.743226E-1	7.527560E-1	7.140693E-1	8.474211E-1	9.400526E-1	7.525641E-1	8.072394E-1	8.430207E-1	8.013153E-1	7.545498E-1	8.783520E-1	8.062914E-1	8.064732E-1	7.258476E-1	7.872449E-1	9.251783E-1	8.885607E-1	7.859130E-1	7.939658E-1	9.129322E-1	8.886447E-1	7.727172E-1	7.266385E-1	9.905453E-1	7.963481E-1	7.635999E-1	7.030908E-1	7.717245E-1	8.883590E-1	7.081759E-1	7.846409E-1	9.120163E-1	8.985828E-1	8.344613E-1	8.438511E-1	9.748783E-1	8.554498E-1	8.550115E-1	7.791084E-1	9.129908E-1	7.666424E-1	7.327438E-1	8.197074E-1	8.567268E-1	8.578497E-1	7.657040E-1	7.938196E-1	9.532061E-1	9.128697E-1	8.232074E-1	8.706757E-1	7.539459E-1
2.853000E+2	6.126035E-1	5.972966E-1	7.151026E-1	6.446075E-1	6.184685E-1	5.943607E-1	6.967604E-1	6.711109E-1	5.870585E-1	6.011070E-1	6.633336E-1	6.077665E-1	6.240253E-1	6.112070E-1	6.501649E-1	6.706674E-1	6.712814E-1	5.700627E-1	6.110072E-1	6.422693E-1	5.664847E-1	5.285973E-1	6.595965E-1	6.842605E-1	6.016413E-1	5.807078E-1	6.530865E-1	6.252738E-1	6.090302E-1	5.362840E-1	6.360570E-1	6.293201E-1	6.212761E-1	5.319318E-1	6.186645E-1	6.401481E-1	5.248549E-1	5.691268E-1	6.666208E-1	7.131889E-1	5.862987E-1	6.188535E-1	6.753328E-1	6.620250E-1	6.011326E-1	5.828996E-1	6.122313E-1	5.661918E-1	6.928514E-1	6.052467E-1	6.099588E-1	6.186029E-1	5.464763E-1	5.822462E-1	5.943191E-1	6.286506E-1	5.993112E-1	5.713267E-1	6.163846E-1	6.808913E-1	6.930074E-1	5.405480E-1	6.017312E-1	6.392877E-1	6.603349E-1	5.429214E-1	6.276095E-1	5.481974E-1	5.825623E-1	5.294696E-1	6.319835E-1	6.172101E-1	6.304846E-1	6.132663E-1	6.977675E-1	6.396935E-1	7.248429E-1	5.353234E-1	6.348252E-1	6.433049E-1	6.494870E-1	5.658675E-1	6.431894E-1	5.913909E-1	5.755044E-1	6.932719E-1	6.502942E-1	6.989617E-1	5.891204E-1	6.012987E-1	6.394573E-1	7.310819E-1	6.506543E-1	5.791537E-1	5.624584E-1	5.993978E-1	6.403287E-1	5.646512E-1	6.190832E-1	6.554523E-1	5.878425E-1	5.123711E-1	6.278287E-1	6.397992E-1	5.893736E-1	6.252595E-1	6.961319E-1	6.310141E-1	6.081671E-1	6.723781E-1	6.247281E-1	6.285879E-1	5.870856E-1	6.174078E-1	6.145436E-1	6.293389E-1	5.598328E-1	6.482091E-1	6.288293E-1	6.380433E-1	5.774992E-1	5.728864E-1	6.667504E-1	6.843555E-1	5.727456E-1	5.532824E-1	5.695008E-1	5.865116E-1	5.311446E-1	6.039038E-1	6.227171E-1	6.511075E-1	5.579192E-1	6.168317E-1	6.581836E-1	6.742569E-1	5.691819E-1	6.020603E-1	6.904983E-1	6.835167E-1	5.467641E-1	5.951098E-1	7.291132E-1	6.556044E-1	6.326722E-1	5.757604E-1	5.864178E-1	6.401785E-1	4.821025E-1	5.888263E-1	6.686518E-1	6.822850E-1	6.445122E-1	6.177417E-1	7.232585E-1	6.515215E-1	6.922113E-1	5.942227E-1	6.379670E-1	5.658556E-1	5.681942E-1	6.001705E-1	6.909375E-1	5.940653E-1	6.129507E-1	5.743042E-1	6.929495E-1	6.154708E-1	5.571200E-1	6.663418E-1	6.713883E-1
2.854130E+2	4.235505E-1	4.242806E-1	4.963431E-1	4.473303E-1	4.484949E-1	3.908967E-1	5.131793E-1	4.684442E-1	4.458826E-1	4.515224E-1	4.960588E-1	4.573661E-1	4.865728E-1	4.632331E-1	4.257422E-1	4.582503E-1	4.737143E-1	4.594921E-1	5.009376E-1	5.095414E-1	4.353372E-1	4.001232E-1	5.015586E-1	4.750232E-1	4.551135E-1	4.590284E-1	4.649000E-1	4.551480E-1	4.539175E-1	4.095807E-1	4.262127E-1	4.990104E-1	4.656507E-1	4.237510E-1	4.681975E-1	4.646901E-1	3.993740E-1	4.182149E-1	5.263091E-1	4.867004E-1	3.866170E-1	4.372206E-1	4.708257E-1	4.479411E-1	5.003307E-1	4.233572E-1	4.317555E-1	4.249019E-1	4.875633E-1	4.068233E-1	4.605810E-1	4.650730E-1	3.987513E-1	4.073236E-1	4.854550E-1	4.918469E-1	4.535705E-1	3.896380E-1	4.947681E-1	5.211484E-1	4.710994E-1	4.273554E-1	5.021643E-1	4.492829E-1	4.459888E-1	3.972922E-1	4.776466E-1	4.240983E-1	4.097918E-1	4.437088E-1	4.682176E-1	4.812325E-1	4.461046E-1	3.859845E-1	4.791068E-1	4.451283E-1	5.227320E-1	3.700586E-1	4.394103E-1	4.749875E-1	5.214147E-1	4.488100E-1	4.402583E-1	4.543414E-1	4.811339E-1	4.776528E-1	5.308169E-1	5.370754E-1	4.488473E-1	4.773199E-1	4.683831E-1	5.474597E-1	4.893355E-1	4.054327E-1	4.213504E-1	4.252858E-1	5.060871E-1	3.881894E-1	4.704696E-1	4.642785E-1	3.997750E-1	4.114823E-1	4.646007E-1	4.972327E-1	4.296964E-1	4.395467E-1	4.834049E-1	4.721200E-1	4.922504E-1	4.199095E-1	4.337883E-1	4.795805E-1	4.621793E-1	4.541774E-1	4.655327E-1	4.325983E-1	4.361552E-1	4.719723E-1	4.881204E-1	5.136840E-1	4.486009E-1	4.167297E-1	4.836558E-1	4.886068E-1	5.109340E-1	4.305369E-1	4.195798E-1	4.470412E-1	4.800166E-1	4.158127E-1	4.712687E-1	4.408376E-1	4.508776E-1	4.683738E-1	4.774297E-1	5.156705E-1	4.581745E-1	4.231051E-1	4.972985E-1	5.112082E-1	4.372122E-1	4.231107E-1	5.231726E-1	4.636811E-1	5.199267E-1	4.192257E-1	4.759257E-1	4.992222E-1	4.730598E-1	4.671339E-1	5.003540E-1	5.102884E-1	4.465536E-1	4.946134E-1	4.837931E-1	4.763839E-1	5.057993E-1	4.424956E-1	5.162766E-1	4.370085E-1	4.378795E-1	4.170348E-1	4.662031E-1	4.226046E-1	4.314186E-1	4.409550E-1	5.070518E-1	4.581020E-1	4.582365E-1	5.085679E-1	4.819915E-1
2.855050E+2	3.314481E-1	3.017270E-1	3.729727E-1	3.643974E-1	3.079401E-1	3.212310E-1	3.740315E-1	3.961488E-1	3.423525E-1	3.274240E-1	3.945389E-1	3.661397E-1	3.756857E-1	3.468132E-1	3.465349E-1	3.370175E-1	3.771749E-1	3.353609E-1	3.837661E-1	3.206111E-1	3.395782E-1	3.171092E-1	3.845376E-1	3.788874E-1	2.945199E-1	3.331894E-1	3.682648E-1	3.927279E-1	3.476754E-1	3.098788E-1	3.644316E-1	3.830586E-1	3.328798E-1	3.166419E-1	3.395544E-1	3.562474E-1	3.204736E-1	3.373333E-1	3.337869E-1	3.523622E-1	3.377591E-1	2.874529E-1	3.622186E-1	3.670655E-1	3.746102E-1	3.347241E-1	3.360819E-1	2.891167E-1	3.766590E-1	3.498056E-1	3.728516E-1	3.597312E-1	3.056194E-1	3.580934E-1	3.552904E-1	4.077463E-1	3.537340E-1	2.897087E-1	3.551359E-1	3.546076E-1	3.462010E-1	3.191697E-1	3.582249E-1	3.255815E-1	3.654668E-1	3.148047E-1	3.032695E-1	3.216320E-1	3.153590E-1	3.185198E-1	3.660009E-1	3.749999E-1	3.510862E-1	3.204416E-1	3.577565E-1	3.274281E-1	4.114589E-1	3.119100E-1	3.848258E-1	3.567408E-1	3.236903E-1	3.645728E-1	3.573870E-1	3.254918E-1	2.893839E-1	3.404422E-1	3.828946E-1	3.907140E-1	3.218271E-1	2.883989E-1	3.569095E-1	3.863470E-1	3.764120E-1	3.032442E-1	3.139394E-1	3.267326E-1	3.447708E-1	3.117598E-1	3.342403E-1	3.443498E-1	3.208074E-1	3.125153E-1	3.761866E-1	4.021876E-1	3.284922E-1	3.146333E-1	3.724170E-1	3.591287E-1	4.174311E-1	2.809965E-1	2.741497E-1	3.383002E-1	4.185238E-1	3.281393E-1	3.440781E-1	3.750717E-1	3.518785E-1	3.172519E-1	3.579899E-1	3.576710E-1	3.377930E-1	2.755466E-1	3.721020E-1	3.870627E-1	3.547180E-1	3.490592E-1	3.303136E-1	3.370948E-1	3.555322E-1	3.330052E-1	3.450621E-1	3.695788E-1	3.634766E-1	3.021435E-1	3.699240E-1	4.020892E-1	3.408222E-1	3.312731E-1	3.346050E-1	3.611723E-1	3.573301E-1	3.084457E-1	4.121883E-1	3.655869E-1	3.986972E-1	3.281091E-1	3.389603E-1	3.365788E-1	3.532404E-1	3.277401E-1	3.962266E-1	3.969274E-1	3.538664E-1	3.569328E-1	3.427875E-1	3.756184E-1	3.454850E-1	2.978020E-1	3.702467E-1	3.178235E-1	2.921032E-1	3.089716E-1	3.790102E-1	3.511626E-1	3.373306E-1	3.076032E-1	3.301276E-1	3.407427E-1	3.539586E-1	3.171678E-1	3.557264E-1
2.856030E+2	2.029892E-1	2.020028E-1	2.394274E-1	2.550785E-1	2.142369E-1	2.206047E-1	2.629478E-1	2.195552E-1	2.235291E-1	2.166205E-1	2.711018E-1	2.601187E-1	2.509380E-1	2.369202E-1	2.321231E-1	2.168202E-1	2.536952E-1	1.841099E-1	2.251699E-1	2.464746E-1	2.406977E-1	2.192713E-1	2.458022E-1	2.499527E-1	2.112926E-1	2.031890E-1	2.856159E-1	2.336168E-1	2.658697E-1	2.164091E-1	2.046507E-1	2.406013E-1	2.567001E-1	2.138168E-1	2.511119E-1	2.063769E-1	1.959443E-1	2.022027E-1	2.391569E-1	2.391170E-1	2.018056E-1	2.046026E-1	2.593872E-1	2.195850E-1	2.692778E-1	1.970798E-1	2.251866E-1	2.157195E-1	2.834527E-1	1.981373E-1	2.234736E-1	2.252525E-1	2.135593E-1	2.051673E-1	2.310420E-1	2.541234E-1	2.504535E-1	1.965934E-1	2.571669E-1	2.401813E-1	2.552549E-1	2.300183E-1	2.196963E-1	2.474026E-1	2.361775E-1	1.854710E-1	2.370068E-1	2.055025E-1	2.219983E-1	2.022016E-1	2.461990E-1	2.220255E-1	2.673796E-1	1.935869E-1	2.501430E-1	2.589702E-1	2.547670E-1	1.772509E-1	2.701959E-1	2.001420E-1	2.540373E-1	1.982859E-1	2.160782E-1	2.165553E-1	2.150927E-1	2.326326E-1	2.201779E-1	2.576573E-1	2.312577E-1	2.329036E-1	2.697172E-1	2.430035E-1	2.172431E-1	2.204715E-1	2.275894E-1	1.942326E-1	2.691895E-1	2.016108E-1	2.621849E-1	2.600432E-1	2.096286E-1	2.049004E-1	2.174938E-1	2.650198E-1	2.126692E-1	2.085118E-1	2.475556E-1	2.626158E-1	2.899236E-1	2.170517E-1	2.167635E-1	2.367552E-1	2.063060E-1	1.917696E-1	2.348716E-1	2.174493E-1	2.052174E-1	2.270843E-1	2.479611E-1	2.502707E-1	2.416843E-1	1.857034E-1	2.811603E-1	2.855173E-1	2.659326E-1	1.734051E-1	2.387578E-1	2.363095E-1	2.688369E-1	2.135252E-1	2.555687E-1	2.177173E-1	2.083148E-1	2.300052E-1	2.600539E-1	2.499329E-1	2.319280E-1	2.029433E-1	2.583414E-1	2.732599E-1	2.557653E-1	2.016488E-1	2.506420E-1	2.472346E-1	2.617061E-1	1.996107E-1	2.330708E-1	2.124893E-1	2.628103E-1	2.691064E-1	2.521438E-1	2.705359E-1	2.291408E-1	2.158945E-1	2.260940E-1	2.856493E-1	2.647056E-1	2.334937E-1	2.412534E-1	2.491048E-1	2.037548E-1	1.974976E-1	2.697127E-1	2.269644E-1	2.067150E-1	2.255417E-1	2.916662E-1	2.447212E-1	2.281069E-1	2.266408E-1	2.828816E-1
2.858030E+2	2.938800E-1	2.873087E-1	3.729726E-1	2.940317E-1	2.708947E-1	3.123848E-1	3.167350E-1	3.321485E-1	3.047060E-1	3.041552E-1	3.287829E-1	3.205256E-1	3.040720E-1	2.826183E-1	2.981298E-1	3.328728E-1	3.311510E-1	3.124129E-1	3.636454E-1	3.540927E-1	2.875358E-1	2.894381E-1	3.085356E-1	3.393023E-1	2.898311E-1	3.082288E-1	3.263046E-1	3.021571E-1	2.966798E-1	2.859920E-1	3.101056E-1	3.278424E-1	2.860839E-1	2.909362E-1	3.165832E-1	3.087275E-1	2.700910E-1	2.850569E-1	3.598918E-1	3.512515E-1	2.889007E-1	2.672715E-1	3.021366E-1	3.016497E-1	3.202448E-1	2.450472E-1	2.469309E-1	2.872819E-1	3.117682E-1	2.984888E-1	2.898637E-1	2.868885E-1	2.959856E-1	2.941999E-1	3.008576E-1	3.348596E-1	3.009472E-1	2.976579E-1	2.988315E-1	3.614056E-1	3.255861E-1	2.811050E-1	2.997840E-1	2.899553E-1	2.894814E-1	2.832354E-1	2.986192E-1	2.795063E-1	2.981885E-1	2.889472E-1	2.945594E-1	2.932012E-1	2.741667E-1	2.654712E-1	3.085289E-1	2.817895E-1	3.262999E-1	2.823257E-1	2.701964E-1	3.258462E-1	2.798768E-1	2.715834E-1	2.681399E-1	3.067498E-1	2.933988E-1	3.023281E-1	3.498953E-1	3.275122E-1	2.654976E-1	3.025679E-1	3.856067E-1	3.508069E-1	3.473739E-1	3.012000E-1	2.960375E-1	3.070223E-1	2.962633E-1	2.645532E-1	3.105972E-1	3.229761E-1	3.041818E-1	2.356473E-1	2.787035E-1	3.136221E-1	3.048779E-1	3.091060E-1	3.076740E-1	3.344118E-1	3.510429E-1	2.787909E-1	3.325804E-1	3.062918E-1	3.384872E-1	2.599547E-1	2.961086E-1	2.876316E-1	2.774536E-1	2.803650E-1	3.368298E-1	3.407135E-1	2.970883E-1	2.947996E-1	3.066227E-1	2.891881E-1	2.895340E-1	2.929768E-1	3.108575E-1	2.861928E-1	3.121848E-1	2.726736E-1	3.232618E-1	3.018249E-1	3.104466E-1	2.833240E-1	3.132165E-1	3.002946E-1	3.186205E-1	2.500372E-1	3.651098E-1	3.705499E-1	3.675995E-1	3.140665E-1	3.320313E-1	3.250702E-1	3.356566E-1	2.732053E-1	2.986762E-1	3.040507E-1	2.944613E-1	2.912329E-1	3.441635E-1	3.513223E-1	3.595885E-1	2.886524E-1	3.452190E-1	3.252367E-1	2.995027E-1	3.058404E-1	3.252203E-1	2.813175E-1	2.556597E-1	2.975973E-1	3.077827E-1	2.951085E-1	2.919474E-1	3.004231E-1	3.762816E-1	3.540791E-1	3.215971E-1	3.119951E-1	3.071632E-1
2.860040E+2	5.592807E-1	5.312139E-1	5.993644E-1	5.817809E-1	5.487352E-1	5.379650E-1	6.219247E-1	5.857782E-1	5.164706E-1	5.268694E-1	6.102670E-1	5.633858E-1	6.067003E-1	5.383089E-1	5.401543E-1	5.162766E-1	5.579041E-1	4.793112E-1	5.932541E-1	5.274777E-1	4.957062E-1	5.048798E-1	6.246109E-1	6.209236E-1	5.195861E-1	5.453476E-1	5.818806E-1	5.579586E-1	5.304119E-1	4.781255E-1	5.551016E-1	5.542265E-1	5.320361E-1	5.169370E-1	5.543433E-1	5.499821E-1	4.934845E-1	5.247407E-1	5.611154E-1	5.666372E-1	5.002656E-1	5.338790E-1	5.274410E-1	5.942313E-1	5.920712E-1	5.109498E-1	5.143828E-1	4.882074E-1	5.866679E-1	4.684031E-1	5.696504E-1	4.807613E-1	5.368422E-1	5.099730E-1	5.505377E-1	6.286501E-1	4.960310E-1	4.657195E-1	5.961147E-1	5.913899E-1	5.681077E-1	4.814475E-1	5.508654E-1	5.700146E-1	5.537288E-1	4.583952E-1	5.439088E-1	5.903229E-1	5.138836E-1	4.841255E-1	5.715326E-1	5.513459E-1	5.196299E-1	5.128395E-1	5.832858E-1	5.340038E-1	6.510381E-1	4.618723E-1	5.409393E-1	5.484931E-1	6.000565E-1	5.089797E-1	5.709416E-1	5.421933E-1	5.042257E-1	5.026987E-1	5.456098E-1	6.368676E-1	5.305815E-1	5.162849E-1	5.942061E-1	5.735224E-1	5.785986E-1	4.963807E-1	5.066479E-1	5.183643E-1	5.636191E-1	5.073297E-1	4.738476E-1	4.975254E-1	5.109540E-1	5.171755E-1	5.564161E-1	5.911977E-1	5.320247E-1	4.749197E-1	6.082661E-1	6.074731E-1	5.544244E-1	4.783413E-1	5.537784E-1	5.601550E-1	5.688960E-1	5.729835E-1	6.104611E-1	5.775651E-1	5.215243E-1	5.088590E-1	5.621777E-1	6.086494E-1	5.458404E-1	5.322426E-1	6.230993E-1	5.803639E-1	5.716227E-1	5.077815E-1	5.202905E-1	5.254296E-1	6.245087E-1	4.867902E-1	5.343719E-1	4.922366E-1	5.088176E-1	5.321482E-1	5.223229E-1	5.928204E-1	5.543811E-1	5.208248E-1	5.735621E-1	6.120146E-1	5.741527E-1	5.152935E-1	5.725001E-1	5.585763E-1	5.769056E-1	4.858115E-1	4.793788E-1	5.425938E-1	4.922753E-1	5.357241E-1	5.766325E-1	6.262552E-1	5.770003E-1	5.729671E-1	6.126426E-1	6.275300E-1	5.120130E-1	4.917313E-1	5.807734E-1	5.110960E-1	4.986197E-1	5.057587E-1	6.270788E-1	5.544970E-1	5.587120E-1	5.291704E-1	5.711540E-1	5.914639E-1	5.625141E-1	5.680562E-1	6.373941E-1
2.862020E+2	7.471217E-1	7.522900E-1	9.465820E-1	8.934028E-1	7.285147E-1	7.746037E-1	9.341294E-1	9.034078E-1	7.717642E-1	8.426597E-1	9.090560E-1	9.085679E-1	8.920014E-1	9.561159E-1	8.239818E-1	8.737582E-1	8.250704E-1	8.840401E-1	8.417987E-1	8.371775E-1	7.913085E-1	8.250773E-1	9.624004E-1	9.183795E-1	7.927130E-1	8.989473E-1	8.997615E-1	7.721449E-1	8.597605E-1	7.917690E-1	7.819888E-1	8.247827E-1	7.823429E-1	7.622177E-1	8.713565E-1	8.570348E-1	7.254329E-1	7.772478E-1	9.244053E-1	9.008184E-1	8.061603E-1	8.004868E-1	9.075689E-1	8.618369E-1	8.378474E-1	7.747654E-1	7.535671E-1	7.606941E-1	8.674664E-1	8.641083E-1	9.087139E-1	7.990289E-1	7.391609E-1	6.953694E-1	8.570162E-1	8.944078E-1	8.196430E-1	8.007099E-1	8.866412E-1	8.927493E-1	8.845994E-1	7.298715E-1	7.683986E-1	8.134592E-1	8.157071E-1	7.567793E-1	8.170983E-1	8.020879E-1	7.220658E-1	7.374630E-1	8.913708E-1	8.360481E-1	7.854545E-1	7.496360E-1	8.511727E-1	8.702888E-1	8.951604E-1	7.077274E-1	7.811136E-1	8.073584E-1	8.123862E-1	7.048045E-1	8.705561E-1	7.577231E-1	8.144404E-1	8.402830E-1	8.824199E-1	9.462233E-1	8.332181E-1	8.327258E-1	8.988278E-1	9.016729E-1	8.883314E-1	7.896621E-1	7.277867E-1	8.304513E-1	7.914927E-1	8.063041E-1	8.307448E-1	7.801309E-1	7.998096E-1	7.333658E-1	8.352630E-1	9.238555E-1	7.704161E-1	7.755972E-1	9.134834E-1	8.546413E-1	8.536997E-1	7.616792E-1	7.989739E-1	8.802434E-1	8.514474E-1	7.506775E-1	8.094833E-1	7.708534E-1	8.290769E-1	7.742390E-1	8.573516E-1	8.573649E-1	7.968529E-1	7.301131E-1	9.201746E-1	9.217006E-1	9.020363E-1	7.543323E-1	8.361554E-1	7.595758E-1	8.023429E-1	7.896299E-1	8.235009E-1	7.492338E-1	7.091534E-1	8.154730E-1	8.826484E-1	9.678537E-1	8.324303E-1	7.610008E-1	9.256427E-1	8.792677E-1	8.811275E-1	7.817221E-1	8.918918E-1	8.123423E-1	9.212004E-1	7.673400E-1	7.786301E-1	8.461913E-1	8.302563E-1	8.001300E-1	8.902235E-1	8.647063E-1	8.584919E-1	7.934806E-1	8.885742E-1	7.978711E-1	9.084507E-1	7.439396E-1	8.582302E-1	7.956332E-1	7.029264E-1	8.458692E-1	9.058483E-1	7.655252E-1	8.686465E-1	7.456086E-1	9.096159E-1	8.621915E-1	7.638767E-1	8.499834E-1	8.510726E-1
2.864060E+2	6.828918E-1	6.958204E-1	8.626379E-1	7.715181E-1	6.990964E-1	7.281612E-1	8.476004E-1	7.955550E-1	6.917639E-1	7.562322E-1	8.236878E-1	7.926853E-1	8.076813E-1	8.081422E-1	7.425740E-1	7.887916E-1	7.700656E-1	7.494785E-1	8.015578E-1	7.630406E-1	7.038767E-1	6.956152E-1	7.681715E-1	8.527807E-1	7.563735E-1	7.367076E-1	7.675229E-1	7.648015E-1	7.471447E-1	8.166950E-1	7.372508E-1	8.060090E-1	7.551358E-1	8.018475E-1	7.679826E-1	7.571211E-1	6.788536E-1	6.953799E-1	8.450031E-1	8.386457E-1	7.381836E-1	7.388795E-1	8.024268E-1	7.393331E-1	7.880123E-1	8.310740E-1	6.861611E-1	6.808748E-1	7.966767E-1	8.036681E-1	7.510374E-1	6.970493E-1	7.263148E-1	7.508833E-1	7.706338E-1	8.349768E-1	7.473466E-1	6.848827E-1	7.695299E-1	7.466019E-1	8.579222E-1	6.777838E-1	7.196965E-1	7.699157E-1	7.748797E-1	7.170620E-1	7.345600E-1	6.939283E-1	6.716293E-1	7.078903E-1	7.144170E-1	7.276908E-1	7.017482E-1	7.200363E-1	8.076702E-1	8.006300E-1	7.929702E-1	6.638609E-1	7.658301E-1	7.008304E-1	8.157568E-1	7.190270E-1	7.441229E-1	7.588945E-1	7.240864E-1	7.934575E-1	7.481505E-1	8.419964E-1	7.095122E-1	7.004820E-1	7.487233E-1	8.436258E-1	8.022947E-1	6.936046E-1	7.204159E-1	7.023310E-1	7.497529E-1	7.130144E-1	7.463049E-1	7.528201E-1	7.312324E-1	6.526546E-1	7.287106E-1	7.985692E-1	7.029468E-1	6.418402E-1	7.747482E-1	7.816680E-1	7.936339E-1	6.911205E-1	7.102858E-1	7.411699E-1	7.762620E-1	7.041884E-1	7.104828E-1	7.961649E-1	7.108719E-1	7.055887E-1	7.526122E-1	8.031000E-1	7.414490E-1	6.937466E-1	7.382912E-1	7.846759E-1	7.739175E-1	6.993086E-1	6.976778E-1	7.117290E-1	8.067897E-1	7.151027E-1	7.431871E-1	6.978333E-1	6.197883E-1	7.412441E-1	7.845923E-1	7.610499E-1	7.023924E-1	7.892575E-1	7.820150E-1	7.854946E-1	8.001047E-1	6.367040E-1	8.018708E-1	7.792889E-1	7.890589E-1	6.306644E-1	7.095718E-1	8.172781E-1	6.697440E-1	7.426020E-1	8.272630E-1	7.878286E-1	7.761039E-1	6.546803E-1	8.059159E-1	7.510868E-1	7.705053E-1	6.746080E-1	7.912991E-1	7.301368E-1	6.510216E-1	7.230205E-1	7.793582E-1	7.644257E-1	7.269621E-1	7.025254E-1	8.249993E-1	7.314950E-1	7.494934E-1	7.077274E-1	9.142055E-1
2.866050E+2	9.870731E-1	8.988747E-1	1.120827E+0	9.775919E-1	9.388030E-1	9.537406E-1	1.060415E+0	9.709632E-1	1.002352E+0	1.015512E+0	1.061335E+0	1.044176E+0	1.062950E+0	1.079065E+0	9.680974E-1	9.939558E-1	1.031619E+0	1.030077E+0	1.025249E+0	9.471867E-1	9.849081E-1	9.654103E-1	1.038403E+0	1.042790E+0	9.802682E-1	1.007107E+0	1.073960E+0	1.007140E+0	9.968134E-1	1.074257E+0	9.481604E-1	1.033498E+0	9.858532E-1	9.903605E-1	1.006892E+0	9.569481E-1	8.594685E-1	9.360508E-1	1.121278E+0	1.080677E+0	9.176848E-1	9.428184E-1	1.083189E+0	9.748255E-1	1.006606E+0	1.057352E+0	9.405664E-1	9.340960E-1	9.807306E-1	1.029459E+0	9.691768E-1	9.301456E-1	9.500437E-1	8.713397E-1	9.824470E-1	1.071580E+0	1.023908E+0	9.097230E-1	9.508272E-1	1.074019E+0	1.032539E+0	1.018365E+0	9.112553E-1	9.242952E-1	9.529354E-1	9.258292E-1	9.356748E-1	9.535104E-1	9.377601E-1	1.002629E+0	1.004579E+0	1.009206E+0	9.257194E-1	9.240631E-1	1.032055E+0	9.819844E-1	1.032550E+0	9.219587E-1	9.754373E-1	1.003373E+0	9.831484E-1	1.001276E+0	9.173049E-1	9.018003E-1	9.128258E-1	1.003630E+0	9.814147E-1	1.071519E+0	9.447737E-1	9.862236E-1	9.363528E-1	1.056863E+0	1.060405E+0	9.480533E-1	8.752144E-1	9.443348E-1	9.900347E-1	9.704020E-1	9.388277E-1	8.869977E-1	9.619009E-1	9.543603E-1	9.463467E-1	1.013501E+0	9.435882E-1	8.231313E-1	1.060311E+0	1.080623E+0	1.041274E+0	9.579226E-1	9.210504E-1	9.586094E-1	9.702895E-1	8.674184E-1	9.442055E-1	9.813994E-1	8.695731E-1	9.146136E-1	1.057306E+0	1.072166E+0	9.302738E-1	8.755733E-1	1.032941E+0	1.040374E+0	9.807069E-1	8.379264E-1	9.334327E-1	9.122801E-1	9.768445E-1	9.777212E-1	9.864223E-1	8.777313E-1	9.016325E-1	9.346581E-1	9.901549E-1	1.113581E+0	9.201803E-1	9.317150E-1	1.127741E+0	9.566304E-1	1.053445E+0	8.918912E-1	1.015210E+0	9.253634E-1	1.033945E+0	9.028475E-1	9.581812E-1	9.004063E-1	9.579884E-1	9.627547E-1	1.100898E+0	1.014551E+0	1.048441E+0	9.132499E-1	1.098865E+0	9.970007E-1	1.020298E+0	9.238018E-1	9.957414E-1	9.287767E-1	8.122593E-1	9.289076E-1	1.012691E+0	9.018135E-1	9.870861E-1	9.415317E-1	9.865399E-1	9.955546E-1	9.059110E-1	1.049144E+0	9.627671E-1
2.868020E+2	1.264592E+0	1.116345E+0	1.462957E+0	1.228901E+0	1.219911E+0	1.223553E+0	1.366773E+0	1.394074E+0	1.209411E+0	1.245982E+0	1.415497E+0	1.332648E+0	1.315911E+0	1.450087E+0	1.254125E+0	1.231241E+0	1.363892E+0	1.325278E+0	1.297466E+0	1.290368E+0	1.171221E+0	1.213465E+0	1.370162E+0	1.365127E+0	1.227606E+0	1.385664E+0	1.354967E+0	1.310673E+0	1.327224E+0	1.416980E+0	1.260263E+0	1.264298E+0	1.235070E+0	1.296693E+0	1.284853E+0	1.274966E+0	1.167465E+0	1.233931E+0	1.370360E+0	1.347134E+0	1.180032E+0	1.213675E+0	1.296938E+0	1.265029E+0	1.405286E+0	1.382691E+0	1.231937E+0	1.202913E+0	1.309901E+0	1.361305E+0	1.378187E+0	1.280910E+0	1.120249E+0	1.194998E+0	1.254611E+0	1.387797E+0	1.262600E+0	1.176579E+0	1.323558E+0	1.260952E+0	1.364794E+0	1.309863E+0	1.205628E+0	1.194458E+0	1.247803E+0	1.232359E+0	1.256528E+0	1.213092E+0	1.206036E+0	1.225407E+0	1.296941E+0	1.269476E+0	1.208511E+0	1.205258E+0	1.370922E+0	1.283441E+0	1.441311E+0	1.319817E+0	1.251638E+0	1.314439E+0	1.301081E+0	1.386361E+0	1.229671E+0	1.273122E+0	1.205973E+0	1.317256E+0	1.413807E+0	1.355371E+0	1.278337E+0	1.356982E+0	1.298367E+0	1.388568E+0	1.322817E+0	1.329216E+0	1.161643E+0	1.273942E+0	1.254007E+0	1.288484E+0	1.214663E+0	1.270532E+0	1.173868E+0	1.208984E+0	1.231994E+0	1.392602E+0	1.271939E+0	1.265303E+0	1.222169E+0	1.405473E+0	1.307882E+0	1.381276E+0	1.190243E+0	1.241170E+0	1.280734E+0	1.241402E+0	1.191197E+0	1.223010E+0	1.232943E+0	1.206634E+0	1.394798E+0	1.366104E+0	1.240082E+0	1.184678E+0	1.350630E+0	1.401285E+0	1.410021E+0	1.227328E+0	1.225264E+0	1.212598E+0	1.266939E+0	1.175276E+0	1.288173E+0	1.116038E+0	1.199191E+0	1.227392E+0	1.376470E+0	1.343959E+0	1.180257E+0	1.198970E+0	1.470924E+0	1.348133E+0	1.257715E+0	1.175185E+0	1.338301E+0	1.285753E+0	1.344294E+0	1.194889E+0	1.202187E+0	1.167864E+0	1.214582E+0	1.158569E+0	1.381798E+0	1.349423E+0	1.361972E+0	1.199804E+0	1.333468E+0	1.367671E+0	1.334713E+0	1.150890E+0	1.358382E+0	1.157481E+0	1.049696E+0	1.160955E+0	1.277952E+0	1.296391E+0	1.254958E+0	1.196948E+0	1.348077E+0	1.292954E+0	1.290658E+0	1.227611E+0	1.283286E+0
2.870010E+2	1.058574E+0	1.015420E+0	1.239110E+0	1.080628E+0	1.048848E+0	1.030040E+0	1.210086E+0	1.093036E+0	1.016471E+0	1.067589E+0	1.228609E+0	1.188412E+0	1.200405E+0	1.142171E+0	1.036304E+0	1.070634E+0	1.147241E+0	1.178199E+0	1.137687E+0	1.096657E+0	1.050481E+0	1.034590E+0	1.180758E+0	1.209048E+0	1.038878E+0	1.062227E+0	1.174411E+0	1.106277E+0	1.093493E+0	1.262235E+0	9.875722E-1	1.099756E+0	1.058768E+0	1.125319E+0	1.083847E+0	1.170179E+0	9.954056E-1	1.066250E+0	1.216996E+0	1.188370E+0	9.888471E-1	1.043727E+0	1.107453E+0	1.071163E+0	1.139122E+0	1.149114E+0	9.829675E-1	9.487744E-1	1.098712E+0	1.113846E+0	1.093658E+0	1.047815E+0	9.596784E-1	9.980794E-1	1.094862E+0	1.236416E+0	1.113417E+0	1.075514E+0	1.133252E+0	1.170317E+0	1.112570E+0	1.145582E+0	1.101732E+0	1.024246E+0	1.129856E+0	1.133577E+0	1.110051E+0	1.017268E+0	9.957074E-1	1.006572E+0	1.136472E+0	1.036827E+0	1.030918E+0	1.042461E+0	1.193476E+0	1.091277E+0	1.179023E+0	1.186177E+0	1.090065E+0	1.090728E+0	1.147171E+0	1.216794E+0	1.066050E+0	1.025965E+0	1.033297E+0	1.096193E+0	1.046274E+0	1.171310E+0	1.062958E+0	1.079503E+0	1.085353E+0	1.164668E+0	1.132461E+0	1.231116E+0	9.857832E-1	1.102021E+0	1.066745E+0	1.137872E+0	1.055918E+0	1.124481E+0	1.002425E+0	1.011049E+0	1.089170E+0	1.200351E+0	1.078528E+0	1.077380E+0	1.143551E+0	1.177137E+0	1.105555E+0	1.247876E+0	1.002435E+0	1.086644E+0	1.097621E+0	1.199044E+0	1.060557E+0	1.052732E+0	1.000912E+0	1.037569E+0	1.123959E+0	1.223657E+0	1.027513E+0	1.074514E+0	1.111757E+0	1.160269E+0	1.133552E+0	1.155372E+0	1.011254E+0	9.988122E-1	1.118001E+0	1.100750E+0	1.090832E+0	9.945484E-1	9.939441E-1	1.118662E+0	1.100024E+0	1.107152E+0	1.001586E+0	1.114202E+0	1.234509E+0	1.166446E+0	1.140174E+0	1.079629E+0	1.145925E+0	1.059710E+0	1.093348E+0	1.129472E+0	9.996161E-1	1.055820E+0	1.069895E+0	1.094404E+0	1.172334E+0	1.266031E+0	1.093068E+0	1.029663E+0	1.129255E+0	1.107363E+0	1.142087E+0	9.649996E-1	1.151506E+0	1.011454E+0	9.182773E-1	9.982935E-1	1.157601E+0	1.098553E+0	1.055715E+0	1.008207E+0	1.158334E+0	1.156924E+0	1.044348E+0	1.038797E+0	1.239579E+0
2.872050E+2	7.531810E-1	7.570967E-1	9.542137E-1	8.330894E-1	7.296041E-1	8.475858E-1	9.189290E-1	9.152598E-1	7.694118E-1	8.614952E-1	8.986741E-1	8.789807E-1	8.850720E-1	8.386076E-1	7.953794E-1	7.991536E-1	8.912998E-1	8.444022E-1	8.595531E-1	7.881517E-1	7.423888E-1	7.638047E-1	8.441753E-1	8.708769E-1	8.161568E-1	8.927063E-1	8.654301E-1	8.676115E-1	8.034520E-1	9.288582E-1	8.373800E-1	8.479730E-1	8.324036E-1	8.061314E-1	8.231151E-1	8.935878E-1	7.957777E-1	8.492518E-1	9.200545E-1	9.407876E-1	7.403079E-1	8.737778E-1	8.694397E-1	8.820555E-1	8.185930E-1	9.092808E-1	8.612011E-1	8.019797E-1	8.167331E-1	8.994577E-1	8.506220E-1	7.878224E-1	7.295264E-1	8.126827E-1	8.404495E-1	9.235631E-1	7.978390E-1	8.484032E-1	8.641202E-1	8.417676E-1	9.816081E-1	9.101801E-1	8.333336E-1	8.164268E-1	8.656077E-1	8.586156E-1	8.112860E-1	7.611004E-1	7.778671E-1	8.449091E-1	8.430110E-1	8.445467E-1	7.843244E-1	8.426643E-1	8.889530E-1	8.438677E-1	8.917533E-1	8.587099E-1	8.477068E-1	7.977714E-1	8.752982E-1	8.623383E-1	7.972464E-1	7.706087E-1	8.405421E-1	8.860199E-1	8.972122E-1	8.719330E-1	8.564131E-1	8.728717E-1	8.381233E-1	9.253669E-1	8.625198E-1	9.347692E-1	7.341055E-1	8.205961E-1	8.039016E-1	8.793611E-1	9.016737E-1	8.038792E-1	7.925362E-1	7.468170E-1	8.295950E-1	8.741723E-1	7.850351E-1	8.286584E-1	8.880489E-1	9.252611E-1	8.705605E-1	9.094124E-1	7.843668E-1	8.239509E-1	8.284069E-1	9.087427E-1	8.574526E-1	8.628950E-1	8.323600E-1	8.387909E-1	8.065679E-1	8.743237E-1	7.855460E-1	8.894774E-1	8.777351E-1	8.262733E-1	8.806831E-1	8.760190E-1	8.418769E-1	8.064055E-1	8.323533E-1	8.866319E-1	8.131752E-1	8.239963E-1	7.759314E-1	8.196556E-1	8.755594E-1	8.403430E-1	7.859126E-1	8.445909E-1	8.824277E-1	8.745787E-1	8.411868E-1	9.199965E-1	9.708147E-1	8.304680E-1	9.769667E-1	8.350940E-1	7.740272E-1	7.919779E-1	7.929542E-1	8.399563E-1	8.720621E-1	9.285524E-1	9.465997E-1	9.042950E-1	8.752030E-1	8.806418E-1	8.450712E-1	8.946618E-1	8.497106E-1	7.934866E-1	7.106571E-1	8.959189E-1	8.247968E-1	8.358667E-1	8.199430E-1	8.533143E-1	9.403846E-1	9.128692E-1	7.225264E-1	8.861944E-1	8.850673E-1
2.874030E+2	5.580686E-1	5.011760E-1	6.069957E-1	5.767542E-1	5.269436E-1	5.379650E-1	6.382943E-1	6.675558E-1	5.352945E-1	6.099720E-1	6.483369E-1	5.880417E-1	6.286464E-1	6.481996E-1	5.984594E-1	5.629045E-1	5.927036E-1	6.128300E-1	5.897035E-1	5.573712E-1	5.383821E-1	5.503404E-1	6.463259E-1	6.412825E-1	5.512355E-1	6.347878E-1	5.767953E-1	6.032437E-1	6.196543E-1	6.276775E-1	5.519059E-1	5.630601E-1	5.646851E-1	5.222924E-1	5.233308E-1	5.451085E-1	5.600268E-1	5.839223E-1	6.209381E-1	6.199284E-1	5.225707E-1	5.285679E-1	5.748127E-1	5.252493E-1	6.147234E-1	6.266951E-1	5.219933E-1	5.405019E-1	6.586372E-1	6.018246E-1	5.945458E-1	5.199851E-1	5.368421E-1	5.644390E-1	6.049697E-1	6.107092E-1	5.809507E-1	5.781404E-1	6.130061E-1	6.185811E-1	5.838725E-1	6.036565E-1	5.757570E-1	5.502228E-1	6.070314E-1	5.816183E-1	5.276341E-1	5.698285E-1	5.600265E-1	5.511561E-1	6.143977E-1	5.502829E-1	5.275488E-1	5.836669E-1	6.611328E-1	5.640295E-1	5.954022E-1	6.434586E-1	6.151737E-1	5.804519E-1	5.719707E-1	5.943115E-1	5.783786E-1	5.175948E-1	5.423749E-1	6.061529E-1	6.252607E-1	6.180184E-1	5.692397E-1	5.942137E-1	5.975165E-1	6.552638E-1	6.528054E-1	5.423656E-1	4.950642E-1	5.534057E-1	5.929492E-1	5.916262E-1	6.202087E-1	6.162669E-1	5.421251E-1	5.546482E-1	5.960889E-1	5.598764E-1	5.522650E-1	5.998341E-1	6.059541E-1	6.133590E-1	5.575854E-1	6.712758E-1	5.621253E-1	5.413911E-1	6.137641E-1	6.194743E-1	5.502443E-1	6.201342E-1	5.259027E-1	6.031248E-1	6.182499E-1	6.222146E-1	5.774985E-1	5.547037E-1	5.939980E-1	6.366419E-1	5.918516E-1	6.665056E-1	5.523341E-1	5.152492E-1	6.078354E-1	5.613174E-1	5.791189E-1	5.156000E-1	5.137287E-1	5.833769E-1	6.274673E-1	5.671040E-1	5.649532E-1	6.491545E-1	6.472831E-1	5.909155E-1	6.095298E-1	5.906128E-1	6.131951E-1	6.054914E-1	5.890288E-1	5.582381E-1	5.760601E-1	5.317502E-1	5.781842E-1	5.899336E-1	5.838974E-1	6.093170E-1	6.193380E-1	6.065480E-1	6.308751E-1	6.083367E-1	5.977622E-1	6.032653E-1	6.038949E-1	4.992845E-1	4.953063E-1	6.183704E-1	5.804120E-1	5.402088E-1	6.284478E-1	6.204642E-1	6.262825E-1	5.741267E-1	5.840879E-1	6.611694E-1	5.791174E-1
2.876020E+2	4.380930E-1	4.278851E-1	5.141496E-1	4.712042E-1	3.733145E-1	4.284923E-1	5.389037E-1	4.696290E-1	4.082351E-1	4.637119E-1	4.902910E-1	4.549001E-1	4.865721E-1	4.795539E-1	4.455446E-1	4.447808E-1	4.591203E-1	4.657511E-1	5.186896E-1	4.844311E-1	4.634398E-1	4.416304E-1	5.196538E-1	4.750237E-1	4.316685E-1	4.538286E-1	4.699865E-1	4.661633E-1	4.560429E-1	5.051274E-1	4.837336E-1	4.625685E-1	4.667396E-1	4.162535E-1	4.900213E-1	4.159521E-1	4.269417E-1	4.320235E-1	4.925906E-1	5.055739E-1	4.004250E-1	4.414692E-1	5.008664E-1	4.705390E-1	4.674853E-1	4.911370E-1	4.415401E-1	4.120569E-1	4.887432E-1	4.798068E-1	4.842924E-1	4.482632E-1	4.212310E-1	4.335093E-1	4.570553E-1	4.963323E-1	4.432435E-1	4.816185E-1	4.632382E-1	4.973566E-1	4.577607E-1	4.644189E-1	4.339825E-1	4.502723E-1	4.970232E-1	4.848738E-1	4.276577E-1	4.058825E-1	4.237422E-1	4.663821E-1	4.671187E-1	4.440501E-1	4.664656E-1	4.335547E-1	4.974242E-1	4.931695E-1	5.022946E-1	4.751340E-1	4.885372E-1	4.835102E-1	5.180458E-1	5.111674E-1	4.105101E-1	4.648833E-1	4.289294E-1	4.678524E-1	4.750620E-1	4.783090E-1	4.477429E-1	4.985732E-1	4.849395E-1	4.882276E-1	4.818074E-1	5.117084E-1	4.224040E-1	4.439013E-1	4.711164E-1	4.488830E-1	4.828538E-1	4.488419E-1	4.434148E-1	4.585639E-1	4.895385E-1	5.091125E-1	4.499368E-1	4.660763E-1	4.972783E-1	5.015451E-1	4.269156E-1	5.489004E-1	4.233546E-1	4.387419E-1	4.840078E-1	4.335150E-1	4.042945E-1	4.395015E-1	4.438159E-1	4.555781E-1	4.637863E-1	5.102929E-1	4.316404E-1	4.413294E-1	5.091194E-1	5.020647E-1	4.895811E-1	5.278861E-1	4.413235E-1	4.643480E-1	5.100257E-1	5.234620E-1	4.632372E-1	4.104648E-1	4.400757E-1	4.474647E-1	5.034212E-1	4.738818E-1	4.338582E-1	4.890361E-1	4.947566E-1	5.276184E-1	4.703055E-1	4.512154E-1	5.318066E-1	4.882047E-1	4.993187E-1	5.021659E-1	3.907539E-1	4.751269E-1	4.730593E-1	4.494332E-1	4.458691E-1	4.672899E-1	4.225235E-1	4.520776E-1	5.214743E-1	4.787817E-1	5.256839E-1	5.007739E-1	4.761187E-1	4.144602E-1	4.246271E-1	5.250959E-1	4.674312E-1	4.412900E-1	4.280967E-1	4.850623E-1	4.762815E-1	4.514340E-1	4.528425E-1	5.706431E-1	3.654395E-1
2.878020E+2	4.574831E-1	4.098630E-1	5.205084E-1	4.712041E-1	4.452260E-1	4.141166E-1	4.827778E-1	4.293332E-1	4.282354E-1	4.747921E-1	4.856755E-1	4.512013E-1	4.796426E-1	4.991384E-1	4.565456E-1	4.945175E-1	5.040225E-1	5.085190E-1	4.571455E-1	4.222507E-1	4.030702E-1	4.376775E-1	4.991455E-1	4.931193E-1	4.492528E-1	4.226284E-1	4.547285E-1	4.527004E-1	4.592295E-1	4.531999E-1	4.176912E-1	4.206052E-1	4.438844E-1	4.258940E-1	4.681984E-1	4.293545E-1	4.117317E-1	4.044055E-1	4.817132E-1	5.144558E-1	4.174191E-1	4.648382E-1	4.650485E-1	4.419937E-1	4.584241E-1	4.890512E-1	4.556739E-1	4.285717E-1	4.604273E-1	4.752453E-1	4.641377E-1	4.471422E-1	4.148082E-1	4.659799E-1	4.191902E-1	4.660570E-1	3.904564E-1	4.430096E-1	4.193212E-1	4.939572E-1	4.553357E-1	4.433824E-1	4.794373E-1	4.631370E-1	4.732076E-1	4.553403E-1	4.230078E-1	4.229601E-1	4.248158E-1	4.111799E-1	4.418392E-1	4.302407E-1	4.517598E-1	4.272126E-1	4.882659E-1	4.295152E-1	4.932120E-1	4.526911E-1	4.132095E-1	4.238540E-1	4.461450E-1	5.089797E-1	4.657583E-1	4.543414E-1	3.827496E-1	4.885430E-1	4.511666E-1	4.882880E-1	4.576832E-1	4.489814E-1	4.474125E-1	4.882272E-1	4.882599E-1	5.055776E-1	4.571540E-1	4.504724E-1	4.778844E-1	4.826029E-1	4.400710E-1	4.749659E-1	4.548442E-1	4.431907E-1	4.498649E-1	5.209935E-1	4.499360E-1	4.660768E-1	4.429404E-1	4.662352E-1	4.469382E-1	4.618029E-1	4.379621E-1	4.828916E-1	4.767315E-1	4.717400E-1	4.308314E-1	4.325981E-1	4.273986E-1	4.453315E-1	5.092792E-1	4.729850E-1	4.271179E-1	4.423999E-1	4.969936E-1	4.580214E-1	5.041909E-1	5.173052E-1	4.069899E-1	4.144645E-1	4.566760E-1	4.548504E-1	4.655322E-1	4.501825E-1	4.223987E-1	4.485096E-1	4.691604E-1	4.738819E-1	4.380872E-1	4.395880E-1	4.617099E-1	5.264463E-1	4.668824E-1	5.107963E-1	4.689140E-1	4.348928E-1	4.884077E-1	4.542719E-1	4.310378E-1	4.209131E-1	4.527126E-1	4.604958E-1	5.051969E-1	5.493783E-1	4.133688E-1	5.270748E-1	4.461098E-1	4.703856E-1	4.871581E-1	4.656060E-1	4.895037E-1	4.187548E-1	4.102711E-1	5.034834E-1	4.772551E-1	4.083170E-1	4.458073E-1	4.604437E-1	5.275643E-1	4.794403E-1	4.546412E-1	4.852894E-1	4.479968E-1
2.880040E+2	4.853566E-1	3.870335E-1	4.963437E-1	4.272250E-1	4.343303E-1	4.417623E-1	5.178569E-1	4.696294E-1	4.211762E-1	4.869800E-1	4.879834E-1	4.992801E-1	4.969685E-1	5.198117E-1	4.675463E-1	4.478886E-1	4.321794E-1	4.782689E-1	5.317094E-1	4.401870E-1	4.093163E-1	4.169244E-1	4.931138E-1	4.784170E-1	4.609752E-1	4.850284E-1	4.979597E-1	4.759552E-1	4.677289E-1	5.570551E-1	4.720162E-1	4.195003E-1	4.330023E-1	4.441023E-1	5.026562E-1	4.537240E-1	3.898685E-1	4.182150E-1	4.925899E-1	4.989127E-1	4.046728E-1	4.627130E-1	4.523393E-1	4.265335E-1	4.720148E-1	4.702816E-1	4.785044E-1	4.322415E-1	4.793037E-1	4.763846E-1	5.139301E-1	4.583491E-1	4.576268E-1	3.999912E-1	4.748053E-1	4.761490E-1	4.122598E-1	4.554998E-1	4.880114E-1	4.441087E-1	5.074778E-1	5.014818E-1	4.783551E-1	4.611580E-1	5.129007E-1	4.380280E-1	4.369582E-1	4.240985E-1	4.097921E-1	3.924515E-1	4.869020E-1	4.259917E-1	4.246123E-1	4.546976E-1	5.088727E-1	5.027773E-1	5.318162E-1	4.822744E-1	4.819867E-1	4.472904E-1	4.776014E-1	4.706895E-1	4.211348E-1	4.309141E-1	4.369616E-1	4.362725E-1	4.614075E-1	4.816360E-1	4.157111E-1	5.044768E-1	4.683835E-1	5.083667E-1	4.506182E-1	5.035334E-1	4.055551E-1	4.504717E-1	4.135844E-1	4.736106E-1	4.198056E-1	4.274693E-1	4.371804E-1	4.681723E-1	4.509990E-1	4.756313E-1	4.656802E-1	4.494954E-1	4.383155E-1	4.379879E-1	4.237547E-1	4.871606E-1	4.494394E-1	4.232894E-1	4.912847E-1	4.758728E-1	4.400166E-1	4.233940E-1	4.427215E-1	4.412328E-1	4.553223E-1	4.741156E-1	4.327710E-1	4.659305E-1	5.115450E-1	4.788196E-1	4.828372E-1	4.675721E-1	4.035576E-1	3.930858E-1	4.933549E-1	5.104488E-1	4.666798E-1	3.824290E-1	3.811532E-1	4.317823E-1	4.679795E-1	4.813824E-1	4.254002E-1	4.442974E-1	5.354299E-1	4.666662E-1	4.623180E-1	4.815686E-1	5.034431E-1	4.412902E-1	4.932566E-1	4.449259E-1	4.448492E-1	4.281402E-1	4.301058E-1	4.649212E-1	4.894558E-1	4.920468E-1	4.831692E-1	4.778223E-1	4.935166E-1	4.535908E-1	4.759727E-1	5.158467E-1	4.627323E-1	4.413027E-1	4.003306E-1	5.239590E-1	4.318171E-1	4.171090E-1	4.280970E-1	4.522375E-1	5.019239E-1	4.434323E-1	3.989060E-1	5.473650E-1	4.285712E-1
2.882080E+2	4.502117E-1	4.915646E-1	5.446746E-1	5.026182E-1	4.681070E-1	4.605603E-1	5.494277E-1	5.608887E-1	4.694114E-1	5.257614E-1	5.560466E-1	5.140747E-1	5.096739E-1	5.285157E-1	5.478546E-1	4.851915E-1	4.961646E-1	4.991306E-1	5.482797E-1	5.023668E-1	4.405415E-1	4.515129E-1	5.124149E-1	5.191326E-1	4.551137E-1	5.359880E-1	5.144900E-1	5.787648E-1	5.059761E-1	5.560165E-1	5.433843E-1	4.956973E-1	4.689158E-1	5.147946E-1	6.094767E-1	5.097730E-1	4.630648E-1	4.902189E-1	5.774303E-1	5.111262E-1	4.365372E-1	5.158224E-1	5.771235E-1	4.693495E-1	4.765455E-1	5.505731E-1	5.209066E-1	4.478385E-1	4.875628E-1	5.425257E-1	5.874335E-1	4.617106E-1	4.522744E-1	4.722652E-1	5.162216E-1	5.737048E-1	4.788184E-1	5.508870E-1	5.026510E-1	5.392753E-1	5.293051E-1	5.515677E-1	5.432900E-1	4.601687E-1	5.265090E-1	4.665422E-1	5.555345E-1	4.776095E-1	4.977862E-1	4.998975E-1	5.396592E-1	5.067281E-1	5.083184E-1	4.800684E-1	5.157416E-1	4.703502E-1	5.840478E-1	4.812548E-1	5.671399E-1	4.962934E-1	4.978228E-1	5.636795E-1	5.433179E-1	4.719113E-1	4.470011E-1	5.059671E-1	5.501614E-1	5.503816E-1	4.963421E-1	5.080195E-1	4.948722E-1	5.640457E-1	5.334289E-1	5.965263E-1	4.466242E-1	4.877026E-1	5.072152E-1	5.421717E-1	5.245111E-1	5.188992E-1	4.766643E-1	4.835456E-1	4.589336E-1	5.199137E-1	5.286511E-1	5.456679E-1	5.284938E-1	5.062526E-1	5.143798E-1	5.444902E-1	4.640466E-1	5.270415E-1	5.179622E-1	5.481906E-1	4.604292E-1	4.498557E-1	4.657059E-1	4.852922E-1	5.124526E-1	5.170760E-1	5.017429E-1	4.541644E-1	5.406460E-1	4.983940E-1	4.839615E-1	5.871433E-1	4.733687E-1	5.111777E-1	5.200302E-1	5.483045E-1	4.930687E-1	4.899001E-1	4.420393E-1	4.798739E-1	5.530394E-1	5.360295E-1	4.846043E-1	5.420168E-1	5.595812E-1	4.947981E-1	5.433404E-1	5.220385E-1	5.552352E-1	5.308545E-1	5.005301E-1	5.220252E-1	4.851332E-1	4.944028E-1	4.775804E-1	5.003222E-1	5.306231E-1	5.532877E-1	5.392387E-1	5.270743E-1	5.603727E-1	5.051737E-1	5.182266E-1	5.761354E-1	5.406143E-1	4.842528E-1	4.445061E-1	5.717332E-1	5.104130E-1	4.698660E-1	4.435938E-1	5.045521E-1	5.237180E-1	5.421205E-1	5.103753E-1	5.137402E-1	5.256977E-1
2.884070E+2	6.998585E-1	6.441545E-1	7.837849E-1	6.458639E-1	6.794837E-1	6.684480E-1	7.283318E-1	7.611856E-1	7.305884E-1	7.462604E-1	7.521632E-1	7.606326E-1	7.279810E-1	7.657090E-1	7.282725E-1	6.768840E-1	7.184288E-1	6.670723E-1	8.039262E-1	6.948821E-1	6.341398E-1	6.788136E-1	7.295667E-1	6.944399E-1	6.567350E-1	6.784670E-1	7.370064E-1	6.779020E-1	7.343952E-1	7.159546E-1	7.372508E-1	6.878487E-1	6.713374E-1	7.140177E-1	7.197416E-1	7.217853E-1	6.227671E-1	6.381721E-1	8.363015E-1	7.531571E-1	6.404676E-1	7.102016E-1	7.954947E-1	7.559837E-1	7.608303E-1	7.705943E-1	7.698757E-1	6.450934E-1	7.199886E-1	7.090188E-1	7.652634E-1	6.197238E-1	6.449595E-1	6.932750E-1	7.966662E-1	7.262065E-1	6.440663E-1	6.928320E-1	7.762867E-1	6.922207E-1	7.124085E-1	7.128437E-1	7.640687E-1	6.907466E-1	7.091010E-1	6.977134E-1	8.066361E-1	6.848195E-1	6.297788E-1	6.507170E-1	7.517868E-1	7.149437E-1	6.169107E-1	6.629519E-1	7.469946E-1	7.177596E-1	7.668547E-1	7.148685E-1	7.352621E-1	6.443692E-1	7.393625E-1	7.474699E-1	7.366867E-1	6.042759E-1	6.688694E-1	7.814777E-1	7.629434E-1	7.721420E-1	6.818999E-1	7.382656E-1	7.398938E-1	7.263435E-1	6.936727E-1	7.682023E-1	7.656968E-1	6.399151E-1	7.339605E-1	7.321228E-1	7.789554E-1	6.827633E-1	6.429128E-1	6.699492E-1	7.343790E-1	7.402452E-1	7.434284E-1	6.893745E-1	8.071203E-1	7.604819E-1	7.441060E-1	7.374249E-1	7.238500E-1	7.146796E-1	7.119910E-1	6.917909E-1	6.870081E-1	7.167779E-1	6.025175E-1	6.256670E-1	8.234950E-1	6.832637E-1	6.996132E-1	6.809134E-1	7.479919E-1	7.687721E-1	7.244675E-1	7.172970E-1	7.011108E-1	7.147824E-1	7.234289E-1	7.446772E-1	6.915583E-1	6.067173E-1	6.315731E-1	6.649247E-1	7.101642E-1	7.331906E-1	6.157002E-1	7.162626E-1	7.502384E-1	7.515022E-1	7.464697E-1	7.603638E-1	7.550103E-1	7.558311E-1	6.605552E-1	7.299581E-1	6.796474E-1	7.136698E-1	6.347024E-1	6.662673E-1	7.897292E-1	6.718610E-1	7.440639E-1	7.251990E-1	7.475688E-1	7.174987E-1	7.618067E-1	7.369063E-1	7.377548E-1	6.141728E-1	5.670901E-1	7.582829E-1	6.847974E-1	6.589124E-1	6.472655E-1	7.209895E-1	8.237180E-1	7.034895E-1	7.405051E-1	7.775629E-1	7.345208E-1
2.886010E+2	9.701066E-1	9.733669E-1	1.020349E+0	9.625129E-1	9.660423E-1	9.813860E-1	1.090817E+0	1.094222E+0	9.505880E-1	9.678670E-1	1.080946E+0	1.076228E+0	1.075658E+0	1.123674E+0	1.073708E+0	9.877382E-1	1.034985E+0	1.027990E+0	1.048921E+0	1.015346E+0	8.818633E-1	9.555278E-1	1.074596E+0	1.067672E+0	9.873004E-1	1.061186E+0	1.049802E+0	1.008362E+0	1.009561E+0	1.060755E+0	1.007812E+0	1.000369E+0	1.000000E+0	9.903604E-1	1.088442E+0	1.077575E+0	9.393199E-1	9.182972E-1	1.148470E+0	1.105102E+0	8.327135E-1	9.991148E-1	1.039284E+0	1.029536E+0	1.067767E+0	1.032325E+0	1.085165E+0	8.882219E-1	9.795496E-1	1.043144E+0	1.084174E+0	9.536794E-1	8.933089E-1	8.964784E-1	1.099596E+0	1.059245E+0	9.665298E-1	1.022143E+0	1.064561E+0	1.043429E+0	1.049515E+0	1.045411E+0	1.122293E+0	9.401288E-1	1.074284E+0	9.604535E-1	1.136789E+0	9.489558E-1	8.615697E-1	9.848844E-1	1.076020E+0	9.412185E-1	9.788852E-1	9.187767E-1	1.032054E+0	1.013211E+0	1.108625E+0	1.021933E+0	1.049673E+0	9.554356E-1	1.038197E+0	1.104111E+0	1.069237E+0	9.275703E-1	9.529834E-1	9.981852E-1	1.024654E+0	1.060430E+0	9.757001E-1	1.055889E+0	1.077627E+0	1.119650E+0	1.020613E+0	1.053309E+0	1.076345E+0	9.355758E-1	9.584492E-1	1.029972E+0	1.138105E+0	9.879272E-1	9.546277E-1	9.216921E-1	1.119777E+0	1.026462E+0	9.019822E-1	9.889463E-1	1.115805E+0	1.021774E+0	9.938536E-1	1.050531E+0	1.100513E+0	9.288078E-1	1.020009E+0	1.083337E+0	1.063618E+0	9.963561E-1	9.330532E-1	9.351066E-1	1.120784E+0	1.065383E+0	9.743711E-1	9.632778E-1	1.178447E+0	1.064842E+0	1.058254E+0	1.069662E+0	1.121120E+0	9.774340E-1	9.779563E-1	1.068809E+0	1.102305E+0	9.501585E-1	9.085069E-1	9.670681E-1	1.111838E+0	1.069649E+0	8.652043E-1	1.052980E+0	1.083254E+0	1.082052E+0	1.005517E+0	1.062766E+0	1.091666E+0	9.680128E-1	1.086074E+0	9.589208E-1	8.845202E-1	9.763070E-1	1.023549E+0	1.013644E+0	1.076683E+0	1.056246E+0	9.774948E-1	1.041976E+0	1.083063E+0	1.072575E+0	1.117233E+0	1.077538E+0	1.032249E+0	9.212599E-1	8.674769E-1	1.005120E+0	1.007778E+0	9.644621E-1	9.594137E-1	1.045134E+0	1.050642E+0	1.011558E+0	9.328785E-1	1.062076E+0	9.919051E-1
2.887970E+2	1.001615E+0	1.130763E+0	1.108108E+0	9.939269E-1	9.823852E-1	9.725394E-1	1.118880E+0	1.140445E+0	1.047058E+0	1.108586E+0	1.143241E+0	1.100884E+0	1.163443E+0	1.113882E+0	1.089109E+0	1.039548E+0	1.130403E+0	1.099965E+0	1.175559E+0	1.033282E+0	9.557641E-1	9.733170E-1	1.090278E+0	1.080113E+0	1.006056E+0	1.021667E+0	1.113377E+0	1.035290E+0	9.904374E-1	1.165650E+0	1.123919E+0	1.143928E+0	1.013060E+0	1.084617E+0	1.056282E+0	1.039804E+0	9.687879E-1	9.981916E-1	1.174575E+0	1.196143E+0	9.612318E-1	1.013985E+0	1.164067E+0	1.041429E+0	1.100614E+0	1.152241E+0	1.199320E+0	8.772121E-1	1.091633E+0	1.072793E+0	1.202727E+0	9.604030E-1	9.725245E-1	9.760831E-1	1.107879E+0	1.081671E+0	9.619393E-1	1.082329E+0	1.097218E+0	1.096678E+0	1.028901E+0	1.089487E+0	1.192640E+0	9.767442E-1	1.057273E+0	1.017482E+0	1.153064E+0	1.024097E+0	9.839038E-1	1.011500E+0	1.185932E+0	1.046389E+0	1.054673E+0	1.012861E+0	1.161419E+0	1.122504E+0	1.141553E+0	1.086202E+0	1.162118E+0	1.003374E+0	1.110097E+0	1.118334E+0	1.175484E+0	1.013079E+0	1.016230E+0	1.103816E+0	1.128201E+0	1.145807E+0	9.911643E-1	1.088949E+0	1.215589E+0	1.080557E+0	1.098047E+0	1.088053E+0	1.113202E+0	1.020989E+0	1.040799E+0	1.112021E+0	1.141482E+0	1.003363E+0	1.026323E+0	1.030267E+0	1.165116E+0	1.127987E+0	1.024551E+0	1.003316E+0	1.158582E+0	1.114756E+0	1.073941E+0	1.113372E+0	1.120338E+0	1.077815E+0	1.056389E+0	1.060608E+0	1.121796E+0	1.030872E+0	1.009668E+0	1.029372E+0	1.181089E+0	1.065383E+0	1.034297E+0	1.044565E+0	1.176022E+0	1.085641E+0	1.140295E+0	1.066488E+0	1.163464E+0	1.011029E+0	1.044644E+0	1.079456E+0	1.087389E+0	1.026090E+0	9.841245E-1	1.024569E+0	1.134285E+0	1.073935E+0	9.963006E-1	1.037675E+0	1.106133E+0	1.084396E+0	1.035187E+0	1.183054E+0	1.094132E+0	1.060776E+0	1.077588E+0	1.113118E+0	1.001918E+0	1.035340E+0	1.068764E+0	1.041302E+0	1.225609E+0	1.108367E+0	1.051874E+0	1.054288E+0	1.216774E+0	1.071374E+0	1.115990E+0	1.081558E+0	1.145422E+0	9.266291E-1	9.757038E-1	1.131381E+0	1.081462E+0	1.007327E+0	1.051287E+0	1.074881E+0	1.158333E+0	1.056902E+0	1.011986E+0	1.025865E+0	1.113315E+0
2.890110E+2	9.579878E-1	9.541427E-1	1.052147E+0	9.047131E-1	8.963097E-1	9.017695E-1	1.056906E+0	1.061037E+0	9.341185E-1	9.346255E-1	1.016343E+0	9.628113E-1	9.405139E-1	1.062743E+0	1.014301E+0	8.861923E-1	9.653883E-1	9.487136E-1	1.059572E+0	9.962133E-1	8.933131E-1	9.031495E-1	9.889409E-1	1.002073E+0	9.029001E-1	9.811065E-1	1.067601E+0	1.008363E+0	9.065067E-1	9.485906E-1	9.939646E-1	9.716556E-1	9.303498E-1	1.042845E+0	1.021824E+0	8.935883E-1	8.490127E-1	8.827868E-1	1.073420E+0	1.002962E+0	8.401493E-1	9.035188E-1	1.036974E+0	9.962338E-1	9.431808E-1	9.927010E-1	1.079728E+0	7.900534E-1	1.004326E+0	9.895473E-1	1.043865E+0	8.270456E-1	8.933096E-1	9.394231E-1	9.812630E-1	9.908420E-1	9.171853E-1	9.982969E-1	1.061183E+0	9.505286E-1	9.597819E-1	9.993325E-1	1.043290E+0	8.896592E-1	9.121063E-1	9.349942E-1	1.086801E+0	8.795067E-1	8.626425E-1	9.375698E-1	9.836966E-1	9.189090E-1	8.782108E-1	9.124335E-1	1.046938E+0	9.255365E-1	1.038226E+0	9.648054E-1	1.063865E+0	9.533044E-1	1.077518E+0	1.012216E+0	1.018239E+0	9.100009E-1	9.188485E-1	9.709604E-1	9.654844E-1	1.024948E+0	9.812231E-1	9.614279E-1	1.036790E+0	9.668292E-1	9.603873E-1	9.991486E-1	1.044754E+0	9.169594E-1	9.279911E-1	9.805181E-1	1.041280E+0	8.881858E-1	8.631922E-1	8.822965E-1	9.780861E-1	9.692187E-1	9.559575E-1	9.347795E-1	1.010597E+0	9.535077E-1	1.003337E+0	1.027378E+0	1.059821E+0	9.431561E-1	1.004244E+0	9.738279E-1	1.049330E+0	9.250230E-1	9.210141E-1	9.351069E-1	1.093277E+0	1.029205E+0	8.533872E-1	8.851998E-1	1.042641E+0	9.877663E-1	9.604770E-1	1.016754E+0	1.013543E+0	9.275507E-1	9.723985E-1	9.706235E-1	9.864229E-1	8.345106E-1	8.309260E-1	9.064301E-1	1.038592E+0	9.742832E-1	8.123434E-1	9.788075E-1	1.023514E+0	9.402189E-1	9.667158E-1	9.424802E-1	9.720481E-1	9.690798E-1	9.624188E-1	1.006814E+0	9.443690E-1	9.232967E-1	9.229465E-1	1.010325E+0	1.056100E+0	9.897936E-1	9.408797E-1	9.333986E-1	1.006483E+0	1.017393E+0	1.012842E+0	9.871048E-1	1.029815E+0	8.503940E-1	7.736061E-1	9.618943E-1	9.783042E-1	8.677413E-1	8.542568E-1	9.497371E-1	1.046796E+0	9.968877E-1	9.184946E-1	9.663765E-1	1.001617E+0
2.892050E+2	6.853159E-1	8.027537E-1	8.372022E-1	7.451311E-1	7.252462E-1	7.303725E-1	8.230452E-1	8.358519E-1	6.976476E-1	7.440445E-1	7.613930E-1	8.136429E-1	7.961310E-1	8.233746E-1	8.096804E-1	7.763580E-1	7.925164E-1	7.213135E-1	8.098433E-1	7.522796E-1	6.965917E-1	7.252627E-1	8.658898E-1	8.267671E-1	7.411355E-1	7.637471E-1	8.069411E-1	7.537860E-1	7.237713E-1	8.021552E-1	8.214022E-1	7.441680E-1	7.877848E-1	7.547188E-1	8.288584E-1	7.863631E-1	6.531869E-1	6.963670E-1	8.450035E-1	8.053376E-1	7.063198E-1	7.548127E-1	8.486431E-1	7.333861E-1	8.197264E-1	8.300326E-1	8.274968E-1	6.973891E-1	8.238129E-1	7.546325E-1	8.577355E-1	6.992899E-1	7.049059E-1	7.079383E-1	8.416325E-1	7.946084E-1	6.532462E-1	6.973745E-1	8.280864E-1	8.485649E-1	7.597015E-1	7.889726E-1	8.928563E-1	7.679361E-1	8.066339E-1	7.078974E-1	8.438364E-1	7.508542E-1	6.920190E-1	6.881754E-1	8.419117E-1	7.818691E-1	7.684873E-1	7.549223E-1	7.721814E-1	7.549923E-1	8.474708E-1	7.648558E-1	8.160476E-1	7.455729E-1	8.191265E-1	7.781024E-1	8.057459E-1	6.804149E-1	6.748931E-1	7.335637E-1	7.845627E-1	7.433133E-1	7.304988E-1	7.854964E-1	7.575539E-1	7.950545E-1	7.463707E-1	8.315595E-1	7.972882E-1	7.329931E-1	7.644192E-1	7.939397E-1	8.341230E-1	8.216899E-1	6.865530E-1	6.968529E-1	8.080575E-1	8.298900E-1	7.479274E-1	7.601213E-1	8.348670E-1	7.522439E-1	7.335681E-1	8.245212E-1	8.021046E-1	7.577264E-1	7.956646E-1	7.909682E-1	8.105040E-1	7.639494E-1	6.944548E-1	7.537465E-1	8.372493E-1	8.257108E-1	7.018750E-1	7.290433E-1	8.292325E-1	7.357393E-1	7.413250E-1	7.871346E-1	8.212772E-1	6.995126E-1	7.200953E-1	7.872634E-1	7.913757E-1	6.931612E-1	7.297760E-1	8.018826E-1	8.223968E-1	7.685516E-1	7.150788E-1	7.680643E-1	8.392110E-1	7.362641E-1	7.829867E-1	7.974617E-1	8.499633E-1	7.217114E-1	7.732994E-1	7.638355E-1	7.072705E-1	7.353546E-1	6.855683E-1	7.547711E-1	8.502673E-1	8.190998E-1	7.520744E-1	7.990767E-1	8.654784E-1	8.014693E-1	8.065452E-1	7.921710E-1	7.912993E-1	6.989974E-1	6.863600E-1	8.140196E-1	7.793572E-1	7.182636E-1	7.435661E-1	7.620203E-1	8.673088E-1	7.701716E-1	6.955571E-1	7.568707E-1	8.122218E-1
2.894050E+2	5.823064E-1	6.321402E-1	6.375199E-1	5.566502E-1	5.574524E-1	5.633985E-1	6.336173E-1	5.739256E-1	5.211772E-1	5.977838E-1	6.506445E-1	6.250259E-1	6.124756E-1	6.351440E-1	5.973598E-1	6.375104E-1	6.196442E-1	6.336926E-1	6.524308E-1	5.956356E-1	5.456674E-1	5.631871E-1	7.078514E-1	6.491995E-1	6.297748E-1	5.786270E-1	6.530860E-1	6.791267E-1	5.994682E-1	5.840578E-1	5.529722E-1	6.856395E-1	6.093049E-1	5.983399E-1	6.404880E-1	5.987204E-1	5.210523E-1	5.750440E-1	6.426918E-1	6.365824E-1	5.639933E-1	5.699936E-1	6.152521E-1	5.942323E-1	6.351103E-1	5.891558E-1	6.404982E-1	6.001376E-1	6.256015E-1	6.246318E-1	6.882040E-1	5.715353E-1	5.175733E-1	5.581549E-1	6.286361E-1	6.039808E-1	6.394764E-1	5.826830E-1	6.828224E-1	6.276437E-1	6.699679E-1	6.477316E-1	6.677490E-1	5.512121E-1	6.387865E-1	5.785637E-1	6.961977E-1	5.607215E-1	5.407113E-1	5.284839E-1	5.968123E-1	6.458925E-1	5.558276E-1	5.709820E-1	6.084725E-1	5.640288E-1	5.931301E-1	5.985720E-1	7.167030E-1	5.378398E-1	5.438850E-1	6.260376E-1	6.538144E-1	5.351653E-1	5.433787E-1	6.028858E-1	6.184334E-1	5.847534E-1	5.471488E-1	6.131057E-1	6.107611E-1	6.446022E-1	6.216177E-1	6.016357E-1	6.235358E-1	6.202039E-1	6.098712E-1	6.354615E-1	6.663701E-1	5.426487E-1	5.369291E-1	5.575311E-1	6.119590E-1	5.760772E-1	5.837507E-1	5.301914E-1	6.464180E-1	6.051194E-1	6.208130E-1	6.315870E-1	6.529001E-1	5.458064E-1	6.089134E-1	5.719511E-1	6.267921E-1	5.280921E-1	5.685882E-1	5.816082E-1	6.478729E-1	5.815161E-1	6.148120E-1	5.589817E-1	6.400757E-1	6.488763E-1	6.244439E-1	5.987827E-1	6.633441E-1	5.854928E-1	5.633779E-1	6.464907E-1	6.468119E-1	5.354590E-1	5.510462E-1	5.927861E-1	6.026580E-1	6.046072E-1	5.765830E-1	6.138332E-1	6.917706E-1	6.190478E-1	6.323523E-1	6.277102E-1	6.489564E-1	6.065564E-1	6.617676E-1	5.886109E-1	5.657011E-1	6.233121E-1	5.261864E-1	6.054210E-1	6.141660E-1	7.278894E-1	5.495375E-1	5.931153E-1	6.612638E-1	6.047389E-1	6.089481E-1	6.263759E-1	6.111959E-1	5.100217E-1	5.262284E-1	6.445333E-1	5.914654E-1	5.204244E-1	5.697811E-1	5.958455E-1	6.737190E-1	6.101352E-1	5.229601E-1	5.551243E-1	6.179688E-1
2.896060E+2	5.641283E-1	5.936928E-1	5.713832E-1	5.465971E-1	4.997052E-1	5.368589E-1	5.693065E-1	5.620739E-1	5.282343E-1	5.534622E-1	5.998844E-1	5.720151E-1	5.581863E-1	5.927106E-1	6.006596E-1	6.198946E-1	5.702522E-1	5.638041E-1	5.979879E-1	5.800906E-1	4.977886E-1	4.683131E-1	6.041019E-1	5.858623E-1	5.359964E-1	5.422280E-1	5.500927E-1	6.032437E-1	5.920321E-1	5.985970E-1	5.966439E-1	5.564356E-1	5.298596E-1	5.169369E-1	5.451543E-1	6.352744E-1	4.849295E-1	5.267136E-1	6.067982E-1	5.821812E-1	4.758364E-1	4.850186E-1	5.748126E-1	5.787707E-1	5.490322E-1	6.235663E-1	6.144057E-1	5.671088E-1	6.020057E-1	5.927026E-1	5.554238E-1	6.096379E-1	4.747553E-1	5.445376E-1	6.381034E-1	5.961323E-1	5.235726E-1	5.304468E-1	5.983672E-1	6.367072E-1	6.348012E-1	5.455570E-1	5.952380E-1	5.967339E-1	5.344489E-1	5.205158E-1	5.950597E-1	5.595820E-1	4.849095E-1	4.821542E-1	5.803261E-1	5.917147E-1	5.128436E-1	4.980407E-1	5.661131E-1	5.700346E-1	5.942659E-1	5.669470E-1	6.260921E-1	5.868436E-1	5.798336E-1	5.986876E-1	6.240640E-1	5.492220E-1	4.971974E-1	5.887287E-1	5.774702E-1	5.492723E-1	5.349997E-1	5.576109E-1	5.666128E-1	6.303867E-1	5.388064E-1	5.955041E-1	6.298539E-1	5.041292E-1	5.196236E-1	6.197257E-1	5.729230E-1	5.248370E-1	5.057583E-1	5.229413E-1	6.210273E-1	5.749960E-1	5.039117E-1	4.892907E-1	5.712695E-1	5.756946E-1	5.776074E-1	5.985121E-1	5.809055E-1	5.358721E-1	6.016377E-1	5.781495E-1	6.073995E-1	5.062318E-1	4.788393E-1	5.693128E-1	6.066122E-1	5.803856E-1	5.582771E-1	4.969469E-1	6.230988E-1	5.497780E-1	5.424023E-1	5.755035E-1	6.118448E-1	5.142312E-1	5.300339E-1	5.672318E-1	5.664980E-1	4.934051E-1	4.921234E-1	5.561943E-1	5.672160E-1	5.992502E-1	4.655739E-1	5.267116E-1	6.116941E-1	5.627836E-1	5.798582E-1	5.613852E-1	5.774326E-1	5.383183E-1	5.720563E-1	5.372118E-1	5.046996E-1	4.968129E-1	5.103615E-1	5.777626E-1	6.032696E-1	5.858635E-1	5.518254E-1	5.785643E-1	5.944089E-1	5.831459E-1	5.343827E-1	5.881934E-1	5.722535E-1	5.003580E-1	4.765324E-1	5.853836E-1	5.558505E-1	4.863526E-1	4.823354E-1	5.702018E-1	6.096158E-1	5.661251E-1	5.193644E-1	6.171999E-1	5.791175E-1
2.898050E+2	5.083826E-1	5.276091E-1	5.637516E-1	5.101574E-1	4.964358E-1	4.870991E-1	5.798302E-1	5.288894E-1	4.764702E-1	5.146819E-1	5.687369E-1	5.374976E-1	5.420154E-1	5.361329E-1	5.687570E-1	5.608322E-1	5.410662E-1	5.711053E-1	5.849688E-1	5.418267E-1	5.019515E-1	4.781960E-1	5.811803E-1	5.587187E-1	4.949692E-1	5.318279E-1	5.195754E-1	5.151201E-1	4.698542E-1	5.082433E-1	5.551019E-1	5.729997E-1	5.059183E-1	4.676666E-1	5.554920E-1	5.609487E-1	4.925341E-1	4.566832E-1	5.948332E-1	5.555349E-1	4.938926E-1	5.445002E-1	5.401496E-1	5.454685E-1	5.320428E-1	5.578728E-1	5.676555E-1	5.735306E-1	5.253171E-1	5.436663E-1	5.684654E-1	5.592080E-1	4.554852E-1	4.848342E-1	5.434376E-1	5.288510E-1	4.627526E-1	5.020578E-1	5.319289E-1	5.789279E-1	5.159662E-1	5.345377E-1	5.876625E-1	5.581396E-1	4.958889E-1	5.042223E-1	5.427464E-1	5.413660E-1	4.698859E-1	5.087688E-1	5.363618E-1	5.853398E-1	4.936130E-1	4.610402E-1	5.420721E-1	5.352050E-1	5.533899E-1	5.547051E-1	5.922488E-1	5.218608E-1	5.551186E-1	5.177325E-1	4.731945E-1	5.105667E-1	4.921780E-1	5.331917E-1	5.057839E-1	5.681222E-1	4.864009E-1	5.694185E-1	5.500576E-1	5.806303E-1	5.366556E-1	5.433872E-1	5.055944E-1	5.840663E-1	4.981905E-1	5.410477E-1	6.123281E-1	5.497722E-1	4.756257E-1	4.537594E-1	5.144759E-1	5.695966E-1	4.915438E-1	4.649718E-1	5.469916E-1	5.580403E-1	5.048965E-1	5.246453E-1	5.287365E-1	5.347683E-1	5.179622E-1	5.709180E-1	5.829044E-1	5.315427E-1	4.733676E-1	5.119329E-1	6.330609E-1	5.453395E-1	4.723449E-1	5.161993E-1	5.770218E-1	5.461078E-1	5.131811E-1	5.268286E-1	5.534782E-1	5.101589E-1	4.978007E-1	5.412070E-1	5.435513E-1	4.992452E-1	4.587348E-1	4.704651E-1	5.424064E-1	5.467453E-1	4.729753E-1	4.925678E-1	5.265328E-1	5.545785E-1	4.828589E-1	5.220386E-1	5.638679E-1	4.636813E-1	5.296260E-1	4.788030E-1	4.977946E-1	5.016318E-1	5.103620E-1	5.268744E-1	5.076178E-1	5.246221E-1	4.946122E-1	4.890164E-1	5.506478E-1	5.027737E-1	5.194693E-1	5.218762E-1	5.357473E-1	4.305648E-1	4.323581E-1	6.058576E-1	4.993606E-1	4.533799E-1	4.934043E-1	5.086545E-1	5.634612E-1	5.487879E-1	4.582368E-1	5.551242E-1	5.839740E-1
2.900050E+2	5.011108E-1	4.915644E-1	5.408578E-1	5.164399E-1	5.073325E-1	4.627714E-1	5.155176E-1	5.336299E-1	4.729412E-1	5.313014E-1	5.398965E-1	5.473591E-1	5.038984E-1	5.992386E-1	5.115513E-1	5.069510E-1	4.568753E-1	5.074759E-1	5.151402E-1	5.095411E-1	4.395004E-1	4.653490E-1	5.232740E-1	6.062208E-1	5.113806E-1	4.715084E-1	4.992313E-1	5.285830E-1	5.166005E-1	5.331685E-1	5.987750E-1	5.288270E-1	5.211540E-1	4.987279E-1	4.957637E-1	5.950645E-1	4.402501E-1	5.089591E-1	5.502378E-1	5.155664E-1	4.322895E-1	4.605886E-1	5.551706E-1	5.145448E-1	4.708824E-1	5.349316E-1	5.252549E-1	5.047214E-1	5.123395E-1	5.094556E-1	5.506811E-1	5.659317E-1	4.501334E-1	4.450311E-1	5.398880E-1	5.815541E-1	4.960309E-1	4.997874E-1	5.364333E-1	5.642000E-1	5.074776E-1	5.716018E-1	5.205622E-1	5.492329E-1	4.777429E-1	4.879290E-1	5.857591E-1	5.584439E-1	4.462777E-1	4.634242E-1	5.660372E-1	5.131014E-1	4.608091E-1	4.673827E-1	5.626792E-1	5.400090E-1	5.147848E-1	5.332824E-1	5.311134E-1	5.868429E-1	5.270329E-1	5.122617E-1	5.071939E-1	5.152519E-1	4.419812E-1	5.233903E-1	5.740558E-1	5.404023E-1	4.841921E-1	5.198262E-1	5.588873E-1	5.474599E-1	5.183725E-1	5.188624E-1	5.287615E-1	5.216499E-1	4.530670E-1	5.017099E-1	5.988175E-1	5.533352E-1	4.714695E-1	4.806628E-1	5.235447E-1	4.950719E-1	5.039117E-1	4.506013E-1	5.284938E-1	5.615711E-1	5.407249E-1	5.488995E-1	5.683849E-1	5.115891E-1	4.937097E-1	4.862037E-1	4.981930E-1	5.488014E-1	5.094857E-1	4.607015E-1	5.918011E-1	5.182061E-1	4.565152E-1	4.926692E-1	5.345834E-1	5.620127E-1	5.918517E-1	5.511656E-1	5.775117E-1	5.773488E-1	5.500399E-1	5.412065E-1	5.584664E-1	5.681680E-1	4.528419E-1	4.976474E-1	5.270485E-1	5.692474E-1	4.497160E-1	5.031642E-1	5.455990E-1	5.780212E-1	5.239411E-1	5.501431E-1	5.490699E-1	4.956678E-1	5.417482E-1	4.904849E-1	4.828311E-1	5.425934E-1	5.024491E-1	5.135982E-1	5.354661E-1	5.584996E-1	4.877465E-1	5.058064E-1	5.664503E-1	4.763832E-1	5.505378E-1	5.299140E-1	5.442649E-1	5.003585E-1	4.135837E-1	5.296459E-1	5.190091E-1	4.918483E-1	5.210770E-1	5.055776E-1	5.249993E-1	5.487888E-1	5.121734E-1	5.059812E-1	4.917041E-1
2.905120E+2	5.374671E-1	6.513645E-1	7.011140E-1	6.207326E-1	5.803332E-1	6.109475E-1	6.546655E-1	7.185184E-1	5.470581E-1	5.911360E-1	6.379545E-1	6.237934E-1	6.471266E-1	6.155586E-1	6.611659E-1	6.271476E-1	6.061734E-1	6.357788E-1	6.098237E-1	6.434660E-1	5.758521E-1	6.017295E-1	6.752790E-1	6.684267E-1	6.157076E-1	6.774275E-1	6.721594E-1	6.644399E-1	6.249664E-1	6.650651E-1	6.882514E-1	6.558233E-1	5.690375E-1	5.844156E-1	6.967690E-1	6.779212E-1	5.552737E-1	5.493997E-1	6.633581E-1	6.909834E-1	5.682422E-1	5.763657E-1	6.545351E-1	6.132607E-1	6.158560E-1	6.736176E-1	6.285392E-1	6.239913E-1	6.067254E-1	6.964744E-1	6.514531E-1	6.096380E-1	5.272081E-1	5.885306E-1	6.416535E-1	6.465920E-1	5.912789E-1	5.951746E-1	6.907042E-1	6.582327E-1	6.420774E-1	6.126721E-1	6.450218E-1	6.630383E-1	5.820804E-1	6.223534E-1	6.857352E-1	6.700194E-1	5.535881E-1	5.688994E-1	6.770472E-1	6.267707E-1	6.033369E-1	5.847247E-1	6.176306E-1	6.949410E-1	5.976729E-1	6.689611E-1	6.217251E-1	6.454348E-1	6.236474E-1	6.326005E-1	6.453144E-1	6.932984E-1	5.192834E-1	6.355562E-1	6.343631E-1	6.501742E-1	5.791802E-1	6.249144E-1	6.935384E-1	6.434183E-1	6.216168E-1	6.711230E-1	6.530210E-1	7.121862E-1	6.516098E-1	6.309654E-1	6.337192E-1	6.756377E-1	5.691395E-1	5.901994E-1	6.130919E-1	6.570817E-1	5.848755E-1	6.208376E-1	6.591356E-1	6.780930E-1	6.376728E-1	7.230921E-1	6.466385E-1	6.937083E-1	6.355921E-1	5.905479E-1	6.512865E-1	6.615531E-1	5.718722E-1	6.174702E-1	6.626848E-1	6.459558E-1	5.594084E-1	6.049727E-1	7.019146E-1	6.403112E-1	6.986185E-1	6.665055E-1	6.999671E-1	7.025661E-1	6.145054E-1	6.228305E-1	6.479589E-1	6.697983E-1	5.245301E-1	6.231045E-1	6.534579E-1	5.863913E-1	5.734115E-1	6.244304E-1	6.599937E-1	6.776551E-1	6.517523E-1	6.535674E-1	6.477237E-1	6.598695E-1	6.338840E-1	6.365059E-1	5.599464E-1	6.076506E-1	6.267900E-1	6.231214E-1	6.468574E-1	6.301654E-1	6.410797E-1	5.886385E-1	6.746362E-1	6.935074E-1	6.549294E-1	6.685790E-1	6.550046E-1	7.129566E-1	5.251243E-1	6.843452E-1	6.442719E-1	6.281366E-1	5.974535E-1	5.784080E-1	6.557692E-1	6.661483E-1	5.804932E-1	6.378913E-1	6.811009E-1
2.910040E+2	8.234707E-1	8.231784E-1	8.868037E-1	7.740315E-1	7.960684E-1	7.679696E-1	7.949823E-1	8.465192E-1	7.752938E-1	7.839333E-1	8.225340E-1	8.654206E-1	7.788042E-1	8.407841E-1	8.525849E-1	8.519986E-1	7.689436E-1	8.245829E-1	8.299638E-1	8.479393E-1	7.205309E-1	7.173562E-1	8.695078E-1	8.030162E-1	7.727846E-1	7.907871E-1	8.476292E-1	8.247748E-1	8.268260E-1	8.094249E-1	7.851857E-1	8.468688E-1	7.616647E-1	7.707864E-1	8.001434E-1	8.472862E-1	6.912109E-1	7.575207E-1	8.885110E-1	8.830547E-1	7.105678E-1	7.250723E-1	8.290004E-1	7.750137E-1	7.925432E-1	8.456731E-1	8.894681E-1	8.570279E-1	8.214532E-1	8.207743E-1	9.087146E-1	8.225628E-1	6.834971E-1	7.561209E-1	8.333498E-1	8.618892E-1	7.175096E-1	7.166788E-1	8.021865E-1	8.270398E-1	8.106311E-1	8.240324E-1	8.917749E-1	8.609604E-1	8.451944E-1	7.700179E-1	8.891741E-1	8.703986E-1	7.467481E-1	7.207047E-1	8.518045E-1	7.574364E-1	7.300278E-1	8.046074E-1	8.340014E-1	8.342592E-1	8.906185E-1	8.077023E-1	8.597160E-1	8.797990E-1	8.550765E-1	8.032641E-1	8.705570E-1	8.490899E-1	7.371369E-1	8.337495E-1	8.653514E-1	8.586287E-1	7.437521E-1	8.527989E-1	8.579908E-1	8.329625E-1	8.022951E-1	8.080553E-1	8.394104E-1	8.479719E-1	8.061569E-1	7.737091E-1	8.566399E-1	9.119340E-1	7.052560E-1	7.256791E-1	8.511319E-1	8.352911E-1	7.861594E-1	7.767033E-1	8.510530E-1	8.617036E-1	8.178710E-1	8.322394E-1	8.615779E-1	8.802422E-1	7.701982E-1	8.002674E-1	8.268342E-1	8.490889E-1	7.787300E-1	7.906334E-1	8.605247E-1	8.505818E-1	7.493637E-1	7.579208E-1	8.886477E-1	8.776576E-1	8.492158E-1	7.998333E-1	9.059655E-1	8.318561E-1	7.434351E-1	7.931783E-1	8.108809E-1	8.216597E-1	6.963871E-1	7.558811E-1	8.353921E-1	8.767749E-1	7.267084E-1	7.551137E-1	8.087077E-1	8.288651E-1	7.818452E-1	8.334349E-1	8.277678E-1	8.304675E-1	8.072437E-1	7.439774E-1	7.038158E-1	8.196880E-1	7.522612E-1	7.547716E-1	8.720606E-1	8.451605E-1	8.104321E-1	7.822861E-1	8.703409E-1	8.170640E-1	8.450708E-1	8.484400E-1	8.424098E-1	8.353613E-1	7.283269E-1	8.265320E-1	8.579545E-1	8.314710E-1	7.745594E-1	7.620203E-1	8.660263E-1	7.995115E-1	7.494942E-1	8.086010E-1	8.025092E-1
2.915060E+2	9.034533E-1	8.580228E-1	9.669324E-1	8.343455E-1	8.047850E-1	8.343159E-1	8.896958E-1	9.057773E-1	9.035294E-1	9.058171E-1	9.448186E-1	8.974724E-1	8.966222E-1	9.038895E-1	9.251929E-1	9.255671E-1	8.463975E-1	8.506606E-1	9.613382E-1	9.579487E-1	8.017175E-1	8.369368E-1	9.539570E-1	9.308198E-1	8.806285E-1	8.687867E-1	9.760527E-1	9.630774E-1	8.703845E-1	9.174347E-1	9.119435E-1	1.015829E+0	8.879068E-1	8.639715E-1	9.850681E-1	9.435445E-1	7.596545E-1	8.541830E-1	9.679133E-1	9.707636E-1	7.774829E-1	8.249177E-1	9.907569E-1	8.642156E-1	8.740913E-1	8.654851E-1	9.981878E-1	8.928096E-1	9.111201E-1	9.097209E-1	1.024896E+0	9.514383E-1	7.744868E-1	8.189677E-1	9.848142E-1	1.014391E+0	8.896439E-1	8.960969E-1	9.192985E-1	8.882178E-1	8.409461E-1	9.652740E-1	9.859308E-1	9.490351E-1	8.996316E-1	8.759277E-1	9.914758E-1	9.170774E-1	7.725015E-1	8.251934E-1	9.782007E-1	9.433426E-1	8.126034E-1	8.437205E-1	9.564971E-1	8.726916E-1	1.006435E+0	9.025758E-1	9.546944E-1	9.405212E-1	9.460753E-1	9.443886E-1	9.130553E-1	9.744255E-1	8.184553E-1	8.675075E-1	9.097297E-1	9.695083E-1	8.785029E-1	9.307289E-1	9.926419E-1	9.656453E-1	9.335007E-1	8.724353E-1	9.973672E-1	9.640461E-1	8.941485E-1	9.276913E-1	9.613456E-1	9.891147E-1	8.517624E-1	8.899839E-1	9.044074E-1	1.023222E+0	8.536282E-1	8.441348E-1	9.204198E-1	9.794027E-1	8.810977E-1	9.270524E-1	9.909575E-1	9.519867E-1	9.157193E-1	9.190737E-1	9.921755E-1	8.928096E-1	7.973373E-1	8.367413E-1	9.388143E-1	8.912812E-1	8.375571E-1	8.456260E-1	9.504878E-1	9.706380E-1	8.627013E-1	9.321015E-1	9.872206E-1	9.692897E-1	8.356874E-1	8.464117E-1	8.154704E-1	9.092715E-1	7.700394E-1	8.280188E-1	9.889739E-1	1.001071E+0	8.334878E-1	8.151584E-1	9.930094E-1	9.402200E-1	8.617283E-1	8.615391E-1	1.048505E+0	9.349595E-1	8.654344E-1	8.783162E-1	8.384802E-1	8.895633E-1	8.539944E-1	9.118654E-1	9.713450E-1	9.663387E-1	8.916752E-1	8.695955E-1	1.028363E+0	9.418198E-1	9.693447E-1	9.438975E-1	9.507146E-1	8.911953E-1	9.061289E-1	8.959191E-1	8.788309E-1	8.952187E-1	8.819298E-1	8.697271E-1	9.211541E-1	9.315404E-1	8.987186E-1	9.818953E-1	8.802102E-1
2.920050E+2	7.531811E-1	7.751192E-1	8.193950E-1	7.865973E-1	7.099922E-1	7.934021E-1	8.733251E-1	7.303703E-1	7.611758E-1	8.160664E-1	8.686800E-1	8.530922E-1	7.660993E-1	8.092305E-1	7.898788E-1	8.665057E-1	7.240408E-1	7.713843E-1	8.737547E-1	8.252202E-1	7.132451E-1	7.232857E-1	8.550326E-1	7.973615E-1	7.294131E-1	7.668675E-1	7.764240E-1	7.917282E-1	7.694551E-1	8.281191E-1	8.000972E-1	7.795063E-1	7.888725E-1	7.086623E-1	8.793968E-1	8.338839E-1	6.874083E-1	6.904486E-1	8.395654E-1	8.552991E-1	6.521503E-1	7.622487E-1	8.879264E-1	8.237771E-1	7.902776E-1	8.571432E-1	8.187993E-1	7.790442E-1	8.509485E-1	8.162120E-1	8.352113E-1	8.427350E-1	6.663697E-1	7.236496E-1	8.534665E-1	8.282485E-1	7.966913E-1	7.916247E-1	8.100686E-1	8.021142E-1	7.633381E-1	7.829627E-1	9.242419E-1	7.926774E-1	7.873543E-1	7.567792E-1	8.705737E-1	8.339655E-1	7.295781E-1	7.305615E-1	8.518040E-1	7.723087E-1	6.994862E-1	7.633786E-1	8.397251E-1	8.270530E-1	8.395230E-1	7.750577E-1	8.804583E-1	8.521012E-1	8.123858E-1	7.748199E-1	8.269953E-1	7.717798E-1	7.110349E-1	7.901906E-1	8.323534E-1	8.619554E-1	7.680520E-1	8.374489E-1	7.730048E-1	8.708728E-1	7.721823E-1	8.519969E-1	8.941688E-1	8.282617E-1	7.790840E-1	9.029640E-1	9.016748E-1	8.596864E-1	7.208413E-1	7.016577E-1	8.624674E-1	8.903738E-1	6.950754E-1	7.744919E-1	8.487396E-1	8.558191E-1	8.041715E-1	7.991646E-1	8.271450E-1	8.526486E-1	7.229050E-1	8.002662E-1	8.237725E-1	8.571425E-1	7.393288E-1	7.988308E-1	8.837997E-1	8.155354E-1	7.618019E-1	7.343908E-1	7.710297E-1	8.837744E-1	8.222434E-1	7.712621E-1	8.315762E-1	8.369460E-1	8.145699E-1	8.132891E-1	8.131744E-1	7.831111E-1	6.669260E-1	7.454269E-1	8.129466E-1	8.349840E-1	6.833624E-1	7.610013E-1	8.315860E-1	8.405858E-1	7.567401E-1	8.188203E-1	8.598292E-1	8.560578E-1	8.023947E-1	7.626675E-1	6.830996E-1	8.064356E-1	7.613046E-1	7.934915E-1	8.272625E-1	8.269188E-1	7.360541E-1	7.565412E-1	8.253653E-1	8.350573E-1	8.413429E-1	7.549938E-1	8.667471E-1	7.988549E-1	7.526233E-1	8.777192E-1	7.904104E-1	8.391648E-1	7.657046E-1	7.066288E-1	7.942316E-1	7.968434E-1	7.135373E-1	8.189454E-1	8.122216E-1
2.924990E+2	7.216726E-1	7.138422E-1	7.468993E-1	7.124613E-1	7.394103E-1	7.093627E-1	8.171985E-1	7.611853E-1	7.917650E-1	7.096957E-1	7.175544E-1	7.852878E-1	7.279811E-1	7.798535E-1	7.788780E-1	8.623608E-1	8.003741E-1	7.348747E-1	7.909069E-1	7.714112E-1	7.507158E-1	6.452125E-1	7.223287E-1	7.464655E-1	7.176902E-1	7.325470E-1	7.891395E-1	7.415477E-1	7.705187E-1	7.595731E-1	7.180766E-1	7.894437E-1	6.811320E-1	6.893826E-1	7.564968E-1	7.693050E-1	6.265693E-1	6.924212E-1	8.047591E-1	7.720312E-1	6.956981E-1	7.463158E-1	8.347775E-1	8.380495E-1	7.823504E-1	7.351411E-1	8.003173E-1	7.285830E-1	6.810548E-1	7.740187E-1	8.115005E-1	7.362719E-1	6.428194E-1	6.880375E-1	7.564346E-1	7.643321E-1	6.521002E-1	7.098642E-1	7.560168E-1	8.270399E-1	8.033544E-1	8.150173E-1	8.528141E-1	7.827810E-1	7.181741E-1	6.824378E-1	7.857104E-1	7.804560E-1	6.566062E-1	6.605735E-1	8.155344E-1	6.851985E-1	6.836497E-1	7.105221E-1	7.698912E-1	7.766103E-1	7.577714E-1	7.577149E-1	7.756550E-1	7.807271E-1	7.337460E-1	7.080867E-1	7.919340E-1	7.506951E-1	6.658577E-1	7.357409E-1	7.834251E-1	8.153850E-1	7.492751E-1	7.429893E-1	7.763167E-1	8.270401E-1	7.614271E-1	7.048455E-1	7.835982E-1	8.457822E-1	6.640185E-1	7.467335E-1	7.980952E-1	8.086290E-1	6.491467E-1	7.006965E-1	7.581821E-1	8.342105E-1	6.782077E-1	6.396295E-1	7.920905E-1	7.910836E-1	7.335673E-1	7.991645E-1	7.624556E-1	7.985653E-1	7.495835E-1	7.744396E-1	8.084624E-1	7.351860E-1	5.992334E-1	7.045634E-1	7.822346E-1	7.714448E-1	7.041361E-1	6.809123E-1	7.625416E-1	7.369629E-1	7.210957E-1	7.881930E-1	7.423109E-1	7.504137E-1	7.167602E-1	7.860810E-1	7.925234E-1	7.667561E-1	6.050576E-1	7.496081E-1	7.763229E-1	7.792658E-1	7.256512E-1	7.421630E-1	7.299015E-1	7.386087E-1	6.871292E-1	7.345075E-1	7.488442E-1	8.283355E-1	7.235939E-1	8.035535E-1	5.990793E-1	8.172779E-1	7.070462E-1	6.983506E-1	8.042581E-1	8.217058E-1	7.337661E-1	7.330350E-1	7.366294E-1	7.354924E-1	7.642915E-1	7.439395E-1	8.253732E-1	7.655702E-1	7.283265E-1	8.015065E-1	7.769022E-1	8.237772E-1	7.048247E-1	6.984224E-1	7.429491E-1	7.848413E-1	7.153344E-1	6.741027E-1	9.142045E-1
2.930130E+2	6.937989E-1	6.765959E-1	7.659777E-1	6.747647E-1	7.350525E-1	6.352746E-1	6.768824E-1	7.054808E-1	7.247050E-1	6.498618E-1	7.071715E-1	7.002260E-1	6.783132E-1	7.635326E-1	6.512659E-1	6.934635E-1	7.139381E-1	7.035814E-1	6.891217E-1	6.889043E-1	6.851425E-1	5.789993E-1	7.162974E-1	6.876525E-1	6.836963E-1	6.992674E-1	6.518148E-1	6.693352E-1	6.706503E-1	7.159547E-1	7.116868E-1	7.176644E-1	7.137807E-1	6.047660E-1	6.910262E-1	6.876680E-1	7.206801E-1	6.322536E-1	8.167230E-1	6.709996E-1	7.063195E-1	6.231027E-1	7.319474E-1	7.369545E-1	7.075980E-1	6.996877E-1	6.578943E-1	6.184868E-1	6.609972E-1	6.383157E-1	7.237699E-1	7.082555E-1	6.942007E-1	6.199535E-1	7.221178E-1	7.082651E-1	6.945592E-1	6.757990E-1	6.693091E-1	7.262089E-1	6.942194E-1	6.747785E-1	7.132030E-1	7.243939E-1	6.557982E-1	6.590149E-1	6.950363E-1	7.132822E-1	6.158291E-1	5.994581E-1	7.199124E-1	6.851988E-1	6.893056E-1	5.910669E-1	6.794506E-1	7.165584E-1	7.214368E-1	6.689623E-1	7.167026E-1	6.326514E-1	6.438703E-1	6.741733E-1	6.973757E-1	7.296112E-1	6.026103E-1	6.671354E-1	7.162906E-1	7.499656E-1	6.321969E-1	7.122898E-1	6.416649E-1	7.109428E-1	7.098048E-1	6.782763E-1	6.940899E-1	7.505135E-1	6.470981E-1	6.422050E-1	7.226618E-1	7.207598E-1	5.805697E-1	6.286334E-1	6.720359E-1	6.970436E-1	5.983695E-1	6.108882E-1	6.915079E-1	7.263490E-1	6.576959E-1	6.845054E-1	7.029825E-1	6.970203E-1	6.756103E-1	6.948904E-1	7.329366E-1	6.753593E-1	6.003278E-1	6.348888E-1	7.166409E-1	6.821332E-1	6.114197E-1	6.488254E-1	7.285906E-1	7.369637E-1	7.098570E-1	6.389938E-1	6.484662E-1	6.781338E-1	5.867177E-1	7.222008E-1	6.869683E-1	7.410559E-1	5.746147E-1	6.272877E-1	7.656903E-1	7.374768E-1	5.353511E-1	6.644594E-1	7.337145E-1	7.010993E-1	6.414813E-1	6.164690E-1	6.995167E-1	7.035848E-1	7.066213E-1	7.065951E-1	5.921734E-1	6.883693E-1	6.426143E-1	6.352904E-1	7.255569E-1	7.070425E-1	6.651086E-1	6.278163E-1	6.807130E-1	7.402907E-1	6.698429E-1	7.158045E-1	6.756921E-1	7.247678E-1	6.344559E-1	6.706951E-1	6.983061E-1	6.688039E-1	6.262338E-1	6.481603E-1	7.596148E-1	7.008235E-1	6.326320E-1	6.534102E-1	7.199513E-1
2.935030E+2	7.519690E-1	6.765960E-1	8.333859E-1	7.702620E-1	7.873518E-1	7.093617E-1	7.914743E-1	7.268145E-1	7.635296E-1	7.041554E-1	7.948476E-1	7.791252E-1	7.383774E-1	7.755008E-1	7.425741E-1	8.188409E-1	8.127225E-1	6.785469E-1	7.767040E-1	7.678237E-1	8.017182E-1	6.718957E-1	8.116020E-1	7.475971E-1	7.634077E-1	7.387873E-1	7.954967E-1	7.195162E-1	7.524570E-1	7.834608E-1	7.532287E-1	7.894450E-1	7.866957E-1	6.829561E-1	7.645371E-1	7.534655E-1	7.558519E-1	6.480355E-1	7.481987E-1	8.108890E-1	7.201280E-1	7.346314E-1	7.435006E-1	7.690666E-1	7.313816E-1	7.445255E-1	7.774860E-1	7.432622E-1	8.379713E-1	7.443702E-1	7.818618E-1	8.158389E-1	7.241746E-1	7.215545E-1	7.564338E-1	7.890017E-1	7.783302E-1	7.007808E-1	7.593948E-1	7.307402E-1	7.839534E-1	7.438959E-1	7.965363E-1	7.738737E-1	7.816843E-1	6.895658E-1	8.415110E-1	7.303599E-1	8.004022E-1	6.497302E-1	7.605796E-1	7.287534E-1	7.356837E-1	7.295509E-1	6.805954E-1	7.465840E-1	8.054601E-1	7.148687E-1	7.014190E-1	8.158819E-1	7.798064E-1	7.573157E-1	7.844969E-1	7.823218E-1	8.264871E-1	7.194063E-1	7.208414E-1	8.586281E-1	7.592159E-1	7.335431E-1	8.315019E-1	7.725452E-1	7.603521E-1	7.784208E-1	7.804396E-1	7.636535E-1	6.369446E-1	7.748313E-1	8.284938E-1	7.789427E-1	7.416234E-1	7.189527E-1	8.069239E-1	7.996484E-1	7.265616E-1	7.004287E-1	8.325550E-1	7.934380E-1	7.483207E-1	7.649873E-1	8.094083E-1	7.996681E-1	7.617097E-1	7.806379E-1	8.645970E-1	7.282831E-1	6.123673E-1	7.230076E-1	7.822344E-1	7.997082E-1	6.905684E-1	6.851908E-1	7.855801E-1	8.079218E-1	7.368302E-1	7.596230E-1	7.709218E-1	7.768829E-1	7.345434E-1	7.470425E-1	7.145040E-1	7.842791E-1	6.531768E-1	7.224265E-1	7.515133E-1	7.921233E-1	7.182512E-1	6.609272E-1	8.036224E-1	7.913550E-1	7.133752E-1	7.378798E-1	8.129682E-1	7.696923E-1	7.526900E-1	7.229499E-1	6.612309E-1	7.305359E-1	6.640926E-1	7.271133E-1	7.957823E-1	7.734948E-1	7.303326E-1	7.028118E-1	7.548627E-1	7.606844E-1	7.990877E-1	7.439404E-1	7.645270E-1	7.730859E-1	7.139701E-1	7.810321E-1	7.609377E-1	7.765162E-1	7.048238E-1	7.517635E-1	7.955127E-1	7.408314E-1	7.009516E-1	6.378919E-1	7.782274E-1
2.940070E+2	7.640876E-1	7.450820E-1	8.181239E-1	7.426181E-1	7.949782E-1	6.949874E-1	7.645805E-1	7.979251E-1	7.929404E-1	7.351801E-1	8.317634E-1	7.988482E-1	8.504192E-1	7.733251E-1	7.865787E-1	7.877557E-1	7.588402E-1	8.089361E-1	7.861723E-1	7.821728E-1	8.246158E-1	6.936375E-1	7.717910E-1	7.521201E-1	8.536682E-1	6.940678E-1	7.624374E-1	7.917287E-1	7.705178E-1	8.042314E-1	7.404463E-1	7.618365E-1	7.681947E-1	7.118757E-1	7.875098E-1	7.534658E-1	7.206793E-1	6.440901E-1	7.449351E-1	8.219921E-1	7.912900E-1	7.250719E-1	7.804736E-1	7.714464E-1	8.016048E-1	7.424407E-1	7.655264E-1	7.496850E-1	7.825183E-1	7.763000E-1	7.676348E-1	8.035113E-1	7.252453E-1	6.702312E-1	7.233016E-1	7.733040E-1	7.622651E-1	7.030521E-1	7.684047E-1	8.293060E-1	8.106311E-1	7.338784E-1	7.673155E-1	8.015833E-1	7.998296E-1	6.508679E-1	8.415116E-1	7.998108E-1	8.368881E-1	7.364770E-1	8.089391E-1	7.627481E-1	7.696185E-1	7.179226E-1	8.042360E-1	8.354600E-1	8.247615E-1	6.781434E-1	8.444312E-1	7.594209E-1	7.944105E-1	7.244964E-1	8.014961E-1	8.010642E-1	7.873340E-1	7.618764E-1	7.970797E-1	8.397787E-1	8.310087E-1	7.913996E-1	7.476200E-1	8.175635E-1	7.646534E-1	7.682024E-1	8.046597E-1	7.669396E-1	7.339601E-1	7.388651E-1	8.161090E-1	7.943797E-1	7.966926E-1	6.747537E-1	7.989894E-1	7.953288E-1	8.435081E-1	7.302756E-1	7.504696E-1	8.311016E-1	8.463231E-1	8.212140E-1	8.010615E-1	8.018764E-1	7.811125E-1	7.134865E-1	8.298953E-1	7.535957E-1	7.765406E-1	6.902196E-1	7.790615E-1	7.397898E-1	7.131820E-1	7.472255E-1	8.110446E-1	7.993572E-1	7.963938E-1	7.162383E-1	7.789332E-1	8.267651E-1	6.878620E-1	7.647875E-1	7.615450E-1	7.982969E-1	6.531777E-1	7.297435E-1	7.893182E-1	7.953393E-1	7.140218E-1	7.433411E-1	8.201468E-1	7.913558E-1	7.156581E-1	7.727287E-1	7.377449E-1	7.899515E-1	7.939091E-1	7.077637E-1	6.485713E-1	7.486069E-1	7.601736E-1	7.547712E-1	7.073955E-1	8.347368E-1	7.680943E-1	7.699735E-1	8.326582E-1	7.786777E-1	7.531073E-1	7.680556E-1	7.912993E-1	7.623488E-1	7.205964E-1	7.719325E-1	7.081301E-1	8.270745E-1	7.081456E-1	7.374015E-1	7.711545E-1	8.088464E-1	6.991535E-1	7.284199E-1	8.122218E-1
2.945060E+2	7.604531E-1	7.102379E-1	7.329095E-1	7.765454E-1	8.243979E-1	6.994100E-1	7.447018E-1	8.109620E-1	7.552942E-1	6.775621E-1	7.060180E-1	7.384421E-1	7.788043E-1	8.201111E-1	7.293730E-1	7.618517E-1	7.532277E-1	7.056670E-1	7.968236E-1	7.427132E-1	7.548786E-1	6.610252E-1	7.524880E-1	7.905754E-1	7.434798E-1	7.117472E-1	7.382781E-1	7.403235E-1	6.961486E-1	7.647660E-1	7.372513E-1	7.717761E-1	7.736367E-1	7.140178E-1	7.783198E-1	7.364069E-1	7.891235E-1	6.717079E-1	7.797413E-1	7.609286E-1	7.838553E-1	6.581550E-1	7.146153E-1	7.476590E-1	7.710239E-1	7.163713E-1	7.937939E-1	7.460145E-1	8.025760E-1	7.044570E-1	8.553655E-1	7.407552E-1	8.001780E-1	6.178584E-1	7.895674E-1	7.430261E-1	7.335752E-1	6.871536E-1	7.492616E-1	7.941846E-1	7.172592E-1	7.539129E-1	7.943720E-1	7.600189E-1	7.510625E-1	6.294819E-1	7.810611E-1	7.895635E-1	7.810862E-1	7.029618E-1	7.902547E-1	7.298157E-1	6.904357E-1	7.168657E-1	7.653124E-1	6.961411E-1	8.088656E-1	7.250701E-1	7.865721E-1	7.658130E-1	7.629542E-1	7.485649E-1	7.643100E-1	7.050128E-1	8.264869E-1	7.226727E-1	7.219802E-1	7.810118E-1	8.000828E-1	7.016631E-1	7.520346E-1	7.820227E-1	7.517473E-1	7.130206E-1	7.688553E-1	7.121866E-1	7.192946E-1	7.253785E-1	8.397524E-1	7.884418E-1	7.478562E-1	6.613024E-1	7.808532E-1	7.553661E-1	7.434290E-1	7.302757E-1	8.117440E-1	7.416501E-1	7.145999E-1	7.947540E-1	7.488917E-1	7.775941E-1	7.665600E-1	6.855925E-1	7.676377E-1	7.386381E-1	7.283829E-1	6.728005E-1	7.705970E-1	7.917949E-1	7.719773E-1	6.798432E-1	7.710295E-1	8.103686E-1	7.930220E-1	7.479832E-1	7.342995E-1	7.626298E-1	8.012321E-1	7.233837E-1	7.799017E-1	7.468971E-1	7.307578E-1	6.304233E-1	8.117649E-1	8.167692E-1	7.436233E-1	7.256805E-1	6.396568E-1	8.054212E-1	7.749992E-1	7.457489E-1	7.562423E-1	7.654271E-1	8.084559E-1	7.404722E-1	6.543255E-1	7.955922E-1	7.262624E-1	6.529917E-1	7.521946E-1	8.021617E-1	7.188905E-1	7.173639E-1	7.378445E-1	8.134653E-1	6.946981E-1	8.032241E-1	7.304540E-1	7.236933E-1	6.731083E-1	7.150577E-1	7.830428E-1	7.358496E-1	6.860066E-1	6.973975E-1	8.032050E-1	7.795071E-1	6.667914E-1	7.284186E-1	8.025093E-1
2.950050E+2	8.816404E-1	8.003508E-1	8.677259E-1	9.436653E-1	9.377136E-1	8.365280E-1	9.095740E-1	8.714069E-1	8.682346E-1	8.204986E-1	9.113639E-1	8.888432E-1	8.920011E-1	8.995379E-1	9.581957E-1	9.369655E-1	9.698787E-1	8.976004E-1	9.104451E-1	9.328383E-1	8.860259E-1	7.341566E-1	8.791604E-1	9.206412E-1	9.392390E-1	8.563068E-1	8.959469E-1	8.051917E-1	8.810088E-1	9.163968E-1	8.938351E-1	9.142316E-1	9.238202E-1	8.393357E-1	8.874373E-1	8.363201E-1	8.889375E-1	8.403741E-1	9.233182E-1	8.741728E-1	9.155597E-1	8.472231E-1	8.393992E-1	8.642151E-1	8.854174E-1	9.144946E-1	8.872935E-1	8.561111E-1	8.615674E-1	8.903349E-1	9.430953E-1	9.178185E-1	8.836751E-1	7.487892E-1	8.546490E-1	9.392609E-1	8.884956E-1	8.699792E-1	8.888934E-1	9.210732E-1	8.845993E-1	8.250340E-1	9.458873E-1	8.599704E-1	9.574704E-1	8.219547E-1	8.694114E-1	8.703977E-1	9.034210E-1	7.749208E-1	9.144530E-1	9.252827E-1	9.178018E-1	7.972076E-1	8.786485E-1	8.558770E-1	9.349006E-1	8.699311E-1	8.520739E-1	9.351948E-1	9.561863E-1	8.601511E-1	8.875562E-1	9.158572E-1	9.057977E-1	8.348380E-1	8.687656E-1	9.162864E-1	9.039078E-1	8.161954E-1	9.175912E-1	9.632755E-1	8.775764E-1	9.194414E-1	8.278268E-1	9.290051E-1	8.309747E-1	8.276591E-1	9.005483E-1	9.261819E-1	9.120272E-1	7.468175E-1	8.579321E-1	9.422161E-1	8.828659E-1	7.678600E-1	9.123281E-1	8.699419E-1	8.853129E-1	8.598007E-1	9.064428E-1	9.332230E-1	8.975289E-1	8.953124E-1	9.340000E-1	9.399802E-1	8.991235E-1	8.121501E-1	9.737278E-1	8.924116E-1	8.466031E-1	7.728951E-1	9.080483E-1	8.801042E-1	8.683214E-1	8.866008E-1	9.116877E-1	9.020995E-1	9.257170E-1	8.807182E-1	8.934890E-1	9.081045E-1	9.222559E-1	7.924728E-1	9.180895E-1	9.260642E-1	8.609771E-1	7.668871E-1	8.392121E-1	9.167773E-1	9.518811E-1	8.828983E-1	8.548971E-1	8.763163E-1	9.151380E-1	8.841582E-1	7.774794E-1	8.739025E-1	9.365107E-1	8.454874E-1	9.180712E-1	8.777348E-1	9.443121E-1	8.539244E-1	9.019457E-1	9.310240E-1	8.773816E-1	8.715508E-1	8.764834E-1	9.223333E-1	8.608508E-1	8.447318E-1	8.653226E-1	8.732369E-1	9.306339E-1	8.748555E-1	9.211543E-1	9.435425E-1	9.436666E-1	8.008412E-1	9.481995E-1
2.955070E+2	1.094930E+0	1.016621E+0	1.058505E+0	1.041676E+0	1.202479E+0	9.703280E-1	1.093156E+0	1.089482E+0	1.137648E+0	1.014404E+0	1.128244E+0	1.169920E+0	1.110309E+0	1.114970E+0	1.069307E+0	1.075814E+0	1.150608E+0	1.152121E+0	1.173193E+0	1.169599E+0	1.170180E+0	9.792455E-1	1.192822E+0	1.093685E+0	1.120933E+0	1.032066E+0	1.081589E+0	1.119741E+0	1.048872E+0	1.124107E+0	1.094092E+0	1.086504E+0	1.059856E+0	1.067479E+0	1.149319E+0	1.144591E+0	1.060047E+0	1.026796E+0	1.110400E+0	1.143961E+0	1.079129E+0	1.055410E+0	1.136337E+0	1.130632E+0	1.088154E+0	1.091762E+0	1.133001E+0	1.077221E+0	1.158883E+0	1.063670E+0	1.103142E+0	1.132985E+0	1.155575E+0	9.771312E-1	1.117345E+0	1.119797E+0	1.169647E+0	1.038041E+0	1.153522E+0	1.136329E+0	1.178052E+0	1.079469E+0	1.161255E+0	1.145968E+0	1.209242E+0	1.007298E+0	1.148413E+0	1.084439E+0	1.165258E+0	9.424989E-1	1.134274E+0	1.084632E+0	1.111232E+0	1.030833E+0	1.090441E+0	1.121302E+0	1.194919E+0	1.044377E+0	1.194869E+0	1.141861E+0	1.168516E+0	1.112864E+0	1.165921E+0	1.031822E+0	1.133691E+0	1.091838E+0	1.121373E+0	1.134719E+0	1.172304E+0	1.129095E+0	1.098597E+0	1.091219E+0	1.099122E+0	1.080899E+0	1.076346E+0	1.157868E+0	1.075770E+0	1.004121E+0	1.156119E+0	1.040174E+0	1.144774E+0	9.466733E-1	1.154914E+0	1.112867E+0	1.213465E+0	9.933672E-1	1.130835E+0	1.130058E+0	1.140330E+0	1.079196E+0	1.057734E+0	1.070088E+0	1.130362E+0	1.090569E+0	1.122815E+0	1.105656E+0	1.101605E+0	1.108271E+0	1.110204E+0	1.163739E+0	1.101008E+0	1.018896E+0	1.115395E+0	1.179845E+0	1.063872E+0	1.061197E+0	1.081064E+0	1.124030E+0	1.168019E+0	1.080639E+0	1.033464E+0	1.119543E+0	1.134375E+0	9.722942E-1	1.159093E+0	1.147869E+0	1.151712E+0	1.078882E+0	1.145535E+0	1.180513E+0	1.162998E+0	1.091995E+0	1.150857E+0	1.076769E+0	1.212153E+0	1.025506E+0	9.201989E-1	1.051002E+0	1.092502E+0	1.005901E+0	1.160226E+0	1.182638E+0	1.150281E+0	1.081154E+0	1.151135E+0	1.092968E+0	1.125932E+0	1.097635E+0	1.095528E+0	1.180029E+0	1.120375E+0	1.125694E+0	1.101110E+0	1.107346E+0	1.174154E+0	1.016412E+0	1.098077E+0	1.076906E+0	1.130646E+0	1.168121E+0	1.123026E+0
2.960050E+2	1.164007E+0	1.093517E+0	1.199682E+0	1.168586E+0	1.272212E+0	1.078695E+0	1.190207E+0	1.236443E+0	1.216471E+0	1.097506E+0	1.230918E+0	1.146497E+0	1.109154E+0	1.234654E+0	1.187018E+0	1.237458E+0	1.258373E+0	1.147949E+0	1.211067E+0	1.253301E+0	1.215978E+0	1.002965E+0	1.231427E+0	1.207917E+0	1.192439E+0	1.100706E+0	1.118464E+0	1.205416E+0	1.115804E+0	1.192652E+0	1.182505E+0	1.244421E+0	1.238336E+0	1.140313E+0	1.191817E+0	1.194548E+0	1.179824E+0	9.883280E-1	1.201768E+0	1.157284E+0	1.265003E+0	1.103209E+0	1.189486E+0	1.205561E+0	1.156112E+0	1.127216E+0	1.247157E+0	1.089147E+0	1.223773E+0	1.170864E+0	1.224067E+0	1.175570E+0	1.196253E+0	1.013791E+0	1.125629E+0	1.225203E+0	1.283256E+0	1.068701E+0	1.233473E+0	1.219033E+0	1.190179E+0	1.202679E+0	1.206710E+0	1.108363E+0	1.222851E+0	1.050071E+0	1.197240E+0	1.184630E+0	1.254326E+0	1.035158E+0	1.157355E+0	1.205737E+0	1.234528E+0	1.071004E+0	1.154550E+0	1.192162E+0	1.193784E+0	1.101505E+0	1.179585E+0	1.195126E+0	1.283106E+0	1.181785E+0	1.205233E+0	1.219240E+0	1.173848E+0	1.164799E+0	1.169163E+0	1.215662E+0	1.226426E+0	1.157433E+0	1.158197E+0	1.212055E+0	1.198064E+0	1.215788E+0	1.221667E+0	1.202764E+0	1.207755E+0	1.092914E+0	1.259698E+0	1.114982E+0	1.232055E+0	1.068701E+0	1.173051E+0	1.286756E+0	1.282060E+0	9.911561E-1	1.262634E+0	1.200677E+0	1.134007E+0	1.123295E+0	1.218416E+0	1.230132E+0	1.215249E+0	1.129827E+0	1.197321E+0	1.206902E+0	1.138818E+0	1.071383E+0	1.236103E+0	1.179566E+0	1.165457E+0	1.061679E+0	1.247563E+0	1.206760E+0	1.223460E+0	1.222036E+0	1.166896E+0	1.233977E+0	1.159127E+0	1.080638E+0	1.144756E+0	1.135896E+0	1.154998E+0	1.092525E+0	1.246517E+0	1.218591E+0	1.221489E+0	1.082414E+0	1.205275E+0	1.199268E+0	1.245163E+0	1.088623E+0	1.205117E+0	1.237773E+0	1.081224E+0	1.129473E+0	1.065222E+0	1.204007E+0	1.169367E+0	1.137550E+0	1.255878E+0	1.290787E+0	1.215505E+0	1.165105E+0	1.177877E+0	1.205728E+0	1.248965E+0	1.157923E+0	1.141772E+0	1.178955E+0	1.155715E+0	1.160956E+0	1.091287E+0	1.196373E+0	1.209575E+0	1.078985E+0	1.294232E+0	1.150255E+0	1.184583E+0	1.116391E+0	1.312425E+0
2.965070E+2	1.107049E+0	1.153593E+0	1.220032E+0	1.237697E+0	1.185046E+0	1.079801E+0	1.171499E+0	1.217482E+0	1.200000E+0	1.086426E+0	1.190540E+0	1.194575E+0	1.105688E+0	1.229214E+0	1.169418E+0	1.217770E+0	1.238166E+0	1.204276E+0	1.176744E+0	1.199492E+0	1.150403E+0	1.059296E+0	1.167488E+0	1.201132E+0	1.153756E+0	1.139185E+0	1.151523E+0	1.116069E+0	1.159362E+0	1.192652E+0	1.110071E+0	1.245525E+0	1.186097E+0	1.048199E+0	1.142427E+0	1.156774E+0	1.162712E+0	1.019891E+0	1.210468E+0	1.177268E+0	1.115242E+0	1.103208E+0	1.112074E+0	1.177016E+0	1.236527E+0	1.080292E+0	1.161269E+0	1.120341E+0	1.211976E+0	1.156040E+0	1.208655E+0	1.180053E+0	1.208028E+0	1.054642E+0	1.141013E+0	1.192684E+0	1.189156E+0	1.060752E+0	1.141134E+0	1.178248E+0	1.237469E+0	1.136567E+0	1.187229E+0	1.137060E+0	1.230791E+0	1.045998E+0	1.192589E+0	1.173244E+0	1.222133E+0	9.917844E-1	1.161751E+0	1.151558E+0	1.248102E+0	1.087918E+0	1.145393E+0	1.142921E+0	1.188107E+0	1.106606E+0	1.158843E+0	1.239869E+0	1.225811E+0	1.131461E+0	1.141484E+0	1.152472E+0	1.231072E+0	1.133218E+0	1.168026E+0	1.262232E+0	1.259561E+0	1.116108E+0	1.142745E+0	1.278394E+0	1.198064E+0	1.166738E+0	1.194287E+0	1.281607E+0	1.133302E+0	1.153609E+0	1.221419E+0	1.221849E+0	1.195688E+0	9.937547E-1	1.134511E+0	1.186310E+0	1.231458E+0	1.087329E+0	1.201358E+0	1.153597E+0	1.172998E+0	1.194956E+0	1.137032E+0	1.220198E+0	1.178869E+0	1.169085E+0	1.180991E+0	1.180441E+0	1.212149E+0	1.116467E+0	1.265726E+0	1.273400E+0	1.185810E+0	1.091626E+0	1.171172E+0	1.204313E+0	1.248185E+0	1.068604E+0	1.127986E+0	1.206490E+0	1.231372E+0	1.183558E+0	1.213596E+0	1.202482E+0	1.225705E+0	1.118661E+0	1.188628E+0	1.158586E+0	1.180257E+0	1.145991E+0	1.220527E+0	1.209817E+0	1.153868E+0	1.230268E+0	1.239645E+0	1.170599E+0	1.181845E+0	1.096764E+0	1.046806E+0	1.182321E+0	1.179540E+0	1.070067E+0	1.208657E+0	1.174820E+0	1.123962E+0	1.119211E+0	1.171800E+0	1.118158E+0	1.166943E+0	1.104668E+0	1.192881E+0	1.148891E+0	1.129211E+0	1.183706E+0	1.128127E+0	1.126030E+0	1.201827E+0	1.173355E+0	1.185258E+0	1.214269E+0	1.213349E+0	1.106048E+0	1.137597E+0
2.970040E+2	1.150676E+0	1.204055E+0	1.148808E+0	1.182409E+0	1.164344E+0	1.108551E+0	1.194885E+0	1.157037E+0	1.143529E+0	1.173960E+0	1.139781E+0	1.189644E+0	1.163443E+0	1.209630E+0	1.246424E+0	1.199120E+0	1.222451E+0	1.189674E+0	1.174377E+0	1.171989E+0	1.217018E+0	1.119580E+0	1.207298E+0	1.193214E+0	1.161962E+0	1.178706E+0	1.234172E+0	1.141771E+0	1.185923E+0	1.189537E+0	1.243220E+0	1.139511E+0	1.215482E+0	1.114607E+0	1.164250E+0	1.165304E+0	1.136095E+0	1.051455E+0	1.240924E+0	1.227229E+0	1.183219E+0	1.037354E+0	1.173310E+0	1.191289E+0	1.177631E+0	1.166841E+0	1.147134E+0	1.112084E+0	1.224954E+0	1.134372E+0	1.262003E+0	1.134105E+0	1.194112E+0	1.100729E+0	1.185979E+0	1.218474E+0	1.153581E+0	1.056210E+0	1.201942E+0	1.182780E+0	1.235044E+0	1.085479E+0	1.175324E+0	1.251856E+0	1.186560E+0	1.088769E+0	1.132139E+0	1.109487E+0	1.198525E+0	9.878423E-1	1.205715E+0	1.155807E+0	1.242447E+0	1.007576E+0	1.151116E+0	1.157335E+0	1.179023E+0	1.191277E+0	1.185043E+0	1.073683E+0	1.159527E+0	1.209135E+0	1.134046E+0	1.215726E+0	1.222036E+0	1.171332E+0	1.166888E+0	1.145808E+0	1.254038E+0	1.075961E+0	1.161508E+0	1.264179E+0	1.161499E+0	1.109512E+0	1.173227E+0	1.165533E+0	1.103972E+0	1.118765E+0	1.156120E+0	1.236097E+0	1.201921E+0	1.002402E+0	1.222925E+0	1.275955E+0	1.187602E+0	1.040900E+0	1.197890E+0	1.212446E+0	1.177213E+0	1.209289E+0	1.177724E+0	1.169426E+0	1.212823E+0	1.148422E+0	1.199362E+0	1.160882E+0	1.185881E+0	1.004782E+0	1.162045E+0	1.186350E+0	1.177895E+0	1.107670E+0	1.195423E+0	1.195749E+0	1.185249E+0	1.120454E+0	1.097087E+0	1.184095E+0	1.186912E+0	1.200118E+0	1.157377E+0	1.212996E+0	1.169730E+0	1.045478E+0	1.160274E+0	1.235735E+0	1.211974E+0	1.088300E+0	1.163331E+0	1.174652E+0	1.198374E+0	1.166190E+0	1.179222E+0	1.173797E+0	1.224276E+0	1.118959E+0	1.009975E+0	1.167864E+0	1.116239E+0	1.080022E+0	1.218343E+0	1.204790E+0	1.139982E+0	1.186372E+0	1.175446E+0	1.210527E+0	1.200498E+0	1.154909E+0	1.112565E+0	1.192913E+0	1.185533E+0	1.157543E+0	1.161285E+0	1.112842E+0	1.212895E+0	1.137454E+0	1.181410E+0	1.232942E+0	1.189977E+0	1.188811E+0	1.152164E+0
2.975020E+2	9.761662E-1	9.793741E-1	9.949117E-1	9.851310E-1	9.507884E-1	9.957615E-1	9.013882E-1	1.056296E+0	9.470591E-1	1.002216E+0	9.759656E-1	9.763709E-1	9.670804E-1	1.073624E+0	1.017602E+0	1.007427E+0	9.597759E-1	8.850833E-1	1.012230E+0	1.004583E+0	9.963567E-1	9.901175E-1	9.708464E-1	9.805840E-1	1.028329E+0	9.946268E-1	9.798680E-1	9.716455E-1	1.003187E+0	9.901347E-1	9.992897E-1	9.539877E-1	9.477620E-1	1.022493E+0	9.850688E-1	9.703509E-1	1.003961E+0	9.676147E-1	9.450712E-1	1.004071E+0	9.686677E-1	9.460054E-1	9.861361E-1	1.028347E+0	9.771591E-1	1.018770E+0	9.677464E-1	1.019420E+0	9.323565E-1	1.000951E+0	9.253108E-1	9.940227E-1	9.446926E-1	9.729413E-1	9.729816E-1	1.026725E+0	9.699722E-1	9.665008E-1	9.564588E-1	1.016239E+0	1.002223E+0	1.015360E+0	9.458879E-1	9.510140E-1	9.767516E-1	9.787841E-1	9.333491E-1	9.580641E-1	9.570757E-1	9.434841E-1	1.045247E+0	9.868977E-1	9.732293E-1	9.356912E-1	1.003435E+0	9.867889E-1	9.871315E-1	9.801068E-1	9.983619E-1	9.831333E-1	9.427044E-1	9.290727E-1	1.019302E+0	1.007224E+0	9.559940E-1	9.263126E-1	1.005310E+0	1.008316E+0	9.779088E-1	8.527991E-1	9.451820E-1	9.443209E-1	9.496322E-1	1.004258E+0	9.447153E-1	9.607615E-1	1.005828E+0	8.838574E-1	9.354501E-1	9.629919E-1	9.670966E-1	8.582752E-1	1.003023E+0	9.184552E-1	9.233480E-1	8.806136E-1	9.990374E-1	1.017066E+0	1.024413E+0	9.424867E-1	9.690466E-1	9.597129E-1	1.036986E+0	9.428346E-1	9.615563E-1	9.917545E-1	9.888732E-1	8.900230E-1	9.811323E-1	9.986807E-1	9.675861E-1	8.659474E-1	9.589754E-1	9.914355E-1	9.930701E-1	9.373924E-1	9.826432E-1	9.621638E-1	9.146016E-1	9.209380E-1	9.267620E-1	1.063471E+0	9.409147E-1	8.771560E-1	9.629828E-1	9.957143E-1	9.973566E-1	8.445912E-1	1.005720E+0	9.929667E-1	1.004375E+0	9.660873E-1	1.006576E+0	1.017060E+0	9.806031E-1	9.694338E-1	8.051031E-1	9.678731E-1	1.035983E+0	8.842076E-1	9.471299E-1	9.832782E-1	9.591880E-1	9.625017E-1	9.955425E-1	9.958016E-1	1.004142E+0	9.539459E-1	9.677518E-1	9.931999E-1	9.679735E-1	9.072945E-1	1.021287E+0	9.611651E-1	9.682692E-1	9.035779E-1	1.014743E+0	1.042231E+0	1.011985E+0	8.758487E-1	9.481992E-1
2.980040E+2	1.045242E+0	1.079099E+0	1.000001E+0	1.044189E+0	1.007445E+0	1.057685E+0	1.089647E+0	9.911113E-1	9.800000E-1	1.002216E+0	1.019804E+0	1.047873E+0	1.069882E+0	1.031190E+0	1.069308E+0	1.019860E+0	1.005800E+0	1.090577E+0	1.034718E+0	9.794728E-1	9.869889E-1	9.851756E-1	1.052880E+0	1.026956E+0	9.919903E-1	9.956659E-1	1.062516E+0	1.046305E+0	1.036122E+0	1.041023E+0	1.006746E+0	1.013619E+0	1.130594E+0	1.029990E+0	1.020675E+0	1.067827E+0	1.044837E+0	1.021865E+0	1.000543E+0	1.049591E+0	1.029209E+0	9.959287E-1	1.043905E+0	1.049754E+0	1.043983E+0	1.034410E+0	1.029717E+0	9.974007E-1	1.137646E+0	1.042003E+0	1.078245E+0	1.022039E+0	1.046387E+0	1.056736E+0	1.014397E+0	1.022239E+0	9.780054E-1	1.058481E+0	1.039788E+0	9.879156E-1	1.032538E+0	1.049417E+0	1.051947E+0	1.052945E+0	1.008506E+0	1.027666E+0	1.026350E+0	1.061670E+0	1.015023E+0	1.050931E+0	9.924900E-1	1.050637E+0	1.000377E+0	1.022376E+0	1.029765E+0	1.048040E+0	1.014382E+0	1.052538E+0	1.059498E+0	1.047050E+0	1.079765E+0	1.072386E+0	1.010802E+0	1.034164E+0	1.028278E+0	1.080948E+0	9.780010E-1	1.080388E+0	1.047495E+0	1.109024E+0	1.075420E+0	1.062788E+0	1.039971E+0	1.007323E+0	1.056338E+0	1.034129E+0	1.017109E+0	1.040089E+0	1.069428E+0	1.019988E+0	1.086588E+0	9.937543E-1	1.033628E+0	1.062103E+0	1.022302E+0	1.001105E+0	1.036032E+0	9.605704E-1	1.027574E+0	1.072580E+0	1.033736E+0	1.061258E+0	1.036986E+0	1.004822E+0	1.054433E+0	1.042377E+0	1.034840E+0	9.412545E-1	9.906550E-1	1.086862E+0	1.050127E+0	9.354692E-1	1.043855E+0	9.694140E-1	1.040272E+0	9.818350E-1	1.049020E+0	1.108759E+0	1.073542E+0	9.528787E-1	1.101156E+0	9.887078E-1	1.047956E+0	9.377945E-1	1.071671E+0	1.037503E+0	9.952433E-1	1.045915E+0	1.032412E+0	1.067986E+0	1.031763E+0	9.874472E-1	1.027541E+0	1.045848E+0	1.012123E+0	9.355565E-1	1.013428E+0	1.035340E+0	1.015637E+0	1.002580E+0	1.024619E+0	1.022368E+0	1.046153E+0	9.680981E-1	1.059968E+0	1.052182E+0	1.055095E+0	9.670084E-1	1.039550E+0	9.974943E-1	1.017669E+0	1.027870E+0	1.069181E+0	1.049093E+0	1.033576E+0	9.887167E-1	1.046795E+0	1.076907E+0	1.038953E+0	1.067248E+0	1.016187E+0
2.985020E+2	9.628364E-1	1.080300E+0	9.999989E-1	1.093195E+0	1.040132E+0	1.068743E+0	1.058076E+0	1.025482E+0	1.023530E+0	1.059834E+0	1.001346E+0	1.057736E+0	1.015594E+0	1.001813E+0	9.966994E-1	1.040584E+0	1.083256E+0	1.058241E+0	1.033533E+0	1.033282E+0	1.096279E+0	1.074120E+0	1.049261E+0	1.031480E+0	1.022467E+0	1.093427E+0	1.005298E+0	1.065888E+0	1.029748E+0	1.052447E+0	1.034441E+0	1.021350E+0	1.016324E+0	9.678669E-1	1.043647E+0	1.037366E+0	1.028676E+0	1.072168E+0	1.002720E+0	1.025166E+0	1.053638E+0	1.013986E+0	1.018486E+0	1.017642E+0	1.022464E+0	1.076120E+0	1.088426E+0	1.047861E+0	9.889890E-1	1.059108E+0	1.123296E+0	1.074711E+0	1.124532E+0	9.928430E-1	1.040430E+0	9.986918E-1	1.044563E+0	1.065295E+0	1.039787E+0	1.008309E+0	1.033751E+0	1.030385E+0	1.053030E+0	1.023256E+0	1.095831E+0	1.013408E+0	1.060063E+0	1.042315E+0	1.081556E+0	1.035159E+0	1.038652E+0	1.048513E+0	1.011689E+0	1.020262E+0	1.028620E+0	1.049242E+0	1.021196E+0	1.076000E+0	1.016921E+0	1.023613E+0	9.764085E-1	1.007840E+0	1.030989E+0	1.088047E+0	1.065423E+0	1.063524E+0	1.007586E+0	1.024948E+0	1.005523E+0	1.041720E+0	1.042308E+0	1.039094E+0	1.019538E+0	1.094184E+0	1.006845E+0	1.022083E+0	1.057721E+0	1.028848E+0	1.035653E+0	1.033050E+0	1.071002E+0	1.098486E+0	1.084636E+0	9.713787E-1	1.061659E+0	1.046428E+0	1.027940E+0	1.138297E+0	1.068672E+0	1.033993E+0	1.062951E+0	1.056843E+0	1.033348E+0	1.079205E+0	1.028918E+0	1.069991E+0	1.073148E+0	1.075481E+0	1.067886E+0	9.952897E-1	1.035429E+0	1.124783E+0	1.019602E+0	1.108886E+0	1.022289E+0	1.041092E+0	1.042154E+0	1.027317E+0	1.005743E+0	9.919171E-1	1.042642E+0	9.957159E-1	1.016531E+0	1.033979E+0	1.069308E+0	1.040718E+0	1.093564E+0	1.048271E+0	1.034954E+0	1.062124E+0	1.004375E+0	9.863226E-1	1.064536E+0	1.034120E+0	1.013335E+0	1.007982E+0	1.052560E+0	1.032930E+0	1.016767E+0	1.015857E+0	1.080315E+0	1.049732E+0	1.070182E+0	1.002799E+0	1.027148E+0	1.022192E+0	9.904722E-1	9.891147E-1	1.051719E+0	1.010379E+0	1.082827E+0	9.960190E-1	9.672515E-1	9.974347E-1	1.035790E+0	1.054366E+0	1.075000E+0	1.032896E+0	1.022774E+0	9.870678E-1	1.074463E+0
2.990020E+2	1.050092E+0	1.019024E+0	1.128458E+0	1.040418E+0	1.068461E+0	1.075377E+0	1.080292E+0	1.058667E+0	1.094117E+0	1.016621E+0	1.091329E+0	1.054038E+0	1.041005E+0	1.017046E+0	1.033004E+0	1.043692E+0	1.049579E+0	1.045723E+0	1.054838E+0	1.061981E+0	1.006766E+0	1.098826E+0	1.040817E+0	1.093685E+0	1.102178E+0	1.044547E+0	1.068874E+0	1.094039E+0	1.060558E+0	1.037907E+0	1.083441E+0	1.098652E+0	1.058767E+0	1.042844E+0	1.087293E+0	9.666958E-1	1.078108E+0	1.102745E+0	1.067981E+0	9.974099E-1	1.054699E+0	1.087276E+0	9.953779E-1	1.042619E+0	1.025862E+0	1.011471E+0	1.088425E+0	1.061623E+0	1.056239E+0	1.016916E+0	1.073503E+0	1.094883E+0	1.013202E+0	1.090255E+0	1.080662E+0	1.042424E+0	1.112270E+0	1.027821E+0	1.045418E+0	1.130664E+0	1.081043E+0	1.062440E+0	1.071429E+0	1.037110E+0	1.074284E+0	1.017483E+0	1.071688E+0	1.024098E+0	1.097653E+0	1.045016E+0	1.054039E+0	1.027266E+0	1.151954E+0	1.094261E+0	1.081283E+0	1.072062E+0	1.104083E+0	1.046418E+0	1.002729E+0	1.047051E+0	1.092121E+0	1.134743E+0	1.008676E+0	9.767679E-1	1.057391E+0	1.047188E+0	1.080410E+0	1.050451E+0	1.090570E+0	1.111384E+0	9.992649E-1	1.028431E+0	1.104499E+0	1.047177E+0	1.115309E+0	1.018798E+0	1.047568E+0	1.051327E+0	1.050288E+0	1.065110E+0	1.062689E+0	1.089840E+0	9.758182E-1	1.138788E+0	1.032423E+0	1.127124E+0	9.886311E-1	1.013536E+0	1.058133E+0	1.083605E+0	1.042083E+0	1.032560E+0	1.066091E+0	1.075072E+0	1.083011E+0	1.021668E+0	1.042502E+0	1.148230E+0	1.052016E+0	1.041641E+0	1.029775E+0	1.085208E+0	1.085081E+0	1.011011E+0	1.096464E+0	1.091883E+0	1.038721E+0	1.031389E+0	1.076877E+0	1.111396E+0	1.042643E+0	1.030762E+0	1.036171E+0	1.125980E+0	1.094118E+0	1.017145E+0	1.060791E+0	1.147168E+0	1.052749E+0	1.029304E+0	1.086539E+0	1.049276E+0	1.030007E+0	1.023458E+0	1.066677E+0	1.069895E+0	1.096298E+0	1.054617E+0	1.072155E+0	1.068960E+0	1.025830E+0	1.036701E+0	1.050730E+0	1.093466E+0	1.042950E+0	1.050983E+0	1.015328E+0	1.097635E+0	1.073624E+0	1.098425E+0	1.090558E+0	1.075642E+0	9.868999E-1	1.065580E+0	1.097776E+0	1.019490E+0	1.026282E+0	1.048900E+0	1.082104E+0	9.689622E-1	1.025902E+0
2.995040E+2	1.031913E+0	9.733667E-1	1.048331E+0	1.017800E+0	1.019431E+0	9.703285E-1	1.025335E+0	1.017185E+0	1.056470E+0	1.031025E+0	1.032493E+0	1.004726E+0	1.008663E+0	1.047510E+0	1.017602E+0	1.049910E+0	1.010290E+0	1.062413E+0	1.012230E+0	1.052414E+0	1.061931E+0	1.010871E+0	1.021513E+0	1.024694E+0	1.008401E+0	9.800671E-1	1.025643E+0	9.875566E-1	1.009562E+0	1.039984E+0	9.641391E-1	1.053374E+0	1.004354E+0	1.032133E+0	1.011486E+0	1.025182E+0	1.050541E+0	9.972056E-1	1.052754E+0	1.048480E+0	1.037707E+0	1.074530E+0	1.039284E+0	1.012885E+0	1.025861E+0	9.958297E-1	9.992754E-1	1.008410E+0	1.011404E+0	1.015775E+0	1.003557E+0	9.850578E-1	1.031400E+0	9.645617E-1	9.646975E-1	1.045788E+0	9.963663E-1	9.982971E-1	1.001502E+0	9.867824E-1	1.001010E+0	1.039401E+0	1.035714E+0	1.082632E+0	9.903603E-1	1.042941E+0	1.019376E+0	9.933595E-1	9.731731E-1	1.078531E+0	1.005678E+0	1.000708E+0	1.006032E+0	1.017091E+0	9.713793E-1	1.019216E+0	1.009841E+0	1.000510E+0	1.027839E+0	1.033202E+0	9.921354E-1	9.936183E-1	1.058612E+0	1.027137E+0	1.024261E+0	1.009075E+0	1.061066E+0	9.850311E-1	1.023195E+0	1.025189E+0	1.040102E+0	1.009477E+0	9.915755E-1	9.919954E-1	1.014216E+0	1.065885E+0	9.968043E-1	1.076055E+0	1.009758E+0	1.038987E+0	9.660584E-1	1.042757E+0	1.004157E+0	1.029702E+0	1.061660E+0	1.051956E+0	1.069560E+0	1.017067E+0	9.643470E-1	1.029584E+0	1.067124E+0	1.040287E+0	9.533124E-1	1.054410E+0	1.012588E+0	1.018217E+0	1.006386E+0	1.038595E+0	1.046727E+0	9.873762E-1	1.028644E+0	1.056331E+0	1.020815E+0	1.047713E+0	9.559821E-1	1.052731E+0	9.895090E-1	9.967757E-1	1.050201E+0	1.133872E+0	1.042643E+0	1.012071E+0	1.033226E+0	1.064296E+0	9.499876E-1	1.052505E+0	9.941851E-1	1.003532E+0	9.980936E-1	1.000000E+0	1.044316E+0	1.077380E+0	1.017675E+0	1.013862E+0	1.041218E+0	1.127136E+0	1.075580E+0	9.919676E-1	9.545967E-1	1.119849E+0	1.031883E+0	9.819752E-1	1.026699E+0	1.087869E+0	1.024716E+0	1.043785E+0	1.036454E+0	1.061461E+0	1.028597E+0	1.016822E+0	1.027610E+0	1.050618E+0	1.058128E+0	1.007328E+0	9.793376E-1	1.090268E+0	9.737188E-1	9.448768E-1	9.940071E-1	1.152601E+0	1.030757E+0
3.000060E+2	9.337509E-1	8.688361E-1	8.282994E-1	8.192671E-1	9.137419E-1	8.321047E-1	8.452628E-1	8.512587E-1	8.988241E-1	8.880882E-1	8.790622E-1	8.592562E-1	8.977766E-1	8.288152E-1	8.657856E-1	8.385277E-1	8.913000E-1	8.579633E-1	8.524516E-1	8.682674E-1	8.516781E-1	8.408897E-1	8.646832E-1	8.426013E-1	8.466347E-1	8.916671E-1	8.578013E-1	8.345657E-1	8.608230E-1	8.385046E-1	9.119437E-1	8.590167E-1	8.421987E-1	9.046729E-1	8.518305E-1	9.325785E-1	7.938764E-1	8.384022E-1	9.309308E-1	8.752829E-1	8.560795E-1	8.822745E-1	9.168109E-1	8.487528E-1	9.046720E-1	8.633992E-1	8.264100E-1	8.652855E-1	8.733657E-1	8.652474E-1	7.960880E-1	8.292862E-1	8.397856E-1	9.226634E-1	9.268319E-1	8.641310E-1	8.988232E-1	8.836046E-1	9.170459E-1	8.700908E-1	8.494345E-1	8.029968E-1	8.419914E-1	8.530437E-1	8.542674E-1	9.197177E-1	8.891742E-1	9.204929E-1	8.755195E-1	8.468801E-1	8.638945E-1	8.859780E-1	8.567193E-1	9.103202E-1	8.855180E-1	8.246509E-1	8.633673E-1	8.444274E-1	8.946504E-1	8.659503E-1	9.168657E-1	8.623399E-1	8.716188E-1	8.666598E-1	8.686526E-1	8.729523E-1	8.676274E-1	8.508666E-1	8.553087E-1	8.598840E-1	8.977236E-1	9.158889E-1	8.947843E-1	8.550621E-1	8.625769E-1	8.983440E-1	8.749711E-1	9.198233E-1	8.994234E-1	8.798737E-1	8.465666E-1	9.168867E-1	8.987391E-1	8.795736E-1	8.986086E-1	8.927732E-1	8.787994E-1	8.534640E-1	8.568610E-1	8.377508E-1	8.250586E-1	8.493379E-1	8.732763E-1	8.436567E-1	8.594941E-1	8.559926E-1	8.542506E-1	9.064166E-1	8.615830E-1	8.901504E-1	8.884391E-1	9.322612E-1	8.716720E-1	8.715407E-1	8.919226E-1	8.950665E-1	8.979539E-1	8.735952E-1	8.790349E-1	8.889983E-1	8.441534E-1	9.092719E-1	9.252011E-1	9.607944E-1	8.519327E-1	8.564152E-1	8.588604E-1	9.105226E-1	8.760719E-1	8.476190E-1	8.286337E-1	9.334868E-1	8.536642E-1	8.656536E-1	8.860435E-1	8.899972E-1	9.570303E-1	9.172734E-1	9.048608E-1	9.085464E-1	8.902224E-1	9.259461E-1	8.470478E-1	8.852662E-1	8.496754E-1	8.350563E-1	8.985087E-1	9.308350E-1	8.387585E-1	8.836796E-1	8.133626E-1	9.425564E-1	8.972526E-1	9.193991E-1	8.852511E-1	9.435819E-1	8.634614E-1	8.541891E-1	8.501767E-1	9.482716E-1	9.044922E-1
