Photon Energy (eV)	#1	#2	#3	#4	#5	#6	#7	#8	#9	#10	#11	#12	#13	#14	#15	#16	#17	#18	#19	#20	#21	#22	#23	#24	#25	#26	#27	#28	#29	#30	#31	#32	#33	#34	#35	#36	#37	#38	#39	#40	#41	#42	#43	#44	#45	#46	#47	#48	#49	#50	#51	#52	#53	#54	#55	#56	#57	#58	#59	#60	#61	#62	#63	#64	#65	#66	#67	#68	#69	#70	#71	#72	#73	#74	#75	#76	#77	#78	#79	#80	#81	#82	#83	#84	#85	#86	#87	#88	#89	#90	#91	#92	#93	#94	#95	#96	#97	#98	#99	#100	#101	#102	#103	#104	#105	#106	#107	#108	#109	#110	#111	#112	#113	#114	#115	#116	#117	#118	#119	#120	#121	#122	#123	#124	#125	#126	#127	#128	#129	#130	#131	#132	#133	#134	#135	#136	#137	#138	#139	#140	#141	#142	#143	#144	#145	#146	#147	#148	#149	#150	#151	#152	#153	#154	#155	#156	#157	#158	#159	#160	#161	#162	#163	#164	#165	#166	#167	#168	#169	#170	#171	
2.790030E+2	4.319098E-3	-2.460100E-3	-1.325228E-2	3.820263E-4	2.058591E-3	-8.352880E-3	-4.922496E-3	-7.163019E-3	-1.839006E-3	9.636992E-4	-4.910422E-3	-9.334591E-3	-1.043417E-2	-8.088311E-3	-9.619692E-3	-1.555030E-3	-6.360093E-4	3.491234E-3	-9.581820E-4	-1.030848E-2	-1.073013E-2	1.297800E-3	-1.701570E-3	5.563221E-4	-1.374451E-2	-3.285055E-3	-8.210005E-3	-1.003082E-2	-9.210493E-3	-4.573656E-3	2.419376E-3	6.125015E-3	5.548245E-4	3.062919E-3	-1.741015E-2	-7.739539E-3	-1.113693E-2	-7.752722E-3	-7.007096E-3	6.460730E-3	1.479070E-2	-5.996789E-3	-4.302749E-3	-2.253729E-3	-6.202794E-3	-2.478380E-3	2.723997E-3	-5.582374E-3	-7.872118E-3	-2.778839E-3	-2.088155E-3	1.825559E-3	-1.816309E-2	-5.232279E-3	-2.253498E-4	-4.130016E-3	-4.862110E-3	-1.079032E-2	1.047099E-3	-9.975645E-3	5.092116E-4	-6.192062E-4	7.761615E-4	-6.068207E-4	-8.292547E-3	4.054544E-3	1.518904E-3	-1.062248E-3	-8.097648E-3	-4.129938E-3	-8.011423E-3	-8.780633E-3	-9.647709E-3	-7.617991E-4	-1.888360E-2	3.234018E-3	8.523737E-4	2.578498E-3	-3.364724E-3	-3.942441E-3	-3.999396E-3	-8.186480E-3	-4.419676E-3	6.916539E-3	-6.926263E-3	-5.480238E-3	1.812673E-3	-3.962000E-3	-1.447327E-2	6.171546E-3	-2.779784E-3	2.451383E-4	-2.300990E-3	-4.312434E-3	-2.691787E-3	7.566380E-4	8.460646E-3	-7.438355E-3	-1.662575E-3	-7.910157E-3	1.428432E-3	9.580782E-3	-3.195800E-4	-8.341385E-4	2.618603E-3	5.687080E-3	-3.087033E-3	3.607057E-3	4.030465E-3	-1.279463E-3	5.343920E-3	-7.773771E-3	-2.757651E-3	-2.770821E-3	1.051068E-3	-1.980590E-2	-7.297914E-3	-2.302461E-2	5.889031E-3	7.428976E-3	1.708083E-3	-1.415869E-3	-5.649893E-3	4.448157E-3	-7.802606E-3	-1.788828E-3	-7.094235E-3	-5.461153E-3	-1.453112E-2	4.213341E-3	-5.298207E-3	-6.329998E-3	6.316097E-4	-1.232156E-2	-6.236292E-4	-1.129333E-2	5.134989E-3	-1.839059E-2	-8.278043E-3	-1.545121E-2	1.368985E-3	-1.169305E-2	1.138678E-2	-1.175133E-2	-1.182990E-2	-4.485362E-3	1.156208E-3	5.567372E-3	5.973108E-3	1.100208E-3	-1.019299E-2	-5.838588E-3	-2.745589E-3	-1.396421E-3	2.094474E-3	-1.576118E-2	3.774171E-3	-1.133429E-3	-9.756700E-3	2.072222E-3	-5.589849E-3	-6.030100E-3	6.878404E-3	-5.904964E-3	-1.232083E-2	-1.565010E-3	-1.944011E-2	-7.266507E-3	-8.694416E-3	2.703420E-3	1.080929E-3
2.795020E+2	-7.952439E-3	-5.835906E-3	4.203666E-3	-8.870735E-3	1.962475E-4	-7.775526E-3	-7.911478E-3	3.741509E-3	5.701018E-4	1.384178E-3	-1.362133E-3	-6.227435E-3	-9.153442E-3	-3.514052E-3	-7.492032E-3	-8.536493E-3	-1.208387E-2	-6.376967E-3	3.840484E-3	-7.416979E-3	3.576446E-3	-4.054896E-3	6.295665E-4	-4.258655E-3	-6.171917E-3	-6.214722E-3	-1.680463E-5	-1.870014E-3	3.731569E-3	-5.190474E-3	5.766453E-4	-3.060576E-3	-9.392542E-5	-7.216021E-3	1.819153E-3	-2.498209E-3	7.318466E-3	-2.938669E-3	1.705723E-3	-9.021460E-3	-1.002403E-2	-1.006467E-2	-6.063838E-3	-5.443172E-3	1.362006E-3	5.195719E-3	-7.367361E-3	-1.011290E-2	1.436333E-2	-8.005689E-4	-3.994078E-3	4.400105E-3	-9.015163E-3	-5.948170E-3	-4.497451E-3	-1.781183E-3	2.764674E-3	-4.287369E-3	-8.745965E-3	-5.717660E-3	-1.323797E-3	-1.356211E-4	2.068758E-3	-2.923819E-4	-7.624836E-3	-1.478078E-2	-7.341699E-3	-4.161653E-3	5.499986E-3	-1.209545E-4	-1.430699E-2	-4.608165E-3	4.461847E-3	-1.486565E-2	-6.802906E-3	-3.939881E-3	-5.032691E-3	3.886193E-3	2.393741E-3	-6.712011E-3	5.166252E-3	-1.682668E-2	5.676399E-3	-7.282201E-3	-1.325460E-2	-1.324104E-2	-2.286473E-3	9.654208E-3	8.742725E-6	-8.286791E-3	8.872627E-5	-2.992310E-3	-5.200198E-3	2.858091E-4	-8.762583E-3	-2.138445E-3	-1.360740E-2	-7.999577E-3	-9.632560E-3	-7.421669E-3	4.598536E-3	-7.374181E-3	1.040840E-4	5.913617E-3	-7.987775E-3	-1.557331E-2	-1.725747E-4	6.519840E-3	-4.317066E-3	3.225983E-3	-4.289465E-3	-8.403267E-3	3.084710E-3	-4.680360E-3	-2.726873E-3	6.340280E-3	-7.929748E-3	-2.023249E-3	-3.583736E-3	-2.003998E-3	-1.043363E-2	-7.512924E-3	2.545551E-3	6.262560E-3	2.741524E-3	-2.526265E-3	-9.798685E-3	3.031100E-3	-3.861383E-3	4.653224E-3	-1.094631E-2	8.370894E-4	-9.546055E-3	-4.277505E-3	3.272950E-3	1.319144E-4	-3.532338E-3	2.166927E-3	1.669158E-3	-1.338363E-2	-9.302680E-3	8.579278E-4	-6.821417E-3	-4.544312E-3	3.135574E-4	-1.611458E-3	1.587308E-3	1.117319E-2	-9.953348E-3	-2.072610E-2	-4.244891E-3	-1.007274E-2	-9.605917E-3	5.018108E-3	-2.975357E-3	6.518187E-3	-8.961558E-3	3.383915E-3	3.286255E-4	-3.882069E-3	-8.477570E-3	-1.055787E-2	-2.727860E-3	-7.683598E-3	-5.237829E-4	-6.800788E-3	3.891219E-5	-1.485001E-2	-1.301402E-2	2.252431E-2	-2.574087E-2
2.800030E+2	2.033165E-3	-3.232358E-3	-5.679765E-3	7.306066E-4	-1.074736E-2	5.464242E-3	-3.521540E-3	-4.519457E-3	5.582572E-3	1.191724E-3	-1.554400E-2	6.055663E-3	-8.349673E-3	4.518559E-3	4.271550E-3	1.113851E-2	5.957432E-3	1.194022E-3	1.521135E-3	-7.563423E-3	-8.822429E-3	2.685515E-3	-6.698155E-3	-6.439787E-3	-9.329928E-3	-6.372657E-3	-7.760106E-3	-1.435490E-2	-2.646937E-3	-1.296364E-2	-8.336114E-3	-1.157365E-3	-8.053005E-3	-7.348083E-3	1.646164E-3	-3.298693E-4	-3.654675E-3	-4.167872E-3	2.693918E-3	-1.138898E-2	-1.112123E-2	4.215420E-3	7.292457E-3	-4.349815E-3	-2.877276E-3	-5.281396E-3	1.811741E-3	6.268472E-3	-3.830963E-3	3.089879E-4	-8.776022E-3	-1.155450E-3	-3.840726E-3	-1.206278E-2	-4.654320E-3	2.089313E-3	2.424146E-4	-1.138570E-2	-1.565108E-2	2.516791E-3	-5.824029E-3	-3.756038E-3	-1.123573E-2	-4.486681E-3	-9.028148E-3	-7.934612E-3	-6.321855E-3	5.106415E-3	-1.249951E-2	-6.073742E-3	-2.188542E-3	2.344621E-3	-6.175371E-3	5.248813E-3	6.809851E-3	-2.458990E-4	-7.214144E-3	-1.467473E-2	-9.681408E-3	-1.207768E-2	-2.638998E-3	7.057934E-3	-5.153446E-4	-6.296864E-3	6.620616E-3	1.812197E-3	-2.446030E-3	-4.744225E-3	-5.472448E-3	-9.642149E-3	-7.308307E-3	-1.899606E-3	-8.604090E-3	1.191668E-3	-3.373925E-4	-1.237165E-3	-1.865999E-3	-4.439275E-3	-1.339141E-2	-7.591073E-3	-1.310612E-2	4.987910E-4	4.415253E-3	-6.116115E-3	4.768014E-3	-1.399143E-3	8.650193E-4	-1.356005E-2	-1.085898E-2	-1.087697E-3	-5.530273E-3	6.148755E-4	-4.912210E-3	1.389953E-3	-1.010953E-2	1.937928E-2	3.524981E-3	-2.198330E-3	-1.107171E-2	2.344013E-4	-1.509989E-3	-6.312831E-3	-1.030716E-2	-3.461239E-3	-1.063750E-2	6.513296E-4	4.283979E-3	-5.224740E-3	-7.764277E-3	-1.048487E-2	-1.104010E-3	6.234843E-3	-1.118435E-3	-8.092605E-3	1.882855E-3	2.140458E-3	7.613396E-4	-7.832648E-3	-2.483406E-3	1.098142E-2	4.350687E-4	1.762685E-3	1.002122E-3	-4.691842E-3	-1.139476E-2	1.205740E-2	-1.328263E-2	-6.918180E-3	-6.077199E-3	-8.018135E-3	-7.601864E-5	-6.599369E-3	2.675575E-3	-1.570798E-2	-9.501387E-3	-2.506266E-3	-6.937645E-3	-6.203641E-3	4.018735E-3	6.454345E-5	1.534091E-3	-5.662552E-3	-1.028684E-2	2.220065E-3	1.235524E-3	-8.074791E-3	-8.856787E-3	1.529199E-3	-9.445553E-3	4.669981E-3	-2.584751E-2
2.805050E+2	-4.313122E-3	-3.237781E-3	-1.481687E-3	-5.345548E-3	2.009102E-3	-1.825803E-3	4.534651E-3	5.859429E-3	4.636814E-3	-1.282997E-2	-3.951884E-4	-3.898823E-3	1.822604E-3	-4.273135E-3	-3.027787E-3	-1.333570E-3	-4.456596E-4	-9.124352E-3	-6.444529E-4	-5.877256E-4	-4.381523E-3	-4.160270E-3	-5.647949E-4	-5.371520E-3	-2.240614E-3	-4.720300E-4	7.433323E-3	1.530107E-2	-7.759346E-3	-4.194492E-3	4.054799E-4	5.122259E-3	2.095782E-3	9.104263E-4	-2.962484E-3	-1.180587E-2	9.064492E-4	2.306419E-3	-3.038991E-3	-1.709925E-4	1.165027E-2	-5.164537E-4	-1.623042E-3	-9.310522E-3	2.386145E-4	2.029233E-3	7.082361E-3	-1.118758E-2	-7.351466E-3	-1.246225E-2	-1.220827E-2	-5.435383E-3	-6.523060E-4	-1.086721E-2	-6.963680E-3	-4.941075E-3	7.272857E-3	1.222185E-2	1.309932E-3	1.386442E-3	-1.119548E-2	-4.849987E-3	-1.040441E-4	-3.467865E-3	6.155682E-3	-7.868988E-3	1.108346E-2	3.926005E-3	1.286788E-2	9.102825E-4	5.599934E-3	2.351513E-3	-4.081193E-3	-1.331110E-3	6.296887E-4	-1.298717E-2	5.046672E-3	4.832239E-3	-3.188456E-3	1.095617E-2	-2.636739E-3	1.351853E-3	-8.901894E-3	-6.295625E-3	-6.689556E-3	6.641401E-4	-5.706899E-3	-4.743256E-3	4.104705E-3	2.689525E-3	5.920353E-3	-1.187650E-2	5.520299E-3	-2.982898E-3	7.251205E-4	-4.409794E-3	2.066989E-3	-4.429649E-3	4.830957E-3	-1.867940E-4	5.470807E-4	2.773782E-3	-2.289580E-3	-7.410637E-4	-1.243598E-2	-1.404135E-3	3.281660E-3	-6.115634E-3	-2.038393E-4	-1.091152E-3	8.651318E-3	6.104857E-4	5.483064E-3	-1.849171E-2	-1.503535E-3	-7.131031E-3	6.680441E-3	1.342251E-3	1.128894E-3	-1.544236E-2	1.323040E-2	5.679309E-3	-7.792210E-3	4.662347E-3	-2.919910E-3	-4.747349E-4	-6.884858E-3	-3.205761E-3	1.085942E-2	4.444640E-3	-4.856543E-3	-8.243693E-3	-2.062697E-3	5.317621E-3	-1.352783E-2	-3.074751E-5	2.973139E-3	-1.344967E-2	-3.828663E-3	1.931200E-3	6.345487E-3	-1.538398E-3	-1.494990E-2	-4.704441E-3	-7.948102E-3	5.129666E-3	3.871141E-3	-5.542483E-4	1.915471E-3	3.590848E-3	-5.465339E-3	7.756087E-3	-3.528433E-3	3.555637E-3	4.903781E-5	7.528545E-3	3.817898E-3	-5.168793E-3	1.145254E-3	-1.996005E-3	2.640311E-3	-9.467103E-3	-7.843485E-3	-1.006504E-2	-1.862247E-2	7.707791E-3	6.033693E-3	1.112854E-2	-2.092744E-3	-1.210815E-3	1.273301E-2
2.810050E+2	-3.274094E-3	9.823922E-3	2.633823E-3	1.772214E-3	8.815882E-4	2.332326E-3	-1.090609E-3	3.338735E-3	-5.902768E-3	2.474094E-3	8.172215E-3	-1.638094E-3	2.537202E-3	-3.484559E-4	1.371661E-3	-4.680030E-3	-1.710615E-3	-4.916619E-4	-7.601731E-4	2.650796E-3	3.189499E-3	-8.832344E-3	-7.788088E-3	5.131383E-4	7.541002E-3	2.282583E-3	6.925606E-4	-1.012733E-3	1.060437E-2	-7.332568E-4	-1.759104E-3	-2.378360E-3	-2.582765E-3	1.142468E-2	-1.995851E-3	-5.161698E-4	4.235871E-3	3.103247E-4	-2.080955E-3	-8.228115E-3	1.534533E-3	1.173660E-2	2.651985E-3	1.577694E-3	-4.076557E-3	-6.922722E-3	1.667720E-3	-1.038233E-2	1.960104E-3	1.400156E-2	-8.763729E-4	1.869055E-3	8.604317E-3	1.151882E-2	-4.890537E-3	-2.145423E-3	-7.001521E-3	1.203224E-4	6.683600E-3	4.718842E-3	5.515728E-4	-7.389851E-3	-4.340381E-3	-5.674453E-3	-1.669461E-3	8.330041E-3	-6.436093E-3	-2.184885E-3	-2.348723E-3	6.697004E-4	8.626793E-3	-2.630202E-4	-1.171631E-3	1.447042E-2	5.305665E-3	-5.457524E-3	7.845472E-3	-5.065385E-4	-1.258826E-3	-2.860741E-3	-5.011635E-3	-4.564018E-3	-9.099350E-3	8.968525E-3	3.544048E-3	-1.911839E-3	7.078587E-3	3.145815E-3	1.751292E-3	-1.233520E-3	5.647771E-3	6.551946E-3	9.418052E-4	3.131783E-3	-6.941765E-3	6.447231E-4	-9.953670E-3	-3.398495E-3	-6.276176E-3	6.916077E-3	-3.534952E-3	-7.679810E-3	-8.033989E-3	-6.321871E-3	3.436383E-3	5.473198E-3	-2.999716E-3	1.098732E-2	-5.724753E-3	7.660885E-4	-5.730031E-3	-3.662142E-3	-1.243797E-3	9.791901E-3	1.111245E-2	-8.533959E-3	1.166752E-2	5.804458E-3	6.972100E-3	1.169968E-3	5.821426E-4	-1.265722E-3	-5.468211E-3	-1.721506E-2	1.938487E-4	-1.175314E-2	1.009821E-2	-4.403549E-3	6.850965E-3	1.728737E-3	2.387594E-3	5.968649E-3	6.251851E-3	-5.856589E-3	1.102215E-2	-1.307424E-3	5.323599E-4	1.833900E-2	1.694823E-2	2.970818E-3	1.297180E-2	-2.867358E-3	-1.846950E-2	5.856859E-4	5.617878E-3	-4.248767E-3	7.691625E-5	-1.092046E-2	-2.969712E-4	6.811795E-3	-4.511301E-3	-5.613441E-3	4.030813E-4	-6.313589E-3	4.087345E-3	-9.010861E-3	-3.919852E-3	-5.354768E-3	2.886996E-3	8.552675E-4	9.139939E-3	2.864496E-3	3.071802E-3	1.860139E-2	-2.698490E-3	-8.268905E-3	8.376919E-4	-9.664055E-3	-4.861310E-4	4.415426E-3	-6.746226E-3
2.815000E+2	-8.579395E-4	-3.194063E-3	-1.623252E-3	4.050939E-3	-2.420764E-4	-4.679562E-3	-6.871108E-3	3.234758E-3	-5.983188E-3	-7.053592E-3	-5.480459E-4	6.898839E-3	6.140343E-4	-3.949638E-4	2.190967E-3	-7.861084E-3	3.254517E-4	7.053892E-3	-4.010885E-3	1.063786E-2	-4.697394E-3	-5.902586E-3	-8.791180E-3	7.541868E-3	6.452604E-3	-9.743328E-3	4.935533E-3	-6.013192E-3	7.427401E-3	-1.205493E-3	-2.795990E-3	-9.619778E-3	6.254864E-3	-6.458337E-3	-4.228617E-3	6.268493E-3	-2.985572E-4	-4.541437E-3	1.644025E-3	7.266743E-3	-4.394300E-3	-5.295903E-3	1.658890E-3	6.422529E-3	6.008005E-3	3.259062E-3	-4.062443E-4	5.940870E-3	-8.843620E-3	-1.097354E-2	9.441402E-3	-1.318952E-2	5.365723E-3	8.534326E-3	1.014487E-2	9.770556E-3	-8.207734E-3	3.479456E-3	-2.333327E-5	9.325220E-3	4.680941E-4	1.052287E-3	-2.338075E-3	-7.113801E-4	9.562704E-3	-1.143846E-4	3.295762E-4	-3.437154E-3	-8.008197E-3	-2.885406E-3	6.307943E-3	-2.700505E-3	1.015485E-2	-8.324385E-3	-7.273729E-3	-4.784947E-4	-3.401807E-3	-3.641641E-3	1.261668E-2	1.221398E-3	1.399274E-3	1.016314E-3	6.285019E-3	3.368841E-3	1.574043E-3	1.074254E-2	-1.246414E-2	2.056141E-3	3.774913E-3	8.400945E-3	-4.202768E-4	6.449285E-3	-2.281088E-4	-2.224830E-3	-2.763251E-3	9.999458E-3	1.730964E-3	3.827631E-3	1.054362E-2	-1.038537E-2	6.082221E-3	-7.747472E-3	4.101230E-3	8.274941E-6	-6.269176E-3	-1.721142E-3	-3.081190E-3	-2.210054E-4	-5.085332E-4	-2.402333E-3	-3.635343E-3	1.038659E-2	-2.628551E-3	5.989208E-3	-1.042598E-2	-7.422455E-3	3.200442E-3	3.344748E-3	-7.675178E-3	-2.516117E-3	-6.232359E-3	-7.937529E-3	7.011975E-3	-7.845499E-3	-2.064942E-3	2.532013E-3	6.975366E-3	5.567168E-3	-1.898736E-3	-8.368494E-4	1.058292E-3	3.447797E-4	2.414595E-3	-4.719874E-3	2.676994E-3	-4.598771E-3	-3.956100E-3	-8.153599E-3	-4.130296E-3	9.259794E-3	-2.786886E-3	9.003180E-3	5.279050E-3	4.879671E-3	3.233784E-3	-2.031716E-3	-2.449414E-3	2.950318E-3	-4.338654E-3	4.404807E-3	-5.653269E-3	1.450414E-3	7.513912E-3	1.393440E-2	-2.128205E-4	5.900251E-3	-1.361257E-2	-7.496584E-3	2.839886E-3	-3.291412E-3	2.338866E-3	1.776330E-2	-6.772775E-3	-3.658539E-3	1.042815E-2	6.239365E-4	1.434165E-2	1.755825E-2	-4.216532E-3	-1.307925E-2	-6.793487E-3
2.820040E+2	-3.141340E-3	-6.231915E-4	1.249168E-2	5.489091E-3	5.882298E-3	1.138600E-2	3.645535E-3	-1.138781E-2	-3.700610E-3	-4.684841E-3	1.273282E-2	5.968413E-3	1.012863E-2	9.434123E-3	1.534627E-2	5.925552E-3	1.019830E-2	2.734926E-3	3.779329E-3	6.327490E-3	1.314381E-2	1.194749E-2	1.505648E-2	3.755314E-3	-4.298091E-3	3.697525E-3	9.471848E-4	6.567928E-3	4.985791E-4	1.392941E-2	5.256168E-3	-1.098482E-3	-2.426523E-3	4.438905E-3	1.217771E-2	6.602271E-3	-1.823492E-3	4.473515E-3	4.238307E-3	-2.475977E-3	-2.188906E-3	7.972921E-3	4.172744E-3	5.478166E-3	9.423106E-3	-1.214361E-3	1.019804E-2	1.207043E-2	9.416495E-3	2.999733E-3	1.333313E-2	6.400949E-3	4.638868E-3	7.050620E-3	-8.121158E-4	-1.921122E-3	-3.285182E-3	3.396931E-3	1.055303E-2	1.080855E-2	1.895946E-3	5.751943E-3	7.692801E-6	1.067815E-2	9.900953E-3	-2.319318E-3	6.910404E-4	-1.140903E-2	8.186445E-3	-2.693698E-3	1.258495E-2	-1.242498E-3	6.379058E-3	-1.049251E-3	-3.092155E-3	7.419344E-3	-5.547244E-5	-9.443971E-3	-4.178613E-3	-5.818132E-3	3.879346E-3	8.045079E-3	1.140204E-2	-5.220490E-3	1.898015E-2	-1.728466E-3	6.216969E-3	7.404449E-3	7.258083E-3	-7.176668E-3	2.262316E-3	7.983341E-3	-1.046618E-3	2.280888E-3	3.902200E-3	1.034139E-2	6.797657E-4	1.511468E-2	-6.870239E-5	1.702575E-2	-5.305035E-3	2.717079E-3	-5.662012E-3	8.899466E-3	1.547502E-2	4.498797E-3	-5.246780E-3	-6.164252E-3	2.961762E-3	8.206792E-3	-1.116033E-4	6.670985E-3	1.319944E-2	9.985757E-3	1.133105E-2	2.234391E-5	-3.870034E-3	1.281751E-3	3.519123E-3	7.366178E-3	-3.504074E-4	1.604530E-2	8.594309E-3	-2.197871E-3	1.687508E-2	1.058983E-2	2.236700E-3	4.863299E-3	2.095684E-3	-1.054447E-2	2.120457E-2	-2.721094E-3	-1.115264E-3	1.256813E-2	-2.922768E-3	5.342972E-3	-3.710993E-3	1.021253E-2	1.192755E-2	4.440750E-3	-5.487364E-3	-3.760882E-3	1.130874E-2	9.581700E-3	1.390305E-2	-6.409158E-3	1.128113E-2	-9.541384E-3	9.107510E-4	4.702848E-3	1.077773E-2	1.127636E-2	3.689262E-3	-3.731956E-3	4.304621E-3	2.430539E-3	1.347374E-2	9.436125E-3	1.195834E-3	5.147578E-3	-1.201970E-2	5.388126E-4	2.427549E-2	2.153388E-3	3.203623E-3	2.016440E-3	4.782287E-3	2.858188E-3	1.440486E-2	-7.093302E-3	3.852829E-2
2.825030E+2	1.318667E-2	8.759477E-3	2.707814E-3	1.791407E-3	-3.839102E-5	3.451198E-3	1.613704E-2	6.895854E-3	6.636083E-3	1.855471E-2	1.854754E-3	2.176028E-3	1.283482E-2	2.666235E-3	-3.040933E-3	6.902149E-3	-1.605025E-3	1.518908E-3	-2.767256E-3	6.260458E-3	8.721715E-3	7.019292E-3	9.857740E-3	3.703319E-3	2.179146E-2	2.010768E-2	1.978314E-3	1.141266E-2	-2.645147E-3	1.493160E-2	4.233539E-3	6.067288E-3	4.250747E-3	1.185510E-3	1.095407E-2	1.001889E-2	4.452868E-3	1.231044E-2	1.845069E-3	1.755805E-2	-2.470417E-4	-2.051126E-3	-3.786448E-3	7.878849E-3	-3.875105E-3	5.412846E-3	-1.571025E-2	1.298542E-2	2.158240E-3	9.704921E-3	5.168368E-3	5.284684E-3	1.306238E-2	7.006675E-3	1.189858E-2	3.058950E-3	1.307660E-2	7.244826E-3	4.826724E-3	-1.306255E-2	1.491848E-2	9.946472E-3	1.516562E-2	4.561435E-3	9.956545E-4	2.063350E-2	6.476660E-3	1.322255E-2	4.399767E-3	1.432376E-2	-8.612664E-3	1.289869E-2	8.014635E-5	6.612964E-3	2.330719E-2	1.245561E-2	1.959596E-3	1.696995E-2	6.661603E-3	1.923344E-2	3.841895E-3	1.210599E-2	-4.271960E-4	5.841275E-3	-3.848444E-3	9.142708E-3	7.795316E-3	-8.811132E-3	3.047980E-3	9.077112E-3	-3.410797E-3	-4.461295E-3	1.091790E-2	2.630014E-3	1.686946E-2	-1.395680E-2	1.248871E-2	8.763035E-3	1.565685E-2	9.553236E-3	9.289835E-3	7.231030E-3	7.684593E-3	-8.081688E-4	3.949155E-4	4.438653E-3	1.044061E-2	4.946729E-3	1.462094E-2	-6.338219E-3	5.301478E-3	1.556239E-3	-1.022500E-2	-1.213928E-3	1.271358E-3	1.715143E-2	-5.975687E-3	1.547298E-2	4.821473E-3	3.762955E-3	3.005761E-3	2.720264E-3	1.106564E-2	1.534660E-2	3.614508E-3	2.769802E-3	1.835263E-4	4.833637E-3	8.249438E-3	6.826247E-3	-2.445382E-3	3.909424E-3	4.544395E-3	1.738237E-2	-1.780719E-3	9.614931E-3	1.797604E-3	1.710805E-2	-1.182453E-2	-7.491314E-4	-3.544406E-3	8.235896E-3	1.126413E-2	1.064486E-2	8.104491E-3	1.599397E-3	-2.240663E-3	8.243397E-3	1.186684E-2	8.133730E-3	1.936608E-2	7.641282E-3	1.598109E-3	4.641800E-3	2.154086E-3	4.900786E-3	1.236582E-2	1.253718E-2	-2.658631E-3	1.029876E-3	1.043391E-2	1.055102E-2	-6.594739E-3	4.337297E-3	1.929828E-2	1.436133E-2	2.262667E-3	-1.293601E-3	2.354454E-2	-1.292977E-2	1.278587E-2
2.830040E+2	3.348741E-3	5.465361E-3	1.271274E-2	3.237699E-3	-4.704224E-3	1.066241E-2	1.763112E-2	7.179469E-3	-4.060956E-4	1.467119E-2	8.658490E-3	6.184878E-3	2.963161E-3	5.799294E-3	9.207096E-3	6.158619E-3	3.080454E-2	1.805330E-2	1.594623E-2	-4.499870E-4	9.072423E-3	5.358741E-3	1.636843E-2	1.628462E-2	4.994533E-3	6.123459E-3	1.311515E-2	1.172192E-2	1.420331E-2	1.525150E-2	2.589089E-3	1.363182E-2	3.599115E-2	1.109375E-2	-7.312399E-3	1.376576E-2	1.199327E-2	6.497234E-3	6.782475E-3	1.005694E-2	1.790918E-2	-3.817655E-3	6.640319E-3	2.676639E-2	9.696944E-3	1.336300E-2	9.407729E-3	5.519158E-3	3.638972E-3	7.756468E-3	5.459582E-3	3.368872E-3	1.766738E-2	9.250871E-3	-6.094107E-4	5.354250E-3	2.772114E-3	1.051163E-2	2.446041E-2	2.184719E-2	3.200883E-3	1.344936E-2	7.347098E-3	1.195214E-2	1.140273E-2	7.576107E-3	1.139702E-2	1.729824E-3	1.317391E-2	1.084652E-2	6.344162E-4	7.274467E-3	-8.070694E-3	8.001919E-3	1.739765E-2	2.044614E-2	6.334505E-3	1.072634E-2	5.884317E-3	1.539321E-2	1.943393E-2	2.187001E-2	-1.375386E-3	1.279857E-2	1.552178E-2	-3.630454E-3	4.787083E-3	2.606005E-3	1.402961E-2	7.401729E-3	9.018900E-3	1.451001E-2	2.495184E-3	9.805510E-3	7.526378E-3	6.381332E-3	8.834157E-3	1.427244E-2	2.100649E-2	9.925992E-3	3.735139E-3	5.621917E-3	-7.369247E-4	2.329428E-2	8.312663E-3	2.168917E-2	1.474651E-2	1.148220E-2	3.071977E-5	9.417605E-3	1.337229E-2	1.409182E-2	1.740430E-2	1.355153E-2	5.097965E-3	5.630723E-3	2.773391E-3	1.286857E-2	1.862433E-2	7.764102E-3	2.267416E-2	1.125695E-2	1.798002E-2	1.163454E-2	1.828149E-2	1.214801E-2	1.382808E-2	1.064287E-3	2.732698E-2	1.703496E-2	1.154253E-2	1.984915E-2	1.815598E-2	5.491740E-3	8.006412E-3	1.969009E-2	4.301093E-3	-2.151787E-3	1.882083E-2	5.972970E-3	8.590311E-3	3.085094E-3	1.621598E-2	1.319535E-2	7.276633E-3	7.611238E-3	-7.537685E-4	1.364763E-2	1.221632E-2	1.437204E-3	2.359961E-3	5.524471E-3	1.741278E-2	2.538329E-3	1.417834E-2	1.655451E-2	1.487510E-2	3.074659E-2	1.881326E-2	2.340075E-3	1.639938E-2	-1.186722E-2	2.213399E-2	1.918608E-2	7.277360E-3	1.243465E-2	1.379474E-2	1.693445E-2	1.659754E-2	5.193460E-2	-1.278471E-2
2.835020E+2	3.287807E-2	2.340787E-2	5.937938E-2	1.663998E-2	2.242208E-2	3.121437E-2	3.194785E-2	2.952201E-2	3.471777E-2	1.059499E-2	1.881821E-2	1.882359E-2	1.916060E-2	3.441666E-2	1.708197E-2	9.316895E-3	2.138480E-2	3.968079E-3	3.163849E-2	1.750345E-3	2.745355E-2	2.351755E-2	3.254362E-2	2.496769E-2	2.579937E-2	2.641086E-2	2.321812E-2	1.921841E-2	3.884474E-2	2.540304E-2	1.871138E-2	4.348860E-3	2.154141E-2	1.998851E-2	7.725603E-3	3.044362E-2	2.350174E-2	2.207679E-2	2.706118E-2	1.241367E-2	1.820611E-2	3.203081E-2	3.092501E-2	2.578502E-2	1.620479E-2	8.753410E-3	3.190645E-2	1.059442E-2	1.703883E-2	1.938502E-2	1.139931E-2	1.653961E-2	5.206418E-4	1.248589E-2	2.787282E-2	1.886036E-2	3.269463E-2	2.284087E-2	3.176246E-2	1.723170E-2	2.666450E-2	2.560263E-2	1.262681E-2	1.939773E-2	8.712330E-3	1.007538E-2	1.377924E-2	2.568937E-2	1.051611E-2	2.966261E-2	2.596483E-2	2.905588E-2	1.855576E-2	2.488960E-2	1.369519E-2	1.659745E-2	2.952194E-2	2.442847E-2	1.263818E-2	2.961508E-2	2.756636E-2	1.051003E-2	3.049480E-2	2.426465E-2	9.980513E-3	2.324260E-4	2.737463E-2	3.284243E-2	2.737068E-2	1.898706E-2	3.019753E-2	2.727922E-2	1.805649E-2	2.112945E-2	2.078899E-2	1.727920E-2	2.213597E-2	1.768497E-2	3.862319E-2	2.144358E-2	2.483987E-2	3.119499E-2	3.947163E-2	1.161332E-2	2.729171E-2	2.831406E-2	4.491869E-2	3.311463E-2	1.858251E-2	1.862539E-2	2.590017E-2	1.854401E-2	1.873447E-2	2.405798E-2	2.862289E-2	3.307616E-2	2.120971E-2	1.957527E-2	1.791720E-2	2.265932E-2	2.653155E-2	1.398004E-2	2.232401E-2	2.829504E-2	3.886812E-2	2.887368E-2	2.472215E-2	2.287204E-2	2.009857E-2	1.984757E-2	2.941779E-2	2.243729E-2	2.237881E-2	2.385334E-2	1.578700E-2	4.892730E-2	1.800754E-2	3.690761E-2	2.203751E-2	-6.095279E-3	1.488451E-2	1.257044E-2	4.014102E-2	3.715745E-2	2.153204E-2	4.271669E-2	4.315991E-2	3.450732E-2	1.763307E-2	1.646633E-2	5.675552E-3	2.381585E-2	1.554537E-2	2.555881E-2	1.339087E-2	2.438064E-2	2.950526E-2	3.872031E-2	2.416043E-2	2.551893E-2	2.118091E-2	1.990524E-2	1.601257E-2	1.831971E-2	2.901125E-2	3.571888E-2	2.158819E-2	1.978396E-2	1.802608E-2	2.991211E-2	1.452166E-2
2.840020E+2	3.427738E-2	6.535697E-2	4.988404E-2	4.826340E-2	3.416573E-2	4.114348E-2	3.458178E-2	6.583808E-2	4.617920E-2	4.504067E-2	3.939590E-2	2.794022E-2	4.682894E-2	4.110540E-2	4.740562E-2	5.523913E-2	3.607345E-2	2.792781E-2	4.663984E-2	3.328620E-2	3.629526E-2	3.112253E-2	5.583279E-2	4.804363E-2	3.275887E-2	4.178195E-2	4.281498E-2	3.858928E-2	3.948628E-2	4.707389E-2	4.487560E-2	4.123947E-2	4.887431E-2	4.379018E-2	5.979646E-2	3.923823E-2	5.444449E-2	4.474669E-2	4.448648E-2	4.664246E-2	4.239855E-2	6.313004E-2	2.294605E-2	4.150572E-2	3.792130E-2	4.511170E-2	3.245839E-2	3.215074E-2	4.483220E-2	3.729256E-2	4.201379E-2	4.509177E-2	5.725768E-2	2.479699E-2	3.923126E-2	3.183930E-2	4.168463E-2	3.883313E-2	5.613237E-2	4.110062E-2	4.881469E-2	4.056152E-2	4.900692E-2	4.199518E-2	5.895395E-2	3.444097E-2	4.306263E-2	4.817071E-2	4.028980E-2	4.123810E-2	3.112370E-2	4.177856E-2	3.311251E-2	3.224672E-2	2.969481E-2	5.291678E-2	4.184549E-2	4.359475E-2	2.759180E-2	4.547549E-2	2.794240E-2	3.579316E-2	3.844703E-2	3.848230E-2	2.512804E-2	4.248271E-2	3.008291E-2	3.231193E-2	4.569037E-2	3.839629E-2	4.328729E-2	4.182118E-2	3.994242E-2	5.344218E-2	5.145663E-2	2.967977E-2	4.283661E-2	6.455678E-2	4.923253E-2	2.687698E-2	4.475932E-2	4.392133E-2	4.708404E-2	4.453100E-2	2.777518E-2	2.660463E-2	4.938975E-2	3.603587E-2	4.123205E-2	2.407755E-2	2.967697E-2	5.192808E-2	5.961583E-2	4.050590E-2	3.861824E-2	5.264708E-2	5.144288E-2	3.643946E-2	3.534862E-2	4.820499E-2	3.633317E-2	4.283438E-2	4.249294E-2	6.404406E-2	5.325769E-2	3.365203E-2	4.336904E-2	5.299276E-2	5.675850E-2	4.378694E-2	5.709348E-2	2.617182E-2	5.360191E-2	3.940773E-2	4.236581E-2	6.337801E-2	4.387570E-2	3.411771E-2	5.010287E-2	3.528555E-2	5.143570E-2	2.807264E-2	4.566256E-2	5.972918E-2	5.082883E-2	5.158234E-2	3.357926E-2	5.618798E-2	4.528618E-2	4.406441E-2	3.796475E-2	4.917492E-2	3.200606E-2	4.519157E-2	5.765579E-2	5.360654E-2	3.679361E-2	5.483366E-2	6.112279E-2	3.670722E-2	4.500947E-2	3.658624E-2	6.549348E-2	5.597272E-2	4.565413E-2	2.718449E-2	3.790127E-2	3.714617E-2	2.912915E-2	4.101072E-2	1.614013E-2
2.841010E+2	5.801121E-2	5.170061E-2	2.921210E-2	3.400858E-2	4.050305E-2	3.495184E-2	4.171688E-2	4.662558E-2	4.408622E-2	2.710449E-2	2.224408E-2	4.880039E-2	4.810590E-2	3.914985E-2	5.264734E-2	5.436724E-2	4.848507E-2	4.112507E-2	5.118862E-2	3.683728E-2	4.210657E-2	4.880342E-2	3.860212E-2	3.179223E-2	5.964426E-2	3.120667E-2	4.855897E-2	3.964944E-2	1.303270E-2	5.056814E-2	3.994152E-2	4.022399E-2	6.687273E-2	5.294270E-2	4.766193E-2	2.554531E-2	5.001513E-2	3.571818E-2	3.320516E-2	2.883309E-2	3.720357E-2	6.352683E-2	3.225264E-2	5.315421E-2	5.213123E-2	3.612572E-2	4.895222E-2	1.869743E-2	3.067510E-2	4.320255E-2	5.683514E-2	5.200225E-2	5.754665E-2	4.104741E-2	5.154558E-2	3.716926E-2	3.280638E-2	4.739563E-2	5.511624E-2	6.386612E-2	4.887802E-2	4.406214E-2	4.594515E-2	4.207260E-2	4.014756E-2	3.033616E-2	2.942913E-2	4.065364E-2	3.941438E-2	4.951750E-2	5.135459E-2	4.796514E-2	3.641683E-2	4.728458E-2	4.295095E-2	3.230757E-2	5.066892E-2	4.678321E-2	4.018165E-2	3.107626E-2	3.356386E-2	3.134927E-2	3.576636E-2	5.967158E-2	4.029509E-2	2.283784E-2	3.931498E-2	4.849708E-2	3.668433E-2	3.209108E-2	2.511150E-2	3.101450E-2	3.529969E-2	4.126247E-2	4.019289E-2	4.195467E-2	5.240094E-2	4.894504E-2	4.913291E-2	3.188398E-2	4.492922E-2	3.583135E-2	4.588720E-2	4.695321E-2	4.259374E-2	2.536775E-2	4.169190E-2	4.107204E-2	5.493330E-2	3.978791E-2	1.671727E-2	3.484701E-2	4.161897E-2	3.691796E-2	3.981912E-2	5.141242E-2	4.714240E-2	3.552548E-2	4.272586E-2	4.564967E-2	4.344209E-2	2.774453E-2	6.134405E-2	3.666608E-2	3.924242E-2	5.981086E-2	3.808750E-2	4.462122E-2	3.832583E-2	4.364974E-2	4.385080E-2	4.965243E-2	5.185788E-2	4.808235E-2	2.835340E-2	4.868859E-2	5.931456E-2	3.649163E-2	5.422814E-2	5.557615E-2	4.433115E-2	2.694790E-2	3.594760E-2	4.351855E-2	4.109942E-2	3.340117E-2	3.855841E-2	4.255043E-2	4.119929E-2	4.530351E-2	4.487398E-2	4.146761E-2	3.630504E-2	4.433278E-2	4.878127E-2	1.874743E-2	3.215243E-2	5.932587E-2	5.123571E-2	3.454355E-2	3.658835E-2	3.026829E-2	1.567046E-2	4.428977E-2	3.782822E-2	6.002023E-2	5.678458E-2	4.566567E-2	4.591080E-2	5.848369E-2	7.263901E-2
2.842040E+2	5.301879E-2	3.437756E-2	3.679540E-2	4.844269E-2	5.647348E-2	4.151332E-2	4.562478E-2	4.201557E-2	2.769458E-2	3.413766E-2	4.474196E-2	4.510922E-2	3.355132E-2	3.632787E-2	2.848939E-2	3.906309E-2	4.761315E-2	5.621534E-2	4.106078E-2	4.451708E-2	4.332723E-2	5.009446E-2	2.680674E-2	5.060477E-2	3.078979E-2	3.609042E-2	5.265321E-2	5.829070E-2	4.414951E-2	5.082137E-2	4.032691E-2	2.942529E-2	4.554194E-2	3.836395E-2	3.684364E-2	3.188949E-2	5.318371E-2	3.785410E-2	3.341273E-2	4.327715E-2	4.803787E-2	4.668454E-2	1.914918E-2	4.813243E-2	5.350711E-2	4.249441E-2	4.697227E-2	3.341396E-2	4.242375E-2	3.143702E-2	3.100094E-2	3.847057E-2	4.763578E-2	4.234956E-2	5.057567E-2	4.063713E-2	5.931395E-2	4.236666E-2	5.282938E-2	4.371352E-2	4.680666E-2	5.563706E-2	3.426499E-2	4.990205E-2	6.064071E-2	4.358350E-2	2.842892E-2	4.466432E-2	5.074057E-2	2.740285E-2	2.765982E-2	5.200150E-2	4.449495E-2	5.104919E-2	5.255248E-2	6.536353E-2	5.094000E-2	3.802429E-2	3.927473E-2	5.032782E-2	3.845413E-2	3.604284E-2	3.214721E-2	3.980555E-2	5.075648E-2	3.605686E-2	4.896271E-2	3.137779E-2	4.375910E-2	3.341505E-2	4.474721E-2	4.451650E-2	3.785884E-2	4.258573E-2	4.044333E-2	4.899181E-2	4.704410E-2	4.920273E-2	3.897251E-2	3.871607E-2	4.938304E-2	3.813795E-2	4.252680E-2	3.687588E-2	3.135185E-2	3.459803E-2	4.328664E-2	1.611271E-2	5.523653E-2	4.746914E-2	4.613241E-2	4.812957E-2	6.824001E-2	5.248713E-2	1.702883E-2	3.869609E-2	4.742152E-2	3.369622E-2	2.782472E-2	3.946857E-2	4.245884E-2	2.797221E-2	3.168177E-2	2.385620E-2	4.772778E-2	4.591312E-2	3.834920E-2	3.948161E-2	5.184255E-2	4.388670E-2	3.876687E-2	3.447050E-2	5.214493E-2	2.574695E-2	3.622813E-2	4.780303E-2	5.130690E-2	3.050570E-2	4.031520E-2	6.273081E-2	2.875686E-2	4.146283E-2	3.985544E-2	2.491405E-2	5.121378E-2	4.506918E-2	5.061928E-2	2.234596E-2	3.718462E-2	4.765269E-2	5.096213E-2	3.017720E-2	3.653955E-2	4.680101E-2	4.218814E-2	4.443969E-2	2.661297E-2	4.083491E-2	5.770320E-2	4.792946E-2	3.560636E-2	5.145491E-2	4.362498E-2	5.169916E-2	5.640626E-2	5.838411E-2	2.889432E-2	2.533714E-2	3.240929E-2	3.237811E-2	5.891926E-2
2.843030E+2	6.286000E-2	8.305097E-2	8.021313E-2	7.481486E-2	4.644662E-2	6.967851E-2	6.460185E-2	5.462611E-2	6.155770E-2	5.624462E-2	6.153031E-2	6.134365E-2	7.390009E-2	5.421997E-2	7.363291E-2	6.856350E-2	5.145381E-2	4.791896E-2	7.423732E-2	5.475296E-2	5.727688E-2	5.790610E-2	5.698697E-2	6.518001E-2	7.136224E-2	5.998582E-2	6.363256E-2	7.828042E-2	8.031838E-2	6.844428E-2	7.780375E-2	6.537068E-2	7.588529E-2	6.746685E-2	5.818208E-2	6.057346E-2	7.239139E-2	6.777380E-2	8.407576E-2	5.064228E-2	6.450781E-2	8.288755E-2	8.918932E-2	8.035538E-2	6.726802E-2	6.353728E-2	6.983399E-2	8.736028E-2	9.716947E-2	6.923568E-2	8.902440E-2	7.473981E-2	7.099640E-2	8.108099E-2	9.256046E-2	6.055220E-2	5.704572E-2	5.641421E-2	5.581737E-2	5.529439E-2	6.596134E-2	6.744050E-2	8.753618E-2	7.553975E-2	6.361519E-2	7.283906E-2	8.632407E-2	4.091015E-2	6.548776E-2	7.198435E-2	8.247592E-2	7.401998E-2	7.092476E-2	6.314620E-2	6.905853E-2	6.976824E-2	8.464843E-2	8.417639E-2	5.951023E-2	8.477997E-2	7.879448E-2	4.751279E-2	6.599029E-2	7.239507E-2	6.157087E-2	6.279902E-2	5.760818E-2	5.681693E-2	7.292950E-2	6.531992E-2	6.854823E-2	5.936172E-2	6.750068E-2	6.741135E-2	8.487786E-2	7.227464E-2	6.698797E-2	6.798878E-2	7.058706E-2	5.754895E-2	5.721536E-2	6.671707E-2	5.482768E-2	6.860633E-2	6.419189E-2	5.993770E-2	6.720230E-2	5.609937E-2	6.610983E-2	9.848241E-2	6.776594E-2	6.507918E-2	8.833521E-2	7.316129E-2	5.753925E-2	5.456197E-2	5.921915E-2	5.629343E-2	7.386389E-2	6.835397E-2	7.457199E-2	5.053327E-2	4.396382E-2	6.763168E-2	9.942269E-2	7.849524E-2	6.075728E-2	7.711612E-2	5.611252E-2	6.105555E-2	7.653030E-2	5.384082E-2	4.949204E-2	6.191368E-2	5.313226E-2	7.039031E-2	7.338001E-2	6.092059E-2	7.338903E-2	7.142556E-2	6.535612E-2	7.082833E-2	7.605620E-2	7.989854E-2	8.407519E-2	7.435262E-2	7.081949E-2	6.206096E-2	8.312453E-2	8.257658E-2	8.563489E-2	5.862422E-2	8.387883E-2	8.163363E-2	6.100379E-2	7.722455E-2	6.639919E-2	8.151121E-2	5.823869E-2	4.606853E-2	6.006480E-2	8.311029E-2	5.306644E-2	7.018315E-2	7.978677E-2	7.010146E-2	7.919354E-2	6.686549E-2	4.566998E-2	6.842710E-2	6.069957E-2
2.844010E+2	1.024729E-1	1.125131E-1	1.193037E-1	1.095993E-1	1.179308E-1	1.330148E-1	1.056387E-1	1.217841E-1	1.069227E-1	1.161387E-1	9.680040E-2	1.232399E-1	1.111704E-1	1.198880E-1	1.085330E-1	1.036099E-1	1.176420E-1	1.245961E-1	1.213633E-1	1.329659E-1	1.154585E-1	1.088312E-1	1.039198E-1	9.953760E-2	1.062001E-1	1.314825E-1	9.789079E-2	1.168020E-1	1.207750E-1	1.041484E-1	1.021870E-1	1.089238E-1	1.159357E-1	1.254898E-1	1.134372E-1	1.191984E-1	1.116739E-1	1.078987E-1	1.094281E-1	1.137278E-1	1.022318E-1	1.209636E-1	1.407037E-1	1.044429E-1	1.139783E-1	1.018920E-1	1.240422E-1	1.274971E-1	1.062563E-1	1.205439E-1	1.280506E-1	1.262920E-1	1.056224E-1	1.277854E-1	1.052276E-1	1.075968E-1	1.131028E-1	1.285177E-1	1.289909E-1	9.273971E-2	1.240310E-1	1.193407E-1	1.240363E-1	1.306082E-1	1.075288E-1	1.099383E-1	1.115420E-1	1.136959E-1	9.623646E-2	1.093151E-1	1.179145E-1	9.716425E-2	9.713286E-2	1.153837E-1	1.147804E-1	1.083251E-1	1.191379E-1	1.199533E-1	1.033441E-1	8.934849E-2	1.084146E-1	1.291606E-1	1.143584E-1	9.410979E-2	8.857118E-2	1.126610E-1	7.559457E-2	1.165036E-1	1.204713E-1	1.014680E-1	1.254067E-1	1.053004E-1	1.207021E-1	1.164393E-1	1.083324E-1	8.377756E-2	1.169437E-1	1.313333E-1	1.354282E-1	8.437746E-2	1.124992E-1	1.151326E-1	1.122834E-1	1.072401E-1	1.192286E-1	1.069470E-1	1.255327E-1	1.221167E-1	9.395940E-2	1.082645E-1	1.153417E-1	9.717606E-2	1.193981E-1	1.151878E-1	1.192920E-1	1.205935E-1	9.140500E-2	9.789510E-2	1.046979E-1	7.624650E-2	1.115196E-1	1.028832E-1	1.034787E-1	1.309310E-1	1.126474E-1	1.097036E-1	1.184767E-1	1.146064E-1	9.257176E-2	9.667920E-2	9.547526E-2	1.106881E-1	1.011818E-1	1.419885E-1	8.815964E-2	1.198152E-1	1.169568E-1	1.002679E-1	1.483818E-1	9.379203E-2	1.030306E-1	1.010383E-1	1.208623E-1	1.016698E-1	1.103922E-1	1.011768E-1	1.256273E-1	1.133126E-1	1.223931E-1	1.119259E-1	9.514790E-2	8.596508E-2	1.277993E-1	1.027848E-1	1.133949E-1	1.086237E-1	1.156653E-1	1.251693E-1	1.180303E-1	1.196478E-1	9.557257E-2	1.132316E-1	1.095752E-1	1.114392E-1	1.026179E-1	1.114767E-1	1.201388E-1	1.387276E-1	8.171148E-2	1.141475E-1	1.030742E-1
2.845010E+2	1.514087E-1	1.662250E-1	1.829015E-1	1.616792E-1	1.666799E-1	1.939250E-1	1.673055E-1	1.765140E-1	1.522096E-1	1.645472E-1	1.437249E-1	1.997541E-1	1.587830E-1	1.419323E-1	1.460113E-1	1.827481E-1	1.666468E-1	1.561362E-1	1.891481E-1	1.569025E-1	1.555116E-1	1.745431E-1	1.699896E-1	1.595136E-1	1.796384E-1	1.885480E-1	1.709849E-1	1.562448E-1	1.903294E-1	2.012246E-1	1.753063E-1	1.705372E-1	1.913358E-1	1.627289E-1	1.800643E-1	1.450441E-1	1.519695E-1	1.626405E-1	1.600556E-1	1.622952E-1	1.779028E-1	1.653533E-1	1.614458E-1	1.430820E-1	1.907488E-1	1.527108E-1	1.837523E-1	1.466450E-1	1.592924E-1	1.641452E-1	1.870995E-1	1.850129E-1	1.750233E-1	1.800388E-1	1.747580E-1	1.569560E-1	1.486445E-1	1.637736E-1	1.661372E-1	1.715475E-1	1.533188E-1	1.516546E-1	1.795801E-1	1.671553E-1	1.415674E-1	1.517757E-1	1.603668E-1	1.698885E-1	1.661569E-1	1.811896E-1	1.631386E-1	1.575064E-1	1.862125E-1	1.890594E-1	1.557819E-1	1.579334E-1	1.503947E-1	1.785609E-1	1.601704E-1	1.485844E-1	1.498738E-1	1.599577E-1	1.508202E-1	2.065690E-1	1.645724E-1	1.669574E-1	1.618347E-1	1.597952E-1	1.261964E-1	1.729404E-1	1.505402E-1	1.551753E-1	1.574205E-1	1.700382E-1	1.833676E-1	1.631748E-1	1.796673E-1	1.661559E-1	1.724939E-1	1.891517E-1	1.498792E-1	1.606425E-1	1.563145E-1	1.824425E-1	1.639074E-1	1.737125E-1	1.786503E-1	1.936613E-1	1.532220E-1	1.754888E-1	1.773855E-1	1.659837E-1	1.516611E-1	1.669386E-1	1.489719E-1	1.495756E-1	1.477821E-1	1.836018E-1	1.870737E-1	1.377335E-1	1.918845E-1	1.361525E-1	1.643303E-1	1.869148E-1	1.703265E-1	1.297780E-1	1.675937E-1	1.722225E-1	1.600278E-1	1.811871E-1	1.847987E-1	1.847415E-1	1.790902E-1	1.984407E-1	1.921539E-1	1.942887E-1	1.509024E-1	1.650822E-1	1.554435E-1	1.565575E-1	1.689851E-1	1.526593E-1	1.820363E-1	1.623328E-1	1.693843E-1	1.478244E-1	1.791291E-1	1.679802E-1	1.464994E-1	1.635068E-1	1.556870E-1	1.711417E-1	1.798402E-1	1.842513E-1	1.647646E-1	1.511629E-1	1.497174E-1	1.616417E-1	1.781962E-1	1.544098E-1	1.469711E-1	1.609735E-1	1.687599E-1	1.539473E-1	1.671762E-1	1.854635E-1	1.335503E-1	1.791321E-1	1.691844E-1	1.422414E-1	1.681794E-1
2.846030E+2	2.164499E-1	2.169132E-1	2.277649E-1	2.115242E-1	1.863006E-1	2.180653E-1	2.144300E-1	1.924709E-1	2.016412E-1	1.730548E-1	1.921909E-1	2.200032E-1	1.957275E-1	2.022097E-1	1.956931E-1	2.029489E-1	2.033417E-1	2.110761E-1	2.319049E-1	1.839089E-1	1.944386E-1	2.102920E-1	2.455174E-1	2.469273E-1	2.477151E-1	2.543387E-1	2.439055E-1	1.839295E-1	2.394279E-1	2.288187E-1	2.193911E-1	2.125038E-1	1.939991E-1	2.440764E-1	2.224933E-1	2.475185E-1	2.235321E-1	2.256742E-1	2.512206E-1	1.970397E-1	2.228845E-1	2.346190E-1	2.160781E-1	2.415102E-1	2.593323E-1	2.597525E-1	2.337176E-1	2.024019E-1	2.274129E-1	2.159686E-1	2.393417E-1	2.255229E-1	2.254786E-1	2.286493E-1	2.069349E-1	2.400885E-1	1.977782E-1	2.304721E-1	2.175527E-1	2.163314E-1	2.442857E-1	1.892293E-1	2.134525E-1	2.186926E-1	2.470253E-1	1.879529E-1	2.227891E-1	2.192393E-1	2.192585E-1	2.244911E-1	2.151844E-1	2.239268E-1	1.809252E-1	2.611685E-1	2.114797E-1	2.506323E-1	2.236709E-1	2.233180E-1	2.308639E-1	1.971654E-1	2.254569E-1	1.992366E-1	2.143551E-1	2.277239E-1	1.901052E-1	2.207772E-1	2.116476E-1	2.204094E-1	2.235333E-1	2.043378E-1	2.187939E-1	2.209533E-1	2.388856E-1	2.188865E-1	2.426948E-1	1.775093E-1	2.073896E-1	2.216468E-1	2.102429E-1	2.314950E-1	1.910218E-1	2.204935E-1	2.676517E-1	2.159616E-1	2.127524E-1	2.065851E-1	2.258944E-1	2.267446E-1	2.109449E-1	2.162261E-1	2.257597E-1	2.221647E-1	2.159914E-1	1.879200E-1	2.153359E-1	2.165029E-1	2.315477E-1	2.346522E-1	2.276205E-1	1.843516E-1	2.334127E-1	1.964893E-1	2.261136E-1	2.689954E-1	2.046022E-1	2.076122E-1	2.172623E-1	2.126977E-1	2.121017E-1	2.281348E-1	1.892910E-1	2.132556E-1	1.952084E-1	2.244230E-1	2.122343E-1	2.351166E-1	2.196208E-1	2.307641E-1	1.776292E-1	2.076769E-1	2.280123E-1	2.173371E-1	2.251486E-1	1.931685E-1	2.304488E-1	2.010798E-1	2.105388E-1	2.415473E-1	2.084259E-1	2.125316E-1	1.907459E-1	2.322953E-1	2.177358E-1	1.791617E-1	2.097752E-1	1.943760E-1	2.198635E-1	2.532947E-1	2.325799E-1	1.990208E-1	2.177001E-1	2.081475E-1	2.490962E-1	2.434884E-1	2.504260E-1	2.142770E-1	1.930021E-1	2.468303E-1	2.217476E-1	2.130882E-1	2.041662E-1
2.847020E+2	3.767598E-1	4.058993E-1	3.866537E-1	4.095006E-1	3.957731E-1	3.927317E-1	3.896880E-1	3.832982E-1	4.159872E-1	4.283153E-1	3.956699E-1	3.490814E-1	3.720047E-1	4.158090E-1	3.748420E-1	3.603440E-1	3.759396E-1	3.754064E-1	4.083132E-1	3.867574E-1	3.958830E-1	3.453360E-1	4.503036E-1	4.235786E-1	4.655970E-1	5.039895E-1	4.648005E-1	4.336246E-1	4.504939E-1	4.318473E-1	4.524959E-1	4.176550E-1	5.022503E-1	4.890670E-1	4.246022E-1	4.192805E-1	4.488651E-1	4.140026E-1	5.157681E-1	4.538698E-1	4.582164E-1	4.602973E-1	4.642580E-1	4.746675E-1	4.830060E-1	4.244334E-1	4.655036E-1	4.583991E-1	3.995331E-1	4.464121E-1	4.418957E-1	4.626785E-1	4.748043E-1	4.279636E-1	4.653065E-1	4.180019E-1	4.264358E-1	4.290550E-1	3.978361E-1	4.914237E-1	4.619556E-1	4.654850E-1	4.257011E-1	4.592810E-1	4.263524E-1	3.931463E-1	4.273069E-1	4.196457E-1	4.481348E-1	4.550450E-1	4.437715E-1	4.383571E-1	4.651482E-1	4.605348E-1	4.144671E-1	4.295955E-1	4.099834E-1	4.341490E-1	4.123102E-1	4.307430E-1	4.224011E-1	4.201181E-1	3.918273E-1	4.160802E-1	4.499808E-1	4.223345E-1	4.576739E-1	4.424292E-1	3.940164E-1	4.364074E-1	4.032347E-1	3.878684E-1	3.648456E-1	4.286762E-1	3.954729E-1	4.114953E-1	3.733575E-1	4.356422E-1	4.339229E-1	4.477059E-1	4.411476E-1	3.647393E-1	4.115734E-1	4.118103E-1	4.002974E-1	4.332112E-1	4.058152E-1	4.355698E-1	4.355472E-1	4.033764E-1	4.342774E-1	3.848699E-1	4.901988E-1	4.383006E-1	4.205264E-1	3.930090E-1	4.214046E-1	4.262466E-1	4.304876E-1	4.046100E-1	4.208757E-1	3.555388E-1	4.068580E-1	4.032134E-1	4.256784E-1	4.051787E-1	4.367206E-1	3.892989E-1	3.910031E-1	4.164134E-1	4.614879E-1	3.798763E-1	4.247147E-1	4.025253E-1	4.236273E-1	4.272301E-1	4.121333E-1	4.018459E-1	3.861121E-1	4.396780E-1	4.157971E-1	4.169696E-1	3.954079E-1	3.992310E-1	4.005616E-1	4.324921E-1	4.134225E-1	3.752814E-1	3.774701E-1	4.418653E-1	4.333502E-1	3.619132E-1	4.026352E-1	4.212050E-1	4.020657E-1	4.159277E-1	4.159813E-1	4.025531E-1	4.007689E-1	3.925997E-1	3.937238E-1	4.126344E-1	4.016427E-1	4.373167E-1	4.231387E-1	3.921180E-1	4.290086E-1	4.217363E-1	3.469456E-1	3.342330E-1	3.982471E-1
2.848000E+2	9.877996E-1	9.556066E-1	1.055691E+0	1.064568E+0	9.212851E-1	1.013587E+0	9.548290E-1	9.858432E-1	9.858241E-1	1.009481E+0	9.703059E-1	1.042189E+0	1.015763E+0	9.294892E-1	9.581015E-1	1.023472E+0	9.439818E-1	1.031375E+0	9.746731E-1	1.026344E+0	1.016424E+0	9.346650E-1	1.026232E+0	1.032188E+0	1.166496E+0	1.038656E+0	1.065907E+0	1.101569E+0	1.094991E+0	1.066254E+0	1.117620E+0	1.038513E+0	1.116377E+0	1.117770E+0	1.150220E+0	1.069526E+0	1.100720E+0	1.096611E+0	1.050463E+0	1.051847E+0	1.042152E+0	1.074102E+0	1.046348E+0	1.085253E+0	1.154985E+0	1.014974E+0	1.110554E+0	1.057229E+0	1.089891E+0	1.092738E+0	1.015417E+0	1.047285E+0	1.113712E+0	1.114758E+0	1.091781E+0	1.118888E+0	1.064367E+0	1.079681E+0	1.014280E+0	1.124261E+0	1.061795E+0	1.028655E+0	9.963438E-1	1.101163E+0	1.108628E+0	9.930161E-1	1.089377E+0	1.049245E+0	1.059806E+0	1.077200E+0	1.114745E+0	1.030233E+0	1.103733E+0	1.114716E+0	1.079807E+0	1.104250E+0	1.073672E+0	9.969412E-1	1.030994E+0	1.093842E+0	1.034591E+0	1.051958E+0	1.020064E+0	1.053580E+0	1.039133E+0	1.057390E+0	9.951368E-1	1.055707E+0	1.088688E+0	1.064375E+0	1.048761E+0	1.077175E+0	9.585365E-1	1.046193E+0	1.000160E+0	1.072763E+0	1.065975E+0	9.953009E-1	1.077208E+0	1.098585E+0	1.087655E+0	9.895928E-1	1.062956E+0	1.062728E+0	1.057173E+0	1.075560E+0	1.150623E+0	1.095294E+0	1.025025E+0	1.137284E+0	1.026248E+0	1.075573E+0	1.034657E+0	1.024977E+0	1.038454E+0	1.038207E+0	9.992107E-1	1.079976E+0	1.061470E+0	9.958479E-1	1.105021E+0	9.556441E-1	1.072734E+0	1.071242E+0	1.038222E+0	1.086286E+0	1.033498E+0	1.106313E+0	1.040411E+0	1.017556E+0	1.033858E+0	1.021331E+0	1.000674E+0	1.070520E+0	1.049127E+0	1.099266E+0	1.063669E+0	1.059165E+0	1.005226E+0	1.064171E+0	1.034794E+0	1.060253E+0	1.108357E+0	9.888114E-1	1.052183E+0	9.950616E-1	1.053879E+0	1.047467E+0	1.055159E+0	1.044392E+0	1.015242E+0	1.033005E+0	1.015771E+0	9.893271E-1	1.031274E+0	1.024547E+0	1.099929E+0	1.020508E+0	9.403460E-1	1.092986E+0	1.056310E+0	1.142606E+0	1.088430E+0	9.940117E-1	1.016953E+0	1.036990E+0	1.098462E+0	1.077642E+0	1.071743E+0	9.584926E-1	1.017063E+0
2.849040E+2	1.645609E+0	1.649528E+0	1.654101E+0	1.655378E+0	1.603887E+0	1.629822E+0	1.570099E+0	1.604298E+0	1.599191E+0	1.697470E+0	1.514626E+0	1.648953E+0	1.596242E+0	1.661422E+0	1.681165E+0	1.585440E+0	1.653009E+0	1.627812E+0	1.573822E+0	1.574669E+0	1.640153E+0	1.598749E+0	1.638722E+0	1.638735E+0	1.585980E+0	1.569835E+0	1.720312E+0	1.605859E+0	1.650956E+0	1.616567E+0	1.626131E+0	1.646080E+0	1.642238E+0	1.577284E+0	1.633361E+0	1.564210E+0	1.571045E+0	1.575681E+0	1.537874E+0	1.609476E+0	1.570407E+0	1.581263E+0	1.551071E+0	1.660128E+0	1.680758E+0	1.687993E+0	1.553862E+0	1.583557E+0	1.681576E+0	1.686425E+0	1.640898E+0	1.601218E+0	1.675235E+0	1.594582E+0	1.620441E+0	1.600794E+0	1.515557E+0	1.602478E+0	1.660018E+0	1.664661E+0	1.641421E+0	1.655934E+0	1.647376E+0	1.578479E+0	1.517103E+0	1.610445E+0	1.669044E+0	1.559452E+0	1.607608E+0	1.595454E+0	1.651019E+0	1.627373E+0	1.624973E+0	1.585075E+0	1.561791E+0	1.643849E+0	1.600728E+0	1.630098E+0	1.530350E+0	1.568578E+0	1.668374E+0	1.656366E+0	1.588378E+0	1.589981E+0	1.539873E+0	1.674934E+0	1.584025E+0	1.619876E+0	1.544538E+0	1.617850E+0	1.625341E+0	1.646027E+0	1.569701E+0	1.520505E+0	1.569198E+0	1.551213E+0	1.636271E+0	1.605710E+0	1.582088E+0	1.577403E+0	1.683973E+0	1.637675E+0	1.618081E+0	1.554183E+0	1.714567E+0	1.725108E+0	1.588473E+0	1.687057E+0	1.636474E+0	1.530268E+0	1.534910E+0	1.576033E+0	1.687826E+0	1.534549E+0	1.633118E+0	1.660928E+0	1.599748E+0	1.607336E+0	1.618227E+0	1.614358E+0	1.605127E+0	1.481461E+0	1.603175E+0	1.698721E+0	1.639619E+0	1.537503E+0	1.627017E+0	1.725680E+0	1.571969E+0	1.595136E+0	1.566427E+0	1.574053E+0	1.570143E+0	1.636924E+0	1.671220E+0	1.602598E+0	1.581961E+0	1.700692E+0	1.622122E+0	1.491810E+0	1.552375E+0	1.677918E+0	1.690714E+0	1.622462E+0	1.666646E+0	1.564444E+0	1.596572E+0	1.616795E+0	1.626260E+0	1.662910E+0	1.597983E+0	1.667722E+0	1.646453E+0	1.568695E+0	1.646251E+0	1.532571E+0	1.688802E+0	1.613145E+0	1.527262E+0	1.560944E+0	1.562829E+0	1.617137E+0	1.556466E+0	1.617245E+0	1.590631E+0	1.650495E+0	1.634800E+0	1.588003E+0	1.680234E+0	1.546044E+0	1.512730E+0
2.850010E+2	1.582254E+0	1.663878E+0	1.606173E+0	1.655911E+0	1.631407E+0	1.670725E+0	1.582409E+0	1.641160E+0	1.709904E+0	1.663048E+0	1.667832E+0	1.648194E+0	1.667244E+0	1.666066E+0	1.637020E+0	1.730040E+0	1.678666E+0	1.763527E+0	1.702939E+0	1.642205E+0	1.653598E+0	1.691350E+0	1.568974E+0	1.617691E+0	1.526736E+0	1.581120E+0	1.567268E+0	1.641869E+0	1.618392E+0	1.594245E+0	1.526013E+0	1.552144E+0	1.579166E+0	1.588129E+0	1.619962E+0	1.507721E+0	1.560182E+0	1.551883E+0	1.597348E+0	1.583665E+0	1.657950E+0	1.627348E+0	1.524917E+0	1.593937E+0	1.651761E+0	1.538903E+0	1.600943E+0	1.603684E+0	1.669775E+0	1.610850E+0	1.665551E+0	1.584840E+0	1.670438E+0	1.622954E+0	1.600286E+0	1.517924E+0	1.642076E+0	1.656274E+0	1.641751E+0	1.666443E+0	1.606578E+0	1.662478E+0	1.617385E+0	1.641243E+0	1.602164E+0	1.665338E+0	1.628002E+0	1.574690E+0	1.617743E+0	1.592143E+0	1.745983E+0	1.576306E+0	1.679491E+0	1.595985E+0	1.632546E+0	1.610816E+0	1.647140E+0	1.491341E+0	1.638017E+0	1.620993E+0	1.668338E+0	1.615963E+0	1.628203E+0	1.500577E+0	1.618103E+0	1.646584E+0	1.686415E+0	1.557395E+0	1.616955E+0	1.700471E+0	1.580777E+0	1.672005E+0	1.614700E+0	1.649962E+0	1.560643E+0	1.599797E+0	1.656408E+0	1.605057E+0	1.627756E+0	1.679904E+0	1.637065E+0	1.590303E+0	1.604431E+0	1.607558E+0	1.670366E+0	1.697037E+0	1.673062E+0	1.592649E+0	1.721759E+0	1.638497E+0	1.616343E+0	1.572966E+0	1.623054E+0	1.579413E+0	1.550636E+0	1.513744E+0	1.578330E+0	1.640515E+0	1.694864E+0	1.631801E+0	1.646962E+0	1.546552E+0	1.716751E+0	1.678509E+0	1.669763E+0	1.611241E+0	1.591425E+0	1.619116E+0	1.543445E+0	1.583322E+0	1.572010E+0	1.502049E+0	1.532125E+0	1.599140E+0	1.545984E+0	1.691083E+0	1.690581E+0	1.600764E+0	1.682015E+0	1.660722E+0	1.602493E+0	1.725264E+0	1.706723E+0	1.649096E+0	1.575431E+0	1.571593E+0	1.581393E+0	1.582449E+0	1.572813E+0	1.650081E+0	1.630344E+0	1.671238E+0	1.627301E+0	1.622435E+0	1.549296E+0	1.551088E+0	1.600324E+0	1.603301E+0	1.587286E+0	1.621245E+0	1.588083E+0	1.668810E+0	1.638346E+0	1.682321E+0	1.614220E+0	1.652220E+0	1.725298E+0	1.662363E+0	1.633716E+0	1.529760E+0	1.843708E+0
2.851030E+2	1.381887E+0	1.385096E+0	1.392916E+0	1.366613E+0	1.286976E+0	1.393356E+0	1.366669E+0	1.370667E+0	1.420318E+0	1.360239E+0	1.376265E+0	1.498769E+0	1.398090E+0	1.386807E+0	1.344404E+0	1.324011E+0	1.332643E+0	1.380002E+0	1.393991E+0	1.322839E+0	1.387136E+0	1.298374E+0	1.264071E+0	1.304668E+0	1.352259E+0	1.323671E+0	1.320535E+0	1.235799E+0	1.284737E+0	1.352373E+0	1.327405E+0	1.264351E+0	1.397996E+0	1.373018E+0	1.300035E+0	1.313203E+0	1.360748E+0	1.347497E+0	1.337233E+0	1.391930E+0	1.345037E+0	1.337115E+0	1.323617E+0	1.371552E+0	1.344099E+0	1.328091E+0	1.364786E+0	1.368753E+0	1.358139E+0	1.415442E+0	1.363234E+0	1.325984E+0	1.287098E+0	1.379828E+0	1.288996E+0	1.307687E+0	1.260793E+0	1.380225E+0	1.338365E+0	1.317917E+0	1.264991E+0	1.335384E+0	1.326555E+0	1.355997E+0	1.315448E+0	1.300584E+0	1.389504E+0	1.311527E+0	1.301951E+0	1.304079E+0	1.369502E+0	1.315712E+0	1.336161E+0	1.345431E+0	1.361932E+0	1.338639E+0	1.389950E+0	1.285262E+0	1.332269E+0	1.325091E+0	1.347427E+0	1.447613E+0	1.366434E+0	1.308152E+0	1.332145E+0	1.349043E+0	1.312592E+0	1.303414E+0	1.249737E+0	1.401757E+0	1.317920E+0	1.357000E+0	1.388319E+0	1.344989E+0	1.300136E+0	1.348521E+0	1.453152E+0	1.300902E+0	1.384749E+0	1.343971E+0	1.342710E+0	1.263884E+0	1.259273E+0	1.390238E+0	1.257763E+0	1.336108E+0	1.324795E+0	1.332651E+0	1.268654E+0	1.388314E+0	1.377945E+0	1.255537E+0	1.316221E+0	1.376147E+0	1.336948E+0	1.339773E+0	1.275891E+0	1.343133E+0	1.325730E+0	1.346487E+0	1.282990E+0	1.352311E+0	1.266672E+0	1.396865E+0	1.244620E+0	1.305222E+0	1.303733E+0	1.329600E+0	1.369190E+0	1.350107E+0	1.375398E+0	1.300661E+0	1.269763E+0	1.301108E+0	1.325226E+0	1.358816E+0	1.302046E+0	1.358574E+0	1.332937E+0	1.385678E+0	1.352687E+0	1.319847E+0	1.348674E+0	1.367648E+0	1.450100E+0	1.307326E+0	1.394801E+0	1.366219E+0	1.290724E+0	1.358179E+0	1.268126E+0	1.353197E+0	1.301941E+0	1.312449E+0	1.363023E+0	1.287526E+0	1.340583E+0	1.326106E+0	1.251359E+0	1.348011E+0	1.278909E+0	1.385213E+0	1.331243E+0	1.278148E+0	1.287927E+0	1.378621E+0	1.421493E+0	1.383736E+0	1.315059E+0	1.268756E+0	1.300677E+0
2.852020E+2	1.254923E+0	1.360954E+0	1.236689E+0	1.331009E+0	1.277124E+0	1.264411E+0	1.247784E+0	1.371319E+0	1.246628E+0	1.339582E+0	1.247587E+0	1.292482E+0	1.246474E+0	1.282275E+0	1.336194E+0	1.263316E+0	1.236518E+0	1.365058E+0	1.300292E+0	1.326528E+0	1.243097E+0	1.295265E+0	1.208976E+0	1.228418E+0	1.245420E+0	1.305311E+0	1.305167E+0	1.240982E+0	1.245453E+0	1.258299E+0	1.312695E+0	1.277977E+0	1.287791E+0	1.215459E+0	1.301891E+0	1.244133E+0	1.250700E+0	1.289272E+0	1.303492E+0	1.228483E+0	1.302097E+0	1.281489E+0	1.168260E+0	1.314529E+0	1.311832E+0	1.250128E+0	1.262091E+0	1.257418E+0	1.306368E+0	1.265029E+0	1.290823E+0	1.249876E+0	1.299126E+0	1.289057E+0	1.246307E+0	1.268008E+0	1.250001E+0	1.340555E+0	1.243801E+0	1.247317E+0	1.277923E+0	1.242823E+0	1.257341E+0	1.278689E+0	1.251405E+0	1.231944E+0	1.324422E+0	1.254657E+0	1.209880E+0	1.246952E+0	1.325447E+0	1.251496E+0	1.311423E+0	1.295469E+0	1.302003E+0	1.390849E+0	1.333079E+0	1.346306E+0	1.252938E+0	1.199694E+0	1.337753E+0	1.329392E+0	1.284982E+0	1.335987E+0	1.251364E+0	1.283875E+0	1.238656E+0	1.333437E+0	1.269267E+0	1.333068E+0	1.235797E+0	1.282960E+0	1.154681E+0	1.225343E+0	1.277585E+0	1.287054E+0	1.330009E+0	1.226331E+0	1.300427E+0	1.267916E+0	1.258228E+0	1.256677E+0	1.260416E+0	1.223965E+0	1.294133E+0	1.395122E+0	1.268960E+0	1.286567E+0	1.310444E+0	1.293123E+0	1.243564E+0	1.278018E+0	1.310707E+0	1.263688E+0	1.231323E+0	1.284830E+0	1.288995E+0	1.300347E+0	1.226025E+0	1.253937E+0	1.255121E+0	1.278472E+0	1.233548E+0	1.315543E+0	1.288476E+0	1.293306E+0	1.332676E+0	1.362262E+0	1.336362E+0	1.285952E+0	1.273754E+0	1.271731E+0	1.208754E+0	1.378542E+0	1.299540E+0	1.266598E+0	1.297774E+0	1.298578E+0	1.338505E+0	1.295895E+0	1.298482E+0	1.372552E+0	1.360050E+0	1.251839E+0	1.376703E+0	1.301305E+0	1.225590E+0	1.296066E+0	1.291084E+0	1.257049E+0	1.217199E+0	1.358527E+0	1.274001E+0	1.278810E+0	1.332884E+0	1.371519E+0	1.259037E+0	1.301868E+0	1.201658E+0	1.278421E+0	1.344387E+0	1.287018E+0	1.255456E+0	1.296604E+0	1.282572E+0	1.299841E+0	1.244219E+0	1.288087E+0	1.172550E+0	1.140278E+0	1.409979E+0
2.853000E+2	1.105964E+0	1.101367E+0	1.175989E+0	1.195193E+0	1.094732E+0	1.174137E+0	1.141130E+0	1.181283E+0	1.123715E+0	1.154825E+0	1.132905E+0	1.171283E+0	1.121581E+0	1.141449E+0	1.110063E+0	1.105937E+0	1.092551E+0	1.196278E+0	1.113663E+0	1.135251E+0	1.154359E+0	1.110017E+0	1.141884E+0	1.206828E+0	1.100078E+0	1.139547E+0	1.136424E+0	1.179818E+0	1.136542E+0	1.167030E+0	1.104951E+0	1.149767E+0	1.131233E+0	1.160054E+0	1.093618E+0	1.115769E+0	1.070238E+0	1.084945E+0	1.138611E+0	1.097171E+0	1.115470E+0	1.055784E+0	1.013749E+0	1.101497E+0	1.146396E+0	1.108827E+0	1.064114E+0	1.073870E+0	1.144751E+0	1.154268E+0	1.078833E+0	1.045283E+0	1.092612E+0	1.153231E+0	1.087228E+0	1.053401E+0	1.046478E+0	1.127862E+0	1.097487E+0	1.172378E+0	1.117029E+0	1.151531E+0	1.160491E+0	1.077326E+0	1.140895E+0	1.110684E+0	1.104392E+0	1.066998E+0	1.042726E+0	1.119448E+0	1.148758E+0	1.108724E+0	1.118147E+0	1.160220E+0	1.161022E+0	1.113688E+0	1.155128E+0	1.112502E+0	1.131306E+0	1.119828E+0	1.146500E+0	1.122191E+0	1.185132E+0	1.142570E+0	1.059901E+0	1.132080E+0	1.062139E+0	1.142587E+0	1.075544E+0	1.166866E+0	1.131663E+0	1.116173E+0	1.090372E+0	1.176697E+0	1.138400E+0	1.091130E+0	1.196426E+0	1.116921E+0	1.193563E+0	1.099152E+0	1.090106E+0	1.066629E+0	1.105344E+0	1.107329E+0	1.096145E+0	1.219798E+0	1.076446E+0	1.088719E+0	1.164524E+0	1.166869E+0	1.109538E+0	1.087740E+0	1.107773E+0	1.129221E+0	1.125384E+0	1.063341E+0	1.137394E+0	1.095916E+0	1.072048E+0	1.116526E+0	1.090794E+0	1.053892E+0	1.117473E+0	1.145652E+0	1.226693E+0	1.145493E+0	1.135744E+0	1.089675E+0	1.177556E+0	1.176300E+0	1.135178E+0	1.146821E+0	1.101275E+0	1.158337E+0	1.070758E+0	1.188092E+0	1.049203E+0	1.184297E+0	1.127866E+0	1.176286E+0	1.066683E+0	1.213154E+0	1.192020E+0	1.144356E+0	1.107042E+0	1.122104E+0	1.167544E+0	1.096417E+0	1.049434E+0	1.123842E+0	1.144617E+0	1.165314E+0	1.081320E+0	1.156123E+0	1.079053E+0	1.106937E+0	1.121651E+0	1.135848E+0	1.130547E+0	1.138662E+0	1.068386E+0	1.157516E+0	1.117113E+0	1.165691E+0	1.076339E+0	1.144100E+0	1.118953E+0	1.141742E+0	1.126927E+0	1.135390E+0	1.222112E+0
2.854020E+2	8.095913E-1	7.703029E-1	8.882178E-1	8.347893E-1	7.937292E-1	8.386136E-1	8.507185E-1	8.535717E-1	8.207366E-1	8.541030E-1	8.359502E-1	8.709848E-1	8.907729E-1	8.421131E-1	8.296863E-1	8.701845E-1	8.365462E-1	8.122765E-1	8.311322E-1	8.360235E-1	8.203037E-1	8.058474E-1	8.487075E-1	8.836496E-1	8.178842E-1	7.943104E-1	7.632915E-1	7.804530E-1	8.346765E-1	8.333520E-1	7.982942E-1	8.783126E-1	8.685273E-1	8.012226E-1	7.799091E-1	7.949816E-1	8.386058E-1	8.965404E-1	8.324690E-1	8.219528E-1	7.979858E-1	8.164400E-1	7.599611E-1	8.487013E-1	8.307910E-1	8.231429E-1	8.336121E-1	8.132773E-1	8.866608E-1	8.071982E-1	8.394717E-1	8.547818E-1	8.089184E-1	8.707861E-1	8.067504E-1	8.199435E-1	8.022206E-1	8.411854E-1	8.054957E-1	7.533599E-1	8.493747E-1	8.172946E-1	8.492297E-1	8.879436E-1	7.788912E-1	8.294559E-1	8.593947E-1	8.305508E-1	8.384799E-1	7.912051E-1	8.573166E-1	8.639222E-1	8.823747E-1	8.823223E-1	8.615274E-1	9.216463E-1	8.532376E-1	8.634268E-1	8.144742E-1	7.617216E-1	7.410166E-1	8.262219E-1	8.405262E-1	8.484069E-1	8.192410E-1	9.270117E-1	8.556438E-1	8.098085E-1	8.137572E-1	8.432880E-1	8.351143E-1	9.247862E-1	7.792749E-1	8.645906E-1	8.338256E-1	8.269922E-1	9.045774E-1	8.230381E-1	8.058741E-1	7.872324E-1	8.325848E-1	8.149894E-1	8.100937E-1	8.730244E-1	8.089365E-1	8.425699E-1	8.845089E-1	8.735570E-1	8.532950E-1	8.379422E-1	8.650180E-1	8.962649E-1	8.915539E-1	7.874599E-1	8.909673E-1	8.060769E-1	7.874074E-1	8.352512E-1	8.253493E-1	8.602694E-1	8.074637E-1	8.000286E-1	8.418685E-1	8.044153E-1	8.321787E-1	8.507457E-1	8.251657E-1	8.327068E-1	8.682459E-1	8.230113E-1	8.572719E-1	8.774585E-1	7.947610E-1	8.931030E-1	8.927349E-1	8.218497E-1	8.424533E-1	8.917958E-1	8.243538E-1	8.271243E-1	8.477116E-1	9.082385E-1	8.556853E-1	8.548017E-1	7.736795E-1	8.747516E-1	8.728163E-1	8.454193E-1	8.224617E-1	8.917118E-1	8.758835E-1	8.541128E-1	8.135210E-1	8.883465E-1	8.190734E-1	8.595878E-1	8.548863E-1	8.370756E-1	8.023393E-1	7.889605E-1	8.866276E-1	8.574169E-1	7.923070E-1	8.616891E-1	8.216885E-1	8.276511E-1	8.829296E-1	9.006100E-1	7.998749E-1	8.294722E-1	9.383573E-1
2.855000E+2	5.239613E-1	5.207809E-1	5.447980E-1	5.498573E-1	5.737346E-1	5.399819E-1	5.337996E-1	5.873483E-1	5.608019E-1	5.984243E-1	5.550949E-1	5.838737E-1	5.694267E-1	6.009300E-1	5.040110E-1	5.230627E-1	5.486109E-1	5.838556E-1	5.343552E-1	5.828618E-1	5.659498E-1	5.886376E-1	5.362696E-1	5.466438E-1	5.919256E-1	5.508818E-1	5.477857E-1	5.376335E-1	5.779215E-1	5.539268E-1	5.315197E-1	5.652600E-1	5.527634E-1	5.422518E-1	5.382714E-1	5.553889E-1	5.849769E-1	5.384337E-1	5.597190E-1	5.620141E-1	5.719992E-1	5.003996E-1	5.328703E-1	5.663206E-1	5.931533E-1	5.131704E-1	5.704692E-1	5.156684E-1	5.496650E-1	5.632734E-1	5.611526E-1	5.599879E-1	5.444075E-1	5.510480E-1	5.398536E-1	5.309972E-1	5.251934E-1	5.435127E-1	5.895852E-1	5.622327E-1	5.539782E-1	5.732862E-1	5.829104E-1	6.142024E-1	5.097342E-1	5.966810E-1	5.539051E-1	4.995310E-1	5.823594E-1	5.654412E-1	5.330526E-1	6.055801E-1	6.124903E-1	5.973558E-1	5.663487E-1	5.308095E-1	5.632725E-1	5.568180E-1	5.529839E-1	5.461475E-1	5.986631E-1	5.570352E-1	5.618828E-1	5.375450E-1	5.489353E-1	5.948541E-1	5.512291E-1	5.756450E-1	5.668373E-1	6.416528E-1	5.672603E-1	5.802895E-1	5.054292E-1	5.399815E-1	5.010442E-1	5.188344E-1	5.446603E-1	5.276538E-1	6.090546E-1	5.742060E-1	5.412099E-1	5.362383E-1	6.050557E-1	5.607907E-1	5.509805E-1	5.525548E-1	5.974044E-1	5.371676E-1	5.566604E-1	5.939844E-1	4.956623E-1	5.284605E-1	6.064871E-1	5.619483E-1	5.762873E-1	5.838070E-1	5.424769E-1	5.386970E-1	6.055319E-1	5.954906E-1	5.390579E-1	5.704930E-1	5.842042E-1	5.099180E-1	5.424723E-1	5.603516E-1	5.569072E-1	5.707267E-1	5.268471E-1	5.993231E-1	5.259098E-1	5.833625E-1	5.208898E-1	5.489619E-1	5.017752E-1	5.439519E-1	5.768172E-1	6.002678E-1	5.976921E-1	5.237767E-1	5.529170E-1	5.367305E-1	5.091446E-1	5.773243E-1	6.006138E-1	5.421279E-1	5.264083E-1	5.144285E-1	5.381350E-1	5.441629E-1	5.304583E-1	5.426319E-1	5.469762E-1	5.587367E-1	5.650326E-1	5.197176E-1	5.308447E-1	5.625625E-1	5.266525E-1	5.182934E-1	5.936993E-1	6.117191E-1	5.122377E-1	5.624525E-1	5.403434E-1	5.486204E-1	5.647881E-1	5.583602E-1	6.116782E-1	4.368510E-1	6.404942E-1
2.856010E+2	4.432724E-1	4.159784E-1	4.500020E-1	4.570989E-1	4.323766E-1	4.587702E-1	4.383398E-1	4.369058E-1	4.030528E-1	4.067168E-1	4.158023E-1	4.374346E-1	4.606482E-1	4.470537E-1	3.974530E-1	4.397971E-1	4.135888E-1	4.440672E-1	4.360200E-1	3.929277E-1	4.537698E-1	4.269498E-1	4.691615E-1	4.233088E-1	4.407969E-1	3.983267E-1	4.469633E-1	3.888621E-1	3.993592E-1	4.271851E-1	4.434073E-1	4.504307E-1	4.711404E-1	4.726544E-1	4.391703E-1	4.077486E-1	4.535981E-1	4.715101E-1	4.785362E-1	3.937866E-1	4.292230E-1	4.359626E-1	3.876629E-1	4.401423E-1	4.224105E-1	4.259408E-1	4.229834E-1	4.466479E-1	4.378626E-1	4.247311E-1	4.504352E-1	4.067466E-1	4.074826E-1	4.302876E-1	4.059649E-1	4.491542E-1	4.455679E-1	4.202921E-1	4.441845E-1	4.685609E-1	4.322728E-1	4.423213E-1	4.332807E-1	3.938608E-1	4.301060E-1	4.115084E-1	4.154318E-1	3.884544E-1	4.400404E-1	4.205227E-1	4.399507E-1	4.210830E-1	4.233773E-1	4.515369E-1	4.198622E-1	4.534726E-1	4.352527E-1	4.441295E-1	4.492880E-1	4.751476E-1	4.259239E-1	4.439370E-1	4.510051E-1	4.124635E-1	4.524457E-1	4.541618E-1	4.036057E-1	4.745400E-1	4.207816E-1	3.848202E-1	4.333490E-1	4.149632E-1	4.266303E-1	4.669869E-1	4.385255E-1	4.101040E-1	4.645409E-1	4.561176E-1	4.629270E-1	4.039850E-1	4.490232E-1	4.246922E-1	4.626958E-1	4.565517E-1	4.357235E-1	4.115596E-1	4.428775E-1	4.609258E-1	4.682613E-1	4.158028E-1	4.424330E-1	4.304433E-1	4.484833E-1	4.523514E-1	4.225569E-1	4.082571E-1	4.270387E-1	4.149035E-1	4.575995E-1	4.308055E-1	4.606493E-1	4.338680E-1	4.928785E-1	4.557135E-1	4.309198E-1	4.142744E-1	4.425175E-1	4.403848E-1	4.770612E-1	4.192609E-1	4.424197E-1	4.504357E-1	4.189163E-1	4.306293E-1	4.140814E-1	4.523910E-1	4.674278E-1	4.289540E-1	4.387273E-1	4.490259E-1	4.618307E-1	4.593540E-1	4.311475E-1	4.435580E-1	4.928890E-1	4.488501E-1	4.082325E-1	4.461230E-1	4.431139E-1	4.532212E-1	3.956011E-1	4.413951E-1	4.123569E-1	4.396046E-1	4.258782E-1	4.032177E-1	4.282911E-1	4.473328E-1	4.456298E-1	4.376359E-1	4.647395E-1	4.577145E-1	4.422218E-1	4.658211E-1	4.023587E-1	4.258409E-1	4.700490E-1	4.812917E-1	4.199173E-1	4.247372E-1	5.365848E-1
2.858030E+2	4.286677E-1	4.006449E-1	4.599901E-1	4.149639E-1	4.245830E-1	4.605204E-1	3.935051E-1	3.824505E-1	4.120637E-1	4.452075E-1	4.198684E-1	3.956016E-1	4.462333E-1	4.694751E-1	4.141570E-1	4.042458E-1	4.204109E-1	4.355257E-1	4.315788E-1	4.097236E-1	4.218938E-1	4.045186E-1	4.333206E-1	4.428177E-1	4.241700E-1	4.063380E-1	4.542882E-1	4.336195E-1	4.748514E-1	4.329885E-1	3.932725E-1	4.272164E-1	4.624301E-1	4.433581E-1	3.983576E-1	3.999758E-1	4.829196E-1	4.150415E-1	4.817399E-1	4.414337E-1	4.424929E-1	4.540721E-1	4.376238E-1	4.606110E-1	4.315918E-1	4.096035E-1	4.755057E-1	4.248755E-1	4.433503E-1	4.545878E-1	4.444808E-1	4.679470E-1	4.522717E-1	4.634499E-1	4.293628E-1	4.010914E-1	4.632920E-1	4.395957E-1	4.304420E-1	4.068004E-1	3.998723E-1	4.322852E-1	3.899589E-1	4.296550E-1	4.291468E-1	4.557902E-1	4.434369E-1	4.515509E-1	4.336670E-1	4.339330E-1	4.151510E-1	3.996224E-1	3.996131E-1	4.690043E-1	4.501313E-1	4.470597E-1	4.465036E-1	4.499211E-1	4.422965E-1	4.083314E-1	4.394000E-1	4.359627E-1	4.427567E-1	4.227350E-1	4.427770E-1	3.881670E-1	4.125642E-1	4.461766E-1	4.513593E-1	3.829684E-1	4.090365E-1	4.651848E-1	4.210334E-1	4.333592E-1	4.595672E-1	4.278484E-1	4.282769E-1	4.339657E-1	3.825537E-1	4.077313E-1	4.445568E-1	4.256398E-1	4.313222E-1	4.198408E-1	4.135483E-1	4.371908E-1	4.497083E-1	4.044900E-1	4.635339E-1	4.364972E-1	4.042349E-1	4.471275E-1	4.465928E-1	3.947312E-1	4.443806E-1	4.356766E-1	4.536986E-1	4.416699E-1	4.076730E-1	4.341139E-1	4.225986E-1	3.946296E-1	4.350070E-1	4.093476E-1	4.709804E-1	4.189803E-1	4.157544E-1	4.381214E-1	4.814870E-1	4.266165E-1	3.611148E-1	4.031745E-1	4.209220E-1	4.008694E-1	4.313062E-1	4.787335E-1	4.589870E-1	4.550124E-1	4.528922E-1	4.315400E-1	4.885823E-1	4.411798E-1	4.614855E-1	4.122573E-1	4.199809E-1	4.383711E-1	4.767441E-1	4.846756E-1	4.309753E-1	4.076279E-1	4.324601E-1	4.486740E-1	4.376972E-1	4.004695E-1	4.617027E-1	4.389596E-1	4.274309E-1	4.236058E-1	4.292382E-1	4.454683E-1	4.160835E-1	4.441340E-1	4.034252E-1	4.841946E-1	4.491013E-1	4.367681E-1	3.978992E-1	4.278132E-1	4.182263E-1	4.393174E-1	3.497380E-1
2.860040E+2	6.553106E-1	6.644974E-1	6.701596E-1	5.981504E-1	6.358960E-1	6.520129E-1	6.253977E-1	6.121473E-1	6.410492E-1	6.766540E-1	6.449418E-1	6.404800E-1	6.371381E-1	6.664420E-1	6.160438E-1	6.435793E-1	6.247822E-1	6.241649E-1	6.849501E-1	6.089340E-1	6.404443E-1	6.548799E-1	6.789609E-1	6.553768E-1	7.018138E-1	6.661641E-1	6.907230E-1	6.547345E-1	6.815445E-1	6.960704E-1	6.706338E-1	6.481253E-1	6.729585E-1	6.737348E-1	6.686122E-1	6.402294E-1	6.564667E-1	6.543313E-1	6.562278E-1	6.436478E-1	6.250407E-1	6.390163E-1	6.767899E-1	6.503194E-1	7.111110E-1	6.688431E-1	6.561945E-1	6.583541E-1	6.623817E-1	6.750369E-1	6.684717E-1	6.946987E-1	7.079182E-1	6.902954E-1	6.191420E-1	6.718359E-1	6.469660E-1	6.542135E-1	6.131245E-1	6.433475E-1	6.667271E-1	6.356876E-1	6.691476E-1	6.976700E-1	6.812129E-1	6.471203E-1	6.493674E-1	6.139929E-1	6.434442E-1	6.318025E-1	6.164241E-1	6.744812E-1	7.110082E-1	6.552340E-1	6.756163E-1	6.038031E-1	6.848808E-1	5.982153E-1	6.511040E-1	6.345429E-1	6.700730E-1	7.099513E-1	6.681679E-1	6.142113E-1	6.649805E-1	6.500042E-1	5.793866E-1	6.334651E-1	6.501308E-1	6.517741E-1	6.384603E-1	6.745533E-1	5.982996E-1	7.230169E-1	6.186477E-1	6.617382E-1	6.417658E-1	6.575396E-1	6.654300E-1	7.004055E-1	6.878231E-1	6.107994E-1	6.971964E-1	6.203418E-1	6.407994E-1	7.053376E-1	6.106331E-1	6.273747E-1	6.582186E-1	6.531519E-1	6.745840E-1	7.099738E-1	6.402153E-1	6.503048E-1	6.362459E-1	6.423960E-1	5.791150E-1	6.578348E-1	6.969926E-1	6.563980E-1	6.633204E-1	6.693083E-1	6.659999E-1	6.806659E-1	6.803111E-1	6.781404E-1	6.545900E-1	5.992982E-1	6.167199E-1	7.016280E-1	6.757318E-1	6.792336E-1	6.389009E-1	6.072646E-1	6.116011E-1	6.697694E-1	6.550528E-1	6.266968E-1	6.622855E-1	6.198963E-1	6.269884E-1	6.557937E-1	6.774157E-1	6.864204E-1	6.656469E-1	6.549710E-1	5.999876E-1	6.315893E-1	6.188793E-1	6.691645E-1	6.222053E-1	6.872332E-1	6.881941E-1	5.973579E-1	6.492593E-1	6.461238E-1	6.609829E-1	6.978863E-1	6.874650E-1	6.521188E-1	6.606729E-1	6.633517E-1	6.409512E-1	6.634144E-1	6.076835E-1	5.761533E-1	5.971033E-1	6.680478E-1	6.388069E-1	6.783049E-1	7.818853E-1
2.862030E+2	8.422129E-1	9.037038E-1	9.175719E-1	9.415785E-1	8.253300E-1	8.845452E-1	8.491149E-1	8.731071E-1	9.142003E-1	9.740818E-1	8.599175E-1	8.867732E-1	9.353405E-1	8.979917E-1	8.985671E-1	8.379728E-1	9.003739E-1	8.936906E-1	9.145226E-1	8.054073E-1	8.727169E-1	9.299014E-1	8.791921E-1	8.898225E-1	8.545587E-1	9.026729E-1	9.035690E-1	8.331440E-1	8.856535E-1	9.117356E-1	9.517372E-1	9.137103E-1	9.676335E-1	9.195807E-1	9.424815E-1	8.192983E-1	8.752065E-1	8.656224E-1	8.853106E-1	8.926523E-1	9.087795E-1	9.138941E-1	8.839389E-1	9.943048E-1	9.666870E-1	9.188100E-1	9.584801E-1	9.073747E-1	9.664672E-1	9.818149E-1	9.241555E-1	8.905438E-1	9.632072E-1	9.158178E-1	8.824758E-1	8.757103E-1	9.935084E-1	9.284112E-1	8.855297E-1	8.655628E-1	9.406107E-1	8.902481E-1	8.581870E-1	8.787347E-1	9.146586E-1	8.988740E-1	9.642261E-1	8.789427E-1	8.914682E-1	9.270014E-1	8.817848E-1	8.953100E-1	9.437636E-1	9.223599E-1	9.681583E-1	8.839077E-1	9.125467E-1	9.100822E-1	9.186195E-1	9.064452E-1	9.247161E-1	9.303092E-1	9.464560E-1	9.155369E-1	9.134842E-1	9.079912E-1	9.046935E-1	8.860578E-1	9.773351E-1	9.016008E-1	9.169263E-1	9.088445E-1	9.096430E-1	9.150342E-1	8.607818E-1	9.493582E-1	8.966482E-1	9.261675E-1	8.883984E-1	9.006230E-1	8.582625E-1	8.616860E-1	8.773557E-1	8.757335E-1	8.905987E-1	9.779270E-1	8.703067E-1	8.577024E-1	9.175171E-1	9.317000E-1	8.970166E-1	8.789004E-1	9.232088E-1	9.121067E-1	9.036508E-1	9.515285E-1	8.914859E-1	8.759941E-1	8.918120E-1	9.094307E-1	9.141873E-1	9.144919E-1	8.597851E-1	9.696332E-1	9.285186E-1	9.617191E-1	8.748973E-1	9.221571E-1	9.761413E-1	8.195139E-1	8.746488E-1	8.630704E-1	8.658801E-1	8.839957E-1	8.743995E-1	9.360949E-1	9.624687E-1	9.641485E-1	9.229068E-1	9.330549E-1	9.269939E-1	9.475593E-1	9.536547E-1	8.949468E-1	9.316416E-1	9.299287E-1	9.633712E-1	9.303079E-1	9.084908E-1	9.453950E-1	8.339745E-1	9.185758E-1	9.167353E-1	8.818356E-1	8.901751E-1	9.099039E-1	8.741865E-1	9.089855E-1	8.486555E-1	9.481592E-1	8.622740E-1	9.354427E-1	9.246279E-1	9.478155E-1	9.382967E-1	9.042520E-1	9.232414E-1	9.194948E-1	8.747060E-1	8.021624E-1	1.013217E+0
2.864160E+2	1.212280E+0	1.280123E+0	1.302070E+0	1.296716E+0	1.286359E+0	1.224843E+0	1.170056E+0	1.220370E+0	1.295389E+0	1.293416E+0	1.227628E+0	1.263247E+0	1.332862E+0	1.257618E+0	1.236109E+0	1.236840E+0	1.274173E+0	1.251524E+0	1.305705E+0	1.187173E+0	1.292191E+0	1.257656E+0	1.240469E+0	1.189976E+0	1.175524E+0	1.193300E+0	1.244355E+0	1.169570E+0	1.218144E+0	1.292409E+0	1.213568E+0	1.221510E+0	1.285734E+0	1.221330E+0	1.164188E+0	1.175956E+0	1.254634E+0	1.235958E+0	1.178532E+0	1.212138E+0	1.202001E+0	1.253024E+0	1.219221E+0	1.233219E+0	1.259779E+0	1.230913E+0	1.290432E+0	1.271349E+0	1.263097E+0	1.239632E+0	1.284619E+0	1.195283E+0	1.251030E+0	1.275103E+0	1.225640E+0	1.221682E+0	1.282186E+0	1.180345E+0	1.165580E+0	1.144054E+0	1.251872E+0	1.282413E+0	1.168615E+0	1.302538E+0	1.281857E+0	1.226793E+0	1.243947E+0	1.238661E+0	1.283151E+0	1.229045E+0	1.291224E+0	1.295973E+0	1.255027E+0	1.179963E+0	1.218736E+0	1.165422E+0	1.245706E+0	1.218370E+0	1.300284E+0	1.224187E+0	1.230688E+0	1.233056E+0	1.249871E+0	1.264349E+0	1.234003E+0	1.311350E+0	1.245211E+0	1.196492E+0	1.177684E+0	1.358938E+0	1.307094E+0	1.222324E+0	1.247863E+0	1.208980E+0	1.185124E+0	1.202433E+0	1.243703E+0	1.161256E+0	1.334242E+0	1.270841E+0	1.275146E+0	1.260141E+0	1.224212E+0	1.199974E+0	1.332948E+0	1.300456E+0	1.205272E+0	1.240843E+0	1.298067E+0	1.293486E+0	1.234197E+0	1.202732E+0	1.317108E+0	1.267452E+0	1.349435E+0	1.252473E+0	1.214156E+0	1.246680E+0	1.260775E+0	1.185886E+0	1.297977E+0	1.258289E+0	1.290668E+0	1.260841E+0	1.284096E+0	1.316955E+0	1.257335E+0	1.246018E+0	1.296333E+0	1.238237E+0	1.169126E+0	1.199005E+0	1.227331E+0	1.198021E+0	1.245189E+0	1.356607E+0	1.240790E+0	1.258339E+0	1.296589E+0	1.310122E+0	1.264008E+0	1.203917E+0	1.332764E+0	1.272788E+0	1.274218E+0	1.204328E+0	1.257875E+0	1.344131E+0	1.266531E+0	1.281744E+0	1.249218E+0	1.263210E+0	1.258513E+0	1.259952E+0	1.245120E+0	1.274464E+0	1.268784E+0	1.334562E+0	1.274083E+0	1.325128E+0	1.259567E+0	1.371310E+0	1.270196E+0	1.311623E+0	1.286922E+0	1.253666E+0	1.237926E+0	1.276488E+0	1.288419E+0	1.216145E+0	1.396702E+0
2.866160E+2	1.250414E+0	1.335207E+0	1.337761E+0	1.352335E+0	1.274597E+0	1.249403E+0	1.278480E+0	1.362346E+0	1.322662E+0	1.303449E+0	1.247870E+0	1.287308E+0	1.345077E+0	1.320827E+0	1.267214E+0	1.315038E+0	1.241301E+0	1.319417E+0	1.339770E+0	1.234804E+0	1.263041E+0	1.280883E+0	1.278932E+0	1.205931E+0	1.324404E+0	1.268710E+0	1.245699E+0	1.259553E+0	1.317645E+0	1.323260E+0	1.324672E+0	1.228234E+0	1.249415E+0	1.291760E+0	1.311162E+0	1.260109E+0	1.308984E+0	1.261533E+0	1.310851E+0	1.274703E+0	1.283947E+0	1.316208E+0	1.250802E+0	1.259132E+0	1.293448E+0	1.306384E+0	1.339014E+0	1.337182E+0	1.341587E+0	1.313694E+0	1.327077E+0	1.308645E+0	1.249680E+0	1.345238E+0	1.313573E+0	1.266452E+0	1.227323E+0	1.279879E+0	1.319886E+0	1.218016E+0	1.371491E+0	1.359381E+0	1.318511E+0	1.254228E+0	1.280534E+0	1.312120E+0	1.273733E+0	1.317803E+0	1.245875E+0	1.265954E+0	1.368931E+0	1.232270E+0	1.290294E+0	1.272695E+0	1.316151E+0	1.232731E+0	1.366005E+0	1.327311E+0	1.281456E+0	1.242383E+0	1.344285E+0	1.232906E+0	1.315653E+0	1.325381E+0	1.296225E+0	1.279241E+0	1.225480E+0	1.272286E+0	1.293038E+0	1.283007E+0	1.310911E+0	1.311417E+0	1.245392E+0	1.224336E+0	1.261196E+0	1.249309E+0	1.291080E+0	1.277823E+0	1.360572E+0	1.270720E+0	1.330705E+0	1.259827E+0	1.290667E+0	1.266849E+0	1.213431E+0	1.293446E+0	1.274507E+0	1.292112E+0	1.314758E+0	1.328662E+0	1.277380E+0	1.275852E+0	1.266458E+0	1.371814E+0	1.275289E+0	1.283657E+0	1.299850E+0	1.241299E+0	1.336973E+0	1.274418E+0	1.199906E+0	1.312331E+0	1.312565E+0	1.266564E+0	1.332904E+0	1.274315E+0	1.321775E+0	1.285140E+0	1.348552E+0	1.312015E+0	1.252923E+0	1.351866E+0	1.225174E+0	1.263950E+0	1.293265E+0	1.292299E+0	1.373515E+0	1.233129E+0	1.334166E+0	1.233934E+0	1.310579E+0	1.389256E+0	1.297070E+0	1.299397E+0	1.378658E+0	1.253821E+0	1.262525E+0	1.253464E+0	1.274123E+0	1.249339E+0	1.260757E+0	1.275883E+0	1.283922E+0	1.298009E+0	1.230270E+0	1.147388E+0	1.314300E+0	1.272209E+0	1.239755E+0	1.297048E+0	1.316782E+0	1.325539E+0	1.290090E+0	1.317327E+0	1.265116E+0	1.268472E+0	1.293831E+0	1.206861E+0	1.179365E+0	1.206174E+0	1.301702E+0
2.868020E+2	1.516581E+0	1.559965E+0	1.490979E+0	1.471587E+0	1.497697E+0	1.457528E+0	1.512329E+0	1.517891E+0	1.547729E+0	1.558964E+0	1.547784E+0	1.495655E+0	1.535922E+0	1.513804E+0	1.518201E+0	1.495410E+0	1.635980E+0	1.478584E+0	1.511064E+0	1.536892E+0	1.496882E+0	1.490198E+0	1.517336E+0	1.420809E+0	1.567986E+0	1.479440E+0	1.474289E+0	1.473546E+0	1.628533E+0	1.550516E+0	1.566337E+0	1.478428E+0	1.588724E+0	1.489670E+0	1.483490E+0	1.498749E+0	1.534969E+0	1.488307E+0	1.557738E+0	1.454439E+0	1.524249E+0	1.483955E+0	1.440769E+0	1.512001E+0	1.530432E+0	1.564874E+0	1.498636E+0	1.445786E+0	1.520240E+0	1.550072E+0	1.447611E+0	1.522076E+0	1.607671E+0	1.526461E+0	1.494435E+0	1.523001E+0	1.462379E+0	1.495804E+0	1.523172E+0	1.435034E+0	1.541467E+0	1.630697E+0	1.481045E+0	1.528794E+0	1.609878E+0	1.508405E+0	1.472567E+0	1.460070E+0	1.502821E+0	1.511191E+0	1.501284E+0	1.614852E+0	1.657149E+0	1.489177E+0	1.548954E+0	1.492196E+0	1.533456E+0	1.537332E+0	1.586076E+0	1.446028E+0	1.496721E+0	1.556060E+0	1.530000E+0	1.511941E+0	1.486937E+0	1.472217E+0	1.482172E+0	1.495399E+0	1.474774E+0	1.601864E+0	1.555679E+0	1.469470E+0	1.582971E+0	1.398894E+0	1.544191E+0	1.517251E+0	1.517756E+0	1.508523E+0	1.465639E+0	1.479378E+0	1.573260E+0	1.502578E+0	1.517202E+0	1.571450E+0	1.585696E+0	1.596248E+0	1.465537E+0	1.553741E+0	1.634308E+0	1.447496E+0	1.572609E+0	1.515668E+0	1.563383E+0	1.470419E+0	1.488480E+0	1.436559E+0	1.474485E+0	1.507232E+0	1.503175E+0	1.544297E+0	1.543052E+0	1.509065E+0	1.526949E+0	1.516006E+0	1.570808E+0	1.543431E+0	1.525290E+0	1.545136E+0	1.491895E+0	1.505666E+0	1.527934E+0	1.468985E+0	1.500996E+0	1.546949E+0	1.477401E+0	1.552151E+0	1.552253E+0	1.511024E+0	1.617325E+0	1.624790E+0	1.538679E+0	1.514409E+0	1.514819E+0	1.602450E+0	1.551796E+0	1.424067E+0	1.630439E+0	1.469811E+0	1.520769E+0	1.471155E+0	1.378364E+0	1.516270E+0	1.534407E+0	1.452883E+0	1.492330E+0	1.481994E+0	1.567385E+0	1.565576E+0	1.466080E+0	1.482760E+0	1.555426E+0	1.431343E+0	1.544313E+0	1.554397E+0	1.501061E+0	1.446569E+0	1.485470E+0	1.533955E+0	1.439970E+0	1.499237E+0	1.568643E+0
2.870150E+2	1.336728E+0	1.291529E+0	1.339171E+0	1.346788E+0	1.356862E+0	1.409720E+0	1.311475E+0	1.348797E+0	1.421705E+0	1.445945E+0	1.348506E+0	1.366794E+0	1.418348E+0	1.367046E+0	1.382935E+0	1.361515E+0	1.382368E+0	1.379261E+0	1.384940E+0	1.341073E+0	1.369322E+0	1.375193E+0	1.323894E+0	1.274578E+0	1.306640E+0	1.371917E+0	1.357483E+0	1.295398E+0	1.390987E+0	1.333623E+0	1.369792E+0	1.326000E+0	1.371557E+0	1.336835E+0	1.351417E+0	1.370566E+0	1.296413E+0	1.322792E+0	1.436651E+0	1.264504E+0	1.419432E+0	1.301124E+0	1.298953E+0	1.293908E+0	1.384102E+0	1.311328E+0	1.359457E+0	1.354454E+0	1.360693E+0	1.384855E+0	1.352478E+0	1.313173E+0	1.450076E+0	1.364331E+0	1.344076E+0	1.353522E+0	1.360544E+0	1.330079E+0	1.392109E+0	1.292416E+0	1.387786E+0	1.418295E+0	1.299988E+0	1.358439E+0	1.302716E+0	1.332786E+0	1.339749E+0	1.360578E+0	1.332720E+0	1.352442E+0	1.458428E+0	1.420605E+0	1.354793E+0	1.315717E+0	1.393901E+0	1.350575E+0	1.467579E+0	1.392075E+0	1.390801E+0	1.297389E+0	1.413115E+0	1.373361E+0	1.390858E+0	1.402012E+0	1.378660E+0	1.423747E+0	1.287882E+0	1.301293E+0	1.281859E+0	1.353923E+0	1.379397E+0	1.355538E+0	1.411603E+0	1.410233E+0	1.365302E+0	1.393488E+0	1.342129E+0	1.403866E+0	1.381467E+0	1.325453E+0	1.393154E+0	1.302350E+0	1.356012E+0	1.300476E+0	1.385136E+0	1.292154E+0	1.328847E+0	1.383698E+0	1.442434E+0	1.381269E+0	1.422106E+0	1.343516E+0	1.443696E+0	1.459663E+0	1.365667E+0	1.284672E+0	1.351383E+0	1.347071E+0	1.364641E+0	1.407883E+0	1.325374E+0	1.375272E+0	1.382895E+0	1.368924E+0	1.372225E+0	1.319225E+0	1.345037E+0	1.313187E+0	1.302199E+0	1.368693E+0	1.348940E+0	1.345564E+0	1.322630E+0	1.348865E+0	1.320994E+0	1.354293E+0	1.362783E+0	1.433077E+0	1.368441E+0	1.431306E+0	1.363401E+0	1.343922E+0	1.414172E+0	1.387564E+0	1.385737E+0	1.333359E+0	1.337508E+0	1.318553E+0	1.384929E+0	1.352115E+0	1.297478E+0	1.344312E+0	1.399724E+0	1.358126E+0	1.393880E+0	1.333938E+0	1.357230E+0	1.359293E+0	1.335738E+0	1.292424E+0	1.366287E+0	1.382321E+0	1.338355E+0	1.366449E+0	1.343557E+0	1.394679E+0	1.374516E+0	1.359812E+0	1.270740E+0	1.346466E+0	1.476231E+0
2.872120E+2	1.055485E+0	1.117220E+0	1.105068E+0	1.126686E+0	1.051933E+0	1.039131E+0	1.060442E+0	1.029448E+0	1.077937E+0	1.107620E+0	1.070430E+0	1.030215E+0	1.135418E+0	1.125298E+0	1.076552E+0	1.087589E+0	1.075793E+0	1.079360E+0	1.087993E+0	9.977177E-1	1.025951E+0	1.058505E+0	1.041536E+0	1.024487E+0	1.086065E+0	1.092065E+0	1.053451E+0	1.057720E+0	1.020140E+0	1.099491E+0	1.038855E+0	1.047220E+0	9.870782E-1	1.062321E+0	1.094557E+0	1.068036E+0	1.047634E+0	1.037606E+0	1.090146E+0	1.036504E+0	1.007899E+0	1.022462E+0	1.008055E+0	1.044202E+0	1.050544E+0	1.077257E+0	1.078205E+0	1.051122E+0	1.082098E+0	1.060459E+0	1.065595E+0	1.077048E+0	1.085530E+0	1.024886E+0	1.042945E+0	1.061379E+0	1.043439E+0	1.001815E+0	1.085439E+0	1.068739E+0	1.071503E+0	1.078825E+0	1.066551E+0	1.043239E+0	1.068834E+0	1.035832E+0	1.060614E+0	1.020102E+0	1.033547E+0	1.043494E+0	1.074426E+0	1.008417E+0	1.094081E+0	1.077341E+0	1.096417E+0	1.021106E+0	1.035676E+0	1.070286E+0	9.733644E-1	1.040184E+0	1.041459E+0	1.077323E+0	1.124822E+0	1.118226E+0	1.071654E+0	1.044581E+0	1.003572E+0	1.043079E+0	1.108691E+0	1.093420E+0	1.091396E+0	1.081058E+0	9.868044E-1	1.079942E+0	1.047110E+0	1.090619E+0	1.073894E+0	9.886487E-1	1.015196E+0	1.082623E+0	1.051818E+0	1.071078E+0	1.102364E+0	1.066734E+0	1.050873E+0	1.061533E+0	1.060808E+0	1.088473E+0	1.127131E+0	1.034098E+0	1.051586E+0	1.113221E+0	1.049892E+0	1.065863E+0	1.096095E+0	1.030175E+0	1.041476E+0	1.033499E+0	1.056758E+0	1.061729E+0	1.034049E+0	1.026587E+0	1.016594E+0	1.143041E+0	1.132267E+0	1.029393E+0	1.077094E+0	1.094745E+0	1.053488E+0	1.117969E+0	1.016856E+0	1.083075E+0	1.088660E+0	1.071659E+0	1.031277E+0	1.078575E+0	1.096505E+0	1.060967E+0	1.060520E+0	1.025917E+0	1.116318E+0	1.084737E+0	1.103369E+0	1.084277E+0	1.086905E+0	1.028660E+0	1.118081E+0	1.002087E+0	1.108958E+0	1.087010E+0	1.038884E+0	1.015132E+0	1.060027E+0	9.941804E-1	1.050616E+0	1.061223E+0	1.095407E+0	1.090613E+0	1.093623E+0	1.070422E+0	1.110369E+0	1.106108E+0	1.087171E+0	1.049729E+0	1.105876E+0	1.039668E+0	1.066872E+0	1.064833E+0	9.698834E-1	9.763992E-1	1.106401E+0
2.874030E+2	9.400873E-1	1.005502E+0	9.680555E-1	9.535817E-1	9.559479E-1	1.014515E+0	9.432281E-1	1.005627E+0	9.616603E-1	1.023755E+0	9.774553E-1	9.930451E-1	9.980517E-1	9.582122E-1	9.807826E-1	9.630607E-1	9.935379E-1	1.062419E+0	1.017286E+0	9.065180E-1	1.008563E+0	9.389702E-1	9.727056E-1	9.659487E-1	1.025035E+0	9.755339E-1	9.327711E-1	1.004032E+0	9.735576E-1	9.592045E-1	1.008669E+0	9.363780E-1	9.806128E-1	9.868281E-1	9.988782E-1	1.007102E+0	9.187202E-1	9.171037E-1	9.531380E-1	9.367772E-1	9.851111E-1	9.438116E-1	1.001891E+0	9.085913E-1	9.838745E-1	9.817386E-1	9.683134E-1	9.796134E-1	1.025150E+0	9.950775E-1	1.000057E+0	9.396553E-1	9.647159E-1	9.076953E-1	9.778119E-1	9.309057E-1	9.552625E-1	9.734341E-1	1.001526E+0	9.027601E-1	9.074018E-1	9.835450E-1	1.017455E+0	9.852415E-1	9.697569E-1	9.567250E-1	9.363714E-1	9.609131E-1	9.409426E-1	9.927404E-1	1.026337E+0	9.789025E-1	9.255537E-1	9.291194E-1	9.814982E-1	1.020634E+0	9.925746E-1	9.451124E-1	9.365899E-1	9.967665E-1	9.256935E-1	9.504986E-1	9.834366E-1	9.315652E-1	9.671809E-1	1.013308E+0	9.404553E-1	9.664552E-1	1.002536E+0	9.853038E-1	9.455217E-1	9.390352E-1	9.589922E-1	9.696698E-1	9.262918E-1	9.903659E-1	9.592693E-1	9.498120E-1	9.849987E-1	1.024737E+0	9.399594E-1	9.571240E-1	9.749960E-1	9.963023E-1	9.749059E-1	9.056035E-1	9.587036E-1	9.679577E-1	1.089952E+0	9.988867E-1	9.305813E-1	9.286387E-1	9.361397E-1	9.591277E-1	9.820236E-1	8.770037E-1	1.023602E+0	9.416500E-1	1.019640E+0	9.933452E-1	9.798514E-1	9.876522E-1	9.373158E-1	9.864586E-1	9.880163E-1	1.039682E+0	9.788118E-1	9.612939E-1	9.547430E-1	9.582960E-1	9.338960E-1	9.500091E-1	9.551675E-1	9.226845E-1	9.731311E-1	1.006802E+0	1.029885E+0	9.877735E-1	9.993637E-1	1.001686E+0	9.667050E-1	1.005336E+0	9.807170E-1	9.950176E-1	1.005125E+0	9.848495E-1	1.013311E+0	9.494619E-1	9.632904E-1	9.356983E-1	9.390818E-1	9.706823E-1	1.002979E+0	1.001246E+0	9.609360E-1	9.300779E-1	1.000984E+0	1.033426E+0	8.866255E-1	9.358836E-1	8.989231E-1	1.009995E+0	9.682689E-1	9.355601E-1	9.446619E-1	9.369572E-1	9.511729E-1	1.007539E+0	8.912614E-1	9.719014E-1	1.001740E+0
2.876170E+2	7.292875E-1	7.917553E-1	7.771028E-1	8.191722E-1	7.475464E-1	7.062221E-1	6.864244E-1	7.809923E-1	8.085781E-1	7.500888E-1	6.939617E-1	7.354897E-1	7.697352E-1	7.663994E-1	7.238092E-1	7.175442E-1	7.209489E-1	7.302741E-1	7.601115E-1	7.655508E-1	7.704581E-1	7.546550E-1	7.858902E-1	8.159921E-1	6.899736E-1	7.270418E-1	7.536145E-1	7.546612E-1	7.347204E-1	7.129109E-1	7.266959E-1	6.870591E-1	8.076503E-1	7.398898E-1	7.067524E-1	8.534838E-1	7.274865E-1	7.580896E-1	7.494048E-1	7.199671E-1	7.446503E-1	7.242271E-1	7.467863E-1	7.352872E-1	7.250637E-1	7.584523E-1	7.826734E-1	7.588796E-1	7.849677E-1	7.761439E-1	7.539998E-1	7.710501E-1	7.435088E-1	8.272075E-1	6.657054E-1	6.897649E-1	7.909027E-1	7.719724E-1	7.476583E-1	7.562422E-1	7.431046E-1	7.650639E-1	7.870561E-1	7.207268E-1	8.052097E-1	7.201883E-1	7.460202E-1	6.750378E-1	7.001683E-1	7.730128E-1	7.529980E-1	7.154909E-1	7.410495E-1	7.814382E-1	7.444001E-1	7.809829E-1	7.602232E-1	7.884979E-1	8.176326E-1	7.543175E-1	7.654966E-1	7.646446E-1	7.910520E-1	7.476340E-1	7.877452E-1	7.414618E-1	7.789580E-1	7.532666E-1	7.468825E-1	7.467178E-1	7.705961E-1	7.227279E-1	7.086302E-1	7.516474E-1	7.337470E-1	7.520819E-1	6.934779E-1	7.298387E-1	7.566926E-1	6.847384E-1	8.034356E-1	7.456606E-1	7.369293E-1	7.384660E-1	7.576161E-1	7.414835E-1	7.628184E-1	7.748307E-1	8.022680E-1	7.102781E-1	7.255856E-1	7.555938E-1	7.019038E-1	7.729229E-1	7.186534E-1	7.141058E-1	7.406102E-1	7.357345E-1	7.594620E-1	7.433912E-1	7.663932E-1	7.258482E-1	7.613913E-1	7.171846E-1	7.969553E-1	7.578278E-1	7.721057E-1	7.536512E-1	7.335249E-1	6.985308E-1	7.313705E-1	7.658566E-1	7.159254E-1	7.706211E-1	7.633049E-1	7.742406E-1	7.502785E-1	7.326646E-1	7.417798E-1	7.222594E-1	7.593894E-1	7.723825E-1	8.057623E-1	7.414447E-1	7.796545E-1	7.451008E-1	7.523547E-1	7.705186E-1	7.653674E-1	7.462196E-1	7.584076E-1	7.680835E-1	7.749972E-1	7.260361E-1	7.812124E-1	6.713691E-1	8.095633E-1	8.149952E-1	7.608705E-1	7.466712E-1	7.396711E-1	7.915418E-1	7.362609E-1	7.788602E-1	6.591372E-1	7.672416E-1	7.691110E-1	7.294037E-1	7.565851E-1	7.293994E-1	7.085969E-1
2.878020E+2	5.367691E-1	6.336667E-1	5.591780E-1	5.288357E-1	5.445945E-1	5.916764E-1	5.589540E-1	5.264910E-1	5.273481E-1	5.625008E-1	5.274094E-1	5.252968E-1	5.446842E-1	5.465879E-1	5.856114E-1	5.205451E-1	5.181666E-1	5.579638E-1	5.575377E-1	5.655062E-1	5.591999E-1	5.426844E-1	5.642508E-1	5.474225E-1	5.346852E-1	5.860934E-1	5.606041E-1	5.903359E-1	5.954343E-1	5.996807E-1	5.864074E-1	5.062298E-1	5.625743E-1	5.424881E-1	5.412620E-1	5.289327E-1	5.630530E-1	5.536523E-1	5.617919E-1	5.288578E-1	5.073538E-1	5.424865E-1	5.319136E-1	5.458033E-1	5.959192E-1	5.199483E-1	5.824588E-1	5.489508E-1	5.551835E-1	5.895731E-1	5.683915E-1	5.627652E-1	5.462992E-1	5.873692E-1	5.372794E-1	5.462757E-1	5.498902E-1	5.919691E-1	5.600936E-1	5.780166E-1	5.446131E-1	5.438519E-1	5.860139E-1	5.622583E-1	5.611977E-1	5.478184E-1	5.805091E-1	5.547415E-1	6.029639E-1	5.884532E-1	5.520127E-1	5.921923E-1	5.555066E-1	5.682180E-1	5.582182E-1	5.103530E-1	5.460226E-1	5.617389E-1	5.807654E-1	5.176561E-1	5.450195E-1	5.337408E-1	5.228594E-1	5.671426E-1	5.171704E-1	5.269005E-1	5.260139E-1	5.612501E-1	5.033595E-1	5.578299E-1	6.079280E-1	5.671584E-1	5.410371E-1	5.281358E-1	5.528874E-1	5.378963E-1	5.384961E-1	5.234003E-1	5.625125E-1	5.720575E-1	5.752706E-1	5.873453E-1	5.534433E-1	5.257541E-1	5.313510E-1	5.753361E-1	5.358803E-1	5.389906E-1	5.574760E-1	5.106037E-1	5.271449E-1	5.386856E-1	5.598803E-1	5.766305E-1	5.496799E-1	5.173728E-1	5.356471E-1	5.324537E-1	5.957439E-1	5.432861E-1	5.600499E-1	5.639799E-1	5.924768E-1	5.212850E-1	5.209378E-1	5.637646E-1	5.806569E-1	5.738476E-1	5.357438E-1	5.313846E-1	5.246589E-1	5.659353E-1	5.484941E-1	6.196006E-1	5.313633E-1	5.278544E-1	5.774492E-1	5.703343E-1	5.817580E-1	5.906045E-1	5.126412E-1	5.240493E-1	5.594413E-1	5.413583E-1	5.337930E-1	5.832744E-1	5.369754E-1	5.392562E-1	5.274064E-1	5.459169E-1	5.728659E-1	5.558255E-1	5.574396E-1	5.688692E-1	5.676602E-1	5.755235E-1	5.917689E-1	4.933299E-1	5.490894E-1	5.348006E-1	5.603913E-1	5.543872E-1	5.342475E-1	5.353841E-1	5.780424E-1	5.370132E-1	5.465630E-1	5.316910E-1	5.277807E-1	5.796773E-1	5.652730E-1
2.880040E+2	5.129133E-1	5.628086E-1	4.857860E-1	5.268861E-1	5.626011E-1	5.228742E-1	5.451795E-1	5.681165E-1	5.231342E-1	5.979083E-1	5.832775E-1	4.773428E-1	5.145780E-1	5.599108E-1	5.350173E-1	5.357268E-1	5.395218E-1	5.654979E-1	5.014979E-1	5.214883E-1	4.989665E-1	5.544956E-1	5.469850E-1	5.587965E-1	5.590680E-1	5.299536E-1	5.504401E-1	5.335566E-1	5.200585E-1	5.680250E-1	5.533787E-1	5.349696E-1	5.283239E-1	5.310795E-1	5.490307E-1	5.178421E-1	5.026144E-1	4.854882E-1	5.535419E-1	5.098068E-1	5.749182E-1	5.180306E-1	5.502945E-1	5.534642E-1	5.577206E-1	5.600245E-1	5.089604E-1	5.322014E-1	5.424530E-1	5.346306E-1	5.851003E-1	6.001770E-1	5.559942E-1	5.036474E-1	5.260240E-1	5.767469E-1	5.434341E-1	5.726195E-1	5.214324E-1	5.282041E-1	5.677576E-1	5.823072E-1	5.219993E-1	5.285485E-1	5.513735E-1	5.321015E-1	5.413926E-1	5.699206E-1	5.478132E-1	4.905972E-1	5.354437E-1	5.343164E-1	5.329009E-1	5.579382E-1	5.082553E-1	6.188346E-1	5.813768E-1	5.765193E-1	5.392143E-1	5.299236E-1	5.533275E-1	6.076206E-1	5.613080E-1	5.815974E-1	5.403273E-1	5.155931E-1	5.367429E-1	5.198019E-1	4.873511E-1	4.996121E-1	5.180148E-1	5.184187E-1	5.278738E-1	5.397401E-1	5.156554E-1	5.737889E-1	5.973407E-1	5.289528E-1	5.379584E-1	5.153427E-1	5.507748E-1	4.649334E-1	5.702575E-1	5.040536E-1	5.554815E-1	5.964547E-1	5.189831E-1	5.257626E-1	5.490052E-1	5.553824E-1	5.446768E-1	5.390575E-1	5.661764E-1	5.235736E-1	5.187606E-1	5.075809E-1	5.449285E-1	5.308190E-1	5.386706E-1	5.300302E-1	5.075452E-1	5.315828E-1	5.574027E-1	5.423469E-1	5.629852E-1	5.397482E-1	5.545901E-1	5.362585E-1	5.752240E-1	5.373695E-1	5.159565E-1	5.345138E-1	5.211081E-1	5.318902E-1	5.587902E-1	5.104044E-1	5.558935E-1	5.468103E-1	5.126293E-1	5.628289E-1	5.594440E-1	5.523419E-1	5.949087E-1	5.329739E-1	5.488684E-1	5.671173E-1	5.738773E-1	5.068231E-1	5.268386E-1	5.767709E-1	5.544893E-1	5.394022E-1	5.447854E-1	5.214141E-1	5.020781E-1	5.605056E-1	5.605669E-1	5.443685E-1	5.066337E-1	5.560970E-1	5.539856E-1	5.480841E-1	5.407311E-1	5.424604E-1	5.026850E-1	4.927388E-1	5.261577E-1	5.352055E-1	5.056991E-1	5.196834E-1	6.234404E-1
2.882060E+2	6.724332E-1	7.112546E-1	7.162778E-1	6.602574E-1	6.570949E-1	7.151991E-1	6.667927E-1	6.673094E-1	7.047730E-1	7.321623E-1	7.512271E-1	7.124335E-1	6.968405E-1	7.123726E-1	6.829360E-1	7.413209E-1	7.210794E-1	7.328144E-1	7.153031E-1	7.062203E-1	6.689427E-1	6.553688E-1	7.538163E-1	6.736773E-1	6.635441E-1	7.185291E-1	7.092879E-1	6.498518E-1	7.371162E-1	7.235754E-1	7.158778E-1	6.896584E-1	7.151954E-1	7.548153E-1	7.318179E-1	6.504786E-1	6.969031E-1	7.404879E-1	7.130260E-1	7.163334E-1	7.234141E-1	6.756804E-1	7.642373E-1	7.646872E-1	7.371467E-1	7.111899E-1	7.294002E-1	7.394890E-1	6.323443E-1	7.269495E-1	7.273704E-1	7.201933E-1	7.257297E-1	7.150833E-1	7.230014E-1	7.022643E-1	7.229618E-1	6.684094E-1	7.013257E-1	7.308879E-1	6.570041E-1	7.136046E-1	7.462079E-1	6.785410E-1	7.574466E-1	6.825666E-1	7.240452E-1	6.801928E-1	7.216778E-1	7.234153E-1	7.799657E-1	7.072439E-1	7.863029E-1	6.412082E-1	6.595353E-1	7.114944E-1	7.186753E-1	6.830853E-1	7.425415E-1	6.799451E-1	7.088734E-1	7.219454E-1	7.206694E-1	6.942250E-1	7.029064E-1	6.789951E-1	6.835952E-1	7.222239E-1	7.339229E-1	6.878582E-1	7.134444E-1	7.182647E-1	6.910153E-1	7.085693E-1	7.402070E-1	7.325559E-1	6.876141E-1	7.185193E-1	6.971574E-1	7.028154E-1	7.158045E-1	7.262209E-1	7.601820E-1	7.178173E-1	7.227103E-1	7.397885E-1	6.883715E-1	7.225961E-1	7.211165E-1	7.529650E-1	7.138471E-1	7.359148E-1	6.604058E-1	7.422055E-1	6.906526E-1	7.005866E-1	6.946642E-1	7.180796E-1	7.191153E-1	6.724375E-1	6.468120E-1	7.040581E-1	7.371320E-1	7.240243E-1	7.071606E-1	6.753434E-1	6.928997E-1	7.264896E-1	7.636031E-1	7.167254E-1	7.167197E-1	6.368396E-1	6.808965E-1	7.263323E-1	7.196878E-1	7.223826E-1	7.350572E-1	7.358535E-1	7.098263E-1	7.265515E-1	7.207862E-1	7.195664E-1	7.255265E-1	6.803026E-1	6.735486E-1	6.898998E-1	7.371171E-1	6.986217E-1	7.010503E-1	7.219473E-1	6.837855E-1	7.059760E-1	7.554041E-1	6.827635E-1	7.268316E-1	7.054817E-1	7.464581E-1	7.154185E-1	7.257112E-1	7.116262E-1	7.102167E-1	7.622303E-1	6.989586E-1	6.546347E-1	6.664084E-1	6.668322E-1	7.617941E-1	7.659793E-1	6.295808E-1	7.292746E-1	6.426793E-1
2.884200E+2	8.316127E-1	9.365611E-1	9.594071E-1	1.002604E+0	8.839445E-1	9.094182E-1	8.447242E-1	8.963327E-1	9.358548E-1	9.480130E-1	9.024261E-1	9.367101E-1	9.417854E-1	9.558839E-1	9.037141E-1	9.378831E-1	8.753953E-1	9.352401E-1	9.744612E-1	9.023044E-1	9.641561E-1	9.897889E-1	9.872093E-1	9.895518E-1	9.740800E-1	9.726226E-1	9.819719E-1	9.277724E-1	9.809674E-1	1.009406E+0	9.728910E-1	9.233936E-1	9.248810E-1	9.785608E-1	1.003953E+0	9.196422E-1	9.797246E-1	9.105051E-1	9.879306E-1	8.933840E-1	9.509914E-1	9.238499E-1	9.599664E-1	9.200651E-1	9.500833E-1	9.636135E-1	9.640898E-1	9.470236E-1	8.941954E-1	1.016140E+0	8.946148E-1	8.829840E-1	9.498813E-1	9.242591E-1	9.387876E-1	9.472128E-1	9.099222E-1	9.130976E-1	9.630372E-1	9.511718E-1	9.184315E-1	9.468651E-1	9.503028E-1	8.952318E-1	8.584576E-1	9.800766E-1	9.556723E-1	9.425754E-1	9.174843E-1	9.165944E-1	1.003285E+0	9.369248E-1	8.858357E-1	9.122678E-1	9.811558E-1	8.945227E-1	9.217793E-1	9.290941E-1	9.846533E-1	9.631413E-1	9.695548E-1	9.811723E-1	9.080600E-1	9.164403E-1	9.305206E-1	8.885639E-1	9.451044E-1	9.491728E-1	9.126893E-1	9.618764E-1	9.031734E-1	9.414550E-1	9.741820E-1	8.934516E-1	9.000249E-1	9.575172E-1	9.395277E-1	9.379206E-1	9.264696E-1	9.791748E-1	9.541348E-1	9.361132E-1	9.502455E-1	9.350424E-1	9.832247E-1	9.695912E-1	9.129972E-1	9.291911E-1	9.388583E-1	9.532338E-1	9.141908E-1	9.046774E-1	9.869535E-1	9.634273E-1	9.990787E-1	8.676004E-1	9.288251E-1	9.636430E-1	9.487636E-1	9.293135E-1	8.846724E-1	9.018201E-1	9.786119E-1	1.014376E+0	9.316701E-1	9.555364E-1	9.616957E-1	9.384800E-1	1.035276E+0	9.147275E-1	9.495779E-1	9.353901E-1	8.929861E-1	9.890473E-1	8.806348E-1	9.993029E-1	9.512462E-1	9.370998E-1	9.225496E-1	9.543388E-1	9.459640E-1	9.646982E-1	9.570527E-1	9.569588E-1	1.036372E+0	9.378819E-1	9.481885E-1	9.470293E-1	9.171262E-1	9.914864E-1	9.037790E-1	9.288554E-1	9.421010E-1	9.516128E-1	9.687928E-1	8.779672E-1	9.885919E-1	9.710792E-1	9.058710E-1	9.444459E-1	8.791619E-1	1.010980E+0	9.208100E-1	9.712276E-1	9.416212E-1	8.718769E-1	9.010205E-1	9.969393E-1	8.149537E-1	8.098004E-1	1.122352E+0
2.886030E+2	9.768353E-1	9.649086E-1	1.023081E+0	1.020685E+0	1.080401E+0	1.067823E+0	1.089999E+0	1.003413E+0	1.028195E+0	1.041132E+0	1.037749E+0	1.003301E+0	1.007643E+0	1.039601E+0	1.008792E+0	1.046031E+0	1.012636E+0	1.105688E+0	1.011063E+0	1.051871E+0	1.053656E+0	1.049919E+0	9.830045E-1	1.059384E+0	1.009431E+0	1.068891E+0	1.072677E+0	1.054367E+0	1.031831E+0	1.106239E+0	1.012631E+0	1.042893E+0	1.012033E+0	1.153892E+0	1.057838E+0	1.013817E+0	1.063940E+0	1.060766E+0	1.015654E+0	9.984526E-1	1.033627E+0	1.023295E+0	1.061101E+0	1.019260E+0	1.043583E+0	1.032846E+0	1.052997E+0	9.793913E-1	1.033106E+0	1.051749E+0	1.090904E+0	1.088947E+0	1.004076E+0	1.017918E+0	1.012120E+0	1.069560E+0	1.041984E+0	1.009102E+0	1.076259E+0	9.794589E-1	1.029779E+0	1.050204E+0	1.039580E+0	1.033188E+0	1.033372E+0	1.036261E+0	1.051477E+0	1.005370E+0	1.066745E+0	1.025914E+0	1.048984E+0	1.057537E+0	1.033893E+0	1.089349E+0	1.020141E+0	1.043379E+0	1.052306E+0	1.067171E+0	1.080116E+0	9.965104E-1	1.134348E+0	1.000933E+0	1.035608E+0	1.090190E+0	1.059950E+0	1.096708E+0	1.072127E+0	9.864215E-1	9.812019E-1	1.083278E+0	1.014493E+0	1.057205E+0	9.982142E-1	1.075051E+0	1.016805E+0	1.041757E+0	9.935451E-1	1.009260E+0	1.060225E+0	1.005195E+0	1.065089E+0	1.020113E+0	1.024774E+0	1.017938E+0	1.010202E+0	1.050567E+0	1.022475E+0	1.040273E+0	1.066741E+0	1.126168E+0	1.047618E+0	1.038746E+0	1.110231E+0	1.022788E+0	1.043484E+0	1.025237E+0	1.016053E+0	9.898250E-1	1.052152E+0	1.047956E+0	9.858727E-1	9.962410E-1	9.817893E-1	1.016770E+0	1.027826E+0	1.035941E+0	1.085523E+0	1.047461E+0	1.054141E+0	1.060190E+0	1.115009E+0	1.050125E+0	1.002944E+0	1.071830E+0	9.916638E-1	1.059022E+0	1.026695E+0	1.073933E+0	1.066466E+0	1.004331E+0	1.065665E+0	1.060992E+0	1.022669E+0	1.018017E+0	1.043392E+0	1.073406E+0	1.003529E+0	1.011927E+0	1.000232E+0	1.005677E+0	9.956623E-1	1.086072E+0	1.080122E+0	1.038283E+0	1.038626E+0	1.033550E+0	9.763210E-1	1.053873E+0	1.011273E+0	1.050259E+0	1.124496E+0	1.077906E+0	9.731401E-1	1.046451E+0	1.078729E+0	1.003050E+0	1.082866E+0	1.120306E+0	1.045766E+0	1.037586E+0	1.260786E+0
2.888200E+2	1.110188E+0	1.113655E+0	1.117689E+0	1.187745E+0	1.082763E+0	1.138576E+0	1.141033E+0	1.071224E+0	1.173832E+0	1.202413E+0	1.129208E+0	1.180449E+0	1.158992E+0	1.141010E+0	1.135831E+0	1.131558E+0	1.178510E+0	1.136811E+0	1.124306E+0	1.112658E+0	1.224659E+0	1.144808E+0	1.023636E+0	1.144642E+0	1.022207E+0	1.142298E+0	1.114208E+0	1.130291E+0	1.095905E+0	1.084586E+0	1.151000E+0	1.107269E+0	1.182141E+0	1.108873E+0	1.125768E+0	1.048744E+0	1.022173E+0	1.039764E+0	1.139143E+0	1.056780E+0	1.073466E+0	1.063379E+0	9.715207E-1	1.076714E+0	1.095288E+0	1.104004E+0	1.051304E+0	1.076678E+0	1.194866E+0	1.139447E+0	1.113176E+0	1.128603E+0	1.035642E+0	1.125996E+0	1.103577E+0	1.096956E+0	1.061359E+0	1.173834E+0	1.072401E+0	1.085007E+0	1.114218E+0	1.165961E+0	1.152995E+0	1.142669E+0	1.048837E+0	1.116338E+0	1.182364E+0	1.094667E+0	1.128576E+0	1.109078E+0	1.098309E+0	1.031228E+0	1.101399E+0	1.128848E+0	1.045402E+0	1.149276E+0	1.104917E+0	1.105429E+0	1.098993E+0	1.079802E+0	1.094957E+0	1.156851E+0	1.109846E+0	1.111218E+0	1.140641E+0	1.120169E+0	1.123676E+0	1.184498E+0	1.082699E+0	1.096581E+0	1.049687E+0	1.079441E+0	1.001976E+0	1.111833E+0	1.148373E+0	1.113167E+0	1.127009E+0	1.142400E+0	1.151951E+0	1.093251E+0	1.083718E+0	1.087429E+0	1.126514E+0	1.128365E+0	1.091769E+0	1.203525E+0	1.091199E+0	1.071511E+0	1.142908E+0	1.078132E+0	1.085570E+0	1.155905E+0	1.101979E+0	1.115867E+0	1.115569E+0	1.088096E+0	1.109866E+0	1.158731E+0	1.063966E+0	1.134736E+0	1.096709E+0	1.069907E+0	1.164795E+0	1.199593E+0	1.100426E+0	1.118045E+0	1.150116E+0	1.143326E+0	1.099250E+0	1.118357E+0	1.158219E+0	1.095038E+0	1.127629E+0	1.119783E+0	1.106090E+0	1.101755E+0	1.113081E+0	1.115901E+0	1.048646E+0	1.187887E+0	1.136319E+0	1.125230E+0	1.180005E+0	1.099768E+0	1.150972E+0	1.138354E+0	1.022208E+0	1.127268E+0	1.110870E+0	1.107075E+0	1.032742E+0	1.056811E+0	1.119579E+0	1.116126E+0	1.134597E+0	1.130353E+0	1.161101E+0	1.172377E+0	1.126997E+0	1.124088E+0	1.105658E+0	1.134016E+0	1.102607E+0	1.161577E+0	1.169827E+0	1.170836E+0	1.139399E+0	1.140928E+0	1.092128E+0	1.127394E+0	1.097120E+0
2.890190E+2	1.108543E+0	1.189636E+0	1.197695E+0	1.153957E+0	1.166855E+0	1.224122E+0	1.201367E+0	1.137232E+0	1.163866E+0	1.232527E+0	1.202409E+0	1.197798E+0	1.179925E+0	1.188513E+0	1.153846E+0	1.189283E+0	1.153754E+0	1.139830E+0	1.235928E+0	1.161035E+0	1.190637E+0	1.171081E+0	1.157974E+0	1.153863E+0	1.150706E+0	1.168578E+0	1.193312E+0	1.180114E+0	1.174071E+0	1.151217E+0	1.079486E+0	1.075930E+0	1.171462E+0	1.127948E+0	1.218623E+0	1.115096E+0	1.111397E+0	1.100341E+0	1.143674E+0	1.135935E+0	1.201032E+0	1.132396E+0	1.153234E+0	1.111089E+0	1.187003E+0	1.087787E+0	1.225320E+0	1.120773E+0	1.110336E+0	1.178220E+0	1.184836E+0	1.128836E+0	1.171556E+0	1.212443E+0	1.193571E+0	1.100655E+0	1.101508E+0	1.107091E+0	1.119637E+0	1.149886E+0	1.043339E+0	1.259110E+0	1.187643E+0	1.148294E+0	1.115723E+0	1.194182E+0	1.171687E+0	1.155650E+0	1.096625E+0	1.088595E+0	1.136632E+0	1.073705E+0	1.203373E+0	1.226936E+0	1.152757E+0	1.136738E+0	1.110622E+0	1.175720E+0	1.232024E+0	1.165626E+0	1.173171E+0	1.184329E+0	1.196320E+0	1.190841E+0	1.077298E+0	1.141017E+0	1.172533E+0	1.148502E+0	1.148913E+0	1.199998E+0	1.109849E+0	1.167687E+0	1.118768E+0	1.206609E+0	1.146744E+0	1.148303E+0	1.153455E+0	1.140688E+0	1.184386E+0	1.192011E+0	1.196695E+0	1.104061E+0	1.154324E+0	1.196663E+0	1.134004E+0	1.129515E+0	1.163074E+0	1.191249E+0	1.171588E+0	1.155565E+0	1.075644E+0	1.119338E+0	1.231555E+0	1.146398E+0	1.174706E+0	1.153787E+0	1.206849E+0	1.154153E+0	1.157817E+0	1.164737E+0	1.143835E+0	1.094340E+0	1.240712E+0	1.184442E+0	1.214544E+0	1.146609E+0	1.131491E+0	1.182736E+0	1.111442E+0	1.181107E+0	1.141137E+0	1.127878E+0	1.089185E+0	1.162440E+0	1.106784E+0	1.131379E+0	1.171867E+0	1.206472E+0	1.180896E+0	1.133355E+0	1.126042E+0	1.152849E+0	1.191240E+0	1.175559E+0	1.166041E+0	1.156873E+0	1.156446E+0	1.124632E+0	1.095001E+0	1.213230E+0	1.134226E+0	1.189814E+0	1.145471E+0	1.136497E+0	1.139422E+0	1.123314E+0	1.165069E+0	1.160945E+0	1.104354E+0	1.171299E+0	1.144628E+0	1.179602E+0	1.115472E+0	1.200069E+0	1.113662E+0	1.105907E+0	1.174890E+0	1.178507E+0	1.081858E+0	1.107925E+0	1.084228E+0
2.892020E+2	8.861089E-1	9.059521E-1	9.275158E-1	9.487088E-1	9.290913E-1	9.094032E-1	9.433294E-1	9.164507E-1	9.628767E-1	9.564056E-1	9.323259E-1	9.127662E-1	9.917907E-1	9.791258E-1	9.087012E-1	9.579695E-1	9.506363E-1	9.778374E-1	9.190852E-1	9.608172E-1	9.853570E-1	1.001729E+0	9.296588E-1	9.170298E-1	9.075984E-1	9.207569E-1	8.971923E-1	9.628410E-1	9.468284E-1	9.588171E-1	9.289400E-1	9.199619E-1	8.998954E-1	9.308591E-1	8.891500E-1	9.296448E-1	9.120184E-1	9.411100E-1	9.631185E-1	9.043314E-1	9.347395E-1	9.422178E-1	9.167086E-1	9.084097E-1	9.412697E-1	9.585438E-1	1.012413E+0	8.773550E-1	9.105348E-1	9.057260E-1	9.054256E-1	9.311642E-1	9.250570E-1	9.562459E-1	9.748714E-1	9.116850E-1	8.929602E-1	9.872271E-1	8.999733E-1	9.326935E-1	8.963394E-1	8.755844E-1	9.259069E-1	9.338463E-1	9.343873E-1	1.040624E+0	1.002316E+0	8.579832E-1	9.322457E-1	9.105366E-1	9.337607E-1	8.805183E-1	9.313507E-1	9.714993E-1	9.523411E-1	8.805789E-1	9.375293E-1	9.598425E-1	9.886492E-1	9.680356E-1	9.107649E-1	9.338977E-1	9.186499E-1	8.934222E-1	9.075387E-1	9.485213E-1	9.262631E-1	9.137926E-1	8.712805E-1	9.252770E-1	9.680288E-1	9.058313E-1	9.270605E-1	9.689404E-1	9.180809E-1	8.971104E-1	9.249753E-1	8.915924E-1	9.587361E-1	8.928399E-1	9.634248E-1	9.441009E-1	8.981620E-1	9.532271E-1	9.523093E-1	9.370587E-1	9.540645E-1	9.101561E-1	8.941836E-1	9.421798E-1	9.616631E-1	8.951288E-1	9.949883E-1	8.981533E-1	9.064974E-1	8.740362E-1	9.019019E-1	9.243578E-1	9.126550E-1	9.049831E-1	9.914173E-1	8.615026E-1	9.477787E-1	9.934260E-1	9.399756E-1	9.473410E-1	9.345457E-1	8.837620E-1	8.993054E-1	9.638152E-1	9.683556E-1	9.026721E-1	9.017855E-1	9.884227E-1	8.967981E-1	9.743607E-1	9.357711E-1	9.749050E-1	9.458178E-1	9.600533E-1	8.780452E-1	1.004330E+0	9.296240E-1	9.230582E-1	8.948668E-1	9.205937E-1	9.072551E-1	9.836062E-1	8.945382E-1	9.614670E-1	9.165913E-1	9.376028E-1	9.333116E-1	9.484080E-1	9.119346E-1	9.025782E-1	8.993158E-1	9.648754E-1	9.243754E-1	8.880500E-1	8.445493E-1	8.983592E-1	9.600392E-1	9.093664E-1	8.967612E-1	9.479136E-1	9.377909E-1	9.044250E-1	9.139785E-1	8.928897E-1	9.744695E-1
2.894040E+2	7.228171E-1	6.946115E-1	6.489954E-1	6.800037E-1	6.278055E-1	6.904152E-1	6.812293E-1	6.738326E-1	6.515664E-1	6.730314E-1	6.442735E-1	6.964118E-1	6.707489E-1	7.119062E-1	6.858987E-1	6.904420E-1	6.781743E-1	6.769868E-1	6.469374E-1	6.905533E-1	6.605077E-1	6.512543E-1	6.483860E-1	6.405605E-1	6.558631E-1	6.876456E-1	7.173597E-1	6.869167E-1	6.875809E-1	6.696169E-1	6.641074E-1	6.437096E-1	6.930366E-1	6.973996E-1	6.866319E-1	6.666852E-1	6.244827E-1	6.713541E-1	6.426205E-1	6.354735E-1	7.161973E-1	6.588887E-1	6.178919E-1	6.475227E-1	6.647836E-1	6.680709E-1	6.379674E-1	6.739611E-1	6.871279E-1	7.302872E-1	6.623820E-1	6.604972E-1	6.639568E-1	6.968037E-1	6.470904E-1	6.943318E-1	6.613242E-1	6.928815E-1	6.570994E-1	7.051704E-1	7.086771E-1	6.906531E-1	6.755003E-1	6.556945E-1	6.880530E-1	6.585711E-1	6.936011E-1	6.174433E-1	6.795603E-1	6.408910E-1	7.016570E-1	7.034498E-1	6.536302E-1	6.909827E-1	7.179012E-1	7.255447E-1	6.474516E-1	6.873076E-1	6.847264E-1	7.087947E-1	6.745528E-1	6.374227E-1	6.539684E-1	6.937297E-1	6.266894E-1	7.362794E-1	6.986799E-1	6.920894E-1	7.322841E-1	7.059148E-1	6.791831E-1	6.772740E-1	6.525260E-1	7.062180E-1	6.486221E-1	6.260201E-1	6.941882E-1	6.664286E-1	6.620963E-1	6.816073E-1	7.287655E-1	6.588597E-1	6.551335E-1	6.643348E-1	6.630522E-1	7.358728E-1	7.013167E-1	6.731196E-1	6.537308E-1	7.028622E-1	7.036281E-1	6.717767E-1	6.613947E-1	7.038012E-1	6.325778E-1	6.603832E-1	6.997005E-1	6.688280E-1	7.196151E-1	6.945438E-1	6.574138E-1	6.750733E-1	7.164277E-1	6.447424E-1	6.436447E-1	7.138320E-1	7.103439E-1	6.822273E-1	6.653078E-1	6.697193E-1	7.434122E-1	6.616038E-1	6.978750E-1	7.241110E-1	6.721382E-1	7.015999E-1	7.062866E-1	6.780595E-1	6.798435E-1	6.870955E-1	6.832933E-1	7.179715E-1	6.411165E-1	6.682388E-1	6.636578E-1	6.461811E-1	6.945961E-1	7.342683E-1	6.705977E-1	6.874366E-1	6.636869E-1	6.852928E-1	6.571291E-1	6.726200E-1	6.758399E-1	6.336521E-1	6.657289E-1	6.679384E-1	7.074090E-1	6.946967E-1	6.385834E-1	6.484450E-1	6.809573E-1	7.316050E-1	7.106723E-1	6.636275E-1	7.231863E-1	6.550792E-1	6.405259E-1	7.455221E-1	6.697382E-1
2.896060E+2	6.768091E-1	6.969794E-1	6.739053E-1	6.375911E-1	6.258235E-1	6.785719E-1	6.253852E-1	6.310259E-1	6.682818E-1	6.617253E-1	6.636586E-1	6.471624E-1	6.333243E-1	6.421251E-1	5.581678E-1	6.539349E-1	6.062739E-1	7.083620E-1	6.193675E-1	6.383615E-1	6.075200E-1	6.149559E-1	6.477624E-1	6.463550E-1	6.578589E-1	6.604153E-1	6.642808E-1	6.370793E-1	6.042619E-1	7.529017E-1	6.294988E-1	6.601898E-1	6.467065E-1	6.486389E-1	6.347079E-1	6.865791E-1	6.475948E-1	6.459732E-1	6.348424E-1	6.432013E-1	6.991954E-1	6.186518E-1	6.798222E-1	6.076655E-1	6.560624E-1	6.501803E-1	6.812381E-1	6.554424E-1	6.679137E-1	6.316102E-1	6.557277E-1	6.432264E-1	6.773632E-1	6.851554E-1	6.884416E-1	6.079018E-1	6.595342E-1	6.655718E-1	6.577419E-1	6.014069E-1	7.051138E-1	6.167398E-1	6.230651E-1	6.496953E-1	6.570483E-1	6.878771E-1	6.322659E-1	6.508581E-1	6.606827E-1	6.931204E-1	6.376338E-1	6.939811E-1	6.494253E-1	6.977007E-1	6.537884E-1	6.272003E-1	6.800231E-1	6.944914E-1	6.501142E-1	6.382427E-1	6.243138E-1	6.634108E-1	6.429999E-1	6.519872E-1	6.571324E-1	6.347696E-1	6.137128E-1	6.250725E-1	6.546197E-1	6.659755E-1	6.209018E-1	6.278909E-1	6.068722E-1	7.094134E-1	6.519962E-1	6.620083E-1	6.654748E-1	6.502753E-1	7.075963E-1	6.781483E-1	6.521372E-1	6.366400E-1	6.668469E-1	6.481956E-1	6.514908E-1	6.707291E-1	6.608846E-1	6.378598E-1	7.115320E-1	5.978317E-1	6.737016E-1	6.528985E-1	6.819995E-1	6.357736E-1	6.473824E-1	6.361759E-1	6.630041E-1	6.496455E-1	7.272779E-1	6.491683E-1	6.485228E-1	6.411931E-1	6.710374E-1	6.483653E-1	6.767043E-1	6.783194E-1	6.723438E-1	6.014459E-1	6.130416E-1	7.021921E-1	6.472249E-1	6.815578E-1	6.285296E-1	6.179642E-1	6.803067E-1	6.570637E-1	6.169312E-1	6.556549E-1	6.818910E-1	6.767094E-1	6.229191E-1	6.504498E-1	6.461691E-1	6.812838E-1	6.658277E-1	6.713272E-1	6.211150E-1	6.402519E-1	6.796019E-1	6.740271E-1	6.556811E-1	6.501130E-1	6.747429E-1	6.322852E-1	6.703482E-1	7.002988E-1	6.710218E-1	6.692652E-1	6.635842E-1	6.582506E-1	6.580485E-1	6.992493E-1	6.682220E-1	6.664443E-1	6.008905E-1	6.377852E-1	6.625210E-1	6.464300E-1	6.655154E-1	6.334787E-1	7.179546E-1
2.898030E+2	7.440335E-1	7.249878E-1	7.164664E-1	7.824412E-1	7.493662E-1	7.816634E-1	7.313221E-1	7.588603E-1	7.766062E-1	8.133823E-1	8.118649E-1	7.622551E-1	8.038417E-1	7.419857E-1	7.468972E-1	7.302597E-1	7.521257E-1	8.018799E-1	7.593703E-1	7.429235E-1	7.608573E-1	7.580680E-1	7.743819E-1	7.461434E-1	7.719942E-1	8.148261E-1	7.959836E-1	7.461671E-1	7.770833E-1	7.695203E-1	7.233785E-1	7.336679E-1	7.658277E-1	8.059822E-1	7.194551E-1	7.124543E-1	7.368905E-1	7.594172E-1	7.264478E-1	7.340507E-1	7.115176E-1	7.355083E-1	7.009958E-1	7.855471E-1	7.570852E-1	7.675665E-1	7.565872E-1	7.234272E-1	7.304655E-1	7.991555E-1	7.631457E-1	7.666773E-1	8.026881E-1	7.718389E-1	7.469833E-1	7.829274E-1	7.011349E-1	7.939042E-1	7.242776E-1	7.619642E-1	7.491413E-1	7.610634E-1	7.841205E-1	7.109539E-1	7.753530E-1	7.522345E-1	8.112800E-1	7.593318E-1	7.604386E-1	7.759325E-1	8.206417E-1	7.650834E-1	7.206104E-1	7.595116E-1	7.548624E-1	7.319237E-1	7.218833E-1	7.511617E-1	7.735563E-1	7.831679E-1	7.594214E-1	7.762956E-1	7.544980E-1	7.226516E-1	7.271430E-1	7.717465E-1	7.794591E-1	7.656470E-1	7.197623E-1	7.710830E-1	7.844263E-1	7.123530E-1	7.127589E-1	7.525025E-1	7.474459E-1	7.647318E-1	7.352274E-1	7.870031E-1	7.712973E-1	6.819976E-1	7.427951E-1	7.517382E-1	7.199726E-1	7.703307E-1	8.078533E-1	8.063548E-1	7.920767E-1	8.273586E-1	7.932860E-1	7.800579E-1	7.728293E-1	7.657110E-1	7.929276E-1	8.081758E-1	7.765244E-1	7.247403E-1	7.612130E-1	7.286568E-1	7.580645E-1	6.812812E-1	7.348236E-1	7.982733E-1	7.360776E-1	7.220890E-1	7.556163E-1	7.121137E-1	7.354064E-1	7.992826E-1	8.058530E-1	8.109228E-1	7.754759E-1	7.476525E-1	7.067694E-1	7.657806E-1	7.568386E-1	7.283919E-1	7.659469E-1	7.937756E-1	7.843244E-1	8.035372E-1	8.004057E-1	7.690725E-1	7.916873E-1	7.504840E-1	7.907606E-1	7.372185E-1	7.625882E-1	7.467667E-1	7.274796E-1	7.459282E-1	7.409545E-1	8.246190E-1	7.795530E-1	7.673787E-1	7.271415E-1	7.670227E-1	7.534777E-1	7.909134E-1	7.490715E-1	7.783011E-1	7.623045E-1	8.004422E-1	7.234925E-1	7.576600E-1	7.149497E-1	7.269632E-1	7.177789E-1	7.938064E-1	6.627231E-1	7.741864E-1	6.372512E-1
2.900050E+2	8.534218E-1	7.944191E-1	8.572431E-1	9.057496E-1	8.122364E-1	8.996353E-1	8.286027E-1	8.597194E-1	8.416044E-1	8.308435E-1	8.201476E-1	8.245810E-1	8.733658E-1	8.318780E-1	8.446733E-1	8.213723E-1	8.274862E-1	8.169070E-1	9.050879E-1	8.755851E-1	8.118064E-1	8.304251E-1	8.323221E-1	8.764312E-1	8.360373E-1	8.312255E-1	8.725856E-1	7.952611E-1	8.575091E-1	8.540581E-1	8.696973E-1	8.784204E-1	8.653921E-1	8.749534E-1	7.671069E-1	8.627316E-1	8.578689E-1	8.770371E-1	8.117974E-1	8.680168E-1	8.363212E-1	7.884480E-1	8.267866E-1	8.022778E-1	8.491810E-1	8.189579E-1	7.874330E-1	8.433098E-1	8.627398E-1	8.755473E-1	8.429626E-1	8.420040E-1	8.314181E-1	8.672098E-1	7.631517E-1	8.099633E-1	8.190665E-1	8.023421E-1	8.295545E-1	8.336712E-1	7.988082E-1	8.220301E-1	8.203157E-1	8.357579E-1	8.385378E-1	8.136629E-1	8.794797E-1	8.130232E-1	8.530337E-1	8.498804E-1	8.468724E-1	8.382671E-1	8.681810E-1	8.306316E-1	8.650408E-1	8.009131E-1	8.834428E-1	8.039638E-1	8.513771E-1	7.809003E-1	8.677949E-1	8.696641E-1	8.290835E-1	8.895304E-1	8.525444E-1	8.429077E-1	8.414274E-1	8.454714E-1	7.736777E-1	8.433648E-1	8.305656E-1	8.169285E-1	8.105784E-1	8.231562E-1	8.709060E-1	8.160885E-1	8.646899E-1	8.319196E-1	8.567079E-1	8.393530E-1	7.749450E-1	8.402268E-1	8.384202E-1	8.361867E-1	8.263173E-1	9.033674E-1	8.662886E-1	8.765457E-1	8.616857E-1	8.860946E-1	8.250082E-1	8.357440E-1	8.219963E-1	8.350302E-1	8.294353E-1	8.278740E-1	8.155221E-1	8.196098E-1	8.597536E-1	8.478537E-1	8.368611E-1	8.145239E-1	8.258433E-1	8.438691E-1	8.259104E-1	8.447474E-1	9.036773E-1	9.027449E-1	8.038366E-1	8.980066E-1	8.482727E-1	8.410863E-1	8.324330E-1	8.095593E-1	8.358085E-1	8.301143E-1	8.873095E-1	9.005027E-1	7.695215E-1	8.443282E-1	8.413766E-1	8.842051E-1	8.463645E-1	8.919743E-1	8.864637E-1	8.289022E-1	8.690646E-1	8.480717E-1	8.403929E-1	8.235806E-1	7.867971E-1	8.347764E-1	8.451928E-1	8.293295E-1	8.230230E-1	8.256265E-1	8.838168E-1	8.513112E-1	8.474371E-1	8.391085E-1	8.515752E-1	8.961658E-1	8.349045E-1	9.042772E-1	8.577408E-1	7.788602E-1	8.227079E-1	8.439311E-1	8.050340E-1	7.676109E-1	8.644187E-1
2.905280E+2	7.964320E-1	8.120705E-1	8.069766E-1	7.979808E-1	7.758391E-1	7.345362E-1	7.665360E-1	8.111068E-1	7.804022E-1	8.089260E-1	7.744524E-1	8.197761E-1	7.870480E-1	8.028495E-1	8.443473E-1	7.975854E-1	8.427465E-1	7.680985E-1	7.933527E-1	8.194590E-1	8.377654E-1	7.751841E-1	8.120169E-1	7.736752E-1	7.869197E-1	8.279848E-1	8.328989E-1	7.008393E-1	7.972794E-1	7.738956E-1	8.339484E-1	7.717575E-1	7.562717E-1	8.292453E-1	7.757173E-1	8.404400E-1	8.390589E-1	8.004036E-1	7.758767E-1	8.136550E-1	8.498338E-1	8.171865E-1	7.779195E-1	7.804478E-1	8.316514E-1	7.543109E-1	7.791284E-1	8.027351E-1	7.947758E-1	8.390699E-1	8.140331E-1	8.599043E-1	7.607805E-1	7.770275E-1	7.855006E-1	8.300526E-1	8.146774E-1	8.221478E-1	8.004896E-1	7.535644E-1	7.906857E-1	8.125870E-1	7.907348E-1	8.059851E-1	8.182165E-1	8.188345E-1	8.664933E-1	8.028850E-1	8.439496E-1	7.613672E-1	8.350056E-1	8.175475E-1	7.880852E-1	8.747126E-1	7.688318E-1	8.066447E-1	8.227022E-1	8.549326E-1	7.861004E-1	7.657033E-1	7.910474E-1	7.998388E-1	8.034770E-1	7.630835E-1	8.106335E-1	8.080058E-1	8.166774E-1	8.198366E-1	8.048819E-1	8.136316E-1	7.843761E-1	8.008287E-1	8.089019E-1	8.480541E-1	7.972096E-1	7.528268E-1	8.228091E-1	8.273899E-1	8.390970E-1	8.327116E-1	7.844884E-1	7.845362E-1	8.157149E-1	7.644998E-1	8.199421E-1	9.027138E-1	7.697491E-1	7.872088E-1	7.865765E-1	8.520511E-1	7.955236E-1	8.408421E-1	8.583879E-1	7.966964E-1	7.893301E-1	8.126701E-1	8.399013E-1	8.124432E-1	7.721790E-1	8.349289E-1	7.489239E-1	7.877545E-1	7.766950E-1	8.335420E-1	7.657812E-1	8.447401E-1	7.860255E-1	8.292467E-1	8.158989E-1	8.063932E-1	8.318688E-1	8.545336E-1	7.778022E-1	8.446340E-1	7.951829E-1	8.203239E-1	8.348503E-1	8.625884E-1	8.145507E-1	8.085880E-1	8.126849E-1	8.406324E-1	8.387674E-1	8.787401E-1	7.671689E-1	8.175118E-1	8.426012E-1	7.967964E-1	7.759344E-1	8.072324E-1	7.782210E-1	8.346910E-1	8.099289E-1	8.393876E-1	8.434824E-1	7.615677E-1	8.474535E-1	8.402286E-1	8.109378E-1	7.682683E-1	8.277578E-1	7.858437E-1	7.752260E-1	8.314536E-1	8.207251E-1	7.771756E-1	8.382503E-1	8.492059E-1	7.887825E-1	8.033256E-1	7.573974E-1
2.910030E+2	7.719998E-1	8.619272E-1	7.836147E-1	8.620850E-1	8.158975E-1	7.982693E-1	7.993478E-1	7.830473E-1	8.964954E-1	8.423035E-1	8.312750E-1	8.448622E-1	8.543023E-1	8.153278E-1	8.131980E-1	8.461848E-1	8.463352E-1	9.012769E-1	8.629310E-1	8.264845E-1	8.928868E-1	8.542004E-1	8.823176E-1	8.225456E-1	8.406994E-1	9.046695E-1	8.626818E-1	8.756340E-1	9.014267E-1	8.695128E-1	8.580894E-1	8.446584E-1	8.343439E-1	8.539340E-1	9.163197E-1	8.204952E-1	8.584916E-1	8.594838E-1	7.987167E-1	8.521686E-1	8.804648E-1	8.657379E-1	8.917433E-1	8.087660E-1	8.731376E-1	8.063052E-1	8.810108E-1	8.985815E-1	8.052386E-1	8.285227E-1	8.572705E-1	8.806870E-1	9.276145E-1	8.169710E-1	8.948400E-1	8.545189E-1	8.109788E-1	8.481677E-1	8.812194E-1	8.544051E-1	8.636349E-1	8.237398E-1	8.152468E-1	8.203880E-1	7.737241E-1	7.745216E-1	8.554205E-1	8.613709E-1	8.333182E-1	8.316387E-1	8.730110E-1	8.057201E-1	8.356921E-1	7.918204E-1	8.235985E-1	8.928273E-1	9.059159E-1	8.221609E-1	8.230499E-1	8.434793E-1	9.245977E-1	9.147621E-1	8.512050E-1	8.314443E-1	8.744879E-1	8.417342E-1	8.859505E-1	8.840524E-1	8.795354E-1	8.826228E-1	8.408374E-1	8.279482E-1	8.198595E-1	8.210982E-1	8.457415E-1	8.524975E-1	8.061583E-1	8.699870E-1	7.519480E-1	8.102856E-1	8.561031E-1	7.896503E-1	8.696815E-1	8.553235E-1	8.750865E-1	9.894000E-1	7.628629E-1	8.358282E-1	8.193054E-1	8.885815E-1	8.663786E-1	8.686890E-1	8.968540E-1	7.901065E-1	7.930753E-1	8.297052E-1	8.737875E-1	7.885881E-1	8.766814E-1	9.353333E-1	8.256447E-1	8.046067E-1	9.156069E-1	8.842263E-1	8.093241E-1	8.250498E-1	8.202958E-1	8.535629E-1	8.753047E-1	8.557712E-1	8.314633E-1	8.086421E-1	8.465062E-1	8.603188E-1	8.131289E-1	8.333062E-1	8.389933E-1	8.314030E-1	8.711296E-1	8.584199E-1	8.247615E-1	8.645012E-1	8.715523E-1	9.290097E-1	8.608265E-1	8.794656E-1	8.313288E-1	8.767026E-1	8.425421E-1	8.800685E-1	7.956262E-1	8.783979E-1	8.660865E-1	8.561541E-1	8.456061E-1	8.185454E-1	8.609180E-1	7.977740E-1	8.126643E-1	8.376662E-1	8.430653E-1	8.409070E-1	8.113921E-1	8.656920E-1	8.476640E-1	8.413343E-1	8.731599E-1	8.632436E-1	8.773902E-1	8.001868E-1	9.116864E-1
2.915150E+2	1.178244E+0	1.127786E+0	1.179648E+0	1.114801E+0	1.146344E+0	1.176811E+0	1.143750E+0	1.125293E+0	1.188323E+0	1.128791E+0	1.139965E+0	1.118750E+0	1.175055E+0	1.159096E+0	1.138743E+0	1.171895E+0	1.089379E+0	1.155802E+0	1.196127E+0	1.140317E+0	1.141050E+0	1.178927E+0	1.132308E+0	1.143410E+0	1.083524E+0	1.127134E+0	1.234067E+0	1.193465E+0	1.151336E+0	1.155712E+0	1.187808E+0	1.089590E+0	1.132497E+0	1.151662E+0	1.218672E+0	1.117364E+0	1.117272E+0	1.104784E+0	1.194066E+0	1.128596E+0	1.124929E+0	1.155862E+0	1.166137E+0	1.054545E+0	1.148667E+0	1.136038E+0	1.216904E+0	1.104422E+0	1.158246E+0	1.106490E+0	1.169357E+0	1.193612E+0	1.194985E+0	1.171597E+0	1.145330E+0	1.093097E+0	1.139490E+0	1.095846E+0	1.188451E+0	1.192084E+0	1.129037E+0	1.175885E+0	1.207120E+0	1.162210E+0	1.187988E+0	1.183028E+0	1.195616E+0	1.126467E+0	1.209332E+0	1.186807E+0	1.178638E+0	1.154278E+0	1.166390E+0	1.157967E+0	1.223616E+0	1.209324E+0	1.152650E+0	1.120711E+0	1.188568E+0	1.181345E+0	1.176493E+0	1.156898E+0	1.208722E+0	1.174371E+0	1.106918E+0	1.189668E+0	1.162511E+0	1.104253E+0	1.159475E+0	1.150386E+0	1.139566E+0	1.146780E+0	1.215795E+0	1.194817E+0	1.173043E+0	1.169352E+0	1.192387E+0	1.206350E+0	1.199992E+0	1.186675E+0	1.176559E+0	1.150192E+0	1.129433E+0	1.129351E+0	1.121429E+0	1.171335E+0	1.121678E+0	1.159175E+0	1.225019E+0	1.227997E+0	1.161331E+0	1.167372E+0	1.134899E+0	1.213432E+0	1.160918E+0	1.188632E+0	1.116065E+0	1.137798E+0	1.181783E+0	1.235008E+0	1.097058E+0	1.137155E+0	1.230355E+0	1.204039E+0	1.111979E+0	1.194354E+0	1.192741E+0	1.154848E+0	1.171596E+0	1.133847E+0	1.184113E+0	1.175483E+0	1.166869E+0	1.175429E+0	1.139568E+0	1.247746E+0	1.207035E+0	1.251391E+0	1.167805E+0	1.170310E+0	1.145736E+0	1.165529E+0	1.173444E+0	1.173444E+0	1.243447E+0	1.180628E+0	1.203162E+0	1.175457E+0	1.124630E+0	1.215738E+0	1.159527E+0	1.126348E+0	1.104926E+0	1.157108E+0	1.249164E+0	1.162029E+0	1.161663E+0	1.161516E+0	1.143781E+0	1.198517E+0	1.140145E+0	1.162117E+0	1.147656E+0	1.125188E+0	1.105456E+0	1.150081E+0	1.113463E+0	1.138426E+0	1.146552E+0	1.152919E+0	1.350222E+0
2.920000E+2	1.043826E+0	1.020956E+0	1.084270E+0	1.058407E+0	1.024890E+0	1.030356E+0	1.039971E+0	1.053839E+0	1.078825E+0	1.107961E+0	1.019654E+0	1.060194E+0	1.063721E+0	9.656528E-1	1.024238E+0	1.030252E+0	1.018392E+0	1.076684E+0	1.032743E+0	1.017618E+0	1.058526E+0	1.080712E+0	1.013574E+0	1.021871E+0	9.747001E-1	1.103334E+0	1.089391E+0	9.884123E-1	9.844315E-1	1.065811E+0	1.074820E+0	9.770852E-1	1.061610E+0	1.052077E+0	1.100602E+0	1.043924E+0	1.075973E+0	9.988867E-1	1.038068E+0	1.089283E+0	1.111060E+0	1.068569E+0	9.716326E-1	1.024564E+0	1.119848E+0	1.076429E+0	1.055601E+0	9.853614E-1	9.950812E-1	1.025539E+0	1.020538E+0	1.016944E+0	1.080998E+0	1.063206E+0	1.052004E+0	1.066337E+0	9.685859E-1	1.045342E+0	1.067738E+0	1.003667E+0	1.076409E+0	1.036140E+0	1.080588E+0	9.682228E-1	1.080518E+0	1.028003E+0	1.117227E+0	1.090619E+0	1.070725E+0	1.048184E+0	1.011032E+0	1.019599E+0	1.081803E+0	1.088694E+0	9.724611E-1	1.056571E+0	1.112692E+0	1.013376E+0	1.063004E+0	1.047954E+0	1.074166E+0	9.913611E-1	1.043282E+0	1.055302E+0	1.022426E+0	1.108551E+0	1.055679E+0	1.034117E+0	1.057443E+0	1.103968E+0	1.076014E+0	1.055636E+0	9.738176E-1	1.042189E+0	1.078635E+0	1.008251E+0	1.032190E+0	1.032709E+0	1.105953E+0	1.061275E+0	1.015862E+0	9.836015E-1	1.075244E+0	1.045098E+0	1.029191E+0	1.065867E+0	1.053655E+0	1.148842E+0	1.049265E+0	1.088854E+0	1.061830E+0	1.080511E+0	1.136150E+0	1.049021E+0	1.082839E+0	1.096056E+0	1.025078E+0	9.857095E-1	1.035745E+0	1.075430E+0	1.030044E+0	9.643073E-1	1.104369E+0	1.092912E+0	1.035207E+0	1.063351E+0	1.089569E+0	1.056451E+0	1.037783E+0	1.044630E+0	1.092317E+0	1.030160E+0	9.939859E-1	1.065316E+0	9.498374E-1	1.084481E+0	1.050961E+0	1.024802E+0	1.078507E+0	1.070424E+0	1.020345E+0	1.113623E+0	1.065357E+0	1.032888E+0	1.099323E+0	1.102213E+0	1.079329E+0	1.025691E+0	1.044185E+0	1.071017E+0	1.024735E+0	1.040488E+0	1.105023E+0	1.075208E+0	1.114702E+0	9.948465E-1	1.066882E+0	1.028251E+0	1.022972E+0	1.039023E+0	9.751402E-1	1.095416E+0	1.022722E+0	1.040846E+0	1.033716E+0	1.028353E+0	1.081501E+0	1.095260E+0	1.048464E+0	1.000896E+0	1.061335E+0
2.925020E+2	9.238756E-1	9.520128E-1	9.563218E-1	9.043302E-1	9.558175E-1	9.714252E-1	9.535809E-1	9.583443E-1	9.174272E-1	1.009597E+0	9.474390E-1	1.030098E+0	9.008351E-1	9.622633E-1	1.000532E+0	8.947435E-1	1.030860E+0	9.733147E-1	9.057074E-1	9.450058E-1	9.511285E-1	9.655114E-1	9.526123E-1	8.777680E-1	8.758248E-1	9.645232E-1	9.876478E-1	9.880285E-1	9.502366E-1	9.373844E-1	9.325249E-1	8.885198E-1	9.034719E-1	1.000102E+0	1.038074E+0	9.474285E-1	9.644140E-1	9.147605E-1	9.071282E-1	9.084557E-1	9.786816E-1	9.643872E-1	9.297986E-1	8.987528E-1	9.490139E-1	9.481612E-1	9.908597E-1	9.380038E-1	9.419080E-1	9.735624E-1	9.744368E-1	9.547403E-1	9.902113E-1	9.351386E-1	9.726968E-1	9.586378E-1	9.888276E-1	9.005933E-1	9.351315E-1	9.185706E-1	9.373345E-1	9.680887E-1	9.610612E-1	9.459750E-1	9.400981E-1	9.533046E-1	1.017032E+0	9.150492E-1	9.727418E-1	9.030671E-1	9.458247E-1	9.090037E-1	9.112261E-1	9.875677E-1	9.914862E-1	9.420593E-1	9.371261E-1	9.516770E-1	9.832969E-1	8.770948E-1	9.453476E-1	9.351571E-1	1.011856E+0	1.014054E+0	9.235982E-1	8.858369E-1	9.606685E-1	9.244340E-1	9.660810E-1	9.746702E-1	1.022071E+0	9.177016E-1	9.856400E-1	9.224312E-1	1.003865E+0	9.590640E-1	8.875587E-1	9.429606E-1	1.004237E+0	9.407112E-1	9.456465E-1	9.252945E-1	9.771299E-1	1.012612E+0	8.840793E-1	9.420123E-1	1.038278E+0	8.884635E-1	9.654337E-1	9.339659E-1	9.904683E-1	9.188293E-1	1.014340E+0	1.016606E+0	9.248499E-1	8.612668E-1	9.194724E-1	9.390888E-1	9.199402E-1	1.015570E+0	9.405150E-1	9.034106E-1	9.398643E-1	8.715802E-1	9.139478E-1	9.087098E-1	9.562336E-1	9.804126E-1	9.209762E-1	9.114349E-1	9.576434E-1	9.427740E-1	9.406901E-1	9.863057E-1	9.561875E-1	1.008430E+0	9.138893E-1	9.872268E-1	9.520104E-1	9.746723E-1	9.309105E-1	9.409555E-1	1.047505E+0	9.849704E-1	9.504873E-1	9.135404E-1	9.665022E-1	1.002351E+0	9.483165E-1	1.019900E+0	9.607484E-1	9.823632E-1	9.418476E-1	9.734456E-1	9.499782E-1	8.864525E-1	1.002309E+0	9.572397E-1	9.370338E-1	9.747459E-1	8.763193E-1	1.040996E+0	9.019117E-1	1.015768E+0	9.838409E-1	9.208739E-1	9.855658E-1	9.756583E-1	8.694194E-1	8.761698E-1	1.220630E+0
2.930040E+2	8.452756E-1	8.466809E-1	8.518508E-1	8.361537E-1	8.006089E-1	8.370158E-1	8.379254E-1	9.860535E-1	9.154431E-1	8.416232E-1	8.596920E-1	8.685514E-1	9.104001E-1	8.690742E-1	9.087142E-1	8.579744E-1	8.072937E-1	8.855510E-1	8.724826E-1	8.198110E-1	9.053971E-1	8.287760E-1	8.487442E-1	8.426090E-1	8.466856E-1	8.464675E-1	8.761858E-1	8.327592E-1	9.038330E-1	8.295966E-1	8.680346E-1	8.716320E-1	8.546042E-1	9.151355E-1	8.881577E-1	8.054637E-1	9.251329E-1	8.673130E-1	8.826302E-1	8.585386E-1	8.516797E-1	8.768325E-1	8.822439E-1	8.468560E-1	8.545254E-1	8.135750E-1	8.707750E-1	8.288935E-1	9.209714E-1	8.393102E-1	9.491096E-1	8.612041E-1	8.804432E-1	8.752741E-1	8.365867E-1	8.653198E-1	8.541968E-1	8.442463E-1	8.547676E-1	8.135991E-1	8.080326E-1	7.827870E-1	7.924549E-1	8.407423E-1	8.804152E-1	9.004070E-1	8.798786E-1	8.562169E-1	8.252783E-1	8.331462E-1	8.553537E-1	9.434732E-1	8.590962E-1	8.780432E-1	9.060467E-1	8.546252E-1	8.648847E-1	8.463891E-1	9.039758E-1	8.371074E-1	8.392554E-1	8.695775E-1	8.513192E-1	8.796613E-1	8.489161E-1	8.470116E-1	8.615179E-1	8.471176E-1	8.558968E-1	8.978897E-1	9.235046E-1	8.133630E-1	8.191814E-1	8.878986E-1	8.596492E-1	8.527601E-1	8.582740E-1	9.213921E-1	9.343971E-1	7.863180E-1	8.725553E-1	8.369354E-1	8.166208E-1	8.160616E-1	8.463082E-1	9.177932E-1	8.594474E-1	8.555989E-1	8.997064E-1	8.795556E-1	8.489811E-1	7.763179E-1	8.226873E-1	8.677463E-1	8.806689E-1	8.021906E-1	8.847359E-1	8.309523E-1	8.426111E-1	8.550751E-1	8.430155E-1	8.392058E-1	8.533651E-1	8.550340E-1	8.101954E-1	8.017081E-1	8.792859E-1	8.752697E-1	8.561909E-1	8.077504E-1	8.577286E-1	8.392906E-1	8.788656E-1	8.589646E-1	8.410949E-1	8.838166E-1	8.865396E-1	9.226476E-1	8.941437E-1	8.229334E-1	8.388988E-1	8.928045E-1	8.877863E-1	8.888941E-1	8.700091E-1	8.690186E-1	8.591643E-1	9.211207E-1	8.924956E-1	8.976390E-1	8.132047E-1	8.191987E-1	8.926751E-1	8.669545E-1	8.627344E-1	7.834587E-1	8.724764E-1	8.747482E-1	8.657665E-1	8.839490E-1	8.355041E-1	9.075205E-1	8.277412E-1	8.978705E-1	8.681551E-1	8.232899E-1	9.467889E-1	8.599273E-1	8.626726E-1	8.508157E-1	9.043430E-1
2.935110E+2	1.129356E+0	1.114650E+0	1.051025E+0	1.057372E+0	1.052223E+0	1.061596E+0	1.101030E+0	1.045541E+0	1.073518E+0	1.076057E+0	1.047025E+0	1.043113E+0	1.066286E+0	1.079308E+0	1.073343E+0	1.104562E+0	1.121801E+0	1.102378E+0	1.082502E+0	1.051623E+0	1.066689E+0	1.043480E+0	1.087640E+0	1.031064E+0	1.059619E+0	1.027781E+0	1.101580E+0	1.033631E+0	1.112634E+0	1.081104E+0	1.073028E+0	1.118413E+0	1.016262E+0	1.097528E+0	1.076341E+0	1.023279E+0	1.099468E+0	1.040544E+0	1.064875E+0	1.015567E+0	1.059274E+0	1.026581E+0	1.028231E+0	1.137329E+0	1.051689E+0	1.044143E+0	1.110059E+0	1.034681E+0	1.055884E+0	1.032736E+0	1.016403E+0	1.077493E+0	1.110715E+0	1.126190E+0	9.882441E-1	1.086089E+0	1.040567E+0	1.073750E+0	1.075252E+0	1.019849E+0	1.060190E+0	1.053213E+0	1.155134E+0	1.145983E+0	1.032354E+0	1.052110E+0	1.014249E+0	1.039619E+0	1.099266E+0	1.122332E+0	1.069341E+0	1.070831E+0	1.080016E+0	1.006013E+0	1.058421E+0	1.034153E+0	1.051571E+0	1.066863E+0	1.036364E+0	1.083999E+0	1.091740E+0	1.000399E+0	1.159904E+0	1.052733E+0	1.064388E+0	1.119574E+0	1.035513E+0	1.101210E+0	1.056401E+0	1.086781E+0	1.120906E+0	1.017462E+0	1.000912E+0	1.080454E+0	1.151912E+0	1.053778E+0	1.066426E+0	1.036255E+0	1.057292E+0	1.062276E+0	1.098273E+0	1.060993E+0	1.061402E+0	1.071884E+0	1.016938E+0	1.143498E+0	1.081432E+0	1.105971E+0	1.150286E+0	1.046316E+0	1.139603E+0	1.072009E+0	1.094670E+0	1.094397E+0	1.047354E+0	1.015273E+0	1.035103E+0	1.085227E+0	1.060684E+0	1.076017E+0	1.117910E+0	1.078128E+0	1.087550E+0	1.115644E+0	1.036060E+0	1.069438E+0	1.073775E+0	1.076385E+0	1.032782E+0	1.054325E+0	1.114215E+0	1.071217E+0	1.004335E+0	1.081692E+0	1.085652E+0	1.125594E+0	1.113775E+0	1.095443E+0	1.071578E+0	1.066612E+0	1.039616E+0	1.076946E+0	1.103657E+0	1.071618E+0	1.036876E+0	1.028003E+0	1.069612E+0	1.039762E+0	1.087870E+0	1.065374E+0	1.073792E+0	1.067656E+0	1.130785E+0	1.047487E+0	1.077511E+0	1.049927E+0	1.042198E+0	1.070370E+0	1.012853E+0	1.041982E+0	1.087200E+0	1.152141E+0	1.083939E+0	1.061457E+0	1.072821E+0	1.094501E+0	1.086237E+0	1.110064E+0	1.061065E+0	1.082052E+0	1.194062E+0
2.940070E+2	1.174727E+0	1.142339E+0	1.173722E+0	1.136420E+0	1.140828E+0	1.164695E+0	1.115692E+0	1.105638E+0	1.090341E+0	1.142512E+0	1.146902E+0	1.211058E+0	1.104575E+0	1.107312E+0	1.141360E+0	1.205855E+0	1.138782E+0	1.150225E+0	1.193564E+0	1.142896E+0	1.178531E+0	1.141594E+0	1.172717E+0	1.102179E+0	1.178747E+0	1.140859E+0	1.105945E+0	1.173476E+0	1.183651E+0	1.116819E+0	1.129012E+0	1.102483E+0	1.114132E+0	1.103428E+0	1.213179E+0	1.158215E+0	1.147913E+0	1.066198E+0	1.174708E+0	1.070683E+0	1.144004E+0	1.097925E+0	1.120301E+0	1.169018E+0	1.144602E+0	1.176946E+0	1.206651E+0	1.148491E+0	1.213052E+0	1.174864E+0	1.135310E+0	1.166901E+0	1.221258E+0	1.131368E+0	1.162318E+0	1.102673E+0	1.094103E+0	1.151751E+0	1.184053E+0	1.121918E+0	1.106856E+0	1.064928E+0	1.122788E+0	1.121300E+0	1.143957E+0	1.085434E+0	1.181810E+0	1.133809E+0	1.192808E+0	1.109943E+0	1.188824E+0	1.186538E+0	1.168869E+0	1.187758E+0	1.118395E+0	1.086171E+0	1.150795E+0	1.129388E+0	1.160721E+0	1.174073E+0	1.139551E+0	1.115978E+0	1.161665E+0	1.173457E+0	1.133966E+0	1.156388E+0	1.143621E+0	1.127288E+0	1.134062E+0	1.103610E+0	1.183316E+0	1.111045E+0	1.172727E+0	1.168222E+0	1.154843E+0	1.200486E+0	1.177512E+0	1.128676E+0	1.122626E+0	1.150586E+0	1.093014E+0	1.050747E+0	1.091522E+0	1.118371E+0	1.120150E+0	1.163991E+0	1.113334E+0	1.112119E+0	1.128086E+0	1.129571E+0	1.179084E+0	1.087223E+0	1.162804E+0	1.186516E+0	1.146926E+0	1.116188E+0	1.225698E+0	1.151604E+0	1.159145E+0	1.136032E+0	1.129718E+0	1.089357E+0	1.260211E+0	1.241007E+0	1.107008E+0	1.131199E+0	1.123786E+0	1.166922E+0	1.036615E+0	1.142525E+0	1.197008E+0	1.202001E+0	1.106569E+0	1.112821E+0	1.138861E+0	1.170907E+0	1.177864E+0	1.174287E+0	1.183338E+0	1.077713E+0	1.147394E+0	1.175976E+0	1.143757E+0	1.192846E+0	1.119632E+0	1.112398E+0	1.169328E+0	1.125399E+0	1.099186E+0	1.098986E+0	1.105225E+0	1.161046E+0	1.136201E+0	1.087694E+0	1.166868E+0	1.148631E+0	1.175951E+0	1.127557E+0	1.166852E+0	1.133626E+0	1.125550E+0	1.124215E+0	1.157877E+0	1.144866E+0	1.077790E+0	1.179999E+0	1.173179E+0	1.193325E+0	1.018632E+0	1.111690E+0	1.191339E+0
2.945030E+2	1.078536E+0	1.079550E+0	1.068660E+0	1.061969E+0	1.035441E+0	1.100029E+0	1.119827E+0	1.092161E+0	1.113623E+0	1.037679E+0	1.124762E+0	1.102313E+0	1.077082E+0	1.028702E+0	1.040945E+0	1.136170E+0	1.067192E+0	1.095102E+0	1.107996E+0	1.030290E+0	1.105973E+0	1.086473E+0	9.768257E-1	1.068297E+0	1.112538E+0	1.072313E+0	1.127765E+0	1.043151E+0	1.113416E+0	1.150018E+0	1.151373E+0	1.007255E+0	1.094252E+0	1.079900E+0	1.100645E+0	1.046695E+0	1.107219E+0	9.770230E-1	1.064374E+0	1.056970E+0	1.053703E+0	1.121367E+0	1.054108E+0	1.078107E+0	1.029903E+0	1.103995E+0	1.073875E+0	1.132957E+0	1.148637E+0	1.066204E+0	1.098598E+0	1.034711E+0	1.075380E+0	1.097908E+0	1.038397E+0	1.080098E+0	1.013363E+0	1.083059E+0	1.130546E+0	1.088580E+0	1.052268E+0	1.072224E+0	1.063075E+0	1.089887E+0	1.050980E+0	1.037967E+0	1.106867E+0	1.062552E+0	1.082727E+0	1.026777E+0	1.124702E+0	1.048659E+0	1.091033E+0	1.078212E+0	1.055626E+0	1.114422E+0	1.084537E+0	1.063152E+0	1.120620E+0	1.052681E+0	1.076495E+0	1.059637E+0	1.110391E+0	9.579258E-1	1.017833E+0	1.109570E+0	1.095303E+0	1.005631E+0	1.068756E+0	1.083654E+0	1.041146E+0	1.108261E+0	1.064728E+0	1.045509E+0	1.054154E+0	1.056833E+0	1.045246E+0	1.083102E+0	1.084672E+0	1.085542E+0	1.079283E+0	9.984799E-1	1.054476E+0	1.102022E+0	1.093837E+0	1.146856E+0	1.038596E+0	1.058791E+0	1.060644E+0	1.079619E+0	1.097714E+0	1.075570E+0	1.072953E+0	1.058830E+0	1.101242E+0	1.027413E+0	1.054141E+0	1.070496E+0	1.042093E+0	1.135391E+0	1.099883E+0	1.031967E+0	1.094563E+0	1.117653E+0	1.049114E+0	1.084138E+0	1.083582E+0	1.141661E+0	1.030360E+0	1.041522E+0	1.052435E+0	1.013592E+0	1.047948E+0	1.114608E+0	1.004407E+0	1.060047E+0	1.014588E+0	1.060585E+0	1.125970E+0	1.122842E+0	1.052803E+0	1.035353E+0	1.086963E+0	1.032320E+0	1.109534E+0	1.047391E+0	1.100663E+0	1.100995E+0	1.098401E+0	1.117717E+0	1.051270E+0	1.045544E+0	1.077732E+0	1.049596E+0	1.064390E+0	1.081297E+0	1.032136E+0	1.027334E+0	1.081792E+0	1.048818E+0	1.043765E+0	1.082185E+0	1.045001E+0	1.086678E+0	1.091322E+0	1.029271E+0	1.081791E+0	1.076763E+0	9.872860E-1	1.003973E+0	1.109462E+0
2.950050E+2	9.490238E-1	9.652374E-1	1.008563E+0	8.995436E-1	9.481348E-1	1.050229E+0	9.962833E-1	9.431221E-1	1.007861E+0	9.076054E-1	9.635172E-1	9.336667E-1	9.073415E-1	9.287662E-1	9.595244E-1	9.043354E-1	9.404485E-1	9.610047E-1	1.020159E+0	9.978973E-1	9.574043E-1	9.750800E-1	9.516409E-1	9.792122E-1	9.191083E-1	9.581200E-1	9.992902E-1	9.745042E-1	9.733784E-1	9.462578E-1	1.045819E+0	9.626589E-1	9.858215E-1	9.384404E-1	9.735085E-1	1.027309E+0	9.387803E-1	9.489374E-1	9.746033E-1	9.307948E-1	9.531509E-1	9.396926E-1	9.641206E-1	9.471909E-1	9.640673E-1	8.976882E-1	9.909986E-1	9.685639E-1	1.000420E+0	9.388573E-1	9.631411E-1	9.762654E-1	9.225995E-1	9.349842E-1	1.009825E+0	9.624524E-1	9.404359E-1	9.665450E-1	9.442004E-1	9.144041E-1	9.544134E-1	1.000932E+0	9.754607E-1	1.008321E+0	9.017722E-1	9.442241E-1	9.790198E-1	9.382554E-1	9.171175E-1	9.682166E-1	9.702507E-1	9.112917E-1	9.094197E-1	9.004306E-1	9.335483E-1	9.470385E-1	9.765010E-1	9.281085E-1	9.818430E-1	9.239329E-1	9.729725E-1	9.595429E-1	9.467157E-1	9.897428E-1	9.596016E-1	9.648334E-1	9.248726E-1	9.243289E-1	9.483075E-1	9.721372E-1	9.641003E-1	1.033224E+0	8.778058E-1	9.940238E-1	9.193381E-1	9.344513E-1	9.644406E-1	9.361659E-1	9.746847E-1	9.674303E-1	9.534446E-1	9.295605E-1	9.592912E-1	9.520067E-1	1.015037E+0	9.493029E-1	9.311927E-1	9.517989E-1	9.692187E-1	9.918658E-1	9.619003E-1	9.051226E-1	9.957828E-1	9.654819E-1	9.826391E-1	9.609681E-1	9.702233E-1	9.571126E-1	9.313096E-1	9.052166E-1	9.758497E-1	9.455778E-1	9.963325E-1	1.002111E+0	9.705284E-1	9.113887E-1	1.062607E+0	9.758428E-1	8.982703E-1	9.861397E-1	9.880863E-1	8.864871E-1	9.248907E-1	9.410103E-1	9.432236E-1	9.498454E-1	9.145486E-1	9.770376E-1	9.991272E-1	9.713559E-1	9.281608E-1	9.802426E-1	1.065333E+0	9.945516E-1	9.801581E-1	9.568900E-1	9.624627E-1	9.590671E-1	9.981374E-1	9.033901E-1	8.923282E-1	9.467658E-1	9.674984E-1	9.389244E-1	1.021289E+0	9.849174E-1	9.598118E-1	9.533197E-1	9.356321E-1	1.010731E+0	9.283355E-1	9.240337E-1	9.289274E-1	9.791900E-1	9.951466E-1	8.856385E-1	9.828879E-1	9.887127E-1	8.793075E-1	9.642998E-1	1.014768E+0
2.955070E+2	9.661294E-1	1.069852E+0	1.000150E+0	1.026833E+0	9.973595E-1	1.072342E+0	1.016453E+0	1.025010E+0	1.042268E+0	9.949693E-1	9.900528E-1	1.001308E+0	1.022396E+0	9.721481E-1	1.037338E+0	1.066996E+0	1.040623E+0	1.009753E+0	1.018953E+0	1.041517E+0	1.088422E+0	1.000767E+0	9.984916E-1	1.034041E+0	1.054767E+0	1.045139E+0	1.073225E+0	9.724572E-1	1.079786E+0	1.023056E+0	9.886122E-1	1.044668E+0	1.088555E+0	1.028480E+0	1.056337E+0	9.881791E-1	1.086077E+0	9.731635E-1	1.029645E+0	1.015405E+0	9.889852E-1	1.041381E+0	9.768720E-1	1.014589E+0	1.046338E+0	1.030383E+0	1.016677E+0	1.048512E+0	9.866795E-1	1.079755E+0	9.965952E-1	1.004171E+0	1.069380E+0	9.993015E-1	1.023912E+0	9.905324E-1	1.076671E+0	1.046455E+0	1.006248E+0	1.012801E+0	9.897020E-1	1.043142E+0	1.064002E+0	1.096440E+0	1.024369E+0	1.049233E+0	1.060894E+0	1.042489E+0	9.565725E-1	1.029758E+0	1.079153E+0	1.104286E+0	1.017711E+0	1.090605E+0	1.070321E+0	9.662946E-1	1.045462E+0	1.005503E+0	1.064478E+0	9.988711E-1	1.014447E+0	1.008808E+0	1.057324E+0	1.023676E+0	9.930204E-1	1.009720E+0	9.922470E-1	1.055693E+0	1.022591E+0	1.055588E+0	1.082642E+0	1.032861E+0	1.022043E+0	1.035082E+0	1.073580E+0	9.908508E-1	1.022311E+0	1.007630E+0	1.000455E+0	1.005878E+0	9.844588E-1	9.893034E-1	9.851728E-1	1.035917E+0	9.603784E-1	1.074916E+0	1.048447E+0	1.049998E+0	1.076872E+0	1.029646E+0	1.123224E+0	9.528434E-1	1.004003E+0	1.046123E+0	9.707740E-1	1.041024E+0	9.872445E-1	9.885835E-1	1.089334E+0	1.009632E+0	1.049043E+0	1.020372E+0	9.982954E-1	1.061706E+0	9.862307E-1	1.043469E+0	1.012824E+0	1.020661E+0	1.066651E+0	1.037514E+0	1.042554E+0	1.033037E+0	1.011911E+0	1.066603E+0	9.883632E-1	1.045729E+0	1.063571E+0	9.671805E-1	1.033549E+0	1.059447E+0	9.921176E-1	1.023685E+0	1.090754E+0	1.045123E+0	1.039079E+0	9.678980E-1	1.035004E+0	9.774946E-1	9.945140E-1	9.995640E-1	1.000181E+0	1.052216E+0	1.017266E+0	1.012377E+0	1.033494E+0	9.630240E-1	1.055235E+0	9.897988E-1	1.097151E+0	1.022693E+0	9.698765E-1	9.923753E-1	1.023189E+0	9.850042E-1	1.054815E+0	9.506837E-1	1.068526E+0	9.890482E-1	9.780783E-1	1.094057E+0	1.023040E+0
2.960050E+2	1.069242E+0	1.161409E+0	1.160989E+0	1.190388E+0	1.096339E+0	1.107267E+0	1.126058E+0	1.131255E+0	1.154165E+0	1.178659E+0	1.129741E+0	1.151133E+0	1.175521E+0	1.133239E+0	1.144610E+0	1.184798E+0	1.156881E+0	1.194190E+0	1.196730E+0	1.182731E+0	1.157348E+0	1.172622E+0	1.123600E+0	1.192252E+0	1.090104E+0	1.166526E+0	1.130041E+0	1.169403E+0	1.102207E+0	1.180126E+0	1.132414E+0	1.180329E+0	1.146867E+0	1.189544E+0	1.199569E+0	1.154340E+0	1.197740E+0	1.080831E+0	1.127093E+0	1.150133E+0	1.101825E+0	1.173124E+0	1.114197E+0	1.100031E+0	1.151315E+0	1.111716E+0	1.143899E+0	1.124842E+0	1.134147E+0	1.199114E+0	1.169889E+0	1.156251E+0	1.219996E+0	1.161100E+0	1.085173E+0	1.146222E+0	1.134106E+0	1.125353E+0	1.182095E+0	1.080112E+0	1.103439E+0	1.139239E+0	1.171205E+0	1.148049E+0	1.200514E+0	1.162848E+0	1.142467E+0	1.136011E+0	1.156455E+0	1.079771E+0	1.237823E+0	1.190057E+0	1.133552E+0	1.168167E+0	1.073829E+0	1.069581E+0	1.121295E+0	1.116127E+0	1.175493E+0	1.074255E+0	1.119444E+0	1.186721E+0	1.183148E+0	1.148896E+0	1.100375E+0	1.172681E+0	1.129396E+0	1.126183E+0	1.110442E+0	1.145569E+0	1.151946E+0	1.180424E+0	1.141226E+0	1.184645E+0	1.202985E+0	1.113180E+0	1.165860E+0	1.062020E+0	1.167146E+0	1.100750E+0	1.191336E+0	1.118432E+0	1.181398E+0	1.143755E+0	1.104261E+0	1.208818E+0	1.127328E+0	1.146403E+0	1.191524E+0	1.132470E+0	1.205934E+0	1.124573E+0	1.133653E+0	1.176768E+0	1.099409E+0	1.162739E+0	1.152294E+0	1.133391E+0	1.171141E+0	1.097942E+0	1.150832E+0	1.085740E+0	1.214230E+0	1.205774E+0	1.166670E+0	1.123772E+0	1.213344E+0	1.213761E+0	1.123925E+0	1.082251E+0	1.116869E+0	1.151464E+0	1.116772E+0	1.136617E+0	1.129609E+0	1.154837E+0	1.155014E+0	1.125896E+0	1.177423E+0	1.212218E+0	1.107180E+0	1.165457E+0	1.200292E+0	1.092497E+0	1.173418E+0	1.120216E+0	1.116658E+0	1.148469E+0	1.200072E+0	1.143282E+0	1.160524E+0	1.193012E+0	1.163605E+0	1.090147E+0	1.098535E+0	1.145171E+0	1.116729E+0	1.216810E+0	1.151420E+0	1.095409E+0	1.128790E+0	1.191815E+0	1.126998E+0	1.122688E+0	1.125512E+0	1.135040E+0	1.198219E+0	1.134872E+0	1.114979E+0	1.091975E+0	1.259285E+0
2.964990E+2	9.915223E-1	1.043758E+0	1.002188E+0	9.409555E-1	9.629651E-1	9.853992E-1	9.602061E-1	9.501360E-1	9.933690E-1	9.719656E-1	9.882259E-1	1.059158E+0	9.525780E-1	9.818382E-1	9.903293E-1	9.874215E-1	9.978468E-1	9.691369E-1	9.825711E-1	1.094059E+0	9.774661E-1	1.022808E+0	9.756334E-1	1.000393E+0	9.394273E-1	1.023835E+0	9.946491E-1	1.052183E+0	9.890799E-1	1.043571E+0	9.288616E-1	9.706923E-1	9.567741E-1	1.023101E+0	9.975001E-1	9.924523E-1	9.849483E-1	9.932122E-1	1.006891E+0	9.712094E-1	9.806608E-1	9.665259E-1	9.672557E-1	9.793282E-1	1.004104E+0	9.547134E-1	9.568109E-1	9.904109E-1	9.850143E-1	9.803988E-1	9.411819E-1	9.724997E-1	9.587377E-1	1.027953E+0	9.981000E-1	9.971440E-1	9.701809E-1	9.698947E-1	1.043102E+0	1.015313E+0	9.811218E-1	9.617890E-1	9.681412E-1	1.074010E+0	1.004706E+0	9.964071E-1	9.797866E-1	9.809652E-1	1.028927E+0	9.350158E-1	1.000422E+0	9.935525E-1	9.562871E-1	9.986140E-1	9.752728E-1	1.011744E+0	9.961779E-1	1.045662E+0	1.017097E+0	9.885391E-1	9.834323E-1	9.732446E-1	1.023909E+0	9.988642E-1	9.914162E-1	1.035049E+0	9.580013E-1	9.724391E-1	9.776957E-1	9.767138E-1	9.753509E-1	9.733720E-1	9.804111E-1	9.795010E-1	9.808959E-1	9.851144E-1	9.550779E-1	9.516786E-1	1.052532E+0	9.820173E-1	1.038354E+0	9.377509E-1	9.758049E-1	1.018649E+0	1.007497E+0	9.835349E-1	9.669955E-1	9.900837E-1	1.003080E+0	9.875916E-1	9.949588E-1	9.760564E-1	9.621094E-1	9.790258E-1	9.568542E-1	9.678148E-1	9.293725E-1	9.965871E-1	1.033341E+0	1.013046E+0	9.929497E-1	9.668813E-1	1.010304E+0	9.813292E-1	1.002839E+0	9.781247E-1	1.080208E+0	9.755236E-1	9.345088E-1	9.669120E-1	9.580373E-1	9.484693E-1	9.539386E-1	9.521889E-1	9.837628E-1	1.014245E+0	1.010716E+0	9.853843E-1	9.982558E-1	9.938331E-1	9.717520E-1	9.994231E-1	1.068290E+0	1.009123E+0	9.833032E-1	9.523619E-1	1.029988E+0	9.740832E-1	9.642004E-1	9.524753E-1	9.543830E-1	9.599931E-1	9.503856E-1	9.201676E-1	9.632738E-1	9.903702E-1	9.664443E-1	9.932131E-1	9.837934E-1	9.752273E-1	9.945140E-1	9.766989E-1	9.761294E-1	9.979276E-1	9.745039E-1	9.580795E-1	9.826734E-1	9.839153E-1	9.627939E-1	9.037519E-1	1.064472E+0
2.970020E+2	8.415605E-1	8.586498E-1	8.180760E-1	7.940394E-1	7.842679E-1	7.922274E-1	8.374649E-1	7.828192E-1	8.155655E-1	7.699229E-1	7.763533E-1	8.190444E-1	8.425625E-1	8.375113E-1	8.032293E-1	8.216708E-1	7.803199E-1	8.426878E-1	8.359651E-1	8.240934E-1	8.130746E-1	8.099442E-1	8.049048E-1	8.110111E-1	8.261509E-1	8.027206E-1	7.933268E-1	8.117930E-1	8.332507E-1	8.354532E-1	8.006499E-1	8.018003E-1	8.196440E-1	7.713410E-1	7.634826E-1	8.960253E-1	7.555686E-1	8.390950E-1	8.174560E-1	7.597355E-1	8.246831E-1	8.086567E-1	7.815039E-1	8.196629E-1	8.296561E-1	8.094222E-1	7.837910E-1	8.320201E-1	7.928345E-1	8.470268E-1	8.240176E-1	8.451515E-1	8.430993E-1	7.567423E-1	8.287046E-1	7.800081E-1	8.088430E-1	8.086352E-1	7.912096E-1	7.619976E-1	8.095016E-1	8.413913E-1	7.969549E-1	8.685146E-1	8.126979E-1	8.091412E-1	8.014541E-1	7.904990E-1	7.804532E-1	8.035950E-1	7.529153E-1	8.176481E-1	8.186672E-1	8.184771E-1	7.974993E-1	8.039166E-1	8.627698E-1	8.078166E-1	8.079358E-1	8.033390E-1	8.364945E-1	8.351975E-1	8.106012E-1	7.970217E-1	8.294403E-1	8.547620E-1	8.126564E-1	7.991929E-1	8.087612E-1	8.022617E-1	8.271570E-1	8.173480E-1	8.072479E-1	8.620039E-1	8.103399E-1	8.494916E-1	8.214573E-1	8.075725E-1	8.477250E-1	7.928801E-1	8.057781E-1	8.014664E-1	7.971111E-1	7.896679E-1	8.070468E-1	8.705445E-1	8.482088E-1	8.475131E-1	8.176028E-1	8.171484E-1	8.329381E-1	8.380851E-1	8.543592E-1	8.256605E-1	8.441943E-1	7.609732E-1	7.664723E-1	7.955423E-1	8.276841E-1	7.905517E-1	8.014437E-1	7.929136E-1	7.627649E-1	7.914295E-1	8.199149E-1	7.860571E-1	8.212484E-1	8.368198E-1	8.162212E-1	7.909496E-1	8.534657E-1	8.203305E-1	7.673625E-1	8.036159E-1	7.913508E-1	8.645771E-1	8.764490E-1	8.175343E-1	8.102980E-1	8.406058E-1	7.766996E-1	8.019982E-1	8.387670E-1	8.052691E-1	8.534644E-1	8.213592E-1	8.145186E-1	8.125020E-1	8.182548E-1	8.459286E-1	7.948778E-1	8.117530E-1	8.543318E-1	8.151609E-1	8.773435E-1	8.236761E-1	7.995662E-1	8.092771E-1	8.307668E-1	8.233049E-1	7.788036E-1	7.869852E-1	8.559326E-1	7.721430E-1	8.410588E-1	8.504772E-1	8.631437E-1	8.885135E-1	8.179405E-1	8.335419E-1	8.253101E-1
2.975020E+2	8.341720E-1	8.192720E-1	8.147348E-1	8.089056E-1	8.218195E-1	8.407493E-1	8.138151E-1	7.960054E-1	8.570538E-1	8.637043E-1	8.488535E-1	8.100796E-1	8.394251E-1	8.262056E-1	8.276298E-1	8.221336E-1	8.410710E-1	8.322709E-1	7.833928E-1	8.545763E-1	8.522978E-1	8.519984E-1	8.243997E-1	8.251380E-1	8.254986E-1	8.222844E-1	7.931717E-1	7.836318E-1	8.640962E-1	8.201720E-1	8.242566E-1	8.369520E-1	9.018299E-1	8.580656E-1	8.024696E-1	8.184340E-1	8.333462E-1	8.317459E-1	8.379183E-1	8.541599E-1	8.700407E-1	8.110756E-1	8.082078E-1	8.223365E-1	7.980298E-1	8.156325E-1	7.993110E-1	8.422359E-1	8.421570E-1	8.521729E-1	8.253870E-1	8.663060E-1	8.404362E-1	8.044056E-1	7.646035E-1	8.280077E-1	8.111330E-1	7.932895E-1	8.787592E-1	8.323563E-1	8.036348E-1	8.323462E-1	8.099855E-1	7.983888E-1	8.329549E-1	8.428332E-1	8.177671E-1	8.262735E-1	8.075326E-1	7.909145E-1	7.964431E-1	8.365622E-1	8.708990E-1	7.872272E-1	8.157649E-1	8.572283E-1	8.506331E-1	8.187964E-1	8.553234E-1	8.225998E-1	8.280501E-1	8.715576E-1	8.075567E-1	8.265377E-1	8.195605E-1	8.276849E-1	8.344921E-1	8.537938E-1	8.561946E-1	8.235744E-1	8.596655E-1	8.540021E-1	8.471763E-1	8.548363E-1	8.535176E-1	8.321227E-1	8.412457E-1	8.416255E-1	8.662226E-1	8.740635E-1	8.567792E-1	8.621650E-1	8.275088E-1	8.341187E-1	8.558011E-1	8.239576E-1	8.074108E-1	8.382230E-1	8.093359E-1	8.257980E-1	8.460875E-1	8.181969E-1	8.462240E-1	8.339036E-1	8.607420E-1	7.995945E-1	7.935097E-1	7.987647E-1	8.396238E-1	8.026839E-1	8.431400E-1	8.106714E-1	8.402962E-1	8.194186E-1	8.061222E-1	8.551346E-1	8.468064E-1	8.679030E-1	8.041190E-1	8.374772E-1	8.300135E-1	8.354995E-1	8.278087E-1	8.379188E-1	8.394651E-1	8.374250E-1	8.637949E-1	8.126641E-1	8.565245E-1	8.386029E-1	8.013929E-1	8.024652E-1	8.179107E-1	7.996662E-1	8.307233E-1	8.438265E-1	8.641838E-1	7.904801E-1	8.723239E-1	8.203760E-1	8.228786E-1	8.238562E-1	8.063615E-1	8.599349E-1	8.464258E-1	8.303793E-1	8.460494E-1	8.114002E-1	8.312082E-1	8.246686E-1	8.441258E-1	8.158344E-1	8.427505E-1	8.191667E-1	8.228900E-1	8.079108E-1	8.627892E-1	8.426710E-1	8.723358E-1	8.532474E-1	8.900979E-1
2.980040E+2	1.003988E+0	9.734674E-1	9.897528E-1	9.810428E-1	9.431567E-1	1.002772E+0	9.715103E-1	1.019974E+0	9.095605E-1	9.780736E-1	9.493193E-1	9.941710E-1	9.952630E-1	9.812415E-1	1.001957E+0	9.585276E-1	9.783712E-1	1.001911E+0	9.701742E-1	9.962882E-1	1.006347E+0	1.016992E+0	9.821790E-1	9.971344E-1	9.808330E-1	9.859651E-1	9.359310E-1	1.009903E+0	9.941392E-1	9.522616E-1	9.580744E-1	9.470912E-1	9.727103E-1	9.640231E-1	9.902424E-1	9.481458E-1	1.003538E+0	1.012909E+0	9.647127E-1	9.898354E-1	9.459775E-1	9.690517E-1	9.419235E-1	1.000802E+0	9.621807E-1	9.785831E-1	9.978800E-1	9.362527E-1	9.714576E-1	9.886514E-1	9.679509E-1	9.273890E-1	9.505899E-1	9.985408E-1	9.560266E-1	9.534107E-1	9.846976E-1	9.574194E-1	9.814419E-1	9.862256E-1	9.632676E-1	9.800851E-1	1.022752E+0	9.717526E-1	9.959310E-1	9.828312E-1	9.891521E-1	9.149173E-1	1.016943E+0	1.011249E+0	1.018335E+0	9.747969E-1	9.401769E-1	9.500690E-1	9.597140E-1	9.306328E-1	9.830372E-1	9.809800E-1	9.691353E-1	9.556852E-1	1.002061E+0	9.405467E-1	9.645550E-1	9.751781E-1	9.578666E-1	1.017820E+0	9.532174E-1	9.684722E-1	9.794318E-1	9.851995E-1	9.949289E-1	9.356016E-1	9.879861E-1	9.445059E-1	9.443760E-1	9.445207E-1	1.012238E+0	9.903948E-1	9.547497E-1	9.533489E-1	1.007926E+0	9.818444E-1	9.745435E-1	9.648903E-1	9.674059E-1	9.668304E-1	9.828212E-1	9.993860E-1	1.003876E+0	9.834185E-1	9.678934E-1	9.715125E-1	9.508464E-1	1.011075E+0	9.946373E-1	9.910221E-1	1.019505E+0	1.033931E+0	1.008146E+0	9.846799E-1	9.967551E-1	9.622340E-1	9.817732E-1	9.460197E-1	9.278036E-1	9.851959E-1	9.621104E-1	9.650889E-1	9.952246E-1	9.735029E-1	9.582951E-1	9.643574E-1	9.731239E-1	9.622762E-1	9.764076E-1	1.003474E+0	9.459301E-1	9.977472E-1	9.274472E-1	9.545400E-1	1.012674E+0	1.007224E+0	1.017355E+0	9.646383E-1	9.986196E-1	9.263073E-1	9.613937E-1	9.115829E-1	9.674143E-1	9.490091E-1	9.430459E-1	1.002588E+0	9.852948E-1	9.553492E-1	9.503892E-1	9.815361E-1	9.720172E-1	1.005569E+0	9.504496E-1	9.793307E-1	1.003479E+0	9.988726E-1	1.000994E+0	9.438902E-1	9.848821E-1	1.027915E+0	9.790918E-1	1.000101E+0	9.834345E-1	9.411905E-1	9.658477E-1
2.985020E+2	1.094770E+0	1.146038E+0	1.083575E+0	1.086385E+0	1.131238E+0	1.086150E+0	1.100515E+0	1.124343E+0	1.065403E+0	1.083373E+0	1.125393E+0	1.106734E+0	1.134541E+0	1.110891E+0	1.149633E+0	1.132708E+0	1.117961E+0	1.070478E+0	1.102777E+0	1.060713E+0	1.078535E+0	1.161246E+0	1.108738E+0	1.131706E+0	1.097380E+0	1.097461E+0	1.123201E+0	1.114837E+0	1.088848E+0	1.139477E+0	1.107268E+0	1.115025E+0	1.093629E+0	1.099364E+0	1.133340E+0	1.165986E+0	1.124976E+0	1.108667E+0	1.122171E+0	1.104260E+0	1.109806E+0	1.142912E+0	1.135851E+0	1.083540E+0	1.095883E+0	1.137223E+0	1.129472E+0	1.134787E+0	1.101353E+0	1.102326E+0	1.103647E+0	1.115890E+0	1.093545E+0	1.092498E+0	1.114018E+0	1.109967E+0	1.135478E+0	1.104890E+0	1.092042E+0	1.115124E+0	1.100595E+0	1.125617E+0	1.108925E+0	1.077199E+0	1.117560E+0	1.102522E+0	1.119326E+0	1.114324E+0	1.106768E+0	1.134541E+0	1.118481E+0	1.089119E+0	1.137499E+0	1.095466E+0	1.129669E+0	1.083244E+0	1.119578E+0	1.140444E+0	1.121708E+0	1.143089E+0	1.130504E+0	1.142378E+0	1.134459E+0	1.083468E+0	1.118238E+0	1.088917E+0	1.158306E+0	1.038982E+0	1.122954E+0	1.113979E+0	1.099646E+0	1.097032E+0	1.122728E+0	1.149466E+0	1.111661E+0	1.075449E+0	1.139600E+0	1.111900E+0	1.127644E+0	1.120576E+0	1.112636E+0	1.098039E+0	1.078048E+0	1.111542E+0	1.133309E+0	1.138997E+0	1.117495E+0	1.125670E+0	1.107158E+0	1.111446E+0	1.078904E+0	1.099233E+0	1.120698E+0	1.064797E+0	1.110633E+0	1.128048E+0	1.071922E+0	1.103484E+0	1.103422E+0	1.102095E+0	1.152838E+0	1.100305E+0	1.126686E+0	1.146726E+0	1.091071E+0	1.122267E+0	1.098846E+0	1.086557E+0	1.129270E+0	1.087747E+0	1.154448E+0	1.136372E+0	1.110662E+0	1.112749E+0	1.061938E+0	1.116993E+0	1.098069E+0	1.131282E+0	1.102129E+0	1.098493E+0	1.140189E+0	1.124033E+0	1.090312E+0	1.147974E+0	1.091894E+0	1.117047E+0	1.110957E+0	1.155347E+0	1.085632E+0	1.141239E+0	1.123628E+0	1.103194E+0	1.112462E+0	1.111015E+0	1.107890E+0	1.117015E+0	1.129756E+0	1.105924E+0	1.114129E+0	1.096756E+0	1.097178E+0	1.165316E+0	1.100685E+0	1.149973E+0	1.122080E+0	1.106889E+0	1.111522E+0	1.118788E+0	1.066465E+0	1.111283E+0	1.099411E+0
2.990010E+2	1.075632E+0	1.114637E+0	1.129572E+0	1.087820E+0	1.091347E+0	1.078864E+0	1.072124E+0	1.055017E+0	1.112672E+0	1.052214E+0	1.100361E+0	1.090634E+0	1.125811E+0	1.077974E+0	1.093423E+0	1.072749E+0	1.060808E+0	1.105900E+0	1.078718E+0	1.122327E+0	1.093060E+0	1.052089E+0	1.118792E+0	1.054671E+0	1.133893E+0	1.149255E+0	1.144049E+0	1.127474E+0	1.087131E+0	1.048291E+0	1.117010E+0	1.109971E+0	1.093371E+0	1.121161E+0	1.097179E+0	1.076384E+0	1.110175E+0	1.107464E+0	1.080526E+0	1.069461E+0	1.098554E+0	1.100371E+0	1.121660E+0	1.056928E+0	1.167528E+0	1.102728E+0	1.094624E+0	1.110931E+0	1.094267E+0	1.040009E+0	1.121677E+0	1.102070E+0	1.085247E+0	1.125457E+0	1.155617E+0	1.121195E+0	1.070074E+0	1.089460E+0	1.073916E+0	1.081453E+0	1.144727E+0	1.061745E+0	1.072433E+0	1.148857E+0	1.089387E+0	1.115246E+0	1.107619E+0	1.113467E+0	1.040105E+0	1.064833E+0	1.064928E+0	1.108295E+0	1.077037E+0	1.098703E+0	1.127103E+0	1.097091E+0	1.094318E+0	1.095072E+0	1.106539E+0	1.092151E+0	1.073491E+0	1.095227E+0	1.114752E+0	1.139322E+0	1.069981E+0	1.092623E+0	1.054080E+0	1.133969E+0	1.105045E+0	1.066480E+0	1.118218E+0	1.101303E+0	1.073106E+0	1.083474E+0	1.107247E+0	1.117765E+0	1.092230E+0	1.119267E+0	1.080985E+0	1.072875E+0	1.072191E+0	1.070244E+0	1.117340E+0	1.077542E+0	1.107320E+0	1.061879E+0	1.115675E+0	1.073051E+0	1.058568E+0	1.087491E+0	1.076481E+0	1.091133E+0	1.132384E+0	1.110713E+0	1.058030E+0	1.117590E+0	1.141618E+0	1.100176E+0	1.102763E+0	1.131949E+0	1.117918E+0	1.118103E+0	1.124416E+0	1.121273E+0	1.119066E+0	1.089074E+0	1.092514E+0	1.071344E+0	1.130142E+0	1.104604E+0	1.076212E+0	1.101723E+0	1.077521E+0	1.106262E+0	1.144397E+0	1.026517E+0	1.082202E+0	1.108648E+0	1.099479E+0	1.133503E+0	1.095161E+0	1.121210E+0	1.132513E+0	1.152827E+0	1.096628E+0	1.130103E+0	1.061399E+0	1.159867E+0	1.081637E+0	1.106434E+0	1.093742E+0	1.069588E+0	1.103148E+0	1.077191E+0	1.109312E+0	1.108930E+0	1.088020E+0	1.117776E+0	1.103207E+0	1.077442E+0	1.073431E+0	1.081914E+0	1.106641E+0	1.085203E+0	1.073639E+0	1.066798E+0	1.084038E+0	1.034408E+0	1.116468E+0	1.105929E+0	1.008444E+0
2.995040E+2	1.040949E+0	9.241887E-1	9.848107E-1	9.808840E-1	9.928835E-1	9.989324E-1	9.690309E-1	9.629388E-1	9.861105E-1	9.883300E-1	9.773754E-1	9.735474E-1	9.295644E-1	9.691582E-1	9.642907E-1	9.517454E-1	9.797735E-1	9.993527E-1	9.770324E-1	9.547626E-1	9.419439E-1	9.433719E-1	9.702997E-1	9.644103E-1	9.702346E-1	9.667993E-1	9.256072E-1	9.409495E-1	9.456917E-1	1.026281E+0	9.753765E-1	9.692953E-1	9.222322E-1	9.479413E-1	9.683244E-1	9.898224E-1	9.547466E-1	9.247259E-1	9.574515E-1	9.577400E-1	9.255020E-1	9.450117E-1	9.676096E-1	1.041630E+0	9.823011E-1	9.495827E-1	9.674849E-1	9.812126E-1	9.461675E-1	9.650470E-1	9.534943E-1	9.507629E-1	1.011824E+0	9.933050E-1	9.774587E-1	9.845676E-1	9.683156E-1	1.016554E+0	9.830388E-1	1.019271E+0	9.562512E-1	9.751950E-1	9.744796E-1	9.886247E-1	9.700327E-1	9.752039E-1	9.611352E-1	9.865569E-1	9.942292E-1	9.958193E-1	9.870683E-1	9.884757E-1	9.516305E-1	1.015801E+0	9.774993E-1	1.022399E+0	9.541850E-1	9.473812E-1	9.667645E-1	9.962150E-1	9.629802E-1	9.380281E-1	9.395796E-1	9.950732E-1	9.682569E-1	9.647119E-1	9.660330E-1	1.014753E+0	9.572647E-1	9.807683E-1	9.421735E-1	9.858715E-1	9.915510E-1	9.659652E-1	9.655604E-1	1.019193E+0	9.343229E-1	9.587196E-1	9.258145E-1	9.377145E-1	9.286423E-1	9.735726E-1	9.791612E-1	1.016359E+0	9.713579E-1	1.014537E+0	9.945640E-1	9.452999E-1	9.933445E-1	9.588522E-1	9.970050E-1	9.703660E-1	9.429459E-1	9.729736E-1	9.731256E-1	9.699186E-1	9.907429E-1	9.888859E-1	9.155534E-1	9.525781E-1	9.027003E-1	9.697257E-1	9.919426E-1	9.683887E-1	1.012401E+0	9.807631E-1	9.503994E-1	9.572970E-1	9.256334E-1	9.791302E-1	9.553275E-1	9.660537E-1	9.678887E-1	9.937729E-1	9.570277E-1	1.021213E+0	1.013306E+0	9.493545E-1	9.935200E-1	9.640349E-1	9.418559E-1	9.568325E-1	9.484593E-1	9.233156E-1	9.818425E-1	9.822512E-1	9.837673E-1	9.678427E-1	9.759898E-1	9.548829E-1	9.874182E-1	9.709356E-1	9.558484E-1	9.723582E-1	9.568034E-1	9.790479E-1	9.964591E-1	9.534727E-1	9.928145E-1	1.011896E+0	9.518969E-1	9.918227E-1	9.563729E-1	9.806881E-1	9.982127E-1	9.941381E-1	9.714369E-1	9.845633E-1	9.316247E-1	9.936077E-1	9.742314E-1
3.000040E+2	9.504893E-1	1.022396E+0	9.975541E-1	1.054962E+0	1.019556E+0	9.925319E-1	1.073004E+0	1.041722E+0	1.069200E+0	1.034305E+0	9.986975E-1	1.024834E+0	9.753950E-1	1.034530E+0	9.630676E-1	1.062137E+0	1.022015E+0	9.900872E-1	1.087905E+0	1.011334E+0	1.027817E+0	9.743024E-1	9.955917E-1	1.026940E+0	9.921608E-1	9.782357E-1	1.078040E+0	1.023205E+0	1.020093E+0	1.013518E+0	1.018015E+0	1.021665E+0	1.016228E+0	1.009445E+0	1.008445E+0	1.001228E+0	9.732185E-1	1.014488E+0	1.037220E+0	1.024544E+0	1.050120E+0	1.031577E+0	1.024748E+0	9.947628E-1	9.940782E-1	1.016250E+0	1.011227E+0	9.945806E-1	1.044597E+0	1.051794E+0	1.027843E+0	1.037582E+0	1.018357E+0	9.857930E-1	1.032276E+0	1.002852E+0	1.030301E+0	1.038388E+0	9.908018E-1	9.655700E-1	1.031524E+0	1.025012E+0	1.011424E+0	1.015178E+0	9.941343E-1	9.813639E-1	1.005001E+0	1.044462E+0	1.034423E+0	1.002643E+0	1.014745E+0	1.002751E+0	1.022758E+0	1.052734E+0	9.902498E-1	1.009404E+0	9.982486E-1	1.017326E+0	9.805306E-1	9.902595E-1	1.002913E+0	1.012263E+0	1.039098E+0	9.804205E-1	1.066096E+0	1.008243E+0	1.033872E+0	9.900305E-1	9.791099E-1	1.029999E+0	9.853688E-1	1.026189E+0	9.774520E-1	1.001752E+0	1.017638E+0	1.010950E+0	9.803635E-1	9.780931E-1	1.044584E+0	1.041421E+0	1.021825E+0	1.014135E+0	1.023398E+0	9.955482E-1	9.648055E-1	9.937994E-1	9.820345E-1	1.018371E+0	1.027717E+0	1.032994E+0	1.033630E+0	1.049558E+0	1.006902E+0	1.006537E+0	1.002831E+0	9.938266E-1	9.827022E-1	9.747588E-1	1.030492E+0	1.026014E+0	9.866480E-1	1.038961E+0	9.348861E-1	9.981735E-1	1.043536E+0	9.675656E-1	1.049324E+0	1.051810E+0	1.015611E+0	1.017539E+0	1.025704E+0	9.959942E-1	1.042995E+0	9.870218E-1	1.020764E+0	9.943783E-1	9.966978E-1	1.000304E+0	1.020900E+0	1.010826E+0	1.008727E+0	9.882360E-1	9.934503E-1	1.011579E+0	1.000293E+0	1.000464E+0	1.018299E+0	1.014880E+0	1.017003E+0	1.028059E+0	1.029288E+0	1.029839E+0	1.036885E+0	1.024151E+0	1.029179E+0	9.830918E-1	9.676982E-1	1.005858E+0	1.008192E+0	1.009906E+0	1.029889E+0	9.462397E-1	9.925570E-1	1.021079E+0	9.982967E-1	9.963491E-1	9.911218E-1	1.019468E+0	1.029672E+0	9.947416E-1	1.061968E+0
