Photon Energy (eV)	#1	#2	#3	#4	#5	#6	#7	#8	#9	#10	#11	#12	#13	#14	#15	#16	#17	#18	#19	#20	#21	#22	#23	#24	#25	#26	#27	#28	#29	#30	#31	#32	#33	#34	#35	#36	#37	#38	#39	#40	#41	#42	#43	#44	#45	#46	#47	#48	#49	#50	#51	#52	#53	#54	#55	#56	#57	#58	#59	#60	#61	#62	#63	#64	#65	#66	#67	#68	#69	#70	#71	#72	#73	#74	#75	#76	#77	#78	#79	#80	#81	#82	#83	#84	#85	#86	#87	#88	#89	#90	#91	#92	#93	#94	#95	#96	#97	#98	#99	#100	#101	#102	#103	#104	#105	#106	#107	#108	#109	#110	#111	#112	#113	#114	#115	#116	#117	#118	#119	#120	#121	#122	#123	#124	#125	#126	#127	#128	#129	#130	#131	#132	#133	#134	#135	#136	#137	#138	#139	#140	#141	#142	#143	#144	#145	#146	#147	#148	#149	#150	#151	#152	#153	#154	#155	#156	#157	#158	#159	#160	#161	#162	#163	#164	#165	#166	#167	#168	#169	#170	#171	#172	
2.790030E+2	-8.146106E-3	2.249193E-3	-5.237009E-3	-1.137595E-4	-3.506255E-3	-5.894648E-3	-8.107862E-3	-3.204721E-3	-5.620906E-3	-5.976842E-3	-3.282564E-3	4.928727E-3	-8.349730E-3	-1.831334E-3	1.871308E-3	-5.446209E-3	1.115023E-3	-9.011621E-5	2.020015E-3	-9.384472E-3	-4.379423E-3	3.085444E-3	1.003812E-3	-6.874720E-3	-7.900212E-3	8.613565E-3	-2.220085E-3	-1.060826E-2	6.563297E-6	8.867068E-3	7.399956E-4	4.962873E-3	-9.623138E-3	6.625553E-3	-4.002921E-4	2.207729E-4	-9.934600E-4	7.790794E-3	-5.520737E-3	-3.768386E-3	-8.982472E-4	-2.065601E-3	-7.729308E-4	-4.620207E-3	5.043452E-3	-1.815570E-3	-2.211236E-3	-4.809395E-3	-8.713951E-4	-5.813320E-3	-6.530749E-4	-1.158728E-2	3.613252E-3	-9.431507E-3	-9.715310E-4	-3.253347E-3	-1.811189E-3	-6.068558E-3	6.518212E-4	-6.182699E-3	5.748392E-3	1.231930E-3	-1.206856E-2	-1.268844E-2	-4.730004E-3	1.269447E-2	-5.201711E-3	2.213685E-3	-1.039001E-3	-1.404619E-2	-9.287331E-3	-5.884388E-3	8.208431E-3	-7.063756E-4	-1.018507E-2	5.299891E-3	5.627979E-3	-8.361356E-3	5.527806E-4	-9.940571E-3	-2.871746E-3	-5.313192E-3	-9.491825E-3	-4.924322E-3	1.019690E-3	7.407267E-4	9.943962E-3	-1.876441E-3	-5.798245E-3	9.202619E-3	7.392576E-3	3.551726E-3	-1.091354E-3	-1.099394E-2	-1.590647E-2	1.767321E-3	-1.804486E-3	1.081174E-3	2.856612E-3	4.416007E-3	3.511405E-3	-5.740940E-3	-5.623060E-3	7.918000E-3	1.581832E-3	2.940616E-3	1.954587E-4	-1.127178E-3	1.066427E-3	-1.824835E-3	-7.486309E-3	-1.956471E-3	-6.262907E-3	4.775612E-4	-5.923903E-3	-1.168577E-3	-4.998798E-3	-1.344630E-2	-2.811606E-3	-4.887016E-4	4.406464E-3	-5.809069E-3	5.452301E-3	-4.951000E-3	2.542543E-4	-8.037575E-3	9.722914E-4	-4.461531E-3	-7.768275E-3	-7.802310E-3	-7.724155E-3	-8.732970E-3	7.115846E-4	-1.025380E-2	9.760508E-3	3.575775E-3	-2.518607E-3	-6.900307E-3	7.405070E-3	-1.026726E-2	5.887538E-3	-6.042671E-3	4.266900E-3	-1.175223E-2	-1.755349E-3	-1.137774E-3	9.971219E-3	5.527260E-3	6.045225E-4	-7.300923E-3	-1.965662E-3	1.139853E-2	6.165518E-5	-1.321904E-2	-5.314330E-3	-6.717392E-3	8.917341E-4	4.772955E-3	-8.323432E-3	-1.033034E-2	-4.904744E-3	6.315589E-3	-1.136587E-2	-6.403744E-3	6.208397E-3	-2.815392E-3	-4.216322E-3	2.084290E-4	-1.533784E-2	-8.132161E-3	3.690844E-4	4.048523E-3
2.795020E+2	-9.493570E-4	-1.485760E-2	8.785656E-4	-1.431852E-2	-7.213099E-3	2.016339E-3	-7.554947E-3	7.254360E-4	-6.287173E-3	-6.638260E-3	2.406490E-3	1.267282E-2	-4.357371E-3	-4.958230E-4	-9.020324E-3	-2.955445E-3	-7.235518E-3	1.171070E-2	-5.281414E-3	3.110524E-3	-2.417286E-3	-8.126528E-3	1.061239E-2	-5.540833E-3	-3.323572E-3	-1.457087E-3	-1.159777E-2	-1.115843E-2	3.240666E-4	4.784190E-4	-1.056301E-2	1.080337E-3	-6.693844E-5	-1.111918E-2	-5.785439E-3	4.244275E-3	-1.347887E-2	-5.243682E-3	1.008551E-2	-1.010781E-2	-5.524077E-4	-2.677672E-3	-6.180148E-3	-3.997896E-3	-8.484363E-4	-1.081936E-2	-1.137671E-2	-8.297332E-3	-2.768694E-3	-5.042727E-3	-1.404975E-3	-9.863034E-3	3.855811E-3	-3.998956E-3	-2.974086E-3	-2.905857E-3	4.500955E-3	5.004778E-3	-9.544951E-5	-2.010538E-2	-5.090007E-3	-5.326250E-3	8.445157E-4	-4.142435E-3	2.413885E-3	-1.249519E-2	-8.617524E-5	-4.525224E-3	4.830218E-3	-8.591399E-3	8.498840E-4	-1.003489E-2	9.943414E-4	-1.078224E-2	-3.320795E-3	-9.573818E-3	5.795527E-3	-6.851832E-4	-9.977467E-3	4.243371E-3	1.899538E-3	7.555889E-3	-2.986056E-3	-2.225767E-3	-1.982002E-2	6.893806E-3	-8.702589E-3	4.619983E-3	-7.494967E-3	-5.917075E-3	-7.976405E-3	-1.135133E-2	-7.157559E-4	-8.667954E-4	7.478659E-3	-1.050741E-2	-6.482681E-3	-8.406308E-3	1.159904E-2	-2.673211E-3	-1.313350E-3	-4.055239E-3	-7.418250E-3	-7.889589E-3	-1.825637E-4	-4.892687E-3	-1.831207E-3	-6.261429E-4	-4.838167E-3	2.721599E-3	-4.855921E-3	2.414513E-3	7.281660E-3	4.683486E-3	1.639151E-2	5.679141E-4	-6.744903E-3	6.771132E-3	-6.059153E-3	4.762517E-3	1.228507E-3	-7.807369E-3	-1.799199E-3	2.327454E-3	1.759088E-3	-4.195563E-3	-7.860147E-4	-4.133638E-3	-7.181100E-3	-9.617863E-3	1.079657E-2	4.410939E-3	1.887824E-3	-9.635932E-3	-1.364039E-2	-4.874226E-3	-5.456787E-3	3.450419E-3	-1.305730E-2	-6.918950E-3	1.075313E-3	6.230576E-3	-6.928187E-3	5.012825E-3	-2.476277E-3	-6.703314E-3	-7.065207E-3	-1.591165E-3	-9.253757E-3	2.652224E-3	-9.476746E-3	-8.675150E-3	-3.840311E-3	2.166325E-3	5.886805E-3	-1.114508E-2	-2.035405E-3	8.645448E-4	8.208998E-4	-3.713191E-3	-1.955610E-2	-8.524666E-3	-3.179864E-3	2.959116E-3	2.505527E-3	2.280556E-3	-4.965738E-3	-4.775079E-3	4.744011E-3	-1.028745E-3	2.419370E-3	-1.136456E-2
2.800030E+2	-6.393940E-3	3.968013E-3	-4.774516E-3	4.974988E-3	1.694663E-3	-7.975859E-3	5.007658E-4	-1.001523E-2	3.684870E-3	-5.549230E-3	-1.066057E-2	-7.084777E-3	-1.178363E-2	-2.718529E-3	9.214886E-4	-2.067195E-3	2.383454E-3	1.485582E-3	-2.143867E-3	-1.775883E-3	-2.548486E-3	-7.116435E-3	-7.138687E-3	-7.765459E-3	-6.493754E-3	-3.952408E-3	-5.217944E-3	-8.823124E-3	-3.931058E-3	4.649156E-3	-4.954264E-3	-6.306193E-3	2.024734E-3	1.026573E-2	-2.438356E-3	-4.233247E-3	1.729516E-3	1.224295E-3	-7.445036E-3	1.351252E-2	-6.657854E-3	6.908222E-3	-4.052318E-3	-1.146608E-2	4.066360E-3	-1.091593E-2	7.319140E-3	1.993690E-4	-6.478354E-3	2.264161E-3	-7.409360E-3	8.055405E-3	-1.496417E-3	-6.529446E-3	-7.848617E-3	1.092203E-2	-5.009737E-3	3.796443E-3	1.934933E-3	2.769029E-4	2.508626E-3	-7.746044E-3	1.095960E-2	7.330632E-4	3.530208E-3	-2.391101E-2	-2.561911E-3	3.662306E-3	-1.822415E-3	1.153722E-2	-3.552453E-3	-7.847691E-3	-2.326842E-3	-9.405907E-3	2.180038E-4	-7.127914E-3	-1.063031E-2	-8.038793E-3	-4.687347E-3	9.326031E-3	-4.835755E-3	-7.097705E-3	1.461413E-2	-1.268267E-3	-9.455663E-3	-2.547292E-3	-4.419140E-3	2.370369E-3	2.121404E-3	5.774318E-3	-6.894734E-3	1.217350E-3	2.175585E-4	-3.189824E-3	-7.868387E-3	8.172902E-3	-5.303853E-3	-2.342949E-3	-1.478625E-2	-5.317731E-3	-1.460630E-3	-9.983457E-3	2.446432E-4	-4.846148E-3	1.797875E-3	-1.520500E-3	-4.402996E-3	-8.085393E-3	-4.967029E-3	9.882916E-3	-3.911335E-3	2.244545E-3	-9.683047E-3	-5.501276E-3	-2.562117E-3	-9.258779E-3	4.811839E-4	-5.661781E-3	1.102378E-2	5.773650E-3	-1.624410E-2	-6.570832E-3	-6.866743E-4	-3.145264E-3	-2.807595E-3	2.366962E-3	-2.944362E-3	-3.277123E-3	-7.333099E-3	4.087151E-3	1.709460E-3	-3.722829E-3	-1.551906E-2	4.888114E-3	3.717314E-4	-7.309124E-4	-6.693333E-3	1.870626E-3	-6.693547E-3	-1.090179E-2	-1.811365E-2	9.260470E-3	-2.530222E-3	5.227056E-4	-4.932553E-3	-1.160804E-2	-1.336254E-2	-4.250934E-3	2.693838E-3	-3.382228E-3	6.055303E-3	-1.696521E-3	-1.026740E-2	-7.758014E-3	-7.179045E-3	-5.014290E-3	7.391310E-3	-5.484358E-3	-6.155049E-3	-1.205723E-2	-3.482378E-3	1.265852E-4	-8.371094E-3	-2.835670E-3	2.367246E-3	4.391585E-3	-6.285664E-3	-7.157952E-4	-9.089777E-3	-1.212659E-3	-8.180851E-4	-6.712107E-3
2.805050E+2	1.848361E-2	-6.913338E-3	7.373626E-4	1.186839E-4	7.012316E-4	1.315616E-2	9.995730E-3	-2.960172E-3	1.748139E-3	-6.020109E-3	-6.303198E-3	-8.306929E-3	1.193527E-2	-2.398593E-3	-8.811717E-4	-1.021134E-3	6.733676E-3	-1.104892E-2	-7.593896E-3	-2.963402E-3	-1.623571E-3	-1.328679E-3	-3.009318E-3	5.686933E-3	-2.399120E-3	-6.233328E-3	3.495981E-3	3.619489E-3	-6.944562E-3	-2.868557E-3	-2.087415E-3	1.001068E-3	-5.687209E-3	-1.125734E-2	-5.922906E-3	2.969609E-3	8.918577E-4	-2.079881E-3	-7.394996E-3	-3.410668E-3	-2.677531E-3	1.312800E-2	-6.257187E-3	8.063909E-3	-9.417537E-4	8.018566E-3	-4.086956E-3	-2.661154E-3	-1.645543E-3	1.217899E-2	-3.854644E-3	5.976856E-3	-8.744249E-3	-5.349766E-4	-6.679473E-3	-1.002153E-2	-5.019684E-3	1.525777E-3	-3.561798E-3	-6.891151E-3	-1.510656E-2	-1.867189E-3	-2.375980E-3	4.749504E-3	9.220688E-4	2.784281E-4	-7.095628E-3	9.022974E-5	3.761190E-3	3.204552E-3	-6.743892E-3	1.071108E-2	-9.702361E-3	-1.328648E-3	5.228409E-3	7.032538E-3	-4.530086E-3	-9.067303E-3	-3.599411E-3	-1.178342E-2	5.008010E-3	9.644287E-3	-3.154955E-3	-1.266819E-3	3.855279E-3	-1.062467E-2	-1.107175E-3	7.530920E-3	4.281726E-3	-2.418348E-3	-4.489585E-3	-6.415837E-3	2.391593E-3	9.833455E-3	-5.710677E-3	-5.402058E-3	3.906829E-3	-6.049766E-3	1.136489E-2	-4.089486E-3	5.453431E-4	-7.679648E-3	3.584678E-3	-1.438165E-2	-3.505663E-3	-3.865815E-3	3.848011E-4	-8.016490E-4	4.333352E-3	6.738412E-3	1.628109E-3	-6.894060E-3	6.016185E-4	-3.021585E-3	3.152737E-3	-9.270232E-3	-1.625595E-3	-3.231486E-3	8.538977E-3	9.712065E-4	1.030165E-2	1.588617E-3	-1.089186E-2	-5.809299E-3	-6.110724E-3	1.112787E-4	3.070574E-3	7.040870E-4	3.872434E-3	-4.726242E-3	2.958129E-3	9.913379E-3	-9.766354E-3	3.645675E-3	2.706667E-3	-5.040572E-3	-5.616210E-3	8.704964E-3	-1.319748E-2	-3.220122E-3	2.929525E-3	2.764462E-3	-4.800759E-3	2.661153E-3	-8.396015E-3	-9.250113E-3	-5.972952E-3	3.200537E-3	1.685706E-3	-2.231914E-3	4.945605E-3	-1.121047E-2	6.476131E-3	4.388768E-3	5.693308E-3	1.247684E-2	-5.403533E-3	-1.065220E-2	6.493122E-3	-1.826849E-3	1.150985E-2	-1.498404E-2	4.141331E-3	4.973332E-3	-7.054380E-3	6.654890E-3	-5.147406E-3	5.570866E-3	1.006163E-2	-1.269642E-2	-1.568223E-2	-1.639274E-2
2.810050E+2	-1.316522E-2	3.544809E-3	3.433502E-3	-6.104936E-3	-7.427413E-3	1.143624E-3	1.124464E-2	1.477929E-3	-9.531313E-3	-3.950935E-3	4.387087E-3	-3.620200E-3	7.975256E-4	-6.279696E-4	-5.603870E-3	-7.315572E-3	6.501614E-3	9.270203E-4	8.591509E-3	1.092038E-2	-9.524584E-3	-1.433143E-3	-6.172925E-3	4.314129E-3	1.253889E-2	-5.466717E-3	1.063792E-3	1.681826E-2	2.057191E-3	-2.588697E-3	1.511467E-3	-1.365041E-2	6.306422E-3	-1.573452E-3	-1.459204E-3	6.209268E-3	-1.166156E-3	-4.920654E-3	-8.721255E-3	-2.806972E-4	-1.872731E-3	-1.164757E-2	2.632522E-3	7.810607E-3	-5.208601E-3	-1.145775E-3	-2.238872E-3	-4.757924E-3	4.693129E-4	6.942593E-3	9.876772E-3	-1.662079E-3	-6.816260E-4	-9.117557E-3	1.277156E-3	-4.231554E-3	-5.991292E-4	-1.150304E-2	-1.037487E-2	2.500475E-3	3.443161E-3	2.028271E-4	-5.271353E-4	-2.473202E-3	-1.096891E-2	-8.544051E-3	-1.547432E-3	-1.320809E-3	-4.766935E-3	6.488390E-3	-5.864415E-3	1.891795E-5	2.712118E-3	1.079640E-3	-4.886025E-3	-5.934866E-3	-8.767040E-3	4.161680E-3	5.889272E-3	-4.620125E-3	8.013050E-3	-8.368401E-3	1.074778E-2	7.176881E-4	-3.957932E-3	-3.905056E-3	-6.808702E-3	-1.634633E-2	4.053610E-3	-1.445287E-3	-4.676021E-3	-3.069274E-4	-3.258512E-3	-1.087845E-2	1.615450E-3	6.478002E-4	6.279742E-3	4.842633E-3	3.978340E-3	1.298609E-2	4.307009E-3	1.874008E-4	3.340495E-3	2.255659E-4	5.447949E-4	-4.053776E-3	1.434934E-4	1.401243E-3	-1.026345E-3	1.280412E-3	2.476117E-3	1.008195E-2	-4.765167E-3	-4.486686E-3	-5.700809E-3	1.381281E-3	6.532643E-3	2.603289E-3	-1.256078E-2	-6.388512E-3	-2.575778E-3	5.296255E-3	2.878281E-3	1.872408E-3	-7.986574E-4	-3.465587E-3	-7.125594E-3	1.238353E-2	1.106107E-2	1.340288E-3	-4.829953E-3	2.868513E-3	6.292622E-3	-6.320807E-3	2.474348E-3	-9.523276E-3	-2.574619E-3	-1.206882E-2	-4.328993E-3	2.974629E-3	1.269768E-2	-8.232565E-3	-4.168673E-4	3.502712E-3	5.857078E-4	1.063761E-2	7.406336E-3	-5.719123E-3	-1.536502E-3	1.047515E-3	-4.149366E-3	-1.138642E-2	-1.058552E-3	4.139280E-3	-5.198237E-3	4.710810E-3	-1.359234E-3	5.620490E-3	8.216359E-3	1.223047E-2	5.473809E-3	-7.646477E-3	2.712695E-3	-5.315768E-3	4.099837E-3	-1.178110E-2	-1.865107E-3	-1.348447E-2	-9.262838E-3	-1.472953E-2	1.821555E-3	-2.610073E-2
2.815000E+2	-2.857014E-3	-4.281778E-5	-7.726940E-4	3.401902E-3	-1.555874E-3	6.933780E-3	-1.783192E-3	-9.499307E-4	9.567853E-3	8.478185E-3	-4.289358E-3	2.346989E-3	-2.001130E-3	-2.591413E-3	-2.033719E-3	1.080187E-2	-6.329982E-5	-3.013080E-3	8.565774E-3	1.450977E-3	4.882292E-3	9.582158E-3	1.059324E-3	1.147704E-3	6.407590E-3	1.176782E-3	1.002003E-3	-5.252645E-4	9.619634E-4	-1.031376E-2	4.921980E-4	5.826467E-3	-5.923361E-3	6.835440E-3	9.187708E-4	-3.313699E-3	9.518121E-3	-5.338055E-3	3.062385E-3	-1.604796E-2	-4.860289E-3	-1.450601E-3	1.641708E-3	8.954543E-3	-6.265383E-3	1.179021E-2	-2.256473E-3	-6.969960E-5	-3.157477E-3	-8.602993E-3	-5.276559E-3	-2.775872E-3	2.862211E-4	5.363558E-3	2.421827E-4	4.630125E-3	-6.432863E-3	-4.939404E-4	9.437611E-3	5.950432E-3	6.646814E-3	-2.858105E-3	-7.682223E-3	2.429592E-3	-7.153318E-3	9.515709E-3	-1.675731E-3	-9.664629E-3	-1.312129E-2	-8.975610E-3	1.096103E-2	6.825200E-3	-3.653029E-3	8.842709E-3	-1.323970E-3	-4.762934E-3	-3.793255E-3	6.121778E-3	2.581304E-3	-3.652919E-3	-1.857935E-3	3.752877E-3	-1.111010E-3	9.393214E-3	-4.975396E-3	-3.990007E-3	6.258950E-3	-6.155073E-3	-5.704062E-3	-2.702794E-3	6.019719E-3	-5.443195E-3	-3.338331E-3	1.906232E-3	7.970532E-3	2.642239E-3	-1.082154E-2	7.196975E-3	-1.263465E-2	1.773421E-3	-1.164317E-2	5.833152E-3	1.037956E-3	-4.063497E-3	-3.740765E-3	-4.125498E-3	-9.466743E-3	4.929455E-3	-5.202644E-3	-1.542555E-2	5.682349E-3	5.949520E-3	-1.024250E-3	4.093802E-3	-1.052239E-4	1.686997E-2	-2.960763E-3	6.130925E-3	-4.073915E-3	-7.650891E-3	5.381447E-3	5.175922E-3	5.315727E-3	1.226090E-2	1.317150E-3	1.424152E-2	8.744527E-3	-2.558975E-3	3.513432E-3	4.989696E-3	-8.680295E-3	-6.251710E-3	2.404459E-3	1.299509E-2	-8.125845E-3	1.388529E-2	4.894158E-3	1.485225E-3	7.361052E-4	-9.366309E-4	-7.295543E-3	-5.090611E-3	1.759657E-3	-1.928206E-3	-2.920397E-3	-1.259392E-3	-7.383023E-3	2.853800E-3	-1.059544E-2	2.123097E-3	-3.111077E-3	1.495591E-3	-8.707609E-5	-5.615089E-3	-4.194615E-3	-7.807971E-3	-1.094871E-2	-7.776914E-3	-7.326081E-3	-7.189678E-3	4.230393E-3	2.470092E-2	3.919357E-3	-6.509899E-3	-6.338426E-3	-3.897131E-3	4.984057E-3	-2.060757E-3	-6.611410E-3	1.175552E-2	-7.052416E-3	-1.177647E-2
2.820040E+2	2.636407E-3	1.072924E-2	7.693573E-3	-1.329040E-2	7.674997E-3	-3.674789E-3	-3.512649E-4	1.667009E-3	-7.392009E-3	2.537136E-3	4.597542E-3	-1.048594E-3	2.806885E-3	6.328899E-3	1.106220E-2	-6.141355E-3	-7.401400E-3	-3.894113E-3	-2.056054E-3	2.877338E-3	8.682579E-3	-1.146557E-2	3.402856E-3	3.520216E-3	3.646303E-3	3.688139E-3	4.598261E-3	3.523925E-3	6.344251E-3	2.484812E-3	1.222543E-2	3.051967E-3	3.173824E-3	-5.804078E-3	2.336096E-3	5.264723E-4	-3.786108E-5	1.278959E-2	1.498715E-2	1.008222E-2	3.312768E-3	-2.096150E-3	7.858787E-4	1.920196E-3	-1.963864E-3	-4.298255E-3	8.498826E-3	1.070060E-2	2.211906E-2	-1.500582E-3	6.725424E-3	9.125166E-3	5.747947E-3	1.214731E-2	-2.757908E-3	-1.038604E-3	6.635717E-3	1.963775E-3	-3.407381E-3	1.464171E-2	3.983422E-4	1.030990E-2	8.020019E-3	-2.874547E-4	8.674960E-3	1.411486E-2	1.023546E-2	4.479448E-5	9.880748E-4	-2.002009E-3	1.160185E-2	6.021063E-3	-1.265717E-3	8.669249E-3	8.981140E-3	1.203862E-2	5.502268E-4	3.326871E-3	1.907349E-3	9.292973E-3	6.167287E-4	-2.736122E-3	-1.029535E-2	-3.508457E-3	1.809505E-2	-7.202675E-3	-7.756238E-3	8.529080E-3	-1.160109E-3	-6.019705E-3	-9.147439E-4	6.209097E-3	1.663005E-4	1.193857E-2	1.264018E-2	8.317588E-4	1.040977E-2	6.262524E-3	-1.125817E-2	-4.146284E-3	6.532447E-3	1.766875E-2	1.324842E-3	2.476803E-2	-2.469753E-3	4.282031E-3	-3.254680E-3	2.785884E-3	4.304956E-3	-3.756597E-3	2.700440E-3	-1.850406E-3	8.237730E-3	1.310930E-2	-1.414213E-2	-4.491619E-3	2.556468E-3	1.012309E-2	2.329735E-3	3.298775E-3	-1.230428E-3	1.218163E-2	9.419289E-3	2.043405E-3	-7.238594E-3	6.780814E-3	-7.969429E-3	2.676388E-3	1.317526E-3	6.508889E-3	-8.951740E-4	7.739958E-4	1.706933E-2	3.583333E-3	5.008263E-3	3.031594E-4	9.550202E-3	-9.819700E-4	2.171665E-2	4.418262E-3	5.931737E-3	3.805613E-3	1.231458E-2	-3.831349E-3	7.669142E-3	9.685270E-3	3.920196E-3	1.876762E-3	8.719701E-3	4.737800E-3	3.873222E-3	1.361416E-2	5.419613E-3	1.900122E-3	8.922288E-3	-1.348191E-3	8.405174E-3	5.826339E-3	2.661705E-3	1.248165E-2	4.539035E-3	-2.482357E-3	4.215921E-3	9.382612E-3	2.436253E-3	-3.672021E-3	5.287563E-3	9.745696E-3	1.139782E-2	6.342584E-3	7.983883E-3	2.822262E-3
2.825030E+2	1.039162E-2	1.322505E-3	-1.958784E-3	2.533204E-2	9.631750E-3	-5.704607E-3	-3.943873E-3	1.325968E-2	1.383054E-2	1.712006E-2	1.314457E-2	1.119636E-4	1.095218E-2	4.334764E-3	3.684088E-3	1.414504E-2	-2.033550E-3	3.922926E-3	-2.102068E-3	-4.235459E-3	6.928479E-3	1.680275E-2	2.425476E-4	5.512031E-3	-2.476128E-3	3.631056E-3	8.875764E-3	7.153408E-3	1.181585E-3	-7.084422E-4	2.635597E-3	4.033892E-3	9.795668E-3	6.027327E-3	1.275133E-2	-6.623451E-3	3.536853E-3	-4.222405E-3	9.469816E-4	1.002078E-2	1.420629E-2	-9.862933E-5	1.220247E-2	-6.665072E-3	6.118226E-3	9.186113E-3	6.352278E-3	9.695532E-3	-7.666905E-3	-4.261211E-4	1.996417E-3	2.730838E-3	-2.580940E-3	1.210158E-2	1.971228E-2	5.898742E-3	7.735930E-3	5.774761E-3	5.415135E-3	9.809706E-3	1.451237E-3	6.052934E-3	2.829765E-3	1.167937E-2	7.311106E-3	8.346779E-3	7.933132E-3	9.499647E-3	1.117016E-2	1.238505E-2	2.035333E-3	1.907039E-4	5.033059E-3	3.631574E-3	5.288311E-3	3.028478E-3	1.574695E-2	1.254231E-2	7.333519E-3	7.134662E-3	-5.971890E-3	2.562366E-3	1.677286E-3	3.082731E-3	1.523899E-2	2.063517E-2	1.259093E-2	1.327489E-3	9.700644E-3	3.526273E-3	1.153919E-2	1.253912E-2	5.628501E-3	2.250759E-3	-2.192844E-4	1.847445E-3	3.816223E-3	-2.584282E-3	8.880199E-3	-2.948802E-3	-4.790553E-4	3.769981E-3	3.508696E-3	-1.730707E-3	5.974243E-3	1.123563E-2	1.823187E-2	1.523781E-3	6.329450E-3	3.836440E-4	3.766551E-3	-9.989590E-3	5.614362E-3	-9.354607E-3	8.889933E-3	5.370042E-3	6.759764E-3	-3.288876E-3	3.612962E-3	-2.780428E-4	-1.267758E-3	-4.055158E-3	-9.687860E-3	-4.598599E-3	1.362508E-2	-7.801846E-3	6.038008E-3	-1.332736E-3	2.518015E-3	5.220392E-3	6.665416E-3	7.406835E-4	-3.080411E-3	1.098329E-3	1.444722E-3	2.404765E-3	8.415197E-3	4.439865E-3	7.419498E-3	2.485186E-2	-3.112607E-3	-2.695274E-3	-3.665104E-3	5.812386E-3	1.222574E-2	9.635751E-3	1.248597E-2	-1.897137E-3	7.681928E-3	2.354429E-3	3.828720E-3	6.460286E-3	3.295941E-3	1.399765E-2	1.383826E-3	1.484528E-2	3.058665E-3	6.829139E-3	3.612476E-3	1.040516E-2	2.190135E-3	2.494443E-3	7.927521E-3	3.750020E-3	-4.224455E-3	8.838617E-3	1.220862E-2	5.511111E-3	1.409841E-2	1.970141E-2	1.095884E-2	6.547582E-2
2.830040E+2	-3.724071E-3	7.437400E-3	-3.507366E-4	-1.010345E-3	3.876176E-3	2.546871E-3	-1.676799E-4	-6.327128E-3	7.020213E-3	6.956353E-3	6.989252E-3	2.793897E-3	3.941043E-3	1.427979E-2	1.410288E-2	-1.893917E-3	5.805466E-3	2.454548E-2	1.238019E-2	8.981869E-3	2.103099E-2	7.363965E-3	2.133670E-2	-7.598525E-3	1.200109E-2	7.179324E-3	1.245610E-2	-2.478725E-3	9.653188E-3	1.006562E-2	1.154177E-2	1.052455E-2	8.946072E-3	-1.269546E-3	2.476305E-2	1.026056E-2	3.833564E-3	1.219922E-2	2.226076E-2	1.145427E-2	1.352158E-2	-4.906879E-3	2.292844E-2	1.189890E-2	-7.402059E-4	1.434559E-2	5.608033E-3	-1.537176E-3	-2.960915E-4	1.292340E-2	5.794318E-3	8.280185E-3	1.118317E-2	1.052558E-2	-2.556429E-3	2.165913E-3	5.679347E-3	9.944537E-3	1.014709E-2	1.250095E-2	1.952833E-2	1.056990E-2	-3.124432E-3	1.502278E-2	-1.536376E-3	7.442050E-3	8.223022E-3	2.172962E-2	1.334727E-2	3.929928E-3	-9.487936E-4	1.208203E-2	1.591175E-2	5.014208E-3	3.072946E-3	4.530026E-3	1.405938E-2	3.372110E-3	2.072279E-2	1.170067E-2	-2.581334E-4	1.509416E-2	1.947912E-3	1.122835E-3	1.370180E-2	1.269631E-2	5.080467E-3	7.829006E-3	1.762331E-2	2.822409E-3	1.916124E-2	1.031958E-2	1.576739E-2	-1.429093E-3	1.204038E-2	6.295260E-3	2.127011E-2	1.159803E-2	2.248205E-2	7.270991E-3	-2.016969E-4	7.414190E-3	1.766210E-2	1.027348E-2	1.269378E-2	3.108400E-2	9.286829E-3	9.116287E-3	1.495629E-2	1.400320E-2	8.219720E-4	9.587632E-3	-3.120068E-3	1.158961E-2	6.271301E-3	1.076419E-2	1.834008E-3	1.905093E-2	-3.430271E-4	1.807157E-2	1.340343E-3	2.032008E-2	-4.042288E-4	9.351203E-4	-3.741911E-3	9.505235E-3	1.044879E-2	1.996298E-2	1.534899E-2	2.431118E-2	1.459303E-2	8.992490E-3	1.644816E-2	8.723042E-3	1.115703E-2	-2.697651E-3	2.198649E-3	4.714921E-3	1.682591E-2	4.630830E-3	1.423653E-2	-3.503838E-3	4.620128E-3	-4.703538E-3	9.095059E-3	1.354453E-2	1.779654E-2	-4.105297E-4	1.204703E-2	3.795039E-3	6.380053E-3	-1.347690E-2	9.887686E-3	2.043909E-2	-1.587737E-3	8.911118E-3	7.625583E-3	1.749287E-2	1.970920E-3	2.721889E-2	9.439477E-3	-1.002067E-3	-4.370871E-3	1.417392E-2	7.447080E-3	1.601866E-2	-2.879149E-4	4.751431E-3	1.721935E-2	8.572411E-3	-1.247682E-2	-6.528903E-3
2.835020E+2	2.141837E-2	4.215193E-2	2.441711E-2	2.110626E-2	2.756753E-2	2.008855E-2	3.231445E-2	1.856505E-2	1.332490E-2	2.423350E-2	2.700402E-2	1.004609E-2	2.367632E-2	2.945440E-2	2.107217E-2	2.501541E-2	2.235426E-2	2.491736E-2	1.356293E-2	2.703401E-2	3.127372E-2	2.164176E-2	3.131819E-2	1.558634E-2	4.029597E-2	2.614699E-2	1.704458E-2	3.401864E-2	2.131258E-2	3.075369E-2	3.243849E-2	2.335275E-2	2.258456E-2	3.088350E-2	4.182831E-2	2.125792E-2	4.966452E-3	1.808628E-2	2.849745E-2	2.542601E-2	2.494108E-2	2.230496E-2	4.575574E-2	1.930912E-2	2.839999E-2	2.855754E-2	1.005147E-2	1.014613E-2	3.365873E-2	1.753996E-2	2.503379E-2	3.111864E-2	3.688873E-2	1.568869E-2	5.767174E-3	3.290378E-2	3.908589E-2	2.800006E-2	2.958439E-2	2.497187E-2	2.436992E-2	2.908781E-2	1.359097E-2	2.251080E-2	1.409578E-2	2.314545E-3	3.316788E-2	1.948222E-2	2.601813E-2	1.403162E-2	2.529643E-2	2.285815E-2	2.914925E-2	9.530222E-3	1.808158E-2	2.259783E-2	3.731251E-2	1.910741E-2	-1.841998E-4	1.630018E-2	2.096447E-2	2.468661E-2	3.599038E-2	2.359938E-2	1.212635E-2	2.923054E-2	3.821804E-2	2.708155E-2	3.232447E-2	2.877032E-2	2.299381E-2	2.461297E-2	2.156075E-2	2.119391E-2	1.445560E-2	1.808852E-2	2.132693E-2	2.572833E-2	1.661433E-2	2.115715E-2	2.031798E-2	1.222532E-2	1.445834E-2	2.458247E-2	3.240717E-2	3.982118E-2	2.788068E-2	2.523438E-2	3.534394E-2	2.031770E-2	1.906220E-2	3.269970E-2	3.096871E-3	1.293443E-2	2.282588E-2	2.949052E-2	3.759817E-2	2.338104E-2	2.418483E-2	1.578610E-2	2.385034E-3	1.471115E-2	1.258661E-2	1.414924E-2	2.316887E-2	9.422093E-3	2.312435E-2	1.423581E-2	3.854204E-2	1.704822E-2	5.449673E-3	2.531978E-2	9.907531E-3	1.569762E-2	2.003528E-2	1.602897E-2	1.450224E-2	2.653046E-2	1.321059E-2	2.409682E-2	2.272479E-2	3.774203E-2	2.233976E-2	1.938631E-2	1.737882E-2	2.586268E-2	2.053419E-2	1.843017E-2	1.643870E-2	1.314851E-2	1.920913E-2	1.766924E-2	1.325660E-2	3.148531E-2	1.599342E-2	1.008983E-2	2.193885E-2	2.838298E-2	2.117102E-2	1.409811E-2	1.188677E-2	1.157278E-2	2.238661E-2	2.249980E-2	2.424575E-2	3.610397E-2	1.504281E-2	3.392954E-2	5.973719E-3	2.929520E-2	2.795580E-2	2.400417E-2
2.840020E+2	3.366107E-2	5.352315E-2	3.153774E-2	4.401131E-2	6.481019E-2	5.301019E-2	4.361534E-2	5.780159E-2	2.622012E-2	5.300064E-2	5.102776E-2	5.583381E-2	4.339951E-2	2.905031E-2	4.174995E-2	4.346645E-2	4.746055E-2	6.163814E-2	3.064887E-2	7.303082E-2	4.444090E-2	3.853786E-2	3.074074E-2	4.421021E-2	4.002804E-2	4.477681E-2	5.030809E-2	5.255683E-2	3.878845E-2	5.338480E-2	2.923837E-2	4.863932E-2	5.211872E-2	4.621457E-2	7.178043E-2	5.509533E-2	2.602348E-2	4.674829E-2	5.083138E-2	5.315231E-2	4.936080E-2	2.173703E-2	3.205695E-2	4.746810E-2	4.805841E-2	6.076790E-2	3.894140E-2	3.336095E-2	3.652391E-2	4.285244E-2	3.772526E-2	4.052122E-2	3.316344E-2	2.501918E-2	3.185262E-2	6.285555E-2	4.329907E-2	3.879011E-2	5.111766E-2	5.680610E-2	4.913424E-2	3.517898E-2	5.806767E-2	6.922637E-2	3.717898E-2	5.351360E-2	3.251113E-2	5.325567E-2	4.699462E-2	4.703992E-2	3.235988E-2	4.619964E-2	4.732417E-2	3.706491E-2	3.903280E-2	3.744263E-2	5.082456E-2	4.643992E-2	4.409403E-2	4.985635E-2	3.961108E-2	3.247375E-2	5.522767E-2	5.048163E-2	4.940804E-2	4.544437E-2	3.879812E-2	3.733073E-2	4.985667E-2	5.274328E-2	4.348999E-2	2.610224E-2	4.813617E-2	3.322101E-2	4.082869E-2	5.336058E-2	4.478764E-2	4.660658E-2	5.543508E-2	4.991165E-2	3.852797E-2	4.730232E-2	3.340319E-2	3.719415E-2	4.843664E-2	5.028057E-2	2.691358E-2	5.472756E-2	3.587748E-2	2.691613E-2	3.567314E-2	3.539957E-2	4.733603E-2	3.630862E-2	3.151179E-2	3.865399E-2	2.606603E-2	2.919234E-2	5.820683E-2	3.715061E-2	3.129065E-2	5.339888E-2	6.224315E-2	2.782052E-2	3.725959E-2	5.066771E-2	4.674012E-2	4.689602E-2	2.460015E-2	3.724764E-2	5.704331E-2	4.942168E-2	5.844804E-2	4.411370E-2	6.636292E-2	2.642095E-2	2.835820E-2	3.122851E-2	4.879338E-2	4.430191E-2	5.256340E-2	2.019158E-2	5.509189E-2	4.105699E-2	4.162703E-2	5.281618E-2	5.714428E-2	4.194527E-2	6.964079E-2	3.941772E-2	4.362217E-2	4.396514E-2	6.745005E-2	3.842869E-2	3.347277E-2	2.832640E-2	6.933672E-2	3.651770E-2	4.846927E-2	5.842706E-2	3.133869E-2	4.972546E-2	5.044901E-2	2.285822E-2	4.372543E-2	3.616714E-2	4.364403E-2	3.563536E-2	3.733660E-2	2.738335E-2	6.129793E-2	2.535523E-2
2.841010E+2	2.776662E-2	3.497107E-2	5.009978E-2	3.622567E-2	5.669317E-2	3.627392E-2	3.601657E-2	3.443735E-2	4.660600E-2	3.649029E-2	4.096032E-2	4.165789E-2	4.265839E-2	5.464763E-2	4.099261E-2	5.110273E-2	4.752013E-2	1.993794E-2	4.665875E-2	5.074473E-2	5.111183E-2	2.821869E-2	4.391706E-2	5.100943E-2	5.411934E-2	4.480800E-2	4.809987E-2	2.883058E-2	3.880015E-2	5.241178E-2	3.127434E-2	5.204999E-2	6.173475E-2	4.518781E-2	3.982770E-2	2.476797E-2	3.085556E-2	3.753235E-2	3.471396E-2	4.243573E-2	4.527860E-2	4.229227E-2	3.559690E-2	5.773255E-2	4.280558E-2	4.357202E-2	5.691474E-2	3.030249E-2	2.488199E-2	4.166247E-2	5.010668E-2	5.176583E-2	5.299330E-2	3.413491E-2	4.559234E-2	3.982256E-2	5.316432E-2	4.205865E-2	3.468715E-2	2.736203E-2	4.565443E-2	3.296960E-2	4.846348E-2	2.804443E-2	4.521324E-2	3.087816E-2	3.481492E-2	3.682715E-2	5.416304E-2	5.248406E-2	2.536101E-2	4.248429E-2	4.518752E-2	4.168504E-2	6.141299E-2	4.390554E-2	4.130810E-2	5.077637E-2	2.560907E-2	3.658599E-2	3.260977E-2	4.323970E-2	4.522582E-2	4.939424E-2	4.059987E-2	5.067361E-2	4.585924E-2	3.737385E-2	4.533944E-2	4.474792E-2	3.945706E-2	4.735172E-2	4.590369E-2	3.652009E-2	3.855460E-2	3.575514E-2	4.175954E-2	4.169151E-2	1.743422E-2	4.722776E-2	4.607861E-2	5.689791E-2	5.122336E-2	4.623467E-2	4.398541E-2	6.038436E-2	2.156556E-2	3.404550E-2	4.574979E-2	4.281466E-2	4.751236E-2	4.514741E-2	4.585834E-2	4.570549E-2	2.658598E-2	5.012668E-2	4.615103E-2	3.244724E-2	3.808015E-2	3.186780E-2	2.861211E-2	6.067419E-2	3.634433E-2	6.391929E-2	3.127543E-2	4.542396E-2	4.583302E-2	3.327350E-2	3.485033E-2	3.176502E-2	5.027400E-2	4.219006E-2	3.325868E-2	3.569038E-2	3.626929E-2	3.431125E-2	3.169786E-2	3.961976E-2	5.699874E-2	4.134877E-2	3.564510E-2	3.733288E-2	2.968613E-2	3.187692E-2	5.627264E-2	2.705992E-2	4.668588E-2	6.163855E-2	6.048985E-2	3.027069E-2	4.845986E-2	3.126185E-2	5.444554E-2	5.933121E-2	2.528768E-2	2.529202E-2	4.022107E-2	4.890169E-2	2.475103E-2	2.597695E-2	2.870265E-2	6.528978E-2	3.578709E-2	3.934187E-2	3.077467E-2	4.504234E-2	6.267974E-2	4.796850E-2	3.998896E-2	4.156037E-2	3.135466E-2	3.137491E-2
2.842040E+2	2.109628E-2	3.148418E-2	4.890592E-2	2.098141E-2	4.843429E-2	3.116734E-2	6.892303E-2	5.337764E-2	2.740008E-2	5.128145E-2	3.926539E-2	4.971593E-2	4.291583E-2	4.775558E-2	4.724822E-2	5.461335E-2	8.011746E-2	3.694582E-2	4.576684E-2	4.848124E-2	5.232561E-2	2.946207E-2	5.422393E-2	4.355363E-2	5.328916E-2	3.571802E-2	4.172117E-2	3.299207E-2	5.106487E-2	3.689106E-2	3.878199E-2	5.230819E-2	4.889261E-2	3.503595E-2	5.379298E-2	3.637673E-2	3.881197E-2	5.121060E-2	5.734074E-2	4.255587E-2	4.979119E-2	3.055399E-2	3.581680E-2	3.844456E-2	4.414049E-2	2.203883E-2	4.033052E-2	4.893297E-2	6.195871E-2	4.538903E-2	2.021820E-2	5.322970E-2	3.332599E-2	4.256600E-2	5.600085E-2	4.433584E-2	5.090191E-2	3.913289E-2	2.173369E-2	6.960874E-3	5.657468E-2	4.103834E-2	4.872814E-2	3.575773E-2	4.268462E-2	4.447660E-2	4.499214E-2	2.942938E-2	4.650084E-2	3.403510E-2	6.911971E-2	5.262155E-2	4.883372E-2	3.265556E-2	5.630716E-2	5.506517E-2	3.176590E-2	5.311217E-2	5.716463E-2	4.361558E-2	3.752004E-2	3.040533E-2	4.548708E-2	3.669075E-2	4.902735E-2	3.713812E-2	4.969016E-2	3.761727E-2	3.516590E-2	3.463189E-2	5.914748E-2	5.032223E-2	3.800572E-2	2.827206E-2	4.344876E-2	3.152149E-2	3.495837E-2	3.700046E-2	4.560843E-2	3.024728E-2	4.208263E-2	3.838717E-2	2.509108E-2	4.763698E-2	3.855266E-2	4.851073E-2	4.887136E-2	4.852641E-2	5.153869E-2	5.164588E-2	3.236113E-2	3.673595E-2	4.336627E-2	4.360734E-2	5.105747E-2	3.343455E-2	4.079235E-2	3.270966E-2	2.941621E-2	4.871958E-2	1.892312E-2	4.312584E-2	4.067485E-2	3.743808E-2	5.035341E-2	4.901512E-2	3.533973E-2	4.204299E-2	5.905515E-2	4.635508E-2	5.594476E-2	4.121884E-2	4.890206E-2	4.026050E-2	5.297581E-2	5.640921E-2	2.147555E-2	5.090668E-2	4.054752E-2	4.568093E-2	5.091483E-2	3.326418E-2	4.090273E-2	4.014798E-2	4.672424E-2	5.801975E-2	3.901480E-2	2.870244E-2	3.710979E-2	3.981728E-2	3.422088E-2	3.147473E-2	3.903699E-2	4.531782E-2	5.903162E-2	4.284610E-2	4.959106E-2	3.577580E-2	5.008556E-2	5.029684E-2	3.138426E-2	5.084551E-2	5.891188E-2	4.198936E-2	4.830095E-2	6.341763E-2	5.045057E-2	5.049257E-2	3.145066E-2	4.009294E-2	3.464981E-2	3.672001E-2
2.843030E+2	5.626835E-2	6.700755E-2	7.569429E-2	7.188336E-2	5.751981E-2	6.493369E-2	6.454970E-2	5.124448E-2	6.924038E-2	6.998236E-2	7.581681E-2	6.040273E-2	6.404188E-2	6.178881E-2	8.062949E-2	5.495557E-2	6.103813E-2	6.155051E-2	9.354856E-2	7.543284E-2	5.488466E-2	6.676349E-2	8.058389E-2	4.929464E-2	8.448343E-2	6.525248E-2	6.207116E-2	6.614063E-2	5.473216E-2	8.154676E-2	6.617247E-2	6.611378E-2	8.512695E-2	5.745886E-2	7.174926E-2	6.081620E-2	7.454180E-2	7.414839E-2	6.779074E-2	6.221734E-2	9.448027E-2	6.946946E-2	4.983815E-2	8.333693E-2	8.079463E-2	8.306029E-2	8.629366E-2	5.866194E-2	5.837447E-2	6.094734E-2	3.652598E-2	7.064170E-2	6.378947E-2	6.888066E-2	4.996261E-2	7.715886E-2	8.775348E-2	6.762194E-2	7.861367E-2	5.334836E-2	4.607835E-2	6.514956E-2	6.375554E-2	6.747878E-2	5.812697E-2	5.955144E-2	6.032619E-2	6.535645E-2	7.011511E-2	7.023762E-2	6.852616E-2	5.789647E-2	5.714401E-2	7.621424E-2	6.581930E-2	9.402558E-2	5.615043E-2	6.398065E-2	7.174307E-2	6.455998E-2	6.614150E-2	7.249330E-2	6.498205E-2	5.946671E-2	6.711185E-2	5.556924E-2	5.599026E-2	5.127647E-2	8.935951E-2	6.434062E-2	7.125808E-2	9.589318E-2	8.192091E-2	3.602773E-2	6.254928E-2	5.989262E-2	6.329624E-2	7.086173E-2	8.321111E-2	5.968239E-2	5.107063E-2	6.412644E-2	6.155293E-2	6.752300E-2	4.438863E-2	8.033381E-2	7.657057E-2	7.104157E-2	6.873671E-2	7.056723E-2	7.229653E-2	5.456708E-2	4.476418E-2	6.189767E-2	7.606708E-2	7.035813E-2	6.394436E-2	5.928318E-2	5.260352E-2	9.830180E-2	6.131027E-2	6.265341E-2	8.514960E-2	7.307394E-2	7.576193E-2	5.726536E-2	9.240964E-2	7.593792E-2	6.477991E-2	9.558108E-2	6.573669E-2	6.476279E-2	8.902346E-2	6.137308E-2	8.155538E-2	8.379565E-2	6.506873E-2	7.737502E-2	8.296239E-2	7.207774E-2	6.656968E-2	7.971203E-2	4.974801E-2	9.057767E-2	1.019044E-1	7.050326E-2	7.389063E-2	8.112881E-2	6.032148E-2	6.639309E-2	7.605436E-2	5.456634E-2	7.799534E-2	6.801805E-2	7.241822E-2	7.543212E-2	8.352861E-2	6.113030E-2	6.759750E-2	8.189125E-2	7.150505E-2	6.739899E-2	5.509199E-2	4.829471E-2	7.667604E-2	5.080736E-2	6.341968E-2	6.571692E-2	7.139663E-2	6.943403E-2	5.550705E-2	6.936669E-2
2.844010E+2	1.270184E-1	1.050181E-1	8.873512E-2	1.158562E-1	9.576713E-2	1.148945E-1	1.271571E-1	1.195922E-1	1.046521E-1	1.189038E-1	1.179895E-1	1.158625E-1	1.276055E-1	1.026719E-1	1.115086E-1	1.002366E-1	9.999296E-2	1.006918E-1	1.161164E-1	8.565454E-2	1.053365E-1	1.273189E-1	9.863729E-2	1.241159E-1	8.870262E-2	1.571828E-1	1.118020E-1	1.262221E-1	1.292451E-1	9.629541E-2	1.109951E-1	1.221185E-1	1.031406E-1	9.741698E-2	9.834575E-2	1.134221E-1	8.631358E-2	1.229007E-1	1.171255E-1	1.186472E-1	1.312988E-1	1.148818E-1	1.309784E-1	9.787469E-2	1.359402E-1	1.335294E-1	1.217357E-1	1.148594E-1	1.255400E-1	1.143175E-1	1.129659E-1	1.282405E-1	1.032336E-1	9.179289E-2	9.256608E-2	1.260270E-1	1.004045E-1	1.064313E-1	1.272062E-1	1.328085E-1	1.375224E-1	1.062985E-1	1.310801E-1	1.001916E-1	1.201822E-1	9.218433E-2	1.094704E-1	1.144051E-1	1.197350E-1	1.084343E-1	1.210486E-1	9.314440E-2	1.122491E-1	1.173620E-1	9.457083E-2	1.255606E-1	1.169694E-1	7.537497E-2	1.156246E-1	1.139113E-1	1.232225E-1	1.157589E-1	1.115207E-1	1.229844E-1	1.116976E-1	1.049339E-1	1.105283E-1	1.029766E-1	1.153083E-1	1.002897E-1	1.070652E-1	1.275727E-1	1.163028E-1	1.119079E-1	1.063268E-1	1.211832E-1	1.147369E-1	1.122579E-1	1.104311E-1	1.068318E-1	1.240254E-1	1.460718E-1	1.140377E-1	9.521122E-2	1.263723E-1	1.085291E-1	1.132725E-1	1.040059E-1	1.418376E-1	1.348295E-1	9.407936E-2	1.042682E-1	1.159811E-1	7.519871E-2	1.143186E-1	1.339635E-1	9.494831E-2	1.043739E-1	9.661345E-2	1.022390E-1	1.265706E-1	1.135668E-1	1.060431E-1	1.189093E-1	1.141506E-1	1.066323E-1	9.904782E-2	1.074500E-1	9.865831E-2	1.022565E-1	1.277056E-1	1.068075E-1	1.089528E-1	9.433699E-2	9.575654E-2	1.013805E-1	1.076508E-1	1.110544E-1	9.855589E-2	1.221860E-1	1.070518E-1	1.128084E-1	1.367176E-1	1.247310E-1	9.941782E-2	1.270423E-1	1.275878E-1	1.108860E-1	1.085991E-1	1.085375E-1	1.105128E-1	1.318783E-1	1.407936E-1	9.048282E-2	1.042078E-1	1.107345E-1	1.160195E-1	1.104980E-1	1.091644E-1	1.131457E-1	1.129465E-1	9.369190E-2	1.085046E-1	8.600418E-2	1.295002E-1	1.182441E-1	1.118394E-1	1.126601E-1	1.325072E-1	1.238608E-1	8.468330E-2	1.059919E-1
2.845010E+2	1.635908E-1	1.237308E-1	1.594303E-1	1.680669E-1	1.695321E-1	1.566669E-1	1.715509E-1	1.765577E-1	1.654319E-1	1.621507E-1	1.488940E-1	1.588355E-1	1.477451E-1	1.710752E-1	1.803396E-1	1.596723E-1	1.401013E-1	1.509129E-1	1.784436E-1	1.314372E-1	1.623401E-1	1.601181E-1	1.584927E-1	1.576974E-1	1.670031E-1	1.307670E-1	1.601032E-1	1.578083E-1	1.936563E-1	1.854336E-1	1.797677E-1	1.680994E-1	1.767244E-1	1.408734E-1	1.475768E-1	1.658568E-1	1.690027E-1	1.710101E-1	1.524080E-1	1.541867E-1	1.628295E-1	1.711949E-1	1.746434E-1	1.653069E-1	1.678416E-1	1.640409E-1	1.488853E-1	1.462156E-1	1.535580E-1	1.578169E-1	1.815041E-1	1.755533E-1	1.415275E-1	1.523055E-1	1.687035E-1	1.379917E-1	1.674346E-1	1.580463E-1	1.538180E-1	1.980036E-1	1.673054E-1	1.336641E-1	1.457022E-1	1.734708E-1	1.580631E-1	1.623620E-1	1.709247E-1	1.530060E-1	1.350328E-1	1.339616E-1	1.537413E-1	1.560483E-1	1.928938E-1	1.584381E-1	1.469925E-1	1.529119E-1	1.391473E-1	1.592846E-1	1.535185E-1	1.449703E-1	1.577732E-1	1.413094E-1	1.553641E-1	1.493568E-1	1.492270E-1	1.444525E-1	1.261930E-1	1.446500E-1	1.637499E-1	1.660797E-1	1.812890E-1	1.605459E-1	1.840815E-1	1.467962E-1	1.667987E-1	1.404901E-1	1.415700E-1	1.510993E-1	1.635168E-1	1.470799E-1	1.492361E-1	1.634096E-1	1.666329E-1	1.448512E-1	1.344240E-1	1.650763E-1	1.195660E-1	1.739200E-1	1.566235E-1	1.579250E-1	1.704011E-1	1.530203E-1	1.788204E-1	1.585240E-1	1.340035E-1	1.724203E-1	1.789954E-1	1.573861E-1	1.626699E-1	1.463941E-1	1.390666E-1	1.596858E-1	1.630584E-1	1.444811E-1	1.682319E-1	1.764981E-1	1.860062E-1	1.794716E-1	1.663732E-1	1.620677E-1	1.911446E-1	1.637733E-1	1.436535E-1	1.505054E-1	1.537313E-1	1.494649E-1	1.634026E-1	1.434483E-1	1.836185E-1	1.442267E-1	1.597833E-1	1.571440E-1	1.616504E-1	1.652773E-1	1.758250E-1	1.451203E-1	1.691768E-1	1.874645E-1	1.691682E-1	1.413385E-1	1.535892E-1	1.542567E-1	1.511662E-1	1.759800E-1	1.501356E-1	1.338996E-1	1.625346E-1	1.516708E-1	1.852279E-1	1.646971E-1	1.443125E-1	1.688853E-1	1.687399E-1	1.382704E-1	1.452559E-1	1.561984E-1	1.961464E-1	1.666840E-1	1.801922E-1	1.762000E-1	1.574792E-1	1.123942E-1
2.846030E+2	1.995764E-1	2.121072E-1	2.175253E-1	2.151778E-1	2.171029E-1	2.139140E-1	2.025301E-1	2.159355E-1	2.258680E-1	2.095045E-1	1.989809E-1	1.999787E-1	2.332393E-1	2.053217E-1	2.094180E-1	2.229912E-1	2.247838E-1	1.747475E-1	2.116582E-1	1.987225E-1	1.976616E-1	1.948184E-1	1.879480E-1	1.808574E-1	2.077235E-1	2.158381E-1	2.031188E-1	2.114243E-1	2.198723E-1	2.484254E-1	2.054276E-1	2.021615E-1	2.133840E-1	2.326747E-1	2.032358E-1	2.272742E-1	2.010346E-1	2.058835E-1	2.409421E-1	1.967150E-1	1.883384E-1	1.915862E-1	2.200812E-1	2.146222E-1	1.858770E-1	1.920079E-1	2.132367E-1	1.717951E-1	2.366937E-1	2.009767E-1	1.817197E-1	2.118845E-1	2.009576E-1	2.586650E-1	1.898580E-1	2.040439E-1	2.124240E-1	2.018009E-1	2.089979E-1	2.208403E-1	2.076083E-1	2.297107E-1	2.195904E-1	2.168099E-1	2.138725E-1	2.145358E-1	2.231868E-1	1.573037E-1	1.843971E-1	1.899207E-1	2.281675E-1	1.995497E-1	2.338502E-1	1.871767E-1	1.976832E-1	2.119982E-1	2.186904E-1	2.128268E-1	2.123288E-1	1.847094E-1	2.384789E-1	1.908611E-1	1.973779E-1	2.137739E-1	2.144150E-1	2.098764E-1	1.985629E-1	1.903841E-1	2.116730E-1	1.803935E-1	2.177031E-1	1.956685E-1	2.419083E-1	2.084751E-1	2.291801E-1	2.267073E-1	2.326270E-1	2.045831E-1	2.395967E-1	2.071690E-1	2.265109E-1	2.024960E-1	2.138312E-1	2.301094E-1	2.279426E-1	1.950905E-1	2.110936E-1	2.115822E-1	2.069436E-1	2.132643E-1	2.134711E-1	1.901639E-1	2.214035E-1	1.844661E-1	2.288242E-1	2.262435E-1	2.280272E-1	2.099501E-1	2.569874E-1	2.136662E-1	1.875902E-1	2.077520E-1	2.434692E-1	2.083811E-1	1.952528E-1	1.815020E-1	2.008405E-1	2.149931E-1	2.350185E-1	2.281476E-1	1.887811E-1	2.040776E-1	1.988917E-1	1.907883E-1	2.034945E-1	2.006093E-1	2.162879E-1	2.368555E-1	1.740392E-1	2.035238E-1	1.800600E-1	1.898120E-1	2.146815E-1	1.811771E-1	2.279550E-1	1.952297E-1	2.061133E-1	2.210109E-1	1.961568E-1	2.044123E-1	2.581456E-1	2.499630E-1	2.206133E-1	2.149008E-1	2.240624E-1	2.207508E-1	2.155571E-1	2.060935E-1	1.814117E-1	2.025936E-1	2.383697E-1	2.247896E-1	2.311880E-1	1.935177E-1	1.972550E-1	1.812096E-1	2.427967E-1	2.163105E-1	2.028640E-1	1.677912E-1	1.807190E-1	1.656332E-1
2.847020E+2	4.141793E-1	3.772617E-1	3.584322E-1	3.738923E-1	3.982617E-1	4.049134E-1	4.063226E-1	4.271012E-1	4.170547E-1	4.053113E-1	3.860029E-1	4.114705E-1	3.892981E-1	3.785963E-1	3.821427E-1	4.060773E-1	3.654619E-1	3.666258E-1	3.925210E-1	3.717558E-1	3.628190E-1	3.913537E-1	3.965079E-1	4.293302E-1	3.767056E-1	3.620115E-1	3.799983E-1	3.831366E-1	3.971209E-1	4.135384E-1	3.649130E-1	3.722961E-1	3.898997E-1	3.520273E-1	3.877509E-1	3.895166E-1	3.885349E-1	3.999528E-1	4.149574E-1	3.451796E-1	4.047861E-1	3.772985E-1	3.725109E-1	3.575543E-1	3.882662E-1	3.767324E-1	3.971280E-1	3.849399E-1	4.113815E-1	3.946373E-1	4.280523E-1	3.654878E-1	4.146306E-1	3.732365E-1	3.680724E-1	3.691915E-1	3.690006E-1	3.767819E-1	3.729897E-1	3.603789E-1	3.905745E-1	3.530213E-1	3.703864E-1	3.554440E-1	3.894070E-1	3.757314E-1	3.780071E-1	3.882007E-1	3.704191E-1	3.675537E-1	3.799744E-1	3.862421E-1	3.810101E-1	3.818500E-1	3.857752E-1	3.256121E-1	3.983589E-1	4.102125E-1	3.944853E-1	3.783031E-1	3.917231E-1	3.876998E-1	3.819739E-1	3.827342E-1	3.691488E-1	3.899826E-1	3.752931E-1	4.034376E-1	4.195049E-1	3.496816E-1	4.372106E-1	3.782692E-1	3.838091E-1	3.647425E-1	4.076490E-1	3.764984E-1	4.003453E-1	3.583343E-1	3.301335E-1	3.818200E-1	3.725294E-1	3.580246E-1	3.857196E-1	3.553587E-1	3.486262E-1	3.823797E-1	3.623616E-1	3.691289E-1	3.472504E-1	3.855418E-1	3.690475E-1	3.927444E-1	4.022310E-1	3.847819E-1	4.475056E-1	3.295296E-1	3.548843E-1	4.006489E-1	3.947523E-1	4.323998E-1	3.796395E-1	3.722642E-1	4.197516E-1	3.982041E-1	3.944187E-1	3.883737E-1	3.919476E-1	3.934099E-1	3.954268E-1	3.910629E-1	3.502051E-1	4.193884E-1	4.056490E-1	3.554913E-1	4.213586E-1	3.690098E-1	3.924560E-1	3.696213E-1	3.918012E-1	3.964580E-1	4.416027E-1	3.463116E-1	4.488477E-1	3.989659E-1	3.698494E-1	4.181889E-1	3.975979E-1	3.913235E-1	3.728844E-1	3.657533E-1	3.941884E-1	3.783942E-1	3.884802E-1	4.105396E-1	3.874858E-1	3.722968E-1	3.930149E-1	3.765643E-1	3.843342E-1	3.792381E-1	3.986470E-1	4.073165E-1	3.849834E-1	3.468079E-1	3.884353E-1	3.921529E-1	4.183037E-1	3.967491E-1	3.763548E-1	3.645102E-1	3.884163E-1	3.628529E-1
2.848000E+2	1.122997E+0	9.800966E-1	9.686749E-1	1.037500E+0	1.044237E+0	1.007614E+0	1.041918E+0	9.600192E-1	9.421910E-1	9.618630E-1	1.016739E+0	1.051293E+0	1.062050E+0	9.862596E-1	9.713212E-1	9.932637E-1	1.075958E+0	1.060427E+0	1.037874E+0	9.584775E-1	9.838566E-1	9.848600E-1	9.669902E-1	1.048859E+0	1.003143E+0	9.431358E-1	9.780526E-1	1.004368E+0	9.748962E-1	9.855730E-1	9.778259E-1	9.772108E-1	9.710998E-1	1.027743E+0	9.866796E-1	9.749244E-1	1.040550E+0	9.787613E-1	9.401480E-1	9.433265E-1	9.879793E-1	9.974559E-1	9.418956E-1	9.996291E-1	9.279072E-1	1.013956E+0	9.967434E-1	9.845391E-1	9.767030E-1	9.690738E-1	1.070585E+0	1.023202E+0	1.006363E+0	9.908977E-1	9.859674E-1	9.870718E-1	9.661679E-1	9.701347E-1	1.002176E+0	9.763061E-1	9.857937E-1	1.014522E+0	1.053118E+0	9.672222E-1	9.888442E-1	1.028516E+0	9.865712E-1	1.040196E+0	9.892452E-1	1.071794E+0	9.910071E-1	9.902608E-1	9.474811E-1	1.022452E+0	9.397400E-1	9.963602E-1	9.808147E-1	9.906641E-1	1.024367E+0	9.989966E-1	1.024476E+0	1.003239E+0	1.043103E+0	1.041944E+0	9.585333E-1	9.930365E-1	9.906528E-1	9.978114E-1	1.040617E+0	9.598667E-1	1.004204E+0	1.001874E+0	1.023649E+0	9.994350E-1	9.746381E-1	1.080675E+0	9.806215E-1	9.985019E-1	9.984612E-1	1.013315E+0	1.014661E+0	9.457366E-1	1.061860E+0	1.019870E+0	9.588701E-1	9.735119E-1	1.098409E+0	9.930701E-1	9.438701E-1	1.039734E+0	1.026031E+0	1.036413E+0	1.011538E+0	1.037998E+0	9.894224E-1	9.740065E-1	1.000603E+0	1.026515E+0	1.035905E+0	1.021906E+0	1.006428E+0	9.344309E-1	1.050178E+0	1.023441E+0	1.048275E+0	9.799302E-1	1.003466E+0	9.784483E-1	1.037445E+0	1.020204E+0	9.901060E-1	9.783985E-1	1.002028E+0	1.021540E+0	9.487485E-1	1.017018E+0	9.702585E-1	1.052123E+0	1.108080E+0	9.235377E-1	1.004234E+0	9.176823E-1	1.077590E+0	1.012739E+0	1.040464E+0	1.052503E+0	9.548403E-1	1.032128E+0	1.008109E+0	1.024238E+0	1.018825E+0	1.007367E+0	9.963338E-1	9.931697E-1	1.098726E+0	1.002396E+0	9.490568E-1	1.037544E+0	1.019888E+0	9.661683E-1	1.069293E+0	9.817370E-1	9.602754E-1	9.592561E-1	1.004071E+0	9.776754E-1	1.064155E+0	1.029147E+0	9.314777E-1	9.831555E-1	1.055375E+0	1.046889E+0
2.849040E+2	1.619955E+0	1.567238E+0	1.540766E+0	1.607140E+0	1.679325E+0	1.592061E+0	1.626129E+0	1.619191E+0	1.593930E+0	1.516722E+0	1.696147E+0	1.648240E+0	1.573456E+0	1.623581E+0	1.616217E+0	1.637357E+0	1.623136E+0	1.602046E+0	1.629763E+0	1.600207E+0	1.599490E+0	1.606655E+0	1.619059E+0	1.645658E+0	1.584903E+0	1.665664E+0	1.617204E+0	1.648799E+0	1.627905E+0	1.590608E+0	1.595008E+0	1.583442E+0	1.609571E+0	1.580174E+0	1.678135E+0	1.588528E+0	1.581051E+0	1.605470E+0	1.590348E+0	1.572034E+0	1.510635E+0	1.581176E+0	1.583873E+0	1.680986E+0	1.632705E+0	1.693136E+0	1.740963E+0	1.610376E+0	1.595927E+0	1.628518E+0	1.500912E+0	1.568932E+0	1.625612E+0	1.588299E+0	1.656979E+0	1.582927E+0	1.541451E+0	1.579042E+0	1.578236E+0	1.575967E+0	1.598257E+0	1.624642E+0	1.588537E+0	1.569384E+0	1.748853E+0	1.619173E+0	1.582938E+0	1.594125E+0	1.598727E+0	1.632277E+0	1.598584E+0	1.562079E+0	1.563695E+0	1.530081E+0	1.534289E+0	1.643238E+0	1.547481E+0	1.620149E+0	1.553908E+0	1.592373E+0	1.600119E+0	1.623588E+0	1.622603E+0	1.596045E+0	1.565387E+0	1.572251E+0	1.608225E+0	1.638103E+0	1.577104E+0	1.631054E+0	1.579193E+0	1.642265E+0	1.585838E+0	1.607027E+0	1.600060E+0	1.601286E+0	1.666334E+0	1.623899E+0	1.598928E+0	1.552751E+0	1.612736E+0	1.614090E+0	1.638444E+0	1.540487E+0	1.576116E+0	1.649434E+0	1.543579E+0	1.538765E+0	1.573354E+0	1.636022E+0	1.723805E+0	1.659099E+0	1.570780E+0	1.606885E+0	1.522966E+0	1.527780E+0	1.561780E+0	1.668634E+0	1.565577E+0	1.630750E+0	1.672007E+0	1.581283E+0	1.581272E+0	1.539796E+0	1.614221E+0	1.610400E+0	1.627070E+0	1.555724E+0	1.594289E+0	1.568715E+0	1.723020E+0	1.654093E+0	1.545999E+0	1.588040E+0	1.687538E+0	1.612849E+0	1.618865E+0	1.603580E+0	1.648270E+0	1.593090E+0	1.570355E+0	1.634168E+0	1.721113E+0	1.627943E+0	1.669017E+0	1.598540E+0	1.634916E+0	1.676404E+0	1.554598E+0	1.653992E+0	1.709726E+0	1.541948E+0	1.543693E+0	1.527631E+0	1.660537E+0	1.611774E+0	1.673852E+0	1.625736E+0	1.597760E+0	1.595540E+0	1.624633E+0	1.694459E+0	1.625974E+0	1.598880E+0	1.568026E+0	1.498404E+0	1.615863E+0	1.568218E+0	1.633232E+0	1.601880E+0	1.653342E+0	1.508523E+0
2.850010E+2	1.696833E+0	1.735972E+0	1.727774E+0	1.653727E+0	1.704000E+0	1.665764E+0	1.636825E+0	1.724256E+0	1.666916E+0	1.654777E+0	1.627831E+0	1.641969E+0	1.597117E+0	1.736004E+0	1.621513E+0	1.535917E+0	1.730786E+0	1.665622E+0	1.620686E+0	1.592958E+0	1.600344E+0	1.597630E+0	1.640141E+0	1.610681E+0	1.637441E+0	1.612644E+0	1.674272E+0	1.605515E+0	1.699761E+0	1.666392E+0	1.578167E+0	1.598349E+0	1.648881E+0	1.660522E+0	1.712797E+0	1.631240E+0	1.623156E+0	1.588138E+0	1.643751E+0	1.796710E+0	1.561426E+0	1.730766E+0	1.557237E+0	1.619450E+0	1.655709E+0	1.565599E+0	1.660684E+0	1.567570E+0	1.638358E+0	1.645544E+0	1.664195E+0	1.541120E+0	1.624413E+0	1.645390E+0	1.661448E+0	1.591731E+0	1.609039E+0	1.645117E+0	1.600239E+0	1.667251E+0	1.576630E+0	1.667278E+0	1.683420E+0	1.549373E+0	1.719436E+0	1.628708E+0	1.594722E+0	1.659495E+0	1.540692E+0	1.724952E+0	1.593425E+0	1.595055E+0	1.696105E+0	1.635690E+0	1.707741E+0	1.605984E+0	1.594945E+0	1.666161E+0	1.682150E+0	1.538769E+0	1.710376E+0	1.655163E+0	1.672397E+0	1.666217E+0	1.592773E+0	1.658422E+0	1.650233E+0	1.626445E+0	1.672278E+0	1.595344E+0	1.686713E+0	1.747997E+0	1.633316E+0	1.596025E+0	1.641582E+0	1.687276E+0	1.757501E+0	1.577279E+0	1.563512E+0	1.669614E+0	1.729217E+0	1.636787E+0	1.567487E+0	1.588312E+0	1.558887E+0	1.619750E+0	1.674047E+0	1.680446E+0	1.636674E+0	1.696089E+0	1.623038E+0	1.678221E+0	1.494346E+0	1.708140E+0	1.618692E+0	1.626614E+0	1.595395E+0	1.761020E+0	1.575619E+0	1.606638E+0	1.583947E+0	1.611594E+0	1.731943E+0	1.571595E+0	1.685908E+0	1.727868E+0	1.604291E+0	1.731268E+0	1.677103E+0	1.698959E+0	1.690823E+0	1.648560E+0	1.563037E+0	1.583927E+0	1.601487E+0	1.743178E+0	1.609195E+0	1.698659E+0	1.651314E+0	1.651864E+0	1.640278E+0	1.632593E+0	1.656517E+0	1.668417E+0	1.687397E+0	1.631666E+0	1.633440E+0	1.685441E+0	1.633926E+0	1.665822E+0	1.644266E+0	1.661574E+0	1.637387E+0	1.610635E+0	1.708700E+0	1.589835E+0	1.607588E+0	1.616983E+0	1.628938E+0	1.618207E+0	1.628734E+0	1.632446E+0	1.763537E+0	1.599581E+0	1.547553E+0	1.558122E+0	1.701519E+0	1.578345E+0	1.686739E+0	1.665470E+0	1.754931E+0	1.712438E+0
2.851030E+2	1.353709E+0	1.436536E+0	1.295007E+0	1.313047E+0	1.349839E+0	1.362529E+0	1.405956E+0	1.424633E+0	1.407400E+0	1.385091E+0	1.313919E+0	1.371337E+0	1.366630E+0	1.382867E+0	1.294887E+0	1.326691E+0	1.366531E+0	1.346117E+0	1.435748E+0	1.342382E+0	1.335237E+0	1.404378E+0	1.358702E+0	1.326822E+0	1.373077E+0	1.294332E+0	1.345148E+0	1.277539E+0	1.321446E+0	1.373783E+0	1.368032E+0	1.321890E+0	1.278911E+0	1.425181E+0	1.339798E+0	1.334058E+0	1.312087E+0	1.338419E+0	1.281339E+0	1.265604E+0	1.349448E+0	1.337041E+0	1.381128E+0	1.389247E+0	1.364393E+0	1.341022E+0	1.325087E+0	1.238470E+0	1.322450E+0	1.275225E+0	1.374864E+0	1.348126E+0	1.358822E+0	1.341815E+0	1.350645E+0	1.317761E+0	1.245925E+0	1.345071E+0	1.290778E+0	1.375100E+0	1.364075E+0	1.315017E+0	1.429323E+0	1.392980E+0	1.415412E+0	1.321938E+0	1.338350E+0	1.454104E+0	1.317496E+0	1.398535E+0	1.297222E+0	1.354762E+0	1.386579E+0	1.331209E+0	1.302643E+0	1.444237E+0	1.309123E+0	1.398999E+0	1.440087E+0	1.326812E+0	1.274922E+0	1.320200E+0	1.391544E+0	1.379084E+0	1.430617E+0	1.357897E+0	1.333252E+0	1.298828E+0	1.398694E+0	1.303163E+0	1.331925E+0	1.408794E+0	1.355314E+0	1.423312E+0	1.319053E+0	1.313551E+0	1.524255E+0	1.321269E+0	1.305008E+0	1.361170E+0	1.380066E+0	1.335402E+0	1.316192E+0	1.376631E+0	1.277979E+0	1.344491E+0	1.318453E+0	1.244442E+0	1.333403E+0	1.325268E+0	1.414456E+0	1.374969E+0	1.371703E+0	1.341468E+0	1.345439E+0	1.372495E+0	1.327760E+0	1.361227E+0	1.433957E+0	1.374624E+0	1.419053E+0	1.316769E+0	1.429115E+0	1.387303E+0	1.384226E+0	1.328353E+0	1.430210E+0	1.287502E+0	1.250392E+0	1.319949E+0	1.375956E+0	1.399292E+0	1.313980E+0	1.335288E+0	1.281154E+0	1.305133E+0	1.305806E+0	1.387554E+0	1.393768E+0	1.411137E+0	1.406670E+0	1.408145E+0	1.435978E+0	1.338434E+0	1.377002E+0	1.413579E+0	1.381619E+0	1.360179E+0	1.343826E+0	1.455717E+0	1.375416E+0	1.259529E+0	1.411972E+0	1.377028E+0	1.367673E+0	1.328554E+0	1.411937E+0	1.323280E+0	1.352450E+0	1.365642E+0	1.390426E+0	1.444424E+0	1.428743E+0	1.354473E+0	1.363090E+0	1.263718E+0	1.368198E+0	1.295797E+0	1.336888E+0	1.434614E+0	1.414157E+0	1.400038E+0
2.852020E+2	1.339159E+0	1.286027E+0	1.358235E+0	1.263221E+0	1.246473E+0	1.297833E+0	1.299333E+0	1.306968E+0	1.264678E+0	1.276353E+0	1.305839E+0	1.272613E+0	1.252450E+0	1.282179E+0	1.330030E+0	1.269261E+0	1.221040E+0	1.247210E+0	1.363710E+0	1.270625E+0	1.218222E+0	1.294074E+0	1.262868E+0	1.293375E+0	1.269847E+0	1.253561E+0	1.276017E+0	1.250898E+0	1.259368E+0	1.338438E+0	1.185049E+0	1.210340E+0	1.248003E+0	1.348669E+0	1.426632E+0	1.306288E+0	1.267497E+0	1.325030E+0	1.297149E+0	1.308426E+0	1.264557E+0	1.303125E+0	1.327300E+0	1.292185E+0	1.255837E+0	1.286672E+0	1.332634E+0	1.230510E+0	1.356587E+0	1.321671E+0	1.325292E+0	1.201280E+0	1.272125E+0	1.371917E+0	1.270203E+0	1.299228E+0	1.268616E+0	1.201544E+0	1.208625E+0	1.284804E+0	1.230876E+0	1.286164E+0	1.339153E+0	1.234944E+0	1.370246E+0	1.277847E+0	1.231979E+0	1.289908E+0	1.224065E+0	1.257347E+0	1.303239E+0	1.179875E+0	1.350695E+0	1.240979E+0	1.327823E+0	1.237686E+0	1.289403E+0	1.224064E+0	1.332067E+0	1.227257E+0	1.280625E+0	1.310610E+0	1.327019E+0	1.190695E+0	1.275948E+0	1.303383E+0	1.268616E+0	1.289367E+0	1.296067E+0	1.252570E+0	1.259641E+0	1.399229E+0	1.290069E+0	1.256729E+0	1.253619E+0	1.275063E+0	1.230530E+0	1.281501E+0	1.305179E+0	1.279246E+0	1.300102E+0	1.273271E+0	1.387267E+0	1.256439E+0	1.214905E+0	1.298985E+0	1.290452E+0	1.248609E+0	1.297266E+0	1.316518E+0	1.321570E+0	1.293599E+0	1.243594E+0	1.269334E+0	1.285966E+0	1.276595E+0	1.243410E+0	1.337521E+0	1.288157E+0	1.353028E+0	1.301093E+0	1.253420E+0	1.333917E+0	1.258087E+0	1.243738E+0	1.288788E+0	1.259471E+0	1.238120E+0	1.273976E+0	1.350281E+0	1.367480E+0	1.344976E+0	1.227398E+0	1.233666E+0	1.258173E+0	1.334138E+0	1.237430E+0	1.305134E+0	1.292975E+0	1.335669E+0	1.324535E+0	1.261333E+0	1.305876E+0	1.257733E+0	1.321176E+0	1.324566E+0	1.318678E+0	1.270595E+0	1.286769E+0	1.260692E+0	1.339163E+0	1.241869E+0	1.236101E+0	1.336803E+0	1.316889E+0	1.327826E+0	1.318441E+0	1.248946E+0	1.237428E+0	1.233217E+0	1.309943E+0	1.307551E+0	1.298959E+0	1.274940E+0	1.276972E+0	1.300024E+0	1.279161E+0	1.368146E+0	1.195502E+0	1.278643E+0	1.396369E+0	1.175277E+0
2.853000E+2	1.159294E+0	1.138739E+0	1.119101E+0	1.106721E+0	1.107381E+0	1.165465E+0	1.127725E+0	1.050138E+0	1.146377E+0	1.140106E+0	1.090622E+0	1.156409E+0	1.028763E+0	1.115987E+0	1.087503E+0	1.131623E+0	1.204627E+0	1.201167E+0	1.184899E+0	1.115556E+0	1.136062E+0	1.128185E+0	1.082193E+0	1.155380E+0	1.102017E+0	1.099035E+0	1.155634E+0	1.074840E+0	1.089280E+0	1.123419E+0	1.068939E+0	1.141128E+0	1.060262E+0	1.144427E+0	1.167716E+0	1.145423E+0	1.103207E+0	1.175490E+0	1.136087E+0	1.097994E+0	1.142116E+0	1.085870E+0	1.064837E+0	1.091082E+0	1.110629E+0	1.139191E+0	1.105930E+0	1.078287E+0	1.155833E+0	1.114227E+0	1.163740E+0	1.086168E+0	1.169633E+0	1.177688E+0	1.103080E+0	1.070887E+0	1.090086E+0	1.144990E+0	1.129380E+0	1.101227E+0	1.163039E+0	1.061230E+0	1.154852E+0	1.105783E+0	1.155051E+0	1.163260E+0	1.095859E+0	1.055340E+0	1.112005E+0	1.096297E+0	1.083398E+0	1.100907E+0	1.183098E+0	1.148940E+0	1.082677E+0	1.141985E+0	1.122332E+0	1.133879E+0	1.078671E+0	1.066841E+0	1.139182E+0	1.114855E+0	1.125302E+0	1.076165E+0	1.107229E+0	1.100612E+0	1.080560E+0	1.116848E+0	1.141422E+0	1.106996E+0	1.083483E+0	1.195821E+0	1.111371E+0	1.226259E+0	1.126768E+0	1.119976E+0	1.170522E+0	1.082778E+0	1.100141E+0	1.147103E+0	1.155900E+0	1.107244E+0	1.168567E+0	1.176426E+0	1.188239E+0	1.153778E+0	1.080917E+0	1.185280E+0	1.106378E+0	1.094291E+0	1.106570E+0	1.143424E+0	1.066699E+0	1.120631E+0	1.143461E+0	1.202505E+0	1.110443E+0	1.166194E+0	1.142098E+0	1.117997E+0	1.118372E+0	1.179450E+0	1.059820E+0	1.136854E+0	1.120262E+0	1.111018E+0	1.070921E+0	1.079091E+0	1.080850E+0	1.063239E+0	1.126214E+0	1.079277E+0	1.106950E+0	1.175398E+0	1.160638E+0	1.197326E+0	1.097367E+0	1.107394E+0	1.086985E+0	1.175134E+0	1.131508E+0	1.128299E+0	1.122833E+0	1.102306E+0	1.152738E+0	1.197448E+0	1.187666E+0	1.100945E+0	1.088431E+0	1.147147E+0	1.144438E+0	1.154185E+0	1.132776E+0	1.113079E+0	1.124006E+0	1.173988E+0	1.140430E+0	1.099903E+0	1.178829E+0	1.129797E+0	1.139419E+0	1.187510E+0	1.197698E+0	1.085792E+0	1.094048E+0	1.207162E+0	1.107674E+0	1.106378E+0	1.133685E+0	1.183984E+0	1.048128E+0	1.124928E+0
2.854020E+2	8.479480E-1	8.336417E-1	8.274742E-1	8.819939E-1	8.339598E-1	8.361562E-1	9.292928E-1	8.397358E-1	8.193103E-1	8.811946E-1	8.177979E-1	8.441160E-1	8.159066E-1	7.868367E-1	8.157594E-1	7.885178E-1	8.722922E-1	8.298163E-1	8.422709E-1	7.607842E-1	8.762060E-1	7.845905E-1	8.451989E-1	9.016039E-1	8.334363E-1	7.471676E-1	7.964487E-1	8.639039E-1	8.426351E-1	8.607995E-1	8.209912E-1	8.452247E-1	8.440590E-1	8.420402E-1	8.693237E-1	7.904617E-1	8.661579E-1	8.390285E-1	8.884832E-1	7.848513E-1	8.043040E-1	8.049346E-1	8.029089E-1	8.063544E-1	8.571539E-1	8.707413E-1	8.192595E-1	7.715910E-1	8.604928E-1	7.809425E-1	8.989933E-1	8.444877E-1	8.036959E-1	8.446604E-1	8.620481E-1	7.769515E-1	8.176426E-1	8.089334E-1	7.673623E-1	8.191801E-1	8.252664E-1	8.642905E-1	8.948251E-1	8.448780E-1	7.746392E-1	7.835447E-1	7.975896E-1	8.402198E-1	8.147601E-1	8.104246E-1	8.387547E-1	8.171140E-1	8.330601E-1	8.377341E-1	7.998245E-1	7.958070E-1	7.853546E-1	8.189893E-1	8.304623E-1	7.738429E-1	8.705975E-1	8.151783E-1	8.426658E-1	8.379953E-1	8.094724E-1	8.773118E-1	7.861844E-1	8.030282E-1	7.804742E-1	7.938081E-1	8.237967E-1	8.932033E-1	8.749535E-1	8.599065E-1	8.242361E-1	7.800233E-1	8.381510E-1	7.940541E-1	7.855923E-1	8.594837E-1	8.408310E-1	8.707473E-1	8.056520E-1	8.670209E-1	8.430225E-1	7.995234E-1	8.216742E-1	8.525193E-1	8.937744E-1	8.008044E-1	8.524205E-1	8.237311E-1	8.206052E-1	7.748050E-1	7.975711E-1	8.474352E-1	8.646480E-1	8.937077E-1	8.047619E-1	8.369961E-1	8.626916E-1	8.546154E-1	8.198647E-1	7.958715E-1	7.681381E-1	9.043973E-1	7.901987E-1	8.093155E-1	8.099261E-1	8.697969E-1	8.280076E-1	7.924167E-1	8.595390E-1	8.585603E-1	8.478067E-1	8.916048E-1	7.997595E-1	7.826599E-1	7.820750E-1	8.928899E-1	8.696101E-1	8.753655E-1	8.509326E-1	8.233921E-1	8.245987E-1	8.770514E-1	8.439265E-1	7.757016E-1	7.895739E-1	8.609966E-1	8.325999E-1	7.957628E-1	7.877793E-1	8.080645E-1	8.425208E-1	8.549200E-1	8.304911E-1	8.735791E-1	8.196100E-1	7.892309E-1	8.164971E-1	8.573672E-1	8.601252E-1	8.849153E-1	8.466786E-1	8.114003E-1	8.515335E-1	8.666811E-1	8.481759E-1	7.845453E-1	8.004866E-1	6.838405E-1
2.855000E+2	5.494356E-1	6.066486E-1	5.396033E-1	5.653433E-1	5.045525E-1	5.950471E-1	5.460713E-1	5.490689E-1	5.560262E-1	5.755073E-1	5.626165E-1	5.527346E-1	5.893465E-1	5.825339E-1	5.688723E-1	5.111012E-1	5.861551E-1	5.369633E-1	6.021448E-1	5.192796E-1	5.243430E-1	5.049994E-1	5.598944E-1	5.279074E-1	6.395480E-1	5.471534E-1	5.748343E-1	5.476681E-1	5.943420E-1	5.657909E-1	5.130516E-1	5.450280E-1	5.538366E-1	6.028446E-1	6.201231E-1	5.476491E-1	5.462106E-1	5.367181E-1	5.186349E-1	5.266775E-1	5.529513E-1	5.464447E-1	5.210638E-1	4.891738E-1	5.744289E-1	5.749747E-1	5.318514E-1	5.142189E-1	6.156394E-1	5.331830E-1	5.521361E-1	5.310806E-1	5.121433E-1	5.642392E-1	5.198700E-1	5.478722E-1	5.685943E-1	4.905775E-1	5.536977E-1	5.546673E-1	5.717542E-1	5.337999E-1	5.631116E-1	4.955420E-1	5.681786E-1	5.275368E-1	5.070135E-1	5.109284E-1	5.283406E-1	5.284611E-1	5.695191E-1	5.274899E-1	5.546345E-1	5.069840E-1	5.516590E-1	5.830885E-1	5.654334E-1	5.435154E-1	5.642518E-1	5.528921E-1	5.454208E-1	5.655577E-1	5.316424E-1	5.105023E-1	5.383270E-1	5.243873E-1	5.298852E-1	5.775325E-1	5.194821E-1	5.319248E-1	5.767254E-1	5.926551E-1	5.611731E-1	5.450299E-1	6.091156E-1	5.369232E-1	5.239498E-1	5.582134E-1	4.997367E-1	5.825606E-1	5.244426E-1	5.749673E-1	5.549460E-1	5.487794E-1	5.487260E-1	5.522528E-1	5.477510E-1	5.882613E-1	5.456597E-1	5.565277E-1	5.778723E-1	5.305497E-1	5.794015E-1	5.111286E-1	5.000982E-1	5.812661E-1	5.912935E-1	5.522174E-1	5.224338E-1	5.499504E-1	5.022506E-1	5.467271E-1	5.419183E-1	5.725902E-1	5.733850E-1	5.009881E-1	5.175892E-1	5.478117E-1	5.496799E-1	5.739835E-1	5.710193E-1	5.808479E-1	6.000575E-1	5.229366E-1	5.403121E-1	5.421392E-1	5.980330E-1	6.178669E-1	4.940683E-1	5.711690E-1	5.408771E-1	5.585093E-1	5.424166E-1	5.199139E-1	6.152181E-1	5.090570E-1	5.652199E-1	5.717987E-1	5.625342E-1	5.605819E-1	5.454207E-1	5.923703E-1	5.580507E-1	5.629500E-1	5.344235E-1	5.560620E-1	5.656330E-1	5.514416E-1	5.500279E-1	6.397326E-1	4.770256E-1	6.033329E-1	5.513883E-1	5.763416E-1	5.496998E-1	5.820002E-1	5.680046E-1	5.201313E-1	5.379693E-1	4.995170E-1	5.570310E-1	5.597590E-1
2.856010E+2	4.672148E-1	4.307352E-1	4.074069E-1	3.732946E-1	4.644212E-1	4.496938E-1	4.206131E-1	4.152872E-1	4.246986E-1	4.635554E-1	4.227945E-1	3.941069E-1	4.688515E-1	4.428993E-1	4.111021E-1	4.229223E-1	4.239584E-1	4.469799E-1	4.453138E-1	4.296189E-1	4.109353E-1	4.170662E-1	4.200066E-1	4.364124E-1	4.635221E-1	4.153483E-1	4.350539E-1	4.400044E-1	4.398735E-1	4.263119E-1	4.284855E-1	4.598829E-1	4.629923E-1	4.534073E-1	4.505895E-1	4.481080E-1	4.071380E-1	4.072144E-1	4.323229E-1	4.380274E-1	4.294488E-1	3.884395E-1	3.845520E-1	4.442517E-1	3.941129E-1	4.080971E-1	4.116875E-1	4.387579E-1	4.284872E-1	4.131947E-1	4.206716E-1	4.425656E-1	4.264965E-1	4.388560E-1	3.947041E-1	4.498840E-1	4.201087E-1	4.287763E-1	4.059825E-1	4.125435E-1	4.481166E-1	4.681062E-1	4.726552E-1	4.521811E-1	4.034120E-1	4.756905E-1	4.213025E-1	4.825132E-1	4.414586E-1	4.139306E-1	4.237837E-1	4.335985E-1	4.483109E-1	4.110557E-1	4.298762E-1	3.780869E-1	4.425800E-1	4.559302E-1	4.126109E-1	4.056820E-1	4.759755E-1	4.289857E-1	4.257233E-1	4.265582E-1	4.356759E-1	4.071203E-1	4.339043E-1	4.655875E-1	4.109012E-1	4.005923E-1	4.214377E-1	4.184414E-1	4.505324E-1	4.465578E-1	4.362006E-1	4.558809E-1	4.367158E-1	4.489312E-1	4.370029E-1	4.280421E-1	4.015293E-1	4.100344E-1	4.515561E-1	4.355528E-1	4.420825E-1	4.684929E-1	4.123459E-1	4.191903E-1	5.032079E-1	4.510715E-1	4.182605E-1	4.236930E-1	4.443745E-1	4.197126E-1	4.196563E-1	4.200024E-1	3.872602E-1	4.457904E-1	4.502013E-1	4.559532E-1	4.405420E-1	4.115476E-1	4.553167E-1	4.230866E-1	4.688359E-1	4.475567E-1	4.684767E-1	4.272277E-1	4.380022E-1	4.692724E-1	3.849238E-1	4.225664E-1	4.273410E-1	4.448065E-1	4.334492E-1	4.665890E-1	3.901692E-1	4.644832E-1	3.847565E-1	4.039958E-1	4.451661E-1	4.350083E-1	4.856909E-1	4.339064E-1	4.582224E-1	4.460433E-1	4.212086E-1	3.971769E-1	4.523008E-1	4.144667E-1	4.126783E-1	4.335020E-1	4.458797E-1	4.586691E-1	4.338585E-1	4.121117E-1	4.333873E-1	4.409732E-1	4.512417E-1	4.219869E-1	4.702166E-1	4.497640E-1	4.685549E-1	4.396341E-1	4.442667E-1	4.501828E-1	4.352685E-1	4.275766E-1	4.201153E-1	4.736828E-1	4.408543E-1	3.951714E-1
2.858030E+2	3.997941E-1	3.963471E-1	4.221163E-1	4.732588E-1	4.595736E-1	4.254097E-1	4.280539E-1	4.524720E-1	3.831832E-1	4.130702E-1	4.384717E-1	4.108673E-1	4.153645E-1	3.877556E-1	4.384939E-1	4.082518E-1	4.154769E-1	4.372927E-1	4.257608E-1	4.149406E-1	4.129354E-1	4.245462E-1	4.168281E-1	4.028084E-1	3.844338E-1	4.029986E-1	4.278052E-1	3.727832E-1	4.327802E-1	4.045605E-1	3.956141E-1	4.044145E-1	3.902339E-1	4.098140E-1	3.971884E-1	4.319314E-1	4.121543E-1	4.394272E-1	4.202094E-1	4.036790E-1	4.164581E-1	3.518355E-1	3.993064E-1	4.138535E-1	4.610341E-1	4.351081E-1	4.489731E-1	4.484559E-1	4.068012E-1	3.947187E-1	3.819714E-1	4.088399E-1	4.112168E-1	4.323384E-1	4.199067E-1	3.999678E-1	4.492550E-1	3.929552E-1	4.475858E-1	4.402071E-1	4.428762E-1	4.348565E-1	4.350136E-1	4.181196E-1	3.942573E-1	4.158331E-1	4.285205E-1	4.416186E-1	3.832025E-1	4.863888E-1	4.149722E-1	4.136255E-1	4.207209E-1	4.452391E-1	4.154856E-1	4.350275E-1	4.447612E-1	3.879033E-1	4.116429E-1	3.846474E-1	4.580178E-1	4.557828E-1	4.119352E-1	4.305738E-1	4.167572E-1	4.171893E-1	4.082328E-1	4.175463E-1	4.622590E-1	4.293795E-1	4.589966E-1	4.236619E-1	4.114449E-1	3.896769E-1	4.036624E-1	3.836555E-1	4.750207E-1	4.241342E-1	3.807874E-1	4.370819E-1	4.193689E-1	3.769492E-1	4.192644E-1	4.205107E-1	4.282861E-1	4.478372E-1	4.103261E-1	4.519773E-1	4.112753E-1	4.213290E-1	4.321962E-1	4.492972E-1	3.950142E-1	4.515657E-1	4.255123E-1	4.354977E-1	3.923864E-1	4.533209E-1	4.137767E-1	4.655670E-1	4.020288E-1	4.399950E-1	4.724545E-1	3.983767E-1	4.076098E-1	4.058250E-1	4.291878E-1	4.752702E-1	4.130474E-1	3.844374E-1	4.268961E-1	4.479450E-1	3.809613E-1	4.281153E-1	4.210463E-1	4.154640E-1	4.110076E-1	4.584013E-1	4.288028E-1	4.236308E-1	4.572428E-1	4.239011E-1	4.539881E-1	4.234555E-1	4.572854E-1	4.510182E-1	4.044006E-1	4.037925E-1	4.444527E-1	4.409920E-1	4.257157E-1	4.394009E-1	4.045751E-1	4.066905E-1	4.377032E-1	4.091007E-1	4.417553E-1	4.218013E-1	4.547991E-1	4.108760E-1	4.304015E-1	4.375411E-1	4.114696E-1	4.226556E-1	4.322957E-1	4.621256E-1	4.353911E-1	4.231640E-1	4.448701E-1	4.177061E-1	3.975466E-1	3.383119E-1
2.860040E+2	6.377404E-1	6.647751E-1	6.555113E-1	6.218285E-1	6.375746E-1	6.605635E-1	6.555526E-1	6.322008E-1	6.153020E-1	5.990342E-1	6.084943E-1	5.829236E-1	6.904084E-1	6.218151E-1	6.266373E-1	5.757932E-1	6.604930E-1	6.556500E-1	6.503643E-1	6.314227E-1	6.419519E-1	5.989256E-1	6.149778E-1	6.141592E-1	6.283105E-1	6.059865E-1	6.648737E-1	5.894193E-1	6.409949E-1	6.264722E-1	6.168075E-1	6.239566E-1	6.406259E-1	6.830902E-1	6.406881E-1	6.260467E-1	6.245614E-1	6.602445E-1	6.315061E-1	5.978777E-1	6.750903E-1	6.268663E-1	6.022473E-1	6.197297E-1	6.267642E-1	6.475456E-1	6.230825E-1	6.458135E-1	6.371378E-1	6.010116E-1	6.937403E-1	5.888135E-1	6.252220E-1	5.844933E-1	6.106064E-1	6.003582E-1	6.493511E-1	6.412025E-1	6.105636E-1	5.678810E-1	6.007307E-1	6.819062E-1	6.601885E-1	6.380285E-1	6.718559E-1	6.368908E-1	6.184693E-1	6.165012E-1	6.101065E-1	5.987232E-1	6.450727E-1	6.529191E-1	6.589243E-1	6.368764E-1	6.222950E-1	6.145953E-1	6.607895E-1	6.475309E-1	6.309947E-1	6.286642E-1	6.362308E-1	6.363896E-1	6.385354E-1	6.723560E-1	6.203462E-1	6.530504E-1	5.602294E-1	6.548244E-1	5.738939E-1	6.315175E-1	6.195350E-1	7.035805E-1	6.718958E-1	6.383922E-1	6.228433E-1	5.919412E-1	6.373303E-1	6.736735E-1	6.167083E-1	5.953963E-1	6.667236E-1	6.780825E-1	6.359057E-1	6.572187E-1	6.454574E-1	6.417404E-1	6.365607E-1	6.103380E-1	6.262005E-1	6.195423E-1	6.547752E-1	6.688508E-1	6.671379E-1	6.192453E-1	6.431834E-1	6.429918E-1	6.139802E-1	6.466576E-1	6.379501E-1	6.467944E-1	6.201160E-1	6.388304E-1	6.387241E-1	6.466672E-1	5.972914E-1	6.536742E-1	6.253967E-1	6.109212E-1	6.795769E-1	6.543550E-1	6.466289E-1	6.523025E-1	6.289135E-1	6.070589E-1	6.776162E-1	6.846922E-1	5.841269E-1	6.207919E-1	5.917241E-1	5.987867E-1	7.104520E-1	6.279396E-1	6.242614E-1	6.334594E-1	6.487365E-1	6.781009E-1	6.282532E-1	6.287355E-1	6.728578E-1	6.461861E-1	6.655822E-1	6.056340E-1	6.418814E-1	6.892098E-1	6.025235E-1	6.494074E-1	6.344180E-1	6.443421E-1	6.125362E-1	6.901927E-1	6.425654E-1	6.289817E-1	6.396830E-1	5.907407E-1	6.529990E-1	6.439005E-1	6.693295E-1	6.311097E-1	6.136398E-1	6.492451E-1	5.815502E-1	5.481713E-1
2.862030E+2	9.656831E-1	9.075194E-1	8.986943E-1	9.138840E-1	9.089153E-1	8.893425E-1	9.283859E-1	8.619924E-1	9.012507E-1	8.595839E-1	9.496043E-1	9.274869E-1	8.442493E-1	9.168320E-1	8.645555E-1	9.008060E-1	9.493839E-1	8.873849E-1	9.166017E-1	9.245855E-1	9.074028E-1	8.913262E-1	8.905730E-1	8.784686E-1	9.141575E-1	8.085656E-1	9.149499E-1	8.609362E-1	9.689034E-1	8.097122E-1	9.246419E-1	8.713112E-1	8.723345E-1	9.030123E-1	9.337886E-1	8.619977E-1	8.757721E-1	9.204005E-1	8.778377E-1	8.886235E-1	8.993820E-1	9.561766E-1	9.221665E-1	8.613395E-1	9.002868E-1	9.262373E-1	9.224001E-1	8.941471E-1	8.991432E-1	9.062038E-1	9.568055E-1	9.170843E-1	8.949557E-1	9.163392E-1	8.797389E-1	8.880501E-1	8.887247E-1	7.894580E-1	8.604452E-1	8.983372E-1	8.624419E-1	8.558546E-1	9.293761E-1	9.212617E-1	9.900335E-1	8.953336E-1	8.889220E-1	8.832190E-1	8.895638E-1	9.020658E-1	9.196179E-1	8.694644E-1	9.132325E-1	9.026905E-1	8.777105E-1	8.886269E-1	9.435197E-1	9.554105E-1	9.366493E-1	8.987967E-1	9.498141E-1	9.289726E-1	9.000680E-1	8.756955E-1	9.140264E-1	9.084476E-1	8.949396E-1	9.405395E-1	8.947209E-1	9.104186E-1	9.496626E-1	8.553881E-1	9.250181E-1	8.986957E-1	8.604279E-1	9.283638E-1	9.393168E-1	8.829804E-1	9.137829E-1	9.321141E-1	8.944013E-1	9.178701E-1	9.366098E-1	9.228230E-1	8.333479E-1	9.367150E-1	8.831530E-1	8.727419E-1	8.922138E-1	8.878789E-1	9.496464E-1	8.719010E-1	8.877554E-1	9.003932E-1	8.921692E-1	9.623784E-1	9.632154E-1	9.795354E-1	9.153003E-1	9.303414E-1	8.660316E-1	9.475530E-1	9.160666E-1	1.013077E+0	8.565779E-1	9.317602E-1	9.154839E-1	9.589862E-1	9.812060E-1	8.665735E-1	9.074029E-1	9.468766E-1	9.176218E-1	9.035140E-1	8.795687E-1	8.559611E-1	9.011866E-1	9.720491E-1	9.673771E-1	8.803305E-1	9.100724E-1	8.917181E-1	9.301184E-1	8.931612E-1	9.019728E-1	9.416230E-1	9.356726E-1	8.315816E-1	8.835368E-1	9.023747E-1	9.327245E-1	9.458315E-1	9.340132E-1	8.705475E-1	8.542904E-1	8.792768E-1	9.290789E-1	8.789075E-1	9.232376E-1	9.705764E-1	9.188957E-1	9.475186E-1	9.040159E-1	9.754183E-1	8.702662E-1	8.582682E-1	8.992556E-1	9.140148E-1	9.167547E-1	9.027010E-1	8.736265E-1	8.814588E-1
2.864160E+2	1.291333E+0	1.219836E+0	1.220898E+0	1.294451E+0	1.293737E+0	1.282288E+0	1.307650E+0	1.198778E+0	1.319857E+0	1.284816E+0	1.198382E+0	1.236527E+0	1.312667E+0	1.297222E+0	1.197244E+0	1.284236E+0	1.194671E+0	1.229127E+0	1.344828E+0	1.330863E+0	1.167212E+0	1.259522E+0	1.303520E+0	1.206473E+0	1.216275E+0	1.202872E+0	1.261848E+0	1.285207E+0	1.321191E+0	1.324777E+0	1.198119E+0	1.251071E+0	1.270666E+0	1.374132E+0	1.286189E+0	1.275691E+0	1.199717E+0	1.275014E+0	1.242060E+0	1.191087E+0	1.180445E+0	1.279288E+0	1.197075E+0	1.273203E+0	1.333043E+0	1.254147E+0	1.355521E+0	1.205195E+0	1.291173E+0	1.236651E+0	1.256458E+0	1.147342E+0	1.205348E+0	1.275690E+0	1.311202E+0	1.234658E+0	1.231479E+0	1.249883E+0	1.291904E+0	1.199102E+0	1.181267E+0	1.236153E+0	1.347091E+0	1.263091E+0	1.272039E+0	1.269262E+0	1.232277E+0	1.251658E+0	1.280539E+0	1.239777E+0	1.287291E+0	1.234098E+0	1.320861E+0	1.232475E+0	1.319924E+0	1.238515E+0	1.302338E+0	1.198969E+0	1.274737E+0	1.249394E+0	1.227728E+0	1.259223E+0	1.320212E+0	1.213075E+0	1.284649E+0	1.237983E+0	1.209831E+0	1.280619E+0	1.293931E+0	1.255541E+0	1.213880E+0	1.294853E+0	1.266213E+0	1.250019E+0	1.248321E+0	1.249414E+0	1.362585E+0	1.247718E+0	1.237612E+0	1.230943E+0	1.278676E+0	1.232123E+0	1.212086E+0	1.247794E+0	1.270401E+0	1.304691E+0	1.223704E+0	1.240928E+0	1.251386E+0	1.251743E+0	1.292787E+0	1.261074E+0	1.326569E+0	1.215635E+0	1.327494E+0	1.148136E+0	1.255326E+0	1.334694E+0	1.314665E+0	1.305287E+0	1.257667E+0	1.281130E+0	1.187216E+0	1.205847E+0	1.271413E+0	1.272811E+0	1.264910E+0	1.212194E+0	1.298547E+0	1.298484E+0	1.220653E+0	1.243413E+0	1.238699E+0	1.286721E+0	1.345091E+0	1.367870E+0	1.275056E+0	1.323663E+0	1.284872E+0	1.277149E+0	1.311849E+0	1.271753E+0	1.284174E+0	1.219428E+0	1.314826E+0	1.286894E+0	1.275101E+0	1.227363E+0	1.245487E+0	1.219135E+0	1.269627E+0	1.316576E+0	1.284991E+0	1.242942E+0	1.278493E+0	1.226136E+0	1.297877E+0	1.235858E+0	1.229647E+0	1.263946E+0	1.281869E+0	1.312978E+0	1.282853E+0	1.214989E+0	1.275553E+0	1.248063E+0	1.260905E+0	1.247035E+0	1.256111E+0	1.225804E+0	1.281142E+0	1.216374E+0
2.866160E+2	1.277913E+0	1.213728E+0	1.257444E+0	1.335464E+0	1.291277E+0	1.357502E+0	1.365929E+0	1.357382E+0	1.308733E+0	1.303489E+0	1.254347E+0	1.260158E+0	1.283172E+0	1.281489E+0	1.304046E+0	1.257257E+0	1.265135E+0	1.324483E+0	1.246098E+0	1.270120E+0	1.250646E+0	1.303416E+0	1.268067E+0	1.192088E+0	1.316873E+0	1.313936E+0	1.300120E+0	1.291792E+0	1.276702E+0	1.304264E+0	1.274809E+0	1.260845E+0	1.272089E+0	1.307654E+0	1.357583E+0	1.277702E+0	1.275273E+0	1.258504E+0	1.300266E+0	1.253495E+0	1.307285E+0	1.244728E+0	1.254835E+0	1.246851E+0	1.374823E+0	1.326585E+0	1.325052E+0	1.293538E+0	1.376471E+0	1.234086E+0	1.362227E+0	1.326275E+0	1.295816E+0	1.364207E+0	1.285859E+0	1.277294E+0	1.235093E+0	1.276708E+0	1.323412E+0	1.278702E+0	1.304114E+0	1.268121E+0	1.271717E+0	1.305375E+0	1.390907E+0	1.284390E+0	1.259845E+0	1.342263E+0	1.211175E+0	1.286844E+0	1.285085E+0	1.216765E+0	1.279117E+0	1.286452E+0	1.238613E+0	1.202346E+0	1.301968E+0	1.289112E+0	1.297337E+0	1.205893E+0	1.303754E+0	1.276128E+0	1.270394E+0	1.237342E+0	1.212671E+0	1.248449E+0	1.287147E+0	1.262536E+0	1.248797E+0	1.290181E+0	1.331979E+0	1.234428E+0	1.294960E+0	1.303485E+0	1.360585E+0	1.198896E+0	1.377729E+0	1.271886E+0	1.207964E+0	1.384790E+0	1.368523E+0	1.271146E+0	1.195042E+0	1.225548E+0	1.204599E+0	1.256175E+0	1.257274E+0	1.174632E+0	1.253329E+0	1.361321E+0	1.299082E+0	1.201348E+0	1.281778E+0	1.286844E+0	1.344766E+0	1.299141E+0	1.294053E+0	1.273541E+0	1.272219E+0	1.306069E+0	1.241496E+0	1.277528E+0	1.333366E+0	1.246154E+0	1.258294E+0	1.241961E+0	1.257483E+0	1.261183E+0	1.318100E+0	1.331687E+0	1.292324E+0	1.265347E+0	1.248695E+0	1.324788E+0	1.234115E+0	1.238907E+0	1.250388E+0	1.295066E+0	1.325082E+0	1.256538E+0	1.310248E+0	1.284273E+0	1.288586E+0	1.261396E+0	1.283412E+0	1.304080E+0	1.329913E+0	1.264687E+0	1.308742E+0	1.263408E+0	1.337086E+0	1.324073E+0	1.307458E+0	1.345666E+0	1.288896E+0	1.210355E+0	1.222724E+0	1.294851E+0	1.290764E+0	1.317716E+0	1.336879E+0	1.297690E+0	1.277916E+0	1.351276E+0	1.283015E+0	1.268083E+0	1.311837E+0	1.254156E+0	1.291441E+0	1.254324E+0	1.285942E+0	1.221006E+0
2.868020E+2	1.562981E+0	1.513914E+0	1.426266E+0	1.487105E+0	1.576072E+0	1.581069E+0	1.559724E+0	1.578496E+0	1.479960E+0	1.408374E+0	1.569967E+0	1.480651E+0	1.517923E+0	1.525088E+0	1.479447E+0	1.478721E+0	1.549222E+0	1.530433E+0	1.598581E+0	1.501007E+0	1.558216E+0	1.561142E+0	1.455982E+0	1.518013E+0	1.467483E+0	1.502653E+0	1.528850E+0	1.575964E+0	1.610320E+0	1.473075E+0	1.491321E+0	1.518635E+0	1.515644E+0	1.520465E+0	1.483164E+0	1.558360E+0	1.445325E+0	1.560752E+0	1.521815E+0	1.475020E+0	1.510725E+0	1.439464E+0	1.511493E+0	1.610123E+0	1.562342E+0	1.501280E+0	1.532884E+0	1.429539E+0	1.517221E+0	1.477494E+0	1.548657E+0	1.444772E+0	1.550497E+0	1.522760E+0	1.561580E+0	1.474246E+0	1.446256E+0	1.498403E+0	1.522098E+0	1.524752E+0	1.449138E+0	1.474511E+0	1.539885E+0	1.500700E+0	1.544405E+0	1.592195E+0	1.546030E+0	1.491872E+0	1.466247E+0	1.519394E+0	1.556629E+0	1.450842E+0	1.491179E+0	1.540516E+0	1.479624E+0	1.426060E+0	1.513903E+0	1.510675E+0	1.535024E+0	1.486301E+0	1.598140E+0	1.470020E+0	1.466866E+0	1.511294E+0	1.501828E+0	1.503910E+0	1.498149E+0	1.521031E+0	1.582562E+0	1.488474E+0	1.501791E+0	1.507515E+0	1.595155E+0	1.580279E+0	1.565681E+0	1.503301E+0	1.586184E+0	1.478295E+0	1.508880E+0	1.539264E+0	1.630441E+0	1.440682E+0	1.507610E+0	1.480153E+0	1.485344E+0	1.554991E+0	1.420186E+0	1.423837E+0	1.491273E+0	1.516847E+0	1.560783E+0	1.490398E+0	1.528336E+0	1.520999E+0	1.567083E+0	1.415351E+0	1.488430E+0	1.613550E+0	1.545350E+0	1.524250E+0	1.517730E+0	1.528487E+0	1.559487E+0	1.477656E+0	1.490772E+0	1.563069E+0	1.479927E+0	1.521110E+0	1.505271E+0	1.506537E+0	1.551429E+0	1.513306E+0	1.464027E+0	1.483779E+0	1.574132E+0	1.543585E+0	1.514921E+0	1.532815E+0	1.490207E+0	1.540990E+0	1.561315E+0	1.528310E+0	1.518936E+0	1.468632E+0	1.657751E+0	1.575774E+0	1.499412E+0	1.425574E+0	1.541950E+0	1.501843E+0	1.513113E+0	1.530160E+0	1.551403E+0	1.520293E+0	1.490299E+0	1.463681E+0	1.500489E+0	1.442079E+0	1.475618E+0	1.447475E+0	1.580481E+0	1.598276E+0	1.511807E+0	1.541134E+0	1.466603E+0	1.474266E+0	1.539425E+0	1.479024E+0	1.583947E+0	1.496039E+0	1.507574E+0	1.501590E+0
2.870150E+2	1.513283E+0	1.374370E+0	1.362096E+0	1.356325E+0	1.412019E+0	1.408331E+0	1.398527E+0	1.400225E+0	1.451592E+0	1.382237E+0	1.387005E+0	1.360081E+0	1.378881E+0	1.416567E+0	1.390068E+0	1.342077E+0	1.382419E+0	1.307897E+0	1.453663E+0	1.372974E+0	1.302580E+0	1.344549E+0	1.351727E+0	1.294183E+0	1.458210E+0	1.387035E+0	1.396474E+0	1.383063E+0	1.366711E+0	1.392223E+0	1.341578E+0	1.374824E+0	1.337446E+0	1.364467E+0	1.364057E+0	1.380029E+0	1.400315E+0	1.450420E+0	1.379874E+0	1.329745E+0	1.363781E+0	1.407803E+0	1.385347E+0	1.278146E+0	1.387235E+0	1.448774E+0	1.419105E+0	1.362560E+0	1.429496E+0	1.391874E+0	1.437915E+0	1.341700E+0	1.342825E+0	1.421114E+0	1.400222E+0	1.321896E+0	1.374404E+0	1.390835E+0	1.266311E+0	1.363196E+0	1.452226E+0	1.362590E+0	1.395902E+0	1.418245E+0	1.431586E+0	1.444139E+0	1.335848E+0	1.436604E+0	1.425647E+0	1.425214E+0	1.296378E+0	1.364078E+0	1.324574E+0	1.398686E+0	1.375852E+0	1.323681E+0	1.276798E+0	1.337332E+0	1.409865E+0	1.249674E+0	1.368878E+0	1.357520E+0	1.289639E+0	1.422722E+0	1.345742E+0	1.368540E+0	1.484647E+0	1.382549E+0	1.401779E+0	1.375296E+0	1.335151E+0	1.431995E+0	1.375280E+0	1.369149E+0	1.307448E+0	1.292133E+0	1.354283E+0	1.376308E+0	1.323950E+0	1.363167E+0	1.390565E+0	1.285586E+0	1.382010E+0	1.393036E+0	1.343886E+0	1.361013E+0	1.329264E+0	1.296440E+0	1.376376E+0	1.380759E+0	1.425455E+0	1.353863E+0	1.344710E+0	1.333606E+0	1.378729E+0	1.398928E+0	1.368651E+0	1.381609E+0	1.389257E+0	1.347135E+0	1.291462E+0	1.367931E+0	1.428242E+0	1.364388E+0	1.412795E+0	1.352161E+0	1.378292E+0	1.365553E+0	1.378449E+0	1.469826E+0	1.349685E+0	1.414069E+0	1.454390E+0	1.361696E+0	1.362893E+0	1.385534E+0	1.388929E+0	1.378359E+0	1.358598E+0	1.343950E+0	1.392632E+0	1.430726E+0	1.404529E+0	1.364256E+0	1.383697E+0	1.418142E+0	1.380813E+0	1.350591E+0	1.315402E+0	1.360698E+0	1.444990E+0	1.326397E+0	1.413720E+0	1.340401E+0	1.397687E+0	1.288955E+0	1.396236E+0	1.331956E+0	1.343310E+0	1.319542E+0	1.420317E+0	1.339133E+0	1.384348E+0	1.400092E+0	1.375224E+0	1.338167E+0	1.402542E+0	1.291747E+0	1.395170E+0	1.432955E+0	1.413676E+0	1.154103E+0
2.872120E+2	1.169552E+0	1.095333E+0	1.059560E+0	1.013810E+0	1.043095E+0	1.126675E+0	1.087563E+0	1.120386E+0	1.042440E+0	1.115275E+0	1.067225E+0	1.022776E+0	1.114024E+0	1.104719E+0	1.037706E+0	1.065872E+0	1.050035E+0	9.932564E-1	1.057975E+0	1.087702E+0	1.029012E+0	1.052936E+0	1.003820E+0	1.002181E+0	1.097145E+0	1.009109E+0	1.000347E+0	1.049866E+0	1.125385E+0	1.061147E+0	1.075687E+0	1.058750E+0	1.083781E+0	1.102063E+0	1.114370E+0	1.083790E+0	1.068050E+0	1.036924E+0	1.053591E+0	1.058916E+0	1.099468E+0	9.999482E-1	1.057466E+0	1.009993E+0	1.117835E+0	1.044948E+0	1.090784E+0	1.011074E+0	1.087570E+0	1.129627E+0	1.015047E+0	1.043057E+0	1.094591E+0	1.122278E+0	1.075399E+0	1.017334E+0	1.020722E+0	1.063810E+0	1.040174E+0	1.047279E+0	1.113731E+0	1.044801E+0	1.030729E+0	1.088839E+0	1.114376E+0	1.004462E+0	1.109407E+0	1.073691E+0	1.046191E+0	1.113998E+0	1.017251E+0	1.049986E+0	1.150997E+0	1.041864E+0	1.067467E+0	1.027740E+0	1.047647E+0	1.070513E+0	1.090556E+0	1.077648E+0	1.035582E+0	1.031009E+0	1.073331E+0	1.055564E+0	1.018314E+0	1.021231E+0	1.087756E+0	1.040005E+0	1.027467E+0	1.012472E+0	1.094090E+0	1.074995E+0	1.091907E+0	1.099623E+0	1.080041E+0	9.950678E-1	1.086830E+0	1.159120E+0	1.119854E+0	1.083961E+0	1.120012E+0	1.090410E+0	1.058295E+0	1.016133E+0	1.040933E+0	1.107105E+0	1.012861E+0	1.084103E+0	1.077167E+0	1.029441E+0	1.107465E+0	9.923386E-1	1.082925E+0	1.046178E+0	1.065158E+0	1.032865E+0	1.018514E+0	1.059377E+0	1.000013E+0	1.023561E+0	1.101143E+0	1.090197E+0	1.148024E+0	1.016762E+0	1.069199E+0	1.045082E+0	1.055579E+0	1.059686E+0	1.088544E+0	1.080375E+0	1.061389E+0	1.138628E+0	1.046459E+0	1.104168E+0	1.047833E+0	1.076500E+0	1.044611E+0	1.085350E+0	1.040797E+0	9.935497E-1	1.124695E+0	1.115843E+0	1.144137E+0	1.109212E+0	1.103298E+0	1.030217E+0	1.086289E+0	1.019846E+0	1.105281E+0	1.082871E+0	1.115113E+0	1.105945E+0	1.107874E+0	1.039540E+0	1.055584E+0	1.064610E+0	1.050004E+0	1.055815E+0	1.048344E+0	1.083119E+0	1.100125E+0	1.024481E+0	1.135660E+0	1.155865E+0	1.046061E+0	1.127670E+0	1.130388E+0	1.095349E+0	1.146834E+0	1.110370E+0	1.025870E+0	1.043413E+0
2.874030E+2	9.207928E-1	1.005116E+0	9.530356E-1	9.862332E-1	1.022750E+0	9.402147E-1	1.036058E+0	1.020354E+0	9.650389E-1	9.794326E-1	9.458796E-1	9.002009E-1	9.879982E-1	8.829957E-1	1.008771E+0	9.508444E-1	1.002387E+0	9.790504E-1	1.021217E+0	1.006936E+0	9.457251E-1	9.647264E-1	9.996282E-1	9.525971E-1	9.975638E-1	9.972214E-1	9.446958E-1	9.150077E-1	9.813144E-1	9.789371E-1	9.289896E-1	1.007581E+0	9.839774E-1	9.977044E-1	9.820548E-1	9.899377E-1	1.043940E+0	9.586518E-1	9.872087E-1	9.468803E-1	9.620129E-1	9.801555E-1	9.414695E-1	9.147388E-1	9.521271E-1	9.299354E-1	9.762907E-1	9.378221E-1	9.173431E-1	9.749914E-1	1.018721E+0	9.421786E-1	9.701999E-1	1.002847E+0	9.490463E-1	9.707874E-1	9.477381E-1	9.995647E-1	9.921644E-1	9.998331E-1	9.160826E-1	9.743858E-1	9.892728E-1	9.056046E-1	1.034215E+0	9.311507E-1	9.349044E-1	9.721336E-1	1.024561E+0	9.587740E-1	9.367107E-1	8.735334E-1	1.017437E+0	1.006345E+0	9.649056E-1	9.791219E-1	1.012234E+0	9.577946E-1	9.991690E-1	9.517095E-1	9.942436E-1	9.693487E-1	1.013155E+0	9.451533E-1	9.734427E-1	1.018234E+0	9.996962E-1	9.272008E-1	9.658936E-1	9.606391E-1	1.004647E+0	9.832820E-1	9.159467E-1	9.957189E-1	9.711373E-1	9.788245E-1	9.945152E-1	9.816479E-1	9.808330E-1	9.717583E-1	9.497214E-1	1.013833E+0	9.105608E-1	9.087542E-1	1.009334E+0	9.592650E-1	9.568516E-1	9.486215E-1	1.009740E+0	9.834927E-1	9.747164E-1	9.424974E-1	9.624356E-1	9.480802E-1	9.642369E-1	9.325820E-1	9.754402E-1	1.011955E+0	9.827813E-1	9.608766E-1	9.734294E-1	8.922503E-1	1.017741E+0	9.976855E-1	1.020410E+0	9.654755E-1	9.545129E-1	9.851083E-1	9.700783E-1	9.773795E-1	9.781337E-1	8.939146E-1	9.823657E-1	9.656087E-1	9.640231E-1	9.585297E-1	9.522718E-1	1.047936E+0	9.763584E-1	9.780339E-1	9.757293E-1	1.003886E+0	9.919289E-1	9.910195E-1	1.058599E+0	9.918627E-1	9.258069E-1	1.077003E+0	8.923380E-1	9.759548E-1	9.838247E-1	9.623748E-1	1.058881E+0	9.512575E-1	9.186625E-1	9.524910E-1	9.320372E-1	9.290355E-1	9.721111E-1	1.000095E+0	9.889305E-1	1.022593E+0	1.027634E+0	9.690884E-1	9.962386E-1	9.776621E-1	1.000698E+0	9.179883E-1	1.018123E+0	1.013706E+0	9.919832E-1	1.023755E+0
2.876170E+2	7.491987E-1	7.829212E-1	7.910343E-1	7.675995E-1	7.877221E-1	7.390231E-1	7.444635E-1	7.662351E-1	7.304925E-1	7.513352E-1	7.382542E-1	6.990189E-1	7.064656E-1	7.907980E-1	7.365386E-1	6.995984E-1	7.413591E-1	7.207555E-1	7.550707E-1	7.908832E-1	6.966170E-1	7.193477E-1	7.303550E-1	7.746914E-1	7.370497E-1	7.110955E-1	7.391365E-1	6.837969E-1	7.575768E-1	6.840721E-1	7.458712E-1	7.362236E-1	7.995800E-1	7.654442E-1	7.671963E-1	7.631000E-1	7.448614E-1	7.349462E-1	7.679122E-1	7.378833E-1	7.163940E-1	6.721722E-1	7.200944E-1	6.936298E-1	7.960293E-1	7.358328E-1	7.721364E-1	7.212536E-1	7.620726E-1	7.208945E-1	7.828949E-1	7.670578E-1	7.047366E-1	7.276099E-1	7.314927E-1	6.994129E-1	7.446787E-1	7.140046E-1	7.203717E-1	7.112696E-1	7.654716E-1	7.294951E-1	7.127215E-1	7.561786E-1	7.506346E-1	7.439292E-1	6.966706E-1	6.993753E-1	7.514473E-1	7.613966E-1	7.550173E-1	6.903984E-1	7.444823E-1	6.949775E-1	7.839902E-1	7.536309E-1	7.407740E-1	7.886035E-1	7.859399E-1	7.306169E-1	8.083191E-1	7.253311E-1	7.092432E-1	7.383536E-1	7.209505E-1	7.547928E-1	7.357264E-1	8.267848E-1	7.738757E-1	7.353432E-1	6.892069E-1	7.719857E-1	7.480012E-1	7.882927E-1	7.822917E-1	6.750226E-1	7.651952E-1	7.486145E-1	7.150581E-1	7.089918E-1	7.654761E-1	7.327920E-1	6.857693E-1	6.811255E-1	7.726995E-1	7.987736E-1	7.908720E-1	7.380148E-1	7.406329E-1	7.918509E-1	7.499748E-1	7.055461E-1	7.688870E-1	7.644139E-1	7.574198E-1	7.724863E-1	7.475394E-1	7.754107E-1	7.741306E-1	7.388708E-1	7.560217E-1	7.572211E-1	7.637048E-1	7.542045E-1	7.982759E-1	7.767847E-1	7.325133E-1	7.199850E-1	7.274581E-1	7.480392E-1	7.318521E-1	7.537589E-1	7.333055E-1	7.694265E-1	7.199798E-1	7.609604E-1	7.628357E-1	8.028666E-1	6.681073E-1	7.808779E-1	7.931830E-1	7.594576E-1	7.663561E-1	7.334512E-1	8.558654E-1	7.102863E-1	7.589525E-1	7.073018E-1	7.364528E-1	7.871692E-1	7.763251E-1	7.286965E-1	7.284537E-1	7.537686E-1	7.573801E-1	7.264682E-1	7.085204E-1	7.438871E-1	7.480746E-1	7.602376E-1	7.415854E-1	7.619418E-1	7.148575E-1	7.495886E-1	7.719847E-1	7.461645E-1	7.363695E-1	7.491416E-1	8.476235E-1	7.650605E-1	7.872014E-1	7.583176E-1
2.878020E+2	5.378420E-1	5.309120E-1	5.878148E-1	5.739583E-1	5.428588E-1	5.516525E-1	5.603112E-1	5.406332E-1	5.809312E-1	5.639655E-1	5.456769E-1	5.381983E-1	5.377170E-1	5.811506E-1	5.495750E-1	5.661404E-1	5.277162E-1	6.264193E-1	5.692529E-1	5.952283E-1	5.477046E-1	5.343761E-1	5.613112E-1	5.641292E-1	5.521510E-1	5.221252E-1	5.419435E-1	5.239363E-1	5.388139E-1	5.729459E-1	4.779102E-1	5.593659E-1	6.106123E-1	5.645618E-1	5.786687E-1	4.988864E-1	5.833176E-1	5.372203E-1	5.552552E-1	5.343863E-1	5.781287E-1	5.366451E-1	5.714460E-1	5.695824E-1	5.630718E-1	5.431799E-1	5.552096E-1	5.049016E-1	6.022443E-1	5.869320E-1	5.441067E-1	5.654480E-1	5.098505E-1	5.861601E-1	5.267097E-1	5.371296E-1	5.392487E-1	5.093428E-1	5.956562E-1	5.445906E-1	5.814998E-1	5.571510E-1	5.018006E-1	5.202206E-1	5.685436E-1	5.540989E-1	5.616720E-1	5.685851E-1	5.315720E-1	5.255434E-1	5.737285E-1	5.251686E-1	5.640104E-1	5.758105E-1	5.569134E-1	5.733190E-1	6.100948E-1	5.375235E-1	5.658256E-1	5.243234E-1	5.541510E-1	5.343377E-1	6.010737E-1	5.883996E-1	5.497950E-1	5.705485E-1	5.246862E-1	5.214828E-1	5.934120E-1	5.419222E-1	5.551701E-1	5.697874E-1	5.940013E-1	5.881038E-1	5.398743E-1	5.278829E-1	5.542704E-1	5.775894E-1	5.271842E-1	5.099269E-1	5.679500E-1	5.020618E-1	5.209158E-1	5.346982E-1	5.395875E-1	5.527582E-1	5.206167E-1	5.132938E-1	5.593308E-1	5.700053E-1	5.298491E-1	5.062269E-1	5.263971E-1	5.175875E-1	5.281914E-1	5.480504E-1	5.868143E-1	5.985948E-1	5.503261E-1	5.350309E-1	5.480259E-1	5.703562E-1	5.360793E-1	5.650756E-1	5.534222E-1	5.588185E-1	5.402175E-1	5.380228E-1	6.014604E-1	5.329418E-1	5.200322E-1	5.574045E-1	5.239264E-1	5.394876E-1	5.413912E-1	5.397608E-1	5.646021E-1	5.438274E-1	5.660178E-1	6.019431E-1	5.550482E-1	5.409634E-1	5.979373E-1	5.571113E-1	5.345717E-1	6.083689E-1	6.039635E-1	5.224515E-1	5.326185E-1	5.757610E-1	5.722807E-1	5.654021E-1	5.373609E-1	5.704549E-1	5.461380E-1	5.438459E-1	5.318042E-1	6.003437E-1	5.019613E-1	5.589510E-1	6.177804E-1	5.251670E-1	5.433311E-1	5.426873E-1	5.191557E-1	5.834701E-1	5.556829E-1	5.655470E-1	5.294733E-1	4.942387E-1	6.084168E-1	4.394538E-1
2.880040E+2	5.211874E-1	5.612169E-1	5.172725E-1	5.160095E-1	5.986074E-1	5.504880E-1	5.518088E-1	5.141648E-1	5.266052E-1	5.232007E-1	5.162027E-1	5.315165E-1	4.875682E-1	5.234717E-1	5.376608E-1	5.285838E-1	5.642723E-1	5.362552E-1	5.228764E-1	5.146106E-1	5.224734E-1	5.645049E-1	5.696964E-1	5.278251E-1	5.050303E-1	5.487606E-1	5.243882E-1	5.192604E-1	5.334006E-1	5.317093E-1	4.988183E-1	4.712865E-1	5.311196E-1	5.182380E-1	5.482512E-1	5.314019E-1	5.356728E-1	4.985026E-1	5.257851E-1	5.253901E-1	5.260206E-1	5.529723E-1	5.192419E-1	5.189733E-1	5.220109E-1	5.354219E-1	5.687882E-1	5.097074E-1	5.018409E-1	4.941421E-1	5.193993E-1	4.841900E-1	5.473017E-1	5.260809E-1	5.270457E-1	5.345807E-1	5.159543E-1	5.026363E-1	5.553781E-1	5.382055E-1	5.574536E-1	5.373989E-1	5.347335E-1	5.622274E-1	5.496256E-1	5.328294E-1	5.576599E-1	4.866146E-1	5.238549E-1	5.422010E-1	5.709810E-1	5.150262E-1	5.225250E-1	5.565521E-1	5.108918E-1	5.531523E-1	5.554495E-1	5.091756E-1	5.264740E-1	5.832371E-1	5.794635E-1	5.632820E-1	5.580987E-1	4.852338E-1	4.845543E-1	5.292750E-1	5.230539E-1	5.849763E-1	5.903068E-1	4.826993E-1	5.292744E-1	5.627389E-1	5.577745E-1	5.302896E-1	5.473412E-1	5.082000E-1	5.144206E-1	5.601543E-1	5.311256E-1	5.048967E-1	5.905445E-1	5.768117E-1	5.290416E-1	5.249930E-1	5.300989E-1	5.413560E-1	5.263777E-1	5.746288E-1	5.488844E-1	4.986211E-1	5.335957E-1	5.184240E-1	5.512842E-1	5.424324E-1	4.801253E-1	5.748060E-1	5.324226E-1	5.054466E-1	5.657531E-1	5.572785E-1	5.259556E-1	5.131915E-1	5.790838E-1	5.490144E-1	5.631721E-1	5.303814E-1	5.365865E-1	5.290534E-1	5.247859E-1	5.226427E-1	5.148818E-1	5.522246E-1	5.192989E-1	5.995941E-1	5.281771E-1	5.638831E-1	5.537018E-1	5.658489E-1	5.469051E-1	5.435119E-1	5.418720E-1	5.109705E-1	5.674065E-1	5.366099E-1	5.519998E-1	5.242184E-1	5.926292E-1	4.763827E-1	5.425480E-1	5.704593E-1	5.648000E-1	5.578411E-1	5.246494E-1	5.837225E-1	5.704066E-1	5.544091E-1	5.480181E-1	5.117494E-1	5.273847E-1	5.230033E-1	6.002079E-1	5.629488E-1	5.770055E-1	5.683271E-1	5.413583E-1	5.071906E-1	5.488224E-1	5.502606E-1	5.566910E-1	5.658225E-1	5.852929E-1	4.984545E-1
2.882060E+2	7.155763E-1	6.663993E-1	7.193496E-1	6.895393E-1	7.231918E-1	6.468698E-1	7.214766E-1	6.721099E-1	6.968085E-1	6.578976E-1	7.047537E-1	6.684172E-1	6.978321E-1	6.846374E-1	7.239789E-1	7.171154E-1	7.585036E-1	6.920016E-1	6.967286E-1	6.959876E-1	7.140582E-1	7.041343E-1	6.719387E-1	6.892715E-1	6.764855E-1	6.790144E-1	7.012169E-1	6.925029E-1	7.413057E-1	6.954901E-1	6.832139E-1	7.034685E-1	7.166485E-1	7.042956E-1	6.874325E-1	7.220745E-1	7.105387E-1	7.233004E-1	6.742154E-1	7.211676E-1	6.637165E-1	7.124618E-1	7.274837E-1	7.062473E-1	6.844689E-1	7.219802E-1	7.485637E-1	6.836230E-1	7.058316E-1	7.067674E-1	7.525060E-1	6.953166E-1	7.140257E-1	7.062739E-1	7.346703E-1	6.738107E-1	7.055040E-1	6.787151E-1	7.207803E-1	6.653252E-1	7.015925E-1	7.122904E-1	7.266026E-1	7.184275E-1	7.386285E-1	7.184330E-1	6.504214E-1	7.266940E-1	7.091460E-1	7.053966E-1	7.206555E-1	6.738642E-1	7.489859E-1	6.660632E-1	7.278410E-1	7.194329E-1	7.554952E-1	7.415359E-1	6.903009E-1	6.940655E-1	7.675496E-1	7.088388E-1	6.692823E-1	6.863364E-1	6.831271E-1	7.654828E-1	7.075659E-1	6.632353E-1	7.415242E-1	6.775512E-1	7.281502E-1	7.384270E-1	7.259217E-1	7.144954E-1	7.356441E-1	6.888268E-1	7.461530E-1	6.807886E-1	7.215024E-1	6.954990E-1	7.413831E-1	6.977900E-1	6.677591E-1	7.121181E-1	7.150066E-1	6.832388E-1	6.885118E-1	6.961188E-1	7.212157E-1	7.467909E-1	6.816872E-1	6.983952E-1	6.710009E-1	6.543797E-1	6.971367E-1	7.092848E-1	6.961994E-1	6.974080E-1	7.051788E-1	7.173991E-1	7.270073E-1	6.900429E-1	6.646639E-1	7.423110E-1	6.694429E-1	6.873090E-1	7.400853E-1	7.173992E-1	7.021438E-1	7.513784E-1	7.084029E-1	7.350376E-1	6.989136E-1	6.664459E-1	7.217835E-1	6.925283E-1	6.925558E-1	7.219515E-1	7.103256E-1	6.942344E-1	7.058539E-1	7.031649E-1	7.509054E-1	6.726890E-1	7.454136E-1	7.492651E-1	7.389689E-1	7.429297E-1	7.147393E-1	7.225748E-1	6.998521E-1	6.944578E-1	7.018172E-1	6.929798E-1	7.032611E-1	6.721705E-1	7.485496E-1	7.810657E-1	6.477444E-1	6.756341E-1	7.365153E-1	7.266583E-1	7.168804E-1	6.983494E-1	7.001210E-1	7.129313E-1	6.995927E-1	6.996280E-1	7.839077E-1	7.434066E-1	8.143904E-1	7.036909E-1
2.884200E+2	9.442980E-1	9.726039E-1	8.786537E-1	9.317881E-1	9.510583E-1	9.663635E-1	1.054573E+0	9.416168E-1	9.210474E-1	9.479407E-1	8.803592E-1	9.171652E-1	9.149107E-1	9.483685E-1	9.737315E-1	9.234049E-1	9.270832E-1	9.225044E-1	9.598221E-1	8.981562E-1	9.462029E-1	8.997403E-1	9.049681E-1	9.520110E-1	9.037964E-1	9.021142E-1	9.248953E-1	8.894271E-1	9.263481E-1	9.071459E-1	9.230274E-1	9.427955E-1	8.929778E-1	9.972245E-1	8.993104E-1	9.253026E-1	9.169284E-1	9.201903E-1	8.620415E-1	8.964596E-1	9.205740E-1	8.676872E-1	1.035964E+0	8.709814E-1	9.335471E-1	9.698611E-1	9.644086E-1	8.964260E-1	9.288309E-1	1.005649E+0	9.633520E-1	9.383156E-1	8.752112E-1	9.379274E-1	9.551142E-1	9.281659E-1	9.038315E-1	9.661015E-1	9.449217E-1	9.115211E-1	9.575445E-1	9.292390E-1	9.673066E-1	9.827036E-1	9.207340E-1	9.520474E-1	9.081774E-1	9.919588E-1	9.154285E-1	9.487689E-1	9.447733E-1	9.346692E-1	9.058183E-1	9.154973E-1	8.984045E-1	9.559131E-1	9.189589E-1	9.277048E-1	9.336206E-1	8.760588E-1	9.130152E-1	9.602022E-1	9.186933E-1	9.257635E-1	9.558799E-1	9.179916E-1	9.734725E-1	9.122971E-1	9.279714E-1	8.923392E-1	9.045275E-1	8.836170E-1	9.610235E-1	9.601387E-1	9.610335E-1	8.995836E-1	9.595527E-1	9.044421E-1	8.978575E-1	9.318724E-1	9.650000E-1	9.058995E-1	9.866271E-1	8.690750E-1	9.100911E-1	9.478512E-1	9.384153E-1	8.941548E-1	9.044642E-1	9.446963E-1	9.515278E-1	8.844327E-1	9.491913E-1	9.684772E-1	9.542078E-1	9.562808E-1	9.421045E-1	9.831396E-1	8.961370E-1	9.285985E-1	9.537594E-1	9.180529E-1	9.604257E-1	9.433189E-1	9.352942E-1	8.914218E-1	9.446048E-1	9.495931E-1	8.947126E-1	9.926883E-1	9.261049E-1	9.491256E-1	9.204673E-1	9.481433E-1	9.801721E-1	9.322094E-1	9.298667E-1	8.971174E-1	9.682155E-1	9.432285E-1	9.462657E-1	9.785545E-1	9.704210E-1	9.638443E-1	9.540992E-1	9.811845E-1	9.368315E-1	9.275624E-1	9.227376E-1	9.584592E-1	9.203471E-1	9.639870E-1	9.595628E-1	9.461320E-1	9.516594E-1	9.383034E-1	9.578118E-1	9.619579E-1	8.836630E-1	9.122655E-1	1.008171E+0	9.200400E-1	8.955218E-1	9.215184E-1	9.335200E-1	8.833394E-1	9.869754E-1	8.617668E-1	9.708944E-1	9.275577E-1	9.163798E-1	9.335157E-1
2.886030E+2	9.948736E-1	9.909969E-1	1.008431E+0	9.997251E-1	1.014658E+0	1.057413E+0	1.060073E+0	1.003335E+0	1.046076E+0	1.043115E+0	9.929949E-1	1.101195E+0	1.039114E+0	1.040514E+0	1.037586E+0	1.078317E+0	9.781270E-1	1.051190E+0	1.077669E+0	1.062511E+0	1.085639E+0	1.001754E+0	1.035799E+0	1.004603E+0	1.120242E+0	9.973293E-1	1.044738E+0	1.020970E+0	1.005296E+0	1.009604E+0	1.046242E+0	1.015891E+0	9.621375E-1	1.057964E+0	9.792560E-1	1.090149E+0	9.878483E-1	1.028787E+0	1.013351E+0	1.026977E+0	1.007685E+0	1.001796E+0	9.526456E-1	1.033241E+0	1.055588E+0	1.097827E+0	1.050071E+0	1.023232E+0	1.029786E+0	1.053786E+0	1.076776E+0	1.044415E+0	1.034182E+0	1.053712E+0	1.034299E+0	1.026276E+0	9.898012E-1	1.026836E+0	1.016294E+0	1.051738E+0	1.018342E+0	1.031695E+0	1.034831E+0	9.978217E-1	1.081631E+0	1.086572E+0	1.066348E+0	1.004282E+0	1.013905E+0	1.037272E+0	1.047820E+0	1.008583E+0	1.008739E+0	1.016457E+0	1.053303E+0	1.032865E+0	1.026778E+0	1.095173E+0	1.042113E+0	1.020434E+0	1.024187E+0	1.030476E+0	9.564881E-1	1.049491E+0	9.672977E-1	1.047693E+0	1.020976E+0	1.015427E+0	1.034110E+0	1.062331E+0	1.069471E+0	1.037134E+0	1.061115E+0	1.068567E+0	1.078084E+0	1.026747E+0	1.006701E+0	9.874275E-1	1.033192E+0	1.032023E+0	1.070231E+0	1.086801E+0	1.022853E+0	1.019541E+0	1.011738E+0	1.047900E+0	1.027352E+0	9.936090E-1	1.028062E+0	1.055283E+0	1.058941E+0	9.997925E-1	1.029366E+0	1.008603E+0	1.067769E+0	1.066978E+0	1.041733E+0	9.859977E-1	1.073212E+0	1.077552E+0	1.018851E+0	1.033915E+0	1.038233E+0	1.000716E+0	1.060460E+0	1.060407E+0	1.063901E+0	1.015874E+0	1.089481E+0	1.106905E+0	1.029163E+0	1.030219E+0	1.025399E+0	1.047712E+0	9.795586E-1	1.095701E+0	9.417163E-1	1.023278E+0	1.037969E+0	9.893507E-1	9.967155E-1	1.027159E+0	1.039106E+0	9.923791E-1	1.019961E+0	1.037388E+0	1.028779E+0	9.343833E-1	9.919889E-1	1.078670E+0	1.054959E+0	1.088316E+0	1.029083E+0	1.072305E+0	1.065610E+0	1.022860E+0	1.001435E+0	9.813600E-1	9.994172E-1	9.981373E-1	1.069233E+0	1.102187E+0	1.046579E+0	1.072513E+0	1.066640E+0	1.054406E+0	1.054174E+0	9.868698E-1	1.086122E+0	1.023472E+0	9.958513E-1	8.743892E-1
2.888200E+2	1.194127E+0	1.165504E+0	1.136789E+0	1.138138E+0	1.177010E+0	1.131031E+0	1.132376E+0	1.167978E+0	1.050620E+0	1.142925E+0	1.137836E+0	1.075150E+0	1.134235E+0	1.108412E+0	1.125151E+0	1.140122E+0	1.137531E+0	1.128924E+0	1.149294E+0	1.129888E+0	1.053628E+0	1.100802E+0	1.100123E+0	1.097834E+0	1.167906E+0	1.088977E+0	1.154541E+0	1.124924E+0	1.161394E+0	1.109827E+0	1.146646E+0	1.086471E+0	1.110652E+0	1.104435E+0	1.152758E+0	1.105416E+0	1.153763E+0	1.141883E+0	1.144011E+0	1.116836E+0	1.090054E+0	1.161365E+0	1.108536E+0	1.113515E+0	1.136311E+0	1.187345E+0	1.115728E+0	1.110918E+0	1.139715E+0	1.157090E+0	1.124844E+0	1.103059E+0	1.099122E+0	1.098376E+0	1.207800E+0	1.083716E+0	1.116751E+0	1.069939E+0	1.071120E+0	1.107338E+0	1.110669E+0	1.183790E+0	1.162498E+0	1.105180E+0	1.123347E+0	1.097135E+0	1.125980E+0	1.123613E+0	1.047650E+0	1.160959E+0	1.112789E+0	1.074452E+0	1.114261E+0	1.128929E+0	1.100306E+0	1.063548E+0	1.078181E+0	1.179738E+0	1.221797E+0	1.172538E+0	1.112247E+0	1.077791E+0	1.166853E+0	1.155387E+0	1.059935E+0	1.160855E+0	1.074052E+0	1.104655E+0	1.139367E+0	1.075191E+0	1.064908E+0	1.133759E+0	1.097389E+0	1.127938E+0	1.165093E+0	1.111626E+0	1.143221E+0	1.158140E+0	1.053687E+0	1.159245E+0	1.123341E+0	1.094725E+0	1.111712E+0	1.116581E+0	1.078141E+0	1.148683E+0	1.053603E+0	1.085079E+0	1.090996E+0	1.143987E+0	1.123583E+0	1.074727E+0	1.092714E+0	1.130903E+0	1.119226E+0	1.100468E+0	1.150474E+0	1.192693E+0	1.110448E+0	1.076203E+0	1.117756E+0	1.179733E+0	1.133976E+0	1.049657E+0	1.057060E+0	1.155053E+0	1.103660E+0	1.137417E+0	1.080904E+0	1.044676E+0	1.030542E+0	1.184763E+0	1.103691E+0	1.162997E+0	1.096156E+0	1.182944E+0	1.112976E+0	1.137048E+0	1.105153E+0	1.164739E+0	1.106941E+0	1.154151E+0	1.156883E+0	1.124419E+0	1.064405E+0	1.163990E+0	1.103989E+0	1.084155E+0	1.090287E+0	1.164744E+0	1.130903E+0	1.142530E+0	1.148318E+0	1.121861E+0	1.093181E+0	1.100805E+0	1.122672E+0	1.128231E+0	1.023264E+0	1.135870E+0	1.088914E+0	1.151154E+0	1.137195E+0	1.136473E+0	1.108586E+0	1.179234E+0	1.137071E+0	1.111517E+0	1.202310E+0	1.187256E+0	1.146965E+0	1.043924E+0
2.890190E+2	1.192300E+0	1.107677E+0	1.100482E+0	1.175366E+0	1.148504E+0	1.214518E+0	1.203149E+0	1.127747E+0	1.156865E+0	1.169528E+0	1.184842E+0	1.100277E+0	1.199290E+0	1.202142E+0	1.214155E+0	1.173752E+0	1.123361E+0	1.108687E+0	1.147486E+0	1.178912E+0	1.164603E+0	1.150464E+0	1.149761E+0	1.169799E+0	1.113552E+0	1.174617E+0	1.105892E+0	1.219287E+0	1.129637E+0	1.213934E+0	1.141202E+0	1.147305E+0	1.154199E+0	1.152949E+0	1.131095E+0	1.150646E+0	1.179544E+0	1.240847E+0	1.136799E+0	1.160390E+0	1.218186E+0	1.135125E+0	1.165004E+0	1.133123E+0	1.150395E+0	1.130192E+0	1.185487E+0	1.095344E+0	1.133660E+0	1.125726E+0	1.169380E+0	1.164331E+0	1.096954E+0	1.196073E+0	1.141927E+0	1.156556E+0	1.173690E+0	1.173023E+0	1.107699E+0	1.152382E+0	1.183056E+0	1.146732E+0	1.181963E+0	1.153798E+0	1.161311E+0	1.169356E+0	1.136204E+0	1.164317E+0	1.133351E+0	1.183527E+0	1.157274E+0	1.117998E+0	1.158935E+0	1.187745E+0	1.152265E+0	1.173262E+0	1.191202E+0	1.144232E+0	1.247677E+0	1.100774E+0	1.169004E+0	1.150395E+0	1.168399E+0	1.218075E+0	1.078149E+0	1.224838E+0	1.044519E+0	1.237112E+0	1.183300E+0	1.149658E+0	1.161792E+0	1.163314E+0	1.143174E+0	1.255693E+0	1.169580E+0	1.176809E+0	1.178306E+0	1.220353E+0	1.121243E+0	1.179778E+0	1.179558E+0	1.162516E+0	1.132659E+0	1.132332E+0	1.197548E+0	1.129789E+0	1.124714E+0	1.155803E+0	1.150632E+0	1.212590E+0	1.176292E+0	1.113414E+0	1.105862E+0	1.198299E+0	1.175018E+0	1.198292E+0	1.162823E+0	1.163839E+0	1.169609E+0	1.180961E+0	1.130170E+0	1.204408E+0	1.195556E+0	1.080263E+0	1.167590E+0	1.136270E+0	1.204167E+0	1.159416E+0	1.188341E+0	1.169121E+0	1.207262E+0	1.213528E+0	1.185222E+0	1.169887E+0	1.180671E+0	1.145855E+0	1.195523E+0	1.173652E+0	1.192674E+0	1.165752E+0	1.208679E+0	1.148382E+0	1.239300E+0	1.187199E+0	1.190766E+0	1.226968E+0	1.203445E+0	1.192249E+0	1.185179E+0	1.205796E+0	1.214969E+0	1.150994E+0	1.174862E+0	1.180173E+0	1.159795E+0	1.123314E+0	1.088211E+0	1.194943E+0	1.152696E+0	1.174482E+0	1.186331E+0	1.215790E+0	1.185577E+0	1.199179E+0	1.121032E+0	1.208791E+0	1.192816E+0	1.140800E+0	1.213797E+0	1.200318E+0	1.211116E+0	1.050705E+0
2.892020E+2	9.381239E-1	9.089770E-1	9.066725E-1	9.183705E-1	9.166004E-1	9.249983E-1	9.225659E-1	8.606856E-1	9.015176E-1	9.529681E-1	9.314740E-1	8.996060E-1	9.617963E-1	9.887478E-1	9.204812E-1	8.453377E-1	9.855283E-1	1.016069E+0	9.344477E-1	9.112545E-1	9.427629E-1	9.574977E-1	9.578983E-1	9.080322E-1	9.975336E-1	9.329937E-1	1.010067E+0	9.035552E-1	9.107315E-1	9.239142E-1	9.320151E-1	9.210730E-1	8.894071E-1	9.118169E-1	9.315391E-1	9.333164E-1	8.990483E-1	9.719995E-1	9.054676E-1	9.178069E-1	9.436207E-1	9.234575E-1	9.509528E-1	9.553566E-1	9.066211E-1	9.758660E-1	9.426941E-1	9.163003E-1	8.756222E-1	9.346613E-1	1.008038E+0	8.788883E-1	8.963037E-1	9.241710E-1	9.354088E-1	9.396958E-1	9.576759E-1	8.893856E-1	8.597672E-1	8.796519E-1	9.646906E-1	9.651570E-1	9.267814E-1	9.013643E-1	9.134697E-1	9.413722E-1	9.570044E-1	9.181130E-1	9.191003E-1	9.181808E-1	9.066888E-1	8.751948E-1	9.487478E-1	9.425519E-1	9.856250E-1	9.227406E-1	8.966938E-1	9.478196E-1	9.601552E-1	9.013254E-1	9.550524E-1	9.246014E-1	9.258369E-1	9.869156E-1	9.141907E-1	9.502623E-1	9.253454E-1	9.324176E-1	9.224424E-1	9.433590E-1	9.400906E-1	9.765894E-1	9.584422E-1	9.689365E-1	9.320536E-1	9.019498E-1	9.534780E-1	9.665188E-1	8.791785E-1	9.509655E-1	9.035444E-1	8.904902E-1	9.101915E-1	9.594492E-1	9.189362E-1	9.406595E-1	9.319297E-1	8.930887E-1	9.544710E-1	9.072254E-1	9.585279E-1	9.188310E-1	9.346968E-1	1.009894E+0	9.061538E-1	9.342528E-1	9.170479E-1	9.016066E-1	1.000472E+0	9.586465E-1	9.315321E-1	9.570638E-1	9.810994E-1	9.636899E-1	9.461105E-1	9.430440E-1	9.458066E-1	9.200836E-1	9.269166E-1	9.690204E-1	9.415990E-1	9.320384E-1	9.138968E-1	9.263347E-1	9.769896E-1	8.735911E-1	9.407610E-1	9.163320E-1	9.693619E-1	9.538466E-1	9.362959E-1	9.477115E-1	9.973332E-1	9.119017E-1	9.903075E-1	9.080271E-1	9.309688E-1	9.162695E-1	9.433221E-1	9.342027E-1	9.739626E-1	9.746458E-1	9.342076E-1	9.535888E-1	9.935938E-1	9.129518E-1	8.885239E-1	9.355407E-1	9.053046E-1	9.390473E-1	9.284891E-1	9.784417E-1	9.920736E-1	9.417328E-1	9.218791E-1	9.229263E-1	9.084497E-1	9.336681E-1	8.982788E-1	1.013619E+0	9.864789E-1	8.358949E-1
2.894040E+2	6.733802E-1	6.749095E-1	7.315890E-1	6.891098E-1	6.839841E-1	6.920647E-1	7.063456E-1	7.034179E-1	6.802782E-1	7.241716E-1	6.602659E-1	6.723790E-1	7.010460E-1	6.760320E-1	6.910051E-1	6.797580E-1	6.951091E-1	6.795450E-1	7.497863E-1	6.765741E-1	6.348792E-1	6.410425E-1	6.747825E-1	6.748224E-1	6.909898E-1	7.059645E-1	6.707661E-1	6.519641E-1	6.540703E-1	6.628874E-1	7.158191E-1	6.584548E-1	6.520212E-1	6.967358E-1	6.938953E-1	6.418318E-1	6.883435E-1	7.192832E-1	6.796549E-1	7.087777E-1	6.855942E-1	7.147692E-1	6.770815E-1	7.028614E-1	6.601071E-1	7.271590E-1	6.844271E-1	6.381885E-1	6.581828E-1	6.316197E-1	7.312944E-1	6.469769E-1	6.795582E-1	6.698738E-1	7.267249E-1	7.188647E-1	6.593820E-1	6.686345E-1	6.851918E-1	6.583794E-1	6.578290E-1	6.719235E-1	6.641667E-1	6.702142E-1	7.158993E-1	6.285510E-1	6.801955E-1	6.915018E-1	6.492123E-1	7.115777E-1	6.643253E-1	6.574005E-1	6.975314E-1	6.634861E-1	6.981787E-1	6.613786E-1	7.019438E-1	6.922415E-1	7.021343E-1	6.895796E-1	6.623116E-1	6.485671E-1	7.063062E-1	7.033388E-1	6.872746E-1	6.459035E-1	6.636394E-1	6.654572E-1	6.447364E-1	6.777275E-1	6.633290E-1	7.050623E-1	6.860994E-1	7.036722E-1	7.243341E-1	6.619160E-1	6.655446E-1	6.714161E-1	6.257376E-1	7.189095E-1	6.828090E-1	6.765446E-1	7.040470E-1	6.630847E-1	6.758447E-1	6.867281E-1	6.573193E-1	6.994861E-1	6.484718E-1	6.529524E-1	7.048908E-1	6.713913E-1	6.264286E-1	6.094220E-1	6.717632E-1	6.903394E-1	6.721491E-1	7.044693E-1	7.177972E-1	6.579455E-1	7.004963E-1	6.800080E-1	6.930585E-1	6.653490E-1	6.396928E-1	6.871236E-1	6.872934E-1	6.475064E-1	6.682636E-1	7.285770E-1	7.001906E-1	6.704140E-1	6.456937E-1	6.690277E-1	6.376975E-1	6.837072E-1	6.913094E-1	6.579797E-1	6.689287E-1	6.758102E-1	6.794654E-1	6.630641E-1	6.966778E-1	6.888351E-1	7.309662E-1	7.488536E-1	7.045209E-1	6.643808E-1	7.398021E-1	6.766313E-1	6.972824E-1	6.258467E-1	6.836383E-1	6.349906E-1	6.534616E-1	6.629124E-1	6.722879E-1	6.618206E-1	6.713059E-1	6.738235E-1	7.144222E-1	6.536439E-1	6.997696E-1	7.097077E-1	6.938930E-1	6.951413E-1	7.081871E-1	6.394724E-1	6.700587E-1	7.442939E-1	6.759720E-1	6.746947E-1
2.896060E+2	6.746081E-1	6.262173E-1	6.345527E-1	6.445707E-1	6.930393E-1	6.757928E-1	7.031859E-1	6.862654E-1	6.316282E-1	6.598617E-1	6.779571E-1	6.419943E-1	6.445604E-1	6.982392E-1	6.184569E-1	6.383308E-1	6.403950E-1	6.678536E-1	6.585201E-1	6.468512E-1	6.699536E-1	6.760376E-1	6.410624E-1	6.698016E-1	7.022081E-1	6.243214E-1	6.693251E-1	6.308158E-1	6.790382E-1	6.176244E-1	6.705909E-1	6.171760E-1	6.291269E-1	6.598972E-1	6.344920E-1	6.616503E-1	6.351813E-1	6.461214E-1	6.985348E-1	6.337701E-1	6.597372E-1	6.248385E-1	6.757686E-1	6.269933E-1	6.567507E-1	6.973792E-1	6.303556E-1	6.439639E-1	6.676782E-1	6.545804E-1	6.259572E-1	6.478877E-1	6.112215E-1	6.159317E-1	6.025370E-1	6.600248E-1	6.140042E-1	6.618477E-1	6.463265E-1	6.369807E-1	6.503421E-1	6.791441E-1	6.566808E-1	6.392479E-1	6.234899E-1	7.322423E-1	6.778572E-1	6.528023E-1	6.756707E-1	6.426537E-1	6.635507E-1	6.723628E-1	6.777331E-1	6.802267E-1	6.091788E-1	6.156611E-1	6.587943E-1	6.781967E-1	6.578583E-1	6.533113E-1	6.399373E-1	6.677957E-1	6.468310E-1	6.487264E-1	6.403609E-1	6.605192E-1	6.863617E-1	6.765104E-1	6.221639E-1	6.638968E-1	6.238717E-1	6.996281E-1	6.219196E-1	6.235583E-1	6.053281E-1	6.436034E-1	6.500653E-1	6.772908E-1	6.802372E-1	6.272211E-1	6.959923E-1	6.146859E-1	6.945867E-1	6.666862E-1	6.315718E-1	6.517177E-1	6.375380E-1	6.971824E-1	6.768489E-1	6.454574E-1	6.378478E-1	6.266550E-1	6.031878E-1	6.697435E-1	6.353564E-1	6.253527E-1	6.165461E-1	6.967283E-1	6.573336E-1	6.453085E-1	6.346421E-1	6.583305E-1	6.703220E-1	6.514642E-1	6.512110E-1	7.037926E-1	6.393035E-1	6.782313E-1	5.946683E-1	6.597265E-1	6.545000E-1	6.704323E-1	6.685779E-1	6.885146E-1	6.639631E-1	6.585181E-1	6.404524E-1	6.200531E-1	6.532338E-1	6.777958E-1	6.672892E-1	6.998520E-1	6.657166E-1	6.410048E-1	6.273892E-1	7.278438E-1	6.535904E-1	6.762181E-1	6.186197E-1	6.845592E-1	6.764143E-1	6.401309E-1	7.038053E-1	6.518433E-1	7.133665E-1	5.646996E-1	6.058138E-1	6.600407E-1	6.468325E-1	6.604540E-1	6.627186E-1	7.056372E-1	6.797222E-1	6.508011E-1	6.796467E-1	6.462105E-1	6.531020E-1	6.416341E-1	6.659374E-1	6.218937E-1	7.011493E-1	6.647314E-1
2.898030E+2	7.401395E-1	7.776902E-1	7.932487E-1	7.639093E-1	7.762446E-1	7.515986E-1	7.532775E-1	7.340771E-1	7.252182E-1	7.395107E-1	7.226108E-1	7.296946E-1	7.423023E-1	7.565243E-1	7.782662E-1	7.719710E-1	8.067091E-1	7.672535E-1	7.965371E-1	8.118380E-1	7.761368E-1	7.530746E-1	7.372412E-1	7.769784E-1	7.415783E-1	7.816036E-1	7.640456E-1	7.278625E-1	7.696398E-1	7.482757E-1	7.302468E-1	7.062648E-1	7.789343E-1	7.629380E-1	7.564234E-1	7.739566E-1	7.117535E-1	7.963418E-1	7.465934E-1	7.589963E-1	7.544435E-1	7.329788E-1	7.356805E-1	7.788664E-1	7.896053E-1	7.594220E-1	7.586676E-1	7.656143E-1	7.790748E-1	7.143638E-1	8.162876E-1	7.777348E-1	7.503341E-1	7.587747E-1	7.874137E-1	7.948922E-1	7.108078E-1	7.692055E-1	7.560173E-1	7.614344E-1	7.872587E-1	7.549917E-1	7.890211E-1	7.164983E-1	7.733610E-1	7.543596E-1	7.212709E-1	7.184857E-1	7.901558E-1	7.673223E-1	7.597080E-1	6.861156E-1	7.333988E-1	7.299251E-1	7.761756E-1	7.750427E-1	7.931967E-1	7.741378E-1	7.649945E-1	7.880908E-1	8.009229E-1	7.749651E-1	7.289149E-1	7.367743E-1	7.753452E-1	7.576470E-1	7.427105E-1	7.039394E-1	7.484113E-1	7.353172E-1	8.165595E-1	7.538964E-1	7.498602E-1	8.040009E-1	7.573932E-1	7.499663E-1	7.739080E-1	7.808502E-1	7.528047E-1	7.786320E-1	7.676394E-1	7.133125E-1	7.406657E-1	7.426365E-1	7.482666E-1	7.442967E-1	7.300999E-1	7.298746E-1	7.691285E-1	7.962368E-1	7.174974E-1	7.432518E-1	7.425446E-1	7.702959E-1	7.653872E-1	7.939077E-1	7.681288E-1	7.352944E-1	7.554329E-1	7.729150E-1	7.699675E-1	7.661818E-1	7.955328E-1	7.738233E-1	7.450708E-1	8.029876E-1	7.393381E-1	7.738921E-1	7.796492E-1	8.692020E-1	7.727299E-1	7.415321E-1	7.430788E-1	7.248597E-1	7.399947E-1	7.619032E-1	7.850559E-1	7.265780E-1	7.771278E-1	7.589297E-1	7.520604E-1	7.344171E-1	8.012743E-1	7.119332E-1	7.314225E-1	7.852792E-1	7.669430E-1	7.495010E-1	7.660293E-1	7.775814E-1	7.913347E-1	6.680678E-1	7.530147E-1	7.298232E-1	7.511151E-1	7.566198E-1	7.106450E-1	7.614309E-1	7.947247E-1	7.961476E-1	7.540514E-1	7.919291E-1	7.600423E-1	7.455908E-1	7.140009E-1	7.174379E-1	7.607438E-1	7.517578E-1	7.497748E-1	8.588164E-1	7.420558E-1	6.989923E-1
2.900050E+2	8.037016E-1	7.832662E-1	7.569782E-1	8.109836E-1	8.170790E-1	8.714560E-1	8.517050E-1	8.789932E-1	8.002529E-1	8.695747E-1	8.129998E-1	8.479636E-1	8.297339E-1	8.112211E-1	8.524417E-1	8.008853E-1	8.385960E-1	8.460133E-1	8.445667E-1	8.199081E-1	8.076417E-1	8.409008E-1	8.020261E-1	7.718619E-1	7.795875E-1	7.890612E-1	8.723136E-1	8.342642E-1	8.357529E-1	8.251618E-1	7.945764E-1	8.065716E-1	8.230218E-1	8.312396E-1	8.552846E-1	9.101748E-1	7.982111E-1	8.649480E-1	8.353787E-1	8.336774E-1	8.312635E-1	8.065243E-1	8.167034E-1	8.450562E-1	9.074728E-1	8.143890E-1	8.652524E-1	7.803204E-1	7.934283E-1	8.544786E-1	8.386062E-1	8.016828E-1	8.088469E-1	8.861951E-1	8.253031E-1	8.633069E-1	8.520330E-1	8.107424E-1	8.377009E-1	8.399203E-1	8.548468E-1	8.006662E-1	8.637182E-1	8.263489E-1	8.533704E-1	8.680973E-1	8.267380E-1	8.370554E-1	8.208562E-1	8.561185E-1	8.414354E-1	8.103340E-1	8.218325E-1	7.954478E-1	8.131281E-1	8.601363E-1	7.821468E-1	8.381474E-1	8.871140E-1	8.005854E-1	8.230188E-1	8.532070E-1	8.127162E-1	8.138326E-1	8.421738E-1	8.390215E-1	8.358336E-1	8.345694E-1	8.202629E-1	8.154112E-1	8.283613E-1	8.285653E-1	8.167540E-1	8.461740E-1	8.206444E-1	8.065362E-1	8.472277E-1	8.486190E-1	8.329540E-1	8.526537E-1	8.468216E-1	8.010702E-1	8.826922E-1	8.166270E-1	8.227468E-1	8.712367E-1	7.794249E-1	7.928536E-1	8.457937E-1	8.686292E-1	8.415666E-1	8.381514E-1	8.096619E-1	8.598507E-1	8.550656E-1	8.100318E-1	8.213957E-1	7.798119E-1	8.977006E-1	8.435442E-1	8.451717E-1	8.421489E-1	7.997801E-1	9.390149E-1	9.027511E-1	8.169268E-1	8.610842E-1	8.183933E-1	8.265702E-1	8.458762E-1	8.516062E-1	8.172896E-1	8.554067E-1	8.465328E-1	7.961776E-1	8.256639E-1	8.106628E-1	9.255491E-1	8.684190E-1	8.587143E-1	8.483527E-1	9.048626E-1	8.758818E-1	8.301946E-1	8.339741E-1	8.923343E-1	9.067325E-1	8.599431E-1	8.404519E-1	8.256874E-1	8.163610E-1	8.361265E-1	7.773376E-1	8.385813E-1	8.242061E-1	7.599862E-1	7.905541E-1	8.133597E-1	8.300941E-1	7.987463E-1	7.577042E-1	8.724348E-1	8.298396E-1	8.754220E-1	8.441745E-1	8.900233E-1	8.440367E-1	7.971724E-1	8.473156E-1	8.460461E-1	8.772905E-1	7.864488E-1
2.905280E+2	8.366965E-1	8.531931E-1	8.506205E-1	8.014257E-1	8.066962E-1	8.113252E-1	8.723137E-1	8.017361E-1	7.998134E-1	8.404494E-1	8.054685E-1	7.782442E-1	8.089851E-1	7.985613E-1	8.204474E-1	7.935551E-1	8.122690E-1	8.486521E-1	8.449842E-1	8.021966E-1	8.259022E-1	7.905624E-1	7.818609E-1	8.056852E-1	7.998928E-1	7.686798E-1	8.355190E-1	7.550981E-1	7.878284E-1	7.719004E-1	7.823712E-1	7.796479E-1	8.166997E-1	7.986476E-1	7.886012E-1	7.787555E-1	8.141966E-1	8.171905E-1	7.943945E-1	7.908237E-1	8.563540E-1	7.855146E-1	7.991287E-1	7.427617E-1	8.192264E-1	8.545411E-1	7.768412E-1	7.841929E-1	8.311651E-1	8.146436E-1	7.896420E-1	8.265077E-1	7.819808E-1	7.974449E-1	8.825151E-1	7.737964E-1	7.875539E-1	8.104012E-1	7.861557E-1	7.998075E-1	8.211982E-1	8.303404E-1	7.613060E-1	7.958899E-1	7.854744E-1	7.991818E-1	8.350910E-1	8.391523E-1	7.789984E-1	7.880418E-1	7.697085E-1	7.733357E-1	7.932403E-1	8.340574E-1	7.510083E-1	8.441273E-1	8.094356E-1	8.178034E-1	7.805462E-1	7.748349E-1	8.015454E-1	7.893647E-1	8.116651E-1	7.740584E-1	8.327183E-1	8.360463E-1	8.471083E-1	7.607989E-1	7.649836E-1	8.122711E-1	8.194645E-1	8.022795E-1	7.381644E-1	8.475021E-1	8.013670E-1	7.630636E-1	8.414491E-1	8.124122E-1	7.993162E-1	8.768280E-1	7.886830E-1	7.623289E-1	7.978575E-1	7.849273E-1	7.971376E-1	8.419901E-1	7.604632E-1	8.357968E-1	7.845345E-1	8.383333E-1	8.151109E-1	7.509160E-1	7.692572E-1	8.458223E-1	8.176881E-1	8.142890E-1	8.391071E-1	8.256600E-1	8.482027E-1	7.715751E-1	7.963447E-1	7.955114E-1	8.137771E-1	7.303781E-1	8.582147E-1	8.016968E-1	7.559803E-1	8.561743E-1	7.539568E-1	8.353659E-1	8.487161E-1	8.254910E-1	7.819844E-1	8.390646E-1	7.572653E-1	8.400135E-1	8.105179E-1	8.413489E-1	7.647826E-1	7.884387E-1	7.419177E-1	8.076255E-1	8.173056E-1	7.992205E-1	7.757700E-1	7.865112E-1	7.733838E-1	7.863905E-1	8.354023E-1	8.549235E-1	8.772898E-1	7.426426E-1	8.127030E-1	8.282388E-1	7.276110E-1	7.584983E-1	7.688271E-1	7.860200E-1	7.845275E-1	7.514439E-1	8.268945E-1	8.249331E-1	7.613951E-1	8.078011E-1	7.697737E-1	8.369672E-1	8.030622E-1	8.015797E-1	8.080471E-1	7.164906E-1	7.717275E-1	6.474235E-1
2.910030E+2	8.341034E-1	8.362071E-1	8.349215E-1	8.165956E-1	8.367804E-1	8.810417E-1	8.103465E-1	8.147516E-1	7.931131E-1	8.019077E-1	8.298636E-1	7.614142E-1	8.109047E-1	8.399834E-1	8.284812E-1	8.522991E-1	8.587037E-1	8.637805E-1	8.297576E-1	8.446065E-1	8.126644E-1	7.990823E-1	8.247217E-1	8.483573E-1	8.377122E-1	8.104110E-1	8.394872E-1	7.710548E-1	8.705591E-1	8.355660E-1	8.006806E-1	9.143480E-1	7.911867E-1	8.676707E-1	8.634200E-1	8.624560E-1	8.105019E-1	8.511170E-1	8.435624E-1	7.945294E-1	8.044434E-1	8.374652E-1	8.176614E-1	8.083227E-1	8.575188E-1	8.535082E-1	8.088726E-1	7.861941E-1	8.163386E-1	7.673127E-1	8.377305E-1	8.080775E-1	7.733466E-1	8.564948E-1	8.302858E-1	8.121683E-1	7.971489E-1	7.938723E-1	8.231965E-1	7.915779E-1	8.347402E-1	8.199017E-1	8.695960E-1	8.131967E-1	8.414826E-1	8.789485E-1	9.256976E-1	8.060529E-1	8.162772E-1	8.009901E-1	8.036288E-1	8.274897E-1	8.327663E-1	8.281644E-1	7.522115E-1	7.790280E-1	7.952894E-1	8.540222E-1	8.322245E-1	8.241997E-1	8.049607E-1	8.330845E-1	8.485103E-1	8.815779E-1	8.011077E-1	8.029843E-1	8.340471E-1	8.398810E-1	8.466331E-1	8.272964E-1	8.227798E-1	8.863619E-1	8.241636E-1	9.123404E-1	9.039893E-1	8.719380E-1	8.424123E-1	8.281464E-1	8.586292E-1	8.497345E-1	8.044043E-1	8.117188E-1	8.066814E-1	8.130299E-1	8.397795E-1	8.371170E-1	8.173903E-1	7.831282E-1	8.184509E-1	8.827397E-1	7.983236E-1	8.181228E-1	8.385955E-1	8.654960E-1	8.690057E-1	8.048609E-1	8.456357E-1	8.423228E-1	8.553311E-1	8.194693E-1	8.680619E-1	8.519765E-1	8.672046E-1	7.610913E-1	7.993904E-1	8.652359E-1	8.502309E-1	8.198586E-1	8.469218E-1	8.286673E-1	8.844094E-1	8.660904E-1	8.033919E-1	8.244896E-1	8.260250E-1	8.036465E-1	8.692896E-1	8.624923E-1	7.760297E-1	8.103492E-1	8.393166E-1	8.308918E-1	8.690333E-1	8.144986E-1	8.365865E-1	7.625494E-1	8.198448E-1	8.299581E-1	8.863882E-1	8.145432E-1	8.235253E-1	8.421756E-1	8.100106E-1	8.333562E-1	8.777352E-1	8.552448E-1	8.212749E-1	8.450943E-1	8.044087E-1	8.399783E-1	8.228604E-1	8.536339E-1	8.493703E-1	7.754158E-1	8.316967E-1	8.166636E-1	8.248899E-1	8.231190E-1	9.194728E-1	7.889049E-1	8.211515E-1	7.910781E-1
2.915150E+2	1.224178E+0	1.117143E+0	1.164059E+0	1.178653E+0	1.187163E+0	1.215678E+0	1.175582E+0	1.135586E+0	1.131480E+0	1.133898E+0	1.154957E+0	1.105161E+0	1.171772E+0	1.159813E+0	1.139958E+0	1.066184E+0	1.142788E+0	1.150685E+0	1.189914E+0	1.134440E+0	1.182644E+0	1.183651E+0	1.176920E+0	1.188200E+0	1.175828E+0	1.159588E+0	1.167901E+0	1.166690E+0	1.201836E+0	1.081331E+0	1.182205E+0	1.202009E+0	1.184511E+0	1.167433E+0	1.179756E+0	1.219931E+0	1.214282E+0	1.147771E+0	1.158266E+0	1.126000E+0	1.161930E+0	1.216507E+0	1.209743E+0	1.169290E+0	1.201536E+0	1.186666E+0	1.166088E+0	1.155924E+0	1.123843E+0	1.148440E+0	1.181468E+0	1.116575E+0	1.092644E+0	1.183063E+0	1.140793E+0	1.095491E+0	1.134540E+0	1.091524E+0	1.144703E+0	1.146862E+0	1.156275E+0	1.158016E+0	1.218674E+0	1.135717E+0	1.168859E+0	1.106114E+0	1.132763E+0	1.131607E+0	1.161256E+0	1.112448E+0	1.177413E+0	1.118073E+0	1.165618E+0	1.036432E+0	1.168543E+0	1.127101E+0	1.171449E+0	1.180258E+0	1.195892E+0	1.095085E+0	1.167010E+0	1.205318E+0	1.172728E+0	1.157237E+0	1.176153E+0	1.123782E+0	1.169366E+0	1.131908E+0	1.180871E+0	1.116036E+0	1.252745E+0	1.167080E+0	1.192305E+0	1.224496E+0	1.203224E+0	1.099210E+0	1.166424E+0	1.219249E+0	1.112932E+0	1.158639E+0	1.162137E+0	1.158991E+0	1.143077E+0	1.134987E+0	1.094562E+0	1.198896E+0	1.166672E+0	1.173713E+0	1.177375E+0	1.129222E+0	1.176704E+0	1.129357E+0	1.144776E+0	1.224080E+0	1.166423E+0	1.126735E+0	1.151858E+0	1.206034E+0	1.230343E+0	1.143213E+0	1.147046E+0	1.140582E+0	1.196674E+0	1.193807E+0	1.146585E+0	1.207647E+0	1.176330E+0	1.149092E+0	1.127809E+0	1.199167E+0	1.094376E+0	1.105260E+0	1.183691E+0	1.192010E+0	1.147777E+0	1.144382E+0	1.099446E+0	1.139742E+0	1.142353E+0	1.207449E+0	1.127522E+0	1.188175E+0	1.169252E+0	1.172326E+0	1.218417E+0	1.239187E+0	1.148331E+0	1.157924E+0	1.212364E+0	1.162622E+0	1.119660E+0	1.164874E+0	1.143164E+0	1.163108E+0	1.147646E+0	1.102595E+0	1.140780E+0	1.198619E+0	1.139971E+0	1.123360E+0	1.157560E+0	1.183986E+0	1.233399E+0	1.146133E+0	1.097947E+0	1.132071E+0	1.141857E+0	1.160889E+0	1.139431E+0	1.198445E+0	1.063188E+0	1.059391E+0
2.920000E+2	1.101372E+0	1.054270E+0	9.982960E-1	1.001113E+0	1.069734E+0	1.009254E+0	1.062270E+0	1.091683E+0	1.023017E+0	1.012187E+0	9.832463E-1	1.065674E+0	9.998875E-1	9.805570E-1	9.904650E-1	1.026990E+0	1.028378E+0	1.024205E+0	1.026861E+0	1.070057E+0	1.058748E+0	1.019613E+0	1.068482E+0	1.000046E+0	1.032820E+0	9.894058E-1	1.139950E+0	1.107869E+0	1.049389E+0	1.037775E+0	1.006013E+0	1.045863E+0	1.068982E+0	1.077778E+0	1.054366E+0	1.057750E+0	1.038507E+0	1.055290E+0	1.065159E+0	9.723774E-1	1.014221E+0	1.036171E+0	1.052432E+0	1.084231E+0	1.065933E+0	1.047421E+0	1.070077E+0	1.040025E+0	1.036539E+0	9.625159E-1	1.103354E+0	1.091588E+0	1.033472E+0	1.045285E+0	1.011573E+0	9.920708E-1	1.031455E+0	1.028907E+0	1.077718E+0	9.907680E-1	1.063892E+0	1.056244E+0	1.097219E+0	1.060372E+0	1.072429E+0	9.990857E-1	1.027736E+0	1.015893E+0	1.023895E+0	1.049432E+0	1.062863E+0	1.048018E+0	1.074659E+0	1.012951E+0	1.026536E+0	1.002794E+0	1.028296E+0	1.083291E+0	1.033024E+0	1.090756E+0	1.057403E+0	9.860467E-1	1.080436E+0	1.088722E+0	1.015486E+0	1.117837E+0	1.055732E+0	1.017605E+0	1.097714E+0	9.924086E-1	1.001365E+0	1.085419E+0	1.044930E+0	1.059169E+0	1.068430E+0	1.092901E+0	1.055683E+0	1.050819E+0	1.039336E+0	1.029800E+0	1.064489E+0	1.033927E+0	1.078712E+0	1.042634E+0	1.018840E+0	1.020966E+0	1.050234E+0	1.028707E+0	1.051519E+0	1.084453E+0	1.067739E+0	1.034122E+0	9.977359E-1	1.028051E+0	1.016643E+0	1.046968E+0	1.086672E+0	1.111078E+0	1.058427E+0	1.099016E+0	1.019102E+0	1.030330E+0	1.016029E+0	1.072758E+0	1.072472E+0	1.111208E+0	1.074110E+0	1.060861E+0	1.067756E+0	1.133683E+0	1.056164E+0	1.039843E+0	1.003833E+0	1.077850E+0	1.022102E+0	1.092568E+0	1.053911E+0	1.102939E+0	1.034796E+0	1.037540E+0	1.109913E+0	1.060067E+0	1.051021E+0	1.011964E+0	1.037221E+0	1.143686E+0	9.625347E-1	9.885079E-1	1.036449E+0	1.074040E+0	1.046248E+0	1.067383E+0	1.129861E+0	1.103975E+0	1.024145E+0	1.035472E+0	1.049833E+0	1.023613E+0	1.054203E+0	1.057552E+0	1.157480E+0	1.066478E+0	1.047795E+0	1.016286E+0	1.045518E+0	9.922138E-1	1.057640E+0	1.042586E+0	1.101833E+0	9.813063E-1	1.128982E+0	8.847361E-1
2.925020E+2	9.369079E-1	1.021853E+0	9.158730E-1	9.582202E-1	9.843394E-1	9.415235E-1	9.843455E-1	1.002582E+0	9.290044E-1	9.449464E-1	9.583461E-1	8.737068E-1	9.099064E-1	8.640576E-1	9.040431E-1	8.743383E-1	9.326272E-1	9.088244E-1	9.972750E-1	1.016202E+0	8.806881E-1	9.472427E-1	9.193077E-1	9.520710E-1	9.269838E-1	9.108523E-1	9.823353E-1	9.761237E-1	9.311906E-1	9.448250E-1	9.231358E-1	9.615539E-1	9.245909E-1	9.134081E-1	9.497746E-1	1.018127E+0	9.702165E-1	9.055208E-1	9.504201E-1	9.178330E-1	9.084921E-1	9.439711E-1	9.547818E-1	9.792128E-1	9.419742E-1	1.017794E+0	9.492347E-1	1.000174E+0	9.181620E-1	9.728290E-1	9.378276E-1	9.356917E-1	9.021563E-1	9.984580E-1	9.196580E-1	9.008188E-1	8.885761E-1	9.533513E-1	9.281829E-1	9.429839E-1	9.663479E-1	9.406395E-1	1.001355E+0	9.705896E-1	9.182979E-1	9.704696E-1	9.499909E-1	9.640950E-1	9.106601E-1	9.739501E-1	9.866752E-1	8.727282E-1	9.747290E-1	9.034199E-1	9.992541E-1	8.893786E-1	9.669323E-1	9.453420E-1	9.806268E-1	9.609786E-1	9.481505E-1	8.819235E-1	9.354859E-1	9.664849E-1	8.900436E-1	9.697661E-1	9.423609E-1	9.788932E-1	9.750067E-1	9.378618E-1	9.302062E-1	9.955179E-1	9.522739E-1	9.351784E-1	1.013727E+0	8.787932E-1	9.540703E-1	9.060686E-1	9.336388E-1	9.278828E-1	1.020820E+0	9.326545E-1	9.443814E-1	9.096458E-1	9.277550E-1	9.918090E-1	9.770167E-1	9.452912E-1	9.658628E-1	9.487972E-1	9.804800E-1	9.873280E-1	9.680839E-1	9.229062E-1	9.372271E-1	9.245182E-1	1.010413E+0	9.979930E-1	8.853764E-1	9.610997E-1	9.711145E-1	9.703325E-1	8.870217E-1	8.722021E-1	9.328436E-1	9.746972E-1	9.691475E-1	9.304799E-1	9.151733E-1	9.116254E-1	9.781964E-1	9.352003E-1	9.561621E-1	9.539241E-1	9.237478E-1	9.900248E-1	9.223615E-1	1.005753E+0	8.581541E-1	9.589655E-1	9.576957E-1	9.859459E-1	9.616017E-1	9.536199E-1	9.318635E-1	9.378262E-1	9.357147E-1	8.960534E-1	8.967469E-1	9.610820E-1	9.374904E-1	9.097740E-1	9.661502E-1	9.406117E-1	9.194460E-1	9.083732E-1	9.819666E-1	9.830601E-1	9.262299E-1	9.345861E-1	9.646880E-1	9.986196E-1	9.527939E-1	9.294812E-1	9.314045E-1	1.015624E+0	1.018270E+0	9.206593E-1	9.231820E-1	9.322930E-1	9.297908E-1	9.361337E-1
2.930040E+2	8.860310E-1	8.450618E-1	8.359653E-1	8.795898E-1	8.386311E-1	8.761881E-1	8.919729E-1	9.116581E-1	8.594728E-1	8.443960E-1	8.769111E-1	8.678198E-1	8.995751E-1	8.446316E-1	8.183203E-1	8.697919E-1	8.222407E-1	8.553688E-1	8.817738E-1	9.149306E-1	8.857278E-1	8.665848E-1	8.534021E-1	8.645215E-1	8.959289E-1	8.456338E-1	8.759472E-1	8.364297E-1	8.683813E-1	8.744961E-1	9.104234E-1	8.722033E-1	8.802032E-1	8.476245E-1	9.341210E-1	8.615524E-1	8.801084E-1	8.727626E-1	8.614242E-1	8.636032E-1	8.603710E-1	8.661618E-1	9.162965E-1	7.388065E-1	8.611757E-1	8.477907E-1	8.997444E-1	8.285180E-1	8.461696E-1	8.545476E-1	8.635774E-1	8.979324E-1	8.313971E-1	9.149205E-1	8.221137E-1	8.008193E-1	8.597171E-1	8.386021E-1	8.336629E-1	8.305187E-1	8.735459E-1	9.041794E-1	9.319888E-1	8.761138E-1	8.687514E-1	8.381307E-1	8.373890E-1	8.674736E-1	8.403897E-1	8.609066E-1	8.616478E-1	8.082198E-1	8.605656E-1	8.185532E-1	7.973627E-1	7.966967E-1	8.879149E-1	8.684870E-1	9.201446E-1	8.469367E-1	8.532191E-1	8.638174E-1	8.522057E-1	8.403969E-1	7.995282E-1	8.839026E-1	8.411636E-1	8.444845E-1	8.593453E-1	8.107795E-1	9.021837E-1	8.570146E-1	8.629150E-1	8.495131E-1	8.985713E-1	8.599861E-1	8.659038E-1	8.544177E-1	8.039497E-1	8.505211E-1	8.636074E-1	8.752567E-1	8.707331E-1	8.784764E-1	8.458804E-1	8.548642E-1	8.856138E-1	8.573707E-1	7.975403E-1	8.321351E-1	9.034040E-1	8.443071E-1	8.399530E-1	8.010856E-1	8.562515E-1	7.635480E-1	9.157342E-1	8.843407E-1	9.018126E-1	8.750215E-1	8.616087E-1	8.460341E-1	8.693273E-1	8.954421E-1	8.989476E-1	9.155074E-1	8.658488E-1	8.581870E-1	8.487124E-1	8.526331E-1	8.569028E-1	8.923738E-1	8.626341E-1	8.422263E-1	8.528034E-1	8.918865E-1	8.342352E-1	8.933323E-1	7.998385E-1	8.924248E-1	8.736675E-1	8.481625E-1	9.650042E-1	8.356065E-1	8.815754E-1	8.971569E-1	8.565185E-1	8.070021E-1	8.143508E-1	8.635274E-1	8.940544E-1	8.605571E-1	9.320347E-1	8.694905E-1	8.764829E-1	8.246063E-1	8.073429E-1	8.873782E-1	8.468008E-1	8.516688E-1	8.519437E-1	8.676563E-1	8.661633E-1	8.392459E-1	7.996955E-1	8.390183E-1	8.704496E-1	8.602848E-1	8.571281E-1	8.417096E-1	9.105966E-1	8.416433E-1
2.935110E+2	1.105403E+0	1.023330E+0	1.040392E+0	1.082557E+0	1.103274E+0	1.065221E+0	1.109426E+0	1.145339E+0	1.093248E+0	1.089896E+0	1.079829E+0	1.003778E+0	1.095689E+0	1.017656E+0	1.082812E+0	1.056701E+0	1.074162E+0	1.000941E+0	1.140279E+0	1.130560E+0	1.042896E+0	1.021955E+0	1.063063E+0	1.079360E+0	1.097875E+0	1.055530E+0	1.033089E+0	1.070404E+0	1.069939E+0	1.049882E+0	1.076436E+0	9.935588E-1	1.066484E+0	1.056267E+0	1.140335E+0	1.116464E+0	1.022398E+0	1.047989E+0	1.072575E+0	1.063676E+0	1.142992E+0	1.048023E+0	1.089497E+0	1.023034E+0	1.072876E+0	1.031320E+0	1.165743E+0	1.063218E+0	1.054730E+0	1.099097E+0	1.088139E+0	1.052439E+0	1.014551E+0	1.068036E+0	1.149868E+0	1.058048E+0	1.062712E+0	1.050441E+0	9.900424E-1	1.054101E+0	1.064800E+0	1.079749E+0	1.133125E+0	1.048061E+0	1.110724E+0	1.101053E+0	1.042929E+0	1.072301E+0	1.035183E+0	1.092469E+0	1.098394E+0	1.089773E+0	1.021162E+0	1.087965E+0	1.077905E+0	1.025310E+0	1.108382E+0	1.028450E+0	1.170260E+0	1.050091E+0	1.126328E+0	1.071614E+0	1.055889E+0	1.045991E+0	1.044904E+0	1.036390E+0	1.089179E+0	1.000769E+0	1.053774E+0	9.920257E-1	1.092569E+0	1.112674E+0	1.060093E+0	1.119840E+0	1.030258E+0	1.081434E+0	1.072184E+0	1.101258E+0	1.044494E+0	1.013837E+0	1.106174E+0	1.049511E+0	1.051391E+0	1.070571E+0	1.036778E+0	1.075367E+0	1.103407E+0	1.036113E+0	1.080855E+0	1.058893E+0	1.125947E+0	1.077167E+0	1.061656E+0	1.023579E+0	1.076501E+0	1.104161E+0	1.058727E+0	1.105454E+0	1.097458E+0	1.054719E+0	1.125823E+0	1.090665E+0	1.029973E+0	1.070873E+0	1.100395E+0	1.075792E+0	1.084446E+0	1.029859E+0	1.064131E+0	1.081982E+0	1.060888E+0	1.086264E+0	1.092327E+0	1.075567E+0	1.130194E+0	1.091523E+0	1.008346E+0	1.063324E+0	1.114128E+0	1.094305E+0	1.048837E+0	1.074904E+0	1.098562E+0	1.053943E+0	1.063112E+0	1.050450E+0	1.104954E+0	1.139082E+0	1.086361E+0	1.062102E+0	1.085762E+0	1.064765E+0	1.101096E+0	1.055061E+0	1.142435E+0	9.845689E-1	1.010561E+0	1.057927E+0	1.059999E+0	1.053314E+0	1.027906E+0	1.126971E+0	1.124084E+0	1.119901E+0	1.073655E+0	1.078113E+0	1.082515E+0	1.075350E+0	1.146606E+0	1.146716E+0	1.098264E+0	1.072841E+0
2.940070E+2	1.231173E+0	1.169158E+0	1.129158E+0	1.042826E+0	1.186520E+0	1.154797E+0	1.196354E+0	1.095059E+0	1.086664E+0	1.166357E+0	1.201936E+0	1.080556E+0	1.150424E+0	1.192313E+0	1.176723E+0	1.127390E+0	1.186867E+0	1.119450E+0	1.124456E+0	1.114136E+0	1.103471E+0	1.099037E+0	1.119758E+0	1.089917E+0	1.144483E+0	1.196924E+0	1.147582E+0	1.142311E+0	1.115620E+0	1.117837E+0	1.169355E+0	1.048284E+0	1.097391E+0	1.217212E+0	1.181184E+0	1.129476E+0	1.166871E+0	1.179383E+0	1.138313E+0	1.165092E+0	1.170696E+0	1.057785E+0	1.176636E+0	1.169823E+0	1.142766E+0	1.127336E+0	1.163629E+0	1.177348E+0	1.041754E+0	1.118401E+0	1.165625E+0	1.094060E+0	1.144086E+0	1.181834E+0	1.164578E+0	1.122781E+0	1.115044E+0	1.084849E+0	1.140057E+0	1.137268E+0	1.125992E+0	1.150566E+0	1.129863E+0	1.083462E+0	1.182324E+0	1.148225E+0	1.148663E+0	1.146903E+0	1.146101E+0	1.143411E+0	1.166246E+0	1.139527E+0	1.150127E+0	1.189889E+0	1.076816E+0	1.167675E+0	1.112752E+0	1.130721E+0	1.162426E+0	1.122285E+0	1.190013E+0	1.151327E+0	1.188923E+0	1.159577E+0	1.104238E+0	1.182671E+0	1.139999E+0	1.155733E+0	1.082159E+0	1.077126E+0	1.126171E+0	1.129492E+0	1.094778E+0	1.123670E+0	1.258101E+0	1.071758E+0	1.159434E+0	1.117359E+0	1.151657E+0	1.177780E+0	1.198933E+0	1.166720E+0	1.140759E+0	1.113835E+0	1.085039E+0	1.175037E+0	1.130653E+0	1.093751E+0	1.131658E+0	1.140991E+0	1.172132E+0	1.157356E+0	1.080112E+0	1.162634E+0	1.177189E+0	1.108869E+0	1.125460E+0	1.178565E+0	1.108027E+0	1.121418E+0	1.098212E+0	1.163344E+0	1.201003E+0	1.148353E+0	1.084068E+0	1.195590E+0	1.148453E+0	1.109771E+0	1.191987E+0	1.128367E+0	1.150995E+0	1.157643E+0	1.179995E+0	1.168654E+0	1.144084E+0	1.097870E+0	1.130367E+0	1.104695E+0	1.099530E+0	1.133856E+0	1.140652E+0	1.136749E+0	1.125095E+0	1.153240E+0	1.155559E+0	1.180005E+0	1.109252E+0	1.110916E+0	1.132179E+0	1.147695E+0	1.153187E+0	1.095885E+0	1.156552E+0	1.171490E+0	1.147295E+0	1.111376E+0	1.118668E+0	1.202721E+0	1.166088E+0	1.183868E+0	1.166556E+0	1.141032E+0	1.207335E+0	1.130892E+0	1.086937E+0	1.154043E+0	1.146240E+0	1.154578E+0	1.139922E+0	1.141703E+0	1.170338E+0	1.121905E+0
2.945030E+2	1.052984E+0	1.085455E+0	1.085767E+0	1.030435E+0	1.047866E+0	1.104757E+0	1.083031E+0	1.106540E+0	1.055650E+0	1.027665E+0	1.089366E+0	1.085579E+0	1.053830E+0	1.118024E+0	1.088686E+0	1.047193E+0	1.065095E+0	1.068436E+0	1.118498E+0	1.101715E+0	1.051300E+0	1.050171E+0	1.015668E+0	1.014071E+0	1.093869E+0	1.007029E+0	1.048008E+0	1.019786E+0	1.076691E+0	1.025465E+0	1.057460E+0	1.081587E+0	1.143483E+0	1.114055E+0	1.077867E+0	1.012040E+0	1.056391E+0	1.074417E+0	1.086458E+0	1.049787E+0	1.082288E+0	1.051014E+0	1.041320E+0	1.044601E+0	1.122629E+0	1.092256E+0	1.158589E+0	1.041600E+0	1.030670E+0	1.095137E+0	1.095583E+0	1.036851E+0	1.092744E+0	1.072536E+0	1.063150E+0	1.073913E+0	1.037350E+0	1.097365E+0	1.044158E+0	1.092773E+0	1.096019E+0	1.068033E+0	1.143435E+0	1.042055E+0	1.086578E+0	1.067096E+0	1.077726E+0	1.048364E+0	1.042604E+0	1.092198E+0	1.082103E+0	1.005051E+0	1.065922E+0	1.074944E+0	1.101535E+0	1.005784E+0	1.026577E+0	1.085908E+0	1.127550E+0	1.016977E+0	1.032381E+0	1.038635E+0	1.060502E+0	1.070231E+0	1.096563E+0	1.072322E+0	1.069282E+0	1.065160E+0	1.062454E+0	1.063007E+0	1.096277E+0	1.096758E+0	1.008307E+0	1.067825E+0	1.079456E+0	1.016239E+0	1.074611E+0	1.094820E+0	9.905224E-1	1.124339E+0	1.047441E+0	1.061676E+0	1.065539E+0	1.045391E+0	1.005175E+0	1.047135E+0	1.020006E+0	1.016716E+0	1.053088E+0	1.073229E+0	1.086904E+0	1.037196E+0	1.127402E+0	1.170230E+0	1.077638E+0	1.006741E+0	1.131766E+0	1.087540E+0	1.056647E+0	1.097143E+0	1.073408E+0	1.048513E+0	1.088126E+0	1.031075E+0	1.063710E+0	1.043798E+0	1.061381E+0	1.020501E+0	1.077308E+0	1.019148E+0	1.110641E+0	1.032883E+0	1.032384E+0	1.057446E+0	1.032519E+0	1.070956E+0	9.963956E-1	1.031407E+0	1.043905E+0	1.135066E+0	1.037959E+0	1.115342E+0	1.099616E+0	1.082749E+0	1.023784E+0	1.085481E+0	1.091654E+0	1.088935E+0	1.111876E+0	1.077086E+0	1.095142E+0	1.058746E+0	1.110220E+0	1.117876E+0	1.056737E+0	9.800935E-1	1.090143E+0	1.096532E+0	1.080086E+0	1.091254E+0	1.064678E+0	1.083209E+0	1.096131E+0	1.062415E+0	1.069942E+0	1.116668E+0	1.070422E+0	1.033194E+0	1.099292E+0	1.115133E+0	1.109059E+0	1.058246E+0
2.950050E+2	9.469393E-1	9.464155E-1	9.222633E-1	9.851359E-1	9.772531E-1	9.921486E-1	9.944171E-1	9.260758E-1	9.106054E-1	9.603810E-1	8.889752E-1	9.238032E-1	9.519723E-1	9.817441E-1	9.650678E-1	9.297671E-1	9.497847E-1	8.883765E-1	9.898452E-1	9.243943E-1	9.560990E-1	9.433212E-1	9.775758E-1	9.895685E-1	9.393660E-1	9.349613E-1	9.645650E-1	9.166531E-1	9.843830E-1	9.795344E-1	9.528039E-1	9.738368E-1	9.465457E-1	9.834352E-1	9.775882E-1	9.602536E-1	9.889914E-1	9.543297E-1	9.510910E-1	9.489362E-1	9.371348E-1	9.939844E-1	1.049779E+0	9.800180E-1	1.014399E+0	9.409174E-1	1.013719E+0	9.187883E-1	9.952126E-1	9.498461E-1	9.655673E-1	9.821315E-1	9.791876E-1	9.398465E-1	1.010619E+0	9.571456E-1	9.077578E-1	9.184221E-1	8.837267E-1	9.874640E-1	9.142778E-1	9.584266E-1	9.667617E-1	9.417418E-1	9.378658E-1	9.389000E-1	9.344889E-1	9.010796E-1	9.527342E-1	9.686092E-1	9.352757E-1	9.243720E-1	9.459430E-1	9.935740E-1	9.199874E-1	9.199601E-1	9.213201E-1	1.012902E+0	9.722538E-1	8.961985E-1	1.010632E+0	9.029497E-1	1.020242E+0	9.730906E-1	9.593947E-1	9.733536E-1	9.375835E-1	9.506344E-1	9.508592E-1	9.181708E-1	9.000738E-1	9.821251E-1	9.576871E-1	9.703655E-1	9.830482E-1	9.110032E-1	9.368421E-1	1.029597E+0	9.366814E-1	9.267850E-1	9.837759E-1	9.869603E-1	9.228028E-1	9.272459E-1	1.009005E+0	9.507765E-1	9.869304E-1	9.122284E-1	9.667996E-1	9.946318E-1	9.449777E-1	8.905227E-1	9.655571E-1	9.631231E-1	9.255204E-1	9.638464E-1	8.841723E-1	9.764518E-1	9.755939E-1	9.370069E-1	9.424275E-1	9.615211E-1	9.283873E-1	9.463616E-1	1.001492E+0	9.240031E-1	1.001610E+0	9.496136E-1	1.014027E+0	9.906303E-1	9.501679E-1	9.801683E-1	9.265024E-1	1.002902E+0	9.438958E-1	9.592301E-1	9.422316E-1	9.623745E-1	9.466852E-1	9.875478E-1	9.521144E-1	9.176627E-1	9.947100E-1	1.008334E+0	9.821916E-1	9.378615E-1	9.864297E-1	9.457022E-1	9.113353E-1	9.775348E-1	1.051664E+0	9.514041E-1	8.978548E-1	9.529413E-1	1.030885E+0	9.170237E-1	8.822851E-1	9.825224E-1	9.539862E-1	9.548564E-1	9.549873E-1	1.055597E+0	9.910721E-1	9.279692E-1	9.484652E-1	9.686803E-1	9.557650E-1	9.003161E-1	9.781812E-1	9.493320E-1	9.381625E-1	8.604046E-1
2.955070E+2	9.592691E-1	1.027885E+0	9.859084E-1	1.013759E+0	9.870490E-1	1.025662E+0	9.980557E-1	1.010181E+0	1.007054E+0	1.078696E+0	1.071699E+0	1.023659E+0	1.036721E+0	1.018240E+0	9.848102E-1	9.824918E-1	1.066908E+0	1.020631E+0	9.757777E-1	1.061271E+0	9.767447E-1	9.877613E-1	1.016718E+0	1.039922E+0	1.023143E+0	9.708218E-1	1.032284E+0	1.021670E+0	1.002246E+0	1.074943E+0	9.888042E-1	1.007598E+0	1.012114E+0	1.005068E+0	1.097002E+0	1.044263E+0	1.015999E+0	1.013577E+0	1.013474E+0	1.018306E+0	1.015829E+0	1.036732E+0	9.961334E-1	1.002469E+0	1.038489E+0	1.051841E+0	1.075157E+0	1.009554E+0	1.065207E+0	1.037478E+0	1.022914E+0	1.068605E+0	1.038109E+0	1.041293E+0	1.031873E+0	9.648160E-1	1.023634E+0	1.050803E+0	1.034496E+0	1.037521E+0	9.931625E-1	1.050756E+0	1.093954E+0	1.019891E+0	1.063250E+0	1.040036E+0	1.038437E+0	9.967556E-1	1.029362E+0	9.810959E-1	9.969484E-1	9.912920E-1	1.054585E+0	1.017154E+0	1.070750E+0	1.010852E+0	1.028234E+0	1.009727E+0	1.075102E+0	9.907115E-1	1.023750E+0	1.020907E+0	1.000420E+0	1.018079E+0	1.025290E+0	1.004320E+0	1.066947E+0	1.027370E+0	9.836058E-1	9.900443E-1	1.029219E+0	1.018075E+0	1.042496E+0	1.018843E+0	1.020329E+0	1.084751E+0	1.059375E+0	1.060398E+0	1.027948E+0	9.891834E-1	1.089849E+0	1.008769E+0	9.944044E-1	1.002483E+0	1.043001E+0	1.036151E+0	1.013753E+0	1.023254E+0	1.021711E+0	1.029202E+0	9.998764E-1	9.940152E-1	9.464105E-1	1.026499E+0	1.001230E+0	9.854352E-1	1.041616E+0	1.023661E+0	1.075565E+0	1.013568E+0	1.021705E+0	1.048874E+0	1.052157E+0	1.009920E+0	1.039295E+0	1.006589E+0	1.000384E+0	1.008607E+0	1.085033E+0	1.048436E+0	1.158116E+0	1.013590E+0	1.025554E+0	1.011271E+0	9.999830E-1	1.048144E+0	1.001491E+0	1.020871E+0	1.082544E+0	1.056925E+0	1.040663E+0	1.033254E+0	1.053560E+0	1.053672E+0	1.038364E+0	1.001834E+0	1.042325E+0	1.038058E+0	1.050975E+0	1.062926E+0	1.054693E+0	1.041714E+0	1.060815E+0	1.017420E+0	1.011160E+0	9.751455E-1	1.002406E+0	1.033816E+0	1.074678E+0	1.017836E+0	1.123038E+0	1.064442E+0	1.000546E+0	1.037396E+0	1.049957E+0	1.021771E+0	1.024348E+0	9.907558E-1	1.008621E+0	1.005855E+0	9.576645E-1	1.014217E+0
2.960050E+2	1.136924E+0	1.132486E+0	1.110694E+0	1.156796E+0	1.160914E+0	1.192526E+0	1.229308E+0	1.154206E+0	1.117139E+0	1.108720E+0	1.097807E+0	1.161082E+0	1.143254E+0	1.155913E+0	1.121007E+0	1.142425E+0	1.174302E+0	1.141097E+0	1.174697E+0	1.127140E+0	1.128965E+0	1.145032E+0	1.165029E+0	1.124453E+0	1.171559E+0	1.115431E+0	1.101733E+0	1.155375E+0	1.154975E+0	1.176360E+0	1.074106E+0	1.135391E+0	1.107088E+0	1.144274E+0	1.165140E+0	1.157168E+0	1.152017E+0	1.164890E+0	1.205659E+0	1.153144E+0	1.135711E+0	1.113447E+0	1.177968E+0	1.206409E+0	1.212348E+0	1.157185E+0	1.200570E+0	1.108786E+0	1.130510E+0	1.157751E+0	1.138702E+0	1.128573E+0	1.162922E+0	1.138631E+0	1.183465E+0	1.191180E+0	1.159334E+0	1.148330E+0	1.110145E+0	1.159860E+0	1.162958E+0	1.081639E+0	1.164612E+0	1.133613E+0	1.174641E+0	1.129606E+0	1.118528E+0	1.155314E+0	1.152233E+0	1.232156E+0	1.151994E+0	1.107735E+0	1.171599E+0	1.107253E+0	1.151084E+0	1.136337E+0	1.144871E+0	1.181119E+0	1.153021E+0	1.125546E+0	1.206980E+0	1.175544E+0	1.065698E+0	1.183303E+0	1.099688E+0	1.190900E+0	1.131324E+0	1.148360E+0	1.075228E+0	1.109477E+0	1.177299E+0	1.131999E+0	1.124300E+0	1.199440E+0	1.161907E+0	1.193897E+0	1.135697E+0	1.142109E+0	1.150428E+0	1.130099E+0	1.182945E+0	1.125268E+0	1.143479E+0	1.126649E+0	1.092390E+0	1.195287E+0	1.110983E+0	1.160981E+0	1.133549E+0	1.173836E+0	1.132283E+0	1.091960E+0	1.134870E+0	1.143533E+0	1.120308E+0	1.120509E+0	1.154676E+0	1.133728E+0	1.164712E+0	1.255435E+0	1.148256E+0	1.109166E+0	1.148640E+0	1.156465E+0	1.143655E+0	1.129007E+0	1.107684E+0	1.093165E+0	1.167544E+0	1.135953E+0	1.145330E+0	1.147972E+0	1.156471E+0	1.115996E+0	1.116374E+0	1.138973E+0	1.136577E+0	1.134371E+0	1.100034E+0	1.110845E+0	1.164432E+0	1.140583E+0	1.132017E+0	1.099081E+0	1.196887E+0	1.127612E+0	1.177642E+0	1.098062E+0	1.081483E+0	1.144019E+0	1.199470E+0	1.158774E+0	1.239305E+0	1.140448E+0	1.166064E+0	1.130047E+0	1.162828E+0	1.169116E+0	1.235483E+0	1.159423E+0	1.176951E+0	1.119553E+0	1.185904E+0	1.187461E+0	1.089065E+0	1.175055E+0	1.174703E+0	1.123672E+0	1.164904E+0	1.181801E+0	1.166497E+0	1.119569E+0
2.964990E+2	1.002021E+0	1.042428E+0	9.665585E-1	1.011724E+0	1.020026E+0	1.009605E+0	9.896399E-1	9.555616E-1	9.852559E-1	1.015765E+0	1.009681E+0	9.692875E-1	9.642687E-1	9.542463E-1	9.865145E-1	9.565601E-1	1.018803E+0	1.017241E+0	1.011846E+0	1.056376E+0	1.028570E+0	9.757321E-1	1.011436E+0	1.017563E+0	9.680382E-1	9.874937E-1	9.721036E-1	1.010950E+0	1.001376E+0	1.013325E+0	9.410562E-1	9.677205E-1	9.758273E-1	9.766166E-1	9.760511E-1	9.542175E-1	9.699768E-1	9.916750E-1	9.844000E-1	9.797303E-1	9.935526E-1	9.760236E-1	9.754603E-1	9.972346E-1	1.034897E+0	1.021577E+0	9.702743E-1	9.645196E-1	9.878508E-1	9.810622E-1	9.673695E-1	9.843231E-1	9.740243E-1	9.624104E-1	9.803696E-1	1.029226E+0	9.750247E-1	1.020478E+0	9.453140E-1	9.933873E-1	1.002809E+0	1.001701E+0	1.046655E+0	1.019525E+0	9.818116E-1	1.017082E+0	9.290971E-1	1.018219E+0	9.624708E-1	9.344635E-1	1.025846E+0	9.426113E-1	9.477193E-1	9.747388E-1	9.499922E-1	1.003056E+0	1.016561E+0	9.877827E-1	9.919231E-1	1.050715E+0	9.998448E-1	1.044082E+0	9.858952E-1	1.010872E+0	9.700445E-1	9.920016E-1	1.014251E+0	9.316721E-1	9.874961E-1	9.812786E-1	9.490933E-1	9.944354E-1	9.731273E-1	1.034796E+0	9.571535E-1	9.374611E-1	9.852757E-1	1.015845E+0	1.035025E+0	1.022242E+0	9.830701E-1	9.926401E-1	9.867567E-1	9.842356E-1	9.961918E-1	9.569287E-1	9.488946E-1	9.342393E-1	1.012704E+0	1.010644E+0	1.014993E+0	1.024062E+0	9.769521E-1	1.070676E+0	9.395417E-1	9.814070E-1	1.010672E+0	1.031629E+0	9.901188E-1	1.003281E+0	9.917250E-1	9.898074E-1	1.008174E+0	9.432852E-1	9.968166E-1	1.014185E+0	9.943510E-1	9.504084E-1	1.022957E+0	9.915486E-1	1.026716E+0	1.012459E+0	9.908612E-1	1.019964E+0	1.011191E+0	9.714868E-1	9.712516E-1	1.036966E+0	9.974226E-1	1.024941E+0	1.009793E+0	9.446568E-1	1.073879E+0	9.744785E-1	9.623667E-1	1.007818E+0	1.015124E+0	1.010717E+0	1.009509E+0	9.758877E-1	9.415671E-1	1.000880E+0	9.954603E-1	1.040270E+0	9.848965E-1	9.642399E-1	9.984933E-1	9.868212E-1	9.638604E-1	9.559889E-1	9.979869E-1	9.597720E-1	9.637933E-1	1.006568E+0	9.945101E-1	9.663867E-1	1.007885E+0	9.633547E-1	9.523844E-1	1.024262E+0	9.919417E-1	9.258234E-1
2.970020E+2	8.140690E-1	8.047103E-1	8.071026E-1	7.828783E-1	8.134479E-1	8.265466E-1	7.996115E-1	7.975269E-1	7.953995E-1	8.294126E-1	8.207801E-1	7.662457E-1	7.706163E-1	7.800353E-1	8.039337E-1	7.837644E-1	8.096403E-1	7.684808E-1	8.238719E-1	8.650936E-1	8.298926E-1	8.124785E-1	8.307442E-1	8.206243E-1	8.368759E-1	8.026766E-1	7.891371E-1	7.932412E-1	8.333743E-1	8.044412E-1	8.273966E-1	8.097557E-1	8.226996E-1	7.954809E-1	8.369829E-1	8.270567E-1	8.306795E-1	8.089146E-1	8.266346E-1	8.194240E-1	7.848874E-1	8.537353E-1	8.276568E-1	7.765609E-1	8.166535E-1	8.252476E-1	8.046512E-1	8.217746E-1	8.245216E-1	7.914485E-1	8.128590E-1	8.443327E-1	7.505022E-1	8.522971E-1	8.466328E-1	8.227719E-1	8.353394E-1	7.910406E-1	8.163877E-1	7.739965E-1	7.931030E-1	7.987602E-1	8.113097E-1	8.021760E-1	8.016116E-1	7.797391E-1	8.100344E-1	8.271623E-1	7.834797E-1	7.923551E-1	7.551045E-1	8.148757E-1	8.021301E-1	7.828366E-1	8.291622E-1	8.285789E-1	8.101435E-1	8.206270E-1	8.111604E-1	8.389999E-1	8.571329E-1	8.452179E-1	7.819954E-1	8.154969E-1	7.753305E-1	8.547906E-1	8.119014E-1	8.220584E-1	8.471142E-1	8.102664E-1	7.852094E-1	7.825290E-1	7.860176E-1	8.423601E-1	7.998458E-1	8.208186E-1	8.005082E-1	7.975448E-1	7.801327E-1	8.260550E-1	8.343001E-1	8.335233E-1	8.080151E-1	8.187170E-1	8.229762E-1	8.172244E-1	8.180568E-1	7.578180E-1	7.993558E-1	8.578659E-1	8.052555E-1	8.358885E-1	8.271720E-1	8.134720E-1	8.791471E-1	7.755311E-1	7.851634E-1	8.224683E-1	8.220703E-1	7.977464E-1	7.967850E-1	8.181661E-1	8.325584E-1	7.935643E-1	8.288467E-1	8.414001E-1	8.534859E-1	7.820241E-1	8.049629E-1	8.014635E-1	8.317555E-1	8.066422E-1	7.539195E-1	8.298574E-1	8.153057E-1	8.203967E-1	8.323977E-1	8.127691E-1	8.188169E-1	7.825527E-1	8.160199E-1	8.257028E-1	8.725722E-1	8.558387E-1	8.262909E-1	8.357383E-1	8.675351E-1	7.948260E-1	8.345154E-1	8.069405E-1	8.799113E-1	8.393600E-1	8.482077E-1	8.115854E-1	8.500093E-1	7.971562E-1	7.847520E-1	7.839757E-1	8.069959E-1	8.097454E-1	8.054695E-1	8.212117E-1	8.401689E-1	8.067674E-1	7.951773E-1	8.349840E-1	8.338703E-1	7.983611E-1	8.095280E-1	8.124460E-1	8.840643E-1	6.946783E-1
2.975020E+2	8.237635E-1	7.843483E-1	8.607257E-1	8.702668E-1	8.848392E-1	8.334664E-1	7.862213E-1	8.335508E-1	8.290140E-1	8.489684E-1	8.099747E-1	8.467704E-1	7.900269E-1	8.561981E-1	8.289310E-1	8.718269E-1	8.646554E-1	8.689124E-1	8.189101E-1	8.601717E-1	8.118206E-1	8.178748E-1	8.376862E-1	8.010872E-1	8.466641E-1	8.710410E-1	8.479521E-1	8.426090E-1	8.085799E-1	8.107758E-1	7.985333E-1	8.346964E-1	8.165440E-1	8.221592E-1	8.270348E-1	7.925704E-1	8.312473E-1	8.375098E-1	7.978966E-1	8.096640E-1	8.273849E-1	7.844932E-1	8.008474E-1	8.254904E-1	8.258078E-1	8.136423E-1	8.136556E-1	8.182181E-1	7.820700E-1	8.384944E-1	8.367267E-1	8.743552E-1	8.758774E-1	7.991472E-1	8.476369E-1	8.223563E-1	8.292764E-1	7.734969E-1	8.107567E-1	8.257392E-1	8.234651E-1	8.448094E-1	7.950078E-1	8.263784E-1	8.305109E-1	8.506364E-1	8.401882E-1	8.507060E-1	8.338145E-1	8.504413E-1	8.034160E-1	8.491077E-1	7.969609E-1	7.981362E-1	8.004268E-1	8.130347E-1	8.435083E-1	8.072914E-1	8.194887E-1	8.049339E-1	8.464815E-1	8.462593E-1	7.976054E-1	8.219802E-1	8.114239E-1	8.413309E-1	8.084424E-1	8.542387E-1	8.514257E-1	8.131641E-1	7.910348E-1	8.312072E-1	8.046685E-1	8.735672E-1	7.949185E-1	8.094896E-1	8.113872E-1	8.602695E-1	8.004638E-1	8.296766E-1	7.996784E-1	8.477607E-1	8.153819E-1	8.387306E-1	8.013222E-1	7.836788E-1	8.349912E-1	8.430368E-1	8.442161E-1	8.040826E-1	8.235478E-1	8.206401E-1	8.130639E-1	8.498845E-1	8.398714E-1	8.104627E-1	8.560748E-1	8.095202E-1	8.402840E-1	8.143301E-1	8.424273E-1	8.033489E-1	8.214564E-1	8.693177E-1	8.239202E-1	8.632654E-1	8.522843E-1	8.531928E-1	8.526813E-1	8.434343E-1	8.477587E-1	8.260646E-1	8.142753E-1	8.707967E-1	8.353809E-1	8.152536E-1	7.899739E-1	7.901317E-1	8.442045E-1	7.986864E-1	8.225028E-1	8.512011E-1	8.083290E-1	8.231282E-1	7.956425E-1	8.433397E-1	8.574861E-1	8.286684E-1	8.536217E-1	8.184817E-1	8.048037E-1	8.219783E-1	8.319697E-1	8.436033E-1	8.448739E-1	8.274447E-1	8.138499E-1	7.944999E-1	8.402143E-1	8.145540E-1	8.178000E-1	8.580861E-1	8.699155E-1	8.407564E-1	8.254843E-1	8.758374E-1	8.566443E-1	8.312304E-1	8.047059E-1	8.667854E-1	8.844443E-1	8.086820E-1
2.980040E+2	9.714826E-1	9.979263E-1	1.016918E+0	9.523339E-1	9.528954E-1	9.460908E-1	9.758682E-1	9.221657E-1	9.983153E-1	9.657038E-1	9.780065E-1	9.844539E-1	9.975912E-1	9.937231E-1	9.495273E-1	9.481309E-1	9.985597E-1	9.581859E-1	9.593765E-1	9.892482E-1	1.008328E+0	9.928444E-1	9.975504E-1	1.003666E+0	9.798396E-1	9.985438E-1	9.894720E-1	9.633449E-1	1.016857E+0	9.622906E-1	9.973568E-1	9.692120E-1	9.442551E-1	9.785350E-1	9.625874E-1	9.387018E-1	9.847508E-1	1.000249E+0	9.607608E-1	9.688251E-1	1.006330E+0	9.606705E-1	9.935178E-1	9.708344E-1	1.002699E+0	9.997292E-1	9.740359E-1	9.691553E-1	9.252400E-1	9.526633E-1	9.489690E-1	9.814808E-1	9.094200E-1	9.582572E-1	1.011551E+0	9.874464E-1	1.030298E+0	1.011818E+0	9.797853E-1	9.803192E-1	9.917333E-1	9.537453E-1	9.728008E-1	9.657585E-1	9.874912E-1	9.919032E-1	9.650913E-1	9.749286E-1	9.568515E-1	9.611314E-1	9.645458E-1	1.015277E+0	9.774454E-1	9.789867E-1	9.797696E-1	9.690988E-1	9.765738E-1	9.481948E-1	9.725782E-1	9.659124E-1	9.655407E-1	9.769187E-1	1.004606E+0	9.952606E-1	9.983750E-1	9.562878E-1	9.980455E-1	1.003845E+0	9.498273E-1	1.015104E+0	1.028894E+0	1.017985E+0	9.505734E-1	9.957255E-1	9.943203E-1	1.007030E+0	9.674610E-1	9.785808E-1	9.567396E-1	9.867873E-1	9.965529E-1	9.363475E-1	9.895430E-1	9.739940E-1	9.840986E-1	9.750088E-1	9.478519E-1	1.000935E+0	9.798329E-1	1.006097E+0	9.610514E-1	9.328385E-1	9.853287E-1	9.982786E-1	9.698544E-1	9.702719E-1	9.522801E-1	9.804341E-1	1.000771E+0	1.016586E+0	1.001829E+0	1.009208E+0	9.707092E-1	9.501895E-1	9.402220E-1	9.691896E-1	1.008216E+0	9.681423E-1	9.636602E-1	9.799074E-1	9.278115E-1	9.478352E-1	1.006927E+0	9.832981E-1	1.007370E+0	9.874114E-1	9.772416E-1	1.001311E+0	9.937266E-1	9.640193E-1	9.289941E-1	9.729798E-1	9.827346E-1	9.522419E-1	1.000432E+0	9.797365E-1	9.890035E-1	9.840475E-1	9.263389E-1	9.336661E-1	9.540429E-1	1.022979E+0	9.531814E-1	9.728979E-1	9.928600E-1	9.823489E-1	1.004633E+0	9.990880E-1	9.548326E-1	1.002048E+0	9.548439E-1	9.858821E-1	9.684494E-1	9.115441E-1	9.944280E-1	9.701632E-1	9.491716E-1	9.506994E-1	9.800101E-1	9.775596E-1	9.900745E-1	9.587039E-1
2.985020E+2	1.041134E+0	1.078009E+0	1.124729E+0	1.096536E+0	1.074447E+0	1.103888E+0	1.117117E+0	1.197408E+0	1.108407E+0	1.118258E+0	1.143403E+0	1.118484E+0	1.059007E+0	1.114992E+0	1.150694E+0	1.153435E+0	1.102491E+0	1.118167E+0	1.137050E+0	1.094910E+0	1.099858E+0	1.118119E+0	1.102398E+0	1.129242E+0	1.116863E+0	1.106098E+0	1.147200E+0	1.091545E+0	1.140400E+0	1.148538E+0	1.139799E+0	1.071242E+0	1.130493E+0	1.092718E+0	1.148445E+0	1.163068E+0	1.120292E+0	1.108498E+0	1.140887E+0	1.139113E+0	1.097971E+0	1.140272E+0	1.078828E+0	1.211752E+0	1.112225E+0	1.122875E+0	1.174763E+0	1.110264E+0	1.144935E+0	1.140218E+0	1.104883E+0	1.080574E+0	1.095805E+0	1.088831E+0	1.126971E+0	1.107560E+0	1.094569E+0	1.131846E+0	1.136572E+0	1.159045E+0	1.098599E+0	1.105926E+0	1.161021E+0	1.114504E+0	1.107282E+0	1.121455E+0	1.115949E+0	1.136365E+0	1.127868E+0	1.121723E+0	1.132621E+0	1.085702E+0	1.103537E+0	1.109596E+0	1.076928E+0	1.133740E+0	1.129974E+0	1.127579E+0	1.090410E+0	1.087558E+0	1.119634E+0	1.085988E+0	1.096934E+0	1.135245E+0	1.060289E+0	1.078243E+0	1.130234E+0	1.107119E+0	1.134435E+0	1.096219E+0	1.124754E+0	1.133544E+0	1.106226E+0	1.085578E+0	1.152767E+0	1.111925E+0	1.069020E+0	1.122375E+0	1.140962E+0	1.143436E+0	1.110449E+0	1.092333E+0	1.084513E+0	1.082685E+0	1.174502E+0	1.168173E+0	1.125670E+0	1.129678E+0	1.090542E+0	1.115057E+0	1.136977E+0	1.108028E+0	1.128298E+0	1.085604E+0	1.120782E+0	1.086281E+0	1.123715E+0	1.116200E+0	1.091026E+0	1.143362E+0	1.125119E+0	1.118712E+0	1.096123E+0	1.124853E+0	1.141102E+0	1.112926E+0	1.086110E+0	1.073671E+0	1.128506E+0	1.054608E+0	1.156689E+0	1.075411E+0	1.115422E+0	1.122263E+0	1.099195E+0	1.112420E+0	1.118080E+0	1.138081E+0	1.106640E+0	1.077559E+0	1.080984E+0	1.098725E+0	1.116073E+0	1.101558E+0	1.143752E+0	1.126280E+0	1.090936E+0	1.111655E+0	1.140042E+0	1.121528E+0	1.111857E+0	1.087173E+0	1.168550E+0	1.149088E+0	1.134517E+0	1.088172E+0	1.112145E+0	1.100819E+0	1.144184E+0	1.071807E+0	1.129996E+0	1.110875E+0	1.121598E+0	1.160574E+0	1.091019E+0	1.159908E+0	1.131733E+0	1.144359E+0	1.088294E+0	1.109312E+0	1.112544E+0	1.210804E+0
2.990010E+2	1.126150E+0	1.125555E+0	1.003402E+0	1.128533E+0	1.111020E+0	1.113839E+0	1.112097E+0	1.071369E+0	1.114523E+0	1.088963E+0	1.082732E+0	1.123121E+0	1.130514E+0	1.110221E+0	1.075193E+0	1.075246E+0	1.095169E+0	1.074536E+0	1.104357E+0	1.038489E+0	1.122037E+0	1.070795E+0	1.079750E+0	1.087621E+0	1.063803E+0	1.062822E+0	1.093705E+0	1.121146E+0	1.060950E+0	1.090640E+0	1.105923E+0	1.124071E+0	1.136915E+0	1.096655E+0	1.064666E+0	1.103549E+0	1.102047E+0	1.087482E+0	1.143586E+0	1.099672E+0	1.099746E+0	1.129285E+0	1.104858E+0	1.010195E+0	1.057996E+0	1.096614E+0	1.027885E+0	1.103102E+0	1.079237E+0	1.089133E+0	1.116548E+0	1.063749E+0	1.091778E+0	1.142981E+0	1.052919E+0	1.035165E+0	1.085247E+0	1.120197E+0	1.093351E+0	1.088507E+0	1.137458E+0	1.065901E+0	1.051760E+0	1.139688E+0	1.089660E+0	1.065014E+0	1.088694E+0	1.089994E+0	1.053684E+0	1.086144E+0	1.119264E+0	1.089201E+0	1.100865E+0	1.126402E+0	1.159869E+0	1.108199E+0	1.068199E+0	1.123316E+0	1.126553E+0	1.121778E+0	1.098147E+0	1.078037E+0	1.072578E+0	1.083320E+0	1.131475E+0	1.139301E+0	1.107492E+0	1.099398E+0	1.081203E+0	1.092645E+0	1.059278E+0	1.129949E+0	1.088465E+0	1.064217E+0	1.080794E+0	1.089646E+0	1.146545E+0	1.110645E+0	1.107708E+0	1.126184E+0	1.097341E+0	1.136781E+0	1.098219E+0	1.123751E+0	1.107665E+0	1.083329E+0	1.059167E+0	1.077451E+0	1.091142E+0	1.080928E+0	1.099820E+0	1.137050E+0	1.075929E+0	1.064495E+0	1.099791E+0	1.067478E+0	1.069672E+0	1.111978E+0	1.099345E+0	1.071256E+0	1.066252E+0	1.094198E+0	1.109811E+0	1.049329E+0	1.085150E+0	1.089526E+0	1.121953E+0	1.117417E+0	1.093536E+0	1.109613E+0	1.122081E+0	1.127854E+0	1.091807E+0	1.087243E+0	1.079511E+0	1.083528E+0	1.117941E+0	1.056613E+0	1.076356E+0	1.056096E+0	1.178317E+0	1.093864E+0	1.095448E+0	1.105405E+0	1.091608E+0	1.132653E+0	1.043643E+0	1.067818E+0	1.075779E+0	1.115237E+0	1.110033E+0	1.099632E+0	1.075595E+0	1.047186E+0	1.059785E+0	1.128880E+0	1.046179E+0	1.090360E+0	1.137998E+0	1.146973E+0	1.071247E+0	1.097811E+0	1.079467E+0	1.060847E+0	1.125556E+0	1.019963E+0	1.099828E+0	1.076233E+0	1.104651E+0	1.127689E+0	1.037937E+0	9.638944E-1
2.995040E+2	1.012547E+0	9.895564E-1	9.795069E-1	9.463573E-1	9.623872E-1	9.766303E-1	9.861894E-1	9.827206E-1	9.607188E-1	9.445231E-1	9.824886E-1	9.297212E-1	9.839838E-1	9.588046E-1	9.553603E-1	9.463435E-1	9.662267E-1	9.852224E-1	9.627245E-1	9.570289E-1	9.705767E-1	1.006488E+0	1.000788E+0	9.797009E-1	1.000710E+0	9.784885E-1	9.445837E-1	9.611635E-1	9.388377E-1	9.695283E-1	9.554295E-1	9.533751E-1	9.667170E-1	1.026229E+0	9.600996E-1	9.887926E-1	9.620203E-1	9.532603E-1	9.997558E-1	9.276102E-1	9.740103E-1	9.300142E-1	9.700649E-1	9.932273E-1	9.943438E-1	9.365341E-1	1.009125E+0	9.909292E-1	1.008227E+0	9.491590E-1	9.304377E-1	9.720792E-1	9.892821E-1	9.670839E-1	9.460892E-1	9.972173E-1	9.697683E-1	9.416129E-1	9.752304E-1	9.631228E-1	9.412087E-1	9.836069E-1	9.598761E-1	9.336852E-1	9.642525E-1	9.434741E-1	9.537661E-1	9.396045E-1	1.006890E+0	1.001303E+0	9.781141E-1	9.708743E-1	9.711018E-1	9.838362E-1	9.640745E-1	9.462221E-1	9.623812E-1	9.708995E-1	9.746888E-1	9.853828E-1	9.761778E-1	9.738539E-1	9.833078E-1	9.536928E-1	9.643007E-1	9.670721E-1	9.830533E-1	9.509005E-1	9.798437E-1	9.775404E-1	9.695752E-1	9.415400E-1	1.024262E+0	9.922229E-1	9.696765E-1	9.706380E-1	1.000399E+0	9.445944E-1	9.957611E-1	9.603369E-1	9.911683E-1	9.216973E-1	9.840069E-1	9.650490E-1	9.917220E-1	9.958198E-1	9.881591E-1	9.754017E-1	9.947082E-1	9.593263E-1	1.005771E+0	9.702685E-1	9.894241E-1	1.000870E+0	9.367029E-1	9.998256E-1	9.791276E-1	9.749889E-1	9.566768E-1	9.788247E-1	9.758616E-1	9.678497E-1	9.757618E-1	9.642125E-1	9.336862E-1	9.845012E-1	9.502260E-1	9.518112E-1	9.459381E-1	1.001323E+0	9.484016E-1	1.015317E+0	9.608369E-1	9.483610E-1	9.809775E-1	9.622577E-1	9.925583E-1	9.855493E-1	9.802935E-1	1.029645E+0	9.677167E-1	9.779046E-1	9.879627E-1	1.002884E+0	9.242270E-1	9.126364E-1	9.890942E-1	1.007047E+0	1.004988E+0	9.870200E-1	9.898368E-1	9.548939E-1	9.792841E-1	9.863628E-1	9.380502E-1	9.722072E-1	9.832076E-1	9.728745E-1	9.463502E-1	9.372711E-1	9.996476E-1	9.386273E-1	9.711341E-1	1.006078E+0	9.508568E-1	9.770541E-1	9.544869E-1	9.439398E-1	1.015090E+0	9.435341E-1	9.781462E-1	9.466157E-1
3.000040E+2	1.024922E+0	1.024605E+0	1.014718E+0	1.005973E+0	1.014412E+0	1.026086E+0	1.022507E+0	9.927864E-1	9.890214E-1	1.033584E+0	1.003395E+0	9.974495E-1	1.038877E+0	9.660613E-1	1.040295E+0	1.005018E+0	9.728983E-1	9.949755E-1	1.017582E+0	1.060153E+0	9.873803E-1	9.938788E-1	9.818276E-1	9.986830E-1	9.921213E-1	9.830066E-1	9.770867E-1	1.020192E+0	1.034375E+0	1.018227E+0	1.002958E+0	1.047404E+0	1.005075E+0	9.837043E-1	1.037167E+0	1.013318E+0	9.996428E-1	1.013000E+0	9.571137E-1	1.055116E+0	9.945577E-1	1.055265E+0	1.051884E+0	9.885003E-1	1.006929E+0	1.030606E+0	1.000535E+0	1.008331E+0	1.060290E+0	1.030333E+0	1.062436E+0	1.027762E+0	1.037837E+0	1.043700E+0	1.014833E+0	1.050255E+0	9.908415E-1	1.021029E+0	1.004304E+0	9.832673E-1	1.007535E+0	1.046012E+0	1.059534E+0	1.019986E+0	1.020803E+0	1.027517E+0	1.036311E+0	1.008403E+0	1.020892E+0	9.792576E-1	1.002039E+0	9.898371E-1	1.050090E+0	1.003043E+0	1.018932E+0	1.029706E+0	1.019364E+0	1.022719E+0	1.016281E+0	1.034435E+0	9.940197E-1	1.038943E+0	1.044969E+0	1.010501E+0	1.034137E+0	1.017766E+0	9.727328E-1	9.844983E-1	1.003266E+0	1.005328E+0	1.026464E+0	9.457747E-1	1.025805E+0	9.886895E-1	1.007523E+0	1.011271E+0	1.005187E+0	9.835357E-1	9.983657E-1	9.535792E-1	1.004810E+0	1.065081E+0	1.028336E+0	1.015790E+0	9.406908E-1	9.939905E-1	1.044161E+0	9.734980E-1	9.995582E-1	1.034509E+0	9.728325E-1	1.031175E+0	1.007957E+0	1.000868E+0	1.032998E+0	1.065681E+0	1.019130E+0	1.006879E+0	1.011897E+0	9.756410E-1	9.885098E-1	1.006684E+0	1.026139E+0	1.042098E+0	1.075920E+0	9.805916E-1	9.812107E-1	1.035765E+0	1.015678E+0	1.011115E+0	9.972579E-1	1.007518E+0	1.010733E+0	9.880381E-1	9.975651E-1	1.039130E+0	1.004205E+0	1.028314E+0	9.987802E-1	1.073995E+0	1.021485E+0	1.005326E+0	1.009453E+0	1.014783E+0	1.044339E+0	1.005354E+0	1.029837E+0	1.000764E+0	9.992300E-1	1.024067E+0	1.029427E+0	1.013343E+0	9.914204E-1	1.000862E+0	1.029913E+0	1.000947E+0	1.039985E+0	1.042358E+0	9.764207E-1	1.027347E+0	1.026465E+0	1.008718E+0	9.894358E-1	1.020201E+0	1.012656E+0	9.970746E-1	1.008136E+0	1.053538E+0	1.007248E+0	9.751196E-1	9.968533E-1	1.111301E+0
