Photon Energy (eV)	#1	#2	#3	#4	#5	#6	#7	#8	#9	#10	#11	#12	#13	#14	#15	#16	#17	#18	#19	#20	#21	#22	#23	#24	#25	#26	#27	#28	#29	#30	#31	#32	#33	#34	#35	#36	#37	#38	#39	#40	#41	#42	#43	#44	#45	#46	#47	#48	#49	#50	#51	#52	#53	#54	#55	#56	#57	#58	#59	#60	#61	#62	#63	#64	#65	#66	#67	#68	#69	#70	#71	#72	#73	#74	#75	#76	#77	#78	#79	#80	#81	#82	#83	#84	#85	#86	#87	#88	#89	#90	#91	#92	#93	#94	#95	#96	#97	#98	#99	#100	#101	#102	#103	#104	#105	#106	#107	#108	#109	#110	#111	#112	#113	#114	#115	#116	#117	#118	#119	#120	#121	#122	#123	#124	#125	#126	#127	#128	#129	#130	#131	#132	#133	#134	#135	#136	#137	#138	#139	#140	#141	#142	#143	#144	#145	#146	#147	#148	#149	#150	#151	#152	#153	#154	#155	#156	#157	#158	#159	#160	#161	#162	#163	#164	#165	#166	#167	#168	#169	#170	
5.300270E+2	-4.940135E-3	-1.290727E-2	3.175641E-4	-1.835854E-3	-1.581364E-2	-1.511756E-2	5.921127E-3	-4.794182E-3	-6.678577E-3	-1.060555E-2	-6.475561E-3	-5.221879E-3	-1.567332E-2	-9.116098E-3	-9.437186E-3	-5.816624E-3	-7.408984E-3	-1.582269E-2	-1.055743E-2	-3.344382E-3	-1.023333E-2	-8.432923E-3	-1.154066E-2	-9.950635E-3	-4.550924E-3	-1.739202E-3	-9.379183E-3	-9.952771E-3	-1.216436E-2	-1.015757E-2	-8.640735E-3	-1.505475E-2	-2.031729E-2	-1.217383E-2	-2.709421E-3	-1.698137E-2	-9.351306E-3	-9.013886E-3	-6.185347E-3	-1.427306E-2	-1.141558E-2	-1.146994E-2	-1.609561E-2	-4.517860E-3	-7.733964E-3	-1.331426E-2	-9.697243E-3	-7.979320E-3	-8.163983E-3	-8.891827E-3	-6.829935E-3	-6.959399E-3	-5.619352E-3	-9.628753E-3	-3.087342E-3	-7.971762E-3	-1.054356E-2	-9.230518E-3	-1.262373E-2	-7.484961E-3	-1.530040E-2	3.649604E-4	-1.386648E-2	-2.693662E-3	-7.088220E-3	-1.422604E-2	-1.120409E-2	-5.315144E-3	-1.899765E-3	-1.308905E-2	-1.075444E-2	-6.978173E-3	-2.056158E-2	-3.424032E-3	-3.756984E-3	-1.859866E-2	-5.302800E-3	-1.113404E-2	-9.947749E-3	-5.606913E-3	-5.436721E-3	-1.243960E-2	-9.523427E-3	-9.946079E-3	-1.381940E-2	2.604031E-3	-8.907626E-3	-7.750127E-3	-7.866617E-3	-1.338480E-2	-4.274804E-3	-7.744203E-3	-1.048370E-2	-1.581427E-2	-8.674555E-3	-6.949725E-3	-9.412724E-3	-1.168964E-2	-7.527522E-3	8.694730E-4	-1.140395E-2	2.891279E-3	-1.336872E-2	-5.589785E-3	-1.714343E-2	-9.313261E-3	-1.948908E-2	-4.213382E-3	-1.271324E-2	-1.488099E-2	-1.399143E-2	-5.098658E-3	-1.426483E-2	-9.927911E-3	-5.711432E-3	-7.234844E-3	-7.866194E-3	-6.853074E-3	-1.164753E-2	-1.720865E-2	-7.630197E-3	7.364266E-4	-5.998979E-3	-2.151895E-2	-8.180043E-3	-8.070505E-3	-5.833225E-3	-8.495848E-3	-9.792770E-3	-1.453771E-2	-4.613786E-3	-1.036896E-2	-5.506798E-3	-8.480989E-3	-1.016939E-2	-9.968265E-3	-1.230362E-2	-9.627639E-3	-3.098623E-3	-8.155259E-3	-3.415259E-3	-3.288607E-3	-1.307828E-2	-1.384431E-2	-7.235647E-3	-1.353226E-2	-1.711374E-2	2.995863E-3	-6.989520E-3	-3.915008E-3	-1.354511E-2	-9.334870E-3	-1.680899E-2	-1.288784E-2	-6.025890E-3	-2.958780E-3	-7.425898E-3	-9.121019E-3	-1.058283E-2	-1.303808E-2	-1.023093E-3	-1.096431E-2	-1.082456E-2	-1.326146E-2	-9.116171E-3	-1.024669E-2	-1.085801E-2	-9.495929E-3	-1.770167E-2	-5.492210E-3
5.305230E+2	-1.726272E-3	-1.224648E-2	-8.391167E-3	-7.062016E-3	-6.145098E-3	-6.948706E-3	-6.534320E-3	-8.508556E-3	-9.845177E-3	-8.009303E-3	-1.859921E-3	-1.098265E-2	-2.369757E-3	-1.013289E-2	-1.141137E-2	-1.159556E-2	-6.717712E-3	-3.246706E-3	-1.058188E-3	-9.099221E-3	-1.178967E-3	-1.811367E-2	-1.261894E-2	-2.646160E-3	5.731232E-5	-1.619473E-2	-7.435188E-3	-8.071565E-3	-3.848331E-3	-8.272225E-3	-7.014428E-3	-1.682539E-3	-8.344767E-3	-3.484836E-3	-7.765484E-3	2.102135E-3	-4.522699E-3	-1.062095E-2	-7.897591E-3	-4.739218E-3	-1.509098E-2	-1.544752E-3	-4.570284E-3	-8.362217E-3	-5.449058E-3	-5.508519E-3	-1.389609E-2	-1.358977E-2	-6.853035E-3	-5.142426E-3	-6.744447E-3	-6.270562E-3	-5.538392E-3	-4.500213E-3	-7.228198E-3	-1.270541E-2	1.313357E-3	-8.525391E-3	-1.393836E-2	-9.322744E-3	-4.154019E-3	-8.763509E-3	-6.583627E-3	-3.733978E-3	-1.204135E-2	-1.234935E-2	-8.239681E-3	-1.002213E-2	-5.164940E-3	-6.324242E-3	-6.503598E-3	-9.869236E-3	-5.205914E-4	-1.341751E-2	-9.144213E-3	-7.472072E-3	-6.366953E-3	-5.552037E-3	-4.545072E-3	-7.390164E-3	-1.248545E-3	-8.391687E-3	-5.679154E-3	-5.899517E-4	-7.066337E-3	-6.850835E-3	-9.485462E-3	-1.122015E-3	-7.065567E-3	-2.559797E-3	-4.765385E-4	-2.395893E-3	-2.435805E-3	-4.140520E-3	-7.935287E-3	-2.136926E-2	-7.957536E-3	-8.628475E-3	-9.599726E-3	-7.273371E-3	-1.810498E-3	-1.152010E-2	-4.464564E-3	-1.046956E-2	-1.717986E-3	3.856530E-3	-7.792695E-5	-8.920682E-3	-7.775406E-3	-2.334534E-3	-1.573173E-2	2.672734E-3	-5.836618E-3	-1.930673E-3	-1.766908E-2	-9.292089E-3	-5.872601E-3	-1.507899E-3	-1.419696E-2	-5.717061E-3	-2.209929E-2	-7.151199E-3	-7.895617E-3	-1.552580E-2	-2.035071E-3	-1.209625E-2	-5.752615E-3	-3.941310E-3	-7.016315E-3	-8.625289E-3	1.520695E-3	-6.607261E-3	-4.248609E-3	-3.886464E-3	-1.060225E-2	-9.879930E-3	2.638317E-3	-4.947029E-3	-5.838000E-3	-1.010081E-2	-3.312656E-3	-9.054618E-3	-1.232185E-3	-4.667300E-3	-5.567839E-6	-3.482550E-3	-3.064406E-3	-7.620123E-3	-2.390626E-3	-9.221137E-3	-7.554578E-3	-8.620850E-3	6.899170E-4	-1.098204E-3	4.611088E-3	-1.203766E-2	6.184992E-4	-5.920450E-3	-6.683535E-3	-6.765072E-3	-1.556674E-2	-5.162223E-3	-8.191580E-3	-1.250678E-2	-6.256235E-3	-8.253730E-3	-9.372451E-3	-1.252339E-2	-1.043463E-2	8.902371E-4
5.310100E+2	-1.762341E-3	-7.696389E-4	-4.097047E-3	-9.180661E-3	-1.901479E-3	-6.388498E-3	-1.089402E-2	-1.311108E-2	-6.632634E-3	-1.453582E-2	-5.223428E-3	-1.313853E-2	-1.021423E-2	-5.803838E-3	-5.995900E-4	-7.592326E-3	-1.492811E-2	4.603885E-3	-1.677218E-2	-7.886547E-3	-5.654118E-3	-6.710051E-3	-8.056104E-3	-1.208856E-2	-5.876403E-3	-2.951795E-3	-1.072681E-2	-1.258085E-2	-3.789581E-3	-5.359024E-3	-9.055398E-3	-6.883864E-3	-4.178719E-3	4.587152E-3	-4.031306E-3	6.689852E-4	-3.931322E-3	-4.444695E-3	-6.687674E-3	-4.195283E-3	-6.405809E-3	-1.264784E-2	-2.030109E-3	-1.441540E-2	-8.272247E-3	-8.335344E-3	-5.285776E-3	-1.193566E-2	-6.286272E-3	-2.754157E-3	-9.473890E-3	-3.953453E-3	-1.544750E-2	-1.032239E-3	2.539467E-5	-6.770938E-3	-1.124411E-2	1.438969E-4	-3.200468E-3	6.814248E-3	-7.004071E-3	-8.815670E-3	-4.190925E-3	-1.222835E-2	-8.348349E-3	-1.243673E-2	-8.429333E-3	-4.614063E-3	-1.363045E-2	5.051637E-4	-2.319554E-3	-6.331808E-3	-1.638822E-3	-6.525815E-3	-4.907545E-3	-8.310987E-3	-8.097355E-3	-2.452743E-3	-7.170100E-3	-1.559478E-2	-4.119679E-3	-9.543631E-3	3.232509E-3	-3.317412E-3	1.507842E-3	-9.360929E-3	-1.025248E-2	-5.296195E-3	-1.249170E-3	-6.387280E-3	-2.851296E-3	-9.131913E-3	-1.117552E-2	-2.147958E-3	-1.917158E-3	-8.654536E-3	-9.541855E-3	-5.009193E-3	-1.265256E-2	-1.086027E-2	-5.392729E-3	-9.142149E-3	-6.370028E-3	6.592447E-4	-3.201517E-3	-6.834711E-3	-9.785668E-3	-3.510913E-3	-4.115353E-3	-5.028540E-3	1.220335E-3	-1.638858E-2	-3.801907E-3	-4.159883E-3	-7.049858E-3	5.628840E-4	-9.759512E-3	-5.148815E-3	-3.769333E-3	-4.457217E-3	1.377100E-3	-2.872232E-3	-2.047318E-3	-9.690328E-3	-1.061091E-2	-5.668833E-3	-1.311061E-2	-6.530256E-3	-1.633260E-3	-8.666172E-3	-3.160154E-3	-6.788167E-3	-4.245103E-3	8.593159E-4	-1.143600E-3	-6.843758E-3	4.818072E-4	-7.534850E-3	-5.920138E-3	-6.815141E-3	-8.917359E-3	-8.493634E-3	-4.471910E-3	-2.170487E-3	-4.636897E-3	-1.429399E-2	2.824201E-3	-1.178362E-2	-1.167795E-3	-7.787303E-3	9.066245E-4	1.272782E-3	-1.121306E-2	-1.332662E-3	-8.586165E-3	-5.071466E-3	-3.643670E-3	-7.324373E-3	-9.284866E-3	-8.064187E-3	-7.326853E-3	-7.962419E-3	-1.029777E-3	3.996400E-3	4.551745E-3	-7.024726E-3	-1.005919E-2	-1.064634E-2	2.340102E-3	-1.184104E-2
5.315080E+2	-1.253013E-2	2.327098E-3	-5.586687E-3	-5.833269E-3	-4.962408E-3	-4.024498E-3	-8.021342E-3	-4.101527E-3	5.913101E-3	-4.903459E-3	-1.091494E-3	4.049521E-6	4.927771E-3	-4.136931E-3	3.734043E-3	-1.613716E-3	-5.488661E-3	-6.243195E-3	5.236308E-3	5.968134E-4	2.367066E-3	1.362606E-2	4.776431E-3	2.706884E-3	-7.159834E-3	2.949170E-3	-3.657420E-3	1.914437E-3	-5.476332E-3	-8.906397E-3	7.834463E-3	-5.630671E-3	-5.874171E-3	-6.002980E-3	-5.282329E-3	8.577758E-3	1.030443E-3	-2.121480E-3	1.250191E-3	-5.925851E-3	-3.106181E-3	-9.040568E-3	-1.923779E-3	-4.792377E-4	-7.937532E-4	-4.351283E-3	2.711302E-4	1.380644E-3	-4.979767E-3	1.709771E-3	-1.002065E-2	6.381480E-3	-1.022171E-3	-6.103920E-3	-4.813107E-3	5.812668E-4	-6.090326E-3	2.198503E-3	-9.275956E-3	-3.551124E-3	2.087738E-3	1.757601E-3	1.355381E-3	-1.275647E-2	-7.671241E-3	-3.807589E-3	6.335236E-3	-4.568587E-3	-3.948948E-3	2.263939E-3	-2.880965E-3	-3.878240E-3	5.178614E-3	-7.070315E-3	-5.477641E-3	1.139547E-2	-1.652514E-3	-5.511195E-3	5.319498E-3	4.581269E-3	-4.082400E-3	-3.727434E-3	4.564340E-3	-7.990618E-3	-1.202716E-2	-5.088483E-3	1.567340E-3	2.607343E-3	-7.182953E-3	-3.130500E-3	-5.839903E-3	-4.409084E-3	-1.169477E-3	2.052860E-3	-3.242022E-3	3.155326E-3	-3.152372E-3	-1.587352E-2	-6.840957E-3	-7.346937E-3	-1.724960E-3	-4.191906E-3	8.023617E-5	6.999469E-4	1.797110E-3	-4.981149E-3	-5.164315E-3	-6.939899E-3	4.578587E-3	-3.881146E-3	4.325388E-3	-5.551137E-3	-2.350323E-3	-1.273079E-2	-9.083277E-4	5.620687E-3	-7.131135E-3	-4.568732E-3	7.541147E-3	5.816126E-3	-2.430629E-3	2.151998E-3	-8.659270E-3	4.418881E-3	-1.119373E-2	5.065589E-3	-1.742479E-4	-6.488222E-4	-9.156672E-3	-8.016946E-3	2.225347E-4	-1.049961E-2	-5.977135E-3	-6.736558E-3	8.093765E-4	2.456921E-3	-9.225086E-4	3.285748E-3	1.794617E-3	-3.356422E-3	-2.661889E-3	-3.825152E-3	-3.114839E-3	-5.826930E-3	1.989594E-3	2.191927E-3	-9.027072E-3	5.262454E-3	-5.115526E-3	-6.154099E-4	-4.250110E-3	-7.368655E-3	-3.612728E-3	-1.909934E-3	-3.644717E-3	-2.009331E-2	-6.710958E-3	3.532199E-3	-9.199539E-4	-6.778402E-3	4.334510E-3	-1.116768E-2	6.107166E-3	-1.124519E-2	-4.458459E-3	5.859282E-3	-7.862089E-3	1.609455E-4	-9.001948E-3	-5.515815E-3
5.320020E+2	-3.515224E-3	9.191843E-3	1.242219E-3	-3.140785E-4	3.772508E-3	9.104208E-3	-5.086504E-3	5.240177E-4	-7.147540E-3	1.320565E-2	-4.946003E-3	-3.164923E-3	1.109000E-3	7.574973E-3	-3.936784E-3	4.353475E-3	4.681299E-3	5.283625E-4	3.674247E-3	6.011745E-3	-7.223990E-3	1.012643E-3	-2.046726E-3	-1.150844E-3	2.168948E-4	-2.783611E-3	3.509927E-3	-4.273116E-3	6.421638E-3	-1.570066E-3	-8.261740E-3	-7.313054E-3	1.466618E-3	-1.514290E-3	-5.825780E-3	-2.748199E-3	1.149587E-3	-8.660718E-4	-8.940611E-3	5.566780E-3	-1.141369E-3	9.262283E-3	1.830349E-4	4.952788E-3	1.611079E-3	1.351325E-3	5.406769E-3	-4.273853E-3	-5.497005E-3	-4.420512E-3	3.069484E-3	-4.375458E-3	1.878445E-3	2.971211E-4	2.198532E-4	9.135618E-5	9.247736E-4	-7.787220E-3	4.818611E-4	-2.827785E-3	8.358223E-3	7.748710E-3	-2.168105E-3	5.747269E-3	1.288435E-2	1.375831E-6	2.070635E-3	-9.319167E-3	8.673711E-3	-7.814184E-3	1.123617E-2	4.079942E-3	1.017889E-3	2.680989E-3	-2.274937E-3	1.682689E-3	-9.455324E-4	-1.031864E-3	-7.005200E-3	-4.108663E-3	-4.678541E-3	7.392141E-3	-4.888351E-3	-3.841353E-3	-1.731514E-4	4.724442E-3	3.663870E-3	-2.893835E-4	-5.579095E-3	7.300655E-3	-7.257704E-3	-5.642677E-3	-1.676877E-3	-1.991955E-3	1.126181E-2	6.243464E-3	6.871139E-3	8.544387E-3	7.027920E-3	4.263810E-4	8.093351E-3	4.548019E-3	-6.850992E-3	2.077150E-3	1.213981E-3	-7.276476E-3	-1.097545E-3	9.842217E-3	1.626427E-3	1.085362E-4	7.973053E-4	1.187804E-3	2.029360E-3	1.770026E-3	3.982154E-3	-4.313087E-3	1.053073E-2	-6.941868E-4	-5.607188E-3	-2.056057E-4	5.410197E-3	-5.832511E-3	-2.563345E-3	-2.831698E-3	1.269403E-3	-8.494218E-3	-3.576761E-5	-2.468252E-3	5.909006E-4	1.480118E-2	-1.107506E-2	6.081444E-3	-2.906023E-3	-4.848558E-3	1.580264E-3	-2.974369E-3	6.395832E-3	-2.943997E-3	-8.077218E-3	-4.872798E-4	-2.540582E-3	2.107507E-3	-6.956438E-3	-4.468168E-3	7.941318E-4	1.147887E-3	2.241946E-3	-6.195537E-3	-3.274133E-3	-4.871843E-3	-7.382539E-3	3.315513E-3	4.100333E-3	6.968599E-4	-5.639791E-3	7.276712E-3	-2.244571E-3	-3.131097E-4	7.567871E-3	9.041410E-4	-7.045403E-4	3.849026E-3	-7.326367E-3	9.031904E-3	-1.483574E-3	4.219906E-4	5.042866E-3	-1.598953E-3	-3.187886E-3	6.175219E-3
5.325070E+2	7.329730E-3	1.863087E-3	-6.904601E-3	7.837831E-3	5.013643E-3	2.652387E-3	3.441797E-3	8.257561E-3	1.203002E-2	8.082175E-3	-2.287946E-3	1.000567E-2	5.949853E-4	8.177537E-3	4.425664E-3	4.989730E-3	5.953900E-3	6.004193E-3	4.841570E-3	2.097274E-3	1.111252E-2	3.935700E-3	9.628057E-3	6.947500E-3	-1.094092E-3	-4.669775E-3	7.362159E-3	9.648114E-3	1.962053E-3	1.484005E-3	9.712381E-3	1.456028E-2	1.057788E-2	7.282064E-3	8.534610E-3	1.563679E-3	6.443803E-4	5.986031E-3	1.423577E-3	3.806600E-3	1.615743E-2	1.079961E-3	2.031710E-2	4.301033E-3	3.913349E-3	5.886771E-3	1.065082E-3	7.899501E-3	9.730799E-3	9.298697E-3	1.420263E-2	2.909843E-3	7.455342E-3	-2.540967E-3	1.486511E-3	1.938996E-3	1.592665E-3	9.883373E-3	1.430386E-2	-1.888695E-4	1.096777E-3	1.743102E-4	1.075662E-2	8.075035E-3	3.317186E-3	1.786506E-2	-4.439239E-5	4.591702E-3	2.446991E-3	1.095429E-2	9.210756E-4	5.913959E-3	2.883683E-3	4.020156E-3	6.447589E-3	-1.119882E-3	6.663865E-3	9.581354E-3	5.549252E-3	2.848833E-3	5.814164E-3	9.735498E-3	5.383242E-3	1.373186E-2	6.656333E-3	1.706950E-3	4.996508E-3	3.364624E-4	1.543274E-2	2.352631E-4	1.249899E-2	1.116051E-2	1.146398E-2	4.973324E-3	5.818597E-3	9.216284E-3	1.679983E-2	1.282880E-2	7.038419E-3	2.529899E-3	3.268331E-3	5.801849E-3	9.870152E-3	-2.314417E-3	7.623735E-3	1.152146E-2	5.481293E-3	-3.347614E-3	1.466123E-2	1.791530E-3	5.107444E-3	4.216535E-3	4.166704E-3	-2.241412E-3	1.274135E-3	2.167664E-3	1.452183E-3	7.914522E-3	7.705912E-3	8.706380E-3	6.074234E-3	1.055054E-3	6.109067E-3	1.129864E-2	-1.185405E-3	3.441582E-3	1.046200E-2	6.011679E-3	6.002685E-4	4.389887E-3	1.028261E-3	1.283569E-2	1.487386E-2	4.610950E-3	-3.352524E-4	1.067080E-2	-7.985923E-3	7.889566E-3	4.255454E-3	9.153660E-3	5.961583E-4	5.612643E-3	1.003344E-3	1.160276E-2	6.758849E-3	9.419533E-3	1.502758E-3	6.782345E-3	5.329175E-3	1.205819E-3	-4.119479E-3	3.328491E-3	1.044230E-2	3.801388E-3	2.111841E-3	7.998803E-3	1.144974E-2	-2.008196E-3	1.014971E-2	1.038398E-2	4.493676E-3	6.177010E-4	4.334749E-3	1.042963E-2	-3.236054E-4	7.791668E-3	1.641980E-2	1.049160E-2	2.523486E-3	-1.190076E-3
5.330180E+2	1.714437E-2	1.254137E-2	2.341972E-2	1.638805E-2	2.003647E-2	2.072267E-2	2.117327E-2	2.173377E-2	1.236081E-2	1.676631E-2	2.188435E-2	2.249826E-2	2.162556E-2	1.343725E-2	1.722522E-2	1.727502E-2	2.390827E-2	1.417615E-2	1.463568E-2	1.162432E-2	1.081081E-2	1.468224E-2	1.985795E-2	1.618182E-2	1.840705E-2	2.538994E-2	2.032651E-2	2.331575E-2	1.689491E-2	3.278128E-2	1.542546E-2	2.200459E-2	2.667045E-2	1.130672E-2	1.707971E-2	6.817010E-3	1.498092E-2	2.108105E-2	2.703746E-2	1.976004E-2	2.100249E-2	2.436085E-2	4.119645E-3	1.852089E-2	1.672459E-2	2.427131E-2	2.213613E-2	2.849846E-2	2.204926E-2	1.020045E-2	1.579681E-2	1.226755E-2	1.829363E-2	2.350897E-2	1.339689E-2	2.483649E-2	2.404720E-2	1.331736E-2	2.425280E-2	1.656124E-2	1.491575E-2	7.533597E-3	1.469713E-2	1.759016E-2	1.894763E-2	2.495327E-2	1.951162E-2	2.924739E-2	1.352340E-2	1.350408E-2	1.030132E-2	1.706355E-2	1.364081E-2	2.373653E-2	1.911373E-2	2.242344E-2	1.570129E-2	1.610053E-2	1.779937E-2	2.527042E-2	1.375172E-2	1.697472E-2	6.910840E-3	1.195355E-2	2.492187E-2	1.226482E-2	1.841785E-2	1.151392E-2	1.351067E-2	1.792646E-2	8.201251E-3	1.816326E-2	1.547741E-2	1.706852E-2	4.688613E-3	1.835844E-2	6.393513E-3	1.982764E-2	2.255443E-2	2.165483E-2	8.970459E-3	1.161301E-2	2.110392E-2	1.493742E-2	1.142811E-2	1.302761E-2	3.013324E-2	1.709027E-2	3.737759E-3	2.422515E-2	1.827269E-2	1.896130E-2	2.005761E-2	2.922064E-2	2.608241E-2	1.248879E-2	1.864652E-2	1.085819E-2	1.997396E-2	1.306603E-2	1.929858E-2	1.191246E-2	2.105546E-2	3.384925E-2	3.193575E-2	2.582263E-2	1.444447E-2	1.607281E-2	2.640785E-2	2.065505E-2	1.607751E-2	1.534688E-2	8.009805E-3	1.848230E-2	1.986085E-2	1.653860E-2	1.169610E-2	1.387820E-2	1.688391E-2	1.976125E-2	2.025159E-2	1.694186E-2	2.785031E-2	1.937443E-2	2.335537E-3	1.854945E-2	2.263632E-2	1.055862E-2	1.360842E-2	2.520488E-2	3.594519E-2	1.740759E-2	1.640223E-2	1.273039E-2	1.717363E-2	2.488570E-2	7.956862E-3	2.115495E-2	9.753601E-3	2.335763E-2	1.579304E-2	3.078991E-2	1.693037E-2	1.355549E-2	1.708630E-2	1.145221E-2	1.668908E-2	2.361207E-2	3.546255E-2	1.697368E-2
5.331580E+2	3.910839E-2	1.898864E-2	2.000090E-3	1.536531E-2	2.769950E-2	1.914917E-2	1.893373E-2	1.362834E-2	1.732840E-2	1.966106E-2	2.042550E-2	3.337246E-2	3.371440E-2	2.373017E-2	1.641999E-2	3.066176E-2	1.538970E-2	1.751241E-2	1.566855E-2	2.585104E-2	2.427676E-2	3.185412E-2	2.641937E-2	3.161137E-2	2.406554E-2	1.863310E-2	2.781136E-2	1.677212E-2	2.443508E-2	1.914637E-2	1.842659E-2	2.054861E-2	2.876729E-2	3.300916E-2	3.122274E-2	2.331358E-2	2.444825E-2	1.282931E-2	2.364548E-2	2.030130E-2	2.122988E-2	2.936129E-2	8.446028E-3	2.921250E-2	3.525027E-2	1.663212E-2	1.044765E-2	1.144395E-2	2.232065E-2	2.611258E-2	1.549006E-2	3.070312E-2	2.576430E-2	2.204806E-2	1.212898E-2	2.345415E-2	2.997875E-2	2.061815E-2	2.361241E-2	1.566319E-2	2.983217E-2	1.897843E-2	1.621221E-2	9.262226E-3	1.415442E-2	3.322233E-2	1.250076E-2	3.164129E-2	3.314792E-2	2.116753E-2	2.404643E-2	1.857199E-2	1.579482E-2	1.694247E-2	2.436237E-2	2.560684E-2	3.733621E-3	1.516218E-2	2.021599E-2	1.356446E-2	9.277047E-3	1.145848E-2	2.647150E-2	2.856398E-2	1.901278E-2	2.777986E-2	2.859802E-2	2.336899E-2	2.807891E-2	2.211007E-2	2.310267E-2	1.919891E-2	1.893951E-2	1.050176E-2	2.431993E-2	1.510860E-2	1.534699E-2	2.254688E-2	1.641745E-2	1.992441E-2	2.870324E-2	2.548266E-2	8.556666E-3	2.347589E-2	3.245646E-2	2.848407E-2	1.792831E-2	3.067136E-2	2.333045E-2	2.557084E-2	1.980367E-2	2.948052E-2	1.405113E-2	2.195736E-2	1.824294E-2	2.945099E-2	1.961314E-2	2.509420E-2	2.696133E-2	2.236362E-2	2.606333E-2	3.036933E-2	2.140378E-2	1.800335E-2	4.083303E-2	2.429805E-2	1.722704E-2	1.446068E-2	8.835262E-3	1.542450E-2	3.055530E-2	2.927760E-2	2.610809E-2	1.464036E-2	2.340587E-2	2.552475E-2	2.147935E-2	2.060004E-2	1.653777E-2	2.562572E-2	2.618645E-2	8.516276E-3	3.541658E-2	2.152673E-2	2.921900E-2	2.356188E-2	2.973603E-2	2.189457E-2	1.848278E-2	2.047285E-2	1.277635E-2	2.207750E-2	3.065135E-2	3.285369E-2	1.686043E-2	2.957426E-2	3.630329E-2	5.415144E-3	2.233484E-2	2.368900E-2	2.778983E-2	2.068788E-2	2.566785E-2	1.330543E-2	2.593696E-2	2.912961E-2	3.341747E-2	1.312090E-2	3.994848E-2	4.091931E-2
5.333130E+2	2.974857E-2	2.962646E-2	1.332907E-2	2.840103E-2	3.773849E-2	4.004210E-2	2.167481E-2	2.351627E-2	3.342212E-2	2.500846E-2	3.016134E-2	1.836087E-2	3.339990E-2	3.118971E-2	2.668092E-2	3.385681E-2	1.934009E-2	2.194736E-2	3.665501E-2	3.199831E-2	2.793240E-2	2.684803E-2	2.245054E-2	2.641559E-2	2.095765E-2	1.172774E-2	1.477550E-2	2.839851E-2	3.363574E-2	2.847597E-2	9.556469E-3	3.148186E-2	3.087864E-2	2.506370E-2	4.174760E-2	3.291088E-2	2.251262E-2	3.015347E-2	2.225149E-2	3.383040E-2	2.852566E-2	2.195294E-2	2.543610E-2	2.078069E-2	3.039478E-2	3.099840E-2	3.984317E-2	2.501145E-2	4.287610E-2	3.944773E-2	2.314768E-2	2.611804E-2	3.492581E-2	2.746085E-2	3.181075E-2	2.139275E-2	2.519692E-2	2.595258E-2	3.347189E-2	3.444785E-2	2.669140E-2	2.745402E-2	2.881452E-2	2.395651E-2	3.165577E-2	2.856265E-2	3.534976E-2	2.302148E-2	3.343549E-2	3.112465E-2	2.443453E-2	2.451463E-2	2.223029E-2	2.171505E-2	1.895804E-2	2.755768E-2	3.377633E-2	3.292272E-2	2.963808E-2	2.328328E-2	4.306975E-2	3.199177E-2	2.504047E-2	3.093936E-2	3.290825E-2	3.960180E-2	3.699771E-2	3.111876E-2	1.782293E-2	3.143047E-2	2.397268E-2	2.902268E-2	3.482788E-2	3.092870E-2	3.206509E-2	4.323347E-2	3.471344E-2	2.219494E-2	3.256202E-2	3.204179E-2	2.287942E-2	2.265102E-2	2.292136E-2	4.768523E-2	1.417654E-2	3.906806E-2	1.946349E-2	2.675609E-2	2.728997E-2	2.358357E-2	3.723723E-2	1.887168E-2	3.344111E-2	2.912848E-2	4.437415E-2	3.907946E-2	2.179751E-2	2.748583E-2	2.986615E-2	1.640428E-2	2.631428E-2	3.749582E-2	2.829022E-2	2.833167E-2	3.615956E-2	3.290196E-2	2.733725E-2	2.904536E-2	3.388268E-2	3.533657E-2	2.608166E-2	3.702649E-2	3.524587E-2	2.431927E-2	3.134883E-2	2.514832E-2	2.601915E-2	3.039090E-2	2.370539E-2	3.000418E-2	3.018119E-2	1.978367E-2	3.503965E-2	2.548143E-2	2.812729E-2	1.964718E-2	3.519680E-2	3.719565E-2	2.845848E-2	2.071342E-2	2.928779E-2	2.356026E-2	3.661653E-2	3.933641E-2	2.624689E-2	1.973402E-2	2.971528E-2	2.452062E-2	2.901035E-2	1.885599E-2	3.388910E-2	2.351218E-2	4.603711E-2	2.747952E-2	4.279056E-2	2.545097E-2	3.582106E-2	2.100230E-2	2.798509E-2	3.697364E-2
5.334630E+2	3.666931E-2	4.321654E-2	2.429166E-2	4.062622E-2	3.207960E-2	4.561127E-2	4.533340E-2	3.442729E-2	3.801395E-2	3.981113E-2	3.956009E-2	4.086316E-2	4.069379E-2	4.121596E-2	4.253423E-2	4.100071E-2	3.888701E-2	4.391997E-2	4.327149E-2	3.378429E-2	2.845795E-2	4.503800E-2	3.149025E-2	4.735799E-2	2.662836E-2	3.615129E-2	4.255783E-2	3.199587E-2	4.000117E-2	3.194733E-2	4.779228E-2	3.316890E-2	3.873834E-2	4.009335E-2	5.953161E-2	3.988676E-2	3.451444E-2	3.820081E-2	3.274078E-2	3.679548E-2	3.020792E-2	3.547545E-2	4.412590E-2	3.120667E-2	2.855040E-2	4.061727E-2	3.996489E-2	2.489052E-2	3.512818E-2	2.293056E-2	3.033378E-2	3.569448E-2	3.271750E-2	3.495657E-2	3.907189E-2	4.232210E-2	4.867175E-2	3.273282E-2	3.393432E-2	4.624175E-2	4.485177E-2	4.940586E-2	3.890286E-2	3.032318E-2	3.215085E-2	4.470590E-2	4.214620E-2	3.538959E-2	3.344609E-2	4.269744E-2	4.359029E-2	4.958697E-2	2.517874E-2	4.233834E-2	3.096459E-2	4.517254E-2	3.971465E-2	3.220498E-2	3.899721E-2	3.911067E-2	3.580312E-2	4.377221E-2	2.953588E-2	4.038638E-2	3.343105E-2	5.501536E-2	3.220588E-2	3.614032E-2	3.479965E-2	2.673086E-2	5.051568E-2	4.191580E-2	3.980990E-2	3.632827E-2	4.982562E-2	3.859263E-2	3.732455E-2	3.317000E-2	3.775405E-2	4.209457E-2	3.875140E-2	4.757296E-2	2.635658E-2	5.332093E-2	2.090197E-2	4.539314E-2	2.996235E-2	2.534091E-2	3.724062E-2	3.476496E-2	3.461390E-2	4.133801E-2	2.528100E-2	3.554258E-2	3.609386E-2	4.270677E-2	4.074806E-2	4.280357E-2	5.416378E-2	4.129640E-2	2.813761E-2	6.670497E-2	2.750875E-2	4.001888E-2	4.056497E-2	4.564349E-2	3.994648E-2	4.422063E-2	4.770191E-2	3.159539E-2	4.226354E-2	4.744360E-2	3.826331E-2	5.003325E-2	4.070647E-2	3.071301E-2	3.809342E-2	5.613932E-2	4.105168E-2	4.589818E-2	3.894423E-2	4.089772E-2	2.937399E-2	2.788635E-2	4.200072E-2	3.683394E-2	4.172416E-2	3.431866E-2	3.833456E-2	3.409938E-2	3.576121E-2	4.050859E-2	3.851655E-2	3.687693E-2	3.380238E-2	4.122454E-2	4.162142E-2	3.668094E-2	4.389643E-2	3.400716E-2	5.293142E-2	3.977639E-2	4.024115E-2	3.643299E-2	3.830892E-2	4.071679E-2	5.951996E-2	3.961663E-2	2.913643E-2	2.530782E-2
5.336130E+2	5.071983E-2	5.851428E-2	4.206255E-2	5.896629E-2	4.689933E-2	4.785929E-2	5.925996E-2	6.369495E-2	4.591368E-2	6.697507E-2	4.121201E-2	5.476390E-2	5.636580E-2	4.715123E-2	5.953496E-2	4.687193E-2	5.653733E-2	4.009078E-2	4.146649E-2	3.243323E-2	4.399228E-2	4.956394E-2	4.675908E-2	6.367216E-2	6.272376E-2	4.645886E-2	4.821800E-2	6.517250E-2	5.347337E-2	6.732690E-2	4.451741E-2	4.793020E-2	4.164152E-2	4.507689E-2	5.808053E-2	4.638205E-2	3.984259E-2	5.072498E-2	4.252212E-2	5.682533E-2	4.049739E-2	4.900819E-2	3.461208E-2	4.730402E-2	5.669852E-2	6.095469E-2	6.493943E-2	6.580141E-2	4.338433E-2	4.996748E-2	4.888726E-2	5.879597E-2	5.168250E-2	5.679521E-2	4.836929E-2	5.831388E-2	5.296686E-2	4.418266E-2	4.311814E-2	6.942736E-2	5.039852E-2	4.627463E-2	5.665556E-2	4.767379E-2	3.986387E-2	3.647993E-2	5.750256E-2	4.731154E-2	5.575782E-2	5.401497E-2	5.018939E-2	5.307190E-2	4.257719E-2	4.356499E-2	6.202836E-2	6.291846E-2	5.313451E-2	5.481979E-2	4.102484E-2	5.493292E-2	5.695958E-2	4.477136E-2	4.546631E-2	4.785667E-2	3.527009E-2	5.299466E-2	4.704342E-2	4.159922E-2	5.069680E-2	4.236376E-2	4.350048E-2	5.409553E-2	6.370918E-2	5.386791E-2	4.637061E-2	4.505314E-2	6.305703E-2	5.338090E-2	3.703152E-2	4.839476E-2	6.008067E-2	6.170311E-2	4.322780E-2	5.889975E-2	5.762032E-2	4.094206E-2	5.263680E-2	4.442701E-2	5.405814E-2	4.083782E-2	4.620277E-2	5.154167E-2	4.895371E-2	4.186397E-2	5.666759E-2	5.734016E-2	3.409843E-2	5.079303E-2	5.713671E-2	3.935537E-2	4.636429E-2	4.250182E-2	3.548667E-2	6.469492E-2	4.235578E-2	3.890307E-2	4.848342E-2	5.270340E-2	4.343572E-2	4.210884E-2	5.004796E-2	5.301645E-2	4.838102E-2	6.301190E-2	4.890445E-2	5.368844E-2	3.889494E-2	5.346717E-2	5.155518E-2	3.856369E-2	5.153080E-2	5.258050E-2	5.522487E-2	3.857782E-2	4.396513E-2	4.512356E-2	3.285921E-2	4.987046E-2	5.678545E-2	6.077079E-2	4.622062E-2	3.899927E-2	4.043331E-2	4.876829E-2	4.432100E-2	4.389748E-2	5.037047E-2	5.107407E-2	6.165228E-2	5.012458E-2	3.446339E-2	3.974850E-2	4.727553E-2	5.485543E-2	4.049809E-2	6.425457E-2	5.119257E-2	5.127900E-2	4.087494E-2	3.969113E-2
5.337630E+2	5.793114E-2	9.028057E-2	6.485598E-2	6.935942E-2	8.237758E-2	5.691035E-2	6.329702E-2	7.828650E-2	6.275430E-2	7.687532E-2	6.703776E-2	5.898214E-2	6.109079E-2	7.590454E-2	5.722863E-2	6.095464E-2	6.241126E-2	7.700163E-2	6.958809E-2	7.834463E-2	8.294804E-2	7.211407E-2	7.569668E-2	5.307555E-2	6.630128E-2	7.020004E-2	7.169358E-2	6.619161E-2	5.806425E-2	4.499948E-2	6.654592E-2	5.495803E-2	6.136800E-2	6.555407E-2	7.782970E-2	6.478905E-2	7.617604E-2	7.111254E-2	6.481430E-2	6.991569E-2	6.908224E-2	7.963796E-2	7.339828E-2	6.250305E-2	7.421049E-2	6.696092E-2	5.132086E-2	6.552824E-2	6.917152E-2	7.219201E-2	6.908022E-2	7.193072E-2	6.652122E-2	6.630292E-2	6.637703E-2	6.970469E-2	6.351144E-2	6.164087E-2	8.070785E-2	7.633802E-2	7.747291E-2	5.898067E-2	6.165732E-2	7.587840E-2	5.555481E-2	6.529091E-2	6.126936E-2	9.184499E-2	6.924796E-2	6.691971E-2	5.887520E-2	7.902080E-2	6.460152E-2	6.535413E-2	6.286383E-2	8.169814E-2	5.336373E-2	6.891328E-2	6.360536E-2	8.325027E-2	6.281054E-2	7.310441E-2	4.814589E-2	7.815662E-2	6.927735E-2	8.453559E-2	7.412456E-2	7.569588E-2	5.911668E-2	7.530712E-2	6.868183E-2	7.559376E-2	7.623374E-2	7.102402E-2	5.384565E-2	6.800176E-2	6.684412E-2	7.639351E-2	5.790010E-2	6.413969E-2	6.585834E-2	6.195539E-2	5.865755E-2	7.704795E-2	7.579218E-2	6.017532E-2	7.812851E-2	6.788826E-2	7.433370E-2	7.183717E-2	7.713462E-2	6.270594E-2	5.415534E-2	6.307953E-2	7.952562E-2	6.630896E-2	6.517134E-2	7.551020E-2	8.397050E-2	6.734755E-2	6.285554E-2	6.733515E-2	8.220578E-2	5.056775E-2	7.005792E-2	7.350740E-2	5.958679E-2	8.391152E-2	5.963795E-2	6.715915E-2	6.737169E-2	7.675287E-2	7.796239E-2	9.135475E-2	7.290069E-2	7.406336E-2	8.126018E-2	7.428937E-2	5.453834E-2	7.086812E-2	7.070017E-2	6.574759E-2	7.889858E-2	7.195189E-2	6.488244E-2	5.607420E-2	6.616191E-2	5.838520E-2	7.093346E-2	4.875382E-2	7.460118E-2	8.349592E-2	6.686154E-2	7.653110E-2	9.049242E-2	7.038216E-2	6.693482E-2	7.040966E-2	7.808551E-2	7.850779E-2	7.200739E-2	6.878512E-2	6.892687E-2	7.000808E-2	7.545775E-2	6.855833E-2	7.178983E-2	6.141375E-2	7.487026E-2	7.081630E-2
5.339140E+2	1.042225E-1	1.027327E-1	9.750245E-2	8.611644E-2	1.110157E-1	1.054740E-1	8.904920E-2	1.022667E-1	1.023212E-1	1.068254E-1	1.023245E-1	9.319174E-2	9.965540E-2	9.544683E-2	8.720345E-2	1.068538E-1	9.998428E-2	9.359076E-2	8.634009E-2	7.769624E-2	1.102123E-1	1.021144E-1	9.806454E-2	1.113682E-1	1.244937E-1	1.014433E-1	9.498217E-2	9.117920E-2	1.092156E-1	9.647976E-2	1.037972E-1	9.810782E-2	9.742318E-2	8.459402E-2	1.144745E-1	1.004079E-1	1.063222E-1	1.177998E-1	9.628630E-2	9.812389E-2	9.865781E-2	1.166157E-1	8.038499E-2	9.970512E-2	9.144009E-2	9.772544E-2	1.038434E-1	9.497127E-2	1.049589E-1	1.073896E-1	1.136928E-1	1.094279E-1	1.103782E-1	1.010651E-1	9.586776E-2	1.107204E-1	1.011496E-1	9.480759E-2	1.006510E-1	7.574805E-2	1.036442E-1	8.279117E-2	9.271144E-2	8.992490E-2	8.141721E-2	1.107438E-1	8.718866E-2	9.256710E-2	1.009579E-1	1.014814E-1	9.895373E-2	1.073309E-1	1.014089E-1	1.084106E-1	1.016074E-1	1.054458E-1	9.944600E-2	1.067848E-1	1.111289E-1	1.082748E-1	1.136137E-1	8.895367E-2	8.880251E-2	9.801305E-2	9.624964E-2	1.146643E-1	1.040101E-1	1.164844E-1	1.062188E-1	9.238154E-2	1.081174E-1	1.050823E-1	1.068318E-1	1.258874E-1	8.636585E-2	1.178105E-1	1.097644E-1	1.269246E-1	8.459848E-2	9.956607E-2	1.088219E-1	8.380166E-2	8.793579E-2	1.084043E-1	1.174655E-1	9.763794E-2	9.665021E-2	8.834486E-2	9.944241E-2	8.982122E-2	9.131158E-2	9.257836E-2	1.000043E-1	9.871240E-2	6.597455E-2	1.209993E-1	1.019991E-1	9.079400E-2	1.027472E-1	1.223034E-1	1.097519E-1	1.014959E-1	9.373756E-2	9.225076E-2	1.101232E-1	1.049364E-1	9.170037E-2	1.089957E-1	9.167347E-2	1.025998E-1	1.003558E-1	1.010648E-1	8.638881E-2	9.858390E-2	8.919175E-2	1.030629E-1	9.726125E-2	1.071719E-1	9.828392E-2	8.903482E-2	9.789182E-2	8.461361E-2	8.803117E-2	1.007742E-1	9.367529E-2	9.311347E-2	9.793354E-2	9.653912E-2	9.650973E-2	8.728816E-2	9.342613E-2	1.202395E-1	1.098243E-1	9.157938E-2	1.032845E-1	1.017735E-1	9.842807E-2	1.115533E-1	9.804024E-2	9.837459E-2	1.067574E-1	1.075002E-1	8.586696E-2	9.683786E-2	1.182956E-1	1.056642E-1	1.170862E-1	1.079930E-1	1.160906E-1	1.081614E-1
5.340590E+2	1.477782E-1	1.531373E-1	1.225934E-1	1.616215E-1	1.593511E-1	1.584672E-1	1.535900E-1	1.538395E-1	1.751582E-1	1.629210E-1	1.570492E-1	1.577212E-1	1.619737E-1	1.518868E-1	1.611532E-1	1.679548E-1	1.423502E-1	1.497660E-1	1.602522E-1	1.877576E-1	1.374117E-1	1.698782E-1	1.317497E-1	1.484715E-1	1.475835E-1	1.521504E-1	1.557493E-1	1.502884E-1	1.479445E-1	1.600937E-1	1.532140E-1	1.270378E-1	1.420378E-1	1.551513E-1	1.640954E-1	1.548154E-1	1.554569E-1	1.479091E-1	1.620511E-1	1.535622E-1	1.775139E-1	1.680833E-1	1.517726E-1	1.284783E-1	1.490151E-1	1.730863E-1	1.562584E-1	1.622997E-1	1.557079E-1	1.465095E-1	1.520198E-1	1.513409E-1	1.599644E-1	1.498522E-1	1.576860E-1	1.574337E-1	1.654164E-1	1.646534E-1	1.568770E-1	1.572157E-1	1.587833E-1	1.682509E-1	1.424209E-1	1.524665E-1	1.636681E-1	1.551192E-1	1.595568E-1	1.610377E-1	1.512457E-1	1.390805E-1	1.605818E-1	1.418702E-1	1.458792E-1	1.479395E-1	1.324383E-1	1.764528E-1	1.474872E-1	1.524246E-1	1.598401E-1	1.519400E-1	1.633075E-1	1.454056E-1	1.677817E-1	1.475478E-1	1.522285E-1	1.584733E-1	1.567423E-1	1.574218E-1	1.651300E-1	1.484000E-1	1.547313E-1	1.668769E-1	1.457677E-1	1.493828E-1	1.443860E-1	1.558109E-1	1.465841E-1	1.493114E-1	1.562436E-1	1.473018E-1	1.728063E-1	1.469793E-1	1.402121E-1	1.521489E-1	1.515512E-1	1.647489E-1	1.474244E-1	1.570654E-1	1.523745E-1	1.628489E-1	1.493389E-1	1.336498E-1	1.547493E-1	1.572801E-1	1.535331E-1	1.723236E-1	1.627162E-1	1.546269E-1	1.682119E-1	1.546129E-1	1.582494E-1	1.447336E-1	1.725653E-1	1.445189E-1	1.716544E-1	1.733755E-1	1.784624E-1	1.732132E-1	1.727398E-1	1.593606E-1	1.386815E-1	1.432284E-1	1.657527E-1	1.639735E-1	1.648485E-1	1.587557E-1	1.579785E-1	1.725154E-1	1.575954E-1	1.668855E-1	1.790206E-1	1.495955E-1	1.579842E-1	1.529953E-1	1.697183E-1	1.661703E-1	1.548638E-1	1.447124E-1	1.643179E-1	1.577907E-1	1.465049E-1	1.382396E-1	1.507739E-1	1.806907E-1	1.533732E-1	1.692729E-1	1.604124E-1	1.528892E-1	1.556141E-1	1.761020E-1	1.634748E-1	1.465016E-1	1.588115E-1	1.656393E-1	2.002876E-1	1.645980E-1	1.539097E-1	1.406272E-1	1.604673E-1	1.696005E-1
5.342090E+2	2.487617E-1	2.556970E-1	2.425726E-1	2.467014E-1	2.535210E-1	2.493615E-1	2.477667E-1	2.475808E-1	2.594648E-1	2.668977E-1	2.404448E-1	2.590360E-1	2.469308E-1	2.522814E-1	2.578886E-1	2.329904E-1	2.775216E-1	2.590248E-1	2.762818E-1	2.474847E-1	2.368695E-1	2.597160E-1	2.454834E-1	2.705931E-1	2.607376E-1	2.586111E-1	2.650753E-1	2.643577E-1	2.795290E-1	2.157121E-1	2.583520E-1	2.319966E-1	2.542033E-1	2.481456E-1	2.488008E-1	2.430713E-1	2.600431E-1	2.422765E-1	2.398100E-1	2.530944E-1	2.621287E-1	2.405822E-1	2.457636E-1	2.652319E-1	2.597530E-1	2.505811E-1	2.490649E-1	2.356159E-1	2.661539E-1	2.581808E-1	2.352560E-1	2.467727E-1	2.445044E-1	2.389458E-1	2.582481E-1	2.615625E-1	2.504695E-1	2.539857E-1	2.598862E-1	2.556523E-1	2.300631E-1	2.601924E-1	2.604987E-1	2.720853E-1	2.546706E-1	2.607010E-1	2.484240E-1	2.603719E-1	2.709198E-1	2.512451E-1	2.452441E-1	2.683725E-1	2.645837E-1	2.709176E-1	2.591044E-1	2.287720E-1	2.491798E-1	2.520483E-1	2.701982E-1	2.714181E-1	2.425297E-1	2.442704E-1	2.391545E-1	2.750819E-1	2.663421E-1	2.529963E-1	2.438841E-1	2.490240E-1	2.884130E-1	2.716905E-1	2.391088E-1	2.520591E-1	2.810664E-1	2.631401E-1	2.464843E-1	2.616125E-1	2.730609E-1	2.471117E-1	2.641696E-1	2.645178E-1	2.392674E-1	2.609329E-1	2.442651E-1	2.683392E-1	2.568109E-1	2.635142E-1	2.471879E-1	2.689187E-1	2.565683E-1	2.513023E-1	2.671904E-1	2.516985E-1	2.291521E-1	2.365881E-1	2.348939E-1	2.476528E-1	2.789713E-1	2.459615E-1	2.659944E-1	2.655864E-1	2.639616E-1	2.608208E-1	2.523088E-1	2.269620E-1	2.512114E-1	2.572326E-1	2.486456E-1	2.401324E-1	2.591347E-1	2.431502E-1	2.507311E-1	2.690294E-1	2.538136E-1	2.601035E-1	2.448486E-1	2.379853E-1	2.371326E-1	2.310476E-1	2.407565E-1	2.554200E-1	2.636352E-1	2.736741E-1	2.386654E-1	2.424341E-1	2.560073E-1	2.467039E-1	2.589627E-1	2.894188E-1	2.502381E-1	2.213629E-1	2.473867E-1	2.463351E-1	2.423871E-1	2.570094E-1	2.643900E-1	2.888422E-1	2.490964E-1	2.298694E-1	2.589161E-1	2.854363E-1	2.526011E-1	2.054571E-1	2.727206E-1	2.572311E-1	2.699063E-1	2.799746E-1	2.669418E-1	2.529939E-1	2.488035E-1	2.590380E-1
5.343600E+2	4.459544E-1	4.348251E-1	4.581374E-1	4.630078E-1	4.669468E-1	4.620950E-1	4.236924E-1	4.552498E-1	4.960909E-1	4.634109E-1	4.500686E-1	4.493482E-1	4.918841E-1	4.831662E-1	4.662011E-1	4.606259E-1	4.790450E-1	4.393855E-1	4.354391E-1	4.551654E-1	4.625852E-1	4.662586E-1	4.338562E-1	4.460155E-1	4.730284E-1	4.630071E-1	4.613871E-1	4.506221E-1	4.461167E-1	4.402788E-1	4.585081E-1	4.669436E-1	4.736933E-1	4.373650E-1	4.398075E-1	4.818028E-1	4.552884E-1	4.659068E-1	4.403139E-1	4.343056E-1	4.504111E-1	4.481526E-1	4.602902E-1	4.562888E-1	4.377036E-1	4.378755E-1	4.874012E-1	4.208730E-1	4.418955E-1	4.201049E-1	4.814076E-1	4.530334E-1	4.783670E-1	4.180358E-1	4.294628E-1	4.464583E-1	4.679840E-1	4.883243E-1	4.200554E-1	4.570094E-1	4.445160E-1	4.688004E-1	4.560522E-1	4.165891E-1	4.430710E-1	4.436502E-1	4.627477E-1	4.486820E-1	4.241024E-1	4.771835E-1	4.609818E-1	4.520495E-1	4.717025E-1	4.630030E-1	4.470051E-1	4.975267E-1	4.560883E-1	4.609556E-1	4.535376E-1	4.845803E-1	4.472084E-1	4.491491E-1	4.971365E-1	4.530984E-1	4.546117E-1	4.856724E-1	4.719881E-1	4.497559E-1	4.792168E-1	4.659400E-1	4.705421E-1	4.500131E-1	4.693034E-1	4.978218E-1	4.566320E-1	4.286324E-1	4.727385E-1	4.567044E-1	4.641156E-1	4.647480E-1	4.684823E-1	4.480647E-1	4.537018E-1	4.249273E-1	4.462230E-1	4.604029E-1	4.434594E-1	4.582149E-1	4.579403E-1	4.491776E-1	4.692501E-1	4.335067E-1	4.632889E-1	4.824156E-1	4.591318E-1	4.507086E-1	4.609213E-1	4.421032E-1	4.537588E-1	5.055425E-1	4.576224E-1	4.537209E-1	4.542223E-1	5.001251E-1	4.826644E-1	4.569840E-1	4.422198E-1	4.437852E-1	4.731340E-1	4.457488E-1	4.293324E-1	4.483952E-1	4.398835E-1	4.349179E-1	4.995519E-1	4.269699E-1	4.828576E-1	4.358825E-1	4.817671E-1	4.774884E-1	4.817507E-1	4.568958E-1	4.498871E-1	4.376187E-1	4.770448E-1	4.559858E-1	4.398543E-1	4.538332E-1	4.353725E-1	4.656918E-1	4.594857E-1	4.454532E-1	4.521363E-1	4.439140E-1	4.596318E-1	4.711028E-1	4.703688E-1	4.740112E-1	5.128745E-1	4.851810E-1	4.905770E-1	4.828664E-1	4.831755E-1	4.623900E-1	4.796965E-1	4.611506E-1	4.957788E-1	4.529278E-1	4.574507E-1	4.405775E-1
5.345110E+2	7.490956E-1	7.623503E-1	7.777158E-1	7.990716E-1	7.886531E-1	7.640485E-1	7.757108E-1	7.634816E-1	7.568581E-1	7.731102E-1	7.723102E-1	7.789476E-1	7.615215E-1	7.847686E-1	8.101806E-1	7.441863E-1	7.512313E-1	7.511655E-1	7.859287E-1	8.224464E-1	7.625627E-1	7.958083E-1	7.786858E-1	7.954823E-1	7.914928E-1	7.692922E-1	7.209369E-1	7.673360E-1	7.944543E-1	7.579315E-1	7.591905E-1	8.004886E-1	8.054551E-1	7.454709E-1	7.348435E-1	8.251681E-1	7.839292E-1	8.077381E-1	7.874435E-1	7.749595E-1	7.804345E-1	7.687289E-1	7.904869E-1	7.751377E-1	7.874579E-1	7.458120E-1	7.792084E-1	7.352152E-1	7.689323E-1	7.627064E-1	7.250784E-1	8.061144E-1	7.792510E-1	7.772878E-1	7.773954E-1	7.593070E-1	7.630417E-1	7.508527E-1	8.232108E-1	7.579359E-1	7.400346E-1	7.588324E-1	7.235476E-1	7.789320E-1	7.729671E-1	7.677556E-1	7.703939E-1	8.038867E-1	8.330407E-1	8.333985E-1	7.758549E-1	7.479924E-1	7.880436E-1	7.949004E-1	7.754527E-1	8.222563E-1	7.586923E-1	7.608172E-1	7.389727E-1	7.544333E-1	7.732937E-1	7.782565E-1	7.737636E-1	7.574890E-1	7.660585E-1	7.821795E-1	7.602677E-1	7.666605E-1	7.960636E-1	7.878658E-1	8.097649E-1	7.594310E-1	7.636068E-1	7.763054E-1	8.015291E-1	7.721123E-1	8.023405E-1	7.819247E-1	7.351258E-1	7.705434E-1	8.012001E-1	7.879235E-1	7.811564E-1	7.465547E-1	7.900720E-1	8.001935E-1	7.833536E-1	7.425416E-1	7.507661E-1	8.060131E-1	7.864330E-1	7.198368E-1	8.119856E-1	7.570383E-1	7.774972E-1	8.120969E-1	7.702471E-1	7.616852E-1	8.016577E-1	7.787658E-1	7.912041E-1	7.451682E-1	8.012971E-1	7.664489E-1	7.679070E-1	7.746978E-1	7.816804E-1	7.853709E-1	7.565930E-1	7.875743E-1	7.819242E-1	7.942794E-1	7.732449E-1	7.869330E-1	7.368451E-1	7.868436E-1	8.136106E-1	7.707848E-1	8.004607E-1	7.537281E-1	7.756767E-1	7.744517E-1	7.925308E-1	7.686179E-1	7.972112E-1	7.076993E-1	7.997535E-1	7.696733E-1	7.942611E-1	7.448618E-1	7.644070E-1	7.668148E-1	7.501430E-1	7.645829E-1	7.822969E-1	7.668549E-1	7.762732E-1	7.196515E-1	7.613840E-1	7.890265E-1	8.198212E-1	7.970463E-1	7.982548E-1	7.937442E-1	7.570480E-1	7.409586E-1	7.686897E-1	8.045453E-1	8.071802E-1	7.307448E-1
5.346620E+2	1.128556E+0	1.113019E+0	1.115077E+0	1.066679E+0	1.142780E+0	1.121165E+0	1.085210E+0	1.148110E+0	1.175279E+0	1.237523E+0	1.207359E+0	1.141546E+0	1.114345E+0	1.121482E+0	1.119294E+0	1.120041E+0	1.131921E+0	1.103072E+0	1.119889E+0	1.105345E+0	1.150557E+0	1.121666E+0	1.158689E+0	1.176636E+0	1.138039E+0	1.150382E+0	1.164638E+0	1.087883E+0	1.132783E+0	1.134707E+0	1.123792E+0	1.091161E+0	1.175734E+0	1.114613E+0	1.197579E+0	1.171534E+0	1.125492E+0	1.167735E+0	1.083118E+0	1.174861E+0	1.184578E+0	1.162619E+0	1.140081E+0	1.079506E+0	1.097010E+0	1.150456E+0	1.151599E+0	1.097382E+0	1.157276E+0	1.180998E+0	1.165073E+0	1.125327E+0	1.125976E+0	1.171995E+0	1.184695E+0	1.097710E+0	1.157366E+0	1.112198E+0	1.115008E+0	1.151993E+0	1.142224E+0	1.125765E+0	1.136878E+0	1.108252E+0	1.116564E+0	1.143574E+0	1.138413E+0	1.144989E+0	1.147084E+0	1.109736E+0	1.119268E+0	1.096797E+0	1.128414E+0	1.149326E+0	1.148077E+0	1.125955E+0	1.139090E+0	1.179747E+0	1.101062E+0	1.151174E+0	1.117416E+0	1.143313E+0	1.122164E+0	1.126146E+0	1.110713E+0	1.143436E+0	1.145684E+0	1.055311E+0	1.153649E+0	1.156489E+0	1.154696E+0	1.112759E+0	1.138632E+0	1.098378E+0	1.135240E+0	1.153394E+0	1.143024E+0	1.154864E+0	1.163854E+0	1.106583E+0	1.122917E+0	1.125018E+0	1.165322E+0	1.085479E+0	1.138501E+0	1.170278E+0	1.101746E+0	1.098658E+0	1.157169E+0	1.088976E+0	1.187600E+0	1.086477E+0	1.140748E+0	1.127308E+0	1.218746E+0	1.125525E+0	1.123352E+0	1.142657E+0	1.142852E+0	1.165899E+0	1.153375E+0	1.114897E+0	1.132916E+0	1.079617E+0	1.149659E+0	1.151676E+0	1.151775E+0	1.170093E+0	1.130293E+0	1.146868E+0	1.108023E+0	1.162088E+0	1.122959E+0	1.148115E+0	1.067501E+0	1.134144E+0	1.138881E+0	1.130337E+0	1.125215E+0	1.117630E+0	1.139493E+0	1.102640E+0	1.113728E+0	1.110144E+0	1.098033E+0	1.134668E+0	1.153921E+0	1.125379E+0	1.139386E+0	1.160382E+0	1.124044E+0	1.117833E+0	1.094810E+0	1.114344E+0	1.126033E+0	1.120395E+0	1.176188E+0	1.087768E+0	1.102957E+0	1.168213E+0	1.169394E+0	1.122284E+0	1.193800E+0	1.102821E+0	1.093902E+0	1.165089E+0	1.149892E+0	1.097453E+0	1.138964E+0	1.143599E+0
5.348120E+2	1.506575E+0	1.464102E+0	1.473991E+0	1.487392E+0	1.493407E+0	1.500984E+0	1.490097E+0	1.521480E+0	1.455728E+0	1.489129E+0	1.462697E+0	1.493984E+0	1.487419E+0	1.471189E+0	1.481470E+0	1.427169E+0	1.426592E+0	1.546924E+0	1.457222E+0	1.424712E+0	1.505833E+0	1.511111E+0	1.464039E+0	1.541863E+0	1.516572E+0	1.517289E+0	1.448201E+0	1.450050E+0	1.493879E+0	1.513504E+0	1.432002E+0	1.439536E+0	1.502843E+0	1.485003E+0	1.449110E+0	1.526680E+0	1.468927E+0	1.450686E+0	1.519694E+0	1.435861E+0	1.507642E+0	1.445234E+0	1.458584E+0	1.516082E+0	1.488911E+0	1.447780E+0	1.442234E+0	1.489606E+0	1.463167E+0	1.500024E+0	1.419932E+0	1.479473E+0	1.489238E+0	1.458811E+0	1.465794E+0	1.464927E+0	1.481544E+0	1.499483E+0	1.402952E+0	1.473001E+0	1.474317E+0	1.437330E+0	1.451492E+0	1.500988E+0	1.433730E+0	1.509848E+0	1.531614E+0	1.483777E+0	1.472822E+0	1.521132E+0	1.424094E+0	1.463030E+0	1.495402E+0	1.423160E+0	1.485882E+0	1.471160E+0	1.466392E+0	1.530754E+0	1.413095E+0	1.523899E+0	1.445754E+0	1.463832E+0	1.439500E+0	1.576820E+0	1.498985E+0	1.399929E+0	1.493046E+0	1.452174E+0	1.460875E+0	1.437496E+0	1.451782E+0	1.431233E+0	1.542792E+0	1.421401E+0	1.448330E+0	1.420823E+0	1.467190E+0	1.467551E+0	1.425604E+0	1.479787E+0	1.389772E+0	1.490282E+0	1.433146E+0	1.444692E+0	1.453625E+0	1.482885E+0	1.489419E+0	1.485228E+0	1.486875E+0	1.448548E+0	1.495094E+0	1.473992E+0	1.570026E+0	1.469951E+0	1.469256E+0	1.444427E+0	1.516583E+0	1.441330E+0	1.466721E+0	1.450381E+0	1.495284E+0	1.416182E+0	1.403963E+0	1.427833E+0	1.455130E+0	1.416730E+0	1.507946E+0	1.418769E+0	1.519085E+0	1.428156E+0	1.349286E+0	1.471871E+0	1.532819E+0	1.500494E+0	1.444854E+0	1.486640E+0	1.538241E+0	1.397978E+0	1.482470E+0	1.445905E+0	1.451799E+0	1.482357E+0	1.451172E+0	1.399515E+0	1.501902E+0	1.418003E+0	1.431526E+0	1.471538E+0	1.464683E+0	1.416623E+0	1.449170E+0	1.377707E+0	1.506463E+0	1.417577E+0	1.467857E+0	1.436644E+0	1.420033E+0	1.502318E+0	1.454790E+0	1.436243E+0	1.440720E+0	1.426348E+0	1.478452E+0	1.442160E+0	1.411199E+0	1.396725E+0	1.420417E+0	1.411388E+0	1.426734E+0	1.430716E+0
5.349580E+2	1.751420E+0	1.726238E+0	1.686835E+0	1.722007E+0	1.845256E+0	1.758400E+0	1.746496E+0	1.740635E+0	1.787565E+0	1.900340E+0	1.771930E+0	1.813654E+0	1.738291E+0	1.795860E+0	1.719307E+0	1.782990E+0	1.744477E+0	1.761459E+0	1.733467E+0	1.788883E+0	1.765554E+0	1.731753E+0	1.756586E+0	1.830195E+0	1.795788E+0	1.768355E+0	1.821238E+0	1.742198E+0	1.742644E+0	1.762915E+0	1.724552E+0	1.794007E+0	1.788088E+0	1.701396E+0	1.744161E+0	1.826451E+0	1.743206E+0	1.742251E+0	1.723935E+0	1.806490E+0	1.771007E+0	1.730750E+0	1.811527E+0	1.832956E+0	1.740151E+0	1.809589E+0	1.799877E+0	1.694780E+0	1.737833E+0	1.777655E+0	1.807682E+0	1.685841E+0	1.719006E+0	1.738345E+0	1.769846E+0	1.735673E+0	1.824226E+0	1.736116E+0	1.763156E+0	1.712306E+0	1.734464E+0	1.693371E+0	1.743952E+0	1.706316E+0	1.683277E+0	1.752195E+0	1.753581E+0	1.688717E+0	1.731432E+0	1.774525E+0	1.710888E+0	1.800552E+0	1.725713E+0	1.821129E+0	1.751382E+0	1.696582E+0	1.681259E+0	1.748106E+0	1.750231E+0	1.710687E+0	1.736682E+0	1.741770E+0	1.722109E+0	1.711734E+0	1.763253E+0	1.737183E+0	1.726633E+0	1.714140E+0	1.781717E+0	1.764490E+0	1.787998E+0	1.748790E+0	1.803025E+0	1.749259E+0	1.763579E+0	1.718644E+0	1.754143E+0	1.735127E+0	1.711737E+0	1.737117E+0	1.757832E+0	1.748750E+0	1.749792E+0	1.688247E+0	1.770368E+0	1.712541E+0	1.765380E+0	1.746487E+0	1.723441E+0	1.706346E+0	1.744568E+0	1.701971E+0	1.845362E+0	1.687912E+0	1.764652E+0	1.724648E+0	1.689252E+0	1.703641E+0	1.790421E+0	1.774204E+0	1.739791E+0	1.747026E+0	1.752453E+0	1.776895E+0	1.714640E+0	1.725350E+0	1.706643E+0	1.686380E+0	1.748247E+0	1.738316E+0	1.704142E+0	1.742449E+0	1.717448E+0	1.693096E+0	1.707693E+0	1.728616E+0	1.801483E+0	1.684924E+0	1.733172E+0	1.700795E+0	1.761205E+0	1.699000E+0	1.813560E+0	1.696727E+0	1.773944E+0	1.668357E+0	1.708762E+0	1.650834E+0	1.703868E+0	1.715265E+0	1.733635E+0	1.675564E+0	1.687194E+0	1.692744E+0	1.740437E+0	1.720776E+0	1.732608E+0	1.634515E+0	1.728181E+0	1.684173E+0	1.696963E+0	1.674656E+0	1.733929E+0	1.659757E+0	1.709625E+0	1.666383E+0	1.673925E+0	1.698605E+0	1.680723E+0	1.671461E+0
5.351040E+2	1.951763E+0	1.894717E+0	1.938726E+0	1.918930E+0	2.024432E+0	1.934604E+0	1.902693E+0	1.967485E+0	1.918033E+0	2.003127E+0	2.005423E+0	1.950243E+0	1.898569E+0	1.868598E+0	1.916013E+0	1.933471E+0	1.908045E+0	1.995805E+0	1.948102E+0	1.985015E+0	1.923086E+0	1.912585E+0	1.939511E+0	1.977451E+0	1.978033E+0	1.985635E+0	1.917440E+0	1.886076E+0	1.941822E+0	1.934957E+0	1.908287E+0	1.952318E+0	1.942065E+0	1.911125E+0	1.942049E+0	2.006247E+0	1.924947E+0	1.968141E+0	1.965456E+0	1.921798E+0	1.933629E+0	1.964023E+0	1.932099E+0	1.887926E+0	1.922324E+0	1.909927E+0	2.003394E+0	1.901810E+0	1.931116E+0	1.922694E+0	1.884274E+0	1.944172E+0	1.905811E+0	1.923057E+0	1.916146E+0	1.948873E+0	1.979992E+0	1.953295E+0	1.923183E+0	1.953700E+0	1.881537E+0	1.895622E+0	1.891564E+0	1.847923E+0	1.901287E+0	1.914678E+0	1.932625E+0	1.895214E+0	1.860825E+0	1.993539E+0	1.823621E+0	1.933670E+0	1.878920E+0	1.936904E+0	1.895746E+0	1.943066E+0	1.957044E+0	1.900763E+0	1.887386E+0	1.936882E+0	1.901039E+0	1.836834E+0	1.943550E+0	1.833072E+0	1.838552E+0	1.985707E+0	1.975142E+0	1.946324E+0	1.895579E+0	1.880120E+0	1.910649E+0	1.865649E+0	1.968459E+0	1.975335E+0	1.902582E+0	1.869186E+0	1.897678E+0	1.951021E+0	1.920909E+0	1.867848E+0	1.882324E+0	1.955711E+0	1.903951E+0	1.875237E+0	1.913016E+0	1.896624E+0	1.897016E+0	1.899494E+0	1.941592E+0	1.879545E+0	1.898910E+0	1.912521E+0	1.935822E+0	1.846774E+0	1.915440E+0	1.888495E+0	1.878766E+0	1.848142E+0	1.902265E+0	1.918014E+0	1.893802E+0	1.761082E+0	1.886511E+0	1.879235E+0	1.861032E+0	1.911292E+0	1.899159E+0	1.912054E+0	1.948845E+0	1.926898E+0	1.749640E+0	1.903649E+0	1.934362E+0	1.919037E+0	1.882474E+0	1.916036E+0	1.901771E+0	1.794427E+0	1.859270E+0	1.905368E+0	1.918902E+0	1.871451E+0	1.885310E+0	1.853305E+0	1.893483E+0	1.891311E+0	1.875371E+0	1.858212E+0	1.934074E+0	1.847828E+0	1.863378E+0	1.767939E+0	1.853631E+0	1.878475E+0	1.939313E+0	1.952401E+0	1.854802E+0	1.855565E+0	1.871072E+0	1.895821E+0	1.874570E+0	1.948355E+0	1.908515E+0	1.786512E+0	1.866053E+0	1.813102E+0	1.840110E+0	1.898896E+0	1.854191E+0	1.877109E+0
5.352600E+2	1.956925E+0	2.029857E+0	1.953140E+0	1.921821E+0	1.973775E+0	1.889490E+0	1.880395E+0	1.927345E+0	1.944316E+0	1.932863E+0	1.917801E+0	1.943663E+0	1.893547E+0	1.885367E+0	1.898741E+0	1.918883E+0	1.872427E+0	1.935646E+0	1.928854E+0	1.975499E+0	1.966242E+0	1.916615E+0	1.935186E+0	2.011098E+0	1.951422E+0	1.924105E+0	1.919054E+0	1.940987E+0	1.867532E+0	1.930260E+0	1.905773E+0	1.952551E+0	1.939059E+0	1.922295E+0	1.897361E+0	1.997078E+0	1.850256E+0	1.899536E+0	1.873337E+0	1.903255E+0	1.940916E+0	1.979493E+0	1.972860E+0	1.867719E+0	1.917721E+0	1.910417E+0	1.946136E+0	1.890225E+0	1.938737E+0	1.899064E+0	1.963931E+0	1.918319E+0	1.902661E+0	1.931542E+0	1.912124E+0	1.922665E+0	1.943018E+0	1.883406E+0	1.839330E+0	1.922197E+0	1.864876E+0	1.893871E+0	1.914952E+0	1.888927E+0	1.877875E+0	1.918976E+0	1.937939E+0	1.892742E+0	1.981711E+0	1.951555E+0	1.903456E+0	1.938947E+0	1.874825E+0	1.863129E+0	1.932537E+0	1.958904E+0	1.852391E+0	1.928896E+0	1.856624E+0	1.905365E+0	1.899573E+0	1.869142E+0	1.933931E+0	1.905993E+0	1.923952E+0	1.847953E+0	1.892046E+0	1.805207E+0	1.925626E+0	1.940390E+0	1.902952E+0	1.970015E+0	1.893486E+0	1.963643E+0	2.000683E+0	1.898265E+0	1.922727E+0	1.909041E+0	1.895217E+0	1.897405E+0	1.890844E+0	1.934190E+0	1.919082E+0	1.876089E+0	1.844256E+0	1.906251E+0	1.894228E+0	1.964139E+0	1.954906E+0	1.907781E+0	1.880015E+0	1.815217E+0	1.929244E+0	1.812551E+0	1.940653E+0	1.884446E+0	1.916831E+0	1.919524E+0	1.925761E+0	1.847257E+0	1.889721E+0	1.784477E+0	1.859536E+0	1.888569E+0	1.919564E+0	1.837774E+0	1.818617E+0	1.886953E+0	1.839767E+0	1.880189E+0	1.782071E+0	1.905989E+0	1.853823E+0	1.901626E+0	1.805438E+0	1.896493E+0	1.911908E+0	1.832999E+0	1.937306E+0	1.845416E+0	1.919515E+0	1.853848E+0	1.911255E+0	1.902786E+0	1.831667E+0	1.781261E+0	1.903248E+0	1.789087E+0	1.875543E+0	1.835263E+0	1.883912E+0	1.783781E+0	1.883293E+0	1.873156E+0	1.873053E+0	1.817677E+0	1.919415E+0	1.868923E+0	1.905312E+0	1.847754E+0	1.872438E+0	1.918185E+0	1.850198E+0	1.879616E+0	1.809982E+0	1.802352E+0	1.822553E+0	1.862169E+0	1.851312E+0	1.829555E+0
5.354110E+2	1.754765E+0	1.771631E+0	1.794106E+0	1.701806E+0	1.824394E+0	1.698569E+0	1.688768E+0	1.755788E+0	1.786339E+0	1.754801E+0	1.755789E+0	1.653228E+0	1.694096E+0	1.716462E+0	1.679477E+0	1.755299E+0	1.736090E+0	1.707129E+0	1.702780E+0	1.772447E+0	1.767837E+0	1.741659E+0	1.737650E+0	1.807028E+0	1.762924E+0	1.793432E+0	1.730082E+0	1.726257E+0	1.680130E+0	1.723974E+0	1.726657E+0	1.729834E+0	1.762430E+0	1.689767E+0	1.758347E+0	1.764997E+0	1.695342E+0	1.734618E+0	1.750396E+0	1.736772E+0	1.749630E+0	1.696357E+0	1.724162E+0	1.789140E+0	1.689962E+0	1.772396E+0	1.748448E+0	1.689779E+0	1.748860E+0	1.730157E+0	1.732062E+0	1.750980E+0	1.767508E+0	1.745681E+0	1.764660E+0	1.711492E+0	1.792931E+0	1.693293E+0	1.716883E+0	1.709278E+0	1.725126E+0	1.716455E+0	1.716313E+0	1.724686E+0	1.779416E+0	1.704734E+0	1.747971E+0	1.769833E+0	1.770503E+0	1.716092E+0	1.707845E+0	1.701654E+0	1.665487E+0	1.774165E+0	1.588053E+0	1.759542E+0	1.713802E+0	1.748948E+0	1.685362E+0	1.752874E+0	1.778687E+0	1.691428E+0	1.786171E+0	1.746432E+0	1.709960E+0	1.725290E+0	1.783716E+0	1.671562E+0	1.736145E+0	1.707330E+0	1.763204E+0	1.673087E+0	1.680643E+0	1.806192E+0	1.753770E+0	1.729471E+0	1.728161E+0	1.800128E+0	1.694594E+0	1.658241E+0	1.708208E+0	1.689785E+0	1.611808E+0	1.658874E+0	1.718547E+0	1.733985E+0	1.719042E+0	1.708266E+0	1.734352E+0	1.658806E+0	1.756795E+0	1.649292E+0	1.705379E+0	1.695455E+0	1.738939E+0	1.713064E+0	1.657738E+0	1.661974E+0	1.736944E+0	1.680521E+0	1.681515E+0	1.630131E+0	1.780587E+0	1.693786E+0	1.695432E+0	1.681427E+0	1.754798E+0	1.662261E+0	1.743650E+0	1.634965E+0	1.750759E+0	1.778367E+0	1.740916E+0	1.685119E+0	1.674936E+0	1.683996E+0	1.749309E+0	1.663044E+0	1.724508E+0	1.651255E+0	1.691369E+0	1.670426E+0	1.783491E+0	1.737291E+0	1.721981E+0	1.671201E+0	1.694347E+0	1.659962E+0	1.710147E+0	1.739457E+0	1.627341E+0	1.684108E+0	1.654663E+0	1.667523E+0	1.705768E+0	1.679486E+0	1.684446E+0	1.677139E+0	1.659738E+0	1.695652E+0	1.659334E+0	1.672297E+0	1.661730E+0	1.636689E+0	1.659613E+0	1.653873E+0	1.697513E+0	1.696175E+0	1.662574E+0	1.569434E+0
5.355630E+2	1.477636E+0	1.515383E+0	1.499601E+0	1.510122E+0	1.554356E+0	1.510475E+0	1.492114E+0	1.525319E+0	1.507575E+0	1.522740E+0	1.464671E+0	1.504508E+0	1.518245E+0	1.501476E+0	1.481016E+0	1.487613E+0	1.515618E+0	1.487172E+0	1.546840E+0	1.509564E+0	1.535913E+0	1.461747E+0	1.508327E+0	1.534441E+0	1.524143E+0	1.517777E+0	1.441886E+0	1.502161E+0	1.531487E+0	1.530088E+0	1.452115E+0	1.515381E+0	1.497790E+0	1.427110E+0	1.510277E+0	1.580390E+0	1.449714E+0	1.471604E+0	1.513475E+0	1.489156E+0	1.476110E+0	1.534249E+0	1.522537E+0	1.518335E+0	1.532267E+0	1.506539E+0	1.533836E+0	1.532733E+0	1.461166E+0	1.506043E+0	1.494279E+0	1.504671E+0	1.438203E+0	1.513600E+0	1.519119E+0	1.451116E+0	1.477346E+0	1.494413E+0	1.497798E+0	1.492118E+0	1.516089E+0	1.441600E+0	1.464976E+0	1.479565E+0	1.538903E+0	1.462091E+0	1.580432E+0	1.486049E+0	1.503846E+0	1.509210E+0	1.440853E+0	1.495822E+0	1.494911E+0	1.507492E+0	1.542297E+0	1.468383E+0	1.484488E+0	1.575076E+0	1.450790E+0	1.516696E+0	1.481013E+0	1.453265E+0	1.503185E+0	1.565631E+0	1.512192E+0	1.495297E+0	1.549357E+0	1.496754E+0	1.487893E+0	1.504798E+0	1.532717E+0	1.476174E+0	1.479893E+0	1.510451E+0	1.524159E+0	1.490641E+0	1.493825E+0	1.538237E+0	1.489025E+0	1.531225E+0	1.467678E+0	1.468686E+0	1.507854E+0	1.458385E+0	1.513311E+0	1.487843E+0	1.528963E+0	1.466488E+0	1.463549E+0	1.525011E+0	1.449977E+0	1.434786E+0	1.487141E+0	1.430137E+0	1.534526E+0	1.457141E+0	1.493578E+0	1.472105E+0	1.512333E+0	1.451424E+0	1.507732E+0	1.494846E+0	1.491167E+0	1.465819E+0	1.461975E+0	1.495891E+0	1.506946E+0	1.511406E+0	1.494262E+0	1.494689E+0	1.442620E+0	1.493669E+0	1.486340E+0	1.540615E+0	1.415854E+0	1.447929E+0	1.527350E+0	1.450018E+0	1.545520E+0	1.445633E+0	1.517648E+0	1.502832E+0	1.444587E+0	1.431373E+0	1.511945E+0	1.447552E+0	1.505938E+0	1.447852E+0	1.516489E+0	1.416523E+0	1.487547E+0	1.494981E+0	1.460704E+0	1.464993E+0	1.477332E+0	1.495212E+0	1.466648E+0	1.534899E+0	1.424826E+0	1.469358E+0	1.520783E+0	1.458987E+0	1.553142E+0	1.420602E+0	1.434420E+0	1.488642E+0	1.462899E+0	1.427219E+0	1.401422E+0	1.447884E+0
5.357140E+2	1.280839E+0	1.248602E+0	1.221145E+0	1.256785E+0	1.268111E+0	1.200296E+0	1.232720E+0	1.213105E+0	1.262664E+0	1.257608E+0	1.224463E+0	1.191137E+0	1.259597E+0	1.228853E+0	1.238800E+0	1.219462E+0	1.226900E+0	1.218176E+0	1.273575E+0	1.222297E+0	1.300122E+0	1.237060E+0	1.238261E+0	1.265499E+0	1.261777E+0	1.212573E+0	1.222914E+0	1.180688E+0	1.247360E+0	1.232028E+0	1.227373E+0	1.296281E+0	1.205045E+0	1.244083E+0	1.208414E+0	1.293461E+0	1.295374E+0	1.229449E+0	1.198711E+0	1.218600E+0	1.207460E+0	1.209183E+0	1.252938E+0	1.217131E+0	1.209217E+0	1.192017E+0	1.262002E+0	1.216510E+0	1.244472E+0	1.240631E+0	1.206014E+0	1.209316E+0	1.202117E+0	1.215735E+0	1.227726E+0	1.236224E+0	1.247681E+0	1.232569E+0	1.224857E+0	1.246586E+0	1.139921E+0	1.253576E+0	1.220938E+0	1.198389E+0	1.280874E+0	1.242218E+0	1.284698E+0	1.198289E+0	1.250305E+0	1.256993E+0	1.226806E+0	1.241792E+0	1.214384E+0	1.236666E+0	1.246228E+0	1.234509E+0	1.243869E+0	1.237396E+0	1.204547E+0	1.267289E+0	1.210126E+0	1.256249E+0	1.318857E+0	1.188876E+0	1.213474E+0	1.233589E+0	1.217817E+0	1.187448E+0	1.200940E+0	1.208710E+0	1.296792E+0	1.230644E+0	1.236616E+0	1.291083E+0	1.266294E+0	1.227059E+0	1.229236E+0	1.216833E+0	1.176693E+0	1.268791E+0	1.198642E+0	1.242599E+0	1.272263E+0	1.231829E+0	1.216281E+0	1.233823E+0	1.298991E+0	1.212609E+0	1.244332E+0	1.264787E+0	1.310325E+0	1.203959E+0	1.217168E+0	1.158443E+0	1.215182E+0	1.251980E+0	1.222063E+0	1.183699E+0	1.266334E+0	1.188009E+0	1.156282E+0	1.205033E+0	1.232341E+0	1.202584E+0	1.274930E+0	1.182690E+0	1.230104E+0	1.274890E+0	1.266604E+0	1.246559E+0	1.221158E+0	1.214285E+0	1.255455E+0	1.276472E+0	1.255389E+0	1.240963E+0	1.281448E+0	1.175707E+0	1.275048E+0	1.217896E+0	1.303933E+0	1.179544E+0	1.244613E+0	1.205057E+0	1.271303E+0	1.227336E+0	1.306357E+0	1.220391E+0	1.183861E+0	1.208695E+0	1.236280E+0	1.189780E+0	1.188784E+0	1.207272E+0	1.215006E+0	1.230651E+0	1.209224E+0	1.215454E+0	1.199278E+0	1.200706E+0	1.228554E+0	1.195470E+0	1.235003E+0	1.220857E+0	1.232608E+0	1.216742E+0	1.279714E+0	1.206400E+0	1.207999E+0	1.278116E+0
5.358600E+2	1.066313E+0	1.086316E+0	1.109439E+0	1.041372E+0	1.082287E+0	1.061160E+0	1.091172E+0	1.065216E+0	1.102479E+0	1.081097E+0	1.101469E+0	1.094525E+0	1.079266E+0	1.110011E+0	1.085759E+0	1.070097E+0	1.067263E+0	1.060482E+0	1.062489E+0	1.074672E+0	1.072854E+0	1.088772E+0	1.071125E+0	1.081125E+0	1.100119E+0	1.080524E+0	1.064705E+0	1.081865E+0	1.079686E+0	1.085756E+0	1.052476E+0	1.054949E+0	1.083397E+0	1.058570E+0	1.061836E+0	1.118445E+0	1.096840E+0	1.100999E+0	1.127966E+0	1.011525E+0	1.092813E+0	1.058167E+0	1.049064E+0	1.089843E+0	1.056336E+0	1.075925E+0	1.100534E+0	1.058918E+0	1.057517E+0	1.048429E+0	1.065401E+0	1.103894E+0	1.068478E+0	1.073452E+0	1.102348E+0	1.068656E+0	1.122462E+0	1.067715E+0	1.120597E+0	1.071103E+0	9.988483E-1	1.081932E+0	1.052905E+0	1.068655E+0	1.077720E+0	1.087624E+0	1.116934E+0	1.111736E+0	1.058328E+0	1.145813E+0	1.026380E+0	1.129093E+0	1.049516E+0	1.148163E+0	1.043662E+0	1.094187E+0	1.080382E+0	1.086152E+0	1.069321E+0	1.108699E+0	1.118449E+0	1.041775E+0	1.040911E+0	1.078990E+0	1.080960E+0	1.053536E+0	1.097219E+0	1.003015E+0	1.073639E+0	1.134929E+0	1.146906E+0	1.065247E+0	1.099857E+0	1.055886E+0	1.095043E+0	1.068997E+0	1.060288E+0	1.109831E+0	1.102560E+0	1.116155E+0	1.095394E+0	1.141125E+0	1.076532E+0	1.068288E+0	1.109401E+0	1.076065E+0	1.053680E+0	1.099459E+0	1.091675E+0	1.074414E+0	1.131852E+0	1.060568E+0	1.121937E+0	1.069570E+0	1.093123E+0	1.038975E+0	1.108532E+0	1.032332E+0	1.091017E+0	1.133653E+0	1.078997E+0	1.054444E+0	1.077468E+0	1.078770E+0	1.088396E+0	1.105282E+0	1.090613E+0	1.060086E+0	1.091228E+0	1.032062E+0	1.094150E+0	1.069859E+0	1.049649E+0	1.093958E+0	1.043590E+0	1.018984E+0	1.129857E+0	1.006624E+0	1.157416E+0	1.067458E+0	1.088912E+0	1.020745E+0	1.099934E+0	1.081800E+0	1.098453E+0	1.032456E+0	1.064579E+0	1.029183E+0	1.069123E+0	1.066054E+0	1.080961E+0	1.067320E+0	1.067958E+0	1.088313E+0	1.067793E+0	1.082544E+0	1.109284E+0	1.078099E+0	1.104586E+0	1.100411E+0	1.078492E+0	1.038806E+0	1.056886E+0	9.835300E-1	1.097329E+0	1.087342E+0	1.113281E+0	1.080597E+0	1.091434E+0	1.099889E+0
5.360070E+2	9.462997E-1	9.016095E-1	9.464947E-1	9.125077E-1	9.898592E-1	9.537463E-1	9.414130E-1	9.547369E-1	9.460916E-1	9.202640E-1	9.267652E-1	9.374910E-1	9.480275E-1	9.311905E-1	9.565619E-1	9.276413E-1	9.176580E-1	9.266986E-1	9.304228E-1	9.573961E-1	9.341873E-1	9.525116E-1	9.490335E-1	9.671513E-1	9.173332E-1	9.217423E-1	9.603237E-1	9.117246E-1	9.074200E-1	8.923189E-1	8.984034E-1	9.706015E-1	8.934011E-1	9.220602E-1	9.145259E-1	9.619516E-1	9.212622E-1	9.415625E-1	9.235842E-1	8.991349E-1	9.559037E-1	9.399894E-1	8.972030E-1	9.323602E-1	8.976285E-1	8.763316E-1	9.257142E-1	8.771412E-1	9.732340E-1	9.381891E-1	9.432357E-1	8.913434E-1	9.449806E-1	9.537781E-1	9.819621E-1	9.072492E-1	9.244203E-1	9.611787E-1	9.293249E-1	9.400458E-1	9.022154E-1	9.209237E-1	9.339599E-1	9.052450E-1	9.566010E-1	8.885649E-1	9.556766E-1	9.478389E-1	9.399791E-1	9.376939E-1	9.409886E-1	9.101302E-1	9.243683E-1	1.022298E+0	9.205772E-1	8.969233E-1	8.902446E-1	9.484591E-1	9.453731E-1	9.414501E-1	9.439686E-1	9.200396E-1	9.105717E-1	9.183781E-1	9.022659E-1	8.902358E-1	9.758377E-1	9.032392E-1	8.983763E-1	9.339355E-1	9.594072E-1	9.670610E-1	9.487102E-1	9.059995E-1	9.399478E-1	9.199699E-1	9.583502E-1	9.430035E-1	9.681648E-1	9.863144E-1	9.350019E-1	9.670914E-1	9.558213E-1	9.150000E-1	9.354272E-1	9.648151E-1	9.319944E-1	8.987115E-1	8.950099E-1	9.986178E-1	1.003689E+0	8.842721E-1	9.106793E-1	9.266484E-1	9.079984E-1	9.424486E-1	9.290049E-1	9.120022E-1	9.249127E-1	9.206978E-1	9.344211E-1	9.562365E-1	9.130020E-1	9.314252E-1	9.561478E-1	9.469402E-1	9.109151E-1	9.259093E-1	9.833027E-1	9.776618E-1	9.198587E-1	9.703231E-1	9.386083E-1	9.393876E-1	9.847450E-1	9.320360E-1	9.591901E-1	8.853931E-1	1.013457E+0	9.012964E-1	9.368585E-1	9.487205E-1	9.221597E-1	9.458114E-1	1.016293E+0	9.259276E-1	9.705026E-1	9.216092E-1	9.176751E-1	9.554498E-1	9.361378E-1	9.398015E-1	9.277267E-1	9.994076E-1	9.130474E-1	9.135825E-1	9.538532E-1	9.723258E-1	9.452650E-1	8.942950E-1	9.315866E-1	9.440984E-1	9.147513E-1	8.974752E-1	8.843173E-1	9.539843E-1	9.347785E-1	9.317583E-1	9.650485E-1	9.225727E-1
5.362630E+2	6.630643E-1	7.591437E-1	7.214972E-1	7.443550E-1	7.009092E-1	7.288719E-1	6.918619E-1	6.898746E-1	6.841165E-1	7.212703E-1	7.082409E-1	7.398865E-1	7.218666E-1	6.837406E-1	7.163505E-1	7.003125E-1	7.081275E-1	6.941348E-1	7.050721E-1	7.136164E-1	7.284439E-1	6.853410E-1	7.310806E-1	7.308784E-1	7.500604E-1	6.873414E-1	7.125373E-1	6.767117E-1	7.145454E-1	6.990394E-1	6.970420E-1	7.838722E-1	7.107422E-1	6.804524E-1	7.266102E-1	7.776550E-1	7.277377E-1	6.906195E-1	7.290132E-1	6.851562E-1	7.436456E-1	7.247276E-1	7.123746E-1	7.015000E-1	6.993059E-1	7.395190E-1	6.720894E-1	7.074108E-1	7.235687E-1	6.876993E-1	6.849743E-1	7.183130E-1	7.541732E-1	7.074982E-1	7.380856E-1	7.097266E-1	7.344085E-1	6.676806E-1	7.097243E-1	7.304710E-1	7.165483E-1	7.367532E-1	7.032450E-1	7.471377E-1	7.208289E-1	6.844510E-1	7.385003E-1	7.483117E-1	7.028468E-1	7.262087E-1	7.095327E-1	7.220418E-1	6.869677E-1	7.395255E-1	7.222210E-1	7.351617E-1	7.062334E-1	7.365861E-1	7.103812E-1	7.454613E-1	6.945148E-1	6.966007E-1	6.883618E-1	7.235336E-1	7.256874E-1	7.213467E-1	7.557441E-1	7.075543E-1	7.147575E-1	7.241307E-1	7.600258E-1	7.575629E-1	7.245666E-1	7.569200E-1	7.210680E-1	7.123836E-1	7.524087E-1	7.404917E-1	7.039728E-1	6.800832E-1	7.235216E-1	7.128887E-1	7.408002E-1	6.795952E-1	7.007145E-1	7.233275E-1	7.114471E-1	7.408400E-1	6.880675E-1	7.234146E-1	7.199249E-1	6.809604E-1	7.365597E-1	6.961543E-1	7.452102E-1	7.357753E-1	7.252241E-1	6.717761E-1	7.490945E-1	7.005744E-1	7.365909E-1	6.976715E-1	6.920978E-1	6.881113E-1	7.444062E-1	7.227785E-1	6.827910E-1	7.239324E-1	7.112825E-1	7.080591E-1	6.818314E-1	7.427688E-1	7.439294E-1	7.258987E-1	7.363499E-1	7.226404E-1	7.652592E-1	7.169598E-1	7.001584E-1	7.294536E-1	7.509326E-1	7.352771E-1	7.419671E-1	6.969880E-1	7.359420E-1	7.106712E-1	7.280015E-1	7.152637E-1	7.005265E-1	7.202305E-1	7.234348E-1	6.997859E-1	7.469899E-1	7.003859E-1	7.506464E-1	7.564283E-1	7.048922E-1	7.453499E-1	6.907547E-1	7.320375E-1	6.969254E-1	7.494825E-1	7.500280E-1	7.121229E-1	6.986952E-1	7.125858E-1	7.261147E-1	7.107718E-1	7.553955E-1	7.237708E-1
5.365140E+2	5.660309E-1	5.563378E-1	5.632015E-1	5.480629E-1	5.678405E-1	5.913082E-1	5.717647E-1	5.678783E-1	5.736762E-1	5.530081E-1	5.942363E-1	5.793043E-1	5.491289E-1	5.544522E-1	5.457332E-1	5.468091E-1	5.796007E-1	5.474876E-1	5.829509E-1	6.172409E-1	5.289194E-1	5.778118E-1	5.531291E-1	5.623631E-1	5.865744E-1	5.988901E-1	5.567859E-1	5.852276E-1	5.880988E-1	5.700973E-1	5.584675E-1	5.483290E-1	6.035531E-1	5.673717E-1	5.733720E-1	5.699066E-1	5.740918E-1	5.754017E-1	5.580060E-1	5.778761E-1	5.935239E-1	5.773143E-1	5.775571E-1	5.896547E-1	5.704158E-1	5.478712E-1	5.839807E-1	5.814700E-1	5.892331E-1	5.393238E-1	5.647998E-1	5.763081E-1	5.543095E-1	5.447329E-1	5.580732E-1	5.938339E-1	5.963356E-1	5.479010E-1	5.670755E-1	5.524065E-1	5.871170E-1	5.376355E-1	5.725394E-1	5.648670E-1	5.634814E-1	5.756323E-1	5.725692E-1	5.873218E-1	5.509158E-1	5.900596E-1	5.577177E-1	5.958666E-1	5.757387E-1	5.937047E-1	5.761660E-1	5.961605E-1	5.571432E-1	5.868530E-1	5.661534E-1	5.784524E-1	5.702221E-1	5.664666E-1	5.795689E-1	5.653753E-1	5.721802E-1	5.932803E-1	6.086754E-1	5.670076E-1	5.647631E-1	5.397125E-1	5.468991E-1	5.981273E-1	6.115130E-1	5.591217E-1	5.847410E-1	5.798115E-1	5.740117E-1	5.510915E-1	5.809049E-1	5.901828E-1	5.676510E-1	5.763896E-1	5.553974E-1	5.622500E-1	5.663850E-1	5.557948E-1	5.433223E-1	6.296523E-1	5.646570E-1	6.124570E-1	5.941375E-1	5.669258E-1	5.746759E-1	5.300718E-1	6.069140E-1	6.008639E-1	5.776819E-1	6.054447E-1	5.750504E-1	5.716681E-1	5.905279E-1	5.700056E-1	5.157622E-1	5.595561E-1	5.772393E-1	6.229789E-1	5.689850E-1	5.663322E-1	5.800359E-1	5.727174E-1	5.686252E-1	5.783950E-1	5.787858E-1	6.167642E-1	5.692443E-1	5.845511E-1	5.960471E-1	5.985827E-1	5.826491E-1	6.221031E-1	5.795412E-1	5.823330E-1	5.883498E-1	6.021918E-1	5.815670E-1	5.656268E-1	5.688181E-1	5.797689E-1	5.463524E-1	5.576067E-1	5.929737E-1	6.076121E-1	5.807733E-1	5.532165E-1	5.716219E-1	5.625294E-1	6.017623E-1	5.770168E-1	5.690079E-1	5.766796E-1	6.002911E-1	5.707983E-1	5.610558E-1	5.683377E-1	5.816412E-1	5.839745E-1	5.546187E-1	5.694851E-1	5.534411E-1	6.060216E-1
5.367870E+2	4.818212E-1	5.229555E-1	5.151664E-1	4.705846E-1	5.109602E-1	4.920493E-1	4.808167E-1	4.724843E-1	5.522725E-1	5.555469E-1	4.870809E-1	4.709451E-1	4.729952E-1	4.905299E-1	4.829595E-1	4.740653E-1	5.121176E-1	5.002640E-1	4.904954E-1	5.214075E-1	5.134666E-1	5.113073E-1	4.893423E-1	5.219091E-1	5.156165E-1	5.031689E-1	5.271730E-1	4.711693E-1	5.091134E-1	4.878659E-1	4.981256E-1	5.250807E-1	5.128778E-1	4.802602E-1	4.968710E-1	5.261666E-1	5.212720E-1	4.904794E-1	5.122153E-1	4.914783E-1	4.891603E-1	4.846546E-1	5.174172E-1	4.870071E-1	5.056614E-1	4.978360E-1	5.345262E-1	5.067939E-1	5.106618E-1	5.199326E-1	4.781356E-1	5.208027E-1	4.989311E-1	5.066162E-1	5.107596E-1	4.933862E-1	5.202729E-1	5.010061E-1	5.038259E-1	5.148664E-1	4.772493E-1	4.865358E-1	4.613587E-1	4.713272E-1	4.977352E-1	4.777059E-1	5.208270E-1	4.805598E-1	5.333001E-1	5.158126E-1	4.983627E-1	4.736495E-1	5.088944E-1	5.174919E-1	5.005765E-1	4.983067E-1	4.822802E-1	5.277756E-1	5.194104E-1	4.996266E-1	4.835591E-1	5.015803E-1	4.944044E-1	5.101647E-1	4.994171E-1	5.235317E-1	5.047427E-1	5.003103E-1	5.181259E-1	5.085651E-1	5.316701E-1	5.125203E-1	5.059823E-1	5.353857E-1	4.822205E-1	4.950285E-1	5.041685E-1	4.937495E-1	4.901273E-1	4.977337E-1	5.052496E-1	5.244452E-1	4.945535E-1	5.077125E-1	5.050290E-1	5.093094E-1	5.188523E-1	4.844821E-1	5.098348E-1	5.347645E-1	5.735897E-1	4.905867E-1	5.072347E-1	5.126177E-1	4.895222E-1	5.192385E-1	4.996380E-1	4.760810E-1	5.362667E-1	5.061560E-1	4.900502E-1	4.927065E-1	5.312158E-1	5.191043E-1	5.119299E-1	5.261722E-1	5.393336E-1	4.788472E-1	4.938760E-1	4.738953E-1	5.247209E-1	5.218510E-1	5.000401E-1	4.894834E-1	4.865206E-1	5.208993E-1	5.308953E-1	4.962554E-1	4.865848E-1	5.134381E-1	5.261431E-1	5.248288E-1	5.226609E-1	5.229471E-1	5.203323E-1	4.703624E-1	5.274033E-1	4.788483E-1	5.015974E-1	4.770892E-1	4.776562E-1	5.080208E-1	4.847243E-1	5.068216E-1	5.137892E-1	5.144308E-1	5.178590E-1	5.382461E-1	5.484688E-1	5.016647E-1	5.051712E-1	5.049604E-1	5.108807E-1	4.921534E-1	5.162854E-1	5.365801E-1	5.145858E-1	5.313392E-1	4.658507E-1	4.657490E-1
5.370120E+2	4.541913E-1	4.732574E-1	4.608919E-1	4.729837E-1	4.832822E-1	4.650983E-1	4.598032E-1	4.674018E-1	4.590249E-1	4.936080E-1	4.662977E-1	4.857390E-1	4.567497E-1	4.603467E-1	4.622226E-1	5.116358E-1	4.799520E-1	4.607655E-1	5.050577E-1	5.022197E-1	4.669740E-1	4.674634E-1	4.818326E-1	4.749489E-1	4.863671E-1	4.730621E-1	4.753649E-1	4.606257E-1	4.702155E-1	4.522980E-1	4.730404E-1	5.096202E-1	4.973148E-1	4.668235E-1	4.910213E-1	4.925556E-1	5.087909E-1	4.976128E-1	4.637643E-1	4.726033E-1	4.644886E-1	4.633325E-1	4.958742E-1	5.203959E-1	4.821280E-1	4.794187E-1	4.831848E-1	4.580481E-1	5.074710E-1	4.865804E-1	4.871264E-1	4.791951E-1	5.208209E-1	4.752371E-1	4.625505E-1	4.585900E-1	4.693718E-1	4.710673E-1	4.946764E-1	4.962295E-1	4.922015E-1	4.710862E-1	4.657543E-1	4.574076E-1	5.023213E-1	4.578898E-1	4.766210E-1	4.951345E-1	4.905965E-1	5.005868E-1	5.239273E-1	5.242751E-1	4.633650E-1	4.562747E-1	4.837044E-1	5.002363E-1	4.709803E-1	5.358554E-1	5.080770E-1	4.644340E-1	4.841868E-1	4.883779E-1	4.989236E-1	4.933818E-1	4.968404E-1	4.960436E-1	4.816629E-1	4.740119E-1	5.164187E-1	5.078885E-1	4.923820E-1	5.059067E-1	4.680219E-1	4.951648E-1	5.072100E-1	4.850431E-1	4.981268E-1	4.921274E-1	4.935113E-1	4.799560E-1	4.666885E-1	5.208704E-1	4.724608E-1	4.668893E-1	5.179233E-1	4.895145E-1	5.009483E-1	4.991012E-1	5.215431E-1	4.892397E-1	4.889005E-1	4.868031E-1	4.928926E-1	4.960456E-1	5.161309E-1	5.014846E-1	5.176109E-1	4.599692E-1	4.907574E-1	4.837042E-1	4.872900E-1	4.858024E-1	4.819286E-1	4.789594E-1	4.933273E-1	4.632066E-1	4.855557E-1	4.835729E-1	5.357285E-1	4.873111E-1	4.553585E-1	4.906208E-1	4.917973E-1	4.941738E-1	4.654474E-1	4.659147E-1	5.429814E-1	4.691815E-1	4.714153E-1	4.907044E-1	4.799963E-1	4.699828E-1	5.174674E-1	4.812368E-1	5.131414E-1	5.015465E-1	5.179940E-1	4.934693E-1	5.313430E-1	4.851431E-1	4.986725E-1	4.412676E-1	4.645692E-1	4.855738E-1	4.919228E-1	4.916642E-1	5.026716E-1	4.781378E-1	5.097023E-1	5.122409E-1	4.880766E-1	5.049963E-1	4.756266E-1	4.617123E-1	4.894402E-1	4.975406E-1	4.934003E-1	5.014025E-1	5.191032E-1	4.932454E-1
5.372900E+2	4.951104E-1	4.779276E-1	5.136137E-1	5.364791E-1	5.634256E-1	5.058907E-1	5.114426E-1	5.089266E-1	5.041376E-1	5.248433E-1	5.103963E-1	4.996086E-1	5.033267E-1	5.038761E-1	4.889044E-1	5.300463E-1	5.241313E-1	5.035254E-1	5.163213E-1	5.287864E-1	5.240002E-1	5.159668E-1	5.135612E-1	4.770460E-1	5.089635E-1	5.109343E-1	5.216199E-1	5.229364E-1	5.078353E-1	5.167707E-1	4.815518E-1	5.143211E-1	4.914028E-1	5.047758E-1	5.267510E-1	5.395977E-1	5.523106E-1	5.333098E-1	5.088925E-1	5.335796E-1	5.147933E-1	5.414058E-1	5.348747E-1	5.060697E-1	5.253687E-1	5.195769E-1	5.235738E-1	5.276390E-1	5.117291E-1	5.743209E-1	5.183869E-1	5.020506E-1	5.060364E-1	5.310458E-1	4.969018E-1	5.084101E-1	5.002091E-1	4.884055E-1	5.140463E-1	5.290078E-1	5.465073E-1	5.053106E-1	5.302438E-1	5.035003E-1	5.106413E-1	5.012163E-1	4.814925E-1	5.192406E-1	5.008279E-1	5.405952E-1	4.805932E-1	4.995462E-1	5.107914E-1	5.388379E-1	5.382730E-1	5.178377E-1	5.120618E-1	5.075349E-1	4.890626E-1	4.981048E-1	5.322849E-1	5.092176E-1	5.284942E-1	5.481729E-1	5.185449E-1	5.138016E-1	5.021598E-1	5.243133E-1	5.206558E-1	5.295546E-1	5.472114E-1	5.315912E-1	5.171019E-1	5.412779E-1	5.348426E-1	5.129986E-1	5.246479E-1	5.250644E-1	5.290006E-1	5.263028E-1	5.127066E-1	5.330783E-1	5.067668E-1	5.224685E-1	5.299758E-1	5.222606E-1	5.214971E-1	5.136333E-1	4.995933E-1	5.606482E-1	5.087585E-1	5.095067E-1	5.136868E-1	5.673417E-1	5.600081E-1	5.062733E-1	5.260643E-1	5.282246E-1	5.571479E-1	5.401608E-1	5.191403E-1	5.231930E-1	5.358963E-1	5.397819E-1	5.164186E-1	5.197828E-1	5.429031E-1	4.963701E-1	4.926548E-1	5.102016E-1	5.285732E-1	5.260492E-1	5.564399E-1	5.328581E-1	5.292666E-1	5.274679E-1	5.608991E-1	4.740008E-1	5.312822E-1	4.839403E-1	5.881590E-1	5.263518E-1	5.104232E-1	5.251922E-1	5.389660E-1	5.208554E-1	5.431619E-1	5.098386E-1	5.350170E-1	5.028369E-1	5.598017E-1	5.323404E-1	4.904313E-1	5.320464E-1	5.154268E-1	5.293114E-1	5.229697E-1	4.802170E-1	5.380880E-1	5.667057E-1	5.159952E-1	5.098888E-1	5.393320E-1	5.111615E-1	5.199968E-1	5.184155E-1	5.082624E-1	5.007451E-1	5.228411E-1	5.249003E-1
5.375160E+2	5.878047E-1	6.314805E-1	6.109064E-1	5.866036E-1	6.166295E-1	6.125362E-1	6.152795E-1	5.884469E-1	6.041596E-1	5.967834E-1	6.334808E-1	6.133822E-1	5.561147E-1	6.021484E-1	5.862631E-1	5.833074E-1	6.275508E-1	6.283247E-1	6.441966E-1	5.858479E-1	5.988382E-1	6.028961E-1	6.128096E-1	6.215264E-1	6.443809E-1	6.116679E-1	6.031991E-1	5.847055E-1	5.982701E-1	6.353397E-1	6.227098E-1	6.376151E-1	6.489623E-1	5.729717E-1	6.354699E-1	6.569649E-1	6.253187E-1	5.938245E-1	5.924036E-1	6.146116E-1	5.951588E-1	5.959032E-1	5.924662E-1	6.417332E-1	6.547747E-1	5.956133E-1	6.102289E-1	5.934745E-1	6.026882E-1	6.196591E-1	6.183187E-1	6.448221E-1	5.623359E-1	6.520292E-1	6.029158E-1	5.974410E-1	6.174362E-1	5.767278E-1	6.121073E-1	6.099656E-1	6.291670E-1	5.797966E-1	6.181016E-1	5.988330E-1	6.058464E-1	6.078756E-1	6.166185E-1	6.158357E-1	5.735135E-1	6.556083E-1	6.059811E-1	5.953579E-1	5.813099E-1	5.930266E-1	6.390723E-1	6.265010E-1	6.128935E-1	6.482004E-1	6.367036E-1	6.296183E-1	5.922855E-1	5.638720E-1	6.135838E-1	5.857842E-1	6.638415E-1	6.186865E-1	6.040989E-1	6.067671E-1	6.249981E-1	6.344260E-1	6.418945E-1	5.804672E-1	6.195800E-1	6.049562E-1	5.970726E-1	6.123036E-1	6.040605E-1	6.331210E-1	6.425974E-1	5.806225E-1	6.106768E-1	6.299186E-1	6.214808E-1	6.261600E-1	6.090413E-1	6.294480E-1	6.171520E-1	5.918848E-1	6.206192E-1	6.105112E-1	6.458907E-1	6.059457E-1	6.049991E-1	6.353108E-1	6.204824E-1	5.888436E-1	6.156382E-1	5.948633E-1	6.315330E-1	5.815828E-1	6.406688E-1	5.809647E-1	5.928917E-1	6.291269E-1	6.146264E-1	6.249633E-1	6.034647E-1	6.359155E-1	6.201501E-1	6.422361E-1	6.027407E-1	6.357673E-1	5.955695E-1	6.463398E-1	5.957644E-1	6.324778E-1	6.372408E-1	5.808968E-1	6.500875E-1	5.826219E-1	5.806414E-1	6.252480E-1	6.627669E-1	5.796930E-1	6.144743E-1	5.825854E-1	6.078453E-1	5.936270E-1	5.745343E-1	5.732870E-1	6.437830E-1	5.901375E-1	6.239293E-1	6.191215E-1	6.307279E-1	6.258583E-1	6.603686E-1	6.199057E-1	6.066162E-1	6.169150E-1	6.362881E-1	5.739040E-1	6.694482E-1	5.782313E-1	6.271887E-1	6.075539E-1	6.256933E-1	6.269345E-1	6.062847E-1	6.504634E-1
5.377790E+2	6.373669E-1	6.744431E-1	6.810029E-1	6.373098E-1	7.143552E-1	6.418097E-1	6.221078E-1	6.463797E-1	6.726227E-1	6.937016E-1	6.690164E-1	6.444567E-1	6.688254E-1	6.517310E-1	6.584754E-1	6.915139E-1	6.480036E-1	6.694202E-1	6.706854E-1	7.320291E-1	7.075249E-1	6.935260E-1	7.022287E-1	6.902098E-1	7.198669E-1	6.667163E-1	6.793639E-1	6.369874E-1	6.450693E-1	6.771653E-1	6.201774E-1	6.761577E-1	6.647058E-1	6.540635E-1	6.776407E-1	7.053666E-1	6.648981E-1	6.491230E-1	6.455950E-1	6.195651E-1	6.518813E-1	6.844746E-1	7.072008E-1	7.110623E-1	6.689177E-1	6.158126E-1	7.205504E-1	6.759963E-1	6.882561E-1	6.355924E-1	6.712832E-1	6.679203E-1	6.668063E-1	6.672265E-1	6.512805E-1	6.906870E-1	7.010227E-1	6.511631E-1	6.797413E-1	6.331996E-1	6.475345E-1	6.707835E-1	6.838028E-1	6.421085E-1	6.858401E-1	6.236145E-1	7.200754E-1	6.726157E-1	6.869343E-1	7.146920E-1	6.357533E-1	6.960468E-1	6.556731E-1	6.885247E-1	6.737071E-1	7.171040E-1	6.602161E-1	6.937345E-1	6.713105E-1	6.774753E-1	6.573971E-1	6.594454E-1	6.847099E-1	6.602654E-1	6.908004E-1	6.759909E-1	6.818604E-1	6.524984E-1	6.647737E-1	7.089276E-1	6.541139E-1	7.030571E-1	6.683931E-1	6.597177E-1	6.787313E-1	6.688784E-1	6.882435E-1	6.893424E-1	7.110643E-1	6.789823E-1	6.661047E-1	7.065885E-1	6.373784E-1	6.897533E-1	6.440496E-1	6.797223E-1	6.927844E-1	6.807297E-1	6.851409E-1	6.915459E-1	6.462786E-1	6.576969E-1	6.616952E-1	6.326087E-1	6.894382E-1	6.931710E-1	6.679058E-1	6.585534E-1	6.773081E-1	6.993930E-1	6.774002E-1	6.678526E-1	6.886288E-1	7.164981E-1	7.053690E-1	6.613401E-1	6.517395E-1	6.762614E-1	7.010979E-1	6.691439E-1	6.356161E-1	6.649009E-1	7.095980E-1	6.684598E-1	7.107093E-1	7.266128E-1	6.625777E-1	6.283235E-1	6.852841E-1	6.888513E-1	6.604535E-1	6.551674E-1	7.026405E-1	7.144922E-1	6.674201E-1	6.440343E-1	6.730558E-1	6.485416E-1	6.891908E-1	7.186559E-1	7.214539E-1	7.006977E-1	6.537852E-1	6.742168E-1	7.004278E-1	6.474197E-1	6.684581E-1	6.776282E-1	6.654663E-1	6.623869E-1	6.958793E-1	6.721703E-1	7.044000E-1	6.143846E-1	6.957639E-1	6.626413E-1	6.941231E-1	6.845636E-1	6.865529E-1	7.096565E-1
5.380160E+2	7.369973E-1	7.363093E-1	7.622101E-1	7.436592E-1	7.491506E-1	7.732272E-1	7.656714E-1	7.451759E-1	7.492323E-1	8.110613E-1	7.303279E-1	7.640209E-1	7.260028E-1	8.128894E-1	7.730421E-1	7.620514E-1	7.871296E-1	7.505883E-1	7.718741E-1	7.935408E-1	8.320367E-1	7.445898E-1	7.274136E-1	8.201440E-1	8.168928E-1	7.904742E-1	8.087376E-1	7.541043E-1	7.787285E-1	7.613018E-1	7.559213E-1	7.580747E-1	7.694829E-1	7.370576E-1	7.548088E-1	7.800593E-1	7.933968E-1	7.869231E-1	7.994102E-1	7.386736E-1	8.143369E-1	7.746895E-1	7.877203E-1	8.045305E-1	7.785493E-1	7.825051E-1	7.794174E-1	7.545133E-1	7.809860E-1	7.722348E-1	7.682918E-1	7.548524E-1	7.959694E-1	7.754826E-1	8.233918E-1	7.733076E-1	8.059668E-1	7.741729E-1	7.853496E-1	7.706958E-1	7.773737E-1	7.809166E-1	7.620225E-1	7.998941E-1	7.904502E-1	7.556581E-1	8.091002E-1	8.038770E-1	7.929980E-1	7.630061E-1	7.847129E-1	8.234665E-1	8.123561E-1	7.954887E-1	7.474701E-1	8.189400E-1	7.898758E-1	7.809797E-1	7.381694E-1	8.153332E-1	7.440380E-1	7.207525E-1	7.804500E-1	7.872678E-1	7.530835E-1	7.338491E-1	8.034921E-1	7.455500E-1	7.771587E-1	7.903054E-1	7.394556E-1	7.604729E-1	7.418792E-1	8.191247E-1	7.979829E-1	7.898186E-1	7.709183E-1	7.625874E-1	7.644459E-1	7.546133E-1	7.511997E-1	7.670920E-1	7.903037E-1	7.517676E-1	7.551580E-1	7.925798E-1	7.231565E-1	7.431782E-1	7.829587E-1	8.029661E-1	8.307419E-1	7.533436E-1	7.788330E-1	8.144764E-1	7.581543E-1	7.990537E-1	7.557330E-1	7.814041E-1	7.645007E-1	7.918021E-1	8.503732E-1	7.044131E-1	7.366577E-1	8.003958E-1	8.004212E-1	7.232146E-1	7.738832E-1	8.161727E-1	8.025399E-1	7.977759E-1	7.981702E-1	7.938924E-1	8.027532E-1	7.652562E-1	7.694345E-1	8.146656E-1	8.443581E-1	7.308064E-1	7.816700E-1	8.147065E-1	7.899082E-1	7.780381E-1	7.569750E-1	7.641852E-1	8.287080E-1	7.718460E-1	7.771408E-1	7.777044E-1	7.617287E-1	7.283636E-1	7.867187E-1	7.613493E-1	7.899662E-1	7.954075E-1	7.514746E-1	8.172165E-1	7.474177E-1	7.899980E-1	7.646330E-1	7.487616E-1	7.714044E-1	7.688247E-1	8.175616E-1	7.798512E-1	7.603808E-1	7.683058E-1	7.809068E-1	7.615021E-1	7.839563E-1	7.214937E-1
5.382900E+2	9.903367E-1	9.585324E-1	9.327965E-1	9.884380E-1	1.000209E+0	9.639509E-1	9.459294E-1	9.767973E-1	9.958441E-1	9.555036E-1	9.878777E-1	9.949009E-1	9.482960E-1	9.492599E-1	9.300954E-1	1.038978E+0	9.694597E-1	9.763905E-1	9.871889E-1	9.824470E-1	9.865269E-1	9.967404E-1	9.448557E-1	9.777177E-1	1.051530E+0	9.979532E-1	9.643714E-1	9.632710E-1	9.679404E-1	9.505695E-1	9.581399E-1	1.022571E+0	9.811134E-1	9.565063E-1	1.014685E+0	9.284154E-1	9.513668E-1	9.640561E-1	9.657837E-1	9.782243E-1	9.664946E-1	9.147778E-1	9.655569E-1	9.623374E-1	9.293094E-1	9.558754E-1	9.760904E-1	1.022530E+0	1.003677E+0	9.701020E-1	9.834039E-1	9.596566E-1	9.345299E-1	9.964411E-1	9.769520E-1	9.899341E-1	9.961665E-1	9.713362E-1	9.885602E-1	9.197371E-1	1.004007E+0	9.679706E-1	9.309351E-1	9.962028E-1	9.637920E-1	9.429627E-1	9.862209E-1	9.691715E-1	9.809225E-1	9.700979E-1	9.603040E-1	9.446124E-1	9.390214E-1	9.548850E-1	9.970213E-1	9.825391E-1	9.864399E-1	1.009877E+0	9.768697E-1	9.979373E-1	9.520896E-1	9.600939E-1	1.023519E+0	9.709622E-1	9.640332E-1	9.725862E-1	1.028993E+0	9.052669E-1	9.634421E-1	9.857626E-1	9.634266E-1	9.598635E-1	9.889251E-1	9.619116E-1	1.008656E+0	9.527030E-1	9.977375E-1	9.880404E-1	9.973440E-1	9.628786E-1	9.590593E-1	9.386254E-1	9.990253E-1	9.622205E-1	9.379916E-1	9.823440E-1	9.264896E-1	9.357392E-1	9.723292E-1	9.916204E-1	1.025507E+0	9.665206E-1	9.885554E-1	9.218938E-1	1.017869E+0	9.658917E-1	9.624049E-1	9.920126E-1	9.539360E-1	9.801728E-1	9.867192E-1	9.555576E-1	1.009114E+0	9.435328E-1	9.642910E-1	9.446672E-1	9.940018E-1	9.573412E-1	9.652845E-1	9.862475E-1	1.001155E+0	9.828279E-1	9.349564E-1	9.569058E-1	9.550571E-1	9.806408E-1	9.968422E-1	9.605177E-1	1.000027E+0	9.206717E-1	9.320658E-1	9.332057E-1	9.790517E-1	9.540419E-1	1.014790E+0	8.980614E-1	1.014442E+0	9.471617E-1	9.473691E-1	9.682482E-1	1.004240E+0	9.721294E-1	9.333495E-1	9.356815E-1	9.586458E-1	9.861062E-1	9.823425E-1	9.514195E-1	9.596407E-1	9.839782E-1	9.520418E-1	9.789787E-1	1.012867E+0	9.947955E-1	9.894358E-1	9.665747E-1	9.833423E-1	9.897619E-1	9.605869E-1	9.796227E-1
5.385110E+2	1.151351E+0	1.152121E+0	1.109741E+0	1.121274E+0	1.163105E+0	1.154276E+0	1.137285E+0	1.111638E+0	1.132810E+0	1.189358E+0	1.178290E+0	1.164762E+0	1.143039E+0	1.131026E+0	1.118724E+0	1.089708E+0	1.173407E+0	1.102159E+0	1.131921E+0	1.196111E+0	1.120537E+0	1.125729E+0	1.146537E+0	1.120815E+0	1.174358E+0	1.099728E+0	1.145318E+0	1.112598E+0	1.178639E+0	1.106266E+0	1.064884E+0	1.122958E+0	1.173611E+0	1.149469E+0	1.122892E+0	1.189343E+0	1.142080E+0	1.150626E+0	1.128694E+0	1.166049E+0	1.130125E+0	1.101645E+0	1.185671E+0	1.184773E+0	1.120196E+0	1.119492E+0	1.158538E+0	1.169164E+0	1.141741E+0	1.181562E+0	1.196672E+0	1.127500E+0	1.157691E+0	1.204719E+0	1.179120E+0	1.169709E+0	1.159674E+0	1.159791E+0	1.162139E+0	1.128778E+0	1.121763E+0	1.092546E+0	1.127732E+0	1.145537E+0	1.132669E+0	1.123244E+0	1.156193E+0	1.164825E+0	1.157185E+0	1.167877E+0	1.110352E+0	1.120341E+0	1.154156E+0	1.160491E+0	1.181172E+0	1.128606E+0	1.158981E+0	1.142822E+0	1.156660E+0	1.130448E+0	1.148178E+0	1.065501E+0	1.162596E+0	1.167364E+0	1.170198E+0	1.094920E+0	1.189519E+0	1.118805E+0	1.165116E+0	1.155347E+0	1.148845E+0	1.149773E+0	1.174438E+0	1.132345E+0	1.144993E+0	1.123200E+0	1.144638E+0	1.159254E+0	1.199370E+0	1.107866E+0	1.132752E+0	1.124939E+0	1.125965E+0	1.118380E+0	1.102458E+0	1.147669E+0	1.100569E+0	1.130179E+0	1.156616E+0	1.118011E+0	1.174982E+0	1.136665E+0	1.160748E+0	1.103887E+0	1.150556E+0	1.169090E+0	1.095375E+0	1.110439E+0	1.164268E+0	1.130050E+0	1.163707E+0	1.101813E+0	1.109540E+0	1.102115E+0	1.105781E+0	1.133504E+0	1.159436E+0	1.155822E+0	1.117399E+0	1.150005E+0	1.157274E+0	1.162689E+0	1.116871E+0	1.154165E+0	1.129725E+0	1.127443E+0	1.211166E+0	1.113348E+0	1.175813E+0	1.180067E+0	1.158022E+0	1.080928E+0	1.168728E+0	1.140093E+0	1.165309E+0	1.133547E+0	1.129642E+0	1.134402E+0	1.133311E+0	1.141366E+0	1.145933E+0	1.110975E+0	1.116310E+0	1.101318E+0	1.189984E+0	1.138608E+0	1.131029E+0	1.143609E+0	1.133791E+0	1.131016E+0	1.120691E+0	1.095740E+0	1.130047E+0	1.090427E+0	1.117710E+0	1.122337E+0	1.093577E+0	1.177287E+0	1.151390E+0	1.196547E+0
5.387700E+2	1.367450E+0	1.337481E+0	1.344140E+0	1.377155E+0	1.456228E+0	1.357873E+0	1.403065E+0	1.372071E+0	1.432171E+0	1.384248E+0	1.371692E+0	1.374310E+0	1.348767E+0	1.300380E+0	1.367692E+0	1.354456E+0	1.325203E+0	1.392592E+0	1.347644E+0	1.368462E+0	1.381498E+0	1.305459E+0	1.385664E+0	1.407086E+0	1.455314E+0	1.315504E+0	1.341349E+0	1.372581E+0	1.380017E+0	1.375596E+0	1.363779E+0	1.379252E+0	1.356559E+0	1.313010E+0	1.420479E+0	1.408321E+0	1.399633E+0	1.389533E+0	1.402204E+0	1.415233E+0	1.429844E+0	1.367733E+0	1.420803E+0	1.324076E+0	1.408191E+0	1.368556E+0	1.330291E+0	1.310809E+0	1.363316E+0	1.362870E+0	1.418013E+0	1.373448E+0	1.359927E+0	1.311597E+0	1.421632E+0	1.378161E+0	1.310613E+0	1.377203E+0	1.334166E+0	1.354750E+0	1.315831E+0	1.349938E+0	1.337764E+0	1.401205E+0	1.436484E+0	1.374706E+0	1.322143E+0	1.450900E+0	1.324784E+0	1.491067E+0	1.353232E+0	1.413296E+0	1.337722E+0	1.313522E+0	1.381089E+0	1.326081E+0	1.337296E+0	1.387156E+0	1.351835E+0	1.393426E+0	1.363992E+0	1.385125E+0	1.317112E+0	1.393028E+0	1.373988E+0	1.359097E+0	1.396421E+0	1.390695E+0	1.398971E+0	1.377217E+0	1.363783E+0	1.388937E+0	1.321427E+0	1.397431E+0	1.343468E+0	1.315569E+0	1.391321E+0	1.391248E+0	1.343525E+0	1.355180E+0	1.362137E+0	1.413715E+0	1.353782E+0	1.378082E+0	1.335943E+0	1.301639E+0	1.379234E+0	1.369120E+0	1.303382E+0	1.411868E+0	1.389461E+0	1.327293E+0	1.388887E+0	1.329969E+0	1.467856E+0	1.348608E+0	1.363447E+0	1.338247E+0	1.390857E+0	1.395864E+0	1.421795E+0	1.323588E+0	1.386286E+0	1.347477E+0	1.390919E+0	1.332215E+0	1.330456E+0	1.360137E+0	1.391639E+0	1.353999E+0	1.362075E+0	1.409597E+0	1.335205E+0	1.331216E+0	1.341249E+0	1.363424E+0	1.368063E+0	1.301198E+0	1.345492E+0	1.350542E+0	1.379936E+0	1.261264E+0	1.360233E+0	1.316001E+0	1.378057E+0	1.310041E+0	1.301190E+0	1.353796E+0	1.381806E+0	1.357015E+0	1.348330E+0	1.354427E+0	1.296840E+0	1.324836E+0	1.366475E+0	1.351986E+0	1.350023E+0	1.359250E+0	1.399992E+0	1.391363E+0	1.379448E+0	1.414266E+0	1.382751E+0	1.328929E+0	1.303690E+0	1.338173E+0	1.385196E+0	1.355122E+0	1.332963E+0	1.344714E+0
5.390240E+2	1.534267E+0	1.537789E+0	1.603900E+0	1.570594E+0	1.531332E+0	1.584919E+0	1.548709E+0	1.613087E+0	1.575762E+0	1.581296E+0	1.577002E+0	1.532104E+0	1.542613E+0	1.588698E+0	1.541270E+0	1.611740E+0	1.585132E+0	1.579571E+0	1.587001E+0	1.625889E+0	1.590879E+0	1.562945E+0	1.515403E+0	1.613186E+0	1.654140E+0	1.579007E+0	1.607484E+0	1.550604E+0	1.518118E+0	1.590792E+0	1.581136E+0	1.574304E+0	1.552719E+0	1.545246E+0	1.529316E+0	1.662999E+0	1.562506E+0	1.618629E+0	1.601837E+0	1.522852E+0	1.606547E+0	1.568139E+0	1.597717E+0	1.554121E+0	1.538322E+0	1.585890E+0	1.568569E+0	1.556852E+0	1.554009E+0	1.604242E+0	1.560094E+0	1.594911E+0	1.558178E+0	1.569995E+0	1.616818E+0	1.602367E+0	1.618135E+0	1.587399E+0	1.559435E+0	1.593948E+0	1.498813E+0	1.509530E+0	1.543316E+0	1.589932E+0	1.518021E+0	1.508081E+0	1.547802E+0	1.548236E+0	1.600714E+0	1.597640E+0	1.536163E+0	1.554771E+0	1.558088E+0	1.608941E+0	1.550364E+0	1.558635E+0	1.596370E+0	1.550948E+0	1.587777E+0	1.576640E+0	1.592039E+0	1.537510E+0	1.496165E+0	1.605522E+0	1.539511E+0	1.524955E+0	1.553905E+0	1.544070E+0	1.572950E+0	1.498355E+0	1.542532E+0	1.564700E+0	1.588999E+0	1.539597E+0	1.514793E+0	1.532455E+0	1.557987E+0	1.569719E+0	1.589073E+0	1.542883E+0	1.603440E+0	1.552507E+0	1.569753E+0	1.540035E+0	1.497655E+0	1.560454E+0	1.547071E+0	1.597765E+0	1.546371E+0	1.513907E+0	1.565276E+0	1.496024E+0	1.650894E+0	1.574483E+0	1.553600E+0	1.570899E+0	1.592958E+0	1.523607E+0	1.570487E+0	1.580001E+0	1.569634E+0	1.466777E+0	1.540486E+0	1.509020E+0	1.584137E+0	1.553711E+0	1.524928E+0	1.574702E+0	1.615441E+0	1.512878E+0	1.519359E+0	1.573312E+0	1.529219E+0	1.579904E+0	1.545258E+0	1.546687E+0	1.555282E+0	1.433360E+0	1.579455E+0	1.502931E+0	1.553422E+0	1.571906E+0	1.544172E+0	1.565415E+0	1.579352E+0	1.547666E+0	1.506839E+0	1.521134E+0	1.604057E+0	1.572806E+0	1.508136E+0	1.490544E+0	1.482629E+0	1.558815E+0	1.520790E+0	1.540151E+0	1.505429E+0	1.570679E+0	1.605812E+0	1.531410E+0	1.534257E+0	1.482811E+0	1.538283E+0	1.502509E+0	1.513546E+0	1.522786E+0	1.575339E+0	1.561138E+0	1.494095E+0	1.536986E+0
5.392880E+2	1.774625E+0	1.742938E+0	1.785107E+0	1.781489E+0	1.820687E+0	1.732083E+0	1.698967E+0	1.767828E+0	1.722145E+0	1.803319E+0	1.759453E+0	1.778750E+0	1.787569E+0	1.758337E+0	1.727833E+0	1.706766E+0	1.727920E+0	1.781126E+0	1.752777E+0	1.780841E+0	1.726966E+0	1.788915E+0	1.704632E+0	1.888468E+0	1.775659E+0	1.769311E+0	1.720684E+0	1.749057E+0	1.764256E+0	1.728132E+0	1.754169E+0	1.817161E+0	1.792879E+0	1.771838E+0	1.796790E+0	1.844958E+0	1.691050E+0	1.773841E+0	1.758962E+0	1.796110E+0	1.824684E+0	1.697223E+0	1.762885E+0	1.759799E+0	1.767536E+0	1.698495E+0	1.694184E+0	1.743504E+0	1.735328E+0	1.775443E+0	1.780123E+0	1.749639E+0	1.798639E+0	1.686022E+0	1.752859E+0	1.764267E+0	1.824251E+0	1.702884E+0	1.753060E+0	1.749527E+0	1.791482E+0	1.644162E+0	1.705084E+0	1.735054E+0	1.788152E+0	1.746385E+0	1.751749E+0	1.743074E+0	1.696057E+0	1.751241E+0	1.708829E+0	1.757438E+0	1.768331E+0	1.738647E+0	1.747862E+0	1.715871E+0	1.766774E+0	1.730240E+0	1.699793E+0	1.794909E+0	1.635979E+0	1.721977E+0	1.793219E+0	1.781954E+0	1.723004E+0	1.711984E+0	1.824044E+0	1.719522E+0	1.829180E+0	1.758555E+0	1.773441E+0	1.822227E+0	1.731695E+0	1.759479E+0	1.775088E+0	1.700571E+0	1.713070E+0	1.700296E+0	1.727746E+0	1.702261E+0	1.735986E+0	1.744913E+0	1.716953E+0	1.709029E+0	1.745615E+0	1.767876E+0	1.751524E+0	1.707200E+0	1.717475E+0	1.749902E+0	1.803072E+0	1.728847E+0	1.777507E+0	1.737954E+0	1.730371E+0	1.747253E+0	1.780019E+0	1.714161E+0	1.784201E+0	1.706826E+0	1.704127E+0	1.677275E+0	1.732270E+0	1.800379E+0	1.724716E+0	1.759615E+0	1.760821E+0	1.713220E+0	1.729848E+0	1.691010E+0	1.656476E+0	1.765246E+0	1.691493E+0	1.790794E+0	1.668134E+0	1.713473E+0	1.776015E+0	1.629946E+0	1.779390E+0	1.735990E+0	1.759795E+0	1.688744E+0	1.806785E+0	1.713561E+0	1.794797E+0	1.662844E+0	1.696089E+0	1.716004E+0	1.725755E+0	1.765604E+0	1.694840E+0	1.629556E+0	1.707482E+0	1.665790E+0	1.670445E+0	1.732815E+0	1.699801E+0	1.692506E+0	1.653139E+0	1.785048E+0	1.691902E+0	1.718883E+0	1.752330E+0	1.688965E+0	1.686780E+0	1.699346E+0	1.780299E+0	1.749945E+0	1.697880E+0	1.824230E+0
5.395210E+2	1.868089E+0	1.875155E+0	1.853635E+0	1.832049E+0	1.893813E+0	1.838071E+0	1.827020E+0	1.875484E+0	1.843264E+0	1.847194E+0	1.845971E+0	1.865676E+0	1.808072E+0	1.823935E+0	1.798127E+0	1.804868E+0	1.888811E+0	1.839690E+0	1.797152E+0	1.864435E+0	1.903317E+0	1.858232E+0	1.877589E+0	1.838350E+0	1.868050E+0	1.824191E+0	1.903933E+0	1.856045E+0	1.890923E+0	1.790910E+0	1.799260E+0	1.868067E+0	1.893400E+0	1.722529E+0	1.858329E+0	1.904645E+0	1.850502E+0	1.829268E+0	1.885953E+0	1.871827E+0	1.825910E+0	1.871724E+0	1.866391E+0	1.765633E+0	1.798698E+0	1.844977E+0	1.798827E+0	1.932489E+0	1.861437E+0	1.825533E+0	1.838789E+0	1.871955E+0	1.811642E+0	1.826849E+0	1.823523E+0	1.840644E+0	1.900853E+0	1.830212E+0	1.876286E+0	1.879796E+0	1.836302E+0	1.801651E+0	1.810154E+0	1.875846E+0	1.819444E+0	1.776968E+0	1.833388E+0	1.803881E+0	1.865141E+0	1.833499E+0	1.781038E+0	1.789561E+0	1.816223E+0	1.846626E+0	1.790121E+0	1.885057E+0	1.880170E+0	1.762115E+0	1.796947E+0	1.855295E+0	1.833678E+0	1.797654E+0	1.798248E+0	1.831186E+0	1.875584E+0	1.788623E+0	1.841028E+0	1.801007E+0	1.827370E+0	1.803831E+0	1.881288E+0	1.855472E+0	1.759499E+0	1.871953E+0	1.763794E+0	1.751246E+0	1.844562E+0	1.876115E+0	1.819641E+0	1.795121E+0	1.806082E+0	1.859738E+0	1.827546E+0	1.802108E+0	1.750360E+0	1.875933E+0	1.830720E+0	1.769978E+0	1.862134E+0	1.837312E+0	1.810621E+0	1.831582E+0	1.785522E+0	1.747243E+0	1.837946E+0	1.802516E+0	1.856373E+0	1.810938E+0	1.870723E+0	1.824315E+0	1.810634E+0	1.800500E+0	1.867702E+0	1.792945E+0	1.860584E+0	1.755333E+0	1.757681E+0	1.836444E+0	1.852772E+0	1.719444E+0	1.762546E+0	1.841324E+0	1.772011E+0	1.853714E+0	1.769371E+0	1.781408E+0	1.933299E+0	1.768104E+0	1.726538E+0	1.786332E+0	1.773150E+0	1.776585E+0	1.813639E+0	1.788176E+0	1.895126E+0	1.720884E+0	1.772948E+0	1.865994E+0	1.788848E+0	1.772447E+0	1.725995E+0	1.786313E+0	1.740466E+0	1.836294E+0	1.736238E+0	1.772752E+0	1.760574E+0	1.778096E+0	1.736255E+0	1.791657E+0	1.781009E+0	1.830618E+0	1.751615E+0	1.743756E+0	1.854015E+0	1.764205E+0	1.795214E+0	1.822946E+0	1.788678E+0	1.761738E+0
5.397750E+2	1.909008E+0	1.886488E+0	1.829410E+0	1.906986E+0	1.952695E+0	1.862976E+0	1.904880E+0	1.865559E+0	1.921523E+0	1.923081E+0	1.942854E+0	1.894651E+0	1.870170E+0	1.814585E+0	1.888027E+0	1.873639E+0	1.896710E+0	1.853365E+0	1.837682E+0	1.923186E+0	1.923708E+0	1.936561E+0	1.901865E+0	1.967933E+0	1.948149E+0	1.873079E+0	1.839320E+0	1.904065E+0	1.854061E+0	1.825786E+0	1.863042E+0	1.909728E+0	1.990346E+0	1.841472E+0	1.890049E+0	1.929802E+0	1.895733E+0	1.934614E+0	1.883713E+0	1.866487E+0	1.950521E+0	1.810809E+0	1.922942E+0	1.911292E+0	1.850881E+0	1.833399E+0	1.913135E+0	1.832020E+0	1.908243E+0	1.865059E+0	1.819340E+0	1.854128E+0	1.861468E+0	1.840562E+0	1.937057E+0	1.887247E+0	1.969047E+0	1.836728E+0	1.862678E+0	1.832619E+0	1.830529E+0	1.874694E+0	1.779503E+0	1.817157E+0	1.884553E+0	1.823588E+0	1.857756E+0	1.912213E+0	1.841512E+0	1.908846E+0	1.902407E+0	1.803388E+0	1.890506E+0	1.912570E+0	1.863680E+0	1.893032E+0	1.787963E+0	1.840442E+0	1.849137E+0	1.859269E+0	1.859775E+0	1.863102E+0	1.856467E+0	1.906061E+0	1.858384E+0	1.831887E+0	1.876720E+0	1.867107E+0	1.876040E+0	1.915793E+0	1.907576E+0	1.900587E+0	1.827794E+0	1.909135E+0	1.828783E+0	1.815360E+0	1.859030E+0	1.857005E+0	1.855003E+0	1.867243E+0	1.802868E+0	1.862446E+0	1.871026E+0	1.869071E+0	1.724372E+0	1.927581E+0	1.859803E+0	1.866832E+0	1.770485E+0	1.919163E+0	1.923707E+0	1.784072E+0	1.849261E+0	1.808980E+0	1.929320E+0	1.832941E+0	1.854983E+0	1.802338E+0	1.890120E+0	1.832300E+0	1.851995E+0	1.805806E+0	1.931664E+0	1.843066E+0	1.793355E+0	1.844906E+0	1.870947E+0	1.889716E+0	1.811253E+0	1.830676E+0	1.791873E+0	1.840391E+0	1.846401E+0	1.865889E+0	1.828566E+0	1.792615E+0	1.843071E+0	1.804107E+0	1.843634E+0	1.857705E+0	1.896490E+0	1.829495E+0	1.839798E+0	1.763338E+0	1.865287E+0	1.771452E+0	1.815577E+0	1.829428E+0	1.845753E+0	1.832561E+0	1.894943E+0	1.792215E+0	1.764024E+0	1.811202E+0	1.834622E+0	1.838361E+0	1.820813E+0	1.768842E+0	1.841575E+0	1.913328E+0	1.825678E+0	1.817681E+0	1.851310E+0	1.786517E+0	1.786589E+0	1.792727E+0	1.826965E+0	1.839283E+0	1.803226E+0	1.853266E+0
5.400190E+2	1.855718E+0	1.891915E+0	1.910481E+0	1.915582E+0	1.898661E+0	1.869419E+0	1.881514E+0	1.922635E+0	1.933890E+0	1.893050E+0	1.864785E+0	1.881190E+0	1.930228E+0	1.863768E+0	1.884883E+0	1.830596E+0	1.917150E+0	1.849123E+0	1.828703E+0	1.912548E+0	1.985306E+0	1.891420E+0	1.860863E+0	1.973751E+0	1.858204E+0	1.826210E+0	1.821828E+0	1.832289E+0	1.829041E+0	1.902976E+0	1.865389E+0	1.902521E+0	1.856591E+0	1.839086E+0	1.852565E+0	1.939983E+0	1.882685E+0	1.948912E+0	1.897599E+0	1.929217E+0	1.930248E+0	1.822040E+0	1.836209E+0	1.906830E+0	1.905665E+0	1.831257E+0	1.892235E+0	1.839708E+0	1.926681E+0	1.852866E+0	1.821722E+0	1.778791E+0	1.920245E+0	1.851446E+0	1.900304E+0	1.857068E+0	1.893686E+0	1.862998E+0	1.897394E+0	1.916853E+0	1.874831E+0	1.796364E+0	1.871511E+0	1.903841E+0	1.894659E+0	1.908197E+0	1.845610E+0	1.889863E+0	1.816803E+0	1.914062E+0	1.866207E+0	1.863405E+0	1.865873E+0	1.897969E+0	1.877533E+0	1.883573E+0	1.927344E+0	1.907237E+0	1.808335E+0	1.886829E+0	1.874288E+0	1.826304E+0	1.883471E+0	1.921674E+0	1.836844E+0	1.918644E+0	1.926993E+0	1.890639E+0	1.830072E+0	1.923448E+0	1.895102E+0	1.882184E+0	1.867874E+0	1.829529E+0	1.816157E+0	1.898460E+0	1.868301E+0	1.905482E+0	1.899790E+0	1.822576E+0	1.856906E+0	1.869886E+0	1.858399E+0	1.836791E+0	1.833829E+0	1.888713E+0	1.872963E+0	1.896137E+0	1.853272E+0	1.875074E+0	1.921589E+0	1.767476E+0	1.917693E+0	1.817962E+0	1.874485E+0	1.894698E+0	1.877816E+0	1.820746E+0	1.913589E+0	1.873706E+0	1.844946E+0	1.768405E+0	1.856572E+0	1.787001E+0	1.919698E+0	1.840741E+0	1.863235E+0	1.875137E+0	1.831024E+0	1.859953E+0	1.798806E+0	1.867666E+0	1.814614E+0	1.858751E+0	1.883369E+0	1.786333E+0	1.870993E+0	1.755552E+0	1.848705E+0	1.863669E+0	1.811439E+0	1.872147E+0	1.823581E+0	1.882375E+0	1.856252E+0	1.739776E+0	1.782508E+0	1.883217E+0	1.873168E+0	1.825454E+0	1.832726E+0	1.799062E+0	1.764790E+0	1.794842E+0	1.850389E+0	1.842637E+0	1.720715E+0	1.784415E+0	1.854408E+0	1.839040E+0	1.871621E+0	1.816408E+0	1.802508E+0	1.832865E+0	1.793123E+0	1.847707E+0	1.828068E+0	1.805762E+0	1.728849E+0	1.808461E+0
5.402630E+2	1.796660E+0	1.796819E+0	1.826271E+0	1.748084E+0	1.835536E+0	1.772803E+0	1.793806E+0	1.779024E+0	1.785070E+0	1.790738E+0	1.781736E+0	1.766753E+0	1.763383E+0	1.772902E+0	1.771260E+0	1.784646E+0	1.801394E+0	1.769476E+0	1.721562E+0	1.755892E+0	1.807797E+0	1.810958E+0	1.768915E+0	1.694419E+0	1.827101E+0	1.769328E+0	1.780444E+0	1.770851E+0	1.780677E+0	1.827147E+0	1.731730E+0	1.693147E+0	1.792823E+0	1.665899E+0	1.815723E+0	1.832870E+0	1.795488E+0	1.838998E+0	1.751720E+0	1.743750E+0	1.781962E+0	1.727748E+0	1.793931E+0	1.760034E+0	1.801965E+0	1.695750E+0	1.733163E+0	1.748413E+0	1.790868E+0	1.795890E+0	1.783467E+0	1.707085E+0	1.799836E+0	1.701344E+0	1.780416E+0	1.817842E+0	1.770277E+0	1.780103E+0	1.737843E+0	1.823820E+0	1.804943E+0	1.717796E+0	1.724728E+0	1.709342E+0	1.723032E+0	1.803146E+0	1.744665E+0	1.826189E+0	1.775758E+0	1.859397E+0	1.753220E+0	1.760372E+0	1.811596E+0	1.756615E+0	1.745574E+0	1.744770E+0	1.766852E+0	1.756229E+0	1.747943E+0	1.775242E+0	1.725507E+0	1.726784E+0	1.821050E+0	1.739005E+0	1.803390E+0	1.751313E+0	1.742182E+0	1.715789E+0	1.740701E+0	1.768664E+0	1.773564E+0	1.770643E+0	1.730308E+0	1.784789E+0	1.735839E+0	1.760278E+0	1.719290E+0	1.738651E+0	1.693615E+0	1.713940E+0	1.754363E+0	1.779552E+0	1.736242E+0	1.671962E+0	1.775805E+0	1.760693E+0	1.764667E+0	1.682463E+0	1.759814E+0	1.755399E+0	1.760382E+0	1.696840E+0	1.782992E+0	1.703287E+0	1.760775E+0	1.676541E+0	1.808734E+0	1.724445E+0	1.756174E+0	1.729512E+0	1.781006E+0	1.744314E+0	1.727473E+0	1.753364E+0	1.755143E+0	1.693371E+0	1.792538E+0	1.739816E+0	1.734605E+0	1.756506E+0	1.823590E+0	1.748919E+0	1.684241E+0	1.776640E+0	1.714573E+0	1.773335E+0	1.758528E+0	1.689073E+0	1.758043E+0	1.745374E+0	1.680287E+0	1.642534E+0	1.721864E+0	1.740042E+0	1.778855E+0	1.744913E+0	1.712483E+0	1.731811E+0	1.694404E+0	1.762952E+0	1.822264E+0	1.610379E+0	1.669769E+0	1.727643E+0	1.729448E+0	1.719534E+0	1.686246E+0	1.709907E+0	1.660904E+0	1.747177E+0	1.757402E+0	1.663163E+0	1.732359E+0	1.680101E+0	1.695100E+0	1.629328E+0	1.690835E+0	1.696856E+0	1.729732E+0	1.678192E+0
5.405240E+2	1.724254E+0	1.650980E+0	1.647830E+0	1.688459E+0	1.718490E+0	1.673230E+0	1.621608E+0	1.709265E+0	1.690401E+0	1.716429E+0	1.699756E+0	1.691422E+0	1.689026E+0	1.664339E+0	1.651695E+0	1.634286E+0	1.695761E+0	1.694453E+0	1.662437E+0	1.644912E+0	1.695178E+0	1.716177E+0	1.724753E+0	1.790587E+0	1.641629E+0	1.655884E+0	1.695529E+0	1.686346E+0	1.700252E+0	1.712621E+0	1.620540E+0	1.620791E+0	1.706837E+0	1.609843E+0	1.696974E+0	1.707077E+0	1.684349E+0	1.708777E+0	1.666505E+0	1.668844E+0	1.734921E+0	1.716046E+0	1.691250E+0	1.647014E+0	1.630954E+0	1.671019E+0	1.672296E+0	1.715405E+0	1.670397E+0	1.703826E+0	1.691020E+0	1.640224E+0	1.724718E+0	1.611576E+0	1.664436E+0	1.653290E+0	1.631696E+0	1.678657E+0	1.656518E+0	1.681934E+0	1.604154E+0	1.656567E+0	1.614131E+0	1.638931E+0	1.677845E+0	1.680637E+0	1.642187E+0	1.710660E+0	1.750586E+0	1.692730E+0	1.651385E+0	1.632306E+0	1.659332E+0	1.681197E+0	1.612341E+0	1.694857E+0	1.685764E+0	1.655536E+0	1.604005E+0	1.712288E+0	1.660199E+0	1.603710E+0	1.661602E+0	1.679296E+0	1.671337E+0	1.677488E+0	1.669911E+0	1.704901E+0	1.651874E+0	1.673753E+0	1.669214E+0	1.692643E+0	1.602310E+0	1.641534E+0	1.703131E+0	1.632329E+0	1.614318E+0	1.745827E+0	1.652860E+0	1.698786E+0	1.672122E+0	1.650921E+0	1.646344E+0	1.693538E+0	1.705938E+0	1.605872E+0	1.653807E+0	1.726117E+0	1.686509E+0	1.669736E+0	1.709975E+0	1.617373E+0	1.671499E+0	1.587860E+0	1.624679E+0	1.578101E+0	1.675797E+0	1.617959E+0	1.718222E+0	1.627801E+0	1.712609E+0	1.647060E+0	1.665752E+0	1.625614E+0	1.733716E+0	1.669963E+0	1.664363E+0	1.659798E+0	1.703894E+0	1.627139E+0	1.582749E+0	1.677311E+0	1.655228E+0	1.628540E+0	1.688589E+0	1.630605E+0	1.708310E+0	1.571604E+0	1.665078E+0	1.710706E+0	1.636067E+0	1.666532E+0	1.672634E+0	1.652017E+0	1.729318E+0	1.627111E+0	1.669859E+0	1.669127E+0	1.684104E+0	1.600596E+0	1.679606E+0	1.586485E+0	1.584436E+0	1.565449E+0	1.614788E+0	1.670790E+0	1.656737E+0	1.632325E+0	1.642331E+0	1.644258E+0	1.643149E+0	1.640788E+0	1.714611E+0	1.548898E+0	1.602419E+0	1.606458E+0	1.681453E+0	1.628767E+0	1.686222E+0	1.670216E+0
5.407630E+2	1.652315E+0	1.632413E+0	1.635335E+0	1.646105E+0	1.733692E+0	1.679621E+0	1.683860E+0	1.683494E+0	1.694331E+0	1.660108E+0	1.633296E+0	1.615097E+0	1.623066E+0	1.614683E+0	1.637225E+0	1.657658E+0	1.600243E+0	1.636047E+0	1.591554E+0	1.617577E+0	1.653225E+0	1.693724E+0	1.656027E+0	1.655466E+0	1.741351E+0	1.670502E+0	1.660459E+0	1.645853E+0	1.679669E+0	1.635132E+0	1.704748E+0	1.689218E+0	1.694757E+0	1.587671E+0	1.674219E+0	1.662830E+0	1.662633E+0	1.675492E+0	1.621007E+0	1.587658E+0	1.671264E+0	1.540664E+0	1.669543E+0	1.673151E+0	1.646693E+0	1.565162E+0	1.649998E+0	1.609772E+0	1.682714E+0	1.632904E+0	1.710206E+0	1.577384E+0	1.613050E+0	1.613071E+0	1.642765E+0	1.648793E+0	1.710985E+0	1.616033E+0	1.610813E+0	1.713846E+0	1.571794E+0	1.593915E+0	1.567334E+0	1.596829E+0	1.637725E+0	1.615575E+0	1.667380E+0	1.644085E+0	1.687013E+0	1.692250E+0	1.635847E+0	1.588974E+0	1.676543E+0	1.625470E+0	1.639312E+0	1.631935E+0	1.590854E+0	1.656071E+0	1.600017E+0	1.688085E+0	1.630613E+0	1.624984E+0	1.580701E+0	1.629890E+0	1.611812E+0	1.646184E+0	1.662585E+0	1.654260E+0	1.623131E+0	1.616776E+0	1.722360E+0	1.598401E+0	1.638436E+0	1.709097E+0	1.642017E+0	1.627651E+0	1.643953E+0	1.689732E+0	1.656325E+0	1.671388E+0	1.629101E+0	1.639526E+0	1.610200E+0	1.659991E+0	1.652978E+0	1.634473E+0	1.573704E+0	1.621346E+0	1.659461E+0	1.593599E+0	1.634281E+0	1.531875E+0	1.677397E+0	1.641721E+0	1.639442E+0	1.652136E+0	1.657655E+0	1.619514E+0	1.699133E+0	1.622505E+0	1.648183E+0	1.553341E+0	1.615750E+0	1.627964E+0	1.685278E+0	1.635173E+0	1.598269E+0	1.569946E+0	1.656319E+0	1.599665E+0	1.636883E+0	1.616819E+0	1.613222E+0	1.638488E+0	1.597077E+0	1.612580E+0	1.640191E+0	1.542573E+0	1.612549E+0	1.677359E+0	1.683621E+0	1.581364E+0	1.651018E+0	1.593486E+0	1.620485E+0	1.570524E+0	1.639573E+0	1.627305E+0	1.662759E+0	1.603526E+0	1.642392E+0	1.599203E+0	1.575228E+0	1.668511E+0	1.620585E+0	1.572440E+0	1.594334E+0	1.605875E+0	1.630952E+0	1.592062E+0	1.586879E+0	1.644327E+0	1.665716E+0	1.536743E+0	1.606622E+0	1.545490E+0	1.596744E+0	1.641971E+0	1.686874E+0	1.572362E+0
5.410240E+2	1.618313E+0	1.616971E+0	1.626585E+0	1.618125E+0	1.648700E+0	1.611319E+0	1.559125E+0	1.650397E+0	1.681753E+0	1.672326E+0	1.589458E+0	1.613161E+0	1.649028E+0	1.606135E+0	1.631242E+0	1.629010E+0	1.660681E+0	1.590618E+0	1.529140E+0	1.601150E+0	1.597424E+0	1.562804E+0	1.621661E+0	1.680901E+0	1.653582E+0	1.628000E+0	1.613561E+0	1.562974E+0	1.614350E+0	1.638313E+0	1.590868E+0	1.589154E+0	1.655789E+0	1.606072E+0	1.607441E+0	1.664596E+0	1.579788E+0	1.595508E+0	1.607446E+0	1.628783E+0	1.624150E+0	1.601865E+0	1.641914E+0	1.681308E+0	1.559958E+0	1.649520E+0	1.647945E+0	1.611881E+0	1.655374E+0	1.597052E+0	1.629663E+0	1.576404E+0	1.667895E+0	1.638472E+0	1.683472E+0	1.613018E+0	1.676759E+0	1.573538E+0	1.591191E+0	1.658415E+0	1.666118E+0	1.570787E+0	1.581703E+0	1.597758E+0	1.670605E+0	1.583851E+0	1.607253E+0	1.631891E+0	1.688607E+0	1.654319E+0	1.528489E+0	1.585561E+0	1.539571E+0	1.670085E+0	1.636217E+0	1.677167E+0	1.585588E+0	1.654958E+0	1.577839E+0	1.624902E+0	1.626843E+0	1.588122E+0	1.665080E+0	1.579768E+0	1.584541E+0	1.593288E+0	1.623009E+0	1.599240E+0	1.592855E+0	1.590884E+0	1.665597E+0	1.631475E+0	1.599484E+0	1.626141E+0	1.731622E+0	1.575623E+0	1.633972E+0	1.561313E+0	1.666962E+0	1.576615E+0	1.580863E+0	1.640992E+0	1.623672E+0	1.595457E+0	1.658045E+0	1.626527E+0	1.549349E+0	1.610917E+0	1.639234E+0	1.576920E+0	1.630469E+0	1.537624E+0	1.596022E+0	1.598348E+0	1.651273E+0	1.595035E+0	1.646291E+0	1.567643E+0	1.639754E+0	1.595024E+0	1.634733E+0	1.521091E+0	1.566437E+0	1.543186E+0	1.631789E+0	1.546376E+0	1.581948E+0	1.591104E+0	1.614673E+0	1.593209E+0	1.520774E+0	1.648211E+0	1.620384E+0	1.580555E+0	1.608676E+0	1.626544E+0	1.594208E+0	1.578555E+0	1.568941E+0	1.570596E+0	1.670021E+0	1.514773E+0	1.595771E+0	1.594597E+0	1.609916E+0	1.527936E+0	1.629661E+0	1.580824E+0	1.542696E+0	1.521908E+0	1.599576E+0	1.554759E+0	1.555157E+0	1.624213E+0	1.584649E+0	1.576363E+0	1.672400E+0	1.598433E+0	1.617192E+0	1.584600E+0	1.615950E+0	1.599365E+0	1.569288E+0	1.534342E+0	1.574527E+0	1.606320E+0	1.561508E+0	1.562146E+0	1.612978E+0	1.578538E+0
5.412530E+2	1.570562E+0	1.570750E+0	1.537025E+0	1.617466E+0	1.630000E+0	1.525947E+0	1.534894E+0	1.569829E+0	1.585272E+0	1.571761E+0	1.536446E+0	1.545759E+0	1.505099E+0	1.533776E+0	1.606787E+0	1.497825E+0	1.546778E+0	1.511898E+0	1.483777E+0	1.591288E+0	1.556067E+0	1.505871E+0	1.531651E+0	1.653079E+0	1.548296E+0	1.536349E+0	1.647603E+0	1.522737E+0	1.637075E+0	1.569337E+0	1.554426E+0	1.532827E+0	1.622139E+0	1.568911E+0	1.549387E+0	1.570474E+0	1.609253E+0	1.585262E+0	1.579196E+0	1.567470E+0	1.559868E+0	1.513925E+0	1.515764E+0	1.541508E+0	1.566578E+0	1.519651E+0	1.589378E+0	1.557506E+0	1.587963E+0	1.521242E+0	1.581616E+0	1.521156E+0	1.588303E+0	1.513501E+0	1.568101E+0	1.458148E+0	1.576060E+0	1.568526E+0	1.532590E+0	1.564168E+0	1.543429E+0	1.532654E+0	1.552463E+0	1.560306E+0	1.602408E+0	1.531643E+0	1.519513E+0	1.595597E+0	1.539966E+0	1.559650E+0	1.501152E+0	1.570036E+0	1.530166E+0	1.570738E+0	1.461636E+0	1.587709E+0	1.562474E+0	1.498456E+0	1.496758E+0	1.552512E+0	1.571285E+0	1.505932E+0	1.561003E+0	1.519926E+0	1.577711E+0	1.486314E+0	1.542771E+0	1.523594E+0	1.528154E+0	1.533416E+0	1.583065E+0	1.564125E+0	1.575168E+0	1.567311E+0	1.615411E+0	1.525977E+0	1.579203E+0	1.495459E+0	1.528325E+0	1.471322E+0	1.556422E+0	1.565383E+0	1.538245E+0	1.496314E+0	1.565241E+0	1.536035E+0	1.528112E+0	1.536313E+0	1.582835E+0	1.546106E+0	1.567069E+0	1.486682E+0	1.562489E+0	1.533799E+0	1.567733E+0	1.509912E+0	1.559862E+0	1.498616E+0	1.548648E+0	1.541987E+0	1.555193E+0	1.531244E+0	1.542651E+0	1.466399E+0	1.617357E+0	1.523356E+0	1.575917E+0	1.525224E+0	1.594245E+0	1.474821E+0	1.492588E+0	1.493233E+0	1.505555E+0	1.588043E+0	1.504677E+0	1.523674E+0	1.559145E+0	1.508352E+0	1.470088E+0	1.539013E+0	1.569693E+0	1.527824E+0	1.543648E+0	1.541513E+0	1.612212E+0	1.495528E+0	1.537747E+0	1.510384E+0	1.571079E+0	1.522952E+0	1.497413E+0	1.531099E+0	1.452316E+0	1.538932E+0	1.502784E+0	1.485580E+0	1.591279E+0	1.514707E+0	1.563011E+0	1.541651E+0	1.512847E+0	1.555051E+0	1.536567E+0	1.470455E+0	1.542584E+0	1.524368E+0	1.579380E+0	1.419077E+0	1.514141E+0	1.547304E+0
5.415190E+2	1.409546E+0	1.472204E+0	1.412889E+0	1.480295E+0	1.443872E+0	1.466909E+0	1.422579E+0	1.435287E+0	1.351258E+0	1.423371E+0	1.408830E+0	1.438016E+0	1.382561E+0	1.365895E+0	1.391024E+0	1.434465E+0	1.415605E+0	1.405136E+0	1.399507E+0	1.451205E+0	1.415159E+0	1.434532E+0	1.380238E+0	1.485757E+0	1.419239E+0	1.403949E+0	1.472264E+0	1.400536E+0	1.422985E+0	1.427215E+0	1.411739E+0	1.426258E+0	1.433557E+0	1.354905E+0	1.424271E+0	1.404221E+0	1.405181E+0	1.450760E+0	1.437130E+0	1.438865E+0	1.472140E+0	1.398989E+0	1.368525E+0	1.427877E+0	1.422542E+0	1.398525E+0	1.396447E+0	1.432493E+0	1.424359E+0	1.475970E+0	1.377237E+0	1.431823E+0	1.392009E+0	1.430743E+0	1.433720E+0	1.427246E+0	1.440286E+0	1.424052E+0	1.430123E+0	1.453572E+0	1.367963E+0	1.341715E+0	1.364798E+0	1.388673E+0	1.382352E+0	1.392648E+0	1.381973E+0	1.437750E+0	1.463960E+0	1.470529E+0	1.402054E+0	1.363354E+0	1.372711E+0	1.505382E+0	1.375921E+0	1.405751E+0	1.422850E+0	1.367448E+0	1.362221E+0	1.447440E+0	1.454527E+0	1.330237E+0	1.441497E+0	1.433758E+0	1.403281E+0	1.332515E+0	1.435696E+0	1.385028E+0	1.387079E+0	1.429046E+0	1.445944E+0	1.394280E+0	1.434061E+0	1.476411E+0	1.373474E+0	1.366273E+0	1.417403E+0	1.440250E+0	1.374942E+0	1.339304E+0	1.491929E+0	1.452308E+0	1.440211E+0	1.389252E+0	1.423187E+0	1.439816E+0	1.358079E+0	1.393581E+0	1.396998E+0	1.444818E+0	1.493980E+0	1.364140E+0	1.457846E+0	1.405929E+0	1.343568E+0	1.403270E+0	1.439371E+0	1.406891E+0	1.440374E+0	1.428905E+0	1.473066E+0	1.404805E+0	1.434837E+0	1.396203E+0	1.407561E+0	1.451310E+0	1.400936E+0	1.386164E+0	1.501806E+0	1.403569E+0	1.380588E+0	1.435659E+0	1.413689E+0	1.401849E+0	1.416700E+0	1.413259E+0	1.428439E+0	1.378867E+0	1.420574E+0	1.462798E+0	1.428411E+0	1.361283E+0	1.364961E+0	1.382438E+0	1.398598E+0	1.337058E+0	1.462915E+0	1.329918E+0	1.456465E+0	1.391315E+0	1.368727E+0	1.420827E+0	1.349691E+0	1.365029E+0	1.332823E+0	1.436706E+0	1.391564E+0	1.403083E+0	1.427478E+0	1.365107E+0	1.389611E+0	1.386000E+0	1.396686E+0	1.341714E+0	1.426471E+0	1.457805E+0	1.446539E+0	1.405403E+0	1.395699E+0	1.382470E+0
5.417650E+2	1.244066E+0	1.266762E+0	1.218784E+0	1.282743E+0	1.317366E+0	1.244484E+0	1.286612E+0	1.275855E+0	1.265129E+0	1.312844E+0	1.258237E+0	1.286016E+0	1.262040E+0	1.190051E+0	1.266141E+0	1.236899E+0	1.304671E+0	1.258350E+0	1.244432E+0	1.296542E+0	1.292954E+0	1.262478E+0	1.242249E+0	1.303256E+0	1.280311E+0	1.314867E+0	1.305837E+0	1.299784E+0	1.237786E+0	1.234138E+0	1.310730E+0	1.295950E+0	1.252855E+0	1.252691E+0	1.300878E+0	1.319186E+0	1.275436E+0	1.339343E+0	1.285574E+0	1.266695E+0	1.241987E+0	1.239784E+0	1.321474E+0	1.328997E+0	1.230480E+0	1.245471E+0	1.229986E+0	1.255279E+0	1.296125E+0	1.236886E+0	1.254204E+0	1.251426E+0	1.282663E+0	1.278419E+0	1.284084E+0	1.265237E+0	1.293691E+0	1.231091E+0	1.229121E+0	1.276127E+0	1.297233E+0	1.283039E+0	1.285883E+0	1.211289E+0	1.268374E+0	1.265868E+0	1.243448E+0	1.309171E+0	1.265200E+0	1.330396E+0	1.246838E+0	1.272818E+0	1.231279E+0	1.319221E+0	1.262129E+0	1.247696E+0	1.269849E+0	1.308188E+0	1.249731E+0	1.274435E+0	1.234966E+0	1.243973E+0	1.279843E+0	1.244462E+0	1.247464E+0	1.277577E+0	1.323561E+0	1.266753E+0	1.274332E+0	1.285959E+0	1.289580E+0	1.249393E+0	1.261015E+0	1.256563E+0	1.255517E+0	1.321403E+0	1.315983E+0	1.306861E+0	1.262412E+0	1.287345E+0	1.288968E+0	1.299622E+0	1.278946E+0	1.220296E+0	1.311037E+0	1.214017E+0	1.262435E+0	1.273766E+0	1.235602E+0	1.235930E+0	1.274754E+0	1.208331E+0	1.285609E+0	1.274548E+0	1.278748E+0	1.255605E+0	1.293519E+0	1.257124E+0	1.294454E+0	1.243068E+0	1.309910E+0	1.246116E+0	1.211350E+0	1.278547E+0	1.268164E+0	1.241476E+0	1.254039E+0	1.255256E+0	1.278972E+0	1.243949E+0	1.255955E+0	1.307733E+0	1.271235E+0	1.263069E+0	1.269153E+0	1.303226E+0	1.264568E+0	1.252995E+0	1.234973E+0	1.252475E+0	1.293854E+0	1.229698E+0	1.284325E+0	1.295527E+0	1.323417E+0	1.177318E+0	1.337418E+0	1.238720E+0	1.255390E+0	1.237768E+0	1.283814E+0	1.268666E+0	1.218347E+0	1.217855E+0	1.259121E+0	1.242794E+0	1.236339E+0	1.269945E+0	1.297908E+0	1.234959E+0	1.273402E+0	1.245003E+0	1.306476E+0	1.263345E+0	1.272117E+0	1.309499E+0	1.287310E+0	1.316282E+0	1.266247E+0	1.241547E+0
5.420320E+2	1.053744E+0	1.098254E+0	1.017153E+0	1.118972E+0	1.045593E+0	1.057730E+0	1.089186E+0	1.062920E+0	1.071618E+0	1.109137E+0	1.039129E+0	1.034333E+0	1.066245E+0	1.040297E+0	1.073909E+0	1.049773E+0	1.060779E+0	1.075151E+0	1.023266E+0	1.091975E+0	1.072243E+0	1.127362E+0	1.102906E+0	1.123019E+0	1.108465E+0	1.074287E+0	1.043525E+0	1.000879E+0	1.046943E+0	1.097555E+0	1.113272E+0	1.056992E+0	1.054815E+0	1.069199E+0	1.036780E+0	1.123338E+0	1.062213E+0	1.086064E+0	1.141042E+0	1.085807E+0	1.065150E+0	1.121601E+0	1.072421E+0	1.077874E+0	1.040508E+0	1.053432E+0	1.092725E+0	1.056807E+0	1.053213E+0	1.054418E+0	1.076806E+0	1.038313E+0	1.055988E+0	1.050147E+0	1.126752E+0	1.033818E+0	1.096190E+0	1.107580E+0	1.046034E+0	1.071608E+0	1.047970E+0	1.047044E+0	1.058926E+0	1.060982E+0	1.092051E+0	1.053353E+0	1.050506E+0	1.064099E+0	1.119951E+0	1.054994E+0	1.080187E+0	1.098194E+0	1.064383E+0	1.049911E+0	1.058824E+0	1.092115E+0	1.093466E+0	1.115689E+0	1.034446E+0	1.038268E+0	1.069658E+0	1.081780E+0	1.105058E+0	1.058962E+0	1.058097E+0	1.111729E+0	1.070500E+0	1.046101E+0	1.051925E+0	1.108422E+0	1.103029E+0	1.107683E+0	1.063912E+0	1.104127E+0	1.045729E+0	1.074097E+0	1.111800E+0	1.122625E+0	1.086352E+0	1.068678E+0	1.027027E+0	1.056265E+0	1.079464E+0	1.096903E+0	1.033046E+0	1.111770E+0	1.062596E+0	1.066752E+0	1.124083E+0	1.094197E+0	1.086414E+0	1.053478E+0	1.106506E+0	1.086001E+0	1.072278E+0	1.085848E+0	1.081731E+0	1.102151E+0	1.103605E+0	1.039088E+0	1.070598E+0	1.017300E+0	1.039700E+0	1.062819E+0	1.040002E+0	1.012911E+0	1.060609E+0	1.055740E+0	1.119900E+0	1.053933E+0	1.054014E+0	1.078475E+0	1.056605E+0	1.051446E+0	1.074772E+0	1.074964E+0	1.136020E+0	1.033010E+0	1.038463E+0	1.076905E+0	1.112417E+0	1.079827E+0	1.094483E+0	1.055171E+0	1.099163E+0	1.028094E+0	1.068861E+0	1.056601E+0	1.077069E+0	1.065849E+0	1.021934E+0	1.027682E+0	1.081327E+0	1.047079E+0	1.044387E+0	1.069504E+0	1.050751E+0	1.024521E+0	1.034595E+0	1.111954E+0	1.126597E+0	1.075247E+0	1.053698E+0	1.043661E+0	1.078534E+0	1.028547E+0	1.070805E+0	1.072487E+0	1.106560E+0	1.118242E+0
5.422670E+2	9.990108E-1	1.005695E+0	9.724638E-1	9.501615E-1	9.813062E-1	9.577673E-1	1.020242E+0	9.936626E-1	9.788479E-1	9.883216E-1	9.409491E-1	1.016073E+0	9.486260E-1	9.641808E-1	9.407707E-1	9.867768E-1	9.554400E-1	9.631839E-1	9.821630E-1	9.948949E-1	9.443015E-1	9.737805E-1	9.748641E-1	1.022360E+0	9.723039E-1	9.901790E-1	9.380523E-1	1.002876E+0	1.019412E+0	9.979665E-1	9.606940E-1	9.881041E-1	9.843484E-1	9.416216E-1	9.748778E-1	9.709042E-1	9.513754E-1	9.527564E-1	9.834871E-1	1.014620E+0	9.638877E-1	9.699106E-1	9.851986E-1	1.014548E+0	9.659303E-1	9.585853E-1	9.866727E-1	9.688807E-1	9.950699E-1	9.837404E-1	9.717995E-1	9.410072E-1	9.488194E-1	9.573515E-1	1.017284E+0	9.644535E-1	9.470772E-1	9.745107E-1	9.521750E-1	9.859657E-1	9.844431E-1	9.523876E-1	9.993767E-1	9.814160E-1	9.842702E-1	9.280236E-1	9.537221E-1	9.965607E-1	9.798565E-1	1.011744E+0	9.696032E-1	9.434780E-1	9.715380E-1	9.897613E-1	9.971898E-1	9.626072E-1	9.888359E-1	1.000087E+0	9.504754E-1	9.604658E-1	9.654529E-1	9.329445E-1	9.778233E-1	9.595378E-1	9.863224E-1	9.756954E-1	9.840315E-1	9.594097E-1	9.681419E-1	9.753039E-1	1.003496E+0	9.602888E-1	9.734917E-1	1.012780E+0	9.794401E-1	9.418333E-1	1.066991E+0	9.864072E-1	9.866247E-1	9.972531E-1	9.458434E-1	9.854049E-1	9.733788E-1	9.471912E-1	9.704023E-1	9.826289E-1	9.985972E-1	9.849290E-1	9.913075E-1	9.776774E-1	9.917109E-1	9.555679E-1	9.432818E-1	9.799886E-1	9.742780E-1	9.449675E-1	9.550029E-1	9.187971E-1	1.003766E+0	1.007370E+0	9.652388E-1	9.736320E-1	9.798157E-1	9.391088E-1	9.853908E-1	9.528754E-1	9.342808E-1	1.018409E+0	9.778124E-1	9.632105E-1	9.738274E-1	9.941553E-1	9.811379E-1	9.859098E-1	9.530920E-1	9.674168E-1	9.842353E-1	9.408460E-1	9.429068E-1	9.750508E-1	9.680306E-1	9.715005E-1	9.707690E-1	1.007390E+0	9.890869E-1	9.297876E-1	9.811635E-1	9.148959E-1	1.012517E+0	9.290524E-1	9.517785E-1	9.505216E-1	9.952432E-1	9.836126E-1	1.039399E+0	9.427078E-1	1.018948E+0	1.012330E+0	9.259987E-1	9.332116E-1	9.737489E-1	1.003255E+0	1.009897E+0	9.337200E-1	1.017367E+0	9.391720E-1	1.001881E+0	9.696423E-1	9.599295E-1	1.074854E+0
5.425460E+2	9.125849E-1	9.268256E-1	8.646946E-1	8.773216E-1	9.360778E-1	8.959110E-1	8.806718E-1	9.357684E-1	8.569195E-1	9.107644E-1	9.128615E-1	9.429424E-1	8.974152E-1	9.008154E-1	9.495066E-1	8.347274E-1	9.360636E-1	8.782976E-1	9.298270E-1	8.855339E-1	9.173731E-1	9.416037E-1	8.643011E-1	9.122495E-1	9.268759E-1	9.554053E-1	9.119920E-1	9.436700E-1	9.220995E-1	9.193214E-1	9.016210E-1	9.426031E-1	8.840691E-1	9.286041E-1	8.898969E-1	9.238546E-1	8.890303E-1	9.335808E-1	8.858355E-1	9.251415E-1	9.125398E-1	9.387232E-1	9.443291E-1	8.976598E-1	9.294953E-1	9.130151E-1	9.681998E-1	9.023185E-1	9.106287E-1	9.300828E-1	9.797555E-1	9.004534E-1	9.139677E-1	8.765731E-1	9.225634E-1	9.101890E-1	9.257216E-1	8.850800E-1	8.749582E-1	9.153556E-1	8.976665E-1	8.949315E-1	9.202632E-1	8.827590E-1	9.028054E-1	8.904915E-1	8.725107E-1	8.540697E-1	9.171331E-1	9.282885E-1	8.947371E-1	9.013376E-1	9.142740E-1	9.164379E-1	9.069670E-1	9.022019E-1	8.738709E-1	9.241862E-1	9.280132E-1	8.693704E-1	9.321401E-1	8.792024E-1	9.267294E-1	8.748401E-1	8.938485E-1	9.202043E-1	9.188814E-1	9.199703E-1	9.104646E-1	9.561301E-1	9.310338E-1	9.344497E-1	9.731784E-1	9.416272E-1	9.079290E-1	8.559437E-1	9.482077E-1	9.420448E-1	8.640721E-1	9.218969E-1	9.014386E-1	9.175625E-1	9.539840E-1	8.934375E-1	9.064459E-1	9.246219E-1	9.518256E-1	8.996799E-1	9.109940E-1	9.300398E-1	9.110752E-1	9.197090E-1	8.985378E-1	9.155061E-1	9.015396E-1	8.942875E-1	9.101877E-1	8.899705E-1	9.079316E-1	8.785783E-1	9.240075E-1	8.824786E-1	9.536184E-1	9.222781E-1	8.769633E-1	9.087137E-1	9.392364E-1	8.730191E-1	9.240934E-1	9.038817E-1	9.156724E-1	9.341741E-1	8.882454E-1	9.189764E-1	9.292919E-1	9.409296E-1	8.467483E-1	8.909231E-1	9.469929E-1	9.285960E-1	8.924422E-1	9.051849E-1	9.287385E-1	9.385183E-1	9.625380E-1	8.529224E-1	9.385155E-1	8.565998E-1	9.383473E-1	8.855484E-1	8.875354E-1	9.120204E-1	8.543348E-1	9.244144E-1	8.921095E-1	8.663908E-1	9.518309E-1	9.123699E-1	8.820131E-1	8.912250E-1	9.406936E-1	9.042047E-1	9.417193E-1	8.934793E-1	8.786239E-1	9.450545E-1	9.540191E-1	9.021089E-1	8.575787E-1	9.267317E-1
5.427550E+2	8.933623E-1	9.035796E-1	8.764744E-1	8.751359E-1	9.064736E-1	9.288891E-1	8.983027E-1	8.632068E-1	9.043283E-1	8.550671E-1	8.978737E-1	8.407013E-1	8.775517E-1	9.084300E-1	8.954693E-1	9.198802E-1	8.752794E-1	9.257821E-1	8.595542E-1	9.080561E-1	8.992931E-1	9.128051E-1	9.053614E-1	9.032259E-1	8.812547E-1	8.839804E-1	8.557538E-1	8.812890E-1	9.054287E-1	9.013878E-1	8.878116E-1	8.631804E-1	8.851686E-1	9.103942E-1	9.383909E-1	8.857105E-1	8.912987E-1	8.995326E-1	9.309586E-1	9.009203E-1	9.145329E-1	9.349590E-1	9.364464E-1	8.985086E-1	8.659041E-1	8.465269E-1	8.979538E-1	8.768317E-1	9.026013E-1	9.126815E-1	9.244952E-1	8.506740E-1	8.444280E-1	8.895067E-1	8.865357E-1	9.037682E-1	9.374597E-1	8.519743E-1	8.439816E-1	8.752093E-1	8.489860E-1	8.754366E-1	9.103434E-1	9.052608E-1	8.748485E-1	8.705440E-1	8.911458E-1	9.601568E-1	8.755785E-1	9.542151E-1	8.450977E-1	8.792897E-1	8.863984E-1	9.328576E-1	9.107042E-1	8.965378E-1	8.824657E-1	9.400301E-1	9.096714E-1	8.722477E-1	8.451573E-1	8.661303E-1	9.134554E-1	9.368536E-1	8.830149E-1	9.345597E-1	9.269183E-1	8.744955E-1	9.056698E-1	9.146768E-1	8.833925E-1	9.368988E-1	8.776549E-1	9.074584E-1	8.787879E-1	9.105786E-1	9.445328E-1	9.109419E-1	8.746847E-1	8.685350E-1	8.668985E-1	8.810422E-1	8.970527E-1	8.852929E-1	8.613622E-1	9.102263E-1	8.865525E-1	8.841016E-1	9.032680E-1	9.010489E-1	9.273114E-1	8.652070E-1	9.136840E-1	8.984112E-1	9.479673E-1	8.902540E-1	8.504482E-1	8.681187E-1	9.457393E-1	9.012677E-1	9.130363E-1	9.213329E-1	9.047447E-1	8.977353E-1	9.109740E-1	8.908033E-1	8.981353E-1	8.688889E-1	8.928359E-1	8.455788E-1	8.990356E-1	8.945208E-1	9.023703E-1	9.199395E-1	8.800407E-1	9.165793E-1	9.038572E-1	9.015958E-1	9.121434E-1	8.549483E-1	9.434101E-1	8.982858E-1	8.602351E-1	9.136267E-1	8.904682E-1	8.246718E-1	8.749429E-1	8.862683E-1	9.465199E-1	8.596160E-1	9.230040E-1	8.731266E-1	8.969406E-1	8.777469E-1	9.097257E-1	8.963275E-1	9.094584E-1	8.949322E-1	8.697080E-1	8.922856E-1	9.252349E-1	8.999071E-1	8.885696E-1	8.405407E-1	8.612087E-1	9.105607E-1	9.069345E-1	9.022215E-1	8.705974E-1	8.698360E-1
5.430120E+2	9.609545E-1	9.784666E-1	9.930077E-1	9.911858E-1	1.015997E+0	9.839554E-1	9.869395E-1	9.775908E-1	9.687939E-1	1.015879E+0	9.223859E-1	9.416031E-1	9.715071E-1	1.011916E+0	9.900830E-1	9.804370E-1	1.017538E+0	1.015047E+0	9.687172E-1	1.081707E+0	1.021848E+0	9.775086E-1	9.741596E-1	1.028678E+0	9.673944E-1	1.026132E+0	9.693405E-1	9.384181E-1	9.597659E-1	9.814274E-1	9.738017E-1	9.753896E-1	9.900657E-1	9.897391E-1	1.012128E+0	1.064448E+0	9.712935E-1	9.687050E-1	1.009629E+0	1.011742E+0	9.786772E-1	9.523089E-1	9.952161E-1	1.019561E+0	9.728204E-1	9.829326E-1	1.002083E+0	1.038514E+0	9.699011E-1	1.016190E+0	9.866421E-1	9.452345E-1	9.719814E-1	9.681959E-1	1.008750E+0	9.929823E-1	9.975971E-1	9.676180E-1	9.889138E-1	9.687155E-1	9.989111E-1	1.019448E+0	9.382665E-1	9.757227E-1	9.730524E-1	9.914576E-1	9.600730E-1	9.896045E-1	9.615767E-1	1.011916E+0	9.842336E-1	9.770897E-1	9.982730E-1	1.033096E+0	1.005618E+0	9.897207E-1	1.032887E+0	1.061763E+0	9.190377E-1	9.902122E-1	9.975436E-1	9.629677E-1	9.493503E-1	9.841752E-1	1.048466E+0	9.715731E-1	9.923016E-1	9.724644E-1	9.536732E-1	1.016543E+0	1.033967E+0	9.941713E-1	9.718984E-1	1.009331E+0	9.356606E-1	9.588314E-1	1.017745E+0	9.761081E-1	9.844976E-1	9.411241E-1	9.756433E-1	9.738715E-1	9.713325E-1	9.761636E-1	9.642054E-1	1.006517E+0	9.855030E-1	1.016292E+0	9.884174E-1	9.849680E-1	1.001653E+0	9.447992E-1	1.029227E+0	9.768157E-1	9.825817E-1	9.485022E-1	9.745949E-1	9.249212E-1	9.881291E-1	9.881682E-1	9.725380E-1	9.351385E-1	9.581804E-1	9.852945E-1	9.859945E-1	9.796923E-1	1.039738E+0	9.754581E-1	1.019995E+0	9.841671E-1	9.908544E-1	9.762620E-1	1.011634E+0	9.827478E-1	9.869889E-1	9.916103E-1	9.878840E-1	9.447485E-1	9.668290E-1	1.003683E+0	1.016386E+0	9.635609E-1	9.985494E-1	9.784905E-1	9.876563E-1	9.341192E-1	9.962341E-1	9.749317E-1	9.819486E-1	9.567674E-1	1.028492E+0	9.530848E-1	9.547786E-1	9.627911E-1	9.738230E-1	1.060349E+0	9.759045E-1	9.998312E-1	1.014629E+0	9.671352E-1	9.960864E-1	9.710403E-1	1.022441E+0	9.685443E-1	1.001381E+0	9.803750E-1	1.003021E+0	1.015222E+0	9.679416E-1	1.027701E+0
5.432960E+2	1.187563E+0	1.141521E+0	1.163961E+0	1.239428E+0	1.233632E+0	1.194620E+0	1.183299E+0	1.238499E+0	1.174948E+0	1.228867E+0	1.186293E+0	1.220678E+0	1.183337E+0	1.193924E+0	1.139782E+0	1.200799E+0	1.179075E+0	1.195321E+0	1.134919E+0	1.204523E+0	1.199762E+0	1.185868E+0	1.153907E+0	1.219717E+0	1.246526E+0	1.170717E+0	1.231895E+0	1.147588E+0	1.141004E+0	1.244712E+0	1.188937E+0	1.174874E+0	1.223000E+0	1.183068E+0	1.171973E+0	1.247513E+0	1.195818E+0	1.241647E+0	1.273982E+0	1.196868E+0	1.155764E+0	1.171020E+0	1.193916E+0	1.264060E+0	1.212789E+0	1.202119E+0	1.148563E+0	1.229056E+0	1.191998E+0	1.179135E+0	1.168997E+0	1.165757E+0	1.165814E+0	1.205737E+0	1.232522E+0	1.194518E+0	1.163423E+0	1.173090E+0	1.182349E+0	1.157892E+0	1.189069E+0	1.206558E+0	1.117994E+0	1.192355E+0	1.213751E+0	1.207323E+0	1.200566E+0	1.249539E+0	1.167708E+0	1.222604E+0	1.164294E+0	1.190879E+0	1.145122E+0	1.217123E+0	1.156078E+0	1.190849E+0	1.201305E+0	1.214686E+0	1.119083E+0	1.109060E+0	1.162602E+0	1.166278E+0	1.191365E+0	1.195953E+0	1.171157E+0	1.145248E+0	1.252139E+0	1.187561E+0	1.199618E+0	1.189441E+0	1.218649E+0	1.142919E+0	1.214214E+0	1.172727E+0	1.204238E+0	1.223284E+0	1.220962E+0	1.225366E+0	1.169669E+0	1.204647E+0	1.153731E+0	1.220775E+0	1.258523E+0	1.181883E+0	1.146188E+0	1.222003E+0	1.191878E+0	1.156852E+0	1.182926E+0	1.244247E+0	1.181193E+0	1.165567E+0	1.210353E+0	1.148978E+0	1.203552E+0	1.146544E+0	1.162152E+0	1.186637E+0	1.238216E+0	1.156234E+0	1.182376E+0	1.152491E+0	1.218005E+0	1.171180E+0	1.246870E+0	1.127949E+0	1.201518E+0	1.128980E+0	1.179416E+0	1.155806E+0	1.144719E+0	1.173689E+0	1.214733E+0	1.246265E+0	1.159865E+0	1.162913E+0	1.237995E+0	1.168809E+0	1.189576E+0	1.166685E+0	1.168442E+0	1.172180E+0	1.268883E+0	1.184889E+0	1.219354E+0	1.149140E+0	1.200682E+0	1.162490E+0	1.219161E+0	1.217782E+0	1.121959E+0	1.137973E+0	1.140237E+0	1.183286E+0	1.224350E+0	1.210128E+0	1.171510E+0	1.177400E+0	1.208199E+0	1.183239E+0	1.172740E+0	1.198822E+0	1.219324E+0	1.114799E+0	1.130819E+0	1.160230E+0	1.114596E+0	1.175734E+0	1.137087E+0	1.212600E+0
5.435270E+2	1.325674E+0	1.309697E+0	1.320507E+0	1.311505E+0	1.380172E+0	1.336382E+0	1.294913E+0	1.306973E+0	1.330903E+0	1.332768E+0	1.345593E+0	1.275539E+0	1.331760E+0	1.286494E+0	1.325979E+0	1.338294E+0	1.323051E+0	1.292833E+0	1.330318E+0	1.329457E+0	1.316098E+0	1.305076E+0	1.335889E+0	1.319609E+0	1.382992E+0	1.302393E+0	1.287015E+0	1.271914E+0	1.283156E+0	1.326395E+0	1.300389E+0	1.361416E+0	1.275193E+0	1.272266E+0	1.333370E+0	1.336585E+0	1.365796E+0	1.357836E+0	1.310413E+0	1.359371E+0	1.242594E+0	1.345276E+0	1.320633E+0	1.309452E+0	1.309180E+0	1.217897E+0	1.319825E+0	1.327990E+0	1.335385E+0	1.297486E+0	1.332442E+0	1.275512E+0	1.274540E+0	1.292077E+0	1.331058E+0	1.331197E+0	1.308830E+0	1.293273E+0	1.360426E+0	1.339185E+0	1.294415E+0	1.269121E+0	1.279308E+0	1.326064E+0	1.280216E+0	1.304222E+0	1.265804E+0	1.316265E+0	1.318699E+0	1.351647E+0	1.333143E+0	1.299813E+0	1.307894E+0	1.311889E+0	1.260894E+0	1.345832E+0	1.266751E+0	1.331055E+0	1.330658E+0	1.316658E+0	1.299976E+0	1.289646E+0	1.274192E+0	1.367807E+0	1.322002E+0	1.312812E+0	1.308531E+0	1.308931E+0	1.239845E+0	1.267981E+0	1.290143E+0	1.315384E+0	1.262497E+0	1.334317E+0	1.328761E+0	1.299387E+0	1.358712E+0	1.309220E+0	1.248795E+0	1.258052E+0	1.287355E+0	1.337101E+0	1.266133E+0	1.282204E+0	1.284149E+0	1.266353E+0	1.272769E+0	1.253924E+0	1.308525E+0	1.318905E+0	1.330886E+0	1.298790E+0	1.295238E+0	1.317891E+0	1.308266E+0	1.303039E+0	1.278583E+0	1.242299E+0	1.342681E+0	1.313915E+0	1.301016E+0	1.287561E+0	1.305643E+0	1.276984E+0	1.281353E+0	1.321270E+0	1.312397E+0	1.277130E+0	1.334161E+0	1.304605E+0	1.299920E+0	1.303434E+0	1.267838E+0	1.302256E+0	1.263958E+0	1.271185E+0	1.295653E+0	1.315071E+0	1.390007E+0	1.256220E+0	1.275144E+0	1.305130E+0	1.328035E+0	1.247193E+0	1.350818E+0	1.253943E+0	1.310368E+0	1.306987E+0	1.315234E+0	1.345035E+0	1.252661E+0	1.245216E+0	1.319880E+0	1.339185E+0	1.286074E+0	1.249635E+0	1.314735E+0	1.283367E+0	1.319861E+0	1.273044E+0	1.271181E+0	1.285065E+0	1.310167E+0	1.273785E+0	1.252486E+0	1.273054E+0	1.347416E+0	1.284649E+0	1.219707E+0	1.311548E+0
5.437640E+2	1.415590E+0	1.483700E+0	1.466389E+0	1.497906E+0	1.515730E+0	1.447235E+0	1.413513E+0	1.471586E+0	1.446548E+0	1.462319E+0	1.490050E+0	1.528088E+0	1.462607E+0	1.439734E+0	1.448954E+0	1.466061E+0	1.500099E+0	1.449588E+0	1.455925E+0	1.446572E+0	1.453284E+0	1.486298E+0	1.463704E+0	1.480313E+0	1.512702E+0	1.467906E+0	1.489546E+0	1.486871E+0	1.486911E+0	1.423622E+0	1.415903E+0	1.451968E+0	1.538704E+0	1.466280E+0	1.432928E+0	1.478171E+0	1.387519E+0	1.481117E+0	1.489959E+0	1.458189E+0	1.473436E+0	1.478824E+0	1.493533E+0	1.446686E+0	1.430006E+0	1.482561E+0	1.459478E+0	1.464270E+0	1.471855E+0	1.426286E+0	1.479375E+0	1.431631E+0	1.466161E+0	1.426961E+0	1.512998E+0	1.479375E+0	1.501945E+0	1.492167E+0	1.523459E+0	1.436838E+0	1.462232E+0	1.412786E+0	1.401078E+0	1.472979E+0	1.474797E+0	1.399101E+0	1.522422E+0	1.455174E+0	1.400229E+0	1.476624E+0	1.433248E+0	1.430357E+0	1.447395E+0	1.470598E+0	1.467368E+0	1.414782E+0	1.457298E+0	1.445779E+0	1.474407E+0	1.471423E+0	1.418951E+0	1.467181E+0	1.439994E+0	1.444750E+0	1.469604E+0	1.455036E+0	1.490645E+0	1.511871E+0	1.441994E+0	1.459987E+0	1.468202E+0	1.430779E+0	1.425169E+0	1.430719E+0	1.427465E+0	1.427225E+0	1.450305E+0	1.435643E+0	1.456717E+0	1.459459E+0	1.431976E+0	1.483714E+0	1.385160E+0	1.413803E+0	1.440960E+0	1.443108E+0	1.487419E+0	1.507693E+0	1.435909E+0	1.492619E+0	1.523212E+0	1.405943E+0	1.450598E+0	1.458302E+0	1.468256E+0	1.435233E+0	1.419206E+0	1.437804E+0	1.486595E+0	1.484416E+0	1.465981E+0	1.436949E+0	1.441560E+0	1.491331E+0	1.487714E+0	1.498609E+0	1.441556E+0	1.441390E+0	1.444858E+0	1.423457E+0	1.522821E+0	1.500871E+0	1.458674E+0	1.498617E+0	1.431639E+0	1.450769E+0	1.491973E+0	1.392785E+0	1.443429E+0	1.437786E+0	1.499544E+0	1.414567E+0	1.444170E+0	1.437661E+0	1.506378E+0	1.437613E+0	1.451581E+0	1.405482E+0	1.467763E+0	1.421392E+0	1.470860E+0	1.419073E+0	1.349931E+0	1.423335E+0	1.448945E+0	1.514293E+0	1.457270E+0	1.432664E+0	1.422716E+0	1.460422E+0	1.369216E+0	1.424269E+0	1.377053E+0	1.396069E+0	1.414333E+0	1.426735E+0	1.468464E+0	1.394607E+0	1.434322E+0	1.498424E+0
5.440170E+2	1.465887E+0	1.486427E+0	1.512631E+0	1.506297E+0	1.528160E+0	1.502678E+0	1.439335E+0	1.501962E+0	1.504317E+0	1.537759E+0	1.457401E+0	1.495969E+0	1.477317E+0	1.511391E+0	1.508749E+0	1.464912E+0	1.533291E+0	1.487549E+0	1.476909E+0	1.530575E+0	1.511282E+0	1.429931E+0	1.454564E+0	1.515639E+0	1.484814E+0	1.463380E+0	1.456724E+0	1.466548E+0	1.533105E+0	1.519392E+0	1.433880E+0	1.491795E+0	1.471580E+0	1.478676E+0	1.498792E+0	1.544156E+0	1.459036E+0	1.468739E+0	1.474885E+0	1.462226E+0	1.520953E+0	1.451740E+0	1.496714E+0	1.522083E+0	1.497341E+0	1.430144E+0	1.490798E+0	1.535714E+0	1.526354E+0	1.492424E+0	1.473840E+0	1.443694E+0	1.520954E+0	1.508896E+0	1.529911E+0	1.517931E+0	1.507830E+0	1.534195E+0	1.465127E+0	1.462713E+0	1.483064E+0	1.479875E+0	1.436133E+0	1.533287E+0	1.477424E+0	1.422756E+0	1.450827E+0	1.448772E+0	1.517841E+0	1.527807E+0	1.474672E+0	1.448817E+0	1.431317E+0	1.504669E+0	1.437692E+0	1.601670E+0	1.517174E+0	1.443845E+0	1.432059E+0	1.529209E+0	1.482504E+0	1.506238E+0	1.506101E+0	1.466065E+0	1.523351E+0	1.483878E+0	1.545601E+0	1.442048E+0	1.474009E+0	1.453778E+0	1.468134E+0	1.485650E+0	1.546277E+0	1.459846E+0	1.507771E+0	1.449599E+0	1.486026E+0	1.456645E+0	1.412199E+0	1.494487E+0	1.463149E+0	1.475850E+0	1.448770E+0	1.484014E+0	1.516204E+0	1.560781E+0	1.519659E+0	1.470434E+0	1.485876E+0	1.500815E+0	1.547437E+0	1.395634E+0	1.472896E+0	1.513284E+0	1.535534E+0	1.478020E+0	1.489264E+0	1.439915E+0	1.549348E+0	1.401318E+0	1.505168E+0	1.482609E+0	1.461861E+0	1.482153E+0	1.505637E+0	1.471584E+0	1.444805E+0	1.432395E+0	1.487272E+0	1.451437E+0	1.482360E+0	1.493286E+0	1.506890E+0	1.490228E+0	1.452547E+0	1.475312E+0	1.446537E+0	1.397895E+0	1.518646E+0	1.490619E+0	1.496283E+0	1.499514E+0	1.486412E+0	1.455882E+0	1.570245E+0	1.415106E+0	1.371674E+0	1.450321E+0	1.455624E+0	1.488666E+0	1.430991E+0	1.412969E+0	1.440652E+0	1.466150E+0	1.509031E+0	1.460524E+0	1.501766E+0	1.443211E+0	1.477382E+0	1.508532E+0	1.448919E+0	1.472696E+0	1.530908E+0	1.447564E+0	1.472456E+0	1.482198E+0	1.518185E+0	1.494290E+0	1.426625E+0	1.499433E+0
5.442700E+2	1.468693E+0	1.491109E+0	1.501498E+0	1.471786E+0	1.511913E+0	1.480822E+0	1.450198E+0	1.486118E+0	1.456702E+0	1.501362E+0	1.451074E+0	1.476034E+0	1.398758E+0	1.456590E+0	1.421460E+0	1.472836E+0	1.467368E+0	1.442842E+0	1.478709E+0	1.523479E+0	1.486398E+0	1.468801E+0	1.462366E+0	1.499719E+0	1.503458E+0	1.398001E+0	1.493527E+0	1.440187E+0	1.517195E+0	1.458100E+0	1.468243E+0	1.495946E+0	1.474894E+0	1.475104E+0	1.440472E+0	1.517444E+0	1.462954E+0	1.479689E+0	1.474561E+0	1.481994E+0	1.379261E+0	1.480981E+0	1.461521E+0	1.529015E+0	1.462507E+0	1.478216E+0	1.497529E+0	1.413465E+0	1.471553E+0	1.484832E+0	1.480012E+0	1.473891E+0	1.508442E+0	1.468313E+0	1.500021E+0	1.489635E+0	1.446947E+0	1.494325E+0	1.440882E+0	1.498895E+0	1.431889E+0	1.391854E+0	1.472311E+0	1.470277E+0	1.484639E+0	1.413578E+0	1.460868E+0	1.469663E+0	1.481347E+0	1.450244E+0	1.432465E+0	1.463409E+0	1.495658E+0	1.450721E+0	1.515278E+0	1.497806E+0	1.429178E+0	1.511444E+0	1.426870E+0	1.397050E+0	1.423165E+0	1.397986E+0	1.453896E+0	1.505812E+0	1.481337E+0	1.444700E+0	1.479736E+0	1.460374E+0	1.472710E+0	1.429791E+0	1.465767E+0	1.468951E+0	1.466078E+0	1.495259E+0	1.456255E+0	1.427900E+0	1.500680E+0	1.459248E+0	1.509984E+0	1.413691E+0	1.468625E+0	1.444428E+0	1.448252E+0	1.493030E+0	1.466490E+0	1.502431E+0	1.470331E+0	1.476363E+0	1.456701E+0	1.459181E+0	1.444245E+0	1.400805E+0	1.456568E+0	1.431633E+0	1.439145E+0	1.406131E+0	1.467109E+0	1.455002E+0	1.478843E+0	1.426705E+0	1.452282E+0	1.421506E+0	1.463313E+0	1.475667E+0	1.484762E+0	1.389314E+0	1.424800E+0	1.442640E+0	1.464110E+0	1.433830E+0	1.441600E+0	1.472273E+0	1.448203E+0	1.454166E+0	1.459231E+0	1.504820E+0	1.432443E+0	1.400321E+0	1.469673E+0	1.451113E+0	1.419514E+0	1.470166E+0	1.460664E+0	1.483822E+0	1.526143E+0	1.443181E+0	1.452678E+0	1.436020E+0	1.442117E+0	1.400586E+0	1.446355E+0	1.348889E+0	1.456886E+0	1.451544E+0	1.442648E+0	1.445625E+0	1.406933E+0	1.453692E+0	1.402080E+0	1.432845E+0	1.405334E+0	1.438005E+0	1.526881E+0	1.403112E+0	1.428347E+0	1.430472E+0	1.380784E+0	1.441729E+0	1.410015E+0	1.471513E+0
5.445340E+2	1.476998E+0	1.581472E+0	1.514612E+0	1.508917E+0	1.550462E+0	1.504731E+0	1.523620E+0	1.473732E+0	1.477841E+0	1.505640E+0	1.535275E+0	1.492804E+0	1.498702E+0	1.462501E+0	1.505417E+0	1.495926E+0	1.494918E+0	1.457492E+0	1.538448E+0	1.462290E+0	1.487531E+0	1.479409E+0	1.503226E+0	1.554791E+0	1.542286E+0	1.473107E+0	1.507222E+0	1.454731E+0	1.530486E+0	1.496825E+0	1.486214E+0	1.471526E+0	1.489998E+0	1.507667E+0	1.522017E+0	1.545190E+0	1.483547E+0	1.505261E+0	1.481299E+0	1.495581E+0	1.484857E+0	1.483292E+0	1.510519E+0	1.484869E+0	1.512793E+0	1.502288E+0	1.557846E+0	1.471975E+0	1.489238E+0	1.506107E+0	1.563570E+0	1.461216E+0	1.500743E+0	1.512376E+0	1.502036E+0	1.469650E+0	1.513859E+0	1.498970E+0	1.452081E+0	1.497085E+0	1.459435E+0	1.462765E+0	1.445973E+0	1.480763E+0	1.555232E+0	1.468689E+0	1.490684E+0	1.526520E+0	1.509446E+0	1.518805E+0	1.399516E+0	1.497581E+0	1.449449E+0	1.491927E+0	1.507298E+0	1.485947E+0	1.421225E+0	1.503788E+0	1.412823E+0	1.510225E+0	1.470893E+0	1.411867E+0	1.500998E+0	1.499854E+0	1.470604E+0	1.460714E+0	1.478034E+0	1.494720E+0	1.494509E+0	1.463270E+0	1.502302E+0	1.488836E+0	1.517601E+0	1.525487E+0	1.466288E+0	1.549174E+0	1.533398E+0	1.501038E+0	1.483367E+0	1.467674E+0	1.450299E+0	1.488250E+0	1.538760E+0	1.508053E+0	1.498154E+0	1.506676E+0	1.480017E+0	1.511727E+0	1.443287E+0	1.488073E+0	1.484980E+0	1.474495E+0	1.519514E+0	1.459142E+0	1.482588E+0	1.460086E+0	1.454775E+0	1.460671E+0	1.601900E+0	1.481498E+0	1.456553E+0	1.486863E+0	1.504700E+0	1.455980E+0	1.516162E+0	1.486359E+0	1.546838E+0	1.447244E+0	1.543082E+0	1.477191E+0	1.441492E+0	1.468424E+0	1.480227E+0	1.481923E+0	1.482283E+0	1.459025E+0	1.502797E+0	1.428625E+0	1.492943E+0	1.517183E+0	1.508002E+0	1.408284E+0	1.525257E+0	1.431033E+0	1.478656E+0	1.449300E+0	1.492420E+0	1.474964E+0	1.455392E+0	1.426249E+0	1.456991E+0	1.457732E+0	1.421955E+0	1.444409E+0	1.516660E+0	1.470375E+0	1.483517E+0	1.488485E+0	1.424282E+0	1.468076E+0	1.497901E+0	1.497595E+0	1.484619E+0	1.426104E+0	1.459186E+0	1.387113E+0	1.487963E+0	1.484317E+0	1.467900E+0	1.412233E+0
5.447560E+2	1.479487E+0	1.402262E+0	1.420827E+0	1.521893E+0	1.526665E+0	1.472547E+0	1.479305E+0	1.498951E+0	1.467771E+0	1.482640E+0	1.439962E+0	1.515030E+0	1.406990E+0	1.454342E+0	1.431837E+0	1.461401E+0	1.436825E+0	1.450946E+0	1.439486E+0	1.459726E+0	1.486522E+0	1.490193E+0	1.421314E+0	1.473148E+0	1.510473E+0	1.465952E+0	1.417406E+0	1.454472E+0	1.454727E+0	1.448555E+0	1.460217E+0	1.440532E+0	1.433258E+0	1.431594E+0	1.487358E+0	1.486346E+0	1.468541E+0	1.482710E+0	1.402190E+0	1.475124E+0	1.425531E+0	1.432043E+0	1.421490E+0	1.425580E+0	1.434212E+0	1.427728E+0	1.504267E+0	1.488723E+0	1.480272E+0	1.430940E+0	1.490435E+0	1.465519E+0	1.473181E+0	1.459288E+0	1.411067E+0	1.441350E+0	1.466903E+0	1.467801E+0	1.409244E+0	1.472079E+0	1.476711E+0	1.426796E+0	1.401996E+0	1.419292E+0	1.440288E+0	1.362944E+0	1.385895E+0	1.468596E+0	1.448941E+0	1.435310E+0	1.455915E+0	1.474829E+0	1.469078E+0	1.477216E+0	1.454756E+0	1.463602E+0	1.421892E+0	1.406964E+0	1.463940E+0	1.492315E+0	1.456204E+0	1.423749E+0	1.459017E+0	1.492699E+0	1.445961E+0	1.453009E+0	1.429015E+0	1.439873E+0	1.417327E+0	1.450529E+0	1.477147E+0	1.437637E+0	1.424121E+0	1.481827E+0	1.495622E+0	1.453476E+0	1.414226E+0	1.450314E+0	1.480670E+0	1.433683E+0	1.410874E+0	1.517626E+0	1.516042E+0	1.439689E+0	1.433605E+0	1.423903E+0	1.491797E+0	1.477705E+0	1.455143E+0	1.382036E+0	1.462819E+0	1.415557E+0	1.497855E+0	1.447586E+0	1.437278E+0	1.429000E+0	1.455219E+0	1.346607E+0	1.476014E+0	1.482024E+0	1.447101E+0	1.386758E+0	1.405503E+0	1.395830E+0	1.445321E+0	1.431120E+0	1.458538E+0	1.434477E+0	1.464533E+0	1.430495E+0	1.376414E+0	1.480550E+0	1.416830E+0	1.461280E+0	1.407309E+0	1.452089E+0	1.474267E+0	1.442257E+0	1.511217E+0	1.401010E+0	1.462511E+0	1.421284E+0	1.419941E+0	1.432063E+0	1.483052E+0	1.378601E+0	1.441059E+0	1.433927E+0	1.436660E+0	1.351563E+0	1.470637E+0	1.460535E+0	1.374457E+0	1.450332E+0	1.483694E+0	1.411304E+0	1.376806E+0	1.442218E+0	1.432357E+0	1.387712E+0	1.454858E+0	1.430206E+0	1.428604E+0	1.476014E+0	1.340762E+0	1.487216E+0	1.414295E+0	1.414240E+0	1.452887E+0	1.464900E+0
5.450150E+2	1.384144E+0	1.353016E+0	1.312231E+0	1.367944E+0	1.329691E+0	1.378002E+0	1.329214E+0	1.359333E+0	1.314790E+0	1.373323E+0	1.391859E+0	1.422805E+0	1.284098E+0	1.310309E+0	1.350966E+0	1.361485E+0	1.374922E+0	1.321695E+0	1.324800E+0	1.371149E+0	1.358386E+0	1.360029E+0	1.341577E+0	1.385604E+0	1.346536E+0	1.329046E+0	1.360799E+0	1.359629E+0	1.365773E+0	1.312397E+0	1.295164E+0	1.331276E+0	1.349121E+0	1.361093E+0	1.324925E+0	1.403103E+0	1.310666E+0	1.336860E+0	1.400843E+0	1.315983E+0	1.369762E+0	1.361095E+0	1.349766E+0	1.316144E+0	1.383038E+0	1.341167E+0	1.323569E+0	1.364621E+0	1.345969E+0	1.340296E+0	1.330269E+0	1.310448E+0	1.353331E+0	1.330672E+0	1.364746E+0	1.300294E+0	1.357774E+0	1.316310E+0	1.324562E+0	1.325575E+0	1.346684E+0	1.291656E+0	1.289633E+0	1.349955E+0	1.363512E+0	1.306314E+0	1.369765E+0	1.366633E+0	1.288070E+0	1.352929E+0	1.288333E+0	1.365950E+0	1.348310E+0	1.372631E+0	1.335028E+0	1.418161E+0	1.352252E+0	1.376144E+0	1.271721E+0	1.348645E+0	1.355891E+0	1.334456E+0	1.407740E+0	1.363700E+0	1.339381E+0	1.325859E+0	1.351180E+0	1.340164E+0	1.383957E+0	1.360315E+0	1.315480E+0	1.406117E+0	1.300869E+0	1.367992E+0	1.338220E+0	1.302541E+0	1.337003E+0	1.394840E+0	1.345630E+0	1.346927E+0	1.341101E+0	1.333480E+0	1.357430E+0	1.313541E+0	1.298563E+0	1.357399E+0	1.394990E+0	1.321548E+0	1.367852E+0	1.355582E+0	1.357719E+0	1.317756E+0	1.363883E+0	1.334294E+0	1.321803E+0	1.380540E+0	1.339407E+0	1.258871E+0	1.376447E+0	1.365047E+0	1.329430E+0	1.312973E+0	1.324065E+0	1.339322E+0	1.360963E+0	1.306252E+0	1.360625E+0	1.332103E+0	1.355161E+0	1.329463E+0	1.352726E+0	1.390879E+0	1.379084E+0	1.318716E+0	1.342406E+0	1.326795E+0	1.336716E+0	1.327275E+0	1.356513E+0	1.308851E+0	1.361208E+0	1.329189E+0	1.333602E+0	1.324697E+0	1.377836E+0	1.290191E+0	1.347175E+0	1.345124E+0	1.334070E+0	1.311130E+0	1.333702E+0	1.263476E+0	1.251878E+0	1.291463E+0	1.339054E+0	1.352621E+0	1.271089E+0	1.305378E+0	1.354789E+0	1.370951E+0	1.263704E+0	1.376986E+0	1.346578E+0	1.318441E+0	1.311461E+0	1.294593E+0	1.312845E+0	1.375978E+0	1.243983E+0	1.347733E+0
5.452580E+2	1.226520E+0	1.269110E+0	1.316907E+0	1.310970E+0	1.286799E+0	1.288243E+0	1.240693E+0	1.334279E+0	1.343032E+0	1.231936E+0	1.277117E+0	1.252286E+0	1.284015E+0	1.296382E+0	1.273758E+0	1.259888E+0	1.294965E+0	1.294222E+0	1.232711E+0	1.339098E+0	1.310177E+0	1.305415E+0	1.249701E+0	1.316145E+0	1.277494E+0	1.294116E+0	1.290570E+0	1.258877E+0	1.295843E+0	1.252103E+0	1.288725E+0	1.288360E+0	1.294952E+0	1.247983E+0	1.333631E+0	1.282132E+0	1.218144E+0	1.320223E+0	1.281200E+0	1.292791E+0	1.271935E+0	1.294297E+0	1.298127E+0	1.250752E+0	1.256433E+0	1.276063E+0	1.297336E+0	1.281043E+0	1.278195E+0	1.287124E+0	1.268647E+0	1.279238E+0	1.215405E+0	1.266929E+0	1.276048E+0	1.319681E+0	1.294205E+0	1.275787E+0	1.203943E+0	1.280120E+0	1.284363E+0	1.275049E+0	1.261153E+0	1.295966E+0	1.314535E+0	1.326287E+0	1.267057E+0	1.270879E+0	1.282518E+0	1.309952E+0	1.264744E+0	1.217374E+0	1.286751E+0	1.328743E+0	1.270722E+0	1.216979E+0	1.289087E+0	1.283930E+0	1.282803E+0	1.287751E+0	1.272653E+0	1.337797E+0	1.270479E+0	1.280177E+0	1.265797E+0	1.269957E+0	1.301709E+0	1.248107E+0	1.235200E+0	1.352032E+0	1.299236E+0	1.283538E+0	1.278782E+0	1.247381E+0	1.351183E+0	1.245486E+0	1.269792E+0	1.300548E+0	1.250566E+0	1.276810E+0	1.224454E+0	1.302655E+0	1.253067E+0	1.315745E+0	1.268337E+0	1.262631E+0	1.295714E+0	1.274038E+0	1.278271E+0	1.287711E+0	1.323871E+0	1.235216E+0	1.296236E+0	1.236862E+0	1.337183E+0	1.253342E+0	1.262227E+0	1.264395E+0	1.297072E+0	1.338585E+0	1.310499E+0	1.263773E+0	1.282064E+0	1.248411E+0	1.303527E+0	1.256662E+0	1.286203E+0	1.238306E+0	1.281435E+0	1.266413E+0	1.249794E+0	1.258668E+0	1.190018E+0	1.273316E+0	1.285080E+0	1.250306E+0	1.286190E+0	1.254200E+0	1.291168E+0	1.282166E+0	1.306431E+0	1.255694E+0	1.255251E+0	1.275831E+0	1.316889E+0	1.224390E+0	1.329733E+0	1.212108E+0	1.315312E+0	1.264500E+0	1.222268E+0	1.272203E+0	1.267779E+0	1.271318E+0	1.322142E+0	1.251187E+0	1.230666E+0	1.250156E+0	1.270849E+0	1.241948E+0	1.260033E+0	1.313854E+0	1.279325E+0	1.232313E+0	1.254755E+0	1.243128E+0	1.290072E+0	1.283359E+0	1.233370E+0	1.249571E+0
5.455290E+2	1.212387E+0	1.246231E+0	1.223431E+0	1.231958E+0	1.268434E+0	1.223555E+0	1.214640E+0	1.200499E+0	1.202354E+0	1.271099E+0	1.222690E+0	1.270253E+0	1.201012E+0	1.169007E+0	1.212955E+0	1.260034E+0	1.208781E+0	1.181250E+0	1.188555E+0	1.215472E+0	1.227352E+0	1.230850E+0	1.246068E+0	1.283222E+0	1.278936E+0	1.140567E+0	1.223826E+0	1.150690E+0	1.235412E+0	1.208049E+0	1.171726E+0	1.195063E+0	1.244400E+0	1.230320E+0	1.239120E+0	1.247526E+0	1.262938E+0	1.212417E+0	1.145548E+0	1.200540E+0	1.250972E+0	1.235095E+0	1.214373E+0	1.273836E+0	1.252968E+0	1.236928E+0	1.236902E+0	1.207755E+0	1.200084E+0	1.265627E+0	1.225077E+0	1.193766E+0	1.259188E+0	1.269012E+0	1.234165E+0	1.206656E+0	1.264180E+0	1.214510E+0	1.232059E+0	1.210875E+0	1.257111E+0	1.188268E+0	1.202760E+0	1.171098E+0	1.223735E+0	1.250216E+0	1.272138E+0	1.225774E+0	1.223022E+0	1.254773E+0	1.204496E+0	1.193608E+0	1.191030E+0	1.177965E+0	1.232039E+0	1.242673E+0	1.232789E+0	1.238225E+0	1.177131E+0	1.280362E+0	1.243042E+0	1.222228E+0	1.216228E+0	1.223887E+0	1.170804E+0	1.237452E+0	1.245998E+0	1.191415E+0	1.177933E+0	1.230883E+0	1.210121E+0	1.269876E+0	1.251085E+0	1.224568E+0	1.238599E+0	1.172009E+0	1.224207E+0	1.251572E+0	1.202174E+0	1.214426E+0	1.227916E+0	1.201668E+0	1.225014E+0	1.204053E+0	1.234651E+0	1.220841E+0	1.207565E+0	1.263287E+0	1.236479E+0	1.221877E+0	1.272906E+0	1.239209E+0	1.234295E+0	1.182394E+0	1.271481E+0	1.222081E+0	1.233995E+0	1.197017E+0	1.275423E+0	1.180435E+0	1.226597E+0	1.244397E+0	1.240438E+0	1.248746E+0	1.174892E+0	1.221054E+0	1.268947E+0	1.198246E+0	1.180276E+0	1.229352E+0	1.199682E+0	1.275231E+0	1.229204E+0	1.253993E+0	1.260469E+0	1.186327E+0	1.233481E+0	1.212462E+0	1.235666E+0	1.251007E+0	1.230090E+0	1.225052E+0	1.264826E+0	1.232017E+0	1.254300E+0	1.200283E+0	1.216889E+0	1.220098E+0	1.226804E+0	1.165639E+0	1.216775E+0	1.157291E+0	1.175001E+0	1.155520E+0	1.251524E+0	1.246383E+0	1.199780E+0	1.239169E+0	1.262001E+0	1.210442E+0	1.215172E+0	1.235699E+0	1.238758E+0	1.183432E+0	1.180418E+0	1.185125E+0	1.263570E+0	1.193569E+0	1.164839E+0	1.261905E+0
5.457720E+2	1.109313E+0	1.159491E+0	1.153031E+0	1.162618E+0	1.117879E+0	1.148753E+0	1.132926E+0	1.170279E+0	1.154000E+0	1.153660E+0	1.142929E+0	1.155631E+0	1.159787E+0	1.101250E+0	1.139472E+0	1.173499E+0	1.172327E+0	1.172591E+0	1.146163E+0	1.126301E+0	1.140067E+0	1.134161E+0	1.098193E+0	1.183024E+0	1.099183E+0	1.111822E+0	1.103333E+0	1.095514E+0	1.133163E+0	1.144050E+0	1.084998E+0	1.130874E+0	1.125987E+0	1.112173E+0	1.145052E+0	1.156545E+0	1.153226E+0	1.158210E+0	1.137952E+0	1.147763E+0	1.143456E+0	1.146671E+0	1.158130E+0	1.117081E+0	1.185218E+0	1.157938E+0	1.147010E+0	1.146035E+0	1.113244E+0	1.150928E+0	1.118663E+0	1.143103E+0	1.146456E+0	1.130544E+0	1.072642E+0	1.145844E+0	1.139635E+0	1.110150E+0	1.092657E+0	1.126391E+0	1.096836E+0	1.180746E+0	1.104985E+0	1.156122E+0	1.102899E+0	1.122226E+0	1.110840E+0	1.159242E+0	1.124720E+0	1.128389E+0	1.127157E+0	1.115131E+0	1.169067E+0	1.135979E+0	1.112073E+0	1.094929E+0	1.135948E+0	1.157964E+0	1.120329E+0	1.108436E+0	1.170391E+0	1.108292E+0	1.084950E+0	1.147174E+0	1.175934E+0	1.112754E+0	1.105718E+0	1.096713E+0	1.071035E+0	1.156709E+0	1.135336E+0	1.177233E+0	1.181065E+0	1.194377E+0	1.134472E+0	1.122239E+0	1.110001E+0	1.150727E+0	1.118457E+0	1.136263E+0	1.152497E+0	1.086024E+0	1.091943E+0	1.130511E+0	1.098177E+0	1.153563E+0	1.115703E+0	1.100510E+0	1.061392E+0	1.164887E+0	1.164211E+0	1.076277E+0	1.162828E+0	1.049491E+0	1.184202E+0	1.125289E+0	1.126740E+0	1.076566E+0	1.149132E+0	1.110455E+0	1.132890E+0	1.070024E+0	1.166229E+0	1.175406E+0	1.168215E+0	1.140722E+0	1.108006E+0	1.120585E+0	1.161944E+0	1.099011E+0	1.139947E+0	1.119939E+0	1.111458E+0	1.108699E+0	1.111275E+0	1.097730E+0	1.122562E+0	1.116656E+0	1.099653E+0	1.167425E+0	1.133821E+0	1.111902E+0	1.172379E+0	1.137763E+0	1.134525E+0	1.105034E+0	1.122625E+0	1.112235E+0	1.142410E+0	1.092032E+0	1.093441E+0	1.112621E+0	1.026308E+0	1.064362E+0	1.151635E+0	1.117076E+0	1.149859E+0	1.104170E+0	1.087900E+0	1.128862E+0	1.129764E+0	1.157844E+0	1.110131E+0	1.111886E+0	1.132097E+0	1.129480E+0	1.179356E+0	1.164145E+0	1.130719E+0	1.147208E+0
5.460000E+2	1.130249E+0	1.130374E+0	1.126805E+0	1.141468E+0	1.176308E+0	1.113524E+0	1.114320E+0	1.131902E+0	1.139760E+0	1.164657E+0	1.146895E+0	1.160528E+0	1.121680E+0	1.113044E+0	1.142412E+0	1.151845E+0	1.113167E+0	1.115535E+0	1.164787E+0	1.146669E+0	1.169385E+0	1.129132E+0	1.140866E+0	1.150599E+0	1.186205E+0	1.162566E+0	1.118091E+0	1.118384E+0	1.156901E+0	1.136325E+0	1.131565E+0	1.086666E+0	1.154134E+0	1.122388E+0	1.095749E+0	1.175161E+0	1.138172E+0	1.138329E+0	1.118343E+0	1.119169E+0	1.168427E+0	1.132824E+0	1.149871E+0	1.139773E+0	1.139706E+0	1.156273E+0	1.137515E+0	1.130757E+0	1.154806E+0	1.120029E+0	1.131744E+0	1.094634E+0	1.110383E+0	1.121582E+0	1.149053E+0	1.154856E+0	1.154354E+0	1.156815E+0	1.092523E+0	1.141971E+0	1.099358E+0	1.104752E+0	1.091195E+0	1.155795E+0	1.128299E+0	1.156445E+0	1.181418E+0	1.140030E+0	1.110118E+0	1.140046E+0	1.162841E+0	1.112578E+0	1.143478E+0	1.173071E+0	1.120452E+0	1.106279E+0	1.130164E+0	1.083969E+0	1.115283E+0	1.163296E+0	1.089071E+0	1.128554E+0	1.139934E+0	1.111594E+0	1.092311E+0	1.133297E+0	1.131376E+0	1.098632E+0	1.121828E+0	1.186555E+0	1.121787E+0	1.114577E+0	1.149206E+0	1.152558E+0	1.129384E+0	1.110978E+0	1.207689E+0	1.126930E+0	1.124477E+0	1.166596E+0	1.090343E+0	1.140315E+0	1.166309E+0	1.169232E+0	1.106200E+0	1.094962E+0	1.178986E+0	1.145289E+0	1.108646E+0	1.094394E+0	1.158783E+0	1.114173E+0	1.148129E+0	1.119271E+0	1.098380E+0	1.104998E+0	1.105415E+0	1.080097E+0	1.150044E+0	1.168130E+0	1.112806E+0	1.088444E+0	1.156137E+0	1.120614E+0	1.210339E+0	1.120222E+0	1.126645E+0	1.108630E+0	1.135218E+0	1.143140E+0	1.145565E+0	1.146071E+0	1.122753E+0	1.189575E+0	1.122888E+0	1.143242E+0	1.140197E+0	1.101884E+0	1.123477E+0	1.105053E+0	1.128595E+0	1.108705E+0	1.122060E+0	1.170265E+0	1.167216E+0	1.170201E+0	1.071832E+0	1.167267E+0	1.075075E+0	1.151316E+0	1.119884E+0	1.089127E+0	1.115060E+0	1.179610E+0	1.181334E+0	1.163499E+0	1.156522E+0	1.127709E+0	1.087601E+0	1.125677E+0	1.135399E+0	1.100421E+0	1.106140E+0	1.091792E+0	1.123416E+0	1.130138E+0	1.134516E+0	1.158834E+0	1.127463E+0	1.161586E+0
5.467600E+2	1.133203E+0	1.144490E+0	1.120850E+0	1.170061E+0	1.162907E+0	1.155197E+0	1.154201E+0	1.143596E+0	1.132822E+0	1.182299E+0	1.181930E+0	1.125441E+0	1.148751E+0	1.132984E+0	1.122833E+0	1.108576E+0	1.152269E+0	1.142026E+0	1.088596E+0	1.148568E+0	1.144023E+0	1.136693E+0	1.116085E+0	1.199633E+0	1.150859E+0	1.098891E+0	1.146889E+0	1.085095E+0	1.102272E+0	1.135811E+0	1.211683E+0	1.195541E+0	1.151778E+0	1.123197E+0	1.172269E+0	1.149552E+0	1.153342E+0	1.212708E+0	1.168963E+0	1.209801E+0	1.174883E+0	1.134808E+0	1.174407E+0	1.200581E+0	1.155111E+0	1.156381E+0	1.121688E+0	1.190122E+0	1.145671E+0	1.151012E+0	1.133747E+0	1.110622E+0	1.155666E+0	1.112984E+0	1.160837E+0	1.198532E+0	1.193557E+0	1.149465E+0	1.150959E+0	1.128368E+0	1.128712E+0	1.104446E+0	1.124803E+0	1.128991E+0	1.154052E+0	1.117935E+0	1.122360E+0	1.173252E+0	1.178117E+0	1.204819E+0	1.119361E+0	1.113336E+0	1.151420E+0	1.164735E+0	1.131437E+0	1.165403E+0	1.146786E+0	1.169195E+0	1.110562E+0	1.173171E+0	1.164002E+0	1.118755E+0	1.140373E+0	1.187572E+0	1.130553E+0	1.161742E+0	1.160348E+0	1.204640E+0	1.147656E+0	1.167487E+0	1.139406E+0	1.129825E+0	1.147591E+0	1.146417E+0	1.187186E+0	1.127643E+0	1.137798E+0	1.145580E+0	1.185868E+0	1.124022E+0	1.142047E+0	1.174156E+0	1.144622E+0	1.155151E+0	1.138025E+0	1.149737E+0	1.152497E+0	1.163952E+0	1.150387E+0	1.151785E+0	1.151115E+0	1.119928E+0	1.127726E+0	1.112432E+0	1.130263E+0	1.120361E+0	1.191381E+0	1.134531E+0	1.156589E+0	1.188994E+0	1.185538E+0	1.114736E+0	1.134877E+0	1.129767E+0	1.145994E+0	1.100982E+0	1.150797E+0	1.114379E+0	1.120027E+0	1.176187E+0	1.113726E+0	1.159909E+0	1.172733E+0	1.162284E+0	1.128680E+0	1.127845E+0	1.184471E+0	1.116027E+0	1.128799E+0	1.123875E+0	1.188752E+0	1.133894E+0	1.210946E+0	1.129791E+0	1.177998E+0	1.139299E+0	1.071136E+0	1.187471E+0	1.143819E+0	1.122629E+0	1.179040E+0	1.129082E+0	1.061916E+0	1.139661E+0	1.153490E+0	1.130815E+0	1.226802E+0	1.124389E+0	1.141348E+0	1.120391E+0	1.161075E+0	1.126838E+0	1.113128E+0	1.100850E+0	1.116624E+0	1.157182E+0	1.147146E+0	1.198319E+0	1.108880E+0	1.194239E+0
5.475180E+2	1.235192E+0	1.228773E+0	1.272184E+0	1.243409E+0	1.288242E+0	1.213279E+0	1.273714E+0	1.230565E+0	1.244048E+0	1.223019E+0	1.278297E+0	1.279573E+0	1.237890E+0	1.199971E+0	1.228867E+0	1.244312E+0	1.240176E+0	1.211354E+0	1.233202E+0	1.222404E+0	1.277134E+0	1.224726E+0	1.259597E+0	1.298486E+0	1.279271E+0	1.207758E+0	1.198777E+0	1.225464E+0	1.263072E+0	1.205485E+0	1.194953E+0	1.270454E+0	1.218706E+0	1.178300E+0	1.198750E+0	1.270648E+0	1.253668E+0	1.281401E+0	1.257526E+0	1.275470E+0	1.249387E+0	1.226903E+0	1.257676E+0	1.240553E+0	1.196403E+0	1.254590E+0	1.230023E+0	1.188526E+0	1.282912E+0	1.237339E+0	1.231563E+0	1.247331E+0	1.226680E+0	1.163220E+0	1.220715E+0	1.192554E+0	1.317336E+0	1.183028E+0	1.252392E+0	1.226274E+0	1.235910E+0	1.220559E+0	1.225587E+0	1.233298E+0	1.248225E+0	1.219020E+0	1.227513E+0	1.228961E+0	1.234041E+0	1.241712E+0	1.230110E+0	1.186881E+0	1.207402E+0	1.226398E+0	1.252551E+0	1.284946E+0	1.221861E+0	1.212756E+0	1.201796E+0	1.213421E+0	1.240228E+0	1.207401E+0	1.249770E+0	1.274687E+0	1.236633E+0	1.190465E+0	1.263976E+0	1.202968E+0	1.231442E+0	1.220175E+0	1.256093E+0	1.259969E+0	1.258052E+0	1.215804E+0	1.211717E+0	1.227813E+0	1.232521E+0	1.260004E+0	1.206996E+0	1.210216E+0	1.199768E+0	1.226669E+0	1.270661E+0	1.260439E+0	1.203611E+0	1.294985E+0	1.227384E+0	1.243278E+0	1.241619E+0	1.232700E+0	1.239341E+0	1.164048E+0	1.249842E+0	1.214761E+0	1.190180E+0	1.216712E+0	1.211278E+0	1.213242E+0	1.280234E+0	1.232095E+0	1.219517E+0	1.220498E+0	1.194533E+0	1.254617E+0	1.259660E+0	1.243237E+0	1.206865E+0	1.232582E+0	1.224657E+0	1.184075E+0	1.245215E+0	1.267004E+0	1.202307E+0	1.302511E+0	1.283919E+0	1.176374E+0	1.249966E+0	1.215763E+0	1.231496E+0	1.241853E+0	1.278501E+0	1.170272E+0	1.234223E+0	1.232545E+0	1.253451E+0	1.159940E+0	1.217108E+0	1.221322E+0	1.315536E+0	1.225110E+0	1.151007E+0	1.222560E+0	1.181721E+0	1.204464E+0	1.190394E+0	1.210954E+0	1.242353E+0	1.229782E+0	1.210758E+0	1.232958E+0	1.262168E+0	1.222760E+0	1.206190E+0	1.232306E+0	1.206583E+0	1.158888E+0	1.166087E+0	1.252784E+0	1.131520E+0	1.216073E+0
5.482550E+2	1.271855E+0	1.308260E+0	1.308388E+0	1.283116E+0	1.314094E+0	1.313338E+0	1.295577E+0	1.311447E+0	1.312088E+0	1.296434E+0	1.292720E+0	1.333444E+0	1.301439E+0	1.266681E+0	1.261067E+0	1.279706E+0	1.285169E+0	1.245298E+0	1.298624E+0	1.259596E+0	1.258576E+0	1.286255E+0	1.260031E+0	1.357447E+0	1.274275E+0	1.227026E+0	1.279492E+0	1.310358E+0	1.257445E+0	1.296803E+0	1.275082E+0	1.263236E+0	1.276314E+0	1.267795E+0	1.352284E+0	1.312707E+0	1.268463E+0	1.285159E+0	1.252217E+0	1.300880E+0	1.280229E+0	1.284223E+0	1.297816E+0	1.260303E+0	1.355438E+0	1.296966E+0	1.281063E+0	1.312659E+0	1.247988E+0	1.294019E+0	1.225716E+0	1.276311E+0	1.252205E+0	1.272164E+0	1.296382E+0	1.301575E+0	1.305079E+0	1.313754E+0	1.250205E+0	1.316204E+0	1.323558E+0	1.261211E+0	1.269114E+0	1.302202E+0	1.308860E+0	1.249442E+0	1.278424E+0	1.296780E+0	1.271402E+0	1.303917E+0	1.249541E+0	1.297607E+0	1.320493E+0	1.302031E+0	1.297861E+0	1.299252E+0	1.248492E+0	1.246935E+0	1.302958E+0	1.309051E+0	1.308231E+0	1.246442E+0	1.293888E+0	1.359226E+0	1.236282E+0	1.272465E+0	1.282367E+0	1.220907E+0	1.280894E+0	1.298026E+0	1.305276E+0	1.309682E+0	1.245790E+0	1.332030E+0	1.295388E+0	1.278954E+0	1.254738E+0	1.304208E+0	1.263509E+0	1.301722E+0	1.233671E+0	1.316353E+0	1.280423E+0	1.309194E+0	1.249406E+0	1.305398E+0	1.258946E+0	1.247646E+0	1.261030E+0	1.297386E+0	1.282242E+0	1.288370E+0	1.273315E+0	1.262428E+0	1.248080E+0	1.280363E+0	1.295521E+0	1.271240E+0	1.293823E+0	1.291796E+0	1.294385E+0	1.271091E+0	1.321034E+0	1.320034E+0	1.283563E+0	1.272245E+0	1.263793E+0	1.235540E+0	1.272778E+0	1.288720E+0	1.263276E+0	1.235554E+0	1.240843E+0	1.295801E+0	1.249527E+0	1.245144E+0	1.260189E+0	1.231161E+0	1.275539E+0	1.318294E+0	1.285413E+0	1.287837E+0	1.295363E+0	1.255194E+0	1.385785E+0	1.244904E+0	1.223097E+0	1.224877E+0	1.315335E+0	1.295356E+0	1.287160E+0	1.247782E+0	1.235595E+0	1.258993E+0	1.268604E+0	1.281123E+0	1.243254E+0	1.269846E+0	1.255044E+0	1.280530E+0	1.299490E+0	1.295318E+0	1.240107E+0	1.246066E+0	1.238206E+0	1.323224E+0	1.305716E+0	1.252359E+0	1.282796E+0	1.186762E+0
5.490160E+2	1.314219E+0	1.276119E+0	1.282000E+0	1.330268E+0	1.297824E+0	1.274232E+0	1.297842E+0	1.359733E+0	1.331476E+0	1.318029E+0	1.309494E+0	1.316108E+0	1.348716E+0	1.356432E+0	1.280409E+0	1.275376E+0	1.307640E+0	1.321572E+0	1.276286E+0	1.336818E+0	1.297856E+0	1.308405E+0	1.292205E+0	1.341401E+0	1.338680E+0	1.286627E+0	1.344041E+0	1.335446E+0	1.296266E+0	1.273454E+0	1.248309E+0	1.326977E+0	1.332184E+0	1.318819E+0	1.277430E+0	1.302091E+0	1.328042E+0	1.375355E+0	1.254980E+0	1.319050E+0	1.266396E+0	1.305060E+0	1.284581E+0	1.324439E+0	1.265830E+0	1.266817E+0	1.342936E+0	1.224724E+0	1.295825E+0	1.342342E+0	1.331503E+0	1.296747E+0	1.318083E+0	1.313880E+0	1.299152E+0	1.289585E+0	1.367536E+0	1.292575E+0	1.262509E+0	1.348991E+0	1.299433E+0	1.311354E+0	1.257541E+0	1.316451E+0	1.306125E+0	1.259694E+0	1.237535E+0	1.339868E+0	1.305010E+0	1.303871E+0	1.262840E+0	1.323437E+0	1.276157E+0	1.327384E+0	1.295382E+0	1.340803E+0	1.340712E+0	1.305912E+0	1.320446E+0	1.330674E+0	1.326157E+0	1.248491E+0	1.316885E+0	1.233998E+0	1.262311E+0	1.243209E+0	1.295067E+0	1.319029E+0	1.315374E+0	1.294793E+0	1.356452E+0	1.339748E+0	1.298142E+0	1.294807E+0	1.307206E+0	1.339300E+0	1.333082E+0	1.308876E+0	1.269170E+0	1.290534E+0	1.256444E+0	1.290886E+0	1.382878E+0	1.341812E+0	1.296995E+0	1.312472E+0	1.281245E+0	1.285170E+0	1.258145E+0	1.315030E+0	1.309280E+0	1.268778E+0	1.338361E+0	1.280979E+0	1.251464E+0	1.284510E+0	1.279486E+0	1.245539E+0	1.283154E+0	1.359659E+0	1.309081E+0	1.276242E+0	1.278292E+0	1.280806E+0	1.272773E+0	1.306546E+0	1.281811E+0	1.311910E+0	1.332510E+0	1.305206E+0	1.231023E+0	1.316462E+0	1.289708E+0	1.317031E+0	1.232089E+0	1.294999E+0	1.314929E+0	1.235308E+0	1.261203E+0	1.335964E+0	1.304744E+0	1.218009E+0	1.234238E+0	1.275850E+0	1.416627E+0	1.251179E+0	1.280658E+0	1.279996E+0	1.260878E+0	1.247148E+0	1.317065E+0	1.252999E+0	1.295900E+0	1.293429E+0	1.297140E+0	1.280601E+0	1.269290E+0	1.330021E+0	1.290860E+0	1.268314E+0	1.292286E+0	1.287114E+0	1.306633E+0	1.261064E+0	1.305611E+0	1.273346E+0	1.339759E+0	1.314863E+0	1.307417E+0	1.282725E+0
5.497680E+2	1.265860E+0	1.278967E+0	1.286869E+0	1.244624E+0	1.290087E+0	1.285172E+0	1.235864E+0	1.217925E+0	1.251728E+0	1.295516E+0	1.206543E+0	1.292314E+0	1.196365E+0	1.237668E+0	1.251080E+0	1.274393E+0	1.261326E+0	1.223261E+0	1.264635E+0	1.329773E+0	1.297100E+0	1.242971E+0	1.249077E+0	1.281639E+0	1.270865E+0	1.261958E+0	1.191738E+0	1.251600E+0	1.251247E+0	1.228234E+0	1.258031E+0	1.257156E+0	1.244669E+0	1.261455E+0	1.252858E+0	1.318741E+0	1.279898E+0	1.253240E+0	1.207089E+0	1.220494E+0	1.230103E+0	1.251388E+0	1.289974E+0	1.223461E+0	1.255830E+0	1.278892E+0	1.251847E+0	1.219885E+0	1.222344E+0	1.265625E+0	1.239885E+0	1.226959E+0	1.232696E+0	1.280918E+0	1.224689E+0	1.254227E+0	1.277738E+0	1.278479E+0	1.200758E+0	1.236859E+0	1.200568E+0	1.235443E+0	1.261624E+0	1.297580E+0	1.322958E+0	1.231837E+0	1.233793E+0	1.220987E+0	1.294084E+0	1.310187E+0	1.184155E+0	1.307041E+0	1.253040E+0	1.266632E+0	1.234225E+0	1.234100E+0	1.258872E+0	1.260020E+0	1.226428E+0	1.214736E+0	1.289006E+0	1.240664E+0	1.270486E+0	1.224511E+0	1.285586E+0	1.171827E+0	1.341291E+0	1.180621E+0	1.230892E+0	1.324190E+0	1.265197E+0	1.264320E+0	1.239383E+0	1.255817E+0	1.258848E+0	1.218910E+0	1.263361E+0	1.286428E+0	1.280435E+0	1.219578E+0	1.302071E+0	1.275114E+0	1.237435E+0	1.278150E+0	1.228056E+0	1.224548E+0	1.246406E+0	1.265769E+0	1.250913E+0	1.231725E+0	1.269418E+0	1.206402E+0	1.248539E+0	1.282149E+0	1.223637E+0	1.266863E+0	1.303939E+0	1.251869E+0	1.321351E+0	1.272052E+0	1.294896E+0	1.219117E+0	1.242130E+0	1.261141E+0	1.272144E+0	1.195146E+0	1.256712E+0	1.290070E+0	1.299470E+0	1.223941E+0	1.252762E+0	1.290422E+0	1.218690E+0	1.294793E+0	1.247234E+0	1.263366E+0	1.267850E+0	1.230017E+0	1.206671E+0	1.283750E+0	1.254792E+0	1.273980E+0	1.255371E+0	1.229725E+0	1.266551E+0	1.203764E+0	1.214633E+0	1.203964E+0	1.262940E+0	1.202056E+0	1.251552E+0	1.276892E+0	1.215905E+0	1.220302E+0	1.285876E+0	1.266767E+0	1.267465E+0	1.230888E+0	1.257596E+0	1.271680E+0	1.228533E+0	1.245037E+0	1.235290E+0	1.209808E+0	1.225824E+0	1.235536E+0	1.246599E+0	1.219464E+0	1.206481E+0	1.289748E+0
5.505060E+2	1.199086E+0	1.226227E+0	1.146472E+0	1.196728E+0	1.254830E+0	1.226014E+0	1.181645E+0	1.197685E+0	1.246217E+0	1.242349E+0	1.230807E+0	1.217672E+0	1.211439E+0	1.246353E+0	1.219473E+0	1.176923E+0	1.238570E+0	1.223126E+0	1.196798E+0	1.148752E+0	1.231637E+0	1.246622E+0	1.197349E+0	1.234536E+0	1.245678E+0	1.176786E+0	1.174382E+0	1.147729E+0	1.209344E+0	1.216225E+0	1.201478E+0	1.201827E+0	1.166567E+0	1.215026E+0	1.204284E+0	1.262546E+0	1.179951E+0	1.267509E+0	1.200497E+0	1.212772E+0	1.235563E+0	1.228204E+0	1.211351E+0	1.196298E+0	1.214234E+0	1.192418E+0	1.207457E+0	1.237435E+0	1.139662E+0	1.199442E+0	1.176713E+0	1.206125E+0	1.265710E+0	1.222577E+0	1.214910E+0	1.206736E+0	1.270931E+0	1.206728E+0	1.181529E+0	1.192976E+0	1.149322E+0	1.208523E+0	1.261927E+0	1.207454E+0	1.239241E+0	1.257343E+0	1.182552E+0	1.250798E+0	1.200277E+0	1.262058E+0	1.157715E+0	1.213537E+0	1.229391E+0	1.189096E+0	1.218007E+0	1.253982E+0	1.217630E+0	1.228315E+0	1.188888E+0	1.238379E+0	1.220869E+0	1.156848E+0	1.243689E+0	1.204027E+0	1.234063E+0	1.158678E+0	1.170730E+0	1.168064E+0	1.110803E+0	1.298199E+0	1.192748E+0	1.305536E+0	1.193742E+0	1.215845E+0	1.230264E+0	1.174249E+0	1.241237E+0	1.239222E+0	1.209569E+0	1.148247E+0	1.228667E+0	1.196645E+0	1.188744E+0	1.211286E+0	1.194223E+0	1.193974E+0	1.215132E+0	1.291350E+0	1.193704E+0	1.271787E+0	1.208997E+0	1.156798E+0	1.202293E+0	1.256778E+0	1.196497E+0	1.205143E+0	1.214562E+0	1.195773E+0	1.229343E+0	1.176633E+0	1.196244E+0	1.155973E+0	1.179479E+0	1.226383E+0	1.190796E+0	1.256661E+0	1.208530E+0	1.243450E+0	1.168346E+0	1.194228E+0	1.149115E+0	1.169936E+0	1.231109E+0	1.211218E+0	1.238901E+0	1.207136E+0	1.238349E+0	1.133898E+0	1.193591E+0	1.182531E+0	1.185199E+0	1.204886E+0	1.217908E+0	1.208598E+0	1.261097E+0	1.158420E+0	1.204442E+0	1.229896E+0	1.251830E+0	1.290116E+0	1.205283E+0	1.273473E+0	1.189844E+0	1.117718E+0	1.169886E+0	1.178421E+0	1.181294E+0	1.250997E+0	1.175153E+0	1.230136E+0	1.165264E+0	1.255228E+0	1.223452E+0	1.154823E+0	1.211785E+0	1.196157E+0	1.162960E+0	1.248611E+0	1.220883E+0	1.137142E+0
5.512570E+2	1.211443E+0	1.199164E+0	1.203766E+0	1.275631E+0	1.267287E+0	1.177846E+0	1.196942E+0	1.243727E+0	1.274664E+0	1.230000E+0	1.203995E+0	1.231900E+0	1.258274E+0	1.230331E+0	1.244114E+0	1.232189E+0	1.181762E+0	1.224864E+0	1.178336E+0	1.229934E+0	1.239998E+0	1.243978E+0	1.217857E+0	1.226601E+0	1.240852E+0	1.146137E+0	1.188287E+0	1.153705E+0	1.186796E+0	1.237027E+0	1.203454E+0	1.179708E+0	1.255077E+0	1.186413E+0	1.216318E+0	1.248889E+0	1.233828E+0	1.207856E+0	1.196707E+0	1.155309E+0	1.222697E+0	1.212505E+0	1.208408E+0	1.179239E+0	1.248566E+0	1.245668E+0	1.178346E+0	1.192144E+0	1.207030E+0	1.219466E+0	1.241662E+0	1.154965E+0	1.191898E+0	1.212137E+0	1.214752E+0	1.206941E+0	1.246365E+0	1.214012E+0	1.192872E+0	1.209464E+0	1.226507E+0	1.203850E+0	1.247776E+0	1.225320E+0	1.199938E+0	1.205013E+0	1.171230E+0	1.234765E+0	1.254838E+0	1.262453E+0	1.168868E+0	1.221113E+0	1.223932E+0	1.196292E+0	1.233855E+0	1.183700E+0	1.218233E+0	1.262071E+0	1.240147E+0	1.204273E+0	1.203587E+0	1.215281E+0	1.192265E+0	1.208127E+0	1.246217E+0	1.233502E+0	1.219113E+0	1.223394E+0	1.209536E+0	1.246800E+0	1.204034E+0	1.202291E+0	1.238300E+0	1.280113E+0	1.269155E+0	1.237826E+0	1.199184E+0	1.168777E+0	1.167789E+0	1.174927E+0	1.219094E+0	1.236969E+0	1.220560E+0	1.210266E+0	1.232096E+0	1.222295E+0	1.178139E+0	1.187336E+0	1.189283E+0	1.197874E+0	1.216720E+0	1.156287E+0	1.226938E+0	1.186915E+0	1.191035E+0	1.202671E+0	1.256263E+0	1.208844E+0	1.240949E+0	1.260801E+0	1.199737E+0	1.242500E+0	1.159548E+0	1.216596E+0	1.262650E+0	1.247709E+0	1.242931E+0	1.175589E+0	1.258648E+0	1.201629E+0	1.137487E+0	1.220231E+0	1.213981E+0	1.258545E+0	1.239053E+0	1.191965E+0	1.256284E+0	1.174289E+0	1.203375E+0	1.172861E+0	1.226134E+0	1.161016E+0	1.274138E+0	1.202190E+0	1.290880E+0	1.186295E+0	1.243060E+0	1.219031E+0	1.262682E+0	1.229799E+0	1.175872E+0	1.186885E+0	1.155957E+0	1.254034E+0	1.225111E+0	1.180995E+0	1.251652E+0	1.192043E+0	1.224700E+0	1.211487E+0	1.239812E+0	1.184061E+0	1.231968E+0	1.176732E+0	1.197137E+0	1.216862E+0	1.195975E+0	1.208624E+0	1.177516E+0	1.145938E+0
5.520100E+2	1.153354E+0	1.155680E+0	1.236134E+0	1.229927E+0	1.240961E+0	1.216099E+0	1.203865E+0	1.196331E+0	1.227407E+0	1.200982E+0	1.164394E+0	1.215566E+0	1.194668E+0	1.227234E+0	1.166124E+0	1.165496E+0	1.221502E+0	1.171174E+0	1.207934E+0	1.236488E+0	1.229466E+0	1.170487E+0	1.215708E+0	1.167421E+0	1.253256E+0	1.190171E+0	1.145034E+0	1.117806E+0	1.242907E+0	1.203221E+0	1.190246E+0	1.177665E+0	1.204327E+0	1.203254E+0	1.209462E+0	1.233874E+0	1.167036E+0	1.204214E+0	1.228770E+0	1.199907E+0	1.241087E+0	1.226623E+0	1.236502E+0	1.252638E+0	1.260378E+0	1.254935E+0	1.183597E+0	1.189329E+0	1.118261E+0	1.243344E+0	1.222102E+0	1.204861E+0	1.204139E+0	1.275533E+0	1.190652E+0	1.196652E+0	1.211979E+0	1.190613E+0	1.161953E+0	1.162706E+0	1.200979E+0	1.184070E+0	1.189567E+0	1.199088E+0	1.267719E+0	1.232801E+0	1.198147E+0	1.210724E+0	1.231179E+0	1.234890E+0	1.149728E+0	1.190716E+0	1.166869E+0	1.211238E+0	1.264621E+0	1.173080E+0	1.227913E+0	1.262310E+0	1.175219E+0	1.228639E+0	1.230677E+0	1.193640E+0	1.227097E+0	1.247570E+0	1.171776E+0	1.212371E+0	1.194116E+0	1.187923E+0	1.189098E+0	1.218827E+0	1.196792E+0	1.207644E+0	1.217607E+0	1.209663E+0	1.231153E+0	1.159316E+0	1.246191E+0	1.195624E+0	1.152808E+0	1.183661E+0	1.218667E+0	1.238252E+0	1.228450E+0	1.174439E+0	1.170705E+0	1.193300E+0	1.221925E+0	1.173838E+0	1.218630E+0	1.224568E+0	1.250533E+0	1.189373E+0	1.228971E+0	1.168471E+0	1.225473E+0	1.215743E+0	1.209811E+0	1.254947E+0	1.247561E+0	1.140934E+0	1.227202E+0	1.163248E+0	1.258624E+0	1.175333E+0	1.237624E+0	1.220496E+0	1.245807E+0	1.173501E+0	1.243143E+0	1.221524E+0	1.208048E+0	1.162986E+0	1.182752E+0	1.191700E+0	1.262292E+0	1.227180E+0	1.187143E+0	1.237243E+0	1.174436E+0	1.205001E+0	1.223087E+0	1.209558E+0	1.220460E+0	1.245163E+0	1.227674E+0	1.211763E+0	1.216926E+0	1.170729E+0	1.229508E+0	1.194371E+0	1.204266E+0	1.195407E+0	1.193924E+0	1.230063E+0	1.241569E+0	1.192664E+0	1.215979E+0	1.172181E+0	1.274757E+0	1.202518E+0	1.289773E+0	1.196858E+0	1.231465E+0	1.218642E+0	1.204618E+0	1.191622E+0	1.156530E+0	1.197733E+0	1.208382E+0	1.161372E+0
5.527590E+2	1.212213E+0	1.181715E+0	1.216451E+0	1.244705E+0	1.303380E+0	1.146788E+0	1.183731E+0	1.234850E+0	1.180107E+0	1.242039E+0	1.200443E+0	1.189189E+0	1.168920E+0	1.205129E+0	1.189483E+0	1.211714E+0	1.228895E+0	1.147064E+0	1.216628E+0	1.228337E+0	1.288379E+0	1.218177E+0	1.158091E+0	1.181718E+0	1.227147E+0	1.168727E+0	1.118618E+0	1.174093E+0	1.214594E+0	1.166816E+0	1.204159E+0	1.154151E+0	1.248866E+0	1.163615E+0	1.173975E+0	1.248005E+0	1.181911E+0	1.170226E+0	1.230691E+0	1.196033E+0	1.170562E+0	1.190548E+0	1.178441E+0	1.215716E+0	1.226373E+0	1.211200E+0	1.211527E+0	1.201542E+0	1.185547E+0	1.210235E+0	1.219233E+0	1.126213E+0	1.178103E+0	1.226880E+0	1.150335E+0	1.152479E+0	1.213763E+0	1.157483E+0	1.249132E+0	1.171756E+0	1.179400E+0	1.153567E+0	1.116907E+0	1.216595E+0	1.196218E+0	1.190860E+0	1.152403E+0	1.176119E+0	1.157770E+0	1.235215E+0	1.100891E+0	1.189113E+0	1.206200E+0	1.241229E+0	1.123476E+0	1.158167E+0	1.152291E+0	1.190231E+0	1.213400E+0	1.232943E+0	1.183591E+0	1.147618E+0	1.183881E+0	1.195843E+0	1.255592E+0	1.141297E+0	1.176364E+0	1.136638E+0	1.168819E+0	1.215754E+0	1.230457E+0	1.185411E+0	1.260598E+0	1.171398E+0	1.167345E+0	1.207610E+0	1.208617E+0	1.202852E+0	1.155990E+0	1.175170E+0	1.218372E+0	1.207517E+0	1.161155E+0	1.195526E+0	1.156829E+0	1.188594E+0	1.206847E+0	1.143957E+0	1.160607E+0	1.142290E+0	1.212320E+0	1.108138E+0	1.187983E+0	1.217754E+0	1.179410E+0	1.164871E+0	1.158290E+0	1.173785E+0	1.201489E+0	1.165699E+0	1.196569E+0	1.171208E+0	1.162550E+0	1.134568E+0	1.252683E+0	1.179004E+0	1.229103E+0	1.229655E+0	1.255053E+0	1.168873E+0	1.154064E+0	1.171129E+0	1.185942E+0	1.232640E+0	1.149194E+0	1.158109E+0	1.262418E+0	1.192372E+0	1.166110E+0	1.156234E+0	1.240199E+0	1.126695E+0	1.220728E+0	1.167882E+0	1.242739E+0	1.139858E+0	1.165556E+0	1.130426E+0	1.254702E+0	1.162177E+0	1.230821E+0	1.199866E+0	1.162621E+0	1.182931E+0	1.159508E+0	1.183051E+0	1.196441E+0	1.239443E+0	1.186892E+0	1.197477E+0	1.176044E+0	1.174939E+0	1.256006E+0	1.143319E+0	1.151082E+0	1.177462E+0	1.198042E+0	1.186048E+0	1.148099E+0	1.151828E+0
5.534940E+2	1.129725E+0	1.155790E+0	1.154378E+0	1.136920E+0	1.156097E+0	1.147701E+0	1.167183E+0	1.193309E+0	1.160483E+0	1.233028E+0	1.158143E+0	1.144696E+0	1.166009E+0	1.082105E+0	1.115111E+0	1.147580E+0	1.159428E+0	1.153536E+0	1.119458E+0	1.192027E+0	1.191669E+0	1.109357E+0	1.123075E+0	1.110349E+0	1.180523E+0	1.113856E+0	1.181149E+0	1.135488E+0	1.191022E+0	1.183093E+0	1.189595E+0	1.190320E+0	1.212544E+0	1.113752E+0	1.124865E+0	1.139856E+0	1.124510E+0	1.145965E+0	1.184881E+0	1.162787E+0	1.127974E+0	1.143854E+0	1.125886E+0	1.159918E+0	1.150943E+0	1.129001E+0	1.179321E+0	1.167446E+0	1.201878E+0	1.133654E+0	1.127322E+0	1.153587E+0	1.184130E+0	1.135394E+0	1.157692E+0	1.127930E+0	1.170874E+0	1.135607E+0	1.113400E+0	1.133478E+0	1.147234E+0	1.136211E+0	1.155026E+0	1.102807E+0	1.171949E+0	1.147788E+0	1.179026E+0	1.135364E+0	1.187644E+0	1.186601E+0	1.184092E+0	1.104683E+0	1.121662E+0	1.183570E+0	1.137186E+0	1.162419E+0	1.147504E+0	1.187488E+0	1.137518E+0	1.141825E+0	1.163592E+0	1.151785E+0	1.161632E+0	1.186504E+0	1.143209E+0	1.179470E+0	1.159175E+0	1.107600E+0	1.142601E+0	1.174367E+0	1.136630E+0	1.169215E+0	1.154189E+0	1.163371E+0	1.170827E+0	1.099104E+0	1.176845E+0	1.157155E+0	1.189024E+0	1.135654E+0	1.114112E+0	1.151796E+0	1.128988E+0	1.199474E+0	1.140051E+0	1.159528E+0	1.121907E+0	1.133543E+0	1.219293E+0	1.143425E+0	1.124531E+0	1.106801E+0	1.171254E+0	1.161772E+0	1.178648E+0	1.121937E+0	1.148553E+0	1.100371E+0	1.154370E+0	1.169845E+0	1.214386E+0	1.180229E+0	1.158274E+0	1.153702E+0	1.192339E+0	1.113049E+0	1.114694E+0	1.124942E+0	1.216259E+0	1.150909E+0	1.128259E+0	1.140544E+0	1.155635E+0	1.169083E+0	1.141295E+0	1.131364E+0	1.167203E+0	1.185110E+0	1.161032E+0	1.194717E+0	1.208789E+0	1.182449E+0	1.166070E+0	1.122846E+0	1.152565E+0	1.150344E+0	1.161999E+0	1.128014E+0	1.201715E+0	1.148441E+0	1.135799E+0	1.154828E+0	1.163882E+0	1.091856E+0	1.135542E+0	1.129152E+0	1.182350E+0	1.178532E+0	1.186286E+0	1.174584E+0	1.160523E+0	1.126925E+0	1.148644E+0	1.134646E+0	1.161089E+0	1.153793E+0	1.088177E+0	1.143413E+0	1.120564E+0	1.091135E+0
5.542530E+2	1.042516E+0	1.062793E+0	1.119775E+0	1.023941E+0	1.052193E+0	1.057283E+0	1.052555E+0	1.056936E+0	1.090083E+0	1.082549E+0	1.073274E+0	1.068213E+0	1.054365E+0	1.113109E+0	1.020604E+0	1.070513E+0	1.054892E+0	1.040892E+0	1.015034E+0	1.076299E+0	1.106194E+0	1.065534E+0	1.073668E+0	1.072699E+0	1.115485E+0	1.074218E+0	1.054654E+0	1.045217E+0	1.068003E+0	1.092184E+0	1.075417E+0	1.090020E+0	1.040277E+0	1.037122E+0	1.044937E+0	1.091959E+0	1.052077E+0	1.064774E+0	1.092325E+0	1.066364E+0	1.083071E+0	1.075791E+0	1.054716E+0	1.115799E+0	1.046114E+0	1.061836E+0	1.065883E+0	1.061781E+0	1.101805E+0	1.094663E+0	9.826111E-1	1.047627E+0	1.075012E+0	1.025726E+0	1.091268E+0	1.058539E+0	1.066014E+0	1.077215E+0	1.014980E+0	1.051702E+0	1.034365E+0	1.069274E+0	1.064015E+0	1.074787E+0	1.061213E+0	1.106368E+0	1.029079E+0	1.118514E+0	1.092632E+0	1.058188E+0	1.059066E+0	1.052536E+0	1.078337E+0	1.052334E+0	1.012427E+0	1.078460E+0	1.099830E+0	1.074464E+0	1.059012E+0	1.104268E+0	1.094638E+0	1.039918E+0	1.010483E+0	1.115362E+0	1.060827E+0	1.111071E+0	1.089997E+0	1.040355E+0	1.072890E+0	1.075998E+0	1.068929E+0	1.041786E+0	1.086520E+0	1.102878E+0	1.036140E+0	1.043817E+0	1.090217E+0	1.086582E+0	1.072741E+0	1.046698E+0	1.060025E+0	1.085829E+0	1.049484E+0	1.027081E+0	1.025003E+0	1.001376E+0	1.033202E+0	1.127040E+0	1.038751E+0	1.047000E+0	1.122887E+0	1.046065E+0	1.091139E+0	1.081670E+0	1.064404E+0	1.085932E+0	1.065011E+0	1.067263E+0	1.096026E+0	1.097843E+0	1.049297E+0	1.040453E+0	1.056474E+0	1.038704E+0	1.063250E+0	1.073730E+0	1.042754E+0	1.027786E+0	1.107090E+0	1.036221E+0	1.039978E+0	1.053400E+0	1.079312E+0	1.118264E+0	1.033234E+0	1.081778E+0	1.069925E+0	1.044383E+0	1.074288E+0	1.030055E+0	1.097473E+0	1.056842E+0	1.082586E+0	1.047854E+0	1.115941E+0	1.059048E+0	1.014046E+0	1.015448E+0	1.054025E+0	1.066165E+0	1.078106E+0	1.027517E+0	1.047543E+0	1.075419E+0	1.036890E+0	1.095300E+0	1.122841E+0	1.052449E+0	1.111385E+0	1.070358E+0	1.080773E+0	1.064742E+0	1.077775E+0	1.011564E+0	1.073055E+0	1.049004E+0	1.068423E+0	1.097238E+0	1.034449E+0	1.039470E+0
5.550190E+2	9.703896E-1	1.027706E+0	9.423275E-1	9.377012E-1	9.721259E-1	9.686414E-1	9.880757E-1	1.023443E+0	1.008358E+0	1.015402E+0	9.690264E-1	9.867268E-1	1.004092E+0	9.879301E-1	9.506679E-1	9.987547E-1	9.956318E-1	1.010778E+0	9.507133E-1	1.034637E+0	9.890878E-1	9.934719E-1	9.800891E-1	9.989487E-1	1.069334E+0	9.941719E-1	9.809318E-1	9.947807E-1	9.931532E-1	9.758719E-1	9.891944E-1	1.000697E+0	9.675928E-1	1.021509E+0	1.010628E+0	1.012632E+0	1.011732E+0	1.017157E+0	9.932789E-1	9.950268E-1	1.023576E+0	1.004354E+0	9.702389E-1	9.971707E-1	9.857535E-1	9.922752E-1	1.032312E+0	1.020058E+0	1.008702E+0	9.843926E-1	9.728683E-1	9.787882E-1	1.017687E+0	9.888177E-1	1.010986E+0	9.713631E-1	1.037067E+0	9.595085E-1	9.595236E-1	1.012494E+0	9.600812E-1	1.041509E+0	9.478533E-1	1.030588E+0	1.041767E+0	9.804557E-1	9.632556E-1	9.851164E-1	1.030306E+0	9.890821E-1	9.466381E-1	1.036857E+0	9.577399E-1	9.400208E-1	9.600879E-1	9.997987E-1	1.049361E+0	1.004168E+0	9.536810E-1	9.828540E-1	9.639546E-1	9.686507E-1	9.950787E-1	1.000382E+0	9.887242E-1	9.838832E-1	9.927235E-1	9.652285E-1	9.981710E-1	9.710971E-1	1.003229E+0	1.019886E+0	1.030476E+0	1.000027E+0	1.061788E+0	9.883666E-1	9.796842E-1	9.448007E-1	1.008212E+0	9.426970E-1	9.836812E-1	9.877887E-1	9.791785E-1	9.782373E-1	9.669233E-1	1.037822E+0	9.655517E-1	1.021051E+0	9.842066E-1	9.676424E-1	9.873934E-1	9.563352E-1	1.011044E+0	9.681539E-1	1.004374E+0	1.029887E+0	9.736832E-1	9.785008E-1	1.036292E+0	9.687583E-1	1.036527E+0	1.010910E+0	9.653795E-1	9.533425E-1	1.041229E+0	9.736786E-1	9.828093E-1	9.731773E-1	1.030941E+0	1.024090E+0	1.017809E+0	1.023232E+0	9.722256E-1	9.977182E-1	9.815395E-1	1.001442E+0	1.045392E+0	9.945279E-1	9.737521E-1	1.019045E+0	1.015044E+0	9.707672E-1	1.020003E+0	1.012775E+0	9.655999E-1	1.005068E+0	1.003004E+0	1.053185E+0	9.981136E-1	9.622890E-1	1.004156E+0	9.931767E-1	9.807494E-1	9.723212E-1	9.803398E-1	9.856385E-1	9.619863E-1	1.016938E+0	1.010604E+0	9.596779E-1	1.014635E+0	9.433219E-1	9.976369E-1	1.018672E+0	9.436801E-1	1.001414E+0	9.657615E-1	9.529434E-1	9.286310E-1	9.920970E-1
5.557710E+2	9.412619E-1	9.560909E-1	9.511675E-1	9.544588E-1	9.662075E-1	9.047740E-1	9.403877E-1	9.532006E-1	9.485286E-1	9.784033E-1	9.321372E-1	9.674398E-1	9.564838E-1	9.558068E-1	9.137429E-1	9.388562E-1	9.712601E-1	9.617539E-1	9.263813E-1	9.907631E-1	9.287161E-1	9.236004E-1	9.316600E-1	9.124740E-1	9.380015E-1	9.558390E-1	9.350859E-1	9.844688E-1	8.617011E-1	9.557563E-1	9.474009E-1	9.319636E-1	9.278007E-1	9.274876E-1	8.631915E-1	9.226992E-1	9.937366E-1	9.126775E-1	9.666617E-1	9.463698E-1	9.599502E-1	9.811281E-1	9.196620E-1	9.204536E-1	9.152897E-1	9.525976E-1	9.550403E-1	9.208910E-1	9.199468E-1	9.488083E-1	9.274910E-1	9.457944E-1	9.544459E-1	9.887727E-1	9.746153E-1	9.488275E-1	1.004690E+0	9.343814E-1	9.826096E-1	9.098586E-1	9.801813E-1	9.547194E-1	9.053831E-1	9.704190E-1	9.234709E-1	9.525548E-1	9.510333E-1	9.383218E-1	9.449663E-1	9.883567E-1	9.137624E-1	9.588508E-1	9.525090E-1	9.405201E-1	9.366748E-1	9.492632E-1	9.305501E-1	8.861256E-1	9.165684E-1	8.949334E-1	9.117896E-1	9.224593E-1	9.047942E-1	9.208677E-1	9.598332E-1	8.961940E-1	9.435430E-1	9.236231E-1	9.728159E-1	9.407200E-1	9.473064E-1	9.264047E-1	9.882951E-1	9.484225E-1	9.330563E-1	9.300474E-1	9.759187E-1	9.274607E-1	9.065676E-1	9.319278E-1	9.054739E-1	9.515932E-1	9.197914E-1	9.309774E-1	8.973463E-1	9.361606E-1	9.038016E-1	9.839546E-1	9.508875E-1	9.205111E-1	9.502951E-1	9.151072E-1	9.719252E-1	9.448176E-1	9.324931E-1	9.765125E-1	9.811318E-1	9.009152E-1	9.841264E-1	9.278280E-1	1.007252E+0	9.383504E-1	9.136432E-1	9.549725E-1	9.628144E-1	9.213824E-1	9.181102E-1	9.521422E-1	1.000180E+0	9.776452E-1	9.126385E-1	9.454319E-1	9.717666E-1	9.449734E-1	9.398846E-1	9.143701E-1	9.446331E-1	9.282018E-1	9.719724E-1	9.558110E-1	9.573324E-1	8.535809E-1	9.812037E-1	8.912502E-1	9.612185E-1	8.862977E-1	9.014530E-1	9.007069E-1	9.675436E-1	9.366220E-1	9.320411E-1	9.309037E-1	9.301040E-1	9.228021E-1	9.433159E-1	9.125203E-1	9.493724E-1	9.337474E-1	9.773131E-1	9.451591E-1	9.314513E-1	9.218811E-1	9.213970E-1	9.252509E-1	9.526654E-1	9.460364E-1	9.240784E-1	9.350970E-1	9.334548E-1	9.816215E-1
5.560130E+2	9.307097E-1	9.156911E-1	9.279470E-1	9.659238E-1	9.650983E-1	9.149334E-1	9.439378E-1	9.240465E-1	9.440481E-1	9.907784E-1	9.424085E-1	9.557164E-1	9.455187E-1	9.152846E-1	9.499923E-1	9.524297E-1	9.306136E-1	9.418796E-1	8.791549E-1	9.266284E-1	9.665181E-1	9.106385E-1	9.401613E-1	9.103804E-1	9.360030E-1	9.319939E-1	9.024369E-1	9.614681E-1	9.465436E-1	9.975518E-1	9.268481E-1	9.221013E-1	9.382497E-1	9.842974E-1	9.263963E-1	9.519056E-1	9.881223E-1	9.978859E-1	9.830584E-1	9.136978E-1	9.750167E-1	8.953552E-1	9.573530E-1	9.021047E-1	9.128517E-1	9.081376E-1	9.499629E-1	9.368969E-1	9.240765E-1	9.687056E-1	9.055036E-1	9.159287E-1	9.454368E-1	9.917351E-1	9.366109E-1	9.025481E-1	9.687135E-1	9.086294E-1	9.225761E-1	9.364836E-1	9.439234E-1	9.515787E-1	9.233119E-1	9.183396E-1	9.765515E-1	8.855974E-1	9.731789E-1	9.132094E-1	9.204687E-1	9.518599E-1	8.971865E-1	9.224576E-1	9.077936E-1	9.471564E-1	8.929265E-1	9.938115E-1	9.173829E-1	9.503376E-1	9.288636E-1	9.419716E-1	9.036969E-1	9.156463E-1	9.399279E-1	9.474375E-1	9.359977E-1	9.403266E-1	9.484509E-1	9.141618E-1	9.558879E-1	1.004585E+0	9.028031E-1	9.339651E-1	9.310474E-1	1.004054E+0	9.256731E-1	9.329142E-1	9.820499E-1	9.088505E-1	9.379913E-1	9.205709E-1	9.496130E-1	9.590821E-1	9.680987E-1	9.283524E-1	9.472010E-1	9.356514E-1	9.613149E-1	9.670334E-1	9.305781E-1	9.255308E-1	9.280635E-1	9.108489E-1	9.998074E-1	9.153554E-1	9.719833E-1	9.508049E-1	9.393439E-1	9.407507E-1	9.255400E-1	9.626704E-1	9.278856E-1	9.546142E-1	9.471271E-1	9.231901E-1	9.241086E-1	9.216557E-1	9.463711E-1	9.299478E-1	9.854319E-1	9.523348E-1	9.179459E-1	9.333185E-1	9.406913E-1	9.581470E-1	9.827050E-1	9.650498E-1	9.569947E-1	9.437613E-1	9.272409E-1	8.993641E-1	9.347174E-1	9.375612E-1	9.076388E-1	9.685315E-1	9.539678E-1	9.479872E-1	9.267130E-1	8.931067E-1	9.559501E-1	9.669064E-1	9.392295E-1	9.035348E-1	9.515902E-1	9.184701E-1	9.187965E-1	9.252591E-1	9.556696E-1	9.625025E-1	9.490118E-1	9.216777E-1	9.664224E-1	9.339970E-1	9.958836E-1	8.909482E-1	9.478993E-1	9.164903E-1	9.316595E-1	8.950281E-1	9.264846E-1	9.457989E-1
5.565090E+2	9.276292E-1	9.326876E-1	9.600764E-1	8.982252E-1	9.468754E-1	9.326157E-1	9.339638E-1	8.645479E-1	9.085380E-1	9.682743E-1	9.271454E-1	9.641027E-1	9.080254E-1	9.046615E-1	9.907705E-1	9.315142E-1	9.615738E-1	9.535790E-1	9.102983E-1	9.294749E-1	9.595938E-1	9.231733E-1	9.150644E-1	9.155970E-1	9.140282E-1	9.263460E-1	9.310568E-1	9.469394E-1	9.086265E-1	9.375585E-1	9.218797E-1	9.271336E-1	9.812085E-1	9.488655E-1	9.589573E-1	9.956271E-1	9.922194E-1	9.746780E-1	9.747303E-1	9.286489E-1	9.614428E-1	9.360300E-1	9.474533E-1	9.949422E-1	9.049215E-1	9.187329E-1	9.096239E-1	9.857450E-1	9.338706E-1	9.646267E-1	9.637959E-1	9.593275E-1	9.324441E-1	9.748429E-1	9.333181E-1	9.003178E-1	9.628806E-1	9.093779E-1	9.001759E-1	9.444444E-1	9.055330E-1	9.227341E-1	9.149594E-1	9.411957E-1	9.509829E-1	9.343569E-1	9.585556E-1	9.510500E-1	9.138230E-1	1.015330E+0	9.223048E-1	9.406148E-1	9.424914E-1	9.967685E-1	9.680077E-1	9.636225E-1	9.762068E-1	9.582700E-1	9.338062E-1	9.375851E-1	9.577134E-1	9.656371E-1	9.410688E-1	1.012848E+0	9.499378E-1	9.492782E-1	9.689492E-1	9.180543E-1	9.347783E-1	9.479136E-1	9.487980E-1	9.230709E-1	9.462773E-1	1.017433E+0	9.104547E-1	9.779171E-1	9.385333E-1	9.687884E-1	9.378057E-1	9.505555E-1	9.524796E-1	9.144870E-1	9.555993E-1	9.200502E-1	9.338462E-1	9.367467E-1	9.204373E-1	9.102168E-1	9.612858E-1	9.171372E-1	9.476905E-1	9.160224E-1	9.341588E-1	9.426322E-1	8.977619E-1	9.256150E-1	9.162450E-1	9.329721E-1	1.018260E+0	9.380160E-1	9.574468E-1	9.300260E-1	9.399852E-1	9.446285E-1	9.339020E-1	8.943177E-1	9.134247E-1	9.046710E-1	9.641589E-1	9.423001E-1	9.168292E-1	9.902161E-1	9.319841E-1	9.774295E-1	9.572387E-1	8.804044E-1	9.616175E-1	9.099569E-1	9.516619E-1	9.108247E-1	9.585929E-1	9.920811E-1	9.495511E-1	9.467321E-1	9.405821E-1	9.232558E-1	9.519134E-1	9.375529E-1	9.774152E-1	9.151265E-1	9.320344E-1	9.260040E-1	8.988503E-1	9.867173E-1	9.469149E-1	9.443791E-1	9.710818E-1	9.373128E-1	9.307408E-1	9.237030E-1	9.574773E-1	9.299435E-1	9.641806E-1	9.141426E-1	9.459325E-1	9.217355E-1	9.602662E-1	9.456102E-1	9.301323E-1	9.626900E-1
5.570100E+2	1.000075E+0	9.909310E-1	9.649692E-1	9.552444E-1	1.025665E+0	9.541922E-1	9.833436E-1	9.684363E-1	1.006356E+0	9.444965E-1	9.691804E-1	9.379528E-1	9.777569E-1	9.453163E-1	9.112084E-1	9.749500E-1	9.362613E-1	9.528666E-1	9.939172E-1	9.520501E-1	9.896853E-1	9.330047E-1	9.139785E-1	9.774491E-1	9.559994E-1	9.311365E-1	1.005828E+0	9.705842E-1	9.869076E-1	9.441318E-1	9.758166E-1	9.485891E-1	9.313415E-1	9.831235E-1	9.545148E-1	9.638470E-1	9.665464E-1	1.005553E+0	9.855496E-1	9.985545E-1	9.431687E-1	9.604087E-1	9.857597E-1	1.018601E+0	9.547685E-1	9.667301E-1	9.660640E-1	9.080562E-1	9.737425E-1	9.603879E-1	9.246453E-1	9.755855E-1	9.703585E-1	1.005970E+0	1.002514E+0	9.308525E-1	9.601141E-1	9.657709E-1	9.210620E-1	9.754088E-1	9.328226E-1	9.429389E-1	9.311790E-1	9.655278E-1	9.691067E-1	9.995542E-1	9.615759E-1	9.705696E-1	1.011375E+0	9.251139E-1	9.473433E-1	9.505550E-1	9.589173E-1	1.026553E+0	9.936809E-1	9.567265E-1	9.918044E-1	9.764194E-1	9.466512E-1	9.855698E-1	9.920092E-1	9.997479E-1	9.459898E-1	9.905306E-1	1.009804E+0	9.534387E-1	9.586029E-1	9.272128E-1	9.456079E-1	1.073715E+0	9.928826E-1	9.599006E-1	9.467913E-1	1.002622E+0	9.633917E-1	9.287716E-1	9.344186E-1	9.780265E-1	9.338510E-1	9.608599E-1	1.005841E+0	9.851915E-1	9.872843E-1	9.876705E-1	9.684152E-1	1.018867E+0	9.636897E-1	9.522878E-1	9.167587E-1	9.532127E-1	9.905456E-1	9.611338E-1	9.857686E-1	9.592350E-1	1.006390E+0	1.015017E+0	9.639396E-1	9.772001E-1	9.703498E-1	9.759408E-1	9.449196E-1	9.553000E-1	1.027204E+0	9.595813E-1	9.749243E-1	1.007794E+0	9.813889E-1	9.665598E-1	1.017325E+0	9.983828E-1	9.372177E-1	9.811109E-1	9.041222E-1	9.918537E-1	9.701210E-1	1.009016E+0	9.832407E-1	9.417123E-1	9.573763E-1	9.672094E-1	9.788513E-1	9.810973E-1	1.007300E+0	9.571069E-1	9.991406E-1	9.558258E-1	9.511272E-1	9.444886E-1	1.009168E+0	9.660285E-1	9.661252E-1	9.418552E-1	9.093430E-1	9.424451E-1	1.037680E+0	1.004878E+0	9.927613E-1	9.790807E-1	9.439930E-1	1.006689E+0	1.021643E+0	1.005019E+0	9.981093E-1	9.608265E-1	9.181786E-1	9.564935E-1	9.787758E-1	9.741009E-1	9.901904E-1	9.532497E-1
5.575250E+2	9.396560E-1	9.227328E-1	9.219599E-1	1.031404E+0	9.850056E-1	9.816234E-1	9.537647E-1	9.665879E-1	9.313788E-1	9.759948E-1	9.691741E-1	9.756170E-1	9.817445E-1	9.526476E-1	9.496071E-1	9.387303E-1	9.463705E-1	9.338915E-1	9.331021E-1	9.282520E-1	9.821812E-1	1.011346E+0	9.398396E-1	1.006672E+0	1.015313E+0	9.264479E-1	9.628088E-1	8.902301E-1	1.003613E+0	9.420970E-1	9.586098E-1	9.770621E-1	9.699478E-1	9.740857E-1	9.950881E-1	9.984754E-1	9.609675E-1	9.634177E-1	1.018754E+0	9.683550E-1	9.885076E-1	9.639049E-1	9.774912E-1	9.417522E-1	9.255611E-1	9.561422E-1	9.645453E-1	1.035700E+0	9.671438E-1	9.778982E-1	9.602061E-1	1.016459E+0	9.818878E-1	9.800342E-1	9.543466E-1	9.398125E-1	9.793382E-1	9.340535E-1	9.488163E-1	9.465797E-1	9.656327E-1	8.959325E-1	9.822386E-1	9.692494E-1	9.105564E-1	9.858092E-1	1.004659E+0	1.033213E+0	1.057814E+0	9.750967E-1	9.539671E-1	9.488333E-1	9.668937E-1	9.736092E-1	1.009556E+0	9.494405E-1	1.008723E+0	9.811155E-1	1.033669E+0	9.735490E-1	9.945285E-1	9.594980E-1	9.570735E-1	1.001042E+0	9.538234E-1	9.686497E-1	1.016705E+0	9.661798E-1	9.958182E-1	9.921132E-1	9.308464E-1	9.843960E-1	1.028294E+0	9.981982E-1	9.873525E-1	9.503045E-1	1.009038E+0	9.893548E-1	9.775710E-1	9.844725E-1	9.683476E-1	9.760178E-1	9.537916E-1	9.581860E-1	9.454765E-1	9.698396E-1	1.006321E+0	9.827398E-1	9.775619E-1	9.625860E-1	9.769554E-1	9.281843E-1	1.003034E+0	9.951042E-1	9.714132E-1	9.476138E-1	9.610470E-1	9.708241E-1	1.010886E+0	9.477964E-1	9.808219E-1	9.921136E-1	9.637567E-1	1.007448E+0	1.007083E+0	9.786102E-1	1.029559E+0	9.972541E-1	1.000154E+0	9.851867E-1	9.425821E-1	9.836537E-1	9.593794E-1	9.595017E-1	9.699612E-1	9.782428E-1	9.819688E-1	9.567136E-1	9.749237E-1	9.793736E-1	9.395344E-1	9.778522E-1	9.944513E-1	9.735611E-1	9.931157E-1	9.882430E-1	1.008121E+0	9.732334E-1	9.604807E-1	1.009185E+0	1.004680E+0	9.401362E-1	9.456403E-1	9.592584E-1	9.354000E-1	9.541017E-1	9.643786E-1	9.254264E-1	9.444511E-1	9.572417E-1	9.502557E-1	9.501529E-1	9.895884E-1	9.315388E-1	9.514561E-1	1.004513E+0	9.412450E-1	9.904982E-1	9.832509E-1	1.021754E+0
5.580110E+2	9.851352E-1	1.023498E+0	9.987012E-1	1.026872E+0	9.791941E-1	9.554179E-1	1.046306E+0	1.002051E+0	9.843093E-1	1.040327E+0	1.012511E+0	9.790422E-1	9.879004E-1	9.658888E-1	9.797945E-1	1.012294E+0	9.994599E-1	9.942305E-1	9.816832E-1	9.381489E-1	1.014307E+0	9.731168E-1	1.009255E+0	1.025974E+0	9.902433E-1	9.435989E-1	9.949726E-1	9.477089E-1	9.867090E-1	9.947093E-1	9.394314E-1	9.650577E-1	9.923611E-1	9.520021E-1	9.701601E-1	1.029193E+0	1.031241E+0	9.810065E-1	1.018328E+0	9.875106E-1	1.002308E+0	1.021456E+0	9.679494E-1	1.016318E+0	1.014184E+0	9.769603E-1	9.513615E-1	9.867726E-1	9.828027E-1	9.847486E-1	9.967683E-1	1.005108E+0	1.001093E+0	9.291997E-1	9.897971E-1	1.025767E+0	1.001025E+0	9.875392E-1	9.691012E-1	1.000264E+0	1.006216E+0	9.975018E-1	1.045299E+0	9.757990E-1	9.983925E-1	9.911533E-1	1.017812E+0	1.002699E+0	9.958382E-1	9.780724E-1	1.011108E+0	9.806749E-1	9.478449E-1	1.002064E+0	1.025982E+0	9.672871E-1	9.860365E-1	9.511395E-1	1.072017E+0	9.855184E-1	1.003099E+0	1.004724E+0	9.899113E-1	1.010585E+0	1.017139E+0	1.001497E+0	1.003045E+0	9.645691E-1	9.923736E-1	1.008552E+0	9.747711E-1	9.801363E-1	9.678439E-1	9.602844E-1	9.552518E-1	9.838377E-1	9.819399E-1	9.809050E-1	1.053888E+0	1.013107E+0	9.942355E-1	1.034504E+0	9.965908E-1	9.718001E-1	1.027197E+0	9.908281E-1	9.764969E-1	9.581950E-1	1.016334E+0	9.709240E-1	1.040817E+0	9.830966E-1	1.016674E+0	9.846758E-1	1.010345E+0	9.994476E-1	9.496725E-1	9.931238E-1	9.961805E-1	1.054219E+0	9.688709E-1	9.959891E-1	1.014243E+0	9.576962E-1	9.643080E-1	1.010595E+0	9.619680E-1	1.012193E+0	9.952267E-1	9.715842E-1	9.488497E-1	9.730854E-1	1.003466E+0	9.739016E-1	9.671879E-1	1.005643E+0	1.001693E+0	1.015245E+0	9.780941E-1	9.650534E-1	1.008184E+0	9.842713E-1	1.064412E+0	1.015680E+0	9.614548E-1	1.023478E+0	1.010466E+0	9.782889E-1	9.608733E-1	9.744770E-1	9.605366E-1	1.029278E+0	9.595076E-1	9.910052E-1	1.015955E+0	9.678782E-1	1.017620E+0	9.777545E-1	1.014259E+0	9.767386E-1	9.756799E-1	9.704877E-1	1.003229E+0	9.943415E-1	1.014362E+0	9.535390E-1	9.612861E-1	1.005048E+0	9.783327E-1	1.033106E+0
5.585100E+2	1.004588E+0	1.008469E+0	1.023749E+0	9.947781E-1	1.002914E+0	1.023651E+0	1.051476E+0	1.037064E+0	1.027401E+0	1.057759E+0	1.012220E+0	1.027469E+0	1.039589E+0	1.038681E+0	9.860531E-1	1.010692E+0	1.006938E+0	1.022317E+0	1.064411E+0	9.927384E-1	1.030401E+0	1.033012E+0	9.847476E-1	1.013463E+0	1.023468E+0	1.026450E+0	9.879408E-1	1.018345E+0	1.034097E+0	9.988616E-1	1.097135E+0	1.036838E+0	1.028242E+0	1.011298E+0	1.039834E+0	1.031145E+0	9.909425E-1	1.029204E+0	1.035991E+0	9.921521E-1	9.871276E-1	1.049247E+0	1.026938E+0	1.018869E+0	1.006948E+0	1.078154E+0	9.857512E-1	1.041801E+0	9.803278E-1	1.019728E+0	1.023631E+0	1.037710E+0	1.061154E+0	1.040336E+0	1.010216E+0	9.826989E-1	1.031566E+0	1.059425E+0	9.920532E-1	9.594899E-1	1.044852E+0	1.059098E+0	1.022483E+0	1.025727E+0	1.035555E+0	1.016683E+0	1.016315E+0	9.955338E-1	1.040763E+0	1.006708E+0	1.015976E+0	1.015063E+0	1.020560E+0	1.032017E+0	1.023330E+0	1.054441E+0	1.017844E+0	1.059802E+0	9.913937E-1	1.003249E+0	1.012387E+0	1.031469E+0	9.993097E-1	1.057555E+0	1.017284E+0	1.058313E+0	1.066863E+0	1.005898E+0	1.043523E+0	1.004098E+0	1.029014E+0	9.963536E-1	1.007843E+0	1.052969E+0	1.047567E+0	1.009788E+0	1.028501E+0	1.015047E+0	1.016261E+0	1.032093E+0	1.022584E+0	9.969834E-1	1.051233E+0	1.022321E+0	1.048873E+0	9.940186E-1	1.039329E+0	1.036021E+0	9.975065E-1	1.051894E+0	9.793967E-1	1.006192E+0	1.038129E+0	1.005872E+0	9.566270E-1	1.039180E+0	1.008450E+0	1.026908E+0	1.021991E+0	1.016160E+0	1.057095E+0	1.045102E+0	1.038659E+0	1.039630E+0	9.953404E-1	1.043500E+0	1.031543E+0	9.924750E-1	1.025555E+0	1.025870E+0	9.992427E-1	1.042616E+0	1.056499E+0	9.894512E-1	1.036180E+0	1.019310E+0	1.020212E+0	9.790489E-1	1.033437E+0	1.061717E+0	9.945479E-1	1.063800E+0	1.006150E+0	1.003860E+0	1.012702E+0	1.005291E+0	9.617208E-1	1.035269E+0	9.856700E-1	1.004689E+0	1.007439E+0	1.003604E+0	1.016764E+0	1.002637E+0	9.859525E-1	1.019412E+0	1.044337E+0	1.025567E+0	1.028960E+0	1.029318E+0	1.029310E+0	1.025965E+0	1.002989E+0	9.968647E-1	1.023600E+0	1.020696E+0	9.753811E-1	1.067278E+0	1.066400E+0	9.851745E-1
5.590100E+2	1.010244E+0	9.677953E-1	9.810548E-1	1.023106E+0	1.037853E+0	1.002422E+0	1.067295E+0	9.965159E-1	9.973634E-1	1.031934E+0	1.015583E+0	1.052852E+0	1.030071E+0	9.886640E-1	1.019660E+0	1.037859E+0	1.014309E+0	9.986494E-1	9.848659E-1	1.039844E+0	9.625558E-1	1.004071E+0	1.005098E+0	9.882166E-1	1.069295E+0	9.953228E-1	9.950877E-1	1.003327E+0	1.018631E+0	1.042755E+0	1.006268E+0	1.005768E+0	1.008281E+0	1.077728E+0	1.000362E+0	9.797022E-1	1.000693E+0	1.017349E+0	1.024483E+0	1.034858E+0	9.553258E-1	1.017066E+0	9.953262E-1	9.791226E-1	9.879559E-1	1.016170E+0	1.021639E+0	9.609143E-1	1.020375E+0	1.029573E+0	9.955920E-1	9.752402E-1	9.857903E-1	1.045641E+0	9.978747E-1	9.913520E-1	1.001590E+0	1.027528E+0	9.885658E-1	1.011461E+0	1.007460E+0	1.000672E+0	9.926673E-1	1.009351E+0	9.752498E-1	9.919569E-1	9.868363E-1	1.042607E+0	9.708439E-1	1.004576E+0	1.003619E+0	1.008787E+0	1.087970E+0	9.885480E-1	1.004512E+0	1.001441E+0	1.013937E+0	1.014678E+0	9.961098E-1	9.930680E-1	9.737568E-1	1.020253E+0	1.007066E+0	1.008188E+0	9.854681E-1	9.629227E-1	9.951706E-1	1.025528E+0	9.828571E-1	1.051503E+0	1.011844E+0	1.015856E+0	1.018219E+0	1.048342E+0	1.017380E+0	9.954752E-1	9.876467E-1	1.017147E+0	9.719079E-1	9.956639E-1	9.806789E-1	1.042001E+0	9.849114E-1	1.007646E+0	1.008296E+0	1.003963E+0	9.874743E-1	1.001504E+0	1.021002E+0	1.035866E+0	1.021817E+0	1.000238E+0	1.047902E+0	9.957740E-1	1.032429E+0	9.881874E-1	1.064207E+0	1.004773E+0	1.017907E+0	1.038550E+0	1.003856E+0	9.902317E-1	9.786281E-1	1.030197E+0	9.796961E-1	9.427674E-1	1.033701E+0	9.963059E-1	9.999593E-1	9.884530E-1	9.968353E-1	9.836104E-1	1.014006E+0	9.762834E-1	9.861159E-1	1.000030E+0	1.016108E+0	1.040514E+0	9.779035E-1	9.945442E-1	1.021406E+0	9.639186E-1	1.012952E+0	1.001310E+0	1.022472E+0	1.028915E+0	1.049492E+0	9.957767E-1	1.048122E+0	9.816898E-1	1.013600E+0	9.950687E-1	1.015853E+0	1.025591E+0	1.019245E+0	9.876629E-1	9.741555E-1	1.023386E+0	1.035934E+0	1.012007E+0	1.036374E+0	1.002326E+0	1.009352E+0	9.996128E-1	9.945231E-1	9.949113E-1	1.115763E+0	9.756322E-1	1.003411E+0	1.008557E+0
5.595170E+2	9.889643E-1	9.814984E-1	9.753840E-1	1.001240E+0	9.697149E-1	9.946856E-1	9.432324E-1	9.462781E-1	9.988631E-1	9.654732E-1	9.868614E-1	9.748344E-1	9.826009E-1	1.007497E+0	1.000111E+0	9.936960E-1	9.788033E-1	9.932114E-1	9.863531E-1	9.990120E-1	9.602949E-1	1.013937E+0	9.759269E-1	9.634976E-1	9.815560E-1	1.036702E+0	9.924359E-1	1.005016E+0	9.679722E-1	1.011851E+0	1.030119E+0	1.004270E+0	9.708451E-1	1.006085E+0	1.013656E+0	9.968436E-1	1.011499E+0	1.006934E+0	9.609144E-1	1.015664E+0	1.015631E+0	1.000355E+0	9.851846E-1	9.916793E-1	1.008930E+0	9.449938E-1	9.796952E-1	9.921635E-1	9.552165E-1	9.781974E-1	1.003236E+0	9.799538E-1	9.468043E-1	9.733326E-1	9.918934E-1	9.634224E-1	9.786246E-1	1.012021E+0	1.022718E+0	1.014455E+0	9.833297E-1	9.927745E-1	9.755437E-1	9.877050E-1	9.930652E-1	1.007750E+0	9.669334E-1	9.920576E-1	9.859523E-1	1.002343E+0	9.718243E-1	9.947499E-1	9.989575E-1	9.985008E-1	9.753592E-1	9.628198E-1	9.943444E-1	9.781813E-1	9.934435E-1	1.000963E+0	1.010666E+0	9.309138E-1	9.928182E-1	9.519821E-1	9.495296E-1	9.644436E-1	9.930187E-1	1.013456E+0	9.911340E-1	9.828571E-1	1.010851E+0	9.968659E-1	9.896175E-1	9.657676E-1	1.017947E+0	9.905927E-1	1.006547E+0	1.035668E+0	9.889476E-1	1.001817E+0	1.019511E+0	9.755676E-1	9.644268E-1	1.022053E+0	9.662857E-1	9.818298E-1	1.008909E+0	1.009932E+0	9.753737E-1	9.594094E-1	9.424045E-1	9.861078E-1	9.699479E-1	9.711946E-1	9.351013E-1	9.853116E-1	9.920261E-1	1.004418E+0	9.640699E-1	9.668099E-1	9.395698E-1	9.737899E-1	9.379044E-1	9.824304E-1	9.871862E-1	9.867334E-1	9.566486E-1	9.872588E-1	9.769802E-1	1.001451E+0	9.943257E-1	9.737719E-1	9.357092E-1	1.024966E+0	9.780457E-1	1.000513E+0	9.754923E-1	1.000358E+0	1.013145E+0	9.565963E-1	9.467663E-1	1.007798E+0	9.493267E-1	9.979173E-1	9.623215E-1	9.865220E-1	9.950877E-1	9.462241E-1	1.000439E+0	1.005882E+0	1.010017E+0	9.764501E-1	1.035738E+0	9.743934E-1	9.659183E-1	9.719973E-1	9.916882E-1	9.879735E-1	9.534207E-1	9.710052E-1	9.580827E-1	9.937602E-1	9.779325E-1	9.714887E-1	9.791227E-1	9.923889E-1	9.617694E-1	9.891485E-1	1.015650E+0	9.899169E-1
5.600130E+2	1.000281E+0	1.022804E+0	1.023201E+0	9.995836E-1	9.652045E-1	1.015672E+0	9.304342E-1	9.752862E-1	9.908881E-1	9.464036E-1	9.658981E-1	1.005698E+0	9.660858E-1	9.828040E-1	9.825963E-1	9.630795E-1	9.598094E-1	9.595220E-1	9.629967E-1	1.002854E+0	1.003274E+0	1.041737E+0	1.005747E+0	1.007666E+0	9.868358E-1	9.769107E-1	9.823699E-1	1.016052E+0	1.019023E+0	9.914248E-1	9.767202E-1	9.510541E-1	9.746252E-1	9.649168E-1	9.648241E-1	9.923394E-1	9.943537E-1	9.855965E-1	9.952371E-1	9.876900E-1	9.532554E-1	9.780478E-1	1.012595E+0	9.386772E-1	9.614928E-1	9.799799E-1	1.014664E+0	9.661438E-1	1.051325E+0	1.026828E+0	9.717913E-1	9.751616E-1	1.010186E+0	9.745475E-1	1.033042E+0	1.016001E+0	1.037929E+0	9.844689E-1	9.910045E-1	1.007739E+0	1.019359E+0	1.002725E+0	9.726735E-1	1.005587E+0	9.226505E-1	9.632453E-1	9.715745E-1	9.312115E-1	1.003533E+0	9.883805E-1	9.513355E-1	9.771720E-1	9.762771E-1	9.710141E-1	1.022842E+0	9.892137E-1	9.435897E-1	1.000314E+0	9.712563E-1	1.021127E+0	1.032688E+0	9.738950E-1	1.020244E+0	9.785323E-1	9.997616E-1	9.684040E-1	1.017734E+0	9.928228E-1	9.706792E-1	9.944798E-1	9.963322E-1	1.014998E+0	1.046084E+0	1.007491E+0	9.503602E-1	1.023160E+0	9.794490E-1	9.982246E-1	9.844228E-1	9.646451E-1	1.030465E+0	9.434289E-1	9.910110E-1	1.012274E+0	9.621347E-1	9.807676E-1	9.795692E-1	9.865976E-1	9.940896E-1	1.003241E+0	1.034354E+0	1.015567E+0	9.280253E-1	1.007354E+0	9.710600E-1	9.552690E-1	9.611340E-1	9.832836E-1	1.002783E+0	1.008433E+0	1.000303E+0	9.662467E-1	1.001971E+0	1.000928E+0	1.044172E+0	1.026946E+0	9.927867E-1	1.000072E+0	9.911917E-1	1.011060E+0	1.007774E+0	9.550256E-1	9.928945E-1	9.872895E-1	1.022367E+0	9.847093E-1	9.903487E-1	9.735683E-1	9.581368E-1	1.034950E+0	9.919288E-1	1.006313E+0	9.568569E-1	1.000897E+0	1.010846E+0	9.809312E-1	9.762194E-1	1.057802E+0	9.985485E-1	1.004428E+0	1.001000E+0	1.001944E+0	9.757968E-1	1.018358E+0	1.004383E+0	1.015393E+0	9.767183E-1	9.808922E-1	9.733747E-1	9.437037E-1	9.994191E-1	1.004613E+0	1.008521E+0	9.992329E-1	9.751885E-1	1.014793E+0	1.013038E+0	1.012466E+0	9.569944E-1	1.021128E+0
5.605090E+2	9.997066E-1	9.968888E-1	1.030096E+0	9.825779E-1	1.051125E+0	9.955870E-1	9.827820E-1	1.011649E+0	1.019982E+0	9.753795E-1	1.038028E+0	1.011333E+0	1.014485E+0	1.027075E+0	1.029985E+0	1.029030E+0	1.008092E+0	1.020379E+0	1.009909E+0	1.004018E+0	1.060229E+0	9.902311E-1	1.029018E+0	9.936852E-1	9.713465E-1	9.903158E-1	1.029494E+0	1.022745E+0	9.785918E-1	1.000096E+0	1.009674E+0	1.056572E+0	1.033765E+0	1.015640E+0	1.023375E+0	1.003502E+0	9.701977E-1	9.850892E-1	1.011209E+0	9.858694E-1	1.040696E+0	9.756291E-1	1.001693E+0	1.021164E+0	1.039195E+0	1.010967E+0	1.020731E+0	1.019729E+0	1.005694E+0	9.882493E-1	1.023553E+0	1.054768E+0	1.001567E+0	1.013809E+0	1.017411E+0	1.016422E+0	1.002217E+0	9.704905E-1	1.020471E+0	1.007737E+0	9.925372E-1	9.972296E-1	9.865695E-1	1.009817E+0	1.049465E+0	1.012624E+0	1.047671E+0	1.011428E+0	1.038208E+0	9.912158E-1	1.034438E+0	1.029514E+0	9.605582E-1	1.018345E+0	1.002421E+0	1.011184E+0	1.039780E+0	1.018255E+0	9.783778E-1	1.015298E+0	9.596415E-1	1.030307E+0	9.940418E-1	9.936220E-1	1.036098E+0	1.018218E+0	9.640319E-1	9.951647E-1	1.001624E+0	1.019223E+0	1.007955E+0	9.984864E-1	9.895511E-1	9.573948E-1	1.016429E+0	1.009605E+0	1.013293E+0	9.744566E-1	9.815214E-1	9.866657E-1	9.735228E-1	1.012200E+0	1.008516E+0	9.672172E-1	1.001700E+0	1.044585E+0	1.001409E+0	1.023667E+0	9.752336E-1	9.888649E-1	9.929764E-1	9.763355E-1	1.044821E+0	1.032431E+0	1.027856E+0	1.018517E+0	1.023076E+0	9.725435E-1	9.683999E-1	9.713364E-1	1.012199E+0	1.010076E+0	1.018214E+0	1.040048E+0	1.049997E+0	9.973184E-1	1.013094E+0	1.049122E+0	9.923695E-1	1.033118E+0	1.028454E+0	1.041244E+0	9.939423E-1	1.045039E+0	1.035052E+0	9.962854E-1	1.030016E+0	9.823522E-1	1.024823E+0	9.952262E-1	1.036696E+0	1.016274E+0	1.006568E+0	1.049760E+0	1.021722E+0	9.893845E-1	1.010771E+0	1.011171E+0	1.033236E+0	1.017642E+0	1.032073E+0	9.969007E-1	1.014157E+0	9.896068E-1	1.032824E+0	1.008728E+0	9.852053E-1	9.980881E-1	9.940108E-1	1.017871E+0	9.843556E-1	9.860846E-1	1.003467E+0	1.018083E+0	1.028947E+0	1.050298E+0	1.007665E+0	9.439760E-1	9.752601E-1	9.644833E-1
5.610010E+2	1.011081E+0	9.990462E-1	9.678132E-1	9.718430E-1	9.939943E-1	1.012565E+0	9.784743E-1	1.031157E+0	9.811927E-1	9.827244E-1	9.688993E-1	9.487714E-1	9.792680E-1	9.893894E-1	1.001800E+0	9.533494E-1	1.032588E+0	1.011691E+0	1.009782E+0	1.023385E+0	9.689390E-1	9.438955E-1	9.902067E-1	1.007497E+0	9.772552E-1	1.030699E+0	1.017699E+0	9.868058E-1	9.949760E-1	9.603033E-1	9.406520E-1	9.804402E-1	9.918807E-1	9.723297E-1	9.877888E-1	9.672750E-1	1.001073E+0	9.948203E-1	9.538373E-1	9.962557E-1	1.045657E+0	9.581984E-1	1.010314E+0	1.034169E+0	9.812954E-1	9.927753E-1	1.026158E+0	1.032476E+0	1.004260E+0	9.726757E-1	9.854283E-1	9.720583E-1	9.934050E-1	1.023134E+0	9.597668E-1	1.004337E+0	9.470477E-1	9.585282E-1	1.016087E+0	9.988541E-1	9.462450E-1	9.499989E-1	1.004764E+0	9.860140E-1	1.025622E+0	1.016588E+0	9.928575E-1	1.024464E+0	9.648608E-1	1.028705E+0	1.011699E+0	9.940395E-1	1.007832E+0	9.895106E-1	9.455535E-1	1.013614E+0	1.004467E+0	9.776301E-1	9.974017E-1	9.807769E-1	1.007762E+0	1.008437E+0	9.966087E-1	9.995350E-1	9.947200E-1	1.026202E+0	9.601372E-1	1.002561E+0	1.017809E+0	9.392866E-1	9.692325E-1	9.973036E-1	9.808422E-1	1.007752E+0	9.950654E-1	9.875416E-1	1.002624E+0	9.785521E-1	1.003051E+0	1.006008E+0	9.790035E-1	9.953149E-1	1.003311E+0	9.966888E-1	9.855140E-1	1.004009E+0	1.006813E+0	9.840821E-1	1.020461E+0	9.898007E-1	9.882340E-1	1.032463E+0	9.545005E-1	1.002699E+0	1.066582E+0	1.014088E+0	1.001435E+0	1.014950E+0	1.028668E+0	9.444909E-1	1.018106E+0	1.018564E+0	1.010381E+0	9.490707E-1	9.793004E-1	9.921398E-1	1.010258E+0	9.625731E-1	1.018718E+0	9.684643E-1	1.024519E+0	1.030646E+0	1.003483E+0	1.003070E+0	9.750516E-1	9.935101E-1	9.661300E-1	1.008915E+0	1.014461E+0	9.919133E-1	1.000470E+0	9.576246E-1	1.003734E+0	9.305745E-1	1.008482E+0	9.854776E-1	9.962424E-1	9.754680E-1	9.731103E-1	1.011192E+0	9.753345E-1	9.967543E-1	9.821837E-1	9.984076E-1	9.757226E-1	1.028929E+0	1.010276E+0	1.006338E+0	1.000041E+0	1.049356E+0	1.016778E+0	1.016764E+0	9.945107E-1	1.020376E+0	9.842572E-1	9.733733E-1	9.650968E-1	1.006451E+0	1.003952E+0	9.976342E-1
