Photon Energy (eV)	#1	#2	#3	#4	#5	#6	#7	#8	#9	#10	#11	#12	#13	#14	#15	#16	#17	#18	#19	#20	#21	#22	#23	#24	#25	#26	#27	#28	#29	#30	#31	#32	#33	#34	#35	#36	#37	#38	#39	#40	#41	#42	#43	#44	#45	#46	#47	#48	#49	#50	#51	#52	#53	#54	#55	#56	#57	#58	#59	#60	#61	#62	#63	#64	#65	#66	#67	#68	#69	#70	#71	#72	#73	#74	#75	#76	#77	#78	#79	#80	#81	#82	#83	#84	#85	#86	#87	#88	#89	#90	#91	#92	#93	#94	#95	#96	#97	#98	#99	#100	#101	#102	#103	#104	#105	#106	#107	#108	#109	#110	#111	#112	#113	#114	#115	#116	#117	#118	#119	#120	#121	#122	#123	#124	#125	#126	#127	#128	#129	#130	#131	#132	#133	#134	#135	#136	#137	#138	#139	#140	#141	#142	#143	#144	#145	#146	#147	#148	#149	#150	#151	#152	#153	#154	#155	#156	#157	#158	#159	#160	#161	#162	#163	#164	#165	#166	#167	#168	#169	#170	
5.300270E+2	-4.964315E-3	-1.396814E-2	3.772286E-4	-1.291153E-3	-1.723464E-2	-1.605165E-2	5.696538E-3	-4.099492E-3	-5.690893E-3	-1.054955E-2	-6.861391E-3	-4.519490E-3	-1.439989E-2	-9.455225E-3	-1.007723E-2	-5.887967E-3	-6.510784E-3	-1.499958E-2	-1.059461E-2	-2.754566E-3	-1.059566E-2	-8.213020E-3	-1.169787E-2	-9.182055E-3	-4.167478E-3	-9.902846E-4	-9.133239E-3	-9.103537E-3	-1.244459E-2	-9.950685E-3	-9.083389E-3	-1.603339E-2	-2.060377E-2	-1.219056E-2	-2.252043E-3	-1.571898E-2	-9.776184E-3	-9.701481E-3	-6.004878E-3	-1.491155E-2	-1.161316E-2	-1.197827E-2	-1.570777E-2	-4.172196E-3	-7.731514E-3	-1.406223E-2	-1.010804E-2	-8.483426E-3	-7.478622E-3	-9.048920E-3	-6.367025E-3	-6.631412E-3	-5.520513E-3	-1.075476E-2	-2.456344E-3	-7.522144E-3	-1.014347E-2	-9.581794E-3	-1.123907E-2	-6.742599E-3	-1.539484E-2	1.194517E-3	-1.370969E-2	-2.161369E-3	-6.604036E-3	-1.430537E-2	-9.398867E-3	-4.570658E-3	-1.383110E-3	-1.382570E-2	-1.037089E-2	-6.062076E-3	-2.039181E-2	-2.999940E-3	-3.283632E-3	-1.688435E-2	-4.820520E-3	-1.206282E-2	-1.091860E-2	-5.472625E-3	-4.596630E-3	-1.393597E-2	-8.954690E-3	-1.019453E-2	-1.442768E-2	3.954646E-3	-8.049201E-3	-7.585455E-3	-6.243137E-3	-1.529554E-2	-3.132800E-3	-7.493259E-3	-9.894881E-3	-1.501937E-2	-9.127884E-3	-7.487272E-3	-8.487686E-3	-1.158266E-2	-6.875305E-3	1.713812E-3	-1.202865E-2	3.837349E-3	-1.278307E-2	-5.347083E-3	-1.597597E-2	-9.674319E-3	-1.831141E-2	-3.914300E-3	-1.176170E-2	-1.724140E-2	-1.417788E-2	-5.088041E-3	-1.252998E-2	-1.133087E-2	-5.019342E-3	-7.188655E-3	-7.515155E-3	-7.657113E-3	-1.105546E-2	-1.810146E-2	-7.039653E-3	1.595247E-3	-5.223586E-3	-2.126425E-2	-7.658709E-3	-8.232017E-3	-5.482256E-3	-7.969952E-3	-8.819630E-3	-1.708429E-2	-4.160311E-3	-8.768590E-3	-5.160622E-3	-1.235175E-2	-9.896287E-3	-9.235070E-3	-9.992185E-3	-1.287983E-2	-1.952757E-3	-7.297184E-3	-2.821795E-3	-4.196984E-3	-1.286426E-2	-1.490036E-2	-6.175508E-3	-1.676188E-2	-1.594438E-2	3.934615E-3	-7.624645E-3	-9.282244E-3	-1.275300E-2	-8.990822E-3	-1.895488E-2	-1.808010E-2	-5.066732E-3	-2.150308E-3	-7.305506E-3	-1.106449E-2	-1.088806E-2	-1.323179E-2	-2.728678E-4	-1.380564E-2	-1.030931E-2	-1.224531E-2	-9.484232E-3	-1.420086E-2	-9.598749E-3	-8.677008E-3	-1.723537E-2	-8.559908E-3
5.305230E+2	-1.344510E-3	-1.327959E-2	-7.544321E-3	-7.316561E-3	-6.267130E-3	-7.011053E-3	-7.353669E-3	-7.925668E-3	-8.803140E-3	-7.864195E-3	-2.318035E-3	-1.033018E-2	-1.734055E-3	-1.066966E-2	-1.235270E-2	-1.253563E-2	-5.911072E-3	-2.612282E-3	-8.213005E-4	-8.738618E-3	-6.232695E-4	-1.850088E-2	-1.286761E-2	-1.967589E-3	6.945360E-4	-1.548432E-2	-7.289002E-3	-7.282807E-3	-3.494697E-3	-8.068137E-3	-7.349269E-3	-1.112144E-3	-8.062350E-3	-3.070912E-3	-7.735252E-3	2.619851E-3	-4.373559E-3	-1.166049E-2	-7.975196E-3	-4.538317E-3	-1.571190E-2	-1.013532E-3	-3.996644E-3	-8.446133E-3	-5.271490E-3	-5.449116E-3	-1.498781E-2	-1.515585E-2	-6.232174E-3	-5.005758E-3	-6.366976E-3	-6.004119E-3	-5.520493E-3	-4.650740E-3	-6.754959E-3	-1.247787E-2	2.010445E-3	-8.883135E-3	-1.251827E-2	-8.656021E-3	-3.744711E-3	-9.096742E-3	-6.182791E-3	-3.422194E-3	-1.181284E-2	-1.237962E-2	-6.793229E-3	-9.335782E-3	-5.255925E-3	-6.333057E-3	-6.064345E-3	-8.929283E-3	1.781126E-4	-1.458569E-2	-9.194100E-3	-6.436598E-3	-6.025629E-3	-5.676621E-3	-4.602056E-3	-7.562187E-3	-6.566642E-4	-9.193839E-3	-5.116947E-3	1.196297E-8	-7.070512E-3	-7.701124E-3	-8.682321E-3	-5.483425E-4	-5.600455E-3	-2.294363E-3	9.217164E-5	-1.898296E-3	-1.855246E-3	-3.488386E-3	-8.358065E-3	-2.495759E-2	-7.137357E-3	-8.415512E-3	-9.030260E-3	-7.283622E-3	-1.336528E-3	-1.151213E-2	-3.834939E-3	-1.069418E-2	-1.065063E-3	5.076621E-3	6.314053E-4	-9.242142E-3	-6.988831E-3	-2.072740E-3	-1.611125E-2	3.816024E-3	-4.790843E-3	-1.590319E-3	-1.718145E-2	-9.511147E-3	-5.491833E-3	-1.120555E-3	-1.370124E-2	-5.577795E-3	-2.195259E-2	-7.477595E-3	-7.148088E-3	-1.517498E-2	-1.424888E-3	-1.281572E-2	-5.482229E-3	-3.375497E-3	-6.192512E-3	-8.447170E-3	2.232368E-3	-5.432744E-3	-3.914961E-3	-3.359714E-3	-1.056243E-2	-9.235033E-3	2.780411E-3	-4.427451E-3	-4.686585E-3	-9.287344E-3	-2.821801E-3	-9.419888E-3	-5.847307E-4	-4.539130E-3	5.218664E-4	-3.652027E-3	-2.350803E-3	-7.364793E-3	-2.150519E-3	-1.056889E-2	-6.930939E-3	-8.348627E-3	1.570834E-3	-1.298551E-3	5.164189E-3	-1.104486E-2	1.328271E-3	-6.390673E-3	-6.692630E-3	-6.568293E-3	-1.491723E-2	-7.063347E-3	-7.685109E-3	-1.157562E-2	-6.322832E-3	-1.160202E-2	-8.254963E-3	-1.180783E-2	-9.898710E-3	-1.510611E-3
5.310100E+2	-2.068476E-3	-8.852696E-4	-4.243687E-3	-1.032924E-2	-2.154312E-3	-7.011077E-3	-1.242877E-2	-1.302724E-2	-6.313370E-3	-1.524888E-2	-6.212309E-3	-1.291275E-2	-9.650176E-3	-6.419127E-3	-9.752139E-4	-8.547036E-3	-1.430651E-2	4.466154E-3	-1.749343E-2	-8.073695E-3	-6.232747E-3	-7.002658E-3	-8.773387E-3	-1.180550E-2	-6.251228E-3	-2.880803E-3	-1.097741E-2	-1.213805E-2	-4.091369E-3	-5.558046E-3	-1.023946E-2	-7.599615E-3	-4.299885E-3	4.745930E-3	-4.308227E-3	5.821495E-4	-4.373551E-3	-5.130559E-3	-7.318459E-3	-4.538297E-3	-6.831251E-3	-1.391324E-2	-2.044790E-3	-1.556935E-2	-8.961497E-3	-9.140447E-3	-5.838262E-3	-1.382135E-2	-6.232203E-3	-2.984204E-3	-9.693046E-3	-4.122235E-3	-1.717492E-2	-1.259570E-3	6.860254E-9	-6.902642E-3	-1.142284E-2	1.996563E-4	-2.923961E-3	6.651462E-3	-7.239746E-3	-9.739993E-3	-4.301082E-3	-1.350864E-2	-8.557344E-3	-1.302154E-2	-7.444646E-3	-4.570639E-3	-1.558323E-2	5.351899E-4	-2.372989E-3	-6.062094E-3	-1.691893E-3	-7.344581E-3	-5.253804E-3	-7.742528E-3	-8.435917E-3	-2.838336E-3	-8.392012E-3	-1.731345E-2	-3.939962E-3	-1.122616E-2	3.198107E-3	-3.640876E-3	1.624303E-3	-1.134357E-2	-9.948465E-3	-5.666238E-3	-1.101752E-3	-7.647781E-3	-2.487756E-3	-9.591348E-3	-1.113172E-2	-2.131808E-3	-2.199537E-3	-1.028249E-2	-9.162799E-3	-5.248405E-3	-1.262190E-2	-1.178234E-2	-6.014311E-3	-9.593408E-3	-6.391532E-3	6.684068E-4	-3.098342E-3	-7.662837E-3	-9.471406E-3	-3.914324E-3	-4.005804E-3	-6.029760E-3	1.288943E-3	-1.878668E-2	-3.501001E-3	-5.069102E-3	-7.046298E-3	5.529940E-4	-1.021294E-2	-6.349782E-3	-3.779636E-3	-4.841086E-3	1.389443E-3	-3.290170E-3	-2.016101E-3	-9.762209E-3	-1.077565E-2	-6.267532E-3	-1.393794E-2	-6.657306E-3	-1.595030E-3	-9.111635E-3	-3.450036E-3	-6.099859E-3	-4.537760E-3	1.482209E-3	-1.237005E-3	-6.795602E-3	3.475556E-4	-7.949289E-3	-5.370044E-3	-6.633795E-3	-9.193497E-3	-9.419885E-3	-4.677880E-3	-2.466908E-3	-4.348950E-3	-1.545087E-2	2.657400E-3	-1.230832E-2	-1.466273E-3	-7.995549E-3	8.317158E-4	1.284429E-3	-1.309034E-2	-5.993726E-4	-8.477074E-3	-4.887119E-3	-3.984791E-3	-8.393726E-3	-1.018877E-2	-8.567338E-3	-7.276725E-3	-8.561656E-3	-1.124655E-3	3.826683E-3	5.058288E-3	-7.054017E-3	-9.598755E-3	-1.055550E-2	2.329118E-3	-1.208457E-2
5.315080E+2	-1.437583E-2	2.557514E-3	-5.563966E-3	-6.563399E-3	-5.581685E-3	-4.428039E-3	-9.528772E-3	-4.099480E-3	5.513064E-3	-5.178857E-3	-2.318041E-3	-5.515587E-9	4.598908E-3	-4.597496E-3	3.575781E-3	-1.899313E-3	-5.311398E-3	-6.151518E-3	4.927716E-3	5.699032E-4	2.493098E-3	1.417827E-2	4.094236E-3	2.623446E-3	-7.640400E-3	2.790769E-3	-4.215347E-3	1.820704E-3	-5.881340E-3	-9.323202E-3	8.257632E-3	-6.302122E-3	-6.181129E-3	-6.327922E-3	-5.679059E-3	8.053546E-3	1.029079E-3	-2.518640E-3	1.219747E-3	-6.483293E-3	-3.415616E-3	-1.004330E-2	-2.044814E-3	-6.105582E-4	-9.664276E-4	-4.833892E-3	2.614324E-4	1.525108E-3	-4.985748E-3	1.732784E-3	-1.035827E-2	6.541803E-3	-1.226759E-3	-7.363648E-3	-4.912742E-3	5.309926E-4	-6.305396E-3	2.295639E-3	-8.680528E-3	-3.553552E-3	2.080402E-3	1.837747E-3	1.344092E-3	-1.413905E-2	-7.906254E-3	-4.034863E-3	5.583497E-3	-4.570630E-3	-4.610396E-3	2.408376E-3	-2.988221E-3	-3.768327E-3	5.164734E-3	-8.068683E-3	-5.910483E-3	1.054105E-2	-1.807696E-3	-6.386209E-3	6.136059E-3	4.975122E-3	-3.940004E-3	-4.451732E-3	4.477356E-3	-8.738183E-3	-1.309002E-2	-6.244139E-3	1.447073E-3	2.650349E-3	-6.243101E-3	-3.823879E-3	-5.067734E-3	-4.695774E-3	-1.236855E-3	1.938017E-3	-3.739155E-3	3.693715E-3	-3.086418E-3	-1.665010E-2	-6.875299E-3	-8.033410E-3	-2.004776E-3	-4.476903E-3	-1.260044E-9	6.684037E-4	1.646019E-3	-5.651324E-3	-5.051424E-3	-7.719915E-3	4.346710E-3	-4.710756E-3	4.511124E-3	-6.457873E-3	-2.211158E-3	-1.550541E-2	-9.652501E-4	5.972123E-3	-7.515186E-3	-5.696157E-3	7.464814E-3	6.209248E-3	-2.500950E-3	2.293130E-3	-8.431110E-3	4.446154E-3	-1.139908E-2	5.519172E-3	-2.787839E-4	-7.501510E-4	-8.819678E-3	-8.447219E-3	1.014857E-4	-9.435751E-3	-6.406220E-3	-7.509864E-3	7.612701E-4	2.352310E-3	-8.688791E-4	4.024955E-3	1.464571E-3	-3.316926E-3	-2.821789E-3	-4.196945E-3	-3.313527E-3	-6.611445E-3	1.739590E-3	2.902893E-3	-8.789875E-3	5.347066E-3	-6.256145E-3	3.676081E-4	-4.343411E-3	-7.706417E-3	-4.293648E-3	-1.298567E-3	-3.702594E-3	-1.925520E-2	-7.305497E-3	4.292243E-3	-1.098812E-3	-7.234629E-3	4.184105E-3	-1.230736E-2	6.091860E-3	-1.090598E-2	-5.058266E-3	7.889380E-3	-7.582997E-3	8.944220E-5	-9.083485E-3	-5.035241E-3
5.320020E+2	-4.240346E-3	1.013182E-2	3.772226E-4	-5.379867E-4	4.014897E-3	9.778575E-3	-6.628691E-3	3.643977E-4	-6.935781E-3	1.361852E-2	-6.212342E-3	-3.228175E-3	9.047010E-4	8.154021E-3	-4.957317E-3	4.748356E-3	4.283386E-3	3.370967E-4	3.203019E-3	5.889078E-3	-8.102589E-3	8.645075E-4	-2.924450E-3	-1.311724E-3	2.510419E-8	-2.880820E-3	2.546793E-3	-4.248310E-3	6.648466E-3	-1.792908E-3	-9.661449E-3	-8.248386E-3	1.343718E-3	-1.768125E-3	-6.364412E-3	-2.813888E-3	1.029079E-3	-1.212669E-3	-9.945593E-3	5.834955E-3	-1.366283E-3	9.951152E-3	-9.293888E-5	5.088033E-3	1.493582E-3	1.318354E-3	5.751133E-3	-5.147275E-3	-5.608973E-3	-5.005771E-3	2.945897E-3	-4.749502E-3	1.840169E-3	9.692669E-5	6.860254E-9	-8.848975E-5	7.310600E-4	-8.883129E-3	2.741048E-4	-2.915722E-3	8.487980E-3	8.269784E-3	-2.419344E-3	6.033854E-3	1.292904E-2	-1.833888E-4	1.675050E-3	-9.335794E-3	9.589670E-3	-8.830609E-3	1.116187E-2	3.686386E-3	8.014249E-4	2.793012E-3	-2.626890E-3	1.399263E-3	-1.205115E-3	-1.419170E-3	-8.391959E-3	-4.776090E-3	-4.596624E-3	8.419619E-3	-5.116976E-3	-4.369119E-3	-3.821854E-4	5.411598E-3	3.346293E-3	-5.483602E-4	-4.957744E-3	8.412595E-3	-6.357692E-3	-6.094510E-3	-1.855303E-3	-2.131798E-3	1.242719E-2	7.187780E-3	6.365738E-3	8.687006E-3	6.772727E-3	2.142084E-4	8.687323E-3	4.476918E-3	-7.030681E-3	2.005129E-3	9.682133E-4	-8.333331E-3	-1.262803E-3	1.054692E-2	1.363694E-3	-9.421202E-5	6.444772E-4	1.076302E-3	1.658387E-3	1.888475E-3	3.764455E-3	-4.866221E-3	1.069464E-2	-1.120549E-3	-5.763973E-3	-4.209901E-4	5.279779E-3	-6.779632E-3	-2.657651E-3	-2.996328E-3	1.068633E-3	-9.541611E-3	-2.787510E-4	-2.719185E-3	3.752936E-4	1.613513E-2	-1.197362E-2	5.242079E-3	-3.292125E-3	-5.434797E-3	1.427374E-3	-3.136452E-3	5.213328E-3	-3.018709E-3	-7.420450E-3	-6.633796E-4	-2.821777E-3	2.331663E-3	-7.406661E-3	-5.229953E-3	5.218496E-4	1.591917E-3	1.941973E-3	-6.658608E-3	-4.203308E-3	-4.778970E-3	-7.577855E-3	3.211020E-3	4.503091E-3	1.498330E-3	-5.748821E-3	6.744208E-3	-2.656547E-3	-3.815349E-4	7.991239E-3	7.615291E-4	-9.095720E-4	4.922948E-3	-7.685085E-3	8.514301E-3	-1.896858E-3	1.392236E-3	4.511367E-3	-1.789074E-3	-3.377200E-3	7.888545E-3
5.325070E+2	8.067012E-3	1.868983E-3	-6.884190E-3	8.500149E-3	5.385853E-3	2.675265E-3	2.071435E-3	8.016768E-3	1.111507E-2	8.247812E-3	-3.616112E-3	9.684579E-3	3.769741E-4	8.761274E-3	4.144655E-3	5.413125E-3	5.482733E-3	5.645911E-3	4.352829E-3	1.899698E-3	1.184221E-2	3.890346E-3	8.773370E-3	6.558628E-3	-1.389147E-3	-4.771315E-3	6.235173E-3	9.103530E-3	1.875189E-3	1.344692E-3	9.991737E-3	1.575531E-2	1.074979E-2	7.351580E-3	8.714372E-3	1.261399E-3	4.287884E-4	6.623102E-3	1.219738E-3	3.889997E-3	1.707815E-2	9.214234E-4	2.007622E-2	4.375704E-3	3.953587E-3	6.240100E-3	8.713861E-4	8.864715E-3	9.348269E-3	9.819004E-3	1.425450E-2	2.778018E-3	7.974051E-3	-3.294253E-3	1.228184E-3	1.769889E-3	1.370738E-3	1.067967E-2	1.306651E-2	-3.644554E-4	9.153716E-4	-9.186814E-5	1.075269E-2	8.555432E-3	3.162491E-3	1.843190E-2	-2.791805E-4	4.278905E-3	2.489652E-3	1.177411E-2	7.031154E-4	5.406718E-3	2.671405E-3	4.241229E-3	6.567263E-3	-1.212679E-3	6.628193E-3	1.064369E-2	6.136088E-3	2.885543E-3	5.253307E-3	1.112937E-2	5.116937E-3	1.456363E-2	6.974997E-3	1.769191E-3	4.612472E-3	9.138748E-5	1.303710E-2	2.010270E-9	1.041187E-2	1.138975E-2	1.113173E-2	4.651179E-3	6.268543E-3	1.068185E-2	1.581792E-2	1.312098E-2	6.772710E-3	2.463563E-3	3.341284E-3	5.756054E-3	9.587321E-3	-2.673537E-3	7.068135E-3	1.245208E-2	5.051420E-3	-3.914314E-3	1.389244E-2	1.884325E-3	5.155569E-3	4.500977E-3	3.593123E-3	-2.981809E-3	1.061777E-3	2.101311E-3	1.252577E-3	9.337940E-3	7.464835E-3	9.155955E-3	5.928113E-3	8.973063E-4	5.681804E-3	1.121208E-2	-1.424862E-3	3.554750E-3	1.077867E-2	5.813389E-3	3.752905E-4	4.840531E-3	8.117644E-4	1.124666E-2	1.539283E-2	5.632413E-3	-5.709319E-4	1.028051E-2	-6.951078E-3	8.955502E-3	3.514959E-3	8.623950E-3	3.641323E-4	6.248839E-3	7.796535E-4	1.272943E-2	6.001559E-3	1.076876E-2	1.226478E-3	6.759503E-3	6.060595E-3	2.297569E-3	-4.343429E-3	3.210981E-3	1.183369E-2	4.994503E-3	1.753862E-3	7.428421E-3	1.195443E-2	-2.384590E-3	1.078816E-2	1.075678E-2	4.184123E-3	1.177227E-3	4.123710E-3	9.853627E-3	-6.322971E-4	9.838499E-3	1.526205E-2	1.010826E-2	2.329099E-3	-3.356842E-4
5.330180E+2	1.892647E-2	1.357469E-2	2.348171E-2	1.753819E-2	2.183701E-2	2.204798E-2	2.817193E-2	2.077072E-2	1.111505E-2	1.697514E-2	2.753823E-2	2.130602E-2	1.990353E-2	1.422621E-2	2.064202E-2	1.870847E-2	2.227365E-2	1.331422E-2	1.642578E-2	1.120820E-2	1.121896E-2	1.478343E-2	2.339571E-2	1.508479E-2	1.875369E-2	2.421677E-2	2.283303E-2	2.184848E-2	1.738834E-2	3.334829E-2	1.808420E-2	2.354035E-2	2.705363E-2	1.126001E-2	1.762462E-2	6.015919E-3	1.603635E-2	2.360074E-2	2.880464E-2	2.074651E-2	2.186006E-2	2.607576E-2	3.810742E-3	1.933450E-2	1.748376E-2	2.592723E-2	2.405015E-2	3.221808E-2	2.118945E-2	1.049286E-2	1.558493E-2	1.218745E-2	1.962846E-2	2.722604E-2	1.289585E-2	2.469026E-2	2.375947E-2	1.417309E-2	2.202122E-2	1.558089E-2	1.489554E-2	7.626556E-3	1.451612E-2	1.864197E-2	1.878894E-2	2.549289E-2	1.665738E-2	2.810460E-2	1.475334E-2	1.427169E-2	9.931456E-3	1.572868E-2	1.326803E-2	2.596465E-2	1.970165E-2	2.033584E-2	1.566668E-2	1.773947E-2	2.003248E-2	2.726369E-2	1.247658E-2	1.925871E-2	6.396214E-3	1.237907E-2	2.637110E-2	1.415340E-2	1.727415E-2	1.160666E-2	1.110909E-2	2.064896E-2	6.541941E-3	1.838343E-2	1.484228E-2	1.618216E-2	4.728913E-3	2.116401E-2	5.690603E-3	2.008870E-2	2.185732E-2	2.270779E-2	9.355657E-3	1.151212E-2	2.045291E-2	1.537286E-2	1.045700E-2	1.379311E-2	2.841421E-2	1.815808E-2	3.153482E-3	2.826454E-2	1.868901E-2	2.093929E-2	1.778147E-2	3.458904E-2	2.538611E-2	1.293959E-2	1.878790E-2	1.260622E-2	1.937066E-2	1.357613E-2	1.889585E-2	1.276171E-2	1.979473E-2	3.353953E-2	3.161456E-2	2.778296E-2	1.468129E-2	1.565870E-2	2.467627E-2	2.211465E-2	1.643835E-2	1.324821E-2	7.918857E-3	2.154150E-2	2.007801E-2	1.576933E-2	9.470848E-3	1.529482E-2	1.445031E-2	1.857468E-2	2.011653E-2	1.865320E-2	2.806741E-2	2.101837E-2	1.739593E-3	2.060121E-2	2.125920E-2	1.029053E-2	1.564029E-2	2.996048E-2	3.511692E-2	1.733944E-2	1.843126E-2	1.478376E-2	1.607717E-2	2.316486E-2	7.969643E-3	2.432277E-2	1.008888E-2	2.408374E-2	1.500817E-2	3.563783E-2	1.658858E-2	1.253229E-2	1.833620E-2	1.373678E-2	1.526204E-2	2.263171E-2	3.493655E-2	1.963746E-2
5.331580E+2	4.426519E-2	2.114890E-2	3.677881E-3	1.678495E-2	3.074813E-2	2.075645E-2	2.599688E-2	1.311832E-2	1.609460E-2	2.033185E-2	2.624016E-2	3.228185E-2	3.151387E-2	2.576336E-2	2.007312E-2	3.399812E-2	1.447784E-2	1.685347E-2	1.930026E-2	2.583585E-2	2.617757E-2	3.293856E-2	3.392379E-2	3.016959E-2	2.500502E-2	1.791500E-2	3.389831E-2	1.577944E-2	2.574154E-2	1.954280E-2	2.328654E-2	2.224282E-2	2.956195E-2	3.405914E-2	3.887202E-2	2.163788E-2	2.684160E-2	1.445895E-2	3.471572E-2	2.139482E-2	2.254320E-2	3.188056E-2	1.552183E-2	3.073164E-2	3.777894E-2	1.792933E-2	1.368070E-2	1.286818E-2	2.181267E-2	2.801312E-2	1.758056E-2	3.163366E-2	2.821587E-2	2.586962E-2	1.535222E-2	2.345130E-2	3.015624E-2	2.255717E-2	2.585892E-2	1.494302E-2	3.062325E-2	2.049066E-2	1.765237E-2	9.816263E-3	1.423121E-2	3.447960E-2	1.079471E-2	3.082755E-2	3.734437E-2	2.301310E-2	2.408156E-2	1.744901E-2	1.576137E-2	1.872348E-2	2.561213E-2	2.360069E-2	3.615397E-3	1.702991E-2	2.319079E-2	1.472634E-2	8.536596E-3	1.316169E-2	2.622440E-2	3.058352E-2	2.035162E-2	3.309396E-2	2.740344E-2	2.440138E-2	2.396255E-2	2.600241E-2	1.944161E-2	1.978221E-2	1.855285E-2	1.007754E-2	2.705378E-2	1.766996E-2	1.446761E-2	2.325581E-2	1.611080E-2	2.120824E-2	3.140808E-2	2.622202E-2	8.308997E-3	2.473025E-2	3.079009E-2	3.122610E-2	1.704853E-2	3.338046E-2	2.224494E-2	3.024306E-2	2.062234E-2	3.326812E-2	1.262207E-2	2.623992E-2	1.795367E-2	3.151957E-2	2.013680E-2	3.025491E-2	2.664651E-2	2.388969E-2	2.602817E-2	3.369891E-2	2.043623E-2	1.797794E-2	4.096535E-2	2.647334E-2	1.793345E-2	1.434599E-2	8.256712E-3	1.679954E-2	3.206492E-2	2.592449E-2	2.722661E-2	1.739130E-2	2.407463E-2	2.491724E-2	1.798592E-2	2.304289E-2	1.445033E-2	2.454517E-2	2.648823E-2	9.513139E-3	3.625376E-2	2.378132E-2	2.670261E-2	2.650058E-2	2.841376E-2	2.229618E-2	2.179861E-2	2.481390E-2	1.247572E-2	2.247709E-2	3.529162E-2	3.785834E-2	1.607715E-2	2.795428E-2	3.851994E-2	6.295330E-3	2.407352E-2	2.475012E-2	2.710569E-2	2.440073E-2	2.577318E-2	1.253230E-2	2.845274E-2	3.452757E-2	3.138796E-2	1.261296E-2	3.982760E-2	4.665994E-2
5.333130E+2	3.340570E-2	3.285462E-2	1.423993E-2	3.109533E-2	4.171558E-2	4.335792E-2	2.889696E-2	2.268378E-2	3.103331E-2	2.570247E-2	3.662495E-2	1.743221E-2	3.098615E-2	3.365721E-2	3.145065E-2	3.732192E-2	1.807590E-2	2.098255E-2	4.172145E-2	3.181993E-2	2.991714E-2	2.749201E-2	2.924465E-2	2.492270E-2	2.153211E-2	1.098304E-2	1.975942E-2	2.670366E-2	3.528805E-2	2.895562E-2	1.288192E-2	3.392029E-2	3.144316E-2	2.559088E-2	5.052381E-2	3.046768E-2	2.444043E-2	3.404849E-2	3.274533E-2	3.565806E-2	3.005757E-2	2.349578E-2	3.438978E-2	2.147146E-2	3.224388E-2	3.330987E-2	4.722899E-2	2.821466E-2	4.175574E-2	4.216406E-2	2.755864E-2	2.661530E-2	3.803008E-2	3.197364E-2	4.052989E-2	2.097347E-2	2.503885E-2	2.814656E-2	3.993051E-2	3.280182E-2	2.712822E-2	2.949551E-2	3.207884E-2	2.557630E-2	3.181102E-2	2.934433E-2	3.554811E-2	2.197804E-2	3.734435E-2	3.362767E-2	3.084903E-2	2.260996E-2	2.199463E-2	2.379227E-2	2.561216E-2	2.490672E-2	3.434625E-2	3.689813E-2	3.456059E-2	2.517412E-2	4.005629E-2	3.687213E-2	2.686403E-2	3.276810E-2	3.506594E-2	4.693516E-2	4.069819E-2	3.207824E-2	1.496511E-2	3.670928E-2	2.395654E-2	2.957334E-2	3.401360E-2	2.974805E-2	3.783132E-2	5.051411E-2	3.269675E-2	2.262239E-2	3.191377E-2	3.395456E-2	2.472553E-2	2.302420E-2	2.237037E-2	5.012891E-2	1.316806E-2	4.262455E-2	1.831136E-2	2.881372E-2	2.582457E-2	2.760504E-2	3.866685E-2	2.093933E-2	3.003505E-2	3.458900E-2	4.362935E-2	4.158373E-2	2.216012E-2	3.286953E-2	2.929228E-2	1.725955E-2	2.602815E-2	4.137588E-2	2.685120E-2	2.812677E-2	3.597826E-2	3.564079E-2	2.834045E-2	2.878571E-2	3.190093E-2	3.805997E-2	2.709282E-2	3.259626E-2	3.656911E-2	2.845848E-2	3.206774E-2	2.430734E-2	2.163520E-2	3.360839E-2	2.060147E-2	2.852538E-2	3.031126E-2	2.191757E-2	3.557155E-2	2.792579E-2	2.548491E-2	2.191216E-2	3.342194E-2	3.783290E-2	3.343106E-2	2.481386E-2	2.864800E-2	2.376143E-2	4.188920E-2	4.485067E-2	2.494396E-2	1.837554E-2	3.121441E-2	2.832886E-2	3.106582E-2	1.941929E-2	3.283610E-2	2.739730E-2	4.611075E-2	2.592554E-2	4.678891E-2	2.997956E-2	3.340373E-2	2.012702E-2	2.759990E-2	4.196033E-2
5.334630E+2	3.992139E-2	4.662604E-2	2.348172E-2	4.314612E-2	3.417548E-2	4.787826E-2	5.427243E-2	3.224926E-2	3.414548E-2	3.980048E-2	4.571164E-2	3.809260E-2	3.679134E-2	4.337266E-2	4.794807E-2	4.396964E-2	3.546650E-2	4.103819E-2	4.747054E-2	3.248483E-2	2.929390E-2	4.504193E-2	3.801803E-2	4.394267E-2	2.639415E-2	3.366943E-2	4.803721E-2	2.913124E-2	4.065806E-2	3.146569E-2	5.507843E-2	3.456900E-2	3.834092E-2	3.992185E-2	6.902963E-2	3.590145E-2	3.644630E-2	4.188433E-2	4.391066E-2	3.760306E-2	3.074069E-2	3.704046E-2	5.390834E-2	3.144400E-2	2.916887E-2	4.253829E-2	4.600904E-2	2.688015E-2	3.303060E-2	2.329611E-2	3.421076E-2	3.539750E-2	3.434980E-2	3.943417E-2	4.728489E-2	4.079645E-2	4.742761E-2	3.443455E-2	3.929093E-2	4.300682E-2	4.460349E-2	5.200772E-2	4.148748E-2	3.124996E-2	3.115991E-2	4.475011E-2	4.075936E-2	3.286974E-2	3.605348E-2	4.486668E-2	5.053612E-2	4.497418E-2	2.386467E-2	4.551567E-2	3.808988E-2	3.992536E-2	3.916674E-2	3.476934E-2	4.403539E-2	4.119402E-2	3.217637E-2	4.906611E-2	3.198097E-2	4.150626E-2	3.439709E-2	6.369030E-2	3.816587E-2	3.591667E-2	2.846128E-2	2.982633E-2	5.040080E-2	4.146271E-2	3.772416E-2	3.381777E-2	5.861651E-2	4.352601E-2	3.404705E-2	3.275724E-2	4.412518E-2	4.295201E-2	4.076373E-2	4.732761E-2	3.323596E-2	5.413926E-2	1.859021E-2	4.798851E-2	3.346564E-2	2.576925E-2	3.417712E-2	3.947617E-2	3.544468E-2	4.491194E-2	2.165101E-2	4.085077E-2	3.754827E-2	4.390625E-2	4.036991E-2	4.986448E-2	5.905710E-2	4.230685E-2	2.667655E-2	7.208373E-2	3.005864E-2	3.827568E-2	3.909523E-2	4.808237E-2	4.199961E-2	4.256912E-2	4.372303E-2	3.274488E-2	4.342976E-2	4.060237E-2	3.843756E-2	5.681838E-2	4.139307E-2	2.857639E-2	3.075855E-2	6.037429E-2	3.563757E-2	4.245639E-2	3.795742E-2	4.411484E-2	2.874965E-2	2.930729E-2	3.705316E-2	3.961045E-2	3.843010E-2	3.359563E-2	4.369496E-2	3.896700E-2	3.382311E-2	3.981648E-2	4.262223E-2	4.065529E-2	3.108255E-2	3.753302E-2	4.250471E-2	4.101488E-2	4.574967E-2	3.407902E-2	5.002732E-2	4.462759E-2	3.889411E-2	3.329187E-2	4.046613E-2	4.622243E-2	5.423307E-2	3.703372E-2	2.759988E-2	2.786170E-2
5.336130E+2	5.657255E-2	6.452882E-2	4.064507E-2	6.423495E-2	5.131222E-2	5.110699E-2	7.094770E-2	6.158320E-2	4.223729E-2	6.866790E-2	4.830783E-2	5.229662E-2	5.209599E-2	5.065926E-2	6.785861E-2	5.128210E-2	5.285703E-2	3.808883E-2	4.632062E-2	3.181991E-2	4.674563E-2	5.048846E-2	5.556479E-2	6.033920E-2	6.459619E-2	4.438245E-2	5.479932E-2	6.129717E-2	5.557450E-2	6.848956E-2	5.218837E-2	5.143648E-2	4.210335E-2	4.578447E-2	6.834427E-2	4.269356E-2	4.304955E-2	5.690310E-2	5.638962E-2	5.964619E-2	4.235383E-2	5.252004E-2	4.414903E-2	4.925205E-2	5.991923E-2	6.530141E-2	7.528755E-2	7.425422E-2	4.175572E-2	5.294572E-2	5.483233E-2	5.986201E-2	5.581844E-2	6.588524E-2	5.833861E-2	5.752211E-2	5.254516E-2	4.770937E-2	4.952484E-2	6.596800E-2	5.101108E-2	4.943488E-2	6.093199E-2	5.079260E-2	3.962423E-2	3.704724E-2	5.574166E-2	4.512301E-2	6.187177E-2	5.797877E-2	5.853407E-2	4.898822E-2	4.194118E-2	4.768793E-2	7.420950E-2	5.690312E-2	5.362846E-2	6.102389E-2	4.719365E-2	5.930349E-2	5.253281E-2	5.109838E-2	4.925073E-2	5.024443E-2	3.707240E-2	6.223325E-2	5.462602E-2	4.231400E-2	4.260007E-2	4.894570E-2	4.459594E-2	5.475074E-2	6.184301E-2	5.145346E-2	5.553723E-2	5.191175E-2	5.902784E-2	5.429369E-2	4.412518E-2	5.044985E-2	6.482118E-2	6.267695E-2	5.241050E-2	6.082307E-2	5.383425E-2	4.396552E-2	5.745984E-2	4.708059E-2	5.088220E-2	4.739021E-2	4.833367E-2	5.724072E-2	4.357844E-2	4.919982E-2	6.187261E-2	6.016371E-2	3.430003E-2	6.032308E-2	6.765559E-2	4.083348E-2	4.547982E-2	4.626122E-2	4.224707E-2	6.330949E-2	4.158875E-2	4.153413E-2	5.305701E-2	5.175806E-2	4.043908E-2	4.470385E-2	5.905630E-2	4.593977E-2	4.964855E-2	7.272731E-2	6.137601E-2	5.114132E-2	3.197496E-2	5.826119E-2	5.614137E-2	3.582256E-2	5.133808E-2	5.782503E-2	5.876625E-2	4.174071E-2	3.948854E-2	4.944291E-2	3.771467E-2	4.983857E-2	6.627547E-2	7.048979E-2	5.646443E-2	3.853208E-2	4.555446E-2	5.463990E-2	5.222645E-2	4.026977E-2	5.246682E-2	5.837466E-2	7.092196E-2	5.140408E-2	3.283610E-2	4.537676E-2	4.873476E-2	5.137279E-2	4.362751E-2	7.416016E-2	5.154537E-2	4.893106E-2	3.982762E-2	4.431013E-2
5.337630E+2	6.453614E-2	9.964586E-2	6.176918E-2	7.553259E-2	9.038393E-2	6.079339E-2	7.529797E-2	7.561276E-2	5.779836E-2	7.873789E-2	7.621699E-2	5.617039E-2	5.631787E-2	8.162736E-2	6.501443E-2	6.657167E-2	5.825415E-2	7.348129E-2	7.621555E-2	7.769771E-2	8.850508E-2	7.348478E-2	8.714904E-2	4.984542E-2	6.806908E-2	6.706875E-2	7.938896E-2	6.190391E-2	6.034779E-2	4.527117E-2	7.704381E-2	5.857279E-2	6.216962E-2	6.662943E-2	9.027730E-2	5.967411E-2	8.266882E-2	7.975738E-2	8.266081E-2	7.326104E-2	7.241134E-2	8.541423E-2	8.709005E-2	6.492323E-2	7.836958E-2	7.145363E-2	5.942825E-2	7.358699E-2	6.668457E-2	7.653052E-2	7.611903E-2	7.303538E-2	7.176645E-2	7.673663E-2	7.798947E-2	6.867245E-2	6.277989E-2	6.657358E-2	8.790197E-2	7.234623E-2	7.838902E-2	6.294237E-2	6.594980E-2	8.105194E-2	5.525067E-2	6.657503E-2	5.899873E-2	8.800925E-2	7.671744E-2	7.171530E-2	6.776232E-2	7.307292E-2	6.375791E-2	7.158386E-2	7.486623E-2	7.388073E-2	5.362857E-2	7.663472E-2	7.309162E-2	8.995031E-2	5.778609E-2	8.361558E-2	5.180920E-2	8.228436E-2	7.318951E-2	9.938606E-2	8.311482E-2	7.749967E-2	6.573629E-2	8.642001E-2	6.781526E-2	7.643134E-2	7.544847E-2	6.773259E-2	6.400532E-2	7.846655E-2	6.240359E-2	7.773060E-2	6.639302E-2	6.694520E-2	7.083531E-2	6.267703E-2	6.902865E-2	7.953794E-2	7.077834E-2	6.475101E-2	8.334844E-2	7.219753E-2	6.997346E-2	8.366304E-2	8.055595E-2	6.956944E-2	4.809288E-2	7.424708E-2	8.552146E-2	6.945367E-2	6.599864E-2	8.973790E-2	9.675906E-2	7.030117E-2	6.168953E-2	7.347957E-2	9.164245E-2	4.910109E-2	6.901794E-2	7.885874E-2	6.476509E-2	8.260652E-2	5.554515E-2	7.127950E-2	7.823451E-2	6.662224E-2	8.016718E-2	1.052371E-1	8.868604E-2	7.065683E-2	6.725171E-2	8.080101E-2	5.887525E-2	6.633813E-2	7.045349E-2	7.218789E-2	8.332522E-2	7.835019E-2	5.836319E-2	6.124168E-2	7.205630E-2	5.831313E-2	8.269783E-2	5.633676E-2	8.751527E-2	8.348610E-2	7.560985E-2	8.540593E-2	1.013348E-1	6.490085E-2	6.973437E-2	8.040808E-2	8.910198E-2	8.072343E-2	6.912865E-2	7.833906E-2	7.366467E-2	6.543577E-2	8.156440E-2	7.870801E-2	7.775004E-2	5.832357E-2	7.325028E-2	7.838199E-2
5.339140E+2	1.166615E-1	1.134175E-1	9.213517E-2	9.511522E-2	1.219155E-1	1.130997E-1	1.042984E-1	1.017581E-1	9.452230E-2	1.096194E-1	1.145109E-1	9.168037E-2	9.220435E-2	1.028800E-1	9.857782E-2	1.177588E-1	9.363490E-2	8.940763E-2	9.403748E-2	7.703278E-2	1.177990E-1	1.043487E-1	1.117145E-1	1.055934E-1	1.284976E-1	9.731707E-2	1.039782E-1	8.557329E-2	1.140472E-1	9.798291E-2	1.192406E-1	1.052828E-1	9.916681E-2	8.617184E-2	1.314011E-1	9.295556E-2	1.156850E-1	1.326493E-1	1.200975E-1	1.030842E-1	1.038353E-1	1.254029E-1	9.489725E-2	1.041009E-1	9.681958E-2	1.046756E-1	1.192053E-1	1.069490E-1	1.015850E-1	1.142666E-1	1.240142E-1	1.113002E-1	1.196108E-1	1.174304E-1	1.105360E-1	1.095575E-1	1.005210E-1	1.029048E-1	1.083697E-1	7.170844E-2	1.051842E-1	8.867048E-2	9.856631E-2	9.618162E-2	8.129481E-2	1.134338E-1	8.310068E-2	8.869019E-2	1.122177E-1	1.091784E-1	1.114432E-1	9.945097E-2	1.005342E-1	1.193755E-1	1.188666E-1	9.542909E-2	1.006285E-1	1.192096E-1	1.280454E-1	1.171142E-1	1.050657E-1	1.019065E-1	9.402424E-2	1.034020E-1	1.019492E-1	1.350818E-1	1.147690E-1	1.197223E-1	1.126514E-1	1.063039E-1	1.045794E-1	1.065041E-1	1.057514E-1	1.206394E-1	1.017268E-1	1.364683E-1	1.029128E-1	1.296714E-1	9.512577E-2	1.044344E-1	1.176134E-1	8.506180E-2	1.009861E-1	1.122887E-1	1.100889E-1	1.056513E-1	1.022911E-1	9.426996E-2	9.383764E-2	1.047673E-1	9.537832E-2	1.031310E-1	8.936807E-2	1.166880E-1	7.133208E-2	1.275157E-1	1.037672E-1	1.080400E-1	1.172634E-1	1.284991E-1	1.083734E-1	1.111665E-1	1.038308E-1	9.037307E-2	1.089145E-1	1.129091E-1	9.923796E-2	1.075480E-1	8.575712E-2	1.091494E-1	1.151703E-1	8.797190E-2	8.888669E-2	1.135375E-1	1.073367E-1	9.871042E-2	8.063276E-2	1.167238E-1	1.019334E-1	8.358613E-2	9.785192E-2	9.307954E-2	9.287587E-2	1.101244E-1	8.454392E-2	1.018824E-1	1.049673E-1	9.715516E-2	1.128053E-1	1.007262E-1	1.082159E-1	1.207339E-1	1.247252E-1	1.021877E-1	1.149760E-1	9.432131E-2	1.029411E-1	1.278138E-1	1.114775E-1	1.013803E-1	1.028745E-1	1.225388E-1	9.137769E-2	9.088308E-2	1.283537E-1	1.209393E-1	1.241122E-1	1.034082E-1	1.140096E-1	1.195032E-1
5.340590E+2	1.658907E-1	1.698799E-1	1.158996E-1	1.907683E-1	1.753818E-1	1.705718E-1	1.775244E-1	1.750936E-1	1.617466E-1	1.673537E-1	1.742236E-1	1.769047E-1	1.502567E-1	1.648160E-1	1.816337E-1	1.902183E-1	1.338130E-1	1.436758E-1	1.733741E-1	1.940539E-1	1.470928E-1	1.745481E-1	1.491477E-1	1.567508E-1	1.528084E-1	1.471010E-1	1.685256E-1	1.571875E-1	1.546198E-1	1.638727E-1	1.758877E-1	1.383686E-1	1.455702E-1	1.591290E-1	1.876041E-1	1.445760E-1	1.703113E-1	1.672575E-1	1.989116E-1	1.640271E-1	1.878598E-1	1.821615E-1	1.749233E-1	1.375801E-1	1.589351E-1	1.871153E-1	1.795921E-1	1.843485E-1	1.514422E-1	1.567192E-1	1.659223E-1	1.552110E-1	1.742025E-1	1.750800E-1	1.793138E-1	1.566371E-1	1.657681E-1	1.804571E-1	1.672149E-1	1.501593E-1	1.622702E-1	1.819351E-1	1.512545E-1	1.642649E-1	1.646357E-1	1.596515E-1	1.508467E-1	1.554019E-1	1.690178E-1	1.503881E-1	1.791178E-1	1.321374E-1	1.454142E-1	1.642702E-1	1.543298E-1	1.607277E-1	1.500386E-1	1.710087E-1	1.848944E-1	1.651740E-1	1.516887E-1	1.676183E-1	1.765352E-1	1.565587E-1	1.621441E-1	1.875324E-1	1.711134E-1	1.625847E-1	1.717776E-1	1.720746E-1	1.484384E-1	1.701468E-1	1.447123E-1	1.437014E-1	1.694706E-1	1.811920E-1	1.380208E-1	1.531083E-1	1.727038E-1	1.554197E-1	1.877806E-1	1.502972E-1	1.585097E-1	1.584072E-1	1.426217E-1	1.794062E-1	1.546996E-1	1.688592E-1	1.445495E-1	1.911628E-1	1.566012E-1	1.497063E-1	1.390273E-1	1.869593E-1	1.632237E-1	1.824818E-1	1.664899E-1	1.851713E-1	1.893604E-1	1.631239E-1	1.570026E-1	1.593220E-1	1.878667E-1	1.424704E-1	1.706296E-1	1.875586E-1	1.929009E-1	1.718706E-1	1.626007E-1	1.702734E-1	1.584984E-1	1.253335E-1	1.717234E-1	1.896244E-1	1.945952E-1	1.529883E-1	1.317230E-1	1.885693E-1	1.607108E-1	1.578849E-1	1.800473E-1	1.655476E-1	1.665528E-1	1.681469E-1	1.539534E-1	1.825076E-1	1.643504E-1	1.465898E-1	1.928642E-1	1.824279E-1	1.670829E-1	1.393579E-1	1.716409E-1	2.021776E-1	1.688588E-1	1.579513E-1	1.686905E-1	1.758872E-1	1.765062E-1	1.826751E-1	1.582683E-1	1.674869E-1	1.681349E-1	1.565103E-1	2.181377E-1	1.891592E-1	1.624113E-1	1.353430E-1	1.580297E-1	1.876466E-1
5.342090E+2	2.802769E-1	2.841827E-1	2.281215E-1	2.909402E-1	2.795731E-1	2.693731E-1	2.841012E-1	2.784000E-1	2.401746E-1	2.754388E-1	2.650905E-1	2.873087E-1	2.288903E-1	2.741151E-1	2.902885E-1	2.633428E-1	2.615437E-1	2.492626E-1	2.975524E-1	2.592134E-1	2.542960E-1	2.671393E-1	2.743151E-1	2.951372E-1	2.701924E-1	2.504502E-1	2.840961E-1	2.852437E-1	2.924481E-1	2.209774E-1	2.949627E-1	2.538460E-1	2.609515E-1	2.548855E-1	2.828748E-1	2.281197E-1	2.849674E-1	2.743471E-1	2.915182E-1	2.774843E-1	2.773499E-1	2.608497E-1	2.796727E-1	2.971404E-1	2.770164E-1	2.707859E-1	2.851169E-1	2.690878E-1	2.592595E-1	2.766655E-1	2.550603E-1	2.624788E-1	2.662111E-1	2.795270E-1	2.904641E-1	2.854867E-1	2.502054E-1	2.782715E-1	2.733915E-1	2.681547E-1	2.345010E-1	2.816321E-1	2.754482E-1	2.960195E-1	2.564412E-1	2.687757E-1	2.335754E-1	2.684041E-1	3.026278E-1	2.721437E-1	2.714010E-1	2.863928E-1	2.625998E-1	3.011275E-1	2.981514E-1	2.443099E-1	2.524747E-1	2.831226E-1	3.124889E-1	3.051743E-1	2.252345E-1	2.821058E-1	2.507307E-1	2.992822E-1	2.838717E-1	2.997192E-1	2.635434E-1	2.751781E-1	2.938852E-1	3.158531E-1	2.271261E-1	2.750525E-1	2.782933E-1	2.535855E-1	2.880235E-1	3.062792E-1	2.575232E-1	2.538229E-1	2.890713E-1	2.866324E-1	2.599522E-1	2.673365E-1	2.722791E-1	2.914155E-1	2.415764E-1	2.873562E-1	2.569908E-1	2.967273E-1	2.435868E-1	2.953645E-1	2.803352E-1	2.832681E-1	2.060992E-1	2.815825E-1	2.483592E-1	2.645431E-1	2.858655E-1	2.949858E-1	2.965131E-1	2.861505E-1	2.620417E-1	2.877370E-1	2.725442E-1	2.290741E-1	2.497999E-1	2.785777E-1	2.683515E-1	2.414441E-1	2.440420E-1	2.599660E-1	2.842214E-1	2.360846E-1	2.632795E-1	3.009883E-1	2.865162E-1	2.298309E-1	1.980190E-1	2.526664E-1	2.427260E-1	2.421341E-1	2.654289E-1	3.033012E-1	2.511452E-1	2.669230E-1	2.324955E-1	2.709992E-1	2.723837E-1	2.941885E-1	2.941352E-1	2.557671E-1	2.783477E-1	2.491744E-1	2.764689E-1	2.874839E-1	2.875381E-1	2.701595E-1	2.623338E-1	2.646891E-1	2.925779E-1	2.966207E-1	2.448607E-1	2.349100E-1	2.875352E-1	2.435663E-1	2.940113E-1	3.217008E-1	2.786524E-1	2.442972E-1	2.452541E-1	2.863382E-1
5.343600E+2	4.967420E-1	4.776707E-1	4.255004E-1	5.372283E-1	5.098903E-1	4.940957E-1	4.769550E-1	5.003188E-1	4.542949E-1	4.728107E-1	4.864160E-1	4.887477E-1	4.505430E-1	5.188236E-1	5.172694E-1	5.139605E-1	4.462435E-1	4.179655E-1	4.619743E-1	4.706496E-1	4.911407E-1	4.741073E-1	4.755179E-1	4.774663E-1	4.841236E-1	4.420237E-1	4.857293E-1	4.770246E-1	4.613027E-1	4.450024E-1	5.157722E-1	5.049120E-1	4.791726E-1	4.437930E-1	4.912365E-1	4.468271E-1	4.926683E-1	5.211755E-1	5.233626E-1	4.693898E-1	4.706742E-1	4.788537E-1	5.112930E-1	5.030020E-1	4.609034E-1	4.664263E-1	5.492331E-1	4.745970E-1	4.250359E-1	4.444552E-1	5.118312E-1	4.738775E-1	5.146337E-1	4.829956E-1	4.734628E-1	4.787611E-1	4.619392E-1	5.276975E-1	4.320175E-1	4.697039E-1	4.476992E-1	5.003212E-1	4.749104E-1	4.473160E-1	4.407032E-1	4.517193E-1	4.263913E-1	4.549257E-1	4.678653E-1	5.106592E-1	5.002634E-1	4.727615E-1	4.626892E-1	5.074997E-1	5.050194E-1	5.179109E-1	4.567441E-1	5.116068E-1	5.177767E-1	5.371145E-1	4.104131E-1	5.124357E-1	5.123355E-1	4.900655E-1	4.785016E-1	5.685295E-1	4.990502E-1	4.997258E-1	4.770474E-1	5.353438E-1	4.373904E-1	4.939556E-1	4.582566E-1	4.740314E-1	5.251290E-1	4.963566E-1	4.404904E-1	4.634874E-1	4.981015E-1	5.115679E-1	5.025300E-1	4.534489E-1	4.947040E-1	4.778954E-1	4.137295E-1	4.958813E-1	4.521014E-1	5.136459E-1	4.291316E-1	5.215752E-1	4.859141E-1	4.832679E-1	4.118300E-1	5.675380E-1	4.767379E-1	4.929219E-1	4.659410E-1	5.237651E-1	4.956060E-1	5.889286E-1	4.468322E-1	4.943170E-1	4.803886E-1	5.511312E-1	4.723487E-1	4.887745E-1	4.699869E-1	4.678853E-1	4.391068E-1	4.705773E-1	4.781332E-1	4.068815E-1	4.501291E-1	4.967390E-1	5.716052E-1	4.548704E-1	3.962986E-1	4.703157E-1	4.737354E-1	5.028435E-1	4.769708E-1	4.998135E-1	4.660367E-1	4.824355E-1	4.279376E-1	4.945218E-1	4.541085E-1	4.749800E-1	5.048877E-1	5.304659E-1	5.054059E-1	4.893578E-1	5.073826E-1	4.895614E-1	4.894281E-1	4.829441E-1	4.874765E-1	5.391074E-1	5.701730E-1	5.071869E-1	4.696202E-1	5.450559E-1	5.014059E-1	4.391087E-1	5.159427E-1	5.224613E-1	5.071026E-1	4.434208E-1	4.449750E-1	4.801947E-1
5.345110E+2	8.326614E-1	8.364154E-1	7.199168E-1	9.236065E-1	8.608501E-1	8.156827E-1	8.699121E-1	8.338341E-1	6.926911E-1	7.876662E-1	8.310614E-1	8.419108E-1	6.970000E-1	8.418632E-1	8.961402E-1	8.297245E-1	6.999058E-1	7.134910E-1	8.304863E-1	8.483094E-1	8.083875E-1	8.087660E-1	8.492644E-1	8.454045E-1	8.077990E-1	7.331653E-1	7.562130E-1	8.077857E-1	8.204910E-1	7.637833E-1	8.510320E-1	8.649679E-1	8.127747E-1	7.551651E-1	8.168022E-1	7.640211E-1	8.468403E-1	9.018656E-1	9.292551E-1	8.343985E-1	8.136037E-1	8.200498E-1	8.710848E-1	8.513278E-1	8.262167E-1	7.931099E-1	8.749563E-1	8.275663E-1	7.366452E-1	8.056412E-1	7.679368E-1	8.402188E-1	8.366630E-1	8.967154E-1	8.511274E-1	8.101770E-1	7.517135E-1	8.099612E-1	8.400951E-1	7.752163E-1	7.430303E-1	8.077736E-1	7.508958E-1	8.350143E-1	7.675571E-1	7.803759E-1	7.064958E-1	8.116308E-1	9.177499E-1	8.902862E-1	8.374051E-1	7.772589E-1	7.718612E-1	8.688319E-1	8.714702E-1	8.502798E-1	7.586293E-1	8.429804E-1	8.418156E-1	8.338311E-1	7.085368E-1	8.863836E-1	7.944079E-1	8.170190E-1	8.048922E-1	9.138310E-1	7.991318E-1	8.477429E-1	7.861734E-1	9.039658E-1	7.482725E-1	8.296533E-1	7.439704E-1	7.378879E-1	9.185083E-1	8.925827E-1	7.463348E-1	7.922359E-1	7.847100E-1	8.452229E-1	8.580431E-1	7.962540E-1	8.462383E-1	8.354815E-1	7.316034E-1	8.606322E-1	7.943354E-1	8.295097E-1	7.023781E-1	9.344263E-1	8.126496E-1	8.010760E-1	7.207483E-1	8.889771E-1	8.037646E-1	8.854227E-1	7.775318E-1	9.009248E-1	8.699799E-1	9.027579E-1	7.716748E-1	8.104687E-1	8.421916E-1	8.400349E-1	7.503786E-1	8.273148E-1	8.283778E-1	8.242850E-1	7.011636E-1	8.300109E-1	8.666669E-1	7.184522E-1	7.901950E-1	8.972331E-1	8.387099E-1	8.329848E-1	6.669564E-1	8.302479E-1	7.819767E-1	7.894237E-1	7.668851E-1	8.458309E-1	8.187316E-1	8.457666E-1	7.140991E-1	7.658957E-1	8.211369E-1	8.146694E-1	9.195507E-1	8.463375E-1	8.353201E-1	8.650458E-1	8.394589E-1	8.412751E-1	8.277311E-1	8.099894E-1	8.022772E-1	8.168637E-1	8.435719E-1	8.283678E-1	7.835184E-1	8.979021E-1	8.254919E-1	7.973787E-1	8.112183E-1	8.356232E-1	7.819158E-1	8.704712E-1	7.800158E-1	7.938903E-1
5.346620E+2	1.254008E+0	1.220638E+0	1.028196E+0	1.230902E+0	1.243342E+0	1.195388E+0	1.212843E+0	1.250249E+0	1.074250E+0	1.260286E+0	1.293834E+0	1.230586E+0	1.015757E+0	1.199515E+0	1.236325E+0	1.245204E+0	1.051915E+0	1.047359E+0	1.181749E+0	1.136208E+0	1.219126E+0	1.137375E+0	1.258691E+0	1.244822E+0	1.158563E+0	1.094888E+0	1.216036E+0	1.139762E+0	1.168342E+0	1.142805E+0	1.257390E+0	1.176367E+0	1.185883E+0	1.129071E+0	1.328797E+0	1.084611E+0	1.215420E+0	1.303451E+0	1.275379E+0	1.262296E+0	1.230311E+0	1.239933E+0	1.252998E+0	1.184694E+0	1.148478E+0	1.223151E+0	1.291565E+0	1.235248E+0	1.106838E+0	1.247017E+0	1.231587E+0	1.171432E+0	1.208376E+0	1.351807E+0	1.293886E+0	1.169469E+0	1.137441E+0	1.199121E+0	1.135597E+0	1.175761E+0	1.144378E+0	1.197554E+0	1.178676E+0	1.187411E+0	1.108083E+0	1.162310E+0	1.041969E+0	1.154720E+0	1.263071E+0	1.184998E+0	1.205924E+0	1.136806E+0	1.105343E+0	1.255510E+0	1.287832E+0	1.161755E+0	1.138849E+0	1.307045E+0	1.253655E+0	1.271242E+0	1.023733E+0	1.301653E+0	1.150677E+0	1.213877E+0	1.166731E+0	1.335623E+0	1.201140E+0	1.165051E+0	1.135787E+0	1.326888E+0	1.064959E+0	1.213608E+0	1.108843E+0	1.043798E+0	1.299572E+0	1.332835E+0	1.062982E+0	1.169760E+0	1.239403E+0	1.212618E+0	1.202198E+0	1.136502E+0	1.259129E+0	1.212452E+0	1.054221E+0	1.258238E+0	1.115099E+0	1.226052E+0	1.082416E+0	1.261540E+0	1.226385E+0	1.208611E+0	1.012253E+0	1.323128E+0	1.257820E+0	1.226056E+0	1.133636E+0	1.350641E+0	1.237080E+0	1.348453E+0	1.123749E+0	1.212464E+0	1.187959E+0	1.180360E+0	1.123165E+0	1.229372E+0	1.219290E+0	1.225973E+0	1.047288E+0	1.208047E+0	1.226080E+0	1.050038E+0	1.147078E+0	1.308102E+0	1.211723E+0	1.197683E+0	9.333568E-1	1.216945E+0	1.096368E+0	1.167551E+0	1.126252E+0	1.203599E+0	1.149595E+0	1.220841E+0	9.832128E-1	1.227362E+0	1.182441E+0	1.189669E+0	1.318474E+0	1.317251E+0	1.224748E+0	1.257431E+0	1.225050E+0	1.225152E+0	1.188541E+0	1.180139E+0	1.215370E+0	1.234165E+0	1.220458E+0	1.225511E+0	1.117155E+0	1.263483E+0	1.232895E+0	1.106094E+0	1.171621E+0	1.311863E+0	1.166921E+0	1.184185E+0	1.100384E+0	1.241524E+0
5.348120E+2	1.663771E+0	1.595907E+0	1.349679E+0	1.702388E+0	1.614863E+0	1.588656E+0	1.653651E+0	1.644985E+0	1.322602E+0	1.505320E+0	1.557349E+0	1.598595E+0	1.349293E+0	1.565665E+0	1.625436E+0	1.576923E+0	1.317573E+0	1.460267E+0	1.527264E+0	1.454693E+0	1.585611E+0	1.523473E+0	1.579792E+0	1.618665E+0	1.535026E+0	1.435810E+0	1.501888E+0	1.508151E+0	1.529323E+0	1.516181E+0	1.589764E+0	1.542907E+0	1.506942E+0	1.495813E+0	1.597473E+0	1.405199E+0	1.576793E+0	1.609702E+0	1.776505E+0	1.535241E+0	1.556846E+0	1.532112E+0	1.593269E+0	1.653404E+0	1.549463E+0	1.530760E+0	1.607528E+0	1.666955E+0	1.391026E+0	1.575183E+0	1.491684E+0	1.530871E+0	1.588680E+0	1.672609E+0	1.589876E+0	1.550443E+0	1.446402E+0	1.607843E+0	1.418949E+0	1.494031E+0	1.467092E+0	1.520445E+0	1.495431E+0	1.599061E+0	1.413453E+0	1.525631E+0	1.393078E+0	1.486918E+0	1.611617E+0	1.614575E+0	1.523993E+0	1.505528E+0	1.455655E+0	1.545880E+0	1.655596E+0	1.507185E+0	1.455797E+0	1.685959E+0	1.599169E+0	1.672439E+0	1.315292E+0	1.656634E+0	1.466649E+0	1.689379E+0	1.564688E+0	1.625558E+0	1.554402E+0	1.592397E+0	1.427564E+0	1.639682E+0	1.330047E+0	1.550705E+0	1.492886E+0	1.342929E+0	1.647534E+0	1.631924E+0	1.355999E+0	1.477604E+0	1.508054E+0	1.611502E+0	1.478856E+0	1.496572E+0	1.537802E+0	1.602788E+0	1.338207E+0	1.584769E+0	1.497112E+0	1.646947E+0	1.382511E+0	1.667797E+0	1.534434E+0	1.629844E+0	1.385021E+0	1.714840E+0	1.506467E+0	1.563591E+0	1.521439E+0	1.693156E+0	1.576394E+0	1.665965E+0	1.448592E+0	1.530707E+0	1.461877E+0	1.549779E+0	1.413040E+0	1.503087E+0	1.586135E+0	1.476699E+0	1.399326E+0	1.495065E+0	1.483207E+0	1.321580E+0	1.556279E+0	1.698915E+0	1.628034E+0	1.558719E+0	1.253280E+0	1.495876E+0	1.433998E+0	1.499904E+0	1.426362E+0	1.608373E+0	1.488643E+0	1.529605E+0	1.336959E+0	1.524299E+0	1.457176E+0	1.545599E+0	1.684555E+0	1.597740E+0	1.567601E+0	1.538718E+0	1.675879E+0	1.548898E+0	1.538439E+0	1.502393E+0	1.458447E+0	1.694203E+0	1.599441E+0	1.497383E+0	1.368019E+0	1.596105E+0	1.516966E+0	1.436907E+0	1.502302E+0	1.562651E+0	1.431658E+0	1.511673E+0	1.370211E+0	1.543471E+0
5.349580E+2	1.929465E+0	1.876156E+0	1.541776E+0	1.968259E+0	1.989814E+0	1.859227E+0	1.931330E+0	1.875191E+0	1.768894E+0	1.910136E+0	1.877979E+0	1.933037E+0	1.783624E+0	1.897205E+0	1.879724E+0	1.961823E+0	1.799710E+0	1.649028E+0	1.809544E+0	1.819056E+0	1.885405E+0	1.738910E+0	1.888035E+0	1.915113E+0	1.823279E+0	1.667716E+0	1.881180E+0	1.805532E+0	1.822877E+0	1.759662E+0	1.909412E+0	1.915942E+0	1.827376E+0	1.706216E+0	1.915498E+0	1.675528E+0	1.869738E+0	1.926397E+0	2.007038E+0	1.921646E+0	1.832146E+0	1.828156E+0	1.968679E+0	1.991759E+0	1.831751E+0	1.904817E+0	1.997912E+0	1.889809E+0	1.672722E+0	1.858201E+0	1.891475E+0	1.738507E+0	1.828514E+0	1.985949E+0	1.911661E+0	1.829823E+0	1.775200E+0	1.855175E+0	1.775857E+0	1.730662E+0	1.722808E+0	1.784804E+0	1.790235E+0	1.810880E+0	1.655660E+0	1.764418E+0	1.589800E+0	1.686376E+0	1.887877E+0	1.876816E+0	1.823606E+0	1.845005E+0	1.673821E+0	1.971655E+0	1.943898E+0	1.731156E+0	1.663082E+0	1.918702E+0	1.973739E+0	1.870946E+0	1.574673E+0	1.964192E+0	1.748078E+0	1.827733E+0	1.834226E+0	2.010197E+0	1.790542E+0	1.872600E+0	1.732829E+0	2.006010E+0	1.631898E+0	1.887800E+0	1.737166E+0	1.647482E+0	1.999340E+0	1.967356E+0	1.614583E+0	1.741110E+0	1.804004E+0	1.885174E+0	1.863769E+0	1.750480E+0	1.870164E+0	1.866131E+0	1.624902E+0	1.824139E+0	1.767999E+0	1.930086E+0	1.597287E+0	1.957982E+0	1.784479E+0	1.875733E+0	1.622996E+0	1.962527E+0	1.803091E+0	1.860871E+0	1.689371E+0	1.994491E+0	1.917034E+0	2.030624E+0	1.680067E+0	1.882453E+0	1.817908E+0	1.921224E+0	1.659899E+0	1.824601E+0	1.789072E+0	1.749087E+0	1.605557E+0	1.813969E+0	1.866767E+0	1.559760E+0	1.738143E+0	1.910570E+0	1.917118E+0	1.805713E+0	1.463724E+0	1.797343E+0	1.670474E+0	1.757961E+0	1.725197E+0	1.837532E+0	1.854304E+0	1.848725E+0	1.574409E+0	1.787805E+0	1.733340E+0	1.728510E+0	1.953470E+0	1.925835E+0	1.868407E+0	1.864312E+0	1.871613E+0	1.839776E+0	1.818083E+0	1.793179E+0	1.774574E+0	1.834414E+0	1.894517E+0	1.750593E+0	1.606785E+0	1.868045E+0	1.773477E+0	1.648521E+0	1.814654E+0	1.858270E+0	1.681608E+0	1.812239E+0	1.609874E+0	1.797247E+0
5.351040E+2	2.144481E+0	2.053121E+0	1.768201E+0	2.186679E+0	2.178321E+0	2.039391E+0	2.098084E+0	2.112414E+0	1.892759E+0	2.007481E+0	2.119425E+0	2.071851E+0	1.941949E+0	1.968859E+0	2.087363E+0	2.120701E+0	1.963418E+0	1.863147E+0	2.026855E+0	2.013202E+0	2.047456E+0	1.911992E+0	2.076956E+0	2.063994E+0	2.010815E+0	1.866222E+0	1.974006E+0	1.947547E+0	2.062136E+0	1.923443E+0	2.106524E+0	2.078127E+0	2.012361E+0	1.908803E+0	2.125230E+0	1.834463E+0	2.061829E+0	2.168659E+0	2.279603E+0	2.037050E+0	2.017270E+0	2.066800E+0	2.091645E+0	2.044470E+0	2.087593E+0	2.000793E+0	2.215056E+0	2.112670E+0	1.921384E+0	2.001059E+0	1.964648E+0	1.996953E+0	2.023571E+0	2.189420E+0	2.062113E+0	2.047256E+0	1.947912E+0	2.078748E+0	1.930008E+0	1.966653E+0	1.954648E+0	1.987412E+0	1.934498E+0	1.952719E+0	1.922611E+0	1.919120E+0	1.745486E+0	1.885833E+0	2.030524E+0	2.100974E+0	1.936807E+0	1.974031E+0	1.936863E+0	2.086789E+0	2.095600E+0	1.974065E+0	2.075234E+0	2.071972E+0	2.120285E+0	2.109850E+0	1.843246E+0	2.059035E+0	1.965552E+0	1.950070E+0	1.926524E+0	2.289206E+0	2.040607E+0	2.118260E+0	1.858794E+0	2.129138E+0	1.737675E+0	2.006693E+0	1.921459E+0	1.853006E+0	2.149456E+0	2.132278E+0	1.767167E+0	1.950139E+0	2.017342E+0	2.020138E+0	1.993413E+0	1.950661E+0	2.027392E+0	2.065309E+0	1.750289E+0	2.013219E+0	1.893022E+0	2.092206E+0	1.793573E+0	2.149236E+0	1.935926E+0	2.101079E+0	1.697164E+0	2.139945E+0	1.950385E+0	2.031190E+0	1.872821E+0	2.155945E+0	2.029482E+0	2.187540E+0	1.822712E+0	1.890824E+0	1.950054E+0	2.024742E+0	1.795797E+0	2.014498E+0	1.984203E+0	1.976185E+0	1.784198E+0	2.003986E+0	1.910094E+0	1.698533E+0	1.951155E+0	2.158203E+0	2.105625E+0	1.994162E+0	1.540359E+0	1.907926E+0	1.785978E+0	1.962283E+0	1.873655E+0	2.017067E+0	1.921157E+0	2.012434E+0	1.674873E+0	2.019854E+0	1.895749E+0	1.938961E+0	2.210073E+0	2.067367E+0	2.001018E+0	1.959997E+0	2.049743E+0	2.034862E+0	2.018614E+0	2.027170E+0	1.893454E+0	2.075450E+0	2.044151E+0	1.963825E+0	1.769146E+0	2.166206E+0	1.945359E+0	1.768391E+0	1.973985E+0	2.014852E+0	1.842197E+0	2.018249E+0	1.770468E+0	2.011078E+0
5.352600E+2	2.146658E+0	2.196340E+0	1.776780E+0	2.186679E+0	2.119369E+0	1.988375E+0	2.070533E+0	2.065865E+0	1.915170E+0	1.932961E+0	2.023366E+0	2.060875E+0	1.933507E+0	1.982216E+0	2.064608E+0	2.101427E+0	1.922641E+0	1.803570E+0	2.003287E+0	1.999905E+0	2.089218E+0	1.913198E+0	2.069351E+0	2.095475E+0	1.980948E+0	1.805727E+0	1.972160E+0	2.000956E+0	1.979203E+0	1.918422E+0	2.099587E+0	2.074887E+0	2.006093E+0	1.917271E+0	2.073140E+0	1.823598E+0	1.978393E+0	2.089650E+0	2.169266E+0	2.015005E+0	2.022738E+0	2.079701E+0	2.133280E+0	2.019536E+0	2.078985E+0	2.000789E+0	2.148571E+0	2.096654E+0	1.925747E+0	1.973430E+0	2.044470E+0	1.967470E+0	2.016826E+0	2.195525E+0	2.054127E+0	2.016280E+0	1.909533E+0	2.001195E+0	1.843021E+0	1.932210E+0	1.934840E+0	1.984839E+0	1.955199E+0	1.993693E+0	1.895916E+0	1.920404E+0	1.748091E+0	1.880386E+0	2.159614E+0	2.052894E+0	2.018018E+0	1.975749E+0	2.035349E+0	2.002072E+0	2.131720E+0	1.985821E+0	2.083071E+0	2.092549E+0	2.081123E+0	2.070846E+0	1.949624E+0	2.086811E+0	1.952120E+0	2.023611E+0	2.031530E+0	2.126028E+0	1.951342E+0	1.960884E+0	2.044529E+0	2.185732E+0	1.726713E+0	2.113699E+0	2.069884E+0	1.827909E+0	2.254920E+0	2.159528E+0	1.983220E+0	1.896935E+0	1.986453E+0	2.047131E+0	2.030838E+0	1.924437E+0	2.039538E+0	2.061969E+0	1.860090E+0	2.011881E+0	1.885441E+0	2.157661E+0	2.055486E+0	2.165063E+0	1.911434E+0	1.988064E+0	1.931271E+0	2.084980E+0	1.971333E+0	2.021124E+0	1.971286E+0	2.231766E+0	2.049988E+0	2.102083E+0	1.831141E+0	1.911764E+0	1.917978E+0	2.030157E+0	1.896160E+0	1.930682E+0	1.895744E+0	1.945990E+0	1.732972E+0	1.948842E+0	1.941350E+0	1.697196E+0	1.885131E+0	2.132609E+0	2.015036E+0	1.969160E+0	1.545831E+0	1.944558E+0	1.857060E+0	1.896608E+0	1.870469E+0	1.993565E+0	1.943671E+0	2.062168E+0	1.617031E+0	1.897932E+0	1.920075E+0	1.863399E+0	2.138223E+0	2.048065E+0	2.018481E+0	1.972845E+0	2.078334E+0	2.024374E+0	1.945631E+0	1.883492E+0	1.955216E+0	2.085466E+0	2.077016E+0	1.909851E+0	1.763416E+0	2.127995E+0	1.881724E+0	1.856786E+0	1.910124E+0	1.997960E+0	1.820694E+0	1.974415E+0	1.763942E+0	1.955858E+0
5.354110E+2	1.909919E+0	1.900944E+0	1.620990E+0	1.920810E+0	1.944577E+0	1.772692E+0	1.844329E+0	1.866902E+0	1.745243E+0	1.740962E+0	1.837737E+0	1.739348E+0	1.715548E+0	1.790333E+0	1.810889E+0	1.906645E+0	1.768525E+0	1.577652E+0	1.753780E+0	1.781817E+0	1.862969E+0	1.724991E+0	1.842996E+0	1.869861E+0	1.774658E+0	1.668977E+0	1.763764E+0	1.767298E+0	1.766195E+0	1.696906E+0	1.886294E+0	1.823168E+0	1.807937E+0	1.671040E+0	1.905217E+0	1.598097E+0	1.797103E+0	1.891791E+0	2.009660E+0	1.822450E+0	1.807554E+0	1.766885E+0	1.848315E+0	1.918390E+0	1.816377E+0	1.837757E+0	1.913731E+0	1.857115E+0	1.722579E+0	1.782731E+0	1.788369E+0	1.780536E+0	1.857342E+0	1.966959E+0	1.879728E+0	1.779645E+0	1.746413E+0	1.783911E+0	1.706141E+0	1.703870E+0	1.774071E+0	1.780941E+0	1.737545E+0	1.803942E+0	1.781324E+0	1.691243E+0	1.563745E+0	1.743554E+0	1.911757E+0	1.789403E+0	1.795306E+0	1.719424E+0	1.792876E+0	1.889107E+0	1.737030E+0	1.769030E+0	1.910735E+0	1.881095E+0	1.872679E+0	1.889057E+0	1.810414E+0	1.872059E+0	1.787739E+0	1.838657E+0	1.790084E+0	1.967946E+0	1.824093E+0	1.800312E+0	1.828591E+0	1.906588E+0	1.586750E+0	1.780099E+0	1.821892E+0	1.667152E+0	1.960081E+0	1.950584E+0	1.767841E+0	1.773412E+0	1.761620E+0	1.774207E+0	1.818997E+0	1.666696E+0	1.698869E+0	1.807981E+0	1.723859E+0	1.814079E+0	1.696642E+0	1.860825E+0	1.815050E+0	1.865650E+0	1.770944E+0	1.790801E+0	1.699742E+0	1.933307E+0	1.751738E+0	1.822164E+0	1.692068E+0	1.915397E+0	1.833696E+0	1.896548E+0	1.641809E+0	1.730307E+0	1.821116E+0	1.805527E+0	1.747796E+0	1.747332E+0	1.813139E+0	1.699204E+0	1.730342E+0	1.675779E+0	1.890918E+0	1.569767E+0	1.792331E+0	1.871836E+0	1.853837E+0	1.733753E+0	1.402904E+0	1.749447E+0	1.639719E+0	1.682998E+0	1.634082E+0	1.780729E+0	1.798363E+0	1.866687E+0	1.507436E+0	1.765519E+0	1.695422E+0	1.714387E+0	1.932940E+0	1.924550E+0	1.729321E+0	1.846974E+0	1.896531E+0	1.783139E+0	1.756699E+0	1.725442E+0	1.850286E+0	1.848435E+0	1.793127E+0	1.736603E+0	1.684466E+0	1.832085E+0	1.675070E+0	1.602313E+0	1.785564E+0	1.815390E+0	1.681610E+0	1.782805E+0	1.623733E+0	1.660960E+0
5.355630E+2	1.614541E+0	1.630335E+0	1.361562E+0	1.711428E+0	1.664216E+0	1.580904E+0	1.636975E+0	1.628406E+0	1.479462E+0	1.516064E+0	1.540472E+0	1.589557E+0	1.544557E+0	1.572954E+0	1.602682E+0	1.622793E+0	1.552045E+0	1.379456E+0	1.599129E+0	1.525170E+0	1.624880E+0	1.454484E+0	1.607286E+0	1.593740E+0	1.539891E+0	1.417537E+0	1.477297E+0	1.544565E+0	1.615839E+0	1.509904E+0	1.592073E+0	1.604541E+0	1.542059E+0	1.416342E+0	1.642710E+0	1.436447E+0	1.541978E+0	1.610356E+0	1.744324E+0	1.568304E+0	1.530206E+0	1.603703E+0	1.638164E+0	1.634172E+0	1.652783E+0	1.567673E+0	1.682556E+0	1.688972E+0	1.444620E+0	1.556990E+0	1.547563E+0	1.535264E+0	1.516298E+0	1.711270E+0	1.624266E+0	1.514513E+0	1.443845E+0	1.579898E+0	1.494426E+0	1.492756E+0	1.564366E+0	1.501150E+0	1.488531E+0	1.550522E+0	1.546275E+0	1.455661E+0	1.419132E+0	1.469221E+0	1.627110E+0	1.578983E+0	1.520300E+0	1.516999E+0	1.615227E+0	1.608876E+0	1.693031E+0	1.482370E+0	1.661271E+0	1.700153E+0	1.617486E+0	1.640398E+0	1.513604E+0	1.613955E+0	1.510141E+0	1.654426E+0	1.588764E+0	1.711523E+0	1.590487E+0	1.617984E+0	1.574092E+0	1.686332E+0	1.384871E+0	1.576581E+0	1.610390E+0	1.399224E+0	1.709887E+0	1.687131E+0	1.534242E+0	1.520678E+0	1.554029E+0	1.644495E+0	1.568402E+0	1.453724E+0	1.595325E+0	1.595437E+0	1.523918E+0	1.561973E+0	1.514791E+0	1.603568E+0	1.537631E+0	1.721217E+0	1.466763E+0	1.563406E+0	1.488207E+0	1.636219E+0	1.551737E+0	1.555849E+0	1.530204E+0	1.702305E+0	1.602857E+0	1.644603E+0	1.477771E+0	1.592123E+0	1.531156E+0	1.568723E+0	1.512780E+0	1.560054E+0	1.562721E+0	1.550871E+0	1.488647E+0	1.537585E+0	1.564179E+0	1.323580E+0	1.535721E+0	1.717589E+0	1.573413E+0	1.496516E+0	1.229560E+0	1.531092E+0	1.475689E+0	1.479341E+0	1.471599E+0	1.607719E+0	1.462040E+0	1.543417E+0	1.328433E+0	1.534787E+0	1.512980E+0	1.501111E+0	1.720139E+0	1.572651E+0	1.587007E+0	1.645962E+0	1.708135E+0	1.571270E+0	1.527525E+0	1.542079E+0	1.664328E+0	1.695534E+0	1.544899E+0	1.510040E+0	1.594688E+0	1.602096E+0	1.571415E+0	1.396058E+0	1.564268E+0	1.639315E+0	1.455174E+0	1.506038E+0	1.430536E+0	1.535247E+0
5.357140E+2	1.398801E+0	1.341824E+0	1.108733E+0	1.423716E+0	1.355757E+0	1.254798E+0	1.352045E+0	1.294890E+0	1.238574E+0	1.250887E+0	1.286693E+0	1.258346E+0	1.280686E+0	1.285130E+0	1.339293E+0	1.328966E+0	1.255804E+0	1.128171E+0	1.315702E+0	1.233948E+0	1.374319E+0	1.229358E+0	1.318347E+0	1.314345E+0	1.273863E+0	1.131436E+0	1.251690E+0	1.213803E+0	1.315123E+0	1.213716E+0	1.344673E+0	1.371639E+0	1.239809E+0	1.232643E+0	1.313719E+0	1.299244E+0	1.371495E+0	1.341979E+0	1.380465E+0	1.295361E+0	1.250122E+0	1.262509E+0	1.347987E+0	1.309352E+0	1.303462E+0	1.238529E+0	1.383671E+0	1.337339E+0	1.229611E+0	1.280709E+0	1.248218E+0	1.232905E+0	1.266034E+0	1.372833E+0	1.312310E+0	1.289648E+0	1.218678E+0	1.301826E+0	1.221948E+0	1.245922E+0	1.175252E+0	1.303684E+0	1.239517E+0	1.254231E+0	1.285834E+0	1.235489E+0	1.153359E+0	1.183993E+0	1.352141E+0	1.313621E+0	1.293901E+0	1.258949E+0	1.311665E+0	1.317783E+0	1.367295E+0	1.245988E+0	1.391323E+0	1.334009E+0	1.341453E+0	1.369452E+0	1.236491E+0	1.393787E+0	1.324012E+0	1.255384E+0	1.273744E+0	1.410659E+0	1.249888E+0	1.282766E+0	1.271392E+0	1.352891E+0	1.171380E+0	1.313619E+0	1.345085E+0	1.195057E+0	1.419662E+0	1.387342E+0	1.262152E+0	1.201429E+0	1.227912E+0	1.361825E+0	1.279715E+0	1.228595E+0	1.345415E+0	1.346797E+0	1.224342E+0	1.293775E+0	1.286217E+0	1.324998E+0	1.306743E+0	1.425761E+0	1.324341E+0	1.310667E+0	1.217983E+0	1.323823E+0	1.228088E+0	1.335987E+0	1.250986E+0	1.366982E+0	1.341586E+0	1.345506E+0	1.132180E+0	1.281556E+0	1.264937E+0	1.286584E+0	1.318284E+0	1.231993E+0	1.274579E+0	1.307360E+0	1.261400E+0	1.281130E+0	1.323389E+0	1.075391E+0	1.295933E+0	1.421540E+0	1.394235E+0	1.281843E+0	1.030671E+0	1.240189E+0	1.217341E+0	1.245831E+0	1.263246E+0	1.260400E+0	1.258748E+0	1.298202E+0	1.115941E+0	1.300124E+0	1.311937E+0	1.264529E+0	1.341055E+0	1.340409E+0	1.318546E+0	1.309449E+0	1.389254E+0	1.293677E+0	1.256066E+0	1.269084E+0	1.371442E+0	1.340995E+0	1.299473E+0	1.232843E+0	1.287795E+0	1.311431E+0	1.248640E+0	1.199176E+0	1.342968E+0	1.338500E+0	1.272412E+0	1.272474E+0	1.232444E+0	1.354313E+0
5.358600E+2	1.164236E+0	1.167618E+0	1.007073E+0	1.179686E+0	1.157657E+0	1.108856E+0	1.198343E+0	1.137378E+0	1.082964E+0	1.074997E+0	1.158832E+0	1.156337E+0	1.097559E+0	1.160046E+0	1.173182E+0	1.166762E+0	1.093292E+0	9.818827E-1	1.097815E+0	1.085011E+0	1.133737E+0	1.081699E+0	1.141127E+0	1.122833E+0	1.109942E+0	1.008552E+0	1.090630E+0	1.111842E+0	1.137913E+0	1.069387E+0	1.152189E+0	1.116033E+0	1.114397E+0	1.048297E+0	1.154019E+0	1.123326E+0	1.160191E+0	1.200279E+0	1.298368E+0	1.074280E+0	1.130573E+0	1.103844E+0	1.128077E+0	1.171875E+0	1.138026E+0	1.116102E+0	1.205559E+0	1.163188E+0	1.044514E+0	1.077879E+0	1.102537E+0	1.124384E+0	1.124341E+0	1.210057E+0	1.177823E+0	1.114335E+0	1.095222E+0	1.125761E+0	1.117691E+0	1.069887E+0	1.029042E+0	1.123588E+0	1.068279E+0	1.117434E+0	1.081388E+0	1.077579E+0	1.002234E+0	1.096859E+0	1.142370E+0	1.195610E+0	1.082263E+0	1.144264E+0	1.133393E+0	1.221476E+0	1.144666E+0	1.104291E+0	1.208142E+0	1.170097E+0	1.189855E+0	1.197414E+0	1.142590E+0	1.154649E+0	1.044499E+0	1.138875E+0	1.133957E+0	1.203768E+0	1.125803E+0	1.083166E+0	1.137073E+0	1.269530E+0	1.035934E+0	1.136677E+0	1.196042E+0	9.766472E-1	1.227208E+0	1.207748E+0	1.088638E+0	1.095014E+0	1.150332E+0	1.197622E+0	1.168784E+0	1.127550E+0	1.138329E+0	1.167670E+0	1.116577E+0	1.127489E+0	1.043117E+0	1.200935E+0	1.146254E+0	1.210101E+0	1.143252E+0	1.153817E+0	1.122537E+0	1.221549E+0	1.104440E+0	1.108383E+0	1.134310E+0	1.191146E+0	1.155720E+0	1.283624E+0	1.056317E+0	1.118943E+0	1.105848E+0	1.153973E+0	1.125033E+0	1.150794E+0	1.129530E+0	1.086825E+0	1.086694E+0	1.059890E+0	1.185591E+0	9.472936E-1	1.082925E+0	1.217489E+0	1.159102E+0	1.052535E+0	9.084195E-1	1.061280E+0	1.105253E+0	1.091926E+0	1.054250E+0	1.090003E+0	1.112075E+0	1.164890E+0	9.637293E-1	1.092986E+0	1.069399E+0	1.066081E+0	1.210363E+0	1.181509E+0	1.152944E+0	1.174586E+0	1.247775E+0	1.165718E+0	1.103965E+0	1.116508E+0	1.257876E+0	1.188764E+0	1.196684E+0	1.129557E+0	1.130526E+0	1.139127E+0	1.068229E+0	9.661342E-1	1.195015E+0	1.195563E+0	1.107122E+0	1.139725E+0	1.113427E+0	1.165156E+0
5.360070E+2	1.030303E+0	9.658670E-1	8.565637E-1	1.031311E+0	1.055523E+0	9.939121E-1	1.030865E+0	1.016853E+0	9.261075E-1	9.581855E-1	9.712561E-1	9.878252E-1	9.614007E-1	1.041031E+0	1.028118E+0	1.007882E+0	9.367774E-1	9.164069E-1	9.558152E-1	9.633358E-1	9.835278E-1	9.703464E-1	1.007185E+0	1.002811E+0	9.231002E-1	8.629818E-1	9.805920E-1	9.352351E-1	9.535460E-1	8.830123E-1	9.810907E-1	1.023262E+0	9.168681E-1	9.173648E-1	9.915794E-1	9.643898E-1	9.717015E-1	1.025933E+0	1.061269E+0	9.530424E-1	9.871182E-1	9.780706E-1	9.634723E-1	1.000204E+0	9.645930E-1	9.069257E-1	1.012199E+0	9.623486E-1	9.591345E-1	9.626493E-1	9.748169E-1	9.060848E-1	9.918508E-1	1.072376E+0	1.047023E+0	9.439821E-1	9.001191E-1	1.011178E+0	9.251645E-1	9.372212E-1	9.276859E-1	9.537815E-1	9.453406E-1	9.447045E-1	9.576783E-1	8.773041E-1	8.563186E-1	9.341631E-1	1.012633E+0	9.752027E-1	9.899800E-1	9.206192E-1	9.962600E-1	1.084618E+0	1.007412E+0	9.038247E-1	9.936309E-1	1.018956E+0	1.048997E+0	1.014229E+0	9.626642E-1	1.016452E+0	9.114583E-1	9.670238E-1	9.440087E-1	1.013633E+0	9.991857E-1	9.731309E-1	9.506974E-1	1.041625E+0	8.650144E-1	1.029674E+0	1.029685E+0	8.355623E-1	1.050918E+0	1.036538E+0	9.819639E-1	9.271559E-1	1.008107E+0	1.055913E+0	9.950357E-1	9.523066E-1	1.008583E+0	9.978990E-1	9.396785E-1	1.008142E+0	9.206206E-1	9.794503E-1	9.380381E-1	1.121726E+0	1.011139E+0	9.592958E-1	9.097109E-1	1.055263E+0	9.152511E-1	1.003097E+0	9.481644E-1	1.049304E+0	9.777947E-1	1.040517E+0	9.123747E-1	1.012862E+0	9.352090E-1	9.942971E-1	9.860186E-1	9.831614E-1	9.409034E-1	9.470227E-1	9.770123E-1	1.001424E+0	9.945202E-1	8.572246E-1	9.658332E-1	1.042490E+0	1.091160E+0	9.604460E-1	7.691371E-1	9.309722E-1	9.658270E-1	9.201100E-1	9.045141E-1	1.010353E+0	9.299290E-1	1.015690E+0	8.894492E-1	9.776194E-1	9.728130E-1	9.523812E-1	1.035875E+0	1.056061E+0	9.957491E-1	1.032018E+0	1.081370E+0	1.067826E+0	9.409531E-1	9.406703E-1	1.079224E+0	1.069248E+0	1.020478E+0	9.156592E-1	9.745317E-1	1.032748E+0	9.219309E-1	8.797472E-1	9.604373E-1	1.046130E+0	9.277209E-1	9.806780E-1	9.821824E-1	9.748235E-1
5.362630E+2	7.182751E-1	8.095613E-1	6.506036E-1	8.377444E-1	7.436353E-1	7.556274E-1	7.553600E-1	7.324405E-1	6.677932E-1	7.702117E-1	7.388963E-1	7.767016E-1	7.297199E-1	7.938927E-1	7.647298E-1	7.572651E-1	7.202948E-1	7.123118E-1	7.195303E-1	7.146657E-1	7.628885E-1	7.064922E-1	7.726439E-1	7.548954E-1	7.508432E-1	7.003962E-1	7.224026E-1	6.912607E-1	7.465050E-1	7.763341E-1	7.550784E-1	8.215014E-1	7.249847E-1	7.551649E-1	7.804760E-1	7.762469E-1	7.627995E-1	7.719219E-1	8.333643E-1	7.228861E-1	7.637358E-1	7.807056E-1	7.611304E-1	7.487539E-1	7.474958E-1	8.140266E-1	7.297837E-1	7.721855E-1	7.092232E-1	7.497115E-1	7.034113E-1	7.266779E-1	7.869783E-1	8.004071E-1	7.835776E-1	7.352211E-1	7.114138E-1	6.988723E-1	7.038563E-1	7.254673E-1	7.331278E-1	7.588900E-1	7.082436E-1	7.757568E-1	7.180728E-1	6.725356E-1	6.589430E-1	7.340269E-1	7.531582E-1	7.510480E-1	7.432762E-1	7.273694E-1	7.375777E-1	7.804899E-1	7.867532E-1	7.379663E-1	7.851424E-1	7.869237E-1	7.837034E-1	7.990051E-1	7.059102E-1	7.651215E-1	6.856730E-1	7.580361E-1	7.553985E-1	8.169426E-1	7.706427E-1	7.588189E-1	7.546827E-1	8.030152E-1	6.824839E-1	8.030773E-1	7.835501E-1	6.944766E-1	8.022657E-1	7.982432E-1	7.679399E-1	7.238257E-1	7.301176E-1	7.245076E-1	7.658232E-1	6.977609E-1	7.784880E-1	7.378977E-1	7.011034E-1	7.513413E-1	6.996210E-1	8.036317E-1	7.184862E-1	8.078013E-1	7.211375E-1	7.346382E-1	7.330019E-1	7.880927E-1	7.476838E-1	7.793632E-1	7.363904E-1	7.682321E-1	7.886236E-1	7.885710E-1	7.152646E-1	7.343969E-1	7.061949E-1	7.317804E-1	7.640930E-1	7.461175E-1	7.015428E-1	7.369900E-1	7.037908E-1	7.210516E-1	7.338407E-1	6.530689E-1	7.615449E-1	8.010869E-1	8.127319E-1	7.415057E-1	6.103920E-1	7.499500E-1	6.651051E-1	7.416603E-1	7.210084E-1	7.785865E-1	7.443720E-1	7.442273E-1	6.404280E-1	7.462311E-1	7.266970E-1	7.355730E-1	7.861194E-1	7.916554E-1	7.661030E-1	7.655047E-1	8.665828E-1	7.440813E-1	7.697553E-1	7.757793E-1	7.943073E-1	8.148609E-1	7.414839E-1	7.457401E-1	7.262142E-1	8.154965E-1	7.520155E-1	6.949203E-1	7.549455E-1	7.771487E-1	7.167403E-1	7.452368E-1	7.653428E-1	7.609934E-1
5.365140E+2	6.104039E-1	5.899076E-1	5.047156E-1	6.140517E-1	5.983154E-1	6.096863E-1	6.212329E-1	6.010751E-1	5.569981E-1	5.882804E-1	6.175242E-1	6.062537E-1	5.529257E-1	6.408741E-1	5.804144E-1	5.877495E-1	5.865671E-1	5.601246E-1	5.924770E-1	6.142666E-1	5.509750E-1	5.921152E-1	5.819689E-1	5.784691E-1	5.848378E-1	6.083902E-1	5.619568E-1	5.947634E-1	6.110636E-1	6.307485E-1	6.018995E-1	5.710844E-1	6.133657E-1	6.274896E-1	6.139234E-1	5.684066E-1	5.989200E-1	6.406714E-1	6.363299E-1	6.087805E-1	6.072997E-1	6.420345E-1	6.160418E-1	6.269460E-1	6.072746E-1	6.362277E-1	6.315787E-1	6.320656E-1	5.752315E-1	6.210050E-1	5.776866E-1	5.811453E-1	5.753589E-1	6.199982E-1	5.907541E-1	6.131858E-1	5.758021E-1	6.143329E-1	5.599416E-1	5.468795E-1	5.985688E-1	6.193151E-1	5.715054E-1	5.841137E-1	5.585529E-1	6.333789E-1	5.078167E-1	5.740548E-1	5.879206E-1	6.455263E-1	5.808576E-1	5.983450E-1	6.160289E-1	6.349439E-1	6.251995E-1	5.969213E-1	6.176292E-1	6.485556E-1	6.207361E-1	6.172141E-1	5.778608E-1	6.377624E-1	5.743783E-1	5.898261E-1	5.928717E-1	6.705173E-1	6.187034E-1	6.059224E-1	5.959420E-1	5.995851E-1	4.896342E-1	6.317317E-1	6.592457E-1	5.187985E-1	6.475310E-1	6.466011E-1	5.842980E-1	5.445663E-1	6.001023E-1	6.262851E-1	5.980907E-1	5.672908E-1	5.816292E-1	6.082308E-1	5.648722E-1	5.743295E-1	5.322926E-1	6.803308E-1	5.878291E-1	6.805163E-1	5.922483E-1	6.086105E-1	5.704810E-1	5.967598E-1	6.064673E-1	6.338197E-1	5.839671E-1	6.891398E-1	6.034207E-1	6.412339E-1	5.706743E-1	5.983048E-1	5.246520E-1	5.930793E-1	5.901682E-1	6.400370E-1	5.818621E-1	5.742147E-1	5.717772E-1	5.802013E-1	6.095383E-1	5.062907E-1	5.896433E-1	6.772728E-1	6.262255E-1	5.975779E-1	4.729343E-1	6.231640E-1	5.516503E-1	6.302125E-1	5.534315E-1	6.134118E-1	5.874671E-1	6.399246E-1	5.034357E-1	5.908794E-1	5.657192E-1	5.936242E-1	6.095798E-1	6.095949E-1	6.257278E-1	6.621101E-1	6.708556E-1	5.846573E-1	5.842347E-1	5.753103E-1	6.754271E-1	6.272415E-1	6.079316E-1	5.844837E-1	6.230673E-1	6.177226E-1	5.597938E-1	5.522816E-1	6.253276E-1	6.335619E-1	5.454022E-1	5.949546E-1	5.582855E-1	6.341053E-1
5.367870E+2	5.199093E-1	5.547908E-1	4.631272E-1	5.281899E-1	5.393652E-1	5.076565E-1	5.233551E-1	5.009568E-1	5.370803E-1	5.916372E-1	5.065372E-1	4.939126E-1	4.769304E-1	5.680081E-1	5.132872E-1	5.099721E-1	5.194040E-1	5.123449E-1	4.987683E-1	5.198518E-1	5.353931E-1	5.249414E-1	5.152908E-1	5.378061E-1	5.139902E-1	5.107132E-1	5.324491E-1	4.800591E-1	5.299182E-1	5.403858E-1	5.377376E-1	5.470802E-1	5.211858E-1	5.317328E-1	5.323609E-1	5.242577E-1	5.436931E-1	5.459889E-1	5.844438E-1	5.167178E-1	5.000487E-1	5.381922E-1	5.516315E-1	5.179608E-1	5.383937E-1	5.783969E-1	5.772920E-1	5.506628E-1	4.985754E-1	5.980937E-1	4.892138E-1	5.246882E-1	5.177007E-1	5.765915E-1	5.410127E-1	5.097344E-1	5.015993E-1	5.612335E-1	4.972590E-1	5.098860E-1	4.861450E-1	5.607826E-1	4.604837E-1	4.870322E-1	4.934421E-1	5.261803E-1	4.622182E-1	4.699023E-1	5.692025E-1	5.643563E-1	5.193356E-1	4.762019E-1	5.449687E-1	5.632564E-1	5.431092E-1	4.996265E-1	5.350777E-1	6.116576E-1	5.683090E-1	5.329352E-1	4.905251E-1	5.855997E-1	4.893092E-1	5.322998E-1	5.172938E-1	5.932980E-1	5.136113E-1	5.349108E-1	5.477416E-1	5.881132E-1	4.754442E-1	5.415128E-1	5.460733E-1	5.438956E-1	5.320581E-1	5.515623E-1	5.134068E-1	5.337979E-1	5.045663E-1	5.280635E-1	5.319328E-1	5.474648E-1	5.170747E-1	5.494131E-1	5.038729E-1	5.340996E-1	5.082982E-1	5.235398E-1	5.311512E-1	6.165440E-1	5.709811E-1	5.264185E-1	5.040543E-1	5.918891E-1	4.889000E-1	5.478879E-1	5.050582E-1	5.433743E-1	5.630728E-1	5.683016E-1	4.734164E-1	5.438685E-1	5.394065E-1	5.504544E-1	5.234663E-1	5.784845E-1	5.499910E-1	4.856067E-1	4.870519E-1	5.104406E-1	5.612383E-1	4.569194E-1	5.092980E-1	5.417000E-1	5.356360E-1	5.329330E-1	4.212354E-1	5.168045E-1	4.614334E-1	5.207543E-1	5.024577E-1	5.526952E-1	5.219762E-1	5.556542E-1	4.504653E-1	4.912445E-1	5.249386E-1	4.905167E-1	5.596286E-1	5.214596E-1	5.047592E-1	5.542204E-1	5.601633E-1	5.357109E-1	5.255772E-1	5.267327E-1	5.817837E-1	5.851773E-1	5.862555E-1	5.085197E-1	5.250137E-1	5.465542E-1	5.099347E-1	4.786185E-1	5.551442E-1	5.822352E-1	5.064314E-1	5.555058E-1	4.702460E-1	4.872445E-1
5.370120E+2	4.895025E-1	5.017707E-1	4.142776E-1	5.304498E-1	5.098901E-1	4.792436E-1	5.008805E-1	4.952172E-1	4.468258E-1	5.251752E-1	4.851181E-1	5.087625E-1	4.605700E-1	5.327900E-1	4.905323E-1	5.505230E-1	4.870215E-1	4.716439E-1	5.131403E-1	5.005700E-1	4.861543E-1	4.795538E-1	5.071023E-1	4.892720E-1	4.841237E-1	4.798341E-1	4.801967E-1	4.691348E-1	4.887488E-1	5.008519E-1	5.094137E-1	5.308619E-1	5.048823E-1	5.167507E-1	5.255065E-1	4.902969E-1	5.298860E-1	5.531714E-1	5.286175E-1	4.959710E-1	4.740902E-1	5.136832E-1	5.275582E-1	5.528647E-1	5.125636E-1	5.562488E-1	5.205648E-1	4.966161E-1	4.948363E-1	5.590105E-1	4.971967E-1	4.820324E-1	5.397828E-1	5.399671E-1	4.894292E-1	4.731857E-1	4.517041E-1	5.269988E-1	4.876645E-1	4.907516E-1	5.007071E-1	5.421301E-1	4.642470E-1	4.719019E-1	4.973493E-1	5.037138E-1	4.224831E-1	4.835167E-1	5.220840E-1	5.468732E-1	5.451745E-1	5.260915E-1	4.957260E-1	4.951899E-1	5.240640E-1	5.009328E-1	5.218215E-1	6.201727E-1	5.550440E-1	4.946271E-1	4.905249E-1	5.693408E-1	4.931470E-1	5.140953E-1	5.139497E-1	5.612443E-1	4.895542E-1	5.061230E-1	5.451709E-1	5.865835E-1	4.399703E-1	5.338195E-1	5.046383E-1	5.025196E-1	5.590016E-1	5.396825E-1	5.066553E-1	5.312644E-1	5.074397E-1	5.085686E-1	4.905014E-1	5.429876E-1	4.934257E-1	5.046314E-1	5.160725E-1	5.159960E-1	4.899874E-1	5.387622E-1	5.424871E-1	5.730166E-1	4.852699E-1	5.216240E-1	4.892205E-1	5.786699E-1	5.145752E-1	5.285339E-1	5.225936E-1	5.250722E-1	5.147880E-1	5.425177E-1	4.701744E-1	5.731805E-1	4.874451E-1	5.071522E-1	5.035179E-1	5.568757E-1	4.921019E-1	4.895453E-1	5.271158E-1	5.689065E-1	4.845260E-1	4.288985E-1	4.999560E-1	5.527667E-1	5.116567E-1	4.762154E-1	4.303588E-1	5.259612E-1	4.450302E-1	4.968725E-1	4.572184E-1	5.526954E-1	5.131079E-1	5.100647E-1	4.431591E-1	5.817021E-1	5.120605E-1	5.046410E-1	5.917890E-1	5.439759E-1	5.254598E-1	4.810090E-1	5.359722E-1	5.175312E-1	5.023873E-1	5.027857E-1	5.638519E-1	5.264213E-1	5.436021E-1	5.185152E-1	5.065489E-1	5.502999E-1	4.738519E-1	4.484840E-1	5.254271E-1	5.393540E-1	4.849301E-1	5.235709E-1	5.232328E-1	5.154414E-1
5.372900E+2	5.336642E-1	5.065908E-1	4.611470E-1	6.012481E-1	5.948886E-1	5.212180E-1	5.567062E-1	5.385807E-1	4.903965E-1	5.580706E-1	5.299028E-1	5.229662E-1	5.070117E-1	5.825814E-1	5.184069E-1	5.704656E-1	5.313969E-1	5.147050E-1	5.240638E-1	5.271651E-1	5.453653E-1	5.291778E-1	5.404412E-1	4.912398E-1	5.063505E-1	5.182755E-1	5.269165E-1	5.322527E-1	5.275316E-1	5.717619E-1	5.180842E-1	5.360521E-1	4.986117E-1	5.584398E-1	5.632035E-1	5.364835E-1	5.749082E-1	5.923507E-1	5.791891E-1	5.595070E-1	5.253249E-1	5.994657E-1	5.678966E-1	5.371935E-1	5.580743E-1	6.017751E-1	5.632623E-1	5.720141E-1	4.985755E-1	6.587404E-1	5.284611E-1	5.046154E-1	5.238345E-1	6.030425E-1	5.250464E-1	5.239822E-1	4.811297E-1	5.458630E-1	5.062133E-1	5.226422E-1	5.554631E-1	5.807225E-1	5.282258E-1	5.191824E-1	5.051627E-1	5.505732E-1	4.263915E-1	5.066611E-1	5.324112E-1	5.899564E-1	4.996483E-1	5.008602E-1	5.455918E-1	5.842557E-1	5.825123E-1	5.179107E-1	5.664113E-1	5.868221E-1	5.335680E-1	5.301495E-1	5.384615E-1	5.930513E-1	5.219297E-1	5.708936E-1	5.360211E-1	5.809138E-1	5.098129E-1	5.592213E-1	5.490272E-1	6.110564E-1	4.883438E-1	5.603956E-1	5.565866E-1	5.486434E-1	5.890243E-1	5.704300E-1	5.329859E-1	5.661024E-1	5.433557E-1	5.573049E-1	5.386156E-1	5.551393E-1	5.285791E-1	5.641173E-1	5.275949E-1	5.501916E-1	5.095619E-1	5.539851E-1	5.192194E-1	6.561146E-1	5.046032E-1	5.455966E-1	5.092131E-1	6.614648E-1	5.578186E-1	5.331787E-1	5.306868E-1	6.028572E-1	5.835772E-1	6.051363E-1	5.006484E-1	6.164507E-1	5.413306E-1	5.707516E-1	5.265837E-1	6.236669E-1	5.499908E-1	5.020159E-1	4.844247E-1	5.948176E-1	5.619483E-1	4.595879E-1	5.653527E-1	5.956519E-1	5.809307E-1	5.384210E-1	4.443478E-1	5.407528E-1	5.003907E-1	4.895753E-1	5.604406E-1	6.349559E-1	5.049219E-1	5.563448E-1	4.650779E-1	6.190656E-1	5.356702E-1	5.208843E-1	5.952101E-1	5.671352E-1	5.888550E-1	5.792657E-1	5.652945E-1	5.902507E-1	5.248953E-1	5.404163E-1	5.857687E-1	5.644793E-1	5.715714E-1	5.731557E-1	5.345645E-1	5.757704E-1	5.361763E-1	4.960301E-1	5.576731E-1	5.633930E-1	4.990398E-1	5.223187E-1	5.264935E-1	5.718356E-1
5.375160E+2	6.256071E-1	6.608302E-1	5.410226E-1	6.486983E-1	6.421854E-1	6.232472E-1	6.596583E-1	6.138286E-1	5.787836E-1	6.258752E-1	6.486786E-1	6.327244E-1	5.518700E-1	6.864158E-1	6.134093E-1	6.189938E-1	6.267456E-1	6.332690E-1	6.447932E-1	5.763680E-1	6.151724E-1	6.102706E-1	6.351937E-1	6.309381E-1	6.334586E-1	6.115414E-1	6.000699E-1	5.868738E-1	6.134505E-1	6.922456E-1	6.608589E-1	6.554217E-1	6.497357E-1	6.242323E-1	6.701257E-1	6.444790E-1	6.427409E-1	6.511194E-1	6.645710E-1	6.366583E-1	5.997851E-1	6.510645E-1	6.205965E-1	6.725351E-1	6.866107E-1	6.805235E-1	6.480483E-1	6.354010E-1	5.795939E-1	7.011939E-1	6.229211E-1	6.401108E-1	5.747457E-1	7.312274E-1	6.282134E-1	6.076106E-1	5.866768E-1	6.359916E-1	5.944811E-1	5.947151E-1	6.311894E-1	6.572640E-1	6.078855E-1	6.099604E-1	5.917589E-1	6.584135E-1	5.390844E-1	5.931150E-1	6.027661E-1	7.060918E-1	6.214620E-1	5.885963E-1	6.122888E-1	6.356681E-1	6.823341E-1	6.178174E-1	6.682448E-1	7.393818E-1	6.864286E-1	6.617912E-1	5.909945E-1	6.479245E-1	5.980450E-1	6.022053E-1	6.778135E-1	6.909143E-1	6.047752E-1	6.385486E-1	6.486413E-1	7.227139E-1	5.650969E-1	6.037569E-1	6.573904E-1	6.049415E-1	6.490705E-1	6.724564E-1	6.052275E-1	6.731515E-1	6.511026E-1	6.067911E-1	6.335083E-1	6.472362E-1	6.391530E-1	6.670490E-1	5.980828E-1	6.547891E-1	5.948041E-1	6.300967E-1	6.355576E-1	7.049182E-1	6.328482E-1	6.408022E-1	5.911185E-1	7.310405E-1	6.098458E-1	6.121434E-1	6.129687E-1	6.701839E-1	6.523669E-1	6.427071E-1	6.102261E-1	6.750746E-1	5.907257E-1	6.560026E-1	6.182205E-1	7.389150E-1	6.033267E-1	6.345991E-1	6.013325E-1	7.376611E-1	6.322681E-1	5.483226E-1	5.971174E-1	7.132410E-1	6.448758E-1	6.366092E-1	4.984793E-1	6.534521E-1	6.035932E-1	5.811222E-1	5.457859E-1	7.433312E-1	6.475004E-1	6.060782E-1	5.235277E-1	6.826483E-1	5.914756E-1	5.985676E-1	6.307918E-1	6.379008E-1	6.677757E-1	6.332110E-1	7.097077E-1	6.776545E-1	6.333434E-1	6.300461E-1	7.292217E-1	7.187143E-1	6.359006E-1	6.158019E-1	6.498087E-1	6.394480E-1	6.568885E-1	5.536205E-1	6.638968E-1	6.517543E-1	6.058744E-1	6.444227E-1	6.023062E-1	7.010738E-1
5.377790E+2	6.806287E-1	7.076533E-1	6.037347E-1	7.066922E-1	7.450056E-1	6.548900E-1	6.676329E-1	6.756854E-1	6.453853E-1	7.292605E-1	6.850258E-1	6.662975E-1	6.637521E-1	7.428864E-1	6.907767E-1	7.353278E-1	6.477342E-1	6.763292E-1	6.729631E-1	7.206495E-1	7.292318E-1	7.028614E-1	7.276072E-1	7.011146E-1	7.098632E-1	6.669969E-1	6.769121E-1	6.390670E-1	6.629729E-1	7.380551E-1	6.585465E-1	6.962934E-1	6.672942E-1	7.141263E-1	7.160484E-1	6.933823E-1	6.853619E-1	7.138060E-1	7.249955E-1	6.431415E-1	6.585345E-1	7.497466E-1	7.422618E-1	7.473285E-1	7.032156E-1	7.045174E-1	7.669919E-1	7.254787E-1	6.637285E-1	7.207352E-1	6.754723E-1	6.645752E-1	6.839291E-1	7.502183E-1	6.797965E-1	7.042474E-1	6.679158E-1	7.198321E-1	6.616410E-1	6.176762E-1	6.509944E-1	7.608197E-1	6.743725E-1	6.547191E-1	6.718447E-1	6.770287E-1	6.296296E-1	6.496158E-1	7.228217E-1	7.716527E-1	6.534541E-1	6.895222E-1	6.920746E-1	7.384920E-1	7.210808E-1	7.085820E-1	7.212708E-1	7.933097E-1	7.255909E-1	7.140299E-1	6.573170E-1	7.597019E-1	6.690424E-1	6.808484E-1	7.072422E-1	7.572068E-1	6.839110E-1	6.884479E-1	6.910574E-1	8.098983E-1	5.773519E-1	7.331400E-1	7.105750E-1	6.612406E-1	7.399099E-1	7.367478E-1	6.909723E-1	7.345937E-1	7.222167E-1	7.117606E-1	6.929833E-1	7.278212E-1	6.570490E-1	7.365607E-1	6.340045E-1	7.090994E-1	6.693127E-1	7.267590E-1	7.029745E-1	8.005469E-1	6.347814E-1	6.976516E-1	6.478719E-1	7.296491E-1	6.794400E-1	7.228484E-1	6.669235E-1	7.440470E-1	7.013138E-1	7.745735E-1	6.465358E-1	7.776670E-1	6.875914E-1	7.486952E-1	7.111055E-1	7.834425E-1	6.534100E-1	6.766053E-1	6.814598E-1	7.702163E-1	6.684934E-1	5.750097E-1	7.135868E-1	7.395255E-1	7.707679E-1	7.329673E-1	5.197670E-1	7.083920E-1	6.377663E-1	6.885898E-1	6.228835E-1	7.805444E-1	6.884318E-1	7.497529E-1	5.704096E-1	7.560631E-1	6.565821E-1	6.557706E-1	7.594334E-1	8.019482E-1	7.499306E-1	7.533027E-1	7.456275E-1	7.398864E-1	7.049594E-1	6.533084E-1	7.398485E-1	7.874855E-1	6.995309E-1	6.631127E-1	7.122065E-1	7.510702E-1	6.929710E-1	5.897831E-1	7.385059E-1	7.128269E-1	6.737377E-1	7.051613E-1	6.838246E-1	7.668680E-1
5.380160E+2	7.819840E-1	7.675581E-1	6.723878E-1	8.189153E-1	7.765373E-1	7.840404E-1	8.162608E-1	7.732529E-1	7.138535E-1	8.467440E-1	8.018543E-1	7.812210E-1	7.149428E-1	9.201941E-1	8.978465E-1	8.004754E-1	7.802623E-1	7.518330E-1	8.454334E-1	7.718464E-1	8.513934E-1	7.488543E-1	7.550966E-1	8.263844E-1	8.001589E-1	7.848399E-1	8.625627E-1	7.489162E-1	7.942382E-1	8.221426E-1	8.810900E-1	7.708991E-1	7.663708E-1	7.975061E-1	8.688927E-1	7.599454E-1	8.120231E-1	8.587685E-1	9.023274E-1	7.611375E-1	8.170197E-1	8.419791E-1	8.509153E-1	8.377936E-1	8.120720E-1	8.872381E-1	8.804460E-1	8.022117E-1	7.472399E-1	8.683096E-1	8.118406E-1	7.442422E-1	8.109005E-1	8.655172E-1	8.560403E-1	7.823006E-1	7.625878E-1	8.490868E-1	7.620614E-1	7.458773E-1	7.756512E-1	8.785259E-1	7.521508E-1	8.104286E-1	7.688590E-1	8.137550E-1	7.501395E-1	7.687447E-1	8.286766E-1	8.172329E-1	8.060293E-1	8.087978E-1	8.504008E-1	8.471086E-1	7.939767E-1	8.026121E-1	8.556422E-1	8.862646E-1	7.919145E-1	8.533334E-1	7.380862E-1	8.240587E-1	7.566703E-1	8.060956E-1	7.654308E-1	8.162143E-1	7.991318E-1	7.805700E-1	8.003124E-1	8.963185E-1	6.476550E-1	7.869918E-1	7.823131E-1	8.145354E-1	8.638510E-1	8.639311E-1	7.679398E-1	8.061711E-1	7.703437E-1	7.852399E-1	7.758469E-1	7.841025E-1	8.078890E-1	7.967154E-1	7.377034E-1	8.210728E-1	6.933067E-1	7.876479E-1	7.966416E-1	9.225553E-1	8.107160E-1	7.935421E-1	7.562192E-1	9.328096E-1	7.416025E-1	8.273613E-1	7.492054E-1	8.767391E-1	7.853161E-1	8.703435E-1	8.060392E-1	8.139580E-1	7.299303E-1	8.298863E-1	8.008728E-1	8.495786E-1	7.704888E-1	8.105015E-1	7.740661E-1	9.104026E-1	8.332825E-1	6.817577E-1	8.014060E-1	8.405135E-1	8.280520E-1	8.152988E-1	6.584408E-1	8.175687E-1	7.218318E-1	8.079987E-1	7.401235E-1	9.189516E-1	7.361851E-1	7.960328E-1	7.037486E-1	8.983049E-1	7.524531E-1	7.807711E-1	8.333333E-1	8.064513E-1	8.113855E-1	8.111010E-1	8.944387E-1	8.664471E-1	7.506577E-1	8.161469E-1	8.208727E-1	9.110071E-1	7.981225E-1	7.430748E-1	7.835184E-1	8.529536E-1	7.985949E-1	7.431358E-1	8.011023E-1	8.206791E-1	7.523520E-1	7.771715E-1	7.751252E-1	7.739174E-1
5.382900E+2	1.058537E+0	1.007181E+0	8.281783E-1	1.095330E+0	1.045241E+0	9.842251E-1	1.015639E+0	1.018767E+0	9.553615E-1	1.003165E+0	1.090681E+0	1.022689E+0	9.397623E-1	1.080499E+0	1.085576E+0	1.099620E+0	9.673603E-1	9.830626E-1	1.087467E+0	9.626706E-1	1.015938E+0	1.009077E+0	9.861300E-1	9.910051E-1	1.037011E+0	9.972093E-1	1.034073E+0	9.625455E-1	9.935216E-1	1.032362E+0	1.122130E+0	1.047914E+0	9.833382E-1	1.040480E+0	1.173210E+0	9.086941E-1	9.801056E-1	1.058582E+0	1.094765E+0	1.013985E+0	9.755050E-1	9.999998E-1	1.066270E+0	1.007327E+0	9.750483E-1	1.088415E+0	1.143343E+0	1.093127E+0	9.659895E-1	1.096072E+0	1.071938E+0	9.512499E-1	9.581142E-1	1.119175E+0	1.023073E+0	1.007168E+0	9.487342E-1	1.071264E+0	1.031341E+0	8.944873E-1	1.007489E+0	1.094000E+0	1.040053E+0	1.012157E+0	9.427032E-1	1.019808E+0	1.115578E+0	9.239519E-1	1.031996E+0	1.043885E+0	1.054577E+0	9.303673E-1	9.881567E-1	1.022344E+0	1.084905E+0	9.671644E-1	1.073770E+0	1.152356E+0	1.098899E+0	1.049054E+0	9.488747E-1	1.103842E+0	1.043220E+0	9.983356E-1	9.861456E-1	1.088667E+0	1.044135E+0	9.526592E-1	9.956848E-1	1.124987E+0	8.495340E-1	9.989012E-1	1.047618E+0	9.617248E-1	1.104806E+0	1.048418E+0	9.988424E-1	1.050042E+0	1.016726E+0	1.007926E+0	9.970408E-1	9.650982E-1	1.027119E+0	1.025303E+0	9.213785E-1	1.024234E+0	8.934693E-1	9.977170E-1	9.941195E-1	1.146127E+0	1.007273E+0	1.025049E+0	9.645297E-1	1.062220E+0	1.001738E+0	1.006194E+0	9.603042E-1	1.120554E+0	9.850706E-1	1.083245E+0	9.409039E-1	1.109870E+0	1.005132E+0	9.834717E-1	9.704340E-1	1.114780E+0	9.961900E-1	9.562124E-1	9.362916E-1	1.130980E+0	1.051345E+0	8.492185E-1	9.390515E-1	1.057707E+0	1.033210E+0	9.866702E-1	7.825179E-1	1.080298E+0	9.282369E-1	9.181199E-1	8.790280E-1	1.107629E+0	9.585809E-1	1.000494E+0	8.675306E-1	1.050379E+0	9.878370E-1	9.566186E-1	1.043402E+0	1.078577E+0	1.041031E+0	1.041010E+0	1.063043E+0	1.025173E+0	9.627787E-1	9.899326E-1	1.084535E+0	1.103302E+0	1.007891E+0	9.829606E-1	9.719846E-1	1.092680E+0	9.954079E-1	9.534103E-1	1.048957E+0	1.038982E+0	9.525818E-1	1.015117E+0	9.552811E-1	1.057066E+0
5.385110E+2	1.223601E+0	1.204112E+0	9.786874E-1	1.233914E+0	1.208382E+0	1.170850E+0	1.213568E+0	1.152684E+0	1.080472E+0	1.240816E+0	1.290589E+0	1.189263E+0	1.123946E+0	1.276630E+0	1.295490E+0	1.146819E+0	1.163453E+0	1.102805E+0	1.238669E+0	1.165464E+0	1.146824E+0	1.132533E+0	1.187332E+0	1.126768E+0	1.150228E+0	1.092996E+0	1.219723E+0	1.103346E+0	1.201756E+0	1.193633E+0	1.235423E+0	1.144577E+0	1.168324E+0	1.243069E+0	1.287671E+0	1.153211E+0	1.167996E+0	1.253826E+0	1.266842E+0	1.199408E+0	1.130576E+0	1.194786E+0	1.297240E+0	1.230996E+0	1.166317E+0	1.263139E+0	1.344022E+0	1.240588E+0	1.090632E+0	1.323162E+0	1.292121E+0	1.108703E+0	1.178320E+0	1.342990E+0	1.224494E+0	1.180620E+0	1.094580E+0	1.267591E+0	1.202119E+0	1.088383E+0	1.115835E+0	1.223285E+0	1.248925E+0	1.155259E+0	1.099620E+0	1.204676E+0	1.295367E+0	1.102305E+0	1.206916E+0	1.246813E+0	1.208999E+0	1.094371E+0	1.204451E+0	1.233061E+0	1.297026E+0	1.101026E+0	1.250926E+0	1.293561E+0	1.342086E+0	1.177213E+0	1.134709E+0	1.214943E+0	1.225511E+0	1.189118E+0	1.188133E+0	1.216151E+0	1.214434E+0	1.167610E+0	1.192985E+0	1.308533E+0	1.013361E+0	1.187031E+0	1.233769E+0	1.123159E+0	1.294952E+0	1.225218E+0	1.136574E+0	1.221698E+0	1.267419E+0	1.148886E+0	1.168783E+0	1.147371E+0	1.151113E+0	1.182375E+0	1.074553E+0	1.187836E+0	1.146040E+0	1.191041E+0	1.171908E+0	1.281324E+0	1.301142E+0	1.189431E+0	1.122537E+0	1.261205E+0	1.258495E+0	1.202057E+0	1.084401E+0	1.244093E+0	1.208636E+0	1.238687E+0	1.101703E+0	1.268993E+0	1.139204E+0	1.137734E+0	1.103838E+0	1.325630E+0	1.253114E+0	1.141304E+0	1.074873E+0	1.307043E+0	1.291427E+0	9.939955E-1	1.113445E+0	1.265908E+0	1.219051E+0	1.125109E+0	9.443046E-1	1.242303E+0	1.153096E+0	1.164235E+0	1.084198E+0	1.271498E+0	1.226003E+0	1.182848E+0	9.886925E-1	1.313889E+0	1.169562E+0	1.133878E+0	1.239102E+0	1.261281E+0	1.198873E+0	1.179084E+0	1.261701E+0	1.197184E+0	1.186494E+0	1.133614E+0	1.238614E+0	1.315622E+0	1.181999E+0	1.121562E+0	1.134982E+0	1.214041E+0	1.102344E+0	1.037119E+0	1.176044E+0	1.197514E+0	1.051353E+0	1.197335E+0	1.136253E+0	1.281470E+0
5.387700E+2	1.457442E+0	1.403108E+0	1.189267E+0	1.520120E+0	1.518214E+0	1.382011E+0	1.501398E+0	1.426892E+0	1.369910E+0	1.447587E+0	1.506073E+0	1.406197E+0	1.328710E+0	1.470941E+0	1.586753E+0	1.430674E+0	1.317573E+0	1.397741E+0	1.478401E+0	1.337673E+0	1.417950E+0	1.317109E+0	1.438839E+0	1.416661E+0	1.430144E+0	1.311039E+0	1.431808E+0	1.365526E+0	1.411183E+0	1.487942E+0	1.585137E+0	1.411862E+0	1.355191E+0	1.424159E+0	1.632428E+0	1.368522E+0	1.436328E+0	1.518936E+0	1.577503E+0	1.460035E+0	1.434567E+0	1.487605E+0	1.558138E+0	1.379873E+0	1.470743E+0	1.547987E+0	1.547144E+0	1.395387E+0	1.306266E+0	1.530708E+0	1.534923E+0	1.355230E+0	1.388711E+0	1.466425E+0	1.479955E+0	1.394956E+0	1.239788E+0	1.507934E+0	1.383133E+0	1.309066E+0	1.312138E+0	1.515301E+0	1.484767E+0	1.418136E+0	1.399126E+0	1.478130E+0	1.483619E+0	1.377321E+0	1.385708E+0	1.596471E+0	1.476623E+0	1.383958E+0	1.399556E+0	1.400329E+0	1.520310E+0	1.296923E+0	1.446758E+0	1.574556E+0	1.572642E+0	1.455822E+0	1.351408E+0	1.584148E+0	1.391813E+0	1.423594E+0	1.399483E+0	1.514831E+0	1.429049E+0	1.455494E+0	1.434633E+0	1.564731E+0	1.206210E+0	1.438104E+0	1.391466E+0	1.389728E+0	1.523589E+0	1.439752E+0	1.385032E+0	1.470003E+0	1.423293E+0	1.409811E+0	1.410023E+0	1.446048E+0	1.387601E+0	1.461090E+0	1.305673E+0	1.351437E+0	1.439021E+0	1.447537E+0	1.323447E+0	1.622950E+0	1.542166E+0	1.393541E+0	1.346323E+0	1.524201E+0	1.608497E+0	1.390953E+0	1.354176E+0	1.504248E+0	1.447415E+0	1.534099E+0	1.350686E+0	1.527916E+0	1.435578E+0	1.394163E+0	1.392467E+0	1.561363E+0	1.461255E+0	1.346086E+0	1.342186E+0	1.542235E+0	1.540742E+0	1.208159E+0	1.335171E+0	1.464426E+0	1.452186E+0	1.364175E+0	1.070207E+0	1.455725E+0	1.412125E+0	1.332071E+0	1.295742E+0	1.486287E+0	1.547997E+0	1.364514E+0	1.172566E+0	1.521022E+0	1.450737E+0	1.352805E+0	1.515542E+0	1.503170E+0	1.440808E+0	1.439818E+0	1.469891E+0	1.444012E+0	1.419762E+0	1.347081E+0	1.481686E+0	1.567341E+0	1.576366E+0	1.379439E+0	1.399855E+0	1.570632E+0	1.453980E+0	1.262796E+0	1.375212E+0	1.431409E+0	1.381262E+0	1.379550E+0	1.318854E+0	1.443606E+0
5.390240E+2	1.632641E+0	1.608303E+0	1.417013E+0	1.728750E+0	1.593616E+0	1.610608E+0	1.654378E+0	1.671765E+0	1.504360E+0	1.650330E+0	1.727399E+0	1.563734E+0	1.518170E+0	1.794584E+0	1.783584E+0	1.698575E+0	1.572430E+0	1.580013E+0	1.735384E+0	1.585673E+0	1.629864E+0	1.574306E+0	1.570438E+0	1.619319E+0	1.623237E+0	1.570669E+0	1.711512E+0	1.539709E+0	1.549611E+0	1.716361E+0	1.833114E+0	1.608431E+0	1.547701E+0	1.672343E+0	1.753744E+0	1.612362E+0	1.600805E+0	1.766421E+0	1.798180E+0	1.568308E+0	1.610130E+0	1.702388E+0	1.748117E+0	1.617076E+0	1.603583E+0	1.789770E+0	1.819795E+0	1.654942E+0	1.486379E+0	1.798229E+0	1.685261E+0	1.571020E+0	1.588678E+0	1.752639E+0	1.679532E+0	1.618584E+0	1.530202E+0	1.735004E+0	1.612757E+0	1.536766E+0	1.492134E+0	1.690894E+0	1.708692E+0	1.606630E+0	1.475956E+0	1.618067E+0	1.731157E+0	1.467178E+0	1.671647E+0	1.706986E+0	1.672263E+0	1.519292E+0	1.626446E+0	1.712424E+0	1.702880E+0	1.520897E+0	1.722736E+0	1.756918E+0	1.842987E+0	1.644576E+0	1.574013E+0	1.754862E+0	1.577301E+0	1.638406E+0	1.565355E+0	1.696953E+0	1.586686E+0	1.612866E+0	1.608795E+0	1.699335E+0	1.361653E+0	1.617143E+0	1.669138E+0	1.528100E+0	1.714507E+0	1.674553E+0	1.547741E+0	1.654963E+0	1.679735E+0	1.602507E+0	1.657277E+0	1.584833E+0	1.605554E+0	1.629522E+0	1.460883E+0	1.617625E+0	1.610139E+0	1.686529E+0	1.566265E+0	1.736384E+0	1.732921E+0	1.568199E+0	1.596555E+0	1.801111E+0	1.698360E+0	1.617784E+0	1.579439E+0	1.709495E+0	1.630637E+0	1.733006E+0	1.488791E+0	1.688434E+0	1.591460E+0	1.557896E+0	1.582602E+0	1.816089E+0	1.670694E+0	1.555460E+0	1.554983E+0	1.718964E+0	1.714765E+0	1.346263E+0	1.526378E+0	1.734881E+0	1.669331E+0	1.544083E+0	1.214961E+0	1.600122E+0	1.652705E+0	1.479340E+0	1.456308E+0	1.847322E+0	1.752653E+0	1.620779E+0	1.341826E+0	1.792396E+0	1.675390E+0	1.517353E+0	1.756403E+0	1.738625E+0	1.607707E+0	1.581102E+0	1.677347E+0	1.695735E+0	1.594366E+0	1.530448E+0	1.648385E+0	1.807040E+0	1.843475E+0	1.514040E+0	1.553303E+0	1.643302E+0	1.648174E+0	1.423515E+0	1.593351E+0	1.625672E+0	1.583510E+0	1.584935E+0	1.475369E+0	1.646861E+0
5.392880E+2	1.894716E+0	1.830019E+0	1.582043E+0	1.966755E+0	1.900707E+0	1.765589E+0	1.819679E+0	1.836932E+0	1.648142E+0	1.887982E+0	1.932501E+0	1.821343E+0	1.762514E+0	1.991324E+0	2.004877E+0	1.802943E+0	1.718152E+0	1.787645E+0	1.921648E+0	1.741926E+0	1.775711E+0	1.807297E+0	1.771055E+0	1.900685E+0	1.748960E+0	1.764131E+0	1.836306E+0	1.739986E+0	1.806170E+0	1.868849E+0	2.039472E+0	1.861447E+0	1.794145E+0	1.921832E+0	2.065602E+0	1.794393E+0	1.737673E+0	1.941421E+0	1.980768E+0	1.853569E+0	1.836243E+0	1.847507E+0	1.933545E+0	1.836470E+0	1.847743E+0	1.922041E+0	1.970461E+0	1.857118E+0	1.664619E+0	1.994321E+0	1.928063E+0	1.725965E+0	1.839556E+0	1.887608E+0	1.825686E+0	1.785842E+0	1.731059E+0	1.868449E+0	1.817433E+0	1.691754E+0	1.788633E+0	1.846549E+0	1.892473E+0	1.756033E+0	1.742909E+0	1.878678E+0	1.963058E+0	1.655062E+0	1.778146E+0	1.876193E+0	1.864825E+0	1.720569E+0	1.850844E+0	1.856522E+0	1.924855E+0	1.676957E+0	1.911337E+0	1.965533E+0	1.978162E+0	1.877215E+0	1.621954E+0	1.970969E+0	1.895194E+0	1.822637E+0	1.757309E+0	1.911126E+0	1.867143E+0	1.800310E+0	1.874863E+0	2.000659E+0	1.569979E+0	1.888499E+0	1.823749E+0	1.751259E+0	2.014734E+0	1.863931E+0	1.706406E+0	1.797484E+0	1.831301E+0	1.773456E+0	1.799620E+0	1.786293E+0	1.760867E+0	1.813328E+0	1.707589E+0	1.838217E+0	1.827351E+0	1.807548E+0	1.744057E+0	2.012719E+0	2.001014E+0	1.818201E+0	1.723604E+0	1.993837E+0	1.896331E+0	1.805132E+0	1.770306E+0	1.929128E+0	1.857508E+0	1.877396E+0	1.621711E+0	1.934097E+0	1.794173E+0	1.863714E+0	1.727850E+0	2.061648E+0	1.934122E+0	1.697234E+0	1.669916E+0	1.926255E+0	1.874579E+0	1.643826E+0	1.688317E+0	1.971444E+0	1.805882E+0	1.728262E+0	1.391344E+0	1.824815E+0	1.865943E+0	1.713513E+0	1.655106E+0	1.989648E+0	2.055547E+0	1.779652E+0	1.529963E+0	1.930705E+0	1.890024E+0	1.717214E+0	1.895308E+0	1.957357E+0	1.811478E+0	1.733305E+0	1.937585E+0	1.817402E+0	1.756016E+0	1.726809E+0	1.866222E+0	1.952598E+0	1.902907E+0	1.770586E+0	1.717573E+0	1.910746E+0	1.882381E+0	1.604995E+0	1.781140E+0	1.819938E+0	1.794489E+0	1.781553E+0	1.681614E+0	1.960557E+0
5.395210E+2	1.975803E+0	1.947078E+0	1.625612E+0	2.002905E+0	1.954857E+0	1.855349E+0	1.933507E+0	1.926209E+0	1.743377E+0	1.914165E+0	2.007140E+0	1.927873E+0	1.761460E+0	2.045367E+0	2.065178E+0	2.032952E+0	1.849482E+0	1.825400E+0	1.946367E+0	2.024507E+0	1.927789E+0	1.856922E+0	1.931317E+0	1.871168E+0	1.820501E+0	1.797533E+0	2.007816E+0	1.879573E+0	1.914762E+0	1.917168E+0	2.074154E+0	2.014550E+0	1.871899E+0	1.846267E+0	2.114952E+0	1.987969E+0	1.881145E+0	1.983208E+0	2.107526E+0	1.940442E+0	1.823263E+0	2.018429E+0	2.028533E+0	1.828637E+0	1.862503E+0	2.072154E+0	2.075374E+0	2.051282E+0	1.768698E+0	2.032731E+0	1.977953E+0	1.843267E+0	1.835261E+0	2.026644E+0	1.881569E+0	1.847168E+0	1.789912E+0	1.992816E+0	1.926166E+0	1.804007E+0	1.818339E+0	2.006062E+0	1.989693E+0	1.882115E+0	1.757885E+0	1.893443E+0	2.034711E+0	1.696586E+0	1.940800E+0	1.945498E+0	1.925117E+0	1.734906E+0	1.882634E+0	1.953552E+0	1.952435E+0	1.827148E+0	2.013771E+0	1.982567E+0	2.071017E+0	1.921096E+0	1.800561E+0	2.038036E+0	1.882402E+0	1.853948E+0	1.895088E+0	1.978147E+0	1.866507E+0	1.866207E+0	1.854938E+0	2.032772E+0	1.649956E+0	1.904583E+0	1.834881E+0	1.845542E+0	1.983174E+0	1.900969E+0	1.819830E+0	1.964077E+0	1.910312E+0	1.851432E+0	1.854417E+0	1.885429E+0	1.856099E+0	1.892200E+0	1.696069E+0	1.932088E+0	1.891125E+0	1.856257E+0	1.872328E+0	2.092517E+0	1.989413E+0	1.907928E+0	1.714576E+0	1.984790E+0	1.993628E+0	1.844612E+0	1.828307E+0	2.018021E+0	1.928282E+0	1.987160E+0	1.706651E+0	2.059025E+0	1.915411E+0	1.838004E+0	1.845665E+0	2.036108E+0	1.911354E+0	1.801593E+0	1.771064E+0	1.938876E+0	1.974735E+0	1.697867E+0	1.751223E+0	2.020554E+0	1.896470E+0	1.778882E+0	1.500217E+0	1.960050E+0	1.792814E+0	1.746021E+0	1.651283E+0	2.071911E+0	2.042590E+0	1.839057E+0	1.599984E+0	1.977902E+0	1.955848E+0	1.849271E+0	1.945260E+0	1.945132E+0	1.826355E+0	1.881010E+0	1.955176E+0	1.983818E+0	1.807172E+0	1.749388E+0	1.911386E+0	2.030716E+0	1.978426E+0	1.759922E+0	1.786975E+0	2.015628E+0	1.862702E+0	1.641156E+0	1.937945E+0	1.870615E+0	1.791804E+0	1.837285E+0	1.753349E+0	1.874790E+0
5.397750E+2	2.019235E+0	1.958784E+0	1.605148E+0	2.084248E+0	2.017234E+0	1.879889E+0	2.018334E+0	1.916643E+0	1.819313E+0	1.992037E+0	2.110986E+0	1.959512E+0	1.822679E+0	2.034437E+0	2.167007E+0	2.121367E+0	1.858475E+0	1.838377E+0	1.990059E+0	2.100968E+0	1.947110E+0	1.934383E+0	1.954709E+0	2.001033E+0	1.897600E+0	1.846688E+0	1.940192E+0	1.969393E+0	1.874191E+0	1.951053E+0	2.143520E+0	2.156626E+0	1.962198E+0	1.971989E+0	2.148534E+0	2.129921E+0	1.920763E+0	2.095525E+0	2.102273E+0	1.953413E+0	1.945547E+0	1.951351E+0	2.087740E+0	2.020962E+0	1.913549E+0	2.055542E+0	2.203465E+0	2.095318E+0	1.807335E+0	2.074509E+0	1.954008E+0	2.010756E+0	1.876972E+0	2.039533E+0	1.995790E+0	1.911593E+0	1.851960E+0	1.998405E+0	1.910819E+0	1.796993E+0	1.809602E+0	2.085181E+0	1.953947E+0	1.930653E+0	1.814531E+0	1.940946E+0	2.058813E+0	1.925313E+0	1.909820E+0	2.023547E+0	2.053698E+0	1.785370E+0	1.956187E+0	2.022343E+0	2.030584E+0	1.834329E+0	1.913143E+0	2.069133E+0	2.129128E+0	1.923880E+0	1.824858E+0	2.110518E+0	1.941883E+0	1.928949E+0	1.876361E+0	2.024768E+0	1.901332E+0	1.933373E+0	1.902498E+0	2.157431E+0	1.671886E+0	1.949348E+0	1.904143E+0	1.880817E+0	2.054765E+0	1.969449E+0	1.832659E+0	1.942539E+0	1.946230E+0	1.924911E+0	1.849737E+0	1.886704E+0	1.898924E+0	1.961043E+0	1.669637E+0	1.983719E+0	1.919537E+0	1.956726E+0	1.778656E+0	2.184190E+0	2.111856E+0	1.857240E+0	1.774554E+0	2.053674E+0	2.090925E+0	1.874805E+0	1.825611E+0	2.006912E+0	1.946803E+0	1.994526E+0	1.744257E+0	2.063908E+0	1.979564E+0	1.888073E+0	1.777720E+0	2.138262E+0	2.032986E+0	1.852790E+0	1.730344E+0	2.062455E+0	2.005987E+0	1.695864E+0	1.823473E+0	2.032311E+0	1.958420E+0	1.788640E+0	1.617602E+0	1.988928E+0	1.911051E+0	1.813020E+0	1.786365E+0	2.130664E+0	2.070559E+0	1.812116E+0	1.573802E+0	2.034273E+0	2.000920E+0	1.811847E+0	2.005477E+0	2.009469E+0	2.002957E+0	1.885505E+0	1.980102E+0	1.955149E+0	1.908117E+0	1.813020E+0	1.975144E+0	2.018695E+0	2.096592E+0	1.878535E+0	1.830272E+0	1.999894E+0	1.967014E+0	1.679996E+0	1.865866E+0	1.899199E+0	1.822039E+0	1.852314E+0	1.765576E+0	1.971131E+0
5.400190E+2	1.946843E+0	1.949147E+0	1.663238E+0	2.076715E+0	1.946631E+0	1.870850E+0	1.979182E+0	1.960647E+0	1.817448E+0	1.944375E+0	2.009734E+0	1.929811E+0	1.866482E+0	2.071477E+0	2.143684E+0	2.056218E+0	1.864476E+0	1.818911E+0	1.964767E+0	2.072381E+0	1.992611E+0	1.873865E+0	1.895637E+0	1.987914E+0	1.794804E+0	1.787450E+0	1.906998E+0	1.878966E+0	1.833616E+0	2.017572E+0	2.125021E+0	2.129379E+0	1.812328E+0	1.954404E+0	2.087536E+0	2.121091E+0	1.888949E+0	2.092255E+0	2.095045E+0	2.000743E+0	1.907292E+0	1.946193E+0	1.975836E+0	1.998881E+0	1.952908E+0	2.032169E+0	2.157721E+0	2.085313E+0	1.806714E+0	2.042165E+0	1.935381E+0	1.908503E+0	1.919294E+0	2.033423E+0	1.940522E+0	1.864514E+0	1.765603E+0	2.007487E+0	1.929366E+0	1.903508E+0	1.835234E+0	1.978406E+0	2.036110E+0	2.117886E+0	1.803459E+0	2.012195E+0	2.026241E+0	2.011086E+0	1.862701E+0	2.010436E+0	1.995869E+0	1.867371E+0	1.911932E+0	1.989032E+0	2.027302E+0	1.849348E+0	2.042092E+0	2.125192E+0	2.062806E+0	2.086865E+0	1.816979E+0	2.049553E+0	1.951480E+0	2.060021E+0	1.833555E+0	2.101987E+0	1.934251E+0	1.950648E+0	1.839512E+0	2.147492E+0	1.646732E+0	1.936755E+0	1.927644E+0	1.786530E+0	2.022435E+0	2.151142E+0	1.821182E+0	1.974845E+0	1.974965E+0	1.987149E+0	1.883817E+0	1.877112E+0	1.868881E+0	1.920270E+0	1.759778E+0	1.926723E+0	1.915751E+0	2.045776E+0	1.842494E+0	2.114283E+0	2.089944E+0	1.983953E+0	1.817118E+0	2.044626E+0	2.012545E+0	2.101637E+0	1.825608E+0	2.008869E+0	1.952754E+0	2.037995E+0	1.721564E+0	2.003189E+0	1.885906E+0	1.898222E+0	1.882449E+0	2.113379E+0	2.005671E+0	1.995877E+0	1.726401E+0	2.075740E+0	1.994620E+0	1.865327E+0	1.769907E+0	2.006026E+0	1.998382E+0	1.797178E+0	1.666868E+0	1.916378E+0	1.898750E+0	1.803733E+0	1.695248E+0	2.160044E+0	2.033721E+0	1.917801E+0	1.552491E+0	1.979868E+0	1.947263E+0	1.849273E+0	2.017108E+0	1.983733E+0	1.920153E+0	1.875870E+0	1.963240E+0	1.920189E+0	1.907434E+0	1.801390E+0	1.849621E+0	2.018026E+0	2.092398E+0	1.789912E+0	1.859558E+0	1.981165E+0	1.898126E+0	1.708792E+0	1.855749E+0	1.940133E+0	1.807256E+0	1.802218E+0	1.677537E+0	1.906512E+0
5.402630E+2	1.886752E+0	1.853434E+0	1.886362E+0	1.882397E+0	1.881511E+0	1.773338E+0	1.910308E+0	1.813975E+0	1.679886E+0	1.840991E+0	1.922114E+0	1.814886E+0	1.706576E+0	1.971895E+0	2.015685E+0	2.005699E+0	1.753532E+0	1.741635E+0	1.850934E+0	1.904163E+0	1.815600E+0	1.795800E+0	1.803226E+0	1.710487E+0	1.766321E+0	1.733256E+0	1.865810E+0	1.817668E+0	1.786482E+0	1.938504E+0	1.974155E+0	1.895828E+0	1.752126E+0	1.771358E+0	2.047785E+0	2.006305E+0	1.802506E+0	1.976027E+0	1.936106E+0	1.809484E+0	1.763152E+0	1.846861E+0	1.931593E+0	1.846444E+0	1.847743E+0	1.883285E+0	1.977169E+0	1.983226E+0	1.680823E+0	1.980845E+0	1.898793E+0	1.832604E+0	1.800297E+0	1.869973E+0	1.819544E+0	1.826725E+0	1.650461E+0	1.919452E+0	1.768824E+0	1.812303E+0	1.768246E+0	1.892862E+0	1.878045E+0	1.902916E+0	1.641338E+0	1.903074E+0	1.917461E+0	1.945056E+0	1.822038E+0	1.954244E+0	1.876513E+0	1.765300E+0	1.857701E+0	1.842040E+0	1.886107E+0	1.714833E+0	1.873375E+0	1.958442E+0	1.995216E+0	1.964978E+0	1.674483E+0	1.939129E+0	1.888158E+0	1.865600E+0	1.801450E+0	1.919868E+0	1.750022E+0	1.771522E+0	1.751472E+0	1.976182E+0	1.542891E+0	1.823460E+0	1.787262E+0	1.744477E+0	1.934672E+0	1.996005E+0	1.677372E+0	1.803184E+0	1.762340E+0	1.870177E+0	1.780906E+0	1.787575E+0	1.747444E+0	1.749163E+0	1.705557E+0	1.797317E+0	1.806512E+0	1.825814E+0	1.750619E+0	1.980404E+0	1.915944E+0	1.926416E+0	1.690068E+0	1.916611E+0	1.891604E+0	1.882549E+0	1.758839E+0	1.903634E+0	1.793351E+0	1.884759E+0	1.663212E+0	1.977370E+0	1.756324E+0	1.927991E+0	1.719745E+0	1.945089E+0	1.930216E+0	1.980778E+0	1.631170E+0	1.960801E+0	2.022322E+0	1.865993E+0	1.639114E+0	1.918182E+0	1.819869E+0	1.809374E+0	1.567123E+0	1.845244E+0	1.807167E+0	1.774547E+0	1.569726E+0	1.895635E+0	1.921155E+0	1.959938E+0	1.481865E+0	1.985766E+0	1.870705E+0	1.883175E+0	1.817984E+0	1.916185E+0	1.909158E+0	1.703117E+0	1.857681E+0	1.849564E+0	1.783979E+0	1.693286E+0	1.813094E+0	1.934566E+0	1.874937E+0	1.718609E+0	1.746226E+0	1.814853E+0	1.825303E+0	1.581556E+0	1.754585E+0	1.711436E+0	1.672876E+0	1.697019E+0	1.679168E+0	1.770224E+0
5.405240E+2	1.796256E+0	1.688175E+0	1.817049E+0	1.792768E+0	1.741674E+0	1.655167E+0	1.718903E+0	1.727248E+0	1.574072E+0	1.749689E+0	1.815018E+0	1.723850E+0	1.616332E+0	1.828589E+0	1.862091E+0	1.817566E+0	1.633597E+0	1.653748E+0	1.770449E+0	1.765197E+0	1.687206E+0	1.683842E+0	1.739471E+0	1.787219E+0	1.573922E+0	1.605958E+0	1.758234E+0	1.712067E+0	1.688034E+0	1.799193E+0	1.826755E+0	1.795923E+0	1.651793E+0	1.697096E+0	1.892885E+0	1.849411E+0	1.671640E+0	1.815391E+0	1.819854E+0	1.711589E+0	1.693469E+0	1.813969E+0	1.800168E+0	1.708965E+0	1.653399E+0	1.834063E+0	1.885674E+0	1.923841E+0	1.550568E+0	1.858203E+0	1.777724E+0	1.740391E+0	1.705834E+0	1.751283E+0	1.681989E+0	1.642744E+0	1.500777E+0	1.786705E+0	1.667763E+0	1.649658E+0	1.553300E+0	1.804742E+0	1.738172E+0	1.803943E+0	1.580786E+0	1.754149E+0	1.785222E+0	1.802101E+0	1.776209E+0	1.758805E+0	1.747936E+0	1.618496E+0	1.682548E+0	1.742834E+0	1.722583E+0	1.647577E+0	1.767325E+0	1.825747E+0	1.810142E+0	1.874429E+0	1.593717E+0	1.780605E+0	1.703948E+0	1.781857E+0	1.650965E+0	1.818607E+0	1.658860E+0	1.740815E+0	1.644143E+0	1.849228E+0	1.436468E+0	1.724148E+0	1.636981E+0	1.587113E+0	1.877708E+0	1.830388E+0	1.557871E+0	1.790515E+0	1.701285E+0	1.833439E+0	1.678666E+0	1.639835E+0	1.638787E+0	1.752503E+0	1.620836E+0	1.620977E+0	1.674544E+0	1.853214E+0	1.659337E+0	1.863010E+0	1.840545E+0	1.816143E+0	1.567532E+0	1.767022E+0	1.726738E+0	1.753265E+0	1.611814E+0	1.766364E+0	1.735802E+0	1.755102E+0	1.582161E+0	1.842670E+0	1.675494E+0	1.768317E+0	1.680471E+0	1.897284E+0	1.772808E+0	1.869201E+0	1.585194E+0	1.796695E+0	1.736783E+0	1.770586E+0	1.593647E+0	1.739032E+0	1.773242E+0	1.645931E+0	1.506299E+0	1.698732E+0	1.693711E+0	1.726118E+0	1.511744E+0	1.902165E+0	1.846116E+0	1.850109E+0	1.425239E+0	1.831726E+0	1.804886E+0	1.806900E+0	1.787196E+0	1.720612E+0	1.740966E+0	1.661375E+0	1.744057E+0	1.657977E+0	1.648253E+0	1.776072E+0	1.755981E+0	1.825733E+0	1.832984E+0	1.848549E+0	1.604875E+0	1.769904E+0	1.785286E+0	1.639816E+0	1.632556E+0	1.668556E+0	1.644654E+0	1.646299E+0	1.618027E+0	1.743203E+0
5.407630E+2	1.741234E+0	1.689553E+0	1.824971E+0	1.769420E+0	1.777322E+0	1.681645E+0	1.806633E+0	1.721511E+0	1.595857E+0	1.712093E+0	1.765043E+0	1.665744E+0	1.570947E+0	1.796407E+0	1.867206E+0	1.866097E+0	1.559239E+0	1.615405E+0	1.715257E+0	1.757219E+0	1.664143E+0	1.682028E+0	1.690339E+0	1.672443E+0	1.687836E+0	1.639988E+0	1.742864E+0	1.691435E+0	1.687435E+0	1.738325E+0	1.944675E+0	1.894533E+0	1.658697E+0	1.693841E+0	1.890144E+0	1.822241E+0	1.669839E+0	1.801680E+0	1.792268E+0	1.648052E+0	1.651801E+0	1.648209E+0	1.798867E+0	1.757405E+0	1.689687E+0	1.738706E+0	1.882627E+0	1.827091E+0	1.581109E+0	1.802272E+0	1.820962E+0	1.693968E+0	1.614442E+0	1.774344E+0	1.680147E+0	1.658230E+0	1.593531E+0	1.741294E+0	1.641541E+0	1.701319E+0	1.540486E+0	1.757144E+0	1.708063E+0	1.778728E+0	1.561901E+0	1.706651E+0	1.834078E+0	1.753087E+0	1.732318E+0	1.779415E+0	1.752241E+0	1.594413E+0	1.720572E+0	1.705908E+0	1.772492E+0	1.605785E+0	1.687785E+0	1.848453E+0	1.827195E+0	1.870249E+0	1.584520E+0	1.825994E+0	1.640626E+0	1.750549E+0	1.611504E+0	1.806223E+0	1.671519E+0	1.709470E+0	1.635146E+0	1.807931E+0	1.500322E+0	1.647915E+0	1.693877E+0	1.672579E+0	1.832286E+0	1.847160E+0	1.605806E+0	1.753779E+0	1.725704E+0	1.825939E+0	1.655276E+0	1.648150E+0	1.622170E+0	1.738473E+0	1.589658E+0	1.669926E+0	1.612663E+0	1.761877E+0	1.652175E+0	1.799039E+0	1.779965E+0	1.740803E+0	1.592042E+0	1.849119E+0	1.763226E+0	1.857775E+0	1.613836E+0	1.789243E+0	1.737126E+0	1.770577E+0	1.541313E+0	1.759622E+0	1.644705E+0	1.791997E+0	1.653043E+0	1.879608E+0	1.722730E+0	1.789121E+0	1.559581E+0	1.787395E+0	1.817757E+0	1.727220E+0	1.571849E+0	1.770852E+0	1.697305E+0	1.647152E+0	1.463725E+0	1.687464E+0	1.660223E+0	1.712852E+0	1.574821E+0	1.826431E+0	1.844066E+0	1.805901E+0	1.351570E+0	1.789120E+0	1.793439E+0	1.782890E+0	1.785827E+0	1.744417E+0	1.722855E+0	1.694772E+0	1.755052E+0	1.788733E+0	1.674170E+0	1.691916E+0	1.710151E+0	1.817722E+0	1.842074E+0	1.811233E+0	1.568582E+0	1.795374E+0	1.755107E+0	1.646515E+0	1.656583E+0	1.624374E+0	1.580821E+0	1.679490E+0	1.638409E+0	1.660959E+0
5.410240E+2	1.694900E+0	1.664075E+0	1.807805E+0	1.732517E+0	1.682726E+0	1.606733E+0	1.665251E+0	1.678146E+0	1.577183E+0	1.714780E+0	1.709876E+0	1.654124E+0	1.585723E+0	1.778193E+0	1.849005E+0	1.824217E+0	1.610810E+0	1.562315E+0	1.639374E+0	1.731954E+0	1.599325E+0	1.545257E+0	1.647059E+0	1.690806E+0	1.593371E+0	1.590836E+0	1.685694E+0	1.597364E+0	1.615242E+0	1.732048E+0	1.807099E+0	1.773865E+0	1.612290E+0	1.703612E+0	1.807892E+0	1.816808E+0	1.579198E+0	1.708953E+0	1.769939E+0	1.681115E+0	1.597833E+0	1.706901E+0	1.760479E+0	1.759539E+0	1.594358E+0	1.824837E+0	1.871647E+0	1.822419E+0	1.548701E+0	1.752407E+0	1.727166E+0	1.685815E+0	1.661059E+0	1.795368E+0	1.715150E+0	1.616106E+0	1.553869E+0	1.689589E+0	1.615315E+0	1.639450E+0	1.623201E+0	1.723057E+0	1.716847E+0	1.772422E+0	1.586641E+0	1.665566E+0	1.761121E+0	1.733348E+0	1.725218E+0	1.732582E+0	1.631039E+0	1.584663E+0	1.573464E+0	1.742837E+0	1.759355E+0	1.641044E+0	1.675131E+0	1.839941E+0	1.794352E+0	1.792935E+0	1.574671E+0	1.777220E+0	1.721218E+0	1.690109E+0	1.578065E+0	1.741390E+0	1.625304E+0	1.646132E+0	1.598514E+0	1.771989E+0	1.444854E+0	1.671696E+0	1.646877E+0	1.585077E+0	1.924666E+0	1.780772E+0	1.589603E+0	1.613791E+0	1.730016E+0	1.715724E+0	1.599808E+0	1.643032E+0	1.629200E+0	1.664279E+0	1.588301E+0	1.655173E+0	1.581091E+0	1.743614E+0	1.625329E+0	1.772659E+0	1.768365E+0	1.740118E+0	1.508843E+0	1.792767E+0	1.768630E+0	1.786550E+0	1.596302E+0	1.724530E+0	1.669660E+0	1.733743E+0	1.521212E+0	1.714954E+0	1.588252E+0	1.691861E+0	1.593818E+0	1.770252E+0	1.698011E+0	1.805531E+0	1.514261E+0	1.772780E+0	1.682091E+0	1.753241E+0	1.572471E+0	1.700989E+0	1.702637E+0	1.654467E+0	1.416891E+0	1.719864E+0	1.608964E+0	1.597424E+0	1.555706E+0	1.742211E+0	1.775169E+0	1.799687E+0	1.337565E+0	1.733403E+0	1.775549E+0	1.724980E+0	1.649658E+0	1.648563E+0	1.671102E+0	1.640825E+0	1.725728E+0	1.734193E+0	1.630516E+0	1.689182E+0	1.786530E+0	1.801697E+0	1.819001E+0	1.795241E+0	1.590867E+0	1.739190E+0	1.646860E+0	1.637138E+0	1.616745E+0	1.681547E+0	1.539836E+0	1.591199E+0	1.560148E+0	1.660959E+0
5.412530E+2	1.630469E+0	1.600041E+0	1.693605E+0	1.716699E+0	1.646395E+0	1.507935E+0	1.623199E+0	1.580578E+0	1.471367E+0	1.597296E+0	1.636531E+0	1.569546E+0	1.434259E+0	1.682859E+0	1.804632E+0	1.662014E+0	1.484879E+0	1.470295E+0	1.574982E+0	1.705357E+0	1.542605E+0	1.475664E+0	1.541193E+0	1.648177E+0	1.478070E+0	1.487488E+0	1.705364E+0	1.541531E+0	1.622997E+0	1.644195E+0	1.749878E+0	1.695367E+0	1.565260E+0	1.649546E+0	1.727700E+0	1.699980E+0	1.594806E+0	1.683490E+0	1.723964E+0	1.603315E+0	1.521323E+0	1.599190E+0	1.612137E+0	1.599268E+0	1.586980E+0	1.666728E+0	1.789910E+0	1.745688E+0	1.472667E+0	1.655372E+0	1.661979E+0	1.613048E+0	1.567824E+0	1.643446E+0	1.583737E+0	1.448232E+0	1.447685E+0	1.668630E+0	1.542397E+0	1.532302E+0	1.489808E+0	1.667740E+0	1.670427E+0	1.715686E+0	1.507859E+0	1.597525E+0	1.651031E+0	1.680248E+0	1.554818E+0	1.618946E+0	1.587978E+0	1.555421E+0	1.549156E+0	1.626980E+0	1.557744E+0	1.539181E+0	1.635964E+0	1.651191E+0	1.686969E+0	1.698210E+0	1.507034E+0	1.670183E+0	1.599689E+0	1.612194E+0	1.555991E+0	1.610259E+0	1.531608E+0	1.554652E+0	1.518821E+0	1.693213E+0	1.361651E+0	1.587771E+0	1.607299E+0	1.514536E+0	1.779940E+0	1.709495E+0	1.522762E+0	1.532080E+0	1.572705E+0	1.587511E+0	1.559714E+0	1.553495E+0	1.530132E+0	1.547309E+0	1.485959E+0	1.549236E+0	1.545734E+0	1.648472E+0	1.555528E+0	1.722538E+0	1.684591E+0	1.667514E+0	1.464346E+0	1.705100E+0	1.664578E+0	1.676619E+0	1.499182E+0	1.633674E+0	1.563170E+0	1.661544E+0	1.434327E+0	1.711469E+0	1.550402E+0	1.593758E+0	1.565768E+0	1.728343E+0	1.676545E+0	1.715610E+0	1.482078E+0	1.626615E+0	1.636629E+0	1.575104E+0	1.447907E+0	1.694075E+0	1.578741E+0	1.536157E+0	1.373708E+0	1.628998E+0	1.494823E+0	1.551652E+0	1.449297E+0	1.741560E+0	1.702175E+0	1.724393E+0	1.327826E+0	1.681619E+0	1.661082E+0	1.633878E+0	1.665394E+0	1.635052E+0	1.550779E+0	1.601652E+0	1.597445E+0	1.628610E+0	1.532983E+0	1.578340E+0	1.684916E+0	1.692197E+0	1.742783E+0	1.731272E+0	1.476260E+0	1.676262E+0	1.598315E+0	1.555438E+0	1.569957E+0	1.581492E+0	1.543868E+0	1.432775E+0	1.451731E+0	1.613964E+0
5.415190E+2	1.571827E+0	1.509838E+0	1.571481E+0	1.584896E+0	1.625146E+0	1.456273E+0	1.516626E+0	1.457502E+0	1.398542E+0	1.452959E+0	1.513213E+0	1.472699E+0	1.394676E+0	1.509802E+0	1.577080E+0	1.604178E+0	1.390132E+0	1.378278E+0	1.498521E+0	1.568388E+0	1.462201E+0	1.415147E+0	1.400233E+0	1.494706E+0	1.419728E+0	1.367753E+0	1.536313E+0	1.430468E+0	1.426100E+0	1.507397E+0	1.603633E+0	1.590269E+0	1.402221E+0	1.435882E+0	1.602958E+0	1.534931E+0	1.417119E+0	1.554198E+0	1.584068E+0	1.485316E+0	1.463259E+0	1.490833E+0	1.469002E+0	1.495266E+0	1.455984E+0	1.547989E+0	1.586787E+0	1.620247E+0	1.333067E+0	1.621680E+0	1.461084E+0	1.532125E+0	1.386260E+0	1.568163E+0	1.461532E+0	1.430882E+0	1.335100E+0	1.528896E+0	1.452849E+0	1.437266E+0	1.331945E+0	1.472203E+0	1.482258E+0	1.541064E+0	1.312530E+0	1.465933E+0	1.516193E+0	1.528445E+0	1.491564E+0	1.540272E+0	1.496924E+0	1.363315E+0	1.402671E+0	1.572667E+0	1.480909E+0	1.375934E+0	1.503399E+0	1.520628E+0	1.549267E+0	1.597908E+0	1.407881E+0	1.488628E+0	1.490955E+0	1.535006E+0	1.396141E+0	1.456550E+0	1.438546E+0	1.426063E+0	1.392214E+0	1.592264E+0	1.255876E+0	1.428313E+0	1.476808E+0	1.439923E+0	1.527440E+0	1.544575E+0	1.378954E+0	1.489006E+0	1.428325E+0	1.458546E+0	1.505583E+0	1.454360E+0	1.445762E+0	1.449728E+0	1.362604E+0	1.465421E+0	1.386614E+0	1.509187E+0	1.385492E+0	1.624270E+0	1.620787E+0	1.544226E+0	1.379216E+0	1.577081E+0	1.440252E+0	1.572883E+0	1.395991E+0	1.547388E+0	1.467260E+0	1.553988E+0	1.370788E+0	1.584446E+0	1.455461E+0	1.531510E+0	1.375012E+0	1.661553E+0	1.504182E+0	1.573839E+0	1.409176E+0	1.562169E+0	1.527956E+0	1.528405E+0	1.371917E+0	1.508696E+0	1.500141E+0	1.437969E+0	1.270310E+0	1.502919E+0	1.457918E+0	1.488628E+0	1.330786E+0	1.564633E+0	1.519345E+0	1.560688E+0	1.162217E+0	1.515125E+0	1.595256E+0	1.452381E+0	1.557967E+0	1.505102E+0	1.431107E+0	1.500183E+0	1.498483E+0	1.456597E+0	1.372698E+0	1.540710E+0	1.487001E+0	1.581362E+0	1.606432E+0	1.547358E+0	1.368655E+0	1.506954E+0	1.466448E+0	1.432889E+0	1.464996E+0	1.525619E+0	1.427624E+0	1.432150E+0	1.350646E+0	1.455354E+0
5.417650E+2	1.387217E+0	1.292937E+0	1.351658E+0	1.367979E+0	1.485996E+0	1.229613E+0	1.367995E+0	1.290427E+0	1.313269E+0	1.334131E+0	1.348356E+0	1.311935E+0	1.273824E+0	1.310027E+0	1.429174E+0	1.379487E+0	1.301380E+0	1.228449E+0	1.327199E+0	1.396846E+0	1.391152E+0	1.238437E+0	1.255181E+0	1.305819E+0	1.342626E+0	1.273855E+0	1.358652E+0	1.323046E+0	1.238749E+0	1.298432E+0	1.482824E+0	1.440409E+0	1.274925E+0	1.319933E+0	1.457652E+0	1.435764E+0	1.394908E+0	1.422949E+0	1.410021E+0	1.300547E+0	1.353274E+0	1.310238E+0	1.413700E+0	1.384859E+0	1.269638E+0	1.372033E+0	1.391598E+0	1.413401E+0	1.280716E+0	1.351462E+0	1.324717E+0	1.333272E+0	1.362950E+0	1.390464E+0	1.303097E+0	1.262388E+0	1.261536E+0	1.315101E+0	1.243694E+0	1.256129E+0	1.270202E+0	1.402097E+0	1.390682E+0	1.338075E+0	1.199237E+0	1.326637E+0	1.359204E+0	1.386170E+0	1.283079E+0	1.387301E+0	1.325889E+0	1.267551E+0	1.253073E+0	1.372816E+0	1.351535E+0	1.215951E+0	1.335887E+0	1.448252E+0	1.414726E+0	1.400797E+0	1.190525E+0	1.385656E+0	1.318258E+0	1.326745E+0	1.235619E+0	1.390259E+0	1.320792E+0	1.298759E+0	1.273962E+0	1.426307E+0	1.115269E+0	1.274452E+0	1.293136E+0	1.220155E+0	1.390412E+0	1.487272E+0	1.274981E+0	1.345217E+0	1.306208E+0	1.396314E+0	1.293748E+0	1.295751E+0	1.278305E+0	1.267927E+0	1.250097E+0	1.228067E+0	1.283692E+0	1.373708E+0	1.220234E+0	1.382891E+0	1.377185E+0	1.362035E+0	1.211534E+0	1.423316E+0	1.365251E+0	1.401790E+0	1.248965E+0	1.376131E+0	1.313143E+0	1.346244E+0	1.213226E+0	1.399500E+0	1.223882E+0	1.396869E+0	1.233503E+0	1.415341E+0	1.340922E+0	1.419596E+0	1.195064E+0	1.378794E+0	1.384475E+0	1.386961E+0	1.228047E+0	1.353064E+0	1.338281E+0	1.320266E+0	1.120078E+0	1.359934E+0	1.263133E+0	1.269713E+0	1.200164E+0	1.407294E+0	1.423836E+0	1.456384E+0	1.095243E+0	1.328307E+0	1.452884E+0	1.347154E+0	1.336265E+0	1.332691E+0	1.336660E+0	1.333853E+0	1.346737E+0	1.293679E+0	1.291535E+0	1.327925E+0	1.315655E+0	1.424456E+0	1.454700E+0	1.394098E+0	1.248954E+0	1.346638E+0	1.366073E+0	1.343827E+0	1.300607E+0	1.363188E+0	1.265694E+0	1.335718E+0	1.220216E+0	1.301443E+0
5.420320E+2	1.168580E+0	1.114598E+0	1.122594E+0	1.185711E+0	1.172052E+0	1.037823E+0	1.151942E+0	1.069143E+0	1.105992E+0	1.119978E+0	1.107556E+0	1.049161E+0	1.069587E+0	1.137576E+0	1.203900E+0	1.163439E+0	1.051914E+0	1.043229E+0	1.085167E+0	1.169452E+0	1.146826E+0	1.098642E+0	1.107788E+0	1.118242E+0	1.155785E+0	1.034389E+0	1.078950E+0	1.012312E+0	1.040659E+0	1.147825E+0	1.251032E+0	1.167283E+0	1.066110E+0	1.119952E+0	1.154705E+0	1.215019E+0	1.153591E+0	1.145428E+0	1.243199E+0	1.107344E+0	1.152435E+0	1.177371E+0	1.139790E+0	1.115600E+0	1.066069E+0	1.152398E+0	1.226907E+0	1.181203E+0	1.092504E+0	1.141895E+0	1.129146E+0	1.098037E+0	1.189361E+0	1.130025E+0	1.135450E+0	1.023893E+0	1.118250E+0	1.173968E+0	1.051809E+0	1.047562E+0	1.029044E+0	1.135807E+0	1.137905E+0	1.163455E+0	1.080737E+0	1.094268E+0	1.141633E+0	1.119323E+0	1.228860E+0	1.088217E+0	1.140710E+0	1.085770E+0	1.166428E+0	1.080997E+0	1.126935E+0	1.056623E+0	1.152104E+0	1.226153E+0	1.162696E+0	1.133333E+0	1.094652E+0	1.193265E+0	1.130209E+0	1.120670E+0	1.178100E+0	1.194297E+0	1.060595E+0	1.063974E+0	1.148000E+0	1.215230E+0	9.475722E-1	1.121291E+0	1.102660E+0	1.064147E+0	1.150225E+0	1.200059E+0	1.097416E+0	1.146322E+0	1.116573E+0	1.151136E+0	1.079905E+0	1.043124E+0	1.071220E+0	1.131577E+0	1.031177E+0	1.114082E+0	1.073426E+0	1.142329E+0	1.117618E+0	1.214718E+0	1.165807E+0	1.179158E+0	1.041275E+0	1.203458E+0	1.137548E+0	1.204380E+0	1.046632E+0	1.197032E+0	1.112067E+0	1.117870E+0	9.914782E-1	1.134297E+0	1.043622E+0	1.153974E+0	1.005344E+0	1.146866E+0	1.126278E+0	1.186590E+0	1.039407E+0	1.160212E+0	1.154338E+0	1.137438E+0	1.013168E+0	1.117884E+0	1.125797E+0	1.081808E+0	9.996521E-1	1.113403E+0	1.056044E+0	1.084628E+0	1.024303E+0	1.227101E+0	1.205536E+0	1.178014E+0	9.028443E-1	1.151979E+0	1.154538E+0	1.141646E+0	1.137830E+0	1.139049E+0	1.057204E+0	1.073119E+0	1.186930E+0	1.104185E+0	1.064406E+0	1.135664E+0	1.110437E+0	1.140690E+0	1.151933E+0	1.246834E+0	1.097417E+0	1.154859E+0	1.094469E+0	1.103415E+0	1.094480E+0	1.062372E+0	1.045978E+0	1.080865E+0	1.058810E+0	1.163981E+0
5.422670E+2	1.115006E+0	1.027149E+0	1.079027E+0	1.011728E+0	1.105562E+0	9.441886E-1	1.085241E+0	1.006013E+0	1.015739E+0	1.003165E+0	1.008252E+0	1.036893E+0	9.555934E-1	1.058640E+0	1.058837E+0	1.100285E+0	9.523688E-1	9.400020E-1	1.048375E+0	1.071048E+0	1.015938E+0	9.534020E-1	9.849591E-1	1.023142E+0	1.020342E+0	9.593986E-1	9.756740E-1	1.018381E+0	1.017985E+0	1.050561E+0	1.084558E+0	1.097221E+0	1.000269E+0	9.929276E-1	1.090962E+0	1.055405E+0	1.037734E+0	1.008957E+0	1.076374E+0	1.039271E+0	1.046550E+0	1.022575E+0	1.051956E+0	1.055052E+0	9.941137E-1	1.053348E+0	1.111623E+0	1.087123E+0	1.037037E+0	1.070466E+0	1.024042E+0	9.995521E-1	1.073431E+0	1.034396E+0	1.029828E+0	9.594682E-1	9.704836E-1	1.037728E+0	9.622625E-1	9.684736E-1	9.702082E-1	1.036755E+0	1.078943E+0	1.080871E+0	9.785132E-1	9.684550E-1	1.041969E+0	1.053292E+0	1.079760E+0	1.048256E+0	1.028740E+0	9.372479E-1	1.069813E+0	1.023792E+0	1.065860E+0	9.358210E-1	1.046654E+0	1.104106E+0	1.073001E+0	1.053234E+0	9.948405E-1	1.033388E+0	1.004843E+0	1.020181E+0	1.107206E+0	1.052243E+0	9.795604E-1	9.801683E-1	1.065093E+0	1.073747E+0	8.663040E-1	9.765208E-1	1.014224E+0	9.807175E-1	1.082481E+0	1.056804E+0	1.083912E+0	1.010768E+0	1.018881E+0	1.079156E+0	1.050501E+0	9.753310E-1	9.702340E-1	9.811897E-1	1.023044E+0	9.866860E-1	1.013440E+0	1.058606E+0	1.003665E+0	1.089410E+0	1.069140E+0	1.074364E+0	9.613046E-1	1.087267E+0	1.038225E+0	1.052643E+0	1.066191E+0	9.957044E-1	1.015497E+0	1.087666E+0	1.005095E+0	1.086141E+0	9.878116E-1	1.024067E+0	9.698107E-1	1.083349E+0	9.968408E-1	1.149835E+0	9.599363E-1	1.063212E+0	1.071233E+0	1.053374E+0	1.028739E+0	1.048716E+0	1.002570E+0	9.775224E-1	9.357889E-1	1.015496E+0	9.637769E-1	9.864481E-1	9.102500E-1	1.108283E+0	1.074554E+0	1.129663E+0	8.163864E-1	1.046446E+0	1.065107E+0	9.933418E-1	1.074194E+0	9.968749E-1	9.892801E-1	9.973394E-1	1.097497E+0	1.041954E+0	1.064407E+0	1.006353E+0	1.081879E+0	1.132010E+0	1.035861E+0	1.051594E+0	9.528835E-1	1.082191E+0	1.053796E+0	9.922508E-1	1.036944E+0	9.740116E-1	9.834902E-1	9.819302E-1	9.226745E-1	1.124035E+0
5.425460E+2	1.015824E+0	9.431442E-1	9.582234E-1	9.318916E-1	1.052096E+0	8.809039E-1	9.344381E-1	9.447937E-1	8.875160E-1	9.219331E-1	9.757998E-1	9.594171E-1	9.022917E-1	9.863808E-1	1.066233E+0	9.281104E-1	9.307804E-1	8.550603E-1	9.897331E-1	9.513676E-1	9.841509E-1	9.195121E-1	8.709053E-1	9.109903E-1	9.703316E-1	9.234787E-1	9.461664E-1	9.564765E-1	9.183430E-1	9.652178E-1	1.015194E+0	1.044022E+0	8.961750E-1	9.766421E-1	9.936356E-1	1.001067E+0	9.668988E-1	9.861010E-1	9.666916E-1	9.452625E-1	9.884844E-1	9.871011E-1	1.005762E+0	9.311080E-1	9.541381E-1	1.000440E+0	1.087835E+0	1.009722E+0	9.466700E-1	1.009145E+0	1.029364E+0	9.537595E-1	1.031108E+0	9.441912E-1	9.315735E-1	9.030975E-1	9.461760E-1	9.399143E-1	8.823097E-1	8.970389E-1	8.822501E-1	9.711482E-1	9.911291E-1	9.686598E-1	8.951725E-1	9.267310E-1	9.514238E-1	9.008070E-1	1.007469E+0	9.589684E-1	9.469149E-1	8.930937E-1	1.004363E+0	9.448637E-1	9.666949E-1	8.750933E-1	9.225273E-1	1.017537E+0	1.044576E+0	9.508457E-1	9.580677E-1	9.710641E-1	9.498360E-1	9.277020E-1	1.000860E+0	9.895933E-1	9.124536E-1	9.373057E-1	9.995405E-1	1.050038E+0	8.018059E-1	9.478471E-1	1.011132E+0	9.094965E-1	1.000879E+0	9.575723E-1	9.610339E-1	9.626272E-1	8.903029E-1	9.951800E-1	9.983770E-1	9.056189E-1	9.485023E-1	9.230398E-1	9.532338E-1	9.256706E-1	9.635576E-1	9.627052E-1	9.201400E-1	1.033352E+0	9.795616E-1	1.031213E+0	9.135802E-1	1.012822E+0	9.584945E-1	9.938070E-1	1.013585E+0	9.617145E-1	9.162809E-1	9.462217E-1	9.597073E-1	9.814557E-1	9.589445E-1	1.003093E+0	8.607182E-1	1.030309E+0	9.994422E-1	9.837788E-1	9.448301E-1	9.934510E-1	1.004464E+0	9.873235E-1	9.963519E-1	9.712449E-1	9.745934E-1	9.476388E-1	8.536799E-1	9.563297E-1	9.651440E-1	9.366946E-1	8.490803E-1	1.029285E+0	1.025436E+0	1.049536E+0	7.944677E-1	9.572994E-1	1.016455E+0	9.276639E-1	1.011241E+0	9.466961E-1	9.200627E-1	9.543114E-1	9.472190E-1	9.762259E-1	9.116248E-1	9.228810E-1	1.009488E+0	1.017169E+0	9.841174E-1	1.001618E+0	9.719848E-1	9.698207E-1	9.796627E-1	9.467141E-1	9.629660E-1	9.740115E-1	9.337686E-1	9.105463E-1	8.868055E-1	9.630753E-1
5.427550E+2	9.926571E-1	9.176669E-1	9.694461E-1	9.281259E-1	1.017136E+0	9.119007E-1	9.518381E-1	8.708209E-1	9.348208E-1	8.635273E-1	9.582755E-1	8.541781E-1	8.801273E-1	9.924528E-1	1.004796E+0	1.021178E+0	8.690140E-1	8.998909E-1	9.138470E-1	9.739741E-1	9.635828E-1	8.898594E-1	9.106782E-1	9.004965E-1	9.217108E-1	8.528985E-1	8.865370E-1	8.915377E-1	9.004433E-1	9.451372E-1	9.978524E-1	9.544950E-1	8.955480E-1	9.564490E-1	1.045726E+0	9.575976E-1	9.674990E-1	9.475743E-1	1.013980E+0	9.186813E-1	9.878013E-1	9.806505E-1	9.953525E-1	9.303960E-1	8.871025E-1	9.241520E-1	1.007320E+0	9.790294E-1	9.366987E-1	9.882559E-1	9.694951E-1	8.985576E-1	9.507533E-1	9.563996E-1	8.934997E-1	8.950440E-1	9.564108E-1	9.028845E-1	8.496890E-1	8.562189E-1	8.327369E-1	9.473492E-1	9.785843E-1	9.900930E-1	8.658729E-1	9.042643E-1	9.696635E-1	1.010406E+0	9.597050E-1	9.839446E-1	8.927753E-1	8.695826E-1	9.719499E-1	9.600696E-1	9.680082E-1	8.679108E-1	9.297582E-1	1.033148E+0	1.021837E+0	9.522386E-1	8.674485E-1	9.548048E-1	9.344845E-1	9.917815E-1	9.868145E-1	1.003434E+0	9.187845E-1	8.893259E-1	9.924716E-1	1.002622E+0	7.592370E-1	9.485460E-1	9.103277E-1	8.749033E-1	9.670072E-1	1.016971E+0	9.556328E-1	9.290562E-1	8.996409E-1	9.359468E-1	9.582814E-1	8.678847E-1	8.903395E-1	9.130145E-1	9.044343E-1	9.095795E-1	8.959949E-1	9.444385E-1	9.105942E-1	9.990576E-1	9.950286E-1	9.681995E-1	9.271237E-1	9.919487E-1	1.005791E+0	9.876138E-1	9.454666E-1	9.362219E-1	9.526601E-1	9.690592E-1	9.467395E-1	1.022632E+0	9.082664E-1	9.746764E-1	8.925107E-1	1.008045E+0	9.539122E-1	9.772148E-1	9.113345E-1	9.276767E-1	9.845761E-1	9.439572E-1	1.010055E+0	9.705531E-1	9.213053E-1	9.214150E-1	9.090276E-1	9.661904E-1	9.282364E-1	8.610691E-1	8.962314E-1	1.019493E+0	9.483479E-1	1.019834E+0	7.335825E-1	9.238691E-1	9.463412E-1	9.580308E-1	1.019453E+0	9.171036E-1	9.549950E-1	9.119269E-1	9.934024E-1	9.251824E-1	9.279941E-1	9.529860E-1	9.629982E-1	9.958026E-1	9.687344E-1	1.000952E+0	9.796250E-1	9.623288E-1	9.225870E-1	8.891227E-1	9.749798E-1	9.350289E-1	8.860631E-1	9.086679E-1	9.300103E-1	9.008055E-1
5.430120E+2	1.075189E+0	1.001672E+0	1.104772E+0	1.059178E+0	1.148061E+0	9.732474E-1	1.053340E+0	9.932587E-1	1.008270E+0	1.033375E+0	9.913771E-1	9.632908E-1	9.809258E-1	1.113289E+0	1.118000E+0	1.096298E+0	1.017134E+0	9.936802E-1	1.036877E+0	1.168122E+0	1.103196E+0	9.600585E-1	9.867139E-1	1.032981E+0	1.018952E+0	9.972094E-1	1.010714E+0	9.558700E-1	9.613040E-1	1.036127E+0	1.101898E+0	1.086192E+0	1.010302E+0	1.046994E+0	1.135513E+0	1.157965E+0	1.061746E+0	1.027239E+0	1.107243E+0	1.039269E+0	1.064312E+0	1.005160E+0	1.065619E+0	1.063601E+0	1.003954E+0	1.078574E+0	1.131753E+0	1.167190E+0	1.013354E+0	1.108202E+0	1.042003E+0	1.004570E+0	1.101647E+0	1.048639E+0	1.023687E+0	9.904428E-1	1.024856E+0	1.030742E+0	1.001919E+0	9.544420E-1	9.871012E-1	1.110722E+0	1.015592E+0	1.074567E+0	9.700496E-1	1.036497E+0	1.051090E+0	1.048527E+0	1.059751E+0	1.050753E+0	1.046581E+0	9.728021E-1	1.101602E+0	1.070859E+0	1.076367E+0	9.645518E-1	1.094860E+0	1.175063E+0	1.039523E+0	1.088756E+0	1.030300E+0	1.069292E+0	9.779790E-1	1.049308E+0	1.179439E+0	1.050786E+0	9.903229E-1	9.961619E-1	1.051598E+0	1.122692E+0	8.933931E-1	1.013588E+0	1.014843E+0	9.800385E-1	1.037062E+0	1.078467E+0	1.036651E+0	1.002534E+0	1.019599E+0	1.021423E+0	1.085919E+0	9.663777E-1	9.708733E-1	1.013941E+0	1.018977E+0	1.013506E+0	1.002706E+0	1.093617E+0	1.003068E+0	1.099962E+0	1.082029E+0	1.064775E+0	1.050949E+0	1.086572E+0	1.049711E+0	1.059611E+0	1.090471E+0	1.004856E+0	1.002268E+0	1.069986E+0	1.015468E+0	1.044965E+0	9.685668E-1	1.076841E+0	9.729277E-1	1.116089E+0	1.111968E+0	1.103891E+0	1.047945E+0	1.087129E+0	1.092542E+0	1.036695E+0	1.139603E+0	1.044565E+0	1.040537E+0	1.003747E+0	9.996529E-1	1.019722E+0	9.904318E-1	1.017627E+0	9.726924E-1	1.101100E+0	1.107981E+0	1.099960E+0	8.200397E-1	1.053657E+0	1.084423E+0	1.061138E+0	1.065298E+0	1.028398E+0	1.071435E+0	1.002477E+0	1.065242E+0	1.022376E+0	1.000292E+0	1.134297E+0	1.040702E+0	1.120660E+0	1.137949E+0	1.092241E+0	1.061761E+0	1.046233E+0	1.068884E+0	1.031092E+0	1.141269E+0	1.014294E+0	9.868493E-1	1.029520E+0	1.040876E+0	1.072340E+0
5.432960E+2	1.308306E+0	1.239917E+0	1.269144E+0	1.303961E+0	1.371522E+0	1.294834E+0	1.233869E+0	1.235582E+0	1.201228E+0	1.331446E+0	1.251647E+0	1.228001E+0	1.175665E+0	1.300920E+0	1.267616E+0	1.320324E+0	1.158658E+0	1.194236E+0	1.190947E+0	1.279160E+0	1.272103E+0	1.193655E+0	1.148728E+0	1.204815E+0	1.289143E+0	1.159165E+0	1.260911E+0	1.153112E+0	1.125385E+0	1.301570E+0	1.324442E+0	1.286656E+0	1.226641E+0	1.230039E+0	1.294526E+0	1.337958E+0	1.287453E+0	1.298229E+0	1.377183E+0	1.213022E+0	1.241241E+0	1.218003E+0	1.259504E+0	1.299378E+0	1.233352E+0	1.300668E+0	1.279366E+0	1.363358E+0	1.225873E+0	1.266557E+0	1.216289E+0	1.222243E+0	1.301001E+0	1.287377E+0	1.231861E+0	1.173806E+0	1.178378E+0	1.233357E+0	1.179094E+0	1.123464E+0	1.158357E+0	1.295324E+0	1.191218E+0	1.295837E+0	1.192075E+0	1.243834E+0	1.292107E+0	1.303121E+0	1.270171E+0	1.250558E+0	1.218843E+0	1.167198E+0	1.243722E+0	1.242474E+0	1.221504E+0	1.143471E+0	1.254540E+0	1.323366E+0	1.246705E+0	1.200896E+0	1.181988E+0	1.275912E+0	1.208243E+0	1.256113E+0	1.297154E+0	1.220521E+0	1.230260E+0	1.198319E+0	1.299672E+0	1.293237E+0	1.039159E+0	1.148567E+0	1.247991E+0	1.120446E+0	1.314967E+0	1.355895E+0	1.224343E+0	1.239434E+0	1.192715E+0	1.287598E+0	1.264343E+0	1.193422E+0	1.238679E+0	1.209111E+0	1.191810E+0	1.212644E+0	1.193397E+0	1.226052E+0	1.181455E+0	1.369040E+0	1.256032E+0	1.293542E+0	1.216049E+0	1.259120E+0	1.265250E+0	1.260893E+0	1.279313E+0	1.270894E+0	1.236416E+0	1.232792E+0	1.215171E+0	1.268993E+0	1.211694E+0	1.259520E+0	1.211685E+0	1.264733E+0	1.264821E+0	1.256820E+0	1.192439E+0	1.256550E+0	1.242414E+0	1.225504E+0	1.346382E+0	1.305337E+0	1.203731E+0	1.158652E+0	1.231384E+0	1.242302E+0	1.198203E+0	1.164235E+0	1.101402E+0	1.318504E+0	1.383588E+0	1.311330E+0	9.978251E-1	1.275866E+0	1.283322E+0	1.245460E+0	1.303423E+0	1.289589E+0	1.149062E+0	1.178440E+0	1.252907E+0	1.237739E+0	1.237650E+0	1.273874E+0	1.229982E+0	1.299600E+0	1.333032E+0	1.314803E+0	1.229852E+0	1.272475E+0	1.253889E+0	1.167703E+0	1.268358E+0	1.182568E+0	1.078902E+0	1.173540E+0	1.203097E+0	1.246223E+0
5.435270E+2	1.467575E+0	1.456817E+0	1.442097E+0	1.386056E+0	1.539464E+0	1.492435E+0	1.354220E+0	1.309556E+0	1.364306E+0	1.478473E+0	1.424941E+0	1.288693E+0	1.328179E+0	1.410219E+0	1.481513E+0	1.478538E+0	1.304976E+0	1.426056E+0	1.396191E+0	1.415463E+0	1.400499E+0	1.462350E+0	1.331798E+0	1.309099E+0	1.435702E+0	1.419429E+0	1.316853E+0	1.282382E+0	1.269773E+0	1.422054E+0	1.453921E+0	1.496199E+0	1.286839E+0	1.349246E+0	1.478898E+0	1.440522E+0	1.479548E+0	1.479758E+0	1.425126E+0	1.387423E+0	1.341660E+0	1.454068E+0	1.401340E+0	1.352806E+0	1.337904E+0	1.328351E+0	1.477604E+0	1.480794E+0	1.381680E+0	1.403350E+0	1.394563E+0	1.344566E+0	1.429197E+0	1.390466E+0	1.336870E+0	1.315046E+0	1.334459E+0	1.370298E+0	1.362663E+0	1.307789E+0	1.269034E+0	1.371221E+0	1.369355E+0	1.449027E+0	1.263696E+0	1.350390E+0	1.368321E+0	1.379362E+0	1.441860E+0	1.389795E+0	1.402179E+0	1.280167E+0	1.426981E+0	1.347471E+0	1.339056E+0	1.300839E+0	1.329257E+0	1.457476E+0	1.489893E+0	1.432836E+0	1.327767E+0	1.418177E+0	1.298428E+0	1.443982E+0	1.471048E+0	1.407014E+0	1.291670E+0	1.327547E+0	1.349154E+0	1.385776E+0	1.105594E+0	1.330403E+0	1.303649E+0	1.281202E+0	1.458157E+0	1.447439E+0	1.368827E+0	1.330647E+0	1.279631E+0	1.351329E+0	1.417375E+0	1.313659E+0	1.252100E+0	1.318058E+0	1.340917E+0	1.262931E+0	1.279270E+0	1.335653E+0	1.312708E+0	1.458075E+0	1.421656E+0	1.448336E+0	1.306985E+0	1.451843E+0	1.381467E+0	1.439727E+0	1.413527E+0	1.336912E+0	1.346875E+0	1.407388E+0	1.342905E+0	1.426717E+0	1.304711E+0	1.379278E+0	1.250955E+0	1.488027E+0	1.387755E+0	1.427473E+0	1.354662E+0	1.424642E+0	1.417149E+0	1.366280E+0	1.411158E+0	1.370355E+0	1.317633E+0	1.272087E+0	1.294030E+0	1.404308E+0	1.405291E+0	1.259098E+0	1.207811E+0	1.474536E+0	1.453853E+0	1.386620E+0	1.111071E+0	1.398446E+0	1.405663E+0	1.406477E+0	1.412904E+0	1.431119E+0	1.288145E+0	1.295321E+0	1.457428E+0	1.407654E+0	1.305856E+0	1.321082E+0	1.386717E+0	1.423120E+0	1.460292E+0	1.420751E+0	1.338732E+0	1.370613E+0	1.350985E+0	1.339806E+0	1.411888E+0	1.304065E+0	1.308023E+0	1.288129E+0	1.296029E+0	1.354313E+0
5.437640E+2	1.573273E+0	1.656505E+0	1.608451E+0	1.590166E+0	1.699179E+0	1.622233E+0	1.483999E+0	1.479822E+0	1.490040E+0	1.627505E+0	1.583309E+0	1.549531E+0	1.462757E+0	1.583276E+0	1.623730E+0	1.624122E+0	1.487278E+0	1.603606E+0	1.533016E+0	1.547778E+0	1.551956E+0	1.672344E+0	1.463401E+0	1.473715E+0	1.575311E+0	1.605331E+0	1.528323E+0	1.505114E+0	1.478605E+0	1.529986E+0	1.587449E+0	1.602596E+0	1.555854E+0	1.573980E+0	1.593359E+0	1.596060E+0	1.505361E+0	1.654106E+0	1.623475E+0	1.492450E+0	1.594417E+0	1.635307E+0	1.585462E+0	1.499544E+0	1.465825E+0	1.623045E+0	1.638024E+0	1.637594E+0	1.525019E+0	1.554970E+0	1.550222E+0	1.512679E+0	1.648181E+0	1.599361E+0	1.521714E+0	1.465575E+0	1.535320E+0	1.633697E+0	1.528326E+0	1.405374E+0	1.437382E+0	1.535237E+0	1.503587E+0	1.614193E+0	1.460328E+0	1.524345E+0	1.645172E+0	1.528446E+0	1.534809E+0	1.650790E+0	1.506154E+0	1.412059E+0	1.582192E+0	1.634941E+0	1.558403E+0	1.369404E+0	1.532928E+0	1.597975E+0	1.655384E+0	1.606271E+0	1.453189E+0	1.627507E+0	1.471126E+0	1.529909E+0	1.639596E+0	1.626291E+0	1.473364E+0	1.538021E+0	1.571521E+0	1.633563E+0	1.261031E+0	1.449294E+0	1.475573E+0	1.380912E+0	1.571319E+0	1.594888E+0	1.465373E+0	1.554882E+0	1.492254E+0	1.571762E+0	1.580430E+0	1.611694E+0	1.367787E+0	1.457082E+0	1.507651E+0	1.570689E+0	1.492063E+0	1.611176E+0	1.443960E+0	1.671753E+0	1.631096E+0	1.572995E+0	1.467568E+0	1.620912E+0	1.554439E+0	1.590691E+0	1.573369E+0	1.576808E+0	1.495041E+0	1.595243E+0	1.517322E+0	1.603289E+0	1.444556E+0	1.615407E+0	1.457297E+0	1.694294E+0	1.528898E+0	1.615191E+0	1.471571E+0	1.563495E+0	1.665042E+0	1.577105E+0	1.627904E+0	1.592388E+0	1.496810E+0	1.456266E+0	1.493527E+0	1.499396E+0	1.463386E+0	1.445510E+0	1.425724E+0	1.603156E+0	1.585518E+0	1.603513E+0	1.243803E+0	1.608203E+0	1.561632E+0	1.517350E+0	1.582600E+0	1.517323E+0	1.517143E+0	1.480916E+0	1.495550E+0	1.501349E+0	1.475690E+0	1.605024E+0	1.542126E+0	1.594048E+0	1.579163E+0	1.634649E+0	1.446332E+0	1.524934E+0	1.424461E+0	1.473070E+0	1.597776E+0	1.467142E+0	1.430314E+0	1.402720E+0	1.528357E+0	1.552870E+0
5.440170E+2	1.635538E+0	1.666145E+0	1.663239E+0	1.603723E+0	1.717683E+0	1.688745E+0	1.518074E+0	1.516169E+0	1.553530E+0	1.716792E+0	1.552805E+0	1.521768E+0	1.482284E+0	1.666464E+0	1.694273E+0	1.629442E+0	1.524457E+0	1.651387E+0	1.560609E+0	1.642191E+0	1.619266E+0	1.613034E+0	1.460478E+0	1.513070E+0	1.552390E+0	1.604701E+0	1.502505E+0	1.488730E+0	1.528727E+0	1.639805E+0	1.611145E+0	1.652549E+0	1.491893E+0	1.594173E+0	1.670125E+0	1.670094E+0	1.586401E+0	1.643655E+0	1.609027E+0	1.498286E+0	1.649067E+0	1.608864E+0	1.590016E+0	1.581460E+0	1.538396E+0	1.565828E+0	1.675843E+0	1.719668E+0	1.584848E+0	1.630440E+0	1.547564E+0	1.528364E+0	1.713196E+0	1.694989E+0	1.541978E+0	1.507080E+0	1.541716E+0	1.683299E+0	1.473319E+0	1.434077E+0	1.458934E+0	1.609208E+0	1.544355E+0	1.681015E+0	1.466188E+0	1.553234E+0	1.571561E+0	1.525042E+0	1.667129E+0	1.711354E+0	1.552909E+0	1.433275E+0	1.567854E+0	1.676218E+0	1.530163E+0	1.552241E+0	1.598609E+0	1.599390E+0	1.611173E+0	1.673135E+0	1.521484E+0	1.674928E+0	1.542124E+0	1.556121E+0	1.703136E+0	1.664169E+0	1.530974E+0	1.470205E+0	1.609441E+0	1.631268E+0	1.455818E+0	1.503146E+0	1.602968E+0	1.410754E+0	1.681405E+0	1.622840E+0	1.505207E+0	1.619491E+0	1.448435E+0	1.613002E+0	1.617852E+0	1.668616E+0	1.431065E+0	1.532609E+0	1.588981E+0	1.759101E+0	1.525529E+0	1.574645E+0	1.497062E+0	1.691537E+0	1.660744E+0	1.565458E+0	1.493366E+0	1.701623E+0	1.628762E+0	1.641783E+0	1.654301E+0	1.625829E+0	1.559863E+0	1.509049E+0	1.560763E+0	1.672382E+0	1.467651E+0	1.609318E+0	1.478494E+0	1.670068E+0	1.536053E+0	1.608626E+0	1.518204E+0	1.641894E+0	1.622422E+0	1.572435E+0	1.684579E+0	1.682314E+0	1.518128E+0	1.483710E+0	1.450950E+0	1.581807E+0	1.539933E+0	1.501895E+0	1.425723E+0	1.705653E+0	1.635316E+0	1.627688E+0	1.299817E+0	1.602958E+0	1.478637E+0	1.568908E+0	1.573019E+0	1.649206E+0	1.477034E+0	1.477706E+0	1.599646E+0	1.612526E+0	1.537759E+0	1.551655E+0	1.592599E+0	1.625428E+0	1.642791E+0	1.691956E+0	1.533564E+0	1.606593E+0	1.585849E+0	1.530661E+0	1.666695E+0	1.576293E+0	1.480037E+0	1.506036E+0	1.523464E+0	1.602215E+0
5.442700E+2	1.613094E+0	1.643423E+0	1.625611E+0	1.543469E+0	1.673812E+0	1.639025E+0	1.504298E+0	1.475997E+0	1.481326E+0	1.650331E+0	1.519055E+0	1.478508E+0	1.381484E+0	1.582668E+0	1.571395E+0	1.612155E+0	1.436308E+0	1.575883E+0	1.537041E+0	1.608948E+0	1.567537E+0	1.631190E+0	1.442931E+0	1.476999E+0	1.546835E+0	1.508283E+0	1.513568E+0	1.438964E+0	1.489942E+0	1.547560E+0	1.623863E+0	1.629845E+0	1.473081E+0	1.564209E+0	1.581709E+0	1.618475E+0	1.567190E+0	1.631904E+0	1.586695E+0	1.498284E+0	1.474187E+0	1.617249E+0	1.533414E+0	1.565787E+0	1.480584E+0	1.598437E+0	1.659376E+0	1.560863E+0	1.505697E+0	1.598768E+0	1.532260E+0	1.537772E+0	1.673939E+0	1.625136E+0	1.489781E+0	1.457520E+0	1.461116E+0	1.616229E+0	1.427907E+0	1.448108E+0	1.390197E+0	1.494073E+0	1.560036E+0	1.590237E+0	1.451864E+0	1.520496E+0	1.559183E+0	1.524361E+0	1.603228E+0	1.600213E+0	1.486464E+0	1.426392E+0	1.613980E+0	1.593670E+0	1.589267E+0	1.433395E+0	1.484120E+0	1.649771E+0	1.581483E+0	1.505970E+0	1.439400E+0	1.531306E+0	1.466647E+0	1.575054E+0	1.631569E+0	1.596421E+0	1.444243E+0	1.467006E+0	1.584374E+0	1.580794E+0	1.464847E+0	1.463981E+0	1.497217E+0	1.423644E+0	1.602881E+0	1.574623E+0	1.497782E+0	1.597955E+0	1.526013E+0	1.503534E+0	1.599811E+0	1.608495E+0	1.409332E+0	1.519238E+0	1.514428E+0	1.667913E+0	1.454178E+0	1.557898E+0	1.445750E+0	1.619652E+0	1.526698E+0	1.547655E+0	1.454673E+0	1.585431E+0	1.503768E+0	1.538821E+0	1.605065E+0	1.617985E+0	1.466595E+0	1.513470E+0	1.483606E+0	1.582350E+0	1.447123E+0	1.578197E+0	1.436103E+0	1.552854E+0	1.491823E+0	1.595501E+0	1.472229E+0	1.597384E+0	1.554236E+0	1.527067E+0	1.594268E+0	1.616603E+0	1.502141E+0	1.490417E+0	1.415068E+0	1.560675E+0	1.468173E+0	1.440201E+0	1.332059E+0	1.646894E+0	1.582787E+0	1.633906E+0	1.244411E+0	1.621312E+0	1.541599E+0	1.530064E+0	1.534700E+0	1.564285E+0	1.468625E+0	1.389082E+0	1.593044E+0	1.614625E+0	1.446359E+0	1.512657E+0	1.469070E+0	1.623426E+0	1.535111E+0	1.582675E+0	1.464800E+0	1.596855E+0	1.555673E+0	1.461017E+0	1.591455E+0	1.593838E+0	1.321464E+0	1.430271E+0	1.481892E+0	1.638637E+0
5.445340E+2	1.625401E+0	1.748771E+0	1.643439E+0	1.586399E+0	1.720429E+0	1.669375E+0	1.586225E+0	1.467066E+0	1.506847E+0	1.658390E+0	1.611217E+0	1.498525E+0	1.484922E+0	1.591774E+0	1.664119E+0	1.644064E+0	1.467489E+0	1.595349E+0	1.603729E+0	1.548444E+0	1.571900E+0	1.646926E+0	1.488552E+0	1.532746E+0	1.591286E+0	1.594618E+0	1.532623E+0	1.458385E+0	1.506649E+0	1.593993E+0	1.646409E+0	1.609083E+0	1.491268E+0	1.605247E+0	1.674240E+0	1.651078E+0	1.592403E+0	1.663248E+0	1.591951E+0	1.515145E+0	1.590319E+0	1.623053E+0	1.582862E+0	1.523762E+0	1.534703E+0	1.624274E+0	1.724029E+0	1.628919E+0	1.526887E+0	1.625048E+0	1.621399E+0	1.527735E+0	1.668419E+0	1.677359E+0	1.494081E+0	1.440795E+0	1.528285E+0	1.624612E+0	1.441337E+0	1.449386E+0	1.417574E+0	1.570617E+0	1.534320E+0	1.603476E+0	1.524138E+0	1.582760E+0	1.593709E+0	1.586308E+0	1.636793E+0	1.678887E+0	1.455087E+0	1.462522E+0	1.567230E+0	1.642183E+0	1.584013E+0	1.422947E+0	1.478693E+0	1.644805E+0	1.568849E+0	1.631344E+0	1.490617E+0	1.549597E+0	1.517180E+0	1.572141E+0	1.622874E+0	1.617546E+0	1.445511E+0	1.504752E+0	1.610726E+0	1.621326E+0	1.504190E+0	1.487063E+0	1.552876E+0	1.455523E+0	1.617508E+0	1.712291E+0	1.533565E+0	1.646729E+0	1.502308E+0	1.564266E+0	1.583102E+0	1.660300E+0	1.500730E+0	1.537956E+0	1.550346E+0	1.675957E+0	1.466806E+0	1.598998E+0	1.434416E+0	1.655269E+0	1.573096E+0	1.632582E+0	1.520455E+0	1.619522E+0	1.552415E+0	1.601527E+0	1.594951E+0	1.627789E+0	1.592272E+0	1.575351E+0	1.491383E+0	1.655634E+0	1.491386E+0	1.560600E+0	1.469768E+0	1.664826E+0	1.623211E+0	1.604031E+0	1.554985E+0	1.649203E+0	1.557788E+0	1.526402E+0	1.632886E+0	1.651189E+0	1.529454E+0	1.448335E+0	1.487444E+0	1.595895E+0	1.494826E+0	1.509195E+0	1.418715E+0	1.580956E+0	1.656464E+0	1.579336E+0	1.208487E+0	1.631799E+0	1.587389E+0	1.575263E+0	1.552494E+0	1.596453E+0	1.482857E+0	1.504678E+0	1.558591E+0	1.610427E+0	1.524115E+0	1.542075E+0	1.552751E+0	1.666159E+0	1.563082E+0	1.625321E+0	1.564762E+0	1.667273E+0	1.516307E+0	1.488473E+0	1.629393E+0	1.549007E+0	1.427627E+0	1.475983E+0	1.546292E+0	1.576368E+0
5.447560E+2	1.633366E+0	1.553214E+0	1.548378E+0	1.604477E+0	1.698493E+0	1.637731E+0	1.549249E+0	1.495761E+0	1.499377E+0	1.637577E+0	1.521650E+0	1.524997E+0	1.395733E+0	1.588741E+0	1.590738E+0	1.607503E+0	1.413516E+0	1.591811E+0	1.503121E+0	1.549770E+0	1.575017E+0	1.662660E+0	1.409006E+0	1.459290E+0	1.562118E+0	1.590204E+0	1.443487E+0	1.461418E+0	1.435648E+0	1.545048E+0	1.621552E+0	1.578594E+0	1.438593E+0	1.525778E+0	1.640653E+0	1.593343E+0	1.580397E+0	1.643004E+0	1.514449E+0	1.498934E+0	1.531572E+0	1.571453E+0	1.494377E+0	1.467486E+0	1.459059E+0	1.549218E+0	1.669745E+0	1.652271E+0	1.521902E+0	1.548229E+0	1.550224E+0	1.536518E+0	1.642043E+0	1.623100E+0	1.406878E+0	1.417256E+0	1.486703E+0	1.595966E+0	1.402322E+0	1.429613E+0	1.439128E+0	1.536525E+0	1.491041E+0	1.542958E+0	1.415403E+0	1.472996E+0	1.486227E+0	1.530489E+0	1.575473E+0	1.590847E+0	1.516611E+0	1.444168E+0	1.592787E+0	1.630600E+0	1.526880E+0	1.409887E+0	1.483514E+0	1.543338E+0	1.628225E+0	1.616715E+0	1.480113E+0	1.567213E+0	1.478800E+0	1.569231E+0	1.600132E+0	1.613904E+0	1.400561E+0	1.453573E+0	1.532316E+0	1.612150E+0	1.481619E+0	1.440204E+0	1.461348E+0	1.418218E+0	1.652918E+0	1.610966E+0	1.418789E+0	1.595422E+0	1.503746E+0	1.532777E+0	1.544342E+0	1.697394E+0	1.482834E+0	1.472455E+0	1.487992E+0	1.588120E+0	1.482590E+0	1.567795E+0	1.449927E+0	1.541174E+0	1.553765E+0	1.571624E+0	1.503043E+0	1.611172E+0	1.509170E+0	1.572107E+0	1.599673E+0	1.504249E+0	1.471230E+0	1.580507E+0	1.486197E+0	1.548156E+0	1.397086E+0	1.500386E+0	1.404933E+0	1.607201E+0	1.534753E+0	1.594184E+0	1.480108E+0	1.601370E+0	1.491730E+0	1.543078E+0	1.566864E+0	1.632511E+0	1.456182E+0	1.445285E+0	1.463117E+0	1.615618E+0	1.517379E+0	1.397744E+0	1.379847E+0	1.599887E+0	1.546634E+0	1.584863E+0	1.215794E+0	1.556420E+0	1.537304E+0	1.535714E+0	1.536754E+0	1.516680E+0	1.500968E+0	1.511744E+0	1.510942E+0	1.621618E+0	1.495468E+0	1.484606E+0	1.445159E+0	1.618752E+0	1.576369E+0	1.540694E+0	1.524014E+0	1.596855E+0	1.463170E+0	1.544724E+0	1.501039E+0	1.665304E+0	1.361106E+0	1.410233E+0	1.534879E+0	1.639812E+0
5.450150E+2	1.521874E+0	1.492623E+0	1.445399E+0	1.435012E+0	1.472971E+0	1.526015E+0	1.464423E+0	1.347815E+0	1.338166E+0	1.510022E+0	1.541770E+0	1.422985E+0	1.268547E+0	1.423578E+0	1.501991E+0	1.491166E+0	1.346956E+0	1.444342E+0	1.453680E+0	1.445382E+0	1.432286E+0	1.510158E+0	1.463402E+0	1.360256E+0	1.385691E+0	1.433922E+0	1.488977E+0	1.358243E+0	1.341375E+0	1.393188E+0	1.440627E+0	1.451437E+0	1.348294E+0	1.444352E+0	1.460392E+0	1.497572E+0	1.403911E+0	1.474533E+0	1.527583E+0	1.330368E+0	1.465307E+0	1.486960E+0	1.449486E+0	1.347106E+0	1.400633E+0	1.448937E+0	1.466626E+0	1.507483E+0	1.377937E+0	1.443780E+0	1.395230E+0	1.367148E+0	1.501579E+0	1.473209E+0	1.382929E+0	1.271679E+0	1.370924E+0	1.424795E+0	1.340276E+0	1.281001E+0	1.306316E+0	1.384727E+0	1.377510E+0	1.460374E+0	1.334016E+0	1.405594E+0	1.462779E+0	1.418168E+0	1.394098E+0	1.492817E+0	1.336351E+0	1.331776E+0	1.455655E+0	1.508945E+0	1.395533E+0	1.360262E+0	1.404579E+0	1.502888E+0	1.407778E+0	1.454429E+0	1.372419E+0	1.462208E+0	1.420597E+0	1.427237E+0	1.475730E+0	1.466021E+0	1.318260E+0	1.346737E+0	1.489901E+0	1.505081E+0	1.313922E+0	1.402437E+0	1.329005E+0	1.303584E+0	1.472010E+0	1.436957E+0	1.335745E+0	1.527646E+0	1.360800E+0	1.433805E+0	1.461478E+0	1.485064E+0	1.321767E+0	1.337438E+0	1.342274E+0	1.506994E+0	1.380302E+0	1.395780E+0	1.356855E+0	1.504901E+0	1.435829E+0	1.456553E+0	1.363093E+0	1.478283E+0	1.382143E+0	1.512498E+0	1.466132E+0	1.399664E+0	1.366058E+0	1.449379E+0	1.359113E+0	1.459523E+0	1.310485E+0	1.433406E+0	1.317038E+0	1.460523E+0	1.425481E+0	1.474074E+0	1.363861E+0	1.481775E+0	1.459767E+0	1.443673E+0	1.518286E+0	1.466503E+0	1.382911E+0	1.314776E+0	1.321402E+0	1.480378E+0	1.356767E+0	1.300229E+0	1.278539E+0	1.489556E+0	1.446350E+0	1.459149E+0	1.124467E+0	1.450230E+0	1.431420E+0	1.433312E+0	1.420429E+0	1.464570E+0	1.355419E+0	1.301102E+0	1.370197E+0	1.437719E+0	1.344053E+0	1.416871E+0	1.328274E+0	1.458510E+0	1.484767E+0	1.514039E+0	1.318356E+0	1.530929E+0	1.373291E+0	1.371950E+0	1.461838E+0	1.443105E+0	1.258304E+0	1.364525E+0	1.309072E+0	1.502350E+0
5.452580E+2	1.341607E+0	1.394157E+0	1.442757E+0	1.367980E+0	1.417451E+0	1.418821E+0	1.359294E+0	1.316572E+0	1.358705E+0	1.347557E+0	1.406121E+0	1.246078E+0	1.261685E+0	1.401109E+0	1.407558E+0	1.372838E+0	1.261199E+0	1.407179E+0	1.359397E+0	1.403497E+0	1.374322E+0	1.441774E+0	1.378592E+0	1.284176E+0	1.307205E+0	1.388550E+0	1.422587E+0	1.249610E+0	1.265599E+0	1.322277E+0	1.426754E+0	1.396942E+0	1.286841E+0	1.317978E+0	1.467247E+0	1.361051E+0	1.297058E+0	1.447760E+0	1.411991E+0	1.298602E+0	1.352590E+0	1.405692E+0	1.429964E+0	1.270887E+0	1.264716E+0	1.370803E+0	1.434911E+0	1.406731E+0	1.301282E+0	1.378418E+0	1.398556E+0	1.323865E+0	1.340256E+0	1.393857E+0	1.407494E+0	1.277875E+0	1.299276E+0	1.371693E+0	1.328764E+0	1.228063E+0	1.240490E+0	1.359643E+0	1.393189E+0	1.391662E+0	1.278671E+0	1.418433E+0	1.383956E+0	1.309930E+0	1.379901E+0	1.436625E+0	1.373879E+0	1.177519E+0	1.380852E+0	1.452468E+0	1.385685E+0	1.158488E+0	1.331067E+0	1.393615E+0	1.417885E+0	1.380599E+0	1.281144E+0	1.457467E+0	1.338724E+0	1.328928E+0	1.386108E+0	1.395360E+0	1.349281E+0	1.243101E+0	1.322805E+0	1.486724E+0	1.361006E+0	1.269557E+0	1.298701E+0	1.181492E+0	1.487407E+0	1.365680E+0	1.261478E+0	1.416161E+0	1.258081E+0	1.351329E+0	1.326493E+0	1.442211E+0	1.213112E+0	1.332093E+0	1.303639E+0	1.393677E+0	1.274851E+0	1.337936E+0	1.260804E+0	1.421144E+0	1.392009E+0	1.357238E+0	1.288281E+0	1.362090E+0	1.390249E+0	1.365406E+0	1.373734E+0	1.397702E+0	1.280071E+0	1.413281E+0	1.331883E+0	1.397408E+0	1.261732E+0	1.328532E+0	1.254077E+0	1.397006E+0	1.339620E+0	1.362494E+0	1.282416E+0	1.403377E+0	1.341145E+0	1.299563E+0	1.302785E+0	1.407705E+0	1.316300E+0	1.231836E+0	1.264229E+0	1.390925E+0	1.284321E+0	1.266394E+0	1.219918E+0	1.398805E+0	1.353571E+0	1.396981E+0	1.068452E+0	1.368292E+0	1.404947E+0	1.284303E+0	1.392376E+0	1.404099E+0	1.235098E+0	1.302385E+0	1.379726E+0	1.406952E+0	1.319498E+0	1.303293E+0	1.278464E+0	1.388400E+0	1.384776E+0	1.363446E+0	1.306895E+0	1.452270E+0	1.297189E+0	1.274851E+0	1.390388E+0	1.377482E+0	1.229412E+0	1.264961E+0	1.290322E+0	1.384861E+0
5.455290E+2	1.335093E+0	1.377631E+0	1.347699E+0	1.291907E+0	1.404425E+0	1.354244E+0	1.338995E+0	1.192220E+0	1.223636E+0	1.399251E+0	1.351599E+0	1.271904E+0	1.186748E+0	1.268735E+0	1.346689E+0	1.381483E+0	1.184442E+0	1.292743E+0	1.318001E+0	1.281156E+0	1.295164E+0	1.366127E+0	1.382103E+0	1.258596E+0	1.317624E+0	1.231003E+0	1.356810E+0	1.147649E+0	1.212497E+0	1.283372E+0	1.302479E+0	1.303522E+0	1.243574E+0	1.307557E+0	1.369235E+0	1.329809E+0	1.350486E+0	1.334795E+0	1.266186E+0	1.210429E+0	1.335511E+0	1.346999E+0	1.342134E+0	1.300092E+0	1.266563E+0	1.332043E+0	1.372081E+0	1.329996E+0	1.227118E+0	1.360226E+0	1.354652E+0	1.240433E+0	1.394233E+0	1.401994E+0	1.366963E+0	1.173186E+0	1.273052E+0	1.310909E+0	1.363945E+0	1.166196E+0	1.217193E+0	1.270881E+0	1.334229E+0	1.262428E+0	1.195330E+0	1.342689E+0	1.406754E+0	1.268405E+0	1.321161E+0	1.381678E+0	1.334505E+0	1.158595E+0	1.283616E+0	1.291715E+0	1.366640E+0	1.187219E+0	1.278041E+0	1.349618E+0	1.307977E+0	1.378506E+0	1.256847E+0	1.336880E+0	1.348319E+0	1.272860E+0	1.287118E+0	1.364762E+0	1.380304E+0	1.188083E+0	1.266892E+0	1.358245E+0	1.339722E+0	1.258368E+0	1.275817E+0	1.164535E+0	1.378093E+0	1.290205E+0	1.221642E+0	1.368652E+0	1.322011E+0	1.286097E+0	1.335179E+0	1.335406E+0	1.347974E+0	1.217132E+0	1.273818E+0	1.352108E+0	1.332311E+0	1.324996E+0	1.224409E+0	1.353211E+0	1.409410E+0	1.364776E+0	1.232172E+0	1.307126E+0	1.354441E+0	1.335987E+0	1.348782E+0	1.328415E+0	1.312483E+0	1.249735E+0	1.251483E+0	1.382056E+0	1.274561E+0	1.332591E+0	1.135007E+0	1.362955E+0	1.353932E+0	1.323111E+0	1.186527E+0	1.368166E+0	1.293556E+0	1.322246E+0	1.351368E+0	1.392490E+0	1.296985E+0	1.173895E+0	1.218003E+0	1.350776E+0	1.235111E+0	1.241188E+0	1.153649E+0	1.370736E+0	1.369945E+0	1.354847E+0	1.022179E+0	1.347318E+0	1.291907E+0	1.298427E+0	1.304107E+0	1.299880E+0	1.235099E+0	1.190001E+0	1.284428E+0	1.284586E+0	1.254701E+0	1.303979E+0	1.251898E+0	1.382394E+0	1.381281E+0	1.334793E+0	1.266144E+0	1.372109E+0	1.261762E+0	1.229981E+0	1.313881E+0	1.319008E+0	1.209927E+0	1.181680E+0	1.224292E+0	1.404834E+0
5.457720E+2	1.212742E+0	1.272968E+0	1.262543E+0	1.211319E+0	1.229633E+0	1.263192E+0	1.241118E+0	1.154597E+0	1.166993E+0	1.260957E+0	1.256190E+0	1.148589E+0	1.138724E+0	1.187367E+0	1.255667E+0	1.278441E+0	1.141266E+0	1.274459E+0	1.262238E+0	1.179427E+0	1.194819E+0	1.250542E+0	1.210144E+0	1.153003E+0	1.123834E+0	1.192565E+0	1.216037E+0	1.086353E+0	1.104500E+0	1.207441E+0	1.198432E+0	1.225024E+0	1.116904E+0	1.174015E+0	1.257515E+0	1.225208E+0	1.225025E+0	1.266884E+0	1.251079E+0	1.150133E+0	1.213234E+0	1.242512E+0	1.272516E+0	1.132696E+0	1.190300E+0	1.239146E+0	1.264117E+0	1.255266E+0	1.131142E+0	1.229494E+0	1.229592E+0	1.180214E+0	1.261128E+0	1.240579E+0	1.180895E+0	1.106903E+0	1.140637E+0	1.190737E+0	1.202758E+0	1.078178E+0	1.054673E+0	1.254800E+0	1.218191E+0	1.238472E+0	1.070318E+0	1.197616E+0	1.221759E+0	1.192162E+0	1.206915E+0	1.234324E+0	1.240991E+0	1.075449E+0	1.251827E+0	1.237404E+0	1.226757E+0	1.039646E+0	1.170180E+0	1.253827E+0	1.236602E+0	1.185572E+0	1.176079E+0	1.204105E+0	1.195447E+0	1.185478E+0	1.284446E+0	1.219065E+0	1.217599E+0	1.086363E+0	1.145429E+0	1.268000E+0	1.249423E+0	1.159058E+0	1.196661E+0	1.128585E+0	1.254152E+0	1.227314E+0	1.100791E+0	1.250206E+0	1.228630E+0	1.195373E+0	1.244965E+0	1.199177E+0	1.202888E+0	1.134918E+0	1.126066E+0	1.268965E+0	1.231283E+0	1.146135E+0	1.044234E+0	1.281325E+0	1.284386E+0	1.177103E+0	1.153492E+0	1.151973E+0	1.303089E+0	1.219863E+0	1.223337E+0	1.185918E+0	1.265522E+0	1.163545E+0	1.147742E+0	1.181057E+0	1.284826E+0	1.241928E+0	1.120670E+0	1.264076E+0	1.221891E+0	1.227284E+0	1.160254E+0	1.214692E+0	1.245966E+0	1.153450E+0	1.213720E+0	1.222333E+0	1.205063E+0	1.076320E+0	1.101224E+0	1.235257E+0	1.187268E+0	1.146322E+0	1.055525E+0	1.234937E+0	1.285351E+0	1.241564E+0	9.180651E-1	1.231951E+0	1.206765E+0	1.174840E+0	1.205573E+0	1.209172E+0	1.147767E+0	1.134130E+0	1.113624E+0	1.174808E+0	1.200136E+0	1.158928E+0	1.191460E+0	1.222817E+0	1.188992E+0	1.236172E+0	1.169365E+0	1.276969E+0	1.129240E+0	1.147613E+0	1.251286E+0	1.248191E+0	1.131982E+0	1.144110E+0	1.180273E+0	1.268547E+0
5.460000E+2	1.230841E+0	1.235098E+0	1.229537E+0	1.184958E+0	1.289267E+0	1.219926E+0	1.215743E+0	1.111233E+0	1.148319E+0	1.267670E+0	1.256190E+0	1.149236E+0	1.095975E+0	1.195869E+0	1.254531E+0	1.248527E+0	1.079502E+0	1.206624E+0	1.276609E+0	1.196049E+0	1.219748E+0	1.240252E+0	1.252256E+0	1.117587E+0	1.207878E+0	1.241719E+0	1.227101E+0	1.104562E+0	1.123593E+0	1.193636E+0	1.245251E+0	1.172474E+0	1.140732E+0	1.179229E+0	1.199257E+0	1.240830E+0	1.204615E+0	1.240766E+0	1.224809E+0	1.117717E+0	1.235777E+0	1.223163E+0	1.258854E+0	1.151928E+0	1.140485E+0	1.233609E+0	1.249478E+0	1.233916E+0	1.169159E+0	1.192433E+0	1.239570E+0	1.126267E+0	1.216966E+0	1.226335E+0	1.260112E+0	1.111858E+0	1.151512E+0	1.236851E+0	1.198281E+0	1.089659E+0	1.054090E+0	1.169898E+0	1.198746E+0	1.233428E+0	1.091156E+0	1.229711E+0	1.294061E+0	1.168337E+0	1.186907E+0	1.242440E+0	1.275444E+0	1.069140E+0	1.220036E+0	1.273611E+0	1.231355E+0	1.046827E+0	1.159938E+0	1.169387E+0	1.226495E+0	1.239899E+0	1.090712E+0	1.221719E+0	1.251095E+0	1.144701E+0	1.188802E+0	1.237279E+0	1.241024E+0	1.084445E+0	1.194913E+0	1.296297E+0	1.230075E+0	1.093316E+0	1.160172E+0	1.085174E+0	1.244144E+0	1.210543E+0	1.193286E+0	1.219801E+0	1.230785E+0	1.223115E+0	1.173462E+0	1.254180E+0	1.279583E+0	1.169674E+0	1.130131E+0	1.199905E+0	1.295687E+0	1.188758E+0	1.086593E+0	1.198889E+0	1.273429E+0	1.214089E+0	1.134791E+0	1.224330E+0	1.204439E+0	1.193541E+0	1.195684E+0	1.185264E+0	1.261552E+0	1.219533E+0	1.123100E+0	1.197108E+0	1.268789E+0	1.179683E+0	1.156826E+0	1.236576E+0	1.237502E+0	1.209563E+0	1.129387E+0	1.258543E+0	1.253781E+0	1.175469E+0	1.221194E+0	1.306719E+0	1.231041E+0	1.115960E+0	1.113999E+0	1.214127E+0	1.233060E+0	1.079985E+0	1.046605E+0	1.226450E+0	1.231459E+0	1.271956E+0	9.412021E-1	1.299466E+0	1.174571E+0	1.227099E+0	1.129619E+0	1.269644E+0	1.229277E+0	1.103303E+0	1.205257E+0	1.296475E+0	1.294944E+0	1.199297E+0	1.193454E+0	1.243514E+0	1.191789E+0	1.227510E+0	1.170639E+0	1.208798E+0	1.214528E+0	1.118148E+0	1.236110E+0	1.242993E+0	1.243522E+0	1.127830E+0	1.171305E+0	1.277945E+0
5.467600E+2	1.230841E+0	1.246115E+0	1.220294E+0	1.212073E+0	1.271445E+0	1.262548E+0	1.254894E+0	1.118885E+0	1.138360E+0	1.283111E+0	1.290590E+0	1.110496E+0	1.119196E+0	1.214088E+0	1.228363E+0	1.197341E+0	1.114878E+0	1.231399E+0	1.189225E+0	1.194055E+0	1.189834E+0	1.245092E+0	1.220671E+0	1.160874E+0	1.168982E+0	1.170508E+0	1.254762E+0	1.067540E+0	1.067509E+0	1.189871E+0	1.329648E+0	1.286005E+0	1.135716E+0	1.176624E+0	1.280131E+0	1.210266E+0	1.217821E+0	1.319123E+0	1.276036E+0	1.205891E+0	1.239876E+0	1.222519E+0	1.282925E+0	1.211050E+0	1.153400E+0	1.229917E+0	1.228738E+0	1.295299E+0	1.157318E+0	1.221411E+0	1.238905E+0	1.140065E+0	1.263582E+0	1.214125E+0	1.269936E+0	1.151505E+0	1.186695E+0	1.226371E+0	1.259044E+0	1.074351E+0	1.078555E+0	1.166683E+0	1.232618E+0	1.201907E+0	1.113292E+0	1.186063E+0	1.226969E+0	1.199649E+0	1.256615E+0	1.309875E+0	1.224995E+0	1.067420E+0	1.225645E+0	1.262025E+0	1.239891E+0	1.100372E+0	1.173796E+0	1.258795E+0	1.218282E+0	1.247562E+0	1.162946E+0	1.208168E+0	1.248539E+0	1.220431E+0	1.227595E+0	1.265688E+0	1.269511E+0	1.186803E+0	1.219336E+0	1.272589E+0	1.246199E+0	1.105905E+0	1.155844E+0	1.077035E+0	1.304960E+0	1.225915E+0	1.121720E+0	1.236901E+0	1.294715E+0	1.175878E+0	1.226253E+0	1.288077E+0	1.252738E+0	1.152966E+0	1.159955E+0	1.256896E+0	1.263485E+0	1.205502E+0	1.124776E+0	1.258903E+0	1.261832E+0	1.217516E+0	1.112217E+0	1.213894E+0	1.236198E+0	1.207476E+0	1.285385E+0	1.242134E+0	1.265522E+0	1.238687E+0	1.193127E+0	1.222232E+0	1.242486E+0	1.186447E+0	1.092619E+0	1.212346E+0	1.260920E+0	1.212845E+0	1.111653E+0	1.291761E+0	1.216134E+0	1.186810E+0	1.272267E+0	1.273517E+0	1.234371E+0	1.098276E+0	1.154141E+0	1.226807E+0	1.235793E+0	1.095906E+0	1.100128E+0	1.251258E+0	1.325603E+0	1.224986E+0	9.478992E-1	1.262103E+0	1.170993E+0	1.245460E+0	1.199413E+0	1.234905E+0	1.290731E+0	1.141192E+0	1.145146E+0	1.249624E+0	1.261523E+0	1.163035E+0	1.263187E+0	1.236839E+0	1.247729E+0	1.218848E+0	1.194197E+0	1.235017E+0	1.219119E+0	1.124844E+0	1.225366E+0	1.269630E+0	1.254273E+0	1.163522E+0	1.149295E+0	1.310843E+0
5.475180E+2	1.319165E+0	1.315658E+0	1.360242E+0	1.266300E+0	1.384548E+0	1.303230E+0	1.362922E+0	1.183292E+0	1.228615E+0	1.304595E+0	1.370423E+0	1.240914E+0	1.186747E+0	1.263877E+0	1.321090E+0	1.320322E+0	1.179646E+0	1.283898E+0	1.325477E+0	1.249906E+0	1.305758E+0	1.318321E+0	1.355197E+0	1.233018E+0	1.278031E+0	1.265032E+0	1.289805E+0	1.184065E+0	1.202949E+0	1.242583E+0	1.286868E+0	1.343745E+0	1.181491E+0	1.215710E+0	1.286301E+0	1.310791E+0	1.300661E+0	1.369402E+0	1.347628E+0	1.246086E+0	1.295207E+0	1.298627E+0	1.349290E+0	1.228861E+0	1.173693E+0	1.311127E+0	1.323894E+0	1.267275E+0	1.273240E+0	1.288122E+0	1.322055E+0	1.255487E+0	1.317562E+0	1.246680E+0	1.311693E+0	1.125486E+0	1.285845E+0	1.238946E+0	1.345397E+0	1.145148E+0	1.160688E+0	1.267022E+0	1.319175E+0	1.287011E+0	1.181659E+0	1.270153E+0	1.317515E+0	1.234367E+0	1.292114E+0	1.326106E+0	1.322200E+0	1.117884E+0	1.262422E+0	1.305473E+0	1.345623E+0	1.190486E+0	1.226220E+0	1.282918E+0	1.295344E+0	1.267760E+0	1.217448E+0	1.281332E+0	1.343841E+0	1.287424E+0	1.319224E+0	1.274431E+0	1.358142E+0	1.164412E+0	1.284889E+0	1.307002E+0	1.348751E+0	1.212208E+0	1.244896E+0	1.122481E+0	1.308809E+0	1.311871E+0	1.193963E+0	1.336350E+0	1.294716E+0	1.244109E+0	1.265679E+0	1.321972E+0	1.365870E+0	1.236513E+0	1.205364E+0	1.390995E+0	1.321578E+0	1.265630E+0	1.192789E+0	1.324193E+0	1.334652E+0	1.243542E+0	1.210889E+0	1.302951E+0	1.278764E+0	1.288762E+0	1.284036E+0	1.305535E+0	1.375980E+0	1.261523E+0	1.206094E+0	1.313661E+0	1.284825E+0	1.294704E+0	1.180513E+0	1.345277E+0	1.299293E+0	1.317862E+0	1.194408E+0	1.277811E+0	1.336177E+0	1.273540E+0	1.281609E+0	1.402867E+0	1.379579E+0	1.125720E+0	1.196715E+0	1.313444E+0	1.323961E+0	1.190105E+0	1.163210E+0	1.268887E+0	1.327651E+0	1.313400E+0	9.917367E-1	1.262759E+0	1.306928E+0	1.258879E+0	1.356795E+0	1.324325E+0	1.238334E+0	1.214404E+0	1.252906E+0	1.297871E+0	1.279256E+0	1.223926E+0	1.257210E+0	1.329645E+0	1.300870E+0	1.318135E+0	1.275696E+0	1.317422E+0	1.297847E+0	1.237347E+0	1.301238E+0	1.249488E+0	1.252929E+0	1.195456E+0	1.152556E+0	1.312017E+0
5.482550E+2	1.369843E+0	1.412058E+0	1.409754E+0	1.317517E+0	1.422246E+0	1.422050E+0	1.394096E+0	1.271293E+0	1.304553E+0	1.393879E+0	1.397033E+0	1.303541E+0	1.255352E+0	1.344034E+0	1.367737E+0	1.368188E+0	1.230618E+0	1.329907E+0	1.404815E+0	1.297114E+0	1.297033E+0	1.395783E+0	1.364555E+0	1.301229E+0	1.282892E+0	1.294022E+0	1.385703E+0	1.275100E+0	1.207721E+0	1.346125E+0	1.386293E+0	1.345691E+0	1.247333E+0	1.316024E+0	1.463134E+0	1.366484E+0	1.327074E+0	1.385075E+0	1.354195E+0	1.282391E+0	1.338928E+0	1.370866E+0	1.403941E+0	1.258779E+0	1.341590E+0	1.367110E+0	1.390381E+0	1.411402E+0	1.248932E+0	1.359549E+0	1.326713E+0	1.296265E+0	1.356205E+0	1.375545E+0	1.404422E+0	1.238229E+0	1.287125E+0	1.389163E+0	1.354349E+0	1.236356E+0	1.255057E+0	1.320407E+0	1.377508E+0	1.368337E+0	1.251978E+0	1.313160E+0	1.383303E+0	1.312653E+0	1.343751E+0	1.404156E+0	1.354191E+0	1.231996E+0	1.392074E+0	1.398159E+0	1.407357E+0	1.212033E+0	1.265987E+0	1.330463E+0	1.416621E+0	1.378507E+0	1.294934E+0	1.334172E+0	1.402685E+0	1.384273E+0	1.329925E+0	1.374231E+0	1.389165E+0	1.191920E+0	1.347227E+0	1.402599E+0	1.412605E+0	1.270956E+0	1.243042E+0	1.240504E+0	1.411194E+0	1.378258E+0	1.225695E+0	1.394623E+0	1.366546E+0	1.349828E+0	1.312458E+0	1.430060E+0	1.387601E+0	1.295332E+0	1.261618E+0	1.413793E+0	1.366407E+0	1.280853E+0	1.221427E+0	1.405314E+0	1.392010E+0	1.388062E+0	1.243781E+0	1.365569E+0	1.351737E+0	1.367729E+0	1.384528E+0	1.379402E+0	1.401777E+0	1.333719E+0	1.291034E+0	1.379263E+0	1.431729E+0	1.373188E+0	1.212930E+0	1.387838E+0	1.371493E+0	1.331645E+0	1.251547E+0	1.402048E+0	1.366718E+0	1.252193E+0	1.333304E+0	1.407015E+0	1.353600E+0	1.201342E+0	1.216180E+0	1.340915E+0	1.382054E+0	1.273693E+0	1.179137E+0	1.407947E+0	1.404736E+0	1.348629E+0	1.106200E+0	1.366328E+0	1.324099E+0	1.273002E+0	1.367742E+0	1.411821E+0	1.395526E+0	1.249724E+0	1.321080E+0	1.367794E+0	1.374062E+0	1.305347E+0	1.268501E+0	1.384395E+0	1.359606E+0	1.380105E+0	1.324083E+0	1.407320E+0	1.345079E+0	1.261456E+0	1.346128E+0	1.438556E+0	1.413513E+0	1.204848E+0	1.317224E+0	1.290869E+0
5.490160E+2	1.398077E+0	1.361106E+0	1.363542E+0	1.349903E+0	1.386602E+0	1.361992E+0	1.380320E+0	1.307005E+0	1.307043E+0	1.399925E+0	1.400280E+0	1.275779E+0	1.288600E+0	1.424793E+0	1.375132E+0	1.349573E+0	1.236617E+0	1.394791E+0	1.367445E+0	1.360279E+0	1.321966E+0	1.401835E+0	1.384443E+0	1.272370E+0	1.334986E+0	1.343805E+0	1.440413E+0	1.286631E+0	1.229799E+0	1.309728E+0	1.341782E+0	1.396944E+0	1.290603E+0	1.355108E+0	1.368549E+0	1.345429E+0	1.376899E+0	1.468002E+0	1.346969E+0	1.290173E+0	1.313653E+0	1.379895E+0	1.379218E+0	1.310062E+0	1.240115E+0	1.324662E+0	1.445883E+0	1.305309E+0	1.285078E+0	1.399979E+0	1.429823E+0	1.305672E+0	1.413248E+0	1.406743E+0	1.393369E+0	1.214691E+0	1.337018E+0	1.354225E+0	1.356269E+0	1.257404E+0	1.222435E+0	1.361572E+0	1.351165E+0	1.371486E+0	1.237001E+0	1.310592E+0	1.325982E+0	1.342603E+0	1.365698E+0	1.389797E+0	1.354808E+0	1.243466E+0	1.331612E+0	1.413365E+0	1.392910E+0	1.238153E+0	1.346130E+0	1.379421E+0	1.421042E+0	1.386169E+0	1.299532E+0	1.322658E+0	1.412919E+0	1.243733E+0	1.343970E+0	1.329065E+0	1.388534E+0	1.273807E+0	1.369079E+0	1.385011E+0	1.452593E+0	1.284943E+0	1.282006E+0	1.193701E+0	1.409656E+0	1.427171E+0	1.289158E+0	1.385123E+0	1.358645E+0	1.324337E+0	1.323150E+0	1.386567E+0	1.482832E+0	1.314046E+0	1.296185E+0	1.406417E+0	1.375878E+0	1.305968E+0	1.205915E+0	1.409270E+0	1.406185E+0	1.352446E+0	1.293442E+0	1.371136E+0	1.340925E+0	1.357664E+0	1.352828E+0	1.336912E+0	1.375319E+0	1.388972E+0	1.292331E+0	1.373677E+0	1.370782E+0	1.318384E+0	1.189867E+0	1.410102E+0	1.376046E+0	1.398594E+0	1.296210E+0	1.404707E+0	1.317706E+0	1.319577E+0	1.370674E+0	1.414625E+0	1.320294E+0	1.236104E+0	1.255106E+0	1.331054E+0	1.351981E+0	1.277010E+0	1.184235E+0	1.317199E+0	1.324237E+0	1.356227E+0	1.118987E+0	1.358458E+0	1.371322E+0	1.316083E+0	1.296579E+0	1.344271E+0	1.412345E+0	1.241378E+0	1.370929E+0	1.390172E+0	1.389748E+0	1.290978E+0	1.281120E+0	1.434472E+0	1.383379E+0	1.352119E+0	1.302436E+0	1.383348E+0	1.401499E+0	1.262796E+0	1.404932E+0	1.369038E+0	1.434345E+0	1.251183E+0	1.327821E+0	1.380161E+0
5.497680E+2	1.342331E+0	1.359728E+0	1.364205E+0	1.319023E+0	1.372211E+0	1.368452E+0	1.310721E+0	1.294251E+0	1.221768E+0	1.370385E+0	1.287992E+0	1.374560E+0	1.135555E+0	1.296063E+0	1.337587E+0	1.360872E+0	1.189240E+0	1.286258E+0	1.350773E+0	1.394189E+0	1.314485E+0	1.327396E+0	1.334140E+0	1.316968E+0	1.262751E+0	1.316078E+0	1.275048E+0	1.292699E+0	1.182066E+0	1.261407E+0	1.348720E+0	1.334661E+0	1.203440E+0	1.292574E+0	1.338392E+0	1.369883E+0	1.324673E+0	1.333488E+0	1.291800E+0	1.215614E+0	1.273348E+0	1.320556E+0	1.381821E+0	1.227435E+0	1.225972E+0	1.334503E+0	1.344632E+0	1.300639E+0	1.210291E+0	1.315747E+0	1.328707E+0	1.232906E+0	1.317558E+0	1.367406E+0	1.309851E+0	1.178140E+0	1.246825E+0	1.338156E+0	1.287831E+0	1.150888E+0	1.125739E+0	1.279886E+0	1.351794E+0	1.349423E+0	1.249373E+0	1.277856E+0	1.318164E+0	1.220072E+0	1.350209E+0	1.392294E+0	1.266830E+0	1.224543E+0	1.303562E+0	1.346745E+0	1.323296E+0	1.138245E+0	1.259964E+0	1.326915E+0	1.315558E+0	1.261492E+0	1.259475E+0	1.310460E+0	1.359195E+0	1.230624E+0	1.364703E+0	1.248932E+0	1.433480E+0	1.136264E+0	1.277819E+0	1.412541E+0	1.351331E+0	1.208711E+0	1.220161E+0	1.154360E+0	1.353459E+0	1.294399E+0	1.218269E+0	1.357253E+0	1.366546E+0	1.247857E+0	1.367254E+0	1.364824E+0	1.323047E+0	1.247875E+0	1.223665E+0	1.307853E+0	1.334204E+0	1.282375E+0	1.195177E+0	1.315621E+0	1.359140E+0	1.281898E+0	1.203152E+0	1.368353E+0	1.307143E+0	1.335213E+0	1.374409E+0	1.339526E+0	1.411697E+0	1.295411E+0	1.274178E+0	1.308775E+0	1.327806E+0	1.294025E+0	1.185503E+0	1.285688E+0	1.344824E+0	1.371025E+0	1.260085E+0	1.313024E+0	1.336883E+0	1.289553E+0	1.290949E+0	1.386263E+0	1.332288E+0	1.201951E+0	1.206448E+0	1.321191E+0	1.289786E+0	1.223276E+0	1.135172E+0	1.373347E+0	1.342655E+0	1.303041E+0	9.959985E-1	1.302744E+0	1.296914E+0	1.234162E+0	1.292472E+0	1.291519E+0	1.337955E+0	1.261286E+0	1.280029E+0	1.307660E+0	1.373382E+0	1.273190E+0	1.275142E+0	1.322969E+0	1.343524E+0	1.351452E+0	1.233674E+0	1.333904E+0	1.320805E+0	1.207883E+0	1.313249E+0	1.324207E+0	1.330870E+0	1.156632E+0	1.220217E+0	1.383686E+0
5.505060E+2	1.282242E+0	1.314971E+0	1.225576E+0	1.278351E+0	1.344791E+0	1.314852E+0	1.263594E+0	1.283412E+0	1.224257E+0	1.324734E+0	1.322392E+0	1.304831E+0	1.159831E+0	1.314886E+0	1.314263E+0	1.265148E+0	1.176647E+0	1.296285E+0	1.288682E+0	1.232619E+0	1.257769E+0	1.340711E+0	1.287935E+0	1.327462E+0	1.244690E+0	1.236047E+0	1.264599E+0	1.235046E+0	1.149251E+0	1.257643E+0	1.295540E+0	1.292493E+0	1.135089E+0	1.254140E+0	1.295898E+0	1.359694E+0	1.228627E+0	1.358301E+0	1.293768E+0	1.309622E+0	1.284278E+0	1.304433E+0	1.306348E+0	1.285847E+0	1.190916E+0	1.252682E+0	1.305595E+0	1.337338E+0	1.136129E+0	1.256449E+0	1.270169E+0	1.298772E+0	1.359273E+0	1.313826E+0	1.308009E+0	1.289645E+0	1.244267E+0	1.271783E+0	1.275038E+0	1.278453E+0	1.082051E+0	1.260589E+0	1.360573E+0	1.302771E+0	1.177099E+0	1.313802E+0	1.272564E+0	1.290187E+0	1.259843E+0	1.350460E+0	1.247143E+0	1.202752E+0	1.285484E+0	1.272889E+0	1.314758E+0	1.230317E+0	1.225015E+0	1.302789E+0	1.283975E+0	1.308854E+0	1.201032E+0	1.230524E+0	1.340004E+0	1.219702E+0	1.319225E+0	1.243833E+0	1.260650E+0	1.132425E+0	1.162139E+0	1.394953E+0	1.283607E+0	1.257669E+0	1.183674E+0	1.125872E+0	1.332674E+0	1.255964E+0	1.205440E+0	1.316712E+0	1.300462E+0	1.183376E+0	1.299093E+0	1.289997E+0	1.280223E+0	1.191061E+0	1.198586E+0	1.284386E+0	1.310210E+0	1.318147E+0	1.148640E+0	1.368382E+0	1.303718E+0	1.238063E+0	1.167036E+0	1.350958E+0	1.287548E+0	1.279473E+0	1.289429E+0	1.288541E+0	1.323065E+0	1.207009E+0	1.185347E+0	1.250150E+0	1.270070E+0	1.267639E+0	1.117554E+0	1.361645E+0	1.302545E+0	1.330989E+0	1.141207E+0	1.290431E+0	1.235311E+0	1.178137E+0	1.313372E+0	1.306026E+0	1.332953E+0	1.156821E+0	1.186984E+0	1.226806E+0	1.285005E+0	1.135045E+0	1.079738E+0	1.308059E+0	1.311957E+0	1.289914E+0	9.990433E-1	1.262757E+0	1.295483E+0	1.270178E+0	1.290421E+0	1.396380E+0	1.297846E+0	1.267065E+0	1.261701E+0	1.206273E+0	1.258792E+0	1.193139E+0	1.196775E+0	1.354350E+0	1.264509E+0	1.316801E+0	1.178280E+0	1.354879E+0	1.317524E+0	1.161676E+0	1.305663E+0	1.291722E+0	1.250911E+0	1.192951E+0	1.243041E+0	1.228600E+0
5.512570E+2	1.281519E+0	1.272970E+0	1.273104E+0	1.348397E+0	1.344104E+0	1.249633E+0	1.266494E+0	1.319122E+0	1.237951E+0	1.297208E+0	1.279554E+0	1.307414E+0	1.192023E+0	1.284524E+0	1.325639E+0	1.310351E+0	1.110683E+0	1.285666E+0	1.255913E+0	1.305755E+0	1.252157E+0	1.323764E+0	1.296123E+0	1.305163E+0	1.227327E+0	1.191304E+0	1.265829E+0	1.228369E+0	1.115838E+0	1.265802E+0	1.283402E+0	1.254866E+0	1.208456E+0	1.211798E+0	1.295211E+0	1.330486E+0	1.271247E+0	1.280599E+0	1.276038E+0	1.234417E+0	1.257637E+0	1.273473E+0	1.289434E+0	1.253790E+0	1.211826E+0	1.295130E+0	1.260454E+0	1.274618E+0	1.190350E+0	1.263861E+0	1.326046E+0	1.235414E+0	1.266037E+0	1.288733E+0	1.293885E+0	1.285309E+0	1.207166E+0	1.266193E+0	1.273756E+0	1.292485E+0	1.142631E+0	1.242580E+0	1.331092E+0	1.310338E+0	1.127615E+0	1.245758E+0	1.247162E+0	1.314012E+0	1.301151E+0	1.336099E+0	1.245298E+0	1.302528E+0	1.261176E+0	1.266370E+0	1.316729E+0	1.261007E+0	1.208144E+0	1.324072E+0	1.324401E+0	1.282389E+0	1.170826E+0	1.279302E+0	1.270925E+0	1.267763E+0	1.315879E+0	1.310126E+0	1.298001E+0	1.272526E+0	1.246969E+0	1.324594E+0	1.281027E+0	1.247878E+0	1.210885E+0	1.172676E+0	1.359617E+0	1.318159E+0	1.152104E+0	1.228664E+0	1.242278E+0	1.216367E+0	1.274368E+0	1.318776E+0	1.300036E+0	1.216460E+0	1.221629E+0	1.300479E+0	1.256539E+0	1.221486E+0	1.131340E+0	1.274730E+0	1.297919E+0	1.227106E+0	1.178000E+0	1.261903E+0	1.267954E+0	1.264765E+0	1.319105E+0	1.288542E+0	1.321081E+0	1.285099E+0	1.175621E+0	1.329711E+0	1.235429E+0	1.248696E+0	1.172412E+0	1.337416E+0	1.325313E+0	1.245662E+0	1.216080E+0	1.284452E+0	1.209742E+0	1.215499E+0	1.280987E+0	1.342688E+0	1.318962E+0	1.129988E+0	1.191242E+0	1.257095E+0	1.281585E+0	1.113818E+0	1.105225E+0	1.246690E+0	1.357666E+0	1.269192E+0	1.011829E+0	1.279145E+0	1.322671E+0	1.245461E+0	1.287683E+0	1.316605E+0	1.252565E+0	1.168164E+0	1.212588E+0	1.339128E+0	1.303811E+0	1.182877E+0	1.254555E+0	1.276232E+0	1.303665E+0	1.282818E+0	1.240039E+0	1.264234E+0	1.312277E+0	1.171051E+0	1.275945E+0	1.299518E+0	1.272413E+0	1.142230E+0	1.185979E+0	1.225075E+0
5.520100E+2	1.220706E+0	1.224768E+0	1.307432E+0	1.301699E+0	1.313946E+0	1.290961E+0	1.271571E+0	1.266832E+0	1.190022E+0	1.266999E+0	1.234768E+0	1.288048E+0	1.129224E+0	1.278452E+0	1.242016E+0	1.236562E+0	1.146063E+0	1.227271E+0	1.281783E+0	1.309745E+0	1.240940E+0	1.243281E+0	1.290274E+0	1.239576E+0	1.234967E+0	1.231005E+0	1.214805E+0	1.187100E+0	1.164168E+0	1.225641E+0	1.267796E+0	1.249675E+0	1.154528E+0	1.226130E+0	1.284930E+0	1.310791E+0	1.196211E+0	1.273413E+0	1.306904E+0	1.275910E+0	1.273348E+0	1.284438E+0	1.314805E+0	1.328585E+0	1.220434E+0	1.300666E+0	1.259847E+0	1.265275E+0	1.098111E+0	1.285423E+0	1.298774E+0	1.282463E+0	1.275848E+0	1.353165E+0	1.265024E+0	1.271063E+0	1.170702E+0	1.235454E+0	1.234742E+0	1.236994E+0	1.115254E+0	1.217496E+0	1.265862E+0	1.278819E+0	1.188819E+0	1.271434E+0	1.272566E+0	1.285423E+0	1.273396E+0	1.303631E+0	1.221920E+0	1.266979E+0	1.199468E+0	1.277954E+0	1.346282E+0	1.246641E+0	1.214771E+0	1.321238E+0	1.251759E+0	1.305373E+0	1.194466E+0	1.253556E+0	1.304827E+0	1.323831E+0	1.233614E+0	1.284630E+0	1.268245E+0	1.262294E+0	1.221905E+0	1.291708E+0	1.270062E+0	1.282147E+0	1.186767E+0	1.105524E+0	1.315738E+0	1.233601E+0	1.194637E+0	1.254003E+0	1.223602E+0	1.255356E+0	1.269691E+0	1.316858E+0	1.305153E+0	1.247208E+0	1.155207E+0	1.266283E+0	1.299476E+0	1.245842E+0	1.155202E+0	1.300454E+0	1.330787E+0	1.264775E+0	1.177354E+0	1.239637E+0	1.301739E+0	1.289538E+0	1.267172E+0	1.334950E+0	1.325052E+0	1.209219E+0	1.197664E+0	1.241774E+0	1.337428E+0	1.248695E+0	1.144982E+0	1.305333E+0	1.325311E+0	1.247634E+0	1.198347E+0	1.303056E+0	1.282193E+0	1.225506E+0	1.242370E+0	1.267986E+0	1.340278E+0	1.288550E+0	1.118254E+0	1.321191E+0	1.247411E+0	1.264405E+0	1.095030E+0	1.295652E+0	1.296948E+0	1.323070E+0	9.984341E-1	1.302089E+0	1.291904E+0	1.217919E+0	1.253470E+0	1.275435E+0	1.279733E+0	1.219543E+0	1.247774E+0	1.310460E+0	1.318134E+0	1.226665E+0	1.214707E+0	1.252192E+0	1.354014E+0	1.274153E+0	1.287156E+0	1.275471E+0	1.308997E+0	1.210562E+0	1.281004E+0	1.269632E+0	1.228068E+0	1.129707E+0	1.214510E+0	1.239175E+0
5.527590E+2	1.292378E+0	1.261952E+0	1.297529E+0	1.328062E+0	1.392773E+0	1.227031E+0	1.259969E+0	1.317208E+0	1.153298E+0	1.320034E+0	1.282153E+0	1.269325E+0	1.111806E+0	1.264487E+0	1.275012E+0	1.295063E+0	1.162856E+0	1.210753E+0	1.300181E+0	1.313070E+0	1.310122E+0	1.305004E+0	1.237633E+0	1.263188E+0	1.216215E+0	1.216511E+0	1.195134E+0	1.256893E+0	1.147461E+0	1.196773E+0	1.292651E+0	1.234105E+0	1.205949E+0	1.194212E+0	1.256142E+0	1.334562E+0	1.219622E+0	1.245990E+0	1.317412E+0	1.279799E+0	1.209134E+0	1.255413E+0	1.259501E+0	1.298666E+0	1.195836E+0	1.262525E+0	1.298276E+0	1.286626E+0	1.172278E+0	1.259146E+0	1.304095E+0	1.206558E+0	1.256835E+0	1.310437E+0	1.230636E+0	1.232656E+0	1.179658E+0	1.208903E+0	1.335801E+0	1.254215E+0	1.100691E+0	1.193054E+0	1.196863E+0	1.304667E+0	1.129569E+0	1.236771E+0	1.232831E+0	1.257510E+0	1.205623E+0	1.312996E+0	1.178239E+0	1.273860E+0	1.248710E+0	1.316332E+0	1.204429E+0	1.239458E+0	1.147887E+0	1.254538E+0	1.301659E+0	1.319303E+0	1.157037E+0	1.213589E+0	1.267726E+0	1.277956E+0	1.331263E+0	1.217608E+0	1.258115E+0	1.216231E+0	1.209694E+0	1.297826E+0	1.314566E+0	1.267458E+0	1.237479E+0	1.078392E+0	1.256461E+0	1.294401E+0	1.166958E+0	1.270473E+0	1.235813E+0	1.255356E+0	1.278380E+0	1.293193E+0	1.242511E+0	1.278620E+0	1.149787E+0	1.270308E+0	1.292530E+0	1.223006E+0	1.108070E+0	1.221313E+0	1.299206E+0	1.186693E+0	1.146396E+0	1.301560E+0	1.261873E+0	1.244637E+0	1.221987E+0	1.257166E+0	1.285363E+0	1.244579E+0	1.176270E+0	1.259222E+0	1.244411E+0	1.214191E+0	1.167425E+0	1.269972E+0	1.316859E+0	1.316550E+0	1.218710E+0	1.255885E+0	1.233892E+0	1.252192E+0	1.254204E+0	1.321245E+0	1.229040E+0	1.240985E+0	1.196716E+0	1.282451E+0	1.247412E+0	1.237868E+0	1.117968E+0	1.215351E+0	1.306499E+0	1.251232E+0	1.170133E+0	1.226708E+0	1.245401E+0	1.209443E+0	1.301370E+0	1.249059E+0	1.317254E+0	1.284405E+0	1.221383E+0	1.269206E+0	1.239697E+0	1.264296E+0	1.202087E+0	1.333652E+0	1.269405E+0	1.281485E+0	1.182099E+0	1.261238E+0	1.344426E+0	1.217927E+0	1.229788E+0	1.263134E+0	1.280477E+0	1.262457E+0	1.155817E+0	1.236824E+0
5.534940E+2	1.185231E+0	1.215129E+0	1.211714E+0	1.193996E+0	1.213867E+0	1.208303E+0	1.223718E+0	1.253440E+0	1.115952E+0	1.290494E+0	1.218545E+0	1.203469E+0	1.090170E+0	1.118145E+0	1.177733E+0	1.207977E+0	1.078900E+0	1.198953E+0	1.178302E+0	1.253229E+0	1.192950E+0	1.168842E+0	1.182068E+0	1.169401E+0	1.153701E+0	1.143411E+0	1.242470E+0	1.196204E+0	1.106292E+0	1.195520E+0	1.256234E+0	1.252917E+0	1.152648E+0	1.125815E+0	1.185548E+0	1.201436E+0	1.142784E+0	1.201584E+0	1.249764E+0	1.226637E+0	1.147654E+0	1.187690E+0	1.187285E+0	1.220312E+0	1.104814E+0	1.160397E+0	1.245206E+0	1.231912E+0	1.170404E+0	1.162111E+0	1.188350E+0	1.217223E+0	1.243954E+0	1.193781E+0	1.219582E+0	1.188052E+0	1.121448E+0	1.168379E+0	1.173977E+0	1.196173E+0	1.055838E+0	1.159605E+0	1.218816E+0	1.165347E+0	1.089853E+0	1.173865E+0	1.241951E+0	1.195567E+0	1.217889E+0	1.241817E+0	1.247759E+0	1.165478E+0	1.143364E+0	1.238131E+0	1.200489E+0	1.225094E+0	1.125591E+0	1.232539E+0	1.201227E+0	1.202986E+0	1.120262E+0	1.199360E+0	1.224871E+0	1.248832E+0	1.193485E+0	1.239464E+0	1.220766E+0	1.166970E+0	1.164709E+0	1.234350E+0	1.196534E+0	1.231091E+0	1.115647E+0	1.054651E+0	1.241065E+0	1.159528E+0	1.119020E+0	1.203331E+0	1.251616E+0	1.194623E+0	1.150741E+0	1.214529E+0	1.189464E+0	1.263248E+0	1.115898E+0	1.220019E+0	1.183295E+0	1.193324E+0	1.146254E+0	1.203505E+0	1.186431E+0	1.166830E+0	1.112863E+0	1.222243E+0	1.241601E+0	1.180381E+0	1.192985E+0	1.159772E+0	1.215911E+0	1.229846E+0	1.175622E+0	1.249451E+0	1.220673E+0	1.215542E+0	1.093863E+0	1.180264E+0	1.175710E+0	1.185935E+0	1.162882E+0	1.217350E+0	1.187722E+0	1.200820E+0	1.203132E+0	1.233399E+0	1.201731E+0	1.193412E+0	1.089668E+0	1.254981E+0	1.222808E+0	1.259097E+0	1.072729E+0	1.255829E+0	1.228729E+0	1.184233E+0	1.068452E+0	1.218841E+0	1.222505E+0	1.188257E+0	1.226784E+0	1.214963E+0	1.196931E+0	1.216973E+0	1.203791E+0	1.153132E+0	1.195361E+0	1.188350E+0	1.169544E+0	1.248187E+0	1.249126E+0	1.237506E+0	1.148354E+0	1.190817E+0	1.210590E+0	1.194490E+0	1.220938E+0	1.218304E+0	1.145421E+0	1.206101E+0	1.110166E+0	1.153407E+0
5.542530E+2	1.094012E+0	1.118041E+0	1.174745E+0	1.074994E+0	1.104877E+0	1.112731E+0	1.104091E+0	1.111231E+0	1.048730E+0	1.133404E+0	1.129625E+0	1.124055E+0	9.856768E-1	1.150329E+0	1.077612E+0	1.126876E+0	9.817544E-1	1.082751E+0	1.069644E+0	1.131553E+0	1.107560E+0	1.122245E+0	1.130599E+0	1.130703E+0	1.087716E+0	1.104969E+0	1.110302E+0	1.101527E+0	9.905388E-1	1.105156E+0	1.134847E+0	1.147823E+0	9.883548E-1	1.048949E+0	1.101929E+0	1.151175E+0	1.068947E+0	1.116696E+0	1.152562E+0	1.125497E+0	1.101199E+0	1.117387E+0	1.113766E+0	1.174723E+0	1.003339E+0	1.091492E+0	1.126265E+0	1.120484E+0	1.072559E+0	1.122351E+0	1.036681E+0	1.106193E+0	1.129249E+0	1.078481E+0	1.150187E+0	1.115575E+0	1.020379E+0	1.108993E+0	1.071637E+0	1.110708E+0	9.509869E-1	1.091428E+0	1.123477E+0	1.136979E+0	9.863265E-1	1.132140E+0	1.085614E+0	1.178548E+0	1.120425E+0	1.107573E+0	1.116716E+0	1.111000E+0	1.099735E+0	1.101996E+0	1.069144E+0	1.137593E+0	1.079194E+0	1.115459E+0	1.118479E+0	1.163981E+0	1.054596E+0	1.082841E+0	1.066246E+0	1.174555E+0	1.107873E+0	1.168071E+0	1.148594E+0	1.096600E+0	1.094658E+0	1.131105E+0	1.126232E+0	1.097512E+0	1.050711E+0	1.000388E+0	1.098647E+0	1.101527E+0	1.037326E+0	1.130486E+0	1.130221E+0	1.101650E+0	1.095274E+0	1.145455E+0	1.106375E+0	1.082116E+0	1.004067E+0	1.053735E+0	1.090475E+0	1.187235E+0	9.768184E-1	1.101940E+0	1.185140E+0	1.103131E+0	1.037405E+0	1.138059E+0	1.122009E+0	1.143221E+0	1.106658E+0	1.125129E+0	1.155061E+0	1.154705E+0	1.016117E+0	1.101495E+0	1.114187E+0	1.095109E+0	9.754211E-1	1.139010E+0	1.100261E+0	1.084201E+0	1.059110E+0	1.096431E+0	1.095383E+0	1.110084E+0	1.124032E+0	1.180138E+0	1.088495E+0	1.141576E+0	9.996526E-1	1.106359E+0	1.132591E+0	1.086619E+0	9.739667E-1	1.122646E+0	1.141409E+0	1.105486E+0	1.034967E+0	1.122484E+0	1.067968E+0	1.070320E+0	1.075562E+0	1.128112E+0	1.136770E+0	1.083395E+0	1.083569E+0	1.136351E+0	1.092371E+0	1.153454E+0	1.111101E+0	1.114651E+0	1.170812E+0	1.128224E+0	1.070038E+0	1.125642E+0	1.136457E+0	1.065914E+0	1.128624E+0	1.107852E+0	1.125265E+0	1.157884E+0	1.025387E+0	1.099363E+0
5.550190E+2	1.014376E+0	1.076727E+0	9.872689E-1	9.808476E-1	1.017822E+0	1.015867E+0	1.033040E+0	1.071695E+0	9.671882E-1	1.058885E+0	1.014743E+0	1.034311E+0	9.339581E-1	1.016134E+0	9.973984E-1	1.045774E+0	9.241839E-1	1.047358E+0	9.972073E-1	1.085011E+0	9.860210E-1	1.043573E+0	1.027071E+0	1.046754E+0	1.037706E+0	1.016114E+0	1.029156E+0	1.042657E+0	9.183432E-1	9.821608E-1	1.038893E+0	1.050510E+0	9.149871E-1	1.029406E+0	1.060805E+0	1.060159E+0	1.022726E+0	1.060541E+0	1.039595E+0	1.042512E+0	1.032205E+0	1.038054E+0	1.016823E+0	1.045080E+0	9.406080E-1	1.012743E+0	1.084175E+0	1.068439E+0	9.772077E-1	1.001733E+0	1.018721E+0	1.025898E+0	1.063617E+0	1.034396E+0	1.060533E+0	1.018938E+0	9.839167E-1	9.804367E-1	1.007676E+0	1.061595E+0	8.740953E-1	1.055407E+0	9.961468E-1	1.081503E+0	9.589805E-1	9.973408E-1	1.010702E+0	1.033550E+0	1.048778E+0	1.030149E+0	9.936720E-1	1.089212E+0	9.719500E-1	9.760008E-1	1.006099E+0	1.048787E+0	1.022553E+0	1.037405E+0	1.000361E+0	1.030945E+0	9.239213E-1	1.003581E+0	1.045139E+0	1.048580E+0	1.027613E+0	1.028931E+0	1.041603E+0	1.012794E+0	1.014323E+0	1.015623E+0	1.052704E+0	1.069537E+0	9.919605E-1	9.027134E-1	1.120972E+0	1.037936E+0	9.279516E-1	9.784634E-1	1.057671E+0	9.876823E-1	1.010405E+0	1.037369E+0	1.027758E+0	1.025971E+0	9.430670E-1	1.087261E+0	1.014703E+0	1.070784E+0	9.213332E-1	1.013567E+0	1.037562E+0	1.003816E+0	9.574351E-1	1.013517E+0	1.054440E+0	1.079739E+0	1.007515E+0	1.026426E+0	1.087594E+0	1.014733E+0	9.986106E-1	1.062412E+0	1.014114E+0	1.001063E+0	9.511091E-1	1.028344E+0	1.032615E+0	1.022503E+0	9.822666E-1	1.079157E+0	1.067681E+0	1.074057E+0	1.008186E+0	1.048023E+0	1.029879E+0	1.052535E+0	9.728904E-1	1.049306E+0	1.023238E+0	1.070698E+0	8.968688E-1	1.026673E+0	1.071143E+0	1.064042E+0	8.918844E-1	1.060867E+0	1.052228E+0	1.105630E+0	1.013978E+0	1.013602E+0	1.054616E+0	1.042936E+0	1.010263E+0	1.023075E+0	1.028939E+0	1.034405E+0	9.477230E-1	1.072587E+0	1.060334E+0	1.007616E+0	1.000637E+0	9.930438E-1	1.047892E+0	1.069262E+0	9.882579E-1	1.053276E+0	1.013727E+0	1.001968E+0	9.169674E-1	1.045317E+0
5.557710E+2	9.861413E-1	1.003738E+0	9.998114E-1	1.001937E+0	1.015766E+0	9.519379E-1	9.873638E-1	1.000911E+0	9.385560E-1	1.021291E+0	9.790452E-1	1.016233E+0	9.255135E-1	9.851659E-1	9.604229E-1	9.859454E-1	9.397758E-1	9.978089E-1	9.747869E-1	1.042458E+0	9.417683E-1	9.727670E-1	9.779423E-1	9.595238E-1	9.126812E-1	9.801944E-1	9.848948E-1	1.035374E+0	7.984142E-1	9.645904E-1	9.966960E-1	9.817426E-1	8.798712E-1	9.375581E-1	9.079604E-1	9.684647E-1	1.006517E+0	9.521452E-1	1.013980E+0	9.925909E-1	9.700396E-1	1.016125E+0	9.660746E-1	9.667246E-1	8.748024E-1	9.739846E-1	1.004880E+0	9.650174E-1	8.930731E-1	9.673661E-1	9.721560E-1	9.926511E-1	9.992114E-1	1.036430E+0	1.024300E+0	9.972566E-1	9.538518E-1	9.559836E-1	1.033900E+0	9.550797E-1	8.939001E-1	9.692179E-1	9.528678E-1	1.019722E+0	8.508978E-1	9.690972E-1	9.983253E-1	9.865797E-1	9.622869E-1	1.031397E+0	9.610647E-1	1.009503E+0	9.682101E-1	9.788972E-1	9.837693E-1	9.965488E-1	9.062580E-1	9.167767E-1	9.618304E-1	9.403983E-1	8.753281E-1	9.568374E-1	9.523940E-1	9.670238E-1	9.995220E-1	9.385992E-1	9.922221E-1	9.712116E-1	9.899009E-1	9.857971E-1	9.965911E-1	9.737236E-1	9.517629E-1	8.579456E-1	9.870226E-1	9.785363E-1	9.232253E-1	9.626277E-1	9.535149E-1	9.786847E-1	9.295465E-1	1.001553E+0	9.676769E-1	9.785159E-1	8.773239E-1	9.826631E-1	9.521921E-1	1.034251E+0	8.920994E-1	9.660820E-1	1.000828E+0	9.627201E-1	9.226096E-1	9.912528E-1	9.814671E-1	1.026321E+0	1.017632E+0	9.466801E-1	1.035339E+0	9.742162E-1	9.726752E-1	9.884346E-1	9.621513E-1	1.005123E+0	8.812901E-1	9.753038E-1	9.669205E-1	1.002813E+0	9.553387E-1	1.032650E+0	9.597163E-1	9.953295E-1	1.010054E+0	9.947626E-1	9.885814E-1	9.634954E-1	8.816583E-1	9.816865E-1	1.023922E+0	1.007013E+0	8.478064E-1	9.045885E-1	1.032940E+0	9.383265E-1	8.900581E-1	9.376346E-1	9.484871E-1	9.481436E-1	9.852396E-1	9.885122E-1	9.815176E-1	9.800001E-1	9.604149E-1	9.727302E-1	9.927899E-1	9.605118E-1	9.377612E-1	9.864555E-1	1.028170E+0	9.949548E-1	9.210476E-1	9.728169E-1	9.704782E-1	9.741704E-1	1.000271E+0	9.974011E-1	9.727396E-1	9.856878E-1	9.243042E-1	1.037092E+0
5.560130E+2	9.665941E-1	9.534718E-1	9.668049E-1	1.004950E+0	1.005483E+0	9.538747E-1	9.830134E-1	9.626489E-1	9.846155E-1	1.021962E+0	9.809919E-1	9.949272E-1	9.856774E-1	9.317312E-1	9.888664E-1	9.905986E-1	9.709586E-1	9.647759E-1	9.161463E-1	9.653305E-1	1.006589E+0	9.485604E-1	9.785262E-1	9.477181E-1	9.724148E-1	9.442742E-1	9.412488E-1	1.000781E+0	9.863626E-1	9.909458E-1	9.649049E-1	9.609826E-1	9.770670E-1	9.798996E-1	9.648485E-1	9.888411E-1	1.028729E+0	1.031810E+0	1.021205E+0	9.491522E-1	9.973648E-1	9.174425E-1	9.960032E-1	9.382318E-1	9.123177E-1	9.179996E-1	9.896306E-1	9.723569E-1	9.298432E-1	9.774745E-1	9.408914E-1	9.518777E-1	9.826502E-1	1.029648E+0	9.751736E-1	9.396459E-1	9.340217E-1	9.210499E-1	9.616228E-1	9.735768E-1	8.828326E-1	9.557110E-1	9.629034E-1	9.560517E-1	9.218680E-1	8.933517E-1	1.013958E+0	9.511819E-1	9.351776E-1	9.833201E-1	9.346104E-1	9.619079E-1	9.139806E-1	9.767250E-1	9.286046E-1	1.033769E+0	8.857708E-1	9.742524E-1	9.662515E-1	9.807963E-1	8.595685E-1	9.412561E-1	9.798977E-1	9.859564E-1	9.654117E-1	9.757518E-1	9.877904E-1	9.520198E-1	9.635516E-1	1.043155E+0	9.411218E-1	9.723247E-1	8.880641E-1	9.000003E-1	9.700867E-1	9.722471E-1	9.218748E-1	9.341236E-1	9.772189E-1	9.576903E-1	9.656329E-1	9.996346E-1	1.008583E+0	9.664852E-1	9.173123E-1	9.726058E-1	1.002706E+0	1.006850E+0	8.646552E-1	9.621252E-1	9.679615E-1	9.490218E-1	9.400225E-1	9.508994E-1	1.013224E+0	9.899356E-1	9.650254E-1	9.793632E-1	9.645662E-1	1.001474E+0	8.870879E-1	9.961113E-1	9.878117E-1	9.624974E-1	8.376523E-1	9.661368E-1	9.870844E-1	9.699950E-1	9.323510E-1	9.961085E-1	9.561643E-1	9.733133E-1	9.683247E-1	9.989131E-1	1.023884E+0	1.006795E+0	8.846990E-1	9.887301E-1	9.678777E-1	9.386847E-1	8.197709E-1	9.842379E-1	9.463013E-1	1.010164E+0	8.748364E-1	9.933518E-1	9.656586E-1	9.311950E-1	9.640273E-1	1.009741E+0	9.795768E-1	9.421099E-1	9.736097E-1	9.573472E-1	9.580049E-1	9.646170E-1	9.351044E-1	1.005818E+0	9.890122E-1	9.609712E-1	9.465162E-1	9.758139E-1	1.038706E+0	9.293028E-1	9.857287E-1	9.558197E-1	9.713960E-1	9.343412E-1	9.088161E-1	9.877477E-1
5.565090E+2	9.600789E-1	9.686207E-1	9.958508E-1	9.303851E-1	9.821777E-1	9.680815E-1	9.685139E-1	8.976037E-1	9.435356E-1	9.944372E-1	9.608714E-1	1.000092E+0	9.424013E-1	9.153362E-1	1.026981E+0	9.646726E-1	9.985438E-1	9.736245E-1	9.448906E-1	9.640007E-1	9.959931E-1	9.570330E-1	9.475262E-1	9.477189E-1	9.467153E-1	9.348219E-1	9.664531E-1	9.813595E-1	9.422097E-1	9.275661E-1	9.550786E-1	9.616314E-1	1.017826E+0	9.414669E-1	9.943207E-1	1.029594E+0	1.028128E+0	1.003078E+0	1.008069E+0	9.595258E-1	9.946324E-1	9.542061E-1	9.810387E-1	1.030121E+0	9.375330E-1	9.223056E-1	9.426623E-1	1.018396E+0	9.678592E-1	9.666923E-1	9.961038E-1	9.920242E-1	9.660880E-1	1.007267E+0	9.671901E-1	9.328318E-1	9.967103E-1	9.154611E-1	9.334797E-1	9.767653E-1	9.375896E-1	9.196913E-1	9.491040E-1	9.743333E-1	9.850246E-1	9.350757E-1	9.944167E-1	9.852184E-1	9.455050E-1	1.043260E+0	9.561433E-1	9.756698E-1	9.769367E-1	1.021620E+0	1.002158E+0	9.972019E-1	1.012311E+0	9.742527E-1	9.675151E-1	9.710449E-1	9.922138E-1	9.846123E-1	9.760598E-1	1.048580E+0	9.841388E-1	9.801227E-1	1.004251E+0	9.513799E-1	9.609804E-1	9.781492E-1	9.836908E-1	9.562396E-1	9.591837E-1	9.047479E-1	9.493020E-1	1.014176E+0	9.482058E-1	9.879647E-1	9.721911E-1	9.839329E-1	9.796660E-1	9.478303E-1	9.906870E-1	9.531177E-1	9.240897E-1	9.679116E-1	9.553491E-1	9.429158E-1	9.272992E-1	9.469569E-1	9.834282E-1	9.497066E-1	9.077758E-1	9.731636E-1	9.314669E-1	9.589689E-1	9.414200E-1	9.662898E-1	1.055844E+0	9.712689E-1	9.110786E-1	9.661021E-1	9.756237E-1	9.800890E-1	8.426401E-1	9.327407E-1	9.480580E-1	9.391466E-1	9.080499E-1	9.808276E-1	9.504819E-1	1.027354E+0	9.546227E-1	1.014130E+0	9.925772E-1	9.140963E-1	8.846991E-1	9.485818E-1	9.883815E-1	9.459818E-1	8.369743E-1	1.036466E+0	9.851869E-1	9.825342E-1	8.583976E-1	9.625438E-1	9.871222E-1	9.728619E-1	9.811341E-1	9.505557E-1	9.672858E-1	9.607344E-1	9.149649E-1	1.023774E+0	9.825587E-1	9.796698E-1	9.457306E-1	9.744373E-1	9.652385E-1	9.583053E-1	9.331455E-1	9.668235E-1	1.000656E+0	9.487231E-1	9.787736E-1	9.564693E-1	9.962565E-1	9.819306E-1	9.080005E-1	1.000671E+0
5.570100E+2	1.031751E+0	1.024395E+0	9.971706E-1	9.861199E-1	1.060321E+0	9.868088E-1	1.015639E+0	1.000911E+0	1.040637E+0	9.662412E-1	1.000463E+0	9.684559E-1	1.009953E+0	9.541982E-1	9.405123E-1	1.005888E+0	9.685599E-1	9.677259E-1	1.027678E+0	9.839475E-1	1.022171E+0	9.636894E-1	9.428473E-1	1.008713E+0	9.849176E-1	9.360823E-1	1.040222E+0	1.001994E+0	1.019775E+0	9.300765E-1	1.007680E+0	9.804453E-1	9.620174E-1	9.707799E-1	9.860959E-1	9.929164E-1	9.975147E-1	1.031157E+0	1.015294E+0	1.028249E+0	9.720896E-1	9.754905E-1	1.016823E+0	1.050779E+0	9.855037E-1	9.672172E-1	9.975599E-1	9.343249E-1	1.005253E+0	9.592800E-1	9.522001E-1	1.005198E+0	1.001664E+0	1.035752E+0	1.034741E+0	9.607080E-1	9.896735E-1	9.685600E-1	9.513892E-1	1.004829E+0	9.620531E-1	9.364148E-1	9.622761E-1	9.957655E-1	1.000651E+0	9.966988E-1	9.937651E-1	1.001556E+0	1.042968E+0	9.464809E-1	9.782901E-1	9.819768E-1	9.900267E-1	1.048412E+0	1.024486E+0	9.861006E-1	1.024362E+0	9.891537E-1	9.776217E-1	1.017015E+0	1.023734E+0	1.015775E+0	9.773389E-1	1.021638E+0	1.042328E+0	9.808511E-1	9.896897E-1	9.571376E-1	9.764048E-1	1.104337E+0	1.024970E+0	9.905085E-1	9.777365E-1	8.871127E-1	1.000880E+0	9.589696E-1	9.657600E-1	9.923988E-1	9.642895E-1	9.906814E-1	1.037135E+0	1.016903E+0	1.019449E+0	1.019288E+0	9.993224E-1	1.047031E+0	9.957603E-1	9.824945E-1	9.475834E-1	9.772944E-1	1.023385E+0	9.921716E-1	1.018058E+0	9.835999E-1	1.039575E+0	1.047224E+0	9.953752E-1	1.008124E+0	1.002268E+0	1.006630E+0	9.687846E-1	9.849450E-1	1.060942E+0	9.909141E-1	9.959929E-1	1.041441E+0	1.013752E+0	9.982185E-1	1.042034E+0	1.031321E+0	9.675292E-1	1.013343E+0	9.328232E-1	1.024506E+0	1.001903E+0	1.042777E+0	9.485620E-1	9.753470E-1	9.897487E-1	9.997162E-1	9.172579E-1	1.017534E+0	1.040444E+0	9.887506E-1	9.594672E-1	9.900739E-1	9.821142E-1	9.756860E-1	1.022874E+0	9.988050E-1	9.983368E-1	9.729359E-1	9.222949E-1	9.734297E-1	1.071909E+0	1.037826E+0	9.629982E-1	1.013830E+0	9.750277E-1	1.040267E+0	9.917229E-1	1.040989E+0	1.031490E+0	9.929208E-1	9.458951E-1	9.883053E-1	1.011039E+0	1.006977E+0	9.626178E-1	9.865729E-1
5.575250E+2	9.636981E-1	9.472753E-1	9.476614E-1	1.059178E+0	1.012338E+0	1.009410E+0	9.793894E-1	9.919834E-1	9.578519E-1	9.930949E-1	9.946217E-1	1.001384E+0	1.008369E+0	9.566269E-1	9.746445E-1	9.626780E-1	9.733582E-1	9.429513E-1	9.581130E-1	9.540275E-1	1.008459E+0	1.038730E+0	9.639043E-1	1.032981E+0	1.039790E+0	9.247391E-1	9.898129E-1	9.139937E-1	1.031112E+0	9.225462E-1	9.839817E-1	1.004448E+0	9.946249E-1	9.557976E-1	1.022422E+0	1.022803E+0	9.861080E-1	9.821830E-1	1.043535E+0	9.925902E-1	1.013077E+0	9.735561E-1	1.002510E+0	9.660123E-1	9.498333E-1	9.524527E-1	9.902405E-1	1.061767E+0	9.927883E-1	9.727572E-1	9.847948E-1	1.041580E+0	1.007798E+0	1.003198E+0	9.794731E-1	9.644247E-1	1.003745E+0	9.315301E-1	9.744154E-1	9.703872E-1	9.900150E-1	8.843153E-1	1.009319E+0	9.938757E-1	9.348900E-1	9.774415E-1	1.032199E+0	1.060099E+0	1.086214E+0	9.920611E-1	9.795217E-1	9.745226E-1	9.925199E-1	9.883107E-1	1.034994E+0	9.743471E-1	1.035810E+0	9.884435E-1	1.062264E+0	9.989047E-1	1.020450E+0	9.690312E-1	9.830960E-1	1.026735E+0	9.787883E-1	9.910494E-1	1.043501E+0	9.916831E-1	1.022035E+0	1.014093E+0	9.559570E-1	1.010090E+0	1.055658E+0	8.782944E-1	1.020125E+0	9.757417E-1	1.036651E+0	9.980999E-1	1.003796E+0	1.009426E+0	9.936992E-1	1.001553E+0	9.791821E-1	9.831948E-1	9.701777E-1	9.907088E-1	1.033646E+0	1.008372E+0	1.004262E+0	9.812507E-1	1.003406E+0	9.524461E-1	1.029667E+0	1.014909E+0	9.976831E-1	9.721301E-1	9.866079E-1	9.957042E-1	1.037985E+0	9.720060E-1	1.007040E+0	1.017049E+0	9.897360E-1	1.034216E+0	1.034643E+0	1.004771E+0	1.057331E+0	1.023816E+0	1.026928E+0	1.011389E+0	9.675294E-1	1.010008E+0	9.851412E-1	9.850793E-1	9.959080E-1	1.004966E+0	1.008776E+0	9.816869E-1	1.001367E+0	1.005686E+0	9.650463E-1	1.003824E+0	1.020660E+0	9.991120E-1	1.020353E+0	1.014327E+0	1.034342E+0	9.989912E-1	9.859241E-1	1.036762E+0	1.031975E+0	9.652293E-1	9.655462E-1	9.846169E-1	9.607328E-1	9.796695E-1	9.722964E-1	9.504006E-1	9.694343E-1	9.829603E-1	9.586140E-1	9.758133E-1	1.016401E+0	9.567586E-1	9.762443E-1	1.031836E+0	9.666924E-1	1.017622E+0	9.764763E-1	1.050017E+0
5.580110E+2	1.005689E+0	1.047118E+0	1.020935E+0	1.049386E+0	1.001371E+0	9.764760E-1	1.070015E+0	1.025143E+0	1.007025E+0	1.052843E+0	1.034214E+0	1.000738E+0	1.009423E+0	9.639139E-1	1.000244E+0	1.033808E+0	1.022530E+0	9.995790E-1	1.004105E+0	9.593466E-1	1.037130E+0	9.939480E-1	1.030581E+0	1.047409E+0	1.012006E+0	9.386029E-1	1.018092E+0	9.680076E-1	1.008438E+0	9.708652E-1	9.591248E-1	9.869322E-1	1.015318E+0	9.323472E-1	9.915791E-1	1.048613E+0	1.052740E+0	9.945897E-1	1.037624E+0	1.005557E+0	1.021958E+0	1.026444E+0	9.875446E-1	1.037245E+0	1.035317E+0	9.666024E-1	9.713310E-1	1.004384E+0	1.003383E+0	9.727568E-1	1.015395E+0	1.024018E+0	1.021908E+0	9.455478E-1	1.010177E+0	1.046815E+0	1.020378E+0	9.797383E-1	9.897658E-1	1.018861E+0	1.026130E+0	9.801524E-1	1.068280E+0	9.951368E-1	1.018231E+0	9.774415E-1	1.040015E+0	1.023340E+0	1.014569E+0	9.895635E-1	1.032431E+0	1.001475E+0	9.675870E-1	1.012207E+0	1.046158E+0	9.854481E-1	1.006886E+0	9.529648E-1	1.093847E+0	1.005871E+0	1.023734E+0	1.009678E+0	1.011239E+0	1.031104E+0	1.038315E+0	1.019461E+0	1.023876E+0	9.846462E-1	1.013037E+0	1.025565E+0	9.953009E-1	1.000300E+0	9.882493E-1	8.403100E-1	9.816343E-1	1.005092E+0	1.003568E+0	9.841643E-1	1.076347E+0	1.033419E+0	1.013079E+0	1.055916E+0	1.017531E+0	9.918840E-1	1.048121E+0	1.006801E+0	9.976546E-1	9.779275E-1	1.038268E+0	9.845485E-1	1.063341E+0	1.003816E+0	1.038050E+0	9.989066E-1	1.032143E+0	1.020129E+0	9.697465E-1	1.013353E+0	1.017481E+0	1.075879E+0	9.895333E-1	1.015653E+0	1.035924E+0	9.780596E-1	9.853942E-1	1.032273E+0	9.825311E-1	1.033662E+0	1.016420E+0	9.921222E-1	9.689494E-1	9.939953E-1	1.025003E+0	9.947628E-1	9.879148E-1	1.027531E+0	1.023373E+0	1.036627E+0	9.993164E-1	9.857847E-1	1.030038E+0	1.005130E+0	1.086833E+0	1.037103E+0	9.826040E-1	1.045135E+0	1.031480E+0	9.989911E-1	9.811341E-1	9.955884E-1	9.815172E-1	1.051284E+0	9.794741E-1	1.011887E+0	1.037806E+0	9.885640E-1	1.039373E+0	9.984740E-1	1.035861E+0	9.976200E-1	9.968167E-1	9.907964E-1	1.024930E+0	1.015690E+0	1.036311E+0	9.740119E-1	9.821465E-1	1.027015E+0	9.993015E-1	1.054716E+0
5.585100E+2	1.011480E+0	1.016132E+0	1.031498E+0	1.001937E+0	1.010968E+0	1.031365E+0	1.059141E+0	1.044912E+0	1.035657E+0	1.055529E+0	1.018637E+0	1.034311E+0	1.046366E+0	1.020385E+0	9.922793E-1	1.016524E+0	1.015334E+0	1.011966E+0	1.072519E+0	1.000570E+0	1.037752E+0	1.039336E+0	9.919784E-1	1.019863E+0	1.029371E+0	1.005402E+0	9.959603E-1	1.025057E+0	1.041852E+0	9.601972E-1	1.105368E+0	1.045321E+0	1.035385E+0	9.746880E-1	1.047782E+0	1.035707E+0	9.969131E-1	1.026586E+0	1.040908E+0	9.964807E-1	9.919001E-1	1.039344E+0	1.032439E+0	1.025135E+0	1.013179E+0	1.051504E+0	9.920716E-1	1.046421E+0	9.865563E-1	9.922988E-1	1.028699E+0	1.042208E+0	1.067910E+0	1.043213E+0	1.016317E+0	9.885843E-1	1.036370E+0	1.036331E+0	9.987204E-1	9.640092E-1	1.050013E+0	1.025820E+0	1.030018E+0	1.031070E+0	1.042322E+0	9.883534E-1	1.023730E+0	1.001556E+0	1.046197E+0	1.003925E+0	1.022588E+0	1.021546E+0	1.026803E+0	1.027413E+0	1.028426E+0	1.059235E+0	1.024361E+0	1.047340E+0	9.978341E-1	1.009353E+0	1.018480E+0	1.021872E+0	1.006122E+0	1.063872E+0	1.023600E+0	1.062441E+0	1.073257E+0	1.012155E+0	1.049669E+0	1.006446E+0	1.035290E+0	1.002398E+0	1.014224E+0	9.088179E-1	1.061695E+0	1.016971E+0	1.035976E+0	1.003801E+0	1.023191E+0	1.037917E+0	1.027781E+0	1.002832E+0	1.057798E+0	1.028645E+0	1.054899E+0	9.954028E-1	1.046275E+0	1.042623E+0	1.004262E+0	1.051819E+0	9.860061E-1	1.012720E+0	1.044500E+0	1.005864E+0	9.632242E-1	1.045676E+0	1.014934E+0	1.032963E+0	1.028726E+0	1.022101E+0	1.064097E+0	1.050548E+0	1.045546E+0	1.046395E+0	1.002227E+0	1.050609E+0	1.038469E+0	9.988745E-1	1.032183E+0	1.032650E+0	1.005885E+0	1.049371E+0	1.063618E+0	9.961461E-1	1.043201E+0	1.026311E+0	1.027022E+0	9.852081E-1	1.040324E+0	1.068707E+0	1.001365E+0	1.071069E+0	1.012475E+0	1.010164E+0	1.019744E+0	1.011705E+0	9.678045E-1	1.042070E+0	9.920819E-1	1.011671E+0	1.014509E+0	1.010183E+0	1.023458E+0	1.009090E+0	9.927896E-1	1.026195E+0	1.051328E+0	1.032526E+0	1.035860E+0	1.036268E+0	1.036293E+0	1.032749E+0	1.009841E+0	1.003635E+0	1.030620E+0	1.027938E+0	9.821461E-1	1.074604E+0	1.073483E+0	9.912722E-1
5.590100E+2	1.025236E+0	9.810150E-1	9.965105E-1	1.038842E+0	1.054152E+0	1.017805E+0	1.081616E+0	1.010477E+0	1.012627E+0	1.037403E+0	1.028372E+0	1.067884E+0	1.043728E+0	9.784869E-1	1.034944E+0	1.051092E+0	1.030327E+0	9.948586E-1	9.983594E-1	1.056421E+0	9.766716E-1	1.018155E+0	1.019469E+0	1.002811E+0	1.082854E+0	9.814549E-1	1.010099E+0	1.017774E+0	1.034095E+0	1.009144E+0	1.022130E+0	1.021965E+0	1.022216E+0	1.045692E+0	1.016254E+0	9.922374E-1	1.014921E+0	1.022668E+0	1.037624E+0	1.048994E+0	9.679908E-1	1.015480E+0	1.009016E+0	9.930804E-1	1.002109E+0	9.979782E-1	1.036598E+0	9.736918E-1	1.035168E+0	1.009145E+0	1.010073E+0	9.876323E-1	9.998249E-1	1.055421E+0	1.012018E+0	1.005309E+0	1.014621E+0	1.013275E+0	1.003198E+0	1.025239E+0	1.020888E+0	9.762934E-1	1.008065E+0	1.022876E+0	9.895827E-1	9.710227E-1	1.002233E+0	1.057376E+0	9.842326E-1	1.008920E+0	1.018282E+0	1.023265E+0	1.103472E+0	9.919312E-1	1.017919E+0	1.015484E+0	1.028579E+0	1.010441E+0	1.011099E+0	1.007264E+0	9.876171E-1	1.018484E+0	1.022113E+0	1.022366E+0	9.995222E-1	9.735668E-1	1.009315E+0	1.040304E+0	9.969703E-1	1.063039E+0	1.026260E+0	1.030373E+0	1.032777E+0	9.122092E-1	1.039371E+0	1.010682E+0	1.002894E+0	1.013935E+0	9.865572E-1	1.009426E+0	9.936996E-1	1.056556E+0	9.989955E-1	1.021961E+0	1.022366E+0	1.013506E+0	1.002075E+0	1.015984E+0	1.035882E+0	1.043904E+0	1.036918E+0	1.014775E+0	1.062558E+0	1.003777E+0	1.047683E+0	1.002322E+0	1.079680E+0	1.018583E+0	1.032694E+0	1.053041E+0	1.018711E+0	1.003091E+0	9.929437E-1	1.045042E+0	9.941223E-1	9.563146E-1	1.048875E+0	1.010689E+0	1.014449E+0	1.002752E+0	1.011568E+0	9.979986E-1	1.028739E+0	9.906127E-1	1.000571E+0	1.014724E+0	1.030671E+0	1.055645E+0	9.924820E-1	1.009003E+0	1.036410E+0	9.777095E-1	1.027483E+0	1.015690E+0	1.037403E+0	1.043824E+0	1.064391E+0	1.010291E+0	1.063929E+0	9.962326E-1	1.028740E+0	1.009542E+0	1.030789E+0	1.040555E+0	1.034395E+0	1.002248E+0	9.882354E-1	1.038535E+0	1.051244E+0	1.026940E+0	1.051573E+0	1.017016E+0	1.024274E+0	1.014350E+0	1.009123E+0	1.009745E+0	1.131983E+0	9.900707E-1	1.018051E+0	1.022994E+0
5.595170E+2	9.883128E-1	9.796380E-1	9.747262E-1	1.001183E+0	9.677826E-1	9.945570E-1	9.409633E-1	9.447936E-1	9.970654E-1	9.554999E-1	9.861847E-1	9.736211E-1	9.814531E-1	9.821304E-1	1.000812E+0	9.925930E-1	9.775552E-1	9.742144E-1	9.845609E-1	9.972455E-1	9.592201E-1	1.011499E+0	9.744315E-1	9.621476E-1	9.793610E-1	1.006662E+0	9.910423E-1	1.003207E+0	9.672692E-1	9.652177E-1	1.031380E+0	1.002501E+0	9.695422E-1	9.610088E-1	1.014883E+0	9.949539E-1	1.010719E+0	9.991606E-1	9.594673E-1	1.015282E+0	1.014443E+0	9.838754E-1	9.842923E-1	9.909434E-1	1.008260E+0	9.143085E-1	9.792609E-1	9.917073E-1	9.547716E-1	9.444551E-1	1.003422E+0	9.794797E-1	9.458461E-1	9.686077E-1	9.911395E-1	9.625662E-1	9.768801E-1	9.832317E-1	1.022387E+0	1.014396E+0	9.818580E-1	9.544245E-1	9.760752E-1	9.863105E-1	9.928374E-1	9.716654E-1	9.677090E-1	9.913454E-1	9.861686E-1	9.914368E-1	9.715241E-1	9.940192E-1	9.981311E-1	9.875869E-1	9.739190E-1	9.632465E-1	9.936302E-1	9.586415E-1	9.934118E-1	1.000298E+0	1.009943E+0	9.134808E-1	9.926900E-1	9.510039E-1	9.486911E-1	9.597255E-1	9.922223E-1	1.012795E+0	9.905439E-1	9.781492E-1	1.010135E+0	9.961036E-1	9.888685E-1	1.060755E+0	1.012427E+0	9.890188E-1	1.004919E+0	1.036105E+0	9.879935E-1	1.001178E+0	1.019761E+0	9.740522E-1	9.638423E-1	1.021293E+0	9.654340E-1	9.759577E-1	1.008389E+0	1.009133E+0	9.744312E-1	9.515734E-1	9.415392E-1	9.853231E-1	9.690437E-1	9.641189E-1	9.348456E-1	9.845166E-1	9.913286E-1	1.002895E+0	9.632432E-1	9.653757E-1	9.389587E-1	9.723827E-1	9.371335E-1	9.814417E-1	9.866418E-1	9.857812E-1	9.558632E-1	9.864041E-1	9.763560E-1	1.000759E+0	9.938107E-1	9.733129E-1	9.346920E-1	1.024506E+0	9.772581E-1	9.994772E-1	9.747165E-1	9.992953E-1	1.012302E+0	9.559326E-1	9.459312E-1	1.007088E+0	9.483477E-1	9.970399E-1	9.619029E-1	9.854855E-1	9.942765E-1	9.453188E-1	9.996089E-1	1.005238E+0	1.009334E+0	9.755046E-1	1.035187E+0	9.734289E-1	9.655075E-1	9.714593E-1	9.908916E-1	9.871229E-1	9.526524E-1	9.702996E-1	9.573401E-1	9.930434E-1	9.770383E-1	9.708220E-1	9.781410E-1	9.915538E-1	9.613171E-1	9.881919E-1	1.014790E+0	9.889223E-1
5.600130E+2	9.955528E-1	1.016821E+0	1.016315E+0	9.936519E-1	9.588718E-1	1.010701E+0	9.242880E-1	9.696640E-1	9.846165E-1	9.474442E-1	9.608718E-1	1.000092E+0	9.608727E-1	9.930605E-1	9.780588E-1	9.580248E-1	9.535676E-1	9.653666E-1	9.575387E-1	9.965804E-1	9.978635E-1	1.036310E+0	1.000168E+0	1.002155E+0	9.807501E-1	9.732623E-1	9.762888E-1	1.010491E+0	1.012615E+0	9.903183E-1	9.712638E-1	9.447642E-1	9.689152E-1	9.623116E-1	9.600510E-1	9.881623E-1	9.891097E-1	9.815296E-1	9.909930E-1	9.835138E-1	9.488632E-1	9.580762E-1	1.008365E+0	9.339572E-1	9.565983E-1	9.462999E-1	1.010980E+0	9.616813E-1	1.046385E+0	9.889294E-1	9.688302E-1	9.713239E-1	1.005345E+0	9.658944E-1	1.027984E+0	1.010885E+0	1.033172E+0	9.531889E-1	9.865683E-1	1.003553E+0	1.014480E+0	9.602129E-1	9.691755E-1	1.000811E+0	9.186125E-1	9.248050E-1	9.683604E-1	9.266751E-1	9.997234E-1	9.733298E-1	9.469148E-1	9.722285E-1	9.713269E-1	9.564495E-1	1.018576E+0	9.854478E-1	9.387963E-1	9.763811E-1	9.668827E-1	1.016319E+0	1.027674E+0	9.520951E-1	1.015716E+0	9.735774E-1	9.948407E-1	9.597251E-1	1.012481E+0	9.878450E-1	9.661217E-1	9.857971E-1	9.914308E-1	1.010091E+0	1.040817E+0	1.100776E+0	9.408339E-1	1.017670E+0	9.738618E-1	9.930323E-1	9.793739E-1	9.599401E-1	1.026443E+0	9.369573E-1	9.862125E-1	1.007257E+0	9.573008E-1	9.705939E-1	9.749229E-1	9.817327E-1	9.887491E-1	9.911439E-1	1.029184E+0	1.010665E+0	9.232541E-1	9.961237E-1	9.666023E-1	9.504535E-1	9.562579E-1	9.774027E-1	9.976366E-1	1.002947E+0	9.953685E-1	9.612164E-1	9.967921E-1	9.956501E-1	1.039006E+0	1.021796E+0	9.877345E-1	9.949367E-1	9.862074E-1	1.006074E+0	1.003045E+0	9.506288E-1	9.876323E-1	9.823123E-1	1.017223E+0	9.793515E-1	9.850550E-1	9.683031E-1	9.535246E-1	1.029568E+0	9.867106E-1	1.001213E+0	9.517593E-1	9.956581E-1	1.005740E+0	9.756533E-1	9.713818E-1	1.052663E+0	9.934508E-1	9.994487E-1	9.957490E-1	9.966971E-1	9.706780E-1	1.013286E+0	9.989282E-1	1.010459E+0	9.716320E-1	9.757726E-1	9.680351E-1	9.389813E-1	9.942697E-1	9.997859E-1	1.003280E+0	9.942597E-1	9.699214E-1	1.009746E+0	1.007679E+0	1.006977E+0	9.520200E-1	1.015945E+0
5.605090E+2	9.861410E-1	9.830811E-1	1.014994E+0	9.672909E-1	1.036330E+0	9.809964E-1	9.685137E-1	9.977225E-1	1.005158E+0	9.769827E-1	1.024478E+0	9.968641E-1	1.000980E+0	1.054997E+0	1.015604E+0	1.015860E+0	9.931466E-1	1.036151E+0	9.960566E-1	9.899316E-1	1.045232E+0	9.776084E-1	1.015375E+0	9.805116E-1	9.592179E-1	1.031239E+0	1.014402E+0	1.009884E+0	9.642854E-1	1.078170E+0	9.938061E-1	1.041427E+0	1.019708E+0	1.089987E+0	1.006658E+0	9.922376E-1	9.572936E-1	9.874068E-1	9.995308E-1	9.744376E-1	1.029472E+0	1.001935E+0	9.894968E-1	1.008039E+0	1.025479E+0	1.076110E+0	1.006709E+0	1.009056E+0	9.921650E-1	1.059010E+0	1.010073E+0	1.042834E+0	9.881703E-1	1.010658E+0	1.004036E+0	1.003451E+0	9.909535E-1	1.017467E+0	1.006396E+0	9.958995E-1	9.806925E-1	1.066985E+0	9.704299E-1	9.982889E-1	1.035810E+0	1.072444E+0	1.030895E+0	9.981524E-1	1.025542E+0	9.983050E-1	1.020126E+0	1.015811E+0	9.476403E-1	1.004965E+0	9.909939E-1	9.991603E-1	1.026169E+0	1.000507E+0	9.656197E-1	1.002388E+0	9.475612E-1	1.012387E+0	9.811769E-1	9.808593E-1	1.022931E+0	1.004163E+0	9.510718E-1	9.820868E-1	9.886156E-1	1.002622E+0	9.946570E-1	9.856128E-1	9.764996E-1	1.037694E+0	9.985704E-1	9.960069E-1	9.995174E-1	9.613610E-1	9.685995E-1	9.741859E-1	9.616229E-1	9.970760E-1	9.951608E-1	9.544539E-1	9.884778E-1	1.025574E+0	9.881833E-1	1.010656E+0	9.619024E-1	9.687204E-1	9.795615E-1	9.634051E-1	1.030311E+0	1.012822E+0	1.014575E+0	1.005419E+0	1.009538E+0	9.584461E-1	9.553059E-1	9.580090E-1	9.986107E-1	9.989033E-1	1.004491E+0	1.026097E+0	1.035890E+0	9.838165E-1	9.994425E-1	1.034975E+0	9.789825E-1	1.019362E+0	1.015119E+0	1.027355E+0	9.801579E-1	1.031422E+0	1.021220E+0	9.824010E-1	1.015466E+0	9.690080E-1	1.010936E+0	9.818044E-1	1.022392E+0	1.002518E+0	9.926905E-1	1.035721E+0	1.007567E+0	9.756530E-1	9.971382E-1	9.975787E-1	1.019453E+0	1.003952E+0	1.017743E+0	9.832112E-1	1.000733E+0	9.762260E-1	1.018026E+0	9.954062E-1	9.716319E-1	9.844523E-1	9.799219E-1	1.004284E+0	9.707115E-1	9.728168E-1	9.895034E-1	1.004305E+0	1.014813E+0	1.036384E+0	9.928970E-1	9.305842E-1	9.618032E-1	9.513256E-1
5.610010E+2	9.875894E-1	9.761952E-1	9.450210E-1	9.477084E-1	9.705251E-1	9.880994E-1	9.554631E-1	1.007288E+0	9.578513E-1	9.742981E-1	9.472413E-1	9.264896E-1	9.571764E-1	1.007026E+0	9.780576E-1	9.320986E-1	1.007539E+0	1.017865E+0	9.868602E-1	9.999049E-1	9.461311E-1	9.231435E-1	9.679967E-1	9.851026E-1	9.564401E-1	1.063378E+0	9.941158E-1	9.655804E-1	9.714457E-1	1.026087E+0	9.169277E-1	9.570897E-1	9.689154E-1	1.033966E+0	9.627928E-1	9.480885E-1	9.783040E-1	9.880597E-1	9.338525E-1	9.757339E-1	1.025373E+0	9.748458E-1	9.888460E-1	1.011601E+0	9.590584E-1	1.047197E+0	1.003050E+0	1.013059E+0	9.815702E-1	1.033404E+0	9.635087E-1	9.525041E-1	9.709954E-1	1.010658E+0	9.383285E-1	9.823891E-1	9.276251E-1	1.016768E+0	9.929639E-1	9.780413E-1	9.259383E-1	1.036112E+0	9.779573E-1	9.655074E-1	1.002604E+0	1.094268E+0	9.670573E-1	1.001556E+0	9.435684E-1	1.034520E+0	9.881346E-1	9.716553E-1	9.850397E-1	1.019447E+0	9.240081E-1	9.919782E-1	9.815786E-1	1.053725E+0	9.713061E-1	9.585077E-1	9.849907E-1	1.072002E+0	9.709425E-1	9.772184E-1	9.721002E-1	1.020918E+0	9.377769E-1	9.801686E-1	9.950423E-1	9.383806E-1	9.469268E-1	9.751223E-1	9.585649E-1	1.139438E+0	9.654682E-1	9.645601E-1	9.792630E-1	1.007601E+0	9.779379E-1	9.839331E-1	9.576136E-1	9.766101E-1	9.804602E-1	9.745060E-1	9.634007E-1	1.012165E+0	9.825010E-1	9.619443E-1	9.965058E-1	1.008291E+0	9.634503E-1	1.009295E+0	9.322830E-1	1.018388E+0	1.040927E+0	9.914841E-1	9.785142E-1	9.963584E-1	1.004913E+0	9.226475E-1	9.947207E-1	9.982054E-1	9.871701E-1	9.273151E-1	9.567195E-1	9.694103E-1	9.870846E-1	9.404591E-1	9.954026E-1	9.462793E-1	1.001623E+0	1.007339E+0	9.801576E-1	9.802375E-1	9.526120E-1	9.702040E-1	9.436962E-1	9.859131E-1	9.911151E-1	9.692001E-1	9.771527E-1	9.352731E-1	9.804115E-1	9.086244E-1	9.850391E-1	9.625435E-1	9.735283E-1	9.530870E-1	9.503423E-1	9.878689E-1	9.524073E-1	9.735778E-1	9.596814E-1	9.755269E-1	9.525477E-1	1.005669E+0	9.869075E-1	9.831171E-1	9.764259E-1	1.025607E+0	9.929964E-1	9.937927E-1	9.711340E-1	9.969387E-1	9.610698E-1	9.506221E-1	9.418311E-1	9.825568E-1	9.805516E-1	9.748239E-1
