Photon Energy (eV)	#1	#2	#3	#4	#5	#6	#7	#8	#9	#10	#11	#12	#13	#14	#15	#16	#17	#18	#19	#20	#21	#22	#23	#24	#25	#26	#27	#28	#29	#30	#31	#32	#33	#34	#35	#36	#37	#38	#39	#40	#41	#42	#43	#44	#45	#46	#47	#48	#49	#50	#51	#52	#53	#54	#55	#56	#57	#58	#59	#60	#61	#62	#63	#64	#65	#66	#67	#68	#69	#70	#71	#72	#73	#74	#75	#76	#77	#78	#79	#80	#81	#82	#83	#84	#85	#86	#87	#88	#89	#90	#91	#92	#93	#94	#95	#96	#97	#98	#99	#100	#101	#102	#103	#104	#105	#106	#107	#108	#109	#110	#111	#112	#113	#114	#115	#116	#117	#118	#119	#120	#121	#122	#123	#124	#125	#126	#127	#128	#129	#130	#131	#132	#133	#134	#135	#136	#137	#138	#139	#140	#141	#142	#143	#144	#145	#146	#147	#148	#149	#150	#151	#152	#153	#154	#155	#156	#157	#158	#159	#160	#161	#162	#163	#164	#165	#166	#167	#168	#169	#170	#171	
5.300270E+2	-1.374851E-2	-8.804346E-3	4.354729E-3	-1.529891E-2	-3.665132E-3	-8.199407E-3	-6.655764E-3	4.241229E-3	-1.301796E-2	-6.725618E-3	-7.759729E-3	-5.032530E-3	-8.759327E-3	-2.319769E-3	-9.458236E-3	-1.454191E-2	-1.590309E-2	4.006197E-4	-7.786130E-3	-1.674224E-2	-8.924837E-3	-7.955309E-3	-1.454343E-2	-8.974013E-3	-1.017705E-2	-1.107714E-3	-6.955712E-3	-1.422078E-2	-1.291690E-2	-1.153559E-2	-1.512064E-2	5.496946E-3	-8.069231E-3	-1.430124E-3	-1.167623E-2	-5.293153E-3	-1.972408E-2	-5.147581E-3	-5.752696E-3	-1.710641E-2	-1.063927E-2	-8.171300E-3	-5.518861E-3	-1.118699E-2	-6.412832E-4	-1.171101E-2	-1.064430E-2	-6.241538E-3	-1.342979E-2	-2.206522E-3	-6.903775E-3	-1.324850E-2	-6.511629E-3	-1.240910E-2	-9.902061E-3	-1.399245E-2	-7.803115E-3	-6.376696E-3	-1.644308E-2	-9.194475E-3	-6.842572E-3	-1.789732E-2	-9.463936E-4	-2.028586E-3	-9.838132E-3	-7.558005E-3	-2.928478E-3	-5.972621E-3	-6.465216E-3	-1.691411E-2	-3.554953E-3	-6.576180E-3	-1.703795E-3	-6.210363E-3	-6.805282E-3	-5.244770E-3	-7.710216E-3	-1.130963E-2	-1.181687E-2	-1.222474E-2	-1.003089E-2	-7.774557E-3	-1.105595E-2	-6.562822E-3	-7.813731E-3	-9.577568E-3	-2.603654E-3	-5.455606E-3	-6.985391E-3	-1.116961E-3	-7.852758E-3	-1.489485E-2	-7.399753E-3	-9.694214E-3	-1.116830E-2	-9.631230E-3	-2.086570E-2	-1.153377E-2	-8.711140E-3	-2.133641E-2	-1.051253E-2	-1.459747E-2	-1.356511E-2	-1.065380E-2	-6.456508E-3	-7.052051E-3	-1.178950E-3	1.298131E-3	-3.088471E-3	-9.591177E-3	-8.292349E-3	-6.749109E-3	-6.763733E-3	-5.027200E-3	-1.153079E-2	-5.952384E-3	-1.739767E-3	-3.876904E-3	-1.160437E-3	-1.330551E-2	-9.706128E-3	-5.730452E-3	-5.553047E-3	-3.059568E-3	-1.458684E-2	-4.147829E-3	-7.022618E-3	-7.519755E-3	-5.893573E-3	-1.096769E-2	-8.343072E-3	-1.301890E-2	-8.693548E-3	-5.039459E-3	-8.221139E-3	1.389161E-3	-1.091528E-2	-6.139968E-3	-2.504540E-3	-8.160848E-3	-1.027493E-2	-1.346074E-2	-1.689962E-2	-1.815297E-3	-4.486948E-3	-1.168343E-2	-5.724760E-3	-6.191459E-3	-7.977909E-3	-1.228784E-2	-6.054672E-3	-1.094055E-2	-4.172191E-3	-5.484839E-3	-1.378300E-2	-4.942145E-3	-1.447991E-2	-4.993402E-3	-8.800364E-3	-6.960896E-3	-1.683718E-2	-2.673308E-3	-1.288272E-2	-1.945594E-2	-2.010148E-2	-1.432680E-2	-8.697367E-3	2.934732E-4	-1.111896E-2	-1.148240E-2	-1.034608E-4
5.305230E+2	-7.085041E-3	-3.174807E-3	-4.069193E-3	-3.028864E-3	-8.068451E-3	-7.994586E-3	-2.681028E-3	-6.194491E-3	4.603172E-3	-3.901332E-3	-8.149814E-3	-9.828232E-3	-9.568399E-3	-1.086264E-2	5.828078E-4	-5.089313E-3	-1.211270E-2	-9.233932E-3	-1.679800E-2	-1.300942E-3	-1.775191E-3	-1.364072E-2	-1.143345E-2	-5.577410E-3	-2.244581E-3	-7.932765E-4	-9.046127E-3	1.862762E-4	2.654062E-3	-8.422907E-3	-7.336580E-3	-1.235733E-2	6.619884E-3	-1.236862E-2	-8.659563E-3	8.633062E-4	4.677613E-4	-5.458811E-3	-1.385188E-2	8.324483E-4	-8.322197E-3	-1.223887E-2	-3.844039E-3	-2.252259E-3	-9.329301E-4	-1.117868E-3	-1.158435E-2	-7.254573E-3	1.692795E-3	-6.891640E-3	-1.060532E-2	-3.698903E-3	-1.336188E-2	-6.210033E-3	-8.399835E-3	-3.774865E-3	-6.809740E-3	-7.997846E-3	6.521589E-3	-4.470522E-3	-4.808862E-3	-1.103658E-2	-1.798944E-2	-3.539607E-3	-1.086283E-2	-5.509630E-3	-1.924543E-3	-8.324754E-3	-1.058247E-2	-9.534187E-3	-1.206867E-2	-9.139346E-3	-9.561427E-3	-7.230158E-3	-3.893106E-3	-7.498949E-3	-1.158175E-2	-4.711525E-3	-7.186801E-3	3.890990E-3	-3.169966E-3	-7.462605E-3	-6.889874E-3	-9.129324E-3	-2.253080E-3	-9.316256E-3	-2.279809E-3	-3.217283E-3	-8.638336E-3	-4.396538E-3	-1.752097E-3	-1.189173E-2	-9.077503E-4	-4.255417E-3	1.287623E-3	-5.247939E-3	-9.820494E-3	1.062641E-3	-3.302981E-3	-1.076811E-2	-5.647367E-3	-6.312233E-3	-7.554249E-3	-7.698940E-3	-3.449083E-3	-4.971539E-3	2.940981E-3	-1.365290E-3	-1.692322E-2	-8.711051E-3	-2.880237E-4	-4.458833E-3	-8.362634E-3	-7.256289E-3	-5.136198E-3	-1.169001E-2	-1.071425E-2	-1.274484E-2	-1.706760E-2	-8.008690E-3	-2.321010E-3	-5.427589E-3	-1.053670E-2	-1.282244E-2	-5.591974E-3	-1.125072E-2	-9.363595E-3	-1.169685E-2	5.409489E-3	-1.163422E-3	-1.251322E-2	-6.855964E-3	5.603809E-3	-6.073790E-3	1.944432E-4	-1.105326E-2	-3.300922E-3	-3.746936E-3	-8.283367E-3	-9.198102E-3	-5.013669E-3	-8.329034E-3	-6.612522E-3	-8.460038E-3	-1.133822E-3	-1.210524E-3	-6.151477E-3	-6.591678E-3	-1.765281E-3	-4.958449E-3	-5.769724E-3	-1.197088E-2	-1.206978E-2	-5.250899E-3	-6.644942E-3	2.041043E-3	-1.421991E-2	-9.298891E-3	7.959608E-4	-1.370364E-2	-6.344058E-3	-9.588670E-3	-4.867237E-3	-2.923668E-3	-1.238544E-2	-8.725156E-3	-1.317676E-2	-1.448707E-2	-5.067615E-3	1.624899E-3	-3.946936E-3
5.310050E+2	-4.625150E-3	-3.640915E-3	7.683728E-3	1.839904E-3	-3.896921E-3	-5.775577E-3	-6.932847E-3	-1.426614E-2	-1.325361E-2	-5.538921E-3	-9.834586E-3	-6.460346E-3	-1.310860E-2	-5.882758E-3	-2.412610E-3	-2.106116E-3	-5.875165E-3	-1.256795E-2	-4.856820E-3	9.698503E-4	-1.283616E-2	-8.010949E-3	-3.533678E-3	-9.807443E-3	-8.997041E-3	-9.098999E-3	-1.006424E-2	-3.789452E-3	-1.184597E-2	-2.424643E-3	-8.755724E-3	-8.398104E-3	-1.637046E-2	-4.626167E-3	-7.631518E-3	-1.112172E-2	-2.795992E-3	-1.400427E-2	6.235354E-3	-1.462238E-2	-4.524077E-3	-1.129805E-2	-4.695421E-3	-2.005883E-2	-1.824093E-3	-5.359528E-3	-4.971175E-3	1.403735E-3	-8.580212E-3	-2.336481E-4	-1.357177E-2	-1.009121E-2	-1.668035E-2	-1.115996E-2	-5.701427E-5	-4.660593E-3	-5.175058E-3	-4.953622E-3	-6.316393E-3	-1.472373E-3	3.083632E-3	5.771805E-3	-8.002273E-3	-4.388748E-3	-5.982768E-3	-7.546970E-3	-5.593754E-3	2.039060E-3	-3.096177E-3	-1.638492E-2	-5.400197E-3	-8.232269E-3	-9.881725E-3	-7.510989E-3	-9.413082E-3	-1.945918E-3	-6.508192E-3	4.560996E-3	-1.204420E-3	-3.692769E-3	-9.489065E-3	-7.759870E-3	-1.987513E-3	-3.780862E-3	-8.543873E-3	-1.210647E-3	-1.713441E-2	-9.251690E-4	-1.483758E-2	-1.208248E-2	-2.693467E-3	8.515973E-3	-8.030298E-3	-3.915515E-3	-6.031212E-3	-4.241710E-3	-8.135459E-3	-6.871327E-3	-1.031825E-2	-8.242228E-3	-1.907559E-3	-4.765057E-3	-7.967005E-4	7.622053E-4	-9.308214E-3	-7.052302E-3	-8.175830E-3	-8.568059E-3	-3.657525E-3	-1.435448E-2	-1.157554E-2	-2.798582E-3	-5.531810E-3	-9.499654E-3	-6.942368E-4	-8.707155E-3	-1.578032E-2	-9.170419E-3	-1.124201E-3	-6.254831E-3	5.834534E-3	1.709868E-4	-3.550452E-3	-1.323993E-2	-4.623140E-3	-1.383719E-2	-6.439965E-3	-3.127281E-3	1.225708E-3	-7.426202E-3	-5.477250E-3	-5.909660E-4	-1.002066E-2	-2.457460E-3	-8.273341E-3	-8.334657E-3	-1.036910E-2	-8.308527E-3	-7.994914E-3	-3.086038E-3	-1.229315E-2	7.366920E-3	-1.581157E-2	-1.881076E-3	-6.331167E-3	-9.200221E-3	-7.285035E-3	-1.405213E-2	-1.274932E-2	7.673448E-3	-9.997164E-3	-7.175188E-3	-8.044269E-3	-2.289238E-3	-4.949734E-3	-7.720831E-3	-6.522667E-3	-9.595432E-3	-2.860008E-4	-1.346364E-2	-7.972316E-3	-5.362194E-3	-2.608117E-3	-1.012384E-2	-4.563685E-3	1.084927E-3	-1.428422E-2	-1.293035E-2	-3.929142E-3	-2.078166E-2	-9.462991E-3
5.315080E+2	3.328437E-3	-6.256762E-3	-1.720780E-2	-1.925346E-3	-3.779738E-3	2.711607E-3	-6.030012E-3	-1.288814E-2	-6.247782E-3	-9.998707E-3	-4.532499E-3	-6.508902E-4	1.633817E-3	-6.438058E-3	-6.929825E-4	-9.358373E-3	-5.180031E-3	3.494505E-3	-7.064643E-3	-1.032465E-2	-6.459035E-3	4.146654E-4	4.670953E-3	-4.612903E-3	-1.095393E-2	-7.802006E-3	-1.474996E-3	-1.253244E-3	-4.670627E-3	4.663585E-3	-1.642934E-3	-3.270721E-3	3.951951E-3	-2.578984E-3	-6.181773E-4	-5.957491E-3	6.393237E-3	1.302637E-3	-8.184659E-3	-1.011246E-4	-1.057206E-3	8.465075E-4	-5.317584E-3	-4.763639E-3	-2.411292E-3	-3.623672E-3	-4.937233E-3	-6.926632E-3	1.457874E-3	-3.997398E-3	7.688753E-4	-1.418959E-3	3.797719E-3	3.427807E-3	-4.296199E-3	-6.520572E-3	-1.024149E-2	-1.023110E-2	1.993415E-3	1.053144E-3	-8.517497E-3	-7.046219E-3	-9.262795E-3	-4.360722E-3	4.532625E-3	-7.515548E-3	-6.222151E-3	-6.640279E-3	-3.205505E-3	3.410597E-3	-4.718821E-3	-2.966494E-3	-4.130971E-3	-8.183700E-3	5.156647E-4	-5.872335E-3	3.711277E-3	-4.982192E-3	-1.128022E-2	-6.986371E-3	2.518973E-3	6.352538E-3	-6.447093E-4	2.742546E-3	-1.981687E-2	-4.717825E-4	-4.426756E-3	-1.212625E-2	-1.821321E-3	-3.269080E-3	-3.304616E-3	-2.545558E-3	-1.049136E-2	-9.076640E-3	-7.536523E-3	-2.134212E-3	-5.943459E-4	-6.832145E-3	-1.445166E-3	-5.976788E-3	-5.302388E-3	-9.733707E-3	-1.039128E-2	-3.224337E-3	-3.092793E-3	-9.921217E-4	-1.261013E-2	-9.290435E-3	1.728106E-3	1.200622E-3	-8.294641E-3	6.784024E-3	-1.047545E-3	-1.141529E-3	-6.133630E-3	-5.477799E-4	-1.015612E-3	-1.853346E-3	-5.000298E-3	-7.666523E-3	-2.012989E-2	-1.156881E-3	-4.166716E-3	-2.379178E-3	2.983094E-3	1.171552E-3	2.156344E-4	-1.155133E-3	-7.866242E-3	-4.968968E-3	-6.182824E-3	2.111777E-3	-5.052410E-3	9.184936E-4	-6.857830E-3	-7.057669E-3	-1.155200E-2	-6.858867E-3	-8.629418E-3	-3.689006E-3	1.654921E-3	-9.231931E-3	-2.223039E-3	-1.835121E-3	-4.429864E-3	-1.498519E-4	-9.396497E-3	-2.688936E-3	-4.054902E-3	-6.551882E-3	-1.530511E-3	6.480594E-4	-4.996721E-3	-9.479589E-3	-1.444699E-3	-9.701139E-3	-1.736058E-3	-1.070806E-2	4.846893E-4	-5.705010E-3	-2.752559E-3	5.241731E-3	-6.075608E-4	-4.595924E-3	2.423504E-3	-5.842126E-3	-1.164857E-3	1.124215E-3	-8.037995E-3	-1.005504E-4	3.774373E-3
5.320120E+2	6.396599E-3	-4.091402E-3	-5.530622E-3	4.367170E-3	-5.616962E-3	-4.919457E-3	3.150186E-3	3.870192E-3	7.149099E-3	-4.702049E-3	-3.753393E-3	-5.627343E-3	-2.050981E-3	2.079977E-3	-3.477628E-3	-3.890747E-3	-1.327525E-3	-4.623658E-3	7.846808E-3	-6.105939E-3	1.892273E-3	-6.114835E-4	-3.368221E-3	-8.347187E-3	-1.707424E-3	-2.077054E-3	-2.524786E-3	-2.288938E-3	-5.709792E-3	-6.207477E-3	-8.575489E-3	-5.605347E-3	-4.758226E-3	-4.944528E-3	-6.073529E-3	-3.238751E-3	3.502963E-3	1.655882E-4	-2.141744E-3	-6.296049E-4	-2.315510E-3	3.560964E-3	-1.251759E-3	7.038144E-3	-1.221841E-2	-5.872556E-4	2.660309E-3	1.552601E-3	-7.188363E-3	-3.229398E-3	-1.779072E-3	8.113546E-3	9.385608E-4	2.223700E-4	5.152017E-3	4.301692E-3	1.376048E-3	3.608183E-3	2.142471E-3	-1.400481E-3	-1.016445E-2	-2.678170E-3	3.267526E-3	2.637296E-3	4.032491E-3	-1.214688E-2	-8.754631E-3	7.598760E-3	-1.776990E-3	-2.947622E-5	-1.975406E-3	1.261192E-3	4.296940E-3	-3.758204E-4	7.196886E-4	5.915858E-3	3.868800E-3	-6.135530E-3	2.478934E-4	3.160450E-3	2.667922E-3	-3.739203E-3	-4.387617E-3	2.891425E-3	6.271924E-3	-1.246951E-2	-8.079041E-3	5.617011E-4	9.388886E-3	2.744483E-3	2.083468E-3	2.466341E-3	4.671068E-3	-2.565842E-3	-4.332331E-3	-2.000120E-3	-4.400295E-4	1.622527E-3	4.617808E-3	9.876293E-3	8.068881E-4	5.439703E-3	-3.812122E-3	4.393347E-3	-2.270902E-3	9.660326E-4	1.120995E-2	2.178307E-3	3.667232E-3	-2.219742E-3	2.238916E-3	-3.989936E-3	2.283761E-3	6.712091E-3	3.638244E-3	2.866196E-4	-1.535474E-3	2.274816E-3	1.090673E-2	4.140397E-3	8.359491E-4	-1.680510E-3	-4.012759E-3	3.871090E-3	-6.305055E-3	1.337964E-3	-1.023669E-2	1.556914E-3	-1.232431E-2	-9.050856E-3	8.266742E-3	-3.696838E-3	-1.215899E-3	3.073280E-3	8.032657E-4	-1.567661E-4	-3.370880E-3	3.110205E-4	-1.660436E-3	-9.413189E-4	4.344340E-3	5.745916E-3	7.427893E-3	-9.920532E-4	6.843294E-3	1.305432E-3	9.215934E-5	-1.831618E-3	-5.787342E-4	-7.072457E-3	5.652380E-4	2.754909E-3	1.926284E-3	-6.701369E-3	2.173966E-3	-3.495834E-3	-9.000982E-4	1.674951E-3	-1.304091E-2	5.392384E-3	1.101045E-2	2.104872E-3	1.995621E-4	2.418572E-3	6.384140E-3	-6.008065E-4	-2.388907E-3	1.302331E-3	-3.892137E-4	-1.736591E-2	2.485391E-3
5.325120E+2	8.986540E-3	3.068449E-3	9.139543E-3	8.987463E-4	3.446831E-3	1.375971E-2	5.052007E-3	1.134216E-2	-3.220760E-3	1.648186E-4	1.265142E-2	5.047764E-3	1.038750E-2	4.858779E-3	3.268124E-3	7.346094E-3	1.132069E-2	5.887850E-3	7.526368E-3	1.331165E-2	2.917855E-3	1.612687E-2	8.429097E-3	1.997977E-2	1.139560E-2	3.298011E-3	1.309609E-2	9.399729E-3	7.842597E-3	1.716019E-3	1.313921E-2	6.203111E-3	1.332306E-3	1.009247E-2	8.325043E-3	-2.830937E-4	6.382421E-3	8.950448E-3	1.536879E-3	1.308111E-2	9.235663E-3	1.236104E-2	4.415286E-3	1.115364E-2	7.453623E-3	2.108537E-3	9.934884E-3	-4.557928E-5	1.325485E-3	5.407522E-3	1.026012E-2	4.148276E-3	1.895670E-2	1.471229E-2	1.812341E-3	1.106107E-2	1.079509E-2	6.681975E-3	-2.609351E-3	1.001047E-2	4.807288E-3	9.345005E-3	8.275583E-3	2.391955E-3	4.657549E-4	1.326797E-2	7.950749E-3	1.006180E-2	1.609136E-2	1.248111E-2	1.323162E-2	8.718469E-3	8.574390E-3	8.454153E-3	4.428438E-3	4.574912E-4	7.301712E-3	7.104023E-3	9.562909E-3	-3.164685E-3	2.376010E-3	4.385576E-3	7.876678E-3	-1.080125E-3	2.660734E-3	6.483481E-3	1.598971E-2	8.255345E-3	6.300454E-4	-5.346420E-4	-4.747779E-3	6.978934E-5	8.247441E-3	1.300416E-2	8.474360E-3	-3.052496E-3	7.535312E-3	5.589495E-3	3.631485E-3	1.861858E-2	1.849188E-3	7.726309E-3	1.742087E-2	4.798129E-3	1.056821E-2	6.212239E-3	1.977729E-3	4.075739E-3	7.046214E-3	1.202500E-2	1.508457E-2	2.522871E-3	3.957006E-3	6.833091E-4	5.439260E-3	1.229166E-2	1.777773E-2	1.339635E-3	2.766781E-3	9.689869E-3	2.547776E-3	7.188386E-4	6.495462E-3	9.050333E-3	7.401557E-3	1.737430E-3	1.476863E-2	3.221341E-3	5.776568E-3	7.676529E-3	9.488054E-3	5.355456E-3	2.235175E-3	-1.245685E-3	5.344791E-3	7.035573E-3	1.321492E-2	1.415567E-3	9.730430E-3	2.030907E-3	6.651599E-3	4.910645E-3	8.517614E-3	9.273708E-3	-1.451936E-3	8.204379E-3	6.269357E-3	7.832422E-3	1.391335E-2	8.987608E-3	8.789950E-3	6.454746E-3	4.242121E-5	5.631254E-3	2.575296E-3	5.752510E-3	1.109772E-2	2.063276E-3	1.740385E-3	1.883728E-2	2.324206E-3	1.818788E-3	9.088431E-3	1.320467E-2	1.063387E-2	6.836858E-3	9.105454E-3	1.201801E-2	1.512818E-2	1.913157E-2	-6.096644E-5
5.330230E+2	6.747129E-3	2.289978E-2	5.629614E-3	1.314730E-2	2.158037E-2	1.041771E-2	1.409746E-2	1.389518E-2	2.398785E-2	3.070181E-2	2.137861E-2	2.255158E-2	2.146598E-2	1.856447E-2	1.219053E-2	2.764037E-2	2.907783E-2	1.664257E-2	2.113241E-2	2.019227E-2	2.518509E-2	1.367693E-2	1.977874E-2	1.733919E-2	2.268442E-2	1.758104E-2	1.696977E-2	1.196641E-2	2.464664E-2	2.221102E-2	2.829215E-2	1.793144E-2	1.729378E-2	1.585595E-2	2.633397E-2	2.503090E-2	5.773690E-3	1.419199E-2	2.215874E-2	1.854596E-2	1.762260E-2	1.493971E-2	1.621238E-2	2.006993E-2	1.057439E-2	2.029080E-2	1.954186E-2	1.751199E-2	2.472221E-2	1.115109E-2	2.183095E-2	1.619575E-2	1.286088E-2	1.141662E-2	1.569075E-2	1.358572E-2	1.785826E-2	1.926911E-2	1.471135E-2	5.474240E-3	2.244246E-2	2.354148E-2	2.465779E-2	9.288414E-3	1.765286E-2	2.700906E-2	1.747281E-2	1.238035E-3	9.035001E-3	2.697099E-2	1.448643E-2	1.693463E-2	1.240659E-2	2.105688E-2	1.444768E-2	1.418862E-2	1.091837E-2	1.547386E-2	2.167751E-2	1.901712E-2	1.512702E-2	1.599812E-2	1.708898E-2	1.491916E-2	2.949490E-2	2.656228E-2	1.853396E-2	1.290726E-2	2.226369E-2	1.865522E-2	1.826725E-2	1.828004E-2	1.391066E-2	1.650347E-2	1.930638E-2	2.630771E-2	3.232071E-2	1.696258E-2	1.552824E-2	1.782865E-2	2.071377E-2	2.224246E-2	1.869860E-2	1.162340E-2	1.400929E-2	1.288974E-2	5.836246E-3	1.167161E-2	1.122767E-2	2.165082E-2	1.112707E-2	8.689564E-3	1.546495E-2	1.552927E-2	1.441735E-2	1.431905E-2	1.300769E-2	2.403106E-2	1.067902E-2	2.140529E-2	2.293877E-2	1.310561E-2	2.132421E-2	1.857969E-2	2.072236E-2	2.498879E-2	1.807860E-2	1.872076E-2	1.367236E-2	2.590061E-2	1.476157E-2	1.669543E-2	1.714353E-2	1.082462E-2	1.700981E-2	1.817762E-2	2.629326E-2	2.332771E-2	1.934224E-2	2.304441E-2	1.493088E-2	1.299823E-2	2.560124E-2	5.709878E-3	1.099044E-2	1.273421E-2	2.219625E-2	2.352340E-2	1.321279E-2	1.420957E-2	1.399688E-2	2.022890E-2	2.731426E-2	2.357468E-2	2.207311E-2	1.806640E-2	2.676093E-2	3.085756E-2	1.910624E-2	1.560352E-2	2.057146E-2	8.458782E-3	1.167765E-2	2.147613E-2	1.760909E-2	2.157310E-2	3.060665E-2	1.267939E-2	1.341474E-2	2.897405E-2	7.314590E-3
5.331580E+2	2.905644E-2	3.770785E-2	1.695152E-2	1.754757E-2	1.987875E-2	1.937010E-2	2.135443E-2	2.142844E-2	3.117357E-2	1.166252E-2	1.927204E-2	3.651809E-2	2.830099E-2	2.019540E-2	1.887713E-2	2.537151E-2	2.871425E-2	2.058871E-2	2.962715E-2	1.714971E-2	2.687596E-2	2.133830E-2	2.019152E-2	1.336106E-2	1.119144E-2	1.550135E-2	3.015643E-2	2.113125E-2	3.105437E-2	3.259604E-2	1.887610E-2	1.192032E-2	1.774815E-2	2.069632E-2	2.298941E-2	2.160818E-2	2.469045E-2	1.868443E-2	2.385946E-2	2.038859E-2	1.543430E-2	1.862188E-2	1.874336E-2	3.113361E-2	2.731777E-2	2.787935E-2	2.579823E-2	2.471200E-2	2.394167E-2	2.317515E-2	2.334428E-2	1.497428E-2	1.998537E-2	3.563764E-2	3.563736E-2	2.356377E-2	2.023725E-2	2.177648E-2	1.256798E-2	1.786464E-2	2.992939E-2	2.100762E-2	2.293708E-2	1.940479E-2	2.676514E-2	2.390156E-2	2.637944E-2	2.097632E-2	1.856058E-2	7.493286E-3	2.316611E-2	2.091593E-2	2.441471E-2	1.809208E-2	2.520906E-2	2.975939E-2	3.855891E-2	2.369076E-2	1.810149E-2	2.226497E-2	3.106133E-2	1.647715E-2	2.520591E-2	1.989475E-2	1.722874E-2	1.633917E-2	1.054100E-2	3.341275E-2	3.190134E-2	2.288622E-2	2.333133E-2	1.460563E-2	3.075262E-2	1.868163E-2	2.452931E-2	3.518095E-2	2.453149E-2	2.695703E-2	1.607886E-2	2.817210E-2	2.325378E-2	2.962599E-2	2.304492E-2	2.376238E-2	3.184278E-2	2.486503E-2	2.565370E-2	1.758758E-2	2.065358E-2	1.484583E-2	1.683118E-2	2.432092E-2	2.295267E-2	2.114845E-2	1.423613E-2	2.300564E-2	2.834130E-2	1.783300E-2	2.964635E-2	2.193802E-2	1.227437E-2	2.994443E-2	2.381389E-2	3.474047E-2	1.798547E-2	2.769819E-2	2.321242E-2	4.046338E-2	2.534074E-2	4.269452E-2	3.572990E-2	2.917727E-2	3.372305E-2	3.477934E-2	2.367480E-2	3.283738E-2	1.239653E-2	1.957693E-2	3.425772E-2	3.399252E-2	3.322872E-2	2.651840E-2	2.471915E-2	2.460682E-2	1.456264E-2	2.487799E-2	2.778124E-2	3.043562E-2	2.779752E-2	2.189026E-2	3.274084E-2	3.049790E-2	1.345881E-2	2.004535E-2	1.907589E-2	2.264503E-2	2.789709E-2	3.006943E-2	3.336071E-2	1.867003E-2	1.321658E-2	2.092293E-2	2.259545E-2	1.644659E-2	1.678464E-2	1.305263E-2	3.383484E-2	2.853921E-2	2.497465E-2	2.327180E-2	1.252031E-3
5.333080E+2	2.460862E-2	4.597046E-2	4.422308E-2	2.119891E-2	3.399904E-2	3.575566E-2	2.731274E-2	3.367003E-2	4.076199E-2	4.030307E-2	2.666466E-2	4.175638E-2	4.559870E-2	2.801156E-2	2.691740E-2	3.552035E-2	1.828290E-2	3.983763E-2	2.867827E-2	2.728879E-2	3.326990E-2	2.438995E-2	3.370526E-2	3.227831E-2	5.082973E-2	2.360137E-2	3.084283E-2	3.378865E-2	1.661699E-2	3.570296E-2	3.541891E-2	2.532807E-2	2.987133E-2	3.545134E-2	2.868666E-2	3.215936E-2	3.774530E-2	2.838436E-2	3.582011E-2	4.117530E-2	2.227919E-2	3.673215E-2	2.963117E-2	2.663667E-2	3.172678E-2	2.910165E-2	3.317303E-2	3.252394E-2	3.981259E-2	2.635037E-2	3.630410E-2	2.254626E-2	4.016232E-2	3.290695E-2	3.886625E-2	2.484138E-2	3.641020E-2	3.170463E-2	2.606510E-2	3.022548E-2	4.714361E-2	3.772204E-2	2.916583E-2	3.529387E-2	2.009730E-2	2.875657E-2	3.068909E-2	3.600983E-2	1.851840E-2	4.213689E-2	4.384580E-2	3.634406E-2	3.087660E-2	3.213868E-2	2.274263E-2	4.103281E-2	4.299306E-2	4.123373E-2	3.200449E-2	2.584877E-2	3.379899E-2	2.947054E-2	2.132851E-2	2.953214E-2	3.200830E-2	4.076973E-2	4.325793E-2	2.604239E-2	2.202343E-2	3.543973E-2	3.192909E-2	1.532034E-2	3.784113E-2	3.815359E-2	3.826106E-2	2.565231E-2	2.107703E-2	3.006871E-2	2.719582E-2	3.686481E-2	2.043237E-2	3.288205E-2	3.801310E-2	3.208939E-2	3.393235E-2	4.021965E-2	2.985682E-2	2.825395E-2	3.695546E-2	2.031006E-2	4.382397E-2	3.135062E-2	3.457425E-2	2.440766E-2	2.636649E-2	5.339278E-2	3.312310E-2	4.197239E-2	2.916496E-2	3.590812E-2	3.468376E-2	4.114572E-2	4.144892E-2	3.136365E-2	2.885554E-2	3.600965E-2	3.190731E-2	2.888592E-2	2.865657E-2	2.882115E-2	3.574144E-2	2.921604E-2	3.755957E-2	4.900999E-2	3.404482E-2	2.484013E-2	3.116539E-2	3.801332E-2	2.599611E-2	3.207194E-2	3.651181E-2	4.475042E-2	3.498817E-2	3.095862E-2	4.646694E-2	3.471044E-2	3.940742E-2	1.823640E-2	3.659103E-2	4.560989E-2	3.676068E-2	2.792249E-2	3.997817E-2	4.077943E-2	2.602420E-2	4.524610E-2	3.341700E-2	3.315131E-2	2.535358E-2	3.497750E-2	3.939634E-2	2.624723E-2	4.695050E-2	3.306876E-2	1.355685E-2	3.042232E-2	3.879808E-2	2.670810E-2	5.103012E-2	2.396743E-2	2.407252E-2
5.334580E+2	3.411860E-2	4.160024E-2	4.654003E-2	4.556179E-2	4.248587E-2	3.079411E-2	5.170609E-2	5.003122E-2	4.412883E-2	2.815239E-2	4.839837E-2	3.680737E-2	4.292221E-2	5.045453E-2	3.399425E-2	2.762983E-2	3.515921E-2	4.412862E-2	3.862656E-2	5.197802E-2	3.288194E-2	4.221193E-2	4.029467E-2	4.245766E-2	4.531928E-2	4.759711E-2	5.094738E-2	2.647359E-2	3.918436E-2	4.704210E-2	3.397636E-2	3.644667E-2	3.458778E-2	4.195352E-2	4.099452E-2	3.982684E-2	4.664059E-2	2.937770E-2	2.989178E-2	5.165115E-2	3.684983E-2	3.894888E-2	3.172830E-2	4.182071E-2	4.834925E-2	3.770849E-2	2.731782E-2	4.864894E-2	4.833466E-2	4.470922E-2	4.086819E-2	3.557928E-2	3.553108E-2	4.615300E-2	5.584713E-2	4.358797E-2	4.195850E-2	4.861520E-2	4.830556E-2	4.892139E-2	3.677143E-2	5.339058E-2	4.676805E-2	4.703803E-2	2.913988E-2	3.085180E-2	4.013420E-2	5.199611E-2	3.393490E-2	3.144197E-2	4.408658E-2	4.424083E-2	4.083811E-2	2.973604E-2	3.070434E-2	2.954062E-2	3.658067E-2	4.086428E-2	4.397672E-2	5.462593E-2	3.413100E-2	4.273998E-2	3.751701E-2	3.578392E-2	5.184935E-2	2.894169E-2	4.353327E-2	4.515628E-2	4.343851E-2	5.060938E-2	3.360300E-2	3.687798E-2	3.052451E-2	3.839567E-2	5.961908E-2	2.467309E-2	2.698759E-2	4.419115E-2	3.111180E-2	4.111042E-2	4.110321E-2	4.334057E-2	3.981484E-2	4.068483E-2	3.775827E-2	3.986151E-2	3.582922E-2	4.572997E-2	4.686261E-2	4.240554E-2	5.208762E-2	3.685012E-2	4.517370E-2	4.163282E-2	3.414786E-2	4.361005E-2	4.904705E-2	4.497261E-2	3.452041E-2	4.955665E-2	2.971150E-2	4.213458E-2	4.225252E-2	5.599633E-2	3.365362E-2	4.738268E-2	4.639599E-2	4.979724E-2	3.896200E-2	3.527940E-2	3.933456E-2	3.729590E-2	4.970969E-2	3.385207E-2	2.825188E-2	5.382000E-2	3.895514E-2	3.692920E-2	5.082391E-2	4.303193E-2	4.001805E-2	4.383400E-2	5.739127E-2	5.486799E-2	4.110110E-2	5.000019E-2	3.646221E-2	2.661882E-2	3.690995E-2	4.719653E-2	3.573297E-2	4.733924E-2	4.566448E-2	2.772895E-2	4.104829E-2	3.119363E-2	5.494635E-2	4.225495E-2	2.865273E-2	4.766699E-2	4.620589E-2	2.926022E-2	3.735007E-2	4.172496E-2	4.324813E-2	3.714706E-2	4.606188E-2	4.315207E-2	5.649969E-2	5.111368E-2	3.562464E-2
5.336130E+2	4.599544E-2	7.684407E-2	6.380079E-2	4.364402E-2	5.843297E-2	6.115070E-2	6.260467E-2	5.662305E-2	4.058626E-2	4.403736E-2	6.504470E-2	5.831606E-2	5.738659E-2	6.315959E-2	6.785726E-2	4.471772E-2	4.214360E-2	5.500856E-2	5.413805E-2	6.234322E-2	5.279672E-2	5.386735E-2	5.157623E-2	6.213214E-2	6.957992E-2	4.841663E-2	5.404091E-2	4.308589E-2	5.800972E-2	4.716194E-2	5.165589E-2	4.182146E-2	5.457535E-2	5.300850E-2	5.071664E-2	6.852077E-2	6.100292E-2	4.977548E-2	6.197032E-2	5.187944E-2	4.904393E-2	5.722134E-2	4.994063E-2	4.731735E-2	5.358553E-2	5.783416E-2	6.296061E-2	5.669337E-2	6.309634E-2	4.811778E-2	5.515130E-2	4.595123E-2	7.522064E-2	7.542313E-2	4.927189E-2	6.344755E-2	4.537021E-2	5.019139E-2	5.855665E-2	4.916081E-2	6.403591E-2	5.664872E-2	5.560104E-2	5.107956E-2	5.854455E-2	5.864723E-2	5.316191E-2	4.546936E-2	5.883398E-2	6.375498E-2	5.817387E-2	6.382281E-2	5.201055E-2	5.809970E-2	5.621974E-2	4.032713E-2	4.470677E-2	5.403950E-2	5.003030E-2	5.014469E-2	5.996374E-2	6.365900E-2	5.358463E-2	4.782625E-2	6.886205E-2	3.938268E-2	5.269532E-2	5.878522E-2	4.898069E-2	5.681392E-2	6.315803E-2	4.562468E-2	6.676139E-2	5.033435E-2	4.330930E-2	5.872300E-2	4.592094E-2	7.916236E-2	5.846811E-2	5.737162E-2	6.684829E-2	5.813070E-2	5.513689E-2	5.809982E-2	5.195098E-2	6.137269E-2	6.187352E-2	8.349027E-2	5.668328E-2	7.215071E-2	6.331261E-2	6.827796E-2	6.591362E-2	5.547008E-2	6.265902E-2	4.802046E-2	5.067118E-2	7.725993E-2	4.845534E-2	5.427781E-2	5.627581E-2	6.071757E-2	5.935573E-2	4.192152E-2	5.807442E-2	5.456927E-2	6.038888E-2	5.204685E-2	5.047200E-2	6.290556E-2	5.960251E-2	5.775298E-2	5.678417E-2	6.504232E-2	6.050527E-2	5.899324E-2	7.099089E-2	4.786202E-2	7.408313E-2	7.333583E-2	5.438964E-2	4.856244E-2	6.064121E-2	6.993460E-2	5.137581E-2	5.683421E-2	4.946787E-2	5.894278E-2	5.674923E-2	6.981118E-2	6.327859E-2	5.035041E-2	5.434916E-2	7.528229E-2	5.538074E-2	7.326470E-2	4.228430E-2	6.190789E-2	6.398402E-2	4.821278E-2	6.085624E-2	5.692599E-2	5.004077E-2	6.031451E-2	3.908862E-2	5.671711E-2	6.687834E-2	5.831935E-2	6.533140E-2	6.387850E-2	5.346237E-2
5.337740E+2	8.210071E-2	7.601001E-2	6.354763E-2	1.012983E-1	7.556070E-2	8.004153E-2	9.469573E-2	7.965631E-2	6.502802E-2	7.572426E-2	7.121911E-2	7.624944E-2	7.779164E-2	7.213890E-2	8.132375E-2	6.397138E-2	7.944907E-2	7.639868E-2	8.867195E-2	8.058718E-2	7.043423E-2	9.939026E-2	8.492479E-2	6.407155E-2	8.266169E-2	7.451204E-2	8.866040E-2	8.077917E-2	8.330808E-2	6.945137E-2	7.365126E-2	7.751269E-2	8.956892E-2	7.396638E-2	8.925122E-2	8.303714E-2	6.960811E-2	7.498451E-2	7.830040E-2	7.668113E-2	8.907171E-2	8.821759E-2	6.977193E-2	8.324173E-2	7.229448E-2	8.330825E-2	8.608101E-2	8.277686E-2	8.907067E-2	6.925208E-2	7.105787E-2	9.481051E-2	7.529341E-2	8.754267E-2	7.701309E-2	6.782483E-2	8.292669E-2	8.987581E-2	8.296899E-2	7.259926E-2	5.689645E-2	8.132709E-2	7.708668E-2	7.314613E-2	9.237375E-2	9.358961E-2	6.471124E-2	7.180492E-2	7.374981E-2	6.863053E-2	7.200652E-2	9.112108E-2	7.055593E-2	7.780550E-2	8.784334E-2	7.157464E-2	8.174174E-2	8.699539E-2	6.459107E-2	8.383787E-2	8.003314E-2	7.985153E-2	6.819665E-2	7.017249E-2	7.007151E-2	6.704423E-2	8.641529E-2	8.005101E-2	8.963587E-2	8.547645E-2	6.999642E-2	7.919324E-2	1.042772E-1	7.854539E-2	6.934986E-2	7.396039E-2	7.195099E-2	8.168838E-2	8.025433E-2	7.830933E-2	9.514102E-2	7.515160E-2	7.845949E-2	7.717278E-2	7.605170E-2	8.337738E-2	8.966642E-2	6.708727E-2	7.349229E-2	7.344994E-2	6.570356E-2	6.734826E-2	7.162715E-2	8.982600E-2	5.434706E-2	7.393850E-2	8.374325E-2	6.779530E-2	7.767367E-2	9.237853E-2	6.997926E-2	7.305911E-2	1.002876E-1	7.738975E-2	9.000999E-2	8.033144E-2	7.765457E-2	7.798348E-2	6.480015E-2	8.311086E-2	8.187967E-2	6.360758E-2	9.673879E-2	7.094439E-2	5.897729E-2	8.325832E-2	8.168969E-2	9.951401E-2	8.413068E-2	8.454120E-2	1.024678E-1	8.106920E-2	8.281269E-2	8.836441E-2	6.939530E-2	7.238928E-2	7.557205E-2	9.483003E-2	9.376816E-2	7.765143E-2	7.270701E-2	8.379955E-2	8.674639E-2	7.457805E-2	8.231028E-2	9.737475E-2	8.388599E-2	8.030252E-2	8.715869E-2	7.970122E-2	6.729624E-2	9.300366E-2	7.615035E-2	7.498622E-2	6.507156E-2	9.218650E-2	8.080838E-2	8.818327E-2	8.517634E-2	8.835028E-2	7.944953E-2
5.339090E+2	7.578996E-2	1.198869E-1	1.029575E-1	1.195475E-1	1.167499E-1	1.093006E-1	9.703328E-2	1.061698E-1	1.116751E-1	1.223524E-1	1.058492E-1	1.142294E-1	1.194231E-1	1.036121E-1	1.052719E-1	9.092185E-2	1.257988E-1	1.110516E-1	1.098298E-1	1.244963E-1	1.155387E-1	8.806421E-2	9.571339E-2	9.935743E-2	1.293805E-1	1.010960E-1	1.017822E-1	1.144596E-1	1.118613E-1	1.133083E-1	1.319745E-1	9.325357E-2	1.022487E-1	1.056737E-1	1.123161E-1	1.185839E-1	1.175306E-1	1.156918E-1	1.117150E-1	9.104295E-2	1.118719E-1	1.304563E-1	9.775297E-2	1.280464E-1	1.159791E-1	1.212757E-1	8.341877E-2	1.066830E-1	1.052410E-1	1.131326E-1	1.161702E-1	1.020568E-1	1.103281E-1	9.813047E-2	1.106553E-1	1.146055E-1	9.601991E-2	1.233359E-1	1.081717E-1	1.077045E-1	1.051035E-1	1.284861E-1	1.161092E-1	1.007369E-1	9.597750E-2	1.196319E-1	1.201146E-1	1.083824E-1	1.060000E-1	1.054203E-1	1.039805E-1	1.178398E-1	1.070312E-1	1.141664E-1	1.198203E-1	9.892059E-2	1.135723E-1	1.099997E-1	1.229242E-1	1.052124E-1	1.289677E-1	1.126300E-1	1.088914E-1	1.051722E-1	8.739569E-2	1.100681E-1	1.154092E-1	1.367028E-1	1.110131E-1	1.037387E-1	9.856245E-2	1.036084E-1	1.196877E-1	1.046935E-1	1.135327E-1	8.578149E-2	1.193908E-1	1.229044E-1	1.005351E-1	1.153381E-1	1.116801E-1	1.313384E-1	1.090724E-1	1.030695E-1	9.744316E-2	1.007901E-1	1.092126E-1	1.099046E-1	1.208075E-1	1.179625E-1	1.203586E-1	1.088284E-1	1.176878E-1	1.251520E-1	1.058942E-1	1.294366E-1	1.227730E-1	1.037993E-1	9.830629E-2	1.178919E-1	1.139159E-1	1.201454E-1	1.042895E-1	1.142743E-1	1.056288E-1	1.156594E-1	1.159517E-1	1.135941E-1	1.222080E-1	1.279809E-1	1.005866E-1	1.078853E-1	1.331817E-1	1.165678E-1	8.775206E-2	1.060062E-1	1.070739E-1	1.197282E-1	1.080877E-1	1.074707E-1	1.033897E-1	1.183981E-1	1.154112E-1	1.188004E-1	1.135831E-1	1.275814E-1	1.251868E-1	1.103659E-1	1.190782E-1	1.254504E-1	1.041313E-1	9.736189E-2	1.222151E-1	9.439916E-2	1.331512E-1	1.059680E-1	1.123678E-1	1.059914E-1	1.266445E-1	1.102525E-1	1.162051E-1	1.314455E-1	1.159038E-1	1.117160E-1	1.044632E-1	1.188996E-1	1.119222E-1	9.434255E-2	1.011098E-1	1.192723E-1	1.280865E-1
5.340590E+2	1.521221E-1	1.845713E-1	1.884151E-1	1.733108E-1	1.812808E-1	1.849105E-1	1.572996E-1	1.734587E-1	1.716746E-1	1.594662E-1	1.835293E-1	1.693175E-1	1.791137E-1	1.659950E-1	1.504935E-1	1.577344E-1	1.759322E-1	1.826302E-1	1.829044E-1	1.742840E-1	1.834013E-1	1.610090E-1	1.644380E-1	1.628908E-1	1.954662E-1	1.713566E-1	1.684653E-1	1.600439E-1	1.893531E-1	1.510377E-1	1.630809E-1	1.704031E-1	1.765673E-1	1.860393E-1	1.967634E-1	1.756227E-1	1.696085E-1	1.694649E-1	1.631456E-1	1.788351E-1	1.675799E-1	1.673598E-1	1.798319E-1	1.833787E-1	1.751179E-1	1.904398E-1	1.739453E-1	1.717032E-1	1.776459E-1	1.821620E-1	1.880428E-1	1.457185E-1	1.868157E-1	1.895182E-1	1.640140E-1	1.629478E-1	1.701459E-1	1.576853E-1	1.857383E-1	1.659195E-1	1.719326E-1	1.761877E-1	1.696613E-1	1.724178E-1	1.756736E-1	1.806244E-1	1.692491E-1	1.923374E-1	1.662088E-1	1.736826E-1	1.685240E-1	1.741827E-1	1.864559E-1	1.894004E-1	1.973666E-1	1.704072E-1	1.818788E-1	1.709362E-1	1.931068E-1	1.674318E-1	1.816144E-1	1.769788E-1	1.868523E-1	1.753150E-1	1.735184E-1	1.536127E-1	1.754480E-1	1.769297E-1	1.675809E-1	1.940614E-1	1.851784E-1	1.547930E-1	1.903096E-1	1.767075E-1	1.961566E-1	1.658569E-1	1.621649E-1	1.749312E-1	1.607954E-1	1.904085E-1	1.631771E-1	1.746361E-1	1.742571E-1	1.870114E-1	1.668790E-1	1.674957E-1	2.097714E-1	1.848248E-1	1.868055E-1	2.008162E-1	1.886334E-1	2.026393E-1	1.711776E-1	1.628442E-1	1.856233E-1	1.776715E-1	1.880449E-1	1.924550E-1	1.701467E-1	1.663067E-1	1.913207E-1	1.800039E-1	1.634628E-1	1.795966E-1	1.592911E-1	1.508878E-1	1.870403E-1	1.736760E-1	1.979766E-1	1.623807E-1	1.826788E-1	1.610460E-1	1.733291E-1	1.738901E-1	1.765784E-1	1.521070E-1	1.843897E-1	1.857795E-1	1.893189E-1	1.610681E-1	1.811259E-1	1.769254E-1	1.827671E-1	1.988935E-1	1.763594E-1	1.813192E-1	1.939869E-1	1.780398E-1	1.921345E-1	2.015035E-1	1.662822E-1	1.711532E-1	1.660325E-1	1.786537E-1	1.731618E-1	1.669358E-1	1.637067E-1	1.718553E-1	1.935594E-1	1.679826E-1	1.753048E-1	1.844470E-1	1.712205E-1	1.842752E-1	1.665067E-1	1.803485E-1	1.734762E-1	1.727971E-1	1.782968E-1	1.831331E-1	1.368527E-1
5.342090E+2	3.006001E-1	2.621861E-1	3.040455E-1	3.104060E-1	3.269862E-1	2.911062E-1	3.010089E-1	2.937887E-1	3.107895E-1	2.990295E-1	2.966395E-1	3.152463E-1	2.864524E-1	2.807863E-1	2.732203E-1	2.762565E-1	3.046254E-1	3.021823E-1	3.059806E-1	3.394342E-1	2.879765E-1	2.893284E-1	2.869592E-1	2.801419E-1	3.006547E-1	2.779419E-1	2.758818E-1	2.942867E-1	2.937871E-1	3.130889E-1	2.937773E-1	2.732832E-1	2.930057E-1	2.853048E-1	2.800053E-1	3.064550E-1	3.304608E-1	3.097977E-1	3.011047E-1	2.856976E-1	3.019584E-1	3.334133E-1	2.821905E-1	2.967218E-1	3.123688E-1	3.009775E-1	2.991133E-1	3.053829E-1	3.092190E-1	3.108130E-1	2.883701E-1	3.270201E-1	2.880363E-1	2.587466E-1	2.995886E-1	2.708504E-1	2.913307E-1	2.990237E-1	2.739082E-1	2.855584E-1	3.099399E-1	3.278939E-1	2.975579E-1	2.775210E-1	2.971458E-1	2.914206E-1	2.850497E-1	2.915219E-1	2.842005E-1	2.905632E-1	2.861783E-1	2.949441E-1	3.188659E-1	3.023667E-1	3.147672E-1	2.957744E-1	3.099185E-1	3.026240E-1	2.822337E-1	2.905309E-1	3.193574E-1	2.740369E-1	2.884158E-1	3.225443E-1	3.069272E-1	2.594719E-1	2.824806E-1	3.055854E-1	2.825990E-1	3.100066E-1	3.202622E-1	2.977452E-1	3.065063E-1	3.268793E-1	2.900301E-1	2.988500E-1	2.990580E-1	3.085182E-1	3.035489E-1	2.783804E-1	2.901774E-1	3.082072E-1	2.898800E-1	3.289223E-1	2.905665E-1	2.979682E-1	3.137716E-1	3.428024E-1	2.899657E-1	2.794657E-1	2.995197E-1	2.994431E-1	3.078785E-1	3.066215E-1	2.884481E-1	3.378626E-1	3.122389E-1	2.887289E-1	3.180703E-1	3.114255E-1	2.773898E-1	2.762247E-1	2.957169E-1	2.851487E-1	3.143596E-1	3.274277E-1	2.876205E-1	2.771751E-1	3.025722E-1	2.985016E-1	3.219246E-1	2.773974E-1	3.054405E-1	3.116167E-1	2.846977E-1	3.153914E-1	3.068711E-1	3.070124E-1	3.218156E-1	3.286709E-1	2.940503E-1	3.230366E-1	2.968040E-1	3.253155E-1	3.113731E-1	3.499341E-1	3.119842E-1	2.849642E-1	3.184799E-1	3.316239E-1	2.970282E-1	2.756550E-1	3.141300E-1	2.887747E-1	2.901120E-1	2.875178E-1	3.036080E-1	3.060364E-1	3.053314E-1	3.012764E-1	3.278790E-1	3.083299E-1	3.124829E-1	3.260664E-1	3.029404E-1	3.285773E-1	2.856170E-1	3.064674E-1	2.912597E-1	3.122636E-1	3.004570E-1
5.343600E+2	5.450540E-1	5.326599E-1	5.363998E-1	5.174549E-1	5.502593E-1	5.121884E-1	5.287871E-1	5.054534E-1	5.202195E-1	5.442835E-1	5.466776E-1	5.008520E-1	5.346935E-1	5.582393E-1	5.350576E-1	4.823098E-1	5.486707E-1	5.525668E-1	5.202119E-1	5.421363E-1	5.416613E-1	5.094001E-1	5.181167E-1	4.947863E-1	5.291261E-1	5.239352E-1	5.312718E-1	5.231825E-1	5.649667E-1	5.404423E-1	5.579862E-1	5.484192E-1	5.117521E-1	5.068305E-1	5.582157E-1	5.205863E-1	5.382748E-1	5.113316E-1	5.511533E-1	5.499343E-1	5.446777E-1	5.524718E-1	5.289544E-1	5.350569E-1	5.393347E-1	5.263974E-1	5.108172E-1	5.695226E-1	5.301272E-1	5.467525E-1	5.141442E-1	5.266364E-1	4.984011E-1	5.223881E-1	5.081200E-1	4.707399E-1	5.049200E-1	5.168815E-1	5.315352E-1	5.356364E-1	5.127321E-1	5.502506E-1	5.352852E-1	5.214192E-1	4.924839E-1	4.953390E-1	5.548352E-1	5.072308E-1	5.133826E-1	5.621898E-1	5.268819E-1	5.575583E-1	5.334360E-1	5.461768E-1	5.436761E-1	5.309180E-1	5.198018E-1	5.281984E-1	5.162576E-1	5.426893E-1	5.109231E-1	5.309039E-1	5.405777E-1	5.178899E-1	5.242115E-1	4.931092E-1	5.161490E-1	5.728880E-1	5.223298E-1	5.398737E-1	4.855552E-1	5.271259E-1	5.582324E-1	5.462381E-1	5.080857E-1	5.117387E-1	4.989176E-1	5.379799E-1	5.202136E-1	5.101741E-1	5.298812E-1	5.053736E-1	5.296537E-1	5.236037E-1	5.462876E-1	5.325360E-1	5.410712E-1	5.433341E-1	5.691909E-1	5.472070E-1	5.128430E-1	5.071100E-1	5.169015E-1	5.412724E-1	5.531215E-1	5.062132E-1	4.994347E-1	5.371568E-1	5.314853E-1	5.184505E-1	5.043831E-1	5.309745E-1	5.529731E-1	4.866914E-1	5.231534E-1	5.265897E-1	5.079347E-1	5.341650E-1	5.393035E-1	5.258127E-1	5.317728E-1	5.030521E-1	5.388732E-1	5.491574E-1	5.503758E-1	5.229557E-1	5.264313E-1	5.352767E-1	5.394133E-1	5.163721E-1	5.435207E-1	5.231155E-1	5.364856E-1	5.362143E-1	5.345691E-1	5.588527E-1	5.447083E-1	5.416232E-1	4.937784E-1	5.148838E-1	5.080175E-1	5.304430E-1	5.895303E-1	5.390889E-1	5.317170E-1	5.047062E-1	5.143172E-1	5.192947E-1	5.487780E-1	4.955872E-1	5.435298E-1	4.963963E-1	5.447757E-1	5.114275E-1	5.307006E-1	5.302737E-1	5.631556E-1	5.208027E-1	5.290832E-1	5.473935E-1	5.594327E-1
5.345110E+2	9.172447E-1	9.168731E-1	8.625941E-1	8.450720E-1	9.256427E-1	9.119671E-1	8.970008E-1	8.549047E-1	8.928266E-1	8.646804E-1	9.068350E-1	8.460022E-1	8.634009E-1	9.014172E-1	8.965684E-1	8.971934E-1	8.890923E-1	9.399923E-1	8.690321E-1	8.954309E-1	9.159472E-1	8.700130E-1	9.442660E-1	8.480433E-1	9.413299E-1	8.672619E-1	8.564715E-1	9.015292E-1	8.991754E-1	8.560855E-1	8.858176E-1	8.994840E-1	8.848072E-1	8.945568E-1	8.655049E-1	8.949590E-1	8.876302E-1	8.893893E-1	8.889605E-1	9.162929E-1	9.220708E-1	9.004222E-1	9.188036E-1	8.988794E-1	9.069970E-1	8.562455E-1	8.687161E-1	8.562345E-1	8.989437E-1	9.133700E-1	8.986160E-1	8.377270E-1	9.037187E-1	8.210427E-1	9.291307E-1	8.894199E-1	8.791525E-1	8.828194E-1	8.496721E-1	8.748522E-1	8.348920E-1	8.747195E-1	8.987780E-1	8.964407E-1	9.027670E-1	8.602718E-1	9.114225E-1	9.019323E-1	8.788775E-1	9.001626E-1	9.498930E-1	9.153700E-1	8.758821E-1	9.108302E-1	9.181579E-1	8.996880E-1	8.720517E-1	8.896746E-1	9.003432E-1	8.734350E-1	8.931985E-1	8.796723E-1	8.900791E-1	8.770902E-1	8.538127E-1	8.886870E-1	8.862336E-1	9.180805E-1	8.982789E-1	8.638369E-1	8.356318E-1	9.007628E-1	9.036730E-1	8.890636E-1	8.757681E-1	9.117681E-1	9.381025E-1	8.448176E-1	8.792978E-1	8.794991E-1	8.772393E-1	9.016050E-1	9.134888E-1	8.687126E-1	8.785527E-1	8.798766E-1	8.974602E-1	8.630182E-1	8.406583E-1	9.263178E-1	9.109796E-1	8.743736E-1	8.700848E-1	8.618981E-1	9.009063E-1	8.994955E-1	8.862077E-1	8.846406E-1	8.678653E-1	8.851611E-1	8.764997E-1	9.126899E-1	9.044831E-1	8.863407E-1	9.517855E-1	9.033919E-1	9.294543E-1	8.623511E-1	8.664119E-1	9.021351E-1	8.831211E-1	8.748728E-1	8.792282E-1	8.780719E-1	8.798359E-1	8.993817E-1	9.312069E-1	8.610821E-1	8.870684E-1	8.848296E-1	9.114017E-1	8.931752E-1	8.757832E-1	8.728603E-1	9.070834E-1	9.180513E-1	8.341900E-1	8.702362E-1	8.820636E-1	8.832055E-1	8.700398E-1	8.591364E-1	9.152315E-1	9.181350E-1	9.007561E-1	8.266458E-1	9.309068E-1	9.091564E-1	8.780944E-1	8.641216E-1	8.759826E-1	8.902101E-1	8.839205E-1	9.125828E-1	9.030295E-1	9.060204E-1	8.851268E-1	9.139353E-1	9.327681E-1	9.156742E-1	8.220677E-1
5.346560E+2	1.263862E+0	1.226068E+0	1.229229E+0	1.293544E+0	1.340228E+0	1.249477E+0	1.291997E+0	1.224322E+0	1.287213E+0	1.224980E+0	1.247063E+0	1.271895E+0	1.321415E+0	1.242314E+0	1.264551E+0	1.274769E+0	1.227965E+0	1.308573E+0	1.267034E+0	1.302653E+0	1.303702E+0	1.242355E+0	1.269918E+0	1.252647E+0	1.290034E+0	1.212653E+0	1.246833E+0	1.283939E+0	1.236534E+0	1.224608E+0	1.284578E+0	1.233733E+0	1.257519E+0	1.316796E+0	1.273751E+0	1.264654E+0	1.257682E+0	1.238255E+0	1.343368E+0	1.305080E+0	1.256868E+0	1.271040E+0	1.222228E+0	1.300965E+0	1.238435E+0	1.266310E+0	1.289781E+0	1.218014E+0	1.266917E+0	1.262407E+0	1.277348E+0	1.199940E+0	1.237281E+0	1.284395E+0	1.285578E+0	1.310039E+0	1.229219E+0	1.242650E+0	1.193989E+0	1.237831E+0	1.188624E+0	1.306498E+0	1.287313E+0	1.261493E+0	1.219068E+0	1.240418E+0	1.279803E+0	1.285625E+0	1.303340E+0	1.282113E+0	1.296760E+0	1.263574E+0	1.275235E+0	1.288005E+0	1.313353E+0	1.249276E+0	1.252708E+0	1.273930E+0	1.242619E+0	1.195647E+0	1.223262E+0	1.301567E+0	1.278065E+0	1.247134E+0	1.248612E+0	1.264306E+0	1.284124E+0	1.259155E+0	1.247498E+0	1.262171E+0	1.291627E+0	1.219452E+0	1.271416E+0	1.270846E+0	1.268059E+0	1.235504E+0	1.234954E+0	1.242355E+0	1.278525E+0	1.236387E+0	1.177184E+0	1.247631E+0	1.253932E+0	1.321838E+0	1.241047E+0	1.240009E+0	1.237623E+0	1.327468E+0	1.234033E+0	1.304096E+0	1.241113E+0	1.266884E+0	1.237763E+0	1.279284E+0	1.268233E+0	1.239963E+0	1.296461E+0	1.311489E+0	1.231409E+0	1.251308E+0	1.256048E+0	1.238858E+0	1.234309E+0	1.230319E+0	1.285648E+0	1.258618E+0	1.256886E+0	1.183623E+0	1.249586E+0	1.230646E+0	1.267541E+0	1.272044E+0	1.211350E+0	1.230037E+0	1.272278E+0	1.276046E+0	1.313924E+0	1.265952E+0	1.209288E+0	1.261908E+0	1.226895E+0	1.211437E+0	1.206628E+0	1.327144E+0	1.237575E+0	1.328634E+0	1.240433E+0	1.192958E+0	1.212240E+0	1.281079E+0	1.229444E+0	1.225211E+0	1.246188E+0	1.318285E+0	1.249934E+0	1.203330E+0	1.232534E+0	1.232352E+0	1.267988E+0	1.217052E+0	1.225525E+0	1.259968E+0	1.223757E+0	1.214329E+0	1.225019E+0	1.246181E+0	1.253037E+0	1.280047E+0	1.301863E+0	1.246629E+0	1.222767E+0
5.348070E+2	1.529100E+0	1.608480E+0	1.679305E+0	1.711267E+0	1.568610E+0	1.645889E+0	1.631115E+0	1.626837E+0	1.660235E+0	1.615394E+0	1.607422E+0	1.660113E+0	1.595990E+0	1.625710E+0	1.626074E+0	1.609229E+0	1.595454E+0	1.674639E+0	1.667878E+0	1.591372E+0	1.649525E+0	1.597113E+0	1.617671E+0	1.640663E+0	1.699098E+0	1.616335E+0	1.579078E+0	1.563735E+0	1.586275E+0	1.617749E+0	1.621616E+0	1.573923E+0	1.587308E+0	1.685560E+0	1.629176E+0	1.602422E+0	1.652411E+0	1.634996E+0	1.646614E+0	1.641931E+0	1.670740E+0	1.647753E+0	1.621217E+0	1.671821E+0	1.589266E+0	1.617801E+0	1.643205E+0	1.567407E+0	1.630288E+0	1.574449E+0	1.642042E+0	1.580805E+0	1.581031E+0	1.621181E+0	1.642426E+0	1.629104E+0	1.603042E+0	1.594808E+0	1.545661E+0	1.568983E+0	1.602430E+0	1.701786E+0	1.668753E+0	1.627102E+0	1.603312E+0	1.630849E+0	1.584944E+0	1.584962E+0	1.530738E+0	1.651612E+0	1.629914E+0	1.614509E+0	1.609260E+0	1.703710E+0	1.576468E+0	1.536564E+0	1.567536E+0	1.606760E+0	1.580590E+0	1.511303E+0	1.641888E+0	1.562781E+0	1.646816E+0	1.599706E+0	1.581088E+0	1.569784E+0	1.676227E+0	1.598988E+0	1.672170E+0	1.639865E+0	1.577439E+0	1.632883E+0	1.601323E+0	1.607674E+0	1.603568E+0	1.553826E+0	1.631051E+0	1.604493E+0	1.627897E+0	1.643586E+0	1.632896E+0	1.601713E+0	1.588652E+0	1.556116E+0	1.601464E+0	1.585302E+0	1.576087E+0	1.643243E+0	1.561502E+0	1.639965E+0	1.697137E+0	1.521799E+0	1.522384E+0	1.563220E+0	1.661112E+0	1.608587E+0	1.556191E+0	1.606629E+0	1.532915E+0	1.668940E+0	1.579872E+0	1.548942E+0	1.626326E+0	1.531551E+0	1.613989E+0	1.593260E+0	1.576756E+0	1.515532E+0	1.622511E+0	1.643520E+0	1.711042E+0	1.565201E+0	1.543869E+0	1.597897E+0	1.574708E+0	1.634103E+0	1.615670E+0	1.583334E+0	1.639910E+0	1.526628E+0	1.601262E+0	1.601660E+0	1.590624E+0	1.612191E+0	1.585171E+0	1.685144E+0	1.568835E+0	1.603542E+0	1.542324E+0	1.614492E+0	1.634690E+0	1.523881E+0	1.533800E+0	1.578858E+0	1.547939E+0	1.539549E+0	1.644906E+0	1.588657E+0	1.566351E+0	1.499596E+0	1.575078E+0	1.620255E+0	1.516307E+0	1.539611E+0	1.565174E+0	1.634455E+0	1.573904E+0	1.595035E+0	1.562837E+0	1.583802E+0	1.479950E+0
5.349630E+2	1.892149E+0	1.928939E+0	1.970342E+0	2.007264E+0	1.921000E+0	1.931494E+0	1.999925E+0	1.909082E+0	1.882744E+0	1.915723E+0	1.903024E+0	1.894174E+0	1.905564E+0	1.933640E+0	1.940136E+0	1.918243E+0	1.907033E+0	1.977763E+0	1.895544E+0	1.975438E+0	1.933230E+0	1.935271E+0	1.875747E+0	1.982655E+0	1.871922E+0	1.994846E+0	1.872761E+0	1.947581E+0	1.927783E+0	1.888113E+0	1.944538E+0	1.890518E+0	1.974265E+0	1.938168E+0	1.951915E+0	1.922388E+0	1.939105E+0	1.954318E+0	1.920342E+0	2.006718E+0	1.976010E+0	1.962738E+0	1.882764E+0	1.964631E+0	1.958458E+0	1.972524E+0	1.993339E+0	1.865830E+0	1.936137E+0	1.970190E+0	1.948774E+0	1.887403E+0	1.845761E+0	1.918914E+0	1.925331E+0	1.921356E+0	1.910407E+0	1.914588E+0	1.792187E+0	1.935096E+0	1.892417E+0	1.974979E+0	1.997755E+0	1.909517E+0	1.918963E+0	1.887389E+0	1.885753E+0	1.917854E+0	1.829234E+0	1.846996E+0	1.901652E+0	1.875226E+0	1.957377E+0	1.962494E+0	1.920602E+0	1.909164E+0	1.851618E+0	1.888274E+0	1.845247E+0	1.811375E+0	1.886764E+0	1.921605E+0	1.898615E+0	1.908113E+0	1.924628E+0	1.869250E+0	1.969009E+0	1.979001E+0	1.919216E+0	1.903176E+0	1.833714E+0	1.963240E+0	1.892422E+0	1.905661E+0	1.889267E+0	1.855687E+0	1.875944E+0	1.890384E+0	1.882322E+0	1.900252E+0	1.890706E+0	1.891433E+0	1.932057E+0	1.891805E+0	1.859795E+0	1.861116E+0	1.894517E+0	1.954852E+0	1.900939E+0	1.920306E+0	1.874658E+0	1.836146E+0	1.799148E+0	1.895690E+0	1.927561E+0	1.902518E+0	1.877569E+0	1.907188E+0	1.896637E+0	1.850719E+0	1.864768E+0	1.843913E+0	1.914438E+0	1.832341E+0	1.906445E+0	1.872702E+0	1.882076E+0	1.799261E+0	1.910781E+0	1.969737E+0	1.884105E+0	1.877109E+0	1.807463E+0	1.793664E+0	1.961194E+0	1.804979E+0	1.898448E+0	1.799239E+0	1.852500E+0	1.874895E+0	1.876672E+0	1.834180E+0	1.779076E+0	1.886998E+0	1.912370E+0	1.859931E+0	1.758941E+0	1.787689E+0	1.827830E+0	1.965152E+0	1.855502E+0	1.933948E+0	1.867643E+0	1.870909E+0	1.865116E+0	1.873416E+0	1.896675E+0	1.848454E+0	1.914457E+0	1.785826E+0	1.874204E+0	1.849517E+0	1.810258E+0	1.848562E+0	1.886670E+0	1.916852E+0	1.863117E+0	1.836802E+0	1.821212E+0	1.882864E+0	1.772901E+0
5.351090E+2	2.049901E+0	1.956405E+0	2.001394E+0	2.187546E+0	2.041703E+0	2.093910E+0	2.114464E+0	2.066417E+0	2.046975E+0	2.053503E+0	2.049058E+0	2.106982E+0	2.069129E+0	2.080728E+0	2.018347E+0	1.933218E+0	2.111424E+0	2.020299E+0	2.033718E+0	2.130427E+0	2.095465E+0	2.100245E+0	2.059319E+0	2.079025E+0	2.042488E+0	2.096157E+0	2.050697E+0	2.058385E+0	2.003093E+0	1.987511E+0	2.019715E+0	2.056630E+0	2.100830E+0	2.159494E+0	2.018245E+0	2.018546E+0	2.054659E+0	2.097621E+0	2.027991E+0	2.138149E+0	2.092217E+0	2.137716E+0	2.038936E+0	2.084179E+0	2.009114E+0	2.111870E+0	2.067859E+0	1.916619E+0	1.981210E+0	2.070310E+0	2.050534E+0	2.040312E+0	1.989231E+0	2.107358E+0	2.028478E+0	2.074707E+0	1.983853E+0	2.035145E+0	1.980125E+0	2.032279E+0	2.026535E+0	2.042250E+0	2.028904E+0	2.027367E+0	2.013630E+0	2.013837E+0	1.997948E+0	1.944472E+0	1.986754E+0	2.003241E+0	1.999816E+0	2.038214E+0	1.945714E+0	2.071429E+0	2.085963E+0	2.000968E+0	1.999834E+0	2.072526E+0	2.014945E+0	1.980367E+0	2.035503E+0	2.072375E+0	2.098605E+0	2.076055E+0	2.058946E+0	2.043451E+0	2.092181E+0	2.063776E+0	2.016522E+0	1.963366E+0	2.019625E+0	2.022849E+0	2.015019E+0	1.943971E+0	2.045318E+0	1.979634E+0	2.051437E+0	2.043145E+0	2.070692E+0	1.923460E+0	1.998248E+0	2.006394E+0	1.968680E+0	2.007634E+0	2.031301E+0	1.946850E+0	2.037596E+0	2.152421E+0	2.031035E+0	2.044177E+0	2.045106E+0	1.958413E+0	1.961474E+0	2.069616E+0	2.027721E+0	1.984918E+0	1.990517E+0	1.930351E+0	1.978947E+0	1.984082E+0	2.038280E+0	1.970730E+0	2.078040E+0	1.954911E+0	1.989264E+0	1.975483E+0	1.989549E+0	1.934651E+0	1.947424E+0	2.118664E+0	1.998966E+0	1.968305E+0	1.948327E+0	2.034419E+0	1.990361E+0	1.990420E+0	1.980333E+0	1.914386E+0	1.968016E+0	1.941420E+0	1.962221E+0	2.008458E+0	2.018396E+0	2.073609E+0	2.009065E+0	2.018062E+0	1.924715E+0	1.990385E+0	1.981140E+0	1.990012E+0	1.937274E+0	1.982416E+0	2.040220E+0	1.964715E+0	2.014814E+0	1.913127E+0	2.000525E+0	1.979676E+0	1.921124E+0	1.965158E+0	2.035257E+0	2.008121E+0	1.936641E+0	1.949896E+0	1.861492E+0	1.994993E+0	2.017034E+0	2.015601E+0	2.074317E+0	1.980975E+0	1.933623E+0
5.352600E+2	2.042112E+0	1.986410E+0	2.017979E+0	2.054039E+0	1.970202E+0	1.986306E+0	1.984918E+0	1.917490E+0	2.013983E+0	1.958043E+0	1.972187E+0	1.922023E+0	1.977436E+0	1.995564E+0	2.024034E+0	1.901293E+0	1.940162E+0	2.022150E+0	2.006124E+0	2.001374E+0	2.049840E+0	1.954127E+0	1.947299E+0	1.961544E+0	2.002560E+0	2.014009E+0	1.965750E+0	1.940455E+0	1.962814E+0	1.928833E+0	1.965575E+0	1.878207E+0	2.041936E+0	2.007055E+0	1.952283E+0	1.937761E+0	1.958827E+0	2.024474E+0	1.959881E+0	1.988330E+0	1.968716E+0	2.016979E+0	1.965963E+0	2.030472E+0	2.023878E+0	2.024237E+0	1.959479E+0	1.920543E+0	1.980171E+0	1.976505E+0	1.960430E+0	1.942511E+0	1.875272E+0	1.992354E+0	1.910314E+0	1.924469E+0	1.905162E+0	1.926728E+0	1.901628E+0	1.933625E+0	1.899597E+0	2.030957E+0	1.891467E+0	1.902810E+0	1.984364E+0	1.893250E+0	1.927385E+0	1.921852E+0	1.890986E+0	1.940443E+0	1.950960E+0	1.909585E+0	1.979587E+0	1.918472E+0	1.968840E+0	1.948141E+0	2.022868E+0	1.983659E+0	1.882895E+0	1.883354E+0	1.875260E+0	1.878748E+0	1.999835E+0	1.912711E+0	1.874542E+0	1.909773E+0	1.990615E+0	1.935226E+0	1.908410E+0	2.028420E+0	1.932776E+0	1.952681E+0	1.918648E+0	1.914076E+0	1.903377E+0	1.901993E+0	1.893678E+0	1.876999E+0	1.970533E+0	1.927422E+0	1.891095E+0	1.963013E+0	1.896296E+0	1.964165E+0	1.906409E+0	1.888257E+0	1.984361E+0	1.863926E+0	1.884904E+0	1.927543E+0	1.956327E+0	1.906035E+0	1.833551E+0	1.999956E+0	1.933021E+0	1.894969E+0	1.909501E+0	2.007491E+0	1.960057E+0	1.856239E+0	1.854839E+0	1.925092E+0	1.919100E+0	1.896257E+0	1.982838E+0	1.972026E+0	1.868974E+0	1.904831E+0	1.941781E+0	1.966167E+0	1.971297E+0	1.885549E+0	1.911077E+0	1.863962E+0	1.977353E+0	1.953887E+0	1.896908E+0	1.992859E+0	1.912222E+0	1.883702E+0	1.865674E+0	1.909283E+0	1.801567E+0	2.026210E+0	1.967838E+0	1.946323E+0	1.884607E+0	1.930339E+0	1.881616E+0	1.924854E+0	1.877278E+0	1.837554E+0	1.921664E+0	1.925488E+0	1.951763E+0	1.928828E+0	1.967677E+0	1.906819E+0	1.881931E+0	1.783257E+0	1.853046E+0	1.914490E+0	1.874752E+0	1.990177E+0	1.916313E+0	1.939409E+0	1.908700E+0	1.908659E+0	1.938703E+0	1.899684E+0	1.822811E+0
5.354060E+2	1.780699E+0	1.761823E+0	1.711717E+0	1.808212E+0	1.686825E+0	1.788667E+0	1.724921E+0	1.744179E+0	1.713248E+0	1.715017E+0	1.751874E+0	1.762821E+0	1.736430E+0	1.720885E+0	1.743495E+0	1.757805E+0	1.749531E+0	1.754394E+0	1.743601E+0	1.819678E+0	1.718122E+0	1.812178E+0	1.712563E+0	1.711430E+0	1.765220E+0	1.767707E+0	1.679996E+0	1.738212E+0	1.717175E+0	1.719040E+0	1.764683E+0	1.729999E+0	1.756116E+0	1.748597E+0	1.720057E+0	1.676269E+0	1.723515E+0	1.808412E+0	1.773349E+0	1.772680E+0	1.780673E+0	1.708130E+0	1.798680E+0	1.805623E+0	1.769849E+0	1.624881E+0	1.716820E+0	1.698836E+0	1.738632E+0	1.762026E+0	1.757208E+0	1.717802E+0	1.689488E+0	1.790191E+0	1.712003E+0	1.718620E+0	1.713204E+0	1.690266E+0	1.650753E+0	1.741290E+0	1.726816E+0	1.770926E+0	1.699461E+0	1.737952E+0	1.694160E+0	1.705172E+0	1.751838E+0	1.689722E+0	1.689315E+0	1.737575E+0	1.774369E+0	1.689937E+0	1.748380E+0	1.788455E+0	1.744157E+0	1.658756E+0	1.717407E+0	1.646964E+0	1.725781E+0	1.708503E+0	1.645759E+0	1.682877E+0	1.815338E+0	1.691575E+0	1.571035E+0	1.695422E+0	1.790181E+0	1.776092E+0	1.641209E+0	1.744556E+0	1.702213E+0	1.710736E+0	1.750102E+0	1.703448E+0	1.695451E+0	1.665793E+0	1.689729E+0	1.693107E+0	1.735009E+0	1.705281E+0	1.632940E+0	1.765512E+0	1.686754E+0	1.765034E+0	1.681159E+0	1.685139E+0	1.723164E+0	1.720112E+0	1.677773E+0	1.765307E+0	1.723661E+0	1.704434E+0	1.672900E+0	1.703010E+0	1.731933E+0	1.726778E+0	1.712909E+0	1.780176E+0	1.706418E+0	1.703045E+0	1.648481E+0	1.688788E+0	1.755717E+0	1.637303E+0	1.763957E+0	1.685493E+0	1.733328E+0	1.680061E+0	1.735380E+0	1.696907E+0	1.687378E+0	1.704528E+0	1.645038E+0	1.701440E+0	1.748576E+0	1.653889E+0	1.719270E+0	1.737287E+0	1.682224E+0	1.692031E+0	1.665187E+0	1.744714E+0	1.679707E+0	1.731064E+0	1.693659E+0	1.769268E+0	1.617966E+0	1.698929E+0	1.611014E+0	1.707013E+0	1.627902E+0	1.672793E+0	1.694228E+0	1.745933E+0	1.657617E+0	1.703534E+0	1.661380E+0	1.682837E+0	1.680949E+0	1.616742E+0	1.687958E+0	1.786633E+0	1.720919E+0	1.665130E+0	1.656418E+0	1.687187E+0	1.726107E+0	1.673598E+0	1.714479E+0	1.689750E+0	1.586806E+0
5.355630E+2	1.487706E+0	1.565499E+0	1.517470E+0	1.551468E+0	1.497094E+0	1.546842E+0	1.549738E+0	1.481992E+0	1.556560E+0	1.409564E+0	1.507028E+0	1.506809E+0	1.500790E+0	1.578801E+0	1.531316E+0	1.464914E+0	1.474319E+0	1.558323E+0	1.517107E+0	1.559912E+0	1.557800E+0	1.485659E+0	1.538083E+0	1.444799E+0	1.478005E+0	1.538041E+0	1.437415E+0	1.538241E+0	1.487048E+0	1.490279E+0	1.535553E+0	1.516228E+0	1.461926E+0	1.550301E+0	1.555268E+0	1.526333E+0	1.526868E+0	1.461254E+0	1.512484E+0	1.499915E+0	1.536761E+0	1.588715E+0	1.538595E+0	1.576889E+0	1.564802E+0	1.477909E+0	1.477829E+0	1.484978E+0	1.498279E+0	1.503515E+0	1.507380E+0	1.475173E+0	1.493374E+0	1.533464E+0	1.523120E+0	1.538357E+0	1.489624E+0	1.522412E+0	1.458797E+0	1.473106E+0	1.406630E+0	1.519443E+0	1.447970E+0	1.461268E+0	1.484337E+0	1.474011E+0	1.601903E+0	1.494411E+0	1.460844E+0	1.546203E+0	1.466639E+0	1.523279E+0	1.507105E+0	1.493578E+0	1.474067E+0	1.480626E+0	1.472914E+0	1.476110E+0	1.523810E+0	1.490749E+0	1.499120E+0	1.468398E+0	1.539755E+0	1.463412E+0	1.438345E+0	1.463165E+0	1.521141E+0	1.524487E+0	1.505444E+0	1.513610E+0	1.512276E+0	1.558056E+0	1.484511E+0	1.493184E+0	1.483897E+0	1.488631E+0	1.494286E+0	1.468696E+0	1.556637E+0	1.467469E+0	1.475316E+0	1.474002E+0	1.495961E+0	1.477173E+0	1.467214E+0	1.466103E+0	1.476414E+0	1.434080E+0	1.453235E+0	1.492815E+0	1.480025E+0	1.459801E+0	1.437629E+0	1.496532E+0	1.445828E+0	1.553691E+0	1.454423E+0	1.541021E+0	1.431100E+0	1.519088E+0	1.471560E+0	1.486026E+0	1.521838E+0	1.500610E+0	1.487433E+0	1.493271E+0	1.537200E+0	1.409823E+0	1.441642E+0	1.493337E+0	1.533944E+0	1.458812E+0	1.452917E+0	1.542515E+0	1.541215E+0	1.479845E+0	1.493455E+0	1.508398E+0	1.429440E+0	1.451771E+0	1.450795E+0	1.516482E+0	1.447205E+0	1.520137E+0	1.474427E+0	1.538094E+0	1.443324E+0	1.425497E+0	1.430273E+0	1.543599E+0	1.432680E+0	1.425774E+0	1.492964E+0	1.477592E+0	1.514042E+0	1.428426E+0	1.512007E+0	1.442688E+0	1.551410E+0	1.422901E+0	1.459577E+0	1.457806E+0	1.458017E+0	1.452251E+0	1.440754E+0	1.485880E+0	1.589343E+0	1.556414E+0	1.512719E+0	1.476473E+0	1.446475E+0
5.357140E+2	1.241827E+0	1.239173E+0	1.282086E+0	1.308476E+0	1.287619E+0	1.289471E+0	1.341333E+0	1.287522E+0	1.228813E+0	1.285744E+0	1.242940E+0	1.246769E+0	1.294937E+0	1.249273E+0	1.238344E+0	1.249235E+0	1.209643E+0	1.305031E+0	1.220729E+0	1.290531E+0	1.251243E+0	1.259939E+0	1.293572E+0	1.255327E+0	1.303889E+0	1.294268E+0	1.260068E+0	1.241611E+0	1.253432E+0	1.283387E+0	1.290661E+0	1.229625E+0	1.232195E+0	1.254709E+0	1.279393E+0	1.222039E+0	1.279840E+0	1.259476E+0	1.262637E+0	1.260139E+0	1.257620E+0	1.281351E+0	1.268883E+0	1.301911E+0	1.252011E+0	1.267651E+0	1.326569E+0	1.230115E+0	1.301055E+0	1.282692E+0	1.258670E+0	1.259298E+0	1.198202E+0	1.288569E+0	1.260125E+0	1.293708E+0	1.269361E+0	1.263245E+0	1.223359E+0	1.259361E+0	1.166895E+0	1.211288E+0	1.220844E+0	1.260574E+0	1.268233E+0	1.270278E+0	1.248268E+0	1.295466E+0	1.228294E+0	1.292406E+0	1.277806E+0	1.350338E+0	1.241589E+0	1.252452E+0	1.268747E+0	1.258169E+0	1.267961E+0	1.249612E+0	1.263431E+0	1.169058E+0	1.262173E+0	1.298081E+0	1.256969E+0	1.238434E+0	1.245179E+0	1.237814E+0	1.264969E+0	1.281776E+0	1.229246E+0	1.270464E+0	1.269007E+0	1.290813E+0	1.311420E+0	1.197639E+0	1.222047E+0	1.245776E+0	1.262042E+0	1.253290E+0	1.263139E+0	1.210741E+0	1.210094E+0	1.221323E+0	1.231762E+0	1.309029E+0	1.235944E+0	1.213504E+0	1.285084E+0	1.311418E+0	1.241223E+0	1.290673E+0	1.284824E+0	1.231267E+0	1.228137E+0	1.292460E+0	1.303719E+0	1.312839E+0	1.258076E+0	1.274678E+0	1.226638E+0	1.259997E+0	1.257813E+0	1.244170E+0	1.237470E+0	1.282844E+0	1.249456E+0	1.232390E+0	1.301116E+0	1.241703E+0	1.226574E+0	1.332260E+0	1.269142E+0	1.187663E+0	1.252323E+0	1.249495E+0	1.267790E+0	1.257395E+0	1.272133E+0	1.243514E+0	1.224716E+0	1.233223E+0	1.259770E+0	1.291400E+0	1.191236E+0	1.288418E+0	1.251028E+0	1.255059E+0	1.243886E+0	1.225876E+0	1.273789E+0	1.250254E+0	1.210952E+0	1.274561E+0	1.228460E+0	1.268154E+0	1.262507E+0	1.204842E+0	1.228040E+0	1.197790E+0	1.258889E+0	1.187159E+0	1.232265E+0	1.217772E+0	1.221394E+0	1.282350E+0	1.218119E+0	1.326788E+0	1.250106E+0	1.252180E+0	1.220762E+0	1.304146E+0	1.236521E+0
5.358600E+2	1.019233E+0	1.085085E+0	1.070258E+0	1.085281E+0	1.055846E+0	1.027860E+0	1.069278E+0	1.066199E+0	1.049358E+0	1.065202E+0	1.089940E+0	1.037084E+0	1.086075E+0	1.059244E+0	1.063687E+0	1.104722E+0	1.064175E+0	1.058272E+0	1.114086E+0	1.089377E+0	1.000166E+0	9.895518E-1	1.038546E+0	1.054179E+0	1.088567E+0	1.069523E+0	1.088715E+0	1.058271E+0	1.074827E+0	1.072836E+0	1.026442E+0	1.066849E+0	1.074284E+0	1.103504E+0	1.085157E+0	1.073672E+0	1.057594E+0	1.030353E+0	1.084319E+0	1.089230E+0	1.062798E+0	1.031706E+0	1.045561E+0	1.132401E+0	1.085418E+0	1.050456E+0	1.080076E+0	1.048885E+0	1.041026E+0	1.060666E+0	1.055849E+0	9.886145E-1	1.028987E+0	1.051333E+0	1.120795E+0	1.090309E+0	1.071424E+0	1.071889E+0	1.037141E+0	1.028753E+0	1.114641E+0	1.083565E+0	1.087876E+0	1.071554E+0	1.003867E+0	1.049572E+0	1.035489E+0	1.072267E+0	1.065354E+0	1.071559E+0	1.058482E+0	9.966809E-1	1.080511E+0	1.060729E+0	1.059453E+0	1.056510E+0	1.047314E+0	1.056783E+0	1.059806E+0	1.022333E+0	1.096317E+0	1.069424E+0	1.102770E+0	1.075795E+0	1.067867E+0	1.073568E+0	1.085669E+0	1.083567E+0	1.025589E+0	1.087652E+0	1.057766E+0	1.079547E+0	1.052191E+0	1.051954E+0	1.078486E+0	1.059977E+0	1.059803E+0	1.071294E+0	1.068029E+0	1.058306E+0	1.072663E+0	1.069312E+0	1.049650E+0	1.078886E+0	1.098548E+0	1.043771E+0	1.127015E+0	1.044245E+0	1.067287E+0	1.052925E+0	1.082766E+0	1.041302E+0	1.057166E+0	1.062545E+0	1.103649E+0	1.051137E+0	1.027285E+0	1.057337E+0	1.054544E+0	1.009252E+0	1.031290E+0	1.077101E+0	1.099065E+0	1.071911E+0	1.037061E+0	1.070415E+0	1.118360E+0	1.054259E+0	1.057631E+0	1.080228E+0	1.063939E+0	1.009754E+0	1.061176E+0	1.096738E+0	1.091159E+0	1.067607E+0	1.065115E+0	1.018687E+0	1.029435E+0	1.047467E+0	1.070452E+0	1.086614E+0	1.024081E+0	1.112426E+0	1.076254E+0	1.121059E+0	1.022214E+0	1.035131E+0	1.028354E+0	1.057871E+0	1.038089E+0	1.053854E+0	1.094412E+0	1.119158E+0	1.052704E+0	1.019759E+0	1.063574E+0	1.008569E+0	1.086642E+0	1.041217E+0	1.062257E+0	1.109436E+0	1.036002E+0	1.083487E+0	1.048717E+0	1.080547E+0	1.028306E+0	1.074833E+0	1.085726E+0	1.103059E+0	1.083277E+0
5.360070E+2	9.134117E-1	8.955902E-1	9.167713E-1	8.989342E-1	9.280782E-1	8.948428E-1	8.909096E-1	9.053037E-1	8.676529E-1	9.038507E-1	9.180927E-1	8.708455E-1	8.811192E-1	8.948968E-1	8.709671E-1	9.510976E-1	9.379438E-1	9.508539E-1	9.320426E-1	9.165555E-1	9.154511E-1	8.876921E-1	8.459829E-1	9.163050E-1	9.754073E-1	8.993002E-1	9.194815E-1	9.223134E-1	8.975689E-1	9.222932E-1	9.529796E-1	8.485814E-1	9.198200E-1	9.142519E-1	9.686185E-1	9.318525E-1	8.999421E-1	9.312187E-1	9.272457E-1	9.094882E-1	9.430703E-1	8.939264E-1	8.863441E-1	9.386639E-1	9.466451E-1	9.246150E-1	9.428912E-1	8.774462E-1	8.724485E-1	8.939645E-1	9.471708E-1	8.994033E-1	9.024948E-1	9.147657E-1	9.275753E-1	9.218219E-1	8.825673E-1	8.819342E-1	8.547288E-1	9.080036E-1	9.290263E-1	9.492574E-1	9.550066E-1	9.640973E-1	9.192684E-1	9.325282E-1	9.350688E-1	8.920456E-1	9.373700E-1	9.040566E-1	9.464481E-1	9.252908E-1	9.389905E-1	9.320483E-1	9.459957E-1	9.527375E-1	9.274289E-1	8.855722E-1	9.123413E-1	8.694984E-1	9.320982E-1	9.033928E-1	9.515632E-1	9.657054E-1	8.741713E-1	9.015746E-1	9.489410E-1	9.709290E-1	9.179350E-1	9.309727E-1	9.324457E-1	9.210991E-1	9.613968E-1	9.275597E-1	8.941673E-1	9.031014E-1	8.968700E-1	9.265627E-1	8.808726E-1	9.027092E-1	9.257930E-1	9.348528E-1	9.151436E-1	9.182853E-1	9.240564E-1	8.784075E-1	9.149889E-1	9.151648E-1	8.831694E-1	9.403845E-1	9.577394E-1	8.754885E-1	9.331451E-1	9.286102E-1	8.930082E-1	9.054327E-1	9.104337E-1	9.324043E-1	9.237096E-1	9.363409E-1	9.387534E-1	9.247748E-1	9.775408E-1	9.728286E-1	8.891131E-1	9.493910E-1	9.346358E-1	8.780637E-1	9.557313E-1	9.612038E-1	9.226511E-1	9.369283E-1	8.980305E-1	9.255277E-1	9.742213E-1	9.438967E-1	9.476660E-1	9.023730E-1	9.173958E-1	9.016900E-1	9.125794E-1	9.040126E-1	9.667904E-1	9.664988E-1	9.109513E-1	9.744233E-1	9.272708E-1	9.131278E-1	9.412811E-1	9.396231E-1	9.253945E-1	9.340361E-1	9.412756E-1	9.396956E-1	9.455514E-1	8.957560E-1	9.465920E-1	8.978622E-1	9.696285E-1	9.023347E-1	8.921376E-1	8.881503E-1	9.051037E-1	9.994864E-1	9.120909E-1	9.517742E-1	9.738937E-1	8.971324E-1	9.710217E-1	9.472786E-1	8.720008E-1
5.362680E+2	6.411126E-1	6.979888E-1	7.184501E-1	7.183910E-1	6.789986E-1	6.362315E-1	7.178020E-1	7.484750E-1	6.913799E-1	6.634298E-1	7.018761E-1	6.705100E-1	6.669117E-1	7.367171E-1	6.761577E-1	7.581022E-1	7.115141E-1	6.799086E-1	6.747924E-1	7.543620E-1	7.449203E-1	6.678681E-1	6.989861E-1	6.855192E-1	6.645380E-1	7.188298E-1	6.628617E-1	7.490764E-1	6.543389E-1	6.951385E-1	7.040640E-1	6.938125E-1	6.930018E-1	7.155910E-1	7.264925E-1	7.226569E-1	6.918857E-1	6.755133E-1	7.375706E-1	7.243775E-1	7.300852E-1	7.247321E-1	7.088127E-1	7.490286E-1	7.147849E-1	7.306236E-1	7.072660E-1	7.080705E-1	7.298966E-1	6.942349E-1	6.805569E-1	6.843754E-1	6.776835E-1	6.996047E-1	6.663873E-1	7.039839E-1	7.289819E-1	7.031915E-1	6.859197E-1	6.748652E-1	6.755295E-1	7.052067E-1	6.901144E-1	6.818192E-1	6.907342E-1	7.001508E-1	7.629803E-1	7.228490E-1	6.887611E-1	6.967991E-1	6.929210E-1	6.950931E-1	6.822850E-1	6.737334E-1	7.200155E-1	6.814043E-1	6.861380E-1	6.959154E-1	6.968210E-1	6.758539E-1	6.774479E-1	7.151686E-1	7.239683E-1	7.265947E-1	7.173456E-1	6.937106E-1	7.078834E-1	7.322224E-1	6.656360E-1	6.867470E-1	7.049761E-1	7.257908E-1	7.177385E-1	7.060906E-1	7.062920E-1	6.950502E-1	6.961763E-1	6.804548E-1	6.872127E-1	6.791002E-1	7.406032E-1	7.001874E-1	6.768411E-1	6.665248E-1	7.064039E-1	6.821286E-1	7.366109E-1	6.792568E-1	6.944916E-1	7.039967E-1	7.159601E-1	7.135636E-1	7.230102E-1	6.847349E-1	7.116755E-1	7.287721E-1	6.570261E-1	7.289457E-1	7.260020E-1	7.427501E-1	6.774552E-1	6.687162E-1	7.285119E-1	7.102855E-1	7.102920E-1	7.160997E-1	7.053626E-1	6.820349E-1	7.123329E-1	6.875557E-1	7.545713E-1	7.407133E-1	6.469203E-1	7.289097E-1	7.174037E-1	7.084235E-1	6.796237E-1	7.125413E-1	7.072324E-1	6.814117E-1	7.014857E-1	7.321858E-1	6.910531E-1	7.351690E-1	7.570780E-1	7.510383E-1	6.904182E-1	7.350521E-1	6.952256E-1	7.254955E-1	7.165307E-1	6.961863E-1	6.684827E-1	7.047849E-1	7.574564E-1	7.029793E-1	7.122439E-1	7.067916E-1	7.172531E-1	7.189369E-1	7.279942E-1	7.674919E-1	7.062371E-1	7.068129E-1	6.681390E-1	7.231979E-1	7.190843E-1	7.476702E-1	7.070030E-1	7.135280E-1	6.935091E-1
5.365140E+2	5.599911E-1	5.294003E-1	5.484669E-1	5.631216E-1	5.462649E-1	5.810204E-1	5.735656E-1	5.625069E-1	5.644758E-1	5.550772E-1	5.619144E-1	5.681858E-1	5.375327E-1	5.756052E-1	5.963351E-1	5.231009E-1	5.444716E-1	5.351162E-1	5.837510E-1	5.561092E-1	5.764882E-1	5.827701E-1	5.616072E-1	5.326083E-1	5.554126E-1	5.670697E-1	5.292445E-1	5.787793E-1	5.769986E-1	5.423997E-1	5.579309E-1	5.189578E-1	5.583757E-1	5.687698E-1	5.843264E-1	5.512281E-1	5.232553E-1	5.998955E-1	5.368830E-1	5.525653E-1	5.591366E-1	5.773037E-1	5.412539E-1	5.787725E-1	5.751497E-1	6.138117E-1	5.699346E-1	5.215047E-1	5.874165E-1	5.646392E-1	5.607868E-1	5.845030E-1	5.461952E-1	5.818138E-1	5.967452E-1	5.561578E-1	5.605252E-1	5.970489E-1	5.725895E-1	5.689767E-1	5.496975E-1	5.613683E-1	5.616872E-1	5.299145E-1	6.032449E-1	5.873296E-1	5.546471E-1	5.022215E-1	5.234652E-1	5.528191E-1	5.893352E-1	5.218503E-1	5.887136E-1	5.638313E-1	5.971884E-1	5.605751E-1	5.445394E-1	5.688466E-1	5.795098E-1	5.527004E-1	5.568545E-1	5.484505E-1	5.755341E-1	5.088666E-1	5.596965E-1	5.721503E-1	6.255918E-1	5.645692E-1	5.703778E-1	5.591200E-1	5.651799E-1	5.770414E-1	5.811879E-1	5.405666E-1	5.912400E-1	5.589003E-1	5.762647E-1	5.418360E-1	5.809453E-1	5.346347E-1	6.107672E-1	5.880921E-1	5.584012E-1	5.713219E-1	5.528473E-1	5.652732E-1	5.911754E-1	5.927990E-1	5.637875E-1	5.873826E-1	5.890160E-1	5.676988E-1	5.226034E-1	5.773163E-1	5.967279E-1	5.926265E-1	5.631187E-1	5.373544E-1	5.828897E-1	5.439351E-1	5.788460E-1	5.921053E-1	5.917802E-1	5.202173E-1	5.722583E-1	5.672434E-1	5.935577E-1	5.572042E-1	5.831263E-1	5.830326E-1	5.619686E-1	5.835663E-1	5.675651E-1	5.774247E-1	5.460986E-1	5.781628E-1	5.749544E-1	5.600119E-1	5.555252E-1	5.994319E-1	5.664668E-1	5.915384E-1	5.786124E-1	6.014555E-1	5.935911E-1	5.802783E-1	5.893870E-1	5.988939E-1	5.939200E-1	5.642163E-1	5.923495E-1	5.848289E-1	5.896214E-1	5.503427E-1	5.959502E-1	5.308702E-1	5.998408E-1	5.781680E-1	5.617237E-1	5.261602E-1	6.050871E-1	5.790809E-1	5.671149E-1	5.531730E-1	5.611998E-1	5.933242E-1	5.755843E-1	5.894955E-1	5.464525E-1	5.225399E-1	5.534880E-1
5.367970E+2	4.974785E-1	4.879590E-1	4.917138E-1	5.108235E-1	4.810456E-1	5.074003E-1	5.034728E-1	5.176145E-1	4.842749E-1	4.562010E-1	5.059964E-1	4.801580E-1	4.890173E-1	5.047962E-1	4.939547E-1	5.235370E-1	4.948497E-1	4.934568E-1	4.909114E-1	5.092642E-1	4.916110E-1	4.942190E-1	5.099274E-1	4.757009E-1	5.341862E-1	5.028645E-1	4.824465E-1	4.915640E-1	4.860350E-1	4.806768E-1	4.995083E-1	5.045267E-1	5.025347E-1	4.876192E-1	5.045669E-1	5.088055E-1	4.944135E-1	4.778177E-1	5.241316E-1	5.200645E-1	5.085412E-1	5.097369E-1	4.706775E-1	5.412084E-1	4.629504E-1	4.872478E-1	5.028540E-1	5.139967E-1	4.551928E-1	5.200628E-1	5.033573E-1	4.787798E-1	5.057751E-1	4.863108E-1	4.720038E-1	4.986997E-1	4.832086E-1	4.973777E-1	4.797665E-1	5.165712E-1	5.139562E-1	5.129974E-1	5.041901E-1	4.700788E-1	4.964855E-1	4.789302E-1	5.347346E-1	4.963056E-1	4.939621E-1	4.801311E-1	4.937665E-1	4.947624E-1	5.169197E-1	4.910525E-1	5.098311E-1	5.221403E-1	5.024945E-1	4.933369E-1	5.049865E-1	4.892036E-1	4.797402E-1	4.837245E-1	5.180598E-1	4.704859E-1	4.829365E-1	4.744831E-1	5.077255E-1	4.738881E-1	4.646957E-1	5.125214E-1	4.865403E-1	4.896868E-1	4.909989E-1	5.146272E-1	5.039632E-1	5.130086E-1	5.428298E-1	4.918330E-1	5.204608E-1	5.182947E-1	4.911878E-1	4.946314E-1	4.815044E-1	4.898301E-1	5.040439E-1	4.829293E-1	5.020592E-1	5.090967E-1	5.008350E-1	5.460220E-1	4.780041E-1	5.012855E-1	4.736434E-1	5.174808E-1	5.374238E-1	4.894459E-1	4.961516E-1	4.905255E-1	5.354843E-1	5.137542E-1	5.045670E-1	5.127737E-1	5.210773E-1	5.170390E-1	5.215569E-1	5.011758E-1	5.068084E-1	4.669821E-1	5.006169E-1	5.289138E-1	5.048548E-1	5.171790E-1	4.635347E-1	5.253306E-1	4.987940E-1	5.264388E-1	4.754451E-1	4.994824E-1	4.815316E-1	5.155173E-1	4.989968E-1	5.267141E-1	4.642427E-1	5.498801E-1	5.230873E-1	5.109780E-1	5.185415E-1	4.859395E-1	5.018203E-1	4.984372E-1	4.966805E-1	5.194183E-1	5.150028E-1	5.317117E-1	5.435076E-1	4.754636E-1	5.016686E-1	4.828833E-1	5.288741E-1	4.970130E-1	4.788894E-1	5.091762E-1	4.908686E-1	4.497816E-1	4.754565E-1	5.589071E-1	4.795818E-1	5.071366E-1	4.984635E-1	5.224807E-1	4.972553E-1
5.370070E+2	4.355451E-1	4.838874E-1	4.663129E-1	4.868490E-1	4.894753E-1	4.768773E-1	4.959877E-1	5.121654E-1	4.558422E-1	4.596916E-1	5.073953E-1	5.151992E-1	4.817904E-1	5.123272E-1	5.070541E-1	5.216879E-1	4.768814E-1	5.047552E-1	5.002029E-1	5.039542E-1	4.994207E-1	4.429266E-1	4.714226E-1	4.916887E-1	4.586528E-1	4.815785E-1	4.600886E-1	4.444155E-1	4.784833E-1	4.651144E-1	5.015567E-1	4.784748E-1	4.578355E-1	5.138643E-1	5.292417E-1	5.331933E-1	5.148802E-1	4.697103E-1	5.050602E-1	5.217978E-1	5.038270E-1	4.989612E-1	4.493929E-1	4.824335E-1	5.088321E-1	5.120396E-1	4.951360E-1	4.880749E-1	4.840469E-1	4.895546E-1	4.739797E-1	4.775227E-1	4.859734E-1	5.121154E-1	4.655142E-1	4.670932E-1	4.880692E-1	4.850306E-1	4.777378E-1	5.237438E-1	4.991115E-1	5.292295E-1	4.734805E-1	4.941573E-1	4.607034E-1	4.799517E-1	5.072493E-1	5.059976E-1	4.943107E-1	4.923631E-1	5.041075E-1	4.939676E-1	5.274877E-1	5.090052E-1	4.873893E-1	4.915770E-1	4.929153E-1	4.533848E-1	5.223727E-1	4.278224E-1	4.828999E-1	4.910255E-1	5.007169E-1	5.066605E-1	4.442102E-1	4.850218E-1	5.009004E-1	4.862766E-1	4.853703E-1	4.747426E-1	4.890139E-1	4.808853E-1	4.997062E-1	5.238379E-1	5.152706E-1	4.642971E-1	4.788630E-1	4.765954E-1	4.700397E-1	4.848151E-1	4.885169E-1	5.080242E-1	4.780706E-1	5.254634E-1	4.876064E-1	4.850222E-1	4.999992E-1	5.262260E-1	4.785333E-1	5.012969E-1	4.857786E-1	5.109888E-1	4.827463E-1	4.631403E-1	4.899683E-1	4.793864E-1	4.972192E-1	4.986782E-1	5.386607E-1	4.741379E-1	4.963558E-1	4.942140E-1	5.156352E-1	4.743367E-1	4.451931E-1	4.468709E-1	5.059711E-1	4.581389E-1	5.134599E-1	4.976075E-1	4.885281E-1	4.898378E-1	4.995497E-1	4.784194E-1	4.854074E-1	5.100938E-1	4.784239E-1	4.951469E-1	5.039168E-1	4.729567E-1	4.699092E-1	5.057474E-1	4.914106E-1	5.341596E-1	5.086747E-1	5.180786E-1	4.976838E-1	5.067002E-1	4.717786E-1	5.043426E-1	4.931880E-1	5.130437E-1	5.010718E-1	4.910942E-1	5.321982E-1	4.859467E-1	5.085105E-1	5.100997E-1	5.104056E-1	4.725051E-1	5.020585E-1	5.023200E-1	5.171100E-1	4.745338E-1	4.844146E-1	4.922017E-1	4.815287E-1	5.032747E-1	4.935973E-1	4.822904E-1	5.246476E-1
5.372800E+2	4.971167E-1	4.913189E-1	5.135332E-1	4.997047E-1	5.064085E-1	4.945548E-1	5.193199E-1	5.154949E-1	4.678930E-1	5.281255E-1	4.975751E-1	4.758965E-1	5.196622E-1	5.011501E-1	5.306773E-1	5.530032E-1	4.754645E-1	5.187622E-1	4.860434E-1	5.224189E-1	5.373302E-1	4.763466E-1	4.926441E-1	5.375629E-1	5.334604E-1	5.312525E-1	4.913439E-1	4.964332E-1	4.830800E-1	5.256172E-1	5.108586E-1	4.877070E-1	5.161059E-1	5.179936E-1	5.373397E-1	5.186713E-1	5.441694E-1	4.780590E-1	5.644730E-1	5.453478E-1	5.339188E-1	5.165911E-1	5.237161E-1	5.059243E-1	4.951103E-1	5.526610E-1	5.426588E-1	5.040335E-1	5.350523E-1	5.229749E-1	5.013579E-1	5.033843E-1	5.083413E-1	5.167738E-1	4.974042E-1	4.970688E-1	5.104350E-1	5.423987E-1	4.888095E-1	5.100850E-1	4.968261E-1	5.223339E-1	5.032009E-1	5.058726E-1	5.289174E-1	5.086095E-1	5.521931E-1	5.338956E-1	5.116981E-1	5.316887E-1	5.133259E-1	5.175421E-1	4.741032E-1	5.137910E-1	4.871903E-1	5.117751E-1	5.164595E-1	4.891443E-1	4.832118E-1	5.012584E-1	4.991190E-1	5.094728E-1	4.848530E-1	5.043498E-1	5.225936E-1	5.408788E-1	5.141763E-1	5.491992E-1	5.066020E-1	4.956325E-1	5.013676E-1	5.525941E-1	5.234804E-1	5.376255E-1	5.459777E-1	5.123912E-1	5.482561E-1	5.307563E-1	5.014941E-1	5.098555E-1	5.083212E-1	5.320299E-1	4.838779E-1	4.892526E-1	5.177513E-1	4.963788E-1	5.482424E-1	5.129084E-1	5.071783E-1	5.288354E-1	5.234236E-1	5.007955E-1	5.245204E-1	5.069880E-1	5.488342E-1	5.412034E-1	4.852883E-1	5.607124E-1	4.896466E-1	5.084192E-1	4.912077E-1	5.019713E-1	5.047791E-1	5.387526E-1	5.308171E-1	4.925586E-1	5.398968E-1	4.705696E-1	4.834892E-1	5.229430E-1	5.229411E-1	5.337313E-1	4.971190E-1	5.358312E-1	4.823063E-1	5.090800E-1	5.363129E-1	5.153584E-1	5.457130E-1	5.152770E-1	4.955144E-1	4.823960E-1	5.378971E-1	5.346534E-1	4.887589E-1	5.468416E-1	5.500034E-1	5.106465E-1	4.926257E-1	5.379507E-1	5.336902E-1	5.137550E-1	5.181231E-1	5.016921E-1	4.942258E-1	5.146958E-1	5.076228E-1	5.376435E-1	5.267733E-1	5.286847E-1	5.161353E-1	5.354546E-1	4.993366E-1	5.007964E-1	5.191028E-1	5.342813E-1	5.564536E-1	5.114779E-1	5.134191E-1	5.161469E-1	5.297055E-1
5.375060E+2	5.654574E-1	5.973571E-1	6.154216E-1	5.799785E-1	6.009968E-1	5.812207E-1	5.869227E-1	5.822384E-1	5.769817E-1	5.772628E-1	5.746856E-1	6.199233E-1	6.040922E-1	5.815513E-1	6.334739E-1	6.116393E-1	5.848914E-1	5.489761E-1	5.956024E-1	5.967917E-1	5.833957E-1	5.642452E-1	5.764784E-1	6.055498E-1	6.014552E-1	6.031317E-1	5.680327E-1	5.820655E-1	5.762173E-1	6.183044E-1	6.029652E-1	5.903592E-1	5.748368E-1	5.670623E-1	6.009308E-1	6.229141E-1	5.659681E-1	5.391393E-1	5.727785E-1	5.826302E-1	6.046322E-1	6.108106E-1	5.934917E-1	6.149943E-1	5.980031E-1	5.787136E-1	6.228192E-1	5.625390E-1	5.791473E-1	5.665234E-1	6.124288E-1	5.266615E-1	5.858864E-1	6.202974E-1	5.948638E-1	5.974936E-1	5.903240E-1	5.795736E-1	5.836919E-1	6.027201E-1	6.173052E-1	6.422895E-1	6.046002E-1	5.994866E-1	5.959102E-1	5.987699E-1	6.134039E-1	6.030133E-1	6.159505E-1	5.791798E-1	6.200574E-1	5.712727E-1	6.316983E-1	5.944039E-1	5.728944E-1	5.546321E-1	6.496257E-1	5.733961E-1	5.794731E-1	5.846017E-1	6.172844E-1	5.808101E-1	5.806011E-1	6.249106E-1	5.826274E-1	6.089646E-1	5.986476E-1	6.097789E-1	6.227994E-1	5.946758E-1	6.053419E-1	5.786517E-1	6.024306E-1	5.845295E-1	5.904878E-1	6.137453E-1	5.773123E-1	5.928498E-1	5.875562E-1	6.355349E-1	5.729149E-1	5.651495E-1	5.688732E-1	6.044336E-1	6.266748E-1	5.793354E-1	5.891290E-1	5.917765E-1	5.514969E-1	6.062772E-1	5.889137E-1	5.617392E-1	5.801568E-1	6.042803E-1	6.254064E-1	6.215564E-1	6.324689E-1	6.045540E-1	6.281839E-1	5.830462E-1	5.457367E-1	6.115664E-1	6.176415E-1	6.009365E-1	6.273104E-1	5.964696E-1	5.882425E-1	5.736649E-1	6.047306E-1	6.015334E-1	6.175101E-1	5.821441E-1	6.042454E-1	6.064427E-1	6.577615E-1	6.023203E-1	5.840587E-1	6.207141E-1	5.916355E-1	5.773160E-1	6.098981E-1	5.865016E-1	6.154170E-1	6.608850E-1	6.336778E-1	6.087440E-1	6.074134E-1	5.885532E-1	5.720143E-1	6.178612E-1	5.790783E-1	6.043955E-1	5.770808E-1	5.702538E-1	6.290629E-1	5.765322E-1	6.391343E-1	6.268905E-1	6.239005E-1	5.839364E-1	5.997193E-1	5.905856E-1	5.614995E-1	6.045420E-1	6.154261E-1	5.905168E-1	6.094656E-1	6.505527E-1	6.204685E-1	5.326712E-1	5.971845E-1
5.377630E+2	6.933322E-1	7.024658E-1	7.544063E-1	7.039593E-1	6.862825E-1	6.798584E-1	7.255988E-1	7.207367E-1	7.119292E-1	6.713253E-1	7.325021E-1	7.261620E-1	6.930602E-1	7.427729E-1	7.150835E-1	6.873588E-1	6.991623E-1	7.268142E-1	6.941266E-1	7.055676E-1	7.396570E-1	7.220972E-1	7.221289E-1	7.167297E-1	7.324763E-1	6.969901E-1	7.256552E-1	7.261808E-1	6.568709E-1	7.035299E-1	7.504728E-1	6.822573E-1	7.472630E-1	7.599698E-1	7.341176E-1	7.055842E-1	6.882588E-1	7.010346E-1	7.129146E-1	7.810851E-1	7.243057E-1	7.370153E-1	7.483550E-1	7.630848E-1	7.271901E-1	6.658330E-1	7.498305E-1	6.966906E-1	7.805832E-1	7.142605E-1	7.260450E-1	7.036191E-1	7.262719E-1	6.982453E-1	7.036115E-1	7.012927E-1	7.138054E-1	7.273600E-1	7.259112E-1	6.958777E-1	7.158162E-1	6.881412E-1	7.367853E-1	7.444273E-1	7.307005E-1	7.098263E-1	7.339428E-1	7.354062E-1	7.061458E-1	7.238820E-1	7.569904E-1	7.400968E-1	6.698421E-1	7.398862E-1	6.768284E-1	7.301736E-1	7.250605E-1	7.117891E-1	7.001736E-1	6.693514E-1	6.832970E-1	7.270012E-1	7.232170E-1	6.900304E-1	6.892801E-1	7.160435E-1	7.219719E-1	7.353218E-1	7.336705E-1	7.156618E-1	7.084483E-1	6.979192E-1	7.315681E-1	7.344423E-1	7.549595E-1	7.129228E-1	7.157376E-1	7.367632E-1	7.390848E-1	7.038985E-1	7.312317E-1	6.997468E-1	7.210595E-1	7.274133E-1	6.843166E-1	6.914732E-1	7.428429E-1	7.299662E-1	7.373502E-1	7.350896E-1	7.303704E-1	6.960323E-1	6.886432E-1	7.148837E-1	7.112244E-1	7.554245E-1	7.075998E-1	7.029838E-1	7.319971E-1	7.261812E-1	7.016206E-1	7.151753E-1	7.035493E-1	7.458853E-1	7.176173E-1	7.357411E-1	7.459220E-1	7.541593E-1	6.991931E-1	7.169197E-1	7.286532E-1	7.082013E-1	7.243345E-1	7.369158E-1	7.409684E-1	7.345985E-1	7.659323E-1	7.198112E-1	7.325712E-1	7.544171E-1	7.090492E-1	7.275276E-1	7.171934E-1	7.330814E-1	6.937909E-1	7.829521E-1	7.172281E-1	7.236079E-1	7.347118E-1	7.083563E-1	7.083498E-1	7.109690E-1	6.923922E-1	6.744842E-1	7.104425E-1	7.360653E-1	7.266159E-1	7.186895E-1	7.332598E-1	6.570502E-1	6.990855E-1	7.072721E-1	6.937211E-1	6.809289E-1	6.898293E-1	7.299848E-1	7.294237E-1	7.080326E-1	7.177668E-1	7.249037E-1	6.822635E-1
5.380480E+2	8.594428E-1	8.344238E-1	8.780029E-1	8.710638E-1	8.583675E-1	8.908408E-1	8.370516E-1	8.635987E-1	8.735798E-1	8.479723E-1	8.278272E-1	8.365245E-1	8.799741E-1	8.662690E-1	8.697686E-1	8.693117E-1	8.554706E-1	8.295167E-1	8.594409E-1	8.669116E-1	8.364381E-1	8.695992E-1	8.538705E-1	8.432521E-1	8.879572E-1	8.432082E-1	8.582124E-1	8.381387E-1	8.547329E-1	8.306122E-1	8.678590E-1	7.909494E-1	8.909707E-1	9.053967E-1	8.481522E-1	8.554541E-1	8.813848E-1	8.812198E-1	8.542146E-1	8.712304E-1	8.793024E-1	8.695699E-1	8.358818E-1	8.841182E-1	8.733504E-1	8.630446E-1	8.801891E-1	8.658122E-1	8.717564E-1	8.849990E-1	8.512957E-1	8.077424E-1	8.302513E-1	8.525774E-1	8.917954E-1	8.669509E-1	8.611241E-1	8.112010E-1	8.816354E-1	8.690466E-1	8.253118E-1	9.021500E-1	8.450170E-1	8.663551E-1	8.432528E-1	8.661657E-1	8.527696E-1	8.730196E-1	8.127213E-1	8.654861E-1	8.939236E-1	8.234917E-1	8.424943E-1	8.766928E-1	8.514677E-1	8.197409E-1	8.655621E-1	8.682721E-1	8.692452E-1	8.124988E-1	8.172139E-1	8.640042E-1	8.933964E-1	8.497988E-1	8.176965E-1	8.085758E-1	9.274801E-1	9.241839E-1	8.558973E-1	8.447444E-1	8.543784E-1	8.266871E-1	8.669191E-1	8.611036E-1	8.196347E-1	8.414758E-1	8.056365E-1	9.019512E-1	8.804463E-1	9.027318E-1	8.746887E-1	8.550529E-1	8.723528E-1	8.933249E-1	8.276239E-1	8.236498E-1	8.914266E-1	8.565113E-1	9.182501E-1	8.808820E-1	8.811222E-1	8.368777E-1	7.931988E-1	8.398083E-1	8.885986E-1	8.349864E-1	8.399119E-1	8.332663E-1	8.989031E-1	8.563172E-1	8.775012E-1	8.516495E-1	8.817588E-1	8.833566E-1	8.332978E-1	8.184352E-1	8.519225E-1	8.479124E-1	8.495421E-1	8.641498E-1	8.730379E-1	8.465966E-1	8.277323E-1	8.571702E-1	8.585339E-1	8.139359E-1	8.744124E-1	8.930781E-1	8.388011E-1	9.008330E-1	8.794212E-1	8.723291E-1	8.685665E-1	8.886483E-1	8.372933E-1	8.734037E-1	8.632086E-1	8.289441E-1	8.179825E-1	8.721950E-1	8.526969E-1	8.685934E-1	8.650103E-1	8.986513E-1	8.528026E-1	8.421948E-1	8.508427E-1	8.532039E-1	8.184628E-1	8.228872E-1	8.538620E-1	8.900674E-1	8.214686E-1	8.465161E-1	8.442627E-1	8.464778E-1	8.647134E-1	8.909407E-1	8.495277E-1	8.611963E-1	8.703307E-1
5.382640E+2	9.432558E-1	1.006197E+0	9.669469E-1	1.036864E+0	9.886677E-1	1.022628E+0	1.020155E+0	1.024791E+0	9.925699E-1	1.014104E+0	1.010361E+0	1.009004E+0	9.945412E-1	1.033500E+0	1.014136E+0	1.041380E+0	1.028904E+0	1.008703E+0	1.010939E+0	9.984766E-1	9.922567E-1	9.823243E-1	1.004482E+0	1.014684E+0	9.928790E-1	9.717212E-1	9.430921E-1	1.044131E+0	9.709387E-1	9.818587E-1	9.831991E-1	9.852310E-1	1.014974E+0	1.035565E+0	1.024756E+0	1.039804E+0	9.890510E-1	1.030852E+0	9.792537E-1	1.018016E+0	9.792383E-1	1.001551E+0	9.834448E-1	1.048291E+0	1.008430E+0	1.011483E+0	1.018547E+0	9.850830E-1	1.035323E+0	1.019216E+0	9.962330E-1	9.869634E-1	9.838199E-1	9.743359E-1	1.004942E+0	9.069643E-1	1.003270E+0	1.000138E+0	9.458199E-1	1.013838E+0	9.922294E-1	9.693525E-1	9.815488E-1	1.010763E+0	1.047742E+0	9.719048E-1	1.027183E+0	1.006782E+0	9.796796E-1	1.023201E+0	1.013640E+0	9.930376E-1	9.995127E-1	9.957556E-1	1.004032E+0	9.952989E-1	9.791692E-1	1.049184E+0	9.830955E-1	1.016699E+0	1.052956E+0	1.038933E+0	1.013870E+0	9.760576E-1	1.021272E+0	1.015271E+0	1.010684E+0	1.041676E+0	1.014642E+0	1.001115E+0	9.743872E-1	1.035993E+0	1.067868E+0	1.033726E+0	1.034270E+0	1.032296E+0	1.012465E+0	1.007516E+0	1.031736E+0	9.947162E-1	9.916287E-1	9.950873E-1	1.024660E+0	1.037110E+0	9.952142E-1	9.868726E-1	1.010295E+0	1.014036E+0	1.037057E+0	1.015312E+0	1.004629E+0	9.325029E-1	9.956777E-1	9.756718E-1	1.021896E+0	9.725822E-1	9.551915E-1	9.926240E-1	9.886890E-1	1.023204E+0	9.948527E-1	9.677954E-1	1.021613E+0	1.028377E+0	9.837769E-1	9.739883E-1	9.957509E-1	9.569746E-1	9.617684E-1	9.878757E-1	1.009913E+0	1.008484E+0	1.016179E+0	9.696802E-1	1.014438E+0	9.841567E-1	9.951811E-1	1.020061E+0	9.921044E-1	9.747925E-1	1.006004E+0	9.757938E-1	1.010394E+0	1.038779E+0	1.013518E+0	1.028538E+0	1.058529E+0	9.902299E-1	1.036897E+0	9.824120E-1	1.009427E+0	1.036330E+0	9.698160E-1	1.035845E+0	1.005349E+0	9.748813E-1	1.040278E+0	1.040701E+0	1.003859E+0	9.351746E-1	1.045207E+0	9.989075E-1	9.899178E-1	9.852701E-1	9.790771E-1	9.895063E-1	9.963110E-1	9.990571E-1	1.030286E+0	9.725475E-1	1.060554E+0
5.385170E+2	1.181192E+0	1.173590E+0	1.223477E+0	1.251829E+0	1.225734E+0	1.214610E+0	1.258257E+0	1.244455E+0	1.186107E+0	1.158346E+0	1.225557E+0	1.216890E+0	1.252951E+0	1.270782E+0	1.275858E+0	1.249197E+0	1.217374E+0	1.245189E+0	1.235628E+0	1.233500E+0	1.249947E+0	1.164473E+0	1.211070E+0	1.255798E+0	1.165164E+0	1.227289E+0	1.210044E+0	1.131145E+0	1.226509E+0	1.227156E+0	1.222232E+0	1.170225E+0	1.251987E+0	1.293236E+0	1.208152E+0	1.204475E+0	1.263503E+0	1.181113E+0	1.210524E+0	1.207735E+0	1.153719E+0	1.272341E+0	1.186969E+0	1.239143E+0	1.272278E+0	1.267875E+0	1.231121E+0	1.123418E+0	1.198689E+0	1.219751E+0	1.228298E+0	1.141341E+0	1.198960E+0	1.216835E+0	1.225910E+0	1.236270E+0	1.253214E+0	1.202223E+0	1.183116E+0	1.238285E+0	1.222654E+0	1.264953E+0	1.254536E+0	1.237458E+0	1.223904E+0	1.208389E+0	1.215541E+0	1.213003E+0	1.271919E+0	1.187883E+0	1.237266E+0	1.212195E+0	1.238598E+0	1.229127E+0	1.200587E+0	1.174803E+0	1.244228E+0	1.160417E+0	1.215666E+0	1.147969E+0	1.153196E+0	1.191884E+0	1.181187E+0	1.232773E+0	1.193584E+0	1.175208E+0	1.245955E+0	1.182039E+0	1.221501E+0	1.251239E+0	1.214822E+0	1.198706E+0	1.232486E+0	1.244696E+0	1.180242E+0	1.156375E+0	1.213438E+0	1.252832E+0	1.278501E+0	1.156506E+0	1.223563E+0	1.216241E+0	1.213054E+0	1.213238E+0	1.201332E+0	1.185277E+0	1.278928E+0	1.209111E+0	1.198819E+0	1.208905E+0	1.206994E+0	1.229558E+0	1.127274E+0	1.211690E+0	1.168953E+0	1.286136E+0	1.215206E+0	1.265850E+0	1.214201E+0	1.237959E+0	1.191128E+0	1.198328E+0	1.231454E+0	1.202324E+0	1.190731E+0	1.156449E+0	1.232688E+0	1.146676E+0	1.232720E+0	1.236066E+0	1.231307E+0	1.195451E+0	1.186779E+0	1.175864E+0	1.261872E+0	1.218809E+0	1.231473E+0	1.220424E+0	1.207902E+0	1.191300E+0	1.152518E+0	1.198199E+0	1.180642E+0	1.207735E+0	1.222250E+0	1.258268E+0	1.192267E+0	1.138541E+0	1.210074E+0	1.186321E+0	1.188646E+0	1.162877E+0	1.265971E+0	1.175159E+0	1.244686E+0	1.228732E+0	1.270607E+0	1.153547E+0	1.240562E+0	1.205343E+0	1.203434E+0	1.179573E+0	1.190025E+0	1.200214E+0	1.153726E+0	1.198567E+0	1.242625E+0	1.212900E+0	1.189456E+0	1.176295E+0	1.258007E+0
5.387970E+2	1.396178E+0	1.383155E+0	1.477670E+0	1.450494E+0	1.433735E+0	1.424535E+0	1.401752E+0	1.529959E+0	1.433709E+0	1.417689E+0	1.431144E+0	1.407966E+0	1.446804E+0	1.437693E+0	1.439517E+0	1.436349E+0	1.397276E+0	1.432076E+0	1.415311E+0	1.500521E+0	1.423023E+0	1.407001E+0	1.371226E+0	1.438277E+0	1.410276E+0	1.471090E+0	1.438806E+0	1.372842E+0	1.409183E+0	1.414914E+0	1.499217E+0	1.384032E+0	1.434247E+0	1.432505E+0	1.407721E+0	1.436149E+0	1.464246E+0	1.388810E+0	1.453332E+0	1.443292E+0	1.427220E+0	1.448342E+0	1.408088E+0	1.486681E+0	1.443691E+0	1.491569E+0	1.467026E+0	1.410490E+0	1.414057E+0	1.414662E+0	1.443689E+0	1.395305E+0	1.383811E+0	1.455624E+0	1.467222E+0	1.416351E+0	1.406795E+0	1.394866E+0	1.422395E+0	1.465189E+0	1.439834E+0	1.469419E+0	1.430849E+0	1.391511E+0	1.508775E+0	1.347465E+0	1.425087E+0	1.486856E+0	1.399823E+0	1.387480E+0	1.411667E+0	1.418678E+0	1.426225E+0	1.417047E+0	1.416404E+0	1.458107E+0	1.439509E+0	1.352169E+0	1.418958E+0	1.366560E+0	1.397159E+0	1.441590E+0	1.413117E+0	1.415203E+0	1.373333E+0	1.375346E+0	1.357473E+0	1.447577E+0	1.348726E+0	1.395766E+0	1.439430E+0	1.423024E+0	1.374428E+0	1.453415E+0	1.451861E+0	1.449126E+0	1.469807E+0	1.434975E+0	1.400499E+0	1.380560E+0	1.397608E+0	1.412617E+0	1.394326E+0	1.410619E+0	1.379300E+0	1.350954E+0	1.440056E+0	1.419079E+0	1.380716E+0	1.411557E+0	1.393226E+0	1.351698E+0	1.427905E+0	1.447392E+0	1.416140E+0	1.404649E+0	1.360587E+0	1.378434E+0	1.428883E+0	1.400918E+0	1.353362E+0	1.360588E+0	1.467317E+0	1.424988E+0	1.442270E+0	1.410189E+0	1.416892E+0	1.385690E+0	1.385134E+0	1.366959E+0	1.429954E+0	1.403126E+0	1.378816E+0	1.406300E+0	1.399680E+0	1.416965E+0	1.422523E+0	1.415941E+0	1.408070E+0	1.397881E+0	1.395824E+0	1.428447E+0	1.389684E+0	1.441346E+0	1.385465E+0	1.396286E+0	1.415957E+0	1.495452E+0	1.406313E+0	1.430372E+0	1.440432E+0	1.386592E+0	1.433391E+0	1.373527E+0	1.415056E+0	1.345845E+0	1.317402E+0	1.377402E+0	1.457721E+0	1.405809E+0	1.437206E+0	1.372585E+0	1.420186E+0	1.432060E+0	1.364182E+0	1.383591E+0	1.418464E+0	1.438118E+0	1.429696E+0	1.371703E+0	1.444034E+0
5.390130E+2	1.614456E+0	1.583902E+0	1.612723E+0	1.732223E+0	1.619225E+0	1.618265E+0	1.602112E+0	1.652664E+0	1.632212E+0	1.636882E+0	1.665541E+0	1.676880E+0	1.615489E+0	1.667078E+0	1.675478E+0	1.663346E+0	1.687553E+0	1.645975E+0	1.695136E+0	1.722341E+0	1.656428E+0	1.563928E+0	1.621964E+0	1.603592E+0	1.729579E+0	1.647684E+0	1.619271E+0	1.618889E+0	1.608719E+0	1.649458E+0	1.666053E+0	1.542276E+0	1.741383E+0	1.656423E+0	1.657467E+0	1.683439E+0	1.631332E+0	1.642386E+0	1.671575E+0	1.634289E+0	1.645274E+0	1.678360E+0	1.618129E+0	1.699135E+0	1.603081E+0	1.675718E+0	1.684087E+0	1.619302E+0	1.697217E+0	1.623052E+0	1.686524E+0	1.562455E+0	1.555345E+0	1.648312E+0	1.661069E+0	1.654058E+0	1.634177E+0	1.647141E+0	1.616260E+0	1.624742E+0	1.629846E+0	1.712654E+0	1.659181E+0	1.614666E+0	1.629204E+0	1.596285E+0	1.639060E+0	1.678429E+0	1.623862E+0	1.630077E+0	1.600273E+0	1.630608E+0	1.619687E+0	1.637810E+0	1.614515E+0	1.629839E+0	1.609097E+0	1.641903E+0	1.657514E+0	1.569368E+0	1.670616E+0	1.635783E+0	1.688383E+0	1.605682E+0	1.658649E+0	1.605142E+0	1.596632E+0	1.656713E+0	1.608809E+0	1.624902E+0	1.579154E+0	1.616044E+0	1.643339E+0	1.644617E+0	1.633514E+0	1.716004E+0	1.649717E+0	1.603619E+0	1.630589E+0	1.616919E+0	1.620909E+0	1.604932E+0	1.563291E+0	1.685341E+0	1.616660E+0	1.598287E+0	1.644797E+0	1.572620E+0	1.610477E+0	1.625420E+0	1.676335E+0	1.615146E+0	1.547475E+0	1.660672E+0	1.627078E+0	1.646659E+0	1.598371E+0	1.607526E+0	1.583564E+0	1.632101E+0	1.623470E+0	1.632539E+0	1.587835E+0	1.685492E+0	1.621980E+0	1.608474E+0	1.590359E+0	1.575644E+0	1.562581E+0	1.574885E+0	1.606425E+0	1.633300E+0	1.634865E+0	1.654512E+0	1.567513E+0	1.640683E+0	1.615184E+0	1.599490E+0	1.583738E+0	1.673381E+0	1.631603E+0	1.604607E+0	1.590255E+0	1.601002E+0	1.636065E+0	1.666848E+0	1.643474E+0	1.606021E+0	1.613859E+0	1.618910E+0	1.565287E+0	1.615565E+0	1.578861E+0	1.589363E+0	1.648583E+0	1.663182E+0	1.700318E+0	1.574173E+0	1.663040E+0	1.560578E+0	1.604118E+0	1.624728E+0	1.617802E+0	1.548108E+0	1.548973E+0	1.600688E+0	1.621959E+0	1.660835E+0	1.601422E+0	1.605189E+0	1.580303E+0
5.392930E+2	1.858324E+0	1.780729E+0	1.881501E+0	1.912920E+0	1.818707E+0	1.857675E+0	1.798917E+0	1.885781E+0	1.865355E+0	1.832719E+0	1.810625E+0	1.885418E+0	1.874167E+0	1.868855E+0	1.887844E+0	1.873678E+0	1.895982E+0	1.867356E+0	1.889581E+0	1.875937E+0	1.895853E+0	1.821800E+0	1.828721E+0	1.914716E+0	1.784976E+0	1.895471E+0	1.819828E+0	1.797058E+0	1.799875E+0	1.837786E+0	1.895099E+0	1.789282E+0	1.860388E+0	1.867337E+0	1.871587E+0	1.791420E+0	1.839930E+0	1.815100E+0	1.803915E+0	1.840602E+0	1.886184E+0	1.903862E+0	1.914812E+0	1.809993E+0	1.812335E+0	1.819376E+0	1.930836E+0	1.806991E+0	1.803584E+0	1.843208E+0	1.896305E+0	1.818614E+0	1.760807E+0	1.862893E+0	1.881267E+0	1.817034E+0	1.802014E+0	1.805974E+0	1.774589E+0	1.857835E+0	1.773423E+0	1.873833E+0	1.838088E+0	1.828956E+0	1.883132E+0	1.787424E+0	1.862742E+0	1.837652E+0	1.734026E+0	1.850658E+0	1.851272E+0	1.789698E+0	1.837732E+0	1.869128E+0	1.821628E+0	1.822164E+0	1.856389E+0	1.789762E+0	1.765029E+0	1.794596E+0	1.801890E+0	1.836278E+0	1.799031E+0	1.819440E+0	1.803540E+0	1.807589E+0	1.743493E+0	1.890271E+0	1.751588E+0	1.830736E+0	1.812140E+0	1.793574E+0	1.863294E+0	1.882506E+0	1.823863E+0	1.794121E+0	1.866675E+0	1.802548E+0	1.834115E+0	1.815377E+0	1.891906E+0	1.804712E+0	1.809524E+0	1.814748E+0	1.806911E+0	1.760688E+0	1.803106E+0	1.795012E+0	1.877466E+0	1.777608E+0	1.817630E+0	1.814942E+0	1.790683E+0	1.807364E+0	1.847094E+0	1.844257E+0	1.838048E+0	1.841440E+0	1.786791E+0	1.855540E+0	1.844595E+0	1.746114E+0	1.766521E+0	1.843142E+0	1.803252E+0	1.796425E+0	1.808748E+0	1.817301E+0	1.783832E+0	1.827456E+0	1.814991E+0	1.867072E+0	1.780767E+0	1.789065E+0	1.705485E+0	1.771400E+0	1.776363E+0	1.715565E+0	1.757168E+0	1.778818E+0	1.840657E+0	1.793764E+0	1.784503E+0	1.871943E+0	1.857640E+0	1.897365E+0	1.753113E+0	1.832552E+0	1.755322E+0	1.810222E+0	1.796506E+0	1.794994E+0	1.874409E+0	1.809472E+0	1.797978E+0	1.779377E+0	1.789240E+0	1.818703E+0	1.793803E+0	1.763551E+0	1.760629E+0	1.818563E+0	1.769126E+0	1.752906E+0	1.792313E+0	1.848592E+0	1.836437E+0	1.776155E+0	1.786481E+0	1.802146E+0	1.820161E+0
5.395210E+2	1.947410E+0	2.034676E+0	2.001633E+0	1.993333E+0	2.063972E+0	1.997010E+0	2.002500E+0	2.064558E+0	2.062514E+0	2.023341E+0	1.976829E+0	2.033254E+0	2.005909E+0	1.979087E+0	1.992043E+0	2.036363E+0	2.054758E+0	2.050825E+0	2.040248E+0	2.057310E+0	2.039868E+0	1.952388E+0	1.987638E+0	2.060504E+0	2.044500E+0	2.079073E+0	2.014392E+0	2.060247E+0	1.975594E+0	1.984009E+0	2.055603E+0	2.004653E+0	2.017259E+0	2.038510E+0	2.096904E+0	2.034668E+0	2.018805E+0	2.004434E+0	2.051362E+0	2.075902E+0	1.999639E+0	2.051480E+0	2.019296E+0	2.060611E+0	2.016812E+0	1.967831E+0	2.018798E+0	1.967139E+0	2.018912E+0	1.977758E+0	1.989085E+0	2.045896E+0	1.915195E+0	1.942926E+0	2.059295E+0	2.018372E+0	1.974065E+0	1.949225E+0	1.905257E+0	1.982983E+0	1.920170E+0	2.047535E+0	2.029212E+0	2.030938E+0	1.987745E+0	1.970174E+0	1.996235E+0	1.989512E+0	1.997378E+0	2.001347E+0	2.037139E+0	2.042966E+0	2.051389E+0	1.966379E+0	1.987335E+0	1.939395E+0	1.979712E+0	2.026503E+0	1.987453E+0	1.966685E+0	2.038842E+0	1.935741E+0	2.054532E+0	1.942942E+0	1.983817E+0	1.924391E+0	2.016441E+0	2.022264E+0	1.985522E+0	1.966650E+0	1.945046E+0	1.934881E+0	1.983244E+0	1.997162E+0	1.996152E+0	2.000707E+0	1.907556E+0	1.974491E+0	1.952835E+0	1.996567E+0	1.976613E+0	1.910995E+0	1.984021E+0	1.973596E+0	1.955934E+0	1.855680E+0	1.918504E+0	1.997784E+0	2.030077E+0	1.973582E+0	2.020799E+0	1.936735E+0	1.997372E+0	1.975034E+0	2.037293E+0	1.985859E+0	1.925177E+0	1.999972E+0	1.931359E+0	2.052514E+0	1.909575E+0	1.950833E+0	1.959662E+0	1.958333E+0	1.936827E+0	1.986061E+0	1.978457E+0	1.960024E+0	1.899419E+0	1.985552E+0	1.930473E+0	1.928618E+0	1.928362E+0	1.967793E+0	1.933193E+0	1.978509E+0	1.952572E+0	1.923691E+0	1.903119E+0	1.905375E+0	1.971030E+0	1.958349E+0	1.975081E+0	2.058560E+0	1.945442E+0	2.011356E+0	1.935246E+0	1.995093E+0	1.986036E+0	1.952853E+0	1.918185E+0	1.964396E+0	1.902574E+0	1.969952E+0	1.942143E+0	1.801867E+0	1.994598E+0	1.928551E+0	2.006259E+0	1.890853E+0	1.900190E+0	1.888247E+0	1.923276E+0	1.914769E+0	1.907981E+0	1.920975E+0	1.979580E+0	1.962718E+0	1.944218E+0	1.897445E+0	1.914062E+0
5.397650E+2	1.997853E+0	2.009480E+0	1.971997E+0	2.144469E+0	1.971400E+0	2.053707E+0	2.038463E+0	2.117494E+0	2.044450E+0	2.047584E+0	2.002136E+0	2.018708E+0	1.990113E+0	2.066521E+0	2.001454E+0	2.079247E+0	1.988288E+0	2.067900E+0	2.090099E+0	2.044053E+0	2.093361E+0	2.017096E+0	1.950024E+0	1.997961E+0	2.051190E+0	2.060182E+0	1.993887E+0	2.059301E+0	2.052468E+0	1.956489E+0	2.023447E+0	1.975613E+0	2.047525E+0	1.993111E+0	2.012383E+0	2.033720E+0	2.003799E+0	1.966983E+0	2.131227E+0	2.115556E+0	2.035852E+0	2.076762E+0	1.949964E+0	2.007762E+0	2.018274E+0	2.031361E+0	2.002348E+0	1.972046E+0	1.968723E+0	2.019274E+0	2.047619E+0	1.954319E+0	1.943111E+0	2.019535E+0	2.022642E+0	2.038398E+0	1.933678E+0	1.954584E+0	1.972916E+0	1.986324E+0	1.933631E+0	2.057055E+0	1.975697E+0	1.990853E+0	1.982050E+0	1.955127E+0	1.969521E+0	2.006130E+0	2.007016E+0	1.977914E+0	2.055215E+0	2.009018E+0	2.003835E+0	2.066776E+0	2.013869E+0	1.960741E+0	1.906665E+0	1.996513E+0	2.040326E+0	1.925706E+0	2.035340E+0	2.013004E+0	1.989459E+0	1.962348E+0	1.897599E+0	1.855006E+0	2.032943E+0	2.059404E+0	1.980474E+0	2.056709E+0	2.032700E+0	1.881444E+0	2.013811E+0	1.971539E+0	2.014657E+0	1.985553E+0	1.952293E+0	1.952161E+0	1.946400E+0	1.942976E+0	1.942587E+0	1.975962E+0	1.998938E+0	2.068335E+0	1.967371E+0	1.919978E+0	2.005113E+0	1.997014E+0	1.951147E+0	2.004516E+0	1.993494E+0	1.945643E+0	1.890111E+0	2.080142E+0	2.009835E+0	2.028747E+0	1.920503E+0	1.950039E+0	1.969633E+0	1.953236E+0	1.974190E+0	1.964494E+0	1.974156E+0	2.036621E+0	2.059843E+0	1.910517E+0	1.929137E+0	1.972625E+0	1.941290E+0	1.954188E+0	1.988391E+0	1.989754E+0	1.990325E+0	1.956235E+0	1.898131E+0	2.041632E+0	1.964322E+0	1.954398E+0	1.899937E+0	1.926940E+0	1.963062E+0	1.957834E+0	1.902207E+0	2.064741E+0	1.962298E+0	1.989567E+0	1.991820E+0	1.958636E+0	1.918940E+0	1.946846E+0	1.904336E+0	1.912876E+0	1.954941E+0	1.988350E+0	1.989724E+0	1.977933E+0	1.909240E+0	1.953285E+0	1.997476E+0	1.924494E+0	1.969486E+0	1.903238E+0	1.918479E+0	1.954700E+0	1.930570E+0	1.930497E+0	1.977974E+0	1.975475E+0	1.940892E+0	1.916493E+0	1.933942E+0
5.400190E+2	1.945410E+0	1.979978E+0	2.007488E+0	2.039510E+0	1.946139E+0	2.007664E+0	2.009226E+0	2.015145E+0	2.059949E+0	1.951947E+0	1.977599E+0	2.070596E+0	2.079526E+0	2.008233E+0	1.973301E+0	2.046924E+0	2.018453E+0	2.042556E+0	1.980752E+0	2.032451E+0	2.044493E+0	1.994784E+0	2.048769E+0	2.000842E+0	2.117050E+0	2.049392E+0	1.969150E+0	2.023528E+0	1.960603E+0	1.926943E+0	2.010898E+0	1.920722E+0	1.959691E+0	2.080155E+0	2.049576E+0	2.050444E+0	1.961003E+0	1.917600E+0	1.980649E+0	2.119344E+0	1.938415E+0	1.992708E+0	2.015707E+0	2.015668E+0	1.987592E+0	2.042674E+0	1.969712E+0	1.959936E+0	1.969418E+0	1.935272E+0	1.969091E+0	1.962833E+0	1.890441E+0	1.974388E+0	1.998521E+0	1.981687E+0	1.947718E+0	1.984987E+0	1.963136E+0	2.012039E+0	1.924777E+0	2.097097E+0	1.977682E+0	1.990423E+0	1.962669E+0	1.925208E+0	1.985876E+0	1.927731E+0	1.975762E+0	1.955279E+0	2.009937E+0	1.929363E+0	2.044753E+0	2.022571E+0	1.925554E+0	1.975052E+0	1.986685E+0	1.979902E+0	1.922923E+0	1.945271E+0	1.933093E+0	1.955560E+0	1.998978E+0	1.930718E+0	1.924249E+0	1.971637E+0	1.960308E+0	2.020077E+0	1.940187E+0	1.983498E+0	1.973849E+0	1.942480E+0	1.956646E+0	1.952707E+0	1.936287E+0	1.971358E+0	1.943930E+0	1.951834E+0	1.989997E+0	2.002221E+0	1.929702E+0	1.894418E+0	1.940317E+0	2.021073E+0	2.021584E+0	1.935977E+0	1.938388E+0	1.997997E+0	1.918203E+0	1.968705E+0	1.918819E+0	1.918199E+0	1.879861E+0	1.945088E+0	1.967392E+0	2.001433E+0	1.927025E+0	2.029837E+0	1.873941E+0	2.068333E+0	1.952038E+0	1.879793E+0	2.031614E+0	1.937253E+0	1.931175E+0	1.938807E+0	1.980141E+0	1.917341E+0	1.989524E+0	1.960625E+0	2.003696E+0	1.893379E+0	1.899745E+0	1.969481E+0	1.979224E+0	2.037105E+0	1.938089E+0	1.888607E+0	1.973974E+0	1.859679E+0	1.936377E+0	1.997087E+0	1.935269E+0	1.959347E+0	1.986055E+0	2.000468E+0	1.904074E+0	1.942053E+0	1.893031E+0	1.912593E+0	1.834716E+0	1.953358E+0	1.971950E+0	1.916039E+0	1.936098E+0	1.871291E+0	1.970956E+0	1.852372E+0	1.926845E+0	1.883774E+0	1.949175E+0	1.975144E+0	1.902646E+0	1.902474E+0	1.916071E+0	1.950197E+0	1.950693E+0	1.926091E+0	2.013896E+0	1.884861E+0	1.916813E+0
5.402790E+2	1.896901E+0	1.879197E+0	1.932247E+0	1.871379E+0	1.909233E+0	2.012709E+0	1.924909E+0	1.913047E+0	1.920197E+0	1.884311E+0	1.918797E+0	1.859887E+0	1.897356E+0	1.914111E+0	1.899359E+0	1.920008E+0	1.910019E+0	1.927820E+0	1.911284E+0	1.892940E+0	1.960327E+0	1.911253E+0	1.871228E+0	1.922653E+0	1.914327E+0	1.886289E+0	1.861505E+0	1.911513E+0	1.914874E+0	1.907525E+0	1.903263E+0	1.837863E+0	1.942279E+0	1.968984E+0	1.927504E+0	1.896916E+0	1.936173E+0	1.881444E+0	1.929268E+0	1.950430E+0	1.852722E+0	1.937025E+0	1.941695E+0	1.944875E+0	1.847303E+0	1.934487E+0	1.909319E+0	1.801702E+0	1.852682E+0	1.857328E+0	1.958475E+0	1.903662E+0	1.851101E+0	1.849197E+0	1.918437E+0	1.915612E+0	1.952881E+0	1.858990E+0	1.810428E+0	1.842034E+0	1.861135E+0	1.944130E+0	1.872524E+0	1.841844E+0	1.896768E+0	1.888191E+0	1.911127E+0	1.814782E+0	1.925740E+0	1.907415E+0	1.948257E+0	1.907426E+0	1.869674E+0	1.875047E+0	1.853521E+0	1.874386E+0	1.882108E+0	1.937625E+0	1.783259E+0	1.816849E+0	1.881982E+0	1.917663E+0	1.895435E+0	1.814450E+0	1.795479E+0	1.797161E+0	1.906535E+0	1.941067E+0	1.734577E+0	1.872364E+0	1.950728E+0	1.861097E+0	1.930334E+0	1.795013E+0	1.941513E+0	1.830689E+0	1.954234E+0	1.909819E+0	1.925996E+0	1.892590E+0	1.896012E+0	1.878326E+0	1.851935E+0	1.887610E+0	1.883973E+0	1.745595E+0	1.870683E+0	1.811124E+0	1.870642E+0	1.902656E+0	1.907006E+0	1.907644E+0	1.807930E+0	1.896186E+0	1.900718E+0	1.846926E+0	1.853440E+0	1.868252E+0	1.863120E+0	1.908276E+0	1.865461E+0	1.849727E+0	1.888303E+0	1.851492E+0	1.913369E+0	1.835063E+0	1.904228E+0	1.829466E+0	1.849151E+0	1.872603E+0	1.925918E+0	1.869008E+0	1.775282E+0	1.886198E+0	1.890752E+0	1.874211E+0	1.890558E+0	1.837300E+0	1.795077E+0	1.789259E+0	1.837771E+0	1.837877E+0	1.859676E+0	1.948173E+0	1.954275E+0	1.945713E+0	1.818140E+0	1.876084E+0	1.855353E+0	1.871920E+0	1.880465E+0	1.899589E+0	1.850106E+0	1.884229E+0	1.862734E+0	1.772267E+0	1.865784E+0	1.844584E+0	1.957513E+0	1.845392E+0	1.847124E+0	1.806680E+0	1.815901E+0	1.910936E+0	1.810512E+0	1.862550E+0	1.832212E+0	1.835286E+0	1.856769E+0	1.838415E+0	1.834656E+0
5.405080E+2	1.759964E+0	1.849824E+0	1.823632E+0	1.885221E+0	1.878062E+0	1.851210E+0	1.845518E+0	1.904160E+0	1.759493E+0	1.829340E+0	1.890839E+0	1.859802E+0	1.862491E+0	1.886732E+0	1.797763E+0	1.812536E+0	1.834507E+0	1.845688E+0	1.812540E+0	1.917413E+0	1.853292E+0	1.847048E+0	1.733928E+0	1.927149E+0	1.822802E+0	1.848140E+0	1.846153E+0	1.796973E+0	1.848460E+0	1.844270E+0	1.856506E+0	1.755478E+0	1.865051E+0	1.858126E+0	1.810947E+0	1.881561E+0	1.804578E+0	1.872222E+0	1.817531E+0	1.881476E+0	1.845996E+0	1.813298E+0	1.819837E+0	1.880926E+0	1.836283E+0	1.818025E+0	1.882231E+0	1.817917E+0	1.828299E+0	1.852642E+0	1.847663E+0	1.884440E+0	1.803339E+0	1.771452E+0	1.808864E+0	1.825185E+0	1.820107E+0	1.783535E+0	1.748871E+0	1.890832E+0	1.757971E+0	1.750357E+0	1.821421E+0	1.845499E+0	1.917483E+0	1.795314E+0	1.813427E+0	1.831848E+0	1.852382E+0	1.763934E+0	1.848735E+0	1.874616E+0	1.788148E+0	1.761244E+0	1.795233E+0	1.782033E+0	1.828631E+0	1.848933E+0	1.813917E+0	1.717420E+0	1.778459E+0	1.841915E+0	1.820170E+0	1.833292E+0	1.802524E+0	1.843420E+0	1.882954E+0	1.910598E+0	1.852421E+0	1.785184E+0	1.770800E+0	1.867225E+0	1.835304E+0	1.788982E+0	1.793625E+0	1.722006E+0	1.818605E+0	1.798958E+0	1.818116E+0	1.828406E+0	1.746120E+0	1.795339E+0	1.772827E+0	1.849602E+0	1.777067E+0	1.812232E+0	1.783067E+0	1.830407E+0	1.817102E+0	1.793704E+0	1.861109E+0	1.812060E+0	1.777370E+0	1.828688E+0	1.809296E+0	1.922943E+0	1.832492E+0	1.759972E+0	1.831987E+0	1.870213E+0	1.786092E+0	1.845390E+0	1.847431E+0	1.803690E+0	1.795211E+0	1.809224E+0	1.789795E+0	1.789913E+0	1.735623E+0	1.822851E+0	1.775084E+0	1.888122E+0	1.807912E+0	1.825836E+0	1.766988E+0	1.773539E+0	1.828931E+0	1.762821E+0	1.799626E+0	1.824782E+0	1.765026E+0	1.778663E+0	1.798422E+0	1.802101E+0	1.782446E+0	1.834071E+0	1.761530E+0	1.753301E+0	1.783281E+0	1.816083E+0	1.805091E+0	1.837874E+0	1.844105E+0	1.816552E+0	1.806223E+0	1.766669E+0	1.857512E+0	1.790245E+0	1.844733E+0	1.752585E+0	1.771384E+0	1.745815E+0	1.768125E+0	1.767592E+0	1.765128E+0	1.856795E+0	1.758364E+0	1.824948E+0	1.827854E+0	1.752623E+0	1.839453E+0
5.407630E+2	1.736402E+0	1.747121E+0	1.718179E+0	1.803308E+0	1.737385E+0	1.684869E+0	1.745433E+0	1.694103E+0	1.772282E+0	1.738147E+0	1.708679E+0	1.673808E+0	1.773503E+0	1.742277E+0	1.752065E+0	1.773119E+0	1.703186E+0	1.747434E+0	1.744242E+0	1.829360E+0	1.806475E+0	1.705015E+0	1.723435E+0	1.696467E+0	1.797540E+0	1.771880E+0	1.688495E+0	1.729484E+0	1.729969E+0	1.727715E+0	1.714060E+0	1.746133E+0	1.737025E+0	1.711958E+0	1.724870E+0	1.652652E+0	1.724799E+0	1.737990E+0	1.717571E+0	1.843566E+0	1.761793E+0	1.809878E+0	1.742413E+0	1.750687E+0	1.819963E+0	1.709360E+0	1.796751E+0	1.642935E+0	1.757755E+0	1.737383E+0	1.710121E+0	1.712924E+0	1.694471E+0	1.747698E+0	1.750575E+0	1.654715E+0	1.732544E+0	1.744512E+0	1.674521E+0	1.707343E+0	1.638022E+0	1.792997E+0	1.740543E+0	1.710454E+0	1.722052E+0	1.657455E+0	1.709599E+0	1.720083E+0	1.710369E+0	1.680887E+0	1.678730E+0	1.700165E+0	1.718531E+0	1.735327E+0	1.716081E+0	1.699536E+0	1.691789E+0	1.736725E+0	1.695296E+0	1.682141E+0	1.735865E+0	1.726236E+0	1.725509E+0	1.686533E+0	1.744942E+0	1.687301E+0	1.750341E+0	1.804849E+0	1.711399E+0	1.748996E+0	1.714820E+0	1.659962E+0	1.743822E+0	1.719674E+0	1.755662E+0	1.796012E+0	1.722495E+0	1.659562E+0	1.706030E+0	1.732418E+0	1.660730E+0	1.675929E+0	1.683408E+0	1.755832E+0	1.648050E+0	1.654634E+0	1.697049E+0	1.721142E+0	1.662248E+0	1.696088E+0	1.745231E+0	1.658428E+0	1.684912E+0	1.689685E+0	1.714769E+0	1.730828E+0	1.696397E+0	1.681998E+0	1.686790E+0	1.745506E+0	1.723279E+0	1.692722E+0	1.721711E+0	1.732158E+0	1.766128E+0	1.738817E+0	1.741457E+0	1.721966E+0	1.686788E+0	1.729542E+0	1.763383E+0	1.705651E+0	1.605351E+0	1.759301E+0	1.692251E+0	1.738131E+0	1.729194E+0	1.707955E+0	1.680959E+0	1.656496E+0	1.638820E+0	1.758332E+0	1.708836E+0	1.718089E+0	1.724260E+0	1.800011E+0	1.643424E+0	1.785659E+0	1.708841E+0	1.736081E+0	1.620176E+0	1.683017E+0	1.686885E+0	1.670679E+0	1.686296E+0	1.614368E+0	1.709185E+0	1.668370E+0	1.748257E+0	1.625645E+0	1.721552E+0	1.720910E+0	1.633701E+0	1.712887E+0	1.683304E+0	1.731102E+0	1.705915E+0	1.678924E+0	1.671448E+0	1.694032E+0	1.712152E+0
5.410240E+2	1.620797E+0	1.573931E+0	1.570114E+0	1.626131E+0	1.585664E+0	1.567701E+0	1.565505E+0	1.644276E+0	1.604712E+0	1.597610E+0	1.608890E+0	1.563377E+0	1.633861E+0	1.637414E+0	1.578264E+0	1.602588E+0	1.660643E+0	1.584603E+0	1.589351E+0	1.650617E+0	1.596703E+0	1.560356E+0	1.579266E+0	1.581278E+0	1.606937E+0	1.637933E+0	1.595314E+0	1.559564E+0	1.578147E+0	1.572357E+0	1.615546E+0	1.502539E+0	1.573884E+0	1.639566E+0	1.621623E+0	1.564981E+0	1.602454E+0	1.600650E+0	1.538747E+0	1.644774E+0	1.556229E+0	1.618501E+0	1.592272E+0	1.625885E+0	1.617853E+0	1.530589E+0	1.638663E+0	1.538094E+0	1.563235E+0	1.589837E+0	1.556935E+0	1.581707E+0	1.540469E+0	1.544435E+0	1.594034E+0	1.548673E+0	1.583223E+0	1.572499E+0	1.555121E+0	1.557741E+0	1.559330E+0	1.614728E+0	1.567837E+0	1.617458E+0	1.595097E+0	1.610704E+0	1.569968E+0	1.571306E+0	1.565525E+0	1.598480E+0	1.553058E+0	1.633220E+0	1.653536E+0	1.552253E+0	1.596047E+0	1.530149E+0	1.574033E+0	1.614302E+0	1.555379E+0	1.545338E+0	1.590985E+0	1.590444E+0	1.610303E+0	1.547689E+0	1.589532E+0	1.542933E+0	1.610715E+0	1.603950E+0	1.538923E+0	1.560135E+0	1.535611E+0	1.543865E+0	1.510941E+0	1.595938E+0	1.622692E+0	1.569028E+0	1.623273E+0	1.557884E+0	1.628506E+0	1.534009E+0	1.590356E+0	1.567313E+0	1.578199E+0	1.637576E+0	1.547281E+0	1.504765E+0	1.554597E+0	1.547074E+0	1.539801E+0	1.570973E+0	1.592500E+0	1.561108E+0	1.541811E+0	1.552801E+0	1.550876E+0	1.592359E+0	1.536940E+0	1.591548E+0	1.633929E+0	1.627707E+0	1.547955E+0	1.570930E+0	1.571622E+0	1.617307E+0	1.547988E+0	1.550312E+0	1.578009E+0	1.509017E+0	1.561620E+0	1.565246E+0	1.592365E+0	1.530140E+0	1.480337E+0	1.626735E+0	1.564129E+0	1.542664E+0	1.573858E+0	1.556523E+0	1.490952E+0	1.529436E+0	1.594024E+0	1.600105E+0	1.572013E+0	1.651043E+0	1.571510E+0	1.523558E+0	1.517181E+0	1.585711E+0	1.614742E+0	1.550585E+0	1.567806E+0	1.573689E+0	1.562952E+0	1.617840E+0	1.533211E+0	1.546972E+0	1.584737E+0	1.572744E+0	1.622457E+0	1.513579E+0	1.533780E+0	1.555328E+0	1.525836E+0	1.591467E+0	1.541663E+0	1.597161E+0	1.549219E+0	1.589215E+0	1.585018E+0	1.580907E+0	1.514256E+0
5.412640E+2	1.544315E+0	1.531857E+0	1.623377E+0	1.592041E+0	1.567710E+0	1.505826E+0	1.603820E+0	1.581268E+0	1.579007E+0	1.513859E+0	1.588453E+0	1.499214E+0	1.514556E+0	1.613375E+0	1.544136E+0	1.583071E+0	1.641637E+0	1.572081E+0	1.571930E+0	1.563745E+0	1.581911E+0	1.540363E+0	1.631752E+0	1.485170E+0	1.605726E+0	1.533169E+0	1.551074E+0	1.527433E+0	1.581362E+0	1.542064E+0	1.581058E+0	1.543157E+0	1.578076E+0	1.614880E+0	1.621443E+0	1.499125E+0	1.614319E+0	1.576494E+0	1.638528E+0	1.533379E+0	1.567704E+0	1.534221E+0	1.622798E+0	1.555231E+0	1.582886E+0	1.596351E+0	1.585394E+0	1.586462E+0	1.560379E+0	1.590263E+0	1.524507E+0	1.513580E+0	1.474930E+0	1.534218E+0	1.562270E+0	1.523341E+0	1.598709E+0	1.550053E+0	1.538219E+0	1.509078E+0	1.518392E+0	1.568767E+0	1.535111E+0	1.536426E+0	1.558000E+0	1.495780E+0	1.594173E+0	1.551307E+0	1.554436E+0	1.557897E+0	1.535308E+0	1.553494E+0	1.582061E+0	1.608676E+0	1.564723E+0	1.550209E+0	1.538262E+0	1.492531E+0	1.560052E+0	1.516627E+0	1.560845E+0	1.527668E+0	1.525764E+0	1.490281E+0	1.530183E+0	1.522904E+0	1.528057E+0	1.611139E+0	1.563143E+0	1.526048E+0	1.503998E+0	1.540623E+0	1.561812E+0	1.516490E+0	1.548101E+0	1.514169E+0	1.586819E+0	1.566659E+0	1.591481E+0	1.505308E+0	1.536367E+0	1.500311E+0	1.511301E+0	1.604828E+0	1.611943E+0	1.526447E+0	1.470092E+0	1.571751E+0	1.522699E+0	1.538815E+0	1.590367E+0	1.559379E+0	1.555011E+0	1.532249E+0	1.544056E+0	1.564302E+0	1.488037E+0	1.567513E+0	1.588651E+0	1.567006E+0	1.516872E+0	1.474668E+0	1.521867E+0	1.556506E+0	1.631697E+0	1.589359E+0	1.504433E+0	1.503926E+0	1.581394E+0	1.566088E+0	1.574035E+0	1.515750E+0	1.467301E+0	1.500415E+0	1.550694E+0	1.537136E+0	1.604453E+0	1.457126E+0	1.517932E+0	1.460109E+0	1.452520E+0	1.549850E+0	1.499891E+0	1.588047E+0	1.587091E+0	1.589338E+0	1.533707E+0	1.517328E+0	1.516628E+0	1.535905E+0	1.509279E+0	1.545460E+0	1.577892E+0	1.514508E+0	1.441415E+0	1.549337E+0	1.544932E+0	1.515462E+0	1.591727E+0	1.458723E+0	1.610902E+0	1.553123E+0	1.546673E+0	1.570490E+0	1.569142E+0	1.530948E+0	1.510242E+0	1.519165E+0	1.474457E+0	1.471631E+0	1.590041E+0
5.415190E+2	1.486371E+0	1.419462E+0	1.476870E+0	1.480739E+0	1.486209E+0	1.519318E+0	1.415617E+0	1.457599E+0	1.461081E+0	1.468095E+0	1.460606E+0	1.418347E+0	1.448403E+0	1.428529E+0	1.468798E+0	1.407304E+0	1.496895E+0	1.495128E+0	1.497737E+0	1.519000E+0	1.499772E+0	1.390671E+0	1.487789E+0	1.465625E+0	1.507550E+0	1.456717E+0	1.451297E+0	1.458972E+0	1.440471E+0	1.518023E+0	1.526013E+0	1.403287E+0	1.529660E+0	1.506152E+0	1.484179E+0	1.468769E+0	1.445088E+0	1.456551E+0	1.480081E+0	1.512183E+0	1.502955E+0	1.506208E+0	1.515218E+0	1.434036E+0	1.480739E+0	1.478759E+0	1.451035E+0	1.448639E+0	1.460786E+0	1.458889E+0	1.456128E+0	1.422287E+0	1.423855E+0	1.529669E+0	1.510797E+0	1.438766E+0	1.476978E+0	1.448762E+0	1.381844E+0	1.432427E+0	1.460158E+0	1.495535E+0	1.471707E+0	1.491495E+0	1.481257E+0	1.420364E+0	1.482281E+0	1.436637E+0	1.465970E+0	1.486907E+0	1.474094E+0	1.388738E+0	1.476049E+0	1.513065E+0	1.441523E+0	1.426506E+0	1.439160E+0	1.450794E+0	1.401697E+0	1.442119E+0	1.429535E+0	1.471832E+0	1.504697E+0	1.436445E+0	1.443717E+0	1.483569E+0	1.445777E+0	1.454850E+0	1.427578E+0	1.375862E+0	1.408289E+0	1.462434E+0	1.448018E+0	1.444213E+0	1.525586E+0	1.399347E+0	1.483294E+0	1.461745E+0	1.449137E+0	1.503737E+0	1.485058E+0	1.441545E+0	1.421295E+0	1.478569E+0	1.423405E+0	1.407611E+0	1.459126E+0	1.436823E+0	1.487736E+0	1.476721E+0	1.514237E+0	1.417263E+0	1.425305E+0	1.430598E+0	1.495341E+0	1.451841E+0	1.441928E+0	1.401348E+0	1.419607E+0	1.557887E+0	1.429494E+0	1.425457E+0	1.484525E+0	1.459892E+0	1.518413E+0	1.428245E+0	1.463699E+0	1.472408E+0	1.492173E+0	1.481355E+0	1.410120E+0	1.469006E+0	1.422794E+0	1.410615E+0	1.407380E+0	1.477250E+0	1.436204E+0	1.459559E+0	1.490714E+0	1.427244E+0	1.409101E+0	1.419717E+0	1.450728E+0	1.485061E+0	1.445438E+0	1.525396E+0	1.447424E+0	1.454972E+0	1.425719E+0	1.494415E+0	1.437158E+0	1.477218E+0	1.464774E+0	1.450950E+0	1.499288E+0	1.405070E+0	1.477082E+0	1.432803E+0	1.449643E+0	1.367918E+0	1.461913E+0	1.449213E+0	1.390293E+0	1.504561E+0	1.445390E+0	1.497688E+0	1.421571E+0	1.437832E+0	1.455016E+0	1.513204E+0	1.455465E+0
5.417650E+2	1.313855E+0	1.277800E+0	1.207427E+0	1.297983E+0	1.352563E+0	1.240133E+0	1.235423E+0	1.243645E+0	1.343979E+0	1.305591E+0	1.346334E+0	1.237824E+0	1.305184E+0	1.311259E+0	1.263662E+0	1.280567E+0	1.310363E+0	1.258378E+0	1.282177E+0	1.316198E+0	1.309148E+0	1.288471E+0	1.260402E+0	1.300056E+0	1.265659E+0	1.303771E+0	1.260663E+0	1.263548E+0	1.264554E+0	1.284338E+0	1.325979E+0	1.270340E+0	1.326972E+0	1.364210E+0	1.284640E+0	1.221735E+0	1.252788E+0	1.319531E+0	1.321584E+0	1.340737E+0	1.296481E+0	1.365778E+0	1.248131E+0	1.299978E+0	1.358179E+0	1.317151E+0	1.325384E+0	1.268975E+0	1.328382E+0	1.327592E+0	1.314984E+0	1.263383E+0	1.283009E+0	1.260918E+0	1.327536E+0	1.299462E+0	1.274668E+0	1.266181E+0	1.287082E+0	1.268565E+0	1.270225E+0	1.335764E+0	1.279096E+0	1.299585E+0	1.290227E+0	1.285602E+0	1.285133E+0	1.280923E+0	1.331350E+0	1.274000E+0	1.243366E+0	1.259136E+0	1.286473E+0	1.312587E+0	1.329853E+0	1.271698E+0	1.329865E+0	1.253163E+0	1.229013E+0	1.229932E+0	1.300942E+0	1.264634E+0	1.272615E+0	1.254103E+0	1.265144E+0	1.286023E+0	1.297306E+0	1.299339E+0	1.311153E+0	1.288732E+0	1.284717E+0	1.312633E+0	1.307911E+0	1.293772E+0	1.265131E+0	1.266322E+0	1.298445E+0	1.265540E+0	1.340891E+0	1.294378E+0	1.309327E+0	1.209275E+0	1.297703E+0	1.291143E+0	1.268439E+0	1.236238E+0	1.293330E+0	1.284212E+0	1.246755E+0	1.303724E+0	1.304785E+0	1.276135E+0	1.266851E+0	1.300582E+0	1.348836E+0	1.325603E+0	1.322534E+0	1.249889E+0	1.284149E+0	1.366992E+0	1.293773E+0	1.323463E+0	1.318765E+0	1.324084E+0	1.336086E+0	1.242214E+0	1.311908E+0	1.285058E+0	1.288499E+0	1.260594E+0	1.270070E+0	1.277691E+0	1.269903E+0	1.256239E+0	1.305271E+0	1.312532E+0	1.261126E+0	1.271453E+0	1.304774E+0	1.266778E+0	1.285548E+0	1.338580E+0	1.277074E+0	1.266801E+0	1.318767E+0	1.315679E+0	1.270104E+0	1.326908E+0	1.237139E+0	1.351588E+0	1.216450E+0	1.320653E+0	1.281767E+0	1.308623E+0	1.323187E+0	1.304587E+0	1.311827E+0	1.257473E+0	1.306512E+0	1.244551E+0	1.265757E+0	1.290143E+0	1.225536E+0	1.291743E+0	1.300289E+0	1.252933E+0	1.322300E+0	1.327415E+0	1.312085E+0	1.363125E+0	1.267725E+0
5.420160E+2	1.153951E+0	1.116333E+0	1.118406E+0	1.179394E+0	1.138877E+0	1.135929E+0	1.214282E+0	1.169177E+0	1.152444E+0	1.132026E+0	1.104023E+0	1.101620E+0	1.159393E+0	1.185064E+0	1.134832E+0	1.214293E+0	1.131714E+0	1.122514E+0	1.167589E+0	1.165339E+0	1.140265E+0	1.085385E+0	1.131112E+0	1.164505E+0	1.179755E+0	1.161510E+0	1.131886E+0	1.076685E+0	1.123012E+0	1.157509E+0	1.154874E+0	1.095739E+0	1.187895E+0	1.153941E+0	1.211917E+0	1.138271E+0	1.151729E+0	1.198447E+0	1.181199E+0	1.192290E+0	1.150795E+0	1.179870E+0	1.120165E+0	1.124224E+0	1.201724E+0	1.173689E+0	1.138809E+0	1.100250E+0	1.177160E+0	1.158488E+0	1.150927E+0	1.147434E+0	1.094890E+0	1.164097E+0	1.127618E+0	1.124932E+0	1.147384E+0	1.161114E+0	1.103097E+0	1.098951E+0	1.082886E+0	1.156837E+0	1.169737E+0	1.188894E+0	1.140207E+0	1.135450E+0	1.153878E+0	1.107472E+0	1.181782E+0	1.100261E+0	1.147275E+0	1.145158E+0	1.149050E+0	1.151119E+0	1.175206E+0	1.170863E+0	1.171505E+0	1.197478E+0	1.160286E+0	1.068887E+0	1.145146E+0	1.138002E+0	1.144873E+0	1.138735E+0	1.129012E+0	1.152546E+0	1.133932E+0	1.147993E+0	1.185567E+0	1.109196E+0	1.124156E+0	1.151364E+0	1.122431E+0	1.161024E+0	1.187303E+0	1.147359E+0	1.156043E+0	1.174409E+0	1.100271E+0	1.089824E+0	1.137532E+0	1.092497E+0	1.108643E+0	1.167535E+0	1.081154E+0	1.162111E+0	1.176321E+0	1.118232E+0	1.175025E+0	1.107973E+0	1.169309E+0	1.103448E+0	1.128508E+0	1.181700E+0	1.151253E+0	1.156626E+0	1.141113E+0	1.131587E+0	1.116588E+0	1.172137E+0	1.135614E+0	1.133224E+0	1.132007E+0	1.129005E+0	1.144209E+0	1.150641E+0	1.164739E+0	1.133248E+0	1.145023E+0	1.153272E+0	1.107601E+0	1.151751E+0	1.182682E+0	1.151881E+0	1.204971E+0	1.057825E+0	1.136636E+0	1.089268E+0	1.129608E+0	1.173648E+0	1.162037E+0	1.171571E+0	1.094443E+0	1.159372E+0	1.164317E+0	1.161942E+0	1.158794E+0	1.205628E+0	1.137450E+0	1.173832E+0	1.159209E+0	1.173521E+0	1.164590E+0	1.156567E+0	1.172352E+0	1.178104E+0	1.148379E+0	1.112705E+0	1.160301E+0	1.091447E+0	1.129363E+0	1.194896E+0	1.133435E+0	1.131291E+0	1.160599E+0	1.154885E+0	1.199284E+0	1.154137E+0	1.092377E+0	1.124037E+0	1.136434E+0
5.422890E+2	9.877268E-1	9.282103E-1	9.779124E-1	1.013725E+0	9.510034E-1	9.551534E-1	9.672506E-1	1.000898E+0	9.841679E-1	9.431847E-1	9.645674E-1	9.450855E-1	9.678670E-1	1.048713E+0	1.003395E+0	9.713984E-1	9.886772E-1	9.592327E-1	9.922144E-1	9.891267E-1	9.665624E-1	9.197042E-1	9.507004E-1	9.234786E-1	1.038780E+0	1.017199E+0	9.541304E-1	9.542941E-1	9.888005E-1	9.860623E-1	9.677934E-1	9.370166E-1	9.523198E-1	9.985380E-1	1.032581E+0	9.445963E-1	9.538138E-1	9.922748E-1	1.002330E+0	9.744420E-1	9.925479E-1	1.010081E+0	9.917468E-1	9.879656E-1	1.002529E+0	9.356869E-1	1.005599E+0	9.687529E-1	9.500563E-1	9.753870E-1	9.448766E-1	9.162665E-1	9.273878E-1	9.828674E-1	9.434931E-1	9.505647E-1	9.699690E-1	1.003406E+0	9.557778E-1	9.878078E-1	9.954922E-1	9.941177E-1	9.416559E-1	9.436097E-1	9.627407E-1	9.342130E-1	1.005143E+0	9.745447E-1	1.023353E+0	9.943018E-1	9.797425E-1	9.921682E-1	9.885417E-1	1.002676E+0	9.988093E-1	9.457772E-1	1.010913E+0	9.647940E-1	9.957496E-1	9.600588E-1	1.000745E+0	1.011644E+0	9.918288E-1	9.926456E-1	1.005283E+0	9.739212E-1	9.871504E-1	9.845794E-1	9.905119E-1	9.788624E-1	9.720699E-1	9.517142E-1	1.032922E+0	9.782897E-1	1.012263E+0	9.868762E-1	9.475029E-1	9.594599E-1	9.767652E-1	9.251565E-1	1.040906E+0	9.634286E-1	9.914008E-1	9.801583E-1	9.490777E-1	9.536419E-1	9.975248E-1	9.361356E-1	9.655608E-1	9.756331E-1	9.204879E-1	9.545586E-1	9.962159E-1	9.475837E-1	9.652588E-1	1.023712E+0	9.420988E-1	1.028368E+0	1.014268E+0	9.599539E-1	9.675901E-1	9.358710E-1	1.061485E+0	1.005331E+0	1.027930E+0	9.570348E-1	9.532594E-1	9.721205E-1	1.021986E+0	9.645532E-1	1.008626E+0	9.525071E-1	9.582963E-1	9.964791E-1	9.609555E-1	1.011292E+0	1.022686E+0	9.639659E-1	9.468403E-1	9.542223E-1	9.276670E-1	9.831814E-1	9.707263E-1	1.010547E+0	9.986640E-1	1.005017E+0	9.952112E-1	9.953746E-1	9.482117E-1	1.008647E+0	1.009942E+0	9.434999E-1	9.838615E-1	9.841497E-1	1.049009E+0	1.026428E+0	1.040942E+0	9.855047E-1	9.957389E-1	9.409304E-1	1.013862E+0	9.415901E-1	1.004515E+0	9.596028E-1	9.545406E-1	9.560550E-1	9.713714E-1	1.061214E+0	1.011011E+0	9.450077E-1	9.498386E-1
5.425300E+2	9.576808E-1	9.704299E-1	9.966697E-1	9.622017E-1	9.554418E-1	9.624201E-1	9.481030E-1	9.328701E-1	9.491476E-1	9.647140E-1	9.474257E-1	9.383549E-1	9.727195E-1	1.024085E+0	9.838816E-1	9.415469E-1	9.823217E-1	1.014536E+0	9.546473E-1	9.587259E-1	9.707154E-1	9.459567E-1	9.707410E-1	9.128148E-1	9.471249E-1	9.690776E-1	9.600635E-1	9.628051E-1	9.134118E-1	9.445781E-1	9.464250E-1	9.822173E-1	9.949813E-1	9.894740E-1	9.943105E-1	8.992519E-1	9.875814E-1	9.591473E-1	9.659547E-1	9.640985E-1	9.879647E-1	9.889128E-1	9.832701E-1	1.003078E+0	9.727029E-1	9.587607E-1	1.005951E+0	9.784631E-1	9.618475E-1	9.809695E-1	9.839934E-1	9.639145E-1	9.326335E-1	9.855130E-1	9.528042E-1	9.247282E-1	9.865605E-1	9.677671E-1	9.068722E-1	9.415661E-1	9.532383E-1	1.030362E+0	1.005209E+0	9.504442E-1	9.543805E-1	9.131545E-1	9.505675E-1	9.742028E-1	9.514284E-1	9.879130E-1	9.655217E-1	9.426355E-1	9.696964E-1	9.976307E-1	9.706098E-1	9.068527E-1	1.013881E+0	9.803015E-1	9.365929E-1	9.392477E-1	9.324833E-1	9.482603E-1	9.719918E-1	9.576350E-1	9.756809E-1	9.387949E-1	9.888019E-1	9.528920E-1	9.991397E-1	9.825104E-1	9.476837E-1	1.015083E+0	1.002659E+0	9.661176E-1	9.934671E-1	9.378576E-1	9.944425E-1	1.011570E+0	9.547571E-1	9.313772E-1	9.308429E-1	9.389388E-1	9.573943E-1	9.569593E-1	9.521089E-1	1.005527E+0	9.635303E-1	9.530465E-1	9.810528E-1	9.774522E-1	9.963943E-1	9.540657E-1	9.506913E-1	9.655574E-1	9.365385E-1	9.551576E-1	9.320306E-1	1.006779E+0	9.254816E-1	9.749688E-1	1.008971E+0	9.586224E-1	9.711148E-1	9.785299E-1	9.681946E-1	9.899293E-1	9.606612E-1	9.530350E-1	9.431406E-1	9.572598E-1	9.497880E-1	9.858743E-1	9.508375E-1	1.022170E+0	9.612332E-1	9.602935E-1	9.969301E-1	9.460532E-1	9.576718E-1	9.214082E-1	9.905096E-1	9.623603E-1	9.382750E-1	1.022944E+0	9.648971E-1	1.010004E+0	9.347851E-1	9.539251E-1	9.238033E-1	9.501014E-1	9.430970E-1	9.809066E-1	9.792906E-1	9.582032E-1	1.022074E+0	9.211920E-1	9.841910E-1	9.538302E-1	9.656677E-1	9.537103E-1	1.011453E+0	9.604949E-1	9.683724E-1	9.646097E-1	9.438412E-1	9.695010E-1	9.709620E-1	9.252238E-1	9.556034E-1	8.855606E-1	9.856632E-1
5.427650E+2	9.627294E-1	9.794330E-1	9.440112E-1	9.584247E-1	1.001999E+0	9.770830E-1	9.952270E-1	9.984040E-1	9.966827E-1	9.724959E-1	9.700696E-1	9.592608E-1	9.680628E-1	1.000701E+0	9.469388E-1	9.959783E-1	9.691780E-1	9.802734E-1	1.034184E+0	1.003252E+0	9.932045E-1	9.613962E-1	9.880360E-1	9.566229E-1	1.002458E+0	9.759111E-1	9.496788E-1	9.806936E-1	9.658195E-1	9.925326E-1	1.009948E+0	9.704192E-1	9.997855E-1	9.788319E-1	1.043347E+0	9.549413E-1	9.830275E-1	9.666122E-1	1.004567E+0	9.930553E-1	9.994038E-1	9.634204E-1	9.891314E-1	9.557782E-1	9.641465E-1	9.858524E-1	1.007563E+0	9.490252E-1	9.757750E-1	9.603838E-1	9.531168E-1	9.470154E-1	9.602660E-1	9.732619E-1	9.920206E-1	9.419174E-1	9.292377E-1	9.420798E-1	8.917579E-1	9.656557E-1	9.338020E-1	9.689457E-1	9.910322E-1	9.570352E-1	9.918031E-1	9.785874E-1	9.414490E-1	9.637669E-1	1.026436E+0	9.854027E-1	9.749742E-1	9.424373E-1	1.000264E+0	9.590992E-1	9.466223E-1	9.782060E-1	1.015404E+0	9.517629E-1	9.475953E-1	9.716131E-1	1.028018E+0	9.434386E-1	9.692170E-1	9.609224E-1	9.711985E-1	9.932258E-1	1.016282E+0	9.936419E-1	9.409537E-1	9.663091E-1	9.869868E-1	9.594183E-1	1.010168E+0	9.678414E-1	1.003582E+0	1.000803E+0	1.005357E+0	9.699523E-1	1.009495E+0	9.750654E-1	9.752804E-1	9.457562E-1	9.946365E-1	9.751454E-1	1.003603E+0	9.519410E-1	9.904580E-1	9.675100E-1	9.804889E-1	9.516283E-1	9.679224E-1	1.001560E+0	1.008717E+0	9.585161E-1	1.012807E+0	9.843839E-1	1.005918E+0	9.813052E-1	1.018540E+0	9.637346E-1	9.450822E-1	9.796986E-1	9.179756E-1	9.488688E-1	1.007430E+0	1.027615E+0	9.642144E-1	9.444628E-1	1.008140E+0	9.420482E-1	9.689658E-1	9.455140E-1	9.431245E-1	9.950395E-1	9.675266E-1	9.609419E-1	1.027071E+0	9.948317E-1	9.620062E-1	9.417379E-1	1.039576E+0	1.000708E+0	9.743134E-1	1.054110E+0	9.775107E-1	1.029569E+0	9.609536E-1	9.540832E-1	1.009650E+0	9.585482E-1	9.990435E-1	9.925163E-1	9.578080E-1	9.757217E-1	9.643298E-1	9.801010E-1	9.733978E-1	9.582609E-1	9.891015E-1	9.569316E-1	9.932743E-1	9.879551E-1	9.819656E-1	9.870026E-1	9.536903E-1	9.786436E-1	9.823256E-1	1.000635E+0	9.707759E-1	1.016317E+0	9.542718E-1
5.430170E+2	1.064519E+0	1.059387E+0	1.055518E+0	1.120758E+0	1.100734E+0	1.088499E+0	1.117901E+0	1.100175E+0	1.113319E+0	1.071167E+0	1.110436E+0	1.057483E+0	1.070576E+0	1.119863E+0	1.107319E+0	1.054552E+0	1.104663E+0	1.133202E+0	1.107437E+0	1.105275E+0	1.063254E+0	1.081275E+0	1.081385E+0	1.057766E+0	1.123618E+0	1.106172E+0	1.080666E+0	1.061044E+0	1.103341E+0	1.077011E+0	1.132113E+0	1.052322E+0	1.106502E+0	1.188801E+0	1.145593E+0	1.075876E+0	1.089408E+0	1.108261E+0	1.127563E+0	1.122152E+0	1.076012E+0	1.112466E+0	1.086515E+0	1.084214E+0	1.111988E+0	1.062865E+0	1.094638E+0	1.075828E+0	1.084663E+0	1.096916E+0	1.126703E+0	1.110344E+0	1.052802E+0	1.097202E+0	1.168504E+0	1.037794E+0	1.052556E+0	1.084873E+0	1.049130E+0	1.015120E+0	1.126765E+0	1.113094E+0	1.117275E+0	1.088870E+0	1.080951E+0	1.074318E+0	1.099760E+0	1.113552E+0	1.073292E+0	1.045929E+0	1.106936E+0	1.042318E+0	1.094027E+0	1.136981E+0	1.044446E+0	1.082401E+0	1.117087E+0	1.066724E+0	1.049994E+0	1.058331E+0	1.096364E+0	1.072475E+0	1.069714E+0	1.069154E+0	1.108232E+0	1.100783E+0	1.123703E+0	1.051152E+0	1.105041E+0	1.149487E+0	1.099757E+0	1.090659E+0	1.094213E+0	1.067046E+0	1.082203E+0	1.142768E+0	1.082176E+0	1.055935E+0	1.135656E+0	1.069166E+0	1.087832E+0	1.063279E+0	1.058033E+0	1.116679E+0	1.079901E+0	1.081519E+0	1.100950E+0	1.025298E+0	1.071950E+0	1.124497E+0	1.045105E+0	1.090720E+0	1.003531E+0	1.080660E+0	1.091730E+0	1.057291E+0	1.107010E+0	1.095792E+0	1.092734E+0	1.049541E+0	1.116742E+0	1.115069E+0	1.076880E+0	1.045057E+0	1.090363E+0	1.078527E+0	1.062206E+0	1.067715E+0	1.092768E+0	1.082029E+0	1.075582E+0	1.130817E+0	1.097362E+0	1.115139E+0	1.041408E+0	1.058024E+0	1.083565E+0	1.098714E+0	1.077006E+0	1.089661E+0	1.049671E+0	1.150001E+0	1.096468E+0	1.135300E+0	1.034583E+0	1.102916E+0	1.091564E+0	1.095550E+0	1.086784E+0	1.146082E+0	1.081198E+0	1.091563E+0	1.134497E+0	1.088665E+0	1.106323E+0	1.055162E+0	1.153116E+0	1.126907E+0	1.142333E+0	1.077130E+0	1.064445E+0	1.056938E+0	1.067086E+0	1.090614E+0	1.098639E+0	1.103099E+0	1.110186E+0	1.034326E+0	1.054501E+0	1.051668E+0	1.021345E+0
5.432960E+2	1.252734E+0	1.180894E+0	1.193893E+0	1.301987E+0	1.187358E+0	1.250935E+0	1.240060E+0	1.223837E+0	1.226037E+0	1.233513E+0	1.258170E+0	1.258500E+0	1.256101E+0	1.274765E+0	1.250432E+0	1.193178E+0	1.233471E+0	1.251790E+0	1.219914E+0	1.253550E+0	1.227161E+0	1.250832E+0	1.199885E+0	1.192521E+0	1.271023E+0	1.242342E+0	1.231909E+0	1.196270E+0	1.238893E+0	1.261408E+0	1.331010E+0	1.199102E+0	1.219070E+0	1.218165E+0	1.284201E+0	1.264060E+0	1.222393E+0	1.220610E+0	1.299825E+0	1.241996E+0	1.261793E+0	1.265371E+0	1.227545E+0	1.256952E+0	1.253206E+0	1.271044E+0	1.242096E+0	1.240694E+0	1.200941E+0	1.252862E+0	1.204450E+0	1.230148E+0	1.195563E+0	1.231305E+0	1.213649E+0	1.195001E+0	1.265982E+0	1.244253E+0	1.181370E+0	1.261124E+0	1.192460E+0	1.275912E+0	1.234428E+0	1.240600E+0	1.247635E+0	1.260806E+0	1.227198E+0	1.189055E+0	1.281343E+0	1.220184E+0	1.250160E+0	1.218122E+0	1.298672E+0	1.196365E+0	1.216917E+0	1.215432E+0	1.222277E+0	1.246870E+0	1.216665E+0	1.183536E+0	1.224687E+0	1.251963E+0	1.271632E+0	1.238265E+0	1.216812E+0	1.234408E+0	1.210659E+0	1.233565E+0	1.228450E+0	1.238045E+0	1.160008E+0	1.199056E+0	1.278942E+0	1.219315E+0	1.261922E+0	1.257016E+0	1.231097E+0	1.257990E+0	1.264726E+0	1.265578E+0	1.205656E+0	1.214081E+0	1.164945E+0	1.268424E+0	1.276472E+0	1.213464E+0	1.232039E+0	1.226620E+0	1.241687E+0	1.259559E+0	1.239075E+0	1.235281E+0	1.207952E+0	1.195854E+0	1.250249E+0	1.233742E+0	1.238295E+0	1.245251E+0	1.229469E+0	1.242908E+0	1.202632E+0	1.192069E+0	1.210443E+0	1.282084E+0	1.245619E+0	1.214475E+0	1.311286E+0	1.217001E+0	1.202393E+0	1.242324E+0	1.247800E+0	1.206573E+0	1.264133E+0	1.219768E+0	1.186824E+0	1.254855E+0	1.288852E+0	1.236237E+0	1.224221E+0	1.226458E+0	1.264083E+0	1.228470E+0	1.226067E+0	1.267324E+0	1.235974E+0	1.267905E+0	1.213379E+0	1.239308E+0	1.232760E+0	1.224305E+0	1.171480E+0	1.267157E+0	1.190207E+0	1.251896E+0	1.259212E+0	1.217776E+0	1.252156E+0	1.198387E+0	1.222704E+0	1.223545E+0	1.222281E+0	1.201243E+0	1.215053E+0	1.214726E+0	1.225270E+0	1.234172E+0	1.255603E+0	1.223676E+0	1.240928E+0	1.243555E+0	1.191981E+0
5.435220E+2	1.376663E+0	1.333838E+0	1.302373E+0	1.288785E+0	1.297285E+0	1.252457E+0	1.348684E+0	1.285918E+0	1.338669E+0	1.363898E+0	1.319904E+0	1.265185E+0	1.295206E+0	1.319042E+0	1.335304E+0	1.319412E+0	1.312369E+0	1.287237E+0	1.293849E+0	1.324614E+0	1.369822E+0	1.296824E+0	1.360062E+0	1.329426E+0	1.377610E+0	1.350507E+0	1.336570E+0	1.315600E+0	1.306401E+0	1.343947E+0	1.336937E+0	1.284536E+0	1.364710E+0	1.336905E+0	1.313293E+0	1.259811E+0	1.306272E+0	1.334733E+0	1.278728E+0	1.320174E+0	1.327499E+0	1.344568E+0	1.375623E+0	1.331306E+0	1.354607E+0	1.306073E+0	1.300668E+0	1.339878E+0	1.312485E+0	1.236763E+0	1.295850E+0	1.300170E+0	1.273639E+0	1.349960E+0	1.321532E+0	1.296115E+0	1.319056E+0	1.344261E+0	1.256089E+0	1.343354E+0	1.348750E+0	1.314713E+0	1.261797E+0	1.273907E+0	1.378117E+0	1.313445E+0	1.229022E+0	1.298387E+0	1.357179E+0	1.331002E+0	1.337158E+0	1.294987E+0	1.314663E+0	1.300825E+0	1.301432E+0	1.262774E+0	1.348196E+0	1.327464E+0	1.286514E+0	1.256975E+0	1.281252E+0	1.293258E+0	1.315844E+0	1.280441E+0	1.319120E+0	1.285273E+0	1.285515E+0	1.311750E+0	1.273867E+0	1.327384E+0	1.289630E+0	1.334547E+0	1.312576E+0	1.332187E+0	1.292285E+0	1.294483E+0	1.274765E+0	1.355287E+0	1.356506E+0	1.335501E+0	1.277194E+0	1.315167E+0	1.306362E+0	1.342238E+0	1.360384E+0	1.242455E+0	1.300889E+0	1.317816E+0	1.295776E+0	1.327401E+0	1.342563E+0	1.318250E+0	1.277531E+0	1.332315E+0	1.318977E+0	1.290186E+0	1.287529E+0	1.346227E+0	1.305735E+0	1.343746E+0	1.294357E+0	1.330234E+0	1.294093E+0	1.336772E+0	1.301910E+0	1.255110E+0	1.325876E+0	1.311831E+0	1.292447E+0	1.331933E+0	1.266460E+0	1.315644E+0	1.251493E+0	1.333405E+0	1.308715E+0	1.294632E+0	1.299559E+0	1.381980E+0	1.284682E+0	1.326367E+0	1.317538E+0	1.303259E+0	1.243558E+0	1.417055E+0	1.383220E+0	1.372273E+0	1.299600E+0	1.269713E+0	1.345761E+0	1.334037E+0	1.297711E+0	1.260410E+0	1.305583E+0	1.361090E+0	1.277961E+0	1.330899E+0	1.339712E+0	1.292705E+0	1.304179E+0	1.240322E+0	1.299697E+0	1.313839E+0	1.253923E+0	1.324260E+0	1.320349E+0	1.342515E+0	1.293029E+0	1.321197E+0	1.330067E+0	1.327033E+0	1.349080E+0
5.437910E+2	1.520658E+0	1.488578E+0	1.567620E+0	1.613228E+0	1.491751E+0	1.575332E+0	1.582062E+0	1.526724E+0	1.590815E+0	1.567558E+0	1.558563E+0	1.465031E+0	1.563035E+0	1.522427E+0	1.600969E+0	1.560189E+0	1.575492E+0	1.509463E+0	1.536835E+0	1.547224E+0	1.587260E+0	1.518008E+0	1.550033E+0	1.518125E+0	1.615360E+0	1.551516E+0	1.529068E+0	1.506108E+0	1.576648E+0	1.521226E+0	1.570836E+0	1.521420E+0	1.574458E+0	1.547289E+0	1.571663E+0	1.541813E+0	1.590766E+0	1.567849E+0	1.568956E+0	1.578146E+0	1.595514E+0	1.604621E+0	1.547970E+0	1.607278E+0	1.579128E+0	1.578682E+0	1.534197E+0	1.473663E+0	1.559702E+0	1.515306E+0	1.515533E+0	1.529915E+0	1.457660E+0	1.499828E+0	1.562806E+0	1.489524E+0	1.579403E+0	1.533058E+0	1.567179E+0	1.486551E+0	1.538226E+0	1.604146E+0	1.561236E+0	1.559802E+0	1.570832E+0	1.475427E+0	1.509866E+0	1.513359E+0	1.546715E+0	1.492041E+0	1.515594E+0	1.504755E+0	1.570335E+0	1.516061E+0	1.532484E+0	1.476534E+0	1.512522E+0	1.550763E+0	1.559922E+0	1.435409E+0	1.467945E+0	1.513578E+0	1.527113E+0	1.426323E+0	1.538011E+0	1.533460E+0	1.510472E+0	1.541045E+0	1.497738E+0	1.537238E+0	1.545225E+0	1.482017E+0	1.515479E+0	1.521117E+0	1.539460E+0	1.527456E+0	1.565715E+0	1.500323E+0	1.562475E+0	1.488945E+0	1.546463E+0	1.445230E+0	1.514367E+0	1.542586E+0	1.520418E+0	1.480540E+0	1.479264E+0	1.468116E+0	1.554932E+0	1.539428E+0	1.551380E+0	1.537347E+0	1.431081E+0	1.527245E+0	1.567084E+0	1.525236E+0	1.527890E+0	1.491385E+0	1.511421E+0	1.584861E+0	1.538404E+0	1.516882E+0	1.567226E+0	1.486580E+0	1.528026E+0	1.536847E+0	1.537038E+0	1.449889E+0	1.534814E+0	1.530127E+0	1.564214E+0	1.463265E+0	1.503952E+0	1.549965E+0	1.483017E+0	1.515229E+0	1.554665E+0	1.469463E+0	1.453337E+0	1.454776E+0	1.577896E+0	1.525924E+0	1.478161E+0	1.557725E+0	1.544566E+0	1.533995E+0	1.427673E+0	1.520199E+0	1.517969E+0	1.527295E+0	1.462288E+0	1.493238E+0	1.486317E+0	1.480257E+0	1.506103E+0	1.446354E+0	1.487501E+0	1.495016E+0	1.523145E+0	1.450405E+0	1.510666E+0	1.476870E+0	1.483405E+0	1.471691E+0	1.537275E+0	1.452155E+0	1.546118E+0	1.495732E+0	1.559543E+0	1.551778E+0	1.465350E+0
5.440170E+2	1.563009E+0	1.509955E+0	1.631086E+0	1.578164E+0	1.542839E+0	1.611181E+0	1.568626E+0	1.592377E+0	1.597641E+0	1.554621E+0	1.587315E+0	1.592741E+0	1.534013E+0	1.592968E+0	1.627037E+0	1.551717E+0	1.484317E+0	1.594064E+0	1.614502E+0	1.584003E+0	1.620587E+0	1.509187E+0	1.600201E+0	1.559462E+0	1.557261E+0	1.635077E+0	1.557603E+0	1.531755E+0	1.536699E+0	1.514280E+0	1.613496E+0	1.528261E+0	1.611144E+0	1.611882E+0	1.505807E+0	1.568648E+0	1.595248E+0	1.607286E+0	1.645637E+0	1.562163E+0	1.602068E+0	1.588667E+0	1.598693E+0	1.594398E+0	1.601072E+0	1.511046E+0	1.646960E+0	1.456502E+0	1.526168E+0	1.599488E+0	1.536871E+0	1.565020E+0	1.550155E+0	1.575015E+0	1.592857E+0	1.529099E+0	1.599242E+0	1.542977E+0	1.584288E+0	1.571562E+0	1.535994E+0	1.642145E+0	1.573245E+0	1.551865E+0	1.525549E+0	1.565117E+0	1.578175E+0	1.525185E+0	1.520782E+0	1.568404E+0	1.549768E+0	1.568782E+0	1.563865E+0	1.605026E+0	1.479622E+0	1.506941E+0	1.599750E+0	1.562306E+0	1.540942E+0	1.474259E+0	1.535201E+0	1.563240E+0	1.536514E+0	1.522621E+0	1.564453E+0	1.551764E+0	1.595480E+0	1.561955E+0	1.526149E+0	1.568659E+0	1.594602E+0	1.549384E+0	1.593012E+0	1.527067E+0	1.507850E+0	1.561532E+0	1.566188E+0	1.517390E+0	1.554035E+0	1.534468E+0	1.564628E+0	1.539377E+0	1.561644E+0	1.531598E+0	1.570244E+0	1.590926E+0	1.553268E+0	1.557381E+0	1.562125E+0	1.561263E+0	1.545446E+0	1.548780E+0	1.546992E+0	1.520128E+0	1.583856E+0	1.559174E+0	1.550986E+0	1.599635E+0	1.558998E+0	1.592261E+0	1.561629E+0	1.586061E+0	1.574831E+0	1.563241E+0	1.578392E+0	1.535315E+0	1.617169E+0	1.490276E+0	1.535092E+0	1.587919E+0	1.583715E+0	1.545422E+0	1.520781E+0	1.569688E+0	1.542924E+0	1.536997E+0	1.584277E+0	1.454561E+0	1.563846E+0	1.487019E+0	1.517922E+0	1.552528E+0	1.528591E+0	1.566621E+0	1.572075E+0	1.580165E+0	1.525390E+0	1.565801E+0	1.544250E+0	1.578620E+0	1.516404E+0	1.540812E+0	1.540265E+0	1.524941E+0	1.580518E+0	1.480591E+0	1.541278E+0	1.517191E+0	1.566081E+0	1.475586E+0	1.556447E+0	1.580228E+0	1.474182E+0	1.557968E+0	1.475310E+0	1.571157E+0	1.532640E+0	1.599066E+0	1.618821E+0	1.561530E+0	1.488271E+0
5.442590E+2	1.552109E+0	1.559182E+0	1.649209E+0	1.672913E+0	1.703366E+0	1.650889E+0	1.624911E+0	1.702045E+0	1.594143E+0	1.592994E+0	1.677424E+0	1.569365E+0	1.631938E+0	1.666195E+0	1.672736E+0	1.677126E+0	1.598257E+0	1.685619E+0	1.673525E+0	1.632536E+0	1.630886E+0	1.599941E+0	1.591902E+0	1.624434E+0	1.637522E+0	1.588145E+0	1.600835E+0	1.618499E+0	1.623553E+0	1.628096E+0	1.640297E+0	1.548820E+0	1.637434E+0	1.697677E+0	1.707337E+0	1.602730E+0	1.612267E+0	1.620214E+0	1.600620E+0	1.611623E+0	1.634875E+0	1.683570E+0	1.617947E+0	1.622548E+0	1.633362E+0	1.627171E+0	1.632411E+0	1.585919E+0	1.624453E+0	1.571095E+0	1.570933E+0	1.570306E+0	1.635804E+0	1.585177E+0	1.607734E+0	1.526222E+0	1.605920E+0	1.581993E+0	1.623971E+0	1.605547E+0	1.631764E+0	1.693864E+0	1.619627E+0	1.643827E+0	1.622112E+0	1.595331E+0	1.579111E+0	1.608866E+0	1.553347E+0	1.654402E+0	1.604075E+0	1.635699E+0	1.627639E+0	1.647346E+0	1.622185E+0	1.596715E+0	1.628421E+0	1.667605E+0	1.611049E+0	1.554260E+0	1.570029E+0	1.649971E+0	1.672435E+0	1.623527E+0	1.592561E+0	1.557094E+0	1.648185E+0	1.543490E+0	1.607873E+0	1.553706E+0	1.568708E+0	1.613663E+0	1.616943E+0	1.601214E+0	1.649992E+0	1.575265E+0	1.579941E+0	1.599513E+0	1.624462E+0	1.534118E+0	1.596804E+0	1.595092E+0	1.533024E+0	1.612795E+0	1.566328E+0	1.570949E+0	1.579021E+0	1.580227E+0	1.615454E+0	1.594438E+0	1.606268E+0	1.596734E+0	1.528526E+0	1.583758E+0	1.625199E+0	1.517905E+0	1.557969E+0	1.599853E+0	1.624093E+0	1.578200E+0	1.605003E+0	1.550396E+0	1.591382E+0	1.566292E+0	1.604469E+0	1.601399E+0	1.603832E+0	1.599875E+0	1.579674E+0	1.607171E+0	1.601951E+0	1.551168E+0	1.524499E+0	1.554057E+0	1.609310E+0	1.581838E+0	1.647028E+0	1.609855E+0	1.605968E+0	1.549404E+0	1.578752E+0	1.631075E+0	1.654603E+0	1.593382E+0	1.660932E+0	1.639940E+0	1.522556E+0	1.626633E+0	1.575459E+0	1.611424E+0	1.536450E+0	1.534468E+0	1.549858E+0	1.619766E+0	1.509463E+0	1.525365E+0	1.646003E+0	1.572490E+0	1.583138E+0	1.482646E+0	1.523403E+0	1.584983E+0	1.552721E+0	1.562762E+0	1.558834E+0	1.590755E+0	1.608151E+0	1.561511E+0	1.640930E+0	1.491977E+0	1.565463E+0
5.445180E+2	1.616765E+0	1.570601E+0	1.626958E+0	1.609011E+0	1.541255E+0	1.594213E+0	1.574221E+0	1.568070E+0	1.555661E+0	1.549223E+0	1.598077E+0	1.467426E+0	1.580930E+0	1.591687E+0	1.603205E+0	1.574182E+0	1.522345E+0	1.552731E+0	1.581989E+0	1.597222E+0	1.603845E+0	1.577025E+0	1.595205E+0	1.568761E+0	1.587710E+0	1.575688E+0	1.562531E+0	1.511583E+0	1.545118E+0	1.592647E+0	1.556363E+0	1.544025E+0	1.556534E+0	1.601121E+0	1.579054E+0	1.540072E+0	1.586128E+0	1.495580E+0	1.575353E+0	1.626632E+0	1.628096E+0	1.638531E+0	1.579128E+0	1.558733E+0	1.581754E+0	1.612107E+0	1.583567E+0	1.523909E+0	1.542543E+0	1.583710E+0	1.585844E+0	1.452684E+0	1.519381E+0	1.575698E+0	1.586126E+0	1.547740E+0	1.574716E+0	1.534453E+0	1.535688E+0	1.548350E+0	1.440391E+0	1.670135E+0	1.601320E+0	1.530111E+0	1.603121E+0	1.549922E+0	1.572485E+0	1.556792E+0	1.550942E+0	1.570389E+0	1.568829E+0	1.545663E+0	1.593379E+0	1.534457E+0	1.550546E+0	1.555780E+0	1.529564E+0	1.551476E+0	1.523574E+0	1.536699E+0	1.569618E+0	1.575623E+0	1.527430E+0	1.482682E+0	1.541538E+0	1.489493E+0	1.537712E+0	1.586200E+0	1.520912E+0	1.580448E+0	1.559700E+0	1.549421E+0	1.630006E+0	1.540644E+0	1.563141E+0	1.557758E+0	1.589460E+0	1.584249E+0	1.591648E+0	1.628572E+0	1.590102E+0	1.617004E+0	1.575684E+0	1.549054E+0	1.542888E+0	1.522928E+0	1.555913E+0	1.521159E+0	1.523629E+0	1.593697E+0	1.589289E+0	1.488816E+0	1.461762E+0	1.560903E+0	1.582902E+0	1.539193E+0	1.517914E+0	1.509980E+0	1.527761E+0	1.502473E+0	1.528569E+0	1.530845E+0	1.575977E+0	1.527905E+0	1.572791E+0	1.501821E+0	1.536936E+0	1.550926E+0	1.532169E+0	1.535796E+0	1.558677E+0	1.550439E+0	1.514186E+0	1.607513E+0	1.496742E+0	1.539418E+0	1.558776E+0	1.540582E+0	1.488443E+0	1.544819E+0	1.507976E+0	1.524446E+0	1.537516E+0	1.564219E+0	1.580101E+0	1.613342E+0	1.526450E+0	1.545741E+0	1.543025E+0	1.594651E+0	1.543305E+0	1.543469E+0	1.614572E+0	1.555925E+0	1.531612E+0	1.513234E+0	1.570550E+0	1.550833E+0	1.605210E+0	1.534071E+0	1.539977E+0	1.590854E+0	1.467548E+0	1.507948E+0	1.537767E+0	1.483857E+0	1.536489E+0	1.559379E+0	1.600244E+0	1.478848E+0	1.566845E+0
5.447610E+2	1.463064E+0	1.478342E+0	1.407047E+0	1.441862E+0	1.450255E+0	1.430799E+0	1.407111E+0	1.516822E+0	1.459412E+0	1.435543E+0	1.420548E+0	1.388447E+0	1.441169E+0	1.458854E+0	1.464392E+0	1.434105E+0	1.472880E+0	1.472191E+0	1.429744E+0	1.441574E+0	1.468562E+0	1.398069E+0	1.382498E+0	1.439004E+0	1.528816E+0	1.399888E+0	1.420732E+0	1.380520E+0	1.417569E+0	1.384977E+0	1.433208E+0	1.431614E+0	1.457596E+0	1.508781E+0	1.472734E+0	1.408261E+0	1.527062E+0	1.396057E+0	1.459645E+0	1.439553E+0	1.465659E+0	1.438139E+0	1.482603E+0	1.469988E+0	1.462654E+0	1.495085E+0	1.455602E+0	1.405590E+0	1.464019E+0	1.481652E+0	1.458021E+0	1.381790E+0	1.409363E+0	1.404499E+0	1.455075E+0	1.414808E+0	1.445039E+0	1.442911E+0	1.395739E+0	1.497146E+0	1.472790E+0	1.488605E+0	1.439307E+0	1.411226E+0	1.530683E+0	1.413783E+0	1.423220E+0	1.425631E+0	1.502950E+0	1.476129E+0	1.486780E+0	1.427658E+0	1.429450E+0	1.468944E+0	1.427625E+0	1.413221E+0	1.442522E+0	1.468094E+0	1.401385E+0	1.374781E+0	1.347498E+0	1.420537E+0	1.464620E+0	1.438850E+0	1.456582E+0	1.414782E+0	1.399422E+0	1.465336E+0	1.403201E+0	1.414512E+0	1.448463E+0	1.458750E+0	1.434980E+0	1.441149E+0	1.490307E+0	1.459557E+0	1.440197E+0	1.480363E+0	1.419265E+0	1.411291E+0	1.425344E+0	1.421185E+0	1.382651E+0	1.429774E+0	1.398771E+0	1.410848E+0	1.415169E+0	1.416930E+0	1.370101E+0	1.523262E+0	1.479050E+0	1.421690E+0	1.401656E+0	1.470443E+0	1.484232E+0	1.503600E+0	1.440898E+0	1.459877E+0	1.454720E+0	1.426794E+0	1.423299E+0	1.413456E+0	1.490358E+0	1.392975E+0	1.467081E+0	1.478324E+0	1.447326E+0	1.389603E+0	1.389582E+0	1.438944E+0	1.439831E+0	1.491705E+0	1.448564E+0	1.451635E+0	1.453468E+0	1.401423E+0	1.446017E+0	1.411118E+0	1.410771E+0	1.418180E+0	1.448963E+0	1.416515E+0	1.421700E+0	1.532637E+0	1.496822E+0	1.479197E+0	1.402201E+0	1.386474E+0	1.392313E+0	1.448055E+0	1.391344E+0	1.366164E+0	1.428955E+0	1.418626E+0	1.368311E+0	1.417028E+0	1.492259E+0	1.399957E+0	1.437782E+0	1.309811E+0	1.447467E+0	1.384719E+0	1.371457E+0	1.363530E+0	1.380216E+0	1.408321E+0	1.437915E+0	1.381547E+0	1.436205E+0	1.448212E+0	1.460963E+0
5.450090E+2	1.388182E+0	1.404443E+0	1.427855E+0	1.423257E+0	1.448589E+0	1.404541E+0	1.448243E+0	1.440629E+0	1.464651E+0	1.446655E+0	1.423319E+0	1.420787E+0	1.437300E+0	1.481275E+0	1.454913E+0	1.432437E+0	1.414641E+0	1.449317E+0	1.425450E+0	1.376565E+0	1.475277E+0	1.395734E+0	1.440562E+0	1.402118E+0	1.453016E+0	1.457159E+0	1.396603E+0	1.373027E+0	1.413242E+0	1.361910E+0	1.411386E+0	1.390416E+0	1.478123E+0	1.422446E+0	1.535462E+0	1.434952E+0	1.480754E+0	1.399189E+0	1.393273E+0	1.407785E+0	1.397396E+0	1.469005E+0	1.395196E+0	1.397038E+0	1.550775E+0	1.451978E+0	1.431354E+0	1.430060E+0	1.422596E+0	1.383625E+0	1.459144E+0	1.381935E+0	1.396655E+0	1.454326E+0	1.442929E+0	1.443271E+0	1.421178E+0	1.415551E+0	1.367189E+0	1.389811E+0	1.407294E+0	1.500081E+0	1.428676E+0	1.481398E+0	1.422237E+0	1.417298E+0	1.431432E+0	1.379569E+0	1.437962E+0	1.458467E+0	1.449375E+0	1.444893E+0	1.481582E+0	1.466888E+0	1.435423E+0	1.386529E+0	1.427843E+0	1.451989E+0	1.424433E+0	1.385203E+0	1.430487E+0	1.410158E+0	1.433505E+0	1.367428E+0	1.392906E+0	1.365354E+0	1.440754E+0	1.417852E+0	1.402780E+0	1.395074E+0	1.431625E+0	1.417923E+0	1.436691E+0	1.437832E+0	1.425189E+0	1.372819E+0	1.415793E+0	1.377451E+0	1.479845E+0	1.392104E+0	1.405672E+0	1.473002E+0	1.356654E+0	1.422177E+0	1.389279E+0	1.377835E+0	1.350946E+0	1.410878E+0	1.360529E+0	1.439976E+0	1.449782E+0	1.390397E+0	1.409198E+0	1.420930E+0	1.436845E+0	1.384833E+0	1.447641E+0	1.430858E+0	1.451325E+0	1.425473E+0	1.363753E+0	1.352941E+0	1.449882E+0	1.356528E+0	1.429642E+0	1.402003E+0	1.402623E+0	1.382893E+0	1.445870E+0	1.421951E+0	1.451992E+0	1.384068E+0	1.419134E+0	1.471401E+0	1.315475E+0	1.379511E+0	1.472025E+0	1.388627E+0	1.407629E+0	1.353667E+0	1.359894E+0	1.468433E+0	1.431859E+0	1.438820E+0	1.426046E+0	1.456290E+0	1.363631E+0	1.373454E+0	1.396638E+0	1.437103E+0	1.371113E+0	1.362086E+0	1.456267E+0	1.399643E+0	1.420537E+0	1.412624E+0	1.438915E+0	1.406502E+0	1.498522E+0	1.351576E+0	1.412018E+0	1.446157E+0	1.442107E+0	1.340150E+0	1.376597E+0	1.411194E+0	1.480918E+0	1.435659E+0	1.400117E+0	1.371009E+0	1.379810E+0
5.452640E+2	1.288431E+0	1.313516E+0	1.280551E+0	1.309709E+0	1.291893E+0	1.313323E+0	1.303775E+0	1.359374E+0	1.297415E+0	1.326922E+0	1.336541E+0	1.313045E+0	1.292297E+0	1.318264E+0	1.333950E+0	1.264900E+0	1.370793E+0	1.317100E+0	1.318585E+0	1.316484E+0	1.342158E+0	1.332972E+0	1.294068E+0	1.286682E+0	1.385870E+0	1.361070E+0	1.290628E+0	1.303845E+0	1.266772E+0	1.294111E+0	1.309799E+0	1.266404E+0	1.304799E+0	1.293086E+0	1.358432E+0	1.356310E+0	1.350308E+0	1.345018E+0	1.308091E+0	1.360867E+0	1.257747E+0	1.356713E+0	1.324556E+0	1.308446E+0	1.347215E+0	1.281512E+0	1.352312E+0	1.273120E+0	1.347662E+0	1.263003E+0	1.318210E+0	1.265021E+0	1.377318E+0	1.319118E+0	1.346330E+0	1.300669E+0	1.312156E+0	1.306667E+0	1.354810E+0	1.298047E+0	1.320001E+0	1.363884E+0	1.292568E+0	1.307619E+0	1.315578E+0	1.330148E+0	1.342737E+0	1.281199E+0	1.346776E+0	1.335633E+0	1.312227E+0	1.290901E+0	1.294089E+0	1.348324E+0	1.306089E+0	1.309236E+0	1.304590E+0	1.314794E+0	1.320151E+0	1.247030E+0	1.261955E+0	1.343792E+0	1.265692E+0	1.258340E+0	1.349721E+0	1.309056E+0	1.363401E+0	1.358161E+0	1.308823E+0	1.332990E+0	1.269307E+0	1.314836E+0	1.286744E+0	1.332063E+0	1.380700E+0	1.313958E+0	1.304609E+0	1.328551E+0	1.322349E+0	1.236076E+0	1.316775E+0	1.213952E+0	1.308731E+0	1.307238E+0	1.308450E+0	1.264211E+0	1.344550E+0	1.293048E+0	1.311022E+0	1.297357E+0	1.359665E+0	1.306934E+0	1.200414E+0	1.300700E+0	1.324381E+0	1.328785E+0	1.319662E+0	1.319947E+0	1.292024E+0	1.352576E+0	1.236089E+0	1.253005E+0	1.376159E+0	1.302603E+0	1.285032E+0	1.271244E+0	1.326068E+0	1.252161E+0	1.299967E+0	1.288734E+0	1.375962E+0	1.285855E+0	1.288777E+0	1.313667E+0	1.297353E+0	1.307684E+0	1.344830E+0	1.358251E+0	1.266048E+0	1.265506E+0	1.237504E+0	1.264528E+0	1.284430E+0	1.322529E+0	1.299751E+0	1.372769E+0	1.284487E+0	1.249507E+0	1.355172E+0	1.373303E+0	1.303296E+0	1.287053E+0	1.294436E+0	1.340080E+0	1.310933E+0	1.338725E+0	1.294879E+0	1.242888E+0	1.286435E+0	1.196272E+0	1.281878E+0	1.303306E+0	1.298955E+0	1.300592E+0	1.272812E+0	1.309436E+0	1.306864E+0	1.307122E+0	1.346641E+0	1.306571E+0	1.330799E+0
5.455290E+2	1.273425E+0	1.220781E+0	1.322022E+0	1.269606E+0	1.204378E+0	1.286711E+0	1.303972E+0	1.283654E+0	1.282097E+0	1.274431E+0	1.303808E+0	1.205686E+0	1.265470E+0	1.249595E+0	1.301788E+0	1.292948E+0	1.338561E+0	1.298425E+0	1.245745E+0	1.264807E+0	1.302678E+0	1.292934E+0	1.331658E+0	1.252595E+0	1.360920E+0	1.257184E+0	1.205516E+0	1.254445E+0	1.305741E+0	1.253556E+0	1.297971E+0	1.225737E+0	1.253812E+0	1.346627E+0	1.268652E+0	1.217193E+0	1.343913E+0	1.272269E+0	1.237933E+0	1.318654E+0	1.310668E+0	1.297160E+0	1.239722E+0	1.259892E+0	1.309583E+0	1.281290E+0	1.347048E+0	1.299610E+0	1.284651E+0	1.258554E+0	1.292022E+0	1.269338E+0	1.278648E+0	1.293074E+0	1.315835E+0	1.289840E+0	1.242619E+0	1.261945E+0	1.296403E+0	1.247963E+0	1.236242E+0	1.259167E+0	1.303820E+0	1.320440E+0	1.290369E+0	1.312382E+0	1.225517E+0	1.278577E+0	1.306042E+0	1.333080E+0	1.282329E+0	1.286328E+0	1.323544E+0	1.280391E+0	1.285286E+0	1.319934E+0	1.270985E+0	1.336300E+0	1.304429E+0	1.259079E+0	1.318472E+0	1.241985E+0	1.289311E+0	1.230298E+0	1.285883E+0	1.222728E+0	1.298106E+0	1.334191E+0	1.263004E+0	1.287460E+0	1.197418E+0	1.253308E+0	1.270172E+0	1.232391E+0	1.253885E+0	1.319385E+0	1.322123E+0	1.304615E+0	1.319297E+0	1.255744E+0	1.292749E+0	1.231273E+0	1.249832E+0	1.318847E+0	1.290212E+0	1.276684E+0	1.308073E+0	1.259100E+0	1.309280E+0	1.319915E+0	1.281546E+0	1.284511E+0	1.259722E+0	1.314218E+0	1.240584E+0	1.234889E+0	1.243191E+0	1.311729E+0	1.276781E+0	1.271555E+0	1.271318E+0	1.214641E+0	1.239209E+0	1.277759E+0	1.297234E+0	1.315151E+0	1.263579E+0	1.272744E+0	1.289120E+0	1.295919E+0	1.234044E+0	1.243349E+0	1.200182E+0	1.278955E+0	1.236096E+0	1.269800E+0	1.262904E+0	1.252506E+0	1.261173E+0	1.247729E+0	1.269742E+0	1.286693E+0	1.193936E+0	1.398366E+0	1.231311E+0	1.307830E+0	1.219680E+0	1.285771E+0	1.302826E+0	1.250625E+0	1.213336E+0	1.222811E+0	1.212320E+0	1.271192E+0	1.293517E+0	1.297816E+0	1.265790E+0	1.259456E+0	1.270150E+0	1.258645E+0	1.256696E+0	1.249768E+0	1.316471E+0	1.281500E+0	1.232831E+0	1.262072E+0	1.287005E+0	1.260719E+0	1.250830E+0	1.279104E+0	1.150530E+0
5.457670E+2	1.115749E+0	1.159876E+0	1.175280E+0	1.147827E+0	1.181998E+0	1.151875E+0	1.103364E+0	1.150196E+0	1.140713E+0	1.121572E+0	1.150080E+0	1.128171E+0	1.123230E+0	1.208985E+0	1.137570E+0	1.156231E+0	1.153878E+0	1.167438E+0	1.204587E+0	1.219066E+0	1.147948E+0	1.132443E+0	1.140508E+0	1.098479E+0	1.174411E+0	1.163501E+0	1.153638E+0	1.133613E+0	1.120273E+0	1.095942E+0	1.200246E+0	1.130885E+0	1.176469E+0	1.146597E+0	1.162308E+0	1.182073E+0	1.168622E+0	1.228093E+0	1.174674E+0	1.168013E+0	1.174282E+0	1.128790E+0	1.173849E+0	1.165491E+0	1.151721E+0	1.160831E+0	1.162710E+0	1.076595E+0	1.178981E+0	1.124290E+0	1.089393E+0	1.177660E+0	1.094802E+0	1.141618E+0	1.146098E+0	1.150214E+0	1.181025E+0	1.169177E+0	1.078757E+0	1.180338E+0	1.124105E+0	1.198691E+0	1.161760E+0	1.221882E+0	1.106906E+0	1.125472E+0	1.160650E+0	1.207261E+0	1.135623E+0	1.168019E+0	1.161120E+0	1.076602E+0	1.186441E+0	1.215320E+0	1.160215E+0	1.132824E+0	1.193730E+0	1.199393E+0	1.189075E+0	1.120807E+0	1.179462E+0	1.184770E+0	1.150802E+0	1.106149E+0	1.113268E+0	1.114406E+0	1.189106E+0	1.162494E+0	1.125860E+0	1.155230E+0	1.171113E+0	1.142019E+0	1.143190E+0	1.177272E+0	1.167997E+0	1.099413E+0	1.155870E+0	1.178900E+0	1.129660E+0	1.123962E+0	1.144209E+0	1.138118E+0	1.132984E+0	1.193230E+0	1.155872E+0	1.152187E+0	1.125963E+0	1.127758E+0	1.164833E+0	1.183638E+0	1.168912E+0	1.145514E+0	1.060131E+0	1.100351E+0	1.197923E+0	1.156564E+0	1.118958E+0	1.147403E+0	1.218556E+0	1.129457E+0	1.156011E+0	1.156833E+0	1.156075E+0	1.145474E+0	1.182635E+0	1.188426E+0	1.205758E+0	1.138334E+0	1.185586E+0	1.167621E+0	1.095811E+0	1.171325E+0	1.180038E+0	1.223698E+0	1.122023E+0	1.153602E+0	1.129429E+0	1.154116E+0	1.117797E+0	1.113373E+0	1.104489E+0	1.147306E+0	1.165555E+0	1.171081E+0	1.157267E+0	1.228001E+0	1.137101E+0	1.172867E+0	1.155545E+0	1.168923E+0	1.123959E+0	1.143417E+0	1.148903E+0	1.166212E+0	1.109291E+0	1.132895E+0	1.143437E+0	1.129188E+0	1.229602E+0	1.074644E+0	1.080938E+0	1.152393E+0	1.116005E+0	1.138739E+0	1.089526E+0	1.115839E+0	1.138806E+0	1.116895E+0	1.143292E+0	1.141105E+0	1.122916E+0
5.460110E+2	1.118313E+0	1.141692E+0	1.175023E+0	1.125710E+0	1.114103E+0	1.148394E+0	1.146178E+0	1.176363E+0	1.137118E+0	1.148652E+0	1.154082E+0	1.151806E+0	1.131723E+0	1.120492E+0	1.163428E+0	1.130656E+0	1.099990E+0	1.154639E+0	1.204527E+0	1.100015E+0	1.113917E+0	1.167589E+0	1.090519E+0	1.144387E+0	1.166756E+0	1.159689E+0	1.113023E+0	1.161056E+0	1.125931E+0	1.166610E+0	1.164269E+0	1.090330E+0	1.161578E+0	1.148923E+0	1.134991E+0	1.086646E+0	1.169605E+0	1.135592E+0	1.137872E+0	1.232810E+0	1.206158E+0	1.134912E+0	1.137094E+0	1.166943E+0	1.205114E+0	1.190354E+0	1.154426E+0	1.101893E+0	1.158067E+0	1.165684E+0	1.136096E+0	1.146067E+0	1.142508E+0	1.148320E+0	1.195606E+0	1.104589E+0	1.131684E+0	1.103510E+0	1.128731E+0	1.158733E+0	1.120699E+0	1.165463E+0	1.185587E+0	1.137430E+0	1.125715E+0	1.107144E+0	1.178253E+0	1.164625E+0	1.126102E+0	1.184105E+0	1.134312E+0	1.177754E+0	1.182367E+0	1.155095E+0	1.110008E+0	1.119096E+0	1.128184E+0	1.145387E+0	1.151321E+0	1.119187E+0	1.116623E+0	1.110173E+0	1.207884E+0	1.144132E+0	1.140038E+0	1.071640E+0	1.154648E+0	1.097835E+0	1.124504E+0	1.069054E+0	1.158256E+0	1.133240E+0	1.134189E+0	1.137360E+0	1.107376E+0	1.124981E+0	1.197353E+0	1.186687E+0	1.183275E+0	1.153675E+0	1.159914E+0	1.181460E+0	1.109499E+0	1.175221E+0	1.120994E+0	1.143998E+0	1.143353E+0	1.141677E+0	1.097672E+0	1.132387E+0	1.184898E+0	1.179258E+0	1.100813E+0	1.168406E+0	1.247621E+0	1.123787E+0	1.135813E+0	1.148626E+0	1.162506E+0	1.121823E+0	1.121006E+0	1.153135E+0	1.171243E+0	1.101787E+0	1.116647E+0	1.145509E+0	1.160232E+0	1.080524E+0	1.120040E+0	1.154923E+0	1.181237E+0	1.111860E+0	1.133368E+0	1.157214E+0	1.094599E+0	1.074162E+0	1.156435E+0	1.114174E+0	1.182398E+0	1.100632E+0	1.138541E+0	1.139411E+0	1.097916E+0	1.157373E+0	1.215765E+0	1.202437E+0	1.121446E+0	1.128197E+0	1.126518E+0	1.178860E+0	1.138744E+0	1.117781E+0	1.145593E+0	1.178730E+0	1.155176E+0	1.127029E+0	1.079227E+0	1.146644E+0	1.154212E+0	1.111710E+0	1.106843E+0	1.151541E+0	1.076684E+0	1.121060E+0	1.179985E+0	1.157685E+0	1.180337E+0	1.159296E+0	1.199346E+0	1.174452E+0	1.071917E+0
5.467660E+2	1.225729E+0	1.193760E+0	1.228827E+0	1.242289E+0	1.241532E+0	1.254102E+0	1.268915E+0	1.191806E+0	1.206660E+0	1.216199E+0	1.258355E+0	1.212326E+0	1.220858E+0	1.209477E+0	1.210835E+0	1.198177E+0	1.196125E+0	1.273274E+0	1.255306E+0	1.247150E+0	1.232778E+0	1.142876E+0	1.154225E+0	1.201530E+0	1.244654E+0	1.218973E+0	1.188608E+0	1.221057E+0	1.217020E+0	1.180609E+0	1.215418E+0	1.219237E+0	1.197001E+0	1.213268E+0	1.270211E+0	1.186443E+0	1.253480E+0	1.206095E+0	1.248802E+0	1.251843E+0	1.208691E+0	1.251130E+0	1.213259E+0	1.201488E+0	1.187386E+0	1.203329E+0	1.282402E+0	1.206607E+0	1.199473E+0	1.254164E+0	1.230613E+0	1.154099E+0	1.193928E+0	1.225457E+0	1.209180E+0	1.218149E+0	1.209705E+0	1.251725E+0	1.200853E+0	1.214519E+0	1.197284E+0	1.274345E+0	1.277107E+0	1.190584E+0	1.227869E+0	1.219560E+0	1.256822E+0	1.254800E+0	1.262458E+0	1.254244E+0	1.238837E+0	1.208087E+0	1.234134E+0	1.245555E+0	1.267420E+0	1.153038E+0	1.219642E+0	1.222416E+0	1.215073E+0	1.254319E+0	1.184747E+0	1.218802E+0	1.250634E+0	1.220884E+0	1.270296E+0	1.183664E+0	1.252655E+0	1.234532E+0	1.214659E+0	1.237246E+0	1.198713E+0	1.203878E+0	1.273557E+0	1.282252E+0	1.230948E+0	1.214414E+0	1.238917E+0	1.226659E+0	1.211882E+0	1.154575E+0	1.228493E+0	1.263251E+0	1.189483E+0	1.220209E+0	1.186940E+0	1.207786E+0	1.183589E+0	1.228343E+0	1.182256E+0	1.285087E+0	1.218721E+0	1.213350E+0	1.175555E+0	1.191544E+0	1.234603E+0	1.238804E+0	1.231193E+0	1.303585E+0	1.146449E+0	1.241559E+0	1.245551E+0	1.266447E+0	1.240175E+0	1.199116E+0	1.216551E+0	1.212334E+0	1.221750E+0	1.212070E+0	1.204928E+0	1.191350E+0	1.225975E+0	1.237828E+0	1.245327E+0	1.245602E+0	1.204883E+0	1.205997E+0	1.292198E+0	1.220193E+0	1.131919E+0	1.185705E+0	1.245485E+0	1.206167E+0	1.235061E+0	1.280554E+0	1.256591E+0	1.245407E+0	1.206377E+0	1.181957E+0	1.147594E+0	1.200746E+0	1.206600E+0	1.158230E+0	1.175538E+0	1.222025E+0	1.236425E+0	1.231951E+0	1.192792E+0	1.274048E+0	1.236330E+0	1.161021E+0	1.153199E+0	1.204521E+0	1.160242E+0	1.141531E+0	1.196579E+0	1.238649E+0	1.210331E+0	1.217914E+0	1.230523E+0	1.253472E+0	1.210954E+0
5.475180E+2	1.321359E+0	1.296280E+0	1.309971E+0	1.334015E+0	1.311759E+0	1.331421E+0	1.249117E+0	1.320355E+0	1.297712E+0	1.246938E+0	1.285959E+0	1.288583E+0	1.331771E+0	1.258051E+0	1.331002E+0	1.276937E+0	1.315782E+0	1.272744E+0	1.298944E+0	1.308604E+0	1.348904E+0	1.232319E+0	1.307920E+0	1.245328E+0	1.305379E+0	1.247718E+0	1.254974E+0	1.233067E+0	1.306730E+0	1.206609E+0	1.359680E+0	1.216810E+0	1.298826E+0	1.266533E+0	1.313908E+0	1.280891E+0	1.329796E+0	1.306071E+0	1.401857E+0	1.307354E+0	1.353360E+0	1.329930E+0	1.246701E+0	1.318282E+0	1.308469E+0	1.367667E+0	1.289844E+0	1.267258E+0	1.258089E+0	1.277922E+0	1.261993E+0	1.264119E+0	1.265628E+0	1.334321E+0	1.238272E+0	1.251267E+0	1.261666E+0	1.373190E+0	1.270575E+0	1.294770E+0	1.250546E+0	1.331640E+0	1.377134E+0	1.360104E+0	1.292701E+0	1.265682E+0	1.328831E+0	1.276897E+0	1.228101E+0	1.312609E+0	1.290161E+0	1.257498E+0	1.287193E+0	1.287038E+0	1.292085E+0	1.228210E+0	1.281543E+0	1.277936E+0	1.279089E+0	1.213120E+0	1.338180E+0	1.293208E+0	1.326879E+0	1.241923E+0	1.300247E+0	1.260590E+0	1.304685E+0	1.305437E+0	1.255522E+0	1.316441E+0	1.250280E+0	1.295347E+0	1.265103E+0	1.311615E+0	1.338818E+0	1.235017E+0	1.321185E+0	1.287518E+0	1.251356E+0	1.234143E+0	1.349876E+0	1.314649E+0	1.247779E+0	1.339013E+0	1.327983E+0	1.309976E+0	1.293921E+0	1.258954E+0	1.326542E+0	1.328203E+0	1.323478E+0	1.266159E+0	1.227166E+0	1.251874E+0	1.337434E+0	1.340929E+0	1.241148E+0	1.290048E+0	1.317169E+0	1.282325E+0	1.267042E+0	1.271639E+0	1.297657E+0	1.234298E+0	1.269045E+0	1.297774E+0	1.293449E+0	1.236764E+0	1.253108E+0	1.288078E+0	1.254754E+0	1.253918E+0	1.254829E+0	1.265964E+0	1.268380E+0	1.270886E+0	1.284744E+0	1.259032E+0	1.279730E+0	1.234262E+0	1.288033E+0	1.284054E+0	1.294949E+0	1.351448E+0	1.237657E+0	1.355182E+0	1.295625E+0	1.243453E+0	1.247364E+0	1.253544E+0	1.274938E+0	1.302509E+0	1.255840E+0	1.327125E+0	1.294406E+0	1.288073E+0	1.247433E+0	1.279408E+0	1.265773E+0	1.232821E+0	1.267844E+0	1.249992E+0	1.268738E+0	1.274441E+0	1.282465E+0	1.255548E+0	1.310614E+0	1.232201E+0	1.266678E+0	1.247588E+0	1.258094E+0
5.482600E+2	1.414298E+0	1.379194E+0	1.365567E+0	1.390780E+0	1.409682E+0	1.325980E+0	1.464231E+0	1.410468E+0	1.342698E+0	1.402864E+0	1.333120E+0	1.401053E+0	1.419052E+0	1.388294E+0	1.421673E+0	1.427339E+0	1.441923E+0	1.372712E+0	1.361217E+0	1.461964E+0	1.383932E+0	1.346545E+0	1.362497E+0	1.343642E+0	1.407940E+0	1.396433E+0	1.423333E+0	1.313672E+0	1.417038E+0	1.346656E+0	1.374244E+0	1.376445E+0	1.416139E+0	1.374176E+0	1.403726E+0	1.366733E+0	1.388011E+0	1.377518E+0	1.361933E+0	1.362486E+0	1.443808E+0	1.382139E+0	1.369371E+0	1.377959E+0	1.386414E+0	1.403128E+0	1.392338E+0	1.336282E+0	1.388674E+0	1.364046E+0	1.341820E+0	1.339097E+0	1.374765E+0	1.400358E+0	1.415444E+0	1.314641E+0	1.315033E+0	1.386789E+0	1.297428E+0	1.356471E+0	1.338097E+0	1.410140E+0	1.422915E+0	1.342865E+0	1.364071E+0	1.415115E+0	1.394099E+0	1.406152E+0	1.389022E+0	1.410565E+0	1.341709E+0	1.400042E+0	1.390858E+0	1.351500E+0	1.369264E+0	1.372384E+0	1.391324E+0	1.415826E+0	1.383948E+0	1.352516E+0	1.420078E+0	1.396324E+0	1.349791E+0	1.335135E+0	1.447862E+0	1.375047E+0	1.380438E+0	1.418003E+0	1.321766E+0	1.405237E+0	1.376247E+0	1.316450E+0	1.385544E+0	1.418154E+0	1.405678E+0	1.356670E+0	1.353719E+0	1.399385E+0	1.424321E+0	1.341527E+0	1.380300E+0	1.399424E+0	1.360683E+0	1.395435E+0	1.348731E+0	1.364605E+0	1.430156E+0	1.364622E+0	1.383585E+0	1.454234E+0	1.376740E+0	1.323631E+0	1.319422E+0	1.339893E+0	1.358056E+0	1.395153E+0	1.335870E+0	1.395974E+0	1.399441E+0	1.343841E+0	1.354185E+0	1.367372E+0	1.398181E+0	1.320165E+0	1.387442E+0	1.334862E+0	1.382865E+0	1.370590E+0	1.360386E+0	1.374723E+0	1.415628E+0	1.411902E+0	1.361402E+0	1.349138E+0	1.367988E+0	1.321272E+0	1.391632E+0	1.393837E+0	1.359104E+0	1.324203E+0	1.334744E+0	1.346984E+0	1.369113E+0	1.432894E+0	1.438162E+0	1.480497E+0	1.305040E+0	1.346795E+0	1.357585E+0	1.425200E+0	1.358564E+0	1.404596E+0	1.351383E+0	1.399642E+0	1.377840E+0	1.331037E+0	1.344075E+0	1.377634E+0	1.420602E+0	1.307416E+0	1.364504E+0	1.349797E+0	1.377126E+0	1.331541E+0	1.396466E+0	1.383853E+0	1.431401E+0	1.365361E+0	1.387570E+0	1.360713E+0	1.380041E+0
5.490100E+2	1.308014E+0	1.295524E+0	1.316595E+0	1.300726E+0	1.354877E+0	1.345451E+0	1.312148E+0	1.340268E+0	1.279158E+0	1.288821E+0	1.380445E+0	1.260148E+0	1.320987E+0	1.345279E+0	1.328327E+0	1.309781E+0	1.300090E+0	1.295691E+0	1.314693E+0	1.316674E+0	1.296273E+0	1.237023E+0	1.269182E+0	1.314661E+0	1.366617E+0	1.302053E+0	1.311773E+0	1.306797E+0	1.255593E+0	1.259240E+0	1.329968E+0	1.309970E+0	1.326808E+0	1.281812E+0	1.340151E+0	1.251830E+0	1.357883E+0	1.310703E+0	1.289528E+0	1.332137E+0	1.338236E+0	1.301565E+0	1.344602E+0	1.304507E+0	1.343313E+0	1.336387E+0	1.364456E+0	1.267537E+0	1.303670E+0	1.319993E+0	1.303181E+0	1.278128E+0	1.303845E+0	1.278143E+0	1.360263E+0	1.259140E+0	1.299316E+0	1.280759E+0	1.288609E+0	1.290992E+0	1.339890E+0	1.305160E+0	1.323639E+0	1.278958E+0	1.317542E+0	1.237562E+0	1.357273E+0	1.345215E+0	1.318157E+0	1.287054E+0	1.276245E+0	1.296516E+0	1.286974E+0	1.311045E+0	1.335538E+0	1.289337E+0	1.321265E+0	1.302938E+0	1.332464E+0	1.244076E+0	1.288500E+0	1.340210E+0	1.326232E+0	1.248055E+0	1.348814E+0	1.290497E+0	1.327623E+0	1.380191E+0	1.301822E+0	1.314117E+0	1.333770E+0	1.272638E+0	1.257999E+0	1.359303E+0	1.308867E+0	1.274560E+0	1.330001E+0	1.340740E+0	1.279840E+0	1.258006E+0	1.302700E+0	1.281124E+0	1.270440E+0	1.322999E+0	1.314989E+0	1.292634E+0	1.294970E+0	1.295753E+0	1.227753E+0	1.332156E+0	1.338130E+0	1.267921E+0	1.237026E+0	1.312321E+0	1.347802E+0	1.308126E+0	1.312434E+0	1.344769E+0	1.291656E+0	1.288563E+0	1.266235E+0	1.335834E+0	1.303409E+0	1.269343E+0	1.330574E+0	1.332237E+0	1.342084E+0	1.246967E+0	1.300811E+0	1.299972E+0	1.279566E+0	1.306153E+0	1.314780E+0	1.312891E+0	1.298188E+0	1.300774E+0	1.339904E+0	1.304546E+0	1.241753E+0	1.217255E+0	1.317310E+0	1.342462E+0	1.307023E+0	1.324084E+0	1.278158E+0	1.361838E+0	1.263327E+0	1.304302E+0	1.360226E+0	1.333563E+0	1.300268E+0	1.237276E+0	1.278285E+0	1.365282E+0	1.296651E+0	1.301186E+0	1.302913E+0	1.253439E+0	1.353217E+0	1.226527E+0	1.325709E+0	1.267930E+0	1.336343E+0	1.347006E+0	1.308254E+0	1.271077E+0	1.327121E+0	1.284287E+0	1.292618E+0	1.294613E+0	1.292537E+0
5.497740E+2	1.296142E+0	1.264202E+0	1.334491E+0	1.282326E+0	1.288130E+0	1.345594E+0	1.348567E+0	1.271115E+0	1.329248E+0	1.252409E+0	1.297179E+0	1.258864E+0	1.286883E+0	1.301946E+0	1.290025E+0	1.335268E+0	1.294429E+0	1.279239E+0	1.304669E+0	1.250176E+0	1.383690E+0	1.266485E+0	1.310277E+0	1.280101E+0	1.300336E+0	1.293509E+0	1.220854E+0	1.251720E+0	1.305444E+0	1.307253E+0	1.346228E+0	1.258706E+0	1.321613E+0	1.343627E+0	1.274437E+0	1.298501E+0	1.327407E+0	1.287601E+0	1.294374E+0	1.296245E+0	1.334980E+0	1.369766E+0	1.306215E+0	1.313573E+0	1.355381E+0	1.275393E+0	1.342619E+0	1.289692E+0	1.295403E+0	1.287776E+0	1.322584E+0	1.266514E+0	1.246866E+0	1.221366E+0	1.325761E+0	1.274734E+0	1.247559E+0	1.259800E+0	1.304806E+0	1.217912E+0	1.247317E+0	1.296324E+0	1.304902E+0	1.361379E+0	1.290057E+0	1.263093E+0	1.321043E+0	1.298964E+0	1.331895E+0	1.319278E+0	1.272075E+0	1.262897E+0	1.363120E+0	1.280057E+0	1.290679E+0	1.273401E+0	1.324029E+0	1.277833E+0	1.306979E+0	1.284461E+0	1.298532E+0	1.296151E+0	1.315220E+0	1.276152E+0	1.278639E+0	1.281781E+0	1.286426E+0	1.276378E+0	1.239995E+0	1.321848E+0	1.257828E+0	1.264343E+0	1.318878E+0	1.279067E+0	1.356260E+0	1.225967E+0	1.315197E+0	1.277622E+0	1.346931E+0	1.242292E+0	1.284140E+0	1.256237E+0	1.261518E+0	1.248899E+0	1.244153E+0	1.293796E+0	1.280279E+0	1.242019E+0	1.309853E+0	1.302597E+0	1.356236E+0	1.231062E+0	1.249526E+0	1.254601E+0	1.362272E+0	1.265721E+0	1.293169E+0	1.361499E+0	1.322423E+0	1.324187E+0	1.258649E+0	1.317648E+0	1.297843E+0	1.248421E+0	1.322628E+0	1.268807E+0	1.273500E+0	1.232442E+0	1.257160E+0	1.296052E+0	1.270608E+0	1.340280E+0	1.258169E+0	1.279763E+0	1.238120E+0	1.270429E+0	1.211722E+0	1.233317E+0	1.298688E+0	1.255001E+0	1.223277E+0	1.269289E+0	1.204998E+0	1.323455E+0	1.318558E+0	1.311723E+0	1.269632E+0	1.330489E+0	1.291542E+0	1.360618E+0	1.256072E+0	1.288593E+0	1.219848E+0	1.269700E+0	1.358055E+0	1.289451E+0	1.314519E+0	1.298646E+0	1.311847E+0	1.238931E+0	1.270939E+0	1.274473E+0	1.277212E+0	1.293835E+0	1.241724E+0	1.294690E+0	1.318260E+0	1.285663E+0	1.211146E+0	1.350267E+0	1.275902E+0
5.505060E+2	1.300240E+0	1.292843E+0	1.307488E+0	1.343253E+0	1.322290E+0	1.294890E+0	1.287693E+0	1.326701E+0	1.337795E+0	1.226222E+0	1.332860E+0	1.323657E+0	1.316311E+0	1.341937E+0	1.310711E+0	1.316075E+0	1.284092E+0	1.297792E+0	1.346284E+0	1.327627E+0	1.314004E+0	1.299115E+0	1.331703E+0	1.303506E+0	1.329088E+0	1.302774E+0	1.323588E+0	1.317000E+0	1.285582E+0	1.266302E+0	1.324918E+0	1.315956E+0	1.349107E+0	1.292687E+0	1.351177E+0	1.236849E+0	1.328206E+0	1.288300E+0	1.345864E+0	1.293505E+0	1.334473E+0	1.326007E+0	1.281998E+0	1.302922E+0	1.366998E+0	1.256863E+0	1.351153E+0	1.303002E+0	1.293096E+0	1.278635E+0	1.355884E+0	1.276443E+0	1.324945E+0	1.312539E+0	1.329555E+0	1.306534E+0	1.254605E+0	1.269694E+0	1.281731E+0	1.293967E+0	1.298327E+0	1.325623E+0	1.313386E+0	1.324843E+0	1.269525E+0	1.305376E+0	1.321793E+0	1.259286E+0	1.301383E+0	1.338910E+0	1.368797E+0	1.314194E+0	1.263514E+0	1.296758E+0	1.342220E+0	1.274140E+0	1.316507E+0	1.251078E+0	1.329472E+0	1.306449E+0	1.239215E+0	1.357252E+0	1.337972E+0	1.240273E+0	1.239522E+0	1.245360E+0	1.295795E+0	1.295119E+0	1.293004E+0	1.241813E+0	1.270500E+0	1.327456E+0	1.278938E+0	1.293576E+0	1.313964E+0	1.269545E+0	1.271658E+0	1.304095E+0	1.275843E+0	1.272911E+0	1.276228E+0	1.252079E+0	1.318481E+0	1.338506E+0	1.303502E+0	1.220156E+0	1.330068E+0	1.319317E+0	1.312575E+0	1.304416E+0	1.343108E+0	1.285700E+0	1.250692E+0	1.346731E+0	1.289505E+0	1.307617E+0	1.253679E+0	1.229201E+0	1.214454E+0	1.250112E+0	1.282027E+0	1.227400E+0	1.325001E+0	1.252110E+0	1.277840E+0	1.300694E+0	1.290165E+0	1.263344E+0	1.250245E+0	1.367571E+0	1.294132E+0	1.298109E+0	1.253941E+0	1.295333E+0	1.255415E+0	1.280210E+0	1.318385E+0	1.312181E+0	1.257590E+0	1.293110E+0	1.285644E+0	1.343192E+0	1.208854E+0	1.300817E+0	1.301838E+0	1.340131E+0	1.265418E+0	1.353162E+0	1.285046E+0	1.299091E+0	1.284947E+0	1.226369E+0	1.253367E+0	1.333775E+0	1.274813E+0	1.272599E+0	1.274075E+0	1.346062E+0	1.339587E+0	1.320145E+0	1.269730E+0	1.255084E+0	1.225030E+0	1.294033E+0	1.308178E+0	1.310217E+0	1.294868E+0	1.305321E+0	1.260379E+0	1.216687E+0	1.387720E+0
5.512620E+2	1.228603E+0	1.225130E+0	1.245141E+0	1.312009E+0	1.273710E+0	1.255489E+0	1.271418E+0	1.214222E+0	1.240053E+0	1.247204E+0	1.226397E+0	1.207195E+0	1.238425E+0	1.231979E+0	1.279125E+0	1.259084E+0	1.204160E+0	1.234575E+0	1.284345E+0	1.286141E+0	1.327911E+0	1.143660E+0	1.215861E+0	1.274893E+0	1.236198E+0	1.237111E+0	1.254933E+0	1.274782E+0	1.243690E+0	1.193325E+0	1.322530E+0	1.182587E+0	1.228256E+0	1.270864E+0	1.286110E+0	1.222721E+0	1.276986E+0	1.209304E+0	1.283250E+0	1.261279E+0	1.283640E+0	1.270223E+0	1.246340E+0	1.232150E+0	1.270398E+0	1.284039E+0	1.279427E+0	1.205003E+0	1.291482E+0	1.279326E+0	1.253131E+0	1.209960E+0	1.246794E+0	1.310545E+0	1.281454E+0	1.246095E+0	1.219205E+0	1.264502E+0	1.203334E+0	1.260305E+0	1.229047E+0	1.324670E+0	1.287340E+0	1.261221E+0	1.240463E+0	1.253697E+0	1.288308E+0	1.145421E+0	1.231273E+0	1.325136E+0	1.221040E+0	1.232700E+0	1.269949E+0	1.229795E+0	1.290491E+0	1.215127E+0	1.313895E+0	1.265249E+0	1.223828E+0	1.213303E+0	1.177992E+0	1.218824E+0	1.259690E+0	1.230347E+0	1.237466E+0	1.221297E+0	1.304252E+0	1.214070E+0	1.281956E+0	1.256394E+0	1.235318E+0	1.256563E+0	1.239944E+0	1.202255E+0	1.255285E+0	1.230898E+0	1.271655E+0	1.227050E+0	1.277927E+0	1.199274E+0	1.323746E+0	1.239251E+0	1.254332E+0	1.211376E+0	1.246351E+0	1.228130E+0	1.210805E+0	1.263792E+0	1.215568E+0	1.235604E+0	1.270630E+0	1.236451E+0	1.266666E+0	1.214399E+0	1.282616E+0	1.270966E+0	1.186304E+0	1.265909E+0	1.237540E+0	1.246561E+0	1.283416E+0	1.239755E+0	1.203059E+0	1.253506E+0	1.321863E+0	1.221994E+0	1.257154E+0	1.198177E+0	1.240038E+0	1.280698E+0	1.174237E+0	1.229380E+0	1.166634E+0	1.272886E+0	1.256366E+0	1.254564E+0	1.264594E+0	1.278516E+0	1.238821E+0	1.249889E+0	1.224381E+0	1.263756E+0	1.267383E+0	1.216359E+0	1.316671E+0	1.246002E+0	1.229213E+0	1.225743E+0	1.250128E+0	1.268008E+0	1.235561E+0	1.234808E+0	1.206735E+0	1.234396E+0	1.267368E+0	1.201150E+0	1.308824E+0	1.278602E+0	1.250058E+0	1.275203E+0	1.225675E+0	1.213922E+0	1.236203E+0	1.162013E+0	1.230143E+0	1.267599E+0	1.298773E+0	1.255531E+0	1.261082E+0	1.278224E+0	1.268758E+0
5.520100E+2	1.245423E+0	1.230971E+0	1.270904E+0	1.275347E+0	1.207613E+0	1.348474E+0	1.268681E+0	1.211468E+0	1.261613E+0	1.197525E+0	1.286934E+0	1.248034E+0	1.271928E+0	1.321096E+0	1.332093E+0	1.288604E+0	1.298973E+0	1.263345E+0	1.293493E+0	1.359185E+0	1.320937E+0	1.248522E+0	1.289491E+0	1.254936E+0	1.343184E+0	1.252785E+0	1.270685E+0	1.271303E+0	1.298765E+0	1.243919E+0	1.283438E+0	1.253996E+0	1.313409E+0	1.303608E+0	1.316614E+0	1.278114E+0	1.319069E+0	1.315444E+0	1.283696E+0	1.298344E+0	1.306662E+0	1.306160E+0	1.292807E+0	1.266563E+0	1.299550E+0	1.282708E+0	1.311222E+0	1.295386E+0	1.242945E+0	1.306119E+0	1.312481E+0	1.220356E+0	1.264614E+0	1.271341E+0	1.333249E+0	1.289304E+0	1.287749E+0	1.233602E+0	1.307311E+0	1.289729E+0	1.276722E+0	1.297709E+0	1.306505E+0	1.255612E+0	1.272931E+0	1.260180E+0	1.318956E+0	1.280209E+0	1.313641E+0	1.259123E+0	1.245501E+0	1.290535E+0	1.323930E+0	1.218816E+0	1.247923E+0	1.266261E+0	1.289925E+0	1.295842E+0	1.248536E+0	1.194391E+0	1.288702E+0	1.273270E+0	1.323463E+0	1.308514E+0	1.223274E+0	1.261292E+0	1.286235E+0	1.242071E+0	1.270938E+0	1.274470E+0	1.294821E+0	1.250474E+0	1.265428E+0	1.274692E+0	1.270005E+0	1.250357E+0	1.325085E+0	1.301866E+0	1.291558E+0	1.258961E+0	1.327708E+0	1.227080E+0	1.278168E+0	1.259428E+0	1.275605E+0	1.247587E+0	1.256666E+0	1.262456E+0	1.244521E+0	1.306090E+0	1.356280E+0	1.302144E+0	1.255216E+0	1.271926E+0	1.311381E+0	1.315174E+0	1.290318E+0	1.292097E+0	1.245251E+0	1.259694E+0	1.274976E+0	1.315079E+0	1.245945E+0	1.297221E+0	1.240904E+0	1.292635E+0	1.248704E+0	1.239497E+0	1.301723E+0	1.274229E+0	1.278266E+0	1.323667E+0	1.218972E+0	1.271001E+0	1.289576E+0	1.232172E+0	1.295659E+0	1.285029E+0	1.259113E+0	1.237458E+0	1.327828E+0	1.270119E+0	1.271468E+0	1.250270E+0	1.295381E+0	1.259166E+0	1.257050E+0	1.257992E+0	1.306248E+0	1.343447E+0	1.248078E+0	1.244192E+0	1.289788E+0	1.265342E+0	1.227024E+0	1.244695E+0	1.235110E+0	1.273275E+0	1.328493E+0	1.212275E+0	1.256416E+0	1.301360E+0	1.247662E+0	1.234613E+0	1.293729E+0	1.286619E+0	1.250054E+0	1.268316E+0	1.355729E+0	1.334444E+0	1.338610E+0
5.527590E+2	1.202694E+0	1.202308E+0	1.267050E+0	1.260043E+0	1.226689E+0	1.206139E+0	1.167252E+0	1.177239E+0	1.197459E+0	1.158321E+0	1.252563E+0	1.225426E+0	1.203348E+0	1.213733E+0	1.269138E+0	1.234362E+0	1.308317E+0	1.209433E+0	1.273272E+0	1.247786E+0	1.283383E+0	1.221097E+0	1.196162E+0	1.169416E+0	1.279491E+0	1.186311E+0	1.155085E+0	1.243150E+0	1.250275E+0	1.209593E+0	1.224068E+0	1.181410E+0	1.270052E+0	1.194621E+0	1.206383E+0	1.181835E+0	1.230974E+0	1.230825E+0	1.212478E+0	1.227452E+0	1.220184E+0	1.235542E+0	1.261870E+0	1.227039E+0	1.244297E+0	1.267482E+0	1.272537E+0	1.193310E+0	1.196459E+0	1.246032E+0	1.215393E+0	1.181630E+0	1.214304E+0	1.240844E+0	1.205484E+0	1.229409E+0	1.189113E+0	1.168538E+0	1.165056E+0	1.163697E+0	1.209373E+0	1.224579E+0	1.230375E+0	1.184573E+0	1.258890E+0	1.192588E+0	1.199127E+0	1.113453E+0	1.202762E+0	1.199171E+0	1.242749E+0	1.256423E+0	1.146920E+0	1.190933E+0	1.184619E+0	1.177510E+0	1.252842E+0	1.242041E+0	1.234509E+0	1.182655E+0	1.221162E+0	1.203665E+0	1.241656E+0	1.217712E+0	1.244900E+0	1.167451E+0	1.259973E+0	1.260217E+0	1.173031E+0	1.152748E+0	1.230155E+0	1.202707E+0	1.227774E+0	1.203736E+0	1.214272E+0	1.231166E+0	1.283441E+0	1.229868E+0	1.230197E+0	1.168077E+0	1.219865E+0	1.218853E+0	1.235822E+0	1.192345E+0	1.188679E+0	1.163411E+0	1.232495E+0	1.228671E+0	1.181578E+0	1.188698E+0	1.274774E+0	1.201932E+0	1.241989E+0	1.231065E+0	1.257851E+0	1.233517E+0	1.237792E+0	1.208870E+0	1.226953E+0	1.185035E+0	1.187606E+0	1.193409E+0	1.222276E+0	1.259542E+0	1.189351E+0	1.257395E+0	1.191179E+0	1.219335E+0	1.223844E+0	1.184375E+0	1.195426E+0	1.181036E+0	1.191066E+0	1.166931E+0	1.210146E+0	1.202874E+0	1.216408E+0	1.165665E+0	1.244593E+0	1.223369E+0	1.193337E+0	1.239739E+0	1.260347E+0	1.205755E+0	1.222539E+0	1.216714E+0	1.229281E+0	1.209607E+0	1.178918E+0	1.246781E+0	1.223356E+0	1.268052E+0	1.190428E+0	1.253028E+0	1.206813E+0	1.201649E+0	1.174966E+0	1.190869E+0	1.242087E+0	1.145601E+0	1.169265E+0	1.252793E+0	1.202868E+0	1.142313E+0	1.175236E+0	1.226105E+0	1.205906E+0	1.199131E+0	1.246699E+0	1.226085E+0	1.245762E+0
5.534880E+2	1.115543E+0	1.187486E+0	1.131907E+0	1.145339E+0	1.134787E+0	1.177409E+0	1.170929E+0	1.203765E+0	1.135953E+0	1.130693E+0	1.159843E+0	1.156075E+0	1.155403E+0	1.153612E+0	1.158301E+0	1.211354E+0	1.147575E+0	1.196564E+0	1.160993E+0	1.178779E+0	1.192901E+0	1.147324E+0	1.118232E+0	1.120491E+0	1.271821E+0	1.162143E+0	1.150650E+0	1.142909E+0	1.137706E+0	1.105416E+0	1.171838E+0	1.175471E+0	1.165175E+0	1.198522E+0	1.127535E+0	1.204006E+0	1.184858E+0	1.161609E+0	1.185119E+0	1.184881E+0	1.189015E+0	1.212817E+0	1.187071E+0	1.152494E+0	1.218622E+0	1.194266E+0	1.163603E+0	1.104010E+0	1.177251E+0	1.197073E+0	1.144385E+0	1.128630E+0	1.149906E+0	1.215551E+0	1.223958E+0	1.104218E+0	1.097374E+0	1.165797E+0	1.171476E+0	1.118466E+0	1.154836E+0	1.185694E+0	1.182260E+0	1.176664E+0	1.162069E+0	1.131567E+0	1.153391E+0	1.188833E+0	1.155609E+0	1.185944E+0	1.178221E+0	1.101883E+0	1.186505E+0	1.183087E+0	1.120379E+0	1.122519E+0	1.175394E+0	1.168702E+0	1.220720E+0	1.106223E+0	1.142238E+0	1.116290E+0	1.196821E+0	1.145646E+0	1.150415E+0	1.175982E+0	1.129667E+0	1.126853E+0	1.177151E+0	1.156955E+0	1.208564E+0	1.188610E+0	1.157132E+0	1.191198E+0	1.165976E+0	1.148944E+0	1.142479E+0	1.152091E+0	1.176700E+0	1.111856E+0	1.133615E+0	1.087314E+0	1.212140E+0	1.220120E+0	1.156309E+0	1.140637E+0	1.159496E+0	1.195449E+0	1.149760E+0	1.160450E+0	1.141794E+0	1.133085E+0	1.157404E+0	1.169209E+0	1.207415E+0	1.199356E+0	1.175676E+0	1.154183E+0	1.136982E+0	1.184371E+0	1.153843E+0	1.121375E+0	1.244857E+0	1.105658E+0	1.175515E+0	1.140410E+0	1.156453E+0	1.156597E+0	1.157800E+0	1.194213E+0	1.156572E+0	1.163216E+0	1.163738E+0	1.203017E+0	1.107997E+0	1.142785E+0	1.144109E+0	1.171998E+0	1.152998E+0	1.101594E+0	1.160698E+0	1.201164E+0	1.180452E+0	1.141402E+0	1.187945E+0	1.187033E+0	1.196310E+0	1.162401E+0	1.166432E+0	1.147570E+0	1.138475E+0	1.224556E+0	1.136809E+0	1.184038E+0	1.117064E+0	1.193796E+0	1.112583E+0	1.158366E+0	1.137255E+0	1.185263E+0	1.132581E+0	1.172479E+0	1.191318E+0	1.159020E+0	1.106260E+0	1.142784E+0	1.172912E+0	1.181295E+0	1.120149E+0	1.134483E+0	1.270294E+0
5.542530E+2	1.149900E+0	1.109891E+0	1.154662E+0	1.109797E+0	1.145683E+0	1.121709E+0	1.092455E+0	1.149757E+0	1.159576E+0	1.061854E+0	1.087932E+0	1.105427E+0	1.158741E+0	1.082259E+0	1.165737E+0	1.133649E+0	1.172520E+0	1.104127E+0	1.122899E+0	1.157149E+0	1.102409E+0	1.059632E+0	1.137367E+0	1.120906E+0	1.069342E+0	1.105924E+0	1.139840E+0	1.098119E+0	1.120146E+0	1.108155E+0	1.110458E+0	1.094246E+0	1.082235E+0	1.109179E+0	1.185644E+0	1.080288E+0	1.105290E+0	1.118224E+0	1.145263E+0	1.115060E+0	1.126692E+0	1.122661E+0	1.128266E+0	1.110998E+0	1.131631E+0	1.113506E+0	1.123047E+0	1.096823E+0	1.116418E+0	1.123992E+0	1.131022E+0	1.094061E+0	1.056980E+0	1.158525E+0	1.132895E+0	1.100094E+0	1.082257E+0	1.091066E+0	1.078077E+0	1.104519E+0	1.086229E+0	1.137098E+0	1.105184E+0	1.084511E+0	1.111404E+0	1.082929E+0	1.134804E+0	1.092785E+0	1.088040E+0	1.124871E+0	1.129895E+0	1.156717E+0	1.152073E+0	1.111556E+0	1.116675E+0	1.054607E+0	1.101093E+0	1.106095E+0	1.121215E+0	1.073411E+0	1.073581E+0	1.112457E+0	1.123639E+0	1.097050E+0	1.147056E+0	1.117738E+0	1.102179E+0	1.108164E+0	1.059808E+0	1.088197E+0	1.123344E+0	1.144226E+0	1.138172E+0	1.123345E+0	1.142134E+0	1.067549E+0	1.135819E+0	1.142503E+0	1.124599E+0	1.162204E+0	1.095900E+0	1.128306E+0	1.120502E+0	1.097473E+0	1.096605E+0	1.137043E+0	1.102735E+0	1.131626E+0	1.110191E+0	1.156755E+0	1.130398E+0	1.083356E+0	1.104092E+0	1.112257E+0	1.147759E+0	1.102390E+0	1.046902E+0	1.087910E+0	1.125658E+0	1.120936E+0	1.055064E+0	1.078076E+0	1.136180E+0	1.091902E+0	1.130533E+0	1.106278E+0	1.146211E+0	1.078086E+0	1.145988E+0	1.088822E+0	1.129709E+0	1.084230E+0	1.056185E+0	1.064514E+0	1.145981E+0	1.109944E+0	1.127142E+0	1.142118E+0	1.069214E+0	1.089472E+0	1.107337E+0	1.097569E+0	1.138933E+0	1.119317E+0	1.146202E+0	1.166651E+0	1.126014E+0	1.102136E+0	1.093631E+0	1.143790E+0	1.059859E+0	1.110367E+0	1.073334E+0	1.118089E+0	1.118378E+0	1.074401E+0	1.170114E+0	1.103317E+0	1.135888E+0	1.040785E+0	1.128064E+0	1.138305E+0	1.107945E+0	1.146284E+0	1.124475E+0	1.176667E+0	1.081406E+0	1.101613E+0	1.035476E+0	1.090058E+0	1.104312E+0
5.550140E+2	1.011978E+0	1.023547E+0	1.020096E+0	1.047699E+0	1.008630E+0	1.008722E+0	1.027046E+0	1.016816E+0	1.061672E+0	9.629464E-1	1.062958E+0	1.000728E+0	1.009860E+0	1.030102E+0	1.057768E+0	1.078677E+0	1.059012E+0	1.019053E+0	1.033256E+0	1.066732E+0	1.005449E+0	9.805654E-1	1.065083E+0	9.972097E-1	1.048125E+0	9.822053E-1	1.016931E+0	1.024345E+0	9.827047E-1	1.015245E+0	9.666966E-1	9.991510E-1	1.017924E+0	1.060297E+0	1.077009E+0	9.885937E-1	1.093173E+0	1.025438E+0	1.031518E+0	1.040042E+0	1.003097E+0	1.053959E+0	1.033025E+0	1.007000E+0	1.023336E+0	1.000995E+0	1.046932E+0	9.334673E-1	1.016146E+0	1.008333E+0	1.000753E+0	9.991857E-1	1.027334E+0	1.056926E+0	1.035114E+0	9.842811E-1	1.067628E+0	1.006235E+0	9.747899E-1	1.087231E+0	1.010493E+0	1.012140E+0	1.048954E+0	1.035397E+0	1.037227E+0	9.844515E-1	1.025448E+0	1.003536E+0	1.027155E+0	1.045433E+0	1.020596E+0	1.026038E+0	1.060811E+0	1.079687E+0	1.040947E+0	1.045740E+0	1.006852E+0	1.021563E+0	1.025101E+0	9.836264E-1	9.751371E-1	1.038978E+0	1.006990E+0	1.009299E+0	1.015083E+0	1.005101E+0	9.946203E-1	1.008519E+0	9.998623E-1	1.019852E+0	9.874684E-1	1.014186E+0	1.057558E+0	1.037184E+0	1.041613E+0	1.041042E+0	9.950746E-1	1.016492E+0	1.009942E+0	9.681291E-1	1.022368E+0	9.855463E-1	1.030934E+0	1.014981E+0	9.644814E-1	9.816944E-1	1.039864E+0	1.010986E+0	9.750873E-1	1.028232E+0	1.043274E+0	1.033545E+0	9.845328E-1	1.031202E+0	1.029882E+0	1.003540E+0	1.021572E+0	1.026450E+0	1.032674E+0	1.001497E+0	1.014107E+0	1.000457E+0	1.024072E+0	9.657116E-1	1.009600E+0	1.035589E+0	1.029815E+0	9.690605E-1	1.013214E+0	1.031910E+0	1.051297E+0	1.021187E+0	1.038094E+0	9.932462E-1	1.033358E+0	1.023397E+0	1.004463E+0	1.062738E+0	9.661862E-1	9.740069E-1	9.892937E-1	9.764290E-1	9.710572E-1	1.011369E+0	1.022693E+0	1.011751E+0	9.618335E-1	9.894710E-1	1.005725E+0	1.038564E+0	9.916922E-1	1.003622E+0	1.038003E+0	1.081661E+0	1.024018E+0	9.667744E-1	1.028671E+0	9.847929E-1	1.001644E+0	1.009165E+0	9.770430E-1	9.746537E-1	1.016238E+0	1.035296E+0	1.028911E+0	1.056314E+0	1.001812E+0	1.024131E+0	1.042475E+0	1.071022E+0	1.042071E+0
5.557600E+2	9.871354E-1	1.014919E+0	1.015379E+0	1.029184E+0	9.689941E-1	9.748511E-1	9.882009E-1	9.221558E-1	1.002041E+0	9.534075E-1	1.031329E+0	1.028003E+0	9.911574E-1	9.565333E-1	1.009065E+0	9.670590E-1	9.699817E-1	1.027137E+0	1.037830E+0	9.930687E-1	1.051565E+0	9.782604E-1	1.017489E+0	9.128062E-1	1.034983E+0	1.032291E+0	9.093259E-1	9.350453E-1	9.892563E-1	9.516967E-1	9.768143E-1	9.134237E-1	1.014619E+0	1.041020E+0	1.063192E+0	9.339157E-1	1.014839E+0	1.059707E+0	1.019722E+0	1.032698E+0	1.000607E+0	1.012904E+0	1.019415E+0	9.895269E-1	1.009079E+0	1.011760E+0	1.018389E+0	9.754992E-1	9.598786E-1	1.018668E+0	1.004155E+0	9.723400E-1	9.121646E-1	1.004261E+0	1.002671E+0	9.798400E-1	9.503998E-1	1.001256E+0	9.740820E-1	1.013841E+0	1.004616E+0	1.029764E+0	1.063347E+0	1.020160E+0	1.008014E+0	9.664893E-1	9.977294E-1	9.905651E-1	9.892858E-1	9.925870E-1	1.027106E+0	1.013848E+0	1.007698E+0	9.963448E-1	1.026749E+0	9.831133E-1	9.822136E-1	9.954445E-1	9.833113E-1	9.628599E-1	9.942417E-1	9.855034E-1	1.013318E+0	9.398784E-1	9.766483E-1	9.714376E-1	9.695584E-1	1.032767E+0	1.032018E+0	9.893751E-1	9.991269E-1	9.652250E-1	9.709297E-1	1.011158E+0	1.016679E+0	9.302762E-1	9.908327E-1	9.726653E-1	9.653962E-1	9.329603E-1	1.009458E+0	9.589280E-1	9.747634E-1	1.050169E+0	9.670573E-1	9.593479E-1	9.831383E-1	1.011453E+0	1.025659E+0	1.025574E+0	9.952269E-1	9.215730E-1	9.642943E-1	9.608506E-1	9.981216E-1	1.010362E+0	9.711594E-1	9.595001E-1	9.732850E-1	9.808024E-1	9.982239E-1	9.865641E-1	9.991692E-1	1.023745E+0	9.872479E-1	9.420238E-1	9.488952E-1	9.145214E-1	9.691432E-1	1.014258E+0	1.001440E+0	9.888935E-1	9.991331E-1	9.884314E-1	9.721082E-1	9.965547E-1	1.019887E+0	9.383000E-1	9.457113E-1	9.798895E-1	9.849924E-1	1.042257E+0	1.019215E+0	9.506248E-1	9.929758E-1	1.026404E+0	9.707422E-1	9.410883E-1	9.716912E-1	1.029023E+0	9.587581E-1	9.759189E-1	9.879805E-1	1.017886E+0	9.694225E-1	9.894368E-1	9.957221E-1	9.843288E-1	1.039708E+0	9.758308E-1	9.678205E-1	1.018212E+0	9.737231E-1	9.686502E-1	9.889100E-1	1.009348E+0	9.737619E-1	1.023302E+0	9.648253E-1	9.748228E-1	9.863799E-1
5.560190E+2	9.422175E-1	9.806436E-1	9.585128E-1	9.752917E-1	9.799997E-1	9.505426E-1	9.583288E-1	9.292019E-1	9.107356E-1	9.515164E-1	9.550209E-1	9.516027E-1	9.720837E-1	9.604339E-1	9.943747E-1	9.134610E-1	1.000776E+0	9.645796E-1	9.411669E-1	9.916832E-1	1.012333E+0	8.902382E-1	9.771701E-1	9.790647E-1	1.020038E+0	9.790774E-1	9.782266E-1	9.265884E-1	9.726310E-1	9.413928E-1	1.024280E+0	9.379765E-1	9.399923E-1	9.611013E-1	1.006317E+0	9.842243E-1	9.486594E-1	9.941673E-1	1.022526E+0	9.654078E-1	1.008191E+0	1.013832E+0	9.608324E-1	9.630898E-1	9.770626E-1	1.012382E+0	1.023127E+0	9.527541E-1	9.715346E-1	9.772257E-1	9.906841E-1	9.812641E-1	9.462023E-1	9.761534E-1	9.962659E-1	9.448526E-1	8.976333E-1	9.746435E-1	9.644668E-1	9.498885E-1	9.646371E-1	1.021646E+0	1.001927E+0	9.771133E-1	9.662796E-1	9.347127E-1	9.493648E-1	9.561346E-1	9.853233E-1	9.891754E-1	9.879289E-1	9.426663E-1	9.618347E-1	9.237787E-1	9.451376E-1	9.316522E-1	9.455152E-1	9.643332E-1	9.919264E-1	9.502621E-1	9.471089E-1	9.765690E-1	9.396999E-1	9.717314E-1	9.462834E-1	1.011940E+0	9.624856E-1	9.874048E-1	9.731448E-1	9.390695E-1	9.571284E-1	9.852000E-1	9.682884E-1	9.671846E-1	1.028180E+0	9.243795E-1	9.968188E-1	1.012742E+0	9.658524E-1	9.362307E-1	9.747609E-1	9.432878E-1	9.830292E-1	9.876082E-1	9.469702E-1	9.365221E-1	9.841882E-1	9.256039E-1	9.456633E-1	9.428043E-1	1.023442E+0	9.156091E-1	9.241250E-1	9.430283E-1	9.884523E-1	9.930750E-1	9.725181E-1	9.833231E-1	9.494336E-1	9.450471E-1	9.580635E-1	9.460626E-1	1.012192E+0	9.722909E-1	9.876974E-1	1.020582E+0	9.691874E-1	8.959110E-1	9.555580E-1	9.380410E-1	9.840576E-1	9.964298E-1	9.171010E-1	9.754519E-1	9.892581E-1	9.698957E-1	9.886451E-1	9.962888E-1	9.616000E-1	9.156336E-1	9.982633E-1	9.828499E-1	9.922844E-1	9.844054E-1	1.010489E+0	1.000674E+0	9.586166E-1	9.643002E-1	9.390081E-1	9.466453E-1	9.417263E-1	9.571199E-1	9.194370E-1	9.694401E-1	9.636854E-1	9.701773E-1	9.945488E-1	9.517131E-1	9.965950E-1	9.950342E-1	9.667901E-1	9.374107E-1	9.660643E-1	9.490158E-1	9.853520E-1	9.783985E-1	9.953355E-1	9.628639E-1	1.013235E+0	9.494093E-1	1.022576E+0
5.565140E+2	8.836829E-1	8.964490E-1	9.451752E-1	9.106679E-1	9.273167E-1	9.231194E-1	9.387682E-1	9.486464E-1	9.241870E-1	9.433117E-1	9.784844E-1	9.219829E-1	9.405211E-1	9.600153E-1	9.765994E-1	9.231431E-1	9.286747E-1	9.492054E-1	9.304283E-1	9.360805E-1	9.687589E-1	9.016805E-1	8.943461E-1	9.127852E-1	9.886160E-1	9.359896E-1	9.525150E-1	9.371203E-1	9.533747E-1	9.462434E-1	9.125106E-1	9.464645E-1	9.506450E-1	9.600467E-1	9.779004E-1	9.663793E-1	1.021596E+0	9.569150E-1	9.814630E-1	9.491350E-1	9.603411E-1	9.320503E-1	9.689271E-1	9.453400E-1	9.924739E-1	9.841434E-1	9.831043E-1	9.182683E-1	9.629763E-1	9.595648E-1	9.520346E-1	9.353124E-1	9.758149E-1	9.562665E-1	9.822284E-1	9.796163E-1	9.715506E-1	9.593752E-1	9.180292E-1	9.487455E-1	8.995089E-1	9.810563E-1	9.673558E-1	9.325659E-1	9.346204E-1	9.408539E-1	9.265185E-1	9.428823E-1	1.007380E+0	9.448665E-1	9.854377E-1	9.049430E-1	9.343045E-1	9.417592E-1	9.314372E-1	9.567965E-1	9.383235E-1	9.584719E-1	9.639179E-1	9.308795E-1	9.492982E-1	9.449130E-1	9.314420E-1	9.531792E-1	9.441711E-1	9.180082E-1	9.244464E-1	9.191812E-1	9.578461E-1	9.296553E-1	9.600953E-1	9.683108E-1	8.848929E-1	9.331641E-1	9.809504E-1	9.188987E-1	9.292275E-1	9.327815E-1	9.424913E-1	9.370824E-1	9.274301E-1	9.310499E-1	9.349362E-1	9.834192E-1	9.573661E-1	8.783067E-1	9.748590E-1	9.459638E-1	9.387763E-1	9.787153E-1	9.478924E-1	9.306109E-1	8.949951E-1	9.157660E-1	9.424044E-1	9.698211E-1	9.625166E-1	9.087527E-1	8.919375E-1	9.865636E-1	9.475778E-1	9.432255E-1	8.955040E-1	9.967328E-1	9.562603E-1	9.647304E-1	9.110668E-1	9.280347E-1	9.139665E-1	9.741011E-1	1.023571E+0	9.161942E-1	9.771720E-1	9.930394E-1	9.685168E-1	9.800120E-1	9.814833E-1	9.733245E-1	9.546612E-1	9.443183E-1	9.572804E-1	1.006583E+0	9.426556E-1	9.395534E-1	9.936191E-1	9.789568E-1	9.474219E-1	9.147339E-1	9.431322E-1	9.409332E-1	9.281909E-1	9.464844E-1	9.397872E-1	9.559897E-1	8.875584E-1	9.376500E-1	9.925241E-1	9.647335E-1	1.037319E+0	9.180967E-1	9.784206E-1	9.461233E-1	9.474798E-1	9.220889E-1	9.829432E-1	9.211128E-1	9.460015E-1	9.696163E-1	9.433314E-1	9.133143E-1	9.167162E-1
5.570220E+2	9.586449E-1	9.237056E-1	9.571053E-1	1.032686E+0	9.712437E-1	9.599125E-1	9.980102E-1	9.937348E-1	9.835380E-1	9.686189E-1	1.011941E+0	1.001947E+0	1.016705E+0	1.002336E+0	9.935356E-1	1.016126E+0	9.414426E-1	9.903611E-1	9.732901E-1	1.005229E+0	1.051567E+0	9.625879E-1	9.805540E-1	9.465172E-1	1.010428E+0	1.003256E+0	9.791323E-1	9.660691E-1	9.640948E-1	9.710342E-1	9.974790E-1	9.499699E-1	9.561226E-1	9.668037E-1	9.697549E-1	9.681521E-1	1.015534E+0	1.003971E+0	9.983298E-1	9.917803E-1	9.782898E-1	9.868504E-1	9.318436E-1	1.009879E+0	1.016124E+0	9.969811E-1	9.838474E-1	9.630139E-1	1.033247E+0	1.017994E+0	9.648690E-1	9.789062E-1	9.437354E-1	1.014059E+0	9.684704E-1	9.940289E-1	1.004462E+0	9.901275E-1	9.479130E-1	9.465817E-1	9.951387E-1	9.660082E-1	1.022208E+0	9.577624E-1	9.871406E-1	9.915339E-1	9.600438E-1	9.618812E-1	9.557103E-1	9.935524E-1	9.724446E-1	9.531993E-1	9.779464E-1	9.339199E-1	1.010442E+0	9.450703E-1	9.876759E-1	9.916261E-1	9.694343E-1	9.472453E-1	1.019481E+0	9.826111E-1	1.030894E+0	9.849806E-1	9.641189E-1	9.352513E-1	1.013825E+0	1.020319E+0	9.893785E-1	9.692903E-1	1.012752E+0	9.865660E-1	9.802866E-1	9.512559E-1	9.849710E-1	9.678919E-1	1.048464E+0	9.331293E-1	1.000186E+0	9.758204E-1	9.518318E-1	9.308707E-1	9.250617E-1	9.921879E-1	9.778201E-1	9.423295E-1	1.035637E+0	9.600603E-1	9.884268E-1	1.001095E+0	1.035333E+0	1.002550E+0	9.255105E-1	9.436807E-1	9.916128E-1	1.003583E+0	1.004732E+0	9.871085E-1	9.956216E-1	9.540840E-1	9.625795E-1	9.560330E-1	9.937675E-1	1.024431E+0	9.828777E-1	9.451279E-1	9.941371E-1	9.655044E-1	1.000400E+0	9.557410E-1	1.003508E+0	9.987533E-1	9.876075E-1	9.865739E-1	9.710549E-1	1.008803E+0	1.011859E+0	9.545285E-1	9.701384E-1	9.564787E-1	1.015778E+0	9.828813E-1	1.024614E+0	9.878248E-1	9.885402E-1	9.828504E-1	1.000345E+0	1.009953E+0	9.552181E-1	9.919873E-1	9.851812E-1	9.708457E-1	9.971883E-1	1.038457E+0	9.933177E-1	1.024492E+0	9.404924E-1	1.004152E+0	1.014695E+0	9.544615E-1	9.832306E-1	9.525468E-1	1.006010E+0	9.487137E-1	9.627552E-1	9.919042E-1	1.028711E+0	9.731960E-1	1.001582E+0	1.008056E+0	9.679929E-1
5.575420E+2	1.016673E+0	9.452422E-1	9.475158E-1	1.009682E+0	9.908257E-1	9.962107E-1	9.733435E-1	9.714790E-1	9.515064E-1	9.456988E-1	9.756243E-1	9.399229E-1	9.718509E-1	9.246545E-1	9.733995E-1	9.679921E-1	9.848003E-1	1.021733E+0	9.591152E-1	9.836990E-1	1.014117E+0	9.648623E-1	9.552832E-1	9.601481E-1	1.017662E+0	1.020867E+0	9.934761E-1	9.652731E-1	1.029678E+0	9.704628E-1	9.851799E-1	9.973072E-1	1.010079E+0	9.710698E-1	9.694491E-1	9.948372E-1	1.011409E+0	9.830868E-1	1.042734E+0	9.505596E-1	1.042550E+0	1.035650E+0	9.735915E-1	9.743778E-1	1.074683E+0	9.715702E-1	9.802953E-1	9.619123E-1	9.726355E-1	1.015156E+0	9.651936E-1	9.712548E-1	9.816981E-1	1.074057E+0	9.668830E-1	9.573578E-1	9.641099E-1	9.886721E-1	9.448850E-1	9.376090E-1	9.744574E-1	9.860744E-1	1.004905E+0	9.483379E-1	9.697880E-1	9.685105E-1	9.471616E-1	9.391988E-1	1.020164E+0	1.009127E+0	9.484032E-1	1.019723E+0	9.734371E-1	9.692111E-1	9.999654E-1	9.381668E-1	1.006268E+0	9.809313E-1	9.620840E-1	9.486038E-1	9.768301E-1	1.004832E+0	1.017149E+0	9.326706E-1	9.740269E-1	9.298294E-1	1.005007E+0	9.749706E-1	9.684026E-1	9.808826E-1	9.782040E-1	9.910793E-1	9.590436E-1	9.681422E-1	1.040282E+0	9.072140E-1	1.013320E+0	1.028482E+0	1.011569E+0	9.694037E-1	1.016432E+0	9.311084E-1	9.690017E-1	9.344331E-1	9.424626E-1	9.461758E-1	9.893560E-1	9.966564E-1	9.645634E-1	9.653359E-1	1.036689E+0	9.621666E-1	9.599699E-1	9.829784E-1	1.001422E+0	9.549375E-1	1.046183E+0	9.591944E-1	1.003473E+0	9.831199E-1	1.004073E+0	1.001577E+0	9.747292E-1	1.009437E+0	1.009894E+0	9.886407E-1	1.022187E+0	1.013575E+0	9.621797E-1	9.510796E-1	1.042190E+0	9.276986E-1	9.462860E-1	9.146938E-1	9.337458E-1	9.924131E-1	1.033880E+0	9.770809E-1	9.645556E-1	1.004631E+0	9.785881E-1	9.813063E-1	1.013213E+0	9.797937E-1	9.785444E-1	9.806742E-1	9.889406E-1	9.685420E-1	1.002581E+0	9.935542E-1	9.784602E-1	9.959775E-1	9.840660E-1	1.032930E+0	1.012084E+0	9.772126E-1	1.004322E+0	9.487193E-1	9.663394E-1	9.874758E-1	9.483029E-1	9.694549E-1	9.762064E-1	1.012656E+0	9.280911E-1	9.615809E-1	9.775245E-1	9.841319E-1	9.505977E-1	9.291454E-1	9.470868E-1
5.580060E+2	9.172541E-1	9.368260E-1	9.802143E-1	1.013649E+0	1.027492E+0	9.737350E-1	9.882978E-1	9.510308E-1	9.947833E-1	9.660751E-1	1.014628E+0	1.026587E+0	9.569996E-1	9.608470E-1	9.505239E-1	9.896219E-1	1.002319E+0	9.547115E-1	1.002956E+0	9.463911E-1	9.760623E-1	9.489041E-1	1.023924E+0	1.004797E+0	1.030749E+0	9.437218E-1	1.009202E+0	9.240968E-1	9.645390E-1	9.703856E-1	9.754907E-1	9.898469E-1	9.852836E-1	9.569947E-1	9.808474E-1	9.927930E-1	9.724299E-1	9.816375E-1	9.869048E-1	9.281546E-1	1.058468E+0	1.018153E+0	9.787832E-1	9.506358E-1	9.675209E-1	9.978673E-1	9.649685E-1	1.010579E+0	9.767714E-1	1.000957E+0	9.328936E-1	1.002228E+0	9.451179E-1	9.533418E-1	9.875834E-1	1.011579E+0	1.005952E+0	1.011373E+0	9.767681E-1	9.441155E-1	9.950347E-1	9.676639E-1	9.862341E-1	9.398299E-1	9.578339E-1	9.441303E-1	1.003418E+0	9.692615E-1	1.001452E+0	9.436826E-1	9.567140E-1	9.825664E-1	9.993715E-1	1.028653E+0	9.385113E-1	9.334122E-1	9.810132E-1	9.818229E-1	9.830269E-1	9.657250E-1	9.754638E-1	9.775639E-1	9.850664E-1	9.720561E-1	9.784551E-1	1.007857E+0	9.819958E-1	1.032245E+0	9.445893E-1	9.486097E-1	1.012413E+0	9.695069E-1	9.588353E-1	1.019296E+0	9.534589E-1	9.528378E-1	9.481274E-1	1.006304E+0	9.531304E-1	9.737794E-1	1.002864E+0	9.997974E-1	9.675218E-1	1.023024E+0	9.734328E-1	9.467101E-1	9.849099E-1	9.800101E-1	9.974790E-1	1.001770E+0	1.008312E+0	1.077700E+0	9.721624E-1	1.002876E+0	9.297210E-1	9.524794E-1	9.477139E-1	9.902592E-1	1.002081E+0	9.340848E-1	9.566387E-1	9.374347E-1	9.589989E-1	9.884576E-1	9.925140E-1	1.029406E+0	1.000362E+0	9.573530E-1	1.007925E+0	1.013069E+0	9.848860E-1	1.028080E+0	9.982935E-1	9.749933E-1	9.843002E-1	1.025479E+0	9.726034E-1	9.882172E-1	9.880141E-1	1.025066E+0	9.508277E-1	9.526124E-1	9.794038E-1	9.696835E-1	9.489882E-1	9.846680E-1	9.851366E-1	1.011632E+0	9.379396E-1	9.964958E-1	1.010011E+0	9.291842E-1	9.824544E-1	9.605174E-1	9.986546E-1	9.752053E-1	9.709642E-1	9.774081E-1	1.015333E+0	9.726741E-1	9.713717E-1	9.921642E-1	1.021395E+0	9.388491E-1	1.006157E+0	9.938160E-1	9.838618E-1	9.711604E-1	9.344511E-1	1.071312E+0	9.173205E-1
5.585160E+2	9.919918E-1	1.015868E+0	1.009092E+0	9.774338E-1	9.574839E-1	1.026261E+0	9.576397E-1	9.858770E-1	1.008178E+0	1.005104E+0	9.701537E-1	9.452599E-1	9.986652E-1	9.706735E-1	1.005199E+0	9.410887E-1	9.972954E-1	9.906714E-1	9.998004E-1	1.002664E+0	9.427851E-1	9.433119E-1	9.400736E-1	9.913580E-1	9.946210E-1	1.050625E+0	1.025457E+0	9.853129E-1	9.944193E-1	9.640769E-1	9.655978E-1	9.892140E-1	9.786080E-1	9.728235E-1	9.827974E-1	9.694767E-1	9.886248E-1	1.036592E+0	9.778129E-1	9.581075E-1	9.557268E-1	9.805347E-1	9.619626E-1	9.783172E-1	9.622015E-1	9.847721E-1	9.952004E-1	9.392222E-1	9.706042E-1	9.906991E-1	1.004784E+0	9.565004E-1	9.943134E-1	9.976557E-1	9.785575E-1	9.551512E-1	9.943468E-1	1.000144E+0	1.035750E+0	1.004648E+0	9.843525E-1	9.681392E-1	9.740412E-1	1.006117E+0	9.863729E-1	1.007978E+0	9.625541E-1	1.015883E+0	9.710647E-1	1.003699E+0	1.013518E+0	9.820273E-1	9.724116E-1	1.031302E+0	9.699426E-1	9.899555E-1	9.777889E-1	9.516510E-1	9.833812E-1	9.576903E-1	9.585125E-1	9.865451E-1	9.866157E-1	9.823261E-1	9.446269E-1	9.687663E-1	1.006920E+0	9.914298E-1	1.004569E+0	1.003379E+0	9.737711E-1	9.897396E-1	9.830446E-1	9.534940E-1	1.011958E+0	9.450215E-1	9.790995E-1	1.014554E+0	1.000283E+0	1.039720E+0	1.013716E+0	1.017458E+0	1.014771E+0	9.832342E-1	9.943814E-1	1.006847E+0	9.643261E-1	1.004576E+0	1.015621E+0	9.800785E-1	9.527789E-1	9.149458E-1	1.000603E+0	9.917163E-1	1.040221E+0	9.462896E-1	9.862318E-1	9.869657E-1	9.546798E-1	9.986846E-1	1.023478E+0	9.931322E-1	9.711226E-1	1.033888E+0	9.897518E-1	1.003191E+0	1.009999E+0	9.803897E-1	9.459169E-1	1.001501E+0	9.802098E-1	9.726951E-1	1.021041E+0	9.957163E-1	9.904595E-1	9.833150E-1	9.661741E-1	9.713236E-1	1.005741E+0	9.949023E-1	9.839320E-1	9.999190E-1	9.955642E-1	1.005750E+0	9.839335E-1	9.799113E-1	1.005161E+0	9.580275E-1	9.954153E-1	1.003544E+0	1.004906E+0	9.565064E-1	9.921585E-1	1.038107E+0	9.815003E-1	9.574574E-1	9.837044E-1	9.626590E-1	9.748017E-1	9.357460E-1	9.980270E-1	9.934998E-1	9.960515E-1	9.409110E-1	9.660733E-1	9.939790E-1	9.553106E-1	1.003996E+0	1.012313E+0	9.031920E-1	9.844740E-1
5.590040E+2	1.037625E+0	9.808773E-1	9.610575E-1	9.635137E-1	9.181277E-1	9.999678E-1	1.007833E+0	1.007621E+0	1.016270E+0	1.016897E+0	9.488948E-1	9.925724E-1	9.995556E-1	9.859863E-1	9.939728E-1	9.691920E-1	9.874240E-1	9.822938E-1	9.778556E-1	9.624066E-1	9.585186E-1	1.006184E+0	9.849953E-1	9.863666E-1	9.984200E-1	1.000876E+0	9.799498E-1	9.355833E-1	9.982221E-1	9.940040E-1	1.016139E+0	9.768016E-1	1.014213E+0	9.747001E-1	1.006351E+0	1.032323E+0	1.018604E+0	9.955144E-1	9.974938E-1	9.948741E-1	9.857304E-1	9.617033E-1	1.018719E+0	1.010648E+0	9.909492E-1	9.886640E-1	9.701179E-1	1.020937E+0	1.026741E+0	1.006986E+0	9.863604E-1	9.938513E-1	9.852616E-1	9.778406E-1	1.012411E+0	9.916682E-1	1.004051E+0	9.427030E-1	9.340793E-1	1.024173E+0	9.709814E-1	1.045872E+0	1.020867E+0	1.043907E+0	1.019471E+0	1.012987E+0	9.900479E-1	1.000873E+0	9.634821E-1	9.951358E-1	9.733656E-1	1.016663E+0	1.011179E+0	9.904247E-1	9.858252E-1	1.020695E+0	9.892745E-1	9.880173E-1	1.014963E+0	1.020241E+0	9.427854E-1	9.507539E-1	9.673995E-1	9.954396E-1	1.016632E+0	9.761736E-1	9.840189E-1	9.966515E-1	1.015966E+0	9.795516E-1	9.757944E-1	9.902788E-1	1.005463E+0	1.011877E+0	9.662765E-1	1.035531E+0	9.888081E-1	9.679362E-1	9.872936E-1	1.019759E+0	9.686023E-1	9.809487E-1	9.703092E-1	9.677869E-1	9.970935E-1	1.016321E+0	9.932781E-1	9.945348E-1	1.020161E+0	1.002857E+0	9.737019E-1	1.022045E+0	1.006565E+0	9.853306E-1	9.447923E-1	1.027078E+0	1.006332E+0	1.002696E+0	9.736139E-1	1.009872E+0	1.023598E+0	1.009258E+0	1.014235E+0	9.849712E-1	1.011056E+0	9.532221E-1	9.864633E-1	1.005205E+0	9.900896E-1	1.008432E+0	9.729406E-1	9.810778E-1	9.722357E-1	9.521713E-1	9.928751E-1	9.615992E-1	1.020266E+0	1.004127E+0	1.010152E+0	9.877458E-1	9.802272E-1	9.887928E-1	9.986558E-1	9.981927E-1	1.016143E+0	1.012228E+0	9.883644E-1	1.004801E+0	1.040263E+0	9.920954E-1	9.991858E-1	1.016781E+0	1.015903E+0	9.434700E-1	1.040175E+0	1.010303E+0	1.003617E+0	1.033799E+0	9.834281E-1	1.019265E+0	9.698820E-1	9.788333E-1	1.037702E+0	9.597249E-1	9.664309E-1	9.476697E-1	1.009718E+0	9.386965E-1	1.014630E+0	9.908079E-1	1.020488E+0
5.595110E+2	1.045273E+0	1.035265E+0	1.003605E+0	1.002038E+0	1.037480E+0	1.028827E+0	1.018745E+0	1.072265E+0	9.837403E-1	1.042325E+0	9.902034E-1	1.055855E+0	1.025344E+0	1.005257E+0	1.016508E+0	1.059953E+0	1.002636E+0	1.012438E+0	1.051604E+0	1.036911E+0	1.039161E+0	1.044369E+0	1.011890E+0	1.008646E+0	9.877075E-1	1.026834E+0	1.039724E+0	1.035540E+0	9.959266E-1	1.034005E+0	1.023007E+0	1.047949E+0	1.021214E+0	1.040911E+0	1.016228E+0	1.040604E+0	1.014708E+0	1.008175E+0	9.993850E-1	1.035973E+0	1.017519E+0	1.022801E+0	1.061002E+0	1.022284E+0	1.009986E+0	1.056770E+0	1.026151E+0	1.047046E+0	1.039411E+0	9.897315E-1	1.040457E+0	1.038130E+0	1.091884E+0	1.004912E+0	1.017771E+0	1.045036E+0	9.478075E-1	1.001091E+0	1.079236E+0	1.075549E+0	1.014942E+0	9.946183E-1	9.973717E-1	1.056729E+0	1.060771E+0	1.013304E+0	1.021220E+0	1.003833E+0	1.040570E+0	1.037599E+0	1.074211E+0	1.062302E+0	1.032959E+0	1.013118E+0	1.077993E+0	1.068958E+0	1.008537E+0	1.021203E+0	1.003994E+0	1.018002E+0	1.025810E+0	1.039801E+0	1.034435E+0	1.066648E+0	1.022090E+0	1.017044E+0	1.014754E+0	1.008430E+0	1.066867E+0	1.011508E+0	1.046357E+0	1.013031E+0	1.053678E+0	1.003381E+0	1.001130E+0	1.033453E+0	1.034103E+0	1.025312E+0	1.031019E+0	1.053356E+0	1.017333E+0	1.009063E+0	1.030143E+0	1.030257E+0	1.064253E+0	1.018009E+0	1.022233E+0	1.045559E+0	9.689279E-1	9.872891E-1	1.065652E+0	1.037038E+0	1.006628E+0	1.045607E+0	1.008234E+0	1.064616E+0	1.061539E+0	1.039337E+0	1.001358E+0	1.055655E+0	1.008593E+0	1.076011E+0	1.064061E+0	9.691810E-1	9.837062E-1	1.018289E+0	1.014307E+0	1.031447E+0	1.030127E+0	1.037412E+0	1.023014E+0	1.030204E+0	9.844503E-1	1.017109E+0	1.033569E+0	1.029089E+0	1.020922E+0	1.034071E+0	1.002638E+0	1.010749E+0	9.908101E-1	1.016556E+0	1.033283E+0	1.050265E+0	1.065726E+0	1.036496E+0	1.022967E+0	1.054038E+0	1.032390E+0	1.041191E+0	1.031709E+0	1.010711E+0	1.022439E+0	1.056318E+0	9.947642E-1	9.804265E-1	1.022117E+0	1.087340E+0	9.993328E-1	1.047457E+0	1.012677E+0	9.894963E-1	9.890915E-1	1.032202E+0	1.028772E+0	1.013756E+0	1.012544E+0	1.002333E+0	1.004924E+0	1.046060E+0	9.553224E-1
5.600470E+2	1.002071E+0	1.068036E+0	1.023280E+0	1.063349E+0	1.056090E+0	9.880528E-1	1.048913E+0	9.968278E-1	1.034458E+0	1.034398E+0	1.090153E+0	1.010491E+0	1.032756E+0	1.021417E+0	1.054948E+0	1.021205E+0	1.008207E+0	1.059712E+0	1.047303E+0	1.031252E+0	1.031744E+0	1.039763E+0	1.042875E+0	9.779275E-1	1.023641E+0	1.023510E+0	1.017920E+0	1.069183E+0	1.029700E+0	1.025284E+0	1.049047E+0	1.006100E+0	1.085896E+0	1.036242E+0	1.054094E+0	1.032162E+0	1.035662E+0	1.010879E+0	1.047974E+0	1.061113E+0	1.026893E+0	1.023328E+0	1.025939E+0	1.056989E+0	1.048338E+0	1.009190E+0	1.020806E+0	1.057508E+0	1.029178E+0	1.033413E+0	1.047001E+0	1.015809E+0	1.039097E+0	1.063509E+0	1.033617E+0	1.015837E+0	1.051240E+0	1.037771E+0	1.002704E+0	1.005551E+0	1.087413E+0	1.005874E+0	1.044056E+0	9.921687E-1	1.029454E+0	1.075000E+0	1.043419E+0	1.066206E+0	1.001876E+0	1.050653E+0	1.014111E+0	9.955492E-1	1.007389E+0	9.971716E-1	1.017998E+0	1.018239E+0	1.046702E+0	1.034787E+0	1.057429E+0	1.017325E+0	1.069648E+0	1.052917E+0	1.055896E+0	1.039832E+0	1.018766E+0	1.024007E+0	1.009744E+0	9.786129E-1	1.009625E+0	1.045335E+0	1.042768E+0	1.049116E+0	1.055396E+0	1.038357E+0	1.032077E+0	1.012033E+0	1.055227E+0	1.021900E+0	1.068510E+0	9.762192E-1	9.828636E-1	1.034274E+0	1.034259E+0	1.039512E+0	1.040675E+0	1.048346E+0	9.992761E-1	1.048770E+0	1.014549E+0	1.047084E+0	1.068840E+0	1.041492E+0	1.055677E+0	1.006535E+0	1.056151E+0	1.064433E+0	1.050028E+0	1.041300E+0	1.030114E+0	1.036108E+0	1.020889E+0	1.052667E+0	1.006458E+0	1.034156E+0	9.910187E-1	1.026030E+0	9.997034E-1	1.028191E+0	1.005982E+0	9.946569E-1	1.037182E+0	1.009214E+0	9.912420E-1	1.025571E+0	1.042428E+0	1.038800E+0	1.039328E+0	1.024143E+0	1.039754E+0	1.007940E+0	1.084913E+0	1.077627E+0	1.014606E+0	9.949331E-1	1.008556E+0	1.044775E+0	1.026222E+0	9.936154E-1	1.060052E+0	1.020690E+0	1.002256E+0	1.065257E+0	1.012007E+0	1.047904E+0	1.031911E+0	1.046778E+0	1.033772E+0	1.032058E+0	1.054079E+0	1.084153E+0	1.046683E+0	1.069711E+0	1.021629E+0	1.067643E+0	1.037475E+0	1.014049E+0	1.038023E+0	1.038450E+0	1.062504E+0	1.009132E+0	1.041415E+0
5.605210E+2	1.023454E+0	9.615722E-1	1.013322E+0	9.902188E-1	1.008735E+0	1.039624E+0	9.710782E-1	1.008082E+0	9.847579E-1	1.003113E+0	1.016218E+0	1.025693E+0	1.032744E+0	1.046004E+0	9.968173E-1	9.945202E-1	1.015552E+0	1.027562E+0	9.902186E-1	1.048577E+0	1.051575E+0	1.030709E+0	9.892266E-1	1.031897E+0	9.950988E-1	9.890668E-1	9.840880E-1	1.060611E+0	1.022891E+0	1.046227E+0	1.010926E+0	1.042760E+0	9.863503E-1	1.019141E+0	9.778706E-1	1.004896E+0	9.906406E-1	1.018713E+0	1.001485E+0	1.041455E+0	9.681078E-1	9.988184E-1	1.035159E+0	1.058096E+0	1.027725E+0	1.002409E+0	1.068612E+0	1.003447E+0	9.886436E-1	1.016564E+0	1.026952E+0	1.005906E+0	9.849970E-1	1.024133E+0	1.033492E+0	1.051338E+0	1.018708E+0	1.039021E+0	1.006757E+0	1.029625E+0	9.926885E-1	1.028838E+0	9.956431E-1	9.731131E-1	1.005198E+0	9.965954E-1	9.988443E-1	9.549604E-1	1.036392E+0	1.004716E+0	9.988546E-1	1.053725E+0	9.975143E-1	9.696807E-1	1.015068E+0	1.028871E+0	1.031257E+0	1.054300E+0	1.003699E+0	1.024567E+0	1.048367E+0	1.021282E+0	9.999821E-1	1.032411E+0	1.038364E+0	1.051998E+0	1.029260E+0	1.043029E+0	1.001659E+0	9.939176E-1	9.944436E-1	1.017410E+0	9.787023E-1	1.038835E+0	1.047880E+0	1.025088E+0	1.022564E+0	1.027792E+0	1.005957E+0	1.000194E+0	1.014046E+0	9.851884E-1	9.995045E-1	1.035715E+0	9.901873E-1	9.805644E-1	1.073678E+0	1.011005E+0	1.040485E+0	1.015798E+0	1.000445E+0	9.848912E-1	9.977964E-1	1.006204E+0	1.010560E+0	1.024816E+0	9.592541E-1	9.951711E-1	1.052008E+0	1.019729E+0	1.009710E+0	9.693790E-1	9.918168E-1	1.035886E+0	1.061810E+0	1.030262E+0	1.034002E+0	1.018639E+0	1.044078E+0	9.918663E-1	1.032944E+0	1.016478E+0	1.030437E+0	1.031631E+0	1.009488E+0	1.000638E+0	1.018987E+0	9.756714E-1	1.016933E+0	1.018086E+0	1.041133E+0	1.025925E+0	1.016430E+0	1.047617E+0	1.020211E+0	9.881194E-1	1.048341E+0	1.036733E+0	9.831280E-1	9.697002E-1	9.978350E-1	9.972806E-1	1.007756E+0	9.924229E-1	9.933248E-1	1.035169E+0	9.899215E-1	9.616697E-1	1.042852E+0	9.653967E-1	1.008764E+0	9.921510E-1	9.663713E-1	1.036897E+0	1.010115E+0	1.037562E+0	1.006057E+0	1.085229E+0	9.574039E-1	9.911125E-1	1.069762E+0
5.610010E+2	9.823316E-1	1.001556E+0	1.009428E+0	9.897976E-1	9.945910E-1	9.435328E-1	1.007494E+0	9.782955E-1	9.778117E-1	9.320884E-1	9.697501E-1	9.435422E-1	9.539356E-1	1.009815E+0	9.820315E-1	1.024419E+0	9.865678E-1	9.726119E-1	9.302622E-1	9.717985E-1	1.000154E+0	9.867588E-1	1.007016E+0	9.990086E-1	9.697623E-1	9.653665E-1	9.436589E-1	9.896734E-1	9.943017E-1	9.660166E-1	9.597929E-1	9.473280E-1	9.284342E-1	9.991887E-1	9.818125E-1	9.277441E-1	9.793301E-1	9.484895E-1	9.889449E-1	9.803220E-1	9.875551E-1	9.946622E-1	9.184353E-1	9.230301E-1	9.932798E-1	9.603279E-1	9.541441E-1	9.212590E-1	9.686503E-1	9.616486E-1	9.615528E-1	9.875760E-1	9.593291E-1	9.786085E-1	9.365688E-1	9.293914E-1	9.778951E-1	9.678958E-1	9.647061E-1	9.163393E-1	9.545871E-1	9.889947E-1	9.817868E-1	9.881352E-1	9.408983E-1	9.500054E-1	9.804963E-1	9.889821E-1	9.851636E-1	9.645144E-1	9.692252E-1	9.071679E-1	9.791763E-1	9.696499E-1	9.946618E-1	9.398681E-1	9.654280E-1	9.682187E-1	9.535072E-1	9.964495E-1	9.794127E-1	9.711374E-1	9.706054E-1	9.112875E-1	9.810662E-1	9.541539E-1	9.733082E-1	9.496015E-1	9.567249E-1	1.017699E+0	9.544529E-1	9.709178E-1	9.648818E-1	9.347604E-1	9.872195E-1	9.960345E-1	9.720717E-1	9.362020E-1	9.538070E-1	9.369734E-1	1.000576E+0	9.732702E-1	9.834912E-1	9.204701E-1	9.399764E-1	9.832016E-1	9.622986E-1	9.155442E-1	9.427764E-1	9.651239E-1	9.302702E-1	9.218877E-1	9.605673E-1	9.617315E-1	1.010320E+0	9.202869E-1	9.889007E-1	9.442711E-1	9.861448E-1	9.458663E-1	9.570928E-1	9.621186E-1	9.933082E-1	9.534603E-1	9.701431E-1	9.396001E-1	9.551634E-1	9.787739E-1	9.758813E-1	9.530632E-1	9.688235E-1	9.622514E-1	1.002300E+0	1.002808E+0	9.468792E-1	9.610796E-1	9.617192E-1	1.002447E+0	9.367679E-1	9.555112E-1	9.681574E-1	9.385675E-1	9.620566E-1	9.335576E-1	9.564425E-1	9.538019E-1	9.238086E-1	9.411527E-1	9.508117E-1	9.762836E-1	9.540973E-1	1.024279E+0	9.672811E-1	9.612605E-1	9.596695E-1	9.946610E-1	9.959040E-1	9.450666E-1	9.301734E-1	9.753078E-1	9.925947E-1	9.841443E-1	9.677599E-1	1.023774E+0	9.849770E-1	9.991677E-1	9.944854E-1	9.601347E-1	1.013774E+0	9.883842E-1	1.011218E+0
