Photon Energy (eV)	#1	#2	#3	#4	#5	#6	#7	#8	#9	#10	#11	#12	#13	#14	#15	#16	#17	#18	#19	#20	#21	#22	#23	#24	#25	#26	#27	#28	#29	#30	#31	#32	#33	#34	#35	#36	#37	#38	#39	#40	#41	#42	#43	#44	#45	#46	#47	#48	#49	#50	#51	#52	#53	#54	#55	#56	#57	#58	#59	#60	#61	#62	#63	#64	#65	#66	#67	#68	#69	#70	#71	#72	#73	#74	#75	#76	#77	#78	#79	#80	#81	#82	#83	#84	#85	#86	#87	#88	#89	#90	#91	#92	#93	#94	#95	#96	#97	#98	#99	#100	#101	#102	#103	#104	#105	#106	#107	#108	#109	#110	#111	#112	#113	#114	#115	#116	#117	#118	#119	#120	#121	#122	#123	#124	#125	#126	#127	#128	#129	#130	#131	#132	#133	#134	#135	#136	#137	#138	#139	#140	#141	#142	#143	#144	#145	#146	#147	#148	#149	#150	#151	#152	#153	#154	#155	#156	#157	#158	#159	#160	#161	#162	#163	#164	#165	#166	
5.290170E+2	1.870736E-2	-1.723813E-2	2.588831E-3	4.726933E-3	-3.926855E-3	-6.834577E-3	-1.482234E-4	-2.780106E-3	7.880448E-4	2.911475E-2	-1.160897E-2	-1.007725E-2	1.452141E-2	-1.207283E-2	1.696142E-2	-2.795337E-3	-1.035960E-2	2.087422E-2	-1.963523E-2	-4.283203E-3	-1.012024E-2	3.659142E-3	8.921335E-3	-8.165048E-3	-1.841881E-2	7.235873E-3	1.168728E-2	-1.082461E-2	8.691221E-3	-1.896242E-2	-1.243792E-3	-1.453983E-2	1.315854E-2	-1.344175E-2	1.175259E-2	4.079839E-3	1.009484E-2	-3.387629E-2	1.550913E-3	9.132845E-3	1.371496E-2	-6.328778E-4	-1.416510E-2	-3.311750E-3	-7.910340E-3	-1.819355E-2	8.927644E-3	7.064680E-3	2.494325E-3	-1.503250E-3	1.768956E-2	-1.513541E-2	1.838218E-2	-1.825893E-2	-8.085050E-3	5.542635E-4	-1.439951E-3	2.495049E-2	1.432402E-2	-1.119726E-3	-2.941056E-2	-1.319497E-2	-1.656594E-2	1.944516E-2	1.367594E-2	1.502546E-2	-3.000140E-3	-1.512287E-2	-8.726914E-3	5.630308E-3	-1.518777E-2	-1.107141E-2	-1.132496E-2	-1.785486E-2	-4.679637E-3	-1.031454E-2	1.023528E-2	-9.589278E-4	2.185987E-2	-7.134600E-3	2.293410E-2	-3.067480E-3	-7.544895E-3	-2.047095E-2	-9.244290E-3	9.414709E-4	-1.501297E-2	2.750564E-2	1.875456E-2	-1.126265E-2	-6.202732E-3	1.142428E-3	-6.358336E-3	-1.063526E-2	2.292719E-3	-1.169445E-2	1.494580E-2	2.656334E-3	1.266186E-3	-2.085991E-2	-4.193679E-3	-7.751797E-3	9.371146E-3	-1.345206E-2	1.722287E-2	-2.407406E-2	1.186516E-2	2.822095E-3	6.442960E-3	-1.571235E-2	-2.930935E-2	4.977095E-3	1.935932E-2	-3.049897E-3	1.239505E-2	7.858301E-4	-1.688601E-2	1.762599E-2	-7.775280E-3	4.060549E-4	-6.866685E-3	5.298515E-4	1.342978E-2	-5.344817E-3	-2.999047E-2	-3.804113E-3	1.624496E-2	-1.998187E-3	1.368490E-2	-6.072857E-3	1.094911E-2	9.542498E-3	-4.415696E-3	-1.105286E-2	7.872219E-3	-6.028597E-3	7.406137E-3	-1.997626E-2	-5.730979E-3	8.326324E-3	-2.271048E-2	3.399143E-3	1.360799E-4	4.114007E-3	2.321551E-2	5.364965E-3	-1.476423E-2	-1.123606E-2	-1.967193E-2	4.558459E-3	-3.534124E-2	-3.105709E-3	1.776443E-2	1.083416E-2	-3.832120E-3	6.621636E-3	-1.998902E-2	-1.463863E-2	9.852888E-3	1.210445E-4	-2.128665E-3	3.034453E-2	-3.072568E-2	-2.479762E-4	-4.012389E-2	-8.824897E-3
5.295060E+2	-3.171570E-2	-2.290869E-2	-5.960849E-2	-3.395666E-2	-3.883418E-2	-4.198163E-2	-4.607840E-2	-4.072978E-2	-2.097008E-2	-4.132507E-2	-5.447523E-2	-3.834677E-2	-4.567451E-2	-4.055252E-2	-5.169812E-2	-3.340911E-2	-3.963916E-2	-4.949384E-2	-3.302950E-2	-3.132898E-2	-4.804625E-2	-4.555828E-2	-4.674613E-2	-4.023822E-2	-4.026277E-2	-4.194151E-2	-4.462195E-2	-3.265173E-2	-6.137210E-2	-2.447245E-2	-4.410387E-2	-2.545639E-3	-6.034677E-2	-4.869372E-2	-3.509925E-2	-3.511118E-2	-3.750176E-2	-3.451307E-2	-5.479141E-2	-3.106318E-2	-4.715043E-2	-5.258730E-2	-5.138799E-2	-3.193086E-2	-5.937606E-2	-2.291371E-2	-4.749935E-2	-6.275640E-2	-5.726936E-2	-5.656690E-2	-3.732001E-2	-1.777158E-2	-4.197410E-2	-6.457567E-2	-2.777246E-2	-6.127167E-2	-2.221861E-2	-5.379593E-2	-4.607802E-2	-5.193578E-2	-4.390697E-2	-3.938833E-2	-6.021106E-2	-7.003235E-2	-2.572199E-2	-2.929129E-2	-5.142068E-2	-4.141362E-2	-4.900553E-2	-4.657168E-2	-5.497435E-2	-3.096535E-2	-5.445702E-2	-2.281442E-2	-3.887014E-2	-4.314646E-2	-3.817564E-2	-2.966909E-2	-5.716739E-2	-3.035770E-2	-4.871728E-2	-3.732435E-2	-2.392234E-2	-2.780672E-2	-1.699680E-2	-2.093580E-2	-3.788458E-2	-3.194038E-2	-3.694480E-2	-3.754443E-2	-3.246261E-2	-4.267448E-2	-3.306582E-2	-3.992357E-2	-1.693575E-2	-3.860960E-2	-2.383137E-2	-5.643007E-2	-5.142853E-2	-3.930895E-2	-1.516796E-2	-6.320987E-2	-3.650119E-2	-4.210560E-2	-2.902388E-2	-4.769326E-2	-4.570454E-2	-2.971446E-2	-5.179298E-2	-3.526700E-2	-2.230301E-2	-2.571326E-2	-4.528504E-2	-4.854428E-2	-5.041993E-2	-5.648319E-2	-2.804386E-2	-5.314177E-2	-3.812383E-2	-3.679779E-2	-2.925913E-2	-3.307393E-2	-5.982980E-2	-4.923322E-2	-4.514117E-2	-4.117783E-2	-5.119521E-2	-4.386316E-2	-4.013556E-2	-4.203031E-2	-6.223562E-2	-3.851973E-2	-5.131083E-2	-5.545125E-2	-5.565523E-2	-4.785131E-2	-5.144596E-2	-3.094547E-2	-1.937447E-2	-4.014319E-2	-4.027275E-2	-5.262491E-2	-4.623699E-2	-4.937788E-2	-5.188294E-2	-6.698070E-2	-4.910464E-2	-4.620964E-2	-3.176350E-2	-4.911991E-2	-4.696178E-2	-5.227459E-2	-5.284270E-2	-5.276680E-2	-3.538698E-2	-5.081432E-2	-3.276746E-2	-3.450024E-2	-5.448135E-2	-3.752444E-2	-4.012222E-2	-3.537788E-2	-4.116085E-2	-4.194299E-2	-3.648758E-2	-7.215464E-2
5.300060E+2	-1.787659E-2	-2.495095E-2	-8.888181E-3	-2.505001E-2	-3.075003E-2	-2.622960E-2	6.813452E-3	-1.041443E-2	-2.057222E-2	-1.976901E-2	-7.668965E-3	-2.841601E-2	-2.508375E-2	-4.491247E-3	-2.266172E-2	-8.666809E-3	2.779778E-3	-1.773496E-2	-2.575011E-2	-3.911177E-2	-3.247214E-2	-2.184073E-2	-1.823535E-2	-3.698534E-2	-2.633531E-2	-2.575159E-2	-2.719958E-2	-1.743566E-2	-2.279373E-2	-2.208452E-2	-2.860998E-2	-4.657874E-2	-2.098791E-2	-1.262463E-2	-3.368975E-2	-7.106581E-3	-3.709046E-2	-1.545869E-3	-3.248307E-2	-8.430897E-3	-1.451127E-2	4.208595E-3	-2.814843E-2	-1.900928E-2	-3.111560E-3	3.495547E-3	-2.486045E-4	-4.144329E-2	-7.653588E-3	-1.036474E-2	-2.202492E-2	-2.236586E-2	-1.835678E-2	-2.066796E-2	2.511508E-3	-1.219442E-2	-2.702709E-2	-1.442208E-2	-4.001750E-3	-1.693087E-2	-2.067294E-2	9.221267E-3	-1.253618E-2	-3.595464E-2	-4.211169E-2	-3.315099E-2	-1.249271E-2	-2.443587E-2	-2.620144E-2	5.595467E-3	-1.932023E-2	-1.601601E-2	-1.373585E-2	-2.960206E-3	-3.533718E-2	-5.912670E-5	-3.775520E-2	-4.032540E-2	-2.884996E-2	-3.488828E-2	-3.584342E-2	-2.104474E-3	-1.608936E-2	-2.933023E-2	-1.188675E-2	-1.618542E-2	-2.328954E-2	-2.101150E-2	-3.240999E-2	-6.757537E-3	-2.899999E-2	-4.340740E-2	-9.638111E-3	-1.492850E-2	-1.152799E-2	-1.367512E-2	-4.662587E-2	-3.027465E-2	-1.611317E-2	-2.840175E-2	-2.024431E-2	3.325682E-4	-4.302029E-2	-2.321026E-2	-2.348254E-2	-3.148509E-2	-1.732055E-2	-4.035737E-2	-1.416724E-2	-5.323603E-2	-3.289826E-2	-3.002578E-3	-1.767192E-2	-3.364296E-2	-1.996546E-2	-1.707750E-2	-4.471961E-2	-1.128794E-3	-1.628036E-2	-2.157167E-2	-1.620213E-2	-2.226984E-2	-1.161841E-2	-2.325061E-2	-1.381390E-3	-3.135163E-2	-2.288959E-2	-3.538364E-2	-2.573125E-2	-1.560017E-2	-1.148524E-2	-1.924568E-2	-2.582326E-2	-2.773747E-2	-1.164867E-2	-1.237883E-2	-2.429840E-2	-1.943888E-2	-1.890581E-2	-3.297509E-2	2.143802E-2	-1.902270E-2	-1.444525E-2	-3.092332E-2	-1.129581E-2	-1.775672E-2	-9.355852E-3	-3.013411E-2	-2.280657E-2	-1.143407E-2	-2.578200E-2	-2.901116E-2	-1.182756E-2	-2.137607E-2	-2.528717E-2	-1.744823E-2	-1.365018E-2	-1.885946E-2	-1.802482E-2	-1.645475E-2	-3.676731E-2	-1.762028E-2	-1.577289E-2	-3.300817E-2	-3.406574E-2	3.578994E-2
5.305080E+2	2.680507E-2	1.658112E-2	3.222765E-2	5.628740E-2	1.728497E-2	4.678479E-2	3.546516E-2	2.727757E-2	1.526921E-2	-1.095615E-4	3.834542E-2	1.782463E-2	3.431333E-2	2.898772E-2	2.537623E-2	3.572013E-2	5.157716E-2	6.110077E-3	3.003301E-2	3.282910E-2	2.445764E-2	4.993998E-2	2.991358E-2	3.067052E-2	4.498451E-2	1.502872E-2	-1.111761E-3	2.336336E-2	4.665585E-2	4.081639E-2	2.957782E-2	4.107241E-2	3.061318E-2	3.594949E-2	2.334713E-2	9.975490E-3	3.064960E-2	3.496355E-2	2.097308E-2	-5.029532E-3	9.159830E-3	1.906535E-2	3.913036E-2	1.792842E-2	1.179993E-2	4.906073E-3	2.164706E-2	4.304277E-2	3.618259E-2	1.574799E-2	3.219408E-2	3.717624E-2	-2.331431E-3	4.910249E-2	5.978047E-3	1.964991E-2	1.491784E-2	2.951871E-2	2.108646E-2	3.697758E-2	2.887462E-2	2.417401E-2	3.223922E-2	2.120329E-2	3.124441E-2	3.703675E-2	3.397088E-2	1.852039E-2	3.256784E-3	4.998817E-3	3.072140E-2	2.632012E-2	3.062425E-2	5.172552E-2	3.891734E-2	3.177938E-2	3.235254E-2	1.701809E-2	3.166265E-2	3.794603E-2	3.563783E-2	3.221157E-2	4.667562E-3	1.423183E-2	2.121914E-2	1.458619E-2	3.726196E-2	3.428182E-3	4.656948E-3	4.906615E-2	3.984168E-2	2.062718E-2	2.337099E-2	3.489650E-2	1.278223E-2	2.519550E-2	1.969439E-2	3.161683E-2	3.796131E-2	5.020718E-2	4.935331E-2	3.041906E-2	2.800881E-2	7.209385E-2	1.281723E-2	4.034793E-2	2.694460E-2	6.675718E-2	3.477675E-2	2.792319E-2	2.935735E-2	3.811693E-2	2.663812E-2	4.226699E-2	1.064015E-2	2.252823E-2	4.480685E-2	1.622943E-2	2.387988E-2	2.434311E-2	4.370870E-2	4.250159E-2	1.938406E-2	3.410567E-2	2.777708E-2	4.690356E-2	2.110544E-2	3.603156E-2	3.233393E-2	3.563437E-2	3.305650E-2	3.674966E-2	2.618531E-2	4.950622E-2	2.838882E-2	3.702321E-2	3.896373E-2	3.419358E-2	1.205691E-2	2.903252E-2	2.940777E-2	2.391844E-2	5.627289E-2	3.906561E-2	1.350149E-2	3.269013E-2	1.253997E-2	1.847164E-2	4.001730E-2	9.652022E-3	2.175022E-2	4.946161E-2	1.563811E-2	2.291513E-2	3.419505E-2	2.811149E-2	3.749518E-2	4.198098E-2	2.171010E-2	3.422806E-2	9.885702E-3	1.213639E-2	-1.060508E-2	3.319188E-2	6.418507E-3	-6.357617E-3
5.310100E+2	1.917961E-2	4.421807E-2	5.873366E-2	3.473675E-2	4.557742E-2	5.177971E-2	4.223346E-2	4.948310E-2	2.593352E-2	6.623529E-2	6.181811E-2	7.287206E-2	4.553380E-2	5.897432E-2	4.683013E-2	2.655106E-2	6.764872E-2	5.246420E-2	7.324019E-2	6.416753E-2	7.362901E-2	6.794423E-2	4.808127E-2	6.980138E-2	6.311579E-2	6.979344E-2	6.994984E-2	4.733144E-2	6.652115E-2	6.526426E-2	4.725547E-2	4.362675E-2	4.523845E-2	6.219649E-2	7.057281E-2	8.597240E-2	4.743028E-2	3.782720E-2	7.194643E-2	6.213284E-2	3.909938E-2	2.809942E-2	7.250752E-2	6.681751E-2	4.830858E-2	4.397418E-2	5.806335E-2	6.858127E-2	4.178801E-2	5.519889E-2	4.173357E-2	7.471511E-2	6.049993E-2	6.283244E-2	4.928780E-2	6.139699E-2	6.046467E-2	6.096198E-2	6.705979E-2	5.904245E-2	6.683363E-2	6.298632E-2	6.241859E-2	6.167705E-2	4.527120E-2	2.045119E-2	6.910035E-2	6.751598E-2	9.079661E-2	5.656162E-2	6.674993E-2	7.081570E-2	7.065643E-2	5.894346E-2	5.007524E-2	6.162642E-2	4.668071E-2	3.816679E-2	3.625021E-2	4.845055E-2	6.135884E-2	5.607726E-2	4.935782E-2	6.280488E-2	4.510827E-2	5.966072E-2	9.913199E-2	7.794353E-2	6.152370E-2	5.117894E-2	2.986884E-2	6.049900E-2	4.913068E-2	8.324115E-2	5.704040E-2	3.559692E-2	6.190179E-2	9.390136E-2	5.196270E-2	4.018093E-2	4.813181E-2	6.485148E-2	6.147992E-2	3.998551E-2	3.284094E-2	5.000683E-2	4.097437E-2	4.734642E-2	4.648217E-2	6.436626E-2	4.315671E-2	2.345767E-2	7.220590E-2	5.509706E-2	5.369469E-2	3.427856E-2	6.876099E-2	6.632164E-2	8.140952E-2	4.398534E-2	5.499905E-2	5.327350E-2	4.613817E-2	4.357489E-2	5.501232E-2	8.705401E-2	6.321336E-2	4.980910E-2	3.710510E-2	1.450711E-2	6.274110E-2	4.845264E-2	8.043003E-2	6.528161E-2	7.486518E-2	6.212513E-2	5.721804E-2	6.674869E-2	6.390620E-2	4.641617E-2	5.649970E-2	6.289194E-2	3.486547E-2	5.016420E-2	5.183945E-2	6.334747E-2	6.506689E-2	6.834582E-2	6.981191E-2	4.010826E-2	6.072498E-2	5.006706E-2	5.442149E-2	4.541324E-2	5.736879E-2	7.276596E-2	5.102677E-2	6.634551E-2	4.190836E-2	6.343136E-2	6.737741E-2	9.433857E-2	4.150742E-2	5.926971E-2	9.188536E-2	-5.884042E-3
5.315080E+2	2.678326E-3	1.952801E-2	3.023425E-2	2.042425E-3	2.392726E-2	2.271508E-2	1.950223E-2	4.213381E-3	2.764938E-2	2.125624E-2	2.498646E-2	2.752635E-2	5.062480E-4	-9.485958E-3	5.996092E-3	3.008040E-2	6.335891E-3	3.086725E-2	1.047424E-2	2.163908E-2	3.016165E-2	1.354333E-2	2.869866E-2	1.934166E-2	2.868631E-2	2.814454E-2	8.940220E-3	1.270820E-2	1.622524E-2	2.975252E-2	3.283203E-2	1.791484E-2	2.362351E-2	1.442928E-2	2.657043E-2	-4.502538E-3	3.188593E-2	6.421974E-3	3.763624E-2	6.403820E-3	2.039132E-2	8.937736E-3	1.653587E-2	-7.188779E-3	3.726951E-2	2.555115E-2	6.446315E-3	2.034253E-2	2.718945E-2	2.431583E-2	2.328942E-2	9.666693E-3	2.595945E-2	2.696247E-2	2.931446E-2	2.368051E-2	7.874097E-3	2.186272E-2	2.108963E-2	2.943531E-2	3.205220E-2	1.708648E-2	1.219255E-2	1.636634E-2	6.351873E-3	4.257633E-2	1.514615E-2	3.519100E-2	2.140032E-2	1.263745E-2	1.455124E-2	9.789550E-3	1.348452E-2	3.950744E-3	1.358484E-2	2.656106E-2	8.057543E-3	1.641803E-2	4.709701E-3	1.615484E-2	6.334516E-3	-6.013259E-3	3.519594E-2	3.096422E-2	1.013387E-2	2.664668E-2	-5.561382E-3	2.562015E-2	1.304021E-2	4.528694E-3	3.658475E-2	3.340581E-2	1.176984E-2	-3.127085E-3	1.781126E-2	1.243802E-2	1.974581E-2	1.561074E-2	1.636804E-2	2.479957E-2	2.440467E-2	1.455521E-2	1.617608E-2	8.849078E-3	1.389065E-2	4.610593E-2	1.672994E-2	-2.282206E-3	1.158756E-2	4.132553E-2	2.929817E-2	1.074300E-2	-2.159989E-4	1.333599E-2	-7.414812E-4	3.932197E-2	2.564103E-2	8.835958E-3	2.392707E-2	2.440644E-2	1.056204E-2	3.122310E-2	3.796364E-2	3.068023E-2	5.567970E-2	-2.976309E-3	1.286976E-2	1.673842E-2	1.871726E-2	2.476509E-2	-3.246686E-4	3.229990E-2	1.740014E-2	3.223652E-2	1.911737E-2	1.356848E-2	2.129957E-2	2.893193E-2	3.159836E-3	2.226111E-2	2.870523E-3	3.852458E-2	9.355507E-3	2.106838E-2	3.124580E-2	1.259673E-2	1.965954E-2	2.050967E-2	-7.630630E-3	4.789802E-2	4.855229E-2	2.656541E-2	4.594630E-3	2.724216E-2	1.393104E-2	9.302155E-3	8.116037E-3	1.174688E-2	3.111232E-2	-3.192225E-3	3.676811E-2	-3.926959E-3	3.292357E-2	2.576608E-2	2.804162E-2	3.057242E-2
5.320070E+2	8.562510E-3	-1.747848E-2	-1.534365E-2	1.481935E-2	1.884134E-2	-6.039244E-3	-6.078529E-3	-5.064955E-3	3.653588E-3	-9.725272E-3	-1.119003E-2	-1.603171E-2	9.728145E-3	-3.528249E-3	-5.585783E-4	-1.950734E-2	-2.428402E-2	-5.546385E-3	3.138736E-3	-8.727049E-3	-1.795285E-3	-2.050599E-2	-1.169873E-2	2.486628E-3	-1.968544E-2	-1.920684E-2	1.845193E-2	1.967009E-2	-9.254911E-3	-2.566773E-2	-1.710956E-2	-1.575658E-2	3.930499E-3	-5.449133E-3	-3.493192E-2	-8.419544E-3	-6.648970E-3	1.730000E-2	-1.731821E-3	-5.395388E-3	1.808290E-2	2.344443E-2	-8.879090E-3	1.671192E-2	1.020869E-3	-1.055823E-2	-1.168678E-3	-1.281116E-2	-1.900945E-2	-8.469497E-3	-1.282216E-2	-1.211852E-2	-9.442991E-3	-5.260050E-4	-2.538589E-2	2.938543E-2	-4.639044E-3	-2.378618E-2	-1.610070E-2	-1.379342E-2	-9.423392E-3	-1.493152E-2	-6.685406E-5	9.212629E-4	3.550271E-3	-6.061377E-3	9.417127E-3	-4.243647E-3	1.320322E-4	8.241862E-3	-2.983739E-3	-1.541594E-2	9.249086E-4	-2.373117E-2	-9.000965E-3	-1.921646E-2	-6.181501E-3	1.800011E-2	9.524248E-3	-7.310195E-3	-3.685682E-3	9.000602E-3	-8.976845E-3	1.760629E-2	2.213902E-3	-2.795942E-2	-1.840857E-2	-3.858041E-2	9.023170E-3	-3.533130E-3	1.728088E-3	-3.754141E-3	-1.522910E-2	-3.934011E-4	-2.256053E-2	1.074574E-3	-1.162020E-3	-1.108821E-2	-6.822042E-4	7.228935E-3	-2.017270E-2	-1.152403E-2	-1.734519E-2	-1.147426E-2	-1.065744E-3	3.334395E-3	4.819965E-3	4.929323E-3	9.054382E-4	-1.170984E-2	2.045448E-3	-1.633113E-2	-2.236849E-2	4.921305E-3	2.675301E-2	1.613691E-3	-1.378752E-2	-1.077889E-2	-1.762782E-2	3.683553E-3	-3.116650E-2	-2.957713E-2	-2.144520E-3	-3.668655E-3	-2.296883E-2	-1.397717E-2	-1.162473E-2	1.317244E-2	-2.892194E-3	1.875707E-2	-1.062888E-2	-2.867695E-2	-1.996875E-2	-9.687643E-3	-2.303859E-3	-1.163522E-2	-4.767501E-3	-1.762487E-2	-1.062095E-2	-1.668312E-2	1.274078E-3	-8.893452E-3	6.774048E-3	-3.332536E-3	-2.294718E-2	4.195406E-3	6.557949E-3	1.155520E-2	1.574087E-3	-2.209200E-2	9.351012E-3	-8.485303E-3	-4.757332E-3	1.333729E-3	-1.259673E-2	-1.340317E-2	-1.750993E-2	-1.267950E-2	-3.724322E-3	-6.632627E-3	-4.751984E-3	-2.912132E-2	3.215037E-2	-2.922941E-2	-1.842262E-2	-1.215300E-2
5.325120E+2	-2.634058E-2	2.249052E-3	-3.994408E-2	-5.360619E-2	-3.211992E-2	-4.019454E-2	-5.170914E-2	-2.198478E-2	-3.175145E-2	-4.567737E-2	-4.020680E-2	-2.535129E-2	-3.384467E-2	-1.783125E-2	-2.024546E-2	-2.797299E-2	-5.405877E-2	-3.754056E-2	-3.847134E-2	-3.518470E-2	-3.581438E-2	-4.718168E-2	-3.893463E-2	-3.691158E-2	-3.208428E-2	-3.330263E-2	-3.609597E-2	-4.216109E-2	-4.467272E-2	-4.464603E-2	-1.859812E-2	-2.319321E-2	-3.522950E-2	-3.236603E-2	-2.852205E-2	-4.488788E-2	-3.881946E-2	-2.657750E-2	-4.310037E-2	-2.775051E-2	-3.878669E-2	-3.053536E-2	-2.559314E-2	-4.001718E-2	-2.800093E-2	-2.626147E-2	-4.616774E-2	-2.202041E-2	-2.372197E-2	-1.835832E-2	-4.273955E-2	-5.416667E-2	-3.273625E-2	-3.486885E-2	-2.584842E-2	-6.120102E-2	-2.793191E-2	-4.528971E-2	-5.737943E-2	-4.167554E-2	-2.434660E-2	-4.595326E-2	-1.747032E-2	-1.362611E-2	-3.226002E-2	-4.658607E-2	-6.072097E-2	-3.601135E-2	-3.165186E-2	-4.709384E-2	-1.955649E-2	-3.345666E-2	-3.617227E-2	-4.725907E-2	-1.468950E-2	-4.723027E-2	-1.521374E-2	-1.864961E-2	-1.798932E-2	-2.286065E-2	-3.801890E-2	-4.877987E-2	-3.268787E-2	-4.799931E-2	-4.054734E-2	-3.675442E-2	-3.623691E-2	-4.296521E-2	-3.764379E-2	-4.567604E-2	-4.035803E-2	-2.583840E-2	-1.998014E-2	-4.912982E-2	-3.890234E-2	-1.032583E-2	-4.466853E-2	-4.599234E-2	-3.933433E-2	-3.384601E-2	-6.211114E-2	-2.767261E-2	-1.816928E-2	-3.068625E-2	-2.319953E-2	-3.654267E-2	-3.830894E-2	-4.950098E-2	-3.423467E-2	-1.768977E-2	-1.934706E-2	-3.224773E-2	-3.266189E-2	-3.038421E-2	-3.235603E-2	-2.496760E-2	-3.577188E-2	-4.396357E-2	-4.940919E-2	-3.845504E-2	-2.577535E-2	-4.260714E-2	-4.332292E-2	-2.686349E-2	-3.898724E-2	-4.067052E-2	-2.772398E-2	-3.450653E-2	-3.308219E-2	-2.996029E-2	-2.207230E-2	-4.060234E-2	-2.249695E-2	-4.309513E-2	-6.063582E-2	-3.482285E-2	-4.437562E-2	-4.188872E-2	-2.449073E-2	-1.623473E-2	-4.850686E-2	-4.819304E-2	-4.672176E-2	-3.077846E-2	-3.367632E-2	-3.345728E-2	-3.059964E-2	-3.130252E-2	-2.953067E-2	-1.957079E-2	-3.229347E-2	-3.321733E-2	-2.299107E-2	-3.359554E-2	-2.839188E-2	-3.513552E-2	-1.272138E-2	-3.939554E-2	-2.835317E-2	-3.397643E-2	-3.026104E-2	-5.077305E-2	-8.316856E-3	-1.379913E-2	2.754342E-3	3.901183E-2
5.330130E+2	-1.567516E-2	-2.017785E-2	2.856211E-3	-1.212843E-2	-1.320443E-2	-6.172178E-3	-2.009686E-2	-6.606707E-3	4.841418E-4	2.368253E-2	2.261350E-3	1.061233E-2	1.840352E-2	1.762775E-2	-8.813229E-3	-7.821178E-3	3.531870E-3	-6.695003E-3	-8.022889E-3	4.497472E-3	8.211170E-3	8.416950E-3	-7.901157E-3	1.407399E-2	1.058844E-2	-3.945081E-3	1.840287E-2	-9.586238E-3	-1.323581E-2	-2.491214E-2	-2.801000E-3	2.630748E-2	2.741761E-3	-1.477039E-2	4.654370E-3	-2.997361E-2	9.613917E-3	4.199687E-2	-3.091579E-3	4.057626E-2	-1.899997E-2	2.770845E-3	1.822784E-2	4.778185E-3	1.769091E-3	1.465273E-4	-1.067041E-2	1.573743E-3	-7.038775E-3	1.355438E-2	1.525286E-2	-4.135460E-3	8.076930E-3	-9.130906E-3	5.019070E-3	3.626280E-3	-1.968118E-3	2.768640E-3	6.424292E-3	4.275196E-4	1.065156E-2	2.036604E-2	-1.904952E-2	2.114066E-2	-1.824302E-2	-3.482580E-3	-1.784839E-2	7.490701E-3	2.094968E-2	-1.454611E-2	-4.523560E-3	-4.453003E-3	8.746803E-3	2.083063E-3	2.346818E-2	-1.721469E-2	-2.866466E-2	5.225885E-3	-1.654749E-2	9.716466E-3	-1.116961E-2	1.141295E-2	1.044438E-2	-1.194955E-2	8.021762E-3	3.271988E-3	7.598366E-3	-3.683971E-3	-9.631569E-3	-5.132971E-3	-9.364840E-3	1.659615E-2	-1.482273E-3	2.144512E-2	6.807796E-3	1.107853E-2	-1.449656E-2	1.841203E-3	4.069406E-3	3.613282E-2	-9.624610E-3	1.040478E-2	8.788440E-3	-8.137790E-3	1.050536E-2	-1.276832E-2	-9.206102E-3	9.433190E-3	2.557684E-2	7.829355E-3	2.155688E-2	-1.229263E-2	2.084359E-2	2.067769E-2	9.098096E-3	-3.469963E-2	-1.369337E-2	1.362905E-2	-1.035696E-2	-7.994215E-3	-1.524907E-3	1.219759E-3	1.972515E-2	6.978230E-4	-1.672218E-2	-1.903218E-2	-8.052362E-3	-2.250503E-3	1.302291E-2	-1.061702E-2	1.042072E-2	-2.330549E-2	3.161274E-3	1.559961E-3	-4.725181E-3	-3.088333E-3	-1.485614E-2	-5.524540E-3	9.721620E-3	-1.801832E-2	5.576057E-3	-6.469520E-3	3.973153E-3	2.480795E-3	-8.228411E-3	-1.216982E-2	-3.640987E-3	-2.451664E-2	3.760346E-3	1.674351E-2	2.972430E-3	1.783058E-2	1.285631E-2	-2.680825E-3	-1.484123E-3	-1.130385E-2	8.761634E-4	-1.751835E-2	1.631690E-2	9.365589E-3	-2.647580E-3	3.201624E-2	-9.390231E-3	1.242747E-2	-2.928852E-2	-2.574721E-2
5.332090E+2	4.909899E-2	3.051494E-2	6.225421E-2	3.985856E-2	6.397195E-2	4.481313E-2	9.160801E-2	6.604250E-2	2.253257E-2	8.093680E-2	6.082611E-2	9.005646E-2	5.425654E-2	7.088202E-2	8.250318E-2	1.344256E-2	6.350184E-2	4.898090E-2	2.359790E-2	6.929525E-2	8.532336E-2	4.272544E-2	6.002790E-2	5.752586E-2	5.056554E-2	4.014703E-2	2.957428E-2	5.338225E-2	1.741729E-2	3.484030E-2	3.427274E-2	5.834900E-2	6.129994E-2	3.952949E-2	4.521591E-2	2.770416E-2	4.194964E-2	5.008076E-2	1.677001E-2	6.800171E-2	4.307632E-2	3.636788E-2	5.605959E-2	6.369205E-2	2.581350E-2	5.489232E-2	7.685171E-2	6.699555E-2	4.049084E-2	6.404547E-2	5.125428E-2	5.224811E-2	5.201928E-2	6.921579E-2	5.417009E-2	5.389071E-2	5.123887E-2	6.392935E-2	6.065046E-2	6.567911E-2	6.216508E-2	7.529286E-2	3.615016E-2	6.417427E-2	6.198289E-2	4.494759E-2	6.986128E-2	3.742145E-2	4.550303E-2	2.596810E-2	5.474377E-2	7.129863E-2	5.902052E-2	5.756356E-2	3.914843E-2	3.414407E-2	3.722413E-2	2.907329E-2	1.866072E-2	7.270161E-2	5.727550E-2	8.037216E-2	3.238277E-2	3.615836E-2	5.212174E-2	6.336238E-2	4.023725E-2	7.967609E-2	4.275532E-2	4.077807E-2	5.638366E-2	7.742548E-2	6.831650E-2	5.719819E-2	4.671084E-2	2.460801E-2	3.954370E-2	2.287500E-2	4.237165E-2	3.990192E-2	5.263005E-2	7.015332E-2	6.112695E-2	5.327777E-2	4.124297E-2	2.464277E-2	4.283039E-2	7.768207E-2	4.871696E-2	4.809107E-2	5.581615E-2	6.347151E-2	4.203011E-2	6.497684E-2	4.712341E-2	2.133584E-2	2.522446E-2	5.913607E-2	5.360105E-2	4.512916E-2	6.243264E-2	5.880512E-2	6.926052E-2	7.938786E-2	3.470951E-2	7.199998E-2	6.529373E-2	4.357343E-2	6.679017E-2	6.491813E-2	6.141169E-2	3.805443E-2	5.108150E-2	6.755042E-2	5.543021E-2	6.877290E-2	5.844585E-2	8.112238E-2	7.153946E-2	9.731886E-2	5.129759E-2	4.491065E-2	6.121391E-2	7.467756E-2	8.822650E-2	5.665461E-2	5.472108E-2	5.469307E-2	5.587413E-2	4.656394E-2	4.666540E-2	5.759870E-2	4.233762E-2	7.077635E-2	6.098250E-2	3.390920E-2	7.282125E-2	5.441504E-2	8.360059E-2	2.495899E-2	7.965756E-2	7.309982E-2	4.758046E-2	3.247906E-2	6.936243E-2	7.301894E-2
5.334060E+2	6.013153E-2	5.756140E-2	4.925245E-2	5.182697E-2	5.568328E-2	1.025858E-1	6.878041E-2	8.369089E-2	5.827373E-2	8.274045E-2	1.010785E-1	8.875409E-2	8.161024E-2	6.707546E-2	6.835741E-2	5.885124E-2	8.629156E-2	7.643971E-2	8.695160E-2	9.303368E-2	6.611100E-2	1.028498E-1	6.792301E-2	5.637245E-2	6.812662E-2	7.975693E-2	8.983585E-2	6.817127E-2	4.349712E-2	5.214142E-2	6.420255E-2	8.681508E-2	7.942790E-2	8.408123E-2	8.009897E-2	4.639876E-2	6.593780E-2	6.436234E-2	8.596958E-2	6.954053E-2	8.910015E-2	8.777428E-2	8.877847E-2	6.863971E-2	8.949959E-2	8.072650E-2	8.570221E-2	9.573313E-2	1.045256E-1	7.708594E-2	7.140124E-2	7.694103E-2	4.205808E-2	3.506182E-2	8.573318E-2	5.067793E-2	5.075497E-2	5.871252E-2	8.117383E-2	7.870517E-2	6.081895E-2	9.070453E-2	7.028661E-2	7.216185E-2	7.655540E-2	4.376488E-2	6.136422E-2	7.947839E-2	1.032623E-1	6.138343E-2	6.412254E-2	9.122221E-2	6.583291E-2	8.802888E-2	9.307845E-2	5.940309E-2	5.959201E-2	7.897943E-2	5.939161E-2	7.971537E-2	1.096450E-1	9.613756E-2	6.240516E-2	9.018036E-2	6.824084E-2	7.030673E-2	4.452655E-2	9.732370E-2	6.080337E-2	5.838672E-2	9.563139E-2	8.080245E-2	9.284015E-2	4.568758E-2	7.899814E-2	5.550633E-2	7.555941E-2	4.428355E-2	5.693813E-2	9.778360E-2	6.120006E-2	7.020795E-2	4.063221E-2	5.970808E-2	1.131712E-1	6.559663E-2	7.584310E-2	6.052207E-2	6.194617E-2	6.354741E-2	8.035183E-2	9.233567E-2	6.138012E-2	6.913708E-2	9.698776E-2	9.272827E-2	7.053595E-2	6.393353E-2	3.139425E-2	9.339586E-2	8.017492E-2	7.202683E-2	6.116102E-2	9.619032E-2	6.996911E-2	7.496373E-2	8.423625E-2	9.711061E-2	7.837225E-2	9.771853E-2	8.755392E-2	9.428626E-2	4.082810E-2	7.344731E-2	8.507437E-2	5.445281E-2	6.040836E-2	4.866971E-2	7.794937E-2	6.288083E-2	8.774551E-2	8.615566E-2	5.892136E-2	8.630041E-2	6.875928E-2	7.028330E-2	6.360575E-2	7.366233E-2	8.752725E-2	6.820489E-2	7.328663E-2	5.525347E-2	7.648054E-2	7.473721E-2	1.036310E-1	4.924338E-2	5.601058E-2	3.363396E-2	8.764987E-2	6.588153E-2	6.198241E-2	5.918645E-2	4.359224E-2	1.002487E-1	6.731434E-2	3.495589E-2
5.336080E+2	4.567108E-2	2.939153E-2	2.835895E-2	1.625739E-3	3.809981E-2	1.746924E-2	4.047255E-2	6.859461E-2	3.920781E-2	6.603438E-2	1.251990E-2	4.264702E-2	4.769132E-2	6.769402E-2	4.053919E-2	5.646714E-2	6.488967E-2	3.140979E-2	3.701516E-2	3.111517E-2	2.548689E-2	5.074103E-2	4.366858E-2	4.226727E-2	2.115344E-2	6.385082E-2	2.025763E-2	4.385681E-2	4.018196E-2	7.753494E-3	4.255423E-2	3.400696E-2	2.879882E-2	3.363247E-2	3.321998E-2	4.102036E-3	2.591896E-2	3.851813E-2	3.132708E-2	3.319797E-2	4.539654E-2	3.954921E-2	4.142246E-2	4.366464E-2	2.898047E-2	3.291487E-2	2.126756E-2	2.574853E-2	5.833699E-2	5.827623E-2	3.427555E-2	5.892684E-2	2.612082E-2	2.886122E-2	3.705975E-2	5.132756E-2	3.072092E-2	4.229228E-2	4.787965E-2	3.745351E-2	3.891304E-2	1.426007E-2	1.404876E-2	3.828500E-2	5.306175E-2	3.404373E-2	5.238629E-2	3.055137E-2	2.944182E-2	1.501574E-2	-7.806354E-3	5.699701E-2	5.218633E-2	2.538079E-2	7.438307E-2	5.035408E-2	3.535987E-2	3.365348E-2	7.215948E-3	3.574008E-2	1.972471E-2	3.586393E-2	3.058310E-3	8.943597E-3	6.919257E-2	4.590647E-2	2.241312E-2	5.086619E-2	4.861942E-2	3.616946E-2	4.135757E-2	3.809630E-2	5.432755E-2	5.199766E-2	2.278181E-2	2.990096E-2	1.397238E-2	3.346497E-2	3.222496E-2	1.957109E-2	1.881746E-2	1.034784E-2	4.015148E-2	1.351829E-2	6.252511E-2	1.055161E-2	3.838510E-2	1.681796E-2	2.945141E-2	4.172408E-2	2.664074E-2	5.877629E-2	4.994210E-2	4.188778E-2	6.445557E-2	4.769590E-2	2.460317E-2	3.576545E-2	2.863192E-2	3.357241E-2	3.403489E-2	3.581270E-2	6.059236E-2	2.611216E-2	2.667198E-2	2.655446E-2	2.649911E-2	6.561839E-2	5.865927E-2	7.670255E-2	3.535670E-2	6.546346E-2	3.737031E-2	5.133351E-2	9.908044E-3	3.219815E-2	2.271175E-2	3.251452E-2	3.940434E-2	5.660148E-2	5.702576E-2	5.543064E-2	3.051503E-2	4.990672E-2	2.961665E-2	2.622303E-2	4.912817E-2	2.931085E-2	2.972162E-2	4.423990E-2	3.779551E-2	4.201877E-2	6.370542E-2	6.027355E-2	4.032415E-2	4.531666E-2	6.317302E-2	2.488776E-2	5.432913E-2	2.825090E-2	3.078922E-2	3.344325E-2	6.657247E-2	7.492824E-2	4.405870E-2	8.120081E-2
5.338150E+2	9.152497E-3	1.842722E-2	-2.508336E-2	-1.536165E-2	1.945273E-2	-1.265701E-2	1.478425E-2	7.228158E-3	1.919402E-2	9.533490E-4	1.845309E-2	-2.786956E-3	2.960722E-2	4.337784E-2	2.618785E-2	5.597318E-4	-3.867923E-3	1.916852E-2	-3.440662E-3	2.280529E-2	-1.336017E-2	1.366792E-3	-1.513771E-2	1.705279E-2	2.187690E-2	-1.258462E-2	2.087539E-2	-1.035243E-2	7.552905E-3	-3.866454E-2	1.594877E-3	2.416465E-2	5.808504E-3	-4.909731E-4	2.057302E-2	-1.211663E-2	-1.518250E-2	1.482048E-5	3.585123E-3	1.507045E-2	-9.830801E-3	2.064223E-2	-2.316227E-2	3.928505E-3	-1.885872E-2	-6.919884E-3	-1.222877E-3	2.059903E-2	-1.644083E-2	2.408150E-2	1.134874E-2	-2.187533E-2	-1.134568E-3	2.074916E-3	2.183080E-2	-9.151152E-3	-4.155023E-3	-1.424190E-2	-1.221540E-3	2.529317E-3	-8.709317E-3	-2.818065E-2	2.122779E-2	1.361037E-2	-7.106015E-3	-1.150380E-2	5.872950E-3	2.711923E-3	2.139291E-2	-4.980582E-3	-5.823738E-3	-9.981839E-5	1.683637E-2	8.243700E-3	1.985299E-2	-2.578820E-4	-8.238964E-3	2.265336E-2	-5.210088E-3	2.126675E-2	-1.435146E-6	2.172652E-2	-7.113503E-3	2.875507E-2	-3.547053E-3	8.651693E-3	-9.199813E-3	2.226786E-2	-1.051932E-2	-1.495887E-2	1.829018E-2	1.058420E-2	3.357231E-2	1.616699E-2	2.129284E-4	-1.175924E-2	-1.966302E-2	-1.547340E-2	5.570450E-3	2.347614E-2	2.837960E-2	-9.164523E-3	1.017665E-2	-2.537632E-3	6.594891E-3	-1.123127E-3	7.877390E-3	9.559852E-3	9.431012E-3	9.211370E-3	-5.622130E-3	2.335626E-3	-3.014870E-3	4.591643E-2	-1.045682E-2	1.524051E-2	-8.473055E-3	1.631788E-2	8.370984E-3	-1.445282E-2	-9.334186E-3	3.720720E-3	-1.283961E-2	3.248543E-2	3.265715E-3	2.027207E-2	1.336926E-2	-7.430290E-3	8.941048E-3	1.434942E-2	5.157713E-3	2.190067E-2	-5.596400E-3	-6.538161E-3	-1.345660E-4	1.871856E-2	7.936159E-4	1.546508E-2	4.172595E-3	-1.101127E-5	1.874846E-2	1.866737E-2	-2.802560E-2	6.881100E-3	-1.752969E-2	-1.363518E-2	-7.055584E-3	-1.369645E-2	-8.344558E-3	1.177398E-2	2.035207E-2	-1.885468E-2	2.942707E-3	1.558490E-2	-2.980341E-2	1.107241E-3	6.294811E-3	1.523969E-2	3.270140E-2	7.898709E-3	2.883600E-3	8.876916E-3	4.654961E-3	3.691614E-2	8.818088E-3	-3.567687E-2
5.340070E+2	2.813573E-2	5.352052E-2	1.037684E-2	1.344077E-2	3.931628E-2	2.500937E-2	3.315829E-2	3.209568E-2	1.965152E-2	3.642524E-2	2.966501E-2	1.079756E-2	2.012890E-2	5.422417E-2	1.584484E-2	3.109850E-2	1.238118E-2	2.062831E-2	2.765227E-2	5.591738E-3	8.322476E-3	2.944034E-2	1.326154E-2	4.167510E-2	2.638441E-2	6.443432E-2	2.109780E-2	3.850808E-2	1.397905E-2	4.838515E-2	2.830161E-2	6.869034E-3	5.369979E-2	8.219935E-3	1.013812E-3	1.488329E-2	4.875119E-2	1.875928E-2	2.157161E-2	1.213488E-2	5.098432E-2	2.515002E-2	6.723490E-2	-3.551520E-3	6.116494E-2	2.105169E-2	3.744754E-2	1.857167E-2	2.968249E-2	3.597911E-2	3.585790E-2	2.701519E-2	2.738947E-2	9.602397E-3	3.265388E-2	2.103224E-2	2.351612E-2	3.360042E-2	6.075240E-2	3.016758E-2	3.196603E-3	2.336636E-2	1.325689E-2	-6.605999E-5	2.908061E-2	4.472389E-2	1.321131E-2	2.054252E-2	4.850715E-2	1.940517E-2	3.723804E-2	8.111605E-2	5.267613E-2	3.077053E-2	3.584450E-2	3.289235E-2	3.034733E-2	3.517843E-2	2.500835E-3	4.884862E-2	3.390930E-2	1.477431E-2	4.989671E-2	2.123568E-2	2.084588E-2	5.944792E-2	2.389621E-2	5.551200E-2	1.796169E-3	1.264438E-2	2.675056E-2	5.477334E-2	3.823557E-2	6.214693E-3	2.335866E-2	4.346124E-2	2.145677E-2	2.655364E-2	5.491265E-2	3.379533E-2	2.403559E-2	5.418244E-2	2.919880E-2	2.387848E-4	4.295990E-2	5.132176E-2	5.474572E-2	2.267245E-2	3.697662E-2	5.190066E-2	3.691301E-2	3.208302E-2	2.053583E-2	3.574321E-2	3.481367E-2	4.336680E-2	3.589570E-2	4.310884E-3	1.332360E-2	1.537334E-2	1.225268E-2	2.074015E-2	4.055801E-2	4.334857E-2	2.272583E-2	2.488634E-2	4.168361E-2	4.520507E-2	3.206614E-2	4.808800E-2	3.225786E-2	2.130193E-2	2.653990E-2	1.193268E-2	2.520789E-3	2.692383E-2	3.979355E-2	5.079112E-2	9.146005E-3	2.924999E-2	2.909367E-2	3.349399E-2	1.134329E-2	5.257630E-2	2.742537E-2	-4.578645E-3	4.462770E-2	3.421804E-2	3.428698E-2	2.377232E-2	1.182073E-2	4.266909E-2	3.034897E-2	9.065213E-3	3.829368E-2	2.651942E-2	3.565391E-2	6.476544E-3	2.899596E-2	1.564309E-2	4.197325E-2	-1.480222E-2	2.451117E-2	1.145192E-2	3.341732E-3	1.728645E-2
5.342040E+2	1.301430E-1	1.515073E-1	1.189082E-1	1.166529E-1	1.407318E-1	1.314108E-1	1.213260E-1	1.566027E-1	1.664533E-1	1.601509E-1	1.407548E-1	1.567833E-1	1.124212E-1	1.188858E-1	1.636234E-1	8.613225E-2	1.474645E-1	1.473594E-1	1.533339E-1	1.350112E-1	1.312254E-1	1.207691E-1	9.735885E-2	1.190453E-1	1.252350E-1	1.587575E-1	1.455088E-1	1.512203E-1	1.154879E-1	1.597566E-1	1.769385E-1	1.527543E-1	1.547574E-1	1.440002E-1	1.221706E-1	1.102561E-1	1.219812E-1	1.562206E-1	1.437474E-1	1.167346E-1	1.559905E-1	1.197957E-1	1.222032E-1	1.289259E-1	1.257889E-1	1.420763E-1	1.436286E-1	1.590877E-1	1.870850E-1	1.277398E-1	1.436640E-1	1.699212E-1	1.688292E-1	1.250975E-1	1.118194E-1	1.189657E-1	1.426849E-1	1.282872E-1	1.061695E-1	1.117387E-1	1.032158E-1	1.473831E-1	1.408700E-1	1.588438E-1	1.165077E-1	1.553121E-1	1.136783E-1	1.281972E-1	1.666153E-1	1.615169E-1	1.205856E-1	1.600971E-1	1.627656E-1	1.034799E-1	1.221258E-1	1.226918E-1	1.259710E-1	1.606539E-1	1.048606E-1	1.792787E-1	1.287912E-1	1.528343E-1	1.437626E-1	1.314967E-1	1.313312E-1	1.179842E-1	1.247285E-1	1.159651E-1	1.448345E-1	1.393866E-1	1.512108E-1	1.315300E-1	1.232990E-1	1.567903E-1	1.269624E-1	1.626184E-1	1.257921E-1	1.305860E-1	1.567704E-1	1.407388E-1	1.495560E-1	1.328054E-1	1.300813E-1	1.201343E-1	1.359412E-1	8.779872E-2	1.177121E-1	1.197431E-1	1.463268E-1	1.346299E-1	1.228982E-1	1.137235E-1	1.182663E-1	1.437961E-1	1.309914E-1	1.013969E-1	1.409292E-1	1.324558E-1	1.336372E-1	1.352771E-1	9.985758E-2	1.283142E-1	1.477361E-1	1.109100E-1	1.386524E-1	1.491794E-1	1.233916E-1	1.375929E-1	1.582192E-1	1.333742E-1	1.422324E-1	1.520015E-1	1.349107E-1	1.219313E-1	1.323529E-1	1.195968E-1	1.123108E-1	1.065803E-1	1.359828E-1	1.485877E-1	1.281917E-1	1.232934E-1	1.296500E-1	1.159086E-1	1.152498E-1	1.347465E-1	1.339291E-1	1.140332E-1	1.642010E-1	1.077915E-1	9.093267E-2	1.305855E-1	1.435545E-1	1.187502E-1	1.225418E-1	1.384901E-1	1.578597E-1	1.418112E-1	1.303339E-1	1.080220E-1	1.002922E-1	1.179749E-1	1.109942E-1	1.239714E-1	1.429283E-1	1.300580E-1
5.344070E+2	2.524888E-1	3.042996E-1	2.795282E-1	2.693352E-1	2.894559E-1	2.402757E-1	2.805197E-1	3.024126E-1	3.116791E-1	2.833424E-1	2.678939E-1	2.756759E-1	3.189192E-1	2.468226E-1	3.277998E-1	2.653192E-1	2.724273E-1	2.715527E-1	2.842511E-1	2.712347E-1	2.759574E-1	2.888828E-1	2.617109E-1	2.864339E-1	3.047524E-1	2.888668E-1	2.991479E-1	2.950849E-1	2.916673E-1	2.051255E-1	2.816886E-1	3.001754E-1	2.415918E-1	2.688954E-1	2.843969E-1	2.516744E-1	3.171603E-1	2.420516E-1	2.748476E-1	3.032557E-1	2.989842E-1	2.623391E-1	2.275853E-1	2.575297E-1	2.135110E-1	2.808673E-1	2.987488E-1	2.863262E-1	2.698881E-1	2.717832E-1	2.604485E-1	3.112767E-1	2.464003E-1	2.578797E-1	2.790546E-1	2.557488E-1	2.601618E-1	3.277392E-1	2.673454E-1	3.358073E-1	2.959588E-1	2.747333E-1	2.267495E-1	2.709180E-1	2.297095E-1	2.776662E-1	2.900914E-1	2.440770E-1	2.773280E-1	2.662172E-1	2.659839E-1	2.900792E-1	3.140775E-1	3.065260E-1	2.519096E-1	2.888949E-1	2.666406E-1	2.825022E-1	2.672072E-1	2.657011E-1	3.096093E-1	3.193291E-1	2.724064E-1	3.014195E-1	2.661570E-1	3.202608E-1	2.490377E-1	3.014086E-1	2.558266E-1	2.569140E-1	2.900520E-1	2.608800E-1	2.900903E-1	2.624422E-1	3.002845E-1	2.645258E-1	2.724694E-1	2.526873E-1	2.381089E-1	2.837691E-1	2.755896E-1	2.475721E-1	2.884550E-1	2.385924E-1	2.556273E-1	2.913270E-1	3.063195E-1	2.888961E-1	2.789856E-1	2.728221E-1	2.740383E-1	2.490405E-1	2.848805E-1	2.793286E-1	2.658786E-1	2.656693E-1	2.482546E-1	2.269415E-1	2.746738E-1	3.033885E-1	2.372231E-1	2.953455E-1	2.828262E-1	2.706782E-1	3.111041E-1	2.759346E-1	2.844464E-1	2.899370E-1	2.707385E-1	3.129716E-1	2.719606E-1	2.825726E-1	2.930313E-1	2.997430E-1	3.135915E-1	2.708900E-1	2.375333E-1	2.845151E-1	2.767978E-1	3.029633E-1	2.769725E-1	2.771040E-1	2.534810E-1	3.114587E-1	2.848761E-1	2.402606E-1	3.092174E-1	2.801509E-1	2.590998E-1	2.326172E-1	2.861534E-1	2.707637E-1	2.586084E-1	2.762427E-1	2.733125E-1	2.690994E-1	2.695636E-1	2.959127E-1	2.546895E-1	3.113030E-1	2.708948E-1	2.469157E-1	2.846373E-1	2.810742E-1	2.437782E-1	2.499546E-1
5.346150E+2	3.608587E-1	3.640170E-1	3.635030E-1	3.476645E-1	3.899546E-1	3.565808E-1	4.060008E-1	3.560123E-1	3.132737E-1	3.389176E-1	3.489815E-1	3.907168E-1	4.087137E-1	3.673550E-1	3.879983E-1	3.695092E-1	3.121406E-1	3.444326E-1	3.568182E-1	4.013704E-1	3.585810E-1	3.758655E-1	3.772746E-1	4.023522E-1	3.769082E-1	3.636637E-1	3.657369E-1	3.345947E-1	3.648561E-1	3.513884E-1	3.399878E-1	3.999394E-1	3.593791E-1	2.993116E-1	3.832654E-1	3.325233E-1	3.966208E-1	3.577695E-1	3.597530E-1	3.640230E-1	3.708101E-1	3.523053E-1	3.804723E-1	3.819070E-1	3.953340E-1	3.951544E-1	3.387540E-1	3.660918E-1	3.479539E-1	3.574973E-1	3.879526E-1	3.797234E-1	3.873721E-1	3.865099E-1	3.367714E-1	3.427831E-1	3.954135E-1	3.456676E-1	3.950136E-1	3.977586E-1	3.900964E-1	3.609273E-1	3.706496E-1	3.573899E-1	3.706713E-1	3.518156E-1	3.804546E-1	3.704918E-1	3.735398E-1	3.480644E-1	3.876987E-1	3.519968E-1	4.057086E-1	3.866652E-1	3.358963E-1	3.658934E-1	3.789618E-1	3.520993E-1	3.728731E-1	3.520864E-1	3.712732E-1	4.257170E-1	3.423236E-1	3.492036E-1	3.610873E-1	3.524085E-1	3.475978E-1	3.622747E-1	3.746543E-1	4.146951E-1	3.460669E-1	4.283838E-1	3.770560E-1	3.183856E-1	3.723374E-1	4.095100E-1	3.625839E-1	4.273998E-1	4.031556E-1	3.490843E-1	3.783518E-1	3.556761E-1	3.201283E-1	3.388536E-1	3.764588E-1	3.539089E-1	4.322648E-1	3.287104E-1	3.971699E-1	3.647356E-1	3.803262E-1	4.025168E-1	3.674769E-1	3.670838E-1	3.824663E-1	3.707055E-1	4.211778E-1	3.801381E-1	3.904753E-1	3.536465E-1	3.746698E-1	3.606955E-1	3.886991E-1	3.989499E-1	3.405050E-1	3.621039E-1	3.119108E-1	3.464304E-1	3.484339E-1	3.577250E-1	3.679243E-1	3.627605E-1	3.679187E-1	3.700943E-1	3.595291E-1	4.190306E-1	4.129114E-1	3.504548E-1	3.699252E-1	3.396069E-1	3.785922E-1	4.063567E-1	3.896650E-1	3.788256E-1	3.705387E-1	3.790654E-1	3.777317E-1	3.439833E-1	4.152331E-1	3.825190E-1	3.502131E-1	3.811547E-1	3.528828E-1	3.702077E-1	3.944038E-1	4.163876E-1	3.719745E-1	3.753749E-1	4.134294E-1	3.849377E-1	4.081740E-1	3.756363E-1	3.976642E-1	3.953828E-1	3.850766E-1	3.709284E-1
5.348120E+2	5.578114E-1	5.171321E-1	4.937897E-1	4.502203E-1	4.744832E-1	4.850929E-1	5.059220E-1	5.392079E-1	4.598649E-1	4.861304E-1	5.455706E-1	5.089426E-1	4.987136E-1	5.177116E-1	5.229624E-1	5.142269E-1	5.717152E-1	5.204664E-1	5.209791E-1	5.286217E-1	4.900472E-1	4.785305E-1	4.987891E-1	5.507176E-1	5.108128E-1	4.952419E-1	4.939625E-1	5.322448E-1	5.189355E-1	4.923045E-1	5.298939E-1	5.068127E-1	5.266165E-1	5.263673E-1	4.296976E-1	4.537412E-1	5.494405E-1	5.079657E-1	4.809886E-1	5.102180E-1	5.090719E-1	5.323192E-1	5.418785E-1	5.311214E-1	4.673302E-1	4.943911E-1	4.792825E-1	5.102649E-1	4.571251E-1	5.208839E-1	5.533183E-1	5.335878E-1	5.421155E-1	5.590277E-1	5.091395E-1	5.721280E-1	5.788359E-1	5.459655E-1	5.042386E-1	5.185990E-1	4.826097E-1	5.617344E-1	5.044698E-1	4.991657E-1	5.562075E-1	5.043073E-1	5.404701E-1	4.693471E-1	5.210896E-1	4.879002E-1	5.315035E-1	5.177704E-1	5.418260E-1	5.120472E-1	4.887665E-1	5.040710E-1	4.464325E-1	4.852956E-1	4.913195E-1	4.765001E-1	4.783267E-1	5.344098E-1	4.709460E-1	4.888182E-1	5.387823E-1	5.116373E-1	5.014421E-1	5.275706E-1	5.522596E-1	4.902475E-1	4.795879E-1	5.109533E-1	4.890608E-1	5.304427E-1	5.316236E-1	4.830572E-1	5.087303E-1	5.195233E-1	5.562436E-1	5.508470E-1	5.328517E-1	5.375278E-1	5.719742E-1	5.622055E-1	5.221426E-1	5.142522E-1	5.541899E-1	5.168051E-1	5.471701E-1	4.379038E-1	5.296889E-1	5.310435E-1	5.468950E-1	5.008241E-1	5.036394E-1	5.260589E-1	5.441710E-1	5.014776E-1	4.965080E-1	5.640991E-1	5.013000E-1	5.420326E-1	5.234724E-1	5.321815E-1	5.135173E-1	5.280367E-1	4.622460E-1	5.224612E-1	5.025521E-1	4.707164E-1	5.191008E-1	4.766059E-1	5.038533E-1	5.092196E-1	5.396713E-1	5.130661E-1	5.039851E-1	4.848034E-1	5.237107E-1	5.037166E-1	5.211735E-1	4.740130E-1	5.037700E-1	4.731561E-1	5.325498E-1	5.042047E-1	5.148302E-1	4.735329E-1	5.089620E-1	4.730482E-1	5.056925E-1	4.949975E-1	5.290376E-1	5.290718E-1	4.957485E-1	5.076591E-1	5.015541E-1	5.149621E-1	5.118837E-1	4.513834E-1	5.045737E-1	4.859998E-1	5.652663E-1	5.031173E-1	4.963735E-1	5.521095E-1
5.350150E+2	8.555911E-1	8.600513E-1	8.837592E-1	8.375108E-1	8.848935E-1	8.354792E-1	8.453701E-1	8.852211E-1	8.517006E-1	7.846570E-1	9.050465E-1	8.170843E-1	8.714686E-1	8.328361E-1	8.320669E-1	8.558868E-1	8.089389E-1	8.380501E-1	8.667250E-1	8.060128E-1	8.206616E-1	8.326686E-1	8.323003E-1	7.613694E-1	8.537371E-1	8.310945E-1	8.430677E-1	8.012936E-1	8.548685E-1	7.780832E-1	8.392916E-1	7.787045E-1	8.180116E-1	8.654499E-1	8.227026E-1	7.907613E-1	9.004574E-1	8.296119E-1	9.267786E-1	8.512847E-1	8.553646E-1	8.239524E-1	8.003465E-1	8.633897E-1	7.937319E-1	8.918456E-1	8.627150E-1	8.751724E-1	8.557966E-1	8.524921E-1	8.498574E-1	8.486321E-1	8.568767E-1	8.024522E-1	8.128281E-1	8.860322E-1	8.959803E-1	7.562443E-1	8.263473E-1	8.815406E-1	8.287228E-1	8.416254E-1	8.533837E-1	8.603543E-1	8.600876E-1	8.446041E-1	8.100912E-1	7.517321E-1	8.401349E-1	8.321599E-1	8.162821E-1	8.504413E-1	8.850701E-1	8.488034E-1	8.436186E-1	8.202624E-1	8.574764E-1	8.502654E-1	8.484047E-1	8.291708E-1	8.485956E-1	8.702066E-1	8.099415E-1	7.967191E-1	8.040270E-1	8.182675E-1	8.277202E-1	8.658214E-1	8.440101E-1	8.437093E-1	8.056167E-1	8.400669E-1	7.854842E-1	8.112771E-1	8.114119E-1	7.962562E-1	8.157994E-1	7.874030E-1	8.633381E-1	8.053463E-1	8.401667E-1	8.256957E-1	8.430344E-1	7.459160E-1	8.584672E-1	7.928802E-1	8.850108E-1	8.446624E-1	8.398907E-1	8.101981E-1	8.229359E-1	8.611926E-1	8.113400E-1	8.492931E-1	8.429733E-1	9.140818E-1	8.690040E-1	8.768299E-1	8.039142E-1	8.016908E-1	8.629633E-1	8.601569E-1	8.321590E-1	8.794915E-1	8.537209E-1	8.336695E-1	8.078818E-1	8.156197E-1	9.260582E-1	8.253096E-1	8.165187E-1	8.774559E-1	7.852708E-1	8.252730E-1	8.496112E-1	8.416447E-1	8.872665E-1	8.951395E-1	8.337246E-1	9.170282E-1	8.077236E-1	9.121300E-1	8.405842E-1	8.236436E-1	8.112824E-1	7.871394E-1	8.670692E-1	8.162173E-1	8.140612E-1	8.456785E-1	8.810703E-1	8.352439E-1	8.340303E-1	8.171560E-1	7.962645E-1	8.571133E-1	8.316190E-1	8.439331E-1	8.491404E-1	8.874930E-1	7.937805E-1	8.076283E-1	8.400596E-1	9.027096E-1	8.482301E-1	8.216790E-1
5.352130E+2	1.548270E+0	1.521819E+0	1.543515E+0	1.440017E+0	1.486260E+0	1.410986E+0	1.523261E+0	1.469836E+0	1.492231E+0	1.541669E+0	1.566615E+0	1.541803E+0	1.575668E+0	1.523516E+0	1.511390E+0	1.507208E+0	1.530463E+0	1.527911E+0	1.432293E+0	1.539342E+0	1.519171E+0	1.552191E+0	1.505867E+0	1.533272E+0	1.465881E+0	1.399056E+0	1.466859E+0	1.443328E+0	1.515386E+0	1.449798E+0	1.522834E+0	1.416544E+0	1.417717E+0	1.479901E+0	1.435715E+0	1.520285E+0	1.516223E+0	1.426253E+0	1.506913E+0	1.487774E+0	1.506158E+0	1.453423E+0	1.496017E+0	1.525533E+0	1.515693E+0	1.503251E+0	1.468564E+0	1.516267E+0	1.465192E+0	1.495687E+0	1.458887E+0	1.557066E+0	1.538087E+0	1.517764E+0	1.492717E+0	1.487367E+0	1.497046E+0	1.471316E+0	1.470368E+0	1.567055E+0	1.501391E+0	1.555705E+0	1.480834E+0	1.578673E+0	1.550793E+0	1.482283E+0	1.470644E+0	1.525916E+0	1.486840E+0	1.492449E+0	1.457688E+0	1.490244E+0	1.480006E+0	1.510338E+0	1.451034E+0	1.436915E+0	1.524861E+0	1.538544E+0	1.543911E+0	1.440915E+0	1.471553E+0	1.517705E+0	1.405339E+0	1.454684E+0	1.453671E+0	1.504472E+0	1.434015E+0	1.476529E+0	1.511476E+0	1.444520E+0	1.447528E+0	1.579060E+0	1.427034E+0	1.441029E+0	1.425128E+0	1.461164E+0	1.451085E+0	1.431560E+0	1.378982E+0	1.468698E+0	1.430159E+0	1.491366E+0	1.414471E+0	1.492903E+0	1.468772E+0	1.435031E+0	1.505202E+0	1.490639E+0	1.500951E+0	1.429904E+0	1.443793E+0	1.526487E+0	1.516249E+0	1.500151E+0	1.470135E+0	1.414939E+0	1.443121E+0	1.440139E+0	1.535391E+0	1.519199E+0	1.433143E+0	1.491353E+0	1.454110E+0	1.516404E+0	1.442671E+0	1.429879E+0	1.473155E+0	1.532306E+0	1.579431E+0	1.476452E+0	1.563308E+0	1.461623E+0	1.472030E+0	1.404858E+0	1.530463E+0	1.464703E+0	1.471554E+0	1.456890E+0	1.487650E+0	1.483767E+0	1.475503E+0	1.529584E+0	1.506933E+0	1.450492E+0	1.494064E+0	1.481191E+0	1.554978E+0	1.373861E+0	1.514264E+0	1.535898E+0	1.585141E+0	1.445509E+0	1.361802E+0	1.445642E+0	1.444641E+0	1.394242E+0	1.515721E+0	1.503964E+0	1.432329E+0	1.503851E+0	1.443749E+0	1.496450E+0	1.550872E+0	1.526370E+0	1.441728E+0	1.627406E+0
5.354010E+2	2.414214E+0	2.359531E+0	2.383775E+0	2.377914E+0	2.337274E+0	2.258790E+0	2.421116E+0	2.412582E+0	2.255051E+0	2.298821E+0	2.352118E+0	2.426025E+0	2.373865E+0	2.343548E+0	2.283699E+0	2.256254E+0	2.408737E+0	2.351926E+0	2.312858E+0	2.334335E+0	2.352201E+0	2.421494E+0	2.507626E+0	2.397432E+0	2.312212E+0	2.246279E+0	2.334448E+0	2.248783E+0	2.336305E+0	2.301617E+0	2.395677E+0	2.287283E+0	2.345794E+0	2.308185E+0	2.321073E+0	2.300217E+0	2.368268E+0	2.350585E+0	2.308330E+0	2.279977E+0	2.355254E+0	2.284972E+0	2.301048E+0	2.336415E+0	2.342090E+0	2.224317E+0	2.392852E+0	2.393009E+0	2.362653E+0	2.252799E+0	2.355754E+0	2.367887E+0	2.350420E+0	2.430498E+0	2.332671E+0	2.306110E+0	2.375277E+0	2.377380E+0	2.281411E+0	2.403449E+0	2.374597E+0	2.363647E+0	2.306295E+0	2.394024E+0	2.395274E+0	2.334198E+0	2.342247E+0	2.375313E+0	2.339257E+0	2.307633E+0	2.227926E+0	2.320724E+0	2.348256E+0	2.283229E+0	2.353699E+0	2.269903E+0	2.313592E+0	2.298884E+0	2.409141E+0	2.250656E+0	2.311889E+0	2.316488E+0	2.235356E+0	2.291769E+0	2.251141E+0	2.336400E+0	2.227304E+0	2.320627E+0	2.403173E+0	2.333736E+0	2.180611E+0	2.235941E+0	2.342319E+0	2.343877E+0	2.307081E+0	2.394824E+0	2.320780E+0	2.307748E+0	2.284588E+0	2.294094E+0	2.401776E+0	2.209318E+0	2.271489E+0	2.281997E+0	2.435438E+0	2.320422E+0	2.420548E+0	2.204132E+0	2.294242E+0	2.219816E+0	2.373762E+0	2.254946E+0	2.343192E+0	2.329129E+0	2.331176E+0	2.278601E+0	2.260877E+0	2.170225E+0	2.341709E+0	2.388581E+0	2.200033E+0	2.362098E+0	2.315068E+0	2.261221E+0	2.260739E+0	2.275175E+0	2.249356E+0	2.244658E+0	2.283302E+0	2.211988E+0	2.280362E+0	2.381381E+0	2.281965E+0	2.266430E+0	2.272852E+0	2.248974E+0	2.359648E+0	2.217777E+0	2.268356E+0	2.363285E+0	2.279053E+0	2.288037E+0	2.312989E+0	2.286159E+0	2.264222E+0	2.397686E+0	2.370026E+0	2.213669E+0	2.376091E+0	2.247888E+0	2.324748E+0	2.253394E+0	2.231653E+0	2.289281E+0	2.224650E+0	2.344244E+0	2.349744E+0	2.340913E+0	2.292403E+0	2.311631E+0	2.305261E+0	2.285653E+0	2.365674E+0	2.275815E+0	2.363394E+0	2.554127E+0
5.356150E+2	2.280583E+0	2.211965E+0	2.275898E+0	2.314648E+0	2.236540E+0	2.127223E+0	2.268234E+0	2.329552E+0	2.255326E+0	2.208175E+0	2.266414E+0	2.291263E+0	2.242898E+0	2.295856E+0	2.198601E+0	2.309811E+0	2.293413E+0	2.151444E+0	2.329557E+0	2.330958E+0	2.245573E+0	2.312910E+0	2.253966E+0	2.303990E+0	2.193770E+0	2.301920E+0	2.246289E+0	2.141798E+0	2.253646E+0	2.223482E+0	2.295009E+0	2.210012E+0	2.225142E+0	2.169562E+0	2.209863E+0	2.296829E+0	2.361086E+0	2.192680E+0	2.147216E+0	2.163713E+0	2.344298E+0	2.154747E+0	2.290597E+0	2.252024E+0	2.206428E+0	2.296152E+0	2.268754E+0	2.278351E+0	2.336869E+0	2.271143E+0	2.293069E+0	2.267373E+0	2.236961E+0	2.370723E+0	2.156634E+0	2.220062E+0	2.191867E+0	2.267117E+0	2.171736E+0	2.267150E+0	2.227549E+0	2.219663E+0	2.226295E+0	2.252523E+0	2.200111E+0	2.196285E+0	2.321001E+0	2.144915E+0	2.177765E+0	2.198296E+0	2.222057E+0	2.237091E+0	2.372531E+0	2.146988E+0	2.252276E+0	2.234636E+0	2.271839E+0	2.222796E+0	2.308028E+0	2.206728E+0	2.205432E+0	2.214733E+0	2.114007E+0	2.174489E+0	2.102962E+0	2.174250E+0	2.131808E+0	2.232637E+0	2.376439E+0	2.281858E+0	2.154204E+0	2.151072E+0	2.188750E+0	2.197659E+0	2.173393E+0	2.229287E+0	2.304045E+0	2.302695E+0	2.153843E+0	2.190775E+0	2.158807E+0	2.221851E+0	2.162762E+0	2.273054E+0	2.185571E+0	2.319704E+0	2.240577E+0	2.259150E+0	2.175195E+0	2.164550E+0	2.214185E+0	2.196542E+0	2.296658E+0	2.186176E+0	2.121792E+0	2.316456E+0	2.205026E+0	2.163045E+0	2.240099E+0	2.250411E+0	2.121606E+0	2.209118E+0	2.247713E+0	2.130627E+0	2.196294E+0	2.229216E+0	2.159198E+0	2.099778E+0	2.237086E+0	2.193440E+0	2.170364E+0	2.238048E+0	2.152646E+0	2.203771E+0	2.272479E+0	2.212220E+0	2.140161E+0	2.177330E+0	2.146796E+0	2.207580E+0	2.147341E+0	2.199238E+0	2.139009E+0	2.272805E+0	2.183033E+0	2.205649E+0	2.249917E+0	2.135688E+0	2.302316E+0	2.201411E+0	2.240334E+0	2.240578E+0	2.207327E+0	2.108747E+0	2.184833E+0	2.146828E+0	2.232414E+0	2.221657E+0	2.131662E+0	2.220520E+0	2.169808E+0	2.047771E+0	2.334734E+0	2.287451E+0	2.027708E+0	2.150479E+0
5.358080E+2	2.173918E+0	2.100275E+0	2.096873E+0	2.086229E+0	2.131179E+0	2.123652E+0	2.139803E+0	2.066522E+0	2.075744E+0	2.045247E+0	2.141476E+0	2.148024E+0	2.110094E+0	2.222187E+0	2.111375E+0	2.174984E+0	2.068970E+0	2.194876E+0	2.064370E+0	2.123313E+0	2.125454E+0	2.167871E+0	2.091316E+0	2.145853E+0	2.189397E+0	2.112560E+0	2.116520E+0	2.020944E+0	2.089177E+0	2.125322E+0	2.066484E+0	2.167734E+0	2.090079E+0	2.060117E+0	2.132768E+0	2.055267E+0	2.175917E+0	2.129401E+0	2.042232E+0	2.083897E+0	2.161968E+0	2.084403E+0	2.125416E+0	2.144747E+0	2.098358E+0	2.119462E+0	2.079910E+0	2.066417E+0	2.211757E+0	2.106668E+0	2.072122E+0	2.129886E+0	2.179783E+0	2.256790E+0	2.087661E+0	2.049911E+0	2.096644E+0	2.127364E+0	2.085439E+0	2.160473E+0	2.170732E+0	2.128225E+0	2.130918E+0	2.134495E+0	2.097003E+0	2.145002E+0	2.201575E+0	2.232177E+0	2.103039E+0	2.065000E+0	2.153354E+0	2.082403E+0	2.271041E+0	2.020925E+0	2.193793E+0	2.196747E+0	2.146653E+0	2.073083E+0	2.152313E+0	1.963780E+0	2.161752E+0	2.050667E+0	2.072662E+0	2.031747E+0	2.063629E+0	2.151304E+0	2.030890E+0	2.110692E+0	2.160811E+0	2.014784E+0	2.050962E+0	2.069194E+0	2.015240E+0	2.135789E+0	2.144422E+0	2.038808E+0	2.032454E+0	2.214251E+0	2.073639E+0	2.047976E+0	2.105032E+0	2.142889E+0	2.109286E+0	2.077701E+0	2.086044E+0	2.136323E+0	2.197796E+0	2.104673E+0	2.096393E+0	2.137418E+0	2.149189E+0	2.138826E+0	2.104853E+0	2.062630E+0	2.084587E+0	2.074849E+0	2.020264E+0	2.075782E+0	2.124316E+0	2.136248E+0	2.029705E+0	2.148614E+0	2.077300E+0	2.103784E+0	2.065346E+0	2.107959E+0	2.072878E+0	2.116724E+0	2.011110E+0	2.082048E+0	2.094203E+0	2.155069E+0	2.238588E+0	2.033462E+0	2.149639E+0	2.064868E+0	2.048691E+0	2.126288E+0	2.039243E+0	2.064172E+0	2.110340E+0	2.096492E+0	2.090133E+0	2.022107E+0	2.174657E+0	1.987254E+0	2.130684E+0	1.991804E+0	2.103348E+0	2.092182E+0	2.066985E+0	2.145188E+0	1.976361E+0	2.059919E+0	2.104902E+0	2.135865E+0	2.182832E+0	2.039042E+0	1.961266E+0	1.987362E+0	2.133427E+0	2.102312E+0	2.180848E+0	2.227643E+0	2.179377E+0	2.028783E+0
5.360170E+2	1.612047E+0	1.608562E+0	1.600136E+0	1.558104E+0	1.552420E+0	1.576236E+0	1.616716E+0	1.597552E+0	1.559441E+0	1.579506E+0	1.579668E+0	1.591492E+0	1.592107E+0	1.592294E+0	1.552577E+0	1.562927E+0	1.555876E+0	1.480265E+0	1.601782E+0	1.611921E+0	1.605761E+0	1.641157E+0	1.563668E+0	1.646277E+0	1.592670E+0	1.606808E+0	1.546452E+0	1.608591E+0	1.629905E+0	1.570416E+0	1.608482E+0	1.580959E+0	1.609088E+0	1.582677E+0	1.570514E+0	1.493867E+0	1.644556E+0	1.623990E+0	1.554652E+0	1.566212E+0	1.688468E+0	1.475855E+0	1.598140E+0	1.535532E+0	1.631263E+0	1.515624E+0	1.590049E+0	1.530993E+0	1.606625E+0	1.604293E+0	1.601769E+0	1.584126E+0	1.566112E+0	1.597865E+0	1.497601E+0	1.551657E+0	1.543162E+0	1.571994E+0	1.654220E+0	1.588920E+0	1.663521E+0	1.601988E+0	1.601730E+0	1.624918E+0	1.658492E+0	1.610517E+0	1.593493E+0	1.636182E+0	1.563993E+0	1.531724E+0	1.533344E+0	1.611613E+0	1.688016E+0	1.536522E+0	1.550373E+0	1.583668E+0	1.603523E+0	1.617509E+0	1.578637E+0	1.516038E+0	1.589571E+0	1.613165E+0	1.557158E+0	1.469493E+0	1.535010E+0	1.484399E+0	1.507256E+0	1.586610E+0	1.622053E+0	1.560956E+0	1.542474E+0	1.477645E+0	1.450905E+0	1.560983E+0	1.547733E+0	1.633754E+0	1.627191E+0	1.591556E+0	1.565650E+0	1.538248E+0	1.671188E+0	1.606775E+0	1.548616E+0	1.606156E+0	1.622446E+0	1.508649E+0	1.579915E+0	1.474706E+0	1.484679E+0	1.610336E+0	1.525946E+0	1.600977E+0	1.611809E+0	1.568507E+0	1.591506E+0	1.608510E+0	1.506953E+0	1.542836E+0	1.610834E+0	1.508585E+0	1.512873E+0	1.558390E+0	1.607776E+0	1.557665E+0	1.606930E+0	1.646565E+0	1.474735E+0	1.588351E+0	1.571656E+0	1.523112E+0	1.604399E+0	1.557256E+0	1.587488E+0	1.558928E+0	1.618734E+0	1.470825E+0	1.579570E+0	1.466623E+0	1.579207E+0	1.552325E+0	1.569920E+0	1.607847E+0	1.580976E+0	1.505525E+0	1.608145E+0	1.537448E+0	1.579593E+0	1.529856E+0	1.741268E+0	1.537740E+0	1.484330E+0	1.532811E+0	1.668187E+0	1.607564E+0	1.552115E+0	1.553245E+0	1.650921E+0	1.580727E+0	1.494704E+0	1.593742E+0	1.532999E+0	1.551521E+0	1.579999E+0	1.519475E+0	1.504243E+0	1.662689E+0
5.362050E+2	1.719833E+0	1.702453E+0	1.708654E+0	1.493600E+0	1.610420E+0	1.603194E+0	1.696642E+0	1.635958E+0	1.674846E+0	1.586263E+0	1.660463E+0	1.608050E+0	1.644643E+0	1.687686E+0	1.734734E+0	1.614844E+0	1.766036E+0	1.599974E+0	1.636789E+0	1.651981E+0	1.708144E+0	1.699721E+0	1.618617E+0	1.591917E+0	1.643940E+0	1.675852E+0	1.660856E+0	1.700785E+0	1.725302E+0	1.670911E+0	1.705351E+0	1.660737E+0	1.713378E+0	1.619489E+0	1.666168E+0	1.609581E+0	1.773199E+0	1.695651E+0	1.622955E+0	1.659407E+0	1.695213E+0	1.600722E+0	1.646066E+0	1.667592E+0	1.711064E+0	1.653952E+0	1.623089E+0	1.671472E+0	1.643798E+0	1.712936E+0	1.671085E+0	1.699885E+0	1.671968E+0	1.674255E+0	1.594104E+0	1.603750E+0	1.659849E+0	1.665876E+0	1.621203E+0	1.693831E+0	1.684923E+0	1.675547E+0	1.690621E+0	1.689961E+0	1.631668E+0	1.560908E+0	1.682748E+0	1.699491E+0	1.767100E+0	1.708324E+0	1.593500E+0	1.599655E+0	1.665711E+0	1.606964E+0	1.721715E+0	1.573252E+0	1.765101E+0	1.740574E+0	1.657838E+0	1.619609E+0	1.614371E+0	1.646497E+0	1.612654E+0	1.615827E+0	1.597189E+0	1.642844E+0	1.617990E+0	1.628396E+0	1.679957E+0	1.586757E+0	1.574511E+0	1.632816E+0	1.666101E+0	1.632769E+0	1.596816E+0	1.655542E+0	1.588419E+0	1.692612E+0	1.596065E+0	1.617052E+0	1.715567E+0	1.681483E+0	1.649957E+0	1.569090E+0	1.636812E+0	1.576396E+0	1.687390E+0	1.671244E+0	1.664717E+0	1.581480E+0	1.702716E+0	1.718604E+0	1.731021E+0	1.735697E+0	1.589316E+0	1.607403E+0	1.651871E+0	1.620542E+0	1.721183E+0	1.675991E+0	1.608772E+0	1.630114E+0	1.676209E+0	1.650201E+0	1.717467E+0	1.629362E+0	1.554966E+0	1.667021E+0	1.715414E+0	1.642170E+0	1.623840E+0	1.570415E+0	1.660607E+0	1.581062E+0	1.598166E+0	1.632710E+0	1.692998E+0	1.624974E+0	1.579582E+0	1.712592E+0	1.705058E+0	1.587171E+0	1.593906E+0	1.657698E+0	1.674803E+0	1.674261E+0	1.707690E+0	1.604811E+0	1.718275E+0	1.677919E+0	1.684972E+0	1.639476E+0	1.597849E+0	1.615275E+0	1.568691E+0	1.666992E+0	1.633197E+0	1.723628E+0	1.647000E+0	1.643632E+0	1.621221E+0	1.583505E+0	1.652342E+0	1.655059E+0	1.536464E+0	1.572212E+0
5.364090E+2	1.860433E+0	1.847130E+0	1.759930E+0	1.827528E+0	1.907062E+0	1.778873E+0	1.877684E+0	1.816831E+0	1.679731E+0	1.858173E+0	1.841070E+0	1.824922E+0	1.754183E+0	1.792155E+0	1.789354E+0	1.747039E+0	1.710725E+0	1.818104E+0	1.821361E+0	1.762347E+0	1.794342E+0	1.904129E+0	1.880331E+0	1.856177E+0	1.726041E+0	1.806632E+0	1.787277E+0	1.819939E+0	1.739225E+0	1.742913E+0	1.812424E+0	1.749289E+0	1.777960E+0	1.771843E+0	1.876196E+0	1.764550E+0	1.806932E+0	1.818272E+0	1.766143E+0	1.842118E+0	1.861755E+0	1.779443E+0	1.792338E+0	1.877175E+0	1.819728E+0	1.787639E+0	1.812661E+0	1.776192E+0	1.821668E+0	1.814527E+0	1.844180E+0	1.824156E+0	1.788857E+0	1.856797E+0	1.779385E+0	1.758518E+0	1.783847E+0	1.749471E+0	1.790442E+0	1.820667E+0	1.896448E+0	1.830359E+0	1.779422E+0	1.807727E+0	1.804858E+0	1.727883E+0	1.759799E+0	1.823342E+0	1.885513E+0	1.696117E+0	1.792433E+0	1.828278E+0	1.767871E+0	1.807644E+0	1.800098E+0	1.745368E+0	1.882971E+0	1.745930E+0	1.813616E+0	1.704755E+0	1.934551E+0	1.753956E+0	1.855538E+0	1.786177E+0	1.716093E+0	1.769210E+0	1.756761E+0	1.731739E+0	1.906693E+0	1.786074E+0	1.736891E+0	1.819444E+0	1.867957E+0	1.732368E+0	1.699669E+0	1.816003E+0	1.831353E+0	1.829639E+0	1.742122E+0	1.769297E+0	1.760640E+0	1.767681E+0	1.821929E+0	1.784762E+0	1.760918E+0	1.861848E+0	1.884192E+0	1.768367E+0	1.810017E+0	1.753890E+0	1.851385E+0	1.809607E+0	1.679875E+0	1.750670E+0	1.776020E+0	1.738632E+0	1.686747E+0	1.730926E+0	1.770391E+0	1.809056E+0	1.762356E+0	1.830456E+0	1.828744E+0	1.754756E+0	1.815253E+0	1.785597E+0	1.747981E+0	1.771543E+0	1.818744E+0	1.747007E+0	1.823248E+0	1.832787E+0	1.712156E+0	1.746449E+0	1.818513E+0	1.745083E+0	1.857905E+0	1.723687E+0	1.769115E+0	1.780447E+0	1.813037E+0	1.791488E+0	1.906438E+0	1.769149E+0	1.901904E+0	1.820128E+0	1.799964E+0	1.709515E+0	1.915666E+0	1.774427E+0	1.715957E+0	1.743982E+0	1.734079E+0	1.720701E+0	1.786704E+0	1.840425E+0	1.875495E+0	1.719188E+0	1.685778E+0	1.738002E+0	1.740231E+0	1.859724E+0	1.883966E+0	1.813421E+0	1.606695E+0	1.660733E+0
5.366140E+2	1.858903E+0	1.921191E+0	1.809488E+0	1.813533E+0	1.848486E+0	1.858656E+0	1.859838E+0	1.848604E+0	1.825505E+0	1.796575E+0	1.778622E+0	1.883481E+0	1.864471E+0	1.864569E+0	1.741256E+0	1.891818E+0	1.848061E+0	1.831489E+0	1.903556E+0	1.885760E+0	1.813519E+0	1.876957E+0	1.770330E+0	1.818889E+0	1.775695E+0	1.817717E+0	1.827810E+0	1.751611E+0	1.868489E+0	1.897737E+0	1.875256E+0	1.817842E+0	1.806192E+0	1.820837E+0	1.767960E+0	1.807648E+0	1.909103E+0	1.814091E+0	1.759414E+0	1.807071E+0	1.835670E+0	1.793633E+0	1.759358E+0	1.754395E+0	1.821429E+0	1.856439E+0	1.813601E+0	1.821168E+0	1.817258E+0	1.880337E+0	1.855601E+0	1.900973E+0	1.784879E+0	1.850283E+0	1.768699E+0	1.824065E+0	1.844347E+0	1.857790E+0	1.809670E+0	1.930229E+0	1.826706E+0	1.828839E+0	1.851446E+0	1.862607E+0	1.922550E+0	1.883831E+0	1.876259E+0	1.855776E+0	1.790007E+0	1.813564E+0	1.750796E+0	1.837673E+0	1.891623E+0	1.799689E+0	1.869183E+0	1.750756E+0	1.830074E+0	1.807117E+0	1.825697E+0	1.802696E+0	1.871695E+0	1.851480E+0	1.877301E+0	1.850684E+0	1.728317E+0	1.766177E+0	1.760187E+0	1.804812E+0	1.763618E+0	1.882023E+0	1.739813E+0	1.745472E+0	1.826633E+0	1.839749E+0	1.785804E+0	1.914305E+0	1.843030E+0	1.812662E+0	1.854601E+0	1.875599E+0	1.871291E+0	1.778782E+0	1.803168E+0	1.776367E+0	1.791081E+0	1.752462E+0	1.812887E+0	1.770756E+0	1.801334E+0	1.779637E+0	1.835678E+0	1.778486E+0	1.871930E+0	1.806276E+0	1.775511E+0	1.710575E+0	1.813179E+0	1.801865E+0	1.806617E+0	1.853843E+0	1.732385E+0	1.800573E+0	1.851957E+0	1.744258E+0	1.772146E+0	1.858042E+0	1.805009E+0	1.732479E+0	1.748616E+0	1.782334E+0	1.791325E+0	1.837811E+0	1.779830E+0	1.888732E+0	1.777616E+0	1.829284E+0	1.822648E+0	1.764886E+0	1.852703E+0	1.896390E+0	1.796352E+0	1.735392E+0	1.794540E+0	1.775584E+0	1.789740E+0	1.730981E+0	1.827523E+0	1.781335E+0	1.820512E+0	1.823565E+0	1.805094E+0	1.805130E+0	1.753839E+0	1.722470E+0	1.771088E+0	1.782839E+0	1.878165E+0	1.848682E+0	1.814735E+0	1.746417E+0	1.810378E+0	1.706854E+0	1.784471E+0	1.779546E+0	1.865352E+0	1.672641E+0
5.368080E+2	1.481916E+0	1.458894E+0	1.389381E+0	1.334719E+0	1.401804E+0	1.340317E+0	1.386298E+0	1.471161E+0	1.392549E+0	1.397009E+0	1.408058E+0	1.401787E+0	1.346334E+0	1.423718E+0	1.439193E+0	1.342512E+0	1.384415E+0	1.395506E+0	1.450074E+0	1.408718E+0	1.382688E+0	1.398102E+0	1.475459E+0	1.455189E+0	1.397140E+0	1.372701E+0	1.415169E+0	1.419533E+0	1.357965E+0	1.384638E+0	1.396950E+0	1.364538E+0	1.414553E+0	1.426561E+0	1.408400E+0	1.402977E+0	1.485469E+0	1.384591E+0	1.403166E+0	1.464768E+0	1.458775E+0	1.351027E+0	1.355963E+0	1.394863E+0	1.408025E+0	1.447805E+0	1.459547E+0	1.471565E+0	1.419829E+0	1.411619E+0	1.403553E+0	1.386234E+0	1.437171E+0	1.443840E+0	1.318645E+0	1.394217E+0	1.452787E+0	1.438588E+0	1.371072E+0	1.442612E+0	1.431866E+0	1.458457E+0	1.491529E+0	1.480517E+0	1.371325E+0	1.429379E+0	1.417346E+0	1.331698E+0	1.399259E+0	1.442857E+0	1.374467E+0	1.443309E+0	1.449583E+0	1.410428E+0	1.478009E+0	1.357085E+0	1.454536E+0	1.442143E+0	1.423863E+0	1.342371E+0	1.477043E+0	1.419687E+0	1.405998E+0	1.406721E+0	1.476482E+0	1.382975E+0	1.433980E+0	1.414641E+0	1.413340E+0	1.386863E+0	1.433762E+0	1.405279E+0	1.399825E+0	1.507192E+0	1.370118E+0	1.441109E+0	1.334066E+0	1.442959E+0	1.386633E+0	1.400212E+0	1.421153E+0	1.441499E+0	1.442646E+0	1.481672E+0	1.335003E+0	1.477661E+0	1.475320E+0	1.405396E+0	1.362701E+0	1.365199E+0	1.375693E+0	1.435966E+0	1.324375E+0	1.484586E+0	1.520638E+0	1.404145E+0	1.342087E+0	1.416374E+0	1.461198E+0	1.426470E+0	1.391900E+0	1.452585E+0	1.404401E+0	1.423242E+0	1.501276E+0	1.432652E+0	1.411772E+0	1.341772E+0	1.448306E+0	1.498951E+0	1.397251E+0	1.388560E+0	1.377951E+0	1.459983E+0	1.424455E+0	1.442172E+0	1.398309E+0	1.467430E+0	1.412194E+0	1.486562E+0	1.372735E+0	1.379303E+0	1.415056E+0	1.440938E+0	1.483711E+0	1.409333E+0	1.444048E+0	1.360518E+0	1.390527E+0	1.370780E+0	1.377205E+0	1.371875E+0	1.406866E+0	1.375149E+0	1.551692E+0	1.416772E+0	1.408835E+0	1.400761E+0	1.346131E+0	1.389551E+0	1.394044E+0	1.419768E+0	1.465114E+0	1.297735E+0	1.371151E+0	1.363001E+0
5.370070E+2	1.096343E+0	1.114970E+0	1.056210E+0	1.046113E+0	1.055460E+0	1.026924E+0	1.042127E+0	1.085541E+0	1.046051E+0	1.052783E+0	1.022818E+0	1.062615E+0	1.056811E+0	1.093705E+0	1.086804E+0	1.066352E+0	1.066580E+0	1.090132E+0	1.058130E+0	1.060215E+0	1.161255E+0	1.075907E+0	1.088835E+0	1.118922E+0	1.103882E+0	1.062134E+0	1.093143E+0	1.014159E+0	1.127666E+0	1.087886E+0	1.036704E+0	1.030523E+0	1.041351E+0	1.086553E+0	1.026731E+0	1.078041E+0	1.126116E+0	1.082675E+0	1.006005E+0	1.121089E+0	1.083353E+0	1.031982E+0	1.010183E+0	1.094885E+0	1.082850E+0	1.094759E+0	1.111241E+0	1.046481E+0	1.046091E+0	1.100362E+0	1.096442E+0	1.055066E+0	1.081968E+0	1.130458E+0	1.090676E+0	1.033192E+0	1.034664E+0	1.047923E+0	1.091957E+0	1.055981E+0	1.037490E+0	1.119461E+0	1.077193E+0	1.149943E+0	1.034573E+0	1.090818E+0	1.066143E+0	1.119424E+0	1.125880E+0	1.087087E+0	1.076375E+0	1.102132E+0	1.053062E+0	1.072489E+0	1.110741E+0	1.020834E+0	1.060481E+0	1.079908E+0	1.012366E+0	1.028545E+0	1.029240E+0	1.056380E+0	1.019605E+0	1.047999E+0	1.022435E+0	1.077373E+0	1.045196E+0	9.996805E-1	1.147451E+0	1.089328E+0	1.006721E+0	1.037412E+0	1.093044E+0	1.098973E+0	1.036128E+0	1.065641E+0	1.089265E+0	1.093110E+0	1.066436E+0	1.025552E+0	1.061611E+0	1.058438E+0	1.111634E+0	1.066435E+0	1.056513E+0	9.872013E-1	1.131576E+0	1.050499E+0	1.016183E+0	1.035018E+0	1.088541E+0	1.089855E+0	1.093065E+0	1.166119E+0	1.086398E+0	1.060405E+0	1.067812E+0	1.067871E+0	1.102891E+0	1.058792E+0	9.874952E-1	1.053309E+0	1.060734E+0	1.048646E+0	1.062221E+0	1.116929E+0	1.051089E+0	1.109396E+0	1.088366E+0	1.096787E+0	1.074575E+0	1.024536E+0	1.056078E+0	1.051922E+0	1.035188E+0	1.093244E+0	1.012284E+0	1.048533E+0	1.055527E+0	1.125946E+0	1.054505E+0	1.069980E+0	1.061138E+0	1.038165E+0	1.110967E+0	1.088067E+0	1.118428E+0	1.054206E+0	1.023053E+0	1.082544E+0	1.148453E+0	1.055113E+0	1.044950E+0	1.067409E+0	1.088792E+0	9.541814E-1	1.078776E+0	1.148018E+0	1.064696E+0	1.094918E+0	1.077471E+0	1.078602E+0	1.074534E+0	1.011250E+0	1.092681E+0	1.055040E+0
5.372010E+2	9.309046E-1	8.657946E-1	8.608392E-1	8.177928E-1	9.318629E-1	9.100198E-1	9.436801E-1	8.677555E-1	8.885154E-1	9.139336E-1	8.720902E-1	8.964006E-1	8.580874E-1	9.159779E-1	8.924707E-1	9.297374E-1	8.149491E-1	8.353177E-1	9.309603E-1	9.163122E-1	9.416464E-1	9.002358E-1	8.877371E-1	8.822010E-1	8.711351E-1	8.677113E-1	9.128535E-1	9.050309E-1	9.423706E-1	9.555949E-1	8.969708E-1	9.329267E-1	8.636542E-1	8.891741E-1	8.423181E-1	9.164522E-1	9.230330E-1	9.762786E-1	9.038166E-1	9.710703E-1	9.116102E-1	8.946020E-1	8.569468E-1	8.360420E-1	8.996888E-1	8.513633E-1	8.853704E-1	9.121243E-1	8.775923E-1	9.587057E-1	8.591566E-1	8.754058E-1	8.792403E-1	9.679511E-1	9.557333E-1	9.016957E-1	8.910379E-1	9.167439E-1	8.607980E-1	9.094551E-1	9.045992E-1	9.583824E-1	8.760123E-1	9.490942E-1	9.502109E-1	8.594745E-1	8.726361E-1	8.795779E-1	9.284842E-1	8.820259E-1	9.022789E-1	8.892346E-1	9.221220E-1	8.867891E-1	9.001560E-1	8.918471E-1	8.827041E-1	8.427153E-1	9.475637E-1	8.680567E-1	8.558308E-1	9.002143E-1	8.860064E-1	8.800860E-1	8.632236E-1	8.922826E-1	8.674086E-1	9.397572E-1	9.709425E-1	9.418971E-1	9.280745E-1	8.536634E-1	9.391824E-1	9.221585E-1	8.936631E-1	9.317225E-1	8.903475E-1	9.469578E-1	9.097486E-1	8.803457E-1	8.559709E-1	9.073167E-1	8.439692E-1	8.896192E-1	9.333017E-1	9.020135E-1	9.106278E-1	9.088010E-1	9.075714E-1	9.038771E-1	8.724204E-1	8.664376E-1	9.089555E-1	9.155516E-1	9.389988E-1	9.241678E-1	8.198298E-1	8.707733E-1	8.715846E-1	8.511837E-1	8.714575E-1	9.580452E-1	8.647113E-1	8.356200E-1	8.347179E-1	9.029574E-1	8.552208E-1	8.214405E-1	9.398750E-1	9.077793E-1	8.811558E-1	8.916519E-1	8.957778E-1	8.977846E-1	9.073303E-1	8.435629E-1	8.815791E-1	8.491868E-1	8.415796E-1	9.143332E-1	8.877795E-1	9.272556E-1	9.659657E-1	8.884487E-1	8.905269E-1	8.624885E-1	9.238360E-1	8.951795E-1	9.199656E-1	8.991526E-1	8.750770E-1	8.868914E-1	8.996590E-1	9.405259E-1	8.480689E-1	8.655647E-1	9.317348E-1	8.864372E-1	8.946251E-1	9.011011E-1	8.732053E-1	9.169277E-1	8.846369E-1	8.961579E-1	8.986332E-1	9.687429E-1
5.374220E+2	1.139207E+0	1.130598E+0	1.112754E+0	1.057137E+0	1.118077E+0	1.012646E+0	1.113082E+0	1.144304E+0	1.091216E+0	1.075354E+0	1.112506E+0	1.137979E+0	1.016612E+0	1.147643E+0	1.124958E+0	1.093470E+0	1.071672E+0	1.150391E+0	1.079124E+0	1.117959E+0	1.092657E+0	1.160940E+0	1.122088E+0	1.114491E+0	1.092883E+0	1.073577E+0	1.079200E+0	1.137464E+0	1.163162E+0	9.899802E-1	1.139775E+0	1.083113E+0	1.040622E+0	1.123077E+0	1.022346E+0	1.096310E+0	1.140663E+0	1.137552E+0	1.101569E+0	1.089283E+0	1.170747E+0	1.081871E+0	1.129215E+0	1.052627E+0	1.077930E+0	1.138726E+0	1.055421E+0	1.024828E+0	1.032389E+0	1.097866E+0	1.085332E+0	1.099070E+0	1.065445E+0	1.131159E+0	1.073314E+0	1.101951E+0	1.082099E+0	1.037072E+0	1.141915E+0	1.031861E+0	1.142979E+0	1.102811E+0	1.092026E+0	1.150896E+0	1.133323E+0	1.130396E+0	1.113409E+0	1.106030E+0	1.116417E+0	1.190687E+0	1.060439E+0	1.080262E+0	1.147956E+0	1.105085E+0	1.041821E+0	1.078602E+0	1.066174E+0	1.100433E+0	1.076220E+0	1.088611E+0	1.079136E+0	1.155540E+0	1.122636E+0	1.078648E+0	1.027979E+0	1.147510E+0	1.063849E+0	1.112808E+0	1.097772E+0	1.131041E+0	1.063419E+0	1.024407E+0	1.090604E+0	1.121277E+0	1.071317E+0	1.061057E+0	1.046945E+0	1.144403E+0	1.138881E+0	1.055403E+0	1.124647E+0	1.085348E+0	1.124508E+0	1.147968E+0	1.083691E+0	1.136610E+0	1.112557E+0	1.062328E+0	1.088755E+0	1.083888E+0	1.123854E+0	1.170552E+0	1.056123E+0	1.012464E+0	1.029528E+0	1.155986E+0	1.091512E+0	1.105143E+0	1.073200E+0	1.137046E+0	9.869931E-1	1.088952E+0	1.082048E+0	1.119258E+0	1.090503E+0	1.103330E+0	1.052018E+0	1.060047E+0	1.046993E+0	1.070169E+0	1.074643E+0	1.158947E+0	1.205502E+0	1.108835E+0	1.070864E+0	1.045433E+0	1.117826E+0	1.095727E+0	1.056577E+0	1.128426E+0	1.062164E+0	1.094538E+0	1.086609E+0	1.097061E+0	1.103003E+0	1.082978E+0	1.114614E+0	1.064591E+0	1.120604E+0	1.078118E+0	1.038483E+0	1.064641E+0	1.064910E+0	1.080357E+0	1.192597E+0	1.102599E+0	9.889856E-1	1.127822E+0	1.013396E+0	1.120043E+0	1.079914E+0	1.063545E+0	1.189728E+0	1.050077E+0	1.020968E+0	1.033949E+0
5.376110E+2	1.597599E+0	1.510519E+0	1.571274E+0	1.530995E+0	1.539640E+0	1.502078E+0	1.556003E+0	1.560725E+0	1.450953E+0	1.472497E+0	1.587051E+0	1.493918E+0	1.594314E+0	1.508087E+0	1.488973E+0	1.480944E+0	1.485100E+0	1.463438E+0	1.546865E+0	1.540621E+0	1.523069E+0	1.630338E+0	1.548340E+0	1.529152E+0	1.533470E+0	1.526444E+0	1.566689E+0	1.486854E+0	1.563282E+0	1.645068E+0	1.518038E+0	1.553135E+0	1.512155E+0	1.636348E+0	1.467317E+0	1.521104E+0	1.605598E+0	1.516959E+0	1.549453E+0	1.613835E+0	1.544655E+0	1.446517E+0	1.535259E+0	1.515313E+0	1.497503E+0	1.565069E+0	1.496640E+0	1.477070E+0	1.509092E+0	1.588714E+0	1.551580E+0	1.603660E+0	1.564525E+0	1.589997E+0	1.601955E+0	1.510512E+0	1.475367E+0	1.467411E+0	1.527751E+0	1.632112E+0	1.586155E+0	1.515771E+0	1.605793E+0	1.598705E+0	1.505455E+0	1.500812E+0	1.486362E+0	1.525703E+0	1.619298E+0	1.524789E+0	1.519304E+0	1.514198E+0	1.615571E+0	1.544856E+0	1.590813E+0	1.479562E+0	1.590258E+0	1.581922E+0	1.520828E+0	1.576294E+0	1.542671E+0	1.620413E+0	1.481597E+0	1.399710E+0	1.479384E+0	1.530062E+0	1.391693E+0	1.456153E+0	1.542066E+0	1.538579E+0	1.507716E+0	1.484357E+0	1.538521E+0	1.587002E+0	1.489826E+0	1.437044E+0	1.506146E+0	1.530223E+0	1.494786E+0	1.523903E+0	1.576509E+0	1.522411E+0	1.476160E+0	1.501547E+0	1.544631E+0	1.635929E+0	1.535633E+0	1.484125E+0	1.450922E+0	1.464793E+0	1.435444E+0	1.511428E+0	1.533579E+0	1.542207E+0	1.507201E+0	1.608590E+0	1.522450E+0	1.520847E+0	1.524597E+0	1.524071E+0	1.482228E+0	1.600738E+0	1.518244E+0	1.477393E+0	1.501442E+0	1.477585E+0	1.501863E+0	1.515535E+0	1.492295E+0	1.503683E+0	1.503904E+0	1.607708E+0	1.425020E+0	1.557243E+0	1.566461E+0	1.564703E+0	1.542547E+0	1.557898E+0	1.528005E+0	1.548166E+0	1.563379E+0	1.498050E+0	1.605238E+0	1.473712E+0	1.638657E+0	1.479263E+0	1.559931E+0	1.495374E+0	1.629764E+0	1.504590E+0	1.498087E+0	1.491269E+0	1.455281E+0	1.526257E+0	1.539400E+0	1.545683E+0	1.492198E+0	1.542607E+0	1.492096E+0	1.659261E+0	1.513999E+0	1.508273E+0	1.504822E+0	1.536896E+0	1.542485E+0	1.405350E+0
5.378110E+2	1.778410E+0	1.680797E+0	1.735019E+0	1.723794E+0	1.700165E+0	1.647643E+0	1.755499E+0	1.741563E+0	1.684647E+0	1.689736E+0	1.704228E+0	1.774158E+0	1.754910E+0	1.686753E+0	1.787895E+0	1.706971E+0	1.779379E+0	1.734007E+0	1.765427E+0	1.715441E+0	1.729660E+0	1.769769E+0	1.695045E+0	1.724412E+0	1.710642E+0	1.695833E+0	1.753230E+0	1.714511E+0	1.703392E+0	1.733706E+0	1.852499E+0	1.765286E+0	1.704831E+0	1.712615E+0	1.673237E+0	1.712065E+0	1.845554E+0	1.695819E+0	1.779831E+0	1.623768E+0	1.760759E+0	1.692733E+0	1.720263E+0	1.736371E+0	1.823660E+0	1.727142E+0	1.664439E+0	1.669775E+0	1.685662E+0	1.773677E+0	1.769967E+0	1.645723E+0	1.663496E+0	1.736969E+0	1.713895E+0	1.787343E+0	1.679645E+0	1.703626E+0	1.734880E+0	1.722375E+0	1.683988E+0	1.833262E+0	1.761529E+0	1.737789E+0	1.656940E+0	1.737809E+0	1.814059E+0	1.695430E+0	1.800065E+0	1.746193E+0	1.697486E+0	1.743533E+0	1.778902E+0	1.738063E+0	1.741559E+0	1.670081E+0	1.797099E+0	1.706539E+0	1.701810E+0	1.726672E+0	1.728314E+0	1.799502E+0	1.693878E+0	1.702041E+0	1.653181E+0	1.670147E+0	1.729787E+0	1.677687E+0	1.792715E+0	1.768261E+0	1.718803E+0	1.800184E+0	1.732908E+0	1.727927E+0	1.756389E+0	1.750927E+0	1.697258E+0	1.761509E+0	1.766433E+0	1.689144E+0	1.668814E+0	1.692915E+0	1.712714E+0	1.681571E+0	1.628089E+0	1.755009E+0	1.695574E+0	1.646546E+0	1.725570E+0	1.744176E+0	1.626179E+0	1.697295E+0	1.733612E+0	1.851622E+0	1.795865E+0	1.663707E+0	1.697125E+0	1.688415E+0	1.671553E+0	1.734168E+0	1.686969E+0	1.763475E+0	1.699981E+0	1.768453E+0	1.783019E+0	1.744793E+0	1.666955E+0	1.666306E+0	1.693224E+0	1.773154E+0	1.707838E+0	1.830215E+0	1.597476E+0	1.689735E+0	1.760001E+0	1.710676E+0	1.707496E+0	1.681258E+0	1.673633E+0	1.718569E+0	1.693635E+0	1.740540E+0	1.736017E+0	1.733972E+0	1.662475E+0	1.762792E+0	1.769499E+0	1.655436E+0	1.703218E+0	1.737794E+0	1.661597E+0	1.822758E+0	1.690663E+0	1.660774E+0	1.758507E+0	1.745353E+0	1.753443E+0	1.793465E+0	1.707324E+0	1.727941E+0	1.678236E+0	1.707447E+0	1.669355E+0	1.754908E+0	1.598094E+0	1.430277E+0
5.380110E+2	1.610188E+0	1.643491E+0	1.633534E+0	1.546358E+0	1.593717E+0	1.640612E+0	1.721141E+0	1.674698E+0	1.596797E+0	1.652802E+0	1.716132E+0	1.573175E+0	1.623610E+0	1.663485E+0	1.614103E+0	1.641161E+0	1.610525E+0	1.578428E+0	1.660621E+0	1.567508E+0	1.556385E+0	1.705972E+0	1.683902E+0	1.654879E+0	1.686912E+0	1.645724E+0	1.624216E+0	1.617417E+0	1.670845E+0	1.620757E+0	1.689015E+0	1.582129E+0	1.571443E+0	1.569871E+0	1.547274E+0	1.615942E+0	1.662040E+0	1.642869E+0	1.561335E+0	1.661466E+0	1.751123E+0	1.616890E+0	1.671291E+0	1.740309E+0	1.559552E+0	1.680781E+0	1.648303E+0	1.629558E+0	1.538425E+0	1.620852E+0	1.521356E+0	1.711911E+0	1.648023E+0	1.663869E+0	1.669935E+0	1.685089E+0	1.736570E+0	1.666947E+0	1.716564E+0	1.621291E+0	1.618827E+0	1.700449E+0	1.637540E+0	1.701709E+0	1.721217E+0	1.639151E+0	1.600395E+0	1.589450E+0	1.570100E+0	1.691862E+0	1.673911E+0	1.608541E+0	1.717148E+0	1.565286E+0	1.616097E+0	1.527099E+0	1.607597E+0	1.629053E+0	1.655087E+0	1.609589E+0	1.692224E+0	1.592519E+0	1.653345E+0	1.559658E+0	1.491519E+0	1.632335E+0	1.596789E+0	1.587009E+0	1.654380E+0	1.640489E+0	1.542071E+0	1.597902E+0	1.596545E+0	1.609567E+0	1.571979E+0	1.646604E+0	1.668421E+0	1.704931E+0	1.616836E+0	1.622708E+0	1.561944E+0	1.591131E+0	1.639549E+0	1.722779E+0	1.593822E+0	1.654617E+0	1.705489E+0	1.635721E+0	1.597447E+0	1.672172E+0	1.672353E+0	1.600346E+0	1.637456E+0	1.694298E+0	1.669599E+0	1.585386E+0	1.587444E+0	1.580604E+0	1.610984E+0	1.651241E+0	1.508169E+0	1.613345E+0	1.660517E+0	1.660261E+0	1.611597E+0	1.565764E+0	1.588943E+0	1.599780E+0	1.614139E+0	1.569755E+0	1.618833E+0	1.630630E+0	1.586294E+0	1.602770E+0	1.634321E+0	1.640533E+0	1.676554E+0	1.605388E+0	1.679083E+0	1.622851E+0	1.638967E+0	1.622265E+0	1.640149E+0	1.556003E+0	1.658525E+0	1.598442E+0	1.627620E+0	1.567028E+0	1.634261E+0	1.564821E+0	1.645960E+0	1.567943E+0	1.558582E+0	1.647679E+0	1.641820E+0	1.654982E+0	1.561845E+0	1.598340E+0	1.539486E+0	1.672372E+0	1.567250E+0	1.602152E+0	1.597363E+0	1.650959E+0	1.580655E+0	1.589792E+0
5.382110E+2	1.441482E+0	1.522197E+0	1.481267E+0	1.500883E+0	1.557812E+0	1.463706E+0	1.548718E+0	1.445316E+0	1.485427E+0	1.510162E+0	1.437442E+0	1.478821E+0	1.418768E+0	1.466999E+0	1.415299E+0	1.548476E+0	1.474730E+0	1.509413E+0	1.478975E+0	1.441041E+0	1.498645E+0	1.483209E+0	1.574393E+0	1.494166E+0	1.408666E+0	1.418894E+0	1.489847E+0	1.344032E+0	1.523521E+0	1.515856E+0	1.682939E+0	1.541391E+0	1.428843E+0	1.547783E+0	1.473951E+0	1.507544E+0	1.543376E+0	1.521840E+0	1.547833E+0	1.455091E+0	1.464598E+0	1.432342E+0	1.446398E+0	1.504499E+0	1.456090E+0	1.496890E+0	1.450873E+0	1.468258E+0	1.416856E+0	1.552850E+0	1.482741E+0	1.436256E+0	1.525875E+0	1.575360E+0	1.475499E+0	1.543962E+0	1.495634E+0	1.462726E+0	1.434327E+0	1.541207E+0	1.507871E+0	1.471554E+0	1.508932E+0	1.517645E+0	1.487537E+0	1.409171E+0	1.491902E+0	1.479241E+0	1.496646E+0	1.507833E+0	1.490136E+0	1.486437E+0	1.518870E+0	1.426023E+0	1.495063E+0	1.492482E+0	1.548224E+0	1.528083E+0	1.599629E+0	1.447864E+0	1.397763E+0	1.518507E+0	1.498637E+0	1.442934E+0	1.419103E+0	1.497345E+0	1.449152E+0	1.433519E+0	1.530577E+0	1.431351E+0	1.433538E+0	1.492726E+0	1.505727E+0	1.434886E+0	1.482446E+0	1.429337E+0	1.435586E+0	1.501109E+0	1.566523E+0	1.486428E+0	1.546879E+0	1.482918E+0	1.437897E+0	1.492343E+0	1.539259E+0	1.410847E+0	1.529826E+0	1.464720E+0	1.521528E+0	1.469736E+0	1.435874E+0	1.481362E+0	1.539561E+0	1.522956E+0	1.512438E+0	1.400348E+0	1.522483E+0	1.454361E+0	1.422276E+0	1.527153E+0	1.373842E+0	1.482768E+0	1.491163E+0	1.466135E+0	1.467832E+0	1.468181E+0	1.526411E+0	1.453524E+0	1.489142E+0	1.462838E+0	1.496392E+0	1.565512E+0	1.463615E+0	1.474979E+0	1.480956E+0	1.540661E+0	1.435286E+0	1.453271E+0	1.418431E+0	1.505437E+0	1.505225E+0	1.531012E+0	1.348615E+0	1.452491E+0	1.370308E+0	1.470272E+0	1.546408E+0	1.457804E+0	1.509002E+0	1.459350E+0	1.512539E+0	1.447597E+0	1.436500E+0	1.428085E+0	1.509230E+0	1.584544E+0	1.454986E+0	1.549512E+0	1.473112E+0	1.501261E+0	1.414223E+0	1.505566E+0	1.444790E+0	1.495947E+0	1.479581E+0	1.265170E+0
5.384110E+2	1.598292E+0	1.520154E+0	1.689205E+0	1.551488E+0	1.675041E+0	1.561520E+0	1.597348E+0	1.539002E+0	1.525964E+0	1.611163E+0	1.613542E+0	1.595005E+0	1.567682E+0	1.549903E+0	1.609232E+0	1.609772E+0	1.599246E+0	1.585429E+0	1.626056E+0	1.551152E+0	1.561543E+0	1.604993E+0	1.572213E+0	1.623272E+0	1.553944E+0	1.555637E+0	1.585828E+0	1.518753E+0	1.639583E+0	1.531768E+0	1.632689E+0	1.577362E+0	1.607993E+0	1.566088E+0	1.576776E+0	1.607123E+0	1.571145E+0	1.586103E+0	1.537255E+0	1.541208E+0	1.567180E+0	1.549658E+0	1.572986E+0	1.632622E+0	1.591180E+0	1.634534E+0	1.587804E+0	1.560428E+0	1.535194E+0	1.576936E+0	1.522722E+0	1.601971E+0	1.496321E+0	1.556074E+0	1.580485E+0	1.494701E+0	1.577163E+0	1.624514E+0	1.594935E+0	1.661679E+0	1.585200E+0	1.583066E+0	1.664491E+0	1.624529E+0	1.527258E+0	1.576628E+0	1.578315E+0	1.655150E+0	1.541511E+0	1.569796E+0	1.543492E+0	1.529861E+0	1.569413E+0	1.526168E+0	1.574168E+0	1.535755E+0	1.632321E+0	1.540234E+0	1.609674E+0	1.535177E+0	1.579167E+0	1.544415E+0	1.565062E+0	1.587211E+0	1.514235E+0	1.557191E+0	1.549292E+0	1.533968E+0	1.572719E+0	1.539450E+0	1.533288E+0	1.553262E+0	1.641405E+0	1.593271E+0	1.551818E+0	1.606188E+0	1.670257E+0	1.613419E+0	1.525045E+0	1.558090E+0	1.532350E+0	1.537004E+0	1.583971E+0	1.593727E+0	1.536436E+0	1.531993E+0	1.500617E+0	1.590828E+0	1.609890E+0	1.521775E+0	1.541947E+0	1.571345E+0	1.581306E+0	1.567499E+0	1.517464E+0	1.520566E+0	1.542541E+0	1.542071E+0	1.609005E+0	1.637715E+0	1.526000E+0	1.510014E+0	1.533730E+0	1.528521E+0	1.493614E+0	1.483299E+0	1.588762E+0	1.566984E+0	1.539333E+0	1.503797E+0	1.611773E+0	1.546237E+0	1.525723E+0	1.600411E+0	1.600867E+0	1.550742E+0	1.546616E+0	1.474733E+0	1.559315E+0	1.617868E+0	1.665401E+0	1.566096E+0	1.576594E+0	1.545421E+0	1.560283E+0	1.516697E+0	1.520504E+0	1.543776E+0	1.531521E+0	1.593783E+0	1.521990E+0	1.456529E+0	1.488649E+0	1.532934E+0	1.661402E+0	1.518723E+0	1.529316E+0	1.553841E+0	1.504182E+0	1.590424E+0	1.516622E+0	1.493605E+0	1.625345E+0	1.592469E+0	1.494434E+0	1.203620E+0
5.386120E+2	1.873768E+0	1.897159E+0	1.870995E+0	1.849507E+0	1.789642E+0	1.904118E+0	1.905061E+0	1.888344E+0	1.808440E+0	1.906724E+0	1.849659E+0	1.866568E+0	1.815111E+0	1.897146E+0	1.862228E+0	1.908224E+0	1.874384E+0	1.798516E+0	1.881150E+0	1.804808E+0	1.764042E+0	1.811721E+0	1.888134E+0	1.857143E+0	1.782550E+0	1.781202E+0	1.884537E+0	1.866489E+0	1.872738E+0	1.931812E+0	1.893623E+0	1.916985E+0	1.790047E+0	1.737631E+0	1.937991E+0	1.822380E+0	1.994173E+0	1.814776E+0	1.850633E+0	1.887659E+0	1.938400E+0	1.816739E+0	1.892061E+0	1.860075E+0	1.882074E+0	1.898340E+0	1.808021E+0	1.908947E+0	1.785705E+0	1.816258E+0	1.822522E+0	1.851458E+0	1.878061E+0	1.877526E+0	1.891507E+0	1.859339E+0	1.864197E+0	1.855876E+0	1.913010E+0	1.801281E+0	1.928894E+0	1.888527E+0	2.003241E+0	1.802921E+0	1.818997E+0	1.831669E+0	1.824648E+0	1.804280E+0	1.904473E+0	1.887576E+0	1.832247E+0	1.827117E+0	1.899250E+0	1.792703E+0	1.875803E+0	1.791504E+0	1.915472E+0	1.821135E+0	1.932629E+0	1.818497E+0	1.816679E+0	1.854814E+0	1.827784E+0	1.769846E+0	1.821770E+0	1.882628E+0	1.835745E+0	1.856220E+0	1.915756E+0	1.845449E+0	1.878738E+0	1.850805E+0	1.827809E+0	1.865817E+0	1.875322E+0	1.937860E+0	1.837164E+0	1.830405E+0	1.898586E+0	1.795896E+0	1.833052E+0	1.927768E+0	1.793458E+0	1.869065E+0	1.900274E+0	1.855808E+0	1.779635E+0	1.837589E+0	1.857604E+0	1.931932E+0	1.791124E+0	1.766105E+0	1.835995E+0	1.828781E+0	1.804165E+0	1.859216E+0	1.938543E+0	1.797253E+0	1.930294E+0	1.775982E+0	1.810804E+0	1.837547E+0	1.950254E+0	1.877821E+0	1.879006E+0	1.802617E+0	1.862283E+0	1.799623E+0	1.862646E+0	1.794085E+0	1.976824E+0	1.841759E+0	1.843942E+0	1.827243E+0	1.880671E+0	1.779002E+0	1.852353E+0	1.809628E+0	1.905767E+0	1.849648E+0	1.855261E+0	1.861328E+0	1.887919E+0	1.740434E+0	1.857506E+0	1.855769E+0	1.886143E+0	1.855381E+0	1.833515E+0	1.791227E+0	1.782822E+0	1.746984E+0	1.804557E+0	1.816699E+0	1.798958E+0	1.916988E+0	1.728301E+0	1.804401E+0	1.768449E+0	1.780098E+0	1.898750E+0	1.813803E+0	1.878977E+0	1.871737E+0	1.742870E+0	1.710827E+0
5.388180E+2	2.162464E+0	2.211074E+0	2.176642E+0	2.139508E+0	2.237267E+0	2.163894E+0	2.330978E+0	2.288369E+0	2.216444E+0	2.166774E+0	2.287416E+0	2.202872E+0	2.231252E+0	2.223588E+0	2.190337E+0	2.160278E+0	2.307515E+0	2.153484E+0	2.268612E+0	2.145864E+0	2.224912E+0	2.236046E+0	2.178892E+0	2.252409E+0	2.199504E+0	2.186697E+0	2.184496E+0	2.202718E+0	2.215365E+0	2.175337E+0	2.250873E+0	2.144869E+0	2.165458E+0	2.195162E+0	2.103277E+0	2.298984E+0	2.277185E+0	2.269021E+0	2.254745E+0	2.189625E+0	2.349817E+0	2.134743E+0	2.201614E+0	2.255331E+0	2.102267E+0	2.285168E+0	2.206161E+0	2.282191E+0	2.149051E+0	2.179522E+0	2.223388E+0	2.152808E+0	2.217598E+0	2.296331E+0	2.195085E+0	2.217915E+0	2.182343E+0	2.163753E+0	2.140577E+0	2.159045E+0	2.170535E+0	2.161122E+0	2.286051E+0	2.235735E+0	2.199941E+0	2.176402E+0	2.235412E+0	2.192052E+0	2.211938E+0	2.185804E+0	2.219117E+0	2.200788E+0	2.299662E+0	2.166216E+0	2.275152E+0	2.199225E+0	2.152052E+0	2.183883E+0	2.166496E+0	2.099331E+0	2.229459E+0	2.176999E+0	2.229968E+0	2.170175E+0	2.098576E+0	2.223558E+0	2.109339E+0	2.157334E+0	2.281355E+0	2.171316E+0	2.183152E+0	2.169618E+0	2.117275E+0	2.258513E+0	2.269077E+0	2.116274E+0	2.202439E+0	2.269284E+0	2.244417E+0	2.150658E+0	2.215056E+0	2.120207E+0	2.130204E+0	2.168284E+0	2.213725E+0	2.154407E+0	2.225429E+0	2.191955E+0	2.050542E+0	2.132803E+0	2.237992E+0	2.251641E+0	2.202303E+0	2.207200E+0	2.181005E+0	2.227674E+0	2.207105E+0	2.164636E+0	2.197925E+0	2.174714E+0	2.004383E+0	2.191649E+0	2.139710E+0	2.217235E+0	2.203239E+0	2.198719E+0	2.179075E+0	2.127005E+0	2.205423E+0	2.094865E+0	2.208988E+0	2.286989E+0	2.163675E+0	2.101371E+0	2.295828E+0	2.095471E+0	2.180155E+0	2.206696E+0	2.262466E+0	2.159613E+0	2.201660E+0	2.101714E+0	2.271915E+0	2.196209E+0	2.117792E+0	2.195510E+0	2.283726E+0	2.124074E+0	2.236045E+0	2.145419E+0	2.145988E+0	2.217371E+0	2.176170E+0	2.212021E+0	2.155865E+0	2.160481E+0	2.089681E+0	2.183695E+0	2.221698E+0	2.192828E+0	2.163884E+0	2.164913E+0	2.224752E+0	2.189782E+0	2.346070E+0	2.150443E+0
5.390080E+2	1.818462E+0	1.851078E+0	1.872663E+0	1.733910E+0	1.862252E+0	1.734650E+0	1.909877E+0	1.840943E+0	1.788021E+0	1.842852E+0	1.934715E+0	1.849126E+0	1.808646E+0	1.868629E+0	1.853747E+0	1.824134E+0	1.913460E+0	1.834040E+0	1.904692E+0	1.886784E+0	1.835096E+0	1.917690E+0	1.893915E+0	1.906343E+0	1.883029E+0	1.832427E+0	1.893446E+0	1.835131E+0	1.751745E+0	1.837034E+0	1.870935E+0	1.803236E+0	1.770465E+0	1.878494E+0	1.844861E+0	1.757798E+0	1.883777E+0	1.864057E+0	1.868012E+0	1.781576E+0	1.909154E+0	1.751923E+0	1.915174E+0	1.804895E+0	1.846184E+0	1.777032E+0	1.836317E+0	1.834022E+0	1.873334E+0	1.808545E+0	1.822722E+0	1.863056E+0	1.769705E+0	1.856607E+0	1.752435E+0	1.854619E+0	1.800669E+0	1.810226E+0	1.892951E+0	1.708640E+0	1.736623E+0	1.815852E+0	1.884171E+0	1.790421E+0	1.870401E+0	1.799445E+0	1.780462E+0	1.838699E+0	1.875355E+0	1.823850E+0	1.805952E+0	1.871730E+0	1.832545E+0	1.863737E+0	1.822424E+0	1.849596E+0	1.765518E+0	1.836617E+0	1.873789E+0	1.837953E+0	1.827481E+0	1.846143E+0	1.856154E+0	1.858163E+0	1.689298E+0	1.780478E+0	1.782658E+0	1.837987E+0	1.848986E+0	1.870407E+0	1.859519E+0	1.874399E+0	1.776990E+0	1.778434E+0	1.753213E+0	1.733704E+0	1.752504E+0	1.926006E+0	1.791612E+0	1.784473E+0	1.806655E+0	1.783578E+0	1.834175E+0	1.799442E+0	1.841776E+0	1.752708E+0	1.849332E+0	1.824519E+0	1.796677E+0	1.741386E+0	1.860957E+0	1.859527E+0	1.864007E+0	1.783132E+0	1.891779E+0	1.843786E+0	1.751568E+0	1.798535E+0	1.782636E+0	1.830685E+0	1.724498E+0	1.831148E+0	1.879802E+0	1.759636E+0	1.852948E+0	1.713752E+0	1.864148E+0	1.858192E+0	1.834940E+0	1.765059E+0	1.836437E+0	1.883261E+0	1.736807E+0	1.818210E+0	1.892054E+0	1.772671E+0	1.818341E+0	1.827740E+0	1.841527E+0	1.903293E+0	1.798749E+0	1.803549E+0	1.812622E+0	1.723363E+0	1.763102E+0	1.800626E+0	1.786944E+0	1.828614E+0	1.844082E+0	1.742133E+0	1.756365E+0	1.803486E+0	1.865337E+0	1.888639E+0	1.798508E+0	1.810864E+0	1.693921E+0	1.777767E+0	1.790079E+0	1.815541E+0	1.756497E+0	1.759325E+0	1.861770E+0	1.881793E+0	1.731946E+0	1.675063E+0
5.392030E+2	1.390581E+0	1.530024E+0	1.428923E+0	1.485278E+0	1.436292E+0	1.388632E+0	1.442556E+0	1.417623E+0	1.467904E+0	1.461687E+0	1.447649E+0	1.463783E+0	1.389728E+0	1.419868E+0	1.416215E+0	1.411077E+0	1.395263E+0	1.368147E+0	1.464598E+0	1.459153E+0	1.379722E+0	1.433069E+0	1.472701E+0	1.451974E+0	1.421174E+0	1.320299E+0	1.445495E+0	1.414792E+0	1.446445E+0	1.497887E+0	1.502589E+0	1.466955E+0	1.338728E+0	1.412981E+0	1.374051E+0	1.505226E+0	1.506851E+0	1.391852E+0	1.438092E+0	1.473797E+0	1.441319E+0	1.458282E+0	1.489976E+0	1.403844E+0	1.443833E+0	1.399776E+0	1.485291E+0	1.399596E+0	1.510140E+0	1.501713E+0	1.396406E+0	1.446180E+0	1.433228E+0	1.468778E+0	1.497603E+0	1.422666E+0	1.487769E+0	1.408418E+0	1.451383E+0	1.481190E+0	1.409527E+0	1.458881E+0	1.450734E+0	1.415428E+0	1.416855E+0	1.424898E+0	1.571982E+0	1.506027E+0	1.464954E+0	1.418981E+0	1.392603E+0	1.396698E+0	1.485536E+0	1.386546E+0	1.428865E+0	1.380080E+0	1.411338E+0	1.455614E+0	1.429745E+0	1.466479E+0	1.403324E+0	1.436269E+0	1.440026E+0	1.369875E+0	1.460358E+0	1.398732E+0	1.388611E+0	1.450815E+0	1.467842E+0	1.418250E+0	1.577441E+0	1.340409E+0	1.425721E+0	1.466187E+0	1.480598E+0	1.420007E+0	1.501739E+0	1.423165E+0	1.452146E+0	1.472785E+0	1.476546E+0	1.446048E+0	1.360795E+0	1.480861E+0	1.502015E+0	1.405792E+0	1.500777E+0	1.396489E+0	1.410967E+0	1.392318E+0	1.436270E+0	1.415863E+0	1.355305E+0	1.487548E+0	1.501299E+0	1.501591E+0	1.437464E+0	1.393018E+0	1.449566E+0	1.449097E+0	1.305401E+0	1.475859E+0	1.413069E+0	1.422556E+0	1.481969E+0	1.418354E+0	1.450291E+0	1.438544E+0	1.443573E+0	1.430414E+0	1.470892E+0	1.505761E+0	1.413349E+0	1.392369E+0	1.497450E+0	1.423995E+0	1.538200E+0	1.424453E+0	1.445276E+0	1.520879E+0	1.438358E+0	1.325296E+0	1.505142E+0	1.355632E+0	1.449662E+0	1.391181E+0	1.489670E+0	1.427920E+0	1.523914E+0	1.331681E+0	1.426186E+0	1.440591E+0	1.452049E+0	1.464438E+0	1.414405E+0	1.450565E+0	1.398281E+0	1.551357E+0	1.371283E+0	1.429741E+0	1.365617E+0	1.433785E+0	1.513913E+0	1.353270E+0	1.325783E+0	1.349107E+0
5.394100E+2	1.025418E+0	1.031099E+0	1.047361E+0	9.769917E-1	1.050058E+0	1.009783E+0	1.061098E+0	9.897157E-1	9.757904E-1	1.018041E+0	1.106683E+0	1.058409E+0	1.036945E+0	1.034654E+0	1.000143E+0	1.045954E+0	9.995046E-1	9.838559E-1	1.008322E+0	1.010718E+0	9.719119E-1	1.029405E+0	1.068132E+0	1.037285E+0	1.085445E+0	1.026221E+0	1.018631E+0	9.639045E-1	1.008420E+0	1.014217E+0	1.091296E+0	1.036413E+0	1.014363E+0	1.028350E+0	1.012658E+0	1.008815E+0	1.092682E+0	1.005260E+0	9.965363E-1	1.061663E+0	1.049983E+0	9.953723E-1	1.027790E+0	1.046113E+0	1.054285E+0	9.358729E-1	1.086195E+0	1.025369E+0	1.025156E+0	1.035623E+0	1.004846E+0	1.048784E+0	1.046869E+0	1.035793E+0	1.012214E+0	9.748714E-1	1.006240E+0	1.016481E+0	1.050157E+0	1.027833E+0	9.609374E-1	1.062749E+0	1.005432E+0	1.054747E+0	9.772183E-1	9.907872E-1	1.031825E+0	1.042859E+0	9.953663E-1	9.713745E-1	1.008197E+0	1.049318E+0	1.048738E+0	9.708206E-1	1.041641E+0	9.607046E-1	1.020613E+0	9.922803E-1	1.010922E+0	9.774641E-1	9.732633E-1	9.786168E-1	1.006368E+0	1.027586E+0	9.789249E-1	9.910887E-1	9.485953E-1	1.007122E+0	1.025521E+0	1.052797E+0	1.031701E+0	1.011544E+0	9.757572E-1	1.031444E+0	9.908856E-1	9.271081E-1	1.021794E+0	1.049656E+0	1.150529E+0	1.006196E+0	1.010644E+0	9.505442E-1	9.930565E-1	1.048244E+0	1.036970E+0	1.009050E+0	1.083738E+0	9.811364E-1	9.899920E-1	9.713668E-1	1.050095E+0	1.044428E+0	1.013526E+0	9.839201E-1	1.000319E+0	1.011366E+0	1.019302E+0	9.652423E-1	1.090880E+0	1.090392E+0	9.835425E-1	9.404969E-1	1.020279E+0	1.015357E+0	1.002873E+0	1.017377E+0	9.819198E-1	9.578144E-1	9.950221E-1	1.027318E+0	1.020702E+0	9.871553E-1	1.072193E+0	9.975218E-1	1.021158E+0	1.005696E+0	1.023341E+0	9.763553E-1	1.017713E+0	1.051850E+0	9.641867E-1	1.054948E+0	9.930956E-1	1.019490E+0	1.009162E+0	9.929835E-1	1.106561E+0	9.489844E-1	1.078894E+0	9.949648E-1	1.006423E+0	1.037446E+0	9.877045E-1	1.037986E+0	9.969906E-1	1.010936E+0	1.046158E+0	9.908376E-1	9.797221E-1	9.872455E-1	1.036128E+0	9.882215E-1	1.031190E+0	1.082557E+0	9.577017E-1	9.086033E-1
5.396110E+2	8.916618E-1	9.292882E-1	9.098191E-1	8.968018E-1	8.623916E-1	9.061099E-1	9.441861E-1	8.852027E-1	9.171745E-1	8.940236E-1	9.445730E-1	8.863203E-1	9.102293E-1	9.122627E-1	8.983143E-1	9.640485E-1	9.007595E-1	8.953426E-1	9.604895E-1	9.589034E-1	9.278218E-1	9.290588E-1	8.702769E-1	8.443773E-1	9.219267E-1	8.848405E-1	9.066154E-1	9.129168E-1	9.067741E-1	9.150499E-1	9.540406E-1	8.789027E-1	8.994756E-1	1.005389E+0	9.424220E-1	9.165531E-1	9.691345E-1	9.163592E-1	8.715495E-1	9.379104E-1	9.444352E-1	9.328335E-1	8.478422E-1	8.945520E-1	8.678997E-1	9.409493E-1	8.648119E-1	9.234533E-1	8.867196E-1	9.446596E-1	9.251952E-1	9.191493E-1	8.868312E-1	1.004177E+0	8.599293E-1	9.435305E-1	8.954973E-1	9.050276E-1	9.440009E-1	9.057034E-1	9.064291E-1	8.876334E-1	9.150954E-1	9.546748E-1	9.151311E-1	8.946685E-1	9.066510E-1	9.167442E-1	9.712702E-1	9.544370E-1	8.767360E-1	1.019356E+0	9.070958E-1	8.948501E-1	8.852559E-1	8.817229E-1	9.131115E-1	8.950211E-1	8.991798E-1	8.890522E-1	8.934831E-1	8.453758E-1	9.076019E-1	8.568262E-1	8.440878E-1	9.161620E-1	9.042081E-1	9.732710E-1	8.938833E-1	8.770611E-1	9.046652E-1	9.335326E-1	9.340847E-1	9.386284E-1	8.808224E-1	9.015785E-1	9.302798E-1	9.424002E-1	8.473402E-1	9.410712E-1	8.903582E-1	9.292815E-1	9.430589E-1	9.094430E-1	9.324378E-1	9.159682E-1	9.656119E-1	9.129919E-1	8.769468E-1	8.921532E-1	9.282672E-1	9.038406E-1	8.846471E-1	8.439033E-1	8.502885E-1	9.269866E-1	8.695948E-1	9.335174E-1	8.885260E-1	9.714987E-1	8.827532E-1	9.317152E-1	9.364596E-1	9.468594E-1	8.863093E-1	9.107505E-1	8.958663E-1	9.188241E-1	9.083915E-1	8.872899E-1	9.177331E-1	9.106003E-1	8.966191E-1	9.135428E-1	8.716616E-1	8.818025E-1	8.674689E-1	9.317139E-1	9.125881E-1	9.772627E-1	9.378408E-1	9.188237E-1	9.312944E-1	9.420078E-1	9.289812E-1	8.169500E-1	8.588067E-1	8.698375E-1	9.644561E-1	9.328908E-1	9.769112E-1	9.578191E-1	9.085559E-1	9.140933E-1	9.718184E-1	9.169871E-1	9.239332E-1	8.922216E-1	8.947283E-1	8.967667E-1	9.125349E-1	9.188745E-1	9.966958E-1	8.959252E-1	9.084793E-1	6.922334E-1
5.398120E+2	9.653726E-1	9.800747E-1	9.584364E-1	9.527258E-1	1.011885E+0	9.828659E-1	9.406092E-1	9.971847E-1	9.609780E-1	1.024886E+0	8.972784E-1	9.948276E-1	9.262720E-1	9.553934E-1	9.161355E-1	9.884197E-1	1.019598E+0	9.047364E-1	1.001464E+0	9.624900E-1	9.400675E-1	9.994842E-1	9.500256E-1	9.713185E-1	9.831752E-1	9.670526E-1	9.515166E-1	9.330638E-1	9.591061E-1	8.702346E-1	9.435228E-1	9.326728E-1	9.200048E-1	9.067172E-1	9.556996E-1	9.306327E-1	9.354731E-1	9.699801E-1	9.939175E-1	1.024937E+0	1.000273E+0	9.525827E-1	1.010343E+0	9.771559E-1	9.187656E-1	9.636968E-1	9.357858E-1	1.052766E+0	9.486031E-1	9.730072E-1	9.368871E-1	9.964697E-1	9.662322E-1	9.401355E-1	9.066740E-1	9.700386E-1	1.025077E+0	9.518251E-1	1.020840E+0	9.372044E-1	9.746557E-1	1.008735E+0	1.049180E+0	1.042521E+0	9.453038E-1	9.279300E-1	9.745818E-1	9.621489E-1	9.742197E-1	8.920266E-1	9.279076E-1	9.998908E-1	1.012874E+0	9.320524E-1	9.039632E-1	9.464417E-1	9.329442E-1	1.003948E+0	9.186808E-1	9.184841E-1	9.702211E-1	9.786118E-1	9.161413E-1	9.112458E-1	8.966799E-1	9.859561E-1	9.617610E-1	9.230647E-1	9.105572E-1	9.878783E-1	9.295818E-1	9.144773E-1	9.175961E-1	9.934008E-1	9.457766E-1	9.884772E-1	9.644564E-1	1.000686E+0	9.467724E-1	9.084990E-1	9.261397E-1	9.441186E-1	9.134396E-1	9.313949E-1	8.982236E-1	9.087571E-1	9.961810E-1	9.644324E-1	9.144007E-1	9.437332E-1	9.343862E-1	9.051666E-1	9.622081E-1	1.065285E+0	1.080033E+0	9.688984E-1	9.701166E-1	9.621401E-1	1.030264E+0	9.665203E-1	9.239342E-1	9.982871E-1	1.016387E+0	9.063587E-1	9.334381E-1	9.784261E-1	9.880953E-1	9.804206E-1	8.861970E-1	9.309159E-1	1.004481E+0	9.997802E-1	1.000850E+0	9.574534E-1	9.994905E-1	9.499579E-1	9.520845E-1	9.399750E-1	1.008602E+0	1.000732E+0	9.545090E-1	9.808282E-1	9.819091E-1	1.005831E+0	9.417534E-1	8.781927E-1	9.929672E-1	9.043654E-1	1.032698E+0	9.637093E-1	9.971332E-1	9.419648E-1	9.833394E-1	9.541201E-1	1.049752E+0	9.804070E-1	9.278894E-1	9.924827E-1	9.410328E-1	1.021322E+0	9.240130E-1	9.545168E-1	1.011658E+0	8.624363E-1	9.485906E-1	1.034956E+0
5.400460E+2	1.063393E+0	9.881846E-1	1.031837E+0	1.052182E+0	9.982050E-1	9.699686E-1	1.065269E+0	1.034239E+0	1.064303E+0	1.083328E+0	1.015720E+0	1.029946E+0	1.038760E+0	1.029082E+0	1.067698E+0	1.084486E+0	1.030423E+0	1.034417E+0	1.063064E+0	1.123983E+0	1.034176E+0	1.018037E+0	1.024514E+0	1.063641E+0	1.078930E+0	1.086902E+0	1.053510E+0	1.034027E+0	1.073742E+0	9.954425E-1	1.080571E+0	1.051036E+0	1.081816E+0	1.094359E+0	9.783901E-1	9.985465E-1	1.022990E+0	1.024576E+0	1.063367E+0	9.824352E-1	1.055991E+0	9.913859E-1	9.820009E-1	1.013539E+0	9.862595E-1	1.011438E+0	1.036904E+0	1.045775E+0	1.051093E+0	1.054394E+0	9.781717E-1	1.016047E+0	9.903724E-1	1.031582E+0	1.023581E+0	1.081073E+0	1.041623E+0	1.040318E+0	1.043362E+0	1.070341E+0	1.033664E+0	1.042927E+0	9.650667E-1	1.075434E+0	1.088637E+0	1.030675E+0	1.014782E+0	1.038151E+0	1.076085E+0	1.078134E+0	9.882228E-1	1.008529E+0	1.065801E+0	1.032335E+0	1.062291E+0	1.083215E+0	1.037170E+0	1.025136E+0	1.087168E+0	9.924129E-1	1.017883E+0	1.044962E+0	1.046986E+0	1.000307E+0	1.024853E+0	1.033815E+0	9.969188E-1	1.001397E+0	1.084856E+0	1.044029E+0	1.040534E+0	9.804027E-1	1.011135E+0	1.040338E+0	1.011991E+0	1.024397E+0	1.029183E+0	1.044253E+0	1.006912E+0	9.998705E-1	1.073521E+0	1.005155E+0	1.067940E+0	1.057470E+0	1.067022E+0	1.043825E+0	1.044270E+0	1.026642E+0	1.091804E+0	1.079815E+0	1.002260E+0	1.121595E+0	9.954931E-1	9.996107E-1	9.896486E-1	1.055936E+0	1.004340E+0	1.019301E+0	1.080665E+0	1.013553E+0	1.027258E+0	1.105901E+0	1.051623E+0	1.035500E+0	1.062086E+0	1.033962E+0	1.038174E+0	1.021395E+0	9.912115E-1	1.020579E+0	1.046769E+0	9.797772E-1	9.575961E-1	1.046677E+0	1.097241E+0	1.078258E+0	1.014768E+0	1.058439E+0	1.013233E+0	1.091630E+0	1.041213E+0	1.028007E+0	1.057123E+0	1.022907E+0	1.013850E+0	9.942364E-1	1.075136E+0	9.891298E-1	1.039543E+0	1.035311E+0	1.052986E+0	1.006632E+0	9.383336E-1	1.026827E+0	1.082697E+0	1.055747E+0	1.016284E+0	1.009158E+0	1.018885E+0	1.008968E+0	1.077422E+0	1.094525E+0	1.063681E+0	1.039017E+0	1.067783E+0	9.998042E-1
5.402160E+2	7.404991E-1	8.005534E-1	7.385478E-1	6.728604E-1	7.412224E-1	7.735602E-1	8.257033E-1	7.673035E-1	7.567659E-1	6.785136E-1	7.959948E-1	7.817221E-1	7.087710E-1	7.430880E-1	7.720134E-1	7.533755E-1	7.653501E-1	7.641299E-1	7.466136E-1	8.173344E-1	7.673488E-1	8.184760E-1	7.233536E-1	7.564187E-1	7.481680E-1	7.931725E-1	7.865732E-1	6.859326E-1	7.794319E-1	7.578090E-1	7.748461E-1	7.721376E-1	7.961554E-1	7.763375E-1	7.496610E-1	7.073468E-1	7.722071E-1	7.050915E-1	7.372789E-1	7.933677E-1	7.744893E-1	7.129122E-1	7.611830E-1	7.472601E-1	7.761902E-1	7.640312E-1	7.242071E-1	7.401750E-1	7.318525E-1	7.133887E-1	7.418681E-1	8.213530E-1	7.851955E-1	7.802596E-1	7.791535E-1	8.300871E-1	8.007475E-1	7.620501E-1	7.625260E-1	8.026654E-1	7.765487E-1	7.788910E-1	7.450560E-1	8.151314E-1	7.152644E-1	7.434387E-1	7.058391E-1	7.720522E-1	7.312684E-1	6.995806E-1	7.701960E-1	8.504865E-1	7.673885E-1	7.918338E-1	7.227885E-1	7.264295E-1	7.695591E-1	7.597005E-1	7.652014E-1	7.246342E-1	7.748719E-1	7.621265E-1	7.591419E-1	7.061145E-1	7.078420E-1	7.511145E-1	7.496068E-1	7.632529E-1	7.881536E-1	7.639001E-1	7.274436E-1	7.652288E-1	7.653061E-1	7.285524E-1	7.480435E-1	8.020589E-1	7.827835E-1	7.150547E-1	7.447407E-1	7.303683E-1	7.245034E-1	7.061146E-1	7.178194E-1	7.650377E-1	7.448949E-1	7.740202E-1	8.032858E-1	7.894335E-1	7.155089E-1	7.939121E-1	7.219445E-1	8.077646E-1	7.334818E-1	8.004586E-1	7.773582E-1	7.459246E-1	7.002614E-1	7.414866E-1	7.355462E-1	7.737005E-1	6.986102E-1	7.393185E-1	8.222964E-1	7.281364E-1	7.059113E-1	7.625039E-1	7.257153E-1	7.947592E-1	7.642938E-1	7.754771E-1	6.987685E-1	8.003056E-1	7.919237E-1	7.360373E-1	7.344595E-1	7.875474E-1	7.474258E-1	6.778722E-1	7.865380E-1	7.496755E-1	6.989155E-1	7.545399E-1	7.616741E-1	7.786277E-1	7.439492E-1	7.732447E-1	7.321054E-1	6.892512E-1	8.357164E-1	7.646989E-1	7.653952E-1	7.001502E-1	7.331674E-1	7.276401E-1	8.213243E-1	8.032268E-1	7.321930E-1	7.188340E-1	7.670805E-1	7.991376E-1	7.594227E-1	7.442866E-1	7.985031E-1	7.492876E-1	8.097776E-1	6.805261E-1
5.404070E+2	4.989788E-1	6.022241E-1	5.514210E-1	5.443101E-1	5.281289E-1	5.555065E-1	5.972221E-1	5.600255E-1	5.119608E-1	5.394133E-1	5.514145E-1	5.777935E-1	5.819895E-1	5.260999E-1	4.691305E-1	5.017754E-1	5.654323E-1	5.222614E-1	5.186300E-1	5.722811E-1	5.176206E-1	5.416273E-1	5.131557E-1	5.194136E-1	5.157720E-1	5.307473E-1	5.534681E-1	5.345674E-1	5.261094E-1	5.823201E-1	5.359079E-1	5.384754E-1	5.383612E-1	5.257357E-1	5.275052E-1	5.354898E-1	4.952111E-1	5.274558E-1	5.926984E-1	5.641709E-1	5.926251E-1	5.269280E-1	5.243269E-1	4.724924E-1	5.144364E-1	5.225418E-1	5.819169E-1	5.727911E-1	5.109494E-1	5.418848E-1	5.410702E-1	5.553512E-1	4.995408E-1	5.558799E-1	5.282831E-1	5.622340E-1	5.535442E-1	5.802187E-1	5.669280E-1	5.508917E-1	5.378765E-1	5.643850E-1	5.268671E-1	5.583522E-1	5.141202E-1	5.348465E-1	5.093255E-1	5.682722E-1	5.474385E-1	5.673060E-1	4.968470E-1	5.637717E-1	5.867923E-1	5.085439E-1	5.288567E-1	5.598352E-1	5.131484E-1	5.484568E-1	5.318859E-1	5.402923E-1	5.216718E-1	5.596463E-1	5.597082E-1	4.853939E-1	5.596505E-1	5.372276E-1	4.939987E-1	5.405164E-1	5.571465E-1	5.568727E-1	5.487123E-1	5.460334E-1	6.118233E-1	5.005944E-1	5.574470E-1	5.075420E-1	5.670227E-1	5.456719E-1	5.230465E-1	5.443312E-1	5.345425E-1	5.269424E-1	4.910792E-1	5.212189E-1	5.320963E-1	5.381268E-1	5.792401E-1	5.742668E-1	4.800068E-1	5.654470E-1	5.164277E-1	5.621226E-1	5.385133E-1	5.549409E-1	5.131170E-1	5.458390E-1	5.324245E-1	5.103018E-1	5.423414E-1	6.074188E-1	5.196825E-1	6.050988E-1	5.582974E-1	5.556423E-1	5.577794E-1	5.210600E-1	5.205304E-1	5.542877E-1	5.640038E-1	5.821230E-1	6.129131E-1	5.760228E-1	4.519504E-1	5.314417E-1	5.507494E-1	5.199956E-1	5.764762E-1	5.344958E-1	5.515488E-1	5.830298E-1	5.487379E-1	5.371218E-1	5.856942E-1	5.694020E-1	5.471509E-1	4.454847E-1	5.428011E-1	5.294394E-1	4.880811E-1	4.655515E-1	5.505228E-1	5.440812E-1	4.994016E-1	5.577754E-1	6.120791E-1	5.414230E-1	5.626988E-1	5.311450E-1	5.677289E-1	5.166994E-1	5.478653E-1	5.496527E-1	5.615685E-1	6.712692E-1	5.222820E-1	4.337156E-1
5.406030E+2	3.378750E-1	3.563306E-1	3.784330E-1	3.230273E-1	3.834074E-1	3.722137E-1	3.747832E-1	3.410638E-1	3.752469E-1	3.883277E-1	3.876514E-1	3.680748E-1	3.331812E-1	3.022412E-1	3.215590E-1	3.584985E-1	3.482731E-1	3.479893E-1	3.929448E-1	3.558712E-1	3.644669E-1	3.732809E-1	3.111647E-1	3.383373E-1	3.690169E-1	3.554433E-1	3.821525E-1	3.455955E-1	3.532740E-1	3.729805E-1	3.687501E-1	3.847251E-1	3.388482E-1	3.275798E-1	3.756755E-1	4.020027E-1	3.534284E-1	3.824727E-1	3.447188E-1	3.837839E-1	3.888747E-1	3.500284E-1	3.373016E-1	3.631133E-1	3.697559E-1	3.466786E-1	3.491112E-1	3.951784E-1	3.475898E-1	3.468334E-1	3.411065E-1	3.869575E-1	3.784035E-1	3.695369E-1	3.521917E-1	3.373374E-1	3.404889E-1	4.087876E-1	4.273149E-1	3.586810E-1	3.574826E-1	3.816808E-1	3.703209E-1	3.557663E-1	3.515798E-1	3.770240E-1	3.642459E-1	3.705037E-1	3.827435E-1	3.547808E-1	3.437507E-1	3.381915E-1	3.477310E-1	3.437352E-1	3.771924E-1	3.556914E-1	3.711505E-1	3.918682E-1	3.684929E-1	3.934744E-1	3.896003E-1	3.779094E-1	3.346567E-1	3.810279E-1	3.617584E-1	3.791913E-1	3.478180E-1	3.865278E-1	3.540718E-1	3.693454E-1	3.311612E-1	3.619196E-1	3.670489E-1	3.409487E-1	3.482244E-1	3.830252E-1	3.656868E-1	3.473086E-1	3.021696E-1	3.706178E-1	3.742661E-1	3.744040E-1	3.795156E-1	3.803025E-1	3.591364E-1	3.211697E-1	4.182996E-1	3.616135E-1	3.416665E-1	3.617596E-1	4.032173E-1	3.797655E-1	3.609618E-1	3.598901E-1	3.387181E-1	4.035613E-1	3.803883E-1	3.834576E-1	3.675631E-1	3.533573E-1	3.335172E-1	3.573060E-1	3.232197E-1	3.931658E-1	3.364913E-1	4.015786E-1	3.355711E-1	3.948013E-1	3.946647E-1	3.835322E-1	3.905354E-1	3.791148E-1	3.448664E-1	3.492916E-1	3.833741E-1	3.444890E-1	3.754797E-1	3.892012E-1	3.487663E-1	3.781023E-1	3.860743E-1	3.336730E-1	3.609275E-1	3.642098E-1	3.459869E-1	3.646596E-1	4.154557E-1	3.584934E-1	4.181439E-1	3.527029E-1	3.354648E-1	3.892257E-1	3.627729E-1	3.307105E-1	3.771910E-1	3.722081E-1	3.939357E-1	3.778169E-1	4.180736E-1	3.474419E-1	3.722432E-1	3.503853E-1	3.612276E-1	3.925952E-1	3.836785E-1	3.002172E-1
5.408060E+2	3.823987E-1	3.788283E-1	4.290323E-1	3.843970E-1	3.394113E-1	4.151088E-1	3.760121E-1	3.971678E-1	3.829398E-1	3.977285E-1	3.840680E-1	3.850249E-1	3.984346E-1	4.050456E-1	3.967640E-1	3.674434E-1	3.718979E-1	4.223521E-1	4.003171E-1	4.316253E-1	3.957306E-1	4.264117E-1	3.908835E-1	3.661792E-1	3.969014E-1	4.276912E-1	4.274768E-1	4.061824E-1	3.716010E-1	4.149254E-1	4.070564E-1	3.716869E-1	4.101958E-1	3.861831E-1	3.649099E-1	3.738715E-1	4.194161E-1	4.111302E-1	3.426245E-1	3.826089E-1	3.990578E-1	4.282299E-1	3.891893E-1	3.988224E-1	3.942602E-1	4.175288E-1	3.977444E-1	4.050203E-1	3.554830E-1	3.895444E-1	4.092644E-1	3.809117E-1	3.792715E-1	4.296432E-1	3.593568E-1	3.677207E-1	3.970373E-1	4.166226E-1	3.827088E-1	3.708365E-1	3.214584E-1	4.021257E-1	3.698797E-1	3.991454E-1	3.679896E-1	3.615090E-1	4.121447E-1	3.659594E-1	4.303955E-1	3.860200E-1	3.849945E-1	4.092870E-1	4.264688E-1	4.156593E-1	4.147307E-1	3.763977E-1	3.778876E-1	4.076688E-1	3.956873E-1	3.704031E-1	4.104223E-1	4.062970E-1	4.495046E-1	4.024750E-1	3.494318E-1	3.739351E-1	3.852131E-1	3.727592E-1	3.879370E-1	3.989605E-1	3.750785E-1	4.400143E-1	4.144145E-1	3.890722E-1	3.944580E-1	3.672833E-1	4.146315E-1	3.839731E-1	4.252951E-1	4.000708E-1	4.077850E-1	4.178065E-1	3.386365E-1	3.432755E-1	3.691198E-1	4.138204E-1	3.767289E-1	3.830746E-1	3.857855E-1	4.029904E-1	4.294333E-1	4.048437E-1	3.612096E-1	3.994577E-1	3.847806E-1	3.639897E-1	3.986479E-1	3.869548E-1	3.916981E-1	4.084507E-1	3.658945E-1	3.789231E-1	3.928486E-1	3.635714E-1	3.932203E-1	3.387403E-1	3.563885E-1	3.940735E-1	3.853918E-1	3.931697E-1	3.993423E-1	3.959995E-1	4.029720E-1	4.012407E-1	3.859630E-1	3.565958E-1	4.236355E-1	3.979061E-1	4.083352E-1	3.953421E-1	4.440153E-1	3.786365E-1	3.834494E-1	4.010699E-1	3.825665E-1	3.576432E-1	4.245838E-1	4.355360E-1	3.934915E-1	3.995082E-1	3.658608E-1	4.068975E-1	3.782498E-1	3.831861E-1	4.233899E-1	3.804075E-1	4.089670E-1	4.200214E-1	3.737489E-1	3.618067E-1	4.131183E-1	3.803270E-1	3.658115E-1	3.732399E-1	3.541232E-1	3.692492E-1
5.410190E+2	4.783533E-1	4.935529E-1	4.443330E-1	4.436592E-1	4.531322E-1	4.836954E-1	4.514788E-1	4.688039E-1	5.005570E-1	4.607157E-1	4.671885E-1	5.259073E-1	4.949632E-1	4.980220E-1	4.934879E-1	4.530924E-1	4.215559E-1	5.098696E-1	4.736124E-1	4.768564E-1	4.669029E-1	4.927582E-1	4.996953E-1	4.961127E-1	4.849189E-1	4.671332E-1	4.653907E-1	5.351731E-1	5.253944E-1	5.110419E-1	4.582570E-1	4.742617E-1	4.911544E-1	4.467242E-1	4.761651E-1	4.265040E-1	4.621631E-1	4.614912E-1	4.608052E-1	5.203573E-1	4.690294E-1	4.871771E-1	5.148234E-1	4.098421E-1	4.562620E-1	4.506586E-1	5.080590E-1	4.580993E-1	4.868121E-1	5.352510E-1	4.714186E-1	4.885449E-1	4.833956E-1	4.950732E-1	4.466206E-1	4.508116E-1	4.817965E-1	4.626662E-1	5.256535E-1	4.813222E-1	5.049844E-1	4.245098E-1	4.727400E-1	5.057376E-1	4.828366E-1	4.704349E-1	4.800030E-1	4.889051E-1	4.943935E-1	4.693457E-1	4.543876E-1	5.060588E-1	4.739974E-1	5.079725E-1	4.870155E-1	4.563498E-1	4.666288E-1	4.492749E-1	4.745813E-1	4.874252E-1	4.497870E-1	5.022695E-1	4.504263E-1	4.675639E-1	4.495837E-1	4.758002E-1	4.471330E-1	4.674343E-1	5.050591E-1	4.944478E-1	4.810046E-1	4.769200E-1	5.108759E-1	4.786883E-1	4.431928E-1	5.201192E-1	5.031619E-1	5.391405E-1	4.405245E-1	4.452343E-1	4.025397E-1	4.596767E-1	4.391747E-1	4.643623E-1	4.607800E-1	4.564731E-1	4.860682E-1	4.681413E-1	4.835181E-1	4.865234E-1	4.581856E-1	5.151052E-1	4.841510E-1	4.671916E-1	4.889884E-1	5.163461E-1	4.739048E-1	4.644793E-1	4.739983E-1	5.111880E-1	4.884306E-1	4.714055E-1	5.442047E-1	4.854628E-1	4.665331E-1	4.731702E-1	4.523773E-1	4.997885E-1	4.880594E-1	4.975871E-1	4.702823E-1	4.477129E-1	5.482742E-1	4.752061E-1	4.747776E-1	5.124928E-1	4.639419E-1	5.008978E-1	5.000375E-1	4.763819E-1	4.607220E-1	4.829748E-1	4.701859E-1	4.831421E-1	4.051050E-1	4.548185E-1	5.175550E-1	4.486132E-1	4.944287E-1	4.951573E-1	4.920197E-1	4.671911E-1	4.424913E-1	4.788827E-1	4.645464E-1	5.082245E-1	4.778364E-1	4.655668E-1	4.969342E-1	4.763853E-1	5.401220E-1	4.333407E-1	4.594173E-1	4.625797E-1	4.910147E-1	2.893202E-1
5.415090E+2	5.987844E-1	6.758532E-1	5.984709E-1	5.946090E-1	6.593564E-1	5.841033E-1	6.102549E-1	6.218301E-1	5.852832E-1	6.222549E-1	6.336632E-1	6.287140E-1	6.598206E-1	6.570783E-1	6.196804E-1	5.965077E-1	6.042712E-1	6.350056E-1	6.307729E-1	5.759951E-1	6.330863E-1	6.244805E-1	6.063418E-1	6.212371E-1	6.240508E-1	6.262096E-1	5.830305E-1	5.730488E-1	6.596292E-1	5.999691E-1	6.168020E-1	5.784374E-1	6.176645E-1	6.059165E-1	5.753906E-1	5.651164E-1	5.941362E-1	6.371771E-1	6.437351E-1	6.558450E-1	6.248715E-1	5.721699E-1	6.502777E-1	5.643066E-1	5.736929E-1	6.262926E-1	5.865777E-1	6.302827E-1	6.119386E-1	5.753193E-1	6.102429E-1	5.609075E-1	6.428099E-1	6.381041E-1	5.781328E-1	5.773547E-1	6.361442E-1	6.118525E-1	6.176181E-1	6.332914E-1	5.668635E-1	6.592783E-1	5.429210E-1	6.094854E-1	5.421920E-1	5.800014E-1	6.681343E-1	5.974774E-1	5.862335E-1	6.374110E-1	6.122303E-1	6.241254E-1	6.063665E-1	6.202839E-1	6.244924E-1	5.779409E-1	6.234867E-1	6.176457E-1	6.030205E-1	5.843116E-1	5.933553E-1	5.786844E-1	6.010547E-1	5.636061E-1	5.960524E-1	5.930723E-1	5.975609E-1	6.167853E-1	5.969654E-1	5.605405E-1	5.394595E-1	5.894296E-1	5.903889E-1	6.061312E-1	5.891929E-1	6.540725E-1	5.683349E-1	5.787473E-1	5.690452E-1	6.215403E-1	5.848198E-1	6.480581E-1	6.150585E-1	6.289841E-1	5.940696E-1	6.255018E-1	6.304069E-1	6.327502E-1	6.178950E-1	6.059304E-1	6.269676E-1	5.824956E-1	6.214608E-1	5.793552E-1	6.306379E-1	5.767727E-1	5.466521E-1	6.125634E-1	6.256030E-1	5.995284E-1	6.156250E-1	5.826737E-1	6.310631E-1	5.602384E-1	5.906163E-1	6.462299E-1	6.149718E-1	5.890738E-1	5.973445E-1	5.854131E-1	6.408306E-1	5.800494E-1	5.897023E-1	6.472511E-1	6.160044E-1	5.989088E-1	6.504982E-1	5.743771E-1	6.191342E-1	6.429944E-1	6.001582E-1	6.205487E-1	6.609025E-1	6.183717E-1	5.774629E-1	5.964930E-1	6.629523E-1	5.939747E-1	6.179681E-1	6.106274E-1	5.929480E-1	5.303919E-1	5.752491E-1	6.077060E-1	6.345114E-1	6.089019E-1	5.918015E-1	6.750371E-1	6.177229E-1	5.893430E-1	6.591925E-1	6.218996E-1	6.298131E-1	6.124793E-1	6.791953E-1	6.242816E-1
5.420110E+2	6.425552E-1	6.320952E-1	6.588686E-1	5.582636E-1	6.562879E-1	6.464701E-1	6.585202E-1	6.801590E-1	6.726188E-1	6.536619E-1	6.858056E-1	6.317362E-1	6.382301E-1	6.939721E-1	6.691303E-1	5.957573E-1	6.896475E-1	6.792530E-1	6.414009E-1	6.912479E-1	6.607870E-1	6.936930E-1	6.337583E-1	6.726607E-1	7.037575E-1	6.342167E-1	6.534396E-1	6.937967E-1	6.686270E-1	6.602062E-1	6.513338E-1	6.460488E-1	6.986290E-1	6.797015E-1	6.096070E-1	6.828773E-1	7.257020E-1	7.234851E-1	6.596936E-1	6.779728E-1	6.913820E-1	6.379692E-1	6.310940E-1	6.458765E-1	6.543752E-1	7.391960E-1	6.526488E-1	6.782426E-1	6.537143E-1	6.362449E-1	6.666891E-1	6.269633E-1	6.051749E-1	6.929361E-1	6.654763E-1	6.346820E-1	6.688735E-1	6.525511E-1	6.565009E-1	6.481943E-1	6.205978E-1	6.915335E-1	6.653812E-1	7.023780E-1	6.553822E-1	6.681489E-1	6.671486E-1	6.999057E-1	6.356416E-1	6.223987E-1	5.957682E-1	6.846581E-1	7.095642E-1	6.425509E-1	6.655828E-1	6.233567E-1	6.489628E-1	6.411605E-1	6.633283E-1	7.028927E-1	6.856244E-1	6.821484E-1	6.639077E-1	6.321588E-1	6.426968E-1	6.688568E-1	6.281525E-1	5.765058E-1	7.085610E-1	6.477885E-1	6.506369E-1	7.372037E-1	6.388357E-1	6.431587E-1	6.739436E-1	6.368606E-1	7.302966E-1	6.635988E-1	6.557759E-1	6.692019E-1	6.789218E-1	6.511865E-1	6.790385E-1	6.452596E-1	6.734074E-1	6.698002E-1	6.877079E-1	6.200487E-1	7.147137E-1	7.051825E-1	6.866438E-1	6.255498E-1	7.075324E-1	7.088377E-1	6.735693E-1	6.758898E-1	6.401227E-1	6.411367E-1	6.007070E-1	6.929495E-1	6.369576E-1	6.954921E-1	7.000300E-1	7.042907E-1	7.255344E-1	6.395454E-1	6.461130E-1	6.571918E-1	6.286219E-1	6.485556E-1	6.547029E-1	6.790738E-1	6.837111E-1	6.745261E-1	6.916656E-1	5.979429E-1	6.283133E-1	6.252779E-1	6.275178E-1	6.080877E-1	6.712261E-1	6.290349E-1	6.746186E-1	6.696151E-1	6.627636E-1	6.471097E-1	6.701059E-1	6.374537E-1	6.808010E-1	7.116876E-1	6.884906E-1	6.218015E-1	6.371091E-1	6.804647E-1	6.562578E-1	6.934031E-1	6.896341E-1	6.171916E-1	6.809786E-1	7.060655E-1	6.188412E-1	6.937187E-1	5.896368E-1	6.400724E-1	7.014825E-1	5.586209E-1
5.425510E+2	7.865450E-1	7.926600E-1	7.146018E-1	7.561565E-1	7.497237E-1	7.751551E-1	7.510883E-1	8.097792E-1	7.220203E-1	7.207811E-1	7.812534E-1	7.382253E-1	7.689393E-1	7.620098E-1	7.594502E-1	7.401318E-1	7.756187E-1	7.671786E-1	7.472971E-1	8.108658E-1	7.010660E-1	7.733875E-1	7.382945E-1	7.865979E-1	8.196371E-1	7.781112E-1	7.109322E-1	8.025396E-1	7.922407E-1	7.829067E-1	7.563356E-1	7.635617E-1	7.150452E-1	7.978667E-1	7.594870E-1	7.504503E-1	8.080188E-1	7.425485E-1	7.269141E-1	8.122988E-1	8.058204E-1	6.976114E-1	7.672491E-1	7.646034E-1	7.655885E-1	7.968129E-1	7.919590E-1	7.360625E-1	8.288939E-1	7.242522E-1	7.410402E-1	7.920457E-1	7.784819E-1	7.888268E-1	7.814053E-1	7.004577E-1	7.518012E-1	8.350181E-1	7.774295E-1	8.385493E-1	7.073416E-1	7.677573E-1	7.487446E-1	7.809167E-1	7.688804E-1	7.342073E-1	7.989014E-1	8.180680E-1	7.897988E-1	7.791921E-1	7.843689E-1	7.274396E-1	8.073549E-1	7.492116E-1	7.503025E-1	7.292722E-1	7.847649E-1	8.051864E-1	7.542797E-1	7.348735E-1	7.968829E-1	7.794079E-1	7.630191E-1	7.230998E-1	7.556726E-1	8.209319E-1	7.155720E-1	8.274222E-1	7.784065E-1	7.314373E-1	7.594886E-1	7.643200E-1	8.261827E-1	7.488941E-1	7.902820E-1	7.303170E-1	7.016088E-1	7.514573E-1	7.724721E-1	7.968540E-1	7.853507E-1	7.668711E-1	7.326038E-1	7.743434E-1	7.972943E-1	7.592449E-1	7.772545E-1	7.191603E-1	7.710588E-1	8.396406E-1	7.926235E-1	7.511179E-1	7.853838E-1	7.318844E-1	8.236921E-1	7.611034E-1	8.250858E-1	7.976247E-1	7.771846E-1	7.483169E-1	7.694906E-1	7.464924E-1	7.865312E-1	8.074450E-1	7.853280E-1	7.620381E-1	7.520900E-1	7.923203E-1	7.812760E-1	7.017339E-1	7.856307E-1	7.923205E-1	7.968515E-1	7.717943E-1	7.801204E-1	7.866869E-1	8.163115E-1	7.505792E-1	7.774504E-1	8.399323E-1	8.182111E-1	7.103360E-1	7.709838E-1	7.893874E-1	7.207409E-1	7.706221E-1	8.458757E-1	7.674879E-1	8.230423E-1	7.711692E-1	7.956311E-1	7.550191E-1	7.494060E-1	7.651219E-1	6.778944E-1	7.713273E-1	7.787177E-1	6.790835E-1	7.462556E-1	7.934837E-1	7.209995E-1	7.272684E-1	7.758851E-1	7.920999E-1	8.221483E-1	6.702108E-1
5.430070E+2	7.358214E-1	7.504302E-1	7.781075E-1	7.550077E-1	7.067663E-1	7.347530E-1	7.099192E-1	7.699107E-1	7.611411E-1	6.711860E-1	7.396680E-1	7.406591E-1	7.359039E-1	7.381617E-1	7.242618E-1	7.607958E-1	7.922723E-1	7.213013E-1	7.604395E-1	6.938484E-1	7.575055E-1	7.298352E-1	7.437630E-1	7.257216E-1	7.434249E-1	7.260762E-1	7.275568E-1	7.781635E-1	7.127101E-1	7.720672E-1	7.944325E-1	7.290218E-1	6.931299E-1	7.253002E-1	7.405309E-1	7.216407E-1	7.393343E-1	7.430755E-1	7.313756E-1	7.616976E-1	7.344952E-1	6.968664E-1	6.994994E-1	7.722307E-1	7.341334E-1	7.468579E-1	7.501034E-1	7.289813E-1	7.390802E-1	8.865668E-1	7.396467E-1	6.963497E-1	7.217029E-1	7.888607E-1	7.578145E-1	7.924757E-1	7.026499E-1	7.697391E-1	7.201685E-1	7.673136E-1	7.288183E-1	7.572051E-1	7.522947E-1	6.936497E-1	7.155840E-1	7.593461E-1	7.411356E-1	7.696854E-1	8.018088E-1	7.726090E-1	7.034699E-1	7.628643E-1	7.597369E-1	7.539861E-1	7.778513E-1	7.327675E-1	7.618431E-1	7.588161E-1	7.117759E-1	7.092257E-1	7.667638E-1	8.051162E-1	7.245182E-1	7.369874E-1	7.363973E-1	7.079141E-1	6.852160E-1	6.973739E-1	7.089921E-1	7.184357E-1	7.367080E-1	7.710480E-1	7.537188E-1	7.631299E-1	7.870052E-1	7.419758E-1	7.313045E-1	7.127512E-1	7.958499E-1	6.977044E-1	7.721712E-1	7.215814E-1	6.819488E-1	7.802388E-1	7.812219E-1	7.748771E-1	7.340296E-1	7.780473E-1	7.611793E-1	7.428327E-1	7.810340E-1	7.864385E-1	7.300089E-1	7.645779E-1	7.172835E-1	6.913108E-1	7.464370E-1	7.245656E-1	7.348333E-1	7.998519E-1	7.226699E-1	7.501541E-1	7.550164E-1	8.101932E-1	6.786443E-1	7.787670E-1	7.225647E-1	7.757145E-1	7.554913E-1	7.676120E-1	7.966695E-1	7.501795E-1	7.177296E-1	7.785640E-1	7.911094E-1	7.004129E-1	7.072991E-1	7.269415E-1	7.355132E-1	7.482351E-1	7.593089E-1	7.179324E-1	7.311451E-1	7.594404E-1	7.274091E-1	7.462323E-1	7.062508E-1	7.025571E-1	7.594841E-1	7.512431E-1	7.046986E-1	7.462017E-1	6.975960E-1	7.719370E-1	7.546760E-1	7.738795E-1	7.108451E-1	7.175613E-1	7.301400E-1	8.412832E-1	7.321958E-1	7.379233E-1	6.965378E-1	8.319547E-1	6.137741E-1	6.657467E-1
5.435440E+2	1.015947E+0	1.055742E+0	1.070817E+0	1.036044E+0	9.849533E-1	9.957988E-1	1.061549E+0	9.740098E-1	9.784637E-1	1.009755E+0	9.186659E-1	9.523419E-1	9.524158E-1	1.028605E+0	9.557213E-1	1.009950E+0	1.011601E+0	9.861982E-1	9.927970E-1	1.055406E+0	9.471803E-1	1.066592E+0	9.902447E-1	1.023307E+0	9.861102E-1	1.014825E+0	9.898214E-1	9.503797E-1	1.026912E+0	9.888179E-1	1.040437E+0	1.024750E+0	1.050011E+0	1.040801E+0	9.192536E-1	1.026558E+0	1.004082E+0	9.857052E-1	1.027200E+0	9.706110E-1	1.036096E+0	9.669463E-1	1.000439E+0	1.056570E+0	9.675339E-1	1.002557E+0	9.750621E-1	1.024603E+0	1.015235E+0	1.027365E+0	9.972212E-1	1.001763E+0	9.519717E-1	1.021214E+0	9.848597E-1	1.073971E+0	1.033025E+0	1.016687E+0	1.017495E+0	9.916697E-1	1.060842E+0	1.024271E+0	9.883729E-1	1.059478E+0	9.181167E-1	9.410692E-1	9.724337E-1	1.006792E+0	1.035530E+0	9.792398E-1	9.636614E-1	1.055142E+0	1.066025E+0	9.831008E-1	1.005576E+0	9.970707E-1	1.031677E+0	9.705681E-1	9.975780E-1	9.527421E-1	9.481175E-1	9.674270E-1	9.750797E-1	9.525544E-1	1.002678E+0	9.286945E-1	9.493936E-1	1.022801E+0	1.022644E+0	1.032947E+0	9.740748E-1	9.051522E-1	9.701381E-1	1.021401E+0	9.763286E-1	1.002286E+0	9.490945E-1	1.045228E+0	1.047589E+0	9.895743E-1	1.018809E+0	9.814883E-1	9.718276E-1	1.000564E+0	9.799629E-1	1.009300E+0	9.843047E-1	1.015548E+0	9.881183E-1	9.609821E-1	1.004674E+0	9.781348E-1	9.797789E-1	1.033873E+0	1.029486E+0	9.430546E-1	9.828751E-1	9.977400E-1	9.952380E-1	1.041614E+0	1.031479E+0	9.899745E-1	1.023695E+0	9.501520E-1	9.945419E-1	9.514570E-1	1.000881E+0	1.016904E+0	1.040611E+0	1.075808E+0	9.779392E-1	1.011842E+0	1.039934E+0	9.918179E-1	9.707396E-1	9.306686E-1	9.878888E-1	9.966509E-1	9.964521E-1	1.029489E+0	9.884583E-1	1.002180E+0	1.060566E+0	9.822273E-1	9.790780E-1	9.593875E-1	9.971976E-1	1.068479E+0	1.068844E+0	1.002045E+0	1.005017E+0	1.045190E+0	1.017925E+0	1.004763E+0	1.022249E+0	1.049100E+0	9.929787E-1	1.032256E+0	9.916869E-1	1.002062E+0	9.800129E-1	9.720803E-1	1.012578E+0	9.834954E-1	9.363767E-1	1.025973E+0
5.440010E+2	1.274326E+0	1.321224E+0	1.270138E+0	1.283234E+0	1.282550E+0	1.306927E+0	1.320071E+0	1.344082E+0	1.271388E+0	1.291244E+0	1.297842E+0	1.298898E+0	1.315758E+0	1.262236E+0	1.265188E+0	1.234357E+0	1.358635E+0	1.295791E+0	1.339440E+0	1.326267E+0	1.290526E+0	1.350787E+0	1.269491E+0	1.262755E+0	1.281312E+0	1.317810E+0	1.310269E+0	1.221799E+0	1.268778E+0	1.294263E+0	1.283565E+0	1.345081E+0	1.297599E+0	1.355166E+0	1.229281E+0	1.218043E+0	1.330812E+0	1.284184E+0	1.284620E+0	1.299871E+0	1.352003E+0	1.255950E+0	1.253376E+0	1.251411E+0	1.293643E+0	1.233805E+0	1.238972E+0	1.231235E+0	1.274418E+0	1.286733E+0	1.283174E+0	1.249906E+0	1.336766E+0	1.303575E+0	1.298515E+0	1.287363E+0	1.308627E+0	1.253755E+0	1.347887E+0	1.312149E+0	1.313018E+0	1.322377E+0	1.293772E+0	1.346841E+0	1.354265E+0	1.297871E+0	1.296685E+0	1.353762E+0	1.349238E+0	1.269104E+0	1.218603E+0	1.310362E+0	1.315908E+0	1.357274E+0	1.298341E+0	1.274779E+0	1.251504E+0	1.279561E+0	1.264482E+0	1.220660E+0	1.290237E+0	1.363638E+0	1.336750E+0	1.186743E+0	1.260829E+0	1.367601E+0	1.341882E+0	1.347808E+0	1.300084E+0	1.319797E+0	1.348098E+0	1.239554E+0	1.297759E+0	1.279744E+0	1.272321E+0	1.259048E+0	1.352954E+0	1.191642E+0	1.369207E+0	1.230363E+0	1.273358E+0	1.275532E+0	1.289148E+0	1.294821E+0	1.284258E+0	1.342340E+0	1.307822E+0	1.294390E+0	1.318735E+0	1.294544E+0	1.279331E+0	1.210561E+0	1.258965E+0	1.288615E+0	1.264232E+0	1.307199E+0	1.338171E+0	1.248276E+0	1.222623E+0	1.296816E+0	1.194827E+0	1.259487E+0	1.223254E+0	1.346516E+0	1.306215E+0	1.310155E+0	1.231901E+0	1.284072E+0	1.335253E+0	1.309704E+0	1.282682E+0	1.233449E+0	1.258084E+0	1.331709E+0	1.326965E+0	1.292516E+0	1.263341E+0	1.289219E+0	1.296705E+0	1.322345E+0	1.301779E+0	1.281281E+0	1.282132E+0	1.237801E+0	1.305620E+0	1.272697E+0	1.326959E+0	1.273974E+0	1.306794E+0	1.340686E+0	1.321719E+0	1.312763E+0	1.233843E+0	1.257014E+0	1.282779E+0	1.200786E+0	1.323240E+0	1.348777E+0	1.306906E+0	1.366641E+0	1.286943E+0	1.225864E+0	1.185908E+0	1.199595E+0	1.266401E+0	1.195468E+0
5.445070E+2	1.449683E+0	1.509147E+0	1.400840E+0	1.413470E+0	1.491832E+0	1.440585E+0	1.531151E+0	1.487818E+0	1.424608E+0	1.504972E+0	1.474489E+0	1.488630E+0	1.421634E+0	1.512159E+0	1.428022E+0	1.438767E+0	1.439111E+0	1.383666E+0	1.457852E+0	1.448857E+0	1.482554E+0	1.471914E+0	1.514825E+0	1.459949E+0	1.429516E+0	1.447967E+0	1.522046E+0	1.407515E+0	1.397219E+0	1.488962E+0	1.476440E+0	1.463668E+0	1.430784E+0	1.447480E+0	1.451915E+0	1.439201E+0	1.432478E+0	1.513203E+0	1.483023E+0	1.425136E+0	1.523514E+0	1.458645E+0	1.431153E+0	1.457559E+0	1.417962E+0	1.406562E+0	1.407572E+0	1.496514E+0	1.410969E+0	1.482358E+0	1.456126E+0	1.452409E+0	1.475716E+0	1.495231E+0	1.499544E+0	1.439568E+0	1.459860E+0	1.499095E+0	1.470934E+0	1.375514E+0	1.504346E+0	1.463444E+0	1.357673E+0	1.522486E+0	1.488783E+0	1.384405E+0	1.416683E+0	1.411887E+0	1.455973E+0	1.479100E+0	1.432322E+0	1.485159E+0	1.461657E+0	1.484770E+0	1.415241E+0	1.425673E+0	1.429371E+0	1.460026E+0	1.489778E+0	1.415069E+0	1.517094E+0	1.500164E+0	1.588031E+0	1.394716E+0	1.443605E+0	1.469819E+0	1.526709E+0	1.469650E+0	1.497926E+0	1.435497E+0	1.419471E+0	1.400117E+0	1.472703E+0	1.444733E+0	1.460874E+0	1.405293E+0	1.443345E+0	1.438586E+0	1.501801E+0	1.441099E+0	1.390924E+0	1.442822E+0	1.396937E+0	1.472039E+0	1.469049E+0	1.450270E+0	1.423089E+0	1.420559E+0	1.434368E+0	1.434734E+0	1.421549E+0	1.455297E+0	1.435920E+0	1.459555E+0	1.459254E+0	1.370321E+0	1.468125E+0	1.432458E+0	1.465411E+0	1.459673E+0	1.452305E+0	1.465599E+0	1.401910E+0	1.426368E+0	1.433189E+0	1.472976E+0	1.449942E+0	1.403409E+0	1.482142E+0	1.388996E+0	1.445817E+0	1.407182E+0	1.428486E+0	1.413638E+0	1.496138E+0	1.469301E+0	1.387610E+0	1.446906E+0	1.411064E+0	1.491472E+0	1.459169E+0	1.382841E+0	1.397299E+0	1.366142E+0	1.495480E+0	1.494846E+0	1.437015E+0	1.391386E+0	1.451725E+0	1.399410E+0	1.399693E+0	1.478281E+0	1.383008E+0	1.485888E+0	1.380133E+0	1.445726E+0	1.377935E+0	1.593958E+0	1.429393E+0	1.439846E+0	1.531756E+0	1.433896E+0	1.394598E+0	1.280130E+0	1.341024E+0	1.234780E+0
5.450090E+2	1.176930E+0	1.291175E+0	1.200490E+0	1.142332E+0	1.138726E+0	1.185631E+0	1.178176E+0	1.220129E+0	1.194735E+0	1.171486E+0	1.184700E+0	1.200621E+0	1.142638E+0	1.247073E+0	1.212022E+0	1.234624E+0	1.232031E+0	1.112939E+0	1.257418E+0	1.215795E+0	1.186562E+0	1.270158E+0	1.211204E+0	1.195821E+0	1.139775E+0	1.144406E+0	1.246352E+0	1.207557E+0	1.226093E+0	1.264947E+0	1.248757E+0	1.184712E+0	1.148439E+0	1.188302E+0	1.153103E+0	1.206752E+0	1.264368E+0	1.229939E+0	1.245467E+0	1.184132E+0	1.170813E+0	1.158621E+0	1.172199E+0	1.197824E+0	1.154688E+0	1.215238E+0	1.247416E+0	1.261877E+0	1.190984E+0	1.257489E+0	1.144066E+0	1.265049E+0	1.165488E+0	1.234701E+0	1.218237E+0	1.181623E+0	1.218576E+0	1.241803E+0	1.211411E+0	1.230289E+0	1.174198E+0	1.196085E+0	1.194028E+0	1.206862E+0	1.278108E+0	1.199130E+0	1.226322E+0	1.191241E+0	1.264533E+0	1.226350E+0	1.255202E+0	1.243089E+0	1.238277E+0	1.244246E+0	1.207244E+0	1.285362E+0	1.284406E+0	1.159134E+0	1.226029E+0	1.240962E+0	1.179199E+0	1.192188E+0	1.113928E+0	1.179264E+0	1.074325E+0	1.169750E+0	1.171791E+0	1.245397E+0	1.217727E+0	1.201998E+0	1.159017E+0	1.249134E+0	1.187352E+0	1.143120E+0	1.177347E+0	1.159401E+0	1.185031E+0	1.235251E+0	1.172249E+0	1.204830E+0	1.191805E+0	1.223266E+0	1.192713E+0	1.176550E+0	1.136978E+0	1.298310E+0	1.246455E+0	1.125478E+0	1.249458E+0	1.195637E+0	1.259105E+0	1.148979E+0	1.255875E+0	1.251231E+0	1.156217E+0	1.249936E+0	1.186657E+0	1.174758E+0	1.191284E+0	1.117996E+0	1.131643E+0	1.259481E+0	1.195098E+0	1.194679E+0	1.117031E+0	1.233544E+0	1.243678E+0	1.141177E+0	1.189140E+0	1.165338E+0	1.149663E+0	1.238814E+0	1.176451E+0	1.119127E+0	1.179794E+0	1.168724E+0	1.227126E+0	1.169311E+0	1.218616E+0	1.172100E+0	1.171679E+0	1.182223E+0	1.235087E+0	1.193402E+0	1.224939E+0	1.216449E+0	1.193261E+0	1.090324E+0	1.270829E+0	1.157634E+0	1.185353E+0	1.234086E+0	1.175620E+0	1.223122E+0	1.252437E+0	1.192836E+0	1.221071E+0	1.153570E+0	1.197593E+0	1.132947E+0	1.132534E+0	1.170483E+0	1.162005E+0	1.119378E+0	1.106128E+0	1.280474E+0
5.455020E+2	8.858688E-1	9.638069E-1	9.860842E-1	9.979625E-1	9.607889E-1	9.785776E-1	9.870958E-1	9.717172E-1	9.284696E-1	9.632035E-1	1.042492E+0	9.677257E-1	9.416607E-1	9.694149E-1	9.823111E-1	9.414518E-1	1.002889E+0	9.704221E-1	1.030816E+0	9.618257E-1	9.672926E-1	1.016520E+0	9.826899E-1	1.001474E+0	9.960092E-1	9.639156E-1	1.005702E+0	1.006914E+0	1.003916E+0	9.322842E-1	9.531632E-1	9.742636E-1	1.026660E+0	9.720166E-1	9.973049E-1	9.765537E-1	1.036948E+0	1.041910E+0	9.958092E-1	9.818756E-1	1.033474E+0	8.952956E-1	1.050686E+0	9.906198E-1	9.763204E-1	9.886045E-1	9.662096E-1	9.697009E-1	9.887390E-1	9.692175E-1	9.588068E-1	9.736348E-1	9.591912E-1	9.718696E-1	9.638549E-1	1.003109E+0	9.797151E-1	9.668488E-1	9.765044E-1	9.412544E-1	9.499333E-1	9.336844E-1	9.489145E-1	1.036020E+0	1.001528E+0	9.358268E-1	9.782401E-1	1.011080E+0	9.652673E-1	1.004732E+0	9.472657E-1	1.008240E+0	1.034723E+0	9.383750E-1	9.224189E-1	9.478402E-1	1.082782E+0	9.603015E-1	9.809430E-1	9.697076E-1	1.007306E+0	1.022004E+0	9.620148E-1	9.617131E-1	9.467159E-1	1.014634E+0	9.590878E-1	9.051620E-1	1.023287E+0	1.030787E+0	9.340761E-1	9.534718E-1	9.774045E-1	9.905278E-1	9.650846E-1	9.375525E-1	1.027837E+0	9.920244E-1	9.671448E-1	1.045269E+0	1.003250E+0	9.615195E-1	9.760385E-1	9.601585E-1	9.129778E-1	1.012306E+0	9.886503E-1	9.562717E-1	1.004007E+0	9.234268E-1	9.475842E-1	1.010213E+0	9.142230E-1	1.017593E+0	1.006786E+0	9.000243E-1	1.010342E+0	9.519755E-1	9.939638E-1	9.907358E-1	9.577714E-1	1.026256E+0	9.829219E-1	9.577179E-1	9.985810E-1	1.016013E+0	9.941135E-1	9.334380E-1	1.017571E+0	1.010271E+0	9.996465E-1	9.618125E-1	9.950809E-1	9.884013E-1	9.454754E-1	1.035244E+0	9.987657E-1	1.003083E+0	9.806501E-1	1.029369E+0	1.047742E+0	1.000837E+0	9.777703E-1	9.180033E-1	1.010876E+0	9.558090E-1	1.044279E+0	9.436575E-1	1.037566E+0	1.000689E+0	9.309069E-1	9.892517E-1	9.971847E-1	9.963446E-1	1.010607E+0	9.731905E-1	9.926655E-1	9.704885E-1	9.982040E-1	1.004091E+0	9.732881E-1	9.684558E-1	9.235470E-1	1.022749E+0	9.797255E-1	8.325856E-1
5.460060E+2	7.338896E-1	7.509701E-1	8.320024E-1	7.569039E-1	7.617234E-1	7.575253E-1	7.462315E-1	7.507936E-1	7.812020E-1	6.966854E-1	7.768112E-1	7.711050E-1	7.576978E-1	7.258119E-1	7.572595E-1	7.762774E-1	7.867001E-1	7.767027E-1	7.874466E-1	8.150868E-1	7.593468E-1	7.781588E-1	7.844156E-1	7.832157E-1	7.645571E-1	7.544903E-1	7.914467E-1	7.850356E-1	6.892049E-1	7.593811E-1	7.597382E-1	7.772643E-1	8.230231E-1	8.027410E-1	7.816650E-1	7.538420E-1	7.744796E-1	7.519265E-1	7.396717E-1	7.793906E-1	7.549989E-1	7.509414E-1	7.243110E-1	7.314500E-1	7.576731E-1	8.099410E-1	7.939954E-1	7.753246E-1	7.621472E-1	7.876369E-1	7.599572E-1	7.967568E-1	7.641513E-1	8.077812E-1	8.115352E-1	7.895724E-1	7.337919E-1	7.810776E-1	7.293649E-1	7.617092E-1	7.525341E-1	8.382798E-1	8.092214E-1	7.442753E-1	7.919553E-1	7.068281E-1	7.943108E-1	7.445415E-1	7.613387E-1	7.646158E-1	7.797058E-1	8.239168E-1	7.502025E-1	7.318595E-1	7.753468E-1	7.495949E-1	7.872344E-1	7.453414E-1	7.681579E-1	7.789726E-1	7.778060E-1	7.460724E-1	7.474393E-1	7.834549E-1	7.131315E-1	7.288066E-1	7.588254E-1	8.037113E-1	7.814294E-1	8.005743E-1	7.883452E-1	7.747593E-1	7.215544E-1	7.407778E-1	7.561296E-1	7.960655E-1	7.628034E-1	8.181020E-1	7.889852E-1	7.573487E-1	7.463325E-1	7.353892E-1	7.708082E-1	7.607520E-1	7.429677E-1	7.922268E-1	7.904545E-1	7.624503E-1	7.567197E-1	7.559164E-1	7.311100E-1	7.434315E-1	7.648223E-1	7.610789E-1	7.895017E-1	8.189100E-1	7.716047E-1	7.850328E-1	8.410777E-1	7.912675E-1	7.243609E-1	7.497434E-1	7.402749E-1	7.579075E-1	7.655412E-1	7.526451E-1	7.432390E-1	7.628561E-1	8.010774E-1	8.163935E-1	8.283501E-1	8.020920E-1	7.675549E-1	7.408991E-1	7.713138E-1	8.001090E-1	6.980658E-1	7.788971E-1	8.133586E-1	7.843408E-1	7.861113E-1	7.920487E-1	7.936555E-1	7.820696E-1	7.306706E-1	7.560723E-1	7.720508E-1	7.210079E-1	7.782610E-1	7.774453E-1	7.122378E-1	7.511365E-1	6.804704E-1	8.225507E-1	8.363943E-1	7.564747E-1	7.496726E-1	8.127748E-1	6.769303E-1	7.977022E-1	7.888571E-1	7.253399E-1	7.312891E-1	7.813039E-1	7.765015E-1	7.276152E-1
5.465160E+2	9.385450E-1	8.607456E-1	9.442344E-1	9.211143E-1	1.006630E+0	9.374827E-1	9.080711E-1	9.490464E-1	9.508231E-1	8.915891E-1	8.939144E-1	9.304348E-1	8.703724E-1	9.098066E-1	8.635443E-1	8.808996E-1	9.431503E-1	9.135487E-1	9.184314E-1	8.986655E-1	9.237215E-1	1.013409E+0	9.637855E-1	8.895025E-1	8.767738E-1	8.938348E-1	8.880542E-1	8.962356E-1	8.289179E-1	9.137636E-1	8.863599E-1	9.043797E-1	8.542592E-1	9.392148E-1	8.831148E-1	8.724207E-1	9.388355E-1	9.016746E-1	8.441266E-1	8.779730E-1	9.122315E-1	8.870366E-1	8.834127E-1	8.988654E-1	8.554266E-1	8.947688E-1	8.862268E-1	9.456621E-1	9.021044E-1	9.291838E-1	8.978491E-1	8.600670E-1	8.520850E-1	9.929761E-1	9.611375E-1	9.379190E-1	9.010935E-1	8.640203E-1	8.954011E-1	8.988769E-1	8.821859E-1	8.869490E-1	9.022535E-1	9.447909E-1	9.249437E-1	9.176594E-1	8.785460E-1	8.990393E-1	9.429301E-1	8.838908E-1	8.868941E-1	9.052845E-1	8.794198E-1	9.141340E-1	8.561873E-1	8.766958E-1	9.431004E-1	8.879398E-1	9.180356E-1	8.927153E-1	8.790849E-1	9.574072E-1	8.621776E-1	8.293835E-1	9.268747E-1	9.097602E-1	9.350053E-1	8.949947E-1	9.585483E-1	8.954371E-1	8.598224E-1	8.602447E-1	9.149490E-1	8.849805E-1	9.426101E-1	8.771007E-1	9.460708E-1	9.290665E-1	8.789955E-1	9.006603E-1	8.892679E-1	9.189156E-1	8.701915E-1	9.266183E-1	8.923681E-1	9.296397E-1	9.163449E-1	9.256733E-1	9.743103E-1	9.196002E-1	8.491888E-1	9.246160E-1	9.363504E-1	8.913202E-1	9.230830E-1	8.880537E-1	9.651869E-1	9.248287E-1	9.131960E-1	9.251904E-1	8.868005E-1	9.102716E-1	8.709425E-1	8.340774E-1	9.288021E-1	8.936587E-1	8.832739E-1	8.813992E-1	9.472815E-1	9.327276E-1	9.240081E-1	8.722661E-1	8.636853E-1	8.867442E-1	9.167333E-1	8.754763E-1	8.843878E-1	9.034844E-1	9.330968E-1	8.743835E-1	9.738386E-1	9.273141E-1	9.843701E-1	9.009314E-1	8.552774E-1	8.895680E-1	9.107841E-1	9.165808E-1	9.406114E-1	9.047030E-1	8.814981E-1	9.160204E-1	8.849283E-1	9.519215E-1	9.523638E-1	8.915101E-1	9.223297E-1	9.503368E-1	8.560264E-1	9.460532E-1	8.584626E-1	8.910227E-1	9.656973E-1	8.532053E-1	9.700508E-1	9.835606E-1
5.470110E+2	1.152754E+0	1.224584E+0	1.178622E+0	1.145776E+0	1.171437E+0	1.106540E+0	1.255998E+0	1.179762E+0	1.133394E+0	1.212238E+0	1.212845E+0	1.154518E+0	1.208949E+0	1.198445E+0	1.139960E+0	1.181145E+0	1.196832E+0	1.140863E+0	1.195416E+0	1.134075E+0	1.129838E+0	1.200370E+0	1.153755E+0	1.181621E+0	1.069119E+0	1.138091E+0	1.186183E+0	1.132065E+0	1.199959E+0	1.116444E+0	1.173164E+0	1.151309E+0	1.153974E+0	1.201697E+0	1.139655E+0	1.163308E+0	1.218448E+0	1.174487E+0	1.186165E+0	1.197660E+0	1.219339E+0	1.151872E+0	1.141170E+0	1.184559E+0	1.179395E+0	1.198830E+0	1.144844E+0	1.078526E+0	1.189830E+0	1.120936E+0	1.128332E+0	1.132497E+0	1.096387E+0	1.186482E+0	1.192649E+0	1.200303E+0	1.240251E+0	1.111924E+0	1.171552E+0	1.242575E+0	1.141297E+0	1.179676E+0	1.188705E+0	1.260062E+0	1.159064E+0	1.093417E+0	1.157371E+0	1.130134E+0	1.218377E+0	1.186741E+0	1.097001E+0	1.169152E+0	1.201000E+0	1.181939E+0	1.182959E+0	1.194664E+0	1.186844E+0	1.239915E+0	1.156887E+0	1.211506E+0	1.209229E+0	1.169063E+0	1.134208E+0	1.130821E+0	1.102305E+0	1.151986E+0	1.119258E+0	1.227814E+0	1.136997E+0	1.249139E+0	1.197978E+0	1.156898E+0	1.114668E+0	1.184059E+0	1.118993E+0	1.164906E+0	1.206967E+0	1.184462E+0	1.191766E+0	1.150017E+0	1.172713E+0	1.119454E+0	1.118297E+0	1.172163E+0	1.185907E+0	1.201201E+0	1.161140E+0	1.187805E+0	1.128022E+0	1.193262E+0	1.081603E+0	1.165517E+0	1.160930E+0	1.208530E+0	1.161099E+0	1.215916E+0	1.192506E+0	1.161953E+0	1.191888E+0	1.207757E+0	1.131333E+0	1.261103E+0	1.234200E+0	1.200399E+0	1.147470E+0	1.155674E+0	1.139740E+0	1.173311E+0	1.152447E+0	1.145509E+0	1.247136E+0	1.213363E+0	1.158716E+0	1.143925E+0	1.259197E+0	1.181450E+0	1.199304E+0	1.217531E+0	1.144549E+0	1.198018E+0	1.179077E+0	1.147755E+0	1.172140E+0	1.076515E+0	1.098714E+0	1.215917E+0	1.158927E+0	1.137209E+0	1.153281E+0	1.137720E+0	1.138575E+0	1.219160E+0	1.102120E+0	1.193782E+0	1.127335E+0	1.157897E+0	1.132102E+0	1.172146E+0	1.149012E+0	1.176261E+0	1.198663E+0	1.151269E+0	1.216012E+0	1.132051E+0	1.211145E+0	1.085529E+0
5.475070E+2	1.408123E+0	1.406154E+0	1.369915E+0	1.327472E+0	1.407529E+0	1.362241E+0	1.417618E+0	1.378313E+0	1.273803E+0	1.361512E+0	1.429375E+0	1.473765E+0	1.324986E+0	1.423846E+0	1.435432E+0	1.396781E+0	1.254614E+0	1.337858E+0	1.372486E+0	1.361622E+0	1.370916E+0	1.407290E+0	1.375388E+0	1.363732E+0	1.398339E+0	1.368964E+0	1.379540E+0	1.285273E+0	1.357532E+0	1.345963E+0	1.377673E+0	1.360335E+0	1.312920E+0	1.412703E+0	1.391412E+0	1.260450E+0	1.416957E+0	1.404666E+0	1.432405E+0	1.363599E+0	1.377492E+0	1.376543E+0	1.405317E+0	1.427600E+0	1.299330E+0	1.334341E+0	1.316532E+0	1.418453E+0	1.309361E+0	1.356590E+0	1.247914E+0	1.460854E+0	1.328099E+0	1.371811E+0	1.321376E+0	1.384257E+0	1.415199E+0	1.373258E+0	1.371688E+0	1.289471E+0	1.410867E+0	1.351752E+0	1.454406E+0	1.388309E+0	1.336762E+0	1.327334E+0	1.392508E+0	1.343690E+0	1.423469E+0	1.354141E+0	1.389445E+0	1.385549E+0	1.337128E+0	1.386413E+0	1.342868E+0	1.371522E+0	1.380001E+0	1.438928E+0	1.376763E+0	1.402804E+0	1.367218E+0	1.462327E+0	1.416065E+0	1.335094E+0	1.298942E+0	1.351798E+0	1.355839E+0	1.367070E+0	1.380011E+0	1.350134E+0	1.332372E+0	1.311112E+0	1.392727E+0	1.456420E+0	1.310982E+0	1.348626E+0	1.444802E+0	1.401739E+0	1.317654E+0	1.444113E+0	1.325359E+0	1.376732E+0	1.339959E+0	1.395832E+0	1.290781E+0	1.388820E+0	1.348311E+0	1.411459E+0	1.337160E+0	1.351921E+0	1.338733E+0	1.323422E+0	1.325818E+0	1.356044E+0	1.439052E+0	1.424136E+0	1.381480E+0	1.309830E+0	1.280364E+0	1.392726E+0	1.250744E+0	1.433768E+0	1.428089E+0	1.427207E+0	1.330555E+0	1.335541E+0	1.346555E+0	1.321497E+0	1.359683E+0	1.324104E+0	1.338122E+0	1.357181E+0	1.332428E+0	1.381000E+0	1.344036E+0	1.327016E+0	1.359967E+0	1.319141E+0	1.372948E+0	1.307328E+0	1.339047E+0	1.361913E+0	1.458849E+0	1.323539E+0	1.314525E+0	1.347903E+0	1.406189E+0	1.270690E+0	1.335384E+0	1.366566E+0	1.288077E+0	1.356260E+0	1.286199E+0	1.359524E+0	1.370606E+0	1.401010E+0	1.290536E+0	1.353729E+0	1.308649E+0	1.378482E+0	1.371941E+0	1.344888E+0	1.312640E+0	1.274740E+0	1.363322E+0	1.322347E+0
5.480030E+2	1.251343E+0	1.282091E+0	1.317958E+0	1.280228E+0	1.310303E+0	1.291016E+0	1.339354E+0	1.382018E+0	1.203807E+0	1.327797E+0	1.290624E+0	1.350169E+0	1.263034E+0	1.302937E+0	1.318301E+0	1.223239E+0	1.339985E+0	1.298969E+0	1.295510E+0	1.312467E+0	1.349052E+0	1.351593E+0	1.350225E+0	1.298310E+0	1.277128E+0	1.287911E+0	1.268655E+0	1.343666E+0	1.323878E+0	1.339389E+0	1.278446E+0	1.293855E+0	1.331127E+0	1.303933E+0	1.250920E+0	1.371685E+0	1.329450E+0	1.284819E+0	1.270876E+0	1.350850E+0	1.347602E+0	1.314784E+0	1.330523E+0	1.282505E+0	1.294284E+0	1.290524E+0	1.329767E+0	1.349219E+0	1.270037E+0	1.256847E+0	1.295902E+0	1.365107E+0	1.316515E+0	1.404296E+0	1.271133E+0	1.217638E+0	1.279368E+0	1.393609E+0	1.246371E+0	1.369940E+0	1.260505E+0	1.457018E+0	1.245705E+0	1.363700E+0	1.311763E+0	1.305993E+0	1.247429E+0	1.316466E+0	1.321055E+0	1.381699E+0	1.282057E+0	1.334176E+0	1.297311E+0	1.291205E+0	1.367204E+0	1.231034E+0	1.308611E+0	1.360928E+0	1.326070E+0	1.279235E+0	1.295166E+0	1.314685E+0	1.337185E+0	1.288982E+0	1.296813E+0	1.293965E+0	1.359734E+0	1.289081E+0	1.314821E+0	1.381915E+0	1.261486E+0	1.342914E+0	1.280654E+0	1.287871E+0	1.349284E+0	1.285152E+0	1.375839E+0	1.342483E+0	1.316810E+0	1.279204E+0	1.166373E+0	1.373930E+0	1.317050E+0	1.329818E+0	1.230619E+0	1.325650E+0	1.301674E+0	1.302007E+0	1.271001E+0	1.274394E+0	1.321069E+0	1.390097E+0	1.284345E+0	1.365247E+0	1.275484E+0	1.334214E+0	1.292252E+0	1.269133E+0	1.283029E+0	1.263392E+0	1.273843E+0	1.294036E+0	1.326990E+0	1.299070E+0	1.259702E+0	1.256672E+0	1.398445E+0	1.255386E+0	1.370032E+0	1.340626E+0	1.275308E+0	1.335689E+0	1.297474E+0	1.352568E+0	1.327684E+0	1.291536E+0	1.326285E+0	1.329392E+0	1.268458E+0	1.326708E+0	1.399754E+0	1.305315E+0	1.314384E+0	1.254883E+0	1.278788E+0	1.413824E+0	1.319288E+0	1.239553E+0	1.352181E+0	1.235393E+0	1.284942E+0	1.363373E+0	1.248215E+0	1.288163E+0	1.395937E+0	1.323822E+0	1.223523E+0	1.285445E+0	1.333689E+0	1.340429E+0	1.323246E+0	1.320213E+0	1.226033E+0	1.286836E+0	1.318113E+0	1.205615E+0
5.485390E+2	1.214478E+0	1.298500E+0	1.288445E+0	1.214017E+0	1.214505E+0	1.261293E+0	1.328786E+0	1.247869E+0	1.190029E+0	1.305490E+0	1.251468E+0	1.271200E+0	1.195589E+0	1.319545E+0	1.271700E+0	1.279057E+0	1.212581E+0	1.161830E+0	1.167028E+0	1.147253E+0	1.226753E+0	1.257052E+0	1.241643E+0	1.205576E+0	1.299832E+0	1.222330E+0	1.226294E+0	1.190045E+0	1.315922E+0	1.278663E+0	1.312720E+0	1.294454E+0	1.289515E+0	1.229978E+0	1.248218E+0	1.212287E+0	1.235947E+0	1.214972E+0	1.262055E+0	1.222992E+0	1.250330E+0	1.210230E+0	1.298289E+0	1.206707E+0	1.166651E+0	1.250504E+0	1.244693E+0	1.197407E+0	1.209553E+0	1.260953E+0	1.234238E+0	1.226271E+0	1.254577E+0	1.225665E+0	1.247602E+0	1.267350E+0	1.198366E+0	1.260395E+0	1.347648E+0	1.248893E+0	1.303986E+0	1.337180E+0	1.169591E+0	1.245417E+0	1.312631E+0	1.243376E+0	1.337207E+0	1.305870E+0	1.304974E+0	1.201131E+0	1.315134E+0	1.298880E+0	1.289029E+0	1.202933E+0	1.312549E+0	1.197339E+0	1.209277E+0	1.284303E+0	1.280966E+0	1.205046E+0	1.147384E+0	1.260638E+0	1.216815E+0	1.229096E+0	1.240971E+0	1.203460E+0	1.239524E+0	1.199451E+0	1.205199E+0	1.217008E+0	1.199893E+0	1.251797E+0	1.247079E+0	1.215358E+0	1.257157E+0	1.214325E+0	1.204552E+0	1.279032E+0	1.234159E+0	1.226038E+0	1.247503E+0	1.253661E+0	1.232209E+0	1.239728E+0	1.199583E+0	1.228812E+0	1.221789E+0	1.260059E+0	1.274163E+0	1.259775E+0	1.150370E+0	1.241531E+0	1.227090E+0	1.165633E+0	1.337373E+0	1.204275E+0	1.199851E+0	1.275880E+0	1.236774E+0	1.191275E+0	1.194947E+0	1.194998E+0	1.291931E+0	1.171544E+0	1.330872E+0	1.244242E+0	1.257464E+0	1.209282E+0	1.260052E+0	1.329403E+0	1.223236E+0	1.234000E+0	1.255212E+0	1.244033E+0	1.248269E+0	1.288857E+0	1.202557E+0	1.230481E+0	1.249978E+0	1.285841E+0	1.213817E+0	1.246525E+0	1.219234E+0	1.141267E+0	1.235428E+0	1.159867E+0	1.239235E+0	1.237903E+0	1.240542E+0	1.251745E+0	1.243290E+0	1.234191E+0	1.220791E+0	1.305170E+0	1.304477E+0	1.327805E+0	1.254151E+0	1.372542E+0	1.269637E+0	1.301205E+0	1.261704E+0	1.197520E+0	1.204799E+0	1.246022E+0	1.281379E+0	1.308909E+0
5.490430E+2	1.173096E+0	1.136305E+0	1.170595E+0	1.210706E+0	1.141362E+0	1.159897E+0	1.183768E+0	1.177795E+0	1.103018E+0	1.179341E+0	1.138162E+0	1.173787E+0	1.123000E+0	1.177000E+0	1.176692E+0	1.141256E+0	1.112217E+0	1.157156E+0	1.170248E+0	1.169563E+0	1.118445E+0	1.100321E+0	1.220532E+0	1.175031E+0	1.099100E+0	1.151712E+0	1.133911E+0	1.112790E+0	1.163811E+0	1.142433E+0	1.090585E+0	1.162903E+0	1.128335E+0	1.093059E+0	1.096335E+0	1.178731E+0	1.206268E+0	1.091169E+0	1.139139E+0	1.148410E+0	1.183460E+0	1.102524E+0	1.177205E+0	1.077850E+0	1.119997E+0	1.113047E+0	1.181573E+0	1.178551E+0	1.068291E+0	1.174917E+0	1.152731E+0	1.139348E+0	1.131979E+0	1.143227E+0	1.160456E+0	1.121920E+0	1.159287E+0	1.163211E+0	1.146003E+0	1.199108E+0	1.126625E+0	1.143582E+0	1.183095E+0	1.187970E+0	1.178735E+0	1.168329E+0	1.122913E+0	1.080612E+0	1.123906E+0	1.145624E+0	1.122963E+0	1.201322E+0	1.148085E+0	1.116912E+0	1.102761E+0	1.023560E+0	1.139888E+0	1.204981E+0	1.201736E+0	1.075840E+0	1.117860E+0	1.138828E+0	1.208740E+0	1.063228E+0	1.080968E+0	1.122207E+0	1.136025E+0	1.094930E+0	1.126861E+0	1.124267E+0	1.134763E+0	1.184552E+0	1.138908E+0	1.163311E+0	1.171339E+0	1.224222E+0	1.204033E+0	1.118149E+0	1.107366E+0	1.107698E+0	1.100747E+0	1.187194E+0	1.135761E+0	1.182581E+0	1.142349E+0	1.119001E+0	1.182759E+0	1.079501E+0	1.111176E+0	1.106837E+0	1.160301E+0	1.123987E+0	1.124590E+0	1.157561E+0	1.150910E+0	1.196533E+0	1.167347E+0	1.106071E+0	1.176700E+0	1.146293E+0	1.067831E+0	1.184056E+0	1.258873E+0	1.145954E+0	1.129709E+0	1.137557E+0	1.151840E+0	1.157999E+0	1.162704E+0	1.139687E+0	1.213800E+0	1.173249E+0	1.192299E+0	1.156135E+0	1.183347E+0	1.056428E+0	1.121599E+0	1.127101E+0	1.200378E+0	1.179231E+0	1.176952E+0	1.091017E+0	1.173266E+0	1.215466E+0	1.153907E+0	1.159275E+0	1.188157E+0	1.131927E+0	1.165939E+0	1.188895E+0	1.142807E+0	1.124067E+0	1.085752E+0	1.184023E+0	1.100859E+0	1.151925E+0	1.188268E+0	1.118747E+0	1.122375E+0	1.118420E+0	1.140540E+0	1.166965E+0	1.163815E+0	1.162510E+0	1.136099E+0	1.170198E+0
5.495150E+2	1.445521E+0	1.472347E+0	1.498315E+0	1.450406E+0	1.475860E+0	1.467573E+0	1.507002E+0	1.545517E+0	1.454224E+0	1.468913E+0	1.522143E+0	1.409389E+0	1.487703E+0	1.420908E+0	1.461635E+0	1.472014E+0	1.401202E+0	1.405019E+0	1.437984E+0	1.433722E+0	1.412261E+0	1.515469E+0	1.509324E+0	1.504555E+0	1.486612E+0	1.389935E+0	1.459104E+0	1.455852E+0	1.423235E+0	1.425922E+0	1.510070E+0	1.534036E+0	1.447471E+0	1.431109E+0	1.432896E+0	1.500293E+0	1.556805E+0	1.510052E+0	1.434526E+0	1.458195E+0	1.437334E+0	1.451479E+0	1.372993E+0	1.382054E+0	1.409851E+0	1.505631E+0	1.530229E+0	1.528851E+0	1.464081E+0	1.441344E+0	1.410801E+0	1.379563E+0	1.454123E+0	1.478231E+0	1.484732E+0	1.451782E+0	1.363079E+0	1.489094E+0	1.462454E+0	1.539305E+0	1.410672E+0	1.412789E+0	1.501551E+0	1.526442E+0	1.427142E+0	1.416836E+0	1.384468E+0	1.488408E+0	1.510419E+0	1.433199E+0	1.464001E+0	1.407578E+0	1.550036E+0	1.485542E+0	1.517202E+0	1.433002E+0	1.386750E+0	1.432809E+0	1.518207E+0	1.403433E+0	1.457567E+0	1.431303E+0	1.438008E+0	1.397280E+0	1.459867E+0	1.304167E+0	1.426885E+0	1.486410E+0	1.565132E+0	1.464817E+0	1.530495E+0	1.467214E+0	1.472112E+0	1.396837E+0	1.497584E+0	1.476408E+0	1.395289E+0	1.488965E+0	1.464766E+0	1.395397E+0	1.430065E+0	1.461145E+0	1.459820E+0	1.509747E+0	1.411080E+0	1.407772E+0	1.454391E+0	1.402602E+0	1.455824E+0	1.432854E+0	1.427134E+0	1.405270E+0	1.521920E+0	1.512669E+0	1.475728E+0	1.512177E+0	1.480258E+0	1.451300E+0	1.445560E+0	1.471545E+0	1.367212E+0	1.389006E+0	1.568414E+0	1.507834E+0	1.468537E+0	1.474449E+0	1.487933E+0	1.434375E+0	1.457823E+0	1.457297E+0	1.498100E+0	1.400424E+0	1.375211E+0	1.441883E+0	1.456726E+0	1.462490E+0	1.544040E+0	1.414026E+0	1.466504E+0	1.513688E+0	1.441862E+0	1.476960E+0	1.494696E+0	1.429493E+0	1.491267E+0	1.478997E+0	1.521336E+0	1.416950E+0	1.495061E+0	1.437603E+0	1.393942E+0	1.443351E+0	1.287099E+0	1.456763E+0	1.491201E+0	1.467986E+0	1.463362E+0	1.442475E+0	1.410351E+0	1.524140E+0	1.459190E+0	1.454555E+0	1.485784E+0	1.536007E+0	1.425852E+0	1.466459E+0
5.500050E+2	1.771263E+0	1.827694E+0	1.828551E+0	1.717838E+0	1.818184E+0	1.729675E+0	1.885506E+0	1.776054E+0	1.747974E+0	1.732993E+0	1.856101E+0	1.678358E+0	1.833983E+0	1.789069E+0	1.745339E+0	1.767605E+0	1.824695E+0	1.718350E+0	1.770266E+0	1.840859E+0	1.722575E+0	1.865208E+0	1.854262E+0	1.745771E+0	1.763413E+0	1.689851E+0	1.788878E+0	1.732031E+0	1.775651E+0	1.816618E+0	1.747184E+0	1.813055E+0	1.769546E+0	1.788817E+0	1.744173E+0	1.737836E+0	1.814201E+0	1.754594E+0	1.806962E+0	1.771844E+0	1.843212E+0	1.746141E+0	1.753255E+0	1.813494E+0	1.789545E+0	1.789798E+0	1.813187E+0	1.771184E+0	1.792704E+0	1.809716E+0	1.803004E+0	1.813299E+0	1.802408E+0	1.884878E+0	1.723983E+0	1.750677E+0	1.722953E+0	1.765238E+0	1.873861E+0	1.851169E+0	1.815792E+0	1.802026E+0	1.809361E+0	1.777024E+0	1.692924E+0	1.775434E+0	1.755296E+0	1.751129E+0	1.812334E+0	1.738586E+0	1.745264E+0	1.717421E+0	1.716836E+0	1.745134E+0	1.853202E+0	1.704353E+0	1.782222E+0	1.674783E+0	1.889039E+0	1.766115E+0	1.767096E+0	1.819402E+0	1.769629E+0	1.727233E+0	1.708394E+0	1.782039E+0	1.724643E+0	1.768769E+0	1.803703E+0	1.781365E+0	1.740003E+0	1.794275E+0	1.782362E+0	1.729415E+0	1.815713E+0	1.755498E+0	1.807105E+0	1.772704E+0	1.750196E+0	1.706417E+0	1.749563E+0	1.704770E+0	1.730819E+0	1.738816E+0	1.735905E+0	1.722374E+0	1.902822E+0	1.700501E+0	1.753270E+0	1.669309E+0	1.794711E+0	1.706674E+0	1.819245E+0	1.824257E+0	1.760393E+0	1.776791E+0	1.731337E+0	1.723144E+0	1.789543E+0	1.801525E+0	1.766757E+0	1.758997E+0	1.780367E+0	1.697176E+0	1.850536E+0	1.853264E+0	1.775983E+0	1.742404E+0	1.784440E+0	1.762680E+0	1.820754E+0	1.877769E+0	1.738287E+0	1.698717E+0	1.784835E+0	1.668419E+0	1.769782E+0	1.759655E+0	1.729975E+0	1.775195E+0	1.719354E+0	1.778801E+0	1.883209E+0	1.718894E+0	1.806448E+0	1.720052E+0	1.813285E+0	1.692169E+0	1.827376E+0	1.695314E+0	1.713939E+0	1.771894E+0	1.692057E+0	1.687350E+0	1.892277E+0	1.717389E+0	1.796087E+0	1.667973E+0	1.770165E+0	1.793271E+0	1.771237E+0	1.663221E+0	1.802240E+0	1.609158E+0	1.646011E+0	1.668135E+0
5.504950E+2	1.846930E+0	1.849494E+0	1.840700E+0	1.883258E+0	1.866833E+0	1.842193E+0	1.853062E+0	1.927836E+0	1.852109E+0	1.887438E+0	1.863156E+0	1.921095E+0	1.845391E+0	1.859870E+0	1.907805E+0	1.805380E+0	1.844472E+0	1.817320E+0	1.872350E+0	1.901506E+0	1.789086E+0	1.878553E+0	1.866754E+0	1.839781E+0	1.969856E+0	1.838518E+0	1.840980E+0	1.956951E+0	1.900952E+0	1.876457E+0	1.880703E+0	1.906925E+0	1.877034E+0	1.841023E+0	1.886958E+0	1.914158E+0	1.895437E+0	1.898928E+0	1.901443E+0	1.822165E+0	1.900746E+0	1.873090E+0	1.877371E+0	1.905260E+0	1.802921E+0	1.851993E+0	1.750017E+0	1.923031E+0	1.856481E+0	1.831169E+0	1.887349E+0	1.840499E+0	1.855511E+0	1.870743E+0	1.842355E+0	1.741756E+0	1.854641E+0	1.811243E+0	1.916358E+0	1.966563E+0	1.935521E+0	1.826093E+0	1.966894E+0	1.819965E+0	1.862586E+0	1.777693E+0	1.957161E+0	1.815707E+0	1.912983E+0	1.816009E+0	1.853262E+0	1.915182E+0	1.840812E+0	1.774742E+0	1.843054E+0	1.810765E+0	1.973866E+0	1.838022E+0	1.900817E+0	1.785134E+0	1.841596E+0	1.878001E+0	1.864371E+0	1.780832E+0	1.826415E+0	1.855656E+0	1.859763E+0	1.872970E+0	1.966368E+0	1.909602E+0	1.820631E+0	1.840013E+0	1.861052E+0	1.788055E+0	1.855929E+0	1.901977E+0	1.876936E+0	1.910714E+0	1.933070E+0	1.841351E+0	1.859219E+0	1.764128E+0	1.823166E+0	1.942589E+0	1.838951E+0	1.869697E+0	1.848819E+0	1.793871E+0	1.841212E+0	1.714546E+0	1.850804E+0	1.858497E+0	1.837513E+0	1.879140E+0	1.918375E+0	1.887951E+0	1.874409E+0	1.830986E+0	1.958607E+0	1.848579E+0	1.779553E+0	1.911649E+0	1.871164E+0	1.848925E+0	1.900762E+0	1.784187E+0	1.844977E+0	1.802235E+0	1.753998E+0	1.844258E+0	1.845823E+0	1.757695E+0	1.821956E+0	1.828244E+0	1.875960E+0	1.865974E+0	1.858123E+0	1.832347E+0	1.864880E+0	1.894485E+0	1.864618E+0	1.859478E+0	1.912057E+0	1.886233E+0	1.770502E+0	1.804683E+0	1.886569E+0	1.785498E+0	1.963938E+0	1.836338E+0	1.832274E+0	1.862150E+0	1.842675E+0	1.946717E+0	1.802719E+0	1.853162E+0	1.871924E+0	1.857403E+0	1.761099E+0	1.893551E+0	1.883572E+0	1.855907E+0	1.939743E+0	1.837266E+0	1.867260E+0	1.832312E+0
5.510080E+2	1.630548E+0	1.623152E+0	1.641844E+0	1.533859E+0	1.709756E+0	1.593966E+0	1.608593E+0	1.627713E+0	1.599201E+0	1.578496E+0	1.634473E+0	1.614375E+0	1.557345E+0	1.610030E+0	1.607399E+0	1.621632E+0	1.647616E+0	1.610740E+0	1.598373E+0	1.597077E+0	1.580719E+0	1.584215E+0	1.647230E+0	1.592715E+0	1.630466E+0	1.539376E+0	1.593696E+0	1.590820E+0	1.556698E+0	1.530470E+0	1.617095E+0	1.554643E+0	1.613868E+0	1.566500E+0	1.609777E+0	1.630460E+0	1.594009E+0	1.543218E+0	1.651149E+0	1.592002E+0	1.638532E+0	1.555332E+0	1.707041E+0	1.592654E+0	1.586868E+0	1.581553E+0	1.614682E+0	1.647249E+0	1.570007E+0	1.517846E+0	1.612601E+0	1.648187E+0	1.623690E+0	1.607605E+0	1.519845E+0	1.571366E+0	1.538323E+0	1.581002E+0	1.603995E+0	1.623604E+0	1.629516E+0	1.643343E+0	1.608209E+0	1.559530E+0	1.564558E+0	1.613167E+0	1.515325E+0	1.602229E+0	1.673087E+0	1.588050E+0	1.594985E+0	1.605750E+0	1.645816E+0	1.597559E+0	1.618552E+0	1.581797E+0	1.550932E+0	1.625101E+0	1.553323E+0	1.602905E+0	1.554531E+0	1.591297E+0	1.573454E+0	1.593700E+0	1.612426E+0	1.611482E+0	1.596763E+0	1.574085E+0	1.599041E+0	1.633396E+0	1.602669E+0	1.541247E+0	1.602406E+0	1.560499E+0	1.623372E+0	1.652032E+0	1.595840E+0	1.615343E+0	1.536703E+0	1.624267E+0	1.526068E+0	1.556613E+0	1.576001E+0	1.557243E+0	1.584389E+0	1.631186E+0	1.543154E+0	1.603182E+0	1.590973E+0	1.605158E+0	1.543899E+0	1.593159E+0	1.605834E+0	1.609053E+0	1.534623E+0	1.623875E+0	1.565453E+0	1.643956E+0	1.568779E+0	1.600994E+0	1.540404E+0	1.568412E+0	1.592915E+0	1.644777E+0	1.693636E+0	1.548845E+0	1.592206E+0	1.474825E+0	1.608958E+0	1.582729E+0	1.676692E+0	1.644664E+0	1.601295E+0	1.519405E+0	1.596257E+0	1.562737E+0	1.655425E+0	1.586626E+0	1.641120E+0	1.609687E+0	1.630024E+0	1.524538E+0	1.598536E+0	1.567747E+0	1.651458E+0	1.587716E+0	1.656346E+0	1.625151E+0	1.564810E+0	1.601758E+0	1.550479E+0	1.600824E+0	1.487077E+0	1.554603E+0	1.619521E+0	1.714642E+0	1.591550E+0	1.606277E+0	1.511370E+0	1.544307E+0	1.592466E+0	1.518421E+0	1.622298E+0	1.603588E+0	1.398299E+0	1.360621E+0
5.515000E+2	1.244983E+0	1.307721E+0	1.223768E+0	1.264775E+0	1.276510E+0	1.266757E+0	1.317509E+0	1.289306E+0	1.260160E+0	1.290138E+0	1.278542E+0	1.300591E+0	1.272765E+0	1.317264E+0	1.252279E+0	1.228354E+0	1.229666E+0	1.281319E+0	1.327937E+0	1.205541E+0	1.253334E+0	1.304152E+0	1.272912E+0	1.319793E+0	1.278969E+0	1.220348E+0	1.227957E+0	1.309825E+0	1.274686E+0	1.265415E+0	1.251572E+0	1.303311E+0	1.227323E+0	1.291894E+0	1.215329E+0	1.228522E+0	1.305333E+0	1.282688E+0	1.177280E+0	1.319482E+0	1.250570E+0	1.145138E+0	1.261012E+0	1.274075E+0	1.225611E+0	1.292986E+0	1.246664E+0	1.351227E+0	1.319543E+0	1.181504E+0	1.249634E+0	1.284974E+0	1.282796E+0	1.209051E+0	1.170810E+0	1.217472E+0	1.240346E+0	1.339993E+0	1.284976E+0	1.387753E+0	1.323385E+0	1.278868E+0	1.202933E+0	1.311916E+0	1.266328E+0	1.276349E+0	1.286261E+0	1.297706E+0	1.294983E+0	1.178105E+0	1.280524E+0	1.260168E+0	1.316293E+0	1.276627E+0	1.264449E+0	1.261277E+0	1.319776E+0	1.269830E+0	1.236685E+0	1.274474E+0	1.255998E+0	1.267385E+0	1.335486E+0	1.258424E+0	1.229972E+0	1.243276E+0	1.254636E+0	1.297069E+0	1.291069E+0	1.238023E+0	1.270349E+0	1.293745E+0	1.282571E+0	1.226892E+0	1.138277E+0	1.193635E+0	1.245085E+0	1.266755E+0	1.348683E+0	1.309277E+0	1.319597E+0	1.266143E+0	1.362470E+0	1.318058E+0	1.270551E+0	1.253392E+0	1.303875E+0	1.209853E+0	1.196380E+0	1.223070E+0	1.244130E+0	1.281965E+0	1.277602E+0	1.227117E+0	1.230941E+0	1.225353E+0	1.231128E+0	1.247598E+0	1.235963E+0	1.277421E+0	1.194310E+0	1.309108E+0	1.218872E+0	1.280476E+0	1.240413E+0	1.257049E+0	1.246337E+0	1.292973E+0	1.277519E+0	1.290948E+0	1.283483E+0	1.365448E+0	1.269794E+0	1.253862E+0	1.307087E+0	1.271856E+0	1.227213E+0	1.201415E+0	1.333230E+0	1.306105E+0	1.253234E+0	1.318855E+0	1.287352E+0	1.272539E+0	1.225601E+0	1.235783E+0	1.234956E+0	1.235041E+0	1.223477E+0	1.193042E+0	1.223810E+0	1.237329E+0	1.236275E+0	1.270674E+0	1.244430E+0	1.283850E+0	1.217670E+0	1.219103E+0	1.242707E+0	1.202207E+0	1.221067E+0	1.268552E+0	1.271040E+0	1.236595E+0	1.241775E+0	1.141478E+0
5.520040E+2	1.018136E+0	1.055124E+0	1.054910E+0	1.030811E+0	1.041429E+0	9.585651E-1	1.061188E+0	1.110125E+0	1.061663E+0	1.093311E+0	1.061146E+0	1.071726E+0	9.659080E-1	1.041448E+0	1.103521E+0	1.021411E+0	1.000723E+0	1.046840E+0	1.009821E+0	1.017512E+0	1.090218E+0	1.014980E+0	1.025014E+0	1.065889E+0	1.055354E+0	9.974299E-1	1.016423E+0	9.992559E-1	1.078906E+0	1.012728E+0	1.018488E+0	1.020872E+0	1.017631E+0	1.065753E+0	1.016647E+0	1.062169E+0	1.003205E+0	1.061262E+0	1.011631E+0	1.017387E+0	1.050209E+0	1.008171E+0	9.771669E-1	1.026264E+0	1.051509E+0	1.045740E+0	1.043335E+0	1.049807E+0	1.105535E+0	1.058929E+0	9.438865E-1	9.933590E-1	9.713927E-1	1.065748E+0	1.035052E+0	1.057771E+0	1.098268E+0	1.042490E+0	1.082488E+0	1.085477E+0	1.040627E+0	1.084596E+0	1.077695E+0	1.022743E+0	1.015225E+0	1.036425E+0	1.041161E+0	1.073211E+0	1.078631E+0	1.092930E+0	1.082235E+0	1.094209E+0	1.112862E+0	1.122909E+0	1.092838E+0	1.014246E+0	1.049625E+0	1.031664E+0	1.044535E+0	1.024410E+0	1.063412E+0	1.119281E+0	1.029564E+0	1.020548E+0	1.024856E+0	1.015053E+0	9.417248E-1	1.068781E+0	1.003006E+0	1.044757E+0	1.059212E+0	1.035330E+0	9.860114E-1	1.064085E+0	1.083211E+0	1.000773E+0	1.024161E+0	1.050651E+0	1.038380E+0	1.063752E+0	9.892564E-1	1.000267E+0	9.859988E-1	1.064619E+0	1.064412E+0	1.045187E+0	1.071157E+0	1.083987E+0	1.029792E+0	1.008062E+0	9.992616E-1	1.014577E+0	1.044106E+0	9.893791E-1	1.034934E+0	1.064998E+0	9.783591E-1	9.850205E-1	1.065631E+0	1.045461E+0	1.042623E+0	1.060785E+0	1.016963E+0	1.049173E+0	1.068939E+0	9.974428E-1	1.070210E+0	1.069354E+0	1.033632E+0	1.058124E+0	1.049198E+0	1.062441E+0	1.038951E+0	1.035191E+0	1.023017E+0	9.979217E-1	1.013799E+0	9.377179E-1	9.900876E-1	1.121954E+0	9.819789E-1	1.061547E+0	1.083827E+0	1.026751E+0	1.072635E+0	1.014086E+0	1.072665E+0	9.512185E-1	9.760145E-1	1.032564E+0	1.081017E+0	1.050746E+0	9.956532E-1	9.981264E-1	1.014604E+0	1.060301E+0	9.933950E-1	9.699554E-1	1.040513E+0	1.080028E+0	1.033629E+0	1.145090E+0	1.034798E+0	1.098241E+0	8.548723E-1	9.147864E-1
5.525040E+2	9.795079E-1	1.122320E+0	1.083327E+0	1.124404E+0	1.142997E+0	1.057663E+0	1.186731E+0	1.115008E+0	1.071497E+0	1.103095E+0	1.153531E+0	1.100306E+0	1.041595E+0	1.085737E+0	1.084634E+0	1.112458E+0	1.127415E+0	1.105295E+0	1.067099E+0	1.131708E+0	1.081007E+0	1.085376E+0	1.137022E+0	1.044943E+0	1.060147E+0	1.112663E+0	1.099608E+0	1.095612E+0	1.107259E+0	1.104687E+0	1.035347E+0	1.056680E+0	1.066016E+0	1.116955E+0	1.097185E+0	1.047646E+0	1.148006E+0	1.119829E+0	1.025589E+0	1.203429E+0	1.054865E+0	1.111562E+0	1.108305E+0	1.103678E+0	1.077446E+0	1.083567E+0	1.023906E+0	1.168475E+0	1.066760E+0	1.095871E+0	1.089084E+0	1.149985E+0	1.170161E+0	1.173413E+0	1.105344E+0	1.063013E+0	1.100002E+0	1.049773E+0	1.081453E+0	1.140153E+0	1.080357E+0	1.061828E+0	1.097669E+0	1.077834E+0	1.085219E+0	1.096011E+0	1.122016E+0	1.094145E+0	1.078667E+0	1.078967E+0	1.063242E+0	1.173026E+0	1.135972E+0	1.049612E+0	1.068346E+0	1.065422E+0	1.165304E+0	1.062364E+0	1.078626E+0	1.077459E+0	1.135321E+0	1.057897E+0	1.020717E+0	9.862502E-1	1.059039E+0	1.037726E+0	1.071448E+0	1.067427E+0	1.095749E+0	1.031957E+0	1.099798E+0	1.147811E+0	1.139463E+0	1.022021E+0	1.115547E+0	1.033276E+0	1.089346E+0	1.073889E+0	1.031224E+0	1.055152E+0	1.064322E+0	1.133471E+0	1.132386E+0	1.001041E+0	1.093882E+0	1.160520E+0	1.166465E+0	1.015816E+0	1.079176E+0	1.082337E+0	1.097996E+0	1.050311E+0	1.129226E+0	1.028120E+0	1.106404E+0	1.100791E+0	1.077241E+0	1.091022E+0	1.059175E+0	1.016193E+0	1.045820E+0	1.121061E+0	1.072810E+0	1.048693E+0	1.110071E+0	1.045503E+0	1.090433E+0	1.134632E+0	1.105244E+0	1.143513E+0	1.150080E+0	1.115017E+0	1.029771E+0	1.086868E+0	1.147725E+0	1.055292E+0	1.038823E+0	1.124368E+0	1.144871E+0	1.073716E+0	1.061937E+0	1.058771E+0	1.077390E+0	1.119528E+0	1.098770E+0	1.090120E+0	1.143387E+0	1.013415E+0	1.140570E+0	1.000350E+0	1.082918E+0	1.098568E+0	1.077511E+0	1.061257E+0	1.095023E+0	1.072559E+0	1.124643E+0	1.075476E+0	1.095836E+0	1.067764E+0	1.098296E+0	1.040118E+0	1.063077E+0	1.077474E+0	1.039965E+0	9.626807E-1
5.530150E+2	1.219862E+0	1.182173E+0	1.212491E+0	1.205824E+0	1.269985E+0	1.219545E+0	1.242490E+0	1.291852E+0	1.206386E+0	1.230734E+0	1.312183E+0	1.264613E+0	1.268536E+0	1.274121E+0	1.170462E+0	1.275968E+0	1.214065E+0	1.232191E+0	1.262377E+0	1.254892E+0	1.232984E+0	1.182440E+0	1.198667E+0	1.235900E+0	1.197378E+0	1.228622E+0	1.192364E+0	1.252837E+0	1.143863E+0	1.225662E+0	1.267814E+0	1.183482E+0	1.254132E+0	1.221503E+0	1.261044E+0	1.191257E+0	1.250095E+0	1.293666E+0	1.205171E+0	1.222419E+0	1.215766E+0	1.258418E+0	1.194628E+0	1.264111E+0	1.229735E+0	1.249206E+0	1.240268E+0	1.245163E+0	1.167145E+0	1.209524E+0	1.238465E+0	1.248161E+0	1.204338E+0	1.303089E+0	1.235211E+0	1.244217E+0	1.197658E+0	1.196706E+0	1.291441E+0	1.292924E+0	1.222207E+0	1.197573E+0	1.201481E+0	1.293987E+0	1.265332E+0	1.167433E+0	1.216808E+0	1.193572E+0	1.261580E+0	1.223899E+0	1.197236E+0	1.241717E+0	1.312023E+0	1.234556E+0	1.222831E+0	1.217353E+0	1.274724E+0	1.234241E+0	1.211584E+0	1.251004E+0	1.291849E+0	1.238750E+0	1.171552E+0	1.201512E+0	1.186056E+0	1.237201E+0	1.221436E+0	1.261663E+0	1.203949E+0	1.238954E+0	1.238347E+0	1.248706E+0	1.215019E+0	1.264986E+0	1.213564E+0	1.191177E+0	1.200756E+0	1.185453E+0	1.285594E+0	1.283691E+0	1.224891E+0	1.140465E+0	1.195924E+0	1.213164E+0	1.223021E+0	1.243168E+0	1.148407E+0	1.240085E+0	1.231975E+0	1.170569E+0	1.249722E+0	1.270291E+0	1.172333E+0	1.285979E+0	1.249685E+0	1.218772E+0	1.176078E+0	1.154478E+0	1.296672E+0	1.295926E+0	1.146135E+0	1.280864E+0	1.232960E+0	1.245258E+0	1.174434E+0	1.270476E+0	1.278776E+0	1.180353E+0	1.221175E+0	1.231876E+0	1.239114E+0	1.209865E+0	1.247108E+0	1.266810E+0	1.284375E+0	1.260403E+0	1.186954E+0	1.183483E+0	1.227204E+0	1.173150E+0	1.271465E+0	1.286416E+0	1.263829E+0	1.266603E+0	1.074085E+0	1.187917E+0	1.275246E+0	1.194844E+0	1.294677E+0	1.202307E+0	1.239553E+0	1.181766E+0	1.271984E+0	1.214422E+0	1.304506E+0	1.271048E+0	1.233124E+0	1.258388E+0	1.242756E+0	1.241859E+0	1.209419E+0	1.198507E+0	1.183483E+0	1.301772E+0	1.229507E+0	1.075627E+0
5.534770E+2	1.210075E+0	1.213310E+0	1.222310E+0	1.224572E+0	1.219036E+0	1.187889E+0	1.243613E+0	1.182571E+0	1.143056E+0	1.230370E+0	1.241509E+0	1.140031E+0	1.210386E+0	1.217145E+0	1.182717E+0	1.233931E+0	1.213203E+0	1.305767E+0	1.267997E+0	1.270929E+0	1.257268E+0	1.230664E+0	1.244709E+0	1.276226E+0	1.255270E+0	1.182323E+0	1.176055E+0	1.163880E+0	1.141236E+0	1.210521E+0	1.231873E+0	1.217167E+0	1.241164E+0	1.217474E+0	1.212317E+0	1.241248E+0	1.266422E+0	1.276407E+0	1.205202E+0	1.250345E+0	1.254059E+0	1.178044E+0	1.213754E+0	1.215701E+0	1.199597E+0	1.223746E+0	1.227308E+0	1.242267E+0	1.155819E+0	1.254865E+0	1.207845E+0	1.163080E+0	1.265041E+0	1.297990E+0	1.213512E+0	1.181581E+0	1.273330E+0	1.196005E+0	1.142127E+0	1.290070E+0	1.176076E+0	1.313113E+0	1.201841E+0	1.280480E+0	1.189015E+0	1.197949E+0	1.199235E+0	1.222236E+0	1.255783E+0	1.254684E+0	1.213300E+0	1.174074E+0	1.256170E+0	1.247837E+0	1.222781E+0	1.205165E+0	1.231374E+0	1.229959E+0	1.198004E+0	1.215603E+0	1.286105E+0	1.233983E+0	1.266735E+0	1.225887E+0	1.178717E+0	1.195154E+0	1.231062E+0	1.221109E+0	1.240823E+0	1.247146E+0	1.242588E+0	1.198735E+0	1.206046E+0	1.222412E+0	1.230474E+0	1.176282E+0	1.182749E+0	1.232228E+0	1.173770E+0	1.283898E+0	1.141034E+0	1.278611E+0	1.198651E+0	1.297212E+0	1.225658E+0	1.287837E+0	1.230240E+0	1.288782E+0	1.231393E+0	1.198646E+0	1.271580E+0	1.268166E+0	1.231994E+0	1.237473E+0	1.300303E+0	1.243482E+0	1.190943E+0	1.138371E+0	1.159251E+0	1.272272E+0	1.111861E+0	1.192380E+0	1.229594E+0	1.180122E+0	1.214884E+0	1.226090E+0	1.279459E+0	1.229205E+0	1.266384E+0	1.199450E+0	1.185316E+0	1.259889E+0	1.227192E+0	1.238005E+0	1.230551E+0	1.204704E+0	1.213755E+0	1.210014E+0	1.162107E+0	1.182373E+0	1.220012E+0	1.184650E+0	1.195049E+0	1.183199E+0	1.232967E+0	1.247908E+0	1.302409E+0	1.166695E+0	1.247635E+0	1.186285E+0	1.243833E+0	1.274660E+0	1.296045E+0	1.264396E+0	1.249607E+0	1.245684E+0	1.146454E+0	1.169657E+0	1.212961E+0	1.203233E+0	1.270825E+0	1.170456E+0	1.258556E+0	1.211931E+0	1.234064E+0	1.131683E+0
5.540290E+2	1.096614E+0	1.077504E+0	1.040168E+0	1.083012E+0	1.086270E+0	9.951384E-1	1.027618E+0	1.100708E+0	9.971261E-1	1.025624E+0	1.073338E+0	1.020126E+0	1.021344E+0	1.017275E+0	1.043234E+0	1.012045E+0	1.062966E+0	1.003981E+0	1.008393E+0	1.062513E+0	1.064142E+0	1.036406E+0	1.024857E+0	1.028265E+0	9.816072E-1	9.932776E-1	1.045776E+0	1.009039E+0	1.012488E+0	9.992742E-1	1.011390E+0	1.017560E+0	1.042735E+0	1.044016E+0	1.021733E+0	9.935211E-1	1.011040E+0	1.026796E+0	9.938459E-1	1.048595E+0	1.018070E+0	9.995514E-1	1.050701E+0	1.048235E+0	1.042394E+0	1.089076E+0	1.070021E+0	1.073786E+0	9.688379E-1	1.071360E+0	9.991741E-1	1.044749E+0	1.049052E+0	1.087561E+0	1.000512E+0	1.039793E+0	9.902419E-1	1.054340E+0	9.787251E-1	1.097679E+0	1.001763E+0	1.003902E+0	1.018944E+0	1.069060E+0	1.014917E+0	1.034712E+0	9.863792E-1	1.063407E+0	9.915054E-1	1.041657E+0	1.040873E+0	1.065592E+0	1.092507E+0	1.016263E+0	1.071448E+0	1.098132E+0	1.017222E+0	1.101325E+0	1.087848E+0	9.999568E-1	1.021454E+0	1.033288E+0	1.067456E+0	9.716250E-1	1.031550E+0	1.027556E+0	9.876816E-1	1.051985E+0	1.064826E+0	9.878475E-1	1.032827E+0	1.043599E+0	1.036669E+0	1.020727E+0	1.051487E+0	9.894930E-1	1.038246E+0	1.030672E+0	1.046691E+0	1.144988E+0	9.967459E-1	1.053322E+0	1.003695E+0	1.118043E+0	9.555211E-1	1.064971E+0	1.031264E+0	1.090215E+0	1.032944E+0	1.034714E+0	1.042278E+0	9.786342E-1	1.067992E+0	1.023878E+0	1.072984E+0	9.818112E-1	1.088262E+0	1.020761E+0	9.883202E-1	1.066648E+0	1.021316E+0	1.053563E+0	1.045350E+0	1.119233E+0	1.081779E+0	1.054116E+0	1.019452E+0	1.022492E+0	1.078275E+0	1.032336E+0	1.068236E+0	1.064923E+0	1.062107E+0	1.026651E+0	1.093613E+0	1.033099E+0	1.055936E+0	1.063189E+0	1.002673E+0	1.125741E+0	1.060883E+0	9.804045E-1	1.040898E+0	1.010750E+0	1.052926E+0	9.415168E-1	1.049350E+0	1.094792E+0	1.079555E+0	1.001531E+0	1.048787E+0	1.054089E+0	9.366604E-1	1.015283E+0	1.052404E+0	1.001045E+0	9.869987E-1	1.053883E+0	9.963160E-1	1.068149E+0	1.033439E+0	1.048555E+0	1.040543E+0	1.037270E+0	1.035707E+0	9.992778E-1
5.550140E+2	9.182119E-1	9.512562E-1	8.725546E-1	9.680350E-1	8.848771E-1	9.794845E-1	9.168019E-1	9.931960E-1	9.228676E-1	9.240553E-1	9.017598E-1	9.488164E-1	8.535560E-1	1.025202E+0	8.746650E-1	9.750405E-1	9.312448E-1	8.893189E-1	9.062968E-1	9.948506E-1	9.156651E-1	9.393022E-1	9.543685E-1	9.079973E-1	9.279636E-1	8.547700E-1	9.763060E-1	9.427721E-1	9.102069E-1	9.637596E-1	9.404458E-1	9.702038E-1	9.592568E-1	9.309800E-1	8.688985E-1	8.890996E-1	9.187754E-1	1.005985E+0	9.626072E-1	9.215213E-1	9.363305E-1	9.028927E-1	9.438574E-1	8.549339E-1	8.981813E-1	9.466246E-1	9.564835E-1	1.006920E+0	8.818222E-1	8.926749E-1	9.236614E-1	9.415580E-1	9.530615E-1	9.326783E-1	9.532552E-1	9.465807E-1	9.058150E-1	9.153350E-1	9.291927E-1	9.602846E-1	9.259032E-1	9.454589E-1	9.482811E-1	9.603059E-1	9.417403E-1	8.923724E-1	9.523225E-1	9.225150E-1	9.730129E-1	9.188261E-1	9.438851E-1	9.265422E-1	9.913467E-1	9.312392E-1	9.962446E-1	9.179699E-1	9.098254E-1	9.769873E-1	9.204925E-1	8.812648E-1	9.380754E-1	9.134553E-1	9.132666E-1	8.045996E-1	8.821147E-1	9.781210E-1	8.798129E-1	9.549702E-1	8.999419E-1	9.417887E-1	8.969748E-1	9.037135E-1	9.454309E-1	9.489832E-1	9.593299E-1	9.358953E-1	9.812366E-1	9.156813E-1	9.032487E-1	9.229705E-1	9.256183E-1	9.346261E-1	8.759525E-1	9.351355E-1	8.486855E-1	8.954703E-1	9.423121E-1	9.289713E-1	9.273107E-1	8.862263E-1	8.907406E-1	9.860142E-1	8.543590E-1	9.526240E-1	9.341714E-1	8.909006E-1	9.026425E-1	8.805342E-1	9.435890E-1	9.261191E-1	9.102711E-1	9.379780E-1	9.198858E-1	9.084218E-1	9.097111E-1	9.893821E-1	9.511865E-1	8.632039E-1	9.650154E-1	9.349172E-1	9.505022E-1	9.099679E-1	9.086607E-1	8.752059E-1	9.401157E-1	8.407943E-1	9.074202E-1	8.906705E-1	9.078539E-1	9.667801E-1	8.580670E-1	9.298939E-1	9.721445E-1	8.798924E-1	9.407924E-1	9.124496E-1	9.393562E-1	9.131766E-1	8.623941E-1	9.477068E-1	9.460467E-1	9.875421E-1	9.007167E-1	9.350531E-1	9.555285E-1	9.554004E-1	8.789870E-1	8.569334E-1	9.125525E-1	9.031787E-1	9.228621E-1	8.868513E-1	9.279648E-1	9.280643E-1	9.150631E-1	9.181857E-1
5.560300E+2	8.529736E-1	8.502168E-1	8.302738E-1	8.293842E-1	8.352990E-1	8.547338E-1	9.106781E-1	8.718339E-1	8.847155E-1	8.451047E-1	8.799871E-1	8.315657E-1	8.470841E-1	8.502093E-1	9.110594E-1	7.974611E-1	8.782823E-1	9.003119E-1	8.668445E-1	9.161357E-1	8.444826E-1	9.011711E-1	9.096448E-1	8.933188E-1	8.710139E-1	9.313294E-1	8.710873E-1	8.379164E-1	8.807524E-1	7.812053E-1	9.134280E-1	9.061305E-1	8.423073E-1	8.687124E-1	7.844494E-1	8.247850E-1	8.592277E-1	8.355131E-1	8.709992E-1	8.733187E-1	8.736059E-1	8.449822E-1	8.344835E-1	9.165389E-1	8.921722E-1	8.175525E-1	8.571209E-1	8.264438E-1	8.397285E-1	8.364053E-1	8.112458E-1	8.747007E-1	9.003624E-1	9.289332E-1	8.550053E-1	8.755954E-1	8.537552E-1	8.816788E-1	9.118474E-1	9.307445E-1	8.746432E-1	8.808787E-1	8.644746E-1	9.321081E-1	9.190056E-1	8.488710E-1	8.253081E-1	8.691981E-1	8.544429E-1	8.739865E-1	8.094481E-1	9.000012E-1	9.086602E-1	8.139236E-1	8.033908E-1	8.351784E-1	8.520576E-1	8.289220E-1	8.907229E-1	8.966346E-1	8.898184E-1	8.847040E-1	8.767767E-1	8.258248E-1	8.146030E-1	8.302737E-1	8.445874E-1	8.108578E-1	8.400662E-1	8.534468E-1	9.293759E-1	8.848413E-1	9.379903E-1	8.662748E-1	8.363339E-1	8.412140E-1	8.958440E-1	8.480873E-1	8.605250E-1	8.903226E-1	9.361205E-1	8.039763E-1	8.910220E-1	8.510391E-1	7.929217E-1	8.698695E-1	9.023610E-1	8.715965E-1	8.529337E-1	8.664346E-1	8.108441E-1	8.133928E-1	8.936587E-1	8.467254E-1	8.234373E-1	8.274536E-1	8.034976E-1	8.834441E-1	8.472522E-1	8.306167E-1	8.115769E-1	9.032909E-1	8.681314E-1	8.441874E-1	8.755601E-1	8.415753E-1	8.557350E-1	8.525018E-1	8.919769E-1	8.524474E-1	9.057357E-1	8.739707E-1	8.283197E-1	8.349805E-1	8.609846E-1	8.555639E-1	8.576387E-1	8.328389E-1	8.492598E-1	8.151224E-1	8.490824E-1	8.100790E-1	8.878307E-1	8.675651E-1	8.419529E-1	8.510462E-1	8.318428E-1	8.303043E-1	9.319746E-1	8.748588E-1	8.754499E-1	9.792272E-1	8.119950E-1	9.398547E-1	9.097835E-1	8.989853E-1	8.550902E-1	8.283071E-1	9.226661E-1	8.283971E-1	8.228925E-1	8.145046E-1	8.821515E-1	9.418027E-1	8.247088E-1	8.755774E-1
5.570330E+2	1.102858E+0	9.684993E-1	1.018935E+0	9.864346E-1	1.075178E+0	1.044070E+0	1.115728E+0	1.051435E+0	1.039348E+0	1.040244E+0	1.073030E+0	1.052260E+0	1.107013E+0	1.066078E+0	1.053187E+0	1.033513E+0	1.018795E+0	9.571528E-1	1.073388E+0	1.076741E+0	1.028873E+0	1.096049E+0	1.139585E+0	1.011117E+0	1.054706E+0	1.035826E+0	1.038159E+0	1.033587E+0	9.964544E-1	1.015749E+0	1.047419E+0	1.077061E+0	1.074244E+0	1.077715E+0	1.021936E+0	9.642089E-1	1.049409E+0	1.021980E+0	1.029107E+0	1.088896E+0	1.100868E+0	1.033984E+0	1.060283E+0	1.028575E+0	1.034244E+0	1.014427E+0	1.019457E+0	1.042040E+0	1.047987E+0	1.061384E+0	1.064200E+0	1.061544E+0	1.020165E+0	1.045680E+0	1.061406E+0	1.054676E+0	1.070203E+0	1.082401E+0	1.044207E+0	1.090471E+0	1.002340E+0	1.053663E+0	1.076004E+0	1.110405E+0	1.029020E+0	1.006532E+0	1.014712E+0	1.096836E+0	1.055881E+0	1.040500E+0	1.000720E+0	1.114036E+0	1.095252E+0	1.058787E+0	1.060523E+0	9.672000E-1	1.095099E+0	1.093281E+0	1.074034E+0	1.086982E+0	1.099735E+0	1.025733E+0	1.045914E+0	9.949827E-1	1.021477E+0	1.124139E+0	1.083399E+0	1.059880E+0	1.017180E+0	1.080282E+0	9.931894E-1	1.015102E+0	1.058996E+0	9.836973E-1	9.988977E-1	9.775037E-1	1.029094E+0	1.007123E+0	1.071413E+0	1.063950E+0	1.062304E+0	1.043777E+0	9.948721E-1	1.087845E+0	1.022502E+0	1.000510E+0	1.051176E+0	9.754103E-1	1.035605E+0	1.092497E+0	1.081123E+0	1.104634E+0	1.042893E+0	1.019826E+0	1.075094E+0	1.060126E+0	1.034206E+0	1.031375E+0	9.605201E-1	1.110566E+0	1.042009E+0	1.067340E+0	1.030196E+0	1.092268E+0	1.064326E+0	1.030574E+0	1.056667E+0	1.009880E+0	1.044783E+0	9.716541E-1	1.054184E+0	1.030679E+0	1.068790E+0	1.073536E+0	1.114114E+0	1.008755E+0	1.077668E+0	1.019207E+0	1.052140E+0	1.119119E+0	1.019016E+0	1.051798E+0	1.021679E+0	1.071793E+0	1.046206E+0	1.138146E+0	1.021266E+0	1.050259E+0	1.061826E+0	1.007069E+0	1.034777E+0	1.104244E+0	1.026835E+0	1.032620E+0	1.066265E+0	1.054877E+0	9.938613E-1	1.045358E+0	1.050369E+0	1.034506E+0	1.082949E+0	1.053546E+0	1.074952E+0	1.046150E+0	9.681577E-1	9.891676E-1
5.580110E+2	1.308849E+0	1.265264E+0	1.309432E+0	1.311421E+0	1.304756E+0	1.306386E+0	1.191294E+0	1.246160E+0	1.237165E+0	1.266370E+0	1.258460E+0	1.316944E+0	1.270819E+0	1.342683E+0	1.235208E+0	1.300832E+0	1.283231E+0	1.325821E+0	1.291694E+0	1.306672E+0	1.261290E+0	1.252529E+0	1.297872E+0	1.301554E+0	1.323514E+0	1.286595E+0	1.263790E+0	1.269207E+0	1.244969E+0	1.230308E+0	1.245318E+0	1.198509E+0	1.291632E+0	1.255641E+0	1.238354E+0	1.304756E+0	1.326263E+0	1.259147E+0	1.273049E+0	1.312110E+0	1.233948E+0	1.154986E+0	1.286714E+0	1.315177E+0	1.293228E+0	1.319478E+0	1.260153E+0	1.245856E+0	1.303343E+0	1.352940E+0	1.302295E+0	1.236057E+0	1.328649E+0	1.233639E+0	1.232725E+0	1.280073E+0	1.229928E+0	1.314022E+0	1.235383E+0	1.331983E+0	1.233304E+0	1.252197E+0	1.260352E+0	1.234825E+0	1.271355E+0	1.270259E+0	1.275859E+0	1.339998E+0	1.273838E+0	1.351278E+0	1.219258E+0	1.228234E+0	1.323933E+0	1.253224E+0	1.292698E+0	1.248683E+0	1.284484E+0	1.257264E+0	1.248741E+0	1.276989E+0	1.307577E+0	1.264201E+0	1.233665E+0	1.230046E+0	1.255681E+0	1.238327E+0	1.252748E+0	1.296517E+0	1.278801E+0	1.307343E+0	1.263655E+0	1.173462E+0	1.310611E+0	1.283582E+0	1.275600E+0	1.292381E+0	1.272297E+0	1.304225E+0	1.267689E+0	1.248834E+0	1.285936E+0	1.284214E+0	1.207665E+0	1.306826E+0	1.283968E+0	1.213428E+0	1.266768E+0	1.248824E+0	1.258606E+0	1.228339E+0	1.259070E+0	1.289684E+0	1.257720E+0	1.218465E+0	1.329714E+0	1.295932E+0	1.230562E+0	1.322259E+0	1.245414E+0	1.298030E+0	1.165652E+0	1.268596E+0	1.311879E+0	1.259751E+0	1.212360E+0	1.256206E+0	1.271716E+0	1.283676E+0	1.287595E+0	1.315677E+0	1.318422E+0	1.245535E+0	1.323580E+0	1.316745E+0	1.337977E+0	1.244191E+0	1.268840E+0	1.252981E+0	1.250287E+0	1.290446E+0	1.261116E+0	1.192943E+0	1.252381E+0	1.302775E+0	1.209453E+0	1.238479E+0	1.256022E+0	1.230936E+0	1.273424E+0	1.316247E+0	1.285326E+0	1.264766E+0	1.205932E+0	1.212494E+0	1.236310E+0	1.280664E+0	1.285811E+0	1.294378E+0	1.283432E+0	1.312658E+0	1.276030E+0	1.216268E+0	1.314932E+0	1.240244E+0	1.273731E+0	1.326378E+0
5.590390E+2	1.227690E+0	1.210682E+0	1.220815E+0	1.216229E+0	1.210615E+0	1.209110E+0	1.350525E+0	1.207260E+0	1.212336E+0	1.244911E+0	1.175642E+0	1.212434E+0	1.259016E+0	1.230013E+0	1.306814E+0	1.255636E+0	1.138475E+0	1.215605E+0	1.249448E+0	1.230084E+0	1.231554E+0	1.214744E+0	1.173950E+0	1.209187E+0	1.173713E+0	1.204504E+0	1.272133E+0	1.221657E+0	1.258528E+0	1.211720E+0	1.232644E+0	1.308839E+0	1.241940E+0	1.211643E+0	1.203167E+0	1.242093E+0	1.168239E+0	1.304344E+0	1.237073E+0	1.261683E+0	1.239477E+0	1.200797E+0	1.227313E+0	1.273633E+0	1.210487E+0	1.214042E+0	1.283666E+0	1.229431E+0	1.250793E+0	1.213605E+0	1.199597E+0	1.133358E+0	1.218608E+0	1.239317E+0	1.204825E+0	1.219075E+0	1.240524E+0	1.258854E+0	1.273790E+0	1.172728E+0	1.246351E+0	1.314835E+0	1.250303E+0	1.273921E+0	1.234187E+0	1.316047E+0	1.290047E+0	1.165678E+0	1.138997E+0	1.209357E+0	1.257018E+0	1.211913E+0	1.246909E+0	1.220032E+0	1.262451E+0	1.235393E+0	1.220267E+0	1.226891E+0	1.292482E+0	1.160623E+0	1.290314E+0	1.224471E+0	1.177657E+0	1.263176E+0	1.270841E+0	1.204767E+0	1.274848E+0	1.216426E+0	1.220674E+0	1.234054E+0	1.143261E+0	1.222909E+0	1.250322E+0	1.228007E+0	1.252294E+0	1.185380E+0	1.260954E+0	1.214587E+0	1.244742E+0	1.225817E+0	1.246292E+0	1.196663E+0	1.192442E+0	1.246797E+0	1.251421E+0	1.202787E+0	1.214275E+0	1.221604E+0	1.252057E+0	1.297671E+0	1.229710E+0	1.215286E+0	1.195677E+0	1.246690E+0	1.177305E+0	1.263321E+0	1.206187E+0	1.179558E+0	1.204306E+0	1.215535E+0	1.238220E+0	1.227774E+0	1.269953E+0	1.250535E+0	1.196900E+0	1.129186E+0	1.244078E+0	1.229801E+0	1.232259E+0	1.240919E+0	1.203337E+0	1.258139E+0	1.258512E+0	1.197033E+0	1.237838E+0	1.266339E+0	1.176720E+0	1.265755E+0	1.245235E+0	1.210348E+0	1.268662E+0	1.335457E+0	1.257335E+0	1.226492E+0	1.229633E+0	1.173176E+0	1.225667E+0	1.191021E+0	1.249118E+0	1.234481E+0	1.279794E+0	1.197320E+0	1.199095E+0	1.251237E+0	1.214790E+0	1.247517E+0	1.121118E+0	1.229610E+0	1.234936E+0	1.224248E+0	1.188383E+0	1.261063E+0	1.127765E+0	1.201371E+0	1.121974E+0	1.133767E+0
5.600180E+2	1.014097E+0	1.070672E+0	1.073530E+0	1.025237E+0	1.054490E+0	9.747990E-1	9.913356E-1	1.043301E+0	9.957623E-1	1.040212E+0	1.037304E+0	1.041975E+0	1.033249E+0	9.885107E-1	1.020856E+0	9.937931E-1	1.068292E+0	1.063147E+0	1.003129E+0	1.048282E+0	1.059184E+0	1.078983E+0	1.031153E+0	1.035410E+0	1.047663E+0	1.048869E+0	1.049510E+0	1.049596E+0	1.017562E+0	1.045622E+0	1.008700E+0	1.039850E+0	1.099242E+0	1.020794E+0	1.001009E+0	1.041983E+0	9.719200E-1	9.983544E-1	1.043501E+0	9.969082E-1	1.041274E+0	1.053227E+0	1.063000E+0	9.886681E-1	1.018163E+0	1.049101E+0	1.000822E+0	1.038202E+0	9.528848E-1	1.024497E+0	9.949003E-1	1.026128E+0	9.899374E-1	1.047669E+0	1.058586E+0	1.050119E+0	1.049953E+0	1.015175E+0	1.038666E+0	1.069395E+0	9.963299E-1	9.893232E-1	1.009868E+0	1.003437E+0	1.069536E+0	1.088424E+0	1.013731E+0	1.049340E+0	1.067183E+0	9.684108E-1	1.020116E+0	1.000857E+0	9.655873E-1	1.031499E+0	9.747866E-1	1.025472E+0	1.019215E+0	1.014436E+0	1.017882E+0	1.093253E+0	1.069508E+0	1.012762E+0	1.085871E+0	1.023026E+0	1.022397E+0	1.045829E+0	1.030171E+0	1.033420E+0	1.062503E+0	9.901941E-1	1.041547E+0	1.044539E+0	1.028347E+0	1.016028E+0	1.060339E+0	1.040799E+0	1.080687E+0	1.000107E+0	1.013185E+0	1.030793E+0	1.001614E+0	1.053959E+0	1.028379E+0	1.004271E+0	1.027676E+0	1.051395E+0	1.023523E+0	1.077752E+0	1.028391E+0	9.897253E-1	9.860121E-1	1.000005E+0	1.052010E+0	1.073833E+0	9.900976E-1	1.027896E+0	1.072127E+0	1.063914E+0	1.057798E+0	9.951095E-1	1.029661E+0	9.827852E-1	9.758843E-1	1.012167E+0	1.023081E+0	1.000968E+0	1.062887E+0	1.042143E+0	9.638282E-1	1.005947E+0	1.091578E+0	9.660695E-1	9.863834E-1	1.036643E+0	1.037374E+0	1.084830E+0	1.040268E+0	1.063181E+0	1.044225E+0	1.051624E+0	1.065760E+0	1.015092E+0	1.035670E+0	9.899195E-1	1.042136E+0	1.040311E+0	1.002936E+0	1.044017E+0	1.020068E+0	9.712288E-1	1.073597E+0	1.016161E+0	1.047972E+0	1.041725E+0	9.979162E-1	1.020713E+0	1.033626E+0	1.012275E+0	9.687492E-1	1.064267E+0	1.114293E+0	1.059175E+0	1.004472E+0	1.057223E+0	1.089935E+0	1.025828E+0
5.610130E+2	8.437706E-1	8.720073E-1	8.861085E-1	8.670558E-1	9.099371E-1	8.241785E-1	8.971927E-1	8.486385E-1	9.023386E-1	8.456487E-1	8.766593E-1	8.786506E-1	8.727342E-1	9.287066E-1	9.040631E-1	8.586569E-1	9.079025E-1	8.671342E-1	8.713597E-1	8.125940E-1	8.621554E-1	8.217310E-1	8.601462E-1	8.469803E-1	9.123767E-1	8.652313E-1	8.944883E-1	8.826652E-1	9.110901E-1	8.597454E-1	9.201435E-1	8.994962E-1	8.484207E-1	8.723861E-1	9.098370E-1	9.030894E-1	9.178754E-1	8.584671E-1	8.527495E-1	9.090144E-1	9.042100E-1	8.717522E-1	8.720489E-1	8.869072E-1	8.591982E-1	8.749016E-1	8.732153E-1	8.932804E-1	8.811396E-1	9.027502E-1	8.081950E-1	8.722885E-1	9.174059E-1	8.799986E-1	8.703053E-1	8.463913E-1	8.461472E-1	8.486907E-1	8.404572E-1	9.207304E-1	8.819750E-1	8.855778E-1	8.343884E-1	8.967715E-1	9.076092E-1	8.495993E-1	8.571467E-1	8.589827E-1	8.578762E-1	8.626242E-1	8.882059E-1	8.601440E-1	9.082186E-1	8.709915E-1	8.453693E-1	8.839104E-1	8.564128E-1	8.681391E-1	8.227320E-1	8.699139E-1	8.845202E-1	8.523932E-1	8.564247E-1	8.752092E-1	9.119463E-1	8.748006E-1	8.961347E-1	8.797889E-1	8.904877E-1	8.580929E-1	8.672259E-1	8.657549E-1	8.891971E-1	9.300681E-1	8.159970E-1	8.903944E-1	9.109599E-1	9.235444E-1	8.730827E-1	8.923252E-1	8.786065E-1	8.798103E-1	8.749712E-1	8.282910E-1	9.030314E-1	9.314981E-1	9.044511E-1	8.283353E-1	8.501261E-1	8.563707E-1	9.145215E-1	9.022888E-1	8.141885E-1	8.812823E-1	8.661048E-1	8.709061E-1	8.767984E-1	8.726971E-1	8.534980E-1	8.161404E-1	8.746165E-1	8.788590E-1	9.047057E-1	8.162202E-1	9.074387E-1	8.731820E-1	8.970330E-1	8.598195E-1	8.628781E-1	8.488861E-1	8.592813E-1	9.174296E-1	8.108658E-1	9.476386E-1	9.302815E-1	8.821672E-1	9.182763E-1	8.422259E-1	8.479862E-1	8.800670E-1	8.652675E-1	8.762629E-1	8.820255E-1	9.525530E-1	9.392254E-1	9.231005E-1	8.887703E-1	9.260530E-1	8.766651E-1	8.621066E-1	8.570059E-1	9.060681E-1	8.864972E-1	9.145852E-1	9.003520E-1	9.018450E-1	9.086009E-1	8.569875E-1	8.739713E-1	9.403693E-1	8.604440E-1	9.288868E-1	8.581702E-1	9.581552E-1	8.962115E-1	7.320619E-1
5.620220E+2	7.647378E-1	7.601878E-1	7.836414E-1	7.240055E-1	7.735487E-1	7.752133E-1	7.450502E-1	7.177002E-1	7.572113E-1	7.617710E-1	7.635703E-1	7.723356E-1	7.308862E-1	7.709433E-1	7.602370E-1	7.711423E-1	7.646957E-1	7.456409E-1	7.330900E-1	7.773268E-1	7.498198E-1	7.568534E-1	7.625858E-1	7.350784E-1	7.402256E-1	8.120014E-1	7.867713E-1	8.209263E-1	7.610513E-1	7.950339E-1	7.873522E-1	7.074254E-1	7.506298E-1	7.820800E-1	7.282391E-1	7.443114E-1	7.534359E-1	7.393362E-1	7.658561E-1	7.381380E-1	7.192032E-1	7.455801E-1	7.048136E-1	8.176270E-1	8.326218E-1	7.698260E-1	7.538574E-1	7.752898E-1	7.450687E-1	7.095867E-1	7.195192E-1	7.574054E-1	7.404422E-1	8.106068E-1	7.653622E-1	8.051709E-1	7.947500E-1	7.385462E-1	8.070711E-1	7.195902E-1	7.541707E-1	7.315111E-1	8.224674E-1	7.436463E-1	7.684749E-1	7.154402E-1	7.299402E-1	7.197159E-1	7.185702E-1	7.799555E-1	7.776217E-1	7.597301E-1	7.297660E-1	7.566770E-1	7.993666E-1	7.422433E-1	7.461116E-1	7.695877E-1	7.648256E-1	6.732783E-1	7.539163E-1	7.244808E-1	7.365493E-1	7.175694E-1	7.478573E-1	7.460159E-1	7.267002E-1	7.441372E-1	7.513748E-1	7.050602E-1	7.415963E-1	7.575855E-1	7.565198E-1	7.620581E-1	7.601608E-1	8.186454E-1	7.649889E-1	7.638679E-1	7.357229E-1	7.251706E-1	7.118071E-1	7.201037E-1	7.524542E-1	8.058938E-1	7.510379E-1	7.767463E-1	7.807942E-1	7.527956E-1	7.466820E-1	7.848900E-1	7.586319E-1	7.468868E-1	8.043098E-1	6.987913E-1	7.892611E-1	7.250371E-1	7.201445E-1	7.128675E-1	7.511063E-1	7.394081E-1	7.540589E-1	7.476391E-1	7.394243E-1	7.574849E-1	7.910234E-1	7.571883E-1	7.791019E-1	7.766573E-1	7.669368E-1	7.362593E-1	7.037197E-1	7.942157E-1	7.127679E-1	7.570892E-1	7.175064E-1	7.917187E-1	7.279913E-1	7.527390E-1	7.820028E-1	7.454178E-1	7.729038E-1	7.726961E-1	7.550514E-1	7.377637E-1	7.654867E-1	7.376388E-1	7.324156E-1	7.871699E-1	7.794958E-1	7.630789E-1	7.473739E-1	7.621538E-1	7.968304E-1	7.268461E-1	8.135343E-1	7.757903E-1	7.884130E-1	7.759026E-1	8.104202E-1	7.132726E-1	7.580551E-1	7.600894E-1	7.602804E-1	6.967763E-1	8.372055E-1	8.007803E-1
5.629840E+2	8.742197E-1	8.755643E-1	8.179143E-1	8.693825E-1	8.139030E-1	8.332264E-1	8.539505E-1	9.015771E-1	8.748948E-1	8.742538E-1	8.283657E-1	8.810408E-1	8.269650E-1	8.638141E-1	8.962998E-1	8.823333E-1	8.248443E-1	8.870702E-1	8.519497E-1	8.456960E-1	8.609160E-1	8.791515E-1	9.154368E-1	8.914495E-1	8.221482E-1	8.530863E-1	8.267257E-1	8.961918E-1	8.711889E-1	8.881787E-1	8.262389E-1	8.419566E-1	8.394172E-1	8.427238E-1	8.796329E-1	8.355394E-1	8.985695E-1	8.612177E-1	8.498131E-1	8.800351E-1	8.875563E-1	8.680152E-1	8.569553E-1	8.354818E-1	8.598069E-1	8.656004E-1	8.654280E-1	8.766761E-1	8.359051E-1	8.590606E-1	8.679982E-1	9.037452E-1	8.967830E-1	8.337738E-1	9.036285E-1	8.209842E-1	8.755347E-1	8.824550E-1	8.451145E-1	8.649477E-1	9.550301E-1	8.753984E-1	8.419845E-1	8.487671E-1	8.339177E-1	8.601162E-1	8.465788E-1	8.198486E-1	8.513546E-1	8.655811E-1	8.174456E-1	8.456860E-1	8.296957E-1	8.405351E-1	8.689101E-1	8.876055E-1	8.825980E-1	8.090886E-1	8.639729E-1	8.781784E-1	8.535785E-1	8.825674E-1	8.067891E-1	8.581165E-1	8.513279E-1	8.395814E-1	8.824601E-1	8.365021E-1	8.644935E-1	8.629104E-1	8.498700E-1	8.637600E-1	8.997150E-1	8.366736E-1	8.117451E-1	8.200361E-1	8.933940E-1	7.934360E-1	8.733451E-1	8.527766E-1	8.979455E-1	8.267424E-1	8.888622E-1	7.872901E-1	8.959009E-1	8.007167E-1	8.682049E-1	8.638418E-1	8.586607E-1	8.994259E-1	8.672169E-1	8.599330E-1	9.188905E-1	8.342906E-1	8.639247E-1	8.206032E-1	8.939937E-1	8.631104E-1	8.796071E-1	8.834824E-1	9.357647E-1	8.844789E-1	7.891537E-1	9.457120E-1	8.895895E-1	8.618698E-1	8.884436E-1	8.363178E-1	8.547424E-1	8.839171E-1	8.648367E-1	8.156333E-1	8.426752E-1	8.874148E-1	7.805902E-1	8.360016E-1	8.870934E-1	8.804077E-1	8.555589E-1	8.730237E-1	8.564502E-1	8.684967E-1	8.295147E-1	8.430680E-1	8.609767E-1	8.351424E-1	8.987016E-1	8.512888E-1	7.763250E-1	9.095874E-1	7.823181E-1	8.578984E-1	8.129697E-1	8.051198E-1	8.976067E-1	7.784473E-1	8.534610E-1	8.773173E-1	8.908522E-1	8.192125E-1	8.768841E-1	8.441787E-1	9.146045E-1	9.441301E-1	9.143335E-1	9.103649E-1
5.640120E+2	1.012469E+0	1.008709E+0	1.059902E+0	1.058388E+0	1.104336E+0	1.086521E+0	1.029128E+0	1.114513E+0	1.135595E+0	1.040758E+0	1.111617E+0	1.028906E+0	1.099938E+0	1.038230E+0	9.954270E-1	1.051363E+0	1.068228E+0	1.046551E+0	1.092677E+0	1.018024E+0	1.055424E+0	1.064720E+0	1.108158E+0	1.080305E+0	1.035318E+0	1.036421E+0	1.065753E+0	1.029514E+0	1.055113E+0	1.082098E+0	1.085280E+0	1.054414E+0	1.035631E+0	1.071651E+0	1.074666E+0	1.052655E+0	1.093541E+0	1.001951E+0	1.041516E+0	1.056336E+0	1.072629E+0	1.103136E+0	1.081601E+0	1.041204E+0	1.060856E+0	1.038993E+0	1.080678E+0	1.050117E+0	1.092798E+0	1.086869E+0	1.083315E+0	1.051308E+0	1.049341E+0	1.056324E+0	1.019763E+0	1.082737E+0	1.062334E+0	1.086788E+0	1.026387E+0	1.090279E+0	1.044787E+0	1.077785E+0	1.036453E+0	1.070403E+0	1.026134E+0	9.938419E-1	1.091206E+0	1.072752E+0	1.099326E+0	1.102422E+0	1.129155E+0	1.078998E+0	1.079175E+0	1.128311E+0	1.096203E+0	1.095571E+0	1.079372E+0	1.054606E+0	1.100914E+0	1.097508E+0	1.024105E+0	1.096020E+0	1.097747E+0	1.037026E+0	1.088688E+0	1.101724E+0	1.058936E+0	1.105616E+0	1.033316E+0	1.083722E+0	1.110896E+0	1.029580E+0	1.037348E+0	1.053719E+0	1.070224E+0	1.058759E+0	1.050847E+0	1.112845E+0	1.063446E+0	1.107551E+0	1.123330E+0	1.046016E+0	1.075708E+0	1.104491E+0	1.039475E+0	1.028353E+0	1.036158E+0	1.088621E+0	1.130662E+0	9.920856E-1	1.080892E+0	1.051812E+0	1.082878E+0	1.097696E+0	1.092289E+0	1.096823E+0	1.127554E+0	1.047222E+0	1.053111E+0	1.047475E+0	1.096805E+0	1.041635E+0	1.043225E+0	1.066949E+0	1.084981E+0	1.111000E+0	9.666976E-1	1.049014E+0	1.058934E+0	1.011134E+0	1.062950E+0	1.067137E+0	1.136532E+0	1.064738E+0	1.055081E+0	1.045636E+0	1.073459E+0	1.045558E+0	1.057703E+0	1.032226E+0	9.833050E-1	1.084297E+0	1.105994E+0	1.055981E+0	1.086566E+0	9.977863E-1	1.080147E+0	1.054021E+0	1.087880E+0	1.033047E+0	1.059868E+0	1.075945E+0	1.067390E+0	1.107173E+0	9.821978E-1	1.109457E+0	1.074343E+0	1.105562E+0	1.024488E+0	1.033836E+0	9.931143E-1	1.075383E+0	1.020201E+0	1.028405E+0	1.082206E+0	1.046915E+0
5.650210E+2	1.047566E+0	1.031915E+0	9.947597E-1	1.070350E+0	1.060388E+0	1.085837E+0	1.075619E+0	1.116172E+0	1.074330E+0	1.086180E+0	1.076742E+0	1.057472E+0	1.026338E+0	9.940925E-1	1.052013E+0	1.076384E+0	1.074178E+0	1.063693E+0	1.075182E+0	1.055835E+0	1.067993E+0	1.089643E+0	1.045427E+0	1.093660E+0	1.090687E+0	1.108603E+0	1.077230E+0	1.094347E+0	1.048686E+0	9.922170E-1	1.067780E+0	1.115650E+0	1.088029E+0	1.076673E+0	1.117949E+0	1.097497E+0	1.015430E+0	1.053261E+0	1.091698E+0	1.027218E+0	1.026335E+0	1.119735E+0	1.050494E+0	1.035333E+0	1.002140E+0	1.095139E+0	1.011017E+0	1.048535E+0	1.062377E+0	1.076957E+0	1.098426E+0	1.145236E+0	1.014262E+0	1.076580E+0	1.035957E+0	1.071041E+0	1.112382E+0	1.035850E+0	1.065625E+0	1.078088E+0	1.033684E+0	1.044135E+0	1.032145E+0	1.123973E+0	1.024972E+0	1.066944E+0	1.038592E+0	1.153308E+0	1.103430E+0	1.033793E+0	1.074415E+0	1.084195E+0	1.074536E+0	1.026568E+0	1.071313E+0	1.034657E+0	1.100852E+0	1.093121E+0	1.058847E+0	1.078057E+0	1.005136E+0	1.037501E+0	1.129923E+0	1.083085E+0	1.088253E+0	1.065216E+0	1.050742E+0	1.084625E+0	1.084898E+0	1.102121E+0	1.022614E+0	1.114326E+0	1.066616E+0	1.082783E+0	1.089900E+0	1.100066E+0	9.994746E-1	1.023364E+0	1.024603E+0	1.017620E+0	9.814220E-1	1.081781E+0	1.103881E+0	1.105137E+0	1.003646E+0	1.092714E+0	1.063924E+0	1.101865E+0	1.045714E+0	1.081766E+0	1.072986E+0	1.082902E+0	1.029038E+0	1.072790E+0	1.086133E+0	1.091124E+0	1.010218E+0	1.003364E+0	1.070897E+0	1.041129E+0	1.048730E+0	1.082506E+0	1.121944E+0	1.115795E+0	9.969136E-1	1.102275E+0	1.090855E+0	1.053040E+0	1.089563E+0	1.113558E+0	1.062304E+0	1.084382E+0	1.113740E+0	9.705887E-1	1.064613E+0	1.050271E+0	1.058314E+0	1.108646E+0	1.079336E+0	1.033396E+0	1.075336E+0	1.006544E+0	1.052898E+0	1.079464E+0	1.078766E+0	1.135005E+0	1.058233E+0	1.060467E+0	1.050956E+0	1.066721E+0	1.038632E+0	1.047174E+0	1.129801E+0	1.081098E+0	1.070321E+0	1.048999E+0	1.062456E+0	1.039742E+0	1.056480E+0	1.063771E+0	1.134313E+0	1.061024E+0	1.132511E+0	9.829013E-1	9.515781E-1	1.210757E+0
5.660100E+2	9.324343E-1	9.345442E-1	9.719682E-1	9.370324E-1	9.126358E-1	9.707780E-1	9.664061E-1	9.395408E-1	9.677935E-1	9.602096E-1	9.459602E-1	9.237111E-1	9.726333E-1	9.588248E-1	9.357247E-1	9.021243E-1	9.780036E-1	8.946915E-1	9.319740E-1	9.669422E-1	9.360192E-1	9.704872E-1	9.902517E-1	9.065066E-1	9.667199E-1	9.341794E-1	8.814687E-1	8.912789E-1	9.316287E-1	9.420878E-1	9.231871E-1	9.270091E-1	8.997253E-1	9.621438E-1	9.350538E-1	9.260856E-1	9.731018E-1	1.016082E+0	9.514607E-1	9.401733E-1	9.801722E-1	9.915983E-1	9.724649E-1	9.391859E-1	9.839424E-1	9.332443E-1	9.747704E-1	9.024523E-1	9.841134E-1	9.284351E-1	9.529403E-1	9.704783E-1	9.420648E-1	9.336938E-1	9.825002E-1	9.158348E-1	8.940261E-1	9.432894E-1	9.866995E-1	8.915991E-1	9.753785E-1	9.374370E-1	9.765887E-1	9.611607E-1	9.992272E-1	9.445630E-1	9.582638E-1	9.247499E-1	1.004115E+0	9.485389E-1	9.414299E-1	1.037847E+0	9.274252E-1	1.017782E+0	9.227023E-1	9.769933E-1	8.906876E-1	9.717671E-1	9.229552E-1	9.830954E-1	9.646871E-1	1.006849E+0	9.858574E-1	1.026619E+0	9.174313E-1	9.934476E-1	9.570218E-1	9.521132E-1	8.990189E-1	1.007748E+0	9.639287E-1	9.882443E-1	8.776070E-1	9.478091E-1	9.308287E-1	8.996066E-1	9.197341E-1	9.639597E-1	9.730893E-1	9.625527E-1	9.596813E-1	9.959837E-1	9.784419E-1	9.412901E-1	9.935226E-1	1.019846E+0	9.907354E-1	9.739357E-1	9.512053E-1	9.524868E-1	9.028708E-1	9.808540E-1	9.762754E-1	9.899220E-1	9.275559E-1	8.944213E-1	9.690865E-1	9.787906E-1	9.607170E-1	1.030523E+0	9.755353E-1	9.823712E-1	9.778841E-1	9.573845E-1	9.357620E-1	9.509663E-1	9.493633E-1	9.395476E-1	9.546282E-1	9.096321E-1	9.494843E-1	9.214583E-1	9.522211E-1	9.530293E-1	9.203891E-1	9.472713E-1	9.726192E-1	9.215969E-1	9.061046E-1	9.664385E-1	9.461470E-1	9.604037E-1	9.773231E-1	9.206586E-1	8.929155E-1	1.007469E+0	9.574325E-1	9.266212E-1	1.010146E+0	9.733911E-1	9.499024E-1	9.519202E-1	9.910834E-1	9.525272E-1	9.846874E-1	9.323426E-1	9.612703E-1	9.714884E-1	9.128980E-1	8.904612E-1	9.431550E-1	9.533899E-1	8.965921E-1	9.163283E-1	9.674309E-1	1.002575E+0
5.670200E+2	9.741661E-1	9.704536E-1	8.819284E-1	9.208992E-1	8.553912E-1	9.339513E-1	8.994992E-1	8.651369E-1	8.425740E-1	8.796863E-1	9.256793E-1	8.865303E-1	9.074220E-1	8.841823E-1	8.933571E-1	9.077351E-1	8.921491E-1	8.906458E-1	8.994962E-1	9.385439E-1	9.156449E-1	8.711595E-1	8.150201E-1	8.998694E-1	8.876340E-1	8.505109E-1	8.821306E-1	8.446171E-1	9.001824E-1	9.529892E-1	9.033573E-1	9.068506E-1	9.053329E-1	9.042644E-1	9.120923E-1	8.519905E-1	8.816242E-1	9.078395E-1	8.932839E-1	8.783843E-1	8.951951E-1	8.911734E-1	8.845960E-1	8.667845E-1	8.795560E-1	8.396749E-1	8.963925E-1	9.401608E-1	8.915765E-1	8.452993E-1	9.728146E-1	9.039946E-1	9.025067E-1	8.883984E-1	9.263492E-1	9.085732E-1	8.944216E-1	8.763292E-1	8.808063E-1	8.606576E-1	8.789891E-1	8.917991E-1	9.354501E-1	8.430950E-1	8.645870E-1	8.947645E-1	8.986359E-1	8.956271E-1	8.853111E-1	8.780398E-1	8.753347E-1	8.923959E-1	9.147538E-1	8.543799E-1	8.661999E-1	8.694720E-1	9.200004E-1	9.350987E-1	9.066478E-1	8.891039E-1	8.466576E-1	8.987563E-1	8.895167E-1	8.861257E-1	8.455778E-1	8.902919E-1	8.702373E-1	8.508545E-1	9.144322E-1	8.487552E-1	9.954050E-1	9.398390E-1	8.837157E-1	8.592716E-1	9.329116E-1	8.939339E-1	8.466638E-1	9.000640E-1	9.310942E-1	9.365608E-1	9.133663E-1	9.147278E-1	8.971952E-1	8.697125E-1	8.503206E-1	8.825163E-1	8.511673E-1	8.424261E-1	8.778955E-1	9.172393E-1	9.280883E-1	8.703488E-1	8.690134E-1	8.862406E-1	8.776144E-1	9.139366E-1	8.933285E-1	9.562183E-1	9.235454E-1	9.331687E-1	8.809567E-1	9.033548E-1	8.659473E-1	8.180016E-1	9.619507E-1	9.571586E-1	8.498236E-1	9.299834E-1	9.286360E-1	9.340709E-1	8.840863E-1	9.300002E-1	8.627215E-1	8.690804E-1	9.183499E-1	8.515745E-1	8.764189E-1	8.669103E-1	9.315621E-1	9.170120E-1	9.050538E-1	8.878083E-1	8.518066E-1	8.913246E-1	8.948413E-1	9.118921E-1	8.996756E-1	9.284042E-1	8.759231E-1	8.701120E-1	9.261827E-1	9.205946E-1	8.624298E-1	9.071935E-1	9.022853E-1	9.042240E-1	9.109000E-1	8.367372E-1	9.437722E-1	9.379045E-1	8.553278E-1	8.405414E-1	9.704715E-1	9.744654E-1	8.653936E-1	8.105729E-1
