Photon Energy (eV)	#1	#2	#3	#4	#5	#6	#7	#8	#9	#10	#11	#12	#13	#14	#15	#16	#17	#18	#19	#20	#21	#22	#23	#24	#25	#26	#27	#28	#29	#30	#31	#32	#33	#34	#35	#36	#37	#38	#39	#40	#41	#42	#43	#44	#45	#46	#47	#48	#49	#50	#51	#52	#53	#54	#55	#56	#57	#58	#59	#60	#61	#62	#63	#64	#65	#66	#67	#68	#69	#70	#71	#72	#73	#74	#75	#76	#77	#78	#79	#80	#81	#82	#83	#84	#85	#86	#87	#88	#89	#90	#91	#92	#93	#94	#95	#96	#97	#98	#99	#100	#101	#102	#103	#104	#105	#106	#107	#108	#109	#110	#111	#112	#113	#114	#115	#116	#117	#118	#119	#120	#121	#122	#123	#124	#125	#126	#127	#128	#129	#130	#131	#132	#133	#134	#135	#136	#137	#138	#139	#140	#141	#142	#143	#144	#145	#146	#147	#148	#149	#150	#151	#152	#153	#154	#155	#156	#157	#158	#159	#160	#161	#162	#163	#164	#165	
5.290170E+2	1.314535E-2	-2.015895E-2	1.895104E-2	-8.476151E-3	2.548627E-3	1.750586E-2	-2.528221E-2	5.084622E-3	6.781762E-3	-1.161402E-2	-1.576193E-2	-2.044420E-2	7.417849E-4	1.531021E-2	-1.354534E-2	8.810956E-3	-1.660334E-2	-9.894889E-3	1.259417E-2	1.671948E-2	6.160804E-4	-7.635943E-3	-6.374719E-3	-7.727081E-3	1.250002E-2	-2.555821E-3	1.422121E-2	-3.822215E-3	-5.912595E-3	-2.801845E-3	-5.362667E-3	-1.955661E-2	3.656069E-3	8.889359E-3	-3.117773E-3	-2.111289E-2	1.556284E-3	-7.433844E-3	-8.783630E-3	-1.013406E-2	-2.058315E-2	4.180133E-3	-3.041077E-3	3.287869E-3	-1.282701E-2	1.288829E-3	2.465770E-3	-2.785649E-3	9.550510E-3	-6.185319E-3	-2.311647E-2	-1.454433E-2	1.416688E-3	1.831332E-2	4.076912E-3	-9.990398E-3	-8.046537E-3	1.925314E-2	6.921327E-3	-2.198281E-2	1.143025E-2	9.004309E-3	9.831689E-3	-1.280517E-2	-2.941235E-2	3.161207E-3	-1.393399E-2	-2.206056E-2	-8.610032E-3	-2.853543E-2	3.047407E-2	-8.831527E-4	4.565366E-3	-8.950375E-4	-2.217365E-2	-5.468639E-3	-7.840919E-3	-1.120015E-3	-1.429699E-2	-4.605111E-3	-2.161373E-2	4.701872E-3	-1.869581E-2	1.501059E-2	1.324399E-2	-2.017070E-2	5.532031E-3	-2.643750E-2	-1.374090E-2	1.594654E-2	-8.457837E-3	6.305098E-3	-1.452996E-4	-9.847559E-3	-8.057070E-3	-5.321246E-3	-1.362662E-3	-2.154971E-2	-1.884642E-2	-2.397270E-3	1.481805E-2	1.023861E-2	1.988827E-3	1.181681E-2	-6.843341E-3	-3.383163E-3	-1.452789E-2	4.330630E-5	-1.060418E-2	-1.224094E-2	-2.746820E-2	1.282845E-2	5.426551E-3	1.224612E-2	-6.583533E-3	7.864237E-3	1.054849E-2	1.512088E-2	3.267906E-2	-1.092822E-2	-2.281206E-2	-1.360704E-2	1.690955E-2	1.955686E-2	9.192164E-3	-3.521900E-3	5.222970E-3	-1.478795E-6	9.714748E-5	2.025014E-2	3.262375E-3	-1.129547E-2	2.923972E-3	-5.841229E-4	-1.043545E-2	-3.164915E-2	1.121753E-2	1.499273E-2	-1.607002E-2	-2.024355E-3	3.285850E-3	-3.045674E-2	2.682699E-3	-6.902072E-3	7.392317E-3	1.559764E-2	4.309194E-4	4.131732E-3	2.210357E-2	8.675401E-3	2.344950E-2	-1.023732E-2	-2.553442E-2	5.637383E-3	1.302184E-2	6.070920E-3	5.126325E-3	-5.207225E-4	1.514567E-2	-8.884466E-3	-1.466124E-2	9.005996E-3	2.607683E-2	-3.034886E-2	-4.701047E-3
5.295060E+2	-2.630883E-2	-6.642299E-2	-2.891786E-2	-4.739366E-2	-6.976978E-2	-2.901467E-2	-4.044473E-2	-3.978586E-2	-5.713218E-2	-2.940685E-2	-4.522175E-2	-4.247416E-2	-3.110181E-2	-2.391175E-2	-2.890494E-2	-4.650834E-2	-3.573599E-2	-5.992727E-2	-5.514282E-2	-4.919259E-2	-4.039682E-2	-1.613847E-2	-2.839058E-2	-3.812121E-2	-6.003697E-2	-4.598620E-2	-1.371342E-2	-1.957719E-2	-2.943037E-2	-2.884768E-2	-5.892589E-2	-3.253885E-2	-3.131680E-2	-4.650699E-2	-3.975887E-2	-1.640680E-2	-4.515286E-2	-2.974109E-2	-3.335319E-2	-4.512354E-2	-4.682390E-2	-2.950280E-2	-3.782059E-2	-3.428321E-2	-6.035520E-2	-3.265323E-2	-3.149367E-2	-3.577657E-2	-3.815893E-2	-2.261480E-2	-3.547930E-3	-4.707141E-2	-2.947989E-2	-4.456672E-2	-4.853043E-2	-4.020014E-2	-6.267135E-2	-3.560256E-2	-3.713926E-2	-4.185450E-2	-5.028318E-2	-5.489830E-2	-4.670303E-2	-4.466040E-2	-5.668864E-2	-4.920989E-2	-4.126057E-2	-3.284711E-2	-5.732784E-2	-2.489371E-2	-3.823453E-2	-5.368318E-2	-3.722267E-2	-6.018123E-2	-5.340877E-2	-4.823700E-2	-3.451881E-2	-3.976829E-2	-5.694423E-2	-3.740830E-2	-2.855404E-2	-4.103000E-2	-3.916987E-2	-5.060147E-2	-4.551042E-2	-3.044119E-2	-3.550527E-2	-1.930717E-2	-5.939631E-2	-5.382950E-2	-4.132261E-2	-5.810607E-2	-4.997868E-2	-2.992268E-2	-4.452952E-2	-4.779625E-2	-5.029100E-2	-4.218159E-2	-4.047275E-2	-4.618813E-2	-6.139978E-2	-5.090907E-2	-5.233773E-2	-6.538215E-2	-3.917081E-2	-3.309788E-2	-3.493290E-2	-4.308288E-2	-3.470700E-2	-4.072412E-2	-6.403370E-2	-5.898994E-2	-3.742832E-2	-4.445646E-2	-4.435800E-2	-4.698178E-2	-4.668914E-2	-3.993517E-2	-6.387203E-2	-5.449374E-2	-3.159997E-2	-4.240921E-2	-2.390366E-2	-5.539834E-2	-3.464039E-2	-4.801654E-3	-4.528313E-2	-1.361943E-2	-4.718777E-2	-4.287308E-2	-2.051413E-2	-3.046529E-2	-4.521146E-2	-3.993547E-2	-5.444449E-2	-1.559826E-2	-4.487027E-2	-8.295445E-2	-4.924680E-2	-4.530124E-2	-2.047505E-2	-2.075922E-2	-5.078757E-2	-2.463557E-2	-3.156123E-2	-6.055082E-2	-3.119925E-2	-5.351725E-2	-5.208110E-2	-3.418029E-2	-1.053908E-2	-2.812283E-2	-3.344967E-2	-4.283995E-2	-5.143599E-2	-5.391497E-2	-1.222178E-2	-6.456111E-2	-5.571983E-2	-4.265389E-2	-4.477636E-2	-8.851104E-2	-8.601045E-2	-5.277245E-2	-7.859364E-2
5.300060E+2	-3.061216E-2	8.161507E-3	-2.133445E-2	-5.180055E-3	-1.757795E-2	-1.899892E-2	-1.382586E-2	-1.249928E-3	-4.595684E-3	-2.579322E-2	-2.627948E-2	1.342848E-2	-2.579595E-2	-2.633142E-2	-6.803513E-3	-3.652056E-2	-3.741099E-2	-1.215986E-2	-1.769901E-2	-1.943735E-4	-1.259750E-2	-4.153197E-2	-1.818697E-2	-9.721349E-3	8.523660E-3	-2.422211E-2	-1.991897E-2	-2.565958E-2	-2.802417E-2	-2.257044E-2	-2.121044E-2	-1.876672E-2	-4.681308E-4	-1.867788E-2	-1.631014E-2	-3.561132E-2	-8.630187E-3	-3.343189E-2	-2.195356E-2	-1.450759E-2	-3.854414E-2	-2.093784E-2	-3.391870E-3	-4.009252E-2	-2.466948E-2	-9.139026E-3	-2.499525E-2	-2.698260E-2	-4.395486E-2	-2.670111E-2	-3.742514E-2	-9.637485E-3	-6.454218E-3	-3.914489E-2	-2.409284E-2	-1.309110E-2	-2.076325E-2	-2.427814E-2	-2.731158E-2	2.260828E-3	-1.938014E-2	-2.889956E-2	-1.454629E-2	-1.288683E-2	1.183919E-4	-2.938216E-2	-8.933252E-3	-1.506837E-2	-1.001441E-2	-5.353086E-2	-2.377379E-2	-1.996430E-2	-2.484374E-2	-2.765675E-2	-2.132145E-2	-3.305343E-2	-2.799796E-2	-1.522711E-2	-1.928483E-2	-3.090929E-2	-2.091325E-2	-4.497132E-2	-2.934264E-2	-1.754061E-2	-2.685755E-2	-2.633150E-3	-9.774892E-3	-5.123512E-2	-4.086271E-4	-2.369211E-2	-9.590230E-3	-2.258576E-2	1.732733E-3	-4.369183E-2	-2.106815E-2	-3.175083E-2	-1.199203E-2	-8.494584E-3	-2.699193E-2	-2.467430E-2	-1.727780E-2	-1.971486E-2	-2.191576E-2	-2.708089E-2	-1.327601E-2	-1.725489E-3	-1.800231E-2	-4.829912E-2	-2.330756E-2	-1.823818E-2	8.300746E-3	-1.154256E-2	-2.273295E-2	-2.319616E-2	7.517396E-3	-2.990844E-2	-8.271465E-3	-2.326171E-2	-3.495977E-2	-3.245471E-2	-1.492044E-2	-4.143144E-3	-2.877518E-2	-3.662233E-2	-2.455315E-2	-3.536529E-2	-4.080812E-2	-4.252987E-2	-2.009224E-2	-1.948508E-2	-3.697123E-2	6.139377E-3	-3.087692E-2	-4.122783E-2	-2.151184E-2	-2.512138E-3	-2.298960E-2	-1.431248E-2	-1.405639E-2	-1.847554E-2	-1.933991E-2	-2.523328E-2	-2.849848E-2	-3.087084E-2	-3.102399E-2	-2.110946E-2	-1.858863E-2	-1.215581E-3	-2.223255E-2	-3.440726E-2	-1.977021E-2	-9.251637E-3	-6.725687E-3	-6.708915E-3	-3.285290E-2	-4.108839E-2	-3.498774E-2	-2.736058E-2	-2.483626E-2	-6.770212E-3	-2.178318E-2	-1.855069E-2	-2.012334E-2	-6.511187E-3	-3.478022E-2
5.305080E+2	2.016010E-2	3.989144E-2	3.478130E-2	1.942842E-2	6.587660E-2	5.405382E-2	3.209153E-2	1.713928E-2	1.944890E-2	3.389722E-2	1.863583E-2	3.104103E-2	2.478171E-2	1.317263E-2	7.491797E-3	3.441141E-2	2.187798E-2	2.764253E-2	1.896295E-2	3.711239E-2	9.145222E-3	1.157017E-2	-3.977853E-3	1.882840E-2	1.198642E-2	3.646756E-2	3.480110E-2	2.123596E-2	4.091406E-2	2.522322E-2	3.637331E-2	5.743515E-2	2.035155E-2	3.586704E-2	2.332304E-2	2.152390E-2	3.645293E-2	4.760920E-2	2.567286E-3	4.265243E-2	2.826861E-2	1.990408E-2	1.452709E-2	1.604368E-2	3.675359E-2	3.376305E-2	2.218168E-2	2.202715E-2	2.446494E-2	2.042968E-2	2.482743E-2	4.791896E-2	1.478163E-2	3.112673E-2	3.383021E-2	3.716609E-2	4.320432E-2	3.401543E-2	1.994502E-2	2.705067E-2	1.872069E-2	4.968697E-2	3.477879E-2	3.052711E-2	3.004720E-2	5.020721E-2	2.770965E-2	1.917705E-2	5.442410E-2	3.203658E-2	4.023631E-2	3.215493E-2	3.313038E-2	2.287198E-2	4.595891E-3	3.098678E-2	2.175232E-2	2.486852E-2	4.026871E-2	3.449210E-2	2.296124E-2	3.655805E-2	4.260402E-2	1.385953E-2	1.408868E-2	3.741525E-2	1.105705E-2	2.655075E-2	1.852427E-2	3.431369E-2	3.095473E-2	3.675195E-2	1.252254E-2	2.906414E-2	1.561639E-2	3.350585E-2	3.989385E-2	7.281060E-2	5.526866E-2	2.243904E-2	3.552782E-2	3.296174E-2	3.981523E-2	3.319105E-2	2.913347E-2	1.872986E-2	6.199234E-2	3.554596E-2	5.124154E-2	3.282730E-2	4.930768E-2	1.361202E-2	2.505398E-2	3.415576E-2	4.977131E-2	1.956154E-2	1.588462E-2	2.750046E-2	7.273645E-3	4.749355E-2	1.919755E-2	1.078462E-2	5.272266E-2	3.981561E-2	8.426644E-3	1.929777E-2	1.292864E-2	2.393940E-2	1.183294E-2	8.171568E-3	2.497377E-2	2.972743E-2	2.217024E-2	5.425604E-2	1.256888E-2	1.684725E-2	-7.556625E-5	8.905356E-3	5.400143E-2	6.223219E-3	1.638072E-2	2.255515E-2	1.895151E-2	2.366623E-2	2.737412E-2	2.166402E-2	7.416865E-3	2.052300E-2	2.243981E-2	2.852772E-2	1.530530E-2	4.533567E-3	4.109323E-2	3.348135E-2	4.576562E-2	2.243995E-2	2.682659E-2	2.831597E-2	3.046857E-2	2.420616E-2	2.555824E-2	1.764658E-2	1.661056E-2	2.846009E-2	-2.092343E-2
5.310100E+2	5.375801E-2	6.610225E-2	2.801128E-2	8.116024E-2	4.320360E-2	4.464935E-2	7.711726E-2	7.641395E-2	5.085071E-2	4.720389E-2	8.874422E-2	3.480608E-2	5.690141E-2	3.882173E-2	7.051030E-2	4.565176E-2	5.765811E-2	5.411348E-2	4.896553E-2	3.370922E-2	7.284438E-2	8.489605E-2	5.264592E-2	4.172332E-2	5.425811E-2	5.753311E-2	2.489773E-2	4.235121E-2	5.607171E-2	5.344691E-2	6.516078E-2	5.421810E-2	4.537748E-2	5.283203E-2	5.210106E-2	3.736995E-2	2.492758E-2	5.750185E-2	6.482099E-2	5.675460E-2	7.162762E-2	3.629977E-2	3.708275E-2	5.609223E-2	6.314668E-2	4.573641E-2	5.742683E-2	5.350030E-2	4.257252E-2	6.167538E-2	4.978055E-2	4.461715E-2	4.597409E-2	3.086099E-2	5.573631E-2	6.766292E-2	8.170729E-2	5.166225E-2	4.415382E-2	4.056093E-2	8.712023E-2	7.207579E-2	5.878879E-2	6.361314E-2	5.440599E-2	2.803349E-2	3.653150E-2	6.445142E-2	6.867408E-2	6.081736E-2	2.156402E-2	3.753592E-2	4.266286E-2	5.589814E-2	9.017034E-2	6.128825E-2	4.079140E-2	5.713045E-2	7.636622E-2	5.338286E-2	6.599070E-2	1.037210E-1	4.930020E-2	3.731570E-2	4.843955E-2	5.455948E-2	4.013624E-2	5.776445E-2	5.254981E-2	4.075400E-2	5.446753E-2	7.167428E-2	7.496049E-2	5.863819E-2	5.947662E-2	4.784350E-2	4.770140E-2	5.303896E-2	5.484352E-2	5.909761E-2	7.545740E-2	5.061070E-2	4.444181E-2	5.773511E-2	5.634215E-2	5.258355E-2	2.715849E-2	6.211474E-2	5.988645E-2	5.243818E-2	4.768937E-2	6.252783E-2	4.393720E-2	1.609446E-2	4.485411E-2	6.142948E-2	4.999811E-2	4.736854E-2	6.181130E-2	5.226380E-2	7.390112E-2	4.134187E-2	3.514393E-2	7.155534E-2	5.379321E-2	2.821298E-2	7.205438E-2	5.505532E-2	6.176960E-2	3.704275E-2	4.999619E-2	3.468350E-2	8.243709E-2	5.926914E-2	6.721768E-2	4.260908E-2	7.336795E-2	5.282286E-2	5.349656E-2	7.626436E-2	6.371512E-2	5.404669E-2	4.777866E-2	6.491629E-2	5.699890E-2	4.723084E-2	5.584960E-2	4.766628E-2	6.434355E-2	3.849155E-2	2.013299E-2	5.018088E-2	8.272744E-2	4.369813E-2	5.388677E-2	8.851759E-2	3.947081E-2	6.903721E-2	4.686900E-2	2.987785E-2	4.631492E-2	9.289764E-2	5.350173E-2	7.506753E-2	1.136948E-1
5.315080E+2	1.192204E-2	2.268761E-2	3.433339E-3	-3.837256E-3	2.491621E-2	-1.781952E-2	2.488201E-2	-1.006139E-3	2.169305E-2	1.438699E-2	2.288590E-2	9.598745E-3	1.812485E-2	1.607670E-2	1.296894E-2	4.431542E-2	3.345467E-2	2.192525E-2	2.222610E-2	9.244632E-3	-1.378479E-3	1.493667E-2	3.112867E-2	5.799506E-2	3.005255E-2	5.759707E-3	2.120261E-2	2.121566E-2	1.125628E-2	2.425140E-2	6.691863E-3	1.143399E-2	4.080573E-3	1.236949E-2	6.231244E-3	1.379844E-2	2.923894E-2	5.209341E-3	1.610026E-2	1.660405E-2	3.142905E-2	3.125618E-2	6.585678E-3	2.235390E-2	2.519773E-2	3.430860E-2	9.069444E-3	2.507968E-2	5.150367E-2	2.142980E-2	1.779322E-2	3.606408E-2	2.773319E-2	4.195178E-2	2.013076E-2	2.334237E-2	1.097894E-2	-2.860626E-3	2.741725E-2	2.401536E-2	1.981152E-2	1.478637E-3	1.826463E-3	1.723940E-2	2.769856E-2	3.295324E-2	1.116456E-2	1.305919E-2	2.396755E-2	4.629626E-2	1.598634E-2	3.232767E-2	2.400587E-2	2.520690E-2	5.631618E-3	1.401019E-2	1.448263E-2	2.635506E-2	-7.054783E-3	6.106725E-3	1.367085E-2	-1.428759E-2	3.310862E-2	1.789089E-2	1.515958E-2	7.764878E-3	2.844385E-2	1.039833E-2	2.470532E-2	3.514500E-2	5.535084E-3	-1.156032E-2	1.452202E-2	9.040103E-3	2.985970E-2	3.561494E-2	3.388442E-2	8.237598E-3	9.770581E-3	1.918040E-2	2.454662E-2	3.195021E-2	9.756400E-3	3.763149E-2	3.849367E-2	2.308196E-2	3.771249E-2	4.125830E-2	1.022774E-2	4.312754E-3	1.420409E-2	1.264187E-2	3.913308E-2	2.981493E-2	1.246813E-3	3.180381E-2	1.012673E-2	1.139970E-2	1.609822E-2	3.523995E-2	5.930412E-3	3.856070E-2	-7.249675E-4	6.254195E-3	1.148783E-2	3.087565E-2	3.045551E-2	1.888325E-2	3.711096E-2	4.635446E-2	5.795967E-3	3.082970E-2	1.833547E-2	2.840386E-3	4.539317E-2	3.029810E-3	3.205889E-2	2.954196E-2	5.884439E-3	3.930285E-3	6.965623E-3	3.086159E-2	4.447186E-2	1.995056E-2	-8.373860E-3	2.592993E-2	2.892936E-2	3.431099E-2	2.137007E-2	2.753464E-2	1.346249E-3	1.880601E-2	1.102293E-2	1.725935E-2	2.998042E-3	1.105325E-2	9.119533E-3	9.840284E-3	1.995450E-2	3.251748E-2	1.146934E-2	7.694642E-4	8.782539E-3	2.954769E-2	3.034908E-2
5.320070E+2	-1.322274E-2	-9.510289E-3	1.117477E-2	4.152164E-4	-1.358165E-3	-1.846276E-2	-2.440398E-2	-1.264348E-2	6.677327E-3	1.395183E-2	1.816901E-2	-1.816633E-3	-1.507133E-2	-5.938791E-3	-1.954082E-2	-1.258378E-2	4.862147E-3	1.914222E-3	-5.747340E-3	-7.301053E-3	1.524652E-2	-2.369765E-2	1.423381E-2	-2.042235E-2	-3.032188E-2	3.390904E-3	-1.972978E-3	-8.771961E-3	-2.703812E-2	-1.539174E-2	5.448910E-3	1.306862E-3	-5.008992E-4	-1.350252E-2	3.870831E-3	1.323893E-2	-1.071268E-3	-2.141817E-2	5.974513E-3	-1.455947E-2	6.191063E-3	-9.038828E-3	2.127973E-2	-4.003814E-3	2.150664E-3	-3.025363E-2	-5.720034E-4	1.999790E-2	-1.329829E-2	-3.520647E-3	-5.627915E-3	-1.966295E-2	-7.191337E-3	1.303637E-3	-1.690282E-2	-1.402087E-2	-1.869695E-2	-2.614277E-5	1.322571E-3	-8.087279E-5	-1.426721E-2	-2.053898E-2	-9.460243E-3	-6.271162E-3	8.966736E-3	-7.213903E-3	2.374315E-3	1.309294E-2	-2.737700E-2	5.558543E-3	-1.545045E-3	-2.985036E-3	6.054270E-3	7.242245E-3	2.039170E-2	7.073771E-3	1.198060E-2	-8.269545E-4	8.526561E-3	2.197767E-2	-6.628536E-3	-2.319936E-2	-1.293009E-2	5.298377E-3	-2.745731E-3	1.803528E-2	1.362884E-2	1.309334E-3	1.262739E-2	-2.806095E-2	-1.359592E-3	5.820425E-3	-2.133200E-2	-6.981312E-3	-1.199355E-2	8.494465E-3	-2.139707E-2	-1.848312E-2	-4.959176E-3	-8.095452E-3	-3.042400E-2	-1.580142E-2	1.200463E-3	-1.874874E-2	-2.588919E-2	-5.481594E-3	-1.761915E-3	-1.836128E-2	-1.449484E-2	1.437960E-2	-1.501464E-2	1.217382E-2	-1.452414E-3	1.276243E-2	-2.040744E-2	2.058401E-3	-6.147030E-3	-5.331773E-3	1.337061E-2	-5.799223E-4	-2.755543E-3	-1.683368E-2	-1.850548E-2	-3.502325E-2	1.715032E-2	-1.478008E-2	-5.154390E-3	9.184531E-3	-6.655250E-3	-7.876892E-3	7.384109E-3	-1.174042E-2	2.929629E-3	-8.730526E-3	-7.310000E-3	7.729932E-3	2.887484E-4	7.262106E-3	-1.007576E-2	7.780656E-3	-2.075374E-2	-6.916483E-3	-2.258183E-3	2.057205E-3	-6.840987E-3	-1.985566E-3	-1.951936E-3	-1.865349E-2	-1.003717E-2	6.091113E-3	1.714219E-2	1.316345E-2	-3.085414E-2	-1.788819E-2	-9.445052E-3	2.546300E-3	-2.495639E-3	1.038935E-2	1.415882E-3	7.610208E-3	1.838430E-2	1.295559E-3	2.551702E-2	-1.229122E-2	-1.966173E-2
5.325120E+2	-2.884176E-2	-4.075058E-2	-4.609943E-2	-3.611675E-2	-4.783915E-2	-3.191316E-2	-3.013404E-2	-4.395246E-2	-4.372389E-2	-4.262584E-2	-6.117180E-2	-2.413935E-2	-2.858067E-2	-2.719930E-2	-2.217642E-2	-3.757687E-2	-2.810258E-2	-2.361347E-2	-2.415959E-2	-4.009771E-2	-4.347940E-2	-2.239886E-2	-4.107828E-2	-4.255479E-2	-2.696191E-2	-3.038713E-2	-5.951727E-2	-2.697189E-2	-1.783680E-2	-3.330983E-2	-2.817586E-2	-5.353193E-2	-4.117984E-2	-3.127053E-2	-2.633940E-2	-1.280022E-2	-3.732143E-2	-1.829541E-2	-2.537266E-2	-3.168641E-2	-3.156515E-2	-3.216070E-2	-3.522172E-2	-1.939813E-2	-2.939699E-2	-4.305101E-2	-3.408280E-2	-5.506020E-2	-3.267955E-2	-4.451298E-2	-2.268376E-2	-3.768401E-2	-4.678016E-2	-3.984485E-2	-2.424809E-2	-5.086888E-2	-2.571246E-2	-4.216335E-2	-3.530915E-2	-2.996962E-2	-5.315215E-2	-2.790886E-2	-3.451617E-2	-3.475608E-2	-3.513589E-2	-2.854918E-2	-1.365222E-2	-3.980457E-2	-4.373645E-2	-3.774874E-2	-4.470738E-2	-2.450284E-2	-4.835232E-2	-2.248626E-2	-2.388568E-2	-2.659992E-2	-1.864927E-2	-5.141165E-2	-2.758066E-2	-4.303665E-2	-2.491323E-2	-2.149263E-2	-2.487444E-2	-2.123300E-2	-1.581811E-2	-6.452986E-2	-5.351786E-2	9.569228E-4	-3.486096E-2	-2.057669E-2	-3.022707E-2	-2.829960E-2	-3.228181E-2	-6.299044E-3	-1.930443E-2	-4.059042E-2	-3.643691E-2	-4.337815E-2	-2.861248E-2	-1.936189E-2	-4.124830E-2	-3.933591E-2	-2.294923E-2	-2.916266E-2	-3.878993E-2	-5.070723E-2	-5.763831E-2	-2.921903E-2	-3.824216E-2	-3.275459E-2	-1.298535E-2	-4.325148E-2	-5.193713E-2	-3.742108E-2	-3.204066E-2	-4.582726E-2	-2.545032E-2	-3.286092E-2	-3.240104E-2	-3.654070E-2	-2.694107E-2	-1.369410E-2	-3.286686E-2	-1.013808E-2	-4.085663E-2	-1.991748E-2	-2.941587E-2	-5.091172E-2	-3.687539E-2	-4.158386E-2	-3.392704E-2	-4.787882E-2	-5.270801E-2	-2.588762E-2	-3.147794E-2	-2.045652E-2	-4.899768E-2	-1.625808E-2	-2.393345E-2	-2.839738E-2	-2.977861E-2	-2.409771E-2	-3.234050E-2	-4.818180E-2	-1.396527E-2	-2.677658E-2	-4.088694E-2	-3.324567E-2	-4.590617E-2	-4.073287E-2	-4.706694E-2	-3.907212E-2	-3.827969E-2	-3.263915E-2	-2.193834E-2	-3.562465E-2	-3.083811E-2	-2.514040E-2	-3.329754E-2	-3.590313E-2	-2.050604E-2	-1.455351E-2	-2.435489E-2	-3.115159E-2	1.461617E-2
5.330130E+2	2.758963E-3	1.280491E-2	-1.143502E-2	-9.868593E-4	1.149845E-2	2.705096E-3	-1.504372E-2	2.527033E-2	-6.811486E-4	-1.320273E-2	-5.082600E-3	1.197514E-2	-1.328422E-2	-5.060699E-3	1.030890E-2	3.617284E-2	5.370471E-4	-5.209021E-3	-1.185021E-2	-1.859816E-2	-1.769498E-3	1.730356E-2	2.117575E-2	-6.887195E-3	3.066746E-2	1.407941E-2	-6.931918E-3	-1.466675E-3	-4.697664E-3	-9.797535E-3	-1.160099E-3	7.008982E-3	-1.299851E-2	7.517367E-3	3.111561E-2	1.410249E-2	2.606548E-3	1.813014E-2	4.619068E-3	1.387538E-3	8.976393E-3	2.346636E-3	1.027255E-2	-4.379918E-3	-4.070639E-3	-3.417694E-3	-2.964217E-2	-1.028756E-2	5.242266E-3	1.326899E-2	1.167444E-2	4.424911E-3	-1.938749E-2	2.388826E-3	-9.201531E-3	4.953710E-3	-9.626267E-3	2.526537E-2	4.165014E-3	1.593375E-3	2.550142E-3	-1.972458E-2	2.202420E-2	-1.696761E-2	-7.242370E-3	-2.504536E-2	-2.460450E-2	7.210851E-3	3.370178E-3	-6.235625E-3	2.557993E-2	4.029109E-3	-2.132101E-2	6.136777E-3	5.831614E-3	-3.258963E-2	1.405557E-2	-1.229593E-2	5.786296E-3	-1.522442E-3	3.775566E-3	-2.208366E-2	1.909297E-2	1.548660E-2	4.194428E-3	-2.801367E-2	1.912848E-2	4.380615E-3	1.674641E-3	-8.981576E-3	5.536844E-3	8.032102E-3	5.680779E-3	-3.113228E-2	-9.652621E-3	-1.931037E-2	-2.716851E-3	-2.314657E-2	-6.573495E-3	2.564733E-3	1.604256E-2	-2.468714E-2	1.577787E-4	-5.569781E-3	3.119468E-3	8.119830E-3	1.253749E-2	-1.622171E-2	-2.669977E-4	1.652187E-2	1.978957E-2	3.959954E-3	1.273143E-2	4.585320E-3	-1.915533E-2	-1.607244E-2	-2.094164E-2	-1.637514E-2	-1.125684E-2	8.938894E-3	-2.641471E-2	-4.982671E-3	-1.673816E-2	1.370014E-2	-6.370155E-3	7.072784E-3	-1.312437E-2	-1.346914E-2	2.096043E-2	3.227358E-2	3.460039E-3	1.925943E-2	9.110610E-3	-1.941197E-2	6.875939E-3	1.088793E-2	1.329397E-2	2.268680E-3	2.249980E-2	-5.615670E-3	3.306008E-3	-5.644394E-3	6.556561E-3	-9.601962E-3	1.292223E-2	1.773809E-2	-1.209788E-2	3.174606E-2	-5.803742E-3	6.625156E-3	-1.279949E-3	5.954481E-3	1.599934E-2	2.588248E-2	2.771563E-3	-1.462994E-2	5.201508E-3	-8.810711E-3	2.298292E-2	8.781487E-3	2.209081E-2	5.508129E-3	-1.468537E-2	1.966095E-2	1.512648E-2
5.332090E+2	3.681477E-2	6.469643E-3	5.058605E-2	3.551010E-2	3.111924E-2	5.563945E-2	7.337878E-2	3.892936E-2	5.399669E-2	3.877026E-2	6.188171E-2	7.002496E-2	5.207775E-2	7.084877E-2	9.033513E-2	7.400185E-2	3.982388E-2	6.448811E-2	6.927044E-2	4.850275E-2	7.625535E-2	7.189741E-2	4.372660E-2	5.751475E-2	3.826799E-2	5.193429E-2	6.440684E-2	6.701239E-2	4.678090E-2	5.065957E-2	6.791282E-2	8.345486E-2	3.392370E-2	6.779877E-2	4.695645E-2	3.450074E-2	2.954432E-2	5.168000E-2	7.792921E-2	6.260873E-2	4.677658E-2	2.145261E-2	5.933846E-2	5.071639E-2	8.944534E-2	6.881230E-2	9.262196E-2	2.898710E-2	3.395956E-2	6.331173E-2	6.071022E-2	2.726169E-2	7.927657E-2	7.806870E-2	4.983698E-2	3.682305E-2	2.908177E-2	5.326788E-2	4.708808E-2	6.174423E-2	4.441107E-2	6.074480E-2	4.098725E-2	7.075548E-2	4.609925E-2	7.327986E-2	5.261173E-2	3.672945E-2	4.645532E-2	4.685409E-2	7.961757E-2	5.904573E-2	3.122405E-2	5.303997E-2	4.320157E-2	3.458108E-2	4.380543E-2	4.627354E-2	4.247888E-2	4.330616E-2	5.051157E-2	5.243869E-2	4.731759E-2	6.545787E-2	4.392009E-2	7.015531E-2	5.899724E-2	6.707309E-2	4.135607E-2	6.734311E-2	7.441262E-2	4.225171E-2	5.327014E-2	3.065149E-2	4.609968E-2	4.700412E-2	5.623923E-2	7.574584E-2	5.768710E-2	5.045224E-2	9.548479E-2	7.883124E-2	7.246284E-2	4.907434E-2	5.875961E-2	6.386051E-2	4.122529E-2	4.951814E-2	8.473389E-2	6.204150E-2	6.153693E-2	5.665036E-2	4.495521E-2	2.509299E-2	3.381937E-2	2.850682E-2	3.457191E-2	6.483530E-2	5.319862E-2	5.565364E-2	6.326895E-2	4.265918E-2	3.271579E-2	4.463285E-2	7.272175E-2	6.264026E-2	6.362918E-2	6.755085E-2	4.922606E-2	4.588130E-2	5.053391E-2	1.012237E-1	4.802113E-2	3.349244E-2	7.932606E-2	5.836673E-2	6.390251E-2	5.734785E-2	7.102505E-2	5.974911E-2	5.234230E-2	6.636216E-2	2.953711E-2	4.293621E-2	6.924047E-2	5.131072E-2	3.745364E-2	4.746727E-2	7.108165E-2	4.359926E-2	5.848539E-2	4.504749E-2	5.603816E-2	5.419281E-2	5.966110E-2	4.199452E-2	5.043713E-2	4.667517E-2	4.969620E-2	6.096861E-2	5.729254E-2	5.625122E-2	3.042987E-2	8.647057E-2	7.537320E-2
5.334060E+2	6.420811E-2	4.125135E-2	1.007700E-1	8.174100E-2	7.140477E-2	1.025954E-1	5.098718E-2	4.681627E-2	6.206329E-2	5.803714E-2	6.080221E-2	6.754843E-2	7.490440E-2	6.441715E-2	7.626728E-2	6.401707E-2	6.898959E-2	5.622811E-2	7.020111E-2	6.548695E-2	7.712799E-2	9.481530E-2	6.970924E-2	7.214830E-2	6.422836E-2	6.451491E-2	6.640420E-2	7.437335E-2	4.855448E-2	7.567768E-2	6.133220E-2	8.430931E-2	1.030258E-1	6.858964E-2	5.494026E-2	6.291310E-2	1.051532E-1	6.594889E-2	6.531377E-2	3.626941E-2	5.050190E-2	5.053760E-2	8.539430E-2	6.820427E-2	4.610864E-2	6.747320E-2	7.350693E-2	9.979546E-2	7.736303E-2	7.317897E-2	5.535746E-2	5.248335E-2	4.411826E-2	6.573049E-2	9.930484E-2	6.392020E-2	2.641925E-2	9.794714E-2	9.034460E-2	6.872582E-2	7.440585E-2	6.524890E-2	3.961377E-2	8.327644E-2	6.881856E-2	6.285893E-2	7.795582E-2	8.236406E-2	7.405325E-2	5.486153E-2	7.147007E-2	7.274051E-2	1.085344E-1	5.193867E-2	6.159775E-2	8.401511E-2	1.001593E-1	8.053605E-2	6.046947E-2	4.832704E-2	6.852146E-2	7.637306E-2	8.258120E-2	7.384726E-2	7.727421E-2	6.507646E-2	7.999133E-2	7.683074E-2	8.378955E-2	8.977892E-2	4.677104E-2	5.970047E-2	5.520197E-2	7.084600E-2	4.700339E-2	7.491852E-2	3.623239E-2	7.055233E-2	1.009107E-1	8.589266E-2	7.844086E-2	9.244511E-2	8.783896E-2	6.433243E-2	7.947944E-2	9.399027E-2	7.935691E-2	7.797141E-2	6.835510E-2	3.292761E-2	9.594876E-2	6.593968E-2	9.404665E-2	6.493399E-2	6.486162E-2	7.243186E-2	5.251735E-2	3.359568E-2	5.634090E-2	9.760278E-2	6.828820E-2	8.176040E-2	7.062211E-2	7.126244E-2	5.703208E-2	7.863809E-2	7.185002E-2	6.843400E-2	7.680880E-2	8.716629E-2	6.761257E-2	6.192335E-2	8.938998E-2	1.002906E-1	8.236021E-2	8.486397E-2	6.801081E-2	6.930290E-2	8.079382E-2	4.936961E-2	3.938060E-2	5.225091E-2	6.025260E-2	7.236581E-2	8.322240E-2	5.420145E-2	7.690312E-2	6.340923E-2	5.793575E-2	8.267313E-2	8.482544E-2	4.999329E-2	1.200783E-1	8.657785E-2	8.354733E-2	6.806589E-2	1.060803E-1	8.274723E-2	1.044620E-1	6.705974E-2	7.098428E-2	6.476610E-2	9.853634E-2	1.732446E-1	6.771250E-2
5.336080E+2	2.165340E-2	2.011856E-2	6.049509E-2	3.086333E-2	3.800272E-2	5.266014E-2	5.401312E-2	-6.819414E-3	2.071976E-2	3.425859E-2	3.168957E-2	6.379549E-2	4.545561E-2	3.487615E-2	2.220478E-2	4.388238E-2	4.112945E-2	4.873476E-2	5.681114E-2	1.936471E-2	5.149808E-2	3.100332E-2	4.524059E-2	3.817800E-2	5.579246E-2	2.167579E-2	6.708872E-2	6.176341E-2	1.862077E-2	2.959496E-2	4.472643E-2	3.695261E-2	9.226760E-3	1.622163E-2	4.732060E-2	4.012458E-2	4.413567E-2	3.157283E-2	4.438641E-2	1.759775E-2	2.172473E-2	4.037099E-2	3.422651E-2	3.081639E-2	5.981881E-2	3.766633E-2	3.942341E-2	3.520436E-2	3.215829E-2	4.332036E-2	2.274004E-2	2.035900E-2	2.492327E-2	5.688039E-2	3.470154E-2	4.528508E-2	3.994483E-2	9.693258E-3	5.794295E-3	2.814434E-2	6.088472E-2	3.753506E-2	4.927250E-2	4.101854E-2	2.430337E-2	6.550567E-2	7.703882E-3	5.180429E-2	4.895236E-2	3.803355E-2	4.634702E-2	5.083565E-2	5.340942E-2	6.465282E-2	5.253520E-2	1.966565E-2	3.457156E-2	3.633311E-2	5.662027E-2	5.202961E-2	3.241432E-2	6.289811E-2	2.473667E-2	1.975586E-2	3.086468E-2	4.333545E-2	3.502204E-2	4.419720E-2	3.146068E-2	3.651180E-2	5.508829E-2	5.266246E-2	5.733890E-2	2.729904E-2	2.910880E-2	2.630758E-2	2.522241E-2	3.192219E-2	4.880981E-2	3.118509E-2	1.981002E-2	1.755601E-2	4.102900E-2	7.715830E-2	5.287697E-2	2.799223E-2	3.460544E-2	5.324273E-2	3.000816E-2	4.454662E-2	2.150890E-2	2.144846E-2	2.328281E-2	2.751085E-2	5.079862E-2	4.229811E-2	3.704208E-2	3.713392E-2	4.793599E-2	3.388971E-2	4.296606E-2	5.014292E-2	3.505975E-2	4.833391E-2	4.823845E-2	1.791036E-2	4.722433E-2	2.539559E-2	7.745054E-2	7.431451E-2	5.733213E-2	3.224298E-2	3.832995E-2	3.598034E-2	4.852657E-2	4.038170E-2	6.095684E-2	6.756318E-3	5.345140E-2	3.081807E-2	1.019721E-2	1.964703E-2	4.801017E-2	5.028422E-2	3.208979E-2	5.372225E-2	1.811662E-2	4.117545E-2	2.391193E-2	3.265945E-2	7.315549E-2	5.369386E-2	4.378121E-2	2.206126E-2	3.685344E-2	2.263134E-2	4.056848E-2	3.772859E-2	8.024903E-2	3.866039E-2	6.001877E-2	1.494096E-2	8.414517E-3	6.066986E-2	5.976178E-2
5.338150E+2	3.036727E-2	-1.593875E-2	3.061214E-2	3.947341E-3	-6.793805E-3	1.674414E-2	-1.148021E-2	2.631429E-2	1.089870E-2	-6.098581E-3	3.375784E-2	1.938479E-2	-1.321813E-2	9.081730E-3	1.728889E-2	3.896645E-2	-3.664346E-3	1.103027E-2	-1.595531E-3	-3.073849E-3	1.043703E-2	3.733670E-2	-1.032936E-2	2.071141E-2	6.809804E-3	-3.608241E-2	-1.629575E-2	2.220614E-2	-2.021185E-2	2.023006E-3	7.607999E-3	3.311073E-2	-9.915343E-3	-2.910390E-2	3.062788E-2	-3.754459E-3	1.010957E-3	2.665028E-3	-4.877838E-3	1.096857E-2	2.849324E-2	-1.132365E-2	1.102699E-2	-5.384933E-3	-6.974468E-3	-9.492061E-3	4.517319E-3	1.869567E-2	2.433263E-2	-1.105572E-2	-1.519928E-2	3.546154E-3	5.374323E-3	1.059335E-2	7.423009E-3	4.092879E-2	-1.615226E-2	-9.248192E-4	-5.724752E-3	1.442177E-2	-1.874104E-2	-4.779699E-3	1.514082E-2	2.515082E-2	-1.674463E-2	-1.228259E-3	1.047623E-2	4.517622E-3	1.405055E-3	1.125245E-2	9.993077E-3	1.046544E-2	1.792049E-2	-1.629989E-3	1.297124E-2	-4.591559E-3	-1.322515E-2	9.710751E-3	1.814443E-2	9.211580E-3	9.770085E-3	1.518156E-3	2.656209E-2	1.337459E-2	-9.325185E-4	1.771550E-2	-2.906759E-2	2.551930E-2	9.256658E-3	2.313193E-2	1.559960E-2	-1.370929E-3	3.378258E-2	1.954399E-2	-5.068894E-3	1.090392E-2	-1.721659E-2	-2.013223E-2	5.031032E-3	1.339441E-2	-7.152117E-3	-1.684565E-4	2.482895E-3	3.338206E-3	3.582341E-2	6.432550E-3	5.888231E-5	6.691791E-3	1.838957E-2	1.712626E-2	-2.505416E-2	-1.047424E-2	2.067487E-2	-1.735114E-2	-3.375023E-4	-3.773572E-3	2.876281E-2	2.616832E-2	1.365554E-2	-6.668467E-3	3.852334E-2	-7.757850E-3	1.817578E-2	-4.605860E-4	1.976650E-2	1.156715E-2	-1.215474E-2	1.985510E-2	6.245565E-3	-4.101222E-3	-1.391392E-2	-7.869601E-4	7.536388E-3	-1.143796E-2	5.259538E-3	-4.183395E-3	1.453112E-2	-6.638160E-3	1.490904E-2	1.121539E-2	3.372915E-3	1.178245E-3	-2.852314E-2	2.557056E-2	2.389644E-2	-3.993293E-3	8.407981E-3	3.358430E-2	1.261849E-2	4.631443E-3	2.468939E-2	1.173662E-3	1.150495E-2	2.473249E-2	-6.619923E-3	-1.236749E-2	4.014739E-2	8.278792E-3	1.592794E-2	-1.872327E-2	-6.356351E-3	1.255623E-2	2.538061E-2	2.855364E-3	-1.682951E-2
5.340070E+2	4.839573E-2	2.802499E-2	2.644693E-2	3.504033E-2	2.326114E-2	1.178138E-2	3.264939E-2	1.702164E-2	2.822487E-2	2.681220E-2	-8.519363E-3	2.644742E-2	-1.707950E-3	2.244068E-2	1.284730E-2	3.847775E-2	1.374386E-2	1.656399E-2	3.647135E-3	2.418400E-2	2.554233E-2	3.698420E-2	1.638915E-2	1.453335E-2	2.870084E-2	3.494351E-2	2.676556E-2	4.638591E-2	2.687434E-2	4.954580E-2	3.657908E-2	3.083193E-2	8.291323E-3	6.183938E-3	3.272777E-2	3.519300E-2	3.883384E-2	2.426628E-2	3.387251E-2	4.262859E-2	2.708000E-2	4.376526E-2	3.621711E-2	1.059547E-2	3.102096E-2	1.257010E-3	1.893858E-2	4.847358E-2	4.723229E-2	4.155200E-2	1.627549E-2	5.169715E-2	1.502444E-2	1.990684E-2	1.989871E-2	1.954886E-2	6.268408E-2	2.231353E-2	5.014948E-2	3.862395E-2	4.303555E-2	1.684836E-2	4.398824E-2	3.364337E-2	2.205191E-2	3.891251E-2	4.555345E-2	1.579522E-2	5.260923E-2	4.254064E-2	3.436085E-2	3.801986E-2	4.241706E-2	2.659762E-2	4.022092E-2	1.595917E-2	2.428611E-2	2.607873E-2	1.257526E-2	1.439200E-2	1.350040E-2	4.012098E-2	4.128416E-2	1.901926E-2	2.629214E-2	6.111930E-2	5.900066E-2	4.587224E-2	1.711403E-2	1.136077E-2	4.951606E-2	1.788083E-2	2.773981E-2	4.805951E-2	2.452587E-2	3.981004E-2	2.656683E-2	5.403297E-2	6.276964E-2	1.718632E-2	4.618000E-2	2.474854E-2	1.128603E-2	2.847756E-2	3.113888E-2	2.423333E-2	2.219423E-2	3.041082E-2	3.748890E-2	4.901344E-2	7.451836E-2	3.648074E-2	3.116678E-2	1.076804E-2	1.254293E-2	1.848352E-2	2.835327E-2	2.282647E-2	2.443487E-2	2.781530E-2	1.182757E-2	1.605706E-2	4.379105E-3	6.865728E-2	2.553288E-2	6.055929E-3	4.222024E-2	2.982143E-2	2.400002E-2	4.239452E-2	3.685497E-2	3.354557E-2	1.216297E-2	4.048819E-2	1.839944E-2	2.219167E-2	2.713458E-2	1.915573E-2	5.591836E-2	9.497964E-3	4.442031E-2	3.306008E-2	1.070100E-2	1.821459E-2	4.431378E-2	2.474709E-2	4.333223E-2	3.415047E-2	2.728201E-2	1.483177E-2	5.996564E-2	4.595080E-2	3.818655E-2	1.538169E-2	4.478503E-2	5.303050E-2	3.059751E-2	1.930306E-2	3.823186E-2	2.577149E-2	5.368912E-2	8.056178E-4	-2.555165E-2	3.897350E-2	8.173529E-4
5.342040E+2	1.266765E-1	1.390668E-1	1.481511E-1	1.327125E-1	1.394005E-1	1.144976E-1	1.330886E-1	1.774911E-1	1.346894E-1	1.242410E-1	1.785519E-1	1.542942E-1	1.113388E-1	1.412717E-1	1.375382E-1	1.717278E-1	1.431244E-1	1.312219E-1	1.242552E-1	1.461749E-1	1.407128E-1	1.243008E-1	1.140377E-1	1.325579E-1	1.183376E-1	1.174629E-1	1.271254E-1	1.320258E-1	1.261163E-1	1.338260E-1	9.494697E-2	1.246485E-1	1.378274E-1	1.240680E-1	1.365833E-1	1.214020E-1	1.115364E-1	1.346090E-1	1.727383E-1	1.824743E-1	1.167355E-1	1.410956E-1	1.597915E-1	1.620088E-1	1.211170E-1	1.505868E-1	1.447294E-1	1.415565E-1	1.422796E-1	1.386844E-1	1.382516E-1	1.435959E-1	1.136512E-1	1.377049E-1	1.692297E-1	1.283209E-1	1.238141E-1	8.912788E-2	1.606636E-1	1.750660E-1	1.144634E-1	1.086720E-1	9.432980E-2	1.181640E-1	1.183607E-1	1.443325E-1	1.422383E-1	1.293670E-1	1.701857E-1	1.486460E-1	1.540968E-1	1.124665E-1	2.026893E-1	1.279073E-1	1.394047E-1	1.201976E-1	1.375044E-1	1.580184E-1	1.208775E-1	1.245639E-1	1.586210E-1	1.249844E-1	1.248620E-1	1.300326E-1	1.545644E-1	1.307580E-1	1.574289E-1	1.616273E-1	1.144609E-1	1.417903E-1	1.331558E-1	1.427344E-1	1.410137E-1	1.589413E-1	1.560912E-1	1.688772E-1	1.333392E-1	1.257975E-1	1.354707E-1	1.573594E-1	1.466829E-1	1.441040E-1	1.240885E-1	1.471482E-1	1.482631E-1	1.190087E-1	1.135721E-1	1.382719E-1	9.523526E-2	1.352778E-1	1.290229E-1	1.392271E-1	1.661001E-1	1.097147E-1	1.296095E-1	1.337674E-1	1.156714E-1	1.443668E-1	1.463873E-1	1.301186E-1	1.615540E-1	1.688308E-1	1.172695E-1	1.552969E-1	1.786579E-1	1.187163E-1	1.071278E-1	1.044773E-1	1.480837E-1	1.881179E-1	1.222218E-1	1.458155E-1	1.482936E-1	1.142940E-1	1.564315E-1	1.494735E-1	1.063713E-1	1.467870E-1	1.406662E-1	1.529495E-1	1.384211E-1	1.567900E-1	1.537542E-1	1.532806E-1	1.605634E-1	1.631585E-1	1.682234E-1	1.315651E-1	1.622857E-1	1.161849E-1	1.551903E-1	1.430689E-1	1.554050E-1	1.268176E-1	1.433143E-1	1.539084E-1	1.253169E-1	1.133564E-1	1.296418E-1	1.294365E-1	1.168947E-1	1.682899E-1	1.229867E-1	1.466167E-1	1.225074E-1
5.344070E+2	2.771772E-1	2.688624E-1	3.095647E-1	2.769239E-1	2.845283E-1	2.632605E-1	2.843522E-1	2.541077E-1	2.669355E-1	3.021466E-1	2.753794E-1	2.792344E-1	2.613569E-1	2.790485E-1	2.695898E-1	2.804593E-1	2.868315E-1	3.667365E-1	2.794047E-1	2.891890E-1	2.939574E-1	2.968410E-1	2.853761E-1	2.670854E-1	3.199801E-1	2.842195E-1	2.584112E-1	3.030331E-1	2.984901E-1	2.942003E-1	3.037706E-1	3.290094E-1	3.066866E-1	3.331180E-1	3.048284E-1	3.116825E-1	3.240368E-1	2.954824E-1	3.054719E-1	3.062800E-1	2.692474E-1	2.846383E-1	2.994478E-1	3.150358E-1	3.366966E-1	3.014732E-1	2.509772E-1	3.229805E-1	2.661733E-1	2.990033E-1	3.155748E-1	2.669248E-1	3.354646E-1	3.228707E-1	3.062348E-1	2.879707E-1	3.231801E-1	3.021808E-1	3.051968E-1	2.786698E-1	2.702791E-1	2.639438E-1	2.568366E-1	2.769735E-1	2.757787E-1	2.846994E-1	3.037978E-1	2.923811E-1	2.621198E-1	2.988406E-1	2.945758E-1	2.778458E-1	2.809698E-1	3.107192E-1	3.386790E-1	3.141867E-1	2.755650E-1	3.061597E-1	2.910860E-1	2.854972E-1	2.785567E-1	3.176143E-1	3.058795E-1	2.706747E-1	3.291601E-1	2.805874E-1	2.713400E-1	3.147113E-1	2.908519E-1	2.611642E-1	2.993526E-1	3.353795E-1	3.197932E-1	3.036171E-1	2.648911E-1	2.848657E-1	3.021273E-1	3.011108E-1	2.748001E-1	3.196876E-1	2.843748E-1	2.942962E-1	3.033579E-1	2.812068E-1	2.953872E-1	3.235278E-1	2.728183E-1	3.286558E-1	3.086042E-1	2.827606E-1	2.876531E-1	3.059177E-1	2.592960E-1	2.977954E-1	2.888009E-1	3.241672E-1	2.796387E-1	2.811791E-1	3.152973E-1	2.729167E-1	2.969372E-1	2.925148E-1	3.122379E-1	3.190826E-1	2.934140E-1	2.980482E-1	2.646579E-1	3.023561E-1	2.704489E-1	2.691298E-1	2.788448E-1	3.386656E-1	2.932728E-1	2.888062E-1	3.132893E-1	3.055517E-1	3.011380E-1	2.801604E-1	3.500517E-1	3.059726E-1	3.036725E-1	2.791234E-1	2.783409E-1	2.833486E-1	2.950350E-1	2.885275E-1	3.057247E-1	2.979243E-1	2.761454E-1	3.074108E-1	2.687780E-1	3.355298E-1	2.905558E-1	2.670906E-1	2.534090E-1	3.335301E-1	3.068473E-1	2.785707E-1	2.944712E-1	3.433072E-1	2.937148E-1	3.042768E-1	2.947395E-1	3.659350E-1	2.620807E-1
5.346150E+2	4.089476E-1	3.419537E-1	3.457981E-1	3.593590E-1	4.297616E-1	2.985593E-1	3.717753E-1	3.858678E-1	3.599118E-1	4.001164E-1	3.760985E-1	3.736133E-1	3.596110E-1	3.957357E-1	3.264650E-1	4.147962E-1	3.888547E-1	3.817806E-1	4.063869E-1	3.994730E-1	3.563731E-1	3.574444E-1	3.827040E-1	4.403610E-1	3.802740E-1	4.081622E-1	3.755209E-1	3.556023E-1	3.231459E-1	3.747880E-1	4.001608E-1	4.108423E-1	3.819862E-1	3.977880E-1	3.745324E-1	3.961334E-1	4.096870E-1	3.899208E-1	3.585099E-1	4.016025E-1	3.849149E-1	4.283532E-1	3.706831E-1	4.059989E-1	4.017254E-1	3.453003E-1	4.076611E-1	4.098320E-1	4.152042E-1	4.263740E-1	3.745116E-1	3.424109E-1	4.203246E-1	3.719705E-1	4.281103E-1	3.858200E-1	3.821231E-1	3.682327E-1	3.882041E-1	3.965034E-1	4.127861E-1	3.963905E-1	3.919567E-1	4.153868E-1	4.192508E-1	4.006407E-1	4.270320E-1	3.758636E-1	4.311307E-1	3.835988E-1	3.908691E-1	4.176317E-1	3.853024E-1	3.558618E-1	4.096515E-1	3.747302E-1	4.479497E-1	4.163262E-1	4.236726E-1	4.098725E-1	3.868121E-1	3.460840E-1	3.806646E-1	4.113852E-1	3.964122E-1	3.821453E-1	3.594343E-1	4.153566E-1	3.253892E-1	4.210892E-1	3.552281E-1	4.267821E-1	3.784701E-1	3.641831E-1	3.858812E-1	4.531585E-1	3.892474E-1	4.402541E-1	3.748838E-1	3.953137E-1	3.920644E-1	4.212698E-1	3.713887E-1	3.666559E-1	3.853560E-1	3.869656E-1	3.807913E-1	3.891206E-1	3.967689E-1	3.836232E-1	4.097392E-1	3.685339E-1	4.359985E-1	4.155213E-1	3.704737E-1	3.861697E-1	3.837174E-1	3.924281E-1	3.695334E-1	3.801445E-1	3.792764E-1	4.235362E-1	3.959440E-1	4.215743E-1	4.240608E-1	4.093022E-1	3.724112E-1	3.812300E-1	4.015570E-1	3.880036E-1	3.910294E-1	4.021426E-1	4.023050E-1	3.802140E-1	4.088584E-1	4.420553E-1	4.050397E-1	3.523398E-1	3.781305E-1	3.868370E-1	3.937109E-1	3.697055E-1	3.430326E-1	4.180710E-1	4.127224E-1	3.651886E-1	4.474922E-1	3.615936E-1	3.590007E-1	3.832527E-1	3.920304E-1	3.555601E-1	3.461060E-1	3.591034E-1	4.132868E-1	3.776769E-1	3.779788E-1	4.037192E-1	4.267388E-1	4.118883E-1	3.541124E-1	3.588653E-1	3.446209E-1	3.919068E-1	3.767436E-1
5.348120E+2	5.107153E-1	5.136464E-1	5.179990E-1	5.218203E-1	5.385179E-1	5.232550E-1	4.771233E-1	5.436011E-1	5.331225E-1	5.421486E-1	5.529699E-1	5.637529E-1	5.122892E-1	5.184012E-1	5.065479E-1	5.180094E-1	4.890063E-1	4.757282E-1	5.166867E-1	4.860914E-1	5.261116E-1	5.224614E-1	5.569701E-1	5.434137E-1	5.365172E-1	5.768284E-1	5.238602E-1	5.048835E-1	5.353296E-1	5.299545E-1	5.024019E-1	5.405927E-1	4.880969E-1	5.217493E-1	5.267025E-1	5.192573E-1	5.634293E-1	5.438705E-1	5.652363E-1	5.208317E-1	5.195919E-1	5.053282E-1	6.003473E-1	5.903937E-1	5.508427E-1	5.318105E-1	5.457965E-1	5.791994E-1	5.194529E-1	5.564661E-1	4.943177E-1	5.405885E-1	5.373229E-1	5.054543E-1	5.106915E-1	5.639502E-1	5.345763E-1	5.490251E-1	5.332545E-1	5.620753E-1	6.490058E-1	5.637689E-1	5.496695E-1	5.109007E-1	5.135767E-1	5.495356E-1	5.164651E-1	5.405370E-1	5.776417E-1	5.321912E-1	5.202917E-1	5.135538E-1	5.317847E-1	5.279289E-1	5.289548E-1	5.548866E-1	5.288111E-1	5.622026E-1	5.594097E-1	5.479484E-1	5.294174E-1	4.911297E-1	5.621669E-1	5.450988E-1	5.541075E-1	5.561987E-1	5.236182E-1	5.211666E-1	5.416302E-1	5.679145E-1	5.241408E-1	5.625879E-1	5.206997E-1	5.613225E-1	5.613784E-1	4.959428E-1	5.426944E-1	5.292042E-1	5.259457E-1	5.648507E-1	5.202731E-1	5.456200E-1	5.008642E-1	5.736818E-1	5.063504E-1	5.265776E-1	5.048038E-1	5.612686E-1	5.653568E-1	5.697248E-1	5.097044E-1	4.984261E-1	5.539796E-1	5.464062E-1	4.970988E-1	5.282740E-1	5.249099E-1	4.889390E-1	5.275343E-1	5.243029E-1	5.617729E-1	5.497988E-1	4.887280E-1	5.037297E-1	5.221794E-1	5.505702E-1	5.265176E-1	5.301459E-1	5.101247E-1	5.506050E-1	5.393710E-1	5.571913E-1	5.519501E-1	5.422214E-1	5.478039E-1	5.041632E-1	5.414490E-1	5.381821E-1	5.823455E-1	5.495051E-1	5.692361E-1	5.239510E-1	5.258544E-1	5.218803E-1	5.060561E-1	4.875148E-1	5.451486E-1	5.419199E-1	5.532172E-1	5.450853E-1	5.408594E-1	5.405440E-1	5.617879E-1	4.935372E-1	5.225069E-1	5.771598E-1	5.587476E-1	5.387162E-1	5.477814E-1	5.366902E-1	5.665329E-1	5.739490E-1	5.152530E-1	5.890996E-1	4.742712E-1
5.350150E+2	8.820703E-1	7.692753E-1	8.676198E-1	8.875180E-1	8.294852E-1	8.257822E-1	8.676922E-1	7.778444E-1	8.759077E-1	8.491804E-1	8.717442E-1	8.800954E-1	8.295476E-1	8.064908E-1	8.336362E-1	8.661085E-1	9.006065E-1	9.160777E-1	8.284485E-1	8.545019E-1	8.012378E-1	8.778350E-1	8.834426E-1	8.371388E-1	8.730984E-1	8.295617E-1	8.671535E-1	8.142722E-1	8.018401E-1	8.374028E-1	8.250094E-1	8.883313E-1	9.202095E-1	8.504423E-1	8.442890E-1	9.016547E-1	8.414879E-1	8.983034E-1	8.207132E-1	8.455343E-1	9.113185E-1	8.734513E-1	9.239051E-1	8.565176E-1	9.063602E-1	8.547213E-1	8.457163E-1	8.659637E-1	9.196564E-1	8.541993E-1	8.579566E-1	8.891966E-1	8.567700E-1	8.865027E-1	8.921975E-1	8.266141E-1	8.839277E-1	8.999913E-1	8.531593E-1	8.107045E-1	8.345072E-1	8.769106E-1	8.846459E-1	8.725203E-1	8.870941E-1	8.776361E-1	8.710154E-1	8.726629E-1	8.928801E-1	9.118318E-1	8.831852E-1	8.454184E-1	8.298216E-1	8.539367E-1	8.451672E-1	8.358179E-1	8.971601E-1	8.593606E-1	9.253035E-1	8.801290E-1	9.043511E-1	8.892927E-1	8.128230E-1	8.716077E-1	8.537414E-1	9.006040E-1	8.429571E-1	9.154519E-1	8.777281E-1	8.272640E-1	8.390795E-1	8.724743E-1	8.569381E-1	7.599674E-1	8.661076E-1	8.065548E-1	8.838445E-1	8.423343E-1	9.025160E-1	8.281911E-1	8.511577E-1	8.512557E-1	8.927632E-1	8.845798E-1	8.743172E-1	8.511800E-1	9.200329E-1	8.184721E-1	8.556962E-1	8.540019E-1	8.831413E-1	8.611873E-1	8.940033E-1	8.878416E-1	8.833478E-1	8.824017E-1	8.690817E-1	8.667661E-1	8.272673E-1	8.702026E-1	8.568960E-1	9.322697E-1	8.678517E-1	9.162125E-1	8.797847E-1	9.031628E-1	8.648034E-1	8.515774E-1	8.475343E-1	9.313119E-1	8.434785E-1	8.376387E-1	9.574508E-1	8.697598E-1	8.446757E-1	8.120361E-1	7.864775E-1	8.264149E-1	8.844850E-1	8.533040E-1	7.940146E-1	8.101828E-1	8.625563E-1	8.539319E-1	8.098887E-1	8.247643E-1	8.666800E-1	8.585188E-1	9.201873E-1	9.200097E-1	8.920271E-1	8.454574E-1	9.086148E-1	8.059389E-1	8.466566E-1	9.437258E-1	8.334878E-1	7.938457E-1	8.805974E-1	8.501225E-1	8.573268E-1	8.847328E-1	8.338571E-1	9.361540E-1	8.189262E-1
5.352130E+2	1.578385E+0	1.480884E+0	1.477624E+0	1.527644E+0	1.480026E+0	1.517770E+0	1.508293E+0	1.499294E+0	1.545565E+0	1.516371E+0	1.470404E+0	1.524357E+0	1.450246E+0	1.400491E+0	1.479998E+0	1.414022E+0	1.541511E+0	1.530197E+0	1.404712E+0	1.436139E+0	1.534778E+0	1.477401E+0	1.577933E+0	1.547520E+0	1.460307E+0	1.499292E+0	1.404159E+0	1.460267E+0	1.498867E+0	1.442213E+0	1.449006E+0	1.499614E+0	1.545314E+0	1.505833E+0	1.464983E+0	1.480826E+0	1.485081E+0	1.442497E+0	1.531266E+0	1.463472E+0	1.511604E+0	1.395738E+0	1.489343E+0	1.455594E+0	1.434595E+0	1.492268E+0	1.568627E+0	1.459158E+0	1.508061E+0	1.457449E+0	1.481921E+0	1.514388E+0	1.534678E+0	1.521296E+0	1.523278E+0	1.566285E+0	1.481198E+0	1.520893E+0	1.471519E+0	1.545849E+0	1.470901E+0	1.503761E+0	1.564838E+0	1.441126E+0	1.542292E+0	1.523050E+0	1.441799E+0	1.502224E+0	1.559986E+0	1.458112E+0	1.408563E+0	1.551700E+0	1.490152E+0	1.514267E+0	1.483579E+0	1.441814E+0	1.479388E+0	1.468522E+0	1.504851E+0	1.512592E+0	1.438327E+0	1.548086E+0	1.483269E+0	1.537038E+0	1.498598E+0	1.493235E+0	1.486894E+0	1.445584E+0	1.469276E+0	1.474826E+0	1.522677E+0	1.432202E+0	1.532264E+0	1.490407E+0	1.555713E+0	1.503213E+0	1.498421E+0	1.575148E+0	1.446137E+0	1.522076E+0	1.477688E+0	1.534882E+0	1.475696E+0	1.595997E+0	1.502175E+0	1.427462E+0	1.486516E+0	1.522311E+0	1.446180E+0	1.435886E+0	1.494891E+0	1.479153E+0	1.507503E+0	1.494757E+0	1.527062E+0	1.525258E+0	1.424151E+0	1.455922E+0	1.570947E+0	1.526992E+0	1.425387E+0	1.458789E+0	1.508317E+0	1.507986E+0	1.450832E+0	1.495406E+0	1.558626E+0	1.430068E+0	1.500198E+0	1.508408E+0	1.523318E+0	1.540609E+0	1.475775E+0	1.488135E+0	1.398688E+0	1.537844E+0	1.442467E+0	1.440019E+0	1.533478E+0	1.638485E+0	1.495560E+0	1.487178E+0	1.403588E+0	1.571682E+0	1.511224E+0	1.540904E+0	1.572247E+0	1.455568E+0	1.466063E+0	1.474364E+0	1.450152E+0	1.485065E+0	1.460912E+0	1.415459E+0	1.485650E+0	1.526341E+0	1.488149E+0	1.422649E+0	1.490122E+0	1.459615E+0	1.497693E+0	1.358115E+0	1.428652E+0	1.557518E+0	1.464739E+0
5.354010E+2	2.406564E+0	2.458552E+0	2.397283E+0	2.411124E+0	2.437270E+0	2.325934E+0	2.341538E+0	2.317272E+0	2.370654E+0	2.432496E+0	2.280059E+0	2.357633E+0	2.399115E+0	2.357032E+0	2.351243E+0	2.324682E+0	2.430573E+0	2.374579E+0	2.356479E+0	2.368044E+0	2.189515E+0	2.277597E+0	2.344434E+0	2.421192E+0	2.419155E+0	2.314323E+0	2.365918E+0	2.299862E+0	2.374970E+0	2.267946E+0	2.377355E+0	2.297730E+0	2.447355E+0	2.379899E+0	2.233441E+0	2.296070E+0	2.432166E+0	2.295001E+0	2.240046E+0	2.391564E+0	2.404257E+0	2.283487E+0	2.217006E+0	2.253827E+0	2.451058E+0	2.372072E+0	2.357421E+0	2.281552E+0	2.408867E+0	2.349213E+0	2.331090E+0	2.336333E+0	2.312433E+0	2.314212E+0	2.327639E+0	2.342890E+0	2.493727E+0	2.310988E+0	2.269316E+0	2.237808E+0	2.279280E+0	2.163391E+0	2.327516E+0	2.266247E+0	2.364161E+0	2.332792E+0	2.273048E+0	2.257910E+0	2.313030E+0	2.306521E+0	2.223999E+0	2.260014E+0	2.268624E+0	2.293969E+0	2.348314E+0	2.284450E+0	2.371224E+0	2.195123E+0	2.395702E+0	2.368653E+0	2.347617E+0	2.298758E+0	2.263358E+0	2.114693E+0	2.338846E+0	2.333176E+0	2.275832E+0	2.290300E+0	2.262568E+0	2.274806E+0	2.264360E+0	2.257524E+0	2.315558E+0	2.295580E+0	2.287400E+0	2.250315E+0	2.301629E+0	2.269038E+0	2.166168E+0	2.292422E+0	2.265457E+0	2.305313E+0	2.239627E+0	2.326482E+0	2.312190E+0	2.222931E+0	2.299237E+0	2.283514E+0	2.268464E+0	2.269304E+0	2.256011E+0	2.321672E+0	2.314150E+0	2.332450E+0	2.245542E+0	2.254453E+0	2.313447E+0	2.321694E+0	2.378842E+0	2.217415E+0	2.254116E+0	2.281879E+0	2.200734E+0	2.279266E+0	2.338766E+0	2.317331E+0	2.260262E+0	2.355491E+0	2.333424E+0	2.366775E+0	2.265603E+0	2.307995E+0	2.306553E+0	2.326619E+0	2.280645E+0	2.193830E+0	2.280515E+0	2.271978E+0	2.215612E+0	2.243688E+0	2.333840E+0	2.271477E+0	2.288664E+0	2.282237E+0	2.209335E+0	2.255463E+0	2.221629E+0	2.326761E+0	2.208497E+0	2.244038E+0	2.311455E+0	2.276140E+0	2.317593E+0	2.193991E+0	2.293519E+0	2.434800E+0	2.340966E+0	2.243839E+0	2.234722E+0	2.378712E+0	2.340554E+0	2.251450E+0	2.206148E+0	2.353357E+0	2.168402E+0
5.356150E+2	2.287240E+0	2.242053E+0	2.233783E+0	2.398426E+0	2.316993E+0	2.246442E+0	2.261267E+0	2.243274E+0	2.265940E+0	2.261508E+0	2.236123E+0	2.258012E+0	2.242087E+0	2.302783E+0	2.202248E+0	2.197934E+0	2.212583E+0	2.251568E+0	2.204428E+0	2.191666E+0	2.202690E+0	2.214172E+0	2.341335E+0	2.281734E+0	2.302573E+0	2.183429E+0	2.084176E+0	2.229856E+0	2.211204E+0	2.221220E+0	2.207759E+0	2.186734E+0	2.269512E+0	2.205119E+0	2.207922E+0	2.118436E+0	2.197535E+0	2.196110E+0	2.209457E+0	2.244377E+0	2.200885E+0	2.168654E+0	2.151838E+0	2.057274E+0	2.296255E+0	2.304119E+0	2.242007E+0	2.132735E+0	2.310692E+0	2.188466E+0	2.229575E+0	2.175458E+0	2.263662E+0	2.332757E+0	2.176791E+0	2.305031E+0	2.319875E+0	2.182374E+0	2.180554E+0	2.172161E+0	2.225990E+0	2.209791E+0	2.240361E+0	2.188328E+0	2.179121E+0	2.154925E+0	2.161034E+0	2.207602E+0	2.237067E+0	2.199477E+0	2.244654E+0	2.226648E+0	2.221311E+0	2.346707E+0	2.245304E+0	2.205596E+0	2.274188E+0	2.146016E+0	2.239313E+0	2.166046E+0	2.117030E+0	2.189337E+0	2.194995E+0	2.222056E+0	2.160049E+0	2.287914E+0	2.190276E+0	2.108149E+0	2.226492E+0	2.259600E+0	2.105177E+0	2.078186E+0	2.247763E+0	2.193067E+0	2.165071E+0	2.182275E+0	2.273719E+0	2.255362E+0	2.215839E+0	2.193982E+0	2.133762E+0	2.148031E+0	2.231514E+0	2.253632E+0	2.169667E+0	2.165733E+0	2.150924E+0	2.252928E+0	2.172699E+0	2.265249E+0	2.118110E+0	2.139256E+0	2.269525E+0	2.193856E+0	2.152137E+0	2.200029E+0	2.234959E+0	2.143877E+0	2.176702E+0	2.250398E+0	2.190236E+0	2.294656E+0	2.222987E+0	2.170795E+0	2.213587E+0	2.162116E+0	2.241574E+0	2.161475E+0	2.231966E+0	2.179098E+0	2.148674E+0	2.228771E+0	2.128884E+0	2.223124E+0	2.175757E+0	2.225070E+0	2.089857E+0	2.185253E+0	2.251177E+0	2.158215E+0	2.193308E+0	2.160443E+0	2.217419E+0	2.066484E+0	2.215869E+0	2.259481E+0	2.125759E+0	2.101019E+0	2.217375E+0	2.189096E+0	2.128627E+0	2.112232E+0	2.215787E+0	2.233181E+0	2.132887E+0	2.238925E+0	2.230898E+0	2.251257E+0	2.194418E+0	2.252119E+0	2.190788E+0	2.123258E+0	2.204937E+0	2.383636E+0	2.042436E+0
5.358080E+2	2.279286E+0	2.135979E+0	2.114212E+0	2.144035E+0	2.057544E+0	2.215263E+0	2.199602E+0	2.128302E+0	2.069775E+0	2.195882E+0	2.140161E+0	2.225985E+0	2.125751E+0	2.036945E+0	2.162624E+0	2.143671E+0	2.136095E+0	2.183541E+0	2.143609E+0	2.091263E+0	2.158009E+0	2.111523E+0	2.139027E+0	2.085193E+0	2.129105E+0	2.189215E+0	2.128592E+0	2.109963E+0	2.029162E+0	2.011927E+0	2.050904E+0	1.970432E+0	2.176828E+0	2.067718E+0	2.121197E+0	2.099526E+0	2.115078E+0	2.066015E+0	2.120553E+0	2.052998E+0	2.119549E+0	2.135552E+0	2.133712E+0	2.026510E+0	2.108990E+0	2.108629E+0	2.076447E+0	2.100075E+0	2.029034E+0	2.070375E+0	2.103939E+0	1.966535E+0	2.141869E+0	2.120162E+0	2.057287E+0	2.130237E+0	2.068844E+0	2.064640E+0	2.123596E+0	2.068117E+0	2.093102E+0	2.063095E+0	2.035575E+0	2.025033E+0	2.104852E+0	2.068690E+0	2.128725E+0	2.124241E+0	2.089006E+0	1.971934E+0	2.044896E+0	1.966576E+0	2.069708E+0	2.043393E+0	2.126248E+0	2.021442E+0	2.090157E+0	2.126896E+0	2.129478E+0	2.153304E+0	1.982696E+0	2.106139E+0	2.097732E+0	2.045747E+0	2.177691E+0	2.120835E+0	2.045166E+0	2.095609E+0	2.105789E+0	2.021987E+0	2.134352E+0	2.007201E+0	2.085314E+0	2.174984E+0	2.052975E+0	2.067151E+0	2.099595E+0	1.979115E+0	1.975366E+0	2.043168E+0	2.060045E+0	2.106225E+0	2.105294E+0	2.068790E+0	2.046277E+0	2.022404E+0	2.169841E+0	2.121369E+0	2.044582E+0	2.203072E+0	2.079653E+0	2.087769E+0	2.085647E+0	2.038352E+0	2.053856E+0	2.058448E+0	2.091177E+0	2.124851E+0	2.121426E+0	2.096026E+0	2.039644E+0	2.135098E+0	1.953750E+0	2.054887E+0	2.134194E+0	2.062943E+0	2.086692E+0	2.072933E+0	2.136868E+0	2.077628E+0	1.982813E+0	2.062164E+0	2.011733E+0	2.058393E+0	2.010529E+0	2.051860E+0	2.024883E+0	2.045907E+0	2.091684E+0	2.016173E+0	2.026116E+0	2.077061E+0	2.092383E+0	2.094095E+0	1.988152E+0	2.055827E+0	2.097646E+0	2.041765E+0	2.126460E+0	2.028043E+0	2.061710E+0	2.044198E+0	2.050504E+0	2.004832E+0	2.110172E+0	2.121027E+0	2.130340E+0	2.072162E+0	2.030043E+0	2.151330E+0	2.024145E+0	1.982180E+0	2.074678E+0	2.158032E+0	1.953488E+0
5.360170E+2	1.602061E+0	1.600919E+0	1.549318E+0	1.585507E+0	1.544918E+0	1.588715E+0	1.565004E+0	1.596021E+0	1.552991E+0	1.628211E+0	1.687864E+0	1.682225E+0	1.649268E+0	1.568507E+0	1.601578E+0	1.513041E+0	1.662235E+0	1.491955E+0	1.543372E+0	1.559895E+0	1.573654E+0	1.526544E+0	1.571110E+0	1.571271E+0	1.658873E+0	1.545870E+0	1.592040E+0	1.593236E+0	1.587212E+0	1.544035E+0	1.528472E+0	1.587975E+0	1.650956E+0	1.516906E+0	1.563004E+0	1.552478E+0	1.603893E+0	1.564137E+0	1.598778E+0	1.537615E+0	1.595962E+0	1.562944E+0	1.599546E+0	1.591947E+0	1.586014E+0	1.562454E+0	1.592633E+0	1.565074E+0	1.624276E+0	1.537491E+0	1.649414E+0	1.598183E+0	1.617319E+0	1.536365E+0	1.502216E+0	1.486418E+0	1.533562E+0	1.559401E+0	1.616819E+0	1.567020E+0	1.682818E+0	1.619584E+0	1.594967E+0	1.514947E+0	1.669798E+0	1.616363E+0	1.578344E+0	1.519262E+0	1.539057E+0	1.637445E+0	1.567139E+0	1.434391E+0	1.562548E+0	1.575564E+0	1.567795E+0	1.581047E+0	1.530489E+0	1.602043E+0	1.590077E+0	1.575427E+0	1.497686E+0	1.538823E+0	1.540215E+0	1.534157E+0	1.604183E+0	1.626156E+0	1.476488E+0	1.573434E+0	1.583341E+0	1.580213E+0	1.567734E+0	1.472610E+0	1.509595E+0	1.619949E+0	1.638483E+0	1.486509E+0	1.634748E+0	1.586982E+0	1.521525E+0	1.529215E+0	1.608929E+0	1.584250E+0	1.647496E+0	1.647051E+0	1.567835E+0	1.569922E+0	1.594516E+0	1.558218E+0	1.506221E+0	1.582819E+0	1.554354E+0	1.551743E+0	1.554377E+0	1.603991E+0	1.474346E+0	1.566702E+0	1.576357E+0	1.556171E+0	1.590695E+0	1.579696E+0	1.533683E+0	1.585345E+0	1.560826E+0	1.581750E+0	1.711933E+0	1.560359E+0	1.544599E+0	1.577402E+0	1.651679E+0	1.533103E+0	1.594906E+0	1.596680E+0	1.504849E+0	1.516755E+0	1.539397E+0	1.519962E+0	1.598851E+0	1.470313E+0	1.469566E+0	1.528512E+0	1.609852E+0	1.461257E+0	1.586125E+0	1.567750E+0	1.574550E+0	1.522411E+0	1.527788E+0	1.554721E+0	1.588355E+0	1.491293E+0	1.471368E+0	1.472033E+0	1.587863E+0	1.546330E+0	1.512585E+0	1.622589E+0	1.591009E+0	1.610750E+0	1.522701E+0	1.606486E+0	1.495349E+0	1.521752E+0	1.467896E+0	1.566070E+0	1.272845E+0
5.362050E+2	1.698671E+0	1.740113E+0	1.693743E+0	1.677630E+0	1.722774E+0	1.653997E+0	1.785961E+0	1.602321E+0	1.621213E+0	1.683949E+0	1.611224E+0	1.578465E+0	1.680971E+0	1.644195E+0	1.721596E+0	1.656009E+0	1.609021E+0	1.670239E+0	1.660532E+0	1.661841E+0	1.654611E+0	1.589231E+0	1.669855E+0	1.670967E+0	1.699648E+0	1.622826E+0	1.627181E+0	1.558390E+0	1.640915E+0	1.610648E+0	1.603421E+0	1.616955E+0	1.575073E+0	1.664420E+0	1.628809E+0	1.627016E+0	1.684446E+0	1.646440E+0	1.717154E+0	1.631314E+0	1.637322E+0	1.578201E+0	1.588840E+0	1.657162E+0	1.740657E+0	1.609909E+0	1.662698E+0	1.615143E+0	1.672098E+0	1.632397E+0	1.631605E+0	1.646389E+0	1.734289E+0	1.600969E+0	1.630041E+0	1.702072E+0	1.635497E+0	1.692443E+0	1.592501E+0	1.551797E+0	1.642766E+0	1.703426E+0	1.727893E+0	1.597369E+0	1.761454E+0	1.687757E+0	1.640110E+0	1.657842E+0	1.657365E+0	1.706601E+0	1.616720E+0	1.647275E+0	1.635016E+0	1.726006E+0	1.663382E+0	1.656205E+0	1.633888E+0	1.638380E+0	1.613591E+0	1.725228E+0	1.682061E+0	1.650393E+0	1.649955E+0	1.618982E+0	1.624246E+0	1.607669E+0	1.720129E+0	1.664524E+0	1.696169E+0	1.722368E+0	1.634468E+0	1.640086E+0	1.658435E+0	1.765455E+0	1.608387E+0	1.649979E+0	1.666553E+0	1.641880E+0	1.617710E+0	1.659480E+0	1.628967E+0	1.597983E+0	1.723128E+0	1.665219E+0	1.667326E+0	1.554486E+0	1.648591E+0	1.641251E+0	1.642044E+0	1.616709E+0	1.572234E+0	1.637936E+0	1.655819E+0	1.567976E+0	1.606164E+0	1.679014E+0	1.647047E+0	1.721802E+0	1.594431E+0	1.644385E+0	1.672146E+0	1.661335E+0	1.567401E+0	1.636586E+0	1.618835E+0	1.565867E+0	1.618989E+0	1.548934E+0	1.656195E+0	1.654085E+0	1.594217E+0	1.657340E+0	1.658252E+0	1.631790E+0	1.562343E+0	1.687949E+0	1.688635E+0	1.639751E+0	1.543794E+0	1.656933E+0	1.683836E+0	1.618217E+0	1.679122E+0	1.590047E+0	1.663210E+0	1.644323E+0	1.624341E+0	1.661223E+0	1.661329E+0	1.628825E+0	1.605346E+0	1.659626E+0	1.700592E+0	1.580526E+0	1.682978E+0	1.689153E+0	1.636020E+0	1.604182E+0	1.627671E+0	1.677652E+0	1.721418E+0	1.712270E+0	1.703181E+0	1.628564E+0	1.544493E+0
5.364090E+2	1.828324E+0	1.774072E+0	1.738233E+0	1.827641E+0	1.841422E+0	1.851682E+0	1.811029E+0	1.788848E+0	1.718651E+0	1.738793E+0	1.878216E+0	1.835477E+0	1.746885E+0	1.722876E+0	1.834924E+0	1.796883E+0	1.814643E+0	1.777596E+0	1.800545E+0	1.842832E+0	1.845284E+0	1.808718E+0	1.833844E+0	1.826246E+0	1.872349E+0	1.815811E+0	1.728603E+0	1.845320E+0	1.743551E+0	1.827517E+0	1.830936E+0	1.742292E+0	1.776837E+0	1.801830E+0	1.771659E+0	1.815431E+0	1.877882E+0	1.831295E+0	1.839801E+0	1.747284E+0	1.809402E+0	1.778541E+0	1.726494E+0	1.765785E+0	1.817249E+0	1.844783E+0	1.733505E+0	1.822547E+0	1.901214E+0	1.866401E+0	1.793831E+0	1.860530E+0	1.759519E+0	1.741370E+0	1.768372E+0	1.849519E+0	1.872476E+0	1.798142E+0	1.778650E+0	1.772853E+0	1.834688E+0	1.826169E+0	1.833096E+0	1.715271E+0	1.807979E+0	1.789897E+0	1.808069E+0	1.792583E+0	1.834388E+0	1.784592E+0	1.771135E+0	1.792786E+0	1.760717E+0	1.785118E+0	1.873562E+0	1.792516E+0	1.774851E+0	1.789021E+0	1.794167E+0	1.738346E+0	1.733416E+0	1.768990E+0	1.746401E+0	1.743170E+0	1.753390E+0	1.758028E+0	1.740188E+0	1.822714E+0	1.824611E+0	1.775679E+0	1.759905E+0	1.787504E+0	1.737448E+0	1.795161E+0	1.762989E+0	1.729428E+0	1.820651E+0	1.894776E+0	1.707987E+0	1.776083E+0	1.824278E+0	1.773709E+0	1.804989E+0	1.812189E+0	1.857119E+0	1.775046E+0	1.863709E+0	1.827809E+0	1.770017E+0	1.772313E+0	1.708952E+0	1.860461E+0	1.816256E+0	1.784940E+0	1.770170E+0	1.802121E+0	1.808626E+0	1.828170E+0	1.834006E+0	1.752774E+0	1.827305E+0	1.819785E+0	1.759430E+0	1.858880E+0	1.794350E+0	1.814076E+0	1.703371E+0	1.708632E+0	1.838948E+0	1.853901E+0	1.755417E+0	1.763015E+0	1.839265E+0	1.789539E+0	1.886799E+0	1.732079E+0	1.792849E+0	1.752742E+0	1.702270E+0	1.809304E+0	1.773086E+0	1.810791E+0	1.855195E+0	1.836187E+0	1.723962E+0	1.745761E+0	1.775824E+0	1.762053E+0	1.701140E+0	1.776201E+0	1.771096E+0	1.800575E+0	1.868710E+0	1.801497E+0	1.821589E+0	1.855911E+0	1.839888E+0	1.856280E+0	1.782915E+0	1.838697E+0	1.741143E+0	1.806053E+0	1.831321E+0	1.707459E+0	1.934311E+0
5.366140E+2	1.827922E+0	1.867620E+0	1.796438E+0	1.923804E+0	1.757995E+0	1.789579E+0	1.782227E+0	1.833710E+0	1.756766E+0	1.911429E+0	1.816898E+0	1.819549E+0	1.704180E+0	1.807364E+0	1.802329E+0	1.837475E+0	1.836849E+0	1.860723E+0	1.890729E+0	1.789789E+0	1.816096E+0	1.838972E+0	1.912070E+0	1.893503E+0	1.827928E+0	1.846665E+0	1.842510E+0	1.860567E+0	1.783610E+0	1.879677E+0	1.811735E+0	1.891714E+0	1.815154E+0	1.770708E+0	1.848694E+0	1.815863E+0	1.841201E+0	1.850109E+0	1.815539E+0	1.861585E+0	1.886486E+0	1.793839E+0	1.771437E+0	1.803199E+0	1.775437E+0	1.870517E+0	1.876570E+0	1.741439E+0	1.886692E+0	1.877587E+0	1.858201E+0	1.775746E+0	1.878615E+0	1.888356E+0	1.806814E+0	1.834846E+0	1.848158E+0	1.916440E+0	1.878235E+0	1.784623E+0	1.825353E+0	1.771565E+0	1.884351E+0	1.762821E+0	1.844611E+0	1.907525E+0	1.871197E+0	1.803488E+0	1.839150E+0	1.801273E+0	1.800680E+0	1.759912E+0	1.697748E+0	1.817068E+0	1.862029E+0	1.786961E+0	1.836528E+0	1.797071E+0	1.864788E+0	1.813416E+0	1.855238E+0	1.864708E+0	1.806755E+0	1.770664E+0	1.765925E+0	1.820685E+0	1.838313E+0	1.812027E+0	1.779265E+0	1.891159E+0	1.785137E+0	1.864792E+0	1.746649E+0	1.858112E+0	1.850406E+0	1.801301E+0	1.896371E+0	1.851062E+0	1.779650E+0	1.747782E+0	1.873832E+0	1.852889E+0	1.813999E+0	1.861302E+0	1.783092E+0	1.752289E+0	1.777382E+0	1.898494E+0	1.802214E+0	1.808226E+0	1.845468E+0	1.836248E+0	1.835054E+0	1.858678E+0	1.710526E+0	1.871470E+0	1.862383E+0	1.801130E+0	1.809962E+0	1.794531E+0	1.839876E+0	1.854783E+0	1.767690E+0	1.813843E+0	1.845382E+0	1.852205E+0	1.725060E+0	1.816504E+0	1.827166E+0	1.805041E+0	1.915371E+0	1.758985E+0	1.782908E+0	1.819050E+0	1.741865E+0	1.742015E+0	1.826264E+0	1.810437E+0	1.836407E+0	1.830219E+0	1.826813E+0	1.845609E+0	1.851286E+0	1.849789E+0	1.794325E+0	1.773668E+0	1.849428E+0	1.732120E+0	1.869077E+0	1.781683E+0	1.788497E+0	1.803868E+0	1.822483E+0	1.843901E+0	1.826744E+0	1.895319E+0	1.757813E+0	1.922535E+0	1.867150E+0	1.828634E+0	1.883266E+0	1.838675E+0	1.800756E+0	1.798455E+0	1.849862E+0
5.368080E+2	1.443960E+0	1.454816E+0	1.458388E+0	1.498364E+0	1.422835E+0	1.381244E+0	1.461863E+0	1.422725E+0	1.355102E+0	1.448318E+0	1.458787E+0	1.344662E+0	1.443133E+0	1.353195E+0	1.427884E+0	1.391546E+0	1.439531E+0	1.446846E+0	1.396678E+0	1.448904E+0	1.321573E+0	1.453655E+0	1.465910E+0	1.497074E+0	1.415770E+0	1.511847E+0	1.440633E+0	1.446856E+0	1.451958E+0	1.438577E+0	1.444934E+0	1.411206E+0	1.385278E+0	1.402123E+0	1.379279E+0	1.407805E+0	1.409965E+0	1.417341E+0	1.492072E+0	1.430635E+0	1.425537E+0	1.445431E+0	1.377036E+0	1.416555E+0	1.448576E+0	1.421263E+0	1.437725E+0	1.398553E+0	1.450623E+0	1.364833E+0	1.405512E+0	1.357838E+0	1.511717E+0	1.455916E+0	1.485013E+0	1.467560E+0	1.488173E+0	1.392592E+0	1.561329E+0	1.478436E+0	1.463970E+0	1.502832E+0	1.377109E+0	1.427544E+0	1.480663E+0	1.484330E+0	1.383771E+0	1.527959E+0	1.379776E+0	1.415925E+0	1.442696E+0	1.417424E+0	1.372927E+0	1.455832E+0	1.471806E+0	1.430363E+0	1.445302E+0	1.502005E+0	1.502849E+0	1.480010E+0	1.428384E+0	1.454692E+0	1.436370E+0	1.419656E+0	1.444792E+0	1.461712E+0	1.417562E+0	1.354949E+0	1.406899E+0	1.446385E+0	1.436341E+0	1.354285E+0	1.368365E+0	1.518373E+0	1.410783E+0	1.428888E+0	1.335583E+0	1.500157E+0	1.484880E+0	1.437753E+0	1.505926E+0	1.441430E+0	1.451998E+0	1.496558E+0	1.437671E+0	1.458806E+0	1.432387E+0	1.403074E+0	1.394471E+0	1.394845E+0	1.425596E+0	1.373842E+0	1.426717E+0	1.474427E+0	1.479603E+0	1.435131E+0	1.383051E+0	1.466361E+0	1.422921E+0	1.437297E+0	1.514676E+0	1.437150E+0	1.391887E+0	1.548438E+0	1.478517E+0	1.444638E+0	1.405063E+0	1.440465E+0	1.471653E+0	1.523053E+0	1.430477E+0	1.476220E+0	1.451458E+0	1.412030E+0	1.436838E+0	1.402761E+0	1.357813E+0	1.436150E+0	1.501727E+0	1.390431E+0	1.477430E+0	1.410014E+0	1.495373E+0	1.400477E+0	1.433374E+0	1.443006E+0	1.486871E+0	1.419092E+0	1.387388E+0	1.418500E+0	1.450956E+0	1.363404E+0	1.405934E+0	1.410699E+0	1.379394E+0	1.472073E+0	1.428068E+0	1.471676E+0	1.356304E+0	1.452486E+0	1.473176E+0	1.478701E+0	1.451394E+0	1.352482E+0	1.432234E+0
5.370070E+2	1.099970E+0	1.024240E+0	1.086927E+0	1.091294E+0	1.047262E+0	1.081764E+0	1.062064E+0	1.023431E+0	1.013157E+0	1.068601E+0	1.095228E+0	9.692863E-1	1.023598E+0	1.055960E+0	1.142986E+0	1.075767E+0	1.003656E+0	1.066275E+0	1.065439E+0	1.023555E+0	1.041042E+0	1.124795E+0	1.055814E+0	1.086662E+0	1.057625E+0	1.061334E+0	1.100564E+0	1.042394E+0	1.018028E+0	1.082815E+0	1.047899E+0	1.068564E+0	1.038340E+0	1.106003E+0	1.075192E+0	1.085055E+0	1.143081E+0	1.131015E+0	1.095211E+0	1.084551E+0	9.974650E-1	1.033311E+0	1.050894E+0	1.081832E+0	1.087493E+0	1.091884E+0	1.023951E+0	1.021081E+0	1.138037E+0	1.094685E+0	1.058908E+0	1.081840E+0	1.084412E+0	1.114294E+0	1.094348E+0	1.156590E+0	1.161355E+0	1.159086E+0	1.118615E+0	1.071000E+0	1.082434E+0	1.089993E+0	1.083680E+0	1.020897E+0	1.118002E+0	1.142315E+0	1.095310E+0	1.103188E+0	1.114778E+0	1.101325E+0	1.083545E+0	1.070019E+0	1.095949E+0	1.067228E+0	1.116865E+0	1.090422E+0	1.074207E+0	1.099989E+0	1.104089E+0	1.097399E+0	1.016914E+0	1.111552E+0	1.138304E+0	1.060273E+0	1.113847E+0	1.103667E+0	1.091973E+0	1.143520E+0	1.112872E+0	1.073298E+0	1.090865E+0	1.049370E+0	1.064164E+0	1.110352E+0	1.076662E+0	1.128538E+0	1.112444E+0	1.051496E+0	1.051571E+0	1.077918E+0	1.087742E+0	1.018024E+0	1.065345E+0	1.046157E+0	1.039836E+0	1.110682E+0	1.040895E+0	1.061129E+0	1.035972E+0	1.112047E+0	1.062996E+0	1.078210E+0	1.062056E+0	1.119374E+0	1.037125E+0	1.072167E+0	1.011482E+0	1.077737E+0	1.037308E+0	1.052337E+0	1.097926E+0	1.062055E+0	1.112889E+0	1.021821E+0	1.118342E+0	1.118801E+0	1.050061E+0	1.067955E+0	1.118215E+0	1.097375E+0	1.101342E+0	1.070936E+0	1.077576E+0	1.106433E+0	1.114238E+0	1.034863E+0	1.038040E+0	1.131539E+0	1.054787E+0	1.140064E+0	1.061938E+0	1.114820E+0	1.061999E+0	1.123813E+0	1.030230E+0	1.027036E+0	1.137018E+0	1.067726E+0	1.100814E+0	1.045373E+0	1.014080E+0	1.030459E+0	1.107850E+0	1.041726E+0	1.048779E+0	1.142422E+0	1.046639E+0	1.061065E+0	1.072306E+0	1.082364E+0	1.014910E+0	1.073446E+0	1.015343E+0	1.177530E+0	8.812146E-1
5.372010E+2	8.941032E-1	8.386404E-1	9.236282E-1	9.859779E-1	8.595853E-1	9.167212E-1	9.112717E-1	9.158755E-1	9.159396E-1	9.179664E-1	9.183209E-1	8.947204E-1	8.470147E-1	8.417589E-1	9.104065E-1	9.039071E-1	8.596258E-1	8.590835E-1	9.129909E-1	9.409871E-1	9.063031E-1	8.650001E-1	9.167897E-1	8.536628E-1	9.228317E-1	8.976415E-1	8.704141E-1	8.855391E-1	8.886944E-1	8.873292E-1	8.658497E-1	8.774317E-1	9.013884E-1	9.028293E-1	9.799413E-1	8.954659E-1	9.337828E-1	8.720473E-1	8.811973E-1	9.546918E-1	8.907799E-1	8.950135E-1	8.900886E-1	9.636456E-1	9.164096E-1	9.061358E-1	8.960263E-1	8.686477E-1	9.106521E-1	8.673411E-1	9.110206E-1	9.052971E-1	1.024827E+0	8.814024E-1	9.564326E-1	9.591814E-1	9.389752E-1	9.313550E-1	8.934843E-1	9.566464E-1	9.197773E-1	9.227570E-1	8.947151E-1	9.094822E-1	9.705250E-1	8.834488E-1	9.474256E-1	9.662458E-1	8.807773E-1	9.071747E-1	9.098444E-1	9.071384E-1	8.969093E-1	9.237594E-1	9.266844E-1	9.330863E-1	8.806299E-1	8.450030E-1	9.338244E-1	8.508828E-1	8.711234E-1	8.914615E-1	9.493701E-1	9.463664E-1	9.205700E-1	9.373535E-1	8.829104E-1	8.703107E-1	9.118771E-1	9.211773E-1	8.426680E-1	9.227249E-1	8.491865E-1	8.699743E-1	9.282601E-1	8.911137E-1	9.100177E-1	9.511386E-1	8.705072E-1	8.564182E-1	8.706571E-1	8.931108E-1	9.162996E-1	8.976042E-1	8.775949E-1	9.890941E-1	9.327490E-1	9.915423E-1	8.765805E-1	9.077563E-1	9.032418E-1	8.894445E-1	9.352173E-1	9.495266E-1	9.441009E-1	9.022142E-1	9.378989E-1	9.361957E-1	9.832153E-1	8.884035E-1	9.277018E-1	9.341573E-1	8.934812E-1	9.124560E-1	9.415577E-1	8.727880E-1	9.218759E-1	9.116377E-1	8.675480E-1	9.873817E-1	9.390914E-1	8.993979E-1	9.028746E-1	8.936546E-1	8.948905E-1	9.895546E-1	8.992850E-1	9.161328E-1	9.223132E-1	9.596200E-1	8.945439E-1	9.294646E-1	9.006761E-1	8.732077E-1	8.935121E-1	9.099603E-1	9.541065E-1	9.306769E-1	8.617279E-1	9.106782E-1	8.492159E-1	9.002369E-1	9.288088E-1	9.415156E-1	9.532097E-1	9.625560E-1	9.142982E-1	9.645635E-1	9.552359E-1	9.608623E-1	8.829340E-1	9.686033E-1	8.746293E-1	9.006035E-1	7.504586E-1
5.374220E+2	1.196945E+0	1.074024E+0	1.040858E+0	1.211062E+0	1.097876E+0	1.086695E+0	1.137312E+0	1.085012E+0	1.076463E+0	1.083224E+0	1.108762E+0	1.177131E+0	1.104867E+0	1.026543E+0	1.106298E+0	1.042250E+0	1.148773E+0	1.098566E+0	1.081403E+0	1.116874E+0	1.061092E+0	1.064869E+0	1.168571E+0	1.151137E+0	1.157249E+0	1.146001E+0	1.059408E+0	1.123006E+0	1.090341E+0	1.128789E+0	1.079145E+0	1.123675E+0	1.021883E+0	1.111273E+0	1.074123E+0	1.153539E+0	1.139731E+0	1.022671E+0	1.144130E+0	1.109582E+0	1.217465E+0	1.053298E+0	1.097673E+0	1.098823E+0	1.093084E+0	1.109183E+0	1.181809E+0	1.147585E+0	1.164770E+0	1.149281E+0	1.194749E+0	1.122144E+0	1.158307E+0	1.154708E+0	1.141617E+0	1.083431E+0	1.067286E+0	1.098721E+0	1.122807E+0	1.084477E+0	1.187097E+0	1.121732E+0	1.088445E+0	1.150055E+0	1.174363E+0	1.054057E+0	1.054247E+0	1.097394E+0	1.108769E+0	1.119157E+0	1.106621E+0	1.097759E+0	1.116528E+0	1.075809E+0	1.154385E+0	1.124715E+0	1.131741E+0	1.142390E+0	1.130786E+0	1.079571E+0	1.117823E+0	1.107643E+0	1.151759E+0	1.142128E+0	1.152627E+0	1.096246E+0	1.142580E+0	1.080822E+0	1.094673E+0	1.094723E+0	1.101728E+0	1.099245E+0	1.062700E+0	1.101384E+0	1.108320E+0	1.099008E+0	1.126617E+0	1.179153E+0	1.163846E+0	1.139752E+0	1.089741E+0	1.133389E+0	1.094260E+0	1.078638E+0	1.125688E+0	1.102226E+0	1.070060E+0	1.136695E+0	1.111950E+0	1.131671E+0	1.101412E+0	1.121346E+0	1.106280E+0	1.103431E+0	1.159563E+0	1.218926E+0	1.134770E+0	1.174781E+0	1.146339E+0	1.130914E+0	1.167256E+0	1.111142E+0	1.100908E+0	1.103092E+0	1.145747E+0	1.168174E+0	1.088171E+0	1.081565E+0	1.118949E+0	1.105868E+0	1.120752E+0	1.037868E+0	1.153760E+0	1.163124E+0	1.114569E+0	1.162880E+0	1.086533E+0	1.135160E+0	1.135418E+0	1.128944E+0	1.071565E+0	1.102062E+0	1.112795E+0	1.065519E+0	1.040526E+0	1.110226E+0	1.166945E+0	1.076006E+0	1.122331E+0	1.193404E+0	1.170814E+0	1.094516E+0	1.108980E+0	1.061721E+0	1.113557E+0	1.167994E+0	1.112678E+0	1.105497E+0	1.177982E+0	1.178124E+0	1.089145E+0	1.124192E+0	1.076323E+0	1.085288E+0	1.035270E+0
5.376110E+2	1.462271E+0	1.448725E+0	1.486672E+0	1.549571E+0	1.546420E+0	1.520963E+0	1.591030E+0	1.512620E+0	1.575045E+0	1.503210E+0	1.564635E+0	1.536753E+0	1.581120E+0	1.517680E+0	1.560965E+0	1.523253E+0	1.575472E+0	1.577272E+0	1.552530E+0	1.527540E+0	1.546703E+0	1.648876E+0	1.637074E+0	1.651757E+0	1.588938E+0	1.601904E+0	1.520077E+0	1.542941E+0	1.513344E+0	1.462415E+0	1.545289E+0	1.501234E+0	1.569415E+0	1.577555E+0	1.525011E+0	1.485064E+0	1.540267E+0	1.591389E+0	1.539669E+0	1.538518E+0	1.597979E+0	1.608326E+0	1.532469E+0	1.600956E+0	1.513571E+0	1.565808E+0	1.546998E+0	1.525823E+0	1.616767E+0	1.636092E+0	1.642777E+0	1.603399E+0	1.510713E+0	1.560628E+0	1.580792E+0	1.634351E+0	1.606133E+0	1.598298E+0	1.540606E+0	1.493459E+0	1.564701E+0	1.625165E+0	1.587460E+0	1.553184E+0	1.582831E+0	1.517205E+0	1.606493E+0	1.611979E+0	1.541771E+0	1.516115E+0	1.558678E+0	1.523236E+0	1.474271E+0	1.553009E+0	1.595411E+0	1.493544E+0	1.525610E+0	1.535013E+0	1.592399E+0	1.593196E+0	1.590317E+0	1.522226E+0	1.535487E+0	1.542105E+0	1.513380E+0	1.588011E+0	1.616922E+0	1.597727E+0	1.575406E+0	1.494315E+0	1.548238E+0	1.521792E+0	1.523481E+0	1.631514E+0	1.522994E+0	1.530167E+0	1.565860E+0	1.567118E+0	1.510794E+0	1.511168E+0	1.578105E+0	1.613735E+0	1.619930E+0	1.536296E+0	1.529298E+0	1.521315E+0	1.486054E+0	1.541026E+0	1.569498E+0	1.592782E+0	1.554035E+0	1.541845E+0	1.514245E+0	1.565105E+0	1.571823E+0	1.532762E+0	1.516389E+0	1.580177E+0	1.614569E+0	1.502145E+0	1.576364E+0	1.551939E+0	1.580664E+0	1.643442E+0	1.581062E+0	1.483443E+0	1.522982E+0	1.559494E+0	1.563819E+0	1.528107E+0	1.538440E+0	1.476712E+0	1.578179E+0	1.535172E+0	1.521534E+0	1.558988E+0	1.550310E+0	1.435622E+0	1.559821E+0	1.504506E+0	1.505215E+0	1.510411E+0	1.530968E+0	1.540714E+0	1.501536E+0	1.566527E+0	1.565927E+0	1.586225E+0	1.511513E+0	1.646180E+0	1.485944E+0	1.471870E+0	1.588791E+0	1.563729E+0	1.539961E+0	1.568867E+0	1.523389E+0	1.557561E+0	1.540389E+0	1.508325E+0	1.504240E+0	1.562709E+0	1.464582E+0	1.588461E+0	1.527607E+0
5.378110E+2	1.724105E+0	1.747388E+0	1.679988E+0	1.734159E+0	1.784593E+0	1.744000E+0	1.676199E+0	1.681233E+0	1.706067E+0	1.711875E+0	1.746394E+0	1.771116E+0	1.750027E+0	1.740835E+0	1.789993E+0	1.620772E+0	1.789814E+0	1.778070E+0	1.733253E+0	1.620153E+0	1.714045E+0	1.746603E+0	1.741027E+0	1.818346E+0	1.757731E+0	1.795039E+0	1.795668E+0	1.793174E+0	1.832718E+0	1.696818E+0	1.730512E+0	1.776550E+0	1.687765E+0	1.679448E+0	1.743606E+0	1.766881E+0	1.766930E+0	1.774377E+0	1.742133E+0	1.738358E+0	1.796705E+0	1.763253E+0	1.703429E+0	1.785413E+0	1.753902E+0	1.757165E+0	1.760785E+0	1.716342E+0	1.808578E+0	1.763330E+0	1.762041E+0	1.814233E+0	1.799595E+0	1.700237E+0	1.768674E+0	1.738778E+0	1.762771E+0	1.680007E+0	1.726663E+0	1.725434E+0	1.738939E+0	1.705375E+0	1.737328E+0	1.691789E+0	1.740029E+0	1.726853E+0	1.751752E+0	1.758244E+0	1.671452E+0	1.811570E+0	1.727708E+0	1.773411E+0	1.683009E+0	1.752359E+0	1.672639E+0	1.813806E+0	1.698420E+0	1.726979E+0	1.715965E+0	1.757637E+0	1.683415E+0	1.802818E+0	1.652338E+0	1.705091E+0	1.724068E+0	1.746522E+0	1.732655E+0	1.780466E+0	1.714930E+0	1.655325E+0	1.738656E+0	1.728300E+0	1.795835E+0	1.810827E+0	1.758493E+0	1.723744E+0	1.701292E+0	1.701462E+0	1.600010E+0	1.663923E+0	1.652168E+0	1.796360E+0	1.735802E+0	1.659710E+0	1.713210E+0	1.700223E+0	1.653196E+0	1.755750E+0	1.658535E+0	1.786318E+0	1.624547E+0	1.719442E+0	1.742674E+0	1.718111E+0	1.703248E+0	1.820613E+0	1.771335E+0	1.802942E+0	1.786841E+0	1.708489E+0	1.715427E+0	1.728231E+0	1.680232E+0	1.745297E+0	1.751625E+0	1.640307E+0	1.743116E+0	1.675815E+0	1.758950E+0	1.677585E+0	1.593287E+0	1.760736E+0	1.713261E+0	1.771453E+0	1.720779E+0	1.647052E+0	1.799089E+0	1.774971E+0	1.705545E+0	1.762618E+0	1.795006E+0	1.741666E+0	1.699385E+0	1.738049E+0	1.619462E+0	1.721894E+0	1.782781E+0	1.728734E+0	1.740851E+0	1.772723E+0	1.635057E+0	1.767588E+0	1.701528E+0	1.695646E+0	1.665068E+0	1.830201E+0	1.684628E+0	1.785133E+0	1.737472E+0	1.701338E+0	1.709653E+0	1.686312E+0	1.676987E+0	1.815567E+0	1.643907E+0
5.380110E+2	1.735044E+0	1.702166E+0	1.711587E+0	1.677970E+0	1.664106E+0	1.654950E+0	1.564335E+0	1.531292E+0	1.614929E+0	1.672611E+0	1.694536E+0	1.606250E+0	1.632740E+0	1.631134E+0	1.619857E+0	1.631274E+0	1.654560E+0	1.660003E+0	1.618454E+0	1.557019E+0	1.599410E+0	1.599696E+0	1.600374E+0	1.680695E+0	1.711313E+0	1.584190E+0	1.648623E+0	1.580225E+0	1.623123E+0	1.602817E+0	1.584891E+0	1.566421E+0	1.582265E+0	1.656011E+0	1.587435E+0	1.655292E+0	1.654823E+0	1.562759E+0	1.703522E+0	1.690320E+0	1.651731E+0	1.630174E+0	1.653886E+0	1.637149E+0	1.589432E+0	1.617355E+0	1.662499E+0	1.569885E+0	1.636056E+0	1.620753E+0	1.588917E+0	1.602008E+0	1.652590E+0	1.644231E+0	1.621456E+0	1.659247E+0	1.659612E+0	1.735535E+0	1.614125E+0	1.584933E+0	1.586427E+0	1.636540E+0	1.686838E+0	1.559238E+0	1.576333E+0	1.604820E+0	1.635745E+0	1.581917E+0	1.613173E+0	1.629947E+0	1.569512E+0	1.583679E+0	1.657701E+0	1.697945E+0	1.673817E+0	1.596699E+0	1.679524E+0	1.576691E+0	1.581949E+0	1.541542E+0	1.599584E+0	1.639181E+0	1.596750E+0	1.553057E+0	1.643026E+0	1.634147E+0	1.556757E+0	1.674528E+0	1.662089E+0	1.679034E+0	1.615341E+0	1.482957E+0	1.577474E+0	1.582209E+0	1.726574E+0	1.641971E+0	1.621623E+0	1.668094E+0	1.706354E+0	1.511726E+0	1.612712E+0	1.687736E+0	1.624099E+0	1.494624E+0	1.638681E+0	1.615863E+0	1.615402E+0	1.691773E+0	1.662287E+0	1.656057E+0	1.614285E+0	1.720805E+0	1.531037E+0	1.580817E+0	1.593418E+0	1.656677E+0	1.549422E+0	1.641144E+0	1.617276E+0	1.647678E+0	1.537916E+0	1.643959E+0	1.578829E+0	1.630165E+0	1.612587E+0	1.629202E+0	1.562176E+0	1.538195E+0	1.590166E+0	1.573639E+0	1.548005E+0	1.599536E+0	1.606652E+0	1.755682E+0	1.552419E+0	1.604206E+0	1.606315E+0	1.661472E+0	1.573813E+0	1.628155E+0	1.627351E+0	1.569242E+0	1.619763E+0	1.602186E+0	1.581762E+0	1.543307E+0	1.675673E+0	1.624679E+0	1.617576E+0	1.726367E+0	1.626891E+0	1.597443E+0	1.588854E+0	1.585646E+0	1.620053E+0	1.626065E+0	1.623826E+0	1.642571E+0	1.577021E+0	1.638445E+0	1.655986E+0	1.542031E+0	1.559898E+0	1.710647E+0	1.572959E+0
5.382110E+2	1.423418E+0	1.493827E+0	1.410997E+0	1.576240E+0	1.533374E+0	1.427041E+0	1.638515E+0	1.461870E+0	1.473553E+0	1.560973E+0	1.469674E+0	1.432109E+0	1.477235E+0	1.482318E+0	1.470713E+0	1.525437E+0	1.492873E+0	1.449601E+0	1.522658E+0	1.432895E+0	1.462306E+0	1.489814E+0	1.508056E+0	1.536006E+0	1.532657E+0	1.503649E+0	1.361595E+0	1.483429E+0	1.486928E+0	1.471538E+0	1.457057E+0	1.465959E+0	1.389136E+0	1.483230E+0	1.379113E+0	1.410245E+0	1.468445E+0	1.475271E+0	1.509707E+0	1.399777E+0	1.529594E+0	1.394597E+0	1.496226E+0	1.429431E+0	1.466371E+0	1.460949E+0	1.513793E+0	1.507754E+0	1.488507E+0	1.525665E+0	1.454227E+0	1.465871E+0	1.506895E+0	1.530527E+0	1.468215E+0	1.442521E+0	1.566618E+0	1.503260E+0	1.527226E+0	1.464192E+0	1.470827E+0	1.528054E+0	1.511453E+0	1.423729E+0	1.558936E+0	1.492765E+0	1.476045E+0	1.487179E+0	1.431169E+0	1.519533E+0	1.482531E+0	1.434989E+0	1.483872E+0	1.498314E+0	1.516888E+0	1.423561E+0	1.539744E+0	1.507421E+0	1.509084E+0	1.531446E+0	1.463695E+0	1.477219E+0	1.446023E+0	1.463645E+0	1.483978E+0	1.470604E+0	1.408125E+0	1.467118E+0	1.354069E+0	1.402599E+0	1.448376E+0	1.466846E+0	1.476181E+0	1.475399E+0	1.484001E+0	1.446589E+0	1.483711E+0	1.417996E+0	1.518329E+0	1.533735E+0	1.380992E+0	1.494533E+0	1.407035E+0	1.440331E+0	1.458013E+0	1.407751E+0	1.420165E+0	1.503089E+0	1.358542E+0	1.440611E+0	1.448053E+0	1.473822E+0	1.485119E+0	1.386560E+0	1.477953E+0	1.527910E+0	1.520295E+0	1.438726E+0	1.531962E+0	1.468908E+0	1.567057E+0	1.528681E+0	1.415231E+0	1.564824E+0	1.495131E+0	1.501579E+0	1.426873E+0	1.452374E+0	1.429765E+0	1.424742E+0	1.498056E+0	1.476088E+0	1.510741E+0	1.414268E+0	1.437743E+0	1.423411E+0	1.409200E+0	1.436764E+0	1.444218E+0	1.448490E+0	1.502294E+0	1.428777E+0	1.463043E+0	1.482142E+0	1.361955E+0	1.534059E+0	1.507558E+0	1.430017E+0	1.376215E+0	1.475986E+0	1.427590E+0	1.446305E+0	1.495555E+0	1.406561E+0	1.546949E+0	1.517863E+0	1.487876E+0	1.565672E+0	1.457395E+0	1.577810E+0	1.403794E+0	1.400115E+0	1.525621E+0	1.439312E+0	1.231257E+0
5.384110E+2	1.599406E+0	1.603356E+0	1.575269E+0	1.619245E+0	1.531995E+0	1.504570E+0	1.588204E+0	1.584554E+0	1.579111E+0	1.634526E+0	1.612629E+0	1.595194E+0	1.534507E+0	1.551494E+0	1.622380E+0	1.558995E+0	1.591616E+0	1.568038E+0	1.578101E+0	1.584069E+0	1.505759E+0	1.544740E+0	1.618335E+0	1.622977E+0	1.585699E+0	1.527760E+0	1.563492E+0	1.542552E+0	1.639469E+0	1.553116E+0	1.625351E+0	1.499423E+0	1.430090E+0	1.530824E+0	1.508301E+0	1.553677E+0	1.601875E+0	1.586437E+0	1.665911E+0	1.566852E+0	1.557011E+0	1.498591E+0	1.553401E+0	1.493356E+0	1.557588E+0	1.574459E+0	1.667424E+0	1.509600E+0	1.656656E+0	1.545534E+0	1.582932E+0	1.602050E+0	1.622633E+0	1.566198E+0	1.530772E+0	1.593540E+0	1.543829E+0	1.569417E+0	1.556837E+0	1.492687E+0	1.566583E+0	1.596550E+0	1.588368E+0	1.522022E+0	1.580783E+0	1.615196E+0	1.529828E+0	1.609029E+0	1.580244E+0	1.553559E+0	1.544628E+0	1.482405E+0	1.508887E+0	1.593105E+0	1.571397E+0	1.520369E+0	1.509477E+0	1.542634E+0	1.602446E+0	1.620939E+0	1.506506E+0	1.536648E+0	1.487021E+0	1.578813E+0	1.509908E+0	1.599061E+0	1.519104E+0	1.532310E+0	1.534224E+0	1.532227E+0	1.542259E+0	1.521661E+0	1.557603E+0	1.530249E+0	1.562762E+0	1.546211E+0	1.523729E+0	1.555161E+0	1.544180E+0	1.580505E+0	1.493109E+0	1.476056E+0	1.516292E+0	1.561339E+0	1.528222E+0	1.567126E+0	1.591643E+0	1.550182E+0	1.596048E+0	1.469507E+0	1.461137E+0	1.622648E+0	1.674441E+0	1.539472E+0	1.600337E+0	1.535729E+0	1.526161E+0	1.556849E+0	1.603078E+0	1.444092E+0	1.554187E+0	1.552647E+0	1.566670E+0	1.590800E+0	1.572165E+0	1.566178E+0	1.520570E+0	1.592978E+0	1.560884E+0	1.513102E+0	1.634871E+0	1.455706E+0	1.594830E+0	1.547136E+0	1.544149E+0	1.571982E+0	1.531710E+0	1.535903E+0	1.639577E+0	1.566496E+0	1.563426E+0	1.537786E+0	1.523936E+0	1.526478E+0	1.563746E+0	1.510619E+0	1.496647E+0	1.512565E+0	1.540745E+0	1.474641E+0	1.511664E+0	1.481879E+0	1.532627E+0	1.542559E+0	1.552302E+0	1.592704E+0	1.562386E+0	1.558067E+0	1.514946E+0	1.590124E+0	1.518167E+0	1.604673E+0	1.470647E+0	1.384231E+0	1.366416E+0
5.386120E+2	1.882128E+0	1.867233E+0	1.813247E+0	1.926103E+0	1.812780E+0	1.895211E+0	1.811563E+0	1.946982E+0	1.926974E+0	1.813473E+0	1.828898E+0	1.942543E+0	1.847620E+0	1.816315E+0	1.855803E+0	1.803155E+0	1.855839E+0	1.808367E+0	1.853772E+0	1.805114E+0	1.806139E+0	1.920973E+0	1.895238E+0	1.874046E+0	1.885180E+0	1.894717E+0	1.782926E+0	1.832127E+0	1.914780E+0	1.864814E+0	1.779779E+0	1.785467E+0	1.857682E+0	1.805266E+0	1.853754E+0	1.809161E+0	1.888262E+0	1.862023E+0	1.807648E+0	1.842116E+0	1.784477E+0	1.841400E+0	1.796710E+0	1.899538E+0	1.843804E+0	1.866367E+0	1.815297E+0	1.794325E+0	1.803007E+0	1.797654E+0	1.716917E+0	1.816142E+0	1.831995E+0	1.802474E+0	1.813315E+0	1.895967E+0	2.027223E+0	1.852256E+0	1.897955E+0	1.711520E+0	1.925016E+0	1.787542E+0	1.802104E+0	1.785583E+0	1.833932E+0	1.831904E+0	1.869456E+0	1.820993E+0	1.768076E+0	1.784847E+0	1.822792E+0	1.839931E+0	1.778954E+0	1.792478E+0	1.820157E+0	1.905083E+0	1.827794E+0	1.826372E+0	1.873834E+0	1.833215E+0	1.823994E+0	1.897085E+0	1.866569E+0	1.838909E+0	1.831951E+0	1.884342E+0	1.805198E+0	1.829686E+0	1.791979E+0	1.776701E+0	1.771621E+0	1.776354E+0	1.770981E+0	1.907406E+0	1.795657E+0	1.782456E+0	1.847931E+0	1.814243E+0	1.654278E+0	1.892072E+0	1.835650E+0	1.767769E+0	1.749250E+0	1.835986E+0	1.853836E+0	1.795560E+0	1.825025E+0	1.843123E+0	1.829943E+0	1.866597E+0	1.784720E+0	1.812338E+0	1.825470E+0	1.812186E+0	1.825917E+0	1.894220E+0	1.706808E+0	1.899008E+0	1.908384E+0	1.778016E+0	1.808544E+0	1.830532E+0	1.781169E+0	1.899287E+0	1.854935E+0	1.716783E+0	1.827065E+0	1.797088E+0	1.780327E+0	1.741325E+0	1.757195E+0	1.674585E+0	1.800326E+0	1.934547E+0	1.795063E+0	1.789210E+0	1.834318E+0	1.791211E+0	1.865581E+0	1.826696E+0	1.808172E+0	1.776287E+0	1.867534E+0	1.927265E+0	1.777433E+0	1.793954E+0	1.805829E+0	1.804889E+0	1.855389E+0	1.895018E+0	1.823645E+0	1.763772E+0	1.896842E+0	1.795850E+0	1.838543E+0	1.923234E+0	1.789077E+0	1.881255E+0	1.926712E+0	1.977777E+0	1.746553E+0	1.690833E+0	1.844204E+0	1.843471E+0	1.684735E+0
5.388180E+2	2.273904E+0	2.189891E+0	2.195312E+0	2.159909E+0	2.149049E+0	2.190349E+0	2.198804E+0	2.245141E+0	2.176926E+0	2.209187E+0	2.274697E+0	2.275290E+0	2.223332E+0	2.167107E+0	2.201895E+0	2.230218E+0	2.221557E+0	2.234690E+0	2.312165E+0	2.173062E+0	2.135233E+0	2.134767E+0	2.267688E+0	2.248262E+0	2.210870E+0	2.239860E+0	2.184855E+0	2.098225E+0	2.188631E+0	2.170432E+0	2.226049E+0	2.253062E+0	2.261172E+0	2.203321E+0	2.157606E+0	2.128710E+0	2.163639E+0	2.155279E+0	2.292400E+0	2.145637E+0	2.240566E+0	2.186643E+0	2.146816E+0	2.113756E+0	2.119389E+0	2.240263E+0	2.300925E+0	2.213409E+0	2.172188E+0	2.141851E+0	2.206580E+0	2.135035E+0	2.133834E+0	2.207967E+0	2.147175E+0	2.295658E+0	2.189711E+0	2.206266E+0	2.292250E+0	2.171860E+0	2.136969E+0	2.214528E+0	2.144219E+0	2.191598E+0	2.118303E+0	2.179156E+0	2.310627E+0	2.254756E+0	2.133091E+0	2.194993E+0	2.138138E+0	2.123089E+0	2.141608E+0	2.251345E+0	2.351668E+0	2.175584E+0	2.204832E+0	2.138613E+0	2.195139E+0	2.216678E+0	2.138226E+0	2.177543E+0	2.211013E+0	2.155199E+0	2.163763E+0	2.097738E+0	2.121928E+0	2.170602E+0	2.167950E+0	2.102324E+0	2.140581E+0	2.070879E+0	2.191852E+0	2.221658E+0	2.131273E+0	2.129308E+0	2.218899E+0	2.142644E+0	2.204490E+0	2.088171E+0	2.167025E+0	2.135505E+0	2.133591E+0	2.209540E+0	2.065775E+0	2.119685E+0	2.206536E+0	2.190517E+0	2.099746E+0	2.138455E+0	2.213146E+0	2.124647E+0	2.214085E+0	2.180079E+0	2.190919E+0	2.217341E+0	2.243290E+0	2.211163E+0	2.188028E+0	2.159612E+0	2.205877E+0	2.174155E+0	2.064934E+0	2.256002E+0	2.175369E+0	2.171697E+0	2.185300E+0	2.140724E+0	2.197392E+0	2.186650E+0	2.179078E+0	2.212775E+0	2.144293E+0	2.145891E+0	2.193337E+0	2.140061E+0	2.101928E+0	2.264550E+0	2.167572E+0	2.155289E+0	2.127481E+0	2.102018E+0	2.172074E+0	2.174606E+0	2.109576E+0	2.154333E+0	2.214966E+0	2.222794E+0	2.214329E+0	2.130491E+0	2.157344E+0	2.159690E+0	2.215898E+0	2.121453E+0	2.239705E+0	2.225719E+0	2.127435E+0	2.150209E+0	2.073542E+0	2.184796E+0	2.146359E+0	2.190468E+0	2.151875E+0	2.280201E+0	1.681031E+0
5.390080E+2	1.880465E+0	1.892570E+0	1.864798E+0	1.869814E+0	1.823265E+0	1.862371E+0	1.911372E+0	1.735038E+0	1.863051E+0	1.747353E+0	1.921125E+0	1.897221E+0	1.840158E+0	1.718487E+0	1.825193E+0	1.871157E+0	1.911391E+0	1.814665E+0	1.761614E+0	1.737921E+0	1.737338E+0	1.819961E+0	1.832396E+0	1.910094E+0	1.908244E+0	1.875024E+0	1.800927E+0	1.858208E+0	1.777036E+0	1.790709E+0	1.865055E+0	1.762526E+0	1.844165E+0	1.832175E+0	1.813311E+0	1.744284E+0	1.821730E+0	1.912465E+0	1.786222E+0	1.778398E+0	1.841920E+0	1.893998E+0	1.775308E+0	1.891340E+0	1.792960E+0	1.785161E+0	1.848920E+0	1.819244E+0	1.907935E+0	1.822918E+0	1.821678E+0	1.774493E+0	1.894653E+0	1.849605E+0	1.837853E+0	1.871430E+0	1.884517E+0	1.940899E+0	1.871333E+0	1.810406E+0	1.857470E+0	1.754038E+0	1.954226E+0	1.817667E+0	1.819419E+0	1.787154E+0	1.835757E+0	1.869267E+0	1.748923E+0	1.768736E+0	1.790435E+0	1.727046E+0	1.776493E+0	1.861102E+0	1.816712E+0	1.782927E+0	1.920715E+0	1.741879E+0	1.849232E+0	1.831320E+0	1.819625E+0	1.770533E+0	1.852420E+0	1.889800E+0	1.806321E+0	1.827817E+0	1.819934E+0	1.740805E+0	1.790456E+0	1.715810E+0	1.758584E+0	1.825635E+0	1.845823E+0	1.805757E+0	1.812872E+0	1.803339E+0	1.819414E+0	1.715959E+0	1.894682E+0	1.803523E+0	1.854250E+0	1.820050E+0	1.857512E+0	1.837372E+0	1.832058E+0	1.820719E+0	1.902958E+0	1.889241E+0	1.791125E+0	1.924449E+0	1.838515E+0	1.791341E+0	1.807548E+0	1.781567E+0	1.832663E+0	1.722677E+0	1.781790E+0	1.754633E+0	1.885825E+0	1.774481E+0	1.843453E+0	1.844783E+0	1.699964E+0	1.750560E+0	1.844393E+0	1.794604E+0	1.762142E+0	1.856813E+0	1.795119E+0	1.843712E+0	1.769534E+0	1.881273E+0	1.797302E+0	1.843749E+0	1.795950E+0	1.682448E+0	1.737074E+0	1.805290E+0	1.727084E+0	1.849184E+0	1.731283E+0	1.816702E+0	1.830467E+0	1.805129E+0	1.800220E+0	1.696377E+0	1.831675E+0	1.773927E+0	1.909675E+0	1.809165E+0	1.842537E+0	1.803012E+0	1.930114E+0	1.708864E+0	1.932720E+0	1.911611E+0	1.727611E+0	1.774190E+0	1.840543E+0	1.890203E+0	1.769094E+0	1.778115E+0	1.765194E+0	1.804856E+0	1.694798E+0
5.392030E+2	1.505404E+0	1.356465E+0	1.405309E+0	1.456643E+0	1.465992E+0	1.441340E+0	1.404444E+0	1.419856E+0	1.514183E+0	1.458613E+0	1.504503E+0	1.431855E+0	1.458071E+0	1.423341E+0	1.405248E+0	1.446061E+0	1.491333E+0	1.442054E+0	1.449113E+0	1.421428E+0	1.464357E+0	1.404643E+0	1.502817E+0	1.478389E+0	1.433755E+0	1.377942E+0	1.455497E+0	1.393762E+0	1.382113E+0	1.378952E+0	1.476225E+0	1.477992E+0	1.435133E+0	1.393783E+0	1.387034E+0	1.472155E+0	1.383938E+0	1.347798E+0	1.418387E+0	1.417829E+0	1.417853E+0	1.424166E+0	1.403089E+0	1.472738E+0	1.446692E+0	1.453937E+0	1.432445E+0	1.336130E+0	1.473686E+0	1.468712E+0	1.452556E+0	1.417718E+0	1.472953E+0	1.409438E+0	1.392154E+0	1.395932E+0	1.472031E+0	1.573410E+0	1.417329E+0	1.459043E+0	1.422009E+0	1.404116E+0	1.396916E+0	1.422491E+0	1.549362E+0	1.381427E+0	1.306792E+0	1.408191E+0	1.344508E+0	1.438093E+0	1.372973E+0	1.375718E+0	1.360583E+0	1.424504E+0	1.440050E+0	1.371576E+0	1.420671E+0	1.451804E+0	1.440763E+0	1.502386E+0	1.438833E+0	1.431712E+0	1.356115E+0	1.378831E+0	1.400535E+0	1.450555E+0	1.430423E+0	1.435218E+0	1.423559E+0	1.386526E+0	1.370883E+0	1.440695E+0	1.369835E+0	1.475364E+0	1.436836E+0	1.511165E+0	1.361483E+0	1.450707E+0	1.418797E+0	1.473921E+0	1.477988E+0	1.406690E+0	1.448386E+0	1.415404E+0	1.412278E+0	1.332864E+0	1.442281E+0	1.493715E+0	1.436317E+0	1.557345E+0	1.451255E+0	1.484961E+0	1.394495E+0	1.413618E+0	1.446358E+0	1.483088E+0	1.432624E+0	1.427052E+0	1.440287E+0	1.410805E+0	1.437991E+0	1.403625E+0	1.442053E+0	1.498432E+0	1.447272E+0	1.414285E+0	1.393758E+0	1.372517E+0	1.381232E+0	1.426159E+0	1.423719E+0	1.457552E+0	1.378267E+0	1.399452E+0	1.467820E+0	1.431525E+0	1.327982E+0	1.491340E+0	1.488760E+0	1.420990E+0	1.385967E+0	1.453993E+0	1.464239E+0	1.492328E+0	1.421477E+0	1.449899E+0	1.399418E+0	1.376293E+0	1.438608E+0	1.399432E+0	1.387014E+0	1.342917E+0	1.386208E+0	1.415934E+0	1.450902E+0	1.411903E+0	1.401580E+0	1.439858E+0	1.433158E+0	1.439238E+0	1.420439E+0	1.381187E+0	1.314672E+0	1.523153E+0	1.374418E+0
5.394100E+2	9.987244E-1	1.007337E+0	1.012997E+0	1.014675E+0	9.973763E-1	1.094435E+0	9.368515E-1	1.003335E+0	9.726869E-1	9.560698E-1	9.946663E-1	1.030860E+0	1.031363E+0	1.015482E+0	9.783901E-1	9.904967E-1	1.038303E+0	9.934292E-1	1.019165E+0	9.167310E-1	9.903124E-1	1.053185E+0	1.044672E+0	1.065401E+0	9.655735E-1	9.887165E-1	1.027510E+0	1.077500E+0	1.068187E+0	9.771773E-1	1.039526E+0	9.967917E-1	9.907127E-1	1.030198E+0	9.926753E-1	9.984327E-1	1.062265E+0	1.010389E+0	1.098655E+0	9.509005E-1	9.776082E-1	9.479531E-1	1.034571E+0	1.024288E+0	9.959458E-1	1.011769E+0	1.054150E+0	9.737564E-1	1.009026E+0	9.823950E-1	9.786665E-1	1.017212E+0	9.875908E-1	1.053148E+0	1.009027E+0	1.043269E+0	1.017859E+0	9.764171E-1	1.034750E+0	9.787882E-1	1.077046E+0	1.066532E+0	9.554863E-1	1.047230E+0	1.023361E+0	1.034610E+0	9.887717E-1	1.030715E+0	1.012658E+0	9.885864E-1	1.051207E+0	1.068595E+0	1.011847E+0	1.043067E+0	1.045501E+0	9.776799E-1	1.048250E+0	9.720895E-1	9.876330E-1	1.040418E+0	9.942586E-1	9.762941E-1	1.068137E+0	9.779134E-1	9.654770E-1	9.701438E-1	9.571924E-1	1.004650E+0	9.606838E-1	9.769970E-1	9.648755E-1	9.870256E-1	9.424063E-1	9.759664E-1	1.060177E+0	1.021489E+0	1.070324E+0	1.032531E+0	9.507305E-1	1.015459E+0	9.892528E-1	1.024247E+0	9.916117E-1	1.027260E+0	1.001616E+0	1.065950E+0	1.023078E+0	1.014873E+0	1.017990E+0	1.033628E+0	9.911736E-1	1.047602E+0	1.035811E+0	1.052556E+0	1.074906E+0	1.014370E+0	1.065462E+0	9.968266E-1	1.044977E+0	1.096245E+0	1.016952E+0	9.627650E-1	9.907373E-1	1.031577E+0	1.023584E+0	1.095017E+0	1.023207E+0	1.048036E+0	1.007961E+0	1.027339E+0	9.888967E-1	1.063606E+0	9.672896E-1	1.037403E+0	9.985858E-1	1.022661E+0	1.040443E+0	1.003605E+0	1.038662E+0	1.043581E+0	9.629179E-1	9.804710E-1	9.899896E-1	1.013678E+0	1.007044E+0	9.306007E-1	1.007561E+0	9.959373E-1	1.042693E+0	1.007361E+0	1.052246E+0	1.060608E+0	1.069065E+0	9.731164E-1	1.011886E+0	1.154954E+0	1.000829E+0	1.006651E+0	1.096745E+0	1.055224E+0	9.833718E-1	9.762424E-1	1.020635E+0	1.051870E+0	1.008560E+0
5.396110E+2	9.289556E-1	8.692320E-1	8.543559E-1	9.121078E-1	8.723826E-1	8.962197E-1	9.171616E-1	9.326686E-1	9.132440E-1	8.716708E-1	9.311415E-1	9.084593E-1	8.898194E-1	8.341076E-1	8.947043E-1	8.877165E-1	9.144144E-1	8.923803E-1	9.250574E-1	9.001996E-1	9.012174E-1	9.611620E-1	8.643629E-1	1.002135E+0	9.179426E-1	9.478654E-1	8.760298E-1	9.563211E-1	9.506990E-1	8.717732E-1	8.733721E-1	9.064191E-1	8.843824E-1	8.894306E-1	8.572918E-1	8.598938E-1	9.237134E-1	8.854707E-1	8.716459E-1	9.305783E-1	9.399989E-1	8.879133E-1	8.620357E-1	9.097607E-1	9.010610E-1	9.082664E-1	9.455301E-1	9.548779E-1	9.122393E-1	9.515281E-1	9.259010E-1	9.182471E-1	9.037770E-1	8.757282E-1	8.998686E-1	9.443224E-1	9.424160E-1	9.391003E-1	8.268803E-1	8.785383E-1	8.694304E-1	9.218632E-1	8.843994E-1	8.782055E-1	9.323541E-1	8.888396E-1	9.153066E-1	8.589975E-1	1.000152E+0	9.302440E-1	9.011177E-1	9.149737E-1	8.896416E-1	9.549268E-1	9.352764E-1	9.676010E-1	9.406217E-1	9.325785E-1	9.292303E-1	8.856051E-1	9.307813E-1	8.898349E-1	8.026462E-1	9.331191E-1	8.688532E-1	9.640289E-1	9.333484E-1	9.266202E-1	9.558406E-1	9.718773E-1	8.985293E-1	9.469467E-1	9.705353E-1	9.238867E-1	9.030219E-1	8.794803E-1	9.055854E-1	9.405898E-1	8.633599E-1	8.685519E-1	8.964774E-1	9.521106E-1	8.914464E-1	8.747972E-1	9.598146E-1	9.190544E-1	8.695280E-1	9.391112E-1	9.069853E-1	9.698276E-1	9.626025E-1	9.289294E-1	9.245811E-1	8.582367E-1	8.932046E-1	8.938422E-1	9.271608E-1	9.595292E-1	9.333197E-1	8.905435E-1	9.346246E-1	8.448187E-1	8.798150E-1	9.418709E-1	9.024425E-1	9.557861E-1	8.984953E-1	9.355975E-1	9.529657E-1	8.995378E-1	9.345258E-1	9.153306E-1	9.123108E-1	9.056258E-1	8.320540E-1	9.453156E-1	9.349634E-1	9.489306E-1	9.119687E-1	9.495424E-1	9.586767E-1	9.084417E-1	8.462954E-1	9.051105E-1	9.262235E-1	8.775772E-1	9.260429E-1	9.077357E-1	9.227637E-1	9.356375E-1	9.480163E-1	8.442522E-1	9.587625E-1	1.000359E+0	9.392734E-1	9.549553E-1	9.067594E-1	8.744785E-1	9.094811E-1	9.412499E-1	9.033348E-1	9.244088E-1	1.036196E+0	9.816452E-1	7.822336E-1
5.398120E+2	9.100961E-1	9.616002E-1	9.513317E-1	8.889213E-1	9.409425E-1	9.427743E-1	9.641014E-1	9.741123E-1	9.382371E-1	9.053559E-1	9.279607E-1	1.015364E+0	9.462198E-1	8.961908E-1	9.889322E-1	8.983328E-1	1.002831E+0	9.700482E-1	9.563751E-1	8.982895E-1	9.437295E-1	1.002770E+0	9.614306E-1	9.872544E-1	9.783301E-1	9.325231E-1	9.117390E-1	9.758158E-1	9.938727E-1	1.000059E+0	9.700809E-1	9.537079E-1	9.386217E-1	9.239909E-1	8.854943E-1	9.595535E-1	1.013496E+0	9.840118E-1	9.780737E-1	9.847896E-1	9.905446E-1	8.964935E-1	9.236363E-1	1.012856E+0	9.017006E-1	9.411581E-1	9.761028E-1	9.259388E-1	9.139250E-1	9.574268E-1	8.966995E-1	9.448108E-1	9.791118E-1	9.955981E-1	9.570531E-1	1.017599E+0	1.015237E+0	9.659202E-1	9.360361E-1	9.749767E-1	9.240752E-1	9.726539E-1	9.578568E-1	9.985432E-1	9.529011E-1	9.916488E-1	9.442561E-1	9.554595E-1	9.243492E-1	9.024140E-1	9.922909E-1	9.683118E-1	9.145645E-1	1.001521E+0	8.999121E-1	9.814051E-1	9.691443E-1	9.343934E-1	9.483005E-1	9.826571E-1	9.422166E-1	1.001786E+0	9.211421E-1	9.726682E-1	9.643052E-1	8.873323E-1	8.892184E-1	9.751212E-1	9.863282E-1	9.958827E-1	9.232552E-1	9.708407E-1	9.896716E-1	1.007012E+0	9.244770E-1	9.650277E-1	8.987411E-1	9.280560E-1	9.423850E-1	9.308928E-1	9.847165E-1	1.010991E+0	9.968461E-1	9.394808E-1	9.321010E-1	9.722267E-1	1.003838E+0	9.076096E-1	9.283290E-1	9.609469E-1	9.119391E-1	9.853193E-1	1.004869E+0	9.692177E-1	9.327077E-1	9.413289E-1	9.568402E-1	9.653980E-1	9.564625E-1	9.206011E-1	9.987381E-1	9.453131E-1	9.332442E-1	9.797415E-1	1.038211E+0	8.916144E-1	9.940533E-1	9.974035E-1	1.005014E+0	9.343452E-1	1.021631E+0	1.003564E+0	9.575840E-1	1.023833E+0	9.502866E-1	9.446485E-1	9.322108E-1	9.749489E-1	9.301900E-1	9.605617E-1	9.576157E-1	9.461986E-1	9.712011E-1	9.312618E-1	9.659867E-1	9.499077E-1	8.770884E-1	9.188200E-1	9.609737E-1	9.497272E-1	9.036037E-1	1.017169E+0	1.027805E+0	9.380718E-1	9.508745E-1	1.044055E+0	1.000517E+0	1.022458E+0	9.744899E-1	9.949372E-1	9.013252E-1	9.574113E-1	9.595217E-1	1.041931E+0	8.025538E-1
5.400460E+2	1.014130E+0	1.030384E+0	1.074134E+0	1.081710E+0	1.116955E+0	1.043920E+0	1.019014E+0	1.060499E+0	1.008320E+0	1.015512E+0	1.024811E+0	9.871781E-1	1.005623E+0	1.016433E+0	1.084425E+0	1.066358E+0	1.073851E+0	1.044830E+0	1.006195E+0	9.719744E-1	1.033962E+0	1.019978E+0	1.028228E+0	1.094094E+0	1.090492E+0	9.968025E-1	1.040443E+0	1.028872E+0	1.022631E+0	1.014117E+0	1.031317E+0	1.004000E+0	1.032421E+0	9.845770E-1	1.073829E+0	1.023122E+0	1.044253E+0	1.070018E+0	1.023439E+0	1.030811E+0	1.015254E+0	1.008814E+0	1.050294E+0	1.096849E+0	1.015655E+0	1.048852E+0	9.565865E-1	1.068058E+0	1.062455E+0	9.743392E-1	1.023868E+0	1.085204E+0	1.091246E+0	1.043380E+0	9.978153E-1	1.068121E+0	1.032133E+0	1.059532E+0	1.014282E+0	1.122335E+0	1.008987E+0	1.058649E+0	1.037297E+0	9.790363E-1	1.108462E+0	9.966130E-1	9.849154E-1	1.049277E+0	1.056726E+0	1.067735E+0	1.005913E+0	9.895892E-1	9.665935E-1	1.073474E+0	9.870070E-1	1.018797E+0	1.063698E+0	1.155839E+0	1.058087E+0	1.018783E+0	1.014009E+0	9.697653E-1	1.027415E+0	9.708780E-1	1.069221E+0	1.009038E+0	1.056706E+0	1.029133E+0	9.617395E-1	1.025735E+0	1.024714E+0	1.065065E+0	1.012296E+0	1.155219E+0	1.011033E+0	1.062967E+0	9.868648E-1	1.078375E+0	1.050109E+0	1.001281E+0	9.783846E-1	1.052303E+0	9.872161E-1	1.012511E+0	9.660442E-1	1.023501E+0	1.069709E+0	1.017519E+0	1.013446E+0	1.079329E+0	1.008849E+0	1.055297E+0	1.028729E+0	9.487434E-1	9.800671E-1	1.044612E+0	1.051638E+0	1.035673E+0	1.060910E+0	1.063110E+0	1.078112E+0	1.042813E+0	1.009976E+0	1.037604E+0	1.063737E+0	1.086810E+0	1.029361E+0	9.907689E-1	1.048930E+0	1.082916E+0	1.056165E+0	1.053975E+0	1.048684E+0	1.042091E+0	1.022499E+0	1.082906E+0	1.059466E+0	1.043622E+0	1.066950E+0	1.108296E+0	1.001369E+0	1.067724E+0	1.028213E+0	1.007562E+0	1.052941E+0	9.682703E-1	1.022533E+0	1.018584E+0	1.088037E+0	1.029081E+0	9.840881E-1	1.054948E+0	1.089219E+0	9.344303E-1	1.021085E+0	1.107626E+0	1.053640E+0	1.067607E+0	1.000006E+0	1.025010E+0	1.020638E+0	1.127376E+0	9.712648E-1	1.059098E+0	1.010729E+0
5.402160E+2	7.314992E-1	7.920565E-1	7.648565E-1	7.562787E-1	7.696194E-1	7.401932E-1	7.764841E-1	7.326363E-1	7.321779E-1	7.517174E-1	8.180562E-1	7.472792E-1	7.862573E-1	7.337684E-1	7.393408E-1	7.662290E-1	7.899298E-1	7.940580E-1	7.889980E-1	7.416783E-1	7.796951E-1	7.537238E-1	7.932714E-1	7.312629E-1	7.861381E-1	7.410414E-1	7.482498E-1	8.379891E-1	7.968043E-1	7.681432E-1	8.107114E-1	6.939814E-1	7.867453E-1	7.578790E-1	8.064162E-1	7.452609E-1	7.624594E-1	7.136881E-1	7.415461E-1	7.112902E-1	7.197152E-1	7.561345E-1	7.278834E-1	8.060770E-1	7.795256E-1	7.890175E-1	7.395202E-1	7.962231E-1	7.330731E-1	7.608339E-1	7.412333E-1	7.813376E-1	7.710359E-1	7.478207E-1	7.410334E-1	7.684766E-1	8.012916E-1	7.339580E-1	7.687040E-1	7.767460E-1	7.476398E-1	7.930276E-1	7.675926E-1	7.323174E-1	7.817097E-1	8.003338E-1	7.621483E-1	7.911936E-1	8.186795E-1	8.227767E-1	7.865312E-1	7.789681E-1	7.514203E-1	7.954323E-1	7.622849E-1	7.733526E-1	7.216721E-1	7.418991E-1	7.171106E-1	7.150574E-1	7.540755E-1	7.292817E-1	7.621131E-1	7.354847E-1	7.329906E-1	7.712242E-1	7.349626E-1	7.150445E-1	7.898038E-1	7.372817E-1	7.282147E-1	7.613733E-1	7.271839E-1	7.714061E-1	7.975675E-1	7.555707E-1	7.829545E-1	7.359575E-1	7.632344E-1	7.329413E-1	7.654206E-1	7.506699E-1	7.473978E-1	7.864995E-1	7.609040E-1	7.759201E-1	7.804086E-1	7.913853E-1	6.982154E-1	8.035645E-1	7.016040E-1	7.322824E-1	7.500840E-1	7.627809E-1	8.160071E-1	7.034362E-1	7.641284E-1	7.804658E-1	7.971368E-1	7.872659E-1	7.854508E-1	7.525044E-1	7.398577E-1	7.646050E-1	8.093253E-1	7.361226E-1	7.270163E-1	7.913199E-1	7.505539E-1	7.706882E-1	7.742246E-1	7.222438E-1	7.428032E-1	7.469278E-1	7.427579E-1	7.156095E-1	7.187673E-1	7.438214E-1	7.705212E-1	8.064784E-1	7.319699E-1	7.062534E-1	7.327726E-1	8.166040E-1	7.586519E-1	7.274224E-1	7.354677E-1	7.490259E-1	7.752869E-1	8.030286E-1	7.036307E-1	7.724694E-1	7.633869E-1	7.324645E-1	8.340824E-1	7.981004E-1	7.292264E-1	7.416463E-1	7.349398E-1	7.887336E-1	7.291773E-1	7.152533E-1	7.322729E-1	7.732501E-1	7.197752E-1
5.404070E+2	5.462100E-1	5.167253E-1	5.337937E-1	5.143043E-1	5.288849E-1	5.195326E-1	5.317375E-1	5.599725E-1	5.707427E-1	5.504641E-1	5.044823E-1	5.391505E-1	4.867601E-1	5.034047E-1	5.914856E-1	5.056462E-1	5.390609E-1	5.723195E-1	5.104994E-1	5.212034E-1	5.289552E-1	5.009750E-1	5.786000E-1	5.556572E-1	5.500491E-1	5.061507E-1	5.147845E-1	5.363455E-1	5.225111E-1	5.715756E-1	5.141086E-1	5.228442E-1	5.828260E-1	5.291972E-1	5.319060E-1	5.535772E-1	5.103826E-1	5.511601E-1	5.531980E-1	5.156296E-1	5.465794E-1	5.577514E-1	5.249742E-1	5.415951E-1	5.068353E-1	5.228581E-1	5.494202E-1	5.230269E-1	5.788381E-1	5.797631E-1	5.604984E-1	5.474806E-1	5.531704E-1	5.534053E-1	5.828427E-1	5.428135E-1	5.629229E-1	5.268373E-1	5.401067E-1	5.473005E-1	5.630062E-1	5.670149E-1	5.469779E-1	5.253468E-1	5.823345E-1	5.497033E-1	5.517112E-1	4.976486E-1	5.005358E-1	5.017807E-1	5.448443E-1	5.606452E-1	5.243938E-1	5.859504E-1	5.297348E-1	5.217420E-1	6.056023E-1	5.532808E-1	5.290208E-1	5.608957E-1	5.212349E-1	5.635001E-1	5.518130E-1	5.589075E-1	5.672279E-1	6.065985E-1	5.389706E-1	5.467284E-1	5.290082E-1	5.140841E-1	5.560170E-1	5.518616E-1	5.565199E-1	5.333594E-1	5.888604E-1	5.621044E-1	5.445823E-1	5.811708E-1	5.078909E-1	5.393512E-1	5.265323E-1	5.576290E-1	5.852577E-1	5.812218E-1	5.301070E-1	5.165965E-1	5.295699E-1	5.347194E-1	5.721224E-1	5.352412E-1	5.394466E-1	5.695256E-1	5.551488E-1	5.322155E-1	5.282061E-1	4.621101E-1	5.334013E-1	5.463126E-1	5.298383E-1	5.329475E-1	5.282277E-1	5.305603E-1	5.296796E-1	5.243037E-1	5.282382E-1	5.576674E-1	5.369700E-1	5.557208E-1	5.532574E-1	5.554305E-1	5.323683E-1	5.414526E-1	5.439628E-1	5.734741E-1	5.221590E-1	5.549431E-1	5.368512E-1	5.688501E-1	5.476910E-1	5.696758E-1	5.401512E-1	5.773969E-1	5.266902E-1	5.404667E-1	5.148958E-1	5.223973E-1	5.635063E-1	5.407166E-1	4.799023E-1	5.483943E-1	5.154682E-1	5.394920E-1	5.482526E-1	5.244319E-1	5.851688E-1	5.459468E-1	5.788750E-1	5.602706E-1	5.645554E-1	5.676327E-1	5.694460E-1	5.077851E-1	5.425110E-1	6.223714E-1	5.880917E-1
5.406030E+2	3.600351E-1	3.161178E-1	3.537345E-1	4.118679E-1	3.599734E-1	3.060089E-1	3.200659E-1	3.839751E-1	3.551529E-1	3.571070E-1	3.545761E-1	4.085782E-1	3.563684E-1	3.510552E-1	3.606807E-1	3.628159E-1	3.595382E-1	3.434922E-1	3.767425E-1	3.617747E-1	3.496074E-1	3.936351E-1	3.497359E-1	3.615560E-1	3.993161E-1	3.455878E-1	3.376051E-1	3.621177E-1	3.203820E-1	3.727477E-1	3.523776E-1	3.958383E-1	3.767352E-1	3.498780E-1	3.655123E-1	3.705236E-1	3.606549E-1	3.836727E-1	3.667190E-1	3.871820E-1	4.113368E-1	3.581690E-1	3.636275E-1	3.832503E-1	3.716210E-1	3.337894E-1	3.766520E-1	3.347656E-1	3.656643E-1	3.538256E-1	3.570370E-1	3.541905E-1	3.835450E-1	3.551765E-1	3.707863E-1	3.972947E-1	3.940029E-1	3.813428E-1	3.627703E-1	3.625381E-1	3.885557E-1	3.766619E-1	3.542375E-1	3.877769E-1	3.741669E-1	3.912786E-1	3.813887E-1	3.504366E-1	3.472645E-1	3.890741E-1	3.846591E-1	3.390608E-1	3.698567E-1	3.542193E-1	3.842387E-1	3.834413E-1	3.774303E-1	3.252627E-1	3.728308E-1	4.018703E-1	3.802573E-1	3.587931E-1	3.511008E-1	3.585440E-1	3.894830E-1	3.639217E-1	3.735014E-1	3.579957E-1	3.694091E-1	3.481415E-1	3.717126E-1	3.373408E-1	3.633041E-1	4.150588E-1	4.056026E-1	4.305500E-1	3.782635E-1	4.057946E-1	3.965450E-1	4.025199E-1	3.731673E-1	3.852020E-1	3.643985E-1	4.005930E-1	3.745769E-1	3.850121E-1	3.332401E-1	3.775883E-1	3.687516E-1	3.892478E-1	3.422108E-1	3.818419E-1	4.061732E-1	3.775524E-1	3.317247E-1	4.098724E-1	4.151734E-1	3.343737E-1	3.326895E-1	3.547158E-1	3.926377E-1	3.355779E-1	3.336802E-1	3.873068E-1	3.344273E-1	3.840771E-1	3.751077E-1	3.391769E-1	3.966017E-1	3.657092E-1	3.216734E-1	3.843968E-1	3.664942E-1	3.927445E-1	3.642767E-1	3.700318E-1	3.415276E-1	2.786560E-1	4.080587E-1	3.504252E-1	3.285580E-1	3.623715E-1	3.531598E-1	3.377093E-1	3.113202E-1	3.907872E-1	3.273355E-1	4.009375E-1	3.701134E-1	3.553175E-1	3.436001E-1	3.700489E-1	3.838030E-1	3.641547E-1	3.390849E-1	4.015216E-1	3.647950E-1	3.533199E-1	3.423177E-1	4.100019E-1	3.627943E-1	3.490096E-1	3.356208E-1	4.042017E-1	3.125719E-1
5.408060E+2	3.821871E-1	4.096660E-1	4.183714E-1	4.069928E-1	4.562920E-1	3.695017E-1	3.935924E-1	3.607492E-1	3.846773E-1	3.716417E-1	3.896648E-1	3.953633E-1	4.237967E-1	3.479016E-1	3.276222E-1	3.800946E-1	3.812594E-1	3.764427E-1	3.933582E-1	3.948109E-1	4.211846E-1	4.100338E-1	4.171142E-1	3.899558E-1	3.963482E-1	4.005648E-1	3.754192E-1	3.526910E-1	3.952600E-1	3.655976E-1	3.929659E-1	4.112476E-1	3.461464E-1	4.205730E-1	3.624639E-1	3.365559E-1	4.313032E-1	4.053397E-1	3.961784E-1	4.053948E-1	4.290516E-1	4.080564E-1	3.811768E-1	3.634568E-1	3.924773E-1	3.947556E-1	3.881695E-1	3.734564E-1	3.738259E-1	3.634139E-1	4.244765E-1	3.929062E-1	3.897869E-1	3.847124E-1	4.171178E-1	4.009098E-1	4.156291E-1	3.785782E-1	4.074339E-1	3.808114E-1	3.969588E-1	3.753219E-1	3.630990E-1	4.416440E-1	4.142796E-1	4.137742E-1	3.512407E-1	4.396449E-1	4.369237E-1	3.884619E-1	3.606907E-1	3.261903E-1	4.122835E-1	3.976720E-1	4.479529E-1	4.056205E-1	4.106852E-1	3.773970E-1	3.893507E-1	4.162673E-1	3.821247E-1	3.961896E-1	3.829155E-1	3.944894E-1	4.006959E-1	4.019307E-1	3.893355E-1	3.865800E-1	4.100351E-1	4.218597E-1	4.133144E-1	4.022290E-1	4.119052E-1	3.342852E-1	4.209354E-1	4.011016E-1	4.089867E-1	4.051166E-1	4.350717E-1	4.207251E-1	3.946305E-1	3.845110E-1	3.566148E-1	3.560294E-1	4.180694E-1	3.673568E-1	3.746475E-1	4.027817E-1	3.964290E-1	3.967078E-1	3.830021E-1	4.301536E-1	4.536867E-1	4.260339E-1	4.356530E-1	3.884442E-1	4.284679E-1	3.932052E-1	4.017142E-1	3.970301E-1	4.456641E-1	3.756993E-1	3.761247E-1	3.681586E-1	4.650578E-1	3.875155E-1	3.623478E-1	4.231386E-1	4.002234E-1	3.960439E-1	4.413841E-1	3.822483E-1	3.551130E-1	4.140976E-1	4.128652E-1	4.320371E-1	3.700760E-1	3.838235E-1	4.095855E-1	4.029984E-1	4.165641E-1	4.333206E-1	3.924885E-1	3.951033E-1	3.989577E-1	3.704973E-1	4.016085E-1	4.291559E-1	4.452611E-1	3.843047E-1	4.156628E-1	4.065888E-1	4.442161E-1	3.992930E-1	3.659581E-1	4.262555E-1	3.733826E-1	3.884908E-1	3.603455E-1	4.092995E-1	3.762253E-1	3.474085E-1	4.197401E-1	4.763741E-1	4.310275E-1
5.410190E+2	4.691741E-1	4.835645E-1	4.708482E-1	5.053692E-1	4.393180E-1	4.686491E-1	4.424271E-1	4.482906E-1	4.339956E-1	4.148391E-1	4.956665E-1	4.806179E-1	4.701772E-1	4.574676E-1	4.277323E-1	4.760713E-1	4.417571E-1	4.796109E-1	4.696844E-1	4.634119E-1	4.731602E-1	4.866598E-1	4.516164E-1	4.920635E-1	4.998404E-1	4.698565E-1	4.926161E-1	4.848537E-1	4.680452E-1	4.649655E-1	4.890688E-1	5.109337E-1	4.735310E-1	5.064673E-1	4.827554E-1	4.779059E-1	4.860815E-1	5.233483E-1	4.972683E-1	5.099029E-1	5.140792E-1	4.973021E-1	4.655857E-1	5.059565E-1	4.913882E-1	5.255334E-1	5.185242E-1	4.337341E-1	5.123397E-1	5.098810E-1	4.649094E-1	4.473455E-1	5.008739E-1	4.728301E-1	4.682254E-1	4.946751E-1	4.892882E-1	5.164822E-1	4.788959E-1	4.609025E-1	4.766912E-1	4.790530E-1	4.614229E-1	4.546437E-1	4.921581E-1	5.125724E-1	4.629247E-1	5.385418E-1	4.527270E-1	4.726187E-1	4.990258E-1	4.850578E-1	4.872473E-1	5.249841E-1	4.997114E-1	4.676956E-1	5.013662E-1	4.843677E-1	4.286506E-1	4.703285E-1	4.742883E-1	4.612885E-1	4.501629E-1	5.122403E-1	4.699635E-1	5.240200E-1	4.737782E-1	5.126774E-1	4.902207E-1	5.102322E-1	4.347373E-1	5.139878E-1	5.318940E-1	4.545359E-1	5.071125E-1	4.862596E-1	4.975821E-1	5.237486E-1	4.197848E-1	4.963993E-1	5.051750E-1	4.546639E-1	4.652991E-1	4.724726E-1	4.761592E-1	4.543810E-1	5.033917E-1	4.967755E-1	4.619735E-1	4.777168E-1	4.681185E-1	5.323906E-1	5.303944E-1	4.488129E-1	4.206764E-1	4.642535E-1	4.964355E-1	5.173637E-1	4.712625E-1	4.829933E-1	5.032834E-1	5.130736E-1	4.550322E-1	5.007640E-1	5.094645E-1	5.137961E-1	4.655104E-1	4.914767E-1	4.922577E-1	4.639147E-1	4.583616E-1	5.113908E-1	4.607284E-1	5.201764E-1	4.587267E-1	5.200287E-1	4.933835E-1	5.496334E-1	4.705833E-1	5.263040E-1	4.370724E-1	5.078174E-1	4.579946E-1	4.952408E-1	4.764726E-1	4.915519E-1	4.858228E-1	5.065058E-1	5.018310E-1	5.197670E-1	5.189607E-1	4.883885E-1	5.508460E-1	4.930817E-1	4.654920E-1	4.640296E-1	4.752219E-1	4.812794E-1	4.692795E-1	5.140552E-1	5.262860E-1	5.041922E-1	5.504911E-1	5.615853E-1	4.507314E-1
5.415090E+2	6.461907E-1	5.779325E-1	6.174182E-1	6.251235E-1	5.938353E-1	6.002744E-1	6.107691E-1	6.098604E-1	5.798734E-1	5.790631E-1	6.132099E-1	6.052789E-1	5.807618E-1	5.998409E-1	5.880259E-1	5.884328E-1	6.328323E-1	6.364252E-1	5.633696E-1	6.406156E-1	6.160783E-1	6.738016E-1	6.279751E-1	6.377674E-1	6.355136E-1	6.594993E-1	5.945619E-1	5.757171E-1	5.981102E-1	6.361870E-1	6.450753E-1	6.666070E-1	6.534991E-1	6.194269E-1	5.930722E-1	6.432574E-1	6.175201E-1	6.430120E-1	6.682829E-1	6.596697E-1	6.616681E-1	6.274117E-1	5.625206E-1	6.040280E-1	6.325862E-1	6.097011E-1	6.212317E-1	6.003150E-1	6.958183E-1	6.112830E-1	6.440361E-1	6.850917E-1	6.260693E-1	5.660651E-1	6.142038E-1	5.850839E-1	6.074163E-1	6.272704E-1	5.679041E-1	5.519606E-1	6.060897E-1	5.853311E-1	6.197375E-1	5.581548E-1	6.655356E-1	6.638021E-1	5.805541E-1	6.133813E-1	5.904179E-1	6.061161E-1	5.701007E-1	6.050201E-1	6.167509E-1	6.772375E-1	6.239154E-1	5.838608E-1	6.014407E-1	6.435849E-1	6.252091E-1	6.049683E-1	6.530551E-1	5.970715E-1	6.181482E-1	6.046460E-1	5.942175E-1	6.358524E-1	6.024599E-1	6.319108E-1	6.875054E-1	7.132088E-1	6.685945E-1	5.987843E-1	5.910041E-1	6.178748E-1	6.263549E-1	6.401402E-1	5.973917E-1	6.229154E-1	5.710324E-1	5.726332E-1	6.281885E-1	6.030886E-1	5.948926E-1	6.421635E-1	6.495201E-1	6.865876E-1	6.645327E-1	5.954587E-1	5.941369E-1	5.865833E-1	6.267685E-1	6.278290E-1	6.632903E-1	6.182937E-1	5.808323E-1	6.437815E-1	6.621102E-1	6.227272E-1	6.436585E-1	6.145716E-1	6.238666E-1	6.164256E-1	5.687018E-1	6.226967E-1	6.277156E-1	5.868291E-1	5.908229E-1	6.297276E-1	6.233580E-1	6.250054E-1	6.329176E-1	5.884060E-1	6.107853E-1	6.396222E-1	6.251748E-1	5.837396E-1	6.038869E-1	6.055165E-1	6.409494E-1	6.208840E-1	5.947517E-1	6.030027E-1	6.780020E-1	6.031994E-1	5.923125E-1	6.020275E-1	6.227542E-1	6.242027E-1	6.129190E-1	6.109387E-1	5.982268E-1	6.573139E-1	6.149683E-1	5.586785E-1	6.906586E-1	6.652517E-1	6.540017E-1	5.797470E-1	5.714929E-1	6.305545E-1	5.995494E-1	6.084792E-1	6.009126E-1	7.307065E-1	5.429001E-1
5.420110E+2	6.587783E-1	6.613931E-1	6.793394E-1	6.738421E-1	6.213331E-1	6.186355E-1	6.878588E-1	6.432793E-1	6.661553E-1	5.942912E-1	6.452635E-1	5.938493E-1	6.507746E-1	6.618050E-1	6.922289E-1	6.724586E-1	6.433363E-1	6.394583E-1	6.339739E-1	6.912389E-1	6.766531E-1	6.927898E-1	6.604043E-1	6.624526E-1	6.364541E-1	6.024894E-1	6.482025E-1	7.206677E-1	6.482628E-1	6.749720E-1	6.491629E-1	7.017408E-1	6.774348E-1	6.112027E-1	6.387964E-1	7.024203E-1	7.128334E-1	6.240842E-1	6.645175E-1	6.249722E-1	6.528360E-1	6.242241E-1	6.518815E-1	6.651393E-1	6.717095E-1	6.034966E-1	6.665193E-1	6.270523E-1	6.808369E-1	6.996222E-1	6.555879E-1	7.179356E-1	6.504311E-1	6.631836E-1	6.439914E-1	6.679455E-1	6.757516E-1	6.441583E-1	7.047934E-1	6.557339E-1	6.100653E-1	6.762706E-1	6.657554E-1	6.134423E-1	6.819593E-1	6.407565E-1	6.292686E-1	6.945441E-1	7.596694E-1	6.512409E-1	6.288422E-1	6.385284E-1	6.873555E-1	6.262032E-1	6.380750E-1	6.135204E-1	6.925814E-1	7.184794E-1	6.348289E-1	6.908286E-1	6.519795E-1	6.529215E-1	6.867692E-1	6.782618E-1	6.266334E-1	6.888876E-1	6.636171E-1	6.424461E-1	7.148164E-1	6.660649E-1	6.584725E-1	6.610994E-1	6.703285E-1	6.675149E-1	6.454859E-1	6.971656E-1	6.513106E-1	7.046834E-1	6.358252E-1	6.491408E-1	6.424271E-1	6.655718E-1	6.440505E-1	7.239219E-1	6.014673E-1	6.166208E-1	6.144660E-1	6.996035E-1	6.574197E-1	6.857300E-1	6.546948E-1	6.830306E-1	6.776594E-1	7.238681E-1	6.768291E-1	7.167629E-1	6.697268E-1	6.176236E-1	6.192219E-1	6.652617E-1	7.152855E-1	7.297316E-1	6.661013E-1	7.435342E-1	6.109893E-1	6.491530E-1	6.399759E-1	6.466115E-1	6.330128E-1	6.501466E-1	6.373345E-1	6.900193E-1	6.822022E-1	6.345975E-1	6.194673E-1	6.317173E-1	7.004119E-1	6.785426E-1	6.823565E-1	6.152807E-1	6.496742E-1	6.937246E-1	6.556033E-1	6.903381E-1	6.610855E-1	6.180572E-1	7.267055E-1	5.938180E-1	6.496750E-1	6.760915E-1	6.741092E-1	6.848969E-1	6.445870E-1	6.318943E-1	5.946358E-1	6.443755E-1	6.681543E-1	6.264498E-1	6.180035E-1	6.974419E-1	6.801375E-1	7.215557E-1	6.524767E-1	7.160330E-1	6.392299E-1
5.425510E+2	7.974959E-1	7.792895E-1	7.339577E-1	7.952407E-1	8.020791E-1	7.517532E-1	8.175717E-1	8.191555E-1	7.744914E-1	7.689916E-1	7.355538E-1	8.160825E-1	7.394963E-1	7.452464E-1	7.755807E-1	7.072803E-1	7.338705E-1	6.949161E-1	7.397850E-1	8.115983E-1	7.145876E-1	7.546733E-1	7.649616E-1	7.950864E-1	7.481121E-1	7.880321E-1	7.706760E-1	8.007731E-1	7.874014E-1	7.361216E-1	7.686242E-1	8.039853E-1	8.054766E-1	6.878599E-1	8.064245E-1	7.574332E-1	7.557181E-1	7.392314E-1	7.877368E-1	7.126766E-1	7.792755E-1	7.227216E-1	7.585762E-1	7.846231E-1	7.715905E-1	7.666018E-1	7.876049E-1	7.176824E-1	8.072689E-1	7.683322E-1	7.302215E-1	8.153498E-1	7.301307E-1	7.599820E-1	7.551091E-1	7.387801E-1	7.642626E-1	7.574421E-1	7.560725E-1	8.143706E-1	7.854618E-1	8.174312E-1	7.391811E-1	7.890130E-1	7.795278E-1	7.605792E-1	7.976412E-1	8.268953E-1	8.297011E-1	7.620000E-1	7.176660E-1	7.375294E-1	7.819278E-1	8.657793E-1	7.312773E-1	7.281727E-1	7.823141E-1	7.265861E-1	7.553566E-1	8.124320E-1	8.009882E-1	7.617533E-1	7.976542E-1	7.505358E-1	8.215696E-1	7.659363E-1	7.560585E-1	7.431452E-1	7.828959E-1	7.653874E-1	6.912330E-1	7.381334E-1	7.555517E-1	7.734355E-1	7.772706E-1	7.324854E-1	7.707895E-1	7.673646E-1	7.644441E-1	7.290935E-1	7.832835E-1	8.566086E-1	7.874299E-1	7.982386E-1	8.374919E-1	7.711007E-1	7.418900E-1	7.637130E-1	7.756272E-1	7.673941E-1	7.531382E-1	7.523363E-1	7.592206E-1	7.456124E-1	7.821088E-1	7.945228E-1	8.033929E-1	8.026882E-1	7.060734E-1	7.970686E-1	8.188315E-1	8.437456E-1	7.901618E-1	8.259733E-1	7.893741E-1	7.622422E-1	7.499943E-1	8.149789E-1	8.000038E-1	7.925361E-1	7.944677E-1	7.904440E-1	8.052608E-1	7.674874E-1	7.798845E-1	7.184210E-1	7.740037E-1	7.180752E-1	7.611966E-1	7.815245E-1	8.117579E-1	7.797742E-1	7.445304E-1	7.804146E-1	7.671711E-1	7.335211E-1	7.804904E-1	7.234892E-1	7.459711E-1	7.185991E-1	7.613575E-1	7.380317E-1	7.621536E-1	7.043774E-1	7.729676E-1	7.775662E-1	7.853200E-1	7.723399E-1	8.012074E-1	8.038165E-1	8.114676E-1	7.808778E-1	7.244535E-1	8.389824E-1	7.604014E-1
5.430070E+2	7.683522E-1	7.171426E-1	7.401580E-1	7.190968E-1	6.950286E-1	7.368043E-1	7.200379E-1	7.453917E-1	6.929090E-1	7.045494E-1	7.049407E-1	7.474412E-1	6.937407E-1	7.060901E-1	7.812749E-1	6.723708E-1	6.885802E-1	7.591468E-1	7.301065E-1	7.627321E-1	7.517803E-1	7.681162E-1	7.534052E-1	7.657680E-1	7.594488E-1	8.090156E-1	7.308944E-1	7.854197E-1	7.024037E-1	7.329540E-1	7.833936E-1	7.292777E-1	7.679009E-1	7.509269E-1	7.261174E-1	7.056109E-1	7.241612E-1	7.105749E-1	7.405153E-1	7.541313E-1	7.498818E-1	7.533281E-1	6.955091E-1	7.209787E-1	8.067148E-1	7.878395E-1	7.468858E-1	7.230580E-1	7.509202E-1	7.885722E-1	7.859948E-1	7.687642E-1	8.025538E-1	7.192343E-1	6.986197E-1	7.373860E-1	8.097587E-1	7.422846E-1	8.180333E-1	7.518626E-1	7.110615E-1	6.565978E-1	7.616612E-1	7.679855E-1	7.630925E-1	7.599029E-1	7.238847E-1	7.539112E-1	7.573099E-1	7.803653E-1	7.680452E-1	7.814518E-1	7.120514E-1	7.320203E-1	7.356764E-1	7.719456E-1	7.923261E-1	7.162592E-1	7.494811E-1	7.972859E-1	7.257099E-1	7.244767E-1	7.410955E-1	6.928447E-1	7.274888E-1	7.715065E-1	7.576496E-1	6.577992E-1	7.275544E-1	7.948349E-1	7.376100E-1	7.192922E-1	7.258446E-1	7.901838E-1	7.257452E-1	6.960556E-1	7.360412E-1	7.529579E-1	7.822643E-1	6.937108E-1	7.466148E-1	7.429303E-1	7.487781E-1	7.931830E-1	7.875843E-1	7.384453E-1	6.832640E-1	7.500434E-1	7.032196E-1	7.741372E-1	7.448406E-1	8.286707E-1	7.325376E-1	7.513713E-1	7.188396E-1	7.491096E-1	7.712880E-1	7.730729E-1	7.857135E-1	7.492089E-1	7.903939E-1	7.582174E-1	7.448413E-1	7.860596E-1	7.694008E-1	7.457571E-1	7.834651E-1	7.789567E-1	7.403413E-1	7.354771E-1	7.764214E-1	7.540967E-1	7.304209E-1	7.605877E-1	7.673201E-1	7.075500E-1	7.487677E-1	7.237089E-1	7.689291E-1	7.649744E-1	7.688701E-1	7.016820E-1	7.148579E-1	7.347355E-1	7.629085E-1	7.737637E-1	7.916207E-1	7.291628E-1	7.426706E-1	7.685712E-1	7.243490E-1	7.313601E-1	7.656473E-1	7.399363E-1	8.121267E-1	7.734788E-1	7.275597E-1	7.376652E-1	8.059846E-1	7.168853E-1	7.405714E-1	7.342730E-1	7.688425E-1	7.971311E-1	6.529610E-1
5.435440E+2	1.010328E+0	9.302097E-1	9.459908E-1	1.061898E+0	1.012922E+0	9.902301E-1	1.006735E+0	1.029885E+0	9.860483E-1	9.951792E-1	9.614261E-1	1.041857E+0	9.761634E-1	9.718103E-1	9.781904E-1	9.968880E-1	1.054247E+0	9.750411E-1	1.025584E+0	9.233419E-1	9.501844E-1	1.019868E+0	1.085065E+0	9.807719E-1	1.035937E+0	1.017646E+0	1.005780E+0	9.723196E-1	9.661433E-1	9.359110E-1	9.501828E-1	9.440608E-1	9.777602E-1	1.117090E+0	9.576980E-1	9.338319E-1	9.767046E-1	1.030433E+0	9.857741E-1	9.891927E-1	9.765309E-1	1.005460E+0	9.814112E-1	9.664331E-1	9.834343E-1	9.566798E-1	1.004584E+0	9.380888E-1	1.055780E+0	9.984852E-1	9.747332E-1	9.454976E-1	1.033231E+0	1.049428E+0	1.001964E+0	1.048076E+0	1.075622E+0	9.307053E-1	9.644845E-1	1.036458E+0	9.706803E-1	9.583425E-1	9.086287E-1	9.771755E-1	1.021844E+0	9.874619E-1	9.918537E-1	9.846708E-1	1.009270E+0	1.033499E+0	9.701346E-1	1.049569E+0	9.395170E-1	9.937160E-1	9.979249E-1	9.368278E-1	1.006060E+0	1.023090E+0	8.914294E-1	9.958901E-1	1.035707E+0	9.973277E-1	9.483228E-1	9.906159E-1	1.030510E+0	1.035600E+0	9.659208E-1	1.018165E+0	1.011984E+0	1.011509E+0	9.998786E-1	9.516409E-1	1.028092E+0	1.000929E+0	1.016993E+0	9.967814E-1	9.854843E-1	9.986764E-1	9.616536E-1	1.061018E+0	9.921949E-1	9.820652E-1	1.006472E+0	9.788783E-1	1.027843E+0	9.882804E-1	9.776252E-1	9.995789E-1	9.662189E-1	9.530773E-1	9.869138E-1	1.085700E+0	1.040897E+0	9.422644E-1	1.012018E+0	9.666348E-1	1.037574E+0	1.021886E+0	1.037717E+0	9.853640E-1	1.002767E+0	1.056302E+0	9.939745E-1	9.907899E-1	1.033132E+0	9.688109E-1	1.023084E+0	1.033326E+0	9.379454E-1	9.700874E-1	1.019747E+0	9.799745E-1	9.612136E-1	1.007688E+0	1.012438E+0	9.687059E-1	1.003002E+0	1.030112E+0	1.019580E+0	9.709271E-1	9.755350E-1	1.006541E+0	1.009666E+0	9.729023E-1	9.949976E-1	9.833526E-1	1.031506E+0	9.982733E-1	9.216700E-1	9.837754E-1	9.911343E-1	1.027680E+0	9.940628E-1	1.035475E+0	1.027407E+0	1.046559E+0	9.694028E-1	9.603301E-1	9.809468E-1	9.702013E-1	1.015743E+0	1.030056E+0	9.604580E-1	9.639158E-1	9.488633E-1
5.440010E+2	1.380671E+0	1.315550E+0	1.355346E+0	1.344713E+0	1.277779E+0	1.248531E+0	1.350088E+0	1.312990E+0	1.304163E+0	1.341076E+0	1.311186E+0	1.357970E+0	1.303353E+0	1.260895E+0	1.332608E+0	1.354737E+0	1.285654E+0	1.328191E+0	1.237729E+0	1.298356E+0	1.299248E+0	1.285109E+0	1.323955E+0	1.258877E+0	1.285306E+0	1.200888E+0	1.305784E+0	1.327202E+0	1.317400E+0	1.346201E+0	1.269021E+0	1.287345E+0	1.292542E+0	1.288117E+0	1.313264E+0	1.253968E+0	1.319002E+0	1.348850E+0	1.325465E+0	1.246628E+0	1.254382E+0	1.282848E+0	1.323282E+0	1.280329E+0	1.270176E+0	1.293297E+0	1.287371E+0	1.264627E+0	1.302278E+0	1.273261E+0	1.267652E+0	1.268764E+0	1.303816E+0	1.302123E+0	1.267165E+0	1.244854E+0	1.268993E+0	1.257326E+0	1.283758E+0	1.274739E+0	1.247331E+0	1.245884E+0	1.280345E+0	1.318805E+0	1.341456E+0	1.316561E+0	1.281849E+0	1.256953E+0	1.279576E+0	1.224370E+0	1.281353E+0	1.257956E+0	1.339966E+0	1.314828E+0	1.303394E+0	1.200697E+0	1.302954E+0	1.290043E+0	1.255634E+0	1.295975E+0	1.211265E+0	1.282824E+0	1.306877E+0	1.311618E+0	1.276186E+0	1.324356E+0	1.285066E+0	1.292583E+0	1.315715E+0	1.251589E+0	1.325680E+0	1.288179E+0	1.294168E+0	1.282095E+0	1.186890E+0	1.308550E+0	1.352807E+0	1.377106E+0	1.319835E+0	1.283576E+0	1.338289E+0	1.281893E+0	1.258557E+0	1.328818E+0	1.286741E+0	1.246739E+0	1.247324E+0	1.266134E+0	1.223841E+0	1.297717E+0	1.297006E+0	1.280161E+0	1.381303E+0	1.261429E+0	1.349581E+0	1.287606E+0	1.343821E+0	1.256935E+0	1.288102E+0	1.287553E+0	1.331523E+0	1.354992E+0	1.290688E+0	1.274170E+0	1.343281E+0	1.282760E+0	1.375817E+0	1.230651E+0	1.294188E+0	1.310672E+0	1.250108E+0	1.223404E+0	1.330642E+0	1.283096E+0	1.321445E+0	1.225606E+0	1.224351E+0	1.280801E+0	1.357351E+0	1.289920E+0	1.284905E+0	1.241657E+0	1.241482E+0	1.276046E+0	1.262491E+0	1.224190E+0	1.319127E+0	1.277553E+0	1.336437E+0	1.245901E+0	1.138346E+0	1.322752E+0	1.342720E+0	1.262887E+0	1.293867E+0	1.214219E+0	1.314921E+0	1.269741E+0	1.284459E+0	1.316452E+0	1.257953E+0	1.207567E+0	1.290554E+0	1.306935E+0	1.310058E+0
5.445070E+2	1.461659E+0	1.477899E+0	1.450513E+0	1.512568E+0	1.441550E+0	1.444698E+0	1.413058E+0	1.474939E+0	1.520040E+0	1.487307E+0	1.436090E+0	1.519500E+0	1.473722E+0	1.453123E+0	1.462902E+0	1.469717E+0	1.456959E+0	1.426979E+0	1.404337E+0	1.383076E+0	1.430731E+0	1.364739E+0	1.440147E+0	1.448075E+0	1.497403E+0	1.476157E+0	1.476915E+0	1.435424E+0	1.457269E+0	1.439197E+0	1.465350E+0	1.444551E+0	1.517304E+0	1.476433E+0	1.429504E+0	1.421856E+0	1.511561E+0	1.475115E+0	1.412332E+0	1.443839E+0	1.410997E+0	1.420505E+0	1.518927E+0	1.407575E+0	1.426411E+0	1.482951E+0	1.367933E+0	1.406277E+0	1.453031E+0	1.407421E+0	1.462834E+0	1.479896E+0	1.443958E+0	1.494858E+0	1.459334E+0	1.439282E+0	1.456337E+0	1.456602E+0	1.513962E+0	1.416030E+0	1.401464E+0	1.515119E+0	1.442146E+0	1.464605E+0	1.590141E+0	1.498779E+0	1.447012E+0	1.473759E+0	1.437887E+0	1.457868E+0	1.359448E+0	1.445815E+0	1.412785E+0	1.388622E+0	1.421945E+0	1.458648E+0	1.454055E+0	1.435550E+0	1.458281E+0	1.374866E+0	1.442142E+0	1.377870E+0	1.405461E+0	1.377387E+0	1.480373E+0	1.458527E+0	1.400356E+0	1.432558E+0	1.408219E+0	1.504116E+0	1.396936E+0	1.470744E+0	1.389931E+0	1.508354E+0	1.455510E+0	1.415503E+0	1.457247E+0	1.437317E+0	1.371526E+0	1.456302E+0	1.405502E+0	1.509858E+0	1.412949E+0	1.409266E+0	1.453603E+0	1.397468E+0	1.444851E+0	1.415798E+0	1.466620E+0	1.465640E+0	1.394370E+0	1.444003E+0	1.468361E+0	1.360376E+0	1.353295E+0	1.472709E+0	1.445090E+0	1.472611E+0	1.383742E+0	1.361330E+0	1.445961E+0	1.432801E+0	1.386862E+0	1.428051E+0	1.431708E+0	1.461584E+0	1.349719E+0	1.403038E+0	1.425686E+0	1.407405E+0	1.414297E+0	1.446222E+0	1.367434E+0	1.413578E+0	1.403150E+0	1.431895E+0	1.433307E+0	1.443322E+0	1.419712E+0	1.456204E+0	1.402914E+0	1.411529E+0	1.352070E+0	1.423524E+0	1.400553E+0	1.375492E+0	1.423363E+0	1.377756E+0	1.501586E+0	1.465556E+0	1.416896E+0	1.382159E+0	1.423453E+0	1.499678E+0	1.453982E+0	1.450640E+0	1.462654E+0	1.438434E+0	1.474137E+0	1.448589E+0	1.443437E+0	1.490808E+0	1.298857E+0	1.389621E+0	1.267750E+0
5.450090E+2	1.217376E+0	1.145070E+0	1.170228E+0	1.173313E+0	1.201110E+0	1.238699E+0	1.186428E+0	1.213388E+0	1.201675E+0	1.194059E+0	1.262181E+0	1.256352E+0	1.214404E+0	1.206777E+0	1.161488E+0	1.213660E+0	1.187330E+0	1.183920E+0	1.204825E+0	1.218843E+0	1.253214E+0	1.302492E+0	1.211519E+0	1.172307E+0	1.241444E+0	1.230868E+0	1.192226E+0	1.101611E+0	1.232773E+0	1.177812E+0	1.165886E+0	1.181011E+0	1.197583E+0	1.249336E+0	1.199408E+0	1.159213E+0	1.254284E+0	1.227912E+0	1.275204E+0	1.217152E+0	1.187766E+0	1.205172E+0	1.178999E+0	1.170522E+0	1.205916E+0	1.216252E+0	1.187376E+0	1.231801E+0	1.203588E+0	1.184309E+0	1.212190E+0	1.215959E+0	1.246903E+0	1.199842E+0	1.207211E+0	1.217105E+0	1.220782E+0	1.272442E+0	1.212371E+0	1.238153E+0	1.187336E+0	1.189359E+0	1.198975E+0	1.135814E+0	1.241907E+0	1.231584E+0	1.126955E+0	1.245577E+0	1.199667E+0	1.184468E+0	1.174760E+0	1.185625E+0	1.206615E+0	1.233710E+0	1.191394E+0	1.215117E+0	1.255434E+0	1.278665E+0	1.202463E+0	1.173521E+0	1.213636E+0	1.234265E+0	1.184226E+0	1.150494E+0	1.178663E+0	1.256838E+0	1.177137E+0	1.200592E+0	1.245474E+0	1.203476E+0	1.131685E+0	1.258172E+0	1.226537E+0	1.208079E+0	1.256415E+0	1.255868E+0	1.290492E+0	1.215885E+0	1.227702E+0	1.186512E+0	1.167938E+0	1.157770E+0	1.170309E+0	1.207657E+0	1.184207E+0	1.165144E+0	1.293969E+0	1.275803E+0	1.205544E+0	1.213093E+0	1.217063E+0	1.265161E+0	1.236039E+0	1.234227E+0	1.178486E+0	1.176540E+0	1.195634E+0	1.266280E+0	1.204204E+0	1.170078E+0	1.274487E+0	1.209300E+0	1.234235E+0	1.245410E+0	1.251328E+0	1.198393E+0	1.247007E+0	1.135384E+0	1.197446E+0	1.253176E+0	1.234654E+0	1.260745E+0	1.178796E+0	1.184388E+0	1.155961E+0	1.144273E+0	1.150742E+0	1.248938E+0	1.211610E+0	1.313693E+0	1.214136E+0	1.125531E+0	1.128137E+0	1.211908E+0	1.243449E+0	1.147709E+0	1.166738E+0	1.168826E+0	1.145265E+0	1.196253E+0	1.176716E+0	1.199172E+0	1.167095E+0	1.086321E+0	1.240831E+0	1.242995E+0	1.190750E+0	1.247089E+0	1.218515E+0	1.189258E+0	1.217138E+0	1.071376E+0	1.269730E+0	1.201983E+0	1.077331E+0
5.455020E+2	9.382383E-1	9.389934E-1	9.202782E-1	1.038621E+0	9.639385E-1	1.052511E+0	1.095774E+0	9.865308E-1	9.258282E-1	1.082122E+0	1.054063E+0	9.566683E-1	9.966685E-1	9.340535E-1	1.004953E+0	9.317551E-1	9.984777E-1	1.018204E+0	9.889787E-1	9.716108E-1	9.725716E-1	9.523059E-1	1.035920E+0	1.005955E+0	1.041578E+0	9.774047E-1	9.511713E-1	9.848677E-1	1.038779E+0	9.193778E-1	9.711642E-1	9.948805E-1	9.744440E-1	1.017179E+0	9.475649E-1	1.007399E+0	9.620498E-1	1.014573E+0	9.617765E-1	9.773954E-1	9.884950E-1	9.762803E-1	9.932023E-1	9.885457E-1	9.466491E-1	1.056763E+0	9.900797E-1	9.496516E-1	9.774900E-1	9.636445E-1	9.627473E-1	9.714765E-1	9.925814E-1	9.916463E-1	9.733466E-1	9.755184E-1	1.007580E+0	1.035509E+0	9.188656E-1	1.011662E+0	9.763395E-1	9.965215E-1	9.682236E-1	9.926073E-1	1.032996E+0	1.013273E+0	9.671185E-1	9.683381E-1	1.017113E+0	1.047015E+0	9.430596E-1	9.762232E-1	9.565856E-1	9.865922E-1	9.941809E-1	1.021032E+0	9.247382E-1	9.837841E-1	1.050498E+0	9.582706E-1	9.860357E-1	9.649840E-1	9.454443E-1	9.421275E-1	9.782791E-1	1.005879E+0	9.565525E-1	9.621774E-1	1.085745E+0	9.642768E-1	9.543569E-1	1.005287E+0	9.811852E-1	9.514407E-1	9.724304E-1	9.953077E-1	9.360930E-1	1.051905E+0	1.015320E+0	9.794330E-1	9.494674E-1	1.015164E+0	9.775685E-1	1.011853E+0	9.913595E-1	9.780023E-1	9.603400E-1	9.839838E-1	9.213404E-1	9.532143E-1	9.730780E-1	1.012362E+0	9.919670E-1	9.382579E-1	9.003995E-1	9.865684E-1	1.022857E+0	9.774541E-1	1.013838E+0	9.590350E-1	9.842630E-1	9.675401E-1	9.161422E-1	1.009909E+0	9.768744E-1	9.519106E-1	9.853524E-1	1.000225E+0	9.947870E-1	9.623497E-1	9.955365E-1	9.966771E-1	9.793930E-1	1.056051E+0	9.379386E-1	9.916918E-1	9.926216E-1	1.021802E+0	9.725878E-1	9.488286E-1	9.657345E-1	9.794061E-1	9.399483E-1	9.647967E-1	9.983097E-1	9.739058E-1	9.492207E-1	9.148977E-1	9.723451E-1	1.026242E+0	9.419606E-1	9.632690E-1	1.030108E+0	9.615252E-1	9.678767E-1	1.041595E+0	9.136571E-1	9.330591E-1	9.851717E-1	1.007450E+0	9.537535E-1	1.041175E+0	9.528161E-1	9.871323E-1	8.018509E-1
5.460060E+2	7.603621E-1	7.486054E-1	7.761368E-1	7.783348E-1	7.890045E-1	8.069628E-1	7.353713E-1	8.038257E-1	7.415358E-1	8.087804E-1	8.079610E-1	7.801027E-1	7.727985E-1	7.852598E-1	7.570123E-1	7.624132E-1	8.127025E-1	7.647151E-1	7.613768E-1	7.385023E-1	7.134818E-1	7.786080E-1	8.099111E-1	7.582312E-1	7.694421E-1	7.433029E-1	7.355872E-1	7.546526E-1	7.987377E-1	7.521924E-1	8.051654E-1	7.549368E-1	7.710182E-1	7.146842E-1	7.180911E-1	7.489051E-1	8.023354E-1	7.444481E-1	7.863315E-1	8.103987E-1	8.288871E-1	8.034991E-1	7.683078E-1	7.653301E-1	8.167033E-1	7.264798E-1	8.095817E-1	8.024881E-1	7.796643E-1	7.519626E-1	7.980966E-1	7.675194E-1	7.592592E-1	7.511666E-1	7.612011E-1	8.267962E-1	7.986612E-1	7.687055E-1	7.219571E-1	7.804648E-1	7.387420E-1	8.228075E-1	8.137546E-1	7.689513E-1	8.373028E-1	7.045078E-1	7.673724E-1	7.364200E-1	7.777122E-1	7.427744E-1	7.602698E-1	7.553498E-1	7.618083E-1	7.421931E-1	7.478941E-1	7.361494E-1	7.732381E-1	8.053303E-1	7.141665E-1	7.883453E-1	7.817792E-1	7.361719E-1	7.507130E-1	7.490548E-1	8.043583E-1	8.075900E-1	8.242177E-1	7.546532E-1	7.729177E-1	7.317800E-1	8.035014E-1	6.732404E-1	7.581118E-1	7.951601E-1	7.423903E-1	7.493226E-1	7.525043E-1	8.470622E-1	7.255353E-1	8.113543E-1	8.125361E-1	8.321053E-1	7.567234E-1	7.146624E-1	7.849719E-1	8.570400E-1	7.197224E-1	7.961450E-1	7.320562E-1	7.889176E-1	7.521862E-1	7.425386E-1	7.684535E-1	7.263653E-1	7.803719E-1	7.656556E-1	7.704867E-1	7.916660E-1	7.645258E-1	7.670809E-1	7.348321E-1	7.862486E-1	6.947047E-1	7.927299E-1	7.874068E-1	8.451981E-1	7.609576E-1	7.790616E-1	8.022533E-1	7.659351E-1	7.948137E-1	7.713361E-1	7.922247E-1	7.706956E-1	7.013972E-1	7.790910E-1	7.202408E-1	7.339819E-1	7.695167E-1	7.663798E-1	7.110001E-1	7.427865E-1	7.748444E-1	7.931540E-1	8.106679E-1	7.690317E-1	7.926022E-1	7.385267E-1	7.446466E-1	7.595084E-1	7.933324E-1	8.002469E-1	7.836773E-1	7.753393E-1	7.808086E-1	8.230240E-1	8.084436E-1	7.882014E-1	7.655348E-1	7.741485E-1	7.726848E-1	6.920089E-1	8.000668E-1	7.979160E-1	7.781370E-1
5.465160E+2	9.151447E-1	9.594079E-1	9.026613E-1	9.575798E-1	8.550499E-1	9.910502E-1	9.358614E-1	9.042444E-1	8.872363E-1	8.458770E-1	8.534478E-1	9.191175E-1	8.766487E-1	9.255888E-1	8.689121E-1	8.850747E-1	9.384458E-1	9.405906E-1	8.477011E-1	9.258739E-1	9.492233E-1	9.061051E-1	9.531090E-1	9.794628E-1	9.005081E-1	8.854893E-1	9.080627E-1	8.816864E-1	9.348494E-1	8.859971E-1	9.034058E-1	9.114382E-1	9.280215E-1	9.302125E-1	8.904335E-1	9.513319E-1	8.343594E-1	8.559048E-1	9.573721E-1	8.801072E-1	8.524415E-1	9.075772E-1	8.715082E-1	8.504275E-1	8.543131E-1	9.120027E-1	9.165565E-1	9.494503E-1	9.391128E-1	9.323993E-1	9.364603E-1	9.031235E-1	9.263344E-1	8.915249E-1	8.949812E-1	9.292271E-1	9.133822E-1	9.659604E-1	8.910999E-1	8.618302E-1	8.867409E-1	9.573801E-1	9.673822E-1	9.102375E-1	8.720396E-1	9.504894E-1	9.395778E-1	9.651784E-1	9.509748E-1	8.957478E-1	9.257406E-1	9.384357E-1	8.748513E-1	9.477181E-1	9.803638E-1	9.701211E-1	9.469864E-1	9.008863E-1	9.165771E-1	9.198645E-1	9.027226E-1	9.178504E-1	8.825327E-1	8.411456E-1	9.124362E-1	8.757322E-1	9.131705E-1	9.183894E-1	9.566946E-1	9.471276E-1	8.749745E-1	9.397478E-1	8.939216E-1	9.293883E-1	8.188165E-1	9.998880E-1	9.122836E-1	9.828303E-1	9.209060E-1	9.805772E-1	9.278679E-1	8.983002E-1	9.557251E-1	8.945561E-1	9.063837E-1	9.547140E-1	9.328386E-1	9.563005E-1	9.558138E-1	9.482802E-1	8.626285E-1	9.790254E-1	8.811584E-1	9.532946E-1	8.760340E-1	9.133143E-1	8.511723E-1	9.807354E-1	9.638051E-1	9.317179E-1	9.298242E-1	9.444309E-1	8.818599E-1	9.517674E-1	9.467539E-1	8.604730E-1	9.519926E-1	9.246833E-1	9.200929E-1	9.952562E-1	9.914762E-1	8.890622E-1	9.363002E-1	9.504972E-1	8.860683E-1	9.502024E-1	8.805795E-1	9.466226E-1	9.513852E-1	8.636311E-1	8.287352E-1	8.916690E-1	8.782769E-1	9.720751E-1	8.503724E-1	8.759311E-1	1.010268E+0	9.220996E-1	9.120219E-1	9.537522E-1	9.143523E-1	8.796814E-1	9.148084E-1	9.125781E-1	8.360334E-1	1.010191E+0	9.191467E-1	9.220768E-1	8.958133E-1	9.156270E-1	9.536676E-1	8.441005E-1	8.998513E-1	8.270460E-1	8.470680E-1
5.470110E+2	1.167411E+0	1.151917E+0	1.183591E+0	1.277259E+0	1.094678E+0	1.221040E+0	1.193819E+0	1.160092E+0	1.203768E+0	1.215371E+0	1.138252E+0	1.137812E+0	1.146514E+0	1.088778E+0	1.274083E+0	1.181527E+0	1.153565E+0	1.199223E+0	1.167203E+0	1.132825E+0	1.111903E+0	1.156049E+0	1.173851E+0	1.141301E+0	1.215072E+0	1.163375E+0	1.180591E+0	1.196013E+0	1.120823E+0	1.152195E+0	1.199355E+0	1.140276E+0	1.141277E+0	1.148783E+0	1.183473E+0	1.199417E+0	1.217604E+0	1.155007E+0	1.150674E+0	1.193267E+0	1.153635E+0	1.102545E+0	1.152556E+0	1.178422E+0	1.226368E+0	1.214594E+0	1.133952E+0	1.156743E+0	1.203333E+0	1.214702E+0	1.172124E+0	1.111604E+0	1.208068E+0	1.177690E+0	1.214034E+0	1.161449E+0	1.151236E+0	1.083494E+0	1.178241E+0	1.190231E+0	1.163898E+0	1.160729E+0	1.174305E+0	1.143559E+0	1.234594E+0	1.117455E+0	1.130158E+0	1.195550E+0	1.193570E+0	1.161651E+0	1.211837E+0	1.180357E+0	1.115542E+0	1.198775E+0	1.267852E+0	1.122438E+0	1.158199E+0	1.177796E+0	1.189426E+0	1.153567E+0	1.224171E+0	1.097548E+0	1.155206E+0	1.230036E+0	1.162922E+0	1.184777E+0	1.169390E+0	1.159888E+0	1.183980E+0	1.196794E+0	1.188619E+0	1.177132E+0	1.167330E+0	1.226135E+0	1.133521E+0	1.116129E+0	1.232269E+0	1.171271E+0	1.105577E+0	1.180653E+0	1.169634E+0	1.208262E+0	1.242241E+0	1.253194E+0	1.179607E+0	1.119017E+0	1.137557E+0	1.236662E+0	1.265466E+0	1.243788E+0	1.134872E+0	1.193124E+0	1.180751E+0	1.243301E+0	1.128433E+0	1.170700E+0	1.130708E+0	1.164435E+0	1.264928E+0	1.117242E+0	1.291624E+0	1.208202E+0	1.164723E+0	1.139589E+0	1.159127E+0	1.251849E+0	1.148347E+0	1.139702E+0	1.169838E+0	1.171076E+0	1.123684E+0	1.162683E+0	1.170020E+0	1.194166E+0	1.143390E+0	1.157630E+0	1.166773E+0	1.164716E+0	1.117411E+0	1.116394E+0	1.176408E+0	1.208060E+0	1.184917E+0	1.239096E+0	1.145214E+0	1.145382E+0	1.196179E+0	1.139506E+0	1.145306E+0	1.180899E+0	1.094375E+0	1.097881E+0	1.149437E+0	1.166437E+0	1.197345E+0	1.210813E+0	1.131131E+0	1.124633E+0	1.275567E+0	1.248645E+0	1.156736E+0	1.173998E+0	1.218971E+0	1.126419E+0	1.041008E+0
5.475070E+2	1.274371E+0	1.328943E+0	1.323094E+0	1.363900E+0	1.325938E+0	1.329199E+0	1.335735E+0	1.380471E+0	1.345224E+0	1.374220E+0	1.399660E+0	1.439371E+0	1.351579E+0	1.332204E+0	1.311084E+0	1.379783E+0	1.381330E+0	1.409987E+0	1.330866E+0	1.334937E+0	1.324203E+0	1.380491E+0	1.433587E+0	1.370042E+0	1.347571E+0	1.350429E+0	1.379003E+0	1.429879E+0	1.377683E+0	1.315539E+0	1.365028E+0	1.422534E+0	1.387036E+0	1.327450E+0	1.405956E+0	1.289893E+0	1.363430E+0	1.328960E+0	1.332664E+0	1.394311E+0	1.344856E+0	1.327505E+0	1.382183E+0	1.333783E+0	1.338518E+0	1.447645E+0	1.291815E+0	1.358720E+0	1.430677E+0	1.338117E+0	1.358649E+0	1.361618E+0	1.353334E+0	1.368361E+0	1.440555E+0	1.377619E+0	1.390070E+0	1.373717E+0	1.329198E+0	1.337114E+0	1.395010E+0	1.334661E+0	1.390095E+0	1.305285E+0	1.407195E+0	1.358102E+0	1.431887E+0	1.458321E+0	1.353418E+0	1.357443E+0	1.376253E+0	1.289332E+0	1.349472E+0	1.385774E+0	1.416434E+0	1.334383E+0	1.380932E+0	1.368032E+0	1.397174E+0	1.383619E+0	1.364859E+0	1.361141E+0	1.390474E+0	1.373980E+0	1.409035E+0	1.391915E+0	1.429345E+0	1.298456E+0	1.367201E+0	1.348998E+0	1.366824E+0	1.307631E+0	1.411182E+0	1.374261E+0	1.413428E+0	1.387461E+0	1.387088E+0	1.427473E+0	1.308415E+0	1.372444E+0	1.342855E+0	1.439984E+0	1.394547E+0	1.417867E+0	1.438847E+0	1.366227E+0	1.344700E+0	1.416044E+0	1.362084E+0	1.385417E+0	1.341024E+0	1.416364E+0	1.271454E+0	1.307109E+0	1.406063E+0	1.309526E+0	1.402738E+0	1.405861E+0	1.432640E+0	1.374758E+0	1.396857E+0	1.307029E+0	1.368073E+0	1.348626E+0	1.347553E+0	1.318945E+0	1.355235E+0	1.344960E+0	1.416588E+0	1.477860E+0	1.370132E+0	1.479963E+0	1.398009E+0	1.433739E+0	1.294923E+0	1.374529E+0	1.308231E+0	1.374097E+0	1.310744E+0	1.392218E+0	1.361541E+0	1.319000E+0	1.385649E+0	1.432098E+0	1.318370E+0	1.331674E+0	1.371005E+0	1.294024E+0	1.307327E+0	1.436791E+0	1.391136E+0	1.290971E+0	1.321198E+0	1.343692E+0	1.392858E+0	1.334887E+0	1.345271E+0	1.410133E+0	1.348005E+0	1.436510E+0	1.385500E+0	1.294677E+0	1.249808E+0	1.469031E+0	1.144308E+0
5.480030E+2	1.359526E+0	1.308189E+0	1.287422E+0	1.431221E+0	1.293403E+0	1.317483E+0	1.240697E+0	1.393845E+0	1.351286E+0	1.365157E+0	1.350961E+0	1.288653E+0	1.369292E+0	1.295347E+0	1.417046E+0	1.305897E+0	1.279753E+0	1.297138E+0	1.284715E+0	1.228220E+0	1.289858E+0	1.367382E+0	1.355452E+0	1.354430E+0	1.340606E+0	1.316655E+0	1.318591E+0	1.328083E+0	1.339022E+0	1.291646E+0	1.300019E+0	1.399673E+0	1.270070E+0	1.300073E+0	1.366639E+0	1.384435E+0	1.356101E+0	1.271034E+0	1.269278E+0	1.292392E+0	1.312495E+0	1.303040E+0	1.308040E+0	1.318001E+0	1.293054E+0	1.386537E+0	1.314039E+0	1.313532E+0	1.354555E+0	1.322581E+0	1.329461E+0	1.258132E+0	1.367447E+0	1.277381E+0	1.340545E+0	1.389137E+0	1.359360E+0	1.324452E+0	1.380608E+0	1.274219E+0	1.303951E+0	1.289418E+0	1.313817E+0	1.224657E+0	1.262754E+0	1.360846E+0	1.336124E+0	1.227027E+0	1.339930E+0	1.301005E+0	1.229607E+0	1.326214E+0	1.313113E+0	1.381395E+0	1.253335E+0	1.311263E+0	1.275634E+0	1.361397E+0	1.305534E+0	1.239806E+0	1.315558E+0	1.349110E+0	1.318327E+0	1.273211E+0	1.302705E+0	1.332165E+0	1.312742E+0	1.360955E+0	1.240723E+0	1.409128E+0	1.222422E+0	1.335313E+0	1.292787E+0	1.299987E+0	1.290617E+0	1.233853E+0	1.368046E+0	1.319375E+0	1.354841E+0	1.226629E+0	1.345797E+0	1.358245E+0	1.372564E+0	1.406367E+0	1.278514E+0	1.323038E+0	1.221879E+0	1.287195E+0	1.314807E+0	1.361993E+0	1.356878E+0	1.355713E+0	1.325405E+0	1.365271E+0	1.331346E+0	1.304513E+0	1.338330E+0	1.383934E+0	1.353111E+0	1.294500E+0	1.306249E+0	1.327032E+0	1.237085E+0	1.311824E+0	1.331511E+0	1.298804E+0	1.255694E+0	1.296790E+0	1.345148E+0	1.281446E+0	1.310324E+0	1.353902E+0	1.280900E+0	1.379001E+0	1.297662E+0	1.189693E+0	1.256623E+0	1.250743E+0	1.326264E+0	1.209755E+0	1.237229E+0	1.323825E+0	1.371453E+0	1.330377E+0	1.345034E+0	1.346231E+0	1.308383E+0	1.302981E+0	1.324836E+0	1.372693E+0	1.350984E+0	1.187001E+0	1.284814E+0	1.306960E+0	1.361763E+0	1.414037E+0	1.286029E+0	1.346999E+0	1.239211E+0	1.339294E+0	1.251938E+0	1.269870E+0	1.303281E+0	1.308759E+0	1.264909E+0
5.485390E+2	1.178601E+0	1.250741E+0	1.229500E+0	1.283247E+0	1.228489E+0	1.211417E+0	1.231437E+0	1.220556E+0	1.275801E+0	1.284528E+0	1.268398E+0	1.285586E+0	1.262507E+0	1.191115E+0	1.227068E+0	1.347894E+0	1.228701E+0	1.223194E+0	1.223842E+0	1.152792E+0	1.133549E+0	1.221628E+0	1.326570E+0	1.318326E+0	1.278124E+0	1.209535E+0	1.210012E+0	1.299845E+0	1.248507E+0	1.198571E+0	1.158654E+0	1.255565E+0	1.240952E+0	1.271760E+0	1.234444E+0	1.235971E+0	1.305312E+0	1.302581E+0	1.261415E+0	1.168097E+0	1.203915E+0	1.185734E+0	1.212533E+0	1.208495E+0	1.219664E+0	1.266450E+0	1.289180E+0	1.238474E+0	1.181936E+0	1.226225E+0	1.226343E+0	1.183450E+0	1.211973E+0	1.220715E+0	1.255330E+0	1.281045E+0	1.205946E+0	1.244439E+0	1.263165E+0	1.187050E+0	1.267309E+0	1.178265E+0	1.258054E+0	1.205985E+0	1.287193E+0	1.222478E+0	1.185238E+0	1.208778E+0	1.193352E+0	1.182155E+0	1.200744E+0	1.247169E+0	1.226282E+0	1.252342E+0	1.286454E+0	1.202982E+0	1.223255E+0	1.201557E+0	1.260115E+0	1.212872E+0	1.166379E+0	1.278241E+0	1.262844E+0	1.266364E+0	1.188024E+0	1.208566E+0	1.222168E+0	1.227859E+0	1.226151E+0	1.226736E+0	1.245418E+0	1.256522E+0	1.184077E+0	1.278362E+0	1.169021E+0	1.193551E+0	1.229945E+0	1.281027E+0	1.232893E+0	1.275988E+0	1.307290E+0	1.246405E+0	1.252004E+0	1.304151E+0	1.293038E+0	1.287900E+0	1.192781E+0	1.255662E+0	1.220535E+0	1.270774E+0	1.278151E+0	1.286109E+0	1.175122E+0	1.184898E+0	1.173746E+0	1.293432E+0	1.232470E+0	1.233286E+0	1.262752E+0	1.259356E+0	1.227883E+0	1.287121E+0	1.217691E+0	1.246786E+0	1.198953E+0	1.238539E+0	1.274495E+0	1.235677E+0	1.253149E+0	1.292687E+0	1.278199E+0	1.203478E+0	1.181188E+0	1.337137E+0	1.238767E+0	1.300322E+0	1.167834E+0	1.227962E+0	1.311149E+0	1.269424E+0	1.234926E+0	1.188374E+0	1.387317E+0	1.262680E+0	1.257479E+0	1.226132E+0	1.283583E+0	1.197633E+0	1.208091E+0	1.238650E+0	1.208256E+0	1.217745E+0	1.183854E+0	1.192954E+0	1.207180E+0	1.261627E+0	1.256140E+0	1.208894E+0	1.259393E+0	1.280056E+0	1.274551E+0	1.233887E+0	1.237405E+0	1.270441E+0	9.590476E-1
5.490430E+2	1.149317E+0	1.205008E+0	1.133557E+0	1.175819E+0	1.141127E+0	1.174405E+0	1.176661E+0	1.152024E+0	1.109558E+0	1.151111E+0	1.169759E+0	1.129260E+0	1.234310E+0	1.109972E+0	1.136249E+0	1.152657E+0	1.168080E+0	1.147799E+0	1.119647E+0	1.185454E+0	1.137702E+0	1.157461E+0	1.156538E+0	1.147748E+0	1.217357E+0	1.118937E+0	1.096975E+0	1.176752E+0	1.182842E+0	1.139497E+0	1.138181E+0	1.147793E+0	1.091775E+0	1.075361E+0	1.117636E+0	1.170059E+0	1.149153E+0	1.170385E+0	1.176029E+0	1.220668E+0	1.208125E+0	1.134597E+0	1.182245E+0	1.109618E+0	1.150925E+0	1.117718E+0	1.155163E+0	1.156603E+0	1.185062E+0	1.086058E+0	1.122566E+0	1.152968E+0	1.187301E+0	1.064535E+0	1.159190E+0	1.219039E+0	1.107912E+0	1.168591E+0	1.169520E+0	1.130330E+0	1.074776E+0	1.109890E+0	1.185820E+0	1.140278E+0	1.196256E+0	1.093034E+0	1.145702E+0	1.112616E+0	1.118473E+0	1.168822E+0	1.099194E+0	1.156462E+0	1.093099E+0	1.127587E+0	1.149798E+0	1.119144E+0	1.163108E+0	1.158805E+0	1.119383E+0	1.118654E+0	1.133114E+0	1.119904E+0	1.102753E+0	1.125069E+0	1.106096E+0	1.081940E+0	1.090784E+0	1.187249E+0	1.209304E+0	1.073742E+0	1.138067E+0	1.152294E+0	1.105214E+0	1.250543E+0	1.113972E+0	1.166392E+0	1.142648E+0	1.169808E+0	1.132934E+0	1.168407E+0	1.130505E+0	1.160597E+0	1.143976E+0	1.259834E+0	1.167353E+0	1.102622E+0	1.174357E+0	1.186244E+0	1.178082E+0	1.101106E+0	1.136561E+0	1.162331E+0	1.116259E+0	1.183764E+0	1.119366E+0	1.142284E+0	1.167105E+0	1.064135E+0	1.260076E+0	1.103867E+0	1.141561E+0	1.112929E+0	1.111650E+0	1.210345E+0	1.129947E+0	1.089398E+0	1.141299E+0	1.117999E+0	1.119311E+0	1.109572E+0	1.166369E+0	1.099780E+0	1.198700E+0	1.176921E+0	1.095288E+0	1.102479E+0	1.124990E+0	1.162750E+0	1.141775E+0	1.183400E+0	1.174507E+0	1.099374E+0	1.169511E+0	1.162411E+0	1.070083E+0	1.171756E+0	1.210123E+0	1.148947E+0	1.070182E+0	1.167445E+0	1.117389E+0	1.182944E+0	1.158190E+0	1.145650E+0	1.166328E+0	1.105182E+0	1.139920E+0	1.163827E+0	1.158115E+0	1.150911E+0	1.152768E+0	1.206604E+0	1.137743E+0	1.159017E+0	9.875145E-1
5.495150E+2	1.508928E+0	1.486481E+0	1.374250E+0	1.481042E+0	1.474173E+0	1.457839E+0	1.469330E+0	1.428513E+0	1.467490E+0	1.491486E+0	1.445203E+0	1.567249E+0	1.493384E+0	1.434207E+0	1.511544E+0	1.460949E+0	1.476168E+0	1.467798E+0	1.454269E+0	1.376618E+0	1.454677E+0	1.524927E+0	1.464485E+0	1.463172E+0	1.513069E+0	1.449642E+0	1.546875E+0	1.554368E+0	1.444972E+0	1.397600E+0	1.423661E+0	1.464045E+0	1.540359E+0	1.495329E+0	1.459471E+0	1.404904E+0	1.521603E+0	1.446925E+0	1.456356E+0	1.450644E+0	1.352770E+0	1.397163E+0	1.439006E+0	1.401456E+0	1.474621E+0	1.497642E+0	1.472796E+0	1.418981E+0	1.431358E+0	1.505812E+0	1.484009E+0	1.374892E+0	1.421224E+0	1.430329E+0	1.426330E+0	1.526804E+0	1.456213E+0	1.477000E+0	1.496984E+0	1.500010E+0	1.477983E+0	1.395857E+0	1.505296E+0	1.406644E+0	1.446774E+0	1.427477E+0	1.453161E+0	1.381965E+0	1.447651E+0	1.539173E+0	1.443356E+0	1.475276E+0	1.345704E+0	1.464409E+0	1.471096E+0	1.481507E+0	1.454521E+0	1.437724E+0	1.490618E+0	1.495979E+0	1.416397E+0	1.451333E+0	1.418442E+0	1.387962E+0	1.480025E+0	1.388162E+0	1.506522E+0	1.467768E+0	1.444442E+0	1.385594E+0	1.394414E+0	1.498184E+0	1.442896E+0	1.568986E+0	1.425594E+0	1.404229E+0	1.397005E+0	1.520952E+0	1.497317E+0	1.479653E+0	1.392935E+0	1.420050E+0	1.469003E+0	1.451888E+0	1.374947E+0	1.402526E+0	1.354710E+0	1.460580E+0	1.468925E+0	1.517172E+0	1.409799E+0	1.512070E+0	1.540771E+0	1.375964E+0	1.402396E+0	1.461092E+0	1.490894E+0	1.453714E+0	1.468986E+0	1.453987E+0	1.470781E+0	1.501648E+0	1.371747E+0	1.437410E+0	1.441690E+0	1.422845E+0	1.435663E+0	1.428098E+0	1.439265E+0	1.400250E+0	1.499682E+0	1.500190E+0	1.389944E+0	1.462146E+0	1.438797E+0	1.419012E+0	1.425620E+0	1.477793E+0	1.484181E+0	1.471411E+0	1.408825E+0	1.446223E+0	1.382505E+0	1.426695E+0	1.460781E+0	1.394622E+0	1.511015E+0	1.471428E+0	1.519407E+0	1.429579E+0	1.438119E+0	1.436270E+0	1.447367E+0	1.404820E+0	1.475490E+0	1.480596E+0	1.434549E+0	1.442459E+0	1.507956E+0	1.501138E+0	1.485015E+0	1.378188E+0	1.393793E+0	1.402015E+0	1.185151E+0
5.500050E+2	1.806066E+0	1.789062E+0	1.841748E+0	1.766744E+0	1.742789E+0	1.853091E+0	1.718411E+0	1.785840E+0	1.856074E+0	1.743837E+0	1.808027E+0	1.795020E+0	1.759979E+0	1.778574E+0	1.823772E+0	1.661492E+0	1.773489E+0	1.775627E+0	1.761765E+0	1.717580E+0	1.680602E+0	1.776209E+0	1.829147E+0	1.765761E+0	1.764777E+0	1.702151E+0	1.730896E+0	1.815919E+0	1.791897E+0	1.753597E+0	1.808010E+0	1.814392E+0	1.740164E+0	1.655646E+0	1.776206E+0	1.729251E+0	1.783273E+0	1.702718E+0	1.739415E+0	1.851032E+0	1.791527E+0	1.670355E+0	1.720312E+0	1.727817E+0	1.770697E+0	1.771661E+0	1.775981E+0	1.705060E+0	1.745050E+0	1.749023E+0	1.752793E+0	1.762400E+0	1.793655E+0	1.700165E+0	1.735846E+0	1.777290E+0	1.790977E+0	1.793592E+0	1.718612E+0	1.752082E+0	1.718211E+0	1.784644E+0	1.786684E+0	1.727747E+0	1.878635E+0	1.750462E+0	1.760749E+0	1.692379E+0	1.784756E+0	1.756547E+0	1.806809E+0	1.757065E+0	1.718673E+0	1.778370E+0	1.748748E+0	1.745175E+0	1.849556E+0	1.774474E+0	1.863451E+0	1.827889E+0	1.773201E+0	1.777962E+0	1.685500E+0	1.593905E+0	1.633682E+0	1.836448E+0	1.732569E+0	1.746185E+0	1.700617E+0	1.746006E+0	1.716583E+0	1.821598E+0	1.843015E+0	1.864131E+0	1.717444E+0	1.806774E+0	1.775211E+0	1.784969E+0	1.700807E+0	1.671696E+0	1.698238E+0	1.764114E+0	1.817798E+0	1.708965E+0	1.754228E+0	1.696589E+0	1.798867E+0	1.839197E+0	1.674787E+0	1.814561E+0	1.726747E+0	1.727662E+0	1.802835E+0	1.793565E+0	1.654597E+0	1.831160E+0	1.772299E+0	1.801505E+0	1.864050E+0	1.745073E+0	1.761844E+0	1.815172E+0	1.800154E+0	1.786005E+0	1.663961E+0	1.838875E+0	1.701500E+0	1.783237E+0	1.815615E+0	1.754543E+0	1.721436E+0	1.706044E+0	1.758569E+0	1.802284E+0	1.763192E+0	1.724031E+0	1.663789E+0	1.697438E+0	1.758506E+0	1.811668E+0	1.778028E+0	1.773452E+0	1.890600E+0	1.752733E+0	1.716947E+0	1.699545E+0	1.741985E+0	1.761480E+0	1.652117E+0	1.725346E+0	1.757898E+0	1.760744E+0	1.716837E+0	1.671468E+0	1.828395E+0	1.827197E+0	1.707432E+0	1.799141E+0	1.767436E+0	1.753197E+0	1.742900E+0	1.774545E+0	1.646547E+0	1.792732E+0	1.451140E+0
5.504950E+2	1.919256E+0	1.857807E+0	1.869476E+0	1.916748E+0	1.807917E+0	1.962268E+0	1.880619E+0	1.923615E+0	1.831762E+0	1.890177E+0	1.868437E+0	1.987660E+0	1.805183E+0	1.852787E+0	1.946656E+0	1.873864E+0	1.939630E+0	1.932628E+0	1.928940E+0	1.789364E+0	1.815745E+0	1.846971E+0	1.848576E+0	1.855620E+0	1.915626E+0	1.801118E+0	1.875553E+0	1.811268E+0	1.916078E+0	1.897063E+0	1.895286E+0	1.890576E+0	1.859201E+0	1.826205E+0	1.843071E+0	1.838069E+0	1.888204E+0	1.866391E+0	1.867345E+0	1.826510E+0	1.814255E+0	1.782711E+0	1.914808E+0	1.923342E+0	1.790314E+0	1.902204E+0	1.838195E+0	1.738003E+0	1.869713E+0	1.785224E+0	1.841536E+0	1.761360E+0	1.923009E+0	1.912918E+0	1.889635E+0	1.835155E+0	1.916721E+0	1.846545E+0	1.852420E+0	1.857616E+0	1.805146E+0	1.882463E+0	1.881501E+0	1.853242E+0	1.877946E+0	1.706965E+0	1.844736E+0	1.808645E+0	1.796397E+0	1.883169E+0	1.919726E+0	1.852392E+0	1.843338E+0	1.872423E+0	1.879672E+0	1.966954E+0	1.844243E+0	1.885281E+0	1.825568E+0	1.840178E+0	1.959179E+0	1.851292E+0	1.844467E+0	1.833268E+0	1.821851E+0	1.887927E+0	1.818743E+0	1.912925E+0	1.801208E+0	1.750387E+0	1.852795E+0	1.923291E+0	1.820453E+0	1.881612E+0	1.884487E+0	1.835054E+0	1.893225E+0	1.896984E+0	1.740551E+0	1.871899E+0	1.804931E+0	1.842055E+0	1.966139E+0	1.889325E+0	1.822517E+0	1.745937E+0	1.869708E+0	1.867862E+0	1.804981E+0	1.904890E+0	1.832832E+0	1.898366E+0	1.859318E+0	1.831783E+0	1.858437E+0	1.762443E+0	1.946223E+0	1.865698E+0	1.927691E+0	1.763590E+0	1.949401E+0	1.838960E+0	1.790020E+0	1.935823E+0	1.818479E+0	1.784593E+0	1.806045E+0	1.856483E+0	1.830526E+0	1.798786E+0	1.896102E+0	1.825404E+0	1.817961E+0	1.831721E+0	1.817358E+0	1.867212E+0	1.763260E+0	1.824554E+0	1.871832E+0	1.860230E+0	1.804868E+0	1.848695E+0	1.874977E+0	1.799891E+0	1.756767E+0	1.741408E+0	1.879086E+0	1.851930E+0	1.809860E+0	1.832503E+0	1.855458E+0	1.885664E+0	1.897344E+0	1.828356E+0	1.909208E+0	1.904088E+0	1.854875E+0	1.739550E+0	1.819848E+0	1.853157E+0	1.877634E+0	1.837235E+0	1.770477E+0	1.829044E+0	1.684602E+0
5.510080E+2	1.616818E+0	1.658447E+0	1.542686E+0	1.650252E+0	1.581618E+0	1.660715E+0	1.635377E+0	1.598414E+0	1.558909E+0	1.564094E+0	1.581117E+0	1.679741E+0	1.599081E+0	1.579935E+0	1.733135E+0	1.614951E+0	1.593205E+0	1.655251E+0	1.596579E+0	1.639183E+0	1.517264E+0	1.525939E+0	1.603073E+0	1.700028E+0	1.569974E+0	1.476727E+0	1.589534E+0	1.602044E+0	1.583387E+0	1.518862E+0	1.612571E+0	1.528304E+0	1.543190E+0	1.594297E+0	1.625397E+0	1.545856E+0	1.593670E+0	1.510128E+0	1.556300E+0	1.600571E+0	1.653075E+0	1.556118E+0	1.555064E+0	1.588383E+0	1.636771E+0	1.666663E+0	1.476136E+0	1.543269E+0	1.705079E+0	1.632609E+0	1.610029E+0	1.558792E+0	1.558516E+0	1.607685E+0	1.671667E+0	1.636353E+0	1.585630E+0	1.648982E+0	1.559955E+0	1.514767E+0	1.553661E+0	1.516557E+0	1.579606E+0	1.653835E+0	1.665475E+0	1.678827E+0	1.636623E+0	1.559538E+0	1.565033E+0	1.556015E+0	1.527578E+0	1.602799E+0	1.552999E+0	1.628854E+0	1.643488E+0	1.574728E+0	1.577786E+0	1.605215E+0	1.645141E+0	1.691151E+0	1.563113E+0	1.597916E+0	1.507090E+0	1.547827E+0	1.616418E+0	1.562395E+0	1.569348E+0	1.585167E+0	1.529414E+0	1.628023E+0	1.558861E+0	1.546345E+0	1.535553E+0	1.631160E+0	1.610077E+0	1.605665E+0	1.519801E+0	1.639150E+0	1.579945E+0	1.603573E+0	1.570535E+0	1.584872E+0	1.602459E+0	1.574650E+0	1.587628E+0	1.648774E+0	1.672640E+0	1.612494E+0	1.550614E+0	1.589294E+0	1.590906E+0	1.654342E+0	1.582630E+0	1.570876E+0	1.559795E+0	1.555690E+0	1.577335E+0	1.516128E+0	1.650270E+0	1.602033E+0	1.488186E+0	1.555294E+0	1.572497E+0	1.621293E+0	1.539836E+0	1.569371E+0	1.592215E+0	1.478770E+0	1.563369E+0	1.541463E+0	1.553807E+0	1.664333E+0	1.551083E+0	1.506915E+0	1.601087E+0	1.556077E+0	1.491696E+0	1.649814E+0	1.555810E+0	1.618130E+0	1.549060E+0	1.578158E+0	1.585826E+0	1.577683E+0	1.545354E+0	1.516843E+0	1.654316E+0	1.514750E+0	1.591414E+0	1.628978E+0	1.531102E+0	1.597733E+0	1.628172E+0	1.572109E+0	1.637369E+0	1.677556E+0	1.624239E+0	1.615862E+0	1.641415E+0	1.574101E+0	1.543618E+0	1.513818E+0	1.631357E+0	1.597314E+0	1.477358E+0
5.515000E+2	1.232110E+0	1.217632E+0	1.269649E+0	1.285483E+0	1.308664E+0	1.299498E+0	1.273114E+0	1.254303E+0	1.254272E+0	1.285323E+0	1.307267E+0	1.294634E+0	1.186657E+0	1.191005E+0	1.231041E+0	1.282243E+0	1.255544E+0	1.251537E+0	1.247456E+0	1.214250E+0	1.248527E+0	1.265581E+0	1.339350E+0	1.364234E+0	1.259010E+0	1.266777E+0	1.222447E+0	1.300433E+0	1.248300E+0	1.200586E+0	1.244993E+0	1.272706E+0	1.257500E+0	1.283931E+0	1.306011E+0	1.227923E+0	1.381388E+0	1.275633E+0	1.312577E+0	1.272835E+0	1.275681E+0	1.308388E+0	1.222731E+0	1.362285E+0	1.237040E+0	1.290127E+0	1.286092E+0	1.194516E+0	1.318800E+0	1.216729E+0	1.225776E+0	1.232505E+0	1.292309E+0	1.288185E+0	1.244758E+0	1.305811E+0	1.323549E+0	1.226700E+0	1.290006E+0	1.255638E+0	1.168334E+0	1.262049E+0	1.273133E+0	1.295524E+0	1.276676E+0	1.206092E+0	1.287125E+0	1.288765E+0	1.260783E+0	1.242168E+0	1.270061E+0	1.243417E+0	1.248904E+0	1.245317E+0	1.340705E+0	1.206320E+0	1.301235E+0	1.256888E+0	1.261101E+0	1.222507E+0	1.254096E+0	1.153018E+0	1.209372E+0	1.217166E+0	1.257040E+0	1.234337E+0	1.294377E+0	1.227549E+0	1.270487E+0	1.276653E+0	1.167819E+0	1.284368E+0	1.317705E+0	1.230507E+0	1.274336E+0	1.292295E+0	1.247959E+0	1.242737E+0	1.322927E+0	1.186300E+0	1.266714E+0	1.249745E+0	1.286241E+0	1.280845E+0	1.305934E+0	1.265635E+0	1.254280E+0	1.270997E+0	1.263569E+0	1.250579E+0	1.315622E+0	1.229264E+0	1.255763E+0	1.234866E+0	1.236840E+0	1.202095E+0	1.271720E+0	1.243140E+0	1.279933E+0	1.172579E+0	1.210765E+0	1.238259E+0	1.230950E+0	1.261352E+0	1.299742E+0	1.236320E+0	1.273473E+0	1.270077E+0	1.296561E+0	1.255776E+0	1.223799E+0	1.179683E+0	1.317279E+0	1.200957E+0	1.236915E+0	1.190850E+0	1.177874E+0	1.281839E+0	1.281467E+0	1.181218E+0	1.222734E+0	1.212830E+0	1.315067E+0	1.208329E+0	1.225544E+0	1.258939E+0	1.289414E+0	1.200065E+0	1.208192E+0	1.249632E+0	1.229965E+0	1.275235E+0	1.227312E+0	1.222263E+0	1.317579E+0	1.381121E+0	1.326632E+0	1.227929E+0	1.201334E+0	1.309235E+0	1.220353E+0	1.253459E+0	1.349424E+0	1.210258E+0	1.268602E+0
5.520040E+2	1.057227E+0	1.013062E+0	1.054097E+0	1.074125E+0	9.919723E-1	1.023654E+0	1.045359E+0	9.951950E-1	1.060288E+0	1.030032E+0	1.018070E+0	1.122191E+0	1.073267E+0	1.023397E+0	1.007333E+0	1.050867E+0	1.021374E+0	1.030112E+0	1.011724E+0	1.083513E+0	1.044850E+0	1.068894E+0	9.974311E-1	1.129351E+0	1.064811E+0	1.024577E+0	1.020613E+0	1.104162E+0	1.091736E+0	1.037617E+0	1.048714E+0	1.018063E+0	1.047196E+0	1.013283E+0	1.041951E+0	1.012438E+0	1.069376E+0	9.998969E-1	1.047126E+0	1.016150E+0	9.958682E-1	9.909662E-1	1.042041E+0	1.012507E+0	1.048353E+0	1.059750E+0	1.049678E+0	1.030765E+0	1.151816E+0	9.887657E-1	1.109198E+0	9.893559E-1	1.004693E+0	1.075235E+0	1.030054E+0	1.050145E+0	1.048122E+0	1.004171E+0	9.598453E-1	1.019931E+0	1.079574E+0	1.016727E+0	1.052879E+0	1.003105E+0	1.106405E+0	9.738642E-1	1.076165E+0	9.987253E-1	9.880511E-1	9.972772E-1	1.012078E+0	1.030864E+0	1.011522E+0	1.022013E+0	1.065828E+0	1.063757E+0	1.009040E+0	1.086706E+0	1.056911E+0	1.110074E+0	1.050872E+0	1.047111E+0	1.034674E+0	9.651045E-1	1.074194E+0	1.029997E+0	1.079256E+0	1.059377E+0	9.784232E-1	1.065030E+0	1.007409E+0	1.090518E+0	1.010615E+0	1.042695E+0	9.856350E-1	1.048616E+0	1.079274E+0	1.033962E+0	1.033623E+0	1.019292E+0	1.094968E+0	1.019568E+0	1.070852E+0	1.062435E+0	1.010696E+0	1.032249E+0	1.112260E+0	1.021049E+0	9.929896E-1	1.065525E+0	1.043836E+0	1.002369E+0	1.054948E+0	1.063552E+0	9.717215E-1	1.026852E+0	1.047033E+0	1.005898E+0	1.050064E+0	9.651859E-1	1.089719E+0	1.071664E+0	1.029287E+0	1.054777E+0	1.110039E+0	1.081641E+0	1.033332E+0	1.041882E+0	1.004693E+0	1.040841E+0	1.009690E+0	9.849267E-1	1.117054E+0	1.062547E+0	9.748203E-1	1.051876E+0	1.056122E+0	1.029663E+0	1.071348E+0	9.932037E-1	1.019747E+0	9.411112E-1	1.063346E+0	1.079629E+0	1.011540E+0	1.059780E+0	1.040384E+0	1.032141E+0	9.984901E-1	9.668334E-1	1.060303E+0	1.015727E+0	9.639740E-1	1.019611E+0	1.030512E+0	1.100925E+0	1.086835E+0	9.926125E-1	1.088209E+0	9.904425E-1	1.084531E+0	9.828230E-1	9.853993E-1	1.085795E+0	9.221758E-1
5.525040E+2	1.091691E+0	1.074194E+0	1.056626E+0	1.120268E+0	1.071967E+0	1.085829E+0	9.933822E-1	1.169136E+0	1.087811E+0	1.028881E+0	1.103580E+0	1.139033E+0	1.134337E+0	1.093790E+0	1.094207E+0	1.048567E+0	1.103652E+0	1.067194E+0	1.132672E+0	1.032886E+0	1.054133E+0	1.079295E+0	1.075152E+0	1.182017E+0	1.118987E+0	1.112360E+0	1.071392E+0	1.145621E+0	1.096505E+0	1.153611E+0	1.066426E+0	1.090281E+0	1.089029E+0	1.109511E+0	1.099454E+0	1.068512E+0	1.076986E+0	1.012463E+0	1.109639E+0	1.103117E+0	1.110767E+0	1.051937E+0	1.070689E+0	1.120396E+0	1.044764E+0	1.141882E+0	1.069090E+0	1.092000E+0	1.108013E+0	1.057811E+0	1.099479E+0	9.984678E-1	1.095348E+0	1.132938E+0	1.061250E+0	1.086743E+0	1.091663E+0	1.032548E+0	1.055245E+0	1.111947E+0	1.060798E+0	1.096632E+0	1.052064E+0	1.078714E+0	1.139068E+0	1.055945E+0	1.122961E+0	1.083490E+0	1.127243E+0	1.069799E+0	1.115220E+0	1.087958E+0	1.046927E+0	1.185238E+0	1.075861E+0	1.045058E+0	1.094608E+0	1.141107E+0	1.047644E+0	1.169912E+0	1.131621E+0	1.090284E+0	1.081852E+0	1.023128E+0	1.140113E+0	1.141268E+0	1.068924E+0	1.117764E+0	1.069784E+0	1.076965E+0	1.084212E+0	1.093287E+0	1.158155E+0	1.105225E+0	1.090335E+0	1.127409E+0	1.146568E+0	1.073912E+0	1.147061E+0	1.034189E+0	1.117574E+0	1.100602E+0	1.140673E+0	1.113641E+0	1.077074E+0	1.057389E+0	1.028595E+0	1.174561E+0	1.038773E+0	1.014616E+0	1.082688E+0	1.071066E+0	1.116342E+0	1.068832E+0	1.090926E+0	1.110857E+0	1.018567E+0	1.045508E+0	1.180244E+0	1.082415E+0	1.079002E+0	1.084290E+0	1.035699E+0	1.089967E+0	1.101734E+0	1.092229E+0	1.035639E+0	1.065183E+0	1.115519E+0	1.088515E+0	1.058000E+0	1.067823E+0	1.091598E+0	1.067910E+0	1.032399E+0	1.136584E+0	1.020526E+0	1.033808E+0	1.116940E+0	1.052202E+0	1.106564E+0	1.083236E+0	1.116707E+0	1.102232E+0	1.064440E+0	1.024719E+0	1.136093E+0	1.071296E+0	1.120572E+0	9.621761E-1	1.074234E+0	1.076690E+0	1.070363E+0	1.077695E+0	1.141551E+0	1.107678E+0	1.140060E+0	1.057668E+0	1.068994E+0	1.151948E+0	1.049508E+0	1.109079E+0	1.081562E+0	1.273245E+0	9.506589E-1
5.530150E+2	1.188500E+0	1.244409E+0	1.192052E+0	1.305584E+0	1.262923E+0	1.211680E+0	1.287199E+0	1.260400E+0	1.247330E+0	1.187499E+0	1.238883E+0	1.234441E+0	1.150465E+0	1.237121E+0	1.246657E+0	1.226168E+0	1.148644E+0	1.148371E+0	1.264681E+0	1.274766E+0	1.288639E+0	1.197742E+0	1.289094E+0	1.240084E+0	1.209696E+0	1.286073E+0	1.217628E+0	1.210883E+0	1.208845E+0	1.233977E+0	1.213345E+0	1.263643E+0	1.193558E+0	1.224297E+0	1.165008E+0	1.242738E+0	1.225379E+0	1.208747E+0	1.251985E+0	1.249940E+0	1.246049E+0	1.233529E+0	1.218444E+0	1.189187E+0	1.195603E+0	1.206209E+0	1.190523E+0	1.184556E+0	1.259451E+0	1.227450E+0	1.211759E+0	1.217965E+0	1.352510E+0	1.171833E+0	1.212962E+0	1.227941E+0	1.239235E+0	1.206717E+0	1.279630E+0	1.216841E+0	1.201134E+0	1.213839E+0	1.225810E+0	1.196175E+0	1.202880E+0	1.234186E+0	1.166437E+0	1.172690E+0	1.240180E+0	1.166362E+0	1.213337E+0	1.196750E+0	1.254334E+0	1.302624E+0	1.266093E+0	1.211191E+0	1.234631E+0	1.252729E+0	1.174594E+0	1.242819E+0	1.246764E+0	1.212748E+0	1.232723E+0	1.219342E+0	1.201222E+0	1.218006E+0	1.219821E+0	1.245670E+0	1.217605E+0	1.297482E+0	1.212597E+0	1.281504E+0	1.257250E+0	1.271435E+0	1.215865E+0	1.248645E+0	1.295849E+0	1.226481E+0	1.207712E+0	1.278308E+0	1.262952E+0	1.235842E+0	1.242246E+0	1.237358E+0	1.234951E+0	1.161609E+0	1.205048E+0	1.275847E+0	1.255796E+0	1.259364E+0	1.231842E+0	1.236339E+0	1.259050E+0	1.247028E+0	1.130438E+0	1.299323E+0	1.257462E+0	1.232676E+0	1.262017E+0	1.250771E+0	1.219720E+0	1.264012E+0	1.168392E+0	1.348510E+0	1.228099E+0	1.293819E+0	1.237757E+0	1.235244E+0	1.237048E+0	1.294538E+0	1.184305E+0	1.193780E+0	1.235091E+0	1.268602E+0	1.217751E+0	1.267280E+0	1.176302E+0	1.197936E+0	1.223337E+0	1.250716E+0	1.222864E+0	1.157785E+0	1.205231E+0	1.194354E+0	1.140780E+0	1.269519E+0	1.309268E+0	1.233513E+0	1.223665E+0	1.218636E+0	1.208823E+0	1.209249E+0	1.225229E+0	1.192069E+0	1.258600E+0	1.308775E+0	1.234620E+0	1.267409E+0	1.331740E+0	1.310260E+0	1.231506E+0	1.224468E+0	1.207355E+0	1.372408E+0	1.125742E+0
5.534770E+2	1.175352E+0	1.138839E+0	1.199548E+0	1.301987E+0	1.172478E+0	1.230507E+0	1.245670E+0	1.257588E+0	1.273652E+0	1.216852E+0	1.255099E+0	1.222732E+0	1.182012E+0	1.182085E+0	1.185175E+0	1.218046E+0	1.240311E+0	1.218891E+0	1.255335E+0	1.142874E+0	1.217204E+0	1.261047E+0	1.194286E+0	1.242705E+0	1.260656E+0	1.252882E+0	1.210461E+0	1.182784E+0	1.210343E+0	1.207147E+0	1.281639E+0	1.204253E+0	1.211464E+0	1.180103E+0	1.224377E+0	1.164024E+0	1.233747E+0	1.242309E+0	1.283944E+0	1.215213E+0	1.291010E+0	1.224653E+0	1.170178E+0	1.276432E+0	1.263369E+0	1.339249E+0	1.221296E+0	1.247930E+0	1.264002E+0	1.239805E+0	1.240249E+0	1.308978E+0	1.301842E+0	1.222131E+0	1.266245E+0	1.233537E+0	1.268462E+0	1.213034E+0	1.148363E+0	1.297640E+0	1.186189E+0	1.249469E+0	1.276360E+0	1.253726E+0	1.218405E+0	1.220871E+0	1.197377E+0	1.242239E+0	1.205902E+0	1.194915E+0	1.240393E+0	1.256021E+0	1.198402E+0	1.242515E+0	1.245720E+0	1.179075E+0	1.181457E+0	1.244604E+0	1.228008E+0	1.160229E+0	1.231351E+0	1.223564E+0	1.193149E+0	1.260586E+0	1.221197E+0	1.238413E+0	1.298953E+0	1.294019E+0	1.191883E+0	1.210740E+0	1.201433E+0	1.262693E+0	1.247493E+0	1.192070E+0	1.240368E+0	1.236088E+0	1.187941E+0	1.240594E+0	1.155767E+0	1.276220E+0	1.216804E+0	1.275157E+0	1.277480E+0	1.279315E+0	1.204434E+0	1.154860E+0	1.187565E+0	1.202751E+0	1.227129E+0	1.234840E+0	1.192536E+0	1.256619E+0	1.287160E+0	1.188440E+0	1.208201E+0	1.194384E+0	1.283118E+0	1.199269E+0	1.314026E+0	1.224513E+0	1.267695E+0	1.212674E+0	1.216154E+0	1.202433E+0	1.253374E+0	1.209030E+0	1.199432E+0	1.236898E+0	1.244013E+0	1.166372E+0	1.271505E+0	1.216361E+0	1.168548E+0	1.226449E+0	1.229452E+0	1.202539E+0	1.144124E+0	1.233983E+0	1.139507E+0	1.280475E+0	1.218171E+0	1.218494E+0	1.244887E+0	1.209250E+0	1.104600E+0	1.184932E+0	1.200341E+0	1.199492E+0	1.207379E+0	1.218070E+0	1.165357E+0	1.187002E+0	1.163087E+0	1.219683E+0	1.321493E+0	1.288705E+0	1.238546E+0	1.227579E+0	1.167280E+0	1.229843E+0	1.221242E+0	1.224036E+0	1.158256E+0	1.243156E+0	1.319508E+0
5.540290E+2	1.052265E+0	9.671243E-1	1.102556E+0	1.024379E+0	1.018239E+0	1.061282E+0	1.023563E+0	1.076328E+0	9.926577E-1	1.068662E+0	1.007578E+0	1.093783E+0	1.088027E+0	9.923085E-1	9.641411E-1	1.017080E+0	1.030303E+0	1.082247E+0	9.804798E-1	1.025851E+0	1.008473E+0	9.973858E-1	1.078712E+0	1.045847E+0	1.044148E+0	1.060489E+0	1.030974E+0	1.105887E+0	1.048967E+0	1.035259E+0	1.091909E+0	1.048875E+0	9.895192E-1	1.096158E+0	1.033906E+0	1.022005E+0	1.000499E+0	1.011033E+0	1.069872E+0	1.039856E+0	1.052365E+0	9.542183E-1	1.015353E+0	1.042587E+0	1.063829E+0	1.044992E+0	1.040221E+0	1.039260E+0	1.012358E+0	1.079321E+0	1.039904E+0	9.634486E-1	1.026242E+0	1.037383E+0	1.041436E+0	9.946881E-1	1.027425E+0	9.796416E-1	1.055285E+0	1.032538E+0	1.040446E+0	1.060470E+0	1.057499E+0	1.053079E+0	1.139209E+0	1.101368E+0	1.014747E+0	1.096778E+0	1.038086E+0	9.943067E-1	1.022356E+0	1.003373E+0	9.887016E-1	9.905303E-1	1.067336E+0	1.034304E+0	1.043452E+0	1.068079E+0	1.050738E+0	1.015418E+0	1.051550E+0	1.073605E+0	1.018778E+0	9.971394E-1	1.077162E+0	1.040661E+0	1.044049E+0	1.021876E+0	1.054617E+0	1.018923E+0	1.057402E+0	1.021498E+0	9.717993E-1	1.036012E+0	1.038910E+0	9.967274E-1	1.007212E+0	1.047611E+0	1.110316E+0	1.064869E+0	1.060161E+0	1.108757E+0	1.003694E+0	1.047851E+0	1.033410E+0	9.794806E-1	1.038431E+0	1.112376E+0	1.042937E+0	1.097577E+0	1.043353E+0	1.061393E+0	1.014680E+0	1.038210E+0	9.876315E-1	1.056907E+0	1.078077E+0	9.916188E-1	1.123811E+0	1.059939E+0	1.097986E+0	1.048362E+0	9.607036E-1	1.059169E+0	1.023739E+0	1.057818E+0	1.065129E+0	1.003953E+0	1.078739E+0	1.073093E+0	9.775138E-1	1.058366E+0	1.017622E+0	9.736732E-1	1.018264E+0	1.039608E+0	9.755655E-1	1.025070E+0	1.082849E+0	1.085246E+0	9.995091E-1	1.032805E+0	1.070510E+0	1.055931E+0	1.032784E+0	9.852918E-1	1.007341E+0	9.659783E-1	1.066150E+0	1.044110E+0	1.041827E+0	1.082798E+0	1.016981E+0	9.843693E-1	9.788415E-1	9.836037E-1	9.913204E-1	9.994410E-1	1.056829E+0	1.137879E+0	9.865124E-1	9.868590E-1	1.068790E+0	1.000663E+0	9.345946E-1
5.550140E+2	9.622309E-1	9.364573E-1	8.898393E-1	9.133845E-1	8.940941E-1	8.859098E-1	8.744727E-1	9.544749E-1	8.985502E-1	9.261041E-1	9.885270E-1	9.937764E-1	9.186316E-1	8.915536E-1	9.364791E-1	9.704857E-1	9.073935E-1	9.299290E-1	9.620662E-1	9.182569E-1	9.249781E-1	8.920475E-1	9.293088E-1	9.739450E-1	9.020998E-1	8.948930E-1	9.047957E-1	9.869308E-1	9.741520E-1	9.378551E-1	9.213023E-1	9.398301E-1	9.142150E-1	9.230208E-1	9.229100E-1	8.874254E-1	9.291853E-1	9.309060E-1	9.953819E-1	9.293723E-1	9.129395E-1	9.499486E-1	9.442458E-1	9.273097E-1	9.399071E-1	9.124994E-1	9.260726E-1	9.108923E-1	9.983199E-1	8.796395E-1	9.110783E-1	8.912624E-1	9.873455E-1	9.571000E-1	8.940098E-1	9.494424E-1	9.776021E-1	9.222275E-1	8.817580E-1	8.999923E-1	9.387706E-1	9.143118E-1	9.371943E-1	9.181886E-1	9.551886E-1	1.000059E+0	9.543968E-1	1.003868E+0	8.940849E-1	9.069129E-1	9.495525E-1	9.693858E-1	9.025320E-1	9.407584E-1	9.604526E-1	9.435907E-1	9.215315E-1	9.252656E-1	9.832233E-1	9.152316E-1	9.626669E-1	9.873494E-1	8.957408E-1	8.814659E-1	9.163903E-1	9.268982E-1	9.714021E-1	9.271424E-1	9.540388E-1	8.598118E-1	9.093963E-1	9.620791E-1	8.810116E-1	1.029333E+0	8.955706E-1	9.138860E-1	9.665857E-1	9.465106E-1	9.613789E-1	9.389119E-1	9.375911E-1	9.687364E-1	9.082883E-1	9.214255E-1	9.686365E-1	8.700468E-1	1.012666E+0	9.499359E-1	8.794537E-1	9.394033E-1	9.114573E-1	8.958938E-1	9.566467E-1	8.989338E-1	9.677252E-1	8.761687E-1	9.668020E-1	9.665639E-1	1.009454E+0	9.716897E-1	9.009842E-1	9.119161E-1	9.054396E-1	9.513310E-1	8.957459E-1	8.766106E-1	9.268404E-1	8.557211E-1	9.290529E-1	9.040045E-1	9.275267E-1	9.536063E-1	9.418922E-1	9.316405E-1	9.385408E-1	9.326195E-1	9.417936E-1	9.242697E-1	9.000248E-1	9.790921E-1	9.041980E-1	9.385247E-1	9.031476E-1	9.203529E-1	8.832301E-1	9.235550E-1	8.945523E-1	9.634538E-1	9.360884E-1	9.790385E-1	9.677326E-1	8.974727E-1	9.885120E-1	8.608934E-1	8.799279E-1	9.960234E-1	9.774321E-1	8.742655E-1	9.469269E-1	9.873470E-1	9.754429E-1	8.685199E-1	9.039289E-1	9.162642E-1	8.250025E-1
5.560300E+2	8.857973E-1	8.686002E-1	8.558174E-1	9.422739E-1	8.844985E-1	8.460478E-1	8.208901E-1	9.008379E-1	8.764676E-1	8.854089E-1	8.246839E-1	8.574679E-1	8.408846E-1	8.442045E-1	8.090508E-1	8.228929E-1	8.774742E-1	8.826478E-1	8.336418E-1	7.932542E-1	8.902218E-1	8.958408E-1	8.100123E-1	8.631926E-1	8.396789E-1	8.275159E-1	8.358784E-1	8.801421E-1	8.592927E-1	8.530355E-1	8.492513E-1	9.281099E-1	8.301817E-1	8.886465E-1	8.447969E-1	8.556171E-1	8.382174E-1	8.522098E-1	8.996287E-1	8.887537E-1	8.566163E-1	8.066658E-1	8.378797E-1	8.356735E-1	8.763239E-1	8.587828E-1	8.329049E-1	8.123847E-1	8.130440E-1	8.783030E-1	8.718937E-1	8.771161E-1	9.101934E-1	8.386911E-1	8.564827E-1	8.370023E-1	8.493975E-1	8.685957E-1	8.593793E-1	8.551240E-1	8.623235E-1	8.624983E-1	8.702872E-1	8.002058E-1	9.182855E-1	8.883777E-1	8.687013E-1	8.480225E-1	8.335232E-1	8.985306E-1	8.728711E-1	8.522874E-1	8.104608E-1	8.784229E-1	8.213484E-1	8.563404E-1	8.467612E-1	8.776744E-1	8.682546E-1	9.076228E-1	8.531931E-1	7.960554E-1	8.646836E-1	8.480416E-1	9.074974E-1	9.021985E-1	8.101334E-1	8.293053E-1	8.841341E-1	8.853019E-1	8.648345E-1	9.261258E-1	8.093251E-1	9.078137E-1	8.794118E-1	8.225436E-1	8.638442E-1	8.790036E-1	9.026620E-1	8.338282E-1	8.739457E-1	9.074696E-1	8.347572E-1	9.209733E-1	8.190609E-1	9.049652E-1	8.425918E-1	8.547973E-1	8.350761E-1	8.809409E-1	8.790603E-1	8.512854E-1	8.457717E-1	8.811366E-1	8.864004E-1	8.989846E-1	8.034550E-1	8.495718E-1	8.974330E-1	8.388216E-1	8.611994E-1	8.694520E-1	8.690396E-1	8.968407E-1	8.856262E-1	8.264931E-1	8.206086E-1	8.751468E-1	8.757267E-1	9.120993E-1	8.391348E-1	9.170422E-1	8.677973E-1	9.083817E-1	8.203668E-1	9.310308E-1	8.653063E-1	8.360615E-1	8.811912E-1	8.232245E-1	8.755923E-1	8.276334E-1	9.171759E-1	8.628605E-1	8.455469E-1	8.520314E-1	9.111317E-1	8.816854E-1	8.577716E-1	8.248947E-1	8.487687E-1	8.694297E-1	8.092547E-1	8.771804E-1	7.968635E-1	8.799889E-1	9.286215E-1	8.353989E-1	8.149191E-1	9.385089E-1	8.228513E-1	8.821488E-1	8.702537E-1	8.989920E-1	8.196782E-1
5.570330E+2	1.024873E+0	1.129609E+0	1.042413E+0	1.051842E+0	1.068279E+0	1.082234E+0	1.053325E+0	1.051644E+0	1.051053E+0	1.001348E+0	1.069308E+0	1.092630E+0	1.030212E+0	1.044980E+0	9.983460E-1	1.095639E+0	1.067744E+0	1.043324E+0	1.064575E+0	9.748753E-1	1.091496E+0	1.051642E+0	1.044458E+0	1.053492E+0	1.106927E+0	1.008777E+0	1.031525E+0	1.075074E+0	1.028224E+0	1.037048E+0	1.069681E+0	1.047745E+0	1.036712E+0	1.081055E+0	1.023631E+0	1.048699E+0	1.060281E+0	1.010157E+0	1.013119E+0	1.020288E+0	1.009151E+0	9.884780E-1	1.017809E+0	1.100118E+0	1.118765E+0	1.078660E+0	1.007320E+0	1.119068E+0	1.018115E+0	1.069519E+0	1.047940E+0	1.061463E+0	1.035924E+0	1.024278E+0	1.029601E+0	1.103382E+0	1.018079E+0	1.047246E+0	1.038102E+0	1.080785E+0	1.062233E+0	1.022288E+0	1.060511E+0	1.007829E+0	1.142657E+0	1.023257E+0	1.072022E+0	9.714787E-1	1.028115E+0	1.047479E+0	1.049931E+0	1.053946E+0	1.011120E+0	1.092103E+0	1.081868E+0	1.040140E+0	1.053877E+0	1.041903E+0	1.032963E+0	1.041102E+0	1.008391E+0	1.052965E+0	1.052887E+0	1.083509E+0	1.112413E+0	9.818226E-1	1.090836E+0	1.017663E+0	1.015869E+0	1.039681E+0	1.048407E+0	1.054115E+0	1.040391E+0	1.130967E+0	1.054883E+0	1.082205E+0	1.010615E+0	1.051944E+0	1.104347E+0	1.041395E+0	1.042053E+0	1.076939E+0	1.054051E+0	1.040645E+0	1.047402E+0	1.066284E+0	9.812910E-1	1.042190E+0	1.084916E+0	1.087293E+0	1.125282E+0	1.049559E+0	1.034890E+0	1.024705E+0	1.114998E+0	1.067191E+0	1.063937E+0	1.008127E+0	1.055967E+0	9.615604E-1	1.051697E+0	1.065053E+0	1.072139E+0	1.035420E+0	1.025492E+0	1.094588E+0	1.052387E+0	1.081883E+0	1.026424E+0	1.086915E+0	1.076127E+0	9.951816E-1	1.097146E+0	1.036833E+0	1.001920E+0	1.087948E+0	9.733971E-1	1.069411E+0	1.049271E+0	1.025954E+0	1.006530E+0	1.045537E+0	1.056652E+0	1.022561E+0	1.055477E+0	9.941202E-1	1.048311E+0	1.044644E+0	1.046693E+0	1.072679E+0	1.028945E+0	9.692622E-1	1.071604E+0	1.080612E+0	1.037755E+0	1.138550E+0	1.066354E+0	1.056490E+0	1.081182E+0	1.060210E+0	1.058065E+0	9.804997E-1	1.085090E+0	1.149159E+0	9.537981E-1
5.580110E+2	1.303653E+0	1.211146E+0	1.248449E+0	1.284690E+0	1.314769E+0	1.195116E+0	1.314693E+0	1.275204E+0	1.239890E+0	1.261075E+0	1.288928E+0	1.259872E+0	1.319941E+0	1.196913E+0	1.234606E+0	1.239480E+0	1.249113E+0	1.206025E+0	1.278862E+0	1.311134E+0	1.249018E+0	1.230289E+0	1.224088E+0	1.256827E+0	1.261055E+0	1.268698E+0	1.285027E+0	1.228970E+0	1.234844E+0	1.286422E+0	1.243679E+0	1.233029E+0	1.309595E+0	1.229564E+0	1.315693E+0	1.288783E+0	1.191768E+0	1.235812E+0	1.227800E+0	1.226699E+0	1.230179E+0	1.261434E+0	1.309213E+0	1.309437E+0	1.303485E+0	1.249952E+0	1.273679E+0	1.227787E+0	1.324270E+0	1.220189E+0	1.293203E+0	1.269563E+0	1.192282E+0	1.276962E+0	1.269503E+0	1.241358E+0	1.263913E+0	1.268530E+0	1.329167E+0	1.288022E+0	1.312883E+0	1.334907E+0	1.308176E+0	1.258718E+0	1.268874E+0	1.187275E+0	1.314319E+0	1.286878E+0	1.281251E+0	1.263033E+0	1.246651E+0	1.204425E+0	1.191584E+0	1.218938E+0	1.207910E+0	1.278512E+0	1.224899E+0	1.225142E+0	1.245053E+0	1.315291E+0	1.318646E+0	1.272561E+0	1.242787E+0	1.266077E+0	1.290389E+0	1.281544E+0	1.261042E+0	1.252003E+0	1.257780E+0	1.348263E+0	1.225221E+0	1.233203E+0	1.303905E+0	1.180146E+0	1.277549E+0	1.229627E+0	1.315576E+0	1.293305E+0	1.256339E+0	1.244611E+0	1.271571E+0	1.243612E+0	1.236198E+0	1.287943E+0	1.312868E+0	1.241676E+0	1.286493E+0	1.238472E+0	1.291412E+0	1.276171E+0	1.258267E+0	1.266716E+0	1.273358E+0	1.304341E+0	1.301927E+0	1.272068E+0	1.318095E+0	1.200636E+0	1.261255E+0	1.197962E+0	1.195261E+0	1.258068E+0	1.268492E+0	1.333202E+0	1.287396E+0	1.211835E+0	1.282326E+0	1.302004E+0	1.216155E+0	1.199748E+0	1.227853E+0	1.250590E+0	1.281018E+0	1.248782E+0	1.261804E+0	1.329426E+0	1.290061E+0	1.249240E+0	1.241421E+0	1.211474E+0	1.248156E+0	1.190814E+0	1.217112E+0	1.282262E+0	1.211638E+0	1.207761E+0	1.223588E+0	1.237927E+0	1.285674E+0	1.273717E+0	1.325172E+0	1.288366E+0	1.210262E+0	1.189182E+0	1.262457E+0	1.291234E+0	1.253905E+0	1.284227E+0	1.302854E+0	1.283941E+0	1.249212E+0	1.228579E+0	1.219011E+0	1.192667E+0	1.359315E+0
5.590390E+2	1.310437E+0	1.266112E+0	1.273358E+0	1.277299E+0	1.243702E+0	1.237757E+0	1.210364E+0	1.238818E+0	1.227411E+0	1.233299E+0	1.272051E+0	1.259538E+0	1.217331E+0	1.285450E+0	1.254995E+0	1.228183E+0	1.249332E+0	1.255912E+0	1.141119E+0	1.262373E+0	1.238486E+0	1.285826E+0	1.252756E+0	1.207055E+0	1.267686E+0	1.222953E+0	1.226068E+0	1.196432E+0	1.290118E+0	1.190329E+0	1.236900E+0	1.258629E+0	1.264574E+0	1.218918E+0	1.196150E+0	1.215867E+0	1.174969E+0	1.218969E+0	1.287577E+0	1.206711E+0	1.226148E+0	1.213673E+0	1.195765E+0	1.203306E+0	1.256230E+0	1.262127E+0	1.177467E+0	1.223471E+0	1.226198E+0	1.244309E+0	1.269547E+0	1.208672E+0	1.224860E+0	1.187346E+0	1.232398E+0	1.243125E+0	1.172733E+0	1.282456E+0	1.225389E+0	1.221153E+0	1.177888E+0	1.181313E+0	1.272197E+0	1.249610E+0	1.186704E+0	1.251486E+0	1.190069E+0	1.197783E+0	1.300659E+0	1.210868E+0	1.225473E+0	1.238576E+0	1.290958E+0	1.219665E+0	1.203947E+0	1.217364E+0	1.227459E+0	1.272809E+0	1.209380E+0	1.223298E+0	1.261090E+0	1.244863E+0	1.229579E+0	1.264067E+0	1.212036E+0	1.269647E+0	1.284139E+0	1.253357E+0	1.209906E+0	1.187207E+0	1.282131E+0	1.192932E+0	1.253574E+0	1.194783E+0	1.190537E+0	1.248704E+0	1.274707E+0	1.187538E+0	1.187725E+0	1.218416E+0	1.230846E+0	1.267363E+0	1.199264E+0	1.168603E+0	1.164000E+0	1.268956E+0	1.233932E+0	1.243279E+0	1.230747E+0	1.206647E+0	1.177640E+0	1.175314E+0	1.165932E+0	1.200393E+0	1.199888E+0	1.234773E+0	1.175287E+0	1.232524E+0	1.258550E+0	1.238575E+0	1.301034E+0	1.175241E+0	1.246858E+0	1.214864E+0	1.257056E+0	1.267405E+0	1.227223E+0	1.207643E+0	1.246248E+0	1.203384E+0	1.232897E+0	1.178197E+0	1.230420E+0	1.220545E+0	1.284049E+0	1.196926E+0	1.174538E+0	1.217147E+0	1.217298E+0	1.199671E+0	1.215232E+0	1.236769E+0	1.253278E+0	1.192658E+0	1.205195E+0	1.264254E+0	1.240498E+0	1.213150E+0	1.220565E+0	1.168134E+0	1.219575E+0	1.122611E+0	1.283279E+0	1.195583E+0	1.251517E+0	1.223404E+0	1.182429E+0	1.247742E+0	1.236100E+0	1.247270E+0	1.254443E+0	1.178143E+0	1.195436E+0	1.183536E+0	1.232372E+0
5.600180E+2	1.020408E+0	9.974732E-1	1.015211E+0	1.011184E+0	1.046437E+0	1.042407E+0	9.938695E-1	1.008151E+0	1.061038E+0	9.837979E-1	1.048373E+0	1.021653E+0	1.046594E+0	1.059856E+0	1.012877E+0	1.082057E+0	1.089926E+0	1.027284E+0	1.046473E+0	9.803686E-1	9.914353E-1	1.039641E+0	1.075616E+0	9.846070E-1	1.002822E+0	1.059326E+0	1.066936E+0	1.046289E+0	1.025255E+0	1.038947E+0	1.076525E+0	1.016539E+0	1.041611E+0	1.046961E+0	1.060719E+0	1.086053E+0	1.098064E+0	1.027201E+0	1.077930E+0	1.049193E+0	1.041261E+0	1.051516E+0	1.009462E+0	1.067961E+0	1.045559E+0	1.087605E+0	1.052129E+0	1.059142E+0	1.057252E+0	1.063137E+0	9.619775E-1	1.001892E+0	1.046995E+0	9.979392E-1	1.067572E+0	1.026075E+0	1.112219E+0	1.015061E+0	1.064119E+0	1.008957E+0	1.029728E+0	1.041148E+0	1.063521E+0	1.023892E+0	1.038198E+0	1.054534E+0	9.861412E-1	9.987736E-1	1.021161E+0	9.735588E-1	1.052753E+0	1.044204E+0	1.046938E+0	1.080694E+0	1.064260E+0	1.015498E+0	1.011761E+0	1.049134E+0	1.047462E+0	1.045336E+0	1.062452E+0	1.086938E+0	1.026758E+0	1.010057E+0	1.038524E+0	1.061137E+0	1.033610E+0	1.024077E+0	1.031969E+0	1.016736E+0	1.038379E+0	1.053579E+0	1.006951E+0	1.010213E+0	9.926525E-1	1.013876E+0	9.794728E-1	1.024761E+0	1.065833E+0	1.035675E+0	1.083861E+0	9.882696E-1	9.830517E-1	1.064269E+0	1.044299E+0	1.052838E+0	9.839047E-1	1.029706E+0	9.779619E-1	1.049690E+0	1.069521E+0	1.058410E+0	1.015723E+0	1.046395E+0	1.073476E+0	1.028235E+0	1.088839E+0	1.079942E+0	1.045949E+0	1.038799E+0	1.045006E+0	1.066297E+0	1.058535E+0	1.052066E+0	9.596539E-1	1.046408E+0	1.054217E+0	1.075235E+0	9.764973E-1	1.091650E+0	1.022024E+0	1.075606E+0	1.059250E+0	1.093412E+0	1.085094E+0	1.051220E+0	1.021104E+0	1.036493E+0	1.062488E+0	1.097156E+0	1.044943E+0	1.069289E+0	1.029368E+0	9.970681E-1	1.021272E+0	1.067898E+0	9.845649E-1	1.003236E+0	1.076960E+0	1.004200E+0	1.057364E+0	1.001319E+0	1.031175E+0	1.036735E+0	1.071877E+0	9.549195E-1	9.766494E-1	1.058166E+0	1.021823E+0	1.023859E+0	1.049435E+0	1.047827E+0	1.026502E+0	1.127396E+0	9.909755E-1
5.610130E+2	8.617053E-1	9.177757E-1	8.167312E-1	7.955075E-1	9.193256E-1	9.289793E-1	8.750491E-1	8.800410E-1	8.908786E-1	9.169128E-1	8.848946E-1	9.087330E-1	8.523377E-1	8.683411E-1	8.984243E-1	8.864726E-1	8.727888E-1	8.589379E-1	8.120838E-1	9.058623E-1	8.638062E-1	8.281173E-1	8.568612E-1	8.931065E-1	9.018502E-1	8.533936E-1	8.653968E-1	8.501356E-1	9.038033E-1	8.959970E-1	8.839592E-1	8.303011E-1	8.660250E-1	8.634944E-1	8.530665E-1	9.002244E-1	8.673034E-1	9.069914E-1	8.882506E-1	9.007518E-1	8.707422E-1	8.509505E-1	9.007502E-1	8.271168E-1	9.028586E-1	8.718023E-1	8.684898E-1	8.640403E-1	8.590640E-1	8.728016E-1	8.430316E-1	9.021032E-1	8.426757E-1	8.554424E-1	9.036272E-1	8.782400E-1	8.534034E-1	8.654509E-1	8.765999E-1	8.711933E-1	9.313851E-1	8.641431E-1	8.807796E-1	8.681537E-1	8.878029E-1	8.829913E-1	8.252822E-1	8.778131E-1	9.042963E-1	9.120752E-1	7.745370E-1	8.655928E-1	9.075758E-1	9.304923E-1	8.757589E-1	8.952989E-1	8.898308E-1	8.611786E-1	9.672527E-1	9.126410E-1	8.453749E-1	8.647678E-1	8.048652E-1	8.667690E-1	8.800830E-1	8.522258E-1	8.265412E-1	8.728233E-1	8.939351E-1	8.622325E-1	8.678673E-1	8.395258E-1	9.013632E-1	8.680145E-1	9.327524E-1	8.902257E-1	8.291951E-1	8.931958E-1	8.833923E-1	8.441191E-1	9.332938E-1	8.371927E-1	8.911263E-1	8.752245E-1	8.985483E-1	8.651210E-1	8.602613E-1	8.797347E-1	9.328142E-1	9.080928E-1	9.182946E-1	9.458352E-1	9.656371E-1	8.785591E-1	8.182404E-1	8.880679E-1	9.096365E-1	8.688459E-1	8.687955E-1	9.116008E-1	8.369602E-1	8.795234E-1	8.509160E-1	8.617489E-1	8.621105E-1	8.759252E-1	8.459454E-1	8.606089E-1	8.788504E-1	8.774543E-1	8.558543E-1	8.349047E-1	8.604176E-1	8.332811E-1	8.652776E-1	9.128996E-1	8.716287E-1	8.527163E-1	8.572357E-1	9.442400E-1	9.359649E-1	8.906492E-1	8.478050E-1	8.838107E-1	8.843162E-1	9.247218E-1	8.976678E-1	8.609234E-1	8.707325E-1	8.850224E-1	8.531655E-1	8.595988E-1	8.532498E-1	9.102541E-1	8.540908E-1	8.652452E-1	9.496930E-1	8.601243E-1	8.123652E-1	8.728467E-1	8.787009E-1	9.042719E-1	8.496521E-1	8.243157E-1	9.500849E-1
5.620220E+2	7.700068E-1	7.808173E-1	7.190986E-1	7.701753E-1	8.039175E-1	7.886824E-1	7.632713E-1	7.599083E-1	7.981257E-1	7.478157E-1	7.827904E-1	7.506743E-1	7.412304E-1	7.676250E-1	7.227542E-1	7.706714E-1	7.063069E-1	7.467520E-1	7.717424E-1	6.834028E-1	7.565033E-1	7.347550E-1	7.704908E-1	7.767111E-1	7.748602E-1	7.436693E-1	7.444637E-1	8.214854E-1	7.324812E-1	7.864843E-1	7.736715E-1	8.019469E-1	7.446279E-1	7.464179E-1	7.577086E-1	7.446899E-1	8.121726E-1	7.400784E-1	7.041557E-1	7.790844E-1	7.254138E-1	7.491745E-1	7.775512E-1	7.786816E-1	7.530841E-1	7.793925E-1	7.525772E-1	7.650034E-1	7.963135E-1	6.864424E-1	7.813992E-1	8.006319E-1	7.845775E-1	7.238228E-1	7.134096E-1	7.788941E-1	7.674289E-1	7.354422E-1	7.279033E-1	7.431228E-1	7.809051E-1	7.201911E-1	7.391868E-1	8.055325E-1	7.521623E-1	7.410121E-1	8.147591E-1	7.877774E-1	7.412733E-1	7.352494E-1	7.506185E-1	8.007290E-1	7.868295E-1	7.552324E-1	7.459025E-1	7.669246E-1	7.624739E-1	7.135592E-1	7.727750E-1	7.032412E-1	7.172231E-1	7.296197E-1	8.512859E-1	7.765723E-1	7.901563E-1	7.467391E-1	7.365074E-1	8.086969E-1	7.015857E-1	6.902115E-1	7.530607E-1	7.681669E-1	7.645523E-1	8.074073E-1	7.617628E-1	7.530268E-1	7.856239E-1	7.432319E-1	7.368586E-1	7.397987E-1	7.357716E-1	7.983964E-1	7.622621E-1	7.448185E-1	7.328380E-1	7.912472E-1	7.884834E-1	7.508866E-1	7.284763E-1	7.009988E-1	7.674019E-1	7.370137E-1	7.573411E-1	7.647514E-1	7.779550E-1	7.492650E-1	7.421081E-1	7.558136E-1	6.957567E-1	7.825362E-1	7.946128E-1	7.314519E-1	7.560596E-1	7.904988E-1	7.816358E-1	7.540450E-1	7.904280E-1	8.104637E-1	8.053001E-1	7.832888E-1	8.137811E-1	6.998139E-1	7.655108E-1	7.393261E-1	7.329051E-1	7.856221E-1	7.765810E-1	7.647585E-1	7.771289E-1	7.767418E-1	7.673970E-1	7.427137E-1	7.375137E-1	7.505961E-1	8.134301E-1	6.965597E-1	7.682197E-1	7.638015E-1	7.017924E-1	7.670004E-1	7.597807E-1	7.394732E-1	7.701560E-1	7.482715E-1	7.726199E-1	8.149478E-1	7.665113E-1	7.714462E-1	7.930289E-1	7.017500E-1	7.252840E-1	7.644756E-1	7.433940E-1	8.110005E-1	8.555937E-1
5.629840E+2	8.377341E-1	8.579394E-1	8.386537E-1	8.802431E-1	7.956509E-1	8.181223E-1	8.091543E-1	9.072116E-1	8.769542E-1	8.614908E-1	8.803543E-1	8.884825E-1	8.346491E-1	8.244830E-1	9.341268E-1	8.609793E-1	8.596468E-1	9.073447E-1	9.068563E-1	9.257425E-1	8.672247E-1	8.424545E-1	8.249996E-1	8.474574E-1	8.408577E-1	8.569449E-1	8.207532E-1	8.241343E-1	8.196641E-1	8.376882E-1	8.323350E-1	8.624280E-1	8.484298E-1	7.914541E-1	8.333947E-1	8.771450E-1	8.382960E-1	8.915779E-1	8.498655E-1	8.679499E-1	8.560720E-1	8.226534E-1	8.622956E-1	8.542711E-1	8.101005E-1	8.446179E-1	9.347100E-1	8.486490E-1	8.162458E-1	9.038278E-1	8.385939E-1	8.618661E-1	8.687328E-1	8.240000E-1	8.346038E-1	8.823426E-1	8.338446E-1	8.411601E-1	7.993118E-1	8.450493E-1	8.463918E-1	8.469116E-1	8.256882E-1	8.770031E-1	8.293319E-1	8.623384E-1	8.502225E-1	8.514790E-1	8.733856E-1	8.802835E-1	8.838500E-1	8.565112E-1	8.890727E-1	8.703820E-1	8.686218E-1	8.529111E-1	8.976790E-1	8.649531E-1	8.733739E-1	9.086737E-1	8.146223E-1	8.767379E-1	9.300010E-1	8.513079E-1	8.887894E-1	8.315037E-1	9.299235E-1	8.315366E-1	8.962383E-1	8.785907E-1	8.649883E-1	8.322463E-1	8.884173E-1	9.115951E-1	8.465828E-1	8.919010E-1	8.395166E-1	8.649905E-1	8.382554E-1	9.438311E-1	8.411859E-1	8.957744E-1	8.625434E-1	8.745548E-1	8.977989E-1	8.959988E-1	8.277479E-1	8.729538E-1	8.620948E-1	8.694945E-1	8.506903E-1	8.413248E-1	8.212192E-1	8.709275E-1	8.202269E-1	8.118127E-1	8.983830E-1	8.672576E-1	9.113061E-1	8.562634E-1	8.646265E-1	8.251788E-1	8.161205E-1	8.803078E-1	8.607589E-1	9.386870E-1	9.235322E-1	8.038341E-1	8.887884E-1	8.296218E-1	8.498424E-1	9.300767E-1	8.073576E-1	8.595552E-1	8.323592E-1	8.142770E-1	8.757029E-1	9.215691E-1	8.882039E-1	8.273004E-1	8.128133E-1	8.840843E-1	8.760657E-1	8.179316E-1	8.874579E-1	8.910590E-1	9.334010E-1	9.083418E-1	8.463016E-1	9.291211E-1	8.726664E-1	9.243823E-1	8.432142E-1	8.420014E-1	8.426930E-1	8.676634E-1	8.672484E-1	8.877787E-1	8.575641E-1	8.573428E-1	8.630235E-1	8.080445E-1	8.363259E-1	9.122776E-1	8.849620E-1
5.640120E+2	1.044023E+0	1.027713E+0	1.110424E+0	1.095548E+0	1.089222E+0	1.010677E+0	1.089549E+0	1.048558E+0	1.027344E+0	1.044102E+0	1.022312E+0	1.054848E+0	1.082947E+0	9.813734E-1	1.053325E+0	1.080398E+0	1.034017E+0	1.067496E+0	1.098233E+0	1.073785E+0	1.048272E+0	1.117238E+0	1.038773E+0	1.058271E+0	1.029141E+0	1.105791E+0	1.073150E+0	1.043815E+0	1.091999E+0	1.052842E+0	1.020113E+0	1.114548E+0	1.034495E+0	1.134115E+0	1.000881E+0	1.128383E+0	1.070968E+0	1.044539E+0	1.040532E+0	1.065306E+0	1.093990E+0	1.147341E+0	1.076899E+0	1.082103E+0	1.051052E+0	1.078044E+0	1.044010E+0	1.058491E+0	1.082182E+0	1.023355E+0	1.093507E+0	1.075355E+0	1.076340E+0	1.096995E+0	1.098670E+0	1.049759E+0	1.079937E+0	1.082956E+0	1.025461E+0	1.136970E+0	1.026352E+0	1.029837E+0	9.824426E-1	1.069982E+0	1.085448E+0	1.045333E+0	1.110362E+0	1.053529E+0	1.010950E+0	1.102114E+0	1.091661E+0	1.041916E+0	1.056788E+0	1.047842E+0	1.081089E+0	1.039104E+0	1.062294E+0	9.992102E-1	1.040693E+0	1.052158E+0	1.019673E+0	1.065805E+0	1.064881E+0	1.047133E+0	1.061186E+0	1.050444E+0	1.045926E+0	1.126252E+0	1.081530E+0	1.037260E+0	9.925386E-1	1.083737E+0	1.029815E+0	1.055198E+0	1.078079E+0	1.130359E+0	1.144739E+0	1.023291E+0	1.097287E+0	1.089626E+0	1.058411E+0	1.044109E+0	1.095939E+0	1.032913E+0	1.041211E+0	1.069522E+0	1.085445E+0	1.096797E+0	1.108188E+0	1.052524E+0	1.070458E+0	1.073346E+0	1.093109E+0	1.051038E+0	1.073783E+0	1.118875E+0	1.052303E+0	1.077433E+0	1.052361E+0	1.037015E+0	1.036172E+0	1.115748E+0	1.053303E+0	1.026736E+0	1.085140E+0	1.051244E+0	1.041143E+0	1.049175E+0	1.138342E+0	1.046423E+0	1.079022E+0	1.114196E+0	1.114281E+0	1.074796E+0	1.065512E+0	1.049406E+0	9.898852E-1	1.086580E+0	1.064006E+0	1.065297E+0	1.096516E+0	1.028379E+0	1.050205E+0	1.136009E+0	1.094116E+0	1.023526E+0	1.043326E+0	1.062329E+0	1.092298E+0	1.039884E+0	1.068835E+0	1.099674E+0	1.070192E+0	1.052977E+0	1.029550E+0	1.030695E+0	1.081203E+0	9.665709E-1	1.049536E+0	1.068017E+0	1.025351E+0	1.009459E+0	1.064854E+0	1.125173E+0	1.181752E+0
5.650210E+2	1.065184E+0	1.067952E+0	1.054156E+0	1.022349E+0	1.015052E+0	1.063434E+0	1.056197E+0	1.029898E+0	1.027865E+0	1.082842E+0	1.052077E+0	1.028892E+0	1.082801E+0	1.109999E+0	1.090594E+0	1.050233E+0	1.070118E+0	1.070211E+0	1.103146E+0	1.033459E+0	1.118435E+0	1.092847E+0	1.096087E+0	1.114878E+0	1.082548E+0	1.091751E+0	1.081856E+0	1.142322E+0	1.084665E+0	1.061790E+0	1.067461E+0	1.068803E+0	1.091508E+0	1.057284E+0	1.081889E+0	9.942240E-1	1.014286E+0	1.065944E+0	1.041638E+0	1.052300E+0	1.065798E+0	1.086437E+0	9.994562E-1	1.038493E+0	1.046508E+0	1.052917E+0	1.032835E+0	1.116661E+0	1.034371E+0	1.107437E+0	1.060572E+0	1.098087E+0	1.032827E+0	1.116955E+0	1.029008E+0	1.059736E+0	1.096609E+0	1.070383E+0	1.078861E+0	1.066286E+0	1.072690E+0	1.023405E+0	1.112985E+0	1.054064E+0	1.111581E+0	1.098526E+0	1.049265E+0	1.104143E+0	1.067541E+0	1.102147E+0	1.111075E+0	1.089994E+0	1.047256E+0	1.098121E+0	1.077125E+0	1.085466E+0	1.044639E+0	1.154710E+0	1.051237E+0	1.053137E+0	1.097739E+0	1.031466E+0	1.031033E+0	1.067684E+0	1.068585E+0	1.030591E+0	1.040773E+0	1.003437E+0	1.093480E+0	1.050935E+0	1.146038E+0	1.114785E+0	1.097200E+0	1.097187E+0	1.094745E+0	9.796718E-1	1.043621E+0	1.117146E+0	1.081049E+0	1.035729E+0	1.016103E+0	1.044493E+0	1.139048E+0	1.095827E+0	1.054394E+0	1.022236E+0	1.076904E+0	1.026865E+0	1.001747E+0	1.036137E+0	1.038193E+0	1.047594E+0	1.046283E+0	1.057501E+0	1.055851E+0	1.048445E+0	1.044240E+0	1.032834E+0	1.066309E+0	1.088677E+0	1.129532E+0	1.058965E+0	1.077561E+0	1.015225E+0	1.020490E+0	1.000376E+0	1.030749E+0	1.072040E+0	1.060840E+0	1.116394E+0	1.022732E+0	1.037764E+0	1.057708E+0	1.061882E+0	1.009248E+0	1.011606E+0	1.084079E+0	1.093617E+0	1.013277E+0	1.037266E+0	1.084989E+0	1.125881E+0	1.094804E+0	1.045159E+0	1.061075E+0	1.050435E+0	1.089874E+0	1.116419E+0	1.059251E+0	1.058806E+0	1.034755E+0	1.052613E+0	1.061297E+0	1.122632E+0	1.059289E+0	1.038317E+0	1.048197E+0	1.142561E+0	1.085478E+0	1.008616E+0	1.090377E+0	1.053776E+0	1.163657E+0	9.893558E-1	9.621788E-1
5.660100E+2	9.237442E-1	9.622522E-1	9.814835E-1	9.852804E-1	9.466470E-1	9.383286E-1	9.437702E-1	9.844682E-1	9.646215E-1	9.770735E-1	9.043143E-1	9.363175E-1	9.767050E-1	9.437229E-1	9.330227E-1	9.098962E-1	9.815489E-1	9.352086E-1	9.334093E-1	9.136814E-1	9.643663E-1	9.422660E-1	9.738683E-1	9.168804E-1	9.782624E-1	9.179544E-1	9.799323E-1	9.561047E-1	9.688509E-1	9.957850E-1	9.390442E-1	9.153961E-1	9.579093E-1	9.814230E-1	9.891336E-1	9.160575E-1	1.009918E+0	9.740125E-1	9.722819E-1	9.847184E-1	9.843216E-1	9.200044E-1	9.638531E-1	9.521742E-1	9.496033E-1	8.956376E-1	9.705854E-1	9.593485E-1	9.159663E-1	9.804010E-1	9.639005E-1	9.168395E-1	1.030250E+0	1.028103E+0	9.565631E-1	9.530383E-1	9.123927E-1	9.331344E-1	9.964049E-1	9.991777E-1	9.529176E-1	1.073750E+0	9.197698E-1	8.999694E-1	9.694922E-1	9.694361E-1	9.290532E-1	9.308040E-1	9.165229E-1	9.111191E-1	9.708483E-1	9.442559E-1	9.062489E-1	9.338284E-1	9.599851E-1	9.505237E-1	9.440416E-1	1.017570E+0	9.164760E-1	8.778210E-1	9.157855E-1	9.353378E-1	9.070383E-1	9.717776E-1	8.976450E-1	1.002789E+0	9.347403E-1	9.357112E-1	1.004059E+0	1.001796E+0	9.351392E-1	9.462390E-1	8.916856E-1	1.012221E+0	9.521751E-1	9.511895E-1	9.780204E-1	9.878512E-1	1.006721E+0	9.660679E-1	9.400861E-1	9.830188E-1	9.810115E-1	9.790226E-1	9.494694E-1	9.411145E-1	8.966729E-1	9.539335E-1	9.652111E-1	1.007705E+0	9.256889E-1	9.352066E-1	9.275772E-1	9.479335E-1	9.540463E-1	9.569463E-1	9.102297E-1	9.386931E-1	9.596416E-1	9.782931E-1	9.516733E-1	9.996123E-1	9.751313E-1	8.916174E-1	9.521447E-1	9.766376E-1	9.264190E-1	9.416163E-1	9.186272E-1	9.629803E-1	9.913285E-1	9.584058E-1	9.482590E-1	1.030906E+0	9.658129E-1	9.755817E-1	1.014595E+0	9.000462E-1	9.820000E-1	9.473495E-1	9.338813E-1	9.204854E-1	9.557116E-1	9.809591E-1	9.500819E-1	9.814755E-1	9.178012E-1	1.004623E+0	9.605041E-1	9.816335E-1	9.541096E-1	9.559210E-1	9.740850E-1	9.526407E-1	9.397851E-1	9.996887E-1	1.001828E+0	9.101066E-1	9.236271E-1	9.799768E-1	9.429405E-1	1.037638E+0	1.006545E+0	9.456408E-1	8.900000E-1
5.670200E+2	8.631044E-1	9.108193E-1	9.424354E-1	8.777246E-1	8.252772E-1	9.764968E-1	9.440833E-1	8.677425E-1	8.858715E-1	8.915908E-1	8.639067E-1	8.909894E-1	8.454640E-1	9.622364E-1	8.652760E-1	8.916300E-1	8.872036E-1	9.248287E-1	9.080746E-1	9.101919E-1	9.024526E-1	8.865669E-1	8.864598E-1	9.442071E-1	8.609181E-1	8.795196E-1	8.564164E-1	8.903123E-1	8.483192E-1	8.537156E-1	9.263126E-1	8.983805E-1	8.412251E-1	9.303691E-1	9.113637E-1	8.485735E-1	9.222547E-1	8.948754E-1	9.099695E-1	8.672872E-1	9.060729E-1	8.968173E-1	9.047546E-1	8.864560E-1	8.815193E-1	8.779058E-1	8.935171E-1	8.774061E-1	8.881375E-1	8.981015E-1	8.942679E-1	8.649898E-1	9.004609E-1	8.924352E-1	8.946450E-1	8.874315E-1	9.075183E-1	9.054270E-1	8.767832E-1	8.200697E-1	8.688586E-1	8.843935E-1	8.952544E-1	8.930744E-1	8.704045E-1	9.070680E-1	9.305271E-1	9.110207E-1	8.829608E-1	9.095518E-1	8.925329E-1	9.137966E-1	8.767498E-1	8.448050E-1	9.153996E-1	8.983983E-1	9.349233E-1	8.417340E-1	8.762978E-1	9.084026E-1	9.473929E-1	8.919042E-1	9.117720E-1	8.785562E-1	8.726055E-1	8.733797E-1	9.067968E-1	8.921064E-1	8.295176E-1	9.267678E-1	8.946374E-1	9.355870E-1	8.625365E-1	8.632356E-1	8.731642E-1	9.114194E-1	8.095288E-1	8.646903E-1	8.465397E-1	8.821261E-1	8.888691E-1	8.977712E-1	8.495566E-1	8.768237E-1	9.045743E-1	8.512904E-1	9.601558E-1	9.073729E-1	9.013490E-1	8.925413E-1	9.238451E-1	9.192399E-1	9.338190E-1	8.781618E-1	9.246072E-1	8.915124E-1	8.608785E-1	9.460215E-1	8.800762E-1	8.702781E-1	8.451226E-1	8.899139E-1	8.970240E-1	9.337348E-1	9.336144E-1	8.774371E-1	8.780166E-1	8.773809E-1	8.703511E-1	8.890557E-1	9.046655E-1	9.204453E-1	8.757773E-1	8.375159E-1	8.979372E-1	8.730356E-1	9.018250E-1	8.778326E-1	8.969409E-1	8.935036E-1	8.601074E-1	9.109354E-1	9.381369E-1	9.135460E-1	8.714186E-1	8.923099E-1	9.010593E-1	8.292488E-1	8.859220E-1	8.924804E-1	8.545767E-1	9.560412E-1	9.030900E-1	9.497241E-1	9.161218E-1	9.138845E-1	8.723362E-1	8.712785E-1	9.176250E-1	9.563809E-1	9.212328E-1	9.677858E-1	8.946231E-1	8.886368E-1	6.927654E-1
