Photon Energy (eV)	#1	#2	#3	#4	#5	#6	#7	#8	#9	#10	#11	#12	#13	#14	#15	#16	#17	#18	#19	#20	#21	#22	#23	#24	#25	#26	#27	#28	#29	#30	#31	#32	#33	#34	#35	#36	#37	#38	#39	#40	#41	#42	#43	#44	#45	#46	#47	#48	#49	#50	#51	#52	#53	#54	#55	#56	#57	#58	#59	#60	#61	#62	#63	#64	#65	#66	#67	#68	#69	#70	#71	#72	#73	#74	#75	#76	#77	#78	#79	#80	#81	#82	#83	#84	#85	#86	#87	#88	#89	#90	#91	#92	#93	#94	#95	#96	#97	#98	#99	#100	#101	#102	#103	#104	#105	#106	#107	#108	#109	#110	#111	#112	#113	#114	#115	#116	#117	#118	#119	#120	#121	#122	#123	#124	#125	#126	#127	#128	#129	#130	#131	#132	#133	#134	#135	#136	#137	#138	#139	#140	#141	#142	#143	#144	#145	#146	#147	#148	#149	#150	#151	#152	#153	#154	#155	#156	#157	#158	#159	#160	#161	#162	#163	#164	#165	#166	#167	#168	#169	#170	#171	
2.790010E+2	-6.321513E-3	4.514100E-3	-2.047139E-3	-8.601906E-3	3.555645E-3	3.773613E-5	-5.347138E-3	-9.641836E-3	2.908326E-4	-3.772560E-3	-6.583578E-3	-4.564711E-3	-6.418650E-3	-9.667635E-3	-1.368536E-2	-7.087629E-4	5.368480E-4	-3.176664E-3	-6.501802E-3	-9.680763E-3	-5.334696E-3	1.692681E-5	-1.063838E-2	-9.843197E-3	-1.104158E-2	-8.727386E-3	4.619393E-4	-6.258467E-3	1.165976E-3	3.327029E-3	-1.333022E-3	-7.660393E-3	-1.282264E-3	-1.142920E-2	-4.466242E-3	-2.331766E-3	5.024384E-4	-7.404342E-3	-4.211543E-3	-6.014674E-3	-1.078114E-2	-2.069298E-3	-6.146375E-3	-1.297111E-3	-1.657776E-3	9.301597E-4	9.113558E-4	-4.492517E-3	-8.507842E-3	-2.038016E-3	-1.009236E-3	5.901457E-3	4.294156E-3	1.034331E-3	1.845200E-3	2.193373E-3	3.748642E-4	-6.016951E-3	-1.882546E-4	-1.315292E-2	-3.227980E-4	3.807267E-3	1.227561E-2	-7.133049E-3	-1.380452E-2	-2.097545E-5	-5.037045E-3	-8.511165E-3	2.575984E-3	-4.704563E-3	2.625781E-3	-7.825751E-4	-5.285700E-3	4.348098E-3	-1.155037E-2	-7.485009E-3	1.584613E-3	2.621832E-3	-1.862983E-3	-2.260578E-3	4.770549E-3	-3.607737E-3	6.516309E-3	-7.341095E-3	2.399320E-3	-6.500728E-3	-3.207463E-3	-1.738827E-3	-1.195043E-2	1.580239E-2	4.251126E-3	-6.600900E-3	4.174111E-3	-7.170262E-3	-5.678814E-4	8.871507E-4	-8.846691E-3	-2.945525E-3	-3.650552E-3	1.730220E-3	-4.250244E-3	-1.394845E-2	-6.289359E-3	-6.664355E-3	-7.082563E-3	-4.417526E-3	7.788769E-4	1.854533E-3	-1.042432E-3	5.273296E-5	-4.078433E-3	-4.157322E-4	-2.663290E-3	-2.557659E-3	-9.625504E-3	-6.590801E-3	-5.791287E-3	-1.321032E-3	-4.774703E-3	-1.038824E-2	3.248578E-3	1.164131E-3	-2.457978E-4	2.781287E-3	-5.690123E-3	-6.055302E-4	3.352662E-3	-9.768250E-3	-5.000212E-3	-8.970433E-3	-1.623394E-2	-1.577487E-3	1.011695E-2	-9.012231E-3	-1.255495E-2	5.074000E-3	-1.033818E-2	-6.645436E-5	2.493189E-3	2.465658E-3	-1.348749E-3	2.088088E-3	-6.568564E-3	-6.234276E-3	2.038605E-3	-1.424772E-2	3.137414E-3	3.097250E-3	3.296223E-3	3.672093E-3	-4.917144E-3	-5.702456E-3	-1.335806E-2	1.273521E-2	-1.443452E-3	-1.659028E-3	-7.067032E-3	-3.256969E-3	-4.282853E-3	-5.010573E-3	-1.015490E-2	-2.073339E-3	-8.766897E-3	6.562207E-4	-3.860735E-3	-9.397211E-3	4.954697E-3	-6.259791E-3	-8.988605E-3	7.152440E-3	-2.030092E-2
2.795040E+2	-8.173732E-3	-9.969641E-3	-3.114407E-3	2.235380E-3	4.008084E-4	1.532595E-3	2.568075E-3	-1.239780E-2	-4.947756E-3	2.821318E-3	-2.341179E-3	4.202750E-3	-3.532569E-3	7.584201E-4	-1.727125E-3	-4.658401E-3	-6.485907E-3	-7.534690E-3	7.634760E-3	2.910058E-3	-5.119977E-4	-3.299136E-3	-3.491593E-3	3.074994E-3	5.494400E-3	4.290855E-3	4.044372E-3	-1.846169E-3	-7.188817E-3	3.480583E-3	-9.245943E-3	3.058316E-3	-4.020327E-3	-3.500637E-3	1.637667E-3	2.604196E-3	5.121563E-4	-5.814076E-4	-5.478705E-3	-5.616289E-4	2.007236E-3	-1.284974E-2	1.572907E-3	5.833264E-3	4.266105E-3	-3.558261E-3	1.810802E-3	-9.026769E-3	-3.324547E-3	-3.654882E-3	-4.452807E-3	-2.815575E-3	-4.489182E-3	-8.711486E-3	-4.017059E-3	7.206495E-3	-4.325152E-4	-7.440846E-3	-1.156592E-3	-1.144064E-3	-7.828681E-3	-3.748920E-3	1.334755E-3	6.769854E-3	7.557911E-3	5.245886E-3	-3.244151E-3	-1.142849E-3	-6.323156E-3	-3.134132E-3	7.414906E-3	1.863179E-3	-4.516736E-3	-3.557242E-3	3.438594E-3	-4.557905E-3	4.754844E-3	-1.139062E-2	2.116653E-3	3.778160E-3	2.920660E-4	5.725808E-3	4.860967E-3	-4.613587E-3	3.921633E-3	-1.733741E-3	-8.560984E-4	-8.657541E-3	-1.374976E-3	-5.643435E-3	-1.132133E-3	7.628395E-3	-9.709263E-3	-6.334307E-3	-1.242684E-2	-6.822991E-4	-1.290928E-3	1.193073E-2	-3.673162E-3	3.445607E-3	2.049009E-3	-6.691994E-3	-1.390063E-2	-9.964005E-3	2.312088E-3	-6.807049E-4	-6.521977E-3	-1.383953E-2	-6.735847E-3	-7.627344E-3	5.825421E-3	1.026577E-3	-3.726678E-3	-3.520946E-3	-1.562180E-2	6.542185E-3	-3.426099E-3	-4.234705E-4	6.269033E-3	2.896133E-3	-3.515293E-3	-1.747317E-3	-5.947566E-3	-1.024231E-2	-4.027101E-3	5.998416E-3	5.833403E-4	-6.083609E-3	-2.432781E-3	1.386934E-3	-3.140044E-3	-7.077466E-3	-1.785404E-3	-3.529196E-3	4.106929E-3	-5.462646E-3	-1.298933E-2	-1.048165E-2	4.708612E-4	-5.642170E-3	4.091354E-3	9.059106E-3	-1.802102E-4	3.681019E-4	-5.562732E-3	5.685752E-3	6.693911E-3	-5.790857E-3	3.985489E-3	1.779457E-3	-4.103501E-3	9.527738E-3	7.626786E-3	-1.215166E-2	-3.535238E-3	-5.563821E-3	-7.132384E-3	1.634344E-3	1.016526E-2	1.532486E-3	3.091619E-3	1.303350E-3	-1.177637E-2	-3.490561E-3	3.627310E-3	-7.693503E-3	-6.131411E-3	-2.963919E-3	-7.529381E-3	1.842314E-3	-1.521937E-2
2.800050E+2	-2.947768E-3	-4.156495E-3	6.763588E-3	-4.814538E-3	4.123141E-3	-2.440211E-3	-7.300670E-3	2.172729E-2	-7.873412E-4	9.909644E-4	7.741398E-3	-6.719720E-3	-1.500006E-3	-1.431703E-4	-1.184649E-3	-4.797206E-3	1.887343E-3	-1.193194E-3	-5.747196E-3	-2.618781E-3	-1.341442E-3	3.365071E-3	4.283122E-3	3.696549E-3	4.491443E-3	9.862491E-4	-8.549015E-3	3.298740E-3	-5.195808E-4	-1.391597E-3	5.576530E-3	-3.543182E-3	-3.282237E-3	9.505223E-4	-1.293623E-2	9.811454E-3	3.676072E-4	1.950940E-3	-3.173057E-3	-6.900981E-3	2.630900E-3	5.702908E-3	-4.655504E-4	1.200709E-3	7.017174E-3	1.225133E-3	-1.509688E-3	3.617277E-3	2.544113E-3	-5.112480E-4	-7.971824E-3	-6.413138E-3	-5.341531E-3	3.835188E-3	3.775227E-3	-2.109880E-3	-2.941534E-3	4.915803E-3	-1.109145E-3	5.165604E-3	1.204513E-3	1.437633E-3	-6.564882E-3	-7.270757E-3	-3.737184E-3	1.452002E-3	4.220951E-4	2.007459E-3	2.202680E-4	-6.532140E-3	-3.638057E-3	-4.489703E-3	3.307108E-3	-8.002838E-3	8.661513E-4	7.102467E-3	-2.550444E-3	1.336856E-3	-1.140220E-3	2.858100E-3	4.607336E-3	3.333179E-3	-2.109818E-4	-5.658088E-3	6.065971E-3	9.732227E-4	9.229971E-3	-1.887216E-4	-2.415361E-3	-6.765097E-3	-2.180018E-3	-3.746652E-3	-2.532025E-3	5.429250E-3	8.724759E-3	3.798559E-3	8.626098E-3	-5.917920E-3	1.117591E-2	5.024305E-3	-7.175795E-3	8.583304E-3	-3.924089E-3	1.277199E-2	6.407244E-3	2.905788E-3	-4.843063E-3	-4.407719E-3	2.006815E-3	1.596184E-3	-2.576710E-3	-8.960643E-3	-3.878039E-3	4.754884E-3	8.246282E-3	2.270406E-4	-1.975770E-3	-8.001805E-3	3.043667E-3	-5.707324E-4	-2.913599E-4	3.927459E-3	1.182870E-2	5.129581E-3	-1.090040E-2	3.334744E-3	-4.821196E-3	6.988834E-3	6.148284E-3	6.859299E-3	7.136494E-4	-6.322006E-3	-5.628479E-3	-9.212406E-3	8.316849E-3	8.344824E-4	-1.798251E-3	-2.899935E-4	7.140617E-3	3.997520E-3	2.368292E-3	-7.290194E-4	-3.263543E-4	3.151401E-3	-4.864074E-3	-1.892157E-4	1.462272E-4	-6.531165E-4	1.022497E-2	-1.144957E-3	-7.699327E-3	-5.873639E-3	-3.891489E-3	-4.966567E-3	5.300233E-3	1.013350E-3	2.778163E-3	-1.796676E-3	-2.735184E-3	-4.432083E-3	-2.749914E-3	-6.528501E-3	-9.048532E-4	-5.267582E-3	1.979419E-3	-4.903860E-5	-5.273947E-3	-3.131388E-3	-4.691930E-3	-8.803370E-3	-5.136779E-3
2.805050E+2	-3.096729E-3	-2.569067E-3	1.568635E-3	-3.959834E-3	-6.841409E-3	-2.560724E-3	-4.789385E-3	4.431020E-3	5.086384E-3	4.142946E-3	2.499083E-3	-1.982851E-3	5.612765E-3	-1.757857E-3	1.197904E-2	6.732191E-3	9.737335E-4	-4.569309E-3	8.166296E-3	-1.169726E-2	1.976939E-3	8.653754E-3	-2.047360E-3	3.231155E-4	-3.868097E-3	3.974683E-3	7.220725E-3	2.256330E-3	5.374326E-3	-4.646091E-3	1.091341E-2	-1.182572E-4	1.941336E-3	2.350208E-3	-5.425129E-3	6.447359E-4	-4.371454E-4	-1.748233E-4	-8.204672E-3	3.797471E-3	-2.259084E-3	9.274674E-3	-7.079458E-3	1.706087E-4	-1.000616E-2	3.193675E-3	7.048654E-4	-3.255659E-3	6.682775E-3	1.489971E-4	-2.940769E-3	2.963646E-3	3.276985E-3	3.020318E-3	-4.876765E-3	2.760089E-3	-3.859212E-3	6.305676E-3	-8.380520E-3	-1.424607E-3	-4.710353E-3	-1.630832E-3	-3.559387E-3	4.144816E-3	-2.015526E-3	1.613926E-3	8.487920E-3	-5.654655E-4	1.569245E-3	2.178420E-3	1.966309E-3	-1.525548E-2	-4.700284E-3	-7.909137E-3	2.577288E-3	1.183605E-2	2.113979E-3	2.764552E-3	6.715160E-3	-1.796278E-3	9.385115E-4	9.573487E-3	-1.075193E-2	6.509425E-4	-1.689649E-3	1.126665E-3	-1.491275E-3	9.173841E-3	1.057280E-3	3.301111E-3	1.649624E-3	1.337182E-2	-1.703467E-4	-3.545430E-3	4.808909E-3	7.526082E-3	1.380824E-4	1.726540E-3	3.130308E-3	-2.990387E-4	-2.887794E-4	-2.155201E-3	-5.686701E-3	2.848697E-3	-3.917416E-3	-5.210829E-3	7.818702E-3	1.530301E-3	-4.572365E-3	6.256828E-3	-4.325034E-3	2.254324E-3	8.751537E-3	-1.866541E-3	6.118570E-3	-2.505976E-3	1.871522E-3	1.140116E-3	-6.118702E-3	-6.918934E-4	1.216056E-2	-5.019730E-3	1.291244E-3	-1.654072E-4	2.399139E-3	-7.542573E-3	1.144497E-3	3.926182E-3	-1.142950E-2	-9.300889E-3	1.570182E-3	2.135331E-2	6.782992E-3	5.282526E-3	1.180225E-3	-1.706629E-3	5.857571E-3	1.069501E-2	2.086426E-3	-4.163376E-3	-2.432289E-3	-8.541402E-4	8.307848E-3	2.285764E-3	5.022986E-3	6.218388E-3	-9.143138E-4	-2.598201E-3	-5.500748E-3	6.989315E-3	3.419230E-3	-1.209209E-3	-1.270829E-2	6.754045E-3	-7.743178E-3	-1.160130E-2	9.734949E-4	3.782361E-3	6.434248E-3	-2.368207E-3	8.855987E-4	-7.512483E-3	-3.087106E-3	1.143956E-3	1.108608E-3	-1.049677E-3	-5.403821E-3	-8.796834E-3	1.291007E-2	6.716320E-3	2.523423E-2
2.810050E+2	-2.220351E-3	7.340820E-4	-3.464906E-3	-3.022894E-3	-3.768519E-3	-4.847758E-3	-2.174516E-3	-9.056860E-3	-8.304698E-5	1.662795E-3	2.488997E-3	1.451116E-2	-1.806778E-4	-5.467176E-3	-4.821634E-3	9.051184E-3	-9.823985E-3	6.732370E-3	-5.872931E-3	2.598112E-3	7.473643E-3	-1.508427E-3	1.458657E-3	1.316297E-2	1.873841E-3	-3.831989E-3	4.557348E-3	6.654196E-3	1.061535E-4	7.030883E-3	-7.121376E-5	-7.232116E-3	-5.220881E-3	3.107502E-3	5.545756E-3	5.546474E-3	-1.116435E-3	-2.161730E-3	-2.495916E-3	6.881006E-3	-7.009819E-3	-4.868195E-3	-1.553694E-3	-7.312080E-4	3.188658E-3	-1.085830E-2	-7.137016E-3	6.474940E-3	1.525024E-3	-4.569023E-3	7.338486E-3	-9.120298E-3	6.919108E-3	-3.764232E-3	1.069549E-3	-3.069680E-3	-6.578455E-4	-8.251465E-3	8.906358E-3	7.748421E-3	-5.786031E-4	2.769339E-3	-1.229052E-3	4.146044E-3	6.283215E-3	-1.307943E-2	-1.481874E-3	2.480734E-4	-2.102800E-3	9.110355E-4	1.961445E-3	-1.858624E-4	-7.573101E-4	6.031480E-3	-9.615541E-4	-5.793026E-3	-9.018317E-3	-1.095528E-2	-6.813101E-3	-2.542830E-3	-1.852314E-2	-1.045197E-3	-9.930779E-3	6.417252E-4	6.749004E-3	-2.617506E-3	-4.663399E-3	-3.690044E-3	4.567086E-3	-2.255413E-3	7.462930E-4	-9.926046E-3	6.424696E-4	1.930918E-3	5.601593E-3	1.368782E-3	-1.533004E-3	-1.193116E-3	-7.222359E-3	-1.153282E-2	-5.822380E-3	1.924158E-3	4.067803E-3	6.187256E-3	6.380691E-3	4.576217E-3	5.589223E-3	6.771830E-3	-1.273343E-3	3.462902E-3	3.108904E-3	7.552486E-3	9.777749E-3	-2.457297E-3	6.161472E-3	-5.047461E-3	1.884142E-3	1.094265E-2	-5.533094E-5	-4.839713E-3	5.507300E-3	6.733627E-3	-3.428337E-3	-5.382449E-3	3.233393E-3	-1.163407E-3	-4.913268E-3	-2.637000E-3	-9.764331E-4	-6.537749E-3	8.507282E-3	3.381024E-3	-1.605910E-2	7.998670E-3	7.274747E-3	-6.525176E-3	6.360357E-4	-5.642491E-4	-9.634141E-3	-4.231193E-3	-3.994419E-3	-1.731815E-3	2.863457E-4	1.558210E-3	-8.241017E-4	7.995194E-3	-8.152210E-3	-9.216841E-4	-5.497626E-3	-7.719070E-3	5.919011E-3	-1.217198E-3	1.190399E-3	1.242609E-3	2.128710E-3	8.488409E-4	9.295082E-3	2.148198E-3	-7.923686E-3	-5.264404E-3	3.689753E-3	-7.539795E-4	1.822892E-3	-2.942346E-3	-7.842203E-3	1.185159E-2	4.572839E-3	-1.321831E-2	-1.071103E-2	6.694934E-3	1.494199E-2
2.815020E+2	4.961674E-3	4.987835E-3	1.568861E-3	5.842577E-3	5.535253E-3	-4.815038E-3	1.366336E-3	5.343991E-3	-3.488534E-3	-4.891296E-3	-7.675052E-3	-1.009496E-3	5.851108E-4	4.957656E-3	4.326671E-3	1.324366E-3	1.774112E-3	-4.543182E-3	-4.093076E-3	8.012526E-3	-4.158694E-3	5.737874E-4	2.376098E-3	-6.074652E-3	-7.956013E-3	-5.355984E-3	-3.352582E-3	-2.143713E-3	-8.886305E-3	-3.054281E-3	7.518545E-4	3.492557E-3	8.219591E-3	2.387818E-3	8.963144E-3	-4.230809E-3	-7.253836E-3	3.235856E-3	6.527198E-3	-1.569304E-3	-1.431526E-3	-1.845383E-3	-5.215703E-3	5.506082E-3	-1.157128E-3	1.145518E-3	1.531413E-3	2.776546E-3	-1.045647E-2	2.547215E-3	5.669604E-3	1.075629E-2	-9.040097E-3	-7.115711E-3	-2.297090E-3	1.124299E-3	4.192833E-3	9.876253E-4	-5.316257E-3	-4.161632E-3	-3.026859E-3	-3.779305E-3	-4.128632E-4	-4.263896E-3	-1.991032E-3	3.210756E-3	-5.067815E-3	4.368455E-3	7.536592E-3	2.254814E-3	-2.824434E-3	7.840308E-3	1.657006E-3	-1.304851E-3	1.055810E-2	1.083855E-4	-8.985930E-3	7.664931E-3	3.945141E-4	-3.998903E-3	-4.340155E-3	-3.656656E-3	7.348277E-3	3.416264E-3	-8.668094E-4	6.460815E-3	2.521493E-3	-3.653643E-3	-3.304947E-3	-3.005826E-3	-1.078220E-4	-4.833480E-3	3.127178E-3	-5.067601E-3	-3.019520E-3	-5.520404E-3	-1.321980E-2	-6.813901E-3	-1.878234E-3	-8.035568E-3	3.308772E-3	9.121596E-3	1.515240E-2	-2.742931E-3	2.163572E-3	-1.613186E-3	1.491838E-4	-1.039059E-4	-5.262326E-3	-4.322630E-3	-5.877230E-3	3.089382E-3	-7.834582E-3	-2.665408E-3	6.342333E-3	8.140993E-3	-4.394852E-3	-7.542331E-4	2.578444E-4	5.921726E-3	-9.516820E-3	-5.436694E-3	7.090466E-3	9.259627E-3	-1.717640E-3	-1.253750E-3	4.562302E-4	1.074284E-3	-4.405718E-3	5.438660E-3	-8.469665E-3	-1.557348E-4	-5.178048E-4	-4.006261E-3	4.702019E-4	-2.463485E-3	3.318379E-3	2.294605E-3	-7.781270E-4	-2.424339E-3	-4.718891E-3	-1.675791E-3	2.718477E-3	-3.521405E-3	3.403531E-3	-2.530058E-3	-1.819072E-3	3.495688E-3	-1.196563E-3	2.856142E-3	-3.525677E-3	-1.172699E-3	6.455396E-3	-8.957999E-4	4.139896E-3	-7.744771E-3	2.666185E-3	1.263009E-3	-9.576926E-3	5.798302E-4	2.785110E-3	9.779849E-4	-1.116317E-3	7.712713E-3	-5.562192E-3	6.730342E-3	1.616604E-3	1.333861E-2	4.084801E-3	1.517020E-3	9.910268E-3
2.820060E+2	1.345246E-2	2.015520E-3	-7.159586E-3	8.212139E-3	-3.412827E-3	8.383538E-4	3.469771E-3	2.098631E-3	-5.782825E-3	3.704533E-3	1.113660E-3	-1.049638E-2	-4.185573E-3	-2.149965E-3	-2.349400E-3	-4.614030E-3	3.667631E-3	8.814698E-3	-1.169074E-3	-3.300653E-3	-3.176649E-3	-2.507531E-3	9.715272E-4	-3.347818E-3	5.539064E-3	1.221546E-3	-5.710477E-3	-6.278397E-3	1.258915E-2	-4.302450E-3	-9.982138E-3	1.020020E-3	4.112419E-3	5.786123E-3	2.526763E-3	-1.052414E-2	1.317742E-3	-4.352716E-4	6.915727E-3	-3.616205E-3	1.244951E-2	-7.658766E-4	4.380805E-3	-4.863043E-3	-2.270005E-3	-2.029586E-3	-2.860148E-3	9.831310E-5	2.783653E-3	-2.863260E-4	8.569217E-4	-1.059678E-2	5.151146E-3	2.792992E-3	-2.855726E-3	-5.281045E-3	-5.170910E-3	-1.781236E-3	7.756304E-5	2.598807E-3	1.058499E-2	9.733662E-4	6.769063E-4	6.729369E-4	2.961613E-3	-5.028973E-3	3.457012E-3	-4.334054E-3	-2.453927E-3	2.588753E-3	-2.505245E-3	-1.600693E-3	4.148543E-4	7.303438E-3	-7.771237E-3	2.391389E-3	1.677025E-3	4.019936E-3	-1.678104E-3	8.755618E-4	-1.412418E-3	-9.589248E-3	2.771551E-3	-1.775987E-3	-9.038685E-3	3.068202E-3	-1.935303E-3	7.871198E-3	1.118013E-2	1.316614E-3	-1.576408E-3	-4.503335E-4	1.044942E-3	6.229152E-3	4.420850E-3	-1.376221E-2	7.259533E-3	1.640966E-3	-5.140080E-3	-2.552951E-3	-5.650656E-4	1.606609E-3	-5.776831E-3	4.159486E-3	-7.821394E-3	5.002572E-3	-6.965423E-3	6.317506E-3	6.435697E-3	-6.387989E-3	2.607119E-4	-3.380605E-3	8.229145E-3	-3.156597E-3	-5.293414E-3	-6.497960E-3	1.115577E-2	-3.327387E-3	-2.323790E-3	-2.789507E-3	-3.340746E-3	-1.008357E-3	-1.933054E-3	5.395275E-3	3.749253E-3	6.435017E-4	-6.655505E-5	-2.991060E-3	4.695417E-3	5.597939E-3	-2.913635E-5	-7.030369E-3	5.062945E-3	2.351907E-3	-2.597984E-3	-5.028147E-4	4.633456E-3	-1.073542E-2	2.593061E-3	-1.198303E-3	-3.618414E-3	-8.089440E-3	-6.506674E-3	-9.917179E-4	7.156337E-3	-1.148513E-2	5.949684E-3	2.163955E-3	-1.085565E-2	-9.486402E-3	5.049928E-3	-1.572395E-3	1.221046E-2	-1.723838E-3	-3.403524E-3	1.191520E-2	-2.829552E-3	-6.129668E-3	2.711131E-3	1.189770E-2	4.108530E-3	2.353678E-3	6.365140E-3	-5.055222E-3	7.769785E-4	-5.317580E-3	1.732597E-4	8.308457E-3	4.490862E-3	-2.002770E-3	-4.804480E-3
2.825030E+2	4.345959E-3	4.443665E-3	5.884954E-3	4.109075E-3	4.079083E-4	1.225505E-2	1.220753E-2	-2.504434E-3	9.712287E-3	-4.658701E-3	2.756670E-3	6.059251E-3	9.619600E-3	1.346973E-2	7.462460E-3	-2.329341E-3	7.470225E-3	5.469971E-3	7.583023E-3	1.377676E-2	5.072896E-3	-5.294445E-3	7.087932E-3	-9.919613E-4	5.466940E-3	7.442026E-3	1.327690E-3	4.317480E-3	-2.640904E-3	-4.440772E-4	3.390525E-3	1.098305E-2	-4.676374E-4	3.476628E-4	4.154271E-3	-1.520150E-3	6.107473E-3	5.570780E-3	1.012097E-2	7.984316E-3	4.393926E-3	7.420907E-3	1.450707E-2	-5.819301E-3	6.191354E-4	9.951666E-3	6.548417E-3	3.807869E-3	8.753295E-3	8.363283E-3	2.509623E-3	9.324401E-3	-7.705864E-4	8.908600E-3	7.356663E-3	-2.823652E-3	8.494320E-3	1.128140E-2	7.166848E-3	4.370395E-3	4.677793E-3	1.714529E-4	-2.521085E-3	2.934052E-3	4.745523E-3	6.606811E-3	2.463858E-3	7.929545E-3	-1.022205E-3	6.437812E-3	-5.000706E-3	1.261083E-2	9.881062E-3	3.091053E-3	2.843021E-3	-3.602353E-3	1.042423E-2	3.937785E-3	2.268082E-3	3.086767E-3	1.366725E-2	-7.336360E-4	-6.034181E-4	1.467983E-2	-7.540784E-3	-7.769294E-4	4.020743E-4	8.837365E-4	2.241216E-3	-2.750341E-3	-1.650663E-3	4.557194E-3	3.422934E-3	8.528281E-3	-7.541875E-3	6.384335E-3	8.866710E-3	1.572229E-3	7.258168E-3	1.222024E-2	1.274448E-2	1.559978E-3	1.635741E-2	-6.596134E-3	1.557778E-3	-5.623312E-4	3.994477E-3	1.876990E-3	1.044380E-2	6.969316E-3	7.662371E-3	-1.165789E-3	-8.655843E-3	1.146956E-2	3.672056E-3	5.731979E-3	6.765715E-4	1.745161E-3	3.701981E-3	1.046223E-2	-4.252213E-3	1.386881E-3	-8.655659E-3	-6.775604E-3	1.295348E-2	5.885997E-4	4.264289E-3	9.490620E-3	1.340094E-2	5.526240E-3	1.708167E-2	-2.571274E-3	2.027907E-3	1.012699E-2	-6.196018E-3	1.075227E-2	1.068033E-2	9.148151E-3	-4.371886E-3	1.119620E-2	9.653116E-3	1.933013E-3	2.269132E-3	3.383922E-3	-6.370552E-3	8.552791E-3	-5.041641E-3	1.206966E-3	5.543900E-3	3.053422E-3	5.857481E-3	7.219857E-3	2.474794E-3	-9.940001E-4	4.556553E-3	1.279152E-2	1.316043E-3	2.355401E-3	5.208006E-3	3.065252E-3	-1.655801E-3	1.223329E-2	1.746352E-2	7.242822E-3	9.772815E-3	4.925077E-3	5.491780E-3	1.272317E-2	1.043522E-2	-1.311689E-2	-4.624944E-3
2.830060E+2	1.513010E-2	1.719008E-2	1.789812E-2	1.077898E-2	1.367334E-2	6.048391E-3	9.471916E-3	1.004452E-2	4.348742E-3	7.681339E-3	2.780227E-2	6.761352E-3	8.189349E-3	1.126426E-2	1.048329E-2	1.251709E-2	1.922026E-2	1.117183E-2	-2.434109E-3	1.773945E-3	1.207583E-2	1.398305E-2	6.979330E-3	1.443267E-2	1.536755E-2	1.295743E-2	1.104249E-2	1.494709E-2	1.481407E-2	1.295266E-2	1.771526E-2	1.330126E-2	2.297294E-2	1.494004E-2	7.401009E-3	1.163678E-2	1.944224E-2	1.245269E-2	1.676591E-2	1.420667E-2	1.560141E-2	1.200015E-2	1.159876E-2	2.364255E-2	1.183889E-2	2.588747E-2	1.931525E-2	2.819697E-2	2.794577E-2	1.793698E-2	9.317749E-3	1.093887E-2	9.507714E-3	2.154957E-2	1.764109E-2	9.607529E-3	3.049779E-2	6.571466E-3	1.929097E-2	1.160467E-2	3.065880E-2	1.282975E-2	5.189689E-3	2.008506E-2	2.145930E-2	4.155088E-3	5.038727E-3	1.532157E-2	3.410216E-3	1.503412E-2	2.271154E-2	1.707461E-2	8.256356E-3	1.805065E-2	2.328619E-2	1.193306E-2	1.279984E-2	7.184404E-3	2.165855E-2	1.381874E-2	1.171617E-2	9.874418E-3	1.009969E-2	2.201187E-2	1.730701E-2	9.866666E-3	5.905665E-3	5.882431E-3	1.548695E-2	1.410790E-2	4.458812E-3	9.424174E-3	3.320459E-3	2.361750E-2	1.952762E-2	1.505790E-2	7.063210E-3	1.550409E-2	2.605356E-2	1.829783E-2	1.927154E-2	2.042982E-2	9.463116E-3	1.814375E-2	2.392435E-2	2.001541E-2	1.307900E-2	3.435612E-3	1.627002E-2	8.448191E-3	1.431038E-2	1.417181E-2	1.387886E-2	1.555634E-2	1.353997E-2	3.783680E-3	7.838575E-3	1.434693E-2	1.377682E-2	7.849281E-3	1.691660E-2	5.441270E-3	1.597593E-2	1.570193E-2	4.379545E-3	-4.967791E-3	1.748114E-2	1.397871E-2	1.869896E-2	1.261371E-2	6.791307E-3	1.728855E-2	2.236741E-2	1.900060E-2	1.947319E-2	6.637636E-3	1.243936E-2	6.551001E-3	2.216949E-2	2.014333E-2	1.998293E-2	8.662480E-4	2.259224E-2	1.530153E-2	1.211073E-2	1.647128E-2	1.201322E-3	1.445540E-2	1.497696E-2	1.348859E-2	1.279279E-2	1.536302E-2	1.028355E-2	2.832640E-2	3.160217E-2	2.051679E-2	1.475508E-2	1.877916E-2	1.110337E-2	1.634688E-2	2.973653E-2	2.262305E-2	1.128546E-2	1.215870E-2	8.268781E-3	1.347364E-2	2.896134E-2	1.593212E-2	2.483930E-2	-6.064256E-3	3.813493E-2
2.835020E+2	1.785713E-2	2.334122E-2	2.503366E-2	1.153080E-2	1.770317E-2	2.958840E-2	2.749343E-2	3.220819E-2	3.439169E-2	2.802644E-2	4.549453E-2	4.164570E-2	2.471391E-2	2.741569E-2	3.019882E-2	1.811541E-2	3.927692E-2	4.298482E-2	3.264229E-2	2.373792E-2	3.208633E-2	7.757282E-3	2.963568E-2	2.194847E-2	3.147955E-2	2.992057E-2	1.466539E-2	2.401537E-2	3.742881E-2	2.832066E-2	2.351183E-2	3.557503E-2	4.428388E-2	4.019490E-2	2.822989E-2	4.801594E-3	3.811935E-2	3.404798E-2	2.359216E-2	3.418169E-2	2.381535E-2	3.597885E-2	2.973760E-2	3.464974E-2	2.639049E-2	3.494984E-2	3.328929E-2	3.229932E-2	2.007920E-2	2.612006E-2	2.341623E-2	2.775389E-2	3.363494E-2	2.322078E-2	3.789747E-2	2.755086E-2	2.070233E-2	2.712356E-2	3.180747E-2	1.711204E-2	1.449684E-2	2.810381E-2	1.715143E-2	3.849141E-2	1.757169E-2	9.617378E-3	5.787156E-3	2.119331E-2	2.552195E-2	1.049014E-2	2.367697E-2	3.816770E-2	2.944428E-2	4.191507E-2	4.245400E-2	2.889403E-2	2.840056E-2	1.383279E-2	2.259525E-2	1.857883E-2	3.716929E-2	2.075085E-2	2.618163E-2	3.140109E-2	2.375936E-2	3.638549E-2	1.893632E-2	2.609602E-2	9.955511E-3	2.400753E-2	1.997461E-2	4.477300E-2	2.334929E-2	2.857182E-2	2.856993E-2	2.794076E-2	3.813164E-2	1.637166E-2	2.611309E-2	1.464276E-2	2.015830E-2	3.464014E-2	2.517467E-2	2.242858E-2	3.366056E-2	2.982212E-2	2.335367E-2	1.038977E-2	3.307691E-2	2.216757E-2	2.611625E-2	3.773677E-2	4.532861E-2	2.724606E-2	3.711868E-2	2.435472E-2	2.424929E-2	4.234265E-2	2.620643E-2	2.653677E-2	3.168266E-2	1.300140E-2	2.658279E-2	2.539494E-2	3.043681E-2	2.471534E-2	2.471224E-2	2.913913E-2	2.871736E-2	2.273569E-2	2.420331E-2	1.815753E-2	3.791168E-2	2.243621E-2	4.039901E-2	2.234099E-2	4.214010E-2	2.950562E-2	3.643908E-2	1.931933E-2	3.623325E-2	3.430848E-2	3.598364E-2	2.830009E-2	2.504481E-2	1.468555E-2	2.819106E-2	5.403682E-3	3.496642E-2	1.962495E-2	3.347436E-2	3.614696E-2	1.828771E-2	3.989500E-2	3.785801E-2	2.941459E-2	1.730127E-2	2.287498E-2	4.349744E-2	3.149690E-2	3.467293E-2	5.195412E-2	3.696564E-2	3.412910E-2	2.141763E-2	2.368195E-2	1.849486E-2	1.000900E-2	2.888500E-2	1.892435E-2	2.352769E-2
2.840000E+2	6.581021E-2	5.960359E-2	4.900931E-2	5.631767E-2	5.848187E-2	3.611213E-2	6.359757E-2	3.973240E-2	6.082437E-2	4.281593E-2	4.746554E-2	5.698968E-2	5.942803E-2	4.167442E-2	5.435027E-2	5.330605E-2	4.121957E-2	4.509450E-2	5.762990E-2	5.752446E-2	5.500502E-2	5.003729E-2	6.786229E-2	5.848748E-2	5.322459E-2	5.731294E-2	5.077255E-2	5.184271E-2	5.363594E-2	5.240002E-2	5.176854E-2	5.570095E-2	6.629290E-2	6.717756E-2	2.449544E-2	4.936333E-2	4.731111E-2	5.224495E-2	6.944220E-2	6.379636E-2	4.976612E-2	4.976480E-2	5.408529E-2	5.335475E-2	4.765571E-2	4.959945E-2	4.599022E-2	3.565772E-2	5.805281E-2	3.859643E-2	4.686817E-2	4.129314E-2	5.864578E-2	7.623678E-2	6.153519E-2	6.182609E-2	4.682192E-2	6.619488E-2	6.939024E-2	5.747325E-2	6.842118E-2	3.841894E-2	4.917672E-2	5.428797E-2	5.228501E-2	3.795586E-2	5.896235E-2	5.731634E-2	5.856203E-2	4.730657E-2	5.526833E-2	4.769873E-2	5.632645E-2	6.577661E-2	5.856376E-2	4.199146E-2	5.875397E-2	5.473781E-2	5.640150E-2	4.331636E-2	7.087274E-2	4.111893E-2	6.100794E-2	5.730401E-2	4.494838E-2	5.831498E-2	4.064277E-2	3.591284E-2	5.788104E-2	6.786589E-2	7.085366E-2	4.480350E-2	5.083587E-2	5.428546E-2	5.786780E-2	5.758617E-2	5.873359E-2	4.707963E-2	7.654298E-2	5.090497E-2	6.321389E-2	5.467414E-2	5.026904E-2	4.657853E-2	4.358922E-2	5.729264E-2	3.661684E-2	5.854714E-2	5.301751E-2	5.204481E-2	6.366241E-2	6.631956E-2	5.879128E-2	7.444398E-2	5.814178E-2	5.565256E-2	5.544507E-2	6.922535E-2	4.616460E-2	4.312895E-2	7.713808E-2	6.220430E-2	6.825160E-2	4.348500E-2	5.911189E-2	6.112056E-2	5.879373E-2	5.650075E-2	5.910025E-2	6.973659E-2	4.717106E-2	5.197836E-2	6.579335E-2	5.394810E-2	5.352083E-2	5.970601E-2	4.149073E-2	5.312069E-2	5.390517E-2	4.611777E-2	4.802651E-2	5.291221E-2	5.990203E-2	6.423570E-2	6.837314E-2	5.943166E-2	2.901400E-2	6.806683E-2	4.964004E-2	5.622335E-2	6.395129E-2	4.403093E-2	7.897806E-2	5.432086E-2	7.442834E-2	6.885931E-2	6.568341E-2	5.308911E-2	4.282770E-2	5.252783E-2	6.348656E-2	5.665446E-2	6.016404E-2	5.851097E-2	4.836928E-2	5.481153E-2	6.719571E-2	2.671620E-2	5.887112E-2	7.274480E-2	4.179176E-2
2.841010E+2	6.425668E-2	5.280310E-2	4.777194E-2	6.182153E-2	5.889331E-2	6.237096E-2	5.936494E-2	6.776721E-2	6.854350E-2	5.100394E-2	6.354310E-2	6.757094E-2	6.068041E-2	5.463616E-2	5.915720E-2	6.443872E-2	7.699377E-2	4.877376E-2	6.820385E-2	5.979429E-2	5.248867E-2	5.702044E-2	5.412493E-2	6.319764E-2	6.494230E-2	6.102916E-2	7.755494E-2	6.623751E-2	6.283789E-2	6.862988E-2	5.880851E-2	3.399143E-2	6.473318E-2	4.555578E-2	6.248653E-2	5.927572E-2	5.874387E-2	5.917898E-2	5.152762E-2	6.918808E-2	5.767747E-2	5.731996E-2	6.815314E-2	6.397057E-2	5.118485E-2	5.303481E-2	5.214521E-2	5.751479E-2	6.390627E-2	5.817018E-2	5.165207E-2	7.192837E-2	4.970985E-2	7.334876E-2	7.375564E-2	4.784178E-2	6.939726E-2	6.254441E-2	5.865778E-2	5.075929E-2	7.593075E-2	5.205736E-2	4.189694E-2	7.941941E-2	6.432016E-2	4.225502E-2	5.441226E-2	6.638917E-2	6.063920E-2	5.531145E-2	7.207568E-2	6.214415E-2	5.074937E-2	6.270588E-2	6.835212E-2	5.138930E-2	7.364500E-2	5.077962E-2	5.939123E-2	5.412315E-2	7.123856E-2	6.023226E-2	4.817578E-2	6.044326E-2	6.004969E-2	4.824568E-2	3.743744E-2	6.539439E-2	5.248300E-2	4.613685E-2	6.864452E-2	5.457040E-2	5.983478E-2	6.129246E-2	7.277176E-2	4.890131E-2	5.275067E-2	5.514144E-2	4.573843E-2	6.035443E-2	6.300354E-2	6.428316E-2	6.050909E-2	4.767841E-2	5.647692E-2	5.263860E-2	7.287115E-2	6.162929E-2	3.945758E-2	5.318677E-2	4.640845E-2	4.976117E-2	6.224364E-2	5.057852E-2	4.758208E-2	4.561889E-2	5.419516E-2	6.218930E-2	2.896816E-2	6.565484E-2	5.805333E-2	5.213784E-2	7.770206E-2	6.121228E-2	5.678247E-2	5.776604E-2	4.517282E-2	5.867229E-2	5.489887E-2	7.425296E-2	6.230903E-2	6.682905E-2	5.693918E-2	5.608417E-2	3.862115E-2	5.765877E-2	4.825905E-2	5.976492E-2	6.573221E-2	6.736832E-2	5.095400E-2	5.852783E-2	5.954581E-2	5.611105E-2	5.638049E-2	6.935126E-2	5.928783E-2	5.827510E-2	6.912806E-2	5.585371E-2	5.677843E-2	5.631200E-2	4.676586E-2	6.074599E-2	4.921271E-2	5.065911E-2	5.909936E-2	7.669225E-2	5.661384E-2	5.759676E-2	5.878530E-2	6.390730E-2	4.555897E-2	6.501979E-2	5.029768E-2	6.426999E-2	4.573921E-2	7.523329E-2	3.465493E-2	7.880090E-2	5.953493E-2
2.842030E+2	8.315225E-2	6.257228E-2	6.866832E-2	6.911142E-2	6.539071E-2	6.545576E-2	6.519323E-2	7.618509E-2	7.486606E-2	8.366335E-2	6.244704E-2	8.557552E-2	7.538955E-2	6.968497E-2	7.319152E-2	5.678772E-2	7.601113E-2	6.329273E-2	9.988701E-2	5.685747E-2	6.722384E-2	7.017982E-2	7.403409E-2	7.056816E-2	7.271037E-2	8.451458E-2	7.543256E-2	7.882832E-2	8.133706E-2	7.945206E-2	9.102713E-2	8.005938E-2	7.499426E-2	9.057871E-2	7.751752E-2	9.257401E-2	9.131405E-2	8.439251E-2	8.030894E-2	7.814391E-2	9.246798E-2	8.850769E-2	8.470967E-2	7.986307E-2	8.031017E-2	7.111467E-2	9.001117E-2	7.268491E-2	8.494207E-2	9.105948E-2	7.906157E-2	8.006054E-2	9.433940E-2	7.185622E-2	8.543594E-2	9.238401E-2	8.821089E-2	8.052796E-2	6.910684E-2	7.408172E-2	1.025094E-1	7.483331E-2	7.604329E-2	9.262793E-2	7.588048E-2	7.956323E-2	7.552561E-2	7.053527E-2	7.881739E-2	8.726305E-2	8.753381E-2	6.850732E-2	7.260277E-2	8.372789E-2	8.042578E-2	7.936514E-2	9.237623E-2	7.142440E-2	8.328085E-2	7.426445E-2	9.956587E-2	8.186544E-2	6.912050E-2	8.070047E-2	7.724245E-2	8.622227E-2	6.364157E-2	7.898226E-2	7.297626E-2	8.279060E-2	6.544504E-2	8.134889E-2	7.097662E-2	7.711855E-2	7.174627E-2	8.533236E-2	7.137600E-2	7.059617E-2	9.113252E-2	7.028149E-2	6.591119E-2	8.966121E-2	7.852724E-2	7.467936E-2	8.555568E-2	7.433076E-2	7.060016E-2	6.879917E-2	7.227507E-2	8.000798E-2	7.567280E-2	7.667060E-2	1.053036E-1	6.246779E-2	8.044011E-2	6.778927E-2	7.470255E-2	8.266298E-2	7.876952E-2	6.641786E-2	7.161329E-2	7.745528E-2	8.053184E-2	6.480911E-2	7.107249E-2	8.231377E-2	8.080952E-2	6.810108E-2	8.389184E-2	9.722186E-2	8.460275E-2	7.924060E-2	7.608526E-2	6.260907E-2	8.467271E-2	7.049904E-2	7.694089E-2	9.353047E-2	8.121280E-2	8.342350E-2	7.016805E-2	7.711703E-2	8.192212E-2	6.796742E-2	7.228703E-2	7.945432E-2	8.651872E-2	6.986708E-2	9.741416E-2	9.541663E-2	9.220943E-2	9.692387E-2	8.208141E-2	8.427796E-2	7.129723E-2	6.680408E-2	8.330432E-2	7.572923E-2	1.102996E-1	6.147994E-2	1.041211E-1	7.992467E-2	8.730264E-2	8.547096E-2	7.832432E-2	8.595349E-2	8.769963E-2	6.177652E-2	6.706058E-2	1.142246E-1	1.489502E-1
2.843040E+2	1.002054E-1	9.236262E-2	1.230207E-1	1.176370E-1	1.291348E-1	9.663156E-2	1.070310E-1	1.121586E-1	1.090789E-1	1.040362E-1	1.149561E-1	1.125717E-1	9.419541E-2	1.188604E-1	8.716850E-2	1.105946E-1	1.211894E-1	1.016487E-1	1.137981E-1	9.848114E-2	1.137139E-1	9.833330E-2	1.226093E-1	1.281602E-1	1.216823E-1	9.887920E-2	1.076095E-1	8.931520E-2	1.189703E-1	1.184475E-1	1.133194E-1	1.011769E-1	1.105299E-1	1.096391E-1	1.172778E-1	9.575759E-2	1.230772E-1	9.554336E-2	1.005016E-1	1.298616E-1	9.852049E-2	1.286318E-1	1.209503E-1	1.161987E-1	1.067775E-1	1.165477E-1	1.161179E-1	1.260205E-1	1.193206E-1	1.228041E-1	1.185646E-1	8.636694E-2	1.095417E-1	1.352589E-1	1.286080E-1	1.006482E-1	1.073098E-1	8.873626E-2	1.226344E-1	1.008232E-1	1.168620E-1	1.019928E-1	8.891569E-2	9.855623E-2	1.044984E-1	1.064425E-1	9.863304E-2	1.040020E-1	1.190822E-1	1.135333E-1	1.243112E-1	1.037907E-1	1.076512E-1	1.121649E-1	1.224098E-1	9.896292E-2	1.157181E-1	1.108018E-1	1.161966E-1	1.103511E-1	1.186032E-1	1.085330E-1	1.081757E-1	1.030868E-1	1.038910E-1	1.158094E-1	8.488240E-2	1.282351E-1	1.127900E-1	1.112771E-1	8.928117E-2	1.082731E-1	1.034169E-1	9.905005E-2	1.102226E-1	9.200867E-2	1.129980E-1	1.012093E-1	1.323612E-1	1.208513E-1	1.307308E-1	1.209839E-1	1.189364E-1	1.073537E-1	1.187251E-1	1.296100E-1	1.009165E-1	1.193753E-1	9.669285E-2	1.176569E-1	1.067891E-1	1.096053E-1	1.296781E-1	9.382786E-2	1.247245E-1	9.682114E-2	1.180289E-1	1.000536E-1	1.255397E-1	9.585381E-2	1.080309E-1	9.683315E-2	1.189728E-1	1.067110E-1	1.074723E-1	1.080921E-1	1.023056E-1	1.327259E-1	1.072371E-1	9.486104E-2	1.091225E-1	1.160700E-1	1.227537E-1	1.227819E-1	1.341722E-1	1.129199E-1	1.144501E-1	9.677909E-2	1.190043E-1	1.226875E-1	1.261182E-1	1.414023E-1	1.068403E-1	1.221788E-1	1.211188E-1	9.804639E-2	1.247502E-1	1.117644E-1	9.050800E-2	1.244125E-1	1.013843E-1	9.943784E-2	1.178462E-1	1.131032E-1	1.215780E-1	7.859656E-2	1.012154E-1	1.065959E-1	1.250329E-1	1.058246E-1	1.077290E-1	1.130814E-1	1.106976E-1	1.149559E-1	1.165686E-1	9.891942E-2	1.278588E-1	1.068809E-1	1.217093E-1	1.090824E-1	9.519526E-2
2.844010E+2	1.266908E-1	1.499104E-1	1.534595E-1	1.207883E-1	1.422552E-1	1.310922E-1	1.497495E-1	1.371044E-1	1.309229E-1	1.314027E-1	1.473957E-1	1.382526E-1	1.199077E-1	1.363360E-1	1.269207E-1	1.484308E-1	1.588099E-1	1.231176E-1	1.405566E-1	1.331321E-1	1.610835E-1	1.330583E-1	1.324309E-1	1.454161E-1	1.227799E-1	1.368727E-1	1.345472E-1	1.576474E-1	1.399685E-1	1.367554E-1	1.234163E-1	1.525528E-1	1.440015E-1	1.434461E-1	1.377532E-1	1.456561E-1	1.591362E-1	1.526464E-1	1.710482E-1	1.620041E-1	1.474954E-1	1.372733E-1	1.403362E-1	1.448218E-1	1.297205E-1	1.456795E-1	1.435467E-1	1.495649E-1	1.478755E-1	1.430427E-1	1.483304E-1	1.574327E-1	1.396047E-1	1.472134E-1	1.531102E-1	1.442954E-1	1.517909E-1	1.651038E-1	1.594913E-1	1.435090E-1	1.389977E-1	1.517518E-1	1.610798E-1	1.618476E-1	1.329662E-1	1.348748E-1	1.347878E-1	1.504528E-1	1.577687E-1	1.595908E-1	1.513501E-1	1.324315E-1	1.132276E-1	1.596535E-1	1.552727E-1	1.462093E-1	1.554752E-1	1.405366E-1	1.207552E-1	1.575171E-1	1.518796E-1	1.691615E-1	1.333836E-1	1.593515E-1	1.329058E-1	1.535451E-1	1.435320E-1	1.323175E-1	1.545471E-1	1.351999E-1	1.434634E-1	1.271660E-1	1.563051E-1	1.465934E-1	1.382517E-1	1.347371E-1	1.408566E-1	1.335115E-1	1.394618E-1	1.096609E-1	1.389890E-1	1.561107E-1	1.490841E-1	1.579363E-1	1.648821E-1	1.730499E-1	1.361981E-1	1.339233E-1	1.289055E-1	1.465420E-1	1.386599E-1	1.375126E-1	1.492125E-1	1.563304E-1	1.525058E-1	1.439608E-1	1.416279E-1	1.395389E-1	1.640068E-1	1.551215E-1	1.414665E-1	1.213843E-1	1.282651E-1	1.380988E-1	1.541714E-1	1.453829E-1	1.638672E-1	1.477472E-1	1.429618E-1	1.440775E-1	1.421989E-1	1.686946E-1	1.164341E-1	1.205658E-1	1.373012E-1	1.511605E-1	1.337520E-1	1.449404E-1	1.017775E-1	1.277324E-1	1.201998E-1	1.215873E-1	1.421723E-1	1.435467E-1	1.599733E-1	1.623018E-1	1.604743E-1	1.342393E-1	1.478445E-1	1.272424E-1	1.638417E-1	1.428242E-1	1.506458E-1	1.219175E-1	1.687723E-1	1.301559E-1	1.510686E-1	1.348648E-1	1.224609E-1	1.389870E-1	1.543318E-1	1.522191E-1	1.283326E-1	1.530890E-1	1.515216E-1	1.574218E-1	1.279348E-1	1.397795E-1	1.147240E-1	1.597192E-1	1.414560E-1
2.845030E+2	1.807419E-1	1.759631E-1	1.619142E-1	1.834751E-1	1.710842E-1	1.958506E-1	1.844975E-1	1.724157E-1	1.852117E-1	2.004190E-1	1.704573E-1	2.122857E-1	2.022831E-1	1.691572E-1	1.778533E-1	1.785196E-1	1.640192E-1	1.819627E-1	1.871278E-1	1.649421E-1	1.756965E-1	1.789620E-1	1.992001E-1	1.990910E-1	2.088628E-1	1.817749E-1	1.730709E-1	2.066138E-1	2.047706E-1	1.995947E-1	1.677083E-1	1.786809E-1	1.952342E-1	1.915039E-1	1.947480E-1	2.019425E-1	1.980353E-1	1.971757E-1	1.965142E-1	1.912947E-1	2.052450E-1	1.900591E-1	1.759862E-1	1.812324E-1	1.841121E-1	1.738353E-1	1.804305E-1	1.704228E-1	2.123051E-1	1.726751E-1	2.000199E-1	1.890660E-1	1.944245E-1	1.918527E-1	1.847524E-1	2.064245E-1	1.881850E-1	2.135406E-1	1.789749E-1	2.098910E-1	1.883861E-1	1.875749E-1	1.910616E-1	2.011222E-1	1.859061E-1	1.965348E-1	1.494181E-1	1.861572E-1	1.710603E-1	1.798455E-1	1.558263E-1	1.858113E-1	1.892394E-1	1.871968E-1	2.155979E-1	1.720940E-1	1.934349E-1	1.826979E-1	1.777614E-1	1.771289E-1	2.173383E-1	1.742385E-1	2.069458E-1	1.856041E-1	1.747081E-1	1.830165E-1	1.850239E-1	2.232113E-1	1.898319E-1	1.672392E-1	1.811915E-1	1.941470E-1	1.610392E-1	1.788454E-1	1.723388E-1	1.854873E-1	1.659779E-1	1.712760E-1	1.744590E-1	1.663613E-1	1.886887E-1	1.825061E-1	1.984395E-1	1.757846E-1	1.698837E-1	1.854639E-1	2.113209E-1	1.766190E-1	1.754998E-1	1.546064E-1	2.018716E-1	1.976841E-1	1.657684E-1	1.942228E-1	1.591069E-1	1.898073E-1	1.884572E-1	1.847544E-1	1.949760E-1	1.816664E-1	1.729897E-1	1.894023E-1	1.583713E-1	2.098322E-1	1.766917E-1	1.915564E-1	1.694399E-1	1.875238E-1	2.140331E-1	1.983737E-1	2.075031E-1	1.764144E-1	1.752593E-1	1.817030E-1	1.925501E-1	2.070068E-1	1.826632E-1	1.740799E-1	2.127962E-1	1.903494E-1	1.889256E-1	1.759419E-1	1.695606E-1	1.946921E-1	1.889545E-1	1.782301E-1	1.893455E-1	2.053906E-1	1.880720E-1	1.963692E-1	2.081760E-1	1.747514E-1	1.930089E-1	1.776979E-1	1.710191E-1	1.862742E-1	1.765708E-1	1.843242E-1	2.131446E-1	1.905376E-1	1.823819E-1	1.770563E-1	2.104222E-1	1.685248E-1	1.797328E-1	1.905974E-1	1.791885E-1	1.766115E-1	1.865894E-1	1.835019E-1	1.924541E-1
2.846040E+2	2.336677E-1	2.485995E-1	2.456094E-1	2.443149E-1	2.312058E-1	2.600557E-1	2.217261E-1	2.886049E-1	2.336518E-1	2.359157E-1	2.778750E-1	2.258463E-1	2.313605E-1	2.661542E-1	2.366228E-1	2.360904E-1	2.167510E-1	2.140292E-1	2.513685E-1	2.571893E-1	2.384259E-1	2.160555E-1	2.885558E-1	2.771788E-1	2.962448E-1	3.021354E-1	3.141753E-1	2.762219E-1	2.924979E-1	2.445489E-1	2.647323E-1	2.698399E-1	2.651701E-1	2.608399E-1	2.719280E-1	2.693249E-1	2.754186E-1	2.852496E-1	2.506408E-1	2.792886E-1	2.904893E-1	2.886601E-1	2.682585E-1	2.548881E-1	2.681080E-1	2.575985E-1	2.592659E-1	2.728044E-1	2.912077E-1	2.606408E-1	2.153722E-1	2.367982E-1	2.697676E-1	2.595758E-1	2.505008E-1	2.724254E-1	3.019884E-1	2.409232E-1	2.611267E-1	2.577879E-1	2.707774E-1	2.520557E-1	2.689385E-1	2.601782E-1	2.631521E-1	2.601429E-1	2.730944E-1	2.822926E-1	2.398734E-1	2.446338E-1	2.478815E-1	2.411228E-1	2.829856E-1	2.554473E-1	2.734559E-1	2.555560E-1	2.489809E-1	2.489029E-1	2.725446E-1	2.475116E-1	2.357479E-1	2.356872E-1	2.675567E-1	2.715538E-1	2.632651E-1	2.608530E-1	2.929041E-1	2.511185E-1	2.656303E-1	2.536753E-1	2.545865E-1	2.319139E-1	2.777684E-1	2.716868E-1	2.306909E-1	2.523994E-1	2.454495E-1	2.456523E-1	2.247699E-1	2.387664E-1	2.487678E-1	2.741324E-1	2.751698E-1	2.575836E-1	2.444448E-1	2.656103E-1	2.562096E-1	2.323885E-1	2.785885E-1	2.171537E-1	2.347759E-1	2.487425E-1	2.772091E-1	2.390633E-1	2.566142E-1	2.251790E-1	2.706213E-1	2.360248E-1	2.652099E-1	2.290407E-1	2.711230E-1	2.669367E-1	2.513104E-1	2.603411E-1	2.313692E-1	2.308071E-1	2.221393E-1	2.483905E-1	2.178138E-1	2.776779E-1	2.307544E-1	2.288911E-1	2.384847E-1	2.561442E-1	2.614402E-1	2.381817E-1	2.508051E-1	2.478821E-1	2.664561E-1	2.638143E-1	2.276521E-1	2.496847E-1	2.865138E-1	2.380288E-1	2.427981E-1	2.500832E-1	2.511399E-1	2.658597E-1	2.340428E-1	2.553333E-1	2.456905E-1	2.394915E-1	2.449469E-1	2.494913E-1	2.675210E-1	2.570777E-1	2.560759E-1	2.672989E-1	2.591526E-1	2.480923E-1	2.350721E-1	2.498648E-1	2.331505E-1	2.538501E-1	2.727593E-1	2.255243E-1	2.322247E-1	2.151805E-1	2.177538E-1	1.993874E-1	2.568128E-1
2.847020E+2	4.935029E-1	4.703774E-1	5.247137E-1	4.801439E-1	5.007280E-1	5.316754E-1	4.807659E-1	4.905615E-1	4.903262E-1	4.785250E-1	5.535960E-1	4.650562E-1	5.255555E-1	5.178816E-1	5.029288E-1	4.716694E-1	5.121472E-1	5.038242E-1	5.191078E-1	4.987673E-1	4.998466E-1	5.121119E-1	6.084289E-1	5.806559E-1	5.499908E-1	5.768236E-1	5.763714E-1	5.638786E-1	6.332695E-1	5.530672E-1	5.858537E-1	5.591022E-1	6.397836E-1	5.992720E-1	5.930187E-1	5.954848E-1	5.852117E-1	5.966896E-1	5.778603E-1	6.117557E-1	5.767489E-1	5.486300E-1	5.523070E-1	5.177997E-1	5.958926E-1	5.008262E-1	5.351568E-1	5.803275E-1	5.934533E-1	5.493701E-1	5.613987E-1	5.765220E-1	5.578355E-1	5.814963E-1	5.882649E-1	5.831161E-1	5.982538E-1	5.569389E-1	5.190026E-1	5.833461E-1	5.410810E-1	5.996996E-1	5.380282E-1	5.320250E-1	5.680533E-1	5.686554E-1	5.243475E-1	5.609456E-1	5.300509E-1	5.211543E-1	5.189947E-1	5.876849E-1	5.465582E-1	5.707702E-1	5.236741E-1	5.573018E-1	5.374381E-1	5.345688E-1	5.031832E-1	5.392710E-1	5.704274E-1	5.630214E-1	6.019248E-1	5.611732E-1	5.546957E-1	5.662904E-1	5.300343E-1	5.986129E-1	5.350347E-1	5.637709E-1	5.354550E-1	6.024288E-1	5.599987E-1	5.502999E-1	5.279652E-1	5.861570E-1	5.335842E-1	5.265735E-1	5.489891E-1	5.224848E-1	5.372828E-1	5.429848E-1	5.323717E-1	5.698228E-1	5.569473E-1	5.485571E-1	5.473971E-1	5.706355E-1	5.419680E-1	5.430459E-1	5.330144E-1	5.388844E-1	5.585520E-1	5.354857E-1	5.356078E-1	5.191352E-1	4.899344E-1	5.139306E-1	5.628671E-1	5.252007E-1	4.922493E-1	4.704782E-1	5.335333E-1	5.094707E-1	5.276723E-1	5.426173E-1	5.403035E-1	5.008625E-1	5.337566E-1	5.756404E-1	5.979354E-1	5.408617E-1	5.362362E-1	5.475074E-1	5.492278E-1	5.029272E-1	5.530575E-1	5.317068E-1	5.491389E-1	4.989440E-1	4.764770E-1	5.378769E-1	5.713853E-1	5.381567E-1	5.175255E-1	5.491695E-1	4.816709E-1	5.272668E-1	5.257512E-1	5.483467E-1	4.995064E-1	5.398387E-1	5.083528E-1	5.577686E-1	5.420566E-1	5.161024E-1	5.297190E-1	5.644900E-1	5.612559E-1	5.096100E-1	5.117108E-1	5.176271E-1	5.172091E-1	5.085685E-1	5.220173E-1	4.803514E-1	5.311036E-1	5.242416E-1	5.287198E-1	5.677542E-1	5.093397E-1
2.848020E+2	1.163458E+0	1.080171E+0	1.195446E+0	1.158080E+0	1.205929E+0	1.193640E+0	1.205169E+0	1.268011E+0	1.113306E+0	1.067824E+0	1.162402E+0	1.137194E+0	1.106841E+0	1.158421E+0	1.185840E+0	1.162911E+0	1.118737E+0	1.122568E+0	1.207278E+0	1.134663E+0	1.168621E+0	1.140164E+0	1.173526E+0	1.229207E+0	1.214846E+0	1.176385E+0	1.238877E+0	1.135502E+0	1.177957E+0	1.179897E+0	1.193481E+0	1.225857E+0	1.204660E+0	1.214424E+0	1.184513E+0	1.237013E+0	1.214732E+0	1.235135E+0	1.175318E+0	1.236863E+0	1.175810E+0	1.209808E+0	1.180979E+0	1.180977E+0	1.190925E+0	1.209747E+0	1.181962E+0	1.178782E+0	1.189621E+0	1.232383E+0	1.176333E+0	1.184309E+0	1.222651E+0	1.188202E+0	1.198154E+0	1.141299E+0	1.249876E+0	1.146665E+0	1.207231E+0	1.170285E+0	1.217528E+0	1.164210E+0	1.152921E+0	1.180905E+0	1.118074E+0	1.231830E+0	1.169947E+0	1.220788E+0	1.275660E+0	1.181217E+0	1.189322E+0	1.343590E+0	1.118889E+0	1.163493E+0	1.154322E+0	1.227619E+0	1.247118E+0	1.181216E+0	1.197409E+0	1.183957E+0	1.215171E+0	1.196920E+0	1.216773E+0	1.196181E+0	1.138780E+0	1.190275E+0	1.220338E+0	1.150072E+0	1.186251E+0	1.168599E+0	1.149279E+0	1.119845E+0	1.237097E+0	1.082715E+0	1.192024E+0	1.148278E+0	1.234700E+0	1.149620E+0	1.180894E+0	1.181886E+0	1.227962E+0	1.212102E+0	1.199291E+0	1.229898E+0	1.137226E+0	1.096683E+0	1.218107E+0	1.276818E+0	1.216170E+0	1.195429E+0	1.176549E+0	1.181934E+0	1.198400E+0	1.130043E+0	1.200911E+0	1.230273E+0	1.222736E+0	1.196251E+0	1.228224E+0	1.161094E+0	1.156284E+0	1.155096E+0	1.088909E+0	1.202031E+0	1.237329E+0	1.230992E+0	1.144531E+0	1.200333E+0	1.139600E+0	1.222446E+0	1.199077E+0	1.128001E+0	1.154797E+0	1.214400E+0	1.179120E+0	1.134505E+0	1.173627E+0	1.145560E+0	1.190782E+0	1.112914E+0	1.170638E+0	1.201484E+0	1.174805E+0	1.191521E+0	1.170931E+0	1.140787E+0	1.187896E+0	1.202086E+0	1.175798E+0	1.152415E+0	1.135253E+0	1.200981E+0	1.183580E+0	1.149735E+0	1.130626E+0	1.122163E+0	1.118997E+0	1.213281E+0	1.150660E+0	1.155386E+0	1.159238E+0	1.186784E+0	1.230502E+0	1.112525E+0	1.171254E+0	1.180380E+0	1.171814E+0	1.212507E+0	1.211846E+0	1.086477E+0	1.207010E+0
2.848990E+2	1.478465E+0	1.549951E+0	1.571183E+0	1.552686E+0	1.521824E+0	1.492970E+0	1.515594E+0	1.502160E+0	1.592448E+0	1.548887E+0	1.555375E+0	1.540421E+0	1.498837E+0	1.592198E+0	1.548814E+0	1.540186E+0	1.510907E+0	1.553341E+0	1.532051E+0	1.532340E+0	1.528155E+0	1.562988E+0	1.516657E+0	1.572873E+0	1.516337E+0	1.519515E+0	1.476244E+0	1.488924E+0	1.507663E+0	1.516841E+0	1.577703E+0	1.561639E+0	1.555233E+0	1.543563E+0	1.549046E+0	1.482791E+0	1.505854E+0	1.542952E+0	1.522910E+0	1.534320E+0	1.484390E+0	1.582291E+0	1.573526E+0	1.504100E+0	1.552518E+0	1.603021E+0	1.541341E+0	1.595317E+0	1.603909E+0	1.614973E+0	1.603991E+0	1.504827E+0	1.574484E+0	1.580480E+0	1.570183E+0	1.609566E+0	1.576080E+0	1.630677E+0	1.500581E+0	1.514993E+0	1.624912E+0	1.530162E+0	1.467564E+0	1.534352E+0	1.612815E+0	1.502185E+0	1.533572E+0	1.517952E+0	1.567177E+0	1.602680E+0	1.555619E+0	1.584320E+0	1.508818E+0	1.587491E+0	1.561193E+0	1.595628E+0	1.510336E+0	1.568347E+0	1.509295E+0	1.511121E+0	1.567771E+0	1.574908E+0	1.498631E+0	1.523145E+0	1.510602E+0	1.555700E+0	1.519675E+0	1.568101E+0	1.653770E+0	1.506757E+0	1.607731E+0	1.624109E+0	1.602257E+0	1.551288E+0	1.573542E+0	1.516855E+0	1.567135E+0	1.521487E+0	1.527121E+0	1.583994E+0	1.479371E+0	1.583929E+0	1.617530E+0	1.607044E+0	1.595429E+0	1.473653E+0	1.534338E+0	1.565135E+0	1.594758E+0	1.529627E+0	1.585280E+0	1.541165E+0	1.643228E+0	1.505632E+0	1.591346E+0	1.519199E+0	1.568408E+0	1.550637E+0	1.603155E+0	1.537504E+0	1.529630E+0	1.539558E+0	1.511324E+0	1.574398E+0	1.607204E+0	1.693704E+0	1.593560E+0	1.592389E+0	1.545579E+0	1.554484E+0	1.495839E+0	1.549871E+0	1.516787E+0	1.597580E+0	1.553613E+0	1.586900E+0	1.471926E+0	1.514283E+0	1.594717E+0	1.532458E+0	1.604093E+0	1.578517E+0	1.500670E+0	1.521151E+0	1.573470E+0	1.528118E+0	1.569484E+0	1.534969E+0	1.548856E+0	1.591933E+0	1.486023E+0	1.550166E+0	1.563365E+0	1.564750E+0	1.516369E+0	1.577745E+0	1.546238E+0	1.542930E+0	1.499580E+0	1.528783E+0	1.547157E+0	1.592687E+0	1.620978E+0	1.477006E+0	1.553017E+0	1.397237E+0	1.537743E+0	1.600739E+0	1.467035E+0	1.403421E+0	1.752149E+0
2.850010E+2	1.537050E+0	1.569881E+0	1.651614E+0	1.543859E+0	1.630917E+0	1.525134E+0	1.631503E+0	1.655002E+0	1.518654E+0	1.615757E+0	1.581852E+0	1.663151E+0	1.504586E+0	1.542393E+0	1.502222E+0	1.581076E+0	1.568368E+0	1.526537E+0	1.522745E+0	1.593379E+0	1.602898E+0	1.553705E+0	1.615122E+0	1.591675E+0	1.534181E+0	1.493768E+0	1.539765E+0	1.527719E+0	1.566509E+0	1.522608E+0	1.616050E+0	1.505557E+0	1.576005E+0	1.603129E+0	1.445972E+0	1.524062E+0	1.554947E+0	1.567202E+0	1.607670E+0	1.612709E+0	1.522989E+0	1.533135E+0	1.540910E+0	1.541758E+0	1.574161E+0	1.564847E+0	1.550514E+0	1.616597E+0	1.582966E+0	1.589274E+0	1.507028E+0	1.595996E+0	1.591220E+0	1.549220E+0	1.647634E+0	1.649532E+0	1.535373E+0	1.573976E+0	1.584204E+0	1.609845E+0	1.578180E+0	1.561705E+0	1.488824E+0	1.592170E+0	1.604509E+0	1.534150E+0	1.499291E+0	1.537578E+0	1.560134E+0	1.588015E+0	1.537190E+0	1.581312E+0	1.574887E+0	1.542905E+0	1.548986E+0	1.609323E+0	1.592966E+0	1.519172E+0	1.577755E+0	1.591674E+0	1.514313E+0	1.555297E+0	1.581150E+0	1.541374E+0	1.618235E+0	1.616049E+0	1.566420E+0	1.556541E+0	1.595868E+0	1.559995E+0	1.641112E+0	1.562086E+0	1.638371E+0	1.564845E+0	1.617989E+0	1.609027E+0	1.578408E+0	1.584759E+0	1.559242E+0	1.533510E+0	1.586700E+0	1.554872E+0	1.588596E+0	1.616941E+0	1.566109E+0	1.522633E+0	1.564709E+0	1.595610E+0	1.601950E+0	1.622757E+0	1.530353E+0	1.539419E+0	1.557216E+0	1.555346E+0	1.644780E+0	1.553915E+0	1.607740E+0	1.571121E+0	1.630474E+0	1.554940E+0	1.493361E+0	1.706778E+0	1.484055E+0	1.503864E+0	1.617003E+0	1.603063E+0	1.546445E+0	1.537465E+0	1.587047E+0	1.629810E+0	1.544654E+0	1.526476E+0	1.578021E+0	1.630565E+0	1.557907E+0	1.530459E+0	1.568805E+0	1.501931E+0	1.590445E+0	1.580654E+0	1.529221E+0	1.603498E+0	1.570002E+0	1.552138E+0	1.598769E+0	1.624622E+0	1.578412E+0	1.656342E+0	1.582574E+0	1.527368E+0	1.548287E+0	1.623570E+0	1.567820E+0	1.586459E+0	1.585495E+0	1.574751E+0	1.566452E+0	1.600381E+0	1.592627E+0	1.514434E+0	1.620822E+0	1.519773E+0	1.624859E+0	1.523826E+0	1.606420E+0	1.535393E+0	1.572933E+0	1.563750E+0	1.618866E+0	1.647986E+0	1.757371E+0
2.851060E+2	1.423691E+0	1.426404E+0	1.439087E+0	1.406816E+0	1.410512E+0	1.403466E+0	1.425546E+0	1.452122E+0	1.461547E+0	1.396245E+0	1.461151E+0	1.418914E+0	1.441863E+0	1.472366E+0	1.487034E+0	1.415888E+0	1.395352E+0	1.427802E+0	1.466287E+0	1.436373E+0	1.428733E+0	1.394728E+0	1.441843E+0	1.408180E+0	1.453013E+0	1.414675E+0	1.438066E+0	1.394892E+0	1.404088E+0	1.434921E+0	1.446371E+0	1.465291E+0	1.443519E+0	1.429956E+0	1.416885E+0	1.418547E+0	1.389746E+0	1.483114E+0	1.400232E+0	1.447117E+0	1.412922E+0	1.363781E+0	1.418932E+0	1.410002E+0	1.435776E+0	1.379842E+0	1.417072E+0	1.437268E+0	1.464750E+0	1.415250E+0	1.376195E+0	1.418392E+0	1.414830E+0	1.440818E+0	1.450827E+0	1.477648E+0	1.396148E+0	1.382684E+0	1.431763E+0	1.436079E+0	1.479659E+0	1.404547E+0	1.411172E+0	1.484533E+0	1.392923E+0	1.394120E+0	1.449815E+0	1.431239E+0	1.528431E+0	1.409971E+0	1.388136E+0	1.483371E+0	1.368695E+0	1.509305E+0	1.476680E+0	1.425309E+0	1.378002E+0	1.458199E+0	1.390791E+0	1.404931E+0	1.460434E+0	1.429115E+0	1.406993E+0	1.436604E+0	1.412226E+0	1.386815E+0	1.406468E+0	1.440947E+0	1.393816E+0	1.393941E+0	1.366402E+0	1.479725E+0	1.460019E+0	1.418842E+0	1.363274E+0	1.413449E+0	1.456467E+0	1.442168E+0	1.496465E+0	1.391157E+0	1.341181E+0	1.439435E+0	1.419140E+0	1.450727E+0	1.413777E+0	1.416412E+0	1.392876E+0	1.436059E+0	1.454056E+0	1.388426E+0	1.454908E+0	1.392542E+0	1.438882E+0	1.420213E+0	1.409625E+0	1.508791E+0	1.503610E+0	1.448132E+0	1.412654E+0	1.372900E+0	1.383442E+0	1.412332E+0	1.366957E+0	1.434100E+0	1.486638E+0	1.463746E+0	1.466471E+0	1.483022E+0	1.447418E+0	1.488700E+0	1.364608E+0	1.389628E+0	1.481092E+0	1.468885E+0	1.427513E+0	1.451937E+0	1.444298E+0	1.463802E+0	1.491895E+0	1.388630E+0	1.472770E+0	1.514271E+0	1.439856E+0	1.374869E+0	1.450999E+0	1.479646E+0	1.455673E+0	1.430688E+0	1.378186E+0	1.411935E+0	1.408321E+0	1.477173E+0	1.453783E+0	1.387146E+0	1.453091E+0	1.509498E+0	1.426144E+0	1.432050E+0	1.482377E+0	1.351871E+0	1.499272E+0	1.458706E+0	1.496456E+0	1.380562E+0	1.418477E+0	1.418988E+0	1.413511E+0	1.497350E+0	1.413220E+0	1.344359E+0	1.679281E+0
2.851990E+2	1.212202E+0	1.127906E+0	1.246744E+0	1.099944E+0	1.171714E+0	1.164663E+0	1.188438E+0	1.191161E+0	1.215404E+0	1.216401E+0	1.167177E+0	1.225961E+0	1.195196E+0	1.195116E+0	1.152953E+0	1.160404E+0	1.180237E+0	1.208631E+0	1.205380E+0	1.161450E+0	1.209187E+0	1.204538E+0	1.196047E+0	1.204258E+0	1.128954E+0	1.137128E+0	1.233610E+0	1.194614E+0	1.167168E+0	1.223444E+0	1.179041E+0	1.137477E+0	1.121347E+0	1.153331E+0	1.149854E+0	1.186982E+0	1.215664E+0	1.200730E+0	1.202017E+0	1.169053E+0	1.167776E+0	1.202220E+0	1.197675E+0	1.151887E+0	1.152982E+0	1.169932E+0	1.194869E+0	1.123549E+0	1.228848E+0	1.288778E+0	1.207559E+0	1.144019E+0	1.189565E+0	1.156488E+0	1.182200E+0	1.146095E+0	1.160264E+0	1.195516E+0	1.187930E+0	1.181969E+0	1.238236E+0	1.187044E+0	1.137713E+0	1.200052E+0	1.161284E+0	1.182722E+0	1.217954E+0	1.083701E+0	1.237384E+0	1.188717E+0	1.183286E+0	1.275023E+0	1.137171E+0	1.175755E+0	1.174862E+0	1.157728E+0	1.192696E+0	1.176216E+0	1.186543E+0	1.245885E+0	1.174383E+0	1.204885E+0	1.256354E+0	1.126243E+0	1.146669E+0	1.165043E+0	1.215554E+0	1.241501E+0	1.235812E+0	1.184416E+0	1.176810E+0	1.142735E+0	1.216604E+0	1.196243E+0	1.247279E+0	1.229856E+0	1.176769E+0	1.215571E+0	1.198596E+0	1.175693E+0	1.180076E+0	1.189683E+0	1.251350E+0	1.210967E+0	1.154977E+0	1.209613E+0	1.204077E+0	1.211617E+0	1.250399E+0	1.172915E+0	1.220480E+0	1.132500E+0	1.235494E+0	1.107991E+0	1.193433E+0	1.126154E+0	1.154546E+0	1.249851E+0	1.140169E+0	1.208679E+0	1.105505E+0	1.263689E+0	1.170338E+0	1.194479E+0	1.183727E+0	1.242115E+0	1.199789E+0	1.194822E+0	1.180827E+0	1.187504E+0	1.197481E+0	1.168460E+0	1.229881E+0	1.253852E+0	1.134890E+0	1.221473E+0	1.175644E+0	1.125937E+0	1.189419E+0	1.209826E+0	1.171974E+0	1.193243E+0	1.136298E+0	1.185067E+0	1.151576E+0	1.199852E+0	1.266796E+0	1.195447E+0	1.122233E+0	1.155102E+0	1.176980E+0	1.163633E+0	1.223491E+0	1.152265E+0	1.126266E+0	1.174994E+0	1.237185E+0	1.219223E+0	1.226780E+0	1.142202E+0	1.194961E+0	1.179663E+0	1.203578E+0	1.182631E+0	1.218702E+0	1.158719E+0	1.157193E+0	1.178972E+0	1.149578E+0	1.178588E+0	1.377003E+0
2.853000E+2	1.015331E+0	9.826565E-1	1.014211E+0	1.009131E+0	9.221746E-1	9.751812E-1	9.265509E-1	9.771403E-1	9.121251E-1	9.866558E-1	1.003022E+0	1.015349E+0	9.783059E-1	9.954529E-1	1.023653E+0	9.823092E-1	9.513021E-1	9.886254E-1	9.952314E-1	9.893478E-1	9.636711E-1	1.002421E+0	1.037385E+0	9.571270E-1	9.694568E-1	9.941125E-1	1.006004E+0	9.653017E-1	1.008364E+0	1.010195E+0	9.370330E-1	9.882989E-1	1.035685E+0	9.362307E-1	9.997518E-1	9.943548E-1	1.009500E+0	9.926182E-1	9.678677E-1	9.724083E-1	9.997510E-1	1.006320E+0	1.012565E+0	1.012330E+0	9.930892E-1	9.999018E-1	1.034632E+0	1.049130E+0	1.031584E+0	9.864887E-1	9.876807E-1	1.003023E+0	9.762495E-1	1.020141E+0	1.068312E+0	1.013052E+0	9.829126E-1	9.785902E-1	1.020194E+0	9.864181E-1	1.019346E+0	1.009901E+0	9.149936E-1	1.020791E+0	9.854624E-1	1.004661E+0	9.646642E-1	1.009800E+0	1.028727E+0	1.000277E+0	9.632659E-1	9.504425E-1	9.856562E-1	1.006018E+0	9.924555E-1	1.025569E+0	1.003437E+0	9.225735E-1	9.873349E-1	9.663959E-1	1.024430E+0	1.087367E+0	1.027047E+0	1.025614E+0	9.605414E-1	1.066759E+0	9.944331E-1	9.901182E-1	9.365856E-1	1.004729E+0	1.004938E+0	1.025873E+0	9.672300E-1	9.300259E-1	9.899375E-1	1.001287E+0	1.054103E+0	9.855991E-1	1.009440E+0	9.946002E-1	9.977290E-1	9.886457E-1	9.593653E-1	1.035319E+0	9.837137E-1	1.008490E+0	9.853822E-1	1.016192E+0	9.965240E-1	1.012002E+0	1.020840E+0	1.020196E+0	9.939837E-1	1.014712E+0	1.004216E+0	9.705908E-1	9.884195E-1	1.051722E+0	1.040793E+0	9.681810E-1	9.838411E-1	1.007364E+0	9.651709E-1	9.400380E-1	1.000482E+0	9.808320E-1	9.934082E-1	9.936797E-1	1.005989E+0	1.039783E+0	1.041380E+0	1.029525E+0	1.030754E+0	9.910588E-1	1.039224E+0	1.018134E+0	9.666560E-1	9.506910E-1	1.017094E+0	9.888019E-1	1.024852E+0	1.070247E+0	9.934127E-1	1.022994E+0	1.032120E+0	1.000515E+0	1.045643E+0	1.031570E+0	9.863446E-1	9.722641E-1	9.725226E-1	1.005607E+0	9.885518E-1	9.674596E-1	9.963244E-1	9.643322E-1	9.903178E-1	1.012197E+0	9.983852E-1	9.576947E-1	1.010155E+0	9.980197E-1	1.004086E+0	1.046117E+0	9.312752E-1	9.860221E-1	9.688503E-1	9.987399E-1	9.974855E-1	1.010988E+0	1.025277E+0
2.854020E+2	7.892401E-1	7.536201E-1	7.797397E-1	7.483640E-1	8.087641E-1	7.737313E-1	7.369857E-1	7.668820E-1	7.917459E-1	8.088560E-1	8.176365E-1	7.402055E-1	7.962232E-1	8.218296E-1	7.980126E-1	7.598653E-1	7.559993E-1	7.561681E-1	7.497925E-1	7.057947E-1	7.715901E-1	7.977386E-1	7.611830E-1	8.427269E-1	7.675439E-1	8.063191E-1	7.925546E-1	7.412299E-1	7.839473E-1	7.515905E-1	7.768285E-1	7.835783E-1	8.242278E-1	7.852663E-1	7.415311E-1	7.584855E-1	7.794121E-1	8.483532E-1	7.787461E-1	7.825657E-1	7.635796E-1	8.406023E-1	8.356729E-1	7.787079E-1	8.446528E-1	7.511324E-1	8.230052E-1	8.040945E-1	7.848458E-1	7.955979E-1	8.066857E-1	7.914980E-1	7.721806E-1	7.618316E-1	7.671451E-1	8.364432E-1	7.732737E-1	7.759378E-1	7.557695E-1	7.772088E-1	7.342291E-1	7.508279E-1	7.645135E-1	8.124860E-1	7.918480E-1	7.501069E-1	7.669820E-1	7.819917E-1	7.977076E-1	7.714249E-1	7.769126E-1	8.066991E-1	7.544286E-1	7.601573E-1	7.624198E-1	8.195858E-1	7.403639E-1	7.824836E-1	7.808698E-1	7.573137E-1	8.421165E-1	8.316858E-1	8.256703E-1	7.799153E-1	7.826678E-1	7.904912E-1	7.996631E-1	8.601784E-1	7.723717E-1	7.839476E-1	7.690592E-1	8.262461E-1	8.016603E-1	8.125095E-1	7.487838E-1	7.901225E-1	7.807562E-1	8.134235E-1	7.898217E-1	6.909346E-1	8.058864E-1	7.868820E-1	7.631511E-1	7.767734E-1	7.606163E-1	8.227221E-1	7.524605E-1	8.007387E-1	7.995415E-1	7.633004E-1	7.859341E-1	8.247230E-1	7.758539E-1	7.897318E-1	7.826817E-1	7.119724E-1	8.140651E-1	7.939120E-1	8.419223E-1	8.469728E-1	7.608796E-1	7.503193E-1	7.871167E-1	7.688641E-1	7.741756E-1	8.189620E-1	8.010298E-1	7.705090E-1	8.071674E-1	7.877247E-1	7.489690E-1	8.085625E-1	8.065460E-1	8.701493E-1	8.089106E-1	8.200145E-1	7.794940E-1	8.098607E-1	8.031368E-1	8.120940E-1	7.895612E-1	7.597778E-1	8.036623E-1	7.803456E-1	8.411959E-1	7.695740E-1	7.651674E-1	7.881697E-1	8.047378E-1	8.058957E-1	7.687940E-1	8.128225E-1	8.358447E-1	7.515219E-1	7.538847E-1	7.505898E-1	8.029683E-1	8.392310E-1	8.023387E-1	7.385145E-1	7.780127E-1	7.466039E-1	7.468926E-1	7.699851E-1	8.272044E-1	7.803371E-1	7.883372E-1	8.215955E-1	8.100540E-1	7.348930E-1	7.415149E-1
2.855000E+2	5.491640E-1	6.071730E-1	6.015768E-1	5.474408E-1	5.673366E-1	5.816290E-1	5.889866E-1	6.222214E-1	6.366742E-1	5.707261E-1	6.176496E-1	6.191856E-1	5.745504E-1	5.967608E-1	5.926091E-1	5.825364E-1	5.763872E-1	5.700032E-1	5.563928E-1	5.807884E-1	5.899300E-1	5.664860E-1	5.702135E-1	6.033978E-1	6.198744E-1	5.791787E-1	6.116576E-1	5.698788E-1	5.822406E-1	5.896748E-1	6.150296E-1	5.952661E-1	5.924416E-1	5.877492E-1	6.046819E-1	6.229460E-1	5.897600E-1	5.942429E-1	5.668850E-1	5.940589E-1	6.264748E-1	5.819070E-1	6.186746E-1	6.470750E-1	6.203174E-1	5.939134E-1	5.764569E-1	5.971975E-1	6.375032E-1	6.225334E-1	5.620986E-1	5.928008E-1	5.449974E-1	6.231595E-1	5.986344E-1	5.893962E-1	5.615823E-1	5.493961E-1	5.911912E-1	5.920503E-1	6.099719E-1	6.203319E-1	5.686550E-1	5.753154E-1	5.968763E-1	6.209868E-1	5.616174E-1	6.022692E-1	6.081161E-1	6.013054E-1	5.848685E-1	6.338114E-1	6.068963E-1	6.221030E-1	5.682888E-1	6.019814E-1	5.963161E-1	6.017414E-1	5.806620E-1	5.970764E-1	6.066822E-1	6.010853E-1	6.031533E-1	6.125898E-1	5.887628E-1	5.874367E-1	5.796814E-1	5.744346E-1	5.991414E-1	6.049792E-1	5.997366E-1	6.086393E-1	6.177566E-1	6.052087E-1	6.201046E-1	6.139321E-1	5.932735E-1	6.224775E-1	5.710926E-1	5.433892E-1	5.910112E-1	5.723311E-1	5.944090E-1	6.018007E-1	5.926727E-1	5.928267E-1	5.791127E-1	6.168173E-1	5.755817E-1	6.117439E-1	6.361187E-1	6.022317E-1	6.686315E-1	6.512835E-1	6.684770E-1	5.447930E-1	6.276604E-1	5.717791E-1	6.343403E-1	6.049661E-1	5.769057E-1	6.126133E-1	6.238456E-1	6.417473E-1	6.103304E-1	6.126766E-1	6.030884E-1	6.187675E-1	6.315231E-1	6.230366E-1	5.663287E-1	6.401592E-1	6.125303E-1	6.274517E-1	6.043769E-1	5.527026E-1	6.017720E-1	5.888798E-1	5.871338E-1	5.623254E-1	6.154675E-1	6.453936E-1	6.056716E-1	5.741057E-1	6.281525E-1	5.499831E-1	5.818718E-1	5.858408E-1	5.345577E-1	5.641427E-1	5.821712E-1	6.209020E-1	5.822688E-1	5.998941E-1	5.473640E-1	5.916596E-1	5.844785E-1	6.059272E-1	5.787234E-1	6.100674E-1	5.999919E-1	6.283578E-1	5.884827E-1	5.513108E-1	5.971218E-1	5.643348E-1	5.922292E-1	6.067908E-1	6.156289E-1	6.092014E-1	6.185759E-1
2.856010E+2	3.979623E-1	3.906977E-1	4.173973E-1	3.826092E-1	4.082666E-1	4.269129E-1	4.244877E-1	3.905277E-1	4.051529E-1	4.411502E-1	4.454318E-1	4.274991E-1	4.408577E-1	3.921021E-1	4.140472E-1	4.249955E-1	4.153576E-1	4.026035E-1	4.067929E-1	3.948281E-1	4.141550E-1	4.260219E-1	4.377300E-1	4.233800E-1	4.312135E-1	4.488585E-1	4.267558E-1	4.466556E-1	3.981838E-1	4.207724E-1	4.521160E-1	4.326152E-1	4.145300E-1	4.698070E-1	3.725569E-1	4.263052E-1	4.042996E-1	3.928994E-1	3.977540E-1	4.198320E-1	4.306405E-1	4.550213E-1	4.188411E-1	4.219463E-1	4.029377E-1	4.477468E-1	3.799071E-1	4.505558E-1	4.496963E-1	4.090758E-1	4.225743E-1	4.201968E-1	4.216243E-1	4.558599E-1	4.410641E-1	4.085831E-1	4.183359E-1	4.118575E-1	4.392745E-1	4.458787E-1	4.399833E-1	4.492497E-1	4.040997E-1	4.634622E-1	4.330885E-1	4.090095E-1	4.098253E-1	4.299510E-1	4.271959E-1	3.809459E-1	4.235039E-1	4.312304E-1	4.264528E-1	4.078244E-1	4.224387E-1	4.208167E-1	3.958446E-1	4.114516E-1	4.070237E-1	4.049108E-1	4.337193E-1	4.659516E-1	4.363074E-1	4.024573E-1	4.248533E-1	4.087547E-1	4.197814E-1	4.003993E-1	4.162560E-1	4.402935E-1	4.207585E-1	4.564062E-1	4.601867E-1	4.327188E-1	4.003078E-1	4.487044E-1	4.270164E-1	4.514390E-1	4.271955E-1	3.772638E-1	4.301659E-1	4.046817E-1	4.271807E-1	4.189753E-1	4.586971E-1	4.378713E-1	4.300032E-1	4.942695E-1	4.410203E-1	4.270335E-1	3.956945E-1	4.393259E-1	4.132703E-1	4.223330E-1	4.249289E-1	4.451630E-1	4.186075E-1	3.894194E-1	4.052977E-1	4.223036E-1	4.040142E-1	4.605227E-1	4.687333E-1	4.066345E-1	4.459375E-1	4.851031E-1	4.623719E-1	4.150257E-1	4.240258E-1	4.498856E-1	4.087497E-1	4.424650E-1	4.116256E-1	4.063705E-1	4.423646E-1	4.509555E-1	3.981422E-1	4.125630E-1	4.594348E-1	4.234944E-1	4.085855E-1	4.439637E-1	4.391732E-1	4.476624E-1	4.084944E-1	4.335539E-1	4.335509E-1	4.229880E-1	4.070400E-1	4.114369E-1	4.084655E-1	4.301779E-1	4.380942E-1	3.905621E-1	4.442244E-1	4.241551E-1	4.301567E-1	4.270977E-1	4.365879E-1	4.266587E-1	4.438680E-1	4.111752E-1	4.429584E-1	4.405744E-1	4.605660E-1	4.329915E-1	4.313561E-1	4.304912E-1	4.659320E-1	3.712747E-1	4.438936E-1
2.858030E+2	3.924542E-1	3.731721E-1	4.126943E-1	3.964416E-1	4.117226E-1	3.647653E-1	3.893411E-1	4.024744E-1	3.864688E-1	3.811906E-1	4.256635E-1	3.987715E-1	4.043624E-1	3.962129E-1	3.680377E-1	4.198539E-1	3.677709E-1	3.786346E-1	3.835704E-1	3.932573E-1	3.978621E-1	4.120907E-1	4.278954E-1	4.156264E-1	3.838059E-1	4.270372E-1	3.848300E-1	3.983453E-1	4.265127E-1	4.257867E-1	3.674141E-1	4.103522E-1	4.197544E-1	4.232379E-1	3.974719E-1	4.495089E-1	3.987627E-1	4.371399E-1	4.273357E-1	3.979904E-1	3.970829E-1	4.059841E-1	4.066790E-1	3.743679E-1	4.085098E-1	4.199700E-1	4.012478E-1	4.279578E-1	4.004163E-1	4.004629E-1	3.734274E-1	4.143087E-1	4.118468E-1	4.303482E-1	3.806549E-1	4.185048E-1	3.879239E-1	3.492141E-1	3.796531E-1	4.098462E-1	4.432608E-1	3.831593E-1	3.951947E-1	3.776521E-1	4.112825E-1	4.158480E-1	4.010016E-1	3.968929E-1	4.481406E-1	3.944320E-1	4.195569E-1	4.161157E-1	4.115159E-1	3.885690E-1	3.867928E-1	3.814050E-1	4.229342E-1	3.931166E-1	3.984041E-1	3.772457E-1	4.225101E-1	4.251048E-1	3.841007E-1	4.108119E-1	4.298623E-1	3.723519E-1	4.168262E-1	3.721009E-1	3.941657E-1	3.951553E-1	4.073885E-1	4.210304E-1	4.299532E-1	3.965320E-1	4.191791E-1	3.754128E-1	4.049783E-1	3.853260E-1	3.976193E-1	4.147155E-1	3.813991E-1	4.150702E-1	3.736504E-1	4.395897E-1	4.246478E-1	4.111407E-1	4.027684E-1	4.043175E-1	4.048557E-1	4.105810E-1	4.438650E-1	4.199194E-1	4.133172E-1	4.055921E-1	3.743801E-1	3.845410E-1	4.180676E-1	4.082585E-1	3.870266E-1	3.759674E-1	3.975034E-1	4.321202E-1	3.796954E-1	3.998019E-1	4.141738E-1	4.741438E-1	4.188024E-1	4.330146E-1	3.982307E-1	3.976118E-1	3.872901E-1	3.801344E-1	4.142044E-1	3.974373E-1	3.905599E-1	4.185624E-1	4.116385E-1	3.823879E-1	3.977882E-1	4.061219E-1	4.156353E-1	4.035950E-1	3.856617E-1	3.879394E-1	4.105284E-1	4.174822E-1	4.085369E-1	4.029180E-1	4.272845E-1	3.869935E-1	4.107430E-1	4.302165E-1	4.103792E-1	4.378930E-1	3.978770E-1	4.269886E-1	3.868424E-1	3.604589E-1	4.165919E-1	3.967338E-1	3.731805E-1	4.134979E-1	3.910760E-1	3.943120E-1	4.303456E-1	4.010711E-1	3.750080E-1	3.998045E-1	4.098390E-1	4.155086E-1	3.969360E-1
2.860070E+2	8.134729E-1	8.639855E-1	8.472174E-1	8.447185E-1	8.810129E-1	8.086950E-1	8.218515E-1	8.801681E-1	8.632062E-1	8.507389E-1	8.402826E-1	8.261644E-1	8.351887E-1	9.221139E-1	7.871180E-1	8.083802E-1	8.245571E-1	7.939931E-1	8.557183E-1	8.225989E-1	8.780343E-1	8.215448E-1	8.642769E-1	8.981066E-1	8.925819E-1	8.122040E-1	8.875462E-1	8.703088E-1	8.979622E-1	8.538055E-1	9.039693E-1	8.310395E-1	8.313126E-1	8.006236E-1	8.373742E-1	9.116819E-1	8.992006E-1	8.570671E-1	9.115893E-1	8.493579E-1	8.886584E-1	8.659230E-1	9.424285E-1	8.388629E-1	9.108587E-1	8.982133E-1	8.300931E-1	8.865112E-1	9.188742E-1	8.729034E-1	8.719120E-1	9.173116E-1	8.260531E-1	8.900565E-1	8.393231E-1	8.548114E-1	9.217055E-1	8.465303E-1	8.953552E-1	8.686272E-1	8.580797E-1	8.090101E-1	8.456420E-1	8.630611E-1	8.959645E-1	7.939514E-1	9.045316E-1	8.886976E-1	8.827132E-1	8.619503E-1	8.599314E-1	9.096072E-1	8.456619E-1	9.449337E-1	8.600380E-1	8.666789E-1	8.447556E-1	8.800047E-1	8.281615E-1	8.511186E-1	8.928114E-1	9.398002E-1	8.687842E-1	8.320282E-1	8.869307E-1	8.373203E-1	8.900155E-1	8.714956E-1	8.551580E-1	8.826218E-1	8.143256E-1	7.871341E-1	8.686961E-1	9.060625E-1	8.142805E-1	8.330259E-1	9.022263E-1	8.536916E-1	8.765504E-1	8.559870E-1	8.430596E-1	9.083906E-1	8.616608E-1	8.714007E-1	8.586758E-1	8.884647E-1	8.930072E-1	8.469808E-1	9.288611E-1	8.776051E-1	8.507237E-1	8.117028E-1	8.705082E-1	8.381877E-1	9.185067E-1	8.452075E-1	8.227412E-1	9.195117E-1	8.818704E-1	9.095783E-1	8.740949E-1	8.839316E-1	8.561807E-1	7.943751E-1	8.175795E-1	8.856962E-1	8.596269E-1	8.559892E-1	8.372645E-1	8.730937E-1	9.209346E-1	8.920602E-1	8.656327E-1	9.204847E-1	8.752837E-1	8.661479E-1	9.256863E-1	8.183074E-1	8.243688E-1	7.974560E-1	8.564869E-1	8.724863E-1	9.041135E-1	8.677891E-1	9.101122E-1	8.395020E-1	8.428884E-1	8.409816E-1	8.146007E-1	8.057706E-1	8.613540E-1	8.830978E-1	8.958725E-1	7.892266E-1	8.480454E-1	8.371527E-1	8.671081E-1	8.891714E-1	8.254729E-1	8.050224E-1	8.997071E-1	8.188181E-1	8.870033E-1	8.012908E-1	8.224855E-1	8.256490E-1	8.765592E-1	9.053119E-1	8.688992E-1	8.511620E-1	1.023033E+0
2.862030E+2	1.301617E+0	1.307122E+0	1.421749E+0	1.285545E+0	1.328468E+0	1.311675E+0	1.310528E+0	1.303079E+0	1.353242E+0	1.396384E+0	1.360461E+0	1.326683E+0	1.355295E+0	1.355310E+0	1.358894E+0	1.285041E+0	1.329408E+0	1.314299E+0	1.274202E+0	1.241053E+0	1.340571E+0	1.256413E+0	1.291464E+0	1.309257E+0	1.349089E+0	1.282634E+0	1.396111E+0	1.343480E+0	1.285268E+0	1.363975E+0	1.323212E+0	1.311943E+0	1.291276E+0	1.244758E+0	1.310371E+0	1.302075E+0	1.367549E+0	1.360746E+0	1.314729E+0	1.301332E+0	1.280515E+0	1.353161E+0	1.226592E+0	1.290115E+0	1.278198E+0	1.290883E+0	1.287044E+0	1.312732E+0	1.436414E+0	1.319164E+0	1.307024E+0	1.310267E+0	1.288854E+0	1.319915E+0	1.345543E+0	1.358711E+0	1.373448E+0	1.342086E+0	1.304626E+0	1.216668E+0	1.298241E+0	1.304331E+0	1.303632E+0	1.360578E+0	1.302654E+0	1.307971E+0	1.329227E+0	1.311631E+0	1.311815E+0	1.276926E+0	1.305398E+0	1.375790E+0	1.356920E+0	1.331096E+0	1.283380E+0	1.236231E+0	1.355935E+0	1.252633E+0	1.381831E+0	1.341584E+0	1.422296E+0	1.338272E+0	1.307070E+0	1.364806E+0	1.357826E+0	1.322226E+0	1.346524E+0	1.380177E+0	1.368973E+0	1.372794E+0	1.366709E+0	1.306672E+0	1.364911E+0	1.324266E+0	1.324843E+0	1.352791E+0	1.277088E+0	1.301093E+0	1.367247E+0	1.347932E+0	1.250083E+0	1.353255E+0	1.374767E+0	1.360909E+0	1.365935E+0	1.316730E+0	1.381744E+0	1.295259E+0	1.413787E+0	1.312093E+0	1.358097E+0	1.295025E+0	1.351899E+0	1.311547E+0	1.349103E+0	1.347652E+0	1.379520E+0	1.360705E+0	1.309149E+0	1.287268E+0	1.370098E+0	1.331878E+0	1.332659E+0	1.329409E+0	1.407277E+0	1.352199E+0	1.329150E+0	1.359555E+0	1.424976E+0	1.362030E+0	1.287955E+0	1.297961E+0	1.370363E+0	1.302508E+0	1.361069E+0	1.302950E+0	1.360457E+0	1.301595E+0	1.353180E+0	1.282342E+0	1.378877E+0	1.407981E+0	1.318883E+0	1.223735E+0	1.336987E+0	1.353602E+0	1.353792E+0	1.345851E+0	1.367520E+0	1.317889E+0	1.353702E+0	1.319744E+0	1.276415E+0	1.263654E+0	1.296777E+0	1.348655E+0	1.318540E+0	1.334425E+0	1.431277E+0	1.309689E+0	1.304511E+0	1.279406E+0	1.358335E+0	1.308525E+0	1.419486E+0	1.274227E+0	1.347522E+0	1.338926E+0	1.324975E+0	1.282404E+0	1.462621E+0
2.864220E+2	1.415460E+0	1.367459E+0	1.393546E+0	1.350761E+0	1.430946E+0	1.329383E+0	1.415646E+0	1.353804E+0	1.359317E+0	1.385381E+0	1.340947E+0	1.400756E+0	1.349187E+0	1.376604E+0	1.411922E+0	1.295230E+0	1.306140E+0	1.313587E+0	1.352767E+0	1.324790E+0	1.368565E+0	1.341807E+0	1.376418E+0	1.318258E+0	1.335727E+0	1.343741E+0	1.386004E+0	1.357017E+0	1.364154E+0	1.371885E+0	1.325004E+0	1.375425E+0	1.390695E+0	1.336474E+0	1.356684E+0	1.346910E+0	1.394475E+0	1.388783E+0	1.424182E+0	1.398095E+0	1.373320E+0	1.332995E+0	1.368408E+0	1.342928E+0	1.325756E+0	1.403713E+0	1.352087E+0	1.395882E+0	1.457948E+0	1.355044E+0	1.378849E+0	1.362438E+0	1.365496E+0	1.399472E+0	1.392734E+0	1.368657E+0	1.382227E+0	1.302113E+0	1.414781E+0	1.368346E+0	1.381964E+0	1.334566E+0	1.384752E+0	1.422059E+0	1.349557E+0	1.374794E+0	1.428099E+0	1.365037E+0	1.431039E+0	1.347819E+0	1.354310E+0	1.396810E+0	1.378445E+0	1.427353E+0	1.376936E+0	1.382876E+0	1.354436E+0	1.384485E+0	1.402948E+0	1.341752E+0	1.346134E+0	1.467461E+0	1.379486E+0	1.275640E+0	1.410410E+0	1.442144E+0	1.378413E+0	1.394333E+0	1.372459E+0	1.381188E+0	1.343327E+0	1.388996E+0	1.418007E+0	1.387624E+0	1.359857E+0	1.351231E+0	1.357430E+0	1.404719E+0	1.440912E+0	1.358258E+0	1.387509E+0	1.398189E+0	1.381818E+0	1.373607E+0	1.490257E+0	1.422257E+0	1.388350E+0	1.348309E+0	1.461608E+0	1.382321E+0	1.395123E+0	1.317929E+0	1.395683E+0	1.344639E+0	1.362437E+0	1.271530E+0	1.392988E+0	1.386170E+0	1.365017E+0	1.362135E+0	1.266386E+0	1.387683E+0	1.309321E+0	1.382445E+0	1.409534E+0	1.453503E+0	1.351293E+0	1.335019E+0	1.386074E+0	1.401587E+0	1.380238E+0	1.352331E+0	1.359277E+0	1.415524E+0	1.373647E+0	1.373531E+0	1.402153E+0	1.372975E+0	1.337628E+0	1.311911E+0	1.398315E+0	1.360205E+0	1.413065E+0	1.327842E+0	1.360133E+0	1.412591E+0	1.372874E+0	1.417085E+0	1.343010E+0	1.415036E+0	1.316402E+0	1.426670E+0	1.422111E+0	1.389332E+0	1.310149E+0	1.364163E+0	1.412204E+0	1.402126E+0	1.384321E+0	1.384225E+0	1.351251E+0	1.405470E+0	1.389439E+0	1.298780E+0	1.401726E+0	1.347202E+0	1.376730E+0	1.440331E+0	1.408155E+0	1.424380E+0	1.469868E+0
2.866160E+2	1.213683E+0	1.228065E+0	1.257925E+0	1.220565E+0	1.179389E+0	1.226082E+0	1.258092E+0	1.285212E+0	1.173481E+0	1.275237E+0	1.222611E+0	1.254392E+0	1.232757E+0	1.198581E+0	1.194068E+0	1.267801E+0	1.173796E+0	1.209634E+0	1.298936E+0	1.168611E+0	1.242341E+0	1.260973E+0	1.297313E+0	1.258803E+0	1.206195E+0	1.212025E+0	1.225096E+0	1.213305E+0	1.296897E+0	1.242009E+0	1.253918E+0	1.244015E+0	1.286444E+0	1.244286E+0	1.234787E+0	1.260664E+0	1.219310E+0	1.266223E+0	1.232258E+0	1.235472E+0	1.201601E+0	1.205853E+0	1.241654E+0	1.236429E+0	1.223453E+0	1.221279E+0	1.251608E+0	1.211537E+0	1.364332E+0	1.241745E+0	1.205857E+0	1.182524E+0	1.197020E+0	1.241166E+0	1.277931E+0	1.260467E+0	1.225458E+0	1.245655E+0	1.260925E+0	1.236509E+0	1.248552E+0	1.284290E+0	1.204281E+0	1.196245E+0	1.348438E+0	1.224249E+0	1.225386E+0	1.276461E+0	1.283309E+0	1.234388E+0	1.268917E+0	1.253265E+0	1.343199E+0	1.268521E+0	1.203217E+0	1.209447E+0	1.222393E+0	1.296426E+0	1.237395E+0	1.203932E+0	1.182590E+0	1.278750E+0	1.249870E+0	1.215820E+0	1.222933E+0	1.323997E+0	1.232011E+0	1.247705E+0	1.234725E+0	1.240717E+0	1.248594E+0	1.324076E+0	1.267736E+0	1.227842E+0	1.215511E+0	1.230192E+0	1.236620E+0	1.224307E+0	1.220100E+0	1.212921E+0	1.189919E+0	1.211384E+0	1.216239E+0	1.263403E+0	1.215651E+0	1.249355E+0	1.201383E+0	1.278755E+0	1.262901E+0	1.253340E+0	1.253281E+0	1.247231E+0	1.245844E+0	1.203913E+0	1.265400E+0	1.256170E+0	1.276778E+0	1.199609E+0	1.254102E+0	1.256056E+0	1.292236E+0	1.219402E+0	1.275611E+0	1.202241E+0	1.290021E+0	1.297675E+0	1.347561E+0	1.250568E+0	1.321815E+0	1.262677E+0	1.193689E+0	1.267299E+0	1.208510E+0	1.209910E+0	1.252864E+0	1.298218E+0	1.241638E+0	1.184084E+0	1.249987E+0	1.158211E+0	1.246741E+0	1.164438E+0	1.266114E+0	1.183332E+0	1.254073E+0	1.188301E+0	1.207214E+0	1.167020E+0	1.267617E+0	1.262567E+0	1.215081E+0	1.233232E+0	1.331694E+0	1.178352E+0	1.172312E+0	1.176645E+0	1.236844E+0	1.243286E+0	1.301595E+0	1.145887E+0	1.235354E+0	1.221400E+0	1.235103E+0	1.187189E+0	1.267987E+0	1.215603E+0	1.267634E+0	1.262211E+0	1.239807E+0	1.192185E+0	1.127762E+0
2.868020E+2	1.425614E+0	1.341791E+0	1.445634E+0	1.362166E+0	1.382963E+0	1.427624E+0	1.428128E+0	1.390467E+0	1.422271E+0	1.412850E+0	1.394966E+0	1.398714E+0	1.342666E+0	1.420449E+0	1.403039E+0	1.356605E+0	1.377784E+0	1.366575E+0	1.385845E+0	1.325823E+0	1.437191E+0	1.319670E+0	1.384375E+0	1.361519E+0	1.381656E+0	1.408977E+0	1.478797E+0	1.335764E+0	1.406435E+0	1.359387E+0	1.401894E+0	1.392986E+0	1.450751E+0	1.404376E+0	1.364946E+0	1.382203E+0	1.416238E+0	1.440642E+0	1.472853E+0	1.346499E+0	1.342999E+0	1.388711E+0	1.398875E+0	1.364168E+0	1.394278E+0	1.383262E+0	1.358006E+0	1.408923E+0	1.390665E+0	1.414013E+0	1.389393E+0	1.367055E+0	1.458538E+0	1.426424E+0	1.467394E+0	1.421973E+0	1.401115E+0	1.357709E+0	1.386327E+0	1.370740E+0	1.416509E+0	1.421223E+0	1.399460E+0	1.400678E+0	1.384332E+0	1.325812E+0	1.441572E+0	1.419747E+0	1.409079E+0	1.459098E+0	1.352933E+0	1.435319E+0	1.354666E+0	1.448773E+0	1.341353E+0	1.379109E+0	1.426634E+0	1.435022E+0	1.337638E+0	1.364224E+0	1.437485E+0	1.421170E+0	1.378914E+0	1.347749E+0	1.413796E+0	1.390360E+0	1.432727E+0	1.370727E+0	1.437150E+0	1.459011E+0	1.380926E+0	1.434655E+0	1.444064E+0	1.373269E+0	1.392074E+0	1.398079E+0	1.374665E+0	1.340365E+0	1.411192E+0	1.323287E+0	1.427210E+0	1.436876E+0	1.386593E+0	1.382186E+0	1.391404E+0	1.363450E+0	1.435308E+0	1.428517E+0	1.429962E+0	1.382279E+0	1.420086E+0	1.387822E+0	1.345010E+0	1.377425E+0	1.437865E+0	1.439937E+0	1.388135E+0	1.434577E+0	1.408632E+0	1.378786E+0	1.386726E+0	1.405417E+0	1.426920E+0	1.466589E+0	1.465620E+0	1.494113E+0	1.416774E+0	1.404288E+0	1.410132E+0	1.475254E+0	1.352300E+0	1.301241E+0	1.367874E+0	1.426142E+0	1.380823E+0	1.305038E+0	1.408765E+0	1.362675E+0	1.482167E+0	1.339602E+0	1.460844E+0	1.368981E+0	1.396178E+0	1.361465E+0	1.442230E+0	1.383683E+0	1.413510E+0	1.403505E+0	1.384788E+0	1.355515E+0	1.358379E+0	1.353844E+0	1.510185E+0	1.356489E+0	1.371019E+0	1.401993E+0	1.440963E+0	1.367708E+0	1.442994E+0	1.410955E+0	1.386244E+0	1.434358E+0	1.501850E+0	1.387994E+0	1.488233E+0	1.415779E+0	1.425728E+0	1.403991E+0	1.415065E+0	1.316900E+0	1.511169E+0
2.870060E+2	1.403682E+0	1.346694E+0	1.455090E+0	1.341404E+0	1.405043E+0	1.411515E+0	1.374123E+0	1.457364E+0	1.439778E+0	1.390693E+0	1.347418E+0	1.361472E+0	1.394220E+0	1.526966E+0	1.366398E+0	1.420048E+0	1.392676E+0	1.346174E+0	1.443948E+0	1.391942E+0	1.457676E+0	1.381138E+0	1.355594E+0	1.433342E+0	1.375856E+0	1.379667E+0	1.395321E+0	1.350034E+0	1.439440E+0	1.398518E+0	1.355827E+0	1.360037E+0	1.354641E+0	1.420619E+0	1.333881E+0	1.437656E+0	1.347048E+0	1.403642E+0	1.392568E+0	1.379179E+0	1.353595E+0	1.367655E+0	1.373672E+0	1.377902E+0	1.396662E+0	1.440830E+0	1.358166E+0	1.392973E+0	1.432591E+0	1.403464E+0	1.363885E+0	1.399145E+0	1.359909E+0	1.409068E+0	1.439235E+0	1.384156E+0	1.399086E+0	1.376217E+0	1.373244E+0	1.374740E+0	1.399190E+0	1.397644E+0	1.307413E+0	1.421263E+0	1.371479E+0	1.347869E+0	1.372254E+0	1.341553E+0	1.443839E+0	1.380895E+0	1.331682E+0	1.417566E+0	1.453824E+0	1.439646E+0	1.330737E+0	1.312720E+0	1.395621E+0	1.423354E+0	1.394530E+0	1.371576E+0	1.427556E+0	1.440112E+0	1.428910E+0	1.311873E+0	1.456227E+0	1.400901E+0	1.371837E+0	1.441079E+0	1.385992E+0	1.365793E+0	1.468789E+0	1.347974E+0	1.434863E+0	1.403487E+0	1.322988E+0	1.416417E+0	1.405762E+0	1.399376E+0	1.375523E+0	1.385319E+0	1.338056E+0	1.402240E+0	1.459685E+0	1.349642E+0	1.380794E+0	1.410271E+0	1.378985E+0	1.392210E+0	1.502503E+0	1.378815E+0	1.394492E+0	1.359106E+0	1.404231E+0	1.357824E+0	1.416628E+0	1.401078E+0	1.444636E+0	1.398501E+0	1.428683E+0	1.421488E+0	1.379485E+0	1.426910E+0	1.430737E+0	1.331829E+0	1.385233E+0	1.423433E+0	1.450653E+0	1.441134E+0	1.380995E+0	1.475032E+0	1.434982E+0	1.398401E+0	1.359777E+0	1.390688E+0	1.415625E+0	1.373390E+0	1.436425E+0	1.337408E+0	1.446983E+0	1.407797E+0	1.365401E+0	1.452284E+0	1.382615E+0	1.371910E+0	1.395530E+0	1.466947E+0	1.429070E+0	1.393477E+0	1.298096E+0	1.392044E+0	1.409151E+0	1.361980E+0	1.420976E+0	1.426580E+0	1.359432E+0	1.372297E+0	1.377321E+0	1.455904E+0	1.374363E+0	1.347159E+0	1.403130E+0	1.377538E+0	1.415530E+0	1.435517E+0	1.374121E+0	1.359401E+0	1.366601E+0	1.363304E+0	1.417385E+0	1.515446E+0	1.606525E+0
2.872190E+2	1.177243E+0	1.127796E+0	1.237418E+0	1.127152E+0	1.202315E+0	1.159992E+0	1.167633E+0	1.198889E+0	1.162843E+0	1.211992E+0	1.144533E+0	1.217834E+0	1.134266E+0	1.222658E+0	1.144258E+0	1.167512E+0	1.138357E+0	1.181971E+0	1.223285E+0	1.142652E+0	1.188173E+0	1.147311E+0	1.199779E+0	1.174884E+0	1.104203E+0	1.224425E+0	1.196669E+0	1.148488E+0	1.218590E+0	1.148752E+0	1.161519E+0	1.184972E+0	1.151555E+0	1.183492E+0	1.145418E+0	1.203344E+0	1.137426E+0	1.174890E+0	1.194057E+0	1.178640E+0	1.157288E+0	1.153016E+0	1.220673E+0	1.136620E+0	1.207032E+0	1.197749E+0	1.178065E+0	1.174939E+0	1.204861E+0	1.154541E+0	1.190691E+0	1.172919E+0	1.195193E+0	1.186731E+0	1.226783E+0	1.199635E+0	1.129059E+0	1.195943E+0	1.189912E+0	1.174648E+0	1.222086E+0	1.169222E+0	1.172755E+0	1.205065E+0	1.154622E+0	1.213389E+0	1.189550E+0	1.153593E+0	1.267425E+0	1.150944E+0	1.130162E+0	1.258358E+0	1.204805E+0	1.215576E+0	1.131776E+0	1.204406E+0	1.221359E+0	1.177426E+0	1.194458E+0	1.119927E+0	1.165220E+0	1.192026E+0	1.247788E+0	1.136446E+0	1.214744E+0	1.155808E+0	1.183333E+0	1.170517E+0	1.246928E+0	1.219753E+0	1.130703E+0	1.166885E+0	1.219599E+0	1.155083E+0	1.236821E+0	1.194195E+0	1.196995E+0	1.206545E+0	1.251583E+0	1.179661E+0	1.194712E+0	1.192054E+0	1.244893E+0	1.225468E+0	1.226387E+0	1.256307E+0	1.159611E+0	1.209125E+0	1.176807E+0	1.193801E+0	1.212021E+0	1.166847E+0	1.235344E+0	1.185850E+0	1.162445E+0	1.202841E+0	1.161612E+0	1.198951E+0	1.215862E+0	1.191625E+0	1.184650E+0	1.274562E+0	1.179186E+0	1.109380E+0	1.198954E+0	1.176403E+0	1.245903E+0	1.173819E+0	1.247717E+0	1.224238E+0	1.191331E+0	1.164847E+0	1.190088E+0	1.174504E+0	1.235634E+0	1.169852E+0	1.237716E+0	1.148346E+0	1.270322E+0	1.133213E+0	1.151655E+0	1.193401E+0	1.107896E+0	1.230560E+0	1.243763E+0	1.158058E+0	1.229690E+0	1.148409E+0	1.114210E+0	1.170632E+0	1.204817E+0	1.175078E+0	1.270112E+0	1.152727E+0	1.188467E+0	1.161668E+0	1.211142E+0	1.221000E+0	1.184248E+0	1.179262E+0	1.160180E+0	1.235156E+0	1.193309E+0	1.150178E+0	1.197099E+0	1.181554E+0	1.248143E+0	1.166055E+0	1.241430E+0	1.131341E+0	1.207419E+0
2.874030E+2	9.183120E-1	9.225005E-1	9.461378E-1	9.560708E-1	9.947779E-1	9.733695E-1	9.459886E-1	9.581246E-1	9.413195E-1	9.935553E-1	9.872410E-1	9.367291E-1	9.685637E-1	9.634758E-1	9.426202E-1	9.061952E-1	9.191128E-1	9.596869E-1	9.808261E-1	9.138276E-1	9.695485E-1	9.326063E-1	9.348040E-1	9.515320E-1	9.175253E-1	9.794176E-1	9.763460E-1	9.524780E-1	9.349050E-1	9.799456E-1	9.673359E-1	9.641936E-1	9.864757E-1	9.572596E-1	9.283518E-1	9.500584E-1	9.637222E-1	1.010895E+0	9.296388E-1	9.204930E-1	9.159506E-1	9.467889E-1	9.262611E-1	9.714910E-1	9.926617E-1	9.772982E-1	9.446608E-1	9.751365E-1	9.633489E-1	9.698541E-1	9.413297E-1	9.776224E-1	9.538003E-1	1.009273E+0	1.000541E+0	9.812605E-1	9.527903E-1	9.026158E-1	9.846110E-1	9.702014E-1	9.995755E-1	9.037205E-1	8.911624E-1	1.014596E+0	9.861046E-1	9.469781E-1	9.443075E-1	9.595696E-1	9.851330E-1	9.384258E-1	9.317704E-1	9.847180E-1	9.220667E-1	9.701585E-1	9.700970E-1	9.395437E-1	1.036315E+0	9.657230E-1	9.481216E-1	9.404549E-1	9.355627E-1	1.006446E+0	9.546737E-1	9.653214E-1	9.507059E-1	9.727762E-1	9.750565E-1	1.013714E+0	9.591175E-1	9.906444E-1	1.003357E+0	9.816379E-1	1.017890E+0	9.974544E-1	9.971724E-1	9.913789E-1	9.260905E-1	9.570679E-1	9.527470E-1	9.843837E-1	9.260083E-1	1.018858E+0	1.021807E+0	9.612919E-1	9.900225E-1	1.029814E+0	9.902595E-1	9.743899E-1	9.940383E-1	9.687871E-1	9.961534E-1	9.538035E-1	1.003552E+0	9.992272E-1	9.582847E-1	9.849683E-1	9.607981E-1	9.929654E-1	9.718641E-1	9.473104E-1	9.234530E-1	9.979837E-1	9.489093E-1	9.372398E-1	9.623832E-1	9.910262E-1	9.646408E-1	9.623879E-1	9.702906E-1	1.048804E+0	1.010998E+0	9.947979E-1	9.650085E-1	9.694866E-1	9.689509E-1	9.722694E-1	1.046372E+0	9.681662E-1	9.833925E-1	9.712008E-1	9.058597E-1	9.954123E-1	9.735122E-1	9.834389E-1	1.019940E+0	9.340833E-1	9.927702E-1	9.968870E-1	9.453647E-1	9.659440E-1	9.173299E-1	9.427560E-1	1.040364E+0	9.637907E-1	9.553818E-1	9.431464E-1	9.628391E-1	9.903449E-1	9.797645E-1	9.220790E-1	9.871604E-1	1.014728E+0	1.043995E+0	9.504632E-1	9.967502E-1	9.489064E-1	9.105496E-1	9.849866E-1	9.401285E-1	9.775412E-1	1.059228E+0
2.876170E+2	7.356667E-1	7.724969E-1	7.375566E-1	7.549626E-1	7.537325E-1	7.311596E-1	7.612377E-1	7.877787E-1	7.314618E-1	7.849007E-1	7.540489E-1	7.796594E-1	7.721206E-1	8.156220E-1	7.483992E-1	7.562938E-1	7.157022E-1	7.544561E-1	7.221630E-1	7.257209E-1	7.624710E-1	7.410069E-1	7.195534E-1	7.898401E-1	7.520166E-1	7.825238E-1	7.958823E-1	6.947461E-1	7.843373E-1	7.679323E-1	7.904153E-1	7.590367E-1	7.413391E-1	7.480961E-1	7.245112E-1	7.650912E-1	7.654011E-1	7.845871E-1	7.608487E-1	6.800411E-1	7.343940E-1	7.575645E-1	7.590052E-1	7.756723E-1	7.411658E-1	7.788824E-1	7.914009E-1	7.051359E-1	7.575872E-1	7.104069E-1	7.266925E-1	7.087034E-1	7.400894E-1	7.999628E-1	7.743716E-1	7.464709E-1	7.291024E-1	7.312551E-1	7.648569E-1	7.068535E-1	7.202278E-1	7.607499E-1	7.515125E-1	7.855212E-1	7.936157E-1	7.213281E-1	7.738589E-1	7.379874E-1	8.077817E-1	7.513583E-1	7.592242E-1	7.878483E-1	7.583900E-1	7.365075E-1	7.851153E-1	7.597646E-1	8.356173E-1	7.596283E-1	7.353732E-1	7.047145E-1	8.224154E-1	7.830368E-1	7.174821E-1	7.438190E-1	7.926568E-1	7.754488E-1	7.444000E-1	7.625769E-1	8.173117E-1	7.488471E-1	7.379949E-1	7.896477E-1	7.750559E-1	7.295214E-1	7.610427E-1	7.665018E-1	7.663297E-1	7.548586E-1	7.999909E-1	7.578662E-1	8.018193E-1	7.549246E-1	8.031991E-1	7.618847E-1	7.629819E-1	7.624260E-1	7.682587E-1	7.711299E-1	7.630244E-1	7.621393E-1	7.791222E-1	7.542598E-1	7.682328E-1	7.410125E-1	7.767685E-1	7.790578E-1	7.570550E-1	7.931999E-1	7.689334E-1	7.541818E-1	7.294719E-1	7.691010E-1	7.514408E-1	7.605304E-1	7.655880E-1	7.785054E-1	7.457637E-1	8.345560E-1	7.327483E-1	7.849327E-1	7.737851E-1	7.152886E-1	8.163034E-1	7.953221E-1	7.891261E-1	7.572506E-1	7.810853E-1	7.634248E-1	8.408125E-1	7.358289E-1	7.420858E-1	7.561111E-1	7.884579E-1	7.607700E-1	7.429913E-1	7.896160E-1	7.781783E-1	7.454995E-1	7.787694E-1	7.633667E-1	7.063809E-1	7.635975E-1	8.464291E-1	7.416669E-1	7.300071E-1	7.731131E-1	7.765436E-1	7.488697E-1	7.720475E-1	7.542345E-1	7.733277E-1	8.001711E-1	7.634695E-1	7.845087E-1	7.951759E-1	7.793251E-1	7.815829E-1	7.878436E-1	7.872042E-1	7.601947E-1	9.732310E-1
2.878020E+2	6.102842E-1	5.846433E-1	6.405352E-1	6.032126E-1	6.544619E-1	6.020330E-1	6.395375E-1	6.112190E-1	6.320263E-1	6.621041E-1	6.328204E-1	5.798456E-1	6.340539E-1	6.978702E-1	6.374765E-1	5.890904E-1	6.092441E-1	6.468263E-1	6.335879E-1	6.268018E-1	6.329476E-1	5.962115E-1	6.331925E-1	6.282595E-1	6.439774E-1	6.278161E-1	6.927495E-1	6.239748E-1	6.685827E-1	6.611183E-1	6.132922E-1	6.638923E-1	6.432721E-1	5.862884E-1	6.073879E-1	6.247329E-1	6.289500E-1	6.418026E-1	6.425235E-1	5.966530E-1	6.705310E-1	6.329866E-1	6.269593E-1	7.056729E-1	6.256962E-1	6.013004E-1	6.310275E-1	6.122344E-1	6.332103E-1	5.905738E-1	6.516129E-1	6.725321E-1	6.624910E-1	6.736111E-1	6.457020E-1	6.100538E-1	6.374136E-1	6.285576E-1	6.305503E-1	6.491247E-1	6.110771E-1	6.104833E-1	5.947055E-1	6.152431E-1	6.109868E-1	6.340970E-1	5.928271E-1	6.118475E-1	6.914924E-1	6.631789E-1	6.113472E-1	6.210971E-1	6.499028E-1	6.894252E-1	6.268245E-1	6.176994E-1	6.650835E-1	6.307784E-1	6.287849E-1	6.310499E-1	6.265901E-1	6.682190E-1	6.192552E-1	5.947040E-1	6.615569E-1	6.471340E-1	6.407065E-1	6.619493E-1	6.154552E-1	6.386479E-1	6.698937E-1	6.200947E-1	6.578559E-1	6.792076E-1	6.545100E-1	6.869880E-1	6.434242E-1	6.348829E-1	6.655386E-1	6.446660E-1	6.722945E-1	6.749796E-1	6.219658E-1	5.908527E-1	6.292139E-1	6.113100E-1	5.970285E-1	6.487155E-1	6.534663E-1	6.248470E-1	6.296476E-1	6.640783E-1	6.991494E-1	6.212123E-1	6.545598E-1	6.244930E-1	6.500969E-1	6.273621E-1	6.536455E-1	6.263220E-1	6.226008E-1	6.476528E-1	6.280555E-1	6.212860E-1	6.512302E-1	6.826708E-1	6.516267E-1	5.934343E-1	6.316688E-1	6.410652E-1	6.369448E-1	6.264378E-1	6.369251E-1	6.593149E-1	6.618025E-1	6.373924E-1	6.723604E-1	6.301451E-1	6.326339E-1	6.309607E-1	6.453698E-1	6.701490E-1	6.808623E-1	6.294457E-1	6.496633E-1	6.483213E-1	6.744635E-1	6.656042E-1	6.351111E-1	6.108598E-1	6.231983E-1	6.524620E-1	6.159981E-1	6.362208E-1	6.204894E-1	6.602738E-1	6.215345E-1	6.639691E-1	6.663498E-1	6.434327E-1	5.785235E-1	6.414174E-1	6.443353E-1	6.314097E-1	6.077159E-1	6.465937E-1	6.307824E-1	6.044215E-1	6.209470E-1	6.466282E-1	5.892441E-1
2.880020E+2	7.169335E-1	7.307232E-1	6.825089E-1	7.089037E-1	7.176515E-1	7.328604E-1	7.342348E-1	8.053489E-1	7.332314E-1	7.538858E-1	7.251855E-1	7.214118E-1	7.223356E-1	7.767052E-1	7.307650E-1	6.958879E-1	6.990549E-1	6.761040E-1	7.326304E-1	6.746003E-1	7.770584E-1	7.190885E-1	7.570300E-1	7.530498E-1	7.702466E-1	7.357924E-1	7.348750E-1	6.933692E-1	7.044619E-1	7.021388E-1	7.718751E-1	7.235171E-1	7.192059E-1	7.338181E-1	6.761186E-1	7.183668E-1	7.158993E-1	7.621825E-1	7.263791E-1	7.232623E-1	7.249447E-1	7.647701E-1	7.551496E-1	7.508794E-1	6.961047E-1	7.198542E-1	7.831840E-1	6.957095E-1	7.126111E-1	7.426303E-1	7.583326E-1	7.433524E-1	7.206104E-1	7.373002E-1	7.343969E-1	7.411387E-1	7.390608E-1	7.513497E-1	7.420670E-1	7.485987E-1	7.459301E-1	8.241456E-1	7.463657E-1	7.401932E-1	7.211573E-1	7.251960E-1	7.213182E-1	7.728658E-1	7.609337E-1	7.400156E-1	7.475448E-1	7.468842E-1	7.405680E-1	7.538383E-1	7.540614E-1	7.333219E-1	7.647119E-1	7.658252E-1	7.312421E-1	7.472000E-1	7.758411E-1	8.067676E-1	7.585721E-1	7.692407E-1	7.235436E-1	7.300859E-1	6.970116E-1	7.268110E-1	7.458064E-1	7.506137E-1	7.378808E-1	7.511463E-1	8.072607E-1	7.142123E-1	7.402090E-1	7.902042E-1	7.383221E-1	7.415474E-1	7.595271E-1	7.409221E-1	7.252370E-1	7.615379E-1	7.412994E-1	7.246553E-1	7.358964E-1	7.170046E-1	7.420850E-1	7.220554E-1	7.631305E-1	7.299808E-1	8.113807E-1	7.215149E-1	7.455623E-1	7.204239E-1	8.175362E-1	7.145663E-1	7.418352E-1	7.524246E-1	7.644690E-1	7.631033E-1	7.116983E-1	7.559297E-1	7.299080E-1	7.618087E-1	8.038130E-1	8.015558E-1	7.861195E-1	7.202799E-1	7.301688E-1	7.759779E-1	7.293689E-1	7.391718E-1	7.134237E-1	7.337080E-1	7.321216E-1	7.260266E-1	7.591299E-1	6.838504E-1	7.610086E-1	7.122655E-1	7.706559E-1	8.100886E-1	7.512115E-1	7.285068E-1	7.569680E-1	7.344902E-1	7.438521E-1	7.426624E-1	7.688871E-1	7.290586E-1	7.024284E-1	6.907452E-1	7.633968E-1	6.874139E-1	7.249841E-1	7.213567E-1	7.681519E-1	7.686087E-1	7.425336E-1	6.952628E-1	7.585687E-1	7.875124E-1	7.693212E-1	7.318108E-1	7.171015E-1	7.247516E-1	7.577227E-1	7.543660E-1	7.715504E-1	7.611609E-1	7.832813E-1
2.882150E+2	8.763193E-1	8.625656E-1	8.979193E-1	8.128972E-1	8.710456E-1	8.534123E-1	8.393109E-1	8.513775E-1	8.625797E-1	8.601235E-1	8.914066E-1	8.507433E-1	8.515148E-1	8.675921E-1	8.565841E-1	8.368726E-1	8.654662E-1	8.752805E-1	8.530740E-1	8.618798E-1	8.816218E-1	8.457036E-1	8.536566E-1	9.032865E-1	8.492108E-1	8.872992E-1	9.107121E-1	8.357640E-1	8.370552E-1	8.888476E-1	8.888710E-1	8.929552E-1	8.338956E-1	9.117126E-1	8.668903E-1	8.470657E-1	8.938424E-1	8.851984E-1	8.633329E-1	8.922610E-1	8.685792E-1	8.908182E-1	8.417842E-1	7.908674E-1	8.404008E-1	8.767225E-1	8.375647E-1	8.842954E-1	8.703701E-1	8.653217E-1	7.997224E-1	8.821997E-1	8.886912E-1	8.815667E-1	8.701458E-1	8.371820E-1	8.383427E-1	8.573428E-1	9.056498E-1	8.930156E-1	8.666471E-1	8.628892E-1	8.238597E-1	8.627812E-1	8.798241E-1	8.461059E-1	8.980650E-1	8.661515E-1	8.737015E-1	8.643379E-1	8.188809E-1	8.700714E-1	8.523107E-1	8.898977E-1	8.763938E-1	8.837008E-1	8.776726E-1	8.474807E-1	8.655758E-1	8.540170E-1	8.426831E-1	8.978097E-1	8.780782E-1	9.293629E-1	9.001424E-1	9.062619E-1	8.355324E-1	8.836547E-1	8.862601E-1	8.265800E-1	8.714186E-1	8.756045E-1	8.649274E-1	8.908972E-1	9.024718E-1	8.663186E-1	9.284667E-1	8.970961E-1	8.948976E-1	8.163802E-1	8.656851E-1	9.446704E-1	9.070682E-1	8.437813E-1	8.791592E-1	8.114719E-1	8.960438E-1	7.933274E-1	9.112179E-1	9.111993E-1	8.338356E-1	8.904211E-1	9.024380E-1	8.643606E-1	8.740903E-1	8.331465E-1	8.936553E-1	9.119436E-1	8.138113E-1	8.819678E-1	7.990483E-1	9.615098E-1	8.810076E-1	8.774352E-1	9.287064E-1	8.718000E-1	8.967031E-1	9.150120E-1	8.843102E-1	9.121102E-1	8.971477E-1	8.454520E-1	8.520975E-1	8.724328E-1	8.702777E-1	8.732019E-1	8.588616E-1	8.090351E-1	8.748144E-1	8.789918E-1	8.636266E-1	8.725636E-1	8.863463E-1	8.294465E-1	9.053008E-1	9.068904E-1	8.812622E-1	9.120288E-1	8.295759E-1	8.766856E-1	8.259913E-1	8.399013E-1	9.070809E-1	8.984535E-1	8.157420E-1	8.935682E-1	8.821042E-1	9.282574E-1	9.023477E-1	7.997392E-1	8.411909E-1	8.757546E-1	9.004984E-1	8.643827E-1	9.123690E-1	8.444834E-1	8.632314E-1	8.851635E-1	8.436214E-1	8.969805E-1	9.550673E-1
2.884200E+2	9.658273E-1	9.695435E-1	9.856374E-1	9.231482E-1	9.654830E-1	9.213609E-1	9.751080E-1	9.693574E-1	9.685036E-1	1.002640E+0	1.017973E+0	9.996963E-1	1.005864E+0	1.003589E+0	1.002817E+0	9.943721E-1	9.278396E-1	9.709843E-1	1.022211E+0	9.750270E-1	9.691390E-1	1.011779E+0	9.653413E-1	1.042004E+0	9.923229E-1	9.762203E-1	1.002700E+0	9.821553E-1	9.803478E-1	1.027295E+0	1.037088E+0	9.854449E-1	9.674456E-1	1.022227E+0	9.534321E-1	1.009205E+0	9.972100E-1	1.045622E+0	9.570485E-1	1.018967E+0	9.922943E-1	1.004366E+0	1.040734E+0	9.847792E-1	9.715831E-1	9.520415E-1	9.938453E-1	9.821955E-1	9.841556E-1	1.035767E+0	1.021821E+0	9.714813E-1	1.029791E+0	1.045088E+0	1.013429E+0	1.009078E+0	1.017673E+0	1.028843E+0	9.758853E-1	1.007865E+0	1.036151E+0	9.798068E-1	9.475210E-1	9.919942E-1	9.502452E-1	1.000137E+0	9.573896E-1	9.838476E-1	1.019376E+0	9.826677E-1	1.005157E+0	1.004547E+0	1.035823E+0	1.027551E+0	1.099501E+0	9.833267E-1	1.031249E+0	1.000281E+0	1.032973E+0	9.384585E-1	1.016219E+0	9.918736E-1	1.015313E+0	9.513441E-1	1.026767E+0	1.047246E+0	9.511244E-1	9.837617E-1	9.794870E-1	9.879887E-1	9.945112E-1	9.558028E-1	9.510783E-1	1.067312E+0	9.805626E-1	1.035768E+0	1.006926E+0	1.028555E+0	1.062523E+0	9.799462E-1	9.870862E-1	1.017340E+0	1.020107E+0	1.038647E+0	1.007813E+0	1.026106E+0	1.037841E+0	1.020127E+0	1.059859E+0	9.723649E-1	1.042879E+0	9.815664E-1	9.897872E-1	9.416003E-1	1.021169E+0	9.940257E-1	1.024256E+0	1.066704E+0	9.822206E-1	9.604318E-1	9.735519E-1	1.022455E+0	9.524394E-1	1.023385E+0	1.046404E+0	1.075747E+0	9.577812E-1	9.915715E-1	9.864483E-1	9.961280E-1	1.049886E+0	9.944185E-1	9.446480E-1	1.014695E+0	1.011442E+0	1.013965E+0	9.740885E-1	9.915503E-1	9.815163E-1	9.814655E-1	9.741597E-1	1.080644E+0	9.847031E-1	1.005251E+0	9.787754E-1	1.013486E+0	1.015525E+0	1.072955E+0	1.011164E+0	1.033785E+0	1.006474E+0	1.046839E+0	1.023561E+0	1.020483E+0	9.723192E-1	9.557460E-1	1.004129E+0	9.718249E-1	1.035041E+0	1.003544E+0	9.639491E-1	1.006210E+0	1.014414E+0	1.000950E+0	9.766027E-1	9.925815E-1	1.021008E+0	9.830670E-1	9.484903E-1	9.310869E-1	9.949012E-1
2.886040E+2	1.076818E+0	1.071959E+0	1.061515E+0	1.015145E+0	1.096679E+0	1.141992E+0	1.095621E+0	1.077104E+0	1.047211E+0	1.102282E+0	1.035880E+0	1.098049E+0	1.082857E+0	1.104510E+0	1.124710E+0	1.073564E+0	1.127761E+0	1.121830E+0	1.092505E+0	1.045952E+0	1.063143E+0	1.092848E+0	1.077970E+0	1.087301E+0	1.082236E+0	1.122953E+0	1.092597E+0	1.100300E+0	1.103649E+0	1.121080E+0	1.070636E+0	1.053046E+0	1.077486E+0	1.121252E+0	1.073720E+0	1.036331E+0	1.074027E+0	1.059667E+0	1.092530E+0	1.090848E+0	1.100275E+0	1.143990E+0	1.075533E+0	1.072690E+0	1.141143E+0	1.157622E+0	1.096392E+0	1.154768E+0	1.050576E+0	1.099423E+0	1.117282E+0	1.044834E+0	1.090957E+0	1.118268E+0	1.081180E+0	1.173488E+0	1.064690E+0	1.116963E+0	1.166622E+0	1.067690E+0	1.110121E+0	1.138972E+0	1.099041E+0	1.092433E+0	1.154439E+0	1.101013E+0	1.071324E+0	1.096262E+0	1.138591E+0	1.136630E+0	1.080806E+0	1.124550E+0	1.070133E+0	1.118171E+0	1.135771E+0	1.075023E+0	1.115124E+0	1.095649E+0	1.103383E+0	1.092152E+0	1.106044E+0	1.118881E+0	1.097969E+0	1.064828E+0	1.100638E+0	1.157744E+0	1.090751E+0	1.066826E+0	1.138200E+0	1.147551E+0	1.093506E+0	1.066668E+0	1.148512E+0	1.124359E+0	1.133040E+0	1.152599E+0	1.126838E+0	1.082200E+0	1.120861E+0	1.027329E+0	1.090054E+0	1.127926E+0	1.073648E+0	1.069498E+0	1.043065E+0	1.115664E+0	1.123146E+0	1.155896E+0	1.153832E+0	1.068435E+0	1.073469E+0	1.043227E+0	1.103264E+0	1.072066E+0	1.114083E+0	1.052621E+0	1.100463E+0	1.177597E+0	1.149236E+0	1.041675E+0	1.070727E+0	1.122871E+0	1.055911E+0	1.064133E+0	1.147271E+0	1.117781E+0	1.106312E+0	1.072783E+0	1.163774E+0	1.100024E+0	1.061414E+0	1.039341E+0	1.125224E+0	1.140715E+0	1.096543E+0	1.103894E+0	1.067391E+0	1.107714E+0	1.145256E+0	1.124308E+0	1.061346E+0	1.090810E+0	1.161600E+0	1.056651E+0	1.027994E+0	1.164094E+0	1.105423E+0	1.035714E+0	1.159384E+0	1.084319E+0	1.062733E+0	1.072853E+0	1.099774E+0	1.082910E+0	1.089902E+0	1.082403E+0	1.074926E+0	1.120099E+0	1.029028E+0	1.051627E+0	1.069676E+0	1.129885E+0	1.169395E+0	1.174076E+0	1.035578E+0	1.028684E+0	1.083737E+0	1.106722E+0	1.087812E+0	1.028777E+0	1.197923E+0
2.888230E+2	1.211187E+0	1.263177E+0	1.283427E+0	1.244553E+0	1.230750E+0	1.264684E+0	1.238417E+0	1.276255E+0	1.244002E+0	1.323153E+0	1.239407E+0	1.238235E+0	1.252145E+0	1.291613E+0	1.254115E+0	1.217195E+0	1.315457E+0	1.299520E+0	1.223142E+0	1.273383E+0	1.245536E+0	1.232236E+0	1.238019E+0	1.220394E+0	1.262447E+0	1.215516E+0	1.234460E+0	1.242832E+0	1.211747E+0	1.262718E+0	1.235134E+0	1.244501E+0	1.283660E+0	1.264870E+0	1.192148E+0	1.175458E+0	1.230378E+0	1.248555E+0	1.248280E+0	1.200488E+0	1.204015E+0	1.224311E+0	1.264904E+0	1.237107E+0	1.213698E+0	1.231808E+0	1.318121E+0	1.248262E+0	1.317239E+0	1.142786E+0	1.296523E+0	1.292626E+0	1.163363E+0	1.256346E+0	1.322387E+0	1.238677E+0	1.235868E+0	1.206693E+0	1.257475E+0	1.192322E+0	1.282646E+0	1.202475E+0	1.201423E+0	1.264476E+0	1.246753E+0	1.248691E+0	1.269958E+0	1.177512E+0	1.357847E+0	1.241392E+0	1.261938E+0	1.243447E+0	1.236549E+0	1.234992E+0	1.273547E+0	1.221707E+0	1.233843E+0	1.220431E+0	1.224888E+0	1.232253E+0	1.224670E+0	1.260160E+0	1.286281E+0	1.251321E+0	1.269150E+0	1.220985E+0	1.216473E+0	1.238486E+0	1.265214E+0	1.240741E+0	1.268256E+0	1.230615E+0	1.237497E+0	1.237171E+0	1.237369E+0	1.251301E+0	1.246507E+0	1.184656E+0	1.283377E+0	1.169424E+0	1.252657E+0	1.252483E+0	1.269248E+0	1.229695E+0	1.267360E+0	1.298567E+0	1.237342E+0	1.169628E+0	1.244997E+0	1.239556E+0	1.288616E+0	1.277918E+0	1.247408E+0	1.304634E+0	1.273789E+0	1.212144E+0	1.267426E+0	1.288685E+0	1.281419E+0	1.285606E+0	1.235776E+0	1.297533E+0	1.298272E+0	1.186714E+0	1.314998E+0	1.257578E+0	1.278952E+0	1.237689E+0	1.186890E+0	1.277548E+0	1.219058E+0	1.249639E+0	1.195566E+0	1.250065E+0	1.273713E+0	1.260197E+0	1.295007E+0	1.311684E+0	1.279877E+0	1.244683E+0	1.212909E+0	1.253525E+0	1.225704E+0	1.176737E+0	1.224440E+0	1.318545E+0	1.203619E+0	1.256804E+0	1.248817E+0	1.238826E+0	1.291621E+0	1.249218E+0	1.263952E+0	1.191233E+0	1.176258E+0	1.234027E+0	1.249747E+0	1.275560E+0	1.239448E+0	1.179271E+0	1.234498E+0	1.325967E+0	1.245912E+0	1.241801E+0	1.209390E+0	1.204212E+0	1.264401E+0	1.286337E+0	1.276979E+0	1.218131E+0	1.305133E+0
2.890230E+2	1.150761E+0	1.118480E+0	1.199038E+0	1.151361E+0	1.201165E+0	1.135406E+0	1.180185E+0	1.199696E+0	1.183851E+0	1.175260E+0	1.210854E+0	1.143067E+0	1.090835E+0	1.239238E+0	1.205867E+0	1.154727E+0	1.173276E+0	1.236532E+0	1.207510E+0	1.120231E+0	1.172548E+0	1.214510E+0	1.177831E+0	1.131954E+0	1.210396E+0	1.175957E+0	1.161310E+0	1.146838E+0	1.118131E+0	1.165878E+0	1.190648E+0	1.244020E+0	1.169802E+0	1.123629E+0	1.112713E+0	1.144235E+0	1.136761E+0	1.152962E+0	1.161634E+0	1.170766E+0	1.124656E+0	1.145906E+0	1.189903E+0	1.128862E+0	1.123258E+0	1.150404E+0	1.159867E+0	1.121838E+0	1.173412E+0	1.232435E+0	1.201942E+0	1.164950E+0	1.131996E+0	1.174221E+0	1.191499E+0	1.111193E+0	1.207041E+0	1.164159E+0	1.141965E+0	1.164758E+0	1.157836E+0	1.198799E+0	1.140447E+0	1.204325E+0	1.171655E+0	1.106311E+0	1.124089E+0	1.102065E+0	1.235975E+0	1.184192E+0	1.149453E+0	1.224851E+0	1.111549E+0	1.151311E+0	1.190563E+0	1.171154E+0	1.110940E+0	1.211129E+0	1.186305E+0	1.181727E+0	1.073230E+0	1.236057E+0	1.191567E+0	1.148436E+0	1.134753E+0	1.256933E+0	1.211513E+0	1.193723E+0	1.157215E+0	1.181936E+0	1.174097E+0	1.216897E+0	1.211248E+0	1.163707E+0	1.186652E+0	1.133073E+0	1.181861E+0	1.160814E+0	1.187235E+0	1.204350E+0	1.197278E+0	1.169392E+0	1.219995E+0	1.184981E+0	1.140790E+0	1.213452E+0	1.163823E+0	1.137775E+0	1.170834E+0	1.155246E+0	1.138832E+0	1.187722E+0	1.173441E+0	1.192321E+0	1.208076E+0	1.174009E+0	1.206209E+0	1.198999E+0	1.173275E+0	1.195208E+0	1.176269E+0	1.179635E+0	1.144057E+0	1.185851E+0	1.188745E+0	1.203590E+0	1.227062E+0	1.126749E+0	1.168123E+0	1.228501E+0	1.177882E+0	1.181030E+0	1.186230E+0	1.260002E+0	1.155343E+0	1.161005E+0	1.156447E+0	1.141035E+0	1.262901E+0	1.188221E+0	1.156931E+0	1.219621E+0	1.214118E+0	1.087089E+0	1.170084E+0	1.210486E+0	1.197185E+0	1.188073E+0	1.160573E+0	1.185598E+0	1.099187E+0	1.099462E+0	1.154710E+0	1.179580E+0	1.173956E+0	1.115007E+0	1.167460E+0	1.179473E+0	1.209097E+0	1.122463E+0	1.144453E+0	1.194186E+0	1.121261E+0	1.182798E+0	1.205669E+0	1.180035E+0	1.190156E+0	1.191208E+0	1.213638E+0	1.152771E+0	1.303689E+0
2.892010E+2	1.000774E+0	9.685574E-1	1.031310E+0	9.526863E-1	1.023935E+0	1.009451E+0	1.050221E+0	1.003838E+0	9.651678E-1	1.014562E+0	1.016992E+0	1.027587E+0	9.900450E-1	1.004737E+0	9.984648E-1	1.011231E+0	9.921293E-1	1.010649E+0	9.975639E-1	1.014015E+0	1.010337E+0	1.000884E+0	9.960424E-1	1.042509E+0	9.675342E-1	1.005629E+0	1.018268E+0	9.688613E-1	1.035279E+0	9.770282E-1	1.013946E+0	9.859350E-1	1.055304E+0	1.007383E+0	1.004538E+0	1.001838E+0	1.028476E+0	1.039726E+0	1.031237E+0	1.020098E+0	9.768286E-1	1.078075E+0	1.015082E+0	9.998860E-1	1.036688E+0	1.038888E+0	1.013061E+0	1.036109E+0	1.041939E+0	9.903528E-1	1.046811E+0	1.013634E+0	9.933116E-1	1.055955E+0	9.542539E-1	1.009746E+0	1.013146E+0	1.001236E+0	1.068187E+0	1.035044E+0	1.052555E+0	1.002000E+0	1.026298E+0	9.996476E-1	9.778642E-1	9.637153E-1	1.004013E+0	9.973091E-1	1.013084E+0	9.692649E-1	1.004805E+0	1.079230E+0	1.029412E+0	1.029710E+0	1.004767E+0	9.762401E-1	1.040544E+0	1.043586E+0	1.050715E+0	9.848397E-1	1.054598E+0	1.109456E+0	1.100918E+0	1.096209E+0	1.024148E+0	1.029018E+0	9.984050E-1	1.029035E+0	9.972108E-1	9.971316E-1	9.988020E-1	9.693780E-1	1.018182E+0	1.071898E+0	9.767981E-1	1.017460E+0	1.032164E+0	1.042306E+0	1.031006E+0	1.028396E+0	9.657953E-1	1.025675E+0	1.027379E+0	9.911395E-1	1.048747E+0	1.083924E+0	1.067138E+0	1.024152E+0	1.005334E+0	1.050654E+0	1.045935E+0	1.019959E+0	9.829508E-1	1.043449E+0	9.977423E-1	9.744959E-1	1.036062E+0	1.029489E+0	1.013491E+0	1.037423E+0	9.747968E-1	1.105638E+0	9.523174E-1	1.042089E+0	1.020302E+0	1.041389E+0	1.022345E+0	1.022762E+0	1.048159E+0	1.040833E+0	1.033331E+0	1.013580E+0	1.071875E+0	1.043929E+0	1.051359E+0	1.058222E+0	1.022539E+0	9.991485E-1	1.076711E+0	1.029920E+0	1.027345E+0	1.051334E+0	1.016583E+0	1.028081E+0	1.049007E+0	1.026118E+0	1.038846E+0	1.035670E+0	1.013580E+0	1.077645E+0	9.996592E-1	1.047666E+0	1.082132E+0	1.003928E+0	1.058609E+0	9.880463E-1	1.008043E+0	1.061510E+0	1.054140E+0	9.932843E-1	1.031830E+0	1.034949E+0	9.792445E-1	1.031717E+0	1.004675E+0	1.010186E+0	1.009621E+0	1.008647E+0	1.020461E+0	1.093946E+0	1.113101E+0
2.894050E+2	8.725732E-1	8.275029E-1	8.599556E-1	8.231782E-1	8.545486E-1	8.231453E-1	8.725074E-1	8.401236E-1	8.166450E-1	8.489138E-1	8.408239E-1	8.118639E-1	8.446949E-1	8.154060E-1	8.076436E-1	9.060384E-1	8.243673E-1	8.036055E-1	8.321052E-1	8.548875E-1	8.460507E-1	8.032666E-1	8.456894E-1	8.569697E-1	8.239878E-1	8.950583E-1	8.325209E-1	8.308563E-1	8.561015E-1	8.766981E-1	8.072454E-1	8.608397E-1	8.493379E-1	9.046033E-1	8.293146E-1	8.408187E-1	7.897756E-1	8.703891E-1	8.677039E-1	8.032536E-1	8.272602E-1	8.398061E-1	8.621427E-1	7.940753E-1	8.254406E-1	8.623547E-1	8.604648E-1	8.744051E-1	8.540025E-1	8.995740E-1	8.654604E-1	8.723100E-1	8.416877E-1	9.016597E-1	8.505812E-1	8.657562E-1	8.661183E-1	8.293398E-1	8.678156E-1	7.940128E-1	8.185037E-1	8.545581E-1	8.299673E-1	8.621039E-1	8.486481E-1	8.594668E-1	8.277629E-1	8.252076E-1	9.018555E-1	8.514214E-1	8.424027E-1	8.583135E-1	8.188167E-1	9.035443E-1	8.291318E-1	8.599987E-1	8.776657E-1	8.348143E-1	8.164513E-1	8.976961E-1	8.317708E-1	8.776932E-1	8.278297E-1	8.651929E-1	8.305453E-1	8.976196E-1	8.101419E-1	8.385460E-1	8.789392E-1	8.571922E-1	8.458558E-1	8.685913E-1	8.824457E-1	8.405371E-1	8.790300E-1	8.448715E-1	8.484688E-1	8.450294E-1	8.638960E-1	8.577581E-1	8.575291E-1	9.001679E-1	8.781072E-1	8.492193E-1	8.668008E-1	8.633983E-1	8.433088E-1	8.535898E-1	8.492868E-1	8.810323E-1	8.406628E-1	8.836061E-1	8.888808E-1	8.587718E-1	8.767338E-1	8.445011E-1	8.555767E-1	8.637304E-1	7.976504E-1	8.253141E-1	8.461501E-1	8.784703E-1	7.964727E-1	8.088819E-1	9.033121E-1	8.965129E-1	8.750281E-1	8.589931E-1	8.900845E-1	8.755007E-1	8.712795E-1	8.324478E-1	8.662005E-1	8.177737E-1	8.486762E-1	8.298333E-1	8.858335E-1	8.170185E-1	8.988289E-1	7.913586E-1	8.272433E-1	9.031798E-1	9.061510E-1	8.256257E-1	8.667402E-1	8.978568E-1	8.392062E-1	8.769151E-1	8.014959E-1	8.542381E-1	8.713289E-1	8.335326E-1	8.374928E-1	8.257543E-1	8.736924E-1	8.599960E-1	8.360020E-1	9.021064E-1	9.087329E-1	8.220210E-1	8.780934E-1	8.971468E-1	8.329603E-1	8.125039E-1	8.255657E-1	8.558881E-1	8.160658E-1	8.489217E-1	8.481080E-1	8.674232E-1	8.911866E-1
2.896110E+2	7.622437E-1	7.838509E-1	7.520664E-1	7.565314E-1	7.765176E-1	8.032319E-1	7.841094E-1	7.503863E-1	8.133477E-1	7.998414E-1	7.844892E-1	7.503577E-1	7.962351E-1	7.616286E-1	7.744243E-1	7.733577E-1	7.618552E-1	8.073642E-1	7.242214E-1	7.524689E-1	7.788147E-1	7.688187E-1	8.118108E-1	7.827482E-1	8.033753E-1	7.520208E-1	7.791532E-1	7.560619E-1	7.391822E-1	8.155916E-1	7.845774E-1	7.883434E-1	7.805957E-1	7.711001E-1	7.299806E-1	7.801598E-1	7.712082E-1	8.027365E-1	8.060644E-1	7.933716E-1	7.952529E-1	7.447964E-1	7.292391E-1	7.624793E-1	7.918046E-1	7.631013E-1	7.712541E-1	7.321275E-1	7.876993E-1	7.532219E-1	7.789542E-1	7.792861E-1	7.559430E-1	7.469754E-1	7.877397E-1	7.340552E-1	7.660939E-1	7.645221E-1	7.565744E-1	7.821421E-1	7.840274E-1	7.214575E-1	7.679305E-1	7.659494E-1	7.678673E-1	7.891361E-1	7.669511E-1	7.650667E-1	7.834157E-1	7.644835E-1	7.709177E-1	7.684094E-1	7.320148E-1	7.772074E-1	7.799523E-1	7.784200E-1	7.622758E-1	8.031039E-1	8.281127E-1	7.856720E-1	7.737946E-1	8.391007E-1	7.692535E-1	7.588060E-1	7.654575E-1	8.286038E-1	7.670548E-1	8.259131E-1	7.947106E-1	7.573397E-1	7.794091E-1	7.546812E-1	8.085172E-1	7.988555E-1	8.015601E-1	7.724073E-1	7.532666E-1	7.968740E-1	7.833749E-1	7.756270E-1	8.326177E-1	7.746734E-1	7.602313E-1	7.465433E-1	7.870012E-1	7.702151E-1	7.749026E-1	7.538530E-1	7.537254E-1	7.800140E-1	7.475293E-1	8.097853E-1	7.777543E-1	7.297047E-1	7.569628E-1	7.638835E-1	7.762773E-1	7.959914E-1	7.743394E-1	7.660720E-1	8.023192E-1	7.879510E-1	7.671270E-1	7.445960E-1	8.051296E-1	8.891919E-1	7.792062E-1	8.268020E-1	8.106980E-1	7.822740E-1	8.227392E-1	7.124899E-1	7.560026E-1	7.998925E-1	7.971472E-1	7.608323E-1	8.222486E-1	7.573842E-1	8.176493E-1	7.953452E-1	7.604678E-1	8.119418E-1	7.867768E-1	7.432875E-1	7.719087E-1	8.218837E-1	8.070722E-1	7.992908E-1	7.847815E-1	7.826666E-1	7.554542E-1	7.809786E-1	7.670354E-1	7.488967E-1	7.583086E-1	8.036361E-1	7.701718E-1	7.648359E-1	7.888601E-1	7.915608E-1	7.706599E-1	8.169309E-1	7.865068E-1	7.455801E-1	7.606377E-1	7.285074E-1	7.833598E-1	8.002075E-1	7.466492E-1	6.902421E-1	8.047090E-1
2.898020E+2	8.230787E-1	8.673252E-1	8.851983E-1	8.913442E-1	8.675569E-1	8.043486E-1	8.462942E-1	8.745990E-1	8.684318E-1	8.727890E-1	8.298549E-1	8.466445E-1	8.538810E-1	8.972594E-1	8.573546E-1	7.902964E-1	8.247896E-1	8.759789E-1	8.548211E-1	8.235129E-1	8.449591E-1	8.449814E-1	8.661700E-1	9.235542E-1	8.988374E-1	8.290412E-1	8.372268E-1	8.359902E-1	8.137104E-1	8.686871E-1	8.556093E-1	8.700098E-1	8.587310E-1	8.371040E-1	8.070805E-1	9.069543E-1	8.521976E-1	8.938382E-1	8.655131E-1	8.560920E-1	8.937062E-1	8.488827E-1	8.216394E-1	8.604458E-1	8.675382E-1	8.286097E-1	8.579815E-1	8.558309E-1	8.348430E-1	8.629812E-1	8.169730E-1	8.391976E-1	8.396999E-1	8.558064E-1	8.997442E-1	8.227591E-1	8.189758E-1	8.557484E-1	8.487291E-1	8.221579E-1	8.336060E-1	8.811332E-1	8.137950E-1	8.423213E-1	8.917958E-1	8.395965E-1	9.159785E-1	8.299648E-1	8.816694E-1	8.623383E-1	8.432080E-1	8.767586E-1	8.688159E-1	8.828727E-1	8.409875E-1	8.589960E-1	7.997151E-1	8.476223E-1	8.871249E-1	8.540442E-1	8.523250E-1	8.512721E-1	8.889568E-1	8.852480E-1	9.072058E-1	8.430945E-1	8.810061E-1	9.087695E-1	8.610997E-1	8.949586E-1	9.119111E-1	8.425418E-1	8.583634E-1	8.645704E-1	8.705013E-1	9.141885E-1	8.548904E-1	8.913000E-1	8.953948E-1	8.125047E-1	8.464093E-1	8.940049E-1	8.629926E-1	8.150234E-1	8.519068E-1	8.900475E-1	8.491051E-1	9.117261E-1	8.210282E-1	8.766881E-1	8.846074E-1	8.387232E-1	8.371726E-1	9.074857E-1	8.742526E-1	8.424162E-1	8.775279E-1	9.078117E-1	8.088233E-1	8.464410E-1	8.604794E-1	8.714329E-1	8.847557E-1	8.275958E-1	9.211082E-1	8.698375E-1	9.140727E-1	8.581120E-1	8.704788E-1	9.033162E-1	8.665566E-1	8.481356E-1	8.620295E-1	8.748053E-1	8.930738E-1	8.729275E-1	9.157150E-1	8.274798E-1	8.950701E-1	8.880779E-1	8.536403E-1	9.183737E-1	8.890388E-1	8.453622E-1	8.240594E-1	8.677499E-1	8.332611E-1	9.013754E-1	8.529280E-1	8.581126E-1	8.939466E-1	8.571580E-1	8.313419E-1	8.456393E-1	8.496325E-1	8.663717E-1	8.426382E-1	8.954034E-1	9.131923E-1	8.350372E-1	8.296590E-1	8.818796E-1	8.866201E-1	8.890940E-1	8.171380E-1	8.277186E-1	8.324697E-1	8.565517E-1	8.387944E-1	8.236625E-1	9.245411E-1
2.900050E+2	9.133394E-1	8.691572E-1	8.656606E-1	8.760247E-1	8.772408E-1	8.628215E-1	9.298684E-1	9.093561E-1	8.852673E-1	8.916526E-1	8.959301E-1	8.619119E-1	8.964551E-1	8.603176E-1	9.138260E-1	8.347015E-1	8.773511E-1	8.436192E-1	8.387192E-1	8.772197E-1	8.657453E-1	8.370231E-1	8.529119E-1	9.345735E-1	8.715880E-1	8.944624E-1	8.839566E-1	8.804160E-1	9.176334E-1	9.096424E-1	9.109064E-1	8.861109E-1	8.833032E-1	8.721018E-1	8.596172E-1	9.418058E-1	8.182520E-1	8.606416E-1	9.054259E-1	9.087012E-1	8.817329E-1	8.924736E-1	9.463151E-1	8.924653E-1	9.005889E-1	8.966309E-1	8.801819E-1	8.994769E-1	8.685236E-1	8.798148E-1	8.813482E-1	8.569751E-1	9.023537E-1	8.906462E-1	9.175423E-1	8.696712E-1	9.156593E-1	8.595240E-1	9.166013E-1	8.483100E-1	9.228389E-1	8.524126E-1	9.198310E-1	8.932248E-1	9.559963E-1	8.648456E-1	9.504028E-1	9.130749E-1	9.079622E-1	9.036408E-1	8.579196E-1	9.124017E-1	8.967408E-1	8.451599E-1	9.221072E-1	9.177040E-1	9.103071E-1	8.728049E-1	8.915901E-1	8.630387E-1	9.128037E-1	9.225335E-1	9.154597E-1	8.875800E-1	9.021510E-1	8.621127E-1	8.263516E-1	9.468756E-1	9.062532E-1	8.890339E-1	8.819073E-1	8.630685E-1	8.708494E-1	8.622854E-1	8.852625E-1	9.193025E-1	8.871028E-1	8.608911E-1	8.742251E-1	8.612986E-1	8.722578E-1	9.087139E-1	9.268789E-1	8.702936E-1	9.151619E-1	8.975293E-1	9.141409E-1	9.061766E-1	9.349586E-1	8.468620E-1	9.187298E-1	8.709905E-1	9.181369E-1	8.774493E-1	8.875725E-1	9.148955E-1	9.081055E-1	9.871928E-1	9.470993E-1	9.161391E-1	8.614299E-1	8.924872E-1	8.902902E-1	8.238177E-1	8.783607E-1	9.600271E-1	8.673634E-1	8.774694E-1	9.274301E-1	9.455425E-1	8.819307E-1	9.052247E-1	9.131011E-1	8.987694E-1	8.527911E-1	8.675598E-1	8.991066E-1	8.609144E-1	8.811131E-1	9.472051E-1	8.530962E-1	9.135835E-1	9.607638E-1	8.483462E-1	8.670619E-1	9.269318E-1	8.441732E-1	9.342339E-1	8.365651E-1	9.044098E-1	9.030654E-1	8.858051E-1	9.420116E-1	8.691595E-1	8.682895E-1	9.459123E-1	8.389100E-1	8.830484E-1	9.288456E-1	8.658754E-1	9.230150E-1	8.304992E-1	9.236721E-1	8.605182E-1	8.989386E-1	8.581551E-1	8.600681E-1	9.548935E-1	9.282101E-1	8.493161E-1	9.232921E-1
2.905110E+2	8.755382E-1	8.921717E-1	8.811439E-1	8.677115E-1	8.054157E-1	8.845781E-1	8.584884E-1	8.643563E-1	9.059532E-1	9.237935E-1	8.487636E-1	8.237582E-1	9.075331E-1	8.669038E-1	8.356056E-1	8.469143E-1	8.347364E-1	8.621693E-1	8.674904E-1	8.783204E-1	9.034102E-1	8.025826E-1	8.967082E-1	8.303694E-1	8.562323E-1	8.984790E-1	9.383724E-1	8.211830E-1	8.354045E-1	8.500352E-1	9.098726E-1	8.964502E-1	8.918247E-1	8.783220E-1	8.333331E-1	8.785525E-1	8.801558E-1	8.755296E-1	8.750336E-1	8.704685E-1	9.290585E-1	8.745669E-1	8.588591E-1	8.321840E-1	8.597076E-1	8.978843E-1	8.778450E-1	8.449190E-1	8.963934E-1	8.501973E-1	8.673074E-1	8.897175E-1	8.792564E-1	8.306662E-1	8.950875E-1	8.443846E-1	8.585777E-1	8.514691E-1	8.919007E-1	8.621247E-1	8.985899E-1	8.675782E-1	8.834582E-1	9.174980E-1	8.344071E-1	8.615417E-1	9.012180E-1	8.671001E-1	9.491111E-1	8.308861E-1	8.515277E-1	8.790673E-1	8.838617E-1	9.183798E-1	8.907590E-1	8.490914E-1	8.627044E-1	8.553744E-1	8.742966E-1	8.526124E-1	8.694411E-1	9.094563E-1	8.960658E-1	8.606420E-1	8.308658E-1	8.540994E-1	8.513768E-1	8.773565E-1	8.268201E-1	9.133711E-1	8.211148E-1	8.619171E-1	9.209950E-1	8.257849E-1	9.496974E-1	8.889289E-1	8.770735E-1	8.375881E-1	8.957957E-1	8.570963E-1	8.870986E-1	8.996551E-1	8.744986E-1	8.373665E-1	8.543245E-1	8.361694E-1	8.269000E-1	9.031845E-1	8.225763E-1	8.679397E-1	8.490661E-1	8.492959E-1	8.932229E-1	8.761530E-1	8.804709E-1	8.762484E-1	8.941924E-1	8.915972E-1	8.825533E-1	9.079029E-1	8.540965E-1	8.768505E-1	8.798348E-1	8.596290E-1	8.673790E-1	9.172048E-1	8.863705E-1	8.488213E-1	9.001907E-1	8.878453E-1	8.796583E-1	9.186141E-1	9.128924E-1	8.625697E-1	8.599371E-1	8.668782E-1	8.736172E-1	8.302469E-1	9.118035E-1	8.463236E-1	8.659576E-1	8.720543E-1	8.873478E-1	8.515242E-1	8.769742E-1	9.081376E-1	8.523024E-1	8.804411E-1	8.607127E-1	9.026216E-1	8.750671E-1	9.046073E-1	8.985415E-1	8.594576E-1	8.245133E-1	8.891958E-1	8.393638E-1	8.839164E-1	9.213630E-1	8.540047E-1	8.681652E-1	8.770623E-1	9.284126E-1	8.731296E-1	8.799624E-1	8.970618E-1	8.619382E-1	8.924554E-1	8.302809E-1	8.349835E-1	1.012559E+0
2.910060E+2	9.458062E-1	9.745998E-1	9.350692E-1	8.976423E-1	9.576507E-1	9.426163E-1	9.328042E-1	9.257077E-1	9.926627E-1	9.562923E-1	9.372836E-1	9.052551E-1	9.380148E-1	9.497657E-1	9.022950E-1	8.918594E-1	9.235313E-1	9.427581E-1	9.746870E-1	9.167270E-1	9.638739E-1	8.759512E-1	9.163191E-1	9.285271E-1	9.673784E-1	9.117493E-1	9.624500E-1	9.587575E-1	9.666962E-1	9.604629E-1	9.643076E-1	9.493085E-1	9.645315E-1	9.822910E-1	9.540439E-1	9.230063E-1	9.555877E-1	1.014587E+0	9.946754E-1	9.440465E-1	9.769007E-1	9.571710E-1	9.590004E-1	9.407152E-1	9.090156E-1	9.412486E-1	9.659415E-1	9.254756E-1	9.762523E-1	9.607821E-1	9.524215E-1	9.813479E-1	9.516176E-1	9.500661E-1	9.504239E-1	9.556666E-1	9.178753E-1	9.372725E-1	9.725921E-1	9.714806E-1	9.466100E-1	9.579057E-1	9.516645E-1	9.317437E-1	1.001577E+0	9.391775E-1	9.541953E-1	9.559670E-1	1.000142E+0	9.347522E-1	9.210751E-1	9.214138E-1	9.696954E-1	9.837781E-1	9.615393E-1	8.793755E-1	8.907832E-1	9.095890E-1	9.395301E-1	9.322692E-1	9.690687E-1	9.368606E-1	9.650489E-1	8.692228E-1	9.649855E-1	9.400651E-1	9.900023E-1	9.581636E-1	9.293565E-1	9.258728E-1	9.751812E-1	9.397870E-1	9.578673E-1	9.887463E-1	9.384064E-1	9.347136E-1	9.262050E-1	9.207290E-1	9.424577E-1	9.920666E-1	9.297305E-1	9.518022E-1	9.489374E-1	9.054253E-1	9.995044E-1	9.324115E-1	9.185106E-1	9.486985E-1	9.489087E-1	9.217027E-1	9.440178E-1	9.348783E-1	9.027002E-1	9.109393E-1	9.712957E-1	8.723168E-1	9.055869E-1	9.839816E-1	9.280665E-1	9.771096E-1	9.037082E-1	9.522865E-1	9.716239E-1	9.493639E-1	9.456051E-1	9.706009E-1	9.309851E-1	9.421376E-1	9.548989E-1	1.007770E+0	9.307197E-1	9.602255E-1	8.936800E-1	9.631649E-1	9.398446E-1	9.462690E-1	9.334611E-1	9.938749E-1	1.001869E+0	9.323435E-1	9.111958E-1	9.430526E-1	9.121062E-1	8.791922E-1	9.337901E-1	9.891849E-1	9.075798E-1	9.331816E-1	9.348581E-1	9.191135E-1	9.541201E-1	9.284610E-1	9.521600E-1	9.482118E-1	8.707187E-1	9.511121E-1	9.267943E-1	9.858865E-1	1.002267E+0	9.237335E-1	9.232674E-1	9.575968E-1	9.996853E-1	9.194602E-1	9.724293E-1	8.605078E-1	9.526189E-1	9.654296E-1	9.409120E-1	8.415523E-1	9.500810E-1
2.915140E+2	1.119554E+0	1.158663E+0	1.182686E+0	1.057498E+0	1.196976E+0	1.163667E+0	1.072140E+0	1.151551E+0	1.110756E+0	1.168549E+0	1.226554E+0	1.149416E+0	1.175210E+0	1.205025E+0	1.152748E+0	1.182670E+0	1.143055E+0	1.196908E+0	1.252486E+0	1.156799E+0	1.249577E+0	1.107113E+0	1.129974E+0	1.151798E+0	1.193222E+0	1.184546E+0	1.152793E+0	1.205509E+0	1.155405E+0	1.178007E+0	1.171931E+0	1.155953E+0	1.183469E+0	1.120929E+0	1.145424E+0	1.118391E+0	1.074070E+0	1.145717E+0	1.191506E+0	1.112746E+0	1.156555E+0	1.115240E+0	1.134465E+0	1.100896E+0	1.162537E+0	1.136210E+0	1.145993E+0	1.123625E+0	1.160430E+0	1.174371E+0	1.192450E+0	1.155285E+0	1.148540E+0	1.242926E+0	1.207641E+0	1.203884E+0	1.080473E+0	1.141820E+0	1.204081E+0	1.112715E+0	1.149094E+0	1.123637E+0	1.165019E+0	1.139410E+0	1.149732E+0	1.114069E+0	1.207698E+0	1.144216E+0	1.237500E+0	1.182106E+0	1.150094E+0	1.171147E+0	1.172231E+0	1.198843E+0	1.157410E+0	1.126436E+0	1.122072E+0	1.204080E+0	1.200151E+0	1.163039E+0	1.228918E+0	1.205571E+0	1.145121E+0	1.113207E+0	1.188429E+0	1.157146E+0	1.157993E+0	1.211354E+0	1.183756E+0	1.092711E+0	1.180160E+0	1.148228E+0	1.167675E+0	1.138677E+0	1.148485E+0	1.159686E+0	1.153524E+0	1.134243E+0	1.159202E+0	1.125202E+0	1.156969E+0	1.185554E+0	1.174490E+0	1.169063E+0	1.100090E+0	1.101856E+0	1.154890E+0	1.156473E+0	1.191739E+0	1.145600E+0	1.255332E+0	1.190285E+0	1.127342E+0	1.124273E+0	1.211761E+0	1.186389E+0	1.216950E+0	1.195191E+0	1.116831E+0	1.191393E+0	1.149997E+0	1.219197E+0	1.166794E+0	1.150615E+0	1.197401E+0	1.176734E+0	1.174616E+0	1.099575E+0	1.140373E+0	1.161912E+0	1.223461E+0	1.178127E+0	1.120233E+0	1.200327E+0	1.163374E+0	1.154729E+0	1.183125E+0	1.132817E+0	1.108762E+0	1.201761E+0	1.175659E+0	1.151326E+0	1.205390E+0	1.126447E+0	1.169293E+0	1.174537E+0	1.163717E+0	1.237640E+0	1.166630E+0	1.177221E+0	1.149167E+0	1.158349E+0	1.199825E+0	1.109763E+0	1.168625E+0	1.212619E+0	1.105507E+0	1.183232E+0	1.214785E+0	1.146635E+0	1.120342E+0	1.152687E+0	1.211621E+0	1.154043E+0	1.193176E+0	1.110550E+0	1.194915E+0	1.212235E+0	1.164554E+0	1.119220E+0	1.270335E+0
2.920010E+2	1.042149E+0	1.094206E+0	1.094918E+0	1.113217E+0	1.111496E+0	1.049191E+0	1.069383E+0	1.058928E+0	1.116560E+0	1.085771E+0	1.154039E+0	1.152202E+0	1.068919E+0	1.152848E+0	1.130065E+0	1.094827E+0	1.059003E+0	1.089532E+0	1.135016E+0	1.101197E+0	1.103891E+0	1.100867E+0	1.110724E+0	1.099054E+0	1.079064E+0	1.098260E+0	1.108155E+0	1.113792E+0	1.096396E+0	1.070603E+0	1.065873E+0	1.110719E+0	1.093629E+0	1.121086E+0	1.094088E+0	1.084694E+0	1.075346E+0	1.116063E+0	1.075477E+0	1.075231E+0	1.069760E+0	1.136191E+0	1.114061E+0	1.098665E+0	1.107287E+0	1.079977E+0	1.078119E+0	1.073873E+0	1.130250E+0	1.129904E+0	1.132149E+0	1.118970E+0	1.076388E+0	1.143803E+0	1.097977E+0	1.064184E+0	1.107548E+0	1.101938E+0	1.135681E+0	1.070937E+0	1.089293E+0	1.104027E+0	1.143514E+0	1.104413E+0	1.077183E+0	1.081011E+0	1.052049E+0	1.064910E+0	1.129829E+0	1.088485E+0	1.095525E+0	1.039845E+0	1.090413E+0	1.142337E+0	1.072487E+0	1.095819E+0	1.175763E+0	1.101929E+0	1.143164E+0	1.121411E+0	1.057424E+0	1.061846E+0	1.115939E+0	1.153757E+0	1.068047E+0	1.099840E+0	1.132860E+0	1.124883E+0	1.087835E+0	1.113535E+0	1.073590E+0	1.126121E+0	1.108697E+0	1.107140E+0	1.153998E+0	1.107302E+0	1.064809E+0	1.111092E+0	1.056593E+0	1.059772E+0	1.056081E+0	1.081731E+0	1.112857E+0	1.150091E+0	1.105068E+0	1.102566E+0	1.151507E+0	1.083762E+0	1.131222E+0	1.047734E+0	1.107459E+0	1.154399E+0	1.135503E+0	1.066352E+0	1.194947E+0	1.079720E+0	1.088570E+0	1.089068E+0	1.150115E+0	1.069218E+0	1.061998E+0	1.135971E+0	1.105635E+0	1.114361E+0	1.113844E+0	1.119404E+0	1.120750E+0	1.120983E+0	1.091542E+0	1.150921E+0	1.089800E+0	1.102407E+0	1.099052E+0	1.093873E+0	1.100584E+0	1.066597E+0	1.125622E+0	1.113624E+0	1.148663E+0	1.124620E+0	1.043123E+0	1.120531E+0	1.087363E+0	1.110888E+0	1.139553E+0	1.133236E+0	1.124913E+0	1.197851E+0	1.091327E+0	1.136738E+0	1.088408E+0	1.104179E+0	1.140670E+0	1.114323E+0	1.125435E+0	1.118406E+0	1.090853E+0	1.144178E+0	1.105400E+0	1.126380E+0	1.121661E+0	1.112518E+0	1.111700E+0	1.104919E+0	1.116976E+0	1.084111E+0	1.046669E+0	1.052090E+0	1.111632E+0	1.121544E+0	1.059919E+0
2.925020E+2	1.102159E+0	1.141072E+0	1.153723E+0	1.122547E+0	1.191164E+0	1.149170E+0	1.150716E+0	1.140612E+0	1.076911E+0	1.154724E+0	1.128374E+0	1.103157E+0	1.113425E+0	1.172165E+0	1.124158E+0	1.108834E+0	1.092913E+0	1.127990E+0	1.149474E+0	1.008312E+0	1.160821E+0	1.116132E+0	1.135092E+0	1.174374E+0	1.164082E+0	1.116568E+0	1.132098E+0	1.091660E+0	1.091036E+0	1.122891E+0	1.157856E+0	1.075313E+0	1.130423E+0	1.109321E+0	1.156438E+0	1.117419E+0	1.103046E+0	1.106738E+0	1.076935E+0	1.137672E+0	1.109437E+0	1.145210E+0	1.131053E+0	1.102765E+0	1.137809E+0	1.169287E+0	1.193244E+0	1.155812E+0	1.185788E+0	1.099502E+0	1.110602E+0	1.156806E+0	1.118810E+0	1.174434E+0	1.159922E+0	1.088732E+0	1.167710E+0	1.155324E+0	1.168514E+0	1.081623E+0	1.145484E+0	1.133998E+0	1.095475E+0	1.097468E+0	1.176929E+0	1.176520E+0	1.126650E+0	1.085953E+0	1.156802E+0	1.126170E+0	1.152291E+0	1.154612E+0	1.123333E+0	1.185426E+0	1.153949E+0	1.074391E+0	1.167789E+0	1.138367E+0	1.189593E+0	1.117496E+0	1.141024E+0	1.147805E+0	1.123635E+0	1.102128E+0	1.143793E+0	1.184689E+0	1.120826E+0	1.184091E+0	1.138383E+0	1.146100E+0	1.166446E+0	1.131493E+0	1.141883E+0	1.113314E+0	1.145505E+0	1.194342E+0	1.088260E+0	1.129208E+0	1.154736E+0	1.120880E+0	1.074749E+0	1.150207E+0	1.133827E+0	1.172706E+0	1.068627E+0	1.188103E+0	1.191239E+0	1.118495E+0	1.119655E+0	1.108371E+0	1.119903E+0	1.131149E+0	1.120582E+0	1.062438E+0	1.217629E+0	1.120647E+0	1.136269E+0	1.139814E+0	1.154024E+0	1.126836E+0	1.124123E+0	1.188177E+0	1.167129E+0	1.119672E+0	1.130994E+0	1.119612E+0	1.175313E+0	1.147227E+0	1.142845E+0	1.118265E+0	1.080636E+0	1.178875E+0	1.148060E+0	1.081113E+0	1.098966E+0	1.102544E+0	1.152276E+0	1.105720E+0	1.136598E+0	1.123072E+0	1.135308E+0	1.216618E+0	1.129236E+0	1.123050E+0	1.161065E+0	1.165629E+0	1.139758E+0	1.177241E+0	1.125591E+0	1.133086E+0	1.173491E+0	1.116249E+0	1.178548E+0	1.102551E+0	1.108493E+0	1.110434E+0	1.083304E+0	1.109675E+0	1.202115E+0	1.106671E+0	1.173346E+0	1.163736E+0	1.207082E+0	1.173791E+0	1.135172E+0	1.110930E+0	1.139506E+0	1.082992E+0	1.190249E+0	1.050705E+0	9.763788E-1
2.930040E+2	1.073053E+0	1.097911E+0	1.106357E+0	1.019029E+0	1.101541E+0	1.064493E+0	1.106615E+0	1.096631E+0	1.070256E+0	1.099631E+0	1.100886E+0	1.108958E+0	1.091489E+0	1.102895E+0	1.053157E+0	1.071194E+0	1.052258E+0	1.090307E+0	1.093611E+0	1.029710E+0	1.111002E+0	1.081524E+0	1.070493E+0	1.165818E+0	1.104308E+0	1.054084E+0	1.114491E+0	1.057349E+0	1.075038E+0	1.032515E+0	1.074452E+0	1.117587E+0	1.059342E+0	1.096495E+0	1.078020E+0	1.058032E+0	1.087705E+0	1.135028E+0	1.079613E+0	1.081246E+0	1.103417E+0	1.103103E+0	1.088600E+0	1.116779E+0	1.075530E+0	1.076704E+0	1.055872E+0	1.065441E+0	1.110349E+0	1.090120E+0	1.114283E+0	1.105897E+0	1.054235E+0	1.067535E+0	1.096283E+0	1.063724E+0	1.147762E+0	1.118638E+0	1.115188E+0	1.151320E+0	1.072649E+0	1.086972E+0	1.075731E+0	1.118848E+0	1.077075E+0	1.115470E+0	1.192031E+0	1.072213E+0	1.127854E+0	1.062987E+0	1.152480E+0	1.107981E+0	1.108787E+0	1.116015E+0	1.098425E+0	1.076165E+0	1.092817E+0	1.057006E+0	1.098115E+0	1.062435E+0	1.052620E+0	1.185689E+0	1.112249E+0	1.064338E+0	1.081343E+0	1.090330E+0	1.053452E+0	1.091079E+0	1.099080E+0	1.082360E+0	1.078453E+0	1.077206E+0	1.137541E+0	1.096797E+0	1.096399E+0	1.078036E+0	1.095693E+0	1.100747E+0	1.102765E+0	1.061612E+0	1.117927E+0	1.094353E+0	1.099284E+0	1.110162E+0	1.089226E+0	1.073540E+0	1.102634E+0	1.130045E+0	1.097563E+0	1.093114E+0	1.122246E+0	1.115685E+0	1.083052E+0	1.069069E+0	1.165832E+0	1.099980E+0	1.076745E+0	1.160609E+0	1.129401E+0	1.056916E+0	1.114278E+0	1.097426E+0	1.079922E+0	1.043411E+0	1.121155E+0	1.124743E+0	1.127369E+0	1.084683E+0	1.104314E+0	1.157849E+0	1.088228E+0	1.072533E+0	1.030292E+0	1.131620E+0	1.107620E+0	1.055424E+0	1.078347E+0	1.054335E+0	1.078571E+0	1.115542E+0	1.076660E+0	1.146221E+0	1.145287E+0	1.078448E+0	1.149735E+0	1.049536E+0	1.091380E+0	1.071619E+0	1.076411E+0	1.103104E+0	1.102871E+0	1.094821E+0	1.119833E+0	1.109759E+0	1.132130E+0	1.109662E+0	1.085226E+0	1.102329E+0	1.132532E+0	1.047102E+0	1.103199E+0	1.092602E+0	1.093783E+0	1.101761E+0	1.123993E+0	1.110555E+0	1.106807E+0	1.098445E+0	1.131588E+0	1.043989E+0	1.184394E+0
2.935110E+2	1.044114E+0	1.027869E+0	1.012491E+0	9.983463E-1	1.050601E+0	1.038175E+0	1.029565E+0	1.041895E+0	1.020125E+0	1.023176E+0	1.027183E+0	1.075359E+0	1.001566E+0	1.048725E+0	1.075708E+0	1.017510E+0	1.011302E+0	1.039371E+0	1.025190E+0	1.005740E+0	1.085185E+0	1.045721E+0	1.020154E+0	9.792599E-1	1.028189E+0	1.032406E+0	1.040825E+0	9.989670E-1	1.005605E+0	1.040414E+0	1.076832E+0	1.055982E+0	1.076643E+0	1.046792E+0	1.070082E+0	1.075478E+0	1.060165E+0	1.020820E+0	1.036371E+0	1.056749E+0	1.036992E+0	1.001207E+0	1.000870E+0	9.779192E-1	1.010774E+0	1.043826E+0	1.036760E+0	1.012374E+0	1.019790E+0	1.020846E+0	1.032254E+0	1.059088E+0	1.008513E+0	1.037986E+0	1.025182E+0	9.895131E-1	1.019888E+0	1.049284E+0	1.122056E+0	9.906784E-1	1.038397E+0	1.010918E+0	1.004729E+0	1.054753E+0	1.061876E+0	9.821771E-1	1.060361E+0	1.033099E+0	1.072248E+0	1.027986E+0	1.064342E+0	1.069418E+0	1.027486E+0	1.052732E+0	1.050932E+0	1.038218E+0	1.066994E+0	1.031760E+0	1.054792E+0	1.010869E+0	1.043536E+0	1.068688E+0	1.109892E+0	1.047965E+0	1.063613E+0	1.036551E+0	1.033527E+0	9.817364E-1	1.060787E+0	1.066164E+0	1.021299E+0	1.026220E+0	1.009607E+0	1.065374E+0	1.087901E+0	1.041274E+0	1.066647E+0	1.035929E+0	1.078153E+0	1.010983E+0	1.042922E+0	1.025805E+0	1.029980E+0	1.053844E+0	1.105544E+0	1.067352E+0	9.941188E-1	1.002063E+0	1.061767E+0	9.969350E-1	1.035769E+0	1.030101E+0	1.093868E+0	1.036938E+0	1.045582E+0	1.057052E+0	1.053685E+0	1.076509E+0	1.013655E+0	1.016088E+0	1.014534E+0	1.066447E+0	1.069828E+0	1.030446E+0	1.083765E+0	1.084212E+0	1.024045E+0	9.969412E-1	1.067779E+0	1.093698E+0	1.082536E+0	1.122966E+0	1.139361E+0	1.101002E+0	1.042607E+0	1.028463E+0	1.044546E+0	1.051021E+0	9.758919E-1	1.065840E+0	9.724540E-1	1.088837E+0	1.073063E+0	1.053879E+0	1.035221E+0	1.087693E+0	1.061130E+0	1.058583E+0	1.047254E+0	9.821557E-1	1.059851E+0	1.027813E+0	1.090009E+0	1.008342E+0	1.022477E+0	1.107581E+0	1.036557E+0	1.072649E+0	1.093784E+0	1.049518E+0	1.036173E+0	1.016149E+0	1.070473E+0	1.016487E+0	1.060554E+0	1.023936E+0	1.015948E+0	1.037836E+0	1.063005E+0	9.630592E-1	1.072203E+0
2.940070E+2	1.001343E+0	9.901963E-1	9.988648E-1	9.694806E-1	9.909094E-1	9.974580E-1	9.533737E-1	1.019728E+0	1.000295E+0	1.061934E+0	9.826241E-1	1.049979E+0	9.591237E-1	9.828961E-1	1.000630E+0	9.521826E-1	9.813084E-1	9.658658E-1	1.014572E+0	9.668365E-1	9.880469E-1	9.254337E-1	9.938565E-1	9.856856E-1	9.742373E-1	9.677844E-1	1.019702E+0	9.601901E-1	9.657450E-1	9.757345E-1	9.578415E-1	9.347600E-1	1.013026E+0	9.923329E-1	9.646284E-1	9.566450E-1	9.739491E-1	9.643339E-1	9.721947E-1	9.766545E-1	9.400354E-1	9.631428E-1	9.669600E-1	9.852407E-1	9.965644E-1	1.002721E+0	1.005097E+0	1.027083E+0	1.029345E+0	1.002091E+0	9.844603E-1	9.578420E-1	9.914114E-1	1.000081E+0	1.039286E+0	1.015271E+0	9.342257E-1	1.002048E+0	1.007294E+0	1.004170E+0	1.001025E+0	9.576642E-1	9.516483E-1	9.615044E-1	1.019460E+0	9.687577E-1	1.012036E+0	1.006089E+0	9.649266E-1	9.846576E-1	1.000405E+0	9.995291E-1	9.759224E-1	1.000692E+0	9.990596E-1	1.023764E+0	1.011885E+0	9.654866E-1	9.847471E-1	9.421300E-1	9.567776E-1	1.000995E+0	1.029598E+0	1.033143E+0	9.914585E-1	9.770123E-1	9.722161E-1	9.474262E-1	9.014136E-1	9.934253E-1	9.888747E-1	9.867827E-1	1.020523E+0	1.041760E+0	9.774075E-1	9.854156E-1	9.588027E-1	9.368930E-1	1.017983E+0	9.667349E-1	1.005112E+0	1.024219E+0	1.013589E+0	1.003161E+0	9.684875E-1	9.689722E-1	1.005582E+0	1.045117E+0	9.705374E-1	9.462706E-1	9.975172E-1	1.012875E+0	9.819445E-1	9.395062E-1	1.003008E+0	9.786041E-1	1.037511E+0	9.701723E-1	1.019859E+0	9.338899E-1	9.396099E-1	1.050190E+0	9.863219E-1	9.511678E-1	1.040294E+0	1.018169E+0	1.020174E+0	9.876605E-1	9.811974E-1	1.031080E+0	9.836811E-1	9.880551E-1	1.001450E+0	1.006054E+0	1.011967E+0	9.706903E-1	1.004854E+0	1.003497E+0	9.856109E-1	9.762025E-1	1.003730E+0	9.866211E-1	9.848482E-1	9.575953E-1	1.032905E+0	9.842521E-1	9.912645E-1	1.016204E+0	1.026027E+0	1.018659E+0	1.009833E+0	9.685102E-1	9.797124E-1	9.517250E-1	9.762393E-1	1.013296E+0	1.001429E+0	1.028875E+0	1.026220E+0	1.000746E+0	9.373783E-1	1.017696E+0	1.026851E+0	9.815763E-1	1.025883E+0	9.669069E-1	9.664128E-1	1.003086E+0	1.025030E+0	9.704757E-1	1.008184E+0
2.945030E+2	9.478258E-1	9.976137E-1	9.992185E-1	1.038613E+0	9.780231E-1	1.040798E+0	9.823952E-1	9.385301E-1	9.493222E-1	9.877893E-1	9.821405E-1	1.009416E+0	9.309825E-1	1.023042E+0	9.972938E-1	9.747265E-1	9.976036E-1	9.838634E-1	1.012379E+0	9.589566E-1	1.032902E+0	9.464173E-1	9.999571E-1	9.974550E-1	1.008834E+0	9.857077E-1	1.033206E+0	9.765949E-1	1.031732E+0	1.054918E+0	9.911255E-1	9.758166E-1	9.945476E-1	9.998497E-1	9.369331E-1	1.003410E+0	1.012003E+0	9.673488E-1	9.636238E-1	9.699852E-1	1.011035E+0	1.023475E+0	9.365982E-1	9.702100E-1	1.010084E+0	9.760245E-1	1.023645E+0	9.924748E-1	1.067982E+0	1.017265E+0	1.054224E+0	9.544737E-1	9.336858E-1	1.047483E+0	9.974361E-1	1.004164E+0	9.996746E-1	9.897431E-1	9.707286E-1	9.885307E-1	9.884529E-1	9.735255E-1	1.016391E+0	1.030258E+0	9.949874E-1	9.996317E-1	1.046599E+0	9.940625E-1	1.039667E+0	9.726663E-1	9.871753E-1	1.025872E+0	9.983615E-1	1.022732E+0	9.947418E-1	1.009601E+0	9.701458E-1	1.000326E+0	9.640460E-1	9.239414E-1	9.538960E-1	9.941727E-1	9.960449E-1	9.821364E-1	1.018220E+0	1.007749E+0	9.711111E-1	1.058685E+0	9.803338E-1	9.854357E-1	1.018055E+0	1.035450E+0	1.030709E+0	1.000387E+0	9.938423E-1	9.575146E-1	9.876597E-1	9.714348E-1	1.052162E+0	9.370641E-1	9.852811E-1	9.824520E-1	9.537054E-1	9.975976E-1	9.872123E-1	1.018312E+0	1.060310E+0	1.025132E+0	9.706460E-1	9.649406E-1	9.663495E-1	9.994587E-1	9.585220E-1	9.645793E-1	1.060138E+0	9.225196E-1	9.680586E-1	1.050594E+0	1.011439E+0	9.990414E-1	9.756296E-1	1.020164E+0	9.719195E-1	9.983654E-1	1.000437E+0	1.033270E+0	1.056929E+0	9.858637E-1	9.674327E-1	1.050593E+0	1.022965E+0	1.021814E+0	9.920990E-1	1.013384E+0	1.044041E+0	1.020821E+0	1.011996E+0	1.003022E+0	9.488436E-1	9.851870E-1	1.001795E+0	9.947835E-1	9.946824E-1	9.661425E-1	1.029547E+0	1.002985E+0	9.438155E-1	1.008491E+0	9.670959E-1	1.002830E+0	1.033512E+0	9.846319E-1	1.062205E+0	9.856333E-1	9.696578E-1	1.005677E+0	9.745880E-1	1.042827E+0	1.061622E+0	1.056864E+0	1.017956E+0	9.956485E-1	9.990102E-1	9.819899E-1	1.008726E+0	9.796871E-1	9.731605E-1	9.906181E-1	1.037749E+0	1.046990E+0	9.547835E-1
2.950050E+2	1.089342E+0	9.757177E-1	1.073826E+0	1.025126E+0	1.079192E+0	9.989315E-1	1.016321E+0	1.091454E+0	1.044373E+0	1.093193E+0	1.028220E+0	1.005324E+0	1.056342E+0	1.025075E+0	1.019863E+0	1.026538E+0	1.036726E+0	1.049834E+0	1.031512E+0	1.050750E+0	1.090080E+0	1.012489E+0	1.038592E+0	1.041931E+0	1.071695E+0	1.032122E+0	1.029524E+0	1.016034E+0	1.025537E+0	1.061935E+0	1.076030E+0	1.065276E+0	1.050263E+0	1.031643E+0	1.020497E+0	1.029059E+0	1.036402E+0	1.100594E+0	1.032878E+0	1.053045E+0	1.046898E+0	1.046898E+0	1.029429E+0	9.912131E-1	1.076832E+0	1.047453E+0	1.023727E+0	1.006480E+0	1.062565E+0	1.088895E+0	1.076761E+0	1.069040E+0	1.041201E+0	1.095857E+0	1.098110E+0	1.054006E+0	1.066255E+0	1.038492E+0	1.056972E+0	9.525326E-1	1.069628E+0	1.021153E+0	9.999545E-1	1.071195E+0	1.125806E+0	1.067436E+0	1.052975E+0	1.042614E+0	1.089323E+0	1.019773E+0	9.928762E-1	1.094512E+0	1.038024E+0	1.095633E+0	1.062119E+0	1.014457E+0	1.084113E+0	1.031442E+0	1.055731E+0	1.053199E+0	1.062642E+0	1.078643E+0	1.037533E+0	1.046962E+0	1.054658E+0	1.064446E+0	1.041266E+0	1.031199E+0	1.075286E+0	1.018289E+0	1.019074E+0	1.043307E+0	1.071133E+0	1.037461E+0	1.046490E+0	1.023769E+0	1.069677E+0	1.040832E+0	1.088472E+0	9.788309E-1	1.067751E+0	1.027076E+0	1.051658E+0	1.066305E+0	1.079080E+0	1.063426E+0	1.056518E+0	1.093622E+0	1.080179E+0	1.050642E+0	1.073040E+0	1.083220E+0	1.082284E+0	1.026966E+0	1.089430E+0	1.025399E+0	1.092954E+0	1.098735E+0	1.067485E+0	1.073365E+0	1.020762E+0	1.048951E+0	1.052304E+0	1.060337E+0	1.011217E+0	1.055426E+0	1.090947E+0	1.009262E+0	1.086208E+0	1.066696E+0	1.060163E+0	1.031573E+0	1.068951E+0	1.045788E+0	1.071534E+0	1.066025E+0	1.081233E+0	1.049404E+0	1.079776E+0	9.791422E-1	9.961178E-1	1.055553E+0	1.032935E+0	1.034287E+0	1.053524E+0	1.008550E+0	1.010366E+0	1.024312E+0	1.009501E+0	1.060900E+0	1.024206E+0	1.058029E+0	1.058651E+0	1.031768E+0	1.023494E+0	1.039523E+0	1.025661E+0	1.036783E+0	1.107254E+0	1.069679E+0	1.055598E+0	1.067383E+0	1.120730E+0	1.083443E+0	1.030610E+0	1.030467E+0	1.061945E+0	1.061576E+0	1.037145E+0	9.745629E-1	1.174481E+0
2.955100E+2	1.085741E+0	1.113932E+0	1.145709E+0	1.039165E+0	1.035704E+0	1.097597E+0	1.125904E+0	1.100171E+0	1.092218E+0	1.088483E+0	1.072050E+0	1.122610E+0	1.084358E+0	1.098274E+0	1.074059E+0	1.095078E+0	1.084377E+0	1.064694E+0	1.131102E+0	1.108279E+0	1.126938E+0	1.120286E+0	1.052418E+0	1.112374E+0	1.102258E+0	1.104916E+0	1.084969E+0	1.077669E+0	1.104581E+0	1.078669E+0	1.147087E+0	1.123805E+0	1.121470E+0	1.093995E+0	1.072391E+0	1.157674E+0	1.115303E+0	1.085892E+0	1.129643E+0	1.119404E+0	1.114350E+0	1.135528E+0	1.104487E+0	1.044731E+0	1.149932E+0	1.099917E+0	1.082902E+0	1.137351E+0	1.134756E+0	1.113517E+0	1.098295E+0	1.129935E+0	1.141847E+0	1.153924E+0	1.129526E+0	1.104046E+0	1.167035E+0	1.085805E+0	1.089868E+0	1.075294E+0	1.044832E+0	1.117535E+0	1.056610E+0	1.093562E+0	1.108878E+0	1.154896E+0	1.113987E+0	1.061048E+0	1.105057E+0	1.139722E+0	1.069391E+0	1.172215E+0	1.079090E+0	1.123483E+0	1.092942E+0	1.055823E+0	1.091593E+0	1.141732E+0	1.148652E+0	1.122656E+0	1.058740E+0	1.097883E+0	1.141714E+0	1.099803E+0	1.079724E+0	1.128970E+0	1.122167E+0	1.107924E+0	1.085587E+0	1.044438E+0	1.132247E+0	1.066677E+0	1.105248E+0	1.080539E+0	1.126044E+0	1.155335E+0	1.121774E+0	1.127575E+0	1.065188E+0	1.024024E+0	1.087958E+0	1.114924E+0	1.097619E+0	1.098772E+0	1.172561E+0	1.104792E+0	1.092149E+0	1.114267E+0	1.128080E+0	1.062810E+0	1.092573E+0	1.064565E+0	1.073664E+0	1.055068E+0	1.146624E+0	1.051754E+0	1.105901E+0	1.085677E+0	1.118734E+0	1.116427E+0	1.000311E+0	1.139395E+0	1.141931E+0	1.115207E+0	1.107757E+0	1.125534E+0	1.148662E+0	1.100189E+0	1.116526E+0	1.114542E+0	1.121265E+0	1.072454E+0	1.093551E+0	1.080419E+0	1.154342E+0	1.055945E+0	1.127733E+0	1.049331E+0	1.111931E+0	1.140249E+0	1.102025E+0	1.110373E+0	1.148411E+0	1.078155E+0	1.122795E+0	1.064766E+0	1.128567E+0	1.093841E+0	1.096428E+0	1.101580E+0	1.082293E+0	1.124088E+0	1.163019E+0	1.088653E+0	1.096595E+0	1.111188E+0	1.061420E+0	1.117697E+0	1.110619E+0	1.081227E+0	1.100758E+0	1.158916E+0	1.127572E+0	1.105484E+0	1.119470E+0	1.064793E+0	1.105537E+0	1.138893E+0	1.076727E+0	1.097726E+0	1.205943E+0
2.960030E+2	1.133863E+0	1.113112E+0	1.134366E+0	1.076855E+0	1.080364E+0	1.094635E+0	1.044145E+0	1.167566E+0	1.136635E+0	1.086239E+0	1.119196E+0	1.125917E+0	1.097076E+0	1.112368E+0	1.082562E+0	1.145860E+0	1.079128E+0	1.107601E+0	1.112987E+0	1.082190E+0	1.074452E+0	1.115952E+0	1.074344E+0	1.139116E+0	1.087531E+0	1.113125E+0	1.103498E+0	1.059356E+0	1.057789E+0	1.098544E+0	1.131307E+0	1.054731E+0	1.076633E+0	1.094984E+0	1.092225E+0	1.141729E+0	1.129500E+0	1.139643E+0	1.090332E+0	1.114512E+0	1.102331E+0	1.127362E+0	1.108552E+0	1.048262E+0	1.096800E+0	1.094272E+0	1.087062E+0	1.068598E+0	1.184595E+0	1.122245E+0	1.088162E+0	1.108554E+0	1.085509E+0	1.136004E+0	1.138845E+0	1.153340E+0	1.118013E+0	1.114253E+0	1.084595E+0	1.106813E+0	1.145105E+0	1.080321E+0	1.087892E+0	1.137571E+0	1.123686E+0	1.088803E+0	1.078257E+0	1.116748E+0	1.138183E+0	1.094790E+0	1.067081E+0	1.143259E+0	1.046767E+0	1.082899E+0	1.065845E+0	1.082725E+0	1.149860E+0	1.093442E+0	1.080444E+0	1.071632E+0	1.094715E+0	1.151290E+0	1.046033E+0	1.061900E+0	1.098211E+0	1.132795E+0	1.101815E+0	1.105046E+0	1.116829E+0	1.137253E+0	1.034328E+0	1.124764E+0	1.106959E+0	1.082688E+0	1.085657E+0	1.172369E+0	1.148816E+0	1.094912E+0	1.077650E+0	1.139416E+0	1.126021E+0	1.149576E+0	1.096864E+0	1.077085E+0	1.137138E+0	1.092629E+0	1.120828E+0	1.136490E+0	1.146586E+0	1.117548E+0	1.055947E+0	1.064757E+0	1.130364E+0	1.079036E+0	1.195038E+0	1.135384E+0	1.112202E+0	1.103809E+0	1.148985E+0	1.076313E+0	1.141564E+0	1.102235E+0	1.099201E+0	1.064079E+0	1.074740E+0	1.073999E+0	1.100420E+0	1.098091E+0	1.119856E+0	1.107441E+0	1.099651E+0	1.135738E+0	1.066272E+0	1.093799E+0	1.119047E+0	1.117814E+0	1.119810E+0	1.145596E+0	1.066789E+0	1.024224E+0	1.104368E+0	1.118462E+0	1.118772E+0	1.102809E+0	1.074010E+0	1.130252E+0	1.114716E+0	1.104702E+0	1.059660E+0	1.145684E+0	1.048012E+0	1.096983E+0	1.092500E+0	1.068524E+0	1.114879E+0	1.153439E+0	1.048055E+0	1.128034E+0	1.107750E+0	1.027858E+0	1.048667E+0	1.090984E+0	1.131356E+0	1.092992E+0	1.106256E+0	1.095435E+0	1.109697E+0	1.147415E+0	1.042686E+0	1.034364E+0	1.078935E+0
2.964990E+2	1.044452E+0	1.030319E+0	1.101584E+0	1.032604E+0	1.019617E+0	1.024840E+0	1.011474E+0	1.016588E+0	1.043506E+0	1.064455E+0	1.047748E+0	1.026881E+0	1.024582E+0	1.014359E+0	1.017321E+0	1.002335E+0	1.032385E+0	1.020012E+0	9.998183E-1	1.020150E+0	1.054272E+0	1.065772E+0	1.063599E+0	1.056209E+0	1.020684E+0	1.010943E+0	1.037331E+0	1.027751E+0	1.036777E+0	1.006681E+0	1.080408E+0	1.007683E+0	1.035575E+0	1.033913E+0	1.033905E+0	1.068960E+0	1.060032E+0	1.040066E+0	1.045045E+0	9.919069E-1	1.032355E+0	1.023253E+0	9.972807E-1	1.016117E+0	1.022000E+0	1.044692E+0	1.041610E+0	1.057645E+0	1.079537E+0	1.005818E+0	9.949269E-1	1.023029E+0	1.011382E+0	1.054798E+0	1.029944E+0	1.048919E+0	1.047840E+0	1.034455E+0	1.049090E+0	1.037218E+0	1.014550E+0	9.987892E-1	9.905484E-1	1.072218E+0	1.059841E+0	1.020787E+0	1.032989E+0	9.940196E-1	1.053523E+0	1.056411E+0	1.051225E+0	1.112250E+0	1.070349E+0	1.116253E+0	1.030622E+0	9.811485E-1	1.023940E+0	1.022973E+0	1.038323E+0	1.051876E+0	1.086159E+0	1.038347E+0	1.016690E+0	9.971998E-1	1.050360E+0	1.073352E+0	1.073607E+0	1.052225E+0	9.855062E-1	1.025452E+0	1.034213E+0	1.080157E+0	1.045615E+0	1.047061E+0	1.036834E+0	1.099328E+0	1.056104E+0	1.020852E+0	1.069710E+0	1.063950E+0	1.062721E+0	1.051073E+0	9.968372E-1	1.012972E+0	1.054476E+0	1.008291E+0	1.053307E+0	1.041672E+0	1.026689E+0	9.972017E-1	1.052399E+0	1.038831E+0	1.091856E+0	9.903996E-1	1.061256E+0	1.035884E+0	1.068563E+0	1.033773E+0	1.033011E+0	1.038582E+0	9.953228E-1	1.044823E+0	1.075756E+0	1.063895E+0	1.081970E+0	1.026820E+0	1.011505E+0	1.039395E+0	1.078566E+0	1.049363E+0	1.047196E+0	1.025284E+0	9.690548E-1	1.033136E+0	1.053463E+0	1.002376E+0	1.059101E+0	1.031668E+0	1.036631E+0	1.011540E+0	1.036290E+0	1.062430E+0	1.033110E+0	1.040547E+0	1.066577E+0	1.049233E+0	1.023138E+0	1.045263E+0	9.902847E-1	1.006284E+0	1.014137E+0	1.017085E+0	1.049534E+0	1.021688E+0	1.007504E+0	1.033930E+0	1.001569E+0	1.055222E+0	1.086099E+0	1.065043E+0	1.061897E+0	1.037898E+0	1.079498E+0	1.050091E+0	1.048318E+0	9.903556E-1	1.073891E+0	1.038940E+0	1.075160E+0	1.027290E+0	1.030846E+0
2.970040E+2	9.795317E-1	1.020681E+0	1.035913E+0	1.032504E+0	1.062321E+0	1.097265E+0	1.010092E+0	1.008154E+0	1.037271E+0	1.062068E+0	1.037683E+0	1.040749E+0	1.011452E+0	1.043712E+0	1.024919E+0	1.000166E+0	9.830922E-1	1.007280E+0	1.023085E+0	9.680805E-1	1.036933E+0	1.044694E+0	1.008827E+0	1.033467E+0	1.049134E+0	9.810469E-1	1.060273E+0	1.083764E+0	1.045217E+0	1.032359E+0	1.040352E+0	1.010400E+0	1.073415E+0	9.965737E-1	9.800090E-1	1.010259E+0	1.004180E+0	1.006583E+0	1.013882E+0	9.869588E-1	9.878716E-1	1.036489E+0	1.025950E+0	9.738159E-1	1.023957E+0	1.015160E+0	1.011895E+0	1.024333E+0	1.010178E+0	1.033955E+0	1.066278E+0	1.003271E+0	1.059118E+0	1.076887E+0	1.086152E+0	1.020531E+0	1.020508E+0	9.821971E-1	9.835514E-1	1.016344E+0	1.020354E+0	1.012922E+0	1.014712E+0	1.073983E+0	1.032958E+0	1.047142E+0	1.036575E+0	1.028866E+0	1.064216E+0	1.006612E+0	1.015994E+0	1.075332E+0	9.853887E-1	1.007293E+0	9.862023E-1	9.879547E-1	9.978789E-1	1.065377E+0	1.020798E+0	1.012775E+0	1.029046E+0	1.083822E+0	1.010797E+0	1.025795E+0	1.052937E+0	1.060687E+0	1.022530E+0	1.011099E+0	1.041125E+0	1.003114E+0	1.004781E+0	1.002738E+0	1.033793E+0	9.860438E-1	1.045398E+0	9.894622E-1	9.962170E-1	1.026669E+0	1.051912E+0	9.940421E-1	1.013972E+0	1.049655E+0	1.059803E+0	1.053093E+0	1.022573E+0	1.039837E+0	9.994350E-1	1.022153E+0	1.017748E+0	1.022655E+0	1.058374E+0	1.057571E+0	1.054348E+0	1.041915E+0	1.049885E+0	1.061384E+0	1.031869E+0	1.056709E+0	1.066002E+0	1.045406E+0	9.958574E-1	1.050651E+0	1.000326E+0	9.775060E-1	1.079388E+0	1.046509E+0	9.924692E-1	1.033510E+0	1.078465E+0	1.049808E+0	1.005959E+0	1.006947E+0	1.027761E+0	1.043863E+0	1.052479E+0	1.040763E+0	1.008475E+0	1.040671E+0	1.045813E+0	1.021429E+0	9.881618E-1	1.062129E+0	1.022416E+0	1.066006E+0	1.039319E+0	1.034392E+0	1.019485E+0	1.011236E+0	1.006345E+0	1.054136E+0	9.779557E-1	1.051178E+0	1.040906E+0	1.039069E+0	1.039265E+0	1.015796E+0	1.043729E+0	1.010385E+0	1.062486E+0	1.004923E+0	1.001330E+0	1.051320E+0	1.010104E+0	1.033644E+0	1.056632E+0	1.067112E+0	9.946778E-1	1.025033E+0	1.051469E+0	9.761353E-1	1.151967E+0
2.975020E+2	1.027833E+0	9.857081E-1	1.014544E+0	1.034083E+0	9.991016E-1	1.040347E+0	1.015336E+0	1.034819E+0	1.035058E+0	1.025467E+0	9.920035E-1	1.014205E+0	1.036552E+0	1.074114E+0	1.010673E+0	1.017179E+0	1.055339E+0	1.062454E+0	9.811156E-1	1.027856E+0	1.040922E+0	1.023635E+0	1.025021E+0	1.048343E+0	1.065810E+0	1.030982E+0	9.970697E-1	1.004805E+0	1.022016E+0	1.006922E+0	1.017091E+0	1.050363E+0	9.896294E-1	1.040968E+0	1.029658E+0	1.029184E+0	9.972626E-1	1.033817E+0	1.053638E+0	9.876916E-1	1.032567E+0	1.030517E+0	1.043887E+0	9.764783E-1	1.003251E+0	1.043351E+0	1.017167E+0	1.048267E+0	1.095785E+0	1.042239E+0	1.003612E+0	1.029488E+0	1.017726E+0	1.022263E+0	1.048212E+0	1.055667E+0	9.989131E-1	1.034912E+0	1.032718E+0	1.019141E+0	1.026735E+0	1.018673E+0	1.058097E+0	1.023783E+0	1.043414E+0	1.045001E+0	1.016978E+0	1.029676E+0	1.035001E+0	1.005300E+0	1.021488E+0	1.021398E+0	1.028242E+0	1.012852E+0	1.021328E+0	1.036680E+0	1.000031E+0	9.482736E-1	1.014854E+0	1.016434E+0	1.079938E+0	1.034335E+0	1.078623E+0	9.847631E-1	1.046560E+0	1.043699E+0	1.019676E+0	1.062805E+0	1.061900E+0	9.922066E-1	1.028809E+0	1.034840E+0	1.019324E+0	1.049372E+0	9.988450E-1	1.010617E+0	1.028302E+0	1.003171E+0	1.009964E+0	1.041292E+0	9.993458E-1	1.034171E+0	1.037695E+0	9.873093E-1	1.002658E+0	9.829668E-1	1.037639E+0	1.010456E+0	9.860889E-1	1.036675E+0	1.060985E+0	9.873524E-1	1.028980E+0	1.033886E+0	1.010513E+0	1.034389E+0	1.018529E+0	1.025365E+0	1.012849E+0	1.068030E+0	1.036681E+0	1.023913E+0	1.042155E+0	1.038481E+0	9.786787E-1	9.890031E-1	1.001415E+0	1.028796E+0	1.014171E+0	1.031480E+0	1.019818E+0	9.940648E-1	1.041341E+0	1.022894E+0	1.041057E+0	1.029663E+0	1.012124E+0	9.891189E-1	1.040657E+0	9.884601E-1	1.012223E+0	9.967473E-1	1.005207E+0	1.074526E+0	1.012457E+0	1.043913E+0	9.983874E-1	1.055382E+0	1.009996E+0	1.033307E+0	9.920655E-1	1.000009E+0	1.005954E+0	1.027443E+0	1.018147E+0	1.036344E+0	1.022311E+0	9.764533E-1	1.040864E+0	1.068007E+0	1.026334E+0	1.001551E+0	1.013271E+0	1.056166E+0	1.016157E+0	9.925632E-1	1.042751E+0	1.046896E+0	1.047232E+0	1.016578E+0	9.766338E-1
2.980040E+2	1.025310E+0	1.041423E+0	1.008040E+0	9.711295E-1	1.005065E+0	9.735946E-1	1.004359E+0	1.006912E+0	9.748450E-1	1.015176E+0	1.025940E+0	1.025025E+0	9.964695E-1	1.012052E+0	1.017570E+0	1.007579E+0	1.008247E+0	9.964944E-1	1.021150E+0	9.666739E-1	1.014788E+0	1.006001E+0	1.014189E+0	9.604523E-1	9.863235E-1	1.039340E+0	1.019863E+0	9.934076E-1	1.018866E+0	9.880351E-1	1.028143E+0	1.024637E+0	1.029390E+0	1.022127E+0	1.018624E+0	1.028473E+0	1.035697E+0	1.007564E+0	1.034269E+0	1.013546E+0	1.001834E+0	9.998302E-1	1.025549E+0	1.054481E+0	1.030484E+0	1.007029E+0	1.002576E+0	9.852254E-1	9.835397E-1	1.001771E+0	9.985172E-1	1.063628E+0	1.034060E+0	1.015150E+0	1.044821E+0	1.045362E+0	9.847795E-1	1.017032E+0	1.048521E+0	1.002182E+0	1.057170E+0	9.910350E-1	9.943500E-1	1.013301E+0	9.811240E-1	9.633751E-1	1.027703E+0	9.734145E-1	1.022676E+0	1.026688E+0	1.002408E+0	1.004992E+0	1.000519E+0	9.814044E-1	1.017319E+0	9.724857E-1	9.827038E-1	1.049876E+0	1.034680E+0	9.874888E-1	1.040230E+0	1.011558E+0	1.017082E+0	9.880546E-1	9.904995E-1	9.945594E-1	1.007364E+0	1.026394E+0	1.023710E+0	1.023796E+0	1.006124E+0	1.007730E+0	1.023698E+0	9.967376E-1	1.025896E+0	1.021336E+0	1.015723E+0	1.039926E+0	9.968463E-1	9.998276E-1	1.052749E+0	1.011977E+0	9.990404E-1	1.009654E+0	1.003676E+0	1.008930E+0	1.019639E+0	1.012116E+0	1.029314E+0	9.846580E-1	1.015602E+0	1.062223E+0	1.051067E+0	9.949466E-1	9.921079E-1	9.954725E-1	1.003339E+0	1.030782E+0	9.606936E-1	9.911797E-1	1.029276E+0	1.024374E+0	1.022541E+0	1.008519E+0	1.053109E+0	1.014623E+0	1.015349E+0	1.000475E+0	1.018433E+0	1.021027E+0	1.057051E+0	9.938261E-1	1.025818E+0	1.023741E+0	1.013384E+0	1.018393E+0	1.023524E+0	9.983924E-1	1.040450E+0	1.041213E+0	1.022588E+0	1.040283E+0	1.022914E+0	1.011949E+0	9.961706E-1	1.000657E+0	1.022462E+0	9.998385E-1	1.026262E+0	9.932746E-1	9.734637E-1	1.013796E+0	1.036355E+0	9.981975E-1	9.726832E-1	1.000403E+0	1.019731E+0	9.939976E-1	1.033660E+0	1.023266E+0	9.762858E-1	1.012716E+0	9.701071E-1	9.957401E-1	1.009837E+0	9.766357E-1	1.002937E+0	9.743674E-1	9.945936E-1	9.906573E-1	9.912098E-1
2.985020E+2	9.427232E-1	9.903409E-1	9.862704E-1	1.022389E+0	9.770098E-1	9.519024E-1	1.009394E+0	1.040980E+0	9.819445E-1	9.808329E-1	1.007413E+0	9.455182E-1	9.723433E-1	9.974622E-1	9.812359E-1	1.014573E+0	9.964640E-1	9.541914E-1	9.866911E-1	9.890713E-1	9.751068E-1	1.031408E+0	9.795671E-1	1.012201E+0	9.539673E-1	1.009914E+0	9.612540E-1	1.016533E+0	1.036694E+0	9.792574E-1	9.773052E-1	9.755198E-1	9.808258E-1	1.008893E+0	9.892022E-1	9.798303E-1	1.025526E+0	9.897888E-1	9.432521E-1	1.001151E+0	9.716513E-1	1.000676E+0	9.543732E-1	9.821364E-1	9.962194E-1	9.743770E-1	1.009437E+0	1.018378E+0	9.956772E-1	9.770925E-1	1.000028E+0	9.806535E-1	9.798930E-1	9.684135E-1	9.878731E-1	9.660401E-1	9.962890E-1	9.875309E-1	1.004326E+0	1.023628E+0	9.925104E-1	1.009461E+0	9.959425E-1	9.968299E-1	1.001169E+0	1.008907E+0	9.668990E-1	1.009272E+0	9.601479E-1	9.688826E-1	9.924739E-1	9.749459E-1	9.549623E-1	1.002512E+0	9.732870E-1	9.996073E-1	1.018837E+0	9.776589E-1	9.506064E-1	9.877804E-1	9.435368E-1	1.007647E+0	9.894023E-1	1.006885E+0	9.653114E-1	9.725067E-1	9.971511E-1	1.002343E+0	9.477222E-1	9.763298E-1	9.730944E-1	1.000638E+0	9.904106E-1	9.836005E-1	1.007526E+0	9.906902E-1	9.904780E-1	9.681269E-1	1.001319E+0	9.977954E-1	9.644880E-1	1.006232E+0	9.727780E-1	9.941212E-1	9.851048E-1	9.995326E-1	9.937762E-1	9.966282E-1	9.713129E-1	1.011193E+0	9.720931E-1	9.823332E-1	9.924206E-1	9.822437E-1	1.011569E+0	9.643277E-1	1.016509E+0	1.002539E+0	1.014636E+0	1.010700E+0	9.988650E-1	9.896608E-1	9.668021E-1	9.954678E-1	1.009066E+0	9.784452E-1	9.875403E-1	1.007721E+0	9.657810E-1	9.904379E-1	9.555348E-1	1.009605E+0	9.652084E-1	1.009537E+0	9.975402E-1	9.847313E-1	9.918841E-1	9.787687E-1	1.006150E+0	9.986967E-1	9.480533E-1	1.010911E+0	1.011378E+0	9.431994E-1	1.010033E+0	9.643348E-1	1.006643E+0	1.016002E+0	1.012094E+0	9.676680E-1	1.009373E+0	1.025082E+0	9.770824E-1	1.009352E+0	1.011779E+0	9.638465E-1	1.016712E+0	9.994652E-1	9.655389E-1	9.794938E-1	9.953515E-1	1.045424E+0	1.012658E+0	9.914401E-1	9.410611E-1	1.018517E+0	9.792074E-1	9.714968E-1	9.740381E-1	9.337318E-1	1.057345E+0
2.990010E+2	9.849550E-1	9.320141E-1	9.457458E-1	9.316683E-1	9.724637E-1	9.562084E-1	9.529986E-1	8.899373E-1	9.825148E-1	9.175427E-1	9.566206E-1	9.719689E-1	9.452147E-1	9.668605E-1	9.493692E-1	9.274376E-1	9.606051E-1	9.599780E-1	9.553250E-1	9.644780E-1	9.571659E-1	9.323672E-1	9.304002E-1	9.814072E-1	9.431438E-1	9.201025E-1	9.174645E-1	9.856859E-1	9.318345E-1	9.855501E-1	9.544800E-1	9.054252E-1	9.631922E-1	9.299882E-1	9.098472E-1	9.072041E-1	9.141813E-1	9.472167E-1	8.982859E-1	9.707933E-1	9.445217E-1	9.583299E-1	9.352471E-1	9.336729E-1	9.623150E-1	9.537707E-1	9.746783E-1	9.432576E-1	9.183805E-1	9.321324E-1	9.780171E-1	9.032333E-1	9.780674E-1	9.313157E-1	9.720228E-1	9.326917E-1	9.560175E-1	9.342353E-1	9.198793E-1	9.201545E-1	9.241953E-1	9.348372E-1	9.173060E-1	9.268117E-1	9.516926E-1	9.215741E-1	9.625699E-1	9.509970E-1	9.942350E-1	9.340143E-1	9.994268E-1	9.621707E-1	9.701225E-1	9.485798E-1	9.540710E-1	9.689161E-1	9.464960E-1	9.297462E-1	9.825181E-1	9.396342E-1	9.065117E-1	9.668316E-1	9.292294E-1	9.718769E-1	9.487893E-1	9.623801E-1	9.947680E-1	9.210590E-1	9.370337E-1	9.950656E-1	9.510136E-1	9.717749E-1	9.253578E-1	9.647373E-1	9.614231E-1	9.157762E-1	9.380598E-1	9.658293E-1	9.531439E-1	9.470450E-1	9.595548E-1	9.157798E-1	9.691975E-1	9.786680E-1	9.658559E-1	9.654954E-1	9.284891E-1	9.573300E-1	9.334198E-1	9.707917E-1	9.636528E-1	9.462620E-1	9.533975E-1	9.434946E-1	9.215395E-1	9.361598E-1	9.532159E-1	9.149780E-1	9.673487E-1	9.439435E-1	9.300254E-1	9.533031E-1	9.542351E-1	9.389276E-1	9.373076E-1	9.511897E-1	9.761480E-1	9.768365E-1	9.761214E-1	9.330637E-1	9.867885E-1	9.436464E-1	9.521556E-1	9.647039E-1	9.644689E-1	9.415890E-1	9.242785E-1	9.740285E-1	9.266335E-1	9.697498E-1	9.570638E-1	9.653166E-1	9.501310E-1	9.594696E-1	9.811131E-1	9.554052E-1	9.620960E-1	9.439125E-1	9.015933E-1	9.553414E-1	9.787701E-1	9.535768E-1	9.694050E-1	9.343810E-1	9.622051E-1	9.928054E-1	9.325905E-1	9.697681E-1	9.186745E-1	9.381671E-1	9.458387E-1	9.549325E-1	9.853508E-1	9.482551E-1	9.516805E-1	9.614240E-1	9.526505E-1	9.915366E-1	9.460043E-1	1.106658E+0	9.173706E-1
2.995040E+2	9.828972E-1	1.035776E+0	1.031330E+0	9.831987E-1	9.946662E-1	1.034997E+0	9.834827E-1	9.872025E-1	9.858843E-1	1.034353E+0	1.018285E+0	1.015143E+0	9.999304E-1	9.537468E-1	1.008575E+0	1.007289E+0	9.891874E-1	1.040692E+0	1.029522E+0	1.040494E+0	9.898381E-1	9.991867E-1	1.019894E+0	9.918835E-1	9.823142E-1	9.965680E-1	1.043875E+0	9.913437E-1	9.627090E-1	1.005236E+0	1.023344E+0	1.024815E+0	9.937166E-1	9.876338E-1	1.032404E+0	1.016516E+0	9.959025E-1	1.008718E+0	1.016717E+0	1.008599E+0	1.030628E+0	1.009122E+0	9.905272E-1	1.041062E+0	1.006852E+0	1.016768E+0	9.988743E-1	9.850332E-1	9.890143E-1	1.021176E+0	9.693311E-1	9.846919E-1	9.631347E-1	1.004259E+0	9.615979E-1	9.895619E-1	1.016965E+0	9.950211E-1	9.564095E-1	1.018315E+0	9.656100E-1	1.018051E+0	9.861005E-1	1.025931E+0	1.030587E+0	1.013338E+0	9.869259E-1	1.015324E+0	9.782357E-1	1.011155E+0	9.930935E-1	1.011161E+0	1.021000E+0	1.006457E+0	1.005150E+0	1.008711E+0	1.010383E+0	1.031465E+0	1.001833E+0	1.024260E+0	1.000398E+0	9.732382E-1	9.751025E-1	1.013555E+0	1.002789E+0	1.006891E+0	9.913417E-1	9.972040E-1	1.024884E+0	1.021259E+0	1.015248E+0	9.913570E-1	1.022688E+0	1.001997E+0	1.007228E+0	1.033277E+0	1.024311E+0	1.000795E+0	1.006951E+0	9.842689E-1	1.006411E+0	1.004813E+0	9.955892E-1	9.879909E-1	1.008052E+0	1.013918E+0	9.883048E-1	1.013452E+0	1.052564E+0	9.924785E-1	9.937842E-1	9.987077E-1	9.596033E-1	1.011735E+0	1.020200E+0	1.035104E+0	9.795702E-1	1.013564E+0	1.007021E+0	9.770987E-1	1.021476E+0	1.002994E+0	9.922254E-1	9.917288E-1	9.981875E-1	9.898857E-1	9.995783E-1	9.965673E-1	9.735671E-1	1.012182E+0	9.641711E-1	1.012857E+0	1.010681E+0	9.804281E-1	9.849870E-1	9.850206E-1	1.030573E+0	1.016705E+0	9.702373E-1	9.643662E-1	1.019078E+0	9.814946E-1	9.747231E-1	1.046089E+0	9.941982E-1	9.968206E-1	9.970184E-1	9.870611E-1	9.852414E-1	9.992291E-1	1.017055E+0	9.894957E-1	9.700912E-1	1.032505E+0	1.012697E+0	9.916620E-1	9.779849E-1	1.022791E+0	1.004648E+0	1.001317E+0	1.028760E+0	9.593337E-1	9.906404E-1	9.755603E-1	1.044871E+0	1.027652E+0	9.833534E-1	9.687798E-1	1.030549E+0	9.757221E-1	9.646286E-1
3.000060E+2	1.036281E+0	1.014738E+0	1.014070E+0	1.057531E+0	1.051693E+0	1.042950E+0	1.034430E+0	1.040149E+0	1.039753E+0	1.026628E+0	9.997384E-1	1.028140E+0	1.049491E+0	9.957641E-1	1.032576E+0	1.025943E+0	9.901575E-1	9.861900E-1	1.026197E+0	1.011426E+0	1.022179E+0	1.007401E+0	1.030929E+0	1.005713E+0	1.068441E+0	1.003094E+0	1.060474E+0	1.008226E+0	1.027881E+0	1.034999E+0	9.996370E-1	1.019239E+0	1.043246E+0	1.010390E+0	1.020264E+0	1.038793E+0	1.031431E+0	1.012895E+0	1.053838E+0	1.018220E+0	1.018797E+0	1.001525E+0	1.050416E+0	1.012169E+0	1.000878E+0	1.004704E+0	9.972667E-1	1.019839E+0	1.017603E+0	1.025589E+0	1.050494E+0	1.038305E+0	1.027118E+0	1.058598E+0	9.854731E-1	1.010677E+0	1.047036E+0	1.031268E+0	1.038147E+0	1.016580E+0	1.033780E+0	1.027942E+0	1.048204E+0	1.013344E+0	9.920136E-1	1.047805E+0	1.038925E+0	1.021316E+0	1.009705E+0	1.053960E+0	9.911099E-1	1.025333E+0	1.025154E+0	1.048195E+0	1.028846E+0	1.013599E+0	1.041550E+0	1.062980E+0	1.015508E+0	1.044403E+0	1.029385E+0	1.006389E+0	1.010560E+0	1.034865E+0	1.046052E+0	1.019964E+0	9.896995E-1	9.901955E-1	1.004750E+0	9.913434E-1	1.025710E+0	9.936604E-1	1.018522E+0	1.003556E+0	9.990824E-1	1.028304E+0	1.003126E+0	1.022152E+0	1.031776E+0	1.029771E+0	1.017451E+0	1.027027E+0	1.025700E+0	1.042256E+0	1.034654E+0	1.029158E+0	1.032152E+0	1.010019E+0	1.027301E+0	1.004204E+0	9.938827E-1	1.023121E+0	1.014532E+0	1.033694E+0	1.044071E+0	1.034547E+0	1.028837E+0	1.012772E+0	1.037452E+0	1.009048E+0	9.836770E-1	1.005755E+0	1.022041E+0	1.026876E+0	1.023652E+0	1.076854E+0	1.019970E+0	9.896045E-1	1.051926E+0	1.011810E+0	1.016637E+0	1.046000E+0	1.004796E+0	9.986959E-1	9.985627E-1	1.040603E+0	1.017616E+0	1.042987E+0	1.015872E+0	1.037514E+0	1.040994E+0	1.005247E+0	1.035647E+0	9.647670E-1	1.006028E+0	1.038870E+0	1.013394E+0	9.978038E-1	1.064812E+0	1.051180E+0	1.029273E+0	1.018040E+0	1.041113E+0	9.981221E-1	1.022489E+0	1.014940E+0	1.030671E+0	1.037524E+0	1.036615E+0	9.897495E-1	1.027431E+0	1.026043E+0	1.027972E+0	1.032839E+0	1.036394E+0	1.023208E+0	1.039101E+0	1.046923E+0	1.007583E+0	9.766527E-1	1.092812E+0
