Photon Energy (eV)	#1	#2	#3	#4	#5	#6	#7	#8	#9	#10	#11	#12	#13	#14	#15	#16	#17	#18	#19	#20	#21	#22	#23	#24	#25	#26	#27	#28	#29	#30	#31	#32	#33	#34	#35	#36	#37	#38	#39	#40	#41	#42	#43	#44	#45	#46	#47	#48	#49	#50	#51	#52	#53	#54	#55	#56	#57	#58	#59	#60	#61	#62	#63	#64	#65	#66	#67	#68	#69	#70	#71	#72	#73	#74	#75	#76	#77	#78	#79	#80	#81	#82	#83	#84	#85	#86	#87	#88	#89	#90	#91	#92	#93	#94	#95	#96	#97	#98	#99	#100	#101	#102	#103	#104	#105	#106	#107	#108	#109	#110	#111	#112	#113	#114	#115	#116	#117	#118	#119	#120	#121	#122	#123	#124	#125	#126	#127	#128	#129	#130	#131	#132	#133	#134	#135	#136	#137	#138	#139	#140	#141	#142	#143	#144	#145	#146	#147	#148	#149	#150	#151	#152	#153	#154	#155	#156	#157	#158	#159	#160	#161	#162	#163	#164	#165	#166	#167	#168	#169	#170	#171	#172	
2.790010E+2	8.496149E-4	-1.376867E-3	-4.296204E-3	1.709390E-3	-4.296211E-3	-2.169621E-3	-5.339861E-3	-3.865283E-3	-1.719572E-3	8.200476E-4	-1.346814E-3	2.623069E-3	-1.366045E-3	3.234248E-3	-2.746077E-3	2.021587E-4	-3.963016E-3	-3.150972E-3	-6.743193E-3	-1.498337E-3	-3.180263E-3	-6.063971E-3	1.256017E-4	1.875276E-4	-5.210854E-3	-4.201955E-3	-3.657942E-3	-1.505124E-3	1.405924E-3	-1.563446E-3	-1.197680E-3	-4.887508E-3	-6.794439E-3	-3.424230E-3	-2.701065E-3	8.958407E-4	-1.025999E-2	-1.420795E-3	-5.389947E-3	-1.852192E-4	2.151734E-3	-6.849606E-3	-1.352787E-3	-5.572096E-3	-4.668878E-4	-6.700209E-3	2.579145E-3	-4.081449E-3	-2.437930E-3	-3.028734E-3	1.527110E-3	-3.310836E-3	-2.915449E-3	-7.138269E-3	-4.854068E-3	-6.506419E-3	-1.949279E-8	-3.753160E-3	3.072921E-3	-4.144601E-3	-2.666201E-3	-6.196935E-3	-2.006516E-3	2.537773E-3	-6.015388E-3	-5.586598E-3	-4.645327E-3	3.991843E-3	2.967911E-3	7.574077E-4	6.092459E-5	-2.173285E-3	-2.347313E-3	-8.060889E-3	-6.610271E-3	-9.054412E-3	-3.922896E-3	-2.973500E-3	-1.812750E-3	-3.535696E-3	-2.345223E-3	-6.099787E-3	-2.542264E-3	-1.552895E-4	-1.081382E-3	-3.356219E-3	-5.032799E-4	-4.078034E-3	-2.626204E-3	-6.944304E-4	-8.305808E-4	-1.622332E-3	-3.771671E-4	-4.509488E-3	-1.470251E-3	-8.089110E-4	-4.222094E-3	-3.397369E-3	4.228018E-3	-3.884010E-4	-2.976320E-3	-3.798506E-3	-4.773567E-3	-1.706869E-3	3.453131E-3	-1.205438E-3	-1.063515E-3	-7.052982E-3	2.439958E-4	-5.351946E-3	-1.925436E-3	-2.560095E-3	-3.163163E-3	-7.213463E-3	-1.428004E-3	-3.236408E-3	-7.466520E-3	-3.285838E-3	-9.922450E-4	-5.305661E-4	3.018276E-3	-1.206724E-2	-1.486545E-4	-7.296594E-5	-8.914552E-4	-4.710688E-3	-2.237311E-3	-2.160413E-3	-5.849149E-3	-2.082995E-4	-3.799080E-3	-9.036161E-3	-4.765968E-3	-5.465639E-4	6.040981E-3	2.846622E-3	1.650262E-3	-1.045407E-2	2.695172E-3	-7.727530E-3	-5.531939E-3	-4.979485E-3	-6.059259E-4	7.032629E-5	-5.360729E-4	8.350953E-4	-8.213123E-3	-1.537541E-3	-1.441502E-3	-3.807807E-3	-2.383553E-3	-3.029701E-3	-9.204561E-3	-4.058792E-3	-3.268866E-3	-2.458016E-3	4.499794E-3	-3.653505E-3	-5.341179E-3	1.007405E-2	-1.961459E-3	4.127254E-3	-4.056137E-3	-1.244294E-8	-3.098259E-3	-7.470852E-3	1.030185E-3	1.305532E-4	1.679434E-3	5.099420E-4	-9.040608E-3	-7.273108E-3
2.795040E+2	8.326247E-3	-5.264433E-3	1.385954E-4	-3.885020E-3	-4.878752E-3	1.446437E-4	2.230599E-3	-7.178347E-3	4.533392E-3	-3.553531E-3	-2.886031E-3	-4.783205E-3	-4.346548E-3	-3.234237E-3	-2.323587E-3	-4.110802E-3	-1.080812E-3	-1.050344E-3	9.633195E-4	-3.296391E-3	5.470042E-3	2.617076E-3	-4.898057E-3	-4.813584E-3	4.631879E-3	8.604021E-3	-2.438632E-4	3.081918E-3	1.405924E-3	-3.487666E-3	-6.672868E-3	5.568138E-4	-2.871873E-3	-1.395050E-3	4.836783E-3	1.447103E-3	-3.708293E-4	-3.788750E-3	-3.919975E-3	-1.851951E-4	-4.511713E-3	6.591137E-3	-4.445018E-3	-8.915290E-3	-1.867556E-3	1.223526E-3	-2.005981E-3	-1.133738E-2	-2.437927E-3	-3.567201E-3	5.090290E-4	1.000933E-3	-7.686207E-3	8.069420E-4	-3.151723E-4	-7.557984E-3	-3.807437E-3	-7.574559E-3	-1.723848E-3	-2.938900E-3	4.096862E-3	-4.819821E-3	-3.009780E-3	8.916721E-4	6.776836E-3	-3.075779E-3	-6.967973E-3	-2.033581E-3	1.888670E-3	-8.564592E-3	2.497406E-3	-3.753880E-3	2.071142E-3	-3.224378E-3	2.644238E-4	1.782397E-3	-2.910549E-3	-4.955559E-4	-5.555231E-3	-4.059554E-3	-4.050893E-3	-3.327199E-3	-4.963487E-3	-4.503334E-3	-8.651011E-3	-2.303309E-3	-2.013071E-3	-1.973248E-3	-3.262858E-3	-1.805477E-3	1.585651E-3	-2.802237E-3	-8.801062E-4	-3.547446E-3	-7.606932E-3	8.088970E-4	-1.498151E-3	1.730748E-3	-5.102801E-3	6.447948E-3	-7.117319E-3	-8.281959E-3	-1.161149E-3	-2.212637E-3	-6.983001E-3	-1.741162E-3	5.317818E-4	-4.287083E-3	3.660040E-3	-3.405775E-3	-9.918779E-4	-5.254880E-3	-4.744720E-3	-2.671553E-4	-4.284062E-3	-2.604933E-3	-1.008980E-3	9.200302E-4	-9.922773E-4	-1.061116E-3	-2.065175E-3	7.672717E-4	-1.486581E-4	5.105836E-4	1.302875E-3	-5.234130E-4	-4.343079E-3	-2.160417E-3	6.005130E-3	-4.096552E-3	-1.899553E-3	8.366824E-3	-7.528817E-3	-1.311833E-2	3.939772E-3	-8.606194E-4	-2.550371E-3	1.560345E-4	1.560376E-3	-5.326723E-3	-3.126765E-3	-1.310379E-3	-6.422956E-3	-1.055141E-3	-5.360514E-3	-9.869339E-4	-5.452415E-3	-9.225026E-4	-6.683256E-3	-6.527652E-3	-7.491152E-4	-6.639621E-3	-5.553155E-3	-1.399781E-4	-8.362729E-4	-6.759506E-3	-6.408785E-3	-2.679200E-3	-3.420751E-3	-3.173999E-3	-1.333781E-3	2.030911E-3	-3.324555E-4	-5.245279E-3	-3.649071E-3	-2.228099E-3	1.030195E-3	1.305469E-4	-7.277457E-3	-6.629288E-3	8.054379E-3	2.846003E-3
2.800050E+2	4.927781E-3	1.862782E-3	6.929399E-4	-5.128195E-3	-8.010117E-4	1.446120E-4	2.771341E-3	4.417437E-3	1.563291E-4	1.913426E-3	1.731595E-3	7.560585E-3	-1.862815E-3	-2.772219E-3	1.056168E-3	2.021456E-4	-5.115893E-3	-1.050331E-3	1.444975E-3	4.495068E-3	-2.162571E-3	5.744940E-4	-1.883824E-3	-3.313244E-3	-6.368817E-3	6.002705E-4	-2.194742E-3	-4.372024E-3	-1.405944E-3	3.607881E-4	-3.022757E-3	-1.422933E-3	5.533635E-3	-4.946104E-3	3.831721E-3	-5.168253E-3	1.606976E-3	1.894360E-3	1.959966E-3	-2.655037E-3	-1.735269E-3	3.876855E-4	-2.898920E-3	5.572055E-3	9.337834E-4	-5.301899E-3	3.496165E-3	-9.717503E-4	-2.708565E-4	-3.567185E-3	-5.090368E-3	1.024049E-2	6.095949E-3	8.069239E-4	1.891016E-4	-1.774479E-3	-5.439164E-4	6.141542E-4	2.473305E-3	1.281040E-3	-3.706693E-3	-3.901761E-3	2.006519E-3	-7.544859E-4	-2.360457E-3	4.958878E-3	2.322650E-3	-2.033577E-3	-2.428300E-3	-5.767985E-3	3.472030E-3	-2.173295E-3	-1.242692E-3	-2.686979E-3	2.908511E-3	-3.921181E-3	4.175992E-3	-4.955785E-3	5.263086E-4	-2.488094E-3	-7.108314E-5	-1.663604E-3	-6.053018E-4	1.708145E-3	7.028933E-3	-3.882696E-3	-5.535963E-3	1.315518E-4	1.193726E-3	-1.249945E-3	9.815979E-4	-2.802230E-3	2.137372E-3	1.743671E-3	-3.515790E-3	1.887452E-3	1.361928E-4	-1.858947E-3	1.457912E-4	-4.738843E-3	3.235093E-3	-2.304000E-3	-3.741454E-3	-6.258562E-3	3.453079E-3	-4.419823E-3	5.849490E-3	1.244641E-3	-5.124021E-3	-2.919237E-3	-4.259296E-3	6.737041E-4	3.163154E-3	4.541835E-3	2.570476E-3	3.078530E-3	7.062939E-3	-3.811602E-3	3.241386E-3	1.577726E-8	6.830796E-3	1.325317E-3	1.040680E-3	2.261232E-3	-1.988624E-3	-3.780185E-3	4.606268E-3	1.620315E-3	-3.353540E-3	3.471647E-4	5.698581E-3	3.346436E-4	1.070614E-2	-5.465968E-3	2.889165E-3	-8.275037E-3	1.650266E-3	-2.340467E-3	-6.383261E-3	2.475803E-3	1.202591E-3	-2.620847E-4	3.272071E-3	-4.924007E-4	-4.824440E-3	-2.201576E-3	-1.587411E-3	3.997538E-3	-3.538179E-3	3.733001E-9	-2.383603E-3	2.642935E-3	5.401023E-3	-5.178413E-3	-2.280616E-4	1.405674E-9	-4.227082E-3	-7.306913E-4	4.741031E-3	-4.140090E-4	-4.472140E-3	-5.895891E-4	1.263401E-3	1.599806E-8	-4.750644E-3	-7.470858E-3	-1.167585E-3	-9.138854E-4	-5.038275E-3	5.099669E-4	1.643741E-4	-2.213553E-3
2.805050E+2	-1.869150E-3	-5.264429E-3	1.247251E-3	1.087851E-3	-3.131148E-3	-3.905284E-3	1.149060E-3	-5.521839E-4	2.032188E-3	-2.733270E-4	-1.346814E-3	-2.931640E-3	6.209212E-4	-4.158332E-3	5.280930E-3	5.593395E-3	6.412873E-3	5.251608E-4	7.224850E-3	2.097672E-3	-1.653747E-3	1.595777E-3	-3.893329E-3	-1.312791E-3	-5.789995E-4	-4.201981E-3	7.316090E-4	-9.317445E-4	-4.217744E-3	-1.202720E-4	7.471333E-3	1.546692E-3	-6.304380E-4	1.141393E-3	-2.701080E-3	2.549664E-3	1.236032E-4	2.841600E-3	-4.409934E-3	-1.173144E-3	-3.401115E-3	5.557239E-3	-8.374648E-4	7.243694E-3	4.668835E-4	4.486192E-3	-1.719406E-4	5.830894E-4	1.354392E-3	-3.567175E-3	-5.090267E-4	-6.390685E-3	-5.565878E-3	1.303538E-3	6.240930E-3	-1.971811E-4	5.439106E-4	-2.115417E-3	-2.323401E-3	4.295323E-3	4.552235E-4	2.983703E-3	-1.003286E-3	8.024888E-3	1.294437E-3	1.945883E-3	5.226015E-3	3.765630E-4	4.047132E-3	4.486222E-3	5.482024E-4	6.783282E-3	-1.380279E-4	-5.373771E-4	2.644142E-4	6.416365E-4	2.151257E-3	5.451388E-3	-4.093467E-4	2.750011E-3	5.045859E-3	1.109052E-3	4.721362E-3	2.950461E-3	2.061368E-9	4.540782E-3	5.032630E-4	4.867359E-3	5.013621E-3	-4.027594E-3	-8.079351E-3	-4.424559E-4	2.137363E-3	4.148735E-3	2.109516E-3	8.089365E-4	-1.498164E-3	-3.205412E-4	4.228008E-3	2.097503E-3	-1.941069E-3	-3.798482E-3	-2.709338E-3	1.327590E-3	-3.913510E-3	-1.741152E-3	-9.731455E-9	1.383163E-4	-2.196029E-3	-4.865508E-4	4.142617E-3	-5.254867E-3	-2.108815E-3	-4.541823E-3	3.141633E-3	-7.104079E-4	3.834146E-3	-9.594726E-3	-1.521475E-3	-2.652758E-3	-7.148495E-3	-5.370977E-3	-5.500768E-3	-6.564941E-4	4.045812E-3	1.802861E-3	-1.316043E-4	-2.700505E-3	2.885615E-3	-8.540269E-3	7.598166E-3	-2.342721E-3	3.522673E-3	3.826174E-3	-7.091579E-3	2.846644E-3	1.650233E-3	7.801399E-4	-1.276633E-3	6.752227E-4	1.202614E-3	-6.551930E-3	-1.211648E-4	-1.055203E-3	8.040747E-3	-5.238258E-3	2.277607E-3	-2.767531E-3	-9.172942E-4	-5.439925E-4	-2.383613E-3	-2.514013E-3	1.749639E-3	-2.379277E-3	4.637280E-3	1.843466E-3	-4.090504E-4	4.627727E-3	9.002171E-4	2.898016E-3	6.198187E-3	-4.258323E-3	2.327263E-3	-3.496862E-3	-4.199839E-3	9.174696E-4	-2.815868E-3	-1.436100E-3	3.172201E-3	9.688968E-3	-2.465636E-3	7.905559E-3
2.810050E+2	-2.548839E-3	-2.672729E-3	7.345128E-3	-1.398590E-3	9.466450E-4	-1.012489E-3	-2.636153E-3	3.865247E-3	-8.597763E-3	-3.553531E-3	-8.337241E-4	-4.629148E-4	1.614456E-3	2.772233E-3	-3.168572E-3	-7.884617E-3	-2.810122E-3	3.676147E-3	-9.633034E-4	-4.495058E-3	2.417006E-3	3.638390E-3	5.651594E-3	2.688115E-3	-2.894897E-3	2.734614E-3	-1.707075E-3	-7.238945E-3	-2.343205E-3	-1.082398E-3	-2.566505E-3	-6.867257E-3	1.050686E-3	-1.395047E-3	1.319134E-3	-7.579831E-4	1.236032E-4	-7.103957E-3	2.939955E-3	2.284541E-3	1.596443E-3	-6.461993E-4	3.285436E-3	5.014863E-3	-9.337848E-4	5.418437E-3	-2.005981E-3	-9.717914E-4	-1.354415E-3	-3.028714E-3	3.054184E-3	-2.078927E-3	3.975633E-3	3.786388E-3	-3.152062E-4	1.380149E-3	-1.631793E-3	5.527354E-3	-5.246638E-4	6.782189E-4	3.056382E-3	2.294984E-4	-1.504897E-3	-2.400620E-3	-2.969597E-3	6.967526E-3	-5.225975E-3	-6.251416E-3	-2.967912E-3	1.223527E-3	-5.299413E-3	3.095315E-3	-3.451899E-3	3.761761E-3	2.908527E-3	5.774847E-3	1.265616E-4	-4.460233E-3	5.262943E-4	2.749995E-3	1.634541E-3	2.218130E-3	5.689840E-3	-2.018720E-3	-1.622060E-3	-1.776809E-3	-6.039258E-3	3.814948E-3	-3.899496E-3	-1.805453E-3	2.189723E-3	6.636860E-3	-2.891752E-3	3.006092E-4	2.620882E-3	-1.887476E-3	2.860152E-3	1.730733E-3	-7.435461E-3	-4.117349E-3	-9.058362E-4	6.164768E-3	2.967363E-3	-1.896548E-4	-8.441092E-4	6.830675E-3	-2.658860E-3	-3.733938E-3	4.636005E-3	5.838470E-3	2.742277E-3	-9.431921E-4	-1.054384E-3	2.671675E-4	-2.856030E-4	3.078550E-3	3.296029E-3	2.497270E-3	-4.630472E-4	-1.061090E-3	1.747445E-3	1.325290E-3	-3.122071E-3	-5.324727E-3	-8.914385E-4	1.337600E-3	5.659096E-3	-5.941122E-3	-2.729611E-3	-1.319262E-3	-6.331769E-3	2.342703E-3	-8.979312E-4	1.639787E-3	-2.363874E-3	6.024213E-3	2.850388E-3	-2.340445E-3	-1.418931E-4	-5.251936E-4	2.405090E-4	1.834548E-3	-6.059377E-4	4.572431E-3	-5.360271E-4	4.479080E-3	-6.004573E-3	3.075177E-4	3.800309E-3	-3.807810E-3	-3.473260E-3	8.315635E-3	-2.510361E-3	-2.939138E-3	-2.660736E-3	4.301532E-3	1.363446E-4	-1.217816E-3	1.860411E-3	-7.038059E-3	-7.845162E-5	3.603168E-3	-4.588077E-3	3.496865E-3	6.265337E-3	2.490283E-3	-1.167551E-3	1.174998E-3	3.918616E-3	-5.609371E-3	1.643661E-4	1.043533E-2
2.815020E+2	-9.345779E-3	7.694186E-3	-3.187492E-3	6.060590E-3	6.771996E-3	1.880318E-3	6.760399E-5	2.273606E-8	3.282813E-3	3.006870E-3	-1.859898E-3	-2.314491E-3	3.104673E-3	-3.234260E-3	-1.478678E-3	-8.760386E-4	6.412877E-3	-6.301978E-3	-3.371588E-3	-2.697034E-3	2.417016E-3	-5.042648E-3	6.656322E-3	2.187990E-3	-5.790136E-4	-6.336299E-3	-2.682496E-3	6.522201E-3	7.029586E-3	5.171374E-3	8.840133E-3	6.185981E-5	-1.751130E-3	3.170585E-3	-2.701071E-3	3.445549E-4	-5.809853E-3	9.471801E-4	-2.449989E-3	-3.642980E-3	2.707018E-3	-6.849613E-3	1.223956E-3	-2.228824E-3	-4.201976E-3	7.574296E-4	-5.674120E-3	5.247561E-3	1.354421E-3	2.355671E-3	5.599388E-3	-2.694869E-3	-2.385352E-3	-4.655388E-3	-1.828142E-3	5.060541E-3	1.087847E-3	2.797803E-3	3.072943E-3	2.486771E-3	2.536161E-3	2.065670E-3	2.508163E-3	-2.400600E-3	-5.330414E-4	-2.071420E-3	-1.161324E-3	-6.251397E-3	-3.507488E-3	2.621787E-3	-2.375610E-3	4.610019E-4	-2.899643E-3	-1.074773E-3	-2.644214E-4	-4.990549E-4	-3.796199E-4	6.442548E-3	-8.771258E-4	1.178600E-3	-2.345248E-3	5.545286E-3	-7.868928E-3	-2.639888E-3	1.081386E-3	5.593682E-3	4.529437E-3	-3.551880E-3	5.013648E-3	3.194295E-3	-2.265016E-4	3.687128E-3	-3.394639E-3	-1.803556E-4	2.109457E-3	-3.505304E-3	-4.766912E-3	2.243554E-3	-3.353259E-3	-9.089270E-3	7.376095E-3	-3.113682E-4	1.070829E-2	-2.212625E-3	-3.299638E-3	1.473275E-3	-3.190662E-3	6.776395E-3	-2.440003E-4	-3.892306E-3	-1.458645E-3	4.985392E-3	-1.581584E-3	2.671545E-4	2.570402E-3	-3.236408E-3	-3.699655E-3	3.022985E-3	3.770590E-3	-1.591668E-3	2.382853E-3	1.883301E-3	4.460143E-4	-6.491748E-3	-3.085749E-3	6.920637E-3	-3.816630E-3	-3.240622E-3	-7.720928E-3	5.901824E-3	6.331967E-4	-1.673326E-3	-3.660794E-3	2.186376E-3	-4.465070E-3	-2.979028E-3	-4.350662E-3	-1.092192E-3	-4.681102E-3	6.076993E-3	2.405149E-4	7.862286E-4	-2.544962E-3	-4.924042E-4	1.072104E-3	-3.795871E-4	1.725428E-3	-2.152504E-3	-4.586592E-3	1.368767E-8	-2.383597E-3	-4.061114E-3	-7.606400E-5	-2.939124E-3	-8.362395E-4	1.843503E-3	2.863503E-3	1.704981E-3	-2.940658E-3	-7.038053E-3	5.492149E-4	-3.734205E-3	-1.396370E-3	-6.993689E-3	6.265347E-3	-2.752402E-3	-1.167541E-3	1.697181E-3	2.425822E-3	1.529815E-3	1.479359E-3	-1.233265E-2
2.820060E+2	4.248089E-3	-2.024792E-3	-1.524441E-3	-2.020204E-3	9.466131E-4	-7.955251E-3	2.230572E-3	1.656569E-3	-2.970151E-3	2.733220E-4	1.924186E-4	-1.080106E-3	1.241721E-4	3.696288E-3	1.056204E-3	-2.493437E-3	-2.233689E-3	-4.726464E-3	9.633048E-4	2.697026E-3	-5.215601E-3	-1.468122E-3	-1.381527E-3	1.875551E-4	-5.789995E-4	-3.134793E-3	6.584285E-3	7.883935E-4	-1.874549E-3	1.803986E-3	6.273645E-4	-2.412826E-3	1.611035E-3	6.214310E-3	-6.218723E-3	1.998375E-3	4.573729E-3	2.841589E-3	4.899975E-3	1.790604E-3	3.262336E-3	-1.680075E-3	1.932517E-4	-2.786026E-3	4.202009E-3	1.689620E-3	-6.304814E-4	1.619609E-3	2.437927E-3	7.740122E-3	-3.563225E-3	-2.078882E-3	2.650129E-4	-6.827962E-4	6.934308E-4	5.060579E-3	-3.807444E-3	3.343722E-3	-1.124228E-3	6.782079E-4	-1.625752E-3	3.442736E-3	1.003276E-3	-4.046725E-3	-1.142151E-3	-5.586589E-3	6.387318E-3	4.594439E-3	-5.665967E-3	-1.573068E-3	2.010116E-3	2.568448E-3	3.175780E-3	3.761725E-3	-2.379712E-3	7.130299E-5	-4.935265E-3	1.982297E-3	9.882439E-3	3.273790E-3	3.340207E-3	2.772637E-3	-6.416206E-3	4.813922E-3	2.162736E-3	-4.935603E-3	5.032814E-4	3.288746E-3	-7.955841E-5	4.166637E-4	3.397863E-3	-1.622350E-3	1.257474E-4	-1.804054E-4	3.643630E-3	-1.348164E-3	4.494476E-3	-1.346086E-3	4.811199E-3	2.330322E-4	-4.529165E-3	1.064825E-2	-6.321763E-3	5.373505E-3	-3.299653E-3	-2.276886E-3	1.621909E-8	6.914718E-4	-3.660026E-3	4.378878E-3	8.751895E-4	3.368542E-3	2.108784E-3	8.014936E-4	-1.428050E-3	7.499013E-3	-4.775874E-3	1.038335E-2	-4.167474E-3	-1.591675E-3	-3.335995E-3	1.325303E-3	1.635345E-3	6.929394E-3	2.948607E-3	-1.453908E-3	3.948513E-4	1.080217E-3	6.629059E-3	7.012769E-3	-8.864492E-3	-1.673330E-3	-3.453709E-4	5.465965E-3	-2.363854E-3	1.985928E-4	-1.499882E-4	1.560345E-4	6.099585E-3	2.475789E-3	-2.645721E-3	6.027770E-3	2.787307E-3	-2.180726E-3	-1.608139E-3	-9.869154E-4	6.142628E-3	3.075065E-4	-9.173134E-4	5.439933E-4	4.699074E-3	6.252801E-3	4.183899E-3	1.609519E-2	-1.444351E-3	-4.301530E-3	-4.772513E-3	-7.307121E-4	1.860420E-3	1.380199E-4	4.315214E-3	-6.354689E-3	2.859235E-3	6.410862E-3	7.573768E-4	3.014544E-3	7.074038E-3	1.305723E-4	-4.291833E-3	-1.070884E-2	1.479367E-3	-7.273124E-3
2.825030E+2	-4.587965E-3	7.046281E-3	-4.157761E-4	3.574179E-3	4.441870E-3	1.287307E-2	-4.731620E-4	1.656538E-3	3.282764E-3	1.366723E-3	6.349269E-3	1.388703E-3	2.111187E-3	3.696280E-3	2.323612E-3	9.367194E-3	2.377782E-3	1.207878E-2	4.816344E-4	2.697055E-3	1.908117E-3	4.149004E-3	-3.767807E-4	4.188431E-3	1.157970E-2	5.936123E-3	3.170224E-3	3.655325E-3	7.146763E-9	-1.082366E-3	-3.479021E-3	1.342516E-2	3.852525E-3	6.341448E-4	4.334301E-3	-1.309302E-3	1.001276E-2	3.788774E-3	6.369950E-3	3.766431E-3	-6.943338E-5	3.489432E-3	4.831547E-3	1.671625E-3	1.867529E-3	-1.573097E-3	4.413194E-3	9.912112E-3	1.354388E-3	6.663216E-3	-1.527092E-3	5.312773E-3	8.216291E-3	5.772661E-3	1.891262E-4	4.534794E-3	8.158852E-3	1.160103E-3	-2.923028E-3	-2.336060E-3	-2.145983E-3	6.196910E-3	2.006522E-3	-1.851902E-3	4.949361E-3	2.448099E-3	4.064616E-3	7.607126E-3	5.665955E-3	6.816701E-3	-9.136548E-4	-4.807586E-3	4.832653E-3	8.060909E-3	2.908527E-3	5.204464E-3	5.694521E-3	-9.911598E-4	-2.280589E-3	1.309474E-4	-1.208160E-3	-5.545157E-4	1.198499E-2	-1.552971E-4	1.081396E-3	6.120172E-3	8.555590E-3	-2.499444E-3	-1.352877E-3	5.971941E-3	9.815979E-4	-1.032381E-3	3.143182E-3	2.224680E-3	2.109488E-3	4.044569E-3	4.494499E-3	1.217909E-3	2.478504E-3	9.555380E-3	6.858520E-3	1.681294E-3	5.031617E-3	5.879253E-3	1.143370E-2	3.080511E-3	5.317591E-4	6.223179E-3	2.684036E-3	5.838467E-3	8.751725E-4	4.985396E-3	7.380728E-3	6.144790E-3	-8.567915E-4	-3.867937E-3	2.757915E-3	-1.314682E-4	1.124543E-3	8.488856E-3	-1.429706E-3	1.081173E-2	5.798113E-3	2.844725E-3	-1.440028E-3	4.070961E-4	-1.315914E-4	1.350255E-2	4.133423E-3	9.026255E-4	6.964950E-3	3.681367E-3	2.970069E-3	6.012558E-3	3.414459E-3	1.986122E-4	-7.501279E-4	1.513496E-2	2.127757E-3	1.875639E-3	8.418196E-3	4.455332E-3	4.241567E-3	6.331185E-4	3.752343E-3	4.479095E-3	1.111186E-2	2.767517E-3	1.428383E-2	1.414325E-2	9.057667E-3	-9.669240E-4	6.009579E-3	1.539527E-3	4.637246E-3	5.530549E-3	8.317789E-3	2.679217E-3	2.340509E-3	4.554032E-3	-3.216784E-3	5.175472E-3	3.923139E-3	5.828099E-3	2.409752E-3	1.349992E-2	-2.815874E-3	-9.138662E-4	5.411492E-3	1.070881E-2	1.643982E-4	7.905543E-3
2.830060E+2	4.927811E-3	6.398324E-3	1.067122E-2	3.574167E-3	3.859280E-3	1.171591E-2	7.638057E-3	4.417424E-3	8.910418E-3	7.380415E-3	8.401604E-3	3.857436E-3	9.065686E-3	1.663329E-2	4.436012E-3	1.475838E-2	-6.845213E-3	3.676134E-3	3.853274E-3	6.293071E-3	7.505395E-3	6.191630E-3	1.067528E-2	5.188676E-3	1.215862E-2	1.180550E-2	9.998346E-3	1.110928E-2	6.560959E-3	9.500909E-3	5.190017E-3	3.526414E-3	1.001659E-2	7.736211E-3	1.287715E-2	1.412657E-2	5.562648E-3	-4.735895E-4	1.077992E-2	6.730200E-3	8.259890E-3	1.020977E-2	5.346910E-3	9.472491E-3	-2.492024E-8	8.215023E-3	4.871715E-3	4.211032E-3	1.381489E-2	2.355697E-3	8.653624E-3	5.312731E-3	1.775775E-2	1.620078E-2	6.240915E-3	1.452451E-2	1.686156E-2	7.165091E-3	6.070883E-3	7.912379E-3	8.778952E-3	8.951092E-3	9.531008E-3	8.024902E-3	6.776795E-3	2.448050E-3	1.741963E-3	7.004604E-3	4.047122E-3	1.007942E-2	3.959304E-3	9.878433E-4	8.146585E-3	1.558443E-2	1.189847E-2	9.767376E-3	3.669826E-3	1.387623E-2	-2.748362E-3	5.892889E-3	1.016275E-2	1.497224E-2	3.268634E-3	7.298543E-3	9.732363E-3	1.454363E-2	9.058875E-3	9.076945E-3	1.138021E-2	4.860891E-3	3.775297E-4	1.371613E-2	-8.800755E-4	9.920844E-3	8.246126E-3	1.590867E-2	2.860096E-3	1.557663E-2	1.297564E-2	1.887770E-2	8.928931E-3	1.861882E-2	7.611923E-3	6.890732E-3	7.136465E-3	1.218806E-2	1.329439E-2	1.452082E-2	2.684006E-3	4.865365E-3	8.343565E-3	1.253086E-2	-2.108790E-3	7.213491E-3	5.997732E-3	1.507697E-2	1.567299E-2	1.248630E-2	4.299833E-3	1.220268E-2	2.271647E-2	1.639193E-2	1.233954E-2	1.743295E-2	5.691574E-3	1.064262E-2	2.500558E-3	3.780707E-3	8.500762E-3	8.679158E-3	1.266366E-3	6.358765E-3	7.943267E-3	1.038533E-2	1.838551E-3	1.026102E-2	5.850877E-3	1.638321E-2	1.461064E-2	1.267914E-2	6.494057E-3	1.703504E-2	1.102810E-2	1.301389E-2	8.040783E-3	7.515773E-3	9.455447E-3	5.227543E-3	2.227786E-3	9.247521E-3	3.609471E-3	7.284229E-3	4.183869E-3	2.561231E-2	4.029091E-3	1.474804E-2	2.318094E-3	9.011902E-3	1.338293E-2	1.504210E-2	8.081164E-3	4.651351E-3	7.114853E-3	1.398739E-2	1.287495E-2	7.208700E-3	9.271778E-3	1.423037E-2	9.889874E-3	1.274856E-2	9.369364E-3	7.905559E-3
2.835020E+2	9.005961E-3	1.806105E-2	1.011687E-2	2.346539E-2	2.133543E-2	2.444431E-2	1.629002E-2	1.822200E-2	1.641394E-2	1.831435E-2	1.096695E-2	2.052154E-2	1.353645E-2	1.617127E-2	1.837772E-2	2.392343E-2	2.312958E-2	2.415757E-2	1.733961E-2	2.367392E-2	1.564683E-2	1.334070E-2	1.117763E-2	1.119008E-2	8.105770E-3	1.767492E-2	1.292471E-2	1.454957E-2	1.359055E-2	2.008420E-2	7.927594E-3	1.243534E-2	1.730138E-2	2.244764E-2	1.890743E-2	1.357528E-2	1.050725E-2	2.131181E-2	1.322992E-2	2.056109E-2	2.047617E-2	1.951491E-2	4.831562E-3	1.560178E-2	1.027157E-2	1.660484E-2	1.450050E-2	1.198521E-2	2.573364E-2	2.389340E-2	1.679818E-2	2.379180E-2	1.563742E-2	1.669735E-2	1.279706E-2	1.662763E-2	1.849334E-2	2.135887E-2	1.386567E-2	2.117505E-2	9.299189E-3	1.950882E-2	2.307500E-2	1.460935E-2	1.347751E-2	1.600655E-2	1.277460E-2	2.327335E-2	2.077524E-2	2.918955E-2	1.078151E-2	1.099816E-2	2.084962E-2	2.095837E-2	1.877313E-2	7.485889E-3	1.480576E-2	1.288510E-2	1.923867E-2	1.951199E-2	1.471108E-2	1.109058E-2	8.595295E-3	2.344839E-2	2.108676E-2	1.612301E-2	2.415700E-2	2.065335E-2	2.029341E-2	5.416409E-3	1.306285E-2	1.312617E-2	8.675264E-3	1.040184E-2	2.103084E-2	1.536942E-2	5.584032E-3	1.711501E-2	1.122608E-2	8.933878E-3	1.151704E-2	1.961518E-2	1.586896E-2	1.447691E-2	2.002813E-2	1.111658E-2	1.967563E-2	1.562713E-2	1.098006E-2	2.092118E-2	1.534512E-2	2.115426E-2	2.108777E-2	2.751802E-2	2.084916E-2	2.518088E-2	1.190614E-2	2.983571E-2	9.591872E-3	1.963041E-2	1.763306E-2	9.695648E-3	1.293424E-2	2.735298E-2	1.776042E-2	1.389941E-2	1.460849E-2	1.944371E-2	1.162035E-2	1.978845E-2	1.139721E-2	1.639890E-2	6.838130E-3	9.292211E-3	1.602171E-2	2.244193E-2	1.665252E-2	3.448275E-2	8.936577E-3	8.477760E-3	1.707689E-2	1.913166E-2	1.636032E-2	2.426903E-2	1.232916E-2	1.298173E-2	1.773761E-2	1.691263E-2	1.428380E-2	1.795102E-2	1.341627E-2	1.914520E-2	1.749606E-3	1.665501E-2	1.071887E-2	1.351904E-2	1.159037E-2	1.290898E-2	2.346516E-2	2.111411E-2	1.247479E-2	1.565741E-2	8.710703E-3	1.748422E-2	1.948455E-2	2.817946E-2	1.586499E-2	1.631924E-2	1.810040E-2	2.294747E-2	1.199929E-2	2.055444E-2
2.840000E+2	2.735771E-2	2.324457E-2	2.397566E-2	2.284381E-2	2.890845E-2	3.023001E-2	3.089022E-2	2.263940E-2	3.017037E-2	3.088837E-2	2.225451E-2	3.224810E-2	2.744546E-2	3.603883E-2	2.386992E-2	3.039286E-2	3.696406E-2	2.205687E-2	2.697277E-2	4.045544E-2	3.905356E-2	3.580929E-2	2.172732E-2	2.969429E-2	3.126510E-2	3.474954E-2	2.609332E-2	3.289774E-2	2.483792E-2	2.826216E-2	2.298432E-2	2.431379E-2	3.411237E-2	3.512999E-2	2.795283E-2	2.239577E-2	3.176890E-2	3.883494E-2	2.792977E-2	3.488586E-2	2.713958E-2	2.675222E-2	2.802293E-2	2.897472E-2	2.661273E-2	2.965567E-2	3.284104E-2	4.152722E-2	3.115129E-2	3.197005E-2	2.494274E-2	4.535077E-2	3.047974E-2	4.301587E-2	3.549138E-2	3.082345E-2	2.284472E-2	3.336899E-2	2.405874E-2	3.021777E-2	2.646693E-2	1.904978E-2	2.909458E-2	3.930131E-2	4.088934E-2	3.810183E-2	4.122713E-2	3.231151E-2	2.671102E-2	2.732517E-2	3.368464E-2	3.734112E-2	3.465733E-2	2.740710E-2	3.833947E-2	2.288553E-2	2.948499E-2	3.320397E-2	3.140165E-2	3.575014E-2	3.006181E-2	2.717192E-2	2.941767E-2	2.406955E-2	4.109218E-2	3.191702E-2	3.120283E-2	3.170356E-2	3.748308E-2	3.041527E-2	3.178880E-2	2.669483E-2	3.281507E-2	3.781942E-2	2.409922E-2	2.615499E-2	2.792026E-2	3.198648E-2	3.338678E-2	2.136363E-2	3.273949E-2	3.705087E-2	1.638501E-2	2.863763E-2	3.230591E-2	2.986740E-2	3.031112E-2	2.392477E-2	3.538026E-2	2.675968E-2	3.214892E-2	3.570628E-2	2.846846E-2	3.232704E-2	2.713252E-2	3.339031E-2	3.396939E-2	4.823660E-2	2.652645E-2	3.289418E-2	3.161243E-2	3.871284E-2	3.612667E-2	2.910353E-2	3.092640E-2	3.018319E-2	3.513926E-2	3.834726E-2	2.721813E-2	3.256418E-2	3.355844E-2	4.183398E-2	4.165036E-2	4.044823E-2	3.230607E-2	4.150758E-2	2.325347E-2	3.947572E-2	2.368906E-2	3.608669E-2	3.391322E-2	4.009785E-2	2.072313E-2	3.496144E-2	3.109089E-2	3.545312E-2	2.601975E-2	2.859777E-2	3.315420E-2	2.447869E-2	2.758165E-2	2.842777E-2	3.035218E-2	3.121062E-2	2.531486E-2	4.117167E-2	3.177125E-2	3.629128E-2	3.834837E-2	3.436223E-2	2.942179E-2	2.823571E-2	1.722189E-2	3.380284E-2	3.821173E-2	3.132510E-2	4.333688E-2	2.676355E-2	3.526776E-2	4.232533E-2	1.725931E-2	3.573309E-2
2.841010E+2	2.531860E-2	3.944277E-2	2.951908E-2	3.030307E-2	3.007357E-2	4.353699E-2	2.980872E-2	3.810052E-2	2.891982E-2	3.252852E-2	2.687220E-2	3.718564E-2	3.042594E-2	3.788695E-2	3.189693E-2	3.201023E-2	3.235258E-2	3.413567E-2	2.793608E-2	2.427331E-2	3.091208E-2	2.917084E-2	2.775564E-2	2.919418E-2	3.879182E-2	2.834656E-2	2.755647E-2	2.085675E-2	2.999295E-2	3.644015E-2	3.119714E-2	3.718215E-2	2.906909E-2	3.056436E-2	3.800331E-2	3.011369E-2	3.325230E-2	3.362537E-2	3.723968E-2	3.488586E-2	3.713468E-2	4.019304E-2	3.008439E-2	4.123328E-2	2.381137E-2	2.918953E-2	2.046118E-2	3.012502E-2	3.440182E-2	3.466223E-2	3.614150E-2	3.795914E-2	4.426186E-2	3.755355E-2	3.095252E-2	3.082351E-2	4.079415E-2	4.428722E-2	3.605071E-2	2.599783E-2	3.531093E-2	3.052558E-2	3.160273E-2	2.722971E-2	3.601613E-2	3.006717E-2	2.496853E-2	2.628604E-2	2.994874E-2	2.499462E-2	3.270998E-2	3.312620E-2	3.410506E-2	3.385575E-2	3.358010E-2	2.459662E-2	2.442316E-2	3.716858E-2	3.935441E-2	4.203585E-2	3.915856E-2	3.160808E-2	3.668131E-2	3.400798E-2	4.001079E-2	4.034049E-2	3.472571E-2	3.275596E-2	4.384961E-2	3.652610E-2	4.326598E-2	2.787471E-2	2.376266E-2	2.579413E-2	3.177001E-2	3.963693E-2	3.936077E-2	4.172988E-2	3.280365E-2	3.814384E-2	3.791572E-2	3.605456E-2	3.289896E-2	2.560322E-2	3.905872E-2	5.665430E-2	3.562882E-2	2.392476E-2	2.074016E-2	3.162503E-2	2.701440E-2	4.432964E-2	2.583248E-2	3.018971E-2	3.855672E-2	4.286279E-2	4.473198E-2	4.087623E-2	2.440959E-2	1.963038E-2	4.622717E-2	4.261902E-2	3.910006E-2	3.377182E-2	3.202361E-2	2.739168E-2	2.092568E-2	4.158791E-2	3.283335E-2	3.922976E-2	3.419166E-2	3.848723E-2	3.170396E-2	3.334243E-2	2.810363E-2	3.250433E-2	3.825577E-2	3.635513E-2	3.049789E-2	4.328906E-2	3.150807E-2	3.223556E-2	2.847910E-2	4.565384E-2	2.680244E-2	2.634309E-2	2.381119E-2	4.397293E-2	2.267068E-2	4.895741E-2	3.302992E-2	2.275513E-2	3.156932E-2	4.352693E-2	3.382915E-2	2.335109E-2	2.904412E-2	3.629131E-2	2.922644E-2	4.319426E-2	3.632603E-2	2.823574E-2	3.424429E-2	3.088882E-2	4.206734E-2	5.282011E-2	3.344706E-2	2.989685E-2	3.601421E-2	3.620604E-2	3.698421E-2	2.055444E-2
2.842030E+2	6.338144E-2	5.499316E-2	4.670390E-2	2.968143E-2	5.628774E-2	4.642975E-2	4.927561E-2	4.030918E-2	5.268089E-2	5.220956E-2	3.200290E-2	3.903719E-2	4.979923E-2	4.019709E-2	4.288129E-2	5.465329E-2	4.042272E-2	3.203499E-2	4.238583E-2	4.285285E-2	4.312429E-2	4.346897E-2	4.533842E-2	3.919651E-2	4.342373E-2	3.955178E-2	4.657778E-2	4.321863E-2	4.358354E-2	4.702344E-2	3.986615E-2	4.411125E-2	5.708749E-2	4.781228E-2	4.001338E-2	4.610084E-2	4.462481E-2	5.209562E-2	5.144959E-2	3.784963E-2	5.101688E-2	4.381167E-2	3.729950E-2	4.569093E-2	4.202008E-2	4.923186E-2	4.384541E-2	4.515513E-2	4.632055E-2	4.543111E-2	3.003305E-2	5.397429E-2	4.744235E-2	5.195426E-2	4.356045E-2	4.186473E-2	5.276038E-2	3.828219E-2	3.485147E-2	3.504058E-2	5.039776E-2	4.108330E-2	3.862553E-2	5.027552E-2	5.307239E-2	4.011046E-2	3.890449E-2	4.375988E-2	3.750333E-2	4.224039E-2	4.148137E-2	2.680392E-2	5.343580E-2	4.944021E-2	4.997354E-2	4.455907E-2	4.416415E-2	4.063764E-2	3.374073E-2	5.251213E-2	4.256978E-2	5.046214E-2	4.636614E-2	5.388478E-2	5.028384E-2	5.508152E-2	4.227475E-2	4.959435E-2	5.658273E-2	4.319243E-2	6.440813E-2	3.790373E-2	2.929465E-2	3.830041E-2	3.637256E-2	5.473667E-2	4.971167E-2	4.378115E-2	5.846331E-2	4.870910E-2	4.102144E-2	4.502145E-2	4.167204E-2	4.987882E-2	3.844487E-2	4.111789E-2	4.201009E-2	5.268981E-2	2.610818E-2	4.719428E-2	3.681658E-2	4.594653E-2	3.848519E-2	4.461664E-2	3.512947E-2	4.602026E-2	5.118950E-2	6.243152E-2	3.234771E-2	3.554693E-2	6.846702E-2	5.098930E-2	4.385749E-2	4.602587E-2	4.025233E-2	4.786273E-2	4.619437E-2	6.427217E-2	4.780722E-2	5.811560E-2	3.799072E-2	5.655955E-2	4.828124E-2	5.411314E-2	4.911569E-2	4.203722E-2	5.265790E-2	5.383053E-2	4.298076E-2	4.869082E-2	3.535639E-2	4.743599E-2	4.205211E-2	5.916013E-2	4.824443E-2	6.460507E-2	4.147972E-2	5.811804E-2	4.730703E-2	5.276519E-2	4.774009E-2	4.235153E-2	5.469487E-2	5.472354E-2	5.572310E-2	4.793116E-2	3.886186E-2	5.090522E-2	3.594789E-2	5.037033E-2	4.825167E-2	4.343455E-2	4.009575E-2	4.837299E-2	5.969294E-2	6.540256E-2	4.993017E-2	3.825231E-2	4.795666E-2	5.966341E-2	3.172424E-2	6.103103E-2
2.843040E+2	7.221749E-2	6.795175E-2	4.670389E-2	5.889659E-2	6.852103E-2	7.825077E-2	7.306845E-2	6.018771E-2	7.331561E-2	5.986334E-2	7.612718E-2	6.619352E-2	6.470173E-2	6.237488E-2	5.682299E-2	6.435740E-2	7.097395E-2	6.879647E-2	6.213371E-2	5.963438E-2	6.246028E-2	5.878847E-2	6.191653E-2	5.520013E-2	5.095050E-2	6.089506E-2	7.096406E-2	4.723223E-2	5.295634E-2	5.856888E-2	6.313566E-2	5.945433E-2	6.437227E-2	6.100190E-2	6.714962E-2	5.878030E-2	5.995303E-2	7.672258E-2	7.202938E-2	7.193273E-2	6.378839E-2	7.586267E-2	6.203696E-2	5.627790E-2	6.396392E-2	5.995214E-2	6.493704E-2	6.640468E-2	6.257337E-2	6.535347E-2	6.413846E-2	5.520622E-2	7.500664E-2	6.784467E-2	5.919432E-2	5.606065E-2	5.928746E-2	6.011873E-2	7.802238E-2	7.302002E-2	5.039774E-2	5.485425E-2	5.267117E-2	6.673682E-2	5.307239E-2	5.718408E-2	4.703377E-2	7.569477E-2	6.340500E-2	8.046068E-2	5.561309E-2	5.736173E-2	7.387120E-2	6.502466E-2	5.103119E-2	6.109934E-2	5.327541E-2	5.302720E-2	6.227705E-2	6.246455E-2	5.337217E-2	6.765246E-2	5.411404E-2	6.195971E-2	7.407406E-2	7.192839E-2	6.341218E-2	7.643058E-2	7.249907E-2	7.207997E-2	6.078378E-2	5.737179E-2	6.248692E-2	5.176865E-2	6.245339E-2	5.527588E-2	6.714483E-2	6.378072E-2	5.263157E-2	6.983966E-2	8.294867E-2	6.395168E-2	5.508968E-2	5.999366E-2	7.159480E-2	7.647666E-2	6.274928E-2	7.758260E-2	4.416430E-2	5.497892E-2	5.595426E-2	5.241410E-2	4.322992E-2	7.453912E-2	5.340820E-2	6.812260E-2	7.379092E-2	7.189486E-2	5.457435E-2	6.684941E-2	7.100873E-2	7.219419E-2	6.050844E-2	7.228475E-2	6.000136E-2	5.391101E-2	6.461939E-2	6.967325E-2	6.714842E-2	6.866944E-2	6.458420E-2	7.463183E-2	6.817400E-2	6.395192E-2	6.382416E-2	6.639895E-2	6.946041E-2	7.442654E-2	6.510943E-2	6.249533E-2	4.738239E-2	6.158817E-2	6.338110E-2	7.266629E-2	5.467703E-2	6.217576E-2	6.908686E-2	6.980323E-2	7.089503E-2	6.527652E-2	6.844340E-2	6.040091E-2	6.321480E-2	6.871940E-2	5.024959E-2	5.837775E-2	6.395163E-2	6.600635E-2	5.083113E-2	6.085835E-2	5.452829E-2	6.911541E-2	6.243767E-2	6.818846E-2	6.630251E-2	7.536371E-2	6.586388E-2	5.444097E-2	5.616726E-2	7.598169E-2	6.591421E-2	7.873934E-2
2.844010E+2	9.600676E-2	7.248724E-2	6.887789E-2	6.324787E-2	9.881305E-2	9.040050E-2	9.686137E-2	6.847048E-2	6.768799E-2	8.227792E-2	1.033200E-1	7.853728E-2	8.506846E-2	7.300170E-2	7.625682E-2	7.352246E-2	8.999635E-2	7.719908E-2	7.899172E-2	9.020075E-2	9.349951E-2	9.912973E-2	9.758451E-2	6.970345E-2	8.916342E-2	8.490619E-2	6.754996E-2	7.188758E-2	8.435524E-2	7.781118E-2	8.321139E-2	8.915064E-2	9.014923E-2	8.383006E-2	7.468751E-2	8.248539E-2	9.555388E-2	8.003774E-2	8.819926E-2	7.390864E-2	7.989175E-2	8.568476E-2	9.089740E-2	7.968064E-2	7.703672E-2	8.418955E-2	5.851785E-2	9.490978E-2	7.503387E-2	9.227555E-2	8.602685E-2	8.908451E-2	8.613835E-2	1.031015E-1	8.945338E-2	7.656583E-2	8.321997E-2	9.669486E-2	7.502437E-2	7.482855E-2	8.005115E-2	7.551054E-2	7.624780E-2	8.978269E-2	8.596667E-2	8.379880E-2	7.026034E-2	9.798914E-2	9.470262E-2	9.677425E-2	8.485116E-2	6.263036E-2	8.823126E-2	8.866994E-2	7.218404E-2	7.364719E-2	7.402879E-2	6.987693E-2	8.800664E-2	8.132177E-2	8.066231E-2	9.260641E-2	7.396794E-2	7.935193E-2	8.002171E-2	9.667244E-2	6.643181E-2	7.800926E-2	8.268561E-2	9.485661E-2	8.313408E-2	5.914164E-2	7.254517E-2	8.543941E-2	7.472670E-2	9.356464E-2	8.675704E-2	8.993399E-2	9.170429E-2	9.780666E-2	9.951254E-2	9.085249E-2	7.779643E-2	7.061427E-2	8.325874E-2	8.344125E-2	7.657538E-2	9.528418E-2	7.978855E-2	8.709060E-2	8.209344E-2	8.744661E-2	6.379051E-2	8.041678E-2	6.711727E-2	9.527681E-2	7.594342E-2	9.345015E-2	6.992135E-2	9.125475E-2	9.642575E-2	9.060895E-2	7.597012E-2	7.753653E-2	8.139615E-2	7.298633E-2	7.409523E-2	9.235755E-2	1.108221E-1	8.588886E-2	9.560996E-2	9.672021E-2	9.138202E-2	9.018858E-2	6.907716E-2	8.864222E-2	9.466415E-2	8.628491E-2	5.546362E-2	7.389903E-2	7.287743E-2	8.098194E-2	7.840842E-2	8.560975E-2	8.147954E-2	7.553708E-2	6.522186E-2	9.440339E-2	8.399947E-2	1.006345E-1	7.498128E-2	7.380904E-2	8.390597E-2	8.383491E-2	8.613129E-2	8.418680E-2	9.013223E-2	8.208166E-2	6.859506E-2	1.017067E-1	8.904979E-2	7.121171E-2	8.424762E-2	9.965988E-2	1.015536E-1	9.685876E-2	7.630317E-2	8.316286E-2	7.855943E-2	9.433965E-2	7.774910E-2	1.065669E-1
2.845030E+2	1.265930E-1	1.262654E-1	9.160622E-2	1.092461E-1	1.040559E-1	1.326357E-1	1.287655E-1	9.773608E-2	1.133345E-1	1.079726E-1	1.110161E-1	9.643574E-2	9.699050E-2	8.270444E-2	9.695810E-2	1.166518E-1	1.147833E-1	9.768038E-2	9.488629E-2	1.267604E-1	1.225035E-1	1.246620E-1	1.046175E-1	9.470908E-2	1.047960E-1	1.110518E-1	1.085190E-1	1.062905E-1	9.232210E-2	1.071559E-1	1.156063E-1	1.079582E-1	8.902851E-2	1.051363E-1	1.033313E-1	1.172160E-1	1.014873E-1	1.193464E-1	1.097592E-1	9.811250E-2	1.170959E-1	1.073966E-1	9.605090E-2	9.583943E-2	1.069176E-1	9.863848E-2	9.565751E-2	1.016477E-1	1.107900E-1	1.100443E-1	1.135149E-1	1.081797E-1	1.174132E-1	1.155159E-1	1.020614E-1	1.044317E-1	1.115036E-1	1.310876E-1	1.098010E-1	1.025596E-1	9.461780E-2	9.616675E-2	1.118634E-1	1.040489E-1	9.449475E-2	9.434445E-2	1.254235E-1	1.136550E-1	1.184461E-1	1.126214E-1	1.257843E-1	1.079400E-1	1.175036E-1	1.080161E-1	1.129034E-1	8.163215E-2	1.074367E-1	1.020896E-1	1.128003E-1	1.048932E-1	9.942437E-2	1.031423E-1	1.054436E-1	1.041980E-1	1.151662E-1	1.229955E-1	1.066935E-1	1.064242E-1	1.278882E-1	1.165224E-1	1.079006E-1	8.391914E-2	9.165582E-2	9.313558E-2	1.130807E-1	1.221464E-1	1.052798E-1	9.301083E-2	9.462020E-2	1.176943E-1	1.243585E-1	1.326982E-1	1.123726E-1	9.792437E-2	1.188643E-1	1.107637E-1	1.153949E-1	1.013691E-1	9.198848E-2	1.075252E-1	9.656335E-2	1.095439E-1	1.033301E-1	1.092707E-1	9.167932E-2	9.969743E-2	1.222225E-1	1.176341E-1	8.526827E-2	1.018659E-1	1.135821E-1	1.123720E-1	9.797312E-2	1.142990E-1	9.565933E-2	9.857509E-2	8.515014E-2	1.188224E-1	1.289157E-1	1.058857E-1	1.032081E-1	1.214857E-1	1.018810E-1	1.240777E-1	1.063736E-1	1.013528E-1	1.270690E-1	1.231081E-1	8.837300E-2	1.021082E-1	1.036640E-1	9.670655E-2	9.925264E-2	1.064319E-1	9.220062E-2	1.223016E-1	1.005590E-1	1.245388E-1	1.280301E-1	1.120581E-1	1.027671E-1	8.670146E-2	1.234627E-1	1.303007E-1	8.491495E-2	1.038509E-1	1.157673E-1	1.074125E-1	9.836147E-2	1.254427E-1	9.658181E-2	1.225733E-1	1.076536E-1	1.130644E-1	1.131206E-1	1.209752E-1	1.021269E-1	1.003960E-1	9.945882E-2	1.096380E-1	9.089914E-2	1.268051E-1
2.846040E+2	1.456243E-1	1.554223E-1	1.359541E-1	1.496504E-1	1.436685E-1	1.476785E-1	1.552624E-1	1.352842E-1	1.702359E-1	1.495214E-1	1.397482E-1	1.396390E-1	1.436853E-1	1.418450E-1	1.307563E-1	1.387560E-1	1.424521E-1	1.365428E-1	1.348642E-1	1.429430E-1	1.540517E-1	1.491736E-1	1.618870E-1	1.317178E-1	1.487985E-1	1.398654E-1	1.465617E-1	1.361064E-1	1.284074E-1	1.369815E-1	1.402444E-1	1.411190E-1	1.198488E-1	1.360814E-1	1.440359E-1	1.376136E-1	1.449994E-1	1.416054E-1	1.474888E-1	1.331836E-1	1.476363E-1	1.611597E-1	1.578945E-1	1.354012E-1	1.377324E-1	1.326639E-1	1.392162E-1	1.446648E-1	1.243341E-1	1.245822E-1	1.532198E-1	1.611527E-1	1.534587E-1	1.373649E-1	1.509800E-1	1.202050E-1	1.571936E-1	1.452809E-1	1.541710E-1	1.562130E-1	1.429995E-1	1.227910E-1	1.524955E-1	1.578223E-1	1.432268E-1	1.249767E-1	1.625857E-1	1.443850E-1	1.421893E-1	1.382573E-1	1.559966E-1	1.300682E-1	1.346250E-1	1.402596E-1	1.731889E-1	1.084389E-1	1.433753E-1	1.402494E-1	1.474183E-1	1.687984E-1	1.557102E-1	1.303141E-1	1.451513E-1	1.414666E-1	1.600435E-1	1.498454E-1	1.680927E-1	1.437843E-1	1.329814E-1	1.748531E-1	1.743474E-1	1.116465E-1	1.359120E-1	1.282491E-1	1.478551E-1	1.545028E-1	1.270715E-1	1.560864E-1	1.611022E-1	1.462826E-1	1.668034E-1	1.466466E-1	1.882335E-1	1.419238E-1	1.563116E-1	1.546944E-1	1.446423E-1	1.340064E-1	1.173650E-1	1.308788E-1	1.371725E-1	1.623623E-1	1.096563E-1	1.605666E-1	1.322353E-1	1.464281E-1	1.351373E-1	1.807230E-1	1.582986E-1	1.188432E-1	1.694999E-1	1.547817E-1	1.610088E-1	1.533955E-1	1.417402E-1	1.451003E-1	1.493747E-1	1.647314E-1	1.619830E-1	1.336590E-1	1.506964E-1	1.469209E-1	1.543756E-1	1.634325E-1	1.147783E-1	1.405431E-1	1.498725E-1	1.530659E-1	1.320627E-1	1.507239E-1	1.435903E-1	1.548879E-1	1.268835E-1	1.728372E-1	1.474133E-1	1.636004E-1	1.370004E-1	1.565189E-1	1.589567E-1	1.773347E-1	1.376359E-1	1.480694E-1	1.392852E-1	1.336601E-1	1.226212E-1	1.345757E-1	1.392208E-1	1.176422E-1	1.242872E-1	1.624271E-1	1.417739E-1	1.629291E-1	1.299954E-1	1.427878E-1	1.599386E-1	1.718290E-1	1.328951E-1	1.270290E-1	1.591715E-1	1.718511E-1	1.303491E-1	1.571625E-1
2.847020E+2	3.345799E-1	3.400831E-1	2.545849E-1	3.137528E-1	3.289162E-1	3.443906E-1	3.131608E-1	2.893428E-1	3.165543E-1	3.009567E-1	3.075229E-1	2.778892E-1	3.051289E-1	2.855384E-1	2.722855E-1	3.096569E-1	3.165366E-1	2.877897E-1	2.971826E-1	2.783938E-1	3.662384E-1	3.360712E-1	3.301797E-1	2.787511E-1	3.178618E-1	3.058094E-1	3.050723E-1	2.891991E-1	2.727487E-1	2.764879E-1	2.921805E-1	3.321648E-1	2.644236E-1	3.095751E-1	2.887626E-1	2.903180E-1	3.175656E-1	3.282028E-1	3.376074E-1	3.149605E-1	3.203307E-1	2.955675E-1	2.882820E-1	2.758173E-1	2.908723E-1	2.846126E-1	2.896089E-1	3.338370E-1	2.982392E-1	3.243441E-1	3.110206E-1	3.132972E-1	3.188444E-1	3.374853E-1	3.461512E-1	2.700509E-1	2.763119E-1	3.368971E-1	3.172607E-1	2.972799E-1	2.876250E-1	2.784026E-1	3.155254E-1	3.443840E-1	2.930785E-1	2.866736E-1	3.129781E-1	3.269564E-1	3.483226E-1	3.288925E-1	3.796679E-1	3.002438E-1	3.257236E-1	2.864305E-1	3.112108E-1	2.709904E-1	2.967481E-1	2.854548E-1	2.891644E-1	3.044656E-1	3.075115E-1	2.950091E-1	3.034982E-1	3.315389E-1	3.373883E-1	3.146294E-1	3.507801E-1	2.821749E-1	3.220679E-1	3.081799E-1	3.489216E-1	2.709306E-1	2.722015E-1	2.744764E-1	3.089432E-1	3.195218E-1	3.248289E-1	2.883912E-1	3.127275E-1	3.209209E-1	3.371000E-1	3.319636E-1	3.332472E-1	3.002213E-1	3.085562E-1	3.105942E-1	3.307629E-1	2.700870E-1	2.642539E-1	2.763543E-1	2.781372E-1	3.429149E-1	2.488359E-1	2.829281E-1	2.916030E-1	3.295615E-1	3.041098E-1	3.415993E-1	3.244694E-1	3.034748E-1	3.512313E-1	3.249785E-1	3.691460E-1	3.226191E-1	3.008299E-1	2.981677E-1	3.115153E-1	3.348634E-1	3.192085E-1	2.641929E-1	3.248203E-1	3.263052E-1	3.428040E-1	3.421701E-1	3.312026E-1	3.010131E-1	3.166971E-1	3.546574E-1	3.420017E-1	3.103757E-1	3.008900E-1	2.974577E-1	3.101195E-1	3.236569E-1	2.873227E-1	3.251513E-1	3.225204E-1	3.194959E-1	3.010091E-1	3.601090E-1	2.999931E-1	2.589443E-1	3.437635E-1	3.542337E-1	3.002053E-1	3.201558E-1	2.799416E-1	2.818051E-1	2.702392E-1	3.186438E-1	3.062216E-1	3.170136E-1	2.571318E-1	3.018941E-1	3.378467E-1	3.616148E-1	2.779468E-1	2.732495E-1	3.151707E-1	3.421724E-1	2.802588E-1	2.937702E-1
2.848020E+2	7.967715E-1	7.534623E-1	6.265530E-1	7.482519E-1	7.658194E-1	7.175644E-1	7.484622E-1	6.896743E-1	7.461309E-1	6.989522E-1	7.082324E-1	6.691866E-1	6.707373E-1	6.556293E-1	6.432196E-1	7.032148E-1	7.598174E-1	6.769368E-1	6.733563E-1	6.625711E-1	7.544844E-1	7.522503E-1	7.416171E-1	6.488362E-1	6.918842E-1	6.990595E-1	6.689153E-1	6.624694E-1	6.251661E-1	6.444980E-1	6.330108E-1	7.271248E-1	6.600435E-1	6.870009E-1	6.611318E-1	6.596757E-1	7.052206E-1	7.430738E-1	7.467539E-1	6.340587E-1	7.173598E-1	7.013740E-1	6.887196E-1	6.145990E-1	6.433738E-1	6.696121E-1	6.573373E-1	7.386141E-1	6.433407E-1	7.265607E-1	6.744721E-1	6.945819E-1	7.360190E-1	7.143863E-1	7.501106E-1	6.396698E-1	7.141690E-1	6.950163E-1	7.747519E-1	6.638114E-1	6.465871E-1	6.350704E-1	7.002759E-1	7.356137E-1	6.670983E-1	6.331678E-1	7.107325E-1	7.155985E-1	7.557340E-1	6.989767E-1	7.665837E-1	6.305841E-1	7.156532E-1	7.201072E-1	7.088844E-1	6.257514E-1	6.515796E-1	6.303789E-1	6.479739E-1	7.067526E-1	6.440904E-1	6.914968E-1	6.705535E-1	7.185151E-1	7.342528E-1	7.405402E-1	7.518873E-1	6.489367E-1	7.632703E-1	7.103842E-1	8.237141E-1	5.859591E-1	6.498888E-1	6.419682E-1	7.108955E-1	7.358440E-1	6.642307E-1	6.709478E-1	7.256162E-1	7.236449E-1	7.382566E-1	7.120619E-1	7.977036E-1	6.036664E-1	7.253873E-1	7.375775E-1	6.960916E-1	6.484581E-1	6.453845E-1	6.310413E-1	6.170136E-1	7.137211E-1	5.762237E-1	6.767303E-1	6.754567E-1	7.236153E-1	7.125497E-1	7.758601E-1	7.129058E-1	6.249887E-1	7.483716E-1	7.507498E-1	7.776899E-1	6.966613E-1	6.755128E-1	6.610643E-1	6.542221E-1	7.669455E-1	7.546988E-1	6.352444E-1	7.091600E-1	7.305891E-1	7.754702E-1	7.351734E-1	8.050253E-1	6.807378E-1	7.337597E-1	7.540959E-1	7.085443E-1	7.173081E-1	6.424277E-1	6.350134E-1	6.935567E-1	7.637352E-1	6.518361E-1	7.581797E-1	7.311068E-1	7.014142E-1	7.491813E-1	7.827743E-1	7.701755E-1	6.967705E-1	7.265518E-1	7.466758E-1	7.684919E-1	7.158950E-1	6.682877E-1	6.583580E-1	6.048728E-1	7.757027E-1	6.784262E-1	6.875504E-1	6.475832E-1	6.830500E-1	7.448875E-1	7.500985E-1	6.878280E-1	6.591670E-1	7.607767E-1	7.419694E-1	6.576623E-1	6.884154E-1
2.848990E+2	1.054375E+0	9.977320E-1	8.183584E-1	9.564869E-1	9.959219E-1	1.010896E+0	1.050740E+0	8.939813E-1	1.022511E+0	9.668338E-1	9.514292E-1	8.901401E-1	9.369952E-1	9.125213E-1	8.667090E-1	9.156276E-1	1.002498E+0	9.085339E-1	8.621657E-1	9.166915E-1	1.035873E+0	1.000936E+0	9.912925E-1	8.428803E-1	9.686383E-1	9.541119E-1	8.864412E-1	8.700334E-1	8.271501E-1	8.273001E-1	8.442613E-1	9.280690E-1	8.533706E-1	8.833231E-1	8.998303E-1	9.209834E-1	9.499774E-1	9.703999E-1	9.902816E-1	8.667139E-1	9.428056E-1	9.557148E-1	9.376406E-1	8.458394E-1	8.488052E-1	8.984676E-1	8.251532E-1	9.661389E-1	8.882169E-1	9.451685E-1	8.928480E-1	9.859354E-1	1.001060E+0	1.006869E+0	1.018912E+0	8.636496E-1	8.980145E-1	9.756159E-1	1.025982E+0	9.151994E-1	8.812130E-1	8.480605E-1	9.265112E-1	9.594875E-1	8.894383E-1	9.409954E-1	1.005710E+0	9.951796E-1	1.008274E+0	9.679168E-1	1.039959E+0	8.265753E-1	9.514891E-1	8.899238E-1	9.843999E-1	8.407757E-1	9.061880E-1	8.662753E-1	8.743937E-1	9.471823E-1	9.312062E-1	9.243990E-1	8.850734E-1	9.526890E-1	9.434984E-1	9.606027E-1	9.869148E-1	8.310023E-1	1.020479E+0	9.503723E-1	1.054466E+0	8.827001E-1	8.616153E-1	8.665994E-1	8.914152E-1	9.795975E-1	8.870476E-1	9.068397E-1	9.938761E-1	1.002693E+0	1.017254E+0	9.536707E-1	9.886467E-1	8.150667E-1	9.531404E-1	9.936601E-1	9.263499E-1	8.874290E-1	8.762101E-1	8.514430E-1	8.419973E-1	1.008533E+0	7.486160E-1	9.332090E-1	8.976582E-1	1.012841E+0	9.391017E-1	1.050296E+0	9.833301E-1	8.738171E-1	9.669580E-1	9.717271E-1	1.000694E+0	9.580830E-1	9.059180E-1	8.983422E-1	8.774293E-1	9.932492E-1	9.805544E-1	8.863147E-1	9.320391E-1	1.035810E+0	1.018604E+0	9.838749E-1	1.044037E+0	9.254142E-1	9.707948E-1	1.003121E+0	9.854363E-1	8.865632E-1	8.184881E-1	8.598761E-1	8.908501E-1	9.854623E-1	9.284375E-1	9.768201E-1	9.453381E-1	9.627922E-1	9.625217E-1	1.042248E+0	1.084538E+0	8.674658E-1	9.194663E-1	9.812454E-1	9.339128E-1	8.861124E-1	8.968226E-1	8.717218E-1	8.420451E-1	1.008096E+0	9.753116E-1	9.165811E-1	8.981316E-1	9.954352E-1	1.032405E+0	1.025864E+0	1.018040E+0	8.602204E-1	9.660383E-1	1.025498E+0	9.850967E-1	8.705598E-1
2.850010E+2	1.050297E+0	1.055398E+0	8.316624E-1	9.894324E-1	1.030874E+0	1.036932E+0	1.063718E+0	9.215903E-1	1.034391E+0	9.416855E-1	9.488640E-1	9.308744E-1	9.792191E-1	8.871095E-1	8.988174E-1	9.377316E-1	1.018638E+0	9.542232E-1	8.669825E-1	9.059034E-1	1.044015E+0	1.050469E+0	1.001340E+0	8.683864E-1	9.576378E-1	9.301004E-1	8.986345E-1	8.929694E-1	8.627665E-1	8.821409E-1	8.501931E-1	1.012703E+0	9.435894E-1	9.355744E-1	9.742040E-1	9.391752E-1	9.850837E-1	9.689792E-1	1.026541E+0	9.003022E-1	1.002221E+0	9.898330E-1	9.360944E-1	8.781573E-1	9.519881E-1	9.357556E-1	8.485374E-1	1.002937E+0	8.827992E-1	9.543221E-1	9.320440E-1	9.723846E-1	1.026504E+0	1.046098E+0	1.052197E+0	9.030825E-1	9.388086E-1	9.919933E-1	9.960022E-1	9.007307E-1	8.874563E-1	8.577004E-1	9.651364E-1	9.880203E-1	9.521816E-1	9.013249E-1	1.022549E+0	9.819237E-1	1.008275E+0	9.842304E-1	1.078943E+0	8.550262E-1	9.813138E-1	8.952979E-1	9.870443E-1	8.128283E-1	8.965707E-1	8.538862E-1	8.800070E-1	9.786111E-1	9.221094E-1	8.994457E-1	8.724828E-1	9.334336E-1	9.889159E-1	9.758710E-1	1.027680E+0	8.599429E-1	1.000106E+0	9.781485E-1	1.049633E+0	9.670619E-1	8.299323E-1	8.824731E-1	9.190304E-1	1.048085E+0	8.979436E-1	8.919682E-1	1.023035E+0	9.927491E-1	9.799855E-1	1.001494E+0	1.071217E+0	8.631122E-1	1.011459E+0	9.529444E-1	9.157139E-1	8.857697E-1	8.635217E-1	8.728514E-1	8.009218E-1	9.540982E-1	7.459806E-1	8.915310E-1	8.879471E-1	1.010946E+0	9.649320E-1	1.012968E+0	9.775090E-1	9.327084E-1	1.022875E+0	9.979542E-1	1.075028E+0	9.376598E-1	9.366391E-1	8.862462E-1	9.142796E-1	1.007832E+0	1.008007E+0	9.057555E-1	9.788937E-1	1.011044E+0	1.027998E+0	1.034162E+0	1.070303E+0	8.941680E-1	9.527929E-1	1.050554E+0	1.050120E+0	9.387799E-1	8.656299E-1	9.149118E-1	8.971520E-1	1.049054E+0	9.418385E-1	9.549562E-1	9.585892E-1	9.904677E-1	9.777224E-1	1.019402E+0	1.064925E+0	9.133625E-1	9.614573E-1	9.510150E-1	1.026962E+0	8.965585E-1	8.684606E-1	8.800031E-1	8.756524E-1	1.001472E+0	9.043863E-1	9.249664E-1	9.188777E-1	9.470618E-1	1.013127E+0	1.037922E+0	1.002656E+0	8.764087E-1	9.414075E-1	1.026518E+0	1.023232E+0	8.958563E-1
2.851060E+2	9.660156E-1	9.543210E-1	7.485102E-1	9.229212E-1	9.260177E-1	9.160115E-1	9.133902E-1	8.061844E-1	9.237141E-1	8.487474E-1	8.200831E-1	8.345935E-1	8.997389E-1	8.191897E-1	7.847491E-1	8.972975E-1	9.235262E-1	8.502404E-1	8.212248E-1	8.561583E-1	9.290167E-1	9.023809E-1	9.063928E-1	7.908685E-1	8.800537E-1	8.826117E-1	8.449843E-1	8.058153E-1	7.873156E-1	8.191219E-1	8.250984E-1	9.241098E-1	7.956524E-1	8.833228E-1	8.219391E-1	8.471109E-1	9.143766E-1	9.130949E-1	9.226622E-1	8.123777E-1	9.094884E-1	9.009171E-1	8.572442E-1	8.202077E-1	8.226594E-1	8.374084E-1	7.815944E-1	8.588552E-1	8.107447E-1	8.708636E-1	8.363451E-1	9.027795E-1	9.231378E-1	9.433077E-1	9.230916E-1	8.131750E-1	8.332875E-1	9.128357E-1	9.618260E-1	8.687799E-1	8.021369E-1	7.971086E-1	8.472534E-1	9.397339E-1	8.400968E-1	8.450818E-1	8.924805E-1	8.698500E-1	9.489164E-1	8.681712E-1	9.498082E-1	7.391168E-1	9.089616E-1	8.415582E-1	8.818087E-1	7.523705E-1	8.246934E-1	7.617078E-1	7.972050E-1	8.953246E-1	8.362584E-1	8.201477E-1	8.434283E-1	8.974066E-1	9.380918E-1	9.316475E-1	9.109211E-1	7.889063E-1	9.128846E-1	8.892644E-1	9.662728E-1	7.953886E-1	7.997574E-1	8.285996E-1	8.535723E-1	9.822939E-1	8.173151E-1	8.119704E-1	9.320601E-1	8.839890E-1	9.437515E-1	9.257738E-1	9.814218E-1	8.089983E-1	8.917511E-1	8.924059E-1	8.444561E-1	8.348775E-1	7.610415E-1	7.945187E-1	7.621792E-1	9.088252E-1	6.742820E-1	8.455784E-1	8.376812E-1	9.345352E-1	8.809839E-1	9.461989E-1	9.182377E-1	7.730126E-1	9.148529E-1	9.036480E-1	9.709598E-1	8.477956E-1	8.302134E-1	7.834253E-1	8.295239E-1	9.748855E-1	9.106771E-1	8.057726E-1	9.048121E-1	9.186747E-1	9.478739E-1	8.860341E-1	9.615655E-1	8.512698E-1	9.089866E-1	9.263539E-1	8.742260E-1	8.571540E-1	7.963600E-1	7.943568E-1	8.612803E-1	9.584498E-1	8.303408E-1	8.784322E-1	8.393266E-1	9.092861E-1	8.833707E-1	9.323665E-1	9.630430E-1	7.978469E-1	9.042522E-1	9.303010E-1	8.986392E-1	8.387955E-1	8.302803E-1	8.697733E-1	7.844322E-1	9.860161E-1	8.347153E-1	8.840872E-1	8.571713E-1	8.578918E-1	9.409726E-1	9.535142E-1	9.383713E-1	7.609993E-1	8.906513E-1	9.745038E-1	9.285521E-1	8.882686E-1
2.851990E+2	7.852169E-1	8.214952E-1	6.293254E-1	7.930068E-1	8.001890E-1	7.945132E-1	7.722549E-1	6.620654E-1	7.692670E-1	7.443276E-1	7.005367E-1	6.920226E-1	7.223991E-1	6.851995E-1	6.977191E-1	7.361012E-1	7.753811E-1	6.900658E-1	6.540902E-1	6.535808E-1	7.468519E-1	7.389732E-1	7.581948E-1	6.548377E-1	7.214130E-1	7.492164E-1	6.854982E-1	7.140743E-1	6.392250E-1	6.444980E-1	6.955189E-1	7.246499E-1	6.650867E-1	7.214967E-1	6.968106E-1	7.037788E-1	7.536777E-1	7.317071E-1	7.536137E-1	6.498654E-1	7.279102E-1	7.437644E-1	7.031501E-1	6.396731E-1	6.424406E-1	7.530441E-1	6.747603E-1	7.101087E-1	7.170203E-1	6.969470E-1	7.039959E-1	7.278445E-1	7.582824E-1	7.764582E-1	8.207152E-1	6.990820E-1	6.695677E-1	7.064806E-1	7.705553E-1	6.891312E-1	6.731192E-1	6.424148E-1	7.093044E-1	7.696342E-1	7.121757E-1	6.723368E-1	7.357009E-1	7.782629E-1	7.962049E-1	7.437220E-1	7.724313E-1	6.500783E-1	7.382978E-1	7.120466E-1	7.432578E-1	6.166262E-1	6.541102E-1	6.665565E-1	6.788492E-1	7.586102E-1	7.322153E-1	6.371534E-1	6.875023E-1	7.259693E-1	7.710191E-1	7.763396E-1	7.750372E-1	6.410433E-1	7.861900E-1	7.476041E-1	8.134457E-1	6.768102E-1	6.634679E-1	6.491830E-1	7.062919E-1	7.423152E-1	7.219782E-1	6.519734E-1	7.781017E-1	7.572053E-1	8.127938E-1	7.399587E-1	7.662233E-1	6.592984E-1	7.413481E-1	7.370415E-1	6.897102E-1	6.987972E-1	6.570965E-1	6.748295E-1	6.104789E-1	7.433642E-1	5.804411E-1	6.991720E-1	6.697450E-1	7.640311E-1	7.260028E-1	7.826944E-1	7.959917E-1	6.589439E-1	7.884036E-1	7.529821E-1	8.436983E-1	7.305062E-1	7.100735E-1	6.498979E-1	6.963369E-1	7.631655E-1	7.291184E-1	6.813482E-1	7.465178E-1	7.774431E-1	8.412267E-1	7.614103E-1	8.129050E-1	7.029809E-1	7.403609E-1	8.102659E-1	7.567732E-1	7.149070E-1	6.481998E-1	6.900503E-1	6.993740E-1	7.823056E-1	6.952560E-1	7.678977E-1	7.189593E-1	7.352399E-1	7.570433E-1	7.876701E-1	7.821616E-1	6.895509E-1	7.046430E-1	7.265222E-1	7.618026E-1	6.993036E-1	6.993769E-1	6.632298E-1	6.605651E-1	7.812227E-1	7.255015E-1	7.247612E-1	7.103529E-1	7.238472E-1	7.817910E-1	8.061948E-1	7.916716E-1	6.586445E-1	7.667477E-1	7.970430E-1	7.299876E-1	6.757666E-1
2.853000E+2	6.853016E-1	7.016278E-1	4.879658E-1	6.388495E-1	6.364958E-1	6.348293E-1	6.413942E-1	5.731638E-1	6.467095E-1	5.841460E-1	5.886868E-1	5.815459E-1	5.669165E-1	5.498227E-1	5.629490E-1	6.239638E-1	6.508712E-1	5.661269E-1	5.693186E-1	5.810610E-1	6.674724E-1	6.598224E-1	6.110021E-1	5.593157E-1	6.038795E-1	6.046156E-1	5.723455E-1	6.068522E-1	5.595567E-1	5.362601E-1	5.668523E-1	6.118043E-1	5.782295E-1	5.875714E-1	5.937938E-1	5.764325E-1	5.944621E-1	6.502486E-1	6.507145E-1	5.456396E-1	5.824251E-1	6.155601E-1	5.686399E-1	5.388191E-1	5.696053E-1	6.118152E-1	5.564638E-1	6.251107E-1	5.842885E-1	6.081036E-1	5.894631E-1	6.342170E-1	6.225814E-1	6.180505E-1	6.689147E-1	5.702674E-1	5.749247E-1	5.929309E-1	6.518350E-1	5.830300E-1	5.753152E-1	5.607072E-1	5.919232E-1	6.176413E-1	6.141022E-1	5.804409E-1	6.247941E-1	6.414850E-1	6.397155E-1	6.230024E-1	6.520682E-1	5.294272E-1	6.002211E-1	5.744739E-1	5.835539E-1	5.287911E-1	5.417383E-1	5.500948E-1	5.553476E-1	6.129903E-1	5.673372E-1	5.933454E-1	5.892014E-1	5.905588E-1	6.228711E-1	6.294558E-1	6.738799E-1	5.663230E-1	6.454891E-1	6.303872E-1	6.588056E-1	5.812394E-1	5.488037E-1	5.438419E-1	6.024808E-1	6.700519E-1	5.563626E-1	5.406933E-1	6.393059E-1	6.030765E-1	6.357675E-1	6.298649E-1	6.490772E-1	5.525865E-1	6.277788E-1	6.079287E-1	5.519808E-1	5.942471E-1	5.409518E-1	5.493026E-1	5.105897E-1	6.479679E-1	4.923996E-1	5.303235E-1	5.772085E-1	6.509931E-1	5.920088E-1	6.712380E-1	6.340546E-1	5.682201E-1	6.638605E-1	6.229630E-1	6.658899E-1	5.852075E-1	5.915795E-1	5.559174E-1	5.573589E-1	6.648659E-1	5.762600E-1	5.502581E-1	6.604052E-1	6.897590E-1	6.837432E-1	6.548234E-1	6.652951E-1	5.869981E-1	5.921388E-1	6.760810E-1	6.438600E-1	6.098730E-1	5.327510E-1	5.721153E-1	6.004848E-1	6.624377E-1	6.003751E-1	6.154568E-1	5.963833E-1	6.153136E-1	6.034595E-1	6.271989E-1	6.939003E-1	5.606265E-1	6.431776E-1	6.156755E-1	6.438190E-1	5.843913E-1	5.477477E-1	5.463181E-1	5.472604E-1	6.476381E-1	6.031066E-1	6.073634E-1	5.890685E-1	5.944634E-1	6.204072E-1	6.546813E-1	6.515649E-1	5.500237E-1	6.406048E-1	6.715967E-1	6.168978E-1	5.745753E-1
2.854020E+2	5.180968E-1	5.292786E-1	4.197809E-1	5.039623E-1	5.485329E-1	5.301088E-1	4.997182E-1	5.013809E-1	5.003911E-1	4.753533E-1	4.455397E-1	4.704518E-1	4.581280E-1	4.343141E-1	4.125479E-1	4.864887E-1	5.177135E-1	4.579430E-1	4.753956E-1	4.839673E-1	5.265236E-1	5.025424E-1	4.783775E-1	4.422889E-1	4.608705E-1	4.653504E-1	4.582180E-1	4.359847E-1	4.020933E-1	4.491882E-1	4.098969E-1	4.836154E-1	4.521464E-1	4.455293E-1	4.731883E-1	4.678304E-1	4.678811E-1	4.802271E-1	5.012657E-1	4.562331E-1	4.880265E-1	4.770173E-1	4.547445E-1	4.073180E-1	4.458795E-1	4.510107E-1	4.221196E-1	4.753274E-1	4.315125E-1	5.057997E-1	4.713668E-1	4.894646E-1	4.921813E-1	4.814925E-1	5.009772E-1	4.104321E-1	4.710358E-1	5.055843E-1	4.959408E-1	4.799429E-1	4.140420E-1	4.303420E-1	4.409331E-1	5.024122E-1	4.526765E-1	4.498776E-1	4.947256E-1	4.516832E-1	5.075094E-1	5.027481E-1	5.536340E-1	4.419690E-1	4.610392E-1	4.632332E-1	5.063458E-1	4.945699E-1	4.344290E-1	4.380937E-1	4.463478E-1	5.087519E-1	4.780754E-1	4.547136E-1	4.666882E-1	4.657073E-1	5.087860E-1	5.220569E-1	4.967286E-1	4.126730E-1	5.066981E-1	4.998378E-1	5.289322E-1	4.726906E-1	4.441974E-1	4.033868E-1	4.475297E-1	5.098866E-1	4.092704E-1	4.535162E-1	5.250030E-1	4.756716E-1	5.022214E-1	4.998446E-1	5.458652E-1	4.428406E-1	5.246452E-1	4.622082E-1	4.796595E-1	4.459960E-1	4.223666E-1	4.393446E-1	4.307722E-1	4.943634E-1	3.859065E-1	4.373499E-1	4.441163E-1	5.417449E-1	4.730822E-1	5.145670E-1	4.906396E-1	4.403573E-1	5.215248E-1	4.678324E-1	5.213839E-1	4.766708E-1	4.758279E-1	4.093632E-1	4.536518E-1	5.211989E-1	5.238518E-1	4.352768E-1	4.805825E-1	4.923028E-1	5.052613E-1	4.979501E-1	5.560323E-1	4.879626E-1	4.805226E-1	5.256667E-1	5.031443E-1	4.928352E-1	4.211499E-1	4.547039E-1	4.560289E-1	5.431332E-1	4.583223E-1	5.043143E-1	4.760159E-1	4.664820E-1	4.991481E-1	5.037169E-1	5.402600E-1	4.605816E-1	4.800826E-1	4.779566E-1	4.832627E-1	4.639495E-1	4.435707E-1	4.566857E-1	4.373157E-1	5.085330E-1	4.625101E-1	5.062130E-1	4.374625E-1	5.047114E-1	5.107974E-1	4.968763E-1	5.312378E-1	4.246918E-1	5.353612E-1	4.829172E-1	5.130123E-1	5.037418E-1
2.855000E+2	4.005096E-1	3.996925E-1	3.161173E-1	4.144524E-1	3.737713E-1	3.883611E-1	3.856210E-1	4.019875E-1	4.153512E-1	3.720274E-1	3.465166E-1	4.297174E-1	3.533138E-1	3.460650E-1	3.056612E-1	3.441602E-1	3.960851E-1	3.392563E-1	3.260817E-1	3.904704E-1	3.835386E-1	3.432200E-1	3.693644E-1	3.822750E-1	3.502843E-1	3.404919E-1	3.299467E-1	3.952745E-1	3.355465E-1	3.245940E-1	3.332445E-1	3.692848E-1	3.664107E-1	3.587825E-1	3.309739E-1	3.823819E-1	3.907453E-1	3.812456E-1	3.768068E-1	3.673207E-1	3.592001E-1	3.643219E-1	3.691937E-1	3.415676E-1	3.454982E-1	3.540619E-1	3.253731E-1	3.861837E-1	3.247860E-1	3.722657E-1	3.293459E-1	3.890612E-1	3.946463E-1	3.692658E-1	3.986005E-1	3.173704E-1	3.557246E-1	3.505447E-1	4.042026E-1	3.617843E-1	3.302840E-1	3.114530E-1	3.536494E-1	3.959628E-1	3.521660E-1	3.203189E-1	3.803350E-1	3.552763E-1	3.958087E-1	3.470705E-1	4.059818E-1	3.034051E-1	3.798498E-1	3.358709E-1	3.614489E-1	3.360107E-1	3.321805E-1	3.122160E-1	3.153617E-1	3.599893E-1	3.410559E-1	3.426986E-1	3.480485E-1	3.483099E-1	3.590161E-1	3.672758E-1	3.895320E-1	3.332165E-1	3.825506E-1	3.781769E-1	4.008709E-1	3.606016E-1	3.229956E-1	3.288304E-1	3.401377E-1	4.198274E-1	3.575163E-1	3.345444E-1	3.786263E-1	3.650471E-1	3.981800E-1	3.359485E-1	3.735002E-1	3.457384E-1	3.705592E-1	3.909545E-1	3.770276E-1	3.209792E-1	3.120781E-1	3.230617E-1	2.958749E-1	4.135190E-1	2.931200E-1	3.272779E-1	3.418697E-1	3.851336E-1	3.681470E-1	3.810295E-1	4.059669E-1	3.305333E-1	3.969817E-1	3.584601E-1	4.083953E-1	3.605483E-1	3.748886E-1	3.209652E-1	3.478394E-1	3.802321E-1	3.454132E-1	3.169622E-1	3.463487E-1	3.724899E-1	3.925358E-1	3.678604E-1	4.215546E-1	3.354368E-1	3.665046E-1	3.459202E-1	3.749111E-1	3.391851E-1	3.422593E-1	3.404387E-1	3.503536E-1	3.686775E-1	3.446798E-1	3.925653E-1	4.125199E-1	3.563964E-1	3.948366E-1	3.851316E-1	3.947928E-1	3.600205E-1	3.589773E-1	3.833446E-1	4.060258E-1	3.447358E-1	3.323027E-1	3.256471E-1	3.168097E-1	3.617003E-1	3.413708E-1	3.437422E-1	3.337322E-1	3.840703E-1	3.989857E-1	4.103716E-1	3.900324E-1	3.186822E-1	3.562230E-1	3.941874E-1	3.946632E-1	3.494253E-1
2.856010E+2	2.666101E-1	2.752899E-1	2.119000E-1	2.689978E-1	2.852253E-1	2.923197E-1	2.715229E-1	2.744340E-1	2.602785E-1	2.632346E-1	2.377455E-1	2.692487E-1	2.599247E-1	2.494991E-1	2.304605E-1	3.021090E-1	2.882912E-1	2.273961E-1	2.470899E-1	2.340426E-1	2.558201E-1	2.763251E-1	2.784360E-1	2.602469E-1	2.454888E-1	2.551188E-1	2.465456E-1	2.553697E-1	2.197926E-1	2.327121E-1	2.095966E-1	2.603988E-1	2.492939E-1	2.405833E-1	2.470529E-1	3.029976E-1	2.696034E-1	2.775275E-1	2.577379E-1	2.724804E-1	2.775733E-1	2.443888E-1	2.522062E-1	2.735884E-1	2.320444E-1	2.487229E-1	2.254174E-1	2.654242E-1	2.435212E-1	2.882687E-1	2.692794E-1	2.781872E-1	2.695467E-1	2.863379E-1	2.775643E-1	2.916073E-1	2.415012E-1	2.621069E-1	2.579010E-1	2.779889E-1	2.215554E-1	2.283680E-1	2.563329E-1	2.966460E-1	2.510471E-1	2.565440E-1	2.630405E-1	2.600743E-1	2.927420E-1	2.421978E-1	2.836695E-1	2.396550E-1	2.831959E-1	2.783701E-1	2.620307E-1	2.293545E-1	2.248702E-1	2.170642E-1	2.442546E-1	2.651792E-1	2.330326E-1	2.295749E-1	2.453895E-1	2.489259E-1	2.779130E-1	2.651413E-1	2.913941E-1	2.127164E-1	2.711352E-1	2.609604E-1	2.879110E-1	2.620817E-1	2.435355E-1	2.249326E-1	2.286546E-1	2.672118E-1	2.387523E-1	2.565970E-1	2.538270E-1	3.053839E-1	2.780914E-1	2.672024E-1	2.914464E-1	2.344746E-1	2.852281E-1	2.848786E-1	2.685458E-1	2.468536E-1	2.237495E-1	2.281867E-1	2.160569E-1	2.803950E-1	2.077147E-1	2.337699E-1	2.459066E-1	2.771474E-1	2.599837E-1	2.595833E-1	2.673148E-1	2.488287E-1	2.616361E-1	2.630379E-1	3.096782E-1	2.578473E-1	2.541998E-1	2.283802E-1	2.225485E-1	2.857143E-1	2.805263E-1	2.414192E-1	2.596031E-1	2.941762E-1	2.709692E-1	2.497948E-1	2.823499E-1	2.395790E-1	2.776919E-1	2.903726E-1	2.722117E-1	2.401529E-1	2.287343E-1	2.324625E-1	2.252880E-1	2.859518E-1	2.358617E-1	2.710985E-1	2.430118E-1	2.696799E-1	2.637924E-1	3.002723E-1	2.814691E-1	2.388320E-1	2.780386E-1	2.674596E-1	2.862172E-1	2.414996E-1	2.548524E-1	2.296827E-1	2.380720E-1	2.761397E-1	2.591472E-1	2.504531E-1	2.518123E-1	3.013112E-1	2.844191E-1	3.060423E-1	2.861887E-1	2.419164E-1	2.651615E-1	2.840388E-1	2.934085E-1	2.381153E-1
2.858030E+2	2.768056E-1	2.701060E-1	2.130087E-1	2.602953E-1	2.566807E-1	2.651270E-1	2.601668E-1	3.036999E-1	2.602786E-1	2.320731E-1	2.454413E-1	2.544363E-1	2.554539E-1	2.310177E-1	2.342628E-1	2.557449E-1	2.439056E-1	2.384245E-1	2.384204E-1	2.622117E-1	2.410636E-1	2.548779E-1	2.734124E-1	2.617475E-1	2.310144E-1	2.279066E-1	2.489839E-1	2.370215E-1	2.090136E-1	2.230906E-1	1.954523E-1	2.693077E-1	2.223962E-1	2.415984E-1	2.264494E-1	2.407026E-1	2.483418E-1	2.439025E-1	2.327479E-1	2.793957E-1	2.409248E-1	2.583465E-1	2.166460E-1	2.624446E-1	2.245742E-1	2.501210E-1	2.373384E-1	2.871919E-1	2.467722E-1	2.505777E-1	2.336473E-1	2.547801E-1	2.425123E-1	2.500879E-1	2.715124E-1	2.726795E-1	2.349740E-1	2.511887E-1	2.734900E-1	2.785914E-1	2.153122E-1	1.925635E-1	2.387758E-1	2.736006E-1	2.364274E-1	2.449940E-1	2.444593E-1	2.612790E-1	2.754746E-1	2.846131E-1	2.831820E-1	2.739008E-1	2.174718E-1	2.343040E-1	2.392912E-1	2.789756E-1	2.213271E-1	2.230112E-1	2.288172E-1	2.698942E-1	2.535005E-1	2.134935E-1	2.163350E-1	2.507895E-1	2.346582E-1	2.393443E-1	2.536485E-1	2.642843E-1	2.787759E-1	2.781815E-1	2.673729E-1	2.862690E-1	2.364949E-1	2.186792E-1	2.557583E-1	2.785370E-1	2.240435E-1	2.371105E-1	2.777374E-1	2.438565E-1	2.263298E-1	2.442867E-1	2.950589E-1	2.486353E-1	2.655839E-1	2.307692E-1	2.509973E-1	2.368967E-1	2.174052E-1	2.218617E-1	2.193244E-1	2.329665E-1	1.808276E-1	2.252205E-1	2.139183E-1	2.746221E-1	2.605211E-1	2.664183E-1	2.408546E-1	2.307896E-1	2.698968E-1	2.608060E-1	3.013532E-1	2.339226E-1	2.311599E-1	2.274498E-1	2.451857E-1	2.884149E-1	2.487068E-1	2.469738E-1	2.621364E-1	2.794511E-1	2.449978E-1	2.481554E-1	2.828752E-1	2.321645E-1	2.656895E-1	2.747699E-1	2.625655E-1	2.419537E-1	2.263289E-1	2.350833E-1	2.238334E-1	2.707577E-1	2.433663E-1	2.504489E-1	2.281042E-1	2.536900E-1	2.423012E-1	2.714415E-1	2.743865E-1	2.378008E-1	2.676928E-1	2.529040E-1	2.503357E-1	2.322819E-1	2.433980E-1	2.214015E-1	2.318309E-1	2.413632E-1	2.403172E-1	2.572666E-1	2.379814E-1	2.372026E-1	2.469651E-1	2.641005E-1	2.834414E-1	2.168502E-1	2.547112E-1	2.840385E-1	2.289737E-1	2.330556E-1
2.860070E+2	5.772298E-1	5.733378E-1	4.669007E-1	5.679877E-1	5.904748E-1	6.012726E-1	5.575780E-1	5.704030E-1	5.466623E-1	4.939409E-1	5.040301E-1	5.624129E-1	5.331372E-1	4.828280E-1	4.928180E-1	5.193746E-1	5.615230E-1	5.130852E-1	4.633540E-1	5.684746E-1	5.555277E-1	5.832253E-1	5.446892E-1	5.758194E-1	5.430860E-1	5.160409E-1	4.913836E-1	5.713026E-1	4.517692E-1	4.443778E-1	5.016065E-1	5.439976E-1	4.975369E-1	5.135068E-1	5.098723E-1	5.676127E-1	5.415551E-1	5.356383E-1	5.360554E-1	5.708318E-1	5.324493E-1	5.400849E-1	4.903044E-1	5.889673E-1	4.869658E-1	5.055441E-1	4.739314E-1	5.857211E-1	5.013994E-1	5.521056E-1	5.034362E-1	5.954110E-1	5.404188E-1	5.400881E-1	5.594778E-1	5.849896E-1	5.107423E-1	5.323340E-1	5.924750E-1	5.860439E-1	5.097650E-1	4.904752E-1	5.166790E-1	6.094104E-1	5.562324E-1	5.010987E-1	5.487271E-1	5.703849E-1	6.213687E-1	5.400361E-1	5.779983E-1	5.694687E-1	5.532748E-1	5.115987E-1	5.359598E-1	6.400109E-1	4.754293E-1	5.099532E-1	5.155842E-1	5.883716E-1	4.934260E-1	4.968577E-1	4.952585E-1	5.334126E-1	5.515007E-1	5.468004E-1	5.470558E-1	5.836874E-1	5.423507E-1	5.342808E-1	5.639681E-1	5.830100E-1	4.753782E-1	5.048802E-1	5.114529E-1	5.772962E-1	5.329372E-1	4.801819E-1	5.792389E-1	5.651653E-1	5.860761E-1	5.516532E-1	6.170814E-1	6.147929E-1	5.651619E-1	5.157818E-1	5.259238E-1	6.213523E-1	4.862951E-1	4.636716E-1	4.905185E-1	5.752077E-1	4.275544E-1	5.329947E-1	4.715344E-1	5.985792E-1	5.538017E-1	5.760784E-1	5.446185E-1	5.825453E-1	5.939636E-1	5.537680E-1	5.707419E-1	5.822896E-1	5.109376E-1	4.428614E-1	4.962932E-1	5.800704E-1	5.488077E-1	4.774918E-1	5.495992E-1	5.659307E-1	5.660440E-1	5.569828E-1	5.759936E-1	5.631663E-1	5.525324E-1	5.868307E-1	5.428625E-1	5.336486E-1	4.711779E-1	4.950645E-1	4.967485E-1	5.723964E-1	5.044225E-1	5.492575E-1	5.461388E-1	5.033824E-1	5.589042E-1	5.787850E-1	5.914737E-1	4.966803E-1	5.354614E-1	5.479356E-1	5.513773E-1	5.069644E-1	4.828420E-1	5.117314E-1	4.920479E-1	5.913335E-1	5.139786E-1	5.224601E-1	5.305541E-1	5.653234E-1	5.454987E-1	5.702737E-1	5.636548E-1	5.040688E-1	5.211794E-1	5.502294E-1	5.327381E-1	5.290396E-1
2.862030E+2	9.333903E-1	9.458973E-1	7.529452E-1	8.974360E-1	9.067939E-1	9.281614E-1	8.982491E-1	9.425736E-1	9.149603E-1	7.968107E-1	8.134128E-1	8.685382E-1	8.197621E-1	7.586631E-1	7.479935E-1	8.805849E-1	8.993158E-1	8.302843E-1	7.937704E-1	9.035059E-1	9.096802E-1	8.804229E-1	8.732367E-1	9.233993E-1	8.603687E-1	8.143135E-1	8.381562E-1	8.923954E-1	7.620091E-1	7.561037E-1	7.584836E-1	8.968878E-1	7.737979E-1	8.006344E-1	8.154062E-1	9.132652E-1	9.010259E-1	8.709447E-1	8.643530E-1	9.501924E-1	8.034288E-1	8.192388E-1	7.964315E-1	9.221766E-1	7.558944E-1	7.949931E-1	7.559176E-1	9.459264E-1	7.896164E-1	8.299417E-1	8.312544E-1	8.769089E-1	8.542275E-1	8.916640E-1	9.029186E-1	9.525047E-1	7.941253E-1	8.811729E-1	8.976695E-1	9.079658E-1	7.896515E-1	7.594676E-1	7.995988E-1	8.876062E-1	8.041576E-1	8.094281E-1	8.651893E-1	9.319124E-1	8.938751E-1	8.462645E-1	9.040023E-1	9.219372E-1	8.344000E-1	8.485446E-1	8.966157E-1	9.793721E-1	7.705320E-1	7.835138E-1	7.822352E-1	9.147059E-1	7.902063E-1	7.902031E-1	7.741816E-1	9.309492E-1	8.721275E-1	8.421479E-1	8.812281E-1	8.951989E-1	8.625884E-1	8.542658E-1	8.974104E-1	9.293055E-1	7.539918E-1	7.679924E-1	8.525495E-1	9.407696E-1	7.726424E-1	7.888937E-1	9.320604E-1	9.604319E-1	8.578267E-1	8.515478E-1	9.153662E-1	9.430198E-1	8.444810E-1	8.532970E-1	7.955331E-1	9.355548E-1	7.805610E-1	7.448911E-1	7.234376E-1	9.670335E-1	6.727001E-1	7.980227E-1	7.931266E-1	9.762133E-1	8.260949E-1	9.078206E-1	8.594957E-1	9.353613E-1	9.682286E-1	8.311052E-1	9.067346E-1	9.452451E-1	8.247280E-1	7.476007E-1	8.121521E-1	9.149341E-1	8.520296E-1	7.702223E-1	8.566903E-1	9.267072E-1	9.290863E-1	8.860346E-1	9.421290E-1	9.465986E-1	9.101862E-1	9.119986E-1	8.288331E-1	8.949656E-1	7.593202E-1	7.796804E-1	8.084429E-1	9.725185E-1	7.810238E-1	8.547463E-1	8.216578E-1	8.736163E-1	8.508714E-1	8.757931E-1	9.614082E-1	9.061433E-1	8.245302E-1	8.480055E-1	9.229660E-1	9.162229E-1	7.577381E-1	7.596816E-1	7.479444E-1	9.352317E-1	7.951725E-1	7.687856E-1	7.795067E-1	8.549785E-1	8.941546E-1	8.916506E-1	8.718895E-1	7.703992E-1	8.772156E-1	9.714439E-1	7.720666E-1	7.643095E-1
2.864220E+2	9.558194E-1	9.724626E-1	7.407498E-1	9.322455E-1	9.714559E-1	9.541971E-1	9.544871E-1	9.972389E-1	9.437241E-1	8.553078E-1	8.924258E-1	9.142112E-1	8.808626E-1	8.145695E-1	8.037604E-1	8.951415E-1	9.390893E-1	8.938294E-1	8.135186E-1	9.011088E-1	9.346141E-1	9.447648E-1	9.199569E-1	9.789118E-1	8.551578E-1	8.404586E-1	8.401076E-1	9.055830E-1	7.962198E-1	7.787136E-1	7.758216E-1	9.547953E-1	8.494477E-1	8.706404E-1	8.616384E-1	9.127138E-1	8.985536E-1	9.211458E-1	9.192320E-1	9.383379E-1	9.289229E-1	8.921293E-1	9.046576E-1	9.288630E-1	7.769044E-1	8.327473E-1	7.673807E-1	9.806510E-1	8.324155E-1	8.886321E-1	8.490709E-1	9.680723E-1	9.581233E-1	9.522459E-1	9.523419E-1	9.961442E-1	8.419905E-1	8.882699E-1	9.336450E-1	9.736760E-1	7.917325E-1	7.911409E-1	8.407327E-1	1.031917E+0	8.784742E-1	8.124411E-1	9.377724E-1	1.001205E+0	9.785952E-1	9.026626E-1	9.498081E-1	9.635590E-1	9.144844E-1	8.705777E-1	9.415656E-1	1.000475E+0	7.958413E-1	7.859916E-1	8.107712E-1	9.602774E-1	8.567264E-1	7.985204E-1	8.652192E-1	9.564159E-1	9.251145E-1	8.926887E-1	9.708096E-1	1.010436E+0	9.186143E-1	8.892645E-1	9.789584E-1	9.416940E-1	8.128328E-1	7.963722E-1	8.903924E-1	9.995506E-1	8.456438E-1	8.345339E-1	9.221458E-1	9.964777E-1	9.209766E-1	9.242789E-1	9.422013E-1	9.501003E-1	9.353368E-1	8.875844E-1	8.300988E-1	9.947448E-1	7.620174E-1	8.027895E-1	7.495772E-1	9.621828E-1	7.385992E-1	8.348916E-1	8.256853E-1	1.033048E+0	8.766786E-1	9.351590E-1	9.002450E-1	9.900079E-1	9.586972E-1	8.924880E-1	9.876105E-1	9.469955E-1	8.581913E-1	7.913347E-1	8.742705E-1	9.635434E-1	9.194110E-1	8.229920E-1	9.491348E-1	9.782468E-1	9.556101E-1	8.794752E-1	1.013045E+0	9.799634E-1	8.981847E-1	9.407086E-1	9.264265E-1	9.957985E-1	7.843339E-1	8.404825E-1	8.292870E-1	1.008535E+0	8.185475E-1	8.565682E-1	8.934359E-1	9.910821E-1	9.368369E-1	9.459658E-1	9.930082E-1	1.028363E+0	8.902551E-1	9.112662E-1	9.101943E-1	9.813601E-1	7.948276E-1	8.439556E-1	7.709897E-1	9.407521E-1	8.755130E-1	8.542137E-1	8.683422E-1	9.657120E-1	9.156356E-1	1.011184E+0	9.597998E-1	9.912961E-1	8.943838E-1	9.632851E-1	9.232926E-1	1.014758E+0
2.866160E+2	8.783343E-1	8.869361E-1	7.080428E-1	8.464644E-1	8.473750E-1	8.604689E-1	8.366039E-1	8.856987E-1	8.693131E-1	7.623692E-1	7.785239E-1	8.839685E-1	7.914474E-1	6.925918E-1	7.319398E-1	8.563244E-1	8.566591E-1	7.746173E-1	7.667980E-1	8.303864E-1	8.796592E-1	8.324221E-1	8.451043E-1	8.923921E-1	8.105759E-1	8.169817E-1	7.396360E-1	8.574193E-1	7.334218E-1	7.219487E-1	7.101197E-1	8.622424E-1	7.110371E-1	7.443250E-1	7.515858E-1	8.305728E-1	8.327911E-1	8.055884E-1	8.227027E-1	8.706651E-1	8.067608E-1	8.300949E-1	7.954008E-1	8.736999E-1	7.563612E-1	7.782137E-1	6.990617E-1	8.630012E-1	7.511513E-1	7.777129E-1	8.037671E-1	8.405662E-1	8.319640E-1	8.693179E-1	8.630773E-1	9.046598E-1	8.229533E-1	8.173009E-1	8.419069E-1	8.796314E-1	7.360675E-1	7.075970E-1	7.614749E-1	8.618173E-1	7.968475E-1	7.717660E-1	8.036386E-1	8.915417E-1	8.280418E-1	8.038491E-1	8.538106E-1	8.813688E-1	8.250107E-1	7.588001E-1	7.998414E-1	9.269000E-1	7.401610E-1	7.285039E-1	7.504241E-1	8.707057E-1	7.617795E-1	7.896486E-1	7.538437E-1	8.856043E-1	8.104897E-1	8.300395E-1	8.163057E-1	8.473142E-1	8.695916E-1	7.803805E-1	8.684155E-1	8.785705E-1	7.313609E-1	7.189297E-1	8.136841E-1	9.332190E-1	7.230673E-1	7.263308E-1	8.206735E-1	9.218999E-1	8.583449E-1	8.301263E-1	8.616953E-1	8.959858E-1	8.223817E-1	7.579354E-1	7.753259E-1	8.641956E-1	7.215130E-1	7.249430E-1	6.888964E-1	8.732538E-1	6.352696E-1	7.371093E-1	7.891281E-1	8.896991E-1	8.121036E-1	8.442062E-1	8.049878E-1	9.056501E-1	8.474979E-1	7.864637E-1	8.805688E-1	8.588828E-1	7.753551E-1	7.201507E-1	7.426631E-1	9.035916E-1	8.489094E-1	7.335618E-1	7.876743E-1	9.093036E-1	8.290700E-1	8.078712E-1	8.817190E-1	9.015826E-1	7.979696E-1	8.495863E-1	8.282654E-1	8.511516E-1	7.001524E-1	7.482309E-1	7.628759E-1	9.094895E-1	7.510055E-1	8.031225E-1	7.962591E-1	8.557808E-1	8.194206E-1	8.502264E-1	9.145536E-1	8.705602E-1	8.427877E-1	8.216934E-1	8.499859E-1	9.174516E-1	7.670102E-1	7.523747E-1	7.157780E-1	9.010075E-1	7.217358E-1	7.949905E-1	7.741873E-1	8.590580E-1	8.715722E-1	8.691075E-1	8.680431E-1	8.737978E-1	7.645077E-1	8.857726E-1	8.259815E-1	9.464527E-1
2.868020E+2	1.034665E+0	9.718148E-1	7.884235E-1	9.409485E-1	1.025632E+0	9.779182E-1	1.029651E+0	1.018222E+0	9.662345E-1	8.908431E-1	9.160273E-1	9.913591E-1	8.987459E-1	8.085631E-1	8.109423E-1	9.264097E-1	9.148793E-1	8.434136E-1	8.496427E-1	9.406651E-1	1.005343E+0	9.728507E-1	9.315108E-1	1.014420E+0	9.454793E-1	9.012873E-1	8.732723E-1	9.904437E-1	8.018435E-1	8.138304E-1	7.876846E-1	9.483617E-1	8.696213E-1	8.863665E-1	8.872669E-1	9.424828E-1	9.287158E-1	9.353535E-1	9.594118E-1	9.773604E-1	8.756161E-1	9.117731E-1	8.639439E-1	1.006872E+0	8.343321E-1	8.677049E-1	8.412010E-1	9.977540E-1	8.811738E-1	8.875551E-1	8.928482E-1	1.017350E+0	9.697848E-1	9.845234E-1	9.805840E-1	9.903609E-1	8.719063E-1	9.428612E-1	9.396413E-1	1.036372E+0	7.938137E-1	8.209780E-1	8.592930E-1	9.775953E-1	9.052767E-1	8.932899E-1	9.668053E-1	9.740905E-1	9.791348E-1	9.539336E-1	1.002437E+0	9.893751E-1	9.249782E-1	9.173311E-1	9.410365E-1	1.002187E+0	8.074832E-1	8.082926E-1	8.411789E-1	1.029944E+0	8.629805E-1	8.683916E-1	8.545663E-1	1.008593E+0	9.424169E-1	9.148007E-1	9.637646E-1	1.005174E+0	9.198875E-1	9.320398E-1	9.843955E-1	1.046704E+0	8.269142E-1	7.862715E-1	9.067569E-1	1.032986E+0	8.652566E-1	8.283801E-1	9.757980E-1	1.028174E+0	9.660095E-1	8.968803E-1	9.736810E-1	1.023938E+0	9.463874E-1	8.795480E-1	8.971020E-1	9.881075E-1	7.786088E-1	8.057084E-1	7.948540E-1	1.016617E+0	6.806079E-1	8.755013E-1	8.022662E-1	1.026733E+0	8.718359E-1	9.693320E-1	9.293518E-1	1.043594E+0	9.224780E-1	9.332236E-1	9.899893E-1	1.042695E+0	8.850716E-1	8.132013E-1	8.969073E-1	9.397788E-1	9.543506E-1	8.657624E-1	8.699872E-1	9.668678E-1	9.616879E-1	8.920469E-1	1.008317E+0	1.057286E+0	8.963845E-1	1.006865E+0	9.564990E-1	9.819940E-1	7.963601E-1	8.619730E-1	8.292871E-1	9.719558E-1	8.491017E-1	9.379504E-1	8.564428E-1	1.021833E+0	9.169176E-1	1.001995E+0	1.007718E+0	9.850446E-1	9.054696E-1	9.230229E-1	9.673615E-1	1.037279E+0	8.150082E-1	8.717218E-1	8.386842E-1	1.005336E+0	9.050138E-1	9.024303E-1	8.231266E-1	1.004177E+0	9.332616E-1	9.508933E-1	9.850738E-1	1.064929E+0	9.331967E-1	9.847020E-1	8.956767E-1	9.818696E-1
2.870060E+2	1.045539E+0	1.004211E+0	8.178036E-1	9.645692E-1	9.796110E-1	1.026517E+0	9.479983E-1	1.078409E+0	9.931213E-1	8.897495E-1	8.975566E-1	9.438355E-1	9.057001E-1	8.228865E-1	8.510774E-1	9.539052E-1	9.828987E-1	8.628448E-1	8.515695E-1	9.790230E-1	9.870247E-1	9.907228E-1	9.114165E-1	9.824129E-1	9.414263E-1	9.039546E-1	8.825391E-1	1.014526E+0	8.266813E-1	8.229707E-1	8.177978E-1	9.434122E-1	8.410424E-1	9.061512E-1	8.882722E-1	9.463417E-1	9.435494E-1	9.746625E-1	1.011842E+0	1.009468E+0	9.200391E-1	9.236633E-1	8.922886E-1	1.053121E+0	8.581433E-1	9.287640E-1	8.467034E-1	9.956812E-1	8.622121E-1	9.365535E-1	8.969204E-1	1.004415E+0	9.369198E-1	1.007862E+0	9.372124E-1	9.940411E-1	8.942073E-1	9.466823E-1	9.582279E-1	9.977896E-1	8.198253E-1	8.241912E-1	8.447453E-1	1.012712E+0	9.265973E-1	8.772206E-1	9.586759E-1	1.018077E+0	1.017448E+0	9.441456E-1	9.556558E-1	1.028889E+0	9.012293E-1	9.114198E-1	9.167107E-1	1.059222E+0	8.636689E-1	8.162221E-1	8.598917E-1	1.045659E+0	8.800367E-1	8.667284E-1	8.710302E-1	9.632485E-1	8.921325E-1	9.663942E-1	9.803722E-1	1.018856E+0	9.931028E-1	9.792604E-1	1.032720E+0	9.747311E-1	8.344578E-1	7.958914E-1	8.479471E-1	9.661153E-1	8.995781E-1	8.088929E-1	9.279777E-1	9.939923E-1	9.432345E-1	9.651284E-1	1.011354E+0	9.910653E-1	9.291983E-1	9.411577E-1	9.332626E-1	1.010787E+0	7.927612E-1	7.993836E-1	7.990546E-1	1.025241E+0	7.491433E-1	8.380975E-1	8.639568E-1	1.058940E+0	9.019711E-1	9.971964E-1	9.505193E-1	1.064285E+0	1.001906E+0	9.170407E-1	1.059567E+0	1.024605E+0	8.444763E-1	8.346031E-1	8.584773E-1	1.007291E+0	9.013183E-1	8.602077E-1	9.662309E-1	1.051874E+0	9.893171E-1	9.510792E-1	1.024077E+0	1.047753E+0	9.095864E-1	9.862696E-1	9.814647E-1	9.945984E-1	8.117536E-1	8.305234E-1	8.923048E-1	1.017539E+0	8.405251E-1	8.881493E-1	9.215960E-1	1.032288E+0	9.604244E-1	9.726199E-1	1.003360E+0	1.020112E+0	9.760630E-1	9.079077E-1	9.564148E-1	1.037280E+0	8.635515E-1	8.444424E-1	8.434854E-1	1.032936E+0	8.981095E-1	9.176294E-1	8.380215E-1	1.016416E+0	9.751220E-1	9.907379E-1	9.812270E-1	9.803297E-1	9.772348E-1	1.004080E+0	9.377569E-1	1.052703E+0
2.872190E+2	8.667798E-1	8.713859E-1	6.636947E-1	8.396271E-1	8.194130E-1	8.407980E-1	8.490415E-1	8.464935E-1	8.443018E-1	7.552622E-1	7.426087E-1	8.475549E-1	7.482301E-1	6.704143E-1	6.972966E-1	8.433857E-1	7.990152E-1	7.488840E-1	7.277837E-1	8.058136E-1	8.287754E-1	8.278261E-1	8.003937E-1	8.803891E-1	7.526779E-1	7.268056E-1	7.430499E-1	8.075351E-1	6.579708E-1	6.613349E-1	6.891310E-1	7.840424E-1	7.379344E-1	7.133800E-1	7.164093E-1	7.892271E-1	8.095515E-1	7.942222E-1	8.334827E-1	8.662198E-1	7.590062E-1	8.016629E-1	7.536557E-1	8.475111E-1	6.994004E-1	7.157562E-1	6.908087E-1	8.443432E-1	7.327317E-1	7.782511E-1	7.467548E-1	8.017607E-1	7.964484E-1	8.295918E-1	8.555127E-1	8.368345E-1	7.446289E-1	7.850921E-1	8.203211E-1	8.241690E-1	7.490733E-1	6.933673E-1	7.700025E-1	8.524892E-1	7.542068E-1	7.451506E-1	7.856379E-1	8.849135E-1	8.345174E-1	8.178323E-1	8.338310E-1	8.613485E-1	8.007086E-1	7.598749E-1	7.845055E-1	8.903965E-1	6.981486E-1	6.824154E-1	7.246946E-1	8.754199E-1	7.367635E-1	7.486136E-1	7.286627E-1	7.998860E-1	7.872397E-1	8.274070E-1	8.374427E-1	8.762557E-1	7.919193E-1	7.937133E-1	8.756642E-1	8.325548E-1	7.112440E-1	7.025752E-1	7.906718E-1	8.296781E-1	7.236120E-1	7.309459E-1	8.020118E-1	8.622368E-1	7.931239E-1	8.047201E-1	8.296992E-1	8.792961E-1	8.721065E-1	7.777576E-1	7.248073E-1	8.675151E-1	6.780805E-1	6.884529E-1	6.529550E-1	8.543895E-1	6.252527E-1	7.686350E-1	7.759903E-1	8.581237E-1	7.846591E-1	8.252793E-1	8.007540E-1	8.907949E-1	8.271645E-1	7.630267E-1	8.591605E-1	8.658853E-1	7.067822E-1	6.973537E-1	7.194998E-1	8.776667E-1	8.320639E-1	7.341171E-1	8.073022E-1	8.644576E-1	8.390166E-1	7.865540E-1	9.090350E-1	9.127039E-1	7.721657E-1	8.664377E-1	8.123785E-1	8.553528E-1	6.818729E-1	7.015810E-1	7.488185E-1	8.442090E-1	7.166980E-1	7.612167E-1	7.498794E-1	9.037516E-1	8.031706E-1	8.333633E-1	8.518987E-1	8.421969E-1	7.922766E-1	8.160954E-1	8.280920E-1	8.523146E-1	7.004685E-1	7.211982E-1	6.936924E-1	8.965917E-1	7.543738E-1	7.320987E-1	7.257800E-1	8.468192E-1	8.721233E-1	8.061952E-1	8.339784E-1	8.487315E-1	8.145179E-1	8.776145E-1	7.931071E-1	7.820165E-1
2.874030E+2	6.479184E-1	6.724709E-1	5.567055E-1	7.115773E-1	6.807694E-1	7.094642E-1	6.835727E-1	7.228051E-1	7.261218E-1	5.863322E-1	6.035660E-1	6.500541E-1	7.000454E-1	5.622977E-1	5.730885E-1	6.600850E-1	7.465594E-1	5.860832E-1	6.054425E-1	6.499846E-1	7.010557E-1	6.868873E-1	6.145186E-1	7.098501E-1	6.855154E-1	6.206230E-1	5.850265E-1	6.682038E-1	6.246975E-1	5.401080E-1	5.499702E-1	6.306118E-1	6.690092E-1	6.200385E-1	5.857536E-1	6.431375E-1	6.814865E-1	6.388823E-1	6.933442E-1	6.785148E-1	6.590546E-1	6.584667E-1	6.191454E-1	7.065379E-1	6.097580E-1	6.225359E-1	5.697609E-1	6.733108E-1	5.837470E-1	6.527943E-1	6.164419E-1	6.459205E-1	6.967925E-1	6.617492E-1	6.729495E-1	6.954020E-1	6.021210E-1	6.502514E-1	6.884105E-1	6.945570E-1	5.820779E-1	5.694284E-1	6.074742E-1	7.092761E-1	6.013093E-1	6.221203E-1	6.387303E-1	7.059575E-1	6.726322E-1	6.397813E-1	6.720473E-1	6.901194E-1	6.212086E-1	6.126288E-1	6.464832E-1	7.421040E-1	5.903320E-1	5.614934E-1	5.609612E-1	6.753243E-1	6.139578E-1	5.883549E-1	6.240668E-1	7.017445E-1	6.699107E-1	6.436702E-1	6.743834E-1	7.026091E-1	6.722285E-1	6.692741E-1	7.119633E-1	6.626517E-1	5.699256E-1	5.746263E-1	6.188448E-1	7.293726E-1	5.950425E-1	5.919742E-1	6.445545E-1	7.025141E-1	6.989173E-1	6.487950E-1	6.635272E-1	7.063324E-1	6.480366E-1	6.197147E-1	6.168573E-1	6.927120E-1	5.609598E-1	5.468697E-1	5.325279E-1	7.034808E-1	5.240311E-1	5.837562E-1	5.920599E-1	6.977238E-1	6.183770E-1	6.859584E-1	6.483427E-1	7.146518E-1	6.670374E-1	6.514217E-1	7.206005E-1	6.890757E-1	6.261402E-1	5.689442E-1	6.121078E-1	6.956522E-1	6.629839E-1	5.985835E-1	6.040524E-1	7.085005E-1	7.152399E-1	7.018312E-1	6.863074E-1	7.082777E-1	6.197429E-1	7.029173E-1	6.648543E-1	6.800960E-1	5.678666E-1	6.124751E-1	6.038776E-1	7.181511E-1	5.617794E-1	6.294254E-1	6.284080E-1	7.118700E-1	6.731751E-1	6.560289E-1	7.009827E-1	7.565914E-1	6.456122E-1	6.380687E-1	6.717939E-1	7.251124E-1	6.006545E-1	5.599580E-1	5.578224E-1	6.978701E-1	6.031072E-1	6.288514E-1	5.741743E-1	7.051968E-1	6.661231E-1	6.646422E-1	6.482682E-1	7.077330E-1	6.488148E-1	6.766959E-1	6.681821E-1	8.098446E-1
2.876170E+2	5.282924E-1	5.357577E-1	4.574767E-1	5.375291E-1	5.159102E-1	5.497808E-1	5.310817E-1	5.295414E-1	5.504138E-1	5.234626E-1	4.752977E-1	5.161236E-1	5.773477E-1	4.264595E-1	4.552179E-1	5.182964E-1	5.534523E-1	4.626697E-1	4.628723E-1	5.085404E-1	5.448420E-1	5.153090E-1	5.205757E-1	5.373108E-1	5.459809E-1	5.117725E-1	4.474881E-1	5.351788E-1	5.581506E-1	4.381239E-1	4.404669E-1	5.355840E-1	5.479699E-1	4.566896E-1	4.942941E-1	5.411510E-1	5.351274E-1	5.261662E-1	4.924457E-1	5.658921E-1	5.430001E-1	5.188902E-1	5.279260E-1	5.232170E-1	5.126452E-1	4.803749E-1	4.542152E-1	5.287106E-1	5.041084E-1	4.864156E-1	4.672946E-1	5.516773E-1	5.552611E-1	5.420743E-1	5.140897E-1	5.355665E-1	5.074789E-1	4.968498E-1	5.199240E-1	5.335968E-1	4.899961E-1	4.381457E-1	4.740406E-1	5.737448E-1	4.928804E-1	4.589165E-1	5.104033E-1	5.601416E-1	5.210005E-1	5.185955E-1	5.278067E-1	5.868549E-1	4.847888E-1	4.739814E-1	5.148071E-1	5.801228E-1	4.460712E-1	4.380937E-1	4.468162E-1	5.475135E-1	4.775068E-1	4.780036E-1	4.536137E-1	5.346554E-1	5.077046E-1	5.362713E-1	5.218925E-1	5.557990E-1	5.003315E-1	5.248368E-1	5.271203E-1	5.659011E-1	4.401745E-1	4.553363E-1	5.104298E-1	5.562646E-1	4.997044E-1	4.965922E-1	5.197553E-1	5.409278E-1	5.400076E-1	5.127966E-1	5.355441E-1	5.642188E-1	5.111397E-1	5.147103E-1	4.764695E-1	5.787581E-1	4.457907E-1	4.622122E-1	4.494425E-1	5.482593E-1	4.143751E-1	4.592573E-1	4.880998E-1	5.657415E-1	5.075227E-1	5.350713E-1	5.202753E-1	5.406314E-1	5.482130E-1	4.801092E-1	5.612270E-1	5.297720E-1	4.418162E-1	4.289035E-1	5.236677E-1	5.460440E-1	5.232275E-1	4.519408E-1	5.033767E-1	5.739628E-1	5.726751E-1	5.269199E-1	5.434251E-1	5.531038E-1	5.141270E-1	5.812139E-1	5.071162E-1	5.342487E-1	4.615574E-1	4.814361E-1	4.802662E-1	5.819635E-1	4.701156E-1	4.939901E-1	4.815379E-1	5.630383E-1	5.243088E-1	5.227562E-1	5.909284E-1	5.606267E-1	4.995563E-1	5.333804E-1	5.319160E-1	5.610403E-1	4.686605E-1	4.532758E-1	4.555604E-1	5.747733E-1	5.033083E-1	4.920622E-1	4.794871E-1	5.478387E-1	5.322797E-1	5.335750E-1	5.290401E-1	5.656903E-1	5.077447E-1	5.573688E-1	5.735023E-1	5.214502E-1
2.878020E+2	4.745964E-1	4.249611E-1	3.687808E-1	4.386947E-1	4.518316E-1	4.404319E-1	4.380733E-1	4.881282E-1	4.728773E-1	4.124830E-1	4.137291E-1	4.328032E-1	4.660756E-1	3.936546E-1	3.724124E-1	4.492890E-1	4.762100E-1	4.164552E-1	4.103715E-1	4.186393E-1	4.664800E-1	4.249238E-1	4.477329E-1	4.352872E-1	4.695550E-1	4.146603E-1	4.201758E-1	4.543324E-1	4.381783E-1	3.789538E-1	3.761337E-1	4.464949E-1	4.863292E-1	3.912491E-1	4.093679E-1	4.253816E-1	4.426636E-1	4.295522E-1	4.507960E-1	4.256079E-1	4.641494E-1	4.082629E-1	3.892931E-1	4.563525E-1	4.328065E-1	3.964770E-1	3.583859E-1	4.509682E-1	4.862304E-1	3.954187E-1	3.863576E-1	4.358751E-1	4.365227E-1	4.531873E-1	4.576059E-1	4.535455E-1	4.906172E-1	4.351616E-1	4.347819E-1	4.383461E-1	4.785512E-1	3.683727E-1	3.907703E-1	4.409567E-1	4.788701E-1	3.780684E-1	4.128521E-1	4.444531E-1	4.740535E-1	4.393584E-1	4.283975E-1	4.767410E-1	4.544119E-1	4.068069E-1	4.233210E-1	4.808816E-1	4.506261E-1	3.706947E-1	3.967605E-1	4.595139E-1	4.775065E-1	3.909427E-1	4.100320E-1	4.539058E-1	4.444445E-1	4.315051E-1	4.388525E-1	4.710811E-1	4.614955E-1	4.181752E-1	4.268456E-1	4.679712E-1	3.737900E-1	3.572099E-1	3.928105E-1	4.802267E-1	3.896582E-1	3.817228E-1	4.346115E-1	4.694563E-1	4.571885E-1	4.395669E-1	4.669080E-1	4.575069E-1	4.399286E-1	4.182773E-1	4.073385E-1	4.764210E-1	3.769825E-1	3.819333E-1	3.696246E-1	4.512464E-1	3.321326E-1	4.090300E-1	4.069882E-1	4.849097E-1	4.300321E-1	4.630451E-1	4.398359E-1	4.530905E-1	4.675134E-1	4.159367E-1	4.440755E-1	4.591648E-1	4.050603E-1	3.656299E-1	3.962708E-1	4.531459E-1	4.296409E-1	3.658431E-1	4.261289E-1	4.815933E-1	4.638179E-1	4.121344E-1	4.756615E-1	4.636010E-1	4.019102E-1	4.545174E-1	4.271126E-1	4.802310E-1	3.470696E-1	3.813228E-1	4.022219E-1	4.930473E-1	3.870275E-1	4.447960E-1	3.981641E-1	4.615620E-1	4.226182E-1	4.330012E-1	4.476399E-1	4.873975E-1	4.332225E-1	4.415674E-1	4.376506E-1	4.829989E-1	3.704831E-1	3.904360E-1	3.672204E-1	4.754128E-1	4.292440E-1	3.872425E-1	4.023538E-1	4.406024E-1	4.623278E-1	4.549344E-1	4.394816E-1	4.774358E-1	4.704238E-1	4.451813E-1	4.235930E-1	4.733849E-1
2.880020E+2	5.541206E-1	5.325183E-1	4.131288E-1	5.275838E-1	5.188235E-1	5.231666E-1	5.126960E-1	5.129765E-1	5.447863E-1	4.584054E-1	4.696540E-1	5.216783E-1	5.559878E-1	4.417062E-1	4.442332E-1	5.123656E-1	5.252071E-1	4.484902E-1	4.431245E-1	4.935572E-1	5.529831E-1	4.979468E-1	4.768703E-1	5.338099E-1	5.326642E-1	4.765559E-1	4.533409E-1	5.512342E-1	5.661175E-1	4.313893E-1	4.605423E-1	5.133119E-1	5.619790E-1	4.744452E-1	4.922842E-1	4.700359E-1	5.212823E-1	4.778589E-1	4.988158E-1	5.708320E-1	5.241200E-1	4.971783E-1	4.660824E-1	5.204310E-1	5.523306E-1	4.733837E-1	4.404598E-1	5.266374E-1	5.420318E-1	4.934153E-1	4.881653E-1	5.621486E-1	5.223961E-1	5.147629E-1	5.140898E-1	5.371440E-1	5.112861E-1	4.575439E-1	5.397105E-1	5.197307E-1	5.295340E-1	4.509984E-1	4.594933E-1	5.172272E-1	5.507498E-1	4.518859E-1	5.313074E-1	5.288091E-1	5.576939E-1	4.827057E-1	5.131873E-1	5.631463E-1	5.339437E-1	4.712942E-1	5.010580E-1	5.573086E-1	5.381956E-1	4.063766E-1	4.351204E-1	5.522283E-1	5.292448E-1	4.486136E-1	4.594246E-1	5.458355E-1	5.390647E-1	5.057363E-1	5.244084E-1	5.663231E-1	5.366209E-1	4.703951E-1	5.089982E-1	5.216557E-1	5.251665E-1	4.543743E-1	4.879288E-1	5.357720E-1	5.187726E-1	4.427471E-1	5.448312E-1	5.378200E-1	5.498425E-1	5.068183E-1	5.236744E-1	5.283110E-1	5.320117E-1	4.702438E-1	4.472212E-1	5.206751E-1	4.911753E-1	4.442100E-1	4.228366E-1	5.374807E-1	4.839643E-1	4.469671E-1	4.378335E-1	5.341665E-1	5.129037E-1	5.471632E-1	4.731755E-1	5.671589E-1	5.278790E-1	4.762027E-1	5.427921E-1	5.321057E-1	4.401699E-1	4.363477E-1	4.726040E-1	5.552258E-1	5.107493E-1	4.436084E-1	5.141409E-1	5.404950E-1	5.295742E-1	5.165345E-1	5.612852E-1	5.419824E-1	4.727211E-1	5.450150E-1	5.184641E-1	5.432517E-1	4.427967E-1	4.604701E-1	4.589379E-1	5.583275E-1	4.459931E-1	4.988485E-1	4.881635E-1	5.538131E-1	5.180187E-1	5.439708E-1	5.380809E-1	5.374199E-1	4.776477E-1	4.981103E-1	5.495528E-1	5.628842E-1	4.572064E-1	4.727613E-1	4.301144E-1	5.438610E-1	4.744356E-1	4.747671E-1	4.539528E-1	5.723169E-1	5.482523E-1	5.398666E-1	5.164025E-1	5.312244E-1	5.376001E-1	5.512497E-1	5.669269E-1	5.467481E-1
2.882150E+2	5.677141E-1	6.186925E-1	5.068141E-1	6.469303E-1	6.627105E-1	6.423504E-1	5.775862E-1	6.294867E-1	6.210721E-1	5.425968E-1	5.573894E-1	6.111707E-1	5.942373E-1	5.331896E-1	5.173217E-1	5.873039E-1	6.445297E-1	5.419697E-1	5.375288E-1	5.810609E-1	6.272740E-1	5.939490E-1	6.029640E-1	6.008252E-1	6.073529E-1	5.629956E-1	5.528367E-1	6.114386E-1	6.275092E-1	5.006614E-1	5.216822E-1	5.806230E-1	6.236197E-1	5.850347E-1	5.324862E-1	6.315611E-1	6.275905E-1	5.787349E-1	6.095549E-1	6.325767E-1	6.246272E-1	5.674836E-1	5.227728E-1	6.067977E-1	6.260989E-1	5.162650E-1	5.165733E-1	6.339216E-1	6.043344E-1	5.881814E-1	5.604478E-1	6.040349E-1	5.913068E-1	5.862694E-1	5.917545E-1	6.028654E-1	6.086481E-1	5.929307E-1	6.074654E-1	6.155838E-1	6.424252E-1	4.923111E-1	5.171809E-1	6.467224E-1	6.080102E-1	5.437827E-1	5.829867E-1	6.288314E-1	6.154329E-1	5.917734E-1	6.057746E-1	6.168863E-1	6.537947E-1	5.476040E-1	6.179267E-1	6.605437E-1	6.409498E-1	5.263074E-1	5.230688E-1	6.444193E-1	6.293081E-1	5.096118E-1	5.461038E-1	6.576425E-1	6.153014E-1	5.852329E-1	5.832912E-1	6.731421E-1	6.486719E-1	5.637237E-1	6.340389E-1	6.160465E-1	6.594445E-1	4.933362E-1	5.620802E-1	6.188209E-1	6.282746E-1	5.483859E-1	5.967336E-1	6.851127E-1	6.528488E-1	6.054550E-1	5.923111E-1	6.309764E-1	6.247091E-1	5.854277E-1	5.642118E-1	6.534368E-1	6.575843E-1	5.298411E-1	5.479318E-1	6.140132E-1	6.605748E-1	5.661234E-1	5.235149E-1	6.617287E-1	6.431308E-1	5.655639E-1	5.991267E-1	6.483334E-1	6.492452E-1	5.844593E-1	6.248574E-1	6.044639E-1	6.135227E-1	5.154409E-1	5.284057E-1	6.519038E-1	6.292925E-1	5.630340E-1	5.926551E-1	5.960508E-1	6.262752E-1	5.979775E-1	6.495360E-1	6.420773E-1	6.101418E-1	6.355123E-1	6.109507E-1	6.278791E-1	6.015392E-1	5.155062E-1	5.587961E-1	6.258589E-1	6.062717E-1	5.474349E-1	5.632551E-1	6.294592E-1	6.186610E-1	6.070716E-1	6.165354E-1	7.008959E-1	5.932754E-1	6.106368E-1	5.915158E-1	6.612044E-1	5.297484E-1	5.453438E-1	5.189339E-1	6.454303E-1	5.641918E-1	5.685804E-1	5.231068E-1	6.230210E-1	5.746907E-1	6.190315E-1	6.136540E-1	6.497671E-1	5.846241E-1	6.185618E-1	5.248486E-1	6.656467E-1
2.884200E+2	6.920989E-1	7.152346E-1	5.439551E-1	6.823620E-1	6.848465E-1	6.961572E-1	7.143955E-1	7.222527E-1	7.573863E-1	6.328020E-1	6.322979E-1	6.858511E-1	7.189218E-1	5.978747E-1	5.735111E-1	6.530761E-1	7.200434E-1	6.270463E-1	6.256719E-1	7.338928E-1	7.112329E-1	7.144624E-1	6.768117E-1	7.133510E-1	7.376239E-1	6.643768E-1	6.396521E-1	7.049004E-1	7.442009E-1	5.795551E-1	5.773464E-1	6.924789E-1	7.211237E-1	6.195306E-1	6.179146E-1	6.844837E-1	7.101651E-1	6.767698E-1	6.698241E-1	6.834545E-1	7.106964E-1	6.507130E-1	6.242993E-1	7.082096E-1	7.418878E-1	6.313918E-1	5.780145E-1	6.904144E-1	6.850566E-1	6.328716E-1	6.403664E-1	7.235328E-1	7.280684E-1	6.925369E-1	6.820275E-1	7.274739E-1	7.478923E-1	6.557103E-1	6.650263E-1	7.319335E-1	6.980900E-1	5.749371E-1	6.370702E-1	6.725123E-1	7.286228E-1	6.040425E-1	6.712475E-1	7.384953E-1	7.400843E-1	6.714768E-1	6.725343E-1	7.475471E-1	7.344321E-1	6.271387E-1	7.104710E-1	7.740442E-1	7.426918E-1	5.709097E-1	5.927723E-1	7.224671E-1	7.413115E-1	6.243989E-1	6.216453E-1	7.178944E-1	7.256011E-1	6.647291E-1	6.678410E-1	7.478627E-1	7.874628E-1	6.653857E-1	7.288767E-1	6.891993E-1	7.243207E-1	5.520190E-1	6.669155E-1	7.628075E-1	6.936489E-1	5.940263E-1	6.818780E-1	7.472616E-1	6.989176E-1	6.647361E-1	7.197780E-1	7.351596E-1	7.438031E-1	6.454305E-1	6.344058E-1	7.181579E-1	7.361529E-1	5.857934E-1	6.170138E-1	7.169547E-1	7.459800E-1	6.334490E-1	6.286175E-1	7.526641E-1	7.141640E-1	6.591453E-1	6.589267E-1	7.645241E-1	7.579032E-1	6.904834E-1	7.313052E-1	7.229200E-1	7.303712E-1	5.745275E-1	6.452732E-1	7.291387E-1	7.172644E-1	5.969173E-1	6.920642E-1	7.540158E-1	7.428684E-1	6.958183E-1	7.173001E-1	7.517047E-1	7.643648E-1	7.060386E-1	6.824435E-1	7.251105E-1	7.477753E-1	5.967503E-1	6.368410E-1	7.519169E-1	7.097294E-1	6.603992E-1	6.515979E-1	7.536900E-1	7.182541E-1	6.979146E-1	7.516513E-1	7.540127E-1	7.308112E-1	7.259620E-1	6.961209E-1	7.318720E-1	7.337392E-1	6.310789E-1	5.645441E-1	7.221582E-1	7.619056E-1	6.671109E-1	5.747061E-1	7.285091E-1	7.476418E-1	7.149719E-1	6.894762E-1	7.453321E-1	6.950926E-1	6.695565E-1	6.208420E-1	7.086531E-1
2.886040E+2	7.940527E-1	8.234391E-1	6.093678E-1	7.874124E-1	7.704799E-1	8.188124E-1	7.917216E-1	7.984542E-1	8.017820E-1	6.814582E-1	6.979711E-1	7.617650E-1	8.182722E-1	6.528568E-1	6.343474E-1	7.544306E-1	7.684636E-1	6.506787E-1	6.728746E-1	7.776445E-1	8.277576E-1	7.890165E-1	7.134846E-1	7.678636E-1	7.764161E-1	6.899887E-1	6.923262E-1	7.863201E-1	8.037179E-1	6.170774E-1	6.147606E-1	7.716687E-1	7.491418E-1	6.930879E-1	6.862578E-1	7.539449E-1	7.487328E-1	7.298128E-1	7.305837E-1	7.743431E-1	7.817725E-1	7.008571E-1	6.758360E-1	7.895618E-1	8.086530E-1	7.166883E-1	6.596296E-1	7.951063E-1	7.609030E-1	7.464836E-1	6.994144E-1	7.869772E-1	7.715343E-1	7.595747E-1	7.571708E-1	8.189585E-1	7.995646E-1	7.288626E-1	7.897423E-1	7.644874E-1	8.083802E-1	6.534317E-1	6.882366E-1	7.904851E-1	7.852735E-1	6.346747E-1	7.653153E-1	8.222497E-1	7.935062E-1	7.385955E-1	7.919232E-1	7.702015E-1	7.863492E-1	6.937748E-1	7.511897E-1	8.094064E-1	8.009027E-1	6.516888E-1	6.563945E-1	7.717050E-1	8.112427E-1	6.754154E-1	6.676485E-1	8.060978E-1	7.623679E-1	7.326433E-1	7.654755E-1	8.194261E-1	8.288457E-1	7.242722E-1	7.898872E-1	7.800504E-1	8.203763E-1	6.809301E-1	6.929958E-1	8.323745E-1	8.118677E-1	6.842800E-1	7.722702E-1	7.640416E-1	8.485097E-1	7.115637E-1	7.786095E-1	8.292276E-1	8.303621E-1	7.450779E-1	6.902421E-1	8.326645E-1	8.113050E-1	6.422317E-1	6.319506E-1	8.193575E-1	8.329674E-1	6.633721E-1	7.051598E-1	8.050784E-1	7.749726E-1	7.590364E-1	7.070843E-1	8.467593E-1	7.947577E-1	7.312190E-1	7.877991E-1	8.028642E-1	8.296650E-1	6.378014E-1	6.815969E-1	7.377808E-1	7.865181E-1	6.491308E-1	7.553822E-1	7.720876E-1	8.036516E-1	7.854606E-1	8.407462E-1	7.924843E-1	7.913684E-1	7.778125E-1	7.278358E-1	8.013352E-1	7.910686E-1	7.120642E-1	6.499292E-1	7.918726E-1	7.944249E-1	7.490697E-1	6.930081E-1	8.244160E-1	8.031714E-1	7.795105E-1	7.434796E-1	8.550894E-1	8.172270E-1	7.405184E-1	7.697086E-1	8.277343E-1	8.270078E-1	6.534869E-1	6.615250E-1	8.204147E-1	8.102366E-1	7.289544E-1	7.029061E-1	7.733850E-1	8.010695E-1	7.951853E-1	7.394746E-1	8.111316E-1	8.264601E-1	7.807244E-1	7.326179E-1	9.388634E-1
2.888230E+2	9.225146E-1	9.368267E-1	7.318796E-1	9.266512E-1	9.091238E-1	8.951833E-1	8.760784E-1	9.558256E-1	9.174614E-1	7.962641E-1	8.185434E-1	8.796483E-1	9.439495E-1	7.771449E-1	7.729192E-1	8.999930E-1	9.068088E-1	7.903724E-1	7.523482E-1	8.471684E-1	9.274900E-1	8.589760E-1	8.209906E-1	8.918918E-1	9.043717E-1	8.521975E-1	7.635342E-1	8.665934E-1	9.147857E-1	7.440768E-1	7.160508E-1	8.523438E-1	9.256582E-1	7.854151E-1	8.113865E-1	8.542782E-1	8.921258E-1	8.235850E-1	8.648427E-1	9.121575E-1	9.244810E-1	8.368152E-1	7.835472E-1	9.322068E-1	8.968947E-1	7.800776E-1	7.664635E-1	8.920248E-1	8.947183E-1	8.444793E-1	7.956224E-1	9.138667E-1	9.040544E-1	8.762701E-1	8.792157E-1	9.162265E-1	9.224907E-1	8.609739E-1	9.006671E-1	8.814398E-1	9.280342E-1	7.521229E-1	8.061199E-1	9.090060E-1	9.064947E-1	8.134457E-1	8.576404E-1	9.246817E-1	9.656443E-1	8.560527E-1	9.030274E-1	9.061313E-1	9.161418E-1	8.426331E-1	8.945003E-1	9.291810E-1	9.416207E-1	7.280087E-1	7.770888E-1	9.471824E-1	9.471250E-1	7.796675E-1	7.872559E-1	8.539264E-1	9.337657E-1	8.158249E-1	8.902867E-1	9.020386E-1	9.447167E-1	8.053788E-1	8.841205E-1	9.009880E-1	9.204557E-1	7.530811E-1	8.341394E-1	9.256694E-1	9.077499E-1	7.586380E-1	8.649953E-1	9.504876E-1	9.437518E-1	8.635034E-1	9.081411E-1	9.268360E-1	9.291977E-1	8.163311E-1	8.162723E-1	9.250446E-1	9.313544E-1	7.648395E-1	7.225039E-1	9.072084E-1	9.204814E-1	8.039005E-1	7.919840E-1	9.023288E-1	9.084285E-1	8.725959E-1	8.700798E-1	9.417282E-1	9.447183E-1	8.528683E-1	9.025718E-1	9.096497E-1	9.289587E-1	7.364349E-1	8.095195E-1	8.733464E-1	9.081811E-1	7.407829E-1	8.566906E-1	9.293842E-1	9.174826E-1	9.018860E-1	9.641917E-1	9.068786E-1	9.299896E-1	8.651891E-1	8.730910E-1	8.979667E-1	9.291267E-1	7.639557E-1	7.914761E-1	8.965460E-1	9.429111E-1	8.110179E-1	8.293875E-1	9.185120E-1	9.420781E-1	8.676339E-1	8.818641E-1	9.200668E-1	9.030348E-1	8.508048E-1	8.347821E-1	8.861122E-1	9.082769E-1	7.962165E-1	7.162575E-1	8.949355E-1	9.050135E-1	8.049484E-1	7.635481E-1	8.753766E-1	9.007634E-1	8.722529E-1	8.718897E-1	9.098304E-1	9.369287E-1	8.857728E-1	8.141471E-1	8.756191E-1
2.890230E+2	9.157180E-1	9.044298E-1	6.598141E-1	8.644911E-1	8.730068E-1	8.107131E-1	8.079444E-1	8.553284E-1	8.630603E-1	7.782227E-1	7.744191E-1	8.148430E-1	9.116614E-1	6.939777E-1	6.930719E-1	8.191250E-1	8.405186E-1	7.882713E-1	7.056272E-1	8.213964E-1	8.389519E-1	8.053574E-1	7.797967E-1	8.143743E-1	8.812119E-1	7.625559E-1	7.518284E-1	8.677403E-1	8.529253E-1	6.964521E-1	6.914130E-1	8.216577E-1	8.640171E-1	7.458469E-1	7.556060E-1	8.046625E-1	8.609750E-1	8.089036E-1	8.344631E-1	8.637500E-1	8.267510E-1	7.778832E-1	7.170650E-1	8.770435E-1	8.385340E-1	7.521121E-1	6.926425E-1	8.764763E-1	8.389168E-1	7.303299E-1	7.462458E-1	8.202399E-1	8.802015E-1	8.166806E-1	8.358445E-1	8.741645E-1	8.621158E-1	8.140259E-1	8.413069E-1	8.518999E-1	8.609239E-1	7.048426E-1	7.544521E-1	8.442580E-1	8.260871E-1	7.356100E-1	8.094453E-1	8.861187E-1	8.717513E-1	7.861374E-1	8.796370E-1	8.745198E-1	8.824506E-1	7.066728E-1	8.278688E-1	8.778484E-1	8.823977E-1	6.774591E-1	6.868018E-1	8.748966E-1	8.857225E-1	7.269864E-1	7.368948E-1	8.321859E-1	8.618547E-1	8.368834E-1	8.575738E-1	8.773078E-1	8.288458E-1	7.753810E-1	8.291515E-1	8.449439E-1	8.359668E-1	6.953598E-1	7.461808E-1	8.712028E-1	8.805104E-1	7.370994E-1	8.294209E-1	8.970398E-1	8.547215E-1	7.837970E-1	8.322795E-1	9.015488E-1	8.923645E-1	8.034735E-1	7.524594E-1	8.658552E-1	8.644982E-1	7.030487E-1	6.510878E-1	8.463055E-1	8.862141E-1	7.376431E-1	7.542836E-1	8.802259E-1	8.739888E-1	8.194963E-1	7.801157E-1	8.610840E-1	8.888007E-1	8.394755E-1	8.359677E-1	8.221205E-1	8.488651E-1	6.875836E-1	7.579298E-1	8.339185E-1	9.063094E-1	7.313404E-1	8.035040E-1	8.363453E-1	8.362539E-1	7.936598E-1	8.643841E-1	8.994638E-1	8.645800E-1	8.502110E-1	8.050026E-1	8.493515E-1	8.459073E-1	7.403687E-1	7.585134E-1	8.841651E-1	8.491020E-1	7.891536E-1	7.995722E-1	8.957562E-1	8.398638E-1	8.284678E-1	8.355540E-1	8.767482E-1	8.178358E-1	8.032191E-1	8.159290E-1	8.701355E-1	8.400980E-1	7.109685E-1	7.162573E-1	9.170156E-1	9.169388E-1	7.604004E-1	7.582289E-1	8.287517E-1	8.302618E-1	8.240203E-1	8.427690E-1	8.764092E-1	8.936371E-1	8.969916E-1	7.720673E-1	9.211549E-1
2.892010E+2	7.498724E-1	7.016275E-1	5.628025E-1	7.153072E-1	7.407701E-1	7.528562E-1	7.527880E-1	7.128662E-1	7.361265E-1	6.699775E-1	6.128008E-1	7.160928E-1	7.472370E-1	6.140459E-1	5.836503E-1	7.042924E-1	7.523234E-1	6.364991E-1	5.909930E-1	7.165118E-1	7.555016E-1	7.277389E-1	7.064513E-1	7.158514E-1	7.822060E-1	7.081305E-1	6.308730E-1	7.335691E-1	7.221747E-1	6.214073E-1	6.143038E-1	6.820851E-1	7.356928E-1	6.317059E-1	6.249500E-1	6.839323E-1	7.373606E-1	6.961874E-1	7.060842E-1	7.279107E-1	7.695566E-1	6.563994E-1	6.449141E-1	7.249257E-1	7.409540E-1	6.663496E-1	5.949796E-1	7.069986E-1	7.294811E-1	6.861776E-1	6.373125E-1	7.303084E-1	7.148151E-1	7.004823E-1	6.704283E-1	7.563917E-1	7.245035E-1	7.086640E-1	7.016012E-1	7.307279E-1	7.417904E-1	6.098233E-1	6.395787E-1	7.400037E-1	7.791824E-1	6.145877E-1	6.724087E-1	7.318670E-1	7.357678E-1	7.041036E-1	7.198029E-1	7.222572E-1	7.377457E-1	6.599196E-1	6.946061E-1	7.740448E-1	7.791368E-1	6.120427E-1	6.161626E-1	7.324193E-1	7.617798E-1	6.415896E-1	6.143815E-1	7.123040E-1	7.456069E-1	7.210608E-1	6.909915E-1	7.468103E-1	7.390770E-1	7.109392E-1	7.282727E-1	7.452440E-1	7.479572E-1	5.717401E-1	6.357208E-1	7.460904E-1	7.595678E-1	6.283840E-1	7.296982E-1	7.478832E-1	7.455032E-1	7.070803E-1	7.099731E-1	7.649983E-1	7.229313E-1	6.759676E-1	6.524857E-1	7.325405E-1	7.390813E-1	5.862796E-1	5.862069E-1	7.315069E-1	7.438711E-1	6.254344E-1	6.217630E-1	7.444549E-1	7.410705E-1	6.912162E-1	7.076142E-1	7.809708E-1	7.814134E-1	6.860191E-1	7.229790E-1	7.264210E-1	8.033326E-1	6.108171E-1	6.447466E-1	7.696462E-1	7.203834E-1	6.030275E-1	6.692694E-1	7.131859E-1	7.655243E-1	7.258815E-1	7.540712E-1	7.591191E-1	7.499624E-1	7.104072E-1	6.847137E-1	7.161079E-1	7.622065E-1	6.072334E-1	6.455665E-1	7.299693E-1	7.408201E-1	7.035200E-1	6.416589E-1	7.247844E-1	7.056743E-1	7.104262E-1	7.233207E-1	7.385421E-1	7.697594E-1	6.800560E-1	7.289612E-1	7.884065E-1	7.321029E-1	6.028254E-1	5.722256E-1	7.387187E-1	7.656720E-1	6.634421E-1	6.411997E-1	7.483245E-1	7.779357E-1	7.474771E-1	7.339801E-1	7.233995E-1	7.846613E-1	7.746054E-1	6.773879E-1	7.364798E-1
2.894050E+2	6.139335E-1	6.076784E-1	5.206723E-1	5.829058E-1	6.015437E-1	6.030085E-1	6.019198E-1	6.228605E-1	5.998124E-1	5.923463E-1	5.496931E-1	6.093195E-1	5.927472E-1	6.343757E-1	5.050700E-1	5.662778E-1	6.110962E-1	5.808318E-1	5.235607E-1	5.756669E-1	6.008145E-1	6.342903E-1	5.622722E-1	5.763196E-1	5.946153E-1	5.592608E-1	5.499108E-1	6.022647E-1	6.101696E-1	5.478056E-1	5.061692E-1	5.885424E-1	6.331455E-1	5.977170E-1	5.043447E-1	5.753303E-1	5.934727E-1	5.697368E-1	5.546752E-1	5.979997E-1	6.079686E-1	5.586955E-1	5.392644E-1	6.190564E-1	5.976186E-1	5.265189E-1	4.780584E-1	5.820933E-1	6.032507E-1	5.289523E-1	5.365233E-1	5.941793E-1	6.114498E-1	5.793173E-1	5.735991E-1	6.065461E-1	6.178951E-1	5.470732E-1	5.834811E-1	6.017181E-1	5.940435E-1	4.822124E-1	5.452722E-1	5.797801E-1	5.879086E-1	4.875397E-1	5.498886E-1	6.113580E-1	6.461913E-1	5.754598E-1	6.135717E-1	6.427015E-1	6.355686E-1	5.153605E-1	5.539400E-1	6.314549E-1	6.050110E-1	4.985547E-1	5.141800E-1	6.308003E-1	6.224857E-1	5.018487E-1	5.180179E-1	5.986338E-1	6.007032E-1	5.662798E-1	6.119778E-1	5.936856E-1	6.276625E-1	5.448359E-1	6.020233E-1	5.611816E-1	6.192115E-1	5.019944E-1	5.303742E-1	6.242133E-1	6.484312E-1	4.919767E-1	5.949844E-1	5.862959E-1	6.264504E-1	5.939970E-1	6.222423E-1	6.208619E-1	6.271643E-1	5.072102E-1	5.445357E-1	6.075228E-1	6.292802E-1	5.201099E-1	4.942531E-1	6.172466E-1	6.010017E-1	5.020038E-1	5.166602E-1	6.131036E-1	6.183774E-1	5.545239E-1	5.356225E-1	6.435584E-1	6.079430E-1	5.504201E-1	6.046381E-1	5.677015E-1	5.828024E-1	5.289325E-1	5.536742E-1	5.611667E-1	6.024646E-1	4.747149E-1	5.533984E-1	6.542840E-1	6.124609E-1	5.690079E-1	6.153912E-1	6.150675E-1	6.317442E-1	5.837104E-1	5.979005E-1	5.864657E-1	6.135653E-1	5.097408E-1	5.243792E-1	6.112268E-1	6.298581E-1	5.875187E-1	5.477945E-1	6.276142E-1	6.181368E-1	5.755212E-1	6.138113E-1	6.116806E-1	6.133579E-1	5.921622E-1	5.854346E-1	6.175748E-1	6.208351E-1	4.961435E-1	5.290162E-1	6.172777E-1	6.206816E-1	5.408032E-1	4.965093E-1	6.166106E-1	6.253644E-1	5.985845E-1	5.510176E-1	5.855346E-1	6.152268E-1	5.940854E-1	6.050623E-1	6.378192E-1
2.896110E+2	5.507222E-1	5.383495E-1	4.547050E-1	5.543123E-1	5.304737E-1	5.260597E-1	5.375708E-1	5.455551E-1	5.691732E-1	5.611847E-1	4.747846E-1	5.247648E-1	5.346275E-1	5.461266E-1	4.581750E-1	4.848703E-1	5.690165E-1	5.430199E-1	4.566110E-1	5.343123E-1	5.692663E-1	5.760762E-1	5.256000E-1	5.113048E-1	5.552439E-1	5.384512E-1	4.806534E-1	5.518074E-1	5.623686E-1	5.689715E-1	4.637362E-1	5.157863E-1	5.939199E-1	5.926442E-1	4.681631E-1	4.998048E-1	5.262271E-1	5.512667E-1	5.443854E-1	5.115570E-1	5.163463E-1	5.333649E-1	4.882431E-1	5.549779E-1	5.429930E-1	5.666038E-1	4.468793E-1	5.256009E-1	5.371559E-1	5.451061E-1	4.810385E-1	5.307347E-1	5.446590E-1	5.564751E-1	5.630083E-1	5.602781E-1	5.798205E-1	5.296044E-1	5.445077E-1	5.233477E-1	5.284939E-1	5.313289E-1	4.710309E-1	5.474061E-1	5.830352E-1	5.322327E-1	4.982098E-1	5.529113E-1	5.711843E-1	5.409687E-1	5.546082E-1	5.647269E-1	5.632162E-1	5.277203E-1	5.306717E-1	5.721385E-1	5.736279E-1	4.217393E-1	4.865795E-1	5.480377E-1	5.588092E-1	4.702404E-1	4.812155E-1	5.458358E-1	5.558258E-1	5.446951E-1	5.183690E-1	5.731636E-1	5.639970E-1	5.087264E-1	5.210792E-1	5.552823E-1	5.402542E-1	4.375386E-1	4.971336E-1	5.390079E-1	5.307581E-1	4.642851E-1	5.594106E-1	5.477643E-1	5.798644E-1	5.232580E-1	5.721845E-1	5.399431E-1	5.375368E-1	4.670300E-1	4.881678E-1	5.732267E-1	5.887759E-1	4.549137E-1	4.396404E-1	5.671228E-1	5.862405E-1	4.982634E-1	4.663937E-1	5.682672E-1	5.645645E-1	5.003728E-1	5.022822E-1	5.554867E-1	5.355045E-1	5.074523E-1	5.695520E-1	5.490283E-1	5.619557E-1	4.568189E-1	4.983986E-1	5.422634E-1	5.201082E-1	4.691603E-1	5.160404E-1	5.759705E-1	5.572031E-1	5.285597E-1	5.602345E-1	5.499258E-1	5.231285E-1	5.362773E-1	5.133576E-1	5.360491E-1	5.577648E-1	4.431729E-1	4.952938E-1	5.532629E-1	6.025195E-1	5.286077E-1	5.014151E-1	5.691882E-1	5.898313E-1	5.499551E-1	5.631430E-1	5.967248E-1	5.938835E-1	5.249823E-1	5.373895E-1	5.837765E-1	5.842918E-1	4.742221E-1	4.229132E-1	5.482770E-1	5.547771E-1	4.747668E-1	4.683160E-1	5.734827E-1	5.493537E-1	5.524488E-1	5.372814E-1	5.463682E-1	5.234188E-1	5.665478E-1	5.274779E-1	5.872250E-1
2.898020E+2	5.874254E-1	6.219327E-1	4.807592E-1	5.947165E-1	6.102817E-1	6.111082E-1	5.548749E-1	6.140253E-1	5.841801E-1	6.016400E-1	5.614937E-1	5.895694E-1	6.170882E-1	6.237489E-1	4.995777E-1	6.137208E-1	5.978382E-1	5.892342E-1	5.221162E-1	5.660772E-1	6.176059E-1	6.281623E-1	5.512202E-1	5.808205E-1	6.391969E-1	6.147535E-1	5.143065E-1	5.747425E-1	6.303215E-1	5.911004E-1	4.806181E-1	5.519169E-1	6.135329E-1	6.088776E-1	5.269579E-1	5.753303E-1	5.914953E-1	6.313043E-1	5.742751E-1	5.856505E-1	6.135213E-1	6.021194E-1	5.372028E-1	5.750374E-1	6.181619E-1	6.341885E-1	4.766827E-1	6.023063E-1	5.972911E-1	5.957193E-1	5.314331E-1	5.923309E-1	5.992574E-1	6.637354E-1	5.998239E-1	5.918243E-1	6.472666E-1	6.229558E-1	5.858800E-1	6.155837E-1	6.049682E-1	6.079870E-1	5.066465E-1	6.006315E-1	5.879085E-1	5.849606E-1	5.394365E-1	6.209989E-1	6.014028E-1	5.796548E-1	6.082115E-1	5.836937E-1	6.068486E-1	6.228392E-1	5.470651E-1	6.633953E-1	5.817273E-1	6.155118E-1	4.884508E-1	6.302766E-1	6.059978E-1	6.293897E-1	5.044584E-1	6.091931E-1	6.050284E-1	6.268234E-1	5.883241E-1	6.121026E-1	6.473990E-1	5.642790E-1	5.748405E-1	5.759305E-1	6.262525E-1	5.467284E-1	4.858837E-1	6.441668E-1	5.852364E-1	5.724878E-1	5.780726E-1	5.887819E-1	6.088510E-1	5.920048E-1	5.690875E-1	6.107470E-1	6.197982E-1	5.672126E-1	5.450679E-1	6.340756E-1	5.868243E-1	4.738888E-1	4.853842E-1	6.064670E-1	6.215618E-1	5.538335E-1	4.995237E-1	6.453098E-1	6.135338E-1	5.702953E-1	5.800753E-1	6.117251E-1	5.926928E-1	5.788792E-1	6.046379E-1	6.097156E-1	6.074883E-1	5.028787E-1	5.341964E-1	6.011341E-1	6.211817E-1	5.202629E-1	5.793581E-1	5.967199E-1	6.284853E-1	5.739270E-1	6.090876E-1	6.171855E-1	6.119416E-1	6.005615E-1	5.757720E-1	6.380827E-1	6.255913E-1	5.375208E-1	5.127450E-1	5.729596E-1	6.234256E-1	5.310375E-1	5.367519E-1	6.423739E-1	6.102739E-1	5.994561E-1	6.116323E-1	6.405593E-1	6.145752E-1	5.406576E-1	5.921244E-1	5.751739E-1	5.853825E-1	4.849390E-1	4.819658E-1	6.134138E-1	6.426498E-1	5.402789E-1	5.411936E-1	6.055370E-1	5.647761E-1	5.791864E-1	5.718960E-1	5.855345E-1	6.189592E-1	6.206015E-1	5.564072E-1	6.605877E-1
2.900050E+2	6.030585E-1	5.966634E-1	6.370860E-1	5.959593E-1	6.166900E-1	6.145795E-1	6.305791E-1	6.565437E-1	6.273255E-1	6.579500E-1	5.625199E-1	6.198115E-1	6.454035E-1	6.214381E-1	5.274611E-1	5.824516E-1	6.347304E-1	6.181181E-1	5.225975E-1	6.236143E-1	6.069201E-1	6.245877E-1	6.009542E-1	6.153288E-1	6.212488E-1	5.886082E-1	5.225976E-1	6.309340E-1	6.317269E-1	6.295852E-1	5.116441E-1	6.088345E-1	6.040066E-1	6.722892E-1	5.475615E-1	5.946251E-1	6.068232E-1	6.355669E-1	6.173949E-1	6.093603E-1	6.113002E-1	6.522637E-1	5.449332E-1	5.995541E-1	5.971518E-1	6.402478E-1	4.821849E-1	6.137088E-1	6.281715E-1	5.946426E-1	5.467040E-1	6.471524E-1	6.077391E-1	6.096084E-1	5.942761E-1	6.249480E-1	6.353006E-1	6.327822E-1	5.990705E-1	5.974982E-1	6.148525E-1	6.332340E-1	5.728616E-1	6.105084E-1	6.536969E-1	5.955055E-1	5.771801E-1	6.384727E-1	6.192107E-1	6.253327E-1	5.848209E-1	6.321646E-1	6.742305E-1	6.061802E-1	5.988898E-1	6.479960E-1	6.045051E-1	6.115470E-1	5.291503E-1	6.260859E-1	6.492074E-1	6.016630E-1	5.398087E-1	6.234798E-1	6.093538E-1	6.589380E-1	5.863113E-1	6.199960E-1	6.372123E-1	6.148324E-1	6.050444E-1	6.284351E-1	6.011066E-1	6.236899E-1	5.472502E-1	5.994069E-1	6.141098E-1	6.258201E-1	6.095638E-1	6.192352E-1	6.450846E-1	6.119309E-1	6.062444E-1	6.410917E-1	6.333038E-1	6.068576E-1	5.440042E-1	5.970129E-1	6.400164E-1	5.877394E-1	5.255266E-1	6.043122E-1	6.115457E-1	6.008546E-1	5.440785E-1	6.686749E-1	6.350591E-1	6.333847E-1	5.790170E-1	6.398446E-1	6.365368E-1	5.532100E-1	5.903661E-1	6.377245E-1	6.157168E-1	5.112531E-1	5.478836E-1	6.221980E-1	6.292920E-1	5.258178E-1	6.002535E-1	6.221552E-1	6.605346E-1	5.504233E-1	6.484855E-1	6.362513E-1	6.101418E-1	6.036818E-1	6.166249E-1	6.854976E-1	6.520487E-1	5.317553E-1	5.229248E-1	6.382396E-1	6.957922E-1	6.251739E-1	5.809232E-1	6.263835E-1	6.480148E-1	6.179512E-1	5.903837E-1	6.761422E-1	6.212690E-1	5.882433E-1	5.817855E-1	6.655059E-1	6.448342E-1	5.399850E-1	5.141329E-1	6.608864E-1	6.156600E-1	5.528573E-1	5.449166E-1	6.218555E-1	6.303217E-1	5.854774E-1	5.817861E-1	6.194785E-1	6.406045E-1	6.063237E-1	5.800781E-1	7.263611E-1
2.905110E+2	6.309257E-1	5.934235E-1	6.104775E-1	5.940944E-1	5.992137E-1	5.868089E-1	5.997564E-1	5.963559E-1	5.773020E-1	6.420955E-1	5.209609E-1	6.093195E-1	5.738708E-1	6.094257E-1	4.590198E-1	5.452522E-1	6.214723E-1	5.923850E-1	4.720236E-1	5.756663E-1	6.130264E-1	6.097795E-1	5.662914E-1	5.948240E-1	5.922996E-1	5.816719E-1	5.084538E-1	5.850637E-1	6.293836E-1	5.886948E-1	5.098194E-1	5.776535E-1	6.028862E-1	6.281544E-1	5.385162E-1	5.554842E-1	6.221518E-1	6.043097E-1	5.948553E-1	5.866383E-1	6.018604E-1	5.897122E-1	5.356569E-1	5.778231E-1	5.906158E-1	6.062227E-1	4.858533E-1	5.665450E-1	5.842891E-1	6.172569E-1	5.273607E-1	6.175858E-1	6.077390E-1	5.882557E-1	5.645213E-1	6.028652E-1	6.222464E-1	5.803741E-1	5.762861E-1	5.655473E-1	5.768758E-1	6.212993E-1	5.352390E-1	5.622218E-1	5.970456E-1	5.985192E-1	5.609216E-1	5.848461E-1	6.316213E-1	5.908413E-1	6.018764E-1	5.900163E-1	6.173424E-1	6.002688E-1	5.433635E-1	6.268927E-1	6.141225E-1	6.011398E-1	4.842406E-1	6.088000E-1	6.094094E-1	6.094270E-1	5.117222E-1	6.172679E-1	5.823193E-1	6.189266E-1	5.752389E-1	5.784258E-1	6.200231E-1	5.859449E-1	5.971910E-1	5.948089E-1	5.960773E-1	6.131075E-1	5.114531E-1	5.880815E-1	6.217369E-1	6.124872E-1	5.588281E-1	5.757309E-1	5.969460E-1	6.348464E-1	6.212103E-1	6.158044E-1	5.737558E-1	6.186436E-1	5.301784E-1	5.981194E-1	6.131762E-1	6.378529E-1	4.485092E-1	5.865256E-1	6.115458E-1	5.987177E-1	5.046647E-1	6.396260E-1	6.140723E-1	6.349616E-1	5.456772E-1	6.260499E-1	6.111196E-1	5.878075E-1	6.064221E-1	5.939601E-1	6.129743E-1	6.038383E-1	5.020840E-1	5.908726E-1	5.899868E-1	5.846969E-1	5.736600E-1	5.706160E-1	5.947783E-1	6.307738E-1	6.085621E-1	6.193039E-1	6.023401E-1	6.205335E-1	5.405928E-1	6.194762E-1	5.837410E-1	5.155064E-1	5.345586E-1	6.264215E-1	5.923348E-1	5.820534E-1	5.323350E-1	6.202334E-1	5.893067E-1	6.103358E-1	6.252522E-1	6.209629E-1	6.255291E-1	5.641708E-1	6.030715E-1	6.329374E-1	6.039272E-1	5.131933E-1	4.910879E-1	6.051335E-1	6.137770E-1	5.077850E-1	5.082118E-1	5.717342E-1	5.818511E-1	5.975353E-1	5.746434E-1	5.954566E-1	5.779064E-1	6.308002E-1	5.314235E-1	6.403488E-1
2.910060E+2	6.506372E-1	6.433144E-1	6.498361E-1	5.978244E-1	6.376608E-1	6.469790E-1	6.608609E-1	6.256213E-1	6.173208E-1	6.464692E-1	5.635461E-1	6.228981E-1	6.434162E-1	6.403822E-1	5.130970E-1	6.142596E-1	6.266604E-1	6.165427E-1	5.341579E-1	6.152232E-1	6.125176E-1	6.485881E-1	5.838743E-1	6.128279E-1	6.368812E-1	6.478355E-1	5.455214E-1	5.988246E-1	6.471921E-1	6.671077E-1	5.267010E-1	6.098245E-1	6.292229E-1	6.844642E-1	5.390187E-1	6.039967E-1	6.152296E-1	6.114139E-1	6.218048E-1	6.187460E-1	6.312902E-1	6.315859E-1	5.320491E-1	6.558320E-1	6.513107E-1	6.295273E-1	4.808095E-1	6.318482E-1	6.433410E-1	6.511787E-1	5.879360E-1	6.255933E-1	6.443151E-1	6.334444E-1	6.179791E-1	6.091746E-1	6.391080E-1	6.213181E-1	5.672919E-1	6.891312E-1	6.387835E-1	6.029382E-1	5.904189E-1	6.148978E-1	6.348130E-1	6.492373E-1	5.795023E-1	6.216008E-1	6.639985E-1	6.262648E-1	5.955413E-1	6.474435E-1	6.388825E-1	6.599193E-1	6.232152E-1	6.286034E-1	6.100726E-1	6.244323E-1	5.296184E-1	6.512285E-1	6.827518E-1	6.210720E-1	5.669264E-1	6.365237E-1	6.688294E-1	6.273500E-1	5.983894E-1	6.457797E-1	6.391222E-1	6.087219E-1	6.249778E-1	6.302048E-1	6.292699E-1	6.515884E-1	5.477616E-1	6.776016E-1	6.549685E-1	6.417172E-1	6.037319E-1	6.198564E-1	6.808002E-1	6.473004E-1	6.237905E-1	6.663789E-1	6.339173E-1	6.197154E-1	5.764424E-1	6.379479E-1	6.673447E-1	6.290950E-1	5.180581E-1	6.711428E-1	6.721731E-1	6.452043E-1	5.269419E-1	6.345744E-1	6.625042E-1	6.686089E-1	5.779588E-1	6.663715E-1	6.212869E-1	6.687207E-1	6.355614E-1	6.085489E-1	6.305286E-1	6.280317E-1	5.399869E-1	6.524435E-1	6.492585E-1	6.674616E-1	5.546644E-1	6.168006E-1	6.306957E-1	6.657558E-1	5.980562E-1	6.346623E-1	6.257434E-1	6.785773E-1	6.103833E-1	6.332806E-1	6.866830E-1	6.575519E-1	5.893356E-1	6.399276E-1	6.491559E-1	6.330688E-1	5.709849E-1	6.134691E-1	6.584979E-1	6.571169E-1	6.819139E-1	6.792369E-1	6.620433E-1	6.464663E-1	5.994223E-1	6.820975E-1	6.661063E-1	6.520256E-1	5.328571E-1	6.515020E-1	6.294685E-1	6.409058E-1	5.592794E-1	6.259349E-1	6.650219E-1	6.693608E-1	5.960717E-1	6.664777E-1	6.868822E-1	6.532383E-1	6.182125E-1	6.074617E-1
2.915140E+2	7.587082E-1	7.262488E-1	7.174670E-1	7.538464E-1	7.471786E-1	7.366564E-1	7.776624E-1	7.647711E-1	7.661404E-1	7.394079E-1	7.051544E-1	7.512725E-1	7.353148E-1	7.272450E-1	6.043517E-1	6.978234E-1	7.465588E-1	7.368056E-1	6.593884E-1	7.039255E-1	7.549929E-1	7.614417E-1	7.295599E-1	7.343555E-1	7.370450E-1	7.534849E-1	6.591611E-1	7.582248E-1	7.741935E-1	7.546606E-1	6.485236E-1	7.464271E-1	7.351326E-1	7.351935E-1	6.520863E-1	6.899963E-1	7.175825E-1	7.373905E-1	7.222540E-1	7.432236E-1	7.140280E-1	7.665103E-1	6.382142E-1	7.711739E-1	7.498251E-1	7.674935E-1	6.073593E-1	7.479425E-1	7.088939E-1	7.701748E-1	6.505473E-1	7.327720E-1	7.360190E-1	7.848998E-1	7.420415E-1	7.343087E-1	7.391895E-1	7.217656E-1	7.022016E-1	7.397699E-1	7.412697E-1	7.567132E-1	6.370704E-1	7.432956E-1	7.493336E-1	7.536878E-1	7.281527E-1	7.216239E-1	7.665260E-1	7.330020E-1	7.427062E-1	7.591377E-1	7.896628E-1	7.507389E-1	7.035962E-1	7.734742E-1	7.548403E-1	7.651769E-1	6.161628E-1	7.580862E-1	7.464282E-1	7.846581E-1	6.332674E-1	7.359077E-1	7.126251E-1	7.463312E-1	7.116255E-1	7.852226E-1	7.951028E-1	7.370491E-1	7.373335E-1	7.847695E-1	7.514772E-1	7.973343E-1	6.781657E-1	7.531003E-1	7.590229E-1	7.945343E-1	6.912087E-1	7.453968E-1	7.382564E-1	7.265085E-1	7.579668E-1	7.690445E-1	7.603788E-1	7.429350E-1	6.833288E-1	7.397318E-1	7.864171E-1	7.327280E-1	5.483983E-1	7.676174E-1	7.628504E-1	7.515364E-1	6.857383E-1	7.431917E-1	7.652863E-1	8.074040E-1	6.975589E-1	7.815011E-1	7.261319E-1	7.663745E-1	7.735268E-1	7.427597E-1	7.385999E-1	7.848215E-1	6.894932E-1	7.669457E-1	7.372295E-1	7.918860E-1	7.053606E-1	8.109104E-1	7.373426E-1	6.908994E-1	7.645770E-1	7.580603E-1	7.403610E-1	7.703232E-1	7.363464E-1	7.713259E-1	7.333442E-1	7.555692E-1	6.562308E-1	7.367226E-1	7.300993E-1	7.600024E-1	6.814134E-1	8.281060E-1	7.151096E-1	7.332731E-1	7.549202E-1	7.973310E-1	7.344628E-1	7.449964E-1	6.961204E-1	7.244979E-1	7.561022E-1	7.489645E-1	5.717454E-1	7.552784E-1	7.845020E-1	7.394362E-1	6.513065E-1	7.663921E-1	7.129414E-1	7.899429E-1	7.334310E-1	7.432440E-1	7.764512E-1	7.980629E-1	6.550323E-1	7.820164E-1
2.920010E+2	6.683090E-1	6.692313E-1	6.487276E-1	6.481740E-1	6.842639E-1	6.585504E-1	6.765430E-1	6.742129E-1	6.267001E-1	6.541234E-1	5.625201E-1	6.235145E-1	6.359646E-1	6.565530E-1	5.038020E-1	6.681712E-1	6.376124E-1	6.249454E-1	5.799151E-1	5.858555E-1	6.644193E-1	6.542058E-1	6.336082E-1	6.793433E-1	6.866732E-1	6.723808E-1	5.874652E-1	6.217602E-1	6.846836E-1	7.036680E-1	5.435828E-1	5.939870E-1	6.090499E-1	6.798987E-1	5.631402E-1	6.128171E-1	6.439079E-1	6.611412E-1	6.237646E-1	6.715996E-1	6.807107E-1	6.548483E-1	5.516329E-1	6.424594E-1	6.429071E-1	6.379174E-1	5.266604E-1	6.556892E-1	6.736795E-1	6.689475E-1	5.629934E-1	6.711756E-1	6.512061E-1	6.602593E-1	6.366386E-1	6.370410E-1	6.673922E-1	6.344194E-1	6.176580E-1	6.469314E-1	6.746799E-1	6.901540E-1	5.838976E-1	6.280668E-1	6.640521E-1	6.522506E-1	6.091167E-1	6.872784E-1	6.440326E-1	6.789341E-1	6.311143E-1	6.384872E-1	6.930088E-1	6.529333E-1	6.099948E-1	7.027497E-1	6.601847E-1	7.002558E-1	5.380388E-1	6.585623E-1	6.702441E-1	6.659886E-1	5.553043E-1	6.458411E-1	6.628816E-1	6.594642E-1	6.109708E-1	6.747205E-1	6.467622E-1	6.509424E-1	6.316227E-1	6.579328E-1	6.317843E-1	6.770818E-1	5.942982E-1	6.862304E-1	6.391699E-1	6.586402E-1	5.839044E-1	6.496875E-1	6.890826E-1	6.707144E-1	6.361763E-1	6.572752E-1	6.959203E-1	6.850756E-1	5.551713E-1	6.672659E-1	6.468482E-1	6.685043E-1	5.465309E-1	6.905458E-1	6.563575E-1	6.655089E-1	5.566447E-1	7.053016E-1	6.463596E-1	6.912156E-1	6.298208E-1	6.727385E-1	6.371723E-1	6.849033E-1	6.474552E-1	6.546475E-1	6.848387E-1	7.024713E-1	5.826279E-1	6.610858E-1	6.386512E-1	6.674612E-1	6.059521E-1	6.797193E-1	6.295900E-1	6.581036E-1	6.752756E-1	6.632612E-1	6.863527E-1	6.467469E-1	6.171923E-1	6.963011E-1	6.659985E-1	6.711805E-1	5.607351E-1	6.860737E-1	6.614846E-1	7.004831E-1	5.742978E-1	6.608238E-1	6.584977E-1	6.571169E-1	6.661143E-1	6.843936E-1	6.602175E-1	6.738979E-1	6.267900E-1	6.550591E-1	6.262895E-1	6.510512E-1	5.251755E-1	6.791020E-1	6.432775E-1	6.802127E-1	5.747060E-1	6.783880E-1	6.947649E-1	6.877100E-1	6.499162E-1	6.555112E-1	6.756853E-1	6.766950E-1	6.050625E-1	7.314210E-1
2.925020E+2	7.186064E-1	7.275451E-1	7.113690E-1	7.302253E-1	7.337803E-1	7.354998E-1	7.306174E-1	7.658753E-1	7.423789E-1	7.224601E-1	6.215233E-1	7.259684E-1	7.189220E-1	7.480362E-1	6.077317E-1	7.075274E-1	7.505937E-1	7.551865E-1	6.324153E-1	6.757567E-1	7.275160E-1	7.502072E-1	6.717884E-1	7.418572E-1	7.237282E-1	6.974591E-1	5.933178E-1	7.226748E-1	7.165508E-1	7.484068E-1	5.974224E-1	6.810953E-1	7.071147E-1	7.077997E-1	6.209301E-1	6.684969E-1	7.057155E-1	7.222353E-1	7.046140E-1	7.535971E-1	7.501210E-1	7.432474E-1	6.253300E-1	7.182393E-1	7.288151E-1	7.810101E-1	5.968133E-1	7.241022E-1	6.991421E-1	7.416375E-1	6.128783E-1	7.105974E-1	7.429102E-1	7.625538E-1	7.203556E-1	7.164328E-1	6.847979E-1	7.244960E-1	7.303818E-1	7.216847E-1	7.220213E-1	7.218269E-1	6.285428E-1	7.378089E-1	7.615166E-1	6.939302E-1	6.863450E-1	7.053556E-1	7.238962E-1	7.423241E-1	7.246754E-1	7.038177E-1	7.206238E-1	7.351546E-1	7.162877E-1	7.746147E-1	7.588897E-1	7.255302E-1	6.264546E-1	7.434194E-1	7.157269E-1	7.497225E-1	6.197085E-1	7.259688E-1	7.347933E-1	7.263257E-1	7.302464E-1	7.625962E-1	7.384405E-1	7.109392E-1	7.409582E-1	7.299054E-1	7.424249E-1	7.703975E-1	6.623126E-1	7.326081E-1	7.290595E-1	7.781247E-1	7.057881E-1	6.969211E-1	7.346330E-1	6.732048E-1	7.171976E-1	7.720785E-1	7.702008E-1	7.740074E-1	6.253655E-1	7.098603E-1	7.434729E-1	7.395397E-1	5.675359E-1	7.385131E-1	7.043317E-1	7.328346E-1	6.246190E-1	7.330874E-1	7.669009E-1	7.674477E-1	6.705697E-1	7.629318E-1	7.216837E-1	7.462858E-1	7.426033E-1	7.217530E-1	7.396969E-1	7.220122E-1	6.210574E-1	7.226575E-1	7.334858E-1	7.991067E-1	6.699029E-1	7.225567E-1	7.401052E-1	7.439190E-1	7.677284E-1	7.315799E-1	7.637646E-1	7.428617E-1	6.966282E-1	7.179084E-1	7.338254E-1	7.629071E-1	6.460515E-1	7.215278E-1	7.644059E-1	7.429969E-1	6.626404E-1	7.118698E-1	7.711967E-1	7.278331E-1	7.603687E-1	7.230708E-1	7.314198E-1	7.589925E-1	7.605855E-1	7.238837E-1	7.135585E-1	7.397092E-1	5.847083E-1	7.298866E-1	7.612786E-1	7.268582E-1	6.481153E-1	6.941233E-1	7.052303E-1	7.553411E-1	7.021129E-1	7.536881E-1	7.316662E-1	7.562472E-1	6.734430E-1	6.782963E-1
2.930040E+2	7.627862E-1	7.152348E-1	7.496187E-1	6.916864E-1	7.151387E-1	7.638497E-1	7.652253E-1	7.598015E-1	7.179928E-1	7.033255E-1	6.215233E-1	7.148589E-1	7.417723E-1	7.401815E-1	5.912550E-1	7.042929E-1	7.309953E-1	7.100222E-1	6.073690E-1	6.895414E-1	7.051266E-1	7.134410E-1	6.893707E-1	7.263540E-1	7.480461E-1	7.385445E-1	6.342867E-1	7.083405E-1	7.479497E-1	7.532173E-1	5.869278E-1	7.310840E-1	7.340120E-1	7.559925E-1	6.289702E-1	6.729064E-1	7.264825E-1	7.558604E-1	7.070636E-1	7.328499E-1	7.029218E-1	7.055098E-1	6.361528E-1	6.820210E-1	7.381524E-1	7.507136E-1	5.876429E-1	7.163274E-1	7.191872E-1	7.098690E-1	6.301858E-1	7.352360E-1	7.519210E-1	7.536156E-1	6.805147E-1	7.316803E-1	7.201522E-1	7.141234E-1	7.087967E-1	7.337420E-1	7.397089E-1	7.328437E-1	6.370709E-1	7.092759E-1	6.835455E-1	7.567008E-1	6.944738E-1	7.143932E-1	7.395449E-1	7.516457E-1	7.295488E-1	7.212035E-1	7.438208E-1	7.104344E-1	6.708091E-1	7.723328E-1	7.553466E-1	7.002559E-1	5.951115E-1	7.387052E-1	7.492714E-1	6.998152E-1	6.095396E-1	7.129256E-1	7.423626E-1	7.200082E-1	6.970303E-1	7.362860E-1	7.384405E-1	7.464930E-1	7.228364E-1	7.576322E-1	7.384019E-1	7.141193E-1	6.607787E-1	7.078011E-1	7.405003E-1	7.494075E-1	7.057878E-1	7.416678E-1	7.304922E-1	7.344794E-1	7.042963E-1	7.230220E-1	7.167923E-1	7.391844E-1	6.476998E-1	7.397319E-1	7.424967E-1	7.054817E-1	5.838731E-1	7.401299E-1	7.639046E-1	7.520705E-1	6.183357E-1	7.444548E-1	7.609808E-1	7.264403E-1	6.610438E-1	7.454242E-1	7.127879E-1	7.457279E-1	7.598494E-1	6.978287E-1	7.106218E-1	7.564409E-1	6.589605E-1	7.134755E-1	7.284946E-1	7.074547E-1	7.173913E-1	7.372822E-1	6.981098E-1	7.357201E-1	7.036423E-1	7.628263E-1	7.799675E-1	7.260105E-1	6.807410E-1	7.599220E-1	7.155454E-1	7.272646E-1	6.014540E-1	7.232159E-1	7.633343E-1	7.253838E-1	6.527023E-1	7.327796E-1	7.434148E-1	7.283774E-1	7.336726E-1	7.323531E-1	6.851686E-1	7.304410E-1	7.222719E-1	7.515361E-1	7.310126E-1	7.294794E-1	6.216768E-1	7.171909E-1	7.060440E-1	7.493940E-1	6.321560E-1	7.314232E-1	7.548022E-1	7.380397E-1	6.993660E-1	7.082552E-1	7.107669E-1	7.664462E-1	6.721279E-1	7.238318E-1
2.935110E+2	7.852166E-1	7.165306E-1	7.529449E-1	6.991456E-1	7.273722E-1	7.175640E-1	7.316993E-1	7.774712E-1	7.536342E-1	7.224602E-1	6.605166E-1	7.339917E-1	7.676037E-1	7.716002E-1	6.153360E-1	7.501178E-1	7.500181E-1	7.205250E-1	6.208558E-1	7.272997E-1	7.015648E-1	7.451006E-1	6.818353E-1	7.483589E-1	7.225705E-1	7.246715E-1	6.484309E-1	7.077668E-1	7.409201E-1	7.541793E-1	5.914905E-1	6.890146E-1	7.519438E-1	7.438178E-1	6.355034E-1	7.280347E-1	7.190657E-1	7.317070E-1	7.462640E-1	7.121041E-1	7.512319E-1	7.303235E-1	6.366683E-1	7.327268E-1	7.171424E-1	7.469846E-1	5.725122E-1	7.142552E-1	7.316478E-1	7.701750E-1	6.480017E-1	7.438599E-1	7.439703E-1	7.223315E-1	7.299378E-1	7.311543E-1	7.288547E-1	7.588884E-1	7.028006E-1	7.439901E-1	7.511543E-1	7.342209E-1	6.666667E-1	7.147628E-1	7.511614E-1	7.220518E-1	7.322175E-1	7.397002E-1	7.449412E-1	7.418578E-1	7.256501E-1	7.317412E-1	7.416119E-1	7.211824E-1	7.194606E-1	7.905844E-1	7.310502E-1	7.280084E-1	6.358108E-1	7.250863E-1	7.288040E-1	7.724583E-1	6.429516E-1	7.234845E-1	7.228978E-1	7.594929E-1	7.388017E-1	7.720675E-1	7.632705E-1	7.559370E-1	7.312931E-1	7.281351E-1	7.358872E-1	7.569295E-1	6.121966E-1	7.590325E-1	7.345072E-1	7.242795E-1	6.731299E-1	7.621771E-1	7.869127E-1	7.404569E-1	7.120371E-1	7.503319E-1	7.438034E-1	7.322201E-1	6.615261E-1	8.038999E-1	7.405452E-1	7.687316E-1	6.016105E-1	7.239612E-1	7.449258E-1	7.568795E-1	6.497525E-1	7.501385E-1	7.464519E-1	7.632419E-1	6.652777E-1	7.337514E-1	7.509134E-1	7.323351E-1	7.515238E-1	7.830240E-1	7.391483E-1	7.690027E-1	6.626456E-1	7.366995E-1	7.490838E-1	7.413381E-1	6.996626E-1	7.346052E-1	6.970045E-1	7.400928E-1	7.824374E-1	7.501157E-1	7.667650E-1	7.565921E-1	6.773367E-1	7.251105E-1	7.578770E-1	7.581897E-1	6.227831E-1	7.035191E-1	7.944248E-1	7.375304E-1	6.836220E-1	7.284743E-1	7.444638E-1	7.398005E-1	7.353067E-1	7.256495E-1	7.344623E-1	7.226034E-1	7.435572E-1	7.244987E-1	7.250122E-1	7.509129E-1	6.235972E-1	7.547266E-1	7.474695E-1	7.556830E-1	6.454547E-1	7.395827E-1	7.426847E-1	7.836517E-1	7.202441E-1	7.557769E-1	8.339244E-1	7.338097E-1	6.668669E-1	7.314221E-1
2.940070E+2	7.315206E-1	7.191220E-1	7.352057E-1	6.842267E-1	7.314502E-1	6.978930E-1	7.392696E-1	7.366096E-1	7.592628E-1	7.705695E-1	7.554350E-1	7.179451E-1	7.308438E-1	7.217000E-1	7.425008E-1	6.676322E-1	7.402185E-1	6.884902E-1	7.075538E-1	7.326937E-1	7.300596E-1	7.302919E-1	7.476454E-1	6.933461E-1	7.156225E-1	7.593542E-1	6.537958E-1	7.014602E-1	7.202999E-1	7.710164E-1	6.316418E-1	6.919845E-1	7.429781E-1	7.681675E-1	6.591219E-1	6.993681E-1	7.126374E-1	7.648588E-1	6.977541E-1	7.224771E-1	7.617823E-1	7.546205E-1	6.912964E-1	7.494429E-1	7.320831E-1	7.008408E-1	6.096516E-1	6.940418E-1	7.294805E-1	7.454065E-1	6.434207E-1	7.278442E-1	7.275374E-1	7.397111E-1	6.880790E-1	7.616492E-1	6.973077E-1	7.452407E-1	7.063982E-1	7.638844E-1	7.443913E-1	7.103511E-1	6.320541E-1	7.125683E-1	7.462884E-1	7.361121E-1	7.078292E-1	7.517509E-1	7.265942E-1	7.283408E-1	7.339347E-1	7.438590E-1	7.399548E-1	7.211827E-1	7.046536E-1	7.666295E-1	7.872356E-1	7.790534E-1	5.955792E-1	7.397526E-1	7.873641E-1	7.292050E-1	6.322990E-1	7.383922E-1	7.374966E-1	7.389605E-1	6.643180E-1	7.857484E-1	7.467170E-1	7.164947E-1	6.823638E-1	7.529127E-1	7.741087E-1	7.203730E-1	6.346979E-1	7.282943E-1	7.154401E-1	7.391509E-1	6.707971E-1	7.553412E-1	7.232452E-1	7.329841E-1	7.404207E-1	7.285850E-1	7.438033E-1	7.102552E-1	6.477003E-1	7.812197E-1	7.498171E-1	7.351603E-1	5.666026E-1	7.228830E-1	7.380720E-1	7.125299E-1	5.857767E-1	7.387712E-1	7.249268E-1	7.495731E-1	7.298407E-1	7.135913E-1	7.337567E-1	7.490756E-1	6.991919E-1	7.200026E-1	7.435375E-1	7.778425E-1	6.431669E-1	7.788281E-1	7.353579E-1	7.530037E-1	6.800339E-1	7.727573E-1	7.312644E-1	7.553973E-1	7.535452E-1	7.331688E-1	7.283593E-1	7.478541E-1	6.875506E-1	7.467178E-1	7.352684E-1	7.031537E-1	6.252072E-1	7.440383E-1	7.488613E-1	7.861176E-1	6.742354E-1	7.475403E-1	7.580918E-1	6.794203E-1	7.374857E-1	7.411199E-1	7.715849E-1	7.119668E-1	6.979447E-1	7.380178E-1	7.501017E-1	7.484775E-1	5.803876E-1	7.657666E-1	7.142034E-1	7.530627E-1	6.385397E-1	7.518211E-1	7.272626E-1	7.312244E-1	6.878277E-1	7.369771E-1	7.286810E-1	7.440084E-1	6.787028E-1	7.845468E-1
2.945030E+2	8.035682E-1	8.130727E-1	7.911949E-1	7.768452E-1	7.961117E-1	8.240205E-1	7.982108E-1	8.067367E-1	7.398782E-1	7.683831E-1	8.072557E-1	7.728744E-1	8.361549E-1	7.993221E-1	7.936209E-1	7.377181E-1	8.289902E-1	7.641137E-1	7.663165E-1	7.548693E-1	7.621165E-1	7.885061E-1	8.400804E-1	7.953699E-1	7.914695E-1	7.881681E-1	8.323035E-1	7.673986E-1	7.999690E-1	8.369210E-1	8.041104E-1	7.474171E-1	8.068602E-1	7.965763E-1	8.073657E-1	7.467781E-1	8.219125E-1	7.946958E-1	8.158429E-1	7.950893E-1	7.834386E-1	8.388832E-1	7.330412E-1	7.795319E-1	8.030504E-1	7.698239E-1	7.320751E-1	7.785217E-1	7.923250E-1	8.234807E-1	7.457367E-1	8.048408E-1	7.821363E-1	8.027766E-1	7.697790E-1	7.627009E-1	8.044595E-1	8.085664E-1	7.687565E-1	7.855870E-1	7.906924E-1	7.860916E-1	6.842235E-1	7.751212E-1	8.340058E-1	7.697570E-1	7.717023E-1	7.824806E-1	7.751597E-1	7.828746E-1	8.006947E-1	7.954912E-1	7.946332E-1	7.716974E-1	7.189320E-1	8.487610E-1	8.196319E-1	7.904517E-1	6.582656E-1	8.015625E-1	7.953238E-1	8.168209E-1	6.841127E-1	7.812513E-1	7.910243E-1	7.810780E-1	7.609461E-1	7.783819E-1	8.333018E-1	8.020459E-1	8.225062E-1	7.942085E-1	8.128325E-1	8.127267E-1	6.633357E-1	7.957036E-1	8.243975E-1	7.842782E-1	7.775184E-1	8.237042E-1	7.889837E-1	7.768228E-1	7.589989E-1	7.867458E-1	8.094897E-1	8.013304E-1	7.088539E-1	7.884106E-1	8.342416E-1	7.638662E-1	6.459536E-1	8.565460E-1	7.913188E-1	7.985570E-1	6.840247E-1	8.025525E-1	8.056459E-1	8.031982E-1	7.409541E-1	8.112119E-1	8.449558E-1	8.171551E-1	7.497399E-1	8.022800E-1	7.989444E-1	7.992440E-1	6.684359E-1	7.826085E-1	8.033640E-1	7.607796E-1	7.515828E-1	7.881526E-1	7.754706E-1	7.504782E-1	8.150060E-1	8.062538E-1	7.979698E-1	8.277421E-1	7.420208E-1	7.917323E-1	7.934738E-1	7.954045E-1	6.649568E-1	8.211359E-1	7.912084E-1	8.249866E-1	6.825176E-1	8.188805E-1	8.031714E-1	7.898459E-1	8.012300E-1	8.158963E-1	8.336586E-1	8.110566E-1	7.611938E-1	7.957802E-1	7.353755E-1	8.317770E-1	6.668065E-1	8.237269E-1	8.365981E-1	7.907975E-1	7.002460E-1	8.101021E-1	8.065774E-1	7.967588E-1	7.790341E-1	8.074763E-1	8.249677E-1	8.398779E-1	7.260423E-1	7.946664E-1
2.950050E+2	8.905695E-1	8.610190E-1	8.549450E-1	8.091684E-1	8.765022E-1	8.523699E-1	8.230853E-1	8.586417E-1	8.937000E-1	8.700688E-1	8.642067E-1	8.080543E-1	8.480770E-1	8.094870E-1	8.574146E-1	8.099597E-1	8.485884E-1	8.344858E-1	8.038853E-1	7.920285E-1	8.735532E-1	8.911466E-1	8.486203E-1	8.608848E-1	8.539995E-1	8.377914E-1	8.401074E-1	7.949206E-1	8.454268E-1	9.013828E-1	8.565809E-1	8.290816E-1	8.455249E-1	8.584656E-1	8.757095E-1	8.360855E-1	8.644365E-1	8.472647E-1	8.844425E-1	8.835083E-1	8.406331E-1	8.740362E-1	8.386908E-1	9.143762E-1	8.441367E-1	8.579169E-1	8.971400E-1	8.148011E-1	8.546275E-1	8.530950E-1	8.897941E-1	8.565821E-1	8.346144E-1	8.812356E-1	9.039273E-1	8.347317E-1	8.066355E-1	8.052904E-1	8.946711E-1	8.537086E-1	8.853750E-1	8.549465E-1	8.577880E-1	8.288942E-1	8.924842E-1	8.380516E-1	8.872544E-1	8.632219E-1	8.042989E-1	8.220273E-1	8.289577E-1	8.197267E-1	8.774793E-1	8.377967E-1	8.516661E-1	8.698636E-1	8.434220E-1	8.737090E-1	8.304193E-1	8.418962E-1	9.044839E-1	8.595191E-1	8.308379E-1	8.408822E-1	8.521226E-1	8.816330E-1	8.626069E-1	8.525763E-1	8.530389E-1	8.870423E-1	8.527095E-1	8.602822E-1	8.867611E-1	8.829541E-1	7.809553E-1	8.490919E-1	8.298455E-1	8.473540E-1	8.200903E-1	8.945548E-1	8.417811E-1	8.714739E-1	8.364082E-1	8.803075E-1	8.592147E-1	8.634765E-1	7.264028E-1	8.370906E-1	8.542496E-1	8.981514E-1	6.655579E-1	8.495395E-1	8.276954E-1	8.258079E-1	7.382902E-1	8.600189E-1	8.234040E-1	9.009859E-1	7.912286E-1	9.337699E-1	8.741855E-1	8.389175E-1	8.294261E-1	8.501300E-1	8.741006E-1	8.778713E-1	7.547708E-1	8.598436E-1	8.582677E-1	8.252134E-1	7.591810E-1	8.979251E-1	8.688557E-1	8.450394E-1	8.344422E-1	8.412072E-1	8.615790E-1	8.739271E-1	7.981932E-1	8.379475E-1	8.295519E-1	8.394337E-1	7.415467E-1	8.554642E-1	9.161076E-1	8.942224E-1	8.028847E-1	8.484012E-1	8.393392E-1	8.415233E-1	8.720569E-1	8.875783E-1	9.115551E-1	8.536041E-1	7.976841E-1	8.467837E-1	8.182809E-1	8.556466E-1	7.052147E-1	8.557431E-1	8.617042E-1	8.494963E-1	7.475898E-1	8.246725E-1	8.616574E-1	8.507581E-1	8.098032E-1	8.570871E-1	8.286995E-1	8.735350E-1	8.443917E-1	8.351424E-1
2.955100E+2	9.864058E-1	9.070223E-1	8.726843E-1	8.986789E-1	8.712588E-1	8.859265E-1	9.350202E-1	9.017117E-1	9.018290E-1	9.389519E-1	9.144884E-1	9.407498E-1	8.912941E-1	9.453260E-1	9.136039E-1	8.746547E-1	8.975858E-1	8.917291E-1	9.079236E-1	8.657475E-1	9.005218E-1	9.309773E-1	9.048859E-1	8.613850E-1	8.852646E-1	9.375706E-1	9.098516E-1	8.889553E-1	9.082250E-1	9.297653E-1	8.739186E-1	8.795652E-1	8.808288E-1	9.305013E-1	9.405344E-1	8.619955E-1	8.520751E-1	8.993604E-1	9.020823E-1	9.210489E-1	9.067120E-1	9.179768E-1	9.139341E-1	8.954311E-1	8.903586E-1	9.268998E-1	9.319875E-1	8.588553E-1	9.109705E-1	9.252460E-1	9.391699E-1	8.849169E-1	9.194272E-1	9.030849E-1	9.009011E-1	9.051857E-1	9.127001E-1	9.144736E-1	9.684219E-1	9.290644E-1	9.410400E-1	9.017677E-1	8.668171E-1	8.936422E-1	9.186781E-1	8.927879E-1	8.971257E-1	8.806955E-1	9.316487E-1	8.989340E-1	8.859721E-1	9.156150E-1	9.100658E-1	8.936856E-1	8.955578E-1	8.858338E-1	9.314972E-1	8.910550E-1	8.935733E-1	8.874676E-1	9.266572E-1	8.983363E-1	8.739357E-1	9.377818E-1	9.418760E-1	9.558652E-1	9.058884E-1	8.825699E-1	9.192503E-1	8.959310E-1	9.215731E-1	9.057077E-1	9.279996E-1	9.089285E-1	8.939721E-1	9.040983E-1	8.979434E-1	9.094036E-1	9.017346E-1	8.852313E-1	9.245998E-1	9.043525E-1	8.900789E-1	9.187438E-1	9.077119E-1	8.875841E-1	9.093323E-1	8.968330E-1	9.113460E-1	9.103149E-1	8.611352E-1	8.931954E-1	9.774187E-1	9.577880E-1	8.948019E-1	9.522168E-1	8.766789E-1	9.425190E-1	8.388571E-1	9.173229E-1	8.799049E-1	9.036484E-1	9.210074E-1	8.810571E-1	9.443188E-1	9.639430E-1	7.779339E-1	9.106130E-1	8.813529E-1	9.335299E-1	8.288311E-1	9.153277E-1	9.114043E-1	9.570920E-1	8.885482E-1	9.254145E-1	9.245885E-1	9.775316E-1	8.152153E-1	9.519846E-1	9.074804E-1	9.060013E-1	7.720860E-1	9.139915E-1	8.812649E-1	9.701390E-1	8.205536E-1	9.135919E-1	9.111515E-1	8.801454E-1	9.183676E-1	9.845286E-1	9.310291E-1	8.983903E-1	8.694477E-1	9.377304E-1	8.820965E-1	8.863358E-1	7.220187E-1	9.137038E-1	8.912050E-1	9.385928E-1	8.013170E-1	8.660518E-1	9.079243E-1	9.183887E-1	9.048554E-1	8.852865E-1	9.048331E-1	9.163695E-1	8.286131E-1	9.692198E-1
2.960030E+2	9.483428E-1	9.368267E-1	9.308912E-1	8.924628E-1	9.347559E-1	9.067545E-1	9.328569E-1	9.353951E-1	9.537284E-1	9.154441E-1	9.401414E-1	9.450699E-1	9.697809E-1	9.462503E-1	8.979725E-1	9.053846E-1	9.875103E-1	9.027572E-1	9.392311E-1	8.903206E-1	9.137513E-1	9.600842E-1	9.189521E-1	9.304007E-1	9.350572E-1	9.413060E-1	9.059498E-1	9.164772E-1	9.522767E-1	9.639208E-1	8.939941E-1	8.958979E-1	9.391069E-1	9.355740E-1	9.239515E-1	9.132652E-1	8.896536E-1	9.973955E-1	9.422621E-1	8.879537E-1	9.244810E-1	9.505452E-1	9.567095E-1	9.377784E-1	9.655281E-1	9.371542E-1	9.819660E-1	8.863239E-1	9.017609E-1	9.338616E-1	9.549503E-1	9.009312E-1	8.791414E-1	9.348656E-1	8.872850E-1	8.867834E-1	9.175957E-1	9.554176E-1	9.222522E-1	9.037458E-1	8.973401E-1	9.072760E-1	9.445697E-1	8.996778E-1	9.491357E-1	9.379823E-1	9.737736E-1	9.373350E-1	9.802139E-1	9.464761E-1	8.869466E-1	9.224641E-1	9.062001E-1	9.006721E-1	9.225276E-1	9.451511E-1	9.714853E-1	9.401176E-1	9.618740E-1	9.298962E-1	9.789636E-1	9.560070E-1	8.860418E-1	9.203893E-1	9.207891E-1	9.405970E-1	9.758431E-1	9.146678E-1	9.326207E-1	9.414836E-1	9.608363E-1	9.346145E-1	9.008427E-1	9.464473E-1	9.379519E-1	9.030200E-1	9.055704E-1	8.940196E-1	9.489720E-1	9.473808E-1	9.013070E-1	9.073415E-1	8.720165E-1	9.374563E-1	9.150791E-1	9.529445E-1	9.343260E-1	9.388746E-1	9.503866E-1	9.239377E-1	9.213489E-1	9.201436E-1	9.658203E-1	9.198506E-1	9.399284E-1	9.667416E-1	9.175764E-1	9.393649E-1	9.743336E-1	9.358917E-1	9.389994E-1	9.488482E-1	9.775010E-1	9.324070E-1	9.525479E-1	9.676650E-1	8.942749E-1	9.208748E-1	9.562223E-1	9.385286E-1	9.560995E-1	9.193439E-1	9.080882E-1	9.521730E-1	9.526352E-1	9.804931E-1	9.413906E-1	9.226085E-1	9.684145E-1	9.093707E-1	9.132529E-1	9.495068E-1	9.136335E-1	9.533846E-1	9.654249E-1	9.409876E-1	8.619640E-1	1.009533E+0	9.253049E-1	9.182230E-1	9.630430E-1	9.535872E-1	9.358975E-1	9.448565E-1	9.004639E-1	9.217534E-1	9.208215E-1	9.715839E-1	7.916339E-1	9.528960E-1	9.558540E-1	9.564126E-1	8.199348E-1	8.835363E-1	9.261012E-1	9.508932E-1	8.982621E-1	9.301973E-1	8.966227E-1	9.122895E-1	8.693762E-1	1.019816E+0
2.964990E+2	8.885301E-1	8.940631E-1	9.081626E-1	9.477856E-1	8.782495E-1	8.836123E-1	8.906789E-1	9.144115E-1	9.062063E-1	9.427793E-1	9.262886E-1	9.512423E-1	8.942748E-1	8.820270E-1	9.190962E-1	8.638721E-1	9.419717E-1	8.780747E-1	9.233364E-1	9.023073E-1	8.893270E-1	8.982961E-1	9.305064E-1	8.878908E-1	9.090035E-1	9.284998E-1	9.200940E-1	8.987024E-1	9.049442E-1	9.384246E-1	9.012945E-1	8.949087E-1	9.396669E-1	9.345596E-1	9.038506E-1	8.603421E-1	8.891588E-1	9.178306E-1	9.432422E-1	9.477227E-1	9.006043E-1	9.081545E-1	8.984730E-1	9.422368E-1	9.263088E-1	8.975353E-1	9.251097E-1	9.277865E-1	9.050115E-1	9.623984E-1	9.264443E-1	9.132510E-1	9.443412E-1	8.991124E-1	9.104836E-1	9.582883E-1	9.551266E-1	9.046472E-1	9.564297E-1	8.778226E-1	8.916177E-1	8.967181E-1	8.783548E-1	9.122980E-1	9.345158E-1	8.822425E-1	9.313850E-1	9.602324E-1	9.624064E-1	9.245694E-1	8.962055E-1	9.045511E-1	9.155887E-1	9.076581E-1	8.982024E-1	9.445801E-1	9.102376E-1	9.098865E-1	9.221100E-1	9.471823E-1	9.545165E-1	9.260628E-1	8.981476E-1	9.172833E-1	8.769940E-1	9.200647E-1	9.391044E-1	9.267704E-1	9.549033E-1	9.225965E-1	9.058668E-1	9.062976E-1	8.922931E-1	8.896884E-1	9.190302E-1	8.949309E-1	8.979433E-1	9.360699E-1	9.460562E-1	9.218994E-1	9.370230E-1	9.093343E-1	9.081411E-1	9.106521E-1	9.322682E-1	9.572303E-1	9.545336E-1	9.527037E-1	9.430666E-1	9.249111E-1	9.054788E-1	9.206823E-1	9.362976E-1	9.038201E-1	8.959441E-1	9.105379E-1	9.245724E-1	9.193866E-1	8.833102E-1	9.093644E-1	9.021448E-1	9.097865E-1	9.299268E-1	9.114005E-1	9.179868E-1	9.243968E-1	8.905904E-1	8.976504E-1	9.175400E-1	9.057559E-1	9.288733E-1	9.012713E-1	8.931690E-1	8.592511E-1	9.258446E-1	9.227665E-1	9.389907E-1	9.544389E-1	8.980562E-1	8.799607E-1	8.925682E-1	9.358784E-1	9.126639E-1	9.314370E-1	9.493432E-1	9.227671E-1	9.337424E-1	8.932959E-1	9.274016E-1	8.980961E-1	9.439742E-1	9.484301E-1	9.371149E-1	9.179846E-1	9.053290E-1	9.444902E-1	9.219125E-1	9.472273E-1	9.227027E-1	9.219839E-1	9.558542E-1	9.102922E-1	9.268569E-1	9.324918E-1	9.222456E-1	8.806413E-1	9.103502E-1	9.166193E-1	8.913979E-1	9.439064E-1	9.232913E-1	8.376721E-1
2.970040E+2	9.966015E-1	9.497851E-1	9.364345E-1	9.222996E-1	1.009903E+0	9.385757E-1	9.977466E-1	9.718388E-1	9.631083E-1	9.170845E-1	9.709261E-1	9.321090E-1	9.722645E-1	9.748959E-1	9.575403E-1	9.188626E-1	9.800172E-1	9.101095E-1	9.522359E-1	9.250822E-1	9.559853E-1	9.534455E-1	9.711981E-1	9.764114E-1	9.697967E-1	9.786570E-1	9.400911E-1	8.987031E-1	9.710224E-1	9.393865E-1	9.492026E-1	9.404422E-1	9.430295E-1	9.543436E-1	9.455603E-1	9.132649E-1	9.484937E-1	9.344064E-1	9.750918E-1	9.635290E-1	9.577984E-1	9.035025E-1	9.433099E-1	9.539379E-1	9.412499E-1	9.637221E-1	9.608734E-1	9.086099E-1	9.413094E-1	9.144772E-1	9.651315E-1	9.101715E-1	9.257885E-1	9.591982E-1	9.568811E-1	9.514537E-1	9.801467E-1	1.004550E+0	9.294478E-1	9.748813E-1	9.103462E-1	9.641940E-1	9.350386E-1	9.391849E-1	9.509627E-1	9.635931E-1	9.935159E-1	9.795133E-1	9.354260E-1	9.609253E-1	9.400622E-1	9.182492E-1	9.780001E-1	9.570984E-1	9.050771E-1	9.993349E-1	9.659175E-1	9.401174E-1	9.777791E-1	9.791346E-1	9.164240E-1	9.770790E-1	9.310757E-1	9.644908E-1	9.808053E-1	9.969292E-1	9.677904E-1	9.272967E-1	9.924661E-1	9.475949E-1	9.324455E-1	9.334350E-1	9.340350E-1	9.522193E-1	9.727258E-1	9.887654E-1	9.437056E-1	9.340185E-1	9.262283E-1	1.003315E+0	9.147651E-1	8.963821E-1	9.447814E-1	9.698240E-1	1.001023E+0	9.818746E-1	9.720821E-1	9.615546E-1	9.459947E-1	9.944857E-1	9.787617E-1	9.212215E-1	9.368246E-1	9.396205E-1	9.502096E-1	9.364296E-1	9.326440E-1	9.998250E-1	1.006086E+0	9.549918E-1	9.701348E-1	9.906997E-1	9.507413E-1	9.376595E-1	9.838172E-1	9.257926E-1	9.348107E-1	9.392388E-1	9.998957E-1	9.862985E-1	9.402705E-1	9.481255E-1	9.429009E-1	1.010659E+0	9.904568E-1	9.624867E-1	9.101863E-1	9.425808E-1	9.258594E-1	9.423817E-1	9.579893E-1	9.489822E-1	9.485356E-1	9.798342E-1	9.927631E-1	9.883592E-1	9.873004E-1	9.468022E-1	9.583279E-1	9.492294E-1	9.619531E-1	9.747309E-1	9.541547E-1	9.935616E-1	9.637129E-1	9.524785E-1	9.944544E-1	9.496630E-1	9.692728E-1	9.832556E-1	9.709184E-1	9.464550E-1	9.587742E-1	8.608059E-1	9.663091E-1	9.645245E-1	9.927659E-1	9.886854E-1	9.578279E-1	9.724627E-1	9.101420E-1	9.692203E-1
2.975020E+2	9.700938E-1	1.052158E+0	9.990759E-1	9.627038E-1	9.755335E-1	1.021889E+0	9.669242E-1	9.723907E-1	1.005002E+0	9.564465E-1	9.647693E-1	9.660546E-1	1.001076E+0	1.008162E+0	1.017532E+0	8.978374E-1	9.817463E-1	1.026171E+0	9.556072E-1	9.448601E-1	9.804081E-1	1.032085E+0	1.003852E+0	1.014420E+0	9.674804E-1	9.914626E-1	9.917899E-1	9.973237E-1	9.925799E-1	1.000481E+0	9.665406E-1	9.721185E-1	9.901004E-1	1.029930E+0	9.812390E-1	9.485472E-1	9.974456E-1	9.798720E-1	9.976317E-1	9.719269E-1	9.500241E-1	9.748416E-1	9.840236E-1	9.812405E-1	1.012684E+0	9.795694E-1	9.732534E-1	9.645846E-1	9.900680E-1	9.909357E-1	1.019598E+0	1.003799E+0	9.840979E-1	9.879993E-1	1.005800E+0	9.919385E-1	1.006255E+0	9.936306E-1	9.792137E-1	9.519735E-1	9.727746E-1	9.871474E-1	1.029345E+0	1.030819E+0	9.728927E-1	9.681125E-1	1.016162E+0	9.801161E-1	1.017987E+0	9.497387E-1	1.012183E+0	9.683006E-1	1.007272E+0	1.004389E+0	9.812267E-1	9.696757E-1	9.790780E-1	1.012472E+0	9.819902E-1	9.697062E-1	9.556539E-1	9.987056E-1	9.916063E-1	9.856100E-1	9.889159E-1	9.737641E-1	9.924509E-1	1.006227E+0	9.931029E-1	9.570391E-1	1.007954E+0	9.794498E-1	1.017518E+0	1.011384E+0	9.890904E-1	9.742049E-1	9.714894E-1	1.011966E+0	9.682165E-1	9.492446E-1	1.012078E+0	1.000498E+0	9.855505E-1	9.981459E-1	9.942703E-1	1.007054E+0	1.002924E+0	1.007468E+0	9.962585E-1	9.925398E-1	9.619581E-1	9.858968E-1	9.916527E-1	1.022976E+0	9.867668E-1	1.024207E+0	9.875332E-1	9.840523E-1	9.986769E-1	1.011230E+0	9.555208E-1	9.644727E-1	1.019723E+0	9.627512E-1	1.034287E+0	9.825533E-1	9.416538E-1	9.954092E-1	1.022357E+0	9.790776E-1	1.008021E+0	9.996657E-1	1.019708E+0	9.745832E-1	9.857293E-1	9.910852E-1	1.030805E+0	9.862693E-1	9.712515E-1	9.975995E-1	9.623184E-1	1.015550E+0	9.621082E-1	9.877134E-1	9.761461E-1	9.762128E-1	1.006074E+0	1.000923E+0	9.740530E-1	1.010154E+0	9.679467E-1	9.932959E-1	1.016229E+0	1.006438E+0	9.898640E-1	9.905781E-1	9.890003E-1	9.774297E-1	9.798365E-1	9.915357E-1	1.011717E+0	9.920511E-1	9.906909E-1	9.773673E-1	9.707159E-1	9.954562E-1	9.839749E-1	9.939074E-1	9.466318E-1	1.019378E+0	1.020602E+0	9.742814E-1
2.980040E+2	1.041461E+0	9.821819E-1	9.951955E-1	1.021134E+0	1.008156E+0	9.946964E-1	1.031273E+0	9.873000E-1	1.028763E+0	9.876080E-1	1.059174E+0	1.000617E+0	9.866704E-1	1.012320E+0	1.010773E+0	9.285663E-1	1.022097E+0	1.005164E+0	1.012443E+0	9.598445E-1	9.819363E-1	1.001957E+0	1.021434E+0	9.714099E-1	1.013799E+0	9.930636E-1	9.683792E-1	9.474403E-1	1.007577E+0	9.831632E-1	9.857046E-1	9.552909E-1	9.575984E-1	1.035003E+0	9.827465E-1	9.275987E-1	1.001401E+0	9.850813E-1	1.004982E+0	1.038117E+0	9.844518E-1	1.008444E+0	9.561942E-1	1.011887E+0	9.991441E-1	1.006603E+0	1.042947E+0	1.007601E+0	1.019323E+0	1.001166E+0	9.885468E-1	9.877832E-1	9.909884E-1	1.041629E+0	1.010339E+0	9.808966E-1	1.021485E+0	9.979982E-1	9.924051E-1	9.989948E-1	1.016994E+0	1.013771E+0	1.005769E+0	9.616820E-1	1.007005E+0	1.031888E+0	9.755158E-1	1.007833E+0	9.823724E-1	1.046688E+0	1.000000E+0	9.978047E-1	9.669535E-1	9.968652E-1	1.002909E+0	1.024430E+0	1.033240E+0	1.030313E+0	9.941534E-1	1.066088E+0	9.852178E-1	1.009797E+0	1.026471E+0	1.045240E+0	1.012706E+0	9.995612E-1	1.007046E+0	1.039904E+0	9.759132E-1	1.024258E+0	9.928517E-1	1.013077E+0	1.007962E+0	9.594347E-1	1.033070E+0	1.014111E+0	1.016162E+0	9.970941E-1	1.025368E+0	1.020095E+0	1.031230E+0	1.002491E+0	9.840018E-1	9.758932E-1	9.881317E-1	9.925890E-1	1.045467E+0	1.022957E+0	1.026027E+0	9.774572E-1	1.049244E+0	1.010150E+0	9.932343E-1	9.871759E-1	1.022753E+0	1.022944E+0	1.002063E+0	1.004557E+0	1.002381E+0	9.841721E-1	1.069897E+0	9.940480E-1	9.888005E-1	1.036859E+0	9.953368E-1	1.023960E+0	1.043255E+0	1.017013E+0	1.006759E+0	9.946303E-1	9.934570E-1	9.876172E-1	9.976056E-1	1.013392E+0	1.050867E+0	1.037161E+0	1.009801E+0	9.975036E-1	1.025722E+0	1.029409E+0	9.839653E-1	1.033371E+0	1.008160E+0	1.040049E+0	1.019566E+0	9.634588E-1	1.040858E+0	9.923123E-1	1.052156E+0	1.030281E+0	1.024063E+0	9.896859E-1	9.584147E-1	9.885233E-1	1.039733E+0	1.007170E+0	1.050635E+0	1.026630E+0	1.012962E+0	1.018032E+0	9.476946E-1	9.910030E-1	9.869672E-1	1.002428E+0	1.003764E+0	1.046311E+0	9.422171E-1	1.004352E+0	1.051129E+0	1.034677E+0	9.798374E-1	1.042584E+0
2.985020E+2	9.612577E-1	9.342350E-1	9.530653E-1	1.004973E+0	9.656304E-1	9.484114E-1	9.555689E-1	9.850912E-1	9.687359E-1	9.996354E-1	9.663081E-1	9.419842E-1	9.752448E-1	9.407053E-1	9.824675E-1	9.377319E-1	9.529237E-1	9.578995E-1	9.739107E-1	9.280796E-1	9.804099E-1	9.559992E-1	9.591410E-1	9.604076E-1	9.964302E-1	9.695855E-1	9.683788E-1	9.508798E-1	9.410293E-1	9.918218E-1	9.656277E-1	9.181702E-1	9.872984E-1	9.731134E-1	9.837521E-1	9.242909E-1	9.539329E-1	9.841343E-1	9.902815E-1	9.457466E-1	9.611299E-1	9.753591E-1	1.028345E+0	9.996287E-1	9.636606E-1	9.781711E-1	9.787556E-1	9.283047E-1	9.602710E-1	9.220158E-1	9.620766E-1	9.551372E-1	9.597134E-1	9.547286E-1	9.805838E-1	9.472473E-1	9.409845E-1	9.892637E-1	9.618260E-1	9.929666E-1	9.821387E-1	9.719991E-1	9.480812E-1	9.518052E-1	9.613189E-1	9.811686E-1	9.708700E-1	9.638473E-1	9.785949E-1	9.469423E-1	9.775843E-1	9.540754E-1	1.009482E+0	1.001164E+0	1.005024E+0	9.343143E-1	9.745221E-1	9.772861E-1	9.562599E-1	9.550394E-1	9.874920E-1	9.898337E-1	9.359186E-1	9.483412E-1	9.689106E-1	1.013776E+0	9.612479E-1	9.488711E-1	9.714566E-1	9.831491E-1	9.789587E-1	9.900696E-1	9.300113E-1	9.613585E-1	9.343719E-1	9.553296E-1	9.960049E-1	9.827354E-1	9.956264E-1	9.971000E-1	9.861966E-1	9.586529E-1	9.803897E-1	9.779155E-1	9.973401E-1	9.486581E-1	9.279450E-1	9.687457E-1	9.557542E-1	9.662666E-1	9.740944E-1	9.616439E-1	9.695104E-1	9.930533E-1	9.821979E-1	9.800027E-1	1.004215E+0	9.787948E-1	9.965603E-1	9.502167E-1	9.389992E-1	1.000744E+0	9.888002E-1	9.825916E-1	9.399303E-1	9.630126E-1	9.542884E-1	9.716448E-1	9.256503E-1	9.735227E-1	9.674967E-1	9.608436E-1	9.495317E-1	9.844221E-1	9.736474E-1	9.566608E-1	9.995999E-1	1.000624E+0	1.006430E+0	9.837945E-1	1.008979E+0	1.004543E+0	9.795598E-1	9.702673E-1	9.664969E-1	9.652807E-1	9.773623E-1	9.185117E-1	9.635697E-1	9.671802E-1	9.281742E-1	9.623546E-1	9.900596E-1	9.806856E-1	9.460758E-1	9.954934E-1	9.562745E-1	9.379720E-1	9.697531E-1	9.413036E-1	1.001674E+0	1.011443E+0	1.017288E+0	9.785332E-1	9.960528E-1	9.786800E-1	9.845247E-1	9.907743E-1	1.000373E+0	9.949005E-1	9.482764E-1	9.439230E-1
2.990010E+2	9.734916E-1	9.219243E-1	9.098256E-1	8.993010E-1	9.592222E-1	9.547755E-1	9.361016E-1	8.961903E-1	9.074563E-1	9.444189E-1	9.073046E-1	9.080391E-1	9.399760E-1	9.180658E-1	9.072676E-1	9.043058E-1	9.177618E-1	8.828010E-1	9.377863E-1	8.723402E-1	9.397022E-1	9.503821E-1	9.194540E-1	8.668858E-1	9.008975E-1	9.151603E-1	9.381399E-1	9.302392E-1	9.522773E-1	9.490078E-1	9.405332E-1	8.686767E-1	9.794531E-1	8.990491E-1	9.144035E-1	9.215343E-1	9.435492E-1	9.377216E-1	9.354023E-1	8.686893E-1	9.772336E-1	9.738073E-1	9.319717E-1	9.177194E-1	9.421833E-1	9.390182E-1	9.260265E-1	9.013538E-1	9.201803E-1	9.047858E-1	9.040468E-1	9.428177E-1	9.432811E-1	9.269204E-1	9.104837E-1	9.609175E-1	9.350012E-1	9.057391E-1	9.180554E-1	9.417245E-1	9.295952E-1	9.013082E-1	9.149736E-1	9.079086E-1	9.454812E-1	9.344674E-1	9.551917E-1	9.246816E-1	9.235543E-1	9.446118E-1	9.059509E-1	9.672467E-1	9.200072E-1	9.227045E-1	9.082496E-1	9.468620E-1	9.249168E-1	9.069132E-1	9.300622E-1	9.136579E-1	9.374600E-1	9.216269E-1	9.431822E-1	8.856047E-1	9.143009E-1	9.305943E-1	9.713138E-1	9.099320E-1	9.644533E-1	9.275958E-1	9.131157E-1	9.139670E-1	9.214617E-1	9.373086E-1	9.563616E-1	9.477798E-1	8.990333E-1	9.217113E-1	8.970699E-1	9.703760E-1	8.852608E-1	9.511797E-1	9.473616E-1	9.222841E-1	9.132369E-1	9.095495E-1	9.146506E-1	9.023645E-1	9.172020E-1	9.205317E-1	9.353522E-1	9.066699E-1	8.930676E-1	9.241255E-1	9.467820E-1	8.688594E-1	9.100430E-1	9.540858E-1	8.954822E-1	9.438498E-1	9.631452E-1	9.198305E-1	9.037614E-1	9.067326E-1	9.086607E-1	9.490554E-1	9.437596E-1	9.160139E-1	9.587181E-1	9.340846E-1	9.124104E-1	9.026104E-1	9.285338E-1	9.319484E-1	9.148135E-1	9.333584E-1	8.969846E-1	9.095020E-1	9.150788E-1	9.219746E-1	9.454826E-1	9.128154E-1	9.223594E-1	9.151174E-1	9.391582E-1	9.749979E-1	9.370557E-1	8.982161E-1	9.389332E-1	9.193111E-1	9.565045E-1	9.138784E-1	9.085122E-1	9.191044E-1	9.028964E-1	9.217528E-1	9.366393E-1	9.759683E-1	9.231829E-1	9.302633E-1	8.949708E-1	9.228704E-1	9.114298E-1	8.876153E-1	9.305073E-1	9.257284E-1	9.603487E-1	9.375082E-1	9.078185E-1	8.663943E-1	9.298669E-1	8.933273E-1
2.995040E+2	9.850463E-1	1.021706E+0	1.045087E+0	1.001865E+0	1.011068E+0	9.958538E-1	1.024785E+0	1.041413E+0	9.968737E-1	1.027517E+0	1.001711E+0	1.014813E+0	1.006044E+0	1.069152E+0	1.037389E+0	1.079520E+0	1.031896E+0	1.024070E+0	1.015333E+0	1.087504E+0	1.020608E+0	9.820421E-1	9.917949E-1	1.046428E+0	1.044485E+0	1.065097E+0	1.048854E+0	1.035741E+0	1.028197E+0	1.006735E+0	1.042737E+0	9.929057E-1	1.017558E+0	1.009638E+0	1.039030E+0	9.948545E-1	1.027607E+0	1.025337E+0	1.022131E+0	9.976126E-1	1.052752E+0	9.970708E-1	1.030407E+0	9.678680E-1	9.949418E-1	1.018255E+0	9.883846E-1	1.058393E+0	1.017156E+0	1.071164E+0	1.050649E+0	9.951746E-1	1.006891E+0	9.909788E-1	1.033538E+0	1.006659E+0	1.011695E+0	1.017651E+0	1.019387E+0	1.038783E+0	1.034682E+0	1.024788E+0	1.011287E+0	1.001738E+0	1.052691E+0	1.009792E+0	1.020227E+0	1.022295E+0	1.006116E+0	1.023849E+0	9.941521E-1	1.032577E+0	1.020527E+0	1.022660E+0	1.003437E+0	1.046674E+0	9.973003E-1	1.019906E+0	1.039529E+0	1.006897E+0	1.036387E+0	9.798518E-1	1.010007E+0	1.035923E+0	1.042444E+0	1.040626E+0	1.000504E+0	1.005174E+0	1.019206E+0	1.030924E+0	1.034532E+0	1.008947E+0	1.021542E+0	1.037840E+0	1.029490E+0	1.031368E+0	1.018341E+0	1.013504E+0	1.008456E+0	1.005800E+0	9.939610E-1	1.009963E+0	1.043349E+0	1.022927E+0	1.031103E+0	1.051520E+0	1.023664E+0	1.005809E+0	1.000163E+0	1.036328E+0	1.009102E+0	1.037099E+0	1.049117E+0	9.962598E-1	9.742002E-1	1.026102E+0	1.010673E+0	1.005608E+0	1.021962E+0	1.026085E+0	9.999999E-1	9.979541E-1	1.050647E+0	1.017020E+0	1.030447E+0	1.039779E+0	1.029041E+0	1.011612E+0	1.026724E+0	1.040735E+0	1.039046E+0	1.038487E+0	1.025234E+0	1.035256E+0	1.003064E+0	1.013858E+0	1.033805E+0	1.015603E+0	1.031396E+0	1.010804E+0	1.036399E+0	9.867214E-1	1.043547E+0	9.837739E-1	1.025462E+0	1.007187E+0	9.928224E-1	1.048893E+0	9.861090E-1	1.007978E+0	1.025698E+0	1.002579E+0	1.041180E+0	1.014836E+0	1.061019E+0	1.012085E+0	1.015181E+0	1.007632E+0	9.947189E-1	1.025760E+0	1.059419E+0	1.020352E+0	1.083251E+0	1.054881E+0	1.032406E+0	9.954562E-1	1.014743E+0	1.000174E+0	1.016048E+0	1.026517E+0	1.070571E+0	9.844008E-1
3.000060E+2	1.068649E+0	1.087794E+0	1.097751E+0	1.110023E+0	1.080390E+0	1.084374E+0	1.085348E+0	1.117614E+0	1.093169E+0	1.084374E+0	1.100733E+0	1.168492E+0	1.090989E+0	1.051594E+0	1.044571E+0	1.252039E+0	1.093575E+0	1.103895E+0	1.104920E+0	1.207372E+0	1.096935E+0	1.077534E+0	1.104324E+0	1.140449E+0	1.076908E+0	1.065631E+0	1.084459E+0	1.138376E+0	1.078340E+0	1.068791E+0	1.098857E+0	1.292838E+0	1.067992E+0	1.053266E+0	1.098829E+0	1.283174E+0	1.076063E+0	1.087854E+0	1.049571E+0	1.177907E+0	1.074408E+0	1.070478E+0	1.069059E+0	1.121657E+0	1.087386E+0	1.078383E+0	1.090633E+0	1.139763E+0	1.093002E+0	1.109932E+0	1.075082E+0	1.115289E+0	1.115028E+0	1.097744E+0	1.059256E+0	1.112341E+0	1.084579E+0	1.095717E+0	1.129113E+0	1.075557E+0	1.063815E+0	1.100986E+0	1.090544E+0	1.146047E+0	1.060611E+0	1.074572E+0	1.062034E+0	1.101228E+0	1.091375E+0	1.088170E+0	1.110129E+0	1.079995E+0	1.075758E+0	1.052217E+0	1.099154E+0	1.078044E+0	1.090943E+0	1.053110E+0	1.098006E+0	1.088612E+0	1.097790E+0	1.100185E+0	1.092815E+0	1.099280E+0	1.072722E+0	1.041679E+0	1.067438E+0	1.089893E+0	1.075868E+0	1.077034E+0	1.072588E+0	1.094489E+0	1.101505E+0	1.092675E+0	1.057616E+0	1.077207E+0	1.098969E+0	1.072990E+0	1.105263E+0	1.057384E+0	1.091274E+0	1.077215E+0	1.059347E+0	1.102834E+0	1.075918E+0	1.090629E+0	1.085349E+0	1.092657E+0	1.104595E+0	1.106877E+0	1.070249E+0	1.098540E+0	1.103418E+0	1.076409E+0	1.087300E+0	1.077885E+0	1.085473E+0	1.072903E+0	1.084937E+0	1.084446E+0	1.072438E+0	1.122951E+0	1.048268E+0	1.094046E+0	1.091339E+0	1.041639E+0	1.088001E+0	1.088307E+0	1.059792E+0	1.077950E+0	1.079569E+0	1.110776E+0	1.079386E+0	1.060399E+0	1.071879E+0	1.067877E+0	1.029005E+0	1.090498E+0	1.050121E+0	1.056418E+0	1.062856E+0	1.047000E+0	1.084266E+0	1.103079E+0	1.073171E+0	1.112863E+0	1.045828E+0	1.141144E+0	1.085179E+0	1.065096E+0	1.097614E+0	1.138206E+0	1.085605E+0	1.090413E+0	1.060411E+0	1.072921E+0	1.052270E+0	1.074368E+0	1.119546E+0	1.093105E+0	1.084525E+0	1.062280E+0	1.010373E+0	1.099175E+0	1.066554E+0	1.058369E+0	1.114192E+0	1.073284E+0	1.078000E+0	1.058134E+0	1.050847E+0	1.161483E+0
