Photon Energy (eV)	#1	#2	#3	#4	#5	#6	#7	#8	#9	#10	#11	#12	#13	#14	#15	#16	#17	#18	#19	#20	#21	#22	#23	#24	#25	#26	#27	#28	#29	#30	#31	#32	#33	#34	#35	#36	#37	#38	#39	#40	#41	#42	#43	#44	#45	#46	#47	#48	#49	#50	#51	#52	#53	#54	#55	#56	#57	#58	#59	#60	#61	#62	#63	#64	#65	#66	#67	#68	#69	#70	#71	#72	#73	#74	#75	#76	#77	#78	#79	#80	#81	#82	#83	#84	#85	#86	#87	#88	#89	#90	#91	#92	#93	#94	#95	#96	#97	#98	#99	#100	#101	#102	#103	#104	#105	#106	#107	#108	#109	#110	#111	#112	#113	#114	#115	#116	#117	#118	#119	#120	#121	#122	#123	#124	#125	#126	#127	#128	#129	#130	#131	#132	#133	#134	#135	#136	#137	#138	#139	#140	#141	#142	#143	#144	#145	#146	#147	#148	#149	#150	#151	#152	#153	#154	#155	#156	#157	#158	#159	#160	#161	#162	#163	#164	#165	#166	#167	#168	#169	#170	#171	
2.790010E+2	-4.811705E-3	3.248245E-3	-1.270048E-3	-5.521135E-3	2.573441E-3	-7.221501E-5	-3.347152E-3	-5.965576E-3	7.763586E-5	-2.626855E-3	-4.048924E-3	-3.046622E-3	-4.440801E-3	-6.236485E-3	-8.245069E-3	-5.981931E-4	2.806358E-4	-2.823721E-3	-3.639623E-3	-6.294151E-3	-4.122062E-3	-1.312681E-3	-6.078569E-3	-6.159910E-3	-7.732692E-3	-6.661338E-3	1.857289E-4	-4.154915E-3	6.329866E-4	1.588554E-3	-8.770211E-4	-5.456249E-3	-9.142968E-4	-9.046212E-3	-2.607714E-3	-1.671323E-3	3.122596E-4	-9.457689E-3	-2.397587E-3	-3.859746E-3	-7.579089E-3	-5.306518E-3	-3.325947E-3	-9.018235E-4	-1.124039E-3	-1.215630E-3	5.090839E-4	-3.234126E-3	-5.603797E-3	-2.678810E-3	-6.300346E-4	4.104830E-3	3.038148E-3	-4.044858E-3	1.206773E-3	1.316480E-3	2.054556E-4	-6.720224E-3	-7.608350E-5	-8.667679E-3	-2.598280E-4	1.204064E-3	7.743645E-3	-5.264514E-3	-9.175254E-3	-2.368964E-3	-3.178613E-3	-6.195903E-3	1.833868E-3	-6.715025E-3	1.717540E-3	-5.405061E-4	-3.688008E-3	-1.106312E-3	-6.874065E-3	-4.225571E-3	9.430505E-4	-1.222820E-4	-1.107772E-3	-1.644854E-3	2.934470E-3	-4.543232E-3	3.995337E-3	-5.085936E-3	1.641120E-3	-7.925051E-3	-1.933212E-3	-1.124316E-3	-8.592365E-3	5.626706E-3	2.940512E-3	-3.942601E-3	2.523131E-3	-5.238089E-3	-3.825684E-4	5.488923E-4	-5.838838E-3	-3.461976E-3	-2.449248E-3	1.135180E-3	-3.129735E-3	-1.129444E-2	-3.838852E-3	-4.130672E-3	-5.109980E-3	-5.142844E-3	5.266249E-4	1.111737E-3	-6.746214E-4	-1.090746E-3	-2.344114E-3	-4.118782E-4	-1.508422E-3	-2.912608E-3	-5.435180E-3	-4.771442E-3	-4.009366E-3	-3.682613E-3	-2.546565E-3	-6.636428E-3	2.354199E-3	-1.569131E-3	-2.195326E-4	1.754033E-3	-3.831972E-3	-1.297628E-3	1.932500E-3	-7.351093E-3	-3.644623E-3	-5.912735E-3	-1.042503E-2	-1.327922E-3	7.543978E-3	-7.278681E-3	-7.524371E-3	3.221492E-3	-7.252219E-3	-1.314116E-3	1.371492E-3	1.520975E-3	-8.959455E-4	8.612509E-4	-4.062982E-3	-4.790215E-3	1.205637E-3	-9.675952E-3	1.806800E-3	2.006528E-3	2.310276E-3	6.911532E-4	-3.034703E-3	-3.662706E-3	-9.456910E-3	6.413960E-3	-9.786920E-4	-1.153049E-3	-4.650325E-3	-2.364448E-3	-2.476989E-3	-3.783112E-3	-6.768111E-3	-1.833899E-3	-4.799140E-3	3.704562E-4	-2.917337E-3	-6.784703E-3	2.805379E-3	-3.958885E-3	-6.444826E-3	3.367894E-3	-1.220134E-2
2.795040E+2	-6.139046E-3	-7.526353E-3	-1.834514E-3	1.321990E-3	2.205993E-4	1.082757E-3	1.472748E-3	-7.611249E-3	-3.649211E-3	1.797320E-3	-1.478195E-3	2.577900E-3	-2.467071E-3	4.157487E-4	-1.102839E-3	-3.256775E-3	-4.770835E-3	-4.975137E-3	4.124921E-3	1.808659E-3	-4.579906E-4	-2.312830E-3	-2.067959E-3	1.804438E-3	3.723158E-3	2.931005E-3	2.166853E-3	-1.289495E-3	-4.430971E-3	2.059268E-3	-5.554368E-3	2.069639E-3	-2.602092E-3	-2.106631E-3	8.692148E-4	1.671331E-3	3.122688E-4	1.197369E-4	-3.381241E-3	-4.288802E-4	1.321129E-3	-8.412751E-3	7.675251E-4	3.537992E-3	2.662149E-3	-2.141810E-3	9.615412E-4	-6.402209E-3	-2.241533E-3	-3.214535E-3	-2.646065E-3	-2.091123E-3	-3.302350E-3	-8.595266E-3	-2.350072E-3	4.476024E-3	-3.423959E-4	-6.720214E-3	-6.846327E-4	-8.290695E-4	-4.936783E-3	-2.924136E-3	8.053240E-4	4.843334E-3	4.893475E-3	6.234183E-4	-2.022738E-3	-8.851147E-4	-4.686539E-3	-5.788811E-3	4.661803E-3	1.081015E-3	-3.141649E-3	-5.531501E-3	2.115086E-3	-2.589864E-3	2.954916E-3	-7.946524E-3	1.224368E-3	2.565981E-3	1.397526E-4	4.892970E-4	2.996499E-3	-3.208067E-3	2.735240E-3	-5.261170E-3	-4.365281E-4	-5.357013E-3	-1.024796E-3	-6.599232E-3	-6.785653E-4	4.388874E-3	-6.055492E-3	-4.761905E-3	-8.033990E-3	-5.488898E-4	-8.929967E-4	4.744148E-3	-2.449216E-3	2.346037E-3	1.469033E-3	-7.163926E-3	-8.604331E-3	-6.133442E-3	1.601638E-3	-3.005519E-3	-3.686454E-3	-8.893845E-3	-4.109165E-3	-5.453887E-3	3.281769E-3	6.864570E-4	-2.033095E-3	-3.442180E-3	-8.823320E-3	4.615038E-3	-2.378423E-3	-3.156513E-3	3.350737E-3	1.774112E-3	-2.668088E-3	-3.280847E-3	-3.731786E-3	-7.016181E-3	-2.717168E-3	2.477300E-3	3.331962E-4	-4.603033E-3	-1.783563E-3	2.815791E-4	-2.084990E-3	-5.311502E-3	-1.397051E-3	-3.951291E-3	2.420889E-3	-3.615992E-3	-9.065239E-3	-8.116706E-3	2.165411E-4	-3.954555E-3	2.448867E-3	5.101241E-3	-1.819154E-4	2.082752E-4	-3.616872E-3	2.828368E-3	4.030561E-3	-4.167312E-3	2.823675E-3	-4.146953E-4	-2.506940E-3	5.936081E-3	5.305120E-3	-8.482968E-3	-2.183240E-3	-3.612896E-3	-4.650308E-3	5.456468E-4	5.739379E-3	1.080877E-3	1.944887E-3	2.619852E-4	-6.421378E-3	-2.593136E-3	2.639514E-3	-5.760615E-3	-3.524768E-3	-1.893406E-3	-5.392580E-3	1.981023E-4	-9.150979E-3
2.800050E+2	-2.156951E-3	-3.089800E-3	3.810167E-3	-3.032730E-3	3.161682E-3	-1.804572E-3	-4.418253E-3	1.323399E-2	-5.435003E-4	6.912916E-4	4.691625E-3	-4.296548E-3	-9.868355E-4	-5.939267E-5	-6.827344E-4	-3.256729E-3	1.403184E-3	-6.723083E-4	-3.154318E-3	-1.663969E-3	-9.813919E-4	2.687902E-3	2.443969E-3	2.302216E-3	3.150339E-3	7.993633E-4	-4.767106E-3	2.149094E-3	-2.877385E-4	-7.648737E-4	3.332654E-3	-2.445909E-3	-2.039518E-3	8.674261E-4	-7.574824E-3	6.685219E-3	3.122749E-4	2.035197E-3	-1.905799E-3	-4.349895E-3	1.877381E-3	4.529969E-3	-2.558485E-4	7.630811E-4	4.555222E-3	1.099841E-3	-8.484289E-4	2.574090E-3	1.681168E-3	-6.536299E-9	-4.662104E-3	-4.569522E-3	-3.830717E-3	4.044822E-3	2.223013E-3	-1.316478E-3	-1.985723E-3	4.140751E-3	-6.846290E-4	3.391684E-3	7.795063E-4	1.204027E-3	-4.150598E-3	-5.264507E-3	-2.446731E-3	1.122155E-3	2.889922E-4	1.475230E-3	2.037561E-4	-4.399472E-3	-2.208194E-3	-2.702488E-3	2.322074E-3	-4.978304E-3	5.287510E-4	3.952916E-3	-1.571767E-3	8.557982E-4	-6.413350E-4	2.039587E-3	2.934439E-3	-6.290440E-4	1.142417E-8	-3.834012E-3	4.376384E-3	-3.662831E-3	6.049016E-3	-6.614078E-5	-1.655389E-3	-7.154909E-3	-1.281753E-3	-2.157253E-3	-1.513917E-3	1.904753E-3	5.738573E-3	2.744530E-3	5.701443E-3	-5.000650E-3	7.644551E-3	3.556920E-3	-5.173616E-3	1.613486E-3	-2.250373E-3	7.885841E-3	4.652381E-3	-8.682912E-4	-2.633201E-3	-2.779310E-3	1.287955E-3	-1.212016E-4	-1.406486E-3	-6.452821E-3	-2.033104E-3	1.323902E-3	4.729292E-3	2.346573E-4	-1.291122E-3	-7.365208E-3	1.742384E-3	-3.285106E-4	-1.569119E-4	1.426719E-4	7.390416E-3	3.508072E-3	-7.176202E-3	1.061671E-3	-2.865451E-3	5.290052E-3	4.420083E-3	3.660249E-3	4.811858E-4	-4.647554E-3	-4.191093E-3	-7.278681E-3	5.038058E-3	5.917272E-4	-1.208740E-3	-1.314139E-3	4.258807E-3	2.737775E-3	1.493222E-3	-7.287552E-4	-1.819332E-4	2.429857E-3	-3.081056E-3	-7.443136E-4	1.389999E-4	-4.630167E-4	7.444178E-3	-2.073428E-3	-4.618040E-3	-3.662693E-3	-2.691022E-3	-4.069054E-3	3.237230E-3	6.918381E-4	1.819725E-3	-1.394400E-3	-1.510334E-3	-3.242686E-3	-1.789274E-3	-4.453774E-3	-4.731340E-4	-3.778625E-3	1.528135E-3	-1.152129E-3	-2.949257E-3	-1.893385E-3	-3.288146E-3	-6.141442E-3	-3.050353E-3
2.805050E+2	-2.156988E-3	-1.822143E-3	9.878268E-4	-2.410620E-3	-5.073426E-3	-1.804572E-3	-2.811590E-3	2.811363E-3	3.804442E-3	2.903356E-3	1.606699E-3	-1.171739E-3	3.947375E-3	-1.009739E-3	7.299774E-3	4.718951E-3	8.419032E-4	-2.823715E-3	4.610155E-3	-7.451677E-3	1.635695E-3	6.688466E-3	-1.065322E-3	3.111095E-4	-2.577574E-3	2.930973E-3	4.148028E-3	1.576019E-3	3.395156E-3	-2.647645E-3	6.606788E-3	6.273302E-5	1.336224E-3	1.858809E-3	-3.104440E-3	5.571076E-4	-1.873838E-4	5.986055E-4	-4.856656E-3	2.511914E-3	-1.460180E-3	7.118481E-3	-3.837620E-3	2.081253E-4	-6.329982E-3	2.489143E-3	5.090342E-4	-2.178061E-3	4.483056E-3	5.357281E-4	-1.638020E-3	2.246051E-3	2.509787E-3	3.539229E-3	-2.858174E-3	1.843053E-3	-2.533497E-3	5.226831E-3	-4.944592E-3	-8.290769E-4	-2.858146E-3	-6.306973E-4	-2.168201E-3	3.158715E-3	-1.223349E-3	2.119602E-3	5.490279E-3	-2.950547E-4	1.290515E-3	3.010169E-3	1.226779E-3	-9.188363E-3	-3.141666E-3	-3.872070E-3	1.586364E-3	6.679073E-3	1.446015E-3	2.322826E-3	4.022911E-3	-1.118492E-3	6.986933E-4	7.758420E-3	-6.492450E-3	5.477361E-4	-1.094109E-3	3.263260E-3	-9.354056E-4	5.753851E-3	8.671056E-4	4.515232E-3	1.130953E-3	7.959522E-3	-3.847772E-9	-1.428587E-3	3.188092E-3	5.488957E-3	2.060878E-4	-3.846539E-4	2.300764E-3	-7.566194E-5	-6.383551E-5	-4.066018E-3	-3.309330E-3	1.877577E-3	-2.669394E-3	-5.142841E-3	4.739794E-3	1.111747E-3	-2.637240E-3	2.787550E-3	-2.344122E-3	1.784842E-3	4.787613E-3	-2.383042E-3	3.599896E-3	-1.642635E-3	1.427049E-3	-2.104336E-3	-3.082698E-3	-3.285619E-4	9.259726E-3	-4.992622E-3	9.512387E-4	4.012375E-8	1.741815E-3	-5.072524E-3	8.662933E-4	3.091615E-3	-7.987179E-3	-5.912711E-3	1.122669E-3	1.593450E-2	5.308756E-3	1.594365E-3	8.505862E-4	-9.861467E-4	4.230493E-3	6.106832E-3	1.371485E-3	-2.737789E-3	-1.373760E-3	-7.287552E-4	5.154552E-3	1.874385E-3	3.348937E-3	3.423778E-3	-4.169572E-4	-1.697817E-3	-3.850428E-3	2.902793E-3	2.243041E-3	-6.314590E-4	-8.841856E-3	3.103534E-3	-4.592339E-3	-7.302628E-3	7.413578E-4	2.000667E-3	3.806090E-3	-1.621318E-3	7.001477E-4	-4.977738E-3	-1.554636E-3	9.631500E-4	9.724351E-4	-1.664179E-3	-2.949292E-3	-5.335918E-3	9.338413E-3	3.367894E-3	1.525166E-2
2.810050E+2	-1.493285E-3	7.130277E-4	-1.834521E-3	-1.788571E-3	-2.720519E-3	-3.536929E-3	-1.205006E-3	-5.417032E-3	7.764723E-5	1.244294E-3	1.606737E-3	9.452368E-3	1.128701E-9	-3.385527E-3	-2.783381E-3	6.314120E-3	-7.015894E-3	4.706184E-3	-3.154330E-3	1.808644E-3	5.823203E-3	-8.126184E-4	9.399543E-4	8.275397E-3	1.431994E-3	-2.398093E-3	2.662154E-3	4.441481E-3	1.726381E-4	4.412731E-3	5.844544E-5	-4.954541E-3	-3.164808E-3	2.354476E-3	3.352791E-3	3.899728E-3	-6.869907E-4	-8.380413E-4	-1.413948E-3	4.472402E-3	-4.797781E-3	-2.717990E-3	-7.675087E-4	-3.468744E-4	2.188869E-3	-6.772775E-3	-4.015926E-3	4.686178E-3	1.120758E-3	-2.678797E-3	4.410113E-3	-6.428286E-3	5.151711E-3	-1.516796E-3	6.986585E-4	-1.843057E-3	-3.423858E-4	-5.091058E-3	5.401034E-3	5.200625E-3	-2.598439E-4	2.121435E-3	-6.814612E-4	3.158735E-3	4.281752E-3	-7.356310E-3	-8.669080E-4	2.950376E-4	-1.426366E-3	2.083986E-3	1.226785E-3	1.401225E-8	-4.097657E-4	5.531492E-3	-5.287720E-4	-3.135065E-3	-5.595499E-3	-5.990465E-3	-3.906318E-3	-1.644860E-3	-1.159812E-2	1.048449E-3	-5.992985E-3	5.476903E-4	4.923402E-3	5.993956E-4	-2.930946E-3	-2.182523E-3	3.389635E-3	6.251899E-4	5.278061E-4	-5.727894E-3	5.046514E-4	1.904761E-3	3.698211E-3	1.097768E-3	-8.930202E-4	1.153976E-3	-4.824216E-3	-7.946299E-3	-4.151693E-3	4.195077E-3	2.515089E-3	3.880356E-3	4.652329E-3	5.543538E-3	3.159849E-3	4.446931E-3	-6.746124E-4	3.272345E-3	1.875294E-3	5.629014E-3	5.312292E-3	-1.853476E-3	3.599937E-3	-3.519947E-3	1.427032E-3	5.786915E-3	1.340345E-4	-2.956830E-3	4.237459E-3	3.566163E-3	-1.975625E-3	-3.508095E-3	2.299168E-3	-8.257638E-4	-2.865425E-3	-1.854990E-3	-5.428091E-4	-4.223357E-3	5.613494E-3	2.655718E-3	-1.201454E-2	3.258099E-3	4.514632E-3	-4.141927E-3	6.043392E-4	-1.314105E-3	-5.558064E-3	-2.737778E-3	-2.329431E-3	-1.258741E-3	3.032101E-4	1.319063E-3	-4.018641E-4	4.614709E-3	-4.864496E-3	-4.630544E-4	-3.850447E-3	-5.943901E-3	3.826388E-3	-6.315114E-4	9.995280E-4	-2.068991E-4	1.430385E-3	6.918231E-4	6.133017E-3	1.030643E-3	-4.410264E-3	-3.783102E-3	2.567198E-3	-7.859332E-4	1.149078E-3	-2.000456E-3	-5.695758E-3	6.016652E-3	2.805400E-3	-8.089966E-3	-7.497053E-3	3.367894E-3	9.150993E-3
2.815020E+2	3.816191E-3	3.881998E-3	9.878165E-4	3.810342E-3	4.338175E-3	-3.536975E-3	9.371957E-4	3.359930E-3	-2.406879E-3	-3.179902E-3	-4.563085E-3	-5.468356E-4	4.933818E-4	3.266762E-3	2.678328E-3	9.969755E-4	1.403188E-3	-2.823728E-3	-2.183764E-3	5.281286E-3	-3.075179E-3	6.875967E-4	1.441310E-3	-3.671046E-3	-5.441549E-3	-3.463888E-3	-1.795428E-3	-1.289464E-3	-5.351693E-3	-1.706259E-3	5.261944E-4	2.571326E-3	5.274620E-3	1.858806E-3	5.339620E-3	-2.785509E-3	-5.183733E-3	2.992920E-3	3.995991E-3	-9.189753E-4	-9.039547E-4	-6.471335E-4	-2.814265E-3	3.537965E-3	-6.507472E-4	1.099839E-3	9.615716E-4	2.046089E-3	-6.724587E-3	2.143030E-3	3.402075E-3	7.822381E-3	-6.472644E-3	-4.044803E-3	-1.333804E-3	7.898790E-4	2.944338E-3	1.425489E-3	-3.118889E-3	-2.637999E-3	-1.818815E-3	-2.006756E-3	-1.858289E-4	-3.018366E-3	-1.223352E-3	3.117091E-3	-3.178543E-3	3.245445E-3	5.637444E-3	3.010175E-3	-1.717520E-3	4.864428E-3	1.229354E-3	5.531659E-4	6.345275E-3	1.363225E-4	-5.595511E-3	5.256959E-3	2.915250E-4	-2.697504E-3	-2.654998E-3	-6.290918E-4	4.494765E-3	2.425613E-3	-5.470413E-4	6.992659E-3	1.559043E-3	-2.182514E-3	-2.286043E-3	6.946856E-5	-7.540718E-5	-2.752349E-3	2.018491E-3	-2.380956E-3	-1.912861E-3	-3.842286E-3	-8.586544E-3	-2.436200E-3	-1.261695E-3	-5.524592E-3	2.490997E-3	9.358277E-3	9.398565E-3	-1.627236E-3	1.601649E-3	1.269008E-3	-1.927499E-8	2.119233E-8	-3.127877E-3	-1.575573E-3	-3.281755E-3	2.334012E-3	-4.131774E-3	2.647629E-4	3.599923E-3	5.866559E-3	-2.922069E-3	3.682609E-3	1.340214E-4	3.876745E-3	-7.062531E-3	-4.279547E-4	4.463492E-3	6.431489E-3	-1.045095E-3	5.898161E-4	3.331865E-4	8.931139E-4	-3.024302E-3	3.660232E-3	-5.292719E-3	1.316255E-8	-2.793822E-4	-1.733012E-3	3.271274E-4	-1.512152E-3	2.417385E-3	2.396361E-3	-3.609359E-4	-1.520982E-3	-2.807243E-3	-7.287520E-4	1.758611E-3	-2.568660E-3	2.277334E-3	-1.935189E-3	-9.729144E-4	2.623867E-3	-7.700715E-4	6.911498E-4	-1.979147E-3	-6.315206E-4	4.690018E-3	-1.310397E-3	2.634925E-3	-4.842773E-3	1.819682E-3	5.456350E-4	-5.376886E-3	5.404620E-4	1.944876E-3	2.620108E-4	-4.731636E-4	5.704939E-3	-4.028716E-3	2.944285E-3	1.079017E-3	8.434228E-3	3.025104E-3	1.981216E-4	6.100671E-3
2.820060E+2	9.789313E-3	1.346800E-3	-4.092399E-3	5.054569E-3	-2.720519E-3	5.052726E-4	2.008300E-3	1.165710E-3	-4.270276E-3	2.350340E-3	5.784182E-4	-6.796369E-3	-2.960524E-3	-1.484901E-3	-1.522962E-3	-3.256749E-3	2.525743E-3	5.781897E-3	-7.279128E-4	-2.242744E-3	-2.551768E-3	-1.812786E-3	4.386690E-4	-2.177739E-3	3.723158E-3	7.993828E-4	-3.281257E-3	-4.154922E-3	7.538405E-3	-2.647613E-3	-6.022094E-3	5.644350E-4	2.461524E-3	3.841571E-3	1.365974E-3	-7.242359E-3	8.119214E-4	1.197047E-4	3.995991E-3	-2.389350E-3	8.552589E-3	-1.294216E-4	2.302568E-3	-3.121745E-3	-1.597268E-3	-1.215618E-3	-1.753432E-3	-6.602138E-5	1.681131E-3	3.921779E-8	3.780189E-4	-7.667491E-3	3.566538E-3	3.033629E-3	-1.841923E-3	-3.422857E-3	-3.629043E-3	-7.466868E-4	-7.607979E-5	1.582773E-3	6.495783E-3	7.453673E-4	3.097460E-4	3.509923E-4	1.835033E-3	-2.368980E-3	2.022730E-3	-3.245473E-3	-1.969695E-3	3.010155E-3	-1.717511E-3	-1.080977E-3	1.365697E-4	6.084632E-3	-4.758961E-3	1.226793E-3	9.430904E-4	2.811851E-3	-1.107738E-3	4.605298E-4	-9.781628E-4	-4.543232E-3	1.498254E-3	-1.330167E-3	-6.564535E-3	4.328817E-3	-1.434329E-3	4.695695E-3	7.804108E-3	2.848068E-3	-1.281786E-3	-3.718872E-4	5.046360E-4	4.285722E-3	2.677994E-3	-9.880140E-3	4.602405E-3	2.692662E-3	-3.636700E-3	-1.891977E-3	-5.748188E-4	3.678792E-3	-3.838833E-3	2.378264E-3	-5.720078E-3	5.543600E-3	-4.213131E-3	3.891020E-3	3.741172E-3	-3.029930E-3	2.859823E-8	-2.608582E-3	4.262928E-3	-2.647903E-4	-3.176395E-3	-4.771495E-3	7.407101E-3	1.578262E-3	-1.474315E-3	-1.905537E-3	-2.668030E-3	2.424966E-3	-1.390279E-3	3.508108E-3	2.299182E-3	1.533555E-3	-1.999366E-4	-2.404569E-3	3.179381E-3	4.223346E-3	-1.603953E-4	-5.311477E-3	3.632301E-3	4.921779E-3	-1.766596E-3	-4.602508E-4	3.021761E-3	-5.643017E-3	1.371464E-3	-9.126244E-4	-2.329405E-3	-4.438753E-3	-4.063000E-3	-9.024988E-4	4.420625E-3	-6.103318E-3	3.474654E-3	1.389082E-3	-7.957589E-3	-2.626335E-3	2.770811E-3	-1.136688E-3	8.380519E-3	2.000029E-3	-2.183225E-3	7.456383E-3	-1.954474E-3	-2.849453E-3	1.389507E-3	8.647079E-3	2.567213E-3	1.833880E-3	3.312099E-3	-3.778585E-3	4.167591E-4	-2.176242E-3	-7.192136E-5	4.991657E-3	3.025111E-3	1.981023E-4	-3.050316E-3
2.825030E+2	3.152472E-3	3.248225E-3	3.245671E-3	2.566156E-3	2.205670E-4	9.167235E-3	7.363758E-3	-1.577134E-3	6.910141E-3	-3.179844E-3	1.606725E-3	3.827845E-3	6.414474E-3	8.493534E-3	4.358883E-3	-1.661600E-3	5.332076E-3	3.630527E-3	4.124871E-3	8.753953E-3	3.729495E-3	-3.813049E-3	3.947948E-3	-6.844651E-4	3.723165E-3	5.062595E-3	6.810273E-4	2.722203E-3	-1.668784E-3	-2.941623E-4	1.929401E-3	7.588566E-3	-3.516537E-4	3.717560E-4	2.359378E-3	-1.114194E-3	4.309383E-3	4.429566E-3	5.963248E-3	4.962530E-3	2.989905E-3	5.565365E-3	7.931096E-3	-3.676721E-3	2.957963E-4	6.657009E-3	3.676556E-3	2.574061E-3	5.603805E-3	5.893352E-3	1.386017E-3	6.583161E-3	-6.604716E-4	7.584043E-3	4.255528E-3	-1.843044E-3	5.683251E-3	8.485113E-3	4.183872E-3	2.788742E-3	2.858127E-3	2.866959E-4	-1.672626E-3	2.035611E-3	3.058426E-3	5.111988E-3	1.444801E-3	5.605833E-3	-8.829828E-4	5.788822E-3	-3.189683E-3	7.566877E-3	6.693091E-3	3.318897E-3	1.586322E-3	-2.044604E-3	6.475705E-3	2.811836E-3	1.224359E-3	2.039612E-3	8.523927E-3	1.048435E-3	-4.994321E-4	9.937142E-3	-5.470459E-3	1.664921E-3	6.236159E-5	4.629597E-4	1.497745E-3	6.947534E-5	-1.281760E-3	2.603588E-3	2.018503E-3	5.714301E-3	-4.973452E-3	4.391168E-3	5.701463E-3	2.692693E-3	4.675761E-3	8.400392E-3	9.133668E-3	3.678755E-3	9.928065E-3	-4.130690E-3	9.914547E-4	1.803348E-3	2.106538E-3	1.111699E-3	6.194389E-3	5.211442E-3	4.219385E-3	-9.610441E-4	-4.656437E-3	9.267432E-3	1.905846E-3	3.989266E-3	3.397983E-4	5.260883E-3	1.742401E-3	6.505010E-3	-3.295823E-3	4.136755E-3	-5.487925E-3	-4.677466E-3	8.430271E-3	1.533573E-3	2.465637E-3	6.938904E-3	9.383012E-3	4.223398E-3	1.074578E-2	-1.991777E-3	1.397032E-3	1.046742E-2	-3.860326E-3	6.903248E-3	7.252220E-3	9.198890E-3	-2.670788E-3	7.604977E-3	5.793696E-3	1.921265E-3	1.273458E-3	2.429793E-3	-4.152740E-3	7.591918E-3	-3.196648E-3	7.717234E-4	3.850407E-3	6.773263E-3	3.298590E-3	4.420496E-3	1.614604E-3	2.551795E-3	2.634955E-3	8.071302E-3	7.413249E-4	2.485708E-3	2.839497E-3	2.161800E-3	-1.166937E-3	9.693468E-3	9.260275E-3	5.112256E-3	7.084969E-3	8.576931E-3	2.805442E-3	7.745676E-3	7.233979E-3	-4.556566E-3	-3.050334E-3
2.830060E+2	1.045291E-2	1.212137E-2	9.454855E-3	6.298747E-3	9.632124E-3	3.970057E-3	5.221619E-3	5.554143E-3	2.562177E-3	4.562384E-3	1.600291E-2	3.827803E-3	4.934196E-3	6.592882E-3	5.619250E-3	7.909253E-3	1.318989E-2	6.857630E-3	-1.698485E-3	6.511077E-4	8.440404E-3	9.688933E-3	3.446607E-3	8.275424E-3	1.002389E-2	8.260071E-3	5.633884E-3	9.026233E-3	8.459142E-3	7.236853E-3	9.880940E-3	8.592028E-3	1.371407E-2	9.294087E-3	3.849496E-3	7.242344E-3	1.330277E-2	8.739364E-3	9.405924E-3	8.393452E-3	1.022134E-2	8.153949E-3	5.884396E-3	1.408258E-2	6.921569E-3	1.638205E-2	1.046400E-2	1.894260E-2	1.737182E-2	1.178683E-2	4.914098E-3	7.202750E-3	6.208410E-3	1.617932E-2	9.844821E-3	5.529207E-3	1.992558E-2	4.683768E-3	1.087812E-2	7.009537E-3	1.844800E-2	7.625699E-3	2.787711E-3	1.382812E-2	1.345701E-2	3.117058E-3	2.600652E-3	1.032651E-2	1.833868E-3	1.134609E-2	1.300398E-2	9.728885E-3	5.053961E-3	1.272243E-2	1.321938E-2	6.133843E-3	7.481633E-3	4.278894E-3	1.195219E-2	8.882141E-3	6.847095E-3	7.199254E-3	5.493582E-3	1.431887E-2	1.148797E-2	8.591015E-3	3.055678E-3	3.108391E-3	1.032658E-2	1.118392E-2	2.337343E-3	4.984032E-3	1.513879E-3	1.428568E-2	1.185972E-2	9.880166E-3	4.052841E-3	1.089883E-2	1.655082E-2	1.203298E-2	1.322147E-2	1.658673E-2	5.162628E-3	1.038930E-2	1.624506E-2	1.516130E-2	6.846310E-3	1.667572E-3	9.138362E-3	5.696252E-3	7.501166E-3	9.473293E-3	6.886312E-3	1.138570E-2	6.988084E-3	2.111939E-3	4.688874E-3	1.367825E-2	6.567512E-3	4.402383E-3	1.177088E-2	6.419111E-3	9.146598E-3	9.939631E-3	2.299192E-3	-2.241370E-3	9.929165E-3	9.686921E-3	1.248482E-2	8.165165E-3	3.688841E-3	1.195088E-2	1.592626E-2	1.601310E-2	1.079584E-2	3.747446E-3	7.856552E-3	6.725255E-3	1.234331E-2	1.308049E-2	1.152770E-2	8.612380E-4	1.291664E-2	1.076067E-2	7.099840E-3	1.235547E-2	1.389999E-4	9.415006E-3	1.001112E-2	1.396119E-2	6.993041E-3	8.967266E-3	6.535302E-3	2.241431E-2	1.829405E-2	1.237603E-2	8.828865E-3	1.218602E-2	5.739362E-3	1.134932E-2	1.874853E-2	1.598111E-2	5.475081E-3	8.075855E-3	5.417978E-3	1.420949E-2	1.546579E-2	9.122700E-3	1.670399E-2	1.981023E-4	2.135230E-2
2.835020E+2	1.178031E-2	1.592416E-2	1.284161E-2	6.298758E-3	1.198503E-2	2.071651E-2	1.539696E-2	1.817105E-2	2.305961E-2	1.728193E-2	2.577178E-2	2.507613E-2	1.529605E-2	1.609613E-2	1.654269E-2	1.109952E-2	2.666041E-2	2.675812E-2	1.674215E-2	1.396292E-2	2.257308E-2	4.688198E-3	1.547846E-2	1.225760E-2	2.033416E-2	1.891817E-2	7.119700E-3	1.418403E-2	2.134925E-2	1.570928E-2	1.268733E-2	2.314211E-2	2.609185E-2	2.466027E-2	1.527382E-2	2.228406E-3	2.579367E-2	2.310548E-2	1.284863E-2	2.015645E-2	1.522770E-2	2.368522E-2	1.509472E-2	2.018732E-2	1.544042E-2	2.147613E-2	1.770395E-2	2.105470E-2	1.176800E-2	1.660864E-2	1.247426E-2	1.835553E-2	2.258817E-2	1.668494E-2	2.102344E-2	1.606107E-2	1.280441E-2	1.826001E-2	1.757234E-2	1.002439E-2	8.054726E-3	1.634078E-2	9.725990E-3	2.618215E-2	1.039861E-2	6.109474E-3	2.600691E-3	1.386703E-2	1.704819E-2	7.641226E-3	1.300401E-2	2.161969E-2	1.871329E-2	2.765739E-2	2.379485E-2	1.485758E-2	1.653501E-2	7.702002E-3	1.195220E-2	1.151393E-2	2.193859E-2	1.335013E-2	1.448308E-2	1.995254E-2	1.531727E-2	2.617266E-2	1.053901E-2	1.474837E-2	5.912195E-3	1.729685E-2	1.198824E-2	2.462247E-2	1.312030E-2	1.666667E-2	1.696068E-2	1.811363E-2	2.328669E-2	1.089881E-2	1.595708E-2	9.005843E-3	1.322146E-2	2.588042E-2	1.416403E-2	1.239203E-2	2.234650E-2	2.103877E-2	1.211271E-2	5.558616E-3	1.846062E-2	1.345294E-2	1.359590E-2	2.539929E-2	2.262641E-2	1.827009E-2	1.941130E-2	1.587881E-2	1.501803E-2	3.261728E-2	1.246482E-2	1.544125E-2	2.181539E-2	1.098380E-2	1.500038E-2	1.578637E-2	1.846306E-2	1.521763E-2	1.366088E-2	2.012962E-2	1.868847E-2	1.379635E-2	1.395352E-2	1.195084E-2	2.654372E-2	1.767678E-2	2.231144E-2	1.321468E-2	2.719582E-2	2.280402E-2	1.985035E-2	1.186371E-2	2.060644E-2	2.100127E-2	2.019361E-2	1.964687E-2	1.460149E-2	1.056914E-2	1.570536E-2	2.623882E-3	2.335927E-2	1.783168E-2	1.860405E-2	2.109210E-2	1.145597E-2	2.958691E-2	2.130540E-2	1.729577E-2	9.907205E-3	1.412607E-2	2.313870E-2	2.161773E-2	2.123797E-2	3.432013E-2	1.845303E-2	2.289401E-2	1.430888E-2	2.086621E-2	9.135564E-3	4.991699E-3	1.880832E-2	1.763187E-2	1.220132E-2
2.840000E+2	4.430063E-2	4.064228E-2	2.469546E-2	3.242695E-2	4.021958E-2	2.418130E-2	3.521215E-2	2.146241E-2	3.983024E-2	2.557722E-2	2.577174E-2	3.320049E-2	3.651315E-2	2.369872E-2	2.914660E-2	3.289981E-2	2.666040E-2	2.675811E-2	2.887414E-2	3.364118E-2	3.775273E-2	3.319238E-2	3.503013E-2	3.266616E-2	3.350839E-2	3.543828E-2	2.544522E-2	3.023069E-2	2.963575E-2	2.841786E-2	2.765486E-2	3.518344E-2	3.790705E-2	4.002643E-2	1.229351E-2	3.008354E-2	3.079006E-2	3.411948E-2	3.793109E-2	3.682074E-2	3.135937E-2	3.145088E-2	2.686336E-2	3.017692E-2	2.727218E-2	2.934880E-2	2.358638E-2	2.211073E-2	3.418323E-2	2.357353E-2	2.457053E-2	2.641022E-2	3.843947E-2	5.258281E-2	3.321829E-2	3.554506E-2	2.869009E-2	4.324019E-2	3.765498E-2	3.414315E-2	3.923438E-2	2.138639E-2	2.806287E-2	3.572851E-2	3.119582E-2	2.256766E-2	3.380856E-2	3.747050E-2	3.878284E-2	3.172274E-2	3.017909E-2	2.594364E-2	3.510448E-2	4.148612E-2	3.172648E-2	2.085507E-2	3.363578E-2	3.019681E-2	2.967645E-2	2.677806E-2	4.094279E-2	2.453341E-2	3.346096E-2	3.560160E-2	2.844642E-2	3.949207E-2	2.251234E-2	1.951018E-2	3.744387E-2	4.508300E-2	4.335369E-2	2.343228E-2	2.825905E-2	3.047620E-2	3.379388E-2	3.677616E-2	3.482704E-2	2.833694E-2	4.683211E-2	3.201231E-2	4.183613E-2	3.827206E-2	2.793101E-2	2.540991E-2	2.783772E-2	3.760269E-2	1.843241E-2	3.390769E-2	2.876420E-2	2.993578E-2	3.281765E-2	4.352208E-2	2.839774E-2	4.633713E-2	2.957578E-2	3.590330E-2	3.404535E-2	4.945198E-2	2.157889E-2	2.437741E-2	5.257653E-2	4.236607E-2	3.841555E-2	2.631067E-2	3.518425E-2	3.550786E-2	3.231963E-2	3.826688E-2	3.791975E-2	4.082595E-2	2.678429E-2	3.452469E-2	4.498460E-2	3.764124E-2	2.859261E-2	3.530494E-2	2.538271E-2	3.826432E-2	2.851231E-2	2.829036E-2	2.634044E-2	3.107127E-2	3.280711E-2	4.408395E-2	3.978568E-2	3.855507E-2	1.514944E-2	4.337089E-2	3.208694E-2	4.271297E-2	3.496506E-2	2.462848E-2	5.082140E-2	3.786291E-2	4.118044E-2	4.004918E-2	3.848309E-2	3.110161E-2	2.168879E-2	3.512880E-2	3.804163E-2	3.589208E-2	2.926793E-2	3.830482E-2	3.209081E-2	4.134839E-2	3.445629E-2	1.394230E-2	3.774824E-2	5.408434E-2	2.135234E-2
2.841010E+2	4.230962E-2	3.493804E-2	2.356648E-2	3.491539E-2	3.963138E-2	4.208275E-2	3.253445E-2	3.682200E-2	4.417818E-2	3.000139E-2	3.451231E-2	3.882507E-2	3.651314E-2	3.082619E-2	3.124731E-2	3.928041E-2	5.023386E-2	2.837166E-2	3.372695E-2	3.422001E-2	3.513552E-2	3.719292E-2	2.700895E-2	3.465724E-2	4.038188E-2	3.703703E-2	3.881792E-2	3.825394E-2	3.423936E-2	3.689029E-2	3.092902E-2	2.013170E-2	3.621917E-2	2.614733E-2	3.265862E-2	3.565460E-2	3.778494E-2	3.795045E-2	2.711116E-2	3.927141E-2	3.580948E-2	3.559259E-2	3.351525E-2	3.572665E-2	2.869196E-2	3.073806E-2	2.630140E-2	3.583921E-2	3.698509E-2	3.536030E-2	2.658657E-2	4.623723E-2	3.157061E-2	4.954920E-2	3.931572E-2	2.659295E-2	4.238465E-2	3.998188E-2	3.096081E-2	2.931942E-2	4.287201E-2	2.872545E-2	2.310696E-2	5.201339E-2	3.792437E-2	2.456258E-2	3.034099E-2	4.278127E-2	3.932624E-2	3.635382E-2	3.901202E-2	3.351049E-2	3.073350E-2	3.872038E-2	3.648540E-2	2.521694E-2	4.168325E-2	2.726271E-2	3.060926E-2	3.309427E-2	4.038380E-2	3.515761E-2	2.547029E-2	3.685347E-2	3.774615E-2	3.203320E-2	2.001790E-2	3.591190E-2	3.302938E-2	3.007849E-2	4.094097E-2	2.819313E-2	3.280068E-2	3.380956E-2	4.195538E-2	3.018940E-2	3.043075E-2	3.244003E-2	2.664455E-2	3.746119E-2	4.081414E-2	4.395156E-2	3.322597E-2	2.540996E-2	3.576965E-2	3.386244E-2	3.739138E-2	3.501944E-2	2.042320E-2	2.993577E-2	2.297233E-2	3.144021E-2	2.944712E-2	3.097968E-2	2.336418E-2	2.839411E-2	3.241443E-2	4.366507E-2	1.246481E-2	3.699326E-2	3.813759E-2	3.494839E-2	4.309860E-2	3.683492E-2	3.295477E-2	3.267660E-2	2.378996E-2	3.881649E-2	3.419756E-2	4.251523E-2	3.512434E-2	4.381989E-2	3.772003E-2	3.819581E-2	1.969421E-2	3.320107E-2	2.900887E-2	4.197479E-2	3.428696E-2	4.106676E-2	2.729611E-2	3.372128E-2	3.183684E-2	3.741929E-2	3.174819E-2	4.391407E-2	3.182765E-2	3.596238E-2	4.440831E-2	4.160713E-2	3.021505E-2	3.119602E-2	2.867834E-2	4.117339E-2	2.612361E-2	2.836499E-2	3.363064E-2	4.419702E-2	2.845517E-2	3.783102E-2	3.430750E-2	3.955983E-2	2.115675E-2	4.186119E-2	3.264647E-2	4.698101E-2	2.237142E-2	4.148254E-2	2.091285E-2	5.725411E-2	3.050323E-2
2.842030E+2	5.491953E-2	4.127601E-2	3.711368E-2	3.864797E-2	4.374896E-2	4.381516E-2	4.752981E-2	4.066192E-2	4.790498E-2	4.991013E-2	3.913965E-2	4.882427E-2	4.539470E-2	3.937909E-2	4.091027E-2	3.396324E-2	4.911136E-2	3.697727E-2	5.702039E-2	3.190492E-2	4.508082E-2	4.569419E-2	4.656063E-2	3.814162E-2	4.496424E-2	5.142551E-2	4.377073E-2	4.513108E-2	4.436732E-2	4.253861E-2	5.104171E-2	4.973348E-2	4.184540E-2	5.291423E-2	4.060599E-2	5.626737E-2	5.926925E-2	5.423199E-2	4.284924E-2	4.417264E-2	5.806008E-2	5.526557E-2	4.170216E-2	4.460634E-2	4.572972E-2	4.138929E-2	4.621129E-2	4.534354E-2	4.931351E-2	5.571927E-2	4.120293E-2	5.119399E-2	6.115983E-2	4.803238E-2	4.541321E-2	5.239598E-2	5.388810E-2	5.138594E-2	3.643790E-2	4.318768E-2	5.794216E-2	4.156871E-2	4.293063E-2	6.043663E-2	4.465283E-2	4.650678E-2	4.247741E-2	4.514164E-2	5.128030E-2	5.719354E-2	4.735422E-2	3.675345E-2	4.439282E-2	5.144279E-2	4.283072E-2	3.939298E-2	5.224549E-2	3.851010E-2	4.320278E-2	4.572667E-2	5.659325E-2	4.745932E-2	3.695688E-2	4.937269E-2	4.868712E-2	5.654095E-2	3.498453E-2	4.331915E-2	4.627266E-2	5.341884E-2	3.852823E-2	4.247567E-2	3.885621E-2	4.238097E-2	4.093513E-2	5.379194E-2	4.142147E-2	4.115909E-2	5.455083E-2	4.351556E-2	4.234707E-2	6.047372E-2	4.328645E-2	4.043059E-2	5.468414E-2	4.722039E-2	3.581144E-2	3.891046E-2	3.857711E-2	4.496425E-2	3.797469E-2	4.901377E-2	5.043397E-2	3.786408E-2	4.030494E-2	4.278671E-2	4.491810E-2	5.681721E-2	3.659031E-2	3.699323E-2	4.692653E-2	5.092479E-2	4.426935E-2	3.858896E-2	4.131541E-2	4.636071E-2	4.351496E-2	4.486221E-2	5.280846E-2	5.546694E-2	4.795504E-2	5.178706E-2	5.057275E-2	4.207771E-2	4.481905E-2	4.056453E-2	4.713941E-2	6.485605E-2	4.237141E-2	5.080106E-2	3.780831E-2	4.432127E-2	4.396515E-2	4.519479E-2	4.085731E-2	4.986855E-2	4.683811E-2	4.275351E-2	6.289036E-2	6.870015E-2	4.974275E-2	5.443520E-2	5.143647E-2	5.607023E-2	3.816909E-2	3.758936E-2	4.764899E-2	4.322697E-2	5.648752E-2	3.999279E-2	6.169124E-2	4.899138E-2	4.170520E-2	5.490108E-2	5.153975E-2	6.131858E-2	4.423932E-2	3.322048E-2	4.195715E-2	8.102758E-2	7.930867E-2
2.843040E+2	6.553838E-2	6.092375E-2	6.590148E-2	6.602036E-2	8.727733E-2	6.460379E-2	7.484264E-2	5.986148E-2	6.964466E-2	6.152359E-2	7.050276E-2	6.382311E-2	5.625002E-2	6.741371E-2	4.805252E-2	6.692956E-2	7.829745E-2	5.956706E-2	6.866710E-2	5.563456E-2	7.648686E-2	6.369681E-2	8.265618E-2	6.950122E-2	7.532221E-2	5.941912E-2	6.605854E-2	5.028891E-2	6.462316E-2	6.324889E-2	6.460603E-2	6.227660E-2	6.153737E-2	6.332356E-2	7.140191E-2	5.682450E-2	7.925465E-2	6.045732E-2	6.891533E-2	7.259999E-2	6.084133E-2	7.959789E-2	7.291487E-2	6.403052E-2	6.040110E-2	6.778583E-2	6.385864E-2	7.860864E-2	6.892685E-2	7.447095E-2	6.438741E-2	5.429198E-2	7.014218E-2	8.999736E-2	7.335973E-2	5.608215E-2	6.484380E-2	5.573028E-2	6.990894E-2	5.826197E-2	6.521739E-2	5.624680E-2	5.086002E-2	6.324434E-2	6.116829E-2	6.146874E-2	5.519172E-2	6.638474E-2	7.736187E-2	7.340225E-2	6.698291E-2	5.567066E-2	6.570136E-2	6.803721E-2	6.503917E-2	4.866189E-2	6.481962E-2	5.953784E-2	5.999418E-2	6.783342E-2	6.665429E-2	6.199758E-2	5.793244E-2	6.251792E-2	6.509847E-2	7.465533E-2	4.645890E-2	7.030273E-2	7.149806E-2	7.064623E-2	5.240144E-2	5.616302E-2	5.651806E-2	5.380952E-2	6.286928E-2	5.708532E-2	6.560117E-2	5.808434E-2	7.889462E-2	7.499814E-2	8.475802E-2	8.009380E-2	6.552532E-2	5.795471E-2	7.542894E-2	8.088250E-2	5.108398E-2	6.781543E-2	5.133398E-2	6.532543E-2	5.344587E-2	6.988240E-2	6.145201E-2	5.586934E-2	6.232793E-2	6.093391E-2	7.101274E-2	6.733894E-2	5.857126E-2	5.328863E-2	7.078212E-2	6.233652E-2	6.534305E-2	6.373024E-2	6.249561E-2	6.004482E-2	5.471023E-2	8.828176E-2	6.707683E-2	5.321445E-2	6.142747E-2	7.568880E-2	8.186644E-2	8.034295E-2	7.099084E-2	6.528456E-2	7.010476E-2	6.609295E-2	6.200525E-2	7.452849E-2	6.838953E-2	8.089129E-2	5.706374E-2	8.185041E-2	6.872067E-2	6.058647E-2	6.740792E-2	6.868347E-2	5.724313E-2	8.749947E-2	5.396491E-2	5.494040E-2	7.357954E-2	7.372585E-2	6.527139E-2	4.373896E-2	5.735399E-2	6.020250E-2	6.325392E-2	6.917677E-2	6.293599E-2	6.837829E-2	5.252012E-2	7.327555E-2	7.654550E-2	6.899935E-2	6.438080E-2	5.800678E-2	7.668021E-2	7.627280E-2	4.880517E-2
2.844010E+2	8.279401E-2	9.958546E-2	8.170661E-2	6.726450E-2	9.551234E-2	8.770239E-2	1.026911E-1	7.302692E-2	8.330962E-2	7.756120E-2	8.952631E-2	7.819700E-2	7.154605E-2	7.691696E-2	6.989936E-2	8.979327E-2	1.024321E-1	7.193763E-2	8.371080E-2	7.531288E-2	1.084163E-1	8.620011E-2	8.817068E-2	7.846103E-2	7.532219E-2	8.233411E-2	8.141223E-2	8.983233E-2	7.567184E-2	7.266271E-2	6.975114E-2	9.438691E-2	8.010409E-2	8.265523E-2	8.381969E-2	8.690804E-2	1.022378E-1	9.685152E-2	1.161295E-1	9.024459E-2	9.143590E-2	8.425731E-2	8.468363E-2	7.956991E-2	7.317935E-2	8.445732E-2	7.879095E-2	9.286511E-2	8.517792E-2	8.625758E-2	8.908393E-2	9.952241E-2	8.916381E-2	9.707601E-2	1.043549E-1	7.977882E-2	9.168511E-2	1.040615E-1	1.082486E-1	8.238070E-2	7.716958E-2	8.376817E-2	9.843669E-2	1.042372E-1	7.768375E-2	7.742820E-2	8.235407E-2	9.588910E-2	1.023569E-1	1.025777E-1	9.691672E-2	7.026399E-2	6.843331E-2	9.624787E-2	9.412177E-2	7.156167E-2	8.695003E-2	7.518636E-2	6.559126E-2	9.678259E-2	8.509947E-2	9.610682E-2	7.141677E-2	9.694578E-2	8.315099E-2	9.809761E-2	7.938554E-2	7.188994E-2	9.798464E-2	8.509507E-2	8.497323E-2	6.568475E-2	8.578647E-2	7.952383E-2	7.868229E-2	8.398131E-2	8.153778E-2	7.603538E-2	8.245715E-2	6.712743E-2	8.935668E-2	1.022956E-1	8.193976E-2	8.549245E-2	1.047157E-1	1.070641E-1	6.898970E-2	7.559753E-2	6.850662E-2	8.083867E-2	6.938588E-2	8.745595E-2	7.037139E-2	9.240950E-2	7.588052E-2	9.097069E-2	8.514734E-2	9.259096E-2	7.679936E-2	8.693083E-2	9.275440E-2	7.717178E-2	7.002606E-2	8.243999E-2	8.980700E-2	8.033501E-2	8.829600E-2	9.762527E-2	8.940992E-2	8.080713E-2	8.003206E-2	1.102136E-1	7.683709E-2	7.812460E-2	7.203770E-2	8.737468E-2	8.158747E-2	9.825042E-2	5.218837E-2	7.696208E-2	6.456686E-2	6.870128E-2	7.598391E-2	9.573495E-2	9.068986E-2	9.988587E-2	8.686589E-2	8.226574E-2	9.420724E-2	8.860525E-2	8.774257E-2	7.919000E-2	9.387741E-2	7.869149E-2	9.056688E-2	7.325695E-2	8.592996E-2	7.572288E-2	6.132066E-2	9.079455E-2	9.031972E-2	9.143309E-2	6.063133E-2	9.757722E-2	9.932860E-2	1.074035E-1	6.380534E-2	7.590799E-2	7.141916E-2	1.095555E-1	7.320786E-2
2.845030E+2	1.192964E-1	1.173317E-1	8.622232E-2	1.157884E-1	1.149237E-1	1.321672E-1	1.257197E-1	9.606641E-2	1.187142E-1	1.195908E-1	1.034083E-1	1.213184E-1	1.223683E-1	9.592347E-2	9.846823E-2	1.084031E-1	1.058000E-1	1.074356E-1	1.108864E-1	9.383348E-2	1.183616E-1	1.167046E-1	1.307836E-1	1.083273E-1	1.297374E-1	1.100453E-1	1.041953E-1	1.184869E-1	1.115800E-1	1.070230E-1	9.500895E-2	1.109439E-1	1.093607E-1	1.109093E-1	1.180928E-1	1.214486E-1	1.277195E-1	1.255837E-1	1.328509E-1	1.069087E-1	1.281493E-1	1.173906E-1	1.056626E-1	1.001040E-1	1.048883E-1	1.011287E-1	9.915362E-2	1.060654E-1	1.232836E-1	1.044736E-1	1.198284E-1	1.199689E-1	1.250936E-1	1.269064E-1	1.251880E-1	1.150606E-1	1.141439E-1	1.350152E-1	1.210286E-1	1.215736E-1	1.052313E-1	1.039505E-1	1.167738E-1	1.300684E-1	1.094911E-1	1.133369E-1	9.622414E-2	1.189023E-1	1.110507E-1	1.155448E-1	1.106567E-1	9.890989E-2	1.159676E-1	1.128424E-1	1.411827E-1	8.410196E-2	1.085777E-1	9.817021E-2	1.005734E-1	1.088887E-1	1.225489E-1	9.890263E-2	1.238554E-1	1.125949E-1	1.099563E-1	1.167446E-1	1.222900E-1	1.216243E-1	1.206874E-1	1.051011E-1	1.211642E-1	1.007959E-1	8.830950E-2	9.714284E-2	1.026566E-1	1.163663E-1	9.637536E-2	9.757671E-2	1.062072E-1	1.028481E-1	1.220591E-1	1.193339E-1	1.168866E-1	9.500576E-2	1.077665E-1	1.145446E-1	1.127008E-1	1.000555E-1	9.402015E-2	8.520179E-2	1.036099E-1	1.269965E-1	7.824143E-2	1.146515E-1	7.926872E-2	1.203817E-1	1.139602E-1	1.220519E-1	9.181076E-2	1.021747E-1	1.140988E-1	1.199656E-1	8.700214E-2	1.268757E-1	1.031839E-1	1.062876E-1	9.149469E-2	1.245562E-1	1.353169E-1	1.117786E-1	1.178829E-1	1.155250E-1	1.170719E-1	1.174989E-1	1.018735E-1	1.205101E-1	1.124094E-1	1.180397E-1	1.116672E-1	1.158995E-1	1.027932E-1	9.997125E-2	9.102310E-2	1.307244E-1	1.073006E-1	1.100084E-1	1.029882E-1	1.273344E-1	1.203900E-1	1.356032E-1	1.120201E-1	9.737701E-2	1.209412E-1	1.145543E-1	9.177143E-2	1.058498E-1	1.010267E-1	1.038540E-1	1.082022E-1	1.253829E-1	1.071234E-1	1.066283E-1	1.011873E-1	1.076537E-1	1.182217E-1	1.294218E-1	9.027699E-2	9.656322E-2	1.177167E-1	1.254045E-1	1.006610E-1
2.846040E+2	1.538077E-1	1.655003E-1	1.302508E-1	1.593353E-1	1.549228E-1	1.748993E-1	1.492838E-1	1.629905E-1	1.491499E-1	1.400524E-1	1.671631E-1	1.281932E-1	1.391448E-1	1.510423E-1	1.303984E-1	1.429645E-1	1.394762E-1	1.257226E-1	1.472824E-1	1.465018E-1	1.602364E-1	1.402079E-1	1.864307E-1	1.506376E-1	1.835800E-1	1.830536E-1	1.864125E-1	1.580306E-1	1.589969E-1	1.305577E-1	1.492661E-1	1.676390E-1	1.481819E-1	1.505639E-1	1.632932E-1	1.615602E-1	1.771834E-1	1.811326E-1	1.672778E-1	1.559216E-1	1.809944E-1	1.779629E-1	1.588779E-1	1.406173E-1	1.526884E-1	1.497542E-1	1.416882E-1	1.699556E-1	1.686748E-1	1.575141E-1	1.278930E-1	1.497092E-1	1.731759E-1	1.708943E-1	1.673614E-1	1.513956E-1	1.831647E-1	1.513062E-1	1.739738E-1	1.487072E-1	1.509613E-1	1.392695E-1	1.633594E-1	1.676924E-1	1.547559E-1	1.492456E-1	1.742436E-1	1.802716E-1	1.556069E-1	1.562983E-1	1.724873E-1	1.280966E-1	1.733372E-1	1.532219E-1	1.771396E-1	1.249944E-1	1.392586E-1	1.333795E-1	1.532794E-1	1.520496E-1	1.320507E-1	1.330116E-1	1.603132E-1	1.645493E-1	1.657550E-1	1.652275E-1	1.941300E-1	1.359096E-1	1.686153E-1	1.584503E-1	1.706250E-1	1.198392E-1	1.529018E-1	1.471430E-1	1.373430E-1	1.580825E-1	1.425366E-1	1.391203E-1	1.453947E-1	1.470448E-1	1.603826E-1	1.776781E-1	1.899570E-1	1.380650E-1	1.547475E-1	1.626335E-1	1.527253E-1	1.306283E-1	1.494632E-1	1.191371E-1	1.256444E-1	1.588484E-1	1.312334E-1	1.400703E-1	1.408203E-1	1.416577E-1	1.634311E-1	1.541429E-1	1.588256E-1	1.274065E-1	1.787602E-1	1.673242E-1	1.625163E-1	1.561097E-1	1.349544E-1	1.270496E-1	1.277461E-1	1.641285E-1	1.365574E-1	1.557015E-1	1.307135E-1	1.493856E-1	1.589832E-1	1.640826E-1	1.379903E-1	1.378667E-1	1.541095E-1	1.668942E-1	1.393855E-1	1.603124E-1	1.233401E-1	1.413111E-1	1.540901E-1	1.590491E-1	1.373072E-1	1.534758E-1	1.363447E-1	1.643774E-1	1.491402E-1	1.743075E-1	1.315478E-1	1.332461E-1	1.529255E-1	1.592451E-1	1.435672E-1	1.458220E-1	1.463167E-1	1.499302E-1	1.309182E-1	1.626733E-1	1.376190E-1	1.495941E-1	1.114615E-1	1.621843E-1	1.793471E-1	1.514400E-1	1.167486E-1	1.172185E-1	1.366566E-1	1.349139E-1	1.342147E-1
2.847020E+2	3.270281E-1	3.144425E-1	2.781411E-1	3.111276E-1	3.378593E-1	3.591109E-1	3.195876E-1	2.770908E-1	3.149925E-1	2.854970E-1	3.316907E-1	2.656819E-1	3.182566E-1	2.950167E-1	2.778640E-1	2.870596E-1	3.319920E-1	2.983735E-1	3.016016E-1	2.854078E-1	3.376805E-1	3.347360E-1	3.879642E-1	3.173906E-1	3.416711E-1	3.503864E-1	3.394556E-1	3.242277E-1	3.454435E-1	2.971817E-1	3.302802E-1	3.492632E-1	3.597299E-1	3.473503E-1	3.540295E-1	3.593313E-1	3.780371E-1	3.798634E-1	3.807251E-1	3.431495E-1	3.606675E-1	3.389707E-1	3.241518E-1	2.871315E-1	3.415232E-1	2.923878E-1	2.923696E-1	3.632099E-1	3.451948E-1	3.332436E-1	3.315129E-1	3.671868E-1	3.596936E-1	3.837532E-1	3.878855E-1	3.256979E-1	3.639334E-1	3.511484E-1	3.419377E-1	3.386426E-1	3.027025E-1	3.332950E-1	3.264088E-1	3.445799E-1	3.358138E-1	3.267943E-1	3.331731E-1	3.596578E-1	3.463291E-1	3.332048E-1	3.560155E-1	3.151065E-1	3.361564E-1	3.429520E-1	3.363002E-1	2.743879E-1	3.022190E-1	2.879090E-1	2.824799E-1	3.336407E-1	3.215336E-1	3.180962E-1	3.595807E-1	3.416973E-1	3.512033E-1	3.580929E-1	3.487848E-1	3.263818E-1	3.414091E-1	3.518420E-1	3.576114E-1	3.144387E-1	3.098403E-1	2.985712E-1	3.153669E-1	3.699568E-1	3.117943E-1	2.981150E-1	3.549883E-1	3.238310E-1	3.484211E-1	3.506443E-1	3.636323E-1	3.077985E-1	3.548744E-1	3.352182E-1	3.244096E-1	3.240688E-1	2.922418E-1	2.994791E-1	2.855136E-1	3.461173E-1	2.655487E-1	3.132391E-1	3.045811E-1	3.293873E-1	2.966227E-1	3.330120E-1	3.630881E-1	2.935148E-1	3.256603E-1	2.939945E-1	3.644723E-1	3.057885E-1	3.099704E-1	2.988086E-1	3.191317E-1	3.323104E-1	3.369348E-1	3.229473E-1	3.764235E-1	3.545424E-1	3.595978E-1	3.487535E-1	3.751064E-1	2.893423E-1	3.414586E-1	3.561288E-1	3.518925E-1	3.026770E-1	2.595217E-1	3.045512E-1	3.335892E-1	3.606554E-1	2.943066E-1	3.362776E-1	2.692147E-1	3.273650E-1	3.370408E-1	3.705941E-1	2.798522E-1	3.019826E-1	3.189983E-1	3.540082E-1	3.019655E-1	2.940270E-1	3.042932E-1	3.167754E-1	2.884793E-1	3.356151E-1	3.012988E-1	3.088813E-1	2.493522E-1	3.263685E-1	3.443850E-1	3.188821E-1	2.692484E-1	2.886564E-1	3.344727E-1	3.789871E-1	2.684291E-1
2.848020E+2	7.756765E-1	7.264111E-1	6.360129E-1	7.497086E-1	8.184358E-1	8.101108E-1	7.978309E-1	7.192290E-1	7.193508E-1	6.410894E-1	6.967373E-1	6.537768E-1	6.735198E-1	6.632679E-1	6.576631E-1	7.118994E-1	7.288124E-1	6.684150E-1	7.000165E-1	6.529285E-1	7.935924E-1	7.487966E-1	7.454098E-1	6.752875E-1	7.580907E-1	7.175589E-1	7.282538E-1	6.560488E-1	6.446779E-1	6.370198E-1	6.740659E-1	7.697080E-1	6.798646E-1	7.062247E-1	7.066933E-1	7.498609E-1	7.877380E-1	7.888187E-1	7.717166E-1	6.965304E-1	7.383706E-1	7.505501E-1	6.915403E-1	6.584115E-1	6.855909E-1	7.101015E-1	6.471272E-1	7.407432E-1	6.948724E-1	7.506027E-1	6.944013E-1	7.575314E-1	7.919071E-1	7.862139E-1	7.872674E-1	6.400739E-1	7.632667E-1	7.253080E-1	7.922762E-1	6.823353E-1	6.841332E-1	6.493327E-1	7.005802E-1	7.685485E-1	6.636760E-1	7.098210E-1	7.434983E-1	7.862908E-1	8.380761E-1	7.569465E-1	8.114004E-1	7.242590E-1	6.912993E-1	7.008392E-1	7.392263E-1	6.075243E-1	7.045917E-1	6.390233E-1	6.733454E-1	7.362983E-1	6.876427E-1	6.776404E-1	7.271520E-1	7.316708E-1	7.242886E-1	7.534133E-1	8.012764E-1	6.295498E-1	7.607802E-1	7.302893E-1	7.677751E-1	5.869968E-1	6.878052E-1	5.890475E-1	7.142617E-1	7.278380E-1	7.250478E-1	6.520069E-1	7.646773E-1	7.361317E-1	8.001234E-1	7.828026E-1	8.158237E-1	6.677932E-1	7.276724E-1	6.707707E-1	7.209688E-1	7.287381E-1	6.592455E-1	6.611316E-1	6.315052E-1	7.629399E-1	5.724807E-1	6.616944E-1	6.823603E-1	7.849447E-1	7.451242E-1	7.738710E-1	7.855518E-1	6.525397E-1	7.695001E-1	7.213635E-1	7.402861E-1	7.261742E-1	7.313455E-1	6.800755E-1	6.768476E-1	8.011315E-1	7.228008E-1	6.878464E-1	7.600636E-1	7.429456E-1	7.781503E-1	7.735518E-1	8.137446E-1	6.559356E-1	7.282434E-1	7.679922E-1	7.699771E-1	6.786657E-1	6.413083E-1	6.824414E-1	6.906475E-1	8.021891E-1	6.693904E-1	7.000947E-1	7.373176E-1	7.490352E-1	7.569952E-1	7.764366E-1	7.690988E-1	6.697679E-1	7.458672E-1	7.286374E-1	7.416248E-1	6.396341E-1	6.455867E-1	6.819917E-1	6.311496E-1	7.631061E-1	6.859165E-1	7.102432E-1	6.538312E-1	7.151960E-1	7.761519E-1	7.802434E-1	6.732290E-1	6.687134E-1	7.700912E-1	7.229074E-1	6.954760E-1
2.848990E+2	9.834083E-1	1.040141E+0	8.324473E-1	1.001659E+0	1.030196E+0	1.010491E+0	9.991965E-1	8.492381E-1	1.026812E+0	9.270010E-1	9.291328E-1	8.825089E-1	9.098689E-1	9.094024E-1	8.563851E-1	9.400047E-1	9.819461E-1	9.228186E-1	8.849080E-1	8.786503E-1	1.034896E+0	1.023837E+0	9.589747E-1	8.619513E-1	9.436750E-1	9.243272E-1	8.644571E-1	8.583500E-1	8.228373E-1	8.168233E-1	8.882891E-1	9.779240E-1	8.756594E-1	8.950809E-1	9.207751E-1	8.963790E-1	9.736022E-1	9.822815E-1	9.954919E-1	8.617030E-1	9.297250E-1	9.788599E-1	9.177042E-1	8.365593E-1	8.914632E-1	9.384082E-1	8.412487E-1	9.999996E-1	9.347155E-1	9.809800E-1	9.433825E-1	9.601391E-1	1.016996E+0	1.042555E+0	1.027100E+0	9.007375E-1	9.599209E-1	1.028872E+0	9.809314E-1	8.813153E-1	9.107048E-1	8.511556E-1	8.889048E-1	9.959751E-1	9.554487E-1	8.629314E-1	9.711999E-1	9.751183E-1	1.026625E+0	1.023695E+0	1.056269E+0	8.518150E-1	9.300644E-1	9.536276E-1	9.956821E-1	7.879957E-1	8.509548E-1	8.463675E-1	8.459234E-1	9.373645E-1	8.849505E-1	8.890056E-1	8.924587E-1	9.294750E-1	9.584248E-1	9.814418E-1	9.938469E-1	8.565291E-1	1.058439E+0	9.386850E-1	1.070572E+0	9.190659E-1	8.861233E-1	8.414285E-1	9.397238E-1	9.814289E-1	9.168366E-1	8.602384E-1	9.855521E-1	9.843599E-1	9.610804E-1	1.019276E+0	1.095398E+0	8.705721E-1	1.018711E+0	8.983907E-1	9.047660E-1	8.910508E-1	8.623735E-1	8.443824E-1	8.490390E-1	9.924947E-1	7.833987E-1	8.788174E-1	9.014611E-1	9.670431E-1	9.517067E-1	9.979828E-1	1.020373E+0	8.622774E-1	1.015590E+0	9.587276E-1	1.024196E+0	9.483528E-1	9.481643E-1	9.334669E-1	9.391363E-1	1.060549E+0	9.777708E-1	8.719852E-1	9.448276E-1	1.017815E+0	1.018999E+0	1.013679E+0	1.066563E+0	9.152330E-1	9.107578E-1	1.011647E+0	1.026371E+0	9.323665E-1	8.764013E-1	8.939117E-1	8.783936E-1	1.021012E+0	8.971196E-1	9.335083E-1	9.697014E-1	9.540048E-1	9.941815E-1	1.067825E+0	1.001847E+0	8.622489E-1	9.826750E-1	9.874024E-1	9.903641E-1	8.954571E-1	8.898297E-1	8.643578E-1	8.196429E-1	1.006846E+0	9.130771E-1	9.481274E-1	9.404276E-1	9.433950E-1	1.025654E+0	9.190099E-1	9.926147E-1	8.759534E-1	9.289759E-1	9.289434E-1	1.095068E+0
2.850010E+2	1.019910E+0	1.050915E+0	8.742181E-1	9.935718E-1	1.101370E+0	1.029547E+0	1.072567E+0	9.326183E-1	9.765002E-1	9.657129E-1	9.425010E-1	9.487537E-1	9.108554E-1	8.785165E-1	8.282364E-1	9.612732E-1	1.016745E+0	9.045318E-1	8.771435E-1	9.099043E-1	1.082528E+0	1.014836E+0	1.018131E+0	8.694180E-1	9.522675E-1	9.062082E-1	8.991268E-1	8.772624E-1	8.527610E-1	8.177644E-1	9.074659E-1	9.392915E-1	8.852239E-1	9.273000E-1	8.571965E-1	9.186629E-1	1.002581E+0	9.947329E-1	1.047624E+0	9.033640E-1	9.514197E-1	9.457268E-1	8.962138E-1	8.554286E-1	9.014021E-1	9.134012E-1	8.439637E-1	1.010560E+0	9.201460E-1	9.627646E-1	8.839096E-1	1.015903E+0	1.024922E+0	1.018792E+0	1.074355E+0	9.207477E-1	9.325319E-1	9.903156E-1	1.032659E+0	9.343765E-1	8.821237E-1	8.662921E-1	8.993119E-1	1.030791E+0	9.481092E-1	8.788906E-1	9.469276E-1	9.851497E-1	1.019018E+0	1.011191E+0	1.040566E+0	8.480317E-1	9.683102E-1	9.243104E-1	9.851063E-1	7.929033E-1	8.952154E-1	8.175152E-1	8.818386E-1	9.847357E-1	8.525312E-1	8.755854E-1	9.389043E-1	9.382381E-1	1.024070E+0	1.016605E+0	1.021286E+0	8.480632E-1	1.018709E+0	9.692503E-1	1.089874E+0	9.321580E-1	9.017664E-1	8.461905E-1	9.631880E-1	1.056079E+0	9.201336E-1	8.935758E-1	1.003365E+0	9.504553E-1	1.028019E+0	9.975906E-1	1.072629E+0	8.735765E-1	9.973561E-1	9.256410E-1	9.200390E-1	9.060585E-1	8.638453E-1	8.933460E-1	8.176279E-1	9.891995E-1	7.403757E-1	9.052955E-1	9.291313E-1	9.864417E-1	9.723650E-1	1.008504E+0	1.034312E+0	8.701626E-1	9.885951E-1	1.059722E+0	1.003121E+0	9.033319E-1	9.520653E-1	8.810895E-1	9.087494E-1	1.021527E+0	1.001345E+0	9.119660E-1	9.730551E-1	9.985609E-1	1.056999E+0	1.031426E+0	1.066040E+0	8.799942E-1	9.681710E-1	1.000516E+0	1.020596E+0	9.591361E-1	8.329184E-1	9.055711E-1	9.162335E-1	1.038785E+0	9.089082E-1	9.894802E-1	9.724804E-1	1.026856E+0	1.012664E+0	1.021380E+0	1.040375E+0	9.006442E-1	9.826754E-1	9.984365E-1	1.032523E+0	8.911518E-1	8.989954E-1	8.939433E-1	8.679744E-1	9.944153E-1	9.541527E-1	9.020172E-1	9.398874E-1	9.706598E-1	1.057884E+0	1.006571E+0	1.012181E+0	8.532328E-1	1.022623E+0	1.087434E+0	1.095069E+0
2.851060E+2	9.502240E-1	9.602815E-1	7.664048E-1	9.108321E-1	9.578443E-1	9.527444E-1	9.429644E-1	8.229068E-1	9.454438E-1	8.390708E-1	8.756615E-1	8.137650E-1	8.777958E-1	8.433548E-1	8.244553E-1	8.655648E-1	9.095420E-1	8.507467E-1	8.494824E-1	8.259822E-1	9.699895E-1	9.158215E-1	9.143563E-1	7.728507E-1	9.070165E-1	8.630425E-1	8.446460E-1	8.044792E-1	7.685148E-1	7.749318E-1	8.167258E-1	9.187203E-1	8.154581E-1	8.316334E-1	8.447783E-1	8.596100E-1	9.006556E-1	9.463665E-1	9.177853E-1	8.141610E-1	8.874491E-1	8.458086E-1	8.302064E-1	7.849461E-1	8.266249E-1	8.096670E-1	7.756366E-1	9.023164E-1	8.562625E-1	8.620410E-1	8.118355E-1	9.074738E-1	9.160761E-1	9.525577E-1	9.513898E-1	8.291207E-1	8.525553E-1	8.746464E-1	9.389408E-1	8.379015E-1	8.317169E-1	7.832696E-1	8.571876E-1	9.662135E-1	8.276072E-1	8.030836E-1	9.209207E-1	9.220103E-1	1.003804E+0	9.023620E-1	9.448763E-1	7.999276E-1	8.459227E-1	9.093758E-1	9.443910E-1	7.062112E-1	7.785277E-1	7.891521E-1	7.815566E-1	8.736758E-1	8.268199E-1	8.090446E-1	8.400201E-1	8.793977E-1	8.982494E-1	8.770171E-1	9.220076E-1	7.893345E-1	8.944743E-1	8.708867E-1	9.125390E-1	8.881202E-1	8.079061E-1	7.714283E-1	8.157710E-1	9.325770E-1	8.536397E-1	8.176689E-1	9.683332E-1	8.669051E-1	8.731933E-1	9.284038E-1	9.635531E-1	7.879585E-1	9.052241E-1	8.657973E-1	8.236635E-1	8.198996E-1	7.882856E-1	7.677856E-1	7.810596E-1	8.991351E-1	6.879089E-1	8.311560E-1	8.009460E-1	9.632885E-1	9.158265E-1	9.348528E-1	9.013538E-1	7.718638E-1	9.207953E-1	8.816979E-1	9.281932E-1	8.664977E-1	8.790498E-1	8.079507E-1	8.666337E-1	9.896492E-1	9.182155E-1	8.376353E-1	8.646352E-1	9.149055E-1	9.972060E-1	9.343764E-1	9.822901E-1	8.394946E-1	8.962534E-1	9.807264E-1	9.628496E-1	8.471916E-1	8.066380E-1	8.599915E-1	8.449194E-1	9.249299E-1	8.290688E-1	9.067136E-1	9.018758E-1	8.916497E-1	8.863699E-1	9.494999E-1	9.517087E-1	8.238537E-1	9.162462E-1	8.776064E-1	9.518182E-1	8.604043E-1	8.229730E-1	8.042156E-1	8.123929E-1	8.922715E-1	8.875599E-1	8.711032E-1	8.706712E-1	8.841227E-1	9.389673E-1	9.353958E-1	9.149264E-1	8.215617E-1	8.974094E-1	8.924905E-1	1.052365E+0
2.851990E+2	8.062057E-1	7.561993E-1	6.619779E-1	7.098936E-1	7.925540E-1	7.875890E-1	7.839069E-1	6.726021E-1	7.833278E-1	7.284668E-1	6.972514E-1	7.006484E-1	7.248357E-1	6.817996E-1	6.366566E-1	7.065822E-1	7.664173E-1	7.173590E-1	6.961342E-1	6.645043E-1	8.176705E-1	7.878026E-1	7.564384E-1	6.583632E-1	7.019572E-1	6.909138E-1	7.223108E-1	6.864224E-1	6.363914E-1	6.582004E-1	6.633078E-1	7.100033E-1	6.309169E-1	6.680576E-1	6.833481E-1	7.164344E-1	7.847400E-1	7.629594E-1	7.854873E-1	6.548703E-1	7.305831E-1	7.427845E-1	6.987034E-1	6.384325E-1	6.609808E-1	6.837050E-1	6.516523E-1	7.021976E-1	7.156068E-1	7.822127E-1	7.100261E-1	7.290305E-1	7.670735E-1	7.614392E-1	7.730402E-1	6.395470E-1	7.057495E-1	7.535462E-1	7.770622E-1	6.853501E-1	6.934875E-1	6.594233E-1	6.886859E-1	7.769715E-1	6.875323E-1	6.788990E-1	7.712386E-1	6.948271E-1	8.092783E-1	7.578724E-1	8.030589E-1	6.848028E-1	7.000416E-1	7.058175E-1	7.492729E-1	5.709940E-1	6.713964E-1	6.341339E-1	6.644837E-1	7.715640E-1	6.624902E-1	6.798767E-1	7.476281E-1	6.866021E-1	7.264767E-1	7.342332E-1	7.942918E-1	6.776968E-1	7.904195E-1	7.375136E-1	7.834581E-1	6.839993E-1	6.706478E-1	6.480952E-1	7.438472E-1	8.085255E-1	6.871294E-1	6.868827E-1	7.729895E-1	7.300774E-1	7.653767E-1	7.647315E-1	8.470637E-1	6.552761E-1	7.368246E-1	7.370263E-1	7.099095E-1	6.892717E-1	6.754373E-1	6.470730E-1	6.535398E-1	7.288911E-1	5.887457E-1	6.463373E-1	6.761487E-1	7.161105E-1	6.989148E-1	8.033314E-1	7.249702E-1	6.777710E-1	7.324614E-1	7.864106E-1	7.923854E-1	7.185735E-1	6.979030E-1	6.838510E-1	7.056353E-1	7.945360E-1	7.457548E-1	6.653214E-1	7.562153E-1	7.648557E-1	8.239733E-1	7.946257E-1	7.786745E-1	7.032716E-1	7.264303E-1	7.512950E-1	7.653574E-1	7.352465E-1	6.389192E-1	6.750216E-1	6.639650E-1	7.938589E-1	6.543872E-1	7.322482E-1	7.817932E-1	7.410092E-1	7.184907E-1	7.742243E-1	7.928486E-1	6.460235E-1	7.680107E-1	7.253269E-1	7.356018E-1	6.654618E-1	7.108261E-1	6.819918E-1	6.698150E-1	7.506753E-1	7.045875E-1	7.008124E-1	6.981731E-1	7.543159E-1	8.033802E-1	7.612967E-1	7.468891E-1	6.439268E-1	7.269504E-1	7.799642E-1	8.601943E-1
2.853000E+2	6.747969E-1	6.585950E-1	5.383602E-1	6.514165E-1	6.231466E-1	6.588148E-1	6.114606E-1	5.513702E-1	5.870486E-1	5.902113E-1	5.990489E-1	5.800328E-1	5.925991E-1	5.672851E-1	5.648139E-1	5.975810E-1	6.171191E-1	5.861234E-1	5.748142E-1	5.655342E-1	6.506947E-1	6.547829E-1	6.561735E-1	5.224722E-1	6.022911E-1	6.035169E-1	5.890790E-1	5.540373E-1	5.493834E-1	5.428815E-1	5.267296E-1	6.161807E-1	5.825305E-1	5.416583E-1	5.939401E-1	5.994429E-1	6.508379E-1	6.298334E-1	6.325336E-1	5.441013E-1	6.248924E-1	6.211230E-1	5.907387E-1	5.607352E-1	5.686930E-1	5.836760E-1	5.638681E-1	6.552037E-1	6.001682E-1	5.979105E-1	5.804952E-1	6.385701E-1	6.286382E-1	6.709364E-1	6.983468E-1	5.647714E-1	5.972885E-1	6.161556E-1	6.675205E-1	5.713894E-1	5.703275E-1	5.603460E-1	5.533899E-1	6.601703E-1	5.829340E-1	5.761607E-1	6.105762E-1	6.470305E-1	6.718066E-1	6.370018E-1	6.538804E-1	5.091436E-1	6.060648E-1	6.034851E-1	6.329428E-1	5.044753E-1	5.642645E-1	4.967196E-1	5.525408E-1	5.968156E-1	5.775305E-1	6.133364E-1	6.107878E-1	6.246315E-1	6.077679E-1	6.718984E-1	6.496144E-1	5.396045E-1	5.980766E-1	6.252573E-1	6.688535E-1	6.131819E-1	5.323803E-1	5.033333E-1	5.897978E-1	6.570304E-1	6.151400E-1	5.566098E-1	6.506766E-1	6.168614E-1	6.463197E-1	6.351357E-1	6.495611E-1	5.596448E-1	6.269988E-1	6.141328E-1	5.808826E-1	5.775432E-1	5.375650E-1	5.578719E-1	5.461787E-1	6.558508E-1	4.733182E-1	5.917919E-1	5.688572E-1	6.166138E-1	5.977982E-1	6.754933E-1	6.617082E-1	5.416254E-1	6.508505E-1	6.266464E-1	6.530638E-1	5.653866E-1	5.892146E-1	5.394600E-1	5.840871E-1	6.593310E-1	6.347088E-1	5.819799E-1	6.574179E-1	6.732320E-1	6.887392E-1	6.277005E-1	7.127211E-1	5.854578E-1	5.964949E-1	6.331779E-1	6.544837E-1	6.001828E-1	5.576883E-1	6.050613E-1	5.800367E-1	6.844470E-1	5.852648E-1	6.101820E-1	6.450311E-1	6.385244E-1	6.307003E-1	6.514771E-1	6.550999E-1	5.576141E-1	6.197751E-1	6.083589E-1	6.506813E-1	5.455456E-1	5.674076E-1	5.655881E-1	5.446359E-1	6.285357E-1	5.950524E-1	5.923494E-1	5.824531E-1	6.665928E-1	6.127805E-1	6.476212E-1	6.254643E-1	5.447815E-1	6.301460E-1	6.690209E-1	6.405699E-1
2.854020E+2	5.274599E-1	5.077510E-1	4.164355E-1	5.021123E-1	5.496194E-1	5.254207E-1	4.898914E-1	4.849943E-1	5.100285E-1	4.862440E-1	4.910772E-1	4.625417E-1	4.835526E-1	4.708271E-1	4.425557E-1	4.779448E-1	4.925162E-1	4.505849E-1	4.360240E-1	4.092651E-1	5.235000E-1	5.237640E-1	4.852212E-1	4.697085E-1	4.791407E-1	4.921398E-1	4.672388E-1	4.325422E-1	4.292291E-1	4.059112E-1	4.392628E-1	4.927566E-1	4.660665E-1	4.568960E-1	4.434373E-1	4.596103E-1	5.049441E-1	5.412426E-1	5.125309E-1	4.401947E-1	4.797077E-1	5.217222E-1	4.909604E-1	4.336451E-1	4.863437E-1	4.405787E-1	4.511962E-1	5.047190E-1	4.589519E-1	4.848649E-1	4.771725E-1	5.065963E-1	4.997139E-1	5.035813E-1	5.052610E-1	4.689311E-1	4.723940E-1	4.912540E-1	4.983393E-1	4.526039E-1	4.128701E-1	4.186113E-1	4.651742E-1	5.282058E-1	4.709955E-1	4.325256E-1	4.886343E-1	5.036393E-1	5.234665E-1	4.939019E-1	5.312015E-1	4.345555E-1	4.661932E-1	4.585597E-1	4.896447E-1	4.592209E-1	4.163926E-1	4.233667E-1	4.391991E-1	4.894403E-1	4.763613E-1	4.718670E-1	4.939238E-1	4.775304E-1	4.978119E-1	5.008770E-1	5.258902E-1	4.713521E-1	4.959137E-1	4.907731E-1	5.150419E-1	4.965413E-1	4.435659E-1	4.423810E-1	4.485015E-1	5.209037E-1	4.579716E-1	4.622388E-1	5.123328E-1	4.303876E-1	5.247080E-1	5.086376E-1	5.203635E-1	4.219550E-1	4.872757E-1	5.040632E-1	4.465903E-1	4.574763E-1	4.335481E-1	4.231001E-1	4.228787E-1	5.333854E-1	3.715323E-1	4.636363E-1	4.463193E-1	4.545407E-1	4.950506E-1	5.134589E-1	5.394718E-1	4.764436E-1	5.058333E-1	4.697353E-1	5.365739E-1	4.654060E-1	4.582314E-1	4.531086E-1	4.742661E-1	5.136833E-1	5.118776E-1	4.428907E-1	4.758622E-1	5.311496E-1	5.417717E-1	5.544975E-1	5.588319E-1	4.739540E-1	4.834808E-1	5.428895E-1	5.205119E-1	4.955383E-1	4.315409E-1	4.317517E-1	4.718523E-1	5.244953E-1	4.791697E-1	4.720391E-1	4.749133E-1	4.897356E-1	5.162147E-1	5.436571E-1	5.215726E-1	4.530376E-1	5.262822E-1	4.759421E-1	4.958967E-1	4.268581E-1	4.617304E-1	4.714952E-1	4.402401E-1	4.869393E-1	4.606228E-1	4.456379E-1	4.364513E-1	4.929244E-1	5.472099E-1	5.160228E-1	5.126724E-1	4.504560E-1	5.144026E-1	4.899293E-1	4.667007E-1
2.855000E+2	3.641946E-1	4.063437E-1	3.193472E-1	3.745822E-1	3.825643E-1	3.920262E-1	3.897443E-1	4.241041E-1	4.056784E-1	3.402459E-1	3.687098E-1	4.100461E-1	3.453946E-1	3.392067E-1	3.261797E-1	3.721335E-1	3.724046E-1	3.370983E-1	3.219831E-1	3.733812E-1	3.957818E-1	3.687413E-1	3.618950E-1	4.049986E-1	3.806204E-1	3.503863E-1	3.582762E-1	3.832558E-1	3.145991E-1	3.160093E-1	3.452475E-1	3.899024E-1	3.315981E-1	3.394189E-1	3.594932E-1	3.910866E-1	3.785362E-1	3.760325E-1	3.713807E-1	3.661856E-1	3.890372E-1	3.581260E-1	3.615043E-1	3.986816E-1	3.528823E-1	3.456441E-1	3.136371E-1	3.890830E-1	3.692909E-1	3.766405E-1	3.305054E-1	3.771010E-1	3.496541E-1	4.090335E-1	3.924588E-1	3.278044E-1	3.403786E-1	3.451749E-1	3.881890E-1	3.422605E-1	3.406373E-1	3.433861E-1	3.437546E-1	3.709725E-1	3.523298E-1	3.557208E-1	3.557118E-1	3.850318E-1	3.957753E-1	3.822939E-1	3.982172E-1	3.388884E-1	3.722169E-1	3.728223E-1	3.632677E-1	3.354534E-1	3.329005E-1	3.231181E-1	3.244580E-1	3.831174E-1	3.405375E-1	3.387856E-1	3.585818E-1	3.723689E-1	3.714442E-1	3.698138E-1	3.792174E-1	3.120962E-1	3.817697E-1	3.762935E-1	3.992311E-1	3.638325E-1	3.391086E-1	3.271431E-1	3.689268E-1	4.017929E-1	3.453163E-1	3.514548E-1	3.680516E-1	3.359401E-1	3.816345E-1	3.676826E-1	4.033449E-1	3.243212E-1	3.768400E-1	3.608657E-1	3.417886E-1	3.496385E-1	3.094142E-1	3.368076E-1	3.403660E-1	3.862068E-1	3.180158E-1	3.799647E-1	3.791203E-1	3.450317E-1	3.787121E-1	3.677333E-1	4.054420E-1	3.376703E-1	3.809051E-1	3.812946E-1	4.235955E-1	3.853049E-1	3.584614E-1	3.365579E-1	3.548506E-1	4.098060E-1	3.977306E-1	3.482873E-1	3.578189E-1	4.176169E-1	4.082149E-1	3.975554E-1	4.159341E-1	3.166927E-1	3.704670E-1	3.926153E-1	3.790337E-1	3.403979E-1	3.340630E-1	3.644413E-1	3.534799E-1	3.828707E-1	3.548555E-1	3.350864E-1	3.592774E-1	3.613212E-1	3.390948E-1	3.788878E-1	3.933235E-1	3.434091E-1	3.632844E-1	3.782850E-1	3.585787E-1	3.339996E-1	3.334084E-1	3.381163E-1	3.155444E-1	3.993877E-1	3.517101E-1	3.728061E-1	3.423607E-1	3.500780E-1	3.905070E-1	3.716238E-1	3.837672E-1	3.299676E-1	3.870844E-1	4.043445E-1	3.873919E-1
2.856010E+2	2.653064E-1	2.624713E-1	2.228233E-1	2.644703E-1	2.760959E-1	2.892373E-1	2.837062E-1	2.694112E-1	2.590907E-1	2.644824E-1	2.679362E-1	2.856806E-1	2.664474E-1	2.237424E-1	2.291292E-1	2.732346E-1	2.696911E-1	2.392092E-1	2.375444E-1	2.558901E-1	2.790562E-1	2.787279E-1	2.806797E-1	2.870265E-1	2.660620E-1	2.731146E-1	2.522857E-1	3.030235E-1	2.160820E-1	2.265782E-1	2.554424E-1	2.850426E-1	2.331388E-1	2.729974E-1	2.233947E-1	2.813372E-1	2.601226E-1	2.496109E-1	2.631818E-1	2.882553E-1	2.672155E-1	2.815049E-1	2.468873E-1	2.921266E-1	2.288852E-1	2.618236E-1	2.077528E-1	3.098804E-1	2.611371E-1	2.485936E-1	2.503676E-1	2.823027E-1	2.714544E-1	3.008346E-1	2.918511E-1	2.735655E-1	2.527334E-1	2.599165E-1	2.908182E-1	2.982437E-1	2.455397E-1	2.498139E-1	2.456274E-1	3.159409E-1	2.562952E-1	2.355263E-1	2.615100E-1	2.811764E-1	2.789513E-1	2.433621E-1	2.912407E-1	2.497073E-1	2.618497E-1	2.455981E-1	2.723186E-1	2.520335E-1	2.212418E-1	2.218917E-1	2.288410E-1	2.667937E-1	2.443992E-1	2.644160E-1	2.611955E-1	2.459249E-1	2.691464E-1	2.589961E-1	2.769449E-1	2.184477E-1	2.663635E-1	2.757076E-1	2.822141E-1	2.751620E-1	2.538268E-1	2.352378E-1	2.393622E-1	2.953071E-1	2.496966E-1	2.565710E-1	2.772075E-1	2.342272E-1	2.789285E-1	2.618377E-1	2.926796E-1	2.266869E-1	2.932500E-1	2.684280E-1	2.559468E-1	2.818231E-1	2.382706E-1	2.364562E-1	2.128461E-1	2.829618E-1	1.973418E-1	2.481024E-1	2.430296E-1	2.837066E-1	2.536751E-1	2.525206E-1	2.628336E-1	2.367438E-1	2.679048E-1	2.888596E-1	3.211543E-1	2.449817E-1	2.631508E-1	2.681375E-1	2.738177E-1	2.756999E-1	2.680748E-1	2.531207E-1	2.603050E-1	2.901406E-1	2.752162E-1	2.594679E-1	3.075832E-1	2.598891E-1	2.459710E-1	2.769719E-1	2.993432E-1	2.576561E-1	2.227286E-1	2.520814E-1	2.579089E-1	3.001176E-1	2.316142E-1	2.660154E-1	2.697702E-1	2.619233E-1	2.595194E-1	2.788096E-1	2.787965E-1	2.388328E-1	2.747127E-1	2.480744E-1	2.935331E-1	2.405259E-1	2.466022E-1	2.396579E-1	2.396639E-1	2.804897E-1	2.614682E-1	2.454809E-1	2.601670E-1	2.813219E-1	3.027089E-1	2.876467E-1	2.824845E-1	2.349530E-1	2.944893E-1	2.490259E-1	2.806303E-1
2.858030E+2	2.639789E-1	2.523307E-1	2.216942E-1	2.756678E-1	2.802140E-1	2.488148E-1	2.622840E-1	2.798336E-1	2.491526E-1	2.296424E-1	2.581674E-1	2.688070E-1	2.462172E-1	2.280186E-1	2.051818E-1	2.721712E-1	2.405055E-1	2.263009E-1	2.258978E-1	2.564691E-1	2.701576E-1	2.717273E-1	2.766694E-1	2.840404E-1	2.385681E-1	2.619236E-1	2.295025E-1	2.726492E-1	2.335755E-1	2.312851E-1	2.091366E-1	2.724992E-1	2.382025E-1	2.477179E-1	2.402830E-1	2.991643E-1	2.586240E-1	2.802584E-1	2.848214E-1	2.755122E-1	2.483023E-1	2.530308E-1	2.417706E-1	2.616025E-1	2.340910E-1	2.474674E-1	2.213275E-1	2.966801E-1	2.342393E-1	2.453796E-1	2.231512E-1	2.835418E-1	2.672271E-1	2.861718E-1	2.542498E-1	2.925223E-1	2.357519E-1	2.219028E-1	2.536960E-1	2.843754E-1	2.491773E-1	2.144947E-1	2.421585E-1	2.620325E-1	2.452853E-1	2.415111E-1	2.580429E-1	2.735050E-1	2.947087E-1	2.540135E-1	2.907498E-1	2.918653E-1	2.525617E-1	2.356408E-1	2.511676E-1	2.700257E-1	2.368338E-1	2.135784E-1	2.255758E-1	2.652150E-1	2.393684E-1	2.431675E-1	2.317299E-1	2.822306E-1	2.735226E-1	2.376854E-1	2.769450E-1	2.560131E-1	2.512285E-1	2.490335E-1	2.749756E-1	2.900393E-1	2.376788E-1	2.171429E-1	2.526251E-1	2.607265E-1	2.381563E-1	2.206694E-1	2.599887E-1	2.632881E-1	2.487812E-1	2.706150E-1	2.582623E-1	2.477156E-1	2.731156E-1	2.540016E-1	2.417274E-1	2.379099E-1	2.201163E-1	2.291844E-1	2.405064E-1	2.747245E-1	1.989155E-1	2.401589E-1	2.159239E-1	2.467865E-1	2.553061E-1	2.667252E-1	2.531834E-1	2.120378E-1	2.647662E-1	2.734534E-1	2.626162E-1	2.426428E-1	2.458720E-1	2.638904E-1	2.498279E-1	2.899898E-1	2.531854E-1	2.249649E-1	2.487570E-1	2.509682E-1	2.791284E-1	2.555861E-1	2.740837E-1	2.430587E-1	2.562449E-1	2.584194E-1	2.612303E-1	2.485296E-1	2.279852E-1	2.308813E-1	2.278305E-1	2.612411E-1	2.342933E-1	2.582742E-1	2.558723E-1	2.514273E-1	2.744075E-1	2.644334E-1	2.824911E-1	2.408538E-1	2.587202E-1	2.800753E-1	2.646239E-1	2.442155E-1	2.228784E-1	2.032820E-1	2.304812E-1	2.626553E-1	2.210144E-1	2.486245E-1	2.315078E-1	2.534636E-1	2.849267E-1	2.687008E-1	2.479557E-1	2.198062E-1	2.608181E-1	2.807236E-1	2.531774E-1
2.860070E+2	5.559982E-1	5.933132E-1	4.610282E-1	5.910731E-1	6.096175E-1	5.606458E-1	5.568350E-1	6.139061E-1	5.659309E-1	5.205309E-1	5.147280E-1	5.612842E-1	5.166117E-1	5.392511E-1	4.450767E-1	5.305849E-1	5.480824E-1	4.823182E-1	5.073604E-1	5.412251E-1	6.056794E-1	5.497676E-1	5.609213E-1	6.165509E-1	5.639138E-1	5.054625E-1	5.326164E-1	5.998851E-1	4.992040E-1	4.708662E-1	5.211165E-1	5.589838E-1	4.790072E-1	4.752364E-1	5.104930E-1	6.133707E-1	5.923805E-1	5.570451E-1	6.104019E-1	5.911535E-1	5.648165E-1	5.476077E-1	5.636192E-1	5.884848E-1	5.308316E-1	5.373667E-1	4.634138E-1	6.208831E-1	5.463715E-1	5.427275E-1	5.255580E-1	6.354716E-1	5.440978E-1	5.996460E-1	5.626787E-1	6.005795E-1	5.693515E-1	5.461021E-1	6.005777E-1	6.069641E-1	4.892602E-1	4.598938E-1	5.241498E-1	6.062615E-1	5.425631E-1	4.669381E-1	5.874590E-1	6.198856E-1	5.892143E-1	5.619782E-1	5.979388E-1	6.394017E-1	5.273868E-1	5.808060E-1	5.615580E-1	6.118856E-1	4.802690E-1	4.854718E-1	4.741817E-1	6.036579E-1	5.132516E-1	5.439995E-1	5.293827E-1	5.839438E-1	5.727575E-1	5.403023E-1	5.952353E-1	6.157933E-1	5.533021E-1	5.624609E-1	5.548519E-1	5.512907E-1	4.874689E-1	5.028569E-1	4.969609E-1	5.878694E-1	5.387538E-1	4.945504E-1	5.794267E-1	5.980930E-1	5.568994E-1	5.974444E-1	5.971410E-1	6.157217E-1	5.537815E-1	5.537550E-1	5.387517E-1	5.992215E-1	5.091077E-1	4.948492E-1	4.646039E-1	5.756714E-1	4.234743E-1	5.012360E-1	5.332815E-1	5.809453E-1	5.086415E-1	6.044713E-1	5.743201E-1	6.115386E-1	5.874443E-1	5.633114E-1	5.927703E-1	5.384914E-1	4.911170E-1	4.984073E-1	5.174480E-1	5.983233E-1	5.410347E-1	5.008917E-1	5.971125E-1	6.035187E-1	5.920649E-1	5.983086E-1	6.153631E-1	5.312835E-1	5.856160E-1	5.595863E-1	5.447659E-1	5.095318E-1	4.769346E-1	5.059513E-1	5.407411E-1	5.994724E-1	5.284661E-1	5.256294E-1	5.332871E-1	5.335701E-1	5.311032E-1	5.541629E-1	5.949330E-1	5.025471E-1	5.748740E-1	5.095975E-1	5.681702E-1	4.865090E-1	5.086378E-1	5.088416E-1	4.619891E-1	5.415240E-1	5.415295E-1	4.985589E-1	5.283778E-1	5.237457E-1	5.527668E-1	5.564756E-1	5.805776E-1	5.069138E-1	5.617522E-1	5.786823E-1	6.558210E-1
2.862030E+2	8.944753E-1	9.019724E-1	7.771299E-1	9.015007E-1	9.243157E-1	9.140544E-1	8.894095E-1	9.101279E-1	8.920261E-1	8.589800E-1	8.360721E-1	9.037572E-1	8.427625E-1	7.963136E-1	7.719388E-1	8.469550E-1	8.882131E-1	8.028778E-1	7.572793E-1	8.190362E-1	9.291617E-1	8.448111E-1	8.391577E-1	9.002804E-1	8.566112E-1	8.022914E-1	8.396927E-1	9.282679E-1	7.178753E-1	7.561040E-1	7.657418E-1	8.861090E-1	7.479426E-1	7.424094E-1	8.010675E-1	8.791088E-1	9.051524E-1	8.884231E-1	8.818824E-1	9.072849E-1	8.179166E-1	8.597866E-1	7.355446E-1	9.064859E-1	7.485356E-1	7.758614E-1	7.213371E-1	9.223810E-1	8.585038E-1	8.240024E-1	7.901636E-1	9.111910E-1	8.531990E-1	8.928961E-1	9.031186E-1	9.560297E-1	8.525557E-1	8.697591E-1	8.768668E-1	8.523728E-1	7.438942E-1	7.451981E-1	8.110972E-1	9.594750E-1	7.927411E-1	7.726612E-1	8.660184E-1	9.184699E-1	8.799160E-1	8.356744E-1	9.085632E-1	9.680211E-1	8.508403E-1	8.214255E-1	8.396934E-1	8.730520E-1	7.750070E-1	6.942829E-1	7.941508E-1	9.542076E-1	8.217894E-1	7.777310E-1	7.990684E-1	9.607728E-1	8.812912E-1	8.562391E-1	9.025507E-1	9.761028E-1	8.906905E-1	8.781115E-1	9.342531E-1	9.149003E-1	7.700594E-1	7.380955E-1	8.121998E-1	9.578263E-1	7.662630E-1	7.566349E-1	9.071766E-1	9.450067E-1	8.297596E-1	8.927780E-1	9.540223E-1	9.621982E-1	8.856999E-1	8.235855E-1	8.357762E-1	9.177319E-1	7.789639E-1	7.430616E-1	7.440226E-1	9.216510E-1	6.611507E-1	7.872021E-1	7.862637E-1	9.463928E-1	8.565703E-1	8.969747E-1	8.531027E-1	9.148435E-1	9.239348E-1	8.514574E-1	9.240955E-1	9.331510E-1	8.489513E-1	7.640676E-1	8.026609E-1	9.643669E-1	9.256602E-1	7.841392E-1	8.376903E-1	9.056101E-1	9.413241E-1	8.489729E-1	9.571651E-1	9.220704E-1	8.587829E-1	8.935301E-1	8.941317E-1	9.062055E-1	7.703227E-1	8.197114E-1	7.915546E-1	8.755007E-1	7.792357E-1	8.507416E-1	8.590692E-1	9.317799E-1	8.945835E-1	9.074780E-1	9.353479E-1	9.031699E-1	8.159873E-1	8.191230E-1	8.699093E-1	9.212857E-1	7.744480E-1	7.673548E-1	8.032095E-1	9.279408E-1	7.886053E-1	7.820279E-1	8.101071E-1	8.704899E-1	9.584168E-1	8.601233E-1	8.930584E-1	7.802509E-1	8.595300E-1	8.734721E-1	9.395019E-1
2.864220E+2	9.853990E-1	9.571128E-1	7.720493E-1	9.593559E-1	1.007255E+0	9.388849E-1	9.729549E-1	9.578523E-1	9.081756E-1	8.634042E-1	8.350434E-1	9.668781E-1	8.501645E-1	8.195963E-1	8.126917E-1	8.650333E-1	8.842845E-1	8.125588E-1	8.145425E-1	8.855959E-1	9.610915E-1	9.143208E-1	9.058342E-1	9.181994E-1	8.594750E-1	8.518519E-1	8.446461E-1	9.500457E-1	7.721982E-1	7.706955E-1	7.769678E-1	9.412977E-1	8.165837E-1	8.078398E-1	8.403082E-1	9.214487E-1	9.351305E-1	9.185923E-1	9.674583E-1	9.871757E-1	8.891180E-1	8.582336E-1	8.312295E-1	9.558789E-1	7.868709E-1	8.550508E-1	7.679442E-1	9.936637E-1	8.831606E-1	8.577552E-1	8.445966E-1	9.601391E-1	9.160759E-1	9.591306E-1	9.468171E-1	9.755137E-1	8.695361E-1	8.550971E-1	9.632835E-1	9.711576E-1	8.026159E-1	7.727195E-1	8.730460E-1	1.016191E+0	8.325009E-1	8.230325E-1	9.428822E-1	9.686276E-1	9.728315E-1	8.935624E-1	9.546902E-1	9.955860E-1	8.759728E-1	8.927812E-1	9.126641E-1	9.886410E-1	7.845634E-1	7.779048E-1	8.170054E-1	9.668402E-1	7.882529E-1	8.644019E-1	8.545028E-1	9.100700E-1	9.277899E-1	9.462785E-1	9.359762E-1	9.988535E-1	9.051952E-1	8.953388E-1	9.306340E-1	9.851222E-1	8.109333E-1	7.838094E-1	8.448459E-1	9.693529E-1	8.256129E-1	8.279264E-1	9.689272E-1	9.649856E-1	9.334878E-1	9.346003E-1	9.714957E-1	9.837272E-1	9.796615E-1	9.015966E-1	8.510485E-1	9.677599E-1	8.162528E-1	7.939644E-1	7.754339E-1	9.513067E-1	6.921062E-1	8.179165E-1	8.048984E-1	9.050928E-1	8.766845E-1	9.253832E-1	9.008176E-1	9.805507E-1	8.655504E-1	8.993869E-1	9.199980E-1	9.828492E-1	8.617708E-1	8.329597E-1	8.266516E-1	9.594205E-1	9.113918E-1	8.173630E-1	9.095431E-1	9.560692E-1	9.452360E-1	9.343760E-1	9.781029E-1	9.841339E-1	8.968574E-1	9.535159E-1	8.952868E-1	9.390590E-1	7.913473E-1	8.022212E-1	8.580178E-1	9.621413E-1	8.028128E-1	8.995681E-1	8.813068E-1	1.012039E+0	8.894495E-1	9.865458E-1	9.210978E-1	1.028965E+0	9.193216E-1	9.112624E-1	8.897837E-1	9.778610E-1	8.396873E-1	8.168260E-1	7.867772E-1	1.004684E+0	8.271919E-1	8.700551E-1	8.393079E-1	9.339110E-1	9.561934E-1	9.205459E-1	9.235584E-1	1.038441E+0	9.163492E-1	9.812444E-1	9.547536E-1
2.866160E+2	8.533265E-1	8.709169E-1	7.048781E-1	8.778611E-1	8.372591E-1	8.753638E-1	8.744141E-1	9.194533E-1	7.920235E-1	8.036777E-1	7.697464E-1	8.756345E-1	7.840463E-1	7.212383E-1	6.946345E-1	8.559942E-1	8.023383E-1	7.571603E-1	7.907637E-1	7.900980E-1	8.815290E-1	8.683143E-1	8.632211E-1	8.863424E-1	7.832937E-1	7.767124E-1	7.549994E-1	8.589233E-1	7.418143E-1	7.052696E-1	7.432910E-1	8.605202E-1	7.636961E-1	7.602542E-1	7.732521E-1	8.718665E-1	8.262100E-1	8.462825E-1	8.464722E-1	8.817981E-1	7.862092E-1	7.847190E-1	7.626640E-1	8.898371E-1	7.338646E-1	7.517807E-1	7.186222E-1	8.716913E-1	8.355283E-1	7.945354E-1	7.468187E-1	8.424170E-1	8.114572E-1	8.595267E-1	8.782206E-1	9.081094E-1	7.791523E-1	8.268582E-1	8.683471E-1	8.873446E-1	7.329813E-1	7.516203E-1	7.674850E-1	8.640118E-1	8.410639E-1	7.407423E-1	8.180505E-1	9.155197E-1	8.815461E-1	8.268753E-1	9.041467E-1	9.031618E-1	8.628603E-1	8.020654E-1	8.063806E-1	8.746877E-1	7.156568E-1	7.363380E-1	7.283837E-1	8.768341E-1	6.999392E-1	7.615155E-1	7.825871E-1	8.768939E-1	8.129105E-1	8.780833E-1	8.456774E-1	9.036178E-1	8.232124E-1	8.130918E-1	8.745385E-1	9.494162E-1	7.327163E-1	7.009520E-1	7.632308E-1	8.919589E-1	7.602185E-1	7.294524E-1	8.293956E-1	8.711432E-1	8.088103E-1	8.184284E-1	8.645372E-1	9.146328E-1	8.076012E-1	8.006100E-1	7.446675E-1	9.277372E-1	7.127259E-1	7.285180E-1	7.041727E-1	9.101185E-1	6.244235E-1	7.400708E-1	7.557704E-1	9.038410E-1	8.119916E-1	8.096447E-1	8.370194E-1	9.137922E-1	8.931727E-1	7.989633E-1	9.059487E-1	8.641587E-1	7.971156E-1	7.517992E-1	8.330479E-1	9.083060E-1	8.785124E-1	7.441576E-1	7.953484E-1	9.056105E-1	8.491197E-1	8.068257E-1	9.016813E-1	9.399528E-1	8.025785E-1	8.310705E-1	8.456245E-1	8.380649E-1	7.129831E-1	6.941016E-1	7.770006E-1	8.660588E-1	7.481582E-1	7.649977E-1	7.823492E-1	8.422594E-1	8.478646E-1	8.897850E-1	8.593480E-1	8.991285E-1	8.701149E-1	7.810522E-1	8.048635E-1	8.530246E-1	7.431760E-1	7.319487E-1	7.476288E-1	8.403891E-1	7.637110E-1	7.642126E-1	7.544104E-1	8.627843E-1	8.739524E-1	8.396413E-1	8.596807E-1	9.200183E-1	8.153360E-1	8.306811E-1	7.412307E-1
2.868020E+2	1.005309E+0	9.545773E-1	8.126913E-1	9.823738E-1	9.854904E-1	1.022040E+0	9.949122E-1	9.967998E-1	9.622146E-1	8.949260E-1	8.802886E-1	9.787511E-1	8.550985E-1	8.571346E-1	8.181534E-1	9.182045E-1	9.443405E-1	8.593523E-1	8.456004E-1	9.006440E-1	1.022333E+0	9.108203E-1	9.228791E-1	9.605102E-1	8.989971E-1	9.051427E-1	9.129953E-1	9.477527E-1	8.044232E-1	7.739902E-1	8.330961E-1	9.658825E-1	8.621560E-1	8.603826E-1	8.566992E-1	9.582177E-1	9.616112E-1	9.650430E-1	1.013197E+0	9.626690E-1	8.807742E-1	9.058632E-1	8.609072E-1	9.836285E-1	8.379835E-1	8.536616E-1	7.815188E-1	1.015840E+0	8.534599E-1	9.070454E-1	8.622374E-1	9.762487E-1	9.911052E-1	9.899723E-1	1.009824E+0	1.026066E+0	8.930910E-1	9.034278E-1	9.565892E-1	9.856294E-1	8.337954E-1	8.337250E-1	8.938608E-1	1.013945E+0	8.655322E-1	8.040812E-1	9.642655E-1	1.020555E+0	9.701149E-1	9.792371E-1	9.654863E-1	1.035582E+0	8.721483E-1	9.182262E-1	9.005024E-1	9.984554E-1	8.373745E-1	8.170261E-1	7.890197E-1	9.952634E-1	8.530905E-1	8.481860E-1	8.649907E-1	9.739185E-1	9.420133E-1	9.239015E-1	9.848670E-1	9.940920E-1	9.606902E-1	9.581359E-1	9.692380E-1	1.030350E+0	8.366696E-1	7.857140E-1	8.759617E-1	1.015460E+0	8.470449E-1	8.002311E-1	9.612083E-1	9.522713E-1	9.723222E-1	9.722912E-1	9.868510E-1	1.001753E+0	9.265790E-1	8.754145E-1	8.910733E-1	1.037798E+0	8.088929E-1	8.031753E-1	7.984061E-1	1.012814E+0	6.758409E-1	8.486317E-1	8.602384E-1	1.038380E+0	8.848393E-1	9.695745E-1	9.410273E-1	1.004206E+0	9.609733E-1	9.222101E-1	1.014244E+0	1.055934E+0	9.080328E-1	8.659906E-1	8.778292E-1	1.021527E+0	9.405484E-1	8.719855E-1	9.031270E-1	9.321672E-1	9.636768E-1	9.537861E-1	9.953761E-1	9.467907E-1	9.131753E-1	9.603185E-1	1.004427E+0	9.713040E-1	8.376972E-1	8.181215E-1	8.594733E-1	9.993522E-1	8.628263E-1	8.930188E-1	9.191101E-1	1.016360E+0	9.289808E-1	9.572410E-1	9.622640E-1	9.885487E-1	9.894411E-1	9.024347E-1	9.433862E-1	1.017834E+0	8.682629E-1	8.071260E-1	8.307588E-1	1.037110E+0	8.607990E-1	8.993977E-1	9.187981E-1	1.010966E+0	1.028432E+0	9.794324E-1	9.684448E-1	1.024671E+0	9.331851E-1	9.194337E-1	9.944081E-1
2.870060E+2	9.973447E-1	9.653527E-1	8.245451E-1	9.749082E-1	1.009608E+0	1.017998E+0	9.643858E-1	1.052204E+0	9.814698E-1	8.877365E-1	8.566379E-1	9.600027E-1	8.945727E-1	9.284090E-1	8.026085E-1	9.681854E-1	9.617400E-1	8.528979E-1	8.873345E-1	9.521545E-1	1.044317E+0	9.603276E-1	9.103455E-1	1.018252E+0	9.018615E-1	8.928855E-1	8.679240E-1	9.649454E-1	8.292826E-1	8.022318E-1	8.115801E-1	9.498275E-1	8.109573E-1	8.767399E-1	8.432883E-1	1.003900E+0	9.211404E-1	9.468457E-1	9.649990E-1	9.930570E-1	8.935682E-1	8.986148E-1	8.516969E-1	1.000833E+0	8.441366E-1	8.958033E-1	7.874018E-1	1.011616E+0	8.848418E-1	9.070450E-1	8.526608E-1	1.006609E+0	9.303424E-1	9.849165E-1	9.976289E-1	1.006056E+0	8.980216E-1	9.224350E-1	9.547634E-1	9.958797E-1	8.285987E-1	8.259273E-1	8.413281E-1	1.036407E+0	8.630850E-1	8.235313E-1	9.249661E-1	9.715779E-1	1.001087E+0	9.333895E-1	9.571440E-1	1.030178E+0	9.431770E-1	9.193327E-1	8.999735E-1	9.575628E-1	8.253037E-1	8.165368E-1	8.286660E-1	1.007895E+0	8.536495E-1	8.660796E-1	9.029469E-1	9.551392E-1	9.775716E-1	9.377537E-1	9.499450E-1	1.052291E+0	9.335734E-1	9.036747E-1	1.038604E+0	9.756007E-1	8.376789E-1	8.090475E-1	8.387249E-1	1.036319E+0	8.728737E-1	8.417743E-1	9.439898E-1	1.004339E+0	9.181590E-1	9.557688E-1	1.046155E+0	9.852298E-1	9.265795E-1	9.122830E-1	8.626351E-1	1.018899E+0	8.564859E-1	8.085080E-1	7.909047E-1	1.000183E+0	7.109934E-1	8.428067E-1	8.540273E-1	1.017730E+0	9.277863E-1	9.522137E-1	9.613999E-1	1.042578E+0	9.634836E-1	9.433222E-1	1.025366E+0	9.658935E-1	8.645581E-1	8.320157E-1	9.055511E-1	1.056702E+0	9.275210E-1	8.781796E-1	9.653570E-1	1.009185E+0	9.647942E-1	9.365942E-1	1.027306E+0	1.003068E+0	9.379534E-1	9.485690E-1	9.876811E-1	1.027885E+0	7.884808E-1	8.743019E-1	8.565624E-1	1.013792E+0	8.408571E-1	9.537544E-1	9.352326E-1	1.015743E+0	8.766155E-1	9.898634E-1	1.005014E+0	1.001179E+0	9.377743E-1	9.548498E-1	9.421818E-1	1.003690E+0	8.359130E-1	8.653275E-1	7.969271E-1	9.971174E-1	8.769805E-1	8.700548E-1	8.722930E-1	1.053049E+0	9.561933E-1	9.471734E-1	9.350680E-1	1.001950E+0	9.416018E-1	1.065245E+0	1.064567E+0
2.872190E+2	8.380622E-1	8.100722E-1	7.020557E-1	8.212503E-1	8.643173E-1	8.378284E-1	8.213947E-1	8.678884E-1	7.938870E-1	7.749206E-1	7.291283E-1	8.606359E-1	7.287827E-1	7.445204E-1	6.732079E-1	7.975057E-1	7.871838E-1	7.501681E-1	7.533972E-1	7.819954E-1	8.522170E-1	7.988040E-1	8.075742E-1	8.365651E-1	7.248691E-1	7.937648E-1	7.460841E-1	8.228190E-1	7.031436E-1	6.600831E-1	6.965169E-1	8.289121E-1	6.905550E-1	7.315050E-1	7.255678E-1	8.417825E-1	7.787445E-1	7.936074E-1	8.292588E-1	8.504303E-1	7.650710E-1	7.588330E-1	7.585709E-1	8.276792E-1	7.305516E-1	7.457599E-1	6.842324E-1	8.547946E-1	7.453073E-1	7.473885E-1	7.458101E-1	8.455142E-1	8.188542E-1	8.307068E-1	8.523066E-1	8.738813E-1	7.254696E-1	8.029643E-1	8.293984E-1	8.529757E-1	7.241470E-1	6.919904E-1	7.560864E-1	8.802962E-1	7.272914E-1	7.427368E-1	8.036026E-1	8.370381E-1	8.799158E-1	7.791756E-1	8.143455E-1	9.166745E-1	7.825433E-1	7.777263E-1	7.672515E-1	8.806851E-1	7.226983E-1	6.766780E-1	7.111264E-1	8.247253E-1	6.977036E-1	7.184596E-1	7.900784E-1	8.293213E-1	8.167391E-1	7.752570E-1	8.212321E-1	8.570580E-1	8.415007E-1	8.086463E-1	8.015529E-1	8.470582E-1	7.125319E-1	6.671429E-1	7.856745E-1	8.754915E-1	7.442811E-1	7.274012E-1	8.608644E-1	8.572185E-1	8.210739E-1	8.142973E-1	8.941891E-1	8.966080E-1	8.246854E-1	8.145025E-1	7.272883E-1	8.871594E-1	6.720025E-1	7.018545E-1	6.896389E-1	8.612423E-1	6.270464E-1	7.379526E-1	7.026894E-1	8.756810E-1	7.472988E-1	8.185883E-1	8.203993E-1	8.759442E-1	8.291397E-1	8.446100E-1	8.474107E-1	8.068606E-1	7.502959E-1	6.890409E-1	7.808037E-1	8.621385E-1	8.369478E-1	7.300795E-1	8.030472E-1	8.418718E-1	8.452081E-1	7.901890E-1	8.985411E-1	8.558000E-1	8.092265E-1	8.143732E-1	8.669912E-1	8.289395E-1	6.647222E-1	7.195417E-1	6.862810E-1	9.082680E-1	7.492294E-1	7.542800E-1	8.056983E-1	8.367034E-1	7.513475E-1	8.339404E-1	8.609315E-1	8.652803E-1	8.393601E-1	7.716729E-1	8.229312E-1	8.511802E-1	7.350886E-1	7.251581E-1	6.876977E-1	8.738970E-1	7.245024E-1	7.804559E-1	7.349435E-1	8.450027E-1	8.339430E-1	8.247924E-1	8.556527E-1	8.587413E-1	8.258575E-1	7.973978E-1	8.022365E-1
2.874030E+2	6.568778E-1	6.655658E-1	5.400538E-1	7.005621E-1	7.190264E-1	7.061664E-1	6.692995E-1	6.978356E-1	6.696605E-1	6.372178E-1	6.319544E-1	6.656512E-1	6.858553E-1	5.867669E-1	5.568317E-1	6.215081E-1	6.625819E-1	6.108652E-1	6.073281E-1	6.297780E-1	7.051322E-1	6.517825E-1	6.331122E-1	6.812608E-1	6.315032E-1	6.365575E-1	6.118622E-1	6.858491E-1	6.055475E-1	5.626507E-1	5.823899E-1	6.768892E-1	6.489203E-1	5.922184E-1	5.909601E-1	6.674098E-1	6.813156E-1	6.849035E-1	6.492551E-1	6.676133E-1	6.087613E-1	6.257819E-1	5.789698E-1	7.111340E-1	6.032421E-1	6.109987E-1	5.511983E-1	7.127580E-1	5.984869E-1	6.305921E-1	5.925909E-1	7.079648E-1	6.561137E-1	7.093621E-1	6.988549E-1	7.185360E-1	6.148180E-1	6.085532E-1	6.900379E-1	7.082631E-1	5.947514E-1	5.369534E-1	5.771780E-1	7.444026E-1	6.239171E-1	5.821452E-1	6.412060E-1	6.995477E-1	6.864768E-1	6.379283E-1	6.749814E-1	7.215565E-1	6.011472E-1	6.233983E-1	6.609678E-1	6.914903E-1	6.155670E-1	5.573578E-1	5.670003E-1	6.957702E-1	5.624389E-1	6.094215E-1	6.072917E-1	7.078846E-1	6.416849E-1	6.553822E-1	6.800462E-1	7.459494E-1	6.497883E-1	6.597125E-1	7.146952E-1	7.167299E-1	5.964677E-1	5.785718E-1	6.362166E-1	7.300337E-1	5.777713E-1	5.796897E-1	6.583957E-1	7.185739E-1	6.386557E-1	6.991592E-1	7.369284E-1	7.073478E-1	6.684882E-1	6.707703E-1	6.240673E-1	7.187325E-1	5.699480E-1	5.719307E-1	5.691513E-1	7.069239E-1	5.116193E-1	6.246248E-1	5.824101E-1	7.204911E-1	6.206311E-1	6.807540E-1	6.600995E-1	7.003744E-1	6.489671E-1	6.648755E-1	6.852602E-1	6.846621E-1	6.042639E-1	5.828711E-1	6.070102E-1	7.093458E-1	6.539408E-1	6.281562E-1	6.850036E-1	7.223639E-1	6.881811E-1	6.559835E-1	7.085345E-1	7.148429E-1	6.871474E-1	6.900719E-1	6.752726E-1	7.139526E-1	5.251957E-1	6.029416E-1	6.057486E-1	7.294331E-1	6.174144E-1	6.113733E-1	6.539263E-1	7.298965E-1	6.404550E-1	6.912867E-1	6.593219E-1	6.980589E-1	6.905101E-1	6.469802E-1	6.663400E-1	6.949796E-1	5.868171E-1	5.903238E-1	5.717017E-1	6.863629E-1	6.193246E-1	6.442233E-1	6.468016E-1	7.015633E-1	6.972445E-1	6.655427E-1	6.283420E-1	7.293020E-1	6.280423E-1	6.912096E-1	7.076767E-1
2.876170E+2	5.254692E-1	5.565529E-1	4.203866E-1	5.531241E-1	5.431488E-1	5.294628E-1	5.386260E-1	5.738612E-1	5.267996E-1	5.022813E-1	4.823366E-1	5.537850E-1	5.644735E-1	4.950604E-1	4.412953E-1	5.178236E-1	5.222637E-1	4.790911E-1	4.471858E-1	4.995544E-1	5.554295E-1	5.167630E-1	4.877280E-1	5.652806E-1	5.455852E-1	5.065279E-1	4.984413E-1	5.001673E-1	5.783858E-1	4.369764E-1	4.748103E-1	5.313893E-1	5.420213E-1	4.598701E-1	4.608220E-1	5.364901E-1	5.599045E-1	5.297499E-1	5.312199E-1	4.931284E-1	5.214279E-1	4.984253E-1	4.740748E-1	5.673953E-1	5.194731E-1	4.827204E-1	4.606988E-1	5.142234E-1	5.306808E-1	4.586128E-1	4.570119E-1	5.121724E-1	5.308880E-1	5.602089E-1	5.408296E-1	5.463402E-1	4.756811E-1	4.917974E-1	5.360704E-1	5.159158E-1	4.367747E-1	4.507197E-1	4.859893E-1	5.753764E-1	5.083085E-1	4.424999E-1	5.250435E-1	5.372737E-1	5.642191E-1	5.096481E-1	5.498485E-1	5.772454E-1	4.935115E-1	4.723884E-1	5.345912E-1	5.595439E-1	4.953583E-1	4.375481E-1	4.391990E-1	5.210207E-1	4.936884E-1	4.735444E-1	4.559680E-1	5.451342E-1	5.339166E-1	5.216552E-1	5.189055E-1	5.612974E-1	5.526713E-1	4.979974E-1	5.252961E-1	5.768809E-1	4.531541E-1	4.223808E-1	4.847184E-1	5.637178E-1	4.772059E-1	4.565968E-1	5.521142E-1	5.526850E-1	5.517894E-1	5.174152E-1	5.791380E-1	5.606455E-1	5.141223E-1	4.960484E-1	4.839814E-1	5.686491E-1	4.364919E-1	4.492791E-1	4.444447E-1	5.580982E-1	3.909453E-1	4.625770E-1	4.717302E-1	5.690561E-1	4.879836E-1	5.434457E-1	5.228524E-1	5.573956E-1	5.114832E-1	5.119585E-1	5.430130E-1	5.554473E-1	4.799691E-1	4.573552E-1	4.689355E-1	6.142626E-1	4.926466E-1	4.693570E-1	5.239771E-1	5.185349E-1	5.808885E-1	5.378609E-1	5.771521E-1	5.565293E-1	5.118854E-1	5.435078E-1	5.771037E-1	5.405599E-1	4.291521E-1	4.571916E-1	4.898021E-1	5.633720E-1	4.486269E-1	5.161016E-1	5.121616E-1	5.453001E-1	5.264826E-1	5.458688E-1	5.078509E-1	5.651919E-1	5.607268E-1	4.969084E-1	5.097496E-1	5.695291E-1	4.725137E-1	4.453043E-1	4.499066E-1	5.604397E-1	4.842724E-1	5.069424E-1	4.732214E-1	5.782771E-1	5.549892E-1	5.457220E-1	5.391444E-1	5.833382E-1	5.249252E-1	5.358910E-1	6.497209E-1
2.878020E+2	4.378629E-1	4.228219E-1	3.667621E-1	4.442569E-1	4.731505E-1	4.376460E-1	4.550810E-1	4.482408E-1	4.572318E-1	4.254114E-1	4.067564E-1	4.144210E-1	4.657894E-1	4.252114E-1	3.774354E-1	4.050999E-1	4.464917E-1	4.123976E-1	3.942899E-1	4.329947E-1	4.627818E-1	4.172483E-1	4.315794E-1	4.522864E-1	4.694028E-1	4.079402E-1	4.360363E-1	4.514541E-1	4.955214E-1	3.776697E-1	3.700376E-1	4.666666E-1	4.728182E-1	3.617252E-1	3.883023E-1	4.401115E-1	4.619754E-1	4.349336E-1	4.510543E-1	4.348031E-1	4.897205E-1	4.176624E-1	3.937405E-1	5.185567E-1	4.631537E-1	3.729667E-1	3.688417E-1	4.482208E-1	4.651166E-1	3.819988E-1	4.116510E-1	4.880081E-1	4.849191E-1	4.732455E-1	4.534332E-1	4.489206E-1	4.669163E-1	4.222874E-1	4.441769E-1	4.755170E-1	4.508051E-1	3.598995E-1	3.858801E-1	4.518359E-1	4.471407E-1	3.886369E-1	4.042575E-1	4.469905E-1	5.060788E-1	4.508334E-1	4.453257E-1	4.577968E-1	4.678320E-1	4.419650E-1	4.288358E-1	4.575855E-1	4.767487E-1	3.612617E-1	3.766981E-1	4.678597E-1	4.484139E-1	4.025301E-1	3.950394E-1	4.374691E-1	4.786649E-1	4.358778E-1	4.485623E-1	4.893412E-1	4.214992E-1	4.263092E-1	4.788510E-1	4.560739E-1	3.971407E-1	3.942856E-1	4.184061E-1	5.071813E-1	4.101615E-1	3.853060E-1	4.612704E-1	4.721624E-1	4.674787E-1	4.642344E-1	4.509998E-1	4.374765E-1	4.256515E-1	3.993368E-1	3.781272E-1	4.808227E-1	3.751611E-1	3.697734E-1	3.605252E-1	4.932952E-1	3.573660E-1	3.894967E-1	3.994494E-1	4.582954E-1	4.205722E-1	4.319157E-1	4.472589E-1	4.654053E-1	4.380331E-1	4.332174E-1	4.563766E-1	4.560514E-1	4.097401E-1	4.026186E-1	4.113594E-1	4.383863E-1	4.268882E-1	3.848899E-1	4.335202E-1	4.561243E-1	4.545959E-1	4.485749E-1	4.865976E-1	4.707988E-1	4.423851E-1	4.507455E-1	4.373573E-1	4.657273E-1	3.746788E-1	4.068416E-1	4.247942E-1	4.678451E-1	3.939715E-1	4.255944E-1	4.460041E-1	4.891185E-1	4.309920E-1	4.391557E-1	4.503233E-1	4.853705E-1	4.094158E-1	4.284927E-1	4.356694E-1	4.889692E-1	3.792376E-1	3.963179E-1	3.899751E-1	4.799136E-1	3.635346E-1	4.084360E-1	4.018429E-1	4.674372E-1	4.255154E-1	4.550885E-1	4.378612E-1	4.504564E-1	4.154939E-1	4.582319E-1	3.965431E-1
2.880020E+2	5.135226E-1	5.273985E-1	3.899051E-1	5.195314E-1	5.178553E-1	5.317725E-1	5.204174E-1	5.875751E-1	5.292837E-1	4.834791E-1	4.648556E-1	5.137882E-1	5.289472E-1	4.722522E-1	4.316324E-1	4.774131E-1	5.110386E-1	4.301464E-1	4.544644E-1	4.648276E-1	5.669451E-1	5.022610E-1	5.137967E-1	5.398941E-1	5.599043E-1	4.772180E-1	4.612957E-1	5.001673E-1	5.203805E-1	4.002626E-1	4.645201E-1	5.073065E-1	5.268300E-1	4.519391E-1	4.310194E-1	5.047354E-1	5.244300E-1	5.153838E-1	5.081046E-1	5.249865E-1	5.281029E-1	5.036028E-1	4.725396E-1	5.501910E-1	5.133208E-1	4.456731E-1	4.566262E-1	5.078870E-1	5.217146E-1	4.795070E-1	4.776768E-1	5.381956E-1	5.261328E-1	5.167271E-1	5.138992E-1	5.431805E-1	5.397713E-1	5.037443E-1	5.208566E-1	5.466675E-1	5.479819E-1	4.851217E-1	4.830153E-1	5.422446E-1	5.260473E-1	4.434974E-1	4.903678E-1	5.632381E-1	5.555252E-1	5.017750E-1	5.419969E-1	5.480589E-1	5.404999E-1	4.817925E-1	5.139684E-1	5.404604E-1	5.632586E-1	4.370590E-1	4.368671E-1	5.520759E-1	5.691464E-1	4.841687E-1	4.824369E-1	5.639129E-1	5.284462E-1	4.902210E-1	4.864784E-1	5.353714E-1	5.406889E-1	4.985531E-1	5.258988E-1	5.495054E-1	5.939447E-1	4.095237E-1	4.714557E-1	5.807335E-1	5.415016E-1	4.458261E-1	5.248012E-1	5.405768E-1	5.313506E-1	5.210294E-1	5.351899E-1	5.336088E-1	5.080207E-1	4.666612E-1	4.681822E-1	5.330740E-1	4.718183E-1	4.294025E-1	4.636660E-1	5.344837E-1	4.754171E-1	4.466900E-1	4.965769E-1	5.221237E-1	5.075540E-1	5.150369E-1	5.207077E-1	5.642286E-1	5.001827E-1	5.039703E-1	5.283785E-1	5.572011E-1	5.044937E-1	4.715115E-1	4.945241E-1	5.307213E-1	4.932665E-1	4.648521E-1	4.951084E-1	5.371249E-1	5.082425E-1	4.979318E-1	5.363244E-1	5.344391E-1	4.985902E-1	4.878510E-1	5.239767E-1	5.241337E-1	4.473093E-1	4.905812E-1	4.674861E-1	5.406013E-1	4.582717E-1	4.809707E-1	4.904792E-1	5.446826E-1	5.213485E-1	5.220935E-1	5.057392E-1	5.121458E-1	5.065995E-1	4.615970E-1	5.073401E-1	5.326310E-1	4.682003E-1	4.579149E-1	4.334739E-1	5.172041E-1	4.761820E-1	5.001315E-1	4.786289E-1	5.403423E-1	5.010881E-1	5.083420E-1	5.236063E-1	5.592398E-1	5.154543E-1	5.374754E-1	5.246571E-1
2.882150E+2	6.329851E-1	6.275389E-1	5.169102E-1	5.997818E-1	6.337344E-1	6.241673E-1	5.986071E-1	6.254259E-1	6.274232E-1	5.559244E-1	5.753977E-1	6.100299E-1	6.276316E-1	5.316478E-1	5.097770E-1	5.784389E-1	6.373246E-1	5.613826E-1	5.325945E-1	5.979450E-1	6.480773E-1	5.952743E-1	5.829797E-1	6.513949E-1	6.217662E-1	5.800691E-1	5.752114E-1	6.067619E-1	6.216600E-1	5.108752E-1	5.388899E-1	6.307307E-1	6.146007E-1	5.659465E-1	5.561904E-1	5.994428E-1	6.593317E-1	6.030172E-1	6.074508E-1	6.514390E-1	6.371312E-1	5.910954E-1	5.303598E-1	5.834898E-1	6.231192E-1	5.470916E-1	4.919211E-1	6.499242E-1	6.410753E-1	5.630858E-1	5.074133E-1	6.435263E-1	6.534721E-1	6.223986E-1	6.124744E-1	6.174301E-1	6.164609E-1	5.792287E-1	6.395257E-1	6.564074E-1	6.404817E-1	5.117252E-1	5.370355E-1	6.365848E-1	6.459373E-1	5.212998E-1	6.146214E-1	6.358184E-1	6.424638E-1	5.902281E-1	5.974487E-1	6.421042E-1	6.262805E-1	5.730617E-1	6.012163E-1	6.544142E-1	6.502714E-1	4.874283E-1	5.208242E-1	6.352390E-1	6.222463E-1	5.428811E-1	5.623441E-1	6.859757E-1	6.619256E-1	6.127601E-1	5.867546E-1	6.544170E-1	6.472653E-1	5.530137E-1	6.254237E-1	6.441269E-1	6.403701E-1	5.147619E-1	5.790858E-1	6.411122E-1	6.849315E-1	5.432746E-1	6.227705E-1	5.999093E-1	6.386556E-1	6.506250E-1	6.585626E-1	6.247340E-1	6.428622E-1	5.307792E-1	5.687701E-1	5.892158E-1	6.769089E-1	5.346019E-1	4.796063E-1	6.624415E-1	6.726930E-1	5.367165E-1	5.344107E-1	6.122337E-1	6.592290E-1	6.270931E-1	5.582361E-1	6.556938E-1	5.861892E-1	6.443341E-1	6.413568E-1	6.460728E-1	6.778371E-1	5.139787E-1	5.680937E-1	6.785675E-1	6.452557E-1	5.504459E-1	6.131516E-1	6.187892E-1	6.261521E-1	5.955355E-1	6.410109E-1	6.464687E-1	6.049562E-1	5.812309E-1	6.065545E-1	6.506798E-1	5.839689E-1	5.282114E-1	5.562654E-1	6.200220E-1	6.200937E-1	5.958911E-1	5.861014E-1	6.743321E-1	5.942505E-1	6.304662E-1	5.981005E-1	6.258159E-1	6.080883E-1	6.072551E-1	5.747949E-1	6.636177E-1	5.426050E-1	5.583129E-1	5.306198E-1	5.993511E-1	5.340607E-1	5.603877E-1	5.640675E-1	6.428836E-1	6.427873E-1	5.959038E-1	6.001438E-1	6.597627E-1	5.680663E-1	6.373227E-1	6.436198E-1
2.884200E+2	6.960341E-1	7.029597E-1	5.660190E-1	6.787885E-1	7.007917E-1	6.720964E-1	6.917931E-1	7.093554E-1	7.025800E-1	6.460668E-1	6.550913E-1	7.143974E-1	7.386513E-1	6.133760E-1	5.950633E-1	6.853133E-1	6.811036E-1	6.205460E-1	6.359590E-1	6.743437E-1	7.103663E-1	7.102915E-1	6.566748E-1	7.484598E-1	7.242959E-1	6.365572E-1	6.311782E-1	7.104921E-1	7.247809E-1	5.890092E-1	6.268247E-1	6.939478E-1	7.102471E-1	6.328639E-1	6.098353E-1	7.119772E-1	7.332773E-1	7.102837E-1	6.708946E-1	7.411320E-1	7.255767E-1	6.646101E-1	6.531641E-1	7.233442E-1	7.173002E-1	5.924747E-1	5.819682E-1	7.196218E-1	7.223312E-1	6.723821E-1	6.460166E-1	7.067253E-1	7.549204E-1	7.356535E-1	7.105412E-1	7.411796E-1	7.457375E-1	6.932683E-1	6.869948E-1	7.384120E-1	7.626016E-1	5.796112E-1	6.158341E-1	7.298021E-1	6.954841E-1	6.145630E-1	6.533425E-1	7.202011E-1	7.473340E-1	6.689563E-1	7.299419E-1	7.383117E-1	7.585032E-1	6.599061E-1	7.513883E-1	7.252944E-1	7.609237E-1	5.739842E-1	6.197064E-1	6.957695E-1	7.474497E-1	5.982391E-1	6.482439E-1	7.003730E-1	7.527353E-1	7.059958E-1	6.655790E-1	7.258436E-1	7.134827E-1	6.591566E-1	7.116790E-1	7.006619E-1	7.014299E-1	6.152381E-1	6.275448E-1	7.640653E-1	7.404349E-1	6.212336E-1	7.373644E-1	7.179690E-1	7.260323E-1	6.986426E-1	7.379872E-1	7.654273E-1	7.349941E-1	6.691679E-1	6.567193E-1	7.543080E-1	7.838698E-1	5.699916E-1	5.982185E-1	7.288911E-1	7.346043E-1	5.822596E-1	6.225026E-1	7.286262E-1	7.532792E-1	7.302058E-1	6.697493E-1	7.114134E-1	7.148839E-1	6.831343E-1	6.911148E-1	7.507307E-1	7.709188E-1	6.319452E-1	6.048775E-1	7.329789E-1	7.221807E-1	5.988743E-1	7.151561E-1	7.256827E-1	6.926513E-1	6.898122E-1	7.415106E-1	7.474526E-1	7.143432E-1	7.086242E-1	6.770052E-1	7.236870E-1	7.230171E-1	6.485211E-1	6.154519E-1	7.483162E-1	7.229741E-1	6.619859E-1	6.728282E-1	7.891648E-1	7.467269E-1	7.393908E-1	7.252935E-1	7.758599E-1	7.514032E-1	6.850503E-1	6.819991E-1	7.066648E-1	7.426369E-1	5.781987E-1	6.060169E-1	7.485137E-1	7.108108E-1	6.400319E-1	6.327423E-1	7.412758E-1	7.183606E-1	6.962662E-1	7.066062E-1	7.293017E-1	6.701299E-1	6.579281E-1	6.680224E-1
2.886040E+2	7.756759E-1	7.745797E-1	6.089186E-1	7.453535E-1	7.954955E-1	8.314770E-1	7.774801E-1	7.867024E-1	7.591034E-1	7.080051E-1	6.658885E-1	7.837664E-1	7.939144E-1	6.741966E-1	6.664859E-1	7.390167E-1	8.259125E-1	7.130560E-1	6.786640E-1	7.223817E-1	7.784127E-1	7.657992E-1	7.318738E-1	7.798197E-1	7.890215E-1	7.314147E-1	6.866502E-1	7.947370E-1	8.140910E-1	6.407850E-1	6.464699E-1	7.406080E-1	7.895771E-1	6.933374E-1	6.858317E-1	7.303622E-1	7.887374E-1	7.189033E-1	7.643392E-1	7.921048E-1	8.034535E-1	7.562451E-1	6.741427E-1	7.866113E-1	8.403503E-1	7.198262E-1	6.412448E-1	8.447625E-1	7.699634E-1	7.130994E-1	7.054900E-1	7.593908E-1	7.987757E-1	7.862139E-1	7.567803E-1	8.601897E-1	7.791522E-1	7.519175E-1	8.196614E-1	7.812220E-1	8.156075E-1	6.731840E-1	7.134656E-1	8.028031E-1	8.435110E-1	6.759065E-1	7.302066E-1	8.016324E-1	8.337297E-1	7.726920E-1	7.834303E-1	8.247903E-1	7.825436E-1	7.174337E-1	7.751833E-1	7.912671E-1	8.212798E-1	6.282654E-1	6.612186E-1	8.084087E-1	8.122879E-1	6.742852E-1	7.001833E-1	7.829998E-1	8.057993E-1	7.795192E-1	7.618642E-1	7.856307E-1	8.282573E-1	7.647439E-1	7.816481E-1	7.804062E-1	8.447435E-1	6.476191E-1	7.244629E-1	8.491445E-1	8.272619E-1	6.530322E-1	7.771453E-1	7.518727E-1	8.006347E-1	7.735088E-1	7.755812E-1	7.869569E-1	7.600101E-1	7.268738E-1	7.099093E-1	8.532513E-1	8.515792E-1	6.257422E-1	6.146272E-1	7.733739E-1	8.164531E-1	6.616944E-1	6.784076E-1	7.711784E-1	8.076426E-1	8.059625E-1	7.812622E-1	7.697617E-1	7.858227E-1	7.493226E-1	7.648724E-1	7.793802E-1	8.422629E-1	6.555384E-1	6.981719E-1	7.917878E-1	8.524567E-1	6.591273E-1	7.222135E-1	7.575519E-1	8.250908E-1	7.724428E-1	8.027527E-1	8.121458E-1	7.814266E-1	7.896363E-1	7.867234E-1	8.271142E-1	7.856135E-1	6.538216E-1	7.246064E-1	7.844167E-1	7.578026E-1	7.590429E-1	7.295348E-1	7.595307E-1	8.545397E-1	7.742243E-1	7.643489E-1	7.935417E-1	8.061460E-1	7.253271E-1	7.627039E-1	7.982935E-1	7.933186E-1	6.655015E-1	6.016676E-1	7.831024E-1	7.873610E-1	7.160074E-1	7.279143E-1	8.681187E-1	7.605928E-1	7.203329E-1	7.486155E-1	8.188073E-1	7.953446E-1	7.244927E-1	8.022352E-1
2.888230E+2	8.719099E-1	9.121134E-1	7.359238E-1	9.120760E-1	8.919630E-1	9.198289E-1	8.770918E-1	9.298762E-1	9.007219E-1	8.490251E-1	7.954540E-1	8.825088E-1	9.162832E-1	7.872857E-1	7.421096E-1	8.368522E-1	9.623008E-1	8.227782E-1	7.587350E-1	8.780713E-1	9.108420E-1	8.618129E-1	8.386561E-1	8.734002E-1	9.190456E-1	7.905675E-1	7.743157E-1	8.961739E-1	8.918922E-1	7.203314E-1	7.446938E-1	8.740673E-1	9.386737E-1	7.795862E-1	7.603380E-1	8.272982E-1	9.021544E-1	8.448460E-1	8.715548E-1	8.700353E-1	8.779925E-1	8.080162E-1	7.913182E-1	9.053766E-1	8.919367E-1	7.647470E-1	7.697542E-1	9.118209E-1	9.632948E-1	7.393520E-1	8.173800E-1	9.384537E-1	8.505570E-1	8.812675E-1	9.234434E-1	9.065302E-1	9.029513E-1	8.111098E-1	8.823439E-1	8.710649E-1	9.403253E-1	7.098792E-1	7.788835E-1	9.280285E-1	9.095732E-1	7.656787E-1	8.642845E-1	8.600512E-1	9.929362E-1	8.426210E-1	9.124890E-1	9.101883E-1	9.027455E-1	7.915556E-1	8.677184E-1	8.970424E-1	9.067840E-1	6.991726E-1	7.330477E-1	9.105203E-1	8.978064E-1	7.587191E-1	8.190441E-1	9.188343E-1	9.277898E-1	8.210756E-1	8.481721E-1	9.099669E-1	9.196995E-1	8.258738E-1	9.053009E-1	8.982367E-1	9.083262E-1	7.119049E-1	7.902658E-1	9.205011E-1	9.135393E-1	7.140656E-1	8.887702E-1	8.547967E-1	9.186698E-1	8.576688E-1	9.148396E-1	9.026161E-1	9.223084E-1	8.449581E-1	7.810058E-1	8.621453E-1	9.168350E-1	7.251243E-1	7.369905E-1	9.447166E-1	9.203375E-1	8.057374E-1	7.755348E-1	8.888219E-1	9.283300E-1	8.811923E-1	8.697222E-1	9.469084E-1	9.063568E-1	8.645807E-1	9.381447E-1	8.676674E-1	9.632133E-1	7.366995E-1	8.058598E-1	9.121535E-1	8.673457E-1	7.661191E-1	8.287091E-1	9.102572E-1	8.759427E-1	8.456455E-1	9.315171E-1	9.262779E-1	9.464144E-1	9.324900E-1	8.773857E-1	9.128983E-1	8.955141E-1	7.508117E-1	7.634171E-1	8.721685E-1	9.008705E-1	8.572914E-1	7.929119E-1	9.200491E-1	9.187128E-1	8.825967E-1	9.263754E-1	9.213570E-1	9.248574E-1	7.965014E-1	8.205223E-1	9.077562E-1	9.200234E-1	7.566843E-1	7.234633E-1	8.765986E-1	9.068537E-1	8.386166E-1	7.738771E-1	9.167221E-1	8.867334E-1	8.411779E-1	8.711907E-1	9.489356E-1	9.321322E-1	8.560394E-1	8.723958E-1
2.890230E+2	8.267789E-1	8.056352E-1	6.885086E-1	8.448899E-1	8.696115E-1	8.239697E-1	8.347836E-1	8.722769E-1	8.553790E-1	7.544586E-1	7.754017E-1	8.131397E-1	7.963813E-1	7.535486E-1	7.118601E-1	7.921884E-1	8.579049E-1	7.835148E-1	7.475736E-1	7.715769E-1	8.553577E-1	8.473115E-1	7.960436E-1	8.081923E-1	8.789501E-1	7.628561E-1	7.267680E-1	8.251115E-1	8.209961E-1	6.633783E-1	7.161626E-1	8.715589E-1	8.537168E-1	6.908589E-1	7.081831E-1	8.033424E-1	8.312063E-1	7.778046E-1	8.090943E-1	8.460192E-1	8.179164E-1	7.541741E-1	7.427081E-1	8.243501E-1	8.233122E-1	7.119539E-1	6.756349E-1	8.173056E-1	8.562627E-1	7.945354E-1	7.558911E-1	8.436557E-1	8.251950E-1	8.205948E-1	8.299499E-1	8.112161E-1	8.793970E-1	7.801563E-1	7.995795E-1	8.487551E-1	8.467868E-1	7.052923E-1	7.372543E-1	8.814199E-1	8.526869E-1	6.754084E-1	7.631483E-1	8.028133E-1	9.011074E-1	8.004779E-1	8.290672E-1	8.939739E-1	8.093154E-1	7.356877E-1	8.090245E-1	8.577853E-1	8.142382E-1	6.913485E-1	7.078610E-1	8.705180E-1	7.848995E-1	7.408262E-1	7.566172E-1	8.412141E-1	8.271338E-1	8.418541E-1	8.421853E-1	8.745178E-1	8.389786E-1	7.841945E-1	8.359342E-1	8.857400E-1	8.861234E-1	6.676191E-1	7.555790E-1	8.310308E-1	8.635316E-1	6.976541E-1	8.198957E-1	8.778030E-1	8.752368E-1	7.982919E-1	8.767154E-1	8.670675E-1	8.277366E-1	7.872525E-1	7.325551E-1	8.360200E-1	8.594297E-1	6.737366E-1	6.497893E-1	8.766190E-1	8.636729E-1	7.337156E-1	7.326181E-1	8.562825E-1	8.810338E-1	8.159578E-1	7.941297E-1	8.785732E-1	8.605285E-1	7.835572E-1	8.251662E-1	8.647435E-1	8.701316E-1	7.031970E-1	7.712078E-1	8.280623E-1	8.512166E-1	7.351477E-1	7.985565E-1	8.578063E-1	8.653258E-1	8.506366E-1	8.409632E-1	8.500143E-1	8.430700E-1	8.112807E-1	8.646808E-1	8.709187E-1	8.515545E-1	7.285514E-1	7.546848E-1	8.044111E-1	8.580038E-1	7.870287E-1	7.879081E-1	8.681896E-1	8.514590E-1	8.427869E-1	7.870435E-1	8.092032E-1	8.430507E-1	7.871214E-1	8.187159E-1	8.192018E-1	8.574803E-1	6.979975E-1	7.041302E-1	8.322823E-1	8.390169E-1	7.542573E-1	6.954687E-1	8.710830E-1	8.817320E-1	8.222320E-1	8.182473E-1	8.766419E-1	8.837303E-1	8.084926E-1	8.693439E-1
2.892010E+2	7.146180E-1	6.940873E-1	5.880334E-1	6.955853E-1	7.366735E-1	7.281101E-1	7.389204E-1	7.263605E-1	6.932633E-1	6.521498E-1	6.473788E-1	7.268961E-1	7.184211E-1	6.152763E-1	5.854007E-1	6.895673E-1	7.209535E-1	6.425978E-1	6.141219E-1	6.951792E-1	7.323506E-1	6.957890E-1	6.697091E-1	7.399982E-1	6.985205E-1	6.482812E-1	6.336545E-1	6.932991E-1	7.556248E-1	5.522953E-1	6.062441E-1	6.864219E-1	7.659468E-1	6.155150E-1	6.356638E-1	6.991639E-1	7.472679E-1	6.968755E-1	7.141745E-1	7.328002E-1	7.061070E-1	7.049919E-1	6.301379E-1	7.261188E-1	7.551615E-1	6.387849E-1	5.864928E-1	7.502473E-1	7.559544E-1	6.343424E-1	6.545844E-1	7.296497E-1	7.195188E-1	7.331257E-1	6.612537E-1	7.327541E-1	7.336864E-1	6.666590E-1	7.435903E-1	7.498680E-1	7.652002E-1	5.855744E-1	6.594463E-1	7.269943E-1	7.077175E-1	5.846387E-1	6.776154E-1	7.219713E-1	7.337500E-1	6.508950E-1	7.206181E-1	7.831731E-1	7.448434E-1	6.538217E-1	6.789461E-1	7.116633E-1	7.579062E-1	5.915889E-1	6.229714E-1	7.210345E-1	7.664538E-1	6.603061E-1	6.946893E-1	7.980232E-1	7.417942E-1	6.846850E-1	6.900241E-1	7.496528E-1	7.185273E-1	6.574894E-1	7.068540E-1	7.024473E-1	7.407906E-1	6.104761E-1	6.178534E-1	7.415608E-1	7.497766E-1	6.212333E-1	7.076768E-1	7.452132E-1	7.015053E-1	6.950283E-1	7.342806E-1	7.213666E-1	7.563493E-1	6.985550E-1	6.677786E-1	7.481936E-1	7.338239E-1	6.087750E-1	5.930615E-1	7.470140E-1	7.199134E-1	6.378640E-1	6.016094E-1	7.060985E-1	7.511043E-1	6.960100E-1	6.820800E-1	7.571456E-1	7.079775E-1	7.299221E-1	6.823336E-1	7.548233E-1	7.413780E-1	6.045771E-1	6.373975E-1	7.467198E-1	7.575418E-1	6.185828E-1	6.965520E-1	7.316586E-1	7.759148E-1	7.003488E-1	7.608777E-1	7.700686E-1	7.409348E-1	7.049142E-1	7.330188E-1	7.492394E-1	7.516877E-1	6.241414E-1	6.270945E-1	7.549814E-1	7.636970E-1	6.619861E-1	6.794997E-1	7.521221E-1	7.379997E-1	7.615077E-1	7.115718E-1	7.662611E-1	7.852333E-1	6.651882E-1	7.325906E-1	7.208088E-1	7.361669E-1	6.242750E-1	6.098839E-1	7.317597E-1	7.518865E-1	6.494628E-1	6.030006E-1	7.543158E-1	7.300304E-1	6.998506E-1	6.904928E-1	7.382524E-1	7.385243E-1	7.625306E-1	7.381791E-1
2.894050E+2	6.183844E-1	5.876090E-1	4.864293E-1	5.966711E-1	6.090294E-1	5.889412E-1	6.098538E-1	6.040317E-1	5.820800E-1	6.106737E-1	5.286102E-1	5.700337E-1	6.078947E-1	5.891429E-1	4.660829E-1	6.124682E-1	5.935452E-1	5.796693E-1	5.059041E-1	5.811608E-1	6.077729E-1	5.772717E-1	5.639293E-1	6.041067E-1	5.902625E-1	6.072474E-1	5.133005E-1	5.901429E-1	6.202787E-1	5.612382E-1	4.762137E-1	5.941050E-1	6.117865E-1	5.996530E-1	5.189371E-1	5.821722E-1	5.688975E-1	6.025378E-1	5.956474E-1	5.730188E-1	5.931860E-1	5.455370E-1	5.313832E-1	5.729447E-1	5.970890E-1	5.257886E-1	4.941834E-1	6.282750E-1	6.152983E-1	5.716581E-1	5.371499E-1	6.230795E-1	6.048615E-1	6.208819E-1	5.850360E-1	6.237492E-1	6.224866E-1	5.477316E-1	5.999697E-1	5.713890E-1	5.911136E-1	4.952127E-1	5.291055E-1	6.219847E-1	6.098479E-1	5.173101E-1	5.545175E-1	5.927415E-1	6.478979E-1	5.670728E-1	5.999018E-1	6.188633E-1	5.880342E-1	5.691896E-1	5.562704E-1	6.227912E-1	6.346799E-1	4.693345E-1	4.802449E-1	6.520822E-1	6.004475E-1	5.182778E-1	5.183952E-1	6.252576E-1	5.968275E-1	5.925143E-1	5.558235E-1	6.067989E-1	6.283466E-1	5.607939E-1	5.940585E-1	6.250838E-1	6.373422E-1	4.747616E-1	5.515410E-1	6.109227E-1	6.118425E-1	4.996794E-1	5.883330E-1	6.168611E-1	6.177056E-1	6.051894E-1	6.230865E-1	6.137190E-1	6.202873E-1	5.521520E-1	5.240056E-1	6.192328E-1	6.155777E-1	5.059990E-1	4.721049E-1	6.415722E-1	6.464592E-1	5.203003E-1	5.248112E-1	6.072277E-1	6.146515E-1	5.797460E-1	5.341106E-1	5.978712E-1	6.094166E-1	5.758646E-1	5.670136E-1	5.817576E-1	6.505259E-1	5.158662E-1	5.409052E-1	6.219569E-1	6.378117E-1	5.155323E-1	5.829992E-1	5.962154E-1	6.216822E-1	5.439611E-1	6.101286E-1	5.996582E-1	6.369860E-1	5.713373E-1	6.071313E-1	5.709798E-1	6.011706E-1	5.319216E-1	5.538396E-1	6.005831E-1	6.259877E-1	5.738600E-1	5.444059E-1	6.317337E-1	5.788481E-1	5.995028E-1	6.144612E-1	6.056082E-1	6.031681E-1	5.432537E-1	5.958746E-1	6.242604E-1	6.062276E-1	5.263016E-1	5.195038E-1	6.009727E-1	6.355058E-1	5.582915E-1	5.083701E-1	5.901307E-1	5.949987E-1	5.887349E-1	5.541062E-1	6.170748E-1	6.091020E-1	6.008718E-1	5.856634E-1
2.896110E+2	5.407336E-1	5.571866E-1	4.254669E-1	5.481477E-1	5.537365E-1	5.750821E-1	5.482661E-1	5.403994E-1	5.802170E-1	5.758327E-1	4.936483E-1	5.275367E-1	5.733550E-1	5.506545E-1	4.471774E-1	5.231406E-1	5.486438E-1	5.823589E-1	4.408769E-1	5.117082E-1	5.596167E-1	5.527681E-1	5.418714E-1	5.523385E-1	5.759427E-1	5.406338E-1	4.796211E-1	5.374179E-1	5.360330E-1	5.904214E-1	4.603106E-1	5.439321E-1	5.622758E-1	5.575197E-1	4.553584E-1	5.403898E-1	5.554075E-1	5.790732E-1	5.528595E-1	5.661571E-1	5.703787E-1	5.362180E-1	4.479792E-1	5.501910E-1	5.724795E-1	5.521852E-1	4.394313E-1	5.258399E-1	5.671061E-1	5.427268E-1	4.812045E-1	5.567834E-1	5.430411E-1	5.374571E-1	5.413378E-1	5.294890E-1	5.507271E-1	5.281817E-1	5.226818E-1	5.629474E-1	5.661701E-1	4.718190E-1	4.869806E-1	5.523528E-1	5.517385E-1	5.237938E-1	5.117512E-1	5.496659E-1	5.625893E-1	5.314141E-1	5.483766E-1	5.545447E-1	5.257481E-1	4.906425E-1	5.234863E-1	5.644511E-1	5.516901E-1	4.517299E-1	4.872413E-1	5.710242E-1	5.590851E-1	4.959110E-1	4.819377E-1	5.488905E-1	5.503284E-1	5.472282E-1	5.263890E-1	5.978040E-1	5.684367E-1	4.957740E-1	5.476135E-1	5.441492E-1	5.843567E-1	4.514286E-1	5.030813E-1	5.587777E-1	5.437002E-1	4.714709E-1	5.337077E-1	5.581341E-1	5.998212E-1	5.210292E-1	5.399548E-1	5.401178E-1	5.635440E-1	4.928422E-1	4.818752E-1	5.475268E-1	5.468879E-1	4.483094E-1	4.200655E-1	5.883024E-1	5.667096E-1	4.424537E-1	4.536600E-1	5.496571E-1	5.581124E-1	5.345023E-1	5.190992E-1	5.558184E-1	5.780280E-1	5.170941E-1	5.465249E-1	5.361526E-1	5.802972E-1	5.116196E-1	4.822631E-1	5.988730E-1	5.813578E-1	4.609104E-1	5.509222E-1	5.105678E-1	5.428891E-1	5.323145E-1	5.734883E-1	5.502180E-1	5.916604E-1	5.299035E-1	5.528498E-1	5.740218E-1	5.529099E-1	4.783911E-1	4.810698E-1	5.406013E-1	5.579370E-1	5.256294E-1	5.238355E-1	5.761690E-1	5.670402E-1	5.497399E-1	5.331840E-1	5.677175E-1	5.527309E-1	4.930457E-1	5.175788E-1	5.836730E-1	5.587803E-1	4.462744E-1	4.508730E-1	5.788146E-1	5.583334E-1	5.085145E-1	4.802517E-1	5.415275E-1	5.483216E-1	5.016852E-1	5.316628E-1	5.819606E-1	5.364994E-1	4.788352E-1	5.277073E-1
2.898020E+2	5.792265E-1	6.116936E-1	4.965899E-1	6.395965E-1	6.137346E-1	5.710405E-1	5.857546E-1	6.237802E-1	6.143794E-1	6.228396E-1	5.178132E-1	5.900318E-1	6.093751E-1	6.423607E-1	4.908710E-1	5.300524E-1	5.884942E-1	6.253864E-1	5.156099E-1	5.551155E-1	6.020150E-1	6.022751E-1	5.729534E-1	6.454219E-1	6.389494E-1	5.907272E-1	5.108239E-1	5.889968E-1	5.843709E-1	6.228988E-1	4.977296E-1	5.951084E-1	6.129125E-1	5.996532E-1	4.990683E-1	6.228415E-1	6.083687E-1	6.389325E-1	5.882705E-1	6.053674E-1	6.354619E-1	6.055912E-1	5.001705E-1	6.151235E-1	6.212264E-1	5.938643E-1	4.846811E-1	6.092664E-1	5.956851E-1	6.161265E-1	5.003572E-1	5.945781E-1	5.979917E-1	6.102639E-1	6.124742E-1	5.879409E-1	5.835935E-1	6.096392E-1	5.798873E-1	5.864631E-1	5.963108E-1	6.323607E-1	5.087864E-1	6.017693E-1	6.343155E-1	6.010968E-1	6.030632E-1	5.909720E-1	6.272496E-1	6.175517E-1	5.930319E-1	6.264299E-1	6.180850E-1	6.289296E-1	5.562704E-1	6.162483E-1	5.728145E-1	6.067482E-1	5.114952E-1	6.141852E-1	6.088315E-1	6.088631E-1	5.473614E-1	6.340212E-1	6.455141E-1	6.021043E-1	5.967324E-1	6.512425E-1	6.100586E-1	6.008061E-1	6.338688E-1	6.012793E-1	6.141294E-1	5.299998E-1	5.392986E-1	6.548348E-1	6.107438E-1	5.612259E-1	6.025833E-1	5.793244E-1	6.039087E-1	6.103523E-1	6.061423E-1	5.836779E-1	6.044234E-1	5.649755E-1	5.229529E-1	6.553639E-1	5.895739E-1	4.987275E-1	4.917957E-1	6.036796E-1	6.034368E-1	5.457193E-1	5.191639E-1	6.009704E-1	6.255235E-1	6.039459E-1	5.367913E-1	6.083842E-1	6.144389E-1	5.667345E-1	6.237956E-1	5.899431E-1	6.577721E-1	4.955760E-1	5.606301E-1	6.153617E-1	6.198204E-1	5.279215E-1	5.753004E-1	6.028542E-1	6.138584E-1	5.772350E-1	6.363002E-1	6.254300E-1	6.533035E-1	5.744287E-1	5.996247E-1	6.360780E-1	6.145500E-1	5.366915E-1	5.388003E-1	6.100245E-1	5.906227E-1	5.506378E-1	5.360670E-1	6.440807E-1	6.111918E-1	5.972908E-1	6.250165E-1	6.172270E-1	5.939413E-1	5.520816E-1	5.753973E-1	6.236447E-1	6.056880E-1	5.180565E-1	5.180536E-1	6.052966E-1	5.956748E-1	5.441446E-1	5.364894E-1	6.405123E-1	5.838846E-1	5.646681E-1	5.598611E-1	6.170744E-1	5.975282E-1	5.660042E-1	6.009151E-1
2.900050E+2	6.376306E-1	6.078906E-1	6.145633E-1	6.190668E-1	6.143239E-1	6.062659E-1	6.601953E-1	6.418825E-1	6.212115E-1	6.305820E-1	5.543180E-1	5.950309E-1	6.340461E-1	6.105250E-1	5.185996E-1	5.550438E-1	6.193638E-1	5.963428E-1	5.015368E-1	5.863700E-1	6.114369E-1	5.912737E-1	5.594176E-1	6.474128E-1	6.143199E-1	6.317610E-1	5.345976E-1	6.147852E-1	6.525039E-1	6.459623E-1	5.253260E-1	6.006270E-1	6.247273E-1	6.189850E-1	5.268845E-1	6.412254E-1	5.788899E-1	6.097210E-1	6.099098E-1	6.367352E-1	6.215551E-1	6.309591E-1	5.707829E-1	6.323279E-1	6.387375E-1	6.364690E-1	4.928262E-1	6.346112E-1	6.141773E-1	6.225561E-1	5.351337E-1	6.020140E-1	6.370920E-1	6.294769E-1	6.190802E-1	6.158505E-1	6.465885E-1	6.069236E-1	6.206609E-1	5.997283E-1	6.539935E-1	6.062154E-1	5.702395E-1	6.326535E-1	6.740746E-1	6.135654E-1	6.204010E-1	6.446697E-1	6.402907E-1	6.411695E-1	5.979389E-1	6.458878E-1	6.322907E-1	5.968473E-1	6.043888E-1	6.522335E-1	6.457448E-1	6.189740E-1	5.096295E-1	6.152376E-1	6.462805E-1	6.535962E-1	5.588483E-1	6.302654E-1	6.362144E-1	6.100963E-1	5.548254E-1	6.724060E-1	6.365452E-1	6.280364E-1	6.061218E-1	6.102063E-1	6.171570E-1	6.142851E-1	5.392990E-1	6.520906E-1	6.272294E-1	6.109756E-1	5.794268E-1	6.083852E-1	6.161723E-1	6.439130E-1	6.437366E-1	6.172238E-1	6.434726E-1	6.071864E-1	5.561311E-1	6.453583E-1	6.641521E-1	5.530239E-1	5.039854E-1	6.212531E-1	6.548542E-1	5.833181E-1	5.197287E-1	6.466506E-1	6.412894E-1	6.807539E-1	6.209621E-1	6.525395E-1	6.094170E-1	5.764351E-1	6.220392E-1	5.817581E-1	6.215425E-1	5.422909E-1	5.275772E-1	6.236060E-1	6.545614E-1	5.481932E-1	5.804328E-1	6.380434E-1	6.445936E-1	5.877713E-1	6.022774E-1	6.159631E-1	6.357775E-1	5.923630E-1	5.851882E-1	6.725817E-1	6.083383E-1	5.292713E-1	5.776110E-1	6.039153E-1	6.168786E-1	5.839828E-1	5.382904E-1	6.613675E-1	5.942501E-1	6.238307E-1	6.255442E-1	6.318785E-1	6.671370E-1	5.625651E-1	5.832265E-1	6.746865E-1	5.976006E-1	5.064166E-1	5.224034E-1	6.220500E-1	6.566656E-1	5.079906E-1	5.537932E-1	6.144331E-1	6.366751E-1	5.800298E-1	5.730973E-1	6.811063E-1	6.553987E-1	5.786826E-1	5.948144E-1
2.905110E+2	5.978100E-1	6.104259E-1	6.117405E-1	6.004047E-1	5.513836E-1	6.079977E-1	5.964652E-1	5.969009E-1	6.218326E-1	6.388772E-1	5.137003E-1	5.562849E-1	6.276316E-1	6.014969E-1	4.635621E-1	5.507900E-1	5.767074E-1	5.963428E-1	5.073601E-1	5.742152E-1	6.239994E-1	5.542685E-1	5.749586E-1	5.627919E-1	5.902625E-1	6.205701E-1	5.549041E-1	5.609151E-1	5.811484E-1	5.904213E-1	5.131644E-1	5.941047E-1	6.168503E-1	6.095670E-1	4.995655E-1	5.849579E-1	6.088684E-1	6.063690E-1	5.764668E-1	5.965445E-1	6.404681E-1	6.045556E-1	5.068228E-1	5.768292E-1	5.961429E-1	6.230391E-1	4.806086E-1	5.828657E-1	6.197813E-1	5.882669E-1	5.149730E-1	6.113074E-1	6.069745E-1	5.738604E-1	5.906257E-1	5.847816E-1	5.929062E-1	5.879169E-1	5.908409E-1	5.961108E-1	6.228132E-1	6.030046E-1	5.355488E-1	6.354615E-1	5.755938E-1	5.976061E-1	5.753225E-1	5.986430E-1	6.544183E-1	5.763348E-1	5.802728E-1	6.085940E-1	6.093430E-1	6.339078E-1	5.710764E-1	5.906224E-1	5.984661E-1	5.930563E-1	4.886408E-1	5.941833E-1	6.021242E-1	6.301111E-1	5.348759E-1	5.977153E-1	5.727573E-1	5.909162E-1	5.588169E-1	6.094441E-1	5.678062E-1	6.308148E-1	5.518353E-1	5.959237E-1	6.378468E-1	5.752381E-1	5.658237E-1	6.164121E-1	6.063471E-1	5.812283E-1	5.806140E-1	5.920386E-1	6.125957E-1	6.232601E-1	5.939639E-1	5.806733E-1	5.873396E-1	5.783333E-1	4.908276E-1	6.286822E-1	5.714198E-1	6.039268E-1	4.538211E-1	5.915977E-1	6.223245E-1	6.087378E-1	5.022235E-1	6.053501E-1	6.173693E-1	6.186763E-1	5.652057E-1	6.325650E-1	5.905832E-1	5.998289E-1	5.992097E-1	5.928668E-1	5.998045E-1	6.267549E-1	5.227799E-1	5.889800E-1	6.204410E-1	6.067575E-1	5.618280E-1	6.327316E-1	6.295057E-1	5.944266E-1	5.923316E-1	6.017617E-1	6.037468E-1	5.632976E-1	5.921176E-1	5.880146E-1	6.035601E-1	5.139014E-1	5.218207E-1	5.928081E-1	6.099131E-1	5.726691E-1	5.321751E-1	6.095075E-1	5.978436E-1	6.122195E-1	5.928224E-1	6.308678E-1	6.222353E-1	5.443576E-1	5.422723E-1	6.205700E-1	5.846608E-1	4.957457E-1	5.074205E-1	5.998920E-1	6.043876E-1	5.252817E-1	5.451409E-1	6.096910E-1	6.094467E-1	5.928313E-1	5.615876E-1	6.225828E-1	5.733264E-1	5.564940E-1	6.375196E-1
2.910060E+2	6.396223E-1	6.604962E-1	6.422219E-1	6.140900E-1	6.496164E-1	6.414903E-1	6.398447E-1	6.325570E-1	6.746290E-1	6.543620E-1	5.615160E-1	6.037805E-1	6.419411E-1	6.518640E-1	4.954926E-1	5.741850E-1	6.311506E-1	6.447494E-1	5.641380E-1	5.933152E-1	6.590697E-1	5.987747E-1	5.814760E-1	6.225242E-1	6.601432E-1	6.232349E-1	5.633240E-1	6.480250E-1	6.649337E-1	6.596125E-1	5.384223E-1	6.227031E-1	6.601732E-1	6.745017E-1	5.661248E-1	6.083566E-1	6.543354E-1	6.954383E-1	6.482713E-1	6.401661E-1	6.666123E-1	6.547740E-1	5.600373E-1	6.450921E-1	6.235925E-1	6.461943E-1	5.235957E-1	6.319714E-1	6.679738E-1	6.579161E-1	5.598299E-1	6.676904E-1	6.503017E-1	6.497010E-1	6.206041E-1	6.548185E-1	6.274164E-1	6.405925E-1	6.377006E-1	6.648492E-1	6.493156E-1	6.585060E-1	5.712310E-1	6.388306E-1	6.838615E-1	6.444866E-1	6.030629E-1	6.535206E-1	6.826737E-1	6.416332E-1	6.210030E-1	6.312949E-1	6.617945E-1	6.720754E-1	6.102057E-1	6.053434E-1	6.115428E-1	6.238639E-1	5.198909E-1	6.431348E-1	6.641670E-1	6.424128E-1	5.703347E-1	5.977154E-1	6.586435E-1	6.436608E-1	6.431288E-1	6.586491E-1	6.321309E-1	6.330382E-1	6.489481E-1	6.429370E-1	6.565179E-1	6.809524E-1	5.535811E-1	6.416612E-1	6.338245E-1	6.320043E-1	6.049579E-1	6.786157E-1	6.355895E-1	6.526906E-1	6.379124E-1	6.212294E-1	6.806916E-1	6.381774E-1	5.398051E-1	6.536965E-1	6.518864E-1	6.344685E-1	5.007034E-1	6.459656E-1	6.228494E-1	6.267430E-1	5.485283E-1	5.965894E-1	6.179128E-1	6.749670E-1	5.882591E-1	6.719885E-1	6.188332E-1	6.494699E-1	6.554063E-1	6.489963E-1	6.466243E-1	6.687506E-1	5.430374E-1	6.477885E-1	6.508390E-1	6.917880E-1	5.868487E-1	6.546419E-1	6.093880E-1	6.604202E-1	6.399644E-1	6.496245E-1	6.381948E-1	6.795590E-1	6.429343E-1	6.397279E-1	6.279294E-1	6.479918E-1	5.271574E-1	6.050266E-1	6.415270E-1	6.780629E-1	5.588602E-1	6.391416E-1	6.419949E-1	6.315718E-1	6.387386E-1	6.404662E-1	6.523749E-1	6.398081E-1	5.645562E-1	6.562380E-1	6.380380E-1	6.524059E-1	5.417362E-1	6.415058E-1	6.348826E-1	6.421271E-1	5.781272E-1	6.351779E-1	6.661265E-1	5.856627E-1	6.128043E-1	6.659591E-1	6.427729E-1	5.596642E-1	5.917639E-1
2.915140E+2	7.172723E-1	7.441574E-1	7.652758E-1	6.862539E-1	7.696135E-1	7.506313E-1	6.950058E-1	7.444631E-1	7.150026E-1	7.572240E-1	6.957091E-1	7.268965E-1	7.613485E-1	7.825339E-1	5.996853E-1	7.214702E-1	7.400379E-1	7.749093E-1	6.864284E-1	7.090699E-1	8.098184E-1	7.167918E-1	6.782322E-1	7.305401E-1	7.712650E-1	7.665866E-1	6.386076E-1	7.712409E-1	7.519423E-1	7.650467E-1	6.198088E-1	7.180308E-1	7.665100E-1	7.285308E-1	6.436111E-1	6.980503E-1	6.963045E-1	7.433256E-1	7.348311E-1	7.141753E-1	7.472708E-1	7.220758E-1	6.270682E-1	7.144642E-1	7.542152E-1	7.378870E-1	5.883027E-1	7.264863E-1	7.514714E-1	7.613184E-1	6.636566E-1	7.445206E-1	7.432962E-1	8.049214E-1	7.461098E-1	7.806739E-1	6.991764E-1	7.388847E-1	7.472425E-1	7.209255E-1	7.459725E-1	7.305202E-1	6.624196E-1	7.399092E-1	7.431952E-1	7.232864E-1	7.226934E-1	7.408543E-1	8.000407E-1	7.680604E-1	7.333763E-1	7.588505E-1	7.574101E-1	7.749608E-1	6.953382E-1	7.329272E-1	7.287342E-1	7.803498E-1	6.290347E-1	7.594580E-1	7.971959E-1	7.816454E-1	6.407527E-1	7.247856E-1	7.680528E-1	7.496834E-1	7.119757E-1	7.877473E-1	7.626714E-1	7.069486E-1	7.436477E-1	7.429148E-1	7.569385E-1	7.419047E-1	6.418279E-1	7.536360E-1	7.470289E-1	7.361198E-1	7.047078E-1	7.288662E-1	7.490259E-1	7.693781E-1	7.469887E-1	7.584179E-1	7.093684E-1	7.135163E-1	6.425000E-1	7.537522E-1	7.740574E-1	7.454857E-1	6.310362E-1	7.788658E-1	7.351284E-1	7.321272E-1	6.479144E-1	7.686750E-1	7.864407E-1	7.759755E-1	6.692135E-1	7.755435E-1	7.462729E-1	7.864104E-1	7.449689E-1	7.442992E-1	7.748202E-1	7.664267E-1	6.491261E-1	7.159409E-1	7.358288E-1	7.548568E-1	7.305530E-1	7.608717E-1	7.239454E-1	7.785430E-1	7.493621E-1	7.500821E-1	7.657129E-1	7.333605E-1	6.735398E-1	7.808763E-1	7.660224E-1	7.481613E-1	6.600836E-1	7.344316E-1	7.599467E-1	7.620204E-1	6.783874E-1	8.027469E-1	7.585350E-1	7.653774E-1	7.279323E-1	7.556518E-1	7.784677E-1	7.214649E-1	7.169318E-1	7.915289E-1	7.199920E-1	7.712347E-1	6.205166E-1	7.539187E-1	7.288589E-1	7.532093E-1	6.624834E-1	7.549081E-1	7.739293E-1	7.218689E-1	7.267478E-1	7.905793E-1	7.532558E-1	7.276623E-1	7.473302E-1
2.920010E+2	6.210388E-1	6.541579E-1	6.585917E-1	6.725682E-1	6.649103E-1	6.293643E-1	6.430583E-1	6.374941E-1	6.690388E-1	6.543619E-1	6.093315E-1	6.775257E-1	6.444079E-1	6.970044E-1	5.467486E-1	6.215078E-1	6.378857E-1	6.565818E-1	5.777259E-1	6.286201E-1	6.653514E-1	6.632837E-1	6.200777E-1	6.489063E-1	6.492604E-1	6.616042E-1	5.712486E-1	6.634984E-1	6.644733E-1	6.473746E-1	5.243904E-1	6.417684E-1	6.596104E-1	6.784667E-1	5.720851E-1	6.300834E-1	6.488395E-1	6.738891E-1	6.172871E-1	6.426167E-1	6.432496E-1	6.848009E-1	5.733416E-1	6.639616E-1	6.685529E-1	6.526775E-1	5.149986E-1	6.462276E-1	6.814233E-1	6.820252E-1	5.865428E-1	6.714081E-1	6.481883E-1	6.891381E-1	6.317828E-1	6.427069E-1	6.674044E-1	6.639440E-1	6.565665E-1	6.461575E-1	6.586697E-1	6.681382E-1	6.054268E-1	6.674696E-1	6.483840E-1	6.534642E-1	5.857254E-1	6.417194E-1	6.794132E-1	6.583047E-1	6.504457E-1	6.275111E-1	6.557848E-1	6.875639E-1	6.001586E-1	6.642286E-1	7.111299E-1	6.649417E-1	5.576714E-1	6.815583E-1	6.390142E-1	6.412945E-1	5.813218E-1	6.997472E-1	6.422319E-1	6.633736E-1	6.486166E-1	6.813998E-1	6.523108E-1	6.708269E-1	6.296465E-1	6.786429E-1	6.691334E-1	6.719048E-1	6.005099E-1	6.696550E-1	6.420674E-1	6.714966E-1	5.978325E-1	6.392622E-1	6.360999E-1	6.537228E-1	6.590921E-1	6.948305E-1	6.636073E-1	6.648933E-1	5.966822E-1	6.570317E-1	6.842684E-1	6.349532E-1	5.180494E-1	7.019816E-1	6.884331E-1	6.468669E-1	5.953979E-1	6.529082E-1	6.559673E-1	6.591847E-1	6.413352E-1	6.478089E-1	6.395506E-1	6.825639E-1	6.571620E-1	6.694597E-1	6.711489E-1	6.786600E-1	5.766230E-1	6.791168E-1	6.558018E-1	6.974187E-1	6.054529E-1	6.626093E-1	6.607993E-1	6.598656E-1	6.614248E-1	6.454163E-1	6.774778E-1	6.709011E-1	6.492871E-1	6.798821E-1	6.327079E-1	6.776719E-1	5.538397E-1	6.744495E-1	6.902878E-1	6.840175E-1	6.088949E-1	7.231055E-1	6.584241E-1	6.879694E-1	6.403221E-1	6.702732E-1	6.886646E-1	6.740154E-1	6.428514E-1	6.789912E-1	6.612225E-1	6.941171E-1	5.253033E-1	6.890648E-1	6.790706E-1	6.767092E-1	5.656897E-1	6.725197E-1	6.739059E-1	6.558137E-1	5.926625E-1	6.384187E-1	6.690779E-1	6.785308E-1	5.795627E-1
2.925020E+2	7.059895E-1	7.327487E-1	7.443906E-1	7.285574E-1	7.654961E-1	7.408146E-1	7.426699E-1	7.367830E-1	6.926418E-1	7.472696E-1	6.391520E-1	6.968984E-1	7.203949E-1	7.602014E-1	5.837198E-1	6.757427E-1	7.069225E-1	7.297298E-1	6.272244E-1	6.176232E-1	7.511941E-1	7.217928E-1	6.797355E-1	7.439800E-1	7.517901E-1	7.218225E-1	6.262254E-1	6.978840E-1	7.091282E-1	7.283335E-1	6.113889E-1	6.668551E-1	7.316266E-1	7.201040E-1	6.475845E-1	6.969359E-1	7.142917E-1	7.169882E-1	6.625340E-1	7.293688E-1	7.161200E-1	7.407135E-1	6.245098E-1	7.150195E-1	7.371777E-1	7.582638E-1	6.118325E-1	7.465513E-1	7.671617E-1	7.120280E-1	6.167839E-1	7.451399E-1	7.232175E-1	7.594172E-1	7.156226E-1	7.053715E-1	7.550497E-1	7.470302E-1	7.247256E-1	7.004242E-1	7.428549E-1	7.360246E-1	6.222771E-1	7.118322E-1	7.603220E-1	7.626865E-1	6.735695E-1	7.024984E-1	7.467905E-1	7.305492E-1	7.338675E-1	7.475003E-1	7.251741E-1	7.655576E-1	6.926945E-1	6.985781E-1	7.574029E-1	7.368274E-1	6.229715E-1	7.289299E-1	7.396247E-1	7.436224E-1	6.282671E-1	7.172741E-1	7.385119E-1	7.667327E-1	6.885273E-1	7.692294E-1	7.330322E-1	7.408477E-1	7.346001E-1	7.316076E-1	7.392766E-1	7.242858E-1	6.397875E-1	7.755920E-1	7.041651E-1	7.320166E-1	7.017390E-1	7.258399E-1	6.948625E-1	7.456274E-1	7.205138E-1	7.599198E-1	6.886234E-1	7.685513E-1	6.625119E-1	7.276260E-1	7.264645E-1	7.202761E-1	5.621194E-1	7.376779E-1	7.283077E-1	6.908205E-1	6.513028E-1	7.273751E-1	7.347951E-1	7.402016E-1	6.901226E-1	7.324401E-1	7.274390E-1	7.664399E-1	7.437991E-1	7.220813E-1	7.313451E-1	7.277341E-1	6.491254E-1	7.461699E-1	7.370696E-1	7.267009E-1	6.445869E-1	7.608717E-1	7.407096E-1	6.997945E-1	7.080107E-1	7.158951E-1	7.445611E-1	7.148082E-1	6.891317E-1	7.285537E-1	7.387864E-1	7.889715E-1	6.178772E-1	7.310995E-1	7.540523E-1	7.548755E-1	6.617095E-1	7.626175E-1	7.287586E-1	7.355204E-1	7.405987E-1	7.268553E-1	7.637052E-1	7.153955E-1	6.789881E-1	7.226535E-1	7.043561E-1	7.217632E-1	6.132672E-1	7.263556E-1	7.618444E-1	7.589735E-1	6.592391E-1	7.667629E-1	7.350314E-1	7.208448E-1	6.922189E-1	7.052039E-1	7.690387E-1	6.817016E-1	5.734622E-1
2.930040E+2	7.146175E-1	7.327490E-1	7.421331E-1	6.881207E-1	7.354966E-1	7.130962E-1	7.437406E-1	7.362346E-1	7.156240E-1	7.395275E-1	6.478929E-1	7.287709E-1	7.337168E-1	7.430953E-1	5.681753E-1	6.784015E-1	7.074835E-1	7.329568E-1	6.209160E-1	6.558230E-1	7.470065E-1	7.267938E-1	6.661998E-1	7.673748E-1	7.409070E-1	7.079669E-1	6.405887E-1	7.024688E-1	7.257015E-1	6.958560E-1	5.894057E-1	7.205391E-1	7.124974E-1	7.394355E-1	6.272193E-1	6.857939E-1	7.317787E-1	7.639168E-1	6.900755E-1	7.200563E-1	7.400394E-1	7.412311E-1	6.245097E-1	7.522028E-1	7.239260E-1	7.253836E-1	5.620581E-1	7.148704E-1	7.464279E-1	7.334584E-1	6.424882E-1	7.401827E-1	7.078947E-1	7.169465E-1	7.024112E-1	7.159028E-1	7.709351E-1	7.513745E-1	7.186399E-1	7.745899E-1	7.225877E-1	7.328136E-1	6.346666E-1	7.539482E-1	7.230102E-1	7.512156E-1	7.388748E-1	7.207905E-1	7.565712E-1	7.161930E-1	7.613474E-1	7.453386E-1	7.437509E-1	7.489629E-1	6.842338E-1	7.269296E-1	7.362784E-1	7.109089E-1	5.973180E-1	7.199817E-1	7.088825E-1	7.978616E-1	6.457468E-1	7.197778E-1	7.253830E-1	7.331680E-1	6.720642E-1	7.364256E-1	7.355543E-1	7.269549E-1	7.056476E-1	7.238712E-1	7.650126E-1	7.409523E-1	6.362167E-1	7.272893E-1	7.365878E-1	7.412488E-1	6.963956E-1	7.143361E-1	7.510698E-1	7.368501E-1	7.258086E-1	7.474027E-1	7.295030E-1	7.215306E-1	6.372333E-1	7.637569E-1	7.397115E-1	7.377289E-1	5.850918E-1	7.563498E-1	7.314559E-1	7.220652E-1	6.479141E-1	7.417675E-1	7.233783E-1	7.828146E-1	7.013807E-1	7.135161E-1	7.494120E-1	7.356282E-1	7.151149E-1	6.992791E-1	7.530830E-1	7.593491E-1	6.464604E-1	7.329790E-1	7.401716E-1	7.813233E-1	6.747393E-1	7.190438E-1	6.904160E-1	7.607968E-1	7.415109E-1	7.116872E-1	7.240133E-1	7.080057E-1	6.793148E-1	7.516737E-1	7.273180E-1	7.720116E-1	6.508662E-1	7.288782E-1	7.760214E-1	7.060488E-1	6.583742E-1	7.212528E-1	7.236245E-1	7.438139E-1	7.226546E-1	7.404959E-1	7.538634E-1	7.479486E-1	7.199426E-1	7.497116E-1	7.329317E-1	7.445590E-1	6.002173E-1	7.139257E-1	7.437953E-1	7.401098E-1	6.208458E-1	7.477960E-1	7.561469E-1	7.484961E-1	6.985495E-1	7.430715E-1	7.595696E-1	7.038890E-1	7.229282E-1
2.935110E+2	7.398373E-1	7.295794E-1	7.229410E-1	7.167374E-1	7.460849E-1	7.396599E-1	7.351721E-1	7.439149E-1	7.255624E-1	7.312318E-1	6.427517E-1	7.512692E-1	7.159546E-1	7.511735E-1	6.173304E-1	6.853134E-1	7.231993E-1	7.431764E-1	6.184893E-1	6.812884E-1	7.757953E-1	7.472965E-1	6.752235E-1	6.857410E-1	7.334598E-1	7.372770E-1	6.361312E-1	7.059077E-1	7.215584E-1	7.452782E-1	6.282278E-1	7.240515E-1	7.698855E-1	7.503407E-1	6.619892E-1	7.415045E-1	7.582593E-1	7.303963E-1	7.043381E-1	7.479939E-1	7.394830E-1	7.153460E-1	6.106940E-1	7.005901E-1	7.234527E-1	7.476124E-1	5.869453E-1	7.222625E-1	7.290557E-1	7.302436E-1	6.329122E-1	7.538146E-1	7.200476E-1	7.412153E-1	6.983463E-1	7.080045E-1	7.282082E-1	7.492022E-1	7.685423E-1	7.088667E-1	7.433741E-1	7.245569E-1	6.302063E-1	7.556332E-1	7.578754E-1	7.033369E-1	6.989982E-1	7.384935E-1	7.647219E-1	7.361067E-1	7.476075E-1	7.647962E-1	7.328235E-1	7.511753E-1	6.958662E-1	7.454677E-1	7.639415E-1	7.378053E-1	6.099115E-1	7.284032E-1	7.468910E-1	7.648704E-1	6.842018E-1	7.535796E-1	7.587529E-1	7.411594E-1	7.005013E-1	7.046800E-1	7.551036E-1	7.614097E-1	7.104726E-1	7.333932E-1	7.221194E-1	7.647617E-1	6.709033E-1	7.470495E-1	7.624161E-1	7.417616E-1	7.231141E-1	7.234177E-1	7.449385E-1	7.342687E-1	7.226316E-1	7.544124E-1	7.874661E-1	7.626734E-1	6.109009E-1	7.204000E-1	7.608097E-1	7.154281E-1	5.733709E-1	7.420712E-1	7.844481E-1	7.437775E-1	6.179851E-1	7.586629E-1	7.527347E-1	7.712407E-1	6.692134E-1	7.287602E-1	7.243004E-1	7.607344E-1	7.519937E-1	7.343599E-1	7.731488E-1	7.772796E-1	6.246028E-1	7.153915E-1	7.612635E-1	7.835761E-1	7.138735E-1	8.013721E-1	8.122380E-1	7.874156E-1	7.409872E-1	7.374591E-1	7.451652E-1	7.494398E-1	6.527514E-1	7.626237E-1	6.986486E-1	7.799618E-1	6.484407E-1	7.577581E-1	7.422638E-1	7.763116E-1	6.806117E-1	7.576782E-1	7.487806E-1	7.034515E-1	7.379603E-1	7.389800E-1	7.790819E-1	7.214651E-1	6.898287E-1	7.952187E-1	7.431763E-1	7.697793E-1	6.161666E-1	7.604037E-1	7.419284E-1	7.306781E-1	6.451797E-1	7.323849E-1	7.578141E-1	7.336465E-1	6.818605E-1	7.465141E-1	7.585166E-1	6.896253E-1	6.954749E-1
2.940070E+2	7.424923E-1	7.352840E-1	7.449547E-1	7.266904E-1	7.360854E-1	7.419698E-1	7.110727E-1	7.614681E-1	7.441960E-1	7.920640E-1	7.327279E-1	7.631435E-1	7.164475E-1	7.354930E-1	7.463107E-1	6.629815E-1	7.327412E-1	7.205866E-1	7.567941E-1	6.812886E-1	7.381083E-1	6.907880E-1	7.413988E-1	7.195890E-1	7.265867E-1	7.223555E-1	6.727827E-1	7.087728E-1	7.243206E-1	7.306867E-1	6.081154E-1	6.693632E-1	7.575073E-1	7.434017E-1	6.416240E-1	6.891362E-1	7.282814E-1	7.212978E-1	6.974530E-1	7.225073E-1	7.011011E-1	7.194875E-1	6.173461E-1	7.377733E-1	7.456962E-1	7.508543E-1	5.950902E-1	7.660879E-1	7.694033E-1	7.495314E-1	6.314004E-1	7.129206E-1	7.401258E-1	7.467768E-1	7.400125E-1	7.590839E-1	6.975325E-1	7.481163E-1	7.216827E-1	7.510740E-1	7.490908E-1	7.176769E-1	6.242595E-1	7.202556E-1	7.609340E-1	7.252813E-1	6.978425E-1	7.520656E-1	7.196228E-1	7.370330E-1	7.348489E-1	7.475001E-1	7.279057E-1	7.467506E-1	6.916367E-1	7.683676E-1	7.574032E-1	7.221566E-1	5.954526E-1	7.099808E-1	7.161487E-1	7.492136E-1	6.637256E-1	7.767401E-1	7.396062E-1	7.305040E-1	6.890268E-1	7.110293E-1	6.712301E-1	7.419597E-1	7.195205E-1	7.375587E-1	7.629943E-1	7.814287E-1	6.300955E-1	7.393650E-1	7.168046E-1	7.017565E-1	7.136144E-1	7.234180E-1	7.505587E-1	7.662801E-1	7.432824E-1	7.509078E-1	7.215714E-1	7.242028E-1	6.461860E-1	7.854362E-1	7.274455E-1	7.100958E-1	5.771214E-1	7.629397E-1	7.367024E-1	7.045891E-1	6.202438E-1	7.342580E-1	7.750242E-1	7.259979E-1	7.040613E-1	7.003745E-1	6.998167E-1	7.835580E-1	7.250662E-1	7.092185E-1	7.753773E-1	7.626518E-1	6.501916E-1	7.401239E-1	7.314862E-1	7.711871E-1	6.785886E-1	7.376340E-1	7.462977E-1	7.519239E-1	7.509323E-1	7.264146E-1	7.487911E-1	7.469660E-1	6.885543E-1	7.291624E-1	7.526433E-1	7.391515E-1	6.212729E-1	7.199917E-1	7.733418E-1	7.346301E-1	6.650449E-1	7.607656E-1	7.662363E-1	7.615075E-1	7.342657E-1	7.258450E-1	7.317204E-1	7.115333E-1	6.886248E-1	7.577065E-1	7.512639E-1	7.717195E-1	6.040841E-1	7.539184E-1	7.020983E-1	7.636890E-1	6.462610E-1	7.371261E-1	7.661494E-1	7.244297E-1	6.784077E-1	7.540880E-1	7.648301E-1	7.260768E-1	6.832741E-1
2.945030E+2	7.551019E-1	7.954950E-1	7.997086E-1	8.349357E-1	7.802016E-1	8.314765E-1	7.860497E-1	7.526913E-1	7.584827E-1	7.909579E-1	7.877421E-1	7.875170E-1	7.465459E-1	8.210221E-1	8.013479E-1	7.283825E-1	7.995323E-1	7.878177E-1	8.126015E-1	7.252756E-1	8.281387E-1	7.582984E-1	8.015585E-1	7.813129E-1	8.073508E-1	7.895017E-1	8.283013E-1	7.689477E-1	8.288222E-1	8.460061E-1	7.961449E-1	7.446226E-1	7.974536E-1	8.023877E-1	7.523904E-1	7.715876E-1	8.117206E-1	7.758891E-1	7.727005E-1	7.685792E-1	8.090161E-1	8.199233E-1	7.022857E-1	7.766212E-1	8.105345E-1	7.837342E-1	7.444144E-1	7.898485E-1	8.557017E-1	8.154301E-1	7.906679E-1	7.593902E-1	7.480515E-1	8.387968E-1	7.832027E-1	8.043710E-1	8.005159E-1	7.926459E-1	7.472427E-1	7.932817E-1	7.932621E-1	7.823520E-1	7.154482E-1	8.280727E-1	7.970232E-1	8.025852E-1	7.747067E-1	7.975019E-1	8.320997E-1	7.810277E-1	7.780320E-1	8.226289E-1	7.989348E-1	8.186599E-1	7.386973E-1	8.125308E-1	7.790303E-1	8.023555E-1	6.257697E-1	7.473522E-1	7.658948E-1	7.984202E-1	6.891963E-1	7.923893E-1	8.150988E-1	8.082889E-1	7.384169E-1	8.512374E-1	7.834828E-1	7.897518E-1	7.949183E-1	8.298003E-1	8.265772E-1	8.047619E-1	6.877366E-1	7.712013E-1	7.920911E-1	7.802281E-1	7.913954E-1	7.524786E-1	7.893929E-1	7.884819E-1	7.506953E-1	8.009765E-1	7.892969E-1	8.161050E-1	7.309753E-1	8.265699E-1	7.804359E-1	7.765119E-1	6.000938E-1	8.079723E-1	7.713312E-1	7.755513E-1	7.032540E-1	7.430189E-1	7.761117E-1	8.433140E-1	7.490952E-1	8.034038E-1	7.808009E-1	8.166519E-1	7.666281E-1	7.986751E-1	7.999022E-1	8.291849E-1	7.232279E-1	7.928875E-1	7.742908E-1	8.432667E-1	7.574983E-1	8.179704E-1	7.937973E-1	8.134804E-1	8.304945E-1	8.195084E-1	8.092262E-1	8.013863E-1	7.116528E-1	7.900017E-1	8.052044E-1	7.990416E-1	6.731821E-1	7.794183E-1	8.269257E-1	8.031062E-1	6.800558E-1	8.101559E-1	7.749639E-1	8.051880E-1	8.065710E-1	7.920259E-1	8.522775E-1	7.904323E-1	7.337950E-1	8.069028E-1	7.852311E-1	8.386517E-1	6.712649E-1	8.544407E-1	8.178566E-1	8.014148E-1	6.749210E-1	7.916574E-1	8.094932E-1	7.874127E-1	7.330778E-1	7.974638E-1	8.311193E-1	8.401901E-1	6.954746E-1
2.950050E+2	8.891649E-1	7.973960E-1	8.798623E-1	8.455118E-1	8.819639E-1	8.187722E-1	8.331770E-1	8.953168E-1	8.547580E-1	8.971379E-1	8.442983E-1	8.037654E-1	8.669408E-1	8.424040E-1	8.387393E-1	7.858074E-1	8.517304E-1	8.609658E-1	8.475413E-1	8.138280E-1	8.951387E-1	8.308088E-1	8.521922E-1	8.355697E-1	8.783771E-1	8.465229E-1	8.451410E-1	8.193798E-1	8.435541E-1	8.718940E-1	8.840790E-1	8.324240E-1	8.621560E-1	8.474946E-1	8.383210E-1	8.105849E-1	8.511915E-1	9.032681E-1	8.474558E-1	8.538610E-1	8.579668E-1	8.587516E-1	8.450453E-1	8.099205E-1	8.838907E-1	8.601454E-1	8.421539E-1	8.162496E-1	8.713922E-1	8.925796E-1	8.834057E-1	8.678194E-1	8.537274E-1	8.979523E-1	9.015941E-1	8.633493E-1	8.739185E-1	8.512953E-1	8.659127E-1	7.818256E-1	8.779665E-1	8.392298E-1	8.210087E-1	8.763661E-1	9.218068E-1	8.758987E-1	8.619721E-1	8.535604E-1	8.924138E-1	8.375265E-1	8.153269E-1	8.972163E-1	8.502939E-1	8.972061E-1	8.613734E-1	8.332501E-1	8.896833E-1	8.458778E-1	8.412593E-1	8.642015E-1	8.715359E-1	8.845324E-1	8.335273E-1	8.587415E-1	8.637857E-1	8.727553E-1	8.476730E-1	8.470055E-1	8.793389E-1	8.347650E-1	8.202517E-1	8.553899E-1	8.785534E-1	8.533334E-1	7.652706E-1	8.425579E-1	8.772698E-1	8.545968E-1	8.489892E-1	8.039405E-1	8.752370E-1	8.432118E-1	8.497112E-1	8.750783E-1	8.826491E-1	8.716744E-1	7.457208E-1	9.016119E-1	8.873961E-1	8.642593E-1	6.821378E-1	8.963896E-1	8.909563E-1	8.443956E-1	7.399595E-1	8.431419E-1	8.940809E-1	9.022354E-1	8.102135E-1	8.838292E-1	8.379286E-1	8.583047E-1	8.503372E-1	8.676666E-1	8.294435E-1	8.678778E-1	7.637442E-1	8.324592E-1	8.878174E-1	8.764901E-1	8.043298E-1	8.458554E-1	8.742666E-1	8.584003E-1	8.728924E-1	8.763121E-1	8.877921E-1	8.613722E-1	8.306106E-1	8.064289E-1	8.204952E-1	8.658217E-1	7.163591E-1	8.527295E-1	8.655056E-1	8.287104E-1	7.456566E-1	8.428769E-1	8.288699E-1	8.731971E-1	8.192373E-1	8.713426E-1	8.713447E-1	8.489160E-1	7.934201E-1	8.542543E-1	8.461568E-1	8.536875E-1	7.171798E-1	8.863266E-1	8.707567E-1	8.810584E-1	7.760409E-1	8.947912E-1	8.472796E-1	8.478347E-1	8.188228E-1	8.745768E-1	8.511120E-1	8.021536E-1	8.754443E-1
2.955100E+2	8.964660E-1	9.203526E-1	9.481629E-1	8.666627E-1	8.560813E-1	9.094346E-1	9.317174E-1	9.123219E-1	9.038279E-1	9.026687E-1	8.895437E-1	9.068826E-1	8.995063E-1	9.117782E-1	8.920966E-1	8.474867E-1	9.000004E-1	8.824794E-1	9.382888E-1	8.676536E-1	9.354429E-1	9.288233E-1	8.727467E-1	9.012754E-1	9.133177E-1	9.158008E-1	8.996226E-1	8.784088E-1	9.176720E-1	8.949575E-1	9.519013E-1	8.876135E-1	9.302343E-1	9.079681E-1	8.899789E-1	9.214487E-1	9.256377E-1	9.008744E-1	9.359824E-1	9.170872E-1	9.230506E-1	9.410678E-1	9.156570E-1	8.626434E-1	9.534613E-1	9.124750E-1	8.996208E-1	9.318857E-1	9.403197E-1	9.225823E-1	9.106223E-1	9.273008E-1	9.461933E-1	9.555915E-1	9.371625E-1	9.139020E-1	9.664940E-1	8.996265E-1	9.024269E-1	8.915658E-1	8.670539E-1	9.272976E-1	8.765154E-1	9.044430E-1	9.181364E-1	9.571918E-1	9.214985E-1	8.783442E-1	9.152345E-1	9.454303E-1	8.869711E-1	9.707231E-1	8.934575E-1	9.298422E-1	9.063187E-1	8.757779E-1	9.052750E-1	9.451489E-1	9.532016E-1	9.294692E-1	8.776845E-1	9.096946E-1	9.468957E-1	9.106958E-1	8.938734E-1	9.350899E-1	9.304885E-1	9.189610E-1	8.976268E-1	8.653301E-1	9.360632E-1	8.833595E-1	9.158963E-1	8.976194E-1	9.336027E-1	9.556304E-1	9.289269E-1	9.340942E-1	8.816458E-1	8.481372E-1	9.012967E-1	9.242735E-1	9.090149E-1	9.106274E-1	9.692891E-1	9.149548E-1	8.631612E-1	9.244023E-1	9.354797E-1	8.826809E-1	8.410690E-1	8.854059E-1	8.930546E-1	8.751102E-1	8.952497E-1	8.694229E-1	9.136523E-1	9.001315E-1	9.034983E-1	9.269336E-1	8.297670E-1	9.410393E-1	9.334619E-1	9.214580E-1	9.180659E-1	9.348827E-1	8.127903E-1	9.170999E-1	9.225581E-1	9.249176E-1	8.601439E-1	8.890118E-1	9.038839E-1	8.961117E-1	9.498378E-1	8.773640E-1	9.361404E-1	8.712668E-1	8.646808E-1	9.487935E-1	9.165394E-1	9.198815E-1	8.051386E-1	8.988268E-1	9.319489E-1	8.846824E-1	8.418345E-1	9.095540E-1	9.094722E-1	9.163247E-1	8.746538E-1	9.349979E-1	9.672985E-1	9.051933E-1	8.596701E-1	9.225146E-1	8.849774E-1	9.293496E-1	7.273296E-1	9.057827E-1	9.180559E-1	9.664654E-1	7.901001E-1	9.226497E-1	9.300764E-1	8.852144E-1	8.614082E-1	9.475589E-1	8.932003E-1	9.130954E-1	9.090001E-1
2.960030E+2	9.568606E-1	9.400006E-1	9.594526E-1	9.170533E-1	9.125513E-1	9.261810E-1	8.835180E-1	9.885718E-1	9.609719E-1	9.203648E-1	9.481562E-1	9.293804E-1	9.296055E-1	9.431391E-1	9.181445E-1	9.059745E-1	9.151543E-1	9.378786E-1	9.431410E-1	8.659173E-1	9.113651E-1	9.453255E-1	9.098446E-1	9.425907E-1	9.207633E-1	9.424461E-1	9.342921E-1	8.824204E-1	8.978766E-1	9.307297E-1	9.589171E-1	8.514894E-1	9.127927E-1	9.282909E-1	9.257418E-1	9.286909E-1	9.576143E-1	9.655217E-1	9.231951E-1	9.327714E-1	9.330630E-1	9.545278E-1	9.386833E-1	8.842874E-1	9.293247E-1	9.272940E-1	9.222461E-1	8.949242E-1	1.002522E+0	9.499064E-1	9.217103E-1	9.297790E-1	9.192461E-1	9.611526E-1	9.651094E-1	9.749866E-1	9.462255E-1	9.430707E-1	9.176411E-1	9.373917E-1	9.699463E-1	9.158308E-1	9.216143E-1	9.611596E-1	9.505559E-1	9.222807E-1	9.116742E-1	9.444337E-1	9.630511E-1	9.278320E-1	9.041463E-1	9.674803E-1	8.858078E-1	9.160132E-1	9.031465E-1	9.172154E-1	9.736783E-1	9.250987E-1	9.163540E-1	9.068363E-1	9.268715E-1	9.739989E-1	8.869655E-1	8.988032E-1	9.288843E-1	9.585322E-1	9.334815E-1	9.364215E-1	9.436633E-1	9.620250E-1	8.745384E-1	9.512015E-1	9.370896E-1	9.185714E-1	9.198299E-1	9.907601E-1	9.717904E-1	9.269138E-1	9.113332E-1	9.637746E-1	9.529048E-1	9.733238E-1	9.280766E-1	9.121290E-1	9.607472E-1	9.245722E-1	9.484771E-1	9.610897E-1	9.708066E-1	9.471583E-1	8.987343E-1	9.024301E-1	9.596880E-1	9.137690E-1	1.009882E+0	9.557792E-1	9.392030E-1	9.348530E-1	9.721217E-1	9.122153E-1	9.672511E-1	9.301981E-1	9.287788E-1	8.986554E-1	9.102627E-1	9.108176E-1	9.210114E-1	9.313897E-1	9.448909E-1	9.384332E-1	9.223737E-1	9.587251E-1	9.016485E-1	9.260579E-1	9.487909E-1	9.478426E-1	9.494360E-1	9.702127E-1	8.854699E-1	8.697014E-1	9.375637E-1	9.458520E-1	8.973136E-1	9.360378E-1	9.115868E-1	9.573267E-1	9.113274E-1	9.354842E-1	8.981777E-1	9.727224E-1	8.815145E-1	9.314610E-1	9.285478E-1	9.068485E-1	9.036363E-1	9.772461E-1	8.925260E-1	9.574807E-1	7.809779E-1	8.793011E-1	8.937838E-1	9.297881E-1	8.403895E-1	9.315403E-1	9.389672E-1	9.297632E-1	8.947849E-1	9.744100E-1	8.837297E-1	8.798125E-1	8.327389E-1
2.964990E+2	9.203583E-1	9.083107E-1	9.713063E-1	9.164316E-1	8.990222E-1	9.030822E-1	8.931585E-1	8.991567E-1	9.193560E-1	9.402736E-1	9.260479E-1	8.843838E-1	9.059212E-1	8.975232E-1	9.000793E-1	8.272817E-1	9.134704E-1	9.013042E-1	8.844226E-1	8.520265E-1	9.328260E-1	9.418246E-1	9.394231E-1	9.122262E-1	9.018615E-1	8.934185E-1	9.164625E-1	8.933090E-1	9.176717E-1	8.902507E-1	9.551752E-1	8.489806E-1	9.161678E-1	9.144123E-1	9.143173E-1	9.075208E-1	9.376282E-1	9.195500E-1	9.231955E-1	8.666045E-1	9.119251E-1	9.043102E-1	8.818865E-1	8.942769E-1	9.037682E-1	9.235892E-1	9.217935E-1	9.239653E-1	9.537683E-1	8.888294E-1	8.798773E-1	8.957014E-1	8.938841E-1	9.313225E-1	9.112482E-1	9.254869E-1	9.254101E-1	9.137457E-1	9.261608E-1	9.168904E-1	8.971938E-1	8.837220E-1	8.760192E-1	9.454362E-1	9.358752E-1	9.023312E-1	9.116742E-1	8.777540E-1	9.304491E-1	9.338524E-1	9.291730E-1	9.820734E-1	9.448162E-1	9.846042E-1	9.110783E-1	8.681443E-1	9.052748E-1	9.035826E-1	9.186862E-1	9.289430E-1	9.592902E-1	9.175231E-1	8.994506E-1	8.812760E-1	9.272434E-1	9.478766E-1	9.489469E-1	9.306010E-1	8.698789E-1	9.058974E-1	9.125388E-1	9.535818E-1	9.239699E-1	9.266664E-1	9.167696E-1	9.699018E-1	9.327729E-1	9.022950E-1	9.439897E-1	9.395573E-1	9.385977E-1	9.289198E-1	8.809521E-1	8.956065E-1	9.302406E-1	8.909099E-1	9.305713E-1	9.199557E-1	9.080037E-1	8.826810E-1	9.324899E-1	9.183557E-1	9.654591E-1	8.756399E-1	9.370365E-1	9.119753E-1	9.435520E-1	9.138097E-1	9.115403E-1	9.185225E-1	8.799896E-1	9.210689E-1	9.486815E-1	9.378286E-1	9.537378E-1	9.070427E-1	8.959548E-1	9.187485E-1	9.510948E-1	9.288594E-1	9.223735E-1	9.029544E-1	8.558260E-1	9.138574E-1	9.325640E-1	8.863054E-1	9.343273E-1	9.096083E-1	9.160752E-1	8.946460E-1	9.165392E-1	9.384317E-1	9.152634E-1	9.193759E-1	9.437374E-1	9.251721E-1	9.052114E-1	9.219016E-1	8.750745E-1	8.914436E-1	8.978761E-1	9.006438E-1	9.303933E-1	9.029866E-1	8.909883E-1	9.126763E-1	8.892907E-1	9.337149E-1	9.612539E-1	9.425326E-1	9.423280E-1	9.208802E-1	9.555686E-1	9.297620E-1	9.278537E-1	8.765092E-1	9.494543E-1	9.193294E-1	9.500209E-1	9.099254E-1	8.815462E-1
2.970040E+2	9.117308E-1	9.501413E-1	9.650968E-1	9.618445E-1	9.884318E-1	1.020885E+0	9.413577E-1	9.397499E-1	9.665620E-1	9.900454E-1	9.676942E-1	9.431294E-1	9.439141E-1	9.740244E-1	9.563766E-1	8.714135E-1	9.185214E-1	9.394916E-1	9.543030E-1	8.537629E-1	9.684198E-1	9.743298E-1	9.409271E-1	9.420926E-1	9.780435E-1	9.152679E-1	9.877829E-1	9.936006E-1	9.756776E-1	9.627367E-1	9.706108E-1	8.986517E-1	1.001688E+0	9.302741E-1	9.148141E-1	9.058493E-1	9.376287E-1	9.391835E-1	9.453266E-1	9.097352E-1	9.213812E-1	9.664353E-1	9.565927E-1	9.048218E-1	9.553547E-1	9.472070E-1	9.448704E-1	9.445572E-1	9.425611E-1	9.638365E-1	9.937838E-1	9.273009E-1	9.874069E-1	1.003118E+0	1.012872E+0	9.502374E-1	9.511558E-1	9.159184E-1	9.170321E-1	9.482451E-1	9.517582E-1	9.451870E-1	9.463941E-1	9.993446E-1	9.627888E-1	9.761437E-1	9.654211E-1	9.585955E-1	9.918494E-1	9.389469E-1	9.478201E-1	1.002072E+0	9.185901E-1	9.386933E-1	9.200672E-1	9.221223E-1	9.309262E-1	9.920945E-1	9.527355E-1	9.442071E-1	9.592900E-1	1.009785E+0	9.433995E-1	9.563915E-1	9.808535E-1	9.883675E-1	9.539361E-1	9.438284E-1	9.695191E-1	9.353515E-1	9.360632E-1	9.351337E-1	9.638353E-1	9.209524E-1	9.749200E-1	9.221473E-1	9.289264E-1	9.571738E-1	9.796144E-1	9.268434E-1	9.452404E-1	9.784869E-1	9.873806E-1	9.817251E-1	9.522053E-1	9.689202E-1	9.321511E-1	9.527515E-1	9.492174E-1	9.544299E-1	9.887483E-1	9.864537E-1	9.838228E-1	9.709621E-1	9.776946E-1	9.858157E-1	9.614925E-1	9.853571E-1	9.924942E-1	9.752939E-1	9.295834E-1	9.775572E-1	9.317056E-1	9.103484E-1	1.004459E+0	9.749911E-1	9.274081E-1	9.643669E-1	1.003205E+0	9.801036E-1	9.358465E-1	9.361514E-1	9.575298E-1	9.737504E-1	9.822904E-1	9.704587E-1	9.397663E-1	9.683575E-1	9.749761E-1	9.530522E-1	9.222726E-1	9.893115E-1	9.550443E-1	9.943533E-1	9.699930E-1	9.626854E-1	9.513551E-1	9.416578E-1	9.382217E-1	9.843342E-1	9.137085E-1	9.814760E-1	9.734485E-1	9.686430E-1	9.692836E-1	9.464982E-1	9.771748E-1	9.434152E-1	9.917030E-1	9.387496E-1	9.379719E-1	9.827088E-1	9.442128E-1	9.659179E-1	9.867564E-1	9.953062E-1	9.287381E-1	9.571975E-1	9.805339E-1	9.130955E-1	1.073717E+0
2.975020E+2	9.946910E-1	9.545773E-1	9.831602E-1	1.001037E+0	9.672558E-1	1.007603E+0	9.836658E-1	1.002286E+0	1.003209E+0	9.939166E-1	9.620382E-1	9.556282E-1	1.005099E+0	1.041498E+0	9.803231E-1	9.197999E-1	1.024603E+0	1.029851E+0	9.518762E-1	9.342129E-1	1.010818E+0	9.928325E-1	9.935665E-1	9.918697E-1	1.033031E+0	9.994671E-1	9.664858E-1	9.580685E-1	9.917902E-1	9.763869E-1	9.865137E-1	9.709000E-1	9.611790E-1	1.009583E+0	9.982612E-1	9.587744E-1	9.681069E-1	1.002394E+0	1.020574E+0	9.460048E-1	1.000927E+0	9.990512E-1	1.011343E+0	9.431143E-1	9.733393E-1	1.011578E+0	9.869528E-1	1.004752E+0	1.061922E+0	1.009912E+0	9.731197E-1	9.892605E-1	9.868786E-1	9.904778E-1	1.016429E+0	1.021327E+0	9.681374E-1	1.002806E+0	1.000406E+0	9.886436E-1	9.954097E-1	9.878452E-1	1.025192E+0	9.909217E-1	1.011112E+0	1.012551E+0	9.850699E-1	9.975417E-1	1.003260E+0	9.746062E-1	9.905129E-1	9.901812E-1	9.961755E-1	9.812848E-1	9.898651E-1	1.004998E+0	9.696542E-1	9.197197E-1	9.844525E-1	9.852624E-1	1.045927E+0	1.002516E+0	1.045281E+0	9.551396E-1	1.013676E+0	1.011277E+0	9.888586E-1	1.030599E+0	1.028168E+0	9.620257E-1	9.963809E-1	1.002976E+0	9.880575E-1	1.017619E+0	9.687994E-1	9.792335E-1	9.965192E-1	9.725606E-1	9.784274E-1	1.009183E+0	9.687456E-1	1.002237E+0	1.005384E+0	9.576919E-1	9.711200E-1	9.528909E-1	1.005354E+0	9.794326E-1	9.560870E-1	1.005333E+0	1.029536E+0	9.578967E-1	9.974644E-1	1.001677E+0	9.788241E-1	1.000834E+0	9.870433E-1	9.937743E-1	9.812359E-1	1.035745E+0	1.004918E+0	9.912509E-1	1.008390E+0	1.005067E+0	9.476064E-1	9.584755E-1	9.721898E-1	9.978932E-1	9.821131E-1	1.000938E+0	9.865281E-1	9.613813E-1	1.008942E+0	9.926058E-1	1.010032E+0	9.983345E-1	9.802578E-1	9.572266E-1	1.007892E+0	9.591359E-1	9.815242E-1	9.665217E-1	9.759051E-1	1.042672E+0	9.828534E-1	1.009726E+0	9.680333E-1	1.021300E+0	9.787797E-1	1.002580E+0	9.627918E-1	9.708668E-1	9.777540E-1	9.956777E-1	9.867502E-1	1.003690E+0	9.949676E-1	9.477801E-1	1.009586E+0	1.036570E+0	9.989627E-1	9.727535E-1	9.842286E-1	1.025783E+0	9.867564E-1	9.630466E-1	1.011030E+0	1.015721E+0	1.015257E+0	9.875851E-1	9.486513E-1
2.980040E+2	1.016592E+0	1.032535E+0	1.000659E+0	9.637109E-1	9.966670E-1	9.671810E-1	9.965189E-1	9.989942E-1	9.684255E-1	1.007742E+0	1.018081E+0	9.893757E-1	9.898028E-1	1.005385E+0	1.010154E+0	9.330924E-1	1.003274E+0	9.900498E-1	1.013507E+0	9.006442E-1	1.009248E+0	9.993333E-1	1.006601E+0	9.316394E-1	9.797613E-1	1.031442E+0	1.011556E+0	9.701038E-1	1.012046E+0	9.810937E-1	1.020658E+0	9.693946E-1	1.023068E+0	1.015036E+0	1.011176E+0	9.793873E-1	1.029062E+0	1.000479E+0	1.025984E+0	9.925663E-1	9.948080E-1	9.928384E-1	1.017482E+0	1.041346E+0	1.023032E+0	1.000001E+0	9.960033E-1	9.667348E-1	9.773043E-1	9.943750E-1	9.912638E-1	1.044404E+0	1.026507E+0	1.007163E+0	1.037262E+0	1.034491E+0	9.774498E-1	1.009323E+0	1.039963E+0	9.952764E-1	1.048935E+0	9.841752E-1	9.870325E-1	1.004399E+0	9.744112E-1	9.566928E-1	1.019168E+0	9.662670E-1	1.015214E+0	1.018601E+0	9.954200E-1	9.977480E-1	9.928971E-1	9.740943E-1	1.009430E+0	9.662864E-1	9.756899E-1	1.040507E+0	1.026897E+0	9.805250E-1	1.031953E+0	1.004194E+0	1.009822E+0	9.814299E-1	9.830420E-1	9.873023E-1	1.000332E+0	1.019488E+0	1.015556E+0	1.015931E+0	9.981905E-1	1.000595E+0	1.015812E+0	9.900001E-1	1.018278E+0	1.013265E+0	1.008060E+0	1.031542E+0	9.891147E-1	9.928357E-1	1.044369E+0	1.004303E+0	9.916161E-1	1.002253E+0	9.955252E-1	1.000979E+0	1.011674E+0	1.004447E+0	1.020852E+0	9.781846E-1	1.009376E+0	1.054552E+0	1.042586E+0	9.873786E-1	9.844705E-1	9.870675E-1	9.957414E-1	1.022710E+0	9.538936E-1	9.852815E-1	1.021868E+0	1.015786E+0	1.013659E+0	9.998051E-1	1.044033E+0	1.006606E+0	1.008441E+0	9.940462E-1	1.010029E+0	1.013890E+0	1.047474E+0	9.852822E-1	1.017882E+0	1.016452E+0	1.006892E+0	1.010958E+0	1.015914E+0	9.893842E-1	1.031568E+0	1.033361E+0	1.015450E+0	1.032242E+0	1.016171E+0	1.006017E+0	9.903551E-1	9.918622E-1	1.014732E+0	9.916654E-1	1.018824E+0	9.865453E-1	9.675419E-1	1.007241E+0	1.030652E+0	9.907124E-1	9.656703E-1	9.926208E-1	1.015995E+0	9.870662E-1	1.026018E+0	1.017114E+0	9.728234E-1	1.006811E+0	9.653019E-1	9.908130E-1	1.003982E+0	9.702157E-1	9.960675E-1	9.689023E-1	9.878990E-1	9.860003E-1	9.852563E-1
2.985020E+2	9.230126E-1	9.691550E-1	9.662259E-1	1.000415E+0	9.560794E-1	9.319557E-1	9.879498E-1	1.018194E+0	9.622141E-1	9.607356E-1	9.862036E-1	9.006327E-1	9.527954E-1	9.773503E-1	9.609979E-1	9.267121E-1	9.780170E-1	9.357270E-1	9.664351E-1	9.081681E-1	9.569039E-1	1.009835E+0	9.594760E-1	9.674791E-1	9.350837E-1	9.888090E-1	9.412261E-1	9.787002E-1	1.015269E+0	9.589717E-1	9.575140E-1	9.106925E-1	9.623039E-1	9.882693E-1	9.689556E-1	9.208916E-1	1.005079E+0	9.693521E-1	9.241789E-1	9.670802E-1	9.519759E-1	9.798957E-1	9.351014E-1	9.575443E-1	9.757054E-1	9.546169E-1	9.887634E-1	9.846874E-1	9.756236E-1	9.568709E-1	9.791675E-1	9.496063E-1	9.599313E-1	9.480070E-1	9.681579E-1	9.433912E-1	9.752582E-1	9.669645E-1	9.833657E-1	1.001909E+0	9.720248E-1	9.883026E-1	9.751380E-1	9.735133E-1	9.805285E-1	9.876147E-1	9.469274E-1	9.857394E-1	9.407732E-1	9.486722E-1	9.723563E-1	9.539679E-1	9.355280E-1	9.812850E-1	9.533796E-1	9.788268E-1	9.973175E-1	9.568850E-1	9.317463E-1	9.673665E-1	9.246359E-1	9.868594E-1	9.693693E-1	9.864377E-1	9.452952E-1	9.526712E-1	9.768847E-1	9.824518E-1	9.285279E-1	9.564681E-1	9.529513E-1	9.803616E-1	9.698903E-1	9.638093E-1	9.866526E-1	9.699025E-1	9.701417E-1	9.484547E-1	9.802082E-1	9.776995E-1	9.447298E-1	9.851988E-1	9.529628E-1	9.737143E-1	9.644086E-1	9.785382E-1	9.732292E-1	9.760980E-1	9.511806E-1	9.903040E-1	9.535863E-1	9.628389E-1	9.722801E-1	9.619594E-1	9.901179E-1	9.445161E-1	9.951980E-1	9.816744E-1	9.935662E-1	9.905383E-1	9.785510E-1	9.695690E-1	9.480962E-1	9.752485E-1	9.888523E-1	9.589479E-1	9.673915E-1	9.885498E-1	9.455116E-1	9.694039E-1	9.371288E-1	9.892664E-1	9.452360E-1	9.881691E-1	9.775795E-1	9.646730E-1	9.730057E-1	9.590816E-1	9.859483E-1	9.779965E-1	9.294402E-1	9.898415E-1	9.909444E-1	9.243743E-1	9.898190E-1	9.454176E-1	9.858239E-1	9.959868E-1	9.905880E-1	9.478419E-1	9.886525E-1	1.003705E+0	9.574570E-1	9.879540E-1	9.903637E-1	9.440388E-1	9.971244E-1	9.783356E-1	9.457881E-1	9.603676E-1	9.759358E-1	1.023055E+0	9.923393E-1	9.706603E-1	9.228526E-1	9.968424E-1	9.592378E-1	9.523782E-1	9.542288E-1	9.162648E-1	1.034062E+0
2.990010E+2	9.654886E-1	9.140147E-1	9.278427E-1	9.139433E-1	9.531385E-1	9.371529E-1	9.349313E-1	8.739227E-1	9.634570E-1	8.999033E-1	9.383879E-1	9.262559E-1	9.276314E-1	9.488409E-1	9.311688E-1	8.490817E-1	9.443403E-1	9.416432E-1	9.373175E-1	8.867533E-1	9.406771E-1	9.143210E-1	9.133540E-1	9.396041E-1	9.259187E-1	9.030107E-1	9.001180E-1	9.506187E-1	9.149096E-1	9.660321E-1	9.364660E-1	8.469741E-1	9.465504E-1	9.129247E-1	8.934560E-1	8.545960E-1	8.981578E-1	9.291269E-1	8.818828E-1	9.391430E-1	9.269441E-1	9.400317E-1	9.177042E-1	9.120360E-1	9.439962E-1	9.356299E-1	9.561832E-1	9.139333E-1	9.022136E-1	9.145457E-1	9.590070E-1	8.764938E-1	9.594025E-1	9.131205E-1	9.539308E-1	9.123223E-1	9.374610E-1	9.164611E-1	9.030348E-1	9.018168E-1	9.070674E-1	9.172068E-1	9.003037E-1	9.066896E-1	9.340402E-1	9.043264E-1	9.440379E-1	9.302712E-1	9.750051E-1	9.157917E-1	9.802079E-1	9.426178E-1	9.513729E-1	9.303957E-1	9.359298E-1	9.504751E-1	9.284114E-1	9.118955E-1	9.634630E-1	9.210476E-1	8.899807E-1	9.488364E-1	9.124355E-1	9.520093E-1	9.305252E-1	9.441473E-1	9.758870E-1	9.041468E-1	9.196996E-1	9.759186E-1	9.330470E-1	9.535816E-1	9.083268E-1	9.466665E-1	9.432943E-1	8.985456E-1	9.206836E-1	9.474291E-1	9.350836E-1	9.292657E-1	9.411523E-1	8.989738E-1	9.508451E-1	9.596946E-1	9.473241E-1	9.470136E-1	9.116122E-1	9.394108E-1	9.158540E-1	9.524907E-1	9.456168E-1	9.276920E-1	9.360769E-1	9.259485E-1	9.048494E-1	9.188591E-1	9.353977E-1	8.985535E-1	9.496046E-1	9.269335E-1	9.132619E-1	9.359041E-1	9.381450E-1	9.232118E-1	9.208530E-1	9.329950E-1	9.577953E-1	9.594197E-1	9.572985E-1	9.159082E-1	9.692061E-1	9.268561E-1	9.346186E-1	9.465769E-1	9.461734E-1	9.236483E-1	9.077358E-1	9.566077E-1	9.114555E-1	9.518351E-1	9.385188E-1	9.474419E-1	9.322430E-1	9.410365E-1	9.624917E-1	9.388675E-1	9.446835E-1	9.280753E-1	8.843158E-1	9.373360E-1	9.601534E-1	9.355027E-1	9.519208E-1	9.184349E-1	9.439888E-1	9.747868E-1	9.162490E-1	9.506901E-1	9.013234E-1	9.203752E-1	9.280138E-1	9.355511E-1	9.653022E-1	9.285767E-1	9.328547E-1	9.420526E-1	9.339171E-1	9.716559E-1	9.279232E-1	1.082679E+0	8.998481E-1
2.995040E+2	1.000663E+0	1.053451E+0	1.048074E+0	1.000414E+0	1.011960E+0	1.051491E+0	1.000803E+0	1.004480E+0	1.001967E+0	1.050878E+0	1.035562E+0	1.072494E+0	1.015461E+0	9.711736E-1	1.024858E+0	1.122914E+0	1.003836E+0	1.057281E+0	1.045536E+0	1.151252E+0	1.004013E+0	1.015835E+0	1.036179E+0	1.045131E+0	9.975181E-1	1.013856E+0	1.059599E+0	1.003343E+0	9.798204E-1	1.022044E+0	1.040304E+0	1.020570E+0	1.011815E+0	1.004626E+0	1.049423E+0	1.015042E+0	1.013574E+0	1.025859E+0	1.033361E+0	1.019524E+0	1.048210E+0	1.026489E+0	1.007249E+0	1.054111E+0	1.023979E+0	1.033805E+0	1.015912E+0	9.899674E-1	1.007005E+0	1.038307E+0	9.862237E-1	9.911190E-1	9.805384E-1	1.020815E+0	9.793365E-1	1.003423E+0	1.033871E+0	1.012037E+0	9.736292E-1	1.032661E+0	9.824180E-1	1.034631E+0	1.002890E+0	1.040338E+0	1.048425E+0	1.030007E+0	1.004142E+0	1.029996E+0	9.956532E-1	1.027400E+0	1.010632E+0	1.026935E+0	1.038246E+0	1.023324E+0	1.022121E+0	1.025717E+0	1.026993E+0	1.047353E+0	1.018501E+0	1.040529E+0	1.017420E+0	9.907735E-1	9.923420E-1	1.029629E+0	1.019694E+0	1.024064E+0	1.008814E+0	1.014197E+0	1.042673E+0	1.038715E+0	1.032572E+0	1.008926E+0	1.039529E+0	1.019048E+0	1.024399E+0	1.050041E+0	1.041582E+0	1.017695E+0	1.024145E+0	1.000706E+0	1.023420E+0	1.021858E+0	1.012796E+0	1.004256E+0	1.025423E+0	1.030901E+0	1.005354E+0	1.030573E+0	1.068936E+0	1.009696E+0	1.009846E+0	1.014462E+0	9.770023E-1	1.028685E+0	1.036988E+0	1.052773E+0	9.968287E-1	1.030601E+0	1.024125E+0	9.936921E-1	1.038818E+0	1.020921E+0	1.009561E+0	1.009160E+0	1.015049E+0	1.005662E+0	1.015372E+0	1.012733E+0	9.907979E-1	1.029094E+0	9.826781E-1	1.030431E+0	1.028499E+0	9.975967E-1	1.001658E+0	1.000964E+0	1.046737E+0	1.033909E+0	9.876809E-1	9.804298E-1	1.034563E+0	9.988519E-1	9.904588E-1	1.063222E+0	1.010181E+0	1.014489E+0	1.014177E+0	1.005248E+0	1.001369E+0	1.014744E+0	1.032986E+0	1.005725E+0	9.839055E-1	1.049748E+0	1.030114E+0	1.009224E+0	9.906546E-1	1.038478E+0	1.020702E+0	1.017114E+0	1.041283E+0	9.753735E-1	1.005858E+0	9.908127E-1	1.058995E+0	1.043951E+0	9.995205E-1	9.840502E-1	1.047876E+0	9.923398E-1	9.791564E-1
3.000060E+2	1.099552E+0	1.076267E+0	1.074039E+0	1.120480E+0	1.114899E+0	1.104617E+0	1.096131E+0	1.102123E+0	1.100727E+0	1.086824E+0	1.059727E+0	1.155613E+0	1.109211E+0	1.055752E+0	1.092499E+0	1.248399E+0	1.045931E+0	1.045448E+0	1.085329E+0	1.218969E+0	1.078341E+0	1.067843E+0	1.090824E+0	1.124277E+0	1.128688E+0	1.063416E+0	1.121015E+0	1.139166E+0	1.086165E+0	1.095472E+0	1.058545E+0	1.281468E+0	1.095084E+0	1.069561E+0	1.078729E+0	1.271309E+0	1.086020E+0	1.072789E+0	1.114019E+0	1.135682E+0	1.077135E+0	1.061694E+0	1.111120E+0	1.091849E+0	1.059948E+0	1.064370E+0	1.056185E+0	1.139925E+0	1.075932E+0	1.085989E+0	1.111218E+0	1.149116E+0	1.086742E+0	1.120418E+0	1.044884E+0	1.085045E+0	1.107822E+0	1.092409E+0	1.099602E+0	1.079693E+0	1.094145E+0	1.087839E+0	1.109443E+0	1.084139E+0	1.051483E+0	1.108808E+0	1.100655E+0	1.090185E+0	1.070094E+0	1.114928E+0	1.050871E+0	1.088551E+0	1.085780E+0	1.109616E+0	1.089275E+0	1.073697E+0	1.101934E+0	1.123640E+0	1.074941E+0	1.105270E+0	1.090083E+0	1.066821E+0	1.070750E+0	1.095354E+0	1.107768E+0	1.080538E+0	1.049223E+0	1.049117E+0	1.065376E+0	1.050941E+0	1.086858E+0	1.053560E+0	1.078384E+0	1.062857E+0	1.058576E+0	1.089013E+0	1.063013E+0	1.082318E+0	1.093021E+0	1.090310E+0	1.077583E+0	1.087430E+0	1.086396E+0	1.102391E+0	1.096199E+0	1.089677E+0	1.092776E+0	1.070039E+0	1.087090E+0	1.063992E+0	1.052039E+0	1.082559E+0	1.074590E+0	1.094351E+0	1.104751E+0	1.095950E+0	1.089791E+0	1.072687E+0	1.097574E+0	1.067810E+0	1.042584E+0	1.066569E+0	1.082148E+0	1.087508E+0	1.083606E+0	1.137314E+0	1.078811E+0	1.047358E+0	1.114250E+0	1.070765E+0	1.076985E+0	1.106783E+0	1.064822E+0	1.058599E+0	1.057665E+0	1.101422E+0	1.076350E+0	1.103791E+0	1.075455E+0	1.097242E+0	1.100504E+0	1.065101E+0	1.094278E+0	1.022678E+0	1.064300E+0	1.099638E+0	1.072550E+0	1.057725E+0	1.126123E+0	1.110953E+0	1.087875E+0	1.076959E+0	1.098311E+0	1.057473E+0	1.083113E+0	1.075640E+0	1.085009E+0	1.097650E+0	1.096582E+0	1.048460E+0	1.082981E+0	1.086456E+0	1.086970E+0	1.093354E+0	1.094559E+0	1.083891E+0	1.100228E+0	1.107292E+0	1.066816E+0	1.035131E+0	1.153026E+0
