Photon Energy (eV)	#1	#2	#3	#4	#5	#6	#7	#8	#9	#10	#11	#12	#13	#14	#15	#16	#17	#18	#19	#20	#21	#22	#23	#24	#25	#26	#27	#28	#29	#30	#31	#32	#33	#34	#35	#36	#37	#38	#39	#40	#41	#42	#43	#44	#45	#46	#47	#48	#49	#50	#51	#52	#53	#54	#55	#56	#57	#58	#59	#60	#61	#62	#63	#64	#65	#66	#67	#68	#69	#70	#71	#72	#73	#74	#75	#76	#77	#78	#79	#80	#81	#82	#83	#84	#85	#86	#87	#88	#89	#90	#91	#92	#93	#94	#95	#96	#97	#98	#99	#100	#101	#102	#103	#104	#105	#106	#107	#108	#109	#110	#111	#112	#113	#114	#115	#116	#117	#118	#119	#120	#121	#122	#123	#124	#125	#126	#127	#128	#129	#130	#131	#132	#133	#134	#135	#136	#137	#138	#139	#140	#141	#142	#143	#144	#145	#146	#147	#148	#149	#150	#151	#152	#153	#154	#155	#156	#157	#158	#159	#160	#161	#162	#163	#164	#165	#166	#167	#168	#169	#170	#171	#172	
2.790010E+2	1.364267E-3	-1.673707E-3	-7.464795E-3	2.964981E-3	-5.517966E-3	-2.732977E-3	-8.635179E-3	-6.166285E-3	-2.231672E-3	1.391372E-3	-2.077520E-3	4.319229E-3	-1.874519E-3	5.189684E-3	-4.461964E-3	4.525645E-4	-5.319481E-3	-3.756586E-3	-1.215641E-2	-2.186562E-3	-4.094914E-3	-6.525727E-3	3.125993E-4	4.700606E-4	-7.390386E-3	-4.880141E-3	-6.444544E-3	-2.161776E-3	2.468925E-3	-2.039970E-3	-1.883158E-3	-6.853505E-3	-1.069257E-2	-1.902533E-3	-4.630372E-3	1.458236E-3	-1.411604E-2	6.239869E-3	-9.155545E-3	-2.037048E-4	3.146704E-3	-4.904017E-3	-2.556127E-3	-8.792629E-3	-6.437419E-4	-8.390740E-3	4.513601E-3	-5.708691E-3	-3.632335E-3	-2.515583E-3	2.686996E-3	-4.507674E-3	-3.948645E-3	-4.942373E-3	-8.311230E-3	-1.025151E-2	7.602891E-5	-1.005140E-3	5.097477E-3	-6.202566E-3	-4.156828E-3	-8.469794E-3	-3.102337E-3	3.629059E-3	-9.008098E-3	-5.430975E-3	-7.336413E-3	5.657291E-3	4.114613E-3	8.671180E-3	-8.743649E-5	-3.459733E-3	-3.347140E-3	-8.466489E-3	-1.114096E-2	-1.623684E-2	-6.135383E-3	-2.725680E-3	-3.080654E-3	-4.975824E-3	-3.620213E-3	-6.441498E-3	-4.221819E-3	-1.131395E-4	-1.450526E-3	1.619674E-3	-9.736087E-4	-6.550067E-3	-3.584664E-3	4.597610E-3	-1.332086E-3	-2.615051E-3	-5.174360E-4	-5.769126E-3	-2.266130E-3	-1.049010E-3	-6.368630E-3	-3.077963E-3	6.284976E-3	-4.594923E-4	-4.026570E-3	-4.968198E-4	-7.736027E-3	-2.717172E-3	4.913089E-3	2.247791E-3	-1.949641E-3	-1.094349E-2	4.882351E-4	-7.296486E-3	-3.330362E-3	-3.413193E-3	-5.795638E-3	-9.875104E-3	-2.531342E-3	-4.441817E-3	-1.085578E-2	-8.744764E-4	-1.843649E-3	-7.417555E-4	4.130135E-3	-1.700376E-2	-1.527972E-4	4.247124E-5	-1.239197E-3	-6.480583E-3	-3.503152E-3	-2.854943E-3	-8.108031E-3	7.053620E-4	-5.795359E-3	-1.210864E-2	-6.217700E-3	2.040890E-3	1.023348E-2	4.505990E-3	2.517725E-3	-1.373496E-2	4.735548E-3	-1.109395E-2	-8.931208E-3	-7.438667E-3	-8.605831E-4	2.184762E-4	-6.812407E-4	2.592943E-3	-1.324125E-2	-1.990083E-3	-1.906661E-3	-3.297102E-3	-3.865250E-3	-4.689069E-3	-1.299089E-2	-4.313212E-3	-5.230651E-3	-3.686517E-3	7.224501E-3	-5.345176E-3	-9.313896E-3	1.372476E-2	-2.815499E-3	7.709104E-3	-7.387950E-3	1.335031E-4	-4.089234E-3	-1.013236E-2	1.843924E-3	3.498941E-4	2.502339E-3	2.782585E-3	-1.499353E-2	-1.106950E-2
2.795040E+2	1.145072E-2	-6.931538E-3	4.127595E-4	-6.046309E-3	-6.325118E-3	2.999183E-4	3.826448E-3	-1.169642E-2	6.435392E-3	-5.204057E-3	-4.686890E-3	-7.344086E-3	-6.310710E-3	-4.992313E-3	-3.784163E-3	-5.924717E-3	-1.361333E-3	-1.589994E-3	1.919402E-3	-5.048292E-3	7.311918E-3	3.441283E-3	-8.487052E-3	-7.692401E-3	6.828795E-3	1.264592E-2	-3.055036E-4	4.918743E-3	2.438463E-3	-5.744358E-3	-1.113312E-2	8.916278E-4	-4.453211E-3	-2.530403E-3	8.437135E-3	2.267455E-3	-4.260960E-4	-6.409926E-3	-6.379403E-3	-1.869937E-4	-6.342542E-3	8.937566E-3	-7.881565E-3	-1.418390E-2	-2.805393E-3	1.713506E-3	-3.369502E-3	-1.608427E-2	-3.635435E-3	-4.159677E-3	9.500213E-4	1.506540E-3	-1.056808E-2	5.253498E-3	-6.191857E-4	-1.193417E-2	-5.526937E-3	-8.689331E-3	-2.896423E-3	-4.378903E-3	6.680047E-3	-6.744101E-3	-4.680299E-3	1.339060E-3	1.041019E-2	-1.015135E-3	-1.099059E-2	-2.756204E-3	2.627200E-3	-7.405881E-3	3.874156E-3	-6.098489E-3	3.028292E-3	7.200572E-5	3.341630E-4	3.360901E-3	-4.549865E-3	1.659483E-3	-9.504462E-3	-5.743799E-3	-6.362756E-3	-1.313330E-3	-8.206268E-3	-6.516927E-3	-1.211615E-2	3.480206E-3	-3.385261E-3	-3.140775E-3	-4.501740E-3	2.614697E-3	2.215156E-3	-4.670273E-3	-1.356412E-3	-4.063062E-3	-1.178922E-2	1.216895E-3	-2.217132E-3	6.193964E-3	-7.636130E-3	9.361617E-3	-9.714472E-3	-8.431338E-3	-2.005727E-3	-3.569148E-3	-9.737602E-3	1.276070E-3	7.901083E-4	-6.624826E-3	6.117048E-3	-3.867513E-3	-1.704306E-3	-7.194953E-3	-8.851750E-3	2.390884E-3	-7.582734E-3	-3.583051E-3	-1.399138E-3	6.525283E-3	-1.876585E-3	-1.600688E-3	-2.717977E-3	5.026587E-3	-1.912176E-4	8.481581E-4	2.054419E-3	8.448769E-4	-7.081557E-3	-2.841820E-3	8.602025E-3	-5.941191E-3	-2.850896E-3	1.153998E-2	-9.906008E-3	-1.889047E-2	6.633163E-3	-1.222507E-3	-3.578896E-3	2.338939E-3	2.742817E-3	-7.628506E-3	-5.023762E-3	-1.403730E-3	-1.052548E-2	-1.305739E-3	-8.295017E-3	-3.844108E-4	-8.785694E-3	-1.166447E-3	-9.218962E-3	-7.884311E-3	-1.230574E-3	-1.046977E-2	-7.819652E-3	2.118038E-3	-1.283492E-3	-1.047180E-2	-9.891992E-3	-3.727655E-3	-5.940324E-3	-4.210378E-3	-1.897748E-3	4.194364E-3	-4.819094E-4	-7.184386E-3	-4.851779E-3	-1.281901E-3	1.829694E-3	3.095741E-4	-1.018513E-2	-9.098975E-3	1.360153E-2	4.536607E-3
2.800050E+2	6.611973E-3	2.455313E-3	1.219388E-3	-8.147852E-3	-1.086137E-3	1.442256E-4	4.527777E-3	7.250584E-3	1.789577E-4	2.813652E-3	2.831869E-3	1.176772E-2	-2.787465E-3	-4.385720E-3	1.712713E-3	2.533791E-4	-7.093380E-3	-1.746870E-3	2.603405E-3	6.938838E-3	-2.895955E-3	4.835794E-4	-3.318371E-3	-5.404003E-3	-9.226579E-3	6.545856E-4	-3.954413E-3	-6.798608E-3	-2.361893E-3	4.998997E-4	-5.104295E-3	-2.086870E-3	8.776265E-3	-8.135407E-3	6.526233E-3	-7.661975E-3	2.145019E-3	1.406825E-3	3.255722E-3	-4.239299E-3	-2.509762E-3	-1.921473E-4	-5.224200E-3	8.925840E-3	1.389574E-3	-8.340593E-3	6.040832E-3	-1.429686E-3	-4.514820E-4	-5.792462E-3	-8.700447E-3	1.424986E-2	8.362530E-3	-4.294976E-4	3.655739E-4	-2.842429E-3	-8.267581E-4	-2.018712E-4	4.206594E-3	1.942261E-3	-5.959707E-3	-6.702287E-3	3.130789E-3	-1.082479E-3	-3.610304E-3	7.774721E-3	3.599922E-3	-2.885405E-3	-3.362442E-3	-8.788138E-3	5.666681E-3	-3.601302E-3	-1.850092E-3	-4.236210E-3	4.845472E-3	-7.094864E-3	6.585177E-3	-8.456854E-3	8.487479E-4	-3.612966E-3	-1.452919E-4	1.493921E-3	-1.180660E-3	2.432295E-3	9.774315E-3	4.599719E-4	-9.085075E-3	1.398973E-4	1.579497E-3	3.395531E-3	1.163527E-3	-4.834894E-3	3.341158E-3	5.242902E-3	-5.580221E-3	2.581251E-3	1.333471E-4	-4.700965E-4	3.744276E-5	-6.889510E-3	4.331022E-3	1.937388E-3	-6.232844E-3	-1.032267E-2	4.713652E-3	-3.584908E-3	9.790263E-3	1.871275E-3	-8.543266E-3	-3.159173E-3	-7.580005E-3	8.465276E-4	5.856512E-3	1.071922E-2	4.421844E-3	4.200588E-3	1.026988E-2	-1.976115E-3	5.855978E-3	-5.781532E-5	9.060711E-3	5.792311E-3	1.579151E-3	3.272730E-3	-3.053843E-3	-5.019664E-3	7.422786E-3	2.082825E-3	-4.811875E-3	1.346479E-3	8.892440E-3	4.086554E-4	1.409404E-2	-6.343865E-3	4.677945E-3	-1.270178E-2	2.317070E-3	-1.602426E-3	-1.089114E-2	3.635862E-3	1.902720E-3	1.748949E-4	5.350224E-3	-7.099010E-4	-7.595149E-3	-2.485335E-3	-2.653936E-3	5.698384E-3	-4.996484E-3	2.864843E-3	-4.089222E-3	4.126287E-3	7.596727E-3	-6.406581E-3	-4.492249E-4	-3.493296E-5	-6.637173E-3	-5.975580E-4	8.239618E-3	-6.353737E-4	-6.834845E-3	-2.654028E-4	2.302040E-3	-6.352075E-5	-6.456800E-3	-1.029943E-2	-2.169815E-3	-1.530353E-3	-7.148173E-3	2.547490E-3	2.140394E-4	-3.447392E-3
2.805050E+2	-2.731591E-3	-7.167441E-3	2.044060E-3	1.567212E-3	-4.285594E-3	-5.317290E-3	1.706769E-3	-1.102481E-3	2.636289E-3	-5.810883E-4	-2.406772E-3	-4.732891E-3	7.340808E-4	-6.646219E-3	8.603435E-3	7.982211E-3	8.639754E-3	4.872219E-4	1.291125E-2	3.095322E-3	-2.335669E-3	1.728229E-3	-6.958362E-3	-2.304516E-3	-1.026993E-3	-6.529329E-3	1.126698E-3	-1.618611E-3	-7.103357E-3	-4.257194E-4	1.236737E-2	1.991881E-3	-1.164178E-3	1.119401E-3	-4.745951E-3	3.554859E-3	-2.961590E-5	2.601144E-3	-7.455683E-3	-2.015548E-3	-4.994110E-3	7.109735E-3	-1.638249E-3	1.141788E-2	5.277450E-4	6.390304E-3	-4.781203E-4	6.522506E-4	1.904965E-3	-5.906615E-3	-1.019163E-3	-9.052812E-3	-7.864142E-3	1.273925E-4	1.036368E-2	-4.804741E-4	6.359093E-4	-4.189927E-3	-3.994709E-3	6.390009E-3	5.560251E-4	4.188900E-3	-1.728027E-3	1.080698E-2	1.783627E-3	1.470803E-3	8.058500E-3	3.255170E-4	5.300031E-3	3.777330E-3	8.430502E-4	1.097442E-2	-3.596032E-4	-2.555615E-3	3.563161E-4	9.858489E-4	3.236747E-3	7.952896E-3	-8.525034E-4	3.755497E-3	7.838034E-3	-6.454485E-4	7.667824E-3	4.149686E-3	-1.567976E-4	2.434998E-3	7.630299E-4	7.748565E-3	6.854075E-3	-9.117512E-3	-1.200207E-2	-9.078806E-4	3.263346E-3	5.517910E-3	3.126759E-3	9.521815E-4	-2.454974E-3	1.657399E-3	5.976284E-3	2.793745E-3	-2.837418E-3	-1.541565E-3	-4.671173E-3	1.928827E-3	-5.672198E-3	4.121931E-4	-3.023068E-4	9.626574E-6	-3.840349E-3	7.126688E-4	7.064504E-3	-7.396593E-3	-4.166000E-3	-5.403691E-3	5.297839E-3	-1.185122E-3	5.410827E-3	-1.224223E-2	-3.202108E-3	-4.340044E-3	-9.767851E-3	-5.782536E-3	-9.111881E-3	-1.137031E-3	5.880102E-3	4.529152E-3	-4.620399E-4	-3.778972E-3	3.812808E-3	-1.367051E-2	1.169542E-2	-3.371737E-3	4.453917E-3	8.833741E-3	-1.215548E-2	4.148386E-3	2.168126E-3	2.902238E-3	-2.398682E-3	8.214539E-4	1.760949E-3	-1.028704E-2	-3.799232E-4	-1.576398E-3	1.233619E-2	-7.485912E-3	3.460445E-3	-4.111407E-3	-1.504675E-3	1.810015E-3	-4.264704E-3	-4.186460E-3	2.261447E-3	-1.901529E-3	7.446781E-3	2.697842E-3	-8.495726E-4	8.273196E-3	1.364057E-3	3.680695E-3	9.196625E-3	-6.423216E-3	4.051189E-3	-5.021348E-3	-5.817860E-3	3.698502E-3	-5.167874E-3	-2.502436E-3	4.268389E-3	1.748911E-2	-4.343531E-3	1.193814E-2
2.810050E+2	-3.664938E-3	-3.785760E-3	1.282415E-2	-2.425065E-3	1.046188E-3	-1.515516E-3	-4.513159E-3	6.127497E-3	-1.206801E-2	-5.469227E-3	-1.567891E-3	-9.174466E-4	2.192443E-3	4.150885E-3	-5.456379E-3	-1.168574E-2	-4.055219E-3	5.208684E-3	-1.944340E-3	-7.171566E-3	3.007943E-3	4.507922E-3	9.735929E-3	4.144279E-3	-4.361683E-3	3.635961E-3	-3.223893E-3	-1.134685E-2	-4.038090E-3	-2.019979E-3	-4.451578E-3	-9.933478E-3	1.486117E-3	-2.779576E-3	2.083917E-3	-1.308144E-3	-2.191576E-5	-1.124734E-2	4.722258E-3	3.429386E-3	2.106640E-3	-1.804769E-3	5.773861E-3	7.837099E-3	-1.637179E-3	7.807616E-3	-3.660543E-3	-1.552055E-3	-2.247675E-3	-5.117254E-3	5.034724E-3	-3.066369E-3	5.291013E-3	3.474603E-3	-6.370200E-4	2.007638E-3	-2.549924E-3	6.603704E-3	-1.002701E-3	8.648840E-4	4.699282E-3	-2.128889E-4	-2.517647E-3	-3.466320E-3	-4.657006E-3	9.261884E-3	-8.302909E-3	-8.848312E-3	-4.197644E-3	-7.372869E-4	-8.745810E-3	4.909587E-3	-5.134498E-3	3.800756E-3	4.770782E-3	1.020036E-2	3.151348E-5	-8.360813E-3	7.443941E-4	3.761640E-3	2.430951E-3	1.106661E-3	9.257914E-3	-3.100350E-3	-2.420970E-3	-6.464999E-3	-9.639166E-3	6.037941E-3	-5.555704E-3	-5.932998E-3	3.201674E-3	1.112101E-2	-4.810635E-3	-8.045176E-4	3.922203E-3	-2.822866E-3	4.187482E-3	-3.021793E-5	-1.111990E-2	-6.070838E-3	-1.378830E-3	4.141708E-3	4.792646E-3	-4.686809E-4	-1.310231E-3	6.385104E-3	-4.521544E-3	-5.979336E-3	7.471266E-3	7.708161E-3	4.644885E-3	-1.467586E-3	-2.154713E-3	1.145175E-3	-7.049131E-4	4.165893E-3	4.638642E-3	5.548267E-3	-1.162944E-3	-1.856860E-3	2.167624E-3	3.258580E-3	-5.331504E-3	-8.041667E-3	-1.543692E-3	2.591438E-3	9.021384E-3	-8.077013E-3	-4.073543E-3	-1.674168E-3	-1.010255E-2	2.924966E-3	-1.370437E-3	5.204728E-3	-4.268807E-3	8.975714E-3	3.869947E-3	-1.872869E-3	-5.289711E-4	-9.993656E-4	1.870003E-4	3.477754E-3	-1.227642E-3	5.846136E-3	-1.041972E-3	7.804310E-3	-9.973792E-3	1.784094E-4	5.017656E-3	-3.625725E-3	-6.144644E-3	1.292533E-2	-3.783183E-3	-2.868256E-3	-4.682535E-3	6.512055E-3	-1.783363E-5	-1.561430E-3	3.041669E-3	-9.656027E-3	-3.288552E-4	6.307507E-3	-8.730505E-3	4.609468E-3	8.227122E-3	6.329729E-3	-2.319777E-3	1.669777E-3	5.309918E-3	-7.691706E-3	-3.146589E-5	1.580330E-2
2.815020E+2	-1.279510E-2	1.005068E-2	-5.819844E-3	9.401579E-3	8.732637E-3	2.331708E-3	-5.289773E-5	-1.815561E-4	4.384749E-3	4.323814E-3	-3.236006E-3	-3.772175E-3	4.422335E-3	-5.177978E-3	-2.604820E-3	-1.429177E-3	8.676241E-3	-9.746225E-3	-6.276741E-3	-4.362820E-3	3.055380E-3	-7.230102E-3	1.153386E-2	3.379677E-3	-9.995310E-4	-9.626841E-3	-4.930300E-3	9.885346E-3	1.136698E-2	8.352971E-3	1.470210E-2	-6.479675E-5	-2.924113E-3	4.275071E-3	-4.724968E-3	3.518558E-4	-8.136430E-3	3.335747E-5	-4.176751E-3	-5.876789E-3	3.726836E-3	-1.068556E-2	2.094669E-3	-3.699367E-3	-6.651241E-3	7.949956E-4	-9.981663E-3	7.318779E-3	1.936202E-3	2.834396E-3	9.415147E-3	-3.893103E-3	-3.427523E-3	-7.819673E-3	-3.136666E-3	7.878581E-3	1.470714E-3	2.797918E-3	5.057165E-3	3.657799E-3	3.914212E-3	2.782206E-3	3.821426E-3	-3.424174E-3	-9.494704E-4	-4.717015E-3	-1.910138E-3	-8.813711E-3	-4.879067E-3	1.269453E-3	-3.916464E-3	6.255353E-4	-4.299462E-3	-3.314510E-3	-4.997260E-4	-1.048324E-3	-7.244486E-4	9.640380E-3	-1.607948E-3	1.568622E-3	-3.838883E-3	6.419919E-3	-1.296322E-2	-3.973362E-3	1.412449E-3	3.996398E-3	7.216230E-3	-5.868306E-3	6.891033E-3	1.270676E-3	-3.392631E-4	6.143015E-3	-5.576065E-3	-1.550502E-3	3.182076E-3	-5.046697E-3	-7.395494E-3	8.267333E-4	-5.007427E-3	-1.316577E-2	9.999299E-3	-4.757361E-3	1.722611E-2	-3.722659E-3	-4.702293E-3	-1.384269E-3	-5.402955E-3	1.046656E-2	-5.035750E-4	-7.985224E-3	-2.659472E-3	6.729823E-3	-3.080380E-3	-3.185076E-3	4.512766E-3	-4.571615E-3	-5.503902E-3	-1.147757E-3	7.101972E-3	-2.669910E-3	3.135586E-3	-1.288588E-3	5.920292E-4	-9.707114E-3	-4.772502E-3	8.946073E-3	-6.322224E-3	-4.439775E-3	-1.103465E-2	9.063884E-3	8.025553E-4	-2.451255E-3	-4.957308E-3	1.959725E-3	-7.618708E-3	-4.684018E-3	-6.381324E-3	-2.468733E-3	-8.093593E-3	8.638378E-3	2.487035E-4	8.616893E-4	-4.372590E-3	-7.858171E-4	1.522484E-3	-5.967554E-5	2.562729E-3	-3.264644E-3	-6.513628E-3	2.242460E-3	-4.293709E-3	-6.599300E-3	-2.934285E-4	-3.170963E-3	-1.637610E-3	2.723864E-3	4.249037E-3	3.272732E-3	-5.311107E-3	-9.616337E-3	6.587259E-4	-5.587936E-3	-2.821948E-3	-9.813361E-3	8.285019E-3	-2.450577E-3	-2.283587E-3	2.554215E-3	3.251851E-3	4.082679E-3	2.192225E-3	-1.909388E-2
2.820060E+2	5.919777E-3	-2.492570E-3	-2.566835E-3	-3.043586E-3	1.446586E-3	-1.038362E-2	3.844117E-3	2.931812E-3	-3.983615E-3	5.783056E-4	4.808052E-4	-1.550113E-3	3.752604E-4	5.964525E-3	1.965594E-3	-3.502419E-3	-2.900560E-3	-7.105543E-3	1.955914E-3	4.420983E-3	-6.709628E-3	-2.013880E-3	-2.261425E-3	4.907943E-4	-6.662646E-4	-4.616252E-3	1.196954E-2	1.378668E-3	-2.896741E-3	3.123132E-3	1.247777E-3	-3.250156E-3	2.735471E-3	9.330592E-3	-1.048252E-2	3.154370E-3	6.556093E-3	3.048815E-3	8.409532E-3	3.011162E-3	4.852724E-3	-2.944158E-3	5.519707E-4	-4.300227E-3	6.766424E-3	2.530593E-3	-8.999935E-4	2.509301E-3	3.934751E-3	1.116490E-2	-5.895624E-3	-2.761822E-3	5.859601E-4	-2.180151E-3	1.450264E-3	8.272696E-3	-5.426663E-3	3.931046E-3	-1.679120E-3	1.211347E-3	-2.415837E-3	5.396515E-3	1.779289E-3	-5.387541E-3	-1.577705E-3	-9.925423E-3	1.031431E-2	6.600100E-3	-7.519050E-3	-4.255130E-3	3.632127E-3	4.460387E-3	4.811629E-3	4.182958E-3	-3.751821E-3	3.186396E-4	-7.667537E-3	2.646633E-3	1.722054E-2	4.915174E-3	5.512147E-3	2.373937E-3	-1.035893E-2	7.245613E-3	3.271278E-3	-1.060091E-2	1.136062E-3	5.578034E-3	8.211946E-5	-2.388209E-3	5.388872E-3	-2.583140E-3	4.220876E-4	-1.250226E-3	5.932133E-3	-1.697813E-3	7.096557E-3	-4.557054E-3	7.520312E-3	5.276418E-4	-5.999539E-3	1.085508E-2	-9.798587E-3	9.063340E-3	-4.424917E-3	-6.591845E-3	3.776047E-4	1.299540E-3	-5.828913E-3	5.793072E-3	1.817832E-3	4.865892E-3	4.172532E-3	-1.987756E-3	-2.162726E-3	1.071978E-2	-6.803737E-3	9.419566E-3	-7.418883E-3	-2.312955E-3	-4.258070E-3	-1.798316E-3	2.984587E-3	1.041478E-2	4.708437E-3	-4.188947E-3	9.286332E-4	1.652078E-3	9.618973E-3	1.000769E-2	-1.375477E-2	-2.081352E-3	-2.271386E-4	3.242963E-3	-3.614395E-3	5.197174E-4	8.622076E-6	-2.805910E-3	1.064891E-2	3.792348E-3	-4.119444E-3	8.589140E-3	4.844468E-3	-2.689127E-3	-2.303542E-3	-3.968915E-3	1.029768E-2	6.062832E-4	-1.007351E-3	-5.129022E-3	8.348179E-3	1.024456E-2	6.250901E-3	1.865562E-2	-2.121654E-3	-6.555301E-3	-7.230045E-3	-2.859047E-3	3.568868E-3	3.953548E-4	6.797851E-3	-1.084147E-2	5.525861E-3	9.104102E-3	1.251916E-3	2.792077E-3	1.273180E-2	4.336340E-4	-5.864402E-3	-1.819541E-2	2.707865E-3	-1.104412E-2
2.825030E+2	-6.155102E-3	9.545022E-3	-6.488806E-4	5.729040E-3	5.989402E-3	1.717355E-2	-7.038755E-4	2.836850E-3	4.647911E-3	2.147229E-3	1.066240E-2	2.229765E-3	3.248576E-3	5.897136E-3	4.025585E-3	1.385389E-2	3.413977E-3	1.824931E-2	9.875150E-4	4.314097E-3	2.660924E-3	5.608695E-3	-5.571737E-4	6.916109E-3	1.684264E-2	8.716097E-3	5.762419E-3	5.743087E-3	1.257135E-4	-1.745977E-3	-5.745087E-3	1.930530E-2	6.236218E-3	6.228548E-4	7.536529E-3	-1.816657E-3	1.402898E-2	4.327259E-3	1.077987E-2	6.081786E-3	1.351051E-5	4.483351E-3	8.879640E-3	2.795300E-3	3.053811E-3	-2.505681E-3	7.835390E-3	1.429437E-2	2.191010E-3	9.492292E-3	-2.471655E-3	7.525379E-3	1.156889E-2	6.516201E-3	5.245856E-4	7.349678E-3	1.214763E-2	7.536006E-4	-4.788283E-3	-3.484831E-3	-3.317194E-3	9.761450E-3	3.296807E-3	-2.414581E-3	7.608768E-3	2.581141E-3	6.567320E-3	1.072072E-2	7.916358E-3	7.468472E-3	-1.266303E-3	-7.810402E-3	7.150874E-3	1.051710E-2	5.085774E-3	9.514278E-3	9.223796E-3	-2.356045E-3	-3.768116E-3	3.316557E-4	-1.813988E-3	-2.994161E-3	2.000516E-2	-1.238162E-4	1.686401E-3	5.074660E-3	1.396779E-2	-3.945289E-3	-1.764617E-3	5.560205E-3	1.704192E-3	-1.652790E-3	5.233957E-3	2.676620E-3	3.472396E-3	5.866060E-3	7.018843E-3	-5.427640E-4	3.944446E-3	1.390261E-2	9.626508E-3	-1.707096E-3	8.425603E-3	9.808168E-3	1.622050E-2	1.239863E-3	1.218471E-3	9.900646E-3	4.639554E-3	8.094494E-3	1.746924E-3	7.030082E-3	1.401944E-2	6.196349E-3	-1.250734E-3	-5.304658E-3	4.243204E-3	-5.252536E-3	2.546220E-3	1.358003E-2	-1.750158E-3	1.179572E-2	9.631633E-3	4.307670E-3	-2.033724E-3	-1.222346E-3	-3.829849E-6	1.825762E-2	5.994297E-3	1.624506E-4	1.111315E-2	5.139382E-3	4.130632E-3	3.952294E-3	6.112803E-3	4.585004E-4	-9.212705E-4	1.724372E-2	3.785103E-3	2.833781E-3	1.397504E-2	6.025957E-3	7.171523E-3	1.002371E-3	6.058245E-3	3.986994E-3	1.833381E-2	4.049505E-3	2.013010E-2	1.301884E-2	1.553992E-2	-1.351580E-3	8.778080E-3	-2.113113E-3	7.958386E-3	8.814787E-3	1.315308E-2	2.544938E-3	4.351115E-3	6.317303E-3	-4.776255E-3	4.907047E-3	7.543222E-3	8.235542E-3	3.451618E-3	1.134396E-2	-4.464364E-3	-1.284304E-3	7.865205E-3	8.084228E-3	6.528710E-4	1.237684E-2
2.830060E+2	7.543070E-3	9.483488E-3	2.005559E-2	6.469823E-3	5.940550E-3	1.648640E-2	1.352661E-2	8.244430E-3	1.325942E-2	1.193100E-2	1.504794E-2	6.796280E-3	1.435505E-2	2.713574E-2	8.403881E-3	2.269624E-2	-8.836525E-3	6.248663E-3	7.981474E-3	1.072398E-2	1.080456E-2	9.239773E-3	1.978139E-2	9.331500E-3	1.860477E-2	1.831564E-2	1.889888E-2	1.817828E-2	1.179243E-2	1.669363E-2	9.602946E-3	5.913944E-3	1.689579E-2	1.235753E-2	2.310015E-2	2.199215E-2	8.643885E-3	-1.029007E-3	1.905215E-2	1.152714E-2	1.269908E-2	1.506368E-2	1.056968E-2	1.619252E-2	8.124950E-4	1.319510E-2	9.419755E-3	6.857712E-3	2.230319E-2	3.798122E-3	1.584598E-2	8.215258E-3	2.587723E-2	2.154940E-2	1.157873E-2	2.426273E-2	2.594963E-2	1.007434E-2	1.112254E-2	1.300422E-2	1.507670E-2	1.512441E-2	1.600939E-2	1.202339E-2	1.113589E-2	3.250763E-3	3.611538E-3	1.069658E-2	6.465861E-3	1.289409E-2	7.516140E-3	2.455593E-3	1.273915E-2	2.263649E-2	2.113748E-2	1.869703E-2	6.739992E-3	2.327555E-2	-4.009579E-3	9.365274E-3	1.714565E-2	2.270622E-2	6.269807E-3	1.155994E-2	1.471299E-2	1.800237E-2	1.562211E-2	1.576394E-2	1.687404E-2	4.673960E-3	1.433445E-3	2.460200E-2	-6.343031E-4	1.626372E-2	1.387550E-2	2.362890E-2	5.205591E-3	2.318836E-2	2.057645E-2	2.838441E-2	1.329197E-2	2.288429E-2	1.335965E-2	1.230954E-2	1.094114E-2	1.548268E-2	2.438009E-2	2.391860E-2	5.433016E-3	7.191517E-3	1.581780E-2	1.835203E-2	-3.277559E-3	8.654154E-3	1.177236E-2	2.213368E-2	2.421838E-2	1.310034E-2	9.438156E-3	2.031639E-2	3.188044E-2	2.072305E-2	2.132783E-2	2.683721E-2	9.512663E-3	1.625314E-2	5.050956E-3	5.882652E-3	1.308130E-2	1.342745E-2	2.860120E-3	9.594066E-3	1.155836E-2	1.101921E-2	4.174441E-3	1.679154E-2	9.383960E-3	1.985532E-2	2.609730E-2	1.957519E-2	1.164250E-2	2.696353E-2	1.941707E-2	1.837085E-2	1.368341E-2	9.268287E-3	1.663318E-2	8.347714E-3	4.141679E-3	7.218258E-3	7.264271E-3	1.269076E-2	6.965454E-3	3.326844E-2	7.714198E-3	2.425391E-2	4.550197E-3	1.357664E-2	2.486007E-2	2.149971E-2	1.331716E-2	4.881939E-3	1.439700E-2	2.052087E-2	1.852934E-2	3.529672E-3	1.780734E-2	2.420539E-2	1.505874E-2	1.170160E-2	1.706425E-2	1.325953E-2
2.835020E+2	1.402059E-2	2.643020E-2	1.994595E-2	3.979157E-2	3.042215E-2	3.469122E-2	2.902289E-2	3.252366E-2	2.477123E-2	2.954984E-2	2.026719E-2	3.429381E-2	2.197288E-2	2.730934E-2	3.325429E-2	3.747194E-2	3.441836E-2	3.884146E-2	3.411231E-2	3.932626E-2	2.262640E-2	2.013347E-2	2.155466E-2	2.014847E-2	1.347664E-2	2.814942E-2	2.526106E-2	2.452930E-2	2.456165E-2	3.563901E-2	1.509793E-2	1.974606E-2	2.967500E-2	3.652688E-2	3.466378E-2	2.211758E-2	1.646584E-2	3.113712E-2	2.418493E-2	3.485735E-2	3.145042E-2	2.976672E-2	1.045122E-2	2.717327E-2	1.795820E-2	2.712845E-2	2.754841E-2	1.899279E-2	4.209934E-2	3.726908E-2	3.109024E-2	3.551209E-2	2.387655E-2	2.313777E-2	2.380844E-2	2.869741E-2	2.938664E-2	3.163107E-2	2.545482E-2	3.469566E-2	1.677544E-2	3.355277E-2	3.888201E-2	2.216919E-2	2.233851E-2	2.571455E-2	2.219120E-2	3.483005E-2	3.074956E-2	4.133958E-2	1.983172E-2	2.015712E-2	3.249098E-2	3.177807E-2	3.394902E-2	1.536323E-2	2.574674E-2	2.255195E-2	3.543875E-2	3.026538E-2	2.542333E-2	1.729053E-2	1.598553E-2	3.667166E-2	3.201128E-2	2.124764E-2	4.134130E-2	3.601017E-2	3.051147E-2	6.202417E-3	2.151300E-2	2.455328E-2	1.590028E-2	1.791273E-2	3.519190E-2	2.381648E-2	1.018309E-2	2.662673E-2	1.876035E-2	1.465056E-2	1.776327E-2	2.527694E-2	2.780277E-2	2.595018E-2	3.032924E-2	1.468810E-2	3.673815E-2	2.669024E-2	2.034254E-2	3.480815E-2	2.928276E-2	3.148433E-2	4.248382E-2	4.165895E-2	3.979993E-2	3.758703E-2	1.944851E-2	3.871738E-2	2.063026E-2	3.325169E-2	2.586463E-2	1.172511E-2	2.329283E-2	4.281183E-2	2.915370E-2	2.255280E-2	2.631762E-2	2.809347E-2	1.859440E-2	3.263467E-2	1.994347E-2	2.447713E-2	1.083599E-2	1.029486E-2	2.964681E-2	3.691987E-2	2.620815E-2	4.580673E-2	1.729149E-2	1.424693E-2	3.033517E-2	3.138042E-2	2.945118E-2	3.468195E-2	2.149491E-2	1.834565E-2	3.151119E-2	2.640123E-2	2.227063E-2	1.994911E-2	2.494958E-2	3.304683E-2	4.162603E-3	2.128802E-2	2.008935E-2	2.322463E-2	2.021570E-2	2.088458E-2	4.418652E-2	3.093760E-2	2.106185E-2	2.272624E-2	1.834716E-2	2.645425E-2	2.863954E-2	3.377279E-2	3.069294E-2	2.869446E-2	2.787047E-2	2.681110E-2	2.250679E-2	3.425598E-2
2.840000E+2	4.168984E-2	3.530031E-2	4.749836E-2	4.060644E-2	4.272580E-2	4.459100E-2	5.610418E-2	4.214854E-2	4.648388E-2	5.108411E-2	4.159617E-2	5.539622E-2	4.517548E-2	6.171208E-2	4.480331E-2	4.935711E-2	5.651710E-2	3.743378E-2	5.457455E-2	6.870861E-2	5.677274E-2	5.417979E-2	4.261000E-2	5.338488E-2	5.015725E-2	5.648447E-2	5.174853E-2	5.608540E-2	4.580265E-2	5.180142E-2	4.320061E-2	3.918705E-2	5.961993E-2	5.903578E-2	5.281153E-2	3.748218E-2	4.901676E-2	5.894897E-2	5.169437E-2	6.059587E-2	4.320506E-2	4.254959E-2	5.610066E-2	5.149597E-2	4.633829E-2	4.971941E-2	6.306532E-2	6.497272E-2	5.288657E-2	5.179952E-2	4.762147E-2	6.912372E-2	4.730474E-2	6.226663E-2	6.594432E-2	5.430267E-2	3.784084E-2	5.144058E-2	4.534109E-2	5.110195E-2	4.727694E-2	3.472734E-2	5.090879E-2	5.966496E-2	6.772018E-2	6.376018E-2	7.107609E-2	5.002937E-2	4.113781E-2	4.066699E-2	6.126140E-2	6.761764E-2	5.538371E-2	4.363320E-2	7.063835E-2	4.618156E-2	5.209745E-2	5.966676E-2	5.945293E-2	5.662489E-2	5.278201E-2	4.575093E-2	5.363259E-2	3.947355E-2	6.354249E-2	4.657795E-2	5.526633E-2	5.687136E-2	5.755289E-2	4.542756E-2	5.246741E-2	5.070457E-2	5.851812E-2	6.722498E-2	4.215298E-2	4.152668E-2	4.756806E-2	5.314918E-2	5.521418E-2	3.494233E-2	5.003058E-2	5.260103E-2	3.033004E-2	5.218153E-2	5.025691E-2	4.515416E-2	5.812867E-2	4.215142E-2	6.463085E-2	4.678146E-2	6.237411E-2	5.455010E-2	5.915690E-2	5.159745E-2	5.363435E-2	5.159563E-2	5.516187E-2	6.768985E-2	5.609707E-2	5.715253E-2	4.734409E-2	5.708115E-2	6.466351E-2	4.758206E-2	5.196681E-2	5.206932E-2	6.367971E-2	5.645086E-2	4.345294E-2	5.591897E-2	5.822341E-2	6.264410E-2	6.099451E-2	5.816114E-2	6.052941E-2	6.969679E-2	3.789579E-2	5.500061E-2	4.528366E-2	5.820622E-2	6.123973E-2	6.814055E-2	3.878998E-2	5.153596E-2	5.420896E-2	5.465795E-2	4.761740E-2	4.567684E-2	5.179428E-2	3.066696E-2	5.165074E-2	5.056959E-2	4.844783E-2	4.468734E-2	4.729159E-2	7.051762E-2	5.506317E-2	6.199860E-2	7.399772E-2	5.167879E-2	4.989607E-2	4.439838E-2	3.660846E-2	5.203860E-2	5.710192E-2	4.027200E-2	8.365698E-2	4.825825E-2	5.519309E-2	5.632021E-2	3.343695E-2	6.092296E-2
2.841010E+2	3.980019E-2	5.953556E-2	5.889070E-2	5.439239E-2	4.541769E-2	6.444948E-2	5.462651E-2	7.051845E-2	4.568870E-2	5.490374E-2	5.038342E-2	6.481218E-2	5.093819E-2	6.598901E-2	6.009167E-2	5.297070E-2	5.092076E-2	5.787054E-2	5.765515E-2	4.330715E-2	4.646585E-2	4.574164E-2	5.493938E-2	5.370982E-2	6.292106E-2	4.762831E-2	5.567635E-2	3.734840E-2	5.598012E-2	6.741940E-2	5.898713E-2	5.982719E-2	5.223502E-2	5.269475E-2	7.231687E-2	5.066230E-2	5.237047E-2	5.239886E-2	6.944718E-2	6.180108E-2	5.946790E-2	6.436778E-2	6.125306E-2	7.362070E-2	4.278449E-2	5.003852E-2	4.129337E-2	4.887566E-2	5.936774E-2	5.721086E-2	6.921864E-2	5.940021E-2	6.889487E-2	5.563746E-2	5.911234E-2	5.547774E-2	6.701876E-2	6.915871E-2	6.797592E-2	4.529441E-2	6.352820E-2	5.549322E-2	5.625510E-2	4.316197E-2	6.113334E-2	5.166438E-2	4.515631E-2	4.221686E-2	4.692587E-2	3.822177E-2	6.083702E-2	6.154899E-2	5.568184E-2	5.489139E-2	6.352010E-2	5.058598E-2	4.466892E-2	6.793664E-2	7.536165E-2	6.748141E-2	6.937351E-2	5.437804E-2	6.758633E-2	5.598274E-2	6.319091E-2	6.049984E-2	6.253094E-2	5.989076E-2	6.820502E-2	5.590608E-2	7.209639E-2	5.400904E-2	4.413473E-2	4.727963E-2	5.607679E-2	6.290065E-2	6.736204E-2	7.077763E-2	5.548643E-2	6.167706E-2	5.877147E-2	5.229013E-2	5.952195E-2	4.804386E-2	6.147043E-2	8.826497E-2	6.917905E-2	4.319560E-2	4.007521E-2	5.631309E-2	5.399538E-2	6.842102E-2	5.522384E-2	4.924719E-2	7.655664E-2	6.686569E-2	7.338431E-2	5.825981E-2	5.320528E-2	3.606897E-2	6.969039E-2	6.429037E-2	7.117131E-2	5.607936E-2	5.488730E-2	4.867091E-2	4.009269E-2	6.243954E-2	5.325588E-2	6.878144E-2	6.049360E-2	5.927523E-2	4.823509E-2	4.875709E-2	5.423993E-2	5.644248E-2	6.211010E-2	5.186979E-2	5.889487E-2	7.090077E-2	5.847577E-2	5.618747E-2	5.364547E-2	6.791399E-2	4.834551E-2	4.178736E-2	4.503834E-2	7.041855E-2	3.744771E-2	6.658871E-2	6.258731E-2	4.210635E-2	5.149602E-2	6.467868E-2	6.385613E-2	4.205191E-2	5.194620E-2	6.338660E-2	5.822705E-2	6.564665E-2	6.238779E-2	4.566849E-2	7.164201E-2	4.889024E-2	6.391286E-2	7.273535E-2	6.653186E-2	5.481555E-2	5.751493E-2	4.868033E-2	6.985122E-2	3.722747E-2
2.842030E+2	9.554231E-2	8.264477E-2	8.603579E-2	5.421900E-2	8.316672E-2	6.919991E-2	6.776399E-2	7.614802E-2	8.175968E-2	8.719155E-2	5.089284E-2	6.906116E-2	8.221980E-2	7.053206E-2	7.643360E-2	8.936308E-2	6.346479E-2	5.504674E-2	7.406634E-2	7.527772E-2	6.437987E-2	6.740341E-2	7.222467E-2	7.240071E-2	7.079479E-2	6.602917E-2	8.024290E-2	7.547977E-2	8.065538E-2	8.699934E-2	7.126232E-2	7.123118E-2	1.007094E-1	8.193766E-2	7.650027E-2	7.659803E-2	6.989392E-2	8.089933E-2	9.555156E-2	6.742150E-2	8.136741E-2	7.060841E-2	7.584363E-2	8.196907E-2	7.377424E-2	8.341145E-2	8.562983E-2	7.248789E-2	7.966386E-2	7.490224E-2	5.863283E-2	8.405646E-2	7.432298E-2	7.718281E-2	8.255911E-2	7.493849E-2	8.656178E-2	6.062534E-2	6.640398E-2	6.064638E-2	9.014577E-2	7.437859E-2	6.874489E-2	7.783602E-2	8.949112E-2	6.906978E-2	6.922120E-2	6.885791E-2	5.856309E-2	6.471924E-2	7.698250E-2	5.095784E-2	8.635616E-2	8.036299E-2	9.379118E-2	8.986500E-2	7.898240E-2	7.476860E-2	6.569624E-2	8.431784E-2	7.583547E-2	8.715751E-2	8.539871E-2	8.778980E-2	7.935789E-2	8.366257E-2	7.612611E-2	8.996096E-2	8.796125E-2	6.683484E-2	1.066558E-1	7.298956E-2	5.426415E-2	7.005360E-2	6.437271E-2	8.645865E-2	8.502123E-2	7.492099E-2	9.730861E-2	7.861492E-2	6.398061E-2	6.631675E-2	7.525423E-2	9.135410E-2	6.114589E-2	6.452826E-2	8.174808E-2	9.212365E-2	5.014630E-2	8.412604E-2	7.340680E-2	7.164581E-2	8.144269E-2	7.367185E-2	7.065803E-2	7.220304E-2	8.441119E-2	9.123426E-2	7.017491E-2	6.370541E-2	1.028819E-1	7.785190E-2	8.025088E-2	7.627750E-2	6.890287E-2	8.499251E-2	8.553612E-2	9.586049E-2	7.674577E-2	1.019681E-1	6.747820E-2	8.648303E-2	7.263880E-2	8.089281E-2	9.302136E-2	7.285165E-2	8.499509E-2	7.776366E-2	8.240900E-2	8.015032E-2	6.597797E-2	8.259184E-2	7.857796E-2	8.807956E-2	8.507703E-2	1.027834E-1	7.680534E-2	9.350450E-2	7.487746E-2	7.271544E-2	8.957559E-2	7.641475E-2	8.745164E-2	8.257047E-2	1.038707E-1	8.397027E-2	6.911990E-2	8.918690E-2	7.154500E-2	7.692448E-2	8.249527E-2	7.101259E-2	8.415653E-2	7.588202E-2	9.015742E-2	9.192614E-2	9.837666E-2	7.006465E-2	7.621380E-2	8.346494E-2	6.096751E-2	1.051516E-1
2.843040E+2	1.101347E-1	1.029850E-1	8.750221E-2	1.058875E-1	1.021910E-1	1.162936E-1	1.044095E-1	1.134869E-1	1.143329E-1	1.011303E-1	1.243489E-1	1.165663E-1	1.075726E-1	1.095998E-1	1.023870E-1	1.063619E-1	1.106560E-1	1.165249E-1	1.025910E-1	1.052973E-1	9.346316E-2	9.162413E-2	9.098352E-2	1.026849E-1	8.399607E-2	1.016677E-1	1.157634E-1	8.395810E-2	9.895252E-2	1.093928E-1	1.105627E-1	9.655783E-2	1.149692E-1	1.055662E-1	1.102495E-1	9.910384E-2	9.444096E-2	1.201915E-1	1.051674E-1	1.287911E-1	1.027843E-1	1.226127E-1	1.025028E-1	1.028916E-1	1.124226E-1	1.027792E-1	1.181140E-1	1.071671E-1	1.082905E-1	1.083815E-1	1.182152E-1	8.755460E-2	1.174172E-1	1.020612E-1	1.043882E-1	1.012693E-1	9.857313E-2	9.566014E-2	1.368957E-1	1.253781E-1	9.175541E-2	1.000126E-1	9.198783E-2	1.040931E-1	9.103140E-2	9.942245E-2	8.437259E-2	1.185858E-1	9.831325E-2	1.243971E-1	1.037562E-1	1.069292E-1	1.201133E-1	1.070006E-1	9.731906E-2	1.239495E-1	9.624001E-2	9.848837E-2	1.203479E-1	1.014181E-1	9.591234E-2	1.184444E-1	1.007991E-1	1.021903E-1	1.172848E-1	1.112976E-1	1.143321E-1	1.390946E-1	1.136736E-1	1.134163E-1	1.025568E-1	1.105568E-1	1.137629E-1	9.562836E-2	1.098471E-1	8.887887E-2	1.155790E-1	1.107901E-1	8.947950E-2	1.131581E-1	1.280513E-1	9.637647E-2	1.000874E-1	1.110389E-1	1.129624E-1	1.223775E-1	1.224408E-1	1.361942E-1	8.384773E-2	9.961822E-2	1.115514E-1	8.272939E-2	9.272420E-2	1.252671E-1	1.075840E-1	1.072080E-1	1.221917E-1	1.070593E-1	1.173655E-1	1.189265E-1	1.083494E-1	1.124415E-1	1.109849E-1	1.200514E-1	1.028125E-1	9.731887E-2	1.200618E-1	1.053363E-1	1.079135E-1	1.219798E-1	1.141842E-1	1.148026E-1	1.027101E-1	9.753598E-2	1.216790E-1	1.146679E-1	1.127968E-1	1.091376E-1	1.248615E-1	1.035568E-1	8.873289E-2	1.083939E-1	1.183461E-1	1.090593E-1	9.753180E-2	1.006359E-1	1.273991E-1	1.133850E-1	1.121442E-1	9.229927E-2	1.287404E-1	1.091798E-1	1.022250E-1	1.057071E-1	9.556544E-2	1.032397E-1	1.131384E-1	1.170216E-1	1.014292E-1	9.396902E-2	9.424234E-2	1.145653E-1	1.308527E-1	1.074731E-1	1.014356E-1	1.083988E-1	1.305661E-1	1.000125E-1	9.020476E-2	1.090780E-1	1.247259E-1	1.366915E-1
2.844010E+2	1.463571E-1	1.106329E-1	1.294753E-1	1.144038E-1	1.469885E-1	1.350099E-1	1.410483E-1	1.296503E-1	1.068375E-1	1.389024E-1	1.704399E-1	1.387828E-1	1.415488E-1	1.288781E-1	1.378996E-1	1.221123E-1	1.405430E-1	1.315103E-1	1.325099E-1	1.585709E-1	1.393954E-1	1.531367E-1	1.474597E-1	1.297085E-1	1.453183E-1	1.415305E-1	1.111400E-1	1.268418E-1	1.566284E-1	1.454594E-1	1.466585E-1	1.440851E-1	1.609630E-1	1.452611E-1	1.226465E-1	1.386997E-1	1.495223E-1	1.265048E-1	1.288324E-1	1.335173E-1	1.290214E-1	1.393880E-1	1.507877E-1	1.453591E-1	1.358643E-1	1.443466E-1	1.070736E-1	1.529321E-1	1.303357E-1	1.530623E-1	1.432364E-1	1.410724E-1	1.356066E-1	1.555611E-1	1.305136E-1	1.394675E-1	1.383080E-1	1.538416E-1	1.092958E-1	1.306854E-1	1.448840E-1	1.377113E-1	1.250479E-1	1.403428E-1	1.465809E-1	1.460441E-1	1.149884E-1	1.542594E-1	1.462799E-1	1.508463E-1	1.323486E-1	1.186657E-1	1.442472E-1	1.468387E-1	1.191179E-1	1.510908E-1	1.335230E-1	1.301978E-1	1.611361E-1	1.324722E-1	1.444887E-1	1.631587E-1	1.374167E-1	1.311333E-1	1.276569E-1	1.510627E-1	1.207719E-1	1.432388E-1	1.303692E-1	1.505123E-1	1.400716E-1	1.149760E-1	1.327087E-1	1.576512E-1	1.318809E-1	1.491571E-1	1.496280E-1	1.573231E-1	1.544724E-1	1.584463E-1	1.543412E-1	1.385587E-1	1.410878E-1	1.312874E-1	1.320051E-1	1.347977E-1	1.500219E-1	1.679021E-1	1.494486E-1	1.579912E-1	1.632235E-1	1.368831E-1	1.361019E-1	1.363892E-1	1.355475E-1	1.498976E-1	1.264645E-1	1.408815E-1	1.498366E-1	1.622749E-1	1.468891E-1	1.426672E-1	1.394023E-1	1.296892E-1	1.395401E-1	1.323542E-1	1.381722E-1	1.397360E-1	1.768621E-1	1.532545E-1	1.686281E-1	1.488946E-1	1.374320E-1	1.391956E-1	1.325544E-1	1.531532E-1	1.537025E-1	1.275232E-1	1.079925E-1	1.228711E-1	1.353159E-1	1.430705E-1	1.466962E-1	1.289859E-1	1.446044E-1	1.231644E-1	1.213141E-1	1.532404E-1	1.333338E-1	1.451440E-1	1.418964E-1	1.337325E-1	1.355855E-1	1.303055E-1	1.621914E-1	1.485377E-1	1.591007E-1	1.463974E-1	1.367612E-1	1.557067E-1	1.527272E-1	1.191607E-1	1.765511E-1	1.565469E-1	1.547516E-1	1.417230E-1	1.519266E-1	1.519418E-1	1.258278E-1	1.375047E-1	1.476964E-1	1.849612E-1
2.845030E+2	1.916660E-1	1.895275E-1	1.716899E-1	1.733827E-1	1.552770E-1	1.965096E-1	1.890866E-1	1.761225E-1	1.766506E-1	1.810895E-1	1.833410E-1	1.695246E-1	1.609573E-1	1.456589E-1	1.748002E-1	1.915822E-1	1.781997E-1	1.654992E-1	1.598966E-1	2.211998E-1	1.816327E-1	1.916536E-1	1.585964E-1	1.746710E-1	1.701496E-1	1.839671E-1	1.801777E-1	1.855812E-1	1.711620E-1	1.990365E-1	2.033908E-1	1.737228E-1	1.591347E-1	1.815361E-1	1.703106E-1	1.953277E-1	1.587267E-1	1.873635E-1	1.615225E-1	1.760241E-1	1.874816E-1	1.740068E-1	1.596434E-1	1.740511E-1	1.870801E-1	1.687085E-1	1.742125E-1	1.636692E-1	1.907436E-1	1.820092E-1	1.894782E-1	1.705791E-1	1.834174E-1	1.742312E-1	1.497629E-1	1.886661E-1	1.841031E-1	2.076747E-1	1.620591E-1	1.776721E-1	1.706468E-1	1.744069E-1	1.830754E-1	1.621152E-1	1.608546E-1	1.642769E-1	1.946417E-1	1.787720E-1	1.821237E-1	1.755585E-1	1.779973E-1	2.024691E-1	1.911276E-1	1.787801E-1	1.718043E-1	1.679737E-1	1.920893E-1	1.889960E-1	1.991830E-1	1.701237E-1	1.773925E-1	1.817260E-1	1.760111E-1	1.720683E-1	1.823062E-1	1.925338E-1	1.612069E-1	1.958791E-1	2.000743E-1	1.852319E-1	1.612109E-1	1.624836E-1	1.667996E-1	1.719541E-1	1.898900E-1	1.939842E-1	1.809549E-1	1.629473E-1	1.556710E-1	1.902726E-1	1.921911E-1	2.029433E-1	1.903191E-1	1.811167E-1	1.870633E-1	1.791558E-1	2.156825E-1	1.791124E-1	1.718817E-1	1.947794E-1	1.883228E-1	1.704941E-1	2.181770E-1	1.855039E-1	1.834699E-1	1.572562E-1	2.014359E-1	1.779814E-1	1.815107E-1	1.807699E-1	1.722265E-1	1.773995E-1	1.784759E-1	1.889677E-1	1.634794E-1	1.778560E-1	1.579506E-1	1.788162E-1	2.047918E-1	1.883641E-1	1.818026E-1	1.856701E-1	1.528628E-1	1.918272E-1	2.017562E-1	1.746059E-1	2.050218E-1	1.817017E-1	1.694503E-1	1.682439E-1	1.906722E-1	1.704888E-1	1.846552E-1	1.594972E-1	1.634471E-1	1.980595E-1	1.845628E-1	2.008998E-1	2.009312E-1	1.620544E-1	1.927836E-1	1.564244E-1	1.975071E-1	2.026073E-1	1.600145E-1	1.824148E-1	2.026581E-1	1.910078E-1	1.944276E-1	1.911961E-1	1.653531E-1	2.038825E-1	2.236596E-1	1.770815E-1	1.720775E-1	1.780478E-1	2.019277E-1	1.826443E-1	1.583479E-1	1.604478E-1	1.720404E-1	2.192563E-1
2.846040E+2	2.216261E-1	2.342517E-1	2.559712E-1	2.296398E-1	2.146894E-1	2.202202E-1	2.307806E-1	2.409317E-1	2.656043E-1	2.512398E-1	2.327694E-1	2.455085E-1	2.384499E-1	2.492832E-1	2.367972E-1	2.290080E-1	2.219708E-1	2.316908E-1	2.303756E-1	2.508587E-1	2.293181E-1	2.304446E-1	2.499162E-1	2.430357E-1	2.417338E-1	2.325141E-1	2.462176E-1	2.383124E-1	2.383166E-1	2.554047E-1	2.484599E-1	2.276388E-1	2.146347E-1	2.359230E-1	2.398368E-1	2.304211E-1	2.268118E-1	2.236599E-1	2.203404E-1	2.393888E-1	2.372932E-1	2.615391E-1	2.663289E-1	2.460231E-1	2.417631E-1	2.275732E-1	2.549027E-1	2.330998E-1	2.153434E-1	2.072990E-1	2.581860E-1	2.541436E-1	2.403537E-1	2.085196E-1	2.256888E-1	2.182490E-1	2.599652E-1	2.317561E-1	2.311149E-1	2.704859E-1	2.578042E-1	2.234080E-1	2.511474E-1	2.456190E-1	2.437127E-1	2.185667E-1	2.544903E-1	2.277342E-1	2.195920E-1	2.169637E-1	2.238884E-1	2.449094E-1	2.202125E-1	2.333801E-1	2.674403E-1	2.232925E-1	2.569688E-1	2.604439E-1	2.621125E-1	2.733616E-1	2.777566E-1	2.310078E-1	2.419777E-1	2.340883E-1	2.537983E-1	2.364781E-1	2.533699E-1	2.654260E-1	2.095980E-1	2.797846E-1	2.598683E-1	2.164871E-1	2.472410E-1	2.376708E-1	2.485204E-1	2.462446E-1	2.193407E-1	2.748124E-1	2.488154E-1	2.380910E-1	2.585691E-1	2.263424E-1	2.725366E-1	2.647352E-1	2.469826E-1	2.524623E-1	2.423126E-1	2.385521E-1	2.199212E-1	2.386560E-1	2.560979E-1	2.533548E-1	2.330210E-1	2.744638E-1	2.410765E-1	2.317280E-1	2.241692E-1	2.767700E-1	2.643038E-1	2.135615E-1	2.573413E-1	2.467740E-1	2.491276E-1	2.553076E-1	2.419224E-1	2.632031E-1	2.593885E-1	2.489816E-1	2.583075E-1	2.391560E-1	2.648402E-1	2.256031E-1	2.314423E-1	2.550268E-1	2.191606E-1	2.425252E-1	2.430639E-1	2.275655E-1	2.528642E-1	2.483379E-1	2.644977E-1	2.736132E-1	2.368748E-1	2.585775E-1	2.609532E-1	2.665570E-1	2.517980E-1	2.533277E-1	2.504941E-1	2.600582E-1	2.585995E-1	2.660712E-1	2.241156E-1	2.096834E-1	2.308811E-1	2.371148E-1	2.449102E-1	2.107870E-1	2.465952E-1	2.483976E-1	2.426825E-1	2.727452E-1	2.711814E-1	2.243977E-1	2.436130E-1	2.564434E-1	2.634581E-1	2.318302E-1	2.529671E-1	2.552050E-1	2.467600E-1	2.729068E-1
2.847020E+2	5.049400E-1	5.090647E-1	4.800077E-1	4.848772E-1	4.874289E-1	5.099133E-1	4.710982E-1	5.136666E-1	4.921410E-1	5.036922E-1	5.142917E-1	4.859840E-1	5.035679E-1	5.000970E-1	4.920780E-1	5.078723E-1	4.896468E-1	4.856476E-1	5.127698E-1	4.860605E-1	5.416889E-1	5.153507E-1	5.163273E-1	5.107252E-1	5.131768E-1	5.050568E-1	5.169861E-1	5.031452E-1	5.029276E-1	5.133832E-1	5.178643E-1	5.315487E-1	4.703881E-1	5.342987E-1	4.837393E-1	4.825460E-1	4.932180E-1	5.161040E-1	5.114457E-1	5.623300E-1	5.120621E-1	4.785468E-1	4.903171E-1	4.981697E-1	5.074365E-1	4.858592E-1	5.303805E-1	5.342252E-1	5.126298E-1	5.355060E-1	5.268221E-1	4.918939E-1	4.962057E-1	5.105374E-1	5.252749E-1	4.858866E-1	4.554939E-1	5.350232E-1	4.816932E-1	5.125675E-1	5.159518E-1	5.026986E-1	5.201144E-1	5.325213E-1	4.961446E-1	4.994909E-1	4.919365E-1	5.115151E-1	5.330890E-1	5.151440E-1	5.539456E-1	5.604468E-1	5.287255E-1	4.758588E-1	4.849197E-1	5.521441E-1	5.288864E-1	5.282496E-1	5.149619E-1	4.913770E-1	5.464688E-1	5.222515E-1	5.075138E-1	5.446701E-1	5.322301E-1	4.976765E-1	5.331126E-1	5.183135E-1	5.036505E-1	4.941293E-1	5.219254E-1	5.200154E-1	4.922999E-1	5.070131E-1	5.179340E-1	5.061442E-1	5.558247E-1	5.084431E-1	4.836695E-1	5.185968E-1	5.199902E-1	5.144291E-1	4.870908E-1	5.560987E-1	4.849703E-1	5.080603E-1	5.573451E-1	4.768645E-1	4.906393E-1	5.019870E-1	5.192797E-1	5.328605E-1	5.248693E-1	4.847399E-1	5.127875E-1	5.180594E-1	5.015579E-1	5.266605E-1	5.021436E-1	5.422484E-1	5.306122E-1	5.193892E-1	5.407636E-1	5.363823E-1	5.110215E-1	5.413018E-1	5.274679E-1	5.043436E-1	5.069465E-1	4.720866E-1	5.156069E-1	4.987878E-1	5.110466E-1	5.369890E-1	4.848588E-1	5.226513E-1	5.117615E-1	5.296040E-1	5.337237E-1	5.114871E-1	5.519154E-1	5.256478E-1	5.315418E-1	4.839456E-1	5.063012E-1	5.312225E-1	5.753352E-1	5.148383E-1	4.718198E-1	5.329721E-1	5.376262E-1	4.643517E-1	5.483967E-1	5.584906E-1	5.415811E-1	5.606871E-1	4.891993E-1	5.033051E-1	5.265633E-1	4.851033E-1	5.209853E-1	5.326108E-1	5.332764E-1	4.713884E-1	5.119453E-1	5.454313E-1	5.478322E-1	4.951559E-1	4.986070E-1	5.127640E-1	5.270239E-1	5.080353E-1
2.848020E+2	1.195126E+0	1.121274E+0	1.176709E+0	1.157577E+0	1.128279E+0	1.057398E+0	1.130550E+0	1.219240E+0	1.153555E+0	1.162871E+0	1.183892E+0	1.163312E+0	1.101364E+0	1.142979E+0	1.158150E+0	1.147478E+0	1.168366E+0	1.136110E+0	1.164590E+0	1.149715E+0	1.111263E+0	1.147379E+0	1.164941E+0	1.181599E+0	1.111118E+0	1.148122E+0	1.135892E+0	1.145993E+0	1.146141E+0	1.190771E+0	1.119712E+0	1.157646E+0	1.167392E+0	1.181163E+0	1.108519E+0	1.089699E+0	1.089406E+0	1.164177E+0	1.135861E+0	1.127265E+0	1.141298E+0	1.130109E+0	1.174493E+0	1.103668E+0	1.116432E+0	1.137742E+0	1.201151E+0	1.176340E+0	1.100588E+0	1.194426E+0	1.142884E+0	1.084916E+0	1.138852E+0	1.077788E+0	1.143380E+0	1.143565E+0	1.170060E+0	1.099919E+0	1.181591E+0	1.138460E+0	1.153774E+0	1.140556E+0	1.152336E+0	1.131922E+0	1.123558E+0	1.099427E+0	1.116971E+0	1.113424E+0	1.150924E+0	1.092397E+0	1.123548E+0	1.170867E+0	1.156326E+0	1.192295E+0	1.108321E+0	1.267536E+0	1.155471E+0	1.161791E+0	1.152210E+0	1.134529E+0	1.139762E+0	1.221002E+0	1.120791E+0	1.174880E+0	1.152936E+0	1.170302E+0	1.145112E+0	1.185676E+0	1.187733E+0	1.137287E+0	1.231778E+0	1.118373E+0	1.168684E+0	1.181510E+0	1.187699E+0	1.159377E+0	1.131812E+0	1.180784E+0	1.120389E+0	1.163174E+0	1.133353E+0	1.103563E+0	1.170865E+0	1.112614E+0	1.133813E+0	1.205363E+0	1.174239E+0	1.137531E+0	1.190770E+0	1.142380E+0	1.149600E+0	1.104359E+0	1.208595E+0	1.157866E+0	1.188813E+0	1.132211E+0	1.168395E+0	1.197831E+0	1.113959E+0	1.111418E+0	1.124924E+0	1.200317E+0	1.145287E+0	1.152090E+0	1.141089E+0	1.196134E+0	1.106377E+0	1.148975E+0	1.191310E+0	1.130431E+0	1.117908E+0	1.110369E+0	1.150228E+0	1.153805E+0	1.168347E+0	1.176505E+0	1.179520E+0	1.124787E+0	1.095775E+0	1.175825E+0	1.172948E+0	1.118428E+0	1.180303E+0	1.135699E+0	1.142077E+0	1.235593E+0	1.176460E+0	1.126568E+0	1.166687E+0	1.161923E+0	1.139813E+0	1.250834E+0	1.154582E+0	1.178569E+0	1.175215E+0	1.253791E+0	1.160924E+0	1.172876E+0	1.103685E+0	1.176380E+0	1.148357E+0	1.151797E+0	1.218738E+0	1.063906E+0	1.123710E+0	1.135355E+0	1.196936E+0	1.192560E+0	1.197529E+0	1.115648E+0	1.134604E+0	1.187459E+0
2.848990E+2	1.584965E+0	1.488214E+0	1.543359E+0	1.484909E+0	1.470786E+0	1.492989E+0	1.594175E+0	1.585220E+0	1.584487E+0	1.614028E+0	1.595819E+0	1.552923E+0	1.542138E+0	1.594863E+0	1.565167E+0	1.498666E+0	1.545279E+0	1.528507E+0	1.497074E+0	1.596125E+0	1.529639E+0	1.530589E+0	1.564195E+0	1.538642E+0	1.558935E+0	1.570886E+0	1.511304E+0	1.508418E+0	1.520253E+0	1.532584E+0	1.498048E+0	1.481487E+0	1.512903E+0	1.522986E+0	1.514375E+0	1.524496E+0	1.471243E+0	1.525011E+0	1.513135E+0	1.544487E+0	1.503733E+0	1.544055E+0	1.605430E+0	1.521969E+0	1.476627E+0	1.530762E+0	1.512616E+0	1.542668E+0	1.522888E+0	1.557942E+0	1.518491E+0	1.543247E+0	1.552687E+0	1.523598E+0	1.560442E+0	1.547338E+0	1.475068E+0	1.547823E+0	1.571215E+0	1.572815E+0	1.576099E+0	1.526925E+0	1.529455E+0	1.480112E+0	1.501404E+0	1.638129E+0	1.586037E+0	1.551671E+0	1.539404E+0	1.517515E+0	1.531703E+0	1.537978E+0	1.541156E+0	1.477801E+0	1.545659E+0	1.706364E+0	1.610482E+0	1.600430E+0	1.559854E+0	1.524182E+0	1.651279E+0	1.636994E+0	1.484484E+0	1.561241E+0	1.485381E+0	1.523250E+0	1.509201E+0	1.521967E+0	1.591622E+0	1.526219E+0	1.582000E+0	1.560632E+0	1.557468E+0	1.599994E+0	1.494393E+0	1.512263E+0	1.516770E+0	1.600882E+0	1.539664E+0	1.615025E+0	1.565492E+0	1.483377E+0	1.457331E+0	1.505325E+0	1.493198E+0	1.629265E+0	1.568510E+0	1.559845E+0	1.620313E+0	1.543975E+0	1.572160E+0	1.563835E+0	1.573528E+0	1.601726E+0	1.584715E+0	1.587811E+0	1.546317E+0	1.629848E+0	1.544763E+0	1.556907E+0	1.456969E+0	1.557974E+0	1.478224E+0	1.588843E+0	1.533051E+0	1.629319E+0	1.489031E+0	1.491296E+0	1.551929E+0	1.581645E+0	1.474432E+0	1.578571E+0	1.515451E+0	1.550152E+0	1.523409E+0	1.603563E+0	1.564823E+0	1.501374E+0	1.531423E+0	1.457187E+0	1.498718E+0	1.518771E+0	1.522650E+0	1.469716E+0	1.630564E+0	1.599326E+0	1.528175E+0	1.549927E+0	1.503285E+0	1.553767E+0	1.613587E+0	1.561537E+0	1.464962E+0	1.555353E+0	1.434280E+0	1.559470E+0	1.561848E+0	1.558019E+0	1.541713E+0	1.533192E+0	1.654632E+0	1.543613E+0	1.547835E+0	1.559834E+0	1.562433E+0	1.560925E+0	1.576984E+0	1.568642E+0	1.525727E+0	1.550020E+0	1.567569E+0	1.511465E+0
2.850010E+2	1.582863E+0	1.577888E+0	1.570046E+0	1.539808E+0	1.526258E+0	1.535447E+0	1.618252E+0	1.639706E+0	1.607058E+0	1.574499E+0	1.595667E+0	1.631087E+0	1.615841E+0	1.554690E+0	1.627567E+0	1.540728E+0	1.574182E+0	1.609222E+0	1.509585E+0	1.584075E+0	1.546088E+0	1.610664E+0	1.584608E+0	1.590257E+0	1.545407E+0	1.535543E+0	1.536338E+0	1.554252E+0	1.589747E+0	1.638189E+0	1.512614E+0	1.621908E+0	1.676445E+0	1.617030E+0	1.644038E+0	1.559146E+0	1.529775E+0	1.527413E+0	1.573387E+0	1.608586E+0	1.602490E+0	1.603476E+0	1.607237E+0	1.583874E+0	1.660126E+0	1.598604E+0	1.559648E+0	1.605696E+0	1.517439E+0	1.577173E+0	1.589552E+0	1.525969E+0	1.596547E+0	1.587622E+0	1.616509E+0	1.621999E+0	1.546029E+0	1.578028E+0	1.529361E+0	1.551822E+0	1.591408E+0	1.548611E+0	1.597530E+0	1.528161E+0	1.611061E+0	1.573559E+0	1.616931E+0	1.535137E+0	1.543888E+0	1.547817E+0	1.594212E+0	1.594760E+0	1.593589E+0	1.490686E+0	1.554243E+0	1.653729E+0	1.597779E+0	1.581891E+0	1.574300E+0	1.579007E+0	1.639324E+0	1.597104E+0	1.467617E+0	1.533674E+0	1.561009E+0	1.551932E+0	1.576379E+0	1.578738E+0	1.563831E+0	1.575052E+0	1.578987E+0	1.621375E+0	1.507692E+0	1.634248E+0	1.545599E+0	1.595064E+0	1.540866E+0	1.579020E+0	1.589423E+0	1.603152E+0	1.512747E+0	1.562404E+0	1.584031E+0	1.598043E+0	1.588353E+0	1.566993E+0	1.554907E+0	1.561057E+0	1.601409E+0	1.587231E+0	1.499139E+0	1.482913E+0	1.572016E+0	1.534601E+0	1.571959E+0	1.589280E+0	1.594061E+0	1.576026E+0	1.540602E+0	1.665152E+0	1.545333E+0	1.604779E+0	1.592495E+0	1.559160E+0	1.588014E+0	1.611667E+0	1.555932E+0	1.516544E+0	1.599594E+0	1.620445E+0	1.552686E+0	1.546871E+0	1.534107E+0	1.634396E+0	1.566982E+0	1.554115E+0	1.540235E+0	1.576810E+0	1.637042E+0	1.546961E+0	1.589403E+0	1.620237E+0	1.538065E+0	1.568873E+0	1.658890E+0	1.568425E+0	1.553957E+0	1.598746E+0	1.531817E+0	1.524431E+0	1.589440E+0	1.648549E+0	1.535997E+0	1.511470E+0	1.581993E+0	1.582371E+0	1.516841E+0	1.577475E+0	1.607944E+0	1.527662E+0	1.538745E+0	1.562308E+0	1.588374E+0	1.488493E+0	1.537907E+0	1.584252E+0	1.557815E+0	1.602509E+0	1.491045E+0	1.555994E+0	1.633160E+0	1.559413E+0
2.851060E+2	1.447431E+0	1.418793E+0	1.404381E+0	1.427684E+0	1.363274E+0	1.349012E+0	1.380931E+0	1.426378E+0	1.426865E+0	1.411226E+0	1.371105E+0	1.454384E+0	1.476600E+0	1.427773E+0	1.413512E+0	1.465967E+0	1.419369E+0	1.426138E+0	1.421633E+0	1.486499E+0	1.368608E+0	1.376583E+0	1.425918E+0	1.441301E+0	1.412340E+0	1.449025E+0	1.436248E+0	1.396537E+0	1.442819E+0	1.512877E+0	1.459654E+0	1.473046E+0	1.405895E+0	1.518235E+0	1.379083E+0	1.399054E+0	1.412600E+0	1.431725E+0	1.406038E+0	1.445147E+0	1.446475E+0	1.451505E+0	1.463118E+0	1.474334E+0	1.427111E+0	1.422991E+0	1.428621E+0	1.369344E+0	1.385772E+0	1.431329E+0	1.418151E+0	1.409351E+0	1.428301E+0	1.424127E+0	1.410058E+0	1.452955E+0	1.365018E+0	1.444171E+0	1.468193E+0	1.488601E+0	1.430553E+0	1.431465E+0	1.394732E+0	1.445729E+0	1.413586E+0	1.467193E+0	1.403262E+0	1.352838E+0	1.445274E+0	1.358445E+0	1.395578E+0	1.371415E+0	1.468125E+0	1.393344E+0	1.380575E+0	1.521932E+0	1.461671E+0	1.403483E+0	1.418440E+0	1.437043E+0	1.478673E+0	1.448257E+0	1.411040E+0	1.466091E+0	1.472890E+0	1.473631E+0	1.389661E+0	1.440592E+0	1.419668E+0	1.423985E+0	1.445424E+0	1.325740E+0	1.444760E+0	1.526045E+0	1.427801E+0	1.486935E+0	1.395055E+0	1.429517E+0	1.440147E+0	1.419939E+0	1.449114E+0	1.436664E+0	1.443323E+0	1.489690E+0	1.392955E+0	1.459423E+0	1.425854E+0	1.463188E+0	1.404041E+0	1.438146E+0	1.419799E+0	1.405521E+0	1.413224E+0	1.447531E+0	1.474362E+0	1.461041E+0	1.445290E+0	1.463843E+0	1.439336E+0	1.373933E+0	1.374869E+0	1.445239E+0	1.431682E+0	1.401765E+0	1.401765E+0	1.418752E+0	1.403812E+0	1.460607E+0	1.437421E+0	1.433712E+0	1.426885E+0	1.396586E+0	1.407367E+0	1.392482E+0	1.399721E+0	1.471371E+0	1.461195E+0	1.382576E+0	1.354626E+0	1.404672E+0	1.454363E+0	1.399170E+0	1.468403E+0	1.425832E+0	1.455334E+0	1.433931E+0	1.353039E+0	1.459690E+0	1.376894E+0	1.386460E+0	1.429090E+0	1.432590E+0	1.436617E+0	1.470812E+0	1.376014E+0	1.469954E+0	1.442024E+0	1.550503E+0	1.432519E+0	1.495841E+0	1.412316E+0	1.484114E+0	1.473103E+0	1.341189E+0	1.420792E+0	1.447392E+0	1.449621E+0	1.384328E+0	1.402943E+0	1.468602E+0	1.473591E+0	1.537189E+0
2.851990E+2	1.180933E+0	1.226017E+0	1.184368E+0	1.230714E+0	1.182494E+0	1.174424E+0	1.170895E+0	1.175680E+0	1.192620E+0	1.241817E+0	1.174985E+0	1.210328E+0	1.190203E+0	1.198801E+0	1.261333E+0	1.207318E+0	1.196270E+0	1.162102E+0	1.135773E+0	1.140828E+0	1.104871E+0	1.132150E+0	1.196134E+0	1.198175E+0	1.162205E+0	1.234784E+0	1.168704E+0	1.241911E+0	1.176155E+0	1.195132E+0	1.234858E+0	1.160132E+0	1.179507E+0	1.244941E+0	1.172963E+0	1.167022E+0	1.169272E+0	1.152152E+0	1.151757E+0	1.161106E+0	1.162309E+0	1.203058E+0	1.203600E+0	1.155130E+0	1.119295E+0	1.284417E+0	1.237750E+0	1.137059E+0	1.229996E+0	1.150093E+0	1.197642E+0	1.140738E+0	1.178226E+0	1.176877E+0	1.257525E+0	1.255577E+0	1.101314E+0	1.122098E+0	1.179097E+0	1.188269E+0	1.204950E+0	1.158402E+0	1.171633E+0	1.190259E+0	1.202473E+0	1.171635E+0	1.160361E+0	1.215385E+0	1.217585E+0	1.168143E+0	1.138154E+0	1.211021E+0	1.197168E+0	1.183004E+0	1.167000E+0	1.253061E+0	1.163981E+0	1.232413E+0	1.212005E+0	1.222782E+0	1.298990E+0	1.129001E+0	1.154003E+0	1.190672E+0	1.215144E+0	1.232150E+0	1.186152E+0	1.174960E+0	1.226765E+0	1.201131E+0	1.220628E+0	1.131256E+0	1.203121E+0	1.200089E+0	1.185765E+0	1.128092E+0	1.236519E+0	1.151751E+0	1.206232E+0	1.220519E+0	1.252840E+0	1.152186E+0	1.129949E+0	1.218682E+0	1.162188E+0	1.209204E+0	1.167986E+0	1.229147E+0	1.216655E+0	1.224383E+0	1.140216E+0	1.153152E+0	1.220551E+0	1.200726E+0	1.182187E+0	1.198704E+0	1.197956E+0	1.216178E+0	1.252665E+0	1.174341E+0	1.189824E+0	1.208137E+0	1.247683E+0	1.212858E+0	1.201983E+0	1.180085E+0	1.184063E+0	1.147491E+0	1.156214E+0	1.217355E+0	1.181192E+0	1.188729E+0	1.254865E+0	1.201084E+0	1.186984E+0	1.220243E+0	1.195076E+0	1.214139E+0	1.176367E+0	1.176326E+0	1.189211E+0	1.219967E+0	1.197385E+0	1.168990E+0	1.225023E+0	1.258487E+0	1.163541E+0	1.186782E+0	1.185238E+0	1.175287E+0	1.164149E+0	1.243303E+0	1.124465E+0	1.154530E+0	1.170021E+0	1.232924E+0	1.220209E+0	1.187343E+0	1.210815E+0	1.190512E+0	1.232134E+0	1.223006E+0	1.224537E+0	1.136321E+0	1.185498E+0	1.227954E+0	1.226680E+0	1.202984E+0	1.212532E+0	1.204903E+0	1.162110E+0	1.174605E+0
2.853000E+2	1.031220E+0	1.047578E+0	9.187022E-1	9.911390E-1	9.414612E-1	9.395100E-1	9.722089E-1	1.018392E+0	1.003399E+0	9.757715E-1	9.876256E-1	1.017484E+0	9.353069E-1	9.630206E-1	1.018744E+0	1.024310E+0	1.005052E+0	9.544091E-1	9.885324E-1	1.014970E+0	9.883883E-1	1.011940E+0	9.636044E-1	1.024509E+0	9.738380E-1	9.976707E-1	9.757716E-1	1.056271E+0	1.030383E+0	9.954054E-1	1.007115E+0	9.806921E-1	1.026015E+0	1.014951E+0	9.998832E-1	9.571668E-1	9.237828E-1	1.025009E+0	9.946330E-1	9.759396E-1	9.310994E-1	9.967122E-1	9.732449E-1	9.738560E-1	9.932992E-1	1.044757E+0	1.021566E+0	1.001975E+0	1.003310E+0	1.004432E+0	1.003227E+0	9.949542E-1	9.688165E-1	9.380436E-1	1.024871E+0	1.025627E+0	9.465660E-1	9.427230E-1	9.970918E-1	1.006240E+0	1.030847E+0	1.012222E+0	9.785037E-1	9.566005E-1	1.037654E+0	1.012414E+0	9.858571E-1	1.003029E+0	9.799150E-1	9.796833E-1	9.607448E-1	9.884039E-1	9.746067E-1	9.552693E-1	9.160274E-1	1.077597E+0	9.652001E-1	1.018086E+0	9.922076E-1	9.904911E-1	1.007601E+0	1.051717E+0	9.895799E-1	9.700242E-1	9.829920E-1	9.997240E-1	1.031722E+0	1.039180E+0	1.008308E+0	1.013383E+0	9.888657E-1	9.728533E-1	9.964468E-1	1.006179E+0	1.012282E+0	1.019825E+0	9.540893E-1	9.556690E-1	9.915897E-1	9.736055E-1	9.815024E-1	9.812935E-1	9.572945E-1	1.022606E+0	9.850748E-1	9.979238E-1	9.348816E-1	1.046184E+0	1.002835E+0	9.975941E-1	9.544668E-1	1.006416E+0	1.035951E+0	9.111990E-1	1.019011E+0	1.022238E+0	9.779179E-1	1.043788E+0	9.970149E-1	1.014617E+0	1.003626E+0	9.999469E-1	9.851751E-1	9.716233E-1	1.002481E+0	1.010237E+0	9.480683E-1	1.001617E+0	9.152121E-1	9.843933E-1	1.045276E+0	1.055705E+0	1.022737E+0	1.033533E+0	9.712475E-1	1.020176E+0	9.571203E-1	1.014994E+0	1.000795E+0	1.004550E+0	9.795166E-1	1.012384E+0	1.028869E+0	9.912052E-1	1.060281E+0	1.009416E+0	9.655862E-1	9.947315E-1	9.466103E-1	9.360942E-1	1.033002E+0	1.012392E+0	1.027116E+0	9.794627E-1	9.886840E-1	1.031263E+0	9.585795E-1	9.791735E-1	1.003991E+0	9.884009E-1	1.025362E+0	1.025894E+0	1.015438E+0	9.345514E-1	9.423382E-1	9.974244E-1	1.009346E+0	1.005865E+0	1.014204E+0	1.015335E+0	9.822338E-1	9.997597E-1
2.854020E+2	7.754582E-1	7.862291E-1	7.852973E-1	7.520924E-1	8.068684E-1	7.803263E-1	7.519474E-1	7.945325E-1	7.760956E-1	7.901748E-1	7.432820E-1	7.524533E-1	7.539275E-1	7.568213E-1	7.429661E-1	7.725105E-1	7.960712E-1	7.678742E-1	8.199290E-1	8.327102E-1	7.759975E-1	7.671053E-1	7.489616E-1	7.940092E-1	7.399332E-1	7.640694E-1	7.759716E-1	7.466766E-1	7.372703E-1	8.290710E-1	7.241959E-1	7.686128E-1	7.980858E-1	7.655690E-1	7.916270E-1	7.726160E-1	7.236373E-1	7.533382E-1	7.606870E-1	8.115704E-1	7.758483E-1	7.684101E-1	7.728087E-1	7.324450E-1	7.736797E-1	7.663914E-1	7.704688E-1	7.581582E-1	7.373030E-1	8.307865E-1	7.970865E-1	7.638888E-1	7.621990E-1	7.269610E-1	7.617900E-1	7.347907E-1	7.713197E-1	7.992219E-1	7.528044E-1	8.237228E-1	7.383254E-1	7.731001E-1	7.247093E-1	7.740849E-1	7.610037E-1	7.803850E-1	7.755572E-1	7.031942E-1	7.735933E-1	7.862502E-1	8.100832E-1	8.206508E-1	7.448558E-1	7.658532E-1	7.894832E-1	8.845859E-1	7.736375E-1	8.070114E-1	7.934420E-1	7.856213E-1	8.461497E-1	8.013532E-1	7.792381E-1	7.607875E-1	7.987206E-1	8.240038E-1	7.552813E-1	7.538865E-1	7.873079E-1	7.986982E-1	7.890152E-1	7.868880E-1	8.024100E-1	7.423543E-1	7.480369E-1	7.725073E-1	6.983877E-1	7.966013E-1	8.091212E-1	7.641129E-1	7.715456E-1	7.739005E-1	7.996755E-1	8.151791E-1	8.187412E-1	7.541620E-1	8.070760E-1	7.813638E-1	7.791198E-1	7.933900E-1	8.005540E-1	7.634562E-1	8.073636E-1	7.464297E-1	7.788427E-1	8.457595E-1	7.773382E-1	7.946949E-1	7.650158E-1	7.825042E-1	7.844971E-1	7.462526E-1	7.653904E-1	7.863410E-1	8.020411E-1	7.398998E-1	7.663085E-1	7.813736E-1	8.272370E-1	7.751300E-1	7.558059E-1	7.505783E-1	7.520634E-1	7.811771E-1	8.059546E-1	8.435767E-1	7.726537E-1	7.842243E-1	7.763997E-1	8.075988E-1	7.709074E-1	8.002287E-1	7.771202E-1	8.086863E-1	8.061293E-1	8.222823E-1	7.660237E-1	7.512890E-1	7.806173E-1	7.466877E-1	7.983038E-1	8.274230E-1	7.640352E-1	7.550699E-1	7.365400E-1	8.142554E-1	7.736101E-1	8.141173E-1	7.976632E-1	7.724821E-1	7.824695E-1	8.500201E-1	7.485445E-1	7.891837E-1	7.720950E-1	7.517528E-1	8.169854E-1	7.729927E-1	8.430757E-1	7.247731E-1	8.113547E-1	8.715595E-1
2.855000E+2	6.035950E-1	5.980630E-1	5.949583E-1	6.066967E-1	5.542095E-1	5.760561E-1	5.828057E-1	5.904251E-1	6.510088E-1	6.230165E-1	5.816542E-1	6.485939E-1	5.870331E-1	6.072735E-1	5.546372E-1	5.383220E-1	6.140874E-1	5.731091E-1	5.649821E-1	6.063818E-1	5.717805E-1	5.288596E-1	5.810938E-1	5.695629E-1	5.722077E-1	5.641057E-1	5.622600E-1	5.876320E-1	6.230949E-1	6.038507E-1	5.929903E-1	5.635956E-1	6.526842E-1	6.208076E-1	5.568738E-1	6.096458E-1	6.096617E-1	6.025056E-1	5.745786E-1	5.963838E-1	5.780338E-1	5.914827E-1	6.310510E-1	5.548350E-1	6.064646E-1	6.061702E-1	5.982307E-1	5.932467E-1	5.604768E-1	6.161406E-1	5.602860E-1	6.106291E-1	6.158964E-1	5.615612E-1	6.089510E-1	5.725966E-1	5.869466E-1	5.584561E-1	6.162786E-1	6.254140E-1	5.933406E-1	5.641962E-1	5.849329E-1	6.146328E-1	5.963980E-1	5.597889E-1	5.997016E-1	5.573234E-1	6.081910E-1	5.469250E-1	5.965131E-1	5.682622E-1	6.180930E-1	5.592061E-1	5.660729E-1	6.042779E-1	5.962479E-1	5.796400E-1	5.643346E-1	5.601077E-1	6.084050E-1	6.078992E-1	5.847168E-1	5.733599E-1	5.683479E-1	5.834273E-1	5.955315E-1	6.131114E-1	5.988520E-1	6.081880E-1	6.015863E-1	6.035238E-1	5.883379E-1	6.093332E-1	5.726977E-1	6.404674E-1	6.142055E-1	5.914516E-1	5.872906E-1	5.908992E-1	6.164229E-1	5.233607E-1	5.495488E-1	6.413575E-1	5.830015E-1	6.418263E-1	6.379791E-1	5.671693E-1	5.805658E-1	5.876215E-1	5.532501E-1	6.432318E-1	6.180016E-1	5.622654E-1	6.027995E-1	6.060084E-1	6.095816E-1	5.918191E-1	6.351674E-1	5.916654E-1	6.011545E-1	5.751880E-1	6.017888E-1	5.999696E-1	6.366060E-1	5.842591E-1	5.912311E-1	5.741502E-1	5.501752E-1	5.680022E-1	5.477419E-1	5.722192E-1	5.887865E-1	5.804099E-1	6.133327E-1	5.847072E-1	5.936385E-1	5.190809E-1	5.808311E-1	5.603090E-1	6.306914E-1	6.033342E-1	6.006151E-1	5.535772E-1	6.113840E-1	6.441258E-1	6.673298E-1	5.780813E-1	6.237015E-1	5.736808E-1	5.855054E-1	6.516182E-1	5.764212E-1	6.082887E-1	6.217015E-1	6.095862E-1	5.842844E-1	5.846287E-1	5.815323E-1	5.541213E-1	5.835746E-1	5.810794E-1	5.734959E-1	6.050710E-1	6.096751E-1	6.238427E-1	6.019412E-1	5.846190E-1	5.670890E-1	5.942654E-1	6.271933E-1	6.094719E-1
2.856010E+2	4.000347E-1	4.101892E-1	3.966437E-1	3.895009E-1	4.214619E-1	4.312978E-1	4.061654E-1	3.982982E-1	4.064449E-1	4.386504E-1	3.960218E-1	4.025849E-1	4.297288E-1	4.355495E-1	4.157235E-1	4.691300E-1	4.447530E-1	3.825231E-1	4.242094E-1	3.604837E-1	3.799863E-1	4.234758E-1	4.336638E-1	3.836889E-1	3.993033E-1	4.204873E-1	4.163838E-1	3.760319E-1	4.067241E-1	4.307256E-1	3.708231E-1	3.951733E-1	4.418746E-1	4.142594E-1	4.122449E-1	4.593637E-1	4.197048E-1	4.363798E-1	3.890431E-1	3.970314E-1	4.464831E-1	3.952408E-1	4.274152E-1	3.949903E-1	4.076447E-1	4.239615E-1	4.122388E-1	3.863274E-1	4.190011E-1	4.743852E-1	4.546503E-1	4.135654E-1	4.197682E-1	4.329303E-1	4.197762E-1	4.363264E-1	4.001729E-1	4.157416E-1	3.894361E-1	4.155045E-1	3.988078E-1	4.119611E-1	4.216180E-1	4.359014E-1	4.241316E-1	4.455517E-1	4.116992E-1	3.988687E-1	4.480726E-1	3.796584E-1	4.125351E-1	4.140872E-1	4.598913E-1	4.606406E-1	4.067486E-1	3.832522E-1	4.032199E-1	4.011476E-1	4.342549E-1	4.016829E-1	4.143461E-1	4.048020E-1	4.094218E-1	4.073430E-1	4.377939E-1	4.183300E-1	4.418048E-1	3.900925E-1	4.224353E-1	4.168951E-1	4.288195E-1	4.348740E-1	4.414650E-1	4.146259E-1	3.830625E-1	4.057189E-1	4.085867E-1	4.505853E-1	3.911566E-1	4.912886E-1	4.289044E-1	4.132054E-1	4.249825E-1	4.333254E-1	4.463842E-1	4.643689E-1	4.506261E-1	4.339410E-1	4.145233E-1	4.127479E-1	4.016117E-1	4.344223E-1	4.357639E-1	3.987724E-1	4.299680E-1	4.337978E-1	4.283385E-1	3.999692E-1	4.123124E-1	4.430720E-1	3.947284E-1	4.189085E-1	4.520702E-1	4.269935E-1	4.298411E-1	4.135044E-1	3.760334E-1	4.296055E-1	4.444569E-1	4.297828E-1	4.073334E-1	4.491377E-1	4.050097E-1	3.910798E-1	4.058789E-1	4.158117E-1	4.474262E-1	4.325930E-1	4.175082E-1	3.950495E-1	4.196941E-1	4.098633E-1	3.839580E-1	4.272077E-1	4.167290E-1	4.419369E-1	3.900354E-1	4.354192E-1	4.153567E-1	4.435063E-1	4.129357E-1	4.308635E-1	4.441820E-1	4.214805E-1	4.339075E-1	4.251417E-1	4.458248E-1	4.101544E-1	4.340745E-1	4.210477E-1	4.408532E-1	4.205936E-1	4.285438E-1	4.721316E-1	4.328176E-1	4.611531E-1	4.370907E-1	4.417333E-1	4.201062E-1	4.243069E-1	4.622155E-1	4.137809E-1
2.858030E+2	4.114523E-1	3.997678E-1	3.962167E-1	3.743739E-1	3.773869E-1	3.883176E-1	3.862229E-1	4.376907E-1	4.030069E-1	3.847851E-1	4.054302E-1	3.771285E-1	4.189340E-1	4.002818E-1	4.191018E-1	3.941739E-1	3.738229E-1	3.982875E-1	4.058408E-1	4.013905E-1	3.554129E-1	3.877905E-1	4.223433E-1	3.828495E-1	3.727950E-1	3.729124E-1	4.171119E-1	3.459404E-1	3.837457E-1	4.096154E-1	3.430293E-1	4.053101E-1	3.912170E-1	4.126582E-1	3.746504E-1	3.620666E-1	3.838445E-1	3.808298E-1	3.481252E-1	4.039775E-1	3.848265E-1	4.141380E-1	3.637337E-1	3.756132E-1	3.913741E-1	4.228779E-1	4.303612E-1	4.145985E-1	4.209559E-1	4.094228E-1	3.911246E-1	3.719764E-1	3.751268E-1	3.754634E-1	4.072126E-1	3.902633E-1	3.868745E-1	3.953030E-1	4.099123E-1	4.014479E-1	3.848753E-1	3.451878E-1	3.896697E-1	3.947516E-1	3.964098E-1	4.220861E-1	3.794008E-1	3.798954E-1	4.192076E-1	4.422582E-1	4.086798E-1	3.901787E-1	3.542140E-1	3.853478E-1	3.686552E-1	3.943601E-1	3.964836E-1	4.088730E-1	4.040390E-1	3.833956E-1	4.478611E-1	3.734376E-1	3.581716E-1	3.650709E-1	3.687803E-1	3.748149E-1	3.816107E-1	3.844400E-1	4.356340E-1	4.413599E-1	3.957399E-1	4.157177E-1	4.275735E-1	4.000108E-1	4.248915E-1	4.005353E-1	3.813145E-1	4.131315E-1	4.245770E-1	3.849432E-1	3.473936E-1	3.748729E-1	4.270835E-1	4.413264E-1	4.131572E-1	3.733516E-1	4.177512E-1	4.029425E-1	3.999962E-1	3.980719E-1	4.049133E-1	3.559350E-1	3.769803E-1	3.811128E-1	3.708840E-1	4.262777E-1	4.259760E-1	4.074235E-1	3.677471E-1	4.083052E-1	4.051820E-1	4.117229E-1	4.364292E-1	3.849289E-1	3.886654E-1	4.089209E-1	4.110646E-1	4.303895E-1	3.921324E-1	4.368017E-1	4.078441E-1	4.233308E-1	3.638133E-1	3.857440E-1	4.034668E-1	3.997309E-1	4.253002E-1	4.066549E-1	3.998917E-1	3.954927E-1	4.128513E-1	4.111017E-1	3.790875E-1	4.023351E-1	4.270762E-1	4.050032E-1	3.636989E-1	4.065569E-1	3.794026E-1	3.975316E-1	3.992518E-1	4.254951E-1	4.252585E-1	3.957092E-1	3.768053E-1	4.056861E-1	4.234155E-1	3.930480E-1	4.193813E-1	3.657637E-1	4.062341E-1	4.289231E-1	4.020282E-1	3.698064E-1	3.734243E-1	3.943880E-1	4.294709E-1	3.932911E-1	4.004513E-1	4.208843E-1	3.573297E-1	4.021541E-1
2.860070E+2	8.445128E-1	8.358140E-1	8.572913E-1	8.124711E-1	8.531444E-1	8.667252E-1	8.230715E-1	8.187298E-1	8.331789E-1	8.068243E-1	8.243415E-1	8.273725E-1	8.610494E-1	8.244132E-1	8.700051E-1	7.904246E-1	8.463303E-1	8.438655E-1	7.832812E-1	8.626128E-1	8.056415E-1	8.728581E-1	8.375426E-1	8.387956E-1	8.613496E-1	8.305587E-1	8.173427E-1	8.284998E-1	8.157056E-1	8.039706E-1	8.692691E-1	8.084107E-1	8.616300E-1	8.645887E-1	8.366548E-1	8.442406E-1	8.235086E-1	8.244667E-1	7.991318E-1	8.207285E-1	8.370540E-1	8.535531E-1	8.183522E-1	8.398526E-1	8.348166E-1	8.427853E-1	8.493085E-1	8.369337E-1	8.426504E-1	8.889694E-1	8.353747E-1	8.585493E-1	8.221010E-1	8.002733E-1	8.357919E-1	8.337998E-1	8.274647E-1	8.259852E-1	8.840267E-1	8.385358E-1	8.961450E-1	8.639779E-1	8.335398E-1	8.685182E-1	9.182385E-1	8.521616E-1	8.438029E-1	8.190650E-1	9.307253E-1	8.293988E-1	8.312687E-1	8.095801E-1	8.855241E-1	8.304598E-1	8.216555E-1	9.080354E-1	8.377192E-1	9.214337E-1	9.002970E-1	8.284253E-1	8.594553E-1	8.582908E-1	8.118741E-1	7.600415E-1	8.530665E-1	8.475124E-1	8.178498E-1	8.261399E-1	8.365247E-1	8.387552E-1	8.269378E-1	8.332804E-1	8.468809E-1	9.110805E-1	8.388632E-1	8.172095E-1	8.927544E-1	8.274228E-1	8.760752E-1	8.094559E-1	8.869949E-1	8.393794E-1	8.894311E-1	8.701745E-1	8.763618E-1	8.272322E-1	8.704669E-1	8.787964E-1	8.875056E-1	8.233621E-1	8.980955E-1	8.101227E-1	8.806184E-1	8.928522E-1	8.120257E-1	8.692451E-1	8.945611E-1	8.752382E-1	8.358359E-1	8.660567E-1	8.839409E-1	8.678029E-1	8.248901E-1	8.583025E-1	8.487242E-1	7.869044E-1	8.245614E-1	8.297463E-1	8.504567E-1	8.333197E-1	8.469886E-1	8.375050E-1	8.273137E-1	8.566133E-1	8.199970E-1	9.174540E-1	8.714083E-1	8.581254E-1	8.216603E-1	8.349376E-1	8.464174E-1	8.539567E-1	8.309811E-1	8.295389E-1	8.702334E-1	8.774224E-1	8.622292E-1	7.940179E-1	8.593444E-1	8.418098E-1	8.582104E-1	8.740213E-1	8.358685E-1	8.490393E-1	8.249817E-1	8.710730E-1	8.253441E-1	8.953826E-1	8.798149E-1	8.802246E-1	8.554385E-1	8.600924E-1	8.905678E-1	8.655202E-1	8.113257E-1	8.466662E-1	8.507653E-1	8.981604E-1	8.066176E-1	8.095844E-1	8.264285E-1	8.964868E-1
2.862030E+2	1.358208E+0	1.371702E+0	1.376460E+0	1.281366E+0	1.302843E+0	1.331344E+0	1.323786E+0	1.352287E+0	1.386813E+0	1.294627E+0	1.326067E+0	1.274199E+0	1.317365E+0	1.289195E+0	1.314927E+0	1.334485E+0	1.348422E+0	1.358326E+0	1.339492E+0	1.366885E+0	1.312587E+0	1.311275E+0	1.341185E+0	1.343465E+0	1.357220E+0	1.303882E+0	1.391289E+0	1.291083E+0	1.368224E+0	1.360812E+0	1.309383E+0	1.327285E+0	1.333325E+0	1.341830E+0	1.334347E+0	1.353525E+0	1.362948E+0	1.334575E+0	1.287017E+0	1.364180E+0	1.256679E+0	1.288744E+0	1.326564E+0	1.313111E+0	1.289115E+0	1.319082E+0	1.349331E+0	1.347241E+0	1.320217E+0	1.330142E+0	1.375423E+0	1.259549E+0	1.292705E+0	1.315651E+0	1.347533E+0	1.356047E+0	1.279857E+0	1.360814E+0	1.336966E+0	1.296077E+0	1.381049E+0	1.331220E+0	1.285062E+0	1.260145E+0	1.321117E+0	1.370402E+0	1.326317E+0	1.332731E+0	1.332689E+0	1.294707E+0	1.299020E+0	1.310213E+0	1.328804E+0	1.371538E+0	1.372415E+0	1.390003E+0	1.350165E+0	1.409137E+0	1.360972E+0	1.284239E+0	1.369230E+0	1.359350E+0	1.264958E+0	1.322576E+0	1.342182E+0	1.300855E+0	1.314776E+0	1.265844E+0	1.323401E+0	1.336136E+0	1.311557E+0	1.328032E+0	1.335994E+0	1.379842E+0	1.391959E+0	1.327366E+0	1.288028E+0	1.354143E+0	1.404452E+0	1.370961E+0	1.292188E+0	1.291832E+0	1.316997E+0	1.333864E+0	1.302687E+0	1.363785E+0	1.313175E+0	1.321129E+0	1.416722E+0	1.316675E+0	1.320583E+0	1.357286E+0	1.378086E+0	1.331918E+0	1.360922E+0	1.387782E+0	1.329414E+0	1.375490E+0	1.319078E+0	1.315865E+0	1.435921E+0	1.298159E+0	1.308878E+0	1.345721E+0	1.364814E+0	1.322469E+0	1.344953E+0	1.289783E+0	1.313531E+0	1.339278E+0	1.316224E+0	1.329191E+0	1.351956E+0	1.359035E+0	1.341819E+0	1.337052E+0	1.438208E+0	1.328360E+0	1.254360E+0	1.266130E+0	1.359496E+0	1.339516E+0	1.347633E+0	1.360305E+0	1.341964E+0	1.360316E+0	1.293244E+0	1.262776E+0	1.303976E+0	1.271786E+0	1.395230E+0	1.325556E+0	1.291341E+0	1.308605E+0	1.380164E+0	1.340096E+0	1.293049E+0	1.322711E+0	1.333841E+0	1.321959E+0	1.317196E+0	1.260761E+0	1.306749E+0	1.286593E+0	1.323919E+0	1.321783E+0	1.315254E+0	1.319356E+0	1.352476E+0	1.427130E+0	1.195305E+0	1.255933E+0
2.864220E+2	1.373142E+0	1.390390E+0	1.336055E+0	1.314102E+0	1.379658E+0	1.350479E+0	1.388883E+0	1.412362E+0	1.411293E+0	1.371435E+0	1.435832E+0	1.323576E+0	1.396707E+0	1.365953E+0	1.394459E+0	1.338750E+0	1.389378E+0	1.443963E+0	1.354783E+0	1.345762E+0	1.331008E+0	1.388455E+0	1.394938E+0	1.406246E+0	1.331157E+0	1.327868E+0	1.376332E+0	1.292999E+0	1.410675E+0	1.382974E+0	1.321788E+0	1.394537E+0	1.443944E+0	1.439853E+0	1.391682E+0	1.334975E+0	1.341596E+0	1.393210E+0	1.351382E+0	1.329846E+0	1.433336E+0	1.384776E+0	1.487570E+0	1.305392E+0	1.307430E+0	1.363624E+0	1.351733E+0	1.378610E+0	1.373130E+0	1.405285E+0	1.386515E+0	1.372114E+0	1.430481E+0	1.386941E+0	1.403247E+0	1.400093E+0	1.338810E+0	1.353664E+0	1.372404E+0	1.371782E+0	1.366317E+0	1.368297E+0	1.333401E+0	1.445604E+0	1.423685E+0	1.357380E+0	1.418625E+0	1.412902E+0	1.439645E+0	1.363188E+0	1.347575E+0	1.351872E+0	1.436819E+0	1.388456E+0	1.422506E+0	1.401681E+0	1.375868E+0	1.394863E+0	1.392119E+0	1.330849E+0	1.464363E+0	1.355300E+0	1.395309E+0	1.340861E+0	1.404764E+0	1.360861E+0	1.429966E+0	1.411122E+0	1.390217E+0	1.372440E+0	1.411846E+0	1.328091E+0	1.420781E+0	1.411877E+0	1.434492E+0	1.391973E+0	1.390660E+0	1.413481E+0	1.371073E+0	1.403616E+0	1.368904E+0	1.383885E+0	1.338128E+0	1.326625E+0	1.423107E+0	1.399716E+0	1.352159E+0	1.386693E+0	1.364782E+0	1.399091E+0	1.348666E+0	1.331617E+0	1.492039E+0	1.374901E+0	1.397688E+0	1.448918E+0	1.391799E+0	1.399152E+0	1.364198E+0	1.374948E+0	1.402614E+0	1.375104E+0	1.407307E+0	1.331057E+0	1.401266E+0	1.380255E+0	1.429247E+0	1.340576E+0	1.399862E+0	1.412653E+0	1.439357E+0	1.384711E+0	1.373527E+0	1.331922E+0	1.425306E+0	1.367045E+0	1.400944E+0	1.354373E+0	1.384700E+0	1.390960E+0	1.386191E+0	1.425175E+0	1.366367E+0	1.393016E+0	1.388663E+0	1.345425E+0	1.390170E+0	1.388782E+0	1.417537E+0	1.356665E+0	1.423266E+0	1.427342E+0	1.378910E+0	1.389681E+0	1.344145E+0	1.368021E+0	1.339824E+0	1.450349E+0	1.357548E+0	1.298089E+0	1.431950E+0	1.383106E+0	1.437538E+0	1.344263E+0	1.341756E+0	1.481013E+0	1.430799E+0	1.372706E+0	1.374809E+0	1.398708E+0	1.414221E+0	1.414792E+0
2.866160E+2	1.249256E+0	1.251528E+0	1.262634E+0	1.178111E+0	1.193133E+0	1.204776E+0	1.203638E+0	1.239987E+0	1.286727E+0	1.208959E+0	1.238807E+0	1.265671E+0	1.243407E+0	1.149199E+0	1.256376E+0	1.266837E+0	1.255319E+0	1.236868E+0	1.262820E+0	1.226212E+0	1.239772E+0	1.210746E+0	1.267327E+0	1.267887E+0	1.250086E+0	1.276696E+0	1.198215E+0	1.210860E+0	1.286031E+0	1.268456E+0	1.196853E+0	1.245988E+0	1.195747E+0	1.217955E+0	1.200546E+0	1.201654E+0	1.230398E+0	1.205881E+0	1.196144E+0	1.220842E+0	1.231806E+0	1.274775E+0	1.293395E+0	1.214391E+0	1.259360E+0	1.260898E+0	1.218115E+0	1.200327E+0	1.225738E+0	1.216829E+0	1.298298E+0	1.178580E+0	1.229309E+0	1.253055E+0	1.257832E+0	1.257717E+0	1.294445E+0	1.232268E+0	1.223507E+0	1.225631E+0	1.256579E+0	1.210956E+0	1.194751E+0	1.194473E+0	1.277458E+0	1.275730E+0	1.202329E+0	1.244738E+0	1.205726E+0	1.201436E+0	1.198157E+0	1.223029E+0	1.282575E+0	1.197232E+0	1.194883E+0	1.284063E+0	1.265981E+0	1.279019E+0	1.274744E+0	1.193960E+0	1.288214E+0	1.325676E+0	1.202691E+0	1.228081E+0	1.217923E+0	1.251841E+0	1.189219E+0	1.170061E+0	1.301777E+0	1.191298E+0	1.238734E+0	1.225285E+0	1.264920E+0	1.261105E+0	1.297042E+0	1.285908E+0	1.176629E+0	1.216997E+0	1.207040E+0	1.284543E+0	1.262564E+0	1.229675E+0	1.210614E+0	1.237673E+0	1.237950E+0	1.182343E+0	1.249226E+0	1.191358E+0	1.278462E+0	1.248469E+0	1.226142E+0	1.195508E+0	1.269822E+0	1.201073E+0	1.321352E+0	1.234552E+0	1.275884E+0	1.249494E+0	1.205781E+0	1.244531E+0	1.226613E+0	1.198730E+0	1.240885E+0	1.194139E+0	1.252733E+0	1.242467E+0	1.201384E+0	1.243942E+0	1.278821E+0	1.245960E+0	1.181358E+0	1.273405E+0	1.179508E+0	1.211184E+0	1.226864E+0	1.244482E+0	1.231649E+0	1.210356E+0	1.224525E+0	1.176048E+0	1.224565E+0	1.255314E+0	1.243646E+0	1.243701E+0	1.260585E+0	1.247839E+0	1.227313E+0	1.186700E+0	1.227946E+0	1.206251E+0	1.296687E+0	1.195087E+0	1.291492E+0	1.240118E+0	1.241670E+0	1.264997E+0	1.279136E+0	1.279431E+0	1.247037E+0	1.230271E+0	1.169195E+0	1.273482E+0	1.267481E+0	1.183159E+0	1.263920E+0	1.259030E+0	1.279873E+0	1.196875E+0	1.162988E+0	1.272032E+0	1.251264E+0	1.305380E+0
2.868020E+2	1.467248E+0	1.366953E+0	1.401429E+0	1.306081E+0	1.438612E+0	1.365534E+0	1.478388E+0	1.423102E+0	1.427117E+0	1.405434E+0	1.454311E+0	1.416006E+0	1.409986E+0	1.337977E+0	1.388751E+0	1.367157E+0	1.337214E+0	1.340645E+0	1.396255E+0	1.382483E+0	1.413428E+0	1.411410E+0	1.394420E+0	1.438753E+0	1.455192E+0	1.405108E+0	1.412043E+0	1.395727E+0	1.406027E+0	1.426053E+0	1.324258E+0	1.367170E+0	1.460700E+0	1.446404E+0	1.414250E+0	1.360326E+0	1.369397E+0	1.396949E+0	1.392778E+0	1.368259E+0	1.333945E+0	1.397003E+0	1.401923E+0	1.397120E+0	1.386595E+0	1.402431E+0	1.462404E+0	1.384833E+0	1.434520E+0	1.385175E+0	1.439156E+0	1.422987E+0	1.429617E+0	1.416092E+0	1.427112E+0	1.374617E+0	1.368192E+0	1.418044E+0	1.362952E+0	1.441373E+0	1.351645E+0	1.401509E+0	1.345219E+0	1.351898E+0	1.447567E+0	1.473062E+0	1.443642E+0	1.356961E+0	1.422304E+0	1.423092E+0	1.405192E+0	1.371168E+0	1.434517E+0	1.443855E+0	1.403692E+0	1.386368E+0	1.377768E+0	1.415708E+0	1.425978E+0	1.409981E+0	1.455622E+0	1.454662E+0	1.360883E+0	1.395993E+0	1.412841E+0	1.377047E+0	1.402093E+0	1.386627E+0	1.373800E+0	1.419905E+0	1.401292E+0	1.458294E+0	1.426738E+0	1.376202E+0	1.442362E+0	1.420862E+0	1.404545E+0	1.385175E+0	1.432358E+0	1.429851E+0	1.417901E+0	1.326382E+0	1.366138E+0	1.413152E+0	1.421196E+0	1.369479E+0	1.442989E+0	1.360501E+0	1.376572E+0	1.388037E+0	1.413816E+0	1.391644E+0	1.357011E+0	1.423429E+0	1.340800E+0	1.421532E+0	1.366648E+0	1.432518E+0	1.391089E+0	1.432704E+0	1.331625E+0	1.420288E+0	1.394033E+0	1.447235E+0	1.426230E+0	1.402379E+0	1.447693E+0	1.291869E+0	1.432362E+0	1.466181E+0	1.301723E+0	1.350629E+0	1.364457E+0	1.333369E+0	1.401122E+0	1.457127E+0	1.379746E+0	1.428586E+0	1.411551E+0	1.354045E+0	1.389108E+0	1.442456E+0	1.347724E+0	1.325336E+0	1.421275E+0	1.453673E+0	1.315450E+0	1.412169E+0	1.369817E+0	1.419014E+0	1.426422E+0	1.350428E+0	1.383880E+0	1.387826E+0	1.409957E+0	1.427810E+0	1.355590E+0	1.478783E+0	1.457823E+0	1.369694E+0	1.459247E+0	1.442476E+0	1.344776E+0	1.379953E+0	1.350118E+0	1.375069E+0	1.450129E+0	1.457394E+0	1.415411E+0	1.411197E+0	1.354039E+0	1.351384E+0
2.870060E+2	1.471481E+0	1.401793E+0	1.442142E+0	1.328700E+0	1.362825E+0	1.422729E+0	1.350870E+0	1.496584E+0	1.455758E+0	1.392882E+0	1.414411E+0	1.337749E+0	1.410467E+0	1.351554E+0	1.446873E+0	1.397500E+0	1.425733E+0	1.361241E+0	1.389289E+0	1.428850E+0	1.377914E+0	1.426792E+0	1.354382E+0	1.383190E+0	1.438285E+0	1.398835E+0	1.416660E+0	1.419235E+0	1.439066E+0	1.431454E+0	1.364985E+0	1.350316E+0	1.402351E+0	1.467894E+0	1.405689E+0	1.355983E+0	1.381262E+0	1.445431E+0	1.458768E+0	1.403221E+0	1.392391E+0	1.404987E+0	1.437422E+0	1.450790E+0	1.418153E+0	1.490071E+0	1.461166E+0	1.372010E+0	1.394840E+0	1.450637E+0	1.435163E+0	1.394516E+0	1.371792E+0	1.439383E+0	1.353925E+0	1.369820E+0	1.393395E+0	1.413479E+0	1.379541E+0	1.377271E+0	1.387380E+0	1.396663E+0	1.312615E+0	1.390219E+0	1.472035E+0	1.435945E+0	1.420667E+0	1.407656E+0	1.467553E+0	1.398420E+0	1.329848E+0	1.415989E+0	1.387344E+0	1.423834E+0	1.357243E+0	1.455321E+0	1.462411E+0	1.418831E+0	1.446998E+0	1.421214E+0	1.473124E+0	1.440839E+0	1.376960E+0	1.323208E+0	1.327718E+0	1.444135E+0	1.416044E+0	1.395644E+0	1.471662E+0	1.480779E+0	1.459160E+0	1.347451E+0	1.428840E+0	1.382631E+0	1.338797E+0	1.319128E+0	1.449096E+0	1.342430E+0	1.351935E+0	1.371949E+0	1.374469E+0	1.417114E+0	1.409013E+0	1.357867E+0	1.384787E+0	1.454520E+0	1.490069E+0	1.381715E+0	1.390945E+0	1.364634E+0	1.408916E+0	1.391819E+0	1.482200E+0	1.352430E+0	1.433122E+0	1.455565E+0	1.403373E+0	1.463000E+0	1.412455E+0	1.450835E+0	1.434745E+0	1.385253E+0	1.480084E+0	1.412069E+0	1.350858E+0	1.427127E+0	1.375303E+0	1.373666E+0	1.343505E+0	1.446276E+0	1.435316E+0	1.458565E+0	1.393674E+0	1.411898E+0	1.413415E+0	1.434091E+0	1.389905E+0	1.390430E+0	1.438216E+0	1.361792E+0	1.405840E+0	1.379748E+0	1.440986E+0	1.378179E+0	1.396871E+0	1.366342E+0	1.406582E+0	1.417317E+0	1.424949E+0	1.367660E+0	1.410333E+0	1.389294E+0	1.480549E+0	1.356655E+0	1.383872E+0	1.417369E+0	1.425708E+0	1.422365E+0	1.455746E+0	1.397522E+0	1.438759E+0	1.456154E+0	1.359550E+0	1.386838E+0	1.400582E+0	1.422820E+0	1.434224E+0	1.331940E+0	1.471259E+0	1.428629E+0	1.407696E+0	1.438929E+0
2.872190E+2	1.217577E+0	1.213876E+0	1.168937E+0	1.153787E+0	1.139519E+0	1.163626E+0	1.207293E+0	1.171150E+0	1.235608E+0	1.180472E+0	1.167784E+0	1.198605E+0	1.163581E+0	1.099414E+0	1.183541E+0	1.233265E+0	1.157461E+0	1.179411E+0	1.184601E+0	1.175500E+0	1.155614E+0	1.190635E+0	1.186713E+0	1.237182E+0	1.148261E+0	1.122986E+0	1.189952E+0	1.126807E+0	1.143788E+0	1.148361E+0	1.148172E+0	1.120393E+0	1.228257E+0	1.153915E+0	1.131317E+0	1.128809E+0	1.183645E+0	1.176224E+0	1.198813E+0	1.201616E+0	1.147096E+0	1.217368E+0	1.211143E+0	1.164416E+0	1.154321E+0	1.146753E+0	1.189949E+0	1.161399E+0	1.183554E+0	1.203461E+0	1.192478E+0	1.110951E+0	1.164517E+0	1.183068E+0	1.233363E+0	1.150349E+0	1.159033E+0	1.170266E+0	1.177906E+0	1.134760E+0	1.266828E+0	1.173214E+0	1.194251E+0	1.168211E+0	1.197089E+0	1.217558E+0	1.161540E+0	1.221214E+0	1.202290E+0	1.209393E+0	1.157610E+0	1.182128E+0	1.230971E+0	1.184865E+0	1.158686E+0	1.219476E+0	1.181643E+0	1.184062E+0	1.217176E+0	1.187421E+0	1.231619E+0	1.241813E+0	1.149538E+0	1.096171E+0	1.169660E+0	1.233925E+0	1.206891E+0	1.197373E+0	1.171531E+0	1.197725E+0	1.234368E+0	1.147351E+0	1.216951E+0	1.218104E+0	1.245864E+0	1.130577E+0	1.164127E+0	1.210411E+0	1.165747E+0	1.187346E+0	1.154080E+0	1.178890E+0	1.153231E+0	1.201821E+0	1.296858E+0	1.199206E+0	1.154099E+0	1.182746E+0	1.187451E+0	1.172210E+0	1.147593E+0	1.156453E+0	1.234105E+0	1.237182E+0	1.283978E+0	1.176892E+0	1.218564E+0	1.207424E+0	1.186539E+0	1.211678E+0	1.182124E+0	1.149792E+0	1.196658E+0	1.190038E+0	1.127653E+0	1.189992E+0	1.148093E+0	1.194833E+0	1.241824E+0	1.232212E+0	1.196879E+0	1.196938E+0	1.180871E+0	1.168818E+0	1.252047E+0	1.247353E+0	1.178440E+0	1.221702E+0	1.190232E+0	1.169117E+0	1.181498E+0	1.163773E+0	1.209463E+0	1.144840E+0	1.191506E+0	1.169004E+0	1.143015E+0	1.241543E+0	1.193488E+0	1.169793E+0	1.194893E+0	1.144717E+0	1.200406E+0	1.219568E+0	1.199128E+0	1.162440E+0	1.156647E+0	1.215706E+0	1.195434E+0	1.211594E+0	1.209532E+0	1.161159E+0	1.178220E+0	1.153708E+0	1.251173E+0	1.155328E+0	1.216213E+0	1.150930E+0	1.224706E+0	1.246137E+0	1.188073E+0	1.066167E+0
2.874030E+2	9.058479E-1	9.327230E-1	9.746496E-1	9.721757E-1	9.415876E-1	9.775145E-1	9.664212E-1	9.942073E-1	1.019947E+0	9.137081E-1	9.444035E-1	9.141717E-1	9.879988E-1	9.218789E-1	9.687867E-1	9.613466E-1	1.037281E+0	9.203845E-1	9.801309E-1	9.415705E-1	9.640086E-1	9.841802E-1	9.056144E-1	9.920819E-1	9.973189E-1	9.563963E-1	9.319509E-1	9.276655E-1	9.667162E-1	9.386326E-1	9.126626E-1	8.979232E-1	1.015545E+0	1.001891E+0	9.204563E-1	9.159858E-1	9.649462E-1	9.433390E-1	9.920714E-1	9.363858E-1	9.905494E-1	9.956539E-1	9.896370E-1	9.654683E-1	1.002162E+0	9.932219E-1	9.769510E-1	9.217460E-1	9.388478E-1	1.005047E+0	9.795434E-1	8.909020E-1	1.014531E+0	9.399160E-1	9.646250E-1	9.508493E-1	9.333405E-1	9.651462E-1	9.831459E-1	9.512864E-1	9.804875E-1	9.596702E-1	9.379006E-1	9.677029E-1	9.502761E-1	1.012205E+0	9.395793E-1	9.696282E-1	9.654100E-1	9.421551E-1	9.279383E-1	9.415949E-1	9.513815E-1	9.511914E-1	9.497547E-1	1.010257E+0	9.953742E-1	9.701371E-1	9.379522E-1	9.116681E-1	1.022169E+0	9.714741E-1	9.801808E-1	9.570569E-1	9.913133E-1	9.554984E-1	9.670023E-1	9.548470E-1	9.903841E-1	1.005419E+0	9.986726E-1	9.073901E-1	9.723392E-1	9.920493E-1	9.708731E-1	9.895788E-1	9.539716E-1	9.757750E-1	9.325370E-1	9.629283E-1	1.013129E+0	9.459551E-1	9.184118E-1	9.599995E-1	9.598790E-1	9.510075E-1	9.775349E-1	9.392814E-1	9.784278E-1	9.273167E-1	9.320817E-1	9.482773E-1	1.029770E+0	9.351765E-1	9.741681E-1	9.523772E-1	9.565176E-1	9.995307E-1	9.543790E-1	9.666241E-1	9.493258E-1	9.766370E-1	9.988916E-1	9.427938E-1	9.954369E-1	9.668742E-1	9.728467E-1	9.437281E-1	9.848015E-1	1.000432E+0	8.906945E-1	9.764131E-1	1.002412E+0	1.037195E+0	9.395283E-1	9.628788E-1	9.417731E-1	9.861317E-1	9.683403E-1	9.247780E-1	9.794488E-1	1.011279E+0	9.709223E-1	9.690872E-1	9.295390E-1	9.619274E-1	9.528682E-1	9.730220E-1	9.957647E-1	9.164733E-1	9.776948E-1	1.023343E+0	9.740342E-1	9.508150E-1	9.655277E-1	9.836962E-1	9.875879E-1	9.404845E-1	9.566319E-1	9.388528E-1	9.626605E-1	9.926276E-1	9.259839E-1	9.562530E-1	9.519013E-1	9.480088E-1	9.395947E-1	9.545616E-1	9.713699E-1	9.573765E-1	9.953896E-1	1.099271E+0
2.876170E+2	7.396524E-1	7.442538E-1	8.021300E-1	7.341297E-1	7.157634E-1	7.588562E-1	7.505995E-1	7.273286E-1	7.637490E-1	8.173347E-1	7.442361E-1	7.259519E-1	7.893358E-1	7.016624E-1	7.709179E-1	7.561084E-1	7.596806E-1	7.282844E-1	7.492786E-1	7.374919E-1	7.480039E-1	7.400817E-1	7.673480E-1	7.507601E-1	7.533418E-1	7.918434E-1	7.130667E-1	7.435385E-1	7.575971E-1	7.681347E-1	7.325750E-1	7.647226E-1	7.487504E-1	7.426952E-1	7.776108E-1	7.721907E-1	7.321537E-1	7.794617E-1	7.041357E-1	7.817316E-1	7.642593E-1	7.881929E-1	8.447517E-1	7.149731E-1	7.308690E-1	7.730667E-1	7.806201E-1	7.255588E-1	7.192345E-1	7.542202E-1	7.432513E-1	7.625366E-1	7.752491E-1	7.726875E-1	7.367340E-1	7.325488E-1	7.778810E-1	7.393267E-1	7.422629E-1	7.311826E-1	8.095856E-1	7.407014E-1	7.329568E-1	7.841029E-1	7.694402E-1	7.482894E-1	7.513682E-1	7.704096E-1	7.461465E-1	7.653283E-1	7.287609E-1	8.011570E-1	7.439106E-1	7.373144E-1	7.566122E-1	7.888103E-1	7.538751E-1	7.583953E-1	7.480958E-1	7.398417E-1	7.963714E-1	7.903363E-1	7.131464E-1	7.295735E-1	7.529697E-1	7.972502E-1	7.487833E-1	7.553882E-1	7.387315E-1	7.895361E-1	7.399700E-1	7.748745E-1	7.526280E-1	7.874965E-1	8.021439E-1	7.556743E-1	8.025779E-1	8.197329E-1	7.529144E-1	7.421281E-1	7.847262E-1	7.485948E-1	7.415730E-1	7.668433E-1	7.586402E-1	7.908771E-1	7.553931E-1	7.852239E-1	7.792560E-1	7.849128E-1	7.879260E-1	7.402737E-1	8.157004E-1	7.367534E-1	8.037729E-1	7.733606E-1	7.865951E-1	7.801751E-1	7.650785E-1	7.313170E-1	7.818574E-1	7.204279E-1	7.772867E-1	7.248918E-1	7.036545E-1	7.297484E-1	8.330391E-1	7.418642E-1	7.790496E-1	7.565791E-1	7.428500E-1	7.922480E-1	8.044189E-1	7.789328E-1	7.433692E-1	7.522531E-1	7.826201E-1	8.164446E-1	7.382642E-1	7.270181E-1	7.981065E-1	7.963143E-1	7.734182E-1	7.865407E-1	7.795857E-1	7.559462E-1	7.306991E-1	7.704486E-1	7.774326E-1	7.309209E-1	8.244283E-1	7.580749E-1	7.553160E-1	7.966286E-1	7.635140E-1	7.611289E-1	7.719376E-1	7.631511E-1	7.823126E-1	7.746121E-1	8.047629E-1	7.782949E-1	7.735182E-1	7.438400E-1	7.623672E-1	7.621673E-1	7.667789E-1	7.630594E-1	7.617048E-1	7.913238E-1	8.547691E-1	7.070998E-1
2.878020E+2	6.614073E-1	5.880530E-1	6.436350E-1	5.959651E-1	6.248224E-1	6.056230E-1	6.155011E-1	6.670098E-1	6.532397E-1	6.415632E-1	6.447185E-1	6.053890E-1	6.340971E-1	6.450953E-1	6.281237E-1	6.526242E-1	6.508584E-1	6.528446E-1	6.609367E-1	6.048095E-1	6.380234E-1	6.081225E-1	6.563512E-1	6.046647E-1	6.448037E-1	6.391394E-1	6.664759E-1	6.278905E-1	5.909203E-1	6.617907E-1	6.228841E-1	6.349469E-1	6.611934E-1	6.337948E-1	6.407107E-1	6.041006E-1	6.031428E-1	6.339557E-1	6.414827E-1	5.844228E-1	6.350650E-1	6.184449E-1	6.191556E-1	6.203965E-1	5.840987E-1	6.373613E-1	6.134046E-1	6.164310E-1	6.620840E-1	6.119566E-1	6.114969E-1	5.999577E-1	5.971832E-1	6.439062E-1	6.524522E-1	6.170347E-1	6.698636E-1	6.481876E-1	6.175726E-1	5.980385E-1	6.494841E-1	6.258077E-1	6.022013E-1	6.010354E-1	6.546518E-1	6.170732E-1	6.048467E-1	6.091329E-1	6.478211E-1	6.469262E-1	5.880912E-1	6.471429E-1	6.305354E-1	6.331683E-1	6.191950E-1	6.500853E-1	6.287075E-1	6.453153E-1	6.622902E-1	6.190988E-1	6.679559E-1	6.489379E-1	6.423018E-1	6.172372E-1	6.136519E-1	6.405793E-1	6.268124E-1	6.373082E-1	6.724557E-1	6.266206E-1	5.964286E-1	6.368636E-1	6.190198E-1	6.162644E-1	6.150772E-1	6.498283E-1	6.114782E-1	6.279794E-1	6.269035E-1	6.412929E-1	6.575203E-1	6.393174E-1	6.435633E-1	6.182654E-1	6.503102E-1	6.401263E-1	6.427533E-1	6.429250E-1	6.566583E-1	6.461043E-1	6.455871E-1	6.068632E-1	6.511365E-1	6.533334E-1	6.669064E-1	6.598692E-1	6.640895E-1	6.722508E-1	6.425998E-1	6.096522E-1	6.644964E-1	6.212335E-1	6.111867E-1	6.252932E-1	6.426571E-1	6.196762E-1	6.277486E-1	6.133192E-1	6.365247E-1	6.099656E-1	6.257260E-1	6.618583E-1	6.494846E-1	6.054273E-1	6.473125E-1	6.273370E-1	6.095628E-1	6.354356E-1	6.177612E-1	6.505280E-1	5.981035E-1	6.282752E-1	6.448922E-1	6.639014E-1	6.391837E-1	6.777840E-1	6.011752E-1	6.285514E-1	6.243845E-1	6.023123E-1	6.202535E-1	6.557849E-1	6.525194E-1	6.560544E-1	6.243591E-1	6.518829E-1	6.086251E-1	6.548734E-1	6.278416E-1	6.382812E-1	6.837188E-1	6.092903E-1	6.450257E-1	5.956284E-1	6.597753E-1	6.465917E-1	6.331594E-1	6.406086E-1	7.028964E-1	6.285243E-1	6.275622E-1	6.389451E-1
2.880020E+2	7.735406E-1	7.383560E-1	7.227116E-1	7.205647E-1	7.187094E-1	7.207446E-1	7.233557E-1	7.030751E-1	7.542202E-1	7.143598E-1	7.338871E-1	7.321297E-1	7.589766E-1	7.253518E-1	7.510391E-1	7.459869E-1	7.195985E-1	7.045119E-1	7.157676E-1	7.151630E-1	7.579986E-1	7.140418E-1	7.011556E-1	7.447861E-1	7.334344E-1	7.359251E-1	7.211178E-1	7.644607E-1	7.679018E-1	7.547957E-1	7.646006E-1	7.317925E-1	7.667731E-1	7.700408E-1	7.729117E-1	6.692558E-1	7.122150E-1	7.069195E-1	7.122339E-1	7.874958E-1	7.190268E-1	7.546306E-1	7.439015E-1	7.100876E-1	7.490482E-1	7.624567E-1	7.557878E-1	7.219614E-1	7.403947E-1	7.649751E-1	7.751992E-1	7.755832E-1	7.165332E-1	7.331617E-1	7.356004E-1	7.337414E-1	6.998950E-1	6.830740E-1	7.697894E-1	7.114778E-1	7.212476E-1	7.674976E-1	7.099237E-1	7.067609E-1	7.552210E-1	7.391205E-1	7.809009E-1	7.265283E-1	7.639928E-1	7.126211E-1	7.076919E-1	7.677109E-1	7.307957E-1	7.357276E-1	7.356891E-1	7.571605E-1	7.307863E-1	7.101014E-1	7.282697E-1	7.465632E-1	7.215238E-1	7.474178E-1	7.216720E-1	7.446021E-1	7.374494E-1	7.532464E-1	7.517449E-1	7.695581E-1	7.391491E-1	7.083941E-1	7.135261E-1	7.130256E-1	7.129411E-1	7.934553E-1	7.667828E-1	7.282600E-1	7.073743E-1	7.352157E-1	7.884305E-1	7.375511E-1	7.504444E-1	7.411422E-1	7.245232E-1	7.174341E-1	7.706303E-1	7.222508E-1	7.078937E-1	7.053699E-1	7.944576E-1	7.559582E-1	7.399473E-1	7.249119E-1	7.600608E-1	7.219483E-1	7.204190E-1	7.299861E-1	7.491415E-1	7.987932E-1	6.937472E-1	7.670735E-1	7.511477E-1	7.134871E-1	7.503840E-1	7.270186E-1	7.003685E-1	7.414421E-1	7.512978E-1	7.534175E-1	7.568846E-1	7.412720E-1	7.570845E-1	7.443376E-1	7.429138E-1	7.610671E-1	7.673443E-1	7.360377E-1	7.181386E-1	7.641228E-1	7.530759E-1	7.381567E-1	7.630519E-1	7.605364E-1	7.377683E-1	7.530321E-1	7.378070E-1	7.620136E-1	7.395470E-1	7.557805E-1	7.658149E-1	7.598385E-1	7.489870E-1	7.258009E-1	7.208186E-1	7.423346E-1	7.873264E-1	7.622865E-1	7.518276E-1	7.944263E-1	7.372881E-1	7.321248E-1	7.568447E-1	7.490845E-1	7.292204E-1	7.758557E-1	7.839926E-1	7.702940E-1	7.471831E-1	7.155640E-1	8.047855E-1	7.812593E-1	8.433303E-1	7.407070E-1
2.882150E+2	7.860872E-1	8.510114E-1	8.797657E-1	8.780666E-1	9.104316E-1	8.778818E-1	8.097379E-1	8.581515E-1	8.533068E-1	8.389500E-1	8.648553E-1	8.518563E-1	8.055715E-1	8.687120E-1	8.680700E-1	8.487234E-1	8.766432E-1	8.446712E-1	8.629631E-1	8.359557E-1	8.534160E-1	8.450586E-1	8.817562E-1	8.330032E-1	8.303163E-1	8.625270E-1	8.738426E-1	8.420830E-1	8.461151E-1	8.691355E-1	8.597385E-1	8.216848E-1	8.452989E-1	9.421576E-1	8.300738E-1	8.930495E-1	8.514969E-1	8.498137E-1	8.654049E-1	8.670088E-1	8.509756E-1	8.548332E-1	8.286907E-1	8.228915E-1	8.439772E-1	8.253073E-1	8.799921E-1	8.630954E-1	8.200216E-1	9.048167E-1	8.838159E-1	8.270927E-1	8.052398E-1	8.289611E-1	8.416222E-1	8.183520E-1	8.276548E-1	8.782755E-1	8.606756E-1	8.371616E-1	8.701579E-1	8.314541E-1	7.932956E-1	8.774223E-1	8.279483E-1	8.828004E-1	8.507368E-1	8.577081E-1	8.370427E-1	8.674898E-1	8.306450E-1	8.356766E-1	8.889244E-1	8.484201E-1	9.018027E-1	8.930148E-1	8.654963E-1	9.123710E-1	8.692625E-1	8.654097E-1	8.528594E-1	8.426416E-1	8.519122E-1	8.909828E-1	8.359104E-1	8.655587E-1	8.306617E-1	9.095325E-1	8.869596E-1	8.429175E-1	8.827449E-1	8.374916E-1	8.908044E-1	8.550593E-1	8.767911E-1	8.353975E-1	8.515492E-1	9.040728E-1	8.572878E-1	9.331620E-1	8.848852E-1	8.794950E-1	8.143760E-1	8.523595E-1	8.542952E-1	8.948826E-1	8.877605E-1	8.807671E-1	8.848458E-1	9.040431E-1	9.527541E-1	8.245119E-1	8.868970E-1	9.131890E-1	8.561460E-1	8.992640E-1	8.713211E-1	8.213153E-1	8.741690E-1	8.719389E-1	8.851582E-1	8.710037E-1	8.587325E-1	8.203193E-1	8.393188E-1	8.738527E-1	8.340375E-1	8.789969E-1	8.630286E-1	9.338629E-1	8.665743E-1	8.149580E-1	8.519291E-1	8.758500E-1	8.829978E-1	8.668732E-1	8.644924E-1	8.846879E-1	8.813757E-1	8.478635E-1	8.896615E-1	8.517262E-1	8.907619E-1	8.379800E-1	8.859843E-1	8.332748E-1	8.458831E-1	8.519266E-1	8.651890E-1	8.440111E-1	8.532009E-1	9.423537E-1	8.860679E-1	9.038063E-1	8.413833E-1	8.898137E-1	8.630618E-1	9.076896E-1	8.830605E-1	8.624393E-1	8.897379E-1	8.904053E-1	8.345155E-1	8.383845E-1	8.155353E-1	8.777933E-1	8.827919E-1	8.707422E-1	8.683540E-1	8.708877E-1	7.746125E-1	8.962946E-1
2.884200E+2	9.604034E-1	9.871312E-1	9.465286E-1	9.289416E-1	9.431853E-1	9.539092E-1	1.007300E+0	9.886293E-1	1.043411E+0	9.814029E-1	9.841369E-1	9.590423E-1	9.783247E-1	9.767191E-1	9.651825E-1	9.464844E-1	9.824790E-1	9.806940E-1	1.008027E+0	1.059517E+0	9.703826E-1	1.019171E+0	9.934219E-1	9.932141E-1	1.011704E+0	1.020348E+0	1.014718E+0	9.741833E-1	1.008356E+0	1.008557E+0	9.543507E-1	9.829805E-1	9.811967E-1	1.000451E+0	9.664322E-1	9.707317E-1	9.665962E-1	9.966546E-1	9.544607E-1	9.400768E-1	9.712869E-1	9.828742E-1	9.932812E-1	9.643372E-1	1.004445E+0	1.011876E+0	9.875490E-1	9.429423E-1	9.328485E-1	9.760416E-1	1.013072E+0	9.934860E-1	9.945899E-1	9.821501E-1	9.739159E-1	9.917420E-1	1.020618E+0	9.739091E-1	9.453119E-1	9.989206E-1	9.490633E-1	9.733417E-1	9.801424E-1	9.150274E-1	9.957111E-1	9.832362E-1	9.825927E-1	1.010156E+0	1.009612E+0	9.874262E-1	9.258116E-1	1.017321E+0	1.001785E+0	9.742607E-1	1.040522E+0	1.051391E+0	1.007072E+0	9.921076E-1	9.879679E-1	9.734121E-1	1.008531E+0	1.035090E+0	9.726776E-1	9.753475E-1	9.888226E-1	9.861020E-1	9.544694E-1	1.014241E+0	1.079596E+0	9.977319E-1	1.017756E+0	9.405204E-1	9.822151E-1	9.590931E-1	1.043030E+0	1.033120E+0	9.433078E-1	9.818527E-1	9.823057E-1	1.020625E+0	9.501587E-1	9.685209E-1	9.936282E-1	9.973883E-1	1.019896E+0	9.893345E-1	1.001183E+0	9.713498E-1	9.947233E-1	1.000350E+0	1.075713E+0	9.645913E-1	1.006437E+0	1.026097E+0	1.031186E+0	1.025311E+0	9.704019E-1	9.615570E-1	9.661869E-1	1.032433E+0	1.032366E+0	1.032305E+0	1.008914E+0	9.848288E-1	9.900660E-1	9.775452E-1	1.021941E+0	9.862902E-1	9.804355E-1	9.938384E-1	1.015287E+0	1.033951E+0	1.012650E+0	1.023336E+0	9.794573E-1	1.019311E+0	1.040529E+0	9.878410E-1	9.896655E-1	9.831521E-1	1.007582E+0	9.945979E-1	1.019405E+0	1.010966E+0	9.615798E-1	1.011307E+0	9.823102E-1	1.025484E+0	9.740698E-1	9.755572E-1	1.045500E+0	1.018178E+0	9.962856E-1	1.081920E+0	9.949020E-1	9.894578E-1	9.931312E-1	1.061866E+0	9.648108E-1	9.695523E-1	1.034411E+0	1.051065E+0	9.206742E-1	9.845807E-1	1.015905E+0	1.019813E+0	9.960044E-1	1.003696E+0	9.840411E-1	9.481022E-1	9.202828E-1	9.581012E-1
2.886040E+2	1.102334E+0	1.140268E+0	1.061562E+0	1.073886E+0	1.061831E+0	1.124162E+0	1.115955E+0	1.095072E+0	1.105395E+0	1.060278E+0	1.087764E+0	1.066513E+0	1.115489E+0	1.067925E+0	1.069025E+0	1.094702E+0	1.050971E+0	1.023365E+0	1.085824E+0	1.124218E+0	1.130525E+0	1.127530E+0	1.048793E+0	1.070936E+0	1.066080E+0	1.061035E+0	1.100010E+0	1.088352E+0	1.091291E+0	1.077244E+0	1.017208E+0	1.096788E+0	1.020768E+0	1.120564E+0	1.074757E+0	1.070469E+0	1.020416E+0	1.076087E+0	1.042853E+0	1.067173E+0	1.069838E+0	1.059735E+0	1.076880E+0	1.077095E+0	1.097140E+0	1.149682E+0	1.128374E+0	1.087583E+0	1.037807E+0	1.152076E+0	1.107878E+0	1.081597E+0	1.055277E+0	1.078519E+0	1.083361E+0	1.118681E+0	1.092657E+0	1.083588E+0	1.124834E+0	1.044659E+0	1.101564E+0	1.107199E+0	1.060058E+0	1.076774E+0	1.074455E+0	1.034085E+0	1.121683E+0	1.125935E+0	1.083799E+0	1.087676E+0	1.092850E+0	1.049752E+0	1.074164E+0	1.078764E+0	1.101721E+0	1.101303E+0	1.088087E+0	1.133235E+0	1.095254E+0	1.041188E+0	1.105409E+0	1.120538E+0	1.045880E+0	1.096470E+0	1.040310E+0	1.088254E+0	1.096053E+0	1.113469E+0	1.137383E+0	1.087209E+0	1.104126E+0	1.066737E+0	1.115012E+0	1.183820E+0	1.084859E+0	1.128765E+0	1.106124E+0	1.132146E+0	1.113635E+0	1.044627E+0	1.155186E+0	1.038172E+0	1.076549E+0	1.127474E+0	1.139688E+0	1.143288E+0	1.090513E+0	1.128349E+0	1.098757E+0	1.097707E+0	1.103789E+0	1.104279E+0	1.127173E+0	1.076522E+0	1.158101E+0	1.097278E+0	1.055251E+0	1.107623E+0	1.039171E+0	1.146256E+0	1.083173E+0	1.094385E+0	1.088602E+0	1.095677E+0	1.128767E+0	1.087004E+0	1.080115E+0	9.995590E-1	1.074444E+0	1.084406E+0	1.109599E+0	1.060019E+0	1.095590E+0	1.159724E+0	1.150435E+0	1.076580E+0	1.078977E+0	1.090996E+0	1.059327E+0	1.088904E+0	1.068595E+0	1.188045E+0	1.042226E+0	1.067619E+0	1.078922E+0	1.149076E+0	1.048763E+0	1.125258E+0	1.091354E+0	1.091738E+0	1.035756E+0	1.157718E+0	1.115854E+0	1.105980E+0	1.102709E+0	1.121809E+0	1.122125E+0	1.101134E+0	1.132307E+0	1.103282E+0	1.101824E+0	1.152848E+0	1.128866E+0	1.046804E+0	1.090139E+0	1.136587E+0	1.070323E+0	1.094949E+0	1.130670E+0	1.109487E+0	1.088555E+0	1.273323E+0
2.888230E+2	1.281449E+0	1.298236E+0	1.275472E+0	1.265982E+0	1.253891E+0	1.230336E+0	1.237154E+0	1.314361E+0	1.266310E+0	1.240183E+0	1.277688E+0	1.233527E+0	1.289234E+0	1.273035E+0	1.304374E+0	1.307554E+0	1.241572E+0	1.247841E+0	1.215905E+0	1.226345E+0	1.268364E+0	1.229920E+0	1.209424E+0	1.246813E+0	1.243663E+0	1.312091E+0	1.215344E+0	1.201376E+0	1.245218E+0	1.301352E+0	1.186562E+0	1.213098E+0	1.264144E+0	1.274010E+0	1.272846E+0	1.214562E+0	1.217772E+0	1.217623E+0	1.237222E+0	1.259895E+0	1.266996E+0	1.267232E+0	1.250796E+0	1.274425E+0	1.219606E+0	1.253304E+0	1.313098E+0	1.222015E+0	1.222643E+0	1.306482E+0	1.262220E+0	1.257330E+0	1.238382E+0	1.247061E+0	1.260751E+0	1.253966E+0	1.262693E+0	1.281817E+0	1.284898E+0	1.206484E+0	1.267464E+0	1.275722E+0	1.243357E+0	1.239831E+0	1.242492E+0	1.326796E+0	1.258705E+0	1.267701E+0	1.320693E+0	1.262600E+0	1.249035E+0	1.238035E+0	1.253519E+0	1.311557E+0	1.314581E+0	1.267606E+0	1.282468E+0	1.267130E+0	1.298451E+0	1.280358E+0	1.293205E+0	1.294677E+0	1.235087E+0	1.162893E+0	1.276160E+0	1.213449E+0	1.277208E+0	1.228142E+0	1.297775E+0	1.210444E+0	1.237464E+0	1.235048E+0	1.253898E+0	1.310527E+0	1.307262E+0	1.257167E+0	1.238955E+0	1.256556E+0	1.248799E+0	1.301385E+0	1.286791E+0	1.261969E+0	1.258271E+0	1.263052E+0	1.276837E+0	1.254148E+0	1.291641E+0	1.255927E+0	1.264713E+0	1.308738E+0	1.263337E+0	1.225981E+0	1.249185E+0	1.303797E+0	1.300844E+0	1.228712E+0	1.239480E+0	1.274635E+0	1.281985E+0	1.278266E+0	1.288387E+0	1.278306E+0	1.249930E+0	1.243552E+0	1.266586E+0	1.256489E+0	1.284880E+0	1.184957E+0	1.243779E+0	1.236515E+0	1.259507E+0	1.276784E+0	1.251718E+0	1.333065E+0	1.320672E+0	1.233147E+0	1.270065E+0	1.216778E+0	1.273900E+0	1.223978E+0	1.258540E+0	1.275604E+0	1.271353E+0	1.210661E+0	1.283072E+0	1.247656E+0	1.257715E+0	1.255708E+0	1.282655E+0	1.217717E+0	1.232148E+0	1.248733E+0	1.235151E+0	1.272954E+0	1.199907E+0	1.203650E+0	1.235282E+0	1.343684E+0	1.227966E+0	1.205633E+0	1.233091E+0	1.275543E+0	1.229055E+0	1.186837E+0	1.227920E+0	1.249449E+0	1.265281E+0	1.231428E+0	1.283844E+0	1.261091E+0	1.211987E+0	1.189144E+0
2.890230E+2	1.274452E+0	1.256306E+0	1.148225E+0	1.179512E+0	1.205367E+0	1.116711E+0	1.142215E+0	1.178233E+0	1.193710E+0	1.211389E+0	1.211437E+0	1.144834E+0	1.248379E+0	1.139628E+0	1.172439E+0	1.192627E+0	1.151340E+0	1.243459E+0	1.142396E+0	1.190669E+0	1.150164E+0	1.156126E+0	1.151430E+0	1.141077E+0	1.214891E+0	1.177264E+0	1.199670E+0	1.206018E+0	1.163868E+0	1.221127E+0	1.148468E+0	1.172338E+0	1.182483E+0	1.212630E+0	1.187845E+0	1.146798E+0	1.178535E+0	1.199439E+0	1.196890E+0	1.196403E+0	1.136058E+0	1.181258E+0	1.147168E+0	1.201831E+0	1.143328E+0	1.212087E+0	1.189635E+0	1.204031E+0	1.149106E+0	1.134210E+0	1.186837E+0	1.131328E+0	1.209262E+0	1.166573E+0	1.201876E+0	1.199700E+0	1.183294E+0	1.215608E+0	1.202971E+0	1.169003E+0	1.178752E+0	1.199757E+0	1.166968E+0	1.154738E+0	1.134967E+0	1.205105E+0	1.191065E+0	1.218071E+0	1.195866E+0	1.164299E+0	1.220223E+0	1.198195E+0	1.210823E+0	1.103298E+0	1.219845E+0	1.200413E+0	1.205321E+0	1.183474E+0	1.150906E+0	1.186194E+0	1.212654E+0	1.212694E+0	1.159338E+0	1.136237E+0	1.181341E+0	1.249811E+0	1.233848E+0	1.198044E+0	1.141581E+0	1.169139E+0	1.163554E+0	1.161046E+0	1.142124E+0	1.213742E+0	1.173006E+0	1.186810E+0	1.205549E+0	1.224434E+0	1.200835E+0	1.231577E+0	1.169148E+0	1.148975E+0	1.156399E+0	1.232551E+0	1.229914E+0	1.238104E+0	1.193948E+0	1.179090E+0	1.177661E+0	1.206709E+0	1.141159E+0	1.145532E+0	1.205873E+0	1.200681E+0	1.243862E+0	1.205008E+0	1.195852E+0	1.202855E+0	1.152418E+0	1.171074E+0	1.215202E+0	1.262397E+0	1.160088E+0	1.126602E+0	1.158253E+0	1.176288E+0	1.206021E+0	1.134603E+0	1.244764E+0	1.223333E+0	1.184442E+0	1.152315E+0	1.145969E+0	1.175171E+0	1.189475E+0	1.228238E+0	1.183750E+0	1.195718E+0	1.175617E+0	1.158442E+0	1.149057E+0	1.239541E+0	1.220820E+0	1.195830E+0	1.158984E+0	1.214057E+0	1.213590E+0	1.226830E+0	1.146605E+0	1.165364E+0	1.169987E+0	1.192960E+0	1.121088E+0	1.204091E+0	1.172975E+0	1.183888E+0	1.145097E+0	1.202751E+0	1.230815E+0	1.238479E+0	1.252258E+0	1.206587E+0	1.222821E+0	1.126310E+0	1.134769E+0	1.183155E+0	1.225906E+0	1.189371E+0	1.227531E+0	1.279965E+0	1.151868E+0	1.254448E+0
2.892010E+2	1.050114E+0	9.797796E-1	9.863356E-1	9.808639E-1	1.029210E+0	1.043278E+0	1.070186E+0	9.866193E-1	1.024159E+0	1.041526E+0	9.642340E-1	1.011693E+0	1.029225E+0	1.001157E+0	9.940944E-1	1.031637E+0	1.036985E+0	1.000605E+0	9.621863E-1	1.043389E+0	1.042278E+0	1.048298E+0	1.049105E+0	1.008681E+0	1.084856E+0	1.099964E+0	1.012252E+0	1.025135E+0	9.907548E-1	1.096434E+0	1.026506E+0	9.793093E-1	1.012155E+0	1.033554E+0	9.878988E-1	9.805680E-1	1.015764E+0	1.039042E+0	1.018353E+0	1.014111E+0	1.063996E+0	1.003339E+0	1.037668E+0	9.985630E-1	1.016394E+0	1.080790E+0	1.028207E+0	9.770220E-1	1.004938E+0	1.072310E+0	1.019348E+0	1.013401E+0	9.882992E-1	1.007166E+0	9.689960E-1	1.044059E+0	1.000449E+0	1.065085E+0	1.008450E+0	1.008457E+0	1.021423E+0	1.044944E+0	9.952811E-1	1.018604E+0	1.076945E+0	1.013278E+0	9.951261E-1	1.012329E+0	1.015987E+0	1.049638E+0	1.003897E+0	9.948558E-1	1.018439E+0	1.036835E+0	1.029209E+0	1.064021E+0	1.070626E+0	1.076501E+0	1.039148E+0	9.991804E-1	1.048895E+0	1.077787E+0	9.725306E-1	9.783383E-1	1.028459E+0	1.083949E+0	9.999098E-1	1.025541E+0	1.024236E+0	1.078693E+0	1.028247E+0	1.029499E+0	1.027940E+0	1.005423E+0	1.005990E+0	1.022722E+0	1.046016E+0	1.052524E+0	1.062930E+0	1.032747E+0	1.026304E+0	1.044243E+0	9.919829E-1	1.051631E+0	1.002399E+0	1.048499E+0	1.041251E+0	1.003034E+0	1.012474E+0	1.012931E+0	1.033889E+0	9.978004E-1	1.017218E+0	1.024800E+0	1.031225E+0	1.025871E+0	1.021608E+0	1.021256E+0	1.051811E+0	1.070043E+0	1.076073E+0	1.037752E+0	1.010163E+0	1.002198E+0	1.104625E+0	1.051619E+0	1.034235E+0	1.054009E+0	9.974945E-1	1.015689E+0	9.921474E-1	9.887295E-1	1.057107E+0	1.081814E+0	1.043355E+0	1.042648E+0	1.033051E+0	1.006863E+0	1.005616E+0	9.840284E-1	1.041657E+0	1.023053E+0	1.047008E+0	9.949359E-1	1.018372E+0	1.090784E+0	9.797525E-1	9.987762E-1	9.707697E-1	1.005117E+0	1.018478E+0	1.010558E+0	1.061706E+0	1.026757E+0	1.056015E+0	1.080501E+0	1.003626E+0	1.026276E+0	9.897235E-1	1.004161E+0	1.051738E+0	1.059588E+0	1.041489E+0	1.024459E+0	1.070029E+0	1.079740E+0	1.073546E+0	9.870414E-1	1.084505E+0	1.111811E+0	1.016388E+0	1.008253E+0
2.894050E+2	8.663612E-1	8.563749E-1	9.198553E-1	8.048261E-1	8.437487E-1	8.424279E-1	8.612083E-1	8.678224E-1	8.409345E-1	8.229249E-1	8.759563E-1	8.675700E-1	8.230838E-1	8.778105E-1	8.738222E-1	8.367685E-1	8.501429E-1	8.051620E-1	8.633793E-1	8.453031E-1	8.364219E-1	8.837182E-1	8.417535E-1	8.176152E-1	8.310110E-1	8.254488E-1	8.908400E-1	8.478126E-1	8.432914E-1	8.541245E-1	8.571935E-1	8.524201E-1	8.781371E-1	9.014404E-1	8.062009E-1	8.314235E-1	8.246632E-1	8.232250E-1	8.067682E-1	8.391559E-1	8.473213E-1	8.595379E-1	8.739034E-1	8.586642E-1	8.256600E-1	8.611847E-1	8.327807E-1	8.106561E-1	8.369376E-1	8.334771E-1	8.646398E-1	8.309031E-1	8.521593E-1	8.398104E-1	8.350312E-1	8.429416E-1	8.597239E-1	8.290256E-1	8.445562E-1	8.362963E-1	8.234670E-1	8.335064E-1	8.552624E-1	8.044913E-1	8.180008E-1	8.103072E-1	8.198884E-1	8.522805E-1	8.995835E-1	8.649881E-1	8.619622E-1	8.917352E-1	8.841357E-1	8.162154E-1	8.265183E-1	8.730612E-1	8.369399E-1	8.840308E-1	8.740917E-1	8.672572E-1	8.630684E-1	8.497424E-1	8.264200E-1	8.283760E-1	8.351504E-1	8.579590E-1	8.924188E-1	8.206552E-1	8.766612E-1	8.330957E-1	8.564840E-1	7.793722E-1	8.570568E-1	8.899667E-1	8.461816E-1	8.624490E-1	8.997113E-1	8.305768E-1	8.735095E-1	8.157139E-1	8.696207E-1	8.841170E-1	8.758803E-1	8.592648E-1	8.764215E-1	7.927681E-1	8.753402E-1	8.376865E-1	8.682442E-1	9.065353E-1	8.801120E-1	8.492370E-1	8.264680E-1	8.299601E-1	8.630491E-1	8.513307E-1	8.602904E-1	8.251699E-1	7.999284E-1	8.886473E-1	8.443144E-1	8.386247E-1	8.502652E-1	7.888409E-1	8.080170E-1	9.187678E-1	8.957771E-1	7.750437E-1	8.414235E-1	8.071084E-1	8.264290E-1	9.140983E-1	8.530043E-1	8.553042E-1	8.571348E-1	8.508847E-1	8.768536E-1	8.346999E-1	8.852766E-1	8.126802E-1	8.442677E-1	8.657604E-1	8.583122E-1	8.409819E-1	8.729086E-1	9.194585E-1	8.435097E-1	8.718806E-1	8.573679E-1	8.199937E-1	8.721981E-1	8.427632E-1	8.524054E-1	9.006077E-1	8.604029E-1	8.502325E-1	8.571951E-1	8.515353E-1	9.260571E-1	8.455389E-1	8.582392E-1	8.710064E-1	8.132834E-1	8.497538E-1	8.672207E-1	8.706873E-1	8.114352E-1	8.043191E-1	8.568367E-1	8.580353E-1	9.167313E-1	8.791941E-1
2.896110E+2	7.763427E-1	7.580423E-1	8.031970E-1	7.657966E-1	7.437173E-1	7.346640E-1	7.688175E-1	7.586560E-1	7.973279E-1	7.790249E-1	7.557571E-1	7.459707E-1	7.418463E-1	7.549342E-1	7.922906E-1	7.159776E-1	7.914470E-1	7.525400E-1	7.519461E-1	7.844200E-1	7.922360E-1	8.022843E-1	7.859639E-1	7.244788E-1	7.753220E-1	7.498072E-1	7.796891E-1	7.762446E-1	7.768578E-1	7.847447E-1	7.896437E-1	7.472643E-1	8.238760E-1	8.197337E-1	7.508282E-1	7.219293E-1	7.313991E-1	7.642734E-1	7.927590E-1	7.170534E-1	7.193475E-1	7.405604E-1	7.941839E-1	7.693600E-1	7.503224E-1	7.820843E-1	7.846896E-1	7.323243E-1	7.456831E-1	7.572213E-1	7.788570E-1	7.419814E-1	7.593630E-1	7.721334E-1	8.206413E-1	7.780655E-1	8.066716E-1	7.671166E-1	7.890742E-1	7.268310E-1	7.322402E-1	8.136806E-1	7.427215E-1	7.599085E-1	8.116074E-1	8.020045E-1	7.457429E-1	7.706299E-1	7.954566E-1	7.789426E-1	7.799670E-1	7.827192E-1	7.834222E-1	8.338982E-1	7.915342E-1	7.899369E-1	7.932666E-1	7.477084E-1	8.269193E-1	7.530567E-1	7.739229E-1	7.955634E-1	7.673604E-1	7.546743E-1	7.723792E-1	8.248483E-1	7.553881E-1	7.919744E-1	7.873206E-1	7.774085E-1	7.409349E-1	7.707098E-1	7.469554E-1	7.754760E-1	7.928883E-1	7.443465E-1	7.354764E-1	7.833856E-1	8.209808E-1	7.616691E-1	8.048956E-1	7.784992E-1	8.050120E-1	7.463592E-1	7.506830E-1	7.295528E-1	7.840827E-1	7.897786E-1	8.119063E-1	7.923527E-1	7.823734E-1	7.798371E-1	8.057573E-1	8.231483E-1	7.782406E-1	7.885160E-1	7.848459E-1	7.442414E-1	7.489356E-1	7.655479E-1	7.435758E-1	7.723948E-1	8.001995E-1	7.621199E-1	7.787377E-1	7.937184E-1	8.053720E-1	7.486515E-1	7.258225E-1	7.970726E-1	7.700530E-1	8.042224E-1	7.755314E-1	7.940492E-1	7.794835E-1	7.601029E-1	7.254642E-1	7.664926E-1	7.590114E-1	7.424126E-1	7.670342E-1	7.524605E-1	8.104051E-1	7.613433E-1	8.346960E-1	8.267538E-1	7.715800E-1	7.902251E-1	8.177233E-1	7.830540E-1	7.997585E-1	8.219615E-1	8.249342E-1	7.978728E-1	7.893138E-1	8.033292E-1	8.063843E-1	8.136672E-1	7.404783E-1	7.509283E-1	7.663309E-1	7.644245E-1	7.667098E-1	7.903145E-1	7.616997E-1	8.030155E-1	7.916681E-1	7.500861E-1	7.286004E-1	8.179299E-1	8.008452E-1	8.085832E-1
2.898020E+2	8.347636E-1	8.825256E-1	8.563470E-1	8.292911E-1	8.623572E-1	8.602816E-1	8.015306E-1	8.621506E-1	8.251970E-1	8.425459E-1	9.015758E-1	8.455038E-1	8.641710E-1	8.705452E-1	8.712622E-1	9.138892E-1	8.392914E-1	8.250608E-1	8.678219E-1	8.383557E-1	8.668060E-1	8.824737E-1	8.316320E-1	8.309232E-1	9.002502E-1	8.638567E-1	8.416825E-1	8.154893E-1	8.795226E-1	8.229251E-1	8.253928E-1	8.065846E-1	8.585704E-1	8.498271E-1	8.525945E-1	8.382447E-1	8.293975E-1	8.833749E-1	8.438659E-1	8.287740E-1	8.622153E-1	8.436769E-1	8.816322E-1	8.042884E-1	8.626553E-1	8.837950E-1	8.442344E-1	8.466677E-1	8.368104E-1	8.350984E-1	8.680305E-1	8.350644E-1	8.428034E-1	9.292090E-1	8.823686E-1	8.294204E-1	9.085377E-1	8.750255E-1	8.583174E-1	8.630852E-1	8.467459E-1	8.476633E-1	8.103127E-1	8.416496E-1	8.263286E-1	8.169347E-1	8.182071E-1	8.733334E-1	8.454871E-1	8.099404E-1	8.651439E-1	8.165952E-1	8.520127E-1	8.727059E-1	8.279401E-1	9.265279E-1	8.127691E-1	8.582492E-1	8.470909E-1	8.753213E-1	8.489379E-1	8.803081E-1	8.183712E-1	8.506268E-1	8.494750E-1	8.778604E-1	8.686310E-1	8.541789E-1	9.123610E-1	8.407656E-1	8.261401E-1	8.071198E-1	8.752969E-1	8.930351E-1	7.852682E-1	8.984079E-1	8.192945E-1	9.078862E-1	8.587995E-1	8.263377E-1	8.532915E-1	8.676386E-1	8.089947E-1	8.532002E-1	8.735890E-1	8.932452E-1	8.839516E-1	8.823272E-1	8.170631E-1	8.340295E-1	8.731059E-1	8.417000E-1	8.635785E-1	9.225770E-1	8.410789E-1	9.031034E-1	8.601718E-1	8.561657E-1	8.747796E-1	8.509905E-1	8.302875E-1	8.890673E-1	8.580939E-1	8.548850E-1	8.494732E-1	8.822409E-1	8.710338E-1	8.381580E-1	8.731409E-1	8.911581E-1	8.721148E-1	8.401750E-1	8.821072E-1	8.695622E-1	8.557238E-1	8.609913E-1	8.559956E-1	8.651143E-1	8.594565E-1	8.906711E-1	8.689372E-1	9.199748E-1	8.464259E-1	7.948278E-1	8.708675E-1	8.370994E-1	8.333905E-1	8.996798E-1	8.531719E-1	8.613162E-1	8.765627E-1	8.906434E-1	8.610286E-1	8.284593E-1	8.766417E-1	7.981907E-1	8.151625E-1	8.393340E-1	8.502253E-1	8.474815E-1	8.961281E-1	8.776438E-1	8.943171E-1	8.413403E-1	7.900617E-1	8.495234E-1	8.504387E-1	8.115324E-1	8.690836E-1	9.039555E-1	8.518440E-1	9.180841E-1
2.900050E+2	8.640366E-1	8.538935E-1	8.975205E-1	8.440774E-1	8.802652E-1	8.742829E-1	8.880141E-1	9.317916E-1	8.933228E-1	9.299305E-1	9.108653E-1	8.974288E-1	9.119549E-1	8.751278E-1	9.280415E-1	8.748636E-1	9.006383E-1	8.743879E-1	8.763176E-1	9.314451E-1	8.593911E-1	8.853722E-1	9.149566E-1	8.883525E-1	8.825064E-1	8.342608E-1	8.627111E-1	9.033968E-1	8.897003E-1	8.851886E-1	8.862966E-1	8.977780E-1	8.527984E-1	9.472797E-1	8.937381E-1	8.738977E-1	8.585717E-1	8.973719E-1	9.155608E-1	8.702049E-1	8.665419E-1	9.222789E-1	9.021193E-1	8.462491E-1	8.410960E-1	9.005302E-1	8.616102E-1	8.704869E-1	8.880330E-1	8.410728E-1	9.006591E-1	9.201093E-1	8.622149E-1	8.610409E-1	8.819326E-1	8.839276E-1	8.996898E-1	8.967760E-1	8.853542E-1	8.450836E-1	8.684064E-1	8.914524E-1	9.239863E-1	8.629564E-1	9.269863E-1	8.392723E-1	8.830417E-1	9.056064E-1	8.782201E-1	8.820411E-1	8.391746E-1	8.929973E-1	9.551372E-1	8.568645E-1	9.147833E-1	9.127940E-1	8.525127E-1	8.604781E-1	9.256010E-1	8.771026E-1	9.176348E-1	8.487667E-1	8.832911E-1	8.781240E-1	8.632096E-1	9.314365E-1	8.734705E-1	8.730243E-1	9.057459E-1	8.705770E-1	8.795327E-1	8.895479E-1	8.479337E-1	8.763926E-1	8.992449E-1	8.441787E-1	8.687469E-1	8.810415E-1	9.194723E-1	8.772910E-1	9.130865E-1	8.638844E-1	8.715406E-1	9.042799E-1	9.007390E-1	8.967749E-1	8.929217E-1	8.383229E-1	9.006429E-1	9.011410E-1	9.579516E-1	8.463198E-1	8.576790E-1	9.049798E-1	9.292274E-1	9.444726E-1	8.987188E-1	9.173189E-1	8.825462E-1	8.980600E-1	8.998854E-1	8.554263E-1	8.454058E-1	9.026478E-1	8.690698E-1	9.047999E-1	9.008142E-1	8.753136E-1	8.924427E-1	9.079811E-1	9.114739E-1	8.834354E-1	9.351721E-1	8.413676E-1	9.199643E-1	8.958344E-1	8.611054E-1	8.773421E-1	9.289192E-1	9.651993E-1	9.146658E-1	9.180573E-1	8.702278E-1	8.972416E-1	9.794553E-1	9.925120E-1	9.101155E-1	8.854646E-1	9.138962E-1	8.959477E-1	8.538924E-1	9.491662E-1	8.780587E-1	9.092405E-1	8.683722E-1	9.323587E-1	9.066331E-1	9.426690E-1	9.148438E-1	9.212418E-1	8.659651E-1	9.059276E-1	9.086842E-1	8.717356E-1	8.895535E-1	8.667104E-1	8.731232E-1	8.668938E-1	9.074710E-1	8.905115E-1	8.960822E-1	1.018821E+0
2.905110E+2	9.239532E-1	8.682556E-1	8.790811E-1	8.595700E-1	8.745631E-1	8.535761E-1	8.633756E-1	8.650290E-1	8.405541E-1	9.279073E-1	8.624156E-1	9.019948E-1	8.291713E-1	8.776202E-1	8.261813E-1	8.374583E-1	9.009895E-1	8.562474E-1	8.091041E-1	8.790785E-1	8.875931E-1	8.841159E-1	8.813632E-1	8.781614E-1	8.603446E-1	8.432042E-1	8.582544E-1	8.563938E-1	9.067498E-1	8.463119E-1	9.029448E-1	8.712440E-1	8.704043E-1	9.049611E-1	8.987086E-1	8.348789E-1	9.003256E-1	8.727802E-1	9.020313E-1	8.566794E-1	8.723868E-1	8.526987E-1	9.066425E-1	8.339431E-1	8.510508E-1	8.720548E-1	8.878275E-1	8.218978E-1	8.445206E-1	8.930359E-1	8.884267E-1	8.977723E-1	8.818697E-1	8.498752E-1	8.567203E-1	8.720173E-1	9.011635E-1	8.411402E-1	8.706411E-1	8.177452E-1	8.331443E-1	8.949070E-1	8.828859E-1	8.129372E-1	8.655190E-1	8.629232E-1	8.775462E-1	8.484679E-1	9.162333E-1	8.526197E-1	8.835620E-1	8.521884E-1	8.943322E-1	8.677939E-1	8.484819E-1	9.028944E-1	8.861011E-1	8.652787E-1	8.663156E-1	8.723317E-1	8.806816E-1	8.794534E-1	8.562738E-1	8.889277E-1	8.438042E-1	8.947539E-1	8.765180E-1	8.328155E-1	9.011331E-1	8.485223E-1	8.877286E-1	8.607431E-1	8.602326E-1	8.813800E-1	8.597511E-1	8.472062E-1	8.996573E-1	8.819678E-1	8.620278E-1	8.341540E-1	8.644640E-1	9.169878E-1	9.135064E-1	8.884446E-1	8.346529E-1	8.944643E-1	8.919629E-1	8.595021E-1	8.830131E-1	9.178971E-1	8.391406E-1	8.409910E-1	8.786101E-1	8.624053E-1	8.847849E-1	9.241478E-1	8.888202E-1	9.142707E-1	8.518072E-1	8.982954E-1	8.838917E-1	8.584362E-1	8.912978E-1	8.605903E-1	8.853233E-1	8.828575E-1	8.513813E-1	8.513005E-1	8.569557E-1	8.559987E-1	8.974984E-1	8.294358E-1	8.622873E-1	9.153476E-1	8.849478E-1	8.917990E-1	8.697546E-1	9.145350E-1	8.323296E-1	8.914448E-1	8.372564E-1	8.749462E-1	9.094066E-1	9.004529E-1	8.524492E-1	9.232474E-1	8.515435E-1	8.965521E-1	8.502155E-1	8.999587E-1	9.254094E-1	8.912633E-1	9.042293E-1	8.911156E-1	9.198649E-1	9.063420E-1	8.682828E-1	9.161991E-1	8.924576E-1	8.628184E-1	8.825471E-1	8.500491E-1	8.651859E-1	8.196694E-1	8.398336E-1	9.047560E-1	8.819993E-1	8.522452E-1	8.371002E-1	9.472911E-1	8.394024E-1	9.180641E-1
2.910060E+2	9.621542E-1	9.502706E-1	9.459556E-1	8.748654E-1	9.397557E-1	9.503001E-1	9.637335E-1	9.171389E-1	9.078117E-1	9.441750E-1	9.425196E-1	9.334617E-1	9.395218E-1	9.321081E-1	9.327885E-1	9.528560E-1	9.186509E-1	9.012173E-1	9.254121E-1	9.490306E-1	8.960842E-1	9.501136E-1	9.182069E-1	9.143342E-1	9.346183E-1	9.490230E-1	9.304499E-1	8.855636E-1	9.425620E-1	9.699217E-1	9.422879E-1	9.292401E-1	9.178963E-1	9.965933E-1	9.086839E-1	9.170211E-1	8.996583E-1	8.923512E-1	9.528267E-1	9.131349E-1	9.244186E-1	9.228338E-1	9.097017E-1	9.568511E-1	9.487626E-1	9.152232E-1	8.876441E-1	9.259955E-1	9.396763E-1	9.518934E-1	1.000529E+0	9.184988E-1	9.445220E-1	9.245789E-1	9.479714E-1	8.903444E-1	9.350745E-1	9.097543E-1	8.656251E-1	1.006932E+0	9.325380E-1	8.775773E-1	9.834883E-1	8.979916E-1	9.295766E-1	9.462023E-1	9.157514E-1	9.108171E-1	9.729617E-1	9.132861E-1	8.832913E-1	9.452503E-1	9.349268E-1	9.639621E-1	9.834028E-1	9.146828E-1	8.894090E-1	9.084295E-1	9.569235E-1	9.425978E-1	9.970762E-1	9.055770E-1	9.580971E-1	9.257890E-1	9.788125E-1	9.162787E-1	9.211149E-1	9.397360E-1	9.379363E-1	8.905526E-1	9.382456E-1	9.215263E-1	9.177592E-1	9.468469E-1	9.296606E-1	9.859070E-1	9.574436E-1	9.338423E-1	9.403171E-1	9.069695E-1	9.956395E-1	9.445509E-1	9.265350E-1	9.717029E-1	9.310192E-1	9.050835E-1	9.793962E-1	9.262114E-1	9.714521E-1	9.146995E-1	9.766241E-1	9.700286E-1	9.761352E-1	9.388475E-1	9.331192E-1	9.260567E-1	9.702612E-1	9.736643E-1	9.117126E-1	9.686328E-1	9.074843E-1	9.796347E-1	9.430476E-1	8.895017E-1	9.207907E-1	9.105042E-1	9.258094E-1	9.486158E-1	9.536209E-1	9.728667E-1	8.789942E-1	9.057169E-1	9.242728E-1	9.707811E-1	8.793239E-1	9.239861E-1	9.132973E-1	9.923922E-1	9.512258E-1	9.227529E-1	9.967890E-1	9.570041E-1	1.019957E+0	9.305570E-1	9.459178E-1	9.235842E-1	9.261399E-1	8.963468E-1	9.608967E-1	9.564928E-1	1.021515E+0	9.859353E-1	9.672886E-1	9.584425E-1	9.273741E-1	9.879615E-1	9.690811E-1	9.860436E-1	9.866777E-1	9.395992E-1	9.163188E-1	9.574898E-1	9.669157E-1	9.070152E-1	9.703462E-1	9.845302E-1	9.263601E-1	9.648374E-1	1.005608E+0	9.831526E-1	9.875202E-1	8.801089E-1
2.915140E+2	1.184063E+0	1.132178E+0	1.107910E+0	1.163520E+0	1.161859E+0	1.141732E+0	1.200130E+0	1.185535E+0	1.188795E+0	1.140311E+0	1.245830E+0	1.187322E+0	1.134232E+0	1.118424E+0	1.159814E+0	1.142764E+0	1.155312E+0	1.137630E+0	1.207036E+0	1.146654E+0	1.165395E+0	1.177851E+0	1.212624E+0	1.158202E+0	1.142256E+0	1.166095E+0	1.187781E+0	1.184732E+0	1.192403E+0	1.159860E+0	1.224445E+0	1.200717E+0	1.133196E+0	1.130911E+0	1.160957E+0	1.106354E+0	1.108220E+0	1.137011E+0	1.169681E+0	1.158989E+0	1.104184E+0	1.183084E+0	1.152877E+0	1.189073E+0	1.154616E+0	1.179126E+0	1.183529E+0	1.157612E+0	1.093901E+0	1.189302E+0	1.169329E+0	1.135712E+0	1.139505E+0	1.209631E+0	1.203341E+0	1.134578E+0	1.142396E+0	1.116381E+0	1.132560E+0	1.141658E+0	1.143857E+0	1.165383E+0	1.120539E+0	1.146044E+0	1.159065E+0	1.161122E+0	1.215132E+0	1.116584E+0	1.186001E+0	1.129676E+0	1.164824E+0	1.171816E+0	1.220283E+0	1.158662E+0	1.172978E+0	1.191082E+0	1.163614E+0	1.177694E+0	1.175469E+0	1.158998E+0	1.151632E+0	1.210071E+0	1.130161E+0	1.130391E+0	1.101624E+0	1.152271E+0	1.157505E+0	1.207903E+0	1.231473E+0	1.139719E+0	1.168877E+0	1.213755E+0	1.158923E+0	1.225480E+0	1.214649E+0	1.157463E+0	1.172364E+0	1.222759E+0	1.136746E+0	1.151770E+0	1.140378E+0	1.120470E+0	1.189743E+0	1.185686E+0	1.179031E+0	1.146976E+0	1.226048E+0	1.135575E+0	1.210760E+0	1.127013E+0	1.091543E+0	1.171494E+0	1.171796E+0	1.155749E+0	1.282508E+0	1.144918E+0	1.183313E+0	1.242102E+0	1.164429E+0	1.200027E+0	1.119367E+0	1.186478E+0	1.213094E+0	1.147183E+0	1.139682E+0	1.204346E+0	1.247423E+0	1.177052E+0	1.144028E+0	1.220061E+0	1.180276E+0	1.256443E+0	1.140145E+0	1.064828E+0	1.189296E+0	1.166400E+0	1.141375E+0	1.189743E+0	1.212648E+0	1.186869E+0	1.125408E+0	1.162792E+0	1.198991E+0	1.131026E+0	1.124692E+0	1.171718E+0	1.167358E+0	1.277395E+0	1.102868E+0	1.127964E+0	1.195477E+0	1.223718E+0	1.133594E+0	1.146354E+0	1.138651E+0	1.108828E+0	1.163024E+0	1.149933E+0	1.120645E+0	1.150674E+0	1.207300E+0	1.133870E+0	1.191133E+0	1.172775E+0	1.099053E+0	1.216251E+0	1.205689E+0	1.137630E+0	1.200578E+0	1.228121E+0	1.107057E+0	1.198083E+0
2.920010E+2	1.121024E+0	1.120730E+0	1.077826E+0	1.074806E+0	1.143107E+0	1.097049E+0	1.125214E+0	1.122581E+0	1.045273E+0	1.084524E+0	1.068385E+0	1.060104E+0	1.054077E+0	1.084312E+0	1.040222E+0	1.175121E+0	1.060865E+0	1.036597E+0	1.143513E+0	1.025204E+0	1.102250E+0	1.088321E+0	1.131684E+0	1.150867E+0	1.143145E+0	1.118024E+0	1.137315E+0	1.043459E+0	1.132744E+0	1.161337E+0	1.102861E+0	1.027911E+0	1.008136E+0	1.123156E+0	1.077536E+0	1.056068E+0	1.068973E+0	1.095493E+0	1.085371E+0	1.124553E+0	1.130369E+0	1.086008E+0	1.070202E+0	1.063878E+0	1.063647E+0	1.052749E+0	1.102893E+0	1.090395E+0	1.116385E+0	1.109636E+0	1.087360E+0	1.117111E+0	1.083759E+0	1.093530E+0	1.108775E+0	1.057246E+0	1.107847E+0	1.054259E+0	1.069616E+0	1.072056E+0	1.118086E+0	1.141940E+0	1.103070E+0	1.041188E+0	1.102882E+0	1.079246E+0	1.092140E+0	1.142285E+0	1.071535E+0	1.124192E+0	1.062963E+0	1.058279E+0	1.150069E+0	1.082110E+0	1.091997E+0	1.161754E+0	1.093140E+0	1.157409E+0	1.102907E+0	1.081632E+0	1.110167E+0	1.102551E+0	1.064423E+0	1.065365E+0	1.100581E+0	1.093750E+0	1.067392E+0	1.114234E+0	1.076042E+0	1.081097E+0	1.075560E+0	1.092242E+0	1.046522E+0	1.117144E+0	1.143800E+0	1.132935E+0	1.060296E+0	1.088003E+0	1.031756E+0	1.078266E+0	1.143341E+0	1.110934E+0	1.072127E+0	1.088184E+0	1.158741E+0	1.135549E+0	1.069549E+0	1.101306E+0	1.069353E+0	1.104256E+0	1.167747E+0	1.133733E+0	1.084008E+0	1.098958E+0	1.117770E+0	1.163102E+0	1.071647E+0	1.140282E+0	1.129531E+0	1.109626E+0	1.058285E+0	1.137929E+0	1.090994E+0	1.088553E+0	1.134384E+0	1.158097E+0	1.132312E+0	1.090861E+0	1.064999E+0	1.102539E+0	1.089455E+0	1.131972E+0	1.046831E+0	1.090535E+0	1.126042E+0	1.095376E+0	1.137265E+0	1.073787E+0	1.092371E+0	1.151486E+0	1.098097E+0	1.109942E+0	1.101428E+0	1.131014E+0	1.093599E+0	1.160759E+0	1.059776E+0	1.095739E+0	1.094893E+0	1.086162E+0	1.136223E+0	1.128793E+0	1.095472E+0	1.114515E+0	1.101843E+0	1.077878E+0	1.035569E+0	1.074306E+0	1.106219E+0	1.112376E+0	1.064269E+0	1.120973E+0	1.129405E+0	1.115794E+0	1.150690E+0	1.137776E+0	1.147444E+0	1.078152E+0	1.122813E+0	1.118924E+0	1.099018E+0	1.203791E+0
2.925020E+2	1.121959E+0	1.134257E+0	1.101763E+0	1.126810E+0	1.141689E+0	1.140579E+0	1.132168E+0	1.188260E+0	1.152856E+0	1.115670E+0	1.099692E+0	1.148549E+0	1.110309E+0	1.151933E+0	1.168269E+0	1.159457E+0	1.162372E+0	1.166827E+0	1.162753E+0	1.101344E+0	1.124405E+0	1.161947E+0	1.118994E+0	1.171407E+0	1.122567E+0	1.080592E+0	1.070728E+0	1.130001E+0	1.104997E+0	1.151827E+0	1.130057E+0	1.097466E+0	1.090802E+0	1.090092E+0	1.109367E+0	1.072776E+0	1.091312E+0	1.115216E+0	1.144016E+0	1.176455E+0	1.160835E+0	1.148482E+0	1.130817E+0	1.108363E+0	1.123774E+0	1.201627E+0	1.164647E+0	1.122037E+0	1.079888E+0	1.146408E+0	1.103958E+0	1.102007E+0	1.151332E+0	1.176826E+0	1.169832E+0	1.108025E+0	1.059445E+0	1.121515E+0	1.178846E+0	1.114313E+0	1.115288E+0	1.113403E+0	1.106391E+0	1.138776E+0	1.178618E+0	1.070439E+0	1.146381E+0	1.092275E+0	1.121605E+0	1.145754E+0	1.137907E+0	1.087189E+0	1.114690E+0	1.135690E+0	1.195116E+0	1.193988E+0	1.171401E+0	1.118112E+0	1.195993E+0	1.137731E+0	1.105126E+0	1.157111E+0	1.106776E+0	1.115593E+0	1.136673E+0	1.122559E+0	1.188763E+0	1.174289E+0	1.144453E+0	1.100302E+0	1.175221E+0	1.129410E+0	1.146443E+0	1.185828E+0	1.187085E+0	1.127006E+0	1.127032E+0	1.198814E+0	1.161038E+0	1.077395E+0	1.135942E+0	1.039396E+0	1.126694E+0	1.191717E+0	1.194859E+0	1.196175E+0	1.122569E+0	1.091773E+0	1.145884E+0	1.139208E+0	1.130578E+0	1.130783E+0	1.084960E+0	1.128776E+0	1.167974E+0	1.127168E+0	1.184858E+0	1.180355E+0	1.121253E+0	1.173272E+0	1.115520E+0	1.155330E+0	1.166724E+0	1.118119E+0	1.142100E+0	1.110105E+0	1.124697E+0	1.110854E+0	1.138798E+0	1.230975E+0	1.121911E+0	1.120910E+0	1.146433E+0	1.148990E+0	1.194155E+0	1.126107E+0	1.179142E+0	1.148982E+0	1.149336E+0	1.106495E+0	1.127676E+0	1.176406E+0	1.181141E+0	1.109497E+0	1.178434E+0	1.147568E+0	1.139846E+0	1.099773E+0	1.193847E+0	1.121399E+0	1.208572E+0	1.111699E+0	1.130272E+0	1.170172E+0	1.246132E+0	1.111296E+0	1.099405E+0	1.138297E+0	1.147353E+0	1.113960E+0	1.173906E+0	1.116688E+0	1.186669E+0	1.064134E+0	1.088841E+0	1.164947E+0	1.155601E+0	1.155678E+0	1.132867E+0	1.166229E+0	1.139803E+0	1.040447E+0
2.930040E+2	1.145214E+0	1.072833E+0	1.117125E+0	1.025696E+0	1.070796E+0	1.139484E+0	1.138860E+0	1.134077E+0	1.072906E+0	1.045129E+0	1.058258E+0	1.087186E+0	1.102682E+0	1.097370E+0	1.094065E+0	1.110697E+0	1.089124E+0	1.055833E+0	1.072940E+0	1.080895E+0	1.048986E+0	1.063465E+0	1.105321E+0	1.103733E+0	1.116564E+0	1.101137E+0	1.101651E+0	1.065849E+0	1.110423E+0	1.116125E+0	1.068684E+0	1.133269E+0	1.089829E+0	1.120825E+0	1.081450E+0	1.038911E+0	1.081142E+0	1.123469E+0	1.104949E+0	1.101406E+0	1.047245E+0	1.049441E+0	1.107325E+0	1.012797E+0	1.095720E+0	1.112085E+0	1.104315E+0	1.068425E+0	1.069130E+0	1.056148E+0	1.093290E+0	1.097202E+0	1.121593E+0	1.119836E+0	1.063902E+0	1.089214E+0	1.072326E+0	1.064065E+0	1.100950E+0	1.090435E+0	1.099869E+0	1.088200E+0	1.079722E+0	1.054007E+0	1.018150E+0	1.123738E+0	1.118999E+0	1.064442E+0	1.102664E+0	1.116846E+0	1.104331E+0	1.072147E+0	1.107408E+0	1.056226E+0	1.078380E+0	1.145609E+0	1.122304E+0	1.038681E+0	1.093897E+0	1.088348E+0	1.113677E+0	1.039311E+0	1.048624E+0	1.054339E+0	1.105355E+0	1.070935E+0	1.092693E+0	1.091290E+0	1.101369E+0	1.111949E+0	1.103558E+0	1.128283E+0	1.097598E+0	1.058066E+0	1.139872E+0	1.048022E+0	1.101836E+0	1.111430E+0	1.117317E+0	1.103130E+0	1.087356E+0	1.091655E+0	1.064990E+0	1.073983E+0	1.070382E+0	1.099558E+0	1.118944E+0	1.094986E+0	1.101637E+0	1.046091E+0	1.119886E+0	1.090405E+0	1.133009E+0	1.115004E+0	1.112720E+0	1.101927E+0	1.131852E+0	1.075616E+0	1.064115E+0	1.103903E+0	1.060279E+0	1.111235E+0	1.148926E+0	1.040392E+0	1.056388E+0	1.119696E+0	1.149163E+0	1.055625E+0	1.088171E+0	1.048808E+0	1.155973E+0	1.100630E+0	1.041135E+0	1.093993E+0	1.052624E+0	1.130790E+0	1.159018E+0	1.081069E+0	1.081151E+0	1.127546E+0	1.059123E+0	1.079587E+0	1.059058E+0	1.071111E+0	1.132165E+0	1.078590E+0	1.080621E+0	1.089427E+0	1.108267E+0	1.080261E+0	1.122879E+0	1.083937E+0	1.019106E+0	1.084049E+0	1.139457E+0	1.111436E+0	1.084093E+0	1.080676E+0	1.173888E+0	1.053605E+0	1.048316E+0	1.108366E+0	1.113678E+0	1.078791E+0	1.121449E+0	1.095591E+0	1.107925E+0	1.045223E+0	1.059278E+0	1.137520E+0	1.095109E+0	1.068530E+0
2.935110E+2	1.108097E+0	1.010297E+0	1.054597E+0	9.747841E-1	1.023920E+0	1.006837E+0	1.024816E+0	1.091032E+0	1.058851E+0	1.010317E+0	1.057517E+0	1.049970E+0	1.073283E+0	1.076502E+0	1.070706E+0	1.112403E+0	1.050535E+0	1.007436E+0	1.031814E+0	1.071959E+0	9.816209E-1	1.044048E+0	1.028219E+0	1.069533E+0	1.014105E+0	1.015942E+0	1.059370E+0	1.001362E+0	1.034527E+0	1.051383E+0	1.012911E+0	1.004496E+0	1.050089E+0	1.037422E+0	1.027553E+0	1.056576E+0	1.006368E+0	1.022959E+0	1.097107E+0	1.006695E+0	1.052728E+0	1.021792E+0	1.042241E+0	1.023380E+0	1.001196E+0	1.041232E+0	1.011760E+0	1.001877E+0	1.023013E+0	1.077830E+0	1.057167E+0	1.043910E+0	1.043622E+0	1.009841E+0	1.073476E+0	1.023610E+0	1.020830E+0	1.063571E+0	1.026572E+0	1.039856E+0	1.050666E+0	1.025423E+0	1.062746E+0	9.988163E-1	1.052410E+0	1.008478E+0	1.109485E+0	1.036217E+0	1.044664E+0	1.036948E+0	1.033124E+0	1.023048E+0	1.038612E+0	1.008617E+0	1.088018E+0	1.103098E+0	1.021640E+0	1.015802E+0	1.099457E+0	1.004946E+0	1.018913E+0	1.079375E+0	1.041831E+0	1.006170E+0	1.012364E+0	1.062391E+0	1.090301E+0	1.076608E+0	1.070621E+0	1.058886E+0	1.050326E+0	1.019337E+0	1.028795E+0	1.055434E+0	9.938950E-1	1.056951E+0	1.027785E+0	1.010201E+0	1.003429E+0	1.065932E+0	1.101584E+0	1.035079E+0	1.013496E+0	1.048240E+0	1.044272E+0	1.024293E+0	1.075227E+0	1.119258E+0	1.033193E+0	1.072733E+0	1.086757E+0	1.003914E+0	1.039482E+0	1.056259E+0	1.099426E+0	1.043511E+0	1.044245E+0	1.064268E+0	1.007660E+0	1.022868E+0	1.052007E+0	1.025582E+0	1.070113E+0	1.098165E+0	1.034715E+0	1.071832E+0	1.086500E+0	1.026419E+0	1.051592E+0	1.035098E+0	1.060230E+0	1.030293E+0	9.776254E-1	1.034390E+0	1.102939E+0	1.045697E+0	1.072743E+0	1.060963E+0	1.013080E+0	1.013085E+0	1.055264E+0	1.058216E+0	1.031076E+0	9.794670E-1	1.109369E+0	1.033373E+0	1.064605E+0	1.018537E+0	1.043090E+0	1.033125E+0	1.058524E+0	1.010201E+0	1.028489E+0	1.010247E+0	1.105449E+0	1.007974E+0	1.012404E+0	1.046726E+0	1.107804E+0	1.043226E+0	1.044900E+0	1.052649E+0	1.070811E+0	1.027438E+0	1.038903E+0	1.094526E+0	1.073376E+0	1.049449E+0	1.168971E+0	1.025600E+0	1.023043E+0	1.015323E+0
2.940070E+2	9.865317E-1	9.690209E-1	9.854719E-1	9.132668E-1	9.842821E-1	9.378520E-1	9.916162E-1	9.876133E-1	1.019980E+0	1.032490E+0	1.014518E+0	9.869485E-1	9.779048E-1	9.638475E-1	9.945041E-1	9.577600E-1	9.928679E-1	9.226040E-1	9.491230E-1	1.038191E+0	9.773593E-1	9.795055E-1	1.001013E+0	9.498591E-1	9.604181E-1	1.018628E+0	9.893785E-1	9.500553E-1	9.617131E-1	1.028709E+0	9.943019E-1	9.660402E-1	9.923397E-1	1.025345E+0	9.913765E-1	9.714172E-1	9.537633E-1	1.023018E+0	9.715621E-1	9.774337E-1	1.021002E+0	1.010006E+0	1.082134E+0	1.001201E+0	9.776740E-1	9.343525E-1	1.030200E+0	9.309366E-1	9.754012E-1	9.974390E-1	1.003470E+0	9.768517E-1	9.758778E-1	9.891308E-1	9.672231E-1	1.020133E+0	9.338843E-1	9.987480E-1	9.866738E-1	1.021324E+0	9.957516E-1	9.485476E-1	9.634624E-1	9.521715E-1	9.997693E-1	9.832990E-1	1.025417E+0	1.006884E+0	9.744054E-1	9.736720E-1	9.994187E-1	9.947210E-1	9.911026E-1	9.646008E-1	1.019028E+0	1.022602E+0	1.052660E+0	1.040225E+0	9.849035E-1	9.806692E-1	1.053222E+0	9.741260E-1	9.798719E-1	9.821014E-1	9.877837E-1	9.883940E-1	9.372862E-1	1.048199E+0	1.001669E+0	9.594831E-1	9.369094E-1	1.008063E+0	1.035367E+0	9.605646E-1	9.854484E-1	9.697898E-1	9.572688E-1	9.863339E-1	9.566524E-1	1.010062E+0	9.684454E-1	9.799333E-1	1.008523E+0	9.731957E-1	9.983479E-1	9.499967E-1	1.006731E+0	1.039881E+0	1.000518E+0	9.808462E-1	9.793803E-1	9.587942E-1	9.848800E-1	9.507385E-1	9.469999E-1	9.832516E-1	9.697356E-1	1.001079E+0	1.057598E+0	9.515543E-1	9.854351E-1	1.003052E+0	9.515346E-1	9.652271E-1	9.963417E-1	1.037858E+0	1.009236E+0	1.039251E+0	9.870333E-1	1.007173E+0	9.852278E-1	1.035794E+0	9.809301E-1	1.010654E+0	1.016827E+0	9.793459E-1	9.756129E-1	1.004569E+0	9.843702E-1	9.995268E-1	9.801986E-1	9.381099E-1	9.915155E-1	9.904268E-1	1.000871E+0	1.053882E+0	1.003945E+0	9.993533E-1	1.016589E+0	9.081638E-1	1.016359E+0	9.899863E-1	1.034015E+0	9.525963E-1	9.918146E-1	9.862386E-1	1.000911E+0	9.979837E-1	9.866001E-1	1.017873E+0	9.543464E-1	1.004661E+0	1.014352E+0	1.002057E+0	9.733276E-1	9.762578E-1	9.798850E-1	9.790790E-1	9.767080E-1	9.951146E-1	9.971355E-1	1.043055E+0
2.945030E+2	1.008749E+0	1.020074E+0	9.883753E-1	9.664037E-1	9.975989E-1	1.030979E+0	9.978797E-1	1.007871E+0	9.255591E-1	9.590292E-1	1.007687E+0	9.899332E-1	1.042962E+0	9.955516E-1	9.867181E-1	9.861124E-1	1.035910E+0	9.541682E-1	9.548961E-1	9.964130E-1	9.505270E-1	9.850284E-1	1.047535E+0	1.015972E+0	9.895418E-1	9.848628E-1	1.037185E+0	9.745049E-1	9.966173E-1	1.042314E+0	1.001120E+0	9.792657E-1	1.005422E+0	9.923490E-1	1.006397E+0	9.714356E-1	1.025332E+0	9.911680E-1	1.016989E+0	1.004550E+0	9.785106E-1	1.047014E+0	9.772232E-1	9.740154E-1	1.000244E+0	9.577021E-1	1.006965E+0	9.788396E-1	9.882346E-1	1.028201E+0	9.938506E-1	1.010789E+0	9.775017E-1	1.001108E+0	9.812374E-1	9.527326E-1	1.004498E+0	1.010170E+0	9.997372E-1	9.788445E-1	9.859442E-1	9.788312E-1	9.717692E-1	9.649602E-1	1.041572E+0	9.582659E-1	1.041470E+0	9.761787E-1	9.684326E-1	9.753916E-1	1.016572E+0	9.917446E-1	9.921190E-1	9.622177E-1	9.686969E-1	1.056233E+0	1.021563E+0	9.835667E-1	1.014338E+0	9.905392E-1	9.914089E-1	1.017509E+0	9.880568E-1	9.683964E-1	9.873410E-1	9.734737E-1	1.001083E+0	9.677201E-1	1.041925E+0	1.001250E+0	1.052893E+0	9.910621E-1	1.013343E+0	1.011165E+0	9.591943E-1	9.874214E-1	1.028588E+0	9.757734E-1	1.033543E+0	1.026609E+0	9.846931E-1	9.680641E-1	9.635440E-1	9.797534E-1	1.012477E+0	9.995753E-1	1.027004E+0	9.776985E-1	1.038162E+0	9.498334E-1	1.040580E+0	1.059177E+0	9.846987E-1	9.938104E-1	1.030833E+0	9.956988E-1	1.004771E+0	9.995306E-1	1.000280E+0	1.008876E+0	1.056322E+0	1.020486E+0	9.507075E-1	1.002615E+0	9.984502E-1	9.947278E-1	9.766528E-1	9.731509E-1	1.004259E+0	9.473017E-1	1.014524E+0	9.849150E-1	9.689103E-1	9.341994E-1	1.025473E+0	1.003800E+0	9.963275E-1	1.036002E+0	9.898797E-1	9.870617E-1	9.867874E-1	9.900186E-1	9.828542E-1	1.018820E+0	9.853940E-1	1.030748E+0	9.463771E-1	1.020417E+0	1.003372E+0	9.833706E-1	1.028267E+0	1.015488E+0	1.039464E+0	1.011845E+0	1.007958E+0	9.912826E-1	9.127617E-1	1.034363E+0	1.055190E+0	1.019963E+0	1.042075E+0	9.831568E-1	1.036625E+0	1.005761E+0	1.004602E+0	9.914566E-1	1.034800E+0	1.002327E+0	1.030257E+0	1.047116E+0	9.936664E-1	9.898337E-1
2.950050E+2	1.090919E+0	1.054136E+0	1.042953E+0	9.812513E-1	1.072047E+0	1.039563E+0	1.004013E+0	1.047510E+0	1.091747E+0	1.059570E+0	1.053707E+0	1.010135E+0	1.032702E+0	9.845504E-1	1.041935E+0	1.056986E+0	1.034227E+0	1.017453E+0	9.785571E-1	1.020425E+0	1.063888E+0	1.087123E+0	1.033222E+0	1.074233E+0	1.042410E+0	1.022218E+0	1.022302E+0	9.853706E-1	1.028931E+0	1.097039E+0	1.042199E+0	1.060765E+0	1.028865E+0	1.044898E+0	1.066760E+0	1.062092E+0	1.053120E+0	1.032253E+0	1.077363E+0	1.090816E+0	1.025249E+0	1.065405E+0	1.020784E+0	1.120443E+0	1.027552E+0	1.043789E+0	1.091867E+0	1.005359E+0	1.041924E+0	1.041224E+0	1.084646E+0	1.054063E+0	1.018866E+0	1.074134E+0	1.102156E+0	1.019842E+0	9.835070E-1	9.824098E-1	1.093283E+0	1.040827E+0	1.079530E+0	1.041106E+0	1.045019E+0	1.013772E+0	1.089848E+0	1.020763E+0	1.083220E+0	1.055419E+0	9.814878E-1	1.001149E+0	1.010067E+0	9.990638E-1	1.070548E+0	1.021045E+0	1.050666E+0	1.060617E+0	1.027629E+0	1.063909E+0	1.042167E+0	1.024987E+0	1.103768E+0	1.047971E+0	1.034010E+0	1.025212E+0	1.039681E+0	1.075309E+0	1.059925E+0	1.038534E+0	1.042047E+0	1.083002E+0	1.059032E+0	1.049922E+0	1.081179E+0	1.074670E+0	1.068718E+0	1.031079E+0	1.011736E+0	1.031107E+0	1.051164E+0	1.090170E+0	1.026685E+0	1.062051E+0	1.034196E+0	1.072819E+0	1.050181E+0	1.053203E+0	1.028018E+0	1.014971E+0	1.039212E+0	1.093221E+0	1.046992E+0	1.025821E+0	1.005385E+0	1.004398E+0	1.086787E+0	1.044916E+0	1.005694E+0	1.096477E+0	1.042117E+0	1.134583E+0	1.065401E+0	1.024784E+0	1.026606E+0	1.038508E+0	1.065342E+0	1.066845E+0	1.078227E+0	1.042744E+0	1.050151E+0	1.004119E+0	9.999298E-1	1.095810E+0	1.062090E+0	1.029390E+0	1.024878E+0	1.022601E+0	1.047586E+0	1.064575E+0	1.037411E+0	1.017363E+0	1.006927E+0	1.022867E+0	1.069827E+0	1.038450E+0	1.116446E+0	1.089236E+0	1.087480E+0	1.032126E+0	1.023103E+0	1.021850E+0	1.092567E+0	1.078881E+0	1.108339E+0	1.037768E+0	1.030779E+0	1.029952E+0	9.921801E-1	1.039294E+0	1.089341E+0	1.033788E+0	1.045096E+0	1.029614E+0	1.079048E+0	9.989113E-1	1.047666E+0	1.034044E+0	1.050126E+0	1.039254E+0	1.009907E+0	1.062760E+0	1.128402E+0	1.014374E+0
2.955100E+2	1.194970E+0	1.098030E+0	1.053311E+0	1.078633E+0	1.053689E+0	1.068634E+0	1.130084E+0	1.088520E+0	1.089381E+0	1.132117E+0	1.103472E+0	1.164169E+0	1.073874E+0	1.138753E+0	1.099284E+0	1.129014E+0	1.082849E+0	1.076116E+0	1.095226E+0	1.103679E+0	1.084920E+0	1.123673E+0	1.090620E+0	1.063117E+0	1.068820E+0	1.132292E+0	1.096344E+0	1.090605E+0	1.094323E+0	1.119864E+0	1.052163E+0	1.113354E+0	1.060389E+0	1.121142E+0	1.134233E+0	1.083053E+0	1.026741E+0	1.084352E+0	1.087202E+0	1.125228E+0	1.094108E+0	1.107217E+0	1.101475E+0	1.084957E+0	1.072721E+0	1.116417E+0	1.122809E+0	1.048480E+0	1.099013E+0	1.117636E+0	1.133130E+0	1.076971E+0	1.110584E+0	1.088997E+0	1.086496E+0	1.094609E+0	1.101538E+0	1.104285E+0	1.171308E+0	1.120843E+0	1.135626E+0	1.087129E+0	1.044690E+0	1.081337E+0	1.109649E+0	1.076373E+0	1.083331E+0	1.064827E+0	1.125146E+0	1.083778E+0	1.068592E+0	1.105079E+0	1.098398E+0	1.077895E+0	1.080451E+0	1.069095E+0	1.123926E+0	1.073734E+0	1.076228E+0	1.070718E+0	1.118939E+0	1.084188E+0	1.052809E+0	1.132891E+0	1.137297E+0	1.154233E+0	1.092392E+0	1.064137E+0	1.110902E+0	1.082085E+0	1.113951E+0	1.094594E+0	1.119936E+0	1.095130E+0	1.078295E+0	1.091965E+0	1.084427E+0	1.096550E+0	1.089620E+0	1.069387E+0	1.116118E+0	1.091011E+0	1.073702E+0	1.108747E+0	1.097604E+0	1.071316E+0	1.150430E+0	1.081072E+0	1.098481E+0	1.097375E+0	1.119168E+0	1.073445E+0	1.177759E+0	1.156226E+0	1.145731E+0	1.151193E+0	1.060516E+0	1.136541E+0	1.037503E+0	1.104808E+0	1.061315E+0	1.093371E+0	1.127073E+0	1.065730E+0	1.138832E+0	1.159977E+0	1.099322E+0	1.092556E+0	1.066642E+0	1.125543E+0	1.079808E+0	1.104799E+0	1.102458E+0	1.154694E+0	1.080254E+0	1.113823E+0	1.112115E+0	1.177900E+0	1.047895E+0	1.143756E+0	1.090722E+0	1.093238E+0	1.101459E+0	1.097286E+0	1.061919E+0	1.168795E+0	1.098826E+0	1.099855E+0	1.099310E+0	1.057453E+0	1.138680E+0	1.185252E+0	1.119713E+0	1.080637E+0	1.111109E+0	1.129211E+0	1.058604E+0	1.065548E+0	1.103108E+0	1.091936E+0	1.068870E+0	1.126197E+0	1.143488E+0	1.038126E+0	1.092183E+0	1.105099E+0	1.161857E+0	1.062379E+0	1.091059E+0	1.102234E+0	1.094558E+0	1.164809E+0
2.960030E+2	1.123526E+0	1.109562E+0	1.100093E+0	1.048300E+0	1.106292E+0	1.071074E+0	1.103248E+0	1.105351E+0	1.127630E+0	1.080002E+0	1.110681E+0	1.144404E+0	1.144306E+0	1.115913E+0	1.057627E+0	1.143772E+0	1.166384E+0	1.065987E+0	1.109409E+0	1.110715E+0	1.077466E+0	1.134155E+0	1.084283E+0	1.124702E+0	1.105089E+0	1.112619E+0	1.068544E+0	1.100520E+0	1.123725E+0	1.136973E+0	1.053936E+0	1.109866E+0	1.106994E+0	1.103440E+0	1.090336E+0	1.123123E+0	1.049356E+0	1.177847E+0	1.111992E+0	1.061420E+0	1.091774E+0	1.122380E+0	1.129210E+0	1.112426E+0	1.139518E+0	1.105118E+0	1.158834E+0	1.058967E+0	1.064583E+0	1.103993E+0	1.127872E+0	1.072916E+0	1.038899E+0	1.103611E+0	1.047021E+0	1.049138E+0	1.083766E+0	1.129370E+0	1.090922E+0	1.066743E+0	1.059298E+0	1.070716E+0	1.115095E+0	1.065289E+0	1.122125E+0	1.107365E+0	1.151496E+0	1.109222E+0	1.158763E+0	1.117343E+0	1.046993E+0	1.089547E+0	1.070252E+0	1.063176E+0	1.089516E+0	1.117171E+0	1.147656E+0	1.109487E+0	1.134993E+0	1.098224E+0	1.157408E+0	1.129951E+0	1.044944E+0	1.087755E+0	1.087948E+0	1.111348E+0	1.152470E+0	1.079632E+0	1.102820E+0	1.113161E+0	1.136636E+0	1.105515E+0	1.063655E+0	1.116729E+0	1.107650E+0	1.067256E+0	1.070253E+0	1.054824E+0	1.122506E+0	1.120203E+0	1.064657E+0	1.071274E+0	1.029236E+0	1.107402E+0	1.082650E+0	1.126366E+0	1.103406E+0	1.110308E+0	1.122005E+0	1.090722E+0	1.083193E+0	1.085304E+0	1.138856E+0	1.086578E+0	1.110888E+0	1.147285E+0	1.086093E+0	1.108524E+0	1.151586E+0	1.104619E+0	1.108406E+0	1.124310E+0	1.157861E+0	1.104151E+0	1.124356E+0	1.140920E+0	1.068395E+0	1.085855E+0	1.133577E+0	1.108032E+0	1.140013E+0	1.089292E+0	1.073744E+0	1.125024E+0	1.124717E+0	1.156203E+0	1.108723E+0	1.088763E+0	1.168032E+0	1.070957E+0	1.075111E+0	1.122577E+0	1.139651E+0	1.124217E+0	1.138795E+0	1.110992E+0	1.052912E+0	1.193947E+0	1.092530E+0	1.080636E+0	1.147549E+0	1.124275E+0	1.101661E+0	1.114000E+0	1.112662E+0	1.086941E+0	1.082209E+0	1.144956E+0	1.123535E+0	1.115519E+0	1.122691E+0	1.123387E+0	1.103238E+0	1.037114E+0	1.090510E+0	1.120543E+0	1.114078E+0	1.093907E+0	1.058218E+0	1.073518E+0	1.123268E+0	1.199075E+0
2.964990E+2	1.007834E+0	1.014097E+0	1.028976E+0	1.068841E+0	9.955013E-1	1.002122E+0	1.008759E+0	1.034993E+0	1.028227E+0	1.066992E+0	1.048823E+0	1.104636E+0	1.010881E+0	9.968203E-1	1.038317E+0	1.045737E+0	1.066032E+0	9.937766E-1	1.045145E+0	1.078687E+0	1.005068E+0	1.016563E+0	1.052651E+0	1.028142E+0	1.029135E+0	1.051659E+0	1.040583E+0	1.034001E+0	1.022984E+0	1.060986E+0	1.018891E+0	1.062511E+0	1.061633E+0	1.056728E+0	1.022123E+0	1.013304E+0	1.005111E+0	1.038353E+0	1.066999E+0	1.086647E+0	1.019232E+0	1.027501E+0	1.015660E+0	1.071266E+0	1.047548E+0	1.014426E+0	1.045839E+0	1.062735E+0	1.023957E+0	1.090638E+0	1.048280E+0	1.042220E+0	1.069788E+0	1.017192E+0	1.029899E+0	1.087419E+0	1.081520E+0	1.024347E+0	1.084579E+0	9.925884E-1	1.008547E+0	1.014102E+0	9.930855E-1	1.035125E+0	1.058463E+0	9.975940E-1	1.054812E+0	1.088842E+0	1.090156E+0	1.046001E+0	1.013939E+0	1.023400E+0	1.036310E+0	1.026914E+0	1.016220E+0	1.069702E+0	1.029762E+0	1.028607E+0	1.042509E+0	1.072035E+0	1.081205E+0	1.048390E+0	1.015370E+0	1.038478E+0	9.925461E-1	1.041378E+0	1.062517E+0	1.048363E+0	1.081970E+0	1.044914E+0	1.026135E+0	1.026422E+0	1.009339E+0	1.005392E+0	1.039689E+0	1.013167E+0	1.016621E+0	1.058936E+0	1.072113E+0	1.043916E+0	1.060823E+0	1.028787E+0	1.027454E+0	1.030253E+0	1.056604E+0	1.084164E+0	1.080481E+0	1.079445E+0	1.066672E+0	1.046417E+0	1.021854E+0	1.041208E+0	1.059354E+0	1.022671E+0	1.013608E+0	1.033385E+0	1.046674E+0	1.039684E+0	1.000363E+0	1.028325E+0	1.020861E+0	1.031923E+0	1.054425E+0	1.033586E+0	1.040464E+0	1.045820E+0	1.005643E+0	1.015684E+0	1.040186E+0	1.023291E+0	1.054600E+0	1.023640E+0	1.011518E+0	9.707715E-1	1.046563E+0	1.043692E+0	1.063137E+0	1.082674E+0	1.016040E+0	9.944362E-1	1.008485E+0	1.059218E+0	1.030399E+0	1.055079E+0	1.073571E+0	1.046660E+0	1.055122E+0	1.013727E+0	1.050271E+0	1.013517E+0	1.067886E+0	1.072574E+0	1.057472E+0	1.039080E+0	1.024754E+0	1.070105E+0	1.039081E+0	1.070625E+0	1.042249E+0	1.042695E+0	1.077693E+0	1.026295E+0	1.046140E+0	1.053926E+0	1.041451E+0	9.948648E-1	1.029139E+0	1.035210E+0	1.008534E+0	1.066693E+0	1.077927E+0	9.451389E-1
2.970040E+2	1.071244E+0	1.020170E+0	1.004771E+0	9.897592E-1	1.085098E+0	1.007672E+0	1.071595E+0	1.043868E+0	1.033387E+0	9.827205E-1	1.041839E+0	1.027813E+0	1.041800E+0	1.044970E+0	1.025478E+0	1.053842E+0	1.050571E+0	9.758332E-1	1.021231E+0	1.047616E+0	1.023780E+0	1.022270E+0	1.041391E+0	1.072093E+0	1.040322E+0	1.050264E+0	1.007471E+0	9.791116E-1	1.040739E+0	1.006288E+0	1.017390E+0	1.057827E+0	1.009127E+0	1.022485E+0	1.013617E+0	1.018911E+0	1.015995E+0	1.001620E+0	1.045307E+0	1.046910E+0	1.027224E+0	9.682012E-1	1.010865E+0	1.027310E+0	1.008530E+0	1.032846E+0	1.029726E+0	9.855968E-1	1.009146E+0	9.810430E-1	1.034989E+0	9.836946E-1	9.930955E-1	1.028634E+0	1.025991E+0	1.022481E+0	1.051611E+0	1.078463E+0	9.977095E-1	1.045246E+0	9.755331E-1	1.033932E+0	1.002246E+0	1.009425E+0	1.020351E+0	1.033255E+0	1.066435E+0	1.052031E+0	1.003360E+0	1.030400E+0	1.008101E+0	9.841011E-1	1.049287E+0	1.026306E+0	9.700404E-1	1.072769E+0	1.035872E+0	1.007246E+0	1.048344E+0	1.050177E+0	9.828670E-1	1.048494E+0	9.977433E-1	1.034750E+0	1.052496E+0	1.069789E+0	1.037756E+0	9.936684E-1	1.065601E+0	1.016737E+0	1.000528E+0	1.001462E+0	1.001439E+0	1.020550E+0	1.043197E+0	1.061275E+0	1.012624E+0	1.001000E+0	9.940527E-1	1.076883E+0	9.808905E-1	9.605164E-1	1.013099E+0	1.040163E+0	1.075234E+0	1.053886E+0	1.042823E+0	1.031917E+0	1.014005E+0	1.067052E+0	1.047913E+0	9.869717E-1	1.003937E+0	1.007633E+0	1.019419E+0	1.007089E+0	1.000499E+0	1.072029E+0	1.080787E+0	1.023681E+0	1.039997E+0	1.065197E+0	1.021000E+0	1.007293E+0	1.056556E+0	9.919505E-1	1.000803E+0	1.006777E+0	1.074650E+0	1.056824E+0	1.010859E+0	1.020098E+0	1.011933E+0	1.084169E+0	1.062002E+0	1.031790E+0	9.754377E-1	1.012390E+0	9.923823E-1	1.009494E+0	1.026534E+0	1.017951E+0	1.015583E+0	1.051102E+0	1.064501E+0	1.062515E+0	1.057957E+0	1.018074E+0	1.028055E+0	1.015661E+0	1.030957E+0	1.044640E+0	1.020184E+0	1.066354E+0	1.033788E+0	1.022166E+0	1.062611E+0	1.016922E+0	1.038332E+0	1.053853E+0	1.037149E+0	1.012269E+0	1.025560E+0	9.207209E-1	1.034081E+0	1.033346E+0	1.064535E+0	1.058774E+0	1.027106E+0	1.041123E+0	9.722684E-1	1.038210E+0
2.975020E+2	1.001790E+0	1.087202E+0	1.031450E+0	9.940865E-1	1.007290E+0	1.054653E+0	9.979143E-1	1.004044E+0	1.036852E+0	9.861458E-1	9.953201E-1	1.024770E+0	1.032024E+0	1.039752E+0	1.048967E+0	9.914765E-1	1.011679E+0	1.059106E+0	9.851485E-1	1.037435E+0	1.009631E+0	1.064553E+0	1.035533E+0	1.072999E+0	9.974113E-1	1.023008E+0	1.022899E+0	1.046601E+0	1.023211E+0	1.031563E+0	9.965934E-1	1.051759E+0	1.019312E+0	1.062029E+0	1.012003E+0	1.018339E+0	1.027755E+0	1.010537E+0	1.028647E+0	1.015976E+0	9.795048E-1	1.005214E+0	1.014641E+0	1.016383E+0	1.044376E+0	1.009870E+0	1.003203E+0	1.006542E+0	1.021098E+0	1.023036E+0	1.052229E+0	1.043847E+0	1.015376E+0	1.019158E+0	1.037704E+0	1.025421E+0	1.038328E+0	1.025470E+0	1.011148E+0	9.808959E-1	1.003107E+0	1.018194E+0	1.062287E+0	1.066019E+0	1.003746E+0	9.982179E-1	1.048920E+0	1.011860E+0	1.050571E+0	9.791712E-1	1.044776E+0	9.984390E-1	1.039394E+0	1.036137E+0	1.012384E+0	1.000078E+0	1.009760E+0	1.044302E+0	1.012599E+0	9.999097E-1	9.859038E-1	1.030673E+0	1.022843E+0	1.016731E+0	1.020442E+0	1.004194E+0	1.023618E+0	1.037871E+0	1.025123E+0	9.872902E-1	1.040616E+0	1.010734E+0	1.050273E+0	1.043385E+0	1.020140E+0	1.005057E+0	1.002501E+0	1.044072E+0	9.994164E-1	9.786341E-1	1.044370E+0	1.032253E+0	1.016666E+0	1.029703E+0	1.026540E+0	1.039668E+0	1.035060E+0	1.039965E+0	1.027984E+0	1.024031E+0	9.906491E-1	1.016602E+0	1.023666E+0	1.055909E+0	1.018345E+0	1.058233E+0	1.019016E+0	1.014938E+0	1.031123E+0	1.042782E+0	9.855877E-1	9.962809E-1	1.053929E+0	9.944238E-1	1.069238E+0	1.013302E+0	9.697785E-1	1.026694E+0	1.055787E+0	1.008829E+0	1.042485E+0	1.034128E+0	1.052589E+0	1.004272E+0	1.016090E+0	1.021791E+0	1.063972E+0	1.019157E+0	1.002246E+0	1.028186E+0	9.916538E-1	1.047662E+0	9.909887E-1	1.018146E+0	1.005786E+0	1.008938E+0	1.037715E+0	1.035422E+0	1.004742E+0	1.040718E+0	9.977924E-1	1.024183E+0	1.046018E+0	1.038895E+0	1.021704E+0	1.022546E+0	1.016075E+0	1.007130E+0	1.009884E+0	1.021973E+0	1.039743E+0	1.021754E+0	1.019618E+0	1.006417E+0	9.990200E-1	1.026062E+0	1.014539E+0	1.023705E+0	9.759061E-1	1.050392E+0	1.050952E+0	1.003581E+0
2.980040E+2	1.050275E+0	9.898330E-1	1.002664E+0	1.030004E+0	1.016318E+0	1.001006E+0	1.040074E+0	9.954053E-1	1.036265E+0	9.944657E-1	1.068476E+0	1.036173E+0	9.929943E-1	1.019708E+0	1.017584E+0	1.001444E+0	1.028250E+0	1.012491E+0	1.020200E+0	1.028743E+0	9.873705E-1	1.008566E+0	1.029230E+0	1.002588E+0	1.020855E+0	1.000486E+0	9.748972E-1	9.699798E-1	1.014558E+0	9.896887E-1	9.928355E-1	1.009675E+0	9.621099E-1	1.042327E+0	9.896854E-1	9.736512E-1	1.007467E+0	9.920574E-1	1.011845E+0	1.061581E+0	9.913426E-1	1.015750E+0	9.621902E-1	1.024072E+0	1.006073E+0	1.013867E+0	1.051098E+0	1.027960E+0	1.026922E+0	1.009273E+0	9.955870E-1	1.004535E+0	9.983586E-1	1.049809E+0	1.017803E+0	9.908596E-1	1.029296E+0	1.005565E+0	1.000447E+0	1.006019E+0	1.024539E+0	1.021537E+0	1.013343E+0	9.702356E-1	1.014677E+0	1.039972E+0	9.824573E-1	1.016033E+0	9.894508E-1	1.055160E+0	1.007706E+0	1.005010E+0	9.737384E-1	1.003950E+0	1.010686E+0	1.032557E+0	1.041366E+0	1.038041E+0	1.001473E+0	1.074488E+0	9.927799E-1	1.017662E+0	1.034591E+0	1.053282E+0	1.020521E+0	1.006795E+0	1.014416E+0	1.047816E+0	9.832588E-1	1.032629E+0	1.000450E+0	1.021127E+0	1.015768E+0	9.658837E-1	1.041074E+0	1.021920E+0	1.024376E+0	1.004291E+0	1.034010E+0	1.027423E+0	1.039245E+0	1.009956E+0	9.911044E-1	9.826414E-1	9.958549E-1	1.000362E+0	1.054307E+0	1.031191E+0	1.034362E+0	9.846280E-1	1.056822E+0	1.017158E+0	1.001129E+0	9.942806E-1	1.030872E+0	1.031635E+0	1.009813E+0	1.012007E+0	1.010519E+0	9.904846E-1	1.078498E+0	1.002633E+0	9.968565E-1	1.046632E+0	1.003163E+0	1.031418E+0	1.051287E+0	1.024351E+0	1.014587E+0	1.001502E+0	1.001946E+0	9.962284E-1	1.005271E+0	1.020870E+0	1.058794E+0	1.044850E+0	1.016461E+0	1.006348E+0	1.034483E+0	1.036773E+0	9.899069E-1	1.041045E+0	1.014932E+0	1.047236E+0	1.026308E+0	9.717076E-1	1.048688E+0	1.001839E+0	1.059815E+0	1.037404E+0	1.031550E+0	9.965215E-1	9.627709E-1	9.961380E-1	1.048598E+0	1.015280E+0	1.054938E+0	1.034103E+0	1.020455E+0	1.024924E+0	9.506955E-1	9.965032E-1	9.918979E-1	1.008104E+0	1.009147E+0	1.054026E+0	9.479211E-1	1.010432E+0	1.059204E+0	1.040963E+0	9.848365E-1	1.049831E+0
2.985020E+2	9.818562E-1	9.540121E-1	9.728162E-1	1.027278E+0	9.864314E-1	9.683346E-1	9.759139E-1	1.007151E+0	9.886497E-1	1.020892E+0	9.872281E-1	9.889152E-1	9.952610E-1	9.601349E-1	1.002913E+0	1.025533E+0	9.714487E-1	9.776864E-1	9.945668E-1	1.008783E+0	9.995592E-1	9.757872E-1	9.791204E-1	1.005150E+0	1.017191E+0	9.903514E-1	9.888367E-1	9.873365E-1	9.600039E-1	1.012824E+0	9.861729E-1	9.837244E-1	1.006195E+0	9.930555E-1	1.004709E+0	9.837156E-1	9.727260E-1	1.005258E+0	1.010995E+0	9.796181E-1	9.811491E-1	9.959735E-1	1.050813E+0	1.025783E+0	9.837513E-1	9.988433E-1	9.994357E-1	9.600146E-1	9.802459E-1	9.415616E-1	9.821370E-1	9.855795E-1	9.801329E-1	9.749461E-1	1.001276E+0	9.704132E-1	9.604897E-1	1.010675E+0	9.825800E-1	1.014410E+0	1.002959E+0	9.927486E-1	9.677829E-1	9.748840E-1	9.815674E-1	1.001932E+0	9.911866E-1	9.869166E-1	9.994028E-1	9.668579E-1	9.984938E-1	9.750184E-1	1.031029E+0	1.022282E+0	1.026887E+0	9.536689E-1	9.950668E-1	9.976097E-1	9.764001E-1	9.748167E-1	1.008886E+0	1.011088E+0	9.552261E-1	9.677183E-1	9.894887E-1	1.035530E+0	9.811343E-1	9.680968E-1	9.919761E-1	1.004271E+0	9.997816E-1	1.011315E+0	9.491397E-1	9.814955E-1	9.534210E-1	9.753601E-1	1.017621E+0	1.003401E+0	1.017404E+0	1.017666E+0	1.007151E+0	9.785982E-1	1.001036E+0	9.984747E-1	1.018831E+0	9.685698E-1	9.468411E-1	9.891379E-1	9.758142E-1	9.869591E-1	9.937775E-1	9.812406E-1	9.902577E-1	1.014090E+0	1.002812E+0	1.000549E+0	1.025821E+0	9.993490E-1	1.017649E+0	9.693828E-1	9.584223E-1	1.022500E+0	1.008741E+0	1.003297E+0	9.583245E-1	9.816987E-1	9.742622E-1	9.908240E-1	9.447337E-1	9.948838E-1	9.871842E-1	9.803459E-1	9.697196E-1	1.005898E+0	9.938345E-1	9.761699E-1	1.018488E+0	1.021350E+0	1.027433E+0	1.004294E+0	1.029998E+0	1.025761E+0	9.997877E-1	9.911681E-1	9.861900E-1	9.850592E-1	9.973569E-1	9.373111E-1	9.837807E-1	9.871924E-1	9.468389E-1	9.828840E-1	1.010727E+0	1.002000E+0	9.659834E-1	1.017172E+0	9.743733E-1	9.571517E-1	9.905834E-1	9.605238E-1	1.022053E+0	1.033463E+0	1.038189E+0	1.000138E+0	1.016010E+0	9.992244E-1	1.005669E+0	1.011088E+0	1.021884E+0	1.015825E+0	9.670468E-1	9.647189E-1
2.990010E+2	9.928289E-1	9.398433E-1	9.272850E-1	9.164956E-1	9.783020E-1	9.738216E-1	9.543265E-1	9.133462E-1	9.247798E-1	9.634321E-1	9.247649E-1	9.519833E-1	9.576974E-1	9.356803E-1	9.240611E-1	9.872308E-1	9.340300E-1	8.996777E-1	9.557974E-1	9.464669E-1	9.564457E-1	9.694446E-1	9.367653E-1	9.046873E-1	9.171291E-1	9.328767E-1	9.563770E-1	9.643603E-1	9.706744E-1	9.674347E-1	9.591718E-1	9.290373E-1	9.967211E-1	9.154995E-1	9.316807E-1	9.794055E-1	9.607724E-1	9.562529E-1	9.529708E-1	8.977588E-1	9.964299E-1	9.932215E-1	9.496437E-1	9.393801E-1	9.604870E-1	9.574394E-1	9.437474E-1	9.306699E-1	9.374525E-1	9.225453E-1	9.208363E-1	9.715256E-1	9.618902E-1	9.452013E-1	9.273986E-1	9.834811E-1	9.530969E-1	9.232009E-1	9.359870E-1	9.615030E-1	9.473523E-1	9.184654E-1	9.323363E-1	9.285304E-1	9.637871E-1	9.524838E-1	9.735935E-1	9.454496E-1	9.414089E-1	9.635244E-1	9.230623E-1	9.877038E-1	9.374449E-1	9.399818E-1	9.253552E-1	9.655150E-1	9.426506E-1	9.234815E-1	9.482010E-1	9.318421E-1	9.558369E-1	9.389900E-1	9.616037E-1	9.034291E-1	9.318733E-1	9.480446E-1	9.902203E-1	9.275641E-1	9.831188E-1	9.453573E-1	9.302371E-1	9.312011E-1	9.390977E-1	9.554484E-1	9.749638E-1	9.663866E-1	9.160199E-1	9.389118E-1	9.140151E-1	9.892665E-1	9.018464E-1	9.695176E-1	9.654601E-1	9.398538E-1	9.304399E-1	9.267315E-1	9.318112E-1	9.190744E-1	9.345675E-1	9.383255E-1	9.534192E-1	9.247621E-1	9.092978E-1	9.410950E-1	9.645584E-1	8.843308E-1	9.270978E-1	9.723316E-1	9.108731E-1	9.618700E-1	9.816977E-1	9.372628E-1	9.183975E-1	9.222295E-1	9.246702E-1	9.669052E-1	9.619229E-1	9.327061E-1	9.770829E-1	9.520088E-1	9.283157E-1	9.186873E-1	9.459863E-1	9.498099E-1	9.322284E-1	9.513739E-1	9.125333E-1	9.251573E-1	9.303797E-1	9.385557E-1	9.637927E-1	9.291207E-1	9.400720E-1	9.334346E-1	9.572362E-1	9.929014E-1	9.537466E-1	9.144170E-1	9.574488E-1	9.362177E-1	9.752025E-1	9.317846E-1	9.245619E-1	9.352577E-1	9.196082E-1	9.379999E-1	9.534794E-1	9.955821E-1	9.414797E-1	9.489972E-1	9.116604E-1	9.416434E-1	9.287760E-1	9.064469E-1	9.488228E-1	9.440103E-1	9.803023E-1	9.558857E-1	9.254490E-1	8.829530E-1	9.479818E-1	9.123185E-1
2.995040E+2	9.669430E-1	1.003860E+0	1.028578E+0	9.846403E-1	9.933406E-1	9.791450E-1	1.007570E+0	1.024604E+0	9.808533E-1	1.010899E+0	9.848380E-1	9.590494E-1	9.902708E-1	1.052113E+0	1.020525E+0	9.665883E-1	1.017984E+0	1.008127E+0	9.992587E-1	9.795079E-1	1.006667E+0	9.653262E-1	9.754062E-1	9.936150E-1	1.028936E+0	1.047915E+0	1.032392E+0	1.023979E+0	1.011153E+0	9.895062E-1	1.026268E+0	9.968694E-1	9.990333E-1	9.924718E-1	1.022171E+0	9.962015E-1	1.009671E+0	1.008389E+0	1.004593E+0	9.874680E-1	1.035226E+0	9.798384E-1	1.013267E+0	9.543981E-1	9.779260E-1	1.001460E+0	9.716803E-1	1.054562E+0	9.996757E-1	1.054513E+0	1.033671E+0	9.879498E-1	9.897000E-1	9.742492E-1	1.016207E+0	9.931016E-1	9.944636E-1	1.000649E+0	1.002728E+0	1.024483E+0	1.017617E+0	1.008356E+0	9.943283E-1	9.879126E-1	1.035135E+0	9.928166E-1	1.002482E+0	1.007854E+0	9.888715E-1	1.007324E+0	9.772470E-1	1.016766E+0	1.003058E+0	1.005105E+0	9.864358E-1	1.030109E+0	9.804656E-1	1.002707E+0	1.023243E+0	9.905771E-1	1.019583E+0	9.627106E-1	9.933421E-1	1.020019E+0	1.025259E+0	1.023113E+0	9.832351E-1	9.887376E-1	1.001573E+0	1.013788E+0	1.017008E+0	9.919635E-1	1.004822E+0	1.021206E+0	1.012312E+0	1.014435E+0	1.001499E+0	9.963464E-1	9.914711E-1	9.890839E-1	9.769884E-1	9.927208E-1	1.025999E+0	1.006668E+0	1.013396E+0	1.034544E+0	1.006782E+0	9.888127E-1	9.834014E-1	1.019868E+0	9.934699E-1	1.021484E+0	1.032633E+0	9.787852E-1	9.567280E-1	1.008219E+0	9.934373E-1	9.884654E-1	1.004726E+0	1.009929E+0	9.832388E-1	9.807008E-1	1.032976E+0	9.998881E-1	1.013507E+0	1.023077E+0	1.013592E+0	9.960191E-1	1.008711E+0	1.023963E+0	1.020645E+0	1.020854E+0	1.007559E+0	1.018389E+0	9.866431E-1	9.976316E-1	1.016912E+0	9.981175E-1	1.013980E+0	9.942476E-1	1.020401E+0	9.689739E-1	1.028018E+0	9.678120E-1	1.009731E+0	9.896731E-1	9.752189E-1	1.031889E+0	9.693815E-1	9.919221E-1	1.009920E+0	9.869870E-1	1.027202E+0	9.978017E-1	1.043620E+0	9.945699E-1	1.002364E+0	9.914373E-1	9.787437E-1	1.010578E+0	1.046982E+0	1.004092E+0	1.068044E+0	1.039961E+0	1.017894E+0	9.786014E-1	9.988163E-1	9.848185E-1	9.990721E-1	1.010506E+0	1.055734E+0	9.700658E-1
3.000060E+2	1.006306E+0	1.025250E+0	1.037207E+0	1.047496E+0	1.018318E+0	1.023040E+0	1.024201E+0	1.055449E+0	1.032599E+0	1.024165E+0	1.039373E+0	1.039109E+0	1.031752E+0	9.926115E-1	9.859514E-1	1.027728E+0	1.036608E+0	1.042911E+0	1.045029E+0	9.990633E-1	1.040326E+0	1.016323E+0	1.043945E+0	1.020961E+0	1.018477E+0	1.005363E+0	1.024599E+0	1.007743E+0	1.020399E+0	1.008983E+0	1.038958E+0	1.028935E+0	1.016629E+0	9.946174E-1	1.039751E+0	1.048687E+0	1.021608E+0	1.027506E+0	9.909489E-1	1.057599E+0	1.016347E+0	1.010003E+0	1.009446E+0	1.039984E+0	1.027387E+0	1.018520E+0	1.030835E+0	1.020251E+0	1.034605E+0	1.049071E+0	1.015539E+0	1.006563E+0	1.054542E+0	1.036636E+0	9.996105E-1	1.036723E+0	1.024326E+0	1.034440E+0	1.067111E+0	1.012688E+0	1.004425E+0	1.040698E+0	1.029923E+0	1.072419E+0	1.001089E+0	1.014578E+0	1.001361E+0	1.031888E+0	1.030295E+0	1.027962E+0	1.048715E+0	1.017062E+0	1.015337E+0	9.925439E-1	1.038252E+0	1.018073E+0	1.030691E+0	9.938584E-1	1.038083E+0	1.028367E+0	1.037011E+0	1.038876E+0	1.032394E+0	1.038821E+0	1.012417E+0	9.823237E-1	1.007376E+0	1.029915E+0	1.014950E+0	1.016664E+0	1.011907E+0	1.033660E+0	1.040899E+0	1.032582E+0	9.980896E-1	1.016841E+0	1.037983E+0	1.012978E+0	1.043683E+0	9.979265E-1	1.030400E+0	1.016954E+0	9.997335E-1	1.042660E+0	1.014938E+0	1.030126E+0	1.025199E+0	1.031819E+0	1.043871E+0	1.046188E+0	1.011862E+0	1.038753E+0	1.043017E+0	1.015840E+0	1.026685E+0	1.017033E+0	1.024815E+0	1.012908E+0	1.025110E+0	1.025552E+0	1.012555E+0	1.060623E+0	9.890989E-1	1.033530E+0	1.031098E+0	9.835993E-1	1.029157E+0	1.029406E+0	9.990986E-1	1.018813E+0	1.019424E+0	1.049757E+0	1.018875E+0	1.000761E+0	1.012410E+0	1.008183E+0	9.716337E-1	1.029869E+0	9.914779E-1	9.979441E-1	1.004248E+0	9.874376E-1	1.026202E+0	1.042204E+0	1.014749E+0	1.051721E+0	9.872741E-1	1.079121E+0	1.024832E+0	1.006545E+0	1.038696E+0	1.077640E+0	1.028721E+0	1.029908E+0	1.000487E+0	1.012432E+0	9.987709E-1	1.014595E+0	1.058854E+0	1.033004E+0	1.028866E+0	1.002544E+0	9.534746E-1	1.038935E+0	1.009106E+0	9.980765E-1	1.052751E+0	1.014070E+0	1.018485E+0	9.993614E-1	9.934488E-1	1.099484E+0
