Photon Energy (eV)	#1	#2	#3	#4	#5	#6	#7	#8	#9	#10	#11	#12	#13	#14	#15	#16	#17	#18	#19	#20	#21	#22	#23	#24	#25	#26	#27	#28	#29	#30	#31	#32	#33	#34	#35	#36	#37	#38	#39	#40	#41	#42	#43	#44	#45	#46	#47	#48	#49	#50	#51	#52	#53	#54	#55	#56	#57	#58	#59	#60	#61	#62	#63	#64	#65	#66	#67	#68	#69	#70	#71	#72	#73	#74	#75	#76	#77	#78	#79	#80	#81	#82	#83	#84	#85	#86	#87	#88	#89	#90	#91	#92	#93	#94	#95	#96	#97	#98	#99	#100	#101	#102	#103	#104	#105	#106	#107	#108	#109	#110	#111	#112	#113	#114	#115	#116	#117	#118	#119	#120	#121	#122	#123	#124	#125	#126	#127	#128	#129	#130	#131	#132	#133	#134	#135	#136	#137	#138	#139	#140	#141	#142	#143	#144	#145	#146	#147	#148	#149	#150	#151	#152	#153	#154	#155	#156	#157	#158	#159	#160	#161	#162	#163	#164	#165	#166	
5.300220E+2	-1.386467E-2	-8.310585E-3	-6.472267E-3	3.164311E-3	-1.036651E-2	-6.545065E-3	-5.789689E-3	2.702997E-3	-4.876170E-3	5.495491E-4	-4.299230E-3	1.158137E-3	-4.619626E-3	-5.166168E-3	-1.317556E-2	-6.756774E-3	-6.989217E-3	-2.738895E-3	-2.048177E-3	1.707323E-3	-8.902393E-3	-1.128138E-3	-1.062786E-2	-2.739496E-3	-8.312766E-3	-3.050039E-3	-5.646308E-3	-1.849511E-4	-1.296959E-2	-1.179340E-2	-4.776209E-3	-8.314871E-3	1.220288E-3	-9.163161E-3	-1.149699E-2	-3.237562E-3	-6.170052E-3	-9.142244E-3	-1.849774E-3	-3.841028E-3	-6.017063E-3	-1.772859E-3	-1.375512E-3	-1.162865E-2	-6.911829E-3	-6.833073E-3	-8.134588E-3	-1.336182E-2	-3.991781E-3	-4.338526E-3	-7.747847E-3	-1.645153E-2	-6.883638E-3	-6.016878E-3	-1.354741E-2	-9.664948E-3	-2.884024E-3	-6.306393E-4	-1.107744E-2	-4.254466E-3	-3.879455E-3	-1.205944E-2	-1.379357E-2	2.703960E-3	-9.670477E-3	-4.777133E-3	-1.924207E-3	-1.249422E-2	-4.296883E-3	-1.265989E-2	-7.087240E-3	-1.790156E-2	-8.527752E-3	5.109541E-4	-6.405560E-3	-1.203362E-2	-7.266425E-3	-6.748660E-3	2.033168E-3	-1.978489E-3	-1.056801E-2	-8.669969E-3	-5.672957E-3	-3.669890E-3	-7.729893E-3	-2.261891E-3	-4.314086E-3	-2.805750E-3	-1.374609E-2	-2.736668E-3	-3.744463E-3	-8.200495E-3	-3.893730E-4	-1.861733E-2	-9.241533E-3	-1.245368E-2	-6.036110E-3	-3.187991E-3	-2.293052E-3	-1.285661E-2	-4.639689E-3	-7.798276E-3	-1.800288E-2	-3.156077E-3	-6.501939E-3	-1.184712E-2	-2.037466E-3	-1.171300E-2	-6.007898E-3	-9.236438E-3	-1.347012E-2	-3.588973E-3	-8.958369E-3	-3.578284E-3	2.845985E-3	-1.295140E-2	-1.203673E-3	-9.544434E-3	-1.468848E-2	1.245625E-3	-1.001057E-2	-3.234308E-3	-3.686629E-3	-1.217152E-2	-3.306303E-3	-1.059352E-2	-1.201293E-5	-9.045204E-3	-2.516325E-3	-3.359096E-3	-9.296385E-3	-3.518107E-3	-1.249077E-2	-3.039644E-3	-1.566164E-2	-1.327686E-3	-4.598533E-3	-1.362645E-3	-3.397652E-3	-3.876361E-3	-5.943440E-3	-4.299692E-3	-1.158782E-2	-1.194489E-2	-1.750791E-2	-1.246890E-2	-5.991704E-3	-1.194168E-2	3.155154E-4	-5.461079E-3	-1.051798E-2	-4.018982E-3	-3.323602E-3	-1.640283E-2	-5.347319E-3	-1.051705E-2	-9.139474E-3	-6.510578E-3	-3.038530E-4	-1.529315E-2	-1.707534E-3	1.112086E-3	-1.132719E-2	-1.822731E-2	9.194692E-3	9.192078E-3
5.305080E+2	-1.221804E-2	-5.156214E-3	-6.587439E-3	2.716377E-3	-9.293705E-3	-8.948410E-3	-6.176023E-3	-5.940912E-3	-1.073532E-2	1.221243E-4	-3.686217E-4	-3.931787E-3	-9.767147E-3	-2.049957E-3	2.371090E-3	-9.556061E-4	1.129232E-4	-8.793339E-3	-9.250327E-3	4.212648E-4	-8.554727E-4	-2.160171E-3	-8.109238E-3	-1.461049E-3	-4.026465E-3	-6.514759E-3	9.410438E-4	-6.845823E-3	-5.096627E-3	-6.289797E-3	-9.563904E-3	-9.325347E-3	-9.890561E-3	-1.153644E-3	-2.786128E-3	4.246291E-4	-2.247860E-2	-2.578580E-3	-1.214205E-2	-1.514803E-2	-6.972772E-3	-1.111235E-2	-1.112881E-2	-7.529421E-3	-3.537659E-3	-9.978459E-3	-1.260825E-2	-1.080690E-2	-9.869360E-3	-6.475820E-3	-9.854177E-3	-5.955306E-3	-4.890279E-3	-1.466775E-2	-6.257600E-3	-7.300870E-3	-8.865759E-3	-7.988059E-3	-5.047318E-3	-9.835845E-3	-8.664657E-3	-9.674568E-3	-6.174073E-3	-5.074403E-3	5.823626E-4	-6.405290E-3	2.025686E-3	-6.663563E-3	-9.038914E-3	-7.056154E-3	-6.872433E-3	-9.402817E-3	-2.315099E-3	-3.743146E-3	-7.422966E-3	1.702308E-3	-1.368460E-3	-6.534319E-3	-1.056614E-3	-3.825025E-3	-1.526464E-3	-1.016346E-2	-1.111024E-2	-7.547974E-4	6.413014E-3	-1.168737E-2	-6.421282E-3	-1.163539E-2	-4.687584E-3	-7.508567E-3	-9.215555E-3	-9.170927E-3	-8.242026E-3	-5.901907E-3	-1.244712E-3	-3.501987E-3	-7.071679E-3	-9.821377E-3	5.314152E-3	-5.816557E-3	-5.604242E-3	-3.150404E-3	-5.327762E-3	-9.387271E-3	-4.324734E-3	-8.980438E-3	-3.103818E-3	-3.856907E-3	-9.244820E-3	-3.674705E-3	-5.973330E-3	-1.118414E-2	-8.627789E-4	-7.580101E-3	-4.642086E-3	-9.511702E-3	-5.430307E-3	1.496872E-3	-5.566351E-3	-4.610281E-3	2.031134E-3	-9.233023E-3	-5.384558E-3	-7.626864E-3	-3.754311E-3	1.217104E-3	-1.638236E-2	-5.330928E-3	-7.773263E-3	1.309371E-3	-3.931785E-3	-8.050730E-3	-1.039495E-2	1.321831E-3	-4.438989E-3	-6.457401E-3	-1.120576E-2	-8.151319E-3	-4.510848E-3	-8.520942E-3	-2.970831E-3	-4.180970E-3	-3.127797E-3	-9.418523E-3	1.489816E-3	-9.023885E-3	-4.345070E-3	-9.548436E-3	3.215628E-3	-3.396588E-3	-7.669312E-3	-1.152370E-2	-4.940953E-3	-1.482493E-3	-8.697198E-3	-4.184177E-3	-4.908707E-3	-5.190135E-3	-5.709738E-3	1.702594E-3	1.416473E-3	-9.070228E-3	-1.144061E-2	-8.245449E-3	-1.194413E-2	-7.366341E-3
5.310350E+2	1.480532E-3	4.655739E-3	-5.291714E-3	-7.014908E-3	9.222345E-3	-7.579450E-3	-6.176000E-3	-5.940959E-3	-1.537808E-3	-6.930550E-3	-2.538885E-3	-8.654441E-3	-7.642036E-3	-5.529047E-4	-3.410661E-3	-7.200893E-3	-6.772441E-3	-7.111567E-3	-6.827200E-3	1.127024E-3	-4.223947E-3	-1.207478E-2	-6.365636E-3	-2.066640E-3	-1.636577E-2	-4.708831E-3	-1.370613E-2	-1.169991E-2	-8.039186E-3	4.362280E-3	-1.258131E-2	-2.049848E-3	1.337760E-3	-1.247289E-2	-4.586981E-3	-2.648376E-4	-2.580603E-3	-1.059234E-2	-6.970370E-3	-1.061010E-2	-4.549821E-3	-8.553587E-3	-8.002746E-3	-8.140240E-3	1.240453E-3	8.676979E-4	-2.135213E-3	2.815819E-4	-3.118984E-3	-2.444393E-3	-1.131611E-3	1.403902E-3	6.609813E-3	-2.021295E-3	-2.193394E-3	-1.119971E-2	-2.011665E-3	-8.618659E-3	-1.319423E-2	1.028588E-3	-4.325440E-3	-8.595996E-3	-5.253890E-4	-8.025744E-3	6.141108E-3	1.735524E-3	-9.482958E-3	-4.619050E-3	-4.771109E-3	-8.226306E-3	-4.029987E-3	-6.148017E-3	-9.568065E-3	-1.227852E-2	-4.843577E-3	-1.330652E-3	-5.381115E-3	-3.697620E-3	-4.132767E-3	-7.386292E-3	-6.458209E-3	3.888874E-3	-3.562286E-3	-9.636750E-3	-1.215191E-2	2.670215E-3	2.718313E-3	-7.502654E-3	-5.303334E-3	-9.370439E-3	8.334498E-4	-2.000939E-3	-9.922085E-3	-5.387366E-3	-6.018930E-3	-3.501973E-3	2.870108E-3	2.831919E-3	-5.446495E-3	-1.187011E-2	-5.033139E-3	-7.044210E-3	3.813004E-3	-7.687877E-3	-5.804588E-4	-3.803008E-4	-5.769640E-3	-1.008095E-2	-4.260219E-3	1.010173E-4	-5.612486E-4	-5.341671E-3	-2.147817E-3	-8.776694E-3	-4.642112E-3	-6.669123E-4	-1.043556E-2	-4.136445E-3	-3.807062E-3	-6.543132E-3	-3.046635E-3	-9.233017E-3	-4.753091E-3	-1.600265E-2	-1.131500E-2	-4.283556E-4	-7.560014E-3	-5.934352E-3	-6.544378E-3	-5.115151E-3	5.864382E-3	-6.721998E-3	-8.626565E-3	-3.569555E-3	3.136357E-3	-2.506621E-3	3.160860E-3	-2.995349E-3	-1.128036E-2	6.460555E-4	8.984272E-4	-4.715241E-3	3.828452E-3	2.194549E-3	-4.875617E-4	-8.418318E-3	-1.503242E-2	-1.164634E-2	-1.436523E-2	-6.472813E-3	-4.382741E-4	-7.426669E-3	3.553390E-5	-9.003410E-3	-1.414887E-3	-2.261845E-4	-2.335915E-3	-1.107319E-2	-8.368343E-3	-1.162603E-2	-1.979189E-3	-8.435585E-3	-2.082333E-3	-1.797814E-3	-9.104607E-3	7.636357E-3
5.315230E+2	-1.097274E-2	7.309946E-4	5.388371E-4	-7.014892E-3	-7.309877E-3	-1.237092E-2	6.544656E-4	-8.728513E-4	-5.829999E-3	-6.930559E-3	2.886828E-3	-3.341454E-3	-4.985607E-3	-1.103250E-2	-8.666930E-3	7.163199E-3	-2.182186E-3	-6.550982E-3	1.048137E-3	-2.401960E-3	-4.785384E-3	9.707682E-4	-3.459602E-3	-5.094488E-3	1.168984E-3	-2.902886E-3	4.428477E-3	5.896188E-3	-4.508177E-3	3.829686E-3	-4.132467E-3	-3.262414E-3	-5.267175E-3	6.335795E-4	-9.852603E-4	-5.781193E-3	-8.249147E-4	4.862769E-3	-6.494254E-4	6.407109E-3	-7.578509E-3	-8.772785E-4	-1.125390E-3	2.854351E-3	-2.475837E-3	-6.182304E-3	-7.953568E-3	-6.138061E-3	-6.800988E-3	-9.355314E-3	-4.620637E-3	1.277722E-2	-3.740244E-3	-2.571197E-3	1.290366E-4	-6.171061E-4	-8.865716E-3	-1.681692E-3	-3.167239E-3	-1.303125E-2	-4.325450E-3	3.807510E-3	5.123256E-3	-9.425488E-4	-5.594067E-3	-3.900423E-3	-3.728618E-3	-3.256080E-3	-5.990440E-3	-6.203458E-4	-1.187517E-3	9.041121E-4	-4.293208E-3	-2.523836E-3	2.894678E-3	1.702308E-3	-4.807879E-3	-3.130272E-3	-9.054637E-3	-9.760439E-3	2.788793E-3	2.055970E-3	-2.933306E-3	4.711000E-3	-1.099162E-2	-5.705074E-3	-3.565141E-3	-3.960296E-3	-4.071818E-3	-6.817211E-4	-4.819114E-3	1.909911E-3	7.182393E-4	-7.563402E-4	-1.437384E-2	5.794028E-3	-9.557121E-3	-7.520794E-3	-8.809207E-3	-7.834402E-3	-7.317632E-3	4.081030E-3	-6.546502E-3	4.208112E-3	-3.700743E-3	8.483310E-4	-5.103152E-3	-1.367310E-3	-9.371436E-4	-6.911044E-3	3.046792E-3	1.085054E-3	-2.790295E-3	-2.793885E-3	-5.892422E-3	-2.141026E-3	-7.932937E-3	-5.826446E-3	8.507736E-3	-2.677376E-3	-5.222868E-3	5.860465E-3	-9.642305E-4	-2.042998E-3	-3.754323E-3	-5.913135E-3	3.782976E-3	1.909800E-3	-1.330330E-2	3.236749E-3	-1.372793E-2	-9.379576E-3	2.573017E-3	4.378935E-3	-5.701530E-3	8.797652E-4	-6.833306E-3	-8.151313E-3	1.581703E-3	-2.409599E-3	-7.598203E-4	2.230419E-3	-8.186921E-3	-5.751237E-3	-7.738062E-3	3.087448E-3	-7.825943E-4	-6.051828E-3	2.539445E-3	-4.011826E-3	-2.410373E-3	-4.500206E-3	3.557110E-5	2.619852E-3	-1.088187E-2	-5.503530E-3	-1.049524E-3	-3.425205E-3	-8.368365E-3	2.972014E-3	-1.420363E-2	9.334181E-3	3.872974E-3	-1.797829E-3	2.253650E-3	-2.736996E-2
5.320120E+2	1.480567E-3	-5.810372E-3	5.388341E-4	6.310967E-4	-1.358267E-3	1.363993E-2	1.493637E-2	-2.139872E-3	2.141232E-3	7.632881E-4	-5.794338E-3	4.923179E-3	3.514890E-3	5.934487E-3	-1.076941E-2	-9.074426E-3	-2.182186E-3	3.539761E-3	-4.403998E-3	-1.087145E-2	3.635823E-3	3.579869E-3	-5.203212E-3	-3.277745E-3	1.285882E-2	-1.096960E-3	-5.336306E-3	-4.418748E-3	-2.742644E-3	-3.626800E-3	4.919880E-3	1.189489E-2	-5.267163E-3	6.591035E-3	5.017700E-3	-3.023041E-3	9.124112E-3	5.435179E-3	1.074486E-3	-6.639412E-3	-1.521086E-3	-4.715438E-3	6.377205E-3	2.243512E-3	3.894946E-3	-6.724582E-3	7.739117E-4	-1.469207E-3	-2.505339E-3	-9.931275E-3	1.631349E-2	1.403880E-3	8.597446E-4	7.278923E-4	5.935057E-3	-4.515973E-3	5.465384E-3	2.102136E-3	4.353002E-3	4.224075E-3	-3.240657E-3	1.027892E-2	1.020709E-2	-3.303604E-3	-1.362336E-2	5.492785E-3	-1.171140E-3	5.603445E-3	1.325849E-3	-3.527110E-5	2.223442E-3	5.243870E-3	1.548768E-2	-2.523833E-3	-5.488415E-3	-1.330622E-3	4.937102E-3	-2.935853E-4	-3.517538E-3	6.265166E-3	-8.307613E-3	8.340105E-4	5.872600E-3	-1.438016E-3	3.512258E-3	2.772768E-4	4.334040E-4	8.437885E-3	3.933036E-3	-2.543570E-3	-4.227080E-4	6.062963E-4	9.678538E-3	9.020323E-3	2.335984E-3	-2.262526E-3	7.219638E-3	3.407085E-3	-2.756325E-3	1.099892E-2	-3.890884E-3	5.749829E-3	-1.671438E-3	2.508676E-3	1.291692E-3	-3.802641E-4	-3.103803E-3	1.045835E-2	6.262862E-3	7.113098E-3	3.046800E-3	-8.347437E-5	1.064729E-3	-5.785294E-3	-8.393098E-3	2.281428E-3	-1.676345E-3	8.820149E-3	4.402835E-3	-7.445098E-4	-1.450858E-4	8.763074E-3	2.824590E-3	1.261467E-2	2.546241E-3	3.959502E-3	1.892515E-3	4.926741E-3	7.587969E-3	1.309374E-3	-6.730702E-3	1.250744E-3	2.151812E-4	-8.460877E-3	-1.282588E-3	-8.714973E-3	6.908675E-3	3.449548E-3	1.581671E-3	-7.298662E-3	-2.070678E-4	-2.578127E-3	-1.863026E-3	4.639426E-3	-5.760629E-3	-4.784962E-3	9.904741E-3	-1.156625E-3	-6.250951E-3	2.949406E-4	-1.753001E-3	-2.744336E-3	-7.429199E-3	2.619827E-3	4.158497E-5	1.093189E-3	-2.335894E-3	3.634399E-3	3.595483E-3	4.332126E-4	-4.016617E-3	-2.723863E-3	-2.082333E-3	8.948180E-3	-5.859075E-4	2.635369E-3
5.325120E+2	1.766984E-2	5.964020E-3	2.482372E-3	5.496758E-3	9.222367E-3	4.741513E-3	6.544970E-4	-5.307446E-3	1.528074E-3	2.686741E-3	1.739729E-4	6.694169E-3	9.890280E-3	-3.547037E-3	1.183231E-2	1.542490E-3	3.555616E-3	8.585141E-3	1.134658E-2	-2.845267E-4	7.565695E-3	9.319892E-3	4.677354E-3	4.594646E-3	8.962187E-3	5.524828E-3	8.613389E-3	8.929993E-3	1.255858E-2	-4.159374E-3	1.397222E-2	4.619352E-3	6.621693E-3	6.591057E-3	1.162087E-2	7.320067E-3	9.307788E-4	2.000734E-3	6.820776E-3	9.810542E-3	1.119955E-2	6.799003E-3	3.876335E-3	4.075928E-3	4.956775E-3	1.171382E-2	1.241062E-2	1.195376E-2	1.283637E-2	1.771245E-2	4.101892E-3	-1.941252E-3	2.584801E-3	5.676498E-3	4.193205E-3	1.553535E-2	1.169635E-2	3.994013E-3	6.859731E-3	9.336713E-3	1.031943E-2	9.739637E-3	-5.044398E-3	1.145301E-2	7.376377E-3	-4.526643E-3	5.861902E-3	7.648001E-3	6.813029E-3	8.155683E-3	9.045373E-3	1.175355E-2	3.223696E-4	1.454686E-2	4.184361E-3	-7.240481E-4	1.124266E-2	7.081835E-3	8.787031E-3	9.232855E-3	2.788757E-3	9.387620E-3	1.153358E-2	-1.438044E-3	8.153457E-3	3.866672E-3	-1.378246E-4	1.943617E-3	1.994276E-2	1.297205E-2	8.370162E-3	9.079884E-3	-4.881913E-3	1.313682E-2	9.497257E-3	-4.033051E-4	-2.722163E-3	7.433162E-3	1.278864E-3	8.981076E-3	1.210055E-2	3.524743E-3	9.297434E-3	5.907505E-3	8.156145E-3	8.834162E-3	-1.770847E-3	8.591113E-3	1.832077E-3	6.404136E-4	7.857579E-3	-6.676955E-4	8.132301E-3	9.770007E-3	1.036187E-2	1.407453E-2	4.580204E-3	2.060162E-3	5.575663E-3	1.832655E-3	2.031111E-3	5.860495E-3	1.103373E-2	1.052072E-2	4.436391E-3	-4.282976E-4	5.043365E-3	6.736970E-3	8.816854E-3	-3.830211E-3	7.263796E-3	7.894698E-3	9.646400E-3	6.213197E-3	1.449930E-2	5.394906E-3	8.782582E-3	1.505050E-2	2.258662E-3	8.590793E-3	4.767741E-3	4.901808E-3	3.410544E-5	6.473052E-3	1.401347E-2	1.156533E-2	2.067326E-3	1.422826E-2	1.863284E-3	3.371183E-3	8.107615E-3	8.961440E-3	3.145864E-3	4.671022E-3	1.498097E-3	2.412502E-3	-1.049510E-3	1.834197E-2	5.589474E-3	4.241384E-3	-6.209080E-4	-6.531722E-3	5.574508E-3	1.539582E-2	-3.425511E-3	2.013844E-2
5.330280E+2	1.642451E-2	7.926418E-3	1.479138E-2	2.021257E-3	9.883650E-3	1.706240E-2	1.896380E-3	1.749904E-2	1.930999E-2	9.739407E-3	9.940273E-3	3.152197E-3	1.360925E-2	1.641408E-2	2.181916E-2	1.528201E-2	1.445749E-2	1.306988E-2	1.013498E-2	1.030232E-2	7.565679E-3	1.492561E-3	2.908819E-2	1.004477E-2	5.715011E-3	1.274865E-2	1.070584E-2	8.323254E-3	2.079765E-2	1.767741E-2	1.216179E-2	6.438235E-3	1.124516E-2	8.974024E-3	3.216797E-3	4.561937E-3	2.199928E-2	1.001448E-2	1.371636E-2	2.002092E-2	1.543970E-2	2.023251E-2	1.137892E-2	1.812452E-2	2.833150E-3	1.713690E-2	1.764708E-2	1.954064E-2	1.345008E-2	1.483288E-2	2.938893E-3	8.763083E-3	5.459802E-3	1.887273E-2	1.174110E-2	1.776326E-2	5.465435E-3	1.282290E-2	2.127350E-2	1.253219E-2	1.411623E-2	6.503937E-3	1.020709E-2	3.189335E-3	1.478806E-2	1.238118E-2	8.419334E-3	1.378146E-2	1.595847E-2	2.044228E-2	7.908362E-3	1.555086E-2	8.894070E-3	6.011525E-3	1.708148E-2	1.201433E-2	2.644118E-3	1.332262E-2	6.941357E-3	7.452223E-3	2.128274E-2	2.666954E-3	5.872614E-3	1.222650E-2	1.279469E-2	1.284017E-2	1.128662E-2	1.552259E-2	3.933033E-3	9.868919E-3	8.998228E-3	7.776270E-3	1.303862E-2	8.505792E-3	1.904577E-2	1.632945E-2	1.529733E-2	6.857996E-3	1.271206E-2	1.839769E-2	1.438503E-2	4.637287E-3	1.843814E-2	7.606932E-3	5.660038E-3	1.190563E-2	2.088873E-2	7.968703E-3	1.235514E-2	1.196766E-2	6.053530E-3	1.978090E-2	5.562230E-3	1.874425E-2	1.036186E-2	8.915084E-3	2.209861E-2	7.130142E-3	5.575655E-3	1.149702E-2	1.436291E-2	1.216313E-3	9.301840E-4	1.470863E-2	1.514730E-2	1.218670E-2	1.323553E-2	6.736973E-3	1.373244E-2	6.448965E-3	2.055863E-2	1.852497E-2	1.907769E-2	3.156113E-3	9.449099E-3	1.273201E-2	3.785486E-3	2.160580E-3	1.376683E-2	1.286872E-2	4.214991E-3	8.641803E-3	2.090301E-2	1.380763E-2	1.599089E-2	2.004328E-2	1.417972E-2	2.611665E-2	1.268231E-2	1.567618E-2	1.468133E-2	2.125245E-2	1.247678E-2	1.697803E-2	2.480160E-2	1.692525E-2	2.081902E-2	4.222735E-3	1.356534E-2	1.756998E-2	2.111140E-2	1.631513E-2	1.748498E-2	5.724402E-3	1.361182E-2	-4.865945E-3
5.331730E+2	2.265111E-2	1.708426E-2	1.803063E-2	1.661818E-2	1.848043E-2	5.426012E-3	4.380204E-3	1.179743E-2	1.930998E-2	1.166286E-2	2.838773E-2	1.259744E-2	1.892204E-2	5.934505E-3	2.760091E-2	2.152724E-2	6.424583E-3	1.475171E-2	1.558714E-2	1.665444E-2	4.758620E-3	1.401630E-2	2.037006E-2	9.439187E-3	1.285880E-2	1.515658E-2	1.698314E-2	-2.598491E-3	1.844368E-2	1.501437E-2	3.086996E-2	1.674522E-2	2.313399E-2	2.267621E-2	2.662815E-2	2.593771E-2	1.322074E-2	2.489721E-2	2.003732E-2	1.321398E-2	1.362247E-2	2.598976E-2	2.075715E-2	1.323807E-2	2.778558E-2	1.659461E-2	2.462909E-2	1.078659E-2	2.510977E-2	-3.020366E-3	2.154701E-2	3.351682E-2	1.408483E-2	4.576814E-3	2.219194E-2	1.275046E-2	1.107328E-2	2.039046E-2	8.113095E-3	1.061490E-2	1.737064E-2	4.886084E-3	1.642069E-2	2.443887E-2	2.281736E-2	3.868223E-2	3.943815E-3	1.991504E-2	2.937165E-2	4.645281E-3	1.984673E-2	1.609331E-2	1.285030E-2	1.149859E-2	1.127777E-2	1.565390E-2	1.640178E-2	1.218794E-2	1.924599E-2	3.356802E-2	1.635102E-2	1.244244E-2	2.033954E-2	2.315809E-2	1.627565E-2	1.284016E-2	2.728083E-2	1.434181E-2	2.240580E-2	1.800809E-3	1.841916E-2	1.038348E-2	1.023857E-2	1.468048E-2	1.427152E-2	3.306225E-2	1.778278E-2	2.871372E-2	1.809238E-2	2.377864E-2	1.495618E-2	1.019992E-2	2.148508E-2	1.157226E-2	1.751689E-2	1.190562E-2	1.155827E-2	1.419277E-2	9.032049E-3	4.955575E-3	1.567506E-2	2.094938E-2	1.391483E-2	2.353050E-2	2.849169E-2	1.997115E-2	2.460119E-2	1.783339E-2	1.085345E-2	1.987281E-2	7.834299E-3	6.440995E-3	1.166524E-2	2.842933E-3	1.766750E-2	2.370477E-2	1.827685E-2	2.604558E-2	2.540699E-2	1.672817E-2	2.895533E-2	2.051815E-2	1.495152E-2	1.110452E-2	1.134294E-2	1.668282E-2	1.877669E-2	2.600695E-2	2.933670E-2	2.203570E-2	2.245583E-2	1.665598E-2	1.521149E-2	1.380760E-2	1.928656E-2	9.143046E-3	1.702966E-2	1.492757E-2	1.944412E-2	2.736594E-2	8.764953E-3	1.247315E-2	2.180773E-2	2.313151E-2	2.043221E-2	1.560593E-2	7.311997E-3	2.304843E-2	6.918787E-3	2.709043E-2	1.092440E-2	2.710399E-2	1.918655E-2	8.948224E-3	3.348870E-2	1.013669E-2
5.333080E+2	3.261375E-2	2.362559E-2	1.220003E-2	2.217899E-2	3.765784E-2	1.363993E-2	1.245254E-2	2.510124E-2	2.176266E-2	1.871558E-2	2.458975E-2	9.055504E-3	3.007894E-2	1.242184E-2	2.339598E-2	1.653107E-2	2.306423E-2	2.540301E-2	2.952034E-2	1.806604E-2	3.395208E-2	1.610365E-2	1.455793E-2	1.791716E-2	3.753733E-2	1.094268E-2	1.210075E-2	1.560437E-2	2.197469E-2	2.406865E-2	1.638623E-2	1.068228E-2	3.039940E-2	1.671877E-2	2.602788E-2	5.251461E-3	3.487452E-2	1.917303E-2	2.635827E-2	1.888640E-2	1.119952E-2	2.023250E-2	2.450841E-2	2.362181E-2	2.778566E-2	1.822151E-2	2.230178E-2	2.479310E-2	2.449612E-2	1.310516E-2	3.666612E-2	2.147448E-2	2.443490E-2	1.557368E-2	1.812771E-2	9.408554E-3	2.104276E-2	2.984995E-2	2.503361E-2	2.914844E-2	1.357386E-2	5.425348E-3	1.755043E-2	2.384858E-2	2.219973E-2	1.613844E-2	2.823980E-2	3.081898E-2	1.412938E-2	2.746313E-2	1.359328E-2	2.368792E-2	1.416899E-2	1.149856E-2	1.901606E-2	3.522068E-3	8.949683E-3	3.034284E-2	6.941349E-3	1.041995E-2	2.066629E-2	2.893867E-2	2.033951E-2	1.632584E-2	2.149701E-2	1.403668E-2	1.814126E-2	1.020908E-2	3.225793E-2	1.669582E-2	2.658391E-2	1.755344E-2	6.878437E-3	1.931153E-2	3.217491E-2	3.492148E-2	1.778276E-2	2.123679E-2	1.943744E-2	2.445127E-2	1.038722E-2	1.576256E-2	1.600061E-2	2.120231E-2	2.126115E-2	1.804857E-2	2.088874E-2	1.605998E-2	2.897053E-2	2.383428E-2	2.289119E-2	2.503909E-2	2.933495E-2	1.874420E-2	2.661619E-2	3.250133E-2	3.085776E-2	8.256837E-3	1.671766E-2	2.244995E-2	2.814546E-2	1.979297E-2	1.987436E-2	3.146027E-2	2.774836E-2	2.096241E-2	2.205786E-2	1.156410E-2	2.049143E-2	7.091424E-3	3.175423E-2	1.852500E-2	2.615110E-2	8.047455E-3	1.765566E-2	1.498964E-2	1.253041E-2	1.891749E-2	1.579766E-2	1.653552E-2	2.079757E-2	8.107505E-3	2.216774E-2	8.917877E-3	1.269519E-2	1.095979E-2	2.130459E-2	2.262003E-2	2.688217E-2	2.182871E-2	1.928292E-2	1.832600E-2	1.372087E-2	2.039668E-2	2.989924E-2	1.164791E-2	2.339179E-2	3.069635E-2	1.423001E-2	4.867010E-2	1.160350E-2	2.393080E-2	2.684329E-2	1.002279E-2	4.342711E-2	3.764168E-2
5.334580E+2	4.444436E-2	2.885863E-2	2.321339E-2	4.094646E-2	3.170623E-2	1.774695E-2	1.617826E-2	3.903855E-2	3.157343E-2	2.705055E-2	1.807888E-2	2.558477E-2	3.167280E-2	3.088592E-2	2.549845E-2	2.714800E-2	2.822827E-2	1.811528E-2	3.497251E-2	2.371239E-2	3.619765E-2	2.080001E-2	2.676336E-2	1.307263E-2	3.558904E-2	3.020617E-2	2.744543E-2	2.591937E-2	3.139084E-2	2.779687E-2	2.242112E-2	2.887103E-2	2.775740E-2	1.671872E-2	2.722844E-2	2.524811E-2	3.194826E-2	2.146274E-2	2.980606E-2	1.151226E-2	2.392016E-2	3.174696E-2	2.388320E-2	3.156235E-2	2.566197E-2	2.852538E-2	2.870194E-2	3.529800E-2	2.756449E-2	3.326203E-2	2.910662E-2	3.485488E-2	3.248495E-2	2.437118E-2	2.045014E-2	1.609235E-2	3.662007E-2	1.408413E-2	2.879374E-2	2.850933E-2	2.550667E-2	2.052535E-2	3.280192E-2	2.739021E-2	1.108225E-2	2.177438E-2	2.056736E-2	2.877451E-2	2.571355E-2	2.804821E-2	3.178508E-2	2.911265E-2	2.669687E-2	2.186290E-2	1.837120E-2	1.808028E-2	1.468208E-2	2.807346E-2	2.908966E-2	2.347782E-2	2.559803E-2	1.916319E-2	2.222652E-2	2.657418E-2	1.105422E-2	1.642956E-2	3.756280E-2	2.614969E-2	1.871124E-2	1.731645E-2	2.595586E-2	1.885707E-2	1.975885E-2	2.342801E-2	3.038453E-2	2.004788E-2	1.343324E-2	2.641311E-2	2.481775E-2	3.117745E-2	2.580752E-2	4.301941E-2	2.087565E-2	2.290174E-2	2.188521E-2	2.234865E-2	4.227261E-3	4.033359E-2	2.010900E-2	2.383430E-2	3.672212E-2	4.431924E-2	2.612238E-2	2.951331E-2	4.474603E-2	2.807889E-2	3.023214E-2	2.403009E-2	2.903254E-2	3.211428E-2	1.944072E-2	3.256439E-2	3.439827E-2	2.308445E-2	2.522817E-2	2.480177E-2	2.583888E-2	2.483882E-2	2.786477E-2	2.572252E-2	2.265779E-2	2.583331E-2	2.202495E-2	1.844159E-2	2.333717E-2	3.305028E-2	2.564773E-2	3.245182E-2	3.272144E-2	2.753583E-2	2.135032E-2	3.054733E-2	3.355079E-2	1.625245E-2	1.994569E-2	1.580430E-2	3.840437E-2	2.192075E-2	3.161551E-2	3.351846E-2	1.533872E-2	2.944652E-2	2.118562E-2	9.457070E-3	2.625807E-2	3.341703E-2	2.339180E-2	2.657824E-2	1.755326E-2	4.295795E-2	3.605239E-2	2.583472E-2	3.705240E-2	3.581326E-2	2.355023E-2	2.763985E-2
5.336080E+2	4.382167E-2	3.082106E-2	4.459223E-2	3.399546E-2	4.757721E-2	4.170433E-2	3.232306E-2	3.587095E-2	3.525243E-2	2.640939E-2	3.598380E-2	3.798177E-2	5.398670E-2	3.437910E-2	3.495965E-2	2.652345E-2	4.314660E-2	3.325136E-2	3.073194E-2	3.853403E-2	3.675910E-2	3.593293E-2	2.269488E-2	2.155064E-2	3.558904E-2	2.960419E-2	3.581527E-2	3.684108E-2	4.316103E-2	3.205773E-2	3.509444E-2	3.554029E-2	4.360920E-2	1.671875E-2	4.823868E-2	2.731677E-2	4.599400E-2	2.718679E-2	3.382847E-2	3.817272E-2	3.179481E-2	3.110724E-2	3.951356E-2	6.454617E-2	4.530527E-2	4.370997E-2	5.313894E-2	4.872107E-2	4.413351E-2	2.116792E-2	4.306269E-2	3.017176E-2	4.743508E-2	3.041949E-2	3.322342E-2	3.781458E-2	4.721263E-2	2.039045E-2	2.816705E-2	2.850931E-2	2.821870E-2	2.537891E-2	3.562626E-2	4.509816E-2	3.517015E-2	2.553167E-2	3.463345E-2	4.513061E-2	2.754260E-2	3.565425E-2	2.837414E-2	2.911267E-2	2.999368E-2	3.710463E-2	3.062345E-2	3.385164E-2	3.703832E-2	3.488159E-2	3.893338E-2	3.356801E-2	3.731092E-2	2.588383E-2	4.046737E-2	4.228839E-2	2.671843E-2	3.318013E-2	3.356433E-2	2.674000E-2	4.087860E-2	3.593519E-2	4.040129E-2	4.492966E-2	2.143893E-2	3.217556E-2	2.501356E-2	2.934391E-2	2.958864E-2	4.654333E-2	3.221572E-2	5.202863E-2	4.751023E-2	3.133794E-2	3.550084E-2	3.706370E-2	3.748636E-2	1.866290E-2	3.821667E-2	3.224239E-2	2.675513E-2	2.383428E-2	4.754629E-2	3.906100E-2	4.861008E-2	2.712018E-2	3.849438E-2	3.766086E-2	3.398610E-2	4.430998E-2	2.316834E-2	3.469150E-2	5.208366E-2	3.372540E-2	4.387038E-2	3.634607E-2	4.223958E-2	3.796532E-2	4.663459E-2	4.113043E-2	3.216591E-2	3.792909E-2	3.875149E-2	4.044994E-2	4.442415E-2	2.700147E-2	3.028119E-2	3.192145E-2	1.877670E-2	3.567434E-2	4.355268E-2	3.059153E-2	2.632507E-2	3.161590E-2	5.125771E-2	3.703383E-2	2.455962E-2	3.881592E-2	5.479174E-2	4.639676E-2	4.175831E-2	3.044219E-2	5.215155E-2	3.354350E-2	3.487101E-2	2.928501E-2	3.062745E-2	3.473638E-2	3.046694E-2	3.422624E-2	3.084644E-2	5.692121E-2	4.623946E-2	2.202692E-2	3.364935E-2	4.011161E-2	5.336546E-2	4.264243E-2
5.337630E+2	5.938845E-2	3.670824E-2	4.005731E-2	4.928758E-2	6.410947E-2	3.691285E-2	3.356497E-2	3.143635E-2	4.812914E-2	5.141434E-2	4.900564E-2	4.447537E-2	5.292394E-2	6.032844E-2	4.547192E-2	5.025534E-2	5.576983E-2	4.222093E-2	3.860729E-2	5.264986E-2	6.202272E-2	3.384558E-2	4.536196E-2	4.759020E-2	6.676207E-2	5.007162E-2	6.510964E-2	3.866126E-2	5.669670E-2	4.643808E-2	3.871535E-2	4.645361E-2	4.889314E-2	4.650624E-2	5.424154E-2	2.800628E-2	5.711334E-2	3.863511E-2	4.014942E-2	3.079845E-2	6.268762E-2	3.750418E-2	5.889529E-2	4.377857E-2	3.893452E-2	3.774457E-2	4.150225E-2	4.638670E-2	6.438460E-2	4.017296E-2	5.643748E-2	5.158038E-2	5.318512E-2	4.636504E-2	4.309363E-2	4.059959E-2	7.400567E-2	4.939962E-2	5.010105E-2	3.042656E-2	5.154210E-2	4.263606E-2	4.635891E-2	3.801495E-2	4.752303E-2	4.807547E-2	3.846966E-2	4.172305E-2	5.558841E-2	4.560039E-2	4.713444E-2	5.189661E-2	5.900570E-2	3.649496E-2	2.933365E-2	4.113076E-2	4.735645E-2	4.509378E-2	4.447040E-2	5.434195E-2	4.470849E-2	4.299104E-2	5.053158E-2	5.458648E-2	4.934440E-2	3.497482E-2	4.841600E-2	5.448835E-2	4.457310E-2	3.965897E-2	4.856619E-2	3.450063E-2	4.383971E-2	2.702997E-2	4.828793E-2	5.041477E-2	3.331684E-2	4.481796E-2	4.297633E-2	3.857625E-2	4.408356E-2	4.301946E-2	4.525094E-2	4.839319E-2	3.998267E-2	4.323471E-2	4.488123E-2	3.971121E-2	3.340130E-2	4.541002E-2	4.634367E-2	3.964526E-2	3.383246E-2	3.788923E-2	5.224814E-2	4.355743E-2	5.150452E-2	3.698666E-2	3.606965E-2	3.984579E-2	4.845670E-2	3.198383E-2	5.397394E-2	3.983602E-2	4.349988E-2	4.838651E-2	4.726444E-2	6.707618E-2	4.138273E-2	4.435362E-2	5.414543E-2	4.443639E-2	2.909839E-2	3.311569E-2	2.775608E-2	3.643677E-2	3.501723E-2	5.500921E-2	5.506091E-2	4.586986E-2	4.732964E-2	4.283586E-2	4.240422E-2	4.070098E-2	3.642409E-2	3.578800E-2	3.697938E-2	4.569746E-2	6.407256E-2	3.905572E-2	4.294822E-2	5.051694E-2	3.922542E-2	4.569436E-2	4.883342E-2	3.209770E-2	4.140123E-2	5.834671E-2	4.679824E-2	6.834573E-2	4.827677E-2	4.677770E-2	5.151519E-2	4.226086E-2	1.787111E-2	4.264244E-2
5.339090E+2	8.118163E-2	6.221942E-2	5.236638E-2	5.554344E-2	7.006113E-2	4.444231E-2	6.212875E-2	6.437919E-2	7.878754E-2	5.462026E-2	4.900551E-2	5.451112E-2	4.867372E-2	5.783350E-2	6.386882E-2	5.587612E-2	6.495031E-2	5.511471E-2	4.163617E-2	6.888325E-2	8.728620E-2	4.689117E-2	6.047364E-2	7.605187E-2	6.546297E-2	6.211135E-2	5.534476E-2	6.232520E-2	6.375865E-2	5.495985E-2	6.526901E-2	5.433546E-2	6.540536E-2	6.616599E-2	7.104984E-2	7.627419E-2	6.003955E-2	5.351780E-2	6.658240E-2	4.668118E-2	6.208196E-2	6.884919E-2	6.202143E-2	7.248650E-2	6.866518E-2	5.780997E-2	6.070289E-2	7.206517E-2	6.990769E-2	5.860197E-2	6.515992E-2	8.837630E-2	7.561024E-2	5.461257E-2	5.180262E-2	6.956268E-2	7.649800E-2	6.201227E-2	6.702166E-2	6.302011E-2	5.371157E-2	5.719666E-2	6.273995E-2	8.051392E-2	6.111103E-2	7.312395E-2	7.299539E-2	6.284964E-2	6.839178E-2	6.256755E-2	4.827148E-2	6.166092E-2	6.164324E-2	3.771428E-2	6.351092E-2	5.568894E-2	5.652816E-2	5.644057E-2	6.108172E-2	7.096125E-2	6.813419E-2	5.765445E-2	6.248228E-2	6.893439E-2	6.790938E-2	5.710952E-2	5.926942E-2	6.747718E-2	6.920359E-2	3.965893E-2	4.982224E-2	6.252866E-2	5.392003E-2	6.459289E-2	7.812699E-2	8.016210E-2	6.935581E-2	4.596824E-2	4.499406E-2	6.010003E-2	8.349086E-2	6.193231E-2	6.048563E-2	7.048554E-2	7.929725E-2	5.552063E-2	7.487212E-2	5.589372E-2	5.998585E-2	4.379194E-2	8.122154E-2	6.184660E-2	4.989514E-2	4.447034E-2	7.225327E-2	7.156616E-2	6.526894E-2	6.402649E-2	3.782886E-2	7.721469E-2	6.586628E-2	3.488643E-2	6.470909E-2	7.403719E-2	5.862084E-2	7.251957E-2	5.860764E-2	7.371375E-2	6.473175E-2	5.077809E-2	8.563316E-2	6.901899E-2	5.326596E-2	6.185255E-2	5.490099E-2	5.280418E-2	5.875338E-2	6.596558E-2	7.740040E-2	5.870360E-2	6.446514E-2	6.367277E-2	7.339111E-2	5.842618E-2	5.553906E-2	6.122159E-2	8.329121E-2	7.576797E-2	4.852021E-2	6.428123E-2	5.412355E-2	5.402863E-2	4.855640E-2	4.706182E-2	7.432170E-2	6.508130E-2	6.841557E-2	5.893493E-2	5.543883E-2	7.723135E-2	5.846392E-2	7.152861E-2	4.300767E-2	5.623067E-2	8.176101E-2	6.014560E-2
5.340640E+2	1.023520E-1	7.726438E-2	1.132639E-1	9.029791E-2	9.585114E-2	8.003638E-2	7.454766E-2	8.465154E-2	8.246664E-2	8.988342E-2	7.667690E-2	6.867911E-2	7.789425E-2	9.326452E-2	9.803400E-2	8.460413E-2	9.249175E-2	8.819001E-2	7.677223E-2	9.499724E-2	9.290003E-2	8.968054E-2	8.023467E-2	7.423522E-2	1.115732E-1	8.498661E-2	9.510137E-2	8.052804E-2	1.237864E-1	8.478568E-2	7.975255E-2	9.313815E-2	9.909041E-2	8.105954E-2	9.205965E-2	9.075448E-2	1.103696E-1	9.473141E-2	8.554524E-2	9.262761E-2	7.904268E-2	7.588563E-2	7.827682E-2	7.981605E-2	8.937036E-2	9.305965E-2	8.979436E-2	9.424231E-2	1.110235E-1	6.954444E-2	9.772402E-2	9.172152E-2	1.106853E-1	8.210487E-2	6.980142E-2	9.239856E-2	9.394461E-2	8.156178E-2	1.033695E-1	9.561314E-2	1.009006E-1	9.225027E-2	7.912119E-2	9.054837E-2	1.000222E-1	8.063868E-2	8.642228E-2	8.193178E-2	8.729211E-2	8.070484E-2	7.669610E-2	1.039737E-1	7.944603E-2	8.770717E-2	8.866014E-2	8.662530E-2	8.347044E-2	8.026888E-2	1.016870E-1	9.648344E-2	7.799775E-2	7.415038E-2	8.009432E-2	7.849940E-2	1.067799E-1	7.146698E-2	8.497404E-2	6.688655E-2	8.582903E-2	8.744727E-2	8.562148E-2	7.882399E-2	9.368130E-2	8.671896E-2	1.031914E-1	9.193691E-2	9.421021E-2	6.552333E-2	7.929347E-2	9.507623E-2	1.126181E-1	8.585149E-2	8.547010E-2	8.408086E-2	1.048835E-1	7.210656E-2	8.686814E-2	6.709701E-2	1.015242E-1	9.233704E-2	9.204604E-2	1.015752E-1	9.294311E-2	6.959810E-2	8.350627E-2	1.150532E-1	8.841808E-2	7.585646E-2	1.035082E-1	9.138910E-2	9.850944E-2	6.449284E-2	8.302167E-2	8.311101E-2	1.071355E-1	7.964989E-2	1.178432E-1	1.038835E-1	8.439401E-2	8.739778E-2	8.563320E-2	1.048962E-1	1.010117E-1	6.735516E-2	7.131416E-2	9.739139E-2	1.105982E-1	8.078889E-2	9.364727E-2	8.681573E-2	9.099735E-2	8.611278E-2	9.552494E-2	9.876611E-2	8.256361E-2	8.241651E-2	1.082282E-1	9.884530E-2	8.638659E-2	1.104246E-1	9.882485E-2	7.802538E-2	5.975345E-2	6.688995E-2	9.689701E-2	6.903922E-2	7.420415E-2	8.305549E-2	7.471382E-2	1.000803E-1	8.902494E-2	9.374050E-2	1.000082E-1	9.921481E-2	9.169934E-2	1.201562E-1
5.342090E+2	1.702225E-1	1.132417E-1	1.391773E-1	1.201871E-1	1.428031E-1	1.231595E-1	1.366430E-1	1.169607E-1	1.419440E-1	1.136060E-1	1.276788E-1	1.111828E-1	1.267722E-1	1.271985E-1	1.416606E-1	1.289453E-1	1.355254E-1	1.302344E-1	1.421976E-1	1.451091E-1	1.434274E-1	1.230772E-1	1.354495E-1	1.208644E-1	1.336537E-1	1.391651E-1	1.411354E-1	1.230012E-1	1.408528E-1	1.364482E-1	1.394981E-1	1.258780E-1	1.664603E-1	1.322938E-1	1.556907E-1	1.286791E-1	1.437281E-1	1.061797E-1	1.320903E-1	1.266620E-1	1.244735E-1	1.097894E-1	1.389225E-1	1.292917E-1	1.318423E-1	1.201752E-1	1.380863E-1	1.625241E-1	1.613442E-1	1.121618E-1	1.337772E-1	1.445741E-1	1.497857E-1	1.183944E-1	1.301843E-1	1.302735E-1	1.643539E-1	1.301205E-1	1.278105E-1	1.409882E-1	1.453778E-1	1.289215E-1	1.203566E-1	1.483947E-1	1.204044E-1	1.332405E-1	1.292600E-1	1.575781E-1	1.543583E-1	1.339464E-1	1.164904E-1	1.381494E-1	1.374700E-1	1.291646E-1	1.215479E-1	1.266600E-1	1.149980E-1	1.318969E-1	1.459833E-1	1.404056E-1	1.193006E-1	1.193624E-1	1.285268E-1	1.215425E-1	1.531920E-1	1.133434E-1	1.278157E-1	1.147084E-1	1.486365E-1	1.197196E-1	1.364944E-1	1.270584E-1	1.160820E-1	1.258257E-1	1.515307E-1	1.353182E-1	1.116082E-1	1.253388E-1	1.216635E-1	1.320701E-1	1.508831E-1	1.231214E-1	1.189863E-1	1.378962E-1	1.604236E-1	1.323078E-1	1.255225E-1	1.592126E-1	1.425087E-1	1.085188E-1	1.341398E-1	1.453938E-1	1.205706E-1	1.246399E-1	1.353954E-1	1.408511E-1	1.484812E-1	1.299361E-1	1.469034E-1	1.178050E-1	1.717747E-1	1.086124E-1	1.455376E-1	1.361578E-1	1.184761E-1	1.339494E-1	1.392692E-1	1.455177E-1	1.519834E-1	1.182356E-1	1.605039E-1	1.374518E-1	1.399154E-1	1.272741E-1	1.375980E-1	1.363346E-1	1.349586E-1	1.278370E-1	1.342643E-1	1.302060E-1	1.252679E-1	1.010722E-1	1.467482E-1	1.452185E-1	1.399085E-1	1.187506E-1	1.581027E-1	1.687765E-1	1.587389E-1	1.196536E-1	1.369526E-1	1.283602E-1	1.064083E-1	1.133831E-1	1.638949E-1	1.356661E-1	1.353077E-1	1.171767E-1	1.538081E-1	1.533953E-1	1.392810E-1	1.197607E-1	1.740236E-1	1.346769E-1	1.584289E-1	1.676648E-1
5.343600E+2	2.194130E-1	1.799630E-1	2.344106E-1	2.049881E-1	2.439805E-1	1.840799E-1	1.813517E-1	2.094533E-1	2.234958E-1	1.956737E-1	1.851909E-1	1.654931E-1	1.995578E-1	2.085402E-1	2.068375E-1	2.126316E-1	2.215926E-1	1.834913E-1	2.106521E-1	2.248636E-1	2.529021E-1	2.044814E-1	2.203063E-1	1.971659E-1	2.505523E-1	2.108010E-1	2.499429E-1	1.988466E-1	2.497273E-1	1.939697E-1	2.227797E-1	2.204593E-1	2.397751E-1	1.865067E-1	2.181212E-1	2.645188E-1	2.560929E-1	2.160824E-1	2.251809E-1	1.975672E-1	2.286612E-1	2.223746E-1	1.801868E-1	2.135834E-1	2.051069E-1	2.026059E-1	2.236162E-1	2.448128E-1	2.294617E-1	1.806951E-1	2.221659E-1	2.208428E-1	2.486861E-1	1.920737E-1	2.213387E-1	1.965542E-1	2.665410E-1	2.158869E-1	2.124126E-1	2.195959E-1	2.299923E-1	1.979498E-1	1.904005E-1	2.233582E-1	2.000801E-1	2.321828E-1	2.110992E-1	2.264103E-1	2.384957E-1	2.117612E-1	2.102921E-1	1.983638E-1	2.238467E-1	2.236629E-1	1.853881E-1	1.970246E-1	1.866521E-1	1.971413E-1	2.351918E-1	2.318109E-1	2.204011E-1	2.048982E-1	2.077801E-1	2.219767E-1	2.407950E-1	1.887209E-1	2.123569E-1	2.127130E-1	2.274535E-1	1.861267E-1	2.237952E-1	2.052760E-1	2.073651E-1	2.158737E-1	1.933055E-1	2.332360E-1	2.327738E-1	2.070106E-1	2.016961E-1	2.484332E-1	2.468319E-1	2.009981E-1	2.280657E-1	2.053066E-1	2.340608E-1	2.078657E-1	1.948344E-1	2.102495E-1	2.084162E-1	1.932033E-1	2.489963E-1	2.470529E-1	2.400768E-1	2.125874E-1	2.410483E-1	2.381445E-1	2.260626E-1	2.076758E-1	2.172738E-1	2.047842E-1	2.399626E-1	1.724697E-1	2.320495E-1	2.199159E-1	1.972326E-1	1.981217E-1	2.514393E-1	2.360269E-1	2.214162E-1	2.107487E-1	2.297768E-1	2.557134E-1	2.359960E-1	2.147073E-1	2.234517E-1	2.074481E-1	2.355250E-1	1.781080E-1	2.256526E-1	2.249318E-1	1.844123E-1	1.988461E-1	2.359157E-1	2.265101E-1	2.117550E-1	2.204853E-1	2.557138E-1	2.233235E-1	2.250050E-1	2.211699E-1	2.434466E-1	2.091300E-1	1.872759E-1	2.166247E-1	2.418156E-1	2.042718E-1	2.073452E-1	2.354258E-1	2.395490E-1	2.340012E-1	2.214564E-1	2.346299E-1	2.063526E-1	2.217196E-1	2.521341E-1	2.676826E-1
5.345110E+2	4.180427E-1	3.493833E-1	3.937803E-1	3.433115E-1	4.463350E-1	3.353535E-1	3.477671E-1	3.494604E-1	4.098997E-1	3.649382E-1	3.316859E-1	3.821446E-1	3.775369E-1	3.283070E-1	3.671518E-1	3.818778E-1	3.805300E-1	3.628822E-1	3.560421E-1	4.161329E-1	3.848340E-1	3.417205E-1	3.481729E-1	4.345493E-1	4.155082E-1	3.775501E-1	4.040873E-1	3.778418E-1	4.356953E-1	3.548160E-1	3.736528E-1	3.853708E-1	4.200890E-1	3.670180E-1	4.108140E-1	3.720872E-1	4.129358E-1	3.563234E-1	3.722864E-1	3.575287E-1	4.079618E-1	3.503135E-1	3.608739E-1	3.748370E-1	3.728717E-1	3.403517E-1	4.127118E-1	4.111408E-1	4.104937E-1	3.333114E-1	3.878948E-1	3.927805E-1	3.855372E-1	3.482294E-1	3.688120E-1	3.786874E-1	3.973906E-1	3.432742E-1	3.427635E-1	3.640297E-1	3.878312E-1	3.786102E-1	3.785021E-1	4.146046E-1	3.446077E-1	3.949981E-1	3.811711E-1	4.179122E-1	4.329872E-1	3.744112E-1	3.410452E-1	3.497132E-1	4.341837E-1	4.169282E-1	3.614336E-1	3.426067E-1	3.643549E-1	3.656414E-1	3.619292E-1	4.092792E-1	3.726688E-1	3.405339E-1	3.876730E-1	4.098638E-1	4.136811E-1	3.640032E-1	3.563045E-1	3.732994E-1	4.035603E-1	3.350768E-1	3.494073E-1	3.767030E-1	3.507294E-1	3.357666E-1	3.800969E-1	4.222543E-1	3.732016E-1	3.674779E-1	3.731933E-1	4.219685E-1	4.375870E-1	3.684332E-1	3.444574E-1	3.712838E-1	4.087937E-1	3.331826E-1	3.394559E-1	3.857668E-1	3.767850E-1	3.577180E-1	4.047447E-1	4.158996E-1	3.493023E-1	3.202775E-1	3.992154E-1	4.378908E-1	4.006209E-1	3.620281E-1	3.468730E-1	4.154673E-1	4.191361E-1	2.816073E-1	3.867605E-1	3.832438E-1	3.824684E-1	3.758293E-1	3.881852E-1	4.496284E-1	3.897751E-1	3.540146E-1	4.152040E-1	4.184897E-1	4.428942E-1	3.834591E-1	3.598072E-1	3.914413E-1	3.998038E-1	3.488987E-1	3.820283E-1	3.722149E-1	3.740068E-1	3.260047E-1	4.117198E-1	3.939826E-1	3.837895E-1	3.409931E-1	4.423867E-1	4.457055E-1	3.879660E-1	3.682145E-1	4.031885E-1	3.583780E-1	3.284844E-1	3.602068E-1	4.377110E-1	3.804041E-1	3.321247E-1	3.901499E-1	4.190066E-1	4.041000E-1	4.021060E-1	3.786922E-1	4.147872E-1	4.441622E-1	4.296059E-1	3.576985E-1
5.346620E+2	7.194116E-1	5.462772E-1	6.406087E-1	6.046663E-1	7.154802E-1	5.626063E-1	6.035994E-1	5.306453E-1	6.324809E-1	5.688247E-1	5.861530E-1	5.958448E-1	5.980192E-1	5.528703E-1	6.105143E-1	6.398063E-1	6.289784E-1	5.484395E-1	6.019945E-1	6.603374E-1	6.750836E-1	5.927173E-1	5.969309E-1	6.289374E-1	7.051565E-1	6.243629E-1	6.279796E-1	6.041639E-1	7.017007E-1	6.014121E-1	6.572930E-1	6.284944E-1	6.677731E-1	5.409768E-1	6.281194E-1	6.396288E-1	7.096502E-1	5.870053E-1	6.234002E-1	6.309390E-1	6.205770E-1	5.850798E-1	6.147111E-1	6.173280E-1	6.277051E-1	5.903553E-1	6.355541E-1	6.737637E-1	6.620985E-1	5.308490E-1	6.199146E-1	7.132416E-1	6.782141E-1	5.571696E-1	5.871187E-1	5.669470E-1	6.453822E-1	5.772397E-1	5.859178E-1	6.266936E-1	5.906899E-1	5.722133E-1	6.264797E-1	7.044245E-1	6.287216E-1	5.916301E-1	6.369186E-1	6.639344E-1	6.555245E-1	5.604647E-1	5.917508E-1	5.878581E-1	6.603454E-1	6.175091E-1	5.632729E-1	5.579462E-1	5.879166E-1	5.806640E-1	6.480112E-1	6.650949E-1	6.013772E-1	5.916428E-1	5.744845E-1	6.660735E-1	6.265979E-1	5.518484E-1	5.990738E-1	6.200832E-1	6.591006E-1	5.702938E-1	6.043998E-1	6.067936E-1	6.206577E-1	5.374740E-1	6.540179E-1	6.534149E-1	6.316878E-1	5.889109E-1	6.280858E-1	6.930336E-1	7.048727E-1	5.681314E-1	6.077104E-1	6.216655E-1	6.503000E-1	5.346709E-1	6.293656E-1	6.110764E-1	6.215850E-1	5.448870E-1	6.741471E-1	6.612829E-1	5.895998E-1	5.673680E-1	6.211495E-1	6.943917E-1	6.389964E-1	5.456740E-1	5.861329E-1	6.757607E-1	6.693991E-1	4.917552E-1	6.608199E-1	6.421958E-1	6.288197E-1	5.776703E-1	6.692403E-1	7.175358E-1	6.134345E-1	5.775881E-1	6.272210E-1	6.749457E-1	7.234731E-1	6.035705E-1	5.775974E-1	6.612217E-1	6.546549E-1	5.802725E-1	6.230226E-1	5.940556E-1	5.951083E-1	5.471975E-1	7.007219E-1	6.659722E-1	5.900990E-1	5.529407E-1	7.038708E-1	6.659899E-1	6.435647E-1	5.964727E-1	7.259580E-1	5.679109E-1	5.611354E-1	6.241234E-1	6.583672E-1	6.099694E-1	5.508101E-1	6.237066E-1	7.400360E-1	6.795582E-1	6.398038E-1	6.611046E-1	6.802228E-1	6.150241E-1	7.604125E-1	6.752559E-1
5.348070E+2	1.077443E+0	8.151261E-1	9.736006E-1	9.529077E-1	1.094399E+0	9.123850E-1	8.997941E-1	8.993502E-1	9.691111E-1	9.150471E-1	8.829408E-1	9.447300E-1	9.295385E-1	9.161637E-1	9.185282E-1	1.048244E+0	9.583280E-1	8.993729E-1	1.013932E+0	1.052758E+0	1.065263E+0	8.838934E-1	8.828861E-1	1.043147E+0	1.071438E+0	9.494338E-1	1.059024E+0	9.233209E-1	1.057748E+0	9.247023E-1	1.026628E+0	1.034711E+0	1.036986E+0	9.025954E-1	1.003300E+0	1.069902E+0	1.105268E+0	8.961072E-1	9.325521E-1	9.434909E-1	9.809953E-1	8.946904E-1	9.135637E-1	9.312841E-1	9.324425E-1	8.804904E-1	9.864001E-1	1.033851E+0	1.016184E+0	8.740917E-1	9.507909E-1	1.029020E+0	1.042192E+0	9.233660E-1	9.250285E-1	9.284277E-1	9.774920E-1	8.767902E-1	9.268352E-1	9.628533E-1	9.427087E-1	9.092644E-1	9.766983E-1	1.058584E+0	9.597767E-1	9.135044E-1	9.470127E-1	1.048301E+0	1.037801E+0	9.237947E-1	9.220446E-1	9.719281E-1	9.847520E-1	9.217336E-1	9.121386E-1	8.824727E-1	9.020489E-1	8.881626E-1	9.796213E-1	1.037244E+0	9.743385E-1	8.769662E-1	9.380438E-1	9.742081E-1	1.066353E+0	8.599385E-1	9.332378E-1	9.447980E-1	9.441969E-1	8.433692E-1	9.460652E-1	9.085836E-1	9.477084E-1	8.271717E-1	9.906002E-1	1.056860E+0	9.150292E-1	8.661340E-1	9.757886E-1	1.023962E+0	1.093807E+0	8.546070E-1	9.111829E-1	9.876100E-1	1.041576E+0	8.584046E-1	9.046130E-1	9.229002E-1	8.990618E-1	8.717584E-1	1.024730E+0	1.046301E+0	8.716597E-1	8.545427E-1	9.774942E-1	1.109363E+0	9.956207E-1	8.425487E-1	9.567527E-1	1.046872E+0	1.025571E+0	7.651800E-1	9.468772E-1	9.660608E-1	9.564481E-1	8.480708E-1	1.020244E+0	1.101292E+0	9.587554E-1	8.769702E-1	9.882802E-1	1.025081E+0	1.069481E+0	9.447428E-1	9.424752E-1	9.501912E-1	1.055670E+0	8.728735E-1	9.899302E-1	9.369010E-1	8.952535E-1	8.271604E-1	1.086478E+0	1.068762E+0	9.473514E-1	8.993247E-1	1.065816E+0	1.067396E+0	1.043867E+0	9.145569E-1	1.040182E+0	9.173282E-1	8.553705E-1	9.420546E-1	1.038506E+0	9.246326E-1	9.257915E-1	9.255060E-1	1.068376E+0	1.067993E+0	9.861626E-1	9.974607E-1	1.026480E+0	9.524490E-1	1.113937E+0	9.928114E-1
5.349580E+2	1.631617E+0	1.292643E+0	1.426447E+0	1.326869E+0	1.521593E+0	1.492152E+0	1.287889E+0	1.259819E+0	1.430215E+0	1.444641E+0	1.298009E+0	1.350878E+0	1.351908E+0	1.348822E+0	1.363729E+0	1.452312E+0	1.372025E+0	1.314776E+0	1.397401E+0	1.594807E+0	1.503166E+0	1.474599E+0	1.346691E+0	1.454935E+0	1.576698E+0	1.443061E+0	1.547960E+0	1.339561E+0	1.489124E+0	1.353984E+0	1.455106E+0	1.472452E+0	1.478197E+0	1.328553E+0	1.422905E+0	1.432601E+0	1.565849E+0	1.308815E+0	1.377891E+0	1.374023E+0	1.461955E+0	1.286820E+0	1.418739E+0	1.364348E+0	1.329560E+0	1.390798E+0	1.406482E+0	1.502489E+0	1.413229E+0	1.217335E+0	1.388660E+0	1.458528E+0	1.546469E+0	1.287913E+0	1.345966E+0	1.353407E+0	1.431726E+0	1.296160E+0	1.316006E+0	1.363558E+0	1.353306E+0	1.277058E+0	1.372106E+0	1.468226E+0	1.318625E+0	1.345591E+0	1.374111E+0	1.460610E+0	1.449955E+0	1.314038E+0	1.294410E+0	1.313143E+0	1.498397E+0	1.394226E+0	1.331294E+0	1.299809E+0	1.297581E+0	1.258069E+0	1.452732E+0	1.518606E+0	1.373191E+0	1.332752E+0	1.345632E+0	1.581597E+0	1.463762E+0	1.261953E+0	1.347375E+0	1.352758E+0	1.442346E+0	1.221330E+0	1.355563E+0	1.334220E+0	1.338040E+0	1.235733E+0	1.482348E+0	1.404529E+0	1.406526E+0	1.216401E+0	1.423698E+0	1.419460E+0	1.465038E+0	1.241764E+0	1.317641E+0	1.405669E+0	1.478411E+0	1.258311E+0	1.308485E+0	1.256508E+0	1.336046E+0	1.253109E+0	1.475738E+0	1.454103E+0	1.296356E+0	1.220691E+0	1.422612E+0	1.510329E+0	1.539316E+0	1.295467E+0	1.349066E+0	1.409607E+0	1.614596E+0	1.034542E+0	1.417956E+0	1.448366E+0	1.355903E+0	1.276981E+0	1.456950E+0	1.565909E+0	1.357532E+0	1.269509E+0	1.410214E+0	1.523376E+0	1.518646E+0	1.313427E+0	1.310509E+0	1.378566E+0	1.397344E+0	1.218324E+0	1.364284E+0	1.368972E+0	1.278312E+0	1.220393E+0	1.429867E+0	1.477664E+0	1.299329E+0	1.235412E+0	1.511123E+0	1.509361E+0	1.463103E+0	1.278170E+0	1.433291E+0	1.317664E+0	1.209324E+0	1.277079E+0	1.464522E+0	1.315158E+0	1.269899E+0	1.317905E+0	1.528319E+0	1.523070E+0	1.407228E+0	1.444246E+0	1.401662E+0	1.371544E+0	1.528511E+0	1.360379E+0
5.351090E+2	2.007704E+0	1.591583E+0	1.785351E+0	1.682756E+0	1.956723E+0	1.926121E+0	1.677847E+0	1.587345E+0	1.824483E+0	1.887033E+0	1.646341E+0	1.643090E+0	1.648894E+0	1.677682E+0	1.691191E+0	1.886979E+0	1.737528E+0	1.762692E+0	1.752394E+0	1.916648E+0	1.847312E+0	1.960936E+0	1.708205E+0	1.785576E+0	1.949473E+0	1.969794E+0	1.854157E+0	1.685414E+0	1.934035E+0	1.765155E+0	1.875740E+0	1.847746E+0	1.907516E+0	1.666340E+0	1.880926E+0	1.825638E+0	1.962050E+0	1.743277E+0	1.776113E+0	1.780734E+0	1.786636E+0	1.667437E+0	1.719466E+0	1.677082E+0	1.676234E+0	1.662497E+0	1.800385E+0	1.888250E+0	1.869188E+0	1.564031E+0	1.778854E+0	1.912124E+0	1.843749E+0	1.597475E+0	1.617110E+0	1.668100E+0	1.831753E+0	1.647425E+0	1.651285E+0	1.758514E+0	1.697732E+0	1.596312E+0	1.728540E+0	1.923914E+0	1.585443E+0	1.652439E+0	1.745582E+0	1.908355E+0	1.767602E+0	1.675611E+0	1.605376E+0	1.721081E+0	1.820164E+0	1.640530E+0	1.696280E+0	1.618874E+0	1.638654E+0	1.652372E+0	1.770191E+0	1.856924E+0	1.635806E+0	1.568586E+0	1.735610E+0	1.850784E+0	1.851882E+0	1.574824E+0	1.627272E+0	1.657991E+0	1.839509E+0	1.544058E+0	1.646353E+0	1.590380E+0	1.692535E+0	1.583061E+0	1.774766E+0	1.863134E+0	1.648858E+0	1.546540E+0	1.741811E+0	1.872807E+0	1.844833E+0	1.553829E+0	1.610753E+0	1.775572E+0	1.877800E+0	1.532285E+0	1.647713E+0	1.672896E+0	1.678321E+0	1.591306E+0	1.861799E+0	1.853730E+0	1.676075E+0	1.531199E+0	1.748948E+0	2.035123E+0	1.832749E+0	1.560795E+0	1.696816E+0	1.835484E+0	1.909109E+0	1.667887E+0	1.776003E+0	1.842030E+0	1.709991E+0	1.619782E+0	1.860886E+0	1.869415E+0	1.699167E+0	1.601657E+0	1.742586E+0	1.822354E+0	1.880568E+0	1.627088E+0	1.662759E+0	1.734700E+0	1.780247E+0	1.525746E+0	1.690573E+0	1.647037E+0	1.631523E+0	1.478449E+0	1.873804E+0	1.879844E+0	1.630217E+0	1.546071E+0	1.917244E+0	1.909369E+0	1.780236E+0	1.612867E+0	1.766579E+0	1.655378E+0	1.527199E+0	1.692783E+0	1.886903E+0	1.610029E+0	1.630731E+0	1.630293E+0	1.844034E+0	1.823916E+0	1.682274E+0	1.749503E+0	1.860218E+0	1.689626E+0	1.947345E+0	1.762948E+0
5.352500E+2	2.266735E+0	1.802866E+0	1.940180E+0	1.834285E+0	2.190818E+0	2.183497E+0	1.956035E+0	1.753962E+0	1.967971E+0	2.038986E+0	1.849264E+0	1.909921E+0	1.893814E+0	1.838368E+0	1.902487E+0	2.078085E+0	1.992284E+0	1.918537E+0	1.957755E+0	2.168616E+0	2.108365E+0	2.135748E+0	1.965103E+0	2.009637E+0	2.211197E+0	2.219016E+0	2.101764E+0	1.975450E+0	2.217695E+0	2.029855E+0	2.096016E+0	2.062981E+0	2.110948E+0	2.020215E+0	2.059215E+0	2.075250E+0	2.252913E+0	2.099888E+0	1.897362E+0	1.944101E+0	1.998643E+0	2.088995E+0	1.918909E+0	1.956832E+0	1.870546E+0	1.942325E+0	2.009844E+0	2.098934E+0	2.073539E+0	1.886544E+0	1.995753E+0	2.217201E+0	2.098473E+0	1.995563E+0	1.903928E+0	1.853575E+0	2.092826E+0	2.012557E+0	1.785392E+0	1.935540E+0	1.882692E+0	1.942535E+0	1.943192E+0	2.100991E+0	1.808414E+0	1.835918E+0	1.989823E+0	2.072598E+0	2.084032E+0	1.887410E+0	1.806051E+0	1.876767E+0	2.060831E+0	1.902079E+0	1.865235E+0	1.836641E+0	1.878840E+0	1.836189E+0	2.026742E+0	2.092557E+0	1.909516E+0	1.797086E+0	1.899778E+0	2.125442E+0	2.053197E+0	1.786603E+0	1.815204E+0	1.891785E+0	2.055029E+0	1.756308E+0	1.954732E+0	1.888259E+0	1.907016E+0	1.726627E+0	1.987221E+0	1.987079E+0	1.896778E+0	1.747266E+0	1.914653E+0	2.108224E+0	2.073281E+0	1.809712E+0	1.878273E+0	1.972707E+0	2.151756E+0	1.712276E+0	1.828325E+0	1.852768E+0	1.896536E+0	1.726154E+0	2.086705E+0	2.094439E+0	1.833489E+0	1.731622E+0	1.973385E+0	2.184751E+0	1.972273E+0	1.760777E+0	1.858081E+0	1.943727E+0	2.110046E+0	1.819986E+0	1.928817E+0	2.066082E+0	1.930510E+0	1.775549E+0	2.106654E+0	2.164476E+0	1.847250E+0	1.744924E+0	1.967898E+0	2.013035E+0	2.128725E+0	1.768939E+0	1.851512E+0	1.898940E+0	1.987002E+0	1.693313E+0	1.847627E+0	1.840155E+0	1.785186E+0	1.729561E+0	2.098935E+0	2.012473E+0	1.841142E+0	1.710783E+0	2.125289E+0	2.089799E+0	2.016225E+0	1.821435E+0	1.990084E+0	1.789992E+0	1.701997E+0	1.803545E+0	2.098819E+0	1.836298E+0	1.799249E+0	1.834434E+0	2.208931E+0	2.044790E+0	1.937633E+0	1.939896E+0	1.965713E+0	1.919592E+0	2.154631E+0	1.920477E+0
5.354110E+2	2.261126E+0	1.859120E+0	2.048372E+0	1.909357E+0	2.203382E+0	2.222511E+0	1.918156E+0	1.830614E+0	2.005370E+0	2.103102E+0	1.928479E+0	1.987252E+0	1.938441E+0	1.877295E+0	1.950320E+0	2.087453E+0	2.006628E+0	1.938721E+0	2.026212E+0	2.196142E+0	2.222331E+0	2.188451E+0	2.062744E+0	1.992071E+0	2.230678E+0	2.278611E+0	2.237776E+0	1.952388E+0	2.250656E+0	2.009619E+0	2.077909E+0	2.103604E+0	2.190205E+0	2.004133E+0	2.025593E+0	2.116626E+0	2.262277E+0	2.059246E+0	1.945054E+0	1.966221E+0	2.050131E+0	2.078119E+0	1.980807E+0	2.001422E+0	1.893907E+0	2.049161E+0	2.091884E+0	2.193475E+0	2.103604E+0	1.907851E+0	1.960861E+0	2.216530E+0	2.131249E+0	2.169863E+0	1.898121E+0	2.011199E+0	2.099680E+0	2.117249E+0	1.856838E+0	1.930429E+0	1.974900E+0	1.977049E+0	1.944883E+0	2.150572E+0	1.927000E+0	1.951770E+0	2.002610E+0	2.189817E+0	2.118174E+0	2.148353E+0	1.814014E+0	1.906606E+0	2.157760E+0	2.176428E+0	1.903923E+0	1.829967E+0	1.921259E+0	1.950793E+0	2.061808E+0	2.172090E+0	1.975480E+0	1.926001E+0	1.989723E+0	2.143207E+0	2.110050E+0	1.946928E+0	1.955153E+0	1.953187E+0	2.023624E+0	1.920156E+0	1.964779E+0	1.865447E+0	1.894700E+0	1.823364E+0	2.048093E+0	2.032319E+0	1.924120E+0	1.779476E+0	1.973165E+0	2.161359E+0	2.176658E+0	1.835299E+0	1.876444E+0	1.998766E+0	2.111814E+0	1.793364E+0	1.913631E+0	1.868327E+0	1.958012E+0	1.748808E+0	2.116169E+0	2.080418E+0	1.853410E+0	1.736408E+0	1.941501E+0	2.262879E+0	2.068622E+0	1.809222E+0	1.914378E+0	2.115107E+0	2.133982E+0	1.845527E+0	1.991334E+0	2.077252E+0	1.932403E+0	1.938453E+0	2.136902E+0	2.268863E+0	1.961537E+0	1.773191E+0	1.930811E+0	2.127308E+0	2.076269E+0	1.860648E+0	1.841413E+0	1.934495E+0	2.072578E+0	1.740361E+0	1.901782E+0	1.824266E+0	1.844881E+0	1.653160E+0	2.102097E+0	2.128606E+0	1.851028E+0	1.745907E+0	2.144526E+0	2.080003E+0	2.116978E+0	1.912492E+0	2.085403E+0	1.825111E+0	1.744918E+0	1.864396E+0	2.018711E+0	1.903584E+0	1.795389E+0	1.871499E+0	2.109895E+0	2.076521E+0	1.957326E+0	2.024935E+0	1.986132E+0	1.975473E+0	2.173088E+0	2.027998E+0
5.355630E+2	2.160879E+0	1.762964E+0	1.944068E+0	1.746009E+0	2.091622E+0	2.048651E+0	1.779684E+0	1.669071E+0	1.933627E+0	2.060789E+0	1.717418E+0	1.777096E+0	1.806686E+0	1.768504E+0	1.753740E+0	1.976288E+0	1.875233E+0	1.850145E+0	1.934133E+0	2.014753E+0	2.028648E+0	2.027729E+0	1.854090E+0	1.949686E+0	2.098843E+0	2.075743E+0	2.063405E+0	1.794025E+0	2.134128E+0	1.895106E+0	1.969884E+0	2.005991E+0	2.024424E+0	1.851620E+0	1.921745E+0	1.932515E+0	2.094899E+0	1.951059E+0	1.854262E+0	1.848237E+0	1.882945E+0	1.925233E+0	1.801994E+0	1.838946E+0	1.834447E+0	1.821935E+0	1.917333E+0	2.033568E+0	1.875324E+0	1.785760E+0	1.932949E+0	2.053954E+0	2.027174E+0	1.992260E+0	1.770388E+0	1.836864E+0	1.929577E+0	1.969681E+0	1.778504E+0	1.868439E+0	1.764450E+0	1.837374E+0	1.798019E+0	1.980579E+0	1.755913E+0	1.742613E+0	1.874095E+0	1.966284E+0	1.926732E+0	1.992725E+0	1.763415E+0	1.754171E+0	1.897972E+0	2.033158E+0	1.754317E+0	1.736551E+0	1.794574E+0	1.742012E+0	1.879703E+0	1.938240E+0	1.845408E+0	1.829472E+0	1.809831E+0	1.989487E+0	1.947610E+0	2.004358E+0	1.695819E+0	1.799682E+0	1.936184E+0	2.001457E+0	1.813417E+0	1.707054E+0	1.810697E+0	1.758012E+0	1.870849E+0	1.999476E+0	1.763187E+0	1.734037E+0	1.838658E+0	1.984463E+0	1.975049E+0	1.912619E+0	1.730193E+0	1.854879E+0	1.998240E+0	1.922365E+0	1.703031E+0	1.741981E+0	1.768047E+0	1.735866E+0	1.946590E+0	1.981095E+0	1.692139E+0	1.666411E+0	1.907743E+0	2.170746E+0	1.939737E+0	1.635717E+0	1.831106E+0	1.933414E+0	2.073775E+0	1.744518E+0	1.883984E+0	1.931373E+0	1.790008E+0	1.753062E+0	1.921385E+0	1.958717E+0	1.813451E+0	1.739142E+0	1.829351E+0	1.981143E+0	1.986079E+0	1.697403E+0	1.731569E+0	1.802431E+0	1.923910E+0	1.668180E+0	1.773844E+0	1.761319E+0	1.723831E+0	1.632855E+0	1.957910E+0	1.995969E+0	1.758749E+0	1.649620E+0	1.987069E+0	1.961821E+0	1.893161E+0	1.770988E+0	1.880960E+0	1.732636E+0	1.633572E+0	1.690049E+0	1.978657E+0	1.719537E+0	1.691191E+0	1.757957E+0	2.069351E+0	1.945774E+0	1.832365E+0	1.794565E+0	1.866176E+0	1.903471E+0	2.120558E+0	1.985488E+0
5.357040E+2	1.896249E+0	1.556258E+0	1.755544E+0	1.622279E+0	1.848267E+0	1.830295E+0	1.579738E+0	1.506890E+0	1.728829E+0	1.824842E+0	1.519377E+0	1.630695E+0	1.555388E+0	1.538950E+0	1.609194E+0	1.740220E+0	1.600963E+0	1.638240E+0	1.671824E+0	1.775489E+0	1.804642E+0	1.845613E+0	1.678561E+0	1.734100E+0	1.850758E+0	1.883712E+0	1.780921E+0	1.670854E+0	1.799855E+0	1.726807E+0	1.787631E+0	1.854418E+0	1.829576E+0	1.681834E+0	1.719451E+0	1.769099E+0	1.846175E+0	1.773612E+0	1.702556E+0	1.700188E+0	1.680632E+0	1.694306E+0	1.688208E+0	1.579352E+0	1.571121E+0	1.642973E+0	1.663071E+0	1.822885E+0	1.759340E+0	1.563458E+0	1.640454E+0	1.839870E+0	1.832244E+0	1.728886E+0	1.534084E+0	1.656402E+0	1.738289E+0	1.798775E+0	1.567933E+0	1.631976E+0	1.621252E+0	1.630827E+0	1.599185E+0	1.750967E+0	1.511946E+0	1.668720E+0	1.642008E+0	1.767970E+0	1.723704E+0	1.860498E+0	1.551366E+0	1.612586E+0	1.766095E+0	1.811850E+0	1.564731E+0	1.584906E+0	1.577893E+0	1.568972E+0	1.687750E+0	1.782137E+0	1.619162E+0	1.640683E+0	1.634342E+0	1.828240E+0	1.742813E+0	1.765666E+0	1.571865E+0	1.647954E+0	1.694191E+0	1.709140E+0	1.589827E+0	1.535627E+0	1.598449E+0	1.544469E+0	1.701960E+0	1.776371E+0	1.592935E+0	1.599453E+0	1.683302E+0	1.770570E+0	1.827131E+0	1.811935E+0	1.561392E+0	1.709864E+0	1.787939E+0	1.729475E+0	1.526420E+0	1.554016E+0	1.545399E+0	1.553011E+0	1.744538E+0	1.787709E+0	1.568132E+0	1.516241E+0	1.705188E+0	1.881814E+0	1.707619E+0	1.703879E+0	1.617062E+0	1.713715E+0	1.811178E+0	1.772962E+0	1.674965E+0	1.744313E+0	1.639425E+0	1.631300E+0	1.744306E+0	1.851918E+0	1.667829E+0	1.566966E+0	1.690104E+0	1.748604E+0	1.766804E+0	1.573286E+0	1.588270E+0	1.603762E+0	1.680930E+0	1.486433E+0	1.656051E+0	1.559644E+0	1.601671E+0	1.472037E+0	1.789065E+0	1.756377E+0	1.588694E+0	1.515185E+0	1.796831E+0	1.836642E+0	1.721409E+0	1.587642E+0	1.720565E+0	1.467499E+0	1.494850E+0	1.534160E+0	1.822814E+0	1.563854E+0	1.522675E+0	1.522044E+0	1.802162E+0	1.742674E+0	1.701971E+0	1.624480E+0	1.724948E+0	1.624076E+0	1.785490E+0	1.602920E+0
5.358600E+2	1.652785E+0	1.340395E+0	1.419315E+0	1.403327E+0	1.632689E+0	1.568818E+0	1.327010E+0	1.302901E+0	1.513607E+0	1.579924E+0	1.311028E+0	1.419948E+0	1.413006E+0	1.362295E+0	1.403149E+0	1.581589E+0	1.458093E+0	1.392137E+0	1.414363E+0	1.587746E+0	1.531237E+0	1.563309E+0	1.456540E+0	1.483394E+0	1.609172E+0	1.567670E+0	1.543779E+0	1.451203E+0	1.551506E+0	1.487135E+0	1.499161E+0	1.525203E+0	1.586515E+0	1.449492E+0	1.471526E+0	1.519482E+0	1.671188E+0	1.478250E+0	1.443398E+0	1.406357E+0	1.500118E+0	1.524146E+0	1.436870E+0	1.421153E+0	1.367251E+0	1.430387E+0	1.454777E+0	1.539836E+0	1.462322E+0	1.400476E+0	1.461351E+0	1.524766E+0	1.586146E+0	1.482558E+0	1.392996E+0	1.430823E+0	1.558838E+0	1.517513E+0	1.339820E+0	1.378897E+0	1.413514E+0	1.421046E+0	1.422382E+0	1.549684E+0	1.395215E+0	1.450797E+0	1.499428E+0	1.579871E+0	1.534701E+0	1.527004E+0	1.362628E+0	1.391800E+0	1.493781E+0	1.560056E+0	1.377080E+0	1.360467E+0	1.416239E+0	1.388559E+0	1.463806E+0	1.484180E+0	1.404016E+0	1.404234E+0	1.433063E+0	1.638304E+0	1.553683E+0	1.523379E+0	1.318813E+0	1.375784E+0	1.509462E+0	1.525437E+0	1.388847E+0	1.377236E+0	1.370523E+0	1.389074E+0	1.472799E+0	1.496250E+0	1.373593E+0	1.389521E+0	1.402178E+0	1.495467E+0	1.609532E+0	1.563842E+0	1.424892E+0	1.379609E+0	1.523339E+0	1.523686E+0	1.321152E+0	1.381611E+0	1.384785E+0	1.378787E+0	1.530463E+0	1.504936E+0	1.329124E+0	1.361286E+0	1.499510E+0	1.628263E+0	1.482380E+0	1.551220E+0	1.413573E+0	1.521070E+0	1.587756E+0	1.586036E+0	1.443216E+0	1.486058E+0	1.400635E+0	1.448659E+0	1.584245E+0	1.602112E+0	1.409145E+0	1.420483E+0	1.444501E+0	1.535335E+0	1.563443E+0	1.548213E+0	1.384366E+0	1.404530E+0	1.517899E+0	1.508989E+0	1.424532E+0	1.354304E+0	1.339114E+0	1.295724E+0	1.516503E+0	1.537561E+0	1.415999E+0	1.273565E+0	1.642222E+0	1.560414E+0	1.542217E+0	1.391375E+0	1.508232E+0	1.352784E+0	1.270908E+0	1.330410E+0	1.506761E+0	1.352097E+0	1.319426E+0	1.344969E+0	1.596114E+0	1.497683E+0	1.418772E+0	1.438532E+0	1.500351E+0	1.416677E+0	1.581042E+0	1.387881E+0
5.360070E+2	1.363246E+0	1.095095E+0	1.187390E+0	1.179508E+0	1.329819E+0	1.414123E+0	1.173011E+0	1.078636E+0	1.220511E+0	1.311921E+0	1.081524E+0	1.164334E+0	1.168083E+0	1.168175E+0	1.175556E+0	1.304923E+0	1.176365E+0	1.167340E+0	1.235654E+0	1.328722E+0	1.289829E+0	1.273697E+0	1.268810E+0	1.238140E+0	1.326665E+0	1.403930E+0	1.282221E+0	1.182409E+0	1.310806E+0	1.234679E+0	1.278283E+0	1.264495E+0	1.346099E+0	1.207619E+0	1.223608E+0	1.290555E+0	1.358089E+0	1.317401E+0	1.195734E+0	1.189103E+0	1.198455E+0	1.284902E+0	1.221793E+0	1.185992E+0	1.145866E+0	1.218887E+0	1.256951E+0	1.253870E+0	1.222993E+0	1.165502E+0	1.199092E+0	1.263845E+0	1.294042E+0	1.296160E+0	1.183398E+0	1.190766E+0	1.213020E+0	1.326430E+0	1.122987E+0	1.234465E+0	1.156955E+0	1.171358E+0	1.182877E+0	1.236254E+0	1.120980E+0	1.249784E+0	1.234727E+0	1.305908E+0	1.281069E+0	1.341537E+0	1.123858E+0	1.211156E+0	1.297951E+0	1.340577E+0	1.221668E+0	1.131781E+0	1.160577E+0	1.208709E+0	1.169725E+0	1.264570E+0	1.244353E+0	1.194060E+0	1.205368E+0	1.319236E+0	1.290874E+0	1.264344E+0	1.148016E+0	1.168558E+0	1.280399E+0	1.299528E+0	1.233716E+0	1.128244E+0	1.202518E+0	1.183762E+0	1.247812E+0	1.231004E+0	1.164817E+0	1.200296E+0	1.142578E+0	1.284265E+0	1.354239E+0	1.272361E+0	1.104966E+0	1.232890E+0	1.293066E+0	1.266909E+0	1.228513E+0	1.171238E+0	1.180415E+0	1.125273E+0	1.247226E+0	1.325570E+0	1.210261E+0	1.175819E+0	1.195051E+0	1.369551E+0	1.333474E+0	1.315182E+0	1.151442E+0	1.238226E+0	1.363606E+0	1.290548E+0	1.216516E+0	1.250140E+0	1.207209E+0	1.201292E+0	1.310121E+0	1.321535E+0	1.157838E+0	1.245095E+0	1.235983E+0	1.266258E+0	1.337682E+0	1.343388E+0	1.196879E+0	1.170307E+0	1.216825E+0	1.296953E+0	1.179475E+0	1.134906E+0	1.124092E+0	1.158415E+0	1.324891E+0	1.352976E+0	1.189256E+0	1.104006E+0	1.386437E+0	1.317751E+0	1.309610E+0	1.323083E+0	1.307732E+0	1.107548E+0	1.071847E+0	1.221696E+0	1.257704E+0	1.168709E+0	1.162488E+0	1.197891E+0	1.392732E+0	1.304732E+0	1.273437E+0	1.226565E+0	1.253631E+0	1.253338E+0	1.331162E+0	1.257858E+0
5.362630E+2	1.067480E+0	8.707272E-1	8.965074E-1	8.507285E-1	1.059351E+0	1.041070E+0	8.389410E-1	8.334652E-1	9.310943E-1	1.003527E+0	8.026396E-1	8.733001E-1	8.880986E-1	9.001951E-1	9.116965E-1	9.408266E-1	9.675097E-1	9.111463E-1	8.830817E-1	1.021703E+0	9.827372E-1	9.710387E-1	9.258955E-1	9.389894E-1	1.037017E+0	9.807354E-1	9.690490E-1	8.505098E-1	9.718250E-1	9.385501E-1	9.922300E-1	9.571047E-1	9.854695E-1	9.395316E-1	9.348682E-1	9.430269E-1	1.035625E+0	9.819704E-1	8.796864E-1	8.992440E-1	9.646394E-1	9.260353E-1	9.004340E-1	9.001324E-1	8.613016E-1	9.157391E-1	9.543986E-1	9.824926E-1	9.689325E-1	8.533590E-1	9.275296E-1	1.022330E+0	9.910165E-1	1.015742E+0	8.890315E-1	8.944520E-1	9.525670E-1	9.707550E-1	8.647924E-1	9.302600E-1	8.933503E-1	9.443197E-1	8.930982E-1	9.836193E-1	8.343954E-1	8.740529E-1	9.144043E-1	9.910554E-1	9.615899E-1	9.887385E-1	8.583745E-1	9.149682E-1	9.774990E-1	1.008915E+0	8.089623E-1	9.043102E-1	8.452983E-1	9.006443E-1	9.463975E-1	9.422780E-1	9.336526E-1	9.350083E-1	9.084813E-1	9.728417E-1	9.770104E-1	9.969354E-1	8.669764E-1	9.524734E-1	1.015625E+0	9.854922E-1	8.945641E-1	8.935919E-1	8.838663E-1	8.559875E-1	9.291329E-1	9.874511E-1	8.870677E-1	8.557810E-1	9.192957E-1	9.735155E-1	9.590221E-1	1.011474E+0	9.056985E-1	9.247297E-1	1.060923E+0	9.597639E-1	8.599604E-1	8.718631E-1	9.727242E-1	8.604311E-1	1.002482E+0	1.015336E+0	9.012151E-1	8.844568E-1	9.356073E-1	1.110100E+0	9.818561E-1	9.839454E-1	8.822761E-1	1.014013E+0	1.017591E+0	9.863562E-1	9.683472E-1	9.849061E-1	9.318758E-1	9.555729E-1	9.698307E-1	1.032509E+0	9.335624E-1	9.726957E-1	9.190070E-1	1.022423E+0	1.014662E+0	1.062134E+0	8.825035E-1	8.813361E-1	1.006949E+0	9.579465E-1	8.782332E-1	8.715094E-1	8.582188E-1	8.479974E-1	1.018182E+0	1.011307E+0	8.933024E-1	9.326310E-1	1.033754E+0	9.792826E-1	1.009382E+0	9.933088E-1	9.514365E-1	8.904052E-1	8.006290E-1	9.707708E-1	1.059624E+0	9.226534E-1	8.865569E-1	9.549213E-1	1.067047E+0	1.010870E+0	9.236821E-1	9.403446E-1	9.465089E-1	9.320314E-1	1.058566E+0	1.037818E+0
5.365090E+2	8.240196E-1	6.914948E-1	7.040974E-1	6.422014E-1	7.505284E-1	7.309927E-1	6.029786E-1	6.111017E-1	6.895052E-1	7.707879E-1	6.615704E-1	6.985616E-1	6.405218E-1	6.481848E-1	6.593970E-1	7.010092E-1	6.863562E-1	6.813011E-1	6.964978E-1	7.824393E-1	7.188737E-1	7.424803E-1	6.905055E-1	7.191670E-1	7.941289E-1	8.049576E-1	7.493415E-1	6.957851E-1	7.629054E-1	6.919548E-1	7.460061E-1	7.218636E-1	7.371247E-1	6.988496E-1	7.271676E-1	7.003084E-1	8.506918E-1	7.678875E-1	7.107447E-1	6.774524E-1	7.205251E-1	7.290102E-1	6.797334E-1	6.741332E-1	6.770789E-1	7.009860E-1	7.059559E-1	7.437969E-1	7.338980E-1	6.373924E-1	7.164445E-1	7.567277E-1	7.696396E-1	6.995796E-1	6.991749E-1	6.404685E-1	7.824624E-1	7.159791E-1	6.680135E-1	6.560918E-1	7.073062E-1	7.064947E-1	6.778827E-1	7.622705E-1	6.318101E-1	6.705335E-1	7.098066E-1	7.695670E-1	7.238101E-1	7.728461E-1	6.696345E-1	6.578364E-1	7.638652E-1	7.894357E-1	6.677389E-1	6.398360E-1	6.607171E-1	6.981036E-1	7.329130E-1	7.564999E-1	7.141909E-1	6.753459E-1	7.002835E-1	7.863212E-1	7.710558E-1	7.630250E-1	6.516260E-1	6.956531E-1	7.533115E-1	7.682732E-1	6.904445E-1	6.947885E-1	7.046606E-1	6.583959E-1	7.172765E-1	7.618679E-1	7.050089E-1	6.797847E-1	6.697835E-1	7.824919E-1	7.414245E-1	7.756177E-1	6.796175E-1	6.794461E-1	7.782295E-1	7.177310E-1	7.073412E-1	6.758058E-1	6.753083E-1	6.560019E-1	7.505174E-1	7.541786E-1	6.609176E-1	7.031776E-1	7.174253E-1	8.115862E-1	7.647535E-1	7.907224E-1	6.893433E-1	7.324587E-1	8.130285E-1	7.936257E-1	7.214411E-1	7.482893E-1	6.414210E-1	7.328901E-1	7.303667E-1	7.790825E-1	6.822531E-1	6.893750E-1	6.636067E-1	7.307546E-1	7.759345E-1	8.291843E-1	6.874396E-1	7.091953E-1	7.152446E-1	7.207722E-1	6.744708E-1	7.443935E-1	6.697297E-1	6.647391E-1	7.361356E-1	7.662111E-1	6.942425E-1	7.297659E-1	7.986321E-1	7.869712E-1	7.544594E-1	8.130406E-1	7.746036E-1	7.118924E-1	6.370265E-1	7.595002E-1	7.858079E-1	7.339878E-1	7.096790E-1	7.225418E-1	8.031786E-1	7.728587E-1	7.423535E-1	7.480496E-1	7.593430E-1	7.214098E-1	7.817091E-1	7.802736E-1
5.367760E+2	6.378431E-1	5.325407E-1	5.959072E-1	6.352501E-1	6.176087E-1	6.468000E-1	5.588904E-1	5.179752E-1	5.760692E-1	6.355047E-1	5.275549E-1	5.391726E-1	5.369218E-1	5.408933E-1	5.332479E-1	6.279401E-1	5.360256E-1	5.237732E-1	5.692811E-1	6.370458E-1	6.071530E-1	6.036758E-1	5.835630E-1	5.762525E-1	6.441096E-1	6.478405E-1	6.335594E-1	5.404540E-1	6.487346E-1	5.540105E-1	6.319465E-1	5.890855E-1	5.990821E-1	6.267643E-1	5.903010E-1	5.934297E-1	5.966998E-1	6.345152E-1	5.418029E-1	5.560630E-1	5.775699E-1	5.965941E-1	5.840754E-1	5.446421E-1	5.496623E-1	6.098781E-1	6.076256E-1	6.002298E-1	5.890716E-1	5.389115E-1	5.623458E-1	6.697549E-1	6.178384E-1	6.187524E-1	5.743455E-1	5.574780E-1	5.836957E-1	5.866991E-1	5.326492E-1	5.979346E-1	5.727907E-1	5.619665E-1	5.637797E-1	6.152944E-1	5.397818E-1	5.515523E-1	5.774569E-1	6.012357E-1	5.683392E-1	6.178016E-1	5.656001E-1	5.466302E-1	6.049585E-1	6.236058E-1	5.355441E-1	5.482411E-1	5.386178E-1	5.613744E-1	5.594179E-1	5.938701E-1	5.421966E-1	6.008074E-1	5.719686E-1	6.264466E-1	5.935289E-1	6.134666E-1	5.453789E-1	5.628151E-1	6.203080E-1	5.876716E-1	5.742533E-1	5.279240E-1	5.786569E-1	5.390180E-1	6.223889E-1	5.759479E-1	5.496682E-1	5.428990E-1	5.722655E-1	5.881054E-1	6.334823E-1	6.504583E-1	5.638349E-1	5.497235E-1	6.328267E-1	6.096153E-1	5.547223E-1	5.096249E-1	5.916771E-1	5.475841E-1	6.765525E-1	6.309025E-1	5.786770E-1	5.745466E-1	5.948923E-1	6.398483E-1	6.077133E-1	5.986269E-1	5.638488E-1	6.087546E-1	6.309533E-1	6.432710E-1	5.755710E-1	6.645315E-1	5.708548E-1	6.045461E-1	6.181968E-1	6.185792E-1	5.599778E-1	5.743759E-1	6.104277E-1	5.713003E-1	6.438975E-1	6.353642E-1	5.738098E-1	5.703544E-1	6.121795E-1	6.356990E-1	5.749596E-1	5.702212E-1	5.586265E-1	5.648284E-1	6.298942E-1	6.079067E-1	5.643926E-1	5.474909E-1	6.732341E-1	6.366184E-1	6.178700E-1	6.463080E-1	5.951411E-1	5.281122E-1	5.499378E-1	6.145514E-1	6.132156E-1	5.519185E-1	5.334442E-1	5.813489E-1	6.476487E-1	5.894312E-1	6.296166E-1	6.223917E-1	5.891919E-1	5.290563E-1	6.411517E-1	6.527519E-1
5.370230E+2	5.463117E-1	4.860973E-1	5.175182E-1	5.497537E-1	5.924801E-1	5.489167E-1	4.812717E-1	4.641265E-1	5.043279E-1	5.361262E-1	4.857770E-1	4.665618E-1	4.949505E-1	4.805112E-1	4.964546E-1	5.317635E-1	4.832376E-1	4.660319E-1	4.765954E-1	5.636435E-1	5.409062E-1	5.640172E-1	4.847568E-1	5.132733E-1	5.408492E-1	5.731947E-1	5.387016E-1	4.773507E-1	5.628132E-1	5.193910E-1	5.148695E-1	5.211808E-1	5.105763E-1	5.064233E-1	4.672416E-1	5.506784E-1	5.727048E-1	5.091570E-1	5.050266E-1	4.845909E-1	5.224467E-1	5.498967E-1	4.671604E-1	4.798961E-1	5.247099E-1	5.214823E-1	5.180239E-1	5.395345E-1	5.209544E-1	4.974461E-1	5.321079E-1	5.346130E-1	5.258379E-1	5.511216E-1	4.802879E-1	5.168186E-1	4.927240E-1	5.412935E-1	4.800077E-1	4.995155E-1	4.860062E-1	5.209809E-1	4.863921E-1	5.285251E-1	4.983995E-1	4.983238E-1	5.084056E-1	5.310415E-1	5.195634E-1	5.622196E-1	4.791891E-1	4.809910E-1	5.456162E-1	5.358132E-1	5.097501E-1	4.645313E-1	4.847340E-1	5.040728E-1	5.348091E-1	5.493545E-1	4.984274E-1	5.122166E-1	4.883125E-1	5.772539E-1	5.413150E-1	5.614200E-1	4.979673E-1	5.049572E-1	5.353331E-1	5.280911E-1	4.951176E-1	4.927258E-1	4.884936E-1	5.066004E-1	5.048233E-1	5.108765E-1	4.949884E-1	4.963116E-1	5.278777E-1	5.342960E-1	5.946457E-1	5.731377E-1	4.657244E-1	5.146020E-1	5.616849E-1	5.131708E-1	4.767463E-1	4.585881E-1	4.654008E-1	4.699115E-1	5.340337E-1	5.251536E-1	5.041463E-1	4.961725E-1	5.036178E-1	5.631929E-1	5.470249E-1	5.563772E-1	4.940647E-1	5.262854E-1	5.199666E-1	5.747695E-1	5.288421E-1	5.465725E-1	4.820172E-1	5.167885E-1	5.198905E-1	5.727210E-1	4.850149E-1	5.043485E-1	5.362570E-1	5.447248E-1	5.613737E-1	5.595478E-1	4.677554E-1	4.958543E-1	5.453437E-1	5.261350E-1	4.950790E-1	4.644953E-1	5.061151E-1	4.814805E-1	5.293441E-1	5.382285E-1	5.459370E-1	5.256904E-1	5.763351E-1	5.268261E-1	5.326702E-1	5.860132E-1	5.202003E-1	4.894828E-1	4.584948E-1	5.099421E-1	5.156321E-1	5.149767E-1	4.498285E-1	4.936914E-1	5.625726E-1	5.361166E-1	5.182387E-1	5.138694E-1	5.534604E-1	4.656544E-1	5.971393E-1	5.002236E-1
5.372640E+2	5.263861E-1	4.664735E-1	4.831826E-1	5.017926E-1	5.653669E-1	5.407031E-1	4.849977E-1	4.280160E-1	4.540480E-1	5.181737E-1	4.320619E-1	4.647909E-1	4.673237E-1	4.815088E-1	4.475720E-1	5.167751E-1	4.970085E-1	4.643503E-1	4.772008E-1	5.855234E-1	5.229411E-1	5.311421E-1	4.597651E-1	4.823896E-1	5.460449E-1	5.653688E-1	4.982474E-1	4.500465E-1	5.269141E-1	4.570762E-1	4.925405E-1	5.248184E-1	5.211442E-1	4.819974E-1	4.816488E-1	5.341296E-1	5.411025E-1	5.263295E-1	4.831905E-1	4.573632E-1	4.758048E-1	5.083168E-1	4.784145E-1	4.945558E-1	4.387043E-1	4.688784E-1	4.796227E-1	5.167738E-1	4.976352E-1	4.640432E-1	4.634902E-1	5.185567E-1	5.108882E-1	5.335271E-1	4.355816E-1	4.627912E-1	5.207634E-1	5.097617E-1	4.775007E-1	4.924853E-1	4.659373E-1	5.010278E-1	4.637973E-1	5.119977E-1	4.662826E-1	4.883045E-1	4.438292E-1	5.017369E-1	5.116377E-1	5.007872E-1	4.411002E-1	4.413907E-1	5.126478E-1	5.010625E-1	4.523577E-1	4.705971E-1	4.738425E-1	4.626567E-1	5.083539E-1	4.983097E-1	4.941122E-1	4.792243E-1	4.543463E-1	5.109814E-1	5.366741E-1	5.105703E-1	4.636943E-1	4.423756E-1	5.304066E-1	5.243675E-1	4.769037E-1	4.620906E-1	4.571327E-1	4.484550E-1	4.564842E-1	4.916644E-1	4.782113E-1	4.669788E-1	4.747468E-1	5.228615E-1	4.992680E-1	5.392059E-1	4.504898E-1	5.236655E-1	5.204982E-1	5.469570E-1	4.567529E-1	4.735256E-1	4.781391E-1	4.375477E-1	4.889327E-1	5.099636E-1	4.765186E-1	4.375409E-1	4.748598E-1	5.558226E-1	5.113626E-1	5.163806E-1	4.747127E-1	5.159762E-1	5.736459E-1	5.561929E-1	5.029517E-1	4.928278E-1	5.229706E-1	4.921073E-1	5.450975E-1	5.395344E-1	4.911593E-1	4.780083E-1	5.019702E-1	5.394090E-1	5.560689E-1	5.460972E-1	4.803811E-1	4.693276E-1	4.916252E-1	5.312908E-1	4.680011E-1	4.571619E-1	4.635527E-1	4.804119E-1	5.154313E-1	5.156136E-1	4.688178E-1	4.857231E-1	5.635102E-1	5.107417E-1	5.610701E-1	5.214119E-1	5.208575E-1	4.338801E-1	4.305019E-1	5.154116E-1	5.585979E-1	4.760564E-1	4.221715E-1	4.901617E-1	5.519381E-1	5.265963E-1	4.978644E-1	5.075229E-1	5.117726E-1	4.946687E-1	5.446069E-1	5.277282E-1
5.375060E+2	5.942568E-1	4.684356E-1	6.023859E-1	5.567048E-1	5.885125E-1	5.324887E-1	5.750356E-1	4.634929E-1	5.147517E-1	5.406142E-1	5.362357E-1	5.273659E-1	4.976068E-1	4.725268E-1	4.990829E-1	5.348858E-1	5.205335E-1	5.030311E-1	5.099135E-1	5.396468E-1	5.644855E-1	5.713226E-1	4.801077E-1	4.836002E-1	5.655284E-1	6.111193E-1	5.463737E-1	4.791708E-1	5.628126E-1	5.273800E-1	5.420265E-1	5.417946E-1	5.541685E-1	5.421677E-1	4.894523E-1	5.375767E-1	5.703642E-1	5.280468E-1	4.872128E-1	5.146546E-1	5.103320E-1	5.454193E-1	5.359343E-1	4.811178E-1	5.379827E-1	5.079247E-1	5.069688E-1	5.523737E-1	5.565471E-1	4.663469E-1	4.937286E-1	5.633809E-1	5.735635E-1	5.401245E-1	4.849327E-1	4.973242E-1	5.431949E-1	5.400323E-1	4.806341E-1	4.688398E-1	4.898029E-1	4.934775E-1	4.801785E-1	5.668925E-1	4.811059E-1	5.221200E-1	5.333409E-1	5.910138E-1	5.305378E-1	5.557838E-1	4.609970E-1	4.809911E-1	5.561658E-1	5.370326E-1	4.800868E-1	4.505796E-1	5.082370E-1	4.972648E-1	5.341936E-1	5.149293E-1	5.150723E-1	5.232142E-1	5.059239E-1	5.635895E-1	5.024448E-1	5.428750E-1	5.071070E-1	4.825221E-1	5.285596E-1	5.529163E-1	5.045385E-1	5.011995E-1	5.075345E-1	4.783002E-1	5.346626E-1	5.145947E-1	5.304062E-1	4.905600E-1	4.801272E-1	5.638912E-1	5.323933E-1	5.603438E-1	4.742558E-1	5.044053E-1	5.410917E-1	5.389713E-1	4.960739E-1	4.841066E-1	4.853391E-1	4.780025E-1	5.406484E-1	5.794889E-1	4.585284E-1	4.692498E-1	5.355020E-1	5.919387E-1	5.470249E-1	5.400405E-1	4.717807E-1	5.385266E-1	5.250446E-1	5.846382E-1	5.471548E-1	5.207468E-1	5.292712E-1	5.239188E-1	5.778660E-1	5.884093E-1	5.145084E-1	5.595997E-1	5.390554E-1	5.619989E-1	5.578374E-1	6.292500E-1	4.999505E-1	5.110929E-1	5.197336E-1	5.345135E-1	4.801860E-1	5.072752E-1	5.226976E-1	5.055232E-1	5.717143E-1	5.357836E-1	5.182534E-1	5.129738E-1	5.734853E-1	5.701834E-1	5.319939E-1	5.632493E-1	4.879893E-1	5.006035E-1	4.479203E-1	5.441281E-1	5.505878E-1	4.826534E-1	4.684812E-1	5.366379E-1	5.406384E-1	5.475415E-1	5.813981E-1	5.716210E-1	5.466542E-1	5.118623E-1	6.056572E-1	6.302464E-1
5.377690E+2	6.602587E-1	5.613227E-1	6.367213E-1	6.185685E-1	6.572869E-1	6.303716E-1	6.495501E-1	5.078388E-1	5.656450E-1	6.278111E-1	6.170794E-1	5.627856E-1	5.602980E-1	5.623518E-1	5.816056E-1	6.017100E-1	6.123380E-1	5.714236E-1	5.686756E-1	6.737469E-1	6.239947E-1	6.151556E-1	6.259911E-1	5.847307E-1	6.259251E-1	6.315871E-1	6.147275E-1	5.355995E-1	6.040086E-1	5.412278E-1	6.204800E-1	6.284943E-1	6.307861E-1	6.178278E-1	6.059086E-1	6.582466E-1	6.487857E-1	6.322257E-1	6.607515E-1	5.503905E-1	5.830214E-1	5.882783E-1	6.540994E-1	5.647984E-1	5.390442E-1	5.372092E-1	6.256627E-1	6.107347E-1	5.835485E-1	5.556131E-1	5.949101E-1	6.088744E-1	6.212887E-1	6.363473E-1	5.697007E-1	5.613769E-1	6.042581E-1	6.264286E-1	5.414226E-1	5.487254E-1	5.662816E-1	5.700558E-1	5.671686E-1	6.330027E-1	5.175465E-1	5.490473E-1	5.697850E-1	6.196368E-1	6.073591E-1	6.388641E-1	5.388811E-1	5.667017E-1	6.062774E-1	6.187286E-1	5.516655E-1	5.658323E-1	5.460697E-1	5.545661E-1	5.624941E-1	6.003991E-1	5.717869E-1	5.904210E-1	5.814035E-1	6.360114E-1	6.294984E-1	6.134668E-1	5.476635E-1	5.427420E-1	6.159973E-1	5.733967E-1	5.918387E-1	5.637735E-1	6.016175E-1	5.606296E-1	6.307434E-1	5.945404E-1	5.496682E-1	5.710811E-1	5.789901E-1	6.177006E-1	6.471894E-1	5.942761E-1	5.571318E-1	5.825791E-1	6.103608E-1	6.427870E-1	5.174008E-1	5.563052E-1	5.866927E-1	5.411115E-1	6.037897E-1	5.841625E-1	5.818892E-1	5.284795E-1	5.792627E-1	6.523787E-1	6.089648E-1	6.780563E-1	5.873057E-1	6.274390E-1	6.149940E-1	6.513979E-1	5.743082E-1	5.926391E-1	5.834559E-1	6.204515E-1	6.295396E-1	6.493525E-1	6.011458E-1	5.891521E-1	5.852374E-1	6.264448E-1	5.820049E-1	6.494268E-1	5.176263E-1	5.658391E-1	6.065577E-1	6.041189E-1	5.702206E-1	5.335538E-1	5.343055E-1	4.953720E-1	6.096575E-1	5.852917E-1	5.630746E-1	5.608136E-1	6.083969E-1	6.317235E-1	5.833841E-1	6.579976E-1	6.490453E-1	5.199178E-1	5.287880E-1	6.350633E-1	6.175857E-1	5.565364E-1	5.591720E-1	5.860551E-1	6.888573E-1	6.433806E-1	6.757975E-1	6.065263E-1	5.840874E-1	6.354408E-1	6.667081E-1	6.777558E-1
5.380160E+2	7.592626E-1	5.835632E-1	7.144629E-1	6.679195E-1	7.366415E-1	7.145650E-1	7.495234E-1	6.212375E-1	6.766289E-1	6.983376E-1	6.849010E-1	6.430712E-1	6.378653E-1	6.227339E-1	6.846269E-1	7.028828E-1	6.559459E-1	6.375745E-1	6.752948E-1	7.365627E-1	7.037152E-1	7.096055E-1	7.323527E-1	6.931279E-1	7.252890E-1	7.640231E-1	7.563166E-1	6.551322E-1	6.969925E-1	7.105960E-1	6.983304E-1	6.521399E-1	7.034400E-1	6.774027E-1	7.403735E-1	7.209947E-1	7.336449E-1	7.518597E-1	7.262599E-1	6.343424E-1	6.575278E-1	7.104594E-1	7.360030E-1	6.387066E-1	6.436321E-1	6.554318E-1	6.983921E-1	7.356264E-1	6.614844E-1	6.293296E-1	7.362154E-1	7.486997E-1	7.305394E-1	7.375186E-1	7.636219E-1	6.610766E-1	6.977218E-1	7.456182E-1	7.093748E-1	6.343631E-1	6.297429E-1	6.471730E-1	7.044319E-1	7.174103E-1	6.355157E-1	6.811786E-1	6.944618E-1	7.068689E-1	6.969833E-1	7.125834E-1	6.196069E-1	6.366802E-1	6.893573E-1	7.071306E-1	6.516181E-1	6.143594E-1	6.223104E-1	6.413694E-1	7.095347E-1	7.321651E-1	7.024777E-1	6.331889E-1	6.354972E-1	7.234639E-1	7.136208E-1	7.139698E-1	6.362032E-1	6.283485E-1	6.584848E-1	6.993836E-1	6.596693E-1	6.080973E-1	6.363384E-1	6.285513E-1	6.611793E-1	6.713870E-1	6.385231E-1	6.331980E-1	6.980302E-1	7.118671E-1	7.174371E-1	7.005221E-1	6.326953E-1	6.681165E-1	7.314254E-1	6.956168E-1	6.393624E-1	6.197903E-1	6.099541E-1	5.982868E-1	6.687350E-1	7.132813E-1	6.480675E-1	6.020683E-1	6.667862E-1	7.400899E-1	6.946798E-1	7.174891E-1	6.424297E-1	6.751162E-1	6.708499E-1	7.628579E-1	6.785009E-1	7.050146E-1	6.842645E-1	6.407453E-1	7.177640E-1	7.060715E-1	6.791810E-1	6.887323E-1	6.971935E-1	7.048434E-1	7.635561E-1	7.570369E-1	6.287305E-1	6.561423E-1	7.321096E-1	7.239951E-1	7.022259E-1	6.472239E-1	6.321428E-1	6.417648E-1	7.026187E-1	6.953107E-1	6.303065E-1	6.722373E-1	7.366458E-1	7.009554E-1	7.003646E-1	7.779713E-1	6.865157E-1	6.240991E-1	5.878837E-1	6.897609E-1	7.049734E-1	6.363564E-1	6.131998E-1	6.907732E-1	7.546583E-1	7.227172E-1	6.724017E-1	6.642781E-1	6.989390E-1	6.268448E-1	7.249190E-1	6.727547E-1
5.382690E+2	9.006072E-1	7.346680E-1	8.323701E-1	8.632406E-1	8.880764E-1	8.487262E-1	9.320832E-1	7.283018E-1	7.888392E-1	8.342621E-1	8.368216E-1	7.487402E-1	7.648415E-1	7.978931E-1	7.950074E-1	8.146730E-1	7.718499E-1	7.625873E-1	7.873665E-1	8.523127E-1	8.401381E-1	8.395395E-1	8.433638E-1	7.754853E-1	8.837511E-1	8.759917E-1	8.637290E-1	7.485736E-1	8.753102E-1	7.734433E-1	8.208391E-1	8.279648E-1	9.095133E-1	8.054886E-1	8.730380E-1	8.278733E-1	8.489357E-1	8.153973E-1	9.135893E-1	7.659421E-1	7.804935E-1	8.236847E-1	8.973083E-1	7.498736E-1	7.614922E-1	7.633514E-1	8.496689E-1	8.278360E-1	8.277893E-1	7.681237E-1	8.589133E-1	8.617638E-1	8.553152E-1	8.276930E-1	9.012262E-1	7.540923E-1	7.818394E-1	7.929160E-1	8.253115E-1	8.107512E-1	7.550378E-1	7.900825E-1	8.529923E-1	8.561229E-1	7.355734E-1	7.738587E-1	8.958628E-1	8.874673E-1	8.725750E-1	8.342785E-1	9.004434E-1	7.354096E-1	8.489227E-1	8.375994E-1	8.992416E-1	7.490223E-1	7.237731E-1	7.798007E-1	8.658028E-1	8.223830E-1	7.937147E-1	7.639365E-1	8.072125E-1	8.519105E-1	8.458960E-1	8.378042E-1	7.510188E-1	6.991957E-1	8.401335E-1	8.241298E-1	7.965865E-1	7.606214E-1	7.500222E-1	7.849778E-1	8.091806E-1	8.300386E-1	7.466394E-1	8.235726E-1	7.948756E-1	8.295757E-1	8.590755E-1	8.395879E-1	7.344622E-1	7.695155E-1	8.705880E-1	8.614762E-1	7.519938E-1	7.697891E-1	7.661387E-1	7.601044E-1	8.196720E-1	8.529162E-1	7.348060E-1	7.857404E-1	7.993217E-1	8.521247E-1	8.254420E-1	8.831086E-1	7.515037E-1	8.258802E-1	8.485727E-1	8.452918E-1	7.839574E-1	8.620608E-1	8.071252E-1	8.074830E-1	8.450571E-1	8.563167E-1	7.455416E-1	7.626140E-1	8.595303E-1	8.244339E-1	8.584578E-1	9.404627E-1	7.278412E-1	7.413663E-1	8.532886E-1	8.361369E-1	7.780445E-1	7.505052E-1	7.084224E-1	7.235101E-1	8.683051E-1	8.285548E-1	8.148648E-1	7.636778E-1	8.648937E-1	9.156450E-1	8.538591E-1	8.610302E-1	8.193051E-1	7.452536E-1	6.805709E-1	8.483844E-1	8.462514E-1	7.392652E-1	7.379791E-1	8.107868E-1	9.068650E-1	8.356936E-1	8.156993E-1	8.578418E-1	7.891193E-1	7.869609E-1	8.385004E-1	9.002948E-1
5.385110E+2	1.003970E+0	8.674565E-1	1.050694E+0	1.046745E+0	1.031576E+0	1.026011E+0	1.096016E+0	9.354613E-1	9.519422E-1	1.029172E+0	1.003934E+0	9.270195E-1	9.252882E-1	8.917124E-1	9.747700E-1	1.034504E+0	9.801323E-1	9.229186E-1	9.485062E-1	1.056993E+0	1.046175E+0	1.038354E+0	9.851803E-1	1.000757E+0	1.088974E+0	1.053575E+0	1.101573E+0	9.051179E-1	1.029500E+0	1.033356E+0	9.886096E-1	1.020765E+0	1.013870E+0	9.460849E-1	9.984994E-1	1.034736E+0	1.078347E+0	1.016314E+0	1.077361E+0	9.440558E-1	1.031877E+0	1.016232E+0	1.141766E+0	9.215108E-1	9.350975E-1	9.287558E-1	1.045164E+0	1.041436E+0	9.990022E-1	9.270745E-1	1.078720E+0	1.043738E+0	9.944659E-1	9.750515E-1	1.051601E+0	9.651887E-1	9.774906E-1	9.884127E-1	1.036505E+0	9.360114E-1	9.139604E-1	9.162764E-1	9.738732E-1	1.032614E+0	8.770130E-1	9.748741E-1	1.042277E+0	9.999145E-1	1.007316E+0	1.070648E+0	1.034038E+0	8.910991E-1	1.011786E+0	1.019888E+0	1.076576E+0	9.024900E-1	9.479089E-1	9.318482E-1	1.083594E+0	9.719561E-1	9.392010E-1	9.612816E-1	1.012894E+0	1.011103E+0	1.035605E+0	1.072908E+0	1.073187E+0	9.211821E-1	9.842211E-1	1.015903E+0	1.077331E+0	9.450847E-1	9.919492E-1	9.100165E-1	1.037746E+0	9.955061E-1	9.212422E-1	9.621837E-1	1.045733E+0	1.052212E+0	9.990003E-1	1.042625E+0	1.028183E+0	9.377576E-1	1.068410E+0	1.023649E+0	1.075893E+0	8.724851E-1	9.466927E-1	8.663650E-1	1.028940E+0	1.023514E+0	9.468325E-1	8.850548E-1	9.849960E-1	1.116734E+0	9.974980E-1	1.018871E+0	9.409183E-1	1.048160E+0	1.078525E+0	1.060084E+0	9.917118E-1	9.883962E-1	9.728290E-1	9.692865E-1	1.001969E+0	1.059661E+0	9.384776E-1	9.617739E-1	9.980756E-1	1.078232E+0	1.067715E+0	1.059078E+0	9.153298E-1	9.710735E-1	9.625995E-1	1.003705E+0	9.472821E-1	9.485123E-1	9.057554E-1	8.998234E-1	1.008697E+0	1.052871E+0	9.578974E-1	9.386862E-1	1.060828E+0	9.687925E-1	1.043192E+0	1.086828E+0	9.902213E-1	9.167432E-1	8.485277E-1	1.032306E+0	1.035592E+0	9.595953E-1	8.351014E-1	9.855131E-1	1.045778E+0	1.031814E+0	9.685055E-1	1.005713E+0	1.008614E+0	8.825999E-1	1.111097E+0	1.132837E+0
5.387650E+2	1.298489E+0	1.147425E+0	1.285861E+0	1.233031E+0	1.304026E+0	1.303231E+0	1.310243E+0	1.040625E+0	1.186788E+0	1.212543E+0	1.218250E+0	1.098808E+0	1.080424E+0	1.129748E+0	1.216554E+0	1.168152E+0	1.136203E+0	1.147719E+0	1.132064E+0	1.214385E+0	1.239863E+0	1.253344E+0	1.283922E+0	1.178795E+0	1.294192E+0	1.284738E+0	1.347085E+0	1.126586E+0	1.227238E+0	1.159581E+0	1.223367E+0	1.144450E+0	1.283349E+0	1.143279E+0	1.231412E+0	1.205743E+0	1.280254E+0	1.269891E+0	1.287098E+0	1.135783E+0	1.171802E+0	1.195345E+0	1.281813E+0	1.134682E+0	1.134185E+0	1.107714E+0	1.251132E+0	1.225272E+0	1.229743E+0	1.096395E+0	1.217699E+0	1.251135E+0	1.265293E+0	1.247223E+0	1.210685E+0	1.094965E+0	1.129524E+0	1.192108E+0	1.245819E+0	1.153302E+0	1.096208E+0	1.144934E+0	1.208860E+0	1.238026E+0	1.124686E+0	1.120156E+0	1.319764E+0	1.260929E+0	1.217051E+0	1.253777E+0	1.249498E+0	1.110801E+0	1.216848E+0	1.225959E+0	1.262941E+0	1.085073E+0	1.114717E+0	1.100347E+0	1.263241E+0	1.240829E+0	1.176539E+0	1.101192E+0	1.311665E+0	1.206504E+0	1.189347E+0	1.212898E+0	1.253693E+0	1.081178E+0	1.181881E+0	1.223191E+0	1.274542E+0	1.065019E+0	1.080431E+0	1.058724E+0	1.234683E+0	1.238443E+0	1.120076E+0	1.070311E+0	1.270363E+0	1.177992E+0	1.248012E+0	1.225078E+0	1.295704E+0	1.132626E+0	1.148288E+0	1.190126E+0	1.259836E+0	1.097797E+0	1.152170E+0	1.058927E+0	1.296535E+0	1.236180E+0	1.142796E+0	1.086077E+0	1.215680E+0	1.295842E+0	1.240254E+0	1.213782E+0	1.280457E+0	1.217611E+0	1.261326E+0	1.210438E+0	1.267032E+0	1.227804E+0	1.117112E+0	1.162350E+0	1.315791E+0	1.308259E+0	1.140017E+0	1.230319E+0	1.181403E+0	1.224401E+0	1.284632E+0	1.307315E+0	1.057999E+0	1.135876E+0	1.135623E+0	1.195122E+0	1.174062E+0	1.170353E+0	1.077662E+0	1.119413E+0	1.218017E+0	1.192837E+0	1.178050E+0	1.157293E+0	1.288827E+0	1.262505E+0	1.291352E+0	1.291090E+0	1.232792E+0	1.065992E+0	1.045099E+0	1.166314E+0	1.206729E+0	1.048651E+0	1.077586E+0	1.189066E+0	1.231881E+0	1.292675E+0	1.139648E+0	1.192296E+0	1.091137E+0	1.203906E+0	1.309866E+0	1.292866E+0
5.390340E+2	1.503346E+0	1.273020E+0	1.484750E+0	1.449206E+0	1.594997E+0	1.494206E+0	1.549931E+0	1.235747E+0	1.371351E+0	1.406171E+0	1.452641E+0	1.292433E+0	1.273278E+0	1.258996E+0	1.423651E+0	1.407971E+0	1.338745E+0	1.318139E+0	1.316827E+0	1.418357E+0	1.486324E+0	1.443287E+0	1.417599E+0	1.379843E+0	1.498117E+0	1.550213E+0	1.561911E+0	1.323178E+0	1.520313E+0	1.408307E+0	1.444849E+0	1.408794E+0	1.480836E+0	1.362510E+0	1.497943E+0	1.369162E+0	1.472797E+0	1.426735E+0	1.508336E+0	1.351332E+0	1.405015E+0	1.408362E+0	1.508767E+0	1.400386E+0	1.264256E+0	1.279627E+0	1.466995E+0	1.446461E+0	1.408322E+0	1.306026E+0	1.477634E+0	1.463881E+0	1.457343E+0	1.431970E+0	1.518987E+0	1.346163E+0	1.436089E+0	1.427333E+0	1.410635E+0	1.302207E+0	1.313713E+0	1.339074E+0	1.468700E+0	1.456421E+0	1.253772E+0	1.393186E+0	1.470014E+0	1.461292E+0	1.403615E+0	1.435732E+0	1.522372E+0	1.275169E+0	1.402128E+0	1.475312E+0	1.507984E+0	1.317401E+0	1.297006E+0	1.336364E+0	1.521639E+0	1.469341E+0	1.340520E+0	1.361468E+0	1.497850E+0	1.458613E+0	1.493925E+0	1.473728E+0	1.556441E+0	1.314972E+0	1.444809E+0	1.392622E+0	1.525137E+0	1.299673E+0	1.310601E+0	1.239850E+0	1.434006E+0	1.428082E+0	1.287846E+0	1.269889E+0	1.476831E+0	1.406011E+0	1.456470E+0	1.454814E+0	1.451095E+0	1.314465E+0	1.489645E+0	1.400827E+0	1.527753E+0	1.308166E+0	1.328292E+0	1.300037E+0	1.550305E+0	1.459949E+0	1.290573E+0	1.252399E+0	1.500760E+0	1.555291E+0	1.370388E+0	1.477423E+0	1.529682E+0	1.477901E+0	1.444126E+0	1.448451E+0	1.506362E+0	1.400205E+0	1.328809E+0	1.348284E+0	1.519337E+0	1.494706E+0	1.355075E+0	1.349813E+0	1.554359E+0	1.426375E+0	1.468541E+0	1.510915E+0	1.556707E+0	1.321564E+0	1.424204E+0	1.416186E+0	1.507799E+0	1.276078E+0	1.252885E+0	1.252450E+0	1.555079E+0	1.415319E+0	1.245282E+0	1.288704E+0	1.522524E+0	1.464608E+0	1.450933E+0	1.428291E+0	1.420141E+0	1.276111E+0	1.191906E+0	1.371432E+0	1.462339E+0	1.234018E+0	1.246101E+0	1.339673E+0	1.512368E+0	1.432308E+0	1.362405E+0	1.407436E+0	1.359975E+0	1.324262E+0	1.505795E+0	1.507904E+0
5.392560E+2	1.751791E+0	1.517664E+0	1.659019E+0	1.685538E+0	1.812560E+0	1.679703E+0	1.777821E+0	1.479649E+0	1.600063E+0	1.622878E+0	1.682150E+0	1.492557E+0	1.433195E+0	1.510506E+0	1.605514E+0	1.585337E+0	1.540717E+0	1.477910E+0	1.547633E+0	1.733846E+0	1.654743E+0	1.670282E+0	1.644272E+0	1.558486E+0	1.748148E+0	1.769333E+0	1.802545E+0	1.462734E+0	1.691569E+0	1.561166E+0	1.685037E+0	1.630696E+0	1.680305E+0	1.620470E+0	1.677428E+0	1.637395E+0	1.759558E+0	1.639095E+0	1.745658E+0	1.538523E+0	1.600671E+0	1.641210E+0	1.701335E+0	1.440087E+0	1.439988E+0	1.560001E+0	1.732310E+0	1.650721E+0	1.538417E+0	1.471888E+0	1.649176E+0	1.663251E+0	1.613742E+0	1.635964E+0	1.711746E+0	1.602933E+0	1.554472E+0	1.593190E+0	1.563548E+0	1.515023E+0	1.493248E+0	1.567192E+0	1.575462E+0	1.692530E+0	1.460065E+0	1.522184E+0	1.681645E+0	1.610539E+0	1.571893E+0	1.695506E+0	1.723619E+0	1.481309E+0	1.574220E+0	1.649071E+0	1.693701E+0	1.426584E+0	1.440890E+0	1.550250E+0	1.678522E+0	1.653932E+0	1.526079E+0	1.523372E+0	1.656356E+0	1.590477E+0	1.710325E+0	1.695073E+0	1.697531E+0	1.514524E+0	1.624611E+0	1.562051E+0	1.657029E+0	1.482834E+0	1.510528E+0	1.410683E+0	1.667348E+0	1.666057E+0	1.532662E+0	1.513180E+0	1.678590E+0	1.674384E+0	1.623808E+0	1.620584E+0	1.739333E+0	1.495172E+0	1.653765E+0	1.606616E+0	1.763679E+0	1.427666E+0	1.480600E+0	1.420319E+0	1.712667E+0	1.620031E+0	1.435777E+0	1.447439E+0	1.723943E+0	1.704180E+0	1.596876E+0	1.630650E+0	1.713235E+0	1.623513E+0	1.700193E+0	1.625510E+0	1.797469E+0	1.652877E+0	1.527276E+0	1.574807E+0	1.710277E+0	1.682969E+0	1.503771E+0	1.579810E+0	1.756579E+0	1.619714E+0	1.707862E+0	1.702292E+0	1.703161E+0	1.508943E+0	1.584737E+0	1.636599E+0	1.728484E+0	1.460029E+0	1.438056E+0	1.405787E+0	1.712547E+0	1.647582E+0	1.428521E+0	1.524873E+0	1.729860E+0	1.651325E+0	1.575350E+0	1.713152E+0	1.790245E+0	1.425943E+0	1.331869E+0	1.605264E+0	1.731057E+0	1.438517E+0	1.436487E+0	1.516751E+0	1.752974E+0	1.606213E+0	1.483291E+0	1.548325E+0	1.668801E+0	1.477929E+0	1.599500E+0	1.595420E+0
5.395160E+2	1.980929E+0	1.653728E+0	1.971281E+0	1.861392E+0	1.937545E+0	1.971986E+0	2.069046E+0	1.610785E+0	1.841654E+0	1.919090E+0	1.859027E+0	1.718062E+0	1.642519E+0	1.687662E+0	1.771612E+0	1.883859E+0	1.779981E+0	1.666829E+0	1.819031E+0	1.949117E+0	1.895032E+0	1.943193E+0	1.938363E+0	1.742579E+0	1.959216E+0	1.983640E+0	2.022250E+0	1.750340E+0	1.952278E+0	1.750241E+0	1.873329E+0	1.892614E+0	1.911478E+0	1.783110E+0	1.949960E+0	1.841498E+0	1.996580E+0	1.913281E+0	1.897358E+0	1.720040E+0	1.789660E+0	1.848472E+0	1.960174E+0	1.761984E+0	1.674115E+0	1.751979E+0	1.940605E+0	1.904589E+0	1.849548E+0	1.724136E+0	1.906784E+0	1.863957E+0	1.901247E+0	1.867996E+0	1.949794E+0	1.711542E+0	1.863529E+0	1.894633E+0	1.857463E+0	1.714418E+0	1.761194E+0	1.746771E+0	1.847164E+0	1.936309E+0	1.641035E+0	1.748251E+0	1.882409E+0	1.883823E+0	1.821863E+0	1.848795E+0	1.947037E+0	1.609873E+0	1.776647E+0	1.863062E+0	1.943259E+0	1.629188E+0	1.714895E+0	1.684711E+0	1.841558E+0	1.864638E+0	1.723962E+0	1.741489E+0	1.878392E+0	1.917741E+0	1.871609E+0	1.833264E+0	1.962580E+0	1.761899E+0	1.854901E+0	1.785478E+0	1.917049E+0	1.687503E+0	1.712691E+0	1.602098E+0	1.932320E+0	1.891020E+0	1.729635E+0	1.673648E+0	1.860848E+0	1.868771E+0	1.891667E+0	1.853655E+0	1.928243E+0	1.713828E+0	1.871560E+0	1.789064E+0	1.927628E+0	1.667292E+0	1.677213E+0	1.560564E+0	1.980267E+0	1.845554E+0	1.706916E+0	1.668804E+0	1.946503E+0	1.943731E+0	1.828994E+0	1.883583E+0	1.960120E+0	1.836129E+0	1.919262E+0	1.880939E+0	1.978076E+0	1.860874E+0	1.723223E+0	1.748677E+0	1.900589E+0	1.879673E+0	1.713912E+0	1.803385E+0	2.056763E+0	1.819696E+0	1.778591E+0	1.896723E+0	1.962614E+0	1.656813E+0	1.775874E+0	1.835750E+0	1.960676E+0	1.662316E+0	1.658052E+0	1.641937E+0	1.947163E+0	1.835223E+0	1.690197E+0	1.695645E+0	1.974953E+0	1.845734E+0	1.798493E+0	1.879270E+0	1.901998E+0	1.604454E+0	1.509777E+0	1.785084E+0	1.966277E+0	1.645652E+0	1.590212E+0	1.746778E+0	1.945724E+0	1.843594E+0	1.735248E+0	1.758388E+0	1.903607E+0	1.693925E+0	1.916110E+0	1.915476E+0
5.397810E+2	2.202595E+0	1.807444E+0	2.175998E+0	2.090770E+0	2.146513E+0	2.165698E+0	2.231733E+0	1.803373E+0	1.942826E+0	1.990904E+0	2.022343E+0	1.839674E+0	1.833248E+0	1.831382E+0	2.027063E+0	2.064346E+0	1.863185E+0	1.816507E+0	2.038934E+0	2.076155E+0	1.999450E+0	2.108614E+0	2.023220E+0	1.951504E+0	2.136515E+0	2.146174E+0	2.132453E+0	1.886862E+0	2.032906E+0	1.941979E+0	2.019372E+0	2.065409E+0	2.021123E+0	1.964217E+0	2.107836E+0	2.073873E+0	2.156935E+0	2.002006E+0	2.151921E+0	1.818740E+0	1.942915E+0	1.970010E+0	2.063958E+0	1.886589E+0	1.871611E+0	1.876707E+0	2.071519E+0	2.083758E+0	1.947120E+0	1.819161E+0	2.106238E+0	2.098112E+0	2.026021E+0	2.089035E+0	2.057206E+0	1.816254E+0	1.991886E+0	2.080040E+0	1.972145E+0	1.915734E+0	1.854488E+0	1.848698E+0	1.946578E+0	1.982350E+0	1.771356E+0	1.842806E+0	2.050562E+0	2.051469E+0	1.979776E+0	2.050060E+0	2.046524E+0	1.812756E+0	2.060832E+0	1.974020E+0	2.038697E+0	1.761423E+0	1.802027E+0	1.802715E+0	2.035353E+0	2.036765E+0	1.823214E+0	1.846578E+0	2.078412E+0	2.072152E+0	2.017228E+0	2.043843E+0	2.124235E+0	1.834516E+0	1.936183E+0	1.977253E+0	2.086624E+0	1.828946E+0	1.882380E+0	1.734342E+0	2.037351E+0	2.007531E+0	1.865091E+0	1.784075E+0	2.100274E+0	1.977060E+0	2.032732E+0	2.010522E+0	2.079978E+0	1.899068E+0	1.963915E+0	2.026180E+0	2.092909E+0	1.786173E+0	1.817888E+0	1.743419E+0	2.139020E+0	1.986353E+0	1.764745E+0	1.766920E+0	2.110294E+0	2.039546E+0	1.970394E+0	2.022723E+0	2.134873E+0	1.966275E+0	2.030976E+0	2.013297E+0	2.102471E+0	2.031187E+0	1.877583E+0	1.827110E+0	2.113588E+0	2.039574E+0	1.803008E+0	1.801457E+0	2.095943E+0	1.927325E+0	2.003177E+0	2.092379E+0	2.128643E+0	1.796785E+0	1.921414E+0	1.887953E+0	2.138042E+0	1.787597E+0	1.755336E+0	1.793142E+0	2.086921E+0	1.925071E+0	1.791705E+0	1.903350E+0	2.158777E+0	2.006575E+0	1.987823E+0	2.039851E+0	2.168892E+0	1.768339E+0	1.647255E+0	1.967639E+0	2.119936E+0	1.745923E+0	1.779308E+0	1.932094E+0	2.074667E+0	1.954663E+0	1.858854E+0	1.964010E+0	2.021861E+0	1.874457E+0	2.090741E+0	2.168021E+0
5.400090E+2	2.272958E+0	1.782587E+0	2.177941E+0	2.138735E+0	2.163044E+0	2.070555E+0	2.196342E+0	1.881929E+0	2.040932E+0	2.033219E+0	2.046758E+0	1.888078E+0	1.906036E+0	1.817909E+0	2.065433E+0	2.044986E+0	2.008925E+0	1.911249E+0	1.997740E+0	2.206726E+0	2.153841E+0	2.174882E+0	2.091222E+0	1.990259E+0	2.171582E+0	2.199751E+0	2.128966E+0	1.883221E+0	2.124710E+0	1.927066E+0	2.047130E+0	2.046613E+0	2.126140E+0	1.953495E+0	2.164863E+0	2.088353E+0	2.180345E+0	2.025476E+0	2.131808E+0	1.918572E+0	2.051342E+0	2.033341E+0	2.049577E+0	1.875593E+0	1.928416E+0	1.914126E+0	2.067446E+0	2.039404E+0	1.999899E+0	1.812251E+0	2.123682E+0	2.138251E+0	2.088701E+0	2.096737E+0	2.179716E+0	1.874181E+0	2.003724E+0	2.085082E+0	2.044842E+0	1.954715E+0	1.910352E+0	1.821734E+0	2.039782E+0	2.134639E+0	1.753444E+0	1.907307E+0	2.115136E+0	2.090999E+0	2.047449E+0	2.138407E+0	2.136913E+0	1.823606E+0	2.002149E+0	1.986215E+0	2.167669E+0	1.849986E+0	1.824383E+0	1.857180E+0	2.192856E+0	2.049229E+0	1.874996E+0	1.852685E+0	2.123698E+0	2.097434E+0	2.057258E+0	1.999575E+0	2.116812E+0	1.841012E+0	2.075345E+0	2.016972E+0	2.125562E+0	1.886956E+0	1.845978E+0	1.833139E+0	2.056445E+0	1.996994E+0	1.844587E+0	1.837565E+0	2.090186E+0	2.006657E+0	2.022453E+0	2.073378E+0	2.172605E+0	1.895100E+0	2.058145E+0	1.959839E+0	2.157555E+0	1.804221E+0	1.853336E+0	1.821088E+0	2.130606E+0	2.036016E+0	1.868184E+0	1.880596E+0	2.141553E+0	2.210549E+0	1.941616E+0	1.993996E+0	2.170059E+0	1.955321E+0	2.028802E+0	2.012714E+0	2.166254E+0	2.030486E+0	1.911611E+0	1.883053E+0	2.025992E+0	2.130687E+0	1.959078E+0	1.967851E+0	2.200904E+0	2.064192E+0	2.032058E+0	2.178588E+0	2.072461E+0	1.834600E+0	1.940777E+0	2.038764E+0	2.149548E+0	1.810818E+0	1.791264E+0	1.714602E+0	2.196322E+0	2.105378E+0	1.804889E+0	1.778605E+0	2.097503E+0	2.068816E+0	1.991884E+0	2.084762E+0	2.145225E+0	1.828622E+0	1.670893E+0	1.967636E+0	2.114108E+0	1.749223E+0	1.842338E+0	1.869146E+0	2.121861E+0	2.081602E+0	1.887376E+0	1.889756E+0	2.181802E+0	1.857264E+0	2.042468E+0	1.937980E+0
5.402690E+2	2.168974E+0	1.791092E+0	2.180535E+0	2.094248E+0	2.203381E+0	2.084929E+0	2.208139E+0	1.800209E+0	1.956313E+0	2.063354E+0	2.038078E+0	1.882177E+0	1.819965E+0	1.784475E+0	1.990269E+0	2.041239E+0	1.906217E+0	1.915173E+0	2.002587E+0	2.141795E+0	2.102191E+0	2.064777E+0	2.094710E+0	1.979965E+0	2.191713E+0	2.203964E+0	2.119899E+0	1.889894E+0	2.124124E+0	1.978726E+0	2.064029E+0	1.998716E+0	2.093110E+0	1.943964E+0	2.045404E+0	2.118003E+0	2.203754E+0	2.054093E+0	2.118016E+0	1.862983E+0	1.964722E+0	1.986643E+0	2.089593E+0	1.840781E+0	1.887004E+0	1.892977E+0	2.073263E+0	2.077924E+0	1.973511E+0	1.852565E+0	2.082396E+0	2.055296E+0	2.047874E+0	1.991714E+0	2.132683E+0	1.845776E+0	1.951385E+0	2.022019E+0	2.032934E+0	1.831369E+0	1.837671E+0	1.870810E+0	2.009846E+0	2.075019E+0	1.785561E+0	1.884137E+0	2.046086E+0	2.097134E+0	2.016356E+0	2.073462E+0	2.142602E+0	1.948920E+0	1.978411E+0	2.091078E+0	2.062560E+0	1.816015E+0	1.878838E+0	1.881008E+0	2.065502E+0	2.022523E+0	1.884242E+0	1.896676E+0	2.092249E+0	2.092649E+0	2.017227E+0	2.012735E+0	2.141943E+0	1.846916E+0	2.037784E+0	1.920154E+0	2.122421E+0	1.853716E+0	1.877898E+0	1.800205E+0	2.067188E+0	2.027362E+0	1.917908E+0	1.871499E+0	2.034368E+0	2.061816E+0	2.075566E+0	1.987714E+0	2.070227E+0	1.852047E+0	1.987009E+0	2.035396E+0	2.141558E+0	1.786796E+0	1.813458E+0	1.805444E+0	2.156462E+0	2.013813E+0	1.793012E+0	1.841109E+0	2.106544E+0	2.086722E+0	1.955377E+0	2.017090E+0	2.162434E+0	1.995912E+0	2.065794E+0	2.037096E+0	2.070902E+0	2.014430E+0	1.961381E+0	1.848500E+0	2.096570E+0	2.066121E+0	1.904393E+0	1.940869E+0	2.100846E+0	1.965860E+0	2.054456E+0	2.086875E+0	2.146951E+0	1.882574E+0	1.905797E+0	2.011050E+0	2.065604E+0	1.752762E+0	1.812824E+0	1.749330E+0	2.119172E+0	1.979469E+0	1.886621E+0	1.750142E+0	2.119590E+0	2.070913E+0	1.988499E+0	2.068769E+0	2.116298E+0	1.726785E+0	1.652231E+0	1.930718E+0	2.138140E+0	1.769013E+0	1.742648E+0	1.905621E+0	2.157751E+0	1.993378E+0	1.872435E+0	2.006530E+0	2.111194E+0	1.932486E+0	2.103521E+0	2.080505E+0
5.405020E+2	2.135347E+0	1.732218E+0	2.017277E+0	1.939937E+0	2.118077E+0	2.090405E+0	2.196341E+0	1.665270E+0	1.820192E+0	1.931917E+0	1.898639E+0	1.807203E+0	1.791278E+0	1.824395E+0	1.880940E+0	2.048107E+0	1.837938E+0	1.840614E+0	1.883246E+0	2.038752E+0	2.016294E+0	2.014681E+0	1.970913E+0	1.896999E+0	2.052736E+0	2.088384E+0	2.104552E+0	1.824361E+0	2.020548E+0	1.831728E+0	2.003683E+0	1.990833E+0	2.019799E+0	1.942175E+0	1.998581E+0	1.985612E+0	2.116555E+0	1.874930E+0	2.053656E+0	1.805127E+0	1.906570E+0	1.902841E+0	2.050831E+0	1.774199E+0	1.804716E+0	1.801871E+0	2.017990E+0	2.018395E+0	1.886368E+0	1.745444E+0	1.957376E+0	2.066670E+0	1.898949E+0	1.892741E+0	1.995659E+0	1.781165E+0	1.947022E+0	1.967154E+0	1.948963E+0	1.789832E+0	1.736786E+0	1.841687E+0	1.955055E+0	1.964051E+0	1.802854E+0	1.849697E+0	1.998135E+0	1.988092E+0	1.984650E+0	1.962298E+0	2.039704E+0	1.760139E+0	1.921050E+0	1.988654E+0	2.001940E+0	1.695912E+0	1.814636E+0	1.694352E+0	1.986752E+0	1.951298E+0	1.823830E+0	1.794644E+0	1.947581E+0	1.962153E+0	1.953990E+0	2.009143E+0	2.035696E+0	1.730611E+0	1.910322E+0	1.908362E+0	2.101698E+0	1.732476E+0	1.772614E+0	1.758012E+0	1.947237E+0	1.902795E+0	1.811033E+0	1.751868E+0	2.013519E+0	1.891639E+0	1.964198E+0	1.932643E+0	2.043414E+0	1.750652E+0	2.011969E+0	1.932195E+0	2.082911E+0	1.703394E+0	1.771923E+0	1.677072E+0	2.054230E+0	1.886445E+0	1.728763E+0	1.731024E+0	2.037152E+0	2.087457E+0	1.938488E+0	1.923017E+0	2.008206E+0	1.953391E+0	1.988180E+0	1.934927E+0	2.008383E+0	1.923695E+0	1.790638E+0	1.806813E+0	2.065692E+0	1.959320E+0	1.791949E+0	1.787966E+0	2.028772E+0	1.931314E+0	1.994332E+0	2.096047E+0	2.048470E+0	1.791141E+0	1.860825E+0	1.855084E+0	1.978955E+0	1.705094E+0	1.681269E+0	1.643540E+0	2.042019E+0	1.907347E+0	1.727770E+0	1.782239E+0	2.062593E+0	1.969516E+0	1.926292E+0	2.008472E+0	2.089350E+0	1.726782E+0	1.667161E+0	1.906103E+0	2.085706E+0	1.689192E+0	1.642955E+0	1.822082E+0	2.050075E+0	1.910236E+0	1.750190E+0	1.858663E+0	1.952104E+0	1.796011E+0	1.909010E+0	2.000491E+0
5.407580E+2	2.074953E+0	1.655685E+0	1.922043E+0	1.926731E+0	2.018220E+0	1.961032E+0	2.084571E+0	1.848989E+0	1.786469E+0	1.836383E+0	1.850892E+0	1.804254E+0	1.728054E+0	1.713613E+0	1.851506E+0	1.973792E+0	1.831625E+0	1.716723E+0	1.784500E+0	1.978052E+0	1.879310E+0	1.931191E+0	1.837814E+0	1.850976E+0	1.994937E+0	1.948724E+0	1.992260E+0	1.705438E+0	1.966992E+0	1.784328E+0	1.887808E+0	1.945969E+0	1.884393E+0	1.896899E+0	1.893532E+0	1.882871E+0	2.025258E+0	1.833715E+0	1.934134E+0	1.699619E+0	1.751502E+0	1.815208E+0	1.962674E+0	1.712509E+0	1.722955E+0	1.725946E+0	1.864968E+0	1.933771E+0	1.862435E+0	1.694188E+0	1.886431E+0	1.847228E+0	1.860420E+0	1.878993E+0	1.966631E+0	1.652505E+0	1.824896E+0	1.836615E+0	1.930786E+0	1.738706E+0	1.695020E+0	1.663725E+0	1.870322E+0	1.866065E+0	1.687354E+0	1.723826E+0	1.969364E+0	1.851793E+0	1.834057E+0	1.911399E+0	1.981715E+0	1.708063E+0	1.841263E+0	1.865500E+0	1.956157E+0	1.700763E+0	1.633494E+0	1.688683E+0	1.922768E+0	1.824872E+0	1.706086E+0	1.771428E+0	1.890343E+0	1.876747E+0	1.879731E+0	1.916418E+0	1.971720E+0	1.688689E+0	1.855521E+0	1.833886E+0	1.995554E+0	1.628187E+0	1.679091E+0	1.623712E+0	1.908443E+0	1.824090E+0	1.747031E+0	1.673069E+0	1.907260E+0	1.962937E+0	1.897376E+0	1.855323E+0	1.972119E+0	1.689472E+0	1.885911E+0	1.825305E+0	1.902299E+0	1.607543E+0	1.690508E+0	1.641470E+0	1.933963E+0	1.851976E+0	1.685069E+0	1.636496E+0	1.947128E+0	2.015227E+0	1.810223E+0	1.871189E+0	1.944874E+0	1.779432E+0	1.916364E+0	1.860042E+0	1.972390E+0	1.879023E+0	1.742122E+0	1.742642E+0	1.953520E+0	1.919498E+0	1.701012E+0	1.715368E+0	1.965098E+0	1.834314E+0	1.881157E+0	1.926069E+0	1.913377E+0	1.734136E+0	1.821473E+0	1.751320E+0	1.947140E+0	1.637872E+0	1.650865E+0	1.645681E+0	1.956646E+0	1.922015E+0	1.691517E+0	1.702302E+0	1.960706E+0	1.828249E+0	1.770767E+0	1.902031E+0	1.925002E+0	1.599776E+0	1.540260E+0	1.741327E+0	1.956811E+0	1.642357E+0	1.605003E+0	1.702067E+0	1.977628E+0	1.849939E+0	1.740004E+0	1.751410E+0	2.026111E+0	1.683178E+0	1.924628E+0	1.852966E+0
5.410080E+2	1.970966E+0	1.582423E+0	1.810615E+0	1.969827E+0	1.868108E+0	1.925441E+0	1.928088E+0	1.876863E+0	1.649730E+0	1.795351E+0	1.810740E+0	1.932355E+0	1.632423E+0	1.568393E+0	1.736395E+0	1.897598E+0	1.674983E+0	1.671875E+0	1.697267E+0	1.969583E+0	1.790047E+0	1.825262E+0	1.806429E+0	1.941205E+0	1.883233E+0	1.884915E+0	1.936460E+0	1.914161E+0	1.835754E+0	1.706035E+0	1.813581E+0	1.940511E+0	1.918743E+0	1.662769E+0	1.827498E+0	1.737380E+0	1.816914E+0	1.833719E+0	1.909426E+0	1.722307E+0	1.667906E+0	1.768509E+0	1.803244E+0	1.693572E+0	1.623678E+0	1.673341E+0	1.771874E+0	1.780866E+0	1.699199E+0	1.618744E+0	1.830025E+0	1.815117E+0	1.837995E+0	1.730538E+0	1.855739E+0	1.638021E+0	1.740780E+0	1.776705E+0	1.827384E+0	1.635809E+0	1.634272E+0	1.649163E+0	1.745485E+0	1.800547E+0	1.605827E+0	1.668090E+0	1.890080E+0	1.798637E+0	1.757847E+0	1.817786E+0	1.785585E+0	1.641336E+0	1.732471E+0	1.820990E+0	1.869750E+0	1.595824E+0	1.632349E+0	1.610954E+0	1.837253E+0	1.845055E+0	1.612999E+0	1.687725E+0	1.806687E+0	1.798863E+0	1.736433E+0	1.774038E+0	1.910027E+0	1.574743E+0	1.709585E+0	1.748241E+0	1.885646E+0	1.557789E+0	1.579409E+0	1.575857E+0	1.797448E+0	1.760875E+0	1.664390E+0	1.569545E+0	1.800995E+0	1.727519E+0	1.805997E+0	1.849760E+0	1.886196E+0	1.646984E+0	1.762975E+0	1.710433E+0	1.874311E+0	1.532233E+0	1.610200E+0	1.560023E+0	1.863607E+0	1.727533E+0	1.615038E+0	1.575472E+0	1.863979E+0	1.803685E+0	1.730143E+0	1.746130E+0	1.856910E+0	1.777497E+0	1.855431E+0	1.774122E+0	1.860618E+0	1.742221E+0	1.681008E+0	1.653788E+0	1.918233E+0	1.787355E+0	1.637721E+0	1.692883E+0	1.841244E+0	1.752590E+0	1.828697E+0	1.831303E+0	1.807956E+0	1.586266E+0	1.711536E+0	1.755187E+0	1.857107E+0	1.527865E+0	1.523181E+0	1.575690E+0	1.836493E+0	1.762487E+0	1.568916E+0	1.657491E+0	1.839579E+0	1.815665E+0	1.785647E+0	1.791289E+0	1.836259E+0	1.575192E+0	1.430777E+0	1.732439E+0	1.929867E+0	1.585623E+0	1.517531E+0	1.619703E+0	1.866629E+0	1.740773E+0	1.670733E+0	1.683502E+0	1.877234E+0	1.743358E+0	1.723020E+0	1.835463E+0
5.412640E+2	1.843941E+0	1.456830E+0	1.782759E+0	1.825247E+0	1.757011E+0	1.789910E+0	1.888350E+0	1.834419E+0	1.625817E+0	1.705589E+0	1.644713E+0	1.888672E+0	1.516604E+0	1.544440E+0	1.678049E+0	1.822030E+0	1.604405E+0	1.524999E+0	1.729375E+0	1.787488E+0	1.797906E+0	1.737597E+0	1.733197E+0	1.855820E+0	1.753994E+0	1.772944E+0	1.785803E+0	1.865623E+0	1.738651E+0	1.632002E+0	1.721246E+0	1.851390E+0	1.710030E+0	1.667534E+0	1.809493E+0	1.793231E+0	1.788824E+0	1.707787E+0	1.745656E+0	1.859015E+0	1.649737E+0	1.685986E+0	1.696958E+0	1.855440E+0	1.505285E+0	1.601756E+0	1.764309E+0	1.868989E+0	1.692447E+0	1.492042E+0	1.739309E+0	1.744870E+0	1.746572E+0	1.710191E+0	1.750649E+0	1.663086E+0	1.661646E+0	1.702290E+0	1.749673E+0	1.615359E+0	1.517113E+0	1.588225E+0	1.667535E+0	1.698433E+0	1.514417E+0	1.586062E+0	1.727041E+0	1.703907E+0	1.702974E+0	1.724757E+0	1.817991E+0	1.523076E+0	1.654666E+0	1.647850E+0	1.810422E+0	1.487851E+0	1.485602E+0	1.543443E+0	1.744965E+0	1.700229E+0	1.547036E+0	1.563698E+0	1.685920E+0	1.695012E+0	1.659853E+0	1.707035E+0	1.762082E+0	1.550539E+0	1.644928E+0	1.623497E+0	1.800229E+0	1.501736E+0	1.508847E+0	1.483237E+0	1.783119E+0	1.666057E+0	1.540118E+0	1.547689E+0	1.722980E+0	1.730212E+0	1.686062E+0	1.708471E+0	1.810020E+0	1.562580E+0	1.776080E+0	1.663132E+0	1.779009E+0	1.475592E+0	1.475614E+0	1.488285E+0	1.764382E+0	1.660344E+0	1.532797E+0	1.498291E+0	1.816467E+0	1.739558E+0	1.634416E+0	1.724160E+0	1.833452E+0	1.624798E+0	1.758225E+0	1.729423E+0	1.774105E+0	1.684984E+0	1.587130E+0	1.501861E+0	1.749345E+0	1.704691E+0	1.545553E+0	1.593946E+0	1.844045E+0	1.631674E+0	1.717292E+0	1.715130E+0	1.795328E+0	1.536033E+0	1.637207E+0	1.646910E+0	1.774517E+0	1.499751E+0	1.487806E+0	1.446927E+0	1.724558E+0	1.649413E+0	1.506298E+0	1.565448E+0	1.845283E+0	1.742936E+0	1.699092E+0	1.694697E+0	1.749488E+0	1.535393E+0	1.390965E+0	1.623726E+0	1.712123E+0	1.513718E+0	1.460930E+0	1.572639E+0	1.795514E+0	1.685552E+0	1.568182E+0	1.581958E+0	1.678156E+0	1.619777E+0	1.718760E+0	1.665432E+0
5.415140E+2	1.712563E+0	1.395995E+0	1.689467E+0	1.755740E+0	1.733865E+0	1.734466E+0	1.756088E+0	1.782468E+0	1.584737E+0	1.597873E+0	1.617041E+0	1.806615E+0	1.482071E+0	1.463599E+0	1.606567E+0	1.761451E+0	1.555064E+0	1.475665E+0	1.539761E+0	1.748670E+0	1.593553E+0	1.667149E+0	1.584990E+0	1.747426E+0	1.702688E+0	1.694084E+0	1.810913E+0	1.738810E+0	1.693336E+0	1.536133E+0	1.622876E+0	1.761049E+0	1.609632E+0	1.548386E+0	1.704439E+0	1.759445E+0	1.744932E+0	1.609903E+0	1.687043E+0	1.789814E+0	1.535854E+0	1.586196E+0	1.663821E+0	1.735718E+0	1.443702E+0	1.491126E+0	1.643290E+0	1.793707E+0	1.573397E+0	1.459792E+0	1.688137E+0	1.751561E+0	1.633870E+0	1.635415E+0	1.745422E+0	1.761115E+0	1.608684E+0	1.629133E+0	1.614934E+0	1.686936E+0	1.472095E+0	1.493850E+0	1.602010E+0	1.775756E+0	1.466241E+0	1.499640E+0	1.684202E+0	1.725032E+0	1.599936E+0	1.656890E+0	1.659951E+0	1.525790E+0	1.593343E+0	1.690523E+0	1.642112E+0	1.532135E+0	1.474710E+0	1.432809E+0	1.609616E+0	1.636719E+0	1.437923E+0	1.506877E+0	1.630569E+0	1.628741E+0	1.565868E+0	1.665759E+0	1.733521E+0	1.506258E+0	1.610447E+0	1.563295E+0	1.696598E+0	1.409177E+0	1.529567E+0	1.446703E+0	1.624975E+0	1.565044E+0	1.499727E+0	1.529281E+0	1.589818E+0	1.660929E+0	1.606676E+0	1.622251E+0	1.649754E+0	1.552384E+0	1.684343E+0	1.602317E+0	1.768345E+0	1.392190E+0	1.465647E+0	1.437580E+0	1.719883E+0	1.665601E+0	1.413294E+0	1.446243E+0	1.653925E+0	1.678385E+0	1.611892E+0	1.595157E+0	1.643452E+0	1.563594E+0	1.658842E+0	1.605194E+0	1.684439E+0	1.568420E+0	1.512786E+0	1.538606E+0	1.654821E+0	1.727618E+0	1.518518E+0	1.550902E+0	1.728592E+0	1.613068E+0	1.619440E+0	1.685173E+0	1.812374E+0	1.435572E+0	1.567246E+0	1.586972E+0	1.710206E+0	1.423974E+0	1.409313E+0	1.421281E+0	1.708118E+0	1.624354E+0	1.479934E+0	1.469766E+0	1.661459E+0	1.607966E+0	1.568590E+0	1.619633E+0	1.678491E+0	1.456379E+0	1.365459E+0	1.618255E+0	1.728872E+0	1.456327E+0	1.435844E+0	1.476158E+0	1.768259E+0	1.614465E+0	1.521322E+0	1.481054E+0	1.708787E+0	1.555301E+0	1.620796E+0	1.622924E+0
5.417540E+2	1.633483E+0	1.276943E+0	1.579333E+0	1.579184E+0	1.621446E+0	1.490101E+0	1.634381E+0	1.578479E+0	1.420406E+0	1.452333E+0	1.464576E+0	1.612394E+0	1.342347E+0	1.363792E+0	1.445201E+0	1.560355E+0	1.451780E+0	1.306365E+0	1.374377E+0	1.623744E+0	1.499796E+0	1.470943E+0	1.525123E+0	1.684446E+0	1.573452E+0	1.559241E+0	1.607248E+0	1.590156E+0	1.516195E+0	1.435473E+0	1.528731E+0	1.589469E+0	1.547549E+0	1.403619E+0	1.521952E+0	1.610502E+0	1.552973E+0	1.524043E+0	1.530745E+0	1.595247E+0	1.477702E+0	1.420516E+0	1.565664E+0	1.612947E+0	1.348670E+0	1.355552E+0	1.452447E+0	1.587109E+0	1.464163E+0	1.377438E+0	1.497987E+0	1.613075E+0	1.474020E+0	1.500702E+0	1.567757E+0	1.624654E+0	1.444812E+0	1.477152E+0	1.488344E+0	1.640923E+0	1.371208E+0	1.422127E+0	1.481129E+0	1.560311E+0	1.374213E+0	1.397570E+0	1.530754E+0	1.618719E+0	1.460928E+0	1.559766E+0	1.564443E+0	1.600653E+0	1.475977E+0	1.443609E+0	1.534425E+0	1.601284E+0	1.351466E+0	1.347141E+0	1.497643E+0	1.598140E+0	1.402169E+0	1.321752E+0	1.573959E+0	1.522840E+0	1.512494E+0	1.541926E+0	1.562723E+0	1.466704E+0	1.454659E+0	1.446618E+0	1.525136E+0	1.469794E+0	1.306119E+0	1.341735E+0	1.509798E+0	1.528478E+0	1.397827E+0	1.375716E+0	1.518529E+0	1.514974E+0	1.461041E+0	1.468164E+0	1.546769E+0	1.372244E+0	1.524589E+0	1.451813E+0	1.596397E+0	1.376009E+0	1.371490E+0	1.291946E+0	1.626676E+0	1.510193E+0	1.343900E+0	1.307443E+0	1.605786E+0	1.553080E+0	1.387284E+0	1.449256E+0	1.572494E+0	1.480481E+0	1.526097E+0	1.508824E+0	1.506994E+0	1.502112E+0	1.390556E+0	1.396551E+0	1.504213E+0	1.482037E+0	1.431267E+0	1.424337E+0	1.590744E+0	1.503442E+0	1.541046E+0	1.497465E+0	1.614785E+0	1.365021E+0	1.424205E+0	1.402004E+0	1.570078E+0	1.347582E+0	1.334691E+0	1.309615E+0	1.558876E+0	1.447713E+0	1.358655E+0	1.344416E+0	1.553873E+0	1.503071E+0	1.497590E+0	1.465205E+0	1.571338E+0	1.313568E+0	1.303257E+0	1.455530E+0	1.530064E+0	1.340226E+0	1.292412E+0	1.371438E+0	1.554905E+0	1.514818E+0	1.398397E+0	1.389665E+0	1.600737E+0	1.400558E+0	1.471720E+0	1.530408E+0
5.420160E+2	1.472212E+0	1.185365E+0	1.412838E+0	1.372744E+0	1.355608E+0	1.416858E+0	1.469205E+0	1.484085E+0	1.256074E+0	1.333719E+0	1.331647E+0	1.448873E+0	1.202087E+0	1.160688E+0	1.285411E+0	1.419210E+0	1.237188E+0	1.203777E+0	1.268366E+0	1.426122E+0	1.308915E+0	1.354577E+0	1.354829E+0	1.434952E+0	1.412390E+0	1.415967E+0	1.400097E+0	1.446352E+0	1.404967E+0	1.273559E+0	1.333805E+0	1.439108E+0	1.420072E+0	1.270171E+0	1.363476E+0	1.449151E+0	1.456409E+0	1.316258E+0	1.415816E+0	1.438124E+0	1.248731E+0	1.363585E+0	1.388729E+0	1.407715E+0	1.180903E+0	1.259561E+0	1.356445E+0	1.430116E+0	1.317498E+0	1.186812E+0	1.393896E+0	1.415043E+0	1.345795E+0	1.329701E+0	1.381384E+0	1.425812E+0	1.279691E+0	1.385080E+0	1.351728E+0	1.415326E+0	1.262184E+0	1.231756E+0	1.290766E+0	1.455834E+0	1.150009E+0	1.227238E+0	1.331273E+0	1.433348E+0	1.323745E+0	1.319889E+0	1.414362E+0	1.425975E+0	1.315753E+0	1.314970E+0	1.371921E+0	1.467227E+0	1.131343E+0	1.212680E+0	1.365372E+0	1.426606E+0	1.219075E+0	1.210555E+0	1.339972E+0	1.381412E+0	1.351210E+0	1.296649E+0	1.447338E+0	1.463752E+0	1.287176E+0	1.298287E+0	1.418367E+0	1.418954E+0	1.192997E+0	1.147230E+0	1.385071E+0	1.371067E+0	1.191536E+0	1.218125E+0	1.344341E+0	1.424840E+0	1.410782E+0	1.368037E+0	1.425503E+0	1.373376E+0	1.307420E+0	1.326495E+0	1.384464E+0	1.387833E+0	1.174877E+0	1.105314E+0	1.356070E+0	1.410288E+0	1.174923E+0	1.183598E+0	1.391978E+0	1.401979E+0	1.349118E+0	1.344476E+0	1.393051E+0	1.356131E+0	1.286713E+0	1.350923E+0	1.408484E+0	1.319241E+0	1.243751E+0	1.231460E+0	1.396456E+0	1.370408E+0	1.235872E+0	1.254089E+0	1.460596E+0	1.376542E+0	1.400752E+0	1.362341E+0	1.408986E+0	1.241984E+0	1.281165E+0	1.340134E+0	1.423179E+0	1.134908E+0	1.187106E+0	1.122085E+0	1.411531E+0	1.353589E+0	1.174754E+0	1.222696E+0	1.407814E+0	1.375793E+0	1.252132E+0	1.392605E+0	1.367554E+0	1.139153E+0	1.127832E+0	1.312632E+0	1.385146E+0	1.193776E+0	1.153481E+0	1.280253E+0	1.344876E+0	1.358684E+0	1.276835E+0	1.283046E+0	1.423781E+0	1.220025E+0	1.318384E+0	1.385381E+0
5.422670E+2	1.235601E+0	1.018561E+0	1.178967E+0	1.179509E+0	1.244511E+0	1.166333E+0	1.294099E+0	1.217372E+0	1.086841E+0	1.151631E+0	1.103225E+0	1.198573E+0	1.014544E+0	1.057387E+0	1.080946E+0	1.256836E+0	1.104643E+0	1.077083E+0	1.092080E+0	1.196034E+0	1.188212E+0	1.180812E+0	1.178722E+0	1.270236E+0	1.218860E+0	1.229958E+0	1.264783E+0	1.278882E+0	1.201933E+0	1.027497E+0	1.160000E+0	1.252975E+0	1.163142E+0	1.086083E+0	1.189991E+0	1.217465E+0	1.208854E+0	1.147395E+0	1.204929E+0	1.298583E+0	1.112443E+0	1.099392E+0	1.202415E+0	1.234246E+0	1.039683E+0	1.072466E+0	1.166768E+0	1.237528E+0	1.141376E+0	1.044562E+0	1.199674E+0	1.279900E+0	1.146841E+0	1.165847E+0	1.213589E+0	1.272082E+0	1.097123E+0	1.135351E+0	1.190044E+0	1.188451E+0	1.039258E+0	1.078600E+0	1.161411E+0	1.180770E+0	1.035128E+0	1.106379E+0	1.186776E+0	1.240485E+0	1.162789E+0	1.145536E+0	1.190941E+0	1.270287E+0	1.129813E+0	1.174746E+0	1.153313E+0	1.268267E+0	1.031600E+0	1.060633E+0	1.242941E+0	1.214713E+0	1.089003E+0	1.109136E+0	1.133661E+0	1.226318E+0	1.189346E+0	1.150083E+0	1.234273E+0	1.222873E+0	1.143089E+0	1.174782E+0	1.234345E+0	1.283376E+0	1.072592E+0	1.026307E+0	1.214989E+0	1.234105E+0	1.108893E+0	1.022002E+0	1.197730E+0	1.267450E+0	1.140639E+0	1.173903E+0	1.262797E+0	1.223828E+0	1.215685E+0	1.140981E+0	1.239176E+0	1.252772E+0	1.034199E+0	1.013080E+0	1.197316E+0	1.218655E+0	1.000161E+0	1.040010E+0	1.235688E+0	1.239824E+0	1.118249E+0	1.200264E+0	1.227093E+0	1.240805E+0	1.249719E+0	1.181992E+0	1.249985E+0	1.202678E+0	1.093169E+0	1.138766E+0	1.191648E+0	1.209904E+0	1.104381E+0	1.108252E+0	1.238783E+0	1.223070E+0	1.209772E+0	1.198481E+0	1.220866E+0	1.143780E+0	1.145617E+0	1.162252E+0	1.210615E+0	1.106795E+0	1.054999E+0	1.063848E+0	1.242048E+0	1.153721E+0	1.051495E+0	1.006508E+0	1.220427E+0	1.172295E+0	1.168286E+0	1.183424E+0	1.209127E+0	1.035556E+0	9.791604E-1	1.097260E+0	1.185610E+0	1.020944E+0	9.952564E-1	1.097881E+0	1.201309E+0	1.171448E+0	1.070376E+0	1.141523E+0	1.234915E+0	1.093222E+0	1.157949E+0	1.200348E+0
5.425140E+2	1.109200E+0	9.217494E-1	1.028667E+0	1.117644E+0	1.042158E+0	1.107466E+0	1.150036E+0	1.084970E+0	1.009580E+0	1.003528E+0	1.015872E+0	1.129505E+0	9.566343E-1	8.962011E-1	1.060444E+0	1.153788E+0	9.480022E-1	9.167509E-1	9.666802E-1	1.106398E+0	9.928421E-1	1.095752E+0	1.051437E+0	1.164866E+0	1.082478E+0	1.086686E+0	1.125286E+0	1.124160E+0	1.029501E+0	9.481365E-1	1.059217E+0	1.099582E+0	1.066048E+0	1.016980E+0	1.051926E+0	1.100242E+0	1.037380E+0	1.035203E+0	1.094599E+0	1.114226E+0	9.779658E-1	1.028386E+0	1.002968E+0	1.104754E+0	9.706662E-1	9.423126E-1	1.037019E+0	1.109135E+0	9.805913E-1	9.432011E-1	1.031039E+0	1.121343E+0	1.018041E+0	9.964952E-1	1.071922E+0	1.093296E+0	1.057246E+0	1.058412E+0	1.028360E+0	1.093228E+0	8.949771E-1	9.421607E-1	1.000987E+0	1.112297E+0	9.085124E-1	9.510775E-1	1.039081E+0	1.093280E+0	1.050604E+0	1.046661E+0	1.081792E+0	1.111344E+0	1.011786E+0	9.961130E-1	1.028858E+0	1.067484E+0	9.496280E-1	9.454644E-1	1.064523E+0	1.107876E+0	1.005163E+0	9.625020E-1	1.048118E+0	1.111537E+0	1.070996E+0	1.044792E+0	1.048055E+0	1.134904E+0	1.017473E+0	9.929398E-1	1.081727E+0	1.070233E+0	9.281078E-1	8.950933E-1	1.087877E+0	1.092804E+0	9.920788E-1	9.495306E-1	1.085412E+0	1.080462E+0	1.008710E+0	1.070436E+0	1.083028E+0	1.107134E+0	1.030343E+0	1.075866E+0	1.100552E+0	1.099662E+0	9.345067E-1	9.256975E-1	1.092080E+0	1.137443E+0	9.012148E-1	9.024051E-1	1.063768E+0	1.114523E+0	1.043795E+0	9.980282E-1	1.119191E+0	1.122255E+0	1.128577E+0	1.047312E+0	1.103483E+0	1.132879E+0	9.986609E-1	1.001098E+0	1.079478E+0	1.087416E+0	9.612118E-1	9.604892E-1	1.112131E+0	1.134705E+0	1.075967E+0	1.098209E+0	1.119863E+0	1.099193E+0	1.021941E+0	1.010795E+0	1.125997E+0	1.144683E+0	9.356042E-1	9.479074E-1	1.073831E+0	1.131105E+0	9.460332E-1	9.768369E-1	1.156303E+0	1.078585E+0	1.007354E+0	1.024687E+0	1.058589E+0	9.600557E-1	9.051352E-1	1.041194E+0	1.141186E+0	9.661915E-1	8.846271E-1	9.708060E-1	1.147472E+0	1.080687E+0	9.922748E-1	9.771529E-1	1.089435E+0	9.857613E-1	1.075603E+0	1.120334E+0
5.427810E+2	1.021404E+0	8.478327E-1	9.671221E-1	9.709794E-1	1.033561E+0	1.035594E+0	1.035160E+0	1.049493E+0	9.304815E-1	9.714688E-1	9.621545E-1	1.026787E+0	8.854421E-1	8.373152E-1	9.385025E-1	1.037003E+0	9.227544E-1	8.685414E-1	9.672869E-1	1.068991E+0	9.608417E-1	9.731263E-1	9.474018E-1	1.091592E+0	9.922067E-1	1.001204E+0	1.029033E+0	1.012516E+0	9.788865E-1	9.215083E-1	9.620554E-1	1.011064E+0	9.933953E-1	9.079583E-1	9.522765E-1	9.802621E-1	9.981714E-1	9.613619E-1	1.000360E+0	1.058638E+0	9.628218E-1	9.765716E-1	9.554532E-1	1.043674E+0	8.496221E-1	8.728970E-1	9.567268E-1	1.054275E+0	9.284304E-1	8.545107E-1	9.845185E-1	1.055780E+0	1.014018E+0	9.898965E-1	1.013280E+0	9.902527E-1	9.569284E-1	1.044539E+0	9.193146E-1	1.040821E+0	8.787055E-1	8.925487E-1	9.326387E-1	1.030839E+0	8.726896E-1	9.160096E-1	1.022459E+0	1.050346E+0	9.030594E-1	9.776220E-1	1.013005E+0	1.046788E+0	9.227717E-1	9.479487E-1	1.034017E+0	1.005612E+0	8.344072E-1	8.688728E-1	1.009767E+0	1.036650E+0	8.652249E-1	8.842981E-1	1.009749E+0	9.824071E-1	9.891952E-1	1.004710E+0	1.068047E+0	1.057562E+0	9.084829E-1	9.184647E-1	1.042786E+0	1.024605E+0	8.485851E-1	8.796580E-1	1.002538E+0	1.048805E+0	9.137858E-1	8.655587E-1	1.024884E+0	1.031361E+0	9.961462E-1	9.853285E-1	9.928398E-1	1.061250E+0	9.573307E-1	9.665209E-1	9.879205E-1	1.028086E+0	8.763530E-1	8.900983E-1	1.000075E+0	1.011832E+0	8.761570E-1	9.131743E-1	1.005625E+0	1.077669E+0	9.286755E-1	9.918302E-1	1.030640E+0	1.082307E+0	1.022669E+0	9.660395E-1	1.032127E+0	1.007241E+0	9.469970E-1	9.286979E-1	9.931466E-1	1.069315E+0	9.022258E-1	9.412158E-1	1.027464E+0	1.058301E+0	9.722222E-1	1.025450E+0	1.052318E+0	1.050656E+0	9.469840E-1	9.695472E-1	1.082674E+0	1.010847E+0	8.322394E-1	8.886030E-1	1.026402E+0	1.120105E+0	8.774831E-1	8.969024E-1	1.075791E+0	9.946679E-1	1.014792E+0	1.004383E+0	9.862771E-1	1.035555E+0	8.018733E-1	1.006324E+0	1.027582E+0	1.036777E+0	8.897729E-1	8.872666E-1	1.073695E+0	1.010868E+0	9.515268E-1	9.422483E-1	1.014569E+0	9.836129E-1	9.591815E-1	8.652887E-1
5.430120E+2	1.096746E+0	8.229755E-1	1.010527E+0	1.014771E+0	1.058690E+0	1.090353E+0	1.091667E+0	1.024154E+0	9.427448E-1	9.509520E-1	1.011529E+0	1.070470E+0	8.780046E-1	8.657608E-1	9.632062E-1	1.055114E+0	9.009506E-1	8.859178E-1	9.363916E-1	1.015351E+0	1.025406E+0	9.715603E-1	9.700685E-1	1.078271E+0	1.028575E+0	1.045749E+0	9.920663E-1	1.030718E+0	9.647643E-1	9.172458E-1	9.723151E-1	1.035922E+0	1.005284E+0	9.693199E-1	1.006903E+0	1.051286E+0	1.068984E+0	9.522029E-1	9.992100E-1	1.121602E+0	9.385925E-1	9.624976E-1	1.046735E+0	1.021074E+0	8.867852E-1	9.320082E-1	1.018982E+0	1.067115E+0	9.474544E-1	8.936726E-1	9.711425E-1	1.051096E+0	1.002516E+0	9.942966E-1	1.030699E+0	1.079369E+0	9.681431E-1	9.884121E-1	9.913834E-1	1.058717E+0	8.553818E-1	9.259823E-1	9.512796E-1	1.100493E+0	8.609540E-1	9.404319E-1	1.004555E+0	1.063294E+0	9.774420E-1	9.834732E-1	9.851486E-1	1.045162E+0	9.484873E-1	9.820901E-1	1.024344E+0	1.094173E+0	8.682278E-1	8.927000E-1	1.069445E+0	1.081761E+0	9.428997E-1	8.763551E-1	1.034908E+0	1.047997E+0	9.978976E-1	1.017872E+0	1.039486E+0	1.118374E+0	9.405025E-1	9.656323E-1	1.029597E+0	1.096307E+0	9.135471E-1	8.359186E-1	9.697148E-1	1.014718E+0	9.448544E-1	9.058184E-1	1.003363E+0	1.020599E+0	9.647328E-1	9.886683E-1	1.044029E+0	1.064082E+0	9.735558E-1	9.984652E-1	1.038571E+0	1.044269E+0	9.118002E-1	8.890193E-1	9.964673E-1	1.082525E+0	8.363216E-1	8.479616E-1	1.046886E+0	1.067349E+0	9.849848E-1	9.867604E-1	1.027709E+0	1.084240E+0	1.054587E+0	1.010157E+0	1.059281E+0	1.052611E+0	9.104537E-1	9.511859E-1	1.029067E+0	1.040954E+0	9.231173E-1	1.025376E+0	1.095338E+0	1.050992E+0	9.893168E-1	1.017501E+0	1.086405E+0	1.086775E+0	9.582269E-1	9.888826E-1	1.014978E+0	1.043849E+0	9.096251E-1	8.415861E-1	1.030830E+0	1.080376E+0	9.546018E-1	9.120417E-1	1.064391E+0	1.042220E+0	9.809824E-1	1.027147E+0	1.069764E+0	1.034972E+0	7.931641E-1	1.006324E+0	1.077102E+0	1.024243E+0	8.582565E-1	9.766901E-1	1.007893E+0	1.104806E+0	9.651096E-1	9.663644E-1	1.046898E+0	9.460008E-1	1.059985E+0	1.002814E+0
5.432960E+2	1.182051E+0	9.884713E-1	1.192570E+0	1.171862E+0	1.158543E+0	1.141006E+0	1.179221E+0	1.171127E+0	1.061086E+0	1.125986E+0	1.100513E+0	1.190897E+0	9.736357E-1	9.366246E-1	1.103020E+0	1.188762E+0	1.003657E+0	1.018217E+0	1.053309E+0	1.209442E+0	1.136565E+0	1.105146E+0	1.097354E+0	1.192722E+0	1.159110E+0	1.177585E+0	1.177597E+0	1.177555E+0	1.111888E+0	1.009388E+0	1.140085E+0	1.145660E+0	1.113606E+0	1.068810E+0	1.109553E+0	1.169198E+0	1.187784E+0	1.142817E+0	1.145166E+0	1.237886E+0	1.034299E+0	1.077002E+0	1.175528E+0	1.156062E+0	9.680143E-1	1.026372E+0	1.111494E+0	1.145902E+0	1.056075E+0	9.783321E-1	1.157806E+0	1.172859E+0	1.060591E+0	1.086671E+0	1.107340E+0	1.174057E+0	1.091518E+0	1.101926E+0	1.047784E+0	1.208901E+0	1.025696E+0	9.820699E-1	1.073292E+0	1.187852E+0	9.801586E-1	9.949124E-1	1.186777E+0	1.209135E+0	1.103645E+0	1.169526E+0	1.178437E+0	1.168843E+0	1.044094E+0	1.099759E+0	1.201034E+0	1.170604E+0	1.000644E+0	1.005601E+0	1.147578E+0	1.212339E+0	1.019959E+0	1.021155E+0	1.150644E+0	1.141598E+0	1.112766E+0	1.115385E+0	1.178292E+0	1.195715E+0	1.060575E+0	1.087895E+0	1.154582E+0	1.219498E+0	9.684282E-1	9.655876E-1	1.090859E+0	1.157257E+0	1.008855E+0	1.041554E+0	1.125763E+0	1.154453E+0	1.073247E+0	1.146088E+0	1.153107E+0	1.183608E+0	1.112717E+0	1.073410E+0	1.195189E+0	1.188664E+0	1.030877E+0	9.925823E-1	1.158829E+0	1.207555E+0	1.016223E+0	9.873623E-1	1.145037E+0	1.202234E+0	1.093225E+0	1.143931E+0	1.174899E+0	1.150602E+0	1.193865E+0	1.121039E+0	1.143266E+0	1.216636E+0	1.062928E+0	1.042232E+0	1.130523E+0	1.185169E+0	1.031875E+0	1.040795E+0	1.173006E+0	1.171911E+0	1.115460E+0	1.167911E+0	1.218343E+0	1.190625E+0	1.093771E+0	1.098446E+0	1.132090E+0	1.173409E+0	1.002486E+0	9.580593E-1	1.169954E+0	1.237455E+0	9.941503E-1	1.015592E+0	1.134928E+0	1.165302E+0	1.119599E+0	1.164963E+0	1.155221E+0	1.188902E+0	9.524122E-1	1.117088E+0	1.204544E+0	1.186521E+0	9.868951E-1	1.076113E+0	1.206626E+0	1.224125E+0	1.022836E+0	1.043790E+0	1.179616E+0	1.010478E+0	1.199123E+0	1.137837E+0
5.435330E+2	1.365114E+0	1.108179E+0	1.330563E+0	1.353975E+0	1.332465E+0	1.253264E+0	1.377306E+0	1.345344E+0	1.189854E+0	1.252292E+0	1.286614E+0	1.319592E+0	1.126645E+0	1.142722E+0	1.261232E+0	1.366755E+0	1.249809E+0	1.184716E+0	1.201730E+0	1.343545E+0	1.229756E+0	1.255953E+0	1.256603E+0	1.381660E+0	1.285102E+0	1.311225E+0	1.367312E+0	1.378393E+0	1.290209E+0	1.213908E+0	1.321131E+0	1.336038E+0	1.324965E+0	1.192724E+0	1.268029E+0	1.362267E+0	1.314782E+0	1.272184E+0	1.345140E+0	1.349064E+0	1.222685E+0	1.235007E+0	1.328708E+0	1.300213E+0	1.112949E+0	1.145135E+0	1.244154E+0	1.331489E+0	1.177581E+0	1.122309E+0	1.317717E+0	1.391628E+0	1.254366E+0	1.230727E+0	1.298359E+0	1.389051E+0	1.208035E+0	1.221747E+0	1.273391E+0	1.344387E+0	1.147195E+0	1.172978E+0	1.263087E+0	1.351357E+0	1.153100E+0	1.234753E+0	1.331912E+0	1.345437E+0	1.241439E+0	1.264893E+0	1.272239E+0	1.301208E+0	1.196408E+0	1.239371E+0	1.284217E+0	1.314972E+0	1.153125E+0	1.134391E+0	1.277391E+0	1.325706E+0	1.156197E+0	1.170844E+0	1.289650E+0	1.343151E+0	1.234018E+0	1.296649E+0	1.312529E+0	1.348036E+0	1.223753E+0	1.241811E+0	1.315367E+0	1.351165E+0	1.130834E+0	1.074676E+0	1.289586E+0	1.393376E+0	1.175381E+0	1.118625E+0	1.310715E+0	1.354889E+0	1.306265E+0	1.306849E+0	1.300579E+0	1.365446E+0	1.269977E+0	1.161867E+0	1.295158E+0	1.329950E+0	1.107861E+0	1.090751E+0	1.357875E+0	1.274157E+0	1.103604E+0	1.105221E+0	1.226936E+0	1.355545E+0	1.218981E+0	1.240259E+0	1.285735E+0	1.323274E+0	1.253347E+0	1.262104E+0	1.349758E+0	1.301791E+0	1.148614E+0	1.185388E+0	1.269791E+0	1.314294E+0	1.167667E+0	1.182136E+0	1.332542E+0	1.273563E+0	1.276970E+0	1.307927E+0	1.314296E+0	1.380826E+0	1.252428E+0	1.218322E+0	1.331791E+0	1.340861E+0	1.090376E+0	1.141317E+0	1.352713E+0	1.354810E+0	1.201120E+0	1.193629E+0	1.290252E+0	1.328939E+0	1.236579E+0	1.252944E+0	1.363611E+0	1.346931E+0	1.061273E+0	1.194347E+0	1.278097E+0	1.317796E+0	1.048642E+0	1.089644E+0	1.309646E+0	1.398668E+0	1.176999E+0	1.197371E+0	1.265541E+0	1.208204E+0	1.359558E+0	1.265360E+0
5.437640E+2	1.436099E+0	1.235080E+0	1.524915E+0	1.406106E+0	1.423720E+0	1.427810E+0	1.528198E+0	1.420098E+0	1.397717E+0	1.390782E+0	1.391330E+0	1.465992E+0	1.256277E+0	1.246521E+0	1.337447E+0	1.447941E+0	1.292842E+0	1.287867E+0	1.402852E+0	1.493878E+0	1.381901E+0	1.432851E+0	1.385633E+0	1.536688E+0	1.466943E+0	1.440051E+0	1.511692E+0	1.496711E+0	1.431450E+0	1.265037E+0	1.427949E+0	1.460329E+0	1.444511E+0	1.335108E+0	1.451718E+0	1.497415E+0	1.525467E+0	1.396398E+0	1.499139E+0	1.463080E+0	1.318999E+0	1.328401E+0	1.517522E+0	1.487733E+0	1.236119E+0	1.317046E+0	1.390192E+0	1.501903E+0	1.345726E+0	1.264559E+0	1.418319E+0	1.488635E+0	1.392945E+0	1.419327E+0	1.443509E+0	1.468697E+0	1.327667E+0	1.395802E+0	1.443224E+0	1.465816E+0	1.281168E+0	1.286223E+0	1.364199E+0	1.483576E+0	1.195715E+0	1.305513E+0	1.457230E+0	1.517855E+0	1.361546E+0	1.422278E+0	1.412087E+0	1.484022E+0	1.372459E+0	1.426540E+0	1.444789E+0	1.445388E+0	1.227073E+0	1.266012E+0	1.437354E+0	1.485366E+0	1.246201E+0	1.242937E+0	1.401611E+0	1.457249E+0	1.401103E+0	1.379206E+0	1.521025E+0	1.463161E+0	1.426953E+0	1.328699E+0	1.503155E+0	1.486741E+0	1.234438E+0	1.259917E+0	1.417897E+0	1.471465E+0	1.312079E+0	1.244009E+0	1.375948E+0	1.436278E+0	1.366803E+0	1.461491E+0	1.434643E+0	1.509332E+0	1.427862E+0	1.359670E+0	1.497763E+0	1.453807E+0	1.244662E+0	1.216431E+0	1.460703E+0	1.481564E+0	1.257161E+0	1.260177E+0	1.398233E+0	1.504435E+0	1.404799E+0	1.408133E+0	1.512679E+0	1.473394E+0	1.449931E+0	1.464705E+0	1.479208E+0	1.486756E+0	1.295417E+0	1.305504E+0	1.417248E+0	1.425921E+0	1.311448E+0	1.315763E+0	1.464793E+0	1.484177E+0	1.388375E+0	1.459560E+0	1.497997E+0	1.460970E+0	1.352998E+0	1.354312E+0	1.463796E+0	1.471030E+0	1.226904E+0	1.240693E+0	1.560136E+0	1.505776E+0	1.241987E+0	1.266901E+0	1.471225E+0	1.449921E+0	1.344771E+0	1.353848E+0	1.442494E+0	1.434135E+0	1.200616E+0	1.360495E+0	1.436852E+0	1.532191E+0	1.192716E+0	1.287902E+0	1.465839E+0	1.476737E+0	1.348142E+0	1.306529E+0	1.494395E+0	1.369395E+0	1.393632E+0	1.405385E+0
5.440170E+2	1.647805E+0	1.338431E+0	1.581278E+0	1.600735E+0	1.669060E+0	1.596200E+0	1.614508E+0	1.647533E+0	1.476202E+0	1.549147E+0	1.553562E+0	1.697400E+0	1.422569E+0	1.333850E+0	1.489353E+0	1.626554E+0	1.442027E+0	1.413440E+0	1.443439E+0	1.637859E+0	1.499234E+0	1.548695E+0	1.554764E+0	1.659617E+0	1.565008E+0	1.638703E+0	1.605156E+0	1.629592E+0	1.562688E+0	1.451981E+0	1.542011E+0	1.613721E+0	1.636056E+0	1.420897E+0	1.537559E+0	1.649117E+0	1.603306E+0	1.465658E+0	1.581885E+0	1.627014E+0	1.403198E+0	1.473610E+0	1.523147E+0	1.605006E+0	1.364596E+0	1.359349E+0	1.543796E+0	1.616288E+0	1.499144E+0	1.375136E+0	1.539854E+0	1.671278E+0	1.560269E+0	1.559536E+0	1.600851E+0	1.630783E+0	1.529552E+0	1.544632E+0	1.548506E+0	1.562955E+0	1.393443E+0	1.385992E+0	1.480563E+0	1.612843E+0	1.312447E+0	1.430130E+0	1.611316E+0	1.620763E+0	1.509093E+0	1.553919E+0	1.570697E+0	1.586546E+0	1.472023E+0	1.544816E+0	1.596330E+0	1.583082E+0	1.382420E+0	1.374373E+0	1.513640E+0	1.615352E+0	1.386137E+0	1.452499E+0	1.556975E+0	1.632156E+0	1.484644E+0	1.473127E+0	1.595282E+0	1.626109E+0	1.455891E+0	1.499993E+0	1.618091E+0	1.675770E+0	1.377801E+0	1.334013E+0	1.601703E+0	1.547069E+0	1.426409E+0	1.313026E+0	1.579729E+0	1.669676E+0	1.529573E+0	1.608344E+0	1.580895E+0	1.682107E+0	1.495260E+0	1.502187E+0	1.577739E+0	1.544056E+0	1.410258E+0	1.303275E+0	1.647120E+0	1.717600E+0	1.340046E+0	1.403765E+0	1.540768E+0	1.572243E+0	1.472998E+0	1.552910E+0	1.612954E+0	1.582279E+0	1.582675E+0	1.515212E+0	1.542988E+0	1.592852E+0	1.379215E+0	1.428364E+0	1.525640E+0	1.641935E+0	1.450927E+0	1.413417E+0	1.622232E+0	1.577194E+0	1.558138E+0	1.504805E+0	1.609101E+0	1.611665E+0	1.475426E+0	1.470963E+0	1.555860E+0	1.662315E+0	1.352932E+0	1.357702E+0	1.626540E+0	1.596239E+0	1.353380E+0	1.381356E+0	1.583798E+0	1.552723E+0	1.510439E+0	1.485510E+0	1.548330E+0	1.509638E+0	1.274019E+0	1.490398E+0	1.559922E+0	1.590899E+0	1.278905E+0	1.463215E+0	1.588138E+0	1.582098E+0	1.398399E+0	1.430282E+0	1.654337E+0	1.436020E+0	1.571103E+0	1.500402E+0
5.442920E+2	1.744936E+0	1.375718E+0	1.631810E+0	1.653560E+0	1.725267E+0	1.674913E+0	1.709516E+0	1.738122E+0	1.643595E+0	1.547226E+0	1.536739E+0	1.709208E+0	1.534668E+0	1.442639E+0	1.533503E+0	1.643417E+0	1.570553E+0	1.427454E+0	1.540367E+0	1.737377E+0	1.677763E+0	1.597746E+0	1.625672E+0	1.706247E+0	1.598778E+0	1.662180E+0	1.697917E+0	1.697549E+0	1.633899E+0	1.535068E+0	1.584860E+0	1.734977E+0	1.651907E+0	1.564472E+0	1.599390E+0	1.719451E+0	1.664754E+0	1.562969E+0	1.659462E+0	1.719472E+0	1.512233E+0	1.553572E+0	1.685078E+0	1.646541E+0	1.447948E+0	1.415747E+0	1.571726E+0	1.723091E+0	1.487484E+0	1.378014E+0	1.579978E+0	1.693354E+0	1.543019E+0	1.520495E+0	1.650783E+0	1.675897E+0	1.509610E+0	1.557873E+0	1.579841E+0	1.699081E+0	1.423277E+0	1.432369E+0	1.544394E+0	1.678952E+0	1.411272E+0	1.411971E+0	1.667579E+0	1.752974E+0	1.571891E+0	1.596042E+0	1.584911E+0	1.610957E+0	1.558400E+0	1.605785E+0	1.649208E+0	1.657698E+0	1.392166E+0	1.410116E+0	1.642224E+0	1.682420E+0	1.435458E+0	1.485491E+0	1.557606E+0	1.686810E+0	1.546141E+0	1.562864E+0	1.654691E+0	1.685740E+0	1.526088E+0	1.549641E+0	1.642587E+0	1.670556E+0	1.391240E+0	1.380840E+0	1.617819E+0	1.751582E+0	1.431381E+0	1.408501E+0	1.604616E+0	1.669674E+0	1.579832E+0	1.596662E+0	1.644270E+0	1.676441E+0	1.540191E+0	1.519388E+0	1.610394E+0	1.682232E+0	1.393644E+0	1.322692E+0	1.633892E+0	1.671445E+0	1.433210E+0	1.436070E+0	1.565773E+0	1.639316E+0	1.504278E+0	1.599100E+0	1.681566E+0	1.722732E+0	1.645060E+0	1.590098E+0	1.668651E+0	1.666835E+0	1.491364E+0	1.479374E+0	1.650413E+0	1.663659E+0	1.456457E+0	1.449393E+0	1.707596E+0	1.667549E+0	1.635945E+0	1.647877E+0	1.653925E+0	1.708174E+0	1.556003E+0	1.563128E+0	1.636415E+0	1.611591E+0	1.397706E+0	1.410595E+0	1.639186E+0	1.656749E+0	1.448296E+0	1.485513E+0	1.670721E+0	1.633842E+0	1.544922E+0	1.625171E+0	1.667972E+0	1.609724E+0	1.294548E+0	1.445274E+0	1.637843E+0	1.637736E+0	1.330363E+0	1.473218E+0	1.665905E+0	1.706495E+0	1.457483E+0	1.507075E+0	1.661141E+0	1.486526E+0	1.640673E+0	1.575416E+0
5.445070E+2	1.732484E+0	1.435242E+0	1.664203E+0	1.674414E+0	1.628721E+0	1.715985E+0	1.741804E+0	1.641196E+0	1.665671E+0	1.577357E+0	1.558443E+0	1.761747E+0	1.724336E+0	1.422677E+0	1.573978E+0	1.698373E+0	1.724904E+0	1.431941E+0	1.493114E+0	1.642093E+0	1.751310E+0	1.639494E+0	1.558253E+0	1.753480E+0	1.694246E+0	1.634492E+0	1.732097E+0	1.735168E+0	1.690392E+0	1.541458E+0	1.653657E+0	1.774993E+0	1.675683E+0	1.514429E+0	1.616797E+0	1.693936E+0	1.732054E+0	1.632801E+0	1.686471E+0	1.733085E+0	1.560690E+0	1.545255E+0	1.641940E+0	1.669142E+0	1.412377E+0	1.442863E+0	1.620599E+0	1.699160E+0	1.575852E+0	1.423510E+0	1.636386E+0	1.728145E+0	1.584420E+0	1.563382E+0	1.707682E+0	1.660856E+0	1.548867E+0	1.565441E+0	1.561667E+0	1.682465E+0	1.430331E+0	1.473357E+0	1.548348E+0	1.698432E+0	1.397684E+0	1.478350E+0	1.731518E+0	1.693004E+0	1.621885E+0	1.636998E+0	1.590591E+0	1.646218E+0	1.577522E+0	1.576517E+0	1.584077E+0	1.669827E+0	1.404200E+0	1.416925E+0	1.660066E+0	1.712694E+0	1.471212E+0	1.503822E+0	1.630568E+0	1.713456E+0	1.582111E+0	1.577221E+0	1.688395E+0	1.714669E+0	1.504537E+0	1.552744E+0	1.677126E+0	1.703147E+0	1.448924E+0	1.426121E+0	1.631543E+0	1.609663E+0	1.453748E+0	1.458542E+0	1.601251E+0	1.718103E+0	1.594112E+0	1.594992E+0	1.661942E+0	1.726857E+0	1.586370E+0	1.483143E+0	1.663042E+0	1.719573E+0	1.501094E+0	1.374472E+0	1.715072E+0	1.667940E+0	1.437063E+0	1.431288E+0	1.674554E+0	1.653321E+0	1.628788E+0	1.594595E+0	1.652832E+0	1.664746E+0	1.607339E+0	1.587777E+0	1.630132E+0	1.657762E+0	1.492623E+0	1.417392E+0	1.651670E+0	1.679346E+0	1.476119E+0	1.530346E+0	1.722990E+0	1.663564E+0	1.634768E+0	1.682725E+0	1.712003E+0	1.662458E+0	1.526019E+0	1.566995E+0	1.641159E+0	1.661703E+0	1.412631E+0	1.338466E+0	1.661319E+0	1.707480E+0	1.412703E+0	1.460683E+0	1.640794E+0	1.661815E+0	1.559124E+0	1.633786E+0	1.589085E+0	1.610307E+0	1.420824E+0	1.465103E+0	1.630561E+0	1.699746E+0	1.354156E+0	1.383792E+0	1.659257E+0	1.676667E+0	1.441860E+0	1.496919E+0	1.598186E+0	1.460736E+0	1.527091E+0	1.610422E+0
5.447720E+2	1.680805E+0	1.378333E+0	1.675215E+0	1.685534E+0	1.612191E+0	1.605780E+0	1.679090E+0	1.657031E+0	1.593929E+0	1.567100E+0	1.575806E+0	1.720423E+0	1.698835E+0	1.386249E+0	1.508799E+0	1.714612E+0	1.668669E+0	1.456606E+0	1.474942E+0	1.677387E+0	1.667657E+0	1.558088E+0	1.620439E+0	1.732894E+0	1.681908E+0	1.657365E+0	1.701405E+0	1.645973E+0	1.680387E+0	1.426416E+0	1.564943E+0	1.719215E+0	1.662474E+0	1.510258E+0	1.625201E+0	1.627740E+0	1.675873E+0	1.522896E+0	1.629581E+0	1.670692E+0	1.618844E+0	1.545257E+0	1.606302E+0	1.647763E+0	1.673582E+0	1.393509E+0	1.571723E+0	1.654222E+0	1.748907E+0	1.420056E+0	1.548575E+0	1.714093E+0	1.649969E+0	1.513896E+0	1.618269E+0	1.660302E+0	1.526433E+0	1.535174E+0	1.569188E+0	1.672879E+0	1.495415E+0	1.462031E+0	1.545525E+0	1.681905E+0	1.453888E+0	1.467706E+0	1.631779E+0	1.684141E+0	1.581034E+0	1.553920E+0	1.645737E+0	1.646762E+0	1.561038E+0	1.555177E+0	1.652431E+0	1.572166E+0	1.430570E+0	1.430543E+0	1.624383E+0	1.650965E+0	1.413262E+0	1.401789E+0	1.548169E+0	1.624639E+0	1.567606E+0	1.507228E+0	1.560440E+0	1.640278E+0	1.465130E+0	1.495648E+0	1.624998E+0	1.651651E+0	1.348682E+0	1.335558E+0	1.582604E+0	1.664819E+0	1.420196E+0	1.371116E+0	1.601252E+0	1.627973E+0	1.627235E+0	1.544929E+0	1.654019E+0	1.648119E+0	1.581378E+0	1.506487E+0	1.587735E+0	1.670404E+0	1.411370E+0	1.334018E+0	1.611642E+0	1.640481E+0	1.399799E+0	1.392398E+0	1.596409E+0	1.661427E+0	1.541819E+0	1.516290E+0	1.659284E+0	1.673124E+0	1.523920E+0	1.555266E+0	1.620659E+0	1.643804E+0	1.398118E+0	1.442075E+0	1.619534E+0	1.640126E+0	1.383953E+0	1.517494E+0	1.646724E+0	1.623701E+0	1.482688E+0	1.569004E+0	1.632461E+0	1.674312E+0	1.516650E+0	1.540570E+0	1.616112E+0	1.565754E+0	1.376703E+0	1.356100E+0	1.593022E+0	1.671416E+0	1.430498E+0	1.389832E+0	1.668581E+0	1.648527E+0	1.521255E+0	1.616556E+0	1.633787E+0	1.631380E+0	1.553323E+0	1.540995E+0	1.658962E+0	1.645653E+0	1.394680E+0	1.457920E+0	1.629349E+0	1.663335E+0	1.476498E+0	1.471534E+0	1.657739E+0	1.434946E+0	1.571105E+0	1.557913E+0
5.450150E+2	1.574956E+0	1.259936E+0	1.528154E+0	1.584747E+0	1.583093E+0	1.592090E+0	1.545584E+0	1.619023E+0	1.528323E+0	1.515807E+0	1.410321E+0	1.608853E+0	1.539980E+0	1.348820E+0	1.412611E+0	1.550362E+0	1.621621E+0	1.383727E+0	1.428296E+0	1.588454E+0	1.598046E+0	1.542434E+0	1.511756E+0	1.596639E+0	1.571503E+0	1.556834E+0	1.625381E+0	1.615637E+0	1.583282E+0	1.387536E+0	1.444850E+0	1.645854E+0	1.606332E+0	1.417322E+0	1.529758E+0	1.579474E+0	1.644857E+0	1.500574E+0	1.562349E+0	1.650269E+0	1.589160E+0	1.511994E+0	1.503768E+0	1.560417E+0	1.557843E+0	1.343619E+0	1.508301E+0	1.607535E+0	1.590578E+0	1.318695E+0	1.447977E+0	1.639165E+0	1.578095E+0	1.423172E+0	1.549179E+0	1.602375E+0	1.574415E+0	1.508054E+0	1.512787E+0	1.537393E+0	1.639156E+0	1.358489E+0	1.461357E+0	1.588642E+0	1.567533E+0	1.339956E+0	1.559524E+0	1.551931E+0	1.583477E+0	1.463819E+0	1.532039E+0	1.551827E+0	1.545871E+0	1.496651E+0	1.535714E+0	1.546083E+0	1.415667E+0	1.333526E+0	1.465653E+0	1.588647E+0	1.445318E+0	1.403623E+0	1.510430E+0	1.509171E+0	1.528736E+0	1.451591E+0	1.563866E+0	1.586555E+0	1.466976E+0	1.416208E+0	1.588572E+0	1.589731E+0	1.334121E+0	1.277928E+0	1.453104E+0	1.592932E+0	1.363032E+0	1.341784E+0	1.504405E+0	1.563404E+0	1.498162E+0	1.427003E+0	1.593079E+0	1.599399E+0	1.491516E+0	1.466557E+0	1.534417E+0	1.538458E+0	1.287305E+0	1.312983E+0	1.564738E+0	1.595494E+0	1.342616E+0	1.263768E+0	1.509509E+0	1.568559E+0	1.455481E+0	1.491505E+0	1.544348E+0	1.602248E+0	1.526097E+0	1.506502E+0	1.476051E+0	1.625655E+0	1.386775E+0	1.352672E+0	1.603780E+0	1.562291E+0	1.347086E+0	1.453247E+0	1.552960E+0	1.585164E+0	1.498011E+0	1.522536E+0	1.607207E+0	1.587959E+0	1.447939E+0	1.471609E+0	1.553831E+0	1.526034E+0	1.291022E+0	1.321906E+0	1.528518E+0	1.554066E+0	1.331627E+0	1.395889E+0	1.620846E+0	1.541529E+0	1.462428E+0	1.505813E+0	1.575940E+0	1.583971E+0	1.479300E+0	1.428181E+0	1.553368E+0	1.567150E+0	1.362521E+0	1.312608E+0	1.571523E+0	1.627160E+0	1.388888E+0	1.427111E+0	1.531827E+0	1.379066E+0	1.501535E+0	1.437890E+0
5.452580E+2	1.504594E+0	1.243582E+0	1.523621E+0	1.506202E+0	1.446867E+0	1.433971E+0	1.589669E+0	1.518295E+0	1.519740E+0	1.444639E+0	1.400554E+0	1.530337E+0	1.557514E+0	1.277961E+0	1.413664E+0	1.483537E+0	1.547027E+0	1.275532E+0	1.396793E+0	1.498819E+0	1.520006E+0	1.433374E+0	1.454798E+0	1.574231E+0	1.509157E+0	1.488209E+0	1.522851E+0	1.549500E+0	1.517374E+0	1.350787E+0	1.437004E+0	1.508224E+0	1.568682E+0	1.379789E+0	1.433110E+0	1.584300E+0	1.521370E+0	1.375215E+0	1.489945E+0	1.556106E+0	1.540098E+0	1.398127E+0	1.431241E+0	1.548811E+0	1.516436E+0	1.311081E+0	1.443719E+0	1.462799E+0	1.598555E+0	1.295082E+0	1.516013E+0	1.503353E+0	1.475746E+0	1.425374E+0	1.518406E+0	1.558374E+0	1.523942E+0	1.460126E+0	1.464532E+0	1.540587E+0	1.513861E+0	1.252250E+0	1.396397E+0	1.473542E+0	1.514420E+0	1.346220E+0	1.410552E+0	1.535576E+0	1.479217E+0	1.404139E+0	1.464387E+0	1.505175E+0	1.493783E+0	1.422882E+0	1.477676E+0	1.433257E+0	1.466113E+0	1.305159E+0	1.449655E+0	1.553624E+0	1.545186E+0	1.285705E+0	1.483383E+0	1.468863E+0	1.500311E+0	1.439028E+0	1.460476E+0	1.438956E+0	1.456508E+0	1.391382E+0	1.484315E+0	1.480876E+0	1.373883E+0	1.217724E+0	1.496668E+0	1.539629E+0	1.454994E+0	1.225603E+0	1.466744E+0	1.539189E+0	1.438194E+0	1.414207E+0	1.471813E+0	1.538789E+0	1.436596E+0	1.403287E+0	1.510424E+0	1.491154E+0	1.307798E+0	1.229916E+0	1.474536E+0	1.506102E+0	1.261658E+0	1.285902E+0	1.441369E+0	1.486745E+0	1.379146E+0	1.404190E+0	1.489809E+0	1.539111E+0	1.412934E+0	1.413039E+0	1.535411E+0	1.532822E+0	1.325030E+0	1.293437E+0	1.511144E+0	1.500739E+0	1.286873E+0	1.320261E+0	1.482985E+0	1.502780E+0	1.448498E+0	1.443048E+0	1.501155E+0	1.527006E+0	1.325512E+0	1.426493E+0	1.486135E+0	1.526031E+0	1.235195E+0	1.214514E+0	1.519034E+0	1.504558E+0	1.298012E+0	1.318378E+0	1.443438E+0	1.547825E+0	1.436733E+0	1.428292E+0	1.478648E+0	1.469840E+0	1.466857E+0	1.398781E+0	1.490741E+0	1.517676E+0	1.267969E+0	1.330848E+0	1.534302E+0	1.491971E+0	1.346784E+0	1.350954E+0	1.485038E+0	1.391961E+0	1.406411E+0	1.345375E+0
5.455130E+2	1.462251E+0	1.205642E+0	1.436807E+0	1.424874E+0	1.447530E+0	1.390846E+0	1.513293E+0	1.472680E+0	1.395264E+0	1.289479E+0	1.373426E+0	1.478387E+0	1.426818E+0	1.169169E+0	1.337447E+0	1.389860E+0	1.461536E+0	1.245260E+0	1.324098E+0	1.481174E+0	1.423443E+0	1.332662E+0	1.310658E+0	1.514281E+0	1.429279E+0	1.443662E+0	1.432181E+0	1.368079E+0	1.520316E+0	1.268766E+0	1.382086E+0	1.430618E+0	1.465647E+0	1.281492E+0	1.416304E+0	1.416053E+0	1.430073E+0	1.339152E+0	1.389385E+0	1.434718E+0	1.431667E+0	1.294496E+0	1.405608E+0	1.461466E+0	1.421934E+0	1.234615E+0	1.396010E+0	1.467467E+0	1.483188E+0	1.224246E+0	1.390990E+0	1.435112E+0	1.400417E+0	1.353347E+0	1.427253E+0	1.484850E+0	1.482820E+0	1.340305E+0	1.346712E+0	1.464538E+0	1.480770E+0	1.246319E+0	1.328047E+0	1.399165E+0	1.424861E+0	1.280466E+0	1.409276E+0	1.420402E+0	1.496898E+0	1.379566E+0	1.388778E+0	1.430316E+0	1.444988E+0	1.329602E+0	1.392554E+0	1.362286E+0	1.435156E+0	1.195095E+0	1.337068E+0	1.435510E+0	1.422511E+0	1.240494E+0	1.358213E+0	1.434019E+0	1.427211E+0	1.349889E+0	1.397073E+0	1.395267E+0	1.457123E+0	1.292083E+0	1.417737E+0	1.413739E+0	1.434366E+0	1.190452E+0	1.361202E+0	1.415684E+0	1.399071E+0	1.173263E+0	1.314749E+0	1.455112E+0	1.429627E+0	1.354688E+0	1.431596E+0	1.462315E+0	1.361089E+0	1.335711E+0	1.381132E+0	1.420199E+0	1.411922E+0	1.158177E+0	1.397563E+0	1.456442E+0	1.406223E+0	1.155478E+0	1.386355E+0	1.458737E+0	1.397917E+0	1.330393E+0	1.440547E+0	1.453420E+0	1.361430E+0	1.372985E+0	1.442584E+0	1.448365E+0	1.255093E+0	1.215553E+0	1.421660E+0	1.401785E+0	1.288098E+0	1.317693E+0	1.417912E+0	1.444978E+0	1.360669E+0	1.386188E+0	1.468326E+0	1.424846E+0	1.307399E+0	1.386536E+0	1.446195E+0	1.372029E+0	1.164998E+0	1.135440E+0	1.466546E+0	1.466054E+0	1.232758E+0	1.237835E+0	1.399264E+0	1.442228E+0	1.406981E+0	1.347078E+0	1.479305E+0	1.384387E+0	1.353020E+0	1.260669E+0	1.423014E+0	1.424663E+0	1.237743E+0	1.256721E+0	1.434602E+0	1.398032E+0	1.291093E+0	1.279239E+0	1.393155E+0	1.241517E+0	1.355298E+0	1.352875E+0
5.457890E+2	1.386907E+0	1.291336E+0	1.376559E+0	1.329647E+0	1.296757E+0	1.350462E+0	1.366131E+0	1.349145E+0	1.343145E+0	1.240753E+0	1.251347E+0	1.431752E+0	1.311529E+0	1.129748E+0	1.279106E+0	1.329281E+0	1.347354E+0	1.184156E+0	1.212633E+0	1.365423E+0	1.404919E+0	1.316484E+0	1.300775E+0	1.362888E+0	1.316926E+0	1.328682E+0	1.439153E+0	1.312863E+0	1.354944E+0	1.177158E+0	1.297597E+0	1.398488E+0	1.337510E+0	1.186171E+0	1.288441E+0	1.363647E+0	1.397299E+0	1.330568E+0	1.349737E+0	1.401818E+0	1.382605E+0	1.239483E+0	1.343710E+0	1.343580E+0	1.357696E+0	1.204245E+0	1.304663E+0	1.371761E+0	1.381319E+0	1.155712E+0	1.315395E+0	1.381592E+0	1.349817E+0	1.278018E+0	1.318678E+0	1.305505E+0	1.376891E+0	1.246340E+0	1.274021E+0	1.354612E+0	1.324559E+0	1.174055E+0	1.261958E+0	1.369652E+0	1.378535E+0	1.229118E+0	1.328713E+0	1.344756E+0	1.345084E+0	1.270743E+0	1.315442E+0	1.383119E+0	1.369161E+0	1.300947E+0	1.339675E+0	1.316792E+0	1.349746E+0	1.132119E+0	1.296462E+0	1.353603E+0	1.413264E+0	1.161069E+0	1.315441E+0	1.358180E+0	1.326844E+0	1.236826E+0	1.325668E+0	1.381097E+0	1.360449E+0	1.225053E+0	1.375659E+0	1.370070E+0	1.395723E+0	1.082395E+0	1.294957E+0	1.354331E+0	1.429515E+0	1.163486E+0	1.320129E+0	1.327313E+0	1.382796E+0	1.327429E+0	1.290217E+0	1.426061E+0	1.421619E+0	1.223296E+0	1.275165E+0	1.328084E+0	1.361523E+0	1.115562E+0	1.344042E+0	1.334334E+0	1.402368E+0	1.107617E+0	1.234439E+0	1.313530E+0	1.403548E+0	1.272370E+0	1.351997E+0	1.370951E+0	1.333141E+0	1.247009E+0	1.346600E+0	1.287132E+0	1.340152E+0	1.213908E+0	1.334068E+0	1.351102E+0	1.339101E+0	1.187274E+0	1.339542E+0	1.324721E+0	1.366565E+0	1.274296E+0	1.362905E+0	1.336801E+0	1.209953E+0	1.223478E+0	1.291174E+0	1.345136E+0	1.113039E+0	1.128496E+0	1.358405E+0	1.364588E+0	1.155639E+0	1.177884E+0	1.271726E+0	1.339430E+0	1.235906E+0	1.272019E+0	1.283410E+0	1.357466E+0	1.285836E+0	1.324256E+0	1.351647E+0	1.352760E+0	1.138045E+0	1.210833E+0	1.368802E+0	1.359952E+0	1.171567E+0	1.219584E+0	1.402514E+0	1.193160E+0	1.304187E+0	1.160343E+0
5.460060E+2	1.320904E+0	1.351516E+0	1.273552E+0	1.230250E+0	1.294769E+0	1.267639E+0	1.361162E+0	1.266790E+0	1.300837E+0	1.241392E+0	1.212823E+0	1.376262E+0	1.274343E+0	1.085831E+0	1.158211E+0	1.354262E+0	1.276779E+0	1.105112E+0	1.119947E+0	1.301902E+0	1.286460E+0	1.272652E+0	1.183951E+0	1.303543E+0	1.277308E+0	1.285340E+0	1.317093E+0	1.352909E+0	1.329049E+0	1.215506E+0	1.235436E+0	1.328762E+0	1.371198E+0	1.136129E+0	1.219406E+0	1.299518E+0	1.255673E+0	1.212079E+0	1.273883E+0	1.287237E+0	1.307493E+0	1.191507E+0	1.282440E+0	1.270894E+0	1.306198E+0	1.121272E+0	1.210404E+0	1.346078E+0	1.314428E+0	1.118278E+0	1.245033E+0	1.318037E+0	1.304968E+0	1.210933E+0	1.270487E+0	1.284340E+0	1.264113E+0	1.176341E+0	1.186282E+0	1.309876E+0	1.276829E+0	1.147090E+0	1.218464E+0	1.292920E+0	1.305654E+0	1.139568E+0	1.247515E+0	1.230263E+0	1.272531E+0	1.230956E+0	1.301799E+0	1.251842E+0	1.306519E+0	1.252783E+0	1.298407E+0	1.236118E+0	1.244270E+0	1.103752E+0	1.274315E+0	1.256855E+0	1.307232E+0	1.162290E+0	1.239332E+0	1.314454E+0	1.260128E+0	1.271522E+0	1.281683E+0	1.258297E+0	1.308108E+0	1.185336E+0	1.301548E+0	1.328352E+0	1.307801E+0	1.059755E+0	1.257957E+0	1.311572E+0	1.326991E+0	1.062835E+0	1.269689E+0	1.299736E+0	1.302267E+0	1.181689E+0	1.225622E+0	1.290106E+0	1.358594E+0	1.172309E+0	1.324484E+0	1.289495E+0	1.320537E+0	1.067557E+0	1.303153E+0	1.336670E+0	1.339403E+0	1.094453E+0	1.276324E+0	1.299526E+0	1.253394E+0	1.257160E+0	1.278698E+0	1.305877E+0	1.312103E+0	1.303320E+0	1.312502E+0	1.275966E+0	1.379843E+0	1.097628E+0	1.258448E+0	1.273263E+0	1.248775E+0	1.153223E+0	1.282163E+0	1.341332E+0	1.294065E+0	1.298145E+0	1.311138E+0	1.301808E+0	1.243685E+0	1.260859E+0	1.299975E+0	1.296247E+0	1.253438E+0	1.027516E+0	1.311610E+0	1.355419E+0	1.206392E+0	1.131255E+0	1.300937E+0	1.271598E+0	1.292027E+0	1.241871E+0	1.269605E+0	1.315326E+0	1.216166E+0	1.163582E+0	1.279552E+0	1.345503E+0	1.114248E+0	1.100822E+0	1.271760E+0	1.307909E+0	1.176997E+0	1.200545E+0	1.242572E+0	1.145878E+0	1.244557E+0	1.250358E+0
5.467600E+2	1.307205E+0	1.308341E+0	1.254764E+0	1.259443E+0	1.315931E+0	1.351149E+0	1.268640E+0	1.268687E+0	1.247489E+0	1.217029E+0	1.144460E+0	1.307194E+0	1.206867E+0	1.030941E+0	1.150326E+0	1.326160E+0	1.292844E+0	1.082127E+0	1.150841E+0	1.238381E+0	1.267371E+0	1.184984E+0	1.197903E+0	1.273870E+0	1.222754E+0	1.216112E+0	1.278734E+0	1.244907E+0	1.280793E+0	1.100463E+0	1.170260E+0	1.266316E+0	1.298540E+0	1.081318E+0	1.220606E+0	1.259527E+0	1.283764E+0	1.137663E+0	1.312959E+0	1.273621E+0	1.257212E+0	1.198543E+0	1.189910E+0	1.271503E+0	1.238241E+0	1.072465E+0	1.192950E+0	1.239279E+0	1.291109E+0	1.048018E+0	1.260150E+0	1.281239E+0	1.233091E+0	1.167498E+0	1.257715E+0	1.223070E+0	1.232335E+0	1.176342E+0	1.195055E+0	1.273450E+0	1.251878E+0	1.049479E+0	1.155761E+0	1.248650E+0	1.251302E+0	1.101370E+0	1.243039E+0	1.252071E+0	1.310331E+0	1.222181E+0	1.212546E+0	1.265945E+0	1.259049E+0	1.111339E+0	1.248754E+0	1.237934E+0	1.275796E+0	1.081057E+0	1.215867E+0	1.365473E+0	1.280722E+0	1.134795E+0	1.221094E+0	1.270046E+0	1.198629E+0	1.160250E+0	1.227417E+0	1.320878E+0	1.260699E+0	1.133201E+0	1.256956E+0	1.203204E+0	1.284839E+0	1.031450E+0	1.189927E+0	1.219849E+0	1.276661E+0	1.073188E+0	1.199071E+0	1.239201E+0	1.250866E+0	1.222296E+0	1.240251E+0	1.269148E+0	1.269353E+0	1.129309E+0	1.239175E+0	1.235348E+0	1.279001E+0	1.044904E+0	1.268273E+0	1.244945E+0	1.256519E+0	1.052572E+0	1.220682E+0	1.289945E+0	1.306572E+0	1.170969E+0	1.299808E+0	1.285903E+0	1.218528E+0	1.161675E+0	1.193781E+0	1.311564E+0	1.224849E+0	1.078984E+0	1.292477E+0	1.214733E+0	1.197776E+0	1.115319E+0	1.301757E+0	1.248319E+0	1.256928E+0	1.238835E+0	1.244856E+0	1.244807E+0	1.200584E+0	1.151294E+0	1.247849E+0	1.240021E+0	1.255651E+0	1.044078E+0	1.197780E+0	1.236845E+0	1.156299E+0	1.102793E+0	1.238952E+0	1.272294E+0	1.232524E+0	1.174810E+0	1.228847E+0	1.269086E+0	1.286460E+0	1.165631E+0	1.270811E+0	1.246553E+0	1.249316E+0	1.140236E+0	1.235206E+0	1.268556E+0	1.209597E+0	1.135178E+0	1.258736E+0	1.199608E+0	1.308446E+0	1.145339E+0
5.475230E+2	1.381305E+0	1.335816E+0	1.333152E+0	1.351194E+0	1.341723E+0	1.309390E+0	1.377307E+0	1.309235E+0	1.303904E+0	1.257421E+0	1.219876E+0	1.395742E+0	1.353502E+0	1.144718E+0	1.200261E+0	1.361757E+0	1.313501E+0	1.152201E+0	1.267154E+0	1.380245E+0	1.339793E+0	1.313877E+0	1.278109E+0	1.398011E+0	1.290297E+0	1.320857E+0	1.317793E+0	1.348055E+0	1.356709E+0	1.187809E+0	1.289150E+0	1.343313E+0	1.365914E+0	1.120639E+0	1.243418E+0	1.291248E+0	1.376815E+0	1.275043E+0	1.298019E+0	1.367216E+0	1.316577E+0	1.217097E+0	1.279940E+0	1.323424E+0	1.316815E+0	1.133205E+0	1.254045E+0	1.355415E+0	1.337132E+0	1.142464E+0	1.285738E+0	1.407015E+0	1.356718E+0	1.215883E+0	1.391836E+0	1.364544E+0	1.308350E+0	1.289856E+0	1.208843E+0	1.356529E+0	1.386937E+0	1.142237E+0	1.291332E+0	1.326566E+0	1.312450E+0	1.213462E+0	1.282042E+0	1.315448E+0	1.370084E+0	1.290051E+0	1.256889E+0	1.344061E+0	1.332234E+0	1.232665E+0	1.316463E+0	1.313152E+0	1.356049E+0	1.146302E+0	1.293389E+0	1.336982E+0	1.304765E+0	1.164733E+0	1.269524E+0	1.304888E+0	1.379638E+0	1.214689E+0	1.285682E+0	1.349214E+0	1.332742E+0	1.202091E+0	1.291501E+0	1.358985E+0	1.353721E+0	1.098860E+0	1.291377E+0	1.347515E+0	1.356196E+0	1.129553E+0	1.356445E+0	1.324623E+0	1.311977E+0	1.226190E+0	1.342016E+0	1.325231E+0	1.341743E+0	1.259542E+0	1.323816E+0	1.272066E+0	1.369830E+0	1.097224E+0	1.374113E+0	1.316222E+0	1.300852E+0	1.075906E+0	1.314457E+0	1.355547E+0	1.328471E+0	1.196883E+0	1.332061E+0	1.336160E+0	1.296144E+0	1.331186E+0	1.344706E+0	1.340180E+0	1.391815E+0	1.181548E+0	1.323984E+0	1.372219E+0	1.348318E+0	1.257301E+0	1.354235E+0	1.310105E+0	1.367744E+0	1.281635E+0	1.303565E+0	1.401145E+0	1.417958E+0	1.286639E+0	1.330436E+0	1.307246E+0	1.363986E+0	1.082547E+0	1.299597E+0	1.355422E+0	1.343493E+0	1.147000E+0	1.335853E+0	1.296072E+0	1.323133E+0	1.265864E+0	1.308392E+0	1.231629E+0	1.318185E+0	1.221696E+0	1.376407E+0	1.325713E+0	1.319427E+0	1.162594E+0	1.351522E+0	1.317427E+0	1.291772E+0	1.196102E+0	1.326796E+0	1.129758E+0	1.230358E+0	1.330371E+0
5.482600E+2	1.472214E+0	1.389453E+0	1.392755E+0	1.438081E+0	1.370160E+0	1.452455E+0	1.477280E+0	1.420732E+0	1.432056E+0	1.373471E+0	1.283359E+0	1.478981E+0	1.478886E+0	1.245024E+0	1.302231E+0	1.439823E+0	1.436291E+0	1.229004E+0	1.270183E+0	1.387302E+0	1.461058E+0	1.375971E+0	1.408298E+0	1.530631E+0	1.458499E+0	1.424396E+0	1.481700E+0	1.428756E+0	1.493242E+0	1.275690E+0	1.394153E+0	1.431833E+0	1.412145E+0	1.263619E+0	1.365876E+0	1.457423E+0	1.393787E+0	1.350601E+0	1.362951E+0	1.451736E+0	1.446206E+0	1.343754E+0	1.441244E+0	1.457803E+0	1.406006E+0	1.217262E+0	1.325027E+0	1.447045E+0	1.497302E+0	1.207544E+0	1.347959E+0	1.423742E+0	1.451018E+0	1.331351E+0	1.389513E+0	1.482069E+0	1.459143E+0	1.332739E+0	1.352355E+0	1.376341E+0	1.432498E+0	1.284605E+0	1.311666E+0	1.396216E+0	1.442155E+0	1.254165E+0	1.370276E+0	1.457883E+0	1.401175E+0	1.360259E+0	1.362628E+0	1.396141E+0	1.396854E+0	1.353379E+0	1.439627E+0	1.415669E+0	1.393884E+0	1.208711E+0	1.345684E+0	1.464001E+0	1.428675E+0	1.275318E+0	1.376456E+0	1.403956E+0	1.490446E+0	1.343909E+0	1.461050E+0	1.450764E+0	1.354909E+0	1.298288E+0	1.391359E+0	1.420910E+0	1.437163E+0	1.233160E+0	1.330764E+0	1.397093E+0	1.418955E+0	1.230204E+0	1.398818E+0	1.462510E+0	1.477029E+0	1.316862E+0	1.399300E+0	1.390937E+0	1.410389E+0	1.324042E+0	1.383130E+0	1.414598E+0	1.497214E+0	1.183529E+0	1.402974E+0	1.435407E+0	1.427426E+0	1.194366E+0	1.411358E+0	1.452101E+0	1.423571E+0	1.358559E+0	1.413573E+0	1.425069E+0	1.453557E+0	1.344538E+0	1.415432E+0	1.449064E+0	1.521606E+0	1.245170E+0	1.378178E+0	1.436783E+0	1.444172E+0	1.266937E+0	1.471091E+0	1.428368E+0	1.476793E+0	1.422875E+0	1.411513E+0	1.420899E+0	1.470427E+0	1.266657E+0	1.360223E+0	1.421530E+0	1.440270E+0	1.130097E+0	1.383704E+0	1.381702E+0	1.467412E+0	1.213007E+0	1.434889E+0	1.362506E+0	1.400218E+0	1.344617E+0	1.445781E+0	1.438819E+0	1.461880E+0	1.316050E+0	1.477630E+0	1.486013E+0	1.373454E+0	1.260251E+0	1.431945E+0	1.443098E+0	1.417415E+0	1.310971E+0	1.398259E+0	1.290949E+0	1.431967E+0	1.382882E+0
5.490100E+2	1.465985E+0	1.472528E+0	1.421262E+0	1.410279E+0	1.401237E+0	1.423703E+0	1.493424E+0	1.447975E+0	1.392814E+0	1.363213E+0	1.349011E+0	1.470125E+0	1.448600E+0	1.216578E+0	1.302758E+0	1.446066E+0	1.473011E+0	1.235171E+0	1.294415E+0	1.414832E+0	1.444215E+0	1.362925E+0	1.316471E+0	1.427683E+0	1.391611E+0	1.425000E+0	1.485186E+0	1.451811E+0	1.453814E+0	1.255983E+0	1.408035E+0	1.415460E+0	1.460363E+0	1.307704E+0	1.377883E+0	1.408464E+0	1.399056E+0	1.330570E+0	1.402602E+0	1.436420E+0	1.434698E+0	1.335437E+0	1.445622E+0	1.437645E+0	1.421405E+0	1.216720E+0	1.348883E+0	1.433620E+0	1.426115E+0	1.267439E+0	1.420063E+0	1.398319E+0	1.391218E+0	1.349495E+0	1.383707E+0	1.483740E+0	1.468486E+0	1.329585E+0	1.381183E+0	1.409574E+0	1.480232E+0	1.249555E+0	1.361376E+0	1.500102E+0	1.446474E+0	1.244146E+0	1.406081E+0	1.474922E+0	1.415809E+0	1.339195E+0	1.368879E+0	1.454184E+0	1.443010E+0	1.305215E+0	1.404162E+0	1.454486E+0	1.421398E+0	1.250693E+0	1.370906E+0	1.453319E+0	1.492788E+0	1.206891E+0	1.355067E+0	1.444953E+0	1.451577E+0	1.360661E+0	1.389644E+0	1.438955E+0	1.445425E+0	1.350419E+0	1.455424E+0	1.473057E+0	1.464606E+0	1.200228E+0	1.400588E+0	1.423122E+0	1.460585E+0	1.212375E+0	1.375277E+0	1.397265E+0	1.493021E+0	1.335775E+0	1.412095E+0	1.445885E+0	1.423493E+0	1.304997E+0	1.387793E+0	1.455676E+0	1.404169E+0	1.185146E+0	1.424021E+0	1.393930E+0	1.428712E+0	1.170436E+0	1.321961E+0	1.415986E+0	1.434208E+0	1.288706E+0	1.432925E+0	1.413474E+0	1.407856E+0	1.388659E+0	1.416693E+0	1.516070E+0	1.397485E+0	1.289596E+0	1.343520E+0	1.407216E+0	1.414677E+0	1.335038E+0	1.473189E+0	1.452950E+0	1.422564E+0	1.390465E+0	1.422243E+0	1.512894E+0	1.444195E+0	1.320799E+0	1.398809E+0	1.410528E+0	1.398257E+0	1.189403E+0	1.427971E+0	1.436099E+0	1.476635E+0	1.196053E+0	1.427052E+0	1.440832E+0	1.461075E+0	1.396912E+0	1.420801E+0	1.454038E+0	1.433266E+0	1.307844E+0	1.457968E+0	1.402235E+0	1.338724E+0	1.204361E+0	1.391401E+0	1.457059E+0	1.407228E+0	1.281776E+0	1.394855E+0	1.297396E+0	1.433386E+0	1.292865E+0
5.497680E+2	1.421777E+0	1.405154E+0	1.390163E+0	1.400547E+0	1.441576E+0	1.344986E+0	1.408353E+0	1.402994E+0	1.381775E+0	1.299741E+0	1.328391E+0	1.430572E+0	1.391752E+0	1.128751E+0	1.271745E+0	1.372372E+0	1.489076E+0	1.201536E+0	1.238075E+0	1.371071E+0	1.369548E+0	1.326920E+0	1.298453E+0	1.424050E+0	1.359138E+0	1.352159E+0	1.396608E+0	1.405092E+0	1.410851E+0	1.236810E+0	1.339236E+0	1.376658E+0	1.400256E+0	1.274938E+0	1.310651E+0	1.451219E+0	1.382671E+0	1.268175E+0	1.300317E+0	1.456274E+0	1.447416E+0	1.279145E+0	1.345588E+0	1.364349E+0	1.325309E+0	1.202077E+0	1.382047E+0	1.413777E+0	1.433482E+0	1.179902E+0	1.287481E+0	1.360853E+0	1.360742E+0	1.298360E+0	1.327387E+0	1.444192E+0	1.419263E+0	1.305620E+0	1.324781E+0	1.346944E+0	1.404837E+0	1.175133E+0	1.261957E+0	1.412744E+0	1.406331E+0	1.225984E+0	1.386898E+0	1.426536E+0	1.360329E+0	1.347972E+0	1.318285E+0	1.418924E+0	1.368503E+0	1.296681E+0	1.373856E+0	1.373811E+0	1.335414E+0	1.200767E+0	1.329685E+0	1.345884E+0	1.411413E+0	1.192227E+0	1.353808E+0	1.380045E+0	1.395884E+0	1.276309E+0	1.411351E+0	1.401761E+0	1.428800E+0	1.232501E+0	1.329812E+0	1.333568E+0	1.415323E+0	1.157006E+0	1.287797E+0	1.331402E+0	1.368002E+0	1.191669E+0	1.273050E+0	1.360270E+0	1.417632E+0	1.320199E+0	1.403562E+0	1.354119E+0	1.434103E+0	1.258925E+0	1.385132E+0	1.357335E+0	1.447369E+0	1.105855E+0	1.389745E+0	1.360040E+0	1.424858E+0	1.170433E+0	1.360097E+0	1.386502E+0	1.340358E+0	1.267300E+0	1.353175E+0	1.334228E+0	1.375214E+0	1.311448E+0	1.351652E+0	1.419050E+0	1.415756E+0	1.177159E+0	1.377549E+0	1.389113E+0	1.391943E+0	1.244453E+0	1.410212E+0	1.402458E+0	1.329429E+0	1.326880E+0	1.383107E+0	1.346398E+0	1.334257E+0	1.299530E+0	1.346006E+0	1.372027E+0	1.371174E+0	1.179785E+0	1.365362E+0	1.407983E+0	1.345471E+0	1.231780E+0	1.372900E+0	1.391877E+0	1.358295E+0	1.304625E+0	1.361637E+0	1.398434E+0	1.382255E+0	1.267506E+0	1.353831E+0	1.400915E+0	1.264755E+0	1.163770E+0	1.383423E+0	1.375185E+0	1.340671E+0	1.258931E+0	1.411020E+0	1.305993E+0	1.424868E+0	1.252859E+0
5.505000E+2	1.409322E+0	1.360672E+0	1.317606E+0	1.368572E+0	1.338417E+0	1.418914E+0	1.415804E+0	1.376387E+0	1.318005E+0	1.258704E+0	1.280102E+0	1.385707E+0	1.340220E+0	1.145217E+0	1.284359E+0	1.346143E+0	1.345058E+0	1.193125E+0	1.252615E+0	1.379540E+0	1.394813E+0	1.255954E+0	1.295546E+0	1.389534E+0	1.321470E+0	1.361792E+0	1.341505E+0	1.397810E+0	1.396139E+0	1.232016E+0	1.324755E+0	1.397273E+0	1.377802E+0	1.205832E+0	1.238616E+0	1.350544E+0	1.368039E+0	1.256724E+0	1.319855E+0	1.338854E+0	1.377756E+0	1.277224E+0	1.381849E+0	1.376565E+0	1.375746E+0	1.160862E+0	1.251133E+0	1.357751E+0	1.422436E+0	1.120581E+0	1.356682E+0	1.398320E+0	1.302091E+0	1.261522E+0	1.314615E+0	1.298820E+0	1.323309E+0	1.264000E+0	1.257725E+0	1.355251E+0	1.378258E+0	1.133069E+0	1.255743E+0	1.367884E+0	1.345801E+0	1.182152E+0	1.319765E+0	1.338622E+0	1.346915E+0	1.302337E+0	1.321695E+0	1.287644E+0	1.338830E+0	1.264367E+0	1.364180E+0	1.287674E+0	1.374969E+0	1.154245E+0	1.343836E+0	1.326892E+0	1.370110E+0	1.195892E+0	1.298459E+0	1.349981E+0	1.272307E+0	1.295451E+0	1.326240E+0	1.369290E+0	1.380769E+0	1.190920E+0	1.342999E+0	1.394185E+0	1.362681E+0	1.114812E+0	1.272878E+0	1.340700E+0	1.355574E+0	1.162337E+0	1.339633E+0	1.379106E+0	1.331397E+0	1.304067E+0	1.379190E+0	1.308235E+0	1.416627E+0	1.261384E+0	1.325149E+0	1.338043E+0	1.387552E+0	1.113945E+0	1.346447E+0	1.383996E+0	1.324626E+0	1.168042E+0	1.340716E+0	1.342277E+0	1.342861E+0	1.297720E+0	1.323850E+0	1.341312E+0	1.340394E+0	1.289970E+0	1.291664E+0	1.346462E+0	1.420798E+0	1.183743E+0	1.303820E+0	1.399371E+0	1.388255E+0	1.218755E+0	1.357733E+0	1.361263E+0	1.390142E+0	1.284692E+0	1.326293E+0	1.356558E+0	1.361116E+0	1.186743E+0	1.339913E+0	1.364692E+0	1.383336E+0	1.094302E+0	1.279990E+0	1.379258E+0	1.379745E+0	1.205136E+0	1.368623E+0	1.305165E+0	1.374523E+0	1.332927E+0	1.376757E+0	1.365661E+0	1.356129E+0	1.179306E+0	1.373495E+0	1.342865E+0	1.327145E+0	1.182006E+0	1.344874E+0	1.353605E+0	1.376665E+0	1.211968E+0	1.379543E+0	1.182414E+0	1.324063E+0	1.312868E+0
5.512620E+2	1.349548E+0	1.362635E+0	1.355828E+0	1.372048E+0	1.395286E+0	1.416174E+0	1.435055E+0	1.359280E+0	1.308809E+0	1.252294E+0	1.276306E+0	1.395152E+0	1.360409E+0	1.137731E+0	1.261758E+0	1.358634E+0	1.417353E+0	1.195368E+0	1.276242E+0	1.332252E+0	1.366181E+0	1.295090E+0	1.289152E+0	1.404674E+0	1.346150E+0	1.318447E+0	1.369405E+0	1.387494E+0	1.389666E+0	1.233613E+0	1.318115E+0	1.342710E+0	1.385066E+0	1.202853E+0	1.278236E+0	1.347785E+0	1.400226E+0	1.302517E+0	1.276757E+0	1.409193E+0	1.302644E+0	1.293219E+0	1.304324E+0	1.357018E+0	1.285493E+0	1.184725E+0	1.326774E+0	1.332071E+0	1.403412E+0	1.124614E+0	1.322373E+0	1.487297E+0	1.342917E+0	1.286813E+0	1.306485E+0	1.301050E+0	1.406802E+0	1.290487E+0	1.334181E+0	1.368673E+0	1.370663E+0	1.169200E+0	1.260264E+0	1.348404E+0	1.366800E+0	1.157728E+0	1.345978E+0	1.381556E+0	1.348744E+0	1.300583E+0	1.367744E+0	1.344066E+0	1.366525E+0	1.294852E+0	1.302919E+0	1.384125E+0	1.347451E+0	1.136659E+0	1.327842E+0	1.399898E+0	1.349769E+0	1.183064E+0	1.324875E+0	1.348618E+0	1.361074E+0	1.279301E+0	1.367936E+0	1.348035E+0	1.345058E+0	1.266016E+0	1.339861E+0	1.342040E+0	1.345321E+0	1.109665E+0	1.319427E+0	1.349373E+0	1.417087E+0	1.201449E+0	1.267671E+0	1.385158E+0	1.319972E+0	1.300173E+0	1.366391E+0	1.381875E+0	1.401029E+0	1.258311E+0	1.347809E+0	1.341776E+0	1.395861E+0	1.103697E+0	1.303151E+0	1.341345E+0	1.354824E+0	1.074711E+0	1.343216E+0	1.317218E+0	1.336603E+0	1.274622E+0	1.350826E+0	1.374817E+0	1.330240E+0	1.260945E+0	1.309341E+0	1.339481E+0	1.362201E+0	1.238040E+0	1.254036E+0	1.395149E+0	1.321278E+0	1.211045E+0	1.375227E+0	1.354620E+0	1.289349E+0	1.321988E+0	1.354065E+0	1.375184E+0	1.351747E+0	1.271815E+0	1.337883E+0	1.372026E+0	1.343536E+0	1.115138E+0	1.341333E+0	1.358477E+0	1.286148E+0	1.200290E+0	1.300226E+0	1.318450E+0	1.303524E+0	1.331080E+0	1.364925E+0	1.296595E+0	1.359860E+0	1.237421E+0	1.356016E+0	1.402235E+0	1.332932E+0	1.139061E+0	1.333574E+0	1.407553E+0	1.359006E+0	1.210698E+0	1.286811E+0	1.170594E+0	1.324064E+0	1.352877E+0
5.520100E+2	1.332736E+0	1.344320E+0	1.309830E+0	1.335209E+0	1.317915E+0	1.366206E+0	1.411459E+0	1.356114E+0	1.333946E+0	1.285633E+0	1.222590E+0	1.302471E+0	1.370503E+0	1.307403E+0	1.189223E+0	1.425456E+0	1.386946E+0	1.361868E+0	1.250801E+0	1.287787E+0	1.321267E+0	1.326919E+0	1.274041E+0	1.363495E+0	1.357837E+0	1.304603E+0	1.297565E+0	1.355335E+0	1.319044E+0	1.189940E+0	1.272854E+0	1.414855E+0	1.370535E+0	1.193322E+0	1.288439E+0	1.365027E+0	1.346388E+0	1.310533E+0	1.304340E+0	1.363245E+0	1.331719E+0	1.263792E+0	1.244927E+0	1.345412E+0	1.296110E+0	1.204787E+0	1.259280E+0	1.379929E+0	1.417526E+0	1.153408E+0	1.320627E+0	1.376241E+0	1.303819E+0	1.265369E+0	1.340162E+0	1.313858E+0	1.319569E+0	1.223640E+0	1.230151E+0	1.364840E+0	1.382056E+0	1.138461E+0	1.228631E+0	1.405660E+0	1.332213E+0	1.220350E+0	1.264139E+0	1.353615E+0	1.322527E+0	1.269573E+0	1.312033E+0	1.307173E+0	1.303885E+0	1.264368E+0	1.333227E+0	1.294955E+0	1.379552E+0	1.107725E+0	1.270626E+0	1.369628E+0	1.396621E+0	1.195279E+0	1.275815E+0	1.306257E+0	1.357013E+0	1.250586E+0	1.266831E+0	1.311430E+0	1.354907E+0	1.198369E+0	1.346770E+0	1.335522E+0	1.333001E+0	1.118414E+0	1.266314E+0	1.324584E+0	1.329476E+0	1.135880E+0	1.295247E+0	1.319243E+0	1.335391E+0	1.274030E+0	1.329218E+0	1.385275E+0	1.375441E+0	1.266912E+0	1.317817E+0	1.313146E+0	1.410262E+0	1.078884E+0	1.291729E+0	1.350108E+0	1.327197E+0	1.132146E+0	1.281325E+0	1.337855E+0	1.323467E+0	1.247583E+0	1.319160E+0	1.323273E+0	1.338216E+0	1.253976E+0	1.385120E+0	1.407885E+0	1.301716E+0	1.179902E+0	1.284913E+0	1.297398E+0	1.348930E+0	1.174425E+0	1.380125E+0	1.314754E+0	1.380124E+0	1.303645E+0	1.302302E+0	1.269074E+0	1.290534E+0	1.233145E+0	1.299297E+0	1.323137E+0	1.321425E+0	1.098042E+0	1.316670E+0	1.384761E+0	1.312512E+0	1.121567E+0	1.340837E+0	1.340130E+0	1.321102E+0	1.315699E+0	1.327453E+0	1.317666E+0	1.305121E+0	1.212123E+0	1.326158E+0	1.354737E+0	1.282121E+0	1.148473E+0	1.322943E+0	1.363759E+0	1.314865E+0	1.231643E+0	1.293617E+0	1.150176E+0	1.397892E+0	1.312869E+0
5.527590E+2	1.370096E+0	1.318155E+0	1.285860E+0	1.265004E+0	1.243849E+0	1.314184E+0	1.298444E+0	1.289595E+0	1.326589E+0	1.308717E+0	1.255146E+0	1.364456E+0	1.321092E+0	1.248515E+0	1.175558E+0	1.286813E+0	1.362270E+0	1.321502E+0	1.179314E+0	1.337192E+0	1.308354E+0	1.293003E+0	1.219407E+0	1.305963E+0	1.262371E+0	1.374434E+0	1.365917E+0	1.351696E+0	1.315515E+0	1.328950E+0	1.223970E+0	1.338461E+0	1.377802E+0	1.303532E+0	1.292640E+0	1.324344E+0	1.321804E+0	1.318547E+0	1.296867E+0	1.375157E+0	1.265693E+0	1.246520E+0	1.283065E+0	1.320980E+0	1.273283E+0	1.250340E+0	1.204587E+0	1.278963E+0	1.398501E+0	1.151681E+0	1.243288E+0	1.346135E+0	1.294618E+0	1.280215E+0	1.267004E+0	1.272084E+0	1.325175E+0	1.212286E+0	1.232657E+0	1.297734E+0	1.290930E+0	1.142239E+0	1.198126E+0	1.379096E+0	1.313065E+0	1.141446E+0	1.274368E+0	1.260929E+0	1.340818E+0	1.242075E+0	1.271100E+0	1.287105E+0	1.305863E+0	1.243640E+0	1.331939E+0	1.259166E+0	1.280384E+0	1.069714E+0	1.254013E+0	1.303152E+0	1.328191E+0	1.149458E+0	1.333683E+0	1.339737E+0	1.273468E+0	1.225458E+0	1.310815E+0	1.287812E+0	1.328431E+0	1.174162E+0	1.300291E+0	1.325745E+0	1.334680E+0	1.103490E+0	1.320022E+0	1.288023E+0	1.322021E+0	1.123800E+0	1.237407E+0	1.332019E+0	1.356525E+0	1.248441E+0	1.283516E+0	1.334858E+0	1.375441E+0	1.236812E+0	1.293159E+0	1.273936E+0	1.335491E+0	1.058930E+0	1.257451E+0	1.284675E+0	1.286076E+0	1.108813E+0	1.272573E+0	1.318691E+0	1.307198E+0	1.213220E+0	1.272832E+0	1.347112E+0	1.363606E+0	1.262105E+0	1.234198E+0	1.302489E+0	1.340150E+0	1.176611E+0	1.308231E+0	1.260589E+0	1.285640E+0	1.176996E+0	1.382926E+0	1.296817E+0	1.360082E+0	1.279801E+0	1.299146E+0	1.275283E+0	1.278040E+0	1.236369E+0	1.312159E+0	1.315192E+0	1.344643E+0	1.100179E+0	1.347658E+0	1.337697E+0	1.283511E+0	1.189998E+0	1.295238E+0	1.343626E+0	1.287973E+0	1.213568E+0	1.309047E+0	1.260894E+0	1.298899E+0	1.218279E+0	1.293389E+0	1.285472E+0	1.264756E+0	1.156120E+0	1.326265E+0	1.287598E+0	1.260533E+0	1.209428E+0	1.341261E+0	1.112565E+0	1.329743E+0	1.275362E+0
5.535160E+2	1.218789E+0	1.288065E+0	1.255413E+0	1.244150E+0	1.269642E+0	1.227936E+0	1.290993E+0	1.247151E+0	1.277535E+0	1.206131E+0	1.123841E+0	1.252292E+0	1.272215E+0	1.237536E+0	1.115109E+0	1.285562E+0	1.277351E+0	1.258714E+0	1.145391E+0	1.227795E+0	1.279161E+0	1.258041E+0	1.170005E+0	1.277502E+0	1.231199E+0	1.270893E+0	1.289892E+0	1.226096E+0	1.266080E+0	1.273026E+0	1.213107E+0	1.294203E+0	1.190222E+0	1.296383E+0	1.193594E+0	1.218152E+0	1.273817E+0	1.238410E+0	1.209524E+0	1.301984E+0	1.263270E+0	1.268909E+0	1.211166E+0	1.278834E+0	1.247269E+0	1.286135E+0	1.217970E+0	1.252704E+0	1.309521E+0	1.254192E+0	1.171763E+0	1.281239E+0	1.263565E+0	1.226330E+0	1.220559E+0	1.261503E+0	1.237318E+0	1.178861E+0	1.200698E+0	1.233828E+0	1.292017E+0	1.147091E+0	1.175535E+0	1.297051E+0	1.201890E+0	1.150838E+0	1.170791E+0	1.297049E+0	1.190223E+0	1.243829E+0	1.165360E+0	1.254553E+0	1.304542E+0	1.174745E+0	1.231987E+0	1.149373E+0	1.248855E+0	1.018083E+0	1.167879E+0	1.270507E+0	1.291203E+0	1.093860E+0	1.158822E+0	1.235884E+0	1.290292E+0	1.169224E+0	1.252551E+0	1.273056E+0	1.221903E+0	1.147478E+0	1.241883E+0	1.303583E+0	1.232196E+0	1.056151E+0	1.172023E+0	1.260753E+0	1.291574E+0	1.090442E+0	1.223284E+0	1.317223E+0	1.255437E+0	1.181690E+0	1.234766E+0	1.273677E+0	1.225045E+0	1.109037E+0	1.230513E+0	1.267088E+0	1.276784E+0	1.000134E+0	1.249633E+0	1.243191E+0	1.300212E+0	1.065736E+0	1.173171E+0	1.222873E+0	1.287176E+0	1.174913E+0	1.252308E+0	1.280105E+0	1.290341E+0	1.176188E+0	1.217149E+0	1.302487E+0	1.264543E+0	1.155221E+0	1.213705E+0	1.247918E+0	1.243244E+0	1.106968E+0	1.180006E+0	1.264925E+0	1.270487E+0	1.244341E+0	1.260007E+0	1.217717E+0	1.233690E+0	1.191255E+0	1.276959E+0	1.252857E+0	1.230222E+0	1.016296E+0	1.243310E+0	1.333417E+0	1.260441E+0	1.077967E+0	1.263888E+0	1.243624E+0	1.246723E+0	1.166808E+0	1.238708E+0	1.248015E+0	1.223632E+0	1.141702E+0	1.239499E+0	1.247213E+0	1.234526E+0	1.083761E+0	1.236536E+0	1.239360E+0	1.266643E+0	1.132003E+0	1.246825E+0	1.103968E+0	1.281470E+0	1.140338E+0
5.542640E+2	1.140955E+0	1.190597E+0	1.213951E+0	1.135022E+0	1.181688E+0	1.147166E+0	1.182949E+0	1.140718E+0	1.127311E+0	1.174715E+0	1.104853E+0	1.218646E+0	1.167553E+0	1.182145E+0	1.031012E+0	1.170651E+0	1.189564E+0	1.176867E+0	1.019990E+0	1.148745E+0	1.166317E+0	1.144284E+0	1.105490E+0	1.190906E+0	1.094817E+0	1.200460E+0	1.155279E+0	1.183014E+0	1.123072E+0	1.137744E+0	1.095426E+0	1.188708E+0	1.192203E+0	1.177830E+0	1.059727E+0	1.160233E+0	1.180763E+0	1.193763E+0	1.168152E+0	1.205554E+0	1.195427E+0	1.148648E+0	1.213669E+0	1.176829E+0	1.191522E+0	1.137543E+0	1.082401E+0	1.162242E+0	1.210104E+0	1.144195E+0	1.117684E+0	1.170182E+0	1.156620E+0	1.166946E+0	1.152625E+0	1.177956E+0	1.154449E+0	1.214809E+0	1.074105E+0	1.187811E+0	1.180825E+0	1.175133E+0	1.049567E+0	1.163060E+0	1.154331E+0	1.187158E+0	1.124756E+0	1.209137E+0	1.167056E+0	1.192343E+0	1.136937E+0	1.175354E+0	1.205638E+0	1.139387E+0	1.177172E+0	1.175456E+0	1.158282E+0	1.123610E+0	1.142657E+0	1.193939E+0	1.154964E+0	1.132353E+0	1.180835E+0	1.125886E+0	1.188766E+0	1.144699E+0	1.115457E+0	1.125459E+0	1.148014E+0	1.037004E+0	1.200430E+0	1.181695E+0	1.138114E+0	9.630157E-1	1.115926E+0	1.154778E+0	1.175378E+0	9.966940E-1	1.112314E+0	1.147052E+0	1.206318E+0	1.084900E+0	1.191501E+0	1.224962E+0	1.140800E+0	1.097367E+0	1.189857E+0	1.186800E+0	1.142751E+0	9.246201E-1	1.139587E+0	1.151466E+0	1.156933E+0	1.019668E+0	1.128158E+0	1.158748E+0	1.075706E+0	1.123650E+0	1.158480E+0	1.195059E+0	1.201842E+0	1.100139E+0	1.185574E+0	1.183132E+0	1.197758E+0	1.017553E+0	1.160773E+0	1.150773E+0	1.095161E+0	1.012529E+0	1.197500E+0	1.147329E+0	1.174404E+0	1.158129E+0	1.143852E+0	1.217715E+0	1.176849E+0	1.067512E+0	1.161875E+0	1.153241E+0	1.193740E+0	9.447019E-1	1.156043E+0	1.235011E+0	1.168164E+0	1.009538E+0	1.195490E+0	1.149218E+0	1.109457E+0	1.142201E+0	1.149965E+0	1.177782E+0	1.142141E+0	1.060338E+0	1.167404E+0	1.162774E+0	1.157985E+0	1.030813E+0	1.162095E+0	1.175256E+0	1.157984E+0	1.081233E+0	1.177913E+0	1.055611E+0	1.196283E+0	1.110333E+0
5.550140E+2	1.074953E+0	1.065659E+0	1.068834E+0	1.028673E+0	1.016367E+0	1.127315E+0	1.127063E+0	1.078635E+0	1.097877E+0	1.018273E+0	9.903702E-1	1.072243E+0	1.062890E+0	1.089825E+0	9.810774E-1	1.080096E+0	1.082838E+0	1.081567E+0	9.648624E-1	1.059816E+0	1.086035E+0	1.072272E+0	1.068292E+0	1.067368E+0	1.039616E+0	1.107152E+0	1.071579E+0	1.127800E+0	1.090115E+0	1.067442E+0	9.771417E-1	1.100796E+0	1.123511E+0	1.079532E+0	1.006302E+0	1.154714E+0	1.057278E+0	1.087866E+0	1.062419E+0	1.092674E+0	1.103354E+0	1.117944E+0	1.047359E+0	1.080932E+0	1.077912E+0	1.080058E+0	9.840712E-1	1.017509E+0	1.081849E+0	1.077388E+0	1.015338E+0	1.083208E+0	1.028392E+0	1.092167E+0	1.056244E+0	1.064889E+0	1.049147E+0	1.098144E+0	1.007676E+0	1.081084E+0	1.086444E+0	1.083453E+0	9.755678E-1	1.052681E+0	1.082069E+0	1.043130E+0	1.085115E+0	1.099413E+0	1.106696E+0	1.108676E+0	1.051663E+0	1.033769E+0	1.100799E+0	1.080856E+0	1.035307E+0	1.094780E+0	1.063701E+0	1.118504E+0	1.047295E+0	1.079980E+0	1.071740E+0	1.071865E+0	1.058811E+0	1.043213E+0	1.066355E+0	1.079490E+0	1.004642E+0	1.069372E+0	1.050723E+0	1.038866E+0	1.055348E+0	1.111299E+0	1.117953E+0	1.019618E+0	1.075941E+0	1.076071E+0	1.103922E+0	1.021999E+0	1.036990E+0	1.064319E+0	1.098948E+0	1.060980E+0	1.071450E+0	1.081644E+0	1.127694E+0	1.015050E+0	1.064563E+0	1.054227E+0	1.063000E+0	8.366986E-1	1.083061E+0	1.040458E+0	1.051561E+0	9.018070E-1	1.055016E+0	1.059979E+0	1.063817E+0	9.704255E-1	1.125053E+0	1.081663E+0	1.079976E+0	1.032219E+0	1.018234E+0	1.070758E+0	1.093799E+0	9.303444E-1	1.111620E+0	1.064489E+0	1.100694E+0	9.572764E-1	1.070149E+0	1.076238E+0	1.064766E+0	1.050519E+0	1.099032E+0	1.059120E+0	1.077533E+0	1.015306E+0	1.123965E+0	1.054849E+0	1.054999E+0	8.880683E-1	1.065611E+0	1.081596E+0	1.106862E+0	8.999301E-1	9.959920E-1	1.005857E+0	1.056715E+0	1.041298E+0	1.089485E+0	1.106961E+0	1.117880E+0	9.940175E-1	1.048701E+0	1.044693E+0	9.939699E-1	9.572743E-1	1.051760E+0	1.066088E+0	1.030986E+0	9.638260E-1	1.060510E+0	8.965700E-1	1.103999E+0	9.177995E-1
5.558000E+2	9.734586E-1	9.956666E-1	9.878534E-1	9.821011E-1	9.958674E-1	1.010952E+0	1.017776E+0	1.017817E+0	1.015712E+0	1.012503E+0	9.214620E-1	1.021474E+0	9.874482E-1	9.980043E-1	9.137971E-1	9.570646E-1	1.008248E+0	9.885088E-1	9.048905E-1	9.694745E-1	9.995797E-1	9.799092E-1	9.288019E-1	1.020136E+0	9.603845E-1	1.046954E+0	1.005318E+0	9.324227E-1	1.001839E+0	9.779633E-1	9.451581E-1	9.759013E-1	9.854696E-1	1.008043E+0	9.132575E-1	9.961218E-1	9.841248E-1	9.596446E-1	9.727769E-1	9.712819E-1	1.003407E+0	9.791311E-1	9.523267E-1	9.728189E-1	9.558021E-1	9.819003E-1	9.503262E-1	9.836592E-1	1.022322E+0	9.990647E-1	9.513712E-1	1.040392E+0	9.685921E-1	9.893483E-1	9.999281E-1	1.007518E+0	1.021730E+0	9.940873E-1	9.249546E-1	1.028041E+0	9.926084E-1	9.599584E-1	9.089140E-1	9.971949E-1	9.875702E-1	1.003053E+0	9.457335E-1	9.576615E-1	1.007317E+0	1.001610E+0	9.766206E-1	9.784370E-1	9.887086E-1	1.011355E+0	9.921005E-1	9.928734E-1	9.742769E-1	1.043047E+0	9.310177E-1	9.951034E-1	9.872843E-1	1.009547E+0	9.537688E-1	9.994873E-1	9.804922E-1	9.777908E-1	9.817935E-1	9.943913E-1	9.657500E-1	1.041970E+0	9.655351E-1	9.568183E-1	1.026670E+0	9.784524E-1	9.703105E-1	9.837338E-1	1.036817E+0	9.782886E-1	9.576303E-1	9.876409E-1	1.034981E+0	9.691978E-1	1.012340E+0	9.836443E-1	1.003510E+0	9.462491E-1	1.001250E+0	9.689577E-1	9.943219E-1	9.877275E-1	9.351301E-1	1.009495E+0	1.013010E+0	1.050778E+0	9.831208E-1	9.951170E-1	9.755993E-1	1.043096E+0	9.508869E-1	9.959746E-1	9.769688E-1	9.584928E-1	1.016971E+0	9.786242E-1	1.016933E+0	8.689139E-1	9.742417E-1	9.643241E-1	9.974659E-1	8.846799E-1	9.910786E-1	9.426959E-1	1.021146E+0	1.012609E+0	9.759325E-1	1.025256E+0	1.037556E+0	9.141209E-1	1.036640E+0	9.772343E-1	1.004698E+0	8.057891E-1	1.069404E+0	9.954162E-1	9.499878E-1	8.817629E-1	1.000980E+0	1.014948E+0	9.796301E-1	9.459350E-1	1.022433E+0	9.612254E-1	9.530336E-1	9.222262E-1	1.033408E+0	9.899395E-1	9.978291E-1	8.943262E-1	9.686787E-1	1.043873E+0	1.007895E+0	8.654568E-1	1.013719E+0	8.729286E-1	1.014553E+0	9.628058E-1
5.560080E+2	1.048178E+0	1.029682E+0	9.444475E-1	1.002954E+0	9.356900E-1	1.013690E+0	1.037647E+0	9.988129E-1	9.917990E-1	1.015068E+0	8.840249E-1	1.030328E+0	1.004980E+0	9.865276E-1	8.586082E-1	9.651835E-1	1.005379E+0	1.008127E+0	8.885342E-1	1.030878E+0	1.010245E+0	1.016959E+0	9.311255E-1	9.783511E-1	9.350565E-1	1.016253E+0	1.014386E+0	9.839974E-1	1.023615E+0	9.934091E-1	9.958500E-1	1.011672E+0	9.986793E-1	1.049149E+0	1.008704E+0	9.761246E-1	1.017482E+0	9.808251E-1	9.687551E-1	1.000211E+0	9.816004E-1	9.983205E-1	9.673324E-1	9.844249E-1	1.006238E+0	9.721380E-1	9.881451E-1	1.049608E+0	1.002683E+0	9.973377E-1	9.502090E-1	9.989122E-1	1.004817E+0	9.453596E-1	1.022572E+0	9.941517E-1	1.009893E+0	1.025620E+0	9.888766E-1	9.826645E-1	1.066376E+0	1.010652E+0	9.473263E-1	1.012543E+0	1.008570E+0	9.786319E-1	9.943245E-1	9.876477E-1	1.057313E+0	9.840586E-1	9.663874E-1	1.010986E+0	9.788175E-1	1.004648E+0	9.688862E-1	9.855933E-1	9.599450E-1	1.039644E+0	9.617788E-1	9.879818E-1	9.928336E-1	1.004659E+0	9.317541E-1	9.584941E-1	9.822332E-1	9.616389E-1	9.709379E-1	9.595569E-1	1.007004E+0	9.873544E-1	1.013269E+0	1.001141E+0	1.002589E+0	9.887451E-1	9.792625E-1	9.546053E-1	1.020660E+0	9.713856E-1	9.932749E-1	1.018581E+0	1.003570E+0	1.042068E+0	9.702929E-1	1.000638E+0	1.065915E+0	1.021808E+0	9.892535E-1	1.011281E+0	9.954312E-1	1.013079E+0	1.007291E+0	9.761907E-1	9.918082E-1	9.921465E-1	9.462355E-1	1.020177E+0	9.912414E-1	9.822559E-1	9.784493E-1	9.882424E-1	1.022669E+0	9.805512E-1	1.009393E+0	9.653622E-1	9.734591E-1	1.011517E+0	9.792830E-1	9.727720E-1	1.031875E+0	1.020881E+0	1.022566E+0	1.020431E+0	1.024684E+0	1.035844E+0	1.020123E+0	9.987309E-1	9.857111E-1	9.392564E-1	9.452519E-1	9.699021E-1	1.020729E+0	9.281399E-1	1.021343E+0	1.021698E+0	1.007993E+0	9.483751E-1	9.731925E-1	9.848776E-1	9.870683E-1	9.926940E-1	9.698431E-1	1.021511E+0	9.617435E-1	9.577805E-1	1.012289E+0	1.009070E+0	1.040280E+0	8.743238E-1	1.017862E+0	9.740568E-1	1.016724E+0	9.187670E-1	9.541658E-1	9.116136E-1	1.013133E+0	9.903126E-1
5.565030E+2	1.023895E+0	1.007441E+0	9.800790E-1	9.779307E-1	9.760281E-1	9.664597E-1	9.830016E-1	1.012116E+0	1.026750E+0	9.471047E-1	9.176651E-1	9.730656E-1	1.039515E+0	1.025950E+0	8.975032E-1	1.004529E+0	9.984924E-1	9.716909E-1	8.824757E-1	1.019586E+0	9.956488E-1	1.005999E+0	9.584432E-1	1.012262E+0	9.733732E-1	9.753187E-1	9.648646E-1	9.985596E-1	1.019494E+0	9.875512E-1	9.173971E-1	9.989388E-1	9.768830E-1	9.830203E-1	9.360699E-1	9.802617E-1	1.031530E+0	1.015168E+0	9.635815E-1	9.865995E-1	9.822060E-1	9.586599E-1	9.635807E-1	9.758738E-1	9.972119E-1	9.493622E-1	9.258896E-1	1.010504E+0	9.670927E-1	9.696921E-1	9.717255E-1	9.868704E-1	9.168396E-1	9.794507E-1	9.842511E-1	9.429104E-1	9.781140E-1	9.947196E-1	9.700760E-1	9.903338E-1	9.974908E-1	1.003640E+0	9.179520E-1	1.001918E+0	1.025864E+0	1.010568E+0	9.617179E-1	1.014908E+0	1.028046E+0	9.998532E-1	9.635450E-1	9.914566E-1	9.669493E-1	9.894064E-1	1.013381E+0	9.965113E-1	9.209646E-1	9.851785E-1	9.377851E-1	1.022407E+0	1.020574E+0	9.453932E-1	9.229477E-1	1.009053E+0	1.000797E+0	1.002916E+0	1.016065E+0	1.011511E+0	9.546651E-1	1.032660E+0	1.043414E+0	1.012874E+0	9.650693E-1	9.537541E-1	9.106328E-1	9.688587E-1	9.715739E-1	1.008771E+0	9.428343E-1	1.013200E+0	9.990007E-1	9.742027E-1	9.574960E-1	9.796785E-1	1.057179E+0	9.579208E-1	9.912526E-1	9.863848E-1	1.031987E+0	9.812544E-1	1.012702E+0	9.855399E-1	1.011083E+0	9.957360E-1	9.543630E-1	9.663712E-1	9.174137E-1	9.985903E-1	9.749304E-1	9.908185E-1	9.820462E-1	9.724241E-1	9.879230E-1	9.863019E-1	9.911019E-1	9.352804E-1	9.408428E-1	9.926840E-1	9.753449E-1	9.694833E-1	9.763843E-1	1.015778E+0	9.934432E-1	9.795946E-1	9.405809E-1	9.795407E-1	9.700952E-1	9.753480E-1	1.015655E+0	9.796798E-1	1.021280E+0	9.607309E-1	9.637956E-1	9.862477E-1	9.981050E-1	9.550371E-1	9.511052E-1	1.003059E+0	9.728681E-1	9.773130E-1	9.639266E-1	9.840514E-1	1.007776E+0	9.830778E-1	9.620404E-1	9.609143E-1	9.656698E-1	9.578630E-1	9.693430E-1	1.036893E+0	9.752970E-1	9.790572E-1	9.950018E-1	8.697056E-1	9.648609E-1	8.677893E-1
5.570610E+2	9.809305E-1	9.871628E-1	9.956270E-1	9.515170E-1	9.780119E-1	9.438713E-1	9.718244E-1	1.022886E+0	1.048211E+0	1.006732E+0	9.274297E-1	1.010256E+0	9.768226E-1	9.890215E-1	8.770049E-1	9.795472E-1	1.024314E+0	9.666442E-1	8.752068E-1	9.899424E-1	9.428766E-1	1.000260E+0	9.404247E-1	9.953081E-1	9.272633E-1	1.012040E+0	9.690492E-1	1.019796E+0	1.009490E+0	9.523971E-1	9.143800E-1	9.492231E-1	1.011228E+0	1.018169E+0	8.880453E-1	9.754350E-1	1.009291E+0	9.653685E-1	9.302547E-1	1.035380E+0	9.737260E-1	9.650565E-1	9.710832E-1	9.978620E-1	9.563340E-1	9.878653E-1	9.113430E-1	9.649842E-1	1.003297E+0	9.961855E-1	9.188079E-1	1.029689E+0	9.726166E-1	9.904468E-1	9.505766E-1	9.557191E-1	9.550588E-1	1.013007E+0	9.180613E-1	1.007589E+0	9.687445E-1	9.788336E-1	8.603358E-1	9.830303E-1	9.993068E-1	1.036869E+0	9.444547E-1	9.712913E-1	9.615892E-1	9.945903E-1	9.459211E-1	9.865748E-1	9.972798E-1	9.814810E-1	9.862970E-1	1.019564E+0	9.616660E-1	1.014112E+0	9.525513E-1	9.672071E-1	9.373516E-1	1.011378E+0	9.065943E-1	1.016569E+0	9.868738E-1	9.472810E-1	9.955016E-1	9.949823E-1	9.571274E-1	9.712175E-1	9.975671E-1	9.744167E-1	9.678691E-1	9.758807E-1	9.231654E-1	9.676203E-1	9.945631E-1	1.009347E+0	9.347637E-1	9.634263E-1	1.001857E+0	9.920048E-1	1.008684E+0	9.932709E-1	9.766759E-1	1.002764E+0	9.972509E-1	9.845168E-1	9.910016E-1	9.758604E-1	9.736160E-1	1.008909E+0	9.436198E-1	9.400972E-1	9.568637E-1	9.862722E-1	9.637123E-1	9.901424E-1	9.673071E-1	9.792202E-1	1.028472E+0	1.029317E+0	9.519287E-1	9.807178E-1	1.006852E+0	9.851906E-1	9.471444E-1	9.510492E-1	9.519962E-1	9.945391E-1	1.022566E+0	9.606347E-1	1.041188E+0	1.018724E+0	9.765636E-1	9.377744E-1	1.015069E+0	1.012083E+0	9.479596E-1	9.900693E-1	1.006358E+0	1.007213E+0	9.840321E-1	9.935824E-1	9.868996E-1	9.853141E-1	1.008104E+0	9.827793E-1	1.014116E+0	9.963861E-1	9.724722E-1	9.928322E-1	9.996887E-1	9.543618E-1	1.038506E+0	1.038756E+0	9.695288E-1	9.990433E-1	9.733308E-1	1.061645E+0	1.033023E+0	1.013962E+0	9.643745E-1	8.320935E-1	9.975155E-1	9.403020E-1
5.575080E+2	1.029499E+0	1.012674E+0	9.917400E-1	1.000174E+0	9.786734E-1	9.958929E-1	1.007840E+0	9.766399E-1	1.026750E+0	9.605688E-1	9.062712E-1	9.978595E-1	1.029950E+0	1.001000E+0	8.843641E-1	1.001405E+0	1.000216E+0	1.005885E+0	8.873221E-1	1.002646E+0	9.827375E-1	9.793883E-1	9.258953E-1	9.934911E-1	1.003247E+0	1.027692E+0	1.029033E+0	1.014334E+0	9.794762E-1	9.960729E-1	9.186043E-1	9.292156E-1	1.005945E+0	1.004469E+0	9.564783E-1	9.795725E-1	1.024507E+0	1.028907E+0	9.831206E-1	9.605045E-1	1.010070E+0	1.026467E+0	9.635812E-1	9.917533E-1	1.025351E+0	1.008475E+0	9.375270E-1	9.807403E-1	9.314990E-1	1.024406E+0	9.449761E-1	9.808490E-1	1.014015E+0	1.018490E+0	9.616088E-1	1.002506E+0	9.288892E-1	9.530955E-1	9.243278E-1	1.003116E+0	1.004000E+0	1.011729E+0	9.490190E-1	1.031431E+0	9.745989E-1	1.004931E+0	9.252738E-1	9.917368E-1	1.011584E+0	9.589000E-1	9.879900E-1	9.773530E-1	1.025633E+0	9.973329E-1	1.026923E+0	1.039580E+0	1.006377E+0	9.948236E-1	9.334780E-1	1.020031E+0	1.034137E+0	1.008934E+0	1.003459E+0	9.762579E-1	1.000798E+0	1.033427E+0	9.349511E-1	1.006199E+0	1.018089E+0	1.002249E+0	9.762116E-1	1.020697E+0	1.007630E+0	1.028365E+0	9.637460E-1	1.032691E+0	9.697086E-1	1.024300E+0	1.010760E+0	9.950394E-1	1.012708E+0	9.797659E-1	9.696838E-1	1.004604E+0	9.779240E-1	1.007065E+0	1.003249E+0	1.039289E+0	1.002077E+0	9.693891E-1	9.663998E-1	1.000730E+0	9.551853E-1	1.016079E+0	9.868716E-1	9.988026E-1	1.019395E+0	9.743684E-1	9.878309E-1	9.650469E-1	1.029197E+0	1.024671E+0	9.696103E-1	9.883960E-1	1.015043E+0	9.895783E-1	1.017723E+0	1.011389E+0	9.710441E-1	1.022165E+0	9.749848E-1	9.978404E-1	9.875464E-1	1.029729E+0	9.999208E-1	9.959085E-1	1.008822E+0	1.003062E+0	9.994077E-1	9.986243E-1	1.037863E+0	1.056367E+0	9.796057E-1	1.001527E+0	1.001400E+0	1.030733E+0	9.810299E-1	9.694923E-1	1.045220E+0	9.834649E-1	9.895637E-1	9.986835E-1	9.847593E-1	1.010426E+0	9.787901E-1	9.859821E-1	1.006191E+0	1.027870E+0	9.846299E-1	1.008965E+0	9.970289E-1	9.936537E-1	9.873448E-1	9.932831E-1	9.889976E-1	1.000313E+0
5.580510E+2	1.007083E+0	9.878172E-1	9.930357E-1	9.473467E-1	1.015045E+0	1.041070E+0	1.055652E+0	1.009582E+0	1.021844E+0	1.040714E+0	9.469647E-1	1.006124E+0	1.024108E+0	1.022954E+0	8.559801E-1	9.514439E-1	1.032921E+0	9.795374E-1	8.915627E-1	9.941775E-1	9.776850E-1	9.866934E-1	9.468203E-1	9.934887E-1	9.545397E-1	9.560552E-1	9.871837E-1	1.013728E+0	1.041857E+0	1.025897E+0	9.361062E-1	9.825687E-1	1.019815E+0	1.013405E+0	1.015906E+0	9.857783E-1	1.027433E+0	1.024899E+0	9.658813E-1	1.051833E+0	1.039752E+0	1.020070E+0	9.710838E-1	1.016186E+0	1.013140E+0	1.004676E+0	9.642891E-1	1.013422E+0	1.057915E+0	1.059536E+0	9.688186E-1	1.012293E+0	1.009990E+0	1.047629E+0	9.952829E-1	1.027012E+0	1.041670E+0	1.038233E+0	9.500221E-1	9.916118E-1	9.757963E-1	1.017123E+0	9.461957E-1	1.003100E+0	9.925105E-1	1.009315E+0	9.355042E-1	1.014908E+0	1.012193E+0	1.027938E+0	9.413742E-1	1.030514E+0	1.018380E+0	1.000989E+0	9.746895E-1	1.004398E+0	1.014976E+0	1.034536E+0	9.630101E-1	1.022407E+0	1.014409E+0	1.033376E+0	9.506240E-1	1.028867E+0	9.810721E-1	9.879606E-1	9.726525E-1	9.589692E-1	9.540488E-1	1.015903E+0	1.025830E+0	9.952733E-1	1.038433E+0	1.005209E+0	9.965678E-1	1.046946E+0	1.068505E+0	1.004746E+0	1.020177E+0	9.950394E-1	1.019561E+0	1.003686E+0	1.013559E+0	1.030661E+0	1.005382E+0	1.008906E+0	9.939188E-1	1.022484E+0	9.754921E-1	1.049220E+0	9.712110E-1	9.773612E-1	1.032286E+0	1.047787E+0	9.987487E-1	1.009121E+0	9.806034E-1	9.647919E-1	9.942824E-1	1.005637E+0	9.987303E-1	1.008998E+0	1.001184E+0	1.047027E+0	9.948814E-1	1.029618E+0	9.490352E-1	1.019233E+0	1.048465E+0	1.016382E+0	9.861801E-1	9.925255E-1	1.034115E+0	1.008942E+0	9.721451E-1	1.010582E+0	1.037559E+0	1.023685E+0	1.054918E+0	1.024903E+0	9.903260E-1	1.005609E+0	1.052963E+0	1.025365E+0	1.013265E+0	1.005298E+0	9.881547E-1	1.019843E+0	1.051305E+0	9.994615E-1	9.665568E-1	1.029116E+0	1.018351E+0	9.728224E-1	1.013017E+0	1.030839E+0	1.023557E+0	9.837466E-1	1.009222E+0	1.001349E+0	1.026911E+0	9.606529E-1	1.058808E+0	9.793142E-1	1.003194E+0	1.047820E+0
5.585390E+2	1.035725E+0	1.041456E+0	1.009880E+0	1.009210E+0	1.009093E+0	1.038332E+0	9.885898E-1	1.050760E+0	1.016326E+0	1.025967E+0	9.529327E-1	1.027377E+0	1.014012E+0	1.004490E+0	8.759526E-1	1.054489E+0	1.001364E+0	1.010372E+0	9.218530E-1	1.037936E+0	1.051792E+0	9.966091E-1	9.927339E-1	1.024980E+0	1.042863E+0	1.018059E+0	9.997383E-1	1.005233E+0	1.026555E+0	1.004061E+0	9.566243E-1	1.026224E+0	1.022456E+0	1.024128E+0	9.876937E-1	1.005086E+0	9.905636E-1	1.030052E+0	9.888667E-1	1.014395E+0	1.042175E+0	9.848872E-1	9.660819E-1	9.954190E-1	9.489013E-1	9.965437E-1	1.011419E+0	9.982486E-1	1.016800E+0	1.023252E+0	9.542789E-1	1.042399E+0	1.030691E+0	1.047079E+0	1.030119E+0	1.015317E+0	1.020484E+0	1.063458E+0	9.851162E-1	1.010146E+0	1.041969E+0	9.772162E-1	9.659668E-1	1.000738E+0	9.869528E-1	9.842666E-1	9.732263E-1	1.039442E+0	1.007925E+0	1.039639E+0	1.016416E+0	1.039735E+0	9.761816E-1	1.016232E+0	9.605032E-1	1.005611E+0	9.897545E-1	1.022623E+0	1.005460E+0	1.040212E+0	1.027354E+0	1.007713E+0	1.016038E+0	1.049363E+0	1.021104E+0	1.020862E+0	1.046340E+0	1.066419E+0	1.031635E+0	1.061831E+0	9.925420E-1	1.045463E+0	1.040111E+0	1.003150E+0	9.691167E-1	1.030831E+0	9.839999E-1	1.014522E+0	9.461968E-1	1.003111E+0	1.020131E+0	1.037061E+0	1.062308E+0	1.003469E+0	1.017239E+0	9.763504E-1	1.020577E+0	9.926087E-1	1.021461E+0	1.044906E+0	9.988727E-1	1.029357E+0	1.055416E+0	1.000523E+0	9.656161E-1	1.011333E+0	1.016894E+0	1.003662E+0	1.016567E+0	9.740670E-1	1.022669E+0	1.036282E+0	9.689786E-1	1.049120E+0	9.892102E-1	1.008777E+0	1.017093E+0	1.027681E+0	1.022658E+0	1.027946E+0	1.025365E+0	1.020430E+0	1.005233E+0	1.014444E+0	1.038429E+0	1.021870E+0	1.046301E+0	1.041086E+0	9.872226E-1	9.760135E-1	1.010225E+0	9.826353E-1	9.979458E-1	1.007028E+0	1.018538E+0	1.010143E+0	1.035891E+0	9.974652E-1	9.857157E-1	1.008691E+0	9.889071E-1	1.009219E+0	1.023327E+0	9.899149E-1	1.018115E+0	1.037437E+0	9.823916E-1	1.049638E+0	1.069040E+0	9.975407E-1	1.035060E+0	1.041251E+0	1.060510E+0	1.033044E+0	1.017392E+0	9.803082E-1
5.590210E+2	9.454389E-1	1.010056E+0	9.645307E-1	1.037709E+0	1.011077E+0	1.004107E+0	9.979043E-1	9.766393E-1	9.862802E-1	9.759570E-1	1.035402E+0	1.002584E+0	9.449468E-1	9.910185E-1	1.090932E+0	1.001405E+0	1.028905E+0	1.006446E+0	1.022415E+0	9.828845E-1	9.866665E-1	9.663432E-1	1.064805E+0	1.021952E+0	9.941553E-1	9.530448E-1	9.216201E-1	9.803563E-1	1.007136E+0	1.015778E+0	9.077418E-1	1.017734E+0	9.881113E-1	9.776580E-1	9.054542E-1	9.581965E-1	9.689093E-1	9.722375E-1	9.497911E-1	9.780912E-1	9.906870E-1	9.720932E-1	9.517015E-1	9.734289E-1	9.818171E-1	9.873228E-1	9.427621E-1	9.883283E-1	9.480682E-1	9.397453E-1	9.513717E-1	9.808493E-1	9.605411E-1	9.794496E-1	9.743797E-1	9.729877E-1	1.034816E+0	1.011746E+0	9.399941E-1	9.986418E-1	9.931529E-1	1.022516E+0	9.179534E-1	9.889320E-1	9.647176E-1	9.510774E-1	9.278310E-1	9.971889E-1	9.597615E-1	9.618242E-1	9.527437E-1	9.762666E-1	1.005192E+0	9.851386E-1	9.733997E-1	1.019563E+0	1.009817E+0	9.919868E-1	9.494738E-1	9.725488E-1	1.002698E+0	9.698338E-1	9.418179E-1	9.516615E-1	9.903536E-1	9.909511E-1	9.629421E-1	1.000295E+0	9.675957E-1	9.904579E-1	9.548578E-1	9.411743E-1	1.014911E+0	1.006240E+0	8.867620E-1	9.824920E-1	9.939413E-1	9.667845E-1	9.340912E-1	9.970572E-1	9.704452E-1	1.002017E+0	9.587146E-1	9.728784E-1	9.866606E-1	9.824919E-1	9.905863E-1	9.938539E-1	9.893370E-1	9.936600E-1	9.922582E-1	9.902151E-1	9.982335E-1	9.891553E-1	9.849959E-1	9.368882E-1	1.014389E+0	9.940854E-1	9.960410E-1	9.721345E-1	1.000907E+0	9.962277E-1	9.689794E-1	9.472155E-1	1.059776E+0	9.758676E-1	9.496653E-1	9.576868E-1	1.023272E+0	9.257967E-1	9.497944E-1	1.004485E+0	9.704533E-1	1.029728E+0	9.380561E-1	9.699468E-1	9.900823E-1	9.759926E-1	9.919610E-1	9.387344E-1	9.643483E-1	1.037668E+0	9.574719E-1	9.593543E-1	9.559201E-1	9.871315E-1	9.560926E-1	9.624994E-1	9.816586E-1	1.022841E+0	1.049385E+0	9.612249E-1	9.909801E-1	9.864968E-1	9.744210E-1	9.998353E-1	9.946138E-1	9.755115E-1	9.806421E-1	9.975410E-1	9.902375E-1	9.352672E-1	9.601212E-1	9.406284E-1	1.010293E+0	9.728086E-1
5.595110E+2	9.784403E-1	1.002862E+0	1.031906E+0	9.786258E-1	9.786734E-1	9.801496E-1	9.743075E-1	1.014650E+0	9.727911E-1	9.817271E-1	1.078264E+0	9.789698E-1	9.630100E-1	1.019961E+0	1.063601E+0	1.016394E+0	9.772628E-1	9.957958E-1	1.016356E+0	1.035819E+0	1.013612E+0	1.002347E+0	1.020633E+0	9.626070E-1	1.034420E+0	9.981953E-1	1.034613E+0	1.001592E+0	9.612331E-1	9.832880E-1	1.095427E+0	1.020161E+0	1.042271E+0	1.024128E+0	1.023712E+0	1.063007E+0	1.035040E+0	9.888388E-1	1.010703E+0	9.752530E-1	9.840234E-1	9.740124E-1	9.923409E-1	1.002749E+0	9.865964E-1	9.997981E-1	9.666168E-1	1.006421E+0	9.983903E-1	9.846656E-1	9.775378E-1	9.995823E-1	9.944653E-1	9.602058E-1	9.523196E-1	9.841259E-1	1.022977E+0	9.871510E-1	9.750894E-1	9.596575E-1	9.595236E-1	1.004180E+0	9.190831E-1	9.647319E-1	1.028334E+0	1.038748E+0	9.489303E-1	9.808329E-1	9.768318E-1	9.524636E-1	9.800308E-1	1.004474E+0	9.840937E-1	1.021719E+0	9.592128E-1	1.024416E+0	9.811541E-1	9.970930E-1	9.728525E-1	9.974788E-1	9.817372E-1	1.012600E+0	9.493652E-1	1.030233E+0	1.019944E+0	9.867635E-1	9.880757E-1	9.920304E-1	9.768311E-1	9.811481E-1	1.003219E+0	9.763714E-1	9.471480E-1	9.702212E-1	9.786652E-1	9.744361E-1	9.889713E-1	9.817387E-1	9.784794E-1	1.020599E+0	9.927173E-1	9.742036E-1	9.349483E-1	9.643821E-1	1.003510E+0	1.039008E+0	9.845880E-1	1.017505E+0	1.039740E+0	9.925828E-1	9.820336E-1	1.014752E+0	9.731752E-1	9.825762E-1	1.001250E+0	1.015017E+0	9.680913E-1	1.012675E+0	9.549922E-1	1.044940E+0	9.929275E-1	9.956460E-1	1.019496E+0	1.015617E+0	9.551874E-1	1.023585E+0	9.944070E-1	1.004148E+0	1.017127E+0	9.887574E-1	9.875800E-1	1.036376E+0	1.017019E+0	9.514685E-1	1.023909E+0	1.006630E+0	9.788418E-1	1.013374E+0	9.635291E-1	1.027959E+0	9.853518E-1	9.970596E-1	9.783406E-1	1.003973E+0	1.032380E+0	1.007721E+0	1.023780E+0	1.032431E+0	9.485253E-1	1.003153E+0	1.013229E+0	9.881477E-1	1.028926E+0	1.017948E+0	9.911702E-1	1.045352E+0	9.888247E-1	9.978684E-1	9.833008E-1	1.025467E+0	9.861626E-1	1.085040E+0	9.745840E-1	1.048088E+0	1.038689E+0	1.065326E+0
5.600470E+2	1.025140E+0	9.786592E-1	9.800787E-1	1.065513E+0	1.006446E+0	9.897329E-1	9.991470E-1	9.829745E-1	1.026136E+0	1.009297E+0	1.044086E+0	1.038003E+0	1.050139E+0	1.005490E+0	1.053613E+0	9.876660E-1	1.004804E+0	1.028871E+0	1.120553E+0	1.002647E+0	1.038876E+0	1.001304E+0	1.064806E+0	1.047385E+0	9.999998E-1	1.048759E+0	1.042285E+0	9.876373E-1	1.018907E+0	1.023236E+0	1.050767E+0	1.028040E+0	9.749017E-1	1.003276E+0	1.032716E+0	1.052664E+0	1.037383E+0	9.968516E-1	1.057822E+0	9.973781E-1	9.785722E-1	1.005357E+0	1.044235E+0	1.021684E+0	1.048178E+0	9.970852E-1	1.063201E+0	1.048440E+0	1.040733E+0	1.020948E+0	1.062440E+0	1.008948E+0	9.950409E-1	1.001444E+0	1.041150E+0	9.963793E-1	1.001791E+0	1.045169E+0	1.084134E+0	1.033792E+0	1.014306E+0	9.755966E-1	1.069338E+0	1.021987E+0	1.023393E+0	1.053150E+0	1.116445E+0	1.012182E+0	1.007925E+0	1.004534E+0	1.031197E+0	9.887442E-1	1.001895E+0	1.030865E+0	1.021120E+0	1.008642E+0	1.024147E+0	9.743979E-1	9.710075E-1	1.009941E+0	9.780381E-1	9.985500E-1	9.808172E-1	1.009736E+0	9.677289E-1	1.003515E+0	1.020636E+0	9.955715E-1	1.041488E+0	9.854925E-1	9.554860E-1	1.035035E+0	1.030030E+0	1.029395E+0	9.655359E-1	9.762953E-1	1.010720E+0	1.038679E+0	9.751158E-1	1.046831E+0	1.000144E+0	1.035392E+0	9.971054E-1	1.021597E+0	1.006631E+0	1.019963E+0	9.785898E-1	9.646010E-1	9.921089E-1	1.019013E+0	9.826362E-1	9.913823E-1	1.016866E+0	1.026251E+0	9.874964E-1	1.017966E+0	1.050053E+0	1.027883E+0	1.011290E+0	1.003705E+0	1.005985E+0	9.892607E-1	1.076330E+0	9.611744E-1	9.766097E-1	1.009873E+0	9.944073E-1	9.757889E-1	9.931644E-1	9.958240E-1	9.875797E-1	9.931899E-1	9.999268E-1	1.030954E+0	9.898205E-1	9.738960E-1	9.875852E-1	1.027552E+0	1.005500E+0	1.043237E+0	1.042838E+0	1.000268E+0	1.032093E+0	1.002140E+0	1.023811E+0	9.895537E-1	1.021642E+0	1.033130E+0	9.992395E-1	1.011766E+0	1.030979E+0	1.034972E+0	1.003422E+0	1.005640E+0	1.032680E+0	9.879609E-1	1.006191E+0	1.016694E+0	9.959288E-1	1.034353E+0	1.024194E+0	1.005713E+0	9.907478E-1	9.900602E-1	9.818983E-1	9.578036E-1
5.605150E+2	9.709681E-1	9.838920E-1	1.004049E+0	9.647239E-1	1.034883E+0	9.589300E-1	9.774130E-1	9.544666E-1	9.642058E-1	9.567223E-1	1.022923E+0	9.529943E-1	9.699154E-1	9.645686E-1	1.040473E+0	1.020765E+0	9.623461E-1	9.666443E-1	1.064820E+0	9.532414E-1	9.524217E-1	1.026351E+0	9.718115E-1	9.498892E-1	9.811663E-1	9.596673E-1	1.009503E+0	9.755017E-1	9.888915E-1	9.731713E-1	1.044131E+0	9.898439E-1	9.749015E-1	9.776590E-1	1.050125E+0	9.595758E-1	9.437430E-1	9.791078E-1	1.010127E+0	9.814915E-1	9.537365E-1	1.024549E+0	1.038606E+0	1.005193E+0	9.961507E-1	9.531581E-1	1.042255E+0	9.638165E-1	9.867288E-1	9.627814E-1	1.042084E+0	9.795112E-1	9.818160E-1	9.486588E-1	9.993460E-1	9.869109E-1	9.949374E-1	9.966101E-1	1.050917E+0	1.036349E+0	9.790488E-1	9.793731E-1	1.103795E+0	1.003689E+0	1.020923E+0	1.000547E+0	1.078082E+0	9.978701E-1	9.847577E-1	1.029690E+0	1.044839E+0	9.941680E-1	9.728839E-1	9.741651E-1	1.044979E+0	9.364595E-1	9.570780E-1	9.959584E-1	1.124201E+0	9.660194E-1	9.539965E-1	9.771641E-1	1.099697E+0	9.461960E-1	1.004859E+0	9.783895E-1	1.037772E+0	9.932092E-1	1.036560E+0	9.668745E-1	1.047182E+0	9.802833E-1	9.292266E-1	9.733069E-1	1.054456E+0	9.434495E-1	9.697091E-1	9.932416E-1	1.024884E+0	9.849501E-1	9.938611E-1	9.914468E-1	1.024529E+0	1.005736E+0	9.685635E-1	9.769645E-1	9.592627E-1	9.919866E-1	1.017585E+0	9.823359E-1	9.531704E-1	1.010077E+0	9.924506E-1	9.634291E-1	9.874966E-1	1.031971E+0	9.949965E-1	9.969022E-1	9.702395E-1	1.057181E+0	9.740669E-1	9.399161E-1	9.841348E-1	1.014920E+0	1.007481E+0	9.989018E-1	9.799133E-1	9.969069E-1	9.526105E-1	1.013171E+0	9.791829E-1	9.785730E-1	1.003464E+0	9.863204E-1	1.010021E+0	1.020743E+0	9.813384E-1	9.714812E-1	9.966996E-1	9.802915E-1	9.521883E-1	9.473728E-1	1.008062E+0	9.893050E-1	9.737182E-1	9.604881E-1	9.682053E-1	1.003759E+0	1.013439E+0	1.000692E+0	9.415760E-1	9.992688E-1	9.791606E-1	1.010427E+0	9.707791E-1	9.562966E-1	9.785336E-1	9.460971E-1	9.819715E-1	9.512067E-1	9.603557E-1	1.005077E+0	9.907481E-1	1.005104E+0	1.033010E+0	9.403020E-1
5.610070E+2	1.007705E+0	9.825838E-1	1.024780E+0	9.966984E-1	9.661091E-1	9.917859E-1	9.991464E-1	1.034288E+0	9.856666E-1	1.049047E+0	1.013156E+0	9.960889E-1	1.003919E+0	9.905187E-1	1.135085E+0	9.664322E-1	9.921809E-1	1.006448E+0	1.075118E+0	9.906483E-1	9.962090E-1	1.040963E+0	1.012496E+0	1.006207E+0	9.896089E-1	1.038527E+0	9.760238E-1	1.021617E+0	9.759436E-1	9.784961E-1	1.090598E+0	1.006214E+0	9.715990E-1	9.752776E-1	1.027915E+0	9.961209E-1	9.724218E-1	9.791060E-1	1.033688E+0	1.041054E+0	1.000984E+0	9.925633E-1	1.072369E+0	9.935870E-1	9.998653E-1	1.052942E+0	1.071929E+0	1.000583E+0	1.019866E+0	9.846659E-1	1.098493E+0	9.955677E-1	1.013440E+0	9.970440E-1	1.045794E+0	1.014761E+0	9.544360E-1	9.045383E-1	1.090399E+0	9.666875E-1	1.032203E+0	1.012267E+0	1.128649E+0	9.853907E-1	1.008570E+0	9.579643E-1	1.094707E+0	9.658400E-1	1.039022E+0	1.025011E+0	1.045410E+0	9.887444E-1	1.015741E+0	9.735572E-1	1.039174E+0	9.613297E-1	1.016697E+0	9.885813E-1	1.080517E+0	9.713621E-1	1.007630E+0	9.918290E-1	1.058182E+0	1.007686E+0	1.014141E+0	9.981317E-1	1.036630E+0	9.873066E-1	9.737531E-1	9.960432E-1	1.044671E+0	1.005703E+0	9.925103E-1	9.841122E-1	1.185150E+0	1.012860E+0	1.014445E+0	9.759888E-1	1.110296E+0	9.573728E-1	9.904330E-1	9.764281E-1	1.039152E+0	9.966712E-1	1.034090E+0	9.892500E-1	1.069229E+0	9.776715E-1	9.621998E-1	9.488928E-1	1.153418E+0	9.861247E-1	9.763880E-1	9.741996E-1	1.087524E+0	9.789013E-1	9.555783E-1	1.025631E+0	1.068756E+0	9.772886E-1	9.755177E-1	1.008998E+0	1.011286E+0	9.765301E-1	1.001812E+0	9.638004E-1	1.097756E+0	1.007166E+0	9.716588E-1	1.009958E+0	1.109333E+0	9.765801E-1	9.822423E-1	9.484128E-1	1.027697E+0	1.000423E+0	9.694712E-1	9.437673E-1	1.000762E+0	1.010237E+0	1.016859E+0	9.730201E-1	9.935185E-1	1.011307E+0	9.809671E-1	1.008932E+0	1.025205E+0	9.813805E-1	9.748965E-1	9.699298E-1	1.019803E+0	9.793683E-1	9.710742E-1	1.006324E+0	1.021028E+0	9.562968E-1	1.019698E+0	1.002574E+0	9.952646E-1	9.835774E-1	9.800503E-1	9.733450E-1	9.771361E-1	1.010478E+0	9.265263E-1	1.035319E+0
