Photon Energy (eV)	#1	#2	#3	#4	#5	#6	#7	#8	#9	#10	#11	#12	#13	#14	#15	#16	#17	#18	#19	#20	#21	#22	#23	#24	#25	#26	#27	#28	#29	#30	#31	#32	#33	#34	#35	#36	#37	#38	#39	#40	#41	#42	#43	#44	#45	#46	#47	#48	#49	#50	#51	#52	#53	#54	#55	#56	#57	#58	#59	#60	#61	#62	#63	#64	#65	#66	#67	#68	#69	#70	#71	#72	#73	#74	#75	#76	#77	#78	#79	#80	#81	#82	#83	#84	#85	#86	#87	#88	#89	#90	#91	#92	#93	#94	#95	#96	#97	#98	#99	#100	#101	#102	#103	#104	#105	#106	#107	#108	#109	#110	#111	#112	#113	#114	#115	#116	#117	#118	#119	#120	#121	#122	#123	#124	#125	#126	#127	#128	#129	#130	#131	#132	#133	#134	#135	#136	#137	#138	#139	#140	#141	#142	#143	#144	#145	#146	#147	#148	#149	#150	#151	#152	#153	#154	#155	#156	#157	#158	#159	#160	#161	#162	#163	#164	#165	#166	#167	#168	#169	#170	
5.300370E+2	-6.717082E-3	-1.078569E-2	-7.608671E-3	-1.288760E-2	-5.734587E-3	-6.137458E-3	-5.591498E-4	6.164529E-3	-9.621422E-3	-2.379324E-3	-9.650316E-4	-7.751657E-3	-3.002951E-3	-3.258810E-3	-3.322745E-3	-3.139149E-3	-3.022833E-4	-5.032681E-3	-4.304430E-3	-1.582514E-3	-1.068319E-2	-3.915202E-3	-1.052525E-2	-1.449380E-3	-5.426808E-3	-1.065084E-2	-5.826795E-3	-3.566797E-3	-2.127806E-3	-4.265938E-3	-8.415156E-3	-5.524979E-3	-8.548719E-4	7.454262E-4	4.647308E-4	-2.444261E-4	-2.474986E-3	-6.346778E-3	-5.683125E-3	-1.138790E-2	-1.594194E-2	-9.385353E-3	-2.112117E-3	-7.729320E-3	-8.413145E-3	-4.940307E-3	-5.602019E-3	-2.683872E-3	3.348072E-4	-4.097484E-3	-9.777526E-4	1.704379E-3	-1.367577E-3	-2.045619E-3	-6.217484E-3	-4.279828E-3	3.492701E-3	-5.867787E-3	-7.079137E-3	-6.987367E-3	-1.263277E-3	-3.271756E-3	-4.838035E-3	-6.377767E-3	-4.906135E-3	-4.668119E-3	-1.345423E-2	-7.880624E-3	-1.374109E-2	-2.169847E-3	-1.980470E-3	-3.469097E-3	-7.968377E-3	-1.364435E-2	-5.776636E-3	-8.317725E-4	1.780450E-3	-5.992045E-3	-8.122888E-3	-4.927781E-3	-5.632535E-3	2.523185E-4	-1.015103E-3	-5.695010E-3	-5.508113E-3	-7.991908E-3	-3.814790E-3	-8.266229E-3	2.123662E-3	-2.652148E-3	-8.592238E-3	-6.108043E-3	-1.596883E-3	-9.101405E-3	-3.053818E-3	-1.564960E-3	2.325965E-3	-5.465621E-3	-7.159910E-3	-8.153433E-3	-5.663716E-3	-6.910023E-3	-8.466856E-3	-9.067873E-4	-8.804267E-3	-4.201098E-4	-2.522353E-3	-8.869297E-3	-3.734772E-3	-1.020344E-2	-4.310885E-3	-5.100763E-3	-6.658525E-3	-7.053076E-4	-5.019707E-3	-4.118108E-5	-5.621904E-3	7.759046E-4	-1.502437E-3	-9.561645E-3	-1.107875E-2	-1.092513E-2	-6.677024E-3	-4.919811E-3	-4.904249E-4	-8.214881E-3	-9.516273E-3	-1.004666E-3	-1.055696E-3	-1.210929E-3	-1.005180E-4	2.289976E-3	-5.188322E-3	-1.110899E-2	-8.220512E-3	-1.863862E-3	-4.669345E-3	-9.216034E-3	-6.718259E-3	-2.869687E-3	-6.056235E-3	-2.548273E-4	-3.377785E-3	9.951683E-4	-6.323457E-3	-7.257340E-3	-9.563395E-3	-6.099460E-4	-3.664175E-3	-2.776988E-3	-9.189275E-3	-2.422004E-3	-1.796524E-2	-1.120760E-2	4.744435E-3	-2.329957E-3	-8.795025E-4	-9.834312E-3	-5.557079E-3	-4.371581E-3	-6.799889E-3	3.191732E-3	-8.845440E-3	-8.314951E-3	-1.110042E-2	-5.403427E-3	1.041001E-4	-1.602780E-3	-1.099539E-2	-6.885802E-3
5.305180E+2	-9.163139E-3	-2.499346E-3	7.734360E-4	1.647864E-2	-3.258093E-3	-1.124635E-2	-1.167134E-2	2.589237E-3	-5.604211E-3	-4.011439E-3	-6.940487E-3	-1.010822E-2	-2.457636E-3	-7.436772E-3	-1.053212E-2	4.819656E-3	8.577783E-3	-1.212557E-2	-3.763828E-3	-2.147065E-3	3.059809E-3	-3.794405E-3	-7.365049E-3	-5.141049E-3	-1.215043E-2	-8.517509E-3	1.930952E-3	-2.489264E-3	-8.989675E-3	-1.075800E-2	-9.203213E-3	-2.757695E-3	-8.487375E-3	8.569315E-4	-6.063302E-3	-6.810324E-3	2.522050E-3	-4.547807E-3	-7.750687E-3	5.180195E-4	-3.411966E-3	-7.832583E-3	-7.791623E-3	-3.841752E-3	1.119644E-3	-3.867927E-3	1.557096E-3	-5.744318E-3	3.246956E-3	-1.082560E-2	-5.641513E-3	-6.964830E-3	2.028677E-3	-3.130401E-3	-2.327598E-3	-5.448440E-3	-1.282761E-2	-3.685551E-3	-3.933153E-3	-4.273328E-3	-2.101505E-3	-1.069398E-4	-6.502852E-3	-1.275047E-2	1.342669E-3	-7.688897E-3	-3.304740E-3	-3.531730E-3	4.031408E-5	-8.305569E-3	-3.155510E-3	-8.790226E-3	6.316089E-4	-4.958663E-3	-4.071810E-3	-2.150547E-3	-1.603944E-2	-1.040004E-2	2.999770E-4	-4.799394E-3	1.072575E-3	-3.840945E-3	-9.925035E-3	-2.532872E-4	-6.884126E-3	-2.418213E-3	-6.932304E-3	-6.477920E-3	-8.689704E-3	-1.151295E-2	-1.574715E-2	-4.963647E-3	-5.251668E-3	-7.638690E-3	-4.870930E-3	-7.064626E-3	-7.193329E-3	-1.512048E-2	-4.227137E-3	-1.393370E-2	-9.812473E-3	2.040803E-4	-3.867966E-3	1.425887E-3	-1.128439E-2	1.341700E-3	3.526457E-4	-6.072126E-3	-5.077369E-3	-2.683819E-3	-5.430458E-3	-5.901930E-3	-1.054145E-3	-9.183302E-3	-9.449730E-3	-6.582811E-3	-5.530427E-3	-2.213850E-3	-2.152971E-3	-6.801048E-3	-1.213945E-3	-7.532085E-3	-4.036691E-3	-6.040039E-3	1.086351E-3	1.190060E-3	3.021155E-3	-4.389019E-3	-2.877262E-3	3.461927E-3	-5.634283E-3	-1.623188E-3	-7.608052E-3	-2.642587E-3	-1.945836E-3	-9.782319E-3	1.078188E-3	1.571120E-4	1.333349E-3	-1.290331E-2	-9.569360E-3	-5.134263E-3	-3.872554E-3	-9.498986E-3	2.114377E-3	-3.546832E-3	-7.851626E-3	-5.548475E-3	-2.545623E-3	3.545713E-3	-1.003731E-2	-3.616589E-3	1.043871E-4	-1.366942E-3	-7.880235E-3	-9.816296E-3	-7.365978E-3	-5.430346E-3	-5.428899E-3	-1.336560E-3	8.845602E-4	-3.753471E-3	1.957210E-3	-2.198679E-3	-1.058458E-2	-3.389633E-3	-5.406537E-3	-9.200345E-3	3.221383E-3	6.561411E-3
5.310100E+2	1.340722E-3	-5.617111E-3	-6.937256E-3	-8.591083E-3	-2.606863E-3	-4.422379E-3	-7.450235E-4	-6.865624E-3	2.826186E-4	-6.008895E-3	-4.563198E-3	-1.397187E-3	-2.109806E-3	-5.028816E-4	2.068420E-3	-2.287044E-3	-5.370964E-3	-1.088665E-2	-5.962209E-3	1.536458E-3	-8.943134E-3	-9.555465E-4	-4.992684E-3	2.373983E-3	1.553183E-3	7.268779E-4	-4.638262E-3	-2.315751E-3	2.346040E-4	-4.338431E-3	-2.343717E-3	-3.541759E-4	-1.288286E-3	-2.239836E-3	-5.440482E-3	-1.230560E-3	-6.543453E-6	-1.050611E-3	-8.030101E-3	-7.188328E-3	-2.028608E-3	-7.699588E-4	-5.908630E-3	-3.672445E-3	1.804680E-3	1.276528E-4	4.416091E-3	8.741754E-3	5.481780E-4	6.388017E-4	3.050632E-3	-4.963127E-3	8.507740E-4	-2.064106E-3	2.894419E-3	-4.362445E-3	2.482856E-3	-4.052144E-3	-9.412733E-5	-1.005104E-2	3.097291E-3	-3.789169E-3	-4.564125E-3	2.624330E-3	-5.991545E-3	5.796047E-3	3.177189E-3	-5.259359E-3	-7.539742E-4	7.346510E-4	-2.476905E-4	1.557433E-3	-6.615933E-3	7.163306E-4	1.112678E-4	-5.737643E-3	-5.799471E-3	-2.123609E-3	-3.454504E-3	-5.496119E-3	2.493257E-3	-5.438737E-3	-2.502497E-4	-6.107148E-4	-8.649749E-3	-5.478257E-3	-2.122105E-3	-1.635399E-3	5.583744E-3	-1.820949E-3	2.353806E-3	-1.050111E-2	-6.120792E-3	9.010475E-3	1.107621E-3	3.023111E-3	-8.739591E-3	-5.023670E-3	7.936041E-3	-1.492471E-3	6.491696E-3	-8.551289E-4	2.255291E-3	-4.989799E-4	9.729753E-4	-5.872270E-3	-8.735099E-3	-3.003574E-3	-2.905262E-3	-4.812342E-3	9.790887E-4	-1.488702E-3	-7.759208E-3	2.568747E-3	7.389490E-4	-2.753931E-3	-6.567643E-4	-9.869892E-3	-6.366738E-4	2.232000E-3	-1.662524E-3	3.021201E-3	1.905680E-3	-5.782958E-3	-1.613599E-3	3.757210E-3	-2.548772E-3	3.529488E-3	-8.214141E-4	-8.433447E-3	2.635545E-3	-4.894236E-3	-3.406705E-3	1.174259E-3	3.099199E-3	5.542656E-3	-3.229215E-3	-1.348124E-3	-4.822059E-4	-7.460962E-3	2.049566E-3	-4.051046E-3	-7.453164E-3	-5.143316E-3	-1.297634E-2	-1.091168E-2	-6.495304E-3	2.799742E-3	-6.563660E-3	4.320686E-4	-4.492077E-3	-3.140896E-4	-6.320191E-3	-3.398709E-3	-4.334687E-3	2.331113E-4	4.014130E-3	-1.153339E-2	-4.329599E-3	-2.598426E-3	-2.514061E-3	-6.749185E-3	2.760199E-3	1.720868E-3	5.241725E-3	-3.180324E-3	4.260352E-3	8.291062E-3	2.047788E-3	-8.284562E-3
5.315080E+2	-6.200176E-3	4.426497E-6	2.662659E-3	-4.787665E-3	-3.205406E-3	8.004016E-3	-2.318430E-3	-4.909257E-3	1.645064E-3	-2.915005E-3	-2.895769E-4	-2.725043E-3	1.633956E-4	-6.617253E-3	4.830244E-3	-4.191395E-3	-8.569019E-3	2.099224E-3	2.132066E-3	-6.238624E-3	3.953504E-4	3.355617E-4	5.589418E-3	1.070851E-3	1.003028E-3	6.191573E-4	1.893642E-3	6.371443E-3	6.909537E-3	1.211340E-2	-2.782997E-3	3.254606E-3	-3.737158E-4	-4.981069E-3	2.050747E-3	5.276708E-3	-7.504199E-3	-1.061819E-2	1.504879E-3	7.858874E-3	-4.240233E-3	-3.528428E-3	-1.479711E-3	1.867615E-3	-3.291763E-3	-3.493339E-3	4.441501E-4	-3.734817E-3	-6.978877E-3	-5.030577E-5	-6.707508E-3	-2.717317E-3	4.205694E-3	-4.668859E-3	1.245487E-3	5.066059E-3	-2.427270E-3	-7.484406E-3	1.931684E-3	8.903994E-3	-1.104476E-2	8.955758E-3	6.127737E-3	2.153936E-3	-3.501331E-3	8.914965E-3	9.399560E-3	-1.026243E-3	2.252420E-4	2.886573E-3	-7.559179E-3	-1.669273E-3	3.524171E-3	-8.208760E-3	-3.488513E-3	-2.887137E-3	8.539418E-3	-5.336213E-3	-3.933331E-3	4.202824E-3	-1.095873E-4	-8.905778E-4	-6.643783E-3	-7.576654E-4	8.644983E-3	5.153790E-4	-1.242988E-3	5.206167E-3	2.420975E-4	-1.753275E-4	2.136242E-4	6.578567E-3	-3.241633E-4	-2.339271E-3	-1.384071E-3	-1.177007E-2	1.187712E-3	1.282171E-2	3.618616E-3	3.083024E-3	-3.037476E-3	-6.206315E-3	7.323509E-3	3.684854E-4	-4.678850E-3	-4.342115E-3	5.032052E-3	4.421011E-3	5.006024E-3	9.758563E-3	-4.363333E-3	-2.941574E-3	-1.570862E-3	-4.361073E-3	-2.152196E-3	-2.296673E-3	-4.825945E-3	-5.376230E-3	-6.364770E-4	-1.214707E-3	9.526785E-3	-5.246511E-3	-4.003505E-3	-5.333725E-3	-7.177323E-4	-2.361896E-3	-6.160805E-3	1.755158E-3	1.082539E-2	-3.386784E-3	-6.874067E-3	-2.789337E-3	5.380988E-4	1.228725E-3	3.605239E-3	-6.535570E-3	3.658054E-3	7.963787E-3	-3.437390E-3	-1.098144E-3	-3.757454E-3	2.465745E-3	6.907530E-3	3.717446E-3	-7.351749E-3	-1.119081E-2	4.149963E-3	-1.153420E-3	-7.790014E-3	-9.309193E-3	4.490082E-3	-8.032647E-3	1.060586E-2	4.171824E-3	-2.198462E-3	5.963022E-3	-8.396083E-3	5.065055E-3	-7.683380E-3	3.714175E-3	-1.198338E-2	2.551014E-3	-4.077637E-3	-7.317804E-3	3.879278E-3	-3.672331E-3	-7.707571E-3	-7.945927E-3	-2.909067E-4	1.060990E-3
5.320070E+2	2.219114E-3	1.103237E-2	-4.193544E-3	-5.562815E-4	3.596105E-3	8.018642E-3	5.053625E-3	-2.035110E-4	-4.131532E-3	-1.364622E-3	4.603641E-3	1.644424E-2	4.223301E-3	1.014705E-2	3.393627E-3	-9.876554E-4	-4.842148E-3	5.910071E-3	7.494640E-4	-1.186016E-3	7.089648E-3	3.407384E-3	6.973709E-3	1.644062E-4	9.050073E-3	-1.907460E-3	4.092020E-3	2.325524E-3	9.402753E-4	-5.687895E-4	3.071983E-3	-2.559444E-3	-3.107845E-3	2.759754E-4	1.894992E-3	1.426785E-3	-5.473506E-4	6.534323E-3	5.447122E-3	7.315660E-4	1.835869E-2	1.176458E-3	5.922131E-3	5.735595E-3	-2.001408E-3	5.746079E-3	-2.298958E-3	-5.687128E-3	-1.672072E-3	7.339135E-3	-2.013513E-3	2.229439E-3	-3.402443E-3	2.324438E-3	-3.012488E-3	9.973973E-4	2.654962E-3	9.612141E-3	3.431885E-3	4.452398E-3	3.792529E-3	-9.189577E-5	3.889707E-3	4.485083E-3	1.413917E-3	-4.684993E-4	1.716693E-3	1.231387E-2	1.098539E-2	1.607734E-3	2.915129E-3	1.863857E-4	9.929308E-3	9.578643E-3	7.397172E-3	4.454563E-3	-2.882342E-3	4.616692E-3	8.175866E-3	3.838032E-3	3.486938E-3	3.328163E-4	4.536530E-3	2.454379E-3	2.753853E-3	5.694062E-3	4.827468E-3	-2.512017E-3	2.212547E-3	7.036651E-3	1.176613E-2	8.850800E-3	1.167385E-4	7.981338E-3	4.306062E-5	3.979920E-3	4.073632E-3	2.752194E-5	-5.045028E-3	7.746589E-3	2.478253E-3	4.966778E-3	1.753571E-3	-4.458656E-3	8.580494E-3	1.272951E-3	-2.184917E-3	3.087404E-3	2.481117E-3	-2.564376E-3	7.777106E-3	3.214190E-3	-1.819703E-3	1.591540E-3	3.871898E-3	4.190827E-3	3.461364E-3	3.935074E-3	-1.889786E-3	4.174704E-3	-3.341698E-3	6.336583E-3	6.538984E-3	2.831939E-3	-2.282574E-3	-3.818214E-5	1.524266E-3	-2.867970E-3	-3.114987E-3	1.143860E-3	-2.069534E-3	1.081923E-3	1.065082E-2	-2.832492E-3	-5.728912E-3	2.235464E-3	-7.653323E-3	-3.427706E-3	7.310491E-3	1.387122E-2	5.118715E-3	3.394476E-3	5.724164E-3	4.164405E-3	8.474189E-3	9.619644E-3	8.260587E-3	-6.997297E-5	8.579316E-3	4.697237E-3	6.760277E-3	2.760963E-3	1.039753E-2	3.860568E-4	-1.809765E-5	-4.833610E-3	2.844012E-3	5.038891E-3	6.413525E-3	1.713575E-3	6.174523E-3	6.832052E-3	6.166373E-3	7.013917E-3	1.887944E-3	6.278536E-3	-1.129662E-3	2.299686E-3	-4.081025E-3	5.906223E-3
5.325070E+2	1.852056E-2	7.865348E-3	1.530338E-2	1.034399E-2	1.120884E-2	5.783524E-3	1.024031E-2	3.224626E-3	1.742948E-2	1.667928E-2	8.154653E-3	5.537870E-3	3.183695E-3	7.668667E-3	3.562575E-3	5.785587E-3	1.050663E-2	2.003560E-2	1.114894E-2	9.617761E-3	9.081517E-3	4.922208E-3	1.031986E-2	2.981189E-3	5.970957E-3	1.972977E-2	2.548443E-3	-3.251547E-4	3.033065E-3	7.817758E-3	1.967310E-2	7.941687E-3	1.411209E-2	5.342572E-3	7.093313E-3	1.581816E-3	8.011029E-3	1.602906E-2	1.451191E-2	9.467767E-3	7.264060E-3	2.033986E-2	1.136995E-2	7.640306E-3	1.078199E-2	6.427841E-3	1.483640E-3	9.108380E-3	4.521008E-3	6.995452E-3	1.228965E-2	1.071146E-2	-2.315125E-3	9.584547E-3	7.417665E-3	8.027256E-3	6.624366E-3	1.147775E-2	5.742848E-3	7.955344E-3	7.519723E-3	-1.695998E-3	5.887568E-3	9.864886E-3	1.164243E-2	-1.885496E-3	2.465531E-3	5.384086E-3	3.244120E-3	5.246459E-3	1.002772E-2	1.218478E-2	4.992227E-4	1.651680E-2	5.828519E-3	7.152536E-3	1.440139E-2	1.923521E-2	7.034881E-3	7.182438E-3	-1.310647E-3	9.585126E-3	1.329764E-2	4.862298E-3	9.643153E-3	9.678937E-3	9.284718E-3	1.368540E-2	-1.472348E-3	9.124719E-3	1.000583E-2	6.143437E-3	1.317677E-2	2.087554E-3	8.158137E-3	1.339662E-2	8.345611E-3	1.276054E-2	4.877417E-3	1.274999E-2	9.543716E-3	8.800607E-3	1.002451E-3	4.070052E-3	1.521404E-2	8.019844E-3	8.057673E-3	1.043658E-2	4.230262E-3	1.050542E-2	5.348481E-3	1.221878E-2	1.886244E-2	1.008940E-2	1.201079E-2	7.483769E-3	1.317368E-2	1.274899E-2	6.818345E-3	1.117070E-2	7.770133E-3	1.434594E-2	6.272556E-3	1.924459E-2	4.017979E-3	5.667689E-3	1.368043E-2	2.977008E-3	-2.956033E-3	8.425372E-3	1.204286E-2	5.934863E-3	5.014158E-3	1.418108E-2	9.190822E-3	1.040363E-2	1.081564E-2	5.870965E-3	1.994015E-3	1.046088E-2	1.221477E-2	3.579916E-3	2.071809E-3	5.765283E-3	1.606298E-2	2.328702E-2	1.149978E-2	4.582071E-3	1.198416E-2	3.411161E-3	1.246830E-2	1.162437E-2	3.177648E-3	1.141537E-2	9.687045E-3	1.078373E-2	9.783422E-3	1.669410E-2	1.658543E-2	2.878818E-3	1.423825E-2	-2.072143E-3	2.039294E-3	9.096648E-3	1.067606E-2	9.367179E-3	9.879319E-3	8.158305E-3	1.009815E-2	1.641739E-3
5.330080E+2	1.768073E-2	1.489643E-2	1.098323E-2	1.778464E-2	2.955394E-2	1.250086E-2	2.576229E-2	2.002592E-2	1.214189E-2	1.424920E-2	2.153081E-2	1.295635E-2	1.337061E-2	1.339017E-2	2.374050E-2	1.088259E-2	5.226093E-3	3.727893E-2	1.635369E-2	1.650491E-2	1.533103E-2	1.063969E-2	6.648808E-3	2.061161E-2	1.509858E-2	1.718934E-2	2.580922E-2	1.517588E-2	1.949860E-2	1.368302E-2	1.597931E-2	2.458766E-2	2.019171E-2	1.117170E-2	2.775321E-2	1.734579E-2	1.592596E-2	2.409537E-2	2.204460E-2	1.890119E-2	1.239657E-2	2.130252E-2	2.293330E-2	1.378847E-2	1.456510E-2	1.318754E-2	2.412193E-2	1.327425E-2	1.588562E-2	2.433746E-2	1.211319E-2	1.042634E-2	1.244117E-2	9.957475E-3	2.327121E-2	2.630631E-2	2.223393E-2	1.296127E-2	9.836726E-3	2.168152E-2	2.702321E-2	1.110601E-2	8.954605E-3	2.828096E-2	8.441723E-3	1.741021E-2	2.101909E-2	1.875404E-2	2.254782E-2	1.340764E-2	1.969515E-2	1.497242E-2	2.621785E-2	1.749020E-2	2.673830E-2	2.474890E-2	8.711738E-3	1.730287E-2	1.146565E-2	1.704644E-2	1.900103E-2	2.211786E-2	2.401989E-2	2.038729E-2	1.337010E-2	1.767410E-2	2.204540E-2	1.146439E-2	7.371513E-3	1.378085E-2	3.080479E-2	1.765411E-2	1.669139E-2	2.343574E-2	8.995488E-3	1.426185E-2	1.193555E-2	2.505031E-2	1.501697E-2	3.547608E-3	1.610680E-2	1.960140E-2	2.105917E-2	1.724079E-2	1.746908E-2	2.953525E-2	1.791285E-2	1.975371E-2	1.680067E-2	1.287014E-2	2.169208E-2	1.882804E-2	1.342006E-2	1.296031E-2	2.035127E-2	2.633932E-2	2.042684E-3	2.502650E-2	1.212651E-2	7.044876E-3	1.872448E-2	1.602565E-2	1.306521E-2	7.649418E-3	1.647310E-2	2.091122E-2	1.089319E-2	1.133080E-2	1.382348E-2	4.190247E-3	1.436397E-2	2.633384E-2	1.379995E-2	1.602729E-2	1.849449E-2	1.795077E-2	2.780512E-2	2.740901E-2	2.527607E-2	1.397694E-2	1.605545E-2	1.613292E-2	1.338343E-2	1.766580E-2	1.884845E-2	1.740166E-2	3.402678E-2	2.109408E-2	1.397243E-2	1.313171E-2	1.793714E-2	2.258908E-2	1.705009E-2	2.107512E-2	1.610207E-2	2.137470E-2	2.125157E-2	1.243590E-2	1.705742E-2	2.178584E-2	2.870525E-3	3.100034E-2	8.576827E-3	4.960134E-3	1.363174E-2	1.412650E-2	2.173454E-2	2.352097E-2	5.126534E-3	6.444381E-3
5.331520E+2	2.639681E-2	7.809610E-3	1.649059E-2	2.075404E-2	1.360628E-2	2.129981E-2	1.927531E-2	2.389098E-2	1.451017E-2	2.065530E-2	2.267973E-2	2.363480E-2	9.286150E-3	2.766255E-2	2.838215E-2	1.657038E-2	1.775315E-2	2.558611E-2	1.775386E-2	2.428967E-2	2.342069E-2	2.588581E-2	2.055394E-2	2.100850E-2	1.515158E-2	3.121594E-2	7.608423E-3	1.248394E-2	2.513438E-2	1.916370E-2	2.278741E-2	1.641520E-2	2.643096E-2	1.628637E-2	1.385508E-2	1.867882E-2	1.236983E-2	2.019983E-2	2.111505E-2	3.009707E-2	1.905448E-2	1.373643E-2	1.769854E-2	2.775633E-2	2.250612E-2	9.290909E-3	1.681424E-2	2.507969E-2	3.626143E-2	1.512841E-2	1.327919E-2	1.648532E-2	2.636544E-2	1.968707E-2	2.361832E-2	2.575197E-2	2.417392E-2	2.142855E-2	1.259611E-2	1.837750E-2	1.543522E-2	2.265804E-2	2.578794E-2	1.639733E-2	1.388499E-2	1.692559E-2	1.990604E-2	1.303629E-2	2.004703E-2	1.298211E-2	2.518783E-2	1.259096E-2	2.442008E-2	4.070581E-3	1.972908E-2	2.230664E-2	2.087542E-2	1.962054E-2	2.227761E-2	1.342317E-2	1.185619E-2	1.249647E-2	2.118858E-2	2.602025E-2	1.531368E-2	1.673254E-2	3.384627E-2	2.531975E-2	2.026811E-2	3.277314E-2	1.577024E-2	3.287873E-2	2.111142E-2	1.949112E-2	2.635192E-2	2.731868E-2	2.093111E-2	1.558946E-2	9.025221E-3	1.143467E-2	1.253699E-2	2.226349E-2	1.402077E-2	1.721097E-2	2.491487E-2	1.963461E-2	3.158862E-2	1.329544E-2	1.798374E-2	2.156067E-2	2.114728E-2	3.021829E-2	1.924622E-2	4.359105E-3	2.152723E-2	1.533647E-2	1.385879E-2	2.067924E-2	1.691978E-2	2.237827E-2	2.764265E-2	2.076963E-2	2.439564E-2	1.436787E-2	2.787153E-2	2.031272E-2	2.361112E-2	8.038134E-3	1.404943E-2	9.770071E-3	7.528712E-3	7.645131E-3	1.878668E-2	2.022512E-2	2.538300E-2	1.879472E-2	1.872609E-2	1.727452E-2	1.776167E-2	1.958436E-2	1.164763E-2	1.475464E-2	1.949028E-2	2.293419E-2	1.879985E-2	2.009952E-2	2.668523E-2	2.565471E-2	1.823782E-2	2.350274E-2	2.760314E-2	1.892516E-2	1.678579E-2	2.003795E-2	2.525643E-2	1.984958E-2	2.248677E-2	3.023495E-2	2.183617E-2	1.932370E-2	1.319101E-2	3.635878E-2	1.612777E-2	3.069366E-2	3.065993E-2	3.475919E-2	3.382244E-2	2.654729E-2	9.786066E-3	3.933222E-3
5.333020E+2	1.406250E-2	2.457473E-2	2.189473E-2	2.165385E-2	2.478267E-2	1.224659E-2	3.409629E-2	3.292881E-2	2.255983E-2	3.260805E-2	1.605182E-2	3.093927E-2	3.012302E-2	2.624317E-2	2.540144E-2	2.442481E-2	2.470182E-2	2.998301E-2	1.767740E-2	3.639006E-2	2.237626E-2	3.167790E-2	7.310845E-3	2.799792E-2	2.687332E-2	1.737177E-2	2.372545E-2	2.384104E-2	3.480866E-2	2.869504E-2	2.680540E-2	2.348270E-2	2.455644E-2	2.107759E-2	2.615784E-2	3.303575E-2	2.464019E-2	2.397835E-2	2.543497E-2	2.733879E-2	3.300410E-2	2.042887E-2	3.317095E-2	2.037734E-2	2.713631E-2	3.268358E-2	2.894928E-2	2.397645E-2	3.160058E-2	2.129053E-2	2.767265E-2	2.551305E-2	3.186509E-2	1.555254E-2	2.700046E-2	2.196788E-2	3.199548E-2	1.934687E-2	2.725571E-2	2.245633E-2	2.640513E-2	3.195497E-2	3.574557E-2	2.757794E-2	9.802239E-3	2.715265E-2	2.476169E-2	1.697705E-2	2.528474E-2	2.762005E-2	2.599516E-2	1.425661E-2	3.248973E-2	2.561783E-2	2.518218E-2	2.877891E-2	1.143921E-2	2.786977E-2	1.987317E-2	2.137248E-2	2.757296E-2	1.679525E-2	6.294722E-3	2.793018E-2	2.518647E-2	2.844448E-2	3.042923E-2	1.825427E-2	4.453679E-3	1.764805E-2	3.497517E-2	2.080056E-2	2.097436E-2	3.496404E-2	1.317240E-2	2.862516E-2	2.123532E-2	2.165446E-2	1.395062E-2	1.873576E-2	2.045553E-2	1.664547E-2	3.168747E-2	3.170641E-2	3.841390E-2	1.685636E-2	2.704368E-2	3.313384E-2	2.975476E-2	2.919016E-2	1.510126E-2	1.318357E-2	2.293294E-2	1.437160E-2	1.709305E-2	2.711424E-2	1.768928E-2	2.477377E-2	2.081115E-2	2.637794E-2	3.025799E-2	3.587658E-2	3.059846E-2	1.810722E-2	2.913836E-2	3.229506E-2	2.165134E-2	2.608631E-2	2.662999E-2	2.419156E-2	2.417579E-2	3.308057E-2	3.253095E-2	2.700447E-2	3.169190E-2	2.228015E-2	1.493396E-2	2.429237E-2	1.435810E-2	1.849256E-2	2.896919E-2	2.125322E-2	3.838882E-2	2.565521E-2	2.604248E-2	2.540589E-2	3.737749E-2	3.168780E-2	2.378572E-2	2.427775E-2	2.517137E-2	2.472939E-2	3.170980E-2	3.788407E-2	3.510855E-2	2.956408E-2	2.152959E-2	2.603114E-2	3.079625E-2	1.405555E-2	2.175885E-2	2.409498E-2	2.744528E-2	1.736204E-2	2.909399E-2	2.118086E-2	2.315258E-2	3.028029E-2	2.492550E-2	2.921859E-2
5.334630E+2	1.679476E-2	3.558250E-2	2.344737E-2	6.317584E-3	4.832315E-2	3.049659E-2	2.809970E-2	2.646978E-2	3.859266E-2	2.992865E-2	2.758251E-2	5.707608E-2	2.935752E-2	2.678272E-2	3.305163E-2	3.305424E-2	3.725179E-2	3.407239E-2	3.059207E-2	4.186378E-2	3.377881E-2	2.948230E-2	2.682942E-2	3.162132E-2	3.634825E-2	2.288223E-2	3.711131E-2	3.024185E-2	2.214145E-2	3.199790E-2	2.275106E-2	2.491785E-2	3.717540E-2	3.780295E-2	4.032573E-2	2.887972E-2	3.402031E-2	3.042521E-2	1.972996E-2	2.651366E-2	3.794419E-2	4.462834E-2	3.039054E-2	3.336995E-2	3.014320E-2	2.294052E-2	3.904076E-2	3.925750E-2	2.068731E-2	3.109995E-2	2.234230E-2	3.540069E-2	3.100317E-2	2.549268E-2	3.094686E-2	2.850354E-2	1.505728E-2	2.406062E-2	4.026758E-2	3.264135E-2	3.448473E-2	3.784537E-2	3.899662E-2	3.905827E-2	4.091344E-2	2.005750E-2	2.847591E-2	2.830018E-2	3.589210E-2	3.167788E-2	2.515671E-2	2.721647E-2	3.083209E-2	2.749260E-2	3.122698E-2	3.923397E-2	2.954121E-2	3.171434E-2	3.311879E-2	3.641706E-2	3.881929E-2	4.633957E-2	2.211134E-2	2.753148E-2	4.359667E-2	3.812732E-2	4.004451E-2	3.666169E-2	2.976536E-2	3.626531E-2	3.449269E-2	3.331395E-2	4.027607E-2	2.769762E-2	2.826604E-2	2.386431E-2	1.500172E-2	2.721616E-2	3.074840E-2	3.269982E-2	3.298738E-2	2.630914E-2	4.209811E-2	4.194152E-2	3.105141E-2	4.761457E-2	3.079730E-2	4.404948E-2	2.179894E-2	2.540108E-2	2.983556E-2	2.831463E-2	1.844487E-2	3.096541E-2	2.585948E-2	3.285873E-2	3.068422E-2	3.340844E-2	2.585045E-2	2.326192E-2	2.800897E-2	3.540760E-2	3.291222E-2	2.488275E-2	2.385250E-2	3.575456E-2	3.185641E-2	2.475621E-2	3.353875E-2	3.627769E-2	3.203731E-2	3.147974E-2	4.008851E-2	3.391791E-2	3.325367E-2	3.612233E-2	2.629164E-2	2.679224E-2	3.130878E-2	3.342244E-2	2.371638E-2	3.921216E-2	3.525037E-2	3.544016E-2	4.131514E-2	3.336589E-2	3.445177E-2	3.315098E-2	3.087622E-2	3.731606E-2	3.315553E-2	2.164026E-2	2.452665E-2	4.229357E-2	3.048958E-2	3.822060E-2	2.514029E-2	2.565390E-2	3.087952E-2	3.674415E-2	3.050325E-2	2.958662E-2	4.063286E-2	2.276742E-2	2.873490E-2	3.047542E-2	3.603751E-2	1.564724E-2	2.059847E-2	5.119891E-2
5.336080E+2	3.604130E-2	3.958981E-2	3.196388E-2	2.800530E-2	4.033381E-2	3.732039E-2	2.251324E-2	5.386395E-2	3.572167E-2	3.943103E-2	4.111835E-2	3.634656E-2	4.253706E-2	4.336859E-2	3.352159E-2	3.684462E-2	4.342957E-2	4.864625E-2	3.826216E-2	4.065488E-2	3.557705E-2	4.026853E-2	2.728107E-2	4.537151E-2	3.961207E-2	5.026938E-2	4.622572E-2	5.724803E-2	3.945002E-2	3.247078E-2	4.017926E-2	5.065962E-2	4.183659E-2	4.710424E-2	3.801566E-2	3.500527E-2	3.845531E-2	3.724298E-2	4.250278E-2	4.010875E-2	4.450566E-2	3.263258E-2	3.978496E-2	4.903319E-2	3.693929E-2	4.902342E-2	3.267497E-2	3.546238E-2	3.554874E-2	5.270597E-2	4.470320E-2	3.979419E-2	3.380997E-2	3.796242E-2	3.355370E-2	4.367090E-2	4.865888E-2	4.371785E-2	3.866258E-2	4.488016E-2	3.273203E-2	3.742947E-2	4.174331E-2	5.046482E-2	4.325571E-2	4.913357E-2	3.727054E-2	3.997597E-2	4.189479E-2	5.174242E-2	4.281869E-2	3.721668E-2	4.772562E-2	4.215316E-2	4.413180E-2	5.135910E-2	3.613410E-2	4.626968E-2	4.628547E-2	4.775593E-2	4.490898E-2	4.648454E-2	5.715913E-2	4.944945E-2	4.458725E-2	3.915627E-2	4.627002E-2	4.759532E-2	6.024331E-2	4.914140E-2	4.105374E-2	4.268479E-2	4.700178E-2	3.897399E-2	4.170111E-2	3.698968E-2	3.572762E-2	2.971831E-2	3.502351E-2	3.268956E-2	3.609216E-2	4.317465E-2	4.118114E-2	3.356931E-2	4.538010E-2	4.586870E-2	4.325265E-2	4.581581E-2	3.618238E-2	3.510358E-2	2.987610E-2	3.801015E-2	4.861130E-2	4.289746E-2	3.724051E-2	3.774814E-2	3.075704E-2	4.668652E-2	4.430922E-2	3.913883E-2	4.936999E-2	3.006090E-2	3.455783E-2	4.049633E-2	3.746205E-2	3.966900E-2	3.006300E-2	4.535633E-2	3.854186E-2	2.673369E-2	2.946685E-2	4.440198E-2	3.659098E-2	4.033074E-2	4.759557E-2	3.436697E-2	3.405075E-2	4.105278E-2	2.573280E-2	3.096665E-2	3.247724E-2	3.825910E-2	3.799121E-2	4.410774E-2	6.020493E-2	3.332947E-2	4.363495E-2	4.792674E-2	3.246624E-2	4.076655E-2	3.872012E-2	4.650336E-2	2.881887E-2	5.139836E-2	2.806967E-2	4.897680E-2	2.779302E-2	4.537171E-2	3.471932E-2	3.824932E-2	3.372584E-2	4.129922E-2	3.565273E-2	4.514804E-2	3.355774E-2	3.241468E-2	4.639543E-2	2.421654E-2	4.548618E-2	4.445664E-2
5.337580E+2	5.020080E-2	5.683671E-2	5.703707E-2	5.381321E-2	4.377650E-2	4.513102E-2	7.137990E-2	5.325009E-2	5.600164E-2	6.379836E-2	5.325965E-2	4.805810E-2	6.208029E-2	5.193974E-2	5.221257E-2	5.311550E-2	3.269664E-2	4.835174E-2	4.603733E-2	4.885849E-2	5.195156E-2	4.925960E-2	6.261636E-2	5.120915E-2	6.266076E-2	5.258164E-2	5.014326E-2	6.851780E-2	5.038173E-2	5.503722E-2	5.804286E-2	5.577086E-2	5.905410E-2	5.635032E-2	5.357996E-2	4.346345E-2	6.434236E-2	4.813606E-2	6.365420E-2	5.333714E-2	5.340646E-2	4.358907E-2	5.223182E-2	6.355924E-2	6.253769E-2	5.624565E-2	6.136694E-2	5.885431E-2	5.543083E-2	5.683671E-2	4.748285E-2	5.751270E-2	3.987429E-2	5.353579E-2	5.351466E-2	5.573383E-2	5.174582E-2	5.262027E-2	6.124261E-2	4.761856E-2	4.212760E-2	4.463279E-2	5.369338E-2	4.954755E-2	5.146255E-2	5.811467E-2	5.658573E-2	5.871008E-2	3.534052E-2	5.534968E-2	4.800246E-2	4.201399E-2	5.005564E-2	6.475542E-2	4.935064E-2	5.698021E-2	4.612852E-2	5.665601E-2	6.913244E-2	4.463257E-2	5.208111E-2	5.615331E-2	5.769803E-2	4.148097E-2	6.881532E-2	4.924434E-2	5.878137E-2	4.769740E-2	5.775697E-2	5.335075E-2	5.341296E-2	5.200076E-2	6.055572E-2	4.584730E-2	5.767728E-2	6.333907E-2	5.278124E-2	5.114182E-2	5.455144E-2	4.576434E-2	6.041589E-2	5.511905E-2	4.309730E-2	4.515068E-2	6.259523E-2	4.401341E-2	6.400222E-2	3.368000E-2	4.985997E-2	5.651289E-2	4.677458E-2	6.172460E-2	4.094372E-2	5.155159E-2	5.890474E-2	6.612085E-2	6.349208E-2	5.815069E-2	6.475501E-2	4.925559E-2	4.511389E-2	5.672867E-2	5.167583E-2	5.562157E-2	5.366146E-2	5.578699E-2	6.144164E-2	6.328152E-2	5.310669E-2	5.814420E-2	5.163311E-2	5.135679E-2	4.904377E-2	4.362236E-2	6.207729E-2	5.994653E-2	5.582639E-2	6.158709E-2	4.352371E-2	4.856734E-2	6.126488E-2	5.419572E-2	6.314458E-2	4.786504E-2	6.071496E-2	6.161541E-2	5.705291E-2	4.390147E-2	5.001535E-2	6.199071E-2	5.509614E-2	6.040011E-2	6.509222E-2	5.430570E-2	4.110662E-2	5.578958E-2	5.984532E-2	4.738334E-2	5.209249E-2	6.182151E-2	4.197612E-2	6.137704E-2	6.412238E-2	4.559028E-2	5.874481E-2	4.836214E-2	5.441376E-2	5.544365E-2	5.254452E-2	4.942492E-2
5.339400E+2	8.137447E-2	7.160765E-2	5.510949E-2	6.460484E-2	7.534494E-2	7.365425E-2	6.836505E-2	6.592079E-2	7.588894E-2	6.969698E-2	5.780912E-2	7.538767E-2	7.702499E-2	7.814695E-2	7.421111E-2	6.219272E-2	6.338854E-2	7.692528E-2	7.692458E-2	7.032822E-2	7.473448E-2	8.565108E-2	7.124928E-2	7.487718E-2	7.367089E-2	8.526316E-2	5.542494E-2	8.208994E-2	7.246763E-2	7.129078E-2	6.196913E-2	7.446052E-2	8.210776E-2	5.728092E-2	6.764205E-2	7.691819E-2	7.196848E-2	7.270155E-2	8.390892E-2	6.519464E-2	7.020840E-2	8.047564E-2	7.089072E-2	7.178013E-2	6.859335E-2	7.592944E-2	8.089488E-2	6.755080E-2	6.500389E-2	7.155240E-2	6.913475E-2	5.876580E-2	8.164481E-2	7.636908E-2	7.830314E-2	7.885377E-2	6.768275E-2	7.556980E-2	7.455703E-2	7.565114E-2	9.058889E-2	8.360919E-2	8.227624E-2	8.122985E-2	8.033162E-2	7.203745E-2	8.125030E-2	6.979571E-2	7.907067E-2	6.627183E-2	8.176005E-2	5.303664E-2	8.041497E-2	6.605105E-2	6.193236E-2	7.693675E-2	7.096662E-2	7.610534E-2	7.189837E-2	7.705878E-2	7.115156E-2	7.738268E-2	7.353205E-2	8.612618E-2	7.660776E-2	8.319368E-2	9.150658E-2	8.590471E-2	8.354459E-2	7.300031E-2	7.329477E-2	6.618285E-2	7.903951E-2	8.175848E-2	8.269816E-2	7.117288E-2	7.255512E-2	5.950058E-2	7.239422E-2	8.362566E-2	6.613490E-2	7.525852E-2	8.759032E-2	7.460685E-2	7.010371E-2	7.589961E-2	8.254307E-2	5.887539E-2	7.026810E-2	6.383854E-2	7.981724E-2	7.622108E-2	8.533668E-2	7.740256E-2	7.037658E-2	8.039107E-2	7.073437E-2	5.866587E-2	6.473292E-2	7.256458E-2	6.784720E-2	7.819891E-2	8.741799E-2	5.736708E-2	8.726521E-2	6.750422E-2	8.408650E-2	6.756234E-2	7.070075E-2	6.833867E-2	7.404049E-2	6.791231E-2	7.501479E-2	8.004939E-2	7.306453E-2	7.566123E-2	7.205124E-2	7.419559E-2	6.020057E-2	7.122710E-2	8.720643E-2	8.615728E-2	6.430609E-2	8.076263E-2	7.448786E-2	6.940524E-2	7.991353E-2	6.785803E-2	7.416349E-2	7.840254E-2	7.470614E-2	7.154105E-2	9.480027E-2	8.669237E-2	9.198427E-2	7.500217E-2	7.619430E-2	7.283173E-2	7.767026E-2	7.745802E-2	6.814583E-2	8.629531E-2	6.414510E-2	8.676328E-2	7.807803E-2	6.778750E-2	8.164463E-2	7.771493E-2	7.229633E-2	7.862545E-2
5.340800E+2	9.937606E-2	9.295553E-2	1.061281E-1	1.155221E-1	1.135428E-1	9.783863E-2	9.579736E-2	1.062102E-1	9.919416E-2	1.032292E-1	1.085680E-1	1.008494E-1	1.037476E-1	1.073223E-1	1.030027E-1	1.024158E-1	1.014779E-1	9.121585E-2	1.086309E-1	1.042974E-1	1.072344E-1	1.031327E-1	9.587121E-2	9.106753E-2	1.111999E-1	1.075236E-1	1.119291E-1	1.047154E-1	9.397107E-2	1.104018E-1	1.066247E-1	1.009796E-1	1.161853E-1	1.079930E-1	1.028361E-1	1.140889E-1	1.096539E-1	9.699317E-2	1.128733E-1	9.629350E-2	8.633505E-2	1.066627E-1	1.023154E-1	1.173394E-1	1.174049E-1	1.069990E-1	8.976219E-2	1.035159E-1	1.022299E-1	9.447466E-2	9.944307E-2	1.024994E-1	1.066759E-1	1.057972E-1	1.071224E-1	1.081297E-1	8.218624E-2	9.126846E-2	1.163283E-1	1.058954E-1	1.091624E-1	1.064106E-1	1.089122E-1	1.119982E-1	1.138298E-1	9.611029E-2	1.055631E-1	1.128412E-1	1.133664E-1	1.083419E-1	1.104595E-1	8.655725E-2	1.192695E-1	1.151257E-1	1.029562E-1	9.934453E-2	9.971724E-2	1.154537E-1	1.084841E-1	9.642490E-2	9.364513E-2	1.192772E-1	1.168176E-1	1.082000E-1	1.044048E-1	1.070572E-1	1.172262E-1	9.529110E-2	9.698205E-2	1.037615E-1	1.108768E-1	1.028338E-1	1.053992E-1	9.884753E-2	1.019670E-1	9.930064E-2	1.205669E-1	9.817865E-2	9.372795E-2	9.743085E-2	1.109175E-1	1.194268E-1	1.277146E-1	1.055667E-1	1.020042E-1	1.161980E-1	9.885415E-2	9.728227E-2	1.062490E-1	9.395662E-2	1.015759E-1	1.196281E-1	1.115413E-1	1.005602E-1	1.095635E-1	1.342992E-1	1.055849E-1	1.026998E-1	8.841288E-2	9.877187E-2	1.043614E-1	9.483492E-2	7.931299E-2	9.914665E-2	1.036903E-1	1.077390E-1	8.515134E-2	1.025207E-1	1.006791E-1	9.932759E-2	1.136958E-1	1.217645E-1	1.117118E-1	1.134882E-1	1.005987E-1	1.045676E-1	1.032166E-1	1.075327E-1	1.242457E-1	9.820663E-2	1.108575E-1	9.449551E-2	1.078941E-1	1.143031E-1	9.858976E-2	1.186573E-1	1.076874E-1	1.306944E-1	1.268511E-1	9.342014E-2	1.093866E-1	1.008585E-1	1.146007E-1	1.105272E-1	1.010252E-1	1.146268E-1	9.750217E-2	1.034402E-1	1.023943E-1	1.123272E-1	9.425837E-2	1.197129E-1	9.835917E-2	1.014904E-1	1.035454E-1	1.038467E-1	1.019295E-1	9.842420E-2	1.018422E-1	1.038908E-1
5.342040E+2	1.282502E-1	1.545587E-1	1.507850E-1	1.095204E-1	1.478957E-1	1.264668E-1	1.550744E-1	1.661182E-1	1.666031E-1	1.516618E-1	1.456201E-1	1.566707E-1	1.416519E-1	1.690352E-1	1.498381E-1	1.487210E-1	1.366939E-1	1.492880E-1	1.517816E-1	1.459186E-1	1.469000E-1	1.575490E-1	1.454155E-1	1.592602E-1	1.650240E-1	1.694271E-1	1.687046E-1	1.730012E-1	1.545570E-1	1.689368E-1	1.366352E-1	1.562354E-1	1.646885E-1	1.445155E-1	1.377143E-1	1.473267E-1	1.422934E-1	1.665053E-1	1.607829E-1	1.617797E-1	1.482157E-1	1.623986E-1	1.696634E-1	1.630129E-1	1.530936E-1	1.572548E-1	1.475935E-1	1.605662E-1	1.596938E-1	1.602473E-1	1.530776E-1	1.454862E-1	1.665603E-1	1.531967E-1	1.458829E-1	1.671648E-1	1.541686E-1	1.545896E-1	1.401389E-1	1.490943E-1	1.501009E-1	1.582490E-1	1.572383E-1	1.560167E-1	1.368728E-1	1.551058E-1	1.547721E-1	1.676407E-1	1.595407E-1	1.554249E-1	1.393345E-1	1.652664E-1	1.648480E-1	1.572044E-1	1.448709E-1	1.700188E-1	1.639483E-1	1.531099E-1	1.718946E-1	1.508560E-1	1.519838E-1	1.442135E-1	1.745794E-1	1.747426E-1	1.513937E-1	1.510237E-1	1.702918E-1	1.740215E-1	1.645614E-1	1.471142E-1	1.685298E-1	1.428570E-1	1.619604E-1	1.760444E-1	1.665773E-1	1.531153E-1	1.491747E-1	1.656257E-1	1.460542E-1	1.503447E-1	1.648851E-1	1.790200E-1	1.830500E-1	1.629850E-1	1.465086E-1	1.514212E-1	1.543053E-1	1.598395E-1	1.624566E-1	1.568084E-1	1.580683E-1	1.546732E-1	1.648142E-1	1.726585E-1	1.611902E-1	1.582090E-1	1.525141E-1	1.729245E-1	1.501691E-1	1.536982E-1	1.382750E-1	1.480805E-1	1.496258E-1	1.610111E-1	1.813024E-1	1.557449E-1	1.553399E-1	1.599459E-1	1.536006E-1	1.693739E-1	1.526137E-1	1.650792E-1	1.639623E-1	1.564208E-1	1.519883E-1	1.496133E-1	1.493188E-1	1.518631E-1	1.903627E-1	1.548295E-1	1.560454E-1	1.430543E-1	1.569218E-1	1.597958E-1	1.822071E-1	1.618699E-1	1.624662E-1	1.715216E-1	1.441132E-1	1.695164E-1	1.543776E-1	1.702970E-1	1.485302E-1	1.571388E-1	1.538275E-1	1.713772E-1	1.591395E-1	1.591776E-1	1.532303E-1	1.734606E-1	1.530147E-1	1.575995E-1	1.683886E-1	1.410066E-1	1.760824E-1	1.579532E-1	1.818124E-1	1.635603E-1	1.476800E-1	1.626202E-1
5.343550E+2	2.667234E-1	2.463552E-1	2.562192E-1	1.902856E-1	2.486883E-1	2.393698E-1	2.375201E-1	2.404686E-1	2.466735E-1	2.425206E-1	2.578228E-1	2.624750E-1	2.809733E-1	2.492531E-1	2.509740E-1	2.653048E-1	2.573123E-1	2.419148E-1	2.409372E-1	2.742132E-1	2.604313E-1	2.379643E-1	2.515378E-1	2.679075E-1	2.904105E-1	2.881216E-1	2.805094E-1	2.746672E-1	2.667118E-1	2.748648E-1	2.857191E-1	2.520520E-1	2.560266E-1	2.489821E-1	2.682622E-1	2.729579E-1	2.758806E-1	2.471568E-1	2.743074E-1	2.744904E-1	2.645541E-1	2.930624E-1	2.641621E-1	2.624871E-1	2.577536E-1	2.687922E-1	2.693585E-1	2.719286E-1	2.696388E-1	2.704269E-1	2.699207E-1	2.675043E-1	2.640102E-1	2.700564E-1	2.704525E-1	2.593765E-1	2.639434E-1	3.012277E-1	2.852571E-1	2.889267E-1	2.418231E-1	2.580892E-1	2.689869E-1	2.547420E-1	2.592012E-1	2.490268E-1	2.556544E-1	2.534758E-1	2.642404E-1	2.480893E-1	2.716227E-1	2.825137E-1	2.700476E-1	2.667164E-1	2.444270E-1	2.780523E-1	2.700963E-1	2.685696E-1	2.645994E-1	2.678512E-1	2.637484E-1	2.777260E-1	2.427337E-1	2.532405E-1	2.638094E-1	2.627954E-1	2.592451E-1	2.688918E-1	2.495832E-1	2.534371E-1	2.551070E-1	2.577291E-1	2.692027E-1	2.540767E-1	2.710940E-1	2.421090E-1	2.486651E-1	2.591797E-1	2.787725E-1	2.667643E-1	2.952409E-1	2.652036E-1	2.659946E-1	2.783523E-1	2.477634E-1	2.591801E-1	2.691398E-1	2.479825E-1	2.568978E-1	2.548870E-1	2.748498E-1	2.795998E-1	2.479114E-1	2.622305E-1	2.581983E-1	2.429053E-1	2.545987E-1	2.550894E-1	2.712363E-1	2.960356E-1	2.619260E-1	2.863533E-1	2.577615E-1	2.655083E-1	2.636507E-1	2.459340E-1	2.739134E-1	2.610724E-1	2.448483E-1	2.243979E-1	2.744582E-1	2.532651E-1	2.477889E-1	2.547179E-1	2.739184E-1	2.771850E-1	2.738446E-1	2.493904E-1	2.572139E-1	2.690740E-1	2.627648E-1	2.767116E-1	2.333670E-1	2.913068E-1	2.675590E-1	2.523693E-1	2.640177E-1	2.580998E-1	2.553484E-1	2.825573E-1	2.504525E-1	2.585944E-1	2.743653E-1	2.814465E-1	2.680974E-1	2.642874E-1	2.644197E-1	2.801940E-1	2.548214E-1	2.577920E-1	2.818781E-1	2.497981E-1	2.752371E-1	2.714895E-1	2.831399E-1	2.730795E-1	2.909422E-1	2.588561E-1	2.733340E-1	2.910874E-1
5.345160E+2	4.790660E-1	4.568243E-1	4.504984E-1	4.560247E-1	4.562869E-1	4.551325E-1	4.607720E-1	4.705765E-1	4.675853E-1	4.721788E-1	4.690833E-1	4.596916E-1	4.549709E-1	4.875239E-1	4.737504E-1	4.670549E-1	4.575434E-1	4.930593E-1	4.663074E-1	4.830072E-1	4.543171E-1	4.862222E-1	4.269025E-1	4.666421E-1	5.450045E-1	4.911224E-1	5.123245E-1	5.060842E-1	4.928216E-1	5.219841E-1	4.929599E-1	4.882870E-1	4.614639E-1	4.770610E-1	4.935488E-1	5.121932E-1	4.727942E-1	4.678737E-1	5.193723E-1	4.897978E-1	4.862998E-1	4.565021E-1	4.663563E-1	4.917065E-1	5.066175E-1	4.737057E-1	4.758706E-1	4.592850E-1	4.883296E-1	4.729943E-1	4.861632E-1	4.745262E-1	4.858130E-1	4.656503E-1	4.737489E-1	4.687877E-1	4.764908E-1	4.890453E-1	4.718308E-1	4.967674E-1	4.510046E-1	4.657406E-1	5.143698E-1	4.509503E-1	4.974148E-1	4.712258E-1	4.599087E-1	4.472075E-1	4.943556E-1	4.684508E-1	4.816219E-1	4.864317E-1	4.563057E-1	4.979142E-1	4.731981E-1	4.857399E-1	4.944944E-1	4.683931E-1	4.950322E-1	4.904353E-1	4.918217E-1	5.125544E-1	4.882655E-1	4.676008E-1	4.696327E-1	4.855488E-1	4.690825E-1	4.947480E-1	4.565348E-1	4.887713E-1	4.892465E-1	5.032944E-1	5.035050E-1	4.853566E-1	4.696004E-1	4.583029E-1	4.600724E-1	4.808291E-1	4.638259E-1	4.463925E-1	4.652245E-1	4.835137E-1	4.931096E-1	4.659467E-1	5.085418E-1	4.729650E-1	4.635446E-1	4.849045E-1	4.599703E-1	4.925375E-1	4.807318E-1	4.764485E-1	5.044464E-1	4.942484E-1	4.685045E-1	4.973858E-1	4.904864E-1	5.062781E-1	4.776508E-1	4.892958E-1	4.734209E-1	4.943862E-1	4.517101E-1	4.853287E-1	4.742596E-1	4.848327E-1	4.761346E-1	4.827514E-1	4.449021E-1	4.514475E-1	5.055653E-1	4.673911E-1	4.759698E-1	4.769506E-1	4.615017E-1	5.049173E-1	4.842767E-1	4.733208E-1	5.041257E-1	5.019684E-1	4.793061E-1	4.689412E-1	4.839612E-1	4.779339E-1	4.812663E-1	4.591074E-1	5.036828E-1	4.536578E-1	5.039671E-1	4.837821E-1	4.785248E-1	4.957620E-1	5.461789E-1	4.488303E-1	4.892474E-1	4.805711E-1	4.851227E-1	4.906347E-1	5.105393E-1	4.769544E-1	4.852909E-1	4.756437E-1	4.654546E-1	4.810265E-1	4.805993E-1	4.834604E-1	4.414968E-1	4.755514E-1	4.893570E-1	5.010068E-1
5.346560E+2	7.931978E-1	7.443810E-1	7.910630E-1	6.188315E-1	7.709856E-1	7.774800E-1	7.319172E-1	7.534921E-1	7.376681E-1	7.559602E-1	7.501800E-1	7.600586E-1	7.648926E-1	7.347184E-1	7.704512E-1	7.870336E-1	7.665218E-1	7.947789E-1	7.557984E-1	7.483694E-1	7.654158E-1	7.414645E-1	7.593741E-1	7.318448E-1	8.279667E-1	7.996236E-1	7.810220E-1	8.002821E-1	8.089113E-1	7.681645E-1	7.871994E-1	7.595836E-1	7.765012E-1	7.712139E-1	7.227262E-1	7.034469E-1	7.880404E-1	7.531094E-1	7.761534E-1	7.474451E-1	7.702727E-1	7.640362E-1	7.752081E-1	7.347931E-1	7.637003E-1	7.706080E-1	7.584324E-1	7.721540E-1	7.343356E-1	7.497139E-1	7.784403E-1	7.806121E-1	7.732203E-1	7.779903E-1	7.438780E-1	7.631408E-1	8.033686E-1	7.464498E-1	7.211799E-1	7.494289E-1	7.751375E-1	7.775922E-1	7.876758E-1	7.656484E-1	7.584442E-1	7.612225E-1	7.529132E-1	7.272900E-1	7.664385E-1	7.674349E-1	7.428722E-1	7.621292E-1	8.215245E-1	7.294440E-1	7.498688E-1	7.672351E-1	7.584078E-1	7.287311E-1	7.631623E-1	8.079494E-1	7.354795E-1	7.433517E-1	7.340811E-1	7.273768E-1	7.437343E-1	7.548328E-1	7.656699E-1	7.476242E-1	7.810767E-1	7.940408E-1	7.772388E-1	7.607588E-1	7.780462E-1	7.587547E-1	7.745045E-1	7.265655E-1	7.883073E-1	7.756599E-1	7.581045E-1	7.447931E-1	7.890318E-1	7.639853E-1	7.786676E-1	7.387623E-1	7.852329E-1	7.476402E-1	7.730964E-1	7.450399E-1	7.689191E-1	7.719860E-1	7.411701E-1	7.664575E-1	7.952050E-1	7.126911E-1	7.256347E-1	7.653035E-1	8.020725E-1	7.755817E-1	7.784374E-1	7.986179E-1	7.734668E-1	7.471617E-1	7.154738E-1	7.623499E-1	7.368481E-1	7.327230E-1	7.706072E-1	7.356360E-1	7.351141E-1	7.551470E-1	7.571823E-1	7.864398E-1	7.933728E-1	7.339194E-1	7.458303E-1	7.880082E-1	7.756018E-1	7.649130E-1	7.600905E-1	7.270097E-1	7.593377E-1	7.358570E-1	7.528465E-1	8.183879E-1	8.220194E-1	7.566366E-1	7.839720E-1	7.759136E-1	7.797706E-1	7.753406E-1	7.623531E-1	7.805613E-1	8.045813E-1	7.595261E-1	7.504918E-1	7.366206E-1	7.395845E-1	7.701077E-1	7.486337E-1	7.785677E-1	8.046106E-1	7.606438E-1	7.340477E-1	7.286400E-1	7.900176E-1	7.929747E-1	7.564206E-1	7.329477E-1	7.410174E-1	7.941778E-1
5.348180E+2	1.175119E+0	1.165206E+0	1.163490E+0	1.064926E+0	1.144326E+0	1.156199E+0	1.157573E+0	1.135423E+0	1.219204E+0	1.138347E+0	1.174786E+0	1.143197E+0	1.126492E+0	1.163708E+0	1.180959E+0	1.140781E+0	1.101509E+0	1.161733E+0	1.118417E+0	1.128780E+0	1.144074E+0	1.160430E+0	1.168410E+0	1.085365E+0	1.192583E+0	1.169439E+0	1.214582E+0	1.172654E+0	1.150070E+0	1.159522E+0	1.191847E+0	1.190378E+0	1.156463E+0	1.111903E+0	1.105599E+0	1.143794E+0	1.170806E+0	1.166749E+0	1.203897E+0	1.132734E+0	1.183108E+0	1.162199E+0	1.116157E+0	1.161388E+0	1.137125E+0	1.170634E+0	1.142426E+0	1.149153E+0	1.153029E+0	1.131400E+0	1.176486E+0	1.193024E+0	1.168244E+0	1.141667E+0	1.153919E+0	1.195108E+0	1.177170E+0	1.134562E+0	1.128578E+0	1.178659E+0	1.191477E+0	1.136341E+0	1.190590E+0	1.105029E+0	1.137616E+0	1.174787E+0	1.158616E+0	1.113508E+0	1.122507E+0	1.154935E+0	1.173376E+0	1.090235E+0	1.172122E+0	1.150338E+0	1.160628E+0	1.187055E+0	1.156604E+0	1.104073E+0	1.171362E+0	1.148758E+0	1.132954E+0	1.192097E+0	1.108401E+0	1.095463E+0	1.153056E+0	1.162956E+0	1.166040E+0	1.175892E+0	1.140481E+0	1.212401E+0	1.172241E+0	1.122591E+0	1.189577E+0	1.175691E+0	1.152822E+0	1.138267E+0	1.100077E+0	1.149259E+0	1.147317E+0	1.149314E+0	1.178783E+0	1.111763E+0	1.091778E+0	1.199966E+0	1.181968E+0	1.153069E+0	1.106742E+0	1.095386E+0	1.111959E+0	1.148963E+0	1.165667E+0	1.160309E+0	1.203770E+0	1.193390E+0	1.143078E+0	1.154102E+0	1.141373E+0	1.147135E+0	1.140531E+0	1.148305E+0	1.090649E+0	1.147752E+0	1.175288E+0	1.173432E+0	1.169613E+0	1.170876E+0	1.154619E+0	1.102312E+0	1.134220E+0	1.065488E+0	1.173581E+0	1.161299E+0	1.111665E+0	1.153377E+0	1.188203E+0	1.148122E+0	1.186530E+0	1.153286E+0	1.151955E+0	1.134661E+0	1.148808E+0	1.088450E+0	1.106023E+0	1.149902E+0	1.233232E+0	1.136503E+0	1.163908E+0	1.148307E+0	1.134598E+0	1.148372E+0	1.168605E+0	1.102531E+0	1.169122E+0	1.138779E+0	1.146720E+0	1.157929E+0	1.157079E+0	1.154449E+0	1.163736E+0	1.131612E+0	1.131331E+0	1.148806E+0	1.171813E+0	1.113516E+0	1.150340E+0	1.158533E+0	1.182491E+0	1.153991E+0	1.153894E+0	1.152223E+0
5.349530E+2	1.587861E+0	1.498977E+0	1.577018E+0	1.341408E+0	1.579098E+0	1.494139E+0	1.590270E+0	1.525869E+0	1.480118E+0	1.555797E+0	1.526697E+0	1.529986E+0	1.539937E+0	1.535204E+0	1.481782E+0	1.539874E+0	1.489011E+0	1.582494E+0	1.555770E+0	1.581332E+0	1.516062E+0	1.606975E+0	1.523912E+0	1.512199E+0	1.555831E+0	1.531150E+0	1.571955E+0	1.601317E+0	1.546795E+0	1.525793E+0	1.573854E+0	1.549063E+0	1.544066E+0	1.478692E+0	1.503019E+0	1.592985E+0	1.512176E+0	1.497837E+0	1.490647E+0	1.528145E+0	1.523458E+0	1.540502E+0	1.487080E+0	1.529704E+0	1.478213E+0	1.510249E+0	1.540417E+0	1.508782E+0	1.546452E+0	1.575149E+0	1.544288E+0	1.537318E+0	1.527144E+0	1.493409E+0	1.506224E+0	1.532494E+0	1.519603E+0	1.524854E+0	1.548097E+0	1.529169E+0	1.508041E+0	1.476921E+0	1.580619E+0	1.502365E+0	1.543180E+0	1.489755E+0	1.528660E+0	1.511572E+0	1.554339E+0	1.559083E+0	1.555403E+0	1.537906E+0	1.502366E+0	1.549986E+0	1.527986E+0	1.543926E+0	1.555772E+0	1.539439E+0	1.515135E+0	1.515470E+0	1.568945E+0	1.520949E+0	1.439684E+0	1.466585E+0	1.498204E+0	1.524517E+0	1.564889E+0	1.537492E+0	1.488695E+0	1.536015E+0	1.569729E+0	1.528992E+0	1.498948E+0	1.536269E+0	1.482362E+0	1.520355E+0	1.544983E+0	1.467193E+0	1.494391E+0	1.541269E+0	1.549057E+0	1.460601E+0	1.524441E+0	1.503331E+0	1.537712E+0	1.488133E+0	1.539894E+0	1.465844E+0	1.503151E+0	1.490242E+0	1.535247E+0	1.501146E+0	1.556577E+0	1.455024E+0	1.558377E+0	1.494728E+0	1.503131E+0	1.518821E+0	1.515543E+0	1.520064E+0	1.521577E+0	1.485302E+0	1.470195E+0	1.550340E+0	1.533336E+0	1.537490E+0	1.531481E+0	1.557206E+0	1.491878E+0	1.463861E+0	1.569258E+0	1.457124E+0	1.548094E+0	1.544500E+0	1.545854E+0	1.504646E+0	1.558969E+0	1.430108E+0	1.533320E+0	1.468717E+0	1.561004E+0	1.450098E+0	1.495750E+0	1.515447E+0	1.582369E+0	1.507756E+0	1.504513E+0	1.471421E+0	1.535085E+0	1.485300E+0	1.542817E+0	1.512989E+0	1.496729E+0	1.494998E+0	1.555742E+0	1.514326E+0	1.438648E+0	1.515165E+0	1.499402E+0	1.519109E+0	1.534080E+0	1.471422E+0	1.502938E+0	1.450350E+0	1.481993E+0	1.503580E+0	1.458097E+0	1.494917E+0	1.469685E+0	1.558606E+0
5.351250E+2	1.975335E+0	1.929648E+0	1.894290E+0	1.725053E+0	1.873708E+0	1.898391E+0	1.877767E+0	1.929970E+0	1.911232E+0	1.940351E+0	1.872563E+0	1.911664E+0	1.920389E+0	1.903644E+0	1.896941E+0	1.855093E+0	1.867706E+0	1.901898E+0	1.950720E+0	1.918680E+0	1.884241E+0	1.901262E+0	1.904622E+0	1.911901E+0	1.933567E+0	1.936040E+0	1.944953E+0	1.985122E+0	1.906520E+0	1.961688E+0	1.822287E+0	1.943592E+0	1.867358E+0	1.927521E+0	1.854935E+0	1.924166E+0	1.899509E+0	1.902415E+0	1.837677E+0	1.894412E+0	1.945984E+0	1.846968E+0	1.902780E+0	1.817211E+0	1.910135E+0	1.889993E+0	1.887176E+0	1.862830E+0	1.946152E+0	1.845158E+0	1.798585E+0	1.990401E+0	1.938294E+0	1.889281E+0	1.899702E+0	1.853110E+0	1.935936E+0	1.901206E+0	1.818066E+0	1.919618E+0	1.869397E+0	1.869147E+0	1.907466E+0	1.811680E+0	1.883952E+0	1.922831E+0	1.850201E+0	1.918445E+0	1.866555E+0	1.915318E+0	1.871317E+0	1.887578E+0	1.881471E+0	1.861142E+0	1.825439E+0	1.875726E+0	1.863615E+0	1.852350E+0	1.881975E+0	1.926141E+0	1.905987E+0	1.860459E+0	1.871340E+0	1.865371E+0	1.818288E+0	1.847083E+0	1.924823E+0	1.877842E+0	1.906615E+0	1.934638E+0	1.922914E+0	1.828829E+0	1.884525E+0	1.904388E+0	1.853117E+0	1.857590E+0	1.837630E+0	1.924036E+0	1.848720E+0	1.785865E+0	1.875744E+0	1.824182E+0	1.836304E+0	1.858845E+0	1.900641E+0	1.875449E+0	1.853117E+0	1.839845E+0	1.857290E+0	1.892399E+0	1.865625E+0	1.824792E+0	1.880095E+0	1.851257E+0	1.900306E+0	1.817204E+0	1.886549E+0	1.827644E+0	1.874033E+0	1.881773E+0	1.807488E+0	1.878651E+0	1.860489E+0	1.841569E+0	1.865690E+0	1.870321E+0	1.882133E+0	1.882491E+0	1.861638E+0	1.851947E+0	1.936592E+0	1.810815E+0	1.860835E+0	1.849345E+0	1.869898E+0	1.893902E+0	1.884258E+0	1.841168E+0	1.850968E+0	1.826355E+0	1.895703E+0	1.815237E+0	1.936179E+0	1.846304E+0	1.904332E+0	1.864084E+0	1.888057E+0	1.919715E+0	1.861745E+0	1.810877E+0	1.834218E+0	1.814183E+0	1.850137E+0	1.876647E+0	1.844190E+0	1.832839E+0	1.820134E+0	1.759492E+0	1.879937E+0	1.820137E+0	1.853221E+0	1.855621E+0	1.880629E+0	1.815781E+0	1.881975E+0	1.862369E+0	1.848341E+0	1.822901E+0	1.782751E+0	1.808166E+0
5.352600E+2	2.127034E+0	2.135089E+0	2.143403E+0	2.016076E+0	2.073649E+0	2.003736E+0	2.057129E+0	2.094721E+0	2.090351E+0	2.057543E+0	2.022316E+0	2.128775E+0	2.078455E+0	2.076926E+0	2.015781E+0	2.088648E+0	2.086771E+0	2.067308E+0	2.025746E+0	2.065056E+0	2.063583E+0	2.048413E+0	2.005136E+0	2.095712E+0	2.020473E+0	2.106797E+0	2.013370E+0	2.104478E+0	2.048043E+0	2.072106E+0	2.100319E+0	2.091756E+0	2.055584E+0	2.052826E+0	2.026630E+0	2.125337E+0	2.071224E+0	2.045263E+0	2.064508E+0	2.076221E+0	2.087393E+0	2.008437E+0	2.089893E+0	2.050840E+0	2.070786E+0	2.065269E+0	2.017487E+0	2.087407E+0	2.013989E+0	2.012984E+0	2.049671E+0	2.053788E+0	2.099582E+0	2.084857E+0	2.091125E+0	2.039766E+0	2.064861E+0	2.059036E+0	1.958161E+0	2.131365E+0	2.037419E+0	1.968838E+0	2.056856E+0	1.992903E+0	2.065591E+0	2.023417E+0	2.011703E+0	1.980653E+0	1.995200E+0	2.071868E+0	2.031302E+0	2.058361E+0	2.090680E+0	2.057816E+0	2.033392E+0	2.082057E+0	2.086887E+0	2.014670E+0	2.048275E+0	2.027025E+0	2.036760E+0	2.046430E+0	2.022599E+0	2.011366E+0	2.034520E+0	2.045563E+0	1.998572E+0	2.006758E+0	2.079599E+0	2.053590E+0	2.039607E+0	2.022186E+0	2.012225E+0	2.007252E+0	1.975753E+0	2.020823E+0	2.013042E+0	2.052330E+0	2.053608E+0	2.053760E+0	2.021428E+0	2.031757E+0	2.066069E+0	2.025710E+0	2.035492E+0	1.999032E+0	1.981975E+0	2.011968E+0	2.044561E+0	2.007770E+0	2.055419E+0	2.011473E+0	2.016927E+0	1.995632E+0	2.011392E+0	2.018480E+0	2.034354E+0	2.009813E+0	1.981541E+0	2.061985E+0	2.012021E+0	2.050098E+0	1.976027E+0	2.041614E+0	1.982134E+0	1.987486E+0	1.969532E+0	2.054209E+0	2.011200E+0	1.972750E+0	2.114217E+0	1.962015E+0	1.977568E+0	2.030007E+0	2.002142E+0	1.962113E+0	2.084340E+0	1.942452E+0	2.035925E+0	2.048071E+0	2.064496E+0	1.934993E+0	2.046747E+0	2.000578E+0	2.044305E+0	2.015780E+0	2.045651E+0	1.995374E+0	1.911159E+0	1.971197E+0	1.972277E+0	2.010873E+0	2.008783E+0	2.028282E+0	2.052200E+0	2.014952E+0	2.033107E+0	1.943334E+0	2.017520E+0	2.046190E+0	2.034225E+0	1.954100E+0	2.026158E+0	1.977960E+0	2.008983E+0	1.997593E+0	1.991688E+0	1.992507E+0	1.902886E+0	1.964880E+0
5.354060E+2	2.086764E+0	2.140550E+0	2.080411E+0	2.038746E+0	2.047373E+0	2.033138E+0	2.104744E+0	2.051845E+0	2.071401E+0	2.088753E+0	2.054890E+0	2.088156E+0	2.110424E+0	2.073756E+0	2.073722E+0	2.079270E+0	2.078905E+0	2.064219E+0	2.085030E+0	2.107949E+0	1.983491E+0	2.026918E+0	2.167148E+0	2.020418E+0	2.035370E+0	2.040116E+0	2.082528E+0	2.059625E+0	2.056343E+0	2.070200E+0	2.050227E+0	2.093388E+0	2.045604E+0	2.000241E+0	2.006088E+0	2.053788E+0	2.044454E+0	2.018521E+0	2.032299E+0	2.040456E+0	2.121376E+0	2.065185E+0	2.037408E+0	2.075843E+0	2.040508E+0	2.083830E+0	2.011543E+0	2.112682E+0	2.038015E+0	2.046716E+0	1.956339E+0	2.081207E+0	2.070812E+0	2.006656E+0	2.041847E+0	2.055875E+0	2.043111E+0	1.969127E+0	2.000011E+0	1.996158E+0	2.014054E+0	2.055952E+0	2.040205E+0	2.045043E+0	2.006609E+0	2.002526E+0	2.044137E+0	2.046086E+0	2.012121E+0	2.004629E+0	2.068330E+0	2.080420E+0	2.048147E+0	2.062178E+0	2.022799E+0	2.061222E+0	1.955164E+0	2.019947E+0	2.014773E+0	2.041678E+0	1.986505E+0	2.034514E+0	2.021831E+0	1.953489E+0	1.956754E+0	1.996744E+0	2.033243E+0	2.027290E+0	2.055831E+0	2.005406E+0	2.010794E+0	2.050254E+0	1.987839E+0	2.013376E+0	2.020100E+0	2.022751E+0	2.010057E+0	1.995880E+0	2.016232E+0	1.975105E+0	2.011030E+0	1.987108E+0	2.024170E+0	2.056069E+0	2.051465E+0	2.004646E+0	2.008027E+0	1.994534E+0	1.969098E+0	2.025652E+0	2.033198E+0	1.984878E+0	1.984382E+0	1.986561E+0	1.909318E+0	2.070996E+0	2.007130E+0	2.026300E+0	1.977407E+0	2.055768E+0	1.988936E+0	2.031541E+0	1.962598E+0	1.943661E+0	2.013272E+0	1.960496E+0	2.042758E+0	2.022729E+0	2.043862E+0	2.012324E+0	2.036310E+0	1.948679E+0	1.954915E+0	2.015432E+0	2.053587E+0	1.996310E+0	2.041228E+0	1.947100E+0	2.066255E+0	2.017441E+0	1.999479E+0	1.958111E+0	2.008557E+0	1.998113E+0	1.999238E+0	1.980014E+0	2.064840E+0	1.989403E+0	2.014859E+0	2.000436E+0	1.954899E+0	1.974772E+0	2.017162E+0	1.980466E+0	1.948448E+0	1.971088E+0	1.970324E+0	1.963989E+0	1.929627E+0	2.024550E+0	1.997896E+0	1.955737E+0	1.997932E+0	1.971048E+0	2.009691E+0	1.938930E+0	1.998865E+0	1.930403E+0	1.955166E+0	1.946794E+0
5.355680E+2	1.860902E+0	1.835406E+0	1.884229E+0	1.837280E+0	1.853932E+0	1.848490E+0	1.838405E+0	1.790402E+0	1.797262E+0	1.908727E+0	1.851430E+0	1.910346E+0	1.843818E+0	1.837865E+0	1.811655E+0	1.890628E+0	1.883468E+0	1.880316E+0	1.866833E+0	1.865053E+0	1.810785E+0	1.834801E+0	1.884539E+0	1.791088E+0	1.840709E+0	1.841771E+0	1.807415E+0	1.818314E+0	1.849557E+0	1.813334E+0	1.848883E+0	1.859740E+0	1.818576E+0	1.846693E+0	1.815560E+0	1.879153E+0	1.826385E+0	1.829928E+0	1.850786E+0	1.847314E+0	1.896689E+0	1.853701E+0	1.854612E+0	1.908328E+0	1.839511E+0	1.805653E+0	1.819575E+0	1.840203E+0	1.821189E+0	1.775488E+0	1.838343E+0	1.906719E+0	1.814387E+0	1.826348E+0	1.848035E+0	1.875934E+0	1.812496E+0	1.808527E+0	1.791989E+0	1.844679E+0	1.817507E+0	1.803222E+0	1.831453E+0	1.814079E+0	1.897657E+0	1.850655E+0	1.831558E+0	1.904000E+0	1.774035E+0	1.811967E+0	1.825415E+0	1.835064E+0	1.843159E+0	1.835625E+0	1.833588E+0	1.884949E+0	1.803126E+0	1.834659E+0	1.823976E+0	1.815331E+0	1.809468E+0	1.830946E+0	1.779378E+0	1.825835E+0	1.774554E+0	1.797527E+0	1.801353E+0	1.820225E+0	1.833170E+0	1.847426E+0	1.830189E+0	1.776253E+0	1.824310E+0	1.836904E+0	1.756206E+0	1.804298E+0	1.847769E+0	1.844031E+0	1.760446E+0	1.832242E+0	1.864394E+0	1.817548E+0	1.840057E+0	1.851735E+0	1.863243E+0	1.830346E+0	1.835748E+0	1.785355E+0	1.818955E+0	1.839621E+0	1.822377E+0	1.834383E+0	1.870365E+0	1.765724E+0	1.801179E+0	1.889279E+0	1.844157E+0	1.845015E+0	1.863753E+0	1.836791E+0	1.824955E+0	1.848686E+0	1.796303E+0	1.832569E+0	1.797545E+0	1.796092E+0	1.791636E+0	1.776780E+0	1.826732E+0	1.791512E+0	1.861802E+0	1.812732E+0	1.761208E+0	1.775496E+0	1.742072E+0	1.798764E+0	1.827917E+0	1.797160E+0	1.813655E+0	1.807354E+0	1.843569E+0	1.830945E+0	1.722545E+0	1.840789E+0	1.863320E+0	1.840420E+0	1.895676E+0	1.845580E+0	1.832466E+0	1.789753E+0	1.790131E+0	1.789948E+0	1.776354E+0	1.789518E+0	1.798736E+0	1.794432E+0	1.802258E+0	1.800616E+0	1.693446E+0	1.852680E+0	1.854603E+0	1.696690E+0	1.791104E+0	1.793125E+0	1.846796E+0	1.771466E+0	1.765544E+0	1.759550E+0	1.793427E+0	1.743109E+0
5.357040E+2	1.700801E+0	1.693390E+0	1.651011E+0	1.461592E+0	1.657107E+0	1.669703E+0	1.666639E+0	1.585306E+0	1.662574E+0	1.603626E+0	1.634330E+0	1.685526E+0	1.661993E+0	1.651760E+0	1.599155E+0	1.697522E+0	1.664333E+0	1.667288E+0	1.653907E+0	1.631531E+0	1.631034E+0	1.706229E+0	1.661761E+0	1.598744E+0	1.650342E+0	1.643268E+0	1.617934E+0	1.633817E+0	1.621760E+0	1.618238E+0	1.642131E+0	1.646861E+0	1.663352E+0	1.607930E+0	1.618825E+0	1.691076E+0	1.636560E+0	1.606152E+0	1.626408E+0	1.638327E+0	1.656723E+0	1.608568E+0	1.658174E+0	1.662951E+0	1.616884E+0	1.592392E+0	1.639450E+0	1.651602E+0	1.644880E+0	1.660424E+0	1.584980E+0	1.646173E+0	1.628740E+0	1.575874E+0	1.644905E+0	1.615156E+0	1.755525E+0	1.637185E+0	1.602916E+0	1.675189E+0	1.647245E+0	1.569775E+0	1.610190E+0	1.611452E+0	1.654701E+0	1.594706E+0	1.635193E+0	1.644988E+0	1.651965E+0	1.680127E+0	1.617030E+0	1.613882E+0	1.610258E+0	1.627263E+0	1.641653E+0	1.692547E+0	1.606857E+0	1.614988E+0	1.593734E+0	1.653722E+0	1.602634E+0	1.598825E+0	1.673610E+0	1.646899E+0	1.600010E+0	1.585218E+0	1.682901E+0	1.665227E+0	1.612130E+0	1.677630E+0	1.582142E+0	1.666528E+0	1.595988E+0	1.601198E+0	1.556780E+0	1.649644E+0	1.654445E+0	1.626476E+0	1.665710E+0	1.607340E+0	1.648208E+0	1.594044E+0	1.604790E+0	1.628358E+0	1.637326E+0	1.583869E+0	1.593376E+0	1.546243E+0	1.573083E+0	1.592848E+0	1.626692E+0	1.609991E+0	1.687738E+0	1.579763E+0	1.576629E+0	1.631279E+0	1.631511E+0	1.620512E+0	1.613741E+0	1.627401E+0	1.694438E+0	1.643463E+0	1.581109E+0	1.618309E+0	1.679509E+0	1.588858E+0	1.603552E+0	1.663921E+0	1.552544E+0	1.538298E+0	1.649271E+0	1.641623E+0	1.672038E+0	1.664322E+0	1.579988E+0	1.583070E+0	1.687087E+0	1.568667E+0	1.547891E+0	1.581846E+0	1.632491E+0	1.591866E+0	1.569115E+0	1.636391E+0	1.708218E+0	1.616743E+0	1.545470E+0	1.612549E+0	1.591083E+0	1.570500E+0	1.607370E+0	1.585863E+0	1.614350E+0	1.612016E+0	1.585047E+0	1.650070E+0	1.604704E+0	1.582807E+0	1.591908E+0	1.667582E+0	1.665776E+0	1.545744E+0	1.587344E+0	1.593223E+0	1.663470E+0	1.577976E+0	1.553331E+0	1.626866E+0	1.585212E+0	1.665616E+0
5.358550E+2	1.434929E+0	1.466305E+0	1.458257E+0	1.304898E+0	1.480668E+0	1.446910E+0	1.445292E+0	1.430228E+0	1.407297E+0	1.468671E+0	1.438453E+0	1.439247E+0	1.404617E+0	1.415591E+0	1.440855E+0	1.451232E+0	1.427910E+0	1.425913E+0	1.405125E+0	1.415958E+0	1.425293E+0	1.473570E+0	1.398106E+0	1.409693E+0	1.415341E+0	1.419713E+0	1.480372E+0	1.395312E+0	1.393838E+0	1.453486E+0	1.430860E+0	1.411959E+0	1.430862E+0	1.394305E+0	1.398555E+0	1.454490E+0	1.406288E+0	1.407397E+0	1.388736E+0	1.392983E+0	1.473740E+0	1.438787E+0	1.414674E+0	1.431881E+0	1.418658E+0	1.416314E+0	1.430310E+0	1.361717E+0	1.372909E+0	1.416540E+0	1.405410E+0	1.394967E+0	1.414800E+0	1.405232E+0	1.428897E+0	1.456927E+0	1.431753E+0	1.414546E+0	1.345293E+0	1.463143E+0	1.385968E+0	1.424298E+0	1.406048E+0	1.370298E+0	1.397936E+0	1.423907E+0	1.396137E+0	1.401073E+0	1.480612E+0	1.409898E+0	1.417466E+0	1.403871E+0	1.408207E+0	1.351070E+0	1.377565E+0	1.411325E+0	1.438054E+0	1.375742E+0	1.372434E+0	1.466493E+0	1.407666E+0	1.404128E+0	1.402974E+0	1.398456E+0	1.433227E+0	1.415986E+0	1.447069E+0	1.376168E+0	1.401282E+0	1.356934E+0	1.474326E+0	1.407339E+0	1.422981E+0	1.387764E+0	1.372439E+0	1.458150E+0	1.412376E+0	1.445351E+0	1.387789E+0	1.408218E+0	1.447613E+0	1.373470E+0	1.431954E+0	1.402447E+0	1.443250E+0	1.347385E+0	1.363990E+0	1.345007E+0	1.379230E+0	1.396346E+0	1.369448E+0	1.416770E+0	1.420475E+0	1.366763E+0	1.416766E+0	1.422209E+0	1.401906E+0	1.392646E+0	1.404633E+0	1.414399E+0	1.423604E+0	1.416579E+0	1.432689E+0	1.439928E+0	1.398652E+0	1.388181E+0	1.390485E+0	1.457079E+0	1.383706E+0	1.421943E+0	1.400530E+0	1.429099E+0	1.404815E+0	1.429996E+0	1.441097E+0	1.396405E+0	1.449096E+0	1.407943E+0	1.389192E+0	1.398026E+0	1.393812E+0	1.395583E+0	1.378656E+0	1.411114E+0	1.472101E+0	1.424448E+0	1.437136E+0	1.479136E+0	1.450983E+0	1.342603E+0	1.397870E+0	1.392754E+0	1.414475E+0	1.385247E+0	1.442062E+0	1.426582E+0	1.343999E+0	1.401404E+0	1.387650E+0	1.391870E+0	1.390828E+0	1.357880E+0	1.349686E+0	1.362184E+0	1.435777E+0	1.413335E+0	1.367343E+0	1.366924E+0	1.376690E+0	1.463687E+0
5.360120E+2	1.208042E+0	1.242220E+0	1.180281E+0	1.070226E+0	1.159473E+0	1.181963E+0	1.188941E+0	1.196700E+0	1.200414E+0	1.196879E+0	1.152345E+0	1.183379E+0	1.202062E+0	1.191393E+0	1.158648E+0	1.181597E+0	1.154061E+0	1.165299E+0	1.160872E+0	1.190195E+0	1.155484E+0	1.158574E+0	1.186684E+0	1.211108E+0	1.222201E+0	1.198093E+0	1.202851E+0	1.136483E+0	1.140731E+0	1.161218E+0	1.170707E+0	1.189710E+0	1.129791E+0	1.175260E+0	1.097370E+0	1.198288E+0	1.152551E+0	1.209093E+0	1.182424E+0	1.152360E+0	1.200057E+0	1.175259E+0	1.143970E+0	1.146672E+0	1.140204E+0	1.116618E+0	1.146400E+0	1.147597E+0	1.174747E+0	1.164552E+0	1.148763E+0	1.194953E+0	1.204426E+0	1.175866E+0	1.195757E+0	1.200808E+0	1.159475E+0	1.153501E+0	1.219174E+0	1.154511E+0	1.156906E+0	1.144996E+0	1.188172E+0	1.171853E+0	1.161090E+0	1.153139E+0	1.089946E+0	1.176355E+0	1.200261E+0	1.156634E+0	1.183481E+0	1.175171E+0	1.167250E+0	1.171880E+0	1.168441E+0	1.174193E+0	1.173375E+0	1.178017E+0	1.140874E+0	1.165044E+0	1.152812E+0	1.161445E+0	1.146789E+0	1.170148E+0	1.146728E+0	1.162164E+0	1.177549E+0	1.194596E+0	1.175196E+0	1.167366E+0	1.168701E+0	1.177323E+0	1.180507E+0	1.183764E+0	1.155726E+0	1.177122E+0	1.163438E+0	1.158187E+0	1.171819E+0	1.125308E+0	1.179288E+0	1.104824E+0	1.127474E+0	1.143418E+0	1.169486E+0	1.184851E+0	1.112844E+0	1.156608E+0	1.144039E+0	1.177468E+0	1.123319E+0	1.131441E+0	1.153718E+0	1.165666E+0	1.133127E+0	1.167343E+0	1.163259E+0	1.211152E+0	1.170224E+0	1.186149E+0	1.165309E+0	1.154431E+0	1.160802E+0	1.182338E+0	1.167358E+0	1.184985E+0	1.143036E+0	1.159433E+0	1.111936E+0	1.161626E+0	1.187953E+0	1.160802E+0	1.148052E+0	1.132736E+0	1.187514E+0	1.158294E+0	1.241264E+0	1.150078E+0	1.184603E+0	1.174727E+0	1.222669E+0	1.113931E+0	1.110477E+0	1.162364E+0	1.174874E+0	1.158799E+0	1.176844E+0	1.177292E+0	1.151032E+0	1.148674E+0	1.138008E+0	1.131628E+0	1.159857E+0	1.139162E+0	1.144953E+0	1.135091E+0	1.130450E+0	1.166383E+0	1.117414E+0	1.200790E+0	1.149706E+0	1.157235E+0	1.144670E+0	1.139005E+0	1.175836E+0	1.127419E+0	1.118496E+0	1.137285E+0	1.210462E+0	1.197902E+0
5.362630E+2	9.038287E-1	9.398906E-1	8.596846E-1	9.619314E-1	8.969344E-1	8.921656E-1	8.873197E-1	8.675215E-1	9.021422E-1	9.096791E-1	8.952121E-1	9.074274E-1	9.115932E-1	9.258957E-1	8.692645E-1	9.085562E-1	8.984911E-1	8.741125E-1	8.719714E-1	9.057952E-1	8.841046E-1	9.167428E-1	8.931586E-1	8.406116E-1	8.461381E-1	8.940044E-1	9.308910E-1	8.697826E-1	8.958217E-1	8.725150E-1	9.144935E-1	9.033004E-1	8.805538E-1	8.980012E-1	8.419037E-1	9.519644E-1	8.824903E-1	8.668373E-1	8.977880E-1	8.720475E-1	9.351390E-1	9.101307E-1	8.611759E-1	9.215340E-1	8.855772E-1	8.907879E-1	8.483024E-1	9.124229E-1	9.053790E-1	8.726289E-1	8.718344E-1	9.498305E-1	9.437456E-1	8.702775E-1	8.763328E-1	9.182682E-1	8.847021E-1	9.140571E-1	8.489180E-1	8.864249E-1	8.963789E-1	8.509443E-1	8.480518E-1	8.538158E-1	8.721085E-1	8.950555E-1	8.852001E-1	9.045403E-1	8.253093E-1	8.822811E-1	9.011726E-1	8.787425E-1	8.835808E-1	9.180564E-1	8.905018E-1	8.742563E-1	8.992422E-1	8.902403E-1	8.419140E-1	9.207840E-1	8.904463E-1	9.397631E-1	9.117985E-1	9.285933E-1	9.111893E-1	8.640097E-1	9.075525E-1	8.431426E-1	9.325165E-1	8.949307E-1	8.878639E-1	9.538599E-1	9.248298E-1	9.126653E-1	8.647305E-1	8.912724E-1	8.730379E-1	8.815729E-1	8.656228E-1	8.863093E-1	9.207422E-1	8.652978E-1	8.721973E-1	8.970009E-1	9.120687E-1	8.688133E-1	8.600109E-1	8.937495E-1	8.767901E-1	9.145854E-1	8.896550E-1	9.439724E-1	8.987165E-1	8.736315E-1	8.789501E-1	8.764198E-1	8.825834E-1	8.443771E-1	9.001249E-1	9.296563E-1	8.820517E-1	9.336643E-1	8.725353E-1	8.993020E-1	8.675481E-1	9.089554E-1	8.505567E-1	9.245618E-1	9.051386E-1	9.164366E-1	8.958685E-1	9.151286E-1	8.712944E-1	9.057274E-1	9.536118E-1	9.156060E-1	9.478498E-1	8.931858E-1	9.475402E-1	9.002193E-1	9.384355E-1	8.843503E-1	8.826283E-1	8.880513E-1	8.798645E-1	8.815118E-1	8.904220E-1	9.173362E-1	9.392752E-1	9.273107E-1	9.123682E-1	8.657159E-1	9.275677E-1	8.884415E-1	8.892963E-1	8.748876E-1	8.647558E-1	9.001720E-1	8.659766E-1	8.952395E-1	9.271297E-1	8.703284E-1	8.727599E-1	9.009836E-1	9.012835E-1	9.213743E-1	9.312340E-1	8.846651E-1	8.957115E-1	9.459306E-1
5.365140E+2	6.738486E-1	7.429790E-1	7.059656E-1	6.016709E-1	6.691844E-1	6.522046E-1	6.779212E-1	6.575892E-1	7.066595E-1	6.878434E-1	6.612597E-1	6.762964E-1	7.187765E-1	7.202014E-1	6.793028E-1	6.563119E-1	7.038597E-1	6.758323E-1	6.973070E-1	7.082974E-1	6.994071E-1	6.522342E-1	6.734897E-1	6.640838E-1	6.896981E-1	6.846642E-1	7.084935E-1	6.924393E-1	6.495729E-1	6.867221E-1	6.779720E-1	6.914893E-1	6.837537E-1	6.953380E-1	6.742593E-1	6.736987E-1	6.537023E-1	6.837000E-1	6.563451E-1	6.468714E-1	6.694499E-1	6.709689E-1	6.863891E-1	7.056820E-1	6.684262E-1	6.705625E-1	6.827869E-1	7.160567E-1	7.134766E-1	7.068659E-1	6.645327E-1	7.411165E-1	6.784450E-1	6.483296E-1	7.035876E-1	6.810574E-1	6.555903E-1	6.764616E-1	6.573331E-1	7.155677E-1	6.880371E-1	6.758794E-1	6.730321E-1	6.593051E-1	7.026488E-1	6.620946E-1	6.580661E-1	6.425705E-1	6.755428E-1	6.783991E-1	6.908967E-1	6.452422E-1	6.817091E-1	6.982053E-1	6.858331E-1	7.261076E-1	7.188297E-1	6.902924E-1	6.497777E-1	6.760108E-1	6.940785E-1	7.201804E-1	6.705489E-1	6.744176E-1	6.952996E-1	7.096940E-1	6.756694E-1	6.880082E-1	6.937361E-1	6.677715E-1	7.224733E-1	7.025996E-1	6.778304E-1	6.660101E-1	6.552961E-1	6.594216E-1	7.010613E-1	7.063472E-1	6.594974E-1	6.745488E-1	6.486478E-1	6.777947E-1	6.820323E-1	7.182458E-1	6.874215E-1	6.699080E-1	6.527878E-1	6.857452E-1	6.728917E-1	6.913138E-1	6.864672E-1	6.978033E-1	6.986458E-1	6.676605E-1	6.988559E-1	6.876595E-1	6.481902E-1	6.760025E-1	6.587704E-1	7.025230E-1	7.123569E-1	7.087064E-1	6.569431E-1	6.946755E-1	6.804193E-1	6.968101E-1	6.839165E-1	6.790945E-1	6.655720E-1	6.537926E-1	7.315998E-1	7.232048E-1	6.636435E-1	6.848875E-1	6.543956E-1	7.063969E-1	7.079393E-1	6.979826E-1	6.700525E-1	6.614087E-1	6.947073E-1	6.468650E-1	6.921533E-1	6.856069E-1	6.885749E-1	6.812058E-1	6.739013E-1	7.130162E-1	6.910898E-1	7.160256E-1	7.057282E-1	6.853429E-1	6.905852E-1	6.435018E-1	6.463419E-1	7.039075E-1	6.794255E-1	6.717044E-1	6.541875E-1	6.888296E-1	7.064900E-1	6.700685E-1	6.477941E-1	6.824188E-1	6.740693E-1	6.979673E-1	6.583882E-1	6.779896E-1	6.469480E-1	6.645019E-1
5.367710E+2	5.334774E-1	5.568589E-1	5.613780E-1	4.738143E-1	5.630262E-1	5.306235E-1	5.612126E-1	5.288254E-1	5.664344E-1	5.200040E-1	5.683537E-1	5.557088E-1	5.771050E-1	5.558889E-1	5.479592E-1	5.404777E-1	5.587480E-1	5.453729E-1	5.273735E-1	5.209619E-1	5.455317E-1	5.879716E-1	5.236280E-1	5.432734E-1	5.355146E-1	5.371585E-1	5.484450E-1	5.606986E-1	5.453965E-1	5.574594E-1	5.799335E-1	5.381465E-1	5.655180E-1	5.517853E-1	5.312269E-1	5.332918E-1	5.386670E-1	5.534997E-1	5.498791E-1	5.302500E-1	5.868853E-1	5.653347E-1	5.701850E-1	5.693959E-1	5.573558E-1	5.485516E-1	5.171292E-1	5.444455E-1	5.852325E-1	5.363994E-1	5.428641E-1	5.383113E-1	5.439734E-1	5.225712E-1	5.408321E-1	5.613566E-1	5.394536E-1	5.307060E-1	5.313974E-1	5.397216E-1	5.524247E-1	5.683003E-1	5.544782E-1	5.591389E-1	5.787644E-1	5.226557E-1	5.826164E-1	5.403988E-1	5.412857E-1	5.542014E-1	5.598735E-1	5.416339E-1	5.791161E-1	5.503770E-1	5.585055E-1	5.764481E-1	5.498573E-1	5.269055E-1	5.547182E-1	5.519867E-1	5.305037E-1	5.709832E-1	5.575704E-1	5.462450E-1	5.883329E-1	5.809853E-1	6.041237E-1	5.472241E-1	5.706624E-1	5.824907E-1	5.851626E-1	5.507594E-1	5.660686E-1	5.623268E-1	5.500862E-1	5.412111E-1	5.805715E-1	5.644293E-1	5.616799E-1	5.679552E-1	5.476748E-1	5.459630E-1	5.768807E-1	5.721290E-1	5.814284E-1	5.512827E-1	5.559375E-1	5.759977E-1	5.605679E-1	5.574185E-1	5.678532E-1	5.746247E-1	5.600396E-1	5.165919E-1	5.362247E-1	5.626033E-1	5.604742E-1	5.403513E-1	5.354134E-1	5.617886E-1	5.583929E-1	5.487689E-1	5.098184E-1	6.003398E-1	5.920161E-1	5.567751E-1	5.452293E-1	5.503113E-1	5.628193E-1	5.266699E-1	5.685427E-1	5.483579E-1	5.622605E-1	5.727633E-1	5.392986E-1	5.638272E-1	5.407730E-1	5.493374E-1	5.748560E-1	5.980059E-1	5.611025E-1	5.702851E-1	5.436474E-1	5.643695E-1	6.096950E-1	5.291987E-1	5.492628E-1	5.413461E-1	5.652248E-1	5.522082E-1	5.707825E-1	5.494358E-1	5.822136E-1	5.380595E-1	5.578017E-1	5.727592E-1	5.621295E-1	5.580652E-1	5.658442E-1	5.628659E-1	5.540073E-1	5.575185E-1	5.272784E-1	5.770762E-1	5.760993E-1	5.631774E-1	5.711279E-1	5.720343E-1	5.710641E-1	5.495613E-1
5.370070E+2	5.119977E-1	4.810470E-1	4.442327E-1	4.717918E-1	4.908864E-1	4.832030E-1	4.881924E-1	5.101427E-1	4.834159E-1	4.619248E-1	5.052622E-1	4.532166E-1	5.006930E-1	5.031819E-1	4.690700E-1	4.880681E-1	4.792238E-1	4.714658E-1	4.694210E-1	4.516582E-1	4.952107E-1	4.825233E-1	4.590664E-1	4.664538E-1	5.186360E-1	4.767253E-1	4.984236E-1	4.632959E-1	4.579317E-1	4.960544E-1	4.853802E-1	4.447906E-1	4.886833E-1	5.014523E-1	4.739413E-1	4.787642E-1	4.589037E-1	4.802724E-1	4.930616E-1	4.544141E-1	4.789152E-1	4.674823E-1	4.934754E-1	4.982816E-1	4.848694E-1	4.852466E-1	4.943190E-1	4.783889E-1	4.939019E-1	4.726470E-1	4.794870E-1	4.938312E-1	4.954538E-1	4.888617E-1	4.914309E-1	4.741587E-1	4.881771E-1	4.631336E-1	4.782012E-1	4.848091E-1	5.168572E-1	4.860922E-1	4.850689E-1	4.702096E-1	4.877186E-1	4.677482E-1	5.171383E-1	4.457694E-1	4.631684E-1	4.948313E-1	4.993300E-1	4.853022E-1	4.921670E-1	4.790926E-1	4.760813E-1	4.869117E-1	4.733858E-1	4.628745E-1	4.763992E-1	4.818653E-1	4.898614E-1	5.129866E-1	4.910975E-1	5.059019E-1	4.764450E-1	4.674531E-1	4.861509E-1	4.945379E-1	4.964392E-1	4.609763E-1	5.001563E-1	4.965826E-1	4.971198E-1	4.837018E-1	4.993246E-1	4.532860E-1	4.717963E-1	4.742149E-1	4.943356E-1	4.957036E-1	4.969937E-1	4.923835E-1	5.274725E-1	5.015106E-1	5.072176E-1	4.882884E-1	4.709494E-1	4.941677E-1	4.932130E-1	4.766819E-1	4.767740E-1	4.815568E-1	5.176983E-1	4.845053E-1	4.491980E-1	4.869142E-1	4.805387E-1	5.014519E-1	4.647743E-1	4.905636E-1	4.772073E-1	4.959904E-1	5.142203E-1	5.095514E-1	5.009747E-1	4.983981E-1	4.974539E-1	5.101643E-1	5.168507E-1	4.610771E-1	4.695121E-1	4.882181E-1	4.885184E-1	4.879946E-1	4.971335E-1	4.933604E-1	4.907098E-1	4.711769E-1	5.049051E-1	5.109152E-1	4.441475E-1	5.254950E-1	4.943156E-1	4.786227E-1	5.201377E-1	4.881046E-1	5.080340E-1	4.994212E-1	5.017321E-1	5.179026E-1	5.111732E-1	4.942505E-1	4.735013E-1	5.101763E-1	4.697101E-1	5.101745E-1	4.864539E-1	4.725927E-1	4.991487E-1	4.987254E-1	4.973090E-1	4.627528E-1	4.797323E-1	5.059953E-1	5.159932E-1	5.301530E-1	4.808820E-1	5.014265E-1	5.003908E-1	5.026366E-1
5.372740E+2	4.341235E-1	4.759189E-1	4.539501E-1	4.112239E-1	4.824831E-1	4.605771E-1	4.679416E-1	4.659909E-1	4.797256E-1	4.365405E-1	4.493655E-1	4.283400E-1	4.782193E-1	4.408047E-1	4.536071E-1	4.607818E-1	4.848183E-1	4.637688E-1	4.517193E-1	4.344777E-1	4.709161E-1	4.867353E-1	4.348847E-1	4.567475E-1	4.686452E-1	4.587323E-1	4.804905E-1	4.531499E-1	4.634386E-1	4.669907E-1	4.455745E-1	4.718845E-1	4.748967E-1	4.492304E-1	4.515302E-1	4.539953E-1	4.607050E-1	4.419945E-1	4.573893E-1	4.500936E-1	4.649658E-1	4.470308E-1	4.428738E-1	4.448481E-1	4.631085E-1	4.700175E-1	4.452137E-1	4.656629E-1	4.762752E-1	4.678617E-1	4.707036E-1	4.463498E-1	4.703254E-1	4.855961E-1	4.613233E-1	4.793654E-1	4.941835E-1	4.794807E-1	4.568868E-1	4.803530E-1	4.685829E-1	4.501950E-1	4.713609E-1	4.637328E-1	4.813859E-1	4.752906E-1	4.409275E-1	4.745679E-1	4.890631E-1	4.801816E-1	4.302104E-1	4.564675E-1	4.787184E-1	4.389598E-1	4.604106E-1	4.620396E-1	4.881159E-1	4.498585E-1	4.443389E-1	4.392877E-1	4.444299E-1	4.860188E-1	4.481667E-1	4.879255E-1	4.513516E-1	4.622789E-1	4.605768E-1	4.420811E-1	4.620680E-1	4.707250E-1	4.450556E-1	4.693749E-1	4.735275E-1	4.240027E-1	4.756119E-1	4.404603E-1	4.605079E-1	4.582710E-1	4.281727E-1	4.500775E-1	4.629586E-1	4.617533E-1	4.677742E-1	4.766336E-1	4.546950E-1	4.571005E-1	4.494332E-1	4.375497E-1	4.623403E-1	4.596927E-1	4.533773E-1	4.791445E-1	4.568137E-1	5.006372E-1	4.492874E-1	4.486270E-1	4.815587E-1	4.730368E-1	4.711979E-1	4.628588E-1	4.974968E-1	4.523203E-1	4.366355E-1	4.854997E-1	4.732919E-1	4.693849E-1	4.385636E-1	4.671410E-1	4.603796E-1	4.502313E-1	4.731354E-1	4.648064E-1	4.543298E-1	4.548050E-1	4.661075E-1	4.502013E-1	4.519647E-1	4.299264E-1	4.474697E-1	4.929316E-1	4.462187E-1	4.679356E-1	4.608844E-1	4.762007E-1	4.816832E-1	4.851154E-1	4.769488E-1	4.557376E-1	4.581544E-1	4.491705E-1	4.589161E-1	4.418731E-1	4.634078E-1	4.783801E-1	4.893981E-1	4.623823E-1	4.628937E-1	4.621356E-1	4.257223E-1	4.481743E-1	4.619710E-1	4.651530E-1	4.587937E-1	4.617109E-1	4.704853E-1	4.561891E-1	4.720483E-1	4.521466E-1	4.751003E-1	4.859818E-1
5.375160E+2	4.925143E-1	5.115644E-1	4.643710E-1	3.614680E-1	4.968999E-1	4.637470E-1	4.713342E-1	4.812326E-1	4.725940E-1	4.458654E-1	4.857847E-1	4.653566E-1	4.828653E-1	4.832049E-1	4.692058E-1	4.668595E-1	4.723197E-1	4.731309E-1	4.359819E-1	4.589341E-1	4.833093E-1	4.970193E-1	4.725584E-1	4.432097E-1	5.159397E-1	4.443967E-1	4.718022E-1	4.873007E-1	4.852873E-1	4.785703E-1	4.762571E-1	4.650155E-1	4.741714E-1	4.420057E-1	4.659693E-1	4.857787E-1	4.705530E-1	4.876305E-1	5.089781E-1	4.503820E-1	4.892880E-1	4.722727E-1	4.541982E-1	4.450779E-1	4.722167E-1	4.824962E-1	4.807818E-1	4.523511E-1	4.926544E-1	4.396536E-1	4.498809E-1	4.747362E-1	4.851006E-1	4.487321E-1	4.767048E-1	4.593064E-1	5.084265E-1	4.950217E-1	4.558245E-1	5.019025E-1	4.698533E-1	4.574251E-1	4.725554E-1	4.701510E-1	5.007643E-1	4.554657E-1	4.734947E-1	4.472346E-1	4.767847E-1	4.692087E-1	4.693760E-1	4.342055E-1	4.762632E-1	5.040128E-1	4.858818E-1	4.910141E-1	5.177181E-1	4.973457E-1	4.577391E-1	4.519562E-1	4.716844E-1	4.580116E-1	4.894649E-1	4.890203E-1	4.674719E-1	4.614879E-1	5.058066E-1	4.704265E-1	4.946497E-1	4.873813E-1	5.100749E-1	4.898009E-1	4.831231E-1	4.555201E-1	4.776178E-1	4.353550E-1	4.713128E-1	5.169474E-1	4.705243E-1	4.357805E-1	5.022511E-1	4.568205E-1	4.793767E-1	4.653154E-1	4.745797E-1	4.679344E-1	4.878599E-1	4.571092E-1	4.793191E-1	4.581522E-1	4.883292E-1	4.592243E-1	4.722114E-1	4.373108E-1	4.466450E-1	5.021449E-1	4.788463E-1	4.743508E-1	4.833892E-1	4.835062E-1	4.854764E-1	4.673622E-1	4.731256E-1	4.791984E-1	4.900722E-1	4.673873E-1	4.872767E-1	4.821718E-1	4.447166E-1	4.801896E-1	4.913344E-1	4.475574E-1	4.683792E-1	4.765417E-1	5.117425E-1	4.970359E-1	4.831991E-1	4.753717E-1	4.432305E-1	4.628469E-1	4.867931E-1	4.842259E-1	4.620284E-1	4.637306E-1	4.752546E-1	5.031971E-1	4.864623E-1	4.734705E-1	4.763512E-1	4.642708E-1	4.532047E-1	4.761870E-1	5.139150E-1	4.829193E-1	4.562397E-1	4.935004E-1	4.851925E-1	4.830810E-1	4.322907E-1	4.868521E-1	4.674377E-1	5.104024E-1	4.586032E-1	4.418114E-1	4.729908E-1	4.810142E-1	4.773493E-1	4.704550E-1	5.631465E-1	4.970663E-1
5.377580E+2	5.204980E-1	5.696422E-1	5.191427E-1	3.729033E-1	5.425014E-1	5.420654E-1	5.404811E-1	5.391827E-1	5.612584E-1	5.495231E-1	5.326184E-1	5.472044E-1	5.526290E-1	5.428745E-1	5.218799E-1	5.489208E-1	5.275910E-1	5.350364E-1	5.168145E-1	4.947072E-1	5.196082E-1	5.580700E-1	5.499197E-1	5.477574E-1	5.725449E-1	5.558335E-1	5.409539E-1	5.479792E-1	5.596718E-1	5.427347E-1	5.249254E-1	5.321502E-1	5.320151E-1	5.724529E-1	5.261652E-1	5.395892E-1	5.662056E-1	5.435075E-1	5.396035E-1	5.533212E-1	5.380426E-1	5.477131E-1	5.530097E-1	5.334745E-1	5.833649E-1	5.717282E-1	5.517729E-1	5.151270E-1	5.541254E-1	5.681402E-1	5.312070E-1	5.641929E-1	5.753923E-1	5.393765E-1	5.489004E-1	5.531047E-1	5.992540E-1	5.249012E-1	5.794052E-1	5.662592E-1	5.578719E-1	5.298248E-1	5.458533E-1	5.153524E-1	5.396151E-1	5.321685E-1	5.331266E-1	4.995336E-1	5.737956E-1	5.721043E-1	5.282957E-1	5.388015E-1	5.555528E-1	5.500311E-1	5.690476E-1	5.428407E-1	5.568176E-1	5.254206E-1	5.405516E-1	5.544225E-1	5.512648E-1	5.577380E-1	5.381626E-1	5.587499E-1	6.008535E-1	5.376789E-1	5.491757E-1	5.454066E-1	5.164379E-1	5.304432E-1	5.405406E-1	5.472119E-1	5.541916E-1	5.479469E-1	5.400265E-1	5.512605E-1	5.129123E-1	5.523061E-1	5.330680E-1	5.646838E-1	5.521094E-1	5.305233E-1	5.460625E-1	5.430558E-1	5.711449E-1	5.485508E-1	5.520535E-1	5.255306E-1	5.430783E-1	5.489270E-1	5.532781E-1	5.378809E-1	5.587835E-1	5.219905E-1	5.291986E-1	5.326463E-1	5.559267E-1	5.572786E-1	5.330863E-1	5.556288E-1	5.640640E-1	5.521221E-1	5.643794E-1	5.738522E-1	5.149127E-1	5.446727E-1	5.475406E-1	5.384231E-1	5.603826E-1	4.966005E-1	5.890613E-1	5.557615E-1	5.533251E-1	5.609524E-1	5.243877E-1	5.275282E-1	5.763635E-1	5.375111E-1	5.740184E-1	5.518608E-1	5.748976E-1	5.350037E-1	5.364670E-1	5.433656E-1	5.773637E-1	5.869780E-1	5.237522E-1	5.593714E-1	5.525238E-1	5.238885E-1	5.724090E-1	5.488303E-1	5.596336E-1	5.098664E-1	5.450304E-1	5.257662E-1	5.358242E-1	5.419155E-1	5.615121E-1	5.505584E-1	5.678248E-1	5.733667E-1	5.537018E-1	5.494474E-1	5.850807E-1	5.217744E-1	5.662285E-1	5.762971E-1	5.021267E-1	5.269096E-1
5.380160E+2	6.795568E-1	6.821842E-1	6.510840E-1	4.037222E-1	6.459627E-1	6.340464E-1	6.304658E-1	6.460465E-1	6.283125E-1	6.615340E-1	5.896073E-1	6.434855E-1	6.655163E-1	6.311628E-1	6.510292E-1	6.285906E-1	6.851048E-1	6.649405E-1	6.117296E-1	6.634519E-1	6.480343E-1	6.455653E-1	6.596407E-1	6.592408E-1	6.771535E-1	6.565811E-1	6.564311E-1	6.444134E-1	6.624880E-1	6.500466E-1	6.450866E-1	6.577444E-1	6.802137E-1	6.320065E-1	6.519681E-1	6.390031E-1	6.652173E-1	6.255134E-1	6.679719E-1	6.222224E-1	6.701257E-1	6.445258E-1	6.656715E-1	6.205491E-1	6.374815E-1	6.453061E-1	6.484936E-1	6.226703E-1	6.678528E-1	6.634025E-1	6.464029E-1	6.757010E-1	6.490616E-1	6.507664E-1	6.428190E-1	6.578794E-1	6.941583E-1	6.535004E-1	6.055817E-1	6.300736E-1	6.418114E-1	6.386963E-1	6.176875E-1	6.389929E-1	6.575469E-1	6.659330E-1	6.286836E-1	6.040356E-1	6.346124E-1	6.477121E-1	6.315657E-1	6.285099E-1	6.852611E-1	6.625274E-1	6.607989E-1	6.782874E-1	6.605817E-1	6.599407E-1	6.318246E-1	6.617813E-1	6.529511E-1	6.779037E-1	6.194131E-1	6.093891E-1	6.457691E-1	6.584467E-1	6.449812E-1	6.504374E-1	6.736030E-1	6.454613E-1	6.850326E-1	6.795879E-1	6.448419E-1	6.299592E-1	6.465574E-1	6.365110E-1	6.495385E-1	6.385175E-1	6.209190E-1	6.606585E-1	6.799565E-1	6.334660E-1	6.728010E-1	6.579872E-1	6.829020E-1	6.721225E-1	6.210136E-1	6.625159E-1	6.187674E-1	6.330677E-1	6.749014E-1	6.630797E-1	6.854619E-1	6.470413E-1	6.348480E-1	6.378001E-1	6.828224E-1	6.491528E-1	6.442355E-1	6.522206E-1	6.352831E-1	6.639320E-1	6.403483E-1	6.375007E-1	6.503483E-1	6.319770E-1	6.374327E-1	6.238839E-1	6.564304E-1	6.615684E-1	6.496699E-1	6.255082E-1	6.765815E-1	6.489309E-1	6.456882E-1	6.152313E-1	6.699411E-1	6.431935E-1	6.441120E-1	6.288401E-1	6.570202E-1	6.604432E-1	6.407296E-1	6.619189E-1	6.445490E-1	6.706891E-1	6.308479E-1	6.831425E-1	6.695584E-1	6.309661E-1	6.673412E-1	7.017171E-1	6.875905E-1	6.526221E-1	6.591210E-1	6.627727E-1	6.445645E-1	6.533560E-1	6.162762E-1	6.467575E-1	7.007788E-1	6.388948E-1	6.446894E-1	6.487257E-1	6.622014E-1	6.751476E-1	6.533236E-1	6.694712E-1	6.805676E-1	6.720949E-1
5.382740E+2	7.714772E-1	8.400192E-1	7.991274E-1	8.629403E-1	8.388718E-1	8.398332E-1	7.926692E-1	7.945194E-1	7.829467E-1	8.285266E-1	8.083554E-1	8.068126E-1	8.210786E-1	7.932039E-1	8.119124E-1	7.812430E-1	7.609421E-1	8.213591E-1	8.306716E-1	7.917256E-1	8.362226E-1	7.998239E-1	8.037424E-1	8.270829E-1	8.499387E-1	8.045659E-1	8.356515E-1	8.422831E-1	8.228020E-1	8.090480E-1	7.850947E-1	8.256190E-1	8.697974E-1	8.003686E-1	8.203705E-1	8.225926E-1	8.103534E-1	8.306920E-1	8.385983E-1	7.973506E-1	8.488193E-1	8.149314E-1	8.387496E-1	8.196722E-1	8.179242E-1	7.999547E-1	7.644767E-1	7.700062E-1	8.048803E-1	8.224047E-1	8.269089E-1	8.133192E-1	8.432599E-1	8.298589E-1	7.727435E-1	8.118912E-1	8.113566E-1	7.654217E-1	7.856437E-1	8.154038E-1	8.316980E-1	8.141123E-1	8.362436E-1	8.270408E-1	8.298867E-1	8.405185E-1	7.930144E-1	8.005703E-1	8.322295E-1	7.774857E-1	7.733734E-1	8.369785E-1	8.196079E-1	8.289343E-1	7.960673E-1	8.286453E-1	8.202931E-1	8.129930E-1	8.210760E-1	8.192810E-1	8.168265E-1	8.342797E-1	8.275689E-1	7.793832E-1	8.177333E-1	8.025372E-1	8.399810E-1	7.939426E-1	8.108538E-1	8.309472E-1	8.361195E-1	7.955191E-1	8.041226E-1	8.118103E-1	8.083034E-1	8.170051E-1	8.162341E-1	8.274671E-1	8.199572E-1	8.027907E-1	8.257467E-1	8.440745E-1	8.023108E-1	8.365927E-1	8.345100E-1	8.305400E-1	7.886008E-1	7.908829E-1	7.713653E-1	7.981034E-1	8.050146E-1	8.615114E-1	8.328913E-1	8.219211E-1	8.168107E-1	7.994601E-1	7.936927E-1	7.986397E-1	7.988199E-1	8.388593E-1	7.788846E-1	8.179900E-1	8.296525E-1	8.037280E-1	8.006841E-1	8.108155E-1	7.917427E-1	8.161076E-1	8.345602E-1	7.753726E-1	7.771539E-1	7.798327E-1	8.273974E-1	7.813057E-1	8.545563E-1	8.070461E-1	8.275461E-1	8.078287E-1	8.661331E-1	8.093413E-1	8.360599E-1	8.284872E-1	8.326734E-1	8.171857E-1	8.628931E-1	8.223890E-1	8.066997E-1	8.317847E-1	8.303290E-1	7.963113E-1	7.669409E-1	7.977623E-1	8.273629E-1	8.051503E-1	8.464762E-1	8.133276E-1	8.119460E-1	7.759687E-1	7.798853E-1	7.967666E-1	8.519806E-1	7.962304E-1	8.115393E-1	8.273499E-1	8.517096E-1	7.879991E-1	8.211840E-1	8.070552E-1	8.670341E-1	7.963888E-1
5.385060E+2	9.662502E-1	1.026238E+0	9.839276E-1	1.284867E+0	9.683433E-1	9.622728E-1	9.888324E-1	1.009576E+0	9.755088E-1	9.918521E-1	9.970500E-1	9.790745E-1	9.963191E-1	1.016569E+0	9.570903E-1	1.001201E+0	9.552085E-1	9.825322E-1	9.773879E-1	9.453830E-1	9.591133E-1	9.954633E-1	9.669652E-1	9.881278E-1	1.003984E+0	1.026050E+0	1.059053E+0	9.698470E-1	9.983375E-1	9.894775E-1	9.714309E-1	9.876341E-1	9.937668E-1	1.000886E+0	1.009788E+0	9.681128E-1	9.669757E-1	9.996318E-1	9.897097E-1	9.440062E-1	1.007925E+0	1.015032E+0	9.985749E-1	9.722404E-1	9.863046E-1	9.780379E-1	1.003025E+0	9.976045E-1	9.564865E-1	1.010106E+0	9.748639E-1	1.043651E+0	9.747577E-1	9.861756E-1	9.911347E-1	1.016172E+0	9.931973E-1	9.984412E-1	9.651998E-1	1.034013E+0	1.024894E+0	9.940710E-1	9.397420E-1	9.165395E-1	9.945674E-1	1.005558E+0	9.672640E-1	1.025345E+0	9.952837E-1	1.025849E+0	9.743110E-1	1.024252E+0	9.974341E-1	1.048338E+0	9.594739E-1	9.972243E-1	1.012798E+0	9.858697E-1	9.920515E-1	9.624490E-1	1.035840E+0	1.028308E+0	9.667739E-1	1.006198E+0	9.744254E-1	1.006220E+0	1.004210E+0	1.014021E+0	1.018954E+0	1.033988E+0	9.815655E-1	9.560183E-1	9.682267E-1	1.007093E+0	9.583069E-1	9.775899E-1	9.672516E-1	1.017219E+0	9.688846E-1	1.014131E+0	1.022087E+0	1.002192E+0	1.026824E+0	9.596971E-1	1.048832E+0	1.028217E+0	9.483317E-1	9.734543E-1	9.698400E-1	9.961337E-1	9.528289E-1	1.029346E+0	1.010159E+0	9.834047E-1	1.032708E+0	9.906616E-1	1.022295E+0	1.022425E+0	1.001690E+0	9.807283E-1	1.001579E+0	1.015580E+0	1.007559E+0	9.776471E-1	9.856437E-1	9.858395E-1	9.787102E-1	9.857428E-1	9.929126E-1	1.067210E+0	1.000633E+0	9.401135E-1	9.844972E-1	9.983056E-1	1.015415E+0	9.780736E-1	1.023045E+0	9.744026E-1	1.041180E+0	9.794856E-1	1.028610E+0	9.650695E-1	9.642592E-1	9.989215E-1	1.013225E+0	1.022356E+0	9.907037E-1	1.007424E+0	9.687073E-1	9.827651E-1	1.000448E+0	9.638717E-1	9.534661E-1	9.378499E-1	1.016265E+0	1.002149E+0	1.018803E+0	9.771359E-1	9.826615E-1	9.775482E-1	1.055253E+0	9.728234E-1	9.111207E-1	9.701875E-1	1.009659E+0	9.555168E-1	9.754743E-1	1.016291E+0	9.880765E-1	1.015309E+0
5.387540E+2	1.203656E+0	1.285191E+0	1.233243E+0	1.613966E+0	1.191538E+0	1.247008E+0	1.220662E+0	1.218691E+0	1.258327E+0	1.268669E+0	1.268106E+0	1.231398E+0	1.245596E+0	1.251815E+0	1.210524E+0	1.220838E+0	1.151739E+0	1.213628E+0	1.227444E+0	1.215590E+0	1.211413E+0	1.225298E+0	1.200445E+0	1.237868E+0	1.233085E+0	1.302153E+0	1.242333E+0	1.240450E+0	1.235305E+0	1.199680E+0	1.242811E+0	1.207988E+0	1.200789E+0	1.223000E+0	1.206754E+0	1.198969E+0	1.209854E+0	1.261323E+0	1.236848E+0	1.248054E+0	1.171036E+0	1.226567E+0	1.208812E+0	1.210649E+0	1.203245E+0	1.219566E+0	1.224063E+0	1.176813E+0	1.235256E+0	1.240119E+0	1.185408E+0	1.232702E+0	1.193775E+0	1.243426E+0	1.220921E+0	1.257692E+0	1.262495E+0	1.198561E+0	1.238794E+0	1.258900E+0	1.246440E+0	1.223800E+0	1.167793E+0	1.210529E+0	1.225995E+0	1.243600E+0	1.207771E+0	1.211902E+0	1.229720E+0	1.231133E+0	1.186585E+0	1.145665E+0	1.220269E+0	1.217270E+0	1.225967E+0	1.213338E+0	1.244281E+0	1.193058E+0	1.222777E+0	1.199994E+0	1.313469E+0	1.208191E+0	1.186534E+0	1.179409E+0	1.183087E+0	1.256488E+0	1.242329E+0	1.220261E+0	1.197781E+0	1.254905E+0	1.253315E+0	1.206420E+0	1.218964E+0	1.226071E+0	1.218554E+0	1.208995E+0	1.195850E+0	1.157403E+0	1.188724E+0	1.183338E+0	1.250534E+0	1.242201E+0	1.192093E+0	1.208618E+0	1.219743E+0	1.238165E+0	1.188560E+0	1.211068E+0	1.234835E+0	1.231708E+0	1.257550E+0	1.230756E+0	1.214365E+0	1.184157E+0	1.235248E+0	1.192495E+0	1.243837E+0	1.179988E+0	1.212144E+0	1.186724E+0	1.232053E+0	1.220162E+0	1.158435E+0	1.172730E+0	1.185983E+0	1.204405E+0	1.222647E+0	1.208004E+0	1.202829E+0	1.239118E+0	1.290796E+0	1.183705E+0	1.201424E+0	1.254540E+0	1.260936E+0	1.179826E+0	1.243530E+0	1.195787E+0	1.239974E+0	1.197795E+0	1.279097E+0	1.204005E+0	1.185226E+0	1.182026E+0	1.275210E+0	1.171954E+0	1.177611E+0	1.197157E+0	1.250751E+0	1.237860E+0	1.227997E+0	1.217522E+0	1.220760E+0	1.223561E+0	1.225469E+0	1.184944E+0	1.212971E+0	1.202304E+0	1.190226E+0	1.245370E+0	1.247545E+0	1.184450E+0	1.216640E+0	1.193209E+0	1.245688E+0	1.232418E+0	1.204724E+0	1.164350E+0	1.254292E+0	1.186733E+0
5.390340E+2	1.420219E+0	1.503836E+0	1.477379E+0	1.990142E+0	1.463023E+0	1.463231E+0	1.476877E+0	1.473759E+0	1.414188E+0	1.463120E+0	1.448138E+0	1.464938E+0	1.433824E+0	1.435122E+0	1.457214E+0	1.461643E+0	1.453748E+0	1.416677E+0	1.404221E+0	1.383147E+0	1.445971E+0	1.493376E+0	1.491294E+0	1.478263E+0	1.451270E+0	1.429088E+0	1.449950E+0	1.414164E+0	1.494146E+0	1.463396E+0	1.425305E+0	1.473586E+0	1.410975E+0	1.445037E+0	1.358225E+0	1.428528E+0	1.452064E+0	1.452356E+0	1.475337E+0	1.469079E+0	1.440791E+0	1.463978E+0	1.387377E+0	1.480257E+0	1.484749E+0	1.412985E+0	1.415723E+0	1.391635E+0	1.441617E+0	1.386164E+0	1.398196E+0	1.522435E+0	1.456478E+0	1.410127E+0	1.436318E+0	1.484655E+0	1.479083E+0	1.443826E+0	1.391669E+0	1.505964E+0	1.411514E+0	1.412454E+0	1.446256E+0	1.407891E+0	1.437271E+0	1.454482E+0	1.450590E+0	1.392257E+0	1.405056E+0	1.436124E+0	1.455104E+0	1.419366E+0	1.435368E+0	1.475435E+0	1.385814E+0	1.484300E+0	1.423426E+0	1.434364E+0	1.390969E+0	1.452523E+0	1.464446E+0	1.438893E+0	1.429734E+0	1.404164E+0	1.411376E+0	1.447705E+0	1.442924E+0	1.472546E+0	1.431557E+0	1.482897E+0	1.446805E+0	1.417394E+0	1.437922E+0	1.417660E+0	1.427773E+0	1.404551E+0	1.451638E+0	1.382399E+0	1.419233E+0	1.395015E+0	1.527476E+0	1.442135E+0	1.442494E+0	1.417944E+0	1.436139E+0	1.455187E+0	1.437910E+0	1.451016E+0	1.428419E+0	1.450575E+0	1.394602E+0	1.394051E+0	1.433034E+0	1.453002E+0	1.402966E+0	1.486868E+0	1.479769E+0	1.458506E+0	1.418239E+0	1.397977E+0	1.487167E+0	1.509531E+0	1.477687E+0	1.414643E+0	1.404635E+0	1.440589E+0	1.441019E+0	1.429314E+0	1.468847E+0	1.370878E+0	1.428960E+0	1.410998E+0	1.455601E+0	1.439955E+0	1.473544E+0	1.444930E+0	1.464342E+0	1.443413E+0	1.401199E+0	1.455574E+0	1.480658E+0	1.465480E+0	1.391889E+0	1.436339E+0	1.470316E+0	1.460793E+0	1.474647E+0	1.440853E+0	1.439065E+0	1.474310E+0	1.411856E+0	1.422273E+0	1.435771E+0	1.447464E+0	1.481863E+0	1.382570E+0	1.399585E+0	1.424852E+0	1.400653E+0	1.426666E+0	1.545528E+0	1.426983E+0	1.445521E+0	1.339549E+0	1.520272E+0	1.439078E+0	1.392324E+0	1.423597E+0	1.494165E+0	1.454200E+0
5.392780E+2	1.656966E+0	1.597810E+0	1.620700E+0	2.105622E+0	1.573407E+0	1.719037E+0	1.653276E+0	1.619029E+0	1.604076E+0	1.616724E+0	1.580852E+0	1.589740E+0	1.661285E+0	1.601879E+0	1.581524E+0	1.576600E+0	1.620226E+0	1.629322E+0	1.636231E+0	1.595337E+0	1.585239E+0	1.638359E+0	1.571664E+0	1.618945E+0	1.598825E+0	1.555125E+0	1.627236E+0	1.604939E+0	1.584705E+0	1.615714E+0	1.613259E+0	1.602667E+0	1.624440E+0	1.591580E+0	1.564342E+0	1.575951E+0	1.580701E+0	1.638895E+0	1.579252E+0	1.631071E+0	1.615467E+0	1.655756E+0	1.635079E+0	1.614466E+0	1.531727E+0	1.589606E+0	1.571277E+0	1.585513E+0	1.529551E+0	1.629830E+0	1.570750E+0	1.632472E+0	1.597371E+0	1.594310E+0	1.628037E+0	1.625338E+0	1.568037E+0	1.618994E+0	1.571028E+0	1.593464E+0	1.576886E+0	1.564094E+0	1.579283E+0	1.558422E+0	1.626144E+0	1.587184E+0	1.603860E+0	1.572618E+0	1.559051E+0	1.610342E+0	1.586865E+0	1.610334E+0	1.589702E+0	1.645357E+0	1.575128E+0	1.566724E+0	1.555773E+0	1.614131E+0	1.614337E+0	1.588855E+0	1.602914E+0	1.619558E+0	1.567346E+0	1.586131E+0	1.523871E+0	1.597291E+0	1.544402E+0	1.608281E+0	1.549225E+0	1.642893E+0	1.610925E+0	1.630339E+0	1.643804E+0	1.558498E+0	1.599584E+0	1.561854E+0	1.632237E+0	1.626863E+0	1.625215E+0	1.533680E+0	1.547684E+0	1.605964E+0	1.598779E+0	1.575916E+0	1.569976E+0	1.626006E+0	1.575795E+0	1.499113E+0	1.570723E+0	1.656789E+0	1.603580E+0	1.584566E+0	1.532632E+0	1.528565E+0	1.549949E+0	1.584929E+0	1.565617E+0	1.598313E+0	1.595407E+0	1.571589E+0	1.590807E+0	1.585785E+0	1.522730E+0	1.573786E+0	1.603725E+0	1.584928E+0	1.610986E+0	1.544092E+0	1.547254E+0	1.512154E+0	1.603417E+0	1.540978E+0	1.646057E+0	1.577260E+0	1.627464E+0	1.626763E+0	1.596905E+0	1.525086E+0	1.519902E+0	1.578932E+0	1.539617E+0	1.565203E+0	1.548279E+0	1.564732E+0	1.561407E+0	1.624517E+0	1.592758E+0	1.570771E+0	1.567434E+0	1.531105E+0	1.540256E+0	1.624623E+0	1.633729E+0	1.485422E+0	1.627381E+0	1.498851E+0	1.581336E+0	1.505602E+0	1.532657E+0	1.560354E+0	1.660787E+0	1.582975E+0	1.499633E+0	1.602089E+0	1.626344E+0	1.585982E+0	1.550641E+0	1.559944E+0	1.513607E+0	1.566172E+0
5.395100E+2	1.938710E+0	1.972421E+0	1.875380E+0	2.758186E+0	1.955472E+0	1.970949E+0	1.924665E+0	1.991142E+0	1.879034E+0	1.854005E+0	1.930252E+0	1.845966E+0	1.921575E+0	1.935792E+0	1.897343E+0	1.864918E+0	1.947243E+0	1.941262E+0	1.939956E+0	1.955859E+0	1.864624E+0	1.918733E+0	1.915647E+0	1.895997E+0	1.924284E+0	1.949153E+0	1.995549E+0	1.860908E+0	1.863217E+0	1.919233E+0	1.916271E+0	1.887524E+0	1.898590E+0	1.889055E+0	1.880933E+0	1.905884E+0	1.879269E+0	1.822883E+0	1.909339E+0	1.863812E+0	1.888404E+0	1.967041E+0	1.935227E+0	1.925657E+0	1.895210E+0	1.894684E+0	1.877364E+0	1.850557E+0	1.865557E+0	1.925575E+0	1.881499E+0	1.940010E+0	1.889254E+0	1.900347E+0	1.940521E+0	1.927672E+0	1.939768E+0	1.854621E+0	1.890708E+0	1.891174E+0	1.849670E+0	1.910813E+0	1.842718E+0	1.815409E+0	1.933274E+0	1.839306E+0	1.906007E+0	1.780537E+0	1.826320E+0	1.861362E+0	1.853065E+0	1.865339E+0	1.882400E+0	1.881566E+0	1.884277E+0	1.924290E+0	1.849158E+0	1.786802E+0	1.852727E+0	1.864684E+0	1.880725E+0	1.885583E+0	1.885204E+0	1.834660E+0	1.847593E+0	1.901327E+0	1.877804E+0	1.899262E+0	1.891168E+0	1.864760E+0	1.888920E+0	1.880854E+0	1.893419E+0	1.878314E+0	1.868334E+0	1.786474E+0	1.854025E+0	1.889018E+0	1.820073E+0	1.846875E+0	1.873682E+0	1.887409E+0	1.902149E+0	1.886579E+0	1.886732E+0	1.855509E+0	1.814316E+0	1.844346E+0	1.853833E+0	1.911198E+0	1.851676E+0	1.849690E+0	1.865385E+0	1.834805E+0	1.834694E+0	1.901737E+0	1.816970E+0	1.871854E+0	1.869077E+0	1.832311E+0	1.808421E+0	1.980534E+0	1.859564E+0	1.972198E+0	1.919618E+0	1.855203E+0	1.849952E+0	1.819465E+0	1.821849E+0	1.849531E+0	1.890240E+0	1.817995E+0	1.838832E+0	1.824823E+0	1.836198E+0	1.892774E+0	1.950432E+0	1.822852E+0	1.887807E+0	1.848995E+0	1.865638E+0	1.813032E+0	1.773291E+0	1.816559E+0	1.919662E+0	1.919267E+0	1.940209E+0	1.779289E+0	1.896371E+0	1.903396E+0	1.846157E+0	1.808593E+0	1.840946E+0	1.922896E+0	1.784835E+0	1.832810E+0	1.883781E+0	1.884004E+0	1.851602E+0	1.750962E+0	1.931027E+0	1.792977E+0	1.757847E+0	1.810619E+0	1.861476E+0	1.843753E+0	1.836276E+0	1.896881E+0	1.779892E+0	1.783750E+0
5.397910E+2	2.062087E+0	2.125446E+0	2.025444E+0	2.862826E+0	2.057453E+0	2.068725E+0	2.027266E+0	2.100476E+0	2.071803E+0	2.055962E+0	1.990381E+0	2.087024E+0	2.108976E+0	2.078877E+0	2.059799E+0	1.990228E+0	2.031436E+0	2.069145E+0	2.042350E+0	2.084408E+0	2.034846E+0	2.053223E+0	2.045405E+0	2.012867E+0	2.028621E+0	2.101233E+0	2.020650E+0	2.062817E+0	1.969637E+0	2.002475E+0	2.045326E+0	2.069892E+0	2.063563E+0	2.032875E+0	2.034743E+0	2.060299E+0	1.981125E+0	2.053488E+0	2.085411E+0	2.042957E+0	2.040029E+0	2.042495E+0	2.067116E+0	2.088956E+0	2.012485E+0	2.043194E+0	1.995292E+0	1.976799E+0	2.067195E+0	2.076069E+0	2.084729E+0	2.062547E+0	2.032390E+0	2.014786E+0	1.996053E+0	2.049303E+0	2.056628E+0	2.074260E+0	1.966018E+0	2.012967E+0	2.048002E+0	2.025062E+0	1.992976E+0	1.957459E+0	2.063920E+0	1.943699E+0	2.066559E+0	2.092246E+0	1.980088E+0	1.985089E+0	1.996287E+0	2.032445E+0	2.008546E+0	2.050841E+0	2.013218E+0	2.050863E+0	2.012984E+0	2.001045E+0	2.014734E+0	2.003364E+0	2.006096E+0	2.001097E+0	1.994945E+0	1.938619E+0	1.950422E+0	1.992798E+0	2.076917E+0	1.995695E+0	2.006750E+0	1.970876E+0	2.062006E+0	1.993454E+0	2.127799E+0	1.983471E+0	1.957816E+0	2.016515E+0	1.977827E+0	2.010160E+0	1.969969E+0	1.998661E+0	2.044794E+0	2.015182E+0	1.936519E+0	2.014006E+0	1.982204E+0	1.935849E+0	1.991440E+0	2.029236E+0	1.962846E+0	1.993197E+0	1.979696E+0	2.001518E+0	1.976639E+0	1.941111E+0	1.992780E+0	1.956578E+0	1.996923E+0	1.964945E+0	1.976581E+0	2.028252E+0	1.961246E+0	2.055263E+0	1.960961E+0	2.011984E+0	1.980684E+0	1.934608E+0	1.978432E+0	1.928818E+0	1.919461E+0	1.939671E+0	2.052748E+0	1.914119E+0	1.926058E+0	2.019047E+0	2.030850E+0	1.946998E+0	2.029478E+0	1.922075E+0	2.062805E+0	1.959702E+0	2.021403E+0	1.960765E+0	1.947183E+0	1.969267E+0	2.000735E+0	2.040086E+0	1.977155E+0	1.964408E+0	1.877262E+0	1.924298E+0	1.980518E+0	1.946710E+0	1.973679E+0	1.941742E+0	2.035711E+0	1.945061E+0	1.924152E+0	1.971968E+0	1.913353E+0	1.972431E+0	2.025180E+0	1.954571E+0	1.903506E+0	1.889083E+0	1.933235E+0	2.030624E+0	1.938144E+0	1.976990E+0	1.916757E+0	2.024922E+0
5.400460E+2	2.047628E+0	2.091033E+0	2.039515E+0	2.839149E+0	2.075699E+0	2.043385E+0	2.092328E+0	2.051578E+0	1.974248E+0	2.099458E+0	2.042739E+0	2.022024E+0	2.177369E+0	2.073290E+0	2.046340E+0	2.044653E+0	2.007970E+0	2.095471E+0	2.023094E+0	2.028585E+0	2.062727E+0	2.048501E+0	2.073413E+0	2.037901E+0	2.070502E+0	2.051768E+0	2.059890E+0	2.018414E+0	2.075813E+0	2.084395E+0	2.056504E+0	2.007331E+0	2.055817E+0	2.031131E+0	1.915349E+0	2.032937E+0	1.940441E+0	2.066213E+0	2.048566E+0	2.071966E+0	2.024993E+0	2.029813E+0	2.066761E+0	2.037076E+0	2.021524E+0	2.009181E+0	2.047092E+0	1.981051E+0	2.054172E+0	2.037235E+0	2.062049E+0	2.025747E+0	2.030894E+0	2.090841E+0	2.021320E+0	2.134901E+0	2.050376E+0	2.060181E+0	2.000960E+0	2.015824E+0	1.999942E+0	2.039557E+0	1.985262E+0	2.001912E+0	2.014679E+0	1.947696E+0	2.067692E+0	1.966068E+0	2.009043E+0	2.033856E+0	2.091709E+0	1.976266E+0	2.011005E+0	2.016128E+0	2.030797E+0	2.055049E+0	2.009654E+0	1.963392E+0	1.999333E+0	2.011538E+0	2.053429E+0	2.036626E+0	2.012913E+0	1.975670E+0	2.007015E+0	2.028167E+0	2.028024E+0	2.067865E+0	2.002154E+0	2.071198E+0	2.029215E+0	1.997927E+0	2.058533E+0	2.014081E+0	1.967723E+0	1.944613E+0	2.014681E+0	2.034880E+0	2.011701E+0	1.966910E+0	2.041763E+0	2.040320E+0	2.023301E+0	2.014076E+0	1.985711E+0	2.023280E+0	1.957302E+0	1.993059E+0	1.983478E+0	1.943018E+0	2.035823E+0	1.957450E+0	1.974148E+0	1.933548E+0	1.939795E+0	2.055142E+0	2.060338E+0	2.058962E+0	2.023600E+0	1.957554E+0	2.001697E+0	2.105043E+0	1.963572E+0	2.021203E+0	1.955211E+0	1.982105E+0	1.988475E+0	1.961878E+0	2.013215E+0	1.978377E+0	2.033858E+0	1.978608E+0	1.973937E+0	2.052237E+0	2.009811E+0	1.956237E+0	2.013019E+0	2.007343E+0	2.039164E+0	1.964222E+0	2.023575E+0	2.058959E+0	1.966684E+0	1.915284E+0	2.026370E+0	1.986103E+0	2.064267E+0	2.004408E+0	1.938055E+0	1.947413E+0	1.979298E+0	1.924657E+0	1.977709E+0	1.964491E+0	2.024489E+0	1.965712E+0	2.048582E+0	2.001720E+0	1.978807E+0	1.964577E+0	2.052545E+0	1.990910E+0	2.032699E+0	1.936037E+0	1.957735E+0	2.008139E+0	1.893309E+0	1.847295E+0	1.883242E+0	1.974637E+0
5.402690E+2	2.054475E+0	2.041390E+0	2.010677E+0	2.817594E+0	2.018388E+0	2.007053E+0	1.983098E+0	1.968902E+0	2.074583E+0	2.006851E+0	2.016089E+0	2.112561E+0	2.095860E+0	2.062415E+0	1.975831E+0	1.924401E+0	1.958203E+0	2.059463E+0	1.999563E+0	1.991024E+0	1.994911E+0	2.007165E+0	2.005921E+0	2.027045E+0	2.008734E+0	2.001358E+0	2.007623E+0	1.964958E+0	1.946172E+0	2.016680E+0	2.015818E+0	1.978200E+0	1.940289E+0	2.017286E+0	1.995119E+0	2.018463E+0	1.951744E+0	2.005124E+0	1.957360E+0	2.005130E+0	2.019717E+0	2.083033E+0	1.995056E+0	2.007765E+0	1.980679E+0	2.008152E+0	1.961965E+0	1.941181E+0	2.000558E+0	2.052831E+0	1.994477E+0	2.040151E+0	1.993640E+0	1.934244E+0	1.974683E+0	2.012798E+0	1.973096E+0	1.996383E+0	1.951709E+0	2.023838E+0	2.000173E+0	1.984543E+0	1.973381E+0	1.917220E+0	1.980172E+0	1.967073E+0	1.998922E+0	2.002666E+0	1.972383E+0	1.943907E+0	2.036701E+0	2.012522E+0	1.991640E+0	1.991861E+0	1.939512E+0	1.978116E+0	1.926026E+0	1.935805E+0	1.990486E+0	2.036924E+0	1.914160E+0	1.979134E+0	1.933852E+0	1.942155E+0	1.937717E+0	1.994601E+0	1.907855E+0	1.959024E+0	1.955655E+0	1.980929E+0	1.965474E+0	1.977073E+0	1.911681E+0	2.023829E+0	1.949779E+0	1.976119E+0	1.919488E+0	2.046441E+0	1.941858E+0	1.907025E+0	1.931758E+0	2.002378E+0	1.962213E+0	2.020080E+0	1.908585E+0	1.994937E+0	1.923428E+0	1.943540E+0	1.991737E+0	1.960060E+0	1.992772E+0	1.919743E+0	1.898138E+0	1.933119E+0	1.928634E+0	2.047156E+0	1.979938E+0	1.965654E+0	1.926690E+0	1.961824E+0	1.927759E+0	2.017549E+0	1.931774E+0	1.992640E+0	1.913284E+0	1.944654E+0	1.920330E+0	1.951549E+0	1.921477E+0	1.880820E+0	1.960345E+0	1.840450E+0	1.926437E+0	1.940255E+0	1.935864E+0	1.929375E+0	1.962996E+0	1.911231E+0	1.947649E+0	1.932815E+0	1.990901E+0	1.948494E+0	1.835008E+0	1.932046E+0	1.974470E+0	2.010804E+0	1.949161E+0	1.872612E+0	1.864963E+0	1.986510E+0	1.899134E+0	1.916029E+0	1.900735E+0	1.925255E+0	1.964483E+0	1.888660E+0	1.951549E+0	1.932791E+0	1.860509E+0	1.906853E+0	2.021037E+0	1.930369E+0	1.907783E+0	1.846373E+0	1.946489E+0	1.899137E+0	1.875719E+0	1.916648E+0	1.914012E+0	1.831011E+0
5.405180E+2	1.932236E+0	1.982030E+0	1.934194E+0	2.769918E+0	1.962503E+0	2.001715E+0	2.012385E+0	1.932205E+0	1.865678E+0	1.964258E+0	1.906324E+0	1.924880E+0	1.968129E+0	1.930772E+0	1.955567E+0	1.928390E+0	1.969779E+0	1.957672E+0	1.963690E+0	1.912617E+0	1.888396E+0	1.944654E+0	1.961825E+0	1.961746E+0	1.945273E+0	1.956615E+0	1.975819E+0	1.882538E+0	1.910972E+0	1.891529E+0	1.957080E+0	1.914775E+0	1.925530E+0	2.008866E+0	1.864968E+0	1.959105E+0	1.925947E+0	1.936306E+0	1.926570E+0	1.858354E+0	1.861714E+0	1.943698E+0	1.910936E+0	1.971862E+0	1.941915E+0	1.924314E+0	1.924181E+0	1.921040E+0	1.956608E+0	1.946993E+0	1.936007E+0	1.922655E+0	1.911060E+0	1.905743E+0	1.946318E+0	1.996957E+0	1.958728E+0	1.935509E+0	1.966604E+0	1.900368E+0	1.862925E+0	1.927505E+0	1.919479E+0	1.887275E+0	1.938072E+0	1.904228E+0	1.917952E+0	1.913131E+0	1.961639E+0	1.933520E+0	1.989441E+0	1.982395E+0	1.937037E+0	1.920766E+0	1.902135E+0	1.949121E+0	1.887350E+0	1.895881E+0	1.859511E+0	1.875653E+0	1.924361E+0	1.937805E+0	1.890084E+0	1.871136E+0	1.830766E+0	1.956751E+0	1.951536E+0	1.851147E+0	1.901893E+0	1.985126E+0	1.863757E+0	1.881367E+0	1.929780E+0	1.922514E+0	1.859706E+0	1.865526E+0	1.910801E+0	2.003801E+0	1.881311E+0	1.851318E+0	1.925600E+0	1.871915E+0	1.931486E+0	1.911567E+0	1.864384E+0	1.841525E+0	1.804265E+0	1.887692E+0	1.879314E+0	1.916913E+0	1.909013E+0	1.902627E+0	1.922991E+0	1.854595E+0	1.878007E+0	1.946811E+0	1.918816E+0	1.921154E+0	1.829259E+0	1.926729E+0	1.843807E+0	1.936876E+0	1.898106E+0	1.911963E+0	1.902424E+0	1.912113E+0	1.855095E+0	1.869566E+0	1.896210E+0	1.844292E+0	1.975910E+0	1.832801E+0	1.826315E+0	1.858394E+0	1.931557E+0	1.850599E+0	1.944946E+0	1.892293E+0	1.909070E+0	1.931808E+0	1.929680E+0	1.874818E+0	1.903415E+0	1.872784E+0	1.910591E+0	1.944641E+0	1.893980E+0	1.830073E+0	1.837410E+0	1.893896E+0	1.838817E+0	1.886339E+0	1.911670E+0	1.873467E+0	1.902936E+0	1.864865E+0	1.887765E+0	1.863386E+0	1.817087E+0	1.896193E+0	1.944731E+0	1.840996E+0	1.783606E+0	1.911631E+0	1.889243E+0	1.842012E+0	1.866092E+0	1.863060E+0	1.890334E+0	1.859243E+0
5.407580E+2	1.844991E+0	1.818390E+0	1.869714E+0	2.563606E+0	1.827782E+0	1.820616E+0	1.905682E+0	1.827170E+0	1.788142E+0	1.780301E+0	1.762575E+0	1.831360E+0	1.876577E+0	1.833305E+0	1.814883E+0	1.777231E+0	1.786652E+0	1.845317E+0	1.846251E+0	1.793217E+0	1.793933E+0	1.768768E+0	1.822765E+0	1.817777E+0	1.785584E+0	1.767338E+0	1.849028E+0	1.810701E+0	1.837015E+0	1.856217E+0	1.802315E+0	1.805840E+0	1.811901E+0	1.787724E+0	1.686871E+0	1.787381E+0	1.764155E+0	1.804528E+0	1.761484E+0	1.787225E+0	1.822705E+0	1.788381E+0	1.761177E+0	1.802532E+0	1.817467E+0	1.769187E+0	1.832588E+0	1.802900E+0	1.723300E+0	1.766763E+0	1.856477E+0	1.742740E+0	1.847056E+0	1.842364E+0	1.798100E+0	1.844644E+0	1.849152E+0	1.807391E+0	1.759734E+0	1.786517E+0	1.825271E+0	1.750365E+0	1.763640E+0	1.769856E+0	1.772531E+0	1.792816E+0	1.796304E+0	1.814330E+0	1.782858E+0	1.819523E+0	1.806612E+0	1.812978E+0	1.814613E+0	1.820280E+0	1.797428E+0	1.835543E+0	1.813317E+0	1.772912E+0	1.729833E+0	1.817302E+0	1.734248E+0	1.811976E+0	1.702351E+0	1.766921E+0	1.761421E+0	1.746892E+0	1.787263E+0	1.754634E+0	1.788282E+0	1.790333E+0	1.760075E+0	1.805298E+0	1.781632E+0	1.745549E+0	1.739603E+0	1.781158E+0	1.745819E+0	1.831147E+0	1.779874E+0	1.760507E+0	1.806442E+0	1.801742E+0	1.810867E+0	1.783703E+0	1.757792E+0	1.820310E+0	1.772805E+0	1.765855E+0	1.804378E+0	1.768365E+0	1.759204E+0	1.762780E+0	1.809170E+0	1.759242E+0	1.737139E+0	1.728552E+0	1.806014E+0	1.813496E+0	1.787186E+0	1.801051E+0	1.849593E+0	1.823526E+0	1.704112E+0	1.757584E+0	1.783137E+0	1.748169E+0	1.780140E+0	1.801774E+0	1.789626E+0	1.775413E+0	1.796048E+0	1.798216E+0	1.719761E+0	1.852871E+0	1.820420E+0	1.756580E+0	1.753943E+0	1.765355E+0	1.872955E+0	1.818052E+0	1.795206E+0	1.786705E+0	1.767324E+0	1.774715E+0	1.775756E+0	1.814394E+0	1.686536E+0	1.778210E+0	1.706953E+0	1.801122E+0	1.756007E+0	1.662730E+0	1.819833E+0	1.800646E+0	1.788186E+0	1.740406E+0	1.774333E+0	1.769165E+0	1.766753E+0	1.716478E+0	1.774834E+0	1.772762E+0	1.794314E+0	1.759412E+0	1.786176E+0	1.781939E+0	1.772599E+0	1.691417E+0	1.762354E+0	1.778550E+0
5.410450E+2	1.696336E+0	1.722852E+0	1.742599E+0	2.626950E+0	1.715555E+0	1.673782E+0	1.742841E+0	1.690879E+0	1.722692E+0	1.742424E+0	1.691868E+0	1.732013E+0	1.701462E+0	1.738686E+0	1.696453E+0	1.716369E+0	1.686549E+0	1.676288E+0	1.747542E+0	1.694168E+0	1.717262E+0	1.672232E+0	1.703302E+0	1.743736E+0	1.719824E+0	1.676688E+0	1.711208E+0	1.698595E+0	1.740209E+0	1.716072E+0	1.750079E+0	1.705269E+0	1.735292E+0	1.642319E+0	1.696415E+0	1.768949E+0	1.672891E+0	1.660088E+0	1.730237E+0	1.697004E+0	1.707105E+0	1.672857E+0	1.667287E+0	1.714278E+0	1.706264E+0	1.682502E+0	1.683729E+0	1.672123E+0	1.725544E+0	1.680787E+0	1.702024E+0	1.702203E+0	1.734469E+0	1.621140E+0	1.735101E+0	1.712362E+0	1.734236E+0	1.689196E+0	1.716095E+0	1.737198E+0	1.729315E+0	1.689260E+0	1.747024E+0	1.661279E+0	1.703721E+0	1.645831E+0	1.628865E+0	1.677487E+0	1.706364E+0	1.719088E+0	1.707040E+0	1.709160E+0	1.717158E+0	1.660501E+0	1.745068E+0	1.801789E+0	1.679280E+0	1.661591E+0	1.682162E+0	1.725730E+0	1.703682E+0	1.711188E+0	1.660879E+0	1.611488E+0	1.681140E+0	1.678746E+0	1.701696E+0	1.675298E+0	1.695891E+0	1.799256E+0	1.692279E+0	1.685221E+0	1.770256E+0	1.700474E+0	1.682490E+0	1.689779E+0	1.698371E+0	1.700554E+0	1.676197E+0	1.666216E+0	1.752212E+0	1.680059E+0	1.703089E+0	1.644389E+0	1.676789E+0	1.708303E+0	1.708144E+0	1.650167E+0	1.664142E+0	1.669505E+0	1.710637E+0	1.666444E+0	1.640407E+0	1.691011E+0	1.670749E+0	1.719786E+0	1.654109E+0	1.735761E+0	1.694043E+0	1.679629E+0	1.683964E+0	1.694866E+0	1.706596E+0	1.724953E+0	1.679748E+0	1.691762E+0	1.660370E+0	1.625601E+0	1.670090E+0	1.677598E+0	1.748491E+0	1.696014E+0	1.675149E+0	1.713379E+0	1.745015E+0	1.643876E+0	1.655111E+0	1.633408E+0	1.765527E+0	1.653539E+0	1.690051E+0	1.743694E+0	1.592068E+0	1.677994E+0	1.753229E+0	1.716417E+0	1.678574E+0	1.724778E+0	1.635333E+0	1.686191E+0	1.713045E+0	1.634479E+0	1.661532E+0	1.694302E+0	1.704061E+0	1.658246E+0	1.673704E+0	1.688861E+0	1.637773E+0	1.692999E+0	1.735811E+0	1.656409E+0	1.651124E+0	1.644811E+0	1.624300E+0	1.721714E+0	1.643474E+0	1.715760E+0	1.661541E+0	1.669821E+0
5.412530E+2	1.754804E+0	1.759764E+0	1.745579E+0	2.442994E+0	1.719983E+0	1.754529E+0	1.741735E+0	1.774797E+0	1.718819E+0	1.738187E+0	1.704239E+0	1.722044E+0	1.780193E+0	1.671527E+0	1.703164E+0	1.694283E+0	1.810149E+0	1.676454E+0	1.704424E+0	1.761857E+0	1.703876E+0	1.688288E+0	1.775551E+0	1.743111E+0	1.727390E+0	1.698103E+0	1.709151E+0	1.710560E+0	1.713418E+0	1.714537E+0	1.741356E+0	1.695702E+0	1.703141E+0	1.701484E+0	1.610437E+0	1.673500E+0	1.632055E+0	1.684676E+0	1.708500E+0	1.716183E+0	1.673257E+0	1.710813E+0	1.721628E+0	1.701317E+0	1.728151E+0	1.703037E+0	1.695074E+0	1.681741E+0	1.725068E+0	1.644449E+0	1.713846E+0	1.698394E+0	1.763944E+0	1.687911E+0	1.727429E+0	1.680214E+0	1.746330E+0	1.722297E+0	1.648925E+0	1.709902E+0	1.708060E+0	1.688689E+0	1.734724E+0	1.661637E+0	1.720001E+0	1.740943E+0	1.753373E+0	1.736822E+0	1.700409E+0	1.735284E+0	1.744600E+0	1.750940E+0	1.749920E+0	1.727666E+0	1.699407E+0	1.720402E+0	1.730835E+0	1.698947E+0	1.677828E+0	1.652186E+0	1.686448E+0	1.671873E+0	1.713424E+0	1.648567E+0	1.678637E+0	1.647117E+0	1.734804E+0	1.674529E+0	1.726802E+0	1.745267E+0	1.730278E+0	1.673892E+0	1.710607E+0	1.703469E+0	1.658679E+0	1.684073E+0	1.619192E+0	1.750583E+0	1.669622E+0	1.693270E+0	1.751104E+0	1.668697E+0	1.735463E+0	1.671243E+0	1.744379E+0	1.740752E+0	1.704332E+0	1.667801E+0	1.639442E+0	1.736899E+0	1.727541E+0	1.697684E+0	1.707242E+0	1.695886E+0	1.711435E+0	1.743665E+0	1.683131E+0	1.710121E+0	1.680244E+0	1.725164E+0	1.706253E+0	1.693048E+0	1.692315E+0	1.723375E+0	1.712064E+0	1.674012E+0	1.672375E+0	1.676768E+0	1.638403E+0	1.646091E+0	1.764279E+0	1.689658E+0	1.692099E+0	1.727907E+0	1.725868E+0	1.619492E+0	1.675996E+0	1.721906E+0	1.732570E+0	1.697032E+0	1.690856E+0	1.717661E+0	1.669601E+0	1.697853E+0	1.695417E+0	1.743737E+0	1.751927E+0	1.683840E+0	1.625761E+0	1.659973E+0	1.680168E+0	1.648744E+0	1.645791E+0	1.730486E+0	1.733249E+0	1.699058E+0	1.689952E+0	1.669652E+0	1.665560E+0	1.702002E+0	1.765120E+0	1.641293E+0	1.607891E+0	1.718523E+0	1.652512E+0	1.717624E+0	1.650509E+0	1.601057E+0	1.578831E+0	1.756479E+0
5.415250E+2	1.634865E+0	1.601095E+0	1.604525E+0	2.179409E+0	1.630813E+0	1.543911E+0	1.649969E+0	1.625283E+0	1.602753E+0	1.566787E+0	1.560318E+0	1.618853E+0	1.635024E+0	1.592176E+0	1.574236E+0	1.545405E+0	1.615644E+0	1.579083E+0	1.584524E+0	1.604952E+0	1.565440E+0	1.597136E+0	1.561720E+0	1.573575E+0	1.549790E+0	1.532316E+0	1.584666E+0	1.573041E+0	1.616850E+0	1.606686E+0	1.604553E+0	1.583378E+0	1.527884E+0	1.534874E+0	1.550822E+0	1.589599E+0	1.556439E+0	1.555089E+0	1.625896E+0	1.527018E+0	1.582772E+0	1.612976E+0	1.630817E+0	1.606401E+0	1.606775E+0	1.576275E+0	1.574034E+0	1.556757E+0	1.562692E+0	1.605881E+0	1.555867E+0	1.575921E+0	1.573778E+0	1.543088E+0	1.603860E+0	1.574921E+0	1.585481E+0	1.532194E+0	1.563742E+0	1.585292E+0	1.594273E+0	1.537744E+0	1.574500E+0	1.591866E+0	1.610123E+0	1.534973E+0	1.615341E+0	1.580550E+0	1.559579E+0	1.573231E+0	1.550673E+0	1.595952E+0	1.586061E+0	1.603922E+0	1.597235E+0	1.581398E+0	1.595470E+0	1.561827E+0	1.536141E+0	1.588765E+0	1.559515E+0	1.617407E+0	1.509255E+0	1.529354E+0	1.571277E+0	1.521776E+0	1.612918E+0	1.555448E+0	1.617363E+0	1.504654E+0	1.595951E+0	1.602832E+0	1.622394E+0	1.533618E+0	1.531034E+0	1.543315E+0	1.589595E+0	1.548578E+0	1.569360E+0	1.547855E+0	1.517481E+0	1.549500E+0	1.615039E+0	1.564549E+0	1.572603E+0	1.563029E+0	1.537731E+0	1.484855E+0	1.573234E+0	1.584016E+0	1.558662E+0	1.532239E+0	1.521704E+0	1.546739E+0	1.548205E+0	1.554564E+0	1.592593E+0	1.562798E+0	1.590745E+0	1.562846E+0	1.563837E+0	1.590354E+0	1.537479E+0	1.624184E+0	1.589025E+0	1.554755E+0	1.532084E+0	1.575707E+0	1.533418E+0	1.586195E+0	1.663196E+0	1.509861E+0	1.598910E+0	1.563885E+0	1.594447E+0	1.568854E+0	1.507006E+0	1.521853E+0	1.593022E+0	1.610839E+0	1.546297E+0	1.594990E+0	1.545384E+0	1.573858E+0	1.601209E+0	1.543041E+0	1.556095E+0	1.560659E+0	1.522442E+0	1.516850E+0	1.598082E+0	1.555384E+0	1.587000E+0	1.675683E+0	1.615644E+0	1.561475E+0	1.553710E+0	1.618005E+0	1.545905E+0	1.534931E+0	1.601154E+0	1.557289E+0	1.571080E+0	1.512742E+0	1.501982E+0	1.564485E+0	1.618042E+0	1.505511E+0	1.549433E+0	1.596162E+0
5.417600E+2	1.459003E+0	1.455544E+0	1.423883E+0	1.980676E+0	1.477244E+0	1.457868E+0	1.458227E+0	1.467330E+0	1.456454E+0	1.489241E+0	1.445141E+0	1.472750E+0	1.465004E+0	1.428031E+0	1.436684E+0	1.445924E+0	1.426015E+0	1.395064E+0	1.423996E+0	1.435802E+0	1.413979E+0	1.454343E+0	1.466528E+0	1.413319E+0	1.407897E+0	1.486208E+0	1.440074E+0	1.480604E+0	1.457128E+0	1.456871E+0	1.452962E+0	1.388187E+0	1.409602E+0	1.505898E+0	1.431865E+0	1.448248E+0	1.430354E+0	1.400000E+0	1.455915E+0	1.443944E+0	1.427516E+0	1.425516E+0	1.468844E+0	1.442983E+0	1.441120E+0	1.409534E+0	1.455240E+0	1.411283E+0	1.442616E+0	1.391966E+0	1.419200E+0	1.454741E+0	1.436205E+0	1.400420E+0	1.434912E+0	1.462302E+0	1.479935E+0	1.467431E+0	1.432986E+0	1.473109E+0	1.407304E+0	1.410109E+0	1.435155E+0	1.428785E+0	1.473228E+0	1.467938E+0	1.410053E+0	1.434918E+0	1.468427E+0	1.410815E+0	1.453187E+0	1.477874E+0	1.414292E+0	1.416120E+0	1.455205E+0	1.428903E+0	1.451597E+0	1.370784E+0	1.426873E+0	1.373891E+0	1.429908E+0	1.448128E+0	1.425567E+0	1.397828E+0	1.443228E+0	1.460150E+0	1.456687E+0	1.437810E+0	1.420124E+0	1.430332E+0	1.406507E+0	1.425493E+0	1.485307E+0	1.405641E+0	1.416060E+0	1.430141E+0	1.423634E+0	1.424536E+0	1.432275E+0	1.406321E+0	1.438072E+0	1.454052E+0	1.477515E+0	1.439239E+0	1.419660E+0	1.474818E+0	1.414826E+0	1.441370E+0	1.432090E+0	1.401481E+0	1.441462E+0	1.384427E+0	1.429510E+0	1.486056E+0	1.374691E+0	1.371520E+0	1.439764E+0	1.449381E+0	1.409203E+0	1.495156E+0	1.396014E+0	1.455447E+0	1.396068E+0	1.463341E+0	1.419892E+0	1.438647E+0	1.413089E+0	1.413470E+0	1.403444E+0	1.453255E+0	1.454561E+0	1.359372E+0	1.438150E+0	1.408941E+0	1.464461E+0	1.455940E+0	1.419699E+0	1.418277E+0	1.425673E+0	1.387071E+0	1.465246E+0	1.401637E+0	1.451123E+0	1.383794E+0	1.423244E+0	1.392288E+0	1.423674E+0	1.404089E+0	1.319573E+0	1.351606E+0	1.466129E+0	1.387947E+0	1.455192E+0	1.411578E+0	1.450715E+0	1.412713E+0	1.447385E+0	1.413673E+0	1.431455E+0	1.432877E+0	1.511141E+0	1.416557E+0	1.438583E+0	1.358335E+0	1.469580E+0	1.392962E+0	1.417083E+0	1.403481E+0	1.420768E+0	1.344090E+0
5.420210E+2	1.332033E+0	1.302760E+0	1.324366E+0	1.893819E+0	1.319348E+0	1.296600E+0	1.372133E+0	1.278814E+0	1.278700E+0	1.327474E+0	1.266934E+0	1.299485E+0	1.294885E+0	1.303919E+0	1.239421E+0	1.263287E+0	1.288169E+0	1.302328E+0	1.356130E+0	1.294719E+0	1.328398E+0	1.280575E+0	1.311384E+0	1.312945E+0	1.325042E+0	1.261103E+0	1.286295E+0	1.261766E+0	1.307827E+0	1.300273E+0	1.316704E+0	1.321026E+0	1.292934E+0	1.260108E+0	1.254708E+0	1.273921E+0	1.267820E+0	1.272554E+0	1.253649E+0	1.257301E+0	1.285050E+0	1.343974E+0	1.322570E+0	1.328313E+0	1.248631E+0	1.285519E+0	1.308674E+0	1.267740E+0	1.275829E+0	1.296830E+0	1.341011E+0	1.253167E+0	1.282195E+0	1.225769E+0	1.353414E+0	1.292086E+0	1.320030E+0	1.282070E+0	1.277289E+0	1.303190E+0	1.261761E+0	1.274517E+0	1.266359E+0	1.287614E+0	1.299116E+0	1.240254E+0	1.337963E+0	1.277518E+0	1.290753E+0	1.285219E+0	1.289521E+0	1.322705E+0	1.296274E+0	1.333129E+0	1.350923E+0	1.270924E+0	1.287131E+0	1.291843E+0	1.305633E+0	1.270263E+0	1.238058E+0	1.311523E+0	1.296082E+0	1.248709E+0	1.279689E+0	1.326171E+0	1.280786E+0	1.322819E+0	1.288194E+0	1.291420E+0	1.234386E+0	1.365572E+0	1.286145E+0	1.269582E+0	1.297975E+0	1.274529E+0	1.323870E+0	1.298168E+0	1.314279E+0	1.303380E+0	1.309412E+0	1.261058E+0	1.328758E+0	1.313257E+0	1.237793E+0	1.300562E+0	1.223297E+0	1.236155E+0	1.299387E+0	1.286816E+0	1.245517E+0	1.298651E+0	1.290564E+0	1.292769E+0	1.240066E+0	1.336710E+0	1.230045E+0	1.286326E+0	1.308095E+0	1.295754E+0	1.251414E+0	1.331458E+0	1.331416E+0	1.296467E+0	1.313436E+0	1.321749E+0	1.303394E+0	1.269976E+0	1.220524E+0	1.205868E+0	1.350073E+0	1.229273E+0	1.291795E+0	1.273618E+0	1.326493E+0	1.289727E+0	1.304578E+0	1.235957E+0	1.306416E+0	1.378705E+0	1.303716E+0	1.277051E+0	1.264338E+0	1.269424E+0	1.322595E+0	1.251410E+0	1.374448E+0	1.287418E+0	1.250344E+0	1.276309E+0	1.284852E+0	1.233112E+0	1.258770E+0	1.281349E+0	1.292736E+0	1.314101E+0	1.255984E+0	1.279300E+0	1.288847E+0	1.280553E+0	1.293517E+0	1.208070E+0	1.281449E+0	1.210000E+0	1.294410E+0	1.265252E+0	1.285541E+0	1.272952E+0	1.285904E+0	1.276367E+0
5.422620E+2	1.058407E+0	1.093573E+0	1.116241E+0	1.549287E+0	1.077825E+0	1.116211E+0	1.116028E+0	1.099908E+0	1.060688E+0	1.100659E+0	1.113017E+0	1.128612E+0	1.125623E+0	1.133201E+0	1.086533E+0	1.113470E+0	1.116070E+0	1.103380E+0	1.075571E+0	1.066921E+0	1.104082E+0	1.106284E+0	1.149945E+0	1.098050E+0	1.099820E+0	1.100144E+0	1.107074E+0	1.101293E+0	1.100104E+0	1.095362E+0	1.128367E+0	1.084238E+0	1.083066E+0	1.108558E+0	1.075965E+0	1.096992E+0	1.118278E+0	1.092973E+0	1.087912E+0	1.099646E+0	1.095228E+0	1.130713E+0	1.131988E+0	1.098231E+0	1.130792E+0	1.094352E+0	1.072585E+0	1.066963E+0	1.057848E+0	1.116407E+0	1.108829E+0	1.081026E+0	1.114834E+0	1.090351E+0	1.096972E+0	1.113706E+0	1.103937E+0	1.088985E+0	1.082741E+0	1.096467E+0	1.109126E+0	1.062074E+0	1.093939E+0	1.082621E+0	1.105111E+0	1.116337E+0	1.149882E+0	1.138619E+0	1.098375E+0	1.095832E+0	1.099433E+0	1.076381E+0	1.108331E+0	1.110030E+0	1.192093E+0	1.123550E+0	1.138909E+0	1.051722E+0	1.113770E+0	1.101616E+0	1.081182E+0	1.094237E+0	1.153919E+0	1.132446E+0	1.062466E+0	1.114849E+0	1.105289E+0	1.113160E+0	1.087675E+0	1.130127E+0	1.119472E+0	1.156722E+0	1.080310E+0	1.117104E+0	1.088769E+0	1.089513E+0	1.117006E+0	1.070369E+0	1.097000E+0	1.092336E+0	1.109315E+0	1.078062E+0	1.164327E+0	1.106795E+0	1.055686E+0	1.106625E+0	1.088928E+0	1.104425E+0	1.098204E+0	1.134875E+0	1.084858E+0	1.056824E+0	1.068385E+0	1.103885E+0	1.071060E+0	1.085622E+0	1.078112E+0	1.095394E+0	1.109243E+0	1.084468E+0	1.080711E+0	1.158616E+0	1.087308E+0	1.139388E+0	1.132842E+0	1.063455E+0	1.112471E+0	1.079265E+0	1.061125E+0	1.095006E+0	1.122609E+0	1.068339E+0	1.132143E+0	1.095876E+0	1.141856E+0	1.065205E+0	1.105189E+0	1.083162E+0	1.144886E+0	1.101239E+0	1.136267E+0	1.058614E+0	1.107897E+0	1.093579E+0	1.108637E+0	1.112401E+0	1.106766E+0	1.091096E+0	1.077235E+0	1.081484E+0	1.122626E+0	1.095748E+0	1.148589E+0	1.117783E+0	1.124890E+0	1.084870E+0	1.019863E+0	1.115316E+0	1.065040E+0	1.072573E+0	1.154500E+0	1.110141E+0	1.102417E+0	1.068358E+0	1.095349E+0	1.062546E+0	1.091757E+0	1.074172E+0	1.130636E+0	1.066846E+0
5.425190E+2	9.623409E-1	9.788590E-1	1.023549E+0	1.574655E+0	9.653855E-1	9.250954E-1	1.004838E+0	9.561038E-1	9.625240E-1	9.628746E-1	9.891594E-1	9.944938E-1	9.753354E-1	9.919598E-1	9.830193E-1	9.464592E-1	9.981104E-1	9.804199E-1	9.317699E-1	1.002165E+0	9.823204E-1	9.788184E-1	9.768497E-1	9.607093E-1	1.022123E+0	9.860967E-1	1.007772E+0	9.848923E-1	1.001457E+0	9.583619E-1	9.856833E-1	1.013676E+0	9.879133E-1	9.420767E-1	9.362814E-1	1.018552E+0	9.358958E-1	9.455254E-1	9.661001E-1	9.245786E-1	9.681139E-1	1.002044E+0	9.575207E-1	9.928759E-1	9.999124E-1	9.820066E-1	9.920603E-1	9.137506E-1	1.021171E+0	9.550063E-1	9.818604E-1	9.960814E-1	1.013573E+0	9.607468E-1	9.830890E-1	9.680286E-1	9.773709E-1	9.749721E-1	1.005121E+0	1.001839E+0	9.726432E-1	9.662315E-1	9.593930E-1	9.616549E-1	9.655000E-1	9.679441E-1	9.859449E-1	9.711359E-1	1.018084E+0	1.021459E+0	9.976463E-1	1.011195E+0	9.815513E-1	9.964990E-1	9.442930E-1	9.633276E-1	9.891307E-1	9.470829E-1	9.514478E-1	9.604633E-1	9.972604E-1	9.932904E-1	9.402928E-1	9.538616E-1	9.938136E-1	9.793530E-1	9.622060E-1	1.012054E+0	9.705952E-1	9.678925E-1	9.509804E-1	9.837426E-1	9.638906E-1	9.496577E-1	9.826179E-1	9.611603E-1	9.860305E-1	9.957296E-1	9.290355E-1	9.953367E-1	1.015820E+0	9.681956E-1	9.532207E-1	9.469180E-1	1.006673E+0	9.628973E-1	9.368456E-1	9.977727E-1	9.060120E-1	1.029881E+0	9.945833E-1	9.551374E-1	9.738844E-1	9.711513E-1	9.839577E-1	1.016192E+0	9.449275E-1	9.754706E-1	1.013123E+0	9.491314E-1	1.009923E+0	1.030796E+0	9.627799E-1	1.006901E+0	9.818212E-1	9.316040E-1	9.586718E-1	9.519650E-1	9.503785E-1	9.722025E-1	9.867154E-1	1.008474E+0	9.816405E-1	9.829008E-1	1.003877E+0	9.876438E-1	9.581597E-1	9.813754E-1	9.871206E-1	9.660275E-1	1.004562E+0	9.569286E-1	9.651578E-1	9.922133E-1	9.736633E-1	9.492673E-1	9.894758E-1	1.007309E+0	9.761993E-1	9.413007E-1	9.947885E-1	1.011672E+0	9.965634E-1	9.707994E-1	9.660651E-1	9.986440E-1	9.808417E-1	1.018806E+0	9.346549E-1	9.655902E-1	1.043861E+0	9.781868E-1	9.842615E-1	9.383895E-1	9.504433E-1	9.634182E-1	9.844047E-1	9.838409E-1	9.067602E-1	9.834537E-1
5.427760E+2	9.799641E-1	9.748693E-1	9.584307E-1	2.066812E+0	9.925402E-1	9.619235E-1	9.934847E-1	1.019851E+0	9.818705E-1	9.954799E-1	9.540144E-1	9.821112E-1	1.021717E+0	9.779691E-1	9.442302E-1	9.830583E-1	9.711675E-1	9.789691E-1	9.811303E-1	9.936028E-1	9.679454E-1	9.763961E-1	9.753176E-1	9.876474E-1	9.672358E-1	9.180235E-1	1.006667E+0	9.379591E-1	9.841798E-1	9.988864E-1	9.409921E-1	9.718753E-1	9.624200E-1	9.682768E-1	9.803562E-1	9.945559E-1	9.578957E-1	9.424447E-1	9.600310E-1	9.731255E-1	9.929420E-1	1.025631E+0	9.784425E-1	9.601390E-1	9.532722E-1	9.332151E-1	9.621592E-1	9.750179E-1	9.887436E-1	9.753750E-1	9.379860E-1	9.957877E-1	1.006159E+0	9.812849E-1	9.633501E-1	9.917778E-1	9.612130E-1	9.719263E-1	9.718018E-1	1.015761E+0	9.892523E-1	9.571567E-1	9.854631E-1	9.821244E-1	9.683043E-1	9.528278E-1	9.931382E-1	9.684833E-1	9.944301E-1	9.741803E-1	1.006378E+0	1.045795E+0	9.708252E-1	1.009290E+0	9.927158E-1	9.487931E-1	9.681039E-1	9.526573E-1	9.682696E-1	9.879278E-1	9.916476E-1	9.748567E-1	9.874420E-1	9.313144E-1	9.236930E-1	9.782732E-1	9.917831E-1	9.409956E-1	9.689572E-1	9.847822E-1	9.921235E-1	9.737725E-1	9.918330E-1	9.898168E-1	9.910230E-1	9.766747E-1	1.026756E+0	9.780331E-1	9.553674E-1	9.556083E-1	9.760991E-1	9.166987E-1	1.005232E+0	9.936899E-1	9.958347E-1	9.810523E-1	9.794082E-1	9.761984E-1	9.669501E-1	9.935947E-1	9.839840E-1	9.929994E-1	1.001763E+0	9.591291E-1	9.358163E-1	9.592500E-1	9.693320E-1	1.002388E+0	9.773923E-1	9.733260E-1	9.897336E-1	1.012120E+0	9.794942E-1	9.911769E-1	9.334086E-1	9.784820E-1	9.665106E-1	9.205394E-1	9.345526E-1	9.599741E-1	1.028228E+0	9.486661E-1	9.641506E-1	9.684451E-1	1.018858E+0	9.987862E-1	1.012818E+0	9.308984E-1	9.528532E-1	9.662707E-1	1.033496E+0	9.531992E-1	9.564997E-1	1.014168E+0	1.035807E+0	9.896269E-1	9.632063E-1	9.486412E-1	9.609683E-1	9.457252E-1	1.017471E+0	9.858574E-1	9.257732E-1	9.154307E-1	9.482440E-1	9.569639E-1	9.777485E-1	9.772051E-1	9.627040E-1	1.015736E+0	1.000942E+0	9.712448E-1	9.383800E-1	9.673727E-1	9.455590E-1	9.754285E-1	9.402008E-1	9.691648E-1	9.648405E-1	9.692327E-1
5.430070E+2	1.017314E+0	1.045741E+0	1.008087E+0	2.553120E+0	1.012940E+0	1.008551E+0	1.030922E+0	1.002754E+0	9.773017E-1	1.008339E+0	9.715830E-1	1.016959E+0	1.027491E+0	9.950529E-1	1.004280E+0	1.000550E+0	9.880875E-1	9.599803E-1	1.013275E+0	9.687438E-1	1.003404E+0	9.852392E-1	1.000053E+0	9.980429E-1	1.066042E+0	1.001382E+0	1.008149E+0	9.717307E-1	1.007196E+0	1.042624E+0	9.912905E-1	9.770098E-1	1.020155E+0	1.000804E+0	9.654262E-1	9.872810E-1	9.926207E-1	9.559983E-1	9.823973E-1	1.029004E+0	9.932740E-1	1.014396E+0	1.020706E+0	1.030816E+0	9.862676E-1	1.016526E+0	1.018616E+0	9.894764E-1	1.014175E+0	9.705050E-1	1.011600E+0	1.012223E+0	1.028985E+0	9.534362E-1	9.831442E-1	1.051799E+0	1.010258E+0	9.446082E-1	1.000411E+0	1.050457E+0	9.928520E-1	9.969345E-1	1.000884E+0	1.009751E+0	9.635888E-1	1.001810E+0	1.006530E+0	9.794166E-1	9.749572E-1	1.032363E+0	1.008429E+0	1.013517E+0	9.996100E-1	9.760025E-1	9.810871E-1	9.675459E-1	1.001919E+0	9.447719E-1	9.856162E-1	9.620258E-1	9.991423E-1	1.003572E+0	1.011423E+0	9.655796E-1	9.743892E-1	9.941044E-1	1.054451E+0	1.000452E+0	9.810308E-1	9.810452E-1	1.018283E+0	9.531173E-1	1.027822E+0	1.041439E+0	9.728790E-1	1.006914E+0	1.005685E+0	1.008235E+0	1.041503E+0	9.626383E-1	1.002726E+0	9.632949E-1	1.023482E+0	1.051883E+0	1.006783E+0	9.818240E-1	1.025287E+0	9.692333E-1	9.801427E-1	9.786026E-1	9.889653E-1	1.000061E+0	1.045846E+0	9.720686E-1	9.906297E-1	9.791569E-1	1.008480E+0	9.746805E-1	1.023415E+0	1.044226E+0	1.017238E+0	1.037640E+0	9.736561E-1	1.004544E+0	1.011867E+0	9.965657E-1	1.027458E+0	1.002733E+0	1.017904E+0	9.707938E-1	1.018111E+0	9.720966E-1	9.854734E-1	1.033981E+0	9.943022E-1	1.016539E+0	1.021075E+0	9.948152E-1	1.021833E+0	1.004967E+0	1.033334E+0	1.006163E+0	9.686188E-1	1.031344E+0	9.954265E-1	9.772853E-1	1.036718E+0	9.781428E-1	9.463237E-1	9.611004E-1	1.008541E+0	9.655182E-1	9.801261E-1	9.709141E-1	1.026660E+0	9.702452E-1	9.954799E-1	1.007346E+0	9.733890E-1	9.779799E-1	1.011517E+0	1.015613E+0	9.384405E-1	9.536633E-1	9.364358E-1	9.995196E-1	1.008470E+0	1.033136E+0	9.792486E-1	9.990942E-1
5.432640E+2	1.100661E+0	1.113832E+0	1.118287E+0	2.556308E+0	1.130551E+0	1.139845E+0	1.155293E+0	1.111865E+0	1.139041E+0	1.140873E+0	1.133748E+0	1.145254E+0	1.102071E+0	1.156352E+0	1.123829E+0	1.112637E+0	1.102251E+0	1.164469E+0	1.096858E+0	1.105829E+0	1.143327E+0	1.120912E+0	1.103277E+0	1.134349E+0	1.179981E+0	1.149118E+0	1.128971E+0	1.134368E+0	1.175940E+0	1.136225E+0	1.123210E+0	1.122148E+0	1.116630E+0	1.113105E+0	1.054633E+0	1.132452E+0	1.095068E+0	1.117591E+0	1.104468E+0	1.077155E+0	1.165571E+0	1.171958E+0	1.122038E+0	1.125240E+0	1.137432E+0	1.131849E+0	1.116158E+0	1.083637E+0	1.135354E+0	1.102506E+0	1.106414E+0	1.083973E+0	1.103589E+0	1.083927E+0	1.069711E+0	1.112194E+0	1.082902E+0	1.100684E+0	1.110043E+0	1.192639E+0	1.100484E+0	1.105675E+0	1.103670E+0	1.082547E+0	1.131586E+0	1.095597E+0	1.103312E+0	1.148738E+0	1.133978E+0	1.103530E+0	1.113736E+0	1.124841E+0	1.118735E+0	1.125293E+0	1.140733E+0	1.101906E+0	1.122821E+0	1.092360E+0	1.111852E+0	1.091374E+0	1.103564E+0	1.084175E+0	1.085905E+0	1.089862E+0	1.101206E+0	1.131932E+0	1.113916E+0	1.113272E+0	1.103264E+0	1.118449E+0	1.129710E+0	1.125539E+0	1.150658E+0	1.153783E+0	1.103940E+0	1.122470E+0	1.106368E+0	1.121047E+0	1.137413E+0	1.132898E+0	1.118346E+0	1.148175E+0	1.117229E+0	1.134008E+0	1.098912E+0	1.083654E+0	1.063344E+0	1.123973E+0	1.107770E+0	1.122448E+0	1.113182E+0	1.156090E+0	1.114904E+0	1.064463E+0	1.101724E+0	1.136345E+0	1.105805E+0	1.154520E+0	1.107542E+0	1.146813E+0	1.117399E+0	1.182354E+0	1.122960E+0	1.170094E+0	1.129434E+0	1.109600E+0	1.113157E+0	1.116247E+0	1.078664E+0	1.118020E+0	1.084455E+0	1.077364E+0	1.100451E+0	1.126974E+0	1.153380E+0	1.132844E+0	1.090523E+0	1.065453E+0	1.120897E+0	1.075004E+0	1.140051E+0	1.089656E+0	1.100986E+0	1.133574E+0	1.114244E+0	1.172216E+0	1.129995E+0	1.133940E+0	1.064573E+0	1.092589E+0	1.146458E+0	1.133428E+0	1.116369E+0	1.092241E+0	1.161716E+0	1.096411E+0	1.081067E+0	1.142083E+0	1.155021E+0	1.153864E+0	1.095190E+0	1.126682E+0	1.100165E+0	1.138099E+0	1.083774E+0	1.133967E+0	1.127331E+0	1.116759E+0	1.055796E+0	1.142448E+0
5.435220E+2	1.308257E+0	1.291171E+0	1.306753E+0	2.669407E+0	1.288333E+0	1.279614E+0	1.316405E+0	1.315527E+0	1.298794E+0	1.318002E+0	1.271355E+0	1.276472E+0	1.283858E+0	1.309021E+0	1.257161E+0	1.262228E+0	1.303487E+0	1.266176E+0	1.273887E+0	1.289356E+0	1.294619E+0	1.285236E+0	1.259871E+0	1.273151E+0	1.354522E+0	1.318513E+0	1.294219E+0	1.343305E+0	1.257819E+0	1.267404E+0	1.283164E+0	1.252608E+0	1.290565E+0	1.244800E+0	1.213283E+0	1.284566E+0	1.272230E+0	1.240563E+0	1.303661E+0	1.251994E+0	1.282620E+0	1.338343E+0	1.284014E+0	1.329535E+0	1.296811E+0	1.275995E+0	1.292566E+0	1.188917E+0	1.303114E+0	1.281172E+0	1.327602E+0	1.247447E+0	1.298752E+0	1.300583E+0	1.326362E+0	1.367712E+0	1.258827E+0	1.236446E+0	1.270253E+0	1.250710E+0	1.214616E+0	1.289630E+0	1.262636E+0	1.281061E+0	1.331839E+0	1.246204E+0	1.259589E+0	1.239790E+0	1.304639E+0	1.252829E+0	1.306525E+0	1.310399E+0	1.224980E+0	1.282171E+0	1.279531E+0	1.252150E+0	1.299667E+0	1.330121E+0	1.239953E+0	1.217010E+0	1.282521E+0	1.248119E+0	1.223926E+0	1.275324E+0	1.240284E+0	1.274408E+0	1.261548E+0	1.274740E+0	1.261483E+0	1.344741E+0	1.304398E+0	1.228337E+0	1.272352E+0	1.243355E+0	1.261551E+0	1.284845E+0	1.262510E+0	1.252272E+0	1.224912E+0	1.332493E+0	1.284998E+0	1.235430E+0	1.281636E+0	1.304045E+0	1.274198E+0	1.273846E+0	1.254542E+0	1.285954E+0	1.224301E+0	1.259028E+0	1.258800E+0	1.259116E+0	1.247555E+0	1.239840E+0	1.269043E+0	1.240259E+0	1.298216E+0	1.307869E+0	1.244080E+0	1.286590E+0	1.228525E+0	1.308725E+0	1.299172E+0	1.315734E+0	1.254813E+0	1.275381E+0	1.275081E+0	1.288626E+0	1.314886E+0	1.252641E+0	1.291549E+0	1.337805E+0	1.310169E+0	1.279431E+0	1.327442E+0	1.314658E+0	1.318237E+0	1.235640E+0	1.275261E+0	1.286157E+0	1.259459E+0	1.321400E+0	1.247246E+0	1.251125E+0	1.295478E+0	1.311841E+0	1.324015E+0	1.263412E+0	1.263583E+0	1.284574E+0	1.282476E+0	1.245500E+0	1.269318E+0	1.316129E+0	1.275810E+0	1.294944E+0	1.256046E+0	1.255314E+0	1.223622E+0	1.304353E+0	1.326116E+0	1.233682E+0	1.311690E+0	1.247743E+0	1.234917E+0	1.268133E+0	1.325617E+0	1.240842E+0	1.349471E+0	1.305756E+0
5.437590E+2	1.399967E+0	1.399330E+0	1.402409E+0	3.820277E+0	1.454809E+0	1.437433E+0	1.478058E+0	1.483470E+0	1.433320E+0	1.451685E+0	1.411241E+0	1.463762E+0	1.434167E+0	1.421709E+0	1.411648E+0	1.435256E+0	1.429132E+0	1.418806E+0	1.393955E+0	1.384095E+0	1.446679E+0	1.421455E+0	1.408661E+0	1.402444E+0	1.431217E+0	1.403061E+0	1.402932E+0	1.436609E+0	1.429447E+0	1.394148E+0	1.370974E+0	1.432225E+0	1.417191E+0	1.372513E+0	1.379312E+0	1.405358E+0	1.442024E+0	1.390052E+0	1.425122E+0	1.421553E+0	1.435018E+0	1.423404E+0	1.426241E+0	1.446560E+0	1.419093E+0	1.423722E+0	1.463115E+0	1.458182E+0	1.447735E+0	1.414726E+0	1.397059E+0	1.413903E+0	1.417542E+0	1.443754E+0	1.447482E+0	1.467008E+0	1.370378E+0	1.408751E+0	1.435784E+0	1.428866E+0	1.407813E+0	1.411431E+0	1.427853E+0	1.419293E+0	1.428991E+0	1.394685E+0	1.416444E+0	1.390948E+0	1.412358E+0	1.390938E+0	1.411589E+0	1.461351E+0	1.465670E+0	1.413320E+0	1.380080E+0	1.360511E+0	1.411440E+0	1.433462E+0	1.424638E+0	1.387538E+0	1.421625E+0	1.455067E+0	1.366702E+0	1.351808E+0	1.412741E+0	1.418558E+0	1.420587E+0	1.418010E+0	1.394288E+0	1.440411E+0	1.397903E+0	1.413990E+0	1.411558E+0	1.408962E+0	1.375262E+0	1.412049E+0	1.386681E+0	1.403197E+0	1.339794E+0	1.395444E+0	1.413254E+0	1.424226E+0	1.421826E+0	1.404760E+0	1.484424E+0	1.441409E+0	1.308936E+0	1.404002E+0	1.391931E+0	1.432212E+0	1.388867E+0	1.378484E+0	1.381755E+0	1.375600E+0	1.396417E+0	1.351642E+0	1.419206E+0	1.401287E+0	1.379185E+0	1.475917E+0	1.400434E+0	1.396149E+0	1.390703E+0	1.450724E+0	1.372174E+0	1.410854E+0	1.447396E+0	1.383983E+0	1.408955E+0	1.413756E+0	1.398164E+0	1.466242E+0	1.415848E+0	1.346447E+0	1.385240E+0	1.391460E+0	1.438958E+0	1.410123E+0	1.407544E+0	1.353863E+0	1.439247E+0	1.379022E+0	1.428975E+0	1.388939E+0	1.397265E+0	1.454464E+0	1.436161E+0	1.384507E+0	1.392222E+0	1.375630E+0	1.351186E+0	1.377286E+0	1.434415E+0	1.322677E+0	1.368748E+0	1.404653E+0	1.382506E+0	1.440801E+0	1.342370E+0	1.383353E+0	1.485313E+0	1.420322E+0	1.429419E+0	1.389797E+0	1.399607E+0	1.422228E+0	1.341567E+0	1.438656E+0	1.380841E+0	1.449118E+0
5.440120E+2	1.471565E+0	1.444107E+0	1.454134E+0	4.636668E+0	1.501964E+0	1.420698E+0	1.497807E+0	1.496945E+0	1.439884E+0	1.442225E+0	1.419423E+0	1.506129E+0	1.483846E+0	1.466144E+0	1.416973E+0	1.412926E+0	1.449920E+0	1.454927E+0	1.455599E+0	1.493701E+0	1.462388E+0	1.458238E+0	1.422578E+0	1.382601E+0	1.444870E+0	1.432548E+0	1.438631E+0	1.441716E+0	1.464321E+0	1.494327E+0	1.458655E+0	1.413957E+0	1.474356E+0	1.366196E+0	1.397584E+0	1.469359E+0	1.437849E+0	1.470982E+0	1.413315E+0	1.473293E+0	1.474446E+0	1.501321E+0	1.486113E+0	1.392659E+0	1.431478E+0	1.462946E+0	1.439707E+0	1.392451E+0	1.405492E+0	1.427251E+0	1.413576E+0	1.445772E+0	1.435854E+0	1.419881E+0	1.436741E+0	1.431598E+0	1.468877E+0	1.401567E+0	1.442800E+0	1.457067E+0	1.488214E+0	1.459131E+0	1.464474E+0	1.441993E+0	1.491563E+0	1.415442E+0	1.376434E+0	1.443822E+0	1.441820E+0	1.446597E+0	1.446893E+0	1.538652E+0	1.441873E+0	1.424370E+0	1.457807E+0	1.446937E+0	1.375667E+0	1.409550E+0	1.416513E+0	1.444000E+0	1.524341E+0	1.448512E+0	1.416459E+0	1.428911E+0	1.419948E+0	1.399761E+0	1.443551E+0	1.439437E+0	1.397121E+0	1.452222E+0	1.445627E+0	1.446348E+0	1.439854E+0	1.494190E+0	1.427054E+0	1.403457E+0	1.451532E+0	1.418964E+0	1.412307E+0	1.463731E+0	1.407522E+0	1.426939E+0	1.413467E+0	1.455128E+0	1.460616E+0	1.497469E+0	1.451678E+0	1.453991E+0	1.443516E+0	1.409610E+0	1.464489E+0	1.421087E+0	1.432976E+0	1.389330E+0	1.396250E+0	1.503168E+0	1.449858E+0	1.440282E+0	1.414335E+0	1.429835E+0	1.451295E+0	1.438171E+0	1.462872E+0	1.494117E+0	1.407373E+0	1.447558E+0	1.429510E+0	1.426675E+0	1.391193E+0	1.416721E+0	1.467585E+0	1.463881E+0	1.452659E+0	1.415064E+0	1.403441E+0	1.466826E+0	1.442455E+0	1.447291E+0	1.389524E+0	1.479678E+0	1.478188E+0	1.429030E+0	1.406900E+0	1.429474E+0	1.431405E+0	1.455445E+0	1.422364E+0	1.445169E+0	1.413780E+0	1.403211E+0	1.442164E+0	1.469950E+0	1.452159E+0	1.488142E+0	1.413217E+0	1.441776E+0	1.407455E+0	1.410484E+0	1.413684E+0	1.400321E+0	1.547794E+0	1.382582E+0	1.380236E+0	1.435788E+0	1.454084E+0	1.464408E+0	1.330641E+0	1.448493E+0	1.392092E+0	1.393637E+0
5.442810E+2	1.668359E+0	1.647000E+0	1.618425E+0	6.328505E+0	1.642927E+0	1.607038E+0	1.625242E+0	1.664881E+0	1.593395E+0	1.601807E+0	1.572951E+0	1.586853E+0	1.654593E+0	1.696637E+0	1.624005E+0	1.561287E+0	1.630332E+0	1.590860E+0	1.597834E+0	1.641799E+0	1.595136E+0	1.646420E+0	1.576254E+0	1.674239E+0	1.597210E+0	1.584305E+0	1.640206E+0	1.629358E+0	1.598429E+0	1.602870E+0	1.605372E+0	1.584257E+0	1.591216E+0	1.578268E+0	1.545824E+0	1.608321E+0	1.586313E+0	1.566280E+0	1.616133E+0	1.616538E+0	1.651557E+0	1.620175E+0	1.620105E+0	1.635616E+0	1.612227E+0	1.623023E+0	1.603854E+0	1.642505E+0	1.597018E+0	1.563452E+0	1.585169E+0	1.610969E+0	1.603536E+0	1.623524E+0	1.600425E+0	1.657449E+0	1.567572E+0	1.567585E+0	1.563978E+0	1.691168E+0	1.614507E+0	1.597825E+0	1.591900E+0	1.605404E+0	1.652685E+0	1.513201E+0	1.574184E+0	1.609362E+0	1.574356E+0	1.596591E+0	1.578435E+0	1.642159E+0	1.562449E+0	1.615241E+0	1.652312E+0	1.570180E+0	1.643101E+0	1.576600E+0	1.568645E+0	1.579439E+0	1.596953E+0	1.540216E+0	1.568411E+0	1.615474E+0	1.569987E+0	1.603934E+0	1.603765E+0	1.599726E+0	1.543106E+0	1.633841E+0	1.677164E+0	1.533002E+0	1.583805E+0	1.568612E+0	1.578446E+0	1.589456E+0	1.588461E+0	1.612345E+0	1.502427E+0	1.578700E+0	1.614594E+0	1.590135E+0	1.589980E+0	1.625921E+0	1.583432E+0	1.579302E+0	1.580595E+0	1.520414E+0	1.594827E+0	1.585246E+0	1.572896E+0	1.587980E+0	1.636671E+0	1.548530E+0	1.540756E+0	1.615320E+0	1.552653E+0	1.604028E+0	1.601586E+0	1.633714E+0	1.639403E+0	1.628421E+0	1.626439E+0	1.639158E+0	1.577825E+0	1.570842E+0	1.600860E+0	1.590948E+0	1.571510E+0	1.579564E+0	1.611352E+0	1.605461E+0	1.514880E+0	1.590022E+0	1.553298E+0	1.578677E+0	1.587089E+0	1.566095E+0	1.635682E+0	1.614471E+0	1.625830E+0	1.595299E+0	1.561231E+0	1.626061E+0	1.680586E+0	1.580221E+0	1.641865E+0	1.553734E+0	1.525268E+0	1.574982E+0	1.572732E+0	1.638180E+0	1.582182E+0	1.506123E+0	1.573150E+0	1.634777E+0	1.547200E+0	1.566633E+0	1.570299E+0	1.611513E+0	1.643780E+0	1.584018E+0	1.562218E+0	1.559284E+0	1.573839E+0	1.576708E+0	1.553168E+0	1.542307E+0	1.430545E+0	1.486278E+0
5.445240E+2	1.657436E+0	1.682631E+0	1.607679E+0	2.861508E+0	1.652172E+0	1.611111E+0	1.562735E+0	1.611315E+0	1.638429E+0	1.593884E+0	1.607080E+0	1.650327E+0	1.645228E+0	1.620058E+0	1.544786E+0	1.603848E+0	1.607434E+0	1.599474E+0	1.631886E+0	1.617891E+0	1.601141E+0	1.625231E+0	1.604505E+0	1.604098E+0	1.621055E+0	1.594685E+0	1.636427E+0	1.590837E+0	1.625661E+0	1.576878E+0	1.624789E+0	1.586830E+0	1.606393E+0	1.577627E+0	1.489463E+0	1.646831E+0	1.590691E+0	1.631772E+0	1.614406E+0	1.598988E+0	1.597569E+0	1.577641E+0	1.620033E+0	1.625066E+0	1.632813E+0	1.595898E+0	1.563357E+0	1.571746E+0	1.637236E+0	1.557653E+0	1.617555E+0	1.596442E+0	1.523919E+0	1.586825E+0	1.604583E+0	1.647803E+0	1.565883E+0	1.640059E+0	1.529597E+0	1.702164E+0	1.574942E+0	1.610934E+0	1.576109E+0	1.546403E+0	1.636274E+0	1.516724E+0	1.567642E+0	1.601030E+0	1.530851E+0	1.575150E+0	1.578660E+0	1.614379E+0	1.591671E+0	1.695941E+0	1.571159E+0	1.560395E+0	1.656977E+0	1.626603E+0	1.614137E+0	1.551894E+0	1.648480E+0	1.617537E+0	1.562481E+0	1.564165E+0	1.570614E+0	1.543726E+0	1.588201E+0	1.649512E+0	1.543776E+0	1.634534E+0	1.600795E+0	1.537249E+0	1.641902E+0	1.573599E+0	1.594496E+0	1.594321E+0	1.641138E+0	1.557813E+0	1.553251E+0	1.586814E+0	1.600998E+0	1.571934E+0	1.569061E+0	1.628053E+0	1.571813E+0	1.571051E+0	1.591672E+0	1.548565E+0	1.619709E+0	1.601921E+0	1.539594E+0	1.596544E+0	1.587242E+0	1.596505E+0	1.551658E+0	1.625589E+0	1.619989E+0	1.586327E+0	1.542773E+0	1.596734E+0	1.619510E+0	1.669741E+0	1.553615E+0	1.608649E+0	1.582177E+0	1.559175E+0	1.627784E+0	1.608823E+0	1.580118E+0	1.624293E+0	1.619508E+0	1.524321E+0	1.574978E+0	1.574119E+0	1.578959E+0	1.561647E+0	1.590420E+0	1.605668E+0	1.535378E+0	1.622018E+0	1.573006E+0	1.565611E+0	1.580833E+0	1.603543E+0	1.592469E+0	1.635760E+0	1.607856E+0	1.579010E+0	1.561558E+0	1.524921E+0	1.509782E+0	1.594489E+0	1.530599E+0	1.587326E+0	1.534869E+0	1.543057E+0	1.588355E+0	1.633376E+0	1.561553E+0	1.570240E+0	1.577090E+0	1.631397E+0	1.584524E+0	1.545423E+0	1.604461E+0	1.583538E+0	1.534577E+0	1.602273E+0	1.531131E+0	1.620839E+0
5.447610E+2	1.661933E+0	1.647063E+0	1.541466E+0	1.617208E+0	1.579547E+0	1.605034E+0	1.617480E+0	1.577451E+0	1.577729E+0	1.558188E+0	1.620351E+0	1.614750E+0	1.584212E+0	1.585324E+0	1.574784E+0	1.575907E+0	1.517520E+0	1.597204E+0	1.552523E+0	1.582311E+0	1.533091E+0	1.550251E+0	1.528779E+0	1.529073E+0	1.554049E+0	1.523753E+0	1.582206E+0	1.533447E+0	1.586914E+0	1.652141E+0	1.588745E+0	1.597434E+0	1.574027E+0	1.530560E+0	1.530889E+0	1.593534E+0	1.548999E+0	1.506364E+0	1.574364E+0	1.586246E+0	1.614459E+0	1.608469E+0	1.614700E+0	1.588901E+0	1.614006E+0	1.558519E+0	1.553600E+0	1.580419E+0	1.578047E+0	1.600971E+0	1.543058E+0	1.594360E+0	1.580355E+0	1.594470E+0	1.565333E+0	1.586616E+0	1.568285E+0	1.594194E+0	1.527665E+0	1.591042E+0	1.564319E+0	1.553474E+0	1.574014E+0	1.562485E+0	1.598354E+0	1.562963E+0	1.562284E+0	1.586275E+0	1.543392E+0	1.613499E+0	1.574094E+0	1.619347E+0	1.598276E+0	1.644807E+0	1.600372E+0	1.624225E+0	1.559297E+0	1.568631E+0	1.613763E+0	1.639065E+0	1.582740E+0	1.585698E+0	1.582641E+0	1.578039E+0	1.559572E+0	1.597371E+0	1.550506E+0	1.563893E+0	1.555842E+0	1.637091E+0	1.585838E+0	1.556588E+0	1.554778E+0	1.530654E+0	1.560321E+0	1.542881E+0	1.531736E+0	1.555165E+0	1.534358E+0	1.505116E+0	1.584243E+0	1.564228E+0	1.598479E+0	1.537572E+0	1.564320E+0	1.506733E+0	1.513645E+0	1.515319E+0	1.521407E+0	1.531533E+0	1.508696E+0	1.540677E+0	1.586412E+0	1.538118E+0	1.569792E+0	1.582340E+0	1.560967E+0	1.576667E+0	1.545757E+0	1.574024E+0	1.570460E+0	1.583304E+0	1.562070E+0	1.635360E+0	1.538037E+0	1.500116E+0	1.557267E+0	1.510787E+0	1.597185E+0	1.524680E+0	1.607597E+0	1.505657E+0	1.569518E+0	1.535369E+0	1.506294E+0	1.608391E+0	1.525965E+0	1.575504E+0	1.530405E+0	1.584669E+0	1.593612E+0	1.568660E+0	1.487690E+0	1.580779E+0	1.561234E+0	1.625187E+0	1.581078E+0	1.570768E+0	1.565725E+0	1.510380E+0	1.557896E+0	1.530806E+0	1.555733E+0	1.492074E+0	1.561962E+0	1.521726E+0	1.575990E+0	1.573833E+0	1.545891E+0	1.601834E+0	1.631958E+0	1.550280E+0	1.548206E+0	1.520583E+0	1.554080E+0	1.545688E+0	1.471868E+0	1.517616E+0	1.579066E+0	1.551448E+0
5.450090E+2	1.548573E+0	1.566926E+0	1.558395E+0	1.573518E+0	1.558226E+0	1.576009E+0	1.550632E+0	1.487170E+0	1.568196E+0	1.541630E+0	1.496771E+0	1.541345E+0	1.588210E+0	1.521939E+0	1.531948E+0	1.558512E+0	1.522038E+0	1.539998E+0	1.572811E+0	1.537520E+0	1.528381E+0	1.504188E+0	1.550218E+0	1.515835E+0	1.557440E+0	1.509334E+0	1.535548E+0	1.527415E+0	1.566643E+0	1.518228E+0	1.549120E+0	1.516092E+0	1.526498E+0	1.513875E+0	1.515508E+0	1.574737E+0	1.501614E+0	1.549280E+0	1.494792E+0	1.533865E+0	1.532579E+0	1.478602E+0	1.534202E+0	1.533715E+0	1.535806E+0	1.462874E+0	1.479566E+0	1.487588E+0	1.545642E+0	1.509720E+0	1.474998E+0	1.545954E+0	1.562549E+0	1.524537E+0	1.558773E+0	1.574845E+0	1.536230E+0	1.577764E+0	1.571798E+0	1.516948E+0	1.513843E+0	1.539638E+0	1.515966E+0	1.509100E+0	1.553105E+0	1.526576E+0	1.482577E+0	1.469887E+0	1.564427E+0	1.559652E+0	1.532825E+0	1.525846E+0	1.483366E+0	1.514593E+0	1.529680E+0	1.506498E+0	1.527458E+0	1.526053E+0	1.500924E+0	1.542133E+0	1.590949E+0	1.562333E+0	1.467446E+0	1.500786E+0	1.496755E+0	1.509700E+0	1.536004E+0	1.528482E+0	1.613198E+0	1.507379E+0	1.545192E+0	1.545751E+0	1.531642E+0	1.584780E+0	1.487192E+0	1.528183E+0	1.531829E+0	1.529385E+0	1.540879E+0	1.530625E+0	1.556768E+0	1.515177E+0	1.555069E+0	1.512219E+0	1.456811E+0	1.476685E+0	1.484098E+0	1.459468E+0	1.486879E+0	1.520146E+0	1.536998E+0	1.479361E+0	1.521726E+0	1.521073E+0	1.470251E+0	1.560361E+0	1.532318E+0	1.520417E+0	1.509003E+0	1.598787E+0	1.516845E+0	1.572690E+0	1.520278E+0	1.581406E+0	1.578293E+0	1.587414E+0	1.525934E+0	1.437128E+0	1.476329E+0	1.480376E+0	1.567419E+0	1.517797E+0	1.518436E+0	1.512224E+0	1.454713E+0	1.517594E+0	1.591284E+0	1.512250E+0	1.538335E+0	1.468931E+0	1.524566E+0	1.527651E+0	1.485847E+0	1.521684E+0	1.545893E+0	1.529957E+0	1.475228E+0	1.542263E+0	1.459430E+0	1.447811E+0	1.475719E+0	1.539292E+0	1.487243E+0	1.498795E+0	1.507859E+0	1.483367E+0	1.485479E+0	1.524357E+0	1.445639E+0	1.526551E+0	1.605042E+0	1.463865E+0	1.504529E+0	1.474517E+0	1.478082E+0	1.469369E+0	1.483645E+0	1.539624E+0	1.518908E+0	1.518662E+0
5.452640E+2	1.351864E+0	1.396609E+0	1.387272E+0	1.492959E+0	1.419081E+0	1.416589E+0	1.360568E+0	1.425783E+0	1.385238E+0	1.433313E+0	1.382921E+0	1.452142E+0	1.414907E+0	1.391259E+0	1.444415E+0	1.351688E+0	1.467537E+0	1.413213E+0	1.440120E+0	1.390463E+0	1.373259E+0	1.399766E+0	1.420284E+0	1.376214E+0	1.416746E+0	1.460114E+0	1.404694E+0	1.395106E+0	1.449240E+0	1.408182E+0	1.412985E+0	1.404337E+0	1.388417E+0	1.436831E+0	1.351628E+0	1.355960E+0	1.377712E+0	1.391260E+0	1.396229E+0	1.401899E+0	1.415303E+0	1.501290E+0	1.399415E+0	1.419221E+0	1.442740E+0	1.339837E+0	1.401842E+0	1.415492E+0	1.360932E+0	1.406822E+0	1.352405E+0	1.390692E+0	1.397056E+0	1.435913E+0	1.383211E+0	1.367550E+0	1.436825E+0	1.419067E+0	1.391827E+0	1.409320E+0	1.401024E+0	1.399469E+0	1.384719E+0	1.363384E+0	1.400607E+0	1.380987E+0	1.432319E+0	1.373534E+0	1.344152E+0	1.354281E+0	1.405298E+0	1.394230E+0	1.433293E+0	1.450128E+0	1.414372E+0	1.401473E+0	1.400458E+0	1.370071E+0	1.410329E+0	1.356361E+0	1.409115E+0	1.403749E+0	1.259148E+0	1.334081E+0	1.363904E+0	1.336119E+0	1.362975E+0	1.360791E+0	1.339059E+0	1.393131E+0	1.358134E+0	1.364842E+0	1.413168E+0	1.395052E+0	1.383616E+0	1.407478E+0	1.377950E+0	1.457251E+0	1.339085E+0	1.388624E+0	1.378431E+0	1.349987E+0	1.415437E+0	1.410997E+0	1.409042E+0	1.421626E+0	1.302437E+0	1.390378E+0	1.396796E+0	1.393031E+0	1.388324E+0	1.380931E+0	1.420168E+0	1.341679E+0	1.351181E+0	1.382639E+0	1.405906E+0	1.374059E+0	1.366012E+0	1.432379E+0	1.381774E+0	1.456017E+0	1.376891E+0	1.378617E+0	1.371136E+0	1.402124E+0	1.395570E+0	1.408188E+0	1.393277E+0	1.350694E+0	1.412561E+0	1.392973E+0	1.348579E+0	1.399758E+0	1.393818E+0	1.382159E+0	1.400408E+0	1.374228E+0	1.415159E+0	1.403768E+0	1.416838E+0	1.362078E+0	1.347586E+0	1.363745E+0	1.402130E+0	1.363043E+0	1.382173E+0	1.456375E+0	1.382833E+0	1.371632E+0	1.348985E+0	1.435777E+0	1.443718E+0	1.407278E+0	1.415850E+0	1.424199E+0	1.385987E+0	1.423103E+0	1.316969E+0	1.388817E+0	1.434337E+0	1.366899E+0	1.380739E+0	1.377914E+0	1.399127E+0	1.425428E+0	1.366663E+0	1.398140E+0	1.350483E+0	1.361151E+0
5.455180E+2	1.236543E+0	1.245853E+0	1.254770E+0	1.290367E+0	1.286676E+0	1.205038E+0	1.246668E+0	1.194417E+0	1.219185E+0	1.239004E+0	1.246426E+0	1.257548E+0	1.237004E+0	1.237898E+0	1.251261E+0	1.237263E+0	1.258299E+0	1.236057E+0	1.198504E+0	1.184131E+0	1.241054E+0	1.227508E+0	1.223632E+0	1.241196E+0	1.243126E+0	1.213118E+0	1.227995E+0	1.299163E+0	1.286282E+0	1.241291E+0	1.200641E+0	1.212096E+0	1.234360E+0	1.260741E+0	1.192567E+0	1.204086E+0	1.236043E+0	1.209486E+0	1.236219E+0	1.244330E+0	1.257842E+0	1.311140E+0	1.272505E+0	1.258756E+0	1.252295E+0	1.242094E+0	1.236187E+0	1.241329E+0	1.296870E+0	1.246440E+0	1.248788E+0	1.265530E+0	1.211468E+0	1.236139E+0	1.246457E+0	1.235250E+0	1.264830E+0	1.241891E+0	1.226551E+0	1.305516E+0	1.263468E+0	1.237041E+0	1.244636E+0	1.228044E+0	1.258110E+0	1.280915E+0	1.249297E+0	1.241987E+0	1.199414E+0	1.251673E+0	1.221620E+0	1.246543E+0	1.240290E+0	1.275091E+0	1.258073E+0	1.261571E+0	1.282829E+0	1.175769E+0	1.242325E+0	1.203917E+0	1.242675E+0	1.234993E+0	1.223851E+0	1.210259E+0	1.307701E+0	1.255075E+0	1.239842E+0	1.247236E+0	1.199419E+0	1.281122E+0	1.255911E+0	1.162646E+0	1.241805E+0	1.222497E+0	1.215300E+0	1.240702E+0	1.231430E+0	1.222523E+0	1.204387E+0	1.226125E+0	1.260605E+0	1.209534E+0	1.206890E+0	1.226139E+0	1.240411E+0	1.207296E+0	1.156446E+0	1.230304E+0	1.230626E+0	1.256800E+0	1.257061E+0	1.219600E+0	1.252902E+0	1.189228E+0	1.150413E+0	1.274784E+0	1.230854E+0	1.292823E+0	1.257708E+0	1.236906E+0	1.219230E+0	1.281046E+0	1.210143E+0	1.264686E+0	1.224262E+0	1.287752E+0	1.220553E+0	1.227791E+0	1.235498E+0	1.235205E+0	1.297366E+0	1.271669E+0	1.270508E+0	1.241092E+0	1.276475E+0	1.193819E+0	1.272060E+0	1.185367E+0	1.220245E+0	1.198806E+0	1.258540E+0	1.228918E+0	1.221486E+0	1.272970E+0	1.257313E+0	1.211745E+0	1.224740E+0	1.249556E+0	1.217646E+0	1.191684E+0	1.205637E+0	1.257490E+0	1.270040E+0	1.208921E+0	1.162501E+0	1.209127E+0	1.193266E+0	1.202273E+0	1.261725E+0	1.241528E+0	1.304941E+0	1.180552E+0	1.245297E+0	1.236015E+0	1.280776E+0	1.256192E+0	1.241016E+0	1.297225E+0	1.173717E+0	1.257666E+0
5.457890E+2	1.292419E+0	1.281356E+0	1.265133E+0	1.451134E+0	1.293992E+0	1.264001E+0	1.278391E+0	1.253648E+0	1.330700E+0	1.282261E+0	1.317284E+0	1.327444E+0	1.309953E+0	1.269735E+0	1.277162E+0	1.262354E+0	1.311699E+0	1.283703E+0	1.315910E+0	1.257509E+0	1.304326E+0	1.264964E+0	1.259949E+0	1.237237E+0	1.310261E+0	1.311641E+0	1.288468E+0	1.309205E+0	1.305990E+0	1.308264E+0	1.299766E+0	1.287118E+0	1.265504E+0	1.252415E+0	1.268838E+0	1.273414E+0	1.264990E+0	1.278519E+0	1.326696E+0	1.245261E+0	1.303915E+0	1.347064E+0	1.318960E+0	1.317909E+0	1.290408E+0	1.275600E+0	1.256767E+0	1.214850E+0	1.285929E+0	1.220571E+0	1.261384E+0	1.279471E+0	1.269053E+0	1.272202E+0	1.310211E+0	1.279827E+0	1.304311E+0	1.320496E+0	1.227713E+0	1.285257E+0	1.321470E+0	1.278848E+0	1.307967E+0	1.252068E+0	1.332049E+0	1.285098E+0	1.265987E+0	1.280781E+0	1.298855E+0	1.300821E+0	1.291481E+0	1.263305E+0	1.329395E+0	1.323669E+0	1.263626E+0	1.309646E+0	1.296759E+0	1.273386E+0	1.306049E+0	1.285166E+0	1.304973E+0	1.381900E+0	1.292168E+0	1.291200E+0	1.275056E+0	1.278838E+0	1.303315E+0	1.307248E+0	1.263065E+0	1.350103E+0	1.298065E+0	1.283968E+0	1.305893E+0	1.320500E+0	1.225242E+0	1.265197E+0	1.270704E+0	1.260950E+0	1.267604E+0	1.252872E+0	1.298110E+0	1.253485E+0	1.282058E+0	1.281245E+0	1.343382E+0	1.307585E+0	1.289477E+0	1.306571E+0	1.276687E+0	1.243398E+0	1.318765E+0	1.249276E+0	1.276389E+0	1.274504E+0	1.275703E+0	1.310847E+0	1.279643E+0	1.281672E+0	1.278055E+0	1.290667E+0	1.275246E+0	1.299359E+0	1.264202E+0	1.270582E+0	1.265138E+0	1.313435E+0	1.226391E+0	1.257353E+0	1.286648E+0	1.293933E+0	1.327087E+0	1.206336E+0	1.274841E+0	1.282895E+0	1.292909E+0	1.238065E+0	1.335963E+0	1.334148E+0	1.253601E+0	1.294109E+0	1.329950E+0	1.298116E+0	1.274919E+0	1.291748E+0	1.290269E+0	1.284910E+0	1.332232E+0	1.272379E+0	1.233923E+0	1.252042E+0	1.266343E+0	1.290067E+0	1.348061E+0	1.221249E+0	1.278727E+0	1.278179E+0	1.305741E+0	1.253706E+0	1.223961E+0	1.234856E+0	1.295797E+0	1.266222E+0	1.235097E+0	1.274043E+0	1.280160E+0	1.240281E+0	1.295466E+0	1.273153E+0	1.255223E+0	1.351307E+0
5.460060E+2	1.210268E+0	1.285154E+0	1.207893E+0	1.075407E+0	1.237011E+0	1.238859E+0	1.231328E+0	1.209425E+0	1.213418E+0	1.268474E+0	1.210073E+0	1.206710E+0	1.227523E+0	1.213896E+0	1.192613E+0	1.241209E+0	1.227478E+0	1.228232E+0	1.198416E+0	1.224914E+0	1.188568E+0	1.193953E+0	1.212920E+0	1.187986E+0	1.312796E+0	1.205473E+0	1.244800E+0	1.264536E+0	1.200634E+0	1.258865E+0	1.192001E+0	1.201785E+0	1.228066E+0	1.215678E+0	1.182833E+0	1.245486E+0	1.235877E+0	1.228436E+0	1.203241E+0	1.162139E+0	1.261431E+0	1.212839E+0	1.235061E+0	1.224163E+0	1.224971E+0	1.186105E+0	1.206731E+0	1.166858E+0	1.232631E+0	1.219672E+0	1.176121E+0	1.211027E+0	1.158063E+0	1.188991E+0	1.244772E+0	1.223980E+0	1.260761E+0	1.214528E+0	1.224355E+0	1.171086E+0	1.250399E+0	1.198977E+0	1.229701E+0	1.263142E+0	1.210228E+0	1.215508E+0	1.180315E+0	1.222546E+0	1.199908E+0	1.200236E+0	1.211558E+0	1.220030E+0	1.274357E+0	1.210450E+0	1.260931E+0	1.196367E+0	1.289687E+0	1.226056E+0	1.189938E+0	1.169991E+0	1.238480E+0	1.235939E+0	1.240634E+0	1.245970E+0	1.201314E+0	1.226276E+0	1.214904E+0	1.219180E+0	1.245283E+0	1.217404E+0	1.212628E+0	1.197445E+0	1.234658E+0	1.236645E+0	1.198460E+0	1.192398E+0	1.240268E+0	1.256890E+0	1.188875E+0	1.261431E+0	1.225032E+0	1.185714E+0	1.179164E+0	1.208310E+0	1.192336E+0	1.196237E+0	1.149416E+0	1.187704E+0	1.210495E+0	1.199976E+0	1.201676E+0	1.229550E+0	1.207615E+0	1.234061E+0	1.186729E+0	1.227526E+0	1.254975E+0	1.219109E+0	1.232167E+0	1.195586E+0	1.226283E+0	1.242082E+0	1.189568E+0	1.231199E+0	1.192809E+0	1.190334E+0	1.192187E+0	1.179719E+0	1.154877E+0	1.247971E+0	1.264262E+0	1.228202E+0	1.232769E+0	1.235761E+0	1.174172E+0	1.257914E+0	1.227308E+0	1.222882E+0	1.202880E+0	1.184108E+0	1.188402E+0	1.201266E+0	1.194422E+0	1.198886E+0	1.235850E+0	1.209195E+0	1.171465E+0	1.199737E+0	1.172214E+0	1.173343E+0	1.207177E+0	1.212777E+0	1.213801E+0	1.168322E+0	1.179055E+0	1.209659E+0	1.248139E+0	1.238564E+0	1.206553E+0	1.211094E+0	1.255643E+0	1.207301E+0	1.200212E+0	1.184622E+0	1.242838E+0	1.201689E+0	1.181958E+0	1.227934E+0	1.223956E+0	1.167932E+0
5.467660E+2	1.175320E+0	1.211717E+0	1.235470E+0	1.016271E+0	1.207769E+0	1.280708E+0	1.231789E+0	1.250130E+0	1.328478E+0	1.218559E+0	1.234128E+0	1.274531E+0	1.196826E+0	1.238860E+0	1.204111E+0	1.207305E+0	1.238841E+0	1.237169E+0	1.232518E+0	1.177121E+0	1.221925E+0	1.226257E+0	1.180118E+0	1.180559E+0	1.251329E+0	1.252753E+0	1.182052E+0	1.218363E+0	1.253335E+0	1.237129E+0	1.276623E+0	1.205231E+0	1.247937E+0	1.182629E+0	1.208510E+0	1.228094E+0	1.254815E+0	1.206065E+0	1.211517E+0	1.181517E+0	1.212632E+0	1.277913E+0	1.264885E+0	1.274361E+0	1.217983E+0	1.233239E+0	1.264371E+0	1.223652E+0	1.236152E+0	1.227221E+0	1.245095E+0	1.264353E+0	1.244478E+0	1.216484E+0	1.188407E+0	1.201048E+0	1.247498E+0	1.258344E+0	1.205490E+0	1.283156E+0	1.272529E+0	1.230736E+0	1.205865E+0	1.183880E+0	1.242734E+0	1.217682E+0	1.206447E+0	1.254833E+0	1.243020E+0	1.233819E+0	1.226115E+0	1.187954E+0	1.243582E+0	1.234428E+0	1.273801E+0	1.244389E+0	1.303998E+0	1.229319E+0	1.219985E+0	1.237660E+0	1.203398E+0	1.217919E+0	1.169174E+0	1.202461E+0	1.190937E+0	1.210285E+0	1.240948E+0	1.224793E+0	1.255184E+0	1.208724E+0	1.266362E+0	1.236281E+0	1.232295E+0	1.190507E+0	1.250358E+0	1.201311E+0	1.204232E+0	1.270063E+0	1.136516E+0	1.218473E+0	1.228162E+0	1.184320E+0	1.178953E+0	1.239617E+0	1.192698E+0	1.211151E+0	1.157915E+0	1.224232E+0	1.238836E+0	1.261248E+0	1.221441E+0	1.228991E+0	1.239949E+0	1.223484E+0	1.166201E+0	1.267659E+0	1.248472E+0	1.251786E+0	1.216868E+0	1.219226E+0	1.252841E+0	1.203564E+0	1.243112E+0	1.213844E+0	1.208032E+0	1.184504E+0	1.215577E+0	1.213615E+0	1.200138E+0	1.289753E+0	1.226066E+0	1.153548E+0	1.231028E+0	1.176564E+0	1.188328E+0	1.193365E+0	1.235218E+0	1.213473E+0	1.246556E+0	1.192531E+0	1.229508E+0	1.170061E+0	1.179565E+0	1.231306E+0	1.272248E+0	1.266031E+0	1.208279E+0	1.199132E+0	1.199394E+0	1.227660E+0	1.242314E+0	1.147756E+0	1.210109E+0	1.218544E+0	1.213041E+0	1.177741E+0	1.213796E+0	1.206278E+0	1.199790E+0	1.181604E+0	1.252294E+0	1.255622E+0	1.251539E+0	1.213555E+0	1.256420E+0	1.242697E+0	1.213874E+0	1.243535E+0	1.246314E+0	1.118404E+0
5.475180E+2	1.370196E+0	1.359576E+0	1.357741E+0	1.328715E+0	1.401281E+0	1.325802E+0	1.395552E+0	1.326914E+0	1.384374E+0	1.350298E+0	1.360985E+0	1.275711E+0	1.360879E+0	1.328837E+0	1.303888E+0	1.336953E+0	1.363482E+0	1.374666E+0	1.392584E+0	1.373166E+0	1.353521E+0	1.296442E+0	1.345714E+0	1.352811E+0	1.324097E+0	1.298608E+0	1.323333E+0	1.350119E+0	1.359421E+0	1.359695E+0	1.290084E+0	1.296448E+0	1.351471E+0	1.332979E+0	1.354504E+0	1.369011E+0	1.302107E+0	1.330195E+0	1.389190E+0	1.353885E+0	1.399553E+0	1.301963E+0	1.305602E+0	1.348648E+0	1.375621E+0	1.395015E+0	1.337955E+0	1.374132E+0	1.360512E+0	1.335524E+0	1.368906E+0	1.352924E+0	1.386357E+0	1.353095E+0	1.301250E+0	1.340171E+0	1.335941E+0	1.342518E+0	1.368768E+0	1.377207E+0	1.303264E+0	1.319901E+0	1.291131E+0	1.298999E+0	1.345114E+0	1.340051E+0	1.351097E+0	1.315022E+0	1.324315E+0	1.297346E+0	1.373438E+0	1.351701E+0	1.362168E+0	1.341807E+0	1.368253E+0	1.295662E+0	1.351140E+0	1.312930E+0	1.371193E+0	1.316684E+0	1.351159E+0	1.351177E+0	1.278822E+0	1.274402E+0	1.342857E+0	1.362262E+0	1.357964E+0	1.313499E+0	1.394928E+0	1.327421E+0	1.367899E+0	1.314589E+0	1.324915E+0	1.321610E+0	1.301293E+0	1.341181E+0	1.372564E+0	1.384268E+0	1.315202E+0	1.349692E+0	1.346330E+0	1.334650E+0	1.340838E+0	1.358581E+0	1.364938E+0	1.334853E+0	1.310101E+0	1.301234E+0	1.330658E+0	1.385469E+0	1.348738E+0	1.343005E+0	1.408126E+0	1.344210E+0	1.346787E+0	1.342618E+0	1.327847E+0	1.341901E+0	1.299905E+0	1.345347E+0	1.403826E+0	1.344070E+0	1.282479E+0	1.323961E+0	1.358651E+0	1.334159E+0	1.278155E+0	1.372157E+0	1.332142E+0	1.283580E+0	1.387920E+0	1.309230E+0	1.314599E+0	1.323142E+0	1.299510E+0	1.355617E+0	1.368806E+0	1.326268E+0	1.344521E+0	1.337857E+0	1.363542E+0	1.266722E+0	1.321603E+0	1.322607E+0	1.336066E+0	1.336086E+0	1.257371E+0	1.328801E+0	1.334047E+0	1.272837E+0	1.290497E+0	1.292164E+0	1.380390E+0	1.352117E+0	1.276835E+0	1.344151E+0	1.353308E+0	1.301643E+0	1.309781E+0	1.344839E+0	1.400289E+0	1.401583E+0	1.334170E+0	1.327731E+0	1.314858E+0	1.412638E+0	1.279339E+0	1.323856E+0	1.361719E+0	1.374847E+0
5.482880E+2	1.485413E+0	1.475446E+0	1.423011E+0	1.497329E+0	1.414840E+0	1.417801E+0	1.475816E+0	1.485434E+0	1.460875E+0	1.430925E+0	1.416546E+0	1.471094E+0	1.442166E+0	1.411816E+0	1.401558E+0	1.446766E+0	1.442671E+0	1.410920E+0	1.444068E+0	1.448809E+0	1.454106E+0	1.367982E+0	1.443907E+0	1.431406E+0	1.443148E+0	1.465657E+0	1.451172E+0	1.411718E+0	1.416440E+0	1.437557E+0	1.462793E+0	1.414714E+0	1.440559E+0	1.378133E+0	1.389905E+0	1.432219E+0	1.394429E+0	1.386608E+0	1.454315E+0	1.420417E+0	1.427202E+0	1.415257E+0	1.433115E+0	1.454502E+0	1.431772E+0	1.464872E+0	1.419768E+0	1.409307E+0	1.403249E+0	1.399519E+0	1.371635E+0	1.423454E+0	1.456404E+0	1.402652E+0	1.401473E+0	1.445921E+0	1.445952E+0	1.374986E+0	1.457588E+0	1.441707E+0	1.452206E+0	1.463494E+0	1.368590E+0	1.394167E+0	1.436261E+0	1.445075E+0	1.434321E+0	1.421734E+0	1.455850E+0	1.450083E+0	1.416839E+0	1.499627E+0	1.458196E+0	1.454276E+0	1.451189E+0	1.409042E+0	1.444114E+0	1.412700E+0	1.347593E+0	1.380887E+0	1.423464E+0	1.426106E+0	1.399800E+0	1.442969E+0	1.404772E+0	1.415261E+0	1.458486E+0	1.445998E+0	1.435513E+0	1.421543E+0	1.389863E+0	1.416942E+0	1.431627E+0	1.464744E+0	1.426252E+0	1.373078E+0	1.416681E+0	1.497420E+0	1.343696E+0	1.375781E+0	1.423550E+0	1.394597E+0	1.389810E+0	1.444592E+0	1.446543E+0	1.436004E+0	1.366463E+0	1.372735E+0	1.474129E+0	1.425906E+0	1.426076E+0	1.390699E+0	1.467769E+0	1.450624E+0	1.408482E+0	1.411551E+0	1.442400E+0	1.429359E+0	1.445216E+0	1.418319E+0	1.395787E+0	1.491646E+0	1.388271E+0	1.383085E+0	1.437623E+0	1.483945E+0	1.386795E+0	1.411760E+0	1.443346E+0	1.396805E+0	1.419985E+0	1.401935E+0	1.422304E+0	1.429905E+0	1.411063E+0	1.442544E+0	1.448326E+0	1.438607E+0	1.426963E+0	1.419297E+0	1.415689E+0	1.427574E+0	1.413135E+0	1.422356E+0	1.443229E+0	1.456456E+0	1.409477E+0	1.392956E+0	1.360591E+0	1.419291E+0	1.401457E+0	1.379870E+0	1.476087E+0	1.411054E+0	1.436846E+0	1.430484E+0	1.436103E+0	1.423576E+0	1.416754E+0	1.364473E+0	1.460599E+0	1.451276E+0	1.406764E+0	1.402910E+0	1.394999E+0	1.422127E+0	1.389092E+0	1.414354E+0	1.425163E+0	1.428431E+0
5.490160E+2	1.403611E+0	1.373910E+0	1.345327E+0	1.344190E+0	1.306923E+0	1.364889E+0	1.306092E+0	1.320535E+0	1.357492E+0	1.388485E+0	1.310837E+0	1.324465E+0	1.358911E+0	1.354183E+0	1.345687E+0	1.383704E+0	1.334327E+0	1.345462E+0	1.365716E+0	1.301332E+0	1.356348E+0	1.336332E+0	1.356440E+0	1.346900E+0	1.316055E+0	1.361049E+0	1.327683E+0	1.329327E+0	1.369711E+0	1.377441E+0	1.331465E+0	1.377126E+0	1.368060E+0	1.304095E+0	1.283991E+0	1.366106E+0	1.344289E+0	1.328092E+0	1.365323E+0	1.323398E+0	1.351951E+0	1.302763E+0	1.292180E+0	1.309810E+0	1.338802E+0	1.339938E+0	1.305150E+0	1.309054E+0	1.332869E+0	1.404190E+0	1.320792E+0	1.370888E+0	1.337778E+0	1.317645E+0	1.303364E+0	1.327968E+0	1.316691E+0	1.360933E+0	1.316875E+0	1.424407E+0	1.372777E+0	1.371520E+0	1.340974E+0	1.332643E+0	1.341515E+0	1.302705E+0	1.304595E+0	1.342492E+0	1.334573E+0	1.315032E+0	1.332847E+0	1.261143E+0	1.355395E+0	1.336705E+0	1.394116E+0	1.334569E+0	1.360958E+0	1.332715E+0	1.298816E+0	1.324540E+0	1.391509E+0	1.354519E+0	1.278534E+0	1.290724E+0	1.353770E+0	1.339024E+0	1.353163E+0	1.317421E+0	1.345545E+0	1.350108E+0	1.317819E+0	1.363740E+0	1.357964E+0	1.286277E+0	1.323488E+0	1.286494E+0	1.378182E+0	1.312046E+0	1.293947E+0	1.280437E+0	1.349443E+0	1.335866E+0	1.317204E+0	1.330259E+0	1.320924E+0	1.393560E+0	1.289168E+0	1.268978E+0	1.285417E+0	1.310764E+0	1.305552E+0	1.309464E+0	1.346731E+0	1.354458E+0	1.281426E+0	1.341462E+0	1.341617E+0	1.334046E+0	1.291697E+0	1.310413E+0	1.262820E+0	1.373182E+0	1.295381E+0	1.316367E+0	1.311671E+0	1.356479E+0	1.348510E+0	1.288423E+0	1.334417E+0	1.366575E+0	1.385085E+0	1.338519E+0	1.330206E+0	1.326763E+0	1.332527E+0	1.312343E+0	1.387877E+0	1.346692E+0	1.357256E+0	1.339613E+0	1.327231E+0	1.351989E+0	1.303069E+0	1.365756E+0	1.367504E+0	1.359882E+0	1.369734E+0	1.338784E+0	1.329623E+0	1.306707E+0	1.351555E+0	1.275556E+0	1.330472E+0	1.345094E+0	1.316045E+0	1.329775E+0	1.339574E+0	1.320234E+0	1.298488E+0	1.321810E+0	1.349208E+0	1.304126E+0	1.284598E+0	1.296803E+0	1.361067E+0	1.332286E+0	1.294877E+0	1.273986E+0	1.313907E+0	1.378225E+0
5.497680E+2	1.337663E+0	1.298076E+0	1.287226E+0	1.246684E+0	1.295306E+0	1.288648E+0	1.330462E+0	1.341938E+0	1.297131E+0	1.355840E+0	1.356842E+0	1.321387E+0	1.291047E+0	1.338190E+0	1.329889E+0	1.318302E+0	1.337956E+0	1.317107E+0	1.332027E+0	1.328630E+0	1.299134E+0	1.290159E+0	1.308185E+0	1.274305E+0	1.294603E+0	1.319306E+0	1.296910E+0	1.283002E+0	1.312487E+0	1.332200E+0	1.323802E+0	1.303751E+0	1.286516E+0	1.357778E+0	1.224966E+0	1.293223E+0	1.310021E+0	1.292352E+0	1.299492E+0	1.294229E+0	1.316498E+0	1.324231E+0	1.307402E+0	1.293879E+0	1.294417E+0	1.310395E+0	1.286906E+0	1.294578E+0	1.268732E+0	1.322495E+0	1.306129E+0	1.349611E+0	1.362956E+0	1.266767E+0	1.273040E+0	1.315694E+0	1.349622E+0	1.344561E+0	1.328310E+0	1.358956E+0	1.255340E+0	1.269746E+0	1.304183E+0	1.281877E+0	1.283633E+0	1.293210E+0	1.280481E+0	1.289383E+0	1.323886E+0	1.287487E+0	1.332019E+0	1.289449E+0	1.264199E+0	1.319694E+0	1.360702E+0	1.273874E+0	1.284705E+0	1.328741E+0	1.328122E+0	1.299621E+0	1.326258E+0	1.331305E+0	1.280615E+0	1.268190E+0	1.317159E+0	1.327215E+0	1.364037E+0	1.274018E+0	1.334441E+0	1.306811E+0	1.272653E+0	1.295233E+0	1.299412E+0	1.325983E+0	1.294848E+0	1.286681E+0	1.255554E+0	1.258167E+0	1.255080E+0	1.238881E+0	1.340062E+0	1.269763E+0	1.294909E+0	1.313280E+0	1.356737E+0	1.319877E+0	1.276967E+0	1.274810E+0	1.296721E+0	1.297359E+0	1.264788E+0	1.314438E+0	1.281229E+0	1.344144E+0	1.321938E+0	1.295249E+0	1.330859E+0	1.313174E+0	1.284419E+0	1.312208E+0	1.362649E+0	1.342922E+0	1.335252E+0	1.302907E+0	1.342783E+0	1.318046E+0	1.276265E+0	1.296931E+0	1.314554E+0	1.307143E+0	1.374670E+0	1.275941E+0	1.274925E+0	1.311233E+0	1.284889E+0	1.272345E+0	1.323180E+0	1.274934E+0	1.333657E+0	1.344108E+0	1.355966E+0	1.282008E+0	1.213860E+0	1.335223E+0	1.332353E+0	1.299812E+0	1.294458E+0	1.254640E+0	1.289561E+0	1.275818E+0	1.280466E+0	1.289136E+0	1.303155E+0	1.283716E+0	1.252868E+0	1.283360E+0	1.315695E+0	1.309195E+0	1.235691E+0	1.320934E+0	1.319067E+0	1.329373E+0	1.256742E+0	1.267996E+0	1.365369E+0	1.362640E+0	1.278348E+0	1.278652E+0	1.378035E+0	1.345308E+0
5.505170E+2	1.325827E+0	1.414376E+0	1.338325E+0	1.472830E+0	1.330465E+0	1.340759E+0	1.366907E+0	1.318881E+0	1.337480E+0	1.402918E+0	1.336490E+0	1.320488E+0	1.391285E+0	1.368580E+0	1.325933E+0	1.283072E+0	1.371398E+0	1.348210E+0	1.309056E+0	1.310185E+0	1.300733E+0	1.334398E+0	1.360949E+0	1.338525E+0	1.391076E+0	1.348966E+0	1.370431E+0	1.360016E+0	1.342109E+0	1.391298E+0	1.356190E+0	1.339742E+0	1.324991E+0	1.321964E+0	1.324216E+0	1.375019E+0	1.305060E+0	1.295574E+0	1.335485E+0	1.276322E+0	1.357610E+0	1.349552E+0	1.330478E+0	1.352490E+0	1.338475E+0	1.321963E+0	1.335098E+0	1.320539E+0	1.306278E+0	1.371451E+0	1.360776E+0	1.369453E+0	1.360925E+0	1.298427E+0	1.336335E+0	1.378627E+0	1.317958E+0	1.378102E+0	1.367123E+0	1.365646E+0	1.346871E+0	1.317056E+0	1.332551E+0	1.342696E+0	1.361343E+0	1.352880E+0	1.342500E+0	1.385514E+0	1.361166E+0	1.381988E+0	1.306131E+0	1.368558E+0	1.308127E+0	1.334426E+0	1.364381E+0	1.326121E+0	1.302709E+0	1.378150E+0	1.337970E+0	1.363130E+0	1.317711E+0	1.326308E+0	1.309802E+0	1.318478E+0	1.355412E+0	1.291339E+0	1.319732E+0	1.354159E+0	1.371033E+0	1.327629E+0	1.320038E+0	1.322775E+0	1.343686E+0	1.343615E+0	1.308192E+0	1.274956E+0	1.331138E+0	1.330670E+0	1.373282E+0	1.281779E+0	1.364303E+0	1.391731E+0	1.325380E+0	1.297098E+0	1.340834E+0	1.303971E+0	1.290967E+0	1.285661E+0	1.310746E+0	1.324650E+0	1.312530E+0	1.316183E+0	1.291657E+0	1.354122E+0	1.298587E+0	1.315047E+0	1.317994E+0	1.363016E+0	1.337126E+0	1.349982E+0	1.301018E+0	1.397655E+0	1.291764E+0	1.296566E+0	1.344056E+0	1.361406E+0	1.349180E+0	1.330255E+0	1.348735E+0	1.323009E+0	1.344962E+0	1.313927E+0	1.325970E+0	1.331890E+0	1.304691E+0	1.312741E+0	1.317598E+0	1.269285E+0	1.321783E+0	1.348196E+0	1.346608E+0	1.314810E+0	1.322976E+0	1.363369E+0	1.376908E+0	1.365429E+0	1.291389E+0	1.329072E+0	1.326619E+0	1.367877E+0	1.309779E+0	1.348199E+0	1.334614E+0	1.320088E+0	1.293690E+0	1.321984E+0	1.340656E+0	1.293854E+0	1.306719E+0	1.329403E+0	1.352472E+0	1.343217E+0	1.325991E+0	1.321358E+0	1.367845E+0	1.363136E+0	1.307428E+0	1.315997E+0	1.334472E+0	1.290936E+0
5.512570E+2	1.371278E+0	1.402968E+0	1.343526E+0	1.255548E+0	1.397044E+0	1.316604E+0	1.335047E+0	1.293161E+0	1.303347E+0	1.303099E+0	1.350615E+0	1.348619E+0	1.344044E+0	1.360375E+0	1.351725E+0	1.324645E+0	1.397493E+0	1.341993E+0	1.293401E+0	1.323555E+0	1.348203E+0	1.321935E+0	1.387655E+0	1.325812E+0	1.316423E+0	1.355202E+0	1.366758E+0	1.297249E+0	1.310461E+0	1.341088E+0	1.345347E+0	1.361196E+0	1.324616E+0	1.330558E+0	1.300155E+0	1.388229E+0	1.339516E+0	1.313769E+0	1.326382E+0	1.319194E+0	1.348896E+0	1.346524E+0	1.327626E+0	1.384224E+0	1.325142E+0	1.372951E+0	1.315152E+0	1.338034E+0	1.343234E+0	1.337915E+0	1.351929E+0	1.356759E+0	1.349578E+0	1.348965E+0	1.367049E+0	1.353462E+0	1.318049E+0	1.356959E+0	1.320001E+0	1.362715E+0	1.327377E+0	1.319819E+0	1.318005E+0	1.361369E+0	1.337245E+0	1.347932E+0	1.338339E+0	1.362401E+0	1.315986E+0	1.360967E+0	1.339980E+0	1.312132E+0	1.332386E+0	1.329741E+0	1.340787E+0	1.286056E+0	1.348616E+0	1.299066E+0	1.331345E+0	1.353661E+0	1.317349E+0	1.374575E+0	1.304958E+0	1.318176E+0	1.337470E+0	1.273028E+0	1.357290E+0	1.354883E+0	1.368261E+0	1.339070E+0	1.321428E+0	1.324220E+0	1.333743E+0	1.328494E+0	1.311483E+0	1.315743E+0	1.316403E+0	1.283508E+0	1.348548E+0	1.289242E+0	1.347263E+0	1.360667E+0	1.348513E+0	1.318255E+0	1.347870E+0	1.371645E+0	1.298328E+0	1.262893E+0	1.320898E+0	1.321077E+0	1.360194E+0	1.319302E+0	1.324008E+0	1.295017E+0	1.272770E+0	1.333574E+0	1.331826E+0	1.381283E+0	1.339227E+0	1.355068E+0	1.316386E+0	1.371337E+0	1.375858E+0	1.403400E+0	1.346560E+0	1.395588E+0	1.321591E+0	1.280932E+0	1.384385E+0	1.354427E+0	1.394318E+0	1.315780E+0	1.337451E+0	1.328529E+0	1.333424E+0	1.343232E+0	1.361263E+0	1.339650E+0	1.339949E+0	1.366657E+0	1.281463E+0	1.306033E+0	1.315789E+0	1.369133E+0	1.318126E+0	1.345238E+0	1.294898E+0	1.371098E+0	1.355926E+0	1.282649E+0	1.363248E+0	1.312517E+0	1.354550E+0	1.275849E+0	1.295619E+0	1.323850E+0	1.336488E+0	1.393050E+0	1.306042E+0	1.329804E+0	1.311119E+0	1.374879E+0	1.314633E+0	1.307767E+0	1.324580E+0	1.388847E+0	1.284092E+0	1.305083E+0	1.323566E+0	1.318868E+0
5.520480E+2	1.398999E+0	1.333534E+0	1.295598E+0	1.251053E+0	1.354308E+0	1.308070E+0	1.321718E+0	1.338254E+0	1.335350E+0	1.334662E+0	1.337165E+0	1.334653E+0	1.317947E+0	1.306292E+0	1.349297E+0	1.301664E+0	1.332118E+0	1.323513E+0	1.328322E+0	1.296139E+0	1.313561E+0	1.371036E+0	1.335618E+0	1.263727E+0	1.357698E+0	1.307435E+0	1.288493E+0	1.281402E+0	1.311312E+0	1.338422E+0	1.316894E+0	1.292825E+0	1.346648E+0	1.344040E+0	1.294779E+0	1.366800E+0	1.290297E+0	1.367696E+0	1.294602E+0	1.335210E+0	1.318813E+0	1.329062E+0	1.378176E+0	1.350871E+0	1.308458E+0	1.343339E+0	1.294890E+0	1.303279E+0	1.327427E+0	1.347978E+0	1.309331E+0	1.298832E+0	1.336723E+0	1.314510E+0	1.325782E+0	1.344946E+0	1.339457E+0	1.309173E+0	1.359815E+0	1.331427E+0	1.331636E+0	1.335214E+0	1.317845E+0	1.248926E+0	1.310186E+0	1.324490E+0	1.352039E+0	1.309914E+0	1.341483E+0	1.364673E+0	1.340363E+0	1.323323E+0	1.262138E+0	1.377473E+0	1.317180E+0	1.317096E+0	1.287115E+0	1.311578E+0	1.307521E+0	1.315737E+0	1.280623E+0	1.357053E+0	1.322774E+0	1.273865E+0	1.319206E+0	1.330281E+0	1.366301E+0	1.334941E+0	1.344683E+0	1.336503E+0	1.263392E+0	1.295566E+0	1.313088E+0	1.401746E+0	1.286566E+0	1.268630E+0	1.298126E+0	1.315673E+0	1.322278E+0	1.328281E+0	1.341056E+0	1.356002E+0	1.325790E+0	1.312690E+0	1.331002E+0	1.328634E+0	1.329047E+0	1.332741E+0	1.276737E+0	1.325991E+0	1.340306E+0	1.315374E+0	1.300812E+0	1.383080E+0	1.282630E+0	1.306647E+0	1.346817E+0	1.340908E+0	1.295961E+0	1.296541E+0	1.343768E+0	1.335573E+0	1.277198E+0	1.326337E+0	1.291591E+0	1.335831E+0	1.332752E+0	1.313759E+0	1.304444E+0	1.354299E+0	1.366955E+0	1.271929E+0	1.320053E+0	1.338528E+0	1.295019E+0	1.298368E+0	1.316233E+0	1.289678E+0	1.330978E+0	1.303534E+0	1.321697E+0	1.366992E+0	1.278693E+0	1.311196E+0	1.334377E+0	1.291622E+0	1.335372E+0	1.281570E+0	1.316135E+0	1.335763E+0	1.321458E+0	1.306779E+0	1.263329E+0	1.324035E+0	1.259111E+0	1.246834E+0	1.280724E+0	1.310543E+0	1.313677E+0	1.321161E+0	1.296096E+0	1.260642E+0	1.282114E+0	1.298894E+0	1.303764E+0	1.305782E+0	1.268942E+0	1.319676E+0	1.270502E+0	1.326151E+0
5.527590E+2	1.302607E+0	1.277394E+0	1.305997E+0	1.256117E+0	1.349314E+0	1.321287E+0	1.267163E+0	1.283394E+0	1.341622E+0	1.366402E+0	1.332703E+0	1.301443E+0	1.339101E+0	1.332918E+0	1.283831E+0	1.311621E+0	1.303032E+0	1.298598E+0	1.257630E+0	1.309167E+0	1.304040E+0	1.290916E+0	1.296780E+0	1.332900E+0	1.361706E+0	1.297346E+0	1.329782E+0	1.274697E+0	1.246348E+0	1.312299E+0	1.290180E+0	1.278838E+0	1.259852E+0	1.276943E+0	1.232374E+0	1.330174E+0	1.286983E+0	1.301743E+0	1.328115E+0	1.253163E+0	1.361958E+0	1.333786E+0	1.350863E+0	1.302424E+0	1.292292E+0	1.276323E+0	1.274114E+0	1.296954E+0	1.284759E+0	1.281936E+0	1.322963E+0	1.290441E+0	1.288778E+0	1.331062E+0	1.278574E+0	1.285471E+0	1.319520E+0	1.310793E+0	1.237511E+0	1.322482E+0	1.302441E+0	1.315897E+0	1.279644E+0	1.207463E+0	1.273304E+0	1.295140E+0	1.265221E+0	1.283724E+0	1.297955E+0	1.336966E+0	1.295758E+0	1.280048E+0	1.343718E+0	1.319800E+0	1.323206E+0	1.295290E+0	1.281469E+0	1.345789E+0	1.306047E+0	1.319993E+0	1.264020E+0	1.370171E+0	1.258700E+0	1.299993E+0	1.295787E+0	1.321440E+0	1.271473E+0	1.294875E+0	1.315751E+0	1.342129E+0	1.243788E+0	1.295040E+0	1.336790E+0	1.335866E+0	1.274575E+0	1.252920E+0	1.331705E+0	1.306190E+0	1.280056E+0	1.329284E+0	1.325101E+0	1.254354E+0	1.331683E+0	1.294299E+0	1.294474E+0	1.309790E+0	1.266897E+0	1.339908E+0	1.286171E+0	1.287680E+0	1.245312E+0	1.300507E+0	1.291768E+0	1.292398E+0	1.313052E+0	1.299336E+0	1.323378E+0	1.307085E+0	1.296543E+0	1.295769E+0	1.323623E+0	1.360077E+0	1.346605E+0	1.325699E+0	1.295093E+0	1.300813E+0	1.275914E+0	1.297336E+0	1.289779E+0	1.267398E+0	1.315901E+0	1.347771E+0	1.311888E+0	1.316805E+0	1.324906E+0	1.283027E+0	1.260845E+0	1.261179E+0	1.363418E+0	1.273549E+0	1.292279E+0	1.309626E+0	1.299108E+0	1.263910E+0	1.303078E+0	1.333045E+0	1.284524E+0	1.266989E+0	1.279217E+0	1.268488E+0	1.288757E+0	1.263715E+0	1.294120E+0	1.312125E+0	1.284918E+0	1.279827E+0	1.285883E+0	1.354439E+0	1.311857E+0	1.287657E+0	1.296561E+0	1.271997E+0	1.321828E+0	1.254247E+0	1.256659E+0	1.283386E+0	1.261454E+0	1.236407E+0	1.284145E+0	1.392878E+0
5.535050E+2	1.169806E+0	1.213851E+0	1.225066E+0	1.160690E+0	1.229202E+0	1.162037E+0	1.206535E+0	1.200625E+0	1.169006E+0	1.219537E+0	1.160073E+0	1.208902E+0	1.214275E+0	1.213929E+0	1.159766E+0	1.138998E+0	1.163943E+0	1.209400E+0	1.173545E+0	1.222124E+0	1.189375E+0	1.171234E+0	1.173839E+0	1.122719E+0	1.229078E+0	1.194110E+0	1.196013E+0	1.203970E+0	1.217839E+0	1.170816E+0	1.195276E+0	1.214085E+0	1.192453E+0	1.155430E+0	1.177199E+0	1.210822E+0	1.133650E+0	1.172536E+0	1.230848E+0	1.145944E+0	1.156968E+0	1.185250E+0	1.203067E+0	1.153340E+0	1.164791E+0	1.178750E+0	1.191561E+0	1.154125E+0	1.159169E+0	1.244912E+0	1.171449E+0	1.237047E+0	1.196097E+0	1.226305E+0	1.170471E+0	1.159420E+0	1.168163E+0	1.197828E+0	1.125486E+0	1.197796E+0	1.176989E+0	1.186252E+0	1.137959E+0	1.184739E+0	1.154618E+0	1.136451E+0	1.156582E+0	1.180797E+0	1.137456E+0	1.209660E+0	1.142700E+0	1.172135E+0	1.203548E+0	1.164537E+0	1.157092E+0	1.167236E+0	1.191759E+0	1.183586E+0	1.145988E+0	1.207035E+0	1.148880E+0	1.247447E+0	1.203960E+0	1.098200E+0	1.171702E+0	1.205522E+0	1.198682E+0	1.207898E+0	1.204188E+0	1.194300E+0	1.205119E+0	1.151141E+0	1.192215E+0	1.184567E+0	1.196005E+0	1.134651E+0	1.144638E+0	1.208438E+0	1.166122E+0	1.218914E+0	1.160790E+0	1.143250E+0	1.176177E+0	1.189540E+0	1.193880E+0	1.184564E+0	1.151494E+0	1.188469E+0	1.171586E+0	1.192636E+0	1.219560E+0	1.169121E+0	1.214787E+0	1.131401E+0	1.156274E+0	1.154537E+0	1.198964E+0	1.161786E+0	1.155035E+0	1.186741E+0	1.192465E+0	1.178537E+0	1.187475E+0	1.173701E+0	1.251925E+0	1.159650E+0	1.116252E+0	1.159899E+0	1.155321E+0	1.154293E+0	1.200805E+0	1.188349E+0	1.188575E+0	1.175273E+0	1.210091E+0	1.172007E+0	1.198361E+0	1.218292E+0	1.215521E+0	1.168717E+0	1.158071E+0	1.213722E+0	1.191972E+0	1.238030E+0	1.196099E+0	1.176997E+0	1.167238E+0	1.158349E+0	1.100563E+0	1.154280E+0	1.143272E+0	1.185238E+0	1.189945E+0	1.178538E+0	1.165724E+0	1.170610E+0	1.180456E+0	1.200276E+0	1.142754E+0	1.134893E+0	1.207688E+0	1.198491E+0	1.156959E+0	1.182723E+0	1.166540E+0	1.201836E+0	1.186498E+0	1.154590E+0	1.171973E+0	1.175588E+0
5.542580E+2	1.048969E+0	1.053043E+0	1.127021E+0	1.074473E+0	1.052181E+0	1.062161E+0	1.041707E+0	1.077736E+0	1.043422E+0	1.082187E+0	1.052083E+0	1.038560E+0	1.132325E+0	1.109253E+0	1.086711E+0	1.074709E+0	1.042724E+0	1.038565E+0	1.084659E+0	1.059718E+0	1.075791E+0	1.098467E+0	1.074539E+0	1.060983E+0	1.112247E+0	1.072750E+0	1.118488E+0	1.059789E+0	1.092074E+0	1.059599E+0	1.096227E+0	1.068334E+0	1.083787E+0	1.102231E+0	1.049395E+0	1.086006E+0	1.073384E+0	1.065933E+0	1.058769E+0	1.108399E+0	1.079048E+0	1.046809E+0	1.049354E+0	1.043313E+0	1.055578E+0	1.064629E+0	1.061247E+0	1.072221E+0	1.066182E+0	1.060085E+0	1.072046E+0	1.053023E+0	1.049939E+0	1.051081E+0	1.115096E+0	1.038748E+0	1.053723E+0	1.101461E+0	1.022563E+0	1.082413E+0	1.098084E+0	1.083054E+0	1.052251E+0	1.062924E+0	1.048849E+0	1.057724E+0	1.012962E+0	1.056357E+0	1.040381E+0	1.062079E+0	1.072921E+0	1.033665E+0	1.064780E+0	1.098913E+0	1.092046E+0	1.012305E+0	1.048693E+0	1.074343E+0	1.008036E+0	1.041909E+0	1.040113E+0	1.074364E+0	1.078230E+0	1.053069E+0	1.089421E+0	1.077934E+0	1.090223E+0	1.099853E+0	1.057897E+0	1.064285E+0	1.114215E+0	1.013253E+0	1.098076E+0	1.078457E+0	1.084224E+0	1.053036E+0	1.085635E+0	1.048319E+0	1.051161E+0	1.061099E+0	1.087048E+0	1.079880E+0	1.075965E+0	1.079353E+0	1.087509E+0	1.101738E+0	1.014873E+0	1.051996E+0	1.087002E+0	1.101749E+0	1.063864E+0	1.089278E+0	1.071331E+0	1.026960E+0	1.090701E+0	1.079565E+0	1.093973E+0	1.118540E+0	1.108024E+0	1.081321E+0	1.102878E+0	1.131601E+0	1.070408E+0	1.030739E+0	1.046108E+0	1.088173E+0	1.099694E+0	1.071279E+0	1.037863E+0	1.112775E+0	1.069293E+0	1.067690E+0	1.034499E+0	1.089783E+0	1.094210E+0	1.059228E+0	1.083282E+0	9.837034E-1	1.114821E+0	1.096990E+0	1.038344E+0	1.068957E+0	1.077016E+0	1.067064E+0	1.058990E+0	1.133260E+0	1.045739E+0	1.032387E+0	1.038095E+0	1.117748E+0	1.128926E+0	1.054961E+0	1.075777E+0	1.087553E+0	1.089563E+0	1.046387E+0	1.096518E+0	1.086739E+0	1.016118E+0	1.065654E+0	1.096681E+0	1.106419E+0	1.023270E+0	1.049002E+0	1.097150E+0	1.063903E+0	1.052639E+0	1.012511E+0	1.033093E+0	1.012895E+0
5.550080E+2	1.038981E+0	1.034363E+0	1.026453E+0	1.041345E+0	9.919388E-1	1.007935E+0	1.021783E+0	1.026687E+0	1.040688E+0	1.003818E+0	1.008334E+0	1.012410E+0	1.017239E+0	1.039122E+0	1.046966E+0	1.019444E+0	1.005652E+0	9.523875E-1	9.815897E-1	1.022218E+0	9.605497E-1	1.059104E+0	1.004709E+0	9.814764E-1	1.021055E+0	9.891169E-1	1.025126E+0	1.011045E+0	1.016472E+0	1.006936E+0	1.039615E+0	1.053676E+0	9.636210E-1	9.984919E-1	9.835787E-1	1.013334E+0	1.018650E+0	1.011904E+0	9.826964E-1	9.606493E-1	1.025117E+0	1.076123E+0	1.043913E+0	1.019389E+0	1.010209E+0	1.019366E+0	9.996683E-1	1.000023E+0	1.001554E+0	1.027629E+0	9.925677E-1	9.502551E-1	9.850846E-1	1.026518E+0	1.014800E+0	1.040318E+0	1.035086E+0	1.066097E+0	1.025947E+0	1.054061E+0	1.015583E+0	1.025107E+0	1.019670E+0	9.658567E-1	1.008113E+0	1.015157E+0	1.020885E+0	1.005846E+0	9.888041E-1	1.030625E+0	9.943032E-1	1.000083E+0	1.027680E+0	9.719466E-1	9.923949E-1	9.441507E-1	9.921291E-1	9.992600E-1	9.832538E-1	9.877477E-1	1.008752E+0	9.839186E-1	1.042321E+0	9.782737E-1	1.017679E+0	9.589809E-1	1.006495E+0	9.601007E-1	1.007853E+0	9.842498E-1	1.034422E+0	1.043108E+0	1.010031E+0	1.027177E+0	9.954422E-1	9.897802E-1	9.734860E-1	1.039826E+0	9.961239E-1	9.938708E-1	9.632644E-1	9.499775E-1	1.007910E+0	9.932499E-1	1.006908E+0	1.012037E+0	1.067189E+0	9.917096E-1	1.012000E+0	9.981875E-1	1.004813E+0	1.030448E+0	1.025142E+0	9.892281E-1	1.028197E+0	1.039207E+0	1.039717E+0	1.001472E+0	1.001332E+0	1.022187E+0	1.064911E+0	1.055650E+0	1.008700E+0	1.011529E+0	1.022862E+0	1.043695E+0	1.004272E+0	9.742924E-1	1.031638E+0	1.011564E+0	1.025789E+0	9.964611E-1	9.818747E-1	1.034223E+0	1.049213E+0	9.949597E-1	1.004143E+0	9.907287E-1	1.013756E+0	1.015662E+0	1.015011E+0	1.022813E+0	9.873509E-1	9.788530E-1	1.048606E+0	1.013172E+0	1.042485E+0	1.027534E+0	9.648792E-1	9.989733E-1	1.019813E+0	1.017680E+0	1.026604E+0	1.018448E+0	1.013531E+0	1.016629E+0	9.765379E-1	1.057864E+0	9.962077E-1	1.021718E+0	1.011444E+0	1.019646E+0	9.625376E-1	9.949663E-1	9.764785E-1	1.004181E+0	9.922373E-1	9.637188E-1	1.000037E+0	1.107968E+0
5.558050E+2	9.956933E-1	1.073615E+0	9.835086E-1	1.018331E+0	1.030323E+0	1.047812E+0	1.041541E+0	1.057171E+0	1.028075E+0	1.032649E+0	1.025028E+0	1.005110E+0	1.017443E+0	9.997816E-1	9.975884E-1	9.716151E-1	1.018560E+0	1.051078E+0	9.937586E-1	9.835147E-1	1.021600E+0	9.974073E-1	1.009128E+0	9.796667E-1	1.006569E+0	1.044391E+0	9.624062E-1	9.828290E-1	9.984221E-1	9.774558E-1	1.026308E+0	9.901564E-1	9.732943E-1	9.752561E-1	9.812105E-1	1.007668E+0	1.039500E+0	1.032839E+0	1.022192E+0	1.007274E+0	1.029835E+0	9.726350E-1	1.009678E+0	1.015927E+0	1.031672E+0	9.954925E-1	1.026169E+0	1.004206E+0	1.022205E+0	9.945135E-1	1.003873E+0	1.015343E+0	1.033739E+0	9.794583E-1	1.030727E+0	9.999250E-1	1.024761E+0	9.801142E-1	1.010395E+0	9.756768E-1	9.866534E-1	1.003630E+0	1.010636E+0	9.737083E-1	9.887398E-1	1.050577E+0	9.993714E-1	1.064607E+0	1.007097E+0	9.984167E-1	1.003814E+0	9.868675E-1	9.760487E-1	1.041220E+0	1.012003E+0	9.827127E-1	1.001053E+0	1.046264E+0	1.004901E+0	9.700452E-1	1.025923E+0	9.592792E-1	1.000033E+0	1.033359E+0	1.001587E+0	9.966319E-1	1.007327E+0	9.947269E-1	1.005908E+0	1.051763E+0	1.008809E+0	1.011158E+0	1.021380E+0	1.041248E+0	1.026717E+0	1.003690E+0	9.875541E-1	9.816422E-1	9.841675E-1	1.016735E+0	1.041773E+0	1.022258E+0	1.018784E+0	1.028811E+0	1.019165E+0	1.032841E+0	9.898114E-1	9.580654E-1	9.664830E-1	9.935495E-1	1.014505E+0	9.896191E-1	9.952568E-1	1.017114E+0	1.069025E+0	1.042221E+0	1.030558E+0	1.002134E+0	9.705417E-1	1.039916E+0	1.004134E+0	9.874773E-1	1.038699E+0	1.064451E+0	9.763960E-1	1.011502E+0	1.017313E+0	1.042054E+0	9.293384E-1	9.605380E-1	1.010886E+0	1.031676E+0	1.024196E+0	9.890744E-1	1.055682E+0	9.860648E-1	9.630807E-1	9.937878E-1	1.044017E+0	9.896349E-1	1.011035E+0	1.003088E+0	1.007933E+0	9.818433E-1	1.090153E+0	1.057065E+0	1.011832E+0	9.548003E-1	1.008269E+0	1.030844E+0	1.015589E+0	9.991146E-1	9.653928E-1	9.700083E-1	1.020770E+0	9.850315E-1	9.708313E-1	1.008608E+0	9.794538E-1	1.032069E+0	1.035030E+0	1.000602E+0	9.982099E-1	9.859179E-1	9.945637E-1	1.015291E+0	9.972643E-1	1.009178E+0	1.011649E+0	1.018521E+0
5.560080E+2	9.654228E-1	1.002580E+0	1.004030E+0	1.009517E+0	9.866520E-1	9.870522E-1	9.870484E-1	9.696021E-1	1.016604E+0	9.837188E-1	9.465795E-1	1.000566E+0	9.923613E-1	1.005091E+0	1.006256E+0	9.795209E-1	9.905007E-1	9.492394E-1	1.009318E+0	9.894814E-1	9.854021E-1	9.804726E-1	9.756536E-1	9.708817E-1	1.007144E+0	9.887051E-1	9.591101E-1	9.609751E-1	1.007728E+0	1.023330E+0	1.005331E+0	9.933924E-1	9.905102E-1	9.652427E-1	1.042732E+0	1.001278E+0	9.941349E-1	1.022118E+0	9.616828E-1	1.002787E+0	9.738381E-1	1.009683E+0	1.001671E+0	1.026301E+0	1.010492E+0	1.048722E+0	9.997179E-1	9.707004E-1	1.004923E+0	1.019931E+0	9.800393E-1	9.794923E-1	9.857554E-1	1.016143E+0	1.014552E+0	1.014606E+0	1.001865E+0	1.013904E+0	9.824654E-1	9.989508E-1	1.019965E+0	9.756471E-1	9.900044E-1	9.967768E-1	9.916078E-1	9.999825E-1	9.831296E-1	9.506000E-1	9.901448E-1	1.010861E+0	9.736961E-1	9.909916E-1	9.806330E-1	1.008153E+0	9.964098E-1	9.674987E-1	9.993295E-1	9.762932E-1	1.020557E+0	1.005156E+0	1.008483E+0	1.029584E+0	9.677880E-1	1.013933E+0	1.018374E+0	9.715916E-1	1.021860E+0	9.780672E-1	1.008406E+0	9.762532E-1	1.053849E+0	9.867565E-1	9.626520E-1	1.015452E+0	9.907455E-1	9.743818E-1	9.906518E-1	1.001116E+0	9.865332E-1	9.952385E-1	9.809082E-1	9.761816E-1	9.848543E-1	1.010464E+0	9.802101E-1	9.777750E-1	9.956095E-1	9.963207E-1	1.027820E+0	9.658224E-1	1.042050E+0	9.719459E-1	9.793622E-1	9.778203E-1	9.737551E-1	9.466827E-1	9.935846E-1	1.000613E+0	9.954696E-1	1.002902E+0	1.029982E+0	1.018377E+0	9.646351E-1	1.011637E+0	9.931832E-1	1.022320E+0	9.622064E-1	9.750661E-1	9.960713E-1	1.029706E+0	9.524745E-1	1.012146E+0	9.216422E-1	1.000767E+0	1.017732E+0	9.747891E-1	1.039748E+0	9.996760E-1	9.616991E-1	1.035669E+0	9.906966E-1	1.011985E+0	1.034196E+0	9.842087E-1	9.418985E-1	9.968952E-1	9.713503E-1	1.000601E+0	9.957547E-1	1.027970E+0	9.542764E-1	1.013204E+0	9.831569E-1	9.826988E-1	9.927205E-1	9.953040E-1	9.877096E-1	1.005269E+0	9.956984E-1	1.010712E+0	1.024242E+0	1.025640E+0	1.003496E+0	1.045015E+0	9.595656E-1	9.877805E-1	9.920123E-1	1.009025E+0	9.697185E-1	1.038439E+0
5.565090E+2	9.914992E-1	9.864778E-1	9.804037E-1	8.825437E-1	9.602233E-1	9.858841E-1	9.988650E-1	1.020988E+0	1.030821E+0	9.819962E-1	9.596508E-1	9.903581E-1	9.972117E-1	9.732815E-1	1.029091E+0	9.812087E-1	9.637471E-1	9.749878E-1	9.971881E-1	9.677940E-1	1.001465E+0	9.706510E-1	9.665105E-1	9.996225E-1	9.736520E-1	9.542303E-1	9.880367E-1	9.779514E-1	9.785675E-1	9.959958E-1	9.644325E-1	9.432270E-1	9.504159E-1	9.807135E-1	9.775551E-1	9.950143E-1	9.719700E-1	9.747217E-1	9.590781E-1	1.007500E+0	9.710115E-1	9.982281E-1	9.775759E-1	9.896515E-1	1.008239E+0	9.334535E-1	9.880462E-1	9.802708E-1	9.882632E-1	9.364234E-1	9.904909E-1	9.971370E-1	9.866267E-1	9.927375E-1	9.989354E-1	9.840485E-1	1.014962E+0	9.514935E-1	9.856403E-1	9.765403E-1	9.922117E-1	1.005950E+0	9.597257E-1	9.640937E-1	9.581907E-1	9.941308E-1	1.021473E+0	1.013844E+0	9.720646E-1	9.948556E-1	9.679432E-1	9.740083E-1	9.951603E-1	9.638504E-1	9.775727E-1	9.654323E-1	9.814591E-1	1.013320E+0	9.792556E-1	9.347049E-1	9.120582E-1	9.511142E-1	9.916014E-1	1.004952E+0	9.736383E-1	9.501353E-1	9.577860E-1	9.581246E-1	9.731820E-1	9.953347E-1	9.897597E-1	9.694332E-1	9.566083E-1	9.949681E-1	1.018189E+0	9.657478E-1	9.694087E-1	9.933254E-1	1.012040E+0	1.030444E+0	9.729272E-1	1.002255E+0	9.375160E-1	9.582553E-1	9.737881E-1	9.659799E-1	1.002363E+0	9.480907E-1	9.273061E-1	1.011123E+0	9.727722E-1	9.904156E-1	9.827260E-1	9.904107E-1	9.669815E-1	9.841407E-1	1.004063E+0	9.656766E-1	9.832495E-1	9.602962E-1	9.322511E-1	9.612707E-1	9.439308E-1	9.366513E-1	9.946682E-1	9.629651E-1	9.774807E-1	9.877932E-1	9.437535E-1	1.003476E+0	1.019689E+0	9.631798E-1	1.011279E+0	9.647691E-1	9.855037E-1	9.652010E-1	9.776843E-1	9.745855E-1	9.535822E-1	9.826352E-1	1.001330E+0	9.585132E-1	9.686260E-1	9.657239E-1	9.555928E-1	1.015382E+0	9.616837E-1	9.692639E-1	9.928755E-1	9.828426E-1	9.720468E-1	9.790460E-1	9.815102E-1	1.001873E+0	9.732840E-1	9.534194E-1	9.768535E-1	9.531547E-1	9.579505E-1	1.007467E+0	9.811415E-1	1.033930E+0	9.931289E-1	9.838601E-1	9.530884E-1	1.025332E+0	1.046314E+0	9.872135E-1	8.745637E-1	1.010724E+0
5.570330E+2	9.725359E-1	9.627680E-1	9.619756E-1	9.701994E-1	9.901651E-1	9.835100E-1	9.670752E-1	9.424441E-1	9.633040E-1	9.810588E-1	9.495778E-1	9.607325E-1	9.917825E-1	9.759135E-1	9.792166E-1	9.415738E-1	9.850253E-1	9.707294E-1	9.801702E-1	9.764834E-1	9.612168E-1	9.690714E-1	9.549528E-1	1.012048E+0	9.466211E-1	1.045202E+0	1.022901E+0	1.023885E+0	9.508448E-1	1.002977E+0	9.814015E-1	9.907353E-1	9.876632E-1	1.020255E+0	1.006544E+0	9.728825E-1	1.000370E+0	9.614063E-1	9.860227E-1	9.722403E-1	9.909239E-1	9.968280E-1	1.019672E+0	9.751111E-1	9.950425E-1	9.481746E-1	9.750247E-1	9.661026E-1	9.262935E-1	9.313740E-1	9.809603E-1	9.485996E-1	9.688946E-1	9.861525E-1	9.660487E-1	9.699993E-1	1.004811E+0	9.786774E-1	9.837740E-1	9.629676E-1	9.798380E-1	9.975272E-1	1.002153E+0	9.759815E-1	1.009548E+0	9.966588E-1	9.959918E-1	9.626728E-1	1.020584E+0	9.615535E-1	1.018294E+0	9.450812E-1	1.001573E+0	1.005234E+0	9.260223E-1	9.643333E-1	1.009826E+0	9.957757E-1	1.002120E+0	9.305881E-1	9.737894E-1	9.798858E-1	1.016032E+0	9.929922E-1	9.643427E-1	9.604494E-1	9.436826E-1	9.764573E-1	9.507662E-1	9.472762E-1	1.026452E+0	1.013827E+0	1.001123E+0	9.700072E-1	9.820969E-1	9.650838E-1	9.702226E-1	9.714807E-1	9.399387E-1	1.007064E+0	9.765326E-1	9.440826E-1	9.718480E-1	1.002988E+0	9.293428E-1	9.872845E-1	1.018987E+0	1.002176E+0	9.789656E-1	9.838437E-1	9.462700E-1	9.794091E-1	9.700568E-1	9.689732E-1	9.854707E-1	9.517953E-1	9.810185E-1	9.875277E-1	9.660699E-1	9.523059E-1	9.796777E-1	9.605805E-1	1.047521E+0	9.532328E-1	9.678217E-1	9.688525E-1	9.322277E-1	9.617004E-1	9.758947E-1	9.435713E-1	9.950866E-1	9.574359E-1	9.735747E-1	9.748696E-1	9.895378E-1	1.009717E+0	9.869154E-1	9.671247E-1	9.539228E-1	9.514220E-1	9.699518E-1	9.591367E-1	9.940988E-1	9.821678E-1	9.770026E-1	1.003309E+0	9.517606E-1	1.001663E+0	9.648632E-1	1.016411E+0	9.447010E-1	9.766504E-1	1.011781E+0	9.599159E-1	1.010903E+0	9.702757E-1	1.002122E+0	9.507104E-1	1.008313E+0	9.334836E-1	9.479034E-1	9.674977E-1	9.618650E-1	9.788517E-1	1.020020E+0	9.705509E-1	9.488017E-1	9.966512E-1	9.572099E-1	8.884075E-1
5.575300E+2	9.935588E-1	9.924462E-1	9.555736E-1	9.789658E-1	9.567976E-1	9.497034E-1	9.455655E-1	1.000598E+0	8.844118E-1	9.560008E-1	9.741056E-1	9.377793E-1	9.645757E-1	9.767133E-1	9.587333E-1	9.407998E-1	9.800755E-1	9.642930E-1	9.693760E-1	9.596377E-1	9.545683E-1	9.594081E-1	9.466896E-1	9.262366E-1	9.460097E-1	9.719199E-1	9.351368E-1	9.639944E-1	9.540278E-1	9.423821E-1	9.727797E-1	9.714603E-1	9.761776E-1	9.444692E-1	9.563017E-1	9.638524E-1	9.631151E-1	9.415528E-1	9.744403E-1	1.000704E+0	9.580590E-1	9.554721E-1	9.914039E-1	9.813237E-1	9.598217E-1	9.808695E-1	9.344777E-1	9.913697E-1	9.419480E-1	9.693477E-1	9.453982E-1	8.979418E-1	9.509447E-1	9.447744E-1	9.668538E-1	9.234360E-1	9.508080E-1	9.813729E-1	9.585709E-1	9.679494E-1	9.546115E-1	9.531952E-1	9.536091E-1	9.430044E-1	9.444617E-1	9.895762E-1	9.859853E-1	9.748324E-1	9.353612E-1	9.181297E-1	9.090993E-1	9.519141E-1	9.368621E-1	9.500263E-1	9.321571E-1	9.639953E-1	9.404392E-1	9.470276E-1	9.420620E-1	9.496124E-1	9.570039E-1	9.357623E-1	9.528224E-1	9.700588E-1	1.009900E+0	1.005947E+0	9.642627E-1	9.775094E-1	9.288327E-1	9.741474E-1	9.629478E-1	9.699175E-1	9.278796E-1	9.172669E-1	9.458583E-1	9.869398E-1	9.225135E-1	9.719579E-1	9.460531E-1	9.538001E-1	9.463772E-1	9.569794E-1	9.552264E-1	9.668000E-1	9.707622E-1	9.737332E-1	9.501718E-1	9.388802E-1	9.284133E-1	9.688935E-1	9.857454E-1	9.608181E-1	9.540805E-1	9.782770E-1	9.151396E-1	9.587887E-1	9.751821E-1	9.482108E-1	9.765417E-1	9.328890E-1	9.751537E-1	9.920802E-1	9.641679E-1	9.551800E-1	9.747897E-1	9.609162E-1	9.816869E-1	9.301462E-1	9.723768E-1	9.497121E-1	8.946778E-1	9.637085E-1	9.419751E-1	9.406813E-1	9.509107E-1	9.402326E-1	9.189309E-1	9.291034E-1	9.353815E-1	9.218325E-1	9.616758E-1	9.796021E-1	9.396942E-1	9.595192E-1	9.797256E-1	9.602371E-1	9.810758E-1	9.688157E-1	9.803593E-1	9.232873E-1	9.415644E-1	9.453950E-1	9.511650E-1	9.614409E-1	9.488384E-1	9.019412E-1	9.318220E-1	9.418135E-1	9.605254E-1	9.448057E-1	9.478047E-1	9.750666E-1	9.269220E-1	9.256694E-1	9.208136E-1	9.535801E-1	9.454697E-1	9.610320E-1	9.535441E-1	9.205085E-1
5.580000E+2	9.659819E-1	9.662308E-1	9.902890E-1	9.816137E-1	9.982508E-1	9.537665E-1	9.934605E-1	9.624372E-1	9.860928E-1	9.432127E-1	9.722269E-1	9.670368E-1	9.798729E-1	9.706895E-1	9.618298E-1	9.636343E-1	9.612281E-1	9.494396E-1	9.550447E-1	9.737823E-1	9.579925E-1	9.562057E-1	1.015651E+0	9.897105E-1	9.812998E-1	9.583393E-1	9.973212E-1	9.543913E-1	9.491779E-1	9.670719E-1	9.991896E-1	9.777721E-1	1.000186E+0	9.805387E-1	9.456202E-1	9.556526E-1	9.525475E-1	9.525610E-1	9.899959E-1	9.443468E-1	9.028590E-1	9.511181E-1	9.357829E-1	9.520987E-1	9.852767E-1	9.775154E-1	9.719648E-1	9.737354E-1	9.760930E-1	1.014896E+0	9.677676E-1	1.006885E+0	1.010385E+0	9.654200E-1	9.547146E-1	9.991977E-1	9.556262E-1	9.477875E-1	1.048374E+0	9.536841E-1	9.607000E-1	9.801358E-1	9.965617E-1	9.330351E-1	9.531689E-1	9.247436E-1	9.650062E-1	9.814692E-1	9.406880E-1	9.642901E-1	9.335897E-1	9.656809E-1	9.438349E-1	9.676479E-1	1.004498E+0	9.768976E-1	1.001192E+0	9.853727E-1	9.565950E-1	9.762454E-1	9.156531E-1	1.010408E+0	9.569786E-1	9.930728E-1	9.691704E-1	9.807394E-1	9.960051E-1	9.765629E-1	1.013583E+0	9.563476E-1	1.000697E+0	9.307754E-1	1.007711E+0	9.879076E-1	1.002735E+0	9.688019E-1	9.798479E-1	9.617355E-1	9.718286E-1	9.813134E-1	9.726054E-1	9.593523E-1	9.596888E-1	1.019908E+0	9.671425E-1	9.566813E-1	9.637693E-1	9.557773E-1	1.011519E+0	9.863664E-1	9.773506E-1	9.422089E-1	9.368000E-1	9.541559E-1	9.485636E-1	1.003696E+0	9.385219E-1	9.877412E-1	9.597156E-1	9.836085E-1	9.732469E-1	1.003297E+0	9.852349E-1	9.739052E-1	9.460989E-1	9.718935E-1	9.624476E-1	9.867257E-1	9.751403E-1	9.106348E-1	9.594178E-1	9.509965E-1	1.016984E+0	1.003612E+0	9.424871E-1	9.649312E-1	9.338015E-1	9.614059E-1	9.739830E-1	9.948731E-1	9.890346E-1	9.712696E-1	9.576327E-1	9.977080E-1	9.437957E-1	9.979997E-1	9.468947E-1	9.877774E-1	9.478755E-1	9.394448E-1	9.830890E-1	9.627386E-1	9.701446E-1	9.712696E-1	9.511967E-1	9.558657E-1	9.902666E-1	1.005386E+0	9.603210E-1	9.644296E-1	1.000588E+0	9.562302E-1	9.972467E-1	9.981414E-1	9.993074E-1	9.876349E-1	9.857496E-1	9.656871E-1	1.009630E+0	9.818654E-1
5.585100E+2	1.012578E+0	1.011034E+0	1.028094E+0	9.745916E-1	1.033421E+0	1.043792E+0	9.989151E-1	1.026208E+0	9.942711E-1	1.040396E+0	1.014309E+0	9.762703E-1	1.030066E+0	9.937560E-1	1.013034E+0	1.003573E+0	1.048352E+0	1.006036E+0	1.031400E+0	9.890825E-1	1.020547E+0	9.816696E-1	1.045954E+0	9.857281E-1	1.084739E+0	1.018638E+0	1.042976E+0	9.734152E-1	1.037793E+0	9.835101E-1	1.025703E+0	1.036831E+0	1.021358E+0	1.037833E+0	1.019127E+0	1.035945E+0	1.020762E+0	1.040710E+0	9.856345E-1	9.995304E-1	9.990884E-1	1.074046E+0	9.994520E-1	9.626446E-1	1.026018E+0	1.027723E+0	1.028391E+0	9.999454E-1	9.961307E-1	1.008061E+0	1.036876E+0	1.055609E+0	9.957097E-1	9.834146E-1	9.861408E-1	9.953786E-1	1.011823E+0	1.021400E+0	1.021771E+0	1.018239E+0	9.714057E-1	1.015675E+0	1.035719E+0	1.003654E+0	1.047426E+0	9.960146E-1	1.048363E+0	1.048546E+0	1.038472E+0	1.003757E+0	1.029215E+0	9.941002E-1	9.950746E-1	1.067299E+0	1.041530E+0	1.027606E+0	9.925507E-1	1.000954E+0	1.012706E+0	1.052757E+0	1.005676E+0	1.008944E+0	1.037042E+0	1.040297E+0	9.997017E-1	1.007146E+0	9.879329E-1	1.029178E+0	9.944564E-1	1.020565E+0	9.615019E-1	1.020943E+0	1.052533E+0	1.033388E+0	1.036329E+0	1.021145E+0	1.047906E+0	9.942730E-1	1.007269E+0	9.797220E-1	1.026072E+0	9.968355E-1	1.010565E+0	9.829558E-1	1.025340E+0	9.514346E-1	1.051744E+0	1.021486E+0	1.042137E+0	1.012388E+0	9.863458E-1	1.010258E+0	1.094929E+0	1.037817E+0	1.045920E+0	9.885862E-1	1.026597E+0	1.018693E+0	1.041496E+0	1.008594E+0	1.002176E+0	1.007635E+0	1.010593E+0	1.023470E+0	9.999585E-1	1.057365E+0	1.028809E+0	1.013631E+0	1.028219E+0	1.026572E+0	1.004425E+0	1.047552E+0	1.036596E+0	1.016255E+0	1.019331E+0	1.005249E+0	1.011079E+0	1.039071E+0	1.044245E+0	1.014627E+0	1.020382E+0	1.037447E+0	1.039303E+0	1.010424E+0	1.011504E+0	1.007289E+0	1.032191E+0	1.012549E+0	9.987831E-1	1.039143E+0	1.028651E+0	9.911164E-1	9.789651E-1	1.044519E+0	9.872892E-1	1.061157E+0	1.026431E+0	1.023113E+0	1.005206E+0	9.997207E-1	1.018114E+0	1.014248E+0	9.820427E-1	1.011642E+0	1.044674E+0	1.012941E+0	1.021047E+0	9.985298E-1	9.860962E-1	9.953586E-1
5.590100E+2	1.035330E+0	1.021907E+0	1.043649E+0	9.963663E-1	1.003913E+0	1.043411E+0	1.041256E+0	1.026499E+0	1.046490E+0	1.016100E+0	1.088882E+0	1.043609E+0	1.011715E+0	1.065390E+0	1.009657E+0	1.065468E+0	1.017051E+0	1.071988E+0	1.053765E+0	1.019184E+0	1.049538E+0	1.040407E+0	1.035613E+0	1.046499E+0	1.046409E+0	1.058066E+0	1.015925E+0	9.953179E-1	1.063048E+0	1.016224E+0	1.039236E+0	1.059464E+0	1.056743E+0	1.051318E+0	1.043542E+0	1.032318E+0	1.065133E+0	1.032306E+0	1.062591E+0	1.033011E+0	1.097949E+0	9.910353E-1	1.025813E+0	1.018906E+0	1.063936E+0	1.063004E+0	1.051485E+0	1.043412E+0	1.042429E+0	1.025395E+0	1.061888E+0	1.069915E+0	1.091757E+0	1.078941E+0	1.077520E+0	1.035384E+0	1.021418E+0	1.056785E+0	1.028036E+0	1.057955E+0	1.061296E+0	1.055883E+0	1.056565E+0	1.048255E+0	1.062842E+0	1.052498E+0	9.902371E-1	1.059267E+0	9.916257E-1	1.032895E+0	1.102990E+0	1.042694E+0	1.072525E+0	9.978842E-1	1.044829E+0	1.041685E+0	1.050701E+0	1.052452E+0	1.094325E+0	1.010928E+0	1.086575E+0	1.023212E+0	1.066536E+0	1.008593E+0	1.010244E+0	1.039005E+0	1.042873E+0	1.039610E+0	1.041140E+0	1.066338E+0	1.030530E+0	1.004789E+0	1.024618E+0	1.030162E+0	1.052522E+0	1.023100E+0	1.040210E+0	1.032581E+0	1.108349E+0	1.030439E+0	1.040711E+0	1.097996E+0	1.052663E+0	1.056590E+0	1.061197E+0	1.072949E+0	1.058698E+0	1.063161E+0	1.035667E+0	1.050483E+0	1.055615E+0	1.047422E+0	9.908715E-1	1.028925E+0	1.088526E+0	1.041385E+0	1.036345E+0	1.060467E+0	1.048126E+0	1.032564E+0	1.092189E+0	1.043002E+0	1.042980E+0	1.113621E+0	1.036678E+0	1.004477E+0	1.048629E+0	1.064542E+0	1.036239E+0	1.025776E+0	1.057217E+0	1.104943E+0	1.035654E+0	1.061064E+0	1.063826E+0	1.069955E+0	1.058194E+0	1.098199E+0	1.054388E+0	1.044371E+0	1.017412E+0	1.030456E+0	1.051104E+0	1.060560E+0	1.055527E+0	1.004177E+0	1.094371E+0	1.025709E+0	1.065513E+0	1.005330E+0	1.044257E+0	1.078175E+0	1.088856E+0	1.099186E+0	1.055783E+0	1.118046E+0	1.065345E+0	1.041139E+0	1.047398E+0	1.098154E+0	1.038623E+0	1.053153E+0	1.073239E+0	1.003839E+0	1.094807E+0	1.039059E+0	1.041029E+0	9.925258E-1	1.135653E+0	1.027659E+0
5.595110E+2	1.050531E+0	1.033499E+0	1.017469E+0	9.508394E-1	1.010695E+0	1.049113E+0	1.038630E+0	1.023411E+0	1.064520E+0	1.014110E+0	1.045502E+0	1.054317E+0	1.011521E+0	1.041783E+0	1.023159E+0	1.030614E+0	1.043474E+0	1.014399E+0	1.019409E+0	1.029778E+0	1.047598E+0	1.042113E+0	1.042408E+0	1.050422E+0	1.027263E+0	1.057955E+0	1.017117E+0	1.020609E+0	1.028868E+0	1.027865E+0	1.001057E+0	9.622765E-1	9.841372E-1	1.007557E+0	9.964665E-1	1.006587E+0	1.061435E+0	1.061368E+0	1.044880E+0	1.041866E+0	1.029800E+0	1.010856E+0	9.989080E-1	1.016593E+0	1.040178E+0	9.779250E-1	1.021306E+0	1.043541E+0	1.062511E+0	1.057676E+0	1.000691E+0	1.025270E+0	9.833229E-1	1.009840E+0	1.039247E+0	1.059625E+0	1.019506E+0	1.087480E+0	9.951626E-1	1.000217E+0	1.017409E+0	9.990907E-1	1.016187E+0	9.937412E-1	1.001981E+0	1.021603E+0	1.000489E+0	1.035233E+0	1.033274E+0	1.032528E+0	1.028346E+0	1.068776E+0	1.077043E+0	1.055403E+0	1.026631E+0	1.045842E+0	1.047544E+0	1.029607E+0	1.042545E+0	1.067736E+0	1.021879E+0	1.077775E+0	1.028764E+0	1.017440E+0	1.022554E+0	1.031192E+0	1.051189E+0	1.038455E+0	1.046346E+0	1.020163E+0	1.035928E+0	1.003489E+0	9.874063E-1	1.028066E+0	1.046416E+0	1.048128E+0	1.042119E+0	1.075524E+0	1.039883E+0	1.011274E+0	1.032685E+0	1.050503E+0	1.066404E+0	1.000352E+0	1.019925E+0	1.102282E+0	1.022498E+0	1.027275E+0	1.047936E+0	9.999107E-1	1.054641E+0	1.029402E+0	1.031155E+0	9.918414E-1	1.064538E+0	1.038792E+0	1.003867E+0	1.027325E+0	1.032871E+0	1.085534E+0	1.033677E+0	1.030193E+0	1.011830E+0	1.023151E+0	1.023085E+0	1.022328E+0	1.055335E+0	1.001545E+0	1.027587E+0	1.061731E+0	1.038198E+0	1.019450E+0	1.043202E+0	1.021774E+0	1.021980E+0	1.038231E+0	1.023218E+0	1.023962E+0	1.046603E+0	1.010183E+0	1.031515E+0	9.974505E-1	1.027711E+0	1.030535E+0	1.060848E+0	1.008894E+0	1.026111E+0	1.044222E+0	1.013766E+0	9.975372E-1	1.061024E+0	1.055272E+0	9.847582E-1	9.808169E-1	1.050395E+0	1.010682E+0	1.004322E+0	1.029873E+0	1.020657E+0	1.031556E+0	1.028260E+0	1.037808E+0	1.077287E+0	9.991959E-1	1.016439E+0	1.004360E+0	1.032894E+0	1.022988E+0	9.954520E-1	1.027396E+0
5.600010E+2	1.017245E+0	1.019199E+0	9.887812E-1	1.149610E+0	1.018133E+0	1.015234E+0	1.014436E+0	1.003048E+0	9.652567E-1	1.024278E+0	1.044457E+0	1.078753E+0	1.035573E+0	9.964445E-1	1.007478E+0	1.038847E+0	1.047731E+0	1.055972E+0	9.864739E-1	1.048806E+0	1.009255E+0	1.022639E+0	1.033106E+0	1.030742E+0	1.023182E+0	1.003589E+0	1.060798E+0	1.059861E+0	1.050944E+0	1.037292E+0	1.001583E+0	1.017644E+0	1.029540E+0	1.017222E+0	1.041910E+0	1.007049E+0	1.021528E+0	9.799799E-1	1.037689E+0	1.024141E+0	1.044382E+0	1.021115E+0	1.054945E+0	1.071389E+0	1.001220E+0	1.033129E+0	9.986839E-1	1.036955E+0	1.015642E+0	9.861941E-1	1.065743E+0	1.031321E+0	1.023567E+0	1.049260E+0	9.991275E-1	9.836596E-1	1.018029E+0	9.783381E-1	1.011229E+0	1.035440E+0	1.002027E+0	1.019007E+0	9.985624E-1	1.048124E+0	1.021299E+0	1.023279E+0	1.015374E+0	1.025311E+0	1.097911E+0	1.024297E+0	1.029659E+0	1.030067E+0	1.042500E+0	9.876273E-1	1.022751E+0	1.027669E+0	9.956817E-1	1.005734E+0	9.976107E-1	1.021704E+0	1.063810E+0	9.618887E-1	1.021759E+0	9.875984E-1	1.017626E+0	1.024578E+0	1.042511E+0	1.006149E+0	1.037723E+0	9.953195E-1	9.860919E-1	1.023719E+0	1.053830E+0	1.007642E+0	9.996302E-1	1.035244E+0	9.980330E-1	9.993563E-1	1.024685E+0	1.020063E+0	1.011828E+0	1.007871E+0	1.057072E+0	1.012004E+0	1.025984E+0	1.004236E+0	1.027936E+0	1.012519E+0	1.033592E+0	9.816397E-1	9.828063E-1	1.031536E+0	1.009395E+0	1.055958E+0	1.013989E+0	1.065209E+0	1.038326E+0	1.042635E+0	9.997192E-1	1.031842E+0	1.014098E+0	1.007076E+0	1.021485E+0	1.004311E+0	1.067462E+0	9.963789E-1	1.049169E+0	1.038458E+0	1.031012E+0	1.029676E+0	1.048886E+0	1.007135E+0	1.016602E+0	9.910393E-1	1.018682E+0	1.022507E+0	1.048388E+0	9.600144E-1	1.026359E+0	9.961445E-1	1.032464E+0	1.039588E+0	1.001935E+0	1.019470E+0	1.011223E+0	1.020491E+0	1.012115E+0	1.015988E+0	9.923316E-1	1.015116E+0	1.043157E+0	1.010172E+0	1.010007E+0	1.022415E+0	1.016652E+0	1.024671E+0	1.021921E+0	1.033743E+0	1.050345E+0	9.915983E-1	1.036874E+0	1.030848E+0	1.018740E+0	1.030459E+0	1.019610E+0	1.031152E+0	1.015268E+0	1.055617E+0	1.045547E+0	1.029554E+0
5.605090E+2	9.615311E-1	1.013655E+0	1.003661E+0	1.093060E+0	1.008383E+0	9.823361E-1	9.783477E-1	9.976978E-1	1.001170E+0	9.924852E-1	1.006002E+0	9.740589E-1	9.927358E-1	9.896936E-1	1.002857E+0	1.027007E+0	9.888641E-1	1.026144E+0	1.001193E+0	1.004323E+0	1.001156E+0	1.025192E+0	9.744538E-1	9.921256E-1	9.685081E-1	9.818504E-1	1.010852E+0	1.047741E+0	9.912145E-1	1.003783E+0	9.844858E-1	9.995632E-1	9.810643E-1	9.722613E-1	9.664292E-1	9.490802E-1	9.581034E-1	1.016939E+0	9.847568E-1	9.766187E-1	1.023309E+0	9.957727E-1	9.846003E-1	9.738561E-1	9.147241E-1	9.787465E-1	9.706010E-1	9.842152E-1	1.028235E+0	1.014565E+0	9.337103E-1	9.964139E-1	1.009520E+0	9.977970E-1	9.652794E-1	1.008969E+0	9.572602E-1	9.805976E-1	9.626302E-1	1.018179E+0	1.016952E+0	9.855320E-1	9.992646E-1	1.037384E+0	9.953563E-1	9.988569E-1	1.000479E+0	9.607959E-1	9.657045E-1	9.724001E-1	9.853475E-1	1.039001E+0	9.678193E-1	9.595469E-1	1.003451E+0	9.875221E-1	9.995959E-1	9.612059E-1	9.769819E-1	1.044434E+0	1.043699E+0	9.796574E-1	9.802849E-1	9.345654E-1	9.873726E-1	9.996342E-1	1.008138E+0	9.949152E-1	9.879929E-1	9.871755E-1	9.424510E-1	1.008812E+0	1.014417E+0	1.001194E+0	9.335868E-1	9.771967E-1	1.009347E+0	9.643329E-1	9.829532E-1	1.018994E+0	1.012390E+0	9.986210E-1	9.723197E-1	9.804413E-1	1.011681E+0	9.819208E-1	9.210126E-1	1.045875E+0	9.741532E-1	9.967668E-1	9.836503E-1	1.018584E+0	9.921820E-1	1.026085E+0	9.904587E-1	9.890153E-1	1.011281E+0	9.801742E-1	9.801189E-1	9.795232E-1	9.677074E-1	9.770003E-1	9.748413E-1	1.011895E+0	1.005067E+0	1.012757E+0	9.958663E-1	9.713789E-1	1.010107E+0	9.934845E-1	1.035363E+0	9.835357E-1	9.831850E-1	1.021610E+0	9.834920E-1	1.026571E+0	1.013326E+0	1.014400E+0	1.031035E+0	1.002825E+0	9.447143E-1	9.884612E-1	9.594207E-1	9.740882E-1	1.002633E+0	9.848856E-1	9.928608E-1	9.306141E-1	9.891907E-1	1.016509E+0	1.011459E+0	9.769347E-1	1.043374E+0	9.704401E-1	1.015195E+0	9.980073E-1	9.923424E-1	1.011770E+0	9.910410E-1	9.902846E-1	9.620506E-1	9.520781E-1	9.519465E-1	9.761919E-1	9.913638E-1	9.621374E-1	9.548913E-1	9.934712E-1	1.007996E+0	1.033797E+0
5.610410E+2	1.033785E+0	9.902038E-1	1.026074E+0	1.012694E+0	1.033366E+0	1.006197E+0	1.036400E+0	1.027066E+0	1.047059E+0	1.066644E+0	9.987069E-1	1.016519E+0	9.925857E-1	1.011244E+0	1.008689E+0	1.027753E+0	9.739522E-1	1.016772E+0	9.966615E-1	1.041648E+0	1.011262E+0	1.052170E+0	1.009007E+0	9.959833E-1	9.951728E-1	9.615056E-1	9.498262E-1	1.021859E+0	9.877852E-1	9.995678E-1	1.024801E+0	1.047633E+0	1.022205E+0	1.022590E+0	1.003772E+0	1.080341E+0	9.909011E-1	1.016337E+0	1.013228E+0	9.972547E-1	1.008781E+0	9.958457E-1	1.010176E+0	1.032125E+0	9.950535E-1	1.030738E+0	1.060301E+0	1.009753E+0	1.017531E+0	1.036138E+0	1.036435E+0	9.914151E-1	9.935167E-1	9.755197E-1	1.031580E+0	1.025697E+0	1.043891E+0	1.002164E+0	1.022346E+0	1.009878E+0	1.023584E+0	1.012357E+0	9.916479E-1	1.055950E+0	1.014119E+0	1.002656E+0	9.934722E-1	9.874292E-1	1.014171E+0	1.084433E+0	1.021820E+0	9.976854E-1	9.869755E-1	1.037328E+0	1.024148E+0	1.031519E+0	9.816803E-1	1.032259E+0	9.752416E-1	1.006134E+0	1.011374E+0	1.041769E+0	9.803911E-1	1.036497E+0	1.027076E+0	1.029581E+0	9.837594E-1	1.024970E+0	1.017572E+0	1.061080E+0	1.009791E+0	1.067538E+0	1.011221E+0	1.013946E+0	9.918907E-1	1.034232E+0	1.029741E+0	1.034317E+0	9.804670E-1	9.716488E-1	1.026964E+0	1.009324E+0	1.031842E+0	1.009243E+0	1.034627E+0	1.025723E+0	9.872098E-1	9.884391E-1	9.924901E-1	1.042763E+0	1.012754E+0	1.018000E+0	1.058441E+0	9.897359E-1	1.006658E+0	1.031909E+0	9.912141E-1	9.809356E-1	1.016623E+0	1.029941E+0	9.998409E-1	9.994888E-1	1.032781E+0	9.929460E-1	9.911882E-1	1.019746E+0	1.006143E+0	1.069014E+0	1.003598E+0	1.025660E+0	9.945649E-1	9.899177E-1	1.019306E+0	1.003557E+0	1.006518E+0	9.826152E-1	9.887152E-1	1.032459E+0	1.018802E+0	1.045417E+0	1.040823E+0	1.026090E+0	1.026279E+0	1.015595E+0	1.060249E+0	1.000440E+0	1.029585E+0	1.042797E+0	1.058688E+0	1.036409E+0	1.015775E+0	1.011296E+0	9.962813E-1	1.005424E+0	9.977435E-1	1.010630E+0	1.000866E+0	1.004027E+0	1.002544E+0	1.027789E+0	1.014399E+0	9.535002E-1	1.014086E+0	1.047135E+0	9.803114E-1	1.025472E+0	1.016524E+0	1.017260E+0	1.064589E+0	1.046290E+0
