Photon Energy (eV)	#1	#2	#3	#4	#5	#6	#7	#8	#9	#10	#11	#12	#13	#14	#15	#16	#17	#18	#19	#20	#21	#22	#23	#24	#25	#26	#27	#28	#29	#30	#31	#32	#33	#34	#35	#36	#37	#38	#39	#40	#41	#42	#43	#44	#45	#46	#47	#48	#49	#50	#51	#52	#53	#54	#55	#56	#57	#58	#59	#60	#61	#62	#63	#64	#65	#66	#67	#68	#69	#70	#71	#72	#73	#74	#75	#76	#77	#78	#79	#80	#81	#82	#83	#84	#85	#86	#87	#88	#89	#90	#91	#92	#93	#94	#95	#96	#97	#98	#99	#100	#101	#102	#103	#104	#105	#106	#107	#108	#109	#110	#111	#112	#113	#114	#115	#116	#117	#118	#119	#120	#121	#122	#123	#124	#125	#126	#127	#128	#129	#130	#131	#132	#133	#134	#135	#136	#137	#138	#139	#140	#141	#142	#143	#144	#145	#146	#147	#148	#149	#150	#151	#152	#153	#154	#155	#156	#157	#158	#159	#160	#161	#162	#163	#164	#165	#166	#167	#168	#169	#170	
5.300370E+2	-6.258994E-3	-1.068614E-2	-7.257586E-3	-1.274546E-2	-5.326778E-3	-5.682234E-3	1.924086E-4	7.296232E-3	-9.463367E-3	-1.781228E-3	-2.250258E-4	-7.434033E-3	-2.472830E-3	-2.711025E-3	-2.769019E-3	-2.555980E-3	5.049699E-4	-4.565861E-3	-3.784590E-3	-9.253255E-4	-1.058046E-2	-3.428160E-3	-1.034700E-2	-8.005885E-4	-4.948750E-3	-1.057980E-2	-5.448901E-3	-3.079941E-3	-1.501190E-3	-3.750753E-3	-8.118401E-3	-5.079606E-3	-1.877996E-4	1.571751E-3	1.236217E-3	5.247574E-4	-1.838559E-3	-5.951060E-3	-5.288995E-3	-1.130311E-2	-1.612611E-2	-9.184952E-3	-1.433619E-3	-7.444336E-3	-8.140475E-3	-4.431968E-3	-5.222957E-3	-2.070343E-3	1.091270E-3	-3.500480E-3	-2.426688E-4	2.641551E-3	-7.119414E-4	-1.383743E-3	-5.855701E-3	-3.745980E-3	4.573392E-3	-5.447388E-3	-6.736326E-3	-6.610937E-3	-5.835378E-4	-2.727652E-3	-4.394826E-3	-6.020191E-3	-4.387856E-3	-4.224133E-3	-1.353794E-2	-7.543450E-3	-1.385321E-2	-1.566184E-3	-1.318849E-3	-2.833625E-3	-7.663196E-3	-1.365265E-2	-5.335740E-3	-1.745963E-4	2.786571E-3	-5.593103E-3	-7.849565E-3	-4.467765E-3	-5.226933E-3	1.029285E-3	-3.228935E-4	-5.305589E-3	-5.083299E-3	-7.754245E-3	-3.285160E-3	-8.014165E-3	3.055482E-3	-1.972076E-3	-8.304840E-3	-5.658708E-3	-9.307055E-4	-8.893537E-3	-2.480105E-3	-8.891203E-4	3.385876E-3	-4.995686E-3	-6.834345E-3	-7.776724E-3	-5.223812E-3	-6.593256E-3	-8.261498E-3	-2.313171E-4	-8.521589E-3	3.380180E-4	-1.932189E-3	-8.674251E-3	-3.151737E-3	-1.002919E-2	-3.728518E-3	-4.611051E-3	-6.247869E-3	2.130156E-5	-4.562828E-3	7.449746E-4	-5.134190E-3	1.638187E-3	-7.989036E-4	-9.313860E-3	-1.097011E-2	-1.077994E-2	-6.311897E-3	-4.355481E-3	2.217186E-4	-7.942617E-3	-9.306689E-3	-2.456869E-4	-3.012304E-4	-4.330020E-4	7.527925E-4	3.207424E-3	-4.714769E-3	-1.099836E-2	-7.926309E-3	-1.130328E-3	-4.124949E-3	-9.033565E-3	-6.252945E-3	-2.173101E-3	-5.554833E-3	5.333501E-4	-2.824729E-3	1.844814E-3	-5.958351E-3	-6.830270E-3	-9.342877E-3	2.224328E-4	-3.090855E-3	-2.208252E-3	-9.006080E-3	-1.836014E-3	-1.834473E-2	-1.115009E-2	5.907292E-3	-1.658304E-3	-1.522448E-4	-9.628324E-3	-5.080374E-3	-3.838542E-3	-6.327185E-3	4.132868E-3	-8.565643E-3	-8.058184E-3	-1.097447E-2	-4.913742E-3	8.326653E-4	-8.821114E-4	-1.089243E-2	-6.539670E-3
5.305180E+2	-9.361558E-3	-2.351445E-3	1.098179E-3	1.772098E-2	-3.175659E-3	-1.157196E-2	-1.205448E-2	2.932331E-3	-5.639086E-3	-3.983019E-3	-7.064760E-3	-1.037347E-2	-2.362374E-3	-7.590559E-3	-1.085956E-2	5.324574E-3	9.291558E-3	-1.250274E-2	-3.706289E-3	-2.030833E-3	3.506040E-3	-3.764488E-3	-7.463496E-3	-5.196116E-3	-1.253656E-2	-8.706592E-3	2.279382E-3	-2.400897E-3	-9.241523E-3	-1.108308E-2	-9.407497E-3	-2.651607E-3	-8.718173E-3	1.133991E-3	-6.161036E-3	-6.944252E-3	2.903073E-3	-4.519756E-3	-7.905545E-3	8.312927E-4	-3.281364E-3	-7.971579E-3	-7.947492E-3	-3.783796E-3	1.447127E-3	-3.811320E-3	1.868412E-3	-5.820325E-3	3.637044E-3	-1.113665E-2	-5.703381E-3	-7.090221E-3	2.352787E-3	-3.049892E-3	-2.210905E-3	-5.482428E-3	-1.327434E-2	-3.613367E-3	-3.883647E-3	-4.224143E-3	-1.982244E-3	1.177671E-4	-6.606001E-3	-1.318555E-2	1.688513E-3	-7.877920E-3	-3.214707E-3	-3.434545E-3	3.189047E-4	-8.524556E-3	-3.078973E-3	-8.996181E-3	9.403997E-4	-4.910836E-3	-4.027179E-3	-2.042488E-3	-1.663492E-2	-1.068939E-2	5.863427E-4	-4.803816E-3	1.370634E-3	-3.813384E-3	-1.021782E-2	-2.415482E-5	-6.992834E-3	-2.288749E-3	-7.054478E-3	-6.562370E-3	-8.937818E-3	-1.186455E-2	-1.630325E-2	-4.947552E-3	-5.289235E-3	-7.791175E-3	-4.892413E-3	-7.201587E-3	-7.308532E-3	-1.566238E-2	-4.210803E-3	-1.437878E-2	-1.008556E-2	4.691772E-4	-3.832610E-3	1.718927E-3	-1.160132E-2	1.656405E-3	6.099221E-4	-6.135758E-3	-5.092344E-3	-2.545336E-3	-5.450187E-3	-5.952667E-3	-8.254894E-4	-9.442391E-3	-9.703929E-3	-6.696492E-3	-5.549717E-3	-2.076657E-3	-2.026552E-3	-6.877543E-3	-1.002065E-3	-7.642876E-3	-3.993864E-3	-6.071651E-3	1.365610E-3	1.513332E-3	3.467369E-3	-4.386478E-3	-2.794754E-3	3.916830E-3	-5.682440E-3	-1.483192E-3	-7.752232E-3	-2.502440E-3	-1.785589E-3	-1.005068E-2	1.402535E-3	4.221241E-4	1.695844E-3	-1.330898E-2	-9.795223E-3	-5.167028E-3	-3.834164E-3	-9.771583E-3	2.502746E-3	-3.419336E-3	-7.981830E-3	-5.590705E-3	-2.414007E-3	3.967979E-3	-1.030559E-2	-3.575033E-3	4.038029E-4	-1.168148E-3	-8.058836E-3	-1.009567E-2	-7.523753E-3	-5.421902E-3	-5.438906E-3	-1.152806E-3	1.237070E-3	-3.739964E-3	2.340686E-3	-2.050117E-3	-1.087102E-2	-3.296844E-3	-5.481676E-3	-9.449080E-3	3.670442E-3	7.178813E-3
5.310100E+2	1.640317E-3	-5.699081E-3	-7.099220E-3	-8.821695E-3	-2.552739E-3	-4.440643E-3	-5.975806E-4	-7.096460E-3	5.019056E-4	-6.146129E-3	-4.620252E-3	-1.252718E-3	-2.056677E-3	-3.433765E-4	2.357668E-3	-2.241319E-3	-5.490002E-3	-1.124567E-2	-6.085524E-3	1.784436E-3	-9.208932E-3	-8.340219E-4	-5.027059E-3	2.659410E-3	1.843508E-3	9.747483E-4	-4.708466E-3	-2.278586E-3	4.195626E-4	-4.375261E-3	-2.240821E-3	-1.870646E-4	-1.187910E-3	-2.199342E-3	-5.561563E-3	-1.127247E-3	1.643445E-4	-8.989276E-4	-8.252790E-3	-7.356511E-3	-1.890852E-3	-5.912587E-4	-6.023295E-3	-3.667806E-3	2.094458E-3	3.301968E-4	4.809852E-3	9.375942E-3	7.221903E-4	8.822893E-4	3.389722E-3	-5.043843E-3	1.040497E-3	-1.992356E-3	3.224023E-3	-4.401556E-3	2.796348E-3	-4.062811E-3	9.484859E-5	-1.037557E-2	3.428307E-3	-3.828300E-3	-4.620518E-3	2.962920E-3	-6.113112E-3	6.267550E-3	3.546881E-3	-5.322218E-3	-5.848091E-4	9.439650E-4	-8.096351E-5	1.843929E-3	-6.766580E-3	9.994367E-4	3.139994E-4	-5.879633E-3	-5.901795E-3	-2.024949E-3	-3.437532E-3	-5.598580E-3	2.796103E-3	-5.557576E-3	-8.080512E-5	-4.672931E-4	-8.909016E-3	-5.572899E-3	-2.045609E-3	-1.520601E-3	6.039378E-3	-1.710731E-3	2.707006E-3	-1.084638E-2	-6.263966E-3	9.685942E-3	1.341832E-3	3.365934E-3	-9.007163E-3	-5.076291E-3	8.536407E-3	-1.330932E-3	7.033117E-3	-7.138446E-4	2.556124E-3	-3.771008E-4	1.256197E-3	-6.014574E-3	-9.025789E-3	-2.961012E-3	-2.869793E-3	-4.856196E-3	1.233437E-3	-1.366298E-3	-7.960335E-3	2.881136E-3	9.746197E-4	-2.722653E-3	-4.820281E-4	-1.020813E-2	-4.980887E-4	2.573955E-3	-1.545489E-3	3.409922E-3	2.200855E-3	-5.867835E-3	-1.547197E-3	4.143563E-3	-2.477461E-3	3.888562E-3	-6.996684E-4	-8.697206E-3	2.963222E-3	-4.995024E-3	-3.385571E-3	1.449503E-3	3.457686E-3	6.033744E-3	-3.212892E-3	-1.232945E-3	-3.002374E-4	-7.631549E-3	2.381089E-3	-4.089896E-3	-7.666843E-3	-5.238828E-3	-1.346236E-2	-1.124610E-2	-6.612782E-3	3.133391E-3	-6.712570E-3	6.159619E-4	-4.515398E-3	-1.570071E-4	-6.428839E-3	-3.373562E-3	-4.387885E-3	4.341113E-4	4.403840E-3	-1.191365E-2	-4.344699E-3	-2.552997E-3	-2.424801E-3	-6.954374E-3	3.107446E-3	2.011758E-3	5.742772E-3	-3.144616E-3	4.641003E-3	8.915544E-3	2.355834E-3	-8.541893E-3
5.315080E+2	-6.609633E-3	-8.572343E-5	2.662294E-3	-5.177501E-3	-3.467151E-3	8.263545E-3	-2.547932E-3	-5.305055E-3	1.621937E-3	-3.162242E-3	-4.328899E-4	-2.948050E-3	4.648805E-5	-7.033997E-3	4.928573E-3	-4.539960E-3	-9.139723E-3	2.121197E-3	2.110549E-3	-6.669497E-3	3.153799E-4	2.286796E-4	5.750857E-3	9.791718E-4	9.334848E-4	5.676633E-4	1.855888E-3	6.539002E-3	7.097837E-3	1.255888E-2	-3.006672E-3	3.270742E-3	-5.071794E-4	-5.369810E-3	2.017987E-3	5.374767E-3	-8.005145E-3	-1.121741E-2	1.487755E-3	8.116205E-3	-4.516298E-3	-3.781101E-3	-1.666737E-3	1.847474E-3	-3.576121E-3	-3.789519E-3	3.193654E-4	-4.061320E-3	-7.462249E-3	-1.825507E-4	-7.163851E-3	-2.987574E-3	4.236821E-3	-5.020496E-3	1.172077E-3	5.174999E-3	-2.702125E-3	-7.937370E-3	1.898176E-3	9.208478E-3	-1.169868E-2	9.226734E-3	6.300850E-3	2.153445E-3	-3.798016E-3	9.189548E-3	9.725490E-3	-1.186726E-3	1.424721E-4	2.894648E-3	-8.047134E-3	-1.885473E-3	3.565828E-3	-8.680424E-3	-3.777504E-3	-3.140142E-3	8.795904E-3	-5.671851E-3	-4.228808E-3	4.283823E-3	-2.597001E-4	-1.064665E-3	-7.064711E-3	-9.195693E-4	8.942252E-3	4.429579E-4	-1.415857E-3	5.342833E-3	8.551867E-5	-3.090777E-4	1.311111E-4	6.773036E-3	-4.586886E-4	-2.568996E-3	-1.580584E-3	-1.244297E-2	1.085145E-3	1.331494E-2	3.643786E-3	3.120098E-3	-3.303740E-3	-6.610526E-3	7.543822E-3	2.325368E-4	-4.994204E-3	-4.689243E-3	5.135383E-3	4.530761E-3	5.100900E-3	1.009776E-2	-4.706878E-3	-3.198932E-3	-1.759294E-3	-4.695266E-3	-2.361258E-3	-2.538821E-3	-5.175617E-3	-5.759002E-3	-8.173952E-4	-1.389472E-3	9.848059E-3	-5.591587E-3	-4.311307E-3	-5.701275E-3	-9.028831E-4	-2.610222E-3	-6.567586E-3	1.670350E-3	1.115932E-2	-3.701780E-3	-7.356826E-3	-3.070117E-3	4.500725E-4	1.171866E-3	3.634196E-3	-6.987619E-3	3.676219E-3	8.210165E-3	-3.754896E-3	-1.259660E-3	-4.061229E-3	2.435649E-3	7.104541E-3	3.757876E-3	-7.785383E-3	-1.180471E-2	4.251370E-3	-1.376880E-3	-8.267918E-3	-9.884676E-3	4.619165E-3	-8.525295E-3	1.102578E-2	4.266156E-3	-2.465417E-3	6.103115E-3	-8.923597E-3	5.215799E-3	-8.148955E-3	3.743570E-3	-1.268073E-2	2.522844E-3	-4.411981E-3	-7.770477E-3	3.951446E-3	-3.968322E-3	-8.200249E-3	-8.465053E-3	-4.358080E-4	9.788900E-4
5.320070E+2	1.852086E-3	1.108492E-2	-4.808717E-3	-1.126461E-3	3.331362E-3	7.905938E-3	4.835205E-3	-6.716727E-4	-4.690297E-3	-1.815715E-3	4.352519E-3	1.670245E-2	3.986574E-3	1.015425E-2	3.108126E-3	-1.489808E-3	-5.535073E-3	5.783208E-3	3.551128E-4	-1.669917E-3	6.976097E-3	3.135952E-3	6.833332E-3	-2.613821E-4	8.982793E-3	-2.343240E-3	3.837625E-3	2.010146E-3	5.489752E-4	-1.008046E-3	2.788771E-3	-3.109282E-3	-3.623329E-3	-1.764140E-4	1.557629E-3	1.030028E-3	-1.033812E-3	6.387943E-3	5.295916E-3	3.427434E-4	1.870596E-2	8.350806E-4	5.732657E-3	5.560874E-3	-2.528491E-3	5.524816E-3	-2.830637E-3	-6.377581E-3	-2.189837E-3	7.176578E-3	-2.547821E-3	1.858536E-3	-4.002384E-3	1.976770E-3	-3.561060E-3	5.999115E-4	2.268218E-3	9.589666E-3	3.138718E-3	4.207696E-3	3.506914E-3	-5.378969E-4	3.646886E-3	4.274347E-3	1.016454E-3	-9.189250E-4	1.375474E-3	1.237470E-2	1.103790E-2	1.258867E-3	2.592578E-3	-2.739093E-4	9.890489E-3	9.548000E-3	7.256370E-3	4.240488E-3	-3.478023E-3	4.421813E-3	8.085211E-3	3.580533E-3	3.178535E-3	-7.983121E-5	4.317302E-3	2.131878E-3	2.467404E-3	5.541485E-3	4.610544E-3	-3.015298E-3	1.818996E-3	6.871903E-3	1.182931E-2	8.775759E-3	-2.907356E-4	7.873614E-3	-3.858165E-4	3.717008E-3	3.731273E-3	-3.807551E-4	-5.701056E-3	7.613966E-3	2.144311E-3	4.757817E-3	1.410944E-3	-5.080888E-3	8.512531E-3	8.738015E-4	-2.691339E-3	2.826409E-3	2.123787E-3	-3.100233E-3	7.617595E-3	2.911748E-3	-2.325994E-3	1.226926E-3	3.623184E-3	3.921241E-3	3.151770E-3	3.650123E-3	-2.430145E-3	3.895773E-3	-3.914879E-3	6.169684E-3	6.373603E-3	2.496638E-3	-2.819924E-3	-4.919421E-4	1.151043E-3	-3.476997E-3	-3.740508E-3	7.003088E-4	-2.647892E-3	6.733434E-4	1.065892E-2	-3.376504E-3	-6.419218E-3	1.849776E-3	-8.445449E-3	-3.992227E-3	7.100850E-3	1.399120E-2	4.857094E-3	3.073636E-3	5.533605E-3	3.897762E-3	8.435626E-3	9.580967E-3	8.188486E-3	-5.846356E-4	8.501968E-3	4.447856E-3	6.664193E-3	2.466385E-3	1.045015E-2	6.925407E-6	-5.147795E-4	-5.485055E-3	2.517935E-3	4.845307E-3	6.249600E-3	1.320563E-3	5.937934E-3	6.669097E-3	5.938204E-3	6.878734E-3	1.535494E-3	6.085260E-3	-1.592241E-3	1.922694E-3	-4.696229E-3	5.704802E-3
5.325070E+2	1.873778E-2	7.737473E-3	1.540505E-2	1.015014E-2	1.119096E-2	5.525350E-3	1.017238E-2	2.844625E-3	1.766891E-2	1.688833E-2	7.990409E-3	5.305823E-3	2.858819E-3	7.524711E-3	3.234209E-3	5.502493E-3	1.036827E-2	2.040987E-2	1.111074E-2	9.511137E-3	8.991873E-3	4.662039E-3	1.025337E-2	2.619505E-3	5.725519E-3	2.008722E-2	2.184472E-3	-7.897247E-4	2.676339E-3	7.658250E-3	1.998462E-2	7.756817E-3	1.422439E-2	5.039824E-3	6.910766E-3	1.141948E-3	7.810099E-3	1.619921E-2	1.466366E-2	9.369378E-3	7.108666E-3	2.069381E-2	1.133849E-2	7.487590E-3	1.070350E-2	6.177794E-3	1.055965E-3	8.953627E-3	4.201582E-3	6.760814E-3	1.226800E-2	1.062155E-2	-2.915780E-3	9.469717E-3	7.231565E-3	7.855054E-3	6.338503E-3	1.147127E-2	5.488231E-3	7.794477E-3	7.329245E-3	-2.250652E-3	5.673609E-3	9.815035E-3	1.159402E-2	-2.436119E-3	2.104800E-3	5.112243E-3	2.938744E-3	4.993260E-3	9.933341E-3	1.214526E-2	3.305963E-5	1.669647E-2	5.570053E-3	6.996372E-3	1.443226E-2	1.955748E-2	6.844351E-3	7.005806E-3	-1.858638E-3	9.486172E-3	1.336893E-2	4.584728E-3	9.575493E-3	9.631451E-3	9.190560E-3	1.376960E-2	-2.061557E-3	8.984536E-3	9.940669E-3	5.903848E-3	1.323333E-2	1.694152E-3	7.997087E-3	1.345073E-2	8.113401E-3	1.280017E-2	4.566011E-3	1.275237E-2	9.435688E-3	8.690632E-3	5.832194E-4	3.737842E-3	1.534838E-2	7.835591E-3	7.904012E-3	1.041385E-2	3.889188E-3	1.043319E-2	5.034550E-3	1.221720E-2	1.911898E-2	1.000829E-2	1.203021E-2	7.291750E-3	1.318978E-2	1.275548E-2	6.571085E-3	1.111115E-2	7.584485E-3	1.443480E-2	6.042610E-3	1.949960E-2	3.682675E-3	5.387887E-3	1.373332E-2	2.550250E-3	-3.623159E-3	8.214849E-3	1.197114E-2	5.667566E-3	4.743575E-3	1.425594E-2	9.039236E-3	1.028511E-2	1.070454E-2	5.626447E-3	1.511384E-3	1.038209E-2	1.217310E-2	3.214289E-3	1.687589E-3	5.509960E-3	1.626772E-2	2.371945E-2	1.149763E-2	4.196397E-3	1.198338E-2	3.061130E-3	1.254372E-2	1.162696E-2	2.893825E-3	1.141872E-2	9.519624E-3	1.070180E-2	9.677820E-3	1.690277E-2	1.676333E-2	2.480211E-3	1.425771E-2	-2.630472E-3	1.591289E-3	8.988286E-3	1.061578E-2	9.238264E-3	9.800497E-3	7.958006E-3	9.998192E-3	1.219058E-3
5.330080E+2	1.759932E-2	1.480997E-2	1.068422E-2	1.759353E-2	2.996354E-2	1.226874E-2	2.602486E-2	2.005147E-2	1.195585E-2	1.414140E-2	2.162845E-2	1.278513E-2	1.322411E-2	1.324825E-2	2.393061E-2	1.057579E-2	4.668276E-3	3.801477E-2	1.627644E-2	1.642991E-2	1.525049E-2	1.039422E-2	6.224332E-3	2.068575E-2	1.496712E-2	1.721809E-2	2.607804E-2	1.509247E-2	1.953519E-2	1.352248E-2	1.590249E-2	2.477669E-2	2.030016E-2	1.087324E-2	2.809607E-2	1.727445E-2	1.578865E-2	2.430971E-2	2.223906E-2	1.891428E-2	1.221047E-2	2.143635E-2	2.308288E-2	1.364739E-2	1.439191E-2	1.296390E-2	2.431153E-2	1.304906E-2	1.577761E-2	2.449733E-2	1.185596E-2	1.009857E-2	1.219267E-2	9.639005E-3	2.343781E-2	2.656485E-2	2.227823E-2	1.278616E-2	9.523027E-3	2.179069E-2	2.731448E-2	1.083201E-2	8.656529E-3	2.867310E-2	8.046783E-3	1.737032E-2	2.112017E-2	1.874411E-2	2.273475E-2	1.325275E-2	1.972469E-2	1.479118E-2	2.647091E-2	1.745021E-2	2.701336E-2	2.502181E-2	8.287750E-3	1.731321E-2	1.122480E-2	1.701629E-2	1.900012E-2	2.224893E-2	2.424643E-2	2.045925E-2	1.322345E-2	1.770316E-2	2.219032E-2	1.124315E-2	6.915550E-3	1.358086E-2	3.124204E-2	1.761065E-2	1.664898E-2	2.360502E-2	8.657048E-3	1.412031E-2	1.159405E-2	2.529190E-2	1.486184E-2	2.979408E-3	1.601218E-2	1.966568E-2	2.117142E-2	1.718200E-2	1.743847E-2	2.989926E-2	1.790039E-2	1.984853E-2	1.669924E-2	1.265411E-2	2.173898E-2	1.882985E-2	1.322476E-2	1.276679E-2	2.044498E-2	2.660696E-2	1.425443E-3	2.523362E-2	1.185568E-2	6.602451E-3	1.870788E-2	1.593101E-2	1.287038E-2	7.224460E-3	1.638701E-2	2.096190E-2	1.060919E-2	1.099774E-2	1.356953E-2	3.601230E-3	1.413180E-2	2.658413E-2	1.363990E-2	1.592689E-2	1.844641E-2	1.786595E-2	2.805945E-2	2.772390E-2	2.541281E-2	1.378969E-2	1.590326E-2	1.601260E-2	1.321342E-2	1.762968E-2	1.892065E-2	1.734473E-2	3.459338E-2	2.107304E-2	1.381580E-2	1.293683E-2	1.798873E-2	2.276369E-2	1.706982E-2	2.119965E-2	1.592951E-2	2.144063E-2	2.133347E-2	1.224790E-2	1.700423E-2	2.185749E-2	2.227419E-3	3.143031E-2	8.156710E-3	4.494038E-3	1.344696E-2	1.394115E-2	2.186606E-2	2.364238E-2	4.622974E-3	6.004607E-3
5.331520E+2	2.745047E-2	8.040368E-3	1.708469E-2	2.151639E-2	1.408075E-2	2.212506E-2	2.000003E-2	2.478072E-2	1.503919E-2	2.145455E-2	2.355699E-2	2.458597E-2	9.550894E-3	2.877918E-2	2.951518E-2	1.714538E-2	1.835853E-2	2.664913E-2	1.840774E-2	2.522816E-2	2.435825E-2	2.691626E-2	2.136012E-2	2.179220E-2	1.569209E-2	3.251839E-2	7.795380E-3	1.289307E-2	2.611635E-2	1.988616E-2	2.369763E-2	1.699605E-2	2.748562E-2	1.683886E-2	1.432368E-2	1.935034E-2	1.274703E-2	2.098341E-2	2.195836E-2	3.132646E-2	1.981594E-2	1.423738E-2	1.835211E-2	2.888121E-2	2.336186E-2	9.546130E-3	1.740348E-2	2.604044E-2	3.773274E-2	1.565612E-2	1.370756E-2	1.706281E-2	2.737254E-2	2.041656E-2	2.453041E-2	2.676845E-2	2.508201E-2	2.226550E-2	1.301163E-2	1.907296E-2	1.596550E-2	2.351290E-2	2.681811E-2	1.701486E-2	1.435147E-2	1.752419E-2	2.066754E-2	1.348274E-2	2.083464E-2	1.341637E-2	2.617392E-2	1.299500E-2	2.537943E-2	4.128795E-3	2.047318E-2	2.317395E-2	2.165160E-2	2.039153E-2	2.314462E-2	1.388934E-2	1.222182E-2	1.289945E-2	2.200642E-2	2.704016E-2	1.587351E-2	1.736688E-2	3.524327E-2	2.633723E-2	2.099445E-2	3.411731E-2	1.635685E-2	3.423858E-2	2.192423E-2	2.022613E-2	2.738306E-2	2.840889E-2	2.169941E-2	1.616313E-2	9.258916E-3	1.181212E-2	1.295157E-2	2.313285E-2	1.450808E-2	1.780773E-2	2.592758E-2	2.035434E-2	3.285961E-2	1.377355E-2	1.863221E-2	2.239571E-2	2.193766E-2	3.144939E-2	1.997808E-2	4.392264E-3	2.237047E-2	1.587067E-2	1.433135E-2	2.145621E-2	1.750657E-2	2.325231E-2	2.874854E-2	2.157981E-2	2.535372E-2	1.487262E-2	2.895984E-2	2.106797E-2	2.454107E-2	8.203428E-3	1.448482E-2	1.002432E-2	7.677334E-3	7.808478E-3	1.949862E-2	2.100127E-2	2.636950E-2	1.947489E-2	1.939566E-2	1.790618E-2	1.838930E-2	2.033559E-2	1.201438E-2	1.524927E-2	2.022084E-2	2.381519E-2	1.953729E-2	2.088520E-2	2.778192E-2	2.662321E-2	1.892200E-2	2.439908E-2	2.875444E-2	1.963452E-2	1.744547E-2	2.081848E-2	2.621534E-2	2.058759E-2	2.334280E-2	3.149953E-2	2.269159E-2	2.002984E-2	1.362054E-2	3.782789E-2	1.668613E-2	3.194670E-2	3.192036E-2	3.618775E-2	3.519203E-2	2.757761E-2	1.007050E-2	3.946204E-3
5.333020E+2	1.397225E-2	2.495418E-2	2.211015E-2	2.174897E-2	2.515187E-2	1.211692E-2	3.479670E-2	3.354839E-2	2.286235E-2	3.328365E-2	1.606991E-2	3.154256E-2	3.069329E-2	2.667818E-2	2.577779E-2	2.472924E-2	2.496751E-2	3.059616E-2	1.776309E-2	3.716438E-2	2.266696E-2	3.231082E-2	7.012299E-3	2.846282E-2	2.729211E-2	1.751629E-2	2.404554E-2	2.418301E-2	3.552894E-2	2.919589E-2	2.724389E-2	2.376192E-2	2.493858E-2	2.125113E-2	2.657178E-2	3.366167E-2	2.494091E-2	2.431626E-2	2.587263E-2	2.778351E-2	3.369442E-2	2.065234E-2	3.382523E-2	2.058663E-2	2.753939E-2	3.329529E-2	2.944296E-2	2.425821E-2	3.218583E-2	2.147238E-2	2.810011E-2	2.585379E-2	3.244100E-2	1.554394E-2	2.742942E-2	2.219971E-2	3.253438E-2	1.951416E-2	2.768726E-2	2.272049E-2	2.680511E-2	3.255302E-2	3.652878E-2	2.807587E-2	9.562444E-3	2.758464E-2	2.512193E-2	1.702424E-2	2.569492E-2	2.809521E-2	2.637924E-2	1.416757E-2	3.311003E-2	2.600015E-2	2.553475E-2	2.932121E-2	1.122627E-2	2.838072E-2	2.004709E-2	2.161635E-2	2.801090E-2	1.685179E-2	5.992917E-3	2.839683E-2	2.558002E-2	2.898175E-2	3.100565E-2	1.838746E-2	3.990160E-3	1.770671E-2	3.570733E-2	2.099444E-2	2.120216E-2	3.568735E-2	1.308654E-2	2.912340E-2	2.136084E-2	2.190148E-2	1.386950E-2	1.882962E-2	2.063751E-2	1.671729E-2	3.231302E-2	3.229211E-2	3.928307E-2	1.688881E-2	2.747901E-2	3.383910E-2	3.025249E-2	2.969033E-2	1.503534E-2	1.309654E-2	2.320406E-2	1.433638E-2	1.718503E-2	2.754280E-2	1.774580E-2	2.510307E-2	2.097102E-2	2.676060E-2	3.079030E-2	3.663244E-2	3.116012E-2	1.817815E-2	2.963207E-2	3.289253E-2	2.187525E-2	2.641571E-2	2.696913E-2	2.444832E-2	2.443004E-2	3.371177E-2	3.317504E-2	2.742814E-2	3.225585E-2	2.248084E-2	1.485168E-2	2.462541E-2	1.422767E-2	1.858965E-2	2.942020E-2	2.143870E-2	3.924579E-2	2.603003E-2	2.649562E-2	2.576749E-2	3.821698E-2	3.219380E-2	2.410282E-2	2.459994E-2	2.560340E-2	2.510290E-2	3.238150E-2	3.874859E-2	3.576514E-2	3.006245E-2	2.174454E-2	2.645611E-2	3.136967E-2	1.396788E-2	2.192153E-2	2.440862E-2	2.783480E-2	1.744645E-2	2.959653E-2	2.137104E-2	2.345390E-2	3.078396E-2	2.526277E-2	2.972385E-2
5.334630E+2	1.737173E-2	3.703765E-2	2.432294E-2	6.371265E-3	5.033636E-2	3.170230E-2	2.918976E-2	2.744045E-2	4.017917E-2	3.111384E-2	2.864663E-2	5.950605E-2	3.049742E-2	2.782261E-2	3.435688E-2	3.434723E-2	3.870682E-2	3.548390E-2	3.179181E-2	4.356271E-2	3.514887E-2	3.063967E-2	2.788427E-2	3.285021E-2	3.781552E-2	2.377268E-2	3.860114E-2	3.142494E-2	2.295153E-2	3.326549E-2	2.362308E-2	2.585123E-2	3.867808E-2	3.929646E-2	4.195399E-2	2.997901E-2	3.534558E-2	3.163695E-2	2.047750E-2	2.754114E-2	3.952976E-2	4.648914E-2	3.158347E-2	3.471016E-2	3.130606E-2	2.378451E-2	4.060343E-2	4.082324E-2	2.141012E-2	3.232058E-2	2.314990E-2	3.680451E-2	3.218277E-2	2.645010E-2	3.215392E-2	2.960671E-2	1.551306E-2	2.498138E-2	4.190074E-2	3.394954E-2	3.584455E-2	3.935066E-2	4.058552E-2	4.067282E-2	4.257432E-2	2.076532E-2	2.958886E-2	2.940542E-2	3.736137E-2	3.292893E-2	2.610414E-2	2.825491E-2	3.204432E-2	2.858239E-2	3.245862E-2	4.083215E-2	3.067291E-2	3.299671E-2	3.443891E-2	3.789660E-2	4.038341E-2	4.823977E-2	2.293700E-2	2.858249E-2	4.539888E-2	3.969644E-2	4.168064E-2	3.815528E-2	3.088770E-2	3.772575E-2	3.588633E-2	3.465128E-2	4.192238E-2	2.876951E-2	2.934593E-2	2.476045E-2	1.546036E-2	2.828263E-2	3.193748E-2	3.400729E-2	3.429910E-2	2.732685E-2	4.382764E-2	4.362019E-2	3.230526E-2	4.956851E-2	3.199332E-2	4.588811E-2	2.258575E-2	2.637371E-2	3.098252E-2	2.941888E-2	1.910509E-2	3.217640E-2	2.686447E-2	3.415706E-2	3.188663E-2	3.472592E-2	2.680803E-2	2.413845E-2	2.909192E-2	3.684301E-2	3.421850E-2	2.583251E-2	2.472126E-2	3.717380E-2	3.312398E-2	2.565414E-2	3.482774E-2	3.770747E-2	3.327532E-2	3.269350E-2	4.173177E-2	3.527937E-2	3.455819E-2	3.755528E-2	2.726937E-2	2.782253E-2	3.252105E-2	3.476630E-2	2.459828E-2	4.078298E-2	3.665777E-2	3.685089E-2	4.304091E-2	3.471436E-2	3.586264E-2	3.441947E-2	3.209899E-2	3.880092E-2	3.452139E-2	2.243964E-2	2.550392E-2	4.404460E-2	3.164714E-2	3.976014E-2	2.608064E-2	2.667047E-2	3.210827E-2	3.820628E-2	3.168617E-2	3.071045E-2	4.227020E-2	2.362272E-2	2.986674E-2	3.166670E-2	3.746686E-2	1.614437E-2	2.134765E-2	5.333561E-2
5.336080E+2	3.773367E-2	4.145944E-2	3.344949E-2	2.930079E-2	4.222134E-2	3.907317E-2	2.353849E-2	5.634360E-2	3.740051E-2	4.127421E-2	4.304028E-2	3.806562E-2	4.450424E-2	4.539569E-2	3.506450E-2	3.854232E-2	4.542239E-2	5.097326E-2	4.004107E-2	4.253558E-2	3.725206E-2	4.214574E-2	2.856667E-2	4.746848E-2	4.146800E-2	5.264370E-2	4.837643E-2	5.992692E-2	4.127610E-2	3.397539E-2	4.208038E-2	5.303137E-2	4.378017E-2	4.927731E-2	3.976466E-2	3.660712E-2	4.021863E-2	3.899310E-2	4.451302E-2	4.199066E-2	4.664406E-2	3.416896E-2	4.164090E-2	5.133982E-2	3.864254E-2	5.131892E-2	3.416345E-2	3.708420E-2	3.716679E-2	5.519304E-2	4.677755E-2	4.164090E-2	3.533557E-2	3.971681E-2	3.509583E-2	4.571211E-2	5.091200E-2	4.577223E-2	4.045889E-2	4.699858E-2	3.422764E-2	3.914415E-2	4.369149E-2	5.285789E-2	4.527708E-2	5.141098E-2	3.900819E-2	4.185418E-2	4.387350E-2	5.416482E-2	4.481434E-2	3.895261E-2	4.996670E-2	4.415844E-2	4.620287E-2	5.376068E-2	3.780670E-2	4.845686E-2	4.845419E-2	5.000638E-2	4.700220E-2	4.864253E-2	5.984040E-2	5.174349E-2	4.667998E-2	4.099890E-2	4.843876E-2	4.983938E-2	6.304845E-2	5.145849E-2	4.298544E-2	4.469895E-2	4.920510E-2	4.079224E-2	4.362540E-2	3.870659E-2	3.737913E-2	3.110881E-2	3.663335E-2	3.422815E-2	3.777419E-2	4.519757E-2	4.310528E-2	3.508600E-2	4.754424E-2	4.799828E-2	4.524909E-2	4.798180E-2	3.785476E-2	3.674611E-2	3.124661E-2	3.979043E-2	5.090976E-2	4.489129E-2	3.898805E-2	3.950018E-2	3.218370E-2	4.886344E-2	4.635657E-2	4.098481E-2	5.168910E-2	3.147168E-2	3.616209E-2	4.240811E-2	3.917318E-2	4.150685E-2	3.146477E-2	4.745613E-2	4.030244E-2	2.794279E-2	3.080952E-2	4.644913E-2	3.830515E-2	4.222708E-2	4.981634E-2	3.595337E-2	3.561456E-2	4.296980E-2	2.690809E-2	3.242208E-2	3.398917E-2	4.002331E-2	3.975103E-2	4.615831E-2	6.307388E-2	3.490653E-2	4.571417E-2	5.014224E-2	3.397915E-2	4.264324E-2	4.056550E-2	4.867136E-2	3.019119E-2	5.382588E-2	2.933414E-2	5.127472E-2	2.905737E-2	4.753778E-2	3.634927E-2	4.001887E-2	3.529513E-2	4.318283E-2	3.730180E-2	4.726513E-2	3.513523E-2	3.391750E-2	4.853679E-2	2.530362E-2	4.763425E-2	4.653837E-2
5.337580E+2	5.229518E-2	5.924950E-2	5.943602E-2	5.606181E-2	4.558375E-2	4.699975E-2	7.442658E-2	5.543033E-2	5.837443E-2	6.651431E-2	5.549102E-2	5.007898E-2	6.469057E-2	5.411252E-2	5.438054E-2	5.532222E-2	3.394454E-2	5.040995E-2	4.793341E-2	5.087399E-2	5.414285E-2	5.131288E-2	6.529479E-2	5.332196E-2	6.531856E-2	5.480302E-2	5.222010E-2	7.143038E-2	5.246880E-2	5.734350E-2	6.050883E-2	5.810357E-2	6.154103E-2	5.868274E-2	5.580332E-2	4.522247E-2	6.703863E-2	5.014867E-2	6.638269E-2	5.557420E-2	5.569458E-2	4.540263E-2	5.441027E-2	6.626097E-2	6.515840E-2	5.859920E-2	6.393911E-2	6.130774E-2	5.772918E-2	5.922805E-2	4.942929E-2	5.992141E-2	4.145499E-2	5.576041E-2	5.573993E-2	5.807033E-2	5.386498E-2	5.482920E-2	6.382163E-2	4.960571E-2	4.383249E-2	4.644412E-2	5.594368E-2	5.163772E-2	5.360185E-2	6.053821E-2	5.896304E-2	6.119129E-2	3.678449E-2	5.767181E-2	4.998696E-2	4.372695E-2	5.213825E-2	6.753011E-2	5.140550E-2	5.937895E-2	4.801235E-2	5.906101E-2	7.207560E-2	4.648463E-2	5.424912E-2	5.849581E-2	6.012534E-2	4.315768E-2	7.175254E-2	5.131492E-2	6.126360E-2	4.968952E-2	6.015052E-2	5.558786E-2	5.565486E-2	5.418618E-2	6.311967E-2	4.773994E-2	6.007939E-2	6.602099E-2	5.496667E-2	5.328868E-2	5.681900E-2	4.766275E-2	6.297196E-2	5.744021E-2	4.487169E-2	4.697346E-2	6.528378E-2	4.580362E-2	6.668820E-2	3.504946E-2	5.191825E-2	5.889451E-2	4.868892E-2	6.434544E-2	4.262572E-2	5.369342E-2	6.140690E-2	6.892997E-2	6.618119E-2	6.058690E-2	6.747392E-2	5.131545E-2	4.697057E-2	5.912678E-2	5.383002E-2	5.797049E-2	5.587769E-2	5.811308E-2	6.405401E-2	6.593646E-2	5.528563E-2	6.056916E-2	5.376601E-2	5.346931E-2	5.109238E-2	4.542342E-2	6.468753E-2	6.246332E-2	5.814715E-2	6.419458E-2	4.529611E-2	5.059890E-2	6.385155E-2	5.644522E-2	6.580880E-2	4.983711E-2	6.331987E-2	6.423954E-2	5.948980E-2	4.565774E-2	5.210437E-2	6.458979E-2	5.745590E-2	6.294652E-2	6.789954E-2	5.659831E-2	4.274675E-2	5.812909E-2	6.235484E-2	4.938472E-2	5.428132E-2	6.442212E-2	4.368074E-2	6.392558E-2	6.682672E-2	4.747548E-2	6.123768E-2	5.036254E-2	5.666921E-2	5.774387E-2	5.475604E-2	5.148044E-2
5.339400E+2	8.523860E-2	7.499744E-2	5.769881E-2	6.768099E-2	7.889973E-2	7.714244E-2	7.157886E-2	6.896781E-2	7.948189E-2	7.298086E-2	6.052601E-2	7.897133E-2	8.062570E-2	8.182476E-2	7.768745E-2	6.510479E-2	6.633113E-2	8.060009E-2	8.054214E-2	7.362436E-2	7.827613E-2	8.969753E-2	7.463962E-2	7.837601E-2	7.715051E-2	8.929012E-2	5.800610E-2	8.594800E-2	7.586678E-2	7.464182E-2	6.490411E-2	7.796590E-2	8.596269E-2	5.993261E-2	7.079310E-2	8.052069E-2	7.532835E-2	7.614209E-2	8.788866E-2	6.826640E-2	7.357484E-2	8.428518E-2	7.422510E-2	7.516436E-2	7.179747E-2	7.950693E-2	8.468525E-2	7.070421E-2	6.802855E-2	7.493732E-2	7.237229E-2	6.151705E-2	8.545476E-2	7.995340E-2	8.197635E-2	8.257377E-2	7.083963E-2	7.913731E-2	7.805991E-2	7.923824E-2	9.484582E-2	8.752367E-2	8.614917E-2	8.509184E-2	8.412575E-2	7.539952E-2	8.507558E-2	7.309431E-2	8.281791E-2	6.938138E-2	8.561898E-2	5.552779E-2	8.421451E-2	6.919191E-2	6.485090E-2	8.055184E-2	7.430367E-2	7.970650E-2	7.528088E-2	8.070835E-2	7.450164E-2	8.100799E-2	7.698424E-2	9.015470E-2	8.021874E-2	8.713347E-2	9.583056E-2	8.997369E-2	8.745986E-2	7.645660E-2	7.674982E-2	6.931770E-2	8.276955E-2	8.561784E-2	8.656659E-2	7.451944E-2	7.597961E-2	6.230820E-2	7.578930E-2	8.759714E-2	6.925221E-2	7.881027E-2	9.173295E-2	7.807341E-2	7.344942E-2	7.946165E-2	8.639896E-2	6.165784E-2	7.356782E-2	6.685111E-2	8.357638E-2	7.982966E-2	8.939187E-2	8.104050E-2	7.370594E-2	8.418577E-2	7.407167E-2	6.140750E-2	6.775057E-2	7.601299E-2	7.104229E-2	8.190455E-2	9.154477E-2	6.008313E-2	9.135263E-2	7.066832E-2	8.808070E-2	7.072505E-2	7.400161E-2	7.154526E-2	7.753044E-2	7.107680E-2	7.856418E-2	8.384367E-2	7.649787E-2	7.922864E-2	7.543642E-2	7.769501E-2	6.304168E-2	7.461101E-2	9.134105E-2	9.021146E-2	6.731391E-2	8.455925E-2	7.803240E-2	7.269975E-2	8.372803E-2	7.102207E-2	7.766770E-2	8.207116E-2	7.827002E-2	7.489572E-2	9.931808E-2	9.079698E-2	9.631859E-2	7.854560E-2	7.976909E-2	7.630690E-2	8.135115E-2	8.110415E-2	7.136466E-2	9.030733E-2	6.715643E-2	9.086075E-2	8.178561E-2	7.097743E-2	8.545645E-2	8.136150E-2	7.573422E-2	8.234348E-2
5.340800E+2	1.038821E-1	9.715906E-2	1.109367E-1	1.208282E-1	1.186900E-1	1.022695E-1	1.001145E-1	1.109607E-1	1.036883E-1	1.079002E-1	1.134973E-1	1.054355E-1	1.084030E-1	1.121676E-1	1.076328E-1	1.070453E-1	1.060251E-1	9.537556E-2	1.135329E-1	1.090013E-1	1.121049E-1	1.078001E-1	1.002292E-1	9.513918E-2	1.162418E-1	1.123845E-1	1.169751E-1	1.094373E-1	9.819343E-2	1.153888E-1	1.114668E-1	1.055380E-1	1.214295E-1	1.128445E-1	1.074447E-1	1.192338E-1	1.145847E-1	1.013846E-1	1.180052E-1	1.006373E-1	9.027821E-2	1.114945E-1	1.069302E-1	1.226586E-1	1.226902E-1	1.118366E-1	9.377730E-2	1.081709E-1	1.068238E-1	9.874884E-2	1.039166E-1	1.071311E-1	1.114590E-1	1.105635E-1	1.119467E-1	1.130230E-1	8.584211E-2	9.538241E-2	1.215845E-1	1.107067E-1	1.140789E-1	1.111898E-1	1.138287E-1	1.171064E-1	1.189918E-1	1.004128E-1	1.103221E-1	1.179625E-1	1.185182E-1	1.132416E-1	1.154649E-1	9.046298E-2	1.246840E-1	1.203721E-1	1.076244E-1	1.038212E-1	1.042104E-1	1.206941E-1	1.133832E-1	1.007947E-1	9.787199E-2	1.246604E-1	1.220951E-1	1.130509E-1	1.091198E-1	1.119146E-1	1.225398E-1	9.960055E-2	1.013281E-1	1.084715E-1	1.158825E-1	1.075055E-1	1.101698E-1	1.033093E-1	1.065342E-1	1.037799E-1	1.260558E-1	1.026209E-1	9.793720E-2	1.018430E-1	1.159514E-1	1.248512E-1	1.335267E-1	1.102872E-1	1.066627E-1	1.214524E-1	1.032729E-1	1.016931E-1	1.110453E-1	9.820204E-2	1.061532E-1	1.250747E-1	1.166189E-1	1.050906E-1	1.145433E-1	1.404183E-1	1.103644E-1	1.073275E-1	9.236344E-2	1.032620E-1	1.090792E-1	9.912322E-2	8.286487E-2	1.036535E-1	1.083434E-1	1.126011E-1	8.899874E-2	1.071448E-1	1.052000E-1	1.038045E-1	1.188582E-1	1.272592E-1	1.167864E-1	1.186473E-1	1.051307E-1	1.092975E-1	1.078738E-1	1.124041E-1	1.299320E-1	1.026680E-1	1.158876E-1	9.873878E-2	1.127552E-1	1.194675E-1	1.030795E-1	1.240567E-1	1.126065E-1	1.366074E-1	1.326234E-1	9.760172E-2	1.143868E-1	1.053986E-1	1.198287E-1	1.155397E-1	1.055696E-1	1.198387E-1	1.018838E-1	1.081606E-1	1.070374E-1	1.174108E-1	9.851587E-2	1.250689E-1	1.027948E-1	1.060726E-1	1.082498E-1	1.085378E-1	1.064924E-1	1.028455E-1	1.064880E-1	1.086012E-1
5.342040E+2	1.324640E-1	1.597898E-1	1.558486E-1	1.130059E-1	1.528762E-1	1.306295E-1	1.603121E-1	1.717248E-1	1.722948E-1	1.568005E-1	1.505232E-1	1.619989E-1	1.463748E-1	1.747935E-1	1.548565E-1	1.537270E-1	1.411778E-1	1.543859E-1	1.568745E-1	1.508151E-1	1.518556E-1	1.629129E-1	1.503073E-1	1.646341E-1	1.706249E-1	1.752020E-1	1.744328E-1	1.789236E-1	1.597705E-1	1.746753E-1	1.411889E-1	1.615078E-1	1.702883E-1	1.493186E-1	1.422792E-1	1.522458E-1	1.470063E-1	1.721843E-1	1.662750E-1	1.672475E-1	1.532569E-1	1.679089E-1	1.754231E-1	1.685476E-1	1.581929E-1	1.625529E-1	1.525376E-1	1.659785E-1	1.650983E-1	1.656736E-1	1.582178E-1	1.503544E-1	1.721896E-1	1.583388E-1	1.507588E-1	1.728464E-1	1.593061E-1	1.598078E-1	1.447926E-1	1.541215E-1	1.551347E-1	1.635734E-1	1.625555E-1	1.613486E-1	1.414130E-1	1.603166E-1	1.599744E-1	1.733339E-1	1.649695E-1	1.606950E-1	1.439905E-1	1.708883E-1	1.704407E-1	1.625194E-1	1.497374E-1	1.758393E-1	1.694657E-1	1.582908E-1	1.777379E-1	1.559726E-1	1.571286E-1	1.490286E-1	1.805355E-1	1.806583E-1	1.564922E-1	1.561465E-1	1.761030E-1	1.799830E-1	1.701187E-1	1.520566E-1	1.742211E-1	1.476479E-1	1.674744E-1	1.820586E-1	1.721931E-1	1.582836E-1	1.541588E-1	1.712572E-1	1.509333E-1	1.553753E-1	1.704985E-1	1.851728E-1	1.893606E-1	1.684678E-1	1.514669E-1	1.565082E-1	1.594672E-1	1.652930E-1	1.679423E-1	1.621032E-1	1.633704E-1	1.599084E-1	1.704293E-1	1.785480E-1	1.666900E-1	1.635780E-1	1.576349E-1	1.788039E-1	1.551836E-1	1.588941E-1	1.428653E-1	1.530430E-1	1.546505E-1	1.664777E-1	1.874941E-1	1.609809E-1	1.606052E-1	1.653447E-1	1.587353E-1	1.751143E-1	1.577421E-1	1.706608E-1	1.695458E-1	1.617108E-1	1.570762E-1	1.546231E-1	1.543048E-1	1.569916E-1	1.969354E-1	1.600624E-1	1.612859E-1	1.478171E-1	1.622089E-1	1.651954E-1	1.885252E-1	1.673387E-1	1.680226E-1	1.772965E-1	1.489479E-1	1.752706E-1	1.596630E-1	1.761013E-1	1.535719E-1	1.624662E-1	1.589714E-1	1.772371E-1	1.645091E-1	1.646075E-1	1.584023E-1	1.793689E-1	1.581342E-1	1.628620E-1	1.740911E-1	1.457131E-1	1.821130E-1	1.632719E-1	1.880136E-1	1.690729E-1	1.526881E-1	1.681605E-1
5.343550E+2	2.757507E-1	2.546483E-1	2.648651E-1	1.965655E-1	2.570747E-1	2.474113E-1	2.454942E-1	2.485047E-1	2.550009E-1	2.507050E-1	2.665748E-1	2.713892E-1	2.904676E-1	2.576396E-1	2.593932E-1	2.743255E-1	2.659462E-1	2.501346E-1	2.490023E-1	2.835256E-1	2.692547E-1	2.459989E-1	2.600451E-1	2.769525E-1	3.002888E-1	2.978816E-1	2.900031E-1	2.839997E-1	2.757368E-1	2.841584E-1	2.954279E-1	2.605540E-1	2.646574E-1	2.573316E-1	2.772861E-1	2.821858E-1	2.851902E-1	2.554951E-1	2.836418E-1	2.837647E-1	2.735891E-1	3.030145E-1	2.730670E-1	2.713536E-1	2.663696E-1	2.778838E-1	2.784702E-1	2.811240E-1	2.787833E-1	2.796104E-1	2.790504E-1	2.765753E-1	2.729077E-1	2.791762E-1	2.795866E-1	2.681388E-1	2.728130E-1	3.114853E-1	2.949112E-1	2.987862E-1	2.499329E-1	2.667678E-1	2.780774E-1	2.634148E-1	2.679566E-1	2.573776E-1	2.642363E-1	2.620127E-1	2.731965E-1	2.564707E-1	2.808573E-1	2.921560E-1	2.791920E-1	2.757388E-1	2.526797E-1	2.875109E-1	2.792038E-1	2.776607E-1	2.735159E-1	2.769771E-1	2.727295E-1	2.871212E-1	2.508759E-1	2.617017E-1	2.727102E-1	2.717128E-1	2.680071E-1	2.780154E-1	2.579735E-1	2.620110E-1	2.636347E-1	2.664594E-1	2.783467E-1	2.626436E-1	2.802036E-1	2.502555E-1	2.570479E-1	2.679303E-1	2.882255E-1	2.757620E-1	3.053278E-1	2.742037E-1	2.750362E-1	2.877316E-1	2.561719E-1	2.679331E-1	2.781717E-1	2.563732E-1	2.655506E-1	2.634850E-1	2.841309E-1	2.891262E-1	2.562888E-1	2.710948E-1	2.669633E-1	2.511056E-1	2.631745E-1	2.636730E-1	2.803923E-1	3.061712E-1	2.707615E-1	2.960661E-1	2.664546E-1	2.745266E-1	2.725448E-1	2.541890E-1	2.832453E-1	2.699111E-1	2.530594E-1	2.318787E-1	2.837984E-1	2.617796E-1	2.561547E-1	2.633238E-1	2.831793E-1	2.865982E-1	2.831201E-1	2.578148E-1	2.659530E-1	2.782109E-1	2.716300E-1	2.860854E-1	2.411614E-1	3.012074E-1	2.766984E-1	2.608476E-1	2.730089E-1	2.667495E-1	2.639776E-1	2.921311E-1	2.589789E-1	2.673191E-1	2.837072E-1	2.910080E-1	2.771530E-1	2.732700E-1	2.733452E-1	2.897602E-1	2.634266E-1	2.664960E-1	2.914401E-1	2.581126E-1	2.845589E-1	2.806726E-1	2.927823E-1	2.823118E-1	3.007883E-1	2.675642E-1	2.827143E-1	3.010491E-1
5.345160E+2	4.976340E-1	4.744171E-1	4.679094E-1	4.739387E-1	4.738926E-1	4.727263E-1	4.785516E-1	4.886876E-1	4.856484E-1	4.904295E-1	4.872948E-1	4.774885E-1	4.724157E-1	5.063034E-1	4.919625E-1	4.852033E-1	4.751878E-1	5.122219E-1	4.842520E-1	5.017002E-1	4.718627E-1	5.050708E-1	4.434100E-1	4.846095E-1	5.661292E-1	5.099721E-1	5.320743E-1	5.256578E-1	5.118674E-1	5.421277E-1	5.120053E-1	5.071999E-1	4.792039E-1	4.954588E-1	5.124930E-1	5.319960E-1	4.910096E-1	4.859579E-1	5.394654E-1	5.086738E-1	5.052366E-1	4.740527E-1	4.843148E-1	5.106756E-1	5.260804E-1	4.920203E-1	4.942369E-1	4.770103E-1	5.072374E-1	4.913525E-1	5.049595E-1	4.929254E-1	5.045592E-1	4.835946E-1	4.919953E-1	4.869084E-1	4.948787E-1	5.079089E-1	4.899900E-1	5.160371E-1	4.683736E-1	4.836642E-1	5.341977E-1	4.684463E-1	5.166962E-1	4.893492E-1	4.775624E-1	4.644568E-1	5.134595E-1	4.865636E-1	5.002992E-1	5.053665E-1	4.739280E-1	5.171726E-1	4.915574E-1	5.044976E-1	5.136196E-1	4.864276E-1	5.141021E-1	5.094828E-1	5.109721E-1	5.323246E-1	5.070565E-1	4.854949E-1	4.876978E-1	5.043150E-1	4.871845E-1	5.138863E-1	4.741795E-1	5.077584E-1	5.079927E-1	5.228387E-1	5.230101E-1	5.041132E-1	4.876032E-1	4.759973E-1	4.779626E-1	4.993908E-1	4.817421E-1	4.635999E-1	4.832430E-1	5.022243E-1	5.122280E-1	4.838253E-1	5.283573E-1	4.912529E-1	4.812811E-1	5.036687E-1	4.777293E-1	5.115999E-1	4.992999E-1	4.949250E-1	5.240461E-1	5.133534E-1	4.866536E-1	5.167023E-1	5.094656E-1	5.258419E-1	4.960841E-1	5.083308E-1	4.916993E-1	5.134723E-1	4.691219E-1	5.041993E-1	4.925465E-1	5.035664E-1	4.946257E-1	5.015176E-1	4.620987E-1	4.689283E-1	5.252770E-1	4.854095E-1	4.943969E-1	4.954176E-1	4.793135E-1	5.245332E-1	5.030495E-1	4.916476E-1	5.238682E-1	5.214668E-1	4.978619E-1	4.870563E-1	5.025897E-1	4.963774E-1	4.999575E-1	4.767960E-1	5.232741E-1	4.711500E-1	5.234859E-1	5.024343E-1	4.971084E-1	5.148754E-1	5.673432E-1	4.661217E-1	5.082088E-1	4.992593E-1	5.038496E-1	5.096786E-1	5.303165E-1	4.954256E-1	5.041124E-1	4.938149E-1	4.834666E-1	4.995758E-1	4.992247E-1	5.021314E-1	4.584125E-1	4.939123E-1	5.085138E-1	5.204926E-1
5.346560E+2	8.122529E-1	7.620857E-1	8.100503E-1	6.337081E-1	7.894339E-1	7.961139E-1	7.493711E-1	7.714406E-1	7.552850E-1	7.740710E-1	7.682521E-1	7.782982E-1	7.830370E-1	7.521716E-1	7.887602E-1	8.060877E-1	7.848294E-1	8.139845E-1	7.737629E-1	7.663062E-1	7.837386E-1	7.592768E-1	7.775946E-1	7.492517E-1	8.478491E-1	8.185877E-1	7.996307E-1	8.195059E-1	8.283261E-1	7.864503E-1	8.060075E-1	7.777952E-1	7.950041E-1	7.896313E-1	7.397834E-1	7.201613E-1	8.068501E-1	7.711223E-1	7.947351E-1	7.651884E-1	7.888812E-1	7.821835E-1	7.936751E-1	7.522665E-1	7.817442E-1	7.890569E-1	7.765628E-1	7.906387E-1	7.519354E-1	7.677258E-1	7.970885E-1	7.994081E-1	7.917078E-1	7.965629E-1	7.615712E-1	7.814104E-1	8.225892E-1	7.642101E-1	7.382623E-1	7.673979E-1	7.936613E-1	7.961344E-1	8.064490E-1	7.841319E-1	7.766191E-1	7.793276E-1	7.707410E-1	7.445994E-1	7.847562E-1	7.858576E-1	7.607124E-1	7.805251E-1	8.412633E-1	7.467927E-1	7.678967E-1	7.856091E-1	7.764978E-1	7.460293E-1	7.812979E-1	8.274836E-1	7.532368E-1	7.610283E-1	7.514940E-1	7.444894E-1	7.613852E-1	7.728890E-1	7.839714E-1	7.654932E-1	7.998405E-1	8.131957E-1	7.955560E-1	7.790315E-1	7.967322E-1	7.768838E-1	7.928405E-1	7.439079E-1	8.073768E-1	7.941809E-1	7.762436E-1	7.625016E-1	8.080252E-1	7.823079E-1	7.974103E-1	7.562535E-1	8.042189E-1	7.655357E-1	7.913594E-1	7.628755E-1	7.873110E-1	7.904630E-1	7.588142E-1	7.848880E-1	8.143729E-1	7.296674E-1	7.430257E-1	7.837380E-1	8.213076E-1	7.941067E-1	7.970437E-1	8.179182E-1	7.919436E-1	7.649252E-1	7.324861E-1	7.807065E-1	7.544105E-1	7.501844E-1	7.891795E-1	7.533388E-1	7.527105E-1	7.732763E-1	7.754720E-1	8.052537E-1	8.124446E-1	7.514643E-1	7.636172E-1	8.069869E-1	7.942312E-1	7.832811E-1	7.785566E-1	7.444130E-1	7.774943E-1	7.534219E-1	7.707325E-1	8.380128E-1	8.419220E-1	7.746129E-1	8.028850E-1	7.944423E-1	7.984698E-1	7.938557E-1	7.807335E-1	7.991926E-1	8.238800E-1	7.776433E-1	7.684688E-1	7.543626E-1	7.572103E-1	7.886204E-1	7.665237E-1	7.972716E-1	8.239593E-1	7.785470E-1	7.515881E-1	7.459542E-1	8.090048E-1	8.119370E-1	7.743585E-1	7.504020E-1	7.590428E-1	8.133815E-1
5.348180E+2	1.213227E+0	1.202685E+0	1.201156E+0	1.100067E+0	1.181239E+0	1.193604E+0	1.194928E+0	1.171975E+0	1.258585E+0	1.175096E+0	1.212981E+0	1.180193E+0	1.162558E+0	1.201106E+0	1.218888E+0	1.177924E+0	1.137082E+0	1.199408E+0	1.154355E+0	1.165289E+0	1.181002E+0	1.198023E+0	1.206284E+0	1.120263E+0	1.231118E+0	1.206812E+0	1.253655E+0	1.210512E+0	1.187189E+0	1.196810E+0	1.230281E+0	1.228948E+0	1.193593E+0	1.147744E+0	1.140953E+0	1.180706E+0	1.208551E+0	1.204443E+0	1.242716E+0	1.169139E+0	1.221606E+0	1.199505E+0	1.152048E+0	1.198768E+0	1.173535E+0	1.208504E+0	1.179289E+0	1.186294E+0	1.190371E+0	1.168144E+0	1.214530E+0	1.231778E+0	1.205954E+0	1.178452E+0	1.191054E+0	1.233775E+0	1.215212E+0	1.171061E+0	1.164847E+0	1.216857E+0	1.229913E+0	1.172902E+0	1.228849E+0	1.140875E+0	1.174456E+0	1.212558E+0	1.195758E+0	1.149425E+0	1.158662E+0	1.192276E+0	1.211450E+0	1.125715E+0	1.210017E+0	1.187445E+0	1.198312E+0	1.225341E+0	1.193998E+0	1.139510E+0	1.209009E+0	1.186034E+0	1.169857E+0	1.230469E+0	1.143951E+0	1.130416E+0	1.190074E+0	1.200462E+0	1.203646E+0	1.213863E+0	1.177432E+0	1.251826E+0	1.209664E+0	1.158973E+0	1.228063E+0	1.213656E+0	1.189728E+0	1.175021E+0	1.135941E+0	1.186291E+0	1.184411E+0	1.186388E+0	1.217005E+0	1.147672E+0	1.127096E+0	1.238490E+0	1.220439E+0	1.190375E+0	1.142068E+0	1.130726E+0	1.147872E+0	1.186095E+0	1.203328E+0	1.197944E+0	1.242865E+0	1.231940E+0	1.180090E+0	1.191567E+0	1.178265E+0	1.184129E+0	1.177339E+0	1.185659E+0	1.125806E+0	1.184713E+0	1.213206E+0	1.211608E+0	1.207342E+0	1.208706E+0	1.192132E+0	1.138181E+0	1.171015E+0	1.100037E+0	1.211896E+0	1.198764E+0	1.147609E+0	1.190706E+0	1.226616E+0	1.185411E+0	1.225054E+0	1.190629E+0	1.189750E+0	1.171458E+0	1.186005E+0	1.123594E+0	1.141527E+0	1.186985E+0	1.273280E+0	1.173079E+0	1.201702E+0	1.185440E+0	1.171260E+0	1.185362E+0	1.206505E+0	1.137958E+0	1.206816E+0	1.175439E+0	1.183917E+0	1.195629E+0	1.194403E+0	1.191852E+0	1.201348E+0	1.168273E+0	1.168029E+0	1.185429E+0	1.209807E+0	1.149339E+0	1.187595E+0	1.195920E+0	1.220407E+0	1.191269E+0	1.191727E+0	1.189681E+0
5.349530E+2	1.647205E+0	1.554518E+0	1.635857E+0	1.392388E+0	1.637804E+0	1.549823E+0	1.649412E+0	1.582502E+0	1.535113E+0	1.613658E+0	1.583824E+0	1.587019E+0	1.596799E+0	1.592049E+0	1.536602E+0	1.597615E+0	1.544500E+0	1.641561E+0	1.613446E+0	1.640286E+0	1.572435E+0	1.666924E+0	1.580800E+0	1.568296E+0	1.613735E+0	1.587544E+0	1.630195E+0	1.660857E+0	1.604321E+0	1.582343E+0	1.632324E+0	1.606858E+0	1.601187E+0	1.533655E+0	1.558473E+0	1.652266E+0	1.568356E+0	1.553558E+0	1.545946E+0	1.584789E+0	1.580490E+0	1.597497E+0	1.542227E+0	1.586433E+0	1.532821E+0	1.566528E+0	1.597698E+0	1.564975E+0	1.604137E+0	1.634123E+0	1.601814E+0	1.594804E+0	1.583935E+0	1.548869E+0	1.562082E+0	1.589583E+0	1.576205E+0	1.581404E+0	1.605488E+0	1.586226E+0	1.564056E+0	1.531691E+0	1.639135E+0	1.558489E+0	1.600786E+0	1.544930E+0	1.585160E+0	1.567806E+0	1.612048E+0	1.617138E+0	1.613515E+0	1.595623E+0	1.558308E+0	1.607629E+0	1.585113E+0	1.601241E+0	1.613778E+0	1.596427E+0	1.571252E+0	1.572080E+0	1.627803E+0	1.577333E+0	1.492914E+0	1.520598E+0	1.553632E+0	1.581129E+0	1.623033E+0	1.594664E+0	1.544269E+0	1.593491E+0	1.627550E+0	1.586104E+0	1.554753E+0	1.593413E+0	1.537080E+0	1.576919E+0	1.603086E+0	1.521659E+0	1.550058E+0	1.598609E+0	1.606889E+0	1.514949E+0	1.581284E+0	1.558925E+0	1.595308E+0	1.543587E+0	1.596639E+0	1.520337E+0	1.559139E+0	1.545733E+0	1.592427E+0	1.557207E+0	1.614764E+0	1.509111E+0	1.616496E+0	1.550585E+0	1.559131E+0	1.575277E+0	1.571931E+0	1.577017E+0	1.578175E+0	1.540432E+0	1.524814E+0	1.608424E+0	1.590315E+0	1.594726E+0	1.588779E+0	1.615642E+0	1.547659E+0	1.518635E+0	1.628259E+0	1.511264E+0	1.605800E+0	1.602098E+0	1.603431E+0	1.560949E+0	1.617277E+0	1.483406E+0	1.591246E+0	1.523587E+0	1.619288E+0	1.504092E+0	1.551131E+0	1.571762E+0	1.641452E+0	1.563720E+0	1.560745E+0	1.526281E+0	1.592251E+0	1.540424E+0	1.600390E+0	1.569049E+0	1.552281E+0	1.550452E+0	1.613924E+0	1.571088E+0	1.492091E+0	1.571692E+0	1.555219E+0	1.575832E+0	1.591473E+0	1.525526E+0	1.559074E+0	1.504136E+0	1.537274E+0	1.559498E+0	1.511940E+0	1.550571E+0	1.525097E+0	1.616955E+0
5.351250E+2	2.027109E+0	1.979670E+0	1.943801E+0	1.771263E+0	1.922456E+0	1.947970E+0	1.926641E+0	1.980135E+0	1.960979E+0	1.990921E+0	1.921738E+0	1.961614E+0	1.969939E+0	1.952936E+0	1.946012E+0	1.903938E+0	1.916467E+0	1.951678E+0	2.001313E+0	1.968825E+0	1.933301E+0	1.950990E+0	1.954466E+0	1.961552E+0	1.983970E+0	1.985815E+0	1.995360E+0	2.036857E+0	1.956182E+0	2.012569E+0	1.869598E+0	1.994448E+0	1.915642E+0	1.977728E+0	1.902717E+0	1.974311E+0	1.948909E+0	1.951994E+0	1.885373E+0	1.943503E+0	1.997142E+0	1.894686E+0	1.952150E+0	1.864311E+0	1.959430E+0	1.939341E+0	1.936324E+0	1.911431E+0	1.997094E+0	1.893586E+0	1.845468E+0	2.042675E+0	1.988810E+0	1.938395E+0	1.949001E+0	1.901451E+0	1.986463E+0	1.950527E+0	1.865146E+0	1.969842E+0	1.918004E+0	1.917651E+0	1.956828E+0	1.859141E+0	1.933240E+0	1.972667E+0	1.897942E+0	1.968427E+0	1.915034E+0	1.965308E+0	1.920344E+0	1.937329E+0	1.930544E+0	1.909548E+0	1.873284E+0	1.924476E+0	1.912249E+0	1.900260E+0	1.930699E+0	1.976647E+0	1.956230E+0	1.908692E+0	1.919721E+0	1.913311E+0	1.865274E+0	1.895082E+0	1.974897E+0	1.926728E+0	1.956555E+0	1.985453E+0	1.972297E+0	1.876692E+0	1.933698E+0	1.953993E+0	1.900875E+0	1.905985E+0	1.886148E+0	1.974049E+0	1.896961E+0	1.832281E+0	1.924834E+0	1.871726E+0	1.884289E+0	1.906884E+0	1.950613E+0	1.924439E+0	1.900745E+0	1.887743E+0	1.905737E+0	1.941763E+0	1.914259E+0	1.872556E+0	1.929372E+0	1.899456E+0	1.949990E+0	1.864827E+0	1.935782E+0	1.875167E+0	1.922855E+0	1.931257E+0	1.854507E+0	1.927426E+0	1.908873E+0	1.889951E+0	1.914223E+0	1.919069E+0	1.931538E+0	1.932101E+0	1.910465E+0	1.900567E+0	1.987779E+0	1.857906E+0	1.909422E+0	1.897642E+0	1.918655E+0	1.943634E+0	1.933672E+0	1.889277E+0	1.900162E+0	1.874177E+0	1.945286E+0	1.862575E+0	1.986336E+0	1.894317E+0	1.954205E+0	1.912447E+0	1.937561E+0	1.969891E+0	1.910295E+0	1.857888E+0	1.882193E+0	1.861171E+0	1.898181E+0	1.925350E+0	1.892525E+0	1.881058E+0	1.867462E+0	1.805433E+0	1.928951E+0	1.867754E+0	1.901805E+0	1.903206E+0	1.929873E+0	1.862870E+0	1.931185E+0	1.910841E+0	1.896034E+0	1.870401E+0	1.830027E+0	1.855633E+0
5.352600E+2	2.195042E+0	2.202720E+0	2.211819E+0	2.081908E+0	2.139541E+0	2.067593E+0	2.122514E+0	2.161207E+0	2.156779E+0	2.122961E+0	2.087069E+0	2.196665E+0	2.144008E+0	2.142637E+0	2.079499E+0	2.155715E+0	2.153325E+0	2.133293E+0	2.089897E+0	2.130894E+0	2.129190E+0	2.113752E+0	2.069142E+0	2.162188E+0	2.084742E+0	2.173046E+0	2.077078E+0	2.171375E+0	2.113160E+0	2.137737E+0	2.167005E+0	2.158522E+0	2.120546E+0	2.118095E+0	2.090486E+0	2.192971E+0	2.137025E+0	2.110324E+0	2.129978E+0	2.141985E+0	2.154272E+0	2.071884E+0	2.156156E+0	2.115832E+0	2.136152E+0	2.131103E+0	2.081619E+0	2.153924E+0	2.078243E+0	2.077446E+0	2.114964E+0	2.119507E+0	2.166373E+0	2.151071E+0	2.157428E+0	2.104743E+0	2.130648E+0	2.124292E+0	2.020147E+0	2.199419E+0	2.102120E+0	2.031235E+0	2.121893E+0	2.056591E+0	2.131551E+0	2.087464E+0	2.075190E+0	2.043627E+0	2.058480E+0	2.137843E+0	2.096219E+0	2.124499E+0	2.157276E+0	2.123220E+0	2.098437E+0	2.148135E+0	2.153434E+0	2.078362E+0	2.113093E+0	2.091806E+0	2.102161E+0	2.111266E+0	2.086509E+0	2.074618E+0	2.098823E+0	2.110489E+0	2.062016E+0	2.070532E+0	2.146060E+0	2.119346E+0	2.103703E+0	2.086791E+0	2.076289E+0	2.071066E+0	2.038028E+0	2.085102E+0	2.077855E+0	2.117471E+0	2.119052E+0	2.119066E+0	2.085970E+0	2.096424E+0	2.131974E+0	2.089716E+0	2.100727E+0	2.062747E+0	2.044299E+0	2.075922E+0	2.109698E+0	2.071696E+0	2.120881E+0	2.075736E+0	2.081408E+0	2.059071E+0	2.075527E+0	2.083030E+0	2.099172E+0	2.073670E+0	2.044562E+0	2.128117E+0	2.075993E+0	2.115143E+0	2.038778E+0	2.107063E+0	2.045084E+0	2.050726E+0	2.032554E+0	2.120206E+0	2.075559E+0	2.035925E+0	2.182307E+0	2.024343E+0	2.040575E+0	2.094737E+0	2.065885E+0	2.024921E+0	2.151051E+0	2.004373E+0	2.101835E+0	2.113555E+0	2.130420E+0	1.996602E+0	2.111509E+0	2.064122E+0	2.109579E+0	2.079706E+0	2.111069E+0	2.059015E+0	1.971961E+0	2.033722E+0	2.035196E+0	2.074535E+0	2.072494E+0	2.092581E+0	2.117867E+0	2.079601E+0	2.097712E+0	2.005304E+0	2.081735E+0	2.111561E+0	2.099333E+0	2.015421E+0	2.090905E+0	2.040651E+0	2.073082E+0	2.061095E+0	2.054519E+0	2.055934E+0	1.964328E+0	2.027792E+0
5.354060E+2	2.143867E+0	2.198543E+0	2.137230E+0	2.095903E+0	2.103027E+0	2.088595E+0	2.162007E+0	2.107542E+0	2.127719E+0	2.145602E+0	2.111260E+0	2.145151E+0	2.167333E+0	2.129860E+0	2.129783E+0	2.136482E+0	2.135645E+0	2.120639E+0	2.141513E+0	2.165503E+0	2.037412E+0	2.082268E+0	2.226440E+0	2.075209E+0	2.090765E+0	2.094898E+0	2.138903E+0	2.115642E+0	2.112292E+0	2.126271E+0	2.105886E+0	2.150594E+0	2.100876E+0	2.054626E+0	2.060090E+0	2.109687E+0	2.100000E+0	2.073451E+0	2.087421E+0	2.095701E+0	2.179616E+0	2.120972E+0	2.092630E+0	2.132114E+0	2.095530E+0	2.140689E+0	2.066251E+0	2.170316E+0	2.093694E+0	2.102856E+0	2.009626E+0	2.138251E+0	2.127174E+0	2.061138E+0	2.097199E+0	2.111929E+0	2.098795E+0	2.022454E+0	2.054150E+0	2.050666E+0	2.068759E+0	2.111711E+0	2.095354E+0	2.101034E+0	2.061432E+0	2.056713E+0	2.099280E+0	2.101761E+0	2.066710E+0	2.059242E+0	2.124948E+0	2.137706E+0	2.103960E+0	2.118242E+0	2.078203E+0	2.117191E+0	2.008443E+0	2.074542E+0	2.069266E+0	2.097561E+0	2.041143E+0	2.089634E+0	2.076445E+0	2.005930E+0	2.009587E+0	2.050945E+0	2.088472E+0	2.082419E+0	2.112075E+0	2.060372E+0	2.064737E+0	2.106344E+0	2.041991E+0	2.068138E+0	2.074518E+0	2.077807E+0	2.065504E+0	2.050037E+0	2.071204E+0	2.028780E+0	2.065994E+0	2.041215E+0	2.079434E+0	2.111616E+0	2.107789E+0	2.059332E+0	2.061969E+0	2.048776E+0	2.022740E+0	2.080842E+0	2.088587E+0	2.039154E+0	2.038681E+0	2.040585E+0	1.961385E+0	2.127738E+0	2.061835E+0	2.081378E+0	2.031202E+0	2.112240E+0	2.043018E+0	2.086652E+0	2.015897E+0	1.996973E+0	2.067982E+0	2.013848E+0	2.098764E+0	2.078392E+0	2.099879E+0	2.067518E+0	2.092482E+0	2.001622E+0	2.008204E+0	2.070425E+0	2.109548E+0	2.051037E+0	2.097147E+0	2.000221E+0	2.123638E+0	2.072648E+0	2.054088E+0	2.011460E+0	2.062878E+0	2.052400E+0	2.053883E+0	2.033677E+0	2.121393E+0	2.043683E+0	2.069747E+0	2.054718E+0	2.008283E+0	2.028218E+0	2.071888E+0	2.034138E+0	2.001773E+0	2.025241E+0	2.023855E+0	2.017594E+0	1.982132E+0	2.079911E+0	2.052615E+0	2.008135E+0	2.052566E+0	2.024462E+0	2.064570E+0	1.991619E+0	2.052760E+0	1.982940E+0	2.009318E+0	2.000167E+0
5.355680E+2	1.917685E+0	1.890875E+0	1.941633E+0	1.894594E+0	1.910171E+0	1.904748E+0	1.894185E+0	1.844608E+0	1.851759E+0	1.966697E+0	1.908053E+0	1.968522E+0	1.899314E+0	1.893362E+0	1.866310E+0	1.948612E+0	1.940813E+0	1.937644E+0	1.923280E+0	1.921833E+0	1.865729E+0	1.890686E+0	1.942009E+0	1.845284E+0	1.896612E+0	1.897029E+0	1.862002E+0	1.873474E+0	1.905703E+0	1.868136E+0	1.904906E+0	1.916407E+0	1.873426E+0	1.902742E+0	1.870152E+0	1.936231E+0	1.881752E+0	1.885498E+0	1.906823E+0	1.903156E+0	1.954735E+0	1.909613E+0	1.910731E+0	1.966085E+0	1.894909E+0	1.860577E+0	1.874795E+0	1.896168E+0	1.876670E+0	1.829753E+0	1.894247E+0	1.965003E+0	1.869456E+0	1.881697E+0	1.903956E+0	1.933003E+0	1.867592E+0	1.863221E+0	1.846139E+0	1.900890E+0	1.872598E+0	1.857781E+0	1.886724E+0	1.869450E+0	1.955530E+0	1.906581E+0	1.886731E+0	1.961841E+0	1.827738E+0	1.867039E+0	1.881117E+0	1.891361E+0	1.899194E+0	1.891309E+0	1.889595E+0	1.942075E+0	1.857974E+0	1.890032E+0	1.879060E+0	1.870728E+0	1.864948E+0	1.886315E+0	1.833026E+0	1.880631E+0	1.828065E+0	1.851982E+0	1.855942E+0	1.875455E+0	1.889086E+0	1.903908E+0	1.885064E+0	1.830413E+0	1.879770E+0	1.892666E+0	1.809015E+0	1.859083E+0	1.904590E+0	1.899902E+0	1.813963E+0	1.887844E+0	1.921251E+0	1.872777E+0	1.896097E+0	1.907589E+0	1.920282E+0	1.886055E+0	1.890854E+0	1.839528E+0	1.874264E+0	1.895550E+0	1.877763E+0	1.890349E+0	1.927483E+0	1.819294E+0	1.856012E+0	1.947005E+0	1.900253E+0	1.900988E+0	1.920370E+0	1.893033E+0	1.880348E+0	1.904674E+0	1.850761E+0	1.888660E+0	1.852045E+0	1.850646E+0	1.846382E+0	1.831251E+0	1.882546E+0	1.846287E+0	1.919045E+0	1.867720E+0	1.814769E+0	1.829521E+0	1.794982E+0	1.853748E+0	1.883750E+0	1.851876E+0	1.869719E+0	1.862509E+0	1.899759E+0	1.886633E+0	1.774516E+0	1.896620E+0	1.920150E+0	1.896135E+0	1.953589E+0	1.901785E+0	1.888168E+0	1.843948E+0	1.844672E+0	1.844033E+0	1.830128E+0	1.843657E+0	1.853659E+0	1.849399E+0	1.856914E+0	1.855457E+0	1.744842E+0	1.909195E+0	1.911280E+0	1.747456E+0	1.845726E+0	1.847377E+0	1.903068E+0	1.825203E+0	1.818688E+0	1.812994E+0	1.848773E+0	1.796387E+0
5.357040E+2	1.769803E+0	1.761550E+0	1.717872E+0	1.521886E+0	1.723978E+0	1.737288E+0	1.733918E+0	1.649184E+0	1.729668E+0	1.668352E+0	1.700699E+0	1.753742E+0	1.728649E+0	1.718179E+0	1.663421E+0	1.766607E+0	1.731707E+0	1.734814E+0	1.720489E+0	1.697537E+0	1.696882E+0	1.775299E+0	1.729112E+0	1.663140E+0	1.717026E+0	1.709015E+0	1.683011E+0	1.699738E+0	1.687231E+0	1.683369E+0	1.708362E+0	1.713557E+0	1.730174E+0	1.672842E+0	1.683709E+0	1.759392E+0	1.702594E+0	1.671027E+0	1.691925E+0	1.704283E+0	1.724038E+0	1.673195E+0	1.724977E+0	1.729924E+0	1.681793E+0	1.656815E+0	1.705635E+0	1.718399E+0	1.711475E+0	1.727890E+0	1.649062E+0	1.712990E+0	1.694502E+0	1.639423E+0	1.711160E+0	1.680473E+0	1.826571E+0	1.703120E+0	1.667437E+0	1.743051E+0	1.713691E+0	1.632996E+0	1.674901E+0	1.676786E+0	1.721757E+0	1.658853E+0	1.700841E+0	1.711449E+0	1.718553E+0	1.748038E+0	1.682588E+0	1.679606E+0	1.675363E+0	1.692969E+0	1.708273E+0	1.760766E+0	1.671895E+0	1.679904E+0	1.657838E+0	1.720775E+0	1.667847E+0	1.663183E+0	1.740857E+0	1.712825E+0	1.664302E+0	1.649116E+0	1.750788E+0	1.732458E+0	1.677474E+0	1.745775E+0	1.645440E+0	1.734108E+0	1.660492E+0	1.665853E+0	1.619203E+0	1.716281E+0	1.721969E+0	1.692063E+0	1.733098E+0	1.672269E+0	1.714997E+0	1.658449E+0	1.669734E+0	1.693771E+0	1.703879E+0	1.647947E+0	1.657150E+0	1.608648E+0	1.636697E+0	1.657251E+0	1.692479E+0	1.675261E+0	1.756222E+0	1.643536E+0	1.640428E+0	1.697456E+0	1.697518E+0	1.685920E+0	1.678936E+0	1.693583E+0	1.762896E+0	1.709731E+0	1.644900E+0	1.684105E+0	1.747282E+0	1.653064E+0	1.668659E+0	1.731682E+0	1.615554E+0	1.600782E+0	1.716549E+0	1.707886E+0	1.739699E+0	1.731705E+0	1.643865E+0	1.647368E+0	1.755587E+0	1.632153E+0	1.611307E+0	1.646012E+0	1.698657E+0	1.656243E+0	1.632207E+0	1.702423E+0	1.777434E+0	1.681923E+0	1.608151E+0	1.677859E+0	1.655396E+0	1.633790E+0	1.672456E+0	1.649663E+0	1.679410E+0	1.676951E+0	1.649374E+0	1.717202E+0	1.669462E+0	1.646900E+0	1.656250E+0	1.735189E+0	1.733443E+0	1.607500E+0	1.651710E+0	1.657406E+0	1.730861E+0	1.641698E+0	1.615638E+0	1.692645E+0	1.650057E+0	1.733283E+0
5.358550E+2	1.478097E+0	1.510047E+0	1.502071E+0	1.344918E+0	1.525003E+0	1.490347E+0	1.488560E+0	1.472954E+0	1.449399E+0	1.512682E+0	1.481849E+0	1.482468E+0	1.446311E+0	1.457755E+0	1.483749E+0	1.495124E+0	1.470751E+0	1.468802E+0	1.447007E+0	1.458463E+0	1.467967E+0	1.517880E+0	1.440124E+0	1.451775E+0	1.457727E+0	1.461738E+0	1.524517E+0	1.437063E+0	1.435550E+0	1.496839E+0	1.473623E+0	1.454372E+0	1.473452E+0	1.436013E+0	1.440030E+0	1.498061E+0	1.448317E+0	1.449549E+0	1.430204E+0	1.434490E+0	1.518243E+0	1.481600E+0	1.456881E+0	1.474612E+0	1.460779E+0	1.458804E+0	1.473133E+0	1.402514E+0	1.414136E+0	1.459250E+0	1.447544E+0	1.436972E+0	1.457150E+0	1.447223E+0	1.471543E+0	1.500645E+0	1.474671E+0	1.456749E+0	1.385352E+0	1.507139E+0	1.427387E+0	1.466812E+0	1.447901E+0	1.411544E+0	1.439937E+0	1.466343E+0	1.437604E+0	1.443008E+0	1.524886E+0	1.452174E+0	1.460127E+0	1.446325E+0	1.450416E+0	1.391445E+0	1.419037E+0	1.453508E+0	1.481199E+0	1.416682E+0	1.413288E+0	1.510674E+0	1.450236E+0	1.446000E+0	1.444711E+0	1.439839E+0	1.475888E+0	1.458321E+0	1.490355E+0	1.417338E+0	1.443413E+0	1.397799E+0	1.517955E+0	1.449672E+0	1.465660E+0	1.429291E+0	1.413138E+0	1.501855E+0	1.455175E+0	1.488555E+0	1.429399E+0	1.450344E+0	1.491159E+0	1.414619E+0	1.474982E+0	1.444149E+0	1.486833E+0	1.387783E+0	1.404339E+0	1.385246E+0	1.420561E+0	1.438194E+0	1.410450E+0	1.459399E+0	1.463243E+0	1.407654E+0	1.459325E+0	1.465051E+0	1.443938E+0	1.434289E+0	1.446685E+0	1.457100E+0	1.466219E+0	1.458880E+0	1.475548E+0	1.483400E+0	1.440474E+0	1.429752E+0	1.432385E+0	1.501169E+0	1.425361E+0	1.464820E+0	1.442957E+0	1.471864E+0	1.446971E+0	1.472937E+0	1.484303E+0	1.438486E+0	1.492754E+0	1.450229E+0	1.431508E+0	1.440092E+0	1.435670E+0	1.437424E+0	1.419698E+0	1.453317E+0	1.516422E+0	1.466970E+0	1.480434E+0	1.523568E+0	1.494506E+0	1.382667E+0	1.439898E+0	1.434268E+0	1.456740E+0	1.426584E+0	1.485498E+0	1.469695E+0	1.384160E+0	1.443508E+0	1.429221E+0	1.433711E+0	1.432695E+0	1.397960E+0	1.390233E+0	1.402812E+0	1.478926E+0	1.455630E+0	1.407934E+0	1.407853E+0	1.418579E+0	1.507874E+0
5.360120E+2	1.249053E+0	1.284076E+0	1.220272E+0	1.107173E+0	1.198618E+0	1.221991E+0	1.229105E+0	1.237053E+0	1.240970E+0	1.237340E+0	1.191522E+0	1.223471E+0	1.242387E+0	1.231475E+0	1.197579E+0	1.221868E+0	1.193106E+0	1.204832E+0	1.199941E+0	1.230511E+0	1.194516E+0	1.197836E+0	1.226942E+0	1.251944E+0	1.263541E+0	1.238183E+0	1.243334E+0	1.174849E+0	1.179250E+0	1.200299E+0	1.210199E+0	1.230039E+0	1.167735E+0	1.214948E+0	1.134098E+0	1.238789E+0	1.191422E+0	1.249988E+0	1.222302E+0	1.191135E+0	1.240914E+0	1.214749E+0	1.182488E+0	1.185285E+0	1.178425E+0	1.154382E+0	1.185108E+0	1.186407E+0	1.214563E+0	1.204146E+0	1.187614E+0	1.235561E+0	1.245127E+0	1.215536E+0	1.236052E+0	1.241460E+0	1.198676E+0	1.192348E+0	1.260238E+0	1.193641E+0	1.195935E+0	1.183555E+0	1.228125E+0	1.211660E+0	1.200449E+0	1.191925E+0	1.126477E+0	1.216107E+0	1.240761E+0	1.195759E+0	1.223661E+0	1.215245E+0	1.206733E+0	1.211455E+0	1.208135E+0	1.213807E+0	1.213087E+0	1.217632E+0	1.179231E+0	1.204601E+0	1.192103E+0	1.200547E+0	1.185309E+0	1.209283E+0	1.185254E+0	1.201379E+0	1.217293E+0	1.234967E+0	1.215058E+0	1.207048E+0	1.207759E+0	1.217281E+0	1.220458E+0	1.223767E+0	1.194456E+0	1.216916E+0	1.203171E+0	1.197247E+0	1.211478E+0	1.163285E+0	1.219292E+0	1.142159E+0	1.165659E+0	1.181800E+0	1.209296E+0	1.224980E+0	1.150034E+0	1.195691E+0	1.182728E+0	1.217306E+0	1.161272E+0	1.169818E+0	1.192886E+0	1.205046E+0	1.171506E+0	1.206994E+0	1.202619E+0	1.252066E+0	1.209765E+0	1.226541E+0	1.204673E+0	1.193342E+0	1.199981E+0	1.222584E+0	1.206758E+0	1.225055E+0	1.181880E+0	1.198946E+0	1.149664E+0	1.201115E+0	1.228533E+0	1.199987E+0	1.186916E+0	1.171084E+0	1.227685E+0	1.197661E+0	1.283464E+0	1.189037E+0	1.225278E+0	1.214615E+0	1.264146E+0	1.151589E+0	1.147790E+0	1.201596E+0	1.214749E+0	1.197848E+0	1.216829E+0	1.217155E+0	1.189960E+0	1.187393E+0	1.176599E+0	1.169701E+0	1.198979E+0	1.177539E+0	1.183813E+0	1.173736E+0	1.168591E+0	1.205928E+0	1.155176E+0	1.241540E+0	1.188746E+0	1.195861E+0	1.183486E+0	1.177371E+0	1.215697E+0	1.165474E+0	1.155992E+0	1.175720E+0	1.252002E+0	1.238667E+0
5.362630E+2	9.379128E-1	9.751029E-1	8.920303E-1	9.988881E-1	9.306032E-1	9.257396E-1	9.206265E-1	9.000045E-1	9.360168E-1	9.438565E-1	9.290297E-1	9.415988E-1	9.456010E-1	9.605434E-1	9.017363E-1	9.429436E-1	9.322793E-1	9.070622E-1	9.045951E-1	9.398841E-1	9.173080E-1	9.512798E-1	9.268251E-1	8.720695E-1	8.778999E-1	9.272833E-1	9.657327E-1	9.024195E-1	9.294577E-1	9.051604E-1	9.488084E-1	9.373202E-1	9.134528E-1	9.317028E-1	8.732526E-1	9.877430E-1	9.155751E-1	8.993961E-1	9.314523E-1	9.046769E-1	9.705226E-1	9.441551E-1	8.934122E-1	9.560669E-1	9.186086E-1	9.242953E-1	8.801197E-1	9.467348E-1	9.394720E-1	9.055782E-1	9.045980E-1	9.857080E-1	9.791973E-1	9.028984E-1	9.091422E-1	9.528161E-1	9.179413E-1	9.483063E-1	8.806640E-1	9.198164E-1	9.299993E-1	8.827876E-1	8.797324E-1	8.860191E-1	9.049496E-1	9.285361E-1	9.182395E-1	9.385244E-1	8.562248E-1	9.154470E-1	9.351599E-1	9.120089E-1	9.167952E-1	9.525434E-1	9.241093E-1	9.070301E-1	9.330675E-1	9.235340E-1	8.733774E-1	9.555366E-1	9.241530E-1	9.749694E-1	9.458808E-1	9.631647E-1	9.452580E-1	8.964112E-1	9.416089E-1	8.747797E-1	9.676745E-1	9.287299E-1	9.208866E-1	9.898659E-1	9.596255E-1	9.469516E-1	8.969534E-1	9.247558E-1	9.061321E-1	9.146300E-1	8.981592E-1	9.195866E-1	9.554579E-1	8.978132E-1	9.050292E-1	9.304971E-1	9.465732E-1	9.014866E-1	8.919948E-1	9.273283E-1	9.097466E-1	9.489883E-1	9.230872E-1	9.795993E-1	9.326296E-1	9.064258E-1	9.120433E-1	9.094804E-1	9.157719E-1	8.760346E-1	9.339303E-1	9.648374E-1	9.151685E-1	9.686907E-1	9.052653E-1	9.333068E-1	9.000759E-1	9.431169E-1	8.826563E-1	9.595744E-1	9.392927E-1	9.510606E-1	9.298366E-1	9.494800E-1	9.040732E-1	9.398322E-1	9.894910E-1	9.501947E-1	9.836435E-1	9.268173E-1	9.836755E-1	9.341873E-1	9.738132E-1	9.175975E-1	9.156313E-1	9.213692E-1	9.130391E-1	9.145465E-1	9.240350E-1	9.518612E-1	9.746192E-1	9.620860E-1	9.467774E-1	8.981033E-1	9.623818E-1	9.217347E-1	9.228358E-1	9.079755E-1	8.971893E-1	9.340989E-1	8.985181E-1	9.289780E-1	9.621425E-1	9.026413E-1	9.056435E-1	9.347475E-1	9.352416E-1	9.559863E-1	9.659995E-1	9.179031E-1	9.298102E-1	9.817033E-1
5.365140E+2	7.037695E-1	7.757679E-1	7.372730E-1	6.287783E-1	6.987581E-1	6.811024E-1	7.078869E-1	6.865816E-1	7.379081E-1	7.182577E-1	6.906428E-1	7.062738E-1	7.503691E-1	7.519422E-1	7.092109E-1	6.855117E-1	7.350340E-1	7.058213E-1	7.280605E-1	7.396710E-1	7.303491E-1	6.811259E-1	7.033825E-1	6.933689E-1	7.202199E-1	7.147089E-1	7.397185E-1	7.230346E-1	6.782754E-1	7.170045E-1	7.079348E-1	7.221444E-1	7.138468E-1	7.260671E-1	7.038676E-1	7.034795E-1	6.825629E-1	7.139549E-1	6.853179E-1	6.753951E-1	6.992433E-1	7.005209E-1	7.166792E-1	7.368255E-1	6.978192E-1	7.002628E-1	7.129592E-1	7.477598E-1	7.450910E-1	7.383055E-1	6.939407E-1	7.740519E-1	7.084183E-1	6.769521E-1	7.346291E-1	7.112149E-1	6.845971E-1	7.063104E-1	6.863117E-1	7.473180E-1	7.184230E-1	7.056866E-1	7.026700E-1	6.885750E-1	7.338220E-1	6.912573E-1	6.870124E-1	6.709928E-1	7.053797E-1	7.084163E-1	7.215587E-1	6.739806E-1	7.118928E-1	7.291053E-1	7.162985E-1	7.581694E-1	7.506928E-1	7.207129E-1	6.784077E-1	7.060175E-1	7.249822E-1	7.519445E-1	7.000642E-1	7.039969E-1	7.259258E-1	7.410529E-1	7.055178E-1	7.184361E-1	7.245010E-1	6.974520E-1	7.541869E-1	7.337998E-1	7.078325E-1	6.954604E-1	6.840814E-1	6.885809E-1	7.323549E-1	7.375631E-1	6.886888E-1	7.044004E-1	6.774115E-1	7.077893E-1	7.122559E-1	7.498506E-1	7.180215E-1	6.995721E-1	6.814119E-1	7.160789E-1	7.026825E-1	7.219333E-1	7.168600E-1	7.287827E-1	7.296836E-1	6.971730E-1	7.298378E-1	7.181925E-1	6.768936E-1	7.058782E-1	6.878929E-1	7.338037E-1	7.438778E-1	7.400253E-1	6.859690E-1	7.255983E-1	7.104664E-1	7.276465E-1	7.143188E-1	7.093299E-1	6.951176E-1	6.828446E-1	7.642510E-1	7.551697E-1	6.930436E-1	7.152503E-1	6.833537E-1	7.378044E-1	7.393903E-1	7.289224E-1	7.000702E-1	6.907862E-1	7.255365E-1	6.754898E-1	7.226511E-1	7.159006E-1	7.191330E-1	7.113054E-1	7.038468E-1	7.446223E-1	7.216904E-1	7.476363E-1	7.370477E-1	7.155523E-1	7.211013E-1	6.718980E-1	6.750265E-1	7.352465E-1	7.094471E-1	7.015078E-1	6.831460E-1	7.193895E-1	7.379030E-1	6.994031E-1	6.765334E-1	7.125405E-1	7.039700E-1	7.288443E-1	6.873169E-1	7.079920E-1	6.758876E-1	6.940367E-1
5.367710E+2	5.565027E-1	5.807544E-1	5.855844E-1	4.945402E-1	5.872355E-1	5.534841E-1	5.853435E-1	5.514863E-1	5.908007E-1	5.423549E-1	5.929289E-1	5.796729E-1	6.017764E-1	5.797113E-1	5.714182E-1	5.638608E-1	5.827980E-1	5.689205E-1	5.499760E-1	5.433801E-1	5.690018E-1	6.133307E-1	5.462219E-1	5.665701E-1	5.585513E-1	5.600839E-1	5.719431E-1	5.847966E-1	5.688378E-1	5.813670E-1	6.048751E-1	5.613354E-1	5.897328E-1	5.754881E-1	5.539035E-1	5.562045E-1	5.617875E-1	5.773236E-1	5.734997E-1	5.529863E-1	6.123139E-1	5.895623E-1	5.946611E-1	5.938391E-1	5.811890E-1	5.721766E-1	5.393319E-1	5.678679E-1	6.104562E-1	5.595835E-1	5.662223E-1	5.615500E-1	5.673340E-1	5.449978E-1	5.640242E-1	5.855334E-1	5.626536E-1	5.534735E-1	5.541735E-1	5.629998E-1	5.761463E-1	5.926792E-1	5.782304E-1	5.832974E-1	6.037391E-1	5.450310E-1	6.075590E-1	5.636477E-1	5.645392E-1	5.780541E-1	5.840385E-1	5.650955E-1	6.040638E-1	5.740628E-1	5.826350E-1	6.012088E-1	5.735390E-1	5.494821E-1	5.784966E-1	5.758212E-1	5.534603E-1	5.954722E-1	5.814456E-1	5.695392E-1	6.135511E-1	6.059662E-1	6.301059E-1	5.707612E-1	5.952706E-1	6.076865E-1	6.101470E-1	5.745400E-1	5.904461E-1	5.865173E-1	5.735868E-1	5.644867E-1	6.057731E-1	5.886900E-1	5.858646E-1	5.924041E-1	5.713001E-1	5.694616E-1	6.017575E-1	5.966055E-1	6.066167E-1	5.750219E-1	5.796502E-1	6.007941E-1	5.847047E-1	5.814279E-1	5.923011E-1	5.994420E-1	5.842363E-1	5.387845E-1	5.593380E-1	5.869007E-1	5.846205E-1	5.635673E-1	5.584219E-1	5.861143E-1	5.824145E-1	5.723458E-1	5.317096E-1	6.263476E-1	6.174569E-1	5.807303E-1	5.687976E-1	5.741299E-1	5.871158E-1	5.494143E-1	5.932052E-1	5.719100E-1	5.864961E-1	5.974665E-1	5.625018E-1	5.881989E-1	5.641143E-1	5.730145E-1	5.999091E-1	6.238643E-1	5.853123E-1	5.948416E-1	5.669358E-1	5.886237E-1	6.360434E-1	5.519279E-1	5.730064E-1	5.646511E-1	5.895696E-1	5.759046E-1	5.954337E-1	5.729890E-1	6.072557E-1	5.611575E-1	5.818793E-1	5.975607E-1	5.862877E-1	5.821581E-1	5.902181E-1	5.871492E-1	5.779480E-1	5.812531E-1	5.500162E-1	6.018601E-1	6.009659E-1	5.874038E-1	5.955463E-1	5.966552E-1	5.959294E-1	5.733198E-1
5.370070E+2	5.311062E-1	4.988761E-1	4.607216E-1	4.896204E-1	5.091282E-1	5.011837E-1	5.063279E-1	5.290599E-1	5.013837E-1	4.790804E-1	5.241601E-1	4.700749E-1	5.191922E-1	5.218318E-1	4.863965E-1	5.063239E-1	4.970067E-1	4.890690E-1	4.867846E-1	4.684301E-1	5.136352E-1	5.005073E-1	4.761576E-1	4.837167E-1	5.379438E-1	4.943027E-1	5.168848E-1	4.804880E-1	4.749108E-1	5.144363E-1	5.033990E-1	4.613050E-1	5.067698E-1	5.200673E-1	4.914099E-1	4.965263E-1	4.758783E-1	4.981287E-1	5.113857E-1	4.712099E-1	4.968391E-1	4.847648E-1	5.117668E-1	5.167683E-1	5.027495E-1	5.032903E-1	5.126794E-1	4.961541E-1	5.122959E-1	4.902777E-1	4.972997E-1	5.122584E-1	5.138432E-1	5.069927E-1	5.096426E-1	4.917806E-1	5.062932E-1	4.802805E-1	4.958952E-1	5.028775E-1	5.360620E-1	5.040941E-1	5.030220E-1	4.877683E-1	5.058823E-1	4.850353E-1	5.362743E-1	4.622869E-1	4.803485E-1	5.132535E-1	5.179660E-1	5.034606E-1	5.104732E-1	4.968853E-1	4.938404E-1	5.049945E-1	4.909567E-1	4.799999E-1	4.940216E-1	4.998530E-1	5.082016E-1	5.320129E-1	5.092703E-1	5.245466E-1	4.940672E-1	4.848081E-1	5.042025E-1	5.129312E-1	5.149272E-1	4.781605E-1	5.185830E-1	5.151163E-1	5.156327E-1	5.016690E-1	5.177521E-1	4.701014E-1	4.894390E-1	4.918043E-1	5.127223E-1	5.141167E-1	5.155310E-1	5.107125E-1	5.471727E-1	5.200443E-1	5.262220E-1	5.064541E-1	4.882733E-1	5.125636E-1	5.115507E-1	4.943992E-1	4.944654E-1	4.995141E-1	5.370519E-1	5.025018E-1	4.659072E-1	5.050866E-1	4.984001E-1	5.200759E-1	4.819980E-1	5.089109E-1	4.949183E-1	5.143967E-1	5.333384E-1	5.286229E-1	5.195731E-1	5.169237E-1	5.160486E-1	5.292610E-1	5.361391E-1	4.782428E-1	4.870704E-1	5.063316E-1	5.067126E-1	5.061679E-1	5.156124E-1	5.117739E-1	5.090000E-1	4.887127E-1	5.239161E-1	5.300037E-1	4.606293E-1	5.450703E-1	5.126161E-1	4.963777E-1	5.396010E-1	5.062040E-1	5.270400E-1	5.179790E-1	5.204140E-1	5.371347E-1	5.302938E-1	5.125709E-1	4.910920E-1	5.291303E-1	4.871833E-1	5.292809E-1	5.045066E-1	4.902114E-1	5.177285E-1	5.173149E-1	5.158577E-1	4.797281E-1	4.975880E-1	5.247767E-1	5.352527E-1	5.498823E-1	4.986311E-1	5.200620E-1	5.192406E-1	5.214372E-1
5.372740E+2	4.507917E-1	4.941429E-1	4.713811E-1	4.272122E-1	5.010014E-1	4.782682E-1	4.858852E-1	4.838019E-1	4.981464E-1	4.532706E-1	4.666768E-1	4.447839E-1	4.964560E-1	4.576319E-1	4.709102E-1	4.785617E-1	5.034210E-1	4.816521E-1	4.689726E-1	4.511350E-1	4.889978E-1	5.054808E-1	4.515965E-1	4.742077E-1	4.866267E-1	4.761972E-1	4.988637E-1	4.705161E-1	4.812037E-1	4.848467E-1	4.626334E-1	4.900255E-1	4.930448E-1	4.664113E-1	4.687097E-1	4.713775E-1	4.783239E-1	4.589410E-1	4.749217E-1	4.672880E-1	4.829343E-1	4.640942E-1	4.597916E-1	4.618550E-1	4.807406E-1	4.880650E-1	4.622531E-1	4.835217E-1	4.945835E-1	4.858949E-1	4.887665E-1	4.635127E-1	4.883384E-1	5.042049E-1	4.789615E-1	4.977828E-1	5.131466E-1	4.978447E-1	4.743394E-1	4.988484E-1	4.865271E-1	4.673896E-1	4.893762E-1	4.816183E-1	4.999072E-1	4.934533E-1	4.577217E-1	4.927786E-1	5.078339E-1	4.986370E-1	4.467338E-1	4.740877E-1	4.971062E-1	4.557727E-1	4.781431E-1	4.797449E-1	5.068624E-1	4.670486E-1	4.612969E-1	4.561909E-1	4.615754E-1	5.046189E-1	4.652656E-1	5.064926E-1	4.685819E-1	4.800089E-1	4.782251E-1	4.590237E-1	4.798140E-1	4.888728E-1	4.619556E-1	4.874510E-1	4.917250E-1	4.402220E-1	4.937296E-1	4.573356E-1	4.782959E-1	4.758242E-1	4.445645E-1	4.673140E-1	4.807683E-1	4.794848E-1	4.857688E-1	4.948118E-1	4.722492E-1	4.746420E-1	4.665016E-1	4.543298E-1	4.800745E-1	4.773352E-1	4.707435E-1	4.976055E-1	4.744020E-1	5.198679E-1	4.665595E-1	4.658896E-1	5.000603E-1	4.911645E-1	4.892548E-1	4.807205E-1	5.166012E-1	4.696282E-1	4.533388E-1	5.042524E-1	4.914201E-1	4.873862E-1	4.554462E-1	4.851633E-1	4.780737E-1	4.675470E-1	4.914274E-1	4.826037E-1	4.717826E-1	4.722765E-1	4.839819E-1	4.675210E-1	4.693342E-1	4.464211E-1	4.648170E-1	5.119443E-1	4.633437E-1	4.858908E-1	4.784860E-1	4.944541E-1	5.002686E-1	5.037067E-1	4.953556E-1	4.731942E-1	4.757412E-1	4.663406E-1	4.766054E-1	4.587499E-1	4.811887E-1	4.967155E-1	5.082398E-1	4.802262E-1	4.806229E-1	4.799306E-1	4.420302E-1	4.653860E-1	4.797437E-1	4.827950E-1	4.764221E-1	4.793797E-1	4.885884E-1	4.736630E-1	4.900450E-1	4.694631E-1	4.935633E-1	5.047454E-1
5.375160E+2	5.105339E-1	5.302057E-1	4.813099E-1	3.747109E-1	5.150316E-1	4.806614E-1	4.885022E-1	4.987177E-1	4.898247E-1	4.621015E-1	5.036003E-1	4.823587E-1	5.003594E-1	5.007653E-1	4.862153E-1	4.839759E-1	4.895106E-1	4.904738E-1	4.517702E-1	4.756687E-1	5.009482E-1	5.152196E-1	4.898401E-1	4.592813E-1	5.347913E-1	4.604473E-1	4.889273E-1	5.050768E-1	5.029790E-1	4.959582E-1	4.935998E-1	4.819840E-1	4.913836E-1	4.580427E-1	4.828167E-1	5.034754E-1	4.876477E-1	5.054335E-1	5.275625E-1	4.667126E-1	5.072739E-1	4.894128E-1	4.706791E-1	4.612317E-1	4.892903E-1	5.001018E-1	4.982958E-1	4.688064E-1	5.106639E-1	4.557084E-1	4.662489E-1	4.921018E-1	5.027618E-1	4.650212E-1	4.940285E-1	4.760425E-1	5.269682E-1	5.130442E-1	4.723516E-1	5.202816E-1	4.869416E-1	4.740194E-1	4.897096E-1	4.873852E-1	5.190839E-1	4.719721E-1	4.906489E-1	4.634973E-1	4.941569E-1	4.863301E-1	4.865394E-1	4.500895E-1	4.936325E-1	5.224105E-1	5.036830E-1	5.089195E-1	5.366315E-1	5.154414E-1	4.743359E-1	4.684852E-1	4.889996E-1	4.746296E-1	5.072418E-1	5.066919E-1	4.844324E-1	4.782994E-1	5.242629E-1	4.875762E-1	5.127290E-1	5.052444E-1	5.285276E-1	5.077370E-1	5.007703E-1	4.720960E-1	4.948942E-1	4.511840E-1	4.886081E-1	5.358133E-1	4.876748E-1	4.515978E-1	5.206458E-1	4.734761E-1	4.969073E-1	4.821543E-1	4.920013E-1	4.849982E-1	5.054905E-1	4.737768E-1	4.967942E-1	4.748432E-1	5.061255E-1	4.760073E-1	4.894924E-1	4.532022E-1	4.629483E-1	5.205584E-1	4.963119E-1	4.916130E-1	5.009920E-1	5.012473E-1	5.031690E-1	4.843534E-1	4.903493E-1	4.967695E-1	5.079193E-1	4.844038E-1	5.051448E-1	4.998553E-1	4.609205E-1	4.977583E-1	5.093961E-1	4.638085E-1	4.854798E-1	4.939475E-1	5.304292E-1	5.152478E-1	5.008661E-1	4.927414E-1	4.595340E-1	4.797685E-1	5.045739E-1	5.018880E-1	4.787832E-1	4.805978E-1	4.926735E-1	5.215253E-1	5.043058E-1	4.907031E-1	4.937348E-1	4.811386E-1	4.697949E-1	4.934946E-1	5.326953E-1	5.005045E-1	4.728773E-1	5.116249E-1	5.028640E-1	5.007690E-1	4.480130E-1	5.046505E-1	4.845111E-1	5.288314E-1	4.753283E-1	4.578414E-1	4.902753E-1	4.985335E-1	4.946384E-1	4.875797E-1	5.840444E-1	5.153119E-1
5.377580E+2	5.377904E-1	5.885386E-1	5.363735E-1	3.852391E-1	5.605119E-1	5.600864E-1	5.584178E-1	5.570211E-1	5.799259E-1	5.678013E-1	5.503971E-1	5.654354E-1	5.708678E-1	5.608362E-1	5.390905E-1	5.672872E-1	5.450643E-1	5.529042E-1	5.338732E-1	5.111046E-1	5.368472E-1	5.766924E-1	5.682507E-1	5.659009E-1	5.915896E-1	5.741592E-1	5.588402E-1	5.661904E-1	5.782714E-1	5.606894E-1	5.423082E-1	5.498415E-1	5.495970E-1	5.914620E-1	5.434797E-1	5.574803E-1	5.849786E-1	5.615708E-1	5.575178E-1	5.716327E-1	5.560434E-1	5.658207E-1	5.713226E-1	5.511337E-1	6.026209E-1	5.907603E-1	5.700930E-1	5.321918E-1	5.725840E-1	5.871279E-1	5.488323E-1	5.830287E-1	5.945108E-1	5.572401E-1	5.670761E-1	5.714986E-1	6.191911E-1	5.422628E-1	5.986077E-1	5.851491E-1	5.763829E-1	5.473392E-1	5.639079E-1	5.325459E-1	5.575644E-1	5.497467E-1	5.507014E-1	5.160523E-1	5.928745E-1	5.911736E-1	5.458898E-1	5.568160E-1	5.740235E-1	5.682875E-1	5.880667E-1	5.608653E-1	5.753072E-1	5.427887E-1	5.584167E-1	5.729467E-1	5.697315E-1	5.762120E-1	5.559440E-1	5.771352E-1	6.207844E-1	5.555343E-1	5.674059E-1	5.635290E-1	5.335790E-1	5.481264E-1	5.582931E-1	5.654564E-1	5.726434E-1	5.661411E-1	5.578054E-1	5.695850E-1	5.300236E-1	5.706296E-1	5.507634E-1	5.834264E-1	5.705152E-1	5.481555E-1	5.642621E-1	5.609681E-1	5.902867E-1	5.667950E-1	5.702138E-1	5.429902E-1	5.611088E-1	5.671708E-1	5.716368E-1	5.558059E-1	5.774392E-1	5.392939E-1	5.468191E-1	5.504057E-1	5.744072E-1	5.757705E-1	5.507466E-1	5.742110E-1	5.828005E-1	5.704189E-1	5.831239E-1	5.930590E-1	5.319464E-1	5.627487E-1	5.658283E-1	5.564060E-1	5.790586E-1	5.130824E-1	6.088413E-1	5.742015E-1	5.717524E-1	5.796381E-1	5.417616E-1	5.450913E-1	5.955982E-1	5.554014E-1	5.933620E-1	5.702668E-1	5.940491E-1	5.527606E-1	5.541928E-1	5.613852E-1	5.966917E-1	6.064613E-1	5.412210E-1	5.779385E-1	5.709037E-1	5.412186E-1	5.915655E-1	5.670092E-1	5.782432E-1	5.267303E-1	5.631681E-1	5.433218E-1	5.535821E-1	5.599819E-1	5.801945E-1	5.688929E-1	5.867594E-1	5.922113E-1	5.721340E-1	5.676539E-1	6.046139E-1	5.390463E-1	5.849345E-1	5.954567E-1	5.189799E-1	5.444936E-1
5.380160E+2	7.042209E-1	7.067910E-1	6.746595E-1	4.183280E-1	6.692924E-1	6.569834E-1	6.532214E-1	6.693181E-1	6.510000E-1	6.854620E-1	6.109826E-1	6.667963E-1	6.894138E-1	6.538669E-1	6.744361E-1	6.514485E-1	7.098978E-1	6.890983E-1	6.337211E-1	6.874808E-1	6.714599E-1	6.689631E-1	6.835709E-1	6.830058E-1	7.016499E-1	6.801158E-1	6.800612E-1	6.676914E-1	6.864302E-1	6.734545E-1	6.683645E-1	6.815740E-1	7.047053E-1	6.547957E-1	6.753481E-1	6.620670E-1	6.892151E-1	6.481119E-1	6.921013E-1	6.446029E-1	6.945345E-1	6.677034E-1	6.896684E-1	6.428917E-1	6.603344E-1	6.686463E-1	6.719104E-1	6.451544E-1	6.920567E-1	6.875136E-1	6.697712E-1	7.002470E-1	6.724876E-1	6.742386E-1	6.659721E-1	6.816851E-1	7.192709E-1	6.770569E-1	6.273429E-1	6.528947E-1	6.649596E-1	6.616931E-1	6.398853E-1	6.622030E-1	6.813761E-1	6.899089E-1	6.512436E-1	6.258184E-1	6.575091E-1	6.711478E-1	6.544614E-1	6.513763E-1	7.100745E-1	6.864705E-1	6.848013E-1	7.027968E-1	6.844724E-1	6.837071E-1	6.545455E-1	6.858204E-1	6.767348E-1	7.023421E-1	6.416632E-1	6.311650E-1	6.689947E-1	6.822375E-1	6.682626E-1	6.739465E-1	6.980255E-1	6.689035E-1	7.095722E-1	7.042685E-1	6.681746E-1	6.527014E-1	6.697391E-1	6.595086E-1	6.732112E-1	6.615496E-1	6.433497E-1	6.845224E-1	7.046361E-1	6.563725E-1	6.972036E-1	6.816243E-1	7.077844E-1	6.964656E-1	6.432184E-1	6.864886E-1	6.411106E-1	6.559501E-1	6.993076E-1	6.871478E-1	7.103746E-1	6.704150E-1	6.578472E-1	6.609440E-1	7.075498E-1	6.725819E-1	6.674916E-1	6.759476E-1	6.582145E-1	6.878872E-1	6.634562E-1	6.606705E-1	6.738146E-1	6.547957E-1	6.605832E-1	6.465583E-1	6.802388E-1	6.855958E-1	6.733491E-1	6.480596E-1	7.011052E-1	6.724311E-1	6.690188E-1	6.375340E-1	6.942568E-1	6.664899E-1	6.676928E-1	6.516412E-1	6.808193E-1	6.843348E-1	6.637754E-1	6.858214E-1	6.679505E-1	6.948856E-1	6.537522E-1	7.078672E-1	6.937985E-1	6.536984E-1	6.915858E-1	7.270360E-1	7.124562E-1	6.761635E-1	6.830250E-1	6.869026E-1	6.678255E-1	6.770565E-1	6.385375E-1	6.701930E-1	7.262492E-1	6.617073E-1	6.680451E-1	6.721113E-1	6.862108E-1	6.995493E-1	6.767793E-1	6.936765E-1	7.055224E-1	6.965471E-1
5.382740E+2	7.978954E-1	8.686500E-1	8.264828E-1	8.931187E-1	8.675434E-1	8.686058E-1	8.197273E-1	8.215789E-1	8.096737E-1	8.568644E-1	8.361454E-1	8.344514E-1	8.489400E-1	8.201802E-1	8.395082E-1	8.081225E-1	7.869108E-1	8.495662E-1	8.589622E-1	8.188181E-1	8.648227E-1	8.272356E-1	8.312994E-1	8.552801E-1	8.790162E-1	8.318021E-1	8.641039E-1	8.710838E-1	8.509191E-1	8.365884E-1	8.118600E-1	8.539150E-1	8.994158E-1	8.276763E-1	8.481833E-1	8.506955E-1	8.379842E-1	8.591091E-1	8.672357E-1	8.244797E-1	8.780659E-1	8.426358E-1	8.673421E-1	8.476084E-1	8.456622E-1	8.273155E-1	7.905474E-1	7.963003E-1	8.324518E-1	8.506755E-1	8.552010E-1	8.412446E-1	8.720770E-1	8.581780E-1	7.990358E-1	8.396677E-1	8.390745E-1	7.914652E-1	8.123616E-1	8.433585E-1	8.600910E-1	8.418459E-1	8.647036E-1	8.554733E-1	8.583413E-1	8.691384E-1	8.199183E-1	8.279112E-1	8.606450E-1	8.040651E-1	7.998817E-1	8.658397E-1	8.476451E-1	8.572560E-1	8.233953E-1	8.569424E-1	8.483499E-1	8.406565E-1	8.490150E-1	8.474229E-1	8.449807E-1	8.627071E-1	8.557130E-1	8.057223E-1	8.455412E-1	8.299354E-1	8.686763E-1	8.210601E-1	8.386429E-1	8.595169E-1	8.644054E-1	8.228009E-1	8.316370E-1	8.395450E-1	8.356999E-1	8.449385E-1	8.443941E-1	8.557096E-1	8.480150E-1	8.301895E-1	8.540755E-1	8.729797E-1	8.298031E-1	8.650213E-1	8.632544E-1	8.589857E-1	8.152630E-1	8.179120E-1	7.977089E-1	8.253897E-1	8.325155E-1	8.911152E-1	8.615038E-1	8.500109E-1	8.448134E-1	8.269057E-1	8.208267E-1	8.258878E-1	8.260898E-1	8.677486E-1	8.054586E-1	8.458824E-1	8.579874E-1	8.313678E-1	8.279991E-1	8.385236E-1	8.189386E-1	8.442145E-1	8.632165E-1	8.019721E-1	8.039310E-1	8.064234E-1	8.557444E-1	8.080391E-1	8.838032E-1	8.347634E-1	8.559554E-1	8.355057E-1	8.962112E-1	8.371177E-1	8.647182E-1	8.568385E-1	8.610142E-1	8.450834E-1	8.925609E-1	8.504235E-1	8.344132E-1	8.602465E-1	8.587504E-1	8.234494E-1	7.932385E-1	8.249187E-1	8.556213E-1	8.325982E-1	8.755443E-1	8.413322E-1	8.396621E-1	8.025526E-1	8.065324E-1	8.240688E-1	8.812545E-1	8.231016E-1	8.393581E-1	8.555609E-1	8.809333E-1	8.148859E-1	8.490595E-1	8.346304E-1	8.971367E-1	8.237644E-1
5.385060E+2	1.000334E+0	1.062210E+0	1.018597E+0	1.331290E+0	1.002349E+0	9.961490E-1	1.023576E+0	1.044989E+0	1.009778E+0	1.026726E+0	1.032320E+0	1.013571E+0	1.031091E+0	1.052164E+0	9.905384E-1	1.036685E+0	9.888035E-1	1.017211E+0	1.011611E+0	9.786556E-1	9.928129E-1	1.030565E+0	1.001067E+0	1.022770E+0	1.039295E+0	1.061798E+0	1.096167E+0	1.003915E+0	1.033429E+0	1.024133E+0	1.005518E+0	1.022446E+0	1.028522E+0	1.036050E+0	1.045011E+0	1.002122E+0	1.000895E+0	1.034796E+0	1.024439E+0	9.770396E-1	1.043617E+0	1.050539E+0	1.033579E+0	1.006308E+0	1.020723E+0	1.012467E+0	1.038277E+0	1.032715E+0	9.901803E-1	1.045840E+0	1.009160E+0	1.080559E+0	1.008994E+0	1.020783E+0	1.025873E+0	1.051959E+0	1.028131E+0	1.033443E+0	9.989863E-1	1.070507E+0	1.060894E+0	1.028916E+0	9.725879E-1	9.488844E-1	1.029643E+0	1.040767E+0	1.001031E+0	1.061413E+0	1.030219E+0	1.061978E+0	1.008699E+0	1.060593E+0	1.032539E+0	1.085210E+0	9.933572E-1	1.032232E+0	1.048465E+0	1.020368E+0	1.026775E+0	9.964272E-1	1.072593E+0	1.064357E+0	1.000565E+0	1.041231E+0	1.008496E+0	1.041564E+0	1.039480E+0	1.049679E+0	1.054916E+0	1.070576E+0	1.015707E+0	9.897449E-1	1.002297E+0	1.042503E+0	9.917134E-1	1.011960E+0	1.001582E+0	1.052938E+0	1.002978E+0	1.049781E+0	1.058168E+0	1.037469E+0	1.063046E+0	9.932111E-1	1.086006E+0	1.064456E+0	9.813190E-1	1.007677E+0	1.003958E+0	1.031195E+0	9.863162E-1	1.065710E+0	1.045854E+0	1.017966E+0	1.069142E+0	1.025662E+0	1.058304E+0	1.058356E+0	1.036905E+0	1.015447E+0	1.036787E+0	1.051223E+0	1.042955E+0	1.012244E+0	1.020249E+0	1.020506E+0	1.013311E+0	1.020676E+0	1.027984E+0	1.104998E+0	1.036169E+0	9.730993E-1	1.019176E+0	1.033489E+0	1.051153E+0	1.012643E+0	1.059199E+0	1.008740E+0	1.078372E+0	1.014071E+0	1.064902E+0	9.990202E-1	9.979886E-1	1.034008E+0	1.049012E+0	1.058231E+0	1.025717E+0	1.042908E+0	1.002787E+0	1.017235E+0	1.035767E+0	9.976187E-1	9.869193E-1	9.707108E-1	1.052169E+0	1.037659E+0	1.054604E+0	1.011596E+0	1.017234E+0	1.012027E+0	1.092579E+0	1.006613E+0	9.432129E-1	1.004194E+0	1.045275E+0	9.890702E-1	1.009521E+0	1.052053E+0	1.023309E+0	1.051246E+0
5.387540E+2	1.259051E+0	1.343920E+0	1.289912E+0	1.689518E+0	1.246102E+0	1.304284E+0	1.276578E+0	1.274426E+0	1.315959E+0	1.326788E+0	1.326517E+0	1.287942E+0	1.302318E+0	1.308961E+0	1.265763E+0	1.277159E+0	1.204621E+0	1.269388E+0	1.283540E+0	1.271381E+0	1.266921E+0	1.281552E+0	1.255646E+0	1.294467E+0	1.289631E+0	1.361343E+0	1.299065E+0	1.297241E+0	1.291900E+0	1.254498E+0	1.299717E+0	1.263488E+0	1.255545E+0	1.279032E+0	1.261681E+0	1.253917E+0	1.265255E+0	1.319153E+0	1.293407E+0	1.305106E+0	1.225005E+0	1.282536E+0	1.264093E+0	1.265993E+0	1.258107E+0	1.275563E+0	1.280133E+0	1.230805E+0	1.291981E+0	1.297273E+0	1.239795E+0	1.289454E+0	1.248461E+0	1.300353E+0	1.276739E+0	1.315415E+0	1.320454E+0	1.253358E+0	1.295415E+0	1.316762E+0	1.303499E+0	1.279755E+0	1.221076E+0	1.266202E+0	1.282361E+0	1.300396E+0	1.262836E+0	1.267474E+0	1.285983E+0	1.287583E+0	1.241151E+0	1.198568E+0	1.276263E+0	1.273073E+0	1.282400E+0	1.268823E+0	1.301446E+0	1.247512E+0	1.278628E+0	1.255178E+0	1.374086E+0	1.263400E+0	1.240654E+0	1.233028E+0	1.237068E+0	1.313985E+0	1.299201E+0	1.276168E+0	1.252851E+0	1.312722E+0	1.310306E+0	1.261917E+0	1.274870E+0	1.282266E+0	1.274059E+0	1.264409E+0	1.251182E+0	1.210380E+0	1.243278E+0	1.237608E+0	1.308024E+0	1.299161E+0	1.246824E+0	1.263736E+0	1.275981E+0	1.295009E+0	1.242598E+0	1.266554E+0	1.291515E+0	1.288237E+0	1.315276E+0	1.287367E+0	1.270255E+0	1.238409E+0	1.291971E+0	1.247362E+0	1.300950E+0	1.234041E+0	1.267717E+0	1.241464E+0	1.288539E+0	1.276019E+0	1.211486E+0	1.226813E+0	1.240275E+0	1.259644E+0	1.278963E+0	1.263774E+0	1.258215E+0	1.296234E+0	1.350501E+0	1.237916E+0	1.256580E+0	1.312173E+0	1.318806E+0	1.234187E+0	1.300796E+0	1.250703E+0	1.297576E+0	1.252930E+0	1.337935E+0	1.259259E+0	1.239340E+0	1.236152E+0	1.333819E+0	1.225605E+0	1.231811E+0	1.252176E+0	1.308135E+0	1.294490E+0	1.284415E+0	1.273132E+0	1.276614E+0	1.279517E+0	1.281896E+0	1.239604E+0	1.268528E+0	1.257558E+0	1.244829E+0	1.302644E+0	1.305040E+0	1.238218E+0	1.272622E+0	1.247782E+0	1.302949E+0	1.288919E+0	1.259605E+0	1.217766E+0	1.312457E+0	1.241400E+0
5.390340E+2	1.473981E+0	1.560343E+0	1.533237E+0	2.067150E+0	1.518139E+0	1.518518E+0	1.532535E+0	1.529207E+0	1.467451E+0	1.518268E+0	1.503054E+0	1.520290E+0	1.487480E+0	1.488977E+0	1.511877E+0	1.517185E+0	1.508669E+0	1.470245E+0	1.456960E+0	1.435367E+0	1.500470E+0	1.549829E+0	1.547733E+0	1.533860E+0	1.506005E+0	1.482437E+0	1.504386E+0	1.467424E+0	1.550475E+0	1.518376E+0	1.478953E+0	1.529307E+0	1.463865E+0	1.499492E+0	1.408997E+0	1.482377E+0	1.506747E+0	1.507128E+0	1.530831E+0	1.524281E+0	1.495455E+0	1.518882E+0	1.439516E+0	1.535908E+0	1.540377E+0	1.466343E+0	1.469063E+0	1.444148E+0	1.496107E+0	1.438720E+0	1.450958E+0	1.580155E+0	1.511376E+0	1.463201E+0	1.490310E+0	1.540721E+0	1.534934E+0	1.498098E+0	1.443934E+0	1.562935E+0	1.464645E+0	1.465547E+0	1.500509E+0	1.461190E+0	1.491637E+0	1.509098E+0	1.504936E+0	1.444739E+0	1.457909E+0	1.490309E+0	1.510193E+0	1.473334E+0	1.489542E+0	1.531052E+0	1.438300E+0	1.540155E+0	1.477193E+0	1.488178E+0	1.443171E+0	1.507518E+0	1.520113E+0	1.492957E+0	1.483339E+0	1.456589E+0	1.464300E+0	1.502195E+0	1.497249E+0	1.528050E+0	1.485725E+0	1.539142E+0	1.500813E+0	1.471041E+0	1.492185E+0	1.471092E+0	1.481202E+0	1.457500E+0	1.506954E+0	1.434411E+0	1.472814E+0	1.447592E+0	1.585293E+0	1.496542E+0	1.497006E+0	1.471090E+0	1.490648E+0	1.510162E+0	1.491612E+0	1.505710E+0	1.482344E+0	1.505333E+0	1.447222E+0	1.446804E+0	1.487309E+0	1.507773E+0	1.455971E+0	1.543206E+0	1.535665E+0	1.513461E+0	1.471711E+0	1.451044E+0	1.543251E+0	1.566358E+0	1.533358E+0	1.468336E+0	1.457519E+0	1.494936E+0	1.495654E+0	1.483649E+0	1.524527E+0	1.422854E+0	1.483381E+0	1.464145E+0	1.510588E+0	1.494371E+0	1.529172E+0	1.499732E+0	1.519841E+0	1.497966E+0	1.454816E+0	1.510712E+0	1.536687E+0	1.520820E+0	1.444116E+0	1.490437E+0	1.525948E+0	1.515762E+0	1.530523E+0	1.495316E+0	1.493374E+0	1.529791E+0	1.465239E+0	1.475684E+0	1.489791E+0	1.501895E+0	1.538029E+0	1.435067E+0	1.452294E+0	1.478725E+0	1.453493E+0	1.480649E+0	1.604165E+0	1.480182E+0	1.500247E+0	1.389887E+0	1.577791E+0	1.493327E+0	1.444442E+0	1.477314E+0	1.551291E+0	1.509364E+0
5.392780E+2	1.718645E+0	1.656782E+0	1.680917E+0	2.185694E+0	1.631640E+0	1.782904E+0	1.714510E+0	1.678888E+0	1.663456E+0	1.676606E+0	1.639764E+0	1.648758E+0	1.722396E+0	1.660952E+0	1.639810E+0	1.635473E+0	1.680393E+0	1.689883E+0	1.696649E+0	1.654556E+0	1.643947E+0	1.699219E+0	1.630093E+0	1.678774E+0	1.658081E+0	1.612155E+0	1.687275E+0	1.664352E+0	1.643393E+0	1.675362E+0	1.672940E+0	1.662217E+0	1.684293E+0	1.650522E+0	1.621824E+0	1.634333E+0	1.639192E+0	1.699643E+0	1.637607E+0	1.691298E+0	1.675708E+0	1.716781E+0	1.695499E+0	1.674101E+0	1.588080E+0	1.648610E+0	1.629459E+0	1.644332E+0	1.586349E+0	1.690603E+0	1.629013E+0	1.693284E+0	1.656538E+0	1.653293E+0	1.688189E+0	1.685652E+0	1.626203E+0	1.678801E+0	1.629018E+0	1.652682E+0	1.635224E+0	1.621872E+0	1.637490E+0	1.616403E+0	1.686610E+0	1.645743E+0	1.662902E+0	1.630886E+0	1.616680E+0	1.670058E+0	1.645902E+0	1.670532E+0	1.648666E+0	1.706309E+0	1.633775E+0	1.624636E+0	1.613523E+0	1.673642E+0	1.673897E+0	1.647970E+0	1.662796E+0	1.679366E+0	1.625084E+0	1.644330E+0	1.580007E+0	1.656366E+0	1.601524E+0	1.667844E+0	1.606828E+0	1.704137E+0	1.670012E+0	1.691005E+0	1.704784E+0	1.616220E+0	1.658408E+0	1.619720E+0	1.693387E+0	1.687046E+0	1.685538E+0	1.590482E+0	1.605210E+0	1.665508E+0	1.658156E+0	1.633962E+0	1.628533E+0	1.686383E+0	1.633616E+0	1.554608E+0	1.628995E+0	1.718271E+0	1.663067E+0	1.643513E+0	1.589663E+0	1.585161E+0	1.607496E+0	1.643931E+0	1.623711E+0	1.657491E+0	1.654534E+0	1.630234E+0	1.649744E+0	1.644420E+0	1.579069E+0	1.632498E+0	1.663082E+0	1.643686E+0	1.671023E+0	1.601776E+0	1.604873E+0	1.568505E+0	1.663451E+0	1.598012E+0	1.707178E+0	1.635832E+0	1.687844E+0	1.687416E+0	1.656383E+0	1.581709E+0	1.577064E+0	1.637702E+0	1.596839E+0	1.623271E+0	1.605370E+0	1.622638E+0	1.619445E+0	1.684589E+0	1.652056E+0	1.629119E+0	1.625557E+0	1.587694E+0	1.597479E+0	1.684591E+0	1.694142E+0	1.540273E+0	1.688003E+0	1.554779E+0	1.639874E+0	1.561521E+0	1.589471E+0	1.618376E+0	1.722698E+0	1.640963E+0	1.555395E+0	1.661295E+0	1.686796E+0	1.644734E+0	1.607681E+0	1.617788E+0	1.570442E+0	1.624550E+0
5.395100E+2	1.999015E+0	2.033214E+0	1.933583E+0	2.846346E+0	2.015952E+0	2.032117E+0	1.984199E+0	2.052657E+0	1.937118E+0	1.911347E+0	1.990425E+0	1.903207E+0	1.980540E+0	1.995390E+0	1.955704E+0	1.923168E+0	2.007675E+0	2.001578E+0	1.999754E+0	2.016559E+0	1.922290E+0	1.978305E+0	1.975175E+0	1.954499E+0	1.983864E+0	2.008786E+0	2.057040E+0	1.918440E+0	1.920846E+0	1.978379E+0	1.975460E+0	1.946130E+0	1.956969E+0	1.947489E+0	1.938591E+0	1.964873E+0	1.937339E+0	1.879278E+0	1.968259E+0	1.921224E+0	1.947272E+0	2.027541E+0	1.994928E+0	1.985044E+0	1.953395E+0	1.953443E+0	1.935436E+0	1.907900E+0	1.923475E+0	1.985606E+0	1.939811E+0	2.000436E+0	1.947711E+0	1.959058E+0	2.000390E+0	1.987440E+0	1.999910E+0	1.911789E+0	1.948968E+0	1.949904E+0	1.906807E+0	1.969769E+0	1.899385E+0	1.871857E+0	1.993355E+0	1.895933E+0	1.964544E+0	1.835589E+0	1.882671E+0	1.919019E+0	1.910682E+0	1.923648E+0	1.940723E+0	1.939742E+0	1.942932E+0	1.983720E+0	1.906490E+0	1.841731E+0	1.909751E+0	1.922673E+0	1.939498E+0	1.943705E+0	1.943165E+0	1.890771E+0	1.904393E+0	1.960055E+0	1.935817E+0	1.958010E+0	1.949963E+0	1.922847E+0	1.946662E+0	1.939330E+0	1.952091E+0	1.936424E+0	1.925636E+0	1.841730E+0	1.912105E+0	1.947351E+0	1.876473E+0	1.903986E+0	1.931897E+0	1.945868E+0	1.961193E+0	1.944576E+0	1.945579E+0	1.913056E+0	1.869804E+0	1.901387E+0	1.911279E+0	1.970429E+0	1.909028E+0	1.907189E+0	1.923415E+0	1.891551E+0	1.891611E+0	1.960934E+0	1.873265E+0	1.929723E+0	1.926927E+0	1.889463E+0	1.864338E+0	2.041708E+0	1.917031E+0	2.033760E+0	1.978972E+0	1.912642E+0	1.907567E+0	1.876310E+0	1.878554E+0	1.907170E+0	1.949454E+0	1.874184E+0	1.895841E+0	1.881417E+0	1.893066E+0	1.951764E+0	2.011186E+0	1.879403E+0	1.947287E+0	1.906499E+0	1.923580E+0	1.869203E+0	1.827831E+0	1.872681E+0	1.979327E+0	1.978504E+0	2.000610E+0	1.834460E+0	1.955128E+0	1.962171E+0	1.903481E+0	1.864282E+0	1.897753E+0	1.982226E+0	1.840349E+0	1.890021E+0	1.942024E+0	1.942499E+0	1.908938E+0	1.805326E+0	1.991185E+0	1.847695E+0	1.812445E+0	1.866443E+0	1.919266E+0	1.900774E+0	1.892629E+0	1.955653E+0	1.835833E+0	1.839311E+0
5.397910E+2	2.145657E+0	2.210905E+0	2.107388E+0	2.981168E+0	2.140395E+0	2.152378E+0	2.109012E+0	2.185072E+0	2.155323E+0	2.138873E+0	2.071126E+0	2.171398E+0	2.193479E+0	2.162386E+0	2.142512E+0	2.071128E+0	2.113597E+0	2.152849E+0	2.124486E+0	2.168669E+0	2.116914E+0	2.136241E+0	2.128218E+0	2.093875E+0	2.110506E+0	2.185215E+0	2.101848E+0	2.145969E+0	2.049068E+0	2.082990E+0	2.127734E+0	2.153649E+0	2.146372E+0	2.114882E+0	2.116221E+0	2.143447E+0	2.060982E+0	2.136360E+0	2.169335E+0	2.125122E+0	2.122825E+0	2.124477E+0	2.150314E+0	2.173002E+0	2.093204E+0	2.125798E+0	2.075759E+0	2.056663E+0	2.150818E+0	2.160350E+0	2.168971E+0	2.146194E+0	2.114383E+0	2.095975E+0	2.076364E+0	2.132110E+0	2.139761E+0	2.157719E+0	2.045076E+0	2.094419E+0	2.130537E+0	2.106563E+0	2.072988E+0	2.036730E+0	2.147485E+0	2.021805E+0	2.149448E+0	2.176706E+0	2.059802E+0	2.065224E+0	2.077145E+0	2.115151E+0	2.089681E+0	2.133573E+0	2.094835E+0	2.133425E+0	2.094398E+0	2.081391E+0	2.095699E+0	2.084502E+0	2.087658E+0	2.081575E+0	2.075003E+0	2.016124E+0	2.028706E+0	2.073044E+0	2.160610E+0	2.076170E+0	2.088026E+0	2.050835E+0	2.144437E+0	2.074197E+0	2.213740E+0	2.063486E+0	2.036254E+0	2.097886E+0	2.058471E+0	2.091135E+0	2.049574E+0	2.079325E+0	2.127575E+0	2.096529E+0	2.014799E+0	2.094836E+0	2.062684E+0	2.014093E+0	2.071073E+0	2.111071E+0	2.042156E+0	2.073716E+0	2.059682E+0	2.082586E+0	2.056743E+0	2.019395E+0	2.073345E+0	2.035864E+0	2.077635E+0	2.044174E+0	2.056360E+0	2.110663E+0	2.040378E+0	2.138056E+0	2.040004E+0	2.093712E+0	2.060514E+0	2.012712E+0	2.058683E+0	2.007273E+0	1.997307E+0	2.018411E+0	2.136421E+0	1.991285E+0	2.003890E+0	2.100701E+0	2.112902E+0	2.026011E+0	2.111797E+0	1.999788E+0	2.147296E+0	2.039122E+0	2.103260E+0	2.039990E+0	2.025403E+0	2.048643E+0	2.081691E+0	2.122260E+0	2.057279E+0	2.043902E+0	1.953051E+0	2.001771E+0	2.060621E+0	2.024945E+0	2.053125E+0	2.019866E+0	2.118284E+0	2.024102E+0	2.001717E+0	2.051739E+0	1.990601E+0	2.052307E+0	2.107369E+0	2.032600E+0	1.980615E+0	1.965094E+0	2.011452E+0	2.112567E+0	2.015816E+0	2.056848E+0	1.995086E+0	2.107100E+0
5.400460E+2	2.116175E+0	2.160417E+0	2.107668E+0	2.936565E+0	2.144799E+0	2.111622E+0	2.162012E+0	2.119783E+0	2.039936E+0	2.169398E+0	2.111249E+0	2.089535E+0	2.249365E+0	2.142021E+0	2.114133E+0	2.113389E+0	2.075026E+0	2.165534E+0	2.090225E+0	2.096319E+0	2.131428E+0	2.116942E+0	2.142771E+0	2.105607E+0	2.139521E+0	2.119370E+0	2.128205E+0	2.085597E+0	2.144966E+0	2.153574E+0	2.124899E+0	2.074413E+0	2.123893E+0	2.098780E+0	1.978559E+0	2.100676E+0	2.004980E+0	2.135077E+0	2.116623E+0	2.140733E+0	2.092922E+0	2.097017E+0	2.135413E+0	2.104711E+0	2.088380E+0	2.076254E+0	2.115277E+0	2.047140E+0	2.122833E+0	2.105577E+0	2.130867E+0	2.093629E+0	2.098549E+0	2.160414E+0	2.088445E+0	2.206180E+0	2.118808E+0	2.128593E+0	2.067352E+0	2.083203E+0	2.066468E+0	2.107311E+0	2.051015E+0	2.068922E+0	2.082050E+0	2.012267E+0	2.136098E+0	2.031556E+0	2.075809E+0	2.101685E+0	2.161748E+0	2.042735E+0	2.078082E+0	2.083251E+0	2.098836E+0	2.123366E+0	2.076760E+0	2.028418E+0	2.065614E+0	2.078865E+0	2.122484E+0	2.104231E+0	2.079559E+0	2.040778E+0	2.073478E+0	2.095603E+0	2.095485E+0	2.136734E+0	2.069145E+0	2.140666E+0	2.096056E+0	2.064780E+0	2.127204E+0	2.081168E+0	2.032723E+0	2.009386E+0	2.082611E+0	2.102544E+0	2.078844E+0	2.032409E+0	2.110057E+0	2.108352E+0	2.090889E+0	2.080758E+0	2.052345E+0	2.090844E+0	2.021806E+0	2.059422E+0	2.049654E+0	2.007807E+0	2.103744E+0	2.022936E+0	2.040240E+0	1.997920E+0	2.004560E+0	2.123992E+0	2.129120E+0	2.127521E+0	2.091045E+0	2.023269E+0	2.068374E+0	2.175043E+0	2.028900E+0	2.089059E+0	2.020258E+0	2.048178E+0	2.055129E+0	2.027849E+0	2.080697E+0	2.044741E+0	2.102415E+0	2.044469E+0	2.039820E+0	2.120797E+0	2.076852E+0	2.021827E+0	2.080475E+0	2.074401E+0	2.108283E+0	2.029975E+0	2.091250E+0	2.127688E+0	2.031862E+0	1.978990E+0	2.094133E+0	2.052093E+0	2.133416E+0	2.071388E+0	2.002665E+0	2.012125E+0	2.045441E+0	1.988472E+0	2.043418E+0	2.029720E+0	2.092332E+0	2.031745E+0	2.116787E+0	2.068610E+0	2.044777E+0	2.030289E+0	2.121369E+0	2.056413E+0	2.100746E+0	2.000319E+0	2.023151E+0	2.075027E+0	1.955866E+0	1.908847E+0	1.946905E+0	2.040861E+0
5.402690E+2	2.126378E+0	2.112205E+0	2.080912E+0	2.918534E+0	2.088621E+0	2.077112E+0	2.052116E+0	2.037315E+0	2.146788E+0	2.076716E+0	2.086757E+0	2.186329E+0	2.168306E+0	2.133905E+0	2.044261E+0	1.991975E+0	2.026555E+0	2.131432E+0	2.068939E+0	2.060511E+0	2.064358E+0	2.077253E+0	2.076046E+0	2.097458E+0	2.078722E+0	2.070314E+0	2.077231E+0	2.033321E+0	2.013914E+0	2.086648E+0	2.085907E+0	2.047303E+0	2.007442E+0	2.087530E+0	2.064012E+0	2.088778E+0	2.019628E+0	2.074974E+0	2.025324E+0	2.074700E+0	2.090534E+0	2.155174E+0	2.064329E+0	2.077460E+0	2.049177E+0	2.078241E+0	2.030260E+0	2.008875E+0	2.070442E+0	2.124822E+0	2.064043E+0	2.111621E+0	2.063065E+0	2.001489E+0	2.043238E+0	2.083013E+0	2.041920E+0	2.065683E+0	2.019413E+0	2.094560E+0	2.069741E+0	2.053460E+0	2.041727E+0	1.984276E+0	2.049386E+0	2.035277E+0	2.068061E+0	2.072430E+0	2.040910E+0	2.011653E+0	2.107969E+0	2.083286E+0	2.061089E+0	2.061195E+0	2.007408E+0	2.046846E+0	1.993238E+0	2.002844E+0	2.059491E+0	2.108199E+0	1.981390E+0	2.047812E+0	2.000786E+0	2.009092E+0	2.004801E+0	2.063932E+0	1.974174E+0	2.027205E+0	2.024044E+0	2.050349E+0	2.033177E+0	2.046226E+0	1.978304E+0	2.094315E+0	2.017138E+0	2.044951E+0	1.987096E+0	2.117598E+0	2.009594E+0	1.973411E+0	1.999269E+0	2.072167E+0	2.030716E+0	2.090024E+0	1.975506E+0	2.064573E+0	1.989721E+0	2.011186E+0	2.061218E+0	2.028402E+0	2.062271E+0	1.986872E+0	1.964545E+0	2.000411E+0	1.995950E+0	2.118841E+0	2.049016E+0	2.034057E+0	1.993797E+0	2.030669E+0	1.994876E+0	2.087674E+0	1.998967E+0	2.062557E+0	1.979825E+0	2.012419E+0	1.987595E+0	2.020138E+0	1.988771E+0	1.946737E+0	2.029379E+0	1.904458E+0	1.993644E+0	2.007983E+0	2.003354E+0	1.996991E+0	2.031743E+0	1.977948E+0	2.016599E+0	2.000446E+0	2.060500E+0	2.016456E+0	1.898563E+0	1.999248E+0	2.043474E+0	2.080680E+0	2.017377E+0	1.937988E+0	1.929944E+0	2.055548E+0	1.965453E+0	1.982461E+0	1.966747E+0	1.992090E+0	2.033280E+0	1.954948E+0	2.019452E+0	2.000292E+0	1.925322E+0	1.973513E+0	2.091868E+0	1.996785E+0	1.974504E+0	1.910452E+0	2.014484E+0	1.965244E+0	1.940534E+0	1.983456E+0	1.981640E+0	1.895150E+0
5.405180E+2	1.995833E+0	2.046696E+0	1.997746E+0	2.863448E+0	2.026742E+0	2.067467E+0	2.078298E+0	1.995359E+0	1.926712E+0	2.028595E+0	1.969183E+0	1.988077E+0	2.032084E+0	1.993694E+0	2.019270E+0	1.992136E+0	2.034482E+0	2.022034E+0	2.027773E+0	1.975408E+0	1.950217E+0	2.008545E+0	2.026353E+0	2.025840E+0	2.009024E+0	2.020002E+0	2.040255E+0	1.944140E+0	1.973548E+0	1.953224E+0	2.021080E+0	1.977699E+0	1.988215E+0	2.074684E+0	1.925494E+0	2.023302E+0	1.988960E+0	1.999755E+0	1.989501E+0	1.918955E+0	1.923105E+0	2.006977E+0	1.973328E+0	2.036248E+0	2.005063E+0	1.987484E+0	1.987192E+0	1.984070E+0	2.020921E+0	2.011223E+0	1.999529E+0	1.986008E+0	1.973650E+0	1.968065E+0	2.009879E+0	2.062507E+0	2.023008E+0	1.998698E+0	2.030785E+0	1.962822E+0	1.923841E+0	1.990460E+0	1.981998E+0	1.949393E+0	2.001808E+0	1.966318E+0	1.980322E+0	1.975805E+0	2.025760E+0	1.996929E+0	2.054950E+0	2.048004E+0	2.000577E+0	1.983644E+0	1.964792E+0	2.012836E+0	1.949303E+0	1.957629E+0	1.920105E+0	1.937375E+0	1.987993E+0	2.001053E+0	1.951605E+0	1.931754E+0	1.890346E+0	2.020739E+0	2.015377E+0	1.911730E+0	1.964464E+0	2.050606E+0	1.924087E+0	1.943262E+0	1.993074E+0	1.985483E+0	1.920096E+0	1.926631E+0	1.974152E+0	2.069343E+0	1.943038E+0	1.911922E+0	1.988929E+0	1.933266E+0	1.994936E+0	1.973790E+0	1.925897E+0	1.901961E+0	1.862698E+0	1.949497E+0	1.940961E+0	1.979788E+0	1.971624E+0	1.965233E+0	1.986315E+0	1.915310E+0	1.939676E+0	2.010946E+0	1.981786E+0	1.984039E+0	1.889167E+0	1.990358E+0	1.904171E+0	2.000183E+0	1.960209E+0	1.975079E+0	1.964671E+0	1.974796E+0	1.916228E+0	1.931386E+0	1.958699E+0	1.905106E+0	2.041424E+0	1.892766E+0	1.886232E+0	1.919406E+0	1.994916E+0	1.911605E+0	2.009045E+0	1.954448E+0	1.972693E+0	1.995421E+0	1.993135E+0	1.936322E+0	1.965450E+0	1.934050E+0	1.973417E+0	2.008189E+0	1.956345E+0	1.890165E+0	1.897636E+0	1.955791E+0	1.899230E+0	1.947856E+0	1.974135E+0	1.934634E+0	1.965629E+0	1.926465E+0	1.949542E+0	1.924601E+0	1.876625E+0	1.958569E+0	2.008846E+0	1.900523E+0	1.842251E+0	1.974065E+0	1.951325E+0	1.902311E+0	1.926737E+0	1.924139E+0	1.953220E+0	1.920552E+0
5.407580E+2	1.909916E+0	1.881821E+0	1.935408E+0	2.655961E+0	1.891744E+0	1.884526E+0	1.972418E+0	1.891029E+0	1.850704E+0	1.842621E+0	1.824679E+0	1.895647E+0	1.941810E+0	1.897206E+0	1.878104E+0	1.839994E+0	1.849363E+0	1.910166E+0	1.910683E+0	1.856148E+0	1.856734E+0	1.830864E+0	1.886847E+0	1.881271E+0	1.848135E+0	1.828571E+0	1.913512E+0	1.874065E+0	1.901344E+0	1.920994E+0	1.865327E+0	1.869279E+0	1.874987E+0	1.850308E+0	1.745412E+0	1.849979E+0	1.825855E+0	1.867742E+0	1.822995E+0	1.849575E+0	1.886974E+0	1.850643E+0	1.822658E+0	1.865454E+0	1.880683E+0	1.831262E+0	1.896758E+0	1.866138E+0	1.783803E+0	1.829032E+0	1.921610E+0	1.804091E+0	1.911751E+0	1.906807E+0	1.860881E+0	1.909362E+0	1.914033E+0	1.870488E+0	1.821119E+0	1.849281E+0	1.889118E+0	1.811475E+0	1.825062E+0	1.832119E+0	1.834824E+0	1.855333E+0	1.858784E+0	1.877888E+0	1.845153E+0	1.883313E+0	1.870170E+0	1.877073E+0	1.878248E+0	1.884006E+0	1.860716E+0	1.899698E+0	1.876973E+0	1.834668E+0	1.790117E+0	1.881242E+0	1.795495E+0	1.875216E+0	1.761591E+0	1.828168E+0	1.822752E+0	1.807942E+0	1.849762E+0	1.816041E+0	1.851169E+0	1.853420E+0	1.821042E+0	1.868801E+0	1.844090E+0	1.806655E+0	1.800031E+0	1.843546E+0	1.807645E+0	1.895172E+0	1.842312E+0	1.822146E+0	1.869946E+0	1.864891E+0	1.874454E+0	1.845796E+0	1.819780E+0	1.884210E+0	1.834265E+0	1.827668E+0	1.867674E+0	1.830366E+0	1.820879E+0	1.824772E+0	1.872851E+0	1.820828E+0	1.798110E+0	1.789376E+0	1.869381E+0	1.876970E+0	1.849795E+0	1.864614E+0	1.914388E+0	1.887264E+0	1.763702E+0	1.819578E+0	1.845517E+0	1.809422E+0	1.842856E+0	1.865458E+0	1.852665E+0	1.838004E+0	1.859649E+0	1.861154E+0	1.780085E+0	1.917945E+0	1.884263E+0	1.818482E+0	1.815696E+0	1.827336E+0	1.939664E+0	1.882046E+0	1.858308E+0	1.849378E+0	1.828919E+0	1.836801E+0	1.838164E+0	1.877798E+0	1.745864E+0	1.840663E+0	1.766767E+0	1.864071E+0	1.817689E+0	1.720681E+0	1.883428E+0	1.863529E+0	1.851156E+0	1.801838E+0	1.836418E+0	1.831305E+0	1.828674E+0	1.776810E+0	1.837356E+0	1.834111E+0	1.857438E+0	1.820848E+0	1.848928E+0	1.844334E+0	1.834223E+0	1.750682E+0	1.824976E+0	1.841243E+0
5.410450E+2	1.744044E+0	1.770853E+0	1.791550E+0	2.703261E+0	1.763535E+0	1.720725E+0	1.791616E+0	1.738081E+0	1.770879E+0	1.791216E+0	1.739586E+0	1.780639E+0	1.748651E+0	1.787096E+0	1.743624E+0	1.764918E+0	1.733852E+0	1.723404E+0	1.796253E+0	1.741715E+0	1.765321E+0	1.719195E+0	1.751180E+0	1.792416E+0	1.767983E+0	1.723021E+0	1.758857E+0	1.746115E+0	1.788930E+0	1.763887E+0	1.798979E+0	1.753174E+0	1.783559E+0	1.688228E+0	1.743420E+0	1.818503E+0	1.719620E+0	1.706547E+0	1.778546E+0	1.744270E+0	1.755279E+0	1.719331E+0	1.713758E+0	1.762082E+0	1.753600E+0	1.729686E+0	1.730835E+0	1.718988E+0	1.774044E+0	1.728176E+0	1.749742E+0	1.750160E+0	1.783030E+0	1.666383E+0	1.783510E+0	1.760381E+0	1.782856E+0	1.736286E+0	1.763911E+0	1.786028E+0	1.777660E+0	1.736376E+0	1.795642E+0	1.708044E+0	1.751604E+0	1.691634E+0	1.674036E+0	1.724420E+0	1.754010E+0	1.767290E+0	1.755088E+0	1.757531E+0	1.765292E+0	1.706906E+0	1.794255E+0	1.852174E+0	1.726362E+0	1.707792E+0	1.728972E+0	1.774328E+0	1.751890E+0	1.758892E+0	1.707030E+0	1.655992E+0	1.727871E+0	1.725640E+0	1.749252E+0	1.722157E+0	1.743588E+0	1.850042E+0	1.739005E+0	1.732621E+0	1.819925E+0	1.748060E+0	1.729122E+0	1.737092E+0	1.746536E+0	1.748043E+0	1.723195E+0	1.712795E+0	1.801507E+0	1.727130E+0	1.750927E+0	1.690057E+0	1.724114E+0	1.756252E+0	1.755382E+0	1.696329E+0	1.710775E+0	1.716277E+0	1.758569E+0	1.713313E+0	1.686556E+0	1.738333E+0	1.717655E+0	1.768242E+0	1.700461E+0	1.784317E+0	1.741465E+0	1.727051E+0	1.731073E+0	1.742163E+0	1.754308E+0	1.773662E+0	1.726702E+0	1.739142E+0	1.707159E+0	1.671549E+0	1.717127E+0	1.724901E+0	1.798101E+0	1.743448E+0	1.722140E+0	1.761481E+0	1.793939E+0	1.690195E+0	1.701700E+0	1.679244E+0	1.815942E+0	1.700053E+0	1.737525E+0	1.792616E+0	1.636320E+0	1.724895E+0	1.802572E+0	1.764305E+0	1.725836E+0	1.773201E+0	1.681130E+0	1.733268E+0	1.761212E+0	1.679986E+0	1.707906E+0	1.741566E+0	1.752055E+0	1.705095E+0	1.720493E+0	1.736302E+0	1.683622E+0	1.740607E+0	1.784730E+0	1.702089E+0	1.697536E+0	1.690664E+0	1.669886E+0	1.769894E+0	1.689057E+0	1.763842E+0	1.708863E+0	1.716921E+0
5.412530E+2	1.798328E+0	1.802955E+0	1.788789E+0	2.505748E+0	1.762361E+0	1.797930E+0	1.784676E+0	1.818485E+0	1.761171E+0	1.781076E+0	1.746628E+0	1.764644E+0	1.823692E+0	1.712466E+0	1.744852E+0	1.736540E+0	1.854960E+0	1.717990E+0	1.746227E+0	1.805476E+0	1.745876E+0	1.730088E+0	1.819579E+0	1.785971E+0	1.770003E+0	1.739390E+0	1.751050E+0	1.752731E+0	1.755665E+0	1.756596E+0	1.784201E+0	1.737673E+0	1.744833E+0	1.743409E+0	1.649645E+0	1.714742E+0	1.672166E+0	1.726219E+0	1.750507E+0	1.758270E+0	1.714868E+0	1.752663E+0	1.763905E+0	1.743084E+0	1.770343E+0	1.745123E+0	1.736857E+0	1.723268E+0	1.767809E+0	1.685288E+0	1.756185E+0	1.740570E+0	1.807473E+0	1.729427E+0	1.769866E+0	1.721705E+0	1.789463E+0	1.764589E+0	1.689327E+0	1.752244E+0	1.750109E+0	1.730160E+0	1.777222E+0	1.702874E+0	1.762609E+0	1.783652E+0	1.796230E+0	1.779654E+0	1.742222E+0	1.778175E+0	1.787912E+0	1.794670E+0	1.793155E+0	1.770219E+0	1.741609E+0	1.762753E+0	1.773609E+0	1.740549E+0	1.718919E+0	1.693162E+0	1.728532E+0	1.712888E+0	1.755361E+0	1.688622E+0	1.719704E+0	1.687624E+0	1.777527E+0	1.715783E+0	1.769625E+0	1.788673E+0	1.772307E+0	1.715375E+0	1.752873E+0	1.745461E+0	1.699108E+0	1.725610E+0	1.659628E+0	1.793663E+0	1.710858E+0	1.734958E+0	1.794530E+0	1.709882E+0	1.778449E+0	1.712105E+0	1.787830E+0	1.783828E+0	1.745788E+0	1.708910E+0	1.679888E+0	1.779804E+0	1.770184E+0	1.739784E+0	1.749612E+0	1.737696E+0	1.753804E+0	1.786996E+0	1.724689E+0	1.752241E+0	1.721662E+0	1.768134E+0	1.748303E+0	1.734640E+0	1.733976E+0	1.766279E+0	1.754236E+0	1.715296E+0	1.713923E+0	1.718590E+0	1.679045E+0	1.686976E+0	1.808451E+0	1.731277E+0	1.733931E+0	1.770659E+0	1.768482E+0	1.659686E+0	1.717580E+0	1.764539E+0	1.776221E+0	1.739124E+0	1.732696E+0	1.760107E+0	1.710489E+0	1.739661E+0	1.737457E+0	1.786580E+0	1.795454E+0	1.725452E+0	1.665856E+0	1.700770E+0	1.721798E+0	1.689163E+0	1.686232E+0	1.773016E+0	1.776292E+0	1.741410E+0	1.731569E+0	1.710969E+0	1.706643E+0	1.744187E+0	1.808979E+0	1.681079E+0	1.647675E+0	1.760747E+0	1.693383E+0	1.759954E+0	1.690796E+0	1.640500E+0	1.618463E+0	1.800220E+0
5.415250E+2	1.678043E+0	1.642943E+0	1.646807E+0	2.238840E+0	1.673633E+0	1.584525E+0	1.693316E+0	1.667881E+0	1.644822E+0	1.607934E+0	1.601616E+0	1.661513E+0	1.677587E+0	1.633752E+0	1.615289E+0	1.586408E+0	1.658185E+0	1.620757E+0	1.625930E+0	1.647242E+0	1.606531E+0	1.639261E+0	1.602898E+0	1.614762E+0	1.590473E+0	1.572006E+0	1.626054E+0	1.614335E+0	1.659327E+0	1.648687E+0	1.646601E+0	1.625116E+0	1.567705E+0	1.575123E+0	1.591103E+0	1.631347E+0	1.597217E+0	1.595927E+0	1.668506E+0	1.566874E+0	1.624696E+0	1.655038E+0	1.673502E+0	1.648433E+0	1.648582E+0	1.617754E+0	1.615357E+0	1.597692E+0	1.603890E+0	1.648398E+0	1.596775E+0	1.617584E+0	1.615096E+0	1.583501E+0	1.645834E+0	1.616349E+0	1.627158E+0	1.572235E+0	1.604589E+0	1.627092E+0	1.636083E+0	1.577954E+0	1.615577E+0	1.633958E+0	1.652602E+0	1.575039E+0	1.657408E+0	1.622044E+0	1.600421E+0	1.614617E+0	1.591614E+0	1.638353E+0	1.627768E+0	1.646003E+0	1.639476E+0	1.622854E+0	1.637450E+0	1.602570E+0	1.576213E+0	1.630754E+0	1.600930E+0	1.659723E+0	1.548566E+0	1.568964E+0	1.612248E+0	1.561639E+0	1.655229E+0	1.596266E+0	1.660075E+0	1.544412E+0	1.637272E+0	1.645161E+0	1.665106E+0	1.573852E+0	1.570800E+0	1.583842E+0	1.631911E+0	1.589125E+0	1.610650E+0	1.588431E+0	1.557479E+0	1.590230E+0	1.657636E+0	1.605317E+0	1.614271E+0	1.604179E+0	1.577572E+0	1.523799E+0	1.614607E+0	1.625668E+0	1.599605E+0	1.572666E+0	1.561869E+0	1.587335E+0	1.588992E+0	1.595649E+0	1.634493E+0	1.603779E+0	1.632529E+0	1.604255E+0	1.604874E+0	1.631989E+0	1.577773E+0	1.667242E+0	1.630715E+0	1.595591E+0	1.572591E+0	1.617549E+0	1.573923E+0	1.628180E+0	1.707523E+0	1.549433E+0	1.641022E+0	1.605062E+0	1.636369E+0	1.610357E+0	1.546779E+0	1.561925E+0	1.635701E+0	1.653405E+0	1.587024E+0	1.636963E+0	1.585706E+0	1.615135E+0	1.643501E+0	1.583381E+0	1.597212E+0	1.601726E+0	1.562441E+0	1.556545E+0	1.640269E+0	1.596026E+0	1.628582E+0	1.719600E+0	1.658362E+0	1.602892E+0	1.594454E+0	1.660687E+0	1.586517E+0	1.575405E+0	1.643482E+0	1.597558E+0	1.612534E+0	1.552284E+0	1.541519E+0	1.605531E+0	1.660186E+0	1.545028E+0	1.590875E+0	1.638449E+0
5.417600E+2	1.496118E+0	1.492211E+0	1.460018E+0	2.032816E+0	1.514630E+0	1.494865E+0	1.495128E+0	1.504389E+0	1.493305E+0	1.526988E+0	1.482033E+0	1.510165E+0	1.501747E+0	1.463956E+0	1.472790E+0	1.482936E+0	1.462160E+0	1.430537E+0	1.459841E+0	1.472255E+0	1.449745E+0	1.491328E+0	1.503831E+0	1.448957E+0	1.443509E+0	1.523365E+0	1.476320E+0	1.518108E+0	1.494019E+0	1.493571E+0	1.489653E+0	1.423415E+0	1.445022E+0	1.544035E+0	1.467714E+0	1.484905E+0	1.466471E+0	1.435422E+0	1.492687E+0	1.480296E+0	1.463960E+0	1.461312E+0	1.505885E+0	1.479360E+0	1.477227E+0	1.445258E+0	1.492079E+0	1.447039E+0	1.479292E+0	1.427433E+0	1.455162E+0	1.491825E+0	1.472545E+0	1.435758E+0	1.471086E+0	1.499396E+0	1.517447E+0	1.504439E+0	1.469060E+0	1.510571E+0	1.442842E+0	1.445646E+0	1.471242E+0	1.465201E+0	1.510695E+0	1.504913E+0	1.445396E+0	1.471216E+0	1.505527E+0	1.446578E+0	1.490200E+0	1.515742E+0	1.450111E+0	1.451891E+0	1.492305E+0	1.465009E+0	1.488397E+0	1.405211E+0	1.462758E+0	1.408848E+0	1.466524E+0	1.484627E+0	1.461384E+0	1.432708E+0	1.479503E+0	1.497070E+0	1.493514E+0	1.474192E+0	1.456231E+0	1.466802E+0	1.441554E+0	1.461754E+0	1.523012E+0	1.441184E+0	1.451509E+0	1.466356E+0	1.460137E+0	1.460490E+0	1.468594E+0	1.441833E+0	1.474646E+0	1.490925E+0	1.515094E+0	1.475387E+0	1.455913E+0	1.512279E+0	1.450151E+0	1.477871E+0	1.468382E+0	1.436965E+0	1.477960E+0	1.419623E+0	1.465908E+0	1.523704E+0	1.409576E+0	1.406427E+0	1.476259E+0	1.486027E+0	1.444844E+0	1.533397E+0	1.431291E+0	1.492170E+0	1.431322E+0	1.500725E+0	1.455776E+0	1.475078E+0	1.449113E+0	1.449629E+0	1.439170E+0	1.490333E+0	1.491889E+0	1.393688E+0	1.474650E+0	1.444683E+0	1.501576E+0	1.493081E+0	1.455839E+0	1.454294E+0	1.462472E+0	1.422337E+0	1.502477E+0	1.437147E+0	1.487639E+0	1.418734E+0	1.459470E+0	1.427343E+0	1.459940E+0	1.439665E+0	1.352931E+0	1.385667E+0	1.503459E+0	1.422880E+0	1.491956E+0	1.447167E+0	1.487664E+0	1.448826E+0	1.483987E+0	1.449583E+0	1.467714E+0	1.469315E+0	1.549679E+0	1.451842E+0	1.475165E+0	1.392532E+0	1.506938E+0	1.428151E+0	1.452618E+0	1.438998E+0	1.457417E+0	1.378338E+0
5.420210E+2	1.363203E+0	1.332926E+0	1.355302E+0	1.939922E+0	1.350051E+0	1.326840E+0	1.404115E+0	1.308474E+0	1.308429E+0	1.358422E+0	1.296661E+0	1.329832E+0	1.324720E+0	1.334090E+0	1.268000E+0	1.293006E+0	1.318177E+0	1.332836E+0	1.387567E+0	1.324954E+0	1.359342E+0	1.310519E+0	1.342054E+0	1.343414E+0	1.355901E+0	1.290026E+0	1.316047E+0	1.291115E+0	1.338274E+0	1.330373E+0	1.347277E+0	1.351911E+0	1.322820E+0	1.289369E+0	1.283545E+0	1.303539E+0	1.297220E+0	1.302166E+0	1.282729E+0	1.286350E+0	1.315235E+0	1.375040E+0	1.353228E+0	1.359124E+0	1.277318E+0	1.315481E+0	1.339139E+0	1.297261E+0	1.305646E+0	1.327250E+0	1.372308E+0	1.282497E+0	1.312013E+0	1.254160E+0	1.384832E+0	1.322205E+0	1.350771E+0	1.311764E+0	1.306826E+0	1.333654E+0	1.291045E+0	1.304042E+0	1.295610E+0	1.317818E+0	1.329475E+0	1.268904E+0	1.368834E+0	1.307208E+0	1.320720E+0	1.315197E+0	1.319720E+0	1.353880E+0	1.326474E+0	1.364129E+0	1.382644E+0	1.300452E+0	1.317097E+0	1.321708E+0	1.335826E+0	1.300019E+0	1.267188E+0	1.341919E+0	1.326025E+0	1.277314E+0	1.309238E+0	1.357028E+0	1.310538E+0	1.353625E+0	1.318316E+0	1.321706E+0	1.262593E+0	1.397593E+0	1.316142E+0	1.299095E+0	1.327843E+0	1.304195E+0	1.355126E+0	1.328298E+0	1.344943E+0	1.333650E+0	1.340054E+0	1.290434E+0	1.359855E+0	1.343584E+0	1.266834E+0	1.330923E+0	1.251306E+0	1.264899E+0	1.329665E+0	1.316785E+0	1.274447E+0	1.329057E+0	1.320787E+0	1.322856E+0	1.269008E+0	1.368091E+0	1.258642E+0	1.316206E+0	1.338536E+0	1.326199E+0	1.280467E+0	1.362353E+0	1.362386E+0	1.326912E+0	1.343984E+0	1.352541E+0	1.333983E+0	1.299851E+0	1.249037E+0	1.234056E+0	1.381986E+0	1.257792E+0	1.321944E+0	1.303324E+0	1.357406E+0	1.319962E+0	1.335131E+0	1.264786E+0	1.337461E+0	1.411054E+0	1.334151E+0	1.306803E+0	1.293548E+0	1.298904E+0	1.353608E+0	1.280347E+0	1.406739E+0	1.317405E+0	1.279447E+0	1.305918E+0	1.314936E+0	1.261625E+0	1.287978E+0	1.311056E+0	1.322994E+0	1.345040E+0	1.285143E+0	1.309191E+0	1.318860E+0	1.310486E+0	1.323785E+0	1.235644E+0	1.311390E+0	1.237974E+0	1.324646E+0	1.294630E+0	1.315174E+0	1.302563E+0	1.316445E+0	1.306335E+0
5.422620E+2	1.084924E+0	1.120781E+0	1.144234E+0	1.589650E+0	1.104736E+0	1.144186E+0	1.143932E+0	1.127328E+0	1.087164E+0	1.128207E+0	1.141090E+0	1.156948E+0	1.153533E+0	1.161411E+0	1.113497E+0	1.141624E+0	1.144009E+0	1.131144E+0	1.102297E+0	1.093649E+0	1.131694E+0	1.134087E+0	1.178864E+0	1.125416E+0	1.127311E+0	1.127312E+0	1.134610E+0	1.128844E+0	1.127608E+0	1.122605E+0	1.156531E+0	1.111423E+0	1.109968E+0	1.136248E+0	1.102565E+0	1.124402E+0	1.146179E+0	1.120309E+0	1.115058E+0	1.126984E+0	1.122855E+0	1.158805E+0	1.160196E+0	1.125582E+0	1.158793E+0	1.121747E+0	1.099372E+0	1.093636E+0	1.084371E+0	1.144534E+0	1.136593E+0	1.108205E+0	1.142707E+0	1.117535E+0	1.124289E+0	1.141606E+0	1.131525E+0	1.116092E+0	1.109646E+0	1.123984E+0	1.136820E+0	1.088489E+0	1.121119E+0	1.109884E+0	1.132843E+0	1.144114E+0	1.178419E+0	1.167101E+0	1.125783E+0	1.123294E+0	1.127084E+0	1.103556E+0	1.136073E+0	1.137742E+0	1.222190E+0	1.151643E+0	1.167432E+0	1.077820E+0	1.141458E+0	1.129350E+0	1.108514E+0	1.121472E+0	1.182627E+0	1.160415E+0	1.088817E+0	1.142717E+0	1.132894E+0	1.141004E+0	1.114972E+0	1.158614E+0	1.147059E+0	1.185846E+0	1.107366E+0	1.145040E+0	1.115692E+0	1.116764E+0	1.145288E+0	1.097034E+0	1.124469E+0	1.119573E+0	1.137190E+0	1.105048E+0	1.193629E+0	1.134258E+0	1.082281E+0	1.134371E+0	1.115790E+0	1.132071E+0	1.125682E+0	1.163307E+0	1.111949E+0	1.083347E+0	1.095221E+0	1.131491E+0	1.097927E+0	1.112940E+0	1.105067E+0	1.122732E+0	1.136967E+0	1.111803E+0	1.107682E+0	1.187533E+0	1.114440E+0	1.168149E+0	1.161165E+0	1.090007E+0	1.140507E+0	1.106507E+0	1.087760E+0	1.122559E+0	1.151052E+0	1.094989E+0	1.160559E+0	1.123343E+0	1.170451E+0	1.091977E+0	1.132970E+0	1.110330E+0	1.174098E+0	1.128916E+0	1.164780E+0	1.085074E+0	1.135440E+0	1.120879E+0	1.136548E+0	1.140094E+0	1.134633E+0	1.118378E+0	1.104184E+0	1.108439E+0	1.150891E+0	1.123027E+0	1.177309E+0	1.145663E+0	1.153181E+0	1.112253E+0	1.045251E+0	1.143335E+0	1.091653E+0	1.099477E+0	1.183561E+0	1.137478E+0	1.130086E+0	1.094943E+0	1.122823E+0	1.089036E+0	1.118813E+0	1.100999E+0	1.159480E+0	1.093719E+0
5.425190E+2	9.846376E-1	1.001382E+0	1.047317E+0	1.612950E+0	9.876793E-1	9.464486E-1	1.028088E+0	9.781127E-1	9.847590E-1	9.851541E-1	1.012243E+0	1.017585E+0	9.976718E-1	1.014785E+0	1.005584E+0	9.685486E-1	1.021205E+0	1.003256E+0	9.531327E-1	1.025443E+0	1.005043E+0	1.001579E+0	9.995222E-1	9.828286E-1	1.045794E+0	1.008618E+0	1.030974E+0	1.007695E+0	1.024638E+0	9.803756E-1	1.008412E+0	1.037233E+0	1.010632E+0	9.637761E-1	9.576463E-1	1.042131E+0	9.574056E-1	9.673618E-1	9.883994E-1	9.457558E-1	9.907008E-1	1.025059E+0	9.795233E-1	1.015757E+0	1.022779E+0	1.004739E+0	1.015010E+0	9.348134E-1	1.044942E+0	9.772067E-1	1.004586E+0	1.019276E+0	1.037032E+0	9.828739E-1	1.005729E+0	9.904259E-1	9.999274E-1	9.974131E-1	1.028249E+0	1.025121E+0	9.950836E-1	9.884636E-1	9.814174E-1	9.840650E-1	9.878765E-1	9.901831E-1	1.008527E+0	9.935477E-1	1.041627E+0	1.045195E+0	1.020878E+0	1.034867E+0	1.004261E+0	1.019503E+0	9.662337E-1	9.855839E-1	1.011992E+0	9.688169E-1	9.732659E-1	9.828167E-1	1.020629E+0	1.016169E+0	9.618421E-1	9.755746E-1	1.016648E+0	1.001993E+0	9.844073E-1	1.035496E+0	9.931149E-1	9.904141E-1	9.725750E-1	1.006607E+0	9.862208E-1	9.715670E-1	1.005081E+0	9.833818E-1	1.009099E+0	1.018706E+0	9.504834E-1	1.018290E+0	1.039464E+0	9.906213E-1	9.753414E-1	9.685915E-1	1.030207E+0	9.851967E-1	9.581591E-1	1.020899E+0	9.268747E-1	1.053765E+0	1.017562E+0	9.773151E-1	9.965276E-1	9.935986E-1	1.006823E+0	1.039905E+0	9.667384E-1	9.979738E-1	1.036561E+0	9.712279E-1	1.033273E+0	1.054584E+0	9.849819E-1	1.030403E+0	1.004497E+0	9.530754E-1	9.809829E-1	9.741665E-1	9.724235E-1	9.948085E-1	1.009821E+0	1.031794E+0	1.004405E+0	1.005686E+0	1.027106E+0	1.010633E+0	9.803882E-1	1.004160E+0	1.010380E+0	9.884558E-1	1.027854E+0	9.790480E-1	9.873170E-1	1.015136E+0	9.963422E-1	9.710513E-1	1.012531E+0	1.030617E+0	9.987982E-1	9.629631E-1	1.017975E+0	1.035005E+0	1.019600E+0	9.931682E-1	9.884790E-1	1.021997E+0	1.003488E+0	1.042514E+0	9.562228E-1	9.879888E-1	1.068171E+0	1.000431E+0	1.007095E+0	9.599540E-1	9.724541E-1	9.856277E-1	1.006971E+0	1.006577E+0	9.280595E-1	1.006405E+0
5.427760E+2	1.006565E+0	1.001125E+0	9.843925E-1	2.125525E+0	1.019388E+0	9.879702E-1	1.020360E+0	1.047401E+0	1.008429E+0	1.022451E+0	9.799942E-1	1.008763E+0	1.049161E+0	1.004292E+0	9.695726E-1	1.009918E+0	9.974386E-1	1.005610E+0	1.007543E+0	1.020572E+0	9.941240E-1	1.002927E+0	1.001799E+0	1.014293E+0	9.933824E-1	9.425243E-1	1.033788E+0	9.633049E-1	1.010806E+0	1.025800E+0	9.663485E-1	9.982385E-1	9.882954E-1	9.944239E-1	1.006621E+0	1.021460E+0	9.837150E-1	9.679178E-1	9.859484E-1	9.993067E-1	1.020046E+0	1.053234E+0	1.004800E+0	9.860024E-1	9.787741E-1	9.584433E-1	9.881630E-1	1.001412E+0	1.015604E+0	1.001926E+0	9.633413E-1	1.022896E+0	1.033386E+0	1.007769E+0	9.892986E-1	1.018655E+0	9.871742E-1	9.981140E-1	9.979483E-1	1.043375E+0	1.015979E+0	9.829324E-1	1.011979E+0	1.008888E+0	9.945691E-1	9.784460E-1	1.019793E+0	9.946496E-1	1.021301E+0	1.000588E+0	1.033776E+0	1.074436E+0	9.970982E-1	1.036579E+0	1.019749E+0	9.744156E-1	9.942804E-1	9.782675E-1	9.943020E-1	1.014832E+0	1.018776E+0	1.001117E+0	1.013997E+0	9.561504E-1	9.484731E-1	1.004722E+0	1.018593E+0	9.664155E-1	9.952553E-1	1.011601E+0	1.018604E+0	1.000231E+0	1.018734E+0	1.016593E+0	1.017579E+0	1.003110E+0	1.054890E+0	1.004428E+0	9.812220E-1	9.813760E-1	1.002614E+0	9.414815E-1	1.032562E+0	1.020387E+0	1.023023E+0	1.007653E+0	1.005583E+0	1.002631E+0	9.931112E-1	1.020507E+0	1.010589E+0	1.020010E+0	1.029032E+0	9.850551E-1	9.611912E-1	9.853441E-1	9.955628E-1	1.029486E+0	1.003809E+0	9.998612E-1	1.016490E+0	1.039437E+0	1.005954E+0	1.018204E+0	9.585817E-1	1.004948E+0	9.928240E-1	9.456097E-1	9.599061E-1	9.860754E-1	1.056414E+0	9.742676E-1	9.902837E-1	9.946949E-1	1.046461E+0	1.025988E+0	1.040381E+0	9.561194E-1	9.790392E-1	9.925209E-1	1.061570E+0	9.789851E-1	9.822095E-1	1.041603E+0	1.064055E+0	1.016292E+0	9.894138E-1	9.742713E-1	9.869796E-1	9.712135E-1	1.045194E+0	1.012430E+0	9.507392E-1	9.400660E-1	9.739714E-1	9.830668E-1	1.004164E+0	1.003745E+0	9.887480E-1	1.043358E+0	1.028156E+0	9.971324E-1	9.638034E-1	9.934431E-1	9.711838E-1	1.001775E+0	9.653948E-1	9.953651E-1	9.913886E-1	9.956512E-1
5.430070E+2	1.046770E+0	1.075810E+0	1.037229E+0	2.630345E+0	1.042142E+0	1.037692E+0	1.060660E+0	1.031590E+0	1.005454E+0	1.037441E+0	9.997755E-1	1.046382E+0	1.056899E+0	1.023601E+0	1.033062E+0	1.029672E+0	1.016584E+0	9.877786E-1	1.042370E+0	9.967215E-1	1.032344E+0	1.013752E+0	1.028999E+0	1.026735E+0	1.096838E+0	1.029946E+0	1.037085E+0	9.997311E-1	1.036240E+0	1.072592E+0	1.019804E+0	1.005244E+0	1.049425E+0	1.029628E+0	9.929760E-1	1.015723E+0	1.021166E+0	9.835399E-1	1.010666E+0	1.058559E+0	1.022141E+0	1.043472E+0	1.050044E+0	1.060466E+0	1.014430E+0	1.045893E+0	1.047995E+0	1.018024E+0	1.043535E+0	9.986382E-1	1.040809E+0	1.041584E+0	1.058663E+0	9.808252E-1	1.011378E+0	1.082215E+0	1.039388E+0	9.717012E-1	1.029120E+0	1.080898E+0	1.021428E+0	1.025578E+0	1.029588E+0	1.039069E+0	9.914266E-1	1.030557E+0	1.035329E+0	1.007622E+0	1.003001E+0	1.062217E+0	1.037663E+0	1.043033E+0	1.028457E+0	1.004086E+0	1.009525E+0	9.953924E-1	1.030823E+0	9.718283E-1	1.013870E+0	9.898963E-1	1.028245E+0	1.032400E+0	1.040422E+0	9.930659E-1	1.002297E+0	1.022743E+0	1.084867E+0	1.029299E+0	1.009404E+0	1.009494E+0	1.047281E+0	9.806810E-1	1.057540E+0	1.071496E+0	1.000646E+0	1.035971E+0	1.035002E+0	1.037253E+0	1.071615E+0	9.903116E-1	1.031760E+0	9.910833E-1	1.053124E+0	1.082048E+0	1.036059E+0	1.010179E+0	1.054534E+0	9.971779E-1	1.008408E+0	1.006824E+0	1.017461E+0	1.029035E+0	1.076204E+0	1.000071E+0	1.019291E+0	1.007541E+0	1.037594E+0	1.002722E+0	1.052930E+0	1.074615E+0	1.046562E+0	1.067502E+0	1.001671E+0	1.033728E+0	1.041019E+0	1.025300E+0	1.057307E+0	1.031913E+0	1.047416E+0	9.989232E-1	1.047811E+0	1.000070E+0	1.013945E+0	1.063899E+0	1.022972E+0	1.046042E+0	1.050677E+0	1.023589E+0	1.051811E+0	1.034087E+0	1.063232E+0	1.035215E+0	9.963739E-1	1.061075E+0	1.024289E+0	1.005336E+0	1.066827E+0	1.006341E+0	9.735965E-1	9.887135E-1	1.037786E+0	9.932231E-1	1.008336E+0	9.988107E-1	1.056422E+0	9.984413E-1	1.024147E+0	1.036511E+0	1.001453E+0	1.006265E+0	1.040826E+0	1.044511E+0	9.655324E-1	9.810345E-1	9.634633E-1	1.028308E+0	1.037332E+0	1.062958E+0	1.007941E+0	1.028120E+0
5.432640E+2	1.141795E+0	1.155153E+0	1.160026E+0	2.654492E+0	1.172615E+0	1.182378E+0	1.198298E+0	1.153156E+0	1.181431E+0	1.183352E+0	1.176212E+0	1.188000E+0	1.142797E+0	1.199230E+0	1.165459E+0	1.154377E+0	1.143343E+0	1.207996E+0	1.137539E+0	1.147069E+0	1.185899E+0	1.162752E+0	1.144492E+0	1.176476E+0	1.223955E+0	1.191510E+0	1.170831E+0	1.176578E+0	1.219733E+0	1.178383E+0	1.164969E+0	1.164040E+0	1.157980E+0	1.154515E+0	1.093559E+0	1.174613E+0	1.135767E+0	1.159213E+0	1.145495E+0	1.117098E+0	1.209274E+0	1.215386E+0	1.163695E+0	1.167014E+0	1.179503E+0	1.174066E+0	1.157691E+0	1.124007E+0	1.177738E+0	1.143788E+0	1.147646E+0	1.124511E+0	1.144647E+0	1.124203E+0	1.109397E+0	1.153653E+0	1.123235E+0	1.141536E+0	1.151219E+0	1.237213E+0	1.141389E+0	1.146717E+0	1.144554E+0	1.123023E+0	1.173856E+0	1.136207E+0	1.144123E+0	1.191527E+0	1.176128E+0	1.144647E+0	1.155368E+0	1.167079E+0	1.160430E+0	1.167177E+0	1.183425E+0	1.142848E+0	1.164698E+0	1.132832E+0	1.153070E+0	1.132171E+0	1.144975E+0	1.124387E+0	1.126104E+0	1.130040E+0	1.141990E+0	1.174022E+0	1.155333E+0	1.154706E+0	1.144473E+0	1.160325E+0	1.171359E+0	1.167618E+0	1.193560E+0	1.196750E+0	1.144728E+0	1.164272E+0	1.147973E+0	1.162719E+0	1.179830E+0	1.175078E+0	1.160126E+0	1.190971E+0	1.158928E+0	1.175991E+0	1.140098E+0	1.124057E+0	1.102536E+0	1.165822E+0	1.149059E+0	1.164289E+0	1.154659E+0	1.199325E+0	1.156603E+0	1.104058E+0	1.142839E+0	1.178860E+0	1.147031E+0	1.197487E+0	1.148771E+0	1.189827E+0	1.158996E+0	1.226320E+0	1.164732E+0	1.213980E+0	1.171439E+0	1.150927E+0	1.154833E+0	1.158141E+0	1.118997E+0	1.159889E+0	1.125212E+0	1.117420E+0	1.141494E+0	1.169034E+0	1.196377E+0	1.175268E+0	1.131304E+0	1.105195E+0	1.163253E+0	1.115189E+0	1.182641E+0	1.130262E+0	1.141789E+0	1.175743E+0	1.155884E+0	1.215793E+0	1.172281E+0	1.176254E+0	1.104225E+0	1.133169E+0	1.189302E+0	1.175478E+0	1.157864E+0	1.132796E+0	1.205193E+0	1.137526E+0	1.121263E+0	1.184749E+0	1.198080E+0	1.196995E+0	1.136164E+0	1.168165E+0	1.141274E+0	1.180375E+0	1.124229E+0	1.176184E+0	1.169022E+0	1.158366E+0	1.095613E+0	1.185253E+0
5.435220E+2	1.344368E+0	1.326482E+0	1.342766E+0	2.746081E+0	1.323700E+0	1.314834E+0	1.352569E+0	1.351592E+0	1.334461E+0	1.354247E+0	1.306540E+0	1.311631E+0	1.318812E+0	1.344804E+0	1.291449E+0	1.297238E+0	1.339361E+0	1.301124E+0	1.308705E+0	1.324878E+0	1.330187E+0	1.320687E+0	1.294602E+0	1.308009E+0	1.391786E+0	1.354322E+0	1.329594E+0	1.380245E+0	1.292347E+0	1.302044E+0	1.318329E+0	1.287109E+0	1.325803E+0	1.278933E+0	1.246231E+0	1.319845E+0	1.307094E+0	1.274625E+0	1.339408E+0	1.286189E+0	1.318146E+0	1.374890E+0	1.319147E+0	1.365955E+0	1.332110E+0	1.311103E+0	1.328070E+0	1.221545E+0	1.339064E+0	1.316613E+0	1.364155E+0	1.281898E+0	1.334427E+0	1.336247E+0	1.362696E+0	1.405407E+0	1.293398E+0	1.270246E+0	1.304965E+0	1.285171E+0	1.247877E+0	1.324936E+0	1.297098E+0	1.316485E+0	1.368598E+0	1.280234E+0	1.293881E+0	1.273798E+0	1.340417E+0	1.287286E+0	1.342630E+0	1.346797E+0	1.258619E+0	1.317345E+0	1.314900E+0	1.286477E+0	1.335423E+0	1.366480E+0	1.273788E+0	1.250595E+0	1.318135E+0	1.282237E+0	1.257284E+0	1.309919E+0	1.274103E+0	1.309366E+0	1.296138E+0	1.309743E+0	1.296270E+0	1.381987E+0	1.339756E+0	1.262202E+0	1.307361E+0	1.277469E+0	1.295851E+0	1.320160E+0	1.297598E+0	1.286569E+0	1.258573E+0	1.369085E+0	1.320455E+0	1.269383E+0	1.316974E+0	1.339623E+0	1.309496E+0	1.308919E+0	1.288565E+0	1.321298E+0	1.257925E+0	1.293630E+0	1.293366E+0	1.293863E+0	1.281992E+0	1.273864E+0	1.304021E+0	1.274514E+0	1.333937E+0	1.343770E+0	1.278215E+0	1.322238E+0	1.262208E+0	1.344581E+0	1.334826E+0	1.352196E+0	1.289221E+0	1.310422E+0	1.310352E+0	1.324392E+0	1.351245E+0	1.287265E+0	1.327473E+0	1.374563E+0	1.346271E+0	1.314668E+0	1.363965E+0	1.351044E+0	1.354680E+0	1.269663E+0	1.310930E+0	1.321676E+0	1.294139E+0	1.357784E+0	1.281290E+0	1.285428E+0	1.331270E+0	1.347762E+0	1.360646E+0	1.298156E+0	1.298325E+0	1.319778E+0	1.317886E+0	1.279542E+0	1.304111E+0	1.352196E+0	1.311039E+0	1.330869E+0	1.290492E+0	1.289910E+0	1.257217E+0	1.340357E+0	1.362779E+0	1.267048E+0	1.347899E+0	1.281878E+0	1.268919E+0	1.302926E+0	1.361762E+0	1.274910E+0	1.387260E+0	1.341933E+0
5.437590E+2	1.442609E+0	1.441582E+0	1.445059E+0	3.941044E+0	1.498923E+0	1.481142E+0	1.522902E+0	1.528397E+0	1.476775E+0	1.495742E+0	1.454350E+0	1.508305E+0	1.477313E+0	1.464614E+0	1.454206E+0	1.479216E+0	1.472570E+0	1.462030E+0	1.436041E+0	1.426164E+0	1.490570E+0	1.464724E+0	1.451555E+0	1.444852E+0	1.474647E+0	1.445130E+0	1.445271E+0	1.480179E+0	1.472805E+0	1.436241E+0	1.412449E+0	1.475820E+0	1.459919E+0	1.414092E+0	1.420743E+0	1.447976E+0	1.485707E+0	1.432217E+0	1.468251E+0	1.464484E+0	1.478891E+0	1.466306E+0	1.469358E+0	1.490302E+0	1.461783E+0	1.466995E+0	1.507510E+0	1.502503E+0	1.491820E+0	1.457934E+0	1.439484E+0	1.457044E+0	1.460529E+0	1.487485E+0	1.491258E+0	1.511607E+0	1.411951E+0	1.451327E+0	1.479157E+0	1.472369E+0	1.450448E+0	1.454104E+0	1.470924E+0	1.462596E+0	1.472505E+0	1.436777E+0	1.459079E+0	1.433119E+0	1.455105E+0	1.433177E+0	1.454621E+0	1.506154E+0	1.510210E+0	1.456149E+0	1.422169E+0	1.401677E+0	1.454321E+0	1.476712E+0	1.467634E+0	1.429838E+0	1.465182E+0	1.499057E+0	1.407872E+0	1.392310E+0	1.455331E+0	1.461524E+0	1.463620E+0	1.461011E+0	1.436750E+0	1.484410E+0	1.439772E+0	1.457081E+0	1.454438E+0	1.451688E+0	1.416583E+0	1.454896E+0	1.429227E+0	1.445664E+0	1.380458E+0	1.437726E+0	1.456298E+0	1.467483E+0	1.465098E+0	1.447080E+0	1.529855E+0	1.485252E+0	1.348134E+0	1.446589E+0	1.434196E+0	1.475717E+0	1.431008E+0	1.420477E+0	1.423874E+0	1.417298E+0	1.438898E+0	1.392844E+0	1.462324E+0	1.443742E+0	1.420999E+0	1.521093E+0	1.442890E+0	1.438373E+0	1.432824E+0	1.495097E+0	1.413725E+0	1.453671E+0	1.491614E+0	1.426354E+0	1.451940E+0	1.456935E+0	1.441066E+0	1.510713E+0	1.458895E+0	1.387354E+0	1.427277E+0	1.433934E+0	1.482867E+0	1.453027E+0	1.450986E+0	1.395103E+0	1.483065E+0	1.420896E+0	1.472103E+0	1.431008E+0	1.439838E+0	1.498469E+0	1.479989E+0	1.426575E+0	1.434491E+0	1.417239E+0	1.392313E+0	1.418868E+0	1.477846E+0	1.362626E+0	1.410462E+0	1.447639E+0	1.424383E+0	1.484676E+0	1.383081E+0	1.425474E+0	1.530673E+0	1.462839E+0	1.472978E+0	1.431810E+0	1.442195E+0	1.465351E+0	1.381902E+0	1.482344E+0	1.423400E+0	1.493422E+0
5.440120E+2	1.519387E+0	1.490623E+0	1.501303E+0	4.792582E+0	1.550533E+0	1.466736E+0	1.546252E+0	1.545275E+0	1.486419E+0	1.488869E+0	1.465630E+0	1.554994E+0	1.531472E+0	1.513340E+0	1.462528E+0	1.459020E+0	1.496911E+0	1.502176E+0	1.502494E+0	1.542152E+0	1.509687E+0	1.505558E+0	1.468756E+0	1.427162E+0	1.491616E+0	1.478375E+0	1.484943E+0	1.488321E+0	1.511682E+0	1.542489E+0	1.505754E+0	1.459818E+0	1.521777E+0	1.410318E+0	1.442366E+0	1.516896E+0	1.484283E+0	1.518590E+0	1.458902E+0	1.520764E+0	1.522497E+0	1.549612E+0	1.534046E+0	1.437527E+0	1.477414E+0	1.510366E+0	1.486256E+0	1.437524E+0	1.451077E+0	1.473714E+0	1.459344E+0	1.492802E+0	1.482279E+0	1.465716E+0	1.483059E+0	1.477966E+0	1.516452E+0	1.446726E+0	1.489276E+0	1.504362E+0	1.536304E+0	1.506191E+0	1.511592E+0	1.488882E+0	1.540008E+0	1.461003E+0	1.420597E+0	1.490521E+0	1.488356E+0	1.493447E+0	1.493918E+0	1.588955E+0	1.488563E+0	1.470398E+0	1.505234E+0	1.493651E+0	1.420204E+0	1.454882E+0	1.462093E+0	1.490940E+0	1.574153E+0	1.495194E+0	1.461987E+0	1.474625E+0	1.465597E+0	1.444943E+0	1.490177E+0	1.485978E+0	1.442472E+0	1.499499E+0	1.491847E+0	1.493343E+0	1.486487E+0	1.542538E+0	1.472817E+0	1.448847E+0	1.499032E+0	1.464759E+0	1.458050E+0	1.511064E+0	1.453208E+0	1.473131E+0	1.459305E+0	1.501902E+0	1.508230E+0	1.546043E+0	1.498139E+0	1.501026E+0	1.490273E+0	1.455241E+0	1.511912E+0	1.467251E+0	1.479561E+0	1.434233E+0	1.441519E+0	1.552088E+0	1.496832E+0	1.486825E+0	1.460071E+0	1.476441E+0	1.498231E+0	1.484573E+0	1.510149E+0	1.542839E+0	1.452826E+0	1.494410E+0	1.476035E+0	1.473246E+0	1.436418E+0	1.462837E+0	1.515609E+0	1.511206E+0	1.499753E+0	1.460936E+0	1.448858E+0	1.514593E+0	1.489367E+0	1.494243E+0	1.435196E+0	1.527799E+0	1.526182E+0	1.475317E+0	1.452163E+0	1.475654E+0	1.477897E+0	1.502398E+0	1.468613E+0	1.492026E+0	1.459547E+0	1.448478E+0	1.488991E+0	1.517316E+0	1.499037E+0	1.536162E+0	1.459156E+0	1.488810E+0	1.452920E+0	1.456243E+0	1.459436E+0	1.445778E+0	1.598207E+0	1.426711E+0	1.425037E+0	1.482090E+0	1.501276E+0	1.511769E+0	1.373301E+0	1.495389E+0	1.437799E+0	1.439005E+0
5.442810E+2	1.714456E+0	1.692055E+0	1.663033E+0	6.511072E+0	1.688046E+0	1.651293E+0	1.669878E+0	1.710541E+0	1.637129E+0	1.645818E+0	1.616486E+0	1.630559E+0	1.699662E+0	1.743038E+0	1.668339E+0	1.604605E+0	1.675235E+0	1.634763E+0	1.641519E+0	1.687055E+0	1.638943E+0	1.691852E+0	1.619726E+0	1.720135E+0	1.641094E+0	1.627275E+0	1.685050E+0	1.674121E+0	1.642332E+0	1.646696E+0	1.649375E+0	1.627926E+0	1.634637E+0	1.621586E+0	1.587830E+0	1.652508E+0	1.629805E+0	1.609304E+0	1.660421E+0	1.660737E+0	1.697335E+0	1.664377E+0	1.664452E+0	1.680396E+0	1.656120E+0	1.667719E+0	1.647907E+0	1.687730E+0	1.641064E+0	1.606703E+0	1.628777E+0	1.655523E+0	1.647583E+0	1.668051E+0	1.644231E+0	1.703096E+0	1.610658E+0	1.610461E+0	1.606714E+0	1.737864E+0	1.658801E+0	1.641568E+0	1.635355E+0	1.649792E+0	1.698305E+0	1.554506E+0	1.617048E+0	1.653571E+0	1.617487E+0	1.640524E+0	1.622028E+0	1.687799E+0	1.605402E+0	1.659573E+0	1.698035E+0	1.613220E+0	1.688351E+0	1.619633E+0	1.611474E+0	1.623076E+0	1.641309E+0	1.582317E+0	1.611186E+0	1.659312E+0	1.612811E+0	1.647926E+0	1.647758E+0	1.643658E+0	1.585666E+0	1.679075E+0	1.722656E+0	1.575290E+0	1.627381E+0	1.611677E+0	1.621374E+0	1.633137E+0	1.632667E+0	1.656544E+0	1.543722E+0	1.622013E+0	1.659161E+0	1.633871E+0	1.633812E+0	1.670282E+0	1.627302E+0	1.622793E+0	1.623474E+0	1.562143E+0	1.638705E+0	1.628841E+0	1.616121E+0	1.631829E+0	1.681923E+0	1.591038E+0	1.583197E+0	1.659995E+0	1.595348E+0	1.648050E+0	1.645591E+0	1.679021E+0	1.684447E+0	1.673039E+0	1.671081E+0	1.684600E+0	1.621111E+0	1.614006E+0	1.645162E+0	1.635125E+0	1.614946E+0	1.623275E+0	1.656206E+0	1.649536E+0	1.556551E+0	1.633821E+0	1.595983E+0	1.622353E+0	1.630951E+0	1.609247E+0	1.681513E+0	1.659081E+0	1.670673E+0	1.639202E+0	1.603854E+0	1.670697E+0	1.727039E+0	1.623465E+0	1.687280E+0	1.596491E+0	1.567182E+0	1.618132E+0	1.616125E+0	1.683003E+0	1.625536E+0	1.547309E+0	1.616612E+0	1.680158E+0	1.589631E+0	1.609815E+0	1.613460E+0	1.656003E+0	1.689250E+0	1.626898E+0	1.605317E+0	1.601951E+0	1.617217E+0	1.619984E+0	1.595448E+0	1.584679E+0	1.470454E+0	1.527375E+0
5.445240E+2	1.710512E+0	1.736047E+0	1.659050E+0	2.955835E+0	1.704787E+0	1.662559E+0	1.612474E+0	1.662535E+0	1.690602E+0	1.644654E+0	1.658635E+0	1.703056E+0	1.697231E+0	1.671417E+0	1.593688E+0	1.655417E+0	1.658759E+0	1.650628E+0	1.683678E+0	1.669566E+0	1.652138E+0	1.677182E+0	1.655825E+0	1.655059E+0	1.672725E+0	1.644922E+0	1.688332E+0	1.641484E+0	1.677453E+0	1.626896E+0	1.676466E+0	1.637542E+0	1.657263E+0	1.627853E+0	1.536438E+0	1.699322E+0	1.641292E+0	1.683790E+0	1.665712E+0	1.649716E+0	1.648837E+0	1.627577E+0	1.671485E+0	1.676672E+0	1.684447E+0	1.646843E+0	1.613131E+0	1.621882E+0	1.689588E+0	1.607597E+0	1.669174E+0	1.647601E+0	1.572422E+0	1.637289E+0	1.655540E+0	1.700408E+0	1.615814E+0	1.692148E+0	1.578093E+0	1.756632E+0	1.625035E+0	1.662106E+0	1.626029E+0	1.595909E+0	1.688618E+0	1.564784E+0	1.617202E+0	1.652039E+0	1.579483E+0	1.625384E+0	1.629190E+0	1.666330E+0	1.642438E+0	1.749980E+0	1.621490E+0	1.609992E+0	1.709904E+0	1.678153E+0	1.665316E+0	1.601564E+0	1.701529E+0	1.668886E+0	1.611938E+0	1.613438E+0	1.620341E+0	1.592800E+0	1.638722E+0	1.702067E+0	1.593144E+0	1.686969E+0	1.651197E+0	1.586419E+0	1.694303E+0	1.623712E+0	1.644862E+0	1.645130E+0	1.694076E+0	1.607325E+0	1.602803E+0	1.637341E+0	1.652211E+0	1.622051E+0	1.619185E+0	1.679604E+0	1.622264E+0	1.621207E+0	1.641832E+0	1.597874E+0	1.671401E+0	1.653023E+0	1.588663E+0	1.647646E+0	1.638073E+0	1.647360E+0	1.601214E+0	1.677684E+0	1.671699E+0	1.636817E+0	1.591907E+0	1.648016E+0	1.671108E+0	1.722843E+0	1.603037E+0	1.660303E+0	1.632522E+0	1.608863E+0	1.679997E+0	1.660583E+0	1.630750E+0	1.676417E+0	1.671721E+0	1.572813E+0	1.625256E+0	1.624389E+0	1.629309E+0	1.611715E+0	1.641375E+0	1.656980E+0	1.585109E+0	1.673972E+0	1.623286E+0	1.615557E+0	1.630936E+0	1.654580E+0	1.643416E+0	1.687749E+0	1.659371E+0	1.629439E+0	1.611350E+0	1.573362E+0	1.558027E+0	1.645075E+0	1.579226E+0	1.637743E+0	1.584009E+0	1.592622E+0	1.638911E+0	1.685607E+0	1.611331E+0	1.620467E+0	1.627623E+0	1.682728E+0	1.635228E+0	1.594488E+0	1.655753E+0	1.633966E+0	1.583064E+0	1.653374E+0	1.580658E+0	1.672860E+0
5.447610E+2	1.713334E+0	1.697536E+0	1.588996E+0	1.668299E+0	1.628088E+0	1.654526E+0	1.667221E+0	1.625852E+0	1.626217E+0	1.606102E+0	1.670565E+0	1.664560E+0	1.632530E+0	1.633833E+0	1.622929E+0	1.624837E+0	1.564258E+0	1.646539E+0	1.600058E+0	1.631102E+0	1.580210E+0	1.598077E+0	1.575962E+0	1.575942E+0	1.601848E+0	1.570060E+0	1.630636E+0	1.580566E+0	1.635718E+0	1.702779E+0	1.637519E+0	1.646741E+0	1.622140E+0	1.577587E+0	1.577517E+0	1.642557E+0	1.596555E+0	1.552675E+0	1.622661E+0	1.634827E+0	1.664509E+0	1.657638E+0	1.664214E+0	1.637605E+0	1.663269E+0	1.606542E+0	1.601359E+0	1.629106E+0	1.626753E+0	1.650572E+0	1.590571E+0	1.643703E+0	1.628955E+0	1.643436E+0	1.613311E+0	1.635501E+0	1.616573E+0	1.643063E+0	1.574425E+0	1.640159E+0	1.612358E+0	1.601093E+0	1.622148E+0	1.610805E+0	1.647715E+0	1.610803E+0	1.609963E+0	1.635069E+0	1.590740E+0	1.663213E+0	1.622752E+0	1.669685E+0	1.647507E+0	1.695392E+0	1.649901E+0	1.674109E+0	1.607339E+0	1.616604E+0	1.663165E+0	1.689777E+0	1.631908E+0	1.634288E+0	1.631017E+0	1.626032E+0	1.607239E+0	1.646430E+0	1.598114E+0	1.611970E+0	1.603897E+0	1.687816E+0	1.634026E+0	1.604680E+0	1.602658E+0	1.577702E+0	1.607884E+0	1.590338E+0	1.579398E+0	1.602889E+0	1.581616E+0	1.551343E+0	1.633177E+0	1.612385E+0	1.647810E+0	1.584532E+0	1.612813E+0	1.553152E+0	1.559653E+0	1.561896E+0	1.568243E+0	1.578674E+0	1.555105E+0	1.588275E+0	1.635477E+0	1.585401E+0	1.618219E+0	1.631296E+0	1.609052E+0	1.625118E+0	1.593293E+0	1.622838E+0	1.618750E+0	1.631881E+0	1.610055E+0	1.686093E+0	1.585273E+0	1.546245E+0	1.605476E+0	1.557680E+0	1.646623E+0	1.571879E+0	1.657655E+0	1.551896E+0	1.617901E+0	1.582698E+0	1.552635E+0	1.658220E+0	1.573143E+0	1.624112E+0	1.578286E+0	1.633670E+0	1.642813E+0	1.616986E+0	1.533166E+0	1.629351E+0	1.609462E+0	1.675053E+0	1.629990E+0	1.619203E+0	1.613938E+0	1.556697E+0	1.605998E+0	1.577669E+0	1.603469E+0	1.537787E+0	1.610271E+0	1.568925E+0	1.624422E+0	1.622408E+0	1.593468E+0	1.651333E+0	1.682489E+0	1.597326E+0	1.596028E+0	1.567182E+0	1.602032E+0	1.593196E+0	1.516734E+0	1.564307E+0	1.628438E+0	1.599508E+0
5.450090E+2	1.593384E+0	1.611860E+0	1.603421E+0	1.620114E+0	1.603073E+0	1.621522E+0	1.595269E+0	1.529860E+0	1.613339E+0	1.586034E+0	1.540175E+0	1.585855E+0	1.633573E+0	1.565522E+0	1.575783E+0	1.603859E+0	1.565949E+0	1.584548E+0	1.617921E+0	1.581917E+0	1.572381E+0	1.547646E+0	1.595054E+0	1.559344E+0	1.602313E+0	1.552265E+0	1.579542E+0	1.571379E+0	1.611769E+0	1.561741E+0	1.593641E+0	1.559891E+0	1.570173E+0	1.557431E+0	1.558717E+0	1.620108E+0	1.544761E+0	1.593921E+0	1.537706E+0	1.577828E+0	1.577064E+0	1.520858E+0	1.578219E+0	1.577718E+0	1.579649E+0	1.505042E+0	1.522130E+0	1.530465E+0	1.590326E+0	1.553496E+0	1.517502E+0	1.590760E+0	1.607555E+0	1.568351E+0	1.603518E+0	1.620297E+0	1.580514E+0	1.623055E+0	1.616876E+0	1.560784E+0	1.557360E+0	1.583832E+0	1.559351E+0	1.552808E+0	1.598016E+0	1.570317E+0	1.524895E+0	1.512170E+0	1.609392E+0	1.604652E+0	1.577202E+0	1.570247E+0	1.526104E+0	1.558152E+0	1.574005E+0	1.549788E+0	1.571518E+0	1.569737E+0	1.543892E+0	1.586801E+0	1.637284E+0	1.607161E+0	1.509391E+0	1.543471E+0	1.539560E+0	1.553093E+0	1.580173E+0	1.572481E+0	1.659920E+0	1.551075E+0	1.589117E+0	1.590491E+0	1.575820E+0	1.630440E+0	1.529593E+0	1.572208E+0	1.576498E+0	1.573328E+0	1.585342E+0	1.574663E+0	1.601809E+0	1.558853E+0	1.600017E+0	1.555452E+0	1.499070E+0	1.519283E+0	1.526306E+0	1.501461E+0	1.529731E+0	1.563967E+0	1.581296E+0	1.522146E+0	1.565789E+0	1.564866E+0	1.512695E+0	1.605591E+0	1.576516E+0	1.564148E+0	1.552448E+0	1.645267E+0	1.560500E+0	1.617874E+0	1.563998E+0	1.627352E+0	1.623721E+0	1.633190E+0	1.570182E+0	1.478880E+0	1.519071E+0	1.523284E+0	1.613145E+0	1.561463E+0	1.562261E+0	1.555880E+0	1.496596E+0	1.561596E+0	1.637420E+0	1.555930E+0	1.583461E+0	1.511420E+0	1.568618E+0	1.571715E+0	1.528375E+0	1.565448E+0	1.590637E+0	1.573867E+0	1.517934E+0	1.586789E+0	1.501469E+0	1.489357E+0	1.518374E+0	1.583431E+0	1.529952E+0	1.541802E+0	1.551518E+0	1.526460E+0	1.528189E+0	1.568411E+0	1.487255E+0	1.570707E+0	1.651591E+0	1.505397E+0	1.548038E+0	1.516807E+0	1.520763E+0	1.511620E+0	1.525994E+0	1.584004E+0	1.563404E+0	1.562731E+0
5.452640E+2	1.388138E+0	1.433774E+0	1.424465E+0	1.534103E+0	1.457010E+0	1.454565E+0	1.396901E+0	1.463826E+0	1.422245E+0	1.471678E+0	1.420185E+0	1.491123E+0	1.452406E+0	1.428248E+0	1.482812E+0	1.388179E+0	1.506901E+0	1.451206E+0	1.478470E+0	1.427746E+0	1.409957E+0	1.437352E+0	1.458438E+0	1.412883E+0	1.454645E+0	1.498712E+0	1.442059E+0	1.432405E+0	1.488023E+0	1.445662E+0	1.450687E+0	1.442026E+0	1.425298E+0	1.475251E+0	1.387370E+0	1.392181E+0	1.414460E+0	1.428474E+0	1.433474E+0	1.439195E+0	1.453482E+0	1.541215E+0	1.436684E+0	1.457039E+0	1.480983E+0	1.375689E+0	1.439322E+0	1.453412E+0	1.397444E+0	1.444726E+0	1.388588E+0	1.428115E+0	1.434402E+0	1.474256E+0	1.420048E+0	1.404156E+0	1.475298E+0	1.456878E+0	1.428854E+0	1.447159E+0	1.438430E+0	1.436759E+0	1.421507E+0	1.400064E+0	1.438207E+0	1.417710E+0	1.470313E+0	1.410230E+0	1.379976E+0	1.390533E+0	1.443095E+0	1.431917E+0	1.471689E+0	1.488891E+0	1.452453E+0	1.438893E+0	1.437958E+0	1.406466E+0	1.447830E+0	1.392827E+0	1.447227E+0	1.441131E+0	1.292495E+0	1.369257E+0	1.400106E+0	1.371757E+0	1.399343E+0	1.397143E+0	1.374987E+0	1.430649E+0	1.393912E+0	1.401498E+0	1.451038E+0	1.432344E+0	1.420235E+0	1.445142E+0	1.415253E+0	1.496168E+0	1.374915E+0	1.425697E+0	1.415445E+0	1.386106E+0	1.453444E+0	1.448458E+0	1.447063E+0	1.459759E+0	1.336764E+0	1.427566E+0	1.434195E+0	1.430319E+0	1.425454E+0	1.418041E+0	1.458383E+0	1.377514E+0	1.387413E+0	1.419845E+0	1.443560E+0	1.410739E+0	1.402511E+0	1.471049E+0	1.418688E+0	1.494867E+0	1.413645E+0	1.415778E+0	1.407739E+0	1.439638E+0	1.433162E+0	1.446256E+0	1.430763E+0	1.387039E+0	1.450832E+0	1.430184E+0	1.384698E+0	1.437293E+0	1.431113E+0	1.419370E+0	1.438078E+0	1.411088E+0	1.453741E+0	1.441514E+0	1.454861E+0	1.398533E+0	1.383377E+0	1.400143E+0	1.439834E+0	1.399322E+0	1.419359E+0	1.495442E+0	1.419850E+0	1.408202E+0	1.385210E+0	1.474026E+0	1.482273E+0	1.444794E+0	1.453942E+0	1.462683E+0	1.423001E+0	1.461324E+0	1.352157E+0	1.426118E+0	1.472943E+0	1.402890E+0	1.417813E+0	1.414619E+0	1.436674E+0	1.463534E+0	1.402876E+0	1.435550E+0	1.387228E+0	1.397826E+0
5.455180E+2	1.273074E+0	1.282356E+0	1.291799E+0	1.329366E+0	1.324538E+0	1.240541E+0	1.283333E+0	1.229436E+0	1.255023E+0	1.275470E+0	1.283371E+0	1.294662E+0	1.273092E+0	1.274133E+0	1.287858E+0	1.274013E+0	1.295390E+0	1.272597E+0	1.233580E+0	1.219022E+0	1.277567E+0	1.263751E+0	1.259765E+0	1.277609E+0	1.279708E+0	1.248392E+0	1.263941E+0	1.337421E+0	1.324154E+0	1.277653E+0	1.235865E+0	1.247853E+0	1.270460E+0	1.297821E+0	1.227296E+0	1.239479E+0	1.272336E+0	1.245067E+0	1.272513E+0	1.280775E+0	1.295157E+0	1.349516E+0	1.309832E+0	1.295676E+0	1.288829E+0	1.278706E+0	1.272546E+0	1.277901E+0	1.335206E+0	1.283368E+0	1.285586E+0	1.303004E+0	1.247078E+0	1.272436E+0	1.283010E+0	1.271647E+0	1.302081E+0	1.278303E+0	1.262466E+0	1.344113E+0	1.300604E+0	1.273316E+0	1.281053E+0	1.264393E+0	1.295273E+0	1.318451E+0	1.285773E+0	1.278521E+0	1.234607E+0	1.288571E+0	1.257736E+0	1.283592E+0	1.276822E+0	1.312594E+0	1.295325E+0	1.298650E+0	1.320655E+0	1.210133E+0	1.278687E+0	1.239516E+0	1.279614E+0	1.271186E+0	1.259627E+0	1.245435E+0	1.345990E+0	1.291968E+0	1.276274E+0	1.283931E+0	1.234824E+0	1.319097E+0	1.292406E+0	1.196958E+0	1.278407E+0	1.258446E+0	1.250714E+0	1.277226E+0	1.268079E+0	1.258405E+0	1.239857E+0	1.262150E+0	1.297867E+0	1.245149E+0	1.242501E+0	1.261959E+0	1.277209E+0	1.242878E+0	1.190027E+0	1.266512E+0	1.266871E+0	1.293832E+0	1.294074E+0	1.255645E+0	1.289976E+0	1.224180E+0	1.184316E+0	1.312543E+0	1.267112E+0	1.330858E+0	1.294721E+0	1.273595E+0	1.255070E+0	1.318660E+0	1.245685E+0	1.302205E+0	1.260232E+0	1.325692E+0	1.256694E+0	1.264257E+0	1.272050E+0	1.271787E+0	1.336033E+0	1.309076E+0	1.308002E+0	1.277705E+0	1.314086E+0	1.229138E+0	1.309715E+0	1.220318E+0	1.256760E+0	1.234226E+0	1.295696E+0	1.265122E+0	1.257224E+0	1.310406E+0	1.294509E+0	1.247256E+0	1.260981E+0	1.286391E+0	1.253503E+0	1.226632E+0	1.241257E+0	1.294351E+0	1.307362E+0	1.244368E+0	1.196821E+0	1.245004E+0	1.228307E+0	1.237753E+0	1.298897E+0	1.278211E+0	1.343595E+0	1.214777E+0	1.282093E+0	1.272267E+0	1.318616E+0	1.293139E+0	1.277245E+0	1.335458E+0	1.208785E+0	1.294965E+0
5.457890E+2	1.321837E+0	1.310231E+0	1.293860E+0	1.485229E+0	1.323299E+0	1.292680E+0	1.307335E+0	1.281941E+0	1.360878E+0	1.311342E+0	1.347440E+0	1.357664E+0	1.339356E+0	1.298318E+0	1.305872E+0	1.291283E+0	1.341482E+0	1.312981E+0	1.345583E+0	1.286079E+0	1.333899E+0	1.293763E+0	1.288603E+0	1.265133E+0	1.339968E+0	1.340972E+0	1.317491E+0	1.338907E+0	1.335602E+0	1.337763E+0	1.329142E+0	1.316398E+0	1.293969E+0	1.280730E+0	1.297245E+0	1.302247E+0	1.293553E+0	1.307499E+0	1.356730E+0	1.273264E+0	1.333768E+0	1.377390E+0	1.348732E+0	1.347672E+0	1.319311E+0	1.304546E+0	1.285216E+0	1.242350E+0	1.315212E+0	1.248383E+0	1.289985E+0	1.308665E+0	1.297784E+0	1.300942E+0	1.339796E+0	1.308871E+0	1.333877E+0	1.350314E+0	1.255311E+0	1.314505E+0	1.351394E+0	1.307701E+0	1.337424E+0	1.280648E+0	1.362399E+0	1.314046E+0	1.294367E+0	1.309772E+0	1.328231E+0	1.330389E+0	1.320944E+0	1.292254E+0	1.359590E+0	1.353636E+0	1.292452E+0	1.339315E+0	1.326169E+0	1.302038E+0	1.335459E+0	1.314506E+0	1.334951E+0	1.413153E+0	1.321234E+0	1.320035E+0	1.303721E+0	1.307781E+0	1.332820E+0	1.336887E+0	1.291807E+0	1.381002E+0	1.327000E+0	1.313222E+0	1.335577E+0	1.350443E+0	1.252628E+0	1.293871E+0	1.299875E+0	1.289418E+0	1.296366E+0	1.281156E+0	1.327690E+0	1.281918E+0	1.311247E+0	1.310028E+0	1.374185E+0	1.337324E+0	1.318282E+0	1.336224E+0	1.305638E+0	1.271558E+0	1.348669E+0	1.277721E+0	1.305491E+0	1.303377E+0	1.304735E+0	1.340805E+0	1.308665E+0	1.310662E+0	1.306993E+0	1.320202E+0	1.304100E+0	1.328691E+0	1.292781E+0	1.299620E+0	1.293754E+0	1.343229E+0	1.254355E+0	1.286153E+0	1.315994E+0	1.323486E+0	1.357626E+0	1.233568E+0	1.303805E+0	1.312047E+0	1.322222E+0	1.266284E+0	1.366471E+0	1.364551E+0	1.282570E+0	1.323610E+0	1.360214E+0	1.327591E+0	1.303610E+0	1.320983E+0	1.319717E+0	1.313872E+0	1.362687E+0	1.301225E+0	1.261878E+0	1.280307E+0	1.295210E+0	1.319167E+0	1.378601E+0	1.248769E+0	1.307864E+0	1.307462E+0	1.335311E+0	1.282213E+0	1.251659E+0	1.262926E+0	1.325330E+0	1.294412E+0	1.263155E+0	1.302786E+0	1.309272E+0	1.268301E+0	1.324553E+0	1.301995E+0	1.284243E+0	1.382285E+0
5.460060E+2	1.239447E+0	1.315924E+0	1.236971E+0	1.101823E+0	1.266718E+0	1.268692E+0	1.260897E+0	1.238380E+0	1.242545E+0	1.299012E+0	1.239383E+0	1.235777E+0	1.256731E+0	1.242880E+0	1.221026E+0	1.271383E+0	1.256998E+0	1.257926E+0	1.227023E+0	1.254438E+0	1.217090E+0	1.222754E+0	1.242172E+0	1.216399E+0	1.344410E+0	1.234038E+0	1.274551E+0	1.294961E+0	1.229454E+0	1.288978E+0	1.220526E+0	1.230738E+0	1.257381E+0	1.244840E+0	1.210902E+0	1.275414E+0	1.265498E+0	1.257967E+0	1.232072E+0	1.189835E+0	1.292051E+0	1.241737E+0	1.264604E+0	1.253451E+0	1.254074E+0	1.214609E+0	1.235700E+0	1.194871E+0	1.262387E+0	1.249188E+0	1.204366E+0	1.240302E+0	1.185809E+0	1.217449E+0	1.274573E+0	1.253430E+0	1.291076E+0	1.243571E+0	1.253601E+0	1.199284E+0	1.280410E+0	1.227643E+0	1.259057E+0	1.293760E+0	1.239397E+0	1.244536E+0	1.208361E+0	1.251888E+0	1.228650E+0	1.229120E+0	1.240832E+0	1.249668E+0	1.305048E+0	1.239460E+0	1.291470E+0	1.225058E+0	1.320751E+0	1.255326E+0	1.218308E+0	1.198248E+0	1.268613E+0	1.265507E+0	1.270241E+0	1.275507E+0	1.229947E+0	1.255709E+0	1.244041E+0	1.248461E+0	1.275359E+0	1.246862E+0	1.241291E+0	1.226338E+0	1.264397E+0	1.266353E+0	1.226910E+0	1.221036E+0	1.270465E+0	1.287033E+0	1.217453E+0	1.291701E+0	1.254607E+0	1.214219E+0	1.207580E+0	1.237089E+0	1.221224E+0	1.225027E+0	1.176588E+0	1.216231E+0	1.239590E+0	1.228805E+0	1.230509E+0	1.259260E+0	1.236788E+0	1.263718E+0	1.215329E+0	1.257233E+0	1.285184E+0	1.248344E+0	1.261759E+0	1.224544E+0	1.255713E+0	1.271819E+0	1.218069E+0	1.261038E+0	1.221401E+0	1.218901E+0	1.221022E+0	1.208329E+0	1.182718E+0	1.278191E+0	1.295079E+0	1.257679E+0	1.262476E+0	1.265540E+0	1.202337E+0	1.288383E+0	1.256962E+0	1.252374E+0	1.232329E+0	1.212671E+0	1.216988E+0	1.230145E+0	1.222910E+0	1.227625E+0	1.265748E+0	1.238087E+0	1.199757E+0	1.228558E+0	1.200367E+0	1.201411E+0	1.236344E+0	1.241772E+0	1.242900E+0	1.196248E+0	1.207487E+0	1.239014E+0	1.278109E+0	1.268460E+0	1.235544E+0	1.240309E+0	1.285997E+0	1.235823E+0	1.229140E+0	1.212936E+0	1.272820E+0	1.230496E+0	1.210061E+0	1.257440E+0	1.253951E+0	1.196192E+0
5.467660E+2	1.190420E+0	1.227146E+0	1.251416E+0	1.029578E+0	1.223268E+0	1.297282E+0	1.247626E+0	1.266169E+0	1.345694E+0	1.234276E+0	1.250259E+0	1.291080E+0	1.211944E+0	1.254665E+0	1.219371E+0	1.223121E+0	1.254777E+0	1.253302E+0	1.248214E+0	1.192297E+0	1.237641E+0	1.242203E+0	1.195322E+0	1.195609E+0	1.267432E+0	1.268545E+0	1.197054E+0	1.234072E+0	1.269499E+0	1.252901E+0	1.293008E+0	1.220791E+0	1.263867E+0	1.197740E+0	1.223745E+0	1.243872E+0	1.270894E+0	1.221565E+0	1.227059E+0	1.196473E+0	1.228460E+0	1.294184E+0	1.281056E+0	1.290699E+0	1.233294E+0	1.249131E+0	1.280691E+0	1.239411E+0	1.252214E+0	1.243181E+0	1.261160E+0	1.280843E+0	1.260500E+0	1.232036E+0	1.203535E+0	1.216493E+0	1.263513E+0	1.274444E+0	1.220795E+0	1.299842E+0	1.288913E+0	1.246463E+0	1.221189E+0	1.199296E+0	1.258820E+0	1.233185E+0	1.221668E+0	1.270956E+0	1.258980E+0	1.249795E+0	1.242060E+0	1.203453E+0	1.259607E+0	1.250223E+0	1.290444E+0	1.260438E+0	1.320835E+0	1.244971E+0	1.235478E+0	1.253811E+0	1.219195E+0	1.233457E+0	1.183967E+0	1.217514E+0	1.206022E+0	1.225835E+0	1.256898E+0	1.240549E+0	1.271486E+0	1.224426E+0	1.282215E+0	1.252323E+0	1.248236E+0	1.205752E+0	1.266150E+0	1.216758E+0	1.219977E+0	1.286366E+0	1.151045E+0	1.234008E+0	1.244092E+0	1.199568E+0	1.194199E+0	1.255357E+0	1.208240E+0	1.226781E+0	1.172364E+0	1.240023E+0	1.254788E+0	1.277517E+0	1.237082E+0	1.244951E+0	1.256070E+0	1.239226E+0	1.181255E+0	1.284235E+0	1.264554E+0	1.267860E+0	1.232470E+0	1.235118E+0	1.268933E+0	1.218872E+0	1.259072E+0	1.229638E+0	1.223524E+0	1.199665E+0	1.231401E+0	1.229486E+0	1.215666E+0	1.306600E+0	1.242167E+0	1.168259E+0	1.246943E+0	1.191682E+0	1.203533E+0	1.208823E+0	1.251235E+0	1.229177E+0	1.263124E+0	1.207934E+0	1.245340E+0	1.185057E+0	1.194511E+0	1.247111E+0	1.288896E+0	1.282176E+0	1.223982E+0	1.214471E+0	1.214819E+0	1.243390E+0	1.258522E+0	1.162326E+0	1.225622E+0	1.234123E+0	1.228730E+0	1.193094E+0	1.229353E+0	1.221876E+0	1.215189E+0	1.196843E+0	1.268513E+0	1.271354E+0	1.267744E+0	1.229037E+0	1.272698E+0	1.258632E+0	1.229246E+0	1.259525E+0	1.262939E+0	1.132876E+0
5.475180E+2	1.385834E+0	1.374843E+0	1.373196E+0	1.344539E+0	1.417214E+0	1.340831E+0	1.411415E+0	1.341854E+0	1.400105E+0	1.365661E+0	1.376702E+0	1.290171E+0	1.376044E+0	1.343717E+0	1.318398E+0	1.352444E+0	1.378953E+0	1.390501E+0	1.408240E+0	1.388880E+0	1.368873E+0	1.311255E+0	1.361068E+0	1.368065E+0	1.339048E+0	1.312897E+0	1.338140E+0	1.365474E+0	1.374853E+0	1.374952E+0	1.304529E+0	1.311173E+0	1.366628E+0	1.348027E+0	1.369541E+0	1.384537E+0	1.316707E+0	1.345264E+0	1.404949E+0	1.369033E+0	1.415768E+0	1.316425E+0	1.320194E+0	1.363811E+0	1.390868E+0	1.410918E+0	1.353117E+0	1.389774E+0	1.376114E+0	1.350841E+0	1.384482E+0	1.368458E+0	1.402114E+0	1.368352E+0	1.315824E+0	1.355389E+0	1.351012E+0	1.357592E+0	1.384116E+0	1.392969E+0	1.317936E+0	1.334712E+0	1.305523E+0	1.313925E+0	1.360448E+0	1.355068E+0	1.366111E+0	1.329829E+0	1.339241E+0	1.312089E+0	1.389237E+0	1.367349E+0	1.377637E+0	1.356908E+0	1.383999E+0	1.310304E+0	1.366418E+0	1.327589E+0	1.386550E+0	1.331798E+0	1.366873E+0	1.366366E+0	1.293041E+0	1.288351E+0	1.357857E+0	1.377716E+0	1.373333E+0	1.328347E+0	1.410940E+0	1.342643E+0	1.382902E+0	1.329584E+0	1.339993E+0	1.336537E+0	1.315651E+0	1.356406E+0	1.388504E+0	1.399905E+0	1.330111E+0	1.364861E+0	1.361734E+0	1.349837E+0	1.356188E+0	1.373752E+0	1.380715E+0	1.350049E+0	1.324500E+0	1.315973E+0	1.345724E+0	1.401224E+0	1.363968E+0	1.358386E+0	1.424344E+0	1.359452E+0	1.362199E+0	1.358060E+0	1.342868E+0	1.357041E+0	1.314543E+0	1.360842E+0	1.419750E+0	1.359145E+0	1.296880E+0	1.339159E+0	1.374041E+0	1.349249E+0	1.292768E+0	1.388069E+0	1.347375E+0	1.298213E+0	1.404096E+0	1.323991E+0	1.329539E+0	1.338170E+0	1.314153E+0	1.371180E+0	1.384490E+0	1.341397E+0	1.360313E+0	1.353139E+0	1.379044E+0	1.281005E+0	1.336365E+0	1.337527E+0	1.351428E+0	1.351014E+0	1.271701E+0	1.343802E+0	1.349189E+0	1.287106E+0	1.305268E+0	1.306634E+0	1.396031E+0	1.367351E+0	1.291331E+0	1.359698E+0	1.368614E+0	1.316456E+0	1.324583E+0	1.360202E+0	1.416331E+0	1.417026E+0	1.349358E+0	1.342634E+0	1.329801E+0	1.428660E+0	1.293518E+0	1.338806E+0	1.377797E+0	1.390754E+0
5.482880E+2	1.510049E+0	1.499597E+0	1.446504E+0	1.523062E+0	1.438091E+0	1.441178E+0	1.500136E+0	1.509852E+0	1.484937E+0	1.454519E+0	1.440142E+0	1.495458E+0	1.465599E+0	1.434850E+0	1.424360E+0	1.470992E+0	1.466458E+0	1.434338E+0	1.467661E+0	1.472796E+0	1.478064E+0	1.390613E+0	1.467820E+0	1.454867E+0	1.466901E+0	1.489365E+0	1.474889E+0	1.434966E+0	1.439745E+0	1.461046E+0	1.486796E+0	1.438103E+0	1.464075E+0	1.400727E+0	1.412393E+0	1.455783E+0	1.417251E+0	1.409403E+0	1.478215E+0	1.443580E+0	1.450994E+0	1.438270E+0	1.456545E+0	1.478327E+0	1.454958E+0	1.489071E+0	1.443131E+0	1.432526E+0	1.426484E+0	1.422758E+0	1.394193E+0	1.447099E+0	1.480398E+0	1.425627E+0	1.424381E+0	1.469789E+0	1.469747E+0	1.397421E+0	1.481408E+0	1.465581E+0	1.476079E+0	1.487488E+0	1.390854E+0	1.417347E+0	1.460029E+0	1.468691E+0	1.457609E+0	1.445086E+0	1.479765E+0	1.474067E+0	1.440356E+0	1.524781E+0	1.482253E+0	1.478154E+0	1.475336E+0	1.432202E+0	1.467898E+0	1.435727E+0	1.369480E+0	1.403803E+0	1.447310E+0	1.449430E+0	1.422583E+0	1.466263E+0	1.427633E+0	1.438518E+0	1.482476E+0	1.469813E+0	1.459307E+0	1.445175E+0	1.412169E+0	1.440418E+0	1.455280E+0	1.488874E+0	1.449354E+0	1.395649E+0	1.440397E+0	1.522034E+0	1.365777E+0	1.398267E+0	1.447138E+0	1.417586E+0	1.412803E+0	1.468119E+0	1.470689E+0	1.459743E+0	1.388457E+0	1.395308E+0	1.498469E+0	1.449391E+0	1.449516E+0	1.413731E+0	1.492174E+0	1.474529E+0	1.431793E+0	1.435013E+0	1.466178E+0	1.452828E+0	1.468999E+0	1.441946E+0	1.418681E+0	1.516110E+0	1.411026E+0	1.406064E+0	1.461264E+0	1.508429E+0	1.409827E+0	1.435344E+0	1.467321E+0	1.419985E+0	1.443784E+0	1.424951E+0	1.445799E+0	1.453525E+0	1.434268E+0	1.466536E+0	1.472370E+0	1.462431E+0	1.451099E+0	1.442815E+0	1.439041E+0	1.451118E+0	1.436173E+0	1.445717E+0	1.467232E+0	1.480267E+0	1.432883E+0	1.415852E+0	1.382959E+0	1.442564E+0	1.424710E+0	1.402399E+0	1.500364E+0	1.434152E+0	1.460679E+0	1.454387E+0	1.459707E+0	1.447137E+0	1.440077E+0	1.387005E+0	1.484830E+0	1.474643E+0	1.430017E+0	1.425846E+0	1.418030E+0	1.445471E+0	1.411635E+0	1.437614E+0	1.449292E+0	1.452250E+0
5.490160E+2	1.409775E+0	1.379701E+0	1.351135E+0	1.350669E+0	1.312474E+0	1.370793E+0	1.311633E+0	1.326108E+0	1.363345E+0	1.394585E+0	1.316673E+0	1.330214E+0	1.364517E+0	1.359868E+0	1.351255E+0	1.390059E+0	1.340007E+0	1.351474E+0	1.371430E+0	1.306973E+0	1.362197E+0	1.342261E+0	1.362367E+0	1.352615E+0	1.321625E+0	1.366552E+0	1.333208E+0	1.335087E+0	1.375647E+0	1.383238E+0	1.337047E+0	1.383183E+0	1.373831E+0	1.309588E+0	1.289132E+0	1.371983E+0	1.349949E+0	1.333784E+0	1.371204E+0	1.328841E+0	1.358030E+0	1.308063E+0	1.297494E+0	1.315270E+0	1.344159E+0	1.345694E+0	1.310714E+0	1.314642E+0	1.338747E+0	1.410493E+0	1.326450E+0	1.376993E+0	1.343510E+0	1.323175E+0	1.308788E+0	1.333674E+0	1.322213E+0	1.366668E+0	1.322298E+0	1.430752E+0	1.378675E+0	1.377337E+0	1.346563E+0	1.338628E+0	1.347340E+0	1.308090E+0	1.309850E+0	1.348179E+0	1.340244E+0	1.320753E+0	1.338742E+0	1.266691E+0	1.361230E+0	1.342311E+0	1.400382E+0	1.340334E+0	1.366749E+0	1.338253E+0	1.304123E+0	1.330434E+0	1.397957E+0	1.360232E+0	1.283756E+0	1.295791E+0	1.359392E+0	1.344783E+0	1.358961E+0	1.323047E+0	1.351443E+0	1.356097E+0	1.322924E+0	1.369751E+0	1.363916E+0	1.291690E+0	1.328807E+0	1.291969E+0	1.384451E+0	1.317534E+0	1.299460E+0	1.285671E+0	1.355383E+0	1.341676E+0	1.322989E+0	1.335727E+0	1.326817E+0	1.399702E+0	1.294241E+0	1.274379E+0	1.290833E+0	1.316326E+0	1.311006E+0	1.315184E+0	1.352669E+0	1.360305E+0	1.286985E+0	1.347445E+0	1.347349E+0	1.339689E+0	1.297117E+0	1.316198E+0	1.268045E+0	1.378948E+0	1.300813E+0	1.322164E+0	1.317241E+0	1.362296E+0	1.354520E+0	1.294143E+0	1.340258E+0	1.372630E+0	1.391448E+0	1.344230E+0	1.335975E+0	1.332481E+0	1.338187E+0	1.318076E+0	1.394017E+0	1.352603E+0	1.363611E+0	1.345462E+0	1.332886E+0	1.357829E+0	1.308430E+0	1.371614E+0	1.373661E+0	1.365514E+0	1.375853E+0	1.344447E+0	1.335345E+0	1.312205E+0	1.357606E+0	1.280847E+0	1.336138E+0	1.350783E+0	1.321742E+0	1.335756E+0	1.345279E+0	1.325977E+0	1.303987E+0	1.327555E+0	1.355049E+0	1.309213E+0	1.290065E+0	1.302184E+0	1.367004E+0	1.337898E+0	1.300148E+0	1.279303E+0	1.320082E+0	1.384476E+0
5.497680E+2	1.357416E+0	1.316958E+0	1.306143E+0	1.265658E+0	1.314280E+0	1.307568E+0	1.349994E+0	1.361588E+0	1.316144E+0	1.375835E+0	1.377085E+0	1.340887E+0	1.309700E+0	1.357691E+0	1.349204E+0	1.338006E+0	1.357628E+0	1.336651E+0	1.351423E+0	1.348260E+0	1.318187E+0	1.309242E+0	1.327488E+0	1.292877E+0	1.313560E+0	1.338287E+0	1.315762E+0	1.301837E+0	1.331756E+0	1.351608E+0	1.343142E+0	1.322976E+0	1.305201E+0	1.377719E+0	1.242546E+0	1.312163E+0	1.329148E+0	1.311310E+0	1.318510E+0	1.313008E+0	1.336099E+0	1.343434E+0	1.326432E+0	1.312725E+0	1.313035E+0	1.329656E+0	1.305768E+0	1.313588E+0	1.287452E+0	1.342122E+0	1.325324E+0	1.369662E+0	1.383011E+0	1.285224E+0	1.291560E+0	1.335048E+0	1.369433E+0	1.364194E+0	1.347637E+0	1.379073E+0	1.273652E+0	1.288218E+0	1.323131E+0	1.300910E+0	1.302529E+0	1.312005E+0	1.298948E+0	1.308230E+0	1.343269E+0	1.306447E+0	1.351785E+0	1.308661E+0	1.282708E+0	1.338982E+0	1.380945E+0	1.292533E+0	1.303496E+0	1.348073E+0	1.347425E+0	1.318904E+0	1.346128E+0	1.350734E+0	1.299175E+0	1.286343E+0	1.336281E+0	1.346700E+0	1.384077E+0	1.292672E+0	1.354189E+0	1.326191E+0	1.290796E+0	1.314364E+0	1.318551E+0	1.345442E+0	1.313496E+0	1.305563E+0	1.274237E+0	1.276480E+0	1.273475E+0	1.256859E+0	1.359910E+0	1.288418E+0	1.314045E+0	1.332316E+0	1.376992E+0	1.339340E+0	1.295268E+0	1.293517E+0	1.315744E+0	1.316388E+0	1.283243E+0	1.333898E+0	1.300163E+0	1.363916E+0	1.341494E+0	1.314462E+0	1.350420E+0	1.332388E+0	1.303206E+0	1.331721E+0	1.382656E+0	1.362520E+0	1.354822E+0	1.322248E+0	1.362499E+0	1.337388E+0	1.295174E+0	1.316262E+0	1.334012E+0	1.326509E+0	1.395325E+0	1.294594E+0	1.293673E+0	1.330543E+0	1.303698E+0	1.291152E+0	1.342759E+0	1.293720E+0	1.353832E+0	1.364016E+0	1.375962E+0	1.300821E+0	1.231389E+0	1.354804E+0	1.352156E+0	1.318687E+0	1.313638E+0	1.272958E+0	1.308498E+0	1.294431E+0	1.299429E+0	1.307913E+0	1.322225E+0	1.302429E+0	1.271307E+0	1.302467E+0	1.334969E+0	1.328527E+0	1.253743E+0	1.340458E+0	1.338542E+0	1.348413E+0	1.275204E+0	1.286438E+0	1.385566E+0	1.382635E+0	1.296822E+0	1.297358E+0	1.398981E+0	1.365377E+0
5.505170E+2	1.347580E+0	1.437404E+0	1.360266E+0	1.498043E+0	1.352183E+0	1.362721E+0	1.389263E+0	1.340335E+0	1.359329E+0	1.425959E+0	1.358606E+0	1.342148E+0	1.413779E+0	1.390804E+0	1.347366E+0	1.304324E+0	1.393866E+0	1.370465E+0	1.330245E+0	1.331677E+0	1.321953E+0	1.356378E+0	1.383338E+0	1.360308E+0	1.413854E+0	1.370619E+0	1.392687E+0	1.382299E+0	1.364053E+0	1.413920E+0	1.378274E+0	1.361749E+0	1.346451E+0	1.343514E+0	1.345514E+0	1.397519E+0	1.326260E+0	1.316716E+0	1.357262E+0	1.296925E+0	1.380108E+0	1.371370E+0	1.352062E+0	1.374481E+0	1.359988E+0	1.343589E+0	1.356920E+0	1.342138E+0	1.327747E+0	1.394129E+0	1.383080E+0	1.392078E+0	1.383186E+0	1.319524E+0	1.358049E+0	1.401250E+0	1.339441E+0	1.400527E+0	1.389309E+0	1.388119E+0	1.368845E+0	1.338441E+0	1.354131E+0	1.364907E+0	1.383726E+0	1.374835E+0	1.364143E+0	1.408168E+0	1.383372E+0	1.404717E+0	1.327634E+0	1.391310E+0	1.329491E+0	1.356148E+0	1.386930E+0	1.347778E+0	1.323942E+0	1.400517E+0	1.359629E+0	1.385670E+0	1.339614E+0	1.347839E+0	1.330970E+0	1.339579E+0	1.377359E+0	1.312381E+0	1.341243E+0	1.376308E+0	1.393625E+0	1.349534E+0	1.341088E+0	1.344528E+0	1.365736E+0	1.365564E+0	1.329201E+0	1.295752E+0	1.353257E+0	1.352319E+0	1.395820E+0	1.302559E+0	1.386784E+0	1.414606E+0	1.347180E+0	1.318014E+0	1.363043E+0	1.325329E+0	1.311608E+0	1.306655E+0	1.332155E+0	1.346298E+0	1.333915E+0	1.337840E+0	1.312890E+0	1.376278E+0	1.319908E+0	1.336743E+0	1.339526E+0	1.385263E+0	1.358953E+0	1.372332E+0	1.322193E+0	1.420417E+0	1.312774E+0	1.317949E+0	1.366001E+0	1.383679E+0	1.371484E+0	1.352323E+0	1.370969E+0	1.344817E+0	1.367354E+0	1.335345E+0	1.347713E+0	1.353725E+0	1.325968E+0	1.334367E+0	1.339264E+0	1.290073E+0	1.343952E+0	1.370395E+0	1.368678E+0	1.336312E+0	1.344392E+0	1.385638E+0	1.399681E+0	1.387592E+0	1.312649E+0	1.350780E+0	1.348330E+0	1.390191E+0	1.331362E+0	1.370117E+0	1.356372E+0	1.341545E+0	1.314926E+0	1.343895E+0	1.362531E+0	1.315075E+0	1.328054E+0	1.351255E+0	1.374721E+0	1.364676E+0	1.347755E+0	1.342816E+0	1.390335E+0	1.385384E+0	1.328504E+0	1.337469E+0	1.356906E+0	1.312258E+0
5.512570E+2	1.391917E+0	1.423850E+0	1.363683E+0	1.274993E+0	1.417979E+0	1.336303E+0	1.354989E+0	1.312367E+0	1.322788E+0	1.322588E+0	1.371099E+0	1.368893E+0	1.363861E+0	1.380566E+0	1.371722E+0	1.344788E+0	1.418471E+0	1.362273E+0	1.312516E+0	1.343439E+0	1.368374E+0	1.341858E+0	1.408579E+0	1.345530E+0	1.336060E+0	1.375079E+0	1.387050E+0	1.316637E+0	1.330029E+0	1.360974E+0	1.365367E+0	1.381683E+0	1.344231E+0	1.350404E+0	1.319233E+0	1.409027E+0	1.359450E+0	1.333398E+0	1.346158E+0	1.338700E+0	1.369359E+0	1.366416E+0	1.347310E+0	1.404841E+0	1.344576E+0	1.393557E+0	1.334795E+0	1.358075E+0	1.363483E+0	1.358130E+0	1.372194E+0	1.377269E+0	1.369762E+0	1.369063E+0	1.387395E+0	1.373758E+0	1.337691E+0	1.377130E+0	1.339531E+0	1.383238E+0	1.347164E+0	1.339414E+0	1.337501E+0	1.382017E+0	1.357338E+0	1.367927E+0	1.358047E+0	1.382752E+0	1.335577E+0	1.381437E+0	1.360212E+0	1.332045E+0	1.352317E+0	1.349525E+0	1.361050E+0	1.305232E+0	1.368770E+0	1.318262E+0	1.351035E+0	1.374151E+0	1.337408E+0	1.395031E+0	1.324227E+0	1.337437E+0	1.357247E+0	1.291980E+0	1.377566E+0	1.375160E+0	1.388897E+0	1.359308E+0	1.340660E+0	1.344150E+0	1.353764E+0	1.348328E+0	1.330721E+0	1.335418E+0	1.336413E+0	1.302546E+0	1.368773E+0	1.308347E+0	1.367567E+0	1.381107E+0	1.368843E+0	1.337703E+0	1.368324E+0	1.392280E+0	1.317288E+0	1.281732E+0	1.340641E+0	1.340819E+0	1.380515E+0	1.339173E+0	1.343963E+0	1.314337E+0	1.291865E+0	1.353738E+0	1.351740E+0	1.401925E+0	1.359224E+0	1.375615E+0	1.335992E+0	1.391730E+0	1.396417E+0	1.424719E+0	1.366676E+0	1.416515E+0	1.341563E+0	1.300329E+0	1.405318E+0	1.374899E+0	1.415646E+0	1.335396E+0	1.357532E+0	1.348452E+0	1.353343E+0	1.363522E+0	1.381800E+0	1.359806E+0	1.360569E+0	1.387274E+0	1.300592E+0	1.325559E+0	1.335249E+0	1.389597E+0	1.338035E+0	1.365171E+0	1.314413E+0	1.391629E+0	1.376261E+0	1.301695E+0	1.383873E+0	1.331993E+0	1.374771E+0	1.294761E+0	1.315076E+0	1.343947E+0	1.356429E+0	1.414072E+0	1.325542E+0	1.349807E+0	1.330799E+0	1.394969E+0	1.334357E+0	1.327166E+0	1.344462E+0	1.409608E+0	1.302980E+0	1.324541E+0	1.343954E+0	1.338845E+0
5.520480E+2	1.416725E+0	1.350112E+0	1.311858E+0	1.267381E+0	1.371312E+0	1.324484E+0	1.338274E+0	1.354976E+0	1.352103E+0	1.351463E+0	1.354219E+0	1.351498E+0	1.334196E+0	1.322493E+0	1.366023E+0	1.318300E+0	1.348829E+0	1.340322E+0	1.344806E+0	1.312468E+0	1.330023E+0	1.388472E+0	1.352486E+0	1.279418E+0	1.374740E+0	1.323433E+0	1.304447E+0	1.297465E+0	1.327747E+0	1.355055E+0	1.333293E+0	1.309094E+0	1.363392E+0	1.360878E+0	1.310668E+0	1.383975E+0	1.306335E+0	1.384913E+0	1.310768E+0	1.351765E+0	1.335615E+0	1.345489E+0	1.395365E+0	1.367717E+0	1.324482E+0	1.360237E+0	1.311099E+0	1.319625E+0	1.344237E+0	1.365114E+0	1.325761E+0	1.315271E+0	1.353494E+0	1.330896E+0	1.342288E+0	1.361876E+0	1.356222E+0	1.325438E+0	1.376719E+0	1.348243E+0	1.348298E+0	1.351854E+0	1.334181E+0	1.264748E+0	1.326686E+0	1.340936E+0	1.368723E+0	1.326268E+0	1.358268E+0	1.381936E+0	1.357385E+0	1.340233E+0	1.277895E+0	1.394715E+0	1.333892E+0	1.333617E+0	1.303166E+0	1.327829E+0	1.323692E+0	1.332454E+0	1.297000E+0	1.373978E+0	1.339158E+0	1.289371E+0	1.335530E+0	1.346964E+0	1.383449E+0	1.351695E+0	1.361704E+0	1.353485E+0	1.278672E+0	1.311912E+0	1.329626E+0	1.419400E+0	1.302322E+0	1.284499E+0	1.314697E+0	1.332067E+0	1.338902E+0	1.344816E+0	1.358040E+0	1.373119E+0	1.342574E+0	1.328901E+0	1.347979E+0	1.345382E+0	1.345307E+0	1.349508E+0	1.292691E+0	1.342624E+0	1.357079E+0	1.332020E+0	1.317259E+0	1.400505E+0	1.298804E+0	1.323234E+0	1.363735E+0	1.357681E+0	1.312143E+0	1.313005E+0	1.360587E+0	1.352182E+0	1.293102E+0	1.343198E+0	1.307723E+0	1.352584E+0	1.349702E+0	1.330533E+0	1.320928E+0	1.371509E+0	1.384540E+0	1.287784E+0	1.336683E+0	1.355396E+0	1.311199E+0	1.314795E+0	1.332864E+0	1.305927E+0	1.348234E+0	1.319982E+0	1.338293E+0	1.384224E+0	1.294492E+0	1.327582E+0	1.351352E+0	1.307583E+0	1.352337E+0	1.297550E+0	1.332667E+0	1.352458E+0	1.338240E+0	1.323033E+0	1.279060E+0	1.340542E+0	1.274932E+0	1.262662E+0	1.296691E+0	1.327079E+0	1.330142E+0	1.337846E+0	1.312400E+0	1.275914E+0	1.298217E+0	1.315032E+0	1.320171E+0	1.322063E+0	1.284548E+0	1.336196E+0	1.286948E+0	1.343061E+0
5.527590E+2	1.320536E+0	1.294721E+0	1.323953E+0	1.274025E+0	1.367845E+0	1.339453E+0	1.284471E+0	1.300884E+0	1.360048E+0	1.385253E+0	1.351274E+0	1.319371E+0	1.357217E+0	1.351056E+0	1.301188E+0	1.329953E+0	1.320887E+0	1.316598E+0	1.274642E+0	1.327226E+0	1.321915E+0	1.308769E+0	1.314648E+0	1.351114E+0	1.380417E+0	1.314742E+0	1.347871E+0	1.292175E+0	1.263366E+0	1.330130E+0	1.307744E+0	1.296431E+0	1.276910E+0	1.294370E+0	1.248882E+0	1.348419E+0	1.304503E+0	1.319595E+0	1.346307E+0	1.270087E+0	1.380978E+0	1.351855E+0	1.369277E+0	1.320151E+0	1.309630E+0	1.293808E+0	1.291546E+0	1.314751E+0	1.302498E+0	1.299670E+0	1.341150E+0	1.308296E+0	1.306415E+0	1.349253E+0	1.295949E+0	1.303103E+0	1.337576E+0	1.328633E+0	1.254215E+0	1.340742E+0	1.320244E+0	1.333830E+0	1.296976E+0	1.224141E+0	1.290805E+0	1.312719E+0	1.282230E+0	1.301242E+0	1.315681E+0	1.355428E+0	1.313694E+0	1.297869E+0	1.362197E+0	1.337816E+0	1.341572E+0	1.313043E+0	1.298968E+0	1.364094E+0	1.323745E+0	1.338332E+0	1.281664E+0	1.388895E+0	1.275706E+0	1.317389E+0	1.313328E+0	1.339563E+0	1.288826E+0	1.312613E+0	1.333930E+0	1.360783E+0	1.260283E+0	1.312918E+0	1.355237E+0	1.354194E+0	1.291679E+0	1.270058E+0	1.350341E+0	1.324003E+0	1.297613E+0	1.347413E+0	1.343433E+0	1.271556E+0	1.350123E+0	1.311793E+0	1.312476E+0	1.327830E+0	1.283823E+0	1.358358E+0	1.303784E+0	1.305312E+0	1.262251E+0	1.318489E+0	1.309624E+0	1.310105E+0	1.331202E+0	1.317362E+0	1.341543E+0	1.324943E+0	1.314272E+0	1.313763E+0	1.341734E+0	1.378635E+0	1.365058E+0	1.344127E+0	1.312807E+0	1.318625E+0	1.293585E+0	1.315419E+0	1.307591E+0	1.284896E+0	1.334326E+0	1.366265E+0	1.329959E+0	1.334935E+0	1.343073E+0	1.300765E+0	1.278201E+0	1.278529E+0	1.382764E+0	1.291095E+0	1.310004E+0	1.327616E+0	1.316723E+0	1.281145E+0	1.321161E+0	1.351158E+0	1.302305E+0	1.284276E+0	1.296756E+0	1.285763E+0	1.306612E+0	1.280877E+0	1.311803E+0	1.330023E+0	1.302630E+0	1.297640E+0	1.303445E+0	1.373188E+0	1.329853E+0	1.305405E+0	1.314416E+0	1.288926E+0	1.340057E+0	1.271262E+0	1.273904E+0	1.300883E+0	1.278451E+0	1.253245E+0	1.302312E+0	1.412372E+0
5.535050E+2	1.181810E+0	1.226201E+0	1.237716E+0	1.173168E+0	1.241857E+0	1.173926E+0	1.218922E+0	1.212889E+0	1.180970E+0	1.232149E+0	1.172155E+0	1.221415E+0	1.226532E+0	1.226279E+0	1.171430E+0	1.150892E+0	1.175808E+0	1.222042E+0	1.185399E+0	1.234811E+0	1.201581E+0	1.183394E+0	1.185932E+0	1.134072E+0	1.241710E+0	1.206040E+0	1.208148E+0	1.216397E+0	1.230381E+0	1.182652E+0	1.207443E+0	1.226655E+0	1.204560E+0	1.167185E+0	1.188985E+0	1.223248E+0	1.145094E+0	1.184550E+0	1.243515E+0	1.157453E+0	1.169018E+0	1.197187E+0	1.215280E+0	1.165015E+0	1.176364E+0	1.190832E+0	1.203795E+0	1.165925E+0	1.171157E+0	1.257928E+0	1.183454E+0	1.249968E+0	1.208365E+0	1.238853E+0	1.182344E+0	1.171290E+0	1.180034E+0	1.210007E+0	1.136771E+0	1.210184E+0	1.189003E+0	1.198311E+0	1.149415E+0	1.197131E+0	1.166467E+0	1.147896E+0	1.168138E+0	1.192832E+0	1.149010E+0	1.222197E+0	1.154510E+0	1.184384E+0	1.215911E+0	1.176342E+0	1.169079E+0	1.179213E+0	1.203918E+0	1.195566E+0	1.157498E+0	1.219653E+0	1.160932E+0	1.260209E+0	1.216158E+0	1.108990E+0	1.183515E+0	1.217921E+0	1.210963E+0	1.220319E+0	1.216664E+0	1.206722E+0	1.217033E+0	1.162998E+0	1.204532E+0	1.196687E+0	1.207975E+0	1.146238E+0	1.156551E+0	1.220771E+0	1.178077E+0	1.231318E+0	1.172771E+0	1.154981E+0	1.188368E+0	1.201532E+0	1.206370E+0	1.196773E+0	1.162902E+0	1.200710E+0	1.183565E+0	1.204862E+0	1.232037E+0	1.181217E+0	1.227425E+0	1.142931E+0	1.168219E+0	1.166521E+0	1.211256E+0	1.173597E+0	1.166787E+0	1.199107E+0	1.204635E+0	1.190460E+0	1.199598E+0	1.185889E+0	1.264836E+0	1.171475E+0	1.127768E+0	1.171999E+0	1.167225E+0	1.166203E+0	1.213443E+0	1.200505E+0	1.200834E+0	1.187351E+0	1.222496E+0	1.184136E+0	1.210761E+0	1.230941E+0	1.228493E+0	1.180768E+0	1.169889E+0	1.226226E+0	1.204038E+0	1.250760E+0	1.208597E+0	1.188854E+0	1.179350E+0	1.170113E+0	1.111748E+0	1.166012E+0	1.155136E+0	1.197300E+0	1.202126E+0	1.190532E+0	1.177725E+0	1.182848E+0	1.192511E+0	1.212707E+0	1.154401E+0	1.146538E+0	1.220148E+0	1.210368E+0	1.168819E+0	1.194736E+0	1.178530E+0	1.214102E+0	1.198453E+0	1.166338E+0	1.184488E+0	1.187864E+0
5.542580E+2	1.064263E+0	1.068252E+0	1.143564E+0	1.090731E+0	1.067483E+0	1.077644E+0	1.056838E+0	1.093389E+0	1.058597E+0	1.098029E+0	1.067598E+0	1.053728E+0	1.148691E+0	1.125349E+0	1.102394E+0	1.090651E+0	1.057848E+0	1.053843E+0	1.100341E+0	1.075237E+0	1.091486E+0	1.114675E+0	1.090282E+0	1.076367E+0	1.128491E+0	1.088098E+0	1.134722E+0	1.075269E+0	1.108029E+0	1.074895E+0	1.112152E+0	1.083973E+0	1.099482E+0	1.118298E+0	1.064416E+0	1.101833E+0	1.088938E+0	1.081475E+0	1.074175E+0	1.124438E+0	1.095010E+0	1.061847E+0	1.064491E+0	1.058389E+0	1.070636E+0	1.080147E+0	1.076707E+0	1.087865E+0	1.081842E+0	1.075660E+0	1.087688E+0	1.068481E+0	1.065199E+0	1.066298E+0	1.131310E+0	1.053864E+0	1.068986E+0	1.117450E+0	1.037248E+0	1.098292E+0	1.114089E+0	1.098759E+0	1.067428E+0	1.078629E+0	1.064160E+0	1.072993E+0	1.027418E+0	1.071679E+0	1.055468E+0	1.077635E+0	1.088712E+0	1.048900E+0	1.080291E+0	1.114884E+0	1.108156E+0	1.027009E+0	1.063886E+0	1.089870E+0	1.022480E+0	1.057240E+0	1.055526E+0	1.089926E+0	1.093801E+0	1.068060E+0	1.105158E+0	1.093665E+0	1.106116E+0	1.115931E+0	1.073384E+0	1.079938E+0	1.130087E+0	1.028035E+0	1.114197E+0	1.094168E+0	1.099766E+0	1.068385E+0	1.101724E+0	1.063491E+0	1.066478E+0	1.076429E+0	1.103029E+0	1.095698E+0	1.091788E+0	1.094903E+0	1.103607E+0	1.117903E+0	1.029276E+0	1.067352E+0	1.102862E+0	1.117847E+0	1.079292E+0	1.105311E+0	1.087074E+0	1.041873E+0	1.106752E+0	1.095494E+0	1.109938E+0	1.134853E+0	1.124189E+0	1.097283E+0	1.118943E+0	1.148047E+0	1.085962E+0	1.045859E+0	1.061299E+0	1.104037E+0	1.115944E+0	1.087126E+0	1.053035E+0	1.129186E+0	1.085149E+0	1.083217E+0	1.049587E+0	1.105740E+0	1.110160E+0	1.074774E+0	1.099178E+0	9.980059E-1	1.131572E+0	1.113115E+0	1.053423E+0	1.084550E+0	1.092574E+0	1.082577E+0	1.074607E+0	1.149691E+0	1.061105E+0	1.047314E+0	1.053207E+0	1.134048E+0	1.145659E+0	1.070234E+0	1.091445E+0	1.103356E+0	1.105552E+0	1.061836E+0	1.112500E+0	1.102701E+0	1.030848E+0	1.081263E+0	1.112752E+0	1.122194E+0	1.038153E+0	1.064165E+0	1.113242E+0	1.079331E+0	1.067765E+0	1.027145E+0	1.048557E+0	1.027781E+0
5.550080E+2	1.053632E+0	1.048800E+0	1.040900E+0	1.056556E+0	1.005822E+0	1.022080E+0	1.036125E+0	1.041054E+0	1.055341E+0	1.017947E+0	1.022674E+0	1.026692E+0	1.031329E+0	1.053631E+0	1.061539E+0	1.034013E+0	1.019712E+0	9.658407E-1	9.951824E-1	1.036664E+0	9.739595E-1	1.074193E+0	1.018861E+0	9.951421E-1	1.035367E+0	1.002705E+0	1.039409E+0	1.025282E+0	1.030749E+0	1.020932E+0	1.054158E+0	1.068594E+0	9.769763E-1	1.012436E+0	9.971135E-1	1.027529E+0	1.032859E+0	1.026115E+0	9.964427E-1	9.738975E-1	1.039731E+0	1.091130E+0	1.058483E+0	1.033616E+0	1.024084E+0	1.033683E+0	1.013683E+0	1.014044E+0	1.015711E+0	1.042200E+0	1.006474E+0	9.636047E-1	9.988511E-1	1.040871E+0	1.028951E+0	1.054980E+0	1.049571E+0	1.081034E+0	1.040213E+0	1.068997E+0	1.029803E+0	1.039418E+0	1.033863E+0	9.795491E-1	1.022300E+0	1.029284E+0	1.034996E+0	1.019893E+0	1.002616E+0	1.045203E+0	1.008364E+0	1.014305E+0	1.042121E+0	9.854363E-1	1.006431E+0	9.573369E-1	1.005950E+0	1.013141E+0	9.968516E-1	1.001748E+0	1.023188E+0	9.975907E-1	1.056846E+0	9.916424E-1	1.031815E+0	9.723777E-1	1.020590E+0	9.735024E-1	1.022064E+0	9.981471E-1	1.048570E+0	1.057891E+0	1.024275E+0	1.041593E+0	1.009128E+0	1.003659E+0	9.872752E-1	1.054384E+0	1.010096E+0	1.007662E+0	9.768007E-1	9.632760E-1	1.022174E+0	1.006981E+0	1.021231E+0	1.026291E+0	1.081922E+0	1.005646E+0	1.026186E+0	1.012160E+0	1.018826E+0	1.045055E+0	1.039664E+0	1.003082E+0	1.042769E+0	1.054004E+0	1.054329E+0	1.015450E+0	1.015322E+0	1.036713E+0	1.079877E+0	1.070399E+0	1.022803E+0	1.025868E+0	1.037212E+0	1.058364E+0	1.018510E+0	9.881002E-1	1.046232E+0	1.025859E+0	1.040455E+0	1.010389E+0	9.956638E-1	1.048808E+0	1.063956E+0	1.008999E+0	1.018289E+0	1.004688E+0	1.028354E+0	1.030000E+0	1.029242E+0	1.037192E+0	1.001033E+0	9.925043E-1	1.063574E+0	1.027221E+0	1.057318E+0	1.041907E+0	9.783701E-1	1.012920E+0	1.034322E+0	1.031894E+0	1.041018E+0	1.032684E+0	1.027816E+0	1.031123E+0	9.901502E-1	1.072875E+0	1.010158E+0	1.036144E+0	1.025660E+0	1.033598E+0	9.759899E-1	1.008811E+0	9.901725E-1	1.018188E+0	1.005956E+0	9.771220E-1	1.014492E+0	1.123889E+0
5.558050E+2	1.012691E+0	1.091892E+0	1.000268E+0	1.036279E+0	1.047912E+0	1.065753E+0	1.059334E+0	1.075196E+0	1.045634E+0	1.050338E+0	1.042731E+0	1.022319E+0	1.034601E+0	1.016703E+0	1.014416E+0	9.883716E-1	1.035914E+0	1.069241E+0	1.010546E+0	1.000330E+0	1.039044E+0	1.014542E+0	1.026409E+0	9.962652E-1	1.023704E+0	1.061959E+0	9.786337E-1	9.995934E-1	1.015436E+0	9.939560E-1	1.043750E+0	1.007078E+0	9.897332E-1	9.917936E-1	9.976712E-1	1.024824E+0	1.057177E+0	1.050496E+0	1.039628E+0	1.024291E+0	1.047640E+0	9.889966E-1	1.026773E+0	1.033169E+0	1.048998E+0	1.012456E+0	1.043693E+0	1.021332E+0	1.039771E+0	1.011582E+0	1.020996E+0	1.032797E+0	1.051385E+0	9.960471E-1	1.048236E+0	1.016983E+0	1.042193E+0	9.966889E-1	1.027478E+0	9.923429E-1	1.003408E+0	1.020642E+0	1.027739E+0	9.904678E-1	1.005623E+0	1.068417E+0	1.016174E+0	1.082790E+0	1.024232E+0	1.015506E+0	1.021062E+0	1.003880E+0	9.926438E-1	1.058940E+0	1.029413E+0	9.994568E-1	1.018058E+0	1.064020E+0	1.021871E+0	9.867030E-1	1.043733E+0	9.754734E-1	1.016927E+0	1.050682E+0	1.018500E+0	1.013618E+0	1.024477E+0	1.011674E+0	1.023136E+0	1.069911E+0	1.025621E+0	1.028504E+0	1.038883E+0	1.059029E+0	1.043981E+0	1.020819E+0	1.004580E+0	9.982720E-1	1.000935E+0	1.033971E+0	1.059691E+0	1.039767E+0	1.036293E+0	1.046192E+0	1.036769E+0	1.050542E+0	1.006356E+0	9.743765E-1	9.828918E-1	1.010463E+0	1.031750E+0	1.006582E+0	1.012327E+0	1.034473E+0	1.087458E+0	1.060213E+0	1.048150E+0	1.019156E+0	9.869957E-1	1.057876E+0	1.021196E+0	1.004165E+0	1.056406E+0	1.082854E+0	9.929759E-1	1.028731E+0	1.034838E+0	1.060100E+0	9.451463E-1	9.769493E-1	1.028385E+0	1.049267E+0	1.041744E+0	1.005952E+0	1.073721E+0	1.002961E+0	9.795092E-1	1.010802E+0	1.062281E+0	1.006569E+0	1.028278E+0	1.020196E+0	1.024977E+0	9.985127E-1	1.109051E+0	1.074995E+0	1.029247E+0	9.709410E-1	1.025487E+0	1.048395E+0	1.033096E+0	1.016057E+0	9.817804E-1	9.864310E-1	1.038268E+0	1.002013E+0	9.872956E-1	1.025901E+0	9.961128E-1	1.049783E+0	1.052767E+0	1.017285E+0	1.015258E+0	1.002606E+0	1.011558E+0	1.032547E+0	1.014067E+0	1.026352E+0	1.029359E+0	1.036110E+0
5.560080E+2	9.849190E-1	1.022712E+0	1.024343E+0	1.030515E+0	1.006544E+0	1.006986E+0	1.006947E+0	9.890703E-1	1.037149E+0	1.003599E+0	9.658091E-1	1.020844E+0	1.012180E+0	1.025267E+0	1.026408E+0	9.995195E-1	1.010467E+0	9.685068E-1	1.029570E+0	1.009523E+0	1.005284E+0	1.000378E+0	9.953988E-1	9.903764E-1	1.027467E+0	1.008373E+0	9.782996E-1	9.803597E-1	1.028084E+0	1.043891E+0	1.025558E+0	1.013510E+0	1.010372E+0	9.846433E-1	1.063580E+0	1.021472E+0	1.014113E+0	1.042795E+0	9.810347E-1	1.022884E+0	9.936754E-1	1.029898E+0	1.021777E+0	1.046960E+0	1.030620E+0	1.069978E+0	1.019899E+0	9.902724E-1	1.025330E+0	1.040698E+0	9.998147E-1	9.993731E-1	1.005621E+0	1.036608E+0	1.034956E+0	1.035134E+0	1.022043E+0	1.034290E+0	1.002136E+0	1.019202E+0	1.040541E+0	9.952200E-1	1.009843E+0	1.017101E+0	1.011679E+0	1.020041E+0	1.002735E+0	9.696862E-1	1.010085E+0	1.031357E+0	9.934564E-1	1.011219E+0	1.000411E+0	1.028449E+0	1.016674E+0	9.870025E-1	1.019468E+0	9.958453E-1	1.041027E+0	1.025631E+0	1.029143E+0	1.050302E+0	9.871395E-1	1.034092E+0	1.038794E+0	9.911740E-1	1.042491E+0	9.977897E-1	1.028863E+0	9.960792E-1	1.074791E+0	1.006766E+0	9.821034E-1	1.035956E+0	1.010475E+0	9.940410E-1	1.010881E+0	1.021260E+0	1.006459E+0	1.015230E+0	1.000791E+0	9.959146E-1	1.004835E+0	1.030686E+0	1.000184E+0	9.975401E-1	1.015390E+0	1.016470E+0	1.048608E+0	9.852773E-1	1.063096E+0	9.916512E-1	9.992322E-1	9.975362E-1	9.934909E-1	9.658850E-1	1.013632E+0	1.020764E+0	1.015527E+0	1.023342E+0	1.050770E+0	1.038847E+0	9.840226E-1	1.032250E+0	1.013199E+0	1.042974E+0	9.817461E-1	9.949382E-1	1.016279E+0	1.050669E+0	9.718941E-1	1.032564E+0	9.402060E-1	1.021021E+0	1.038281E+0	9.945626E-1	1.060894E+0	1.019949E+0	9.814516E-1	1.056732E+0	1.010700E+0	1.032450E+0	1.054970E+0	1.004024E+0	9.610145E-1	1.016872E+0	9.910800E-1	1.020766E+0	1.015882E+0	1.048699E+0	9.736528E-1	1.033587E+0	1.002964E+0	1.002449E+0	1.012837E+0	1.015623E+0	1.007599E+0	1.025670E+0	1.015801E+0	1.031218E+0	1.045022E+0	1.045995E+0	1.023819E+0	1.066074E+0	9.789474E-1	1.007651E+0	1.011836E+0	1.029382E+0	9.897000E-1	1.059670E+0
5.565090E+2	1.007513E+0	1.002264E+0	9.962109E-1	8.970372E-1	9.756476E-1	1.001777E+0	1.014964E+0	1.037422E+0	1.047496E+0	9.978606E-1	9.752576E-1	1.006392E+0	1.013099E+0	9.888349E-1	1.045561E+0	9.972514E-1	9.792009E-1	9.908557E-1	1.013132E+0	9.834374E-1	1.017629E+0	9.864084E-1	9.821168E-1	1.015680E+0	9.892911E-1	9.693048E-1	1.003836E+0	9.937393E-1	9.943254E-1	1.011931E+0	9.798574E-1	9.584159E-1	9.655757E-1	9.964592E-1	9.930625E-1	1.011031E+0	9.875152E-1	9.904187E-1	9.744864E-1	1.023605E+0	9.868328E-1	1.014150E+0	9.931914E-1	1.005512E+0	1.024220E+0	9.484125E-1	1.003969E+0	9.960610E-1	1.004301E+0	9.515476E-1	1.006464E+0	1.013342E+0	1.002505E+0	1.008668E+0	1.014954E+0	9.999164E-1	1.031286E+0	9.666770E-1	1.001372E+0	9.923326E-1	1.008167E+0	1.022091E+0	9.750274E-1	9.797983E-1	9.736307E-1	1.010034E+0	1.037752E+0	1.030165E+0	9.876734E-1	1.010977E+0	9.836417E-1	9.898883E-1	1.011203E+0	9.792637E-1	9.934494E-1	9.809844E-1	9.972020E-1	1.029556E+0	9.948660E-1	9.498536E-1	9.268972E-1	9.662936E-1	1.007442E+0	1.020850E+0	9.891565E-1	9.654043E-1	9.731535E-1	9.735254E-1	9.889131E-1	1.011521E+0	1.005326E+0	9.851174E-1	9.720440E-1	1.010990E+0	1.034373E+0	9.812979E-1	9.852019E-1	1.009266E+0	1.028404E+0	1.046994E+0	9.886789E-1	1.018485E+0	9.526651E-1	9.734761E-1	9.896551E-1	9.815608E-1	1.018226E+0	9.633561E-1	9.421405E-1	1.027441E+0	9.883536E-1	1.006492E+0	9.986661E-1	1.006378E+0	9.826438E-1	1.000155E+0	1.020247E+0	9.811464E-1	9.990428E-1	9.758858E-1	9.471335E-1	9.765994E-1	9.590306E-1	9.518008E-1	1.010682E+0	9.784182E-1	9.933706E-1	1.003915E+0	9.589676E-1	1.019775E+0	1.036424E+0	9.786305E-1	1.027668E+0	9.803154E-1	1.001343E+0	9.808242E-1	9.934923E-1	9.903562E-1	9.692441E-1	9.985413E-1	1.017477E+0	9.739210E-1	9.840694E-1	9.812173E-1	9.711251E-1	1.031620E+0	9.772870E-1	9.847863E-1	1.008906E+0	9.986177E-1	9.878637E-1	9.947330E-1	9.973024E-1	1.017971E+0	9.890042E-1	9.689367E-1	9.925400E-1	9.685488E-1	9.733380E-1	1.023805E+0	9.969703E-1	1.050278E+0	1.009175E+0	9.996160E-1	9.684420E-1	1.041841E+0	1.063064E+0	1.003080E+0	8.888670E-1	1.027248E+0
5.570330E+2	9.899296E-1	9.798311E-1	9.791525E-1	9.880459E-1	1.007851E+0	1.001093E+0	9.843137E-1	9.591559E-1	9.804856E-1	9.986249E-1	9.666765E-1	9.779330E-1	1.009310E+0	9.932224E-1	9.965367E-1	9.585658E-1	1.002592E+0	9.882239E-1	9.975385E-1	9.939939E-1	9.783618E-1	9.864994E-1	9.720383E-1	1.030095E+0	9.634520E-1	1.063664E+0	1.041098E+0	1.042268E+0	9.677857E-1	1.020793E+0	9.988493E-1	1.008507E+0	1.005196E+0	1.038487E+0	1.024313E+0	9.902198E-1	1.018172E+0	9.785589E-1	1.003627E+0	9.894396E-1	1.008842E+0	1.014473E+0	1.037813E+0	9.924290E-1	1.012544E+0	9.650657E-1	9.924288E-1	9.833422E-1	9.428631E-1	9.480546E-1	9.984897E-1	9.656128E-1	9.861624E-1	1.003699E+0	9.831879E-1	9.873255E-1	1.022726E+0	9.960538E-1	1.001201E+0	9.802147E-1	9.972953E-1	1.015270E+0	1.019946E+0	9.936080E-1	1.027675E+0	1.014353E+0	1.013575E+0	9.797897E-1	1.038827E+0	9.787742E-1	1.036672E+0	9.621121E-1	1.019489E+0	1.023144E+0	9.426154E-1	9.815531E-1	1.027852E+0	1.013451E+0	1.019887E+0	9.473005E-1	9.914456E-1	9.972861E-1	1.034075E+0	1.010423E+0	9.813913E-1	9.775821E-1	9.604608E-1	9.938938E-1	9.677743E-1	9.642769E-1	1.044450E+0	1.032081E+0	1.019097E+0	9.872953E-1	9.993791E-1	9.823168E-1	9.877478E-1	9.887467E-1	9.566846E-1	1.024977E+0	9.940653E-1	9.609473E-1	9.893085E-1	1.020743E+0	9.460571E-1	1.004976E+0	1.036919E+0	1.020146E+0	9.964365E-1	1.001412E+0	9.630550E-1	9.970126E-1	9.874804E-1	9.862642E-1	1.003188E+0	9.689087E-1	9.985244E-1	1.005117E+0	9.832608E-1	9.694346E-1	9.971194E-1	9.775896E-1	1.066275E+0	9.703627E-1	9.850621E-1	9.861148E-1	9.489562E-1	9.790511E-1	9.934033E-1	9.604686E-1	1.013134E+0	9.744683E-1	9.910090E-1	9.923107E-1	1.007191E+0	1.027914E+0	1.004628E+0	9.844629E-1	9.712818E-1	9.684530E-1	9.872550E-1	9.762442E-1	1.011729E+0	9.996741E-1	9.946259E-1	1.021102E+0	9.688640E-1	1.019529E+0	9.820966E-1	1.034554E+0	9.616927E-1	9.940061E-1	1.029873E+0	9.769658E-1	1.029075E+0	9.878037E-1	1.020010E+0	9.677352E-1	1.026359E+0	9.501549E-1	9.648184E-1	9.843994E-1	9.790539E-1	9.962388E-1	1.038351E+0	9.878050E-1	9.655237E-1	1.014438E+0	9.746988E-1	9.043196E-1
5.575300E+2	1.010582E+0	1.009302E+0	9.718767E-1	9.962146E-1	9.730947E-1	9.658865E-1	9.616507E-1	1.017647E+0	8.993840E-1	9.723394E-1	9.909207E-1	9.538017E-1	9.808358E-1	9.932764E-1	9.749140E-1	9.570392E-1	9.967779E-1	9.809108E-1	9.857800E-1	9.760727E-1	9.708394E-1	9.759008E-1	9.628719E-1	9.419142E-1	9.620874E-1	9.882428E-1	9.509264E-1	9.804747E-1	9.702845E-1	9.583013E-1	9.893009E-1	9.880982E-1	9.927326E-1	9.604998E-1	9.723724E-1	9.802615E-1	9.794459E-1	9.575860E-1	9.910640E-1	1.017667E+0	9.745864E-1	9.715831E-1	1.008228E+0	9.979948E-1	9.759002E-1	9.976255E-1	9.503702E-1	1.008323E+0	9.580850E-1	9.860089E-1	9.614993E-1	9.132617E-1	9.671229E-1	9.607860E-1	9.832534E-1	9.391378E-1	9.669300E-1	9.980347E-1	9.747657E-1	9.845354E-1	9.708379E-1	9.693429E-1	9.697330E-1	9.592544E-1	9.605833E-1	1.006363E+0	1.002609E+0	9.914203E-1	9.512405E-1	9.337952E-1	9.246428E-1	9.683311E-1	9.527931E-1	9.661273E-1	9.481384E-1	9.804585E-1	9.563793E-1	9.630342E-1	9.579441E-1	9.659520E-1	9.735825E-1	9.515864E-1	9.689172E-1	9.862989E-1	1.027030E+0	1.023170E+0	9.806834E-1	9.942030E-1	9.446852E-1	9.909087E-1	9.789933E-1	9.865587E-1	9.437148E-1	9.328195E-1	9.617125E-1	1.003824E+0	9.383690E-1	9.884731E-1	9.621762E-1	9.699361E-1	9.625834E-1	9.733456E-1	9.716194E-1	9.831110E-1	9.875244E-1	9.904013E-1	9.660604E-1	9.548991E-1	9.441771E-1	9.854136E-1	1.002521E+0	9.773080E-1	9.704452E-1	9.949836E-1	9.307802E-1	9.752882E-1	9.918106E-1	9.643005E-1	9.931705E-1	9.489043E-1	9.917445E-1	1.008918E+0	9.805642E-1	9.715975E-1	9.914034E-1	9.772726E-1	9.986109E-1	9.461460E-1	9.890539E-1	9.659828E-1	9.100403E-1	9.801086E-1	9.580607E-1	9.567224E-1	9.670705E-1	9.563326E-1	9.345943E-1	9.449778E-1	9.516331E-1	9.375626E-1	9.780620E-1	9.963392E-1	9.555504E-1	9.758397E-1	9.966380E-1	9.764493E-1	9.979815E-1	9.852811E-1	9.971256E-1	9.389200E-1	9.577603E-1	9.614158E-1	9.673536E-1	9.777691E-1	9.650535E-1	9.174223E-1	9.476278E-1	9.579281E-1	9.768972E-1	9.609559E-1	9.639707E-1	9.913512E-1	9.427011E-1	9.413120E-1	9.364984E-1	9.697591E-1	9.613912E-1	9.773766E-1	9.702124E-1	9.363250E-1
5.580000E+2	9.735587E-1	9.737295E-1	9.981154E-1	9.897748E-1	1.006157E+0	9.612243E-1	1.001313E+0	9.699442E-1	9.938957E-1	9.506558E-1	9.800616E-1	9.747072E-1	9.874398E-1	9.782407E-1	9.692322E-1	9.714287E-1	9.687027E-1	9.570623E-1	9.623975E-1	9.815367E-1	9.655194E-1	9.638641E-1	1.023775E+0	9.974831E-1	9.889997E-1	9.656338E-1	1.005110E+0	9.619440E-1	9.566185E-1	9.745568E-1	1.007012E+0	9.855283E-1	1.008035E+0	9.882217E-1	9.528180E-1	9.631121E-1	9.599040E-1	9.600326E-1	9.978414E-1	9.515695E-1	9.100062E-1	9.584036E-1	9.429584E-1	9.594799E-1	9.927533E-1	9.852027E-1	9.796272E-1	9.813992E-1	9.839067E-1	1.023063E+0	9.753755E-1	1.014983E+0	1.018397E+0	9.729308E-1	9.621146E-1	1.007122E+0	9.630057E-1	9.551120E-1	1.056611E+0	9.612148E-1	9.682104E-1	9.877807E-1	1.004344E+0	9.405212E-1	9.606564E-1	9.318322E-1	9.723764E-1	9.891383E-1	9.480184E-1	9.719643E-1	9.409878E-1	9.734377E-1	9.511906E-1	9.751487E-1	1.012598E+0	9.846605E-1	1.009025E+0	9.930469E-1	9.639435E-1	9.841162E-1	9.230067E-1	1.018347E+0	9.643689E-1	1.000626E+0	9.766585E-1	9.885113E-1	1.003877E+0	9.842704E-1	1.021702E+0	9.639477E-1	1.008232E+0	9.380892E-1	1.015791E+0	9.956884E-1	1.010431E+0	9.764497E-1	9.877210E-1	9.692111E-1	9.794859E-1	9.888964E-1	9.803502E-1	9.669511E-1	9.673508E-1	1.027852E+0	9.749220E-1	9.642258E-1	9.710602E-1	9.633341E-1	1.019524E+0	9.941285E-1	9.849481E-1	9.496633E-1	9.441921E-1	9.616441E-1	9.561049E-1	1.011820E+0	9.457971E-1	9.954793E-1	9.671892E-1	9.915017E-1	9.808357E-1	1.011110E+0	9.929655E-1	9.816808E-1	9.534847E-1	9.795032E-1	9.701392E-1	9.946945E-1	9.828702E-1	9.177297E-1	9.671353E-1	9.584120E-1	1.025129E+0	1.011593E+0	9.497873E-1	9.725828E-1	9.411029E-1	9.690387E-1	9.819496E-1	1.002798E+0	9.967963E-1	9.789090E-1	9.650193E-1	1.005576E+0	9.513701E-1	1.005710E+0	9.544323E-1	9.954680E-1	9.553100E-1	9.467375E-1	9.910445E-1	9.702491E-1	9.777810E-1	9.788602E-1	9.586613E-1	9.635457E-1	9.980576E-1	1.013444E+0	9.678413E-1	9.720553E-1	1.008494E+0	9.633993E-1	1.005143E+0	1.005955E+0	1.007257E+0	9.953492E-1	9.933807E-1	9.732132E-1	1.018075E+0	9.898020E-1
5.585100E+2	1.012111E+0	1.010519E+0	1.027680E+0	9.744087E-1	1.033047E+0	1.043399E+0	9.984702E-1	1.025773E+0	9.938464E-1	1.040118E+0	1.014079E+0	9.758540E-1	1.029534E+0	9.932349E-1	1.012469E+0	1.003366E+0	1.047905E+0	1.005820E+0	1.030872E+0	9.887182E-1	1.020159E+0	9.813814E-1	1.045623E+0	9.852278E-1	1.084395E+0	1.018015E+0	1.042510E+0	9.730298E-1	1.037439E+0	9.829253E-1	1.025203E+0	1.036501E+0	1.020909E+0	1.037404E+0	1.018527E+0	1.035533E+0	1.020241E+0	1.040352E+0	9.852162E-1	9.989151E-1	9.988229E-1	1.073553E+0	9.988775E-1	9.620703E-1	1.025297E+0	1.027299E+0	1.028023E+0	9.994939E-1	9.958203E-1	1.007698E+0	1.036494E+0	1.055364E+0	9.952533E-1	9.828652E-1	9.855986E-1	9.949290E-1	1.011262E+0	1.020902E+0	1.021210E+0	1.017884E+0	9.708924E-1	1.015182E+0	1.035246E+0	1.003460E+0	1.047080E+0	9.954690E-1	1.047780E+0	1.048098E+0	1.038088E+0	1.003442E+0	1.028960E+0	9.937913E-1	9.945937E-1	1.066842E+0	1.041289E+0	1.027311E+0	9.919490E-1	1.000422E+0	1.012128E+0	1.052606E+0	1.005522E+0	1.008446E+0	1.036558E+0	1.039624E+0	9.991333E-1	1.006776E+0	9.874691E-1	1.028807E+0	9.940503E-1	1.020252E+0	9.606063E-1	1.020599E+0	1.052280E+0	1.032978E+0	1.035696E+0	1.020777E+0	1.047667E+0	9.937409E-1	1.006843E+0	9.790464E-1	1.025764E+0	9.964743E-1	1.010292E+0	9.823347E-1	1.025115E+0	9.509477E-1	1.051103E+0	1.021163E+0	1.041723E+0	1.011924E+0	9.857414E-1	1.009928E+0	1.094749E+0	1.037462E+0	1.045696E+0	9.882847E-1	1.026135E+0	1.018211E+0	1.041061E+0	1.008271E+0	1.001648E+0	1.007046E+0	1.010119E+0	1.023154E+0	9.995151E-1	1.056976E+0	1.028550E+0	1.013367E+0	1.027858E+0	1.026213E+0	1.004159E+0	1.047166E+0	1.036273E+0	1.015849E+0	1.018844E+0	1.004863E+0	1.010663E+0	1.038792E+0	1.044158E+0	1.014235E+0	1.019882E+0	1.037062E+0	1.038804E+0	1.009971E+0	1.011307E+0	1.006635E+0	1.031941E+0	1.011971E+0	9.983575E-1	1.038736E+0	1.028480E+0	9.906301E-1	9.785075E-1	1.044106E+0	9.868146E-1	1.061023E+0	1.025999E+0	1.022787E+0	1.004747E+0	9.993150E-1	1.017629E+0	1.013504E+0	9.815297E-1	1.011131E+0	1.044329E+0	1.012414E+0	1.020509E+0	9.980041E-1	9.860232E-1	9.950956E-1
5.590100E+2	1.025529E+0	1.012203E+0	1.033834E+0	9.871296E-1	9.944379E-1	1.033591E+0	1.031507E+0	1.016824E+0	1.036738E+0	1.006640E+0	1.078998E+0	1.033909E+0	1.002060E+0	1.055414E+0	9.999883E-1	1.055785E+0	1.007337E+0	1.062264E+0	1.043783E+0	1.009690E+0	1.039751E+0	1.030873E+0	1.025904E+0	1.036689E+0	1.036555E+0	1.048001E+0	1.006268E+0	9.860145E-1	1.053178E+0	1.006531E+0	1.029383E+0	1.049624E+0	1.046870E+0	1.041438E+0	1.033601E+0	1.022589E+0	1.055088E+0	1.022627E+0	1.052761E+0	1.023129E+0	1.087990E+0	9.814729E-1	1.016027E+0	1.009243E+0	1.053680E+0	1.053053E+0	1.041698E+0	1.033629E+0	1.032825E+0	1.015786E+0	1.051982E+0	1.060047E+0	1.081657E+0	1.068844E+0	1.067442E+0	1.025664E+0	1.011624E+0	1.046833E+0	1.018211E+0	1.048134E+0	1.051390E+0	1.045955E+0	1.046634E+0	1.038718E+0	1.052930E+0	1.042579E+0	9.806289E-1	1.049277E+0	9.822233E-1	1.023342E+0	1.092957E+0	1.033054E+0	1.062516E+0	9.882699E-1	1.035166E+0	1.032068E+0	1.040697E+0	1.042539E+0	1.084038E+0	1.001583E+0	1.076810E+0	1.013524E+0	1.056520E+0	9.987900E-1	1.000592E+0	1.029351E+0	1.033117E+0	1.029896E+0	1.031426E+0	1.056488E+0	1.020433E+0	9.953249E-1	1.015089E+0	1.020454E+0	1.042443E+0	1.013517E+0	1.030515E+0	1.022801E+0	1.098137E+0	1.020520E+0	1.031043E+0	1.087955E+0	1.042999E+0	1.046586E+0	1.051468E+0	1.063026E+0	1.048552E+0	1.053357E+0	1.025886E+0	1.040605E+0	1.045593E+0	1.037715E+0	9.815196E-1	1.019285E+0	1.078598E+0	1.031800E+0	1.026533E+0	1.050501E+0	1.038246E+0	1.022944E+0	1.081979E+0	1.033055E+0	1.033161E+0	1.103440E+0	1.026967E+0	9.949118E-1	1.038944E+0	1.054768E+0	1.026520E+0	1.016124E+0	1.047499E+0	1.094728E+0	1.025990E+0	1.051169E+0	1.053817E+0	1.060032E+0	1.048304E+0	1.088156E+0	1.044759E+0	1.034594E+0	1.007680E+0	1.020756E+0	1.041168E+0	1.050648E+0	1.045924E+0	9.944212E-1	1.084387E+0	1.015854E+0	1.055611E+0	9.958047E-1	1.034726E+0	1.068152E+0	1.078804E+0	1.088992E+0	1.045896E+0	1.107962E+0	1.055390E+0	1.031454E+0	1.037565E+0	1.088043E+0	1.028755E+0	1.042999E+0	1.063205E+0	9.942561E-1	1.084688E+0	1.029193E+0	1.031170E+0	9.830029E-1	1.125698E+0	1.018187E+0
5.595110E+2	1.043899E+0	1.026914E+0	1.010996E+0	9.448719E-1	1.004306E+0	1.042513E+0	1.032117E+0	1.016926E+0	1.057935E+0	1.007801E+0	1.039149E+0	1.047811E+0	1.004995E+0	1.035193E+0	1.016564E+0	1.024358E+0	1.036827E+0	1.008208E+0	1.012829E+0	1.023402E+0	1.041069E+0	1.035789E+0	1.035892E+0	1.043833E+0	1.020731E+0	1.051156E+0	1.010601E+0	1.014286E+0	1.022420E+0	1.021275E+0	9.945794E-1	9.560890E-1	9.778238E-1	1.001106E+0	9.899479E-1	1.000161E+0	1.054706E+0	1.054777E+0	1.038401E+0	1.035154E+0	1.023494E+0	1.004288E+0	9.924128E-1	1.010096E+0	1.033319E+0	9.715974E-1	1.014890E+0	1.036994E+0	1.056056E+0	1.051141E+0	9.943112E-1	1.018886E+0	9.770197E-1	1.003356E+0	1.032654E+0	1.053026E+0	1.012900E+0	1.080676E+0	9.886597E-1	9.938950E-1	1.010960E+0	9.926574E-1	1.009686E+0	9.876519E-1	9.955982E-1	1.015064E+0	9.939117E-1	1.028625E+0	1.026780E+0	1.026171E+0	1.022004E+0	1.062287E+0	1.070342E+0	1.048671E+0	1.020279E+0	1.039422E+0	1.040823E+0	1.023042E+0	1.035851E+0	1.061312E+0	1.015710E+0	1.071036E+0	1.022197E+0	1.010724E+0	1.015981E+0	1.024781E+0	1.044628E+0	1.031964E+0	1.039844E+0	1.013795E+0	1.029006E+0	9.971551E-1	9.811942E-1	1.021561E+0	1.039620E+0	1.041619E+0	1.035663E+0	1.068777E+0	1.033362E+0	1.004639E+0	1.026276E+0	1.044037E+0	1.059943E+0	9.938442E-1	1.013641E+0	1.095570E+0	1.015778E+0	1.020898E+0	1.041325E+0	9.934887E-1	1.047905E+0	1.023012E+0	1.024738E+0	9.855342E-1	1.058066E+0	1.032444E+0	9.974007E-1	1.020775E+0	1.026303E+0	1.078937E+0	1.027080E+0	1.023536E+0	1.005367E+0	1.016753E+0	1.016636E+0	1.015817E+0	1.048880E+0	9.953028E-1	1.021123E+0	1.055145E+0	1.031837E+0	1.012985E+0	1.036721E+0	1.015320E+0	1.015434E+0	1.031748E+0	1.016746E+0	1.017597E+0	1.040289E+0	1.003781E+0	1.024903E+0	9.910756E-1	1.021123E+0	1.024024E+0	1.054488E+0	1.002248E+0	1.019771E+0	1.037497E+0	1.007364E+0	9.911589E-1	1.054658E+0	1.048670E+0	9.784859E-1	9.744925E-1	1.043812E+0	1.004447E+0	9.979044E-1	1.023461E+0	1.014178E+0	1.025096E+0	1.021671E+0	1.030975E+0	1.070573E+0	9.927473E-1	1.010010E+0	9.978568E-1	1.026285E+0	1.016439E+0	9.894872E-1	1.021114E+0
5.600010E+2	1.002412E+0	1.004382E+0	9.743316E-1	1.133631E+0	1.003433E+0	1.000474E+0	9.997614E-1	9.884841E-1	9.511971E-1	1.009612E+0	1.029606E+0	1.063388E+0	1.020550E+0	9.819397E-1	9.927504E-1	1.024099E+0	1.032517E+0	1.041053E+0	9.719833E-1	1.033836E+0	9.946603E-1	1.008085E+0	1.018195E+0	1.015858E+0	1.008323E+0	9.888774E-1	1.045497E+0	1.044795E+0	1.035872E+0	1.022229E+0	9.869327E-1	1.002950E+0	1.014695E+0	1.002446E+0	1.026749E+0	9.924129E-1	1.006627E+0	9.657132E-1	1.022823E+0	1.009155E+0	1.029512E+0	1.006197E+0	1.039644E+0	1.055976E+0	9.863501E-1	1.018164E+0	9.842280E-1	1.021987E+0	1.001106E+0	9.718463E-1	1.050444E+0	1.016503E+0	1.008779E+0	1.034084E+0	9.845605E-1	9.693207E-1	1.003105E+0	9.639968E-1	9.964213E-1	1.020547E+0	9.874805E-1	1.004204E+0	9.840158E-1	1.033321E+0	1.006505E+0	1.008416E+0	1.000472E+0	1.010375E+0	1.082259E+0	1.009653E+0	1.014929E+0	1.015298E+0	1.027438E+0	9.730832E-1	1.008074E+0	1.012994E+0	9.809984E-1	9.910904E-1	9.829701E-1	1.007142E+0	1.048840E+0	9.477763E-1	1.006924E+0	9.729711E-1	1.002800E+0	1.009877E+0	1.027515E+0	9.915958E-1	1.022796E+0	9.809041E-1	9.713346E-1	1.008956E+0	1.038804E+0	9.930047E-1	9.848900E-1	1.020368E+0	9.835374E-1	9.847628E-1	1.009871E+0	1.005049E+0	9.972485E-1	9.933730E-1	1.042067E+0	9.972217E-1	1.011307E+0	9.897120E-1	1.012844E+0	9.979713E-1	1.018606E+0	9.672640E-1	9.682955E-1	1.016731E+0	9.948177E-1	1.040823E+0	9.994609E-1	1.050105E+0	1.023255E+0	1.027536E+0	9.851196E-1	1.017008E+0	9.993006E-1	9.922877E-1	1.006665E+0	9.897631E-1	1.052175E+0	9.818334E-1	1.034188E+0	1.023605E+0	1.016115E+0	1.014788E+0	1.033917E+0	9.925161E-1	1.001941E+0	9.766068E-1	1.003831E+0	1.007723E+0	1.033263E+0	9.460562E-1	1.011694E+0	9.816442E-1	1.017403E+0	1.024584E+0	9.872976E-1	1.004705E+0	9.968328E-1	1.005460E+0	9.975718E-1	1.001047E+0	9.779194E-1	1.000412E+0	1.028393E+0	9.955482E-1	9.954229E-1	1.007610E+0	1.001878E+0	1.010025E+0	1.007115E+0	1.018895E+0	1.035198E+0	9.771856E-1	1.021761E+0	1.015676E+0	1.003911E+0	1.015501E+0	1.004846E+0	1.016133E+0	1.000492E+0	1.040339E+0	1.030886E+0	1.014878E+0
5.605090E+2	9.396483E-1	9.908667E-1	9.810464E-1	1.068938E+0	9.858002E-1	9.601288E-1	9.563229E-1	9.752847E-1	9.787488E-1	9.703293E-1	9.835993E-1	9.521634E-1	9.703681E-1	9.674256E-1	9.802312E-1	1.004237E+0	9.664436E-1	1.003448E+0	9.785780E-1	9.819025E-1	9.787114E-1	1.002495E+0	9.524508E-1	9.698288E-1	9.465727E-1	9.596267E-1	9.881322E-1	1.024541E+0	9.689743E-1	9.811505E-1	9.622023E-1	9.771286E-1	9.590316E-1	9.502749E-1	9.445087E-1	9.275606E-1	9.363096E-1	9.941703E-1	9.627162E-1	9.544222E-1	1.000548E+0	9.732533E-1	9.622988E-1	9.518594E-1	8.935759E-1	9.566137E-1	9.487650E-1	9.620292E-1	1.005408E+0	9.918088E-1	9.124982E-1	9.740634E-1	9.868867E-1	9.752962E-1	9.434406E-1	9.863164E-1	9.353884E-1	9.584389E-1	9.407342E-1	9.953944E-1	9.941680E-1	9.632987E-1	9.767936E-1	1.014494E+0	9.729338E-1	9.763623E-1	9.778134E-1	9.389495E-1	9.439426E-1	9.506480E-1	9.632938E-1	1.015858E+0	9.459152E-1	9.376721E-1	9.810151E-1	9.655091E-1	9.768867E-1	9.394610E-1	9.548190E-1	1.021337E+0	1.020681E+0	9.575600E-1	9.581717E-1	9.131451E-1	9.650740E-1	9.773109E-1	9.855520E-1	9.725968E-1	9.657721E-1	9.649845E-1	9.207082E-1	9.861946E-1	9.918112E-1	9.786779E-1	9.122054E-1	9.552369E-1	9.866540E-1	9.424758E-1	9.608026E-1	9.958665E-1	9.897604E-1	9.763122E-1	9.505789E-1	9.582547E-1	9.891192E-1	9.598468E-1	8.998804E-1	1.022662E+0	9.520933E-1	9.742802E-1	9.612784E-1	9.958354E-1	9.699009E-1	1.003166E+0	9.683434E-1	9.669275E-1	9.884714E-1	9.580067E-1	9.579442E-1	9.574667E-1	9.457380E-1	9.547805E-1	9.528145E-1	9.891927E-1	9.825407E-1	9.899685E-1	9.735698E-1	9.495328E-1	9.873998E-1	9.710791E-1	1.012295E+0	9.613782E-1	9.610940E-1	9.987014E-1	9.612116E-1	1.003565E+0	9.905252E-1	9.917604E-1	1.008079E+0	9.802543E-1	9.230988E-1	9.661848E-1	9.376631E-1	9.521122E-1	9.803981E-1	9.624159E-1	9.706404E-1	9.091951E-1	9.669516E-1	9.937332E-1	9.890521E-1	9.549602E-1	1.020141E+0	9.485409E-1	9.923443E-1	9.757189E-1	9.699992E-1	9.891369E-1	9.686985E-1	9.680003E-1	9.400840E-1	9.303008E-1	9.302733E-1	9.541135E-1	9.690310E-1	9.402499E-1	9.332636E-1	9.710024E-1	9.857302E-1	1.010866E+0
5.610410E+2	1.009900E+0	9.672773E-1	1.002413E+0	9.894332E-1	1.009682E+0	9.829262E-1	1.012634E+0	1.003470E+0	1.023124E+0	1.042419E+0	9.758428E-1	9.931975E-1	9.696270E-1	9.879517E-1	9.853456E-1	1.004351E+0	9.512296E-1	9.936479E-1	9.735355E-1	1.017887E+0	9.880160E-1	1.028326E+0	9.857347E-1	9.730149E-1	9.721253E-1	9.391061E-1	9.277218E-1	9.985485E-1	9.650185E-1	9.764170E-1	1.001122E+0	1.023649E+0	9.987590E-1	9.990203E-1	9.805203E-1	1.055647E+0	9.678786E-1	9.929697E-1	9.900289E-1	9.740583E-1	9.856907E-1	9.727274E-1	9.867720E-1	1.008380E+0	9.717411E-1	1.006988E+0	1.036101E+0	9.864698E-1	9.942990E-1	1.012348E+0	1.012627E+0	9.685631E-1	9.705951E-1	9.528626E-1	1.007839E+0	1.002108E+0	1.019730E+0	9.789858E-1	9.986787E-1	9.866458E-1	1.000058E+0	9.889978E-1	9.687312E-1	1.032072E+0	9.907277E-1	9.794868E-1	9.703472E-1	9.644752E-1	9.908620E-1	1.059876E+0	9.984560E-1	9.747233E-1	9.641092E-1	1.013329E+0	1.000702E+0	1.008038E+0	9.587214E-1	1.008512E+0	9.525264E-1	9.831658E-1	9.883620E-1	1.017843E+0	9.576883E-1	1.012457E+0	1.003389E+0	1.006062E+0	9.610543E-1	1.001457E+0	9.941744E-1	1.036844E+0	9.861193E-1	1.043157E+0	9.880714E-1	9.905754E-1	9.687751E-1	1.010553E+0	1.006043E+0	1.010486E+0	9.577743E-1	9.488464E-1	1.003439E+0	9.862041E-1	1.008341E+0	9.858908E-1	1.011007E+0	1.002193E+0	9.641873E-1	9.657437E-1	9.694806E-1	1.018766E+0	9.892134E-1	9.946508E-1	1.034259E+0	9.669240E-1	9.836278E-1	1.008383E+0	9.681928E-1	9.581634E-1	9.931353E-1	1.006306E+0	9.766509E-1	9.762325E-1	1.009017E+0	9.700051E-1	9.683356E-1	9.962109E-1	9.830454E-1	1.044678E+0	9.804097E-1	1.002025E+0	9.716660E-1	9.670427E-1	9.959089E-1	9.803910E-1	9.831892E-1	9.598521E-1	9.657866E-1	1.008854E+0	9.954597E-1	1.021405E+0	1.016743E+0	1.002474E+0	1.002607E+0	9.922081E-1	1.036275E+0	9.770665E-1	1.006044E+0	1.018605E+0	1.034477E+0	1.012627E+0	9.926775E-1	9.880484E-1	9.733644E-1	9.822438E-1	9.746238E-1	9.874942E-1	9.777572E-1	9.809387E-1	9.793772E-1	1.004170E+0	9.908234E-1	9.311227E-1	9.906159E-1	1.023055E+0	9.575998E-1	1.001748E+0	9.930845E-1	9.937221E-1	1.040622E+0	1.022494E+0
