Photon Energy (eV)	#1	#2	#3	#4	#5	#6	#7	#8	#9	#10	#11	#12	#13	#14	#15	#16	#17	#18	#19	#20	#21	#22	#23	#24	#25	#26	#27	#28	#29	#30	#31	#32	#33	#34	#35	#36	#37	#38	#39	#40	#41	#42	#43	#44	#45	#46	#47	#48	#49	#50	#51	#52	#53	#54	#55	#56	#57	#58	#59	#60	#61	#62	#63	#64	#65	#66	#67	#68	#69	#70	#71	#72	#73	#74	#75	#76	#77	#78	#79	#80	#81	#82	#83	#84	#85	#86	#87	#88	#89	#90	#91	#92	#93	#94	#95	#96	#97	#98	#99	#100	#101	#102	#103	#104	#105	#106	#107	#108	#109	#110	#111	#112	#113	#114	#115	#116	#117	#118	#119	#120	#121	#122	#123	#124	#125	#126	#127	#128	#129	#130	#131	#132	#133	#134	#135	#136	#137	#138	#139	#140	#141	#142	#143	#144	#145	#146	#147	#148	#149	#150	#151	#152	#153	#154	#155	#156	#157	#158	#159	#160	#161	#162	#163	#164	#165	#166	#167	#168	#169	#170	#171	#172	
5.300370E+2	-7.003794E-3	-4.984125E-3	-9.474072E-3	-2.470981E-3	-5.547498E-3	-7.158725E-3	-3.477203E-3	-8.484909E-3	-4.102171E-3	-1.265903E-2	-8.780585E-3	-7.831655E-3	3.512698E-3	-8.959765E-3	-3.915276E-3	3.558986E-4	-1.040971E-2	-4.772414E-3	-4.928631E-3	-1.291814E-3	-4.271732E-3	-2.900800E-4	-8.829470E-3	-3.960699E-3	-3.695608E-3	-7.400353E-3	-6.299508E-3	-4.311308E-3	1.601797E-3	-1.309062E-2	-5.436150E-3	4.954547E-3	-9.044585E-3	-8.843620E-3	-9.753774E-3	-9.207441E-3	-9.701955E-3	-7.992950E-3	4.367389E-4	-7.537199E-3	-7.538484E-4	-1.106535E-2	-9.444044E-3	-5.955994E-3	1.315652E-3	-7.720829E-3	-6.706858E-3	-4.027760E-3	1.765271E-3	-4.336938E-3	2.198787E-3	7.533854E-4	-5.759444E-3	-6.968825E-3	-1.127340E-2	-6.734876E-3	-1.305296E-2	-3.240508E-3	-8.601489E-3	-4.965333E-3	-1.868658E-3	-7.121740E-3	-8.072391E-3	-4.409597E-3	-1.214356E-2	-3.276235E-3	-6.444058E-3	-2.649555E-3	-5.843635E-3	-6.225969E-3	-1.012560E-4	-1.057782E-2	-8.187220E-3	-6.334820E-3	2.298610E-4	-6.741492E-3	-9.381664E-3	-5.503484E-3	-6.379725E-3	-9.739536E-3	-1.339244E-2	-1.102069E-2	-8.818117E-3	-6.501551E-3	-5.847843E-3	-1.326399E-2	1.473966E-3	-8.245567E-3	-1.289759E-2	-7.304551E-3	-7.171469E-4	-9.707088E-3	4.440671E-4	-1.201839E-2	-8.497655E-3	-1.237276E-3	-1.314608E-2	4.461418E-4	-9.760667E-3	-8.302604E-3	-4.776765E-3	-4.134078E-3	-3.550105E-3	-9.970709E-3	-8.742432E-3	-7.411962E-3	-3.949820E-3	-7.298196E-3	-7.499399E-3	-5.549505E-3	-1.284103E-2	-5.969144E-3	-9.927164E-3	-6.650988E-3	-3.112364E-3	-4.795125E-3	-8.492531E-3	-4.618246E-3	-1.693214E-2	-3.359068E-3	-9.400667E-3	1.531709E-3	-2.533928E-3	-4.335931E-3	-5.278164E-3	-3.787496E-3	1.346593E-3	-8.193342E-3	-4.338705E-3	-9.881689E-3	-5.404883E-3	-9.169232E-3	-3.829689E-3	-4.287770E-3	-1.072204E-3	8.459686E-4	-4.617133E-3	-5.628386E-3	4.331239E-3	-1.167672E-2	-5.492485E-3	-8.966316E-3	-6.660054E-3	-3.051160E-3	-1.336261E-3	-1.312349E-2	-6.601253E-3	-4.474732E-4	-2.918668E-3	3.190105E-3	-7.203647E-3	-6.532934E-3	-7.907618E-3	-7.440650E-3	-1.098907E-2	1.409378E-3	-8.543070E-3	-5.704067E-3	-7.278298E-3	-3.492254E-3	-6.462101E-5	-8.749795E-3	-4.852244E-3	-1.015399E-2	9.181767E-4	-9.717410E-3	-7.488075E-3	-7.681778E-3	-9.185829E-3	-9.863054E-3	-1.733733E-3	-6.937912E-3
5.305180E+2	2.729770E-3	-7.591739E-3	-5.745811E-3	-9.124582E-3	-4.030053E-3	3.382427E-4	-1.364721E-2	-4.712511E-3	-3.522866E-3	-6.877918E-3	-1.102345E-2	-9.009041E-3	-6.930266E-3	-2.844790E-3	-1.991549E-3	-3.565553E-3	-3.601178E-3	-9.168696E-3	-2.611536E-3	-7.648668E-3	-6.920057E-3	-5.812858E-3	4.387927E-3	-8.193753E-3	7.968804E-4	-9.745231E-3	-6.864059E-3	5.885224E-4	-6.545906E-3	-7.294492E-3	-5.764991E-3	-8.324534E-3	3.098360E-3	1.932798E-4	-7.546671E-3	-2.146166E-3	-4.361696E-3	-4.944342E-3	-6.332026E-4	-6.512305E-3	-7.281499E-3	4.553925E-3	-2.715708E-3	-7.062397E-3	-5.091382E-3	-4.268237E-4	-2.613350E-3	-5.773140E-3	-6.917121E-3	-5.456707E-3	-7.748719E-3	7.582690E-4	-1.460707E-3	-8.328863E-4	-4.116279E-3	4.037119E-4	-2.084181E-3	-2.701931E-3	-8.633757E-3	-3.870694E-3	-4.215480E-3	-8.707921E-3	4.011300E-4	-7.538877E-3	7.723981E-4	-1.036611E-2	-1.100425E-2	-2.716881E-3	-3.801534E-3	-4.438912E-3	-3.688280E-4	3.602294E-3	-5.218911E-3	-4.180739E-3	-3.645317E-3	-1.673237E-3	-1.583369E-3	-4.036575E-3	-9.770675E-3	-3.907081E-3	3.941140E-3	-7.654073E-3	-4.399078E-3	-2.605698E-3	2.575948E-3	-8.645629E-3	-2.828063E-3	-4.757328E-3	-1.241947E-2	-2.990083E-4	-2.015437E-3	-2.632450E-4	-2.002378E-3	-3.101520E-3	-6.053721E-3	-7.152539E-3	-2.924527E-3	2.811649E-3	6.395426E-3	-2.297123E-4	-2.494894E-3	-1.102345E-2	-8.026933E-3	-1.850756E-3	-1.117144E-2	3.945057E-3	-5.710115E-3	-2.693097E-3	3.048284E-3	-3.072436E-3	-7.897034E-3	-3.087939E-3	-5.036697E-3	2.496547E-3	-1.084553E-2	1.624423E-3	-7.967198E-3	-9.436256E-3	-1.429188E-4	-5.367813E-3	-5.725481E-3	-2.874539E-3	-4.020379E-3	-6.611210E-3	1.516467E-4	-6.962576E-3	-5.915481E-3	-9.894532E-3	-3.138182E-3	-2.075929E-3	-7.212969E-3	-9.801326E-3	2.723429E-3	6.455624E-4	-1.429958E-3	-7.133214E-3	-1.472210E-3	-1.057076E-2	-4.865834E-3	-5.429338E-3	-1.055512E-2	-4.745054E-3	-1.147665E-2	-3.391196E-3	-2.650505E-3	-5.239754E-3	-7.916991E-4	-6.614405E-3	6.074293E-3	-2.836673E-3	-7.958012E-3	-9.558960E-3	-5.387799E-3	-2.164819E-3	-7.602756E-3	-6.444271E-3	-3.565991E-4	-5.120533E-3	-3.947562E-3	-4.336332E-3	-1.458290E-3	-1.012151E-2	-1.033427E-2	-8.359376E-3	-9.784113E-3	-2.232345E-3	-2.731865E-3	3.974917E-3	-7.757899E-3	-1.274243E-2	2.237058E-2	-1.127867E-2
5.310100E+2	-5.061753E-3	-6.777283E-3	-3.677495E-3	8.865229E-3	-6.269151E-3	-8.839369E-3	-1.752228E-3	-7.804538E-3	-1.200474E-3	-1.297959E-3	-3.210650E-3	6.566858E-3	-2.457611E-3	-4.516855E-3	-5.475410E-3	-3.790597E-3	-3.558365E-3	-7.356957E-3	-3.641604E-3	1.239593E-3	-1.707598E-3	2.884936E-3	-5.452294E-3	-1.829067E-3	-5.067117E-3	-4.849578E-4	2.668024E-3	-2.505944E-3	-2.011541E-3	5.888023E-3	7.465205E-3	-1.034575E-2	-6.754622E-3	-4.521129E-3	6.709303E-3	-1.371800E-3	-4.286511E-3	-3.078093E-3	-4.303424E-3	-4.092521E-3	3.092095E-3	-1.044802E-2	4.285696E-3	-4.028269E-3	-3.005260E-3	-3.097938E-3	-1.088742E-3	-9.716310E-4	4.429055E-3	-7.645118E-4	-1.079218E-2	-9.050776E-3	5.254252E-3	-4.976921E-3	-9.908348E-4	-6.448030E-3	7.977775E-3	1.308010E-3	1.034715E-3	-4.219941E-3	-7.067772E-3	6.579309E-3	-7.243463E-4	-4.603980E-3	1.095013E-2	2.178430E-3	-4.522269E-3	-5.742338E-3	2.329951E-3	-8.976122E-4	-1.138294E-2	-4.411634E-3	5.093516E-4	-4.005764E-3	-9.127715E-3	-4.041155E-3	-1.851862E-3	-5.683421E-3	3.675476E-3	2.051745E-3	6.035172E-3	-2.822703E-3	-7.582122E-3	2.576285E-3	-5.576672E-3	3.548852E-4	-8.098113E-3	-7.524084E-3	1.275154E-2	-3.081824E-3	-9.500369E-3	2.733135E-3	1.950242E-3	-7.132578E-3	-3.943911E-3	-2.207796E-3	1.146791E-2	-1.910444E-4	-4.799671E-3	-6.393724E-3	-3.142025E-3	1.044743E-2	-1.888381E-3	-3.618082E-4	4.602524E-3	-3.823328E-3	1.517498E-3	-1.340741E-3	-3.747211E-3	-1.221054E-2	-3.250019E-3	-3.355676E-3	3.293147E-3	-3.693832E-4	1.120993E-3	7.340983E-4	-3.209042E-3	-4.817951E-3	-3.393338E-3	-2.097995E-3	-8.078548E-3	-8.974287E-3	-4.371734E-3	-2.368277E-3	-1.215616E-2	2.660575E-4	-7.949926E-3	-6.546536E-3	-9.210435E-3	-9.893662E-3	-8.219723E-3	8.162347E-3	-7.044907E-3	-1.705509E-3	-2.646916E-3	-9.528158E-3	-5.148524E-3	-6.001251E-3	-4.043489E-3	-3.014571E-3	1.011494E-3	-3.676246E-3	-2.851427E-3	4.125322E-3	8.761859E-4	-8.801352E-3	2.921298E-3	-7.703901E-3	-5.303486E-3	-7.923464E-3	-3.692806E-3	-3.523178E-3	5.426033E-3	-5.387711E-3	2.887535E-3	2.343179E-3	-1.712545E-3	-7.773653E-3	-9.687385E-4	-9.017793E-3	-1.108572E-2	7.745545E-3	8.065640E-3	-1.153841E-3	-6.641822E-3	-3.871965E-3	-2.537660E-3	-3.175467E-3	1.078782E-2	2.400658E-3	-1.799202E-2	1.395979E-2
5.315080E+2	-1.025646E-2	5.407100E-3	-8.586032E-3	9.050344E-3	9.143202E-3	9.220436E-4	1.296281E-4	-3.073436E-3	-3.188771E-3	6.167008E-3	1.026556E-3	5.336001E-3	-3.440378E-3	1.676777E-3	-3.252183E-3	-4.318795E-3	3.816245E-3	2.420937E-3	-8.496040E-4	-6.921787E-4	-8.174972E-4	-5.615019E-3	2.468277E-3	-5.865171E-3	1.048742E-3	5.155647E-3	3.645804E-3	1.196211E-3	4.873544E-3	7.187219E-3	-2.896970E-3	5.994493E-3	2.675403E-3	2.964970E-3	2.020307E-3	-2.751664E-3	-3.932592E-3	2.828557E-3	-6.957994E-3	-2.772552E-3	-4.520785E-3	1.569224E-3	-1.556833E-3	-6.466419E-3	-7.496848E-4	1.515492E-3	6.552428E-3	1.829520E-3	-4.168504E-3	-3.790404E-3	4.701708E-3	3.786121E-3	-2.964105E-3	-2.398547E-3	3.240038E-3	1.510686E-3	-4.720121E-3	-4.606978E-4	9.347474E-4	6.833527E-3	3.499537E-3	-1.862082E-4	-2.515102E-3	8.413275E-3	1.535472E-3	6.355698E-3	-5.936299E-5	1.197226E-2	-2.636889E-3	-4.682044E-4	-1.553296E-3	-2.614105E-3	-4.897704E-3	4.612427E-3	-3.639373E-3	-3.647350E-4	-9.429621E-3	4.903245E-3	-1.645771E-3	3.424721E-3	3.990446E-3	6.422587E-3	-4.450758E-4	-6.436189E-3	1.434131E-4	5.969170E-3	-6.789091E-3	-1.153646E-3	2.939302E-3	-7.487387E-3	3.709294E-3	-2.286078E-4	-6.676182E-3	8.416579E-4	1.328903E-3	-2.225673E-3	1.601146E-4	-1.017894E-2	-1.049157E-2	-1.316636E-3	5.128302E-3	-3.321009E-3	-4.269412E-3	8.307783E-5	2.624008E-4	-5.702775E-3	3.739440E-3	2.022402E-3	-5.866493E-3	8.903396E-3	-4.180544E-3	-5.330120E-3	4.499174E-3	-4.308137E-3	2.767710E-3	-5.886401E-3	1.352267E-3	-1.753129E-3	2.687124E-3	-2.522298E-3	-3.876493E-3	-4.553156E-3	-8.223855E-4	3.283960E-3	3.293742E-3	3.069895E-3	3.261759E-3	9.442442E-3	-6.511212E-4	-3.919089E-4	1.883357E-3	1.695178E-3	-7.182900E-3	-4.345602E-3	1.193428E-3	5.318773E-3	4.922691E-3	8.865196E-3	9.868971E-4	3.194371E-3	-1.660982E-3	2.770312E-3	-1.412941E-3	-5.127211E-3	-5.407939E-3	7.826403E-3	2.163034E-3	-5.476809E-3	3.789144E-4	2.169355E-3	4.505755E-3	5.544416E-3	-1.519232E-3	8.851683E-3	-8.050868E-4	-5.281252E-3	1.801503E-3	-7.387894E-3	-1.037339E-3	4.088123E-3	5.934990E-3	1.860716E-3	-6.479774E-4	-2.035332E-3	9.587362E-4	3.250690E-4	-7.083743E-4	-3.265108E-3	-5.410550E-3	-7.319009E-3	-7.038361E-3	1.453754E-2
5.320070E+2	1.501955E-2	3.904906E-3	1.298970E-2	-4.958721E-3	-1.656161E-4	1.793930E-3	3.028299E-3	1.830236E-2	8.455100E-3	4.485270E-3	6.993761E-3	3.531249E-3	8.186141E-3	1.232759E-3	3.691937E-3	4.407987E-3	4.261817E-3	5.141521E-3	4.402312E-3	-1.506522E-3	2.716330E-3	-6.831413E-4	-1.077969E-3	8.463182E-3	-4.474238E-3	3.248122E-3	-2.603113E-3	-6.218935E-3	2.283257E-3	-3.774849E-3	1.160525E-3	5.115822E-3	3.613829E-3	3.927805E-3	8.231628E-3	1.039007E-2	1.147525E-2	-1.395012E-3	3.443060E-3	4.894369E-3	-9.541762E-4	7.335620E-3	-2.322560E-3	1.544000E-2	-3.325019E-4	1.064198E-3	-1.564557E-3	6.515284E-3	-4.373885E-3	2.994685E-3	8.454798E-3	-7.725648E-3	-2.279202E-3	1.081564E-2	4.120598E-3	5.536247E-3	9.952160E-3	4.434032E-3	2.957783E-3	1.949057E-3	4.504936E-3	2.623922E-3	3.773261E-3	-1.458450E-3	-2.398461E-3	-6.246178E-3	6.809788E-3	-2.452357E-3	1.106520E-2	1.191316E-2	5.691267E-3	-8.120860E-4	-1.053731E-3	1.264480E-3	1.938425E-3	1.414203E-3	1.018361E-2	6.243478E-3	6.502906E-3	2.624275E-3	-5.429839E-3	2.955906E-3	8.523323E-3	5.254368E-3	6.444225E-3	1.756493E-3	7.081151E-3	5.750814E-3	8.558522E-3	1.988128E-3	1.569954E-3	2.493215E-3	6.055056E-4	1.120374E-2	4.758865E-3	-1.236936E-3	1.235576E-3	-2.741266E-3	5.218889E-3	8.012342E-3	1.510497E-4	-2.437876E-3	7.819032E-4	3.555674E-3	3.861771E-5	7.476627E-3	4.801076E-3	9.586664E-3	1.162559E-3	3.724164E-3	9.834371E-3	8.442559E-3	2.417417E-3	6.749956E-3	3.214479E-3	9.451621E-3	6.937618E-3	8.295542E-3	7.649318E-3	-3.453813E-4	1.003967E-2	5.472679E-4	2.800723E-3	-3.629699E-4	-1.354166E-4	5.422372E-3	-3.081002E-4	-1.140876E-3	1.666400E-3	4.619698E-3	-7.152392E-4	-3.739178E-3	4.900914E-3	4.959810E-3	-4.747649E-3	3.147704E-3	-1.156726E-3	1.048880E-2	6.092919E-3	4.822052E-3	4.024032E-3	4.148754E-3	1.192839E-2	8.328567E-4	-2.496839E-4	6.415159E-3	-4.226623E-4	1.193049E-2	-3.493305E-3	-3.422683E-4	1.007230E-2	1.154166E-2	1.106416E-2	3.282541E-3	-1.601098E-3	-3.136387E-3	-3.883260E-4	3.289050E-3	6.525365E-3	5.048369E-3	-1.341638E-3	-2.864029E-4	-2.716141E-3	1.467702E-2	7.661747E-4	2.664626E-3	6.872992E-3	4.698351E-3	3.358094E-3	8.352893E-3	-6.609773E-3	1.015174E-2
5.325070E+2	4.572685E-3	1.004114E-2	1.449371E-2	-1.361290E-3	6.869116E-3	1.294388E-2	1.571872E-2	5.773036E-3	3.559182E-3	1.018263E-2	1.499437E-2	1.406588E-3	1.129417E-3	1.341187E-2	1.094248E-2	6.911060E-3	9.491187E-3	1.373561E-2	7.629063E-3	9.899590E-3	1.100055E-2	9.516163E-3	8.503529E-3	1.138551E-2	1.139134E-2	9.226773E-3	9.452853E-3	1.125145E-2	-2.011505E-4	1.108472E-2	5.472380E-3	2.605427E-3	6.411615E-3	6.278694E-3	3.392073E-4	5.087005E-3	1.080750E-2	1.458184E-2	8.014822E-3	1.602021E-2	1.041821E-2	8.054596E-3	1.175345E-2	8.073078E-3	7.863177E-3	8.665901E-3	5.421079E-3	2.427727E-3	9.265185E-3	1.135388E-2	3.185611E-3	1.147865E-2	7.209206E-3	4.361538E-3	9.019876E-3	5.732262E-3	1.927327E-3	6.610953E-4	1.230800E-2	4.273385E-3	5.147436E-3	6.812639E-3	7.137449E-3	9.597629E-3	1.284027E-3	1.135439E-2	1.522015E-2	1.588868E-3	-1.113090E-3	1.175340E-4	7.715057E-3	1.481335E-2	1.884821E-2	8.644416E-3	1.424412E-2	1.140642E-2	1.206290E-2	4.076758E-3	7.617790E-3	5.545875E-3	4.855519E-3	1.211897E-2	1.272107E-2	7.712785E-3	2.260928E-3	1.382907E-2	9.160151E-3	1.592981E-2	1.067688E-3	1.618464E-2	6.953705E-3	4.972591E-3	5.678746E-3	1.020709E-2	1.240752E-2	1.406022E-2	3.207008E-3	9.853455E-3	1.343759E-2	8.230334E-3	5.134333E-3	1.046898E-2	1.695293E-2	8.544522E-3	1.501033E-2	5.516381E-3	-3.980788E-4	-2.770318E-4	1.290226E-2	8.204923E-3	1.833426E-2	9.300320E-3	4.754123E-3	2.082005E-3	6.854715E-3	-1.128617E-3	1.137889E-2	1.233004E-2	1.013195E-2	1.369255E-2	1.704152E-2	1.432301E-2	8.947703E-3	1.039443E-2	1.412435E-2	1.991747E-3	9.565155E-3	1.633284E-2	1.567204E-2	1.762349E-2	1.966946E-2	1.285221E-2	1.043315E-2	4.733508E-3	8.703299E-3	7.348925E-3	7.471902E-3	2.846401E-3	-2.501733E-3	1.210421E-2	1.267306E-2	1.046855E-2	1.047268E-2	6.611388E-3	8.768203E-3	1.292304E-2	2.731281E-3	8.312101E-3	5.262252E-3	5.742944E-3	4.276414E-3	2.528994E-3	-1.675548E-3	2.858957E-3	1.811048E-2	1.110935E-2	9.199036E-3	2.269710E-2	6.706573E-3	7.709886E-3	8.015280E-3	9.551448E-3	1.048499E-2	7.025519E-3	1.378285E-2	1.283203E-2	6.592983E-3	5.449085E-3	8.208363E-3	1.917095E-2	1.100330E-2	-2.043248E-2
5.330080E+2	1.118314E-2	1.174340E-2	1.149750E-2	3.145912E-2	9.183028E-3	2.532880E-2	2.522069E-2	1.168032E-2	8.420077E-3	1.887404E-2	1.142191E-2	5.254680E-3	9.559311E-3	1.336582E-2	1.937361E-2	9.594080E-3	2.003763E-2	2.030834E-2	7.352685E-3	2.335494E-2	1.317646E-2	1.402295E-2	1.428810E-2	1.950141E-2	2.320464E-2	2.595259E-2	1.550273E-2	9.909207E-3	1.503548E-2	9.612957E-3	2.850939E-2	1.783259E-2	1.891874E-2	2.258441E-2	1.528870E-2	9.696093E-3	1.788116E-2	1.456274E-2	9.690285E-3	1.506958E-2	7.215808E-3	2.890857E-2	2.204466E-2	1.254990E-2	1.418230E-2	1.353019E-2	1.307724E-2	2.279402E-2	1.980365E-2	1.354137E-2	1.728339E-2	2.013806E-2	9.443840E-3	9.596839E-3	1.369423E-2	8.798892E-3	4.036271E-2	1.732137E-2	2.191021E-2	2.249433E-2	1.761011E-2	1.477131E-2	1.834186E-4	1.804608E-2	1.223834E-2	1.278973E-2	5.578759E-3	1.824504E-2	1.463537E-2	1.164203E-2	1.267593E-2	1.993052E-2	1.983852E-2	2.183448E-2	2.218196E-2	8.494869E-3	1.084077E-2	1.200284E-2	7.977791E-3	1.640491E-2	2.103765E-2	1.608352E-2	1.481025E-2	1.888809E-2	1.238794E-2	2.523024E-2	-8.018337E-4	1.154472E-2	1.360144E-2	1.777744E-2	2.169805E-2	8.175305E-3	2.315547E-2	7.648224E-3	2.025043E-2	1.056849E-2	-3.358836E-3	1.609266E-2	2.001759E-2	1.336588E-2	1.774789E-2	1.541035E-2	2.587104E-2	1.897524E-2	9.258758E-3	2.528095E-2	1.199335E-2	1.618176E-2	1.021802E-2	1.007382E-2	1.006978E-2	1.686312E-2	1.635838E-2	1.003796E-2	1.180077E-2	6.420658E-3	1.313254E-2	1.551345E-2	1.989080E-2	1.768096E-2	1.860577E-3	2.604552E-2	1.089315E-2	1.668775E-2	8.149965E-3	1.380045E-2	1.274554E-2	1.587197E-2	2.085592E-2	2.344268E-2	2.242672E-3	2.448738E-2	1.518169E-2	2.000115E-2	2.246067E-2	1.936169E-2	3.420662E-2	1.691874E-2	2.968934E-2	2.088395E-2	2.585617E-2	2.153218E-2	1.138834E-2	1.643016E-2	1.619137E-2	1.148746E-2	1.574661E-2	3.097440E-2	2.984482E-3	1.106538E-2	2.772664E-3	1.775434E-2	9.947875E-3	1.989658E-2	2.095736E-2	1.095333E-2	1.575559E-2	1.408021E-2	2.254129E-2	3.214243E-2	2.021384E-2	1.723459E-2	1.334937E-2	1.594477E-2	9.447387E-3	2.426956E-2	1.033030E-2	4.748032E-3	2.594453E-2	1.013784E-2	-1.750300E-3	-2.535513E-2
5.331520E+2	1.504567E-2	6.665952E-3	1.635254E-2	9.189953E-3	1.415140E-2	1.528173E-2	2.625432E-2	2.339744E-2	1.644890E-2	3.183510E-2	2.717011E-2	2.414405E-2	2.973881E-2	2.179702E-2	1.889565E-2	9.641284E-3	8.868661E-3	2.325902E-2	2.590024E-2	3.169357E-2	3.211060E-2	2.175719E-2	2.588441E-2	2.216500E-2	2.969075E-2	1.842914E-2	1.956007E-2	1.172256E-2	2.717795E-2	3.258901E-2	2.610381E-2	1.376931E-2	1.947650E-2	1.287134E-2	2.297650E-2	1.593935E-2	1.607475E-2	2.562737E-2	1.717601E-2	1.231872E-2	1.502176E-2	2.083268E-2	3.482301E-2	7.976429E-3	2.047154E-2	1.599855E-2	2.579253E-2	2.180436E-2	1.533394E-2	2.593034E-2	7.469519E-3	1.913092E-2	1.971787E-2	2.384700E-2	2.008413E-2	2.598212E-2	2.515968E-2	2.358137E-2	2.085452E-2	1.388438E-2	2.737253E-2	2.229071E-2	1.704358E-2	1.614536E-2	2.237567E-2	1.178637E-2	2.154434E-2	3.138296E-2	1.763444E-2	2.537914E-2	2.598263E-2	2.457115E-2	2.111422E-2	1.187871E-2	9.513298E-3	1.388749E-2	1.936984E-2	1.628148E-2	1.389382E-2	8.660600E-3	2.159172E-2	2.876550E-2	2.174127E-2	1.777885E-2	2.458653E-2	1.850862E-2	1.888315E-2	1.760940E-2	2.402645E-2	1.545639E-2	2.309964E-2	2.266905E-2	1.783484E-2	2.562147E-2	1.973282E-2	2.221872E-2	1.523881E-2	3.320833E-2	2.376523E-2	2.299141E-2	1.926771E-2	2.129129E-2	2.064104E-2	2.369960E-2	2.235128E-2	3.173915E-2	3.552492E-2	1.981932E-2	2.038827E-2	1.829645E-2	2.100840E-2	2.928453E-2	5.847983E-3	1.337502E-2	2.159675E-2	1.799358E-2	2.212621E-2	2.009465E-2	2.636475E-2	1.900214E-2	1.273326E-2	2.068318E-2	3.508304E-2	2.204503E-2	1.870411E-2	1.474653E-2	2.452175E-2	2.835434E-2	1.822597E-2	1.603371E-2	1.713132E-2	1.983902E-2	3.203877E-2	1.739293E-2	1.703460E-2	2.200624E-2	2.318277E-2	2.330651E-2	3.785271E-2	2.216835E-2	1.701205E-2	2.298420E-2	3.433713E-2	1.834070E-2	1.673848E-2	2.561460E-2	8.070377E-3	2.657716E-2	2.280040E-2	9.671474E-3	1.815278E-2	2.007152E-2	2.102463E-2	1.823431E-2	1.880468E-2	2.123314E-2	2.476872E-2	7.330235E-3	2.303227E-2	1.819011E-2	2.883702E-2	1.681635E-2	1.784331E-2	5.651660E-3	1.515322E-2	2.043342E-2	2.142494E-2	2.001975E-2	1.905276E-2	2.163318E-2	3.276427E-2	-1.530993E-2
5.333020E+2	3.904700E-2	3.140034E-2	2.170008E-2	7.542955E-2	3.714246E-2	2.077016E-2	2.849011E-2	2.250165E-2	4.224190E-2	2.531036E-2	2.118613E-2	2.021606E-2	1.140739E-2	2.260715E-2	3.103914E-2	2.342963E-2	2.533698E-2	2.024283E-2	2.281038E-2	2.712658E-2	3.478859E-2	1.061825E-2	2.311988E-2	2.158739E-2	2.178277E-2	3.145206E-2	3.400498E-2	2.249476E-2	2.027664E-2	2.330756E-2	2.459480E-2	1.851232E-2	3.080081E-2	2.093655E-2	1.771070E-2	1.907844E-2	1.768268E-2	1.656156E-2	3.074439E-2	1.255318E-2	1.392349E-2	2.265495E-2	1.988859E-2	1.921081E-2	2.253235E-2	2.224737E-2	2.706846E-2	3.356910E-2	3.078698E-2	2.101675E-2	2.356714E-2	3.132457E-2	2.094871E-2	2.194071E-2	2.213916E-2	1.903420E-2	1.829129E-2	2.147129E-2	3.029179E-2	1.835730E-2	2.370990E-2	1.051737E-2	2.874941E-2	2.256872E-2	1.716166E-2	1.511921E-2	2.054788E-2	2.957975E-2	2.985531E-2	3.441650E-2	1.797673E-2	2.443051E-2	1.941019E-2	2.875742E-2	2.529638E-2	2.714137E-2	1.893153E-2	3.320232E-2	2.695402E-2	2.260459E-2	1.047316E-2	2.714754E-2	2.133359E-2	2.137781E-2	1.850109E-2	2.451891E-2	2.860605E-2	2.053508E-2	2.235576E-2	2.530739E-2	2.450239E-2	2.690120E-2	2.917116E-2	3.281553E-2	2.396899E-2	2.108341E-2	2.766646E-2	2.336928E-2	2.455484E-2	1.894449E-2	2.719322E-2	2.480659E-2	1.804632E-2	3.108845E-2	2.029720E-2	2.381029E-2	2.853947E-2	1.455359E-2	3.105421E-2	2.297477E-2	1.075960E-2	2.721104E-2	7.027881E-3	4.471400E-2	2.466786E-2	1.745941E-2	2.138193E-2	3.665644E-2	3.570095E-2	2.197938E-2	1.882068E-2	2.858135E-2	1.812080E-2	2.279425E-2	1.869901E-2	3.109672E-2	1.982341E-2	2.170977E-2	1.093700E-2	2.199351E-2	1.107270E-2	1.523609E-2	2.442666E-2	1.585732E-2	2.373482E-2	3.359001E-2	1.552167E-2	1.204847E-2	2.991278E-2	2.649138E-2	3.042583E-2	1.991588E-2	2.749901E-2	2.570325E-2	1.749019E-2	2.384825E-2	3.173800E-2	2.354630E-2	2.141682E-2	3.472025E-2	2.876564E-2	2.598113E-2	2.490936E-2	2.512352E-2	2.431415E-2	7.124503E-3	3.486074E-2	2.452473E-2	2.282900E-2	3.148937E-2	3.611884E-2	2.208598E-2	2.734130E-2	1.350838E-2	2.846903E-2	3.658692E-2	2.607841E-2	2.137848E-2	3.915584E-2	2.003958E-2	1.167207E-2	6.841166E-4
5.334630E+2	3.916152E-2	2.493998E-2	4.795612E-2	3.091633E-2	3.766346E-2	4.009796E-2	1.900678E-2	3.937257E-2	2.813392E-2	3.605136E-2	3.205187E-2	2.808186E-2	3.589817E-2	2.761297E-2	3.064139E-2	2.821618E-2	3.167482E-2	3.688256E-2	2.975497E-2	3.325984E-2	3.753982E-2	3.870421E-2	2.544134E-2	3.441128E-2	5.080177E-2	3.280398E-2	3.243766E-2	3.225051E-2	4.218396E-2	2.988669E-2	3.763808E-2	2.629798E-2	2.826384E-2	3.440019E-2	2.428689E-2	2.848776E-2	2.537419E-2	3.127941E-2	3.389039E-2	2.780132E-2	2.424335E-2	3.470107E-2	4.108250E-2	2.820597E-2	3.871718E-2	3.829190E-2	3.719718E-2	2.790829E-2	4.611813E-2	2.969949E-2	3.524228E-2	3.092381E-2	2.247207E-2	3.281571E-2	4.114762E-2	3.459997E-2	2.998002E-2	3.354812E-2	3.532011E-2	2.341841E-2	4.171551E-2	3.079552E-2	2.882902E-2	2.506170E-2	3.041253E-2	3.514265E-2	2.663039E-2	4.025864E-2	3.144557E-2	4.100511E-2	3.332364E-2	4.006675E-2	3.526888E-2	3.228884E-2	2.373451E-2	3.128295E-2	2.885012E-2	2.805700E-2	1.882912E-2	3.592132E-2	3.157910E-2	3.162199E-2	3.990567E-2	2.666602E-2	2.844483E-2	2.896204E-2	1.976313E-2	3.066139E-2	2.256552E-2	3.468021E-2	2.931741E-2	2.360982E-2	3.141618E-2	3.141683E-2	4.349452E-2	1.972650E-2	2.568145E-2	2.830280E-2	2.105030E-2	2.336102E-2	3.292714E-2	4.041744E-2	3.569512E-2	2.720316E-2	4.323240E-2	3.926293E-2	3.233530E-2	2.853799E-2	3.280267E-2	5.071557E-2	2.331664E-2	2.251997E-2	2.943634E-2	4.164534E-2	3.402267E-2	3.036895E-2	1.946059E-2	4.320151E-2	4.197819E-2	2.746186E-2	2.618110E-2	4.167215E-2	2.211236E-2	3.765666E-2	3.227917E-2	3.606179E-2	3.324476E-2	2.882668E-2	4.085333E-2	4.221523E-2	4.887003E-2	3.908536E-2	4.746491E-2	2.769688E-2	2.930642E-2	2.422303E-2	3.527178E-2	3.513756E-2	3.491081E-2	3.147982E-2	3.244962E-2	2.819148E-2	3.645534E-2	2.541233E-2	2.829246E-2	2.981349E-2	3.372973E-2	2.887203E-2	3.979559E-2	3.388196E-2	3.164867E-2	3.957863E-2	1.704029E-2	2.165513E-2	3.469395E-2	2.283080E-2	2.173839E-2	4.314220E-2	4.179431E-2	4.309141E-2	5.638989E-2	5.162234E-2	3.503216E-2	3.877787E-2	3.232017E-2	2.995483E-2	2.185938E-2	2.863994E-2	4.307324E-2	1.374186E-2	4.201783E-2	5.713421E-2
5.336080E+2	3.473343E-2	3.889466E-2	3.776670E-2	4.165559E-2	3.715788E-2	4.199510E-2	4.559998E-2	4.878409E-2	3.773163E-2	3.488654E-2	3.426499E-2	2.742623E-2	3.998049E-2	3.610860E-2	4.392463E-2	3.336511E-2	4.686756E-2	4.362048E-2	4.667436E-2	3.502532E-2	3.888689E-2	3.640590E-2	3.803929E-2	4.168000E-2	3.662878E-2	4.505133E-2	3.978594E-2	3.953923E-2	3.800821E-2	4.329942E-2	4.366229E-2	5.020937E-2	4.198979E-2	4.262539E-2	2.770646E-2	3.089132E-2	4.454330E-2	4.290046E-2	3.654177E-2	3.513934E-2	3.903389E-2	3.847465E-2	3.932316E-2	2.995883E-2	3.493661E-2	4.774643E-2	3.811812E-2	3.315398E-2	4.269984E-2	4.140475E-2	3.521481E-2	3.913225E-2	3.699806E-2	4.043502E-2	4.289665E-2	3.417325E-2	4.518291E-2	4.822294E-2	5.268149E-2	3.478916E-2	3.009279E-2	3.216522E-2	3.476191E-2	5.076885E-2	4.812388E-2	4.206317E-2	5.134381E-2	3.958431E-2	5.685201E-2	4.363833E-2	4.210695E-2	4.198206E-2	3.826754E-2	3.842819E-2	3.882197E-2	4.046126E-2	2.848085E-2	4.472281E-2	4.254713E-2	3.138117E-2	4.341346E-2	4.743192E-2	4.620983E-2	4.710433E-2	3.581565E-2	4.051593E-2	3.902684E-2	4.029437E-2	3.841785E-2	3.530033E-2	3.583893E-2	4.263581E-2	3.977873E-2	3.389644E-2	4.301616E-2	2.608172E-2	4.051367E-2	4.791432E-2	3.589050E-2	4.726525E-2	3.804365E-2	5.146315E-2	4.990365E-2	2.898583E-2	3.127763E-2	3.986513E-2	4.197029E-2	4.164861E-2	3.758190E-2	3.279194E-2	4.032731E-2	5.108868E-2	2.425582E-2	3.402375E-2	3.114540E-2	5.205017E-2	3.722846E-2	2.792661E-2	3.938141E-2	3.556607E-2	4.286830E-2	3.755213E-2	3.398901E-2	3.175054E-2	3.847200E-2	4.145760E-2	2.639936E-2	2.885335E-2	5.105412E-2	4.335847E-2	3.900074E-2	3.611617E-2	3.699651E-2	4.574361E-2	4.712299E-2	5.151987E-2	3.848886E-2	4.880103E-2	5.045069E-2	2.908960E-2	4.456872E-2	4.537021E-2	4.901851E-2	3.204444E-2	2.695232E-2	4.824270E-2	5.423995E-2	5.616433E-2	3.550353E-2	2.692927E-2	3.772810E-2	4.192805E-2	3.448647E-2	3.940907E-2	4.122593E-2	2.398818E-2	3.934735E-2	5.114552E-2	5.484116E-2	4.509652E-2	4.537036E-2	5.677977E-2	3.812493E-2	3.480364E-2	3.411936E-2	3.856418E-2	4.938172E-2	3.953818E-2	3.955710E-2	5.057099E-2	3.759617E-2	3.649243E-2
5.337580E+2	6.094403E-2	4.334138E-2	4.340686E-2	1.035195E-1	5.443999E-2	6.076367E-2	5.919889E-2	4.926021E-2	5.124516E-2	5.311437E-2	6.152212E-2	5.089967E-2	6.458294E-2	4.233870E-2	6.377941E-2	5.411817E-2	4.751026E-2	5.853559E-2	6.379465E-2	4.200966E-2	4.982477E-2	4.556326E-2	5.168663E-2	6.134304E-2	3.924986E-2	5.261954E-2	5.337518E-2	4.674705E-2	5.081703E-2	5.314910E-2	4.957023E-2	4.758829E-2	5.100669E-2	4.346474E-2	4.028823E-2	4.785981E-2	5.221751E-2	5.261951E-2	6.275547E-2	5.492844E-2	5.794720E-2	4.806862E-2	4.168475E-2	4.925208E-2	5.378027E-2	4.994149E-2	5.130203E-2	4.080024E-2	7.272116E-2	6.368573E-2	5.122671E-2	5.226585E-2	4.735325E-2	5.164600E-2	6.853302E-2	5.746671E-2	4.058383E-2	5.660361E-2	5.213226E-2	5.209798E-2	5.216889E-2	5.867814E-2	5.079634E-2	5.080887E-2	5.868365E-2	5.963975E-2	4.298483E-2	5.641237E-2	5.190383E-2	4.370032E-2	5.234536E-2	5.953173E-2	6.648076E-2	4.056340E-2	5.212348E-2	3.830316E-2	5.495152E-2	6.289204E-2	5.084594E-2	5.200858E-2	3.709836E-2	5.154752E-2	3.862550E-2	5.048126E-2	5.450346E-2	6.267405E-2	5.369133E-2	5.439639E-2	4.378554E-2	5.963445E-2	5.860200E-2	5.353013E-2	4.646882E-2	4.906646E-2	5.401297E-2	5.744102E-2	4.473117E-2	5.499300E-2	6.434357E-2	7.301124E-2	5.598648E-2	5.388378E-2	7.232715E-2	5.537951E-2	4.600969E-2	4.448734E-2	4.910015E-2	4.690742E-2	6.135190E-2	4.639433E-2	3.754511E-2	5.693601E-2	3.530953E-2	6.127489E-2	5.297741E-2	4.720174E-2	4.798609E-2	5.814981E-2	5.069334E-2	6.948288E-2	3.976363E-2	5.515380E-2	5.325335E-2	6.010782E-2	5.176657E-2	5.813435E-2	5.038367E-2	5.937880E-2	5.327211E-2	5.319246E-2	5.429860E-2	6.201328E-2	4.795638E-2	5.264323E-2	5.612719E-2	5.842170E-2	5.049497E-2	4.298025E-2	4.887960E-2	5.935415E-2	6.747222E-2	6.167584E-2	6.094419E-2	6.082339E-2	5.973743E-2	5.511869E-2	5.413510E-2	5.923970E-2	4.291502E-2	5.617406E-2	5.943334E-2	4.707928E-2	6.434815E-2	5.706736E-2	8.026186E-2	3.895082E-2	4.733811E-2	3.609153E-2	5.109946E-2	5.311085E-2	6.589905E-2	5.400907E-2	6.679554E-2	5.566065E-2	6.820098E-2	5.104307E-2	5.963142E-2	4.879629E-2	7.079985E-2	3.794979E-2	7.136252E-2	2.135012E-2
5.339400E+2	7.410200E-2	7.603723E-2	7.957608E-2	8.166423E-2	7.923167E-2	7.766728E-2	7.487911E-2	7.328355E-2	7.004208E-2	8.220769E-2	6.660304E-2	6.632969E-2	7.239330E-2	6.613723E-2	6.762922E-2	7.722421E-2	7.872496E-2	6.866366E-2	7.360484E-2	6.470210E-2	7.855482E-2	6.682117E-2	6.030968E-2	6.320097E-2	5.892432E-2	7.393386E-2	6.263304E-2	7.552865E-2	7.709322E-2	6.580862E-2	6.893792E-2	7.261032E-2	8.561992E-2	6.524250E-2	8.572445E-2	6.320697E-2	6.301816E-2	7.573410E-2	8.321942E-2	6.737600E-2	7.816040E-2	6.541422E-2	6.661110E-2	7.816868E-2	6.198361E-2	7.368674E-2	7.733593E-2	6.967738E-2	7.912738E-2	5.258552E-2	7.910554E-2	7.336667E-2	7.141409E-2	8.345568E-2	6.907287E-2	8.263000E-2	6.415987E-2	7.278216E-2	7.158295E-2	7.503188E-2	7.483480E-2	7.345861E-2	6.917144E-2	7.298547E-2	5.829389E-2	6.043140E-2	8.489957E-2	7.542376E-2	8.151765E-2	7.307339E-2	7.752005E-2	7.709619E-2	6.891756E-2	5.955367E-2	8.035511E-2	8.058996E-2	6.869910E-2	8.658254E-2	7.057785E-2	6.632733E-2	8.202103E-2	8.603629E-2	7.233715E-2	7.160569E-2	7.474363E-2	7.413191E-2	7.126684E-2	7.376954E-2	7.019332E-2	8.778334E-2	7.639093E-2	5.761992E-2	5.535789E-2	6.577442E-2	8.155744E-2	6.089419E-2	7.136132E-2	8.883050E-2	7.988890E-2	6.879178E-2	6.062237E-2	6.771177E-2	7.524429E-2	7.129175E-2	6.489738E-2	8.821016E-2	6.307755E-2	6.850453E-2	6.098546E-2	8.393557E-2	6.801299E-2	7.778756E-2	6.387273E-2	8.938344E-2	7.783094E-2	8.121840E-2	7.801193E-2	8.009950E-2	7.804113E-2	7.587350E-2	6.380767E-2	7.701398E-2	6.516383E-2	6.536701E-2	6.380307E-2	7.187147E-2	7.903809E-2	8.012506E-2	7.226028E-2	8.214954E-2	8.089452E-2	6.675713E-2	6.394573E-2	7.717373E-2	8.006710E-2	6.881833E-2	7.771854E-2	6.760739E-2	8.898149E-2	8.021404E-2	6.411389E-2	6.410042E-2	7.362722E-2	6.423514E-2	7.958127E-2	7.432587E-2	7.176726E-2	5.605541E-2	6.447049E-2	8.862317E-2	5.948945E-2	6.909467E-2	6.057627E-2	6.321640E-2	6.640128E-2	8.217007E-2	6.907809E-2	7.330995E-2	7.787505E-2	8.533251E-2	7.433811E-2	6.773256E-2	8.437504E-2	7.743513E-2	5.913292E-2	7.894015E-2	7.377691E-2	7.838441E-2	7.959916E-2	7.378988E-2	1.026544E-1	8.867451E-2
5.340800E+2	1.098848E-1	9.323833E-2	9.831208E-2	1.106028E-1	1.210342E-1	9.463043E-2	1.226339E-1	1.130405E-1	9.224462E-2	1.019368E-1	1.028168E-1	1.023907E-1	1.077972E-1	9.598187E-2	1.047332E-1	1.132176E-1	1.082627E-1	1.059977E-1	9.582302E-2	1.022872E-1	9.508859E-2	9.997874E-2	9.032020E-2	1.072596E-1	1.026908E-1	1.082409E-1	1.067316E-1	9.864866E-2	1.082408E-1	1.126437E-1	1.079167E-1	9.954374E-2	1.053490E-1	1.060351E-1	8.828535E-2	1.055526E-1	9.860948E-2	1.015966E-1	1.016031E-1	1.043700E-1	7.684859E-2	1.106453E-1	9.359820E-2	1.017208E-1	9.806276E-2	1.121558E-1	8.715488E-2	9.906025E-2	9.331043E-2	9.199384E-2	1.074138E-1	1.150016E-1	1.064533E-1	1.060130E-1	9.566583E-2	1.116145E-1	7.543352E-2	1.128872E-1	1.039284E-1	1.011972E-1	9.891966E-2	9.936069E-2	9.525838E-2	1.057164E-1	1.065213E-1	9.758150E-2	1.003580E-1	1.002376E-1	1.046840E-1	1.105768E-1	1.083325E-1	8.616342E-2	1.081357E-1	1.073979E-1	1.004765E-1	1.023343E-1	1.037245E-1	1.184291E-1	9.204976E-2	1.014850E-1	1.043854E-1	9.504508E-2	9.696382E-2	1.041791E-1	1.084548E-1	9.669627E-2	9.414604E-2	1.060397E-1	1.143751E-1	1.017319E-1	1.130975E-1	9.246203E-2	9.847357E-2	1.055298E-1	9.171565E-2	1.049305E-1	1.116819E-1	1.004611E-1	9.711990E-2	9.759972E-2	1.085593E-1	9.963089E-2	1.002499E-1	9.879165E-2	9.366113E-2	8.848079E-2	8.503216E-2	1.027530E-1	1.056647E-1	1.171799E-1	1.083829E-1	1.105623E-1	1.037481E-1	9.890416E-2	9.592209E-2	1.133700E-1	1.020053E-1	9.943931E-2	1.192222E-1	1.113778E-1	9.083594E-2	1.018105E-1	1.064147E-1	1.193704E-1	1.086593E-1	1.078717E-1	1.009725E-1	1.099384E-1	9.920418E-2	1.033143E-1	8.822256E-2	9.813226E-2	9.810788E-2	1.110058E-1	1.056433E-1	1.064220E-1	1.068810E-1	1.066259E-1	1.188864E-1	1.059120E-1	9.931024E-2	9.394153E-2	1.071548E-1	9.333492E-2	1.112361E-1	1.133267E-1	9.722842E-2	9.235600E-2	1.011240E-1	1.097746E-1	8.970150E-2	1.142306E-1	9.748128E-2	9.332099E-2	1.297943E-1	8.444460E-2	1.100193E-1	1.096364E-1	1.081721E-1	1.055782E-1	1.119601E-1	8.982449E-2	1.031654E-1	9.978494E-2	1.170268E-1	1.137604E-1	1.186835E-1	9.982244E-2	1.375143E-1	1.234148E-1	1.033259E-1	1.048118E-1
5.342040E+2	1.499100E-1	1.469976E-1	1.569831E-1	1.518487E-1	1.551442E-1	1.398180E-1	1.380313E-1	1.574018E-1	1.395176E-1	1.235841E-1	1.711071E-1	1.515106E-1	1.527773E-1	1.625909E-1	1.630215E-1	1.566716E-1	1.365651E-1	1.435267E-1	1.518287E-1	1.487766E-1	1.698110E-1	1.471377E-1	1.530970E-1	1.512905E-1	1.537823E-1	1.569392E-1	1.381138E-1	1.615683E-1	1.555015E-1	1.474750E-1	1.747480E-1	1.519406E-1	1.486229E-1	1.587092E-1	1.520875E-1	1.303183E-1	1.531389E-1	1.658532E-1	1.533786E-1	1.575733E-1	1.519524E-1	1.396198E-1	1.399399E-1	1.399155E-1	1.288620E-1	1.570986E-1	1.677601E-1	1.499524E-1	1.560035E-1	1.580037E-1	1.491043E-1	1.546420E-1	1.618320E-1	1.531748E-1	1.580408E-1	1.538278E-1	1.517938E-1	1.718952E-1	1.522791E-1	1.454370E-1	1.437156E-1	1.500077E-1	1.532586E-1	1.439270E-1	1.583733E-1	1.680637E-1	1.544956E-1	1.650866E-1	1.471092E-1	1.612361E-1	1.591397E-1	1.641656E-1	1.551775E-1	1.425508E-1	1.698540E-1	1.496020E-1	1.530031E-1	1.460568E-1	1.636232E-1	1.484802E-1	1.580667E-1	1.651431E-1	1.474129E-1	1.389398E-1	1.557923E-1	1.586882E-1	1.514780E-1	1.506344E-1	1.547791E-1	1.592305E-1	1.530075E-1	1.593973E-1	1.477652E-1	1.422228E-1	1.429544E-1	1.521456E-1	1.384178E-1	1.437282E-1	1.310376E-1	1.809498E-1	1.390400E-1	1.570748E-1	1.812496E-1	1.684723E-1	1.517123E-1	1.495679E-1	1.628121E-1	1.550568E-1	1.705503E-1	1.634134E-1	1.619805E-1	1.835834E-1	1.550445E-1	1.625585E-1	1.631390E-1	1.661948E-1	1.640266E-1	1.473439E-1	1.581580E-1	1.498507E-1	1.705209E-1	1.294605E-1	1.384652E-1	1.488752E-1	1.542383E-1	1.541279E-1	1.686772E-1	1.703182E-1	1.533974E-1	1.660131E-1	1.311993E-1	1.436970E-1	1.756568E-1	1.469318E-1	1.581220E-1	1.736392E-1	1.588402E-1	1.502933E-1	1.695396E-1	1.605192E-1	1.332957E-1	1.555959E-1	1.469884E-1	1.691959E-1	1.575428E-1	1.487021E-1	1.373963E-1	1.509834E-1	1.580473E-1	1.527014E-1	1.602008E-1	1.456205E-1	1.488237E-1	1.489042E-1	1.722771E-1	1.461272E-1	1.546150E-1	1.651914E-1	1.624450E-1	1.487271E-1	1.664029E-1	1.367309E-1	1.667072E-1	1.764434E-1	1.403790E-1	1.504340E-1	1.635955E-1	1.588755E-1	1.557020E-1	1.302411E-1	1.655178E-1	1.854869E-1
5.343550E+2	2.542765E-1	2.414763E-1	2.525925E-1	2.176039E-1	2.463261E-1	2.664240E-1	2.523608E-1	2.264810E-1	2.638073E-1	2.629497E-1	2.566312E-1	2.431788E-1	2.315903E-1	2.700084E-1	2.749939E-1	2.535741E-1	2.708847E-1	2.546623E-1	2.621567E-1	2.699297E-1	2.403476E-1	2.552639E-1	2.388438E-1	2.485437E-1	2.720275E-1	2.612739E-1	2.560638E-1	2.342085E-1	2.717262E-1	2.700560E-1	2.590604E-1	2.633789E-1	2.447153E-1	2.435715E-1	2.807517E-1	2.566678E-1	2.710160E-1	2.565547E-1	2.592308E-1	2.574161E-1	2.399389E-1	2.474546E-1	2.316588E-1	2.426523E-1	2.647136E-1	2.634397E-1	2.635708E-1	2.539538E-1	2.689593E-1	2.513783E-1	2.519453E-1	2.545312E-1	2.649876E-1	2.728768E-1	2.476917E-1	2.412985E-1	2.329455E-1	2.548501E-1	2.762661E-1	2.682283E-1	2.508284E-1	2.498639E-1	2.568421E-1	2.628661E-1	2.470101E-1	2.354423E-1	2.550402E-1	2.406125E-1	2.382456E-1	2.558389E-1	2.565161E-1	2.562532E-1	2.450639E-1	2.604372E-1	2.535312E-1	2.726700E-1	2.758048E-1	2.582519E-1	2.794596E-1	2.541875E-1	2.832969E-1	2.738207E-1	2.726939E-1	2.425514E-1	2.716622E-1	2.749482E-1	2.370844E-1	2.535606E-1	2.629199E-1	2.628284E-1	2.698972E-1	2.405241E-1	2.513242E-1	2.584080E-1	2.644425E-1	2.481079E-1	2.440451E-1	2.731476E-1	2.651260E-1	2.606959E-1	2.486592E-1	2.547106E-1	2.443170E-1	2.591773E-1	2.580376E-1	2.546103E-1	2.608846E-1	2.505391E-1	2.593956E-1	2.540089E-1	2.420042E-1	2.583506E-1	2.548918E-1	2.544765E-1	2.444693E-1	2.301268E-1	2.740717E-1	2.551101E-1	2.666199E-1	2.434728E-1	2.691774E-1	2.464751E-1	2.569934E-1	2.704183E-1	2.496478E-1	2.861571E-1	2.806896E-1	2.614134E-1	2.681354E-1	2.638853E-1	2.488657E-1	2.440963E-1	2.667366E-1	2.724482E-1	2.623742E-1	2.721358E-1	2.758685E-1	2.481871E-1	2.625751E-1	2.626236E-1	2.613972E-1	2.551559E-1	2.913289E-1	2.520699E-1	2.772880E-1	2.523072E-1	2.781571E-1	2.317749E-1	2.593703E-1	2.391153E-1	2.576242E-1	2.624626E-1	2.698198E-1	2.613711E-1	2.942024E-1	2.726816E-1	2.672470E-1	2.661411E-1	2.529942E-1	2.498470E-1	2.750416E-1	2.317999E-1	2.967497E-1	2.633379E-1	2.577815E-1	2.305107E-1	2.875966E-1	2.491099E-1	2.677924E-1	2.551351E-1	2.887597E-1	2.287589E-1
5.345160E+2	4.516143E-1	4.618298E-1	4.586243E-1	4.599840E-1	4.537590E-1	4.742700E-1	4.595249E-1	4.392764E-1	4.829317E-1	4.727693E-1	4.715169E-1	4.525458E-1	4.580082E-1	4.671078E-1	4.513819E-1	4.403266E-1	4.656263E-1	4.661481E-1	4.835594E-1	4.814106E-1	4.553599E-1	4.975174E-1	4.879455E-1	4.711883E-1	4.661871E-1	4.699312E-1	4.833892E-1	4.461423E-1	4.981124E-1	4.842709E-1	4.448430E-1	4.785460E-1	4.899689E-1	4.684905E-1	4.765133E-1	4.706478E-1	4.612188E-1	4.496611E-1	4.634123E-1	4.708577E-1	4.717260E-1	4.584958E-1	4.840640E-1	4.830330E-1	4.647450E-1	4.556565E-1	4.807163E-1	4.808423E-1	4.693930E-1	4.866484E-1	4.406886E-1	4.859808E-1	4.849020E-1	5.039356E-1	4.473397E-1	4.699597E-1	4.940419E-1	4.924198E-1	4.667116E-1	4.655427E-1	5.103615E-1	4.703656E-1	4.684417E-1	4.492783E-1	4.753684E-1	4.550903E-1	4.307874E-1	4.693165E-1	4.514995E-1	4.636930E-1	4.963170E-1	4.724311E-1	4.753031E-1	4.732486E-1	4.762772E-1	4.961828E-1	4.530691E-1	4.802387E-1	4.608039E-1	4.845702E-1	4.786979E-1	4.899211E-1	4.589289E-1	4.666639E-1	4.825355E-1	4.422102E-1	4.697053E-1	5.096319E-1	4.830631E-1	4.734993E-1	4.529006E-1	4.513541E-1	4.928500E-1	4.836229E-1	4.543969E-1	4.453309E-1	4.840998E-1	4.676014E-1	4.858368E-1	4.629046E-1	4.730043E-1	4.564780E-1	4.632115E-1	4.657046E-1	4.660257E-1	4.757863E-1	4.899743E-1	4.251358E-1	4.677216E-1	4.699537E-1	4.875133E-1	4.874369E-1	4.601610E-1	4.925603E-1	4.654167E-1	4.765307E-1	4.567973E-1	4.689051E-1	4.672073E-1	4.681634E-1	4.596622E-1	4.814015E-1	4.817924E-1	4.536825E-1	4.573173E-1	4.595280E-1	4.487636E-1	4.816984E-1	4.920309E-1	4.737229E-1	4.816470E-1	4.865177E-1	4.777633E-1	4.639676E-1	4.703866E-1	4.722282E-1	4.964987E-1	4.608738E-1	4.863523E-1	4.734156E-1	4.338720E-1	4.627703E-1	4.725567E-1	4.695199E-1	4.537340E-1	4.756078E-1	4.630271E-1	4.715888E-1	4.964026E-1	4.920202E-1	4.939280E-1	4.788043E-1	4.822311E-1	4.535659E-1	4.627803E-1	4.611915E-1	4.503480E-1	4.725072E-1	4.604888E-1	4.669080E-1	4.768109E-1	4.713530E-1	4.800057E-1	4.742208E-1	4.658470E-1	4.764150E-1	4.750527E-1	5.055260E-1	5.162139E-1	4.560782E-1	5.166820E-1	4.610119E-1
5.346560E+2	7.357583E-1	7.308275E-1	7.150774E-1	6.254768E-1	7.108106E-1	7.341037E-1	7.694170E-1	7.590651E-1	7.504058E-1	7.134268E-1	7.500164E-1	7.618773E-1	7.556895E-1	7.639012E-1	7.889818E-1	7.159095E-1	7.084410E-1	7.627304E-1	8.064013E-1	7.513693E-1	7.663223E-1	7.627463E-1	7.680885E-1	7.654516E-1	7.558947E-1	7.627300E-1	7.546250E-1	7.024915E-1	7.647035E-1	7.528008E-1	7.859122E-1	7.498569E-1	7.293014E-1	7.282096E-1	7.890845E-1	7.053949E-1	7.397835E-1	7.731644E-1	7.776528E-1	7.471490E-1	7.196370E-1	7.348318E-1	7.459839E-1	7.392383E-1	7.893195E-1	7.591517E-1	7.191891E-1	7.352789E-1	7.733212E-1	7.625084E-1	7.631142E-1	7.960124E-1	7.511098E-1	7.594061E-1	7.860808E-1	7.456922E-1	7.906832E-1	7.608212E-1	7.754261E-1	7.579639E-1	7.700256E-1	7.238614E-1	7.392445E-1	7.592155E-1	7.222120E-1	7.508469E-1	7.277808E-1	7.428339E-1	7.331792E-1	7.595331E-1	7.603882E-1	7.524206E-1	7.422454E-1	7.295652E-1	7.507263E-1	7.992121E-1	7.636346E-1	7.340605E-1	7.409062E-1	7.605916E-1	7.614072E-1	7.588617E-1	7.400415E-1	7.757377E-1	7.481785E-1	7.882635E-1	7.746506E-1	7.279433E-1	7.402950E-1	7.689911E-1	7.794784E-1	7.501029E-1	7.035800E-1	7.377377E-1	7.227628E-1	7.392019E-1	7.635278E-1	7.426388E-1	7.687161E-1	7.415180E-1	7.486457E-1	7.717664E-1	7.658565E-1	7.637770E-1	7.435114E-1	7.405238E-1	8.060192E-1	7.272269E-1	7.589538E-1	7.570629E-1	7.635145E-1	7.606561E-1	7.390450E-1	7.494936E-1	7.850855E-1	7.258960E-1	7.504821E-1	7.566185E-1	7.226739E-1	7.654682E-1	7.522200E-1	7.637866E-1	7.903435E-1	6.858917E-1	7.199851E-1	7.467387E-1	7.308053E-1	7.565512E-1	7.228943E-1	7.429301E-1	7.349265E-1	7.428682E-1	7.642995E-1	7.512493E-1	7.715277E-1	7.962965E-1	7.982128E-1	7.490598E-1	7.601963E-1	7.737702E-1	7.769033E-1	7.421132E-1	7.269352E-1	7.451716E-1	8.087166E-1	7.861297E-1	7.243371E-1	7.634599E-1	7.201825E-1	7.517584E-1	7.618876E-1	7.571354E-1	7.849702E-1	7.700988E-1	7.638715E-1	7.350283E-1	7.171146E-1	7.715028E-1	7.373633E-1	7.364281E-1	7.670643E-1	7.467778E-1	7.656763E-1	7.470102E-1	7.408375E-1	7.386491E-1	7.611648E-1	7.818143E-1	7.862275E-1	7.426081E-1	8.726912E-1	6.520395E-1
5.348180E+2	1.148709E+0	1.129809E+0	1.170418E+0	1.072897E+0	1.194866E+0	1.138331E+0	1.121020E+0	1.161821E+0	1.150946E+0	1.182603E+0	1.184871E+0	1.147051E+0	1.170946E+0	1.142106E+0	1.149444E+0	1.157399E+0	1.116901E+0	1.172383E+0	1.147942E+0	1.125467E+0	1.172672E+0	1.215497E+0	1.139775E+0	1.169861E+0	1.150659E+0	1.131117E+0	1.151154E+0	1.155269E+0	1.136377E+0	1.112191E+0	1.181742E+0	1.176525E+0	1.135777E+0	1.146806E+0	1.165311E+0	1.153191E+0	1.131807E+0	1.118126E+0	1.120575E+0	1.132411E+0	1.140430E+0	1.168295E+0	1.135941E+0	1.192275E+0	1.179365E+0	1.156108E+0	1.212282E+0	1.129595E+0	1.206457E+0	1.107563E+0	1.092122E+0	1.162086E+0	1.148498E+0	1.176727E+0	1.116951E+0	1.149625E+0	1.161754E+0	1.116542E+0	1.135525E+0	1.169449E+0	1.138744E+0	1.123326E+0	1.138961E+0	1.127592E+0	1.133443E+0	1.138660E+0	1.159103E+0	1.188197E+0	1.138659E+0	1.131826E+0	1.160072E+0	1.132955E+0	1.118245E+0	1.127185E+0	1.154046E+0	1.187065E+0	1.157672E+0	1.156386E+0	1.159214E+0	1.173930E+0	1.187072E+0	1.144449E+0	1.151010E+0	1.108572E+0	1.153904E+0	1.133083E+0	1.122389E+0	1.133120E+0	1.144245E+0	1.165875E+0	1.190330E+0	1.114390E+0	1.108708E+0	1.115746E+0	1.180692E+0	1.127019E+0	1.102977E+0	1.128769E+0	1.171732E+0	1.140378E+0	1.161211E+0	1.146749E+0	1.162207E+0	1.138090E+0	1.150267E+0	1.180085E+0	1.139189E+0	1.073953E+0	1.168236E+0	1.148848E+0	1.128074E+0	1.165096E+0	1.105355E+0	1.185747E+0	1.145094E+0	1.130811E+0	1.127583E+0	1.165528E+0	1.181704E+0	1.146208E+0	1.132955E+0	1.129703E+0	1.111037E+0	1.095286E+0	1.120810E+0	1.164786E+0	1.148714E+0	1.113504E+0	1.151411E+0	1.093061E+0	1.138496E+0	1.097458E+0	1.106779E+0	1.158723E+0	1.123243E+0	1.144907E+0	1.166624E+0	1.144007E+0	1.169156E+0	1.141782E+0	1.175989E+0	1.117753E+0	1.141740E+0	1.139671E+0	1.145168E+0	1.112985E+0	1.087062E+0	1.150025E+0	1.212268E+0	1.113195E+0	1.090813E+0	1.144595E+0	1.126301E+0	1.136359E+0	1.128618E+0	1.070924E+0	1.154054E+0	1.154902E+0	1.156779E+0	1.136861E+0	1.175082E+0	1.091494E+0	1.149439E+0	1.142430E+0	1.166715E+0	1.147258E+0	1.142522E+0	1.136567E+0	1.201313E+0	1.125064E+0	1.306744E+0	1.022402E+0
5.349530E+2	1.616906E+0	1.492501E+0	1.595200E+0	1.282082E+0	1.594348E+0	1.498320E+0	1.556743E+0	1.514552E+0	1.530278E+0	1.521510E+0	1.541313E+0	1.542584E+0	1.538579E+0	1.528300E+0	1.559706E+0	1.538953E+0	1.523688E+0	1.566258E+0	1.515979E+0	1.489336E+0	1.567541E+0	1.532531E+0	1.501409E+0	1.544314E+0	1.474059E+0	1.571120E+0	1.538101E+0	1.535315E+0	1.549746E+0	1.531297E+0	1.553450E+0	1.502506E+0	1.495094E+0	1.533017E+0	1.531997E+0	1.496801E+0	1.516210E+0	1.463605E+0	1.527244E+0	1.509877E+0	1.512479E+0	1.537543E+0	1.548644E+0	1.549469E+0	1.528169E+0	1.489865E+0	1.545651E+0	1.526535E+0	1.537396E+0	1.520691E+0	1.550596E+0	1.567927E+0	1.565813E+0	1.562819E+0	1.505747E+0	1.492502E+0	1.542010E+0	1.561301E+0	1.575187E+0	1.469135E+0	1.509408E+0	1.500450E+0	1.497128E+0	1.476510E+0	1.505895E+0	1.538245E+0	1.495230E+0	1.550970E+0	1.463761E+0	1.502251E+0	1.536150E+0	1.505493E+0	1.516462E+0	1.528593E+0	1.558384E+0	1.566057E+0	1.502350E+0	1.509850E+0	1.527406E+0	1.531114E+0	1.526273E+0	1.528506E+0	1.477673E+0	1.465877E+0	1.519740E+0	1.500981E+0	1.548247E+0	1.517307E+0	1.502054E+0	1.523802E+0	1.531112E+0	1.492064E+0	1.516690E+0	1.518399E+0	1.467915E+0	1.485207E+0	1.538717E+0	1.537006E+0	1.520595E+0	1.456936E+0	1.516250E+0	1.493521E+0	1.552938E+0	1.509273E+0	1.477360E+0	1.500674E+0	1.503459E+0	1.459273E+0	1.515921E+0	1.481654E+0	1.553103E+0	1.507309E+0	1.529330E+0	1.526791E+0	1.483033E+0	1.474062E+0	1.510764E+0	1.448862E+0	1.528899E+0	1.509532E+0	1.511501E+0	1.501030E+0	1.529530E+0	1.486812E+0	1.490348E+0	1.527245E+0	1.493990E+0	1.513641E+0	1.541882E+0	1.459603E+0	1.529685E+0	1.472150E+0	1.481186E+0	1.476129E+0	1.477113E+0	1.497354E+0	1.579210E+0	1.423130E+0	1.466516E+0	1.509137E+0	1.485962E+0	1.484236E+0	1.494689E+0	1.517792E+0	1.571008E+0	1.483139E+0	1.447333E+0	1.426846E+0	1.525624E+0	1.477992E+0	1.499473E+0	1.495733E+0	1.521404E+0	1.481827E+0	1.448235E+0	1.430786E+0	1.502576E+0	1.434272E+0	1.561648E+0	1.519080E+0	1.543730E+0	1.424671E+0	1.497945E+0	1.458743E+0	1.524523E+0	1.434768E+0	1.509984E+0	1.552770E+0	1.500164E+0	1.524509E+0	1.668067E+0	1.538634E+0
5.351250E+2	2.004237E+0	1.907470E+0	1.907654E+0	1.788558E+0	1.903333E+0	1.831666E+0	1.994782E+0	1.936049E+0	1.935222E+0	1.898548E+0	1.840464E+0	1.882230E+0	1.901654E+0	1.921427E+0	1.909475E+0	1.864357E+0	1.899321E+0	1.883564E+0	1.935354E+0	1.911866E+0	1.908736E+0	1.920974E+0	1.979282E+0	1.939331E+0	1.953255E+0	1.903575E+0	1.864705E+0	1.946202E+0	1.908706E+0	1.920160E+0	1.915257E+0	1.901067E+0	1.908276E+0	1.852012E+0	1.908924E+0	1.875733E+0	1.873256E+0	1.917122E+0	1.882526E+0	1.925339E+0	1.859253E+0	1.889756E+0	1.826895E+0	1.955547E+0	1.914382E+0	1.929490E+0	1.884051E+0	1.925357E+0	1.998672E+0	1.901799E+0	1.861114E+0	1.853058E+0	1.935002E+0	1.813682E+0	1.903829E+0	1.855728E+0	1.932540E+0	1.867834E+0	1.891667E+0	1.852288E+0	1.875701E+0	1.869402E+0	1.866952E+0	1.833741E+0	1.980289E+0	1.800828E+0	1.903131E+0	1.940366E+0	1.888518E+0	1.851180E+0	1.865209E+0	1.916661E+0	1.875118E+0	1.877784E+0	1.958607E+0	1.959112E+0	1.875009E+0	1.892960E+0	1.914589E+0	1.879249E+0	1.873366E+0	1.840686E+0	1.851427E+0	1.943519E+0	1.909090E+0	1.871055E+0	1.841601E+0	1.929294E+0	1.857118E+0	1.868022E+0	1.892691E+0	1.781964E+0	1.857949E+0	1.919257E+0	1.828264E+0	1.846173E+0	1.857015E+0	1.871713E+0	1.892545E+0	1.814742E+0	1.894700E+0	1.872845E+0	1.901923E+0	1.859634E+0	1.928701E+0	1.855344E+0	1.852535E+0	1.865761E+0	1.932912E+0	1.886663E+0	1.905452E+0	1.862762E+0	1.820824E+0	1.878265E+0	1.849542E+0	1.836503E+0	1.837494E+0	1.873120E+0	1.843226E+0	1.862801E+0	1.841896E+0	1.866752E+0	1.808083E+0	1.838659E+0	1.857157E+0	1.844081E+0	1.878765E+0	1.832459E+0	1.848426E+0	1.836271E+0	1.879000E+0	1.839218E+0	1.871169E+0	1.823418E+0	1.823732E+0	1.826752E+0	1.889865E+0	1.790098E+0	1.886027E+0	1.809880E+0	1.856869E+0	1.824482E+0	1.774029E+0	1.800799E+0	1.879711E+0	1.820684E+0	1.874351E+0	1.837580E+0	1.870834E+0	1.783148E+0	1.868045E+0	1.884426E+0	1.911327E+0	1.837138E+0	1.851585E+0	1.815501E+0	1.846252E+0	1.815071E+0	1.791117E+0	1.916259E+0	1.961930E+0	1.772454E+0	1.867641E+0	1.863401E+0	1.863855E+0	1.833374E+0	1.836081E+0	1.857755E+0	1.858362E+0	1.921858E+0	2.035007E+0	1.573923E+0
5.352600E+2	2.155265E+0	2.152851E+0	2.188023E+0	1.853624E+0	2.110645E+0	2.075551E+0	2.093666E+0	2.108355E+0	2.100533E+0	2.068909E+0	2.043794E+0	2.062542E+0	2.032130E+0	2.107991E+0	2.135175E+0	2.021358E+0	2.080251E+0	2.058955E+0	2.060492E+0	2.169144E+0	2.083016E+0	2.110374E+0	2.062415E+0	2.146191E+0	2.096693E+0	2.059960E+0	2.047184E+0	2.105949E+0	2.031382E+0	2.051740E+0	2.117358E+0	2.091045E+0	2.069849E+0	2.051511E+0	2.063807E+0	2.067566E+0	2.152903E+0	2.021052E+0	2.046287E+0	2.027131E+0	2.052012E+0	2.036258E+0	2.057831E+0	2.092809E+0	2.048410E+0	2.040696E+0	2.067944E+0	2.095947E+0	2.097486E+0	2.011637E+0	1.995901E+0	2.073533E+0	2.053402E+0	1.997309E+0	2.015153E+0	2.067528E+0	2.068030E+0	2.074743E+0	2.066390E+0	2.030005E+0	2.138635E+0	2.009921E+0	1.991090E+0	2.036050E+0	2.051553E+0	2.045578E+0	2.069017E+0	2.097788E+0	2.073047E+0	2.040400E+0	2.032997E+0	2.082419E+0	2.026294E+0	2.047310E+0	2.063253E+0	2.106491E+0	2.044828E+0	2.062661E+0	2.043742E+0	2.087782E+0	2.093309E+0	1.988671E+0	1.978782E+0	2.023797E+0	2.057569E+0	2.013227E+0	2.043671E+0	2.022953E+0	2.009959E+0	2.082145E+0	1.988574E+0	1.947382E+0	2.027210E+0	2.040666E+0	1.992244E+0	2.013257E+0	2.010153E+0	1.959284E+0	2.065726E+0	2.038133E+0	2.105653E+0	1.984992E+0	2.029722E+0	1.978562E+0	2.096879E+0	2.016060E+0	2.037860E+0	1.976716E+0	2.010936E+0	2.076723E+0	2.080314E+0	2.094389E+0	2.050226E+0	2.134358E+0	2.040018E+0	1.963708E+0	2.049847E+0	1.959027E+0	2.044416E+0	2.004169E+0	1.976617E+0	2.064298E+0	1.947950E+0	1.966036E+0	1.955033E+0	2.030211E+0	2.098653E+0	2.025942E+0	1.987706E+0	1.993253E+0	1.982342E+0	1.995026E+0	2.020338E+0	1.985954E+0	2.069807E+0	2.039723E+0	2.021997E+0	1.917422E+0	1.983056E+0	2.008770E+0	1.994125E+0	1.950850E+0	2.018596E+0	1.962456E+0	2.087612E+0	2.040901E+0	1.974294E+0	1.962782E+0	2.004432E+0	2.033207E+0	2.007733E+0	1.927416E+0	2.078962E+0	1.982991E+0	2.023558E+0	1.914515E+0	1.975919E+0	1.936332E+0	2.015453E+0	2.048648E+0	2.029799E+0	1.964974E+0	2.003206E+0	1.984527E+0	2.054204E+0	1.996324E+0	1.994706E+0	2.029935E+0	1.917337E+0	2.057554E+0	2.096691E+0	1.796295E+0
5.354060E+2	2.091500E+0	1.995641E+0	2.110129E+0	1.880094E+0	2.039643E+0	2.022866E+0	1.996138E+0	2.058945E+0	2.072072E+0	2.021898E+0	2.025290E+0	2.108940E+0	2.038231E+0	2.046611E+0	2.031279E+0	2.069469E+0	2.084824E+0	2.051778E+0	2.115232E+0	2.126998E+0	2.076455E+0	2.045122E+0	2.085674E+0	2.117012E+0	1.997828E+0	2.048904E+0	2.058096E+0	2.020989E+0	2.086195E+0	2.084985E+0	2.084684E+0	2.098418E+0	2.101309E+0	2.023635E+0	2.004875E+0	2.083798E+0	1.996242E+0	2.100005E+0	2.058313E+0	2.049365E+0	2.053880E+0	2.029879E+0	2.020036E+0	2.113296E+0	2.067632E+0	2.099264E+0	2.012480E+0	2.106089E+0	2.070056E+0	2.080421E+0	2.035872E+0	2.093655E+0	2.033992E+0	2.052756E+0	2.006082E+0	2.061267E+0	2.064925E+0	2.072674E+0	2.014126E+0	1.978755E+0	2.019993E+0	2.037138E+0	2.035634E+0	2.052597E+0	2.036925E+0	2.047465E+0	2.055880E+0	2.005411E+0	1.992414E+0	2.022268E+0	1.985718E+0	2.052376E+0	2.069999E+0	2.117892E+0	2.076412E+0	2.111262E+0	2.026850E+0	1.987473E+0	2.059939E+0	2.071752E+0	2.090007E+0	2.033008E+0	1.928630E+0	2.000654E+0	2.038832E+0	2.022512E+0	1.945010E+0	2.003457E+0	2.060685E+0	2.007081E+0	1.992393E+0	2.008147E+0	1.974392E+0	2.051918E+0	1.954454E+0	2.049388E+0	2.003810E+0	2.006042E+0	1.957470E+0	1.974477E+0	2.014299E+0	2.045470E+0	2.039711E+0	1.967648E+0	1.991053E+0	2.083694E+0	2.016043E+0	1.965878E+0	2.076549E+0	2.025037E+0	2.041880E+0	2.089457E+0	1.962203E+0	2.067668E+0	1.934631E+0	1.988923E+0	2.014423E+0	1.966941E+0	2.050214E+0	2.052310E+0	1.973277E+0	2.028509E+0	2.006680E+0	1.977811E+0	2.037151E+0	1.978918E+0	1.965694E+0	2.068499E+0	2.026457E+0	1.945936E+0	1.992027E+0	1.953344E+0	2.052007E+0	2.013308E+0	2.018585E+0	2.020641E+0	2.073763E+0	1.952082E+0	2.040211E+0	2.004857E+0	2.033833E+0	1.900664E+0	1.940041E+0	1.920042E+0	2.045846E+0	1.973888E+0	1.947666E+0	1.921429E+0	2.030795E+0	1.925873E+0	2.033304E+0	1.991455E+0	2.008273E+0	1.949771E+0	2.095499E+0	1.923796E+0	1.962026E+0	1.967811E+0	1.960021E+0	2.034420E+0	2.043430E+0	1.949395E+0	1.956735E+0	2.002658E+0	2.021813E+0	1.944253E+0	1.992991E+0	1.952580E+0	1.911810E+0	1.995296E+0	2.097853E+0	2.147635E+0
5.355680E+2	1.923277E+0	1.855925E+0	1.887169E+0	1.676590E+0	1.871351E+0	1.860806E+0	1.853557E+0	1.905423E+0	1.849583E+0	1.826457E+0	1.809875E+0	1.877734E+0	1.853563E+0	1.807667E+0	1.764484E+0	1.838933E+0	1.801685E+0	1.858306E+0	1.906754E+0	1.890053E+0	1.841493E+0	1.863184E+0	1.916310E+0	1.893142E+0	1.836671E+0	1.816761E+0	1.833655E+0	1.818127E+0	1.832823E+0	1.845823E+0	1.847401E+0	1.871229E+0	1.858136E+0	1.857501E+0	1.858322E+0	1.837453E+0	1.895476E+0	1.850072E+0	1.818685E+0	1.904803E+0	1.817681E+0	1.860843E+0	1.772691E+0	1.895420E+0	1.814775E+0	1.800316E+0	1.818622E+0	1.831328E+0	1.892942E+0	1.863700E+0	1.776055E+0	1.938154E+0	1.839134E+0	1.806149E+0	1.867270E+0	1.805978E+0	1.877609E+0	1.818098E+0	1.891991E+0	1.767830E+0	1.821497E+0	1.796671E+0	1.844477E+0	1.792222E+0	1.866044E+0	1.774754E+0	1.785385E+0	1.797453E+0	1.784254E+0	1.808255E+0	1.894216E+0	1.862784E+0	1.861571E+0	1.796861E+0	1.777830E+0	1.881629E+0	1.842240E+0	1.802014E+0	1.824478E+0	1.803801E+0	1.845141E+0	1.858049E+0	1.798620E+0	1.851313E+0	1.905632E+0	1.776404E+0	1.802214E+0	1.834967E+0	1.841127E+0	1.850932E+0	1.823494E+0	1.844630E+0	1.787215E+0	1.837490E+0	1.796196E+0	1.845954E+0	1.895170E+0	1.868167E+0	1.795089E+0	1.825358E+0	1.820678E+0	1.747313E+0	1.819026E+0	1.768481E+0	1.907900E+0	1.800411E+0	1.882697E+0	1.776848E+0	1.859808E+0	1.814502E+0	1.850701E+0	1.841382E+0	1.753564E+0	1.865826E+0	1.732329E+0	1.807718E+0	1.803875E+0	1.812480E+0	1.762050E+0	1.782538E+0	1.801582E+0	1.798956E+0	1.778113E+0	1.798984E+0	1.770676E+0	1.827207E+0	1.813054E+0	1.840043E+0	1.865740E+0	1.798376E+0	1.768615E+0	1.799657E+0	1.847054E+0	1.753973E+0	1.829444E+0	1.830041E+0	1.879229E+0	1.711791E+0	1.789836E+0	1.775821E+0	1.833410E+0	1.762529E+0	1.770754E+0	1.811770E+0	1.861028E+0	1.802141E+0	1.740278E+0	1.776021E+0	1.800284E+0	1.857451E+0	1.823171E+0	1.816434E+0	1.839452E+0	1.824799E+0	1.825270E+0	1.767070E+0	1.785075E+0	1.745892E+0	1.776280E+0	1.804689E+0	1.890418E+0	1.736552E+0	1.839545E+0	1.840181E+0	1.771419E+0	1.748183E+0	1.773407E+0	1.804259E+0	1.781424E+0	1.786707E+0	1.861410E+0	1.744888E+0
5.357040E+2	1.686126E+0	1.684172E+0	1.761504E+0	1.471077E+0	1.596971E+0	1.657928E+0	1.654875E+0	1.646550E+0	1.635099E+0	1.674212E+0	1.660327E+0	1.696059E+0	1.627764E+0	1.647407E+0	1.635184E+0	1.631156E+0	1.647207E+0	1.687941E+0	1.659684E+0	1.638706E+0	1.613006E+0	1.636299E+0	1.666263E+0	1.640064E+0	1.613695E+0	1.586670E+0	1.616488E+0	1.635784E+0	1.633047E+0	1.654206E+0	1.667701E+0	1.650400E+0	1.683617E+0	1.610926E+0	1.670770E+0	1.639089E+0	1.642137E+0	1.536002E+0	1.670826E+0	1.649167E+0	1.659328E+0	1.668379E+0	1.610295E+0	1.609912E+0	1.678558E+0	1.650454E+0	1.628977E+0	1.726077E+0	1.656461E+0	1.618660E+0	1.619344E+0	1.673971E+0	1.644688E+0	1.639102E+0	1.638169E+0	1.705954E+0	1.686253E+0	1.644867E+0	1.618190E+0	1.633709E+0	1.664611E+0	1.624626E+0	1.627387E+0	1.649162E+0	1.666120E+0	1.600623E+0	1.567405E+0	1.696281E+0	1.612369E+0	1.668023E+0	1.574821E+0	1.608685E+0	1.690964E+0	1.603878E+0	1.621756E+0	1.660173E+0	1.593406E+0	1.655898E+0	1.577723E+0	1.656074E+0	1.709810E+0	1.637799E+0	1.544321E+0	1.580109E+0	1.642250E+0	1.607311E+0	1.622514E+0	1.643516E+0	1.619939E+0	1.582257E+0	1.584995E+0	1.591453E+0	1.626497E+0	1.617153E+0	1.500625E+0	1.679954E+0	1.635536E+0	1.642898E+0	1.657071E+0	1.594968E+0	1.624403E+0	1.609311E+0	1.645504E+0	1.589470E+0	1.584062E+0	1.631887E+0	1.620077E+0	1.615950E+0	1.598013E+0	1.662393E+0	1.611890E+0	1.619998E+0	1.564351E+0	1.656207E+0	1.578926E+0	1.589153E+0	1.570432E+0	1.597930E+0	1.600201E+0	1.586134E+0	1.683792E+0	1.616770E+0	1.612759E+0	1.567704E+0	1.597630E+0	1.637019E+0	1.581879E+0	1.634374E+0	1.662093E+0	1.604490E+0	1.579695E+0	1.620838E+0	1.615441E+0	1.630453E+0	1.658002E+0	1.646388E+0	1.666058E+0	1.543113E+0	1.620145E+0	1.561831E+0	1.600190E+0	1.566228E+0	1.575476E+0	1.580807E+0	1.632516E+0	1.586349E+0	1.554176E+0	1.588317E+0	1.595683E+0	1.633167E+0	1.634377E+0	1.637468E+0	1.628145E+0	1.597715E+0	1.553698E+0	1.600492E+0	1.607840E+0	1.546411E+0	1.557837E+0	1.633078E+0	1.694726E+0	1.566706E+0	1.580320E+0	1.644784E+0	1.666588E+0	1.607556E+0	1.589680E+0	1.576984E+0	1.564125E+0	1.625495E+0	1.660160E+0	1.644145E+0
5.358550E+2	1.436409E+0	1.429519E+0	1.451841E+0	1.187388E+0	1.465340E+0	1.398285E+0	1.403644E+0	1.454503E+0	1.463676E+0	1.409803E+0	1.429683E+0	1.384694E+0	1.406329E+0	1.385983E+0	1.412496E+0	1.408323E+0	1.444321E+0	1.450154E+0	1.454726E+0	1.418524E+0	1.453310E+0	1.433369E+0	1.479601E+0	1.463377E+0	1.409501E+0	1.385326E+0	1.461611E+0	1.436592E+0	1.454350E+0	1.438283E+0	1.442613E+0	1.423482E+0	1.398982E+0	1.435608E+0	1.478569E+0	1.440931E+0	1.401587E+0	1.441310E+0	1.378932E+0	1.420979E+0	1.378461E+0	1.386232E+0	1.377859E+0	1.459668E+0	1.452810E+0	1.414715E+0	1.400013E+0	1.378016E+0	1.475441E+0	1.437686E+0	1.406138E+0	1.492632E+0	1.396646E+0	1.431633E+0	1.419102E+0	1.468708E+0	1.472638E+0	1.408927E+0	1.440990E+0	1.430233E+0	1.404792E+0	1.403889E+0	1.432302E+0	1.381887E+0	1.440380E+0	1.384854E+0	1.420561E+0	1.435121E+0	1.427810E+0	1.351265E+0	1.382908E+0	1.398541E+0	1.442781E+0	1.453614E+0	1.438989E+0	1.453840E+0	1.409053E+0	1.456328E+0	1.396236E+0	1.425735E+0	1.439686E+0	1.415266E+0	1.373385E+0	1.437683E+0	1.402160E+0	1.435658E+0	1.387026E+0	1.417980E+0	1.396858E+0	1.426317E+0	1.408552E+0	1.345073E+0	1.401679E+0	1.403571E+0	1.362984E+0	1.342024E+0	1.403033E+0	1.422153E+0	1.433335E+0	1.441973E+0	1.454888E+0	1.396486E+0	1.426089E+0	1.404649E+0	1.405484E+0	1.338854E+0	1.417127E+0	1.432705E+0	1.410807E+0	1.406622E+0	1.371722E+0	1.429943E+0	1.438136E+0	1.405293E+0	1.369347E+0	1.408394E+0	1.440094E+0	1.414549E+0	1.406967E+0	1.385151E+0	1.465243E+0	1.377006E+0	1.394490E+0	1.430859E+0	1.376342E+0	1.388911E+0	1.362960E+0	1.423585E+0	1.428570E+0	1.414266E+0	1.411027E+0	1.408751E+0	1.384194E+0	1.382524E+0	1.392391E+0	1.405155E+0	1.459725E+0	1.422308E+0	1.371741E+0	1.386285E+0	1.428557E+0	1.383243E+0	1.389659E+0	1.382650E+0	1.489300E+0	1.433614E+0	1.392462E+0	1.374483E+0	1.368250E+0	1.387825E+0	1.389732E+0	1.438769E+0	1.422460E+0	1.435536E+0	1.377907E+0	1.387376E+0	1.415810E+0	1.376513E+0	1.402152E+0	1.427212E+0	1.466828E+0	1.364258E+0	1.418201E+0	1.477655E+0	1.403456E+0	1.372893E+0	1.343442E+0	1.435775E+0	1.446785E+0	1.405425E+0	1.442613E+0	1.548760E+0
5.360120E+2	1.192790E+0	1.228258E+0	1.172528E+0	1.103022E+0	1.132890E+0	1.110360E+0	1.235804E+0	1.217147E+0	1.149417E+0	1.148047E+0	1.153580E+0	1.178616E+0	1.173107E+0	1.150468E+0	1.179473E+0	1.148071E+0	1.164296E+0	1.164288E+0	1.179880E+0	1.176766E+0	1.140520E+0	1.191091E+0	1.155724E+0	1.170372E+0	1.245370E+0	1.144748E+0	1.130390E+0	1.210406E+0	1.185875E+0	1.190425E+0	1.189948E+0	1.194708E+0	1.185522E+0	1.169861E+0	1.207133E+0	1.187632E+0	1.207413E+0	1.159617E+0	1.164928E+0	1.149070E+0	1.179747E+0	1.153449E+0	1.152135E+0	1.195325E+0	1.207234E+0	1.160181E+0	1.210062E+0	1.157279E+0	1.204244E+0	1.191425E+0	1.164994E+0	1.180852E+0	1.204702E+0	1.170050E+0	1.179875E+0	1.176663E+0	1.173098E+0	1.140570E+0	1.177063E+0	1.141305E+0	1.201623E+0	1.156595E+0	1.114562E+0	1.157517E+0	1.221129E+0	1.152976E+0	1.110704E+0	1.178967E+0	1.146585E+0	1.167343E+0	1.191622E+0	1.160812E+0	1.154860E+0	1.153148E+0	1.168589E+0	1.217783E+0	1.167380E+0	1.197036E+0	1.117870E+0	1.223180E+0	1.167438E+0	1.153225E+0	1.148875E+0	1.180561E+0	1.188612E+0	1.169141E+0	1.149367E+0	1.195375E+0	1.224009E+0	1.157056E+0	1.206732E+0	1.130490E+0	1.130245E+0	1.130428E+0	1.137788E+0	1.216906E+0	1.184134E+0	1.185105E+0	1.119707E+0	1.154685E+0	1.177273E+0	1.215447E+0	1.156644E+0	1.122517E+0	1.180773E+0	1.158392E+0	1.168440E+0	1.175872E+0	1.227651E+0	1.180400E+0	1.113017E+0	1.183151E+0	1.174403E+0	1.147851E+0	1.118963E+0	1.154698E+0	1.170046E+0	1.144861E+0	1.113892E+0	1.137919E+0	1.172136E+0	1.179147E+0	1.149556E+0	1.178059E+0	1.137254E+0	1.211897E+0	1.165731E+0	1.143403E+0	1.203018E+0	1.120113E+0	1.150863E+0	1.131715E+0	1.182611E+0	1.149262E+0	1.130946E+0	1.141990E+0	1.182665E+0	1.074988E+0	1.131556E+0	1.151155E+0	1.203383E+0	1.136249E+0	1.143809E+0	1.175391E+0	1.216551E+0	1.171957E+0	1.093933E+0	1.170836E+0	1.178107E+0	1.144503E+0	1.179673E+0	1.175777E+0	1.163395E+0	1.111669E+0	1.193417E+0	1.108752E+0	1.148573E+0	1.164406E+0	1.153945E+0	1.133863E+0	1.261689E+0	1.194211E+0	1.150605E+0	1.202011E+0	1.189893E+0	1.154177E+0	1.147080E+0	1.217332E+0	1.179809E+0	1.162362E+0	1.270723E+0	1.294576E+0
5.362630E+2	8.776523E-1	8.505606E-1	8.731404E-1	7.689130E-1	8.932884E-1	8.609112E-1	9.305171E-1	8.904481E-1	9.112493E-1	8.938474E-1	9.039599E-1	8.903400E-1	9.221195E-1	9.046124E-1	8.847661E-1	9.024030E-1	9.055162E-1	8.583643E-1	9.069408E-1	8.826183E-1	8.894342E-1	9.034332E-1	8.909547E-1	9.334345E-1	8.607457E-1	8.855716E-1	8.747601E-1	8.658793E-1	8.730198E-1	8.899129E-1	9.142656E-1	8.869431E-1	8.734066E-1	8.680349E-1	8.963730E-1	9.241119E-1	8.929177E-1	8.725920E-1	8.836007E-1	8.986920E-1	8.694113E-1	9.107004E-1	8.702409E-1	8.788397E-1	8.890125E-1	8.903346E-1	8.751763E-1	9.159090E-1	9.110167E-1	8.722882E-1	8.928170E-1	9.532146E-1	9.027166E-1	8.683813E-1	8.699824E-1	9.264842E-1	8.817941E-1	8.889446E-1	8.737413E-1	8.969914E-1	9.219909E-1	8.660207E-1	8.936246E-1	8.667237E-1	9.261435E-1	8.921403E-1	9.196557E-1	9.213968E-1	9.194736E-1	9.071692E-1	9.107589E-1	8.709754E-1	9.143133E-1	9.288807E-1	8.963875E-1	9.491056E-1	9.525007E-1	9.105718E-1	8.630242E-1	9.247550E-1	9.269547E-1	8.785795E-1	8.436134E-1	9.269092E-1	9.033722E-1	8.745067E-1	8.816021E-1	8.751487E-1	9.015885E-1	8.893333E-1	8.551978E-1	8.862621E-1	9.083832E-1	8.519843E-1	8.792596E-1	8.586427E-1	9.143176E-1	9.153414E-1	8.605617E-1	9.043761E-1	8.931740E-1	9.155245E-1	9.317963E-1	8.910746E-1	9.103433E-1	8.846865E-1	8.921875E-1	9.066546E-1	8.971544E-1	8.989316E-1	9.022542E-1	9.017170E-1	9.112031E-1	9.049812E-1	8.806993E-1	8.675563E-1	8.497369E-1	8.537081E-1	8.931037E-1	8.789741E-1	9.171584E-1	9.003835E-1	8.974408E-1	8.922822E-1	8.447766E-1	9.309890E-1	8.663681E-1	9.499517E-1	8.726856E-1	8.606189E-1	9.050628E-1	9.023045E-1	9.166566E-1	8.695083E-1	8.711878E-1	9.098708E-1	9.403587E-1	8.264442E-1	8.965422E-1	8.902482E-1	9.417922E-1	9.051859E-1	8.765747E-1	9.353650E-1	8.856414E-1	8.827150E-1	8.640873E-1	9.102900E-1	9.196346E-1	8.850049E-1	9.005679E-1	9.000351E-1	8.999117E-1	8.976819E-1	8.992044E-1	8.521787E-1	8.874319E-1	9.148379E-1	9.058330E-1	9.049487E-1	9.031065E-1	8.821089E-1	9.031042E-1	9.175306E-1	9.231095E-1	9.202027E-1	8.684347E-1	9.635308E-1	9.662836E-1	8.735418E-1	9.442299E-1	8.543012E-1
5.365140E+2	6.788336E-1	6.840720E-1	6.855868E-1	5.875543E-1	6.794718E-1	6.830106E-1	7.078312E-1	7.073804E-1	6.885338E-1	6.565129E-1	6.913184E-1	6.599555E-1	6.856396E-1	6.654499E-1	6.891245E-1	6.629833E-1	6.866490E-1	6.883716E-1	6.943186E-1	6.603850E-1	6.705284E-1	7.212955E-1	6.728834E-1	7.036213E-1	6.643425E-1	6.716709E-1	6.639574E-1	6.510159E-1	6.839468E-1	7.051845E-1	6.850168E-1	6.668672E-1	6.714127E-1	6.549987E-1	7.020275E-1	6.865877E-1	6.704554E-1	6.995486E-1	7.135167E-1	6.676784E-1	6.771503E-1	6.415812E-1	6.787554E-1	7.012800E-1	6.864256E-1	7.050444E-1	6.709179E-1	6.853055E-1	6.874809E-1	6.656934E-1	6.990859E-1	6.981838E-1	7.109992E-1	6.825968E-1	6.458926E-1	6.576886E-1	6.189321E-1	6.596881E-1	6.730335E-1	6.346132E-1	6.916247E-1	6.820341E-1	6.766777E-1	6.655604E-1	6.860989E-1	6.903522E-1	6.702540E-1	6.737865E-1	6.852303E-1	6.733795E-1	7.052232E-1	6.587366E-1	7.335883E-1	6.795382E-1	6.345271E-1	7.156867E-1	6.890556E-1	6.644531E-1	6.774302E-1	6.698229E-1	6.951235E-1	6.856428E-1	6.781432E-1	6.893603E-1	6.791656E-1	6.747412E-1	6.683159E-1	6.665499E-1	6.915887E-1	7.040708E-1	7.052237E-1	6.831362E-1	6.958932E-1	6.621247E-1	6.913696E-1	6.481105E-1	6.734198E-1	7.083516E-1	6.611078E-1	6.566422E-1	6.630912E-1	6.765798E-1	6.582310E-1	6.841597E-1	6.640927E-1	6.815906E-1	6.991954E-1	6.670946E-1	7.042561E-1	6.852133E-1	6.925101E-1	7.096235E-1	6.917635E-1	6.870318E-1	6.625086E-1	6.812165E-1	6.784729E-1	6.657994E-1	6.993768E-1	6.839897E-1	6.854996E-1	6.736072E-1	6.694579E-1	6.386765E-1	6.893018E-1	6.867397E-1	6.762857E-1	6.799662E-1	6.742913E-1	6.794118E-1	6.397217E-1	6.720422E-1	6.897931E-1	6.911229E-1	7.051439E-1	7.123471E-1	6.520045E-1	6.669761E-1	7.101678E-1	6.981731E-1	7.050969E-1	6.935483E-1	6.750392E-1	6.717033E-1	7.092624E-1	6.534575E-1	6.946083E-1	6.999738E-1	7.082701E-1	7.035665E-1	6.694060E-1	6.599285E-1	6.890237E-1	6.769494E-1	7.055301E-1	6.817264E-1	6.752996E-1	6.862465E-1	6.826798E-1	7.108363E-1	7.128871E-1	6.465004E-1	6.752700E-1	6.996128E-1	6.534665E-1	6.834609E-1	6.817727E-1	6.774274E-1	7.089113E-1	6.555983E-1	6.967210E-1	5.614995E-1
5.367710E+2	4.975879E-1	5.517785E-1	5.511338E-1	4.215248E-1	5.215526E-1	5.779885E-1	5.364713E-1	5.482629E-1	5.628016E-1	5.512368E-1	5.390196E-1	5.525155E-1	5.469805E-1	5.627453E-1	5.760099E-1	5.337598E-1	5.416881E-1	5.593331E-1	5.645875E-1	5.785342E-1	5.562567E-1	5.547642E-1	5.806300E-1	5.697216E-1	5.617468E-1	5.878230E-1	5.704131E-1	5.614988E-1	5.400763E-1	5.440050E-1	5.264263E-1	5.541384E-1	5.668494E-1	5.580474E-1	5.366364E-1	5.409572E-1	5.543740E-1	5.692754E-1	5.241386E-1	5.714063E-1	5.567602E-1	5.772420E-1	5.338226E-1	5.692405E-1	5.488261E-1	5.717784E-1	5.466157E-1	5.588436E-1	5.866746E-1	5.454511E-1	5.465771E-1	5.755578E-1	5.571906E-1	5.701421E-1	5.159603E-1	5.592755E-1	5.973824E-1	5.436040E-1	5.266206E-1	5.228438E-1	5.445004E-1	5.450780E-1	5.534305E-1	5.569705E-1	5.486229E-1	5.516641E-1	5.290733E-1	5.720496E-1	5.577022E-1	5.775552E-1	5.407343E-1	5.511919E-1	5.530761E-1	5.733053E-1	5.824224E-1	5.735556E-1	5.743515E-1	5.611024E-1	5.615964E-1	5.478337E-1	5.498339E-1	5.841261E-1	5.114825E-1	5.672022E-1	5.665240E-1	5.368526E-1	5.609815E-1	5.908740E-1	5.337263E-1	5.894990E-1	5.793328E-1	5.820105E-1	5.824779E-1	5.520071E-1	5.455596E-1	5.551533E-1	5.835484E-1	5.454587E-1	5.805779E-1	5.163346E-1	5.561749E-1	5.515214E-1	5.591001E-1	5.764086E-1	5.666811E-1	5.663878E-1	5.533531E-1	5.680460E-1	5.474457E-1	5.591131E-1	5.476228E-1	5.640761E-1	6.000023E-1	5.334015E-1	5.783935E-1	5.790059E-1	5.625944E-1	5.542339E-1	5.861024E-1	5.506697E-1	5.572095E-1	5.905831E-1	5.666252E-1	5.647955E-1	5.475856E-1	5.529640E-1	5.674065E-1	6.026500E-1	5.893811E-1	5.164094E-1	5.657823E-1	5.408679E-1	5.773428E-1	5.533355E-1	5.525038E-1	5.523195E-1	5.497766E-1	5.667719E-1	5.731422E-1	5.385014E-1	5.544753E-1	5.552165E-1	5.483495E-1	5.681183E-1	5.812198E-1	5.788922E-1	5.538083E-1	5.943202E-1	5.677784E-1	5.862456E-1	5.657645E-1	5.565968E-1	5.839084E-1	5.583908E-1	5.881282E-1	5.755831E-1	5.544776E-1	5.506195E-1	5.687111E-1	5.748013E-1	5.684970E-1	5.716410E-1	5.422079E-1	5.971337E-1	5.718091E-1	5.702547E-1	5.626205E-1	5.444611E-1	5.678810E-1	5.505558E-1	5.910479E-1	6.127991E-1
5.370070E+2	4.889924E-1	4.702692E-1	5.068684E-1	3.732557E-1	4.976783E-1	4.399102E-1	4.895803E-1	5.087363E-1	4.777464E-1	4.749045E-1	4.931885E-1	4.863373E-1	4.604562E-1	4.729048E-1	4.900021E-1	4.682322E-1	4.687940E-1	4.579091E-1	5.055597E-1	5.067018E-1	4.981970E-1	4.868400E-1	4.859845E-1	4.986963E-1	4.816661E-1	4.878803E-1	5.097761E-1	4.951321E-1	4.787244E-1	4.891965E-1	4.633906E-1	4.718067E-1	4.926298E-1	4.667309E-1	5.174809E-1	4.737981E-1	4.537175E-1	4.812112E-1	4.868024E-1	4.955163E-1	4.973716E-1	4.617706E-1	4.858940E-1	4.556050E-1	5.165669E-1	4.685496E-1	4.700118E-1	4.820305E-1	5.168068E-1	4.692414E-1	4.555524E-1	5.221288E-1	4.719697E-1	4.880922E-1	5.238789E-1	4.639222E-1	4.941452E-1	4.394954E-1	4.625692E-1	4.904156E-1	5.066499E-1	4.959201E-1	4.816701E-1	4.586093E-1	4.949892E-1	4.740249E-1	4.676145E-1	4.615373E-1	5.311493E-1	4.993621E-1	4.819135E-1	4.573446E-1	4.637883E-1	5.029654E-1	4.803586E-1	5.077471E-1	5.071732E-1	4.667400E-1	4.713733E-1	4.465392E-1	4.855235E-1	4.913924E-1	5.012969E-1	4.592628E-1	4.829116E-1	4.879548E-1	4.578087E-1	4.814215E-1	4.429810E-1	4.961352E-1	4.727976E-1	4.962156E-1	4.725261E-1	4.694581E-1	4.863304E-1	4.566803E-1	5.059337E-1	4.916715E-1	4.522991E-1	4.867534E-1	4.990258E-1	4.794247E-1	5.244114E-1	4.941192E-1	4.978365E-1	4.692932E-1	4.734640E-1	5.032736E-1	5.018825E-1	4.928438E-1	5.094685E-1	4.946487E-1	4.783143E-1	5.040964E-1	4.422752E-1	4.742859E-1	5.151848E-1	4.881606E-1	4.793239E-1	4.977433E-1	5.281241E-1	5.237088E-1	4.659464E-1	4.888822E-1	4.764138E-1	4.893351E-1	5.034819E-1	4.597015E-1	5.000668E-1	4.602152E-1	4.868856E-1	4.692556E-1	4.860677E-1	4.935978E-1	4.916371E-1	4.828374E-1	5.199494E-1	4.929103E-1	4.709836E-1	4.843084E-1	4.988228E-1	4.838705E-1	4.748460E-1	4.493140E-1	5.045975E-1	4.744497E-1	4.734835E-1	4.849159E-1	4.668647E-1	4.928506E-1	4.938206E-1	5.181286E-1	4.938406E-1	4.748648E-1	5.036770E-1	4.817484E-1	5.095740E-1	4.745538E-1	5.013712E-1	4.718958E-1	5.185829E-1	5.005770E-1	4.961522E-1	5.158725E-1	5.318146E-1	4.939730E-1	4.865978E-1	4.717235E-1	4.908914E-1	4.709408E-1	4.862880E-1	5.075779E-1
5.372740E+2	4.599624E-1	4.489462E-1	4.841410E-1	4.228605E-1	4.450935E-1	4.222461E-1	4.478054E-1	4.995602E-1	4.836807E-1	4.388276E-1	4.348540E-1	4.609786E-1	4.530621E-1	4.959532E-1	4.666900E-1	4.667337E-1	4.579875E-1	4.456076E-1	4.290785E-1	4.347087E-1	4.394191E-1	4.661530E-1	4.481855E-1	4.407382E-1	4.823668E-1	4.771081E-1	4.498166E-1	4.376772E-1	4.636003E-1	4.461775E-1	4.444203E-1	4.452067E-1	4.837280E-1	4.457224E-1	4.639495E-1	4.659355E-1	4.588658E-1	4.866960E-1	4.334800E-1	4.437361E-1	4.395494E-1	4.752646E-1	4.664305E-1	4.515398E-1	4.477499E-1	4.464657E-1	4.464783E-1	4.380739E-1	4.758269E-1	4.434554E-1	4.627687E-1	4.538608E-1	4.858449E-1	4.338710E-1	4.488530E-1	4.695429E-1	4.759378E-1	4.815800E-1	4.559013E-1	4.599107E-1	4.989483E-1	4.323818E-1	4.839881E-1	4.861802E-1	4.620455E-1	4.568889E-1	4.314539E-1	4.772422E-1	4.731880E-1	4.607542E-1	4.591168E-1	4.687969E-1	4.580417E-1	4.704988E-1	4.390196E-1	4.539501E-1	4.709710E-1	4.500874E-1	4.641922E-1	4.429590E-1	4.502835E-1	4.652768E-1	4.595628E-1	4.237785E-1	4.636960E-1	4.449570E-1	4.424169E-1	4.421483E-1	4.519984E-1	4.848534E-1	4.753614E-1	4.252417E-1	4.748434E-1	4.645789E-1	4.294308E-1	4.405898E-1	4.536015E-1	4.905893E-1	4.397954E-1	4.705928E-1	4.554885E-1	4.721022E-1	4.677563E-1	4.820450E-1	4.766701E-1	4.531521E-1	4.759269E-1	4.828551E-1	4.783928E-1	4.758883E-1	4.784817E-1	4.780272E-1	4.395876E-1	4.525115E-1	4.722931E-1	4.654487E-1	4.798781E-1	4.593634E-1	4.532702E-1	4.764823E-1	4.979074E-1	4.602793E-1	4.787053E-1	4.527851E-1	4.735787E-1	4.468376E-1	4.674630E-1	4.759773E-1	4.636530E-1	4.664135E-1	4.572059E-1	4.414293E-1	4.732627E-1	4.862992E-1	4.982077E-1	4.426896E-1	4.543285E-1	4.426781E-1	4.803644E-1	4.563883E-1	4.879924E-1	4.597938E-1	4.491657E-1	4.650381E-1	4.876827E-1	4.764854E-1	4.822106E-1	4.424516E-1	4.918105E-1	4.767808E-1	4.848623E-1	4.693795E-1	4.850205E-1	4.763092E-1	4.458419E-1	4.517205E-1	4.516723E-1	4.611145E-1	4.759435E-1	4.516304E-1	5.107860E-1	4.584062E-1	4.750969E-1	4.931745E-1	4.782702E-1	4.688876E-1	4.564640E-1	4.599387E-1	4.725292E-1	4.519291E-1	4.850623E-1	5.275948E-1
5.375160E+2	4.937501E-1	4.445664E-1	4.840053E-1	4.832485E-1	4.684001E-1	4.524413E-1	4.338792E-1	4.698696E-1	4.510947E-1	4.833915E-1	4.852008E-1	4.647792E-1	4.729289E-1	4.519858E-1	4.471487E-1	4.497065E-1	4.807120E-1	4.504005E-1	4.312394E-1	4.835419E-1	4.779966E-1	4.668750E-1	4.688238E-1	4.736069E-1	4.758978E-1	4.919013E-1	4.975377E-1	4.441861E-1	4.675491E-1	4.889523E-1	4.980040E-1	4.792946E-1	4.755704E-1	4.412711E-1	4.525116E-1	4.778622E-1	4.807654E-1	4.904562E-1	4.774199E-1	4.687774E-1	4.907194E-1	4.569922E-1	4.498724E-1	4.771744E-1	4.728671E-1	4.611836E-1	4.299416E-1	4.903912E-1	4.700723E-1	4.980219E-1	4.358674E-1	5.032734E-1	5.007513E-1	5.073021E-1	4.700511E-1	4.741960E-1	4.934679E-1	4.517319E-1	4.649656E-1	4.779962E-1	4.771205E-1	4.538387E-1	4.642204E-1	4.598619E-1	4.685366E-1	4.500678E-1	4.681231E-1	4.793768E-1	4.952248E-1	5.045678E-1	4.705020E-1	4.302904E-1	4.728468E-1	4.848865E-1	4.585076E-1	4.632247E-1	4.689026E-1	4.934850E-1	4.608190E-1	4.819894E-1	4.877813E-1	4.585840E-1	4.479880E-1	4.782844E-1	4.632181E-1	4.761117E-1	4.578454E-1	4.861336E-1	4.871592E-1	4.761418E-1	4.717627E-1	4.727738E-1	4.525250E-1	4.664895E-1	4.494226E-1	4.700657E-1	4.740794E-1	4.933912E-1	4.574082E-1	4.817244E-1	4.455050E-1	4.970677E-1	4.472737E-1	4.541545E-1	4.648298E-1	4.727273E-1	4.656041E-1	4.372116E-1	4.933419E-1	4.629792E-1	4.823067E-1	4.718869E-1	4.893722E-1	4.838609E-1	4.914018E-1	4.700052E-1	4.451358E-1	4.522986E-1	4.490099E-1	4.630273E-1	5.038476E-1	4.694460E-1	4.705339E-1	5.048284E-1	4.836690E-1	5.004313E-1	4.864181E-1	4.429558E-1	4.835590E-1	4.462665E-1	4.482407E-1	4.745893E-1	4.755711E-1	4.804739E-1	4.788958E-1	4.911203E-1	5.084339E-1	4.864017E-1	4.610537E-1	4.919322E-1	4.724428E-1	4.843339E-1	4.565098E-1	4.594491E-1	4.862196E-1	4.439968E-1	4.574536E-1	4.629876E-1	4.762186E-1	4.763950E-1	4.708168E-1	4.658007E-1	4.911850E-1	5.067218E-1	4.624766E-1	4.841958E-1	4.907739E-1	4.554314E-1	4.753513E-1	4.642754E-1	4.961591E-1	4.554334E-1	4.856771E-1	4.740513E-1	4.891673E-1	4.663249E-1	4.897834E-1	4.647258E-1	4.578087E-1	4.941705E-1	4.411848E-1	5.098606E-1
5.377580E+2	5.542411E-1	5.482034E-1	5.365774E-1	4.770531E-1	5.139194E-1	5.711796E-1	5.619234E-1	5.446914E-1	5.112050E-1	5.268223E-1	5.672267E-1	5.219462E-1	5.183953E-1	5.403555E-1	5.310222E-1	5.260284E-1	5.053151E-1	5.371484E-1	5.562975E-1	5.223917E-1	5.467584E-1	5.438999E-1	5.556325E-1	5.560574E-1	5.458671E-1	5.502041E-1	5.550436E-1	5.557896E-1	5.228582E-1	5.351482E-1	5.853302E-1	5.298281E-1	5.608274E-1	5.726125E-1	5.412212E-1	5.701004E-1	5.546986E-1	5.437239E-1	5.150436E-1	5.537409E-1	5.511265E-1	5.235264E-1	5.682059E-1	5.672033E-1	5.248651E-1	5.444684E-1	5.336628E-1	5.360561E-1	5.431277E-1	5.186385E-1	5.165034E-1	5.666705E-1	5.534904E-1	5.340739E-1	5.471741E-1	5.521253E-1	5.284659E-1	5.486168E-1	5.673841E-1	5.308096E-1	5.624196E-1	5.492733E-1	5.149881E-1	5.339546E-1	5.518855E-1	5.926293E-1	5.121958E-1	5.405690E-1	5.392459E-1	5.279536E-1	5.456183E-1	5.486056E-1	5.446304E-1	5.493622E-1	5.310191E-1	5.720289E-1	5.441061E-1	5.558217E-1	5.624064E-1	5.233738E-1	5.410894E-1	5.472637E-1	5.518911E-1	5.475403E-1	5.579407E-1	5.338891E-1	5.290833E-1	5.737476E-1	5.560527E-1	5.347242E-1	5.005776E-1	5.297904E-1	5.303814E-1	5.356779E-1	5.197594E-1	5.074424E-1	5.651314E-1	5.134939E-1	5.495122E-1	5.816726E-1	5.139251E-1	5.491368E-1	5.301011E-1	4.981956E-1	5.342806E-1	5.469892E-1	5.498275E-1	5.018972E-1	5.338328E-1	5.338448E-1	5.775193E-1	5.690930E-1	5.609664E-1	5.434416E-1	5.301609E-1	5.233376E-1	5.222558E-1	5.324115E-1	5.464804E-1	5.026141E-1	5.285725E-1	5.214124E-1	5.516903E-1	5.196924E-1	5.253913E-1	5.580706E-1	5.554225E-1	5.623543E-1	5.612939E-1	5.311992E-1	5.084650E-1	5.011317E-1	5.638678E-1	5.999151E-1	5.230461E-1	5.748417E-1	5.826785E-1	5.622872E-1	5.655840E-1	5.024950E-1	5.516963E-1	5.507121E-1	5.156330E-1	5.146569E-1	5.563757E-1	5.295644E-1	5.319832E-1	5.365341E-1	5.608039E-1	5.631816E-1	5.588387E-1	5.317302E-1	5.589493E-1	5.539432E-1	5.472833E-1	5.346409E-1	5.787655E-1	5.423000E-1	5.167705E-1	5.318135E-1	5.592976E-1	5.446094E-1	5.252263E-1	5.165942E-1	5.605510E-1	5.234148E-1	5.720816E-1	5.570796E-1	5.454759E-1	5.637393E-1	5.783594E-1	5.756075E-1
5.380160E+2	6.398853E-1	5.850972E-1	6.560470E-1	5.818042E-1	6.497515E-1	6.231881E-1	6.507688E-1	6.560204E-1	6.308576E-1	6.248920E-1	6.346710E-1	6.239560E-1	6.638453E-1	6.309330E-1	6.525027E-1	6.422677E-1	6.399459E-1	6.758877E-1	6.365578E-1	6.301482E-1	6.462944E-1	6.587170E-1	6.604876E-1	6.321681E-1	6.461636E-1	6.328826E-1	6.447698E-1	6.537286E-1	6.471454E-1	6.534126E-1	6.469884E-1	6.386775E-1	6.759133E-1	6.549642E-1	6.567320E-1	6.349483E-1	6.542388E-1	6.570323E-1	6.077552E-1	6.699190E-1	6.349552E-1	6.468405E-1	6.716408E-1	6.544182E-1	6.548421E-1	6.677056E-1	6.513160E-1	6.672660E-1	6.343358E-1	6.719363E-1	6.269505E-1	6.731135E-1	6.584515E-1	6.470020E-1	6.364917E-1	6.422613E-1	6.504551E-1	6.434149E-1	6.498832E-1	6.308650E-1	6.328651E-1	6.335335E-1	6.298886E-1	6.290346E-1	6.239667E-1	6.661562E-1	6.504267E-1	6.674310E-1	6.090495E-1	6.727846E-1	6.720904E-1	6.380358E-1	6.091040E-1	6.629200E-1	6.643377E-1	6.575014E-1	6.503560E-1	6.440294E-1	6.338449E-1	6.407644E-1	6.831951E-1	6.455385E-1	5.941734E-1	6.284897E-1	6.477035E-1	6.417407E-1	6.729766E-1	6.687240E-1	6.929949E-1	6.492639E-1	6.524503E-1	6.111526E-1	6.290173E-1	6.460662E-1	6.295036E-1	6.288313E-1	6.638207E-1	6.334590E-1	6.069063E-1	6.387665E-1	6.675830E-1	6.619375E-1	6.755668E-1	6.305120E-1	6.757852E-1	6.753298E-1	6.821654E-1	6.370640E-1	6.241860E-1	6.556473E-1	6.344675E-1	6.789373E-1	6.643564E-1	6.613514E-1	6.372684E-1	6.366897E-1	6.555026E-1	6.390895E-1	6.494702E-1	6.614127E-1	6.479962E-1	6.111617E-1	6.893651E-1	6.170430E-1	6.558344E-1	6.318999E-1	6.470872E-1	6.253234E-1	6.587065E-1	6.447192E-1	6.637949E-1	6.341339E-1	6.331508E-1	6.338815E-1	6.454826E-1	6.305767E-1	6.572140E-1	5.960824E-1	6.015435E-1	6.555800E-1	6.419747E-1	6.527668E-1	6.160822E-1	6.653200E-1	6.398910E-1	6.375108E-1	6.397520E-1	6.735608E-1	6.858572E-1	6.539695E-1	6.670212E-1	6.174584E-1	6.465967E-1	6.729472E-1	6.542127E-1	6.306962E-1	6.693651E-1	6.376151E-1	6.612172E-1	6.488521E-1	7.101646E-1	6.181771E-1	6.630403E-1	6.310125E-1	6.885055E-1	6.631944E-1	6.734760E-1	6.213465E-1	6.031991E-1	6.837160E-1	6.862736E-1	6.016441E-1
5.382740E+2	8.284625E-1	8.271434E-1	8.134957E-1	8.324166E-1	7.744640E-1	7.908647E-1	8.148446E-1	8.179542E-1	7.901499E-1	8.206251E-1	7.984940E-1	7.981946E-1	8.010568E-1	8.010196E-1	8.111007E-1	7.816634E-1	7.874406E-1	7.938613E-1	7.631625E-1	8.075890E-1	8.484930E-1	8.109841E-1	8.236193E-1	8.191785E-1	8.286467E-1	8.415980E-1	8.073729E-1	7.985249E-1	7.961044E-1	7.889958E-1	7.873626E-1	8.111706E-1	7.745192E-1	8.323628E-1	7.652939E-1	7.597784E-1	8.078716E-1	7.850780E-1	7.883951E-1	7.989688E-1	8.073882E-1	8.152972E-1	7.973962E-1	8.143667E-1	7.891209E-1	8.177279E-1	8.311168E-1	8.299097E-1	8.398569E-1	8.304948E-1	7.888252E-1	8.106816E-1	8.249756E-1	7.587199E-1	7.672316E-1	8.208666E-1	8.465507E-1	8.492877E-1	8.235614E-1	7.685982E-1	8.246015E-1	8.263692E-1	7.931662E-1	8.081169E-1	8.155293E-1	8.151941E-1	8.176173E-1	8.273054E-1	7.870854E-1	7.938837E-1	7.900950E-1	7.805517E-1	8.261612E-1	7.859839E-1	7.851008E-1	8.038871E-1	7.747627E-1	8.131840E-1	8.321316E-1	7.850197E-1	8.653552E-1	8.119469E-1	7.698503E-1	8.127194E-1	8.605487E-1	7.920280E-1	8.063997E-1	8.379907E-1	8.231645E-1	7.992568E-1	8.146087E-1	7.994339E-1	8.057107E-1	7.797722E-1	7.850248E-1	8.400370E-1	8.190072E-1	8.125128E-1	7.995050E-1	8.331714E-1	7.958040E-1	8.057235E-1	8.089066E-1	7.608344E-1	8.003432E-1	8.521181E-1	7.954871E-1	8.124266E-1	8.268955E-1	8.127646E-1	7.833595E-1	8.074006E-1	8.122623E-1	8.139014E-1	8.061599E-1	8.200798E-1	7.900475E-1	8.319629E-1	8.144711E-1	8.014236E-1	8.579087E-1	8.110278E-1	7.859593E-1	7.803170E-1	7.710254E-1	8.422544E-1	7.997345E-1	7.823442E-1	8.567869E-1	7.624198E-1	7.946072E-1	7.523836E-1	7.985639E-1	7.943510E-1	7.956317E-1	8.291404E-1	8.340843E-1	8.109594E-1	7.891102E-1	8.130783E-1	8.208380E-1	8.103448E-1	7.707011E-1	7.952283E-1	8.917248E-1	7.947727E-1	8.043579E-1	8.370416E-1	8.525919E-1	8.043969E-1	7.799631E-1	8.091258E-1	8.543781E-1	7.720226E-1	8.297741E-1	7.995831E-1	8.126565E-1	7.497487E-1	7.681600E-1	8.296276E-1	8.714795E-1	8.431988E-1	7.920148E-1	7.938498E-1	8.048154E-1	8.097045E-1	8.029568E-1	8.206865E-1	7.864802E-1	8.253372E-1	8.532436E-1	8.405363E-1
5.385060E+2	9.861013E-1	1.025567E+0	9.845579E-1	1.391935E+0	9.845793E-1	9.916167E-1	1.018622E+0	1.020371E+0	9.357361E-1	9.905965E-1	1.008254E+0	9.892341E-1	9.959892E-1	1.028906E+0	9.896240E-1	9.653258E-1	1.002150E+0	1.016819E+0	1.009419E+0	9.960768E-1	1.037656E+0	1.014651E+0	1.009294E+0	1.001780E+0	9.961799E-1	9.912923E-1	9.564353E-1	9.645664E-1	9.746562E-1	9.871621E-1	1.007603E+0	1.002795E+0	1.022848E+0	1.025473E+0	9.951237E-1	9.740288E-1	1.025563E+0	9.830821E-1	9.838382E-1	1.013856E+0	9.566210E-1	9.665203E-1	1.019144E+0	1.016471E+0	1.025122E+0	1.048319E+0	1.000733E+0	9.868612E-1	1.015761E+0	9.931132E-1	9.996829E-1	9.862904E-1	1.018385E+0	9.822336E-1	9.859461E-1	9.860414E-1	9.996476E-1	1.024515E+0	1.003651E+0	9.408305E-1	9.770415E-1	1.006442E+0	9.922238E-1	9.849646E-1	1.021547E+0	9.529088E-1	9.800764E-1	9.938845E-1	1.016077E+0	1.003897E+0	9.705475E-1	9.734760E-1	9.953387E-1	1.001320E+0	9.638912E-1	1.011758E+0	9.676088E-1	9.995160E-1	9.940626E-1	9.456695E-1	1.003290E+0	9.309853E-1	9.450554E-1	9.762862E-1	9.664123E-1	1.002560E+0	9.880227E-1	9.713499E-1	9.496040E-1	9.916125E-1	9.924033E-1	9.172720E-1	1.010823E+0	1.013372E+0	9.814630E-1	9.594087E-1	9.753322E-1	1.012067E+0	9.700244E-1	9.608036E-1	9.740166E-1	9.505383E-1	9.837846E-1	9.493456E-1	9.592189E-1	9.850983E-1	9.722050E-1	1.013447E+0	9.974268E-1	9.875938E-1	1.007230E+0	9.851788E-1	9.851599E-1	1.012964E+0	9.623130E-1	9.650653E-1	9.895283E-1	9.920883E-1	1.017121E+0	1.000687E+0	9.927190E-1	9.991431E-1	9.742785E-1	9.651452E-1	9.524851E-1	1.034028E+0	9.841273E-1	9.658015E-1	1.004283E+0	9.589243E-1	9.581380E-1	9.630582E-1	1.057546E+0	9.925380E-1	1.000034E+0	1.003963E+0	1.030604E+0	9.870789E-1	9.744197E-1	1.022900E+0	1.005776E+0	9.911078E-1	9.986892E-1	9.492400E-1	1.028294E+0	9.767342E-1	9.587273E-1	9.878993E-1	9.478662E-1	9.420233E-1	1.033495E+0	9.840210E-1	9.772773E-1	1.007206E+0	9.533888E-1	9.483166E-1	1.004701E+0	1.017606E+0	9.594169E-1	9.710752E-1	1.018000E+0	1.012930E+0	9.483451E-1	9.744432E-1	9.880005E-1	9.941246E-1	9.951558E-1	9.928640E-1	1.013820E+0	9.267553E-1	1.036436E+0	9.943396E-1
5.387540E+2	1.194961E+0	1.260253E+0	1.191030E+0	1.702367E+0	1.220927E+0	1.198189E+0	1.185908E+0	1.268230E+0	1.296439E+0	1.177926E+0	1.142234E+0	1.250340E+0	1.228169E+0	1.195660E+0	1.244158E+0	1.207301E+0	1.198464E+0	1.245253E+0	1.188492E+0	1.170743E+0	1.237694E+0	1.218991E+0	1.176500E+0	1.227633E+0	1.206190E+0	1.223740E+0	1.214320E+0	1.247212E+0	1.225434E+0	1.200897E+0	1.200183E+0	1.224863E+0	1.158231E+0	1.209624E+0	1.204621E+0	1.253821E+0	1.235403E+0	1.281134E+0	1.228989E+0	1.221488E+0	1.194040E+0	1.242365E+0	1.208535E+0	1.222088E+0	1.184546E+0	1.238948E+0	1.196468E+0	1.203637E+0	1.216399E+0	1.215524E+0	1.232405E+0	1.295954E+0	1.216824E+0	1.217639E+0	1.175589E+0	1.269212E+0	1.280169E+0	1.280259E+0	1.223227E+0	1.194085E+0	1.214789E+0	1.224242E+0	1.208390E+0	1.210754E+0	1.271903E+0	1.222116E+0	1.230976E+0	1.247774E+0	1.200541E+0	1.211376E+0	1.193554E+0	1.202990E+0	1.258325E+0	1.216903E+0	1.255782E+0	1.272966E+0	1.230226E+0	1.200587E+0	1.204086E+0	1.191900E+0	1.293263E+0	1.200147E+0	1.154429E+0	1.181854E+0	1.201713E+0	1.198865E+0	1.191716E+0	1.252485E+0	1.208230E+0	1.251325E+0	1.212154E+0	1.176426E+0	1.197533E+0	1.252674E+0	1.168483E+0	1.180934E+0	1.183523E+0	1.186728E+0	1.261038E+0	1.253475E+0	1.223732E+0	1.245803E+0	1.197751E+0	1.196764E+0	1.209024E+0	1.189040E+0	1.234703E+0	1.183845E+0	1.208420E+0	1.252909E+0	1.234055E+0	1.230625E+0	1.181569E+0	1.159010E+0	1.218686E+0	1.162954E+0	1.223991E+0	1.228164E+0	1.222413E+0	1.187794E+0	1.212125E+0	1.187268E+0	1.204239E+0	1.153044E+0	1.206780E+0	1.208939E+0	1.212788E+0	1.211233E+0	1.238912E+0	1.202465E+0	1.188279E+0	1.206535E+0	1.237951E+0	1.223586E+0	1.211528E+0	1.239617E+0	1.265942E+0	1.218878E+0	1.190712E+0	1.197187E+0	1.239681E+0	1.193311E+0	1.184179E+0	1.144329E+0	1.231112E+0	1.204570E+0	1.211918E+0	1.188216E+0	1.201180E+0	1.193948E+0	1.213612E+0	1.170555E+0	1.258555E+0	1.224470E+0	1.231835E+0	1.137826E+0	1.229480E+0	1.156458E+0	1.178748E+0	1.211339E+0	1.246162E+0	1.210173E+0	1.242141E+0	1.259260E+0	1.231949E+0	1.268763E+0	1.232268E+0	1.193011E+0	1.221537E+0	1.173007E+0	1.305738E+0	1.205515E+0
5.390340E+2	1.445173E+0	1.526091E+0	1.447299E+0	2.045031E+0	1.455289E+0	1.432817E+0	1.419263E+0	1.458323E+0	1.387677E+0	1.415455E+0	1.426020E+0	1.411259E+0	1.489574E+0	1.459593E+0	1.462279E+0	1.419099E+0	1.408752E+0	1.448148E+0	1.448502E+0	1.486246E+0	1.455648E+0	1.469138E+0	1.431231E+0	1.504695E+0	1.430398E+0	1.465105E+0	1.431777E+0	1.429356E+0	1.429176E+0	1.447062E+0	1.463487E+0	1.438308E+0	1.453521E+0	1.457205E+0	1.436596E+0	1.395852E+0	1.424524E+0	1.476716E+0	1.452973E+0	1.475570E+0	1.421196E+0	1.461148E+0	1.443290E+0	1.419028E+0	1.472180E+0	1.408129E+0	1.474809E+0	1.397659E+0	1.468758E+0	1.456742E+0	1.436475E+0	1.449428E+0	1.410701E+0	1.464496E+0	1.471327E+0	1.461773E+0	1.465968E+0	1.496082E+0	1.393331E+0	1.406968E+0	1.475133E+0	1.384701E+0	1.436581E+0	1.403382E+0	1.448611E+0	1.434054E+0	1.447071E+0	1.472825E+0	1.395983E+0	1.419814E+0	1.429809E+0	1.434106E+0	1.428223E+0	1.494585E+0	1.472185E+0	1.449366E+0	1.422305E+0	1.443998E+0	1.437356E+0	1.447478E+0	1.442732E+0	1.397436E+0	1.415541E+0	1.416235E+0	1.444885E+0	1.475367E+0	1.432014E+0	1.452548E+0	1.386197E+0	1.459879E+0	1.410514E+0	1.403307E+0	1.393349E+0	1.423076E+0	1.410332E+0	1.377626E+0	1.461485E+0	1.445101E+0	1.379475E+0	1.413082E+0	1.454233E+0	1.393403E+0	1.432155E+0	1.409857E+0	1.441929E+0	1.409237E+0	1.451410E+0	1.417425E+0	1.492950E+0	1.455864E+0	1.406148E+0	1.414991E+0	1.472403E+0	1.427154E+0	1.381371E+0	1.386193E+0	1.438325E+0	1.381607E+0	1.431706E+0	1.456690E+0	1.429734E+0	1.479034E+0	1.425975E+0	1.389254E+0	1.418555E+0	1.406741E+0	1.403758E+0	1.385731E+0	1.442494E+0	1.422067E+0	1.381985E+0	1.391164E+0	1.392774E+0	1.379205E+0	1.414179E+0	1.444439E+0	1.493577E+0	1.432794E+0	1.360661E+0	1.402880E+0	1.378312E+0	1.450200E+0	1.389084E+0	1.386129E+0	1.448337E+0	1.489531E+0	1.406833E+0	1.415559E+0	1.432972E+0	1.398084E+0	1.413902E+0	1.412426E+0	1.488747E+0	1.437742E+0	1.413937E+0	1.441501E+0	1.414344E+0	1.399411E+0	1.438777E+0	1.427243E+0	1.439589E+0	1.391776E+0	1.397241E+0	1.402105E+0	1.457850E+0	1.409835E+0	1.443160E+0	1.454387E+0	1.456397E+0	1.399036E+0	1.508429E+0	1.429249E+0
5.392780E+2	1.629557E+0	1.618001E+0	1.590140E+0	2.267309E+0	1.577449E+0	1.601339E+0	1.604038E+0	1.615835E+0	1.565623E+0	1.649341E+0	1.682812E+0	1.592979E+0	1.579411E+0	1.618761E+0	1.580991E+0	1.572334E+0	1.589800E+0	1.634546E+0	1.604236E+0	1.578654E+0	1.636051E+0	1.621095E+0	1.598763E+0	1.638139E+0	1.611869E+0	1.648217E+0	1.574086E+0	1.587103E+0	1.610449E+0	1.602925E+0	1.601668E+0	1.563841E+0	1.612173E+0	1.583530E+0	1.603545E+0	1.607769E+0	1.533427E+0	1.649373E+0	1.589842E+0	1.548778E+0	1.570799E+0	1.637229E+0	1.517499E+0	1.597692E+0	1.664138E+0	1.644841E+0	1.594394E+0	1.537946E+0	1.608888E+0	1.626168E+0	1.607381E+0	1.666650E+0	1.565623E+0	1.636319E+0	1.584157E+0	1.631385E+0	1.586110E+0	1.584043E+0	1.589467E+0	1.578119E+0	1.565292E+0	1.621528E+0	1.549609E+0	1.566043E+0	1.645625E+0	1.627583E+0	1.575398E+0	1.578544E+0	1.533626E+0	1.580016E+0	1.587338E+0	1.558128E+0	1.527985E+0	1.615606E+0	1.562714E+0	1.653383E+0	1.605377E+0	1.557849E+0	1.622050E+0	1.626554E+0	1.645177E+0	1.542562E+0	1.576145E+0	1.580125E+0	1.657667E+0	1.623231E+0	1.584805E+0	1.565329E+0	1.590370E+0	1.623448E+0	1.577390E+0	1.535798E+0	1.554691E+0	1.562260E+0	1.517389E+0	1.522881E+0	1.602072E+0	1.555168E+0	1.552590E+0	1.590521E+0	1.556601E+0	1.633091E+0	1.545410E+0	1.542719E+0	1.554728E+0	1.576845E+0	1.569606E+0	1.508584E+0	1.620887E+0	1.640464E+0	1.547814E+0	1.612251E+0	1.565589E+0	1.520057E+0	1.560167E+0	1.541477E+0	1.558872E+0	1.545172E+0	1.537408E+0	1.560523E+0	1.631988E+0	1.597130E+0	1.518730E+0	1.612527E+0	1.549941E+0	1.558895E+0	1.570084E+0	1.577095E+0	1.610490E+0	1.542752E+0	1.578214E+0	1.535534E+0	1.625116E+0	1.517186E+0	1.605957E+0	1.600488E+0	1.572260E+0	1.538117E+0	1.534402E+0	1.501351E+0	1.629217E+0	1.552200E+0	1.528673E+0	1.518703E+0	1.588530E+0	1.572901E+0	1.614317E+0	1.523626E+0	1.564768E+0	1.570092E+0	1.575611E+0	1.552700E+0	1.665986E+0	1.584267E+0	1.630456E+0	1.564906E+0	1.580075E+0	1.531369E+0	1.528331E+0	1.543321E+0	1.656764E+0	1.531018E+0	1.599957E+0	1.530089E+0	1.586904E+0	1.542513E+0	1.595413E+0	1.596818E+0	1.550798E+0	1.601918E+0	1.611425E+0	1.497245E+0
5.395100E+2	1.926334E+0	1.956492E+0	1.884046E+0	2.685055E+0	1.901019E+0	1.906014E+0	1.928170E+0	1.924526E+0	1.842611E+0	1.902645E+0	1.868798E+0	1.867502E+0	1.853121E+0	1.844848E+0	1.929649E+0	1.876605E+0	1.863682E+0	1.893180E+0	1.903952E+0	1.893648E+0	1.904175E+0	2.005883E+0	1.937808E+0	1.981091E+0	1.937283E+0	1.935605E+0	1.928536E+0	1.908205E+0	1.894923E+0	1.926412E+0	1.926917E+0	1.878776E+0	1.892886E+0	1.875902E+0	1.948066E+0	1.852185E+0	1.900244E+0	1.889936E+0	1.883337E+0	1.863715E+0	1.936498E+0	1.878964E+0	1.891469E+0	1.939475E+0	1.938623E+0	1.906089E+0	1.887500E+0	1.894226E+0	1.896357E+0	1.903321E+0	1.845496E+0	1.912679E+0	1.877061E+0	1.947657E+0	1.859797E+0	1.878286E+0	1.910164E+0	1.932984E+0	1.867222E+0	1.902174E+0	1.907444E+0	1.874092E+0	1.859682E+0	1.869369E+0	1.916198E+0	1.893657E+0	1.867983E+0	1.905934E+0	1.826954E+0	1.917132E+0	1.831837E+0	1.875542E+0	1.878478E+0	1.880755E+0	1.912041E+0	1.898066E+0	1.864743E+0	1.881692E+0	1.880564E+0	1.915056E+0	1.927765E+0	1.836018E+0	1.888515E+0	1.874142E+0	1.926761E+0	1.888466E+0	1.813182E+0	1.845322E+0	1.842446E+0	1.900874E+0	1.853462E+0	1.823539E+0	1.872680E+0	1.832661E+0	1.828199E+0	1.810008E+0	1.898969E+0	1.913345E+0	1.867832E+0	1.797364E+0	1.840518E+0	1.827727E+0	1.887907E+0	1.764205E+0	1.867874E+0	1.861440E+0	1.888732E+0	1.856434E+0	1.937221E+0	1.869268E+0	1.856439E+0	1.864391E+0	1.833999E+0	1.879136E+0	1.827275E+0	1.849499E+0	1.834393E+0	1.894796E+0	1.866673E+0	1.881196E+0	1.822979E+0	1.882650E+0	1.817218E+0	1.861509E+0	1.835037E+0	1.892720E+0	1.831094E+0	1.846818E+0	1.891257E+0	1.820547E+0	1.870206E+0	1.800580E+0	1.806108E+0	1.785857E+0	1.894001E+0	1.816005E+0	1.833205E+0	1.871399E+0	1.843592E+0	1.778189E+0	1.854806E+0	1.826664E+0	1.803711E+0	1.845361E+0	1.919415E+0	1.824484E+0	1.797257E+0	1.844487E+0	1.871465E+0	1.864191E+0	1.831052E+0	1.859891E+0	1.837821E+0	1.926284E+0	1.860330E+0	1.829414E+0	1.820456E+0	1.858346E+0	1.855334E+0	1.825595E+0	1.954626E+0	1.786085E+0	1.880981E+0	1.805302E+0	1.891077E+0	1.828312E+0	1.835418E+0	1.794962E+0	1.845896E+0	1.876450E+0	1.820386E+0	1.717857E+0
5.397910E+2	2.044811E+0	2.103044E+0	2.064968E+0	2.612714E+0	2.046544E+0	2.048165E+0	2.102434E+0	2.139053E+0	2.035544E+0	2.059276E+0	2.044832E+0	2.061186E+0	1.990062E+0	2.073168E+0	2.067880E+0	1.980846E+0	2.029097E+0	2.061027E+0	2.038232E+0	2.006826E+0	2.034628E+0	2.126673E+0	2.054713E+0	2.084573E+0	2.065010E+0	2.034367E+0	2.046334E+0	2.039800E+0	2.057767E+0	2.033446E+0	2.046507E+0	2.015213E+0	2.094042E+0	2.008740E+0	2.058247E+0	2.054362E+0	2.024575E+0	2.081326E+0	1.991248E+0	2.046896E+0	1.970141E+0	1.981010E+0	1.996838E+0	2.080993E+0	1.999788E+0	2.069882E+0	1.965567E+0	2.026048E+0	2.047029E+0	2.081547E+0	2.087564E+0	2.071234E+0	2.049514E+0	2.075061E+0	2.073059E+0	1.997362E+0	1.990731E+0	2.041960E+0	2.041023E+0	1.975413E+0	1.996123E+0	2.053964E+0	2.015115E+0	1.982590E+0	2.067465E+0	2.045062E+0	1.985530E+0	2.066708E+0	1.989677E+0	2.000883E+0	2.004904E+0	2.013266E+0	1.984835E+0	2.039617E+0	2.012256E+0	2.072310E+0	2.044132E+0	1.994512E+0	2.007828E+0	1.958442E+0	2.032094E+0	2.031991E+0	2.010277E+0	1.982996E+0	2.049860E+0	1.960548E+0	1.960001E+0	2.040050E+0	2.000601E+0	2.026075E+0	1.976618E+0	1.977939E+0	2.012711E+0	1.993246E+0	1.945280E+0	1.991957E+0	2.009654E+0	1.977617E+0	2.067561E+0	1.959303E+0	1.989233E+0	2.010504E+0	2.017349E+0	1.968535E+0	2.012626E+0	2.000352E+0	2.010005E+0	2.042463E+0	1.962283E+0	1.959179E+0	2.014066E+0	2.000139E+0	1.963990E+0	2.064333E+0	1.930490E+0	1.966589E+0	1.883620E+0	1.932640E+0	2.033643E+0	1.975789E+0	1.959948E+0	2.007062E+0	1.984290E+0	1.964152E+0	1.990068E+0	1.996148E+0	1.990360E+0	1.955196E+0	1.992293E+0	1.923468E+0	1.988475E+0	2.014598E+0	1.958698E+0	1.934190E+0	1.983239E+0	2.007571E+0	2.043268E+0	1.971301E+0	1.982790E+0	1.897877E+0	1.975378E+0	1.977038E+0	1.934864E+0	1.928944E+0	2.063158E+0	2.006215E+0	1.978569E+0	1.928340E+0	1.884454E+0	2.001633E+0	1.955609E+0	2.021985E+0	1.951355E+0	1.919408E+0	1.958505E+0	1.883882E+0	1.948931E+0	1.932474E+0	1.954418E+0	1.964281E+0	1.976343E+0	1.897123E+0	1.979753E+0	1.988277E+0	1.898026E+0	1.936950E+0	1.997916E+0	1.979829E+0	1.924754E+0	1.964062E+0	2.065662E+0	1.845674E+0
5.400460E+2	2.144980E+0	2.048580E+0	2.109407E+0	2.960814E+0	2.034213E+0	2.030346E+0	2.079036E+0	2.125631E+0	2.084702E+0	2.049576E+0	2.054668E+0	2.104799E+0	2.073603E+0	2.020522E+0	2.019284E+0	2.014800E+0	2.029803E+0	2.083835E+0	2.043942E+0	2.087330E+0	2.038884E+0	2.102758E+0	2.034435E+0	2.099218E+0	1.969164E+0	2.043985E+0	2.046812E+0	1.996533E+0	2.114807E+0	2.095300E+0	2.062104E+0	2.054677E+0	2.018729E+0	2.119659E+0	2.060902E+0	1.995859E+0	2.040284E+0	2.069008E+0	2.031020E+0	2.009600E+0	1.991158E+0	2.081804E+0	1.967953E+0	2.020795E+0	2.032043E+0	2.075728E+0	2.034066E+0	2.020210E+0	2.067791E+0	2.055101E+0	2.019204E+0	2.064934E+0	2.030356E+0	2.076392E+0	2.057962E+0	2.047496E+0	2.029671E+0	2.093387E+0	2.017248E+0	2.031308E+0	2.072730E+0	1.975258E+0	2.044373E+0	2.050264E+0	2.006107E+0	2.028594E+0	2.044259E+0	2.021699E+0	2.007927E+0	2.027711E+0	2.052291E+0	2.087848E+0	2.007067E+0	2.060557E+0	2.027503E+0	2.113691E+0	2.064061E+0	1.994899E+0	2.050327E+0	2.039456E+0	2.078438E+0	2.003506E+0	1.954629E+0	2.016661E+0	2.016885E+0	1.989931E+0	1.980838E+0	1.998684E+0	2.003137E+0	2.006756E+0	1.969397E+0	1.981235E+0	1.966347E+0	2.084082E+0	1.996368E+0	2.026674E+0	2.003078E+0	1.983648E+0	2.073348E+0	2.063978E+0	2.028821E+0	2.000445E+0	2.068529E+0	1.941908E+0	2.001414E+0	1.999790E+0	1.977683E+0	1.942219E+0	1.984779E+0	1.989409E+0	2.017781E+0	2.006971E+0	2.065610E+0	2.088657E+0	1.986673E+0	1.982505E+0	1.968917E+0	2.045586E+0	2.029453E+0	2.040211E+0	1.951042E+0	2.058540E+0	1.956911E+0	1.938425E+0	1.953710E+0	2.047575E+0	1.987978E+0	1.954987E+0	2.020747E+0	1.863309E+0	1.976015E+0	1.942615E+0	1.995737E+0	1.970343E+0	2.033763E+0	2.027928E+0	1.988225E+0	1.970371E+0	2.027738E+0	1.906534E+0	2.014249E+0	2.036526E+0	1.926287E+0	1.942222E+0	1.982258E+0	2.031191E+0	1.974449E+0	1.969583E+0	1.940315E+0	1.979860E+0	1.921441E+0	1.953445E+0	1.990065E+0	1.953219E+0	1.985454E+0	1.906432E+0	1.975628E+0	1.881040E+0	1.882880E+0	1.954060E+0	1.964250E+0	1.887056E+0	1.988471E+0	2.004666E+0	1.925723E+0	1.958113E+0	1.983494E+0	2.005440E+0	1.985931E+0	2.018490E+0	2.027176E+0	1.916345E+0
5.402690E+2	2.034021E+0	2.019413E+0	2.015537E+0	2.945310E+0	2.028983E+0	2.001946E+0	2.061730E+0	2.028396E+0	2.003347E+0	1.931657E+0	1.957962E+0	1.964957E+0	2.038325E+0	2.008747E+0	1.977146E+0	1.940286E+0	2.039995E+0	2.061009E+0	2.040627E+0	2.024128E+0	2.032549E+0	2.109692E+0	1.948374E+0	2.008965E+0	1.958184E+0	1.965353E+0	2.107262E+0	1.959699E+0	1.945063E+0	2.011960E+0	2.034092E+0	1.926336E+0	2.018013E+0	1.996858E+0	1.991484E+0	1.945794E+0	1.989624E+0	2.053937E+0	1.929826E+0	1.981865E+0	1.929887E+0	1.943879E+0	1.961413E+0	1.994980E+0	1.981881E+0	2.043808E+0	1.989732E+0	1.957819E+0	1.987518E+0	2.008731E+0	2.037822E+0	1.976789E+0	2.034697E+0	2.011209E+0	1.959971E+0	2.045915E+0	1.998241E+0	2.018314E+0	1.998331E+0	1.996763E+0	1.976721E+0	2.027348E+0	1.980033E+0	1.912349E+0	1.909979E+0	1.974273E+0	1.921672E+0	2.038584E+0	1.972262E+0	1.982253E+0	1.997630E+0	1.969374E+0	2.003530E+0	1.942704E+0	1.952907E+0	2.048226E+0	1.978942E+0	2.007244E+0	1.976387E+0	1.945821E+0	2.001917E+0	1.988997E+0	1.917207E+0	1.966103E+0	1.995189E+0	1.965658E+0	1.966958E+0	1.993829E+0	1.953018E+0	2.019815E+0	1.948345E+0	1.991638E+0	1.911707E+0	1.962719E+0	1.932946E+0	1.967754E+0	1.968775E+0	1.977363E+0	1.982984E+0	1.947553E+0	1.954661E+0	1.988891E+0	1.936978E+0	1.963220E+0	1.939530E+0	1.952694E+0	1.964746E+0	1.860211E+0	1.960038E+0	1.903305E+0	2.057454E+0	1.934665E+0	1.920690E+0	1.994996E+0	1.998974E+0	1.891704E+0	1.928486E+0	1.925268E+0	1.896466E+0	1.979510E+0	1.928600E+0	1.951439E+0	1.916006E+0	1.964959E+0	2.004528E+0	1.923100E+0	2.013272E+0	1.873225E+0	1.969090E+0	1.873777E+0	2.001056E+0	1.938878E+0	1.932553E+0	1.956972E+0	1.960317E+0	1.970954E+0	1.921632E+0	1.902084E+0	1.955902E+0	1.814622E+0	1.980637E+0	1.912314E+0	1.904319E+0	1.827494E+0	2.005132E+0	2.038001E+0	1.890188E+0	1.871348E+0	1.920655E+0	1.933769E+0	1.983427E+0	1.995673E+0	1.979240E+0	1.913044E+0	1.998900E+0	1.916607E+0	1.910646E+0	1.935364E+0	1.922156E+0	1.913257E+0	1.989324E+0	1.851551E+0	1.903051E+0	1.972748E+0	1.896040E+0	1.974266E+0	1.899348E+0	1.904927E+0	1.826275E+0	1.929014E+0	2.055724E+0	1.859500E+0
5.405180E+2	1.941834E+0	1.977527E+0	1.902073E+0	2.562661E+0	1.918588E+0	1.960243E+0	1.983187E+0	1.929264E+0	2.000478E+0	1.930558E+0	1.896456E+0	1.999717E+0	1.856748E+0	1.906974E+0	1.987911E+0	1.875102E+0	1.979642E+0	2.001930E+0	1.935042E+0	1.938563E+0	1.931461E+0	1.976015E+0	1.949761E+0	1.982527E+0	1.962334E+0	1.942310E+0	1.938899E+0	1.978763E+0	1.950591E+0	1.970838E+0	1.948547E+0	1.920586E+0	1.976205E+0	1.911412E+0	1.983008E+0	1.884920E+0	1.916653E+0	1.924101E+0	1.904217E+0	1.935758E+0	1.961045E+0	1.995565E+0	1.966277E+0	1.905633E+0	1.977084E+0	1.947104E+0	1.915389E+0	1.908432E+0	1.935377E+0	1.957831E+0	1.914998E+0	1.887820E+0	1.933664E+0	1.937720E+0	1.910867E+0	1.955268E+0	1.891801E+0	1.937940E+0	1.930828E+0	1.909240E+0	1.913813E+0	1.909154E+0	1.872560E+0	1.899588E+0	1.900766E+0	1.835061E+0	1.973624E+0	1.953101E+0	1.897794E+0	1.977485E+0	1.900183E+0	1.953988E+0	1.893364E+0	1.926653E+0	1.874033E+0	1.914182E+0	1.934036E+0	1.909750E+0	1.921586E+0	1.882651E+0	1.964119E+0	1.948870E+0	1.894633E+0	1.931479E+0	1.916965E+0	1.906660E+0	1.818427E+0	1.940503E+0	1.861206E+0	1.894213E+0	1.971517E+0	1.893350E+0	1.892741E+0	1.889482E+0	1.876882E+0	1.893967E+0	1.965298E+0	1.909027E+0	1.843551E+0	1.900158E+0	1.925339E+0	1.898468E+0	1.910490E+0	1.904284E+0	1.877284E+0	1.934230E+0	1.875200E+0	1.854764E+0	1.932249E+0	1.902106E+0	1.883453E+0	1.915282E+0	1.865528E+0	1.918212E+0	1.832088E+0	1.864938E+0	1.796061E+0	1.877096E+0	1.909145E+0	1.966338E+0	1.891007E+0	1.953297E+0	1.896047E+0	1.845572E+0	1.879082E+0	1.913447E+0	1.846897E+0	1.913202E+0	1.902552E+0	1.806116E+0	1.937365E+0	1.874023E+0	1.850370E+0	1.852453E+0	1.916344E+0	1.919637E+0	1.911501E+0	1.860069E+0	1.926058E+0	1.861743E+0	1.955873E+0	1.882645E+0	1.849518E+0	1.866271E+0	1.921063E+0	1.883634E+0	1.863078E+0	1.862695E+0	1.820727E+0	1.899437E+0	1.935333E+0	1.792490E+0	1.897811E+0	1.827020E+0	1.906308E+0	1.792615E+0	1.856899E+0	1.900471E+0	1.820794E+0	1.857117E+0	1.907025E+0	1.872817E+0	1.840166E+0	1.890934E+0	1.883210E+0	1.926030E+0	1.854305E+0	1.892226E+0	1.826809E+0	1.958971E+0	1.837654E+0	1.824624E+0
5.407580E+2	1.885613E+0	1.781294E+0	1.847766E+0	2.473165E+0	1.835315E+0	1.788894E+0	1.805559E+0	1.854759E+0	1.785923E+0	1.766971E+0	1.802214E+0	1.822484E+0	1.798892E+0	1.843946E+0	1.799496E+0	1.767239E+0	1.831406E+0	1.804982E+0	1.828549E+0	1.787837E+0	1.774514E+0	1.846568E+0	1.825117E+0	1.839950E+0	1.799352E+0	1.771893E+0	1.860691E+0	1.823573E+0	1.809167E+0	1.835577E+0	1.830879E+0	1.759721E+0	1.899253E+0	1.793943E+0	1.890126E+0	1.820534E+0	1.796630E+0	1.852010E+0	1.756096E+0	1.802457E+0	1.773271E+0	1.854304E+0	1.843326E+0	1.815202E+0	1.825462E+0	1.800462E+0	1.799073E+0	1.742329E+0	1.842676E+0	1.797300E+0	1.758474E+0	1.790801E+0	1.823137E+0	1.803725E+0	1.760814E+0	1.838820E+0	1.841373E+0	1.797547E+0	1.829751E+0	1.770621E+0	1.794867E+0	1.757935E+0	1.786542E+0	1.765549E+0	1.803704E+0	1.831324E+0	1.791791E+0	1.844458E+0	1.777329E+0	1.761897E+0	1.822405E+0	1.753734E+0	1.807391E+0	1.809837E+0	1.789718E+0	1.869077E+0	1.826179E+0	1.789026E+0	1.769670E+0	1.780816E+0	1.821677E+0	1.837180E+0	1.826706E+0	1.797818E+0	1.784625E+0	1.778764E+0	1.743202E+0	1.814788E+0	1.822373E+0	1.813959E+0	1.791968E+0	1.753321E+0	1.766356E+0	1.781968E+0	1.787197E+0	1.754960E+0	1.792121E+0	1.798533E+0	1.813146E+0	1.812512E+0	1.759961E+0	1.782323E+0	1.801403E+0	1.758030E+0	1.770423E+0	1.854197E+0	1.798237E+0	1.753606E+0	1.790102E+0	1.777912E+0	1.805755E+0	1.796303E+0	1.742693E+0	1.757144E+0	1.768622E+0	1.756953E+0	1.717170E+0	1.767620E+0	1.790693E+0	1.845820E+0	1.683861E+0	1.786742E+0	1.762375E+0	1.714371E+0	1.765237E+0	1.791946E+0	1.758813E+0	1.779193E+0	1.793834E+0	1.733835E+0	1.768708E+0	1.744816E+0	1.750504E+0	1.738423E+0	1.806756E+0	1.754552E+0	1.792008E+0	1.763537E+0	1.746655E+0	1.736574E+0	1.811359E+0	1.772650E+0	1.730911E+0	1.770295E+0	1.790310E+0	1.797059E+0	1.738815E+0	1.733528E+0	1.780731E+0	1.781593E+0	1.803583E+0	1.793675E+0	1.818446E+0	1.815565E+0	1.703887E+0	1.734811E+0	1.741821E+0	1.749899E+0	1.721688E+0	1.774488E+0	1.802341E+0	1.694863E+0	1.763114E+0	1.794457E+0	1.767285E+0	1.739066E+0	1.784221E+0	1.769100E+0	1.780376E+0	1.720085E+0	1.798014E+0	1.883867E+0
5.410450E+2	1.681091E+0	1.729367E+0	1.748901E+0	2.228562E+0	1.670473E+0	1.657974E+0	1.776994E+0	1.772507E+0	1.677061E+0	1.670077E+0	1.699111E+0	1.699882E+0	1.705292E+0	1.679420E+0	1.723140E+0	1.724401E+0	1.731848E+0	1.666873E+0	1.725034E+0	1.730968E+0	1.689377E+0	1.722193E+0	1.684268E+0	1.768894E+0	1.715746E+0	1.760346E+0	1.742864E+0	1.654497E+0	1.749519E+0	1.732083E+0	1.742551E+0	1.669404E+0	1.669896E+0	1.682371E+0	1.735044E+0	1.692843E+0	1.728946E+0	1.760391E+0	1.716123E+0	1.711212E+0	1.657249E+0	1.651536E+0	1.758832E+0	1.773194E+0	1.743719E+0	1.764441E+0	1.700789E+0	1.683707E+0	1.745480E+0	1.649006E+0	1.708117E+0	1.714606E+0	1.695669E+0	1.739090E+0	1.701090E+0	1.728911E+0	1.782233E+0	1.710203E+0	1.697924E+0	1.668559E+0	1.752656E+0	1.688692E+0	1.689403E+0	1.713936E+0	1.687704E+0	1.686635E+0	1.649308E+0	1.733672E+0	1.667170E+0	1.712113E+0	1.705986E+0	1.714020E+0	1.701792E+0	1.732721E+0	1.678383E+0	1.766154E+0	1.752076E+0	1.722125E+0	1.714192E+0	1.692026E+0	1.751088E+0	1.682622E+0	1.719904E+0	1.670215E+0	1.668917E+0	1.652631E+0	1.752959E+0	1.719527E+0	1.718672E+0	1.719074E+0	1.694591E+0	1.624951E+0	1.711737E+0	1.662896E+0	1.667924E+0	1.734575E+0	1.716471E+0	1.701646E+0	1.717288E+0	1.665686E+0	1.624202E+0	1.745952E+0	1.726992E+0	1.658500E+0	1.677785E+0	1.719166E+0	1.652840E+0	1.691002E+0	1.705561E+0	1.669885E+0	1.664492E+0	1.678544E+0	1.631037E+0	1.758089E+0	1.661584E+0	1.631270E+0	1.662604E+0	1.713659E+0	1.701663E+0	1.764812E+0	1.710159E+0	1.747395E+0	1.742283E+0	1.699971E+0	1.679572E+0	1.698938E+0	1.649321E+0	1.658261E+0	1.748743E+0	1.612457E+0	1.635288E+0	1.636030E+0	1.656081E+0	1.690561E+0	1.708577E+0	1.724184E+0	1.731135E+0	1.599559E+0	1.656874E+0	1.768638E+0	1.617764E+0	1.641278E+0	1.669130E+0	1.646251E+0	1.691366E+0	1.706333E+0	1.644222E+0	1.610266E+0	1.667327E+0	1.691762E+0	1.646865E+0	1.661323E+0	1.676708E+0	1.712909E+0	1.694292E+0	1.658364E+0	1.641181E+0	1.671932E+0	1.681100E+0	1.666559E+0	1.663369E+0	1.676621E+0	1.623428E+0	1.673566E+0	1.713374E+0	1.676477E+0	1.678724E+0	1.740327E+0	1.660175E+0	1.653525E+0	1.761971E+0	1.635655E+0
5.412530E+2	1.771971E+0	1.688819E+0	1.706230E+0	2.224473E+0	1.741585E+0	1.661278E+0	1.691426E+0	1.763631E+0	1.711724E+0	1.747168E+0	1.672528E+0	1.721507E+0	1.716513E+0	1.707526E+0	1.747906E+0	1.693460E+0	1.739651E+0	1.710225E+0	1.736346E+0	1.691168E+0	1.741937E+0	1.737452E+0	1.779030E+0	1.777643E+0	1.613307E+0	1.749705E+0	1.727579E+0	1.738975E+0	1.726337E+0	1.756163E+0	1.743269E+0	1.680083E+0	1.755355E+0	1.685422E+0	1.783658E+0	1.698701E+0	1.735366E+0	1.691165E+0	1.717989E+0	1.761813E+0	1.712091E+0	1.690558E+0	1.763063E+0	1.753993E+0	1.697881E+0	1.712452E+0	1.687897E+0	1.664205E+0	1.729568E+0	1.676000E+0	1.713167E+0	1.728700E+0	1.715383E+0	1.693484E+0	1.701373E+0	1.715378E+0	1.795917E+0	1.663532E+0	1.750239E+0	1.670098E+0	1.697173E+0	1.690655E+0	1.720515E+0	1.703363E+0	1.711643E+0	1.706217E+0	1.726063E+0	1.726153E+0	1.683561E+0	1.704877E+0	1.749090E+0	1.713494E+0	1.741742E+0	1.761864E+0	1.731122E+0	1.740237E+0	1.647345E+0	1.740456E+0	1.675353E+0	1.701137E+0	1.730145E+0	1.678135E+0	1.676924E+0	1.715042E+0	1.674868E+0	1.648650E+0	1.671818E+0	1.769190E+0	1.667512E+0	1.707156E+0	1.715799E+0	1.708820E+0	1.742266E+0	1.692112E+0	1.693835E+0	1.663260E+0	1.735812E+0	1.713995E+0	1.699450E+0	1.735259E+0	1.716853E+0	1.701625E+0	1.706137E+0	1.685287E+0	1.693309E+0	1.733540E+0	1.676546E+0	1.688528E+0	1.724910E+0	1.720233E+0	1.718890E+0	1.656662E+0	1.668358E+0	1.739479E+0	1.707769E+0	1.654338E+0	1.696541E+0	1.731334E+0	1.715248E+0	1.720796E+0	1.720520E+0	1.745974E+0	1.746906E+0	1.760568E+0	1.658516E+0	1.726915E+0	1.682850E+0	1.689846E+0	1.677648E+0	1.608645E+0	1.665806E+0	1.625175E+0	1.638554E+0	1.691567E+0	1.706340E+0	1.698284E+0	1.739331E+0	1.667174E+0	1.633149E+0	1.671141E+0	1.707737E+0	1.670818E+0	1.637109E+0	1.658190E+0	1.740745E+0	1.686066E+0	1.696075E+0	1.667276E+0	1.672906E+0	1.679836E+0	1.691631E+0	1.682580E+0	1.658867E+0	1.663689E+0	1.707342E+0	1.679309E+0	1.696117E+0	1.714189E+0	1.656506E+0	1.683330E+0	1.661381E+0	1.690456E+0	1.653927E+0	1.661611E+0	1.607954E+0	1.729196E+0	1.716825E+0	1.671922E+0	1.685907E+0	1.654033E+0	1.782944E+0	1.465934E+0
5.415250E+2	1.620101E+0	1.602774E+0	1.602232E+0	2.006899E+0	1.681530E+0	1.568428E+0	1.616938E+0	1.585169E+0	1.650471E+0	1.547318E+0	1.622632E+0	1.563141E+0	1.547256E+0	1.555819E+0	1.646422E+0	1.578395E+0	1.615078E+0	1.584782E+0	1.590072E+0	1.655883E+0	1.568215E+0	1.586942E+0	1.573471E+0	1.599008E+0	1.594518E+0	1.560582E+0	1.634798E+0	1.598788E+0	1.577698E+0	1.625306E+0	1.569673E+0	1.575535E+0	1.569834E+0	1.566262E+0	1.609496E+0	1.554793E+0	1.590299E+0	1.512714E+0	1.599659E+0	1.604398E+0	1.555730E+0	1.528921E+0	1.568324E+0	1.570450E+0	1.598117E+0	1.538751E+0	1.552678E+0	1.563916E+0	1.591897E+0	1.592593E+0	1.578186E+0	1.638346E+0	1.634523E+0	1.595798E+0	1.630950E+0	1.610261E+0	1.605422E+0	1.566432E+0	1.588792E+0	1.579478E+0	1.569436E+0	1.574323E+0	1.538581E+0	1.596300E+0	1.566079E+0	1.544639E+0	1.567492E+0	1.590126E+0	1.498317E+0	1.586170E+0	1.589100E+0	1.586508E+0	1.513688E+0	1.579942E+0	1.519110E+0	1.636190E+0	1.595859E+0	1.572680E+0	1.510432E+0	1.572681E+0	1.612992E+0	1.612834E+0	1.519215E+0	1.529230E+0	1.572568E+0	1.568784E+0	1.593305E+0	1.636471E+0	1.591143E+0	1.568355E+0	1.611686E+0	1.541140E+0	1.527139E+0	1.613943E+0	1.563759E+0	1.555967E+0	1.552940E+0	1.519253E+0	1.610215E+0	1.595667E+0	1.615363E+0	1.592670E+0	1.619545E+0	1.558154E+0	1.556741E+0	1.606844E+0	1.612996E+0	1.565513E+0	1.553741E+0	1.553462E+0	1.631883E+0	1.563349E+0	1.549485E+0	1.580034E+0	1.570822E+0	1.486626E+0	1.528260E+0	1.544613E+0	1.597779E+0	1.570597E+0	1.584807E+0	1.529981E+0	1.543865E+0	1.560147E+0	1.579192E+0	1.553149E+0	1.602446E+0	1.592306E+0	1.577735E+0	1.519725E+0	1.530341E+0	1.516930E+0	1.540513E+0	1.563445E+0	1.585876E+0	1.606184E+0	1.624247E+0	1.546924E+0	1.522400E+0	1.536168E+0	1.587787E+0	1.534378E+0	1.536858E+0	1.496591E+0	1.576297E+0	1.563963E+0	1.484334E+0	1.539232E+0	1.584095E+0	1.544155E+0	1.513481E+0	1.534611E+0	1.562252E+0	1.561316E+0	1.572887E+0	1.542390E+0	1.544305E+0	1.558322E+0	1.569137E+0	1.540143E+0	1.582296E+0	1.526557E+0	1.536197E+0	1.538026E+0	1.586661E+0	1.601675E+0	1.557781E+0	1.572937E+0	1.532758E+0	1.493326E+0	1.606920E+0	1.494447E+0
5.417600E+2	1.421844E+0	1.462869E+0	1.440795E+0	2.059600E+0	1.464862E+0	1.416365E+0	1.440251E+0	1.454284E+0	1.434114E+0	1.488190E+0	1.434521E+0	1.456622E+0	1.494967E+0	1.431933E+0	1.402660E+0	1.394841E+0	1.438724E+0	1.439229E+0	1.440867E+0	1.443895E+0	1.466135E+0	1.476636E+0	1.468287E+0	1.482013E+0	1.429261E+0	1.419670E+0	1.443166E+0	1.486145E+0	1.492161E+0	1.457190E+0	1.512867E+0	1.469736E+0	1.477166E+0	1.443248E+0	1.492582E+0	1.396302E+0	1.449661E+0	1.432683E+0	1.425160E+0	1.445222E+0	1.414351E+0	1.465666E+0	1.424295E+0	1.490164E+0	1.457768E+0	1.449649E+0	1.407078E+0	1.409925E+0	1.466767E+0	1.438413E+0	1.404774E+0	1.429453E+0	1.440071E+0	1.446699E+0	1.446706E+0	1.427836E+0	1.478749E+0	1.471091E+0	1.459358E+0	1.398602E+0	1.434926E+0	1.434490E+0	1.443274E+0	1.423990E+0	1.477091E+0	1.442665E+0	1.432648E+0	1.385661E+0	1.458072E+0	1.434060E+0	1.475855E+0	1.409116E+0	1.405858E+0	1.420208E+0	1.403519E+0	1.448937E+0	1.418020E+0	1.452634E+0	1.430368E+0	1.434880E+0	1.452727E+0	1.443703E+0	1.421800E+0	1.417030E+0	1.437549E+0	1.431155E+0	1.430549E+0	1.457434E+0	1.457241E+0	1.382230E+0	1.471772E+0	1.372894E+0	1.384782E+0	1.468376E+0	1.385434E+0	1.425603E+0	1.447910E+0	1.415518E+0	1.430953E+0	1.471579E+0	1.463768E+0	1.387007E+0	1.511324E+0	1.420961E+0	1.442521E+0	1.406466E+0	1.442811E+0	1.416769E+0	1.422740E+0	1.402778E+0	1.467252E+0	1.415725E+0	1.378164E+0	1.443014E+0	1.430248E+0	1.373283E+0	1.425441E+0	1.381146E+0	1.447927E+0	1.433119E+0	1.496980E+0	1.447239E+0	1.407880E+0	1.412765E+0	1.420929E+0	1.474546E+0	1.434241E+0	1.457121E+0	1.383085E+0	1.383975E+0	1.416666E+0	1.381984E+0	1.385401E+0	1.426743E+0	1.465236E+0	1.459395E+0	1.443480E+0	1.387501E+0	1.416408E+0	1.367550E+0	1.399784E+0	1.405487E+0	1.429568E+0	1.411470E+0	1.452318E+0	1.382571E+0	1.347315E+0	1.395148E+0	1.400564E+0	1.426278E+0	1.405987E+0	1.419076E+0	1.462093E+0	1.425781E+0	1.461130E+0	1.417808E+0	1.392727E+0	1.461118E+0	1.428516E+0	1.431077E+0	1.480294E+0	1.387504E+0	1.422027E+0	1.459643E+0	1.401501E+0	1.393378E+0	1.437605E+0	1.444719E+0	1.400980E+0	1.458610E+0	1.532626E+0	1.303243E+0
5.420210E+2	1.272097E+0	1.311934E+0	1.279153E+0	1.633062E+0	1.286130E+0	1.274037E+0	1.309115E+0	1.344907E+0	1.271026E+0	1.316943E+0	1.344329E+0	1.309498E+0	1.290574E+0	1.284653E+0	1.246902E+0	1.307844E+0	1.301123E+0	1.266889E+0	1.315607E+0	1.297752E+0	1.312921E+0	1.276015E+0	1.354014E+0	1.252831E+0	1.284039E+0	1.306035E+0	1.286331E+0	1.247235E+0	1.308615E+0	1.299172E+0	1.308995E+0	1.256483E+0	1.301064E+0	1.262209E+0	1.361628E+0	1.344054E+0	1.297794E+0	1.279563E+0	1.276740E+0	1.249358E+0	1.208302E+0	1.291161E+0	1.349733E+0	1.315595E+0	1.325322E+0	1.317972E+0	1.241399E+0	1.317694E+0	1.333162E+0	1.272194E+0	1.279532E+0	1.284862E+0	1.327374E+0	1.273807E+0	1.295677E+0	1.316021E+0	1.314240E+0	1.237974E+0	1.322995E+0	1.247008E+0	1.312708E+0	1.264388E+0	1.281385E+0	1.316502E+0	1.298717E+0	1.280013E+0	1.293337E+0	1.270246E+0	1.296601E+0	1.308345E+0	1.272216E+0	1.293338E+0	1.318333E+0	1.316178E+0	1.339286E+0	1.304377E+0	1.322839E+0	1.260615E+0	1.308407E+0	1.292587E+0	1.318293E+0	1.280919E+0	1.294271E+0	1.253354E+0	1.267314E+0	1.289695E+0	1.325745E+0	1.293763E+0	1.337793E+0	1.291894E+0	1.235729E+0	1.245757E+0	1.286357E+0	1.289673E+0	1.257590E+0	1.258350E+0	1.304115E+0	1.283871E+0	1.314825E+0	1.264432E+0	1.258945E+0	1.329608E+0	1.292439E+0	1.257063E+0	1.232667E+0	1.304548E+0	1.287027E+0	1.275706E+0	1.277776E+0	1.289513E+0	1.313869E+0	1.285317E+0	1.277259E+0	1.252409E+0	1.261360E+0	1.266381E+0	1.309962E+0	1.292995E+0	1.290813E+0	1.299393E+0	1.318638E+0	1.301274E+0	1.248917E+0	1.289622E+0	1.304735E+0	1.305943E+0	1.292546E+0	1.330706E+0	1.263598E+0	1.288630E+0	1.299351E+0	1.271751E+0	1.265056E+0	1.264093E+0	1.286099E+0	1.223654E+0	1.263282E+0	1.256990E+0	1.268516E+0	1.240380E+0	1.312487E+0	1.268907E+0	1.243920E+0	1.261463E+0	1.283550E+0	1.284286E+0	1.308278E+0	1.280043E+0	1.228531E+0	1.292282E+0	1.288173E+0	1.245825E+0	1.297499E+0	1.286339E+0	1.299287E+0	1.309284E+0	1.242207E+0	1.257107E+0	1.284078E+0	1.294842E+0	1.327134E+0	1.258575E+0	1.224685E+0	1.279220E+0	1.249751E+0	1.273383E+0	1.281889E+0	1.299414E+0	1.286123E+0	1.235136E+0	1.319672E+0	1.215309E+0
5.422620E+2	1.101052E+0	1.112193E+0	1.118299E+0	1.592090E+0	1.090436E+0	1.122186E+0	1.107662E+0	1.073437E+0	1.123875E+0	1.085566E+0	1.114548E+0	1.142845E+0	1.123029E+0	1.098201E+0	1.112311E+0	1.099480E+0	1.108746E+0	1.117011E+0	1.132363E+0	1.105967E+0	1.105864E+0	1.100993E+0	1.130087E+0	1.095217E+0	1.114293E+0	1.095449E+0	1.046339E+0	1.071944E+0	1.125153E+0	1.128186E+0	1.108640E+0	1.129055E+0	1.128324E+0	1.155927E+0	1.156091E+0	1.114192E+0	1.097142E+0	1.093895E+0	1.094456E+0	1.083324E+0	1.077446E+0	1.064457E+0	1.069230E+0	1.083360E+0	1.139808E+0	1.060119E+0	1.112907E+0	1.082607E+0	1.133034E+0	1.099485E+0	1.103419E+0	1.107843E+0	1.067767E+0	1.091783E+0	1.134935E+0	1.071872E+0	1.148951E+0	1.130619E+0	1.142891E+0	1.098555E+0	1.145286E+0	1.074930E+0	1.101699E+0	1.043855E+0	1.126559E+0	1.141654E+0	1.098544E+0	1.104976E+0	1.080453E+0	1.101582E+0	1.148771E+0	1.113414E+0	1.109471E+0	1.053534E+0	1.070579E+0	1.091030E+0	1.101878E+0	1.125720E+0	1.074073E+0	1.086159E+0	1.137855E+0	1.131223E+0	1.121316E+0	1.114476E+0	1.117021E+0	1.083842E+0	1.068653E+0	1.122752E+0	1.058500E+0	1.075363E+0	1.059531E+0	1.116631E+0	1.063376E+0	1.097533E+0	1.083353E+0	1.090162E+0	1.129473E+0	1.093459E+0	1.110584E+0	1.093199E+0	1.074960E+0	1.110060E+0	1.138602E+0	1.076899E+0	1.106578E+0	1.129128E+0	1.118159E+0	1.133079E+0	1.133323E+0	1.096671E+0	1.079780E+0	1.126021E+0	1.074475E+0	1.064024E+0	1.139213E+0	1.091910E+0	1.118736E+0	1.063602E+0	1.096676E+0	1.071500E+0	1.113095E+0	1.108465E+0	1.096484E+0	1.112840E+0	1.084801E+0	1.113864E+0	1.089922E+0	1.058920E+0	1.123715E+0	1.076308E+0	1.086152E+0	1.132396E+0	1.086173E+0	1.085399E+0	1.144661E+0	1.085530E+0	1.087124E+0	1.098093E+0	1.047105E+0	1.112587E+0	1.157554E+0	1.096666E+0	1.062712E+0	1.043949E+0	1.167493E+0	1.106305E+0	1.064143E+0	1.081079E+0	1.077106E+0	1.087643E+0	1.108059E+0	1.095916E+0	1.084880E+0	1.065226E+0	1.137928E+0	1.085170E+0	1.099378E+0	1.106738E+0	1.053064E+0	1.084104E+0	1.118323E+0	1.037582E+0	1.092186E+0	1.128012E+0	1.079264E+0	1.083707E+0	1.108694E+0	1.133110E+0	1.117092E+0	1.052037E+0	1.168092E+0	1.007483E+0
5.425190E+2	9.426722E-1	9.895937E-1	9.550985E-1	1.631720E+0	9.752212E-1	9.989238E-1	1.044255E+0	9.546559E-1	1.010470E+0	1.007306E+0	9.736017E-1	1.001553E+0	9.364473E-1	1.007686E+0	9.766826E-1	9.521018E-1	1.010924E+0	9.660089E-1	1.024113E+0	9.857017E-1	9.533465E-1	9.999639E-1	9.979342E-1	1.005655E+0	9.750057E-1	9.931126E-1	9.693852E-1	1.020943E+0	9.582403E-1	9.765674E-1	1.003408E+0	9.615870E-1	9.441524E-1	9.192897E-1	9.883744E-1	9.428976E-1	9.749534E-1	9.398403E-1	9.580358E-1	9.712027E-1	9.604855E-1	9.360310E-1	9.958404E-1	9.913912E-1	9.694060E-1	9.805673E-1	9.637660E-1	9.776225E-1	9.520747E-1	9.659463E-1	9.976317E-1	9.514001E-1	1.004849E+0	9.364471E-1	9.418375E-1	1.000037E+0	9.837630E-1	1.004701E+0	1.002945E+0	9.602762E-1	9.645540E-1	9.455878E-1	9.602519E-1	9.343269E-1	9.412118E-1	9.939561E-1	9.698973E-1	1.010690E+0	1.011055E+0	9.400285E-1	9.796392E-1	9.854080E-1	9.550962E-1	9.582244E-1	9.879504E-1	9.858535E-1	9.827191E-1	9.628805E-1	9.695654E-1	9.691592E-1	9.573954E-1	9.660105E-1	9.571626E-1	9.662309E-1	9.537023E-1	9.646753E-1	9.469080E-1	1.021104E+0	9.431086E-1	9.549405E-1	9.982423E-1	9.572509E-1	9.668551E-1	9.900182E-1	9.852083E-1	9.820116E-1	9.972853E-1	9.498586E-1	9.369662E-1	9.955726E-1	9.975150E-1	9.674038E-1	1.003149E+0	9.338532E-1	9.730692E-1	9.791792E-1	9.841744E-1	9.955509E-1	9.785667E-1	9.988943E-1	9.608131E-1	9.646108E-1	9.595160E-1	9.625371E-1	9.678370E-1	8.940653E-1	9.654172E-1	9.651797E-1	9.904653E-1	1.001874E+0	9.991591E-1	9.766740E-1	9.679224E-1	9.516070E-1	9.945911E-1	9.987744E-1	9.809220E-1	1.032326E+0	9.982341E-1	9.368946E-1	9.469456E-1	9.846465E-1	9.679600E-1	9.773620E-1	9.867812E-1	9.491584E-1	9.677686E-1	9.726330E-1	9.570155E-1	9.235154E-1	1.000360E+0	9.960956E-1	9.940730E-1	9.694542E-1	9.597919E-1	9.372127E-1	9.538058E-1	9.390174E-1	9.299809E-1	9.908268E-1	9.528591E-1	1.008770E+0	9.945391E-1	1.014626E+0	9.869190E-1	9.569027E-1	9.873743E-1	9.606977E-1	9.954541E-1	1.000035E+0	9.909562E-1	9.727791E-1	1.005165E+0	9.467580E-1	9.617262E-1	9.954295E-1	9.792700E-1	9.928276E-1	1.009306E+0	9.406508E-1	9.983283E-1	1.040090E+0
5.427760E+2	9.844338E-1	9.595034E-1	9.668879E-1	2.134005E+0	9.776068E-1	9.179736E-1	9.820930E-1	9.834773E-1	9.528390E-1	1.006773E+0	9.994917E-1	1.014412E+0	9.910007E-1	9.436915E-1	9.483892E-1	9.351044E-1	9.421627E-1	9.940273E-1	9.454727E-1	9.609218E-1	9.537903E-1	9.724092E-1	9.947851E-1	9.746183E-1	9.668226E-1	9.654160E-1	9.705810E-1	9.644803E-1	9.582612E-1	1.034064E+0	9.358359E-1	9.614652E-1	9.943643E-1	9.324499E-1	9.482497E-1	9.473140E-1	9.807892E-1	9.612379E-1	9.599052E-1	9.540763E-1	9.832824E-1	1.002053E+0	9.634746E-1	9.543740E-1	9.669517E-1	9.897733E-1	9.710445E-1	9.561591E-1	1.008747E+0	9.818221E-1	1.007957E+0	9.719975E-1	9.639188E-1	9.702170E-1	1.009139E+0	9.669073E-1	1.003119E+0	9.791830E-1	9.564937E-1	9.786894E-1	1.000162E+0	9.786451E-1	9.315490E-1	9.185553E-1	1.001242E+0	1.003047E+0	9.765017E-1	1.033824E+0	9.780844E-1	9.689621E-1	9.662495E-1	9.634335E-1	9.782843E-1	9.730459E-1	9.606846E-1	1.007233E+0	1.024510E+0	9.744613E-1	9.632380E-1	9.544304E-1	1.001166E+0	9.605423E-1	9.603827E-1	9.452455E-1	9.802849E-1	9.753038E-1	9.440214E-1	9.618531E-1	9.750923E-1	9.800371E-1	1.022831E+0	9.896499E-1	9.625580E-1	9.013190E-1	9.170004E-1	9.405615E-1	1.016929E+0	9.927753E-1	9.822477E-1	9.958011E-1	9.934411E-1	9.975545E-1	9.906421E-1	9.424568E-1	9.699034E-1	9.746510E-1	9.552440E-1	9.810806E-1	9.812685E-1	9.649145E-1	9.854914E-1	9.595978E-1	9.487485E-1	9.214404E-1	9.659609E-1	9.713478E-1	9.405865E-1	9.245156E-1	1.015171E+0	9.845452E-1	9.801113E-1	9.765037E-1	9.620813E-1	9.484337E-1	9.533917E-1	9.826589E-1	1.004674E+0	9.672777E-1	9.948584E-1	9.800699E-1	9.501117E-1	1.016231E+0	9.663215E-1	9.823641E-1	9.774444E-1	9.956261E-1	9.769960E-1	9.169918E-1	1.034679E+0	9.502789E-1	9.651159E-1	9.431934E-1	9.428579E-1	9.683597E-1	9.832449E-1	9.410494E-1	9.782580E-1	9.794971E-1	9.392457E-1	9.587133E-1	1.041453E+0	9.794954E-1	9.911318E-1	9.487154E-1	9.489941E-1	9.349176E-1	9.847636E-1	9.588467E-1	9.596038E-1	9.887368E-1	9.343979E-1	9.038958E-1	9.692039E-1	9.844776E-1	9.488681E-1	9.798156E-1	1.021281E+0	1.003421E+0	9.387438E-1	9.291590E-1	9.972608E-1	9.461773E-1
5.430070E+2	9.546761E-1	9.902543E-1	1.015308E+0	2.635118E+0	1.018669E+0	9.444555E-1	1.001373E+0	1.014660E+0	1.020021E+0	9.764236E-1	9.714528E-1	1.012001E+0	1.039588E+0	9.747622E-1	1.013339E+0	9.870526E-1	1.019666E+0	1.014467E+0	9.709346E-1	9.807027E-1	9.888064E-1	9.988521E-1	9.901810E-1	1.015439E+0	9.965509E-1	9.701895E-1	1.013938E+0	1.015952E+0	9.554927E-1	1.001332E+0	1.021605E+0	9.883287E-1	1.020129E+0	9.929055E-1	1.006101E+0	9.796950E-1	9.877962E-1	9.860071E-1	1.017153E+0	1.005855E+0	9.638199E-1	1.004351E+0	9.912227E-1	1.051444E+0	9.690444E-1	1.007461E+0	9.654083E-1	1.011738E+0	9.898082E-1	1.002769E+0	9.627896E-1	9.865260E-1	1.028225E+0	1.009718E+0	9.717339E-1	1.000640E+0	1.001578E+0	9.731679E-1	9.829667E-1	1.002003E+0	1.003764E+0	9.848800E-1	1.009385E+0	9.983937E-1	1.064806E+0	9.714749E-1	9.589908E-1	9.783335E-1	9.839801E-1	9.601773E-1	9.905277E-1	9.885741E-1	1.012602E+0	1.006508E+0	9.991180E-1	9.933002E-1	1.039067E+0	1.029923E+0	1.007252E+0	9.930798E-1	9.798014E-1	9.930110E-1	9.968074E-1	1.013431E+0	1.009289E+0	1.005146E+0	9.893765E-1	1.014003E+0	9.759593E-1	9.916950E-1	1.025407E+0	9.770830E-1	9.676112E-1	9.517749E-1	9.959176E-1	1.011635E+0	9.851492E-1	1.010073E+0	1.066099E+0	9.906174E-1	1.016508E+0	9.799247E-1	1.035814E+0	9.954071E-1	1.030365E+0	1.023682E+0	9.724350E-1	9.353349E-1	9.999984E-1	9.480423E-1	9.605427E-1	1.010590E+0	1.005576E+0	9.733155E-1	1.042816E+0	1.014052E+0	9.765880E-1	9.518633E-1	1.025497E+0	9.789351E-1	1.021440E+0	9.745367E-1	9.793849E-1	9.505538E-1	1.002994E+0	9.975662E-1	1.018820E+0	1.012746E+0	9.656326E-1	9.721508E-1	9.772790E-1	9.892152E-1	9.713068E-1	9.579831E-1	9.579322E-1	1.031621E+0	9.884099E-1	9.988879E-1	9.939708E-1	9.957223E-1	1.017070E+0	9.729426E-1	9.725917E-1	9.352442E-1	9.797197E-1	9.841323E-1	9.699627E-1	9.630081E-1	1.033536E+0	9.732392E-1	1.021237E+0	9.938961E-1	9.976914E-1	1.058886E+0	1.001739E+0	9.390826E-1	9.880648E-1	9.668392E-1	1.004371E+0	1.031604E+0	1.026786E+0	1.015656E+0	9.814722E-1	1.010662E+0	9.701985E-1	1.008381E+0	9.811486E-1	1.021284E+0	9.504740E-1	9.501882E-1	9.888829E-1	1.030518E+0
5.432640E+2	1.125958E+0	1.119004E+0	1.138396E+0	2.478852E+0	1.105585E+0	1.120159E+0	1.085902E+0	1.157691E+0	1.170248E+0	1.111402E+0	1.104297E+0	1.086607E+0	1.153076E+0	1.117738E+0	1.072577E+0	1.114368E+0	1.140988E+0	1.151876E+0	1.127128E+0	1.130879E+0	1.124334E+0	1.119216E+0	1.117071E+0	1.156083E+0	1.117579E+0	1.116096E+0	1.112191E+0	1.154216E+0	1.122300E+0	1.168414E+0	1.120663E+0	1.146710E+0	1.191329E+0	1.111538E+0	1.144242E+0	1.106314E+0	1.137925E+0	1.132615E+0	1.090935E+0	1.116370E+0	1.119660E+0	1.126156E+0	1.127314E+0	1.130255E+0	1.150758E+0	1.089513E+0	1.104856E+0	1.083604E+0	1.168750E+0	1.181595E+0	1.074238E+0	1.108007E+0	1.114306E+0	1.107723E+0	1.095238E+0	1.110984E+0	1.094534E+0	1.091507E+0	1.136743E+0	1.063548E+0	1.149999E+0	1.142244E+0	1.102053E+0	1.112063E+0	1.180242E+0	1.122914E+0	1.131084E+0	1.111760E+0	1.112660E+0	1.087455E+0	1.126204E+0	1.117881E+0	1.144218E+0	1.070652E+0	1.098413E+0	1.135039E+0	1.127607E+0	1.131190E+0	1.080287E+0	1.119826E+0	1.157624E+0	1.127673E+0	1.118413E+0	1.077331E+0	1.141037E+0	1.120182E+0	1.085796E+0	1.121461E+0	1.107583E+0	1.139698E+0	1.051083E+0	1.107605E+0	1.100362E+0	1.149203E+0	1.085003E+0	1.143577E+0	1.076567E+0	1.127106E+0	1.096459E+0	1.073785E+0	1.131394E+0	1.096246E+0	1.132454E+0	1.143516E+0	1.117604E+0	1.118682E+0	1.110920E+0	1.066095E+0	1.139690E+0	1.116414E+0	1.124853E+0	1.107730E+0	1.111280E+0	1.117905E+0	1.084809E+0	1.104471E+0	1.075941E+0	1.114533E+0	1.140255E+0	1.199873E+0	1.135738E+0	1.146307E+0	1.113717E+0	1.162788E+0	1.089750E+0	1.072679E+0	1.074398E+0	1.116417E+0	1.099863E+0	1.084114E+0	1.130809E+0	1.044281E+0	1.136762E+0	1.123822E+0	1.147055E+0	1.142506E+0	1.122060E+0	1.075189E+0	1.083434E+0	1.097343E+0	1.103984E+0	1.126593E+0	1.059194E+0	1.101238E+0	1.170400E+0	1.100393E+0	1.124891E+0	1.137184E+0	1.119175E+0	1.092259E+0	1.140597E+0	1.128712E+0	1.126678E+0	1.138575E+0	1.112552E+0	1.095925E+0	1.147569E+0	1.119522E+0	1.122157E+0	1.087442E+0	1.103024E+0	1.086796E+0	1.107174E+0	1.120869E+0	1.079424E+0	1.123847E+0	1.154936E+0	1.092029E+0	1.098172E+0	1.064375E+0	1.056213E+0	1.080596E+0
5.435220E+2	1.269199E+0	1.324416E+0	1.214604E+0	2.726256E+0	1.298622E+0	1.280256E+0	1.271606E+0	1.279025E+0	1.219366E+0	1.234306E+0	1.248162E+0	1.296255E+0	1.315222E+0	1.258543E+0	1.298096E+0	1.278617E+0	1.290770E+0	1.355142E+0	1.200973E+0	1.227416E+0	1.291455E+0	1.317285E+0	1.253982E+0	1.316241E+0	1.261431E+0	1.263001E+0	1.248779E+0	1.307448E+0	1.270350E+0	1.266926E+0	1.277770E+0	1.261542E+0	1.307656E+0	1.259510E+0	1.284287E+0	1.268137E+0	1.272283E+0	1.248326E+0	1.226105E+0	1.293976E+0	1.246083E+0	1.257993E+0	1.263373E+0	1.293937E+0	1.275191E+0	1.271365E+0	1.264347E+0	1.276563E+0	1.290302E+0	1.272792E+0	1.278618E+0	1.288620E+0	1.280865E+0	1.273890E+0	1.276849E+0	1.295779E+0	1.287959E+0	1.290548E+0	1.266264E+0	1.207259E+0	1.257517E+0	1.280212E+0	1.309836E+0	1.287295E+0	1.285929E+0	1.246550E+0	1.206929E+0	1.265295E+0	1.279880E+0	1.308484E+0	1.267829E+0	1.315633E+0	1.247103E+0	1.249300E+0	1.260077E+0	1.322585E+0	1.280549E+0	1.266408E+0	1.244123E+0	1.281587E+0	1.307186E+0	1.257164E+0	1.249786E+0	1.317046E+0	1.334590E+0	1.285945E+0	1.267024E+0	1.278648E+0	1.306744E+0	1.263267E+0	1.265966E+0	1.246182E+0	1.242171E+0	1.265331E+0	1.217343E+0	1.249420E+0	1.256373E+0	1.217932E+0	1.325473E+0	1.288888E+0	1.254354E+0	1.277199E+0	1.262085E+0	1.269454E+0	1.267126E+0	1.272748E+0	1.287820E+0	1.342690E+0	1.307090E+0	1.283730E+0	1.274039E+0	1.293492E+0	1.281437E+0	1.271839E+0	1.276299E+0	1.232260E+0	1.245269E+0	1.229899E+0	1.282991E+0	1.289490E+0	1.280875E+0	1.288604E+0	1.276706E+0	1.313997E+0	1.245919E+0	1.279564E+0	1.255089E+0	1.259810E+0	1.283933E+0	1.265817E+0	1.276250E+0	1.248182E+0	1.273486E+0	1.272746E+0	1.265388E+0	1.335553E+0	1.256526E+0	1.259990E+0	1.212485E+0	1.281334E+0	1.278963E+0	1.250288E+0	1.227193E+0	1.305623E+0	1.340216E+0	1.246916E+0	1.237273E+0	1.271843E+0	1.285463E+0	1.224499E+0	1.265577E+0	1.275613E+0	1.262242E+0	1.256384E+0	1.252298E+0	1.300394E+0	1.283865E+0	1.242832E+0	1.280976E+0	1.290953E+0	1.335556E+0	1.256134E+0	1.256304E+0	1.280094E+0	1.231372E+0	1.208270E+0	1.290638E+0	1.334570E+0	1.274982E+0	1.241136E+0	1.252389E+0	1.328881E+0
5.437590E+2	1.509269E+0	1.399711E+0	1.413606E+0	3.590648E+0	1.417603E+0	1.387533E+0	1.418770E+0	1.478229E+0	1.415252E+0	1.409434E+0	1.403836E+0	1.440481E+0	1.420392E+0	1.491893E+0	1.411657E+0	1.349989E+0	1.453402E+0	1.444139E+0	1.400038E+0	1.422219E+0	1.385154E+0	1.485667E+0	1.407784E+0	1.436282E+0	1.397341E+0	1.413832E+0	1.449067E+0	1.393770E+0	1.398255E+0	1.403793E+0	1.410865E+0	1.372141E+0	1.476511E+0	1.402475E+0	1.397895E+0	1.392856E+0	1.413085E+0	1.398251E+0	1.418530E+0	1.440936E+0	1.401884E+0	1.424182E+0	1.401419E+0	1.440640E+0	1.452732E+0	1.424401E+0	1.405645E+0	1.433887E+0	1.436347E+0	1.402879E+0	1.374700E+0	1.457803E+0	1.420366E+0	1.375404E+0	1.365036E+0	1.393041E+0	1.407605E+0	1.369694E+0	1.475401E+0	1.394866E+0	1.366931E+0	1.426423E+0	1.393035E+0	1.343611E+0	1.354584E+0	1.405611E+0	1.416941E+0	1.402173E+0	1.446487E+0	1.416389E+0	1.453004E+0	1.397945E+0	1.432244E+0	1.417196E+0	1.365728E+0	1.433296E+0	1.457472E+0	1.377706E+0	1.393993E+0	1.407056E+0	1.390281E+0	1.440832E+0	1.410863E+0	1.392482E+0	1.403524E+0	1.386135E+0	1.369444E+0	1.436126E+0	1.427651E+0	1.387207E+0	1.415663E+0	1.399714E+0	1.410506E+0	1.383736E+0	1.407644E+0	1.408798E+0	1.465139E+0	1.415816E+0	1.377236E+0	1.376613E+0	1.411202E+0	1.351247E+0	1.412948E+0	1.405268E+0	1.429214E+0	1.359660E+0	1.425256E+0	1.386120E+0	1.435627E+0	1.423288E+0	1.396892E+0	1.435362E+0	1.432091E+0	1.373426E+0	1.409257E+0	1.416744E+0	1.323432E+0	1.386907E+0	1.415208E+0	1.459313E+0	1.364358E+0	1.389229E+0	1.393484E+0	1.397368E+0	1.433272E+0	1.393156E+0	1.389188E+0	1.404576E+0	1.402530E+0	1.397748E+0	1.399265E+0	1.359474E+0	1.370792E+0	1.409495E+0	1.399848E+0	1.433773E+0	1.440610E+0	1.356419E+0	1.382959E+0	1.406159E+0	1.427445E+0	1.407731E+0	1.387412E+0	1.375113E+0	1.422431E+0	1.389594E+0	1.386170E+0	1.384659E+0	1.386389E+0	1.413621E+0	1.396309E+0	1.443399E+0	1.422890E+0	1.413986E+0	1.414843E+0	1.418299E+0	1.389828E+0	1.372190E+0	1.386224E+0	1.410905E+0	1.462336E+0	1.384015E+0	1.408526E+0	1.369453E+0	1.372596E+0	1.383554E+0	1.383106E+0	1.428614E+0	1.374013E+0	1.397929E+0	1.484775E+0	1.463271E+0
5.440120E+2	1.409050E+0	1.494684E+0	1.478003E+0	4.481059E+0	1.454635E+0	1.450539E+0	1.443300E+0	1.490569E+0	1.460332E+0	1.443581E+0	1.447914E+0	1.446991E+0	1.476880E+0	1.476399E+0	1.423034E+0	1.475689E+0	1.479235E+0	1.456900E+0	1.450138E+0	1.410157E+0	1.473466E+0	1.444063E+0	1.498522E+0	1.556872E+0	1.447961E+0	1.496268E+0	1.439474E+0	1.451282E+0	1.480857E+0	1.432318E+0	1.459435E+0	1.431079E+0	1.461396E+0	1.466282E+0	1.437757E+0	1.417626E+0	1.448759E+0	1.451972E+0	1.430733E+0	1.460463E+0	1.426445E+0	1.439842E+0	1.496758E+0	1.440710E+0	1.485388E+0	1.439920E+0	1.468112E+0	1.479578E+0	1.471574E+0	1.443878E+0	1.410566E+0	1.495415E+0	1.434534E+0	1.411791E+0	1.419563E+0	1.438781E+0	1.468765E+0	1.503740E+0	1.448748E+0	1.429104E+0	1.468350E+0	1.467193E+0	1.391492E+0	1.425525E+0	1.501570E+0	1.471819E+0	1.391900E+0	1.442256E+0	1.404889E+0	1.427010E+0	1.414242E+0	1.503206E+0	1.485070E+0	1.462457E+0	1.396018E+0	1.451754E+0	1.439301E+0	1.439500E+0	1.447867E+0	1.448935E+0	1.445459E+0	1.485235E+0	1.423063E+0	1.464947E+0	1.436524E+0	1.404193E+0	1.411622E+0	1.464127E+0	1.472562E+0	1.434152E+0	1.417813E+0	1.409586E+0	1.452349E+0	1.428597E+0	1.409594E+0	1.440738E+0	1.427073E+0	1.409401E+0	1.452922E+0	1.438351E+0	1.449850E+0	1.371108E+0	1.455128E+0	1.454042E+0	1.448546E+0	1.427758E+0	1.434966E+0	1.424986E+0	1.471844E+0	1.445999E+0	1.447160E+0	1.459213E+0	1.466130E+0	1.404684E+0	1.364048E+0	1.453594E+0	1.360698E+0	1.344900E+0	1.394127E+0	1.468169E+0	1.456986E+0	1.444890E+0	1.407135E+0	1.387769E+0	1.370881E+0	1.470921E+0	1.401692E+0	1.440492E+0	1.487805E+0	1.387309E+0	1.422081E+0	1.416116E+0	1.435915E+0	1.471117E+0	1.427467E+0	1.457263E+0	1.469226E+0	1.432404E+0	1.386030E+0	1.417417E+0	1.462389E+0	1.435354E+0	1.411650E+0	1.457241E+0	1.453465E+0	1.465073E+0	1.418708E+0	1.443850E+0	1.405528E+0	1.389173E+0	1.420529E+0	1.427538E+0	1.370562E+0	1.338095E+0	1.391458E+0	1.369601E+0	1.458422E+0	1.426411E+0	1.451766E+0	1.472754E+0	1.535134E+0	1.446391E+0	1.443877E+0	1.440375E+0	1.420850E+0	1.449875E+0	1.407827E+0	1.506888E+0	1.420491E+0	1.394818E+0	1.371415E+0	1.435671E+0
5.442810E+2	1.593467E+0	1.598619E+0	1.588704E+0	6.073360E+0	1.612334E+0	1.597382E+0	1.654135E+0	1.648311E+0	1.589893E+0	1.576929E+0	1.622205E+0	1.644050E+0	1.657289E+0	1.609433E+0	1.582016E+0	1.544428E+0	1.608798E+0	1.623692E+0	1.591046E+0	1.630152E+0	1.592726E+0	1.608969E+0	1.613325E+0	1.616279E+0	1.646827E+0	1.586811E+0	1.578868E+0	1.615567E+0	1.628766E+0	1.709777E+0	1.668901E+0	1.596481E+0	1.604205E+0	1.637920E+0	1.664790E+0	1.574543E+0	1.648772E+0	1.619332E+0	1.619469E+0	1.645970E+0	1.610144E+0	1.670681E+0	1.597419E+0	1.660217E+0	1.634639E+0	1.658536E+0	1.567438E+0	1.551827E+0	1.609911E+0	1.538703E+0	1.596028E+0	1.603256E+0	1.580180E+0	1.627605E+0	1.617022E+0	1.600301E+0	1.596761E+0	1.626979E+0	1.589316E+0	1.632767E+0	1.579262E+0	1.558626E+0	1.587942E+0	1.601296E+0	1.603525E+0	1.592664E+0	1.577419E+0	1.638044E+0	1.596043E+0	1.580433E+0	1.589023E+0	1.637713E+0	1.583762E+0	1.610536E+0	1.602227E+0	1.563713E+0	1.626043E+0	1.618357E+0	1.603768E+0	1.584488E+0	1.675906E+0	1.589930E+0	1.580760E+0	1.590281E+0	1.555026E+0	1.621096E+0	1.511892E+0	1.615128E+0	1.578065E+0	1.611274E+0	1.576416E+0	1.594306E+0	1.606789E+0	1.577081E+0	1.582061E+0	1.594115E+0	1.532274E+0	1.616425E+0	1.578446E+0	1.625312E+0	1.589320E+0	1.551215E+0	1.587829E+0	1.583320E+0	1.585247E+0	1.562236E+0	1.576553E+0	1.607273E+0	1.583487E+0	1.572462E+0	1.596784E+0	1.592481E+0	1.556404E+0	1.614121E+0	1.587841E+0	1.555538E+0	1.555547E+0	1.547508E+0	1.559840E+0	1.587620E+0	1.586922E+0	1.530609E+0	1.595194E+0	1.592061E+0	1.542838E+0	1.595394E+0	1.597981E+0	1.503800E+0	1.652806E+0	1.568243E+0	1.546730E+0	1.565541E+0	1.571307E+0	1.539532E+0	1.598980E+0	1.633684E+0	1.556005E+0	1.585402E+0	1.518065E+0	1.571537E+0	1.596157E+0	1.593065E+0	1.595241E+0	1.539360E+0	1.636238E+0	1.582139E+0	1.550752E+0	1.590204E+0	1.501348E+0	1.568330E+0	1.605084E+0	1.631418E+0	1.531319E+0	1.564272E+0	1.606722E+0	1.566709E+0	1.584018E+0	1.603271E+0	1.585402E+0	1.634876E+0	1.663075E+0	1.533687E+0	1.571721E+0	1.557899E+0	1.582071E+0	1.552578E+0	1.523607E+0	1.619616E+0	1.511979E+0	1.513167E+0	1.467112E+0	1.760343E+0
5.445240E+2	1.598232E+0	1.652675E+0	1.584208E+0	2.973015E+0	1.600297E+0	1.518714E+0	1.594505E+0	1.674828E+0	1.635036E+0	1.614475E+0	1.552138E+0	1.655020E+0	1.585715E+0	1.645643E+0	1.582732E+0	1.611455E+0	1.568913E+0	1.652088E+0	1.617928E+0	1.556217E+0	1.647803E+0	1.561508E+0	1.609510E+0	1.638177E+0	1.621660E+0	1.590857E+0	1.599530E+0	1.664356E+0	1.591557E+0	1.636727E+0	1.620521E+0	1.610490E+0	1.605841E+0	1.562179E+0	1.627372E+0	1.624047E+0	1.604621E+0	1.630535E+0	1.569228E+0	1.644457E+0	1.625955E+0	1.595042E+0	1.540399E+0	1.571660E+0	1.669805E+0	1.652988E+0	1.576210E+0	1.605507E+0	1.615864E+0	1.544595E+0	1.657685E+0	1.567487E+0	1.602904E+0	1.617936E+0	1.583002E+0	1.564871E+0	1.625534E+0	1.598974E+0	1.595934E+0	1.627322E+0	1.568583E+0	1.603789E+0	1.605687E+0	1.560860E+0	1.637237E+0	1.608973E+0	1.609949E+0	1.566668E+0	1.609353E+0	1.549064E+0	1.544050E+0	1.628869E+0	1.593076E+0	1.633382E+0	1.599969E+0	1.590740E+0	1.632295E+0	1.559614E+0	1.566417E+0	1.616434E+0	1.638915E+0	1.536814E+0	1.604440E+0	1.563435E+0	1.641979E+0	1.598422E+0	1.521881E+0	1.585381E+0	1.606476E+0	1.601192E+0	1.624504E+0	1.548375E+0	1.554391E+0	1.643197E+0	1.589981E+0	1.589414E+0	1.575100E+0	1.548286E+0	1.560773E+0	1.582198E+0	1.582658E+0	1.596071E+0	1.594530E+0	1.606040E+0	1.597390E+0	1.639366E+0	1.628079E+0	1.520728E+0	1.578162E+0	1.572209E+0	1.631272E+0	1.594413E+0	1.602649E+0	1.583962E+0	1.589712E+0	1.585918E+0	1.517376E+0	1.551827E+0	1.642106E+0	1.579000E+0	1.568346E+0	1.546254E+0	1.562390E+0	1.577280E+0	1.614406E+0	1.600219E+0	1.597963E+0	1.538250E+0	1.608510E+0	1.581341E+0	1.527833E+0	1.564908E+0	1.561997E+0	1.551411E+0	1.568692E+0	1.586541E+0	1.624837E+0	1.595219E+0	1.533179E+0	1.596020E+0	1.597081E+0	1.529903E+0	1.525491E+0	1.550608E+0	1.586543E+0	1.565129E+0	1.586425E+0	1.593495E+0	1.529291E+0	1.558166E+0	1.536260E+0	1.600870E+0	1.634821E+0	1.557568E+0	1.519449E+0	1.603087E+0	1.619780E+0	1.545333E+0	1.532617E+0	1.541602E+0	1.639861E+0	1.555197E+0	1.603096E+0	1.580638E+0	1.585415E+0	1.538445E+0	1.546128E+0	1.609313E+0	1.617225E+0	1.542246E+0	1.522334E+0	1.586068E+0
5.447610E+2	1.557855E+0	1.655297E+0	1.613698E+0	1.481818E+0	1.591720E+0	1.562435E+0	1.548733E+0	1.630365E+0	1.642809E+0	1.558456E+0	1.607894E+0	1.501069E+0	1.616192E+0	1.572153E+0	1.600359E+0	1.585446E+0	1.575530E+0	1.582457E+0	1.585978E+0	1.559354E+0	1.548624E+0	1.606076E+0	1.624717E+0	1.588289E+0	1.599373E+0	1.543588E+0	1.593326E+0	1.534140E+0	1.596621E+0	1.588384E+0	1.570112E+0	1.550352E+0	1.636473E+0	1.583437E+0	1.544833E+0	1.593022E+0	1.578998E+0	1.566853E+0	1.557142E+0	1.507282E+0	1.589105E+0	1.596775E+0	1.565413E+0	1.627677E+0	1.568663E+0	1.563315E+0	1.600733E+0	1.598453E+0	1.585566E+0	1.561081E+0	1.536912E+0	1.578041E+0	1.598158E+0	1.548420E+0	1.549990E+0	1.606193E+0	1.662791E+0	1.623503E+0	1.541392E+0	1.573343E+0	1.612831E+0	1.529537E+0	1.577169E+0	1.552842E+0	1.655914E+0	1.566441E+0	1.568435E+0	1.644519E+0	1.522120E+0	1.573097E+0	1.559861E+0	1.586127E+0	1.583057E+0	1.552845E+0	1.532033E+0	1.576859E+0	1.692646E+0	1.562802E+0	1.585966E+0	1.592614E+0	1.593430E+0	1.557659E+0	1.561759E+0	1.581063E+0	1.539446E+0	1.556469E+0	1.534843E+0	1.567609E+0	1.527444E+0	1.580695E+0	1.467410E+0	1.521094E+0	1.568816E+0	1.533932E+0	1.585098E+0	1.552901E+0	1.559843E+0	1.558575E+0	1.541637E+0	1.561764E+0	1.556794E+0	1.599566E+0	1.532923E+0	1.545025E+0	1.550861E+0	1.512170E+0	1.533287E+0	1.538947E+0	1.571314E+0	1.612358E+0	1.570469E+0	1.571853E+0	1.571055E+0	1.598030E+0	1.580181E+0	1.557945E+0	1.526141E+0	1.498034E+0	1.544547E+0	1.519342E+0	1.575455E+0	1.518000E+0	1.578690E+0	1.552811E+0	1.492615E+0	1.569569E+0	1.501568E+0	1.501803E+0	1.565345E+0	1.536038E+0	1.520969E+0	1.531135E+0	1.555016E+0	1.544659E+0	1.557857E+0	1.551644E+0	1.577531E+0	1.507934E+0	1.523326E+0	1.510827E+0	1.573410E+0	1.574918E+0	1.505061E+0	1.556923E+0	1.549475E+0	1.559539E+0	1.573836E+0	1.564536E+0	1.577554E+0	1.534073E+0	1.524460E+0	1.571366E+0	1.598109E+0	1.510711E+0	1.563775E+0	1.517143E+0	1.575712E+0	1.553437E+0	1.490102E+0	1.511083E+0	1.584920E+0	1.540372E+0	1.508739E+0	1.518140E+0	1.595372E+0	1.566691E+0	1.585994E+0	1.558439E+0	1.543358E+0	1.433178E+0	1.560819E+0	1.494044E+0
5.450090E+2	1.578204E+0	1.587865E+0	1.523575E+0	1.521056E+0	1.569364E+0	1.467956E+0	1.516283E+0	1.560026E+0	1.544601E+0	1.555363E+0	1.557631E+0	1.583434E+0	1.594826E+0	1.501255E+0	1.508882E+0	1.517229E+0	1.541362E+0	1.552682E+0	1.494785E+0	1.511470E+0	1.534432E+0	1.557998E+0	1.533072E+0	1.602254E+0	1.477785E+0	1.531546E+0	1.529229E+0	1.574927E+0	1.551388E+0	1.542460E+0	1.503383E+0	1.496108E+0	1.541189E+0	1.578614E+0	1.586767E+0	1.521026E+0	1.500530E+0	1.559969E+0	1.510595E+0	1.479219E+0	1.548830E+0	1.480615E+0	1.542477E+0	1.505655E+0	1.570896E+0	1.535781E+0	1.532998E+0	1.544447E+0	1.556623E+0	1.496842E+0	1.505367E+0	1.503051E+0	1.539189E+0	1.552453E+0	1.524294E+0	1.495871E+0	1.504852E+0	1.521132E+0	1.594046E+0	1.500015E+0	1.527654E+0	1.519569E+0	1.494732E+0	1.537964E+0	1.593024E+0	1.523297E+0	1.540947E+0	1.556569E+0	1.496684E+0	1.511859E+0	1.476774E+0	1.559929E+0	1.518533E+0	1.478893E+0	1.483460E+0	1.574156E+0	1.562903E+0	1.536326E+0	1.491678E+0	1.503834E+0	1.602328E+0	1.544598E+0	1.512279E+0	1.538999E+0	1.565417E+0	1.543585E+0	1.482614E+0	1.488898E+0	1.514013E+0	1.492447E+0	1.552725E+0	1.467398E+0	1.503032E+0	1.532052E+0	1.494127E+0	1.500487E+0	1.556028E+0	1.478223E+0	1.495540E+0	1.479671E+0	1.529036E+0	1.524749E+0	1.535835E+0	1.506595E+0	1.502801E+0	1.480392E+0	1.491083E+0	1.522381E+0	1.573787E+0	1.528179E+0	1.500686E+0	1.567340E+0	1.545321E+0	1.547558E+0	1.474634E+0	1.541058E+0	1.517206E+0	1.466350E+0	1.513712E+0	1.554868E+0	1.507541E+0	1.596746E+0	1.531408E+0	1.435772E+0	1.565737E+0	1.554307E+0	1.530075E+0	1.445151E+0	1.555933E+0	1.461635E+0	1.473018E+0	1.484113E+0	1.483599E+0	1.463594E+0	1.484451E+0	1.525684E+0	1.576335E+0	1.483386E+0	1.446874E+0	1.488132E+0	1.491741E+0	1.501784E+0	1.462010E+0	1.482948E+0	1.492431E+0	1.502165E+0	1.539951E+0	1.533736E+0	1.477416E+0	1.514166E+0	1.503869E+0	1.500082E+0	1.486385E+0	1.465618E+0	1.483115E+0	1.536430E+0	1.532949E+0	1.468521E+0	1.513797E+0	1.544709E+0	1.491988E+0	1.510030E+0	1.512380E+0	1.487244E+0	1.444732E+0	1.515212E+0	1.503662E+0	1.540946E+0	1.443867E+0	1.506293E+0	1.594967E+0	1.462388E+0
5.452640E+2	1.359614E+0	1.388791E+0	1.438423E+0	1.433588E+0	1.414998E+0	1.380458E+0	1.417872E+0	1.425728E+0	1.397528E+0	1.411249E+0	1.365107E+0	1.418742E+0	1.396277E+0	1.424253E+0	1.399012E+0	1.352447E+0	1.451786E+0	1.388435E+0	1.502734E+0	1.352917E+0	1.461562E+0	1.394700E+0	1.366774E+0	1.405291E+0	1.441426E+0	1.424858E+0	1.374060E+0	1.405120E+0	1.438298E+0	1.442373E+0	1.428046E+0	1.388280E+0	1.453260E+0	1.443802E+0	1.404499E+0	1.379550E+0	1.402989E+0	1.410720E+0	1.375444E+0	1.387496E+0	1.445844E+0	1.375213E+0	1.341324E+0	1.456253E+0	1.430332E+0	1.395822E+0	1.389234E+0	1.421948E+0	1.475433E+0	1.436463E+0	1.370159E+0	1.379071E+0	1.459833E+0	1.425719E+0	1.363581E+0	1.414369E+0	1.443850E+0	1.396605E+0	1.431910E+0	1.347132E+0	1.409404E+0	1.383250E+0	1.391770E+0	1.383609E+0	1.397353E+0	1.384852E+0	1.404492E+0	1.429612E+0	1.405080E+0	1.389426E+0	1.411055E+0	1.384177E+0	1.410149E+0	1.427793E+0	1.417435E+0	1.396923E+0	1.447471E+0	1.447164E+0	1.394133E+0	1.382425E+0	1.439742E+0	1.396063E+0	1.391544E+0	1.387580E+0	1.359366E+0	1.338244E+0	1.348471E+0	1.349079E+0	1.399423E+0	1.407239E+0	1.382549E+0	1.368877E+0	1.329056E+0	1.369878E+0	1.426449E+0	1.378778E+0	1.371276E+0	1.359717E+0	1.342976E+0	1.408272E+0	1.397210E+0	1.407740E+0	1.406042E+0	1.454746E+0	1.379328E+0	1.345176E+0	1.377024E+0	1.348301E+0	1.464151E+0	1.402075E+0	1.358171E+0	1.452966E+0	1.383398E+0	1.394282E+0	1.374675E+0	1.372634E+0	1.391266E+0	1.331922E+0	1.406250E+0	1.361143E+0	1.380689E+0	1.369143E+0	1.385934E+0	1.379980E+0	1.403447E+0	1.366471E+0	1.379415E+0	1.417530E+0	1.472690E+0	1.417368E+0	1.358788E+0	1.357610E+0	1.385886E+0	1.378253E+0	1.420765E+0	1.409902E+0	1.419872E+0	1.415104E+0	1.388718E+0	1.395005E+0	1.397682E+0	1.335652E+0	1.348548E+0	1.376326E+0	1.416627E+0	1.359031E+0	1.394567E+0	1.406105E+0	1.364435E+0	1.404961E+0	1.328595E+0	1.392465E+0	1.404139E+0	1.378169E+0	1.355083E+0	1.431014E+0	1.409316E+0	1.404389E+0	1.392209E+0	1.345521E+0	1.417595E+0	1.372261E+0	1.342586E+0	1.453711E+0	1.366070E+0	1.414612E+0	1.399837E+0	1.407914E+0	1.352532E+0	1.396546E+0	1.354864E+0	1.396698E+0
5.455180E+2	1.252767E+0	1.199769E+0	1.274520E+0	1.365721E+0	1.223223E+0	1.266528E+0	1.238284E+0	1.255128E+0	1.265075E+0	1.251157E+0	1.249128E+0	1.273830E+0	1.256770E+0	1.201616E+0	1.251700E+0	1.232626E+0	1.253082E+0	1.279966E+0	1.301712E+0	1.211759E+0	1.237203E+0	1.244288E+0	1.237862E+0	1.239452E+0	1.254361E+0	1.239511E+0	1.259133E+0	1.242843E+0	1.261973E+0	1.256789E+0	1.289225E+0	1.272716E+0	1.275539E+0	1.229542E+0	1.257194E+0	1.267078E+0	1.243240E+0	1.220992E+0	1.241259E+0	1.229073E+0	1.243224E+0	1.247266E+0	1.233700E+0	1.258990E+0	1.287047E+0	1.231948E+0	1.228011E+0	1.241542E+0	1.247470E+0	1.219791E+0	1.206435E+0	1.243174E+0	1.238808E+0	1.249437E+0	1.171108E+0	1.282633E+0	1.249691E+0	1.262318E+0	1.248525E+0	1.233905E+0	1.253441E+0	1.226533E+0	1.255453E+0	1.228166E+0	1.264711E+0	1.226489E+0	1.239921E+0	1.230668E+0	1.244204E+0	1.226948E+0	1.193105E+0	1.210254E+0	1.315323E+0	1.254034E+0	1.281726E+0	1.303675E+0	1.258648E+0	1.252843E+0	1.237842E+0	1.223911E+0	1.273006E+0	1.247597E+0	1.229697E+0	1.232489E+0	1.225675E+0	1.193722E+0	1.253792E+0	1.236253E+0	1.292084E+0	1.309086E+0	1.243185E+0	1.266955E+0	1.230545E+0	1.219686E+0	1.239990E+0	1.250434E+0	1.228747E+0	1.299155E+0	1.184362E+0	1.227561E+0	1.209593E+0	1.250175E+0	1.221577E+0	1.240624E+0	1.192074E+0	1.279271E+0	1.233382E+0	1.207194E+0	1.264397E+0	1.248188E+0	1.222453E+0	1.257529E+0	1.203481E+0	1.224607E+0	1.227326E+0	1.226150E+0	1.233386E+0	1.214336E+0	1.207452E+0	1.239576E+0	1.203115E+0	1.203220E+0	1.214258E+0	1.231033E+0	1.186950E+0	1.243356E+0	1.248230E+0	1.216232E+0	1.330180E+0	1.219947E+0	1.218560E+0	1.238161E+0	1.207704E+0	1.230033E+0	1.271112E+0	1.224871E+0	1.248272E+0	1.199580E+0	1.206791E+0	1.229376E+0	1.282516E+0	1.239333E+0	1.246327E+0	1.209007E+0	1.228146E+0	1.232645E+0	1.175804E+0	1.209979E+0	1.229096E+0	1.203294E+0	1.223513E+0	1.228642E+0	1.221464E+0	1.237260E+0	1.243776E+0	1.175049E+0	1.243995E+0	1.202177E+0	1.264647E+0	1.241629E+0	1.327316E+0	1.227950E+0	1.188099E+0	1.245419E+0	1.250472E+0	1.204484E+0	1.241277E+0	1.225307E+0	1.195143E+0	1.190400E+0	1.165868E+0	1.165813E+0
5.457890E+2	1.326217E+0	1.284357E+0	1.291330E+0	1.234494E+0	1.304094E+0	1.256476E+0	1.271898E+0	1.332451E+0	1.313535E+0	1.275707E+0	1.287340E+0	1.301471E+0	1.294588E+0	1.292038E+0	1.256642E+0	1.265297E+0	1.291482E+0	1.267587E+0	1.266371E+0	1.264645E+0	1.324197E+0	1.310374E+0	1.242387E+0	1.272059E+0	1.253399E+0	1.266270E+0	1.279377E+0	1.279464E+0	1.345203E+0	1.292821E+0	1.256528E+0	1.276271E+0	1.336895E+0	1.307191E+0	1.311297E+0	1.304074E+0	1.329301E+0	1.310863E+0	1.267522E+0	1.250960E+0	1.274409E+0	1.295160E+0	1.313053E+0	1.290998E+0	1.312144E+0	1.282641E+0	1.285340E+0	1.287532E+0	1.314474E+0	1.317518E+0	1.263302E+0	1.222470E+0	1.332336E+0	1.286168E+0	1.292153E+0	1.298257E+0	1.309015E+0	1.288078E+0	1.250291E+0	1.259717E+0	1.303950E+0	1.327130E+0	1.258257E+0	1.295176E+0	1.326462E+0	1.289401E+0	1.275072E+0	1.290853E+0	1.293470E+0	1.236732E+0	1.280897E+0	1.261414E+0	1.288132E+0	1.287389E+0	1.260940E+0	1.301646E+0	1.302937E+0	1.332538E+0	1.253743E+0	1.260911E+0	1.300174E+0	1.289041E+0	1.289719E+0	1.294022E+0	1.325834E+0	1.283736E+0	1.243245E+0	1.289833E+0	1.333740E+0	1.311655E+0	1.348774E+0	1.224465E+0	1.245925E+0	1.315508E+0	1.256076E+0	1.290507E+0	1.309081E+0	1.304627E+0	1.255304E+0	1.253620E+0	1.308559E+0	1.277424E+0	1.267912E+0	1.251618E+0	1.276198E+0	1.272866E+0	1.276098E+0	1.278803E+0	1.293551E+0	1.255450E+0	1.301540E+0	1.313157E+0	1.252214E+0	1.314408E+0	1.280113E+0	1.270402E+0	1.232446E+0	1.227768E+0	1.244066E+0	1.268808E+0	1.351162E+0	1.264126E+0	1.239345E+0	1.259161E+0	1.258738E+0	1.352072E+0	1.247225E+0	1.234718E+0	1.295837E+0	1.300337E+0	1.220747E+0	1.291567E+0	1.290983E+0	1.267920E+0	1.258761E+0	1.245771E+0	1.238315E+0	1.274269E+0	1.252682E+0	1.211255E+0	1.354481E+0	1.306637E+0	1.267281E+0	1.241459E+0	1.262495E+0	1.282656E+0	1.289172E+0	1.256123E+0	1.296472E+0	1.246386E+0	1.218151E+0	1.252086E+0	1.345107E+0	1.344800E+0	1.304767E+0	1.200724E+0	1.319396E+0	1.288725E+0	1.265343E+0	1.253823E+0	1.310812E+0	1.307053E+0	1.336886E+0	1.306361E+0	1.257246E+0	1.284827E+0	1.276708E+0	1.269927E+0	1.328026E+0	1.287326E+0	1.217617E+0	1.286878E+0
5.460060E+2	1.221029E+0	1.252911E+0	1.205619E+0	1.284100E+0	1.216552E+0	1.209030E+0	1.209474E+0	1.276441E+0	1.195936E+0	1.170925E+0	1.225086E+0	1.242350E+0	1.209363E+0	1.214425E+0	1.254831E+0	1.208565E+0	1.256672E+0	1.220991E+0	1.230018E+0	1.189736E+0	1.234985E+0	1.237200E+0	1.234442E+0	1.277805E+0	1.201065E+0	1.198343E+0	1.243368E+0	1.214529E+0	1.194289E+0	1.231488E+0	1.258131E+0	1.215626E+0	1.251084E+0	1.177228E+0	1.264255E+0	1.224153E+0	1.194092E+0	1.239708E+0	1.226991E+0	1.210775E+0	1.255554E+0	1.214502E+0	1.288328E+0	1.235683E+0	1.197159E+0	1.193678E+0	1.207996E+0	1.207003E+0	1.252533E+0	1.223629E+0	1.176991E+0	1.267948E+0	1.248646E+0	1.203402E+0	1.161637E+0	1.194872E+0	1.273996E+0	1.230920E+0	1.222382E+0	1.187817E+0	1.242648E+0	1.187899E+0	1.200856E+0	1.162304E+0	1.229064E+0	1.249572E+0	1.219063E+0	1.239908E+0	1.242314E+0	1.186527E+0	1.186953E+0	1.252106E+0	1.238600E+0	1.221426E+0	1.182933E+0	1.245065E+0	1.249355E+0	1.203677E+0	1.205663E+0	1.179967E+0	1.248211E+0	1.160840E+0	1.173992E+0	1.213925E+0	1.194652E+0	1.216025E+0	1.206589E+0	1.205053E+0	1.196819E+0	1.228704E+0	1.252737E+0	1.159494E+0	1.160804E+0	1.242218E+0	1.213089E+0	1.190585E+0	1.259332E+0	1.226467E+0	1.198424E+0	1.200603E+0	1.210808E+0	1.234382E+0	1.235582E+0	1.206385E+0	1.288654E+0	1.221122E+0	1.208639E+0	1.208498E+0	1.222809E+0	1.242962E+0	1.233800E+0	1.154876E+0	1.233666E+0	1.212106E+0	1.181070E+0	1.200921E+0	1.220233E+0	1.182789E+0	1.175796E+0	1.192030E+0	1.264817E+0	1.142488E+0	1.208537E+0	1.189007E+0	1.206327E+0	1.260485E+0	1.212096E+0	1.224167E+0	1.196258E+0	1.206287E+0	1.198388E+0	1.197125E+0	1.192144E+0	1.189389E+0	1.211999E+0	1.208448E+0	1.196676E+0	1.225672E+0	1.171476E+0	1.186389E+0	1.241228E+0	1.201772E+0	1.197057E+0	1.180898E+0	1.237076E+0	1.222750E+0	1.202263E+0	1.181236E+0	1.157246E+0	1.232019E+0	1.216574E+0	1.214955E+0	1.239299E+0	1.219589E+0	1.160507E+0	1.150395E+0	1.216393E+0	1.211026E+0	1.138016E+0	1.223797E+0	1.268275E+0	1.197908E+0	1.227028E+0	1.190043E+0	1.215385E+0	1.183182E+0	1.204428E+0	1.228076E+0	1.226555E+0	1.266586E+0	1.176237E+0	1.164172E+0
5.467660E+2	1.216896E+0	1.264115E+0	1.163409E+0	1.066119E+0	1.220112E+0	1.219483E+0	1.193065E+0	1.230150E+0	1.236405E+0	1.237120E+0	1.219616E+0	1.158981E+0	1.261527E+0	1.232933E+0	1.169731E+0	1.192543E+0	1.230219E+0	1.229785E+0	1.273939E+0	1.220423E+0	1.237045E+0	1.207848E+0	1.226729E+0	1.235297E+0	1.241543E+0	1.252202E+0	1.191491E+0	1.253749E+0	1.254305E+0	1.226342E+0	1.249153E+0	1.217020E+0	1.232452E+0	1.240772E+0	1.242351E+0	1.209832E+0	1.240685E+0	1.272575E+0	1.178083E+0	1.232206E+0	1.236606E+0	1.212715E+0	1.219548E+0	1.245948E+0	1.233684E+0	1.219516E+0	1.246687E+0	1.232671E+0	1.310935E+0	1.264393E+0	1.209413E+0	1.203184E+0	1.231156E+0	1.219857E+0	1.223030E+0	1.198066E+0	1.244864E+0	1.218632E+0	1.166063E+0	1.184022E+0	1.225377E+0	1.235049E+0	1.229950E+0	1.182826E+0	1.220047E+0	1.222080E+0	1.257876E+0	1.224533E+0	1.226821E+0	1.209720E+0	1.172112E+0	1.183663E+0	1.308394E+0	1.223198E+0	1.230642E+0	1.241814E+0	1.220456E+0	1.234907E+0	1.210452E+0	1.229472E+0	1.248612E+0	1.192268E+0	1.206053E+0	1.214922E+0	1.231719E+0	1.186510E+0	1.214267E+0	1.198401E+0	1.194157E+0	1.237044E+0	1.224116E+0	1.127327E+0	1.227344E+0	1.210325E+0	1.241314E+0	1.200524E+0	1.205138E+0	1.215598E+0	1.185283E+0	1.191989E+0	1.179041E+0	1.231227E+0	1.240669E+0	1.208842E+0	1.232902E+0	1.219024E+0	1.186189E+0	1.158563E+0	1.295178E+0	1.215730E+0	1.213485E+0	1.202176E+0	1.234757E+0	1.242957E+0	1.198492E+0	1.183388E+0	1.187279E+0	1.236187E+0	1.224634E+0	1.259533E+0	1.268138E+0	1.192997E+0	1.203501E+0	1.200707E+0	1.226281E+0	1.227851E+0	1.274955E+0	1.226237E+0	1.253339E+0	1.200285E+0	1.261274E+0	1.225028E+0	1.262698E+0	1.150611E+0	1.161959E+0	1.242532E+0	1.217720E+0	1.220682E+0	1.187760E+0	1.203207E+0	1.220929E+0	1.204532E+0	1.186584E+0	1.199550E+0	1.292986E+0	1.179288E+0	1.200846E+0	1.239608E+0	1.230266E+0	1.202326E+0	1.186166E+0	1.215276E+0	1.245899E+0	1.199694E+0	1.216933E+0	1.151062E+0	1.267914E+0	1.213509E+0	1.171984E+0	1.228355E+0	1.185639E+0	1.194695E+0	1.222197E+0	1.288937E+0	1.217586E+0	1.233624E+0	1.247458E+0	1.227151E+0	1.220306E+0	1.161946E+0	1.183698E+0	1.297154E+0
5.475180E+2	1.367763E+0	1.325329E+0	1.368997E+0	1.454242E+0	1.353030E+0	1.304842E+0	1.318252E+0	1.323283E+0	1.388170E+0	1.324342E+0	1.338221E+0	1.344311E+0	1.340582E+0	1.378640E+0	1.390495E+0	1.341636E+0	1.332897E+0	1.325727E+0	1.326787E+0	1.376890E+0	1.304986E+0	1.315811E+0	1.325955E+0	1.383460E+0	1.361236E+0	1.371015E+0	1.304812E+0	1.321554E+0	1.354490E+0	1.343164E+0	1.350807E+0	1.335032E+0	1.368864E+0	1.366321E+0	1.325164E+0	1.278568E+0	1.304148E+0	1.307710E+0	1.318611E+0	1.330424E+0	1.361170E+0	1.315958E+0	1.277747E+0	1.312050E+0	1.377675E+0	1.367986E+0	1.295608E+0	1.348872E+0	1.355974E+0	1.322915E+0	1.325349E+0	1.314360E+0	1.379041E+0	1.371175E+0	1.333784E+0	1.323728E+0	1.370351E+0	1.354380E+0	1.360406E+0	1.311207E+0	1.386229E+0	1.336646E+0	1.331363E+0	1.282938E+0	1.363197E+0	1.298301E+0	1.366039E+0	1.397715E+0	1.282919E+0	1.326396E+0	1.347873E+0	1.295194E+0	1.391144E+0	1.312860E+0	1.290960E+0	1.388107E+0	1.343850E+0	1.323078E+0	1.335399E+0	1.313624E+0	1.376017E+0	1.339979E+0	1.327847E+0	1.336234E+0	1.350211E+0	1.371223E+0	1.362084E+0	1.327782E+0	1.367678E+0	1.322188E+0	1.312863E+0	1.325975E+0	1.303653E+0	1.319615E+0	1.338763E+0	1.345620E+0	1.346509E+0	1.345123E+0	1.288602E+0	1.311735E+0	1.352199E+0	1.313861E+0	1.322398E+0	1.301898E+0	1.374815E+0	1.375305E+0	1.286882E+0	1.347143E+0	1.400406E+0	1.328930E+0	1.317074E+0	1.384215E+0	1.349887E+0	1.352291E+0	1.355298E+0	1.346024E+0	1.280287E+0	1.328147E+0	1.340682E+0	1.320887E+0	1.353400E+0	1.327492E+0	1.302901E+0	1.344969E+0	1.360466E+0	1.334368E+0	1.313046E+0	1.350460E+0	1.352038E+0	1.310737E+0	1.373285E+0	1.342075E+0	1.283223E+0	1.334946E+0	1.338539E+0	1.382007E+0	1.335270E+0	1.337072E+0	1.292679E+0	1.286474E+0	1.349835E+0	1.339770E+0	1.296011E+0	1.325901E+0	1.384571E+0	1.370107E+0	1.319832E+0	1.357988E+0	1.338268E+0	1.342007E+0	1.327081E+0	1.304802E+0	1.382276E+0	1.336643E+0	1.289559E+0	1.315726E+0	1.365213E+0	1.298837E+0	1.343262E+0	1.292127E+0	1.369722E+0	1.291020E+0	1.297217E+0	1.349585E+0	1.308703E+0	1.286144E+0	1.307321E+0	1.348663E+0	1.365106E+0	1.334384E+0	1.264894E+0	1.330886E+0
5.482880E+2	1.437237E+0	1.390532E+0	1.445679E+0	1.462391E+0	1.428884E+0	1.403474E+0	1.458578E+0	1.425888E+0	1.417354E+0	1.409247E+0	1.400064E+0	1.445677E+0	1.438874E+0	1.449000E+0	1.440444E+0	1.359343E+0	1.404743E+0	1.485279E+0	1.516399E+0	1.432677E+0	1.458169E+0	1.418943E+0	1.516549E+0	1.446695E+0	1.482153E+0	1.486613E+0	1.415117E+0	1.441009E+0	1.466776E+0	1.490609E+0	1.441723E+0	1.413814E+0	1.502566E+0	1.414453E+0	1.464546E+0	1.393847E+0	1.479150E+0	1.376556E+0	1.405029E+0	1.464368E+0	1.462341E+0	1.413715E+0	1.453769E+0	1.478232E+0	1.475113E+0	1.458411E+0	1.407719E+0	1.440454E+0	1.510429E+0	1.432765E+0	1.425124E+0	1.391008E+0	1.470602E+0	1.435879E+0	1.440901E+0	1.409912E+0	1.398791E+0	1.449916E+0	1.419914E+0	1.411002E+0	1.470405E+0	1.429985E+0	1.419216E+0	1.413396E+0	1.498951E+0	1.462139E+0	1.423979E+0	1.463808E+0	1.426673E+0	1.408059E+0	1.427992E+0	1.424869E+0	1.425754E+0	1.431612E+0	1.379036E+0	1.472312E+0	1.422487E+0	1.474591E+0	1.366246E+0	1.439716E+0	1.442519E+0	1.422656E+0	1.393641E+0	1.430095E+0	1.456803E+0	1.400811E+0	1.393969E+0	1.394663E+0	1.428943E+0	1.448403E+0	1.456201E+0	1.378022E+0	1.391081E+0	1.452896E+0	1.497203E+0	1.414457E+0	1.444428E+0	1.461676E+0	1.453935E+0	1.367140E+0	1.472669E+0	1.377938E+0	1.481989E+0	1.443011E+0	1.404339E+0	1.456033E+0	1.389084E+0	1.412050E+0	1.446489E+0	1.508827E+0	1.421591E+0	1.403472E+0	1.429280E+0	1.403045E+0	1.362012E+0	1.373886E+0	1.403914E+0	1.371302E+0	1.394356E+0	1.406898E+0	1.439123E+0	1.413744E+0	1.421920E+0	1.417658E+0	1.416153E+0	1.429977E+0	1.394480E+0	1.425848E+0	1.476378E+0	1.430821E+0	1.401731E+0	1.411174E+0	1.451286E+0	1.391291E+0	1.386751E+0	1.406312E+0	1.447345E+0	1.396000E+0	1.464126E+0	1.401944E+0	1.451405E+0	1.399622E+0	1.439592E+0	1.392608E+0	1.379273E+0	1.383530E+0	1.347485E+0	1.425080E+0	1.437776E+0	1.401286E+0	1.352984E+0	1.423612E+0	1.445903E+0	1.473165E+0	1.409237E+0	1.430025E+0	1.401581E+0	1.351500E+0	1.426530E+0	1.356165E+0	1.449261E+0	1.394181E+0	1.456911E+0	1.493718E+0	1.418253E+0	1.383610E+0	1.398554E+0	1.418664E+0	1.390974E+0	1.329187E+0	1.417116E+0	1.379026E+0
5.490160E+2	1.362459E+0	1.318579E+0	1.330208E+0	1.428943E+0	1.339088E+0	1.376519E+0	1.297365E+0	1.362846E+0	1.327359E+0	1.349204E+0	1.333731E+0	1.343967E+0	1.325226E+0	1.360815E+0	1.396550E+0	1.322604E+0	1.261407E+0	1.329535E+0	1.332699E+0	1.335632E+0	1.292977E+0	1.371565E+0	1.384031E+0	1.370212E+0	1.316775E+0	1.331904E+0	1.346413E+0	1.331937E+0	1.369479E+0	1.382634E+0	1.366810E+0	1.351747E+0	1.321564E+0	1.352466E+0	1.324015E+0	1.292076E+0	1.333368E+0	1.322309E+0	1.274830E+0	1.327895E+0	1.356995E+0	1.338228E+0	1.330421E+0	1.282396E+0	1.350130E+0	1.350003E+0	1.358959E+0	1.324138E+0	1.403958E+0	1.358268E+0	1.341718E+0	1.348956E+0	1.321172E+0	1.272881E+0	1.323446E+0	1.313784E+0	1.378029E+0	1.365209E+0	1.331692E+0	1.336591E+0	1.326292E+0	1.340558E+0	1.312134E+0	1.301453E+0	1.315517E+0	1.371260E+0	1.302999E+0	1.302209E+0	1.313830E+0	1.342704E+0	1.321875E+0	1.273137E+0	1.362193E+0	1.320312E+0	1.302642E+0	1.360622E+0	1.380969E+0	1.330740E+0	1.331551E+0	1.362309E+0	1.344757E+0	1.335883E+0	1.274317E+0	1.369559E+0	1.381925E+0	1.331068E+0	1.319835E+0	1.316536E+0	1.334118E+0	1.369437E+0	1.349129E+0	1.304062E+0	1.321735E+0	1.293550E+0	1.327001E+0	1.351537E+0	1.319002E+0	1.319896E+0	1.325403E+0	1.349111E+0	1.336530E+0	1.338728E+0	1.294926E+0	1.330253E+0	1.296883E+0	1.326259E+0	1.313033E+0	1.372681E+0	1.346718E+0	1.356078E+0	1.338119E+0	1.353549E+0	1.348175E+0	1.294813E+0	1.303753E+0	1.342781E+0	1.319829E+0	1.330464E+0	1.314382E+0	1.321164E+0	1.371511E+0	1.313406E+0	1.368921E+0	1.314368E+0	1.361937E+0	1.323030E+0	1.311551E+0	1.304075E+0	1.398639E+0	1.321693E+0	1.296933E+0	1.309138E+0	1.309002E+0	1.302806E+0	1.371551E+0	1.321697E+0	1.319454E+0	1.285514E+0	1.309517E+0	1.325920E+0	1.335168E+0	1.331587E+0	1.321146E+0	1.316585E+0	1.353218E+0	1.290037E+0	1.310940E+0	1.309011E+0	1.296056E+0	1.343988E+0	1.346380E+0	1.333694E+0	1.363992E+0	1.386967E+0	1.303153E+0	1.278056E+0	1.388251E+0	1.333201E+0	1.327196E+0	1.301889E+0	1.343948E+0	1.319747E+0	1.335003E+0	1.319732E+0	1.350732E+0	1.325983E+0	1.304284E+0	1.316740E+0	1.330718E+0	1.295668E+0	1.201486E+0	1.229056E+0
5.497680E+2	1.354794E+0	1.299028E+0	1.322112E+0	1.349830E+0	1.306949E+0	1.286071E+0	1.330913E+0	1.306875E+0	1.321520E+0	1.294754E+0	1.320638E+0	1.323792E+0	1.315553E+0	1.306557E+0	1.312859E+0	1.310614E+0	1.277635E+0	1.372892E+0	1.323715E+0	1.342040E+0	1.332089E+0	1.303501E+0	1.312443E+0	1.331140E+0	1.365225E+0	1.370473E+0	1.313875E+0	1.307616E+0	1.329460E+0	1.344625E+0	1.366678E+0	1.273231E+0	1.351433E+0	1.295891E+0	1.314864E+0	1.297046E+0	1.309008E+0	1.237671E+0	1.253592E+0	1.317513E+0	1.368989E+0	1.357408E+0	1.301145E+0	1.341951E+0	1.329487E+0	1.357912E+0	1.320950E+0	1.322816E+0	1.316468E+0	1.280289E+0	1.334750E+0	1.341458E+0	1.335976E+0	1.299897E+0	1.315050E+0	1.273511E+0	1.322360E+0	1.328786E+0	1.341058E+0	1.248043E+0	1.306520E+0	1.326680E+0	1.302007E+0	1.269236E+0	1.343891E+0	1.322370E+0	1.334376E+0	1.320744E+0	1.310692E+0	1.327076E+0	1.338311E+0	1.269832E+0	1.355543E+0	1.342718E+0	1.317524E+0	1.339072E+0	1.302382E+0	1.348821E+0	1.342068E+0	1.347204E+0	1.302634E+0	1.296213E+0	1.277006E+0	1.274215E+0	1.260051E+0	1.306723E+0	1.277049E+0	1.330645E+0	1.291749E+0	1.290912E+0	1.286510E+0	1.274672E+0	1.259087E+0	1.308753E+0	1.341087E+0	1.321873E+0	1.362882E+0	1.295182E+0	1.286615E+0	1.312460E+0	1.328719E+0	1.304086E+0	1.313666E+0	1.312873E+0	1.334995E+0	1.330929E+0	1.270486E+0	1.296782E+0	1.341824E+0	1.340377E+0	1.299758E+0	1.320629E+0	1.282725E+0	1.309744E+0	1.259510E+0	1.237374E+0	1.293856E+0	1.257342E+0	1.298782E+0	1.302630E+0	1.323692E+0	1.309184E+0	1.274140E+0	1.272442E+0	1.298072E+0	1.345997E+0	1.306974E+0	1.297056E+0	1.294205E+0	1.261975E+0	1.291533E+0	1.350078E+0	1.295447E+0	1.289025E+0	1.287231E+0	1.339751E+0	1.306063E+0	1.316918E+0	1.320258E+0	1.283529E+0	1.320795E+0	1.291627E+0	1.259020E+0	1.272873E+0	1.380983E+0	1.248265E+0	1.267668E+0	1.294132E+0	1.270896E+0	1.302660E+0	1.279420E+0	1.283531E+0	1.330008E+0	1.282861E+0	1.286286E+0	1.244743E+0	1.315065E+0	1.284096E+0	1.240395E+0	1.295208E+0	1.322226E+0	1.242506E+0	1.300448E+0	1.303479E+0	1.299466E+0	1.349007E+0	1.296831E+0	1.310216E+0	1.293973E+0	1.267092E+0	1.333157E+0	1.144187E+0
5.505170E+2	1.319999E+0	1.326552E+0	1.378386E+0	1.386339E+0	1.358208E+0	1.288735E+0	1.316090E+0	1.343763E+0	1.297856E+0	1.360241E+0	1.296753E+0	1.336689E+0	1.279487E+0	1.333059E+0	1.364180E+0	1.369158E+0	1.345901E+0	1.375768E+0	1.355406E+0	1.346101E+0	1.324032E+0	1.385452E+0	1.304227E+0	1.310782E+0	1.366513E+0	1.340677E+0	1.356188E+0	1.376957E+0	1.336372E+0	1.352119E+0	1.364923E+0	1.309144E+0	1.385605E+0	1.380568E+0	1.381809E+0	1.320992E+0	1.372408E+0	1.365476E+0	1.360497E+0	1.286712E+0	1.352299E+0	1.328024E+0	1.334258E+0	1.332639E+0	1.332097E+0	1.372163E+0	1.364628E+0	1.372939E+0	1.365113E+0	1.330031E+0	1.322554E+0	1.363553E+0	1.333896E+0	1.322196E+0	1.340801E+0	1.321441E+0	1.360654E+0	1.367762E+0	1.342959E+0	1.291743E+0	1.361074E+0	1.342919E+0	1.362863E+0	1.377348E+0	1.301858E+0	1.359298E+0	1.309855E+0	1.325773E+0	1.335731E+0	1.322858E+0	1.306087E+0	1.295233E+0	1.323641E+0	1.385612E+0	1.357904E+0	1.327924E+0	1.295528E+0	1.381722E+0	1.354807E+0	1.325148E+0	1.322717E+0	1.369336E+0	1.353611E+0	1.339929E+0	1.330629E+0	1.333668E+0	1.320301E+0	1.302664E+0	1.317481E+0	1.374806E+0	1.326225E+0	1.360216E+0	1.337178E+0	1.322714E+0	1.375688E+0	1.339168E+0	1.340487E+0	1.341408E+0	1.303748E+0	1.361444E+0	1.356681E+0	1.310478E+0	1.375940E+0	1.312854E+0	1.303199E+0	1.318717E+0	1.333533E+0	1.325996E+0	1.333533E+0	1.359536E+0	1.380812E+0	1.345698E+0	1.308918E+0	1.317706E+0	1.351907E+0	1.314203E+0	1.359968E+0	1.330759E+0	1.355780E+0	1.334543E+0	1.314380E+0	1.410825E+0	1.368965E+0	1.294858E+0	1.307438E+0	1.360151E+0	1.332944E+0	1.316800E+0	1.324203E+0	1.293594E+0	1.302057E+0	1.305643E+0	1.336947E+0	1.285709E+0	1.376437E+0	1.357743E+0	1.343781E+0	1.356741E+0	1.371282E+0	1.290049E+0	1.350833E+0	1.322176E+0	1.309083E+0	1.318729E+0	1.367797E+0	1.307650E+0	1.284574E+0	1.358469E+0	1.314111E+0	1.327741E+0	1.315036E+0	1.313721E+0	1.380301E+0	1.342432E+0	1.305787E+0	1.282811E+0	1.370217E+0	1.302886E+0	1.272603E+0	1.334423E+0	1.309925E+0	1.320678E+0	1.259468E+0	1.341669E+0	1.322488E+0	1.351499E+0	1.308256E+0	1.323076E+0	1.303628E+0	1.393144E+0	1.329224E+0	1.220855E+0
5.512570E+2	1.338556E+0	1.320310E+0	1.350214E+0	1.288310E+0	1.308747E+0	1.268180E+0	1.305954E+0	1.348273E+0	1.321596E+0	1.331109E+0	1.355969E+0	1.376775E+0	1.315499E+0	1.341358E+0	1.345494E+0	1.347200E+0	1.338624E+0	1.379104E+0	1.398479E+0	1.332731E+0	1.372606E+0	1.342233E+0	1.316988E+0	1.298422E+0	1.328032E+0	1.336516E+0	1.334487E+0	1.353880E+0	1.329929E+0	1.343565E+0	1.365174E+0	1.325470E+0	1.344033E+0	1.352528E+0	1.406726E+0	1.330855E+0	1.352713E+0	1.342676E+0	1.307681E+0	1.323663E+0	1.381553E+0	1.319487E+0	1.271591E+0	1.336821E+0	1.357119E+0	1.342392E+0	1.333819E+0	1.345540E+0	1.395593E+0	1.357039E+0	1.350327E+0	1.326081E+0	1.382664E+0	1.378540E+0	1.351552E+0	1.363823E+0	1.334058E+0	1.367141E+0	1.341020E+0	1.332487E+0	1.361489E+0	1.344865E+0	1.288759E+0	1.342661E+0	1.315509E+0	1.365094E+0	1.384039E+0	1.395493E+0	1.327638E+0	1.289759E+0	1.308361E+0	1.329577E+0	1.396037E+0	1.321529E+0	1.397691E+0	1.366252E+0	1.324385E+0	1.406208E+0	1.319359E+0	1.372596E+0	1.295073E+0	1.370645E+0	1.355053E+0	1.397146E+0	1.357816E+0	1.330078E+0	1.310335E+0	1.309306E+0	1.293093E+0	1.347052E+0	1.349252E+0	1.303176E+0	1.325264E+0	1.316787E+0	1.324095E+0	1.352301E+0	1.308040E+0	1.368670E+0	1.330754E+0	1.342299E+0	1.348325E+0	1.347655E+0	1.337842E+0	1.313516E+0	1.288137E+0	1.346271E+0	1.332622E+0	1.344752E+0	1.305211E+0	1.325598E+0	1.372194E+0	1.280661E+0	1.311554E+0	1.364127E+0	1.367245E+0	1.326197E+0	1.326990E+0	1.296210E+0	1.304831E+0	1.336781E+0	1.300412E+0	1.358657E+0	1.300892E+0	1.326407E+0	1.276976E+0	1.339117E+0	1.319067E+0	1.313984E+0	1.355017E+0	1.310378E+0	1.344756E+0	1.321879E+0	1.313595E+0	1.293169E+0	1.320752E+0	1.298616E+0	1.306297E+0	1.352484E+0	1.302142E+0	1.289912E+0	1.315031E+0	1.361808E+0	1.325119E+0	1.312720E+0	1.302101E+0	1.355269E+0	1.287452E+0	1.358035E+0	1.352606E+0	1.355717E+0	1.340874E+0	1.304713E+0	1.386999E+0	1.367915E+0	1.277374E+0	1.281499E+0	1.347810E+0	1.380726E+0	1.313762E+0	1.367278E+0	1.325314E+0	1.283938E+0	1.325177E+0	1.342299E+0	1.295542E+0	1.331639E+0	1.366556E+0	1.289166E+0	1.331144E+0	1.268959E+0	1.264917E+0	1.259356E+0
5.520480E+2	1.315956E+0	1.346322E+0	1.402764E+0	1.313504E+0	1.296837E+0	1.295438E+0	1.337530E+0	1.335672E+0	1.294235E+0	1.362027E+0	1.347599E+0	1.323828E+0	1.312826E+0	1.280220E+0	1.294086E+0	1.261919E+0	1.373266E+0	1.326549E+0	1.366450E+0	1.296721E+0	1.332645E+0	1.348075E+0	1.346339E+0	1.352143E+0	1.413556E+0	1.348613E+0	1.340850E+0	1.277136E+0	1.294347E+0	1.334807E+0	1.366862E+0	1.340260E+0	1.318171E+0	1.316740E+0	1.356271E+0	1.323656E+0	1.296849E+0	1.296724E+0	1.318653E+0	1.297651E+0	1.347140E+0	1.292744E+0	1.314784E+0	1.307326E+0	1.314183E+0	1.350893E+0	1.343094E+0	1.302371E+0	1.290051E+0	1.378932E+0	1.259626E+0	1.323568E+0	1.350348E+0	1.333424E+0	1.387869E+0	1.316571E+0	1.345764E+0	1.366062E+0	1.379630E+0	1.287607E+0	1.355846E+0	1.304543E+0	1.343329E+0	1.306388E+0	1.328240E+0	1.268062E+0	1.346250E+0	1.346111E+0	1.342859E+0	1.326275E+0	1.310034E+0	1.286371E+0	1.300995E+0	1.328023E+0	1.316657E+0	1.394163E+0	1.303680E+0	1.354765E+0	1.318570E+0	1.302200E+0	1.288314E+0	1.307753E+0	1.304403E+0	1.317217E+0	1.305204E+0	1.295428E+0	1.287410E+0	1.301447E+0	1.310340E+0	1.348996E+0	1.358169E+0	1.295226E+0	1.303268E+0	1.385203E+0	1.353103E+0	1.267124E+0	1.333362E+0	1.309964E+0	1.324951E+0	1.281660E+0	1.330708E+0	1.360854E+0	1.329618E+0	1.299294E+0	1.312962E+0	1.337410E+0	1.292123E+0	1.285058E+0	1.352937E+0	1.299879E+0	1.335055E+0	1.341599E+0	1.321924E+0	1.324148E+0	1.356604E+0	1.292342E+0	1.306524E+0	1.311422E+0	1.331148E+0	1.307963E+0	1.345096E+0	1.321445E+0	1.333849E+0	1.314777E+0	1.278396E+0	1.359091E+0	1.309482E+0	1.286432E+0	1.295777E+0	1.260898E+0	1.256085E+0	1.241705E+0	1.325065E+0	1.335760E+0	1.310469E+0	1.308091E+0	1.323544E+0	1.331652E+0	1.265883E+0	1.303756E+0	1.323190E+0	1.294819E+0	1.344285E+0	1.285098E+0	1.330328E+0	1.322524E+0	1.368183E+0	1.355605E+0	1.321869E+0	1.312797E+0	1.292446E+0	1.296918E+0	1.334582E+0	1.356930E+0	1.289809E+0	1.259840E+0	1.328035E+0	1.292472E+0	1.354392E+0	1.319701E+0	1.288840E+0	1.349973E+0	1.306222E+0	1.291131E+0	1.303655E+0	1.304315E+0	1.344389E+0	1.316687E+0	1.327839E+0	1.332139E+0	1.290702E+0	1.200223E+0
5.527590E+2	1.298877E+0	1.339597E+0	1.269708E+0	1.318591E+0	1.306490E+0	1.272573E+0	1.342987E+0	1.292211E+0	1.272390E+0	1.282078E+0	1.305013E+0	1.304612E+0	1.329180E+0	1.342061E+0	1.340961E+0	1.275054E+0	1.291997E+0	1.369842E+0	1.304797E+0	1.287647E+0	1.272684E+0	1.329564E+0	1.299742E+0	1.332367E+0	1.330293E+0	1.295601E+0	1.322811E+0	1.313063E+0	1.326446E+0	1.301444E+0	1.322785E+0	1.314052E+0	1.301197E+0	1.318322E+0	1.339889E+0	1.307167E+0	1.300837E+0	1.327069E+0	1.275149E+0	1.300454E+0	1.267233E+0	1.281824E+0	1.287058E+0	1.240619E+0	1.348185E+0	1.325431E+0	1.294169E+0	1.279999E+0	1.319890E+0	1.292208E+0	1.333692E+0	1.342023E+0	1.291434E+0	1.298978E+0	1.296554E+0	1.323451E+0	1.337330E+0	1.298745E+0	1.298123E+0	1.318260E+0	1.271189E+0	1.303036E+0	1.312275E+0	1.320325E+0	1.274751E+0	1.308592E+0	1.356633E+0	1.368652E+0	1.305335E+0	1.306801E+0	1.307185E+0	1.298857E+0	1.280938E+0	1.319864E+0	1.290296E+0	1.371211E+0	1.274084E+0	1.349210E+0	1.309486E+0	1.313471E+0	1.303948E+0	1.315682E+0	1.289508E+0	1.240068E+0	1.351468E+0	1.311463E+0	1.280869E+0	1.331058E+0	1.299200E+0	1.331649E+0	1.335414E+0	1.210069E+0	1.276670E+0	1.306552E+0	1.262783E+0	1.280135E+0	1.295809E+0	1.321641E+0	1.272756E+0	1.290711E+0	1.371732E+0	1.278505E+0	1.286906E+0	1.275747E+0	1.259860E+0	1.294656E+0	1.241091E+0	1.306695E+0	1.282512E+0	1.348135E+0	1.376782E+0	1.218948E+0	1.298287E+0	1.341273E+0	1.292444E+0	1.337540E+0	1.279392E+0	1.282077E+0	1.316637E+0	1.311885E+0	1.280698E+0	1.343925E+0	1.284805E+0	1.241861E+0	1.297149E+0	1.338096E+0	1.321409E+0	1.303597E+0	1.304829E+0	1.251349E+0	1.285982E+0	1.315878E+0	1.300871E+0	1.289979E+0	1.295971E+0	1.268772E+0	1.281149E+0	1.343581E+0	1.271855E+0	1.297204E+0	1.241633E+0	1.321957E+0	1.266134E+0	1.277885E+0	1.301263E+0	1.359448E+0	1.174747E+0	1.316173E+0	1.265707E+0	1.314942E+0	1.270251E+0	1.279863E+0	1.367080E+0	1.311361E+0	1.282508E+0	1.275705E+0	1.264717E+0	1.288297E+0	1.295425E+0	1.323398E+0	1.266966E+0	1.312128E+0	1.313554E+0	1.334893E+0	1.305671E+0	1.277567E+0	1.345333E+0	1.292992E+0	1.281202E+0	1.263190E+0	1.170165E+0	1.097060E+0
5.535050E+2	1.214410E+0	1.186408E+0	1.198897E+0	1.105028E+0	1.146722E+0	1.136965E+0	1.171487E+0	1.190180E+0	1.187699E+0	1.175410E+0	1.148411E+0	1.181190E+0	1.187665E+0	1.206679E+0	1.190188E+0	1.110680E+0	1.180517E+0	1.179071E+0	1.208532E+0	1.167022E+0	1.202525E+0	1.204071E+0	1.168617E+0	1.209095E+0	1.216025E+0	1.214981E+0	1.196436E+0	1.176989E+0	1.181523E+0	1.208303E+0	1.194563E+0	1.163845E+0	1.193777E+0	1.190290E+0	1.236465E+0	1.205025E+0	1.194620E+0	1.159406E+0	1.157677E+0	1.233833E+0	1.169478E+0	1.181202E+0	1.230924E+0	1.182241E+0	1.182452E+0	1.228112E+0	1.170160E+0	1.169058E+0	1.208892E+0	1.186912E+0	1.150383E+0	1.195300E+0	1.174205E+0	1.121073E+0	1.155807E+0	1.189313E+0	1.161867E+0	1.189904E+0	1.169169E+0	1.168545E+0	1.160882E+0	1.180364E+0	1.135554E+0	1.158593E+0	1.180850E+0	1.236765E+0	1.172576E+0	1.198225E+0	1.134417E+0	1.196135E+0	1.176624E+0	1.181429E+0	1.181112E+0	1.202037E+0	1.198707E+0	1.195966E+0	1.165892E+0	1.174037E+0	1.203498E+0	1.183561E+0	1.156600E+0	1.199097E+0	1.198589E+0	1.147868E+0	1.169303E+0	1.159914E+0	1.211353E+0	1.168233E+0	1.173268E+0	1.201699E+0	1.177418E+0	1.155086E+0	1.156564E+0	1.163227E+0	1.196872E+0	1.174884E+0	1.204269E+0	1.169950E+0	1.197639E+0	1.187626E+0	1.168919E+0	1.187817E+0	1.205352E+0	1.130924E+0	1.090411E+0	1.159411E+0	1.190997E+0	1.171689E+0	1.195068E+0	1.166855E+0	1.211546E+0	1.164842E+0	1.209489E+0	1.188950E+0	1.166196E+0	1.171827E+0	1.156205E+0	1.177768E+0	1.206711E+0	1.184319E+0	1.157557E+0	1.164081E+0	1.127215E+0	1.158501E+0	1.170641E+0	1.216759E+0	1.170400E+0	1.187601E+0	1.206738E+0	1.164284E+0	1.143229E+0	1.141880E+0	1.187451E+0	1.198126E+0	1.200192E+0	1.127993E+0	1.168946E+0	1.234704E+0	1.182185E+0	1.151941E+0	1.182722E+0	1.181348E+0	1.171243E+0	1.151060E+0	1.185103E+0	1.200242E+0	1.179717E+0	1.151434E+0	1.138098E+0	1.190165E+0	1.169856E+0	1.133386E+0	1.227765E+0	1.185206E+0	1.149605E+0	1.120191E+0	1.200633E+0	1.178224E+0	1.197509E+0	1.180995E+0	1.180791E+0	1.138855E+0	1.208676E+0	1.173730E+0	1.155176E+0	1.173834E+0	1.208152E+0	1.180152E+0	1.127764E+0	1.224346E+0	1.222217E+0	1.075060E+0
5.542580E+2	1.070060E+0	1.087968E+0	1.040728E+0	1.063877E+0	1.082487E+0	1.042257E+0	1.099396E+0	1.134337E+0	1.106643E+0	1.115366E+0	1.057300E+0	1.071643E+0	1.057669E+0	1.069184E+0	1.106303E+0	1.066821E+0	1.060053E+0	1.086061E+0	1.052910E+0	1.053225E+0	1.078956E+0	1.110468E+0	1.073104E+0	1.091371E+0	1.101271E+0	1.050205E+0	1.068281E+0	1.012664E+0	1.087615E+0	1.085733E+0	1.108429E+0	1.074615E+0	1.101328E+0	1.122065E+0	1.090199E+0	1.108685E+0	1.040573E+0	1.079755E+0	1.028492E+0	1.077711E+0	1.055843E+0	1.066133E+0	1.103022E+0	1.042486E+0	1.080551E+0	1.088709E+0	1.056204E+0	1.076914E+0	1.083229E+0	1.113036E+0	1.047589E+0	9.985301E-1	1.075610E+0	1.077905E+0	1.051974E+0	1.034167E+0	1.101722E+0	1.100870E+0	1.025416E+0	1.039959E+0	1.064226E+0	1.045454E+0	1.051840E+0	1.065652E+0	1.092189E+0	1.091461E+0	1.099716E+0	1.073837E+0	1.056795E+0	1.064558E+0	1.066537E+0	1.051949E+0	1.089826E+0	1.088455E+0	1.063937E+0	1.118342E+0	1.045325E+0	1.136229E+0	1.068977E+0	1.039306E+0	1.012817E+0	1.093921E+0	1.063751E+0	1.065324E+0	1.076706E+0	1.092634E+0	1.056466E+0	1.059257E+0	1.114050E+0	1.159945E+0	1.048992E+0	1.037963E+0	1.022497E+0	1.105551E+0	1.092150E+0	1.072144E+0	1.115024E+0	1.075917E+0	1.073775E+0	1.106531E+0	1.031239E+0	1.081585E+0	1.065197E+0	1.071138E+0	1.084184E+0	1.117184E+0	1.078449E+0	1.063059E+0	1.093108E+0	1.068933E+0	1.104845E+0	1.090858E+0	1.053165E+0	1.079730E+0	1.053628E+0	1.029964E+0	1.101478E+0	1.074336E+0	1.107134E+0	1.045281E+0	1.086278E+0	1.061007E+0	1.048226E+0	1.082156E+0	1.094371E+0	1.135716E+0	1.051392E+0	1.088462E+0	1.070288E+0	1.073176E+0	1.048399E+0	1.060469E+0	1.085600E+0	1.079347E+0	1.067532E+0	1.106990E+0	1.052896E+0	1.079625E+0	1.050219E+0	1.019801E+0	1.062462E+0	1.104876E+0	1.096673E+0	1.051323E+0	1.091659E+0	1.056872E+0	1.062665E+0	1.039086E+0	1.042669E+0	1.106292E+0	1.050145E+0	1.072207E+0	1.096977E+0	1.090314E+0	1.072524E+0	1.042481E+0	1.113516E+0	1.137149E+0	1.046914E+0	1.068784E+0	1.055762E+0	1.070219E+0	1.104228E+0	1.048057E+0	1.052249E+0	1.050431E+0	1.083376E+0	1.037953E+0	1.040706E+0	1.082266E+0	1.058365E+0	1.011214E+0
5.550080E+2	1.031330E+0	1.019130E+0	9.990074E-1	1.071720E+0	9.516993E-1	9.871169E-1	1.011020E+0	9.939737E-1	1.032548E+0	1.024348E+0	1.033176E+0	9.794432E-1	1.021084E+0	1.010596E+0	9.759196E-1	9.825049E-1	1.007803E+0	9.985693E-1	1.007887E+0	9.804153E-1	1.000593E+0	9.976634E-1	1.003337E+0	1.046359E+0	1.013693E+0	1.028128E+0	1.018458E+0	1.039149E+0	9.890414E-1	1.046058E+0	1.038449E+0	1.015903E+0	1.063948E+0	1.038948E+0	1.035412E+0	9.755740E-1	1.012186E+0	9.978224E-1	9.790185E-1	9.929902E-1	9.883871E-1	1.017952E+0	1.002836E+0	1.013849E+0	1.023941E+0	1.006070E+0	1.039098E+0	9.633053E-1	1.017155E+0	1.027380E+0	9.801966E-1	1.047020E+0	9.893298E-1	1.029121E+0	1.005150E+0	9.910806E-1	1.016112E+0	1.067107E+0	1.029936E+0	1.004743E+0	9.960028E-1	1.028620E+0	9.857131E-1	9.939103E-1	9.761274E-1	1.037760E+0	1.037790E+0	1.013936E+0	1.004413E+0	9.871973E-1	1.018865E+0	9.757755E-1	1.025463E+0	1.030324E+0	9.755500E-1	1.047344E+0	1.024197E+0	1.017554E+0	1.051419E+0	9.790461E-1	1.042852E+0	1.053762E+0	9.864474E-1	9.909933E-1	1.031502E+0	1.007095E+0	1.016294E+0	9.971507E-1	1.009023E+0	1.013082E+0	1.025514E+0	9.912349E-1	9.833975E-1	1.010307E+0	1.026902E+0	1.015365E+0	1.014592E+0	1.016980E+0	1.016268E+0	1.022439E+0	1.007795E+0	1.024075E+0	1.004317E+0	9.737526E-1	1.019439E+0	9.676126E-1	9.993591E-1	1.000151E+0	1.058002E+0	1.023614E+0	1.067694E+0	1.022259E+0	9.654424E-1	1.030279E+0	9.971951E-1	9.745431E-1	9.803960E-1	9.815110E-1	9.904093E-1	9.917380E-1	9.841811E-1	1.009752E+0	1.010247E+0	1.026253E+0	9.944496E-1	1.039112E+0	1.032573E+0	1.014414E+0	1.005877E+0	9.978521E-1	9.621472E-1	9.908683E-1	1.017429E+0	1.025644E+0	1.006199E+0	1.014809E+0	1.049880E+0	1.029779E+0	1.027091E+0	1.002313E+0	1.004000E+0	9.983116E-1	9.953339E-1	9.601788E-1	1.043274E+0	1.011598E+0	1.010770E+0	9.743948E-1	1.016464E+0	1.027507E+0	9.597240E-1	9.901290E-1	1.024381E+0	1.023300E+0	1.049265E+0	9.820238E-1	9.969295E-1	1.040008E+0	1.021429E+0	1.056283E+0	1.004845E+0	1.029820E+0	1.000232E+0	1.000638E+0	1.036332E+0	1.026031E+0	9.862580E-1	1.034184E+0	9.584656E-1	1.113426E+0	1.097508E+0	1.048235E+0
5.558050E+2	9.956592E-1	1.004055E+0	1.015607E+0	9.558065E-1	1.049670E+0	9.616606E-1	1.043671E+0	1.041822E+0	1.020484E+0	1.022027E+0	1.006257E+0	1.007822E+0	9.941446E-1	1.014687E+0	9.977845E-1	9.487036E-1	9.600710E-1	1.047079E+0	9.707194E-1	9.867968E-1	9.827687E-1	1.036281E+0	1.042506E+0	1.040408E+0	1.043552E+0	9.854530E-1	1.003411E+0	9.645620E-1	1.032728E+0	1.042788E+0	1.055302E+0	1.037446E+0	1.043317E+0	9.742840E-1	1.020833E+0	9.874388E-1	9.685295E-1	1.026386E+0	9.853838E-1	1.024855E+0	1.008277E+0	1.014736E+0	1.043826E+0	1.068491E+0	9.840574E-1	9.728895E-1	1.030610E+0	1.002848E+0	1.006434E+0	9.736859E-1	1.003038E+0	1.021358E+0	1.010091E+0	1.028230E+0	1.010245E+0	1.037337E+0	1.019679E+0	1.019231E+0	9.937608E-1	1.023478E+0	1.029681E+0	1.025461E+0	9.870748E-1	1.056019E+0	9.794897E-1	1.080638E+0	1.011880E+0	1.044824E+0	1.008814E+0	1.006355E+0	1.036406E+0	9.598941E-1	1.035367E+0	9.896764E-1	1.092635E+0	9.794731E-1	1.022130E+0	1.032132E+0	9.921814E-1	9.654515E-1	1.022404E+0	1.054587E+0	9.658401E-1	1.016937E+0	9.897493E-1	9.925320E-1	9.836604E-1	1.012225E+0	9.668224E-1	1.023163E+0	9.816281E-1	9.298200E-1	1.019033E+0	1.033183E+0	1.019227E+0	1.002930E+0	9.435506E-1	9.955361E-1	1.008649E+0	9.895780E-1	1.021717E+0	9.939101E-1	1.010935E+0	1.007915E+0	1.042121E+0	1.003862E+0	1.020030E+0	9.658350E-1	9.868901E-1	1.057518E+0	1.001866E+0	9.899210E-1	1.010955E+0	1.010658E+0	9.796695E-1	9.799426E-1	1.034713E+0	1.010173E+0	1.017843E+0	1.016319E+0	9.857152E-1	9.844613E-1	1.002246E+0	1.020630E+0	9.866357E-1	1.054195E+0	1.022186E+0	1.043042E+0	1.011530E+0	9.924003E-1	1.006578E+0	9.951240E-1	1.011820E+0	9.656371E-1	1.030436E+0	1.006322E+0	9.872012E-1	1.034707E+0	1.049435E+0	9.795723E-1	9.868448E-1	1.017839E+0	9.742022E-1	1.035016E+0	9.838745E-1	1.048188E+0	1.005955E+0	1.021819E+0	1.001797E+0	1.036892E+0	1.009251E+0	9.938155E-1	9.548177E-1	1.012219E+0	1.006939E+0	9.726707E-1	1.001982E+0	1.026747E+0	9.766753E-1	1.003803E+0	9.960898E-1	1.014224E+0	1.077930E+0	1.005493E+0	1.024669E+0	1.014527E+0	1.016882E+0	9.946127E-1	9.534663E-1	9.653327E-1	1.019902E+0	1.028088E+0
5.560080E+2	9.773578E-1	1.015199E+0	9.944892E-1	9.359859E-1	9.863017E-1	1.020305E+0	1.020677E+0	9.874670E-1	9.686243E-1	9.639755E-1	9.899559E-1	9.701846E-1	1.035403E+0	9.804611E-1	9.989609E-1	9.603501E-1	1.019606E+0	9.764693E-1	1.007776E+0	9.902992E-1	1.013637E+0	9.894446E-1	9.747725E-1	9.991112E-1	9.993076E-1	9.848546E-1	9.995597E-1	9.938962E-1	1.026190E+0	1.011153E+0	9.654132E-1	1.013108E+0	9.770095E-1	9.938827E-1	1.020248E+0	9.499231E-1	1.011079E+0	1.008019E+0	1.005684E+0	1.036524E+0	9.734938E-1	1.044410E+0	9.984003E-1	9.850337E-1	9.507128E-1	1.005916E+0	1.003106E+0	1.001443E+0	9.620966E-1	9.820419E-1	1.025098E+0	9.976426E-1	1.000368E+0	9.982784E-1	1.010760E+0	1.008528E+0	9.730611E-1	1.031364E+0	9.972906E-1	9.569234E-1	1.017209E+0	9.718653E-1	1.021653E+0	9.941301E-1	9.677761E-1	9.870965E-1	1.039166E+0	9.990237E-1	1.007254E+0	9.751304E-1	1.044120E+0	9.884763E-1	9.135955E-1	9.513266E-1	1.048461E+0	9.888839E-1	9.864476E-1	1.008984E+0	9.937569E-1	9.951440E-1	1.021324E+0	1.036925E+0	9.911855E-1	9.991240E-1	9.788949E-1	1.027534E+0	1.022111E+0	9.701519E-1	9.079496E-1	1.003728E+0	1.015332E+0	9.579919E-1	9.767960E-1	9.921552E-1	1.025011E+0	9.848893E-1	9.838014E-1	9.843786E-1	9.752459E-1	1.014972E+0	9.731013E-1	9.904721E-1	1.015267E+0	9.902657E-1	9.877056E-1	9.759113E-1	9.872989E-1	1.011426E+0	1.003404E+0	9.877149E-1	9.968688E-1	9.555275E-1	9.990310E-1	1.018732E+0	9.676110E-1	9.694014E-1	1.018092E+0	1.007756E+0	9.985369E-1	9.772573E-1	9.446914E-1	1.010851E+0	9.573137E-1	9.739442E-1	9.630302E-1	9.941532E-1	9.885275E-1	9.736493E-1	9.691946E-1	9.708548E-1	1.026814E+0	1.001114E+0	9.914721E-1	9.771330E-1	9.751005E-1	9.390730E-1	1.029761E+0	9.879056E-1	9.653872E-1	9.827664E-1	1.015103E+0	9.672910E-1	9.915393E-1	9.688668E-1	1.045171E+0	1.020449E+0	1.002866E+0	9.837924E-1	1.025637E+0	1.021158E+0	9.922005E-1	9.999304E-1	9.981674E-1	1.019793E+0	9.684442E-1	9.890224E-1	9.622879E-1	1.017199E+0	9.850951E-1	9.636863E-1	9.891218E-1	1.024252E+0	1.009841E+0	9.860515E-1	9.974779E-1	9.765262E-1	9.974928E-1	9.687515E-1	1.050568E+0	9.802745E-1	9.165688E-1	9.129838E-1
5.565090E+2	9.766642E-1	9.360039E-1	9.589139E-1	1.014560E+0	9.686383E-1	9.888613E-1	9.709104E-1	9.679931E-1	1.026087E+0	9.708329E-1	1.007609E+0	9.553616E-1	9.892480E-1	1.012230E+0	9.874434E-1	1.005442E+0	9.530400E-1	9.524080E-1	1.001701E+0	9.897132E-1	1.003558E+0	9.587848E-1	1.005302E+0	9.575629E-1	9.924286E-1	9.543288E-1	9.566856E-1	9.625614E-1	9.816721E-1	9.617739E-1	9.744387E-1	9.695970E-1	1.003293E+0	9.797231E-1	9.615760E-1	9.277725E-1	9.567854E-1	9.470126E-1	9.715128E-1	1.013018E+0	1.007488E+0	9.194725E-1	9.677502E-1	9.966224E-1	9.865468E-1	1.022305E+0	9.855484E-1	9.661703E-1	1.012871E+0	9.857588E-1	9.588576E-1	1.014720E+0	9.571128E-1	9.635424E-1	1.031931E+0	9.698435E-1	9.754652E-1	9.754363E-1	9.798825E-1	9.755140E-1	9.570692E-1	9.785567E-1	9.676478E-1	9.692215E-1	9.987575E-1	9.772511E-1	9.915939E-1	9.863896E-1	9.998182E-1	9.834024E-1	9.795150E-1	9.842277E-1	9.874336E-1	9.882925E-1	9.766478E-1	9.646394E-1	9.705475E-1	9.810442E-1	9.982404E-1	9.630492E-1	9.360320E-1	1.000724E+0	9.789562E-1	9.636784E-1	9.846768E-1	9.528282E-1	1.007766E+0	9.977252E-1	9.543886E-1	1.004652E+0	9.955928E-1	9.964655E-1	9.857337E-1	9.654845E-1	9.480056E-1	1.011283E+0	9.432467E-1	9.422682E-1	9.718547E-1	1.036587E+0	9.498988E-1	9.964890E-1	9.774668E-1	9.921801E-1	1.002656E+0	9.805412E-1	9.877772E-1	9.780806E-1	1.014177E+0	9.685691E-1	1.031711E+0	9.830575E-1	1.020727E+0	9.828224E-1	1.003400E+0	9.744599E-1	9.258248E-1	9.982064E-1	9.892545E-1	1.017552E+0	9.665446E-1	9.774285E-1	1.029187E+0	9.780924E-1	9.671064E-1	9.745255E-1	1.007647E+0	9.598735E-1	9.943139E-1	1.004647E+0	9.693722E-1	9.623602E-1	9.861009E-1	9.901073E-1	9.707142E-1	9.973532E-1	1.001926E+0	9.779362E-1	9.799992E-1	9.708710E-1	9.874496E-1	9.952703E-1	9.551892E-1	9.763087E-1	9.411247E-1	9.836355E-1	9.713833E-1	1.005746E+0	9.715957E-1	9.968217E-1	9.714964E-1	9.599633E-1	9.588907E-1	9.660603E-1	9.226802E-1	9.884596E-1	9.538712E-1	9.967813E-1	9.558749E-1	9.295167E-1	9.887730E-1	1.031859E+0	9.675187E-1	9.444604E-1	9.868622E-1	9.977587E-1	9.566499E-1	9.906901E-1	9.769603E-1	1.020222E+0	1.052662E+0	9.819204E-1
5.570330E+2	9.765647E-1	9.879727E-1	9.907438E-1	1.049352E+0	9.829298E-1	9.965992E-1	9.749730E-1	9.969852E-1	9.769807E-1	9.914884E-1	1.008290E+0	9.655318E-1	9.792640E-1	9.927253E-1	9.732000E-1	9.861613E-1	9.798174E-1	9.954317E-1	1.002126E+0	9.878509E-1	9.632643E-1	9.865165E-1	9.825851E-1	9.848949E-1	9.703155E-1	9.881520E-1	1.003177E+0	9.681254E-1	9.663079E-1	9.826923E-1	9.649697E-1	9.920635E-1	9.876022E-1	9.759975E-1	9.665241E-1	1.013797E+0	9.746112E-1	9.825220E-1	9.587262E-1	9.237144E-1	9.714941E-1	1.021928E+0	1.010074E+0	9.426945E-1	9.550613E-1	9.618783E-1	9.866408E-1	9.545357E-1	9.775289E-1	9.795540E-1	9.579362E-1	9.773213E-1	9.661183E-1	9.807842E-1	9.913737E-1	9.782423E-1	9.588686E-1	9.820144E-1	1.000339E+0	9.852364E-1	9.682224E-1	9.667747E-1	1.009072E+0	9.785105E-1	9.714093E-1	1.005649E+0	9.710376E-1	9.942829E-1	9.579641E-1	1.008576E+0	9.835071E-1	9.611591E-1	9.975885E-1	9.964575E-1	9.695076E-1	9.739614E-1	9.745464E-1	9.722012E-1	9.754552E-1	9.717812E-1	9.802544E-1	9.985241E-1	9.921180E-1	9.790446E-1	9.681877E-1	1.002673E+0	1.000406E+0	9.626332E-1	9.843585E-1	9.972545E-1	1.000279E+0	9.814881E-1	9.929085E-1	1.009624E+0	1.010944E+0	9.839967E-1	9.918115E-1	9.909192E-1	9.737929E-1	1.023478E+0	9.493682E-1	9.614805E-1	9.911948E-1	1.028497E+0	9.479745E-1	9.572352E-1	1.004641E+0	9.859246E-1	9.921426E-1	9.672189E-1	1.000721E+0	9.633601E-1	9.776176E-1	9.667515E-1	9.048053E-1	9.798063E-1	9.785131E-1	1.011199E+0	9.998322E-1	9.817995E-1	9.863232E-1	9.774225E-1	9.754324E-1	9.637836E-1	9.819615E-1	9.537333E-1	9.579180E-1	9.968925E-1	9.907722E-1	9.804002E-1	9.551763E-1	9.756061E-1	1.004267E+0	9.720876E-1	9.993810E-1	1.011418E+0	9.452305E-1	9.695589E-1	9.816901E-1	9.909663E-1	9.533059E-1	9.882391E-1	9.654442E-1	1.018170E+0	9.824938E-1	1.016785E+0	1.016944E+0	9.686848E-1	9.392259E-1	9.828139E-1	1.008370E+0	9.637668E-1	9.696928E-1	1.009877E+0	9.550268E-1	9.970154E-1	9.728662E-1	9.527421E-1	9.686875E-1	9.596727E-1	9.460865E-1	9.982491E-1	9.748976E-1	9.751749E-1	9.073347E-1	9.921518E-1	9.843706E-1	1.007675E+0	9.465116E-1	9.182343E-1	9.486652E-1	8.769418E-1
5.575300E+2	9.515965E-1	9.593737E-1	9.953590E-1	1.020990E+0	9.479419E-1	9.380551E-1	9.373305E-1	9.070126E-1	9.101650E-1	9.342870E-1	9.587249E-1	9.285237E-1	9.646680E-1	9.589566E-1	9.515569E-1	9.268705E-1	9.439398E-1	9.443593E-1	9.329682E-1	9.853630E-1	9.441369E-1	9.071580E-1	9.449018E-1	9.668114E-1	9.527514E-1	9.569483E-1	9.756524E-1	9.408728E-1	9.292401E-1	9.321499E-1	9.642351E-1	9.342189E-1	9.627175E-1	9.072135E-1	9.387946E-1	9.483162E-1	9.687974E-1	9.267057E-1	9.798287E-1	9.555676E-1	9.518160E-1	9.689717E-1	9.671386E-1	9.727371E-1	9.713412E-1	9.398030E-1	9.572575E-1	9.572489E-1	9.368773E-1	9.447854E-1	9.133693E-1	9.282128E-1	9.814967E-1	9.529789E-1	9.717333E-1	9.855115E-1	9.813491E-1	9.627658E-1	9.351581E-1	9.472172E-1	9.552939E-1	9.460476E-1	9.389344E-1	9.364881E-1	9.481708E-1	9.670622E-1	9.389453E-1	9.503689E-1	9.953714E-1	9.647675E-1	9.846634E-1	9.637982E-1	9.552918E-1	9.886900E-1	1.022789E+0	9.414765E-1	9.456828E-1	9.545090E-1	9.780049E-1	9.648027E-1	9.614247E-1	9.792508E-1	9.176413E-1	9.944093E-1	9.369089E-1	9.529337E-1	9.387209E-1	9.347606E-1	9.618913E-1	9.888817E-1	9.417074E-1	9.668047E-1	9.701884E-1	9.681670E-1	9.593835E-1	9.294126E-1	9.391896E-1	9.393985E-1	9.573970E-1	9.627195E-1	9.717562E-1	9.584394E-1	9.482097E-1	9.310901E-1	9.471688E-1	9.547757E-1	9.812334E-1	9.205671E-1	9.581229E-1	9.513106E-1	9.408215E-1	9.349494E-1	9.149823E-1	9.578085E-1	9.543063E-1	9.259307E-1	9.420918E-1	9.284337E-1	1.007094E+0	9.555707E-1	1.011778E+0	9.402864E-1	9.411310E-1	9.261305E-1	9.605290E-1	9.284831E-1	9.892063E-1	9.514227E-1	9.865739E-1	9.508331E-1	9.634196E-1	9.438135E-1	9.559172E-1	9.897000E-1	9.782793E-1	9.557910E-1	9.271657E-1	9.612394E-1	9.557881E-1	9.485358E-1	9.311705E-1	9.579347E-1	9.547453E-1	9.426116E-1	9.410225E-1	9.600386E-1	9.088762E-1	9.456151E-1	9.615258E-1	9.372994E-1	9.957693E-1	9.876951E-1	9.985147E-1	9.386628E-1	9.608759E-1	9.467807E-1	9.644618E-1	9.256563E-1	9.755450E-1	9.633887E-1	9.443518E-1	9.585980E-1	9.152924E-1	9.504477E-1	9.687795E-1	9.522043E-1	9.788633E-1	9.235067E-1	9.241287E-1	8.768508E-1	9.530428E-1	9.628606E-1
5.580000E+2	9.953922E-1	1.000573E+0	9.841776E-1	1.023811E+0	1.005585E+0	9.542150E-1	9.471022E-1	9.958437E-1	9.705568E-1	9.762558E-1	9.866089E-1	9.589542E-1	1.005207E+0	9.807922E-1	9.745408E-1	9.606671E-1	9.615948E-1	9.657012E-1	9.794016E-1	9.985366E-1	9.802192E-1	9.720817E-1	9.468830E-1	9.672812E-1	9.730577E-1	9.695951E-1	9.715711E-1	1.006764E+0	9.923715E-1	9.652128E-1	1.020207E+0	9.673564E-1	9.879624E-1	1.012615E+0	9.456965E-1	9.885333E-1	9.411438E-1	9.927657E-1	1.003457E+0	9.936484E-1	9.431930E-1	9.546793E-1	9.905467E-1	9.567978E-1	9.797991E-1	9.889576E-1	9.891922E-1	9.651077E-1	9.537610E-1	9.499665E-1	9.725156E-1	9.795622E-1	9.349873E-1	9.517773E-1	9.282418E-1	9.829264E-1	9.557185E-1	9.423615E-1	9.446505E-1	9.494959E-1	9.432077E-1	9.851575E-1	9.885261E-1	9.541604E-1	1.004487E+0	9.880972E-1	9.745999E-1	9.880798E-1	9.624490E-1	9.823563E-1	9.724907E-1	9.629754E-1	9.573464E-1	9.597948E-1	9.428378E-1	9.648895E-1	9.613159E-1	9.461758E-1	9.672726E-1	9.762942E-1	9.822373E-1	9.638310E-1	9.055818E-1	9.397894E-1	9.933147E-1	9.458822E-1	9.305624E-1	9.638839E-1	9.805823E-1	9.546584E-1	1.008233E+0	9.266049E-1	1.004266E+0	9.801870E-1	9.637588E-1	9.694637E-1	9.878487E-1	1.006217E+0	9.782341E-1	9.514167E-1	9.748007E-1	1.008599E+0	9.490730E-1	9.878410E-1	9.488031E-1	9.583811E-1	9.594376E-1	9.611061E-1	1.024660E+0	9.412494E-1	9.861951E-1	9.836332E-1	9.388251E-1	9.578988E-1	1.015701E+0	9.296285E-1	9.560104E-1	9.800351E-1	1.001769E+0	9.600314E-1	9.779308E-1	9.689675E-1	9.904954E-1	9.624236E-1	9.546785E-1	1.000832E+0	9.906267E-1	9.739626E-1	9.400165E-1	1.012868E+0	9.764912E-1	9.936770E-1	9.856198E-1	9.779004E-1	1.013403E+0	9.853569E-1	9.294669E-1	9.795314E-1	1.005049E+0	1.002928E+0	9.677327E-1	9.591470E-1	9.942890E-1	9.656211E-1	9.730823E-1	9.648664E-1	9.560067E-1	9.736816E-1	9.792303E-1	9.709519E-1	1.002119E+0	9.939172E-1	9.656568E-1	9.182919E-1	9.595578E-1	9.682325E-1	1.017125E+0	9.600228E-1	9.743494E-1	9.806272E-1	9.867642E-1	9.795104E-1	9.943237E-1	9.656649E-1	9.634384E-1	9.580934E-1	1.004166E+0	1.013680E+0	9.864027E-1	9.552852E-1	1.038489E+0	8.818262E-1
5.585100E+2	1.006089E+0	9.768081E-1	9.689983E-1	9.753352E-1	1.029416E+0	9.798786E-1	9.632799E-1	9.956764E-1	9.809740E-1	1.007000E+0	9.915846E-1	1.014154E+0	9.755609E-1	1.009050E+0	1.031493E+0	1.005161E+0	9.918423E-1	1.031448E+0	9.963936E-1	9.828448E-1	1.003265E+0	1.045628E+0	1.016810E+0	1.013128E+0	1.020379E+0	9.624088E-1	1.016737E+0	9.929376E-1	1.032836E+0	1.023764E+0	1.021829E+0	1.007684E+0	1.028514E+0	1.003376E+0	9.945704E-1	1.050526E+0	1.047277E+0	1.053391E+0	9.899085E-1	1.005791E+0	1.025215E+0	1.003998E+0	1.002129E+0	1.025527E+0	9.938450E-1	1.005235E+0	1.011357E+0	9.998779E-1	9.839936E-1	1.049278E+0	9.997468E-1	1.017305E+0	1.082735E+0	1.037615E+0	1.006591E+0	1.025818E+0	1.031594E+0	1.021356E+0	1.004716E+0	1.016778E+0	1.064310E+0	1.054890E+0	1.012285E+0	9.943903E-1	9.949340E-1	9.983664E-1	9.887457E-1	1.016930E+0	1.021362E+0	1.012535E+0	9.891159E-1	1.033297E+0	1.044004E+0	9.961844E-1	9.776819E-1	9.977443E-1	9.913313E-1	1.041306E+0	1.017270E+0	1.022546E+0	1.020829E+0	1.029835E+0	1.054257E+0	1.047628E+0	1.054870E+0	1.014032E+0	1.021021E+0	1.000246E+0	1.026982E+0	1.017381E+0	1.004754E+0	1.034769E+0	1.000964E+0	9.863941E-1	9.959169E-1	1.001136E+0	1.053414E+0	9.904895E-1	1.031887E+0	1.047021E+0	1.014762E+0	1.016341E+0	9.901084E-1	1.047379E+0	9.943489E-1	1.053791E+0	9.971884E-1	9.918605E-1	9.575906E-1	1.030311E+0	1.000764E+0	1.016715E+0	9.849037E-1	1.027743E+0	1.040636E+0	1.071298E+0	1.040641E+0	9.920692E-1	1.008445E+0	1.006927E+0	1.038993E+0	1.007142E+0	9.673050E-1	1.044899E+0	1.027309E+0	1.039267E+0	9.768313E-1	1.021014E+0	1.015716E+0	1.009833E+0	9.850687E-1	1.065115E+0	1.038886E+0	1.011587E+0	1.022543E+0	1.005308E+0	1.012920E+0	1.034878E+0	1.066726E+0	1.011080E+0	1.025135E+0	1.001585E+0	1.037757E+0	1.023543E+0	1.026609E+0	1.000622E+0	9.934174E-1	1.003571E+0	1.005326E+0	1.015933E+0	1.021555E+0	1.004549E+0	1.012458E+0	1.036248E+0	1.039404E+0	9.783412E-1	9.813842E-1	1.028381E+0	1.041990E+0	1.003997E+0	9.884430E-1	1.017531E+0	1.020254E+0	9.886487E-1	1.018932E+0	1.038446E+0	9.758591E-1	1.031669E+0	1.029080E+0	1.039038E+0	1.040875E+0	1.055757E+0
5.590100E+2	1.042815E+0	1.046231E+0	1.061461E+0	1.088824E+0	1.045011E+0	1.074790E+0	1.056447E+0	1.056997E+0	1.085540E+0	1.045381E+0	1.046233E+0	1.025238E+0	1.050242E+0	1.065372E+0	9.995511E-1	1.062463E+0	1.059420E+0	1.047746E+0	1.045939E+0	9.992815E-1	1.043412E+0	1.103657E+0	1.021384E+0	1.095456E+0	1.066804E+0	1.059527E+0	1.043051E+0	1.076037E+0	1.066489E+0	1.048035E+0	1.023906E+0	1.076700E+0	1.046653E+0	1.038628E+0	1.103478E+0	1.037471E+0	1.040407E+0	1.057872E+0	1.041667E+0	1.039107E+0	1.034606E+0	1.048678E+0	1.016158E+0	1.024917E+0	1.073389E+0	9.906595E-1	1.051676E+0	1.096340E+0	1.050939E+0	1.021166E+0	1.087881E+0	1.008670E+0	1.053192E+0	1.056802E+0	1.029822E+0	1.021353E+0	1.057099E+0	1.041096E+0	1.029273E+0	1.095999E+0	1.048656E+0	1.045136E+0	1.060171E+0	1.050975E+0	1.034019E+0	1.076338E+0	1.031531E+0	1.061401E+0	1.008134E+0	1.008348E+0	1.007965E+0	1.062147E+0	1.014558E+0	1.059519E+0	1.073862E+0	1.069754E+0	1.056674E+0	1.021505E+0	1.045701E+0	1.049205E+0	1.046602E+0	1.024717E+0	1.009349E+0	1.004851E+0	1.045194E+0	1.024246E+0	9.900997E-1	1.068281E+0	1.033297E+0	1.027038E+0	1.029230E+0	1.042596E+0	1.034627E+0	1.082770E+0	1.076439E+0	1.059919E+0	1.009806E+0	1.072178E+0	1.043833E+0	1.022800E+0	1.062306E+0	1.040488E+0	1.071491E+0	9.652808E-1	1.064592E+0	1.069320E+0	1.030429E+0	1.033248E+0	1.037467E+0	1.056515E+0	1.076092E+0	1.042340E+0	1.050740E+0	1.045201E+0	1.041032E+0	1.049577E+0	1.035480E+0	1.042670E+0	1.010831E+0	1.088200E+0	1.046960E+0	1.041123E+0	1.071313E+0	1.041289E+0	1.076205E+0	1.077619E+0	1.029693E+0	1.068493E+0	1.082950E+0	1.062498E+0	1.082065E+0	1.013408E+0	9.988173E-1	1.025478E+0	1.010105E+0	1.058358E+0	1.034786E+0	1.043047E+0	1.061947E+0	1.045019E+0	1.045978E+0	1.056368E+0	1.048350E+0	1.051163E+0	1.040677E+0	1.055544E+0	1.079620E+0	9.908273E-1	1.022788E+0	1.031020E+0	1.044668E+0	1.032961E+0	1.060351E+0	1.077091E+0	1.044402E+0	1.070760E+0	1.082717E+0	1.048224E+0	1.065928E+0	1.060981E+0	1.053404E+0	1.026545E+0	1.036038E+0	1.094632E+0	1.056556E+0	1.056412E+0	1.030308E+0	1.060594E+0	1.015651E+0	1.075633E+0	1.011985E+0	1.171685E+0
5.595110E+2	1.021963E+0	1.057693E+0	1.047826E+0	9.287221E-1	9.962377E-1	1.055553E+0	1.023627E+0	1.013089E+0	1.007937E+0	1.027739E+0	1.024358E+0	1.109280E+0	9.756129E-1	9.952466E-1	1.086907E+0	1.017931E+0	1.064774E+0	1.045940E+0	1.007471E+0	1.079697E+0	1.040959E+0	1.042961E+0	1.022951E+0	1.028921E+0	9.730914E-1	1.027606E+0	1.024788E+0	1.040952E+0	1.017050E+0	1.053399E+0	1.053423E+0	1.042055E+0	1.009490E+0	1.046775E+0	1.015011E+0	1.018485E+0	1.045394E+0	1.035411E+0	1.057909E+0	1.067926E+0	1.045857E+0	1.060348E+0	9.816433E-1	1.019239E+0	1.058115E+0	1.034311E+0	1.056492E+0	1.055583E+0	1.035163E+0	1.060237E+0	1.051155E+0	1.090858E+0	1.026320E+0	1.024106E+0	1.025072E+0	1.030968E+0	1.038847E+0	1.039956E+0	1.034727E+0	1.032041E+0	1.041124E+0	1.008596E+0	1.030398E+0	1.096604E+0	1.041487E+0	1.038975E+0	1.054573E+0	9.830323E-1	1.032595E+0	1.047383E+0	1.043535E+0	1.011449E+0	1.079128E+0	1.065637E+0	1.025593E+0	1.003020E+0	1.039254E+0	1.021542E+0	1.000565E+0	1.029602E+0	1.052353E+0	1.018663E+0	1.065767E+0	1.054982E+0	1.048849E+0	1.061499E+0	1.071085E+0	1.041426E+0	1.064367E+0	9.810699E-1	9.438493E-1	1.063491E+0	1.041879E+0	1.043823E+0	1.016586E+0	1.032360E+0	1.030590E+0	1.001126E+0	1.086644E+0	1.009198E+0	1.027698E+0	1.015714E+0	1.045554E+0	1.035342E+0	1.034661E+0	1.016447E+0	9.917642E-1	1.036264E+0	1.002005E+0	1.022710E+0	1.016923E+0	1.059191E+0	1.053580E+0	1.056498E+0	1.016273E+0	9.689801E-1	1.035384E+0	1.026868E+0	1.004422E+0	1.000756E+0	1.029928E+0	1.033179E+0	1.039547E+0	1.037092E+0	1.045046E+0	1.021542E+0	1.026960E+0	9.949694E-1	9.766487E-1	1.045065E+0	1.040397E+0	1.018039E+0	1.035455E+0	1.016609E+0	1.040634E+0	1.018370E+0	1.023758E+0	1.028361E+0	1.019670E+0	1.038209E+0	1.030870E+0	1.047004E+0	1.037164E+0	1.011374E+0	1.000329E+0	1.007801E+0	1.000490E+0	1.067495E+0	1.039449E+0	1.049177E+0	1.017597E+0	1.057438E+0	1.012589E+0	1.043498E+0	1.046850E+0	1.050437E+0	1.034089E+0	1.002546E+0	1.027917E+0	1.048087E+0	1.041438E+0	1.002995E+0	1.038812E+0	1.018904E+0	1.084053E+0	1.033458E+0	1.020889E+0	9.840068E-1	1.027103E+0	1.031209E+0	1.062053E+0	1.136776E+0
5.600010E+2	1.038666E+0	1.014219E+0	1.026413E+0	1.130060E+0	1.021211E+0	1.034551E+0	1.056502E+0	1.046294E+0	1.025129E+0	1.069271E+0	9.845794E-1	1.013698E+0	1.020370E+0	9.975460E-1	9.989839E-1	1.038808E+0	1.034392E+0	1.035470E+0	9.898286E-1	9.784998E-1	9.951855E-1	1.005169E+0	1.061949E+0	1.036228E+0	1.047697E+0	1.041314E+0	1.020222E+0	1.051759E+0	1.034213E+0	1.022342E+0	1.018815E+0	1.004794E+0	1.042634E+0	1.026122E+0	9.811152E-1	1.005989E+0	1.030897E+0	1.022413E+0	1.027088E+0	1.002675E+0	1.035562E+0	9.967032E-1	1.035858E+0	1.027890E+0	1.020538E+0	1.011817E+0	1.039576E+0	1.031329E+0	1.076006E+0	1.016527E+0	1.038994E+0	1.005508E+0	1.044227E+0	1.016024E+0	1.016025E+0	9.996389E-1	1.035703E+0	1.031960E+0	1.041293E+0	1.044054E+0	1.022052E+0	1.064843E+0	1.029796E+0	1.026368E+0	9.935159E-1	9.859376E-1	1.036826E+0	1.025104E+0	9.668805E-1	1.044669E+0	1.026000E+0	1.016608E+0	1.027656E+0	1.029641E+0	1.003498E+0	1.074237E+0	1.050161E+0	1.037727E+0	1.034792E+0	1.013337E+0	1.035615E+0	9.611063E-1	9.916132E-1	1.007884E+0	1.024985E+0	1.015801E+0	1.007905E+0	1.049267E+0	1.018046E+0	1.021645E+0	1.041969E+0	1.007439E+0	1.003973E+0	1.011696E+0	9.880687E-1	1.002497E+0	1.062854E+0	1.035506E+0	9.834987E-1	9.797534E-1	1.055029E+0	1.012929E+0	1.045338E+0	1.033336E+0	1.040313E+0	1.065783E+0	1.042215E+0	9.878964E-1	1.001909E+0	1.065923E+0	9.828303E-1	1.024649E+0	1.045731E+0	1.001989E+0	1.035501E+0	1.079357E+0	1.045236E+0	1.003974E+0	1.016771E+0	1.015109E+0	1.017661E+0	1.063288E+0	1.026233E+0	1.063156E+0	1.013729E+0	1.002935E+0	1.027050E+0	1.040906E+0	1.045304E+0	9.726132E-1	1.036993E+0	1.005020E+0	1.044549E+0	9.978969E-1	9.799412E-1	1.014732E+0	1.075014E+0	1.014093E+0	1.002974E+0	1.015521E+0	1.032836E+0	1.013022E+0	9.999350E-1	1.020176E+0	1.057400E+0	1.017478E+0	1.057164E+0	1.040660E+0	1.037944E+0	1.011132E+0	1.011148E+0	9.991173E-1	1.036359E+0	1.026061E+0	1.098704E+0	1.056895E+0	1.038205E+0	1.061789E+0	1.019622E+0	1.056089E+0	1.054657E+0	1.048435E+0	1.017557E+0	1.030348E+0	9.975749E-1	9.769412E-1	1.021179E+0	1.043262E+0	9.730997E-1	1.020454E+0	1.042419E+0	9.925626E-1
5.605090E+2	9.567653E-1	1.007549E+0	9.724475E-1	9.154948E-1	9.960036E-1	9.747507E-1	9.960979E-1	1.014498E+0	9.776490E-1	1.008620E+0	9.962353E-1	1.017504E+0	9.843311E-1	1.012285E+0	9.909992E-1	1.010729E+0	9.819893E-1	1.003383E+0	1.024530E+0	9.886020E-1	9.937487E-1	9.938147E-1	1.010938E+0	9.624269E-1	9.888168E-1	9.776494E-1	9.644299E-1	9.655300E-1	9.883561E-1	9.861083E-1	9.606055E-1	9.816480E-1	9.522708E-1	9.763148E-1	1.039729E+0	1.011113E+0	9.730766E-1	9.953664E-1	9.554138E-1	9.815128E-1	9.661392E-1	9.693817E-1	1.022830E+0	9.972513E-1	9.937702E-1	1.030149E+0	9.518293E-1	1.023423E+0	1.003488E+0	1.000739E+0	9.882822E-1	9.577634E-1	9.491963E-1	9.818770E-1	9.866887E-1	1.020687E+0	9.837454E-1	9.818682E-1	1.005682E+0	9.733319E-1	9.850613E-1	9.705836E-1	9.697087E-1	9.866885E-1	9.909598E-1	9.871878E-1	1.007732E+0	1.008469E+0	1.008581E+0	9.733455E-1	9.671975E-1	9.887619E-1	1.012448E+0	9.411066E-1	9.596601E-1	1.002523E+0	1.004097E+0	9.941071E-1	9.805364E-1	1.010653E+0	9.828193E-1	9.731529E-1	1.025022E+0	9.810114E-1	9.600712E-1	1.006254E+0	1.011156E+0	9.730857E-1	1.002384E+0	9.722285E-1	9.921363E-1	1.028429E+0	9.732239E-1	9.392737E-1	9.753556E-1	9.914214E-1	9.958346E-1	1.016466E+0	9.902157E-1	9.889714E-1	9.739935E-1	9.736314E-1	9.623481E-1	1.000979E+0	1.001996E+0	9.682468E-1	1.005798E+0	1.071560E+0	1.009319E+0	9.962946E-1	9.923435E-1	1.009870E+0	1.030553E+0	9.636155E-1	9.876427E-1	1.048535E+0	1.013437E+0	9.776474E-1	9.685331E-1	9.872786E-1	9.876083E-1	9.759555E-1	9.937376E-1	9.992248E-1	1.001132E+0	9.935063E-1	1.000105E+0	1.004750E+0	1.008211E+0	9.793127E-1	9.414582E-1	9.936765E-1	9.497826E-1	9.971772E-1	9.653506E-1	9.591830E-1	9.459013E-1	9.770753E-1	9.692768E-1	9.697012E-1	9.525007E-1	9.635081E-1	1.009417E+0	9.699998E-1	9.646803E-1	9.478045E-1	9.848792E-1	1.026486E+0	9.812951E-1	9.869539E-1	9.536514E-1	9.873305E-1	9.944895E-1	9.880527E-1	9.697767E-1	9.644832E-1	9.671017E-1	9.768969E-1	9.833193E-1	9.990136E-1	9.720300E-1	9.357883E-1	9.824587E-1	1.018149E+0	9.974075E-1	9.786422E-1	1.013904E+0	9.814689E-1	1.002802E+0	1.025440E+0	8.861448E-1	8.839420E-1
5.610410E+2	1.056125E+0	9.983778E-1	9.991714E-1	9.168651E-1	1.020724E+0	9.824419E-1	1.053054E+0	1.018144E+0	1.070359E+0	1.005150E+0	1.005821E+0	1.041572E+0	1.020093E+0	9.953358E-1	1.006364E+0	1.025416E+0	1.009585E+0	1.001643E+0	1.011864E+0	1.019312E+0	1.018614E+0	9.947850E-1	1.011523E+0	9.881787E-1	1.015351E+0	1.077616E+0	1.024126E+0	1.000564E+0	9.652746E-1	1.013370E+0	1.032158E+0	1.010775E+0	1.001854E+0	1.039352E+0	1.033258E+0	1.048075E+0	1.010532E+0	9.785207E-1	1.008805E+0	9.805152E-1	1.045135E+0	1.011430E+0	1.007472E+0	1.051291E+0	1.016882E+0	1.008969E+0	9.673244E-1	9.489415E-1	1.007276E+0	1.009947E+0	1.006164E+0	1.022437E+0	1.004246E+0	1.036214E+0	1.001764E+0	9.764847E-1	1.008548E+0	9.898215E-1	1.026989E+0	1.023410E+0	9.977940E-1	1.007550E+0	9.718080E-1	1.012464E+0	1.054484E+0	9.880398E-1	9.652506E-1	9.869186E-1	1.039590E+0	9.994861E-1	1.001890E+0	1.027099E+0	1.010951E+0	1.023350E+0	9.994615E-1	1.018871E+0	1.019942E+0	1.020899E+0	1.008406E+0	1.003586E+0	9.805087E-1	1.013271E+0	1.068508E+0	1.027597E+0	1.004048E+0	9.963164E-1	9.991674E-1	1.038539E+0	1.065754E+0	1.031462E+0	1.026916E+0	9.939206E-1	1.015440E+0	1.020425E+0	1.040531E+0	1.033623E+0	1.001604E+0	1.021053E+0	1.007397E+0	9.630832E-1	1.047286E+0	1.025417E+0	1.003949E+0	9.878098E-1	1.029780E+0	9.995681E-1	1.012218E+0	1.022066E+0	9.992027E-1	1.012184E+0	9.747301E-1	1.026708E+0	9.833097E-1	1.020940E+0	1.033091E+0	1.003026E+0	1.009289E+0	1.031141E+0	9.945111E-1	1.009519E+0	9.915816E-1	1.004358E+0	1.008305E+0	1.009965E+0	1.009273E+0	1.013404E+0	1.005436E+0	1.014068E+0	9.902990E-1	1.011074E+0	1.022744E+0	1.028171E+0	1.009134E+0	1.044324E+0	1.044548E+0	1.055056E+0	1.074069E+0	1.026374E+0	9.914931E-1	1.024403E+0	1.057919E+0	1.050631E+0	1.006170E+0	1.052167E+0	1.027410E+0	1.024977E+0	1.028352E+0	9.934413E-1	1.035983E+0	9.967394E-1	9.814260E-1	1.013331E+0	9.928303E-1	9.763638E-1	1.034278E+0	9.895726E-1	1.025892E+0	1.029761E+0	1.001673E+0	1.034941E+0	1.034931E+0	9.762365E-1	1.043008E+0	1.027519E+0	1.021584E+0	1.039366E+0	1.016318E+0	9.946954E-1	1.067693E+0	1.057359E+0	1.047095E+0	1.142745E+0
