Photon Energy (eV)	#1	#2	#3	#4	#5	#6	#7	#8	#9	#10	#11	#12	#13	#14	#15	#16	#17	#18	#19	#20	#21	#22	#23	#24	#25	#26	#27	#28	#29	#30	#31	#32	#33	#34	#35	#36	#37	#38	#39	#40	#41	#42	#43	#44	#45	#46	#47	#48	#49	#50	#51	#52	#53	#54	#55	#56	#57	#58	#59	#60	#61	#62	#63	#64	#65	#66	#67	#68	#69	#70	#71	#72	#73	#74	#75	#76	#77	#78	#79	#80	#81	#82	#83	#84	#85	#86	#87	#88	#89	#90	#91	#92	#93	#94	#95	#96	#97	#98	#99	#100	#101	#102	#103	#104	#105	#106	#107	#108	#109	#110	#111	#112	#113	#114	#115	#116	#117	#118	#119	#120	#121	#122	#123	#124	#125	#126	#127	#128	#129	#130	#131	#132	#133	#134	#135	#136	#137	#138	#139	#140	#141	#142	#143	#144	#145	#146	#147	#148	#149	#150	#151	#152	#153	#154	#155	#156	#157	#158	#159	#160	#161	#162	#163	#164	#165	#166	#167	#168	#169	#170	#171	#172	
5.300370E+2	-6.181013E-3	-3.701230E-3	-8.059645E-3	-1.897533E-3	-4.833601E-3	-6.553074E-3	-2.675237E-3	-8.365903E-3	-5.366406E-3	-1.209310E-2	-8.816870E-3	-7.953268E-3	-1.586259E-3	-7.511690E-3	-3.035255E-3	1.581842E-3	-1.437191E-2	-3.956395E-3	-4.176688E-3	-3.203256E-4	-5.041148E-3	9.441225E-4	-8.496537E-3	-3.068343E-3	-4.424617E-3	-6.737500E-3	-5.725261E-3	-3.763197E-3	-1.545178E-3	-1.200264E-2	-4.760893E-3	6.695663E-3	-1.075939E-2	-8.598203E-3	-9.588649E-3	-8.938978E-3	-9.905335E-3	-7.653349E-3	1.663065E-3	-6.962779E-3	-6.296189E-4	-1.004171E-2	-9.336798E-3	-5.656207E-3	-1.038864E-3	-6.017145E-3	-6.131838E-3	-3.526283E-3	1.298684E-3	-3.493406E-3	3.717974E-3	1.747393E-3	-5.721350E-3	-6.549366E-3	-1.151978E-2	-5.960813E-3	-1.220867E-2	-2.399380E-3	-8.281192E-3	-4.553359E-3	-3.662264E-3	-5.887242E-3	-7.360310E-3	-3.998096E-3	-1.231872E-2	-2.361665E-3	-5.788827E-3	-1.808049E-3	-5.465594E-3	-5.815304E-3	1.057968E-3	-1.006625E-2	-8.628781E-3	-5.618557E-3	1.416675E-3	-5.576014E-3	-1.142993E-2	-4.182605E-3	-5.668642E-3	-9.677786E-3	-1.405484E-2	-1.040224E-2	-8.800004E-3	-6.197636E-3	-5.678339E-3	-1.330228E-2	2.969130E-3	-7.876651E-3	-1.301196E-2	-6.426534E-3	3.000506E-4	-9.828746E-3	-1.485278E-3	-1.042681E-2	-7.675177E-3	-1.761848E-8	-1.758412E-2	1.780991E-3	-9.417006E-3	-8.231824E-3	-5.608227E-3	-3.316465E-3	-2.732704E-3	-1.066958E-2	-8.578711E-3	-6.776931E-3	-3.109462E-3	-7.513253E-3	-7.963201E-3	-4.341933E-3	-1.273286E-2	-5.524857E-3	-9.938548E-3	-5.962531E-3	-2.155639E-3	-4.173081E-3	-8.099417E-3	-3.885371E-3	-1.780090E-2	-2.521071E-3	-9.244168E-3	2.864417E-3	-1.711020E-3	-3.726382E-3	-4.926100E-3	-2.739859E-3	2.941363E-3	-7.793067E-3	-3.946279E-3	-1.011081E-2	-4.649237E-3	-9.050721E-3	-3.051932E-3	-3.767317E-3	-1.070739E-8	2.204184E-3	-3.615070E-3	-5.128984E-3	4.989712E-3	-1.263460E-2	-4.136156E-3	-7.903805E-3	-5.988310E-3	-2.291795E-3	-2.179457E-4	-1.221282E-2	-6.304317E-3	6.909466E-4	-1.974176E-3	4.659937E-3	-6.666509E-3	-6.044845E-3	-6.868245E-3	-6.589662E-3	-1.117594E-2	2.916819E-3	-6.883834E-3	-4.405296E-3	-6.897184E-3	-2.635994E-3	7.332727E-4	-7.914601E-3	-4.128318E-3	-9.996385E-3	1.882096E-3	-9.689324E-3	-6.969312E-3	-7.150841E-3	-8.372063E-3	-9.337318E-3	-6.417169E-4	-5.796022E-3
5.305180E+2	3.247634E-3	-6.785588E-3	-4.999040E-3	-9.487673E-3	-3.815995E-3	8.190998E-4	-1.444622E-2	-4.737327E-3	-5.366417E-3	-6.554276E-3	-1.189255E-2	-9.941546E-3	-1.153644E-2	-2.035869E-3	-1.597499E-3	-3.413460E-3	-8.031340E-3	-9.167213E-3	-2.297191E-3	-8.007002E-3	-8.629702E-3	-5.664533E-3	5.320280E-3	-8.260914E-3	-2.010933E-4	-9.709945E-3	-6.909776E-3	1.118809E-3	-9.973445E-3	-6.634996E-3	-5.729174E-3	-8.608714E-3	1.564991E-3	6.762538E-4	-7.752514E-3	-1.830869E-3	-4.633114E-3	-4.898161E-3	-2.375545E-4	-6.482591E-3	-8.184969E-3	5.020835E-3	-2.489804E-3	-7.652544E-3	-7.717338E-3	2.228547E-4	-2.309411E-3	-6.238749E-3	-8.291643E-3	-5.290053E-3	-8.023020E-3	1.130651E-3	-1.622500E-3	-3.945270E-4	-4.047497E-3	9.170716E-4	-2.679959E-3	-2.399376E-3	-8.852325E-3	-3.946206E-3	-6.408903E-3	-8.015166E-3	9.200673E-4	-8.359616E-3	-3.004211E-4	-1.086369E-2	-1.137091E-2	-2.486086E-3	-3.928378E-3	-4.419629E-3	8.139449E-5	4.314152E-3	-6.040143E-3	-3.904365E-3	-3.440473E-3	-1.157315E-3	-4.835764E-3	-3.302037E-3	-9.920142E-3	-3.772669E-3	1.979544E-3	-7.372450E-3	-4.399977E-3	-2.416013E-3	2.581089E-3	-8.784551E-3	-2.629778E-3	-4.633335E-3	-1.301193E-2	2.008155E-4	-1.500128E-3	2.091382E-4	-4.299514E-3	-2.325402E-3	-5.694492E-3	-7.581700E-3	-7.674823E-3	3.562011E-3	7.468629E-3	3.292862E-4	-3.505133E-3	-1.156709E-2	-8.198007E-3	-1.596215E-3	-1.160646E-2	4.753967E-3	-5.597026E-3	-2.658523E-3	1.592616E-3	-2.481108E-3	-7.928008E-3	-2.893984E-3	-5.450136E-3	3.143854E-3	-1.139384E-2	2.415973E-3	-8.099414E-3	-9.713452E-3	4.810961E-4	-5.448785E-3	-5.902904E-3	-2.469297E-3	-4.126634E-3	-7.014311E-3	-2.345817E-4	-6.497327E-3	-6.134874E-3	-1.028021E-2	-3.306370E-3	-1.809285E-3	-7.244184E-3	-1.031364E-2	3.226319E-3	1.369914E-3	-1.053197E-3	-7.242232E-3	-1.063243E-3	-1.128374E-2	-4.175050E-3	-5.866063E-3	-9.488842E-3	-4.255923E-3	-1.151601E-2	-3.310403E-3	-2.179912E-3	-4.760946E-3	-4.347868E-4	-6.909544E-3	6.640353E-3	-2.588875E-3	-8.147954E-3	-1.001948E-2	-4.905916E-3	-1.647420E-3	-7.982820E-3	-6.805909E-3	7.733035E-5	-4.405288E-3	-3.831770E-3	-4.217544E-3	-9.165891E-4	-9.839780E-3	-1.064667E-2	-8.601562E-3	-8.845887E-3	-1.903277E-3	-2.435046E-3	4.862577E-3	-7.441839E-3	-1.307221E-2	2.053664E-2	-1.076402E-2
5.310100E+2	-4.923835E-3	-6.168653E-3	-3.162672E-3	9.487665E-3	-6.360000E-3	-9.010505E-3	-1.605136E-3	-8.365932E-3	-5.962819E-4	-1.015459E-3	-3.280709E-3	7.953246E-3	-1.153662E-3	-4.141943E-3	-5.431577E-3	-3.912983E-3	-2.958925E-3	-7.430262E-3	-3.550221E-3	1.601444E-3	-1.452544E-3	3.304269E-3	-5.637876E-3	-1.652207E-3	-6.234709E-3	-1.981765E-4	3.158768E-3	-2.542789E-3	-4.495065E-3	6.336809E-3	8.311338E-3	-1.099999E-2	-8.411875E-3	-4.540617E-3	7.548499E-3	-1.184699E-3	-4.633108E-3	-3.061322E-3	-4.513976E-3	-4.081655E-3	2.518455E-3	-1.004170E-2	4.979619E-3	-4.325337E-3	-5.936430E-3	-2.451439E-3	-8.759756E-4	-8.137671E-4	3.096886E-3	-4.990626E-4	-1.154538E-2	-8.736915E-3	5.550616E-3	-5.129027E-3	-7.783606E-4	-6.419342E-3	6.253182E-3	1.631573E-3	1.427795E-3	-4.553378E-3	-9.155602E-3	6.880276E-3	-4.600512E-4	-5.088456E-3	9.314117E-3	2.739537E-3	-4.548353E-3	-5.876173E-3	2.220382E-3	-6.978149E-4	-1.212579E-2	-4.314120E-3	-2.157472E-4	-3.904397E-3	-9.511892E-3	-3.682237E-3	-5.275368E-3	-5.063182E-3	4.251467E-3	2.624473E-3	3.761169E-3	-2.524824E-3	-8.171453E-3	3.256385E-3	-6.194586E-3	7.529606E-4	-8.737780E-3	-7.876685E-3	1.194541E-2	-2.811584E-3	-8.700874E-3	3.345965E-3	-1.016231E-3	-6.376114E-3	-3.713800E-3	-2.166226E-3	1.156083E-2	-2.897080E-8	-4.870829E-3	-6.914702E-3	-2.979361E-3	1.172888E-2	-1.738983E-3	-8.399171E-5	4.137957E-3	-3.742525E-3	1.865677E-3	-1.271466E-3	-5.096404E-3	-1.178528E-2	-3.123134E-3	-3.420156E-3	2.885394E-3	-1.083789E-4	1.539713E-3	1.098139E-3	-3.293170E-3	-4.856728E-3	-3.367730E-3	-2.033128E-3	-8.575884E-3	-8.988286E-3	-4.730602E-3	-2.411175E-3	-1.243256E-2	5.479637E-4	-8.656052E-3	-6.798219E-3	-9.705722E-3	-1.074935E-2	-8.541639E-3	9.261226E-3	-7.237445E-3	-1.712413E-3	-2.632946E-3	-1.007615E-2	-4.890986E-3	-6.359904E-3	-3.564063E-3	-3.158651E-3	1.216498E-3	-3.343923E-3	-2.671704E-3	4.838276E-3	1.089928E-3	-8.486850E-3	3.478259E-3	-8.291458E-3	-5.204572E-3	-8.284259E-3	-3.703635E-3	-3.560657E-3	5.559996E-3	-5.354070E-3	3.512416E-3	2.916807E-3	-1.314899E-3	-7.187558E-3	-7.663314E-4	-9.489594E-3	-8.615945E-3	8.128488E-3	8.908451E-3	-9.298848E-4	-6.022728E-3	-3.979579E-3	-2.435083E-3	-3.146382E-3	1.116279E-2	3.112411E-3	-1.604433E-2	1.407603E-2
5.315080E+2	-1.058104E-2	4.934953E-3	-8.059675E-3	9.487665E-3	9.412772E-3	8.191388E-4	9.247369E-9	-3.527837E-3	-2.385111E-3	6.185020E-3	1.025221E-3	5.964951E-3	-7.210223E-4	1.333836E-3	-3.514531E-3	-4.911998E-3	6.551917E-3	2.412425E-3	-1.044162E-3	-9.608478E-4	-4.272294E-4	-6.136545E-3	2.461608E-3	-6.372687E-3	2.212284E-3	5.152230E-3	3.751010E-3	1.118805E-3	8.568725E-3	6.784100E-3	-3.308424E-3	6.217377E-3	4.499382E-3	2.994893E-3	2.040150E-3	-3.123275E-3	-4.153818E-3	2.908279E-3	-7.840028E-3	-3.121238E-3	-4.407282E-3	1.385079E-3	-1.867379E-3	-7.652487E-3	1.187295E-3	1.114289E-3	6.768910E-3	1.898802E-3	-3.496461E-3	-4.092310E-3	4.892069E-3	3.597550E-3	-3.159565E-3	-2.761747E-3	3.424777E-3	1.375572E-3	-4.466598E-3	-6.718459E-4	8.566932E-4	7.588929E-3	3.204459E-3	-3.546731E-4	-2.760118E-3	9.631750E-3	1.502311E-3	6.707170E-3	-2.067336E-4	1.243042E-2	-2.903602E-3	-6.978461E-4	-1.871743E-3	-2.876066E-3	-6.040214E-3	4.666233E-3	-4.047618E-3	-5.260657E-4	-1.186956E-2	4.622877E-3	-1.889550E-3	3.608661E-3	1.979551E-3	6.564521E-3	-6.285851E-4	-7.458173E-3	-5.162235E-4	6.274693E-3	-7.719766E-3	-1.390014E-3	1.706490E-3	-7.631490E-3	3.300303E-3	-4.182439E-4	-8.989948E-3	8.251435E-4	1.237913E-3	-2.707750E-3	-9.716987E-5	-1.068595E-2	-1.136535E-2	-1.646387E-3	4.907181E-3	-3.801780E-3	-4.720066E-3	-8.402861E-5	-7.064890E-4	-6.170086E-3	3.731325E-3	2.196182E-3	-7.485380E-3	8.683879E-3	-4.564634E-3	-6.051059E-3	3.526539E-3	-4.661638E-3	2.771508E-3	-6.808703E-3	9.790344E-4	-1.942720E-3	2.886630E-3	-3.009040E-3	-4.566369E-3	-4.839897E-3	-1.107206E-3	3.507189E-3	2.111172E-3	2.896408E-3	3.445592E-3	1.011441E-2	-1.386514E-3	-5.321249E-4	1.838054E-3	1.683862E-3	-7.760673E-3	-5.308434E-3	1.053192E-3	5.510408E-3	4.678336E-3	9.642461E-3	7.127925E-4	3.609880E-3	-1.703117E-3	2.583950E-3	-1.566166E-3	-5.856932E-3	-5.449791E-3	7.658875E-3	2.173890E-3	-6.218587E-3	1.794738E-4	2.071080E-3	4.691268E-3	5.879202E-3	-1.635291E-3	8.854863E-3	-9.579022E-4	-6.157763E-3	1.469582E-3	-7.187583E-3	-1.277264E-3	4.217589E-3	4.582959E-3	1.711290E-3	-8.691554E-4	-2.324737E-3	7.528524E-4	1.730241E-4	-9.236401E-4	-3.718438E-3	-5.581412E-3	-8.092344E-3	-6.417756E-3	1.407606E-2
5.320070E+2	1.456200E-2	3.084356E-3	1.152839E-2	-5.692591E-3	-7.631876E-4	1.310633E-3	2.675226E-3	1.945329E-2	9.540333E-3	3.969512E-3	7.176561E-3	3.313848E-3	1.139222E-2	4.913901E-4	3.195017E-3	4.079492E-3	6.551874E-3	4.728330E-3	3.967862E-3	-2.241943E-3	3.161425E-3	-1.416125E-3	-1.826364E-3	8.260925E-3	-4.424635E-3	2.774250E-3	-3.356198E-3	-7.424805E-3	5.197424E-3	-4.398497E-3	5.648623E-4	4.782616E-3	5.086266E-3	3.574535E-3	8.160568E-3	1.044675E-2	1.214198E-2	-2.142945E-3	3.088502E-3	4.561826E-3	-6.296496E-4	6.579064E-3	-3.112260E-3	1.696861E-2	2.523001E-3	2.228574E-4	-2.309393E-3	6.781255E-3	-3.496465E-3	2.495302E-3	8.414430E-3	-8.120192E-3	-2.647216E-3	1.096817E-2	3.891814E-3	5.043747E-3	1.042205E-2	3.935026E-3	2.570019E-3	1.517772E-3	7.782264E-3	1.773272E-3	3.220145E-3	-2.362497E-3	-9.013978E-4	-7.462890E-3	6.615765E-3	-3.164110E-3	1.144358E-2	1.232844E-2	5.452493E-3	-1.438039E-3	-2.156524E-4	6.666271E-4	1.416641E-3	7.364666E-4	1.582609E-2	5.063154E-3	6.141044E-3	2.132376E-3	-2.177506E-3	2.322840E-3	8.800011E-3	5.147164E-3	7.226986E-3	1.254911E-3	7.041104E-3	5.559997E-3	9.385663E-3	1.405804E-3	9.000798E-4	2.091212E-3	3.205107E-3	9.826692E-3	4.208964E-3	-2.166213E-3	4.566049E-3	-3.561957E-3	4.870870E-3	8.231805E-3	7.010189E-4	-3.316445E-3	2.484398E-4	3.444503E-3	-1.312038E-3	7.181587E-3	4.353248E-3	1.051854E-2	-1.274105E-3	3.101361E-3	9.849963E-3	8.681956E-3	9.618170E-4	6.396217E-3	2.771474E-3	9.663971E-3	6.319358E-3	8.256451E-3	7.697679E-3	-1.057246E-3	9.466892E-3	-9.876264E-5	2.516279E-3	-1.095988E-3	-1.642023E-3	4.775181E-3	-1.092524E-3	-1.823906E-3	5.332985E-4	4.576452E-3	-1.405548E-3	-4.630583E-3	4.272743E-3	4.965982E-3	-5.792544E-3	2.676476E-3	-1.701221E-3	1.087341E-2	4.989667E-3	4.963580E-3	3.162955E-3	3.495907E-3	1.170025E-2	2.546461E-4	-8.719303E-4	5.795930E-3	-1.086979E-3	1.243716E-2	-4.127795E-3	-1.035595E-3	1.012322E-2	1.184123E-2	1.013887E-2	2.677024E-3	-2.235184E-3	-4.213146E-3	-8.508009E-4	2.550417E-3	6.386260E-3	4.744758E-3	-1.466565E-3	-8.556106E-4	-3.476485E-3	1.511085E-2	1.881894E-4	2.249329E-3	6.633462E-3	4.290521E-3	2.790671E-3	8.092331E-3	-6.417721E-3	9.108000E-3
5.325070E+2	3.876256E-3	8.636162E-3	1.275264E-2	-1.897533E-3	6.360012E-3	1.261471E-2	1.605136E-2	5.543711E-3	4.173882E-3	9.508302E-3	1.578834E-2	6.627694E-4	3.605162E-3	1.186428E-2	1.038384E-2	6.577108E-3	1.225839E-2	1.341311E-2	7.100400E-3	9.928674E-3	1.238920E-2	8.968811E-3	8.178889E-3	1.109323E-2	1.307277E-2	8.719142E-3	9.081457E-3	1.149318E-2	2.247540E-3	9.915228E-3	4.922291E-3	1.913046E-3	8.020621E-3	5.893138E-3	-4.080545E-4	4.631075E-3	1.118340E-2	1.484750E-2	7.839991E-3	1.608644E-2	1.133307E-2	7.098430E-3	1.182662E-2	8.317963E-3	1.098234E-2	6.908584E-3	4.857707E-3	1.898742E-3	1.088900E-2	1.087953E-2	2.543932E-3	1.038151E-2	7.600015E-3	3.866495E-3	9.029044E-3	5.043764E-3	2.679999E-3	-9.599656E-5	1.227901E-2	3.946241E-3	8.240046E-3	5.603533E-3	6.440266E-3	1.017692E-2	2.704107E-3	1.124153E-2	1.529906E-2	9.040018E-4	-1.366392E-3	-6.978433E-4	7.405675E-3	1.438032E-2	2.114054E-2	8.094459E-3	1.416667E-2	1.020516E-2	1.758454E-2	2.861794E-3	7.085824E-3	5.084944E-3	8.512084E-3	1.141215E-2	1.320001E-2	7.668273E-3	2.581074E-3	1.380427E-2	9.077090E-3	1.621669E-2	2.986327E-3	1.526299E-2	5.700569E-3	4.600675E-3	1.258586E-2	8.476492E-3	1.163659E-2	1.462191E-2	9.229235E-3	8.904933E-3	1.331368E-2	8.231821E-3	6.484521E-3	1.027290E-2	1.714132E-2	8.989312E-3	1.806574E-2	4.753989E-3	-1.243761E-3	-1.271479E-3	2.022647E-2	6.823082E-3	1.849867E-2	9.208100E-3	8.014935E-3	1.192478E-3	6.466785E-3	-2.196299E-3	1.219361E-2	1.214182E-2	1.010322E-2	1.406927E-2	1.882243E-2	1.353183E-2	9.159184E-3	1.074067E-2	1.712409E-2	1.017633E-3	9.496495E-3	1.658099E-2	1.781159E-2	1.862511E-2	2.000255E-2	1.304986E-2	1.055099E-2	4.452267E-3	8.425506E-3	6.927311E-3	6.592184E-3	2.256748E-3	-2.953058E-3	1.308585E-2	1.094866E-2	9.423794E-3	1.004194E-2	6.366208E-3	7.629650E-3	1.200581E-2	2.173934E-3	8.291480E-3	4.486717E-3	5.177711E-3	3.703605E-3	1.904551E-3	-2.289413E-3	2.059264E-3	1.883943E-2	1.134319E-2	7.502621E-3	2.063531E-2	6.386291E-3	7.380786E-3	5.682868E-3	8.770214E-3	1.021217E-2	6.741720E-3	1.204548E-2	1.314983E-2	6.129618E-3	4.862563E-3	7.441850E-3	1.929713E-2	8.984882E-3	-2.070004E-2
5.330080E+2	1.016201E-2	9.869900E-3	9.691977E-3	3.225806E-2	8.395178E-3	2.490166E-2	2.568214E-2	1.159134E-2	8.944104E-3	1.781653E-2	1.148244E-2	4.639366E-3	1.225746E-2	1.144305E-2	1.853114E-2	9.074748E-3	2.367136E-2	1.978190E-2	6.473898E-3	2.402099E-2	1.443985E-2	1.321715E-2	1.389614E-2	1.911812E-2	2.574321E-2	2.536480E-2	1.500416E-2	9.662404E-3	1.868265E-2	8.125998E-3	2.864606E-2	1.769568E-2	2.151873E-2	2.270312E-2	1.489299E-2	9.154411E-3	1.837275E-2	1.438828E-2	9.265469E-3	1.464589E-2	7.555406E-3	2.683559E-2	2.240834E-2	1.297602E-2	1.721555E-2	1.091998E-2	1.250258E-2	2.468379E-2	2.167811E-2	1.267619E-2	1.722022E-2	1.839893E-2	9.649517E-3	9.074378E-3	1.369924E-2	7.794897E-3	3.841259E-2	1.660370E-2	2.198802E-2	2.398102E-2	2.060010E-2	1.283843E-2	-9.200589E-4	1.944522E-2	1.352050E-2	1.237517E-2	4.755089E-3	1.785455E-2	1.451799E-2	1.139799E-2	1.228855E-2	1.917380E-2	2.178768E-2	2.123608E-2	2.205953E-2	7.048878E-3	1.582612E-2	9.906129E-3	7.085772E-3	1.640298E-2	2.514038E-2	1.504789E-2	1.508567E-2	1.964344E-2	1.290535E-2	2.534971E-2	-2.120830E-3	1.111999E-2	1.578497E-2	1.646796E-2	1.890187E-2	7.737536E-3	3.087841E-2	5.775983E-3	1.906408E-2	1.028952E-2	1.651561E-3	1.484159E-2	1.980811E-2	1.350019E-2	1.910298E-2	1.512621E-2	2.608459E-2	2.058303E-2	1.201014E-2	2.478137E-2	1.119397E-2	1.745389E-2	1.783749E-2	8.218698E-3	9.369491E-3	1.710079E-2	2.083877E-2	8.998001E-3	1.139387E-2	5.710511E-3	1.379573E-2	1.505586E-2	2.020642E-2	1.797293E-2	4.789155E-3	2.479189E-2	1.097088E-2	1.731658E-2	1.759324E-2	1.182045E-2	1.252184E-2	1.558614E-2	2.805060E-2	2.437228E-2	1.189340E-3	2.504738E-2	1.630614E-2	2.140507E-2	2.264349E-2	1.920764E-2	3.338614E-2	1.702820E-2	2.576303E-2	2.256176E-2	2.895313E-2	1.945557E-2	1.059470E-2	1.655204E-2	1.678520E-2	1.014284E-2	1.586954E-2	3.247491E-2	2.333120E-3	1.035539E-2	1.728334E-3	1.780325E-2	1.210117E-2	1.873931E-2	2.139390E-2	1.069506E-2	2.049685E-2	1.182469E-2	2.273520E-2	3.268632E-2	1.833183E-2	1.582918E-2	1.281951E-2	1.580826E-2	8.657707E-3	2.508851E-2	9.656243E-3	3.718428E-3	2.604653E-2	9.337328E-3	-2.567114E-3	-2.566801E-2
5.331520E+2	1.456204E-2	5.551831E-3	1.458905E-2	9.487688E-3	1.399198E-2	1.507208E-2	2.728735E-2	2.489621E-2	1.788807E-2	3.110967E-2	2.932129E-2	2.651083E-2	3.432096E-2	1.986737E-2	1.853116E-2	9.574237E-3	1.162431E-2	2.325577E-2	2.589561E-2	3.362936E-2	3.648411E-2	2.171392E-2	2.676007E-2	2.242250E-2	3.358682E-2	1.823099E-2	1.974230E-2	1.210345E-2	3.258926E-2	3.093846E-2	2.670939E-2	1.386956E-2	2.269254E-2	1.284899E-2	2.346156E-2	1.626249E-2	1.693488E-2	2.678670E-2	1.781820E-2	1.224491E-2	1.636995E-2	1.956403E-2	3.672476E-2	8.317971E-3	2.433927E-2	1.359428E-2	2.635898E-2	2.414125E-2	1.748237E-2	2.585133E-2	7.240356E-3	1.778220E-2	2.143382E-2	2.469816E-2	2.117155E-2	2.567738E-2	2.471506E-2	2.351395E-2	2.141690E-2	1.487432E-2	3.112902E-2	2.049897E-2	1.656073E-2	1.780958E-2	2.433695E-2	1.180837E-2	2.212156E-2	3.209300E-2	1.810475E-2	2.675039E-2	2.693705E-2	2.444658E-2	2.372919E-2	1.152265E-2	9.309552E-3	1.273015E-2	2.549759E-2	1.430885E-2	1.369923E-2	8.529548E-3	2.632809E-2	2.837893E-2	2.325716E-2	1.901315E-2	2.632689E-2	1.882403E-2	1.976604E-2	1.807003E-2	2.730378E-2	1.466051E-2	2.070206E-2	2.404900E-2	2.571901E-2	2.287898E-2	1.906412E-2	2.382829E-2	2.263593E-2	3.265153E-2	2.435422E-2	2.469541E-2	2.120609E-2	2.192089E-2	2.111611E-2	2.663194E-2	2.654345E-2	3.206406E-2	3.606968E-2	2.230860E-2	2.978225E-2	1.659243E-2	2.138163E-2	3.130755E-2	9.938508E-3	1.290074E-2	2.247973E-2	1.888867E-2	2.394226E-2	2.039831E-2	2.790413E-2	1.992478E-2	1.748593E-2	2.005085E-2	3.875049E-2	2.389254E-2	3.026038E-2	1.322955E-2	2.613627E-2	2.951422E-2	2.549086E-2	1.670937E-2	1.740763E-2	2.062727E-2	3.461781E-2	1.883649E-2	1.737756E-2	2.251389E-2	2.317894E-2	2.441387E-2	3.370579E-2	2.459230E-2	2.116746E-2	2.127953E-2	3.436376E-2	1.909852E-2	1.809319E-2	2.442555E-2	8.043489E-3	2.832913E-2	2.279251E-2	9.319852E-3	1.851809E-2	2.078423E-2	2.583767E-2	1.750380E-2	1.947809E-2	2.236239E-2	3.395517E-2	5.796474E-3	2.375700E-2	1.845195E-2	2.768102E-2	1.582922E-2	1.803420E-2	5.346910E-3	1.486868E-2	2.145495E-2	2.174756E-2	2.030834E-2	2.325583E-2	2.178710E-2	2.823804E-2	-1.573202E-2
5.333020E+2	3.781941E-2	2.775909E-2	1.887386E-2	7.779893E-2	3.688803E-2	1.998689E-2	2.889242E-2	2.308192E-2	4.412404E-2	2.390924E-2	2.193972E-2	2.120861E-2	1.398794E-2	1.986736E-2	3.003324E-2	2.356103E-2	2.937783E-2	1.920293E-2	2.213657E-2	2.786430E-2	3.853469E-2	9.440817E-3	2.294856E-2	2.100632E-2	2.393315E-2	3.071523E-2	3.395668E-2	2.308811E-2	2.416099E-2	2.109780E-2	2.428864E-2	1.817390E-2	3.443005E-2	2.038450E-2	1.734114E-2	1.884728E-2	1.789346E-2	1.622508E-2	3.159758E-2	1.176468E-2	1.448113E-2	2.060282E-2	1.991853E-2	2.029583E-2	2.567494E-2	1.849716E-2	2.683685E-2	3.661878E-2	3.306663E-2	1.986261E-2	2.367777E-2	2.888326E-2	2.194623E-2	2.185751E-2	2.257255E-2	1.788245E-2	1.756854E-2	2.063467E-2	3.055479E-2	1.912407E-2	2.655127E-2	8.582625E-3	2.760123E-2	2.435196E-2	1.832787E-2	1.464239E-2	2.026086E-2	2.938094E-2	2.988992E-2	3.558970E-2	1.765963E-2	2.348787E-2	2.114054E-2	2.809257E-2	2.509521E-2	2.472384E-2	2.417877E-2	2.927817E-2	2.645363E-2	2.280016E-2	1.385692E-2	2.595509E-2	2.199998E-2	2.216451E-2	1.909988E-2	2.434573E-2	2.943690E-2	2.038666E-2	2.474402E-2	2.369782E-2	2.130214E-2	2.781318E-2	3.697600E-2	2.872999E-2	2.253033E-2	2.166205E-2	3.545978E-2	2.196554E-2	2.435421E-2	1.942710E-2	2.856689E-2	2.483289E-2	1.763814E-2	3.419305E-2	2.351570E-2	2.296069E-2	2.798502E-2	1.537331E-2	4.077140E-2	2.031412E-2	9.849966E-3	2.815043E-2	1.057966E-2	4.412267E-2	2.494326E-2	1.757085E-2	2.234012E-2	3.691110E-2	3.704514E-2	2.236454E-2	2.350026E-2	2.716243E-2	1.882165E-2	2.389251E-2	2.932209E-2	2.825951E-2	2.008540E-2	2.155529E-2	1.653176E-2	2.245654E-2	1.027159E-2	1.494423E-2	2.572354E-2	1.626788E-2	2.369670E-2	3.384953E-2	1.488557E-2	1.148890E-2	2.576305E-2	2.865341E-2	3.381922E-2	1.763159E-2	2.662501E-2	2.622865E-2	1.809318E-2	2.194162E-2	3.282606E-2	2.418342E-2	2.063890E-2	3.469051E-2	2.888825E-2	2.624941E-2	2.910831E-2	2.368161E-2	2.458706E-2	6.157736E-3	4.370082E-2	2.109899E-2	2.273520E-2	3.163193E-2	3.318054E-2	2.032127E-2	2.715993E-2	1.301860E-2	2.672595E-2	3.806528E-2	2.577806E-2	2.088044E-2	4.372099E-2	1.929717E-2	8.984941E-3	-8.280248E-4
5.334630E+2	3.844801E-2	2.220725E-2	4.335886E-2	3.225804E-2	3.790558E-2	4.013759E-2	1.926164E-2	4.182965E-2	2.981349E-2	3.498687E-2	3.424237E-2	3.048741E-2	4.037758E-2	2.492199E-2	3.003324E-2	2.905577E-2	3.698652E-2	3.657239E-2	2.965469E-2	3.491045E-2	4.212333E-2	3.870741E-2	2.580724E-2	3.469583E-2	5.651438E-2	3.249872E-2	3.277219E-2	3.407274E-2	4.860301E-2	2.780736E-2	3.832923E-2	2.678263E-2	3.208254E-2	3.487585E-2	2.468564E-2	2.918630E-2	2.652066E-2	3.229709E-2	3.539870E-2	2.809125E-2	2.581416E-2	3.254897E-2	4.294927E-2	3.094281E-2	4.303881E-2	3.320570E-2	3.782637E-2	3.065129E-2	4.984973E-2	2.884569E-2	3.659297E-2	2.888324E-2	2.399571E-2	3.369370E-2	4.358840E-2	3.393080E-2	2.888386E-2	3.330336E-2	3.626592E-2	2.519522E-2	4.532021E-2	2.815949E-2	2.806123E-2	2.762314E-2	3.214884E-2	3.618080E-2	2.708340E-2	4.090732E-2	3.193952E-2	4.303325E-2	3.426129E-2	3.978559E-2	3.861393E-2	3.209218E-2	2.388090E-2	2.914255E-2	3.516911E-2	2.487545E-2	1.842308E-2	3.756280E-2	3.642387E-2	3.080269E-2	4.274291E-2	2.846715E-2	2.994038E-2	2.936548E-2	2.027499E-2	3.150665E-2	2.538400E-2	3.333759E-2	2.610259E-2	2.467633E-2	3.979020E-2	2.782985E-2	4.233715E-2	2.057897E-2	3.371107E-2	2.730852E-2	2.110701E-2	2.469544E-2	3.487613E-2	4.181956E-2	3.651846E-2	3.016042E-2	4.834342E-2	3.934675E-2	3.233828E-2	3.201806E-2	4.316036E-2	4.729618E-2	2.330355E-2	2.341488E-2	3.558625E-2	4.152088E-2	3.541329E-2	3.206682E-2	2.073814E-2	4.419622E-2	4.426170E-2	2.870788E-2	3.218752E-2	4.079305E-2	2.365285E-2	4.098994E-2	4.527327E-2	3.342611E-2	3.521248E-2	2.951417E-2	5.044844E-2	4.480668E-2	5.049292E-2	4.083354E-2	5.031354E-2	3.013836E-2	3.001578E-2	2.440316E-2	3.466203E-2	3.672344E-2	3.065085E-2	3.474514E-2	3.625226E-2	2.583946E-2	3.602206E-2	2.622866E-2	2.921063E-2	2.815150E-2	3.543476E-2	3.040201E-2	3.948309E-2	3.417275E-2	3.234493E-2	4.115445E-2	2.125892E-2	2.059273E-2	3.608235E-2	2.365870E-2	3.024251E-2	3.872014E-2	4.317131E-2	4.428466E-2	5.077907E-2	4.984055E-2	3.563388E-2	4.021809E-2	3.067845E-2	3.131734E-2	2.174760E-2	2.888941E-2	4.837213E-2	1.307221E-2	3.593932E-2	5.382012E-2
5.336080E+2	3.404797E-2	3.516151E-2	3.417703E-2	4.364324E-2	3.739678E-2	4.210354E-2	4.761902E-2	5.211071E-2	3.995011E-2	3.387913E-2	3.670290E-2	2.982464E-2	4.470373E-2	3.292507E-2	4.345236E-2	3.455055E-2	5.410603E-2	4.352021E-2	4.719685E-2	3.683217E-2	4.366132E-2	3.634722E-2	3.914761E-2	4.224869E-2	4.082712E-2	4.498290E-2	4.047168E-2	4.200607E-2	4.396739E-2	4.077917E-2	4.462325E-2	5.213047E-2	4.734131E-2	4.357062E-2	2.835784E-2	3.177107E-2	4.713011E-2	4.469551E-2	3.824972E-2	3.577431E-2	4.155456E-2	3.618475E-2	4.108193E-2	3.293909E-2	3.903184E-2	4.167426E-2	3.878195E-2	3.661879E-2	4.625334E-2	4.082319E-2	3.659294E-2	3.690068E-2	3.987889E-2	4.174226E-2	4.545651E-2	3.347229E-2	4.317695E-2	4.827550E-2	5.454166E-2	3.794465E-2	3.341793E-2	2.943627E-2	3.404146E-2	5.706352E-2	5.017618E-2	4.354922E-2	5.313311E-2	4.022925E-2	5.807186E-2	4.582450E-2	4.353877E-2	4.170299E-2	4.184968E-2	3.837732E-2	3.966661E-2	3.797999E-2	3.472946E-2	4.028500E-2	4.298722E-2	3.264192E-2	4.889504E-2	4.655758E-2	4.965713E-2	5.115689E-2	3.768362E-2	4.141282E-2	4.114387E-2	4.170011E-2	4.202215E-2	3.394011E-2	3.210318E-2	4.537935E-2	4.870201E-2	3.008025E-2	4.184203E-2	2.761913E-2	5.003220E-2	4.689945E-2	3.669371E-2	5.103722E-2	4.013385E-2	5.346759E-2	5.142394E-2	3.217674E-2	3.562678E-2	3.995363E-2	4.228852E-2	4.727585E-2	4.841603E-2	3.008348E-2	4.108150E-2	5.445936E-2	2.981553E-2	3.371539E-2	3.233389E-2	5.578742E-2	3.942908E-2	2.816902E-2	4.137503E-2	3.749104E-2	5.089860E-2	3.664461E-2	3.693876E-2	3.441398E-2	5.231047E-2	3.859267E-2	2.764894E-2	2.951417E-2	6.196730E-2	4.608390E-2	4.011321E-2	3.767630E-2	3.932653E-2	5.068727E-2	4.897299E-2	5.321476E-2	3.785180E-2	5.149485E-2	4.470342E-2	3.203773E-2	4.841742E-2	4.225507E-2	4.873575E-2	3.335876E-2	2.790272E-2	4.616020E-2	5.760873E-2	6.011304E-2	3.517589E-2	2.692398E-2	3.876457E-2	4.363855E-2	3.957423E-2	3.850836E-2	4.310724E-2	2.495508E-2	4.880574E-2	4.613956E-2	5.696570E-2	4.639345E-2	4.142985E-2	5.497433E-2	3.889298E-2	3.603352E-2	3.237231E-2	4.066066E-2	5.046447E-2	4.033072E-2	4.465117E-2	5.166649E-2	3.208864E-2	3.394805E-2
5.337580E+2	5.981955E-2	3.886270E-2	3.907406E-2	1.081595E-1	5.469603E-2	6.077983E-2	6.153021E-2	5.211068E-2	5.366435E-2	5.935764E-2	6.561408E-2	5.567275E-2	7.022804E-2	5.145861E-2	6.214323E-2	5.603024E-2	5.410599E-2	6.552157E-2	6.411252E-2	4.387828E-2	5.545228E-2	4.720417E-2	5.296423E-2	6.207499E-2	4.324058E-2	5.390023E-2	5.409382E-2	4.932917E-2	5.745268E-2	5.688193E-2	4.994901E-2	4.878263E-2	5.673128E-2	4.704855E-2	4.121073E-2	4.921819E-2	5.479873E-2	5.525719E-2	6.580865E-2	5.594234E-2	6.107257E-2	4.813092E-2	4.294927E-2	5.423311E-2	5.817663E-2	5.014284E-2	5.168277E-2	4.475619E-2	7.742189E-2	6.657470E-2	5.303045E-2	4.923515E-2	5.063851E-2	5.405194E-2	7.254343E-2	5.639837E-2	3.841256E-2	5.633741E-2	5.339943E-2	5.676520E-2	5.539138E-2	5.412007E-2	4.968215E-2	5.651835E-2	6.039168E-2	6.168686E-2	4.382967E-2	5.717983E-2	5.243546E-2	4.535935E-2	5.379270E-2	5.895939E-2	7.161907E-2	4.009141E-2	5.302375E-2	3.545499E-2	6.242502E-2	5.657510E-2	5.101784E-2	5.429376E-2	4.176867E-2	5.019324E-2	4.085715E-2	5.430827E-2	5.678351E-2	6.400174E-2	5.641364E-2	5.606337E-2	4.714166E-2	5.743705E-2	5.250520E-2	5.667196E-2	5.526851E-2	4.358262E-2	5.224064E-2	6.173707E-2	5.411253E-2	5.342978E-2	6.591884E-2	7.869608E-2	5.801005E-2	5.540894E-2	7.427908E-2	6.191726E-2	5.076568E-2	4.420188E-2	4.912936E-2	5.282403E-2	7.421682E-2	4.264409E-2	3.771810E-2	6.024730E-2	4.135701E-2	6.103463E-2	5.512163E-2	4.985720E-2	5.010967E-2	5.925205E-2	5.292152E-2	7.359938E-2	4.688905E-2	5.383107E-2	5.807538E-2	6.532093E-2	6.685440E-2	5.409229E-2	5.336503E-2	6.134960E-2	6.388711E-2	5.630106E-2	5.568278E-2	6.482846E-2	5.031353E-2	5.787940E-2	5.792511E-2	5.982716E-2	4.933501E-2	4.472462E-2	4.287048E-2	6.588037E-2	7.080119E-2	5.730274E-2	6.034389E-2	6.391648E-2	5.994726E-2	5.237008E-2	5.695650E-2	6.287687E-2	4.217515E-2	5.695460E-2	6.098626E-2	4.860700E-2	7.031782E-2	5.580624E-2	8.334060E-2	4.115963E-2	5.669501E-2	3.176444E-2	5.236756E-2	5.430151E-2	5.847845E-2	5.176570E-2	6.822581E-2	5.765369E-2	6.399182E-2	5.363747E-2	6.054060E-2	4.948385E-2	7.720931E-2	3.797184E-2	6.096848E-2	1.904399E-2
5.339400E+2	7.301974E-2	6.908928E-2	7.212887E-2	8.538902E-2	8.013590E-2	7.798166E-2	7.811653E-2	7.811579E-2	7.334127E-2	9.037502E-2	7.115030E-2	7.290476E-2	7.844769E-2	7.715285E-2	6.597731E-2	8.050707E-2	8.897880E-2	7.652205E-2	7.413664E-2	6.821955E-2	8.774981E-2	6.939016E-2	6.201680E-2	6.396318E-2	6.496144E-2	7.708524E-2	6.357013E-2	8.045231E-2	8.610883E-2	7.477419E-2	6.979942E-2	7.508703E-2	9.487826E-2	7.255341E-2	8.894992E-2	6.537288E-2	6.630172E-2	8.051312E-2	8.766540E-2	6.890755E-2	8.247951E-2	7.150380E-2	6.909231E-2	8.683949E-2	6.663589E-2	8.713716E-2	7.796219E-2	7.730612E-2	8.401523E-2	5.998717E-2	8.238320E-2	6.958714E-2	7.676903E-2	9.003379E-2	7.301061E-2	8.161722E-2	6.044761E-2	8.109902E-2	7.338858E-2	8.226403E-2	7.828044E-2	8.816688E-2	6.716299E-2	8.159731E-2	5.979076E-2	7.132246E-2	8.724577E-2	7.684247E-2	8.266695E-2	7.932090E-2	8.016018E-2	7.669528E-2	7.420775E-2	6.294642E-2	8.216660E-2	7.585488E-2	7.693238E-2	8.871513E-2	7.085783E-2	6.954873E-2	8.868424E-2	9.079229E-2	7.731428E-2	7.762828E-2	7.794840E-2	7.755509E-2	7.524665E-2	7.645014E-2	7.465870E-2	8.515150E-2	6.870691E-2	6.106348E-2	6.464931E-2	5.888527E-2	7.947512E-2	6.552766E-2	8.325754E-2	8.726874E-2	8.215483E-2	7.408630E-2	6.274196E-2	6.996887E-2	7.726007E-2	8.006399E-2	7.074896E-2	8.911182E-2	6.343283E-2	7.779121E-2	7.373874E-2	7.846513E-2	6.943011E-2	8.287286E-2	7.277550E-2	8.965474E-2	8.160473E-2	8.675604E-2	8.161723E-2	8.207864E-2	8.226887E-2	8.043094E-2	7.361916E-2	7.575854E-2	7.136127E-2	7.123925E-2	8.045957E-2	6.724356E-2	8.462750E-2	8.323671E-2	8.500506E-2	8.759130E-2	8.357825E-2	6.988005E-2	6.705563E-2	8.562029E-2	8.320165E-2	7.069033E-2	7.612900E-2	7.119011E-2	7.891842E-2	8.957037E-2	6.739523E-2	5.958273E-2	7.305768E-2	6.748155E-2	7.956634E-2	7.099974E-2	7.586955E-2	5.942214E-2	6.371143E-2	9.060933E-2	6.098616E-2	7.195810E-2	6.639310E-2	6.198403E-2	6.865223E-2	8.847688E-2	7.943489E-2	6.607936E-2	8.046709E-2	8.804224E-2	6.562788E-2	6.524191E-2	8.647729E-2	8.066870E-2	5.552232E-2	8.374345E-2	7.515083E-2	8.037548E-2	8.651169E-2	7.532114E-2	8.792294E-2	8.362829E-2
5.340800E+2	1.082201E-1	8.451099E-2	8.865624E-2	1.157497E-1	1.223663E-1	9.469202E-2	1.278758E-1	1.204496E-1	9.599945E-2	1.108686E-1	1.099036E-1	1.126708E-1	1.152203E-1	1.087441E-1	1.024006E-1	1.179715E-1	1.213155E-1	1.164718E-1	9.606440E-2	1.079343E-1	1.056927E-1	1.033768E-1	9.298520E-2	1.088081E-1	1.126267E-1	1.121601E-1	1.085822E-1	1.048626E-1	1.194005E-1	1.244250E-1	1.095006E-1	1.028263E-1	1.160057E-1	1.166071E-1	9.078602E-2	1.093138E-1	1.036862E-1	1.076061E-1	1.066715E-1	1.068429E-1	8.059065E-2	1.182499E-1	9.710260E-2	1.127915E-1	1.035901E-1	1.276972E-1	8.751833E-2	1.098560E-1	9.840062E-2	1.025072E-1	1.117356E-1	1.090573E-1	1.141715E-1	1.137059E-1	1.010318E-1	1.100458E-1	7.057201E-2	1.248639E-1	1.065131E-1	1.107984E-1	1.020852E-1	1.179578E-1	9.246406E-2	1.181253E-1	1.078634E-1	1.138325E-1	1.027514E-1	1.019291E-1	1.057247E-1	1.197954E-1	1.118984E-1	8.532320E-2	1.156259E-1	1.189410E-1	1.022021E-1	9.605471E-2	1.134203E-1	1.358244E-1	9.164297E-2	1.064554E-1	1.112509E-1	1.077592E-1	1.030857E-1	1.129236E-1	1.125345E-1	1.031554E-1	9.916915E-2	1.098101E-1	1.200938E-1	1.098533E-1	1.011099E-1	9.807800E-2	1.096769E-1	1.187460E-1	8.789275E-2	1.131842E-1	1.263923E-1	1.086407E-1	9.904043E-2	1.050377E-1	1.111129E-1	1.063691E-1	1.025994E-1	1.108122E-1	1.004213E-1	9.335982E-2	8.519896E-2	1.166289E-1	1.224733E-1	1.217295E-1	1.102715E-1	1.176005E-1	1.157354E-1	1.039648E-1	1.000808E-1	1.210190E-1	1.061824E-1	1.029626E-1	1.255685E-1	1.180033E-1	1.030223E-1	1.000564E-1	1.166538E-1	1.304224E-1	1.306589E-1	1.010609E-1	1.078224E-1	1.140771E-1	1.144419E-1	1.099416E-1	9.071430E-2	1.027151E-1	1.021094E-1	1.231223E-1	1.095313E-1	1.094209E-1	1.041987E-1	1.124270E-1	1.051905E-1	1.179983E-1	1.019442E-1	8.739809E-2	1.062236E-1	9.803892E-2	1.103029E-1	1.082590E-1	1.026087E-1	9.811559E-2	9.978470E-2	1.118381E-1	9.209670E-2	1.191576E-1	1.043321E-1	9.163752E-2	1.350694E-1	9.042160E-2	1.216663E-1	9.900289E-2	1.116322E-1	1.086028E-1	9.697524E-2	8.641882E-2	1.053807E-1	1.036837E-1	1.091624E-1	1.205978E-1	1.209970E-1	1.021139E-1	1.469767E-1	1.263652E-1	8.792294E-2	9.853219E-2
5.342040E+2	1.459347E-1	1.320099E-1	1.400746E-1	1.574954E-1	1.549296E-1	1.384340E-1	1.417869E-1	1.658068E-1	1.431049E-1	1.319163E-1	1.812588E-1	1.650298E-1	1.602123E-1	1.778238E-1	1.579941E-1	1.614305E-1	1.504821E-1	1.546849E-1	1.505702E-1	1.553353E-1	1.866926E-1	1.501095E-1	1.563521E-1	1.517648E-1	1.663255E-1	1.603133E-1	1.387880E-1	1.701603E-1	1.682844E-1	1.593145E-1	1.758301E-1	1.554349E-1	1.611950E-1	1.716744E-1	1.550505E-1	1.332230E-1	1.592838E-1	1.737308E-1	1.594135E-1	1.596638E-1	1.574037E-1	1.462973E-1	1.437865E-1	1.533831E-1	1.334205E-1	1.731600E-1	1.677898E-1	1.646488E-1	1.619364E-1	1.719768E-1	1.534162E-1	1.448274E-1	1.715563E-1	1.619978E-1	1.654804E-1	1.499376E-1	1.396551E-1	1.864800E-1	1.544872E-1	1.575461E-1	1.451164E-1	1.720069E-1	1.476667E-1	1.590141E-1	1.577395E-1	1.914842E-1	1.567115E-1	1.663411E-1	1.467169E-1	1.723657E-1	1.626802E-1	1.615391E-1	1.635155E-1	1.549376E-1	1.714168E-1	1.389792E-1	1.630969E-1	1.635615E-1	1.620284E-1	1.541885E-1	1.646992E-1	1.822916E-1	1.552568E-1	1.488486E-1	1.595103E-1	1.669061E-1	1.582130E-1	1.542900E-1	1.597695E-1	1.682948E-1	1.353135E-1	1.677155E-1	1.593955E-1	1.556523E-1	1.359247E-1	1.624654E-1	1.532053E-1	1.525714E-1	1.321622E-1	1.932832E-1	1.400303E-1	1.655795E-1	1.840824E-1	1.874319E-1	1.591597E-1	1.649731E-1	1.616913E-1	1.741920E-1	1.912752E-1	1.896496E-1	1.621638E-1	1.933703E-1	1.689544E-1	1.794179E-1	1.684442E-1	1.757085E-1	1.686640E-1	1.534725E-1	1.645382E-1	1.570394E-1	1.885585E-1	1.403558E-1	1.492647E-1	1.606717E-1	1.794511E-1	1.762110E-1	1.769030E-1	1.747639E-1	1.720367E-1	1.916791E-1	1.328816E-1	1.488108E-1	1.800650E-1	1.642199E-1	1.621907E-1	1.769624E-1	1.526833E-1	1.647425E-1	1.479594E-1	1.768846E-1	1.335738E-1	1.603566E-1	1.432590E-1	1.764707E-1	1.534649E-1	1.486237E-1	1.430433E-1	1.589197E-1	1.541634E-1	1.563661E-1	1.632066E-1	1.499612E-1	1.553534E-1	1.466199E-1	1.772183E-1	1.552400E-1	1.657538E-1	1.514028E-1	1.657879E-1	1.513060E-1	1.409715E-1	1.319814E-1	1.686091E-1	1.817950E-1	1.289246E-1	1.579708E-1	1.648281E-1	1.610370E-1	1.637210E-1	1.313451E-1	1.399066E-1	1.730522E-1
5.343550E+2	2.477641E-1	2.171378E-1	2.251601E-1	2.258067E-1	2.460049E-1	2.642532E-1	2.594970E-1	2.383790E-1	2.701106E-1	2.775872E-1	2.716835E-1	2.651081E-1	2.411114E-1	2.907095E-1	2.667848E-1	2.613361E-1	2.969487E-1	2.722185E-1	2.602092E-1	2.821664E-1	2.635911E-1	2.600949E-1	2.440177E-1	2.494798E-1	2.936337E-1	2.661325E-1	2.578340E-1	2.464428E-1	2.917581E-1	2.876904E-1	2.605579E-1	2.697391E-1	2.644853E-1	2.621005E-1	2.866387E-1	2.631075E-1	2.819815E-1	2.683262E-1	2.696486E-1	2.609846E-1	2.480679E-1	2.564101E-1	2.383993E-1	2.665074E-1	2.714417E-1	2.841428E-1	2.638293E-1	2.791163E-1	2.782192E-1	2.713892E-1	2.596726E-1	2.385693E-1	2.806894E-1	2.879345E-1	2.593509E-1	2.352231E-1	2.135025E-1	2.745845E-1	2.807039E-1	2.911113E-1	2.508637E-1	2.809566E-1	2.479508E-1	2.909513E-1	2.448715E-1	2.663022E-1	2.590497E-1	2.422798E-1	2.374114E-1	2.728543E-1	2.622905E-1	2.521352E-1	2.573543E-1	2.806395E-1	2.558090E-1	2.538663E-1	2.901447E-1	2.833158E-1	2.772910E-1	2.644157E-1	2.923801E-1	2.992412E-1	2.878860E-1	2.604071E-1	2.777227E-1	2.883839E-1	2.477965E-1	2.599298E-1	2.698379E-1	2.755373E-1	2.391239E-1	2.530371E-1	2.663363E-1	2.771738E-1	2.522902E-1	2.653603E-1	2.657050E-1	2.879271E-1	2.685462E-1	2.782353E-1	2.493904E-1	2.679850E-1	2.476795E-1	2.882467E-1	2.687650E-1	2.784616E-1	2.593283E-1	2.816896E-1	2.868333E-1	2.896697E-1	2.424047E-1	2.717708E-1	2.753925E-1	2.789382E-1	2.528207E-1	2.435756E-1	2.813436E-1	2.651776E-1	2.775980E-1	2.556058E-1	2.954792E-1	2.654017E-1	2.778962E-1	2.928480E-1	2.850101E-1	3.236925E-1	2.948945E-1	2.682804E-1	2.968246E-1	3.034298E-1	2.528973E-1	2.529993E-1	2.726698E-1	3.049800E-1	2.696158E-1	2.775663E-1	2.643249E-1	2.822983E-1	2.286086E-1	2.892420E-1	2.581452E-1	2.843856E-1	2.831095E-1	2.625414E-1	2.685639E-1	2.628853E-1	2.897825E-1	2.439071E-1	2.526921E-1	2.480111E-1	2.624630E-1	2.706920E-1	2.783282E-1	2.825321E-1	3.023894E-1	2.900623E-1	2.803812E-1	2.974727E-1	2.557069E-1	2.541095E-1	2.300644E-1	2.487751E-1	2.989770E-1	2.710652E-1	2.362053E-1	2.477703E-1	2.897718E-1	2.525675E-1	2.790700E-1	2.757621E-1	2.438738E-1	2.127962E-1
5.345160E+2	4.419945E-1	4.176202E-1	4.094103E-1	4.762809E-1	4.551217E-1	4.721494E-1	4.735154E-1	4.645620E-1	4.955009E-1	4.980322E-1	5.011282E-1	4.957523E-1	4.760227E-1	4.996332E-1	4.393162E-1	4.556515E-1	5.099913E-1	4.974429E-1	4.794864E-1	5.050809E-1	5.009520E-1	5.083894E-1	5.008193E-1	4.751207E-1	5.042053E-1	4.795533E-1	4.882267E-1	4.716276E-1	5.340704E-1	5.135786E-1	4.493800E-1	4.921305E-1	5.303399E-1	5.043957E-1	4.879998E-1	4.841050E-1	4.813662E-1	4.717520E-1	4.839422E-1	4.794718E-1	4.892107E-1	4.735188E-1	5.010751E-1	5.333475E-1	4.758026E-1	4.864969E-1	4.836203E-1	5.308361E-1	4.862097E-1	5.241136E-1	4.563357E-1	4.568896E-1	5.153515E-1	5.327074E-1	4.704432E-1	4.603587E-1	4.535067E-1	5.296867E-1	4.760260E-1	5.072440E-1	5.090516E-1	5.235391E-1	4.544996E-1	4.992150E-1	4.714155E-1	5.134268E-1	4.395363E-1	4.748410E-1	4.515939E-1	4.956963E-1	5.098510E-1	4.668817E-1	5.000391E-1	5.091900E-1	4.828803E-1	4.640713E-1	4.747826E-1	5.219435E-1	4.591600E-1	5.065241E-1	4.931074E-1	5.337456E-1	4.865144E-1	5.036910E-1	4.945331E-1	4.645766E-1	4.936413E-1	5.249570E-1	4.957339E-1	4.954445E-1	4.029405E-1	4.770060E-1	5.177417E-1	5.143651E-1	4.355036E-1	4.787322E-1	5.233473E-1	4.927412E-1	4.945536E-1	4.962135E-1	4.749465E-1	4.815318E-1	4.717585E-1	5.201208E-1	4.849482E-1	5.193976E-1	4.894280E-1	4.800402E-1	5.133058E-1	5.306476E-1	4.912967E-1	5.148641E-1	4.966044E-1	5.391213E-1	4.843932E-1	5.077973E-1	4.698558E-1	4.885871E-1	4.878412E-1	4.937272E-1	5.033049E-1	5.172715E-1	5.230810E-1	4.934143E-1	5.172415E-1	5.167342E-1	4.733938E-1	4.966009E-1	5.425606E-1	5.435339E-1	4.929275E-1	5.068409E-1	4.887475E-1	5.207433E-1	4.860450E-1	4.839698E-1	4.761250E-1	5.229501E-1	5.237128E-1	5.207265E-1	4.265114E-1	5.110127E-1	4.782368E-1	4.907053E-1	4.399037E-1	4.938936E-1	4.841306E-1	4.988695E-1	4.852834E-1	5.110380E-1	5.044328E-1	4.957583E-1	4.948415E-1	4.888711E-1	4.773724E-1	4.922953E-1	4.683336E-1	5.228381E-1	4.677316E-1	4.771150E-1	3.978001E-1	5.035393E-1	4.854028E-1	4.900562E-1	4.270510E-1	5.135355E-1	4.802101E-1	5.151466E-1	5.367446E-1	5.060840E-1	4.383308E-1	4.313888E-1
5.346560E+2	7.091405E-1	6.507963E-1	6.285510E-1	6.394691E-1	7.018898E-1	7.193643E-1	7.806316E-1	7.905308E-1	7.572636E-1	7.378625E-1	7.847041E-1	8.218352E-1	7.710668E-1	7.999606E-1	7.561031E-1	7.293924E-1	7.636127E-1	7.996719E-1	7.858481E-1	7.760373E-1	8.295646E-1	7.665965E-1	7.757261E-1	7.597683E-1	8.040734E-1	7.655014E-1	7.494163E-1	7.309874E-1	8.050389E-1	7.828555E-1	7.815124E-1	7.590001E-1	7.762404E-1	7.704570E-1	7.915726E-1	7.147949E-1	7.598328E-1	7.982433E-1	7.989674E-1	7.488596E-1	7.341311E-1	7.446444E-1	7.600155E-1	8.035147E-1	7.932514E-1	7.918111E-1	7.120122E-1	7.988309E-1	7.877054E-1	8.061826E-1	7.774537E-1	7.374999E-1	7.853665E-1	7.893161E-1	8.137023E-1	7.189664E-1	7.137599E-1	8.037918E-1	7.787187E-1	8.132298E-1	7.539638E-1	7.882522E-1	7.061313E-1	8.306925E-1	7.039689E-1	8.314025E-1	7.310454E-1	7.399476E-1	7.216281E-1	7.985581E-1	7.686417E-1	7.319591E-1	7.679636E-1	7.708788E-1	7.494163E-1	7.361389E-1	7.842701E-1	7.808243E-1	7.270033E-1	7.825859E-1	7.698489E-1	8.112727E-1	7.725143E-1	8.244988E-1	7.541884E-1	8.144521E-1	8.015840E-1	7.376272E-1	7.465869E-1	7.900611E-1	6.831682E-1	7.806504E-1	7.241191E-1	7.682094E-1	6.820991E-1	7.825424E-1	8.089677E-1	7.687951E-1	7.705683E-1	7.826800E-1	7.388831E-1	8.008806E-1	7.678807E-1	8.397044E-1	7.598697E-1	7.937120E-1	7.929106E-1	8.087745E-1	8.152692E-1	8.358238E-1	7.574855E-1	7.905812E-1	7.825776E-1	8.058087E-1	8.052688E-1	7.614758E-1	7.592991E-1	7.751339E-1	7.423458E-1	7.943061E-1	8.086976E-1	8.058859E-1	8.443578E-1	7.340932E-1	7.963874E-1	8.220309E-1	7.592961E-1	7.677001E-1	7.818977E-1	8.372787E-1	7.407433E-1	7.619448E-1	7.686549E-1	8.294907E-1	7.846235E-1	8.032578E-1	7.529961E-1	8.343808E-1	8.035416E-1	8.374935E-1	7.486452E-1	8.019338E-1	7.242191E-1	7.667431E-1	7.708131E-1	8.012826E-1	7.456525E-1	7.952894E-1	6.925700E-1	7.673335E-1	7.656622E-1	7.715013E-1	7.898490E-1	8.144413E-1	7.756102E-1	7.716624E-1	7.291462E-1	8.344544E-1	7.374884E-1	7.407139E-1	6.276809E-1	7.826893E-1	7.624338E-1	7.599595E-1	6.670203E-1	7.829335E-1	7.573031E-1	7.840187E-1	8.027904E-1	8.086133E-1	7.290551E-1	6.003011E-1
5.348180E+2	1.114573E+0	1.012898E+0	1.035615E+0	1.110057E+0	1.187793E+0	1.122870E+0	1.144998E+0	1.218101E+0	1.168690E+0	1.229157E+0	1.247898E+0	1.245346E+0	1.200222E+0	1.199694E+0	1.108355E+0	1.186958E+0	1.211889E+0	1.237382E+0	1.127295E+0	1.169981E+0	1.277115E+0	1.229197E+0	1.158309E+0	1.168564E+0	1.231250E+0	1.141812E+0	1.152159E+0	1.210040E+0	1.201587E+0	1.160826E+0	1.182397E+0	1.198523E+0	1.215810E+0	1.220848E+0	1.176545E+0	1.176821E+0	1.169626E+0	1.161010E+0	1.158183E+0	1.142138E+0	1.170454E+0	1.188731E+0	1.164610E+0	1.304589E+0	1.190397E+0	1.208108E+0	1.207977E+0	1.235000E+0	1.236054E+0	1.177484E+0	1.119118E+0	1.084716E+0	1.208065E+0	1.229623E+0	1.162565E+0	1.115130E+0	1.054411E+0	1.185005E+0	1.147089E+0	1.262493E+0	1.119731E+0	1.225753E+0	1.094387E+0	1.241224E+0	1.110786E+0	1.266703E+0	1.170169E+0	1.191510E+0	1.127447E+0	1.196325E+0	1.179289E+0	1.108725E+0	1.163378E+0	1.196552E+0	1.159237E+0	1.100368E+0	1.193110E+0	1.232546E+0	1.144122E+0	1.215132E+0	1.205748E+0	1.228776E+0	1.206857E+0	1.185643E+0	1.169741E+0	1.176877E+0	1.167553E+0	1.155090E+0	1.159983E+0	1.203367E+0	1.049805E+0	1.167107E+0	1.143910E+0	1.164730E+0	1.121316E+0	1.200619E+0	1.172696E+0	1.174267E+0	1.181018E+0	1.211393E+0	1.152139E+0	1.196428E+0	1.171820E+0	1.258591E+0	1.181336E+0	1.270729E+0	1.127488E+0	1.202007E+0	1.258181E+0	1.270795E+0	1.126019E+0	1.218362E+0	1.175629E+0	1.279993E+0	1.180958E+0	1.193719E+0	1.147004E+0	1.200584E+0	1.221528E+0	1.196866E+0	1.224351E+0	1.195248E+0	1.194018E+0	1.179941E+0	1.241145E+0	1.283734E+0	1.201006E+0	1.136297E+0	1.250333E+0	1.238305E+0	1.153986E+0	1.131973E+0	1.119192E+0	1.286705E+0	1.149551E+0	1.161749E+0	1.107698E+0	1.279986E+0	1.239173E+0	1.244283E+0	1.137445E+0	1.210501E+0	1.143217E+0	1.179272E+0	1.097798E+0	1.139723E+0	1.126522E+0	1.205715E+0	1.173365E+0	1.143233E+0	1.102939E+0	1.173441E+0	1.139149E+0	1.207350E+0	1.153677E+0	1.132053E+0	1.175591E+0	1.251796E+0	1.164604E+0	1.150874E+0	9.659032E-1	1.149113E+0	1.152234E+0	1.170045E+0	1.056617E+0	1.223105E+0	1.143722E+0	1.146709E+0	1.232559E+0	1.230661E+0	1.098716E+0	9.480616E-1
5.349530E+2	1.574062E+0	1.342307E+0	1.415746E+0	1.330171E+0	1.589236E+0	1.482141E+0	1.594437E+0	1.592450E+0	1.558056E+0	1.581980E+0	1.695715E+0	1.676808E+0	1.579627E+0	1.606590E+0	1.720843E+0	1.573092E+0	1.654461E+0	1.652511E+0	1.592163E+0	1.547911E+0	1.711334E+0	1.553019E+0	1.555660E+0	1.545733E+0	1.581196E+0	1.590053E+0	1.591623E+0	1.610369E+0	1.641123E+0	1.599632E+0	1.650093E+0	1.530435E+0	1.603737E+0	1.634143E+0	1.592120E+0	1.530289E+0	1.570790E+0	1.523323E+0	1.595797E+0	1.526291E+0	1.556405E+0	1.566850E+0	1.592861E+0	1.699859E+0	1.544801E+0	1.557550E+0	1.543874E+0	1.673341E+0	1.578905E+0	1.617658E+0	1.594044E+0	1.465237E+0	1.651259E+0	1.636787E+0	1.571205E+0	1.451229E+0	1.402804E+0	1.660082E+0	1.595416E+0	1.589730E+0	1.486411E+0	1.637718E+0	1.442166E+0	1.629401E+0	1.479143E+0	1.714480E+0	1.513777E+0	1.559676E+0	1.452819E+0	1.591300E+0	1.565523E+0	1.476862E+0	1.581445E+0	1.625652E+0	1.569663E+0	1.455759E+0	1.550077E+0	1.610297E+0	1.511164E+0	1.588629E+0	1.553159E+0	1.643852E+0	1.553198E+0	1.572001E+0	1.543994E+0	1.562392E+0	1.614450E+0	1.550314E+0	1.526024E+0	1.575704E+0	1.354036E+0	1.566737E+0	1.566046E+0	1.586003E+0	1.397126E+0	1.586203E+0	1.637851E+0	1.602297E+0	1.534318E+0	1.551860E+0	1.507561E+0	1.561401E+0	1.568803E+0	1.672940E+0	1.520445E+0	1.619081E+0	1.491916E+0	1.638239E+0	1.634199E+0	1.639704E+0	1.554129E+0	1.577742E+0	1.627030E+0	1.649452E+0	1.532626E+0	1.558092E+0	1.540049E+0	1.493444E+0	1.583801E+0	1.577470E+0	1.631319E+0	1.591128E+0	1.646342E+0	1.605406E+0	1.650714E+0	1.684375E+0	1.566073E+0	1.548665E+0	1.674610E+0	1.654019E+0	1.555550E+0	1.522838E+0	1.501120E+0	1.641689E+0	1.514481E+0	1.521654E+0	1.502590E+0	1.593264E+0	1.552605E+0	1.644980E+0	1.437192E+0	1.605844E+0	1.500305E+0	1.572956E+0	1.509800E+0	1.521632E+0	1.504131E+0	1.500063E+0	1.480257E+0	1.519652E+0	1.519719E+0	1.536131E+0	1.540126E+0	1.577401E+0	1.481295E+0	1.509946E+0	1.532004E+0	1.555531E+0	1.576392E+0	1.540476E+0	1.269479E+0	1.502704E+0	1.506184E+0	1.497835E+0	1.384107E+0	1.531436E+0	1.515527E+0	1.570038E+0	1.542326E+0	1.670136E+0	1.402916E+0	1.424990E+0
5.351250E+2	1.926693E+0	1.693921E+0	1.671614E+0	1.834915E+0	1.872638E+0	1.788335E+0	2.017121E+0	2.009739E+0	1.945037E+0	1.951418E+0	2.024196E+0	2.020127E+0	1.925721E+0	1.991162E+0	2.160317E+0	1.877305E+0	2.036164E+0	1.964008E+0	2.047009E+0	1.959789E+0	2.056353E+0	1.920738E+0	2.034483E+0	1.915354E+0	2.068105E+0	1.901567E+0	2.003843E+0	2.010699E+0	1.993002E+0	1.977154E+0	2.189444E+0	1.903001E+0	2.018657E+0	1.947156E+0	2.041361E+0	1.889570E+0	1.914918E+0	1.968287E+0	1.966892E+0	1.919567E+0	1.888216E+0	1.899269E+0	1.998079E+0	2.110431E+0	1.907663E+0	1.986324E+0	2.219972E+0	2.063942E+0	2.022459E+0	1.995545E+0	2.076603E+0	1.710076E+0	2.012986E+0	1.872561E+0	2.015809E+0	1.778157E+0	1.734523E+0	1.958373E+0	1.983772E+0	1.973424E+0	1.820590E+0	2.009254E+0	1.973484E+0	1.985961E+0	1.917211E+0	1.977475E+0	2.000040E+0	1.921061E+0	1.849418E+0	1.933705E+0	1.899995E+0	1.853629E+0	1.928970E+0	1.969051E+0	1.957024E+0	1.796004E+0	1.906164E+0	1.988493E+0	1.885768E+0	1.922264E+0	1.879786E+0	1.952284E+0	1.928455E+0	2.056046E+0	1.913089E+0	1.920803E+0	1.896434E+0	1.943687E+0	1.860708E+0	1.904661E+0	1.651666E+0	1.845288E+0	1.890152E+0	1.974871E+0	1.716514E+0	1.944714E+0	1.948537E+0	1.924657E+0	1.884370E+0	1.906817E+0	1.857721E+0	1.930739E+0	1.894737E+0	2.032345E+0	1.957051E+0	1.973506E+0	1.813435E+0	2.066147E+0	2.052742E+0	2.056533E+0	1.881342E+0	1.926074E+0	1.910437E+0	1.997448E+0	1.883070E+0	1.911266E+0	1.842308E+0	1.906748E+0	1.882566E+0	1.920013E+0	1.961435E+0	1.950859E+0	1.924740E+0	1.954586E+0	2.024159E+0	2.003295E+0	1.942738E+0	1.849113E+0	1.977937E+0	2.051850E+0	1.883807E+0	1.877711E+0	1.867877E+0	1.998207E+0	1.842552E+0	1.828664E+0	1.777547E+0	1.981012E+0	1.973571E+0	1.952273E+0	1.774901E+0	1.946468E+0	1.757345E+0	1.843392E+0	1.783161E+0	1.842682E+0	1.922829E+0	1.907034E+0	1.791458E+0	1.812188E+0	1.869831E+0	1.909749E+0	1.911665E+0	1.929535E+0	1.872772E+0	1.889779E+0	1.855931E+0	1.939951E+0	1.784330E+0	1.917421E+0	1.595600E+0	1.844101E+0	1.853609E+0	1.888392E+0	1.672067E+0	1.933197E+0	1.818819E+0	1.852070E+0	1.885582E+0	2.078491E+0	1.693640E+0	1.434926E+0
5.352600E+2	2.182523E+0	1.914763E+0	1.923808E+0	1.914610E+0	2.106685E+0	2.031621E+0	2.123596E+0	2.195407E+0	2.117953E+0	2.128661E+0	2.254868E+0	2.218958E+0	2.063294E+0	2.189555E+0	2.421511E+0	2.041649E+0	2.237157E+0	2.148125E+0	2.186093E+0	2.231388E+0	2.250651E+0	2.116164E+0	2.125961E+0	2.125891E+0	2.227395E+0	2.064455E+0	2.206393E+0	2.182793E+0	2.126588E+0	2.118052E+0	2.426199E+0	2.099565E+0	2.196478E+0	2.163367E+0	2.208444E+0	2.089887E+0	2.207283E+0	2.080788E+0	2.144122E+0	2.027129E+0	2.090952E+0	2.052491E+0	2.257638E+0	2.266144E+0	2.046576E+0	2.105774E+0	2.442154E+0	2.253819E+0	2.129151E+0	2.117116E+0	2.233343E+0	1.917295E+0	2.142615E+0	2.068100E+0	2.139567E+0	1.987245E+0	1.862563E+0	2.181802E+0	2.260769E+0	2.165877E+0	2.081066E+0	2.164590E+0	2.296422E+0	2.201857E+0	1.991123E+0	2.250672E+0	2.274801E+0	2.079715E+0	2.036443E+0	2.137009E+0	2.100679E+0	2.019480E+0	2.091410E+0	2.153033E+0	2.277595E+0	1.927932E+0	2.082888E+0	2.170329E+0	2.417673E+0	2.123036E+0	2.103677E+0	2.111044E+0	2.244626E+0	2.139872E+0	2.067954E+0	2.071896E+0	2.165693E+0	2.041912E+0	2.020052E+0	2.128789E+0	1.851485E+0	2.017812E+0	2.066512E+0	2.103595E+0	2.118593E+0	2.115297E+0	2.113498E+0	2.018458E+0	2.195452E+0	2.142576E+0	2.070663E+0	2.051585E+0	2.066149E+0	2.166426E+0	2.133871E+0	2.150116E+0	2.003111E+0	2.195146E+0	2.140658E+0	2.268665E+0	2.060081E+0	2.172850E+0	2.161146E+0	2.276494E+0	2.083847E+0	2.050296E+0	2.064464E+0	2.000486E+0	2.093292E+0	2.070305E+0	2.110454E+0	2.163022E+0	2.079342E+0	2.096625E+0	2.135350E+0	2.209955E+0	2.176704E+0	2.050572E+0	2.133444E+0	2.233845E+0	1.994092E+0	2.043148E+0	2.023266E+0	2.183149E+0	2.097422E+0	2.047818E+0	1.907693E+0	2.128727E+0	2.078046E+0	2.174279E+0	1.910178E+0	2.083723E+0	2.006089E+0	2.013494E+0	1.987197E+0	2.071207E+0	2.031741E+0	2.043152E+0	1.924982E+0	2.071077E+0	2.014522E+0	1.958442E+0	2.086315E+0	2.088926E+0	2.051583E+0	1.999324E+0	1.990980E+0	2.073964E+0	2.013724E+0	2.055548E+0	1.655546E+0	2.050095E+0	1.994407E+0	2.017412E+0	1.847105E+0	2.110717E+0	1.981549E+0	2.029405E+0	1.951628E+0	2.231623E+0	1.747549E+0	1.643581E+0
5.354060E+2	2.283727E+0	1.755607E+0	1.841783E+0	1.944974E+0	2.061910E+0	1.963796E+0	2.009095E+0	2.128272E+0	2.074430E+0	2.063856E+0	2.218578E+0	2.253420E+0	2.053776E+0	2.109519E+0	2.286362E+0	2.075118E+0	2.224473E+0	2.124965E+0	2.227439E+0	2.173098E+0	2.227069E+0	2.035448E+0	2.134059E+0	2.081515E+0	2.107327E+0	2.038896E+0	2.199293E+0	2.079656E+0	2.167044E+0	2.135949E+0	2.370520E+0	2.091435E+0	2.214085E+0	2.117574E+0	2.129493E+0	2.091829E+0	2.031385E+0	2.145998E+0	2.140796E+0	2.034330E+0	2.078358E+0	2.031194E+0	2.200372E+0	2.272134E+0	2.050136E+0	2.149458E+0	2.358536E+0	2.248391E+0	2.086597E+0	2.171017E+0	2.261523E+0	1.919760E+0	2.106751E+0	2.109762E+0	2.113882E+0	1.966610E+0	1.847081E+0	2.163951E+0	2.187667E+0	2.096059E+0	1.951060E+0	2.176931E+0	2.329543E+0	2.204033E+0	1.963480E+0	2.236502E+0	2.244408E+0	1.974627E+0	1.943186E+0	2.102115E+0	2.036717E+0	1.975856E+0	2.121820E+0	2.211316E+0	2.275773E+0	1.919098E+0	2.049040E+0	2.075668E+0	2.418149E+0	2.091545E+0	2.085859E+0	2.143165E+0	2.172344E+0	2.100798E+0	2.034398E+0	2.066376E+0	2.046080E+0	2.007161E+0	2.057168E+0	2.037811E+0	1.921091E+0	2.062985E+0	1.997561E+0	2.099092E+0	2.235951E+0	2.129382E+0	2.090763E+0	2.050517E+0	2.156486E+0	2.056963E+0	1.966559E+0	2.098178E+0	2.089006E+0	2.137697E+0	2.012154E+0	2.206554E+0	2.133084E+0	2.159775E+0	2.193212E+0	2.194231E+0	2.386330E+0	2.133915E+0	2.052781E+0	2.186080E+0	2.174995E+0	2.052935E+0	2.014801E+0	1.991745E+0	2.158241E+0	2.102992E+0	2.091075E+0	2.109682E+0	2.176571E+0	2.093339E+0	2.207599E+0	2.137155E+0	2.173173E+0	2.071463E+0	2.159048E+0	2.164878E+0	2.055719E+0	1.983161E+0	2.042101E+0	2.198564E+0	2.046341E+0	2.013339E+0	1.942780E+0	2.149654E+0	2.132429E+0	2.151940E+0	1.933533E+0	2.010766E+0	1.946944E+0	1.954415E+0	1.933572E+0	1.987995E+0	2.005649E+0	1.985113E+0	1.936290E+0	1.946293E+0	2.028842E+0	2.007628E+0	1.998660E+0	2.038882E+0	2.108422E+0	1.994138E+0	1.961742E+0	2.091119E+0	1.943730E+0	2.026023E+0	1.653898E+0	2.019931E+0	1.934446E+0	2.021599E+0	1.804192E+0	2.040124E+0	1.964925E+0	1.936737E+0	1.932093E+0	2.148209E+0	1.735998E+0	1.951600E+0
5.355680E+2	2.102070E+0	1.634085E+0	1.648352E+0	1.740038E+0	1.892479E+0	1.807011E+0	1.864634E+0	1.970435E+0	1.852612E+0	1.865568E+0	1.983598E+0	2.007532E+0	1.867751E+0	1.863531E+0	1.986829E+0	1.844337E+0	1.920128E+0	1.925793E+0	2.006909E+0	1.932246E+0	1.975353E+0	1.854654E+0	1.961112E+0	1.861540E+0	1.938385E+0	1.808828E+0	1.957054E+0	1.871559E+0	1.903659E+0	1.891271E+0	2.100844E+0	1.865221E+0	1.958794E+0	1.943677E+0	1.975259E+0	1.845631E+0	1.929299E+0	1.890684E+0	1.891815E+0	1.891236E+0	1.840366E+0	1.862909E+0	1.932096E+0	2.038565E+0	1.799471E+0	1.844141E+0	2.131577E+0	1.955441E+0	1.909172E+0	1.942843E+0	1.973867E+0	1.777915E+0	1.905391E+0	1.856467E+0	1.967707E+0	1.723134E+0	1.680924E+0	1.899060E+0	2.055736E+0	1.873251E+0	1.759704E+0	1.920306E+0	2.111034E+0	1.924896E+0	1.800034E+0	1.939497E+0	1.950419E+0	1.771216E+0	1.740789E+0	1.879738E+0	1.943457E+0	1.793708E+0	1.909553E+0	1.877061E+0	1.949736E+0	1.711413E+0	1.862641E+0	1.882387E+0	2.142277E+0	1.821385E+0	1.842968E+0	1.960163E+0	2.027145E+0	1.945117E+0	1.902248E+0	1.815390E+0	1.896434E+0	1.838507E+0	1.839591E+0	1.880559E+0	1.759675E+0	1.896103E+0	1.809008E+0	1.880353E+0	2.055706E+0	1.918720E+0	1.978849E+0	1.911008E+0	1.979187E+0	1.902867E+0	1.778333E+0	1.792417E+0	1.863435E+0	1.921447E+0	1.929802E+0	1.907967E+0	2.000623E+0	1.953101E+0	1.965312E+0	1.966746E+0	2.179240E+0	1.880293E+0	1.835418E+0	1.979234E+0	1.960051E+0	1.871074E+0	1.806528E+0	1.834387E+0	1.857069E+0	1.826326E+0	1.910643E+0	1.873222E+0	1.978486E+0	1.905268E+0	1.922353E+0	1.974174E+0	2.163088E+0	1.836178E+0	1.990099E+0	1.999487E+0	1.896136E+0	1.824667E+0	1.839104E+0	1.914986E+0	1.873093E+0	1.824882E+0	1.760321E+0	1.883766E+0	1.974183E+0	1.902183E+0	1.740351E+0	1.864848E+0	2.085133E+0	1.832187E+0	1.757653E+0	1.812876E+0	1.931954E+0	1.828956E+0	1.716618E+0	1.875360E+0	1.858971E+0	1.829259E+0	1.831211E+0	1.908532E+0	1.922582E+0	1.828201E+0	1.784463E+0	1.854624E+0	2.034672E+0	1.785095E+0	1.530156E+0	1.797254E+0	1.991803E+0	1.850032E+0	1.583422E+0	1.833534E+0	1.800680E+0	1.787422E+0	1.800931E+0	1.922867E+0	1.572345E+0	1.583965E+0
5.357040E+2	1.856920E+0	1.494055E+0	1.550412E+0	1.584441E+0	1.626379E+0	1.621231E+0	1.677900E+0	1.708564E+0	1.649882E+0	1.722112E+0	1.832889E+0	1.825929E+0	1.651442E+0	1.710209E+0	1.854075E+0	1.647023E+0	1.769225E+0	1.761942E+0	1.761319E+0	1.686271E+0	1.742093E+0	1.639875E+0	1.716697E+0	1.623153E+0	1.715141E+0	1.591243E+0	1.740281E+0	1.695804E+0	1.707705E+0	1.706536E+0	1.909602E+0	1.656216E+0	1.787428E+0	1.698483E+0	1.788587E+0	1.658232E+0	1.682464E+0	1.579804E+0	1.749746E+0	1.648258E+0	1.692405E+0	1.682159E+0	1.767769E+0	1.743777E+0	1.675699E+0	1.702404E+0	1.922296E+0	1.855622E+0	1.682606E+0	1.699704E+0	1.812429E+0	1.546644E+0	1.715306E+0	1.695968E+0	1.737464E+0	1.638766E+0	1.520722E+0	1.730336E+0	1.770748E+0	1.743329E+0	1.619167E+0	1.747944E+0	1.875043E+0	1.783148E+0	1.618556E+0	1.761523E+0	1.724654E+0	1.683755E+0	1.583994E+0	1.745292E+0	1.626557E+0	1.559309E+0	1.747117E+0	1.687362E+0	1.791274E+0	1.520780E+0	1.621733E+0	1.741060E+0	1.864985E+0	1.683112E+0	1.720036E+0	1.740202E+0	1.753086E+0	1.671580E+0	1.650334E+0	1.653754E+0	1.718794E+0	1.657344E+0	1.630333E+0	1.619082E+0	1.540654E+0	1.647041E+0	1.657507E+0	1.666114E+0	1.729386E+0	1.757877E+0	1.720042E+0	1.692536E+0	1.840205E+0	1.674351E+0	1.597469E+0	1.661864E+0	1.696993E+0	1.736455E+0	1.613704E+0	1.741676E+0	1.733830E+0	1.788045E+0	1.700139E+0	1.813691E+0	1.910654E+0	1.665087E+0	1.649471E+0	1.768489E+0	1.798690E+0	1.655609E+0	1.583305E+0	1.627975E+0	1.697342E+0	1.635046E+0	1.799047E+0	1.694838E+0	1.806979E+0	1.672479E+0	1.745486E+0	1.780193E+0	1.899880E+0	1.641685E+0	1.786600E+0	1.797056E+0	1.706054E+0	1.654808E+0	1.619363E+0	1.791691E+0	1.709320E+0	1.652961E+0	1.572126E+0	1.710820E+0	1.799439E+0	1.684916E+0	1.529164E+0	1.668314E+0	1.868447E+0	1.609117E+0	1.552961E+0	1.607329E+0	1.737607E+0	1.647237E+0	1.531946E+0	1.659450E+0	1.676753E+0	1.659843E+0	1.633009E+0	1.683038E+0	1.674796E+0	1.666158E+0	1.618324E+0	1.653837E+0	1.884464E+0	1.622191E+0	1.381667E+0	1.632332E+0	1.777347E+0	1.662424E+0	1.501550E+0	1.697020E+0	1.641985E+0	1.571754E+0	1.592558E+0	1.762265E+0	1.497256E+0	1.499510E+0
5.358550E+2	1.563376E+0	1.252243E+0	1.262101E+0	1.269448E+0	1.473740E+0	1.349936E+0	1.405564E+0	1.490244E+0	1.458479E+0	1.431877E+0	1.558538E+0	1.471350E+0	1.408312E+0	1.420833E+0	1.581858E+0	1.402752E+0	1.535258E+0	1.495028E+0	1.526379E+0	1.439015E+0	1.549849E+0	1.418015E+0	1.504682E+0	1.428669E+0	1.479232E+0	1.371878E+0	1.555492E+0	1.470012E+0	1.501212E+0	1.464993E+0	1.631211E+0	1.409435E+0	1.466406E+0	1.495604E+0	1.563356E+0	1.432714E+0	1.417419E+0	1.463164E+0	1.425217E+0	1.400481E+0	1.388301E+0	1.380386E+0	1.493889E+0	1.560780E+0	1.431712E+0	1.441218E+0	1.631312E+0	1.461767E+0	1.480005E+0	1.491892E+0	1.554127E+0	1.360390E+0	1.437602E+0	1.462085E+0	1.485272E+0	1.392079E+0	1.311686E+0	1.463716E+0	1.557152E+0	1.506554E+0	1.349079E+0	1.491317E+0	1.629391E+0	1.474566E+0	1.381799E+0	1.504758E+0	1.543550E+0	1.406445E+0	1.384672E+0	1.394973E+0	1.409758E+0	1.337851E+0	1.472074E+0	1.510235E+0	1.569664E+0	1.314991E+0	1.415554E+0	1.511677E+0	1.629261E+0	1.429684E+0	1.430229E+0	1.485095E+0	1.539369E+0	1.501409E+0	1.390681E+0	1.457985E+0	1.450043E+0	1.410853E+0	1.388438E+0	1.441348E+0	1.352234E+0	1.374137E+0	1.410323E+0	1.427576E+0	1.550629E+0	1.385289E+0	1.457152E+0	1.446759E+0	1.571982E+0	1.494568E+0	1.412396E+0	1.423083E+0	1.451545E+0	1.513652E+0	1.413869E+0	1.410920E+0	1.497512E+0	1.564725E+0	1.481786E+0	1.515028E+0	1.605062E+0	1.450409E+0	1.497509E+0	1.480982E+0	1.539402E+0	1.447396E+0	1.433240E+0	1.422050E+0	1.472665E+0	1.408153E+0	1.546450E+0	1.424597E+0	1.541866E+0	1.505451E+0	1.484164E+0	1.490866E+0	1.615489E+0	1.410877E+0	1.515268E+0	1.563339E+0	1.503652E+0	1.419910E+0	1.369278E+0	1.499383E+0	1.416007E+0	1.391297E+0	1.360327E+0	1.556335E+0	1.506171E+0	1.476444E+0	1.348143E+0	1.454001E+0	1.626892E+0	1.389098E+0	1.399279E+0	1.434690E+0	1.537390E+0	1.407474E+0	1.296663E+0	1.391766E+0	1.407128E+0	1.439246E+0	1.409301E+0	1.493383E+0	1.465966E+0	1.425680E+0	1.407167E+0	1.453512E+0	1.674484E+0	1.399184E+0	1.181485E+0	1.403878E+0	1.575930E+0	1.474819E+0	1.247465E+0	1.430216E+0	1.369426E+0	1.412149E+0	1.454884E+0	1.504555E+0	1.285472E+0	1.395182E+0
5.360120E+2	1.300631E+0	1.077053E+0	1.020311E+0	1.185957E+0	1.140475E+0	1.072739E+0	1.238632E+0	1.250758E+0	1.146628E+0	1.168229E+0	1.258972E+0	1.253299E+0	1.175564E+0	1.180740E+0	1.322582E+0	1.144001E+0	1.239154E+0	1.204380E+0	1.240066E+0	1.194963E+0	1.217134E+0	1.179161E+0	1.175936E+0	1.143075E+0	1.308480E+0	1.134678E+0	1.204871E+0	1.239332E+0	1.224766E+0	1.213609E+0	1.347007E+0	1.183217E+0	1.243980E+0	1.220269E+0	1.278144E+0	1.181990E+0	1.221867E+0	1.177544E+0	1.204746E+0	1.132532E+0	1.189342E+0	1.149775E+0	1.250509E+0	1.278637E+0	1.190397E+0	1.183594E+0	1.411522E+0	1.227405E+0	1.209080E+0	1.239768E+0	1.289362E+0	1.071148E+0	1.240858E+0	1.195536E+0	1.235420E+0	1.114672E+0	1.046073E+0	1.186157E+0	1.273305E+0	1.202389E+0	1.154978E+0	1.230008E+0	1.269653E+0	1.235226E+0	1.172681E+0	1.254236E+0	1.208623E+0	1.154219E+0	1.112588E+0	1.205629E+0	1.215421E+0	1.110163E+0	1.179558E+0	1.199409E+0	1.276416E+0	1.102262E+0	1.173769E+0	1.243993E+0	1.306152E+0	1.226944E+0	1.161208E+0	1.211808E+0	1.289199E+0	1.232913E+0	1.179548E+0	1.187919E+0	1.202163E+0	1.189377E+0	1.218217E+0	1.170832E+0	1.160216E+0	1.155815E+0	1.138751E+0	1.151228E+0	1.296113E+0	1.256941E+0	1.231571E+0	1.206919E+0	1.229727E+0	1.197564E+0	1.143725E+0	1.239136E+0	1.177783E+0	1.209697E+0	1.189208E+0	1.222178E+0	1.236319E+0	1.285231E+0	1.290671E+0	1.272655E+0	1.303799E+0	1.200472E+0	1.224360E+0	1.210393E+0	1.259791E+0	1.187130E+0	1.165162E+0	1.152014E+0	1.166201E+0	1.157342E+0	1.239053E+0	1.221322E+0	1.272525E+0	1.241097E+0	1.227070E+0	1.302052E+0	1.383035E+0	1.133311E+0	1.277210E+0	1.238943E+0	1.227292E+0	1.141444E+0	1.170989E+0	1.246633E+0	1.150606E+0	1.131048E+0	1.102594E+0	1.177817E+0	1.244672E+0	1.227361E+0	1.137931E+0	1.195001E+0	1.340557E+0	1.181310E+0	1.144231E+0	1.174498E+0	1.209348E+0	1.200187E+0	1.117373E+0	1.148411E+0	1.194787E+0	1.176423E+0	1.154194E+0	1.157927E+0	1.271184E+0	1.139831E+0	1.143104E+0	1.230930E+0	1.379694E+0	1.111862E+0	1.017599E+0	1.230613E+0	1.279994E+0	1.200731E+0	1.058876E+0	1.202863E+0	1.169920E+0	1.197623E+0	1.187907E+0	1.245600E+0	1.133371E+0	1.166653E+0
5.362630E+2	9.593145E-1	7.457941E-1	7.601583E-1	8.254266E-1	8.998127E-1	8.319132E-1	9.331193E-1	9.157174E-1	9.099088E-1	9.123359E-1	9.876977E-1	9.470992E-1	9.246456E-1	9.296952E-1	9.938132E-1	8.992317E-1	9.646080E-1	8.894139E-1	9.543793E-1	8.964624E-1	9.495268E-1	8.945199E-1	9.067468E-1	9.117692E-1	9.048344E-1	8.784544E-1	9.336118E-1	8.866028E-1	9.019647E-1	9.081014E-1	1.036181E+0	8.780869E-1	9.170902E-1	9.060960E-1	9.507030E-1	9.215763E-1	9.036193E-1	8.859494E-1	9.139537E-1	8.857143E-1	8.770533E-1	9.087746E-1	9.455072E-1	9.399296E-1	8.769548E-1	9.099238E-1	1.022587E+0	9.713462E-1	9.153763E-1	9.091893E-1	9.893792E-1	8.651620E-1	9.298527E-1	8.873197E-1	9.108418E-1	8.776161E-1	7.870115E-1	9.252966E-1	9.460558E-1	9.449739E-1	8.867199E-1	9.223124E-1	1.019404E+0	9.244661E-1	8.902516E-1	9.714025E-1	1.002086E+0	9.433545E-1	8.912318E-1	9.367293E-1	9.287989E-1	8.465228E-1	9.336365E-1	9.668604E-1	9.801302E-1	8.592318E-1	9.583563E-1	9.476873E-1	1.009963E+0	9.267684E-1	9.230675E-1	9.245863E-1	9.478856E-1	9.663093E-1	8.966633E-1	8.887444E-1	9.222161E-1	8.696767E-1	8.982507E-1	9.009180E-1	8.235820E-1	9.061238E-1	9.164256E-1	8.690270E-1	1.003466E+0	8.859786E-1	9.523616E-1	9.332394E-1	9.465684E-1	9.367797E-1	8.682230E-1	9.333771E-1	9.492308E-1	9.596743E-1	9.179198E-1	9.345111E-1	9.452740E-1	9.911739E-1	9.447501E-1	9.707334E-1	1.058270E+0	9.147593E-1	9.512112E-1	9.567152E-1	9.931132E-1	8.932568E-1	8.463453E-1	8.591549E-1	9.352695E-1	8.938480E-1	9.710825E-1	9.338940E-1	9.941256E-1	9.405775E-1	9.141449E-1	1.001920E+0	1.029063E+0	9.418009E-1	9.290837E-1	9.535000E-1	9.671505E-1	9.103347E-1	9.078231E-1	9.430232E-1	8.867825E-1	9.010281E-1	8.773970E-1	9.063917E-1	9.880579E-1	9.484972E-1	8.902480E-1	9.537789E-1	1.030453E+0	9.399025E-1	8.335944E-1	8.857378E-1	9.563044E-1	9.334800E-1	8.723978E-1	8.879733E-1	9.118313E-1	9.001814E-1	8.938544E-1	9.361438E-1	9.576187E-1	8.760197E-1	8.846129E-1	9.684677E-1	1.084393E+0	8.872751E-1	7.294226E-1	9.103918E-1	1.006222E+0	9.168805E-1	8.217296E-1	9.588990E-1	8.857733E-1	9.476298E-1	9.739535E-1	9.368463E-1	8.426482E-1	7.692136E-1
5.365140E+2	7.455972E-1	6.014466E-1	5.985568E-1	6.318790E-1	6.861166E-1	6.613697E-1	7.110751E-1	7.288451E-1	6.892892E-1	6.719509E-1	7.576376E-1	7.489311E-1	6.880049E-1	6.862318E-1	7.767113E-1	8.098163E-1	7.249358E-1	7.145612E-1	7.313422E-1	7.427276E-1	7.147297E-1	7.156158E-1	6.856786E-1	7.125630E-1	6.990893E-1	6.680058E-1	7.109193E-1	6.998634E-1	7.072710E-1	7.215746E-1	7.786074E-1	7.963043E-1	6.993602E-1	6.858274E-1	7.462812E-1	7.729521E-1	6.769156E-1	7.114549E-1	7.390987E-1	6.797117E-1	6.837615E-1	6.423227E-1	7.394747E-1	7.569339E-1	6.783822E-1	7.231713E-1	7.865502E-1	7.641113E-1	6.906031E-1	6.959904E-1	7.768672E-1	6.548589E-1	7.331057E-1	6.988876E-1	6.773328E-1	6.281785E-1	5.535584E-1	6.886218E-1	7.307445E-1	6.711650E-1	6.665279E-1	7.286705E-1	7.746738E-1	7.227443E-1	6.607027E-1	7.537508E-1	7.329063E-1	7.392697E-1	6.637268E-1	6.962084E-1	7.203015E-1	6.567023E-1	7.498430E-1	7.091708E-1	6.959875E-1	6.490259E-1	6.950291E-1	6.940907E-1	7.954995E-1	6.718662E-1	6.944284E-1	7.240151E-1	7.643429E-1	7.198740E-1	6.752077E-1	6.869509E-1	7.002936E-1	6.630305E-1	6.909129E-1	7.153524E-1	6.813680E-1	6.997208E-1	7.044199E-1	6.777436E-1	7.920279E-1	6.693579E-1	7.040455E-1	7.242698E-1	7.296530E-1	6.806056E-1	6.458219E-1	6.907102E-1	6.714922E-1	7.373770E-1	6.714587E-1	7.220986E-1	7.431594E-1	7.304053E-1	7.440784E-1	7.427821E-1	8.151438E-1	7.211262E-1	7.242280E-1	7.284042E-1	7.492232E-1	7.021743E-1	6.770588E-1	6.711992E-1	7.336859E-1	6.962271E-1	7.278389E-1	7.009884E-1	7.435054E-1	6.742522E-1	7.485339E-1	7.417146E-1	8.056859E-1	6.746807E-1	7.204638E-1	7.549032E-1	6.856010E-1	6.792259E-1	6.844205E-1	7.508913E-1	7.193266E-1	7.064325E-1	6.094573E-1	7.334424E-1	7.870455E-1	7.440881E-1	6.678684E-1	7.335357E-1	7.966317E-1	6.755795E-1	6.694479E-1	6.578343E-1	7.710865E-1	7.192841E-1	6.731876E-1	7.072721E-1	6.787499E-1	6.607074E-1	6.858443E-1	7.081826E-1	7.532582E-1	7.023067E-1	6.734566E-1	7.296546E-1	8.202545E-1	6.980105E-1	5.759855E-1	6.697459E-1	7.552639E-1	7.006781E-1	5.817607E-1	7.133777E-1	6.968468E-1	6.667448E-1	7.162797E-1	7.052795E-1	6.231615E-1	5.059089E-1
5.367710E+2	5.457098E-1	4.830081E-1	4.791925E-1	4.535106E-1	5.243184E-1	5.571750E-1	5.355807E-1	5.619290E-1	5.610906E-1	5.617283E-1	5.884764E-1	6.243300E-1	5.465391E-1	5.784006E-1	6.473124E-1	6.504673E-1	5.695923E-1	5.779217E-1	5.922583E-1	6.485659E-1	5.901543E-1	5.475687E-1	5.889608E-1	5.742516E-1	5.886750E-1	5.823995E-1	6.078647E-1	6.046633E-1	5.559839E-1	5.547306E-1	5.965639E-1	6.738695E-1	5.872669E-1	5.820695E-1	5.675654E-1	6.159274E-1	5.566139E-1	5.759908E-1	5.400102E-1	5.812724E-1	5.597277E-1	5.758399E-1	5.795042E-1	6.178580E-1	5.399161E-1	5.849997E-1	6.389078E-1	6.697158E-1	5.845102E-1	5.672326E-1	6.048603E-1	5.623502E-1	5.706867E-1	5.809991E-1	5.381612E-1	5.378490E-1	5.321189E-1	5.653897E-1	5.696897E-1	5.594564E-1	5.223273E-1	5.805676E-1	6.316075E-1	6.671347E-1	5.230941E-1	5.995809E-1	5.759874E-1	6.538385E-1	5.366521E-1	5.943241E-1	5.494017E-1	5.507668E-1	5.628134E-1	5.960384E-1	6.364872E-1	5.537085E-1	5.758936E-1	5.840221E-1	6.570901E-1	6.566110E-1	5.412106E-1	6.137316E-1	5.732577E-1	6.461324E-1	5.585431E-1	5.438886E-1	5.847517E-1	6.014070E-1	5.302902E-1	5.966629E-1	5.577559E-1	6.043611E-1	5.871596E-1	5.629734E-1	6.231736E-1	6.184522E-1	6.055361E-1	5.550761E-1	6.380811E-1	5.515314E-1	5.385643E-1	5.601556E-1	5.676504E-1	6.239602E-1	5.703314E-1	5.976866E-1	5.858210E-1	6.208274E-1	5.763737E-1	6.041505E-1	6.426496E-1	5.759012E-1	6.254846E-1	5.625371E-1	6.506817E-1	5.954313E-1	5.585039E-1	5.556095E-1	6.119663E-1	5.576488E-1	5.881737E-1	6.120927E-1	6.263487E-1	5.927105E-1	5.923059E-1	5.951721E-1	6.735758E-1	5.950917E-1	6.263927E-1	5.716319E-1	6.032119E-1	5.440961E-1	5.698419E-1	5.972879E-1	5.597688E-1	5.434823E-1	5.112124E-1	6.208108E-1	6.349106E-1	5.721674E-1	5.243193E-1	5.844276E-1	6.451732E-1	5.686276E-1	5.465010E-1	5.808318E-1	6.126084E-1	6.080403E-1	5.369710E-1	5.866323E-1	5.710986E-1	5.543843E-1	5.785687E-1	5.821556E-1	6.261721E-1	5.901716E-1	5.514040E-1	5.840480E-1	6.812892E-1	5.614668E-1	4.577453E-1	5.901722E-1	6.046889E-1	5.953679E-1	5.072294E-1	5.919146E-1	5.724067E-1	5.328806E-1	5.711623E-1	5.894962E-1	5.268961E-1	5.506213E-1
5.370070E+2	5.318810E-1	4.077505E-1	4.369554E-1	4.003797E-1	4.958257E-1	4.195606E-1	4.831458E-1	5.153622E-1	4.710536E-1	4.791998E-1	5.337295E-1	5.441345E-1	4.556896E-1	4.819417E-1	5.461899E-1	5.660473E-1	4.884331E-1	4.679150E-1	5.252218E-1	5.633717E-1	5.235080E-1	4.758181E-1	4.879556E-1	4.977795E-1	4.999815E-1	4.789588E-1	5.373849E-1	5.283813E-1	4.881363E-1	4.943445E-1	5.205512E-1	5.691304E-1	5.056907E-1	4.812092E-1	5.418595E-1	5.351536E-1	4.506913E-1	4.818545E-1	4.967713E-1	4.991596E-1	4.955068E-1	4.563781E-1	5.228608E-1	4.887632E-1	5.034071E-1	4.758000E-1	5.447796E-1	5.726086E-1	5.101856E-1	4.827912E-1	4.997779E-1	5.043781E-1	4.784615E-1	4.924644E-1	5.414306E-1	4.415589E-1	4.362363E-1	4.530988E-1	4.960157E-1	5.199937E-1	4.815847E-1	5.235391E-1	5.451237E-1	5.444661E-1	4.678103E-1	5.105930E-1	5.046606E-1	5.236585E-1	5.064210E-1	5.087226E-1	4.849480E-1	4.525015E-1	4.676809E-1	5.183318E-1	5.205235E-1	4.874275E-1	5.037969E-1	4.818790E-1	5.470240E-1	5.350652E-1	4.735100E-1	5.119312E-1	5.569142E-1	5.207087E-1	4.713034E-1	4.896752E-1	4.722635E-1	4.855737E-1	4.362199E-1	4.978544E-1	4.515452E-1	5.190397E-1	4.722448E-1	4.747584E-1	5.508786E-1	5.420933E-1	5.186836E-1	4.957095E-1	4.926054E-1	5.324332E-1	4.781007E-1	4.820169E-1	5.274060E-1	5.342351E-1	4.964534E-1	4.908733E-1	4.968904E-1	5.778280E-1	5.228615E-1	5.278565E-1	5.921986E-1	6.101026E-1	4.882690E-1	5.261115E-1	4.923990E-1	5.216337E-1	5.045676E-1	4.837301E-1	4.950575E-1	5.059254E-1	5.500838E-1	5.380137E-1	5.091913E-1	5.341851E-1	5.102039E-1	5.219010E-1	5.918889E-1	5.562924E-1	5.220825E-1	5.039430E-1	5.130385E-1	5.358876E-1	4.725282E-1	5.269079E-1	4.923644E-1	4.872760E-1	4.767631E-1	5.340286E-1	5.176026E-1	5.227567E-1	4.659264E-1	5.041727E-1	5.539662E-1	4.917236E-1	4.673704E-1	4.715380E-1	5.186955E-1	5.147615E-1	4.362892E-1	4.882556E-1	4.930756E-1	5.161284E-1	4.843755E-1	4.907244E-1	5.303780E-1	4.890549E-1	5.022118E-1	4.991887E-1	5.954578E-1	4.560270E-1	4.131990E-1	5.125236E-1	5.486309E-1	5.095841E-1	4.671398E-1	5.067875E-1	4.902866E-1	4.567961E-1	4.883718E-1	4.986130E-1	4.287040E-1	4.512611E-1
5.372740E+2	4.998239E-1	3.886268E-1	4.167557E-1	4.535108E-1	4.424015E-1	4.018672E-1	4.408774E-1	5.050808E-1	4.758242E-1	4.420903E-1	4.697561E-1	5.149724E-1	4.474695E-1	5.042663E-1	5.193515E-1	5.630502E-1	4.763861E-1	4.545981E-1	4.444016E-1	4.826611E-1	4.604515E-1	4.545768E-1	4.488871E-1	4.387728E-1	4.999815E-1	4.676638E-1	4.734198E-1	4.661352E-1	4.717011E-1	4.500616E-1	4.982796E-1	5.361307E-1	4.957142E-1	4.586031E-1	4.849400E-1	5.254611E-1	4.550052E-1	4.864464E-1	4.411784E-1	4.458584E-1	4.369529E-1	4.688438E-1	5.010753E-1	4.827747E-1	4.352866E-1	4.526227E-1	5.165888E-1	5.194437E-1	4.688267E-1	4.552435E-1	5.068220E-1	4.377716E-1	4.917825E-1	4.365972E-1	4.625041E-1	4.461442E-1	4.195607E-1	4.957112E-1	4.880196E-1	4.866024E-1	4.733446E-1	4.558714E-1	5.465039E-1	5.760876E-1	4.359620E-1	4.913223E-1	4.649662E-1	5.406097E-1	4.500569E-1	4.682483E-1	4.610222E-1	4.630469E-1	4.612095E-1	4.840490E-1	4.749872E-1	4.350341E-1	4.668695E-1	4.638278E-1	5.375764E-1	5.296523E-1	4.384714E-1	4.840573E-1	5.097711E-1	4.797405E-1	4.516873E-1	4.455016E-1	4.554670E-1	4.448001E-1	4.445392E-1	4.858051E-1	4.533453E-1	4.437556E-1	4.736517E-1	4.689071E-1	4.860113E-1	5.220559E-1	4.644736E-1	4.939286E-1	4.783173E-1	5.139942E-1	4.355134E-1	4.737666E-1	4.692744E-1	5.201214E-1	4.746539E-1	4.732739E-1	4.987564E-1	5.535544E-1	4.975389E-1	5.087829E-1	5.552009E-1	5.885295E-1	4.485153E-1	4.721241E-1	5.256574E-1	5.124096E-1	4.698561E-1	4.541040E-1	4.671534E-1	4.839680E-1	5.180073E-1	4.722317E-1	5.224776E-1	4.953870E-1	5.064508E-1	4.758718E-1	5.485252E-1	5.796712E-1	4.830464E-1	5.096897E-1	4.812509E-1	5.062094E-1	4.594487E-1	5.176614E-1	4.981575E-1	4.461842E-1	4.155194E-1	4.786347E-1	5.267673E-1	5.092202E-1	4.542478E-1	4.777258E-1	5.230111E-1	5.742293E-1	4.470975E-1	4.721585E-1	5.265219E-1	4.981785E-1	4.578249E-1	4.711700E-1	4.827050E-1	4.724070E-1	4.739098E-1	4.913418E-1	4.684317E-1	4.897028E-1	4.437374E-1	4.838861E-1	5.637819E-1	5.456508E-1	4.038494E-1	4.676023E-1	5.232094E-1	5.521271E-1	4.180171E-1	4.808336E-1	4.585469E-1	4.608004E-1	4.688371E-1	4.774489E-1	4.267793E-1	4.860370E-1
5.375160E+2	5.337672E-1	3.830754E-1	4.149192E-1	5.180266E-1	4.627535E-1	4.284073E-1	4.258963E-1	4.730283E-1	4.406439E-1	4.847388E-1	5.220420E-1	5.169612E-1	4.647744E-1	4.575113E-1	4.953888E-1	5.400720E-1	4.979439E-1	4.574930E-1	4.450292E-1	5.345462E-1	4.983884E-1	4.531605E-1	4.674682E-1	4.694562E-1	4.909313E-1	4.801475E-1	5.213934E-1	4.710176E-1	4.733871E-1	4.907663E-1	5.554103E-1	5.739130E-1	4.851507E-1	4.522267E-1	4.708631E-1	5.364461E-1	4.746558E-1	4.878238E-1	4.839420E-1	4.689079E-1	4.860627E-1	4.491064E-1	4.811565E-1	5.087260E-1	4.575484E-1	4.651025E-1	4.950876E-1	5.785765E-1	4.610345E-1	5.091422E-1	4.751214E-1	4.834091E-1	5.045920E-1	5.085616E-1	4.821193E-1	4.484370E-1	4.332586E-1	4.628882E-1	4.954444E-1	5.036013E-1	4.504557E-1	4.758736E-1	5.216629E-1	5.422851E-1	4.401684E-1	4.816864E-1	5.021801E-1	5.406094E-1	4.690154E-1	5.105836E-1	4.702996E-1	4.227819E-1	4.741521E-1	4.966196E-1	4.938089E-1	4.419778E-1	4.624731E-1	5.056536E-1	5.309627E-1	5.729558E-1	4.729161E-1	4.749676E-1	4.946860E-1	5.389863E-1	4.491062E-1	4.746160E-1	4.692097E-1	4.869634E-1	4.771756E-1	4.749598E-1	4.479446E-1	4.914354E-1	4.492619E-1	4.684571E-1	5.058182E-1	5.540077E-1	4.831273E-1	4.945220E-1	4.952031E-1	5.238719E-1	4.239463E-1	4.965768E-1	4.464191E-1	4.873558E-1	4.607260E-1	4.914803E-1	4.856966E-1	4.987653E-1	5.104387E-1	4.925003E-1	5.566426E-1	5.780059E-1	4.972459E-1	5.026957E-1	5.447495E-1	5.150453E-1	4.335416E-1	4.448761E-1	4.604182E-1	4.678655E-1	5.220169E-1	4.793429E-1	5.110030E-1	5.499666E-1	5.144264E-1	5.298857E-1	5.676863E-1	5.368925E-1	5.016046E-1	4.854241E-1	4.695738E-1	5.415703E-1	4.594486E-1	5.089279E-1	4.760401E-1	4.929441E-1	4.633662E-1	5.235651E-1	5.035500E-1	5.464466E-1	4.377030E-1	5.005250E-1	5.290914E-1	5.645529E-1	4.438278E-1	4.380046E-1	4.971741E-1	5.189070E-1	4.411343E-1	4.685808E-1	4.664092E-1	4.664448E-1	4.778340E-1	5.203776E-1	4.837590E-1	5.234086E-1	4.794714E-1	4.755391E-1	5.602056E-1	5.604123E-1	3.901008E-1	4.624689E-1	5.323349E-1	5.298096E-1	4.259221E-1	4.756431E-1	4.897828E-1	4.636612E-1	4.520929E-1	5.197785E-1	3.863478E-1	4.860366E-1
5.377580E+2	5.953673E-1	4.706709E-1	4.577681E-1	5.104367E-1	5.049838E-1	5.384991E-1	5.500271E-1	5.455999E-1	4.966935E-1	5.251721E-1	6.069304E-1	5.772729E-1	5.063062E-1	5.430183E-1	5.840508E-1	6.269901E-1	5.201364E-1	5.426034E-1	5.715831E-1	5.742612E-1	5.650336E-1	5.253827E-1	5.513221E-1	5.482888E-1	5.597140E-1	5.342459E-1	5.782509E-1	5.863559E-1	5.260634E-1	5.337074E-1	6.483692E-1	6.298695E-1	5.690733E-1	5.838086E-1	5.602210E-1	6.359590E-1	5.441528E-1	5.378768E-1	5.191034E-1	5.510205E-1	5.427277E-1	5.114343E-1	6.044021E-1	6.018878E-1	5.047427E-1	5.448855E-1	6.097616E-1	6.284858E-1	5.299651E-1	5.271083E-1	5.596566E-1	5.413816E-1	5.542912E-1	5.322338E-1	5.582429E-1	5.195083E-1	4.612491E-1	5.590552E-1	6.011007E-1	5.564201E-1	5.278205E-1	5.716301E-1	5.745651E-1	6.257001E-1	5.158831E-1	6.307548E-1	5.462164E-1	6.056994E-1	5.079579E-1	5.310539E-1	5.425656E-1	5.363866E-1	5.433989E-1	5.594706E-1	5.684876E-1	5.429773E-1	5.332511E-1	5.655307E-1	6.429187E-1	6.177363E-1	5.216127E-1	5.634369E-1	6.059429E-1	6.133581E-1	5.384108E-1	5.293313E-1	5.394505E-1	5.717538E-1	5.418092E-1	5.303889E-1	4.725473E-1	5.478986E-1	5.229014E-1	5.341686E-1	5.805893E-1	5.940826E-1	5.723106E-1	5.117384E-1	5.913207E-1	6.292392E-1	4.865129E-1	5.455955E-1	5.264120E-1	5.317144E-1	5.267312E-1	5.655211E-1	5.702740E-1	5.695058E-1	5.486625E-1	5.636775E-1	6.613886E-1	6.916607E-1	5.664950E-1	5.618871E-1	5.841665E-1	5.703936E-1	5.061696E-1	5.211270E-1	5.576012E-1	5.049498E-1	5.447370E-1	5.297170E-1	5.961535E-1	5.631190E-1	5.552429E-1	5.871874E-1	6.438258E-1	6.761728E-1	5.783973E-1	5.748249E-1	5.305544E-1	5.687226E-1	5.421132E-1	6.327352E-1	5.171144E-1	5.737108E-1	5.284371E-1	6.017310E-1	6.123050E-1	5.545688E-1	5.077746E-1	5.657313E-1	5.937657E-1	6.282148E-1	5.053008E-1	5.193540E-1	5.747828E-1	5.976760E-1	5.170493E-1	5.509062E-1	5.503579E-1	5.295427E-1	5.406301E-1	5.654759E-1	5.693343E-1	5.746148E-1	5.611495E-1	5.617901E-1	6.046538E-1	6.368561E-1	4.368470E-1	5.497436E-1	5.720971E-1	5.737470E-1	4.846440E-1	5.301454E-1	5.688801E-1	5.529029E-1	5.348833E-1	5.894965E-1	5.037928E-1	5.456530E-1
5.380160E+2	6.871400E-1	5.027480E-1	5.606052E-1	6.242887E-1	6.393070E-1	5.881388E-1	6.383094E-1	6.586919E-1	6.141590E-1	6.232092E-1	6.795162E-1	6.906069E-1	6.486363E-1	6.335801E-1	7.168044E-1	7.643594E-1	6.596282E-1	6.850331E-1	6.555353E-1	6.927643E-1	6.701283E-1	6.372567E-1	6.561389E-1	6.238175E-1	6.634915E-1	6.150961E-1	6.718297E-1	6.900999E-1	6.512230E-1	6.513482E-1	7.161507E-1	7.580438E-1	6.864487E-1	6.684379E-1	6.801806E-1	7.083328E-1	6.424072E-1	6.508404E-1	6.131836E-1	6.672270E-1	6.258373E-1	6.319350E-1	7.145765E-1	6.963802E-1	6.298523E-1	6.670110E-1	7.430694E-1	7.820141E-1	6.192750E-1	6.846119E-1	6.794158E-1	6.437574E-1	6.593257E-1	6.453878E-1	6.497787E-1	6.047936E-1	5.678513E-1	6.557982E-1	6.884820E-1	6.620584E-1	5.937404E-1	6.584491E-1	7.015305E-1	7.369195E-1	5.831858E-1	7.089732E-1	6.938314E-1	7.474059E-1	5.730322E-1	6.775997E-1	6.690314E-1	6.241068E-1	6.074676E-1	6.754593E-1	7.111662E-1	6.244086E-1	6.369996E-1	6.544659E-1	7.236966E-1	7.550292E-1	6.587965E-1	6.646315E-1	6.524576E-1	7.041170E-1	6.251351E-1	6.367536E-1	6.870598E-1	6.667370E-1	6.755544E-1	6.442587E-1	6.159617E-1	6.325931E-1	6.195234E-1	6.435376E-1	7.019064E-1	7.354275E-1	6.719863E-1	6.316585E-1	6.530188E-1	6.911423E-1	6.326775E-1	6.581931E-1	6.714920E-1	6.738635E-1	6.666148E-1	6.984302E-1	7.077114E-1	7.234695E-1	6.408755E-1	6.911443E-1	7.257735E-1	8.237306E-1	6.710092E-1	6.828719E-1	7.011841E-1	6.936090E-1	6.359387E-1	6.260322E-1	6.629634E-1	6.654860E-1	6.683642E-1	6.203909E-1	7.453175E-1	6.689916E-1	6.912972E-1	6.637462E-1	7.492114E-1	7.502901E-1	6.788679E-1	6.974311E-1	6.920887E-1	7.183751E-1	6.090814E-1	6.686956E-1	6.387570E-1	6.294444E-1	5.966984E-1	6.380439E-1	6.507971E-1	7.244593E-1	5.909846E-1	6.692410E-1	7.076357E-1	8.095236E-1	5.818154E-1	6.255431E-1	6.915221E-1	7.503768E-1	6.333455E-1	6.404802E-1	6.580102E-1	6.154951E-1	6.256651E-1	6.871781E-1	6.810934E-1	6.783238E-1	6.483965E-1	6.596336E-1	7.722297E-1	7.755094E-1	5.550872E-1	6.241830E-1	7.220200E-1	7.006787E-1	5.964411E-1	6.728906E-1	6.701453E-1	6.169747E-1	5.916277E-1	7.152388E-1	5.981323E-1	5.704934E-1
5.382740E+2	8.851411E-1	7.093994E-1	7.883157E-1	7.229606E-1	7.583662E-1	7.434468E-1	8.089886E-1	8.195595E-1	7.685929E-1	8.148526E-1	8.517529E-1	8.801591E-1	7.792870E-1	7.999607E-1	8.859810E-1	9.247078E-1	8.086311E-1	8.014087E-1	7.827161E-1	8.836511E-1	8.772423E-1	7.817018E-1	8.152704E-1	8.055575E-1	8.481187E-1	8.154384E-1	8.376646E-1	8.396131E-1	7.974535E-1	7.824077E-1	8.667242E-1	9.565221E-1	7.832829E-1	8.469716E-1	7.891240E-1	8.433868E-1	7.905073E-1	7.748242E-1	7.927908E-1	7.925568E-1	7.933146E-1	7.929489E-1	8.446691E-1	8.640698E-1	7.554075E-1	8.118680E-1	9.423152E-1	9.675488E-1	8.170751E-1	8.433128E-1	8.508355E-1	7.732693E-1	8.232815E-1	7.538075E-1	7.800767E-1	7.703210E-1	7.363906E-1	8.619527E-1	8.683837E-1	8.035154E-1	7.699859E-1	8.533668E-1	8.777186E-1	9.419118E-1	7.592528E-1	8.637097E-1	8.681163E-1	9.216577E-1	7.380247E-1	7.962317E-1	7.832901E-1	7.602406E-1	8.210308E-1	7.971624E-1	8.362372E-1	7.601261E-1	7.548161E-1	8.213294E-1	9.438279E-1	9.193870E-1	8.304238E-1	8.318752E-1	8.416572E-1	9.064338E-1	8.264584E-1	7.828278E-1	8.199080E-1	8.321472E-1	7.984219E-1	7.894581E-1	7.653770E-1	8.245658E-1	7.888469E-1	7.722598E-1	8.697692E-1	9.769596E-1	8.247058E-1	8.067886E-1	8.562951E-1	8.979259E-1	7.499242E-1	7.979690E-1	8.006728E-1	8.099642E-1	7.853027E-1	8.774637E-1	8.215174E-1	9.190462E-1	8.439362E-1	8.516410E-1	8.905802E-1	9.736914E-1	8.178428E-1	8.363800E-1	8.828699E-1	8.899629E-1	7.635714E-1	8.120447E-1	8.279826E-1	8.030890E-1	8.815370E-1	8.195159E-1	8.461693E-1	8.425959E-1	8.076476E-1	8.793328E-1	9.206519E-1	9.323493E-1	8.791682E-1	8.213149E-1	8.250789E-1	8.478217E-1	7.655150E-1	8.346278E-1	7.856765E-1	8.249844E-1	7.549103E-1	8.645390E-1	8.475328E-1	8.950257E-1	7.520516E-1	8.261016E-1	8.800994E-1	9.607839E-1	8.087432E-1	7.764433E-1	8.656523E-1	9.279518E-1	7.846376E-1	7.849381E-1	7.661557E-1	8.037957E-1	8.232100E-1	7.847879E-1	8.605475E-1	8.565747E-1	7.825155E-1	7.709253E-1	8.917816E-1	9.848070E-1	6.777269E-1	8.475033E-1	8.582547E-1	8.771275E-1	6.941228E-1	8.187496E-1	7.955924E-1	8.120497E-1	7.683725E-1	8.596580E-1	7.406065E-1	7.940538E-1
5.385060E+2	1.144744E+0	8.753365E-1	1.056427E+0	9.696400E-1	1.179142E+0	9.213625E-1	1.024612E+0	1.020343E+0	1.002331E+0	9.815712E-1	1.074431E+0	1.088932E+0	9.886735E-1	1.024469E+0	1.078161E+0	1.138506E+0	1.048937E+0	1.024896E+0	1.033945E+0	1.087349E+0	1.146387E+0	9.742951E-1	9.977488E-1	9.835210E-1	1.043003E+0	9.587102E-1	9.940237E-1	1.012927E+0	9.790823E-1	9.765386E-1	1.106381E+0	1.178434E+0	1.053246E+0	1.043475E+0	1.025984E+0	1.078600E+0	1.056992E+0	9.672301E-1	9.880782E-1	1.004321E+0	9.696062E-1	9.373415E-1	1.078089E+0	1.077675E+0	9.882619E-1	1.036954E+0	1.131049E+0	1.147658E+0	9.873038E-1	1.007404E+0	1.076264E+0	9.410190E-1	1.015418E+0	9.749064E-1	1.001443E+0	9.243852E-1	8.686006E-1	1.038163E+0	1.056281E+0	9.826146E-1	9.105247E-1	1.035940E+0	1.094389E+0	1.145268E+0	9.497415E-1	1.007678E+0	1.038680E+0	1.104723E+0	9.522071E-1	1.005583E+0	9.610256E-1	9.467056E-1	9.879981E-1	1.013713E+0	1.024451E+0	9.551809E-1	9.403318E-1	1.006244E+0	1.123810E+0	1.103919E+0	9.610751E-1	9.518540E-1	1.031486E+0	1.086691E+0	9.266040E-1	9.896415E-1	1.003146E+0	9.628081E-1	9.193685E-1	9.774339E-1	9.303932E-1	9.443926E-1	9.867821E-1	1.000450E+0	1.083684E+0	1.112890E+0	9.797578E-1	1.003292E+0	1.036841E+0	1.033586E+0	9.160677E-1	9.396873E-1	9.720857E-1	1.009074E+0	9.391145E-1	1.012193E+0	1.001867E+0	1.144444E+0	1.014985E+0	1.031676E+0	1.141395E+0	1.184163E+0	9.903244E-1	1.038672E+0	1.049774E+0	1.042829E+0	9.531511E-1	9.679459E-1	1.031973E+0	1.000222E+0	1.017860E+0	1.007381E+0	1.047269E+0	1.039217E+0	9.943696E-1	1.076131E+0	1.129910E+0	1.146743E+0	1.028913E+0	1.032045E+0	9.924511E-1	1.082719E+0	1.012462E+0	1.042685E+0	9.863082E-1	9.978531E-1	9.328993E-1	1.051029E+0	1.043046E+0	1.125833E+0	9.204174E-1	1.006218E+0	1.136032E+0	1.140566E+0	9.323434E-1	9.484576E-1	1.030652E+0	1.093091E+0	8.713208E-1	9.169688E-1	1.015533E+0	9.766942E-1	9.422589E-1	1.022016E+0	9.876341E-1	1.014731E+0	9.648987E-1	1.042660E+0	1.110447E+0	1.149293E+0	7.921178E-1	1.014994E+0	1.026429E+0	1.074498E+0	8.533497E-1	1.005096E+0	9.850230E-1	9.813817E-1	9.906982E-1	9.642354E-1	8.984818E-1	9.381261E-1
5.387540E+2	1.396806E+0	1.085689E+0	1.285973E+0	1.201139E+0	1.471196E+0	1.122869E+0	1.201712E+0	1.279182E+0	1.398852E+0	1.175983E+0	1.226984E+0	1.387841E+0	1.228344E+0	1.198854E+0	1.364758E+0	1.433224E+0	1.287341E+0	1.264014E+0	1.226283E+0	1.287843E+0	1.462699E+0	1.176801E+0	1.172126E+0	1.214356E+0	1.301240E+0	1.192344E+0	1.271206E+0	1.320495E+0	1.245417E+0	1.196609E+0	1.327161E+0	1.448653E+0	1.270977E+0	1.237658E+0	1.249991E+0	1.397818E+0	1.484998E+0	1.262494E+0	1.243235E+0	1.218007E+0	1.336672E+0	1.210026E+0	1.288479E+0	1.305920E+0	1.181047E+0	1.232621E+0	1.361352E+0	1.409686E+0	1.267821E+0	1.240964E+0	1.336329E+0	1.245064E+0	1.386879E+0	1.211630E+0	1.202729E+0	1.198584E+0	1.187218E+0	1.304782E+0	1.297292E+0	1.257638E+0	1.156353E+0	1.267886E+0	1.341421E+0	1.417863E+0	1.243588E+0	1.300149E+0	1.314064E+0	1.396273E+0	1.233002E+0	1.219122E+0	1.191007E+0	1.178709E+0	1.303165E+0	1.239978E+0	1.345023E+0	1.211468E+0	1.213335E+0	1.216254E+0	1.369923E+0	1.400161E+0	1.249100E+0	1.236047E+0	1.269716E+0	1.325563E+0	1.161997E+0	1.192939E+0	1.219980E+0	1.251928E+0	1.179820E+0	1.243131E+0	1.145214E+0	1.221688E+0	1.177212E+0	1.244842E+0	1.298587E+0	1.379333E+0	1.197762E+0	1.185547E+0	1.358318E+0	1.359566E+0	1.160551E+0	1.242050E+0	1.193185E+0	1.282785E+0	1.193447E+0	1.231280E+0	1.282337E+0	1.347649E+0	1.238113E+0	1.317314E+0	1.407582E+0	1.488821E+0	1.198712E+0	1.198034E+0	1.339857E+0	1.266857E+0	1.190260E+0	1.206899E+0	1.250394E+0	1.196378E+0	1.252417E+0	1.206506E+0	1.305136E+0	1.252276E+0	1.268354E+0	1.266824E+0	1.402197E+0	1.447187E+0	1.279129E+0	1.304078E+0	1.240915E+0	1.366237E+0	1.194009E+0	1.295437E+0	1.204319E+0	1.241568E+0	1.154907E+0	1.307683E+0	1.282551E+0	1.327536E+0	1.142798E+0	1.219622E+0	1.356034E+0	1.384009E+0	1.125919E+0	1.178844E+0	1.313044E+0	1.324560E+0	1.113604E+0	1.171194E+0	1.201704E+0	1.170955E+0	1.221568E+0	1.251830E+0	1.286510E+0	1.227335E+0	1.188586E+0	1.192440E+0	1.373055E+0	1.442417E+0	9.758020E-1	1.220345E+0	1.353654E+0	1.398800E+0	1.071862E+0	1.291105E+0	1.229368E+0	1.188469E+0	1.201860E+0	1.229415E+0	1.141073E+0	1.146783E+0
5.390340E+2	1.670865E+0	1.302209E+0	1.544904E+0	1.432639E+0	1.733737E+0	1.329784E+0	1.422151E+0	1.454564E+0	1.481731E+0	1.398645E+0	1.516711E+0	1.550882E+0	1.474067E+0	1.447372E+0	1.586652E+0	1.666008E+0	1.497847E+0	1.455081E+0	1.479391E+0	1.618375E+0	1.701597E+0	1.404323E+0	1.411774E+0	1.473511E+0	1.527497E+0	1.413492E+0	1.480866E+0	1.498083E+0	1.437158E+0	1.426525E+0	1.600710E+0	1.682044E+0	1.578500E+0	1.475898E+0	1.475219E+0	1.539981E+0	1.693011E+0	1.440667E+0	1.455153E+0	1.456661E+0	1.574040E+0	1.408433E+0	1.523145E+0	1.500892E+0	1.452193E+0	1.385504E+0	1.659506E+0	1.619635E+0	1.547139E+0	1.469136E+0	1.541212E+0	1.376426E+0	1.658433E+0	1.439835E+0	1.489945E+0	1.365943E+0	1.372431E+0	1.508056E+0	1.462346E+0	1.467093E+0	1.396228E+0	1.418119E+0	1.576950E+0	1.626130E+0	1.505586E+0	1.505893E+0	1.528042E+0	1.629513E+0	1.623447E+0	1.406142E+0	1.411224E+0	1.389142E+0	1.551673E+0	1.503951E+0	1.560557E+0	1.364861E+0	1.406325E+0	1.446078E+0	1.616980E+0	1.681141E+0	1.486054E+0	1.419650E+0	1.540000E+0	1.570739E+0	1.650336E+0	1.441420E+0	1.449538E+0	1.434945E+0	1.484429E+0	1.429299E+0	1.318632E+0	1.441894E+0	1.390624E+0	1.397418E+0	1.549640E+0	1.591082E+0	1.484550E+0	1.427764E+0	1.470020E+0	1.516299E+0	1.419755E+0	1.372605E+0	1.411798E+0	1.495507E+0	1.436880E+0	1.443085E+0	1.491916E+0	1.597321E+0	1.520488E+0	1.513170E+0	1.585843E+0	1.692452E+0	1.476993E+0	1.459517E+0	1.503065E+0	1.494838E+0	1.383580E+0	1.344828E+0	1.449571E+0	1.453529E+0	1.462250E+0	1.487415E+0	1.529786E+0	1.494273E+0	1.474315E+0	1.457517E+0	1.604902E+0	1.636711E+0	1.473672E+0	1.526943E+0	1.429047E+0	1.558829E+0	1.331087E+0	1.445443E+0	1.392314E+0	1.431444E+0	1.349482E+0	1.521252E+0	1.449347E+0	1.540069E+0	1.257152E+0	1.466311E+0	1.573821E+0	1.658010E+0	1.311646E+0	1.442767E+0	1.508695E+0	1.561557E+0	1.315506E+0	1.357072E+0	1.385894E+0	1.398507E+0	1.428923E+0	1.454462E+0	1.461494E+0	1.539114E+0	1.351942E+0	1.426619E+0	1.657114E+0	1.680182E+0	1.115491E+0	1.389120E+0	1.506834E+0	1.541075E+0	1.254239E+0	1.419315E+0	1.424846E+0	1.433887E+0	1.418604E+0	1.451021E+0	1.304725E+0	1.345501E+0
5.392780E+2	1.877668E+0	1.376850E+0	1.691812E+0	1.588234E+0	1.872132E+0	1.482143E+0	1.605137E+0	1.609986E+0	1.666577E+0	1.625184E+0	1.784909E+0	1.745740E+0	1.557566E+0	1.599429E+0	1.709339E+0	1.838843E+0	1.685526E+0	1.637460E+0	1.633511E+0	1.713816E+0	1.905634E+0	1.544993E+0	1.572337E+0	1.599078E+0	1.716349E+0	1.585893E+0	1.626568E+0	1.658582E+0	1.613730E+0	1.574581E+0	1.745472E+0	1.821694E+0	1.745173E+0	1.599364E+0	1.642309E+0	1.768087E+0	1.815229E+0	1.604142E+0	1.587245E+0	1.523889E+0	1.733962E+0	1.573087E+0	1.596593E+0	1.685881E+0	1.635628E+0	1.611927E+0	1.787079E+0	1.775875E+0	1.689193E+0	1.638018E+0	1.719087E+0	1.580564E+0	1.833148E+0	1.603645E+0	1.598762E+0	1.519548E+0	1.480226E+0	1.591557E+0	1.662807E+0	1.640724E+0	1.476339E+0	1.653890E+0	1.694255E+0	1.808226E+0	1.704490E+0	1.703706E+0	1.658290E+0	1.740707E+0	1.776144E+0	1.559663E+0	1.561615E+0	1.504186E+0	1.654573E+0	1.620514E+0	1.651021E+0	1.552342E+0	1.581287E+0	1.553944E+0	1.817270E+0	1.881424E+0	1.704003E+0	1.561443E+0	1.709085E+0	1.746581E+0	1.924446E+0	1.578959E+0	1.598675E+0	1.540584E+0	1.718002E+0	1.583534E+0	1.469848E+0	1.573011E+0	1.550568E+0	1.527941E+0	1.660560E+0	1.751921E+0	1.736944E+0	1.526309E+0	1.647967E+0	1.700034E+0	1.822495E+0	1.590033E+0	1.516134E+0	1.628075E+0	1.700900E+0	1.602092E+0	1.607586E+0	1.693027E+0	1.687236E+0	1.696460E+0	1.738159E+0	1.919758E+0	1.678963E+0	1.544727E+0	1.689678E+0	1.653636E+0	1.721618E+0	1.493931E+0	1.548197E+0	1.551120E+0	1.787018E+0	1.597052E+0	1.626414E+0	1.725086E+0	1.630072E+0	1.607819E+0	1.787938E+0	1.854089E+0	1.665013E+0	1.652101E+0	1.626262E+0	1.714166E+0	1.607851E+0	1.582608E+0	1.576090E+0	1.579751E+0	1.456659E+0	1.628343E+0	1.628980E+0	1.644979E+0	1.490723E+0	1.563438E+0	1.724731E+0	1.807742E+0	1.435246E+0	1.518527E+0	1.725870E+0	1.675565E+0	1.432339E+0	1.520689E+0	1.540459E+0	1.533151E+0	1.598995E+0	1.597787E+0	1.680543E+0	1.666158E+0	1.505088E+0	1.555066E+0	1.753671E+0	1.809871E+0	1.283777E+0	1.523238E+0	1.723895E+0	1.676372E+0	1.364908E+0	1.551160E+0	1.570443E+0	1.569466E+0	1.509767E+0	1.657688E+0	1.389438E+0	1.405117E+0
5.395100E+2	2.200126E+0	1.652590E+0	1.986247E+0	1.872865E+0	2.234904E+0	1.749997E+0	1.910113E+0	1.901489E+0	1.944439E+0	1.858919E+0	1.965756E+0	2.030066E+0	1.811512E+0	1.806247E+0	2.067344E+0	2.174523E+0	1.959440E+0	1.880632E+0	1.922334E+0	2.038576E+0	2.197845E+0	1.896193E+0	1.890121E+0	1.917714E+0	2.045785E+0	1.847470E+0	1.973043E+0	1.977742E+0	1.882170E+0	1.875617E+0	2.080990E+0	2.167955E+0	2.031569E+0	1.878757E+0	1.978321E+0	2.019455E+0	2.227898E+0	1.822721E+0	1.864736E+0	1.818728E+0	2.119286E+0	1.790194E+0	1.973799E+0	2.029912E+0	1.888517E+0	1.850827E+0	2.096221E+0	2.168099E+0	1.973908E+0	1.897329E+0	1.956845E+0	1.795799E+0	2.177460E+0	1.892923E+0	1.861224E+0	1.735056E+0	1.767873E+0	1.926124E+0	1.936943E+0	1.961891E+0	1.783510E+0	1.893921E+0	2.014428E+0	2.139700E+0	1.967690E+0	1.965570E+0	1.949801E+0	2.083787E+0	2.095880E+0	1.876948E+0	1.787206E+0	1.795624E+0	2.016983E+0	1.870774E+0	2.003165E+0	1.767596E+0	1.820439E+0	1.859935E+0	2.087476E+0	2.194881E+0	1.979554E+0	1.843217E+0	2.030914E+0	2.054157E+0	2.216106E+0	1.821914E+0	1.813976E+0	1.800980E+0	1.973332E+0	1.838991E+0	1.712872E+0	1.852818E+0	1.850752E+0	1.776384E+0	1.982425E+0	2.063856E+0	2.040633E+0	1.862918E+0	1.966197E+0	1.905498E+0	2.134281E+0	1.764753E+0	1.837102E+0	1.846343E+0	2.025480E+0	1.875797E+0	1.918532E+0	2.066844E+0	1.998276E+0	1.915569E+0	2.065365E+0	2.199682E+0	2.023286E+0	1.890772E+0	1.961901E+0	1.968596E+0	2.152578E+0	1.810101E+0	1.864765E+0	1.851213E+0	2.051647E+0	1.864333E+0	1.928361E+0	1.977603E+0	1.928455E+0	1.933781E+0	2.066273E+0	2.150558E+0	2.085453E+0	1.929243E+0	1.909759E+0	1.990737E+0	2.127904E+0	1.836900E+0	1.840970E+0	1.775288E+0	1.908968E+0	1.959473E+0	1.938134E+0	1.928583E+0	1.734996E+0	1.820614E+0	2.016039E+0	2.174943E+0	1.849208E+0	1.740840E+0	1.903914E+0	2.009295E+0	1.982590E+0	1.782159E+0	1.775020E+0	1.818831E+0	1.884844E+0	1.920270E+0	1.901506E+0	1.930616E+0	1.748267E+0	1.868072E+0	2.108753E+0	2.119865E+0	1.513658E+0	1.760675E+0	2.008100E+0	1.960227E+0	1.646094E+0	1.822634E+0	1.791111E+0	1.749099E+0	1.798139E+0	1.926603E+0	1.556943E+0	1.598871E+0
5.397910E+2	2.350982E+0	1.936352E+0	2.185802E+0	1.834916E+0	2.419601E+0	1.917105E+0	2.097381E+0	2.126460E+0	2.162081E+0	2.023978E+0	2.165674E+0	2.256073E+0	1.957734E+0	2.042128E+0	2.229333E+0	2.309397E+0	2.147755E+0	2.060114E+0	2.071443E+0	2.175018E+0	2.362922E+0	2.023644E+0	2.017332E+0	2.031005E+0	2.195416E+0	1.955068E+0	2.106895E+0	2.128475E+0	2.056633E+0	1.992364E+0	2.223822E+0	2.339175E+0	2.262208E+0	2.024828E+0	2.104397E+0	2.254667E+0	2.387497E+0	2.020635E+0	1.984470E+0	2.010805E+0	2.170282E+0	1.899785E+0	2.097668E+0	2.192283E+0	1.960201E+0	2.021982E+0	2.196082E+0	2.333561E+0	2.144734E+0	2.090168E+0	2.228065E+0	1.957995E+0	2.391623E+0	2.029750E+0	2.088197E+0	1.857023E+0	1.854819E+0	2.048205E+0	2.131121E+0	2.051136E+0	1.878269E+0	2.087986E+0	2.195676E+0	2.283634E+0	2.136541E+0	2.136744E+0	2.086250E+0	2.274310E+0	2.295718E+0	1.971386E+0	1.968849E+0	1.939907E+0	2.145120E+0	2.042186E+0	2.122168E+0	1.943085E+0	2.007714E+0	1.983210E+0	2.241949E+0	2.257871E+0	2.100112E+0	2.053482E+0	2.176117E+0	2.187775E+0	2.371488E+0	1.903734E+0	1.973799E+0	2.003915E+0	2.156353E+0	1.973346E+0	1.838887E+0	2.023458E+0	2.001316E+0	1.943813E+0	2.122059E+0	2.285345E+0	2.172953E+0	1.938314E+0	2.190909E+0	2.091206E+0	2.319874E+0	1.954033E+0	1.975724E+0	2.073680E+0	2.196242E+0	2.029341E+0	2.055351E+0	2.289463E+0	2.036501E+0	2.019776E+0	2.253716E+0	2.373849E+0	2.179738E+0	2.091764E+0	2.088155E+0	2.108281E+0	2.222538E+0	1.857697E+0	2.044700E+0	1.957586E+0	2.218039E+0	2.000636E+0	2.117990E+0	2.100574E+0	2.104389E+0	2.051670E+0	2.259396E+0	2.289836E+0	2.211521E+0	2.049933E+0	2.044695E+0	2.241422E+0	2.320961E+0	2.002323E+0	1.941021E+0	1.975556E+0	2.140543E+0	2.077028E+0	2.096992E+0	2.071403E+0	1.858108E+0	1.981583E+0	2.173576E+0	2.287495E+0	2.083988E+0	1.923414E+0	2.108695E+0	2.113632E+0	2.182878E+0	1.920408E+0	1.907365E+0	1.988742E+0	2.100052E+0	1.922121E+0	2.014545E+0	2.000619E+0	1.902339E+0	1.953394E+0	2.234437E+0	2.293839E+0	1.696243E+0	1.874261E+0	2.125432E+0	2.170847E+0	2.121514E+0	1.925411E+0	1.959886E+0	1.938451E+0	2.101395E+0	2.023711E+0	1.780279E+0	1.728038E+0
5.400460E+2	2.443387E+0	2.144851E+0	2.205999E+0	2.051235E+0	2.380418E+0	1.926934E+0	2.055648E+0	2.097430E+0	2.194274E+0	1.987971E+0	2.157064E+0	2.283247E+0	2.020897E+0	1.969258E+0	2.156483E+0	2.326380E+0	2.128731E+0	2.064169E+0	2.058910E+0	2.241633E+0	2.345492E+0	1.982106E+0	1.978739E+0	2.026286E+0	2.074740E+0	1.944966E+0	2.092088E+0	2.064404E+0	2.093298E+0	2.033065E+0	2.218980E+0	2.361654E+0	2.160681E+0	2.118154E+0	2.088484E+0	2.170663E+0	2.382702E+0	1.989411E+0	2.004904E+0	1.955583E+0	2.173428E+0	1.976660E+0	2.048495E+0	2.109768E+0	1.972669E+0	2.007721E+0	2.250554E+0	2.304809E+0	2.146537E+0	2.045850E+0	2.135306E+0	1.937644E+0	2.346535E+0	2.011756E+0	2.053169E+0	1.885453E+0	1.873882E+0	2.080455E+0	2.086579E+0	2.089989E+0	1.931835E+0	1.988397E+0	2.205795E+0	2.339244E+0	2.054220E+0	2.099901E+0	2.128423E+0	2.204477E+0	2.294178E+0	1.978833E+0	1.996190E+0	1.992634E+0	2.149001E+0	2.043900E+0	2.118522E+0	1.963914E+0	2.007713E+0	1.964279E+0	2.266986E+0	2.328238E+0	2.128024E+0	2.006217E+0	2.096289E+0	2.204159E+0	2.310572E+0	1.913772E+0	1.975838E+0	1.944146E+0	2.139077E+0	1.936595E+0	1.815483E+0	2.008403E+0	1.936587E+0	2.012678E+0	2.156720E+0	2.302676E+0	2.145555E+0	1.926442E+0	2.176622E+0	2.182750E+0	2.342486E+0	1.925396E+0	2.006527E+0	2.025790E+0	2.163546E+0	2.009922E+0	2.003732E+0	2.157000E+0	2.039841E+0	2.030940E+0	2.235459E+0	2.358592E+0	2.271427E+0	2.096316E+0	2.127574E+0	2.105646E+0	2.300505E+0	1.948516E+0	2.020644E+0	2.001990E+0	2.189978E+0	2.033235E+0	2.069676E+0	2.055198E+0	2.045274E+0	2.084078E+0	2.234692E+0	2.266951E+0	2.221762E+0	1.968838E+0	2.012258E+0	2.141025E+0	2.341366E+0	2.020298E+0	1.971566E+0	1.976499E+0	2.063992E+0	2.056717E+0	2.124484E+0	2.061920E+0	1.877087E+0	2.021250E+0	2.139305E+0	2.280877E+0	1.983930E+0	1.929621E+0	2.083915E+0	2.139193E+0	2.225414E+0	1.881574E+0	1.856993E+0	1.902794E+0	2.122942E+0	1.938187E+0	2.024122E+0	2.005806E+0	1.909766E+0	1.882915E+0	2.131745E+0	2.259571E+0	1.670393E+0	1.847310E+0	2.115003E+0	2.168753E+0	2.131678E+0	1.928002E+0	1.927141E+0	1.944745E+0	2.147909E+0	2.061060E+0	1.730221E+0	1.777720E+0
5.402690E+2	2.315155E+0	2.112775E+0	2.105607E+0	2.032262E+0	2.370755E+0	1.897443E+0	2.036386E+0	1.999461E+0	2.106625E+0	1.871658E+0	2.053722E+0	2.129481E+0	1.983690E+0	1.954937E+0	2.108555E+0	2.236966E+0	2.136980E+0	2.038696E+0	2.053898E+0	2.171176E+0	2.334726E+0	1.985880E+0	1.892504E+0	1.936593E+0	2.061467E+0	1.867086E+0	2.153092E+0	2.024122E+0	1.922202E+0	1.948976E+0	2.185572E+0	2.210525E+0	2.157157E+0	1.992368E+0	2.017488E+0	2.113798E+0	2.319918E+0	1.971501E+0	1.902270E+0	1.926294E+0	2.104799E+0	1.840577E+0	2.039779E+0	2.079155E+0	1.921017E+0	1.972953E+0	2.197993E+0	2.230486E+0	2.060819E+0	1.994347E+0	2.152333E+0	1.852540E+0	2.348075E+0	1.944526E+0	1.952294E+0	1.881784E+0	1.843505E+0	1.999258E+0	2.064872E+0	2.052352E+0	1.839821E+0	2.036491E+0	2.133114E+0	2.178955E+0	1.953865E+0	2.040957E+0	1.998797E+0	2.220750E+0	2.250116E+0	1.931379E+0	1.940528E+0	1.877115E+0	2.143181E+0	1.923339E+0	2.038380E+0	1.901420E+0	1.921990E+0	1.973081E+0	2.181956E+0	2.218013E+0	2.047852E+0	1.989858E+0	2.054167E+0	2.146805E+0	2.282184E+0	1.888174E+0	1.959547E+0	1.936735E+0	2.083404E+0	1.947438E+0	1.794482E+0	2.017186E+0	1.880302E+0	1.892955E+0	2.085415E+0	2.232817E+0	2.106504E+0	1.918719E+0	2.079853E+0	2.057620E+0	2.253630E+0	1.911810E+0	1.876348E+0	2.045452E+0	2.094515E+0	1.960760E+0	1.988808E+0	2.064066E+0	2.011656E+0	1.940229E+0	2.275820E+0	2.270194E+0	2.107926E+0	2.001348E+0	2.141122E+0	2.010106E+0	2.248702E+0	1.830015E+0	1.885455E+0	1.940995E+0	2.160574E+0	1.925372E+0	2.023783E+0	2.082161E+0	2.095941E+0	1.954918E+0	2.259399E+0	2.168963E+0	2.165447E+0	1.974584E+0	2.037560E+0	2.134709E+0	2.263932E+0	2.004887E+0	1.898894E+0	1.920293E+0	1.991902E+0	1.982857E+0	2.046890E+0	1.959038E+0	1.841566E+0	1.896312E+0	2.113879E+0	2.144384E+0	2.004203E+0	1.933968E+0	1.992609E+0	2.030023E+0	2.199032E+0	1.834974E+0	1.911810E+0	1.941053E+0	2.106594E+0	1.896176E+0	2.034981E+0	2.014228E+0	1.843865E+0	1.933921E+0	2.172107E+0	2.208436E+0	1.689641E+0	1.810731E+0	2.020483E+0	2.131793E+0	2.095544E+0	1.940982E+0	1.842499E+0	1.844057E+0	1.973024E+0	1.966443E+0	1.751399E+0	1.723073E+0
5.405180E+2	2.201382E+0	2.151019E+0	1.975226E+0	1.747628E+0	2.230832E+0	2.033583E+0	1.941146E+0	1.891811E+0	2.092315E+0	1.942558E+0	1.976831E+0	2.159306E+0	1.798100E+0	1.866482E+0	2.109515E+0	2.151546E+0	2.064693E+0	1.972692E+0	1.939251E+0	2.069968E+0	2.207586E+0	1.850877E+0	1.884881E+0	1.902136E+0	2.056641E+0	1.837365E+0	1.973041E+0	2.035110E+0	1.918411E+0	1.900217E+0	2.083414E+0	2.192826E+0	2.102578E+0	1.898465E+0	2.002187E+0	2.038193E+0	2.223579E+0	1.837417E+0	1.868060E+0	1.872508E+0	2.129359E+0	1.881611E+0	2.036047E+0	1.979341E+0	1.907220E+0	1.870438E+0	2.105296E+0	2.163217E+0	1.997284E+0	1.936255E+0	2.012612E+0	2.004250E+0	2.211785E+0	1.862619E+0	1.892518E+0	1.847853E+0	1.734525E+0	1.910577E+0	1.985486E+0	1.953387E+0	1.772525E+0	1.907964E+0	2.007068E+0	2.153329E+0	1.935237E+0	1.887352E+0	2.042833E+0	2.117688E+0	2.154293E+0	1.916492E+0	1.836521E+0	1.853624E+0	2.016333E+0	1.896485E+0	1.947307E+0	1.768856E+0	1.868796E+0	1.866978E+0	2.110150E+0	2.134844E+0	1.999155E+0	1.940171E+0	2.020226E+0	2.098905E+0	2.181517E+0	1.821915E+0	1.802270E+0	1.875575E+0	1.976534E+0	1.814288E+0	1.807678E+0	1.908650E+0	1.852161E+0	1.811940E+0	2.014608E+0	2.138045E+0	2.092513E+0	1.843327E+0	1.924633E+0	1.998353E+0	2.208413E+0	1.815714E+0	1.841573E+0	1.973872E+0	2.017606E+0	1.932846E+0	1.889301E+0	2.048112E+0	1.972955E+0	1.929062E+0	2.072575E+0	2.235991E+0	2.039956E+0	1.914838E+0	1.951429E+0	1.969910E+0	2.085294E+0	1.775617E+0	1.888338E+0	1.917575E+0	2.108449E+0	1.917668E+0	1.992982E+0	1.945379E+0	1.954258E+0	1.934717E+0	2.062243E+0	2.203280E+0	2.081614E+0	1.895399E+0	1.961657E+0	2.053250E+0	2.156158E+0	1.888272E+0	1.846231E+0	1.858891E+0	1.973403E+0	1.930543E+0	2.006565E+0	2.001685E+0	1.810422E+0	1.856181E+0	2.042020E+0	2.177489E+0	1.911992E+0	1.779965E+0	1.951520E+0	2.012061E+0	2.074658E+0	1.794072E+0	1.854525E+0	1.734865E+0	2.011747E+0	1.802894E+0	1.931523E+0	1.875520E+0	1.783534E+0	1.889870E+0	2.047446E+0	2.133046E+0	1.612651E+0	1.823566E+0	1.944216E+0	2.034151E+0	2.071266E+0	1.884406E+0	1.790103E+0	1.822894E+0	1.964652E+0	1.988852E+0	1.558868E+0	1.683329E+0
5.407580E+2	2.137899E+0	2.048004E+0	1.914013E+0	1.683114E+0	2.132128E+0	2.085190E+0	1.755482E+0	1.816821E+0	1.865134E+0	1.878858E+0	1.873491E+0	1.971080E+0	1.740562E+0	1.829415E+0	1.907752E+0	2.026665E+0	1.909349E+0	1.924057E+0	1.830861E+0	1.907264E+0	2.025595E+0	2.091148E+0	1.747188E+0	1.761935E+0	1.881064E+0	1.884923E+0	1.889535E+0	1.874607E+0	1.776819E+0	1.820599E+0	1.954143E+0	2.007738E+0	2.019243E+0	1.847455E+0	1.906709E+0	1.967113E+0	2.081709E+0	1.906297E+0	1.715061E+0	1.741416E+0	1.923472E+0	1.813568E+0	1.904708E+0	1.884848E+0	1.759401E+0	1.745195E+0	1.974859E+0	1.973343E+0	1.900181E+0	1.781149E+0	1.846475E+0	1.966013E+0	2.081132E+0	1.731948E+0	1.741668E+0	1.752024E+0	1.687476E+0	1.771800E+0	1.880403E+0	1.810716E+0	1.661283E+0	1.755180E+0	1.912763E+0	1.999586E+0	1.835489E+0	1.882251E+0	1.853041E+0	1.999036E+0	2.015948E+0	1.705746E+0	1.759857E+0	1.662368E+0	1.924441E+0	1.780498E+0	1.858665E+0	1.726565E+0	1.762850E+0	1.747224E+0	1.941040E+0	2.017235E+0	1.853061E+0	1.828064E+0	1.946688E+0	1.952682E+0	2.029237E+0	1.698430E+0	1.726431E+0	1.752327E+0	1.934301E+0	1.736570E+0	1.642063E+0	1.766241E+0	1.726929E+0	1.707076E+0	1.916561E+0	1.979375E+0	1.907154E+0	1.735873E+0	1.892162E+0	1.905499E+0	2.017030E+0	1.703114E+0	1.734749E+0	1.820130E+0	1.901340E+0	1.851523E+0	1.810323E+0	1.935071E+0	1.825796E+0	1.801594E+0	1.985124E+0	2.095502E+0	1.904667E+0	1.752873E+0	1.881834E+0	1.853283E+0	1.992903E+0	1.670714E+0	1.768541E+0	1.798024E+0	1.878571E+0	1.752916E+0	1.852876E+0	1.803998E+0	1.834154E+0	1.810251E+0	1.961901E+0	2.047087E+0	1.960022E+0	1.821326E+0	1.790390E+0	1.911175E+0	2.037914E+0	1.769091E+0	1.738810E+0	1.695940E+0	1.850275E+0	1.830220E+0	1.819603E+0	1.868340E+0	1.677576E+0	1.746746E+0	1.906591E+0	2.062899E+0	1.781848E+0	1.697992E+0	1.815871E+0	1.872487E+0	2.027818E+0	1.681713E+0	1.725148E+0	1.735363E+0	1.928671E+0	1.791150E+0	1.725245E+0	1.814591E+0	1.672157E+0	1.739161E+0	1.932490E+0	2.036570E+0	1.524107E+0	1.650297E+0	1.852961E+0	1.930934E+0	1.943095E+0	1.700132E+0	1.718562E+0	1.703332E+0	1.914418E+0	1.746080E+0	1.524211E+0	1.737976E+0
5.410450E+2	1.889607E+0	1.969659E+0	1.795259E+0	1.500948E+0	1.922501E+0	1.914154E+0	1.711611E+0	1.720058E+0	1.735147E+0	1.759220E+0	1.749845E+0	1.818644E+0	1.634137E+0	1.649975E+0	1.809503E+0	1.958731E+0	1.788877E+0	1.773523E+0	1.710571E+0	1.829754E+0	1.909733E+0	1.964164E+0	1.595205E+0	1.677440E+0	1.776685E+0	1.875408E+0	1.752720E+0	1.684822E+0	1.701383E+0	1.706091E+0	1.841819E+0	1.886262E+0	1.758670E+0	1.824270E+0	1.729219E+0	1.811381E+0	1.982982E+0	2.032113E+0	1.649013E+0	1.635771E+0	1.778033E+0	1.705012E+0	1.794531E+0	1.823628E+0	1.663675E+0	1.722907E+0	1.847763E+0	1.888716E+0	1.782702E+0	1.739826E+0	1.771337E+0	1.863638E+0	1.915641E+0	1.941687E+0	1.653868E+0	1.629597E+0	1.614819E+0	1.811531E+0	1.722204E+0	1.689903E+0	1.605895E+0	1.707941E+0	1.789476E+0	1.922168E+0	1.700881E+0	1.764924E+0	1.686823E+0	1.860718E+0	1.871963E+0	1.762967E+0	1.625580E+0	1.608203E+0	1.793713E+0	1.755930E+0	1.723272E+0	1.616096E+0	1.674487E+0	1.680301E+0	1.860730E+0	1.897660E+0	1.763983E+0	1.659002E+0	1.814686E+0	1.796377E+0	1.879018E+0	1.562393E+0	1.719305E+0	1.643909E+0	1.807593E+0	1.630530E+0	1.538253E+0	1.621319E+0	1.657508E+0	1.577449E+0	1.770983E+0	1.937127E+0	1.809222E+0	1.626637E+0	1.774611E+0	1.734280E+0	1.843526E+0	1.652157E+0	1.646809E+0	1.700158E+0	1.785076E+0	1.700406E+0	1.648013E+0	1.848377E+0	1.722590E+0	1.675526E+0	1.811671E+0	1.939225E+0	1.766169E+0	1.737915E+0	1.751881E+0	1.705030E+0	1.910667E+0	1.605149E+0	1.664624E+0	1.702388E+0	1.889933E+0	1.698393E+0	1.813621E+0	1.771121E+0	1.727658E+0	1.699408E+0	1.821723E+0	1.889403E+0	1.893471E+0	1.678924E+0	1.639885E+0	1.775418E+0	1.909207E+0	1.703848E+0	1.628227E+0	1.650599E+0	1.771805E+0	1.643732E+0	1.710238E+0	1.885938E+0	1.485367E+0	1.602196E+0	1.821464E+0	1.900432E+0	1.668057E+0	1.597392E+0	1.701090E+0	1.723240E+0	1.880293E+0	1.581266E+0	1.559222E+0	1.591278E+0	1.762523E+0	1.673775E+0	1.700341E+0	1.718010E+0	1.560314E+0	1.645493E+0	1.868120E+0	1.894226E+0	1.393767E+0	1.617570E+0	1.689349E+0	1.784473E+0	1.865736E+0	1.622794E+0	1.600671E+0	1.659282E+0	1.768373E+0	1.662668E+0	1.479930E+0	1.494541E+0
5.412530E+2	1.980121E+0	1.907354E+0	1.741396E+0	1.500948E+0	1.991187E+0	1.905307E+0	1.619048E+0	1.701308E+0	1.760190E+0	1.823470E+0	1.712322E+0	1.828582E+0	1.634138E+0	1.666403E+0	1.823882E+0	1.911274E+0	1.786343E+0	1.805366E+0	1.706188E+0	1.777233E+0	1.956384E+0	1.967944E+0	1.674772E+0	1.675076E+0	1.660237E+0	1.852819E+0	1.721328E+0	1.760494E+0	1.667669E+0	1.718611E+0	1.830684E+0	1.885785E+0	1.837899E+0	1.816155E+0	1.762880E+0	1.806856E+0	1.976743E+0	1.938900E+0	1.640463E+0	1.673710E+0	1.825881E+0	1.734099E+0	1.788311E+0	1.789024E+0	1.609360E+0	1.661400E+0	1.821479E+0	1.855079E+0	1.755731E+0	1.775758E+0	1.764875E+0	1.865491E+0	1.924861E+0	1.929378E+0	1.641259E+0	1.606210E+0	1.617199E+0	1.776404E+0	1.763325E+0	1.681402E+0	1.545009E+0	1.705386E+0	1.810181E+0	1.898181E+0	1.714703E+0	1.859579E+0	1.750703E+0	1.841052E+0	1.877089E+0	1.962084E+0	1.646090E+0	1.596219E+0	1.822189E+0	1.897631E+0	1.760916E+0	1.582641E+0	1.563266E+0	1.713760E+0	1.805464E+0	1.895203E+0	1.731916E+0	1.780191E+0	1.752457E+0	1.832298E+0	1.871789E+0	1.873116E+0	1.613940E+0	1.678657E+0	1.739762E+0	1.767293E+0	1.541252E+0	1.694720E+0	1.675330E+0	1.637763E+0	1.784850E+0	1.845068E+0	1.817386E+0	1.713911E+0	1.740842E+0	1.794863E+0	1.933959E+0	1.769606E+0	1.608550E+0	1.715282E+0	1.788706E+0	1.796903E+0	1.657338E+0	1.834511E+0	1.730235E+0	1.740186E+0	1.856838E+0	1.900815E+0	1.787969E+0	1.710594E+0	1.788219E+0	1.717550E+0	1.933628E+0	1.609520E+0	1.664625E+0	1.648224E+0	1.881242E+0	1.687727E+0	1.805773E+0	1.822409E+0	1.694346E+0	1.716318E+0	1.845924E+0	1.912289E+0	1.802600E+0	1.659766E+0	1.659995E+0	1.752686E+0	1.876251E+0	1.689462E+0	1.615586E+0	1.610924E+0	1.767343E+0	1.698511E+0	1.674801E+0	1.768170E+0	1.554466E+0	1.619069E+0	1.773373E+0	1.900431E+0	1.706645E+0	1.568827E+0	1.744132E+0	1.773680E+0	1.869527E+0	1.560036E+0	1.590334E+0	1.601215E+0	1.730472E+0	1.615705E+0	1.701619E+0	1.729029E+0	1.601617E+0	1.675632E+0	1.828268E+0	1.900551E+0	1.380019E+0	1.621424E+0	1.710861E+0	1.760762E+0	1.739823E+0	1.663279E+0	1.626366E+0	1.583198E+0	1.784186E+0	1.651462E+0	1.487631E+0	1.330597E+0
5.415250E+2	1.809782E+0	1.809272E+0	1.634275E+0	1.352942E+0	1.920465E+0	1.796690E+0	1.546279E+0	1.527740E+0	1.695794E+0	1.614656E+0	1.660038E+0	1.658916E+0	1.471040E+0	1.516449E+0	1.716049E+0	1.779399E+0	1.656994E+0	1.672199E+0	1.560838E+0	1.738799E+0	1.759015E+0	1.795176E+0	1.478954E+0	1.504668E+0	1.639724E+0	1.651289E+0	1.628341E+0	1.617079E+0	1.521860E+0	1.588450E+0	1.646219E+0	1.766215E+0	1.641881E+0	1.686311E+0	1.589062E+0	1.652418E+0	1.808996E+0	1.731801E+0	1.525474E+0	1.521972E+0	1.657776E+0	1.566855E+0	1.589126E+0	1.601372E+0	1.512746E+0	1.491135E+0	1.673361E+0	1.741155E+0	1.614272E+0	1.687725E+0	1.623983E+0	1.768046E+0	1.831610E+0	1.815278E+0	1.571206E+0	1.505795E+0	1.444493E+0	1.671020E+0	1.598844E+0	1.588514E+0	1.426901E+0	1.585795E+0	1.616511E+0	1.776606E+0	1.567480E+0	1.681605E+0	1.588204E+0	1.694604E+0	1.668540E+0	1.822519E+0	1.493256E+0	1.475902E+0	1.582090E+0	1.699933E+0	1.543556E+0	1.486691E+0	1.512270E+0	1.546460E+0	1.625485E+0	1.749541E+0	1.613138E+0	1.709298E+0	1.585889E+0	1.631874E+0	1.755128E+0	1.779747E+0	1.536067E+0	1.550312E+0	1.658489E+0	1.622094E+0	1.446447E+0	1.526586E+0	1.466610E+0	1.559897E+0	1.645702E+0	1.723761E+0	1.624443E+0	1.588646E+0	1.644072E+0	1.648006E+0	1.816714E+0	1.806010E+0	1.517626E+0	1.582204E+0	1.640955E+0	1.745316E+0	1.588932E+0	1.698576E+0	1.555844E+0	1.591322E+0	1.759300E+0	1.790844E+0	1.659730E+0	1.693683E+0	1.636713E+0	1.540303E+0	1.737103E+0	1.768819E+0	1.535689E+0	1.501837E+0	1.726208E+0	1.660465E+0	1.588972E+0	1.611982E+0	1.609901E+0	1.596547E+0	1.752640E+0	1.798871E+0	1.695092E+0	1.601016E+0	1.521817E+0	1.633971E+0	1.758533E+0	1.664803E+0	1.495526E+0	1.524017E+0	1.648041E+0	1.613573E+0	1.558717E+0	1.623996E+0	1.443521E+0	1.493216E+0	1.662820E+0	1.713009E+0	1.543808E+0	1.477540E+0	1.523045E+0	1.635490E+0	1.771536E+0	1.486516E+0	1.419475E+0	1.458128E+0	1.628429E+0	1.537862E+0	1.565589E+0	1.586429E+0	1.456822E+0	1.527243E+0	1.729153E+0	1.736590E+0	1.316771E+0	1.462916E+0	1.587010E+0	1.628253E+0	1.714980E+0	1.538700E+0	1.473714E+0	1.487663E+0	1.621395E+0	1.489616E+0	1.339382E+0	1.355437E+0
5.417600E+2	1.582865E+0	1.645807E+0	1.464103E+0	1.390891E+0	1.666067E+0	1.615337E+0	1.370784E+0	1.395299E+0	1.467424E+0	1.545979E+0	1.460121E+0	1.539615E+0	1.414801E+0	1.389242E+0	1.455336E+0	1.565601E+0	1.469951E+0	1.511820E+0	1.408596E+0	1.510117E+0	1.637001E+0	1.662533E+0	1.373658E+0	1.388071E+0	1.463545E+0	1.496126E+0	1.430526E+0	1.496859E+0	1.432523E+0	1.417580E+0	1.579404E+0	1.639956E+0	1.538593E+0	1.547195E+0	1.466654E+0	1.477947E+0	1.641247E+0	1.632150E+0	1.352522E+0	1.364466E+0	1.501000E+0	1.495697E+0	1.437245E+0	1.511541E+0	1.373387E+0	1.398426E+0	1.509475E+0	1.562672E+0	1.481207E+0	1.515249E+0	1.439062E+0	1.534925E+0	1.606173E+0	1.637734E+0	1.386730E+0	1.328804E+0	1.325385E+0	1.562765E+0	1.462345E+0	1.400309E+0	1.298723E+0	1.438120E+0	1.509326E+0	1.577608E+0	1.472536E+0	1.563710E+0	1.445549E+0	1.470854E+0	1.616277E+0	1.639685E+0	1.380464E+0	1.304778E+0	1.463662E+0	1.521665E+0	1.420309E+0	1.400842E+0	1.334667E+0	1.421420E+0	1.531477E+0	1.611266E+0	1.445669E+0	1.523877E+0	1.477772E+0	1.505820E+0	1.597167E+0	1.616104E+0	1.372677E+0	1.373785E+0	1.513224E+0	1.423874E+0	1.315632E+0	1.354062E+0	1.324022E+0	1.412722E+0	1.451596E+0	1.572127E+0	1.508446E+0	1.474067E+0	1.455084E+0	1.513666E+0	1.639003E+0	1.565281E+0	1.409811E+0	1.436026E+0	1.514389E+0	1.521375E+0	1.415424E+0	1.530741E+0	1.418240E+0	1.430360E+0	1.574314E+0	1.614575E+0	1.470577E+0	1.540824E+0	1.483973E+0	1.417086E+0	1.614276E+0	1.574067E+0	1.385105E+0	1.361795E+0	1.623964E+0	1.563863E+0	1.441619E+0	1.453499E+0	1.441942E+0	1.508715E+0	1.561031E+0	1.638200E+0	1.478791E+0	1.484155E+0	1.401152E+0	1.481794E+0	1.576461E+0	1.618568E+0	1.370196E+0	1.377127E+0	1.457294E+0	1.476937E+0	1.442628E+0	1.439216E+0	1.266396E+0	1.369642E+0	1.539553E+0	1.607589E+0	1.416280E+0	1.396812E+0	1.371739E+0	1.475187E+0	1.558329E+0	1.596279E+0	1.305896E+0	1.340377E+0	1.515269E+0	1.494002E+0	1.444251E+0	1.451607E+0	1.307389E+0	1.449804E+0	1.565662E+0	1.605846E+0	1.224930E+0	1.452007E+0	1.456642E+0	1.537589E+0	1.507195E+0	1.569845E+0	1.343229E+0	1.358374E+0	1.473489E+0	1.553109E+0	1.270070E+0	1.176591E+0
5.420210E+2	1.410632E+0	1.471231E+0	1.294544E+0	1.094878E+0	1.456439E+0	1.446755E+0	1.239167E+0	1.284625E+0	1.295100E+0	1.362643E+0	1.359239E+0	1.377899E+0	1.215364E+0	1.240553E+0	1.287116E+0	1.461199E+0	1.323483E+0	1.325391E+0	1.280163E+0	1.351259E+0	1.459107E+0	1.430288E+0	1.260266E+0	1.167148E+0	1.309083E+0	1.370689E+0	1.264691E+0	1.250317E+0	1.250051E+0	1.257890E+0	1.359596E+0	1.395564E+0	1.349031E+0	1.347212E+0	1.331392E+0	1.416561E+0	1.462470E+0	1.450768E+0	1.205222E+0	1.173349E+0	1.276859E+0	1.311828E+0	1.354460E+0	1.329875E+0	1.242490E+0	1.265606E+0	1.325038E+0	1.453627E+0	1.340346E+0	1.334387E+0	1.304628E+0	1.375194E+0	1.473469E+0	1.435099E+0	1.235420E+0	1.218757E+0	1.172924E+0	1.309390E+0	1.319565E+0	1.242459E+0	1.182448E+0	1.261504E+0	1.333598E+0	1.451667E+0	1.289257E+0	1.381197E+0	1.299178E+0	1.342709E+0	1.430786E+0	1.488483E+0	1.183686E+0	1.191651E+0	1.366587E+0	1.403962E+0	1.349271E+0	1.347818E+0	1.236193E+0	1.227259E+0	1.393544E+0	1.467576E+0	1.304923E+0	1.346330E+0	1.338857E+0	1.325565E+0	1.401521E+0	1.449447E+0	1.265788E+0	1.213006E+0	1.383319E+0	1.325069E+0	1.099610E+0	1.222943E+0	1.224117E+0	1.234940E+0	1.311464E+0	1.380955E+0	1.352814E+0	1.330996E+0	1.331040E+0	1.294369E+0	1.403458E+0	1.492966E+0	1.199147E+0	1.263630E+0	1.288519E+0	1.404850E+0	1.256842E+0	1.371923E+0	1.267736E+0	1.308475E+0	1.402781E+0	1.458828E+0	1.355161E+0	1.331378E+0	1.302287E+0	1.300463E+0	1.476499E+0	1.466243E+0	1.228263E+0	1.228095E+0	1.424828E+0	1.399707E+0	1.272526E+0	1.320666E+0	1.317616E+0	1.329762E+0	1.399673E+0	1.488974E+0	1.345044E+0	1.375599E+0	1.279191E+0	1.357399E+0	1.432581E+0	1.426950E+0	1.196419E+0	1.148051E+0	1.269738E+0	1.331686E+0	1.286828E+0	1.299107E+0	1.181724E+0	1.230563E+0	1.333371E+0	1.429846E+0	1.246249E+0	1.291865E+0	1.326087E+0	1.347361E+0	1.360732E+0	1.439399E+0	1.190344E+0	1.170460E+0	1.339309E+0	1.342026E+0	1.276931E+0	1.334286E+0	1.160739E+0	1.241594E+0	1.400642E+0	1.446104E+0	1.094042E+0	1.311470E+0	1.248706E+0	1.341611E+0	1.338372E+0	1.427619E+0	1.191585E+0	1.215357E+0	1.346976E+0	1.307849E+0	1.087164E+0	1.092135E+0
5.422620E+2	1.220173E+0	1.246691E+0	1.130494E+0	1.056926E+0	1.233076E+0	1.272283E+0	1.046014E+0	1.022761E+0	1.143647E+0	1.122811E+0	1.124872E+0	1.200940E+0	1.055296E+0	1.058588E+0	1.146217E+0	1.226422E+0	1.125658E+0	1.166168E+0	1.099728E+0	1.149483E+0	1.226361E+0	1.232030E+0	1.048727E+0	1.017982E+0	1.134110E+0	1.148352E+0	1.026006E+0	1.072732E+0	1.072214E+0	1.090153E+0	1.148988E+0	1.251609E+0	1.167687E+0	1.231862E+0	1.126970E+0	1.172298E+0	1.233851E+0	1.237700E+0	1.029891E+0	1.014886E+0	1.137084E+0	1.080176E+0	1.068753E+0	1.094310E+0	1.066177E+0	1.016450E+0	1.185041E+0	1.191600E+0	1.137152E+0	1.151733E+0	1.122641E+0	1.184625E+0	1.182959E+0	1.227728E+0	1.078503E+0	9.899532E-1	1.024039E+0	1.194219E+0	1.135095E+0	1.092502E+0	1.029548E+0	1.070415E+0	1.143611E+0	1.148539E+0	1.116795E+0	1.229865E+0	1.101323E+0	1.166424E+0	1.190473E+0	1.250754E+0	1.066008E+0	1.023400E+0	1.148494E+0	1.122274E+0	1.074844E+0	1.126249E+0	1.027377E+0	1.093860E+0	1.141287E+0	1.230879E+0	1.124982E+0	1.187571E+0	1.157828E+0	1.176819E+0	1.233235E+0	1.216031E+0	1.017398E+0	1.049915E+0	1.093430E+0	1.101547E+0	9.411941E-1	1.094333E+0	1.010234E+0	1.049059E+0	1.127757E+0	1.194120E+0	1.170366E+0	1.132118E+0	1.122568E+0	1.117221E+0	1.196829E+0	1.243990E+0	1.054065E+0	1.079644E+0	1.155297E+0	1.214287E+0	1.090174E+0	1.216571E+0	1.122487E+0	1.110764E+0	1.150523E+0	1.275716E+0	1.140364E+0	1.129737E+0	1.174183E+0	1.119262E+0	1.259148E+0	1.203983E+0	1.042556E+0	1.009492E+0	1.201630E+0	1.190505E+0	1.113094E+0	1.139171E+0	1.093362E+0	1.132025E+0	1.177813E+0	1.182556E+0	1.193378E+0	1.146350E+0	1.067055E+0	1.206483E+0	1.228016E+0	1.224028E+0	1.062138E+0	1.016274E+0	1.091112E+0	1.161199E+0	1.061376E+0	1.163061E+0	1.040123E+0	1.061393E+0	1.137690E+0	1.181309E+0	1.131804E+0	1.111157E+0	1.076305E+0	1.135930E+0	1.188443E+0	1.208989E+0	1.020965E+0	1.026874E+0	1.118218E+0	1.109741E+0	1.115998E+0	1.103533E+0	1.025229E+0	1.090889E+0	1.146210E+0	1.208342E+0	9.191572E-1	1.079807E+0	1.111820E+0	1.181204E+0	1.154299E+0	1.212205E+0	1.027848E+0	1.056895E+0	1.168373E+0	1.111142E+0	9.600917E-1	9.033500E-1
5.425190E+2	1.041029E+0	1.106662E+0	1.005621E+0	8.785582E-1	1.097736E+0	1.127295E+0	1.062601E+0	9.012031E-1	1.023200E+0	1.038067E+0	1.003075E+0	1.049829E+0	8.753275E-1	9.667624E-1	1.009149E+0	1.057083E+0	1.021673E+0	1.005211E+0	9.932227E-1	1.019449E+0	1.052059E+0	1.113546E+0	9.253281E-1	9.297073E-1	9.874941E-1	1.036588E+0	9.507877E-1	1.017198E+0	9.082864E-1	9.389640E-1	1.035695E+0	1.060784E+0	9.722570E-1	9.750752E-1	9.611073E-1	9.874873E-1	1.091022E+0	1.058152E+0	8.963739E-1	9.049219E-1	1.009273E+0	9.456520E-1	9.909457E-1	9.964915E-1	9.018886E-1	9.357768E-1	1.021153E+0	1.070623E+0	9.507407E-1	1.009201E+0	1.009926E+0	1.013176E+0	1.107643E+0	1.047817E+0	8.893591E-1	9.188833E-1	8.727703E-1	1.056590E+0	9.911737E-1	9.498301E-1	8.624575E-1	9.367820E-1	9.918032E-1	1.022600E+0	9.287101E-1	1.065491E+0	9.673531E-1	1.062008E+0	1.108488E+0	1.061875E+0	9.034087E-1	9.006887E-1	9.841146E-1	1.015999E+0	9.862019E-1	1.013256E+0	9.113180E-1	9.309582E-1	1.024608E+0	1.092603E+0	9.420711E-1	1.009420E+0	9.830855E-1	1.014840E+0	1.047914E+0	1.076985E+0	8.957484E-1	9.493718E-1	9.699231E-1	9.738192E-1	8.805883E-1	9.331005E-1	9.140797E-1	9.414885E-1	1.019807E+0	1.070106E+0	1.028721E+0	9.789518E-1	9.420219E-1	1.012512E+0	1.105346E+0	1.078493E+0	9.233949E-1	9.304376E-1	1.011175E+0	1.048000E+0	9.546027E-1	1.063300E+0	9.643391E-1	1.006555E+0	1.018389E+0	1.087345E+0	1.013407E+0	1.017207E+0	9.924974E-1	9.117064E-1	1.081318E+0	1.086937E+0	9.347883E-1	9.392276E-1	1.073994E+0	1.044125E+0	9.790281E-1	9.675388E-1	9.981224E-1	1.009907E+0	1.054273E+0	1.146742E+0	1.056431E+0	9.937304E-1	9.256317E-1	1.044201E+0	1.088847E+0	1.094571E+0	9.104796E-1	8.830800E-1	9.673486E-1	1.023947E+0	9.660634E-1	9.606808E-1	8.946278E-1	9.592509E-1	1.059197E+0	1.090655E+0	9.264581E-1	9.372799E-1	9.602174E-1	9.804645E-1	1.023690E+0	1.096117E+0	8.728197E-1	9.399284E-1	1.021408E+0	1.052287E+0	9.633659E-1	9.680626E-1	9.166343E-1	9.424987E-1	1.078261E+0	1.109226E+0	8.113657E-1	1.007934E+0	1.018607E+0	9.866221E-1	1.024433E+0	1.107871E+0	9.029031E-1	9.207428E-1	1.051164E+0	9.903793E-1	1.000525E+0	9.232216E-1
5.427760E+2	1.088172E+0	1.073352E+0	1.079076E+0	7.685011E-1	1.100280E+0	1.035878E+0	1.104333E+0	9.241838E-1	9.647655E-1	1.036959E+0	1.065819E+0	1.062421E+0	9.268077E-1	9.052648E-1	9.899791E-1	1.038100E+0	9.525610E-1	1.034739E+0	1.021415E+0	9.893437E-1	1.052058E+0	1.081921E+0	1.117809E+0	8.928873E-1	9.784433E-1	1.006269E+0	1.058581E+0	9.567824E-1	9.082848E-1	9.939826E-1	9.969615E-1	1.059347E+0	1.024489E+0	9.889866E-1	1.019251E+0	9.881338E-1	1.096773E+0	1.081111E+0	1.054124E+0	8.823527E-1	1.032568E+0	1.011096E+0	1.041987E+0	9.558996E-1	8.996619E-1	9.442453E-1	1.048867E+0	1.046211E+0	1.007683E+0	1.025969E+0	1.055130E+0	1.033528E+0	1.062041E+0	1.084746E+0	1.021993E+0	8.854108E-1	8.900411E-1	1.029526E+0	9.814646E-1	9.668297E-1	8.945024E-1	9.691266E-1	9.720227E-1	1.004609E+0	9.881999E-1	1.075127E+0	9.747964E-1	1.086417E+0	1.072108E+0	1.093974E+0	8.912008E-1	8.805561E-1	1.008707E+0	1.031997E+0	9.594871E-1	1.035350E+0	9.500044E-1	9.419646E-1	1.017520E+0	1.075379E+0	9.854234E-1	1.003966E+0	9.868568E-1	9.927806E-1	1.076822E+0	1.088529E+0	8.932036E-1	8.937704E-1	1.003199E+0	9.997259E-1	9.027905E-1	9.650957E-1	9.098591E-1	8.568751E-1	9.489971E-1	1.024616E+0	1.049123E+0	1.023477E+0	9.881331E-1	1.013171E+0	1.100613E+0	1.111494E+0	9.119672E-1	9.390069E-1	1.008148E+0	1.043144E+0	9.266171E-1	1.048043E+0	9.667286E-1	9.721291E-1	1.044335E+0	1.081558E+0	1.002507E+0	9.742776E-1	9.912651E-1	9.914344E-1	1.053015E+0	1.040798E+0	9.578813E-1	9.231253E-1	1.053278E+0	1.044124E+0	9.735928E-1	9.642512E-1	9.568374E-1	9.934673E-1	1.079990E+0	1.074616E+0	1.053871E+0	1.040346E+0	9.295248E-1	1.078299E+0	1.086754E+0	1.099708E+0	9.020537E-1	9.265332E-1	9.769182E-1	9.654775E-1	1.044879E+0	9.891089E-1	8.629980E-1	9.081802E-1	1.005025E+0	1.088109E+0	9.500009E-1	9.416267E-1	9.856524E-1	1.021231E+0	1.034458E+0	1.060390E+0	9.547934E-1	9.121056E-1	1.018791E+0	9.843310E-1	9.282421E-1	9.460242E-1	9.143138E-1	9.406445E-1	1.039432E+0	1.094991E+0	7.668195E-1	9.373450E-1	9.827558E-1	1.022191E+0	1.011447E+0	1.090223E+0	9.421995E-1	9.293238E-1	9.786047E-1	9.791756E-1	1.017854E+0	8.387657E-1
5.430070E+2	1.054858E+0	1.104812E+0	1.131718E+0	9.924111E-1	1.145053E+0	1.064384E+0	1.124666E+0	9.532129E-1	1.032144E+0	1.004280E+0	1.035062E+0	1.059108E+0	9.713682E-1	9.339085E-1	1.056596E+0	1.094546E+0	1.030550E+0	1.054424E+0	1.046476E+0	1.009200E+0	1.089481E+0	1.109770E+0	1.111142E+0	9.297072E-1	1.008008E+0	1.010430E+0	1.104186E+0	1.007434E+0	9.044931E-1	9.613290E-1	1.087017E+0	1.087567E+0	1.050311E+0	1.052169E+0	1.098205E+0	1.020443E+0	1.103004E+0	1.107286E+0	1.145828E+0	9.284510E-1	1.011162E+0	1.012135E+0	1.086804E+0	1.052388E+0	9.005534E-1	9.598448E-1	1.045042E+0	1.105886E+0	9.879031E-1	1.045732E+0	1.065109E+0	1.045246E+0	1.131213E+0	1.126883E+0	1.102319E+0	9.101714E-1	9.168404E-1	1.019736E+0	1.073986E+0	9.856499E-1	9.027420E-1	9.733821E-1	1.071387E+0	1.090204E+0	1.050094E+0	1.039985E+0	1.025035E+0	1.024039E+0	1.076719E+0	1.081880E+0	1.089934E+0	8.949363E-1	1.041712E+0	1.064566E+0	1.079094E+0	1.016412E+0	9.623149E-1	9.939174E-1	1.081292E+0	1.116714E+0	9.634499E-1	1.036688E+0	1.052857E+0	1.062110E+0	1.106764E+0	1.119651E+0	1.011799E+0	9.382516E-1	1.002560E+0	1.009968E+0	9.327929E-1	9.506661E-1	9.136111E-1	9.036834E-1	1.037138E+0	1.100433E+0	1.015314E+0	1.040099E+0	1.071912E+0	1.006586E+0	1.124272E+0	1.090139E+0	9.527089E-1	9.909266E-1	1.069914E+0	1.094730E+0	9.427865E-1	9.981080E-1	9.839291E-1	9.539870E-1	1.016467E+0	1.137331E+0	1.062138E+0	1.028265E+0	1.069483E+0	1.034263E+0	1.091999E+0	1.069937E+0	9.665411E-1	9.177575E-1	1.096714E+0	1.041161E+0	9.905021E-1	9.655658E-1	1.005161E+0	1.007089E+0	1.093605E+0	1.123361E+0	1.022515E+0	1.031406E+0	9.554735E-1	1.048622E+0	1.090940E+0	1.070941E+0	8.830964E-1	9.591231E-1	9.877630E-1	1.051029E+0	1.002722E+0	1.035812E+0	9.087390E-1	9.355391E-1	1.035428E+0	1.049401E+0	9.460774E-1	9.838542E-1	9.765217E-1	1.003266E+0	1.136754E+0	1.074888E+0	9.350408E-1	9.245264E-1	1.024024E+0	1.097385E+0	9.780544E-1	9.492644E-1	9.161704E-1	9.471368E-1	1.086436E+0	1.140857E+0	8.427133E-1	1.052213E+0	9.944885E-1	1.048694E+0	1.032903E+0	1.120331E+0	9.039106E-1	9.447695E-1	9.897671E-1	1.000339E+0	1.008226E+0	9.132860E-1
5.432640E+2	1.249716E+0	1.253477E+0	1.273731E+0	1.018976E+0	1.247833E+0	1.266874E+0	1.224720E+0	1.094124E+0	1.190156E+0	1.148289E+0	1.182694E+0	1.142616E+0	1.082551E+0	1.075435E+0	1.123211E+0	1.240907E+0	1.159263E+0	1.202067E+0	1.219392E+0	1.169981E+0	1.244307E+0	1.248080E+0	1.258361E+0	1.064243E+0	1.136523E+0	1.167969E+0	1.214938E+0	1.150845E+0	1.067581E+0	1.126831E+0	1.197405E+0	1.266913E+0	1.232830E+0	1.182012E+0	1.254275E+0	1.158082E+0	1.275550E+0	1.276730E+0	1.233733E+0	1.036014E+0	1.180528E+0	1.139906E+0	1.241795E+0	1.137563E+0	1.074637E+0	1.042302E+0	1.200808E+0	1.189973E+0	1.172517E+0	1.237371E+0	1.193675E+0	1.179074E+0	1.231122E+0	1.240983E+0	1.247094E+0	1.015633E+0	1.136596E+0	1.143544E+0	1.246463E+0	1.050612E+0	1.067086E+0	1.132125E+0	1.174432E+0	1.219961E+0	1.169676E+0	1.207758E+0	1.224749E+0	1.169135E+0	1.222241E+0	1.229821E+0	1.269133E+0	1.016211E+0	1.182793E+0	1.137130E+0	1.202951E+0	1.166018E+0	1.048918E+0	1.096060E+0	1.166795E+0	1.264343E+0	1.143986E+0	1.182722E+0	1.231372E+0	1.132701E+0	1.255951E+0	1.252174E+0	1.230159E+0	1.038330E+0	1.142065E+0	1.164807E+0	1.000600E+0	1.081786E+0	1.043535E+0	1.095417E+0	1.146075E+0	1.249360E+0	1.114407E+0	1.165956E+0	1.210893E+0	1.092196E+0	1.255190E+0	1.223120E+0	1.286592E+0	1.133077E+0	1.163775E+0	1.199115E+0	1.226369E+0	1.136815E+0	1.125832E+0	1.127045E+0	1.234609E+0	1.249407E+0	1.179476E+0	1.185676E+0	1.174184E+0	1.129145E+0	1.206813E+0	1.256436E+0	1.233074E+0	1.126115E+0	1.223682E+0	1.228434E+0	1.203076E+0	1.184545E+0	1.096645E+0	1.086935E+0	1.179323E+0	1.242250E+0	1.169700E+0	1.155929E+0	1.147498E+0	1.110503E+0	1.279812E+0	1.261018E+0	1.122170E+0	1.065394E+0	1.127474E+0	1.136580E+0	1.127362E+0	1.147493E+0	9.909751E-1	1.087841E+0	1.141559E+0	1.239879E+0	1.135729E+0	1.104947E+0	1.138913E+0	1.190515E+0	1.235820E+0	1.211061E+0	1.050100E+0	1.055691E+0	1.163352E+0	1.185727E+0	1.094923E+0	1.113904E+0	1.068387E+0	1.101091E+0	1.218761E+0	1.207284E+0	9.098077E-1	1.131145E+0	1.127464E+0	1.168650E+0	1.153734E+0	1.253734E+0	1.070166E+0	1.015134E+0	1.148837E+0	1.126083E+0	1.081388E+0	9.629656E-1
5.435220E+2	1.391775E+0	1.463213E+0	1.342288E+0	1.125238E+0	1.447280E+0	1.429552E+0	1.416265E+0	1.195121E+0	1.225336E+0	1.259067E+0	1.321099E+0	1.347412E+0	1.220123E+0	1.195903E+0	1.342711E+0	1.406252E+0	1.296219E+0	1.395445E+0	1.283294E+0	1.255175E+0	1.411946E+0	1.450115E+0	1.394623E+0	1.197831E+0	1.268055E+0	1.305890E+0	1.347017E+0	1.288761E+0	1.194004E+0	1.206898E+0	1.348461E+0	1.376433E+0	1.337292E+0	1.321709E+0	1.390146E+0	1.311875E+0	1.408312E+0	1.389234E+0	1.369152E+0	1.187276E+0	1.298266E+0	1.257810E+0	1.375000E+0	1.287952E+0	1.176596E+0	1.200977E+0	1.357053E+0	1.385274E+0	1.279209E+0	1.315825E+0	1.403251E+0	1.354224E+0	1.397640E+0	1.409059E+0	1.435305E+0	1.171071E+0	1.320619E+0	1.335878E+0	1.371538E+0	1.179320E+0	1.152690E+0	1.252990E+0	1.378219E+0	1.395514E+0	1.259211E+0	1.324518E+0	1.291113E+0	1.314910E+0	1.388259E+0	1.461036E+0	1.410736E+0	1.182544E+0	1.274043E+0	1.310827E+0	1.363238E+0	1.342136E+0	1.176844E+0	1.211852E+0	1.326934E+0	1.428698E+0	1.276418E+0	1.302703E+0	1.359599E+0	1.369054E+0	1.450560E+0	1.419333E+0	1.417470E+0	1.170381E+0	1.331485E+0	1.275663E+0	1.190819E+0	1.203495E+0	1.163610E+0	1.191285E+0	1.269868E+0	1.348465E+0	1.284613E+0	1.244915E+0	1.445994E+0	1.296345E+0	1.374014E+0	1.407061E+0	1.415773E+0	1.243469E+0	1.303658E+0	1.347803E+0	1.404229E+0	1.416309E+0	1.275382E+0	1.279633E+0	1.380675E+0	1.441464E+0	1.342980E+0	1.332680E+0	1.394053E+0	1.243795E+0	1.379306E+0	1.368625E+0	1.447168E+0	1.192475E+0	1.362679E+0	1.362961E+0	1.398742E+0	1.321324E+0	1.237860E+0	1.279975E+0	1.371438E+0	1.383519E+0	1.346962E+0	1.332176E+0	1.401152E+0	1.306252E+0	1.415320E+0	1.409998E+0	1.418640E+0	1.223148E+0	1.248047E+0	1.314453E+0	1.338760E+0	1.322798E+0	1.134526E+0	1.191806E+0	1.337792E+0	1.450216E+0	1.284834E+0	1.236597E+0	1.337174E+0	1.310741E+0	1.400573E+0	1.339466E+0	1.367130E+0	1.169961E+0	1.288289E+0	1.290133E+0	1.358675E+0	1.299932E+0	1.180232E+0	1.206352E+0	1.415458E+0	1.413418E+0	1.087993E+0	1.290934E+0	1.291076E+0	1.317201E+0	1.298848E+0	1.330555E+0	1.236423E+0	1.224510E+0	1.317209E+0	1.297889E+0	1.293174E+0	1.171623E+0
5.437590E+2	1.655148E+0	1.546490E+0	1.561431E+0	1.235294E+0	1.579570E+0	1.548985E+0	1.579989E+0	1.383204E+0	1.422703E+0	1.435753E+0	1.486571E+0	1.495210E+0	1.317896E+0	1.417464E+0	1.460126E+0	1.484678E+0	1.457904E+0	1.487504E+0	1.495682E+0	1.455672E+0	1.514475E+0	1.634681E+0	1.565189E+0	1.307823E+0	1.405619E+0	1.462241E+0	1.562598E+0	1.374808E+0	1.314528E+0	1.337510E+0	1.488872E+0	1.496958E+0	1.511009E+0	1.471258E+0	1.511333E+0	1.441761E+0	1.563599E+0	1.555466E+0	1.583445E+0	1.323168E+0	1.461336E+0	1.424018E+0	1.525636E+0	1.435680E+0	1.340886E+0	1.345386E+0	1.508517E+0	1.556705E+0	1.424863E+0	1.448773E+0	1.508923E+0	1.530609E+0	1.549812E+0	1.520796E+0	1.533847E+0	1.259566E+0	1.443301E+0	1.418225E+0	1.598270E+0	1.364489E+0	1.253402E+0	1.395986E+0	1.465624E+0	1.457121E+0	1.327115E+0	1.493992E+0	1.516258E+0	1.457975E+0	1.568622E+0	1.581065E+0	1.616304E+0	1.257320E+0	1.464310E+0	1.487383E+0	1.477987E+0	1.455127E+0	1.339941E+0	1.318399E+0	1.486602E+0	1.568450E+0	1.358373E+0	1.493578E+0	1.535599E+0	1.448467E+0	1.525413E+0	1.529765E+0	1.531992E+0	1.315866E+0	1.455630E+0	1.401582E+0	1.332434E+0	1.353434E+0	1.321676E+0	1.302903E+0	1.468432E+0	1.521218E+0	1.498540E+0	1.447948E+0	1.503144E+0	1.385908E+0	1.545417E+0	1.488597E+0	1.584703E+0	1.378056E+0	1.471398E+0	1.440658E+0	1.554727E+0	1.463469E+0	1.401040E+0	1.418732E+0	1.512329E+0	1.599314E+0	1.501997E+0	1.441956E+0	1.543096E+0	1.432903E+0	1.466353E+0	1.541525E+0	1.593903E+0	1.350085E+0	1.449551E+0	1.469638E+0	1.525561E+0	1.408784E+0	1.422236E+0	1.393171E+0	1.518172E+0	1.542199E+0	1.471109E+0	1.470107E+0	1.539333E+0	1.423067E+0	1.524144E+0	1.563087E+0	1.571882E+0	1.314308E+0	1.427314E+0	1.413547E+0	1.523277E+0	1.449370E+0	1.265421E+0	1.342737E+0	1.512465E+0	1.527626E+0	1.363964E+0	1.378184E+0	1.529566E+0	1.426130E+0	1.507718E+0	1.545023E+0	1.575027E+0	1.321500E+0	1.448546E+0	1.451373E+0	1.576448E+0	1.416605E+0	1.276758E+0	1.331095E+0	1.543694E+0	1.543638E+0	1.188635E+0	1.422487E+0	1.559633E+0	1.404380E+0	1.446215E+0	1.522094E+0	1.557850E+0	1.301167E+0	1.417674E+0	1.457246E+0	1.660908E+0	1.285885E+0
5.440120E+2	1.545148E+0	1.650124E+0	1.631825E+0	1.349145E+0	1.619762E+0	1.618285E+0	1.606743E+0	1.392878E+0	1.468019E+0	1.470096E+0	1.533319E+0	1.498524E+0	1.369808E+0	1.401880E+0	1.471151E+0	1.621049E+0	1.481995E+0	1.500243E+0	1.548933E+0	1.442859E+0	1.610343E+0	1.587950E+0	1.664768E+0	1.416866E+0	1.456302E+0	1.547254E+0	1.551348E+0	1.429123E+0	1.391643E+0	1.363899E+0	1.539220E+0	1.559608E+0	1.495163E+0	1.537921E+0	1.552338E+0	1.466961E+0	1.601944E+0	1.613783E+0	1.595797E+0	1.340456E+0	1.486521E+0	1.439082E+0	1.628961E+0	1.435016E+0	1.370268E+0	1.359205E+0	1.574454E+0	1.605527E+0	1.459627E+0	1.488899E+0	1.547666E+0	1.569462E+0	1.564158E+0	1.559614E+0	1.593623E+0	1.300375E+0	1.505240E+0	1.556427E+0	1.568576E+0	1.397879E+0	1.345872E+0	1.434716E+0	1.462865E+0	1.545439E+0	1.470731E+0	1.563711E+0	1.488968E+0	1.499330E+0	1.522505E+0	1.591302E+0	1.571869E+0	1.351752E+0	1.518024E+0	1.534236E+0	1.510163E+0	1.473433E+0	1.322359E+0	1.376515E+0	1.542817E+0	1.613727E+0	1.411820E+0	1.539025E+0	1.548171E+0	1.523469E+0	1.559999E+0	1.548336E+0	1.577804E+0	1.340887E+0	1.501067E+0	1.448578E+0	1.334234E+0	1.362845E+0	1.360138E+0	1.344309E+0	1.469424E+0	1.554794E+0	1.458901E+0	1.440821E+0	1.584974E+0	1.447812E+0	1.586424E+0	1.508983E+0	1.630412E+0	1.425440E+0	1.490774E+0	1.512270E+0	1.564675E+0	1.504389E+0	1.435441E+0	1.440128E+0	1.563739E+0	1.624574E+0	1.536621E+0	1.473180E+0	1.491979E+0	1.469142E+0	1.506403E+0	1.491988E+0	1.567442E+0	1.357890E+0	1.543778E+0	1.527716E+0	1.538244E+0	1.396948E+0	1.358433E+0	1.469728E+0	1.530273E+0	1.580003E+0	1.558142E+0	1.456698E+0	1.562037E+0	1.481791E+0	1.595298E+0	1.630383E+0	1.601366E+0	1.334144E+0	1.454743E+0	1.490477E+0	1.523277E+0	1.458847E+0	1.294130E+0	1.366904E+0	1.535683E+0	1.616245E+0	1.393394E+0	1.452703E+0	1.564783E+0	1.486933E+0	1.525486E+0	1.517062E+0	1.600705E+0	1.306096E+0	1.392947E+0	1.372914E+0	1.549624E+0	1.367343E+0	1.338948E+0	1.382565E+0	1.615222E+0	1.610065E+0	1.245831E+0	1.486017E+0	1.598091E+0	1.476911E+0	1.495903E+0	1.593727E+0	1.584048E+0	1.372103E+0	1.465117E+0	1.451020E+0	1.533838E+0	1.261046E+0
5.442810E+2	1.733724E+0	1.750058E+0	1.739561E+0	1.417457E+0	1.780036E+0	1.766709E+0	1.826112E+0	1.528951E+0	1.586081E+0	1.593057E+0	1.704942E+0	1.690065E+0	1.525119E+0	1.515607E+0	1.622116E+0	1.682487E+0	1.603736E+0	1.658307E+0	1.686139E+0	1.654883E+0	1.726202E+0	1.753635E+0	1.776729E+0	1.458406E+0	1.643947E+0	1.628102E+0	1.688754E+0	1.577414E+0	1.518490E+0	1.614838E+0	1.745473E+0	1.724608E+0	1.628384E+0	1.704280E+0	1.786140E+0	1.616230E+0	1.807080E+0	1.783689E+0	1.790610E+0	1.497958E+0	1.664699E+0	1.656189E+0	1.724820E+0	1.632651E+0	1.495825E+0	1.552198E+0	1.666669E+0	1.669002E+0	1.584300E+0	1.577532E+0	1.736696E+0	1.668756E+0	1.708131E+0	1.782137E+0	1.799110E+0	1.434263E+0	1.622557E+0	1.670445E+0	1.706782E+0	1.582442E+0	1.435598E+0	1.510895E+0	1.654693E+0	1.720993E+0	1.557866E+0	1.678205E+0	1.673795E+0	1.689177E+0	1.714657E+0	1.746685E+0	1.750585E+0	1.460565E+0	1.606037E+0	1.675935E+0	1.719022E+0	1.571910E+0	1.481497E+0	1.534131E+0	1.693977E+0	1.748558E+0	1.623826E+0	1.634161E+0	1.705942E+0	1.640701E+0	1.674081E+0	1.771716E+0	1.675022E+0	1.467375E+0	1.595778E+0	1.614262E+0	1.471647E+0	1.529725E+0	1.491937E+0	1.471231E+0	1.634811E+0	1.705886E+0	1.553332E+0	1.639108E+0	1.707722E+0	1.623640E+0	1.723655E+0	1.691954E+0	1.763066E+0	1.539864E+0	1.617942E+0	1.640932E+0	1.704601E+0	1.684012E+0	1.530997E+0	1.552246E+0	1.712209E+0	1.757695E+0	1.617411E+0	1.678075E+0	1.719856E+0	1.559413E+0	1.706664E+0	1.702770E+0	1.737754E+0	1.456944E+0	1.668740E+0	1.604757E+0	1.732095E+0	1.590279E+0	1.516537E+0	1.580579E+0	1.729446E+0	1.635218E+0	1.716208E+0	1.636138E+0	1.683998E+0	1.625131E+0	1.730280E+0	1.691005E+0	1.776196E+0	1.483871E+0	1.528749E+0	1.639422E+0	1.654640E+0	1.605721E+0	1.402645E+0	1.504160E+0	1.719202E+0	1.691622E+0	1.556230E+0	1.556405E+0	1.696519E+0	1.625127E+0	1.617015E+0	1.697763E+0	1.792306E+0	1.481479E+0	1.544049E+0	1.592227E+0	1.774418E+0	1.552723E+0	1.441972E+0	1.540692E+0	1.748567E+0	1.771916E+0	1.339323E+0	1.563027E+0	1.725202E+0	1.585012E+0	1.651177E+0	1.691829E+0	1.698915E+0	1.463060E+0	1.546977E+0	1.561824E+0	1.626253E+0	1.534286E+0
5.445240E+2	1.742519E+0	1.814828E+0	1.738335E+0	1.626188E+0	1.769349E+0	1.682669E+0	1.763509E+0	1.658979E+0	1.630204E+0	1.636259E+0	1.633586E+0	1.747727E+0	1.460226E+0	1.552254E+0	1.625470E+0	1.771408E+0	1.568228E+0	1.691306E+0	1.718720E+0	1.588907E+0	1.788747E+0	1.704544E+0	1.774824E+0	1.496170E+0	1.621021E+0	1.635237E+0	1.714221E+0	1.637832E+0	1.486041E+0	1.548190E+0	1.697539E+0	1.745173E+0	1.633079E+0	1.628923E+0	1.749416E+0	1.670510E+0	1.761067E+0	1.797922E+0	1.737395E+0	1.498917E+0	1.684219E+0	1.583991E+0	1.666306E+0	1.549470E+0	1.530553E+0	1.549527E+0	1.678615E+0	1.729763E+0	1.593293E+0	1.586513E+0	1.806557E+0	1.634836E+0	1.734777E+0	1.773613E+0	1.763152E+0	1.404460E+0	1.654722E+0	1.644533E+0	1.717066E+0	1.580018E+0	1.428273E+0	1.556857E+0	1.675392E+0	1.680102E+0	1.593319E+0	1.698040E+0	1.711010E+0	1.617987E+0	1.731055E+0	1.713653E+0	1.703220E+0	1.454334E+0	1.618334E+0	1.702790E+0	1.719631E+0	1.600318E+0	1.489410E+0	1.480417E+0	1.656658E+0	1.785462E+0	1.590572E+0	1.582046E+0	1.734228E+0	1.615487E+0	1.769584E+0	1.749127E+0	1.688253E+0	1.441430E+0	1.627133E+0	1.607031E+0	1.519653E+0	1.484554E+0	1.445499E+0	1.535143E+0	1.645210E+0	1.702099E+0	1.599382E+0	1.572615E+0	1.691484E+0	1.582813E+0	1.718919E+0	1.742913E+0	1.772513E+0	1.564564E+0	1.633082E+0	1.724684E+0	1.763062E+0	1.595933E+0	1.526700E+0	1.554105E+0	1.752092E+0	1.762433E+0	1.666784E+0	1.649452E+0	1.723551E+0	1.593016E+0	1.666080E+0	1.710540E+0	1.831086E+0	1.451578E+0	1.653371E+0	1.623722E+0	1.700090E+0	1.577784E+0	1.589258E+0	1.587621E+0	1.731967E+0	1.675012E+0	1.672691E+0	1.653378E+0	1.665834E+0	1.627654E+0	1.721907E+0	1.705387E+0	1.743549E+0	1.443250E+0	1.598919E+0	1.652962E+0	1.674802E+0	1.633473E+0	1.406052E+0	1.446703E+0	1.646238E+0	1.706388E+0	1.511763E+0	1.542746E+0	1.738909E+0	1.632034E+0	1.647704E+0	1.689478E+0	1.717740E+0	1.456139E+0	1.650669E+0	1.588521E+0	1.681184E+0	1.592264E+0	1.475848E+0	1.487363E+0	1.692879E+0	1.673329E+0	1.322822E+0	1.588051E+0	1.763009E+0	1.611515E+0	1.656823E+0	1.678853E+0	1.726121E+0	1.456199E+0	1.657675E+0	1.595439E+0	1.689788E+0	1.385246E+0
5.447610E+2	1.692232E+0	1.810507E+0	1.763433E+0	1.561673E+0	1.751035E+0	1.722968E+0	1.705187E+0	1.787790E+0	1.623647E+0	1.573118E+0	1.684028E+0	1.649636E+0	1.479692E+0	1.476015E+0	1.636015E+0	1.757919E+0	1.567593E+0	1.614300E+0	1.679250E+0	1.708690E+0	1.669295E+0	1.744198E+0	1.781970E+0	1.761463E+0	1.573353E+0	1.577572E+0	1.699416E+0	1.687871E+0	1.478456E+0	1.495407E+0	1.636051E+0	1.724129E+0	1.654791E+0	1.646313E+0	1.652716E+0	1.731251E+0	1.721288E+0	1.718482E+0	1.714586E+0	1.630492E+0	1.622514E+0	1.576720E+0	1.683114E+0	1.767067E+0	1.426367E+0	1.458599E+0	1.695817E+0	1.765024E+0	1.554331E+0	1.596095E+0	1.666840E+0	1.675538E+0	1.719404E+0	1.688393E+0	1.716914E+0	1.567235E+0	1.676756E+0	1.661233E+0	1.649673E+0	1.602477E+0	1.458948E+0	1.477273E+0	1.637212E+0	1.686643E+0	1.602934E+0	1.645328E+0	1.658910E+0	1.691889E+0	1.628573E+0	1.730867E+0	1.711521E+0	1.409274E+0	1.600860E+0	1.611375E+0	1.639485E+0	1.579485E+0	1.536887E+0	1.476012E+0	1.668942E+0	1.750035E+0	1.538909E+0	1.595984E+0	1.680171E+0	1.626204E+0	1.650337E+0	1.694413E+0	1.693853E+0	1.418265E+0	1.540104E+0	1.579320E+0	1.366639E+0	1.451929E+0	1.451599E+0	1.425776E+0	1.631841E+0	1.654440E+0	1.576064E+0	1.575584E+0	1.662908E+0	1.555153E+0	1.682117E+0	1.737576E+0	1.695001E+0	1.497521E+0	1.577975E+0	1.583275E+0	1.652364E+0	1.607723E+0	1.511885E+0	1.585742E+0	1.678097E+0	1.727175E+0	1.623822E+0	1.657255E+0	1.705694E+0	1.558095E+0	1.665545E+0	1.642546E+0	1.713217E+0	1.389606E+0	1.655372E+0	1.586385E+0	1.707939E+0	1.546878E+0	1.462587E+0	1.549105E+0	1.618008E+0	1.626760E+0	1.623417E+0	1.600378E+0	1.651565E+0	1.585983E+0	1.704642E+0	1.688948E+0	1.722487E+0	1.404991E+0	1.547247E+0	1.555720E+0	1.658914E+0	1.542099E+0	1.379288E+0	1.482270E+0	1.619704E+0	1.706391E+0	1.469907E+0	1.530944E+0	1.718044E+0	1.596105E+0	1.687545E+0	1.655823E+0	1.696012E+0	1.422850E+0	1.607498E+0	1.534156E+0	1.723970E+0	1.500219E+0	1.429905E+0	1.488294E+0	1.638214E+0	1.632732E+0	1.271676E+0	1.566235E+0	1.652194E+0	1.541772E+0	1.650614E+0	1.702209E+0	1.761893E+0	1.403569E+0	1.572094E+0	1.479655E+0	1.724445E+0	1.300791E+0
5.450090E+2	1.707319E+0	1.729081E+0	1.658146E+0	1.599621E+0	1.718472E+0	1.611403E+0	1.661851E+0	1.703125E+0	1.519894E+0	1.563146E+0	1.624358E+0	1.732483E+0	1.453304E+0	1.402720E+0	1.535369E+0	1.674497E+0	1.527013E+0	1.577249E+0	1.575249E+0	1.649119E+0	1.646231E+0	1.683773E+0	1.673341E+0	1.768071E+0	1.447253E+0	1.558547E+0	1.624789E+0	1.725094E+0	1.429574E+0	1.445311E+0	1.559071E+0	1.655739E+0	1.551503E+0	1.635300E+0	1.690661E+0	1.660171E+0	1.627347E+0	1.702407E+0	1.655192E+0	1.631932E+0	1.572150E+0	1.455182E+0	1.650746E+0	1.650615E+0	1.421027E+0	1.426063E+0	1.616023E+0	1.704804E+0	1.518969E+0	1.524231E+0	1.625159E+0	1.644087E+0	1.646138E+0	1.684131E+0	1.679554E+0	1.654814E+0	1.499283E+0	1.547791E+0	1.695932E+0	1.648014E+0	1.371050E+0	1.460249E+0	1.543368E+0	1.699729E+0	1.533828E+0	1.592616E+0	1.622315E+0	1.687822E+0	1.590657E+0	1.654570E+0	1.611423E+0	1.685854E+0	1.510258E+0	1.525093E+0	1.576948E+0	1.706997E+0	1.407641E+0	1.443877E+0	1.561240E+0	1.666379E+0	1.539500E+0	1.575382E+0	1.619199E+0	1.623050E+0	1.667888E+0	1.671319E+0	1.627174E+0	1.471083E+0	1.510667E+0	1.482920E+0	1.438044E+0	1.489572E+0	1.380774E+0	1.416775E+0	1.530329E+0	1.620865E+0	1.563240E+0	1.487126E+0	1.605107E+0	1.467567E+0	1.643207E+0	1.647301E+0	1.689040E+0	1.452657E+0	1.521658E+0	1.542617E+0	1.599503E+0	1.583451E+0	1.506629E+0	1.495491E+0	1.595451E+0	1.711918E+0	1.589197E+0	1.596765E+0	1.583746E+0	1.533715E+0	1.645785E+0	1.599807E+0	1.670879E+0	1.415956E+0	1.578525E+0	1.661059E+0	1.649360E+0	1.423908E+0	1.526390E+0	1.526559E+0	1.639693E+0	1.557619E+0	1.607414E+0	1.516725E+0	1.592529E+0	1.530415E+0	1.616746E+0	1.592367E+0	1.633493E+0	1.375235E+0	1.539592E+0	1.524329E+0	1.570324E+0	1.514348E+0	1.301432E+0	1.406577E+0	1.567190E+0	1.617772E+0	1.409742E+0	1.468226E+0	1.673695E+0	1.558105E+0	1.573402E+0	1.626829E+0	1.664901E+0	1.351804E+0	1.487792E+0	1.481643E+0	1.626898E+0	1.512539E+0	1.384426E+0	1.400187E+0	1.656092E+0	1.661203E+0	1.192484E+0	1.529013E+0	1.648938E+0	1.504109E+0	1.490820E+0	1.638363E+0	1.662135E+0	1.381256E+0	1.464185E+0	1.549374E+0	1.753324E+0	1.295822E+0
5.452640E+2	1.465319E+0	1.505158E+0	1.558982E+0	1.504744E+0	1.542428E+0	1.508191E+0	1.546817E+0	1.549512E+0	1.369037E+0	1.411384E+0	1.417060E+0	1.545579E+0	1.265979E+0	1.324374E+0	1.416997E+0	1.485678E+0	1.431905E+0	1.402393E+0	1.575873E+0	1.469763E+0	1.560613E+0	1.500151E+0	1.484671E+0	1.543375E+0	1.405622E+0	1.443813E+0	1.451255E+0	1.532256E+0	1.318740E+0	1.345115E+0	1.473861E+0	1.529000E+0	1.456429E+0	1.486328E+0	1.489298E+0	1.499270E+0	1.514233E+0	1.532046E+0	1.499817E+0	1.523407E+0	1.461335E+0	1.345590E+0	1.429152E+0	1.589397E+0	1.287458E+0	1.290119E+0	1.457391E+0	1.562129E+0	1.433254E+0	1.455959E+0	1.472522E+0	1.502238E+0	1.553911E+0	1.539255E+0	1.495082E+0	1.557150E+0	1.432581E+0	1.414769E+0	1.516601E+0	1.473163E+0	1.258895E+0	1.322784E+0	1.430202E+0	1.521997E+0	1.339732E+0	1.441280E+0	1.472223E+0	1.554250E+0	1.486127E+0	1.513142E+0	1.532319E+0	1.522880E+0	1.394414E+0	1.465669E+0	1.499842E+0	1.523935E+0	1.296858E+0	1.353620E+0	1.452116E+0	1.527118E+0	1.377375E+0	1.417832E+0	1.483430E+0	1.514012E+0	1.439720E+0	1.441918E+0	1.472439E+0	1.488692E+0	1.379479E+0	1.390740E+0	1.273027E+0	1.504630E+0	1.211453E+0	1.260596E+0	1.453579E+0	1.520134E+0	1.370301E+0	1.361864E+0	1.434950E+0	1.414883E+0	1.493889E+0	1.513349E+0	1.538493E+0	1.515163E+0	1.384197E+0	1.394533E+0	1.469527E+0	1.448904E+0	1.393395E+0	1.365698E+0	1.436891E+0	1.594056E+0	1.416077E+0	1.432850E+0	1.469806E+0	1.423018E+0	1.501066E+0	1.445847E+0	1.544349E+0	1.357404E+0	1.432844E+0	1.417485E+0	1.485098E+0	1.429169E+0	1.359839E+0	1.335870E+0	1.471277E+0	1.540706E+0	1.511426E+0	1.463723E+0	1.462134E+0	1.394023E+0	1.502693E+0	1.491676E+0	1.555556E+0	1.264241E+0	1.380742E+0	1.447395E+0	1.500670E+0	1.412819E+0	1.213356E+0	1.244700E+0	1.438948E+0	1.494016E+0	1.331919E+0	1.322294E+0	1.508698E+0	1.421984E+0	1.445802E+0	1.502049E+0	1.463422E+0	1.248463E+0	1.398834E+0	1.387126E+0	1.479373E+0	1.402345E+0	1.266549E+0	1.332483E+0	1.515594E+0	1.439779E+0	1.127589E+0	1.383343E+0	1.457294E+0	1.463660E+0	1.403302E+0	1.522092E+0	1.539710E+0	1.255401E+0	1.365581E+0	1.429856E+0	1.483781E+0	1.375310E+0
5.455180E+2	1.350917E+0	1.301592E+0	1.382078E+0	1.436434E+0	1.333309E+0	1.383353E+0	1.350454E+0	1.363849E+0	1.239050E+0	1.248543E+0	1.296492E+0	1.387841E+0	1.138790E+0	1.116715E+0	1.267467E+0	1.353803E+0	1.231546E+0	1.292966E+0	1.364115E+0	1.316669E+0	1.320178E+0	1.337768E+0	1.344120E+0	1.360691E+0	1.222804E+0	1.255954E+0	1.328655E+0	1.355281E+0	1.156077E+0	1.171562E+0	1.330064E+0	1.401303E+0	1.278020E+0	1.264322E+0	1.329556E+0	1.377141E+0	1.341210E+0	1.325407E+0	1.352995E+0	1.349098E+0	1.256711E+0	1.220415E+0	1.314622E+0	1.373794E+0	1.157896E+0	1.138576E+0	1.287771E+0	1.363574E+0	1.211476E+0	1.233179E+0	1.296408E+0	1.354224E+0	1.318225E+0	1.348459E+0	1.283525E+0	1.411796E+0	1.240816E+0	1.278871E+0	1.322423E+0	1.349310E+0	1.119274E+0	1.172554E+0	1.289898E+0	1.350804E+0	1.212943E+0	1.276342E+0	1.299797E+0	1.338641E+0	1.316011E+0	1.335891E+0	1.295501E+0	1.331622E+0	1.301224E+0	1.287403E+0	1.356557E+0	1.422934E+0	1.127168E+0	1.171788E+0	1.289144E+0	1.351935E+0	1.218219E+0	1.267557E+0	1.311199E+0	1.345100E+0	1.298280E+0	1.286306E+0	1.369114E+0	1.364054E+0	1.274530E+0	1.294344E+0	1.145214E+0	1.392960E+0	1.121865E+0	1.122422E+0	1.263925E+0	1.378791E+0	1.228656E+0	1.301905E+0	1.266096E+0	1.242345E+0	1.293570E+0	1.343972E+0	1.336774E+0	1.337732E+0	1.194658E+0	1.326564E+0	1.316544E+0	1.319214E+0	1.202757E+0	1.215897E+0	1.291787E+0	1.385688E+0	1.234619E+0	1.260478E+0	1.314606E+0	1.339335E+0	1.330707E+0	1.317631E+0	1.324966E+0	1.367649E+0	1.243062E+0	1.245028E+0	1.299701E+0	1.345655E+0	1.147782E+0	1.215160E+0	1.331602E+0	1.341236E+0	1.364243E+0	1.256824E+0	1.311628E+0	1.350452E+0	1.309109E+0	1.330884E+0	1.391787E+0	1.352094E+0	1.201477E+0	1.223978E+0	1.300270E+0	1.345810E+0	1.109708E+0	1.154415E+0	1.326737E+0	1.335117E+0	1.153386E+0	1.198716E+0	1.271304E+0	1.276193E+0	1.299893E+0	1.285102E+0	1.345897E+0	1.241010E+0	1.211102E+0	1.243799E+0	1.356121E+0	1.226687E+0	1.115261E+0	1.140042E+0	1.375608E+0	1.350155E+0	1.054445E+0	1.237671E+0	1.289121E+0	1.261406E+0	1.280777E+0	1.294739E+0	1.364390E+0	1.108381E+0	1.205581E+0	1.216965E+0	1.277771E+0	1.156718E+0
5.457890E+2	1.415661E+0	1.379318E+0	1.386975E+0	1.326377E+0	1.407086E+0	1.358784E+0	1.373463E+0	1.434001E+0	1.274230E+0	1.261834E+0	1.323559E+0	1.404411E+0	1.160854E+0	1.188741E+0	1.259798E+0	1.375778E+0	1.260078E+0	1.268068E+0	1.315247E+0	1.360869E+0	1.399127E+0	1.394411E+0	1.335066E+0	1.381933E+0	1.210132E+0	1.270815E+0	1.336948E+0	1.381521E+0	1.220129E+0	1.193032E+0	1.283102E+0	1.390781E+0	1.326731E+0	1.331560E+0	1.374847E+0	1.403633E+0	1.419335E+0	1.408064E+0	1.367252E+0	1.358703E+0	1.275598E+0	1.254693E+0	1.385583E+0	1.395087E+0	1.168580E+0	1.173341E+0	1.334116E+0	1.399918E+0	1.264224E+0	1.321812E+0	1.343958E+0	1.319071E+0	1.403278E+0	1.373552E+0	1.401211E+0	1.413631E+0	1.286674E+0	1.292112E+0	1.310999E+0	1.363884E+0	1.152691E+0	1.255542E+0	1.279318E+0	1.410234E+0	1.259812E+0	1.328486E+0	1.323367E+0	1.390170E+0	1.353927E+0	1.332170E+0	1.376070E+0	1.372842E+0	1.261747E+0	1.308542E+0	1.321344E+0	1.406522E+0	1.154865E+0	1.233424E+0	1.291976E+0	1.378015E+0	1.231878E+0	1.296642E+0	1.361485E+0	1.398045E+0	1.389647E+0	1.368630E+0	1.343154E+0	1.407609E+0	1.302688E+0	1.284100E+0	1.230424E+0	1.332733E+0	1.124210E+0	1.198032E+0	1.266897E+0	1.408035E+0	1.295688E+0	1.294188E+0	1.328442E+0	1.256174E+0	1.384531E+0	1.358530E+0	1.372548E+0	1.335209E+0	1.266114E+0	1.306535E+0	1.348259E+0	1.383712E+0	1.217569E+0	1.209852E+0	1.361934E+0	1.431990E+0	1.271808E+0	1.337883E+0	1.355255E+0	1.370307E+0	1.315224E+0	1.318601E+0	1.351424E+0	1.382778E+0	1.382726E+0	1.294808E+0	1.313590E+0	1.360779E+0	1.204550E+0	1.307687E+0	1.316480E+0	1.347204E+0	1.314966E+0	1.328983E+0	1.299950E+0	1.394655E+0	1.383929E+0	1.356571E+0	1.362293E+0	1.358706E+0	1.180424E+0	1.288603E+0	1.337539E+0	1.313322E+0	1.161289E+0	1.204573E+0	1.337238E+0	1.355996E+0	1.174313E+0	1.235355E+0	1.380217E+0	1.354962E+0	1.356966E+0	1.317203E+0	1.325651E+0	1.365219E+0	1.315761E+0	1.337702E+0	1.408489E+0	1.303821E+0	1.169093E+0	1.209600E+0	1.361815E+0	1.367026E+0	1.200734E+0	1.296710E+0	1.434481E+0	1.409261E+0	1.302232E+0	1.365332E+0	1.388067E+0	1.385833E+0	1.311628E+0	1.302869E+0	1.318203E+0	1.395183E+0
5.460060E+2	1.302517E+0	1.344775E+0	1.293931E+0	1.436434E+0	1.310921E+0	1.305702E+0	1.304440E+0	1.372318E+0	1.157957E+0	1.158814E+0	1.258355E+0	1.339459E+0	1.080822E+0	1.115874E+0	1.256445E+0	1.312342E+0	1.220766E+0	1.220592E+0	1.276403E+0	1.278875E+0	1.302748E+0	1.314636E+0	1.324587E+0	1.386184E+0	1.157641E+0	1.201260E+0	1.298448E+0	1.310121E+0	1.079377E+0	1.134882E+0	1.283101E+0	1.322870E+0	1.238698E+0	1.199401E+0	1.325271E+0	1.316399E+0	1.272673E+0	1.329539E+0	1.321636E+0	1.313085E+0	1.255452E+0	1.175225E+0	1.358194E+0	1.333870E+0	1.063951E+0	1.090438E+0	1.251934E+0	1.310409E+0	1.203087E+0	1.226592E+0	1.250618E+0	1.366558E+0	1.313100E+0	1.283122E+0	1.257370E+0	1.299001E+0	1.250940E+0	1.233377E+0	1.280160E+0	1.284352E+0	1.096840E+0	1.121910E+0	1.219054E+0	1.263575E+0	1.166070E+0	1.285976E+0	1.263824E+0	1.333895E+0	1.298589E+0	1.275879E+0	1.273040E+0	1.360379E+0	1.211915E+0	1.239976E+0	1.238167E+0	1.344029E+0	1.105628E+0	1.112350E+0	1.240487E+0	1.287469E+0	1.181399E+0	1.166362E+0	1.237657E+0	1.309807E+0	1.250269E+0	1.294340E+0	1.301421E+0	1.312626E+0	1.167662E+0	1.201559E+0	1.141614E+0	1.260584E+0	1.045879E+0	1.129622E+0	1.221837E+0	1.297016E+0	1.244977E+0	1.215230E+0	1.266745E+0	1.201515E+0	1.279374E+0	1.310482E+0	1.335282E+0	1.284801E+0	1.277014E+0	1.251915E+0	1.275497E+0	1.306037E+0	1.149246E+0	1.195895E+0	1.288903E+0	1.257299E+0	1.250649E+0	1.232509E+0	1.248705E+0	1.293872E+0	1.299737E+0	1.268090E+0	1.274931E+0	1.296897E+0	1.293181E+0	1.168578E+0	1.279168E+0	1.283183E+0	1.152475E+0	1.217039E+0	1.277148E+0	1.333278E+0	1.212576E+0	1.231280E+0	1.274649E+0	1.291097E+0	1.276150E+0	1.270266E+0	1.309637E+0	1.315723E+0	1.139596E+0	1.238133E+0	1.249558E+0	1.284893E+0	1.062508E+0	1.106081E+0	1.261511E+0	1.287751E+0	1.149462E+0	1.176361E+0	1.285652E+0	1.272739E+0	1.209980E+0	1.300119E+0	1.321697E+0	1.322492E+0	1.211102E+0	1.211674E+0	1.250748E+0	1.247429E+0	1.076278E+0	1.134940E+0	1.222847E+0	1.332233E+0	1.234831E+0	1.184409E+0	1.314542E+0	1.281632E+0	1.269484E+0	1.254771E+0	1.307459E+0	1.337779E+0	1.210233E+0	1.280460E+0	1.271996E+0	1.261046E+0
5.467660E+2	1.281146E+0	1.338606E+0	1.232107E+0	1.174573E+0	1.296675E+0	1.298820E+0	1.269129E+0	1.304584E+0	1.181213E+0	1.208110E+0	1.236211E+0	1.232753E+0	1.112403E+0	1.117560E+0	1.155321E+0	1.277375E+0	1.178918E+0	1.212486E+0	1.303969E+0	1.294250E+0	1.286857E+0	1.265545E+0	1.297905E+0	1.321513E+0	1.180568E+0	1.238714E+0	1.227972E+0	1.334534E+0	1.117727E+0	1.114756E+0	1.256473E+0	1.306133E+0	1.203487E+0	1.246353E+0	1.284264E+0	1.283443E+0	1.303823E+0	1.345611E+0	1.251314E+0	1.317888E+0	1.218934E+0	1.157566E+0	1.268560E+0	1.327214E+0	1.079534E+0	1.098908E+0	1.274390E+0	1.320176E+0	1.241448E+0	1.250547E+0	1.267643E+0	1.279601E+0	1.276723E+0	1.282648E+0	1.305471E+0	1.284327E+0	1.205679E+0	1.204584E+0	1.204770E+0	1.263101E+0	1.065255E+0	1.150424E+0	1.231473E+0	1.268482E+0	1.141432E+0	1.240633E+0	1.286773E+0	1.299994E+0	1.264770E+0	1.282857E+0	1.239836E+0	1.268344E+0	1.263688E+0	1.225123E+0	1.270953E+0	1.322566E+0	1.064744E+0	1.125558E+0	1.228206E+0	1.322901E+0	1.165958E+0	1.182117E+0	1.254629E+0	1.293419E+0	1.271435E+0	1.245647E+0	1.291747E+0	1.287140E+0	1.149744E+0	1.193728E+0	1.100810E+0	1.209141E+0	1.090908E+0	1.085514E+0	1.233225E+0	1.289977E+0	1.175613E+0	1.188516E+0	1.236221E+0	1.177149E+0	1.228901E+0	1.289126E+0	1.322364E+0	1.269678E+0	1.205558E+0	1.233103E+0	1.235075E+0	1.235296E+0	1.200844E+0	1.153562E+0	1.249985E+0	1.290977E+0	1.236542E+0	1.247469E+0	1.251169E+0	1.258950E+0	1.248467E+0	1.306943E+0	1.308608E+0	1.352037E+0	1.279815E+0	1.204136E+0	1.256220E+0	1.279896E+0	1.155760E+0	1.169600E+0	1.325049E+0	1.317359E+0	1.252892E+0	1.207653E+0	1.323304E+0	1.303092E+0	1.333701E+0	1.212214E+0	1.238021E+0	1.335089E+0	1.144062E+0	1.215361E+0	1.249558E+0	1.285571E+0	1.029904E+0	1.093313E+0	1.231109E+0	1.289789E+0	1.185431E+0	1.119230E+0	1.266739E+0	1.317651E+0	1.267051E+0	1.250930E+0	1.270341E+0	1.304109E+0	1.201290E+0	1.175843E+0	1.292896E+0	1.230577E+0	1.106444E+0	1.121494E+0	1.241750E+0	1.318525E+0	1.139139E+0	1.163232E+0	1.291728E+0	1.369507E+0	1.254239E+0	1.290066E+0	1.335169E+0	1.317757E+0	1.187907E+0	1.158452E+0	1.262369E+0	1.385245E+0
5.475180E+2	1.434518E+0	1.397823E+0	1.443291E+0	1.531310E+0	1.432017E+0	1.383845E+0	1.396470E+0	1.397716E+0	1.353534E+0	1.285099E+0	1.351241E+0	1.424294E+0	1.233101E+0	1.242238E+0	1.367633E+0	1.430729E+0	1.303193E+0	1.301073E+0	1.351586E+0	1.454389E+0	1.359140E+0	1.372226E+0	1.396527E+0	1.473038E+0	1.289776E+0	1.351071E+0	1.338722E+0	1.401050E+0	1.202430E+0	1.216294E+0	1.353303E+0	1.426652E+0	1.332012E+0	1.366340E+0	1.363217E+0	1.350646E+0	1.364216E+0	1.376378E+0	1.394330E+0	1.416328E+0	1.336672E+0	1.251058E+0	1.323959E+0	1.392428E+0	1.201081E+0	1.227722E+0	1.318827E+0	1.438982E+0	1.279209E+0	1.300853E+0	1.383294E+0	1.388762E+0	1.423772E+0	1.435098E+0	1.417091E+0	1.412255E+0	1.321213E+0	1.333573E+0	1.400093E+0	1.393630E+0	1.199841E+0	1.239798E+0	1.327157E+0	1.370434E+0	1.270028E+0	1.312614E+0	1.391592E+0	1.477636E+0	1.316524E+0	1.400093E+0	1.419527E+0	1.381472E+0	1.338110E+0	1.309683E+0	1.328023E+0	1.472173E+0	1.166296E+0	1.200845E+0	1.349138E+0	1.407048E+0	1.279388E+0	1.323304E+0	1.375942E+0	1.416951E+0	1.387582E+0	1.433386E+0	1.442919E+0	1.419653E+0	1.311647E+0	1.270844E+0	1.176418E+0	1.416799E+0	1.152351E+0	1.178680E+0	1.324336E+0	1.439984E+0	1.307346E+0	1.310217E+0	1.338834E+0	1.291077E+0	1.402934E+0	1.369693E+0	1.403351E+0	1.361927E+0	1.339386E+0	1.386037E+0	1.334578E+0	1.431566E+0	1.293059E+0	1.255443E+0	1.348483E+0	1.477772E+0	1.343621E+0	1.351543E+0	1.408221E+0	1.426313E+0	1.340319E+0	1.395824E+0	1.425515E+0	1.411076E+0	1.356665E+0	1.334518E+0	1.352844E+0	1.428512E+0	1.275395E+0	1.263538E+0	1.358328E+0	1.444204E+0	1.344404E+0	1.311741E+0	1.436184E+0	1.421807E+0	1.347826E+0	1.399721E+0	1.420748E+0	1.478206E+0	1.247410E+0	1.323686E+0	1.351593E+0	1.366116E+0	1.133064E+0	1.210958E+0	1.338896E+0	1.418130E+0	1.264560E+0	1.295591E+0	1.386739E+0	1.437876E+0	1.372036E+0	1.389174E+0	1.414539E+0	1.393535E+0	1.326227E+0	1.303724E+0	1.363145E+0	1.399106E+0	1.184871E+0	1.194761E+0	1.416990E+0	1.380736E+0	1.306875E+0	1.251789E+0	1.365386E+0	1.428093E+0	1.339497E+0	1.338862E+0	1.392601E+0	1.441324E+0	1.323720E+0	1.322789E+0	1.341307E+0	1.415054E+0
5.482880E+2	1.511832E+0	1.469997E+0	1.528376E+0	1.504743E+0	1.515971E+0	1.491974E+0	1.548957E+0	1.510204E+0	1.500814E+0	1.368181E+0	1.417058E+0	1.534978E+0	1.536364E+0	1.299943E+0	1.418912E+0	1.451211E+0	1.489604E+0	1.457395E+0	1.550187E+0	1.516524E+0	1.550872E+0	1.482214E+0	1.600923E+0	1.543375E+0	1.527501E+0	1.464023E+0	1.454809E+0	1.530424E+0	1.499104E+0	1.344221E+0	1.446744E+0	1.512260E+0	1.560893E+0	1.416190E+0	1.508882E+0	1.476008E+0	1.570309E+0	1.451228E+0	1.488887E+0	1.561824E+0	1.467003E+0	1.346106E+0	1.510074E+0	1.572758E+0	1.360029E+0	1.308839E+0	1.435892E+0	1.539884E+0	1.472212E+0	1.409847E+0	1.491310E+0	1.471402E+0	1.532903E+0	1.505169E+0	1.533848E+0	1.506712E+0	1.352182E+0	1.430892E+0	1.464631E+0	1.503519E+0	1.275833E+0	1.329169E+0	1.417782E+0	1.513820E+0	1.400426E+0	1.482090E+0	1.454237E+0	1.551539E+0	1.467168E+0	1.488952E+0	1.506927E+0	1.522397E+0	1.375000E+0	1.431388E+0	1.422132E+0	1.564964E+0	1.237511E+0	1.341291E+0	1.383146E+0	1.545323E+0	1.344715E+0	1.408138E+0	1.447601E+0	1.520318E+0	1.500118E+0	1.467017E+0	1.479568E+0	1.493788E+0	1.373722E+0	1.395561E+0	1.308432E+0	1.475770E+0	1.232090E+0	1.300652E+0	1.484277E+0	1.516885E+0	1.405275E+0	1.427169E+0	1.514183E+0	1.349029E+0	1.530691E+0	1.439096E+0	1.575757E+0	1.513147E+0	1.371481E+0	1.471002E+0	1.444032E+0	1.504388E+0	1.338448E+0	1.428501E+0	1.457551E+0	1.499869E+0	1.421850E+0	1.404881E+0	1.418073E+0	1.457940E+0	1.471160E+0	1.442933E+0	1.485172E+0	1.505252E+0	1.442869E+0	1.424597E+0	1.477851E+0	1.506108E+0	1.329345E+0	1.355594E+0	1.445560E+0	1.527276E+0	1.469829E+0	1.434349E+0	1.468620E+0	1.498844E+0	1.525713E+0	1.458800E+0	1.473934E+0	1.505125E+0	1.355861E+0	1.383385E+0	1.531831E+0	1.491335E+0	1.220167E+0	1.267957E+0	1.489251E+0	1.490449E+0	1.263253E+0	1.311737E+0	1.419346E+0	1.513191E+0	1.477567E+0	1.452344E+0	1.445152E+0	1.523708E+0	1.391639E+0	1.435928E+0	1.495981E+0	1.522906E+0	1.219216E+0	1.244842E+0	1.508443E+0	1.452434E+0	1.384419E+0	1.355107E+0	1.537469E+0	1.585011E+0	1.453555E+0	1.442156E+0	1.492858E+0	1.519126E+0	1.352558E+0	1.311584E+0	1.506883E+0	1.469704E+0
5.490160E+2	1.413146E+0	1.374381E+0	1.385140E+0	1.451615E+0	1.399963E+0	1.441842E+0	1.357412E+0	1.422513E+0	1.385138E+0	1.288423E+0	1.330326E+0	1.406399E+0	1.394036E+0	1.202644E+0	1.355650E+0	1.391264E+0	1.316510E+0	1.285437E+0	1.339054E+0	1.393536E+0	1.354524E+0	1.411406E+0	1.439408E+0	1.439995E+0	1.374847E+0	1.291029E+0	1.363005E+0	1.393729E+0	1.443480E+0	1.225238E+0	1.350882E+0	1.423784E+0	1.382484E+0	1.331562E+0	1.344246E+0	1.348062E+0	1.400643E+0	1.373161E+0	1.330661E+0	1.395200E+0	1.416632E+0	1.253137E+0	1.361306E+0	1.342519E+0	1.423698E+0	1.184930E+0	1.364221E+0	1.392328E+0	1.469815E+0	1.315226E+0	1.383292E+0	1.405410E+0	1.386880E+0	1.313424E+0	1.387670E+0	1.382912E+0	1.408162E+0	1.323784E+0	1.352692E+0	1.402132E+0	1.332140E+0	1.218943E+0	1.289898E+0	1.370979E+0	1.335527E+0	1.364197E+0	1.310963E+0	1.359660E+0	1.366738E+0	1.397300E+0	1.374113E+0	1.339770E+0	1.321285E+0	1.299400E+0	1.323166E+0	1.424828E+0	1.237951E+0	1.189837E+0	1.327408E+0	1.440018E+0	1.269886E+0	1.301490E+0	1.304285E+0	1.434598E+0	1.411843E+0	1.372649E+0	1.379802E+0	1.388613E+0	1.264292E+0	1.299766E+0	1.194420E+0	1.376019E+0	1.153292E+0	1.140424E+0	1.296113E+0	1.428073E+0	1.264794E+0	1.269845E+0	1.360265E+0	1.312150E+0	1.368758E+0	1.376972E+0	1.356152E+0	1.373519E+0	1.247947E+0	1.319887E+0	1.345149E+0	1.441276E+0	1.227603E+0	1.264745E+0	1.351366E+0	1.425151E+0	1.322462E+0	1.278041E+0	1.338006E+0	1.404568E+0	1.362751E+0	1.378824E+0	1.378367E+0	1.392534E+0	1.354660E+0	1.304290E+0	1.402365E+0	1.376562E+0	1.259441E+0	1.235356E+0	1.339169E+0	1.376057E+0	1.371280E+0	1.305355E+0	1.338873E+0	1.370027E+0	1.356198E+0	1.345268E+0	1.436547E+0	1.393657E+0	1.218063E+0	1.255367E+0	1.350979E+0	1.389130E+0	1.104841E+0	1.188159E+0	1.346635E+0	1.387573E+0	1.221399E+0	1.204926E+0	1.360653E+0	1.369472E+0	1.312277E+0	1.372088E+0	1.416511E+0	1.405959E+0	1.292867E+0	1.332140E+0	1.362507E+0	1.340767E+0	1.188585E+0	1.209599E+0	1.382247E+0	1.373352E+0	1.265078E+0	1.263981E+0	1.388199E+0	1.379969E+0	1.364344E+0	1.360661E+0	1.371442E+0	1.388694E+0	1.275350E+0	1.256805E+0	1.260443E+0	1.290853E+0
5.497680E+2	1.416919E+0	1.365130E+0	1.388811E+0	1.383303E+0	1.377065E+0	1.357307E+0	1.403426E+0	1.374735E+0	1.389905E+0	1.247986E+0	1.327865E+0	1.396458E+0	1.394032E+0	1.163471E+0	1.284242E+0	1.389268E+0	1.344407E+0	1.338125E+0	1.342185E+0	1.411473E+0	1.406303E+0	1.351457E+0	1.375088E+0	1.409315E+0	1.436992E+0	1.339183E+0	1.341094E+0	1.379081E+0	1.411455E+0	1.200635E+0	1.361047E+0	1.351088E+0	1.424736E+0	1.286349E+0	1.345470E+0	1.364218E+0	1.385307E+0	1.294639E+0	1.318308E+0	1.394716E+0	1.440560E+0	1.281182E+0	1.342011E+0	1.417046E+0	1.412123E+0	1.200977E+0	1.336028E+0	1.401547E+0	1.388899E+0	1.249349E+0	1.386815E+0	1.408496E+0	1.413010E+0	1.351297E+0	1.389069E+0	1.350353E+0	1.391491E+0	1.297295E+0	1.372679E+0	1.318956E+0	1.385702E+0	1.212561E+0	1.288976E+0	1.346447E+0	1.416050E+0	1.323953E+0	1.353138E+0	1.389493E+0	1.385183E+0	1.390787E+0	1.401458E+0	1.345997E+0	1.426125E+0	1.327969E+0	1.348059E+0	1.412204E+0	1.384342E+0	1.205248E+0	1.346301E+0	1.432144E+0	1.373812E+0	1.266347E+0	1.316859E+0	1.343842E+0	1.332864E+0	1.356080E+0	1.344682E+0	1.413168E+0	1.314846E+0	1.231081E+0	1.147014E+0	1.354062E+0	1.254132E+0	1.155726E+0	1.318396E+0	1.405327E+0	1.395366E+0	1.252037E+0	1.330391E+0	1.285809E+0	1.395045E+0	1.349307E+0	1.385466E+0	1.364950E+0	1.295180E+0	1.333845E+0	1.310945E+0	1.371229E+0	1.231904E+0	1.259165E+0	1.323497E+0	1.401474E+0	1.270526E+0	1.302758E+0	1.302287E+0	1.304415E+0	1.344594E+0	1.312289E+0	1.370189E+0	1.382777E+0	1.317238E+0	1.309624E+0	1.314799E+0	1.342367E+0	1.211590E+0	1.267763E+0	1.343708E+0	1.379043E+0	1.282329E+0	1.256185E+0	1.344063E+0	1.424333E+0	1.352011E+0	1.340644E+0	1.358085E+0	1.421999E+0	1.218064E+0	1.299681E+0	1.372976E+0	1.355964E+0	1.103870E+0	1.161256E+0	1.293570E+0	1.351921E+0	1.256713E+0	1.175118E+0	1.326087E+0	1.364635E+0	1.296661E+0	1.339985E+0	1.356264E+0	1.363232E+0	1.273243E+0	1.241946E+0	1.356120E+0	1.316137E+0	1.136144E+0	1.173894E+0	1.301527E+0	1.376514E+0	1.255178E+0	1.199167E+0	1.362778E+0	1.373693E+0	1.323689E+0	1.394920E+0	1.373960E+0	1.392128E+0	1.250233E+0	1.239374E+0	1.408692E+0	1.211365E+0
5.505170E+2	1.379832E+0	1.392890E+0	1.445737E+0	1.425047E+0	1.429475E+0	1.358289E+0	1.386304E+0	1.412231E+0	1.363671E+0	1.310023E+0	1.302645E+0	1.409051E+0	1.353803E+0	1.185794E+0	1.333125E+0	1.449708E+0	1.414788E+0	1.339863E+0	1.373512E+0	1.414676E+0	1.396052E+0	1.434535E+0	1.364608E+0	1.385710E+0	1.436996E+0	1.308864E+0	1.383143E+0	1.451090E+0	1.416511E+0	1.206003E+0	1.357662E+0	1.387436E+0	1.459365E+0	1.369238E+0	1.412792E+0	1.388126E+0	1.450489E+0	1.426430E+0	1.429020E+0	1.360141E+0	1.421671E+0	1.252098E+0	1.375000E+0	1.405735E+0	1.412567E+0	1.212119E+0	1.378555E+0	1.453087E+0	1.438649E+0	1.296661E+0	1.372725E+0	1.430081E+0	1.408912E+0	1.372606E+0	1.414288E+0	1.398958E+0	1.430200E+0	1.334148E+0	1.373251E+0	1.363880E+0	1.441091E+0	1.225751E+0	1.347401E+0	1.459846E+0	1.370379E+0	1.359661E+0	1.327087E+0	1.393561E+0	1.409779E+0	1.384275E+0	1.365814E+0	1.370925E+0	1.391178E+0	1.369109E+0	1.388127E+0	1.398950E+0	1.374670E+0	1.232984E+0	1.357168E+0	1.406556E+0	1.393410E+0	1.336636E+0	1.394800E+0	1.411912E+0	1.405653E+0	1.382185E+0	1.388456E+0	1.381196E+0	1.384599E+0	1.308199E+0	1.181218E+0	1.443148E+0	1.415953E+0	1.162928E+0	1.350088E+0	1.421033E+0	1.413435E+0	1.293594E+0	1.346627E+0	1.332565E+0	1.436055E+0	1.352704E+0	1.449063E+0	1.362933E+0	1.373298E+0	1.315030E+0	1.373757E+0	1.399662E+0	1.411072E+0	1.267072E+0	1.404699E+0	1.424627E+0	1.375683E+0	1.306011E+0	1.396517E+0	1.383484E+0	1.433244E+0	1.385625E+0	1.427442E+0	1.414006E+0	1.357333E+0	1.407408E+0	1.410817E+0	1.364068E+0	1.326061E+0	1.275279E+0	1.366900E+0	1.396949E+0	1.364882E+0	1.285560E+0	1.353795E+0	1.375710E+0	1.405377E+0	1.334482E+0	1.450240E+0	1.438528E+0	1.306739E+0	1.337226E+0	1.423688E+0	1.362056E+0	1.229413E+0	1.184053E+0	1.344426E+0	1.399288E+0	1.309685E+0	1.227283E+0	1.342391E+0	1.430967E+0	1.355348E+0	1.363288E+0	1.391820E+0	1.393043E+0	1.320994E+0	1.298164E+0	1.375918E+0	1.355028E+0	1.183482E+0	1.189658E+0	1.333713E+0	1.416584E+0	1.243633E+0	1.273608E+0	1.318453E+0	1.412747E+0	1.346837E+0	1.395439E+0	1.384035E+0	1.403567E+0	1.258604E+0	1.362628E+0	1.402917E+0	1.290855E+0
5.512570E+2	1.394289E+0	1.381169E+0	1.410846E+0	1.322580E+0	1.371978E+0	1.331258E+0	1.370251E+0	1.411625E+0	1.383350E+0	1.276790E+0	1.357392E+0	1.446166E+0	1.385817E+0	1.188323E+0	1.309641E+0	1.420738E+0	1.402104E+0	1.338127E+0	1.412981E+0	1.395459E+0	1.441679E+0	1.384026E+0	1.372230E+0	1.366830E+0	1.391140E+0	1.299944E+0	1.355899E+0	1.421188E+0	1.403442E+0	1.193480E+0	1.352336E+0	1.398912E+0	1.410065E+0	1.336199E+0	1.432991E+0	1.393295E+0	1.423649E+0	1.396580E+0	1.367726E+0	1.393277E+0	1.446853E+0	1.239111E+0	1.305285E+0	1.405070E+0	1.432603E+0	1.180920E+0	1.341765E+0	1.418363E+0	1.465022E+0	1.318219E+0	1.396209E+0	1.385678E+0	1.454514E+0	1.425154E+0	1.419426E+0	1.437472E+0	1.396849E+0	1.328393E+0	1.365828E+0	1.401523E+0	1.435140E+0	1.222348E+0	1.268733E+0	1.417319E+0	1.379393E+0	1.360230E+0	1.397175E+0	1.461361E+0	1.395432E+0	1.343801E+0	1.362396E+0	1.401125E+0	1.461718E+0	1.300542E+0	1.423344E+0	1.433666E+0	1.398852E+0	1.249716E+0	1.316068E+0	1.450845E+0	1.358967E+0	1.333000E+0	1.391029E+0	1.466743E+0	1.428363E+0	1.372646E+0	1.372169E+0	1.382124E+0	1.353883E+0	1.276871E+0	1.197420E+0	1.377274E+0	1.397194E+0	1.153027E+0	1.294133E+0	1.429157E+0	1.373799E+0	1.314965E+0	1.369358E+0	1.308857E+0	1.421334E+0	1.385220E+0	1.402856E+0	1.357894E+0	1.352101E+0	1.337487E+0	1.367538E+0	1.414228E+0	1.375239E+0	1.230320E+0	1.389807E+0	1.349906E+0	1.373117E+0	1.346990E+0	1.406988E+0	1.390731E+0	1.392657E+0	1.343855E+0	1.367785E+0	1.410103E+0	1.364683E+0	1.349331E+0	1.334728E+0	1.391685E+0	1.347172E+0	1.248039E+0	1.346732E+0	1.387498E+0	1.421193E+0	1.295776E+0	1.392718E+0	1.387077E+0	1.381311E+0	1.336535E+0	1.385467E+0	1.369570E+0	1.370532E+0	1.323071E+0	1.346091E+0	1.354611E+0	1.387560E+0	1.207765E+0	1.353821E+0	1.385537E+0	1.366580E+0	1.261437E+0	1.339783E+0	1.424060E+0	1.422647E+0	1.385031E+0	1.413055E+0	1.377143E+0	1.418458E+0	1.313608E+0	1.340155E+0	1.347249E+0	1.351941E+0	1.247160E+0	1.369988E+0	1.443472E+0	1.355271E+0	1.229971E+0	1.381680E+0	1.407171E+0	1.349099E+0	1.367927E+0	1.439456E+0	1.361235E+0	1.304186E+0	1.236885E+0	1.329755E+0	1.325628E+0
5.520480E+2	1.364746E+0	1.399057E+0	1.459816E+0	1.345351E+0	1.352644E+0	1.351902E+0	1.396468E+0	1.391667E+0	1.348169E+0	1.297839E+0	1.342628E+0	1.383865E+0	1.375433E+0	1.128090E+0	1.253090E+0	1.323830E+0	1.431272E+0	1.280807E+0	1.372259E+0	1.351260E+0	1.392460E+0	1.381666E+0	1.395574E+0	1.415922E+0	1.473798E+0	1.305294E+0	1.355900E+0	1.333921E+0	1.358354E+0	1.179612E+0	1.347009E+0	1.407042E+0	1.376029E+0	1.293884E+0	1.374848E+0	1.379079E+0	1.357507E+0	1.341479E+0	1.372001E+0	1.358705E+0	1.404040E+0	1.207949E+0	1.343256E+0	1.367140E+0	1.379620E+0	1.182257E+0	1.344151E+0	1.365744E+0	1.347539E+0	1.333189E+0	1.295820E+0	1.376427E+0	1.413010E+0	1.371179E+0	1.449781E+0	1.380159E+0	1.402209E+0	1.320905E+0	1.398381E+0	1.347488E+0	1.421407E+0	1.179364E+0	1.315657E+0	1.372070E+0	1.386006E+0	1.257068E+0	1.352516E+0	1.403053E+0	1.404142E+0	1.374507E+0	1.357024E+0	1.348397E+0	1.355585E+0	1.300544E+0	1.334094E+0	1.455760E+0	1.369397E+0	1.197763E+0	1.308511E+0	1.369157E+0	1.345308E+0	1.265739E+0	1.332570E+0	1.375984E+0	1.365904E+0	1.329977E+0	1.341119E+0	1.366372E+0	1.365399E+0	1.272653E+0	1.199820E+0	1.362217E+0	1.366703E+0	1.207035E+0	1.315920E+0	1.332215E+0	1.393617E+0	1.252631E+0	1.357017E+0	1.243661E+0	1.395569E+0	1.391529E+0	1.386955E+0	1.336219E+0	1.371480E+0	1.322314E+0	1.319652E+0	1.344875E+0	1.417761E+0	1.200081E+0	1.343678E+0	1.406737E+0	1.378247E+0	1.301457E+0	1.389126E+0	1.348562E+0	1.365420E+0	1.352599E+0	1.390397E+0	1.372040E+0	1.404111E+0	1.306069E+0	1.363111E+0	1.372616E+0	1.341074E+0	1.260250E+0	1.331606E+0	1.351184E+0	1.352082E+0	1.239582E+0	1.294112E+0	1.296149E+0	1.387064E+0	1.373010E+0	1.367037E+0	1.371934E+0	1.381381E+0	1.295373E+0	1.302103E+0	1.362055E+0	1.388048E+0	1.141646E+0	1.364879E+0	1.347847E+0	1.388815E+0	1.224798E+0	1.416739E+0	1.414384E+0	1.382806E+0	1.333775E+0	1.354291E+0	1.361244E+0	1.390985E+0	1.295075E+0	1.345264E+0	1.317433E+0	1.393242E+0	1.158128E+0	1.404219E+0	1.384950E+0	1.346471E+0	1.283876E+0	1.354956E+0	1.346493E+0	1.362646E+0	1.332114E+0	1.408221E+0	1.382400E+0	1.384186E+0	1.289175E+0	1.349008E+0	1.256079E+0
5.527590E+2	1.345889E+0	1.389805E+0	1.320865E+0	1.349148E+0	1.360786E+0	1.325852E+0	1.400216E+0	1.344498E+0	1.323719E+0	1.221956E+0	1.298339E+0	1.361993E+0	1.390140E+0	1.179895E+0	1.296700E+0	1.335819E+0	1.346943E+0	1.318440E+0	1.311488E+0	1.340368E+0	1.327868E+0	1.358534E+0	1.345074E+0	1.392791E+0	1.385104E+0	1.251792E+0	1.336355E+0	1.369930E+0	1.389540E+0	1.147854E+0	1.301499E+0	1.377391E+0	1.356661E+0	1.293307E+0	1.357711E+0	1.360340E+0	1.359422E+0	1.369948E+0	1.324486E+0	1.359185E+0	1.319044E+0	1.196000E+0	1.313377E+0	1.295938E+0	1.412567E+0	1.158188E+0	1.293026E+0	1.340244E+0	1.376909E+0	1.247552E+0	1.370377E+0	1.393694E+0	1.348966E+0	1.333307E+0	1.351710E+0	1.384744E+0	1.391487E+0	1.254105E+0	1.313854E+0	1.377846E+0	1.330309E+0	1.175959E+0	1.282998E+0	1.384608E+0	1.328317E+0	1.295610E+0	1.361200E+0	1.424750E+0	1.362637E+0	1.351711E+0	1.351653E+0	1.358941E+0	1.332935E+0	1.290830E+0	1.305557E+0	1.429879E+0	1.335544E+0	1.190717E+0	1.297176E+0	1.378506E+0	1.359560E+0	1.271797E+0	1.315599E+0	1.293420E+0	1.411846E+0	1.344037E+0	1.331955E+0	1.394634E+0	1.351961E+0	1.254580E+0	1.178218E+0	1.270623E+0	1.336217E+0	1.136374E+0	1.225799E+0	1.343588E+0	1.352232E+0	1.262130E+0	1.301815E+0	1.250906E+0	1.436055E+0	1.304655E+0	1.339755E+0	1.309501E+0	1.313953E+0	1.278013E+0	1.265548E+0	1.365681E+0	1.341316E+0	1.242417E+0	1.384521E+0	1.276769E+0	1.351317E+0	1.316418E+0	1.321380E+0	1.394026E+0	1.333913E+0	1.319571E+0	1.370668E+0	1.373505E+0	1.336617E+0	1.326220E+0	1.310571E+0	1.294362E+0	1.357964E+0	1.238645E+0	1.340178E+0	1.366606E+0	1.359762E+0	1.229364E+0	1.323306E+0	1.371922E+0	1.358815E+0	1.323692E+0	1.349658E+0	1.328005E+0	1.335447E+0	1.305836E+0	1.306379E+0	1.353933E+0	1.300459E+0	1.164445E+0	1.285831E+0	1.339189E+0	1.356771E+0	1.257711E+0	1.214565E+0	1.371545E+0	1.321966E+0	1.333772E+0	1.328614E+0	1.340872E+0	1.423037E+0	1.249977E+0	1.336323E+0	1.332339E+0	1.324559E+0	1.152561E+0	1.340863E+0	1.386531E+0	1.321723E+0	1.247939E+0	1.360822E+0	1.390431E+0	1.362646E+0	1.302523E+0	1.406706E+0	1.354941E+0	1.333954E+0	1.220700E+0	1.221937E+0	1.146782E+0
5.535050E+2	1.251602E+0	1.224484E+0	1.240677E+0	1.129033E+0	1.187283E+0	1.177424E+0	1.214019E+0	1.230801E+0	1.228318E+0	1.112287E+0	1.135329E+0	1.225463E+0	1.234400E+0	1.053953E+0	1.143818E+0	1.156488E+0	1.223302E+0	1.127955E+0	1.208114E+0	1.207774E+0	1.246869E+0	1.222588E+0	1.201665E+0	1.255896E+0	1.258401E+0	1.166781E+0	1.201318E+0	1.220414E+0	1.229823E+0	1.058393E+0	1.167871E+0	1.212392E+0	1.237525E+0	1.155927E+0	1.245706E+0	1.245964E+0	1.240559E+0	1.188564E+0	1.194770E+0	1.281393E+0	1.210120E+0	1.095238E+0	1.248642E+0	1.227398E+0	1.231358E+0	1.065925E+0	1.161627E+0	1.216556E+0	1.254034E+0	1.133167E+0	1.174888E+0	1.234579E+0	1.218825E+0	1.142507E+0	1.197127E+0	1.236640E+0	1.202701E+0	1.141817E+0	1.176216E+0	1.213925E+0	1.207623E+0	1.058074E+0	1.103129E+0	1.207422E+0	1.223758E+0	1.215693E+0	1.169549E+0	1.240328E+0	1.177150E+0	1.228890E+0	1.209074E+0	1.228561E+0	1.222270E+0	1.168557E+0	1.205987E+0	1.240505E+0	1.214652E+0	1.029580E+0	1.184746E+0	1.234326E+0	1.199215E+0	1.152425E+0	1.215657E+0	1.190055E+0	1.214138E+0	1.181397E+0	1.252043E+0	1.216248E+0	1.214378E+0	1.125646E+0	1.033004E+0	1.206004E+0	1.203479E+0	1.005401E+0	1.154988E+0	1.225531E+0	1.249640E+0	1.110746E+0	1.218037E+0	1.144222E+0	1.216810E+0	1.204679E+0	1.247341E+0	1.153239E+0	1.131075E+0	1.137819E+0	1.207712E+0	1.217265E+0	1.242412E+0	1.068429E+0	1.208660E+0	1.210998E+0	1.253213E+0	1.160309E+0	1.185269E+0	1.214803E+0	1.199872E+0	1.204952E+0	1.249432E+0	1.232000E+0	1.198288E+0	1.141909E+0	1.142082E+0	1.200984E+0	1.218156E+0	1.119343E+0	1.180332E+0	1.237271E+0	1.250332E+0	1.136133E+0	1.169555E+0	1.183120E+0	1.233248E+0	1.221976E+0	1.242232E+0	1.173556E+0	1.211047E+0	1.191973E+0	1.207401E+0	1.194195E+0	1.230872E+0	1.032208E+0	1.180807E+0	1.197095E+0	1.228592E+0	1.103705E+0	1.212608E+0	1.192588E+0	1.181445E+0	1.199152E+0	1.215527E+0	1.179405E+0	1.270627E+0	1.122714E+0	1.190078E+0	1.162518E+0	1.249380E+0	1.047299E+0	1.231531E+0	1.229427E+0	1.224933E+0	1.074674E+0	1.244795E+0	1.215377E+0	1.197776E+0	1.188851E+0	1.255063E+0	1.228517E+0	1.167441E+0	1.175882E+0	1.268145E+0	1.116975E+0
5.542580E+2	1.105143E+0	1.125168E+0	1.079688E+0	1.091082E+0	1.122666E+0	1.081094E+0	1.141252E+0	1.175163E+0	1.146629E+0	1.056345E+0	1.046750E+0	1.113454E+0	1.100720E+0	9.347494E-1	1.064744E+0	1.112530E+0	1.100296E+0	1.040529E+0	1.054619E+0	1.091832E+0	1.120241E+0	1.129125E+0	1.104947E+0	1.135052E+0	1.141350E+0	1.009836E+0	1.073979E+0	1.051372E+0	1.133320E+0	9.519358E-1	1.085081E+0	1.121043E+0	1.143624E+0	1.091006E+0	1.099429E+0	1.149035E+0	1.081913E+0	1.108203E+0	1.062677E+0	1.120529E+0	1.094271E+0	9.898004E-1	1.120417E+0	1.083664E+0	1.126729E+0	9.460285E-1	1.049821E+0	1.122161E+0	1.125764E+0	1.064297E+0	1.071567E+0	1.033527E+0	1.117890E+0	1.099898E+0	1.090645E+0	1.076615E+0	1.142552E+0	1.057742E+0	1.032865E+0	1.081574E+0	1.108743E+0	9.376327E-1	1.023084E+0	1.112013E+0	1.134222E+0	1.072860E+0	1.098842E+0	1.113538E+0	1.098240E+0	1.094440E+0	1.097259E+0	1.095302E+0	1.129726E+0	1.059424E+0	1.071809E+0	1.162230E+0	1.090682E+0	9.969981E-1	1.053423E+0	1.085222E+0	1.052530E+0	1.050625E+0	1.080515E+0	1.106229E+0	1.119669E+0	1.113630E+0	1.093239E+0	1.104124E+0	1.155504E+0	1.088291E+0	9.219925E-1	1.085550E+0	1.066050E+0	9.567933E-1	1.055459E+0	1.119930E+0	1.159290E+0	1.022289E+0	1.093993E+0	1.067830E+0	1.075376E+0	1.097904E+0	1.103752E+0	1.093758E+0	1.126836E+0	1.098371E+0	1.095771E+0	1.106299E+0	1.138255E+0	9.800389E-1	1.102956E+0	1.135753E+0	1.092914E+0	1.055585E+0	1.072562E+0	1.070503E+0	1.145935E+0	1.100533E+0	1.147438E+0	1.089516E+0	1.126786E+0	1.042347E+0	1.063575E+0	1.125361E+0	1.140277E+0	1.046073E+0	1.061334E+0	1.135301E+0	1.110825E+0	1.048647E+0	1.074840E+0	1.100400E+0	1.128087E+0	1.102790E+0	1.106898E+0	1.154192E+0	1.092387E+0	1.043028E+0	1.074818E+0	1.058149E+0	1.107274E+0	9.651790E-1	1.107840E+0	1.095238E+0	1.133767E+0	9.732975E-1	1.093914E+0	1.077889E+0	1.083992E+0	1.115274E+0	1.092074E+0	1.116799E+0	1.137187E+0	1.034371E+0	1.111527E+0	1.083439E+0	1.160278E+0	1.012058E+0	1.077750E+0	1.113972E+0	1.097892E+0	1.011785E+0	1.139197E+0	1.087051E+0	1.091060E+0	1.064790E+0	1.126592E+0	1.081493E+0	1.079071E+0	1.038935E+0	1.100641E+0	1.052389E+0
5.550080E+2	1.062401E+0	1.051144E+0	1.033166E+0	1.091082E+0	9.837652E-1	1.020642E+0	1.046014E+0	1.026390E+0	1.066729E+0	1.010373E+0	1.017839E+0	1.014039E+0	1.058758E+0	9.587584E-1	9.319898E-1	1.020617E+0	1.041329E+0	9.901574E-1	1.005753E+0	1.013044E+0	1.035141E+0	1.021500E+0	1.029192E+0	1.084543E+0	1.047226E+0	9.860566E-1	1.020675E+0	1.075783E+0	1.026704E+0	9.139148E-1	1.012940E+0	1.056001E+0	1.101370E+0	1.006376E+0	1.041897E+0	1.008165E+0	1.048845E+0	1.020496E+0	1.008035E+0	1.028812E+0	1.021235E+0	9.420165E-1	1.015221E+0	1.050392E+0	1.063951E+0	8.711480E-1	1.029276E+0	1.000098E+0	1.053837E+0	9.792576E-1	9.993597E-1	1.080398E+0	1.024640E+0	1.046399E+0	1.038338E+0	1.028012E+0	1.050838E+0	1.022040E+0	1.034008E+0	1.041504E+0	1.034125E+0	9.193327E-1	9.554624E-1	1.033505E+0	1.011035E+0	1.016746E+0	1.033718E+0	1.048447E+0	1.040338E+0	1.011164E+0	1.044522E+0	1.012376E+0	1.059833E+0	9.994289E-1	9.795233E-1	1.085218E+0	1.064744E+0	8.895719E-1	1.032639E+0	1.018789E+0	1.080442E+0	1.008814E+0	9.987998E-1	1.025554E+0	1.069079E+0	1.022771E+0	1.047938E+0	1.035551E+0	1.043516E+0	9.473097E-1	8.985899E-1	1.033479E+0	1.021960E+0	8.708274E-1	9.891063E-1	1.057109E+0	1.052037E+0	9.617355E-1	1.032295E+0	9.835366E-1	1.047511E+0	1.035296E+0	1.037172E+0	9.904229E-1	1.056591E+0	9.478624E-1	1.012438E+0	1.037640E+0	1.098121E+0	9.353787E-1	1.062113E+0	1.060511E+0	9.980179E-1	1.004848E+0	1.014053E+0	1.011202E+0	1.016700E+0	1.001943E+0	1.021868E+0	1.030474E+0	1.017861E+0	9.890095E-1	1.021905E+0	1.064862E+0	1.034247E+0	9.535424E-1	1.038642E+0	1.054717E+0	1.041072E+0	9.720188E-1	9.853148E-1	1.025258E+0	1.053793E+0	1.044227E+0	1.041072E+0	1.054533E+0	1.084732E+0	9.913271E-1	1.047934E+0	1.036488E+0	1.043043E+0	8.689642E-1	1.003920E+0	9.979629E-1	1.080141E+0	9.285858E-1	1.037174E+0	1.007412E+0	1.053302E+0	1.030878E+0	9.933112E-1	1.027371E+0	1.058038E+0	9.676508E-1	1.080234E+0	1.017324E+0	1.035439E+0	9.220951E-1	1.047096E+0	1.097100E+0	1.041797E+0	9.707139E-1	1.028385E+0	1.034745E+0	1.070733E+0	1.036240E+0	1.021801E+0	1.073485E+0	9.906978E-1	1.063833E+0	1.137223E+0	1.087166E+0
5.558050E+2	1.026572E+0	1.036339E+0	1.050918E+0	9.734342E-1	1.085525E+0	9.945939E-1	1.080257E+0	1.076585E+0	1.054803E+0	1.058007E+0	9.895425E-1	1.043864E+0	1.030638E+0	1.052690E+0	9.487631E-1	9.851502E-1	9.912383E-1	1.082794E+0	9.687880E-1	1.020090E+0	1.016685E+0	1.073896E+0	1.069214E+0	1.078404E+0	1.078601E+0	1.018753E+0	1.003500E+0	9.982807E-1	1.071372E+0	1.081654E+0	1.021654E+0	1.077524E+0	1.078482E+0	1.008115E+0	1.027208E+0	1.021089E+0	1.003312E+0	1.064122E+0	1.014212E+0	1.061946E+0	1.042012E+0	1.011096E+0	1.053191E+0	1.106954E+0	1.021655E+0	9.500409E-1	1.015420E+0	1.040787E+0	1.041849E+0	9.792573E-1	1.021081E+0	1.055113E+0	1.046160E+0	1.058708E+0	1.043008E+0	1.075699E+0	1.054411E+0	9.903671E-1	9.968852E-1	1.060933E+0	1.068458E+0	9.427402E-1	9.554617E-1	1.098384E+0	1.014640E+0	1.070026E+0	1.007668E+0	1.080992E+0	1.044951E+0	1.033030E+0	1.062102E+0	9.955978E-1	1.070188E+0	9.600039E-1	1.097309E+0	1.015150E+0	1.062106E+0	9.023399E-1	9.740618E-1	1.004520E+0	1.059657E+0	1.010026E+0	9.780567E-1	1.052656E+0	1.025717E+0	1.007712E+0	1.013835E+0	1.050840E+0	9.999999E-1	9.569491E-1	8.601860E-1	9.694871E-1	1.058545E+0	8.906309E-1	9.816784E-1	1.044112E+0	9.785916E-1	9.415513E-1	1.024502E+0	9.519260E-1	1.061706E+0	1.004235E+0	1.043632E+0	1.025203E+0	1.080208E+0	9.836686E-1	1.033582E+0	1.002270E+0	1.024064E+0	9.665476E-1	9.962876E-1	1.026835E+0	1.046749E+0	9.853352E-1	9.943455E-1	1.014496E+0	1.072774E+0	1.031083E+0	1.051697E+0	1.055360E+0	1.019866E+0	9.647110E-1	1.014054E+0	1.058945E+0	1.024864E+0	9.676341E-1	1.028054E+0	1.084065E+0	1.048112E+0	9.669103E-1	1.028780E+0	1.029678E+0	1.048562E+0	9.830941E-1	1.065824E+0	1.045557E+0	1.022213E+0	9.968669E-1	1.071151E+0	1.013476E+0	1.024552E+0	8.858362E-1	9.818092E-1	1.074867E+0	1.019321E+0	9.627408E-1	1.032609E+0	1.057160E+0	1.038227E+0	1.042269E+0	1.044174E+0	1.031346E+0	9.873934E-1	9.577664E-1	1.032977E+0	1.008249E+0	1.040545E+0	9.105030E-1	1.000605E+0	1.042799E+0	1.032997E+0	9.565967E-1	1.108561E+0	1.040324E+0	1.059441E+0	1.024821E+0	1.052533E+0	1.032295E+0	9.860467E-1	9.231511E-1	1.050583E+0	1.067293E+0
5.560080E+2	1.008343E+0	1.048060E+0	1.029493E+0	9.544597E-1	1.019889E+0	1.055046E+0	1.056180E+0	1.020342E+0	1.001138E+0	9.976338E-1	9.735492E-1	1.004760E+0	1.072601E+0	1.016466E+0	9.497222E-1	9.971392E-1	1.053376E+0	1.009843E+0	1.005752E+0	1.023933E+0	1.048470E+0	1.024802E+0	9.991771E-1	1.034974E+0	1.032746E+0	1.018159E+0	9.993541E-1	1.028793E+0	1.063785E+0	1.048106E+0	9.340223E-1	1.051696E+0	1.009817E+0	1.028403E+0	1.026596E+0	9.823180E-1	1.046927E+0	1.044377E+0	1.034642E+0	1.073471E+0	1.006125E+0	1.080697E+0	1.005263E+0	1.019782E+0	9.860373E-1	1.042747E+0	9.848405E-1	1.038616E+0	9.950956E-1	1.016388E+0	1.042215E+0	1.031060E+0	1.035400E+0	1.034089E+0	1.042542E+0	1.044978E+0	1.006172E+0	1.066380E+0	9.974563E-1	9.911139E-1	1.054268E+0	1.008280E+0	9.826031E-1	1.032414E+0	1.000819E+0	1.021281E+0	1.032477E+0	1.033531E+0	1.042391E+0	1.010235E+0	1.068938E+0	1.024359E+0	9.439911E-1	9.840012E-1	1.049344E+0	1.023988E+0	1.023420E+0	1.046309E+0	9.669757E-1	1.033551E+0	1.056093E+0	1.071833E+0	1.000057E+0	1.033748E+0	1.013328E+0	1.063933E+0	1.052010E+0	1.005896E+0	9.385661E-1	1.012981E+0	8.859891E-1	9.977187E-1	1.013048E+0	9.860479E-1	9.796977E-1	1.023533E+0	1.018229E+0	9.967620E-1	9.868337E-1	9.762921E-1	1.010181E+0	1.019767E+0	1.046117E+0	1.006049E+0	1.022681E+0	9.563592E-1	9.993783E-1	1.048043E+0	1.039830E+0	9.018836E-1	9.919630E-1	9.915808E-1	1.033284E+0	9.931408E-1	9.814112E-1	1.002636E+0	1.053014E+0	1.027682E+0	1.029086E+0	1.012908E+0	9.784333E-1	9.901947E-1	9.681580E-1	1.008310E+0	9.990610E-1	9.117413E-1	9.932618E-1	1.010944E+0	1.003316E+0	9.464759E-1	1.048891E+0	1.035992E+0	1.027111E+0	9.928545E-1	1.006319E+0	9.732928E-1	1.066231E+0	9.519370E-1	9.856143E-1	1.017537E+0	1.053261E+0	8.425172E-1	9.978392E-1	1.004583E+0	1.082757E+0	9.372804E-1	1.029348E+0	1.017776E+0	1.062455E+0	1.026218E+0	1.025903E+0	1.037307E+0	1.032528E+0	9.651796E-1	9.933814E-1	1.025751E+0	9.987762E-1	9.016925E-1	1.008779E+0	1.000623E+0	1.025298E+0	9.662218E-1	1.038162E+0	1.020098E+0	1.032902E+0	9.858906E-1	1.031877E+0	1.004837E+0	1.086512E+0	9.393354E-1	9.446909E-1	9.480617E-1
5.565090E+2	1.001428E+0	9.604644E-1	9.866447E-1	1.030360E+0	9.949586E-1	1.015727E+0	9.978602E-1	9.937324E-1	1.053610E+0	9.981874E-1	9.846213E-1	9.828887E-1	1.017657E+0	1.041737E+0	9.324687E-1	1.037101E+0	9.785579E-1	9.785775E-1	9.932222E-1	1.016888E+0	1.031039E+0	9.860971E-1	1.023476E+0	9.849370E-1	1.018869E+0	9.801121E-1	9.507880E-1	9.897368E-1	1.010267E+0	9.899567E-1	9.364430E-1	9.995655E-1	1.030358E+0	1.006956E+0	9.611075E-1	9.532393E-1	9.836608E-1	9.741185E-1	9.923543E-1	1.041776E+0	1.034457E+0	9.451324E-1	9.679152E-1	1.025105E+0	1.015865E+0	1.052108E+0	9.609498E-1	9.952162E-1	1.040649E+0	1.013393E+0	9.682459E-1	1.042162E+0	9.836510E-1	9.910053E-1	1.057018E+0	9.977501E-1	1.002003E+0	1.001884E+0	9.734689E-1	1.003864E+0	9.851420E-1	1.007854E+0	9.241801E-1	9.997023E-1	1.026058E+0	1.004276E+0	9.785175E-1	1.013869E+0	1.027530E+0	1.011631E+0	9.956941E-1	1.012855E+0	1.013885E+0	1.015427E+0	9.710231E-1	9.924251E-1	9.996798E-1	1.010205E+0	9.646147E-1	9.932013E-1	9.616682E-1	1.027598E+0	9.811997E-1	9.902596E-1	1.012295E+0	9.796016E-1	1.030123E+0	1.027211E+0	9.801621E-1	1.034068E+0	8.619862E-1	1.030969E+0	1.014923E+0	9.991003E-1	8.974992E-1	1.043570E+0	9.692654E-1	9.706408E-1	9.757933E-1	9.907808E-1	9.791605E-1	1.026076E+0	9.999094E-1	1.001008E+0	1.031159E+0	1.012800E+0	9.906718E-1	1.005044E+0	1.043176E+0	1.009811E+0	1.014066E+0	1.013154E+0	1.047390E+0	1.015256E+0	1.008510E+0	1.001317E+0	9.510149E-1	1.029140E+0	1.012246E+0	1.047554E+0	9.944719E-1	9.931578E-1	1.033983E+0	1.005022E+0	9.957774E-1	9.784369E-1	1.000825E+0	9.890561E-1	1.021234E+0	1.020551E+0	9.814224E-1	9.892657E-1	1.015077E+0	1.013917E+0	9.936807E-1	1.026192E+0	1.030506E+0	9.636305E-1	9.929458E-1	9.985847E-1	1.017254E+0	9.264198E-1	9.525121E-1	1.006111E+0	9.683121E-1	9.422477E-1	9.882612E-1	1.033668E+0	9.994616E-1	1.007061E+0	9.967671E-1	9.886181E-1	9.854307E-1	9.083438E-1	9.397369E-1	1.019269E+0	9.829980E-1	8.775791E-1	9.719932E-1	9.584469E-1	1.018148E+0	9.681471E-1	9.879709E-1	9.705819E-1	1.015964E+0	1.000424E+0	9.825040E-1	1.020282E+0	1.003721E+0	9.717052E-1	1.077538E+0	1.012646E+0
5.570330E+2	1.000800E+0	1.012898E+0	1.018475E+0	1.068311E+0	1.008696E+0	1.022608E+0	1.001070E+0	1.022761E+0	1.002331E+0	1.018127E+0	9.846218E-1	9.928305E-1	1.005978E+0	1.020257E+0	9.180911E-1	1.016121E+0	1.004554E+0	1.022001E+0	9.925960E-1	1.014325E+0	9.884884E-1	1.013475E+0	9.991755E-1	1.011845E+0	9.953377E-1	1.013998E+0	9.952081E-1	9.946191E-1	9.929900E-1	1.010085E+0	9.262761E-1	1.021564E+0	1.013338E+0	1.002319E+0	9.653923E-1	1.041121E+0	1.000914E+0	1.009477E+0	9.781005E-1	9.486189E-1	9.966801E-1	1.049012E+0	1.009620E+0	9.685430E-1	9.820294E-1	9.888175E-1	9.609496E-1	9.821960E-1	1.003488E+0	1.006207E+0	9.664841E-1	1.001458E+0	9.918490E-1	1.007574E+0	1.014052E+0	1.005084E+0	9.841368E-1	1.007643E+0	9.928873E-1	1.012970E+0	9.952158E-1	9.942351E-1	9.628211E-1	1.008426E+0	9.972137E-1	1.032617E+0	9.574298E-1	1.021327E+0	9.834633E-1	1.036287E+0	9.986238E-1	9.879292E-1	1.023592E+0	1.022855E+0	9.631295E-1	1.001263E+0	1.002317E+0	9.996408E-1	9.414674E-1	1.001074E+0	1.006209E+0	1.024569E+0	9.937718E-1	1.005386E+0	9.942277E-1	1.029798E+0	1.021471E+0	9.896807E-1	1.010239E+0	1.025633E+0	8.655867E-1	1.014657E+0	1.021022E+0	1.043207E+0	9.564247E-1	1.014326E+0	1.018229E+0	1.019915E+0	9.770920E-1	9.776097E-1	9.775830E-1	9.887051E-1	1.012827E+0	1.036797E+0	9.742359E-1	9.879175E-1	1.006841E+0	1.012672E+0	1.019285E+0	1.007020E+0	9.823531E-1	9.921075E-1	1.003789E+0	9.976937E-1	9.081211E-1	1.006589E+0	1.004952E+0	1.040796E+0	1.022830E+0	1.009492E+0	1.012515E+0	1.010937E+0	9.778203E-1	9.892393E-1	1.009384E+0	9.962848E-1	9.483846E-1	1.025866E+0	1.016115E+0	1.015442E+0	9.652045E-1	1.001895E+0	1.032866E+0	1.000560E+0	1.021590E+0	1.039417E+0	9.711763E-1	1.007945E+0	9.911126E-1	1.017537E+0	9.802688E-1	1.046802E+0	9.563815E-1	1.047875E+0	1.008204E+0	1.065203E+0	1.029348E+0	9.942840E-1	9.644654E-1	1.015345E+0	1.032323E+0	9.911024E-1	9.952424E-1	1.041166E+0	9.703913E-1	1.026399E+0	1.000169E+0	9.879429E-1	9.765911E-1	9.874429E-1	9.719523E-1	1.029753E+0	9.905781E-1	1.001268E+0	9.329624E-1	1.020668E+0	1.008702E+0	1.036300E+0	9.711630E-1	9.032307E-1	9.697200E-1	9.033496E-1
5.575300E+2	9.725142E-1	9.808209E-1	1.016639E+0	1.034154E+0	9.695182E-1	9.592072E-1	9.588011E-1	9.272082E-1	9.307785E-1	9.566461E-1	9.329513E-1	9.517378E-1	9.873756E-1	9.819263E-1	8.946074E-1	9.516819E-1	9.646079E-1	9.664190E-1	9.205474E-1	1.008560E+0	9.654191E-1	9.285067E-1	9.572497E-1	9.896577E-1	9.742198E-1	9.789227E-1	9.650020E-1	9.634956E-1	9.512704E-1	9.546191E-1	9.224027E-1	9.584350E-1	9.845810E-1	9.287028E-1	9.347896E-1	9.706865E-1	9.913295E-1	9.484022E-1	9.961557E-1	9.779105E-1	9.733845E-1	9.913588E-1	9.635580E-1	9.964916E-1	9.949404E-1	9.625191E-1	9.289366E-1	9.816540E-1	9.585324E-1	9.672795E-1	9.183464E-1	9.484194E-1	1.004145E+0	9.753802E-1	9.902345E-1	1.008754E+0	1.003790E+0	9.846090E-1	9.249238E-1	9.704719E-1	9.782771E-1	9.691267E-1	8.924388E-1	9.615388E-1	9.701726E-1	9.895402E-1	9.226967E-1	9.731874E-1	1.018307E+0	9.874380E-1	9.961825E-1	9.869707E-1	9.769964E-1	1.011427E+0	1.012916E+0	9.646498E-1	9.689083E-1	9.776267E-1	9.405227E-1	9.902475E-1	9.836419E-1	1.001543E+0	9.158289E-1	1.017991E+0	9.586089E-1	9.750841E-1	9.547918E-1	9.572467E-1	9.840018E-1	1.013583E+0	9.087908E-1	9.914451E-1	9.933488E-1	9.959486E-1	9.192868E-1	9.536730E-1	9.611048E-1	9.635164E-1	9.576095E-1	9.163647E-1	9.970364E-1	9.819104E-1	9.651287E-1	9.344700E-1	9.699970E-1	9.818482E-1	9.800998E-1	9.419323E-1	9.805848E-1	9.865507E-1	9.198900E-1	9.594845E-1	9.364635E-1	9.853351E-1	9.549282E-1	9.472877E-1	9.643660E-1	9.519184E-1	1.026199E+0	9.782637E-1	1.035234E+0	9.688597E-1	9.391704E-1	9.471536E-1	9.835794E-1	9.662253E-1	9.761173E-1	9.751286E-1	1.008435E+0	9.809588E-1	9.703942E-1	9.659018E-1	9.784541E-1	1.015458E+0	9.963143E-1	9.784875E-1	9.494857E-1	9.956357E-1	9.617863E-1	9.708339E-1	9.539938E-1	1.010779E+0	9.425624E-1	9.663862E-1	9.624260E-1	1.002484E+0	9.165210E-1	9.673366E-1	9.838477E-1	9.646033E-1	1.015533E+0	1.011969E+0	1.021408E+0	9.806242E-1	9.729457E-1	9.706550E-1	9.876387E-1	9.837699E-1	9.786349E-1	9.874433E-1	9.664531E-1	1.002800E+0	9.260461E-1	9.726741E-1	9.922490E-1	9.807001E-1	9.991301E-1	9.459133E-1	9.451165E-1	9.194157E-1	9.697194E-1	9.878056E-1
5.580000E+2	1.005200E+0	1.010431E+0	9.939901E-1	1.030361E+0	1.015819E+0	9.636305E-1	9.566611E-1	1.005828E+0	9.802688E-1	9.871096E-1	9.483291E-1	9.709585E-1	1.015497E+0	9.911940E-1	9.046723E-1	9.741610E-1	9.728511E-1	9.762621E-1	9.524988E-1	1.009842E+0	9.900264E-1	9.823205E-1	9.467684E-1	9.773845E-1	9.826675E-1	9.795170E-1	9.490108E-1	1.018419E+0	1.002682E+0	9.756422E-1	9.635559E-1	9.799573E-1	9.980790E-1	1.024345E+0	9.280577E-1	9.997648E-1	9.505901E-1	1.003046E+0	1.007084E+0	1.003842E+0	9.526067E-1	9.643504E-1	9.747628E-1	9.678770E-1	9.904888E-1	9.995140E-1	9.470938E-1	9.773136E-1	9.639279E-1	9.606925E-1	9.635495E-1	9.915904E-1	9.441991E-1	9.616509E-1	9.327921E-1	9.931630E-1	9.656746E-1	9.517855E-1	9.226392E-1	9.607583E-1	9.535558E-1	9.959374E-1	9.274002E-1	9.675361E-1	1.015241E+0	9.986089E-1	9.444051E-1	9.996302E-1	9.721905E-1	9.925547E-1	9.707915E-1	9.735487E-1	9.672890E-1	9.697170E-1	9.218441E-1	9.766439E-1	9.719842E-1	9.564925E-1	9.183210E-1	9.892640E-1	9.925499E-1	9.736686E-1	8.925718E-1	9.499218E-1	1.003520E+0	9.555069E-1	9.344327E-1	9.743907E-1	9.910416E-1	9.665896E-1	1.042604E+0	9.349822E-1	1.014454E+0	9.945977E-1	9.237434E-1	9.818334E-1	9.984101E-1	1.019321E+0	9.667016E-1	8.946330E-1	9.875727E-1	1.020252E+0	9.537027E-1	9.793329E-1	9.597033E-1	9.733517E-1	9.465176E-1	9.717546E-1	1.035053E+0	9.632910E-1	9.520823E-1	9.968430E-1	9.492874E-1	9.736267E-1	1.004200E+0	9.400390E-1	9.665020E-1	9.917442E-1	1.007436E+0	9.704566E-1	9.884573E-1	9.860459E-1	9.760086E-1	9.741148E-1	9.648140E-1	1.027753E+0	9.650243E-1	9.855746E-1	9.502008E-1	1.031407E+0	9.716920E-1	1.004420E+0	9.951963E-1	9.913136E-1	1.020011E+0	9.964366E-1	9.399168E-1	1.001790E+0	9.984446E-1	1.014152E+0	9.783236E-1	9.984667E-1	9.696479E-1	9.775910E-1	9.826994E-1	9.950321E-1	9.523916E-1	9.839194E-1	9.892320E-1	9.863499E-1	1.008620E+0	1.005014E+0	9.756194E-1	9.472641E-1	9.588956E-1	9.797295E-1	1.027550E+0	1.006493E+0	9.648408E-1	9.921883E-1	9.967002E-1	1.011784E+0	9.938371E-1	9.761604E-1	9.741805E-1	9.739520E-1	1.011726E+0	1.024859E+0	9.962789E-1	9.891350E-1	1.042883E+0	8.934141E-1
5.585100E+2	1.005200E+0	9.758865E-1	9.688927E-1	9.734341E-1	1.028539E+0	9.788662E-1	9.625470E-1	9.949417E-1	9.802684E-1	1.007050E+0	9.569406E-1	1.015364E+0	9.743971E-1	1.008041E+0	9.717673E-1	1.007130E+0	9.931406E-1	1.031265E+0	9.694150E-1	9.829382E-1	1.002331E+0	1.045100E+0	1.008707E+0	1.012316E+0	1.019472E+0	9.616829E-1	9.821781E-1	9.933980E-1	1.031758E+0	1.023056E+0	9.543568E-1	1.009608E+0	1.028010E+0	1.004058E+0	9.666155E-1	1.051460E+0	1.046446E+0	1.052642E+0	9.823765E-1	1.004803E+0	1.024383E+0	1.002786E+0	9.753846E-1	1.026436E+0	9.931596E-1	1.004416E+0	9.576053E-1	1.001726E+0	9.837076E-1	1.049924E+0	9.799865E-1	1.018726E+0	1.082024E+0	1.036930E+0	1.000511E+0	1.024802E+0	1.030589E+0	1.020312E+0	9.706138E-1	1.017827E+0	1.063423E+0	1.054243E+0	9.389012E-1	9.975217E-1	9.948102E-1	9.980418E-1	9.468853E-1	1.017937E+0	1.020356E+0	1.011631E+0	9.761624E-1	1.032987E+0	1.043654E+0	9.954291E-1	9.455229E-1	9.987374E-1	9.908894E-1	1.040586E+0	9.546949E-1	1.024695E+0	1.020461E+0	1.029416E+0	1.026457E+0	1.048244E+0	1.054109E+0	1.013234E+0	1.013835E+0	9.998726E-1	1.026878E+0	1.019006E+0	1.027603E+0	1.033478E+0	9.999151E-1	9.896482E-1	9.440456E-1	1.002954E+0	1.053203E+0	9.926062E-1	1.008265E+0	1.030293E+0	1.014913E+0	1.016370E+0	9.835147E-1	1.042342E+0	9.942196E-1	1.058924E+0	9.732589E-1	9.925607E-1	9.566949E-1	1.042376E+0	9.554457E-1	1.017364E+0	9.851944E-1	1.034770E+0	1.018365E+0	1.074456E+0	1.040732E+0	9.927147E-1	1.002624E+0	1.007541E+0	1.039245E+0	1.013900E+0	9.421901E-1	1.047765E+0	1.026743E+0	1.055467E+0	9.408207E-1	1.021887E+0	1.016755E+0	1.017358E+0	9.703942E-1	1.065039E+0	1.037574E+0	1.014431E+0	1.018957E+0	1.005410E+0	1.012005E+0	1.046720E+0	1.047934E+0	1.010769E+0	1.024065E+0	1.030385E+0	1.001709E+0	1.024446E+0	1.025208E+0	1.020493E+0	9.791305E-1	1.003266E+0	1.004307E+0	1.020522E+0	1.016521E+0	1.004020E+0	1.010942E+0	1.057229E+0	1.025952E+0	9.784330E-1	9.802137E-1	1.065384E+0	1.020528E+0	1.004314E+0	9.873509E-1	1.039379E+0	1.008830E+0	9.887138E-1	1.016529E+0	1.044027E+0	9.719238E-1	1.031152E+0	1.027907E+0	1.063833E+0	1.033256E+0	1.057357E+0
5.590100E+2	1.030343E+0	1.033255E+0	1.048469E+0	1.075902E+0	1.032101E+0	1.061436E+0	1.043874E+0	1.044533E+0	1.072691E+0	1.033635E+0	1.091039E+0	1.010725E+0	1.036260E+0	1.051006E+0	1.079600E+0	1.045093E+0	1.048303E+0	1.034160E+0	1.077174E+0	9.848590E-1	1.030526E+0	1.089946E+0	1.020141E+0	1.081237E+0	1.053864E+0	1.046694E+0	1.059173E+0	1.061747E+0	1.052409E+0	1.034239E+0	1.064260E+0	1.060784E+0	1.033291E+0	1.026084E+0	1.114118E+0	1.024320E+0	1.027276E+0	1.044375E+0	1.033693E+0	1.025451E+0	1.021865E+0	1.034989E+0	1.005263E+0	1.012462E+0	1.059499E+0	9.776736E-1	1.041700E+0	1.083101E+0	1.038252E+0	1.009799E+0	1.075089E+0	9.977572E-1	1.040011E+0	1.043556E+0	1.016387E+0	1.007836E+0	1.043691E+0	1.027798E+0	9.928871E-1	1.084003E+0	1.035041E+0	1.031687E+0	9.945630E-1	1.041137E+0	1.021851E+0	1.063791E+0	9.890615E-1	1.049803E+0	9.952486E-1	9.953484E-1	9.864170E-1	1.048806E+0	1.002236E+0	1.046282E+0	1.026880E+0	1.058074E+0	1.043203E+0	1.008445E+0	9.698100E-1	1.038963E+0	1.034121E+0	1.012449E+0	9.711426E-1	9.934108E-1	1.031911E+0	1.011226E+0	9.710798E-1	1.055010E+0	1.021118E+0	1.016596E+0	1.040204E+0	1.029087E+0	1.021022E+0	1.072914E+0	1.008419E+0	1.049527E+0	9.978273E-1	1.062065E+0	1.007616E+0	1.088245E+0	1.046459E+0	1.027530E+0	1.051086E+0	9.722756E-1	1.050537E+0	1.061958E+0	9.937810E-1	1.022382E+0	1.024062E+0	1.055868E+0	1.015507E+0	1.030518E+0	1.039055E+0	1.038672E+0	1.006047E+0	1.038217E+0	1.023109E+0	1.031083E+0	9.934830E-1	1.075368E+0	1.035235E+0	1.035828E+0	1.032775E+0	1.031983E+0	1.062396E+0	1.080830E+0	9.801515E-1	1.056707E+0	1.070510E+0	1.058865E+0	1.052783E+0	1.001263E+0	9.857787E-1	1.016485E+0	9.942073E-1	1.046029E+0	1.022850E+0	1.043027E+0	1.031438E+0	1.033104E+0	1.032336E+0	1.072336E+0	9.994977E-1	1.038198E+0	1.027170E+0	1.063962E+0	1.052174E+0	9.790833E-1	1.009692E+0	1.023629E+0	1.027384E+0	1.018925E+0	1.047572E+0	1.086265E+0	1.018926E+0	1.055567E+0	1.068388E+0	1.072803E+0	1.031770E+0	1.048071E+0	1.039596E+0	1.036811E+0	1.012740E+0	1.082169E+0	1.043631E+0	1.049737E+0	1.014244E+0	1.046598E+0	1.002790E+0	1.088732E+0	9.928233E-1	1.156718E+0
5.595110E+2	1.010857E+0	1.045592E+0	1.033166E+0	9.203043E-1	9.842733E-1	1.042759E+0	1.011771E+0	1.001594E+0	9.963684E-1	1.016465E+0	1.068894E+0	1.094897E+0	9.627163E-1	9.819266E-1	1.174013E+0	1.001635E+0	1.052742E+0	1.033002E+0	1.036452E+0	1.065570E+0	1.028476E+0	1.029997E+0	1.022046E+0	1.015620E+0	9.615496E-1	1.015781E+0	1.056212E+0	1.026962E+0	1.003523E+0	1.039606E+0	1.130107E+0	1.025390E+0	9.969054E-1	1.034199E+0	1.038837E+0	1.005581E+0	1.032550E+0	1.022333E+0	1.053649E+0	1.054260E+0	1.033828E+0	1.046935E+0	1.007752E+0	1.005808E+0	1.044360E+0	1.020462E+0	1.125795E+0	1.039159E+0	1.022668E+0	1.048128E+0	1.066284E+0	1.078548E+0	1.013881E+0	1.011361E+0	1.018724E+0	1.017466E+0	1.026420E+0	1.027222E+0	1.079125E+0	1.017220E+0	1.027259E+0	9.950874E-1	1.143610E+0	1.077121E+0	1.028462E+0	1.025248E+0	1.112487E+0	9.684415E-1	1.019843E+0	1.033962E+0	1.050382E+0	9.979957E-1	1.066952E+0	1.052566E+0	1.042059E+0	9.899000E-1	1.025618E+0	1.008006E+0	1.040195E+0	1.014359E+0	1.039465E+0	1.005784E+0	1.074857E+0	1.041941E+0	1.036041E+0	1.048372E+0	1.063208E+0	1.028137E+0	1.052474E+0	9.714091E-1	9.723968E-1	1.049163E+0	1.028056E+0	1.034207E+0	9.861349E-1	1.020825E+0	1.018812E+0	9.920127E-1	1.063469E+0	1.073757E+0	1.012810E+0	1.003265E+0	1.029224E+0	1.043351E+0	1.021470E+0	1.009765E+0	9.570893E-1	1.025850E+0	9.891849E-1	1.022373E+0	9.597702E-1	1.048408E+0	1.042260E+0	1.052332E+0	9.832592E-1	9.604657E-1	1.023643E+0	1.015542E+0	9.867472E-1	9.894867E-1	1.018529E+0	1.028716E+0	1.002580E+0	1.028695E+0	1.032841E+0	1.025406E+0	9.781348E-1	9.840823E-1	9.661991E-1	1.040347E+0	1.013859E+0	1.006315E+0	1.021879E+0	1.007753E+0	1.025276E+0	1.006354E+0	1.012005E+0	1.028872E+0	9.911130E-1	1.027013E+0	1.017739E+0	1.063674E+0	9.906532E-1	9.999998E-1	9.879314E-1	1.016146E+0	9.752169E-1	1.055779E+0	1.026382E+0	1.041751E+0	1.000718E+0	1.043270E+0	1.001130E+0	1.052904E+0	1.021481E+0	1.036121E+0	1.020588E+0	1.025967E+0	9.949837E-1	1.035418E+0	1.028047E+0	1.013068E+0	1.016000E+0	1.007545E+0	1.070169E+0	1.026897E+0	1.005176E+0	9.705127E-1	1.014884E+0	1.043914E+0	1.040958E+0	1.121942E+0
5.600010E+2	1.017143E+0	9.925412E-1	1.001948E+0	1.113851E+0	9.985199E-1	1.011304E+0	1.032638E+0	1.023971E+0	1.002927E+0	1.043606E+0	1.016608E+0	9.895161E-1	9.960286E-1	9.735008E-1	1.067617E+0	1.011626E+0	1.010260E+0	1.012159E+0	1.006379E+0	9.553940E-1	9.725959E-1	9.818476E-1	1.049681E+0	1.011844E+0	1.024902E+0	1.018754E+0	1.040221E+0	1.026963E+0	1.009426E+0	9.980065E-1	1.081207E+0	9.780436E-1	1.019207E+0	1.001739E+0	9.929342E-1	9.829643E-1	1.007144E+0	9.984548E-1	1.011835E+0	9.788716E-1	1.013050E+0	9.736994E-1	1.052569E+0	1.003145E+0	9.962758E-1	9.874802E-1	1.095691E+0	1.004439E+0	1.052038E+0	9.912347E-1	1.042801E+0	9.811060E-1	1.020541E+0	9.924258E-1	9.986415E-1	9.757398E-1	1.012723E+0	1.008795E+0	1.074557E+0	1.018434E+0	9.975036E-1	1.038922E+0	1.130271E+0	9.969767E-1	9.707739E-1	9.623336E-1	1.082096E+0	9.996302E-1	9.445208E-1	1.020006E+0	1.021574E+0	9.922435E-1	1.005471E+0	1.006285E+0	1.047522E+0	1.047343E+0	1.024737E+0	1.012408E+0	1.140342E+0	9.838503E-1	1.011553E+0	9.379172E-1	1.018914E+0	9.833264E-1	1.001455E+0	9.921512E-1	9.965296E-1	1.024430E+0	9.961605E-1	1.000931E+0	1.165016E+0	9.782705E-1	9.792768E-1	9.905494E-1	1.123298E+0	9.715439E-1	1.038047E+0	1.013385E+0	1.016708E+0	1.028318E+0	1.028583E+0	9.891910E-1	1.035683E+0	1.029236E+0	1.016020E+0	1.047393E+0	1.053483E+0	9.641250E-1	9.777162E-1	1.053076E+0	1.024156E+0	9.978952E-1	1.020460E+0	9.846848E-1	1.044232E+0	1.054031E+0	1.020973E+0	9.815445E-1	9.987752E-1	9.889989E-1	9.924671E-1	1.047088E+0	9.850667E-1	1.039874E+0	9.896789E-1	9.948767E-1	9.761174E-1	1.017907E+0	1.020594E+0	9.573314E-1	1.002831E+0	9.829511E-1	1.019263E+0	9.764155E-1	9.536597E-1	9.902964E-1	1.049006E+0	1.003637E+0	9.648408E-1	9.924929E-1	1.007035E+0	1.016249E+0	9.436677E-1	9.959254E-1	1.033709E+0	1.015525E+0	1.020217E+0	1.018467E+0	1.013999E+0	9.920448E-1	9.819532E-1	9.747065E-1	1.011596E+0	1.024487E+0	1.061076E+0	1.031584E+0	1.013627E+0	1.074659E+0	9.765911E-1	1.032255E+0	1.030248E+0	1.046437E+0	9.847114E-1	1.008242E+0	9.730513E-1	9.599373E-1	9.945953E-1	1.017994E+0	9.516279E-1	1.021504E+0	1.010151E+0	9.679350E-1
5.605090E+2	9.272563E-1	9.758857E-1	9.395108E-1	8.975334E-1	9.634127E-1	9.424967E-1	9.625467E-1	9.822416E-1	9.462817E-1	9.738160E-1	1.017839E+0	9.828885E-1	9.501704E-1	9.768711E-1	1.047489E+0	9.736610E-1	9.487568E-1	9.704718E-1	1.030813E+0	9.553938E-1	9.608053E-1	9.601336E-1	9.882194E-1	9.292351E-1	9.567226E-1	9.462256E-1	9.727015E-1	9.323722E-1	9.537975E-1	9.519352E-1	1.008098E+0	9.450436E-1	9.206118E-1	9.420350E-1	1.040061E+0	9.777948E-1	9.400455E-1	9.612598E-1	9.305848E-1	9.476590E-1	9.349778E-1	9.368221E-1	1.028294E+0	9.612231E-1	9.593224E-1	9.941659E-1	9.920080E-1	9.859937E-1	9.705205E-1	9.654831E-1	9.811610E-1	9.243671E-1	9.170437E-1	9.483941E-1	9.589452E-1	9.853694E-1	9.519776E-1	9.494821E-1	1.026583E+0	9.389024E-1	9.508087E-1	9.363541E-1	1.052526E+0	9.479090E-1	9.581548E-1	9.532643E-1	1.040541E+0	9.731871E-1	9.747527E-1	9.395208E-1	9.522365E-1	9.543755E-1	9.802320E-1	9.097232E-1	9.910579E-1	9.671750E-1	9.689073E-1	9.591337E-1	1.068538E+0	9.705643E-1	9.497909E-1	9.397355E-1	1.042172E+0	9.467714E-1	9.276363E-1	9.720717E-1	9.888946E-1	9.391776E-1	9.705629E-1	9.424902E-1	1.097810E+0	9.883078E-1	9.389393E-1	9.095337E-1	1.096557E+0	9.504233E-1	9.622705E-1	9.842945E-1	1.012812E+0	1.027000E+0	9.392012E-1	9.401718E-1	9.427719E-1	9.858859E-1	9.681809E-1	9.411866E-1	1.047885E+0	1.033478E+0	9.738953E-1	9.730602E-1	1.104396E+0	9.700079E-1	9.960949E-1	9.359005E-1	1.023908E+0	1.011201E+0	9.798526E-1	9.446340E-1	9.492212E-1	9.509387E-1	9.517038E-1	9.504877E-1	1.064783E+0	9.603050E-1	9.657516E-1	9.737401E-1	1.119824E+0	9.636877E-1	9.732392E-1	9.515841E-1	9.710433E-1	9.583243E-1	9.161945E-1	9.640864E-1	9.478672E-1	9.246438E-1	9.131230E-1	9.556299E-1	9.862252E-1	9.342837E-1	9.184712E-1	9.551471E-1	1.080754E+0	9.327727E-1	9.323441E-1	9.347963E-1	9.908697E-1	9.915202E-1	9.483130E-1	9.578726E-1	9.301025E-1	9.518526E-1	9.605746E-1	9.756818E-1	9.384602E-1	9.298198E-1	9.338054E-1	9.777410E-1	9.510462E-1	9.647735E-1	9.400555E-1	9.245099E-1	9.508154E-1	9.852276E-1	9.628886E-1	9.511128E-1	9.794816E-1	9.464853E-1	9.702322E-1	1.015280E+0	8.503489E-1	8.536696E-1
5.610410E+2	1.020915E+0	9.641658E-1	9.627719E-1	9.013285E-1	9.842733E-1	9.469203E-1	1.016051E+0	9.828466E-1	1.033337E+0	9.677237E-1	1.024605E+0	1.003434E+0	9.813184E-1	9.570741E-1	1.059952E+0	9.846512E-1	9.728511E-1	9.658398E-1	1.015150E+0	9.822970E-1	9.818237E-1	9.577736E-1	9.853589E-1	9.509496E-1	9.796503E-1	1.040155E+0	1.030152E+0	9.634949E-1	9.280920E-1	9.747493E-1	1.079270E+0	9.699131E-1	9.658014E-1	1.001159E+0	1.031492E+0	1.010750E+0	9.731164E-1	9.415141E-1	9.795259E-1	9.433373E-1	1.008643E+0	9.742185E-1	1.009619E+0	1.013127E+0	9.780210E-1	9.700966E-1	1.004431E+0	9.105857E-1	9.711203E-1	9.714718E-1	9.958374E-1	9.848063E-1	9.672558E-1	9.976337E-1	9.701521E-1	9.390581E-1	9.728216E-1	9.540893E-1	1.044858E+0	9.844359E-1	9.595071E-1	9.682736E-1	1.050685E+0	9.697170E-1	1.016443E+0	9.509978E-1	9.934033E-1	9.494564E-1	1.001397E+0	9.613869E-1	9.829986E-1	9.879297E-1	9.757018E-1	9.862869E-1	1.028701E+0	9.798003E-1	9.803377E-1	9.811475E-1	1.094519E+0	9.602300E-1	9.444465E-1	9.754862E-1	1.083028E+0	9.889991E-1	9.668682E-1	9.590212E-1	9.736244E-1	9.989471E-1	1.028797E+0	9.967139E-1	1.132013E+0	9.519209E-1	9.759939E-1	9.842466E-1	1.164893E+0	9.877902E-1	9.646017E-1	9.854822E-1	1.027099E+0	9.967067E-1	1.006501E+0	9.867632E-1	9.800363E-1	9.692518E-1	9.917976E-1	9.684972E-1	1.050995E+0	9.821573E-1	9.605174E-1	9.846907E-1	1.080371E+0	9.826367E-1	9.467225E-1	9.885874E-1	1.067019E+0	9.637608E-1	9.718422E-1	9.932006E-1	9.713526E-1	9.689928E-1	9.537083E-1	9.747861E-1	1.077465E+0	9.675386E-1	9.699744E-1	9.892399E-1	1.121339E+0	9.691593E-1	9.534012E-1	9.796817E-1	1.051485E+0	9.886339E-1	9.706065E-1	1.006725E+0	1.022117E+0	1.013441E+0	1.033696E+0	1.001175E+0	1.048545E+0	9.836938E-1	1.017252E+0	1.037225E+0	1.164775E+0	1.006112E+0	9.892391E-1	1.006831E+0	1.066523E+0	9.548993E-1	9.978463E-1	9.646033E-1	9.641757E-1	9.732161E-1	9.579581E-1	9.608552E-1	1.098754E+0	9.466720E-1	9.862458E-1	1.025969E+0	1.124243E+0	9.890246E-1	9.961503E-1	9.610881E-1	1.090309E+0	9.873194E-1	9.854735E-1	1.006654E+0	1.000641E+0	9.550669E-1	1.029767E+0	1.043914E+0	1.067912E+0	1.097101E+0
