Photon Energy (eV)	#1	#2	#3	#4	#5	#6	#7	#8	#9	#10	#11	#12	#13	#14	#15	#16	#17	#18	#19	#20	#21	#22	#23	#24	#25	#26	#27	#28	#29	#30	#31	#32	#33	#34	#35	#36	#37	#38	#39	#40	#41	#42	#43	#44	#45	#46	#47	#48	#49	#50	#51	#52	#53	#54	#55	#56	#57	#58	#59	#60	#61	#62	#63	#64	#65	#66	#67	#68	#69	#70	#71	#72	#73	#74	#75	#76	#77	#78	#79	#80	#81	#82	#83	#84	#85	#86	#87	#88	#89	#90	#91	#92	#93	#94	#95	#96	#97	#98	#99	#100	#101	#102	#103	#104	#105	#106	#107	#108	#109	#110	#111	#112	#113	#114	#115	#116	#117	#118	#119	#120	#121	#122	#123	#124	#125	#126	#127	#128	#129	#130	#131	#132	#133	#134	#135	#136	#137	#138	#139	#140	#141	#142	#143	#144	#145	#146	#147	#148	#149	#150	#151	#152	#153	#154	#155	#156	#157	#158	#159	#160	#161	#162	#163	#164	#165	#166	#167	#168	#169	#170	#171	
2.790010E+2	-2.251627E-3	1.200580E-2	-4.005753E-3	-9.279309E-3	1.056172E-3	-7.071394E-3	-2.024875E-3	-1.349935E-3	8.425256E-3	-5.991725E-3	-8.374676E-3	-1.566466E-3	5.325226E-3	-3.379380E-3	-8.528689E-3	8.159628E-3	-2.621611E-3	-2.933317E-3	1.672474E-4	-9.822511E-3	-8.319787E-3	-7.889702E-4	4.328985E-4	-4.847692E-3	8.037151E-3	-3.445842E-3	9.911747E-4	-6.531971E-3	1.677244E-3	-1.455029E-3	1.461509E-3	2.744592E-5	-1.296917E-2	-2.351427E-3	-2.124635E-2	2.601694E-3	-7.710937E-3	4.880264E-3	-7.103483E-3	-6.189940E-3	-1.187745E-2	4.876066E-3	-4.145538E-4	-1.483393E-2	-2.786220E-3	-1.087498E-2	-1.465243E-2	-1.061449E-2	-1.115131E-2	-1.459011E-3	-8.412685E-3	-1.420619E-3	-7.856344E-4	-2.890343E-3	2.779526E-3	3.710937E-3	5.030381E-3	-2.775619E-3	4.299153E-3	7.348394E-3	-3.226059E-4	-7.008132E-3	-9.594254E-3	-1.339138E-2	-1.025859E-3	-4.535502E-3	-1.071221E-2	1.895642E-4	4.110344E-3	-1.304292E-2	1.141645E-3	-6.358886E-3	-9.305731E-3	-4.385949E-3	-8.878110E-3	-2.325099E-3	-1.155646E-4	2.446638E-3	-6.373721E-4	-9.445452E-3	6.606500E-3	-5.183896E-3	-8.105307E-3	-3.849471E-3	-5.503569E-3	2.210116E-3	6.717476E-3	3.864207E-3	3.572908E-3	-6.028193E-3	-8.415602E-3	-8.735987E-3	-5.355775E-3	-2.991172E-3	-1.524879E-3	7.217714E-3	-4.786588E-4	-1.062305E-2	7.262996E-4	-1.622011E-3	4.292604E-3	-2.057564E-3	3.467374E-3	1.284814E-3	-4.403093E-3	-8.508437E-3	-3.737377E-3	-1.580010E-3	-1.206423E-3	-9.393413E-3	-3.440682E-3	4.515934E-3	-3.213642E-3	-3.377224E-3	-1.147987E-2	-1.456770E-2	-1.293209E-2	-1.399548E-3	9.722427E-4	1.764238E-3	-1.535526E-3	3.338797E-4	7.124761E-4	4.650131E-3	-1.024399E-2	-6.220925E-3	-6.504571E-4	1.844015E-3	4.849364E-3	-5.278591E-3	-5.329358E-4	-1.460249E-2	-4.556115E-3	-9.632752E-3	-1.383597E-2	-3.647307E-4	-1.288293E-3	2.324667E-3	5.094713E-3	-8.814260E-3	-1.413782E-2	1.091144E-3	-5.610830E-3	8.882827E-4	-2.547886E-3	-1.343058E-2	-1.214270E-3	-1.224123E-2	6.881317E-4	-4.631915E-3	-2.743381E-3	-8.403921E-3	1.935071E-2	-1.068937E-4	-2.584423E-3	-5.045114E-3	-2.640026E-4	-5.986975E-3	-1.328551E-2	-2.933864E-3	-1.013615E-2	-2.167817E-2	-1.542890E-2	-1.070021E-2	2.049318E-4	-8.005739E-3	-3.750667E-3	-1.556438E-2	4.379530E-3	-1.995292E-3	-5.793157E-4
2.795010E+2	-3.021761E-3	-1.734499E-3	-1.469709E-2	-1.279260E-4	-3.526968E-3	-3.854333E-3	4.312167E-3	-7.368682E-3	-4.059023E-3	-1.710504E-3	-1.870788E-3	8.990498E-3	-5.031037E-3	3.879706E-3	8.162957E-3	-1.531880E-3	-1.409560E-2	-3.820801E-3	-9.573874E-3	4.102713E-3	-1.412398E-2	3.644594E-3	-1.089898E-2	-1.106175E-2	-1.013899E-2	-2.063669E-3	-3.123678E-3	1.589607E-3	1.911608E-3	3.057947E-3	-8.345345E-3	-6.294722E-3	-7.030098E-3	1.715622E-3	-1.156941E-2	-3.226197E-3	-9.583634E-3	-8.440577E-3	-2.295474E-3	-4.597253E-3	-4.215819E-3	-8.852589E-3	-3.382391E-4	5.666232E-4	7.409757E-3	-6.167908E-3	9.900676E-3	-2.110032E-3	-3.208837E-3	3.818963E-3	-7.998451E-3	3.850926E-3	-4.816861E-3	1.899583E-3	-1.280052E-3	7.413642E-3	-9.514367E-3	-4.920328E-3	-1.222300E-2	6.173450E-3	-6.539784E-3	-6.526557E-3	4.802605E-3	3.050565E-3	-1.910283E-3	-4.081288E-3	-2.626277E-3	2.966809E-3	1.409682E-2	3.354687E-3	-1.658280E-3	2.250617E-4	-1.429872E-3	7.837212E-3	-3.324975E-3	3.364285E-3	1.120979E-4	-8.069138E-3	9.045078E-3	-4.630319E-3	-1.226069E-3	2.719614E-3	-5.729819E-3	-2.169438E-3	-2.553079E-3	-1.096358E-3	-1.043506E-2	-1.240970E-2	-3.431273E-3	-9.008581E-4	9.818135E-3	1.334870E-2	2.519714E-3	1.738425E-3	8.504137E-3	-2.577182E-3	2.471212E-3	-6.321678E-3	-5.457643E-3	3.522844E-3	-1.171925E-2	-4.057827E-3	1.773011E-3	3.887411E-3	-7.424981E-3	1.437432E-3	-1.262830E-3	4.700036E-4	-3.068881E-3	7.987937E-3	-3.451319E-3	-7.802900E-4	-1.309880E-3	6.010136E-3	-2.904203E-3	-1.019801E-2	-2.077546E-3	-1.204230E-2	3.720870E-4	-1.274137E-2	-7.307339E-3	-2.818054E-3	-4.960693E-3	3.726717E-3	-2.338005E-3	-1.145908E-2	2.333383E-3	-8.069631E-3	1.102409E-3	-3.591439E-3	-5.221217E-3	2.262521E-3	-7.598815E-3	8.253297E-3	2.055220E-3	-2.356793E-3	-8.616534E-3	-7.335008E-3	7.953720E-3	-5.442818E-3	1.234860E-3	-1.198024E-2	1.082050E-2	-1.138836E-3	1.141710E-2	-2.441130E-3	-3.325262E-3	5.029220E-3	1.004757E-3	-1.560864E-2	2.371444E-3	-6.799391E-3	-5.014077E-3	-4.538573E-3	-2.173832E-3	3.624144E-3	-1.117200E-3	-9.497562E-5	6.301977E-4	-3.827725E-3	-8.040972E-3	4.155808E-3	-2.107258E-5	-7.428914E-3	-6.822856E-3	-1.702675E-3	-7.177215E-3	6.288723E-3	1.341181E-3	5.113934E-3	-7.197406E-3
2.800050E+2	-5.680052E-3	-7.233384E-3	-9.655573E-3	-9.234233E-3	2.740221E-3	-1.044544E-3	4.442587E-3	4.158444E-3	-8.520836E-3	-5.376467E-3	-1.213813E-2	2.464524E-4	5.523593E-3	-2.933297E-3	4.655656E-3	-1.009044E-2	-2.120585E-3	-7.230925E-3	-2.836254E-3	1.158666E-2	-1.095554E-2	-4.712067E-3	-5.034375E-3	5.396253E-3	2.228986E-3	-8.863156E-3	-9.417003E-3	4.293928E-3	-1.103808E-2	-1.519088E-2	-1.119469E-2	-2.924220E-3	-3.357726E-4	3.105861E-3	5.335703E-3	5.368049E-3	-1.169113E-2	-6.103971E-3	-8.612183E-3	-1.133795E-2	-7.669496E-3	-1.786393E-3	3.947593E-3	-3.347016E-3	-1.279240E-3	2.665266E-3	3.009906E-3	1.504005E-3	-5.557389E-3	1.510325E-3	-1.253710E-2	6.492282E-3	-8.923293E-3	-9.201699E-3	-5.140615E-3	-1.797521E-3	-4.875964E-3	4.106267E-3	-8.793756E-3	-1.473402E-2	5.276875E-3	4.261081E-3	-1.324812E-2	2.139220E-3	1.948265E-3	2.331086E-3	-5.773182E-3	-4.299121E-3	-8.656719E-3	-1.043076E-3	-3.431365E-3	-5.801866E-3	-1.303287E-3	4.058098E-3	1.081608E-3	-1.758742E-3	-1.273004E-2	1.755409E-3	-3.573185E-4	-2.281283E-3	6.910205E-3	3.975474E-4	-2.211818E-3	-3.252987E-3	5.217664E-5	-2.105758E-3	-7.299663E-3	4.389594E-3	-1.181585E-2	-5.454850E-3	-4.412945E-4	-3.917263E-3	-3.870573E-3	5.197425E-3	-1.550114E-3	-1.471071E-2	-6.075416E-3	-8.723575E-3	-4.580160E-3	-1.661704E-2	3.026656E-4	2.699362E-3	-2.273879E-3	-3.077352E-4	1.988238E-3	1.595548E-3	-3.431535E-3	-1.960993E-3	5.865853E-3	-2.131111E-2	-4.044615E-3	1.074556E-2	-3.854619E-3	-1.167143E-2	5.485569E-3	5.786072E-3	-1.001652E-2	-8.653624E-3	2.164555E-3	2.422507E-3	-3.443817E-3	-6.087560E-3	-1.970810E-3	-3.805118E-3	-7.115573E-3	-5.749475E-3	-7.949015E-3	-2.168308E-3	-4.822094E-5	-1.459934E-2	3.498530E-3	2.469820E-3	-1.649431E-3	-7.955564E-3	-4.211696E-3	2.211292E-4	4.206129E-3	-3.473058E-3	-4.340017E-3	-5.180931E-3	-1.006940E-2	2.544382E-3	-7.784521E-3	-9.461161E-4	-5.312449E-4	-1.005513E-3	-4.929497E-3	-3.758161E-3	-4.984240E-3	2.419445E-3	2.201198E-3	-6.311438E-4	-1.167548E-2	-8.240788E-4	-6.134631E-3	-1.118606E-2	-9.523106E-3	-1.113089E-2	4.013720E-3	-5.936219E-3	3.070629E-3	1.913891E-3	-1.226647E-2	3.427403E-3	5.618036E-3	-1.556458E-3	-5.768631E-3	-1.441684E-2	-4.739118E-3	-8.105809E-3	-7.074816E-3
2.805060E+2	8.078256E-3	1.182095E-3	-1.212793E-2	-9.223222E-3	-9.389536E-4	3.157787E-4	-7.450755E-3	-9.099420E-4	-3.921553E-3	7.224483E-3	-1.705681E-3	-1.242673E-2	-6.983658E-3	-1.102414E-2	-7.238294E-3	1.163283E-2	-2.101501E-3	-2.506003E-3	8.251644E-3	4.268583E-3	1.478629E-2	-6.810921E-3	-4.035560E-3	-1.125934E-3	-1.003136E-2	-6.527314E-3	-1.897684E-3	-7.274433E-3	-3.143382E-4	-1.733592E-2	-2.884542E-4	-2.898685E-3	7.597475E-3	8.130615E-3	-1.379467E-3	4.179449E-3	-7.237921E-3	6.298263E-3	-6.736688E-3	2.378761E-3	6.677389E-3	-1.568643E-2	-4.298283E-3	-5.985576E-3	-6.729037E-3	1.698411E-2	-6.028567E-3	-7.960818E-4	-1.841796E-3	-6.997933E-3	-3.216254E-3	-1.082754E-2	7.995399E-3	-1.273565E-3	-6.077612E-3	1.744926E-3	1.953296E-3	-9.859834E-3	-4.321592E-3	-1.603875E-2	2.140398E-3	-1.650213E-3	-4.028972E-5	4.300540E-3	3.220466E-3	-8.990453E-3	-1.412028E-3	1.056084E-2	-2.079490E-3	5.785569E-3	-4.351330E-3	6.552197E-3	2.429835E-3	1.453261E-3	6.369506E-5	1.271463E-2	7.362257E-3	1.767491E-3	1.605794E-3	-2.252846E-3	-1.039625E-2	-5.726283E-3	-5.576907E-3	-4.435336E-3	-6.121288E-3	-1.596448E-2	6.866694E-3	-4.500234E-3	-4.478683E-3	2.768485E-3	-5.046813E-3	-1.224542E-3	-5.597014E-4	-3.615936E-3	-3.825575E-4	-5.764951E-3	5.085870E-3	-2.392460E-3	-7.043384E-3	-1.779484E-2	3.326775E-4	-4.981550E-3	-4.325174E-3	-4.685047E-3	3.179953E-3	2.817107E-3	-9.775361E-3	2.008974E-3	2.590577E-3	-3.129839E-3	4.012454E-3	-1.713146E-3	1.580270E-4	1.094977E-3	-1.523553E-2	-1.500262E-3	4.127076E-4	5.542361E-3	2.772733E-4	-1.247907E-2	7.774238E-3	-9.495056E-3	2.373889E-3	-2.451613E-3	1.143724E-2	1.654953E-2	-4.774447E-3	-3.276989E-3	1.296847E-3	-8.378174E-3	-5.710696E-3	5.050531E-3	-5.126365E-3	-4.641265E-3	-5.720312E-4	-5.530605E-3	-1.095710E-2	-1.575916E-2	-1.880217E-2	-1.190593E-2	1.637859E-2	-7.380851E-3	-9.733235E-3	-5.581519E-3	-3.200399E-3	1.070392E-2	5.550644E-4	1.956269E-4	7.340074E-3	3.605762E-3	6.314677E-3	-7.564135E-3	-2.098523E-3	-1.152334E-2	8.553619E-3	1.522094E-3	-1.681010E-2	-2.097508E-3	2.151800E-2	2.396024E-3	4.497671E-3	4.371610E-3	-3.652188E-3	-1.837753E-3	-4.205768E-3	-6.516846E-3	-1.474591E-3	6.662601E-3	-1.091911E-2	-2.680458E-3	1.043957E-2
2.810080E+2	-2.994697E-3	-1.428635E-2	7.667477E-3	-3.867683E-5	-5.928326E-3	9.649210E-3	-9.882631E-3	4.107931E-3	-3.981599E-3	-3.936981E-4	-5.924581E-3	-3.577299E-3	-9.118750E-3	-8.762700E-3	-1.780765E-3	4.020137E-3	-3.355543E-3	-1.404568E-3	5.957676E-3	-1.168442E-2	-2.760576E-3	-2.617495E-3	3.688714E-3	-5.550564E-3	-2.724777E-3	-4.281648E-3	5.527325E-3	-2.205057E-3	1.988892E-3	8.571667E-3	-1.335948E-3	7.888189E-3	6.184658E-3	-7.046719E-4	1.535299E-2	-5.576114E-3	-1.747452E-3	1.712379E-3	9.882253E-3	5.787633E-3	4.251513E-3	-1.111156E-2	-2.452380E-4	1.928065E-3	-1.338972E-3	-6.675942E-4	-5.088517E-3	3.836343E-3	5.565848E-4	-5.879871E-3	1.648866E-2	-1.092067E-2	5.532184E-4	-6.951346E-3	3.902379E-3	4.535779E-4	-3.881692E-4	9.083381E-3	3.351312E-3	-1.739949E-2	-1.284311E-2	3.048546E-3	-1.061022E-3	-1.917737E-2	7.194227E-4	6.068613E-3	1.276218E-2	-5.457454E-3	4.440157E-3	-3.322645E-3	-5.444705E-4	-3.270666E-3	4.869252E-3	1.386985E-3	-4.205810E-3	-1.088495E-2	-3.317096E-3	-1.281143E-2	-6.042136E-3	2.147422E-3	-3.780500E-3	5.356765E-3	-7.880073E-3	1.543685E-3	-1.607429E-2	1.924537E-4	-1.239330E-3	-1.200326E-3	6.475864E-3	-3.129748E-3	-5.081402E-3	-6.625913E-3	-3.881776E-3	-6.970649E-3	-1.065118E-2	-2.334428E-4	-2.387198E-3	-4.967342E-3	5.329729E-3	-1.106122E-3	5.715252E-3	-2.820569E-3	-6.437701E-3	-1.426386E-3	-2.685004E-3	5.137547E-3	-5.557729E-3	-7.267497E-3	-4.064362E-3	1.356439E-3	-3.034563E-3	-6.302571E-3	-2.560079E-3	2.312226E-3	7.770089E-3	5.753037E-3	-7.996991E-4	1.092894E-2	3.138576E-3	2.395075E-3	-3.457339E-3	7.771003E-4	-9.005008E-4	-7.836676E-3	-5.904244E-3	-2.426445E-3	-7.949981E-3	6.899142E-3	-1.063329E-2	1.511218E-2	-3.370241E-3	-1.761457E-2	-4.991668E-4	6.243745E-3	4.686785E-3	7.301395E-3	2.913029E-3	-4.714430E-3	1.188681E-2	8.541691E-3	8.270879E-3	5.864253E-3	9.966652E-3	-6.802175E-3	-5.948468E-3	2.852959E-3	2.872961E-3	1.167420E-2	-6.226522E-3	-8.772264E-3	-6.210732E-3	1.996678E-3	8.709318E-3	7.563251E-3	3.036115E-3	1.441208E-3	-1.196402E-2	5.681566E-3	-4.470427E-3	8.111201E-3	1.404206E-2	5.507205E-3	9.586101E-3	8.195456E-4	9.292603E-3	1.469602E-3	8.943231E-4	-4.587560E-3	7.721443E-3	-1.880095E-2	1.706097E-2
2.815030E+2	3.580351E-3	4.980517E-3	6.121768E-3	2.287352E-3	1.093727E-2	-5.413871E-3	1.001640E-2	2.571147E-3	5.994172E-3	4.342327E-3	9.328121E-3	7.550736E-3	-3.096103E-3	2.518016E-3	-1.978872E-4	3.744289E-3	9.396647E-3	1.349150E-2	-6.427965E-3	1.490132E-3	1.232413E-2	-1.804769E-3	2.481972E-3	1.827622E-3	-2.960432E-3	3.899747E-5	3.104129E-3	6.520953E-3	1.114658E-2	9.320894E-3	1.348472E-3	-1.009384E-3	3.250445E-3	2.723322E-3	5.573579E-4	-4.583214E-3	3.503047E-3	1.414916E-3	9.591390E-3	7.794910E-3	-1.936557E-3	9.422397E-3	-2.593537E-3	1.226807E-2	-4.842490E-3	-8.531137E-3	9.715404E-3	-2.171812E-3	5.174460E-3	6.025892E-3	3.405554E-3	8.502284E-3	-2.833301E-3	1.410756E-2	-5.371022E-3	-6.783568E-3	3.843267E-3	-1.143646E-2	-2.436483E-4	1.115917E-2	5.952210E-3	4.073309E-4	-3.365891E-3	-5.521938E-3	-2.041894E-3	3.253037E-3	-5.793053E-4	-7.715429E-4	4.174815E-3	-9.176558E-3	7.780683E-3	6.270614E-3	-1.568023E-3	-4.128971E-3	-2.341684E-3	6.392446E-4	3.446515E-3	3.913773E-3	-5.281659E-3	4.067437E-3	2.541751E-3	-4.696977E-3	1.099854E-2	4.883252E-3	-1.267972E-4	-4.695594E-3	7.538726E-3	-5.868247E-3	-1.088090E-3	2.443888E-3	-1.830894E-3	-5.546727E-3	-8.881005E-4	5.047800E-4	-1.537509E-2	2.827620E-3	1.079940E-3	2.284061E-3	3.766425E-3	1.642130E-2	-8.569316E-3	7.866060E-3	-1.449485E-3	-7.162994E-3	-6.068264E-4	1.089399E-4	5.835071E-3	2.951745E-3	4.474130E-3	-2.305359E-3	-1.261306E-3	-3.142926E-3	1.164233E-3	-4.982407E-4	5.154565E-3	1.850463E-3	-2.218848E-3	8.609254E-4	-7.675142E-3	2.126471E-3	1.233157E-2	8.508391E-3	7.408051E-3	-1.251094E-4	6.113172E-3	8.360932E-3	6.375368E-3	-6.954442E-3	-8.258740E-3	3.669453E-3	3.510356E-3	-1.572716E-3	1.319647E-2	8.139467E-3	3.334474E-3	-3.469258E-3	1.012962E-2	1.093226E-2	-1.332863E-2	9.574529E-3	-1.171702E-3	5.637784E-5	6.335573E-3	-2.351452E-3	4.510813E-3	2.557061E-3	8.491826E-3	-6.496277E-3	-2.800514E-3	3.206047E-3	-1.160856E-2	1.961316E-2	-5.136995E-3	1.317664E-3	-4.845652E-3	-5.716922E-3	1.574330E-2	7.599316E-3	-2.728663E-3	3.170505E-3	-4.070818E-3	-3.066018E-3	-1.035294E-4	7.189359E-3	-1.429146E-2	1.616813E-2	6.243133E-3	9.607613E-3	3.281343E-3	1.566336E-2	-7.719198E-3
2.820060E+2	-1.366943E-3	-1.408172E-3	1.302582E-2	5.599325E-3	-4.417863E-3	8.698314E-3	-2.467850E-3	6.195613E-4	4.381725E-3	1.173988E-3	1.114836E-2	4.388326E-3	6.044034E-4	6.646534E-3	-5.308565E-4	-4.335455E-3	5.090143E-4	-1.075553E-3	7.456239E-3	2.124631E-3	-3.834127E-4	9.467628E-3	4.008704E-3	9.038535E-3	4.987829E-3	6.525275E-3	-3.783715E-3	-5.089039E-4	-4.846873E-3	3.533194E-3	7.972119E-3	-4.126639E-4	2.558037E-3	-1.673089E-2	1.111263E-3	2.076240E-3	1.422416E-2	-4.674004E-3	2.861656E-3	3.882311E-3	1.779737E-2	6.642661E-3	1.196253E-3	2.312581E-3	8.694574E-5	5.214760E-3	2.319172E-3	-2.690059E-3	8.902599E-4	-7.215070E-4	4.076065E-3	5.532647E-3	7.307845E-3	-9.861678E-4	8.379367E-3	-3.903024E-3	5.628100E-3	8.206208E-3	3.742802E-4	1.470494E-2	2.365463E-4	5.749888E-3	9.516220E-3	1.782467E-2	1.031512E-3	-4.974028E-3	5.511784E-3	-5.095888E-3	-9.517572E-3	1.408715E-2	-4.053970E-3	3.277507E-3	1.023021E-2	-9.075859E-4	1.550020E-2	3.963328E-3	-1.130637E-2	-3.462410E-4	2.000594E-3	-7.985134E-4	4.606859E-3	-4.217461E-3	1.293794E-2	1.533152E-2	5.471064E-3	6.398828E-3	4.200193E-3	1.145315E-2	6.864486E-3	-4.675872E-4	8.040405E-3	4.532002E-3	-6.840070E-3	-3.341856E-3	9.077116E-3	6.842866E-3	-2.124516E-3	2.202343E-2	3.279081E-3	6.460656E-3	1.919152E-2	-6.905223E-3	4.321763E-3	3.358898E-3	4.634209E-3	-2.845946E-3	6.555333E-3	3.603843E-3	1.766861E-3	8.593236E-3	1.323749E-3	-1.440805E-3	-9.439276E-4	6.501956E-3	7.032096E-3	2.410955E-3	2.165428E-2	6.997785E-3	5.829000E-4	8.522627E-3	-8.180858E-3	1.170163E-3	-3.814018E-3	7.171131E-3	-4.367680E-3	-9.526947E-4	5.002927E-3	2.703434E-3	-1.167313E-2	3.079334E-3	2.973795E-3	1.168774E-2	4.514039E-3	-1.088437E-3	-2.387880E-3	-4.123738E-3	9.704230E-3	1.426780E-2	6.604783E-3	1.304291E-2	-6.336916E-3	8.496792E-3	-6.143225E-3	6.468240E-3	-2.983365E-3	5.815198E-3	-8.736860E-3	5.609298E-3	5.180894E-3	1.862989E-2	2.501398E-3	-5.332647E-5	-1.856925E-3	7.136194E-4	2.327649E-3	3.993646E-4	1.285165E-2	6.082474E-3	-2.113882E-3	-4.296526E-3	-6.331853E-3	3.432266E-3	2.067670E-2	3.872902E-3	9.683189E-3	-3.226252E-3	-3.292614E-3	8.695178E-3	-6.539835E-3	-2.380292E-3	-2.221793E-3
2.825040E+2	3.656474E-3	6.493989E-3	1.367127E-2	2.001669E-2	7.844586E-5	-1.279161E-3	3.054954E-3	-1.828524E-3	1.681858E-3	7.315959E-4	9.537370E-3	-3.605519E-3	1.277633E-2	1.305526E-2	5.457877E-3	-1.159911E-2	1.438918E-2	5.479668E-3	-2.994713E-3	-2.065792E-3	9.432878E-3	3.622001E-3	9.356628E-3	6.323528E-3	1.060159E-2	1.861736E-2	8.599451E-3	4.115878E-3	-5.250372E-4	9.498129E-3	1.038234E-2	5.624040E-3	7.444289E-4	4.111569E-3	1.183792E-2	-8.399065E-4	2.024386E-2	4.912730E-3	2.412529E-3	2.281526E-3	-3.026950E-3	1.649585E-2	2.746004E-3	7.091186E-3	9.479256E-3	1.377491E-3	8.243536E-4	1.304213E-2	1.513802E-2	3.703143E-3	8.194221E-3	-1.209311E-3	1.502627E-3	5.295978E-3	2.808028E-3	-8.389700E-4	-1.676543E-3	7.596382E-3	1.755725E-2	8.786307E-3	6.099474E-3	1.718057E-3	1.299075E-2	1.077569E-2	-1.941630E-3	1.092853E-2	2.829045E-3	1.906795E-3	-6.568352E-3	3.357789E-3	5.117088E-3	-8.939613E-4	-3.922387E-3	-5.313050E-3	2.105073E-3	-5.712703E-3	1.654820E-2	1.134350E-2	-3.329795E-4	1.319355E-2	-5.262492E-3	1.135069E-2	5.567442E-3	-8.051222E-3	2.485578E-2	1.506079E-2	-6.349032E-3	4.271554E-3	3.900638E-3	1.076886E-2	2.957465E-3	8.169732E-3	1.887628E-2	9.478982E-3	1.190257E-2	6.398088E-3	2.428767E-3	8.720615E-3	3.979653E-3	1.073520E-2	-9.546150E-3	1.025731E-2	4.924090E-3	5.051039E-3	5.317505E-3	2.578104E-4	1.137443E-2	1.773934E-3	-6.357754E-3	1.820211E-2	9.896283E-3	-1.881755E-3	1.055989E-2	-3.723969E-4	4.177283E-3	1.046544E-2	5.977711E-3	-2.234543E-3	1.675072E-4	7.989528E-3	3.819071E-3	7.611137E-3	1.151606E-3	-1.329463E-3	1.241908E-2	1.898154E-3	7.612221E-3	9.022779E-3	2.336476E-2	9.986573E-3	4.852409E-3	1.231916E-2	1.719381E-3	6.815092E-4	1.093109E-2	8.322602E-3	-6.091084E-3	3.756924E-3	4.930794E-3	1.848037E-4	5.831513E-3	1.308139E-3	2.149084E-3	9.463576E-3	-7.165480E-4	-5.051912E-3	6.286038E-3	-1.266969E-5	-2.025798E-4	1.151673E-3	7.173952E-3	1.842080E-3	-2.278024E-3	7.398347E-3	1.821154E-3	1.496129E-2	1.108347E-2	-5.300798E-5	-3.563434E-3	3.316603E-3	6.969440E-3	5.363404E-3	1.209351E-3	4.657670E-3	5.213268E-4	3.370241E-3	1.432626E-2	3.314662E-3	5.474564E-3	1.318551E-2	-2.708010E-3
2.830040E+2	5.986674E-3	6.160060E-3	6.048939E-3	4.543995E-3	2.993884E-2	1.091692E-3	1.604938E-3	2.082817E-2	9.884945E-3	1.194291E-2	5.501986E-3	4.448054E-3	7.826758E-3	1.670893E-2	1.884872E-3	7.586502E-3	2.193744E-2	1.858721E-3	1.036388E-2	1.408537E-2	6.425068E-3	1.875170E-2	1.631820E-2	1.007249E-2	1.197179E-2	-1.047016E-3	1.854726E-2	5.508743E-3	1.648832E-2	-4.699501E-3	7.646897E-3	-2.577968E-3	2.210464E-2	7.818359E-3	2.559668E-2	1.517689E-2	3.631356E-3	2.698692E-3	1.659427E-2	7.092969E-3	1.741880E-2	9.629948E-3	8.207857E-3	1.083964E-2	2.551514E-2	4.791691E-3	4.983704E-3	1.394370E-2	7.840162E-3	9.696017E-3	9.421094E-3	9.855676E-3	1.545969E-2	8.732814E-3	9.060560E-3	1.810257E-2	-7.011277E-4	1.107341E-3	4.329143E-3	-1.990467E-3	1.056509E-2	1.478908E-2	9.223663E-3	5.362300E-3	1.542309E-3	9.584820E-3	3.165655E-2	-9.699109E-3	1.312893E-2	1.242411E-2	9.158039E-3	1.329419E-3	-1.711175E-3	3.626725E-3	1.083283E-2	3.223872E-3	2.759979E-2	1.622564E-2	1.424568E-2	6.563493E-3	1.611221E-2	3.720386E-3	2.749285E-2	1.240529E-2	1.612887E-2	9.407519E-3	1.200032E-2	7.561181E-3	6.224446E-3	2.389304E-2	6.193212E-3	-5.678641E-3	1.146962E-2	1.292294E-2	4.575074E-4	1.322030E-2	1.089155E-2	1.383098E-2	-8.820365E-3	1.810840E-2	-2.233391E-3	1.943763E-2	2.397662E-2	2.640640E-2	1.583723E-2	2.497702E-3	1.914293E-2	6.836270E-3	2.024867E-2	3.007098E-2	2.876989E-3	1.366639E-3	1.577547E-2	9.667946E-3	8.840428E-3	6.609682E-3	8.314394E-3	1.318238E-2	1.589100E-2	1.496749E-2	-1.453667E-3	6.399601E-3	1.422614E-2	1.045898E-2	2.251974E-2	7.542869E-3	1.522564E-2	5.560640E-3	7.560787E-3	-7.744393E-3	9.633413E-3	5.953677E-3	2.053500E-2	1.387619E-2	1.656843E-2	2.019682E-2	1.041708E-2	1.376815E-2	1.302499E-2	1.089044E-2	5.828004E-3	1.026761E-2	5.580344E-3	1.779850E-2	1.940380E-2	-5.486518E-3	1.950896E-2	2.574537E-2	1.337489E-2	3.473284E-3	-8.207688E-5	-7.389932E-4	-2.620853E-3	3.637742E-3	1.069802E-2	2.330822E-3	-1.124159E-4	5.539674E-3	-4.625728E-3	7.994816E-3	1.647749E-2	1.243439E-2	-1.311152E-3	1.265433E-2	-9.751001E-3	1.567609E-2	8.780664E-3	5.983927E-3	1.724698E-2	1.726760E-2	3.310242E-3
2.835020E+2	1.991951E-2	7.254761E-3	2.521116E-2	2.028789E-2	1.620155E-2	3.018855E-2	3.107904E-2	2.455017E-2	2.787224E-2	1.576361E-2	1.425648E-2	1.889736E-2	1.663641E-2	2.530912E-2	1.439256E-2	3.099151E-2	2.211290E-2	1.518277E-2	3.236653E-2	2.401619E-2	3.327639E-2	2.680070E-2	2.468151E-2	3.365171E-2	1.449599E-2	1.206549E-2	3.448336E-2	1.645005E-2	1.042665E-2	1.539025E-2	1.297871E-2	2.009255E-2	2.499133E-2	1.816627E-2	3.174571E-2	1.064243E-2	3.603373E-2	1.660241E-2	2.864983E-2	3.248428E-2	3.882001E-2	1.325364E-2	1.380097E-2	1.160823E-2	3.186567E-2	1.621902E-2	1.560919E-2	1.156047E-2	1.952187E-2	2.982614E-2	1.311748E-2	2.404905E-2	1.797967E-2	3.106157E-2	3.135249E-2	1.875749E-2	1.584189E-2	2.473499E-2	2.056545E-2	1.970619E-2	1.991982E-2	1.366579E-2	1.808435E-2	2.103472E-2	1.839339E-2	2.001535E-2	3.003308E-2	1.973948E-2	2.924129E-2	2.900344E-2	2.742846E-2	2.507959E-2	2.391672E-2	1.027298E-2	7.809102E-3	4.222257E-3	2.207762E-2	1.757163E-2	4.526895E-3	1.446967E-2	1.083954E-2	2.653303E-2	2.448490E-2	2.494799E-2	2.144093E-2	2.883961E-2	4.070999E-2	1.914881E-2	3.023063E-2	1.321728E-2	2.651388E-2	1.212974E-2	4.851930E-3	2.575744E-2	1.928079E-2	2.383603E-2	3.135977E-2	1.786375E-2	2.460323E-3	1.210074E-2	3.147945E-2	6.037543E-3	2.325714E-2	3.036353E-2	9.866110E-3	1.475506E-2	1.614977E-2	1.898050E-2	1.934768E-2	1.880077E-2	2.586463E-2	2.370494E-2	2.261368E-2	2.016555E-2	1.971722E-2	1.272633E-2	3.125166E-2	1.680933E-2	2.022485E-2	7.893107E-3	2.153107E-2	2.310570E-2	3.688668E-2	1.583817E-2	2.792725E-2	8.789458E-3	6.803688E-3	2.564687E-2	2.124193E-2	2.150853E-2	1.462944E-2	2.023686E-2	2.680363E-2	4.022720E-2	2.245626E-2	2.894503E-2	2.503598E-2	1.650975E-2	2.477227E-3	2.139157E-3	1.419202E-2	2.426563E-2	1.604204E-2	1.059601E-2	2.501041E-2	1.026070E-2	2.466766E-2	2.327823E-2	4.033796E-2	7.057827E-3	2.078635E-3	2.539312E-2	2.961567E-2	2.838169E-2	1.087198E-2	1.782506E-2	2.636500E-2	1.022429E-2	2.343609E-2	1.167706E-2	1.924787E-2	2.231431E-2	2.303021E-2	2.101185E-2	3.091209E-2	1.388113E-2	2.542888E-2	3.232073E-2	1.214025E-2	1.034693E-2	1.472405E-2
2.840030E+2	4.996653E-2	6.137428E-2	4.208641E-2	5.515864E-2	4.589370E-2	4.428451E-2	4.993858E-2	5.509635E-2	4.491531E-2	4.736883E-2	3.955081E-2	6.082945E-2	4.103188E-2	4.117756E-2	2.705065E-2	3.432496E-2	4.723957E-2	4.360471E-2	4.538610E-2	5.438850E-2	4.000024E-2	5.501708E-2	4.727773E-2	4.449449E-2	7.944020E-2	2.776894E-2	4.147712E-2	2.591587E-2	5.818791E-2	2.442311E-2	6.540098E-2	4.581415E-2	4.291916E-2	5.235779E-2	4.957428E-2	3.513794E-2	2.912008E-2	4.500324E-2	4.856175E-2	4.438330E-2	1.861760E-2	4.242825E-2	5.451764E-2	4.073403E-2	4.237250E-2	3.229319E-2	5.407057E-2	4.301587E-2	5.212518E-2	7.868417E-2	2.889776E-2	3.126675E-2	5.625445E-2	5.018938E-2	5.845123E-2	4.321728E-2	5.326883E-2	5.678979E-2	5.698181E-2	1.543376E-2	4.700775E-2	5.620738E-2	4.841048E-2	4.883269E-2	3.816221E-2	4.648302E-2	4.520070E-2	2.472179E-2	5.490644E-2	5.667927E-2	3.480261E-2	4.395371E-2	4.918343E-2	6.836835E-2	3.052863E-2	3.862320E-2	4.119498E-2	3.412023E-2	4.018369E-2	4.439566E-2	1.917504E-2	4.987719E-2	2.821289E-2	3.096926E-2	4.932174E-2	3.140036E-2	5.723985E-2	3.556574E-2	4.219032E-2	5.525951E-2	5.616587E-2	3.929732E-2	5.388840E-2	4.344372E-2	4.944318E-2	3.954194E-2	2.626216E-2	3.237845E-2	3.652910E-2	3.582827E-2	4.082661E-2	4.326553E-2	5.424073E-2	4.993812E-2	4.546520E-2	4.103968E-2	5.340281E-2	4.901961E-2	5.915510E-2	5.244936E-2	3.449104E-2	5.217651E-2	3.926662E-2	4.690498E-2	3.797811E-2	4.585508E-2	4.362062E-2	4.102783E-2	4.801089E-2	5.136321E-2	4.247482E-2	4.861977E-2	4.397558E-2	5.775893E-2	4.094187E-2	3.337132E-2	5.657811E-2	4.370349E-2	3.642920E-2	3.839600E-2	4.739018E-2	3.601348E-2	5.526056E-2	1.840835E-2	5.524184E-2	4.258139E-2	4.112608E-2	4.379935E-2	4.316383E-2	5.647638E-2	5.541238E-2	5.604763E-2	3.699467E-2	4.886233E-2	5.467852E-2	3.592387E-2	5.607610E-2	4.750926E-2	6.396783E-2	2.112310E-2	4.157755E-2	4.830741E-2	6.269683E-2	5.495235E-2	4.083599E-2	3.498900E-2	4.570257E-2	4.090574E-2	3.525296E-2	1.145092E-2	4.797923E-2	5.121926E-2	4.044363E-2	4.494636E-2	5.442897E-2	6.602856E-2	4.231130E-2	4.727810E-2	5.057399E-2	2.839110E-2	3.663231E-2
2.841030E+2	6.355017E-2	4.404081E-2	5.177248E-2	4.210319E-2	6.603799E-2	5.191608E-2	4.154549E-2	2.600974E-2	4.171690E-2	6.525388E-2	2.891736E-2	4.310286E-2	3.924445E-2	5.397078E-2	7.353915E-2	3.786969E-2	4.642901E-2	3.781358E-2	3.997920E-2	2.041639E-2	3.276866E-2	5.442671E-2	4.466598E-2	3.537144E-2	4.462409E-2	3.680396E-2	5.679336E-2	3.595969E-2	3.453549E-2	5.481925E-2	4.913451E-2	5.278992E-2	2.364628E-2	3.822845E-2	2.615759E-2	3.931692E-2	4.610879E-2	5.147785E-2	3.128363E-2	4.483327E-2	5.589801E-2	4.407309E-2	4.951793E-2	3.648201E-2	6.168745E-2	5.837639E-2	4.165620E-2	4.789574E-2	3.545266E-2	4.554445E-2	4.420833E-2	4.433683E-2	5.340661E-2	3.626680E-2	4.293066E-2	4.150715E-2	4.769586E-2	3.159013E-2	5.282635E-2	2.519252E-2	5.659828E-2	4.782720E-2	5.224129E-2	4.309287E-2	4.395867E-2	2.817195E-2	4.919565E-2	7.740896E-2	3.793740E-2	5.120099E-2	4.860736E-2	4.565386E-2	4.175883E-2	6.059250E-2	4.471116E-2	3.795139E-2	2.776838E-2	6.178743E-2	2.729882E-2	4.923308E-2	1.955503E-2	4.905891E-2	4.925517E-2	3.105201E-2	4.720773E-2	2.567928E-2	5.028281E-2	5.268629E-2	3.879710E-2	4.831535E-2	5.178831E-2	3.934553E-2	2.518400E-2	4.276392E-2	4.514113E-2	3.695350E-2	6.511125E-2	3.281904E-2	4.503771E-2	4.706841E-2	5.068228E-2	4.969565E-2	4.255412E-2	3.879656E-2	2.257265E-2	4.919269E-2	2.671425E-2	4.230770E-2	4.470204E-2	5.668028E-2	6.071183E-2	4.604338E-2	3.983903E-2	3.110335E-2	3.970516E-2	3.731833E-2	4.664575E-2	4.967833E-2	6.096781E-2	5.931405E-2	2.325905E-2	3.562140E-2	4.222194E-2	4.592843E-2	3.512973E-2	6.714513E-2	4.381085E-2	3.492674E-2	3.841840E-2	6.925878E-2	5.686800E-2	4.596571E-2	5.835491E-2	4.678038E-2	3.995611E-2	5.763545E-2	3.918009E-2	4.568194E-2	5.830566E-2	5.512010E-2	6.487488E-2	3.771415E-2	5.395925E-2	3.952682E-2	4.529132E-2	2.117607E-2	5.158165E-2	4.660571E-2	3.314149E-2	3.947575E-2	4.100338E-2	3.416498E-2	5.048168E-2	6.192797E-2	4.838037E-2	3.787064E-2	3.860108E-2	4.382400E-2	3.043632E-2	4.295401E-2	4.866532E-2	5.429132E-2	5.853573E-2	4.969304E-2	4.578408E-2	5.380742E-2	4.284098E-2	3.745596E-2	4.223807E-2	6.890404E-2	2.139686E-2
2.842040E+2	6.580446E-2	6.091359E-2	6.419434E-2	5.482647E-2	6.136414E-2	5.814983E-2	8.021352E-2	5.493017E-2	6.679671E-2	3.751245E-2	4.159547E-2	4.929739E-2	5.207061E-2	8.548696E-2	7.022708E-2	5.285315E-2	6.735869E-2	5.711835E-2	5.937874E-2	5.799678E-2	7.839845E-2	6.632815E-2	6.688804E-2	7.014575E-2	5.429345E-2	4.714545E-2	8.143824E-2	5.335202E-2	3.748522E-2	7.158386E-2	4.114435E-2	6.630370E-2	6.076301E-2	6.005991E-2	7.214723E-2	7.484520E-2	6.920958E-2	6.172129E-2	6.151711E-2	7.335919E-2	5.399389E-2	6.305399E-2	6.004434E-2	4.164957E-2	6.336449E-2	5.655241E-2	7.449870E-2	7.464220E-2	6.612326E-2	7.990337E-2	5.817861E-2	6.644291E-2	6.421886E-2	6.470674E-2	4.561278E-2	5.298812E-2	7.123860E-2	6.317425E-2	7.003022E-2	6.569041E-2	6.423184E-2	5.955533E-2	7.355337E-2	4.465795E-2	6.469406E-2	6.235807E-2	4.624174E-2	7.066953E-2	6.920550E-2	7.391991E-2	7.190909E-2	4.857861E-2	7.963321E-2	6.260214E-2	7.745222E-2	5.378501E-2	7.424728E-2	5.465003E-2	7.844226E-2	4.765685E-2	6.590278E-2	5.881171E-2	6.823758E-2	7.990841E-2	6.518035E-2	6.590621E-2	6.391301E-2	7.951579E-2	7.873224E-2	6.916593E-2	6.858998E-2	5.314384E-2	6.224361E-2	7.420202E-2	5.667048E-2	6.340352E-2	8.303938E-2	4.410499E-2	6.302432E-2	8.190576E-2	6.056955E-2	5.382852E-2	5.314066E-2	6.336887E-2	6.941906E-2	4.980626E-2	5.920416E-2	5.505596E-2	7.256696E-2	4.386775E-2	8.182358E-2	4.540158E-2	8.460398E-2	5.200448E-2	5.504852E-2	6.970125E-2	7.199513E-2	6.310258E-2	6.366314E-2	3.853291E-2	9.056335E-2	9.038638E-2	6.470960E-2	5.995821E-2	6.483324E-2	5.225647E-2	5.558197E-2	6.128787E-2	6.720806E-2	6.988115E-2	6.000349E-2	5.519647E-2	7.525427E-2	5.902993E-2	5.873399E-2	7.336982E-2	5.887098E-2	9.122037E-2	6.502033E-2	6.431790E-2	8.417878E-2	5.367816E-2	6.873363E-2	6.919600E-2	5.014426E-2	7.432738E-2	6.996709E-2	6.229860E-2	7.328407E-2	6.043152E-2	7.730491E-2	5.709811E-2	8.082998E-2	7.026874E-2	4.662392E-2	5.756947E-2	6.847678E-2	7.445518E-2	8.034247E-2	7.616726E-2	5.385036E-2	6.378899E-2	6.294303E-2	7.843885E-2	7.286829E-2	7.379212E-2	5.676620E-2	7.784657E-2	2.742358E-2	4.658255E-2	5.348644E-2
2.843030E+2	1.123052E-1	8.512510E-2	9.397736E-2	7.147177E-2	8.164472E-2	1.019879E-1	9.744999E-2	7.683205E-2	9.590809E-2	9.192142E-2	1.040090E-1	8.090355E-2	7.526576E-2	9.362172E-2	7.386497E-2	7.744794E-2	8.724498E-2	9.816454E-2	8.490372E-2	7.637879E-2	8.245056E-2	1.117964E-1	8.418853E-2	8.810844E-2	9.716894E-2	1.138469E-1	8.672892E-2	1.125618E-1	9.708243E-2	1.191713E-1	1.037967E-1	1.019747E-1	9.527786E-2	6.156725E-2	7.618058E-2	1.134426E-1	8.533531E-2	7.545802E-2	8.624003E-2	8.593181E-2	9.440803E-2	8.722348E-2	8.875115E-2	9.827006E-2	9.251804E-2	9.132694E-2	8.059841E-2	9.310187E-2	9.188091E-2	1.080559E-1	1.064508E-1	9.770711E-2	9.117150E-2	7.362502E-2	8.318896E-2	7.340274E-2	8.898101E-2	9.779699E-2	1.079380E-1	8.057297E-2	1.041889E-1	1.112846E-1	8.422218E-2	1.025218E-1	8.540842E-2	1.118306E-1	8.795286E-2	1.010128E-1	9.949251E-2	1.090265E-1	1.061007E-1	9.921210E-2	8.819375E-2	8.415505E-2	9.329668E-2	8.029160E-2	9.928835E-2	8.787803E-2	7.914458E-2	8.751507E-2	9.231783E-2	9.236399E-2	9.709738E-2	1.157101E-1	9.397958E-2	7.765224E-2	8.313712E-2	1.026039E-1	9.931413E-2	8.109873E-2	8.659021E-2	9.143152E-2	9.978441E-2	8.073199E-2	9.779985E-2	8.910735E-2	9.423786E-2	9.894669E-2	9.179420E-2	1.037195E-1	1.118120E-1	9.017983E-2	1.136391E-1	7.558552E-2	8.884814E-2	9.657852E-2	1.002152E-1	9.997202E-2	1.333563E-1	1.008333E-1	1.066226E-1	7.959699E-2	7.188581E-2	9.908584E-2	9.167496E-2	1.272256E-1	9.005504E-2	9.080762E-2	6.414014E-2	9.715783E-2	1.046656E-1	8.607643E-2	8.036668E-2	9.826571E-2	7.450037E-2	7.795516E-2	1.095635E-1	7.363164E-2	8.754278E-2	7.960529E-2	1.110326E-1	8.480344E-2	1.215179E-1	9.146279E-2	9.967052E-2	9.747963E-2	8.673339E-2	8.654222E-2	1.050918E-1	9.915391E-2	9.107362E-2	8.289448E-2	9.441206E-2	1.174104E-1	1.042305E-1	7.461706E-2	1.116978E-1	1.147929E-1	9.641745E-2	7.789087E-2	9.272608E-2	8.853518E-2	1.288975E-1	1.044502E-1	7.775550E-2	7.925491E-2	6.469198E-2	9.328435E-2	9.528604E-2	8.371338E-2	6.571462E-2	8.865737E-2	7.733040E-2	9.700111E-2	6.782309E-2	8.973062E-2	1.324045E-1	1.005688E-1	1.080751E-1	8.299871E-2	8.169922E-2
2.844010E+2	1.394426E-1	1.262553E-1	1.440670E-1	1.437186E-1	1.394451E-1	1.372725E-1	2.025506E-1	1.628819E-1	1.412085E-1	1.810304E-1	1.450956E-1	1.184517E-1	1.499869E-1	1.542997E-1	1.291824E-1	1.378145E-1	1.330175E-1	1.379913E-1	1.645628E-1	1.378775E-1	1.286670E-1	1.699134E-1	1.286801E-1	1.548877E-1	1.402985E-1	1.291995E-1	1.417785E-1	1.275686E-1	1.467601E-1	1.630541E-1	1.277806E-1	1.594412E-1	1.458521E-1	1.350976E-1	1.593527E-1	1.442341E-1	1.436629E-1	1.783486E-1	1.542099E-1	1.277587E-1	1.663471E-1	1.441759E-1	1.275296E-1	1.551228E-1	1.410008E-1	1.498944E-1	1.588829E-1	1.312593E-1	1.744414E-1	1.453476E-1	1.396485E-1	1.612379E-1	1.410828E-1	1.535391E-1	1.526551E-1	1.429235E-1	1.338546E-1	1.587580E-1	1.661903E-1	1.372100E-1	1.617504E-1	1.089234E-1	1.886704E-1	1.497680E-1	1.654918E-1	1.517445E-1	1.512330E-1	1.664955E-1	1.536073E-1	1.499281E-1	1.273449E-1	1.441038E-1	1.385997E-1	1.386676E-1	1.402315E-1	1.223126E-1	1.579448E-1	1.597231E-1	1.393713E-1	1.329081E-1	1.249532E-1	1.596156E-1	1.431608E-1	1.223098E-1	1.434107E-1	1.422435E-1	1.452148E-1	1.455436E-1	1.609268E-1	1.684743E-1	1.311664E-1	1.504564E-1	1.204169E-1	1.522267E-1	1.836460E-1	1.300028E-1	1.485978E-1	1.225040E-1	1.219465E-1	1.389151E-1	1.500278E-1	1.566554E-1	1.423693E-1	1.247101E-1	1.502966E-1	1.318349E-1	1.283874E-1	1.524316E-1	1.747232E-1	1.530969E-1	1.529359E-1	1.209809E-1	1.417428E-1	1.339685E-1	1.270977E-1	1.378817E-1	1.369146E-1	1.362259E-1	1.458032E-1	1.326126E-1	1.700532E-1	1.351194E-1	1.487921E-1	1.722094E-1	1.543172E-1	1.413345E-1	1.521199E-1	1.461598E-1	1.265334E-1	1.526944E-1	1.412732E-1	1.655256E-1	1.766419E-1	1.847869E-1	1.312613E-1	1.450184E-1	1.160241E-1	1.485946E-1	1.276892E-1	1.406873E-1	1.340010E-1	1.605233E-1	1.437978E-1	1.802995E-1	1.234805E-1	1.199276E-1	1.546643E-1	1.580156E-1	1.583727E-1	1.513689E-1	1.213661E-1	1.406214E-1	1.874109E-1	1.803172E-1	1.555236E-1	1.475954E-1	1.440610E-1	1.668581E-1	1.381002E-1	1.610887E-1	1.349981E-1	1.578373E-1	1.544721E-1	1.624707E-1	1.204817E-1	1.228532E-1	1.821905E-1	1.508806E-1	1.401560E-1	1.797763E-1	9.259580E-2
2.845030E+2	2.174476E-1	2.023725E-1	2.174094E-1	2.190844E-1	2.015230E-1	2.240376E-1	2.043143E-1	2.241152E-1	2.009240E-1	2.077141E-1	2.266023E-1	2.279327E-1	2.262804E-1	2.276189E-1	2.012946E-1	2.180482E-1	2.005157E-1	2.147958E-1	2.110876E-1	2.168971E-1	1.816311E-1	2.336512E-1	2.233947E-1	2.081354E-1	2.347439E-1	1.850910E-1	2.019825E-1	1.624131E-1	2.281627E-1	2.157211E-1	2.139802E-1	2.054019E-1	2.182652E-1	2.049069E-1	2.248856E-1	1.764785E-1	2.329232E-1	1.848293E-1	1.903464E-1	2.271723E-1	1.848560E-1	2.170632E-1	2.171492E-1	1.908524E-1	2.143525E-1	1.960513E-1	2.127970E-1	1.708407E-1	2.049230E-1	1.963334E-1	1.949164E-1	2.098999E-1	2.005741E-1	2.181403E-1	2.040845E-1	1.804749E-1	1.852941E-1	1.883088E-1	2.129592E-1	2.296339E-1	2.175513E-1	1.948469E-1	1.635588E-1	2.007328E-1	1.971925E-1	1.973816E-1	1.993403E-1	2.268043E-1	2.176422E-1	2.331499E-1	1.845950E-1	2.101755E-1	1.916929E-1	2.191667E-1	1.920166E-1	2.014592E-1	2.262219E-1	1.715106E-1	2.104462E-1	2.063087E-1	2.073352E-1	2.042516E-1	2.090380E-1	2.426761E-1	2.408988E-1	2.236797E-1	2.066437E-1	1.963433E-1	2.223194E-1	2.210184E-1	2.289528E-1	1.873652E-1	2.173588E-1	2.120252E-1	2.164759E-1	2.308825E-1	2.006579E-1	2.149915E-1	2.076550E-1	1.925121E-1	1.981172E-1	1.946130E-1	2.010419E-1	1.805868E-1	2.248845E-1	2.076119E-1	2.245825E-1	1.763844E-1	1.957204E-1	2.656172E-1	2.383490E-1	1.874010E-1	1.986042E-1	2.372088E-1	2.056325E-1	2.270765E-1	2.233143E-1	2.429970E-1	1.855749E-1	2.119890E-1	2.084523E-1	2.270271E-1	2.118269E-1	2.201888E-1	2.250801E-1	2.026762E-1	1.996658E-1	2.483628E-1	1.929465E-1	2.193895E-1	2.083140E-1	2.197732E-1	2.244910E-1	2.261567E-1	2.378631E-1	1.857312E-1	2.386589E-1	2.408060E-1	2.203709E-1	1.997883E-1	2.188847E-1	2.205365E-1	2.213450E-1	2.103785E-1	2.295922E-1	1.821820E-1	1.887250E-1	2.162964E-1	2.477199E-1	2.021438E-1	1.993474E-1	1.780280E-1	1.980740E-1	2.137182E-1	2.051020E-1	1.820772E-1	2.278761E-1	2.203936E-1	2.142842E-1	2.032645E-1	1.968086E-1	2.196914E-1	2.063054E-1	2.426062E-1	2.111801E-1	2.136063E-1	2.387644E-1	2.027964E-1	2.607866E-1	2.286387E-1	2.123785E-1
2.846060E+2	4.217012E-1	4.139474E-1	4.028112E-1	3.984649E-1	4.100762E-1	3.733902E-1	3.510431E-1	3.575693E-1	3.957963E-1	3.468034E-1	3.955389E-1	3.699282E-1	3.707555E-1	4.097449E-1	3.325458E-1	3.606560E-1	3.732049E-1	3.475759E-1	3.977138E-1	3.836203E-1	3.656952E-1	3.670759E-1	3.644509E-1	4.027337E-1	4.238914E-1	3.642810E-1	3.639691E-1	3.332468E-1	3.962586E-1	3.531546E-1	3.500120E-1	3.742679E-1	3.513685E-1	3.730016E-1	3.959531E-1	3.432458E-1	3.781800E-1	3.531889E-1	3.836776E-1	3.629366E-1	3.602269E-1	4.049545E-1	3.603988E-1	3.624802E-1	3.888125E-1	3.821941E-1	3.664851E-1	3.593502E-1	3.717478E-1	3.673190E-1	3.273514E-1	3.299702E-1	3.837585E-1	3.730387E-1	3.420934E-1	3.858313E-1	3.510228E-1	3.875734E-1	3.592547E-1	3.679075E-1	3.419844E-1	4.163742E-1	3.788925E-1	3.921249E-1	3.653033E-1	4.094524E-1	3.798359E-1	3.579527E-1	4.166456E-1	4.280880E-1	3.873093E-1	4.040125E-1	3.806001E-1	3.696581E-1	3.734625E-1	3.928273E-1	3.720288E-1	3.718671E-1	4.059395E-1	3.790398E-1	3.956706E-1	3.763296E-1	3.935534E-1	3.663094E-1	3.815378E-1	4.037815E-1	3.810123E-1	3.701737E-1	3.326384E-1	3.515829E-1	3.984675E-1	3.654874E-1	3.827436E-1	3.807258E-1	3.645585E-1	4.110813E-1	3.379008E-1	3.401134E-1	3.923834E-1	4.158346E-1	3.675631E-1	3.920176E-1	4.118759E-1	3.860540E-1	3.849657E-1	3.573381E-1	3.836208E-1	4.089417E-1	3.559441E-1	3.511713E-1	3.839307E-1	3.862244E-1	3.732871E-1	3.678316E-1	3.774004E-1	3.919183E-1	3.751468E-1	3.732005E-1	3.772490E-1	3.701339E-1	4.090517E-1	3.938443E-1	3.868016E-1	3.893831E-1	3.453691E-1	3.993663E-1	4.252011E-1	3.876898E-1	3.993010E-1	3.724842E-1	3.944307E-1	4.166353E-1	4.168716E-1	3.990248E-1	3.849039E-1	3.903788E-1	3.691653E-1	4.177828E-1	3.839676E-1	4.020662E-1	3.817624E-1	3.749560E-1	3.780516E-1	3.522496E-1	4.477219E-1	3.975792E-1	3.944376E-1	3.428654E-1	3.891155E-1	3.952384E-1	3.582037E-1	3.809549E-1	4.065158E-1	3.782637E-1	3.549380E-1	3.506756E-1	4.003900E-1	3.821239E-1	3.834801E-1	3.270545E-1	3.852957E-1	3.952948E-1	3.776281E-1	3.877005E-1	4.045345E-1	3.517465E-1	4.092837E-1	4.103027E-1	3.716025E-1	3.333960E-1	4.183077E-1
2.847000E+2	8.405868E-1	7.756503E-1	7.397408E-1	7.912408E-1	8.159141E-1	7.500724E-1	7.416029E-1	6.895151E-1	8.187462E-1	7.391887E-1	7.851128E-1	7.633825E-1	7.451508E-1	7.647473E-1	8.036375E-1	7.665927E-1	7.421256E-1	8.238218E-1	7.251670E-1	7.659760E-1	7.588273E-1	8.479589E-1	7.083749E-1	7.745341E-1	8.375112E-1	7.723252E-1	7.382363E-1	7.313980E-1	7.061208E-1	7.361408E-1	7.528577E-1	8.528034E-1	7.152808E-1	7.920951E-1	8.204464E-1	7.386115E-1	7.486527E-1	7.611422E-1	7.975765E-1	7.580151E-1	7.709981E-1	8.520683E-1	7.207017E-1	8.437100E-1	7.823954E-1	7.728856E-1	7.458610E-1	7.336700E-1	7.507743E-1	7.883727E-1	7.080559E-1	7.533368E-1	7.879485E-1	7.666164E-1	7.684566E-1	7.356635E-1	7.941990E-1	8.334536E-1	8.160206E-1	7.564345E-1	8.674666E-1	7.771980E-1	7.550563E-1	7.538962E-1	8.254493E-1	7.535031E-1	7.442140E-1	7.808187E-1	7.506400E-1	7.967567E-1	7.564088E-1	7.630504E-1	7.849701E-1	7.921542E-1	7.792296E-1	7.277097E-1	8.140471E-1	7.170186E-1	7.189735E-1	7.616654E-1	7.496090E-1	7.655190E-1	7.153256E-1	8.131280E-1	8.287236E-1	7.840983E-1	7.884164E-1	7.594343E-1	7.973840E-1	7.477576E-1	7.865521E-1	7.859705E-1	8.033617E-1	7.446858E-1	7.504858E-1	7.282727E-1	7.811452E-1	7.682205E-1	7.921031E-1	6.763115E-1	8.485725E-1	7.992888E-1	7.799303E-1	7.731214E-1	7.897218E-1	8.666858E-1	7.592925E-1	6.962818E-1	7.640364E-1	7.794429E-1	8.365450E-1	7.589379E-1	7.459027E-1	8.158166E-1	8.161870E-1	8.066245E-1	7.841592E-1	7.364424E-1	7.817831E-1	7.335772E-1	8.027393E-1	7.752429E-1	7.485022E-1	7.172720E-1	7.977070E-1	8.311332E-1	7.447608E-1	7.473507E-1	8.125307E-1	7.455934E-1	7.606346E-1	7.401834E-1	7.493486E-1	8.234017E-1	7.893813E-1	8.156511E-1	8.054726E-1	8.090780E-1	7.292186E-1	7.735322E-1	7.653537E-1	7.764201E-1	7.895228E-1	7.983774E-1	7.608128E-1	8.003887E-1	7.396694E-1	8.179074E-1	7.424922E-1	7.735892E-1	8.165708E-1	7.496844E-1	8.070115E-1	7.930513E-1	7.739105E-1	7.780756E-1	7.729685E-1	8.037776E-1	7.831501E-1	7.490818E-1	7.849194E-1	8.354390E-1	7.872288E-1	7.581285E-1	7.562671E-1	7.945822E-1	9.071783E-1	7.775557E-1	8.292760E-1	8.265854E-1	7.112782E-1
2.848020E+2	1.490385E+0	1.443957E+0	1.519820E+0	1.540968E+0	1.582763E+0	1.474325E+0	1.534388E+0	1.479242E+0	1.495100E+0	1.572992E+0	1.475539E+0	1.509453E+0	1.480052E+0	1.537677E+0	1.423193E+0	1.434436E+0	1.455381E+0	1.459053E+0	1.405574E+0	1.578983E+0	1.505414E+0	1.459700E+0	1.389138E+0	1.361346E+0	1.544988E+0	1.567861E+0	1.544611E+0	1.415647E+0	1.514183E+0	1.518748E+0	1.475313E+0	1.477661E+0	1.436892E+0	1.444465E+0	1.449276E+0	1.460151E+0	1.496443E+0	1.527990E+0	1.430634E+0	1.468533E+0	1.378079E+0	1.442049E+0	1.442755E+0	1.573794E+0	1.533452E+0	1.441090E+0	1.515526E+0	1.461169E+0	1.446574E+0	1.514492E+0	1.520198E+0	1.522527E+0	1.467262E+0	1.540518E+0	1.519796E+0	1.523716E+0	1.489391E+0	1.540681E+0	1.475800E+0	1.418626E+0	1.486521E+0	1.517704E+0	1.431556E+0	1.401750E+0	1.513698E+0	1.570019E+0	1.374212E+0	1.467065E+0	1.472543E+0	1.498695E+0	1.447863E+0	1.483415E+0	1.492619E+0	1.448857E+0	1.530870E+0	1.493301E+0	1.392966E+0	1.514082E+0	1.493621E+0	1.467108E+0	1.476252E+0	1.430957E+0	1.485546E+0	1.517764E+0	1.453680E+0	1.511628E+0	1.538627E+0	1.439785E+0	1.473334E+0	1.488151E+0	1.502389E+0	1.460251E+0	1.501796E+0	1.493832E+0	1.429824E+0	1.423345E+0	1.468578E+0	1.434002E+0	1.532916E+0	1.542136E+0	1.490710E+0	1.496050E+0	1.482953E+0	1.485713E+0	1.505239E+0	1.499711E+0	1.456103E+0	1.375177E+0	1.413889E+0	1.480520E+0	1.496453E+0	1.400062E+0	1.400624E+0	1.554019E+0	1.495924E+0	1.451296E+0	1.469302E+0	1.581491E+0	1.467112E+0	1.472403E+0	1.396368E+0	1.549428E+0	1.477665E+0	1.404988E+0	1.456961E+0	1.527418E+0	1.470021E+0	1.474020E+0	1.622604E+0	1.538467E+0	1.472465E+0	1.461619E+0	1.594641E+0	1.493125E+0	1.487953E+0	1.466034E+0	1.473825E+0	1.477197E+0	1.376024E+0	1.476442E+0	1.454965E+0	1.479722E+0	1.518362E+0	1.388839E+0	1.479192E+0	1.528409E+0	1.484678E+0	1.497588E+0	1.511567E+0	1.516197E+0	1.454212E+0	1.471446E+0	1.482186E+0	1.538173E+0	1.503862E+0	1.519307E+0	1.488712E+0	1.420217E+0	1.502413E+0	1.444527E+0	1.516081E+0	1.424537E+0	1.466036E+0	1.416886E+0	1.471297E+0	1.451754E+0	1.573497E+0	1.452696E+0	1.406859E+0	1.575017E+0	1.487051E+0
2.849010E+2	1.880733E+0	1.917067E+0	1.774326E+0	1.796812E+0	1.810328E+0	1.842987E+0	1.831351E+0	1.764644E+0	1.807932E+0	1.888113E+0	1.706003E+0	1.750106E+0	1.737227E+0	1.793930E+0	1.788779E+0	1.862129E+0	1.809613E+0	1.882933E+0	1.790676E+0	1.773275E+0	1.830478E+0	1.792548E+0	1.749738E+0	1.807683E+0	1.851719E+0	1.796096E+0	1.762783E+0	1.740833E+0	1.837606E+0	1.851907E+0	1.861821E+0	1.767834E+0	1.730706E+0	1.768325E+0	1.678122E+0	1.783831E+0	1.765084E+0	1.874993E+0	1.767424E+0	1.810107E+0	1.745129E+0	1.688619E+0	1.786117E+0	1.711514E+0	1.767141E+0	1.814122E+0	1.868226E+0	1.821066E+0	1.735407E+0	1.683589E+0	1.840209E+0	1.778938E+0	1.806115E+0	1.831726E+0	1.782184E+0	1.737689E+0	1.825131E+0	1.858153E+0	1.798112E+0	1.808277E+0	1.822923E+0	1.869515E+0	1.828413E+0	1.776876E+0	1.811926E+0	1.825523E+0	1.841370E+0	1.752534E+0	1.775346E+0	1.768058E+0	1.708982E+0	1.789676E+0	1.695943E+0	1.814681E+0	1.851044E+0	1.766195E+0	1.801696E+0	1.779950E+0	1.742587E+0	1.751802E+0	1.843227E+0	1.890189E+0	1.730783E+0	1.853023E+0	1.842147E+0	1.798491E+0	1.897425E+0	1.830863E+0	1.833995E+0	1.744048E+0	1.790434E+0	1.822167E+0	1.808654E+0	1.798526E+0	1.773173E+0	1.863649E+0	1.799665E+0	1.746542E+0	1.841091E+0	1.825971E+0	1.760046E+0	1.793821E+0	1.771163E+0	1.777797E+0	1.863702E+0	1.809913E+0	1.747478E+0	1.764809E+0	1.764832E+0	1.817499E+0	1.810586E+0	1.754029E+0	1.745729E+0	1.863058E+0	1.709159E+0	1.712486E+0	1.711062E+0	1.803058E+0	1.777073E+0	1.770975E+0	1.803932E+0	1.801160E+0	1.759944E+0	1.826042E+0	1.782112E+0	1.874932E+0	1.789380E+0	1.765265E+0	1.817854E+0	1.848050E+0	1.798267E+0	1.790769E+0	1.850698E+0	1.950708E+0	1.876344E+0	1.841784E+0	1.757688E+0	1.881476E+0	1.798375E+0	1.742112E+0	1.849103E+0	1.771992E+0	1.838170E+0	1.846815E+0	1.921421E+0	1.830730E+0	1.773952E+0	1.836887E+0	1.764167E+0	1.782769E+0	1.740114E+0	1.671574E+0	1.747192E+0	1.798142E+0	1.711730E+0	1.804429E+0	1.863151E+0	1.775701E+0	1.796225E+0	1.733968E+0	1.830478E+0	1.804049E+0	1.744399E+0	1.716974E+0	1.850716E+0	1.677674E+0	1.772827E+0	1.845845E+0	1.663898E+0	1.787437E+0	1.752718E+0
2.850030E+2	1.689397E+0	1.738061E+0	1.702394E+0	1.610623E+0	1.773575E+0	1.713817E+0	1.721740E+0	1.646058E+0	1.659346E+0	1.680592E+0	1.697897E+0	1.614556E+0	1.581353E+0	1.775149E+0	1.678687E+0	1.603829E+0	1.635079E+0	1.678003E+0	1.653627E+0	1.757333E+0	1.675636E+0	1.643300E+0	1.722052E+0	1.614528E+0	1.730889E+0	1.701197E+0	1.642751E+0	1.620414E+0	1.648732E+0	1.640185E+0	1.688828E+0	1.709040E+0	1.614850E+0	1.678626E+0	1.723993E+0	1.641155E+0	1.684992E+0	1.680354E+0	1.610838E+0	1.606446E+0	1.642624E+0	1.695826E+0	1.648387E+0	1.651130E+0	1.636119E+0	1.691298E+0	1.703718E+0	1.700246E+0	1.657863E+0	1.645573E+0	1.583251E+0	1.715405E+0	1.660769E+0	1.822069E+0	1.643690E+0	1.706220E+0	1.587044E+0	1.703512E+0	1.793726E+0	1.702489E+0	1.667389E+0	1.674631E+0	1.711508E+0	1.666731E+0	1.606176E+0	1.684805E+0	1.675026E+0	1.558733E+0	1.621777E+0	1.590056E+0	1.635562E+0	1.632377E+0	1.694538E+0	1.654826E+0	1.596506E+0	1.632435E+0	1.666255E+0	1.739163E+0	1.666539E+0	1.721036E+0	1.740305E+0	1.715154E+0	1.724166E+0	1.656012E+0	1.632758E+0	1.757053E+0	1.702497E+0	1.700615E+0	1.610942E+0	1.703007E+0	1.672360E+0	1.560748E+0	1.668357E+0	1.679950E+0	1.696744E+0	1.651387E+0	1.630425E+0	1.715326E+0	1.673340E+0	1.684514E+0	1.665378E+0	1.688613E+0	1.823640E+0	1.595394E+0	1.639729E+0	1.704760E+0	1.685837E+0	1.675384E+0	1.633343E+0	1.675258E+0	1.617909E+0	1.639569E+0	1.592306E+0	1.707358E+0	1.645660E+0	1.638374E+0	1.729028E+0	1.720764E+0	1.664336E+0	1.685849E+0	1.698965E+0	1.672659E+0	1.649307E+0	1.632534E+0	1.629049E+0	1.802083E+0	1.677539E+0	1.691297E+0	1.722553E+0	1.641011E+0	1.578345E+0	1.642831E+0	1.727660E+0	1.814511E+0	1.761948E+0	1.771088E+0	1.674332E+0	1.765391E+0	1.637853E+0	1.683982E+0	1.651967E+0	1.746346E+0	1.709597E+0	1.678181E+0	1.623857E+0	1.693992E+0	1.777760E+0	1.682075E+0	1.653257E+0	1.646141E+0	1.560336E+0	1.614084E+0	1.573854E+0	1.668879E+0	1.690310E+0	1.698284E+0	1.705706E+0	1.622342E+0	1.630491E+0	1.622021E+0	1.640851E+0	1.641679E+0	1.652934E+0	1.709642E+0	1.606987E+0	1.636761E+0	1.694538E+0	1.635449E+0	1.728259E+0	1.525584E+0	1.688190E+0
2.851000E+2	1.254371E+0	1.341821E+0	1.344767E+0	1.386525E+0	1.371088E+0	1.340815E+0	1.389279E+0	1.347514E+0	1.380107E+0	1.381901E+0	1.348085E+0	1.390418E+0	1.330187E+0	1.396060E+0	1.379047E+0	1.263533E+0	1.360736E+0	1.416791E+0	1.339727E+0	1.411460E+0	1.345963E+0	1.347904E+0	1.395230E+0	1.384047E+0	1.427980E+0	1.388542E+0	1.279980E+0	1.254634E+0	1.329514E+0	1.415586E+0	1.384618E+0	1.411151E+0	1.345673E+0	1.407249E+0	1.347192E+0	1.357854E+0	1.372931E+0	1.325297E+0	1.321807E+0	1.421754E+0	1.348498E+0	1.444039E+0	1.444658E+0	1.401560E+0	1.438606E+0	1.389737E+0	1.291984E+0	1.288719E+0	1.288263E+0	1.320590E+0	1.377419E+0	1.397198E+0	1.383239E+0	1.396716E+0	1.446871E+0	1.307772E+0	1.351664E+0	1.300431E+0	1.338336E+0	1.378557E+0	1.422443E+0	1.336828E+0	1.376077E+0	1.393407E+0	1.458128E+0	1.420929E+0	1.384659E+0	1.364400E+0	1.338995E+0	1.337463E+0	1.376860E+0	1.345439E+0	1.391128E+0	1.431427E+0	1.331659E+0	1.256350E+0	1.323509E+0	1.297230E+0	1.370039E+0	1.285529E+0	1.403862E+0	1.376643E+0	1.415242E+0	1.350851E+0	1.353129E+0	1.425269E+0	1.414973E+0	1.359402E+0	1.429193E+0	1.353149E+0	1.380421E+0	1.458876E+0	1.297838E+0	1.376317E+0	1.355469E+0	1.347050E+0	1.390211E+0	1.478131E+0	1.380013E+0	1.431977E+0	1.366445E+0	1.443171E+0	1.335853E+0	1.345075E+0	1.340984E+0	1.294573E+0	1.427177E+0	1.269427E+0	1.316526E+0	1.417152E+0	1.371572E+0	1.378322E+0	1.286327E+0	1.372141E+0	1.338368E+0	1.319201E+0	1.414903E+0	1.359228E+0	1.370680E+0	1.366110E+0	1.412587E+0	1.419283E+0	1.352539E+0	1.399947E+0	1.417246E+0	1.436212E+0	1.376536E+0	1.381846E+0	1.310174E+0	1.350950E+0	1.449498E+0	1.404741E+0	1.373835E+0	1.477807E+0	1.442930E+0	1.372540E+0	1.390855E+0	1.399729E+0	1.396171E+0	1.308575E+0	1.412592E+0	1.423230E+0	1.417662E+0	1.401124E+0	1.337317E+0	1.405614E+0	1.321060E+0	1.361668E+0	1.329457E+0	1.277491E+0	1.300349E+0	1.398452E+0	1.367813E+0	1.347222E+0	1.353594E+0	1.367347E+0	1.386656E+0	1.351393E+0	1.395005E+0	1.407367E+0	1.338443E+0	1.377264E+0	1.375603E+0	1.292704E+0	1.370412E+0	1.268284E+0	1.409604E+0	1.411943E+0	1.291642E+0	1.384696E+0	1.423780E+0
2.852010E+2	9.852550E-1	1.004315E+0	1.029010E+0	8.516912E-1	1.000163E+0	1.006350E+0	1.050253E+0	9.521815E-1	1.002768E+0	9.905910E-1	8.718679E-1	9.618037E-1	9.164122E-1	1.009034E+0	9.873262E-1	9.609414E-1	9.882459E-1	9.194359E-1	9.833118E-1	1.007997E+0	9.398974E-1	9.531108E-1	9.359125E-1	8.939633E-1	1.020791E+0	9.600530E-1	9.502633E-1	9.206540E-1	9.020407E-1	9.959238E-1	9.650791E-1	8.923599E-1	8.576857E-1	9.753062E-1	9.408016E-1	9.403356E-1	9.141986E-1	1.009217E+0	9.020213E-1	9.264169E-1	9.445534E-1	9.076178E-1	8.597705E-1	9.179353E-1	9.810634E-1	9.358207E-1	9.519137E-1	8.874755E-1	9.310436E-1	9.427057E-1	9.602526E-1	9.669318E-1	9.647211E-1	9.983199E-1	9.202463E-1	9.274513E-1	9.424905E-1	9.493780E-1	9.613480E-1	9.389660E-1	1.034884E+0	9.524022E-1	9.304062E-1	9.563050E-1	9.472455E-1	9.366936E-1	8.817576E-1	9.774322E-1	9.595196E-1	9.215404E-1	9.573037E-1	9.472431E-1	9.543200E-1	9.352472E-1	9.793746E-1	9.200158E-1	9.504586E-1	8.793713E-1	9.848936E-1	9.692578E-1	9.906797E-1	9.620872E-1	9.552627E-1	9.425603E-1	9.188907E-1	8.808968E-1	1.002340E+0	9.417866E-1	9.721086E-1	9.992901E-1	8.895917E-1	9.169332E-1	9.243113E-1	1.002632E+0	9.389402E-1	9.580360E-1	9.328844E-1	9.850561E-1	9.972688E-1	8.907179E-1	9.911817E-1	9.535304E-1	9.617425E-1	9.192116E-1	9.626063E-1	9.232808E-1	9.600896E-1	9.083552E-1	9.617745E-1	9.889757E-1	9.803320E-1	8.833972E-1	8.962987E-1	9.263696E-1	9.488542E-1	9.965373E-1	9.288717E-1	9.569042E-1	9.503763E-1	9.357623E-1	9.992088E-1	9.904472E-1	9.317484E-1	9.771801E-1	9.637943E-1	9.089464E-1	9.939939E-1	9.566074E-1	9.480383E-1	9.105066E-1	9.965177E-1	8.691770E-1	9.618058E-1	9.845229E-1	9.751962E-1	9.726631E-1	1.026734E+0	9.719910E-1	9.565210E-1	8.915770E-1	9.767346E-1	9.709790E-1	9.745682E-1	9.690449E-1	9.404754E-1	9.638474E-1	9.927842E-1	9.753807E-1	9.519469E-1	9.195575E-1	1.027580E+0	8.973782E-1	9.391960E-1	9.888810E-1	9.843548E-1	9.412337E-1	9.884051E-1	9.676759E-1	9.521757E-1	9.758546E-1	9.410013E-1	9.287709E-1	9.720391E-1	9.501358E-1	9.576316E-1	9.662581E-1	9.727144E-1	9.256667E-1	9.363753E-1	8.996384E-1	9.121470E-1
2.853000E+2	5.760084E-1	5.935994E-1	5.942355E-1	5.797019E-1	6.487708E-1	6.631324E-1	5.746513E-1	6.260448E-1	6.226201E-1	6.604552E-1	6.188859E-1	6.298756E-1	5.616828E-1	6.053611E-1	5.753257E-1	5.594624E-1	6.530328E-1	5.660408E-1	6.056170E-1	5.884431E-1	6.169208E-1	6.295847E-1	5.757948E-1	6.341743E-1	6.135300E-1	5.815748E-1	6.010698E-1	5.686346E-1	6.422903E-1	5.922351E-1	6.149076E-1	5.752139E-1	6.023400E-1	5.933146E-1	6.276220E-1	6.142767E-1	5.628899E-1	6.097592E-1	5.954157E-1	6.130157E-1	6.326310E-1	5.660311E-1	6.173308E-1	5.993470E-1	6.018545E-1	6.174773E-1	6.362800E-1	6.037926E-1	6.483662E-1	5.718372E-1	6.049044E-1	5.942152E-1	6.267294E-1	6.142825E-1	6.198383E-1	5.772181E-1	5.902567E-1	6.062853E-1	5.969219E-1	5.931416E-1	5.893644E-1	5.960883E-1	5.997751E-1	6.587685E-1	6.815736E-1	6.173559E-1	5.929857E-1	6.326773E-1	5.824650E-1	6.615107E-1	6.587217E-1	5.931956E-1	6.436784E-1	6.665238E-1	5.992363E-1	6.044140E-1	6.406116E-1	6.572134E-1	6.391862E-1	5.738443E-1	6.360478E-1	6.175404E-1	6.295970E-1	7.013932E-1	6.364881E-1	6.457836E-1	6.506187E-1	6.289030E-1	6.041230E-1	6.087413E-1	5.901055E-1	6.097379E-1	6.297986E-1	6.275070E-1	5.710482E-1	6.623842E-1	6.682054E-1	5.752031E-1	6.689831E-1	5.779562E-1	6.263747E-1	6.484334E-1	6.491725E-1	5.880674E-1	6.464219E-1	6.395425E-1	5.804906E-1	5.775408E-1	6.043338E-1	6.636809E-1	6.445177E-1	6.676222E-1	6.722053E-1	5.890596E-1	6.466217E-1	6.603345E-1	5.921374E-1	6.080789E-1	6.199106E-1	6.942604E-1	7.023061E-1	5.822081E-1	5.944697E-1	6.286042E-1	6.380975E-1	6.211755E-1	6.385716E-1	6.112388E-1	5.969720E-1	6.398949E-1	6.127704E-1	6.457114E-1	6.636916E-1	6.873684E-1	6.570916E-1	6.120779E-1	5.928735E-1	6.333615E-1	6.032721E-1	5.794722E-1	6.233896E-1	5.899068E-1	6.070210E-1	6.359380E-1	6.433674E-1	6.189937E-1	5.750852E-1	5.939812E-1	6.565154E-1	6.729263E-1	5.858602E-1	6.522477E-1	6.050491E-1	6.089621E-1	6.094147E-1	6.363482E-1	5.981529E-1	6.197324E-1	5.975431E-1	6.097608E-1	6.690015E-1	5.980994E-1	6.362916E-1	6.527009E-1	6.236339E-1	6.300743E-1	6.230113E-1	6.545076E-1	6.615105E-1	5.782507E-1	5.296293E-1
2.854050E+2	4.455645E-1	4.701577E-1	4.616143E-1	4.445508E-1	4.653109E-1	4.456499E-1	4.445469E-1	4.637254E-1	4.574959E-1	5.031713E-1	4.009395E-1	4.377425E-1	4.517828E-1	4.784467E-1	4.669093E-1	4.661378E-1	4.379863E-1	4.304773E-1	4.493317E-1	4.802903E-1	4.211399E-1	4.345218E-1	4.411904E-1	4.332815E-1	5.007470E-1	4.711202E-1	4.463448E-1	4.270228E-1	4.879368E-1	4.110451E-1	4.630044E-1	4.512280E-1	4.427850E-1	4.451617E-1	4.985578E-1	4.149977E-1	5.083315E-1	4.788817E-1	4.351218E-1	4.208298E-1	4.682181E-1	4.655945E-1	4.584709E-1	4.651843E-1	4.909199E-1	4.861191E-1	4.830981E-1	4.814309E-1	4.711696E-1	4.849567E-1	4.552689E-1	4.955200E-1	4.069042E-1	4.453247E-1	4.954420E-1	4.433982E-1	4.612118E-1	4.606481E-1	4.227528E-1	4.544634E-1	4.811135E-1	4.539428E-1	4.707598E-1	4.421900E-1	4.713729E-1	4.717649E-1	4.504130E-1	4.660186E-1	4.336022E-1	4.596322E-1	4.706413E-1	4.541175E-1	4.728821E-1	4.700529E-1	4.570415E-1	4.605139E-1	4.518932E-1	4.446587E-1	4.385789E-1	4.875839E-1	4.635899E-1	4.767496E-1	4.588369E-1	4.101070E-1	4.948894E-1	4.905839E-1	4.142370E-1	4.290336E-1	4.321294E-1	4.240515E-1	4.738615E-1	4.528685E-1	4.873932E-1	4.252393E-1	4.410351E-1	4.972916E-1	4.396468E-1	4.359839E-1	4.570197E-1	4.399340E-1	4.282219E-1	4.594280E-1	4.951993E-1	4.949945E-1	4.352763E-1	4.338679E-1	4.927449E-1	3.968770E-1	4.418100E-1	4.646419E-1	4.244039E-1	4.177784E-1	4.686859E-1	4.364161E-1	4.877980E-1	4.825796E-1	4.696660E-1	4.369109E-1	4.841451E-1	4.898157E-1	4.347048E-1	5.127612E-1	4.584693E-1	4.981418E-1	4.814102E-1	4.533275E-1	4.556290E-1	4.514296E-1	5.039144E-1	4.536309E-1	5.062912E-1	4.304550E-1	5.022073E-1	4.741088E-1	4.506976E-1	4.731101E-1	4.670478E-1	4.790965E-1	4.984291E-1	4.236083E-1	4.581963E-1	4.520011E-1	4.979968E-1	4.693010E-1	5.158504E-1	4.724500E-1	4.487256E-1	5.095933E-1	4.733935E-1	4.385073E-1	4.700413E-1	5.036969E-1	4.426303E-1	4.704517E-1	4.926995E-1	4.856341E-1	4.747486E-1	4.645306E-1	4.989616E-1	4.800075E-1	4.900363E-1	4.134144E-1	4.636945E-1	4.922060E-1	4.469845E-1	4.398063E-1	4.780121E-1	5.076077E-1	4.449963E-1	4.750018E-1	4.184451E-1
2.855020E+2	4.244173E-1	3.564509E-1	3.454552E-1	3.736706E-1	4.247015E-1	4.219548E-1	3.988299E-1	4.039927E-1	3.627269E-1	4.171026E-1	4.120016E-1	4.582937E-1	4.019756E-1	4.015084E-1	3.965752E-1	3.765935E-1	3.969724E-1	4.190230E-1	4.391802E-1	4.040326E-1	3.880326E-1	3.728035E-1	3.940496E-1	3.693752E-1	3.836117E-1	3.637755E-1	4.224923E-1	3.675634E-1	3.673445E-1	3.797137E-1	4.320619E-1	3.910579E-1	4.216849E-1	3.883737E-1	4.143279E-1	4.414499E-1	3.795013E-1	3.722004E-1	3.950671E-1	3.964551E-1	3.900381E-1	3.912312E-1	3.979180E-1	3.886131E-1	3.987986E-1	3.967561E-1	3.984355E-1	4.044018E-1	4.085029E-1	3.409088E-1	4.231590E-1	4.305696E-1	3.764316E-1	4.146967E-1	3.848403E-1	3.768758E-1	3.861182E-1	4.062432E-1	4.493739E-1	3.513950E-1	4.083962E-1	4.045793E-1	4.020414E-1	4.455129E-1	3.475028E-1	4.168098E-1	4.194026E-1	4.076421E-1	3.803534E-1	4.084521E-1	4.112810E-1	3.799092E-1	4.109162E-1	4.197785E-1	3.735239E-1	3.928829E-1	4.019933E-1	3.996973E-1	3.935214E-1	4.106090E-1	3.912790E-1	4.087387E-1	4.112014E-1	4.436859E-1	4.120790E-1	3.623925E-1	3.850773E-1	3.792720E-1	3.327993E-1	3.858127E-1	3.857439E-1	3.833862E-1	3.807440E-1	3.730977E-1	3.779744E-1	3.631500E-1	4.161158E-1	3.541768E-1	4.319386E-1	4.170321E-1	4.443900E-1	3.998793E-1	4.132379E-1	3.673158E-1	3.875767E-1	4.357802E-1	4.101530E-1	3.853273E-1	3.916460E-1	3.987658E-1	4.062614E-1	3.701888E-1	3.825937E-1	3.719931E-1	4.009850E-1	4.142016E-1	4.400652E-1	4.153872E-1	3.908497E-1	3.715772E-1	4.178394E-1	3.801654E-1	3.894141E-1	3.816264E-1	3.971730E-1	4.308748E-1	3.720264E-1	4.545658E-1	4.486858E-1	4.187542E-1	3.793497E-1	4.461589E-1	4.210555E-1	3.980370E-1	4.244783E-1	3.907307E-1	3.612538E-1	3.712586E-1	3.779672E-1	4.286008E-1	4.010606E-1	3.790470E-1	3.860655E-1	4.256546E-1	4.022198E-1	4.182419E-1	4.117370E-1	4.147997E-1	4.150578E-1	3.895077E-1	3.973236E-1	3.885548E-1	4.303365E-1	3.871243E-1	4.247456E-1	4.155342E-1	4.298700E-1	4.490312E-1	4.319649E-1	4.088946E-1	4.236707E-1	4.019304E-1	4.385675E-1	3.965674E-1	4.069206E-1	4.016394E-1	4.137667E-1	4.178506E-1	3.930445E-1	3.421323E-1	4.275234E-1
2.856010E+2	3.396110E-1	3.864860E-1	4.030360E-1	3.679825E-1	3.910432E-1	3.694256E-1	3.663091E-1	3.554817E-1	3.565692E-1	3.836787E-1	3.262424E-1	3.800597E-1	3.534483E-1	3.718132E-1	3.466007E-1	3.874352E-1	3.720029E-1	3.157095E-1	3.932091E-1	3.683903E-1	3.373482E-1	4.210382E-1	3.641080E-1	3.751342E-1	3.657985E-1	3.613093E-1	3.797931E-1	3.587806E-1	3.737853E-1	3.907662E-1	3.534848E-1	3.720293E-1	3.766788E-1	3.811130E-1	4.001481E-1	3.537288E-1	3.374484E-1	3.645132E-1	3.901187E-1	4.077313E-1	3.761780E-1	3.623888E-1	3.716141E-1	3.555477E-1	3.602363E-1	3.951209E-1	3.681582E-1	3.923224E-1	3.587829E-1	3.808027E-1	3.646492E-1	3.578566E-1	3.902622E-1	3.397258E-1	3.867819E-1	3.668743E-1	3.670772E-1	3.734189E-1	4.082888E-1	3.546752E-1	3.614991E-1	3.746807E-1	3.879751E-1	3.794021E-1	3.650051E-1	3.597735E-1	3.938551E-1	4.134372E-1	3.990146E-1	3.782817E-1	3.326850E-1	3.649815E-1	3.736938E-1	3.858466E-1	3.486302E-1	3.846071E-1	3.899236E-1	3.651341E-1	3.454359E-1	3.561292E-1	3.709150E-1	3.734718E-1	3.825088E-1	3.571878E-1	3.896491E-1	3.725717E-1	3.550499E-1	3.660052E-1	4.237036E-1	4.042062E-1	3.691663E-1	3.974382E-1	3.935183E-1	3.943047E-1	3.627869E-1	3.616834E-1	3.412883E-1	3.350419E-1	3.993643E-1	3.657413E-1	4.022143E-1	3.654517E-1	3.915508E-1	3.700557E-1	3.820724E-1	3.496548E-1	3.924500E-1	3.315535E-1	3.537940E-1	3.594486E-1	4.212297E-1	3.792497E-1	3.808914E-1	3.565892E-1	4.005817E-1	3.436527E-1	3.791221E-1	3.685225E-1	3.723813E-1	3.794601E-1	3.970113E-1	3.441404E-1	4.008058E-1	3.734442E-1	3.551384E-1	3.563744E-1	3.774325E-1	4.166448E-1	4.138137E-1	3.486473E-1	4.039474E-1	3.734266E-1	4.180929E-1	3.703730E-1	4.053444E-1	3.880080E-1	3.928356E-1	3.672319E-1	3.901017E-1	3.710845E-1	4.119537E-1	3.692618E-1	3.844793E-1	3.650773E-1	3.683498E-1	3.752651E-1	3.710707E-1	3.983349E-1	3.731583E-1	3.306606E-1	4.014412E-1	3.963347E-1	4.135865E-1	3.707507E-1	3.440526E-1	3.587313E-1	3.692320E-1	3.644747E-1	3.884642E-1	3.649856E-1	3.977868E-1	3.778448E-1	3.401663E-1	4.562538E-1	3.609481E-1	3.953940E-1	3.971575E-1	3.786839E-1	4.526552E-1	3.935318E-1	3.237548E-1
2.858030E+2	5.680535E-1	5.403936E-1	5.687026E-1	5.072355E-1	5.358739E-1	5.781743E-1	5.539029E-1	5.720002E-1	5.434367E-1	5.080428E-1	5.418477E-1	5.071831E-1	5.402794E-1	4.982860E-1	5.500345E-1	5.711185E-1	5.496840E-1	5.774516E-1	4.976705E-1	5.235575E-1	5.451703E-1	5.649776E-1	5.364907E-1	5.554004E-1	5.422332E-1	5.293029E-1	5.549019E-1	5.459492E-1	5.780900E-1	5.315970E-1	5.695079E-1	5.635736E-1	5.533744E-1	5.574221E-1	5.909451E-1	5.663915E-1	5.383968E-1	5.329405E-1	5.683849E-1	5.309725E-1	5.429685E-1	5.354547E-1	5.524428E-1	5.636319E-1	5.400974E-1	5.905405E-1	5.602989E-1	5.465178E-1	5.737065E-1	5.680631E-1	5.699775E-1	5.496315E-1	5.364569E-1	5.434000E-1	5.641226E-1	5.430048E-1	5.568164E-1	5.259065E-1	5.157559E-1	6.103647E-1	5.831918E-1	5.638689E-1	5.977857E-1	5.438621E-1	5.615485E-1	5.640925E-1	5.590825E-1	5.093411E-1	5.877758E-1	5.498025E-1	5.370115E-1	5.635992E-1	5.208358E-1	5.579320E-1	5.673090E-1	5.217311E-1	5.869423E-1	5.567669E-1	5.704937E-1	4.768369E-1	5.568451E-1	5.470892E-1	5.602717E-1	5.655905E-1	5.577543E-1	5.387379E-1	5.575993E-1	5.660823E-1	5.333842E-1	6.004498E-1	5.321001E-1	5.928293E-1	5.769986E-1	5.382300E-1	5.417544E-1	5.462114E-1	5.572599E-1	5.304694E-1	5.638350E-1	5.875976E-1	5.871269E-1	5.329212E-1	5.460872E-1	5.483694E-1	5.544202E-1	4.862340E-1	5.330043E-1	5.675296E-1	5.734005E-1	6.282995E-1	5.753877E-1	5.591489E-1	5.746196E-1	5.768807E-1	5.453490E-1	5.498113E-1	5.532932E-1	5.234599E-1	5.566944E-1	5.705124E-1	6.492888E-1	5.438827E-1	5.680533E-1	5.385548E-1	5.179489E-1	5.961782E-1	5.625142E-1	5.614125E-1	5.656169E-1	5.566167E-1	5.762470E-1	5.352777E-1	5.438392E-1	5.502736E-1	5.165723E-1	5.455344E-1	5.173446E-1	5.540384E-1	5.351203E-1	5.213413E-1	5.604596E-1	5.302637E-1	5.976062E-1	5.569344E-1	5.500067E-1	5.038959E-1	6.349364E-1	5.085447E-1	5.840779E-1	5.552541E-1	5.554597E-1	5.751817E-1	5.655169E-1	5.327277E-1	5.775150E-1	5.031409E-1	5.719715E-1	5.260396E-1	5.806426E-1	5.845947E-1	5.910331E-1	5.485567E-1	5.334666E-1	5.644919E-1	5.726647E-1	5.460671E-1	5.519225E-1	5.907425E-1	5.680869E-1	6.139034E-1	5.211138E-1
2.860040E+2	8.693190E-1	8.901655E-1	9.354827E-1	8.185521E-1	9.093506E-1	9.346855E-1	8.864309E-1	8.523578E-1	9.416198E-1	9.384091E-1	8.905445E-1	9.484562E-1	8.752636E-1	8.443609E-1	8.911451E-1	9.556197E-1	9.462181E-1	8.332853E-1	9.201623E-1	9.440014E-1	8.849067E-1	8.950123E-1	9.038837E-1	8.634316E-1	9.025909E-1	9.225238E-1	8.714879E-1	8.766194E-1	8.765477E-1	8.837225E-1	8.958425E-1	8.972811E-1	8.982886E-1	8.584889E-1	8.968496E-1	8.971221E-1	8.670857E-1	9.013557E-1	9.075128E-1	8.621532E-1	9.269161E-1	9.308398E-1	8.981738E-1	9.128869E-1	9.118512E-1	9.263285E-1	8.477818E-1	9.192286E-1	9.733830E-1	8.778442E-1	9.435327E-1	8.786619E-1	8.838238E-1	9.346820E-1	9.465340E-1	9.029160E-1	9.008396E-1	9.202122E-1	9.015858E-1	9.058528E-1	8.707581E-1	9.310473E-1	8.857450E-1	8.823302E-1	9.106511E-1	9.243667E-1	8.978713E-1	8.774104E-1	8.839215E-1	8.745474E-1	8.893228E-1	9.021346E-1	9.416694E-1	9.725636E-1	9.407323E-1	9.788276E-1	9.389477E-1	8.749023E-1	8.714052E-1	8.516865E-1	8.496079E-1	8.829819E-1	8.210787E-1	8.810560E-1	8.726451E-1	9.526163E-1	9.345750E-1	8.760412E-1	9.167585E-1	9.293979E-1	9.574385E-1	9.146446E-1	8.892828E-1	9.516223E-1	8.599456E-1	8.641368E-1	9.568875E-1	8.978721E-1	9.192607E-1	8.549720E-1	9.451218E-1	9.177366E-1	9.203427E-1	9.306045E-1	8.927444E-1	9.566401E-1	8.911466E-1	9.284626E-1	9.826955E-1	9.698078E-1	9.479574E-1	9.348257E-1	8.790384E-1	8.524498E-1	9.288641E-1	8.696946E-1	8.779207E-1	9.652324E-1	9.077031E-1	8.129417E-1	9.243732E-1	8.403482E-1	8.709975E-1	9.187870E-1	9.564602E-1	8.873857E-1	9.334571E-1	9.259210E-1	9.379649E-1	9.568246E-1	8.755040E-1	8.237146E-1	8.902811E-1	9.131603E-1	9.497479E-1	9.616711E-1	8.953217E-1	9.373494E-1	8.929797E-1	9.193859E-1	9.263091E-1	8.867579E-1	8.723534E-1	9.403052E-1	8.837153E-1	9.595447E-1	8.613387E-1	8.834642E-1	9.572660E-1	8.722970E-1	8.874287E-1	8.707709E-1	9.224938E-1	9.161772E-1	9.244769E-1	8.637427E-1	9.552538E-1	9.007391E-1	9.326945E-1	9.088996E-1	9.111948E-1	8.797232E-1	9.201583E-1	8.573800E-1	9.990581E-1	8.859986E-1	9.307298E-1	8.942606E-1	9.964609E-1	8.889721E-1	9.192740E-1
2.862060E+2	1.136537E+0	1.123570E+0	1.229909E+0	1.118796E+0	1.153419E+0	1.244275E+0	1.186256E+0	1.128346E+0	1.121534E+0	1.216725E+0	1.132798E+0	1.217682E+0	1.172134E+0	1.260182E+0	1.133176E+0	1.251546E+0	1.176994E+0	1.197974E+0	1.131261E+0	1.237835E+0	1.121899E+0	1.234881E+0	1.166516E+0	1.228399E+0	1.237069E+0	1.181900E+0	1.177572E+0	1.192977E+0	1.165866E+0	1.217702E+0	1.238875E+0	1.178045E+0	1.148755E+0	1.173001E+0	1.220856E+0	1.178711E+0	1.218966E+0	1.150483E+0	1.126654E+0	1.112973E+0	1.181402E+0	1.141371E+0	1.216067E+0	1.222030E+0	1.220102E+0	1.296332E+0	1.192480E+0	1.217051E+0	1.222383E+0	1.172814E+0	1.185970E+0	1.237071E+0	1.190560E+0	1.207463E+0	1.235040E+0	1.164977E+0	1.217429E+0	1.124415E+0	1.232924E+0	1.297004E+0	1.230598E+0	1.182032E+0	1.139243E+0	1.267006E+0	1.215247E+0	1.207161E+0	1.169013E+0	1.166552E+0	1.155624E+0	1.257945E+0	1.143051E+0	1.233058E+0	1.281459E+0	1.295404E+0	1.300288E+0	1.176183E+0	1.208491E+0	1.174572E+0	1.186128E+0	1.216469E+0	1.142008E+0	1.203145E+0	1.191538E+0	1.202356E+0	1.227382E+0	1.243067E+0	1.198109E+0	1.117895E+0	1.135122E+0	1.194146E+0	1.146823E+0	1.206688E+0	1.191123E+0	1.183154E+0	1.114986E+0	1.143151E+0	1.163163E+0	1.187012E+0	1.208190E+0	1.194324E+0	1.231314E+0	1.260153E+0	1.188608E+0	1.165870E+0	1.114375E+0	1.218711E+0	1.233413E+0	1.206389E+0	1.179587E+0	1.131826E+0	1.229103E+0	1.172795E+0	1.182480E+0	1.194935E+0	1.161800E+0	1.174922E+0	1.161797E+0	1.171067E+0	1.198126E+0	1.198570E+0	1.216670E+0	1.164580E+0	1.181689E+0	1.187241E+0	1.221278E+0	1.201752E+0	1.236371E+0	1.276665E+0	1.281758E+0	1.204271E+0	1.185098E+0	1.231115E+0	1.222977E+0	1.192749E+0	1.178826E+0	1.196957E+0	1.235709E+0	1.234069E+0	1.227652E+0	1.152800E+0	1.161830E+0	1.184009E+0	1.227376E+0	1.197223E+0	1.250190E+0	1.278940E+0	1.199542E+0	1.168719E+0	1.205387E+0	1.130909E+0	1.186500E+0	1.134899E+0	1.174157E+0	1.161373E+0	1.151859E+0	1.215685E+0	1.174768E+0	1.147229E+0	1.189938E+0	1.195526E+0	1.191049E+0	1.155748E+0	1.193027E+0	1.204482E+0	1.182335E+0	1.218209E+0	1.241953E+0	1.259781E+0	1.288489E+0	1.244700E+0	1.071974E+0
2.864060E+2	1.088745E+0	1.160409E+0	1.083784E+0	1.035612E+0	1.113381E+0	1.051488E+0	1.049928E+0	1.079553E+0	1.107066E+0	1.106990E+0	1.052253E+0	1.074479E+0	1.060471E+0	1.062836E+0	1.069040E+0	1.130097E+0	1.100744E+0	9.979389E-1	1.079644E+0	1.116130E+0	1.036403E+0	1.058537E+0	1.009768E+0	1.038749E+0	1.136015E+0	1.074271E+0	1.065186E+0	9.954285E-1	1.059332E+0	1.084398E+0	1.069451E+0	1.064687E+0	1.113145E+0	1.103307E+0	1.094392E+0	1.129382E+0	1.132074E+0	1.074076E+0	1.043771E+0	1.044462E+0	1.102913E+0	1.080900E+0	1.046927E+0	1.100781E+0	1.104304E+0	1.059792E+0	1.032248E+0	1.030566E+0	1.032495E+0	1.062598E+0	1.088898E+0	1.023146E+0	1.037958E+0	1.147719E+0	1.056480E+0	1.074379E+0	1.069401E+0	1.131876E+0	1.072025E+0	1.107153E+0	1.034022E+0	1.109791E+0	1.026490E+0	1.046099E+0	1.132340E+0	1.104212E+0	1.024843E+0	1.078385E+0	1.055787E+0	1.102129E+0	1.053260E+0	1.073761E+0	1.118827E+0	1.192277E+0	1.110503E+0	1.064445E+0	1.093565E+0	1.055265E+0	9.925136E-1	1.116591E+0	1.154198E+0	1.049460E+0	1.070021E+0	1.039860E+0	1.071537E+0	1.103997E+0	1.082231E+0	1.086340E+0	1.095883E+0	1.009934E+0	1.113877E+0	1.084346E+0	1.154187E+0	1.049409E+0	1.062289E+0	1.040469E+0	1.090988E+0	1.124950E+0	1.084615E+0	1.117713E+0	1.119696E+0	1.131971E+0	1.080320E+0	1.053630E+0	1.008771E+0	1.043889E+0	1.114256E+0	1.083304E+0	1.059311E+0	1.080681E+0	1.177431E+0	1.078246E+0	1.114816E+0	1.032385E+0	1.049717E+0	1.022440E+0	1.103174E+0	1.052444E+0	1.088264E+0	1.119625E+0	1.040418E+0	1.093837E+0	1.116388E+0	9.742382E-1	1.054292E+0	1.095390E+0	1.052746E+0	1.170961E+0	1.053980E+0	1.037533E+0	1.052544E+0	1.062215E+0	1.091790E+0	1.047487E+0	1.112420E+0	1.090380E+0	1.101069E+0	1.110011E+0	1.067699E+0	9.610220E-1	1.080974E+0	1.056916E+0	1.095591E+0	1.141537E+0	1.124991E+0	1.113847E+0	1.042828E+0	1.038230E+0	1.098386E+0	1.011889E+0	1.055478E+0	1.145236E+0	1.092638E+0	1.090299E+0	1.048173E+0	1.122393E+0	1.092116E+0	1.075601E+0	1.051015E+0	1.052968E+0	1.069774E+0	1.095503E+0	1.050308E+0	1.101260E+0	1.109226E+0	1.053828E+0	1.074906E+0	1.146524E+0	1.112429E+0	1.087678E+0	1.119716E+0
2.866110E+2	1.238293E+0	1.203409E+0	1.228465E+0	1.120216E+0	1.190114E+0	1.284205E+0	1.242853E+0	1.174219E+0	1.233359E+0	1.310466E+0	1.245986E+0	1.249720E+0	1.145156E+0	1.227992E+0	1.171949E+0	1.220707E+0	1.209156E+0	1.224846E+0	1.199812E+0	1.262030E+0	1.169383E+0	1.187539E+0	1.193360E+0	1.212864E+0	1.239684E+0	1.157125E+0	1.223722E+0	1.183491E+0	1.218918E+0	1.156932E+0	1.183548E+0	1.210250E+0	1.222681E+0	1.204532E+0	1.157234E+0	1.231091E+0	1.203266E+0	1.245559E+0	1.179419E+0	1.230582E+0	1.244641E+0	1.227810E+0	1.211855E+0	1.246036E+0	1.234458E+0	1.286804E+0	1.211487E+0	1.171779E+0	1.120809E+0	1.139051E+0	1.213955E+0	1.135651E+0	1.218398E+0	1.263583E+0	1.153009E+0	1.177352E+0	1.187526E+0	1.210002E+0	1.243168E+0	1.244771E+0	1.215212E+0	1.218850E+0	1.214001E+0	1.211728E+0	1.143549E+0	1.297498E+0	1.144350E+0	1.229121E+0	1.180500E+0	1.231746E+0	1.196471E+0	1.226436E+0	1.196459E+0	1.228645E+0	1.222995E+0	1.179229E+0	1.209492E+0	1.221353E+0	1.162495E+0	1.175663E+0	1.263238E+0	1.254601E+0	1.193965E+0	1.217104E+0	1.246882E+0	1.266204E+0	1.296122E+0	1.174690E+0	1.216962E+0	1.215496E+0	1.198278E+0	1.178905E+0	1.195076E+0	1.231590E+0	1.176373E+0	1.211122E+0	1.221758E+0	1.235860E+0	1.200695E+0	1.210058E+0	1.238347E+0	1.226445E+0	1.239885E+0	1.194790E+0	1.222510E+0	1.181640E+0	1.273450E+0	1.179441E+0	1.224959E+0	1.285181E+0	1.215944E+0	1.159181E+0	1.226765E+0	1.234491E+0	1.148511E+0	1.201967E+0	1.125831E+0	1.174561E+0	1.202814E+0	1.206161E+0	1.188434E+0	1.295070E+0	1.135851E+0	1.233004E+0	1.212308E+0	1.254733E+0	1.229956E+0	1.214178E+0	1.225723E+0	1.180382E+0	1.188631E+0	1.171000E+0	1.186899E+0	1.247009E+0	1.218757E+0	1.178989E+0	1.273185E+0	1.228344E+0	1.300925E+0	1.201108E+0	1.309705E+0	1.142492E+0	1.172071E+0	1.126056E+0	1.207850E+0	1.193644E+0	1.215269E+0	1.252573E+0	1.253861E+0	1.156568E+0	1.171254E+0	1.194094E+0	1.256824E+0	1.226559E+0	1.269041E+0	1.114098E+0	1.258411E+0	1.209822E+0	1.230582E+0	1.247595E+0	1.283537E+0	1.174155E+0	1.253172E+0	1.255391E+0	1.204919E+0	1.174433E+0	1.223411E+0	1.298526E+0	1.230159E+0	1.212572E+0	1.072780E+0
2.868020E+2	1.546131E+0	1.563771E+0	1.614083E+0	1.514026E+0	1.571412E+0	1.558573E+0	1.608597E+0	1.636876E+0	1.566549E+0	1.659191E+0	1.585369E+0	1.609929E+0	1.613287E+0	1.658972E+0	1.527364E+0	1.588902E+0	1.583639E+0	1.580048E+0	1.531358E+0	1.670835E+0	1.586759E+0	1.556370E+0	1.586957E+0	1.562132E+0	1.615991E+0	1.612788E+0	1.550728E+0	1.605304E+0	1.537087E+0	1.549999E+0	1.578273E+0	1.575192E+0	1.548022E+0	1.579317E+0	1.612850E+0	1.645398E+0	1.619527E+0	1.629078E+0	1.578471E+0	1.629139E+0	1.598898E+0	1.559250E+0	1.593986E+0	1.602129E+0	1.581103E+0	1.652281E+0	1.561514E+0	1.558486E+0	1.475460E+0	1.599092E+0	1.633201E+0	1.624885E+0	1.553373E+0	1.603671E+0	1.591033E+0	1.519762E+0	1.626189E+0	1.625244E+0	1.559356E+0	1.561304E+0	1.558580E+0	1.585521E+0	1.526264E+0	1.617480E+0	1.574648E+0	1.593642E+0	1.530102E+0	1.618132E+0	1.635461E+0	1.612621E+0	1.541131E+0	1.486182E+0	1.559451E+0	1.604690E+0	1.633409E+0	1.604277E+0	1.611793E+0	1.672136E+0	1.538220E+0	1.558029E+0	1.665946E+0	1.558576E+0	1.644069E+0	1.583481E+0	1.558659E+0	1.581488E+0	1.617978E+0	1.561858E+0	1.595379E+0	1.641345E+0	1.558633E+0	1.562441E+0	1.657707E+0	1.561667E+0	1.521921E+0	1.554452E+0	1.522031E+0	1.561741E+0	1.588356E+0	1.562762E+0	1.519017E+0	1.552842E+0	1.578250E+0	1.551220E+0	1.597995E+0	1.571410E+0	1.594357E+0	1.529439E+0	1.574801E+0	1.602351E+0	1.548207E+0	1.530101E+0	1.579314E+0	1.600307E+0	1.581852E+0	1.542691E+0	1.587336E+0	1.555157E+0	1.544958E+0	1.547316E+0	1.581953E+0	1.576451E+0	1.633320E+0	1.625126E+0	1.518799E+0	1.616322E+0	1.538627E+0	1.540960E+0	1.524001E+0	1.560948E+0	1.552384E+0	1.619798E+0	1.581342E+0	1.620865E+0	1.637542E+0	1.550437E+0	1.749277E+0	1.656150E+0	1.560120E+0	1.588574E+0	1.611239E+0	1.570259E+0	1.547115E+0	1.551141E+0	1.542285E+0	1.591254E+0	1.571598E+0	1.578857E+0	1.531404E+0	1.590948E+0	1.609919E+0	1.624653E+0	1.629703E+0	1.591419E+0	1.545710E+0	1.584310E+0	1.674219E+0	1.536481E+0	1.589234E+0	1.550980E+0	1.610683E+0	1.566286E+0	1.579802E+0	1.689158E+0	1.547420E+0	1.586586E+0	1.578194E+0	1.645552E+0	1.528978E+0	1.546126E+0	1.542437E+0
2.870030E+2	1.264325E+0	1.275388E+0	1.251092E+0	1.292044E+0	1.342395E+0	1.326764E+0	1.297250E+0	1.307344E+0	1.259926E+0	1.342411E+0	1.267042E+0	1.245653E+0	1.251976E+0	1.284177E+0	1.244095E+0	1.264070E+0	1.260237E+0	1.180066E+0	1.244972E+0	1.384391E+0	1.311467E+0	1.292388E+0	1.235780E+0	1.282258E+0	1.322393E+0	1.234292E+0	1.304103E+0	1.220911E+0	1.310957E+0	1.221365E+0	1.244156E+0	1.238557E+0	1.191117E+0	1.241135E+0	1.232413E+0	1.339723E+0	1.272378E+0	1.226277E+0	1.219067E+0	1.294139E+0	1.193926E+0	1.272367E+0	1.330001E+0	1.242966E+0	1.241546E+0	1.270455E+0	1.265403E+0	1.264615E+0	1.263158E+0	1.258167E+0	1.287747E+0	1.311631E+0	1.265144E+0	1.264631E+0	1.217189E+0	1.275680E+0	1.232378E+0	1.329776E+0	1.277574E+0	1.280984E+0	1.299212E+0	1.243986E+0	1.198588E+0	1.291845E+0	1.336345E+0	1.252493E+0	1.250876E+0	1.279996E+0	1.212859E+0	1.222099E+0	1.243392E+0	1.296397E+0	1.292274E+0	1.345992E+0	1.325665E+0	1.297068E+0	1.241747E+0	1.260787E+0	1.259159E+0	1.304724E+0	1.230795E+0	1.255231E+0	1.302051E+0	1.261125E+0	1.324354E+0	1.297573E+0	1.278113E+0	1.195803E+0	1.281673E+0	1.290898E+0	1.277352E+0	1.278790E+0	1.262691E+0	1.350826E+0	1.298048E+0	1.279535E+0	1.248822E+0	1.262961E+0	1.310310E+0	1.267509E+0	1.292125E+0	1.309284E+0	1.239827E+0	1.284257E+0	1.242488E+0	1.326324E+0	1.329878E+0	1.243824E+0	1.258012E+0	1.289398E+0	1.279167E+0	1.239763E+0	1.295186E+0	1.286930E+0	1.360038E+0	1.257053E+0	1.161163E+0	1.242396E+0	1.265129E+0	1.213535E+0	1.272730E+0	1.255091E+0	1.292254E+0	1.297355E+0	1.329821E+0	1.279509E+0	1.268977E+0	1.269291E+0	1.280440E+0	1.241827E+0	1.244839E+0	1.252950E+0	1.198923E+0	1.342381E+0	1.294523E+0	1.309010E+0	1.245811E+0	1.233669E+0	1.348656E+0	1.281312E+0	1.271579E+0	1.271430E+0	1.285943E+0	1.289890E+0	1.271574E+0	1.309923E+0	1.272273E+0	1.328417E+0	1.231094E+0	1.244502E+0	1.273032E+0	1.263805E+0	1.349832E+0	1.235289E+0	1.290854E+0	1.249749E+0	1.263474E+0	1.277854E+0	1.229704E+0	1.272680E+0	1.218023E+0	1.275923E+0	1.269445E+0	1.241480E+0	1.209830E+0	1.229793E+0	1.289328E+0	1.324906E+0	1.210290E+0	1.235234E+0	1.170879E+0
2.872040E+2	8.659156E-1	9.451288E-1	9.572747E-1	8.452707E-1	9.055631E-1	8.987395E-1	9.347468E-1	8.509334E-1	8.952271E-1	9.040996E-1	8.604150E-1	8.583303E-1	8.642943E-1	8.980161E-1	8.587980E-1	8.861598E-1	8.655381E-1	8.850193E-1	8.774751E-1	8.940992E-1	8.995660E-1	9.119014E-1	8.616497E-1	8.805229E-1	8.579026E-1	8.446874E-1	8.950199E-1	8.670989E-1	8.857014E-1	9.126819E-1	8.466321E-1	8.903463E-1	9.073055E-1	8.785786E-1	9.036458E-1	8.868236E-1	8.791313E-1	9.539839E-1	9.554531E-1	8.871233E-1	9.184604E-1	8.860532E-1	8.911741E-1	8.981315E-1	9.270750E-1	8.532199E-1	8.742564E-1	8.731120E-1	8.659205E-1	8.321449E-1	8.669608E-1	9.452209E-1	9.298033E-1	9.113188E-1	8.994639E-1	8.578188E-1	9.144211E-1	9.065318E-1	8.744559E-1	8.883732E-1	9.251011E-1	8.695163E-1	9.309806E-1	8.605821E-1	9.095657E-1	8.720932E-1	9.013197E-1	9.152651E-1	9.114209E-1	9.153553E-1	9.219961E-1	9.083481E-1	7.984983E-1	8.340835E-1	9.469092E-1	8.267000E-1	9.253720E-1	8.812964E-1	8.844596E-1	8.983270E-1	9.682613E-1	8.929923E-1	9.187114E-1	8.943471E-1	9.545349E-1	9.092134E-1	8.832812E-1	8.811897E-1	8.719907E-1	9.280855E-1	9.508183E-1	8.154639E-1	9.092358E-1	8.850295E-1	8.378170E-1	9.024507E-1	8.966149E-1	9.216145E-1	8.291413E-1	8.727622E-1	8.854558E-1	9.030285E-1	9.232415E-1	8.405546E-1	9.229704E-1	8.794829E-1	8.578558E-1	9.168357E-1	8.173151E-1	8.625224E-1	8.424087E-1	9.287488E-1	8.775326E-1	8.578204E-1	9.579016E-1	8.831728E-1	8.957832E-1	8.098494E-1	8.837825E-1	8.094305E-1	8.700957E-1	8.809402E-1	8.888201E-1	8.570227E-1	8.883537E-1	8.837707E-1	8.673948E-1	9.106595E-1	8.909023E-1	8.872242E-1	8.910622E-1	8.216766E-1	8.475505E-1	9.129983E-1	9.216092E-1	8.685029E-1	8.485852E-1	8.555891E-1	8.437536E-1	8.723534E-1	8.476675E-1	9.077459E-1	8.900930E-1	8.958209E-1	9.289385E-1	9.499494E-1	9.235873E-1	8.969669E-1	9.246648E-1	8.723240E-1	8.272710E-1	9.386004E-1	9.329922E-1	8.658793E-1	9.096906E-1	8.540251E-1	9.085065E-1	8.741245E-1	8.383596E-1	8.871940E-1	9.447267E-1	8.687256E-1	9.157504E-1	9.468215E-1	9.034973E-1	9.135916E-1	9.036502E-1	9.297685E-1	7.863274E-1	9.925239E-1	9.332456E-1
2.874030E+2	7.047758E-1	6.057487E-1	6.177433E-1	6.720951E-1	6.435176E-1	7.000138E-1	6.931343E-1	5.753243E-1	6.891999E-1	6.325292E-1	6.462591E-1	6.595879E-1	6.225646E-1	6.470140E-1	6.244299E-1	6.159908E-1	5.928783E-1	6.330027E-1	6.190731E-1	6.398573E-1	5.682926E-1	6.531235E-1	6.159578E-1	6.318683E-1	6.421453E-1	6.262216E-1	6.385295E-1	6.274533E-1	6.590432E-1	6.198001E-1	6.178634E-1	6.606468E-1	5.969888E-1	6.044009E-1	5.953792E-1	6.337509E-1	5.992369E-1	6.128066E-1	6.094534E-1	6.750670E-1	6.510704E-1	6.205927E-1	6.155706E-1	6.690670E-1	6.473265E-1	6.566268E-1	6.303960E-1	6.123279E-1	6.040828E-1	5.962587E-1	6.857532E-1	6.450009E-1	6.323755E-1	6.740334E-1	6.322935E-1	6.408401E-1	6.142558E-1	6.640449E-1	6.650654E-1	7.034803E-1	6.286513E-1	6.642594E-1	6.035504E-1	6.265370E-1	6.624059E-1	6.439025E-1	6.093505E-1	6.388602E-1	6.625078E-1	6.440691E-1	6.040268E-1	6.113913E-1	6.121715E-1	7.103770E-1	6.929399E-1	6.189329E-1	6.599839E-1	5.883769E-1	6.316642E-1	6.522785E-1	7.117644E-1	6.359450E-1	6.244254E-1	6.294256E-1	6.784761E-1	6.418240E-1	6.088122E-1	6.246724E-1	5.845576E-1	6.628762E-1	5.719749E-1	6.440371E-1	6.359050E-1	6.566712E-1	6.134309E-1	6.611285E-1	6.291751E-1	5.981635E-1	6.396193E-1	6.459344E-1	6.474469E-1	6.163701E-1	6.038250E-1	6.235197E-1	6.333877E-1	6.386079E-1	6.374705E-1	6.178950E-1	6.217083E-1	6.273523E-1	6.721691E-1	6.524152E-1	6.032654E-1	6.003589E-1	6.523500E-1	6.380720E-1	5.852502E-1	6.606398E-1	6.374124E-1	6.364165E-1	6.262639E-1	6.588864E-1	6.473525E-1	6.326591E-1	6.310776E-1	6.683771E-1	6.204867E-1	6.054936E-1	6.153301E-1	6.576109E-1	6.370345E-1	6.224794E-1	6.876906E-1	6.290170E-1	6.379656E-1	6.363918E-1	5.922850E-1	6.134453E-1	6.910689E-1	6.360656E-1	6.465476E-1	6.263495E-1	6.397312E-1	7.503751E-1	6.766729E-1	6.599808E-1	6.371050E-1	6.542225E-1	6.510470E-1	6.380851E-1	6.259904E-1	6.246629E-1	6.333350E-1	6.275353E-1	5.876028E-1	6.130000E-1	6.236161E-1	6.724853E-1	6.366139E-1	6.365053E-1	6.333190E-1	6.779134E-1	6.605055E-1	7.138307E-1	6.359967E-1	6.316773E-1	6.198562E-1	6.078175E-1	6.262094E-1	5.703260E-1	5.246265E-1
2.876020E+2	5.679229E-1	6.300209E-1	6.251889E-1	5.721090E-1	5.387018E-1	6.343980E-1	5.739519E-1	5.751343E-1	6.445824E-1	5.688484E-1	6.026979E-1	5.722039E-1	5.832396E-1	6.176264E-1	6.046501E-1	6.076781E-1	6.154029E-1	5.379727E-1	5.372400E-1	6.008090E-1	6.495648E-1	5.281209E-1	5.691824E-1	5.662095E-1	6.684831E-1	5.512529E-1	5.744874E-1	5.393533E-1	5.790689E-1	6.174666E-1	6.203295E-1	6.097713E-1	5.624255E-1	5.486943E-1	6.047383E-1	5.925122E-1	5.810243E-1	6.023897E-1	5.641665E-1	5.950039E-1	6.461258E-1	5.935613E-1	5.668984E-1	5.836093E-1	5.932934E-1	5.750346E-1	5.815880E-1	5.688360E-1	5.969012E-1	5.930638E-1	5.705011E-1	5.911056E-1	5.503969E-1	5.762212E-1	5.872315E-1	5.969334E-1	5.725546E-1	5.929483E-1	5.782613E-1	5.996923E-1	5.512737E-1	5.563637E-1	5.735651E-1	5.829736E-1	5.458014E-1	5.969218E-1	5.483222E-1	5.590915E-1	5.483301E-1	6.205727E-1	5.747810E-1	5.814422E-1	5.191140E-1	5.942623E-1	5.873564E-1	6.191989E-1	5.929364E-1	5.588824E-1	5.646931E-1	5.574014E-1	6.056633E-1	5.692935E-1	6.196920E-1	6.215546E-1	5.689272E-1	6.108073E-1	6.064603E-1	5.217829E-1	5.432935E-1	5.616054E-1	5.714071E-1	5.977471E-1	6.315297E-1	6.121526E-1	5.686922E-1	5.691724E-1	6.221447E-1	5.937260E-1	5.859413E-1	6.053955E-1	5.743774E-1	5.640400E-1	6.185427E-1	5.669938E-1	5.655820E-1	5.880458E-1	5.695882E-1	5.561192E-1	5.110937E-1	6.228145E-1	5.997870E-1	6.178801E-1	6.081111E-1	6.190751E-1	5.675534E-1	5.933231E-1	6.087420E-1	5.971300E-1	5.697927E-1	5.475738E-1	5.939632E-1	5.718802E-1	5.528015E-1	5.629690E-1	6.283185E-1	6.136767E-1	5.786083E-1	5.963209E-1	5.905889E-1	6.557639E-1	5.870804E-1	6.145030E-1	5.506015E-1	6.014435E-1	6.004994E-1	6.130262E-1	6.153645E-1	5.800705E-1	6.172048E-1	5.679978E-1	6.217209E-1	5.866867E-1	5.697598E-1	5.934260E-1	5.907194E-1	5.819868E-1	5.869994E-1	6.133203E-1	6.230996E-1	5.767598E-1	5.671981E-1	6.315262E-1	6.155908E-1	5.587794E-1	6.339984E-1	5.830565E-1	6.171314E-1	5.753719E-1	5.851360E-1	6.126308E-1	6.054557E-1	5.922981E-1	5.700572E-1	5.615295E-1	6.158371E-1	5.968574E-1	5.946018E-1	6.295483E-1	6.029722E-1	5.779030E-1	5.741864E-1
2.878050E+2	6.863561E-1	6.394588E-1	6.472629E-1	6.635837E-1	6.054351E-1	6.979596E-1	6.507041E-1	6.128106E-1	6.424144E-1	5.871555E-1	6.833256E-1	6.427679E-1	6.818201E-1	6.484932E-1	6.543790E-1	6.363341E-1	6.421833E-1	6.592767E-1	6.275297E-1	6.952909E-1	7.113843E-1	7.539852E-1	6.641458E-1	6.270082E-1	6.768743E-1	6.353559E-1	6.928172E-1	6.243875E-1	6.468003E-1	6.748961E-1	6.428020E-1	6.845179E-1	6.144471E-1	6.754467E-1	6.557555E-1	6.494582E-1	6.420295E-1	6.331649E-1	6.201700E-1	6.639585E-1	6.616855E-1	6.849956E-1	6.753254E-1	6.427952E-1	6.511986E-1	6.759680E-1	6.512926E-1	6.692144E-1	6.485688E-1	6.202283E-1	6.615783E-1	6.744717E-1	6.579658E-1	6.431118E-1	6.478777E-1	5.985797E-1	6.855202E-1	6.509688E-1	6.560262E-1	6.539273E-1	6.663263E-1	7.178473E-1	6.885986E-1	6.777110E-1	6.649906E-1	6.682843E-1	6.480631E-1	6.681770E-1	6.393193E-1	6.521930E-1	6.472667E-1	6.768762E-1	6.385181E-1	6.945658E-1	7.046503E-1	6.665051E-1	6.328567E-1	6.495255E-1	6.362136E-1	6.335369E-1	6.897685E-1	6.594776E-1	6.462772E-1	6.478106E-1	7.064590E-1	6.471093E-1	6.796283E-1	7.247167E-1	6.849162E-1	6.312680E-1	6.879728E-1	6.143578E-1	6.422282E-1	6.322624E-1	5.939927E-1	7.021188E-1	6.628027E-1	6.858625E-1	6.856041E-1	7.001584E-1	6.697716E-1	6.910919E-1	6.425749E-1	6.637522E-1	6.584230E-1	6.226507E-1	7.120026E-1	6.481706E-1	7.149822E-1	6.431663E-1	6.521385E-1	6.289364E-1	6.571733E-1	7.110322E-1	6.577531E-1	6.865795E-1	6.253502E-1	6.803981E-1	6.839539E-1	6.833876E-1	7.264650E-1	6.645048E-1	6.740287E-1	6.743206E-1	6.710400E-1	6.841871E-1	6.767838E-1	6.699430E-1	6.976844E-1	6.099333E-1	6.311316E-1	6.152320E-1	6.652098E-1	6.835140E-1	6.923272E-1	6.421582E-1	6.765620E-1	6.721264E-1	6.133606E-1	6.349032E-1	6.271406E-1	6.212883E-1	6.355375E-1	6.661586E-1	6.605263E-1	6.631055E-1	6.550146E-1	6.672661E-1	6.818363E-1	6.239724E-1	6.670036E-1	6.952391E-1	6.672796E-1	7.105840E-1	6.932907E-1	6.576221E-1	7.068964E-1	7.006337E-1	6.451372E-1	6.163467E-1	7.148718E-1	6.246031E-1	6.614646E-1	7.223004E-1	6.779311E-1	6.403007E-1	7.002955E-1	6.543539E-1	5.755137E-1	5.840970E-1	5.961677E-1
2.880040E+2	7.041005E-1	7.418519E-1	7.493162E-1	7.109053E-1	7.522361E-1	7.267707E-1	7.340005E-1	7.384014E-1	7.800217E-1	7.636398E-1	7.294749E-1	7.238721E-1	7.239623E-1	7.318486E-1	6.850472E-1	7.155688E-1	6.922899E-1	7.195128E-1	7.218796E-1	7.100341E-1	7.446741E-1	7.554089E-1	7.507253E-1	6.937107E-1	7.758321E-1	7.003405E-1	6.742496E-1	7.056193E-1	7.102290E-1	7.308113E-1	7.286830E-1	7.645820E-1	7.268964E-1	7.838458E-1	6.920676E-1	7.093076E-1	7.078488E-1	7.177754E-1	7.137717E-1	6.513579E-1	7.114903E-1	7.807953E-1	7.587282E-1	7.274736E-1	7.436751E-1	7.649713E-1	7.204636E-1	7.639404E-1	7.432715E-1	6.679750E-1	7.795678E-1	6.761353E-1	7.040193E-1	7.612361E-1	7.400874E-1	7.146484E-1	7.428303E-1	7.227708E-1	7.247381E-1	7.123315E-1	7.227654E-1	7.512252E-1	7.289602E-1	7.039828E-1	6.912025E-1	7.319252E-1	6.586850E-1	6.924370E-1	7.101121E-1	7.241397E-1	6.854025E-1	7.646927E-1	7.441340E-1	7.171055E-1	7.628555E-1	7.318077E-1	7.058198E-1	7.721907E-1	7.711028E-1	7.377321E-1	7.540334E-1	8.033502E-1	7.578216E-1	7.708115E-1	7.396994E-1	7.263983E-1	7.511379E-1	7.350447E-1	7.424695E-1	7.159988E-1	7.467603E-1	7.359607E-1	7.001500E-1	7.090397E-1	7.029694E-1	7.149561E-1	7.073589E-1	7.406521E-1	7.293713E-1	7.509028E-1	7.376372E-1	7.214894E-1	7.253127E-1	7.014522E-1	7.210154E-1	7.498053E-1	7.188017E-1	7.126989E-1	7.006222E-1	7.494297E-1	7.409343E-1	7.274624E-1	7.777463E-1	7.577474E-1	7.299034E-1	7.374586E-1	7.090729E-1	7.312212E-1	6.715667E-1	7.229520E-1	6.979733E-1	7.440578E-1	7.682801E-1	7.601434E-1	8.000657E-1	7.224849E-1	7.632876E-1	6.788284E-1	7.616524E-1	7.415547E-1	6.830715E-1	6.815102E-1	7.240110E-1	6.988302E-1	7.260641E-1	7.472788E-1	7.411560E-1	7.485836E-1	7.303579E-1	7.647600E-1	7.263138E-1	7.689672E-1	6.946185E-1	7.356457E-1	7.204530E-1	7.373978E-1	7.450863E-1	7.209095E-1	7.402919E-1	7.311013E-1	6.740729E-1	8.088317E-1	7.248063E-1	7.284000E-1	6.864740E-1	7.341175E-1	7.435599E-1	7.557734E-1	7.444378E-1	6.729261E-1	7.089972E-1	6.866948E-1	7.542422E-1	8.380756E-1	7.603758E-1	6.973352E-1	7.514156E-1	7.270292E-1	7.516509E-1	7.126095E-1	6.836752E-1
2.882020E+2	8.304825E-1	7.484650E-1	8.140013E-1	7.254683E-1	7.220432E-1	7.819572E-1	7.499926E-1	7.679253E-1	7.523145E-1	7.661770E-1	6.927954E-1	7.420931E-1	7.420974E-1	7.667134E-1	6.919640E-1	7.281239E-1	7.041875E-1	7.629771E-1	8.267831E-1	7.900198E-1	7.666221E-1	6.977238E-1	7.699037E-1	7.894914E-1	8.022042E-1	7.424203E-1	7.200491E-1	6.846119E-1	7.778370E-1	7.862404E-1	7.599800E-1	7.718943E-1	7.637232E-1	7.551152E-1	7.210400E-1	7.679835E-1	7.331342E-1	8.202434E-1	8.366897E-1	7.074956E-1	7.887603E-1	8.027287E-1	8.070181E-1	8.226888E-1	8.014231E-1	7.294731E-1	7.842279E-1	7.470538E-1	7.487830E-1	7.364937E-1	8.034930E-1	7.281886E-1	8.030756E-1	8.228352E-1	7.426095E-1	7.079864E-1	7.446909E-1	8.197129E-1	7.802265E-1	7.813829E-1	7.331342E-1	7.817646E-1	7.328343E-1	7.354519E-1	8.080901E-1	7.705613E-1	7.662079E-1	7.352815E-1	7.923093E-1	7.587336E-1	7.999318E-1	7.083485E-1	7.765439E-1	7.592806E-1	7.845660E-1	7.796689E-1	7.539376E-1	7.388618E-1	7.692308E-1	7.726073E-1	7.890252E-1	7.524263E-1	7.809843E-1	7.701231E-1	7.391115E-1	8.136203E-1	7.957076E-1	7.882296E-1	7.758206E-1	7.754451E-1	7.833286E-1	8.075573E-1	8.254332E-1	7.114572E-1	7.908408E-1	7.554750E-1	8.016219E-1	7.732898E-1	7.767911E-1	7.342901E-1	8.181494E-1	7.540158E-1	7.517448E-1	7.457632E-1	7.287254E-1	8.164869E-1	7.611176E-1	7.176678E-1	7.409739E-1	7.736652E-1	8.301359E-1	7.376155E-1	7.768617E-1	7.723080E-1	7.932925E-1	8.004331E-1	7.727928E-1	7.723620E-1	7.921229E-1	7.698929E-1	7.142656E-1	7.771252E-1	7.879115E-1	8.068877E-1	7.457489E-1	8.028586E-1	8.048496E-1	7.749673E-1	7.865588E-1	7.397313E-1	7.914543E-1	7.954862E-1	8.079401E-1	7.601949E-1	8.188893E-1	7.766197E-1	7.560227E-1	7.323011E-1	7.972132E-1	7.888432E-1	7.626630E-1	7.682447E-1	7.262110E-1	7.932177E-1	8.144059E-1	8.161473E-1	7.273999E-1	8.433953E-1	7.617969E-1	7.666125E-1	7.693289E-1	8.221736E-1	8.276177E-1	7.882440E-1	7.729055E-1	7.914461E-1	8.167810E-1	7.591178E-1	7.567706E-1	7.624400E-1	7.761448E-1	8.067152E-1	7.499317E-1	7.672313E-1	7.541815E-1	7.073360E-1	7.911539E-1	7.722449E-1	8.102108E-1	7.004169E-1	6.917153E-1
2.884040E+2	8.811368E-1	9.054670E-1	8.767113E-1	8.774671E-1	9.187774E-1	8.321511E-1	8.452092E-1	8.694918E-1	8.670966E-1	8.816418E-1	8.855873E-1	8.411155E-1	8.137583E-1	9.103273E-1	8.520629E-1	8.855822E-1	8.682659E-1	8.467861E-1	8.564867E-1	8.511319E-1	8.960991E-1	8.609190E-1	8.223109E-1	8.781218E-1	8.733228E-1	8.735698E-1	8.610225E-1	8.225614E-1	9.037663E-1	8.312093E-1	9.199339E-1	8.801964E-1	8.681037E-1	8.731839E-1	9.014314E-1	8.195689E-1	8.524513E-1	8.846032E-1	8.652220E-1	8.315513E-1	8.202245E-1	8.526286E-1	8.846264E-1	8.997804E-1	9.114471E-1	9.136744E-1	8.772570E-1	8.576555E-1	8.518883E-1	8.420389E-1	8.347288E-1	8.469676E-1	8.449417E-1	8.835588E-1	8.746955E-1	8.740013E-1	9.075567E-1	9.211435E-1	8.642287E-1	9.030735E-1	9.280611E-1	9.178081E-1	8.773809E-1	8.424737E-1	9.430159E-1	8.084823E-1	8.642933E-1	8.558992E-1	8.924925E-1	8.723070E-1	8.737419E-1	8.458587E-1	8.292171E-1	8.907967E-1	8.920595E-1	8.365372E-1	8.812943E-1	8.858358E-1	8.863379E-1	8.329273E-1	8.801722E-1	9.120008E-1	8.948462E-1	8.410113E-1	8.973142E-1	8.844109E-1	8.879341E-1	8.419539E-1	8.122686E-1	9.419004E-1	8.699774E-1	8.926386E-1	9.463714E-1	9.263762E-1	9.271269E-1	9.290727E-1	9.048299E-1	8.640446E-1	8.644725E-1	8.561874E-1	8.752151E-1	8.821116E-1	8.911174E-1	8.365338E-1	8.739327E-1	9.217722E-1	8.836448E-1	8.370783E-1	8.248279E-1	8.594732E-1	8.470686E-1	8.576172E-1	9.090982E-1	9.259165E-1	8.468442E-1	8.129936E-1	8.332149E-1	8.612523E-1	9.058507E-1	8.489799E-1	9.025999E-1	8.546748E-1	8.954591E-1	8.565211E-1	8.402383E-1	8.781717E-1	8.472632E-1	9.128381E-1	8.456540E-1	8.737177E-1	8.601996E-1	8.651216E-1	9.164984E-1	8.832547E-1	8.767593E-1	8.862740E-1	9.032945E-1	9.007618E-1	9.789981E-1	8.771206E-1	8.761708E-1	8.984718E-1	8.842785E-1	8.947903E-1	9.163212E-1	9.205645E-1	8.648002E-1	8.272191E-1	8.350304E-1	8.431187E-1	8.660677E-1	8.939096E-1	9.266247E-1	8.414475E-1	8.436552E-1	9.114754E-1	8.778643E-1	9.033276E-1	8.637211E-1	9.069054E-1	8.770374E-1	8.428450E-1	8.987060E-1	9.668557E-1	9.102838E-1	8.417933E-1	8.837950E-1	8.994082E-1	8.324430E-1	9.694763E-1	8.867864E-1
2.886030E+2	9.132043E-1	8.861278E-1	9.309593E-1	9.329740E-1	9.199302E-1	9.239625E-1	8.691646E-1	8.614230E-1	9.580607E-1	9.161359E-1	9.330506E-1	9.471516E-1	9.541250E-1	9.448043E-1	9.797369E-1	8.990467E-1	9.274450E-1	9.031083E-1	9.165749E-1	9.253288E-1	9.298812E-1	9.251458E-1	8.926604E-1	8.833784E-1	8.948779E-1	9.254812E-1	9.122434E-1	8.917789E-1	8.840683E-1	8.931871E-1	9.236608E-1	9.078164E-1	8.994037E-1	9.365034E-1	9.016098E-1	9.505591E-1	9.287651E-1	9.761282E-1	9.313706E-1	8.925073E-1	9.951429E-1	9.575492E-1	9.661276E-1	8.737327E-1	9.372646E-1	9.802662E-1	9.583897E-1	9.261983E-1	9.012650E-1	9.114075E-1	9.137513E-1	9.414354E-1	9.353440E-1	9.262989E-1	8.654429E-1	8.698148E-1	9.561004E-1	9.676585E-1	9.295841E-1	8.836779E-1	8.975783E-1	9.499827E-1	9.043822E-1	9.100960E-1	9.826376E-1	9.521009E-1	8.692045E-1	8.503145E-1	8.730721E-1	9.072667E-1	8.803836E-1	1.016843E+0	8.566761E-1	9.400253E-1	9.568950E-1	9.075550E-1	9.681722E-1	1.001199E+0	9.413589E-1	9.203181E-1	9.274312E-1	8.775301E-1	9.497242E-1	9.392525E-1	1.004042E+0	9.998021E-1	9.352055E-1	8.845425E-1	9.210534E-1	9.031656E-1	8.796778E-1	9.363430E-1	8.866031E-1	9.166262E-1	8.988835E-1	9.230083E-1	9.535722E-1	8.844752E-1	9.761627E-1	9.874010E-1	9.388578E-1	9.932131E-1	9.513655E-1	8.960885E-1	1.003213E+0	8.828108E-1	9.684440E-1	8.202400E-1	9.071962E-1	9.402253E-1	9.317197E-1	8.435520E-1	9.141860E-1	8.977613E-1	9.032606E-1	9.187339E-1	9.779890E-1	9.068547E-1	9.315050E-1	8.820651E-1	9.446200E-1	8.784426E-1	9.823248E-1	9.102335E-1	9.760376E-1	9.117516E-1	9.591980E-1	9.116764E-1	9.459755E-1	9.837406E-1	9.117742E-1	8.956127E-1	9.395043E-1	9.346199E-1	9.004083E-1	9.443571E-1	8.977237E-1	9.401966E-1	9.517064E-1	8.974470E-1	9.772620E-1	8.832247E-1	9.112135E-1	9.402690E-1	9.449762E-1	9.485176E-1	8.370774E-1	9.287190E-1	9.825378E-1	9.629532E-1	9.514537E-1	9.284927E-1	9.517928E-1	9.335683E-1	9.516216E-1	9.690366E-1	9.065404E-1	9.575775E-1	9.181038E-1	8.610444E-1	9.650440E-1	9.060124E-1	9.600991E-1	9.740687E-1	9.378491E-1	9.715493E-1	9.726937E-1	9.128956E-1	9.657920E-1	9.324893E-1	9.746211E-1
2.888230E+2	1.029952E+0	9.816058E-1	9.665127E-1	1.017098E+0	1.039734E+0	1.041821E+0	9.817967E-1	9.650430E-1	1.008480E+0	1.003960E+0	9.226427E-1	9.429619E-1	9.381346E-1	9.822691E-1	1.003539E+0	9.859353E-1	1.001781E+0	1.007137E+0	9.250976E-1	9.913723E-1	9.653625E-1	9.762553E-1	9.958366E-1	9.762939E-1	1.036707E+0	9.928494E-1	1.055631E+0	9.325386E-1	9.582123E-1	1.057460E+0	9.191249E-1	9.806888E-1	9.612682E-1	9.621837E-1	1.001697E+0	1.014444E+0	1.000225E+0	9.702967E-1	9.641001E-1	9.669829E-1	9.911469E-1	9.951621E-1	9.506283E-1	1.008986E+0	1.059172E+0	9.741520E-1	1.003798E+0	9.277071E-1	1.030715E+0	9.745777E-1	1.050058E+0	1.016030E+0	9.706927E-1	1.033577E+0	1.006078E+0	9.840916E-1	1.014702E+0	1.007104E+0	9.738787E-1	9.887093E-1	1.038492E+0	9.891292E-1	1.061546E+0	9.585383E-1	1.019167E+0	9.760502E-1	9.824549E-1	9.512012E-1	9.632345E-1	1.050089E+0	9.764125E-1	1.003076E+0	1.017179E+0	1.042697E+0	9.904643E-1	9.977565E-1	9.715932E-1	9.674729E-1	1.023011E+0	9.223253E-1	1.038545E+0	9.376209E-1	9.852247E-1	1.004326E+0	9.830920E-1	9.872013E-1	9.899848E-1	9.598271E-1	9.900907E-1	9.568803E-1	9.935206E-1	1.009743E+0	9.471046E-1	9.945546E-1	9.827257E-1	9.618306E-1	1.017395E+0	9.757183E-1	1.002301E+0	1.018078E+0	9.877049E-1	9.786826E-1	1.001679E+0	9.468626E-1	1.014670E+0	9.885265E-1	9.625796E-1	9.575287E-1	9.964130E-1	9.841897E-1	1.044035E+0	9.542113E-1	9.834669E-1	9.769055E-1	9.818175E-1	9.748994E-1	9.310136E-1	1.042150E+0	1.015383E+0	9.679228E-1	9.981211E-1	1.029771E+0	9.722818E-1	1.047304E+0	1.032574E+0	9.969126E-1	1.019614E+0	9.818494E-1	9.925705E-1	1.010245E+0	9.765076E-1	9.801701E-1	9.814918E-1	1.018704E+0	9.644240E-1	9.748550E-1	9.778021E-1	1.065007E+0	1.015810E+0	9.952141E-1	1.004834E+0	1.007530E+0	1.001983E+0	9.771613E-1	9.597332E-1	1.018690E+0	1.029099E+0	1.024889E+0	1.013878E+0	9.910837E-1	9.478227E-1	9.902124E-1	1.104749E+0	9.771208E-1	9.696051E-1	9.942760E-1	1.000624E+0	9.569031E-1	9.300032E-1	9.485662E-1	9.810753E-1	9.855574E-1	9.430230E-1	1.024797E+0	9.743708E-1	9.581008E-1	1.037656E+0	9.566255E-1	9.684023E-1	1.082112E+0	1.011614E+0
2.890080E+2	1.088830E+0	9.996915E-1	1.021003E+0	1.042155E+0	1.062369E+0	1.052988E+0	1.125828E+0	9.519566E-1	9.619629E-1	9.737130E-1	1.036413E+0	1.038431E+0	9.969016E-1	1.099501E+0	1.015568E+0	1.051219E+0	1.012569E+0	1.022438E+0	1.060946E+0	1.010607E+0	1.013034E+0	1.034505E+0	1.026530E+0	1.016219E+0	1.114803E+0	1.039245E+0	1.055547E+0	1.033641E+0	1.026738E+0	1.013558E+0	1.084245E+0	1.072409E+0	9.844928E-1	1.008559E+0	1.037160E+0	9.941101E-1	1.021126E+0	1.002321E+0	1.029934E+0	1.034765E+0	1.050440E+0	1.027468E+0	1.025446E+0	1.067185E+0	1.025170E+0	1.011560E+0	1.057897E+0	9.980761E-1	1.068975E+0	1.059155E+0	1.020152E+0	1.001737E+0	1.072735E+0	1.044864E+0	9.778468E-1	1.031834E+0	1.065907E+0	1.119779E+0	9.902597E-1	9.834920E-1	1.027746E+0	9.740128E-1	9.559561E-1	1.055678E+0	1.015790E+0	1.003602E+0	1.047893E+0	1.001210E+0	1.020884E+0	1.032423E+0	1.092678E+0	1.043801E+0	9.973943E-1	9.919402E-1	1.063580E+0	1.039932E+0	1.017332E+0	1.113287E+0	1.063970E+0	9.777848E-1	1.037478E+0	1.025295E+0	1.010749E+0	9.830570E-1	1.036877E+0	1.078543E+0	1.001900E+0	1.011887E+0	1.006309E+0	9.980796E-1	1.022748E+0	1.087635E+0	1.085009E+0	1.055308E+0	9.597438E-1	1.034324E+0	1.020833E+0	9.882008E-1	1.075484E+0	9.372279E-1	1.114156E+0	1.031473E+0	1.081405E+0	1.049657E+0	1.017134E+0	1.088519E+0	1.023808E+0	9.393580E-1	9.357462E-1	1.029797E+0	1.031793E+0	9.873286E-1	1.080258E+0	1.053818E+0	1.100953E+0	1.016547E+0	1.023162E+0	1.022038E+0	1.032791E+0	1.044482E+0	1.051061E+0	1.091211E+0	1.060656E+0	1.012682E+0	1.058438E+0	1.063236E+0	1.088051E+0	1.041451E+0	1.114527E+0	1.038768E+0	1.002023E+0	1.112191E+0	1.090784E+0	1.087635E+0	1.054079E+0	1.010670E+0	1.024784E+0	1.066176E+0	1.064736E+0	9.982818E-1	9.890298E-1	1.041669E+0	1.023951E+0	1.038571E+0	1.020022E+0	1.037609E+0	1.062649E+0	1.060669E+0	1.053488E+0	1.043977E+0	1.075819E+0	1.036606E+0	1.023098E+0	1.053402E+0	1.026336E+0	9.882949E-1	1.083566E+0	1.092483E+0	1.023794E+0	1.005318E+0	1.112359E+0	1.074299E+0	1.056156E+0	1.037378E+0	1.010939E+0	9.743175E-1	1.064911E+0	1.054997E+0	1.016205E+0	9.150210E-1	1.007587E+0
2.892050E+2	9.949949E-1	9.996452E-1	9.862703E-1	9.872909E-1	9.760872E-1	1.021031E+0	9.984633E-1	1.020839E+0	9.733963E-1	9.967862E-1	9.873502E-1	1.000034E+0	9.612591E-1	1.022344E+0	9.908235E-1	1.009466E+0	9.743424E-1	9.768280E-1	9.918222E-1	1.019087E+0	9.953633E-1	9.715166E-1	9.593659E-1	9.875967E-1	1.040883E+0	9.993225E-1	9.864385E-1	9.817713E-1	1.013815E+0	9.708509E-1	9.797485E-1	1.005624E+0	9.720200E-1	9.751073E-1	9.491850E-1	1.053267E+0	1.000083E+0	1.028865E+0	1.062428E+0	1.000955E+0	1.023184E+0	9.925549E-1	9.578376E-1	1.013523E+0	9.836563E-1	1.050356E+0	9.744480E-1	9.603159E-1	9.931836E-1	1.017821E+0	9.896392E-1	1.013151E+0	9.408199E-1	1.032814E+0	1.021365E+0	9.545582E-1	1.026734E+0	1.018308E+0	1.091453E+0	1.026928E+0	9.981167E-1	1.041104E+0	9.942824E-1	9.409884E-1	1.034843E+0	9.915252E-1	9.533667E-1	9.681910E-1	1.023000E+0	1.018658E+0	1.007885E+0	9.675798E-1	1.054979E+0	9.776032E-1	1.026375E+0	9.859950E-1	1.055472E+0	1.026379E+0	9.754106E-1	8.810948E-1	1.041482E+0	9.772061E-1	1.061514E+0	1.027000E+0	1.046734E+0	1.055361E+0	1.029593E+0	1.008320E+0	1.027120E+0	9.469725E-1	9.446628E-1	1.023154E+0	1.031455E+0	1.064458E+0	9.724759E-1	9.159766E-1	9.628072E-1	1.017091E+0	1.042161E+0	1.012365E+0	1.054264E+0	9.920868E-1	9.992632E-1	9.989506E-1	9.783261E-1	1.007773E+0	9.945473E-1	9.776369E-1	1.019982E+0	1.106832E+0	1.031222E+0	9.698226E-1	1.000467E+0	9.627878E-1	9.707325E-1	1.017650E+0	9.561028E-1	1.028453E+0	9.914102E-1	9.605569E-1	1.028142E+0	1.032238E+0	9.724765E-1	1.020933E+0	9.860072E-1	1.028079E+0	1.025773E+0	9.609486E-1	1.100591E+0	1.030247E+0	9.719252E-1	9.580877E-1	1.053067E+0	1.051702E+0	1.047887E+0	1.006030E+0	1.024607E+0	1.025857E+0	9.983496E-1	1.032953E+0	1.005538E+0	9.955919E-1	9.880491E-1	9.272985E-1	1.014040E+0	9.958753E-1	9.908196E-1	9.536000E-1	1.100102E+0	9.511351E-1	9.925306E-1	1.022173E+0	1.014770E+0	9.596490E-1	9.470440E-1	9.917667E-1	1.015604E+0	1.058090E+0	9.949315E-1	1.029873E+0	9.804667E-1	1.010033E+0	1.027997E+0	1.041963E+0	1.039645E+0	9.929513E-1	9.693255E-1	1.055182E+0	1.058765E+0	1.023544E+0	1.050062E+0
2.894050E+2	8.689459E-1	8.637650E-1	8.269045E-1	8.930608E-1	8.372294E-1	8.619419E-1	8.779832E-1	8.166225E-1	8.877290E-1	8.847502E-1	8.217732E-1	8.307168E-1	7.841295E-1	8.513701E-1	7.906024E-1	8.685524E-1	8.436345E-1	8.628402E-1	8.765303E-1	8.613470E-1	8.135727E-1	8.789936E-1	8.758601E-1	8.372188E-1	9.182484E-1	8.610706E-1	8.064021E-1	8.471234E-1	8.753046E-1	8.227551E-1	8.822657E-1	8.513387E-1	7.948823E-1	8.793634E-1	8.883610E-1	8.767181E-1	8.437429E-1	9.350148E-1	8.275037E-1	8.583105E-1	8.326447E-1	8.484783E-1	8.545626E-1	8.953665E-1	8.262436E-1	8.963165E-1	8.765421E-1	8.058082E-1	8.761386E-1	8.168542E-1	8.598998E-1	8.352747E-1	8.657806E-1	8.590434E-1	8.447164E-1	8.834373E-1	8.319893E-1	8.392697E-1	8.672146E-1	8.976291E-1	8.348651E-1	8.982890E-1	8.257536E-1	8.423203E-1	8.258286E-1	8.540041E-1	8.380509E-1	7.889340E-1	8.083095E-1	8.468702E-1	8.558260E-1	8.509366E-1	8.811983E-1	9.079882E-1	8.978666E-1	8.760074E-1	7.955628E-1	8.901212E-1	8.488223E-1	9.066360E-1	8.495924E-1	8.431515E-1	8.676407E-1	8.352534E-1	8.521535E-1	9.060231E-1	8.921457E-1	7.992959E-1	8.651036E-1	8.618259E-1	9.034245E-1	8.610436E-1	8.998613E-1	8.697327E-1	8.677142E-1	8.837377E-1	8.642833E-1	8.587895E-1	8.338745E-1	8.627621E-1	8.951591E-1	8.628880E-1	8.901640E-1	8.267054E-1	8.925632E-1	8.263366E-1	8.517230E-1	8.191851E-1	8.239334E-1	8.825450E-1	8.626867E-1	7.956539E-1	8.448632E-1	8.735345E-1	8.697863E-1	8.613517E-1	9.421528E-1	8.769596E-1	8.166597E-1	8.807657E-1	8.694277E-1	8.852164E-1	8.470338E-1	8.480028E-1	8.288677E-1	8.485645E-1	8.394178E-1	8.181423E-1	8.698133E-1	8.077337E-1	8.790575E-1	8.624595E-1	8.432631E-1	8.574329E-1	8.340756E-1	8.424273E-1	8.021763E-1	8.439132E-1	8.904668E-1	8.881491E-1	9.313553E-1	8.328415E-1	8.271268E-1	8.636422E-1	8.895504E-1	8.860144E-1	9.067331E-1	8.444069E-1	9.250972E-1	8.815204E-1	8.670302E-1	8.660772E-1	8.423606E-1	8.370330E-1	7.558199E-1	8.811780E-1	8.643666E-1	8.691565E-1	8.573930E-1	8.702909E-1	8.062011E-1	8.650594E-1	8.489044E-1	8.564202E-1	8.978919E-1	8.290587E-1	8.333330E-1	8.715588E-1	8.817076E-1	9.206688E-1	7.175240E-1
2.896060E+2	7.548156E-1	7.197703E-1	7.168662E-1	7.176305E-1	7.659488E-1	7.541739E-1	7.376368E-1	7.639643E-1	7.271597E-1	7.519492E-1	6.973297E-1	7.284958E-1	6.900057E-1	7.344766E-1	6.967369E-1	7.516569E-1	7.331824E-1	7.220422E-1	7.285327E-1	7.055347E-1	7.590196E-1	7.692840E-1	7.240452E-1	6.902850E-1	8.006145E-1	7.572361E-1	7.505417E-1	7.593931E-1	7.500715E-1	7.700777E-1	6.724576E-1	7.825371E-1	7.460363E-1	7.453254E-1	7.489616E-1	7.676003E-1	7.628950E-1	7.713477E-1	6.939771E-1	6.719627E-1	6.990090E-1	7.382858E-1	7.194649E-1	6.982844E-1	7.290759E-1	7.382139E-1	7.232164E-1	7.215496E-1	6.965400E-1	7.243898E-1	7.892250E-1	7.245059E-1	7.248140E-1	7.703464E-1	7.486702E-1	7.004238E-1	7.085239E-1	6.825980E-1	7.394435E-1	7.519959E-1	7.042083E-1	7.959565E-1	7.611157E-1	7.870295E-1	7.770477E-1	7.678648E-1	7.731773E-1	7.365120E-1	7.637017E-1	7.807784E-1	7.345657E-1	7.179909E-1	7.517302E-1	6.807308E-1	7.159777E-1	7.562134E-1	7.184485E-1	6.978052E-1	7.196587E-1	6.828092E-1	7.561481E-1	7.533457E-1	7.303029E-1	7.025361E-1	7.405973E-1	7.302439E-1	7.810975E-1	6.764735E-1	7.456017E-1	7.198694E-1	7.689975E-1	7.225804E-1	7.628725E-1	7.345989E-1	6.792932E-1	7.522537E-1	7.390188E-1	7.573635E-1	7.533900E-1	7.748449E-1	7.630880E-1	7.323186E-1	7.559417E-1	7.213454E-1	7.182921E-1	7.307479E-1	6.784977E-1	7.089482E-1	7.411238E-1	7.398138E-1	7.827784E-1	7.910376E-1	7.666978E-1	7.434683E-1	7.410668E-1	7.095194E-1	7.432206E-1	7.398184E-1	7.565704E-1	7.262178E-1	7.651834E-1	7.720921E-1	7.599322E-1	7.483015E-1	7.175543E-1	7.862200E-1	7.902360E-1	7.306291E-1	7.576394E-1	7.457181E-1	6.856187E-1	7.935840E-1	7.629904E-1	7.467131E-1	7.675587E-1	7.537536E-1	7.091464E-1	7.938856E-1	7.285085E-1	8.016274E-1	7.812651E-1	7.581290E-1	7.081387E-1	7.304408E-1	7.738175E-1	7.437731E-1	7.084767E-1	7.453252E-1	7.865252E-1	7.118135E-1	7.329864E-1	7.674093E-1	7.593630E-1	7.261138E-1	7.796203E-1	7.821997E-1	7.775250E-1	7.101235E-1	7.357677E-1	7.269827E-1	7.677422E-1	7.551105E-1	7.815300E-1	7.646407E-1	7.608051E-1	7.281042E-1	6.833609E-1	7.788582E-1	7.698604E-1	7.361309E-1	6.299357E-1
2.898050E+2	6.659577E-1	6.191324E-1	6.463011E-1	6.123241E-1	6.014402E-1	6.118216E-1	6.168443E-1	6.349974E-1	6.225598E-1	6.102782E-1	5.832922E-1	5.776142E-1	5.716954E-1	6.405036E-1	6.457355E-1	5.584624E-1	5.867980E-1	5.818671E-1	6.098512E-1	6.426254E-1	6.471642E-1	5.842256E-1	6.057008E-1	5.619629E-1	5.492684E-1	5.946182E-1	5.710895E-1	5.665064E-1	6.290059E-1	6.302878E-1	6.033219E-1	5.754356E-1	6.176802E-1	6.266903E-1	6.281193E-1	6.070673E-1	6.160653E-1	5.764108E-1	5.790531E-1	6.145909E-1	6.016621E-1	6.414490E-1	6.850635E-1	6.296338E-1	5.996258E-1	6.089788E-1	5.972410E-1	5.865205E-1	6.347420E-1	6.374964E-1	6.008518E-1	6.185618E-1	5.866585E-1	6.011173E-1	6.174475E-1	5.355685E-1	6.166705E-1	6.437940E-1	6.034620E-1	6.189912E-1	6.103605E-1	6.570734E-1	5.807219E-1	6.413760E-1	5.907035E-1	6.126154E-1	6.159438E-1	5.975252E-1	5.808442E-1	6.407309E-1	6.192633E-1	6.476108E-1	6.293012E-1	5.967474E-1	6.389728E-1	5.829853E-1	5.646489E-1	6.399350E-1	5.962099E-1	6.403119E-1	6.478148E-1	6.192146E-1	6.332816E-1	6.216984E-1	6.592115E-1	6.221642E-1	6.510957E-1	6.200767E-1	6.050564E-1	6.289015E-1	5.641348E-1	6.082598E-1	6.206589E-1	6.170734E-1	6.536755E-1	5.521076E-1	6.178083E-1	6.361115E-1	6.065094E-1	6.025910E-1	5.889672E-1	6.361005E-1	6.051556E-1	5.933683E-1	6.454886E-1	6.042371E-1	5.750208E-1	5.869283E-1	6.214144E-1	6.148531E-1	5.835112E-1	5.715157E-1	6.015475E-1	6.431818E-1	6.353938E-1	5.809862E-1	5.473432E-1	6.425936E-1	5.908017E-1	6.056893E-1	6.553971E-1	6.072422E-1	6.121348E-1	6.226355E-1	6.166269E-1	6.141471E-1	5.941320E-1	6.497906E-1	6.086583E-1	5.954649E-1	6.101215E-1	6.576158E-1	6.519546E-1	6.479881E-1	6.514575E-1	6.007493E-1	6.368868E-1	6.450048E-1	6.353724E-1	6.094373E-1	6.311721E-1	6.246214E-1	6.019311E-1	6.016319E-1	5.869209E-1	6.287185E-1	6.182953E-1	6.607792E-1	6.333937E-1	6.132035E-1	6.356885E-1	6.380993E-1	5.956971E-1	6.281914E-1	6.076008E-1	6.235577E-1	5.782084E-1	5.627448E-1	6.145843E-1	5.727973E-1	6.261680E-1	6.087209E-1	6.519387E-1	6.361192E-1	6.457303E-1	6.026661E-1	5.703253E-1	6.263005E-1	6.407351E-1	6.653957E-1	6.698692E-1
2.900020E+2	6.734096E-1	6.744370E-1	7.087857E-1	6.717250E-1	6.703376E-1	7.303193E-1	7.018735E-1	7.057964E-1	6.657965E-1	6.516858E-1	6.432746E-1	6.938107E-1	7.095126E-1	6.648765E-1	6.671428E-1	6.972270E-1	7.129532E-1	7.158856E-1	6.531435E-1	6.955513E-1	6.523652E-1	7.133228E-1	6.562069E-1	7.006175E-1	6.808868E-1	7.087373E-1	6.295987E-1	6.379711E-1	6.922241E-1	7.087816E-1	6.939276E-1	6.878846E-1	6.658993E-1	6.772669E-1	6.565411E-1	7.078241E-1	6.671622E-1	6.875885E-1	6.947830E-1	6.552356E-1	6.882411E-1	6.269765E-1	6.676941E-1	6.865154E-1	6.672348E-1	7.205986E-1	6.948748E-1	6.785584E-1	6.757258E-1	6.597708E-1	6.538014E-1	6.921804E-1	6.975913E-1	7.213573E-1	6.823780E-1	6.409680E-1	7.031490E-1	6.747176E-1	6.463275E-1	7.231598E-1	6.581548E-1	6.904831E-1	6.554422E-1	6.989607E-1	6.756306E-1	7.633983E-1	6.864616E-1	6.350596E-1	6.195977E-1	6.563269E-1	6.921379E-1	6.251162E-1	6.385307E-1	6.525834E-1	7.564188E-1	6.518407E-1	7.029649E-1	7.191330E-1	6.870236E-1	6.296225E-1	7.588775E-1	6.697577E-1	7.304024E-1	7.075061E-1	6.628093E-1	7.005569E-1	6.797254E-1	6.582625E-1	6.935863E-1	6.921870E-1	7.615393E-1	6.789625E-1	6.704040E-1	7.040388E-1	6.276908E-1	6.983651E-1	6.442025E-1	6.913062E-1	6.283845E-1	7.076612E-1	7.059156E-1	7.209469E-1	7.108972E-1	7.034838E-1	6.729539E-1	7.205107E-1	6.159360E-1	6.457195E-1	6.607172E-1	6.930944E-1	7.244705E-1	6.887613E-1	6.696095E-1	7.057443E-1	6.771256E-1	6.640260E-1	6.879813E-1	7.289041E-1	5.786763E-1	6.826503E-1	6.660113E-1	6.685297E-1	6.654462E-1	6.586134E-1	6.596066E-1	6.958238E-1	7.332088E-1	6.300388E-1	6.663989E-1	6.825451E-1	7.006012E-1	6.980044E-1	6.773127E-1	7.400337E-1	6.563757E-1	6.760129E-1	6.599020E-1	7.000048E-1	6.363863E-1	6.949513E-1	6.968768E-1	6.676193E-1	6.429319E-1	6.775600E-1	6.459800E-1	6.880736E-1	6.615508E-1	7.345937E-1	7.008142E-1	7.342259E-1	6.488905E-1	6.678113E-1	6.681190E-1	6.674329E-1	7.018685E-1	7.024404E-1	6.935023E-1	6.674184E-1	6.739376E-1	6.794621E-1	6.754214E-1	7.004783E-1	6.590486E-1	6.536059E-1	6.800780E-1	6.876382E-1	6.980318E-1	7.251123E-1	6.842389E-1	7.187167E-1	6.292649E-1
2.905110E+2	7.692755E-1	7.987947E-1	8.102648E-1	7.631376E-1	7.842841E-1	7.670470E-1	7.502619E-1	7.349504E-1	7.335981E-1	7.535707E-1	7.505096E-1	8.114946E-1	7.747569E-1	7.737156E-1	8.188848E-1	7.505616E-1	7.582398E-1	8.365166E-1	8.431100E-1	7.606588E-1	7.558244E-1	7.777386E-1	7.677860E-1	7.121283E-1	7.690364E-1	7.939121E-1	8.096829E-1	7.659848E-1	6.998526E-1	7.784782E-1	8.028640E-1	7.764074E-1	7.953568E-1	7.707187E-1	7.727258E-1	7.788427E-1	8.054138E-1	8.163401E-1	7.452432E-1	7.664994E-1	7.358438E-1	8.107212E-1	8.064215E-1	8.283466E-1	7.548035E-1	7.587742E-1	8.438664E-1	7.559862E-1	7.407330E-1	7.777425E-1	7.971891E-1	7.886067E-1	7.797131E-1	8.132238E-1	7.457330E-1	8.141288E-1	7.629923E-1	8.175429E-1	8.089529E-1	7.988275E-1	8.262325E-1	7.545954E-1	7.569971E-1	7.860320E-1	7.627900E-1	7.822751E-1	7.631192E-1	7.437874E-1	7.778871E-1	7.616357E-1	7.693294E-1	7.814568E-1	7.584186E-1	7.911360E-1	8.350046E-1	7.445197E-1	7.509131E-1	7.418631E-1	8.044716E-1	7.470733E-1	7.571598E-1	7.061735E-1	7.894645E-1	7.297545E-1	8.201601E-1	7.703866E-1	7.705724E-1	7.811715E-1	8.181849E-1	7.735742E-1	7.289216E-1	7.775902E-1	8.093928E-1	7.968541E-1	6.906809E-1	7.129257E-1	8.389498E-1	7.805823E-1	8.230996E-1	7.585137E-1	7.808818E-1	8.054277E-1	7.786889E-1	7.751761E-1	7.577140E-1	7.628709E-1	7.784840E-1	7.864221E-1	7.384325E-1	7.928463E-1	7.761398E-1	8.064633E-1	7.638702E-1	8.341612E-1	7.957373E-1	8.123432E-1	7.904027E-1	7.929167E-1	7.655128E-1	7.867740E-1	7.985639E-1	7.453921E-1	8.112022E-1	7.667465E-1	6.915807E-1	7.771766E-1	8.476640E-1	7.217959E-1	8.316472E-1	7.650255E-1	7.956413E-1	7.808755E-1	7.611197E-1	7.808266E-1	7.683259E-1	7.991577E-1	7.920082E-1	7.866066E-1	7.849019E-1	7.965026E-1	7.996570E-1	7.501946E-1	8.332516E-1	7.403599E-1	7.750368E-1	8.193628E-1	7.823703E-1	8.168049E-1	7.487628E-1	7.447318E-1	7.457084E-1	7.294800E-1	7.869779E-1	7.840125E-1	7.770345E-1	7.749280E-1	8.115061E-1	8.229554E-1	7.661550E-1	7.771640E-1	7.664525E-1	7.439313E-1	7.954912E-1	7.816235E-1	8.194084E-1	7.654272E-1	7.880173E-1	7.309818E-1	8.221570E-1	7.548576E-1	8.909968E-1
2.910040E+2	1.074136E+0	1.076744E+0	1.055729E+0	1.051562E+0	1.130623E+0	1.082751E+0	1.119205E+0	1.089378E+0	1.086664E+0	1.128175E+0	1.113518E+0	1.065171E+0	1.004078E+0	1.078133E+0	1.049616E+0	1.112446E+0	1.030745E+0	1.012853E+0	1.031330E+0	1.083434E+0	1.092537E+0	1.072767E+0	1.120140E+0	1.056090E+0	1.079103E+0	1.068758E+0	1.061466E+0	1.044774E+0	1.106481E+0	1.083956E+0	1.102927E+0	1.107999E+0	1.065844E+0	1.008484E+0	1.132591E+0	1.055650E+0	1.074706E+0	1.121311E+0	1.061768E+0	1.069120E+0	1.133638E+0	1.103111E+0	1.073442E+0	1.079632E+0	1.087966E+0	1.098800E+0	1.038100E+0	1.104751E+0	1.091358E+0	1.092654E+0	1.081561E+0	1.117310E+0	1.056149E+0	1.075442E+0	1.087071E+0	1.027788E+0	1.065438E+0	1.135788E+0	1.029515E+0	1.039091E+0	1.060994E+0	1.137258E+0	1.061024E+0	1.075630E+0	1.061562E+0	1.071785E+0	1.063200E+0	1.058160E+0	9.968693E-1	1.096531E+0	1.113608E+0	1.089300E+0	1.091082E+0	1.059598E+0	1.136539E+0	1.082286E+0	1.017576E+0	1.051776E+0	1.026243E+0	1.077318E+0	1.111950E+0	1.054255E+0	1.045225E+0	1.131198E+0	1.071480E+0	1.161848E+0	1.168722E+0	1.059141E+0	1.100784E+0	1.059256E+0	1.054391E+0	1.036828E+0	1.093860E+0	1.156761E+0	1.074517E+0	1.046387E+0	1.077646E+0	1.100917E+0	1.095389E+0	1.111107E+0	1.091783E+0	1.064779E+0	1.084252E+0	1.075299E+0	9.883148E-1	1.122232E+0	1.036744E+0	1.028503E+0	1.046547E+0	1.019377E+0	1.091994E+0	1.094751E+0	1.122395E+0	1.052367E+0	1.085364E+0	1.070920E+0	1.107738E+0	1.124606E+0	1.044034E+0	1.080967E+0	1.140177E+0	1.092218E+0	1.058242E+0	1.036526E+0	1.003800E+0	1.076431E+0	1.152270E+0	1.116619E+0	1.134017E+0	1.030118E+0	1.044031E+0	1.059659E+0	1.109450E+0	1.124988E+0	1.075781E+0	1.095572E+0	1.152508E+0	1.124447E+0	1.065360E+0	1.103132E+0	1.143863E+0	1.028285E+0	1.065262E+0	1.053307E+0	1.108142E+0	1.057016E+0	1.110137E+0	1.094558E+0	1.066946E+0	1.039083E+0	1.046779E+0	1.110495E+0	1.039444E+0	1.125685E+0	1.065160E+0	1.063837E+0	1.040965E+0	1.110982E+0	1.073005E+0	1.036263E+0	1.055206E+0	1.101205E+0	1.065223E+0	1.097390E+0	1.081772E+0	1.032660E+0	1.139275E+0	9.983498E-1	1.081572E+0	1.084254E+0	1.066660E+0
2.915140E+2	1.164926E+0	1.177150E+0	1.166122E+0	1.191545E+0	1.235160E+0	1.275034E+0	1.174001E+0	1.088779E+0	1.253435E+0	1.225301E+0	1.164271E+0	1.146667E+0	1.137693E+0	1.173833E+0	1.125540E+0	1.203469E+0	1.188498E+0	1.124235E+0	1.174759E+0	1.163016E+0	1.112871E+0	1.260536E+0	1.157141E+0	1.185098E+0	1.187864E+0	1.168153E+0	1.150626E+0	1.137457E+0	1.110815E+0	1.209154E+0	1.154836E+0	1.115879E+0	1.195822E+0	1.168437E+0	1.158552E+0	1.155248E+0	1.164017E+0	1.215663E+0	1.209895E+0	1.228083E+0	1.155648E+0	1.230150E+0	1.156012E+0	1.143480E+0	1.148003E+0	1.218627E+0	1.101871E+0	1.106836E+0	1.094697E+0	1.197741E+0	1.224463E+0	1.177679E+0	1.147865E+0	1.171175E+0	1.130304E+0	1.151865E+0	1.113767E+0	1.231703E+0	1.139672E+0	1.227849E+0	1.144697E+0	1.226208E+0	1.114634E+0	1.166857E+0	1.179553E+0	1.205760E+0	1.224906E+0	1.184514E+0	1.146492E+0	1.193999E+0	1.184538E+0	1.185351E+0	1.133286E+0	1.183900E+0	1.244127E+0	1.152074E+0	1.204752E+0	1.180056E+0	1.191358E+0	1.141686E+0	1.250452E+0	1.173210E+0	1.151693E+0	1.176658E+0	1.166145E+0	1.217484E+0	1.209182E+0	1.170746E+0	1.173558E+0	1.173171E+0	1.151740E+0	1.164347E+0	1.155465E+0	1.195867E+0	1.131520E+0	1.147473E+0	1.192830E+0	1.150405E+0	1.121802E+0	1.179707E+0	1.085275E+0	1.270143E+0	1.200684E+0	1.145054E+0	1.135121E+0	1.230855E+0	1.118883E+0	1.125165E+0	1.113774E+0	1.160820E+0	1.167003E+0	1.149134E+0	1.209086E+0	1.152418E+0	1.201533E+0	1.148745E+0	1.138172E+0	1.171151E+0	1.190076E+0	1.098534E+0	1.196532E+0	1.180273E+0	1.140982E+0	1.137142E+0	1.100176E+0	1.103658E+0	1.197252E+0	1.205488E+0	1.144979E+0	1.228937E+0	1.127077E+0	1.222537E+0	1.235275E+0	1.230670E+0	1.250358E+0	1.152263E+0	1.151715E+0	1.179241E+0	1.203677E+0	1.143155E+0	1.153051E+0	1.160854E+0	1.171528E+0	1.130711E+0	1.256405E+0	1.241318E+0	1.181618E+0	1.155834E+0	1.226931E+0	1.179710E+0	1.178478E+0	1.190183E+0	1.148832E+0	1.172131E+0	1.162772E+0	1.178027E+0	1.212865E+0	1.176354E+0	1.180235E+0	1.151909E+0	1.281157E+0	1.070007E+0	1.189991E+0	1.173875E+0	1.151362E+0	1.210827E+0	1.157966E+0	1.185999E+0	1.233116E+0	1.107483E+0	1.139858E+0
2.920030E+2	9.103713E-1	9.692111E-1	9.470675E-1	9.105202E-1	9.796522E-1	9.858044E-1	9.371553E-1	9.322088E-1	8.756971E-1	9.790136E-1	9.338109E-1	8.733634E-1	9.211513E-1	9.491230E-1	8.705290E-1	9.573899E-1	8.976121E-1	9.371418E-1	9.228858E-1	8.782090E-1	9.309030E-1	8.895822E-1	9.524801E-1	9.090194E-1	9.307771E-1	9.018199E-1	9.158710E-1	8.996768E-1	9.367958E-1	8.988045E-1	9.444036E-1	9.339741E-1	8.693728E-1	9.526410E-1	9.043583E-1	9.023976E-1	9.256550E-1	9.261910E-1	9.055638E-1	9.449854E-1	9.670421E-1	8.880091E-1	9.292764E-1	9.365556E-1	9.758748E-1	9.499304E-1	9.633983E-1	9.406400E-1	8.621788E-1	9.146267E-1	9.764460E-1	9.286866E-1	9.458315E-1	9.715783E-1	9.115280E-1	9.515086E-1	8.907857E-1	9.392109E-1	9.234525E-1	9.576684E-1	8.924307E-1	9.294789E-1	8.903515E-1	9.114889E-1	9.127440E-1	9.283299E-1	9.289042E-1	8.942866E-1	9.145850E-1	9.737029E-1	9.428617E-1	8.647678E-1	9.493162E-1	9.951776E-1	9.687667E-1	9.413275E-1	9.394462E-1	8.808983E-1	9.450899E-1	8.874215E-1	9.442112E-1	9.264489E-1	8.768585E-1	9.431024E-1	9.350699E-1	9.540044E-1	9.871563E-1	8.412751E-1	9.180975E-1	9.342431E-1	9.679744E-1	9.085487E-1	1.000849E+0	9.749355E-1	9.176793E-1	9.274353E-1	9.068447E-1	9.486483E-1	9.232488E-1	9.955716E-1	9.718767E-1	9.337328E-1	9.352027E-1	9.573444E-1	8.970975E-1	9.673114E-1	9.521676E-1	8.694770E-1	9.237783E-1	9.059085E-1	9.459741E-1	8.835196E-1	9.749323E-1	8.995887E-1	9.373825E-1	9.277412E-1	9.416540E-1	9.043360E-1	9.236947E-1	8.863794E-1	9.222756E-1	9.269413E-1	9.159021E-1	8.260488E-1	9.312885E-1	8.988967E-1	9.933181E-1	9.147126E-1	9.676224E-1	9.404803E-1	8.583663E-1	9.454982E-1	8.987078E-1	9.839328E-1	8.930085E-1	9.174089E-1	9.438058E-1	8.932449E-1	9.816949E-1	8.495134E-1	9.522803E-1	9.636310E-1	9.528101E-1	9.023647E-1	9.204088E-1	9.296017E-1	9.012262E-1	8.798317E-1	9.689818E-1	9.189140E-1	8.729634E-1	9.532204E-1	1.034221E+0	9.833501E-1	9.327056E-1	9.487304E-1	9.194983E-1	8.980820E-1	9.053822E-1	9.207103E-1	8.759079E-1	9.702757E-1	9.311836E-1	9.637011E-1	9.638295E-1	9.385101E-1	1.039683E+0	9.872935E-1	1.077975E+0	7.997153E-1	8.616252E-1
2.925020E+2	8.525067E-1	9.060577E-1	8.941137E-1	8.803338E-1	8.638917E-1	9.257069E-1	9.309909E-1	8.621466E-1	9.468695E-1	9.360868E-1	8.540450E-1	9.309660E-1	8.205315E-1	9.075770E-1	9.361306E-1	9.276886E-1	9.050946E-1	8.959759E-1	8.701870E-1	8.843224E-1	9.206315E-1	8.808666E-1	8.807088E-1	8.925774E-1	8.879504E-1	9.435013E-1	9.158469E-1	8.211349E-1	8.514326E-1	9.131357E-1	8.982675E-1	9.016323E-1	9.554977E-1	9.156596E-1	8.935456E-1	9.361200E-1	9.078076E-1	9.605037E-1	8.555203E-1	9.166392E-1	8.898815E-1	8.674182E-1	8.896628E-1	8.879012E-1	9.370222E-1	9.240592E-1	9.507246E-1	8.980975E-1	8.922077E-1	8.469796E-1	8.825456E-1	8.435173E-1	9.392301E-1	9.467620E-1	8.453893E-1	9.335028E-1	8.552633E-1	9.313491E-1	9.189559E-1	8.919451E-1	9.135544E-1	8.753409E-1	8.397255E-1	9.011207E-1	9.131598E-1	8.479782E-1	9.457009E-1	8.985762E-1	9.105095E-1	8.512221E-1	8.650254E-1	8.005490E-1	9.100826E-1	8.552850E-1	9.114365E-1	9.204601E-1	8.545237E-1	8.569484E-1	8.969410E-1	9.362675E-1	9.348033E-1	8.540050E-1	8.624960E-1	8.861779E-1	8.986244E-1	9.281228E-1	9.261422E-1	8.858840E-1	8.781145E-1	9.183326E-1	8.839746E-1	8.744639E-1	9.223110E-1	9.028355E-1	8.997142E-1	8.985493E-1	8.307198E-1	9.765355E-1	9.252681E-1	9.402682E-1	9.370531E-1	8.986969E-1	9.111213E-1	8.693057E-1	9.210124E-1	8.836433E-1	9.232171E-1	8.537868E-1	8.362380E-1	9.086513E-1	9.196330E-1	9.247046E-1	8.560809E-1	8.491234E-1	8.452215E-1	8.735559E-1	8.998804E-1	8.753671E-1	9.217982E-1	8.475729E-1	8.018715E-1	9.109505E-1	8.567327E-1	9.592311E-1	8.724359E-1	8.820178E-1	8.732753E-1	9.322699E-1	8.589164E-1	9.208952E-1	8.828923E-1	8.895903E-1	8.610803E-1	9.306858E-1	9.018068E-1	8.979880E-1	8.725976E-1	9.161268E-1	9.056389E-1	9.182791E-1	9.693255E-1	8.386678E-1	8.763435E-1	8.535808E-1	9.574088E-1	8.297654E-1	8.855452E-1	8.375311E-1	8.892498E-1	9.245105E-1	9.240897E-1	9.356557E-1	9.198056E-1	9.957297E-1	8.720280E-1	8.311389E-1	8.546169E-1	9.512291E-1	9.409676E-1	8.595626E-1	8.736153E-1	8.592788E-1	9.035307E-1	9.228194E-1	9.307954E-1	8.801933E-1	9.437750E-1	8.440553E-1	8.853414E-1	9.633700E-1	8.749824E-1
2.930050E+2	9.782977E-1	9.678956E-1	9.939341E-1	9.532877E-1	1.060894E+0	1.083543E+0	1.056717E+0	9.955670E-1	9.842943E-1	1.016253E+0	9.574397E-1	9.539015E-1	9.683577E-1	1.024564E+0	9.677434E-1	1.007577E+0	9.978339E-1	9.837485E-1	1.012391E+0	1.028289E+0	1.013398E+0	1.013350E+0	1.016249E+0	9.218444E-1	1.019605E+0	9.753170E-1	1.008363E+0	9.269156E-1	9.766329E-1	1.048661E+0	1.044587E+0	9.641975E-1	9.838892E-1	9.790550E-1	9.992316E-1	9.853846E-1	9.553452E-1	1.006897E+0	9.953784E-1	9.879913E-1	9.802293E-1	9.857589E-1	9.696955E-1	9.641022E-1	1.017468E+0	1.015979E+0	1.019005E+0	9.430670E-1	9.595528E-1	1.023273E+0	1.014023E+0	9.676618E-1	9.906012E-1	9.835704E-1	1.038600E+0	1.016419E+0	9.595966E-1	9.805373E-1	1.042341E+0	9.828197E-1	1.010405E+0	1.051746E+0	9.972964E-1	9.578161E-1	1.034719E+0	9.507744E-1	9.462276E-1	9.608821E-1	9.812591E-1	9.614984E-1	1.051147E+0	9.757485E-1	1.025746E+0	1.038087E+0	1.055431E+0	1.003535E+0	1.017936E+0	9.524240E-1	9.907928E-1	9.882740E-1	1.029052E+0	9.219158E-1	9.475130E-1	9.902691E-1	9.679677E-1	9.858528E-1	9.908704E-1	9.810128E-1	9.670251E-1	9.969164E-1	1.026624E+0	9.435167E-1	1.003376E+0	1.003885E+0	9.920674E-1	1.010395E+0	1.013572E+0	9.440192E-1	1.012287E+0	9.744237E-1	9.940255E-1	1.026012E+0	1.048568E+0	1.021385E+0	9.755154E-1	9.913050E-1	1.040932E+0	9.941654E-1	1.043203E+0	1.023652E+0	9.877184E-1	1.026242E+0	1.023279E+0	1.003709E+0	9.849508E-1	9.910290E-1	9.753270E-1	1.019104E+0	9.924072E-1	9.813198E-1	1.010945E+0	1.011744E+0	9.395390E-1	1.060871E+0	9.746953E-1	9.829495E-1	9.943209E-1	9.569150E-1	1.023032E+0	1.028906E+0	9.842979E-1	1.010039E+0	1.030372E+0	1.030401E+0	1.023918E+0	9.827938E-1	9.883728E-1	1.028040E+0	9.953246E-1	9.556521E-1	9.719060E-1	1.032147E+0	9.810508E-1	1.042173E+0	1.055083E+0	9.858363E-1	9.854120E-1	1.056974E+0	1.032621E+0	9.869747E-1	9.290358E-1	9.714635E-1	9.889530E-1	9.873926E-1	1.074323E+0	1.005488E+0	9.448752E-1	1.035186E+0	1.009563E+0	1.028860E+0	1.048498E+0	1.011909E+0	9.403831E-1	1.031263E+0	1.025649E+0	9.438366E-1	1.022543E+0	9.674758E-1	1.018951E+0	9.937326E-1	9.948827E-1
2.935140E+2	1.148421E+0	1.193064E+0	1.107383E+0	1.153953E+0	1.080955E+0	1.095614E+0	1.113840E+0	1.059140E+0	1.130500E+0	1.173792E+0	1.112883E+0	1.129916E+0	1.111309E+0	1.126573E+0	1.126366E+0	1.120623E+0	1.094330E+0	1.097057E+0	1.117900E+0	1.181073E+0	1.122777E+0	1.188123E+0	1.139673E+0	1.101265E+0	1.167818E+0	1.084942E+0	1.127637E+0	1.111779E+0	1.074389E+0	1.044895E+0	1.142379E+0	1.052502E+0	1.131314E+0	1.177730E+0	1.174609E+0	1.095585E+0	1.118511E+0	1.146411E+0	1.113473E+0	1.074631E+0	1.152988E+0	1.136554E+0	1.100642E+0	1.092441E+0	1.053956E+0	1.211060E+0	1.083437E+0	1.117925E+0	1.108954E+0	1.144544E+0	1.104070E+0	1.130548E+0	1.064790E+0	1.132214E+0	1.182365E+0	1.102774E+0	1.143350E+0	1.088504E+0	1.165173E+0	1.125251E+0	1.244062E+0	1.134916E+0	1.168529E+0	1.099533E+0	1.136900E+0	1.080886E+0	1.142839E+0	1.042715E+0	1.101704E+0	1.079358E+0	1.183815E+0	1.081498E+0	1.122880E+0	1.147349E+0	1.207777E+0	1.085144E+0	1.129771E+0	1.065699E+0	1.123423E+0	1.155326E+0	1.195170E+0	1.179101E+0	1.131282E+0	1.149405E+0	1.146634E+0	1.123335E+0	1.186545E+0	1.060614E+0	1.092590E+0	1.107375E+0	1.148831E+0	1.087083E+0	1.150700E+0	1.101410E+0	1.079971E+0	1.081437E+0	1.188890E+0	1.170183E+0	1.101298E+0	1.120326E+0	1.116951E+0	1.120069E+0	1.157101E+0	1.113819E+0	1.110706E+0	1.215568E+0	1.180230E+0	1.069501E+0	1.102435E+0	1.103241E+0	1.092930E+0	1.148494E+0	1.109277E+0	1.118316E+0	1.136651E+0	1.078693E+0	1.094758E+0	1.169987E+0	1.153272E+0	1.130333E+0	1.157383E+0	1.096442E+0	1.129976E+0	1.192651E+0	1.128106E+0	1.199625E+0	1.162970E+0	1.094540E+0	1.170276E+0	1.106973E+0	1.182564E+0	1.160602E+0	1.172539E+0	1.149320E+0	1.202789E+0	1.184360E+0	1.195958E+0	1.198996E+0	1.088125E+0	1.182240E+0	1.157247E+0	1.152232E+0	1.140920E+0	1.168745E+0	1.167503E+0	1.156733E+0	1.243661E+0	1.134235E+0	1.133709E+0	1.137815E+0	1.152592E+0	1.068672E+0	1.138852E+0	1.139284E+0	1.099932E+0	1.107508E+0	1.170948E+0	1.150592E+0	1.140820E+0	1.119147E+0	1.126939E+0	1.096470E+0	1.129565E+0	1.180716E+0	1.082891E+0	1.103014E+0	1.133787E+0	1.239172E+0	1.099160E+0	1.266966E+0	1.100314E+0
2.940080E+2	1.175899E+0	1.152780E+0	1.204470E+0	1.199964E+0	1.280288E+0	1.280592E+0	1.204540E+0	1.161716E+0	1.216671E+0	1.232822E+0	1.169977E+0	1.180613E+0	1.154127E+0	1.220852E+0	1.155160E+0	1.209493E+0	1.162662E+0	1.168486E+0	1.207632E+0	1.264473E+0	1.210781E+0	1.163102E+0	1.184948E+0	1.225834E+0	1.204135E+0	1.193735E+0	1.189799E+0	1.129172E+0	1.211377E+0	1.201643E+0	1.160877E+0	1.176159E+0	1.150018E+0	1.240568E+0	1.148062E+0	1.179648E+0	1.197852E+0	1.193692E+0	1.127064E+0	1.144519E+0	1.205145E+0	1.146289E+0	1.228452E+0	1.154166E+0	1.170076E+0	1.222626E+0	1.190935E+0	1.194443E+0	1.132553E+0	1.191763E+0	1.135747E+0	1.146323E+0	1.255067E+0	1.186183E+0	1.190889E+0	1.205557E+0	1.131080E+0	1.213521E+0	1.274610E+0	1.213517E+0	1.166820E+0	1.202492E+0	1.190309E+0	1.248352E+0	1.239657E+0	1.291864E+0	1.152038E+0	1.172682E+0	1.181475E+0	1.145380E+0	1.194839E+0	1.113738E+0	1.196121E+0	1.191938E+0	1.240268E+0	1.162691E+0	1.190429E+0	1.193628E+0	1.153248E+0	1.173408E+0	1.264370E+0	1.205901E+0	1.138285E+0	1.134990E+0	1.154563E+0	1.203355E+0	1.177815E+0	1.234334E+0	1.220040E+0	1.180985E+0	1.220525E+0	1.214417E+0	1.209684E+0	1.201870E+0	1.193832E+0	1.179945E+0	1.258255E+0	1.144962E+0	1.135436E+0	1.153726E+0	1.232648E+0	1.209170E+0	1.181032E+0	1.185962E+0	1.158216E+0	1.237380E+0	1.180058E+0	1.214942E+0	1.100645E+0	1.235599E+0	1.110361E+0	1.156681E+0	1.243329E+0	1.171849E+0	1.198637E+0	1.181390E+0	1.173378E+0	1.236012E+0	1.163029E+0	1.195124E+0	1.174958E+0	1.136333E+0	1.235710E+0	1.169010E+0	1.202024E+0	1.193589E+0	1.203400E+0	1.118787E+0	1.242019E+0	1.128164E+0	1.238247E+0	1.171532E+0	1.208490E+0	1.212765E+0	1.188631E+0	1.133385E+0	1.175611E+0	1.214121E+0	1.201678E+0	1.120479E+0	1.210031E+0	1.160586E+0	1.150635E+0	1.166384E+0	1.221040E+0	1.260358E+0	1.140041E+0	1.183223E+0	1.297753E+0	1.134847E+0	1.179727E+0	1.171018E+0	1.211061E+0	1.250879E+0	1.159757E+0	1.240347E+0	1.233385E+0	1.203661E+0	1.213894E+0	1.133521E+0	1.206910E+0	1.234029E+0	1.224914E+0	1.242656E+0	1.199587E+0	1.190756E+0	1.249811E+0	1.197663E+0	1.160231E+0	1.169040E+0	1.035723E+0
2.945030E+2	1.066272E+0	1.162816E+0	1.049268E+0	1.031645E+0	1.024411E+0	1.029048E+0	1.050415E+0	1.068814E+0	1.052653E+0	1.047212E+0	1.074327E+0	1.088735E+0	1.019053E+0	1.168061E+0	1.033715E+0	1.039891E+0	1.087262E+0	1.015469E+0	1.043778E+0	1.064227E+0	1.050615E+0	1.033103E+0	1.076571E+0	1.001394E+0	1.074931E+0	1.060664E+0	1.042254E+0	1.052403E+0	1.008992E+0	1.037082E+0	1.046057E+0	1.052615E+0	1.066746E+0	1.053298E+0	1.083458E+0	1.005538E+0	1.012315E+0	1.058807E+0	1.043713E+0	1.004762E+0	1.052580E+0	1.014718E+0	1.075885E+0	1.042319E+0	1.036683E+0	1.061762E+0	1.054081E+0	9.892222E-1	1.056447E+0	1.055715E+0	1.112591E+0	9.685720E-1	1.102080E+0	1.044887E+0	1.048756E+0	1.054952E+0	1.050935E+0	1.162178E+0	1.059408E+0	1.072895E+0	1.012992E+0	1.071215E+0	1.045733E+0	1.052144E+0	1.050330E+0	1.050732E+0	1.042568E+0	9.855051E-1	9.770868E-1	1.052502E+0	1.086164E+0	1.064946E+0	1.062418E+0	1.052314E+0	1.094296E+0	1.086595E+0	1.024404E+0	1.024808E+0	1.023243E+0	1.059647E+0	1.114522E+0	1.040295E+0	1.049652E+0	1.086044E+0	1.054431E+0	1.075501E+0	1.097728E+0	1.054652E+0	1.076903E+0	1.044045E+0	1.014115E+0	1.066283E+0	1.035070E+0	1.022554E+0	1.068662E+0	1.001110E+0	1.058253E+0	1.026660E+0	1.088147E+0	9.933096E-1	1.090661E+0	1.038429E+0	1.064159E+0	9.887720E-1	9.997618E-1	1.058731E+0	1.071404E+0	1.007290E+0	1.075286E+0	9.999205E-1	1.052283E+0	1.048746E+0	1.026980E+0	1.082609E+0	1.089858E+0	1.081454E+0	1.063228E+0	1.076029E+0	1.019726E+0	1.011377E+0	1.099652E+0	1.067661E+0	1.024069E+0	1.062259E+0	1.061378E+0	1.103938E+0	1.104566E+0	1.072588E+0	1.137055E+0	1.084715E+0	9.967027E-1	1.050999E+0	1.034138E+0	1.070649E+0	1.117238E+0	1.000537E+0	1.021150E+0	1.032099E+0	1.039443E+0	1.043207E+0	1.034722E+0	1.020860E+0	1.059178E+0	1.047370E+0	1.039135E+0	1.037313E+0	1.067338E+0	1.019455E+0	1.071787E+0	1.045710E+0	1.055621E+0	1.079368E+0	1.049874E+0	1.106904E+0	1.059948E+0	1.106145E+0	1.028034E+0	1.019110E+0	1.062676E+0	1.013896E+0	1.064253E+0	1.051986E+0	1.055738E+0	1.025592E+0	1.066736E+0	9.855067E-1	1.069885E+0	1.132726E+0	1.045104E+0	1.013015E+0	9.833728E-1
2.950070E+2	9.143768E-1	8.618258E-1	9.801466E-1	8.947470E-1	9.476146E-1	9.425042E-1	9.242515E-1	9.340879E-1	9.567828E-1	9.053776E-1	9.055804E-1	9.482367E-1	9.694649E-1	9.496180E-1	9.178619E-1	9.601395E-1	9.273466E-1	9.257926E-1	9.206906E-1	9.245199E-1	9.297661E-1	9.222500E-1	9.476588E-1	9.609143E-1	9.423566E-1	9.247295E-1	9.579128E-1	9.723419E-1	9.259998E-1	1.002444E+0	9.104345E-1	9.438989E-1	9.046236E-1	8.750206E-1	9.469876E-1	9.283417E-1	9.126919E-1	9.095799E-1	9.264689E-1	9.388876E-1	9.408697E-1	9.598465E-1	9.497605E-1	9.455749E-1	9.336157E-1	9.735712E-1	9.107905E-1	9.421134E-1	8.866424E-1	9.629206E-1	9.006460E-1	9.435846E-1	9.645197E-1	9.355488E-1	9.401132E-1	9.453338E-1	9.496705E-1	9.568661E-1	1.010970E+0	9.503030E-1	8.806659E-1	1.002200E+0	9.632120E-1	8.877196E-1	1.018385E+0	9.545366E-1	9.367973E-1	8.957341E-1	9.884763E-1	9.282838E-1	9.817788E-1	9.407834E-1	9.898671E-1	9.191212E-1	1.016548E+0	9.906830E-1	9.191356E-1	9.490319E-1	9.933478E-1	9.694922E-1	9.652927E-1	1.002775E+0	8.893453E-1	8.868759E-1	9.972509E-1	8.830252E-1	9.919135E-1	9.735762E-1	9.568294E-1	9.707519E-1	9.081040E-1	9.438157E-1	8.980197E-1	9.568952E-1	9.139334E-1	9.017718E-1	9.848517E-1	9.663929E-1	9.510241E-1	9.359090E-1	9.372166E-1	9.505661E-1	9.794295E-1	9.286051E-1	9.137134E-1	9.672327E-1	9.566397E-1	9.121926E-1	9.080012E-1	9.625680E-1	1.005300E+0	8.995169E-1	9.635451E-1	9.591070E-1	9.522791E-1	9.244764E-1	9.029883E-1	9.713486E-1	9.203966E-1	9.551489E-1	9.408290E-1	9.211911E-1	9.138475E-1	9.303115E-1	9.752069E-1	9.790132E-1	9.195134E-1	9.450732E-1	1.012991E+0	9.083519E-1	9.018866E-1	9.570227E-1	9.165784E-1	9.517644E-1	9.362658E-1	9.233519E-1	9.744579E-1	9.655700E-1	9.665139E-1	9.641957E-1	9.526181E-1	9.017271E-1	8.955846E-1	9.128193E-1	9.888968E-1	9.645622E-1	9.986282E-1	9.818935E-1	9.451928E-1	8.837636E-1	9.257676E-1	9.575877E-1	9.024129E-1	9.659468E-1	9.842107E-1	9.017758E-1	9.925590E-1	9.731394E-1	9.552141E-1	9.221463E-1	8.575110E-1	9.724384E-1	9.512149E-1	9.532442E-1	9.592837E-1	9.628390E-1	9.482696E-1	9.657523E-1	8.839657E-1	8.825677E-1	8.126006E-1
2.955050E+2	9.095434E-1	9.234499E-1	9.673449E-1	9.511347E-1	9.823207E-1	9.837162E-1	9.288717E-1	9.749195E-1	9.458242E-1	9.620608E-1	9.065524E-1	9.363107E-1	9.056221E-1	8.833710E-1	9.242422E-1	9.130536E-1	9.641087E-1	9.379361E-1	9.190686E-1	9.487136E-1	9.237577E-1	9.577502E-1	9.044481E-1	8.964734E-1	9.334615E-1	9.058118E-1	9.104784E-1	8.883785E-1	9.581515E-1	9.557392E-1	8.997643E-1	9.158034E-1	9.090823E-1	9.284180E-1	9.431466E-1	8.995399E-1	8.743655E-1	8.723500E-1	9.346326E-1	9.142901E-1	9.132162E-1	9.136629E-1	9.538147E-1	9.608888E-1	9.556897E-1	9.702419E-1	9.386682E-1	8.618127E-1	8.889410E-1	9.551160E-1	9.166797E-1	9.667028E-1	8.849881E-1	8.903125E-1	9.548416E-1	8.862583E-1	8.718752E-1	9.462547E-1	9.319540E-1	9.673739E-1	9.438402E-1	9.585525E-1	9.345619E-1	9.404057E-1	9.291140E-1	9.363597E-1	9.614024E-1	9.316699E-1	9.110096E-1	9.450627E-1	9.411063E-1	9.672176E-1	8.538895E-1	9.672715E-1	9.211868E-1	1.002237E+0	9.110035E-1	9.207356E-1	8.809854E-1	8.830113E-1	8.593954E-1	9.745801E-1	9.414120E-1	8.997812E-1	9.456647E-1	9.536597E-1	9.981214E-1	8.778199E-1	9.528919E-1	9.763183E-1	9.651958E-1	9.820930E-1	9.811242E-1	9.529731E-1	9.346554E-1	9.030639E-1	9.500722E-1	9.337045E-1	9.408680E-1	9.137056E-1	9.701217E-1	9.179463E-1	9.525714E-1	9.028249E-1	9.441484E-1	9.662296E-1	9.262439E-1	9.599829E-1	9.265358E-1	9.741832E-1	9.828191E-1	9.382051E-1	9.644074E-1	9.922858E-1	8.989244E-1	8.841484E-1	8.921732E-1	9.807058E-1	9.144396E-1	9.057801E-1	9.550398E-1	8.687756E-1	9.195854E-1	9.412706E-1	8.771000E-1	9.453261E-1	9.299466E-1	9.328393E-1	9.721368E-1	9.430764E-1	8.781186E-1	9.195816E-1	9.469574E-1	9.188933E-1	9.900563E-1	9.537017E-1	9.500333E-1	9.155845E-1	9.524299E-1	9.169299E-1	9.766460E-1	9.113794E-1	1.009389E+0	9.858180E-1	9.597567E-1	9.503012E-1	9.276586E-1	9.627216E-1	9.217490E-1	9.146591E-1	9.469350E-1	9.357249E-1	9.262874E-1	9.284069E-1	9.369353E-1	9.707228E-1	8.869759E-1	9.183585E-1	9.639170E-1	9.169340E-1	9.448777E-1	9.411991E-1	9.082732E-1	9.667974E-1	9.135109E-1	9.190819E-1	9.976067E-1	9.535616E-1	8.981736E-1	9.257029E-1	9.926903E-1
2.960060E+2	1.087449E+0	1.123142E+0	1.026463E+0	1.029476E+0	1.053240E+0	1.154771E+0	1.089150E+0	1.042844E+0	1.105111E+0	1.054583E+0	1.063798E+0	1.053091E+0	1.056375E+0	1.117024E+0	1.066590E+0	1.038797E+0	1.086766E+0	1.020332E+0	1.103282E+0	1.139185E+0	1.098076E+0	1.066554E+0	1.070127E+0	1.068026E+0	1.059781E+0	1.090319E+0	1.096752E+0	1.074718E+0	1.075273E+0	1.111696E+0	1.135643E+0	1.014081E+0	9.900468E-1	1.024731E+0	1.098158E+0	1.017373E+0	1.018738E+0	1.074636E+0	1.085869E+0	1.055603E+0	1.086004E+0	1.038843E+0	1.124543E+0	1.043908E+0	1.075110E+0	1.107628E+0	1.092931E+0	1.062143E+0	1.088706E+0	9.900063E-1	1.047429E+0	1.087518E+0	1.081944E+0	1.084909E+0	1.115439E+0	1.109963E+0	1.075474E+0	1.040334E+0	1.099590E+0	1.069778E+0	1.099595E+0	1.081571E+0	1.080700E+0	1.111045E+0	1.119771E+0	1.092681E+0	1.066481E+0	1.078300E+0	1.059883E+0	1.047570E+0	1.072123E+0	1.053443E+0	1.092504E+0	1.073617E+0	1.070759E+0	1.061700E+0	1.068846E+0	1.092558E+0	1.064261E+0	1.077790E+0	1.121851E+0	1.052498E+0	1.049130E+0	1.027123E+0	1.114359E+0	1.134986E+0	1.097520E+0	1.031228E+0	1.043827E+0	1.092966E+0	1.094262E+0	1.081871E+0	1.074284E+0	1.100834E+0	1.082331E+0	1.062342E+0	1.134736E+0	1.037332E+0	1.086366E+0	1.074336E+0	1.083439E+0	1.098424E+0	1.115303E+0	1.052142E+0	1.025490E+0	1.027438E+0	1.080279E+0	9.984482E-1	1.052114E+0	1.125706E+0	1.092863E+0	1.069845E+0	1.057155E+0	1.096445E+0	1.145986E+0	1.069718E+0	1.032336E+0	1.043626E+0	1.092770E+0	1.078292E+0	1.116524E+0	1.029493E+0	1.102472E+0	1.086523E+0	1.080925E+0	1.111591E+0	1.085887E+0	1.117721E+0	1.222647E+0	1.100429E+0	1.034231E+0	1.084327E+0	1.099424E+0	1.117440E+0	1.082188E+0	1.037705E+0	1.017381E+0	1.103596E+0	1.121796E+0	1.031054E+0	1.061543E+0	1.052480E+0	1.045584E+0	1.056463E+0	1.123184E+0	1.114776E+0	1.106904E+0	1.117983E+0	1.043492E+0	1.077374E+0	1.055060E+0	1.085258E+0	1.042441E+0	1.060080E+0	1.064231E+0	1.033871E+0	1.056332E+0	1.043047E+0	1.010978E+0	1.054581E+0	1.047424E+0	1.089077E+0	1.024784E+0	1.154299E+0	1.023857E+0	1.054014E+0	1.077891E+0	1.052238E+0	9.970614E-1	1.093554E+0	1.038760E+0
2.965110E+2	1.063915E+0	1.083299E+0	1.074736E+0	1.049605E+0	1.058712E+0	1.129449E+0	1.074434E+0	1.098591E+0	1.090260E+0	1.100068E+0	1.095667E+0	1.063044E+0	1.074859E+0	1.128369E+0	9.843940E-1	1.061470E+0	1.039735E+0	1.044206E+0	1.011616E+0	1.111434E+0	1.090280E+0	1.055820E+0	1.076541E+0	1.036807E+0	1.069324E+0	1.101745E+0	1.096425E+0	1.095134E+0	1.037416E+0	1.070260E+0	1.073824E+0	1.056424E+0	1.066194E+0	1.132396E+0	1.102283E+0	1.083137E+0	1.134383E+0	1.067311E+0	1.074637E+0	1.078737E+0	1.107210E+0	1.066544E+0	1.109414E+0	1.026514E+0	1.083898E+0	1.089126E+0	1.081104E+0	1.083410E+0	1.075690E+0	1.100355E+0	1.099555E+0	1.023447E+0	1.061968E+0	1.118570E+0	1.008597E+0	1.076008E+0	1.029169E+0	1.142359E+0	1.136160E+0	1.088142E+0	1.172846E+0	1.108202E+0	1.082904E+0	1.089992E+0	1.125806E+0	1.115973E+0	1.063911E+0	1.062184E+0	1.082819E+0	1.097805E+0	1.059721E+0	1.080930E+0	1.113630E+0	1.066774E+0	1.082166E+0	1.011510E+0	1.081515E+0	1.066166E+0	1.055222E+0	1.094005E+0	1.080688E+0	1.016642E+0	1.066136E+0	1.044770E+0	1.148426E+0	1.095482E+0	1.104794E+0	1.096141E+0	1.087470E+0	1.131122E+0	1.061806E+0	1.035349E+0	1.149945E+0	1.112341E+0	1.153482E+0	1.072658E+0	1.126672E+0	1.106165E+0	1.114641E+0	1.121495E+0	1.111726E+0	1.035756E+0	1.060441E+0	1.076472E+0	1.051340E+0	1.074317E+0	1.098316E+0	1.056038E+0	1.075090E+0	1.119723E+0	1.104222E+0	1.053703E+0	1.093458E+0	1.048531E+0	1.054006E+0	1.029777E+0	1.082802E+0	1.041396E+0	1.073346E+0	1.035873E+0	1.148358E+0	1.069007E+0	1.075331E+0	1.100067E+0	1.047057E+0	1.072040E+0	1.118945E+0	1.101204E+0	1.083180E+0	1.054328E+0	1.037265E+0	1.053497E+0	1.097215E+0	1.087819E+0	1.092846E+0	1.034481E+0	1.109212E+0	1.070887E+0	1.084141E+0	1.100642E+0	1.110699E+0	1.037059E+0	1.051235E+0	1.035269E+0	1.066598E+0	1.035825E+0	1.081920E+0	1.085989E+0	1.094602E+0	1.089109E+0	1.044831E+0	1.050923E+0	1.034636E+0	1.060611E+0	1.086661E+0	1.076857E+0	1.062345E+0	1.047979E+0	1.054840E+0	1.069697E+0	1.086857E+0	1.048631E+0	1.052565E+0	1.089510E+0	1.131607E+0	1.062335E+0	1.086561E+0	1.115109E+0	1.041252E+0	1.059295E+0	1.062432E+0
2.970020E+2	1.103373E+0	1.075476E+0	1.125500E+0	1.069617E+0	1.124288E+0	1.067179E+0	1.126817E+0	1.100221E+0	1.126948E+0	1.129445E+0	1.085697E+0	1.078900E+0	1.055522E+0	1.113370E+0	1.095625E+0	1.141264E+0	1.055518E+0	1.080380E+0	1.100720E+0	1.090157E+0	1.101326E+0	1.078880E+0	1.122794E+0	1.014117E+0	1.105014E+0	1.049716E+0	1.079631E+0	1.076880E+0	1.105074E+0	1.071017E+0	1.091807E+0	1.067687E+0	1.093848E+0	1.065611E+0	1.074706E+0	1.081419E+0	1.133062E+0	1.086690E+0	1.055057E+0	1.105938E+0	1.080404E+0	1.131528E+0	1.112057E+0	1.123605E+0	1.064755E+0	1.163380E+0	1.054881E+0	1.077761E+0	1.051346E+0	1.053289E+0	1.124157E+0	1.145613E+0	1.076348E+0	1.132212E+0	1.082739E+0	1.073165E+0	1.061649E+0	1.144454E+0	1.080273E+0	1.077169E+0	1.132241E+0	1.108329E+0	1.068587E+0	1.091197E+0	1.103382E+0	1.101303E+0	1.046298E+0	1.074289E+0	1.065293E+0	1.073703E+0	1.091360E+0	1.081385E+0	1.088309E+0	1.127491E+0	1.137927E+0	1.036971E+0	1.077395E+0	1.099123E+0	1.073719E+0	1.078960E+0	1.189065E+0	1.063121E+0	1.120539E+0	1.064504E+0	1.064666E+0	1.113809E+0	1.096269E+0	1.054121E+0	1.107465E+0	1.137043E+0	1.067948E+0	1.102686E+0	1.109226E+0	1.104354E+0	1.121680E+0	1.076334E+0	1.074762E+0	1.129716E+0	1.123091E+0	1.071320E+0	1.128675E+0	1.059712E+0	1.113495E+0	1.064024E+0	1.059343E+0	1.075593E+0	1.106382E+0	1.081525E+0	1.056307E+0	1.078755E+0	1.129781E+0	1.086655E+0	1.107163E+0	1.075084E+0	1.124516E+0	1.099889E+0	1.064437E+0	1.097035E+0	1.109499E+0	1.046963E+0	1.073346E+0	1.043927E+0	1.111610E+0	1.076580E+0	1.095433E+0	1.109523E+0	1.147769E+0	1.046355E+0	1.145994E+0	1.098913E+0	1.129487E+0	1.067741E+0	1.066718E+0	1.103024E+0	1.097054E+0	1.065502E+0	1.083268E+0	1.079087E+0	1.150280E+0	1.091270E+0	1.104957E+0	1.073470E+0	1.082208E+0	1.071860E+0	1.119030E+0	1.119550E+0	1.086143E+0	1.097544E+0	1.068583E+0	1.139354E+0	1.136295E+0	1.096675E+0	1.074131E+0	1.081037E+0	1.118126E+0	1.029401E+0	1.108760E+0	1.081118E+0	1.085766E+0	1.093887E+0	1.097029E+0	1.034838E+0	1.087548E+0	1.105133E+0	1.090097E+0	1.090666E+0	1.132056E+0	1.011455E+0	1.062335E+0	1.032896E+0	1.181858E+0
2.975040E+2	9.402960E-1	9.448773E-1	9.538210E-1	9.703443E-1	9.548037E-1	9.482907E-1	9.484533E-1	9.389769E-1	1.033070E+0	9.749491E-1	9.393643E-1	9.659808E-1	9.618096E-1	9.974966E-1	9.739121E-1	9.476523E-1	9.450231E-1	9.831922E-1	1.015944E+0	1.025065E+0	9.585019E-1	9.803399E-1	9.519513E-1	9.381173E-1	9.782461E-1	9.745361E-1	9.562837E-1	9.869193E-1	9.893042E-1	9.779175E-1	9.760495E-1	9.282987E-1	9.730503E-1	1.022067E+0	1.004291E+0	1.007844E+0	9.904309E-1	9.903534E-1	1.037300E+0	9.917058E-1	9.962457E-1	9.652136E-1	9.990919E-1	9.616075E-1	9.475790E-1	9.783474E-1	9.764288E-1	1.000580E+0	9.656202E-1	9.661690E-1	9.681426E-1	9.451266E-1	9.736857E-1	9.916672E-1	9.764225E-1	9.698610E-1	9.591534E-1	1.018067E+0	9.435542E-1	9.805695E-1	9.655739E-1	9.769524E-1	9.621328E-1	9.755313E-1	9.998374E-1	9.287023E-1	9.430238E-1	9.742523E-1	9.856697E-1	1.008276E+0	9.946574E-1	1.023181E+0	9.912033E-1	9.646547E-1	1.012506E+0	1.000559E+0	1.046151E+0	1.003997E+0	1.016798E+0	9.502575E-1	9.743452E-1	9.780422E-1	9.688159E-1	1.008479E+0	9.952155E-1	1.013982E+0	9.887695E-1	9.599247E-1	9.970945E-1	1.003778E+0	9.538417E-1	9.856786E-1	9.974294E-1	1.005191E+0	9.723529E-1	9.767786E-1	9.538217E-1	9.924450E-1	1.001492E+0	9.367873E-1	9.822847E-1	9.850571E-1	9.672581E-1	9.561906E-1	1.002252E+0	9.631634E-1	1.005922E+0	9.491973E-1	1.008234E+0	9.490769E-1	9.356400E-1	9.977080E-1	9.693378E-1	1.000322E+0	9.876077E-1	1.015457E+0	9.611698E-1	9.606559E-1	1.003929E+0	1.001148E+0	9.865650E-1	9.769621E-1	9.699511E-1	1.000933E+0	1.013444E+0	9.752695E-1	9.416199E-1	1.003507E+0	9.846200E-1	9.563453E-1	9.891434E-1	1.024322E+0	9.599683E-1	9.891619E-1	1.004983E+0	9.860147E-1	9.862807E-1	9.721062E-1	9.795057E-1	1.003634E+0	9.630782E-1	9.967806E-1	1.002365E+0	1.005641E+0	9.531712E-1	9.621027E-1	9.903762E-1	9.265848E-1	9.775367E-1	9.723522E-1	9.616330E-1	1.023466E+0	1.009517E+0	9.966547E-1	9.871997E-1	9.706391E-1	9.825653E-1	9.615286E-1	9.879095E-1	9.569696E-1	9.801293E-1	9.950781E-1	9.490698E-1	9.312279E-1	9.689077E-1	9.975067E-1	9.865114E-1	9.715796E-1	9.776744E-1	9.675308E-1	8.881639E-1
2.980020E+2	8.059066E-1	8.809585E-1	8.228956E-1	8.839622E-1	8.733946E-1	8.882931E-1	8.987904E-1	8.487081E-1	8.542282E-1	8.463675E-1	8.981535E-1	8.585984E-1	9.185885E-1	8.365772E-1	8.982123E-1	8.717474E-1	8.978030E-1	8.751129E-1	8.857738E-1	8.665461E-1	8.642659E-1	8.751671E-1	8.783480E-1	8.928348E-1	8.849756E-1	8.828555E-1	8.807402E-1	8.795422E-1	8.441235E-1	8.927527E-1	8.701576E-1	8.566690E-1	8.911354E-1	8.721336E-1	8.259244E-1	8.421823E-1	8.629508E-1	8.566933E-1	8.581656E-1	8.269978E-1	8.344301E-1	8.886465E-1	8.134670E-1	8.715015E-1	8.956035E-1	8.762822E-1	8.706740E-1	8.486510E-1	8.908663E-1	8.517723E-1	9.007588E-1	9.024275E-1	9.106547E-1	8.607588E-1	8.533342E-1	8.957333E-1	8.341403E-1	8.609637E-1	8.496052E-1	8.901474E-1	8.559265E-1	8.816205E-1	8.917527E-1	8.488501E-1	8.571336E-1	8.666237E-1	8.599755E-1	8.386688E-1	8.825612E-1	8.774944E-1	8.738249E-1	8.387271E-1	8.695097E-1	8.988200E-1	8.707730E-1	8.727339E-1	8.452811E-1	8.519704E-1	9.122021E-1	9.030170E-1	8.466023E-1	8.663154E-1	8.700237E-1	8.664945E-1	8.873938E-1	9.044754E-1	8.668369E-1	8.800028E-1	9.144957E-1	8.439801E-1	9.260398E-1	8.887995E-1	8.466211E-1	8.793635E-1	8.411251E-1	8.388002E-1	8.540725E-1	8.894712E-1	8.350734E-1	9.412461E-1	8.774982E-1	8.939075E-1	8.764774E-1	8.487051E-1	8.875225E-1	8.373960E-1	8.814352E-1	8.756868E-1	8.453779E-1	8.897256E-1	8.838161E-1	8.576143E-1	9.014559E-1	8.901377E-1	8.244713E-1	8.497431E-1	8.580406E-1	8.588389E-1	8.494261E-1	8.755929E-1	8.748747E-1	8.708814E-1	8.953826E-1	8.884328E-1	8.351377E-1	8.467694E-1	8.640541E-1	8.896479E-1	8.792706E-1	8.542600E-1	8.555913E-1	8.516124E-1	8.756555E-1	9.050178E-1	8.640475E-1	8.703358E-1	8.358256E-1	8.623841E-1	8.511180E-1	9.155510E-1	8.715860E-1	8.592103E-1	8.488479E-1	8.695346E-1	8.969348E-1	9.273819E-1	8.641964E-1	9.031297E-1	8.703137E-1	8.957372E-1	8.666781E-1	8.635436E-1	8.825971E-1	8.940025E-1	8.807926E-1	8.562586E-1	9.083948E-1	8.665230E-1	8.847231E-1	8.648929E-1	8.366255E-1	8.525273E-1	8.596068E-1	9.173772E-1	8.811679E-1	8.443335E-1	8.898278E-1	8.480969E-1	8.464767E-1	8.484885E-1	9.251913E-1
2.985010E+2	9.415368E-1	8.761094E-1	9.234286E-1	9.057169E-1	8.861844E-1	9.062564E-1	9.084073E-1	9.247343E-1	9.366926E-1	9.404057E-1	8.663190E-1	8.772035E-1	8.951560E-1	9.037529E-1	9.144142E-1	9.269317E-1	8.941777E-1	9.159639E-1	8.941662E-1	8.827470E-1	8.941626E-1	9.209819E-1	9.188056E-1	8.950819E-1	9.121793E-1	9.004351E-1	9.579410E-1	9.316786E-1	9.137764E-1	9.236963E-1	8.872923E-1	9.043007E-1	8.935549E-1	8.866241E-1	9.211920E-1	9.227422E-1	8.976110E-1	8.679829E-1	8.977642E-1	9.064292E-1	9.464526E-1	9.049337E-1	9.058853E-1	9.240170E-1	9.119161E-1	8.904454E-1	8.838611E-1	8.998618E-1	9.124343E-1	9.404958E-1	9.082547E-1	8.889959E-1	8.728245E-1	9.306803E-1	9.284500E-1	8.917161E-1	9.183498E-1	9.207359E-1	9.142490E-1	9.255265E-1	9.217092E-1	9.170905E-1	9.308984E-1	9.362653E-1	9.041010E-1	9.467424E-1	8.929219E-1	8.875207E-1	8.826088E-1	8.466004E-1	8.991310E-1	9.490123E-1	9.126100E-1	9.414714E-1	8.835697E-1	9.217370E-1	9.010600E-1	8.966205E-1	8.956949E-1	9.137719E-1	8.950891E-1	9.485857E-1	9.217954E-1	8.874872E-1	8.660487E-1	8.205660E-1	9.047163E-1	8.848047E-1	8.597884E-1	9.178436E-1	9.154553E-1	9.065843E-1	8.585082E-1	8.563139E-1	8.908649E-1	9.411177E-1	9.141947E-1	8.989026E-1	9.032464E-1	9.149180E-1	8.594940E-1	9.089852E-1	8.796223E-1	8.799992E-1	9.209333E-1	8.985623E-1	8.997534E-1	8.826783E-1	8.861249E-1	9.097540E-1	9.426184E-1	9.837912E-1	9.127994E-1	8.862513E-1	9.219352E-1	8.861722E-1	8.740330E-1	8.810326E-1	9.203360E-1	8.864106E-1	9.258346E-1	9.268997E-1	9.556485E-1	8.951804E-1	8.808399E-1	9.201043E-1	8.997464E-1	9.322637E-1	8.644473E-1	9.473929E-1	9.391016E-1	9.357390E-1	9.042965E-1	8.674782E-1	9.276853E-1	8.954975E-1	8.991561E-1	9.578970E-1	8.788923E-1	9.055794E-1	9.517029E-1	8.999132E-1	8.789545E-1	8.390046E-1	9.343865E-1	9.060604E-1	9.160882E-1	9.278341E-1	9.008289E-1	9.424931E-1	9.184675E-1	9.074204E-1	8.915006E-1	8.531703E-1	8.852932E-1	9.386166E-1	9.234235E-1	9.301881E-1	9.048637E-1	9.320878E-1	9.108593E-1	9.434642E-1	9.197025E-1	8.567309E-1	8.952620E-1	8.879400E-1	8.443404E-1	9.092939E-1	1.004139E+0	9.288132E-1	1.001339E+0
2.990020E+2	1.102223E+0	1.033708E+0	1.059989E+0	1.057383E+0	1.112295E+0	1.029797E+0	1.018674E+0	1.058719E+0	1.036268E+0	1.049293E+0	1.119039E+0	1.065588E+0	1.052920E+0	1.072708E+0	1.025708E+0	1.056201E+0	1.022396E+0	1.082461E+0	1.058706E+0	1.068290E+0	1.029852E+0	1.011134E+0	1.042296E+0	1.098314E+0	1.081028E+0	1.041220E+0	1.008237E+0	1.035704E+0	1.042394E+0	1.074379E+0	1.059621E+0	1.092038E+0	1.056541E+0	1.062656E+0	1.068874E+0	1.083890E+0	1.046094E+0	1.016053E+0	1.077273E+0	1.104693E+0	1.062939E+0	1.072410E+0	1.065487E+0	1.066650E+0	1.084940E+0	1.075459E+0	1.099847E+0	1.040929E+0	1.099209E+0	1.053540E+0	1.044637E+0	1.027461E+0	1.062467E+0	1.068147E+0	1.043857E+0	1.076269E+0	1.058467E+0	1.018680E+0	1.066725E+0	1.037866E+0	1.057003E+0	1.038621E+0	1.029355E+0	1.021895E+0	1.105891E+0	1.075457E+0	1.068385E+0	1.042636E+0	1.086958E+0	1.034239E+0	1.034145E+0	1.031462E+0	1.011347E+0	1.013118E+0	1.053749E+0	1.000908E+0	1.012703E+0	1.030400E+0	1.011707E+0	1.054196E+0	1.083519E+0	1.030071E+0	1.048876E+0	1.039299E+0	1.124665E+0	1.067851E+0	1.035993E+0	1.053515E+0	1.050639E+0	1.052918E+0	1.015853E+0	1.007748E+0	1.099686E+0	1.045191E+0	1.049299E+0	1.075038E+0	1.090727E+0	1.026842E+0	1.059910E+0	1.065544E+0	1.035490E+0	1.050212E+0	1.095308E+0	1.097160E+0	1.070158E+0	1.063014E+0	1.039267E+0	1.079040E+0	1.091557E+0	1.005773E+0	1.047850E+0	1.037552E+0	1.071764E+0	1.043545E+0	1.024816E+0	1.029909E+0	1.070702E+0	1.067788E+0	1.061120E+0	1.050415E+0	1.064631E+0	1.083000E+0	1.026103E+0	1.078723E+0	1.023320E+0	1.078412E+0	1.051705E+0	1.059577E+0	1.040318E+0	1.024510E+0	1.018454E+0	1.060732E+0	1.092515E+0	1.106591E+0	1.039416E+0	1.109657E+0	1.052318E+0	1.042379E+0	1.066332E+0	1.069531E+0	1.012162E+0	1.091813E+0	1.028267E+0	1.017475E+0	1.028149E+0	1.053506E+0	1.058628E+0	1.077019E+0	1.087694E+0	1.071347E+0	1.053932E+0	1.063694E+0	1.052217E+0	1.046621E+0	1.033223E+0	1.045222E+0	1.054968E+0	1.086235E+0	1.053047E+0	1.065425E+0	1.099924E+0	1.044150E+0	1.055053E+0	1.051251E+0	1.050989E+0	1.046732E+0	1.103948E+0	1.088595E+0	1.023957E+0	1.080202E+0	1.065900E+0
2.995040E+2	1.048160E+0	1.131327E+0	1.137390E+0	1.072238E+0	1.080869E+0	1.072487E+0	1.051571E+0	1.116953E+0	1.037207E+0	1.079749E+0	1.056990E+0	1.079202E+0	1.101203E+0	1.086831E+0	1.087749E+0	1.085044E+0	1.133456E+0	1.051971E+0	1.033289E+0	1.063055E+0	1.118283E+0	1.089747E+0	1.078073E+0	1.049004E+0	1.039601E+0	1.091888E+0	1.103258E+0	1.096398E+0	1.092670E+0	1.060570E+0	1.117024E+0	1.136351E+0	1.061420E+0	1.066035E+0	1.094688E+0	1.026320E+0	1.077289E+0	1.133995E+0	1.040871E+0	1.090163E+0	1.063201E+0	1.059723E+0	1.081290E+0	1.092681E+0	1.062605E+0	1.062479E+0	1.090084E+0	1.110684E+0	1.055964E+0	1.062853E+0	1.066057E+0	1.103306E+0	1.068170E+0	1.064502E+0	1.074340E+0	1.076511E+0	1.088835E+0	1.089083E+0	1.092700E+0	1.039426E+0	1.100760E+0	1.075681E+0	1.044703E+0	1.099430E+0	1.041256E+0	1.072111E+0	1.118442E+0	1.124463E+0	1.092898E+0	1.120846E+0	1.069719E+0	1.079119E+0	1.112168E+0	1.082351E+0	1.088015E+0	1.077398E+0	1.052064E+0	1.098285E+0	1.100682E+0	1.064555E+0	1.095883E+0	1.090606E+0	1.069873E+0	1.083962E+0	1.088418E+0	1.082826E+0	1.127399E+0	1.093844E+0	1.083351E+0	1.087985E+0	1.067223E+0	1.105630E+0	1.065640E+0	1.100148E+0	1.123685E+0	1.083253E+0	1.067117E+0	1.081344E+0	1.103549E+0	1.048937E+0	1.114501E+0	1.110713E+0	1.089451E+0	1.094659E+0	1.077710E+0	1.100072E+0	1.054090E+0	1.117990E+0	1.043592E+0	1.101925E+0	1.077383E+0	1.033892E+0	1.078190E+0	1.112005E+0	1.125478E+0	1.099688E+0	1.085753E+0	1.129867E+0	1.071846E+0	1.054090E+0	1.051771E+0	1.057244E+0	1.073490E+0	1.064648E+0	1.098982E+0	1.046941E+0	1.119043E+0	1.028243E+0	1.106036E+0	1.097151E+0	1.085362E+0	1.068455E+0	1.059638E+0	1.066262E+0	1.109619E+0	1.064936E+0	1.059572E+0	1.084853E+0	1.058796E+0	1.034383E+0	1.095004E+0	1.092675E+0	1.124547E+0	1.108127E+0	1.047945E+0	1.067013E+0	1.091281E+0	1.066669E+0	1.077223E+0	1.052133E+0	1.102358E+0	1.047925E+0	1.075267E+0	1.110637E+0	1.092024E+0	1.080886E+0	1.066773E+0	1.061412E+0	1.075613E+0	1.053694E+0	1.077120E+0	1.069757E+0	1.102121E+0	1.126998E+0	1.079945E+0	1.161093E+0	1.110268E+0	1.068006E+0	1.025958E+0	1.090594E+0	9.886511E-1
3.000080E+2	1.161878E+0	1.133020E+0	1.102476E+0	1.110356E+0	1.092453E+0	1.154876E+0	1.174104E+0	1.111909E+0	1.102534E+0	1.109235E+0	1.120134E+0	1.153428E+0	1.070322E+0	1.102635E+0	1.100004E+0	1.112424E+0	1.107144E+0	1.091299E+0	1.112120E+0	1.094297E+0	1.134934E+0	1.122630E+0	1.130526E+0	1.126649E+0	1.103970E+0	1.109065E+0	1.093539E+0	1.069758E+0	1.117732E+0	1.070684E+0	1.089856E+0	1.082343E+0	1.124299E+0	1.090484E+0	1.085031E+0	1.117021E+0	1.125624E+0	1.134923E+0	1.088626E+0	1.080011E+0	1.096732E+0	1.109074E+0	1.134779E+0	1.083544E+0	1.097356E+0	1.116987E+0	1.079105E+0	1.099295E+0	1.075905E+0	1.125169E+0	1.112151E+0	1.132683E+0	1.112198E+0	1.084244E+0	1.123597E+0	1.089909E+0	1.141055E+0	1.092470E+0	1.133167E+0	1.126465E+0	1.099027E+0	1.110035E+0	1.141158E+0	1.118028E+0	1.091781E+0	1.110363E+0	1.117251E+0	1.132459E+0	1.069305E+0	1.112543E+0	1.128523E+0	1.078498E+0	1.103162E+0	1.099585E+0	1.091387E+0	1.126664E+0	1.142741E+0	1.118727E+0	1.062917E+0	1.114203E+0	1.104562E+0	1.086380E+0	1.120616E+0	1.114278E+0	1.038258E+0	1.110300E+0	1.076285E+0	1.127909E+0	1.094632E+0	1.093496E+0	1.121588E+0	1.105559E+0	1.132115E+0	1.113793E+0	1.122673E+0	1.085013E+0	1.120068E+0	1.110995E+0	1.096728E+0	1.092567E+0	1.130732E+0	1.051125E+0	1.091883E+0	1.123286E+0	1.041424E+0	1.137793E+0	1.119532E+0	1.095408E+0	1.125113E+0	1.143745E+0	1.112693E+0	1.089442E+0	1.066454E+0	1.067739E+0	1.115692E+0	1.119030E+0	1.150301E+0	1.101817E+0	1.093343E+0	1.132345E+0	1.096323E+0	1.085013E+0	1.079425E+0	1.072084E+0	1.148276E+0	1.132504E+0	1.123831E+0	1.086762E+0	1.125308E+0	1.120341E+0	1.112348E+0	1.059140E+0	1.107926E+0	1.065489E+0	1.054249E+0	1.073559E+0	1.166847E+0	1.080381E+0	1.165356E+0	1.071321E+0	1.106467E+0	1.059607E+0	1.117018E+0	1.160218E+0	1.139413E+0	1.083936E+0	1.079431E+0	1.098764E+0	1.086404E+0	1.065937E+0	1.096931E+0	1.093952E+0	1.088901E+0	1.098915E+0	1.121467E+0	1.108378E+0	1.063875E+0	1.094113E+0	1.093844E+0	1.126930E+0	1.095342E+0	1.095024E+0	1.114447E+0	1.116415E+0	1.123728E+0	1.062395E+0	1.065105E+0	1.114429E+0	1.121795E+0	1.084371E+0	1.130755E+0
