Photon Energy (eV)	#1	#2	#3	#4	#5	#6	#7	#8	#9	#10	#11	#12	#13	#14	#15	#16	#17	#18	#19	#20	#21	#22	#23	#24	#25	#26	#27	#28	#29	#30	#31	#32	#33	#34	#35	#36	#37	#38	#39	#40	#41	#42	#43	#44	#45	#46	#47	#48	#49	#50	#51	#52	#53	#54	#55	#56	#57	#58	#59	#60	#61	#62	#63	#64	#65	#66	#67	#68	#69	#70	#71	#72	#73	#74	#75	#76	#77	#78	#79	#80	#81	#82	#83	#84	#85	#86	#87	#88	#89	#90	#91	#92	#93	#94	#95	#96	#97	#98	#99	#100	#101	#102	#103	#104	#105	#106	#107	#108	#109	#110	#111	#112	#113	#114	#115	#116	#117	#118	#119	#120	#121	#122	#123	#124	#125	#126	#127	#128	#129	#130	#131	#132	#133	#134	#135	#136	#137	#138	#139	#140	#141	#142	#143	#144	#145	#146	#147	#148	#149	#150	#151	#152	#153	#154	#155	#156	#157	#158	#159	#160	#161	#162	#163	#164	#165	#166	#167	#168	#169	#170	#171	
2.790010E+2	-1.656728E-3	7.034302E-3	-2.764438E-3	-6.011207E-3	3.383379E-4	-4.632420E-3	-1.524571E-3	-1.109706E-3	4.846898E-3	-3.957461E-3	-5.449924E-3	-1.241659E-3	2.961119E-3	-2.378453E-3	-5.510968E-3	4.690126E-3	-1.912055E-3	-2.127393E-3	-1.973322E-4	-6.304973E-3	-5.399112E-3	-7.779323E-4	-9.196410E-6	-3.264713E-3	4.626133E-3	-2.454080E-3	2.929744E-4	-4.329213E-3	7.123632E-4	-1.218115E-3	5.713936E-4	-2.930952E-4	-8.235666E-3	-1.760436E-3	-1.330768E-2	1.289384E-3	-5.044526E-3	2.664108E-3	-4.653442E-3	-4.078534E-3	-7.557508E-3	2.668915E-3	-5.734124E-4	-9.403285E-3	-1.982342E-3	-6.954973E-3	-9.269607E-3	-6.818506E-3	-7.146421E-3	-1.164126E-3	-5.470850E-3	-1.171437E-3	-7.801955E-4	-2.080688E-3	1.374068E-3	1.988789E-3	2.776162E-3	-2.006296E-3	2.294219E-3	4.124014E-3	-5.106536E-4	-4.578572E-3	-6.206560E-3	-8.488733E-3	-9.318846E-4	-3.091261E-3	-6.855904E-3	-1.889448E-4	2.238950E-3	-8.254808E-3	3.861858E-4	-4.201747E-3	-6.000511E-3	-2.987695E-3	-5.760376E-3	-1.725645E-3	-4.117788E-4	1.198669E-3	-6.654764E-4	-6.104266E-3	3.683448E-3	-3.457083E-3	-5.285089E-3	-2.645051E-3	-3.696734E-3	1.006480E-3	3.809242E-3	2.083221E-3	1.864697E-3	-3.995415E-3	-5.417735E-3	-5.662097E-3	-3.613358E-3	-2.132762E-3	-1.238549E-3	4.105570E-3	-5.557945E-4	-6.827681E-3	9.666162E-5	-1.338783E-3	2.371219E-3	-1.602531E-3	1.858542E-3	4.774437E-4	-2.983300E-3	-5.510272E-3	-2.602916E-3	-1.276874E-3	-1.009148E-3	-6.072929E-3	-2.396688E-3	2.475193E-3	-2.260288E-3	-2.363250E-3	-7.340438E-3	-9.205215E-3	-8.218584E-3	-1.171200E-3	3.271561E-4	7.775731E-4	-1.248991E-3	-1.129073E-4	1.353766E-4	2.552714E-3	-6.585357E-3	-4.131412E-3	-7.220017E-4	8.285885E-4	2.604060E-3	-3.550778E-3	-6.416240E-4	-9.254399E-3	-3.080432E-3	-6.190195E-3	-8.793002E-3	-5.160441E-4	-1.140420E-3	1.060371E-3	2.810277E-3	-5.705640E-3	-8.959882E-3	3.551013E-4	-3.776183E-3	2.506590E-4	-1.844827E-3	-8.518317E-3	-1.054893E-3	-7.776388E-3	1.242652E-4	-3.182509E-3	-1.989065E-3	-5.480870E-3	1.152553E-2	-3.677732E-4	-1.892064E-3	-3.420554E-3	-4.780000E-4	-3.983945E-3	-8.426720E-3	-2.124785E-3	-6.499085E-3	-1.355500E-2	-9.750912E-3	-6.867854E-3	-1.610384E-4	-5.210708E-3	-2.634482E-3	-9.828899E-3	2.374220E-3	-1.563088E-3	-6.756542E-4
2.795010E+2	-1.970764E-3	-1.177051E-3	-9.185102E-3	-2.280038E-4	-2.289343E-3	-2.487458E-3	2.541400E-3	-4.644031E-3	-2.612819E-3	-1.168629E-3	-1.292412E-3	5.426235E-3	-3.210586E-3	2.260663E-3	4.909852E-3	-1.042469E-3	-8.810872E-3	-2.489024E-3	-5.997658E-3	2.412235E-3	-8.828237E-3	2.131012E-3	-6.830810E-3	-6.928417E-3	-6.355298E-3	-1.413797E-3	-2.047800E-3	8.410947E-4	1.053510E-3	1.744322E-3	-5.261894E-3	-3.993106E-3	-4.451342E-3	9.307430E-4	-7.266089E-3	-2.089805E-3	-6.042416E-3	-5.306856E-3	-1.542250E-3	-2.953463E-3	-2.710211E-3	-5.581444E-3	-3.266901E-4	2.007195E-4	4.460353E-3	-3.909741E-3	5.967975E-3	-1.436355E-3	-2.117551E-3	2.248317E-3	-5.059919E-3	2.252870E-3	-3.076469E-3	1.040534E-3	-9.049749E-4	4.468172E-3	-5.962703E-3	-3.143628E-3	-7.649039E-3	3.649677E-3	-4.144902E-3	-4.133178E-3	2.802431E-3	1.755232E-3	-1.286314E-3	-2.642639E-3	-1.741435E-3	1.711362E-3	8.587684E-3	1.959832E-3	-1.143573E-3	1.523895E-5	-1.000047E-3	4.707719E-3	-2.174637E-3	1.959054E-3	-7.142751E-5	-5.085136E-3	5.475770E-3	-2.989276E-3	-8.727078E-4	1.562938E-3	-3.661883E-3	-1.444321E-3	-1.712797E-3	-8.076341E-4	-6.530592E-3	-7.742026E-3	-2.231238E-3	-6.814086E-4	5.949503E-3	8.072250E-3	1.405455E-3	9.502469E-4	5.114804E-3	-1.705213E-3	1.423971E-3	-4.026927E-3	-3.487198E-3	2.017082E-3	-7.300212E-3	-2.635267E-3	9.950695E-4	2.277967E-3	-4.690217E-3	7.610509E-4	-9.087188E-4	1.706396E-4	-1.988917E-3	4.762624E-3	-2.241999E-3	-5.787014E-4	-9.257488E-4	3.587142E-3	-1.921877E-3	-6.408991E-3	-1.409158E-3	-7.524272E-3	1.349371E-4	-7.962776E-3	-4.625197E-3	-1.864102E-3	-3.171461E-3	2.191281E-3	-1.577257E-3	-7.177019E-3	1.304581E-3	-5.084711E-3	5.399764E-4	-2.346746E-3	-3.333754E-3	1.257609E-3	-4.803601E-3	4.967650E-3	1.120810E-3	-1.565879E-3	-5.419809E-3	-4.646843E-3	4.782584E-3	-3.482712E-3	6.263280E-4	-7.491545E-3	6.498000E-3	-8.129593E-4	6.920400E-3	-1.622857E-3	-2.174116E-3	2.985675E-3	5.113752E-4	-9.724122E-3	1.343497E-3	-4.328750E-3	-3.182998E-3	-2.913849E-3	-1.453546E-3	2.089527E-3	-8.232334E-4	-1.895603E-4	2.706943E-4	-2.483793E-3	-5.073102E-3	2.447056E-3	-1.494515E-4	-4.702871E-3	-4.297317E-3	-1.182001E-3	-4.558050E-3	3.738579E-3	7.080415E-4	2.999924E-3	-4.540289E-3
2.800050E+2	-3.616635E-3	-4.567685E-3	-6.089297E-3	-5.836457E-3	1.555959E-3	-7.728457E-4	2.610329E-3	2.441714E-3	-5.368308E-3	-3.435352E-3	-7.614228E-3	3.418169E-5	3.277056E-3	-1.942837E-3	2.738589E-3	-6.314943E-3	-1.448114E-3	-4.596412E-3	-1.862783E-3	7.003495E-3	-6.886115E-3	-3.020876E-3	-3.223687E-3	3.189991E-3	1.252041E-3	-5.600658E-3	-5.929341E-3	2.489985E-3	-6.920586E-3	-9.497340E-3	-7.022924E-3	-1.929797E-3	-3.432514E-4	1.773055E-3	3.145162E-3	3.184361E-3	-7.346960E-3	-3.880684E-3	-5.442467E-3	-7.116169E-3	-4.846114E-3	-1.240687E-3	2.293809E-3	-2.216956E-3	-9.050948E-4	1.507763E-3	1.714126E-3	7.725629E-4	-3.573230E-3	8.150863E-4	-7.859603E-3	3.864305E-3	-5.611894E-3	-5.804613E-3	-3.287658E-3	-1.213558E-3	-3.119136E-3	2.396597E-3	-5.550119E-3	-9.195180E-3	3.111518E-3	2.497776E-3	-8.287123E-3	1.183028E-3	1.076090E-3	1.291175E-3	-3.686528E-3	-2.765224E-3	-5.440080E-3	-7.583134E-4	-2.244499E-3	-3.703561E-3	-9.336924E-4	2.371912E-3	5.184740E-4	-1.201051E-3	-7.971692E-3	9.522255E-4	-3.275536E-4	-1.555654E-3	4.104941E-3	1.215468E-4	-1.510332E-3	-2.121151E-3	-1.198452E-4	-1.439262E-3	-4.609975E-3	2.588901E-3	-7.396066E-3	-3.494658E-3	-3.839911E-4	-2.545561E-3	-2.531477E-3	3.066241E-3	-1.075509E-3	-9.181856E-3	-3.853617E-3	-5.512491E-3	-2.959446E-3	-1.037586E-2	9.336257E-5	1.506144E-3	-1.509199E-3	-3.123852E-4	1.103062E-3	8.463106E-4	-2.253356E-3	-1.335159E-3	3.504340E-3	-1.324416E-2	-2.616692E-3	6.504763E-3	-2.503485E-3	-7.306525E-3	3.221237E-3	3.429771E-3	-6.296529E-3	-5.450293E-3	1.228895E-3	1.360495E-3	-2.256148E-3	-3.886441E-3	-1.340435E-3	-2.456579E-3	-4.523201E-3	-3.678193E-3	-5.024619E-3	-1.460190E-3	-1.786823E-4	-9.125074E-3	2.016764E-3	1.372884E-3	-1.146963E-3	-5.032332E-3	-2.745018E-3	1.199427E-5	2.429600E-3	-2.286643E-3	-2.783996E-3	-3.330881E-3	-6.333685E-3	1.435693E-3	-4.929218E-3	-7.046732E-4	-4.451376E-4	-7.504993E-4	-3.171421E-3	-2.435590E-3	-3.184456E-3	1.334470E-3	1.226534E-3	-5.476602E-4	-7.289239E-3	-6.378587E-4	-3.898037E-3	-7.019753E-3	-6.010414E-3	-6.986487E-3	2.338480E-3	-3.789823E-3	1.759185E-3	1.054245E-3	-7.683328E-3	1.952616E-3	3.344382E-3	-1.102308E-3	-3.702082E-3	-9.014548E-3	-3.044898E-3	-5.138493E-3	-4.475147E-3
2.805060E+2	4.910396E-3	6.574980E-4	-7.576432E-3	-5.786971E-3	-6.570904E-4	1.173755E-4	-4.668696E-3	-6.302333E-4	-2.491475E-3	4.379031E-3	-1.150668E-3	-7.728852E-3	-4.380502E-3	-6.883043E-3	-4.540644E-3	7.106477E-3	-1.390610E-3	-1.640306E-3	5.018746E-3	2.559335E-3	9.015026E-3	-4.269754E-3	-2.568775E-3	-7.744626E-4	-6.260006E-3	-4.117791E-3	-1.254940E-3	-4.569324E-3	-2.753771E-4	-1.078612E-2	-2.650632E-4	-1.865828E-3	4.596169E-3	4.926053E-3	-9.487148E-4	2.511610E-3	-4.565802E-3	3.798420E-3	-4.246321E-3	1.386068E-3	4.044528E-3	-9.765182E-3	-2.720633E-3	-3.792289E-3	-4.224482E-3	1.038091E-2	-3.804219E-3	-5.862317E-4	-1.237349E-3	-4.390938E-3	-2.080129E-3	-6.742610E-3	4.854847E-3	-8.753742E-4	-3.814964E-3	1.018805E-3	1.133052E-3	-6.149779E-3	-2.754195E-3	-9.956442E-3	1.237830E-3	-1.093543E-3	-1.246149E-4	2.568509E-3	1.915509E-3	-5.631130E-3	-9.555630E-4	6.430671E-3	-1.343252E-3	3.499617E-3	-2.764184E-3	3.956583E-3	1.417426E-3	8.281146E-4	-4.764204E-5	7.760843E-3	4.433991E-3	1.010742E-3	9.321296E-4	-1.487484E-3	-6.461862E-3	-3.611514E-3	-3.530553E-3	-2.803757E-3	-3.874626E-3	-9.911095E-3	4.164549E-3	-2.838943E-3	-2.837593E-3	1.619811E-3	-3.182683E-3	-8.373671E-4	-4.432340E-4	-2.307633E-3	-3.050880E-4	-3.632891E-3	3.075879E-3	-1.571040E-3	-4.422497E-3	-1.106688E-2	1.587966E-4	-3.163653E-3	-2.733304E-3	-2.954662E-3	1.889368E-3	1.653717E-3	-6.115829E-3	1.160499E-3	1.537576E-3	-2.028338E-3	2.396490E-3	-1.114526E-3	1.675458E-5	6.019865E-4	-9.472173E-3	-1.014542E-3	1.635519E-4	3.333302E-3	1.139544E-4	-7.774221E-3	4.708234E-3	-5.943530E-3	1.387106E-3	-1.575432E-3	6.941730E-3	1.009580E-2	-3.026613E-3	-2.096284E-3	7.064513E-4	-5.258339E-3	-3.598652E-3	3.020540E-3	-3.247924E-3	-2.948029E-3	-4.533378E-4	-3.488252E-3	-6.818195E-3	-9.789400E-3	-1.163946E-2	-7.435604E-3	9.995789E-3	-4.626323E-3	-6.077158E-3	-3.512693E-3	-2.042243E-3	6.516975E-3	2.552979E-4	4.769688E-5	4.458067E-3	2.127193E-3	3.816294E-3	-4.762687E-3	-1.349673E-3	-7.185080E-3	5.190493E-3	8.434171E-4	-1.046877E-2	-1.381167E-3	1.317734E-2	1.386501E-3	2.692333E-3	2.619691E-3	-2.341357E-3	-1.226900E-3	-2.651141E-3	-4.112842E-3	-1.009739E-3	4.014364E-3	-6.810568E-3	-1.752370E-3	6.352729E-3
2.810080E+2	-1.833283E-3	-8.801436E-3	4.747310E-3	-2.175246E-5	-3.642433E-3	5.993966E-3	-6.095344E-3	2.572377E-3	-2.433685E-3	-2.215983E-4	-3.655180E-3	-2.184362E-3	-5.618392E-3	-5.407175E-3	-1.079074E-3	2.533625E-3	-2.073963E-3	-8.557716E-4	3.726384E-3	-7.195254E-3	-1.706852E-3	-1.589559E-3	2.299245E-3	-3.414410E-3	-1.659582E-3	-2.632100E-3	3.438848E-3	-1.339182E-3	1.253625E-3	5.314271E-3	-8.068360E-4	4.905165E-3	3.844400E-3	-4.055313E-4	9.514459E-3	-3.404623E-3	-1.082790E-3	1.087592E-3	6.132781E-3	3.599552E-3	2.658410E-3	-6.870412E-3	-1.152601E-4	1.196495E-3	-8.058282E-4	-3.774255E-4	-3.133605E-3	2.386574E-3	3.469842E-4	-3.623346E-3	1.020571E-2	-6.721703E-3	3.740086E-4	-4.292268E-3	2.448792E-3	3.252382E-4	-2.072934E-4	5.650737E-3	2.085806E-3	-1.071634E-2	-7.918379E-3	1.911309E-3	-6.362751E-4	-1.184033E-2	4.837146E-4	3.768493E-3	7.911372E-3	-3.337639E-3	2.789276E-3	-2.029504E-3	-3.157642E-4	-1.998505E-3	3.042310E-3	9.023245E-4	-2.564602E-3	-6.684131E-3	-2.035365E-3	-7.910082E-3	-3.702807E-3	1.336206E-3	-2.282923E-3	3.338361E-3	-4.857610E-3	9.875309E-4	-9.945587E-3	1.440778E-4	-7.311418E-4	-7.091598E-4	4.034045E-3	-1.923090E-3	-3.124940E-3	-4.062633E-3	-2.383696E-3	-4.288599E-3	-6.542750E-3	-1.191374E-4	-1.454238E-3	-3.054284E-3	3.318510E-3	-6.802717E-4	3.587241E-3	-1.725683E-3	-3.961483E-3	-8.436497E-4	-1.641514E-3	3.203395E-3	-3.425840E-3	-4.463071E-3	-2.482908E-3	8.453377E-4	-1.859919E-3	-3.856253E-3	-1.570146E-3	1.461280E-3	4.817275E-3	3.569107E-3	-4.757533E-4	6.785082E-3	1.983867E-3	1.502317E-3	-2.124290E-3	4.964250E-4	-5.327286E-4	-4.812039E-3	-3.639990E-3	-1.479079E-3	-4.892275E-3	4.300336E-3	-6.533266E-3	9.354725E-3	-2.057879E-3	-1.087976E-2	-2.979027E-4	3.884317E-3	2.908383E-3	4.547737E-3	1.829822E-3	-2.887624E-3	7.388407E-3	5.302969E-3	5.131162E-3	3.659481E-3	6.173861E-3	-4.181766E-3	-3.651209E-3	1.792395E-3	1.794647E-3	7.255903E-3	-3.814757E-3	-5.385756E-3	-3.798383E-3	1.242315E-3	5.438333E-3	4.701248E-3	1.910919E-3	9.110932E-4	-7.406936E-3	3.533981E-3	-2.727502E-3	5.036275E-3	8.713943E-3	3.426153E-3	5.941130E-3	5.221785E-4	5.792404E-3	9.170381E-4	5.623902E-4	-2.831160E-3	4.804548E-3	-1.161468E-2	1.058366E-2
2.815030E+2	2.475517E-3	3.376252E-3	4.052581E-3	1.679742E-3	7.095043E-3	-3.086128E-3	6.498190E-3	1.861020E-3	4.014361E-3	2.962697E-3	6.075699E-3	4.970112E-3	-1.674308E-3	1.825026E-3	1.304312E-4	2.628494E-3	6.097816E-3	8.684100E-3	-3.727200E-3	1.208167E-3	7.924061E-3	-8.624110E-4	1.771524E-3	1.394652E-3	-1.593938E-3	2.994813E-4	2.194958E-3	4.353695E-3	7.221422E-3	6.072668E-3	1.105923E-3	-3.635525E-4	2.285307E-3	1.984499E-3	5.605864E-4	-2.568563E-3	2.424018E-3	1.158445E-3	6.235508E-3	5.104408E-3	-9.555168E-4	6.126219E-3	-1.323940E-3	7.910697E-3	-2.787701E-3	-5.031655E-3	6.321808E-3	-1.081303E-3	3.473376E-3	4.000362E-3	2.379203E-3	5.575264E-3	-1.498296E-3	9.061351E-3	-3.052038E-3	-3.960084E-3	2.667866E-3	-6.858173E-3	1.098225E-4	7.249096E-3	3.984245E-3	5.069481E-4	-1.805954E-3	-3.185441E-3	-9.889408E-4	2.285366E-3	-1.034775E-4	-2.009878E-4	2.874090E-3	-5.484094E-3	5.116500E-3	4.186368E-3	-6.884866E-4	-2.273909E-3	-1.153528E-3	6.936562E-4	2.418822E-3	2.693135E-3	-3.034082E-3	2.794905E-3	1.912933E-3	-2.700796E-3	7.125438E-3	3.315261E-3	1.708088E-4	-2.637500E-3	4.981554E-3	-3.406729E-3	-4.001344E-4	1.774787E-3	-9.106568E-4	-3.165268E-3	-2.799110E-4	5.758175E-4	-9.298029E-3	2.029731E-3	9.087978E-4	1.698676E-3	2.642616E-3	1.050299E-2	-5.089209E-3	5.186441E-3	-6.660575E-4	-4.181712E-3	-1.328701E-4	3.465409E-4	3.895016E-3	2.118930E-3	3.052027E-3	-1.177573E-3	-5.444128E-4	-1.679016E-3	9.675484E-4	-4.481855E-5	3.482466E-3	1.374554E-3	-1.115426E-3	8.156259E-4	-4.539480E-3	1.578508E-3	7.955054E-3	5.569092E-3	4.887423E-3	1.995305E-4	4.067653E-3	5.489862E-3	4.245189E-3	-4.083315E-3	-4.841631E-3	2.539182E-3	2.462959E-3	-7.104444E-4	8.481077E-3	5.327088E-3	2.343378E-3	-1.916635E-3	6.616364E-3	7.110051E-3	-8.024955E-3	6.231585E-3	-4.650061E-4	3.117360E-4	4.243746E-3	-1.213566E-3	3.076829E-3	1.868489E-3	5.557038E-3	-3.803261E-3	-1.469481E-3	2.309308E-3	-6.944071E-3	1.250124E-2	-2.907173E-3	1.075008E-3	-2.735999E-3	-3.281957E-3	1.007701E-2	5.012591E-3	-1.412427E-3	2.259760E-3	-2.296624E-3	-1.697365E-3	2.082457E-4	4.754159E-3	-8.639628E-3	1.034005E-2	4.159130E-3	6.242408E-3	2.309895E-3	1.003625E-2	-4.511231E-3
2.820060E+2	-8.823544E-4	-9.008059E-4	7.981983E-3	3.386839E-3	-2.766545E-3	5.323755E-3	-1.563134E-3	3.500919E-4	2.670656E-3	6.851350E-4	6.815930E-3	2.676591E-3	3.377573E-4	4.054253E-3	-3.675991E-4	-2.693891E-3	2.560163E-4	-7.192968E-4	4.575078E-3	1.279372E-3	-2.977881E-4	5.809307E-3	2.434959E-3	5.537626E-3	3.047237E-3	3.961463E-3	-2.382194E-3	-3.623745E-4	-3.033033E-3	2.123647E-3	4.870796E-3	-2.952472E-4	1.531640E-3	-1.035856E-2	6.251619E-4	1.257838E-3	8.709727E-3	-2.919115E-3	1.716319E-3	2.353148E-3	1.095786E-2	4.048244E-3	7.032385E-4	1.361949E-3	1.848912E-5	3.180959E-3	1.383361E-3	-1.712755E-3	4.869917E-4	-4.824346E-4	2.455617E-3	3.376784E-3	4.476511E-3	-6.610053E-4	5.131217E-3	-2.429772E-3	3.440458E-3	5.028000E-3	1.773921E-4	9.005121E-3	1.046667E-4	3.512434E-3	5.803351E-3	1.095639E-2	6.075627E-4	-3.121542E-3	3.353421E-3	-3.173329E-3	-5.905265E-3	8.668447E-3	-2.545881E-3	1.981103E-3	6.269424E-3	-5.845701E-4	9.504377E-3	2.417866E-3	-7.024627E-3	-2.558344E-4	1.214425E-3	-5.521605E-4	2.807822E-3	-2.648551E-3	7.921181E-3	9.433019E-3	3.318735E-3	3.895405E-3	2.563395E-3	7.044620E-3	4.195648E-3	-3.382147E-4	4.938053E-3	2.750969E-3	-4.271711E-3	-2.103340E-3	5.566380E-3	4.185318E-3	-1.344917E-3	1.351635E-2	1.973619E-3	3.919500E-3	1.184336E-2	-4.311826E-3	2.644381E-3	2.041313E-3	2.827918E-3	-1.793919E-3	3.993435E-3	2.186053E-3	1.066619E-3	5.233770E-3	7.756212E-4	-9.091761E-4	-6.281495E-4	3.980209E-3	4.281323E-3	1.436198E-3	1.329652E-2	4.276183E-3	3.389181E-4	5.218862E-3	-5.100529E-3	6.725312E-4	-2.394999E-3	4.404144E-3	-2.751219E-3	-6.369073E-4	3.036891E-3	1.633437E-3	-7.231656E-3	1.841915E-3	1.793265E-3	7.162464E-3	2.741638E-3	-7.195105E-4	-1.533267E-3	-2.586810E-3	5.925847E-3	8.738089E-3	4.046750E-3	8.006601E-3	-3.959120E-3	5.208231E-3	-3.831805E-3	3.954152E-3	-1.874006E-3	3.549227E-3	-5.443880E-3	3.429053E-3	3.170893E-3	1.143087E-2	1.512469E-3	-9.555610E-5	-1.162309E-3	3.972028E-4	1.400727E-3	1.952683E-4	7.883435E-3	3.704203E-3	-1.336665E-3	-2.694294E-3	-3.956344E-3	2.076690E-3	1.269277E-2	2.331452E-3	5.954231E-3	-2.048877E-3	-2.091120E-3	5.313277E-3	-4.078071E-3	-1.528313E-3	-1.400152E-3
2.825040E+2	2.573852E-3	4.378925E-3	8.833395E-3	1.281781E-2	3.660709E-4	-4.562441E-4	2.201827E-3	-8.412315E-4	1.374371E-3	7.561772E-4	6.270782E-3	-1.952247E-3	8.307856E-3	8.471566E-3	3.719414E-3	-6.907419E-3	9.281783E-3	3.744102E-3	-1.535234E-3	-9.623769E-4	6.179017E-3	2.580213E-3	6.126740E-3	4.259734E-3	6.943414E-3	1.195748E-2	5.687494E-3	2.915320E-3	-1.192487E-5	6.246663E-3	6.808605E-3	3.835461E-3	7.727440E-4	2.910180E-3	7.677115E-3	-1.802005E-4	1.294875E-2	3.398090E-3	1.799873E-3	1.704990E-3	-1.591451E-3	1.061435E-2	2.062889E-3	4.742670E-3	6.226606E-3	1.204161E-3	8.201612E-4	8.476013E-3	9.767198E-3	2.597079E-3	5.429968E-3	-4.334728E-4	1.261487E-3	3.612063E-3	2.105558E-3	-1.975900E-4	-7.284054E-4	5.082541E-3	1.128611E-2	5.840050E-3	4.135676E-3	1.376826E-3	8.454745E-3	7.051346E-3	-8.757365E-4	7.141538E-3	2.078114E-3	1.524092E-3	-3.801403E-3	2.398824E-3	3.511216E-3	-2.354800E-4	-2.106422E-3	-2.963896E-3	1.677934E-3	-3.220592E-3	1.066208E-2	7.396280E-3	1.075944E-4	8.557729E-3	-2.891652E-3	7.395099E-3	3.798848E-3	-4.721530E-3	1.586005E-2	9.749528E-3	-3.647030E-3	2.980116E-3	2.770641E-3	7.038189E-3	2.132450E-3	5.449708E-3	1.211793E-2	6.240028E-3	7.778741E-3	4.318477E-3	1.799918E-3	5.777402E-3	2.837734E-3	7.022232E-3	-5.664554E-3	6.746376E-3	3.372050E-3	3.495686E-3	3.627552E-3	4.931762E-4	7.418209E-3	1.438983E-3	-3.679588E-3	1.168127E-2	6.487599E-3	-8.422848E-4	6.903514E-3	8.397556E-5	2.932186E-3	6.819118E-3	4.055377E-3	-1.064429E-3	4.117530E-4	5.299242E-3	2.691866E-3	5.068932E-3	1.029718E-3	-5.036183E-4	8.067642E-3	1.516951E-3	5.078847E-3	5.962139E-3	1.493475E-2	6.545114E-3	3.358922E-3	8.031111E-3	1.354107E-3	7.110117E-4	7.152053E-3	5.513889E-3	-3.423209E-3	2.702000E-3	3.420397E-3	4.136810E-4	3.964415E-3	1.147624E-3	1.698756E-3	6.220847E-3	-1.398065E-4	-2.835412E-3	4.237327E-3	2.969120E-4	2.040938E-4	1.090549E-3	4.832725E-3	1.471971E-3	-1.072468E-3	4.931102E-3	1.477507E-3	9.682958E-3	7.226909E-3	2.903848E-4	-1.883202E-3	2.410159E-3	4.659693E-3	3.628530E-3	1.082897E-3	3.237219E-3	6.581067E-4	2.399649E-3	9.273953E-3	2.365978E-3	3.736833E-3	8.560768E-3	-1.333915E-3
2.830040E+2	3.477956E-3	3.569598E-3	3.482551E-3	2.534329E-3	1.814388E-2	4.468139E-4	7.827993E-4	1.257984E-2	5.852989E-3	7.122081E-3	3.129726E-3	2.530357E-3	4.597171E-3	1.002495E-2	9.479995E-4	4.450948E-3	1.323429E-2	9.002142E-4	6.148310E-3	8.426577E-3	3.711733E-3	1.129161E-2	9.828568E-3	5.965055E-3	7.146463E-3	-8.918548E-4	1.115209E-2	3.132132E-3	9.886875E-3	-3.117758E-3	4.459950E-3	-1.797051E-3	1.333042E-2	4.563796E-3	1.550462E-2	9.098376E-3	1.983698E-3	1.434105E-3	9.967428E-3	4.150985E-3	1.048508E-2	5.685106E-3	4.803344E-3	6.394134E-3	1.547655E-2	2.715094E-3	2.834960E-3	8.296135E-3	4.573171E-3	5.765453E-3	5.535070E-3	5.827014E-3	9.269900E-3	5.135617E-3	5.325204E-3	1.091580E-2	-6.344362E-4	4.630103E-4	2.417409E-3	-1.467343E-3	6.256028E-3	8.867599E-3	5.387098E-3	3.070080E-3	7.358918E-4	5.648402E-3	1.917836E-2	-6.150627E-3	7.871647E-3	7.428569E-3	5.394717E-3	5.936267E-4	-1.271385E-3	2.009114E-3	6.385911E-3	1.764921E-3	1.665649E-2	9.744022E-3	8.557221E-3	3.779977E-3	9.617645E-3	2.084283E-3	1.659857E-2	7.405132E-3	9.657077E-3	5.518062E-3	7.155322E-3	4.446148E-3	3.593364E-3	1.443738E-2	3.617301E-3	-3.708519E-3	6.774674E-3	7.708205E-3	6.855213E-5	7.894968E-3	6.508354E-3	8.220903E-3	-5.640168E-3	1.084516E-2	-1.540124E-3	1.166100E-2	1.454673E-2	1.596365E-2	9.528116E-3	1.307174E-3	1.150960E-2	3.971754E-3	1.224422E-2	1.816203E-2	1.559388E-3	6.448843E-4	9.480397E-3	5.722931E-3	5.175343E-3	3.848577E-3	4.858301E-3	7.853801E-3	9.575210E-3	8.968459E-3	-1.111412E-3	3.700965E-3	8.519180E-3	6.218440E-3	1.355206E-2	4.382448E-3	9.094999E-3	3.204147E-3	4.377639E-3	-4.980300E-3	5.682039E-3	3.414393E-3	1.240028E-2	8.313944E-3	9.910921E-3	1.219448E-2	6.117142E-3	8.173953E-3	7.772587E-3	6.460238E-3	3.338285E-3	6.079624E-3	3.160146E-3	1.070549E-2	1.170192E-2	-3.582374E-3	1.174625E-2	1.559453E-2	7.998630E-3	1.875467E-3	-2.665051E-4	-7.036034E-4	-1.803963E-3	2.018202E-3	6.333768E-3	1.185156E-3	-2.962928E-4	3.164034E-3	-3.052091E-3	4.659910E-3	9.899280E-3	7.440830E-3	-1.041304E-3	7.501467E-3	-6.171910E-3	9.389499E-3	5.133761E-3	3.444261E-3	1.036766E-2	1.033267E-2	1.805633E-3
2.835020E+2	1.130413E-2	3.629119E-3	1.442228E-2	1.137605E-2	8.991107E-3	1.732250E-2	1.798562E-2	1.406155E-2	1.601180E-2	8.769722E-3	7.769683E-3	1.065914E-2	9.284382E-3	1.446369E-2	7.933820E-3	1.787107E-2	1.257191E-2	8.325139E-3	1.869660E-2	1.368188E-2	1.926090E-2	1.537810E-2	1.420448E-2	1.949744E-2	8.012655E-3	6.405755E-3	1.997186E-2	9.047155E-3	5.510252E-3	8.479549E-3	7.026578E-3	1.131949E-2	1.426591E-2	1.011569E-2	1.841414E-2	5.641118E-3	2.087193E-2	9.197975E-3	1.650784E-2	1.886707E-2	2.263285E-2	7.234707E-3	7.490686E-3	6.166881E-3	1.850412E-2	8.953537E-3	8.635883E-3	6.126550E-3	1.097275E-2	1.729628E-2	7.095871E-3	1.369488E-2	1.006563E-2	1.793578E-2	1.801522E-2	1.057096E-2	8.786848E-3	1.409369E-2	1.156195E-2	1.095858E-2	1.120527E-2	7.504717E-3	9.983714E-3	1.189044E-2	1.029418E-2	1.126450E-2	1.728410E-2	1.109603E-2	1.690300E-2	1.675368E-2	1.572778E-2	1.430391E-2	1.356156E-2	5.387530E-3	3.836547E-3	1.768540E-3	1.243845E-2	9.848825E-3	2.033500E-3	7.896117E-3	5.640066E-3	1.528454E-2	1.389637E-2	1.427293E-2	1.211336E-2	1.647329E-2	2.373162E-2	1.082102E-2	1.737982E-2	7.208998E-3	1.530602E-2	6.464265E-3	2.091162E-3	1.473516E-2	1.080560E-2	1.358570E-2	1.823638E-2	9.895182E-3	6.398902E-4	6.455511E-3	1.827818E-2	2.799570E-3	1.335078E-2	1.746527E-2	5.243941E-3	8.078918E-3	8.947064E-3	1.063406E-2	1.096570E-2	1.047469E-2	1.485055E-2	1.353039E-2	1.290761E-2	1.139105E-2	1.103459E-2	6.976020E-3	1.796542E-2	9.317865E-3	1.149915E-2	4.022936E-3	1.220546E-2	1.313558E-2	2.145141E-2	8.798439E-3	1.597444E-2	4.472476E-3	3.304310E-3	1.469497E-2	1.187990E-2	1.215005E-2	8.019103E-3	1.136262E-2	1.543467E-2	2.351058E-2	1.268432E-2	1.670378E-2	1.412259E-2	9.043197E-3	7.411816E-4	5.431067E-4	7.738541E-3	1.382041E-2	8.751839E-3	5.655813E-3	1.432627E-2	5.404699E-3	1.408396E-2	1.328740E-2	2.350333E-2	3.363419E-3	4.674415E-4	1.442421E-2	1.704195E-2	1.633112E-2	5.751330E-3	9.874081E-3	1.512132E-2	5.356900E-3	1.329121E-2	6.199667E-3	1.085526E-2	1.277187E-2	1.301580E-2	1.178792E-2	1.784867E-2	7.602059E-3	1.445839E-2	1.868330E-2	6.565075E-3	5.402106E-3	8.036638E-3
2.840030E+2	2.860603E-2	3.522681E-2	2.384947E-2	3.144579E-2	2.606480E-2	2.500173E-2	2.854501E-2	3.159802E-2	2.549607E-2	2.701135E-2	2.223008E-2	3.498047E-2	2.323806E-2	2.327753E-2	1.495251E-2	1.919856E-2	2.691885E-2	2.462995E-2	2.574716E-2	3.108354E-2	2.260262E-2	3.149220E-2	2.707604E-2	2.526992E-2	4.602906E-2	1.517900E-2	2.344755E-2	1.409608E-2	3.331825E-2	1.332298E-2	3.756401E-2	2.600100E-2	2.429678E-2	2.979535E-2	2.838405E-2	1.966701E-2	1.609825E-2	2.546847E-2	2.771113E-2	2.530975E-2	9.968607E-3	2.404934E-2	3.104831E-2	2.291522E-2	2.412551E-2	1.792951E-2	3.091868E-2	2.423204E-2	2.975390E-2	4.569503E-2	1.594269E-2	1.738633E-2	3.220342E-2	2.864067E-2	3.336766E-2	2.454046E-2	3.043794E-2	3.247242E-2	3.254333E-2	7.842560E-3	2.669066E-2	3.223992E-2	2.732117E-2	2.779640E-2	2.145860E-2	2.639059E-2	2.563191E-2	1.349483E-2	3.151789E-2	3.256062E-2	1.948722E-2	2.488426E-2	2.790197E-2	3.926591E-2	1.677213E-2	2.169038E-2	2.315758E-2	1.914786E-2	2.278286E-2	2.509457E-2	1.003410E-2	2.856363E-2	1.550004E-2	1.726260E-2	2.807127E-2	1.733089E-2	3.280114E-2	2.003369E-2	2.381130E-2	3.164223E-2	3.233997E-2	2.201489E-2	3.063785E-2	2.461793E-2	2.809101E-2	2.231530E-2	1.462001E-2	1.792112E-2	2.033852E-2	2.000095E-2	2.320998E-2	2.436558E-2	3.120539E-2	2.839960E-2	2.593457E-2	2.310927E-2	3.049661E-2	2.786471E-2	3.405872E-2	2.981576E-2	1.939260E-2	2.982701E-2	2.224407E-2	2.669239E-2	2.127328E-2	2.618127E-2	2.462406E-2	2.311449E-2	2.746110E-2	2.934765E-2	2.406594E-2	2.768169E-2	2.497208E-2	3.313381E-2	2.304962E-2	1.853916E-2	3.229906E-2	2.481199E-2	2.024449E-2	2.158736E-2	2.690007E-2	2.013822E-2	3.173931E-2	9.876967E-3	3.150751E-2	2.418623E-2	2.296883E-2	2.460558E-2	2.440547E-2	3.236978E-2	3.162214E-2	3.205264E-2	2.056079E-2	2.786296E-2	3.133020E-2	2.013293E-2	3.211308E-2	2.709180E-2	3.677730E-2	1.118210E-2	2.341766E-2	2.736500E-2	3.598556E-2	3.146568E-2	2.299149E-2	1.946488E-2	2.600077E-2	2.304248E-2	1.968917E-2	5.565953E-3	2.736238E-2	2.940772E-2	2.272038E-2	2.535475E-2	3.113723E-2	3.801621E-2	2.383552E-2	2.690347E-2	2.886478E-2	1.559550E-2	2.046224E-2
2.841030E+2	3.647839E-2	2.481917E-2	2.942610E-2	2.356965E-2	3.780426E-2	2.934305E-2	2.343212E-2	1.424970E-2	2.345384E-2	3.742500E-2	1.581041E-2	2.433664E-2	2.203790E-2	3.068636E-2	4.229463E-2	2.115404E-2	2.628738E-2	2.105781E-2	2.239996E-2	1.085556E-2	1.819206E-2	3.097450E-2	2.538428E-2	1.973209E-2	2.524345E-2	2.037384E-2	3.234412E-2	1.989122E-2	1.918245E-2	3.115784E-2	2.777402E-2	2.996339E-2	1.277044E-2	2.128878E-2	1.437905E-2	2.199493E-2	2.600011E-2	2.913052E-2	1.734130E-2	2.543062E-2	3.189570E-2	2.487490E-2	2.792597E-2	2.025679E-2	3.540618E-2	3.317699E-2	2.341778E-2	2.695423E-2	1.973889E-2	2.589192E-2	2.485053E-2	2.496740E-2	3.034956E-2	2.025367E-2	2.403562E-2	2.338201E-2	2.698227E-2	1.742395E-2	2.991597E-2	1.347862E-2	3.219272E-2	2.711967E-2	2.940821E-2	2.424884E-2	2.473684E-2	1.542498E-2	2.783581E-2	4.444824E-2	2.132032E-2	2.915580E-2	2.750005E-2	2.573466E-2	2.335867E-2	3.448108E-2	2.498939E-2	2.114833E-2	1.508992E-2	3.535867E-2	1.502537E-2	2.779345E-2	1.013673E-2	2.792451E-2	2.778231E-2	1.718451E-2	2.666028E-2	1.382231E-2	2.851888E-2	3.001385E-2	2.165786E-2	2.737082E-2	2.958745E-2	2.189317E-2	1.354365E-2	2.406691E-2	2.539019E-2	2.064313E-2	3.749045E-2	1.804327E-2	2.520485E-2	2.649134E-2	2.889421E-2	2.800100E-2	2.413162E-2	2.166372E-2	1.224285E-2	2.776691E-2	1.457247E-2	2.374227E-2	2.534316E-2	3.213961E-2	3.475607E-2	2.603816E-2	2.244432E-2	1.720312E-2	2.214657E-2	2.098738E-2	2.625365E-2	2.806737E-2	3.496942E-2	3.388174E-2	1.256655E-2	1.984441E-2	2.378618E-2	2.596954E-2	1.947397E-2	3.831612E-2	2.459423E-2	1.947589E-2	2.126729E-2	3.965850E-2	3.233298E-2	2.587170E-2	3.340395E-2	2.655536E-2	2.231041E-2	3.294000E-2	2.166493E-2	2.555311E-2	3.318304E-2	3.139613E-2	3.703039E-2	2.105256E-2	3.039809E-2	2.219667E-2	2.561927E-2	1.128745E-2	2.928656E-2	2.640351E-2	1.838789E-2	2.187190E-2	2.292691E-2	1.885729E-2	2.858953E-2	3.541694E-2	2.729085E-2	2.102111E-2	2.165104E-2	2.461531E-2	1.670712E-2	2.403819E-2	2.761245E-2	3.107032E-2	3.323740E-2	2.799322E-2	2.586540E-2	3.060919E-2	2.399481E-2	2.094709E-2	2.377927E-2	3.936670E-2	1.133366E-2
2.842040E+2	3.762534E-2	3.459162E-2	3.657737E-2	3.089909E-2	3.486002E-2	3.283374E-2	4.605525E-2	3.116447E-2	3.807191E-2	2.089563E-2	2.313780E-2	2.783561E-2	2.945016E-2	4.907074E-2	4.014068E-2	2.982445E-2	3.845947E-2	3.227045E-2	3.366877E-2	3.286334E-2	4.492118E-2	3.780923E-2	3.834343E-2	4.007042E-2	3.078936E-2	2.630253E-2	4.667575E-2	2.996922E-2	2.078057E-2	4.085610E-2	2.290834E-2	3.774640E-2	3.449824E-2	3.398111E-2	4.138625E-2	4.275306E-2	3.943673E-2	3.498286E-2	3.503131E-2	4.210436E-2	3.060209E-2	3.590301E-2	3.394377E-2	2.315268E-2	3.621695E-2	3.192087E-2	4.260891E-2	4.251170E-2	3.766553E-2	4.600460E-2	3.291376E-2	3.781509E-2	3.654315E-2	3.686879E-2	2.545427E-2	2.999644E-2	4.067528E-2	3.587417E-2	3.986022E-2	3.713050E-2	3.650701E-2	3.387036E-2	4.174375E-2	2.501803E-2	3.678532E-2	3.541920E-2	2.593505E-2	4.027112E-2	3.961009E-2	4.237756E-2	4.105069E-2	2.729766E-2	4.546857E-2	3.547444E-2	4.405545E-2	3.031097E-2	4.228077E-2	3.097394E-2	4.504578E-2	2.670042E-2	3.721586E-2	3.351853E-2	3.877704E-2	4.581924E-2	3.708511E-2	3.732927E-2	3.637859E-2	4.564890E-2	4.500245E-2	3.949103E-2	3.933561E-2	2.984888E-2	3.519568E-2	4.241858E-2	3.200908E-2	3.607732E-2	4.788277E-2	2.453610E-2	3.560715E-2	4.682090E-2	3.456009E-2	3.026046E-2	3.023280E-2	3.596615E-2	3.976157E-2	2.796149E-2	3.357325E-2	3.108822E-2	4.161627E-2	2.443000E-2	4.701482E-2	2.550303E-2	4.869500E-2	2.938182E-2	3.101619E-2	3.994211E-2	4.099221E-2	3.579462E-2	3.638035E-2	2.146731E-2	5.209254E-2	5.195685E-2	3.688416E-2	3.407663E-2	3.679684E-2	2.936349E-2	3.135834E-2	3.487042E-2	3.801324E-2	3.982576E-2	3.399891E-2	3.114321E-2	4.319273E-2	3.362499E-2	3.320933E-2	4.203921E-2	3.305752E-2	5.213868E-2	3.695014E-2	3.664358E-2	4.819121E-2	3.030595E-2	3.888772E-2	3.951251E-2	2.832410E-2	4.245626E-2	3.994787E-2	3.549283E-2	4.188563E-2	3.402425E-2	4.411739E-2	3.220373E-2	4.627944E-2	4.014481E-2	2.609303E-2	3.244928E-2	3.911630E-2	4.248119E-2	4.592596E-2	4.340274E-2	3.050829E-2	3.651034E-2	3.564387E-2	4.471280E-2	4.164812E-2	4.220949E-2	3.202945E-2	4.459019E-2	1.490577E-2	2.603520E-2	3.007735E-2
2.843030E+2	6.398698E-2	4.796148E-2	5.319310E-2	3.989289E-2	4.594601E-2	5.758401E-2	5.526432E-2	4.326023E-2	5.426271E-2	5.203785E-2	5.883270E-2	4.561160E-2	4.231297E-2	5.292848E-2	4.149430E-2	4.346384E-2	4.929699E-2	5.544256E-2	4.780950E-2	4.286232E-2	4.646213E-2	6.351928E-2	4.771444E-2	4.975816E-2	5.510605E-2	6.439739E-2	4.890419E-2	6.368584E-2	5.488727E-2	6.776502E-2	5.876011E-2	5.774479E-2	5.386767E-2	3.413346E-2	4.297848E-2	6.438496E-2	4.804852E-2	4.223933E-2	4.872939E-2	4.866305E-2	5.348508E-2	4.925754E-2	4.989396E-2	5.548122E-2	5.250558E-2	5.143223E-2	4.535785E-2	5.241174E-2	5.191494E-2	6.160578E-2	6.028424E-2	5.524043E-2	5.148960E-2	4.133074E-2	4.665362E-2	4.123097E-2	5.021568E-2	5.527406E-2	6.110849E-2	4.498498E-2	5.900599E-2	6.329570E-2	4.709975E-2	5.807508E-2	4.808959E-2	6.347550E-2	4.957966E-2	5.712172E-2	5.650127E-2	6.203830E-2	6.015201E-2	5.612247E-2	4.958412E-2	4.725739E-2	5.238981E-2	4.503789E-2	5.600773E-2	4.965935E-2	4.463852E-2	4.924118E-2	5.174458E-2	5.239941E-2	5.477290E-2	6.581799E-2	5.310481E-2	4.337678E-2	4.683441E-2	5.826649E-2	5.612467E-2	4.567666E-2	4.909743E-2	5.140144E-2	5.625684E-2	4.541852E-2	5.521283E-2	5.031042E-2	5.358627E-2	5.577325E-2	5.155253E-2	5.863244E-2	6.371355E-2	5.069881E-2	6.487365E-2	4.232896E-2	5.033682E-2	5.448952E-2	5.673317E-2	5.652258E-2	7.625772E-2	5.690875E-2	6.061845E-2	4.480634E-2	4.043028E-2	5.613917E-2	5.161085E-2	7.271626E-2	5.068580E-2	5.115961E-2	3.595125E-2	5.503862E-2	5.939346E-2	4.853592E-2	4.526984E-2	5.567545E-2	4.166835E-2	4.362463E-2	6.204016E-2	4.135012E-2	4.901822E-2	4.470671E-2	6.295650E-2	4.767831E-2	6.936164E-2	5.184919E-2	5.630577E-2	5.530114E-2	4.846587E-2	4.846297E-2	5.949042E-2	5.620190E-2	5.131858E-2	4.663632E-2	5.297815E-2	6.679922E-2	5.917664E-2	4.181566E-2	6.346863E-2	6.534876E-2	5.454908E-2	4.340530E-2	5.223711E-2	4.977227E-2	7.337733E-2	5.927076E-2	4.355648E-2	4.433246E-2	3.615900E-2	5.261473E-2	5.375246E-2	4.694892E-2	3.676649E-2	5.031469E-2	4.325968E-2	5.463955E-2	3.792371E-2	5.069536E-2	7.530285E-2	5.699468E-2	6.137132E-2	4.657370E-2	4.578370E-2
2.844010E+2	7.991120E-2	7.198903E-2	8.247323E-2	8.201922E-2	7.970048E-2	7.820029E-2	1.165902E-1	9.348687E-2	8.075228E-2	1.040699E-1	8.284718E-2	6.756759E-2	8.594620E-2	8.837047E-2	7.381005E-2	7.868811E-2	7.605705E-2	7.872867E-2	9.428699E-2	7.876459E-2	7.346574E-2	9.747387E-2	7.375755E-2	8.875301E-2	8.034612E-2	7.343384E-2	8.105862E-2	7.252486E-2	8.390693E-2	9.344622E-2	7.282425E-2	9.130811E-2	8.341514E-2	7.700227E-2	9.159220E-2	8.242142E-2	8.209993E-2	1.021701E-1	8.845429E-2	7.315531E-2	9.551879E-2	8.253725E-2	7.253769E-2	8.867425E-2	8.088100E-2	8.560194E-2	9.105811E-2	7.470316E-2	1.001250E-1	8.346418E-2	7.971361E-2	9.231212E-2	8.064917E-2	8.799231E-2	8.714191E-2	8.182497E-2	7.643161E-2	9.086488E-2	9.510605E-2	7.798531E-2	9.262168E-2	6.202337E-2	1.078764E-1	8.568589E-2	9.481999E-2	8.682622E-2	8.650857E-2	9.532010E-2	8.815615E-2	8.598038E-2	7.262398E-2	8.236886E-2	7.899631E-2	7.906191E-2	7.976640E-2	6.957082E-2	9.022416E-2	9.161153E-2	7.984208E-2	7.575156E-2	7.079534E-2	9.172379E-2	8.167166E-2	6.977024E-2	8.200762E-2	8.101539E-2	8.308274E-2	8.338560E-2	9.208698E-2	9.668029E-2	7.518939E-2	8.581611E-2	6.835433E-2	8.713842E-2	1.052478E-1	7.422915E-2	8.540002E-2	6.957282E-2	6.917619E-2	7.922082E-2	8.609251E-2	8.947398E-2	8.174339E-2	7.099529E-2	8.628666E-2	7.509389E-2	7.323923E-2	8.715553E-2	1.004995E-1	8.740020E-2	8.771687E-2	6.900946E-2	8.126030E-2	7.656269E-2	7.230965E-2	7.904465E-2	7.803233E-2	7.767976E-2	8.365764E-2	7.579073E-2	9.760245E-2	7.720262E-2	8.523817E-2	9.886862E-2	8.818271E-2	8.057837E-2	8.690224E-2	8.371160E-2	7.175929E-2	8.734303E-2	8.066578E-2	9.478016E-2	1.016243E-1	1.063905E-1	7.479905E-2	8.312049E-2	6.556050E-2	8.462791E-2	7.273859E-2	8.051463E-2	7.639574E-2	9.194425E-2	8.175941E-2	1.035248E-1	7.049170E-2	6.828575E-2	8.861233E-2	9.064990E-2	9.073609E-2	8.620593E-2	6.899409E-2	8.017813E-2	1.075653E-1	1.035723E-1	8.888346E-2	8.416401E-2	8.251613E-2	9.554401E-2	7.876606E-2	9.204100E-2	7.722853E-2	9.078391E-2	8.821448E-2	9.279923E-2	6.866343E-2	7.008721E-2	1.044021E-1	8.640647E-2	8.016794E-2	1.029865E-1	5.220971E-2
2.845030E+2	1.247202E-1	1.156577E-1	1.245384E-1	1.251944E-1	1.152251E-1	1.279478E-1	1.169820E-1	1.284821E-1	1.149109E-1	1.189763E-1	1.295804E-1	1.306454E-1	1.297181E-1	1.303807E-1	1.152025E-1	1.247135E-1	1.147629E-1	1.227708E-1	1.207170E-1	1.241119E-1	1.037360E-1	1.338794E-1	1.283435E-1	1.191251E-1	1.346923E-1	1.053289E-1	1.154900E-1	9.225003E-2	1.305957E-1	1.234598E-1	1.223384E-1	1.174249E-1	1.249076E-1	1.169798E-1	1.291469E-1	1.006213E-1	1.333577E-1	1.053439E-1	1.089247E-1	1.304717E-1	1.057207E-1	1.243427E-1	1.239726E-1	1.088593E-1	1.230155E-1	1.118291E-1	1.218087E-1	9.716392E-2	1.172451E-1	1.126029E-1	1.112670E-1	1.199755E-1	1.146631E-1	1.249711E-1	1.164009E-1	1.031302E-1	1.057881E-1	1.074650E-1	1.216488E-1	1.309693E-1	1.244313E-1	1.114870E-1	9.273444E-2	1.147291E-1	1.126541E-1	1.127782E-1	1.138845E-1	1.297053E-1	1.248279E-1	1.337775E-1	1.053686E-1	1.201925E-1	1.092625E-1	1.252074E-1	1.092388E-1	1.149761E-1	1.292300E-1	9.792682E-2	1.206354E-1	1.178203E-1	1.179710E-1	1.171299E-1	1.193403E-1	1.391506E-1	1.380832E-1	1.276582E-1	1.182179E-1	1.123709E-1	1.271281E-1	1.266164E-1	1.315459E-1	1.066678E-1	1.240405E-1	1.213003E-1	1.236658E-1	1.322967E-1	1.151614E-1	1.226812E-1	1.183360E-1	1.097995E-1	1.135064E-1	1.109326E-1	1.153603E-1	1.029232E-1	1.291256E-1	1.185156E-1	1.285704E-1	1.005234E-1	1.121313E-1	1.520241E-1	1.367821E-1	1.071214E-1	1.138104E-1	1.359951E-1	1.173409E-1	1.303785E-1	1.275875E-1	1.390589E-1	1.062703E-1	1.213794E-1	1.193293E-1	1.300568E-1	1.213197E-1	1.261480E-1	1.286485E-1	1.156158E-1	1.139265E-1	1.425368E-1	1.097081E-1	1.254894E-1	1.190342E-1	1.256840E-1	1.288462E-1	1.298347E-1	1.361332E-1	1.062737E-1	1.359925E-1	1.374789E-1	1.259712E-1	1.143432E-1	1.251144E-1	1.262146E-1	1.260962E-1	1.203843E-1	1.316129E-1	1.039547E-1	1.078590E-1	1.239515E-1	1.420274E-1	1.150656E-1	1.137257E-1	1.013653E-1	1.131426E-1	1.223675E-1	1.170760E-1	1.036227E-1	1.306917E-1	1.260223E-1	1.224290E-1	1.159224E-1	1.126413E-1	1.262190E-1	1.177087E-1	1.386368E-1	1.208189E-1	1.223082E-1	1.365908E-1	1.160185E-1	1.496720E-1	1.307107E-1	1.212129E-1
2.846060E+2	2.434978E-1	2.384863E-1	2.323140E-1	2.293468E-1	2.363933E-1	2.146077E-1	2.022801E-1	2.061052E-1	2.281672E-1	1.998825E-1	2.276851E-1	2.131983E-1	2.137592E-1	2.362335E-1	1.915361E-1	2.075615E-1	2.151509E-1	1.999304E-1	2.291338E-1	2.210006E-1	2.106708E-1	2.114481E-1	2.104812E-1	2.322153E-1	2.447104E-1	2.092599E-1	2.096277E-1	1.913773E-1	2.282486E-1	2.033816E-1	2.013787E-1	2.155290E-1	2.022745E-1	2.145847E-1	2.287449E-1	1.974837E-1	2.177724E-1	2.030352E-1	2.213778E-1	2.095404E-1	2.077072E-1	2.335796E-1	2.071110E-1	2.085245E-1	2.245576E-1	2.198622E-1	2.111665E-1	2.065341E-1	2.142468E-1	2.121257E-1	1.882077E-1	1.897316E-1	2.210854E-1	2.150666E-1	1.964989E-1	2.224867E-1	2.020440E-1	2.231817E-1	2.065909E-1	2.111695E-1	1.967504E-1	2.402491E-1	2.175004E-1	2.258969E-1	2.103315E-1	2.359579E-1	2.187044E-1	2.058704E-1	2.405950E-1	2.471282E-1	2.230960E-1	2.328184E-1	2.188703E-1	2.125805E-1	2.144389E-1	2.260332E-1	2.138679E-1	2.143593E-1	2.343527E-1	2.181178E-1	2.270841E-1	2.172793E-1	2.264386E-1	2.110573E-1	2.198949E-1	2.321265E-1	2.195515E-1	2.134165E-1	1.912450E-1	2.025616E-1	2.302222E-1	2.099808E-1	2.199967E-1	2.193174E-1	2.096263E-1	2.370516E-1	1.950846E-1	1.953170E-1	2.254634E-1	2.394405E-1	2.120386E-1	2.255066E-1	2.380731E-1	2.221604E-1	2.223451E-1	2.054202E-1	2.209989E-1	2.355070E-1	2.053485E-1	2.017503E-1	2.214811E-1	2.226974E-1	2.154691E-1	2.119771E-1	2.170228E-1	2.263126E-1	2.157118E-1	2.146911E-1	2.177859E-1	2.133158E-1	2.359444E-1	2.270496E-1	2.230700E-1	2.245355E-1	1.985082E-1	2.297460E-1	2.447786E-1	2.236134E-1	2.292594E-1	2.144303E-1	2.271102E-1	2.400557E-1	2.407849E-1	2.304663E-1	2.215832E-1	2.253076E-1	2.116136E-1	2.401326E-1	2.209360E-1	2.319772E-1	2.197019E-1	2.159761E-1	2.169182E-1	2.028168E-1	2.583823E-1	2.290638E-1	2.274194E-1	1.975915E-1	2.242445E-1	2.270333E-1	2.059360E-1	2.191535E-1	2.341918E-1	2.180167E-1	2.040561E-1	2.014365E-1	2.310657E-1	2.199749E-1	2.206744E-1	1.877861E-1	2.222427E-1	2.284837E-1	2.171274E-1	2.228297E-1	2.331340E-1	2.026459E-1	2.356249E-1	2.366096E-1	2.141643E-1	1.915967E-1	2.406978E-1
2.847000E+2	4.838310E-1	4.454809E-1	4.252829E-1	4.542703E-1	4.690230E-1	4.301314E-1	4.263416E-1	3.963671E-1	4.707812E-1	4.251217E-1	4.507859E-1	4.388372E-1	4.285198E-1	4.395536E-1	4.622044E-1	4.402627E-1	4.266924E-1	4.732611E-1	4.165222E-1	4.401482E-1	4.361086E-1	4.874938E-1	4.078923E-1	4.452703E-1	4.820008E-1	4.428807E-1	4.241921E-1	4.195171E-1	4.054605E-1	4.230859E-1	4.323587E-1	4.901385E-1	4.108655E-1	4.547728E-1	4.726365E-1	4.241973E-1	4.300257E-1	4.367385E-1	4.590224E-1	4.365297E-1	4.435603E-1	4.901755E-1	4.132870E-1	4.846254E-1	4.505533E-1	4.435766E-1	4.287464E-1	4.208442E-1	4.316528E-1	4.540984E-1	4.064850E-1	4.325380E-1	4.528084E-1	4.409049E-1	4.407990E-1	4.229794E-1	4.562936E-1	4.788678E-1	4.684732E-1	4.333953E-1	4.985052E-1	4.469999E-1	4.325399E-1	4.330880E-1	4.744012E-1	4.328927E-1	4.273906E-1	4.482140E-1	4.319795E-1	4.583926E-1	4.345276E-1	4.384505E-1	4.504174E-1	4.546561E-1	4.466171E-1	4.175347E-1	4.671178E-1	4.121739E-1	4.136543E-1	4.372736E-1	4.291846E-1	4.407707E-1	4.103987E-1	4.675094E-1	4.766077E-1	4.496213E-1	4.531938E-1	4.367029E-1	4.579285E-1	4.299176E-1	4.530166E-1	4.507614E-1	4.608178E-1	4.278311E-1	4.306119E-1	4.185800E-1	4.500341E-1	4.406271E-1	4.541391E-1	3.880579E-1	4.883862E-1	4.587624E-1	4.492980E-1	4.437940E-1	4.548819E-1	4.975321E-1	4.362844E-1	3.996348E-1	4.397381E-1	4.470952E-1	4.813925E-1	4.364112E-1	4.293850E-1	4.691654E-1	4.684167E-1	4.644501E-1	4.499283E-1	4.226347E-1	4.501074E-1	4.216731E-1	4.616866E-1	4.457140E-1	4.304510E-1	4.123638E-1	4.578441E-1	4.770281E-1	4.273274E-1	4.298428E-1	4.654997E-1	4.281875E-1	4.367766E-1	4.251390E-1	4.313259E-1	4.742403E-1	4.534098E-1	4.695153E-1	4.610468E-1	4.638658E-1	4.184422E-1	4.450023E-1	4.394008E-1	4.462052E-1	4.521932E-1	4.587850E-1	4.374171E-1	4.599444E-1	4.252131E-1	4.705718E-1	4.266858E-1	4.433794E-1	4.687180E-1	4.302724E-1	4.636450E-1	4.559684E-1	4.441388E-1	4.463044E-1	4.447792E-1	4.616916E-1	4.496239E-1	4.296588E-1	4.515512E-1	4.815075E-1	4.516884E-1	4.346762E-1	4.345000E-1	4.569288E-1	5.211380E-1	4.470316E-1	4.769283E-1	4.746331E-1	4.079264E-1
2.848020E+2	8.635263E-1	8.351178E-1	8.800854E-1	8.910813E-1	9.162213E-1	8.516639E-1	8.884289E-1	8.566544E-1	8.656091E-1	9.112391E-1	8.532405E-1	8.738440E-1	8.572508E-1	8.901721E-1	8.241019E-1	8.296540E-1	8.427439E-1	8.439844E-1	8.132207E-1	9.139260E-1	8.713486E-1	8.447883E-1	8.055041E-1	7.879961E-1	8.951916E-1	9.057611E-1	8.940706E-1	8.180560E-1	8.760141E-1	8.793337E-1	8.534057E-1	8.549855E-1	8.314401E-1	8.351951E-1	8.404510E-1	8.447214E-1	8.658134E-1	8.831392E-1	8.289906E-1	8.516003E-1	7.982735E-1	8.350767E-1	8.335508E-1	9.103044E-1	8.891642E-1	8.329966E-1	8.775154E-1	8.444096E-1	8.376742E-1	8.782823E-1	8.793616E-1	8.805263E-1	8.490837E-1	8.923534E-1	8.781725E-1	8.824484E-1	8.616693E-1	8.913519E-1	8.531427E-1	8.188133E-1	8.599804E-1	8.790313E-1	8.261691E-1	8.109651E-1	8.759831E-1	9.086039E-1	7.948010E-1	8.480994E-1	8.534066E-1	8.681389E-1	8.376817E-1	8.585203E-1	8.626238E-1	8.374552E-1	8.839378E-1	8.632007E-1	8.048358E-1	8.767512E-1	8.655872E-1	8.483707E-1	8.516293E-1	8.295932E-1	8.587517E-1	8.786568E-1	8.417450E-1	8.731287E-1	8.906795E-1	8.337049E-1	8.520779E-1	8.617611E-1	8.711894E-1	8.434892E-1	8.676102E-1	8.644426E-1	8.263321E-1	8.240123E-1	8.518020E-1	8.284639E-1	8.853058E-1	8.918813E-1	8.635967E-1	8.648470E-1	8.601121E-1	8.589550E-1	8.730112E-1	8.667507E-1	8.426480E-1	7.951767E-1	8.193536E-1	8.553506E-1	8.669127E-1	8.107358E-1	8.119197E-1	8.999058E-1	8.645534E-1	8.412503E-1	8.490484E-1	9.144175E-1	8.504745E-1	8.524759E-1	8.085710E-1	8.972145E-1	8.558746E-1	8.136060E-1	8.420933E-1	8.828082E-1	8.496490E-1	8.538775E-1	9.364344E-1	8.900262E-1	8.516284E-1	8.457105E-1	9.244598E-1	8.657672E-1	8.607750E-1	8.496183E-1	8.497275E-1	8.530111E-1	7.953005E-1	8.553772E-1	8.413269E-1	8.564537E-1	8.760443E-1	8.034859E-1	8.564405E-1	8.845075E-1	8.596960E-1	8.674881E-1	8.749873E-1	8.755217E-1	8.405387E-1	8.507682E-1	8.574849E-1	8.905783E-1	8.692818E-1	8.778575E-1	8.626733E-1	8.214464E-1	8.687666E-1	8.346465E-1	8.782818E-1	8.263901E-1	8.471805E-1	8.182789E-1	8.513390E-1	8.406134E-1	9.100010E-1	8.410318E-1	8.145233E-1	9.108087E-1	8.593737E-1
2.849010E+2	1.083314E+0	1.102373E+0	1.021331E+0	1.032832E+0	1.041660E+0	1.058419E+0	1.054075E+0	1.015871E+0	1.040548E+0	1.087302E+0	9.806146E-1	1.007099E+0	1.000213E+0	1.032320E+0	1.029751E+0	1.070807E+0	1.041724E+0	1.082891E+0	1.030023E+0	1.020188E+0	1.053249E+0	1.031324E+0	1.008666E+0	1.040359E+0	1.066552E+0	1.031396E+0	1.014227E+0	1.000095E+0	1.056858E+0	1.065917E+0	1.070715E+0	1.016828E+0	9.955406E-1	1.016458E+0	9.673398E-1	1.025909E+0	1.015176E+0	1.077329E+0	1.018141E+0	1.043502E+0	1.005013E+0	9.720386E-1	1.025900E+0	9.839324E-1	1.018522E+0	1.042525E+0	1.075382E+0	1.046262E+0	9.989930E-1	9.704323E-1	1.058196E+0	1.022681E+0	1.039037E+0	1.054738E+0	1.023658E+0	1.000319E+0	1.049695E+0	1.068672E+0	1.033357E+0	1.037703E+0	1.048401E+0	1.076424E+0	1.049123E+0	1.022019E+0	1.042362E+0	1.050158E+0	1.058916E+0	1.007130E+0	1.022806E+0	1.018071E+0	9.828827E-1	1.029656E+0	9.742399E-1	1.042797E+0	1.062520E+0	1.014885E+0	1.035012E+0	1.024564E+0	1.003836E+0	1.007009E+0	1.057154E+0	1.089505E+0	9.945538E-1	1.066419E+0	1.060489E+0	1.032676E+0	1.091924E+0	1.053979E+0	1.054464E+0	1.003929E+0	1.032043E+0	1.046415E+0	1.038728E+0	1.034608E+0	1.018775E+0	1.072703E+0	1.037675E+0	1.003111E+0	1.057014E+0	1.049770E+0	1.013551E+0	1.030865E+0	1.021169E+0	1.021740E+0	1.074559E+0	1.039859E+0	1.005291E+0	1.014585E+0	1.016735E+0	1.043882E+0	1.042692E+0	1.009783E+0	1.006050E+0	1.072472E+0	9.818659E-1	9.867408E-1	9.828573E-1	1.036264E+0	1.024064E+0	1.019275E+0	1.038538E+0	1.036752E+0	1.013327E+0	1.051328E+0	1.023979E+0	1.077305E+0	1.028152E+0	1.016537E+0	1.042783E+0	1.062801E+0	1.033949E+0	1.030086E+0	1.066480E+0	1.124535E+0	1.079147E+0	1.061139E+0	1.007410E+0	1.080190E+0	1.033435E+0	1.003294E+0	1.063034E+0	1.019551E+0	1.054330E+0	1.062307E+0	1.106039E+0	1.053193E+0	1.021115E+0	1.057764E+0	1.015113E+0	1.023346E+0	9.998483E-1	9.606762E-1	1.004788E+0	1.034883E+0	9.834916E-1	1.036427E+0	1.073339E+0	1.021076E+0	1.032518E+0	9.959783E-1	1.054144E+0	1.040434E+0	1.002075E+0	9.857626E-1	1.064630E+0	9.656203E-1	1.019101E+0	1.062429E+0	9.576226E-1	1.027434E+0	1.006890E+0
2.850030E+2	9.721732E-1	9.984872E-1	9.790841E-1	9.248796E-1	1.019671E+0	9.833275E-1	9.901070E-1	9.467430E-1	9.541294E-1	9.668485E-1	9.751754E-1	9.282339E-1	9.095934E-1	1.020690E+0	9.655067E-1	9.212933E-1	9.403456E-1	9.640662E-1	9.503002E-1	1.010203E+0	9.632481E-1	9.445643E-1	9.919013E-1	9.282754E-1	9.960609E-1	9.760239E-1	9.442979E-1	9.300409E-1	9.472969E-1	9.430999E-1	9.702911E-1	9.821750E-1	9.280442E-1	9.640385E-1	9.930447E-1	9.429615E-1	9.682647E-1	9.645402E-1	9.270524E-1	9.251803E-1	9.451344E-1	9.754256E-1	9.458955E-1	9.484006E-1	9.421422E-1	9.710457E-1	9.797575E-1	9.759461E-1	9.535210E-1	9.477374E-1	9.094560E-1	9.853143E-1	9.545238E-1	1.048342E+0	9.432134E-1	9.813984E-1	9.118128E-1	9.788068E-1	1.030019E+0	9.761018E-1	9.580369E-1	9.632761E-1	9.811364E-1	9.577988E-1	9.230592E-1	9.683036E-1	9.623341E-1	8.948483E-1	9.334509E-1	9.146865E-1	9.398372E-1	9.382527E-1	9.726622E-1	9.500178E-1	9.154056E-1	9.371417E-1	9.563047E-1	1.000259E+0	9.591974E-1	9.885095E-1	9.972184E-1	9.876860E-1	9.899622E-1	9.521021E-1	9.389958E-1	1.008040E+0	9.787924E-1	9.781091E-1	9.252600E-1	9.794910E-1	9.631215E-1	8.952987E-1	9.572447E-1	9.655176E-1	9.740124E-1	9.495734E-1	9.392070E-1	9.843688E-1	9.597605E-1	9.675317E-1	9.581940E-1	9.695218E-1	1.050646E+0	9.159950E-1	9.444765E-1	9.785632E-1	9.690010E-1	9.623205E-1	9.401191E-1	9.612763E-1	9.308189E-1	9.430285E-1	9.167624E-1	9.819203E-1	9.445692E-1	9.432243E-1	9.924131E-1	9.881021E-1	9.582394E-1	9.694331E-1	9.772335E-1	9.618985E-1	9.487661E-1	9.389891E-1	9.351315E-1	1.034555E+0	9.630122E-1	9.731004E-1	9.872267E-1	9.427853E-1	9.065579E-1	9.440846E-1	9.946851E-1	1.045082E+0	1.012438E+0	1.019539E+0	9.587746E-1	1.012616E+0	9.402850E-1	9.689929E-1	9.487525E-1	1.003977E+0	9.796638E-1	9.643905E-1	9.337492E-1	9.736238E-1	1.022504E+0	9.677084E-1	9.504317E-1	9.440083E-1	8.956444E-1	9.268346E-1	9.042063E-1	9.596064E-1	9.703941E-1	9.745729E-1	9.817142E-1	9.319912E-1	9.363344E-1	9.308145E-1	9.440169E-1	9.459046E-1	9.486810E-1	9.807691E-1	9.234630E-1	9.412856E-1	9.732429E-1	9.403855E-1	9.939482E-1	8.759420E-1	9.689817E-1
2.851000E+2	7.308465E-1	7.805301E-1	7.831416E-1	8.063517E-1	7.981682E-1	7.789825E-1	8.090153E-1	7.848457E-1	8.036374E-1	8.050812E-1	7.840153E-1	8.095672E-1	7.748498E-1	8.128198E-1	8.032130E-1	7.349516E-1	7.924960E-1	8.243442E-1	7.796430E-1	8.216223E-1	7.834977E-1	7.845836E-1	8.138106E-1	8.059021E-1	8.321632E-1	8.067230E-1	7.450091E-1	7.291269E-1	7.735343E-1	8.243407E-1	8.055841E-1	8.212597E-1	7.831662E-1	8.184568E-1	7.857592E-1	7.900819E-1	7.989181E-1	7.703089E-1	7.703443E-1	8.292882E-1	7.857269E-1	8.411705E-1	8.395989E-1	8.152960E-1	8.389944E-1	8.080158E-1	7.522766E-1	7.489717E-1	7.502448E-1	7.701718E-1	8.013329E-1	8.126926E-1	8.051060E-1	8.136894E-1	8.409055E-1	7.616497E-1	7.864706E-1	7.565605E-1	7.781075E-1	8.003660E-1	8.277089E-1	7.786654E-1	7.988024E-1	8.108996E-1	8.487554E-1	8.270295E-1	8.055974E-1	7.933077E-1	7.804607E-1	7.791599E-1	8.012380E-1	7.831283E-1	8.086198E-1	8.322638E-1	7.732471E-1	7.302808E-1	7.691609E-1	7.554042E-1	7.985347E-1	7.475749E-1	8.145945E-1	8.027601E-1	8.228767E-1	7.864819E-1	7.880496E-1	8.280286E-1	8.238134E-1	7.917274E-1	8.313936E-1	7.880765E-1	8.050677E-1	8.476887E-1	7.539981E-1	8.010256E-1	7.879196E-1	7.843756E-1	8.110246E-1	8.590734E-1	8.015533E-1	8.329528E-1	7.961594E-1	8.391614E-1	7.792246E-1	7.820996E-1	7.821776E-1	7.524034E-1	8.307609E-1	7.382608E-1	7.673397E-1	8.235175E-1	7.991348E-1	8.028470E-1	7.499527E-1	7.990972E-1	7.779042E-1	7.690636E-1	8.223935E-1	7.903266E-1	7.991684E-1	7.955001E-1	8.228186E-1	8.265756E-1	7.879026E-1	8.154777E-1	8.239436E-1	8.349075E-1	8.002245E-1	8.051187E-1	7.602705E-1	7.859724E-1	8.432796E-1	8.175513E-1	8.009457E-1	8.619214E-1	8.396208E-1	8.000385E-1	8.065567E-1	8.129841E-1	8.117494E-1	7.624324E-1	8.216143E-1	8.285689E-1	8.226801E-1	8.153978E-1	7.787277E-1	8.181270E-1	7.693072E-1	7.932781E-1	7.739358E-1	7.417841E-1	7.558904E-1	8.132729E-1	7.958796E-1	7.844394E-1	7.868933E-1	7.945680E-1	8.081762E-1	7.861930E-1	8.113176E-1	8.179545E-1	7.797778E-1	8.036308E-1	7.995307E-1	7.508471E-1	7.975484E-1	7.385299E-1	8.198661E-1	8.222253E-1	7.521191E-1	8.052859E-1	8.276139E-1
2.852010E+2	5.775730E-1	5.877285E-1	6.029001E-1	4.980328E-1	5.857145E-1	5.881802E-1	6.153101E-1	5.578725E-1	5.873977E-1	5.805466E-1	5.099118E-1	5.633051E-1	5.369388E-1	5.909856E-1	5.784795E-1	5.623218E-1	5.789963E-1	5.379961E-1	5.756496E-1	5.902453E-1	5.503365E-1	5.580597E-1	5.490991E-1	5.235039E-1	5.984211E-1	5.610081E-1	5.564089E-1	5.381937E-1	5.278542E-1	5.833737E-1	5.647800E-1	5.222616E-1	5.019715E-1	5.705471E-1	5.519674E-1	5.503377E-1	5.350307E-1	5.901409E-1	5.287494E-1	5.434880E-1	5.536036E-1	5.316907E-1	5.023972E-1	5.370006E-1	5.755273E-1	5.472344E-1	5.575755E-1	5.187453E-1	5.454182E-1	5.530674E-1	5.619059E-1	5.657191E-1	5.648099E-1	5.850478E-1	5.378447E-1	5.433412E-1	5.516106E-1	5.556079E-1	5.622273E-1	5.482699E-1	6.057889E-1	5.580364E-1	5.431758E-1	5.597750E-1	5.545311E-1	5.483176E-1	5.159021E-1	5.716780E-1	5.626060E-1	5.400086E-1	5.603502E-1	5.545882E-1	5.579344E-1	5.468727E-1	5.720568E-1	5.379505E-1	5.556105E-1	5.150422E-1	5.774776E-1	5.670371E-1	5.781968E-1	5.643408E-1	5.586293E-1	5.519956E-1	5.382428E-1	5.145863E-1	5.870325E-1	5.517326E-1	5.687823E-1	5.854808E-1	5.218045E-1	5.357641E-1	5.401291E-1	5.870252E-1	5.489768E-1	5.611520E-1	5.474200E-1	5.757911E-1	5.826615E-1	5.209876E-1	5.809835E-1	5.576109E-1	5.643597E-1	5.375755E-1	5.648194E-1	5.397603E-1	5.621081E-1	5.313781E-1	5.639354E-1	5.780623E-1	5.745820E-1	5.174835E-1	5.256239E-1	5.426208E-1	5.547383E-1	5.844840E-1	5.429742E-1	5.596585E-1	5.573840E-1	5.480862E-1	5.854755E-1	5.802189E-1	5.459486E-1	5.725673E-1	5.635689E-1	5.313540E-1	5.812679E-1	5.606267E-1	5.533589E-1	5.327769E-1	5.831374E-1	5.086531E-1	5.640497E-1	5.775688E-1	5.707319E-1	5.703162E-1	5.989405E-1	5.678156E-1	5.593738E-1	5.224771E-1	5.714199E-1	5.685708E-1	5.688110E-1	5.672629E-1	5.508761E-1	5.642696E-1	5.816239E-1	5.716162E-1	5.574509E-1	5.370596E-1	6.009885E-1	5.247974E-1	5.496654E-1	5.792397E-1	5.756417E-1	5.501134E-1	5.794827E-1	5.662812E-1	5.569838E-1	5.704645E-1	5.514586E-1	5.451091E-1	5.682829E-1	5.551433E-1	5.605998E-1	5.660608E-1	5.690474E-1	5.421430E-1	5.484870E-1	5.261464E-1	5.331951E-1
2.853000E+2	3.396716E-1	3.494307E-1	3.502073E-1	3.410749E-1	3.822832E-1	3.899830E-1	3.386137E-1	3.690816E-1	3.669251E-1	3.895041E-1	3.642506E-1	3.712031E-1	3.310585E-1	3.566654E-1	3.390636E-1	3.292819E-1	3.849957E-1	3.331578E-1	3.566681E-1	3.465852E-1	3.634610E-1	3.709262E-1	3.398740E-1	3.737497E-1	3.618351E-1	3.418187E-1	3.540786E-1	3.343542E-1	3.782595E-1	3.489452E-1	3.620401E-1	3.386913E-1	3.547587E-1	3.491311E-1	3.705377E-1	3.617210E-1	3.313739E-1	3.586764E-1	3.511808E-1	3.618782E-1	3.731122E-1	3.335728E-1	3.630294E-1	3.527543E-1	3.552186E-1	3.632994E-1	3.750221E-1	3.551114E-1	3.822302E-1	3.375127E-1	3.560988E-1	3.497358E-1	3.691923E-1	3.621590E-1	3.645133E-1	3.402001E-1	3.475466E-1	3.569736E-1	3.511827E-1	3.483888E-1	3.469891E-1	3.513841E-1	3.522466E-1	3.880557E-1	4.015786E-1	3.636156E-1	3.490976E-1	3.723155E-1	3.435761E-1	3.901484E-1	3.880197E-1	3.493867E-1	3.786654E-1	3.922364E-1	3.520630E-1	3.555810E-1	3.768082E-1	3.874504E-1	3.771128E-1	3.376570E-1	3.734569E-1	3.644802E-1	3.704460E-1	4.134590E-1	3.751754E-1	3.796692E-1	3.834066E-1	3.707499E-1	3.555912E-1	3.587995E-1	3.483055E-1	3.584539E-1	3.703153E-1	3.696312E-1	3.358448E-1	3.904446E-1	3.946591E-1	3.381430E-1	3.932826E-1	3.400860E-1	3.694287E-1	3.815556E-1	3.833660E-1	3.459966E-1	3.816887E-1	3.762422E-1	3.418709E-1	3.398885E-1	3.565256E-1	3.903418E-1	3.801212E-1	3.936629E-1	3.968019E-1	3.471380E-1	3.804057E-1	3.897402E-1	3.482202E-1	3.577959E-1	3.658394E-1	4.093026E-1	4.141532E-1	3.430613E-1	3.504472E-1	3.705935E-1	3.754284E-1	3.653900E-1	3.757073E-1	3.604141E-1	3.505081E-1	3.768089E-1	3.607251E-1	3.803301E-1	3.917084E-1	4.058361E-1	3.869584E-1	3.610821E-1	3.478037E-1	3.722382E-1	3.549299E-1	3.416517E-1	3.669179E-1	3.474760E-1	3.563783E-1	3.745885E-1	3.792369E-1	3.645939E-1	3.388736E-1	3.501911E-1	3.868889E-1	3.955405E-1	3.446102E-1	3.838893E-1	3.562692E-1	3.588548E-1	3.585138E-1	3.742265E-1	3.527786E-1	3.648695E-1	3.516341E-1	3.585822E-1	3.945831E-1	3.532089E-1	3.742768E-1	3.837490E-1	3.673365E-1	3.713964E-1	3.666745E-1	3.857844E-1	3.899677E-1	3.402124E-1	3.113357E-1
2.854050E+2	2.647983E-1	2.789451E-1	2.741682E-1	2.635758E-1	2.762508E-1	2.639950E-1	2.639913E-1	2.754847E-1	2.716685E-1	2.990512E-1	2.376460E-1	2.598980E-1	2.683930E-1	2.841059E-1	2.773578E-1	2.765649E-1	2.601065E-1	2.553162E-1	2.666506E-1	2.851415E-1	2.499376E-1	2.579005E-1	2.624450E-1	2.572370E-1	2.976759E-1	2.790959E-1	2.649416E-1	2.530028E-1	2.895810E-1	2.439680E-1	2.746995E-1	2.677677E-1	2.627685E-1	2.639580E-1	2.966595E-1	2.461572E-1	3.017408E-1	2.838999E-1	2.585846E-1	2.502655E-1	2.782614E-1	2.765758E-1	2.716686E-1	2.759193E-1	2.920544E-1	2.882593E-1	2.869389E-1	2.853774E-1	2.798717E-1	2.885489E-1	2.700661E-1	2.939940E-1	2.414157E-1	2.645325E-1	2.936620E-1	2.633624E-1	2.736905E-1	2.733195E-1	2.505631E-1	2.689939E-1	2.855146E-1	2.696638E-1	2.786360E-1	2.623836E-1	2.797967E-1	2.800154E-1	2.672093E-1	2.763342E-1	2.577304E-1	2.731147E-1	2.793210E-1	2.695420E-1	2.803058E-1	2.786881E-1	2.705901E-1	2.730201E-1	2.677802E-1	2.640746E-1	2.606799E-1	2.892258E-1	2.742521E-1	2.835791E-1	2.720134E-1	2.434160E-1	2.939861E-1	2.906498E-1	2.458478E-1	2.547951E-1	2.562596E-1	2.517935E-1	2.819106E-1	2.682616E-1	2.888103E-1	2.523215E-1	2.613981E-1	2.953911E-1	2.615775E-1	2.582660E-1	2.706392E-1	2.608595E-1	2.544409E-1	2.723535E-1	2.947164E-1	2.935907E-1	2.589072E-1	2.571105E-1	2.925446E-1	2.352730E-1	2.626343E-1	2.753071E-1	2.521238E-1	2.480914E-1	2.787385E-1	2.591479E-1	2.891787E-1	2.870037E-1	2.783701E-1	2.590107E-1	2.879612E-1	2.909481E-1	2.581609E-1	3.046239E-1	2.723765E-1	2.959964E-1	2.854198E-1	2.686733E-1	2.700822E-1	2.682168E-1	2.982656E-1	2.691232E-1	3.004316E-1	2.553747E-1	2.986981E-1	2.820150E-1	2.673627E-1	2.812781E-1	2.761346E-1	2.837366E-1	2.955992E-1	2.516451E-1	2.717361E-1	2.683078E-1	2.947062E-1	2.785507E-1	3.064811E-1	2.804334E-1	2.664796E-1	3.028818E-1	2.810895E-1	2.595797E-1	2.786732E-1	2.987615E-1	2.626140E-1	2.793918E-1	2.921540E-1	2.878009E-1	2.822003E-1	2.755910E-1	2.959880E-1	2.844911E-1	2.912368E-1	2.459572E-1	2.748149E-1	2.916135E-1	2.652738E-1	2.611698E-1	2.835127E-1	3.015335E-1	2.642558E-1	2.816975E-1	2.479070E-1
2.855020E+2	2.538802E-1	2.127086E-1	2.063508E-1	2.229119E-1	2.537632E-1	2.516069E-1	2.383507E-1	2.415051E-1	2.166750E-1	2.494123E-1	2.458945E-1	2.739614E-1	2.403203E-1	2.398843E-1	2.370355E-1	2.247853E-1	2.372587E-1	2.501872E-1	2.623659E-1	2.413473E-1	2.317796E-1	2.226489E-1	2.358882E-1	2.206574E-1	2.293794E-1	2.167563E-1	2.524285E-1	2.191375E-1	2.192688E-1	2.268402E-1	2.580105E-1	2.335159E-1	2.518943E-1	2.317375E-1	2.480440E-1	2.636810E-1	2.265581E-1	2.219520E-1	2.362874E-1	2.373093E-1	2.332194E-1	2.338301E-1	2.372696E-1	2.319129E-1	2.386858E-1	2.366943E-1	2.380935E-1	2.411910E-1	2.441644E-1	2.039724E-1	2.526509E-1	2.570591E-1	2.247938E-1	2.479401E-1	2.294464E-1	2.252407E-1	2.305377E-1	2.425652E-1	2.682036E-1	2.091958E-1	2.438612E-1	2.418657E-1	2.394420E-1	2.661430E-1	2.074413E-1	2.489603E-1	2.504310E-1	2.432420E-1	2.275066E-1	2.442404E-1	2.456255E-1	2.268805E-1	2.451050E-1	2.504697E-1	2.224818E-1	2.343743E-1	2.397272E-1	2.388874E-1	2.353923E-1	2.450643E-1	2.329078E-1	2.446352E-1	2.453301E-1	2.651940E-1	2.462893E-1	2.159162E-1	2.300355E-1	2.266699E-1	1.985018E-1	2.305631E-1	2.308777E-1	2.285090E-1	2.269392E-1	2.227812E-1	2.254210E-1	2.169337E-1	2.491891E-1	2.110669E-1	2.574752E-1	2.489112E-1	2.658436E-1	2.385430E-1	2.474463E-1	2.191087E-1	2.319991E-1	2.599987E-1	2.449987E-1	2.299631E-1	2.342893E-1	2.377451E-1	2.429370E-1	2.212312E-1	2.289151E-1	2.222654E-1	2.391571E-1	2.478657E-1	2.625279E-1	2.478781E-1	2.338748E-1	2.219968E-1	2.497864E-1	2.271434E-1	2.327836E-1	2.280912E-1	2.369088E-1	2.570518E-1	2.218587E-1	2.718997E-1	2.672660E-1	2.500405E-1	2.264007E-1	2.665212E-1	2.519684E-1	2.382199E-1	2.534618E-1	2.337176E-1	2.148277E-1	2.211532E-1	2.254610E-1	2.563408E-1	2.393500E-1	2.263870E-1	2.298017E-1	2.542608E-1	2.403860E-1	2.498296E-1	2.460916E-1	2.480335E-1	2.480051E-1	2.320491E-1	2.370189E-1	2.318098E-1	2.570240E-1	2.313036E-1	2.534331E-1	2.477893E-1	2.571547E-1	2.681624E-1	2.578495E-1	2.438478E-1	2.533655E-1	2.407077E-1	2.616311E-1	2.363600E-1	2.430521E-1	2.400404E-1	2.469430E-1	2.497237E-1	2.348825E-1	2.040221E-1	2.550358E-1
2.856010E+2	2.044553E-1	2.323399E-1	2.425782E-1	2.210860E-1	2.352509E-1	2.217660E-1	2.204103E-1	2.139323E-1	2.145140E-1	2.309915E-1	1.959524E-1	2.286767E-1	2.127288E-1	2.236703E-1	2.085543E-1	2.329309E-1	2.238665E-1	1.896712E-1	2.364922E-1	2.215633E-1	2.028505E-1	2.533312E-1	2.194500E-1	2.257069E-1	2.202519E-1	2.168426E-1	2.284537E-1	2.154337E-1	2.247245E-1	2.351312E-1	2.124579E-1	2.237041E-1	2.265298E-1	2.290232E-1	2.412129E-1	2.126473E-1	2.028174E-1	2.189147E-1	2.349716E-1	2.457938E-1	2.265044E-1	2.180808E-1	2.231262E-1	2.136403E-1	2.170664E-1	2.374015E-1	2.215131E-1	2.356380E-1	2.158850E-1	2.295303E-1	2.191652E-1	2.150470E-1	2.347411E-1	2.044347E-1	2.322651E-1	2.208093E-1	2.206981E-1	2.244989E-1	2.453376E-1	2.127002E-1	2.173155E-1	2.255279E-1	2.327014E-1	2.281467E-1	2.194984E-1	2.163234E-1	2.367991E-1	2.484616E-1	2.403908E-1	2.277471E-1	1.999700E-1	2.195001E-1	2.244303E-1	2.318075E-1	2.091135E-1	2.310642E-1	2.341704E-1	2.197192E-1	2.080185E-1	2.139696E-1	2.223476E-1	2.250466E-1	2.297885E-1	2.148707E-1	2.344985E-1	2.236116E-1	2.135601E-1	2.202720E-1	2.547440E-1	2.433028E-1	2.224860E-1	2.386162E-1	2.362660E-1	2.371624E-1	2.178894E-1	2.176039E-1	2.057066E-1	2.010758E-1	2.397009E-1	2.197640E-1	2.422373E-1	2.195074E-1	2.360711E-1	2.223356E-1	2.303137E-1	2.099574E-1	2.360563E-1	1.991942E-1	2.130833E-1	2.157663E-1	2.536848E-1	2.282827E-1	2.295078E-1	2.145578E-1	2.406216E-1	2.069874E-1	2.276756E-1	2.213993E-1	2.243695E-1	2.283353E-1	2.389785E-1	2.070248E-1	2.413134E-1	2.247787E-1	2.132741E-1	2.139954E-1	2.267098E-1	2.509103E-1	2.481906E-1	2.095411E-1	2.428502E-1	2.245372E-1	2.519444E-1	2.231846E-1	2.437234E-1	2.337285E-1	2.353825E-1	2.203365E-1	2.343862E-1	2.234176E-1	2.476215E-1	2.221051E-1	2.305110E-1	2.195212E-1	2.216481E-1	2.256792E-1	2.232908E-1	2.398420E-1	2.244838E-1	1.983053E-1	2.411953E-1	2.381629E-1	2.487423E-1	2.230672E-1	2.066158E-1	2.153473E-1	2.223425E-1	2.190727E-1	2.334590E-1	2.191422E-1	2.395214E-1	2.278352E-1	2.042109E-1	2.739878E-1	2.170502E-1	2.379709E-1	2.386903E-1	2.278524E-1	2.725225E-1	2.364856E-1	1.943412E-1
2.858030E+2	3.475532E-1	3.300765E-1	3.477478E-1	3.097163E-1	3.275526E-1	3.527667E-1	3.386535E-1	3.498233E-1	3.322686E-1	3.107435E-1	3.308982E-1	3.100343E-1	3.304667E-1	3.045808E-1	3.363701E-1	3.489032E-1	3.361220E-1	3.527923E-1	3.041050E-1	3.199917E-1	3.332019E-1	3.453239E-1	3.285087E-1	3.395590E-1	3.317537E-1	3.229044E-1	3.391770E-1	3.332430E-1	3.532040E-1	3.250156E-1	3.479278E-1	3.443851E-1	3.381748E-1	3.404261E-1	3.618898E-1	3.460837E-1	3.289456E-1	3.252843E-1	3.478307E-1	3.251324E-1	3.321879E-1	3.274521E-1	3.371242E-1	3.442661E-1	3.306766E-1	3.605645E-1	3.425969E-1	3.335718E-1	3.508614E-1	3.478519E-1	3.481861E-1	3.356824E-1	3.278509E-1	3.323756E-1	3.442685E-1	3.320942E-1	3.402044E-1	3.213006E-1	3.148611E-1	3.721775E-1	3.563291E-1	3.448726E-1	3.644397E-1	3.323193E-1	3.432052E-1	3.447236E-1	3.415405E-1	3.109571E-1	3.597532E-1	3.363080E-1	3.281235E-1	3.444876E-1	3.178919E-1	3.406321E-1	3.459799E-1	3.185068E-1	3.582305E-1	3.404535E-1	3.491483E-1	2.911669E-1	3.393345E-1	3.349429E-1	3.420554E-1	3.457778E-1	3.410868E-1	3.286448E-1	3.408681E-1	3.461788E-1	3.257838E-1	3.672141E-1	3.257928E-1	3.617142E-1	3.520634E-1	3.289102E-1	3.306948E-1	3.339711E-1	3.413063E-1	3.236880E-1	3.439211E-1	3.588894E-1	3.591985E-1	3.253625E-1	3.344500E-1	3.348325E-1	3.395526E-1	2.967507E-1	3.257413E-1	3.466446E-1	3.509372E-1	3.834012E-1	3.519997E-1	3.419970E-1	3.517940E-1	3.527755E-1	3.328578E-1	3.365328E-1	3.376729E-1	3.195994E-1	3.407973E-1	3.488289E-1	3.971376E-1	3.325649E-1	3.474728E-1	3.293914E-1	3.161453E-1	3.639247E-1	3.433802E-1	3.434584E-1	3.447292E-1	3.400396E-1	3.520023E-1	3.271027E-1	3.328762E-1	3.369234E-1	3.155807E-1	3.338720E-1	3.150461E-1	3.379271E-1	3.266869E-1	3.189505E-1	3.422843E-1	3.241272E-1	3.641997E-1	3.403005E-1	3.362959E-1	3.079293E-1	3.883044E-1	3.110577E-1	3.570730E-1	3.386597E-1	3.391101E-1	3.512473E-1	3.455495E-1	3.256931E-1	3.525708E-1	3.070030E-1	3.500126E-1	3.213474E-1	3.546183E-1	3.567878E-1	3.615759E-1	3.360388E-1	3.255786E-1	3.443498E-1	3.499676E-1	3.339126E-1	3.370664E-1	3.612004E-1	3.473840E-1	3.749246E-1	3.180638E-1
2.860040E+2	5.333266E-1	5.452410E-1	5.736238E-1	5.012472E-1	5.574113E-1	5.718818E-1	5.434560E-1	5.227027E-1	5.773512E-1	5.756191E-1	5.453911E-1	5.814329E-1	5.368554E-1	5.176021E-1	5.464908E-1	5.854216E-1	5.802270E-1	5.104987E-1	5.638946E-1	5.786101E-1	5.423640E-1	5.485585E-1	5.550081E-1	5.293439E-1	5.537709E-1	5.644293E-1	5.341709E-1	5.366048E-1	5.370334E-1	5.418434E-1	5.488204E-1	5.498317E-1	5.504947E-1	5.257581E-1	5.507220E-1	5.496899E-1	5.312682E-1	5.517114E-1	5.569058E-1	5.293957E-1	5.686765E-1	5.708628E-1	5.496488E-1	5.591710E-1	5.598345E-1	5.671532E-1	5.198143E-1	5.626652E-1	5.969712E-1	5.390065E-1	5.780092E-1	5.381318E-1	5.416571E-1	5.733259E-1	5.792745E-1	5.537450E-1	5.519255E-1	5.638055E-1	5.519953E-1	5.538894E-1	5.334944E-1	5.710263E-1	5.414999E-1	5.406477E-1	5.581210E-1	5.664770E-1	5.500380E-1	5.371963E-1	5.424759E-1	5.364241E-1	5.449250E-1	5.529511E-1	5.764093E-1	5.954551E-1	5.753521E-1	5.992766E-1	5.746799E-1	5.364672E-1	5.347616E-1	5.215950E-1	5.192004E-1	5.420802E-1	5.026779E-1	5.401229E-1	5.351511E-1	5.828033E-1	5.729128E-1	5.371935E-1	5.615395E-1	5.699479E-1	5.878531E-1	5.596223E-1	5.441299E-1	5.831829E-1	5.263937E-1	5.298346E-1	5.876785E-1	5.494568E-1	5.623138E-1	5.236412E-1	5.797795E-1	5.619239E-1	5.652143E-1	5.698258E-1	5.482692E-1	5.855667E-1	5.461633E-1	5.686866E-1	6.030923E-1	5.934326E-1	5.815261E-1	5.733630E-1	5.396385E-1	5.227165E-1	5.685608E-1	5.337998E-1	5.372999E-1	5.910255E-1	5.572023E-1	4.984101E-1	5.669118E-1	5.152783E-1	5.342477E-1	5.635256E-1	5.855066E-1	5.431837E-1	5.714255E-1	5.680332E-1	5.732985E-1	5.861886E-1	5.362829E-1	5.047838E-1	5.464445E-1	5.606704E-1	5.819132E-1	5.902059E-1	5.468202E-1	5.733700E-1	5.466910E-1	5.640803E-1	5.673143E-1	5.435726E-1	5.331182E-1	5.761503E-1	5.418345E-1	5.880824E-1	5.281736E-1	5.419146E-1	5.868378E-1	5.335469E-1	5.432965E-1	5.332448E-1	5.652386E-1	5.617054E-1	5.659616E-1	5.285704E-1	5.861955E-1	5.518228E-1	5.712152E-1	5.562648E-1	5.589679E-1	5.403915E-1	5.631965E-1	5.244830E-1	6.122438E-1	5.432987E-1	5.700355E-1	5.482847E-1	6.110438E-1	5.444074E-1	5.626998E-1
2.862060E+2	7.171130E-1	7.078574E-1	7.756175E-1	7.047545E-1	7.272026E-1	7.830349E-1	7.479689E-1	7.116842E-1	7.072995E-1	7.675661E-1	7.136065E-1	7.676982E-1	7.394448E-1	7.945293E-1	7.147378E-1	7.885474E-1	7.422801E-1	7.549229E-1	7.130696E-1	7.803304E-1	7.072377E-1	7.784213E-1	7.366067E-1	7.745525E-1	7.805763E-1	7.438316E-1	7.423871E-1	7.511805E-1	7.346923E-1	7.679295E-1	7.806271E-1	7.424822E-1	7.240862E-1	7.389402E-1	7.709842E-1	7.428573E-1	7.681849E-1	7.243300E-1	7.111029E-1	7.028780E-1	7.454465E-1	7.199330E-1	7.654631E-1	7.699161E-1	7.703620E-1	8.163263E-1	7.520369E-1	7.662626E-1	7.710349E-1	7.405815E-1	7.472677E-1	7.792416E-1	7.504580E-1	7.617445E-1	7.774284E-1	7.348278E-1	7.671478E-1	7.086176E-1	7.764054E-1	8.157586E-1	7.754780E-1	7.455991E-1	7.164826E-1	7.984781E-1	7.660574E-1	7.608784E-1	7.365821E-1	7.346318E-1	7.294254E-1	7.935181E-1	7.203992E-1	7.773500E-1	8.067782E-1	8.157225E-1	8.179975E-1	7.406678E-1	7.607927E-1	7.407415E-1	7.486284E-1	7.662975E-1	7.179687E-1	7.596354E-1	7.503707E-1	7.580991E-1	7.741830E-1	7.822379E-1	7.553961E-1	7.050424E-1	7.151781E-1	7.531673E-1	7.241248E-1	7.594334E-1	7.496864E-1	7.457368E-1	7.020569E-1	7.209315E-1	7.346322E-1	7.471970E-1	7.602213E-1	7.524216E-1	7.767755E-1	7.936411E-1	7.506871E-1	7.342752E-1	7.038870E-1	7.672688E-1	7.774845E-1	7.600042E-1	7.444940E-1	7.123806E-1	7.754251E-1	7.398267E-1	7.465863E-1	7.536314E-1	7.314798E-1	7.416491E-1	7.313782E-1	7.375374E-1	7.563876E-1	7.557991E-1	7.674309E-1	7.344936E-1	7.454896E-1	7.489356E-1	7.689452E-1	7.566564E-1	7.784530E-1	8.054881E-1	8.058426E-1	7.588189E-1	7.466654E-1	7.760295E-1	7.719878E-1	7.531662E-1	7.429133E-1	7.555051E-1	7.763646E-1	7.764938E-1	7.730220E-1	7.274660E-1	7.318952E-1	7.465167E-1	7.715992E-1	7.544461E-1	7.883406E-1	8.061540E-1	7.565471E-1	7.373185E-1	7.600016E-1	7.116321E-1	7.471699E-1	7.149193E-1	7.399841E-1	7.323310E-1	7.253275E-1	7.652466E-1	7.414341E-1	7.229365E-1	7.495841E-1	7.526199E-1	7.514508E-1	7.301256E-1	7.510896E-1	7.579125E-1	7.451943E-1	7.683013E-1	7.823728E-1	7.943846E-1	8.125749E-1	7.840432E-1	6.750006E-1
2.864060E+2	7.011009E-1	7.460915E-1	6.976006E-1	6.659039E-1	7.164488E-1	6.755017E-1	6.757031E-1	6.949524E-1	7.125784E-1	7.127565E-1	6.766175E-1	6.914259E-1	6.828499E-1	6.840155E-1	6.882152E-1	7.267626E-1	7.085078E-1	6.420000E-1	6.946152E-1	7.181720E-1	6.668578E-1	6.811042E-1	6.508054E-1	6.685695E-1	7.315942E-1	6.901536E-1	6.854468E-1	6.399150E-1	6.813965E-1	6.980364E-1	6.878681E-1	6.849473E-1	7.161182E-1	7.094371E-1	7.053687E-1	7.264747E-1	7.281603E-1	6.902361E-1	6.724161E-1	6.732195E-1	7.102826E-1	6.958679E-1	6.727295E-1	7.079070E-1	7.116196E-1	6.812889E-1	6.645078E-1	6.623886E-1	6.647985E-1	6.848185E-1	7.003153E-1	6.579100E-1	6.678555E-1	7.389772E-1	6.788902E-1	6.916964E-1	6.878392E-1	7.280291E-1	6.891058E-1	7.108703E-1	6.651669E-1	7.144704E-1	6.590502E-1	6.729705E-1	7.285552E-1	7.103877E-1	6.591594E-1	6.931779E-1	6.801863E-1	7.095857E-1	6.775612E-1	6.909810E-1	7.190143E-1	7.663059E-1	7.131708E-1	6.842260E-1	7.027317E-1	6.792720E-1	6.394536E-1	7.179433E-1	7.406576E-1	6.763042E-1	6.878411E-1	6.692509E-1	6.899082E-1	7.091675E-1	6.964651E-1	6.992600E-1	7.047384E-1	6.502256E-1	7.177685E-1	6.966264E-1	7.414577E-1	6.751562E-1	6.827380E-1	6.697802E-1	7.032203E-1	7.227981E-1	6.966712E-1	7.187357E-1	7.209145E-1	7.277074E-1	6.963555E-1	6.773655E-1	6.503781E-1	6.708874E-1	7.169008E-1	6.966166E-1	6.823967E-1	6.942800E-1	7.580956E-1	6.942618E-1	7.183648E-1	6.646370E-1	6.746474E-1	6.587450E-1	7.088446E-1	6.765984E-1	7.012090E-1	7.205826E-1	6.698826E-1	7.041372E-1	7.188264E-1	6.273942E-1	6.776064E-1	7.039996E-1	6.766306E-1	7.540312E-1	6.765043E-1	6.673433E-1	6.769248E-1	6.834953E-1	7.033984E-1	6.751251E-1	7.155763E-1	7.024516E-1	7.061983E-1	7.129708E-1	6.862687E-1	6.190927E-1	6.950708E-1	6.802209E-1	7.031016E-1	7.341703E-1	7.240387E-1	7.166450E-1	6.713589E-1	6.685664E-1	7.068710E-1	6.500659E-1	6.784884E-1	7.363243E-1	7.028708E-1	7.017117E-1	6.737497E-1	7.211742E-1	7.035047E-1	6.918471E-1	6.758459E-1	6.766775E-1	6.888980E-1	7.062999E-1	6.749999E-1	7.073402E-1	7.135580E-1	6.784104E-1	6.912237E-1	7.378865E-1	7.160674E-1	6.993721E-1	7.196172E-1
2.866110E+2	8.102547E-1	7.863432E-1	8.034944E-1	7.320409E-1	7.782773E-1	8.382400E-1	8.127160E-1	7.681480E-1	8.067149E-1	8.573194E-1	8.140915E-1	8.171363E-1	7.493591E-1	8.030517E-1	7.666962E-1	7.977817E-1	7.908888E-1	8.006210E-1	7.844360E-1	8.251710E-1	7.645881E-1	7.764708E-1	7.814872E-1	7.932099E-1	8.112831E-1	7.555034E-1	8.001728E-1	7.730800E-1	7.967027E-1	7.568527E-1	7.736017E-1	7.911759E-1	7.993330E-1	7.871114E-1	7.579857E-1	8.047488E-1	7.865394E-1	8.133465E-1	7.720844E-1	8.059336E-1	8.144979E-1	8.032082E-1	7.912854E-1	8.142821E-1	8.083322E-1	8.405013E-1	7.924546E-1	7.653531E-1	7.333980E-1	7.459960E-1	7.933938E-1	7.421004E-1	7.965816E-1	8.267451E-1	7.529774E-1	7.702799E-1	7.761875E-1	7.909387E-1	8.120100E-1	8.121923E-1	7.943181E-1	7.973852E-1	7.920180E-1	7.920948E-1	7.478183E-1	8.481685E-1	7.479543E-1	8.028331E-1	7.728292E-1	8.058449E-1	7.821300E-1	8.019810E-1	7.814271E-1	8.025754E-1	7.981832E-1	7.703089E-1	7.898418E-1	7.988508E-1	7.610302E-1	7.682524E-1	8.238152E-1	8.214775E-1	7.799624E-1	7.959378E-1	8.157474E-1	8.265107E-1	8.475046E-1	7.683929E-1	7.952860E-1	7.951429E-1	7.846576E-1	7.697036E-1	7.802743E-1	8.051230E-1	7.683284E-1	7.922016E-1	8.002112E-1	8.069541E-1	7.837657E-1	7.907702E-1	8.101855E-1	8.012672E-1	8.120719E-1	7.805417E-1	8.008212E-1	7.717124E-1	8.325449E-1	7.707602E-1	8.018100E-1	8.389457E-1	7.956281E-1	7.585081E-1	8.032899E-1	8.075211E-1	7.501478E-1	7.868638E-1	7.352521E-1	7.673486E-1	7.875492E-1	7.888718E-1	7.775437E-1	8.470811E-1	7.433092E-1	8.067193E-1	7.917523E-1	8.194391E-1	8.032756E-1	7.945918E-1	7.994556E-1	7.715024E-1	7.768197E-1	7.657334E-1	7.770606E-1	8.166289E-1	7.967080E-1	7.718593E-1	8.297929E-1	8.017991E-1	8.495814E-1	7.861429E-1	8.556620E-1	7.472616E-1	7.644688E-1	7.360743E-1	7.899792E-1	7.804759E-1	7.949833E-1	8.195331E-1	8.199506E-1	7.550696E-1	7.651346E-1	7.802760E-1	8.215324E-1	8.021648E-1	8.288182E-1	7.276252E-1	8.236914E-1	7.907816E-1	8.040732E-1	8.146674E-1	8.398197E-1	7.692767E-1	8.183348E-1	8.193778E-1	7.876919E-1	7.682941E-1	7.994492E-1	8.491970E-1	8.046682E-1	7.923218E-1	7.008558E-1
2.868020E+2	1.015512E+0	1.025587E+0	1.059623E+0	9.929399E-1	1.031389E+0	1.021193E+0	1.055804E+0	1.074660E+0	1.028471E+0	1.089549E+0	1.039695E+0	1.056588E+0	1.059450E+0	1.088848E+0	1.002897E+0	1.042231E+0	1.039671E+0	1.036615E+0	1.004910E+0	1.096474E+0	1.041261E+0	1.021372E+0	1.043090E+0	1.025426E+0	1.061471E+0	1.056728E+0	1.017787E+0	1.052368E+0	1.008419E+0	1.017672E+0	1.035357E+0	1.033545E+0	1.015809E+0	1.035787E+0	1.060242E+0	1.079488E+0	1.062495E+0	1.067697E+0	1.037096E+0	1.070911E+0	1.050228E+0	1.023851E+0	1.044593E+0	1.050870E+0	1.039199E+0	1.083222E+0	1.025203E+0	1.021617E+0	9.689900E-1	1.051067E+0	1.071277E+0	1.065525E+0	1.019366E+0	1.053195E+0	1.042710E+0	9.979760E-1	1.066740E+0	1.066222E+0	1.022354E+0	1.022512E+0	1.022535E+0	1.041110E+0	9.994329E-1	1.061193E+0	1.033401E+0	1.045713E+0	1.003714E+0	1.060801E+0	1.074535E+0	1.058938E+0	1.011164E+0	9.755249E-1	1.022228E+0	1.052052E+0	1.069877E+0	1.051720E+0	1.056381E+0	1.097672E+0	1.010688E+0	1.021823E+0	1.090370E+0	1.024385E+0	1.077839E+0	1.039362E+0	1.023556E+0	1.036172E+0	1.061949E+0	1.025393E+0	1.046402E+0	1.077638E+0	1.024430E+0	1.023802E+0	1.086178E+0	1.024720E+0	9.976653E-1	1.020551E+0	1.000663E+0	1.023531E+0	1.040566E+0	1.025029E+0	9.975942E-1	1.018276E+0	1.037576E+0	1.017115E+0	1.050669E+0	1.029991E+0	1.046271E+0	1.003155E+0	1.034651E+0	1.049925E+0	1.016831E+0	1.004871E+0	1.038002E+0	1.050691E+0	1.036863E+0	1.013703E+0	1.040297E+0	1.019688E+0	1.015341E+0	1.015767E+0	1.038793E+0	1.035058E+0	1.072623E+0	1.067180E+0	9.956350E-1	1.059487E+0	1.008631E+0	1.012213E+0	9.977083E-1	1.023975E+0	1.018268E+0	1.062982E+0	1.039115E+0	1.065412E+0	1.074354E+0	1.018775E+0	1.144141E+0	1.084927E+0	1.022749E+0	1.043563E+0	1.056651E+0	1.030713E+0	1.012722E+0	1.017584E+0	1.012474E+0	1.044243E+0	1.031891E+0	1.036898E+0	1.005247E+0	1.042303E+0	1.055441E+0	1.065436E+0	1.069197E+0	1.044642E+0	1.013341E+0	1.038319E+0	1.099900E+0	1.008029E+0	1.042245E+0	1.016572E+0	1.057849E+0	1.029979E+0	1.035479E+0	1.106490E+0	1.015343E+0	1.041693E+0	1.035092E+0	1.080189E+0	1.003902E+0	1.014018E+0	1.011140E+0
2.870030E+2	8.297578E-1	8.358105E-1	8.207431E-1	8.466521E-1	8.803254E-1	8.685899E-1	8.507876E-1	8.576588E-1	8.265557E-1	8.808339E-1	8.303326E-1	8.169440E-1	8.216042E-1	8.422682E-1	8.162690E-1	8.285699E-1	8.267336E-1	7.737514E-1	8.163711E-1	9.077635E-1	8.599101E-1	8.474530E-1	8.116629E-1	8.410472E-1	8.679291E-1	8.082296E-1	8.552157E-1	7.998974E-1	8.593403E-1	8.013449E-1	8.156052E-1	8.120998E-1	7.810974E-1	8.134446E-1	8.095814E-1	8.782739E-1	8.341502E-1	8.032081E-1	8.004078E-1	8.500469E-1	7.837345E-1	8.348226E-1	8.709054E-1	8.147444E-1	8.154209E-1	8.323600E-1	8.301627E-1	8.283712E-1	8.288619E-1	8.263577E-1	8.440789E-1	8.594574E-1	8.295913E-1	8.299335E-1	7.972172E-1	8.370132E-1	8.078884E-1	8.717097E-1	8.369696E-1	8.383130E-1	8.516903E-1	8.162622E-1	7.843665E-1	8.469238E-1	8.762813E-1	8.212805E-1	8.199202E-1	8.385328E-1	7.963776E-1	8.019617E-1	8.152068E-1	8.502096E-1	8.464373E-1	8.817381E-1	8.676754E-1	8.496952E-1	8.133260E-1	8.270918E-1	8.266854E-1	8.550043E-1	8.051488E-1	8.243714E-1	8.530068E-1	8.271686E-1	8.689608E-1	8.495167E-1	8.382790E-1	7.845458E-1	8.400307E-1	8.469334E-1	8.388731E-1	8.373156E-1	8.268335E-1	8.855969E-1	8.502054E-1	8.394008E-1	8.203765E-1	8.271185E-1	8.577631E-1	8.307536E-1	8.478612E-1	8.578738E-1	8.144853E-1	8.414161E-1	8.163460E-1	8.686369E-1	8.719998E-1	8.152154E-1	8.258953E-1	8.442446E-1	8.394533E-1	8.135903E-1	8.505768E-1	8.443075E-1	8.907089E-1	8.253500E-1	7.605838E-1	8.140392E-1	8.307807E-1	7.960898E-1	8.351122E-1	8.234631E-1	8.480187E-1	8.513119E-1	8.709815E-1	8.381236E-1	8.312238E-1	8.331068E-1	8.376073E-1	8.140459E-1	8.159489E-1	8.216986E-1	7.872932E-1	8.816320E-1	8.487052E-1	8.594137E-1	8.144622E-1	8.077190E-1	8.833594E-1	8.410777E-1	8.333156E-1	8.339427E-1	8.411257E-1	8.455108E-1	8.340968E-1	8.589507E-1	8.347236E-1	8.716950E-1	8.075298E-1	8.148200E-1	8.340069E-1	8.282425E-1	8.848816E-1	8.103090E-1	8.455926E-1	8.185037E-1	8.295012E-1	8.376944E-1	8.059397E-1	8.335379E-1	7.994383E-1	8.383618E-1	8.314556E-1	8.127769E-1	7.932937E-1	8.068782E-1	8.449936E-1	8.690377E-1	7.940945E-1	8.095510E-1	7.671252E-1
2.872040E+2	5.711637E-1	6.224300E-1	6.310179E-1	5.568347E-1	5.969122E-1	5.914443E-1	6.160645E-1	5.611492E-1	5.902745E-1	5.962547E-1	5.667983E-1	5.657971E-1	5.700937E-1	5.919795E-1	5.663539E-1	5.838368E-1	5.706921E-1	5.831955E-1	5.783396E-1	5.893553E-1	5.928176E-1	6.009706E-1	5.687550E-1	5.804948E-1	5.660084E-1	5.560375E-1	5.899469E-1	5.710417E-1	5.835858E-1	6.017796E-1	5.579070E-1	5.867324E-1	5.979015E-1	5.787910E-1	5.965139E-1	5.844204E-1	5.792933E-1	6.278923E-1	6.303256E-1	5.856333E-1	6.058338E-1	5.842992E-1	5.866221E-1	5.916907E-1	6.118394E-1	5.619580E-1	5.764904E-1	5.749021E-1	5.711242E-1	5.493521E-1	5.712290E-1	6.224556E-1	6.127245E-1	6.010517E-1	5.920966E-1	5.657628E-1	6.024192E-1	5.973267E-1	5.758472E-1	5.844330E-1	6.095027E-1	5.734425E-1	6.122597E-1	5.671346E-1	5.995090E-1	5.747762E-1	5.937626E-1	6.026257E-1	6.013785E-1	6.036017E-1	6.074811E-1	5.987542E-1	5.259189E-1	5.493967E-1	6.229504E-1	5.445016E-1	6.091311E-1	5.810650E-1	5.836139E-1	5.917165E-1	6.365302E-1	5.893874E-1	6.049382E-1	5.895595E-1	6.294280E-1	5.983366E-1	5.822898E-1	5.809976E-1	5.744979E-1	6.119304E-1	6.274384E-1	5.368732E-1	5.984165E-1	5.832444E-1	5.517086E-1	5.950228E-1	5.918992E-1	6.066205E-1	5.457706E-1	5.749984E-1	5.839515E-1	5.947614E-1	6.094481E-1	5.536488E-1	6.093807E-1	5.790196E-1	5.654624E-1	6.039066E-1	5.393844E-1	5.677151E-1	5.557007E-1	6.124943E-1	5.792287E-1	5.657184E-1	6.305179E-1	5.827551E-1	5.896474E-1	5.334858E-1	5.832807E-1	5.337775E-1	5.738526E-1	5.809265E-1	5.862494E-1	5.653179E-1	5.848665E-1	5.819079E-1	5.711308E-1	6.007110E-1	5.858456E-1	5.845371E-1	5.870268E-1	5.417574E-1	5.593575E-1	6.026506E-1	6.072840E-1	5.731497E-1	5.577607E-1	5.631496E-1	5.556373E-1	5.755732E-1	5.584413E-1	5.984151E-1	5.852690E-1	5.901721E-1	6.123522E-1	6.260144E-1	6.089701E-1	5.915875E-1	6.095226E-1	5.741611E-1	5.449023E-1	6.181875E-1	6.147529E-1	5.708770E-1	5.989527E-1	5.622830E-1	5.994282E-1	5.760098E-1	5.523555E-1	5.840777E-1	6.230462E-1	5.736801E-1	6.028337E-1	6.229268E-1	5.953658E-1	6.023691E-1	5.952685E-1	6.129164E-1	5.186878E-1	6.535924E-1	6.144114E-1
2.874030E+2	4.653170E-1	3.996612E-1	4.079038E-1	4.432613E-1	4.248150E-1	4.612217E-1	4.573829E-1	3.800439E-1	4.549740E-1	4.177759E-1	4.262992E-1	4.353072E-1	4.112456E-1	4.271257E-1	4.123781E-1	4.065089E-1	3.915396E-1	4.177676E-1	4.086791E-1	4.224024E-1	3.752172E-1	4.310445E-1	4.071294E-1	4.171693E-1	4.242104E-1	4.128425E-1	4.215051E-1	4.138731E-1	4.348241E-1	4.093485E-1	4.077585E-1	4.359486E-1	3.941119E-1	3.988660E-1	3.936623E-1	4.182897E-1	3.955226E-1	4.040961E-1	4.027805E-1	4.461588E-1	4.300750E-1	4.098656E-1	4.059041E-1	4.413790E-1	4.278201E-1	4.330376E-1	4.162927E-1	4.038636E-1	3.990636E-1	3.941820E-1	4.523465E-1	4.254360E-1	4.174063E-1	4.451300E-1	4.169104E-1	4.232221E-1	4.053576E-1	4.381651E-1	4.385235E-1	4.633565E-1	4.148780E-1	4.386060E-1	3.977299E-1	4.134932E-1	4.372276E-1	4.249664E-1	4.021025E-1	4.213027E-1	4.377264E-1	4.253187E-1	3.986927E-1	4.037126E-1	4.037582E-1	4.683447E-1	4.565425E-1	4.082464E-1	4.350990E-1	3.885990E-1	4.174097E-1	4.302692E-1	4.686001E-1	4.203159E-1	4.118671E-1	4.155524E-1	4.480353E-1	4.230622E-1	4.020117E-1	4.124713E-1	3.858378E-1	4.376814E-1	3.781595E-1	4.245458E-1	4.192111E-1	4.333315E-1	4.045618E-1	4.365065E-1	4.159270E-1	3.944926E-1	4.215973E-1	4.261615E-1	4.275491E-1	4.066812E-1	3.992474E-1	4.112889E-1	4.188228E-1	4.210625E-1	4.207667E-1	4.077049E-1	4.108084E-1	4.135454E-1	4.438711E-1	4.309093E-1	3.988185E-1	3.965631E-1	4.301054E-1	4.215819E-1	3.859774E-1	4.356680E-1	4.212614E-1	4.201736E-1	4.136406E-1	4.350658E-1	4.275748E-1	4.179055E-1	4.161233E-1	4.406729E-1	4.091925E-1	4.001013E-1	4.053648E-1	4.338419E-1	4.203126E-1	4.109912E-1	4.542983E-1	4.158253E-1	4.210661E-1	4.205453E-1	3.900299E-1	4.044536E-1	4.555613E-1	4.202606E-1	4.265033E-1	4.135888E-1	4.213344E-1	4.947819E-1	4.466510E-1	4.356006E-1	4.207337E-1	4.320713E-1	4.298103E-1	4.206602E-1	4.129062E-1	4.121601E-1	4.180178E-1	4.143255E-1	3.876468E-1	4.042499E-1	4.121028E-1	4.436948E-1	4.200105E-1	4.196955E-1	4.183450E-1	4.481484E-1	4.354540E-1	4.702435E-1	4.197376E-1	4.171341E-1	4.090195E-1	4.013813E-1	4.135483E-1	3.764517E-1	3.463209E-1
2.876020E+2	3.750618E-1	4.153924E-1	4.125868E-1	3.773781E-1	3.557084E-1	4.179386E-1	3.788071E-1	3.797207E-1	4.254079E-1	3.756799E-1	3.974726E-1	3.776501E-1	3.851708E-1	4.075881E-1	3.991585E-1	4.008370E-1	4.061445E-1	3.551249E-1	3.546994E-1	3.965220E-1	4.284293E-1	3.486787E-1	3.761263E-1	3.737939E-1	4.413151E-1	3.634453E-1	3.791983E-1	3.558326E-1	3.820637E-1	4.076009E-1	4.091654E-1	4.022971E-1	3.711960E-1	3.620776E-1	3.996197E-1	3.909807E-1	3.833510E-1	3.970486E-1	3.727745E-1	3.932193E-1	4.265996E-1	3.918784E-1	3.737560E-1	3.850236E-1	3.920328E-1	3.792516E-1	3.839889E-1	3.751081E-1	3.941330E-1	3.918744E-1	3.764116E-1	3.898248E-1	3.633227E-1	3.805729E-1	3.871247E-1	3.941332E-1	3.777537E-1	3.912340E-1	3.813127E-1	3.950695E-1	3.638321E-1	3.674316E-1	3.778645E-1	3.846578E-1	3.603796E-1	3.938763E-1	3.618083E-1	3.687204E-1	3.623741E-1	4.096468E-1	3.792711E-1	3.838199E-1	3.424746E-1	3.918825E-1	3.870674E-1	4.082075E-1	3.908733E-1	3.690061E-1	3.731304E-1	3.677424E-1	3.988337E-1	3.762277E-1	4.085445E-1	4.101628E-1	3.757699E-1	4.024953E-1	4.002562E-1	3.446141E-1	3.585361E-1	3.708696E-1	3.775892E-1	3.939568E-1	4.161212E-1	4.038561E-1	3.749880E-1	3.758288E-1	4.110831E-1	3.913737E-1	3.861705E-1	3.993164E-1	3.792742E-1	3.721128E-1	4.087307E-1	3.739654E-1	3.739596E-1	3.876604E-1	3.759410E-1	3.669240E-1	3.378170E-1	4.103521E-1	3.960362E-1	4.079765E-1	4.018006E-1	4.086610E-1	3.742298E-1	3.919160E-1	4.011903E-1	3.937478E-1	3.765416E-1	3.615538E-1	3.921862E-1	3.776376E-1	3.651725E-1	3.718619E-1	4.140953E-1	4.045425E-1	3.814921E-1	3.938595E-1	3.889375E-1	4.324032E-1	3.872857E-1	4.055351E-1	3.638492E-1	3.974585E-1	3.962334E-1	4.049527E-1	4.049377E-1	3.823513E-1	4.068423E-1	3.752658E-1	4.099785E-1	3.873055E-1	3.752624E-1	3.914246E-1	3.899174E-1	3.841249E-1	3.875720E-1	4.049480E-1	4.112185E-1	3.802192E-1	3.740991E-1	4.164510E-1	4.061432E-1	3.689147E-1	4.178959E-1	3.843903E-1	4.076220E-1	3.796741E-1	3.859896E-1	4.038094E-1	3.998019E-1	3.915325E-1	3.758699E-1	3.701022E-1	4.062745E-1	3.940241E-1	3.922212E-1	4.154573E-1	3.980560E-1	3.812289E-1	3.786626E-1
2.878050E+2	4.554561E-1	4.239319E-1	4.294647E-1	4.398748E-1	4.017942E-1	4.621854E-1	4.316304E-1	4.067383E-1	4.263388E-1	3.898787E-1	4.529160E-1	4.263754E-1	4.524870E-1	4.302507E-1	4.342469E-1	4.219938E-1	4.260978E-1	4.372279E-1	4.163287E-1	4.611495E-1	4.716393E-1	4.998347E-1	4.410550E-1	4.160562E-1	4.493036E-1	4.209596E-1	4.594907E-1	4.139494E-1	4.289263E-1	4.478252E-1	4.262854E-1	4.539056E-1	4.076349E-1	4.477851E-1	4.355986E-1	4.307736E-1	4.257822E-1	4.195701E-1	4.118968E-1	4.410348E-1	4.392516E-1	4.544969E-1	4.473735E-1	4.262573E-1	4.325226E-1	4.479850E-1	4.321989E-1	4.434418E-1	4.304843E-1	4.120213E-1	4.386568E-1	4.470305E-1	4.364116E-1	4.269197E-1	4.293001E-1	3.974174E-1	4.544587E-1	4.317359E-1	4.347660E-1	4.330373E-1	4.418496E-1	4.762250E-1	4.557987E-1	4.493730E-1	4.411358E-1	4.432099E-1	4.296931E-1	4.427721E-1	4.245813E-1	4.328202E-1	4.292625E-1	4.490141E-1	4.231864E-1	4.602647E-1	4.665678E-1	4.417017E-1	4.193995E-1	4.309702E-1	4.225151E-1	4.200668E-1	4.564794E-1	4.379919E-1	4.283706E-1	4.297906E-1	4.687818E-1	4.286898E-1	4.508272E-1	4.806596E-1	4.540496E-1	4.189866E-1	4.568152E-1	4.071224E-1	4.255033E-1	4.193873E-1	3.937852E-1	4.657870E-1	4.402633E-1	4.543428E-1	4.540532E-1	4.641095E-1	4.444469E-1	4.580573E-1	4.268962E-1	4.399177E-1	4.374948E-1	4.126614E-1	4.721182E-1	4.297515E-1	4.745600E-1	4.260664E-1	4.328487E-1	4.175563E-1	4.364923E-1	4.717081E-1	4.358401E-1	4.557794E-1	4.143883E-1	4.509016E-1	4.541626E-1	4.533234E-1	4.819549E-1	4.409655E-1	4.473581E-1	4.475485E-1	4.445904E-1	4.533255E-1	4.484049E-1	4.447322E-1	4.616808E-1	4.045427E-1	4.185359E-1	4.082839E-1	4.416939E-1	4.539739E-1	4.590924E-1	4.264713E-1	4.475033E-1	4.452015E-1	4.065753E-1	4.216063E-1	4.158440E-1	4.123335E-1	4.207122E-1	4.416331E-1	4.382174E-1	4.398566E-1	4.346876E-1	4.428613E-1	4.523146E-1	4.134958E-1	4.420579E-1	4.608323E-1	4.425433E-1	4.712861E-1	4.593480E-1	4.357344E-1	4.692560E-1	4.645142E-1	4.277591E-1	4.085221E-1	4.743653E-1	4.150887E-1	4.382834E-1	4.781911E-1	4.495453E-1	4.249320E-1	4.641902E-1	4.341570E-1	3.821275E-1	3.874587E-1	3.952954E-1
2.880040E+2	4.668817E-1	4.912023E-1	4.965829E-1	4.707978E-1	4.984492E-1	4.808659E-1	4.863490E-1	4.894229E-1	5.169316E-1	5.062168E-1	4.830594E-1	4.796431E-1	4.800293E-1	4.850047E-1	4.542166E-1	4.739927E-1	4.589103E-1	4.766880E-1	4.783272E-1	4.705775E-1	4.933060E-1	5.004461E-1	4.980234E-1	4.598266E-1	5.144001E-1	4.635056E-1	4.469286E-1	4.672336E-1	4.704990E-1	4.844570E-1	4.826729E-1	5.064492E-1	4.815892E-1	5.189946E-1	4.593287E-1	4.699851E-1	4.689393E-1	4.750732E-1	4.734919E-1	4.324105E-1	4.718720E-1	5.174782E-1	5.020512E-1	4.818434E-1	4.933881E-1	5.063816E-1	4.775958E-1	5.056018E-1	4.927576E-1	4.433253E-1	5.162204E-1	4.478320E-1	4.665224E-1	5.046790E-1	4.897961E-1	4.738203E-1	4.919774E-1	4.788327E-1	4.797909E-1	4.712149E-1	4.788023E-1	4.979604E-1	4.820747E-1	4.664150E-1	4.581462E-1	4.849245E-1	4.364168E-1	4.584769E-1	4.710945E-1	4.800655E-1	4.541470E-1	5.066927E-1	4.925372E-1	4.748229E-1	5.046014E-1	4.844698E-1	4.672209E-1	5.116988E-1	5.113922E-1	4.885235E-1	4.984776E-1	5.328370E-1	5.016460E-1	5.107224E-1	4.904296E-1	4.806529E-1	4.977438E-1	4.871650E-1	4.917195E-1	4.746750E-1	4.953897E-1	4.869904E-1	4.633951E-1	4.697866E-1	4.653728E-1	4.739575E-1	4.694456E-1	4.901567E-1	4.825886E-1	4.972803E-1	4.889912E-1	4.778010E-1	4.813407E-1	4.644893E-1	4.786090E-1	4.962180E-1	4.762951E-1	4.720365E-1	4.647567E-1	4.958207E-1	4.912321E-1	4.823639E-1	5.159295E-1	5.022511E-1	4.831199E-1	4.891160E-1	4.693042E-1	4.841209E-1	4.456738E-1	4.791519E-1	4.628168E-1	4.932162E-1	5.093309E-1	5.039467E-1	5.293707E-1	4.782757E-1	5.051448E-1	4.503092E-1	5.034876E-1	4.911272E-1	4.525263E-1	4.517622E-1	4.802764E-1	4.638037E-1	4.810531E-1	4.956755E-1	4.896994E-1	4.952807E-1	4.834520E-1	5.071419E-1	4.809891E-1	5.095642E-1	4.593230E-1	4.871987E-1	4.775025E-1	4.886061E-1	4.938914E-1	4.780097E-1	4.906117E-1	4.838015E-1	4.464257E-1	5.354575E-1	4.802139E-1	4.827405E-1	4.545488E-1	4.858679E-1	4.931800E-1	5.005924E-1	4.929775E-1	4.455475E-1	4.701716E-1	4.558958E-1	4.991577E-1	5.541629E-1	5.036630E-1	4.623215E-1	4.976067E-1	4.818642E-1	4.982042E-1	4.719728E-1	4.527246E-1
2.882020E+2	5.532836E-1	4.981910E-1	5.421466E-1	4.829618E-1	4.810568E-1	5.199794E-1	4.995337E-1	5.116111E-1	5.012770E-1	5.105760E-1	4.613107E-1	4.942741E-1	4.946159E-1	5.107147E-1	4.612229E-1	4.848400E-1	4.692431E-1	5.080543E-1	5.504608E-1	5.261514E-1	5.104786E-1	4.648231E-1	5.133924E-1	5.258368E-1	5.346311E-1	4.938566E-1	4.797003E-1	4.558110E-1	5.178416E-1	5.238221E-1	5.059948E-1	5.139831E-1	5.085767E-1	5.027011E-1	4.810196E-1	5.114066E-1	4.882050E-1	5.454972E-1	5.576574E-1	4.720228E-1	5.256914E-1	5.347727E-1	5.367115E-1	5.475468E-1	5.343706E-1	4.855442E-1	5.224563E-1	4.971002E-1	4.990298E-1	4.912150E-1	5.348220E-1	4.847304E-1	5.347197E-1	5.482519E-1	4.940761E-1	4.719124E-1	4.958193E-1	5.456765E-1	5.191209E-1	5.194475E-1	4.882252E-1	5.208694E-1	4.872165E-1	4.897696E-1	5.381381E-1	5.131306E-1	5.100517E-1	4.893169E-1	5.281972E-1	5.055744E-1	5.325344E-1	4.719944E-1	5.166343E-1	5.053069E-1	5.216675E-1	5.187674E-1	5.015966E-1	4.922787E-1	5.128490E-1	5.142436E-1	5.242925E-1	5.017981E-1	5.196637E-1	5.129663E-1	4.926434E-1	5.409852E-1	5.299573E-1	5.250455E-1	5.164474E-1	5.166574E-1	5.223034E-1	5.370093E-1	5.488603E-1	4.738868E-1	5.260815E-1	5.033697E-1	5.345883E-1	5.143908E-1	5.165687E-1	4.889091E-1	5.450331E-1	5.019119E-1	5.014521E-1	4.963360E-1	4.862681E-1	5.430387E-1	5.069008E-1	4.778442E-1	4.940241E-1	5.145107E-1	5.530637E-1	4.916652E-1	5.180627E-1	5.145760E-1	5.276958E-1	5.335387E-1	5.140225E-1	5.139657E-1	5.281459E-1	5.128471E-1	4.760935E-1	5.177819E-1	5.250599E-1	5.376500E-1	4.961777E-1	5.340856E-1	5.353682E-1	5.165509E-1	5.226534E-1	4.925242E-1	5.268099E-1	5.297922E-1	5.385808E-1	5.070474E-1	5.451843E-1	5.177898E-1	5.021500E-1	4.871439E-1	5.303279E-1	5.258209E-1	5.076479E-1	5.117865E-1	4.826899E-1	5.279635E-1	5.423910E-1	5.434471E-1	4.847685E-1	5.618741E-1	5.074857E-1	5.099074E-1	5.119444E-1	5.471414E-1	5.509597E-1	5.250167E-1	5.142555E-1	5.264389E-1	5.444310E-1	5.054694E-1	5.037761E-1	5.072408E-1	5.172556E-1	5.381149E-1	4.989561E-1	5.101790E-1	5.022213E-1	4.714172E-1	5.266007E-1	5.144302E-1	5.397141E-1	4.664071E-1	4.604762E-1
2.884040E+2	5.879974E-1	6.033958E-1	5.848432E-1	5.848056E-1	6.127223E-1	5.542462E-1	5.637574E-1	5.800964E-1	5.785223E-1	5.883203E-1	5.902144E-1	5.610118E-1	5.431950E-1	6.071310E-1	5.685457E-1	5.903379E-1	5.792188E-1	5.646792E-1	5.712151E-1	5.677422E-1	5.974793E-1	5.741513E-1	5.492295E-1	5.857306E-1	5.829313E-1	5.817958E-1	5.742950E-1	5.482405E-1	6.024663E-1	5.546911E-1	6.131994E-1	5.869011E-1	5.788849E-1	5.820497E-1	6.020309E-1	5.466289E-1	5.683928E-1	5.892240E-1	5.776696E-1	5.555003E-1	5.475929E-1	5.689436E-1	5.892082E-1	5.997683E-1	6.086010E-1	6.087463E-1	5.852790E-1	5.714421E-1	5.685260E-1	5.623935E-1	5.565609E-1	5.645162E-1	5.635298E-1	5.896529E-1	5.826543E-1	5.831915E-1	6.049429E-1	6.140751E-1	5.758555E-1	6.011087E-1	6.186429E-1	6.123082E-1	5.839618E-1	5.617913E-1	6.288053E-1	5.392805E-1	5.761556E-1	5.703073E-1	5.958411E-1	5.820479E-1	5.825620E-1	5.642731E-1	5.525560E-1	5.935606E-1	5.939328E-1	5.574829E-1	5.870593E-1	5.909169E-1	5.917245E-1	5.552590E-1	5.856749E-1	6.089567E-1	5.962259E-1	5.610387E-1	5.987708E-1	5.889536E-1	5.922424E-1	5.617361E-1	5.416139E-1	6.283057E-1	5.809505E-1	5.944569E-1	6.301266E-1	6.175902E-1	6.175225E-1	6.197272E-1	6.042997E-1	5.755754E-1	5.756941E-1	5.707855E-1	5.839915E-1	5.879025E-1	5.951876E-1	5.575280E-1	5.838700E-1	6.139275E-1	5.892740E-1	5.580451E-1	5.507374E-1	5.724047E-1	5.653435E-1	5.723865E-1	6.070489E-1	6.176705E-1	5.642200E-1	5.428782E-1	5.550772E-1	5.739403E-1	6.048189E-1	5.663763E-1	6.022306E-1	5.703065E-1	5.975643E-1	5.716518E-1	5.598247E-1	5.850687E-1	5.645138E-1	6.092236E-1	5.627958E-1	5.824527E-1	5.734490E-1	5.770523E-1	6.118263E-1	5.899164E-1	5.846435E-1	5.917205E-1	6.006331E-1	5.998042E-1	6.519913E-1	5.855255E-1	5.839761E-1	5.993015E-1	5.883544E-1	5.964237E-1	6.111501E-1	6.138460E-1	5.770359E-1	5.521464E-1	5.571071E-1	5.616082E-1	5.771190E-1	5.957955E-1	6.177594E-1	5.613569E-1	5.621772E-1	6.070736E-1	5.860813E-1	6.022152E-1	5.757401E-1	6.040655E-1	5.853257E-1	5.631684E-1	5.986328E-1	6.435602E-1	6.068813E-1	5.617039E-1	5.891074E-1	5.999294E-1	5.554920E-1	6.459699E-1	5.908224E-1
2.886030E+2	6.092869E-1	5.905074E-1	6.208706E-1	6.216239E-1	6.134439E-1	6.151175E-1	5.796415E-1	5.746888E-1	6.389571E-1	6.112200E-1	6.216922E-1	6.314534E-1	6.365120E-1	6.300050E-1	6.534027E-1	5.992386E-1	6.185260E-1	6.020559E-1	6.111014E-1	6.170129E-1	6.198881E-1	6.167938E-1	5.960275E-1	5.891825E-1	5.972287E-1	6.161949E-1	6.082973E-1	5.941467E-1	5.893360E-1	5.958584E-1	6.156306E-1	6.052107E-1	5.996422E-1	6.240578E-1	6.021060E-1	6.336178E-1	6.190562E-1	6.499279E-1	6.216444E-1	5.960461E-1	6.639157E-1	6.386746E-1	6.432481E-1	5.824229E-1	6.257437E-1	6.529120E-1	6.391802E-1	6.168962E-1	6.013213E-1	6.085364E-1	6.090135E-1	6.272112E-1	6.235648E-1	6.180375E-1	5.764716E-1	5.803651E-1	6.371485E-1	6.449331E-1	6.192035E-1	5.882040E-1	5.983461E-1	6.336606E-1	6.018199E-1	6.066811E-1	6.550906E-1	6.346789E-1	5.793759E-1	5.665580E-1	5.828745E-1	6.052569E-1	5.869324E-1	6.778748E-1	5.707411E-1	6.261986E-1	6.368885E-1	6.045873E-1	6.446764E-1	6.675779E-1	6.282930E-1	6.132571E-1	6.169498E-1	5.859657E-1	6.326164E-1	6.263022E-1	6.697025E-1	6.654617E-1	6.236206E-1	5.900125E-1	6.138280E-1	6.025028E-1	5.873660E-1	6.234099E-1	5.904229E-1	6.110664E-1	5.987306E-1	6.156501E-1	6.367137E-1	5.890911E-1	6.497384E-1	6.578934E-1	6.262791E-1	6.616272E-1	6.352630E-1	5.970285E-1	6.699180E-1	5.880230E-1	6.455874E-1	5.468210E-1	6.055068E-1	6.259445E-1	6.216096E-1	5.629909E-1	6.103916E-1	5.989048E-1	6.016250E-1	6.132141E-1	6.511176E-1	6.041760E-1	6.218503E-1	5.883309E-1	6.301309E-1	5.860685E-1	6.552961E-1	6.073311E-1	6.499277E-1	6.073153E-1	6.387747E-1	6.084065E-1	6.292467E-1	6.555003E-1	6.076640E-1	5.972730E-1	6.270935E-1	6.240705E-1	6.003131E-1	6.303297E-1	5.968995E-1	6.259180E-1	6.338267E-1	5.990058E-1	6.510696E-1	5.891230E-1	6.061617E-1	6.265955E-1	6.301564E-1	6.323776E-1	5.585598E-1	6.196160E-1	6.551162E-1	6.410529E-1	6.337608E-1	6.187181E-1	6.344355E-1	6.225579E-1	6.338072E-1	6.452275E-1	6.051200E-1	6.382107E-1	6.118127E-1	5.735852E-1	6.438231E-1	6.052014E-1	6.393363E-1	6.482982E-1	6.251532E-1	6.479433E-1	6.481060E-1	6.088527E-1	6.441160E-1	6.213600E-1	6.490788E-1
2.888230E+2	6.959281E-1	6.625086E-1	6.529678E-1	6.863946E-1	7.021613E-1	7.024204E-1	6.630920E-1	6.520342E-1	6.813048E-1	6.784069E-1	6.228905E-1	6.369227E-1	6.341048E-1	6.635105E-1	6.780038E-1	6.655912E-1	6.767031E-1	6.799944E-1	6.248947E-1	6.695918E-1	6.519143E-1	6.593059E-1	6.734036E-1	6.594962E-1	7.006347E-1	6.696044E-1	7.128183E-1	6.294160E-1	6.469951E-1	7.143228E-1	6.206957E-1	6.622225E-1	6.491765E-1	6.495648E-1	6.774959E-1	6.849451E-1	6.752881E-1	6.545605E-1	6.518688E-1	6.540903E-1	6.699284E-1	6.723911E-1	6.413144E-1	6.811024E-1	7.161277E-1	6.574010E-1	6.781558E-1	6.260597E-1	6.964230E-1	6.591030E-1	7.087375E-1	6.856316E-1	6.555600E-1	6.984239E-1	6.786172E-1	6.649709E-1	6.849479E-1	6.799595E-1	6.571477E-1	6.665361E-1	7.010432E-1	6.683441E-1	7.153093E-1	6.472690E-1	6.882912E-1	6.591457E-1	6.632068E-1	6.418778E-1	6.513065E-1	7.093987E-1	6.592882E-1	6.775127E-1	6.861832E-1	7.034850E-1	6.678570E-1	6.732099E-1	6.554738E-1	6.536193E-1	6.915629E-1	6.226989E-1	6.996965E-1	6.341768E-1	6.648250E-1	6.783405E-1	6.643920E-1	6.657686E-1	6.687001E-1	6.484663E-1	6.683606E-1	6.466072E-1	6.718213E-1	6.809612E-1	6.388925E-1	6.715514E-1	6.629942E-1	6.498948E-1	6.880802E-1	6.582079E-1	6.758754E-1	6.871876E-1	6.673900E-1	6.605789E-1	6.775060E-1	6.390512E-1	6.864164E-1	6.668501E-1	6.501274E-1	6.464035E-1	6.735771E-1	6.637415E-1	7.054251E-1	6.449547E-1	6.651120E-1	6.600869E-1	6.623759E-1	6.591088E-1	6.281192E-1	7.031167E-1	6.865447E-1	6.538839E-1	6.744449E-1	6.956953E-1	6.571338E-1	7.076413E-1	6.964828E-1	6.725836E-1	6.877990E-1	6.636867E-1	6.688463E-1	6.819448E-1	6.592219E-1	6.620712E-1	6.636160E-1	6.889486E-1	6.513164E-1	6.591597E-1	6.585348E-1	7.180395E-1	6.852641E-1	6.727640E-1	6.781807E-1	6.805748E-1	6.751154E-1	6.596474E-1	6.483685E-1	6.879278E-1	6.952389E-1	6.925332E-1	6.848205E-1	6.684339E-1	6.396795E-1	6.683962E-1	7.456973E-1	6.600630E-1	6.542505E-1	6.707014E-1	6.764790E-1	6.461657E-1	6.278946E-1	6.400079E-1	6.630720E-1	6.667892E-1	6.362896E-1	6.909222E-1	6.579527E-1	6.473961E-1	7.003356E-1	6.463082E-1	6.543364E-1	7.301815E-1	6.825037E-1
2.890080E+2	7.334812E-1	6.727262E-1	6.876715E-1	7.012145E-1	7.153305E-1	7.078735E-1	7.578720E-1	6.413670E-1	6.481093E-1	6.561379E-1	6.973826E-1	6.991660E-1	6.717419E-1	7.402889E-1	6.841273E-1	7.074579E-1	6.819986E-1	6.882941E-1	7.142405E-1	6.805667E-1	6.820281E-1	6.964954E-1	6.921060E-1	6.843959E-1	7.510833E-1	6.987486E-1	7.107097E-1	6.953573E-1	6.910970E-1	6.827887E-1	7.296657E-1	7.218522E-1	6.628855E-1	6.787832E-1	6.993940E-1	6.693251E-1	6.873623E-1	6.741313E-1	6.942259E-1	6.977818E-1	7.078289E-1	6.921473E-1	6.895904E-1	7.181713E-1	6.912148E-1	6.805766E-1	7.125224E-1	6.714089E-1	7.201096E-1	7.140701E-1	6.866331E-1	6.740686E-1	7.221436E-1	7.039932E-1	6.577353E-1	6.951121E-1	7.173245E-1	7.535873E-1	6.662291E-1	6.611079E-1	6.918127E-1	6.562665E-1	6.425500E-1	7.105755E-1	6.840374E-1	6.757303E-1	7.051874E-1	6.735466E-1	6.881679E-1	6.954959E-1	7.353927E-1	7.028893E-1	6.709385E-1	6.674264E-1	7.148853E-1	6.995361E-1	6.842297E-1	7.496366E-1	7.170946E-1	6.580871E-1	6.969530E-1	6.912853E-1	6.800137E-1	6.621079E-1	6.985911E-1	7.250307E-1	6.747682E-1	6.815509E-1	6.773061E-1	6.724049E-1	6.895396E-1	7.311763E-1	7.294401E-1	7.103813E-1	6.456722E-1	6.966884E-1	6.884177E-1	6.646651E-1	7.229366E-1	6.309754E-1	7.504012E-1	6.940595E-1	7.291698E-1	7.061210E-1	6.860981E-1	7.319409E-1	6.893396E-1	6.323461E-1	6.308738E-1	6.923803E-1	6.951744E-1	6.653309E-1	7.282598E-1	7.098234E-1	7.403114E-1	6.852036E-1	6.880540E-1	6.876032E-1	6.962711E-1	7.033958E-1	7.080515E-1	7.349441E-1	7.145927E-1	6.823522E-1	7.118105E-1	7.150934E-1	7.316875E-1	7.018082E-1	7.485308E-1	6.991115E-1	6.744301E-1	7.487508E-1	7.351598E-1	7.333098E-1	7.095817E-1	6.813270E-1	6.880422E-1	7.167445E-1	7.160840E-1	6.728846E-1	6.656226E-1	7.015242E-1	6.878581E-1	6.989455E-1	6.869729E-1	6.986388E-1	7.157636E-1	7.145711E-1	7.094326E-1	7.019205E-1	7.236301E-1	6.975725E-1	6.887707E-1	7.093688E-1	6.903862E-1	6.647506E-1	7.302623E-1	7.352481E-1	6.889695E-1	6.761849E-1	7.493447E-1	7.245613E-1	7.102691E-1	6.973518E-1	6.805893E-1	6.564157E-1	7.165917E-1	7.104853E-1	6.845434E-1	6.160218E-1	6.778295E-1
2.892050E+2	6.728765E-1	6.751404E-1	6.667635E-1	6.668448E-1	6.598115E-1	6.889638E-1	6.748096E-1	6.901142E-1	6.581728E-1	6.740730E-1	6.669007E-1	6.758364E-1	6.501603E-1	6.909966E-1	6.699368E-1	6.819238E-1	6.587151E-1	6.600938E-1	6.702891E-1	6.887532E-1	6.726022E-1	6.566029E-1	6.492938E-1	6.675988E-1	7.039674E-1	6.744544E-1	6.667421E-1	6.630022E-1	6.849080E-1	6.564976E-1	6.619682E-1	6.795034E-1	6.568981E-1	6.587449E-1	6.425633E-1	7.115909E-1	6.756922E-1	6.944382E-1	7.186543E-1	6.774950E-1	6.920209E-1	6.711315E-1	6.466394E-1	6.846619E-1	6.657128E-1	7.091564E-1	6.588830E-1	6.484595E-1	6.716454E-1	6.887642E-1	6.685909E-1	6.842015E-1	6.359292E-1	6.984255E-1	6.894015E-1	6.455618E-1	6.935545E-1	6.880062E-1	7.367366E-1	6.927127E-1	6.743801E-1	7.038644E-1	6.706518E-1	6.359325E-1	6.993578E-1	6.700552E-1	6.441176E-1	6.537845E-1	6.920905E-1	6.887381E-1	6.809674E-1	6.541079E-1	7.121168E-1	6.602159E-1	6.924886E-1	6.657974E-1	7.123736E-1	6.937920E-1	6.599767E-1	5.954144E-1	7.021895E-1	6.613491E-1	7.166443E-1	6.941157E-1	7.077721E-1	7.120850E-1	6.958743E-1	6.816196E-1	6.937793E-1	6.404100E-1	6.393566E-1	6.904842E-1	6.960842E-1	7.191200E-1	6.565920E-1	6.194832E-1	6.517517E-1	6.865192E-1	7.031710E-1	6.838523E-1	7.127436E-1	6.700891E-1	6.763755E-1	6.745717E-1	6.623976E-1	6.802901E-1	6.721385E-1	6.604169E-1	6.899673E-1	7.466983E-1	6.973087E-1	6.559537E-1	6.770710E-1	6.510635E-1	6.554120E-1	6.884279E-1	6.454595E-1	6.944222E-1	6.708822E-1	6.494056E-1	6.951748E-1	6.978720E-1	6.577518E-1	6.903923E-1	6.656747E-1	6.940463E-1	6.924521E-1	6.500892E-1	7.418951E-1	6.959145E-1	6.566267E-1	6.476922E-1	7.123794E-1	7.117197E-1	7.079935E-1	6.806702E-1	6.904394E-1	6.922571E-1	6.740265E-1	6.987047E-1	6.791576E-1	6.730380E-1	6.662604E-1	6.265652E-1	6.854357E-1	6.730732E-1	6.699596E-1	6.449956E-1	7.434067E-1	6.420807E-1	6.702313E-1	6.904005E-1	6.856700E-1	6.487814E-1	6.395599E-1	6.695125E-1	6.870805E-1	7.147639E-1	6.720555E-1	6.951648E-1	6.631524E-1	6.838013E-1	6.939140E-1	7.029739E-1	7.023911E-1	6.713587E-1	6.548672E-1	7.131862E-1	7.157061E-1	6.913080E-1	7.088707E-1
2.894050E+2	5.833838E-1	5.791817E-1	5.550650E-1	5.987689E-1	5.619033E-1	5.774989E-1	5.890792E-1	5.482382E-1	5.958237E-1	5.939523E-1	5.511631E-1	5.574526E-1	5.266678E-1	5.713776E-1	5.308773E-1	5.825347E-1	5.662431E-1	5.788380E-1	5.880764E-1	5.780145E-1	5.459152E-1	5.897087E-1	5.884036E-1	5.619202E-1	6.165156E-1	5.769916E-1	5.412567E-1	5.679840E-1	5.870902E-1	5.524046E-1	5.917370E-1	5.711669E-1	5.334472E-1	5.897116E-1	5.969010E-1	5.881448E-1	5.660177E-1	6.264494E-1	5.559159E-1	5.767775E-1	5.592217E-1	5.696100E-1	5.727176E-1	6.004535E-1	5.552110E-1	6.008426E-1	5.883420E-1	5.403000E-1	5.881925E-1	5.489193E-1	5.767600E-1	5.601284E-1	5.808754E-1	5.768161E-1	5.661829E-1	5.930294E-1	5.581006E-1	5.630766E-1	5.813427E-1	6.011334E-1	5.601023E-1	6.029436E-1	5.530898E-1	5.650947E-1	5.542699E-1	5.729851E-1	5.621108E-1	5.290483E-1	5.430881E-1	5.685434E-1	5.741149E-1	5.710929E-1	5.906237E-1	6.086415E-1	6.014209E-1	5.872282E-1	5.333900E-1	5.973508E-1	5.701869E-1	6.078728E-1	5.688627E-1	5.665220E-1	5.816724E-1	5.605872E-1	5.721858E-1	6.069547E-1	5.986404E-1	5.366032E-1	5.802080E-1	5.785350E-1	6.068460E-1	5.769817E-1	6.029003E-1	5.834578E-1	5.815914E-1	5.931504E-1	5.807736E-1	5.755673E-1	5.587844E-1	5.786454E-1	6.008550E-1	5.786362E-1	5.981309E-1	5.543515E-1	5.998734E-1	5.539281E-1	5.715004E-1	5.494809E-1	5.534689E-1	5.912795E-1	5.792106E-1	5.344045E-1	5.676971E-1	5.863649E-1	5.829662E-1	5.785319E-1	6.311731E-1	5.879134E-1	5.487497E-1	5.910597E-1	5.836790E-1	5.941888E-1	5.687775E-1	5.694160E-1	5.556325E-1	5.688528E-1	5.627038E-1	5.495405E-1	5.823358E-1	5.418887E-1	5.895267E-1	5.787765E-1	5.664819E-1	5.761828E-1	5.596657E-1	5.659437E-1	5.369268E-1	5.655233E-1	5.968091E-1	5.964471E-1	6.243807E-1	5.590495E-1	5.538397E-1	5.792082E-1	5.969333E-1	5.944623E-1	6.085751E-1	5.669894E-1	6.207066E-1	5.906608E-1	5.812672E-1	5.808193E-1	5.651835E-1	5.618042E-1	5.069443E-1	5.905329E-1	5.805892E-1	5.830289E-1	5.750093E-1	5.832870E-1	5.414671E-1	5.814473E-1	5.690152E-1	5.737630E-1	6.022654E-1	5.565886E-1	5.589713E-1	5.849290E-1	5.918079E-1	6.172711E-1	4.814057E-1
2.896060E+2	5.022455E-1	4.784103E-1	4.769184E-1	4.770106E-1	5.093889E-1	5.007865E-1	4.905632E-1	5.081841E-1	4.838178E-1	5.003427E-1	4.635824E-1	4.844891E-1	4.593030E-1	4.885518E-1	4.636596E-1	4.996575E-1	4.877232E-1	4.801450E-1	4.845191E-1	4.693539E-1	5.046417E-1	5.114973E-1	4.821563E-1	4.592715E-1	5.327407E-1	5.028742E-1	4.991471E-1	5.045686E-1	4.986407E-1	5.122875E-1	4.472406E-1	5.202248E-1	4.960617E-1	4.954273E-1	4.987984E-1	5.103481E-1	5.071473E-1	5.122917E-1	4.621240E-1	4.476983E-1	4.653518E-1	4.912172E-1	4.779529E-1	4.643169E-1	4.855276E-1	4.905616E-1	4.811999E-1	4.794403E-1	4.636123E-1	4.824136E-1	5.245346E-1	4.815288E-1	4.820386E-1	5.125935E-1	4.973046E-1	4.661560E-1	4.710887E-1	4.540160E-1	4.913144E-1	4.992028E-1	4.682993E-1	5.294616E-1	5.051339E-1	5.231599E-1	5.167294E-1	5.105382E-1	5.138653E-1	4.893600E-1	5.083945E-1	5.193979E-1	4.884062E-1	4.776372E-1	4.994028E-1	4.525287E-1	4.754996E-1	5.024295E-1	4.773261E-1	4.642943E-1	4.791645E-1	4.539864E-1	5.017450E-1	5.016226E-1	4.853047E-1	4.673767E-1	4.928523E-1	4.849968E-1	5.194458E-1	4.501531E-1	4.956274E-1	4.790086E-1	5.119784E-1	4.799635E-1	5.066190E-1	4.884687E-1	4.514488E-1	5.004436E-1	4.922003E-1	5.030442E-1	5.002796E-1	5.149872E-1	5.076771E-1	4.867585E-1	5.034540E-1	4.793930E-1	4.785792E-1	4.854597E-1	4.513705E-1	4.713170E-1	4.933493E-1	4.913103E-1	5.207999E-1	5.263061E-1	5.105077E-1	4.946533E-1	4.923113E-1	4.723912E-1	4.936500E-1	4.916183E-1	5.037323E-1	4.830988E-1	5.090972E-1	5.136331E-1	5.056867E-1	4.979692E-1	4.767396E-1	5.222364E-1	5.248578E-1	4.863402E-1	5.027212E-1	4.957132E-1	4.559074E-1	5.276990E-1	5.079188E-1	4.973061E-1	5.103326E-1	5.018105E-1	4.704057E-1	5.270913E-1	4.840315E-1	5.334749E-1	5.191633E-1	5.042789E-1	4.699846E-1	4.855618E-1	5.146443E-1	4.946509E-1	4.714625E-1	4.959755E-1	5.230729E-1	4.728669E-1	4.870881E-1	5.100289E-1	5.048928E-1	4.830212E-1	5.178892E-1	5.194929E-1	5.175413E-1	4.722283E-1	4.890783E-1	4.829836E-1	5.108736E-1	5.030132E-1	5.190742E-1	5.076613E-1	5.058192E-1	4.844403E-1	4.544092E-1	5.180062E-1	5.121251E-1	4.893104E-1	4.188697E-1
2.898050E+2	4.445163E-1	4.129009E-1	4.313116E-1	4.084126E-1	4.014823E-1	4.077541E-1	4.116293E-1	4.238426E-1	4.156228E-1	4.075174E-1	3.891509E-1	3.855626E-1	3.819044E-1	4.274387E-1	4.310168E-1	3.727555E-1	3.917600E-1	3.883750E-1	4.070131E-1	4.288378E-1	4.317010E-1	3.899598E-1	4.047038E-1	3.752576E-1	3.670600E-1	3.964088E-1	3.812913E-1	3.779750E-1	4.196030E-1	4.207799E-1	4.025535E-1	3.840978E-1	4.121548E-1	4.180289E-1	4.197203E-1	4.051320E-1	4.110146E-1	3.843683E-1	3.869446E-1	4.107278E-1	4.018872E-1	4.281812E-1	4.564327E-1	4.200033E-1	4.007077E-1	4.061418E-1	3.987900E-1	3.911675E-1	4.237928E-1	4.258906E-1	4.008896E-1	4.125137E-1	3.915852E-1	4.014815E-1	4.116226E-1	3.578564E-1	4.113756E-1	4.294822E-1	4.024168E-1	4.124198E-1	4.072545E-1	4.385763E-1	3.869818E-1	4.278471E-1	3.943598E-1	4.088088E-1	4.108645E-1	3.984652E-1	3.881515E-1	4.277021E-1	4.131595E-1	4.321790E-1	4.195411E-1	3.980382E-1	4.257538E-1	3.888591E-1	3.766070E-1	4.270919E-1	3.983605E-1	4.270108E-1	4.313604E-1	4.137329E-1	4.222430E-1	4.149350E-1	4.400920E-1	4.146548E-1	4.344825E-1	4.138919E-1	4.036739E-1	4.198462E-1	3.770500E-1	4.054633E-1	4.136840E-1	4.117368E-1	4.356794E-1	3.688041E-1	4.128528E-1	4.239900E-1	4.042658E-1	4.020387E-1	3.932973E-1	4.242308E-1	4.044565E-1	3.957710E-1	4.314142E-1	4.028548E-1	3.838653E-1	3.916013E-1	4.150651E-1	4.097735E-1	3.897311E-1	3.818208E-1	4.020086E-1	4.293437E-1	4.235443E-1	3.881672E-1	3.650673E-1	4.284332E-1	3.948166E-1	4.043179E-1	4.375004E-1	4.054700E-1	4.088051E-1	4.157880E-1	4.110736E-1	4.094973E-1	3.961773E-1	4.339088E-1	4.054012E-1	3.972950E-1	4.070267E-1	4.388178E-1	4.354248E-1	4.329535E-1	4.346188E-1	4.014022E-1	4.238589E-1	4.298225E-1	4.235495E-1	4.071222E-1	4.209438E-1	4.169508E-1	4.009210E-1	4.013425E-1	3.918474E-1	4.195718E-1	4.128065E-1	4.411093E-1	4.227531E-1	4.087876E-1	4.238536E-1	4.255860E-1	3.975845E-1	4.192631E-1	4.051640E-1	4.156835E-1	3.863851E-1	3.756600E-1	4.099742E-1	3.820282E-1	4.181310E-1	4.069133E-1	4.345156E-1	4.238274E-1	4.307640E-1	4.023873E-1	3.806174E-1	4.180328E-1	4.276980E-1	4.436874E-1	4.465026E-1
2.900020E+2	4.451764E-1	4.452945E-1	4.683146E-1	4.435212E-1	4.429509E-1	4.816557E-1	4.636512E-1	4.663941E-1	4.400797E-1	4.308669E-1	4.248212E-1	4.583265E-1	4.689803E-1	4.393688E-1	4.409731E-1	4.604097E-1	4.710510E-1	4.727737E-1	4.315646E-1	4.595385E-1	4.309797E-1	4.711528E-1	4.341264E-1	4.629030E-1	4.502141E-1	4.675307E-1	4.161053E-1	4.212605E-1	4.571474E-1	4.684031E-1	4.582640E-1	4.543659E-1	4.399096E-1	4.472438E-1	4.344388E-1	4.675025E-1	4.406674E-1	4.537101E-1	4.594678E-1	4.335848E-1	4.550495E-1	4.145350E-1	4.406211E-1	4.533577E-1	4.414275E-1	4.755893E-1	4.592209E-1	4.478605E-1	4.467009E-1	4.365028E-1	4.318395E-1	4.569472E-1	4.607990E-1	4.768045E-1	4.503007E-1	4.237861E-1	4.643015E-1	4.456843E-1	4.267016E-1	4.768063E-1	4.347613E-1	4.563720E-1	4.322560E-1	4.616177E-1	4.464274E-1	5.040868E-1	4.532872E-1	4.192830E-1	4.099431E-1	4.338728E-1	4.571231E-1	4.132067E-1	4.215459E-1	4.308798E-1	4.987539E-1	4.303464E-1	4.638436E-1	4.751368E-1	4.543622E-1	4.158578E-1	5.000526E-1	4.430812E-1	4.820144E-1	4.674237E-1	4.382252E-1	4.621314E-1	4.491485E-1	4.350562E-1	4.579935E-1	4.574784E-1	5.035622E-1	4.479776E-1	4.423586E-1	4.649933E-1	4.143969E-1	4.615182E-1	4.263057E-1	4.561559E-1	4.146994E-1	4.672472E-1	4.665432E-1	4.759091E-1	4.703059E-1	4.643351E-1	4.453894E-1	4.753761E-1	4.070718E-1	4.264703E-1	4.369790E-1	4.572163E-1	4.788238E-1	4.553349E-1	4.430063E-1	4.664080E-1	4.468802E-1	4.391638E-1	4.539371E-1	4.810476E-1	3.830221E-1	4.510892E-1	4.402869E-1	4.419087E-1	4.399769E-1	4.354734E-1	4.353511E-1	4.592158E-1	4.837586E-1	4.167259E-1	4.393500E-1	4.507376E-1	4.626038E-1	4.611640E-1	4.479694E-1	4.894902E-1	4.336591E-1	4.471324E-1	4.348288E-1	4.617779E-1	4.201287E-1	4.595338E-1	4.600888E-1	4.412257E-1	4.239177E-1	4.474295E-1	4.269475E-1	4.545832E-1	4.373086E-1	4.854986E-1	4.630581E-1	4.842946E-1	4.284325E-1	4.410074E-1	4.413795E-1	4.410624E-1	4.632080E-1	4.634911E-1	4.586226E-1	4.408650E-1	4.450351E-1	4.484069E-1	4.465531E-1	4.635362E-1	4.349918E-1	4.312123E-1	4.492204E-1	4.544575E-1	4.609032E-1	4.790643E-1	4.522281E-1	4.744742E-1	4.155014E-1
2.905110E+2	5.057784E-1	5.244354E-1	5.324475E-1	5.010896E-1	5.153432E-1	5.032261E-1	4.930132E-1	4.831440E-1	4.822686E-1	4.954664E-1	4.928398E-1	5.331038E-1	5.093749E-1	5.084410E-1	5.381815E-1	4.929878E-1	4.983499E-1	5.493579E-1	5.537732E-1	4.998522E-1	4.965597E-1	5.109609E-1	5.051502E-1	4.681016E-1	5.057299E-1	5.208443E-1	5.319484E-1	5.028484E-1	4.598220E-1	5.116988E-1	5.272595E-1	5.100295E-1	5.224586E-1	5.061289E-1	5.084867E-1	5.116322E-1	5.289585E-1	5.356243E-1	4.902352E-1	5.044032E-1	4.839555E-1	5.328506E-1	5.291001E-1	5.438979E-1	4.966488E-1	4.981527E-1	5.545245E-1	4.962276E-1	4.870394E-1	5.117062E-1	5.235128E-1	5.177403E-1	5.122479E-1	5.346141E-1	4.894399E-1	5.351156E-1	5.011318E-1	5.369333E-1	5.309335E-1	5.238231E-1	5.425996E-1	4.960827E-1	4.963939E-1	5.162955E-1	5.012419E-1	5.139047E-1	5.011732E-1	4.882837E-1	5.116697E-1	5.007028E-1	5.053519E-1	5.135043E-1	4.978139E-1	5.193303E-1	5.475831E-1	4.887857E-1	4.928467E-1	4.876321E-1	5.290853E-1	4.906073E-1	4.963838E-1	4.647321E-1	5.182145E-1	4.796341E-1	5.391233E-1	5.054319E-1	5.063821E-1	5.133930E-1	5.372271E-1	5.084985E-1	4.796354E-1	5.101819E-1	5.309901E-1	5.234231E-1	4.534838E-1	4.687196E-1	5.519613E-1	5.122190E-1	5.398618E-1	4.981596E-1	5.133323E-1	5.287701E-1	5.124283E-1	5.088896E-1	4.987634E-1	5.006735E-1	5.114598E-1	5.163936E-1	4.857332E-1	5.201227E-1	5.102810E-1	5.301700E-1	5.026038E-1	5.481992E-1	5.221944E-1	5.342311E-1	5.186192E-1	5.204957E-1	5.036294E-1	5.170283E-1	5.249277E-1	4.900319E-1	5.332867E-1	5.041336E-1	4.540505E-1	5.100979E-1	5.561847E-1	4.747588E-1	5.450420E-1	5.024500E-1	5.224705E-1	5.130949E-1	5.006775E-1	5.137912E-1	5.047507E-1	5.256323E-1	5.188262E-1	5.160329E-1	5.151499E-1	5.237909E-1	5.250225E-1	4.930741E-1	5.460469E-1	4.862832E-1	5.093405E-1	5.382623E-1	5.142634E-1	5.369397E-1	4.921215E-1	4.886916E-1	4.895874E-1	4.791177E-1	5.169587E-1	5.152071E-1	5.100301E-1	5.085387E-1	5.336875E-1	5.404528E-1	5.031223E-1	5.100240E-1	5.039674E-1	4.897267E-1	5.220209E-1	5.127043E-1	5.381828E-1	5.031326E-1	5.174582E-1	4.804890E-1	5.403125E-1	4.957180E-1	5.845842E-1
2.910040E+2	6.925676E-1	6.932388E-1	6.804166E-1	6.769912E-1	7.284357E-1	6.964238E-1	7.211214E-1	7.021428E-1	7.003395E-1	7.272832E-1	7.168454E-1	6.863000E-1	6.474013E-1	6.947124E-1	6.765727E-1	7.163224E-1	6.643418E-1	6.523965E-1	6.644109E-1	6.980371E-1	7.038009E-1	6.911091E-1	7.227411E-1	6.805633E-1	6.958600E-1	6.874795E-1	6.839110E-1	6.724242E-1	7.125670E-1	6.986250E-1	7.102536E-1	7.136588E-1	6.865889E-1	6.493758E-1	7.308654E-1	6.799691E-1	6.921762E-1	7.214444E-1	6.848478E-1	6.899496E-1	7.309518E-1	7.110326E-1	6.906038E-1	6.951962E-1	7.019787E-1	7.072086E-1	6.691050E-1	7.108802E-1	7.035186E-1	7.050395E-1	6.964740E-1	7.192603E-1	6.803922E-1	6.933690E-1	6.993905E-1	6.625738E-1	6.861504E-1	7.314545E-1	6.626521E-1	6.680821E-1	6.833443E-1	7.330403E-1	6.820393E-1	6.928042E-1	6.839398E-1	6.904190E-1	6.846466E-1	6.810489E-1	6.430880E-1	7.068663E-1	7.172180E-1	7.018420E-1	7.020904E-1	6.820098E-1	7.307781E-1	6.965467E-1	6.547990E-1	6.778750E-1	6.619769E-1	6.935964E-1	7.144892E-1	6.802368E-1	6.727693E-1	7.288531E-1	6.907350E-1	7.472028E-1	7.529795E-1	6.826275E-1	7.087709E-1	6.827833E-1	6.803312E-1	6.669862E-1	7.036424E-1	7.450449E-1	6.914488E-1	6.744266E-1	6.954955E-1	7.082667E-1	7.044631E-1	7.153884E-1	7.038420E-1	6.854382E-1	6.997562E-1	6.921387E-1	6.380061E-1	7.220568E-1	6.679369E-1	6.622606E-1	6.750270E-1	6.557788E-1	7.040336E-1	7.057536E-1	7.241430E-1	6.783284E-1	6.983941E-1	6.907962E-1	7.126629E-1	7.238192E-1	6.735889E-1	6.966056E-1	7.349314E-1	7.039749E-1	6.822912E-1	6.682745E-1	6.460147E-1	6.927007E-1	7.414209E-1	7.199826E-1	7.286996E-1	6.634109E-1	6.722999E-1	6.827078E-1	7.156511E-1	7.259081E-1	6.929102E-1	7.066719E-1	7.400600E-1	7.231339E-1	6.856243E-1	7.113778E-1	7.363650E-1	6.626533E-1	6.845305E-1	6.783488E-1	7.140989E-1	6.809858E-1	7.155177E-1	7.056635E-1	6.875268E-1	6.683444E-1	6.737501E-1	7.149149E-1	6.695440E-1	7.253567E-1	6.855088E-1	6.844670E-1	6.714393E-1	7.154628E-1	6.908277E-1	6.667968E-1	6.803788E-1	7.108545E-1	6.854280E-1	7.057413E-1	6.967925E-1	6.656347E-1	7.334673E-1	6.434579E-1	6.971032E-1	6.980473E-1	6.864342E-1
2.915140E+2	7.183109E-1	7.246937E-1	7.186752E-1	7.334194E-1	7.609814E-1	7.841008E-1	7.234157E-1	6.710820E-1	7.724443E-1	7.554077E-1	7.166735E-1	7.064941E-1	7.013713E-1	7.232560E-1	6.937394E-1	7.409942E-1	7.324867E-1	6.922840E-1	7.235762E-1	7.164679E-1	6.855550E-1	7.765258E-1	7.141065E-1	7.302555E-1	7.324963E-1	7.183672E-1	7.088657E-1	6.998419E-1	6.840314E-1	7.451695E-1	7.110965E-1	6.872624E-1	7.365661E-1	7.192467E-1	7.150337E-1	7.114552E-1	7.168504E-1	7.478931E-1	7.462431E-1	7.579314E-1	7.125994E-1	7.582566E-1	7.110486E-1	7.039914E-1	7.083861E-1	7.499194E-1	6.790597E-1	6.809554E-1	6.747676E-1	7.391554E-1	7.539279E-1	7.249421E-1	7.070593E-1	7.220353E-1	6.952581E-1	7.100053E-1	6.858474E-1	7.584975E-1	7.013227E-1	7.546319E-1	7.049126E-1	7.558674E-1	6.849284E-1	7.186372E-1	7.266064E-1	7.426842E-1	7.542081E-1	7.289229E-1	7.071892E-1	7.360890E-1	7.295164E-1	7.302498E-1	6.972286E-1	7.285253E-1	7.648024E-1	7.089181E-1	7.411263E-1	7.272638E-1	7.348260E-1	7.027857E-1	7.681039E-1	7.239135E-1	7.087183E-1	7.250105E-1	7.187997E-1	7.486469E-1	7.450144E-1	7.215551E-1	7.224982E-1	7.230930E-1	7.107116E-1	7.160411E-1	7.106223E-1	7.365796E-1	6.961715E-1	7.071492E-1	7.362733E-1	7.075992E-1	6.897148E-1	7.262461E-1	6.691077E-1	7.816852E-1	7.411066E-1	7.047000E-1	7.006587E-1	7.572468E-1	6.892309E-1	6.926692E-1	6.869755E-1	7.139236E-1	7.195201E-1	7.083772E-1	7.460309E-1	7.102629E-1	7.392146E-1	7.086569E-1	7.001395E-1	7.207513E-1	7.342376E-1	6.769508E-1	7.375547E-1	7.274198E-1	7.034148E-1	7.009883E-1	6.768998E-1	6.790200E-1	7.366430E-1	7.432971E-1	7.034035E-1	7.567219E-1	6.939064E-1	7.530504E-1	7.620525E-1	7.594537E-1	7.700053E-1	7.107508E-1	7.070264E-1	7.250235E-1	7.406593E-1	7.049346E-1	7.097769E-1	7.152210E-1	7.196381E-1	6.963217E-1	7.742642E-1	7.646389E-1	7.282723E-1	7.125900E-1	7.559656E-1	7.252963E-1	7.251683E-1	7.325920E-1	7.074983E-1	7.222791E-1	7.154684E-1	7.246021E-1	7.480540E-1	7.243540E-1	7.264974E-1	7.085926E-1	7.899188E-1	6.606036E-1	7.320708E-1	7.217827E-1	7.091385E-1	7.462742E-1	7.128254E-1	7.308595E-1	7.599872E-1	6.816919E-1	7.012795E-1
2.920030E+2	5.294503E-1	5.627421E-1	5.504876E-1	5.283792E-1	5.692272E-1	5.716642E-1	5.446658E-1	5.419115E-1	5.087962E-1	5.693077E-1	5.419868E-1	5.074169E-1	5.355315E-1	5.515030E-1	5.059264E-1	5.558858E-1	5.216967E-1	5.441133E-1	5.359876E-1	5.100626E-1	5.408305E-1	5.167238E-1	5.545285E-1	5.282065E-1	5.413094E-1	5.227691E-1	5.320529E-1	5.217830E-1	5.439829E-1	5.222510E-1	5.483538E-1	5.424299E-1	5.048631E-1	5.529154E-1	5.264298E-1	5.239623E-1	5.375408E-1	5.372627E-1	5.267086E-1	5.501187E-1	5.624255E-1	5.161306E-1	5.388915E-1	5.436552E-1	5.680563E-1	5.511811E-1	5.599413E-1	5.456209E-1	5.010378E-1	5.324096E-1	5.669683E-1	5.390662E-1	5.494249E-1	5.649290E-1	5.285752E-1	5.531454E-1	5.172198E-1	5.453667E-1	5.358044E-1	5.548519E-1	5.181429E-1	5.403505E-1	5.156509E-1	5.293295E-1	5.301209E-1	5.391846E-1	5.393336E-1	5.188561E-1	5.320412E-1	5.662337E-1	5.475901E-1	5.022280E-1	5.506782E-1	5.774831E-1	5.614263E-1	5.461580E-1	5.448762E-1	5.119276E-1	5.497957E-1	5.149910E-1	5.466891E-1	5.391844E-1	5.086552E-1	5.480286E-1	5.434845E-1	5.530678E-1	5.736398E-1	4.888801E-1	5.329179E-1	5.430362E-1	5.635032E-1	5.267025E-1	5.804273E-1	5.663482E-1	5.323334E-1	5.389643E-1	5.279935E-1	5.501326E-1	5.350860E-1	5.779615E-1	5.652449E-1	5.417410E-1	5.445132E-1	5.555800E-1	5.222121E-1	5.611708E-1	5.531310E-1	5.046044E-1	5.374134E-1	5.252585E-1	5.501072E-1	5.135239E-1	5.674262E-1	5.227967E-1	5.437453E-1	5.398432E-1	5.461808E-1	5.247130E-1	5.375056E-1	5.150574E-1	5.360984E-1	5.387098E-1	5.324721E-1	4.800300E-1	5.402762E-1	5.213587E-1	5.763624E-1	5.318510E-1	5.604117E-1	5.460837E-1	4.981804E-1	5.491325E-1	5.228797E-1	5.727613E-1	5.184309E-1	5.336724E-1	5.461290E-1	5.175981E-1	5.696749E-1	4.938823E-1	5.527454E-1	5.598737E-1	5.517304E-1	5.240400E-1	5.349118E-1	5.399383E-1	5.237555E-1	5.114867E-1	5.630471E-1	5.324752E-1	5.063553E-1	5.532015E-1	6.007259E-1	5.715333E-1	5.411163E-1	5.501824E-1	5.348080E-1	5.213544E-1	5.254098E-1	5.339459E-1	5.092306E-1	5.651283E-1	5.400936E-1	5.587049E-1	5.598600E-1	5.455013E-1	6.036064E-1	5.738465E-1	6.267540E-1	4.638725E-1	4.996361E-1
2.925020E+2	5.402461E-1	5.732922E-1	5.663197E-1	5.569623E-1	5.470586E-1	5.851214E-1	5.895460E-1	5.461563E-1	5.997033E-1	5.930821E-1	5.403763E-1	5.894796E-1	5.199415E-1	5.747302E-1	5.929848E-1	5.870665E-1	5.732757E-1	5.670971E-1	5.509153E-1	5.599467E-1	5.828476E-1	5.577164E-1	5.585351E-1	5.652749E-1	5.627491E-1	5.963775E-1	5.798935E-1	5.193852E-1	5.389202E-1	5.783757E-1	5.685034E-1	5.707513E-1	6.048519E-1	5.793486E-1	5.667348E-1	5.925326E-1	5.745945E-1	6.073181E-1	5.423315E-1	5.813601E-1	5.639522E-1	5.495222E-1	5.624901E-1	5.618760E-1	5.941791E-1	5.844777E-1	6.021591E-1	5.679460E-1	5.652422E-1	5.371708E-1	5.585280E-1	5.337180E-1	5.945989E-1	5.998571E-1	5.345554E-1	5.913644E-1	5.413290E-1	5.894758E-1	5.812286E-1	5.635218E-1	5.782151E-1	5.545639E-1	5.304782E-1	5.703992E-1	5.781579E-1	5.368608E-1	5.984430E-1	5.683508E-1	5.771960E-1	5.393380E-1	5.475676E-1	5.069804E-1	5.755144E-1	5.410192E-1	5.759462E-1	5.821655E-1	5.403601E-1	5.428088E-1	5.685761E-1	5.923574E-1	5.902699E-1	5.415670E-1	5.455684E-1	5.611989E-1	5.693069E-1	5.866256E-1	5.864639E-1	5.611345E-1	5.556787E-1	5.817220E-1	5.605688E-1	5.528010E-1	5.830380E-1	5.715359E-1	5.689737E-1	5.691360E-1	5.269687E-1	6.173575E-1	5.847629E-1	5.949401E-1	5.936994E-1	5.685162E-1	5.779190E-1	5.499162E-1	5.842414E-1	5.587841E-1	5.844924E-1	5.402692E-1	5.301217E-1	5.743962E-1	5.827056E-1	5.858577E-1	5.428794E-1	5.379090E-1	5.345263E-1	5.538118E-1	5.689721E-1	5.537388E-1	5.844588E-1	5.368316E-1	5.080695E-1	5.770257E-1	5.428704E-1	6.077091E-1	5.517401E-1	5.578031E-1	5.522839E-1	5.907726E-1	5.424558E-1	5.827885E-1	5.587123E-1	5.632351E-1	5.459335E-1	5.902181E-1	5.708217E-1	5.692711E-1	5.507069E-1	5.789979E-1	5.727709E-1	5.819768E-1	6.132466E-1	5.311408E-1	5.533940E-1	5.402712E-1	6.063328E-1	5.253932E-1	5.609608E-1	5.307168E-1	5.631454E-1	5.842964E-1	5.844687E-1	5.919540E-1	5.822150E-1	6.305457E-1	5.515397E-1	5.255490E-1	5.417481E-1	6.020049E-1	5.953284E-1	5.435364E-1	5.535944E-1	5.451953E-1	5.713325E-1	5.832226E-1	5.892005E-1	5.575603E-1	5.971328E-1	5.346129E-1	5.608099E-1	6.094717E-1	5.533658E-1
2.930050E+2	6.402830E-1	6.326110E-1	6.502294E-1	6.230569E-1	6.937945E-1	7.073652E-1	6.910653E-1	6.513594E-1	6.439767E-1	6.650234E-1	6.257873E-1	6.239188E-1	6.337613E-1	6.701241E-1	6.332236E-1	6.586268E-1	6.527744E-1	6.431994E-1	6.620049E-1	6.724845E-1	6.626510E-1	6.626569E-1	6.655582E-1	6.031048E-1	6.673740E-1	6.369217E-1	6.594778E-1	6.057084E-1	6.385082E-1	6.860233E-1	6.828122E-1	6.304989E-1	6.433774E-1	6.399377E-1	6.545410E-1	6.443122E-1	6.246534E-1	6.576604E-1	6.516933E-1	6.471875E-1	6.416373E-1	6.450112E-1	6.333565E-1	6.302573E-1	6.663471E-1	6.638041E-1	6.666458E-1	6.161511E-1	6.279618E-1	6.701668E-1	6.628386E-1	6.324190E-1	6.477953E-1	6.437243E-1	6.782844E-1	6.650553E-1	6.273640E-1	6.411059E-1	6.809417E-1	6.414973E-1	6.605669E-1	6.881190E-1	6.508050E-1	6.262964E-1	6.766595E-1	6.217849E-1	6.185900E-1	6.278305E-1	6.425018E-1	6.292150E-1	6.871727E-1	6.382341E-1	6.700225E-1	6.782097E-1	6.889151E-1	6.556419E-1	6.648628E-1	6.231358E-1	6.487037E-1	6.459121E-1	6.712810E-1	6.038782E-1	6.191598E-1	6.477361E-1	6.334773E-1	6.437413E-1	6.481257E-1	6.418052E-1	6.321404E-1	6.522805E-1	6.723062E-1	6.162171E-1	6.552340E-1	6.564042E-1	6.480646E-1	6.610159E-1	6.639422E-1	6.166476E-1	6.609063E-1	6.369545E-1	6.504772E-1	6.704464E-1	6.868323E-1	6.673478E-1	6.391740E-1	6.475254E-1	6.806616E-1	6.497916E-1	6.829062E-1	6.684010E-1	6.464224E-1	6.715561E-1	6.701390E-1	6.567002E-1	6.434089E-1	6.488715E-1	6.370376E-1	6.658572E-1	6.498945E-1	6.419528E-1	6.615019E-1	6.619497E-1	6.149667E-1	6.941649E-1	6.367347E-1	6.421537E-1	6.495458E-1	6.264131E-1	6.673964E-1	6.725503E-1	6.434111E-1	6.605588E-1	6.746242E-1	6.748794E-1	6.694522E-1	6.435188E-1	6.444242E-1	6.711898E-1	6.502337E-1	6.256559E-1	6.352345E-1	6.750999E-1	6.400241E-1	6.812107E-1	6.901046E-1	6.447319E-1	6.447637E-1	6.916385E-1	6.754014E-1	6.444728E-1	6.071083E-1	6.349629E-1	6.466372E-1	6.458988E-1	7.017446E-1	6.567148E-1	6.186925E-1	6.767183E-1	6.598063E-1	6.719790E-1	6.861532E-1	6.630221E-1	6.143462E-1	6.732382E-1	6.705835E-1	6.175961E-1	6.683103E-1	6.329355E-1	6.666292E-1	6.494763E-1	6.499515E-1
2.935140E+2	7.946013E-1	8.243295E-1	7.660556E-1	7.974453E-1	7.477529E-1	7.566489E-1	7.703015E-1	7.328631E-1	7.820927E-1	8.120894E-1	7.691901E-1	7.813468E-1	7.690555E-1	7.792115E-1	7.792613E-1	7.746661E-1	7.570428E-1	7.586142E-1	7.730715E-1	8.167066E-1	7.763334E-1	8.214208E-1	7.890934E-1	7.617760E-1	8.081703E-1	7.494213E-1	7.798654E-1	7.682797E-1	7.428917E-1	7.231510E-1	7.897080E-1	7.279364E-1	7.822406E-1	8.139296E-1	8.133831E-1	7.576304E-1	7.733087E-1	7.918081E-1	7.708738E-1	7.443821E-1	7.979293E-1	7.863185E-1	7.602976E-1	7.552868E-1	7.299905E-1	8.366007E-1	7.496603E-1	7.723728E-1	7.674083E-1	7.924949E-1	7.632910E-1	7.812653E-1	7.364660E-1	7.835163E-1	8.165615E-1	7.630722E-1	7.903135E-1	7.527013E-1	8.049390E-1	7.768189E-1	8.597827E-1	7.852026E-1	8.064125E-1	7.602675E-1	7.862745E-1	7.475359E-1	7.899103E-1	7.206346E-1	7.627720E-1	7.468923E-1	8.183048E-1	7.481658E-1	7.757608E-1	7.927639E-1	8.337139E-1	7.498810E-1	7.804220E-1	7.373312E-1	7.777274E-1	7.984347E-1	8.245226E-1	8.163298E-1	7.816813E-1	7.949164E-1	7.934330E-1	7.757756E-1	8.205246E-1	7.338141E-1	7.553459E-1	7.662021E-1	7.953900E-1	7.508977E-1	7.946682E-1	7.616134E-1	7.461941E-1	7.482764E-1	8.232267E-1	8.081780E-1	7.605882E-1	7.744541E-1	7.728059E-1	7.741535E-1	8.013158E-1	7.696750E-1	7.694838E-1	8.394336E-1	8.160209E-1	7.393819E-1	7.631702E-1	7.619400E-1	7.563663E-1	7.947170E-1	7.681937E-1	7.737381E-1	7.851875E-1	7.468197E-1	7.562307E-1	8.083337E-1	7.984483E-1	7.818316E-1	8.007511E-1	7.586841E-1	7.819636E-1	8.251490E-1	7.792903E-1	8.285901E-1	8.033118E-1	7.576590E-1	8.074216E-1	7.652690E-1	8.172839E-1	8.026385E-1	8.116404E-1	7.959195E-1	8.314977E-1	8.198174E-1	8.245668E-1	8.278188E-1	7.518303E-1	8.182227E-1	7.997478E-1	7.969703E-1	7.872017E-1	8.077407E-1	8.074402E-1	7.998856E-1	8.601411E-1	7.848548E-1	7.841688E-1	7.858173E-1	7.963404E-1	7.388459E-1	7.874225E-1	7.879859E-1	7.600170E-1	7.650950E-1	8.105183E-1	7.954353E-1	7.884839E-1	7.731256E-1	7.798838E-1	7.596443E-1	7.802997E-1	8.151064E-1	7.488367E-1	7.631581E-1	7.837009E-1	8.568760E-1	7.605062E-1	8.753188E-1	7.603124E-1
2.940080E+2	8.560834E-1	8.383819E-1	8.765540E-1	8.726347E-1	9.313811E-1	9.301714E-1	8.763410E-1	8.456419E-1	8.855593E-1	8.973740E-1	8.509487E-1	8.590012E-1	8.404357E-1	8.883761E-1	8.409883E-1	8.796775E-1	8.462433E-1	8.502388E-1	8.786503E-1	9.199227E-1	8.807491E-1	8.463444E-1	8.631614E-1	8.919662E-1	8.768124E-1	8.675753E-1	8.658121E-1	8.213565E-1	8.811005E-1	8.747523E-1	8.445766E-1	8.557531E-1	8.368446E-1	9.021538E-1	8.366506E-1	8.583293E-1	8.713461E-1	8.675883E-1	8.211639E-1	8.340899E-1	8.775343E-1	8.346036E-1	8.927282E-1	8.397150E-1	8.524774E-1	8.888795E-1	8.669144E-1	8.683628E-1	8.248167E-1	8.681661E-1	8.263574E-1	8.337061E-1	9.129330E-1	8.637229E-1	8.656458E-1	8.775794E-1	8.229022E-1	8.827800E-1	9.263466E-1	8.815526E-1	8.489269E-1	8.753136E-1	8.646223E-1	9.079186E-1	9.019738E-1	9.395548E-1	8.380294E-1	8.525862E-1	8.605970E-1	8.338957E-1	8.691853E-1	8.108831E-1	8.695456E-1	8.667053E-1	9.010601E-1	8.454491E-1	8.653427E-1	8.687041E-1	8.401178E-1	8.534641E-1	9.179232E-1	8.784466E-1	8.278648E-1	8.261647E-1	8.408427E-1	8.744761E-1	8.572158E-1	8.981523E-1	8.873074E-1	8.597416E-1	8.889500E-1	8.825199E-1	8.791126E-1	8.743334E-1	8.678100E-1	8.589527E-1	9.165117E-1	8.324569E-1	8.253887E-1	8.393731E-1	8.970867E-1	8.793794E-1	8.605557E-1	8.623286E-1	8.442799E-1	8.992387E-1	8.586847E-1	8.835276E-1	8.018692E-1	8.977095E-1	8.086703E-1	8.423488E-1	9.056542E-1	8.531325E-1	8.712975E-1	8.603926E-1	8.528695E-1	8.985333E-1	8.473121E-1	8.697508E-1	8.554697E-1	8.274485E-1	8.995869E-1	8.512672E-1	8.736982E-1	8.677464E-1	8.747388E-1	8.150266E-1	9.017502E-1	8.208238E-1	9.004600E-1	8.527359E-1	8.801529E-1	8.835968E-1	8.649037E-1	8.257889E-1	8.533411E-1	8.823293E-1	8.734923E-1	8.163483E-1	8.799437E-1	8.448770E-1	8.357393E-1	8.483390E-1	8.885011E-1	9.168908E-1	8.301106E-1	8.614912E-1	9.441116E-1	8.251568E-1	8.578384E-1	8.518458E-1	8.810574E-1	9.101129E-1	8.432831E-1	9.014352E-1	8.982333E-1	8.756379E-1	8.828072E-1	8.242330E-1	8.787197E-1	8.991996E-1	8.902901E-1	9.027062E-1	8.726552E-1	8.667737E-1	9.088622E-1	8.716498E-1	8.446814E-1	8.503770E-1	7.536988E-1
2.945030E+2	7.913240E-1	8.616155E-1	7.786213E-1	7.651583E-1	7.602983E-1	7.626329E-1	7.792085E-1	7.930768E-1	7.813253E-1	7.773543E-1	7.965897E-1	8.074622E-1	7.566654E-1	8.662122E-1	7.672969E-1	7.713402E-1	8.065994E-1	7.535756E-1	7.744849E-1	7.896630E-1	7.792840E-1	7.665035E-1	7.993654E-1	7.432955E-1	7.980059E-1	7.860810E-1	7.733923E-1	7.804208E-1	7.486069E-1	7.699197E-1	7.759483E-1	7.808738E-1	7.912864E-1	7.812642E-1	8.047059E-1	7.462578E-1	7.510697E-1	7.846902E-1	7.751592E-1	7.466045E-1	7.815108E-1	7.533210E-1	7.973168E-1	7.732124E-1	7.700460E-1	7.872295E-1	7.823584E-1	7.337135E-1	7.842778E-1	7.840390E-1	8.249369E-1	7.185436E-1	8.173840E-1	7.757890E-1	7.774177E-1	7.830537E-1	7.794052E-1	8.616233E-1	7.853560E-1	7.948423E-1	7.516257E-1	7.949859E-1	7.747076E-1	7.804433E-1	7.794521E-1	7.795350E-1	7.732160E-1	7.308786E-1	7.259714E-1	7.811113E-1	8.055094E-1	7.902721E-1	7.875686E-1	7.802978E-1	8.107506E-1	8.054219E-1	7.595038E-1	7.605881E-1	7.600254E-1	7.858106E-1	8.251730E-1	7.727125E-1	7.782806E-1	8.056891E-1	7.828884E-1	7.969591E-1	8.143630E-1	7.825571E-1	7.986258E-1	7.749717E-1	7.532570E-1	7.902139E-1	7.672433E-1	7.586758E-1	7.920677E-1	7.432993E-1	7.860107E-1	7.611649E-1	8.062664E-1	7.370945E-1	8.092201E-1	7.702871E-1	7.904345E-1	7.334205E-1	7.431702E-1	7.847087E-1	7.948140E-1	7.472532E-1	7.982924E-1	7.412240E-1	7.810951E-1	7.786529E-1	7.629677E-1	8.034316E-1	8.076939E-1	8.028201E-1	7.879236E-1	7.976907E-1	7.574951E-1	7.506646E-1	8.160761E-1	7.924511E-1	7.604191E-1	7.886057E-1	7.866578E-1	8.181633E-1	8.185064E-1	7.963517E-1	8.416649E-1	8.043394E-1	7.395120E-1	7.800325E-1	7.680210E-1	7.952975E-1	8.286551E-1	7.433295E-1	7.560808E-1	7.651378E-1	7.705448E-1	7.747654E-1	7.674407E-1	7.578462E-1	7.843846E-1	7.766471E-1	7.711124E-1	7.697866E-1	7.921813E-1	7.569285E-1	7.953059E-1	7.752682E-1	7.826951E-1	8.004715E-1	7.789273E-1	8.211002E-1	7.857575E-1	8.197055E-1	7.636068E-1	7.562090E-1	7.881165E-1	7.518059E-1	7.900381E-1	7.816166E-1	7.825835E-1	7.600623E-1	7.912191E-1	7.317568E-1	7.934946E-1	8.402106E-1	7.757350E-1	7.515536E-1	7.294989E-1
2.950070E+2	6.951177E-1	6.549187E-1	7.446325E-1	6.799408E-1	7.201576E-1	7.153533E-1	7.022195E-1	7.099276E-1	7.272620E-1	6.884688E-1	6.880809E-1	7.203254E-1	7.369114E-1	7.216590E-1	6.978113E-1	7.292717E-1	7.047642E-1	7.036341E-1	6.998065E-1	7.027789E-1	7.063425E-1	7.008268E-1	7.205735E-1	7.301244E-1	7.165510E-1	7.021844E-1	7.278577E-1	7.384127E-1	7.035657E-1	7.617756E-1	6.918833E-1	7.171647E-1	6.875469E-1	6.652504E-1	7.203383E-1	7.055423E-1	6.935410E-1	6.906775E-1	7.047371E-1	7.142452E-1	7.154321E-1	7.295090E-1	7.210233E-1	7.184041E-1	7.101429E-1	7.392198E-1	6.925495E-1	7.154452E-1	6.744942E-1	7.321848E-1	6.844832E-1	7.165348E-1	7.327429E-1	7.113973E-1	7.138339E-1	7.186293E-1	7.212811E-1	7.269796E-1	7.672196E-1	7.212658E-1	6.694851E-1	7.614386E-1	7.308167E-1	6.747412E-1	7.735765E-1	7.252239E-1	7.115719E-1	6.803851E-1	7.515093E-1	7.055880E-1	7.456182E-1	7.151208E-1	7.513605E-1	6.982563E-1	7.712439E-1	7.520082E-1	6.980399E-1	7.211762E-1	7.551780E-1	7.362540E-1	7.323326E-1	7.623636E-1	6.757637E-1	6.742948E-1	7.580327E-1	6.707783E-1	7.535599E-1	7.396339E-1	7.268155E-1	7.377638E-1	6.907342E-1	7.165420E-1	6.820659E-1	7.269000E-1	6.940808E-1	6.857574E-1	7.488265E-1	7.336282E-1	7.219683E-1	7.111179E-1	7.122681E-1	7.221560E-1	7.448057E-1	7.052792E-1	6.955066E-1	7.341592E-1	7.268407E-1	6.930945E-1	6.906047E-1	7.304669E-1	7.638339E-1	6.842598E-1	7.328468E-1	7.290134E-1	7.229796E-1	7.029736E-1	6.857124E-1	7.374832E-1	7.001530E-1	7.257789E-1	7.152850E-1	7.004708E-1	6.950147E-1	7.074677E-1	7.401480E-1	7.432153E-1	6.982773E-1	7.187019E-1	7.680738E-1	6.902101E-1	6.853837E-1	7.274326E-1	6.971567E-1	7.240281E-1	7.116140E-1	7.024144E-1	7.387654E-1	7.330346E-1	7.336332E-1	7.332153E-1	7.235352E-1	6.857482E-1	6.798061E-1	6.933541E-1	7.512001E-1	7.329326E-1	7.588277E-1	7.462424E-1	7.184126E-1	6.716289E-1	7.032225E-1	7.274527E-1	6.860053E-1	7.339253E-1	7.470913E-1	6.850363E-1	7.546399E-1	7.392576E-1	7.255926E-1	7.003536E-1	6.524661E-1	7.396835E-1	7.221973E-1	7.234223E-1	7.286861E-1	7.317537E-1	7.204268E-1	7.338468E-1	6.723094E-1	6.708956E-1	6.180541E-1
2.955050E+2	7.100024E-1	7.201812E-1	7.546698E-1	7.418407E-1	7.663383E-1	7.664238E-1	7.246176E-1	7.605540E-1	7.383094E-1	7.508190E-1	7.073661E-1	7.304067E-1	7.072593E-1	6.897921E-1	7.214837E-1	7.124704E-1	7.521056E-1	7.319659E-1	7.173796E-1	7.403880E-1	7.206462E-1	7.471024E-1	7.063559E-1	6.998573E-1	7.288798E-1	7.065212E-1	7.107105E-1	6.934462E-1	7.473340E-1	7.460717E-1	7.022590E-1	7.147107E-1	7.094856E-1	7.244735E-1	7.366380E-1	7.022612E-1	6.825624E-1	6.805234E-1	7.299691E-1	7.143117E-1	7.132164E-1	7.133323E-1	7.435646E-1	7.495684E-1	7.462559E-1	7.565226E-1	7.327346E-1	6.726972E-1	6.944270E-1	7.457068E-1	7.153100E-1	7.536472E-1	6.909117E-1	6.954875E-1	7.444363E-1	6.922030E-1	6.805072E-1	7.383152E-1	7.267636E-1	7.539015E-1	7.363593E-1	7.480438E-1	7.284252E-1	7.336333E-1	7.252943E-1	7.306443E-1	7.497068E-1	7.264682E-1	7.116419E-1	7.374834E-1	7.341729E-1	7.547906E-1	6.665425E-1	7.542687E-1	7.184174E-1	7.811321E-1	7.105738E-1	7.186195E-1	6.883958E-1	6.892115E-1	6.704539E-1	7.608971E-1	7.342120E-1	7.024113E-1	7.384506E-1	7.434305E-1	7.785625E-1	6.853559E-1	7.433126E-1	7.618501E-1	7.534497E-1	7.654005E-1	7.646355E-1	7.433746E-1	7.287782E-1	7.052024E-1	7.418703E-1	7.281369E-1	7.335997E-1	7.131050E-1	7.568033E-1	7.164125E-1	7.438936E-1	7.043420E-1	7.377442E-1	7.531168E-1	7.228489E-1	7.486843E-1	7.234737E-1	7.590776E-1	7.668634E-1	7.326029E-1	7.531364E-1	7.742428E-1	7.012253E-1	6.905645E-1	6.958378E-1	7.645282E-1	7.143070E-1	7.070500E-1	7.454814E-1	6.787484E-1	7.181276E-1	7.349531E-1	6.842535E-1	7.371823E-1	7.251352E-1	7.285223E-1	7.572438E-1	7.356197E-1	6.854734E-1	7.180495E-1	7.393669E-1	7.179557E-1	7.723539E-1	7.447614E-1	7.398820E-1	7.142287E-1	7.424595E-1	7.162940E-1	7.615558E-1	7.116804E-1	7.859565E-1	7.683978E-1	7.487725E-1	7.415918E-1	7.242533E-1	7.513909E-1	7.195789E-1	7.136722E-1	7.385187E-1	7.301409E-1	7.229392E-1	7.245629E-1	7.306478E-1	7.567654E-1	6.931046E-1	7.167792E-1	7.518376E-1	7.152102E-1	7.376411E-1	7.352350E-1	7.084734E-1	7.533606E-1	7.128526E-1	7.175224E-1	7.779426E-1	7.440940E-1	7.013903E-1	7.223343E-1	7.738909E-1
2.960060E+2	8.717699E-1	8.993650E-1	8.232010E-1	8.252918E-1	8.445895E-1	9.240505E-1	8.726976E-1	8.362459E-1	8.860466E-1	8.458211E-1	8.525153E-1	8.440739E-1	8.473773E-1	8.952672E-1	8.552836E-1	8.327537E-1	8.710734E-1	8.183921E-1	8.842903E-1	9.129299E-1	8.797630E-1	8.549026E-1	8.583777E-1	8.562491E-1	8.501779E-1	8.731962E-1	8.790917E-1	8.612897E-1	8.617389E-1	8.913916E-1	9.097528E-1	8.132578E-1	7.941307E-1	8.217320E-1	8.810440E-1	8.160101E-1	8.168324E-1	8.605955E-1	8.711494E-1	8.471955E-1	8.710436E-1	8.332647E-1	9.003364E-1	8.369650E-1	8.625748E-1	8.872411E-1	8.763246E-1	8.510427E-1	8.731699E-1	7.947117E-1	8.396582E-1	8.711214E-1	8.672099E-1	8.701598E-1	8.932039E-1	8.898901E-1	8.617406E-1	8.341857E-1	8.806560E-1	8.567366E-1	8.811588E-1	8.672125E-1	8.652069E-1	8.901796E-1	8.975680E-1	8.757559E-1	8.545957E-1	8.636652E-1	8.504298E-1	8.400370E-1	8.592562E-1	8.449019E-1	8.750921E-1	8.602880E-1	8.576915E-1	8.506648E-1	8.562285E-1	8.757522E-1	8.539096E-1	8.636682E-1	8.977778E-1	8.445885E-1	8.407622E-1	8.237280E-1	8.937157E-1	9.085903E-1	8.797833E-1	8.269236E-1	8.368115E-1	8.763412E-1	8.776265E-1	8.664837E-1	8.604473E-1	8.821001E-1	8.668617E-1	8.520171E-1	9.100138E-1	8.312575E-1	8.700689E-1	8.611288E-1	8.684758E-1	8.802700E-1	8.946390E-1	8.430817E-1	8.235611E-1	8.232470E-1	8.659358E-1	8.006535E-1	8.440319E-1	9.010172E-1	8.762406E-1	8.582306E-1	8.484309E-1	8.791488E-1	9.174291E-1	8.579524E-1	8.270322E-1	8.363468E-1	8.766204E-1	8.644060E-1	8.951827E-1	8.259911E-1	8.841082E-1	8.714690E-1	8.656706E-1	8.902725E-1	8.696814E-1	8.964004E-1	9.775048E-1	8.816503E-1	8.291320E-1	8.695496E-1	8.817773E-1	8.965041E-1	8.676395E-1	8.328585E-1	8.144976E-1	8.838967E-1	8.981354E-1	8.275703E-1	8.507543E-1	8.442199E-1	8.371766E-1	8.464286E-1	9.000544E-1	8.935030E-1	8.874785E-1	8.963085E-1	8.369382E-1	8.632769E-1	8.455117E-1	8.698190E-1	8.359244E-1	8.499390E-1	8.526236E-1	8.285627E-1	8.476865E-1	8.363730E-1	8.107362E-1	8.449706E-1	8.402649E-1	8.739452E-1	8.212728E-1	9.236675E-1	8.209244E-1	8.453222E-1	8.639522E-1	8.437912E-1	8.000902E-1	8.763346E-1	8.326159E-1
2.965110E+2	9.380880E-1	9.543947E-1	9.475644E-1	9.255361E-1	9.338213E-1	9.943387E-1	9.468628E-1	9.683689E-1	9.615799E-1	9.699505E-1	9.655981E-1	9.370144E-1	9.481539E-1	9.945050E-1	8.689996E-1	9.358717E-1	9.169331E-1	9.212396E-1	8.927647E-1	9.798663E-1	9.607189E-1	9.309522E-1	9.494232E-1	9.145430E-1	9.433862E-1	9.706221E-1	9.666001E-1	9.654055E-1	9.148949E-1	9.442898E-1	9.467280E-1	9.316009E-1	9.400524E-1	9.979254E-1	9.723835E-1	9.550919E-1	9.993825E-1	9.403096E-1	9.482738E-1	9.518704E-1	9.764652E-1	9.406982E-1	9.772177E-1	9.056624E-1	9.562085E-1	9.598792E-1	9.535255E-1	9.548334E-1	9.490383E-1	9.703826E-1	9.691262E-1	9.023585E-1	9.364450E-1	9.864099E-1	8.895881E-1	9.490591E-1	9.074846E-1	1.006620E+0	1.000545E+0	9.587094E-1	1.033042E+0	9.769790E-1	9.539301E-1	9.607049E-1	9.925076E-1	9.835523E-1	9.377874E-1	9.359972E-1	9.553280E-1	9.676850E-1	9.343254E-1	9.534225E-1	9.810763E-1	9.404885E-1	9.537058E-1	8.921442E-1	9.530214E-1	9.400984E-1	9.312521E-1	9.642048E-1	9.520617E-1	8.975140E-1	9.398032E-1	9.214886E-1	1.012700E+0	9.651435E-1	9.739845E-1	9.661232E-1	9.586416E-1	9.970978E-1	9.366350E-1	9.128227E-1	1.012506E+0	9.801998E-1	1.015534E+0	9.461815E-1	9.934328E-1	9.745597E-1	9.819115E-1	9.884250E-1	9.796858E-1	9.138600E-1	9.357338E-1	9.486734E-1	9.283911E-1	9.465602E-1	9.681860E-1	9.310963E-1	9.482836E-1	9.858791E-1	9.735200E-1	9.299223E-1	9.647847E-1	9.251430E-1	9.290206E-1	9.085636E-1	9.538276E-1	9.181700E-1	9.470271E-1	9.137048E-1	1.012267E+0	9.431048E-1	9.486635E-1	9.703282E-1	9.227681E-1	9.449062E-1	9.854568E-1	9.714260E-1	9.539673E-1	9.295556E-1	9.148108E-1	9.297047E-1	9.676957E-1	9.599491E-1	9.637678E-1	9.132458E-1	9.762476E-1	9.440822E-1	9.550618E-1	9.710594E-1	9.787298E-1	9.152712E-1	9.262109E-1	9.124811E-1	9.404374E-1	9.139482E-1	9.542771E-1	9.577604E-1	9.652286E-1	9.601945E-1	9.213238E-1	9.270154E-1	9.128297E-1	9.353021E-1	9.575181E-1	9.491192E-1	9.376075E-1	9.244481E-1	9.302676E-1	9.428300E-1	9.586004E-1	9.256040E-1	9.278243E-1	9.596225E-1	9.969706E-1	9.370453E-1	9.580061E-1	9.829345E-1	9.187319E-1	9.342012E-1	9.367542E-1
2.970020E+2	1.022560E+0	9.964796E-1	1.042912E+0	9.917156E-1	1.042089E+0	9.887794E-1	1.043614E+0	1.019746E+0	1.044801E+0	1.046839E+0	1.006349E+0	9.998431E-1	9.793443E-1	1.032031E+0	1.015805E+0	1.057238E+0	9.786880E-1	1.002003E+0	1.020516E+0	1.010947E+0	1.020347E+0	1.000117E+0	1.040668E+0	9.409854E-1	1.024736E+0	9.732763E-1	1.001091E+0	9.986631E-1	1.024096E+0	9.937534E-1	1.012090E+0	9.900337E-1	1.013898E+0	9.883660E-1	9.971202E-1	1.002859E+0	1.049693E+0	1.006620E+0	9.792239E-1	1.025827E+0	1.002215E+0	1.048750E+0	1.030135E+0	1.041375E+0	9.878790E-1	1.077399E+0	9.787141E-1	9.990493E-1	9.757240E-1	9.771209E-1	1.041673E+0	1.060766E+0	9.979630E-1	1.049748E+0	1.003472E+0	9.954119E-1	9.840943E-1	1.060463E+0	1.001059E+0	9.983524E-1	1.049118E+0	1.027430E+0	9.902717E-1	1.011380E+0	1.023197E+0	1.020856E+0	9.700973E-1	9.954322E-1	9.884938E-1	9.954327E-1	1.011532E+0	1.003086E+0	1.008617E+0	1.044665E+0	1.054058E+0	9.616270E-1	9.985365E-1	1.018762E+0	9.962351E-1	1.000247E+0	1.100363E+0	9.864184E-1	1.038156E+0	9.871329E-1	9.881858E-1	1.031826E+0	1.016416E+0	9.774052E-1	1.026463E+0	1.053894E+0	9.904710E-1	1.021658E+0	1.027581E+0	1.023430E+0	1.038846E+0	9.983890E-1	9.968612E-1	1.046476E+0	1.040435E+0	9.935678E-1	1.045619E+0	9.831202E-1	1.032562E+0	9.863091E-1	9.835986E-1	9.966514E-1	1.025521E+0	1.002543E+0	9.799130E-1	9.993478E-1	1.047076E+0	1.008134E+0	1.027043E+0	9.972374E-1	1.041546E+0	1.019654E+0	9.863274E-1	1.016550E+0	1.028957E+0	9.710282E-1	9.956944E-1	9.688258E-1	1.030843E+0	9.988618E-1	1.014713E+0	1.028052E+0	1.062684E+0	9.712588E-1	1.060736E+0	1.018377E+0	1.046498E+0	9.908394E-1	9.895511E-1	1.023336E+0	1.017425E+0	9.888120E-1	1.003163E+0	1.000509E+0	1.064863E+0	1.012545E+0	1.024011E+0	9.959408E-1	1.002528E+0	9.930611E-1	1.036954E+0	1.037850E+0	1.007384E+0	1.017718E+0	9.912163E-1	1.055879E+0	1.052649E+0	1.016854E+0	9.961920E-1	1.002268E+0	1.035772E+0	9.548573E-1	1.028522E+0	1.002587E+0	1.006683E+0	1.013729E+0	1.017336E+0	9.606013E-1	1.007820E+0	1.023524E+0	1.010364E+0	1.011349E+0	1.049153E+0	9.386696E-1	9.854893E-1	9.583850E-1	1.094436E+0
2.975040E+2	9.136049E-1	9.177495E-1	9.267749E-1	9.428087E-1	9.281291E-1	9.211115E-1	9.211108E-1	9.125286E-1	1.003287E+0	9.472771E-1	9.130921E-1	9.380293E-1	9.349649E-1	9.688923E-1	9.462767E-1	9.210190E-1	9.182024E-1	9.555149E-1	9.866858E-1	9.954968E-1	9.308723E-1	9.521343E-1	9.249064E-1	9.118690E-1	9.507038E-1	9.466951E-1	9.294262E-1	9.590731E-1	9.607852E-1	9.506916E-1	9.482735E-1	9.025743E-1	9.452730E-1	9.926066E-1	9.756878E-1	9.789716E-1	9.618234E-1	9.612216E-1	1.007541E+0	9.637006E-1	9.679831E-1	9.380030E-1	9.699792E-1	9.347112E-1	9.212376E-1	9.504333E-1	9.489661E-1	9.716599E-1	9.388677E-1	9.387581E-1	9.407030E-1	9.181537E-1	9.459678E-1	9.637083E-1	9.484708E-1	9.425941E-1	9.316516E-1	9.886647E-1	9.167903E-1	9.525524E-1	9.382663E-1	9.491529E-1	9.347093E-1	9.475673E-1	9.715359E-1	9.029998E-1	9.163029E-1	9.459577E-1	9.579436E-1	9.788085E-1	9.658678E-1	9.938822E-1	9.626161E-1	9.374529E-1	9.832349E-1	9.714735E-1	1.015016E+0	9.748149E-1	9.877931E-1	9.235708E-1	9.465697E-1	9.504814E-1	9.412470E-1	9.792254E-1	9.675007E-1	9.843585E-1	9.605993E-1	9.324636E-1	9.684869E-1	9.750396E-1	9.268524E-1	9.573041E-1	9.684508E-1	9.759291E-1	9.442748E-1	9.493381E-1	9.269378E-1	9.638520E-1	9.726031E-1	9.110283E-1	9.537090E-1	9.574293E-1	9.400202E-1	9.289788E-1	9.743644E-1	9.354404E-1	9.768727E-1	9.224864E-1	9.791753E-1	9.218251E-1	9.095350E-1	9.696543E-1	9.424181E-1	9.718494E-1	9.589823E-1	9.858304E-1	9.334146E-1	9.333059E-1	9.753288E-1	9.721428E-1	9.587122E-1	9.496329E-1	9.428837E-1	9.726918E-1	9.833805E-1	9.474269E-1	9.148767E-1	9.752224E-1	9.559801E-1	9.291848E-1	9.607468E-1	9.952710E-1	9.330120E-1	9.614895E-1	9.765313E-1	9.584160E-1	9.573510E-1	9.448622E-1	9.509310E-1	9.754723E-1	9.358109E-1	9.687216E-1	9.729592E-1	9.756731E-1	9.261409E-1	9.352695E-1	9.623447E-1	9.010845E-1	9.500173E-1	9.454503E-1	9.344951E-1	9.940319E-1	9.805759E-1	9.678900E-1	9.586410E-1	9.431079E-1	9.551982E-1	9.347021E-1	9.598168E-1	9.299464E-1	9.524403E-1	9.668682E-1	9.222535E-1	9.049144E-1	9.412111E-1	9.689691E-1	9.586052E-1	9.440238E-1	9.500930E-1	9.404095E-1	8.644865E-1
2.980020E+2	7.950847E-1	8.677445E-1	8.118567E-1	8.714025E-1	8.612657E-1	8.750334E-1	8.848860E-1	8.368278E-1	8.429220E-1	8.348491E-1	8.850342E-1	8.461009E-1	9.051519E-1	8.254839E-1	8.851294E-1	8.594535E-1	8.843034E-1	8.632210E-1	8.733554E-1	8.547878E-1	8.516071E-1	8.625536E-1	8.654000E-1	8.797873E-1	8.725358E-1	8.703060E-1	8.682629E-1	8.676092E-1	8.326134E-1	8.804519E-1	8.580046E-1	8.448891E-1	8.781515E-1	8.603069E-1	8.151371E-1	8.311929E-1	8.507913E-1	8.443438E-1	8.467803E-1	8.162668E-1	8.235664E-1	8.759069E-1	8.029842E-1	8.595792E-1	8.826961E-1	8.639719E-1	8.587404E-1	8.372440E-1	8.785479E-1	8.398422E-1	8.876343E-1	8.887086E-1	8.971467E-1	8.492386E-1	8.416972E-1	8.829256E-1	8.226402E-1	8.493037E-1	8.377497E-1	8.775223E-1	8.442250E-1	8.690001E-1	8.788351E-1	8.371258E-1	8.458628E-1	8.545651E-1	8.477500E-1	8.269897E-1	8.702948E-1	8.646408E-1	8.613236E-1	8.280222E-1	8.573427E-1	8.858971E-1	8.589662E-1	8.603530E-1	8.338096E-1	8.400531E-1	8.990850E-1	8.898073E-1	8.354724E-1	8.543293E-1	8.578341E-1	8.542917E-1	8.754940E-1	8.912151E-1	8.548742E-1	8.670485E-1	9.010503E-1	8.327387E-1	9.118302E-1	8.760198E-1	8.351335E-1	8.666574E-1	8.295334E-1	8.278915E-1	8.420660E-1	8.767328E-1	8.243000E-1	9.271648E-1	8.644170E-1	8.816225E-1	8.640259E-1	8.369854E-1	8.755672E-1	8.258774E-1	8.688999E-1	8.632702E-1	8.338346E-1	8.763708E-1	8.710448E-1	8.463781E-1	8.887198E-1	8.776123E-1	8.135586E-1	8.377609E-1	8.457391E-1	8.468552E-1	8.380042E-1	8.630193E-1	8.628313E-1	8.590969E-1	8.827787E-1	8.762018E-1	8.235632E-1	8.353704E-1	8.516822E-1	8.774159E-1	8.666059E-1	8.423565E-1	8.438695E-1	8.408400E-1	8.632600E-1	8.922382E-1	8.526756E-1	8.585800E-1	8.245313E-1	8.510415E-1	8.390009E-1	9.026530E-1	8.593619E-1	8.479582E-1	8.372788E-1	8.564537E-1	8.836151E-1	9.137465E-1	8.524798E-1	8.900033E-1	8.584136E-1	8.836602E-1	8.547221E-1	8.520880E-1	8.703418E-1	8.809150E-1	8.680882E-1	8.446939E-1	8.955981E-1	8.548107E-1	8.723597E-1	8.529323E-1	8.255986E-1	8.409201E-1	8.476600E-1	9.032692E-1	8.684026E-1	8.330176E-1	8.774213E-1	8.365561E-1	8.352152E-1	8.373594E-1	9.115569E-1
2.985010E+2	9.151558E-1	8.523364E-1	8.980395E-1	8.813749E-1	8.628124E-1	8.813154E-1	8.831361E-1	8.992512E-1	9.114052E-1	9.145644E-1	8.435923E-1	8.534161E-1	8.714921E-1	8.795322E-1	8.896733E-1	9.015634E-1	8.698772E-1	8.915715E-1	8.705382E-1	8.596715E-1	8.696583E-1	8.956992E-1	8.934907E-1	8.710289E-1	8.877827E-1	8.762677E-1	9.313818E-1	9.066457E-1	8.889028E-1	8.991502E-1	8.637337E-1	8.799685E-1	8.695693E-1	8.634602E-1	8.963858E-1	8.979314E-1	8.733870E-1	8.446332E-1	8.742204E-1	8.823099E-1	9.206621E-1	8.806441E-1	8.812895E-1	8.991237E-1	8.874115E-1	8.667660E-1	8.607049E-1	8.757674E-1	8.883016E-1	9.145135E-1	8.837831E-1	8.648341E-1	8.498137E-1	9.056716E-1	9.030004E-1	8.681300E-1	8.929821E-1	8.959313E-1	8.891350E-1	9.003697E-1	8.966693E-1	8.921965E-1	9.052599E-1	9.103697E-1	8.802939E-1	9.206236E-1	8.687357E-1	8.634079E-1	8.595539E-1	8.243364E-1	8.748426E-1	9.232825E-1	8.878716E-1	9.156607E-1	8.604755E-1	8.965015E-1	8.767374E-1	8.723825E-1	8.721308E-1	8.890413E-1	8.713067E-1	9.226179E-1	8.966629E-1	8.637844E-1	8.441779E-1	7.999574E-1	8.805180E-1	8.609004E-1	8.375317E-1	8.931302E-1	8.904163E-1	8.821098E-1	8.360847E-1	8.338413E-1	8.667535E-1	9.155692E-1	8.893019E-1	8.748362E-1	8.791361E-1	8.904723E-1	8.364672E-1	8.850684E-1	8.563503E-1	8.564940E-1	8.967622E-1	8.740614E-1	8.756447E-1	8.592278E-1	8.625433E-1	8.846149E-1	9.165808E-1	9.567101E-1	8.885895E-1	8.630017E-1	8.965864E-1	8.623001E-1	8.505018E-1	8.575414E-1	8.955855E-1	8.626715E-1	9.009287E-1	9.020703E-1	9.295578E-1	8.717911E-1	8.570024E-1	8.950687E-1	8.752103E-1	9.073575E-1	8.416522E-1	9.209889E-1	9.132589E-1	9.108866E-1	8.800198E-1	8.451985E-1	9.029568E-1	8.720459E-1	8.746302E-1	9.316649E-1	8.551189E-1	8.819095E-1	9.253032E-1	8.763775E-1	8.555593E-1	8.166185E-1	9.085226E-1	8.820046E-1	8.915864E-1	9.026390E-1	8.769624E-1	9.173042E-1	8.935979E-1	8.834418E-1	8.680446E-1	8.308982E-1	8.615969E-1	9.128789E-1	8.989012E-1	9.050890E-1	8.807737E-1	9.065350E-1	8.864594E-1	9.177398E-1	8.945496E-1	8.341030E-1	8.711106E-1	8.644289E-1	8.230024E-1	8.847608E-1	9.758120E-1	9.037538E-1	9.730161E-1
2.990020E+2	1.073771E+0	1.007480E+0	1.033311E+0	1.030930E+0	1.083981E+0	1.003746E+0	9.930351E-1	1.032060E+0	1.011163E+0	1.023326E+0	1.090058E+0	1.038278E+0	1.027085E+0	1.045841E+0	1.000622E+0	1.029722E+0	9.970074E-1	1.055483E+0	1.032508E+0	1.041812E+0	1.003915E+0	9.862926E-1	1.016321E+0	1.070267E+0	1.054148E+0	1.015233E+0	9.838246E-1	1.010516E+0	1.016400E+0	1.048009E+0	1.033116E+0	1.064264E+0	1.030045E+0	1.036350E+0	1.042543E+0	1.056737E+0	1.019922E+0	9.905000E-1	1.050827E+0	1.077112E+0	1.036782E+0	1.045597E+0	1.038356E+0	1.040111E+0	1.057899E+0	1.048242E+0	1.072196E+0	1.015058E+0	1.071859E+0	1.027374E+0	1.018708E+0	1.001640E+0	1.035832E+0	1.041894E+0	1.017748E+0	1.049449E+0	1.031542E+0	9.939894E-1	1.039464E+0	1.012082E+0	1.030619E+0	1.013011E+0	1.003663E+0	9.966623E-1	1.078128E+0	1.048381E+0	1.041140E+0	1.016156E+0	1.060010E+0	1.008460E+0	1.008440E+0	1.006602E+0	9.865722E-1	9.884880E-1	1.027519E+0	9.764672E-1	9.877721E-1	1.004867E+0	9.876148E-1	1.027842E+0	1.055765E+0	1.005118E+0	1.022641E+0	1.013541E+0	1.096644E+0	1.040771E+0	1.010600E+0	1.026929E+0	1.024566E+0	1.026966E+0	9.909881E-1	9.830787E-1	1.071232E+0	1.019044E+0	1.022675E+0	1.048373E+0	1.063220E+0	1.001493E+0	1.033320E+0	1.039092E+0	1.009448E+0	1.024597E+0	1.067834E+0	1.068808E+0	1.044424E+0	1.035783E+0	1.013602E+0	1.051639E+0	1.064044E+0	9.806628E-1	1.021841E+0	1.012621E+0	1.045539E+0	1.018068E+0	9.993023E-1	1.004447E+0	1.043031E+0	1.040662E+0	1.035044E+0	1.024166E+0	1.038389E+0	1.056159E+0	1.001416E+0	1.052172E+0	9.975732E-1	1.050996E+0	1.024958E+0	1.033834E+0	1.013969E+0	9.991344E-1	9.935101E-1	1.035037E+0	1.065064E+0	1.079160E+0	1.014301E+0	1.082004E+0	1.025216E+0	1.016825E+0	1.038854E+0	1.043549E+0	9.874477E-1	1.064725E+0	1.002464E+0	9.917105E-1	1.002672E+0	1.027608E+0	1.032591E+0	1.050118E+0	1.060473E+0	1.044972E+0	1.027604E+0	1.037437E+0	1.026305E+0	1.020564E+0	1.007427E+0	1.019223E+0	1.029450E+0	1.059010E+0	1.026985E+0	1.038518E+0	1.072248E+0	1.018757E+0	1.028421E+0	1.024422E+0	1.024603E+0	1.020947E+0	1.076011E+0	1.061064E+0	9.991512E-1	1.053145E+0	1.039275E+0
2.995040E+2	1.066199E+0	1.149167E+0	1.155897E+0	1.090799E+0	1.099681E+0	1.090304E+0	1.069256E+0	1.135370E+0	1.056206E+0	1.098430E+0	1.075420E+0	1.097110E+0	1.120248E+0	1.105558E+0	1.106436E+0	1.103521E+0	1.151784E+0	1.070979E+0	1.052074E+0	1.081987E+0	1.136272E+0	1.108088E+0	1.096402E+0	1.067420E+0	1.058468E+0	1.110302E+0	1.121984E+0	1.115450E+0	1.111094E+0	1.079847E+0	1.135674E+0	1.155024E+0	1.079831E+0	1.084980E+0	1.113781E+0	1.045140E+0	1.095646E+0	1.151787E+0	1.060042E+0	1.109322E+0	1.082188E+0	1.078400E+0	1.099504E+0	1.111569E+0	1.081460E+0	1.080992E+0	1.109093E+0	1.129218E+0	1.075172E+0	1.081376E+0	1.084614E+0	1.121287E+0	1.086692E+0	1.083621E+0	1.092718E+0	1.095389E+0	1.106914E+0	1.107920E+0	1.110807E+0	1.057939E+0	1.119399E+0	1.094299E+0	1.062939E+0	1.117820E+0	1.060344E+0	1.090717E+0	1.136652E+0	1.142402E+0	1.112082E+0	1.139212E+0	1.088061E+0	1.098297E+0	1.130605E+0	1.101002E+0	1.106738E+0	1.095712E+0	1.070344E+0	1.116703E+0	1.119925E+0	1.083069E+0	1.114310E+0	1.109620E+0	1.088310E+0	1.102481E+0	1.108052E+0	1.101223E+0	1.146279E+0	1.112061E+0	1.102042E+0	1.106870E+0	1.085656E+0	1.124009E+0	1.083918E+0	1.118531E+0	1.141759E+0	1.102284E+0	1.085678E+0	1.099814E+0	1.122144E+0	1.067814E+0	1.132607E+0	1.129944E+0	1.108330E+0	1.112894E+0	1.097447E+0	1.118064E+0	1.072658E+0	1.136498E+0	1.062177E+0	1.119724E+0	1.095946E+0	1.053109E+0	1.097473E+0	1.131083E+0	1.143704E+0	1.118163E+0	1.103595E+0	1.148209E+0	1.090835E+0	1.072461E+0	1.070730E+0	1.076347E+0	1.092597E+0	1.083892E+0	1.116859E+0	1.065368E+0	1.137086E+0	1.047449E+0	1.124020E+0	1.115493E+0	1.103901E+0	1.087954E+0	1.078366E+0	1.085585E+0	1.128926E+0	1.084189E+0	1.077349E+0	1.103809E+0	1.076613E+0	1.053748E+0	1.113537E+0	1.111997E+0	1.142569E+0	1.125743E+0	1.066206E+0	1.085968E+0	1.110326E+0	1.085445E+0	1.096180E+0	1.071484E+0	1.120949E+0	1.066951E+0	1.094178E+0	1.129198E+0	1.110278E+0	1.099455E+0	1.086133E+0	1.080329E+0	1.094418E+0	1.072131E+0	1.096026E+0	1.088760E+0	1.120432E+0	1.144936E+0	1.098274E+0	1.180093E+0	1.129267E+0	1.086618E+0	1.044730E+0	1.109509E+0	1.007361E+0
3.000080E+2	1.236185E+0	1.205523E+0	1.174121E+0	1.182684E+0	1.164131E+0	1.228489E+0	1.248577E+0	1.183963E+0	1.175016E+0	1.181553E+0	1.192803E+0	1.227066E+0	1.141058E+0	1.174692E+0	1.171863E+0	1.184721E+0	1.178826E+0	1.163230E+0	1.184839E+0	1.166245E+0	1.207675E+0	1.195232E+0	1.203480E+0	1.199627E+0	1.176362E+0	1.181195E+0	1.165121E+0	1.140706E+0	1.190204E+0	1.141851E+0	1.161197E+0	1.153280E+0	1.197130E+0	1.162296E+0	1.156465E+0	1.190028E+0	1.198430E+0	1.207515E+0	1.160588E+0	1.151289E+0	1.168818E+0	1.181450E+0	1.207887E+0	1.154906E+0	1.169296E+0	1.189595E+0	1.150300E+0	1.171053E+0	1.147252E+0	1.198136E+0	1.184558E+0	1.205377E+0	1.184548E+0	1.155866E+0	1.196366E+0	1.161513E+0	1.214271E+0	1.164191E+0	1.206054E+0	1.199535E+0	1.170821E+0	1.182341E+0	1.214594E+0	1.190455E+0	1.163835E+0	1.182714E+0	1.189419E+0	1.205087E+0	1.140115E+0	1.184542E+0	1.201465E+0	1.149914E+0	1.174992E+0	1.171499E+0	1.163067E+0	1.199493E+0	1.216320E+0	1.191179E+0	1.133452E+0	1.186670E+0	1.176576E+0	1.157833E+0	1.193305E+0	1.186676E+0	1.108131E+0	1.182476E+0	1.147130E+0	1.200598E+0	1.166323E+0	1.165256E+0	1.194257E+0	1.177478E+0	1.205182E+0	1.185998E+0	1.195005E+0	1.156545E+0	1.192797E+0	1.183272E+0	1.168497E+0	1.164428E+0	1.203352E+0	1.121339E+0	1.163440E+0	1.195840E+0	1.111435E+0	1.210774E+0	1.192324E+0	1.166879E+0	1.198225E+0	1.216802E+0	1.185053E+0	1.161528E+0	1.137260E+0	1.138385E+0	1.187867E+0	1.191499E+0	1.223719E+0	1.173426E+0	1.165202E+0	1.205539E+0	1.168409E+0	1.156694E+0	1.150767E+0	1.143251E+0	1.221622E+0	1.205770E+0	1.196186E+0	1.158721E+0	1.197773E+0	1.192843E+0	1.184713E+0	1.130011E+0	1.180278E+0	1.136329E+0	1.124609E+0	1.144765E+0	1.240923E+0	1.151797E+0	1.239482E+0	1.142668E+0	1.178539E+0	1.130221E+0	1.189170E+0	1.233801E+0	1.212844E+0	1.155403E+0	1.150672E+0	1.170711E+0	1.157953E+0	1.137130E+0	1.168633E+0	1.166051E+0	1.160555E+0	1.170535E+0	1.193969E+0	1.180642E+0	1.134719E+0	1.166060E+0	1.165647E+0	1.199937E+0	1.167228E+0	1.166955E+0	1.186684E+0	1.188356E+0	1.196398E+0	1.132545E+0	1.135693E+0	1.186978E+0	1.194999E+0	1.155824E+0	1.204304E+0
