Photon Energy (eV)	#1	#2	#3	#4	#5	#6	#7	#8	#9	#10	#11	#12	#13	#14	#15	#16	#17	#18	#19	#20	#21	#22	#23	#24	#25	#26	#27	#28	#29	#30	#31	#32	#33	#34	#35	#36	#37	#38	#39	#40	#41	#42	#43	#44	#45	#46	#47	#48	#49	#50	#51	#52	#53	#54	#55	#56	#57	#58	#59	#60	#61	#62	#63	#64	#65	#66	#67	#68	#69	#70	#71	#72	#73	#74	#75	#76	#77	#78	#79	#80	#81	#82	#83	#84	#85	#86	#87	#88	#89	#90	#91	#92	#93	#94	#95	#96	#97	#98	#99	#100	#101	#102	#103	#104	#105	#106	#107	#108	#109	#110	#111	#112	#113	#114	#115	#116	#117	#118	#119	#120	#121	#122	#123	#124	#125	#126	#127	#128	#129	#130	#131	#132	#133	#134	#135	#136	#137	#138	#139	#140	#141	#142	#143	#144	#145	#146	#147	#148	#149	#150	#151	#152	#153	#154	#155	#156	#157	#158	#159	#160	#161	#162	#163	#164	#165	#166	#167	#168	#169	#170	#171	
2.790010E+2	-1.455865E-3	7.412633E-3	-2.752221E-3	-6.606061E-3	5.774606E-4	-4.210953E-3	-1.278106E-3	-1.154250E-3	5.113071E-3	-3.768338E-3	-5.134315E-3	-1.196634E-3	3.155249E-3	-2.140801E-3	-5.426471E-3	4.693092E-3	-1.685263E-3	-1.833313E-3	4.581092E-5	-6.022725E-3	-5.304850E-3	-5.110888E-4	2.438753E-4	-3.008619E-3	4.886685E-3	-2.080322E-3	5.243423E-4	-4.140045E-3	9.153406E-4	-9.218356E-4	8.242215E-4	-3.745312E-5	-7.769061E-3	-1.504308E-3	-1.291374E-2	1.488286E-3	-4.719271E-3	2.820830E-3	-4.241736E-3	-3.678615E-3	-7.155212E-3	2.832522E-3	-3.130395E-4	-9.089091E-3	-1.732022E-3	-6.568971E-3	-8.940177E-3	-6.717730E-3	-6.795751E-3	-9.752945E-4	-5.409887E-3	-1.015777E-3	-5.184122E-4	-1.790814E-3	1.744706E-3	2.221625E-3	3.116784E-3	-1.724325E-3	2.638239E-3	4.313113E-3	-2.974101E-4	-4.094039E-3	-6.035337E-3	-8.117529E-3	-7.715217E-4	-2.694610E-3	-6.734604E-3	1.003597E-4	2.607134E-3	-7.412623E-3	6.840762E-4	-3.704088E-3	-5.887681E-3	-2.583877E-3	-5.499939E-3	-1.411570E-3	-1.534467E-4	1.379586E-3	-3.910251E-4	-5.913057E-3	4.274716E-3	-3.156909E-3	-5.848301E-3	-2.388394E-3	-3.546999E-3	1.304257E-3	1.862032E-3	2.440865E-3	2.294775E-3	-3.616703E-3	-6.873803E-3	-5.106341E-3	-3.799840E-3	-1.804135E-3	-2.420365E-3	4.298274E-3	-3.930269E-4	-6.406540E-3	-1.335672E-3	-9.703660E-4	2.806008E-3	-1.304644E-3	-1.156917E-3	8.766065E-4	-2.856130E-3	-5.124234E-3	-5.870994E-3	-8.393680E-4	-8.535837E-4	-5.567109E-3	-4.205839E-3	2.909951E-3	-2.145348E-3	-2.006864E-3	-8.179607E-3	-9.145135E-3	-8.772238E-3	-8.660017E-4	-1.813724E-3	1.220767E-3	-1.073584E-3	2.017427E-4	-2.720107E-3	3.114118E-3	-7.297872E-3	-3.719134E-3	-2.147495E-3	1.210065E-3	3.270693E-3	-3.190446E-3	-1.342259E-3	-8.960722E-3	-2.958003E-3	-5.828292E-3	-1.014669E-2	-1.848959E-4	-8.532643E-4	1.358765E-3	4.761049E-4	-5.509950E-3	-9.736720E-3	6.300789E-4	-4.484037E-3	5.566024E-4	-1.640861E-3	-8.140435E-3	-1.777933E-3	-7.399183E-3	3.898554E-4	-2.794257E-3	-4.025951E-3	-4.981494E-3	1.137091E-2	-9.327459E-5	-4.458278E-3	-2.933848E-3	-2.168974E-4	-3.660818E-3	-9.401359E-3	-1.718880E-3	-6.625055E-3	-1.325856E-2	-9.984345E-3	-6.619579E-3	9.414954E-5	-4.868421E-3	-4.108054E-3	-9.561117E-3	2.695118E-3	-1.277832E-3	-2.631699E-3
2.795010E+2	-1.817255E-3	-1.058968E-3	-9.769906E-3	-4.693331E-5	-2.143713E-3	-2.213871E-3	2.619886E-3	-4.767550E-3	-2.439276E-3	-1.013616E-3	-1.071071E-3	5.312933E-3	-2.966557E-3	2.433341E-3	5.245392E-3	-9.455362E-4	-8.664779E-3	-2.242376E-3	-5.719879E-3	2.558575E-3	-8.885630E-3	2.207789E-3	-6.366743E-3	-6.703877E-3	-6.223337E-3	-1.147644E-3	-1.782709E-3	1.048751E-3	1.187412E-3	1.862300E-3	-4.890348E-3	-3.800490E-3	-4.143744E-3	1.072750E-3	-6.976382E-3	-1.868616E-3	-5.734803E-3	-4.952073E-3	-1.276684E-3	-2.646813E-3	-2.444549E-3	-5.277867E-3	-1.349318E-4	3.692727E-4	4.435950E-3	-3.637928E-3	6.086367E-3	-1.233851E-3	-1.898501E-3	2.344077E-3	-5.040007E-3	2.546987E-3	-2.865383E-3	1.228865E-3	-7.107943E-4	4.670518E-3	-5.975232E-3	-2.882289E-3	-7.709574E-3	3.762904E-3	-4.341883E-3	-3.728114E-3	3.144112E-3	1.995840E-3	-1.268748E-3	-2.329224E-3	-1.583369E-3	1.890595E-3	9.168945E-3	1.976626E-3	-9.429096E-4	2.231385E-4	-8.239920E-4	4.574859E-3	-1.947866E-3	2.124020E-3	1.338548E-4	-4.510474E-3	5.795850E-3	-2.811683E-3	-7.362686E-4	1.729972E-3	-3.393274E-3	-1.271797E-3	-1.548644E-3	-5.864924E-4	-5.997516E-3	-7.579073E-3	-2.109644E-3	-4.793151E-4	6.358954E-3	7.949023E-3	1.856025E-3	1.104455E-3	5.498199E-3	-1.462040E-3	1.794932E-3	-3.732936E-3	-3.348810E-3	2.192287E-3	-7.617614E-3	-2.439159E-3	1.099677E-3	2.383195E-3	-4.728980E-3	9.357246E-4	-8.744076E-4	3.520023E-4	-2.037985E-3	4.820736E-3	-2.095281E-3	-4.157185E-4	-8.052109E-4	3.593707E-3	-2.741541E-3	-6.331744E-3	-1.313153E-3	-7.263602E-3	-1.569874E-3	-8.032033E-3	-4.866067E-3	-1.621093E-3	-5.122909E-3	2.614481E-3	-1.577469E-3	-6.755227E-3	1.148046E-4	-5.011255E-3	8.366748E-4	-2.080743E-3	-4.071512E-3	1.499825E-3	-4.816683E-3	5.063244E-3	-9.670268E-4	-1.324518E-3	-5.342153E-3	-4.290754E-3	2.183521E-3	-3.271564E-3	9.411897E-4	-7.040543E-3	5.309659E-3	-6.023766E-4	7.147439E-3	-1.405266E-3	-2.909949E-3	3.159081E-3	7.081106E-4	-9.276815E-3	-1.176212E-3	-3.914135E-3	-2.885392E-3	-2.669162E-3	-4.139823E-3	2.419114E-3	-6.607589E-4	3.686537E-5	-1.720931E-3	-2.149661E-3	-5.168530E-3	2.623153E-3	-8.516654E-4	-4.494712E-3	-4.243310E-3	-9.524462E-4	-5.869508E-3	4.057495E-3	9.164288E-4	3.277960E-3	-6.008245E-3
2.800050E+2	-3.485097E-3	-4.576574E-3	-6.460997E-3	-6.114841E-3	1.653250E-3	-6.372067E-4	2.619912E-3	2.459064E-3	-5.253779E-3	-3.341573E-3	-7.387002E-3	-4.786199E-5	3.322924E-3	-1.821694E-3	2.927516E-3	-6.081376E-3	-1.330819E-3	-4.345975E-3	-1.720546E-3	7.016465E-3	-6.938381E-3	-2.773353E-3	-2.957242E-3	3.283275E-3	1.360331E-3	-5.193120E-3	-5.557918E-3	2.649446E-3	-6.620397E-3	-8.976632E-3	-6.648700E-3	-1.802400E-3	-2.314680E-4	1.823310E-3	3.201900E-3	3.202919E-3	-7.074031E-3	-3.625257E-3	-5.120330E-3	-6.684310E-3	-4.585765E-3	-1.100827E-3	2.380100E-3	-2.069871E-3	-7.764286E-4	1.592181E-3	1.801820E-3	9.596400E-4	-3.386259E-3	8.742383E-4	-7.999226E-3	4.148303E-3	-5.437352E-3	-5.582482E-3	-3.295510E-3	-1.148658E-3	-3.107804E-3	2.404012E-3	-5.600196E-3	-8.812858E-3	3.509160E-3	2.447301E-3	-8.356844E-3	1.345496E-3	1.363880E-3	1.324471E-3	-3.639275E-3	-2.554247E-3	-5.595114E-3	-5.928568E-4	-2.126182E-3	-3.347086E-3	-8.239825E-4	2.310206E-3	6.914131E-4	-1.042224E-3	-8.486766E-3	9.792894E-4	-2.011402E-4	-1.428158E-3	4.538440E-3	2.378662E-4	-1.278902E-3	-2.024504E-3	4.994887E-5	-1.286764E-3	-4.145806E-3	2.680270E-3	-7.566514E-3	-3.268101E-3	-3.256268E-5	-2.316265E-3	-2.740213E-3	3.080038E-3	-7.441606E-4	-8.717468E-3	-4.290807E-3	-5.246334E-3	-2.574514E-3	-1.002720E-2	2.089922E-4	1.644994E-3	-8.625754E-4	-2.181458E-4	1.264168E-3	9.357638E-4	-1.540611E-3	-1.272576E-3	4.009801E-3	-1.262285E-2	-2.095303E-3	6.685322E-3	-2.534454E-3	-6.860701E-3	3.740915E-3	3.597908E-3	-6.780536E-3	-5.274706E-3	2.088081E-3	1.501890E-3	-2.356352E-3	-3.710926E-3	-3.849310E-4	-2.525228E-3	-5.070849E-3	-3.443137E-3	-4.588974E-3	-1.408195E-3	-7.601174E-5	-8.739066E-3	2.050078E-3	1.499881E-3	-1.074349E-3	-4.808244E-3	-2.996903E-3	1.303237E-4	2.626261E-3	-2.084874E-3	-2.831264E-3	-3.271527E-3	-6.929546E-3	1.506758E-3	-4.903950E-3	-6.023588E-4	-3.615455E-4	-6.236890E-4	-3.648177E-3	-2.262011E-3	-3.110868E-3	1.453000E-3	-5.309636E-4	-3.162973E-4	-6.897438E-3	-5.025310E-4	-5.504620E-3	-6.639785E-3	-6.309591E-3	-6.768668E-3	7.302557E-4	-3.546878E-3	1.965567E-3	1.164981E-3	-8.099854E-3	2.128322E-3	3.548559E-3	-9.524276E-4	-5.174187E-3	-8.833926E-3	-2.987941E-3	-5.055852E-3	-6.008245E-3
2.805060E+2	4.854105E-3	6.998748E-4	-8.115454E-3	-6.114862E-3	-6.249242E-4	1.511133E-4	-4.488998E-3	-7.527727E-4	-2.439224E-3	4.418222E-3	-1.071025E-3	-7.706182E-3	-4.224439E-3	-6.785888E-3	-4.605548E-3	6.758110E-3	-1.330833E-3	-1.541173E-3	4.944999E-3	2.558638E-3	9.288585E-3	-4.018667E-3	-2.388989E-3	-7.115999E-4	-6.223300E-3	-3.844637E-3	-1.153535E-3	-4.553568E-3	-2.321830E-4	-1.025180E-2	-2.015001E-4	-1.802425E-3	4.463222E-3	4.825746E-3	-8.693937E-4	2.478403E-3	-4.395625E-3	3.672230E-3	-4.022144E-3	1.390709E-3	3.979098E-3	-9.454946E-3	-2.649929E-3	-3.695969E-3	-4.034147E-3	1.009113E-2	-3.706903E-3	-5.026694E-4	-1.154574E-3	-4.270193E-3	-2.080719E-3	-7.060556E-3	4.850627E-3	-8.144940E-4	-3.941673E-3	1.033496E-3	1.193244E-3	-5.903012E-3	-2.787621E-3	-9.598856E-3	1.368000E-3	-9.834743E-4	-5.055847E-5	2.646220E-3	2.241387E-3	-5.252170E-3	-8.980420E-4	6.335415E-3	-1.376810E-3	3.261340E-3	-2.717809E-3	3.793376E-3	1.507152E-3	8.004556E-4	3.164766E-5	7.664839E-3	4.836055E-3	9.793103E-4	9.982622E-4	-1.428163E-3	-6.890164E-3	-3.492657E-3	-3.393313E-3	-2.777313E-3	-3.946648E-3	-9.690129E-3	4.495552E-3	-2.791412E-3	-2.889215E-3	1.612283E-3	-2.873217E-3	-7.370035E-4	-4.420426E-4	-2.188286E-3	-5.055759E-5	-3.440803E-3	3.533698E-3	-1.462881E-3	-4.123073E-3	-1.074600E-2	2.089879E-4	-3.119883E-3	-2.170746E-3	-2.819486E-3	2.013344E-3	1.648665E-3	-5.537904E-3	1.164287E-3	1.741846E-3	-1.888288E-3	2.775114E-3	-1.125832E-3	5.946092E-5	6.067313E-4	-9.224014E-3	-9.849907E-4	2.489640E-4	3.343823E-3	8.687454E-4	-8.032033E-3	5.172816E-3	-5.800797E-3	2.322443E-3	-1.668615E-3	8.029308E-3	9.805064E-3	-2.573081E-3	-2.128799E-3	8.366860E-4	-5.040009E-3	-3.306299E-3	3.038215E-3	-3.319776E-3	-2.833946E-3	3.862375E-4	-3.506871E-3	-6.935784E-3	-9.437852E-3	-1.071156E-2	-7.576186E-3	1.117318E-2	-4.410597E-3	-5.584830E-3	-3.530238E-3	-2.030231E-3	6.411043E-3	7.813399E-4	6.131079E-5	4.527034E-3	2.123594E-3	5.276035E-3	-4.633704E-3	-1.280522E-3	-7.002424E-3	6.778396E-3	7.720850E-4	-1.115150E-2	-1.324242E-3	1.421179E-2	1.343388E-3	2.857363E-3	2.623162E-3	-2.301309E-3	-1.183165E-3	-2.684971E-3	-3.988040E-3	-1.002405E-3	4.057495E-3	-6.892295E-3	-1.722323E-3	5.908939E-3
2.810080E+2	-1.817250E-3	-8.973590E-3	5.120162E-3	-4.695974E-5	-3.662455E-3	5.669305E-3	-5.910759E-3	2.459045E-3	-2.439267E-3	-2.376199E-4	-3.597434E-3	-2.345340E-3	-5.482349E-3	-5.367524E-3	-1.128757E-3	2.264302E-3	-2.064187E-3	-8.399879E-4	3.611954E-3	-7.100050E-3	-1.745768E-3	-1.528111E-3	2.156932E-3	-3.374835E-3	-1.673152E-3	-2.496110E-3	3.250832E-3	-1.352237E-3	1.187443E-3	5.050164E-3	-7.876008E-4	4.857768E-3	3.680779E-3	-4.284789E-4	9.308918E-3	-3.317621E-3	-1.047627E-3	1.018646E-3	5.861618E-3	3.409439E-3	2.551614E-3	-6.670228E-3	-1.349395E-4	1.182329E-3	-7.764366E-4	-3.690887E-4	-3.094811E-3	2.422039E-3	3.331883E-4	-3.535251E-3	1.049612E-2	-7.060551E-3	3.496239E-4	-4.220174E-3	2.520068E-3	3.061172E-4	-2.404152E-4	5.424688E-3	2.134305E-3	-1.038484E-2	-8.624286E-3	1.761149E-3	-6.894870E-4	-1.166208E-2	4.862819E-4	3.516662E-3	8.011007E-3	-3.295049E-3	2.841511E-3	-1.877547E-3	-3.512394E-4	-1.919011E-3	3.061213E-3	8.005201E-4	-2.607680E-3	-6.583038E-3	-2.217200E-3	-7.255356E-3	-3.799373E-3	1.338814E-3	-2.494480E-3	3.222205E-3	-4.802882E-3	9.863726E-4	-1.034121E-2	1.137923E-4	-4.423330E-4	-7.395115E-4	4.126768E-3	-1.873746E-3	-2.873208E-3	-3.895521E-3	-2.740199E-3	-4.163877E-3	-6.292930E-3	-1.429482E-4	-1.682653E-3	-2.976274E-3	3.619773E-3	-6.828645E-4	3.766602E-3	-1.758493E-3	-3.478918E-3	-8.684849E-4	-1.732392E-3	3.074525E-3	-2.873038E-3	-4.521694E-3	-2.793939E-3	7.952896E-4	-1.486505E-3	-3.966213E-3	-1.669793E-3	1.353456E-3	5.181464E-3	3.597866E-3	-5.321133E-4	6.658652E-3	2.697736E-3	1.501894E-3	-2.356352E-3	4.687859E-4	2.918970E-4	-5.095082E-3	-4.197509E-3	-1.455952E-3	-4.588970E-3	4.356726E-3	-7.378117E-3	9.016505E-3	-1.775923E-3	-1.080671E-2	-3.258936E-4	3.747056E-3	3.769435E-3	4.494985E-3	1.829382E-3	-2.820145E-3	8.631049E-3	5.337750E-3	5.663639E-3	3.479158E-3	6.671476E-3	-4.262187E-3	-3.698876E-3	1.721241E-3	2.257814E-3	7.031323E-3	-3.874661E-3	-5.253179E-3	-2.466653E-3	1.122835E-3	5.138774E-3	4.552940E-3	3.366462E-3	7.720750E-4	-7.923566E-3	3.439618E-3	-1.720939E-3	4.836382E-3	9.099690E-3	3.352223E-3	6.396558E-3	4.725810E-4	5.886136E-3	8.689530E-4	1.778815E-3	-2.884052E-3	4.820822E-3	-1.172287E-2	1.186751E-2
2.815030E+2	2.352349E-3	3.338107E-3	4.292971E-3	1.686742E-3	6.968991E-3	-3.002162E-3	6.174397E-3	1.656089E-3	3.893410E-3	2.866257E-3	5.876414E-3	4.547141E-3	-1.708651E-3	1.724176E-3	3.017049E-5	2.264286E-3	6.003167E-3	8.275564E-3	-3.720224E-3	1.072660E-3	7.990425E-3	-9.054239E-4	1.588731E-3	1.285856E-3	-1.673147E-3	2.009084E-4	1.992423E-3	4.250131E-3	6.865885E-3	5.687828E-3	9.707512E-4	-4.703634E-4	2.115870E-3	1.823324E-3	4.876974E-4	-2.593118E-3	2.300337E-3	1.018614E-3	5.861591E-3	4.755298E-3	-1.017117E-3	5.860926E-3	-1.392444E-3	7.686635E-3	-2.731085E-3	-4.945486E-3	6.086340E-3	-1.233873E-3	3.308750E-3	3.813947E-3	2.358173E-3	5.749497E-3	-1.579363E-3	8.721370E-3	-3.295498E-3	-4.058297E-3	2.626921E-3	-6.658192E-3	2.488924E-5	6.906868E-3	4.222944E-3	3.887997E-4	-1.967407E-3	-3.207161E-3	-1.268786E-3	2.055198E-3	-2.127444E-4	-3.318236E-4	2.841485E-3	-5.089422E-3	4.973382E-3	3.793354E-3	-8.239967E-4	-2.219018E-3	-1.288036E-3	5.408641E-4	2.484948E-3	2.351749E-3	-3.199648E-3	2.722325E-3	1.901086E-3	-2.746527E-3	7.178622E-3	3.244620E-3	4.994887E-5	-2.687321E-3	5.112782E-3	-3.475348E-3	-5.505697E-4	1.612291E-3	-7.427143E-4	-3.105908E-3	-4.420379E-4	4.458921E-4	-9.067355E-3	1.835855E-3	9.255653E-4	1.563785E-3	2.845519E-3	1.009906E-2	-5.483083E-3	5.048522E-3	-2.084979E-4	-4.120141E-3	-2.341097E-4	2.228231E-4	4.455284E-3	1.976566E-3	3.253810E-3	-1.217415E-3	-2.689067E-4	-1.835894E-3	9.240694E-4	-1.399932E-4	3.740906E-3	1.306443E-3	-1.313129E-3	6.919727E-4	-4.008504E-3	1.501877E-3	8.519103E-3	5.345064E-3	5.706670E-3	4.462647E-5	4.535907E-3	5.168183E-3	4.818575E-3	-4.290651E-3	-5.552588E-3	2.358128E-3	2.815310E-3	-8.076449E-4	8.655671E-3	5.063256E-3	3.092741E-3	-2.052012E-3	6.610478E-3	6.738668E-3	-7.129605E-3	6.198700E-3	-6.329199E-4	1.917773E-4	4.628710E-3	-1.334322E-3	2.975821E-3	1.721236E-3	5.949035E-3	-3.810926E-3	-1.583273E-3	2.123610E-3	-5.692753E-3	1.191631E-2	-2.885333E-3	9.418779E-4	-1.410262E-3	-3.345606E-3	1.063708E-2	4.800771E-3	-4.953227E-4	2.041962E-3	-2.493207E-3	-1.751287E-3	5.979917E-4	4.611976E-3	-8.918469E-3	9.975863E-3	5.255310E-3	6.040786E-3	2.217920E-3	9.945027E-3	-3.028940E-3
2.820060E+2	-9.833259E-4	-1.058947E-3	8.429132E-3	3.420427E-3	-2.903079E-3	4.880985E-3	-1.645419E-3	5.019268E-5	2.486161E-3	5.383198E-4	6.508011E-3	2.249621E-3	1.782258E-4	3.851708E-3	-5.492860E-4	-2.871518E-3	1.359563E-4	-8.399751E-4	4.278454E-3	1.072700E-3	-4.475846E-4	5.321032E-3	2.156977E-3	5.280730E-3	2.877042E-3	3.572112E-3	-2.411918E-3	-5.519485E-4	-3.071370E-3	1.862249E-3	4.487426E-3	-4.704081E-4	1.333427E-3	-1.018630E-2	4.877429E-4	1.029367E-3	8.326736E-3	-2.961814E-3	1.468834E-3	2.063595E-3	1.040271E-2	3.772425E-3	4.938301E-4	1.182245E-3	-1.248594E-4	2.899731E-3	1.189709E-3	-1.965077E-3	3.332337E-4	-5.956051E-4	2.358160E-3	3.347625E-3	4.207636E-3	-8.145397E-4	5.104792E-3	-2.603500E-3	3.343788E-3	4.669549E-3	2.489353E-5	8.478836E-3	-5.946330E-5	3.133415E-3	5.699884E-3	1.045075E-2	4.862873E-4	-3.059965E-3	3.213848E-3	-3.295022E-3	-6.298166E-3	7.757878E-3	-2.717816E-3	1.651213E-3	6.169359E-3	-7.092441E-4	9.269221E-3	2.123962E-3	-7.703091E-3	-3.931620E-4	9.982658E-4	-7.364281E-4	2.780288E-3	-2.746559E-3	7.883441E-3	9.266548E-3	3.247193E-3	3.615198E-3	2.643875E-3	6.783953E-3	4.126753E-3	-4.793449E-4	4.938633E-3	2.421563E-3	-5.038243E-3	-2.188270E-3	5.498169E-3	3.814565E-3	-1.682658E-3	1.291400E-2	2.071252E-3	3.629966E-3	1.230471E-2	-4.481219E-3	3.061938E-3	1.732899E-3	2.762456E-3	-1.916047E-3	4.455317E-3	1.976541E-3	9.859106E-4	4.820748E-3	9.487476E-4	-1.125810E-3	-8.052003E-4	3.593666E-3	4.461227E-3	1.306447E-3	1.430796E-2	4.006773E-3	8.687492E-4	5.168821E-3	-5.702650E-3	4.687647E-4	-1.738670E-3	4.327675E-3	-3.324148E-3	-7.935259E-4	3.474630E-3	1.474213E-3	-8.290887E-3	1.618350E-3	2.050092E-3	6.884013E-3	2.668002E-3	-8.596366E-4	-9.670350E-4	-2.779426E-3	5.813555E-3	8.209255E-3	5.049087E-3	7.920589E-3	-4.568288E-3	4.794115E-3	-3.542113E-3	3.789464E-3	-2.030226E-3	3.284470E-3	-5.124696E-3	3.159081E-3	2.999504E-3	1.084164E-2	2.695179E-3	-3.163104E-4	-1.280497E-3	2.196647E-4	2.684055E-3	-5.146229E-5	8.216131E-3	3.439618E-3	-4.953676E-4	-2.848270E-3	-4.276744E-3	1.894122E-3	1.291984E-2	2.128357E-3	5.886117E-3	-2.166689E-3	-1.002405E-3	5.049138E-3	-4.289384E-3	-1.722333E-3	-4.965281E-5
2.825040E+2	2.352339E-3	4.217464E-3	9.256312E-3	1.382249E-2	1.344701E-4	-6.372115E-4	1.909088E-3	5.018288E-5	1.078903E-3	5.383482E-4	5.876422E-3	-8.136771E-4	7.725597E-3	8.106682E-3	3.506984E-3	-6.081360E-3	8.936759E-3	3.367236E-3	-1.720570E-3	-1.156263E-3	6.043204E-3	2.207823E-3	5.566458E-3	3.949070E-3	6.668879E-3	1.098881E-2	5.138484E-3	2.649470E-3	-2.321311E-4	5.687727E-3	6.245750E-3	3.525772E-3	5.509748E-4	2.573952E-3	7.273260E-3	-4.196199E-4	1.234428E-2	3.008824E-3	1.468850E-3	1.390696E-3	-1.730779E-3	1.003800E-2	1.751354E-3	4.434450E-3	5.739029E-3	9.384296E-4	5.776548E-4	8.271522E-3	9.259913E-3	2.344082E-3	5.317384E-3	-6.555292E-4	9.926221E-4	3.272269E-3	1.873910E-3	-4.213014E-4	-9.572864E-4	4.669568E-3	1.127506E-2	5.334838E-3	4.222939E-3	1.074964E-3	8.255637E-3	6.548466E-3	-1.268781E-3	6.439639E-3	1.843178E-3	1.149771E-3	-4.188984E-3	1.976606E-3	3.198497E-3	-4.908968E-4	-2.378072E-3	-2.973902E-3	1.351239E-3	-3.416852E-3	1.110565E-2	6.469057E-3	-2.011914E-4	8.256350E-3	-3.373618E-3	6.952610E-3	3.654608E-3	-5.035533E-3	1.603641E-2	9.217459E-3	-3.528587E-3	2.680257E-3	2.567646E-3	6.492636E-3	2.097918E-3	4.790452E-3	1.334655E-2	5.714184E-3	7.579000E-3	3.814565E-3	1.794948E-3	5.347183E-3	2.845524E-3	6.505109E-3	-6.194601E-3	6.409883E-3	3.716039E-3	3.033557E-3	3.511645E-3	2.227796E-4	7.786354E-3	1.164242E-3	-4.305861E-3	1.085889E-2	6.427973E-3	-1.125806E-3	6.976477E-3	-1.400023E-4	3.020651E-3	6.653206E-3	4.154246E-3	-1.296911E-3	8.687901E-4	5.168816E-3	2.663086E-3	4.648460E-3	1.645607E-3	-8.119760E-4	8.902632E-3	1.193728E-3	5.490510E-3	5.797895E-3	1.635355E-2	6.057280E-3	3.580514E-3	7.653145E-3	1.171032E-3	4.565630E-4	7.829245E-3	5.222413E-3	-3.748474E-3	2.326935E-3	4.332665E-3	1.721881E-4	4.089467E-3	8.492518E-4	1.905084E-3	5.985416E-3	-3.615200E-4	-2.968600E-3	4.472566E-3	6.132496E-5	-5.570095E-5	7.824023E-4	5.921318E-3	1.122796E-3	-1.280497E-3	4.552909E-3	2.684071E-3	9.007427E-3	7.409100E-3	3.685707E-5	-1.108127E-3	2.041958E-3	4.640917E-3	3.352210E-3	1.322780E-3	2.956220E-3	4.317870E-4	2.083207E-3	1.012243E-2	2.074180E-3	3.519331E-3	8.278222E-3	-4.967099E-5
2.830040E+2	3.186298E-3	3.338112E-3	3.465756E-3	3.420385E-3	1.760045E-2	1.510845E-4	4.872354E-4	1.771531E-2	5.300673E-3	6.746126E-3	2.718466E-3	6.844605E-3	3.951915E-3	9.525041E-3	6.096835E-4	7.400052E-3	1.260372E-2	5.624343E-4	5.611564E-3	8.502380E-3	3.446854E-3	1.030220E-2	8.975925E-3	7.943969E-3	6.668851E-3	-1.147648E-3	1.017195E-2	6.651125E-3	8.995287E-3	-3.238412E-3	3.901308E-3	-4.703878E-4	1.228769E-2	4.075126E-3	1.473737E-2	8.998965E-3	1.630738E-3	1.018610E-3	9.156213E-3	5.428202E-3	9.688936E-3	5.164735E-3	4.266282E-3	9.312649E-3	1.420916E-2	2.245992E-3	2.413923E-3	1.046506E-2	4.052644E-3	5.283777E-3	5.317429E-3	5.749497E-3	8.708612E-3	4.634557E-3	5.104784E-3	1.048976E-2	-9.573170E-4	1.385163E-4	2.134314E-3	-1.738960E-3	6.364108E-3	7.936518E-3	5.060932E-3	2.646236E-3	4.862980E-4	4.978144E-3	1.897598E-2	-6.258233E-3	7.762832E-3	6.473191E-3	4.973439E-3	2.231254E-4	-1.601027E-3	1.555349E-3	5.970092E-3	1.332432E-3	1.737518E-2	8.527676E-3	8.194706E-3	3.414102E-3	9.813187E-3	1.729999E-3	1.634103E-2	7.008328E-3	9.641800E-3	5.015738E-3	6.964499E-3	4.048171E-3	3.347154E-3	1.346465E-2	3.518269E-3	-3.895579E-3	7.218259E-3	7.031297E-3	-5.058721E-5	7.112475E-3	7.011288E-3	7.617228E-3	-5.671702E-3	1.009908E-2	-1.925534E-3	1.117475E-2	1.483549E-2	1.473959E-2	9.504803E-3	9.357203E-4	1.178368E-2	3.601095E-3	1.308141E-2	1.689707E-2	1.557501E-3	2.943864E-4	9.570297E-3	5.087220E-3	5.181451E-3	3.597890E-3	4.935280E-3	7.321646E-3	1.001366E-2	8.835694E-3	-1.519784E-3	3.255205E-3	9.090938E-3	6.040901E-3	1.501598E-2	3.843420E-3	9.522271E-3	2.915492E-3	4.487716E-3	-5.039972E-3	5.876116E-3	3.038173E-3	1.239800E-2	7.695643E-3	1.053577E-2	1.176940E-2	5.813560E-3	7.473948E-3	8.631063E-3	6.198715E-3	3.302443E-3	5.451578E-3	3.266938E-3	1.037719E-2	1.131907E-2	-3.750248E-3	1.185500E-2	1.477580E-2	7.582187E-3	1.452984E-3	7.594700E-4	-1.035901E-3	-2.082954E-3	1.664069E-3	7.460803E-3	7.720649E-4	-6.607195E-4	2.759093E-3	-2.333776E-3	4.137778E-3	9.991470E-3	6.997642E-3	-8.516609E-4	7.095595E-3	-6.580892E-3	8.761628E-3	5.950648E-3	3.065846E-3	1.002662E-2	9.944976E-3	2.929634E-3
2.835020E+2	1.069158E-2	3.338086E-3	1.504696E-2	1.295573E-2	8.487785E-3	1.591742E-2	1.683774E-2	1.932119E-2	1.515149E-2	8.298124E-3	7.139615E-3	1.603463E-2	8.354561E-3	1.378008E-2	7.563253E-3	2.152355E-2	1.187033E-2	7.574323E-3	1.760957E-2	1.370324E-2	1.902484E-2	1.403808E-2	1.295369E-2	2.259173E-2	7.427232E-3	5.594830E-3	1.835153E-2	1.385413E-2	4.736444E-3	7.600539E-3	6.245743E-3	1.351600E-2	1.307016E-2	9.329401E-3	1.745160E-2	6.100906E-3	1.970989E-2	8.316100E-3	1.519622E-2	2.292408E-2	2.110881E-2	6.557134E-3	6.781318E-3	1.256481E-2	1.681533E-2	8.129820E-3	7.922605E-3	1.046504E-2	1.000380E-2	1.630762E-2	6.797052E-3	1.535717E-2	9.351637E-3	1.689501E-2	1.802832E-2	1.485419E-2	8.361685E-3	1.297657E-2	1.127507E-2	1.712472E-2	1.136028E-2	6.564214E-3	9.533561E-3	1.435297E-2	1.101676E-2	1.009335E-2	1.692009E-2	1.078024E-2	1.690251E-2	1.482394E-2	1.503115E-2	1.521804E-2	1.316265E-2	4.574859E-3	3.330744E-3	3.707118E-3	1.267302E-2	8.527680E-3	1.597914E-3	8.948118E-3	5.417594E-3	1.441352E-2	1.352179E-2	1.378303E-2	1.203972E-2	1.551997E-2	2.301271E-2	1.020379E-2	1.737908E-2	6.492641E-3	1.488097E-2	5.580090E-3	1.856091E-3	1.361667E-2	1.035336E-2	1.238910E-2	2.005211E-2	9.130571E-3	5.226176E-4	5.786329E-3	1.870826E-2	2.325714E-3	1.352731E-2	1.604028E-2	5.009900E-3	7.352161E-3	9.118834E-3	1.009933E-2	1.156948E-2	9.517068E-3	1.434252E-2	1.307623E-2	1.302883E-2	1.031438E-2	1.094364E-2	6.653150E-3	1.899430E-2	8.647531E-3	1.184265E-2	3.702072E-3	1.270203E-2	1.231125E-2	2.195111E-2	8.610818E-3	1.763602E-2	3.843323E-3	3.474634E-3	1.444524E-2	1.270251E-2	1.123595E-2	8.171700E-3	1.072975E-2	1.539192E-2	2.217385E-2	1.324231E-2	1.613410E-2	1.378197E-2	8.209255E-3	1.467094E-3	1.722196E-4	8.024897E-3	1.268390E-2	8.714202E-3	5.253404E-3	1.382210E-2	4.847742E-3	1.406978E-2	1.245242E-2	2.285799E-2	2.794200E-3	1.404730E-3	1.335545E-2	1.557016E-2	1.538613E-2	6.778396E-3	9.007457E-3	1.547904E-2	4.800783E-3	1.359900E-2	5.535020E-3	1.088327E-2	1.210118E-2	1.291984E-2	1.123504E-2	1.757396E-2	6.940218E-3	1.498953E-2	1.794051E-2	6.122242E-3	4.944714E-3	8.888226E-3
2.840030E+2	2.736997E-2	3.499682E-2	2.497371E-2	3.462674E-2	2.519443E-2	2.301225E-2	2.679019E-2	3.939514E-2	2.429871E-2	2.614566E-2	2.103455E-2	4.360453E-2	2.156250E-2	2.229013E-2	1.451688E-2	2.280746E-2	2.580485E-2	2.300063E-2	2.427509E-2	3.079161E-2	2.227019E-2	2.898163E-2	2.488687E-2	2.858405E-2	4.458708E-2	1.368587E-2	2.149751E-2	1.945647E-2	3.099922E-2	1.206367E-2	3.496530E-2	2.883439E-2	2.245952E-2	2.809444E-2	2.695137E-2	1.986652E-2	1.502270E-2	2.357446E-2	2.562908E-2	2.965325E-2	8.975227E-3	2.256915E-2	2.941640E-2	3.207777E-2	2.202775E-2	1.662877E-2	2.934536E-2	3.093820E-2	2.785722E-2	4.349974E-2	1.567486E-2	1.936029E-2	3.057062E-2	2.711203E-2	3.353655E-2	3.085702E-2	2.986711E-2	3.034575E-2	3.236911E-2	1.398073E-2	2.777612E-2	2.920725E-2	2.678496E-2	3.126283E-2	2.330225E-2	2.397735E-2	2.514383E-2	1.374346E-2	3.166650E-2	2.895596E-2	1.858097E-2	2.949882E-2	2.714937E-2	3.552464E-2	1.586749E-2	2.982805E-2	2.364477E-2	1.676233E-2	2.198777E-2	2.970070E-2	9.813235E-3	2.709709E-2	1.493135E-2	1.829945E-2	2.802624E-2	1.622030E-2	3.165410E-2	2.456682E-2	2.361544E-2	2.950020E-2	3.121473E-2	2.847963E-2	3.326353E-2	2.283629E-2	2.699972E-2	2.492112E-2	1.570522E-2	1.669737E-2	1.987990E-2	1.944338E-2	2.368890E-2	2.342726E-2	3.118773E-2	2.839671E-2	2.598594E-2	2.161091E-2	3.043760E-2	2.959412E-2	3.651651E-2	2.763155E-2	1.860408E-2	3.011876E-2	2.253968E-2	2.450254E-2	2.102753E-2	2.574863E-2	2.602385E-2	2.190681E-2	2.769381E-2	2.937040E-2	2.525060E-2	2.624365E-2	2.533532E-2	3.345267E-2	2.549621E-2	1.709165E-2	3.304108E-2	2.453381E-2	2.183008E-2	2.011374E-2	2.730175E-2	1.919058E-2	3.185815E-2	9.011806E-3	3.218801E-2	2.340849E-2	2.254714E-2	2.291516E-2	2.510812E-2	3.202666E-2	3.399834E-2	2.977837E-2	2.028958E-2	2.721248E-2	3.050868E-2	1.891721E-2	3.178772E-2	2.561800E-2	3.584242E-2	1.017097E-2	2.398765E-2	2.558807E-2	3.322330E-2	2.983035E-2	2.383826E-2	1.806635E-2	2.677674E-2	2.181464E-2	1.972698E-2	4.836386E-3	2.782681E-2	2.814083E-2	2.234253E-2	2.448108E-2	3.082011E-2	3.608242E-2	2.402851E-2	2.587366E-2	2.824695E-2	1.494527E-2	2.080543E-2
2.841030E+2	3.487525E-2	2.444387E-2	3.076428E-2	2.595832E-2	3.658525E-2	2.695386E-2	2.181402E-2	1.932114E-2	2.218782E-2	3.623341E-2	1.471870E-2	3.135119E-2	2.030462E-2	2.938184E-2	4.175192E-2	2.473340E-2	2.507147E-2	1.949472E-2	2.094234E-2	1.073133E-2	1.772661E-2	2.835897E-2	2.318215E-2	2.259171E-2	2.411128E-2	1.840561E-2	2.967702E-2	2.585913E-2	1.751293E-2	2.864078E-2	2.558752E-2	3.283052E-2	1.150526E-2	1.983786E-2	1.338029E-2	2.204002E-2	2.439706E-2	2.689150E-2	1.574536E-2	2.965322E-2	2.967364E-2	2.326531E-2	2.627266E-2	2.882560E-2	3.245245E-2	3.101161E-2	2.200040E-2	3.386294E-2	1.818666E-2	2.439178E-2	2.455260E-2	2.736660E-2	2.864159E-2	1.893838E-2	2.384388E-2	2.940221E-2	2.628291E-2	1.599726E-2	2.955652E-2	2.026866E-2	3.348603E-2	2.440419E-2	2.870181E-2	2.736055E-2	2.681241E-2	1.374701E-2	2.719976E-2	4.411642E-2	2.112080E-2	2.574415E-2	2.627216E-2	3.021285E-2	2.248710E-2	3.099539E-2	2.378544E-2	2.903659E-2	1.502413E-2	3.117289E-2	1.419170E-2	3.246777E-2	9.813240E-3	2.635103E-2	2.691293E-2	1.829952E-2	2.642750E-2	1.271884E-2	2.733344E-2	3.619399E-2	2.127681E-2	2.531699E-2	2.837406E-2	2.926931E-2	1.411265E-2	2.217771E-2	2.422530E-2	2.360197E-2	4.091748E-2	1.669736E-2	2.452557E-2	2.735013E-2	2.938093E-2	2.683080E-2	2.399269E-2	2.579534E-2	1.175219E-2	2.588857E-2	1.444852E-2	3.040639E-2	2.668886E-2	2.964430E-2	3.321544E-2	2.798837E-2	2.253969E-2	1.554165E-2	2.174777E-2	2.116572E-2	2.758593E-2	2.654762E-2	3.500971E-2	3.743761E-2	1.270201E-2	1.858084E-2	2.398166E-2	3.088277E-2	2.112939E-2	3.563915E-2	2.497750E-2	2.021013E-2	2.274283E-2	3.712949E-2	3.265811E-2	2.534383E-2	3.335508E-2	2.480623E-2	2.271514E-2	3.504755E-2	2.095350E-2	2.365041E-2	3.370479E-2	3.547038E-2	3.950780E-2	1.925870E-2	2.982227E-2	2.282069E-2	2.466835E-2	1.031921E-2	2.883473E-2	2.561804E-2	1.751150E-2	2.023023E-2	2.334240E-2	1.983156E-2	2.600161E-2	3.344136E-2	2.793262E-2	2.300768E-2	2.193487E-2	2.317578E-2	1.666298E-2	2.439732E-2	2.782684E-2	2.959896E-2	3.248989E-2	2.696475E-2	2.536581E-2	2.879687E-2	2.402843E-2	1.992380E-2	2.304116E-2	3.827981E-2	1.186751E-2
2.842040E+2	3.570917E-2	3.411738E-2	3.820931E-2	3.375992E-2	3.354767E-2	3.010712E-2	4.314072E-2	3.859217E-2	3.626045E-2	1.993786E-2	2.166619E-2	3.518039E-2	2.722312E-2	4.711111E-2	3.943404E-2	3.372104E-2	3.680579E-2	3.001262E-2	3.160717E-2	3.227753E-2	4.433890E-2	3.458543E-2	3.511533E-2	4.389763E-2	2.941978E-2	2.379956E-2	4.289014E-2	3.706384E-2	1.893252E-2	3.756697E-2	2.089864E-2	4.082274E-2	3.184897E-2	3.184744E-2	3.916537E-2	4.232608E-2	3.711937E-2	3.219872E-2	3.221821E-2	4.714904E-2	2.824619E-2	3.370795E-2	3.193139E-2	3.207778E-2	3.310404E-2	2.970405E-2	4.036281E-2	5.141132E-2	3.529611E-2	4.349969E-2	3.269062E-2	4.097729E-2	3.442862E-2	3.460448E-2	2.513622E-2	3.667624E-2	3.990295E-2	3.336649E-2	3.940042E-2	4.699218E-2	3.776831E-2	3.057955E-2	4.084168E-2	2.801097E-2	3.997541E-2	3.201547E-2	2.514379E-2	3.967158E-2	3.940005E-2	3.730678E-2	3.928806E-2	3.164097E-2	4.424421E-2	3.175022E-2	4.226057E-2	3.932664E-2	4.323716E-2	2.705566E-2	4.357700E-2	3.108418E-2	3.794516E-2	3.157365E-2	3.748486E-2	4.765635E-2	3.681867E-2	3.512790E-2	3.474031E-2	5.329285E-2	4.466323E-2	3.647220E-2	3.760631E-2	3.795535E-2	3.785971E-2	3.929975E-2	3.046765E-2	3.943190E-2	5.221956E-2	2.275081E-2	3.459132E-2	4.747638E-2	3.507300E-2	2.887289E-2	2.987951E-2	4.075304E-2	3.947055E-2	2.588859E-2	3.310250E-2	3.852922E-2	4.407622E-2	2.226430E-2	4.478276E-2	2.727830E-2	4.934317E-2	2.674277E-2	3.039108E-2	4.026126E-2	4.320700E-2	3.384021E-2	3.622904E-2	2.423672E-2	5.453071E-2	4.923203E-2	3.684183E-2	4.030553E-2	4.034286E-2	2.702778E-2	3.169723E-2	3.606352E-2	4.099796E-2	3.712949E-2	3.418855E-2	3.072805E-2	4.308516E-2	3.138719E-2	3.354132E-2	4.595917E-2	3.210919E-2	4.865052E-2	3.728677E-2	4.321871E-2	5.131399E-2	2.780594E-2	3.799314E-2	4.111992E-2	2.717135E-2	4.002134E-2	3.917017E-2	3.568580E-2	4.042521E-2	3.163068E-2	4.398963E-2	3.782066E-2	4.204990E-2	3.777467E-2	2.656779E-2	4.112548E-2	3.968852E-2	4.018967E-2	4.485173E-2	4.745138E-2	3.050214E-2	3.470251E-2	3.466432E-2	4.517814E-2	4.094961E-2	3.972520E-2	3.167679E-2	5.066477E-2	1.393102E-2	2.494584E-2	2.974327E-2
2.843030E+2	6.072677E-2	4.730848E-2	5.558112E-2	4.329517E-2	4.417921E-2	5.296832E-2	5.167137E-2	5.224243E-2	5.174029E-2	5.020105E-2	5.577203E-2	5.509196E-2	3.917313E-2	5.065694E-2	4.059305E-2	4.784450E-2	4.707331E-2	5.174969E-2	4.493822E-2	4.193616E-2	4.563704E-2	5.824603E-2	4.363904E-2	5.388480E-2	5.292910E-2	5.886052E-2	4.477769E-2	7.467958E-2	5.087372E-2	6.243272E-2	5.430697E-2	6.146929E-2	4.984526E-2	3.184744E-2	4.052248E-2	6.333677E-2	4.515454E-2	3.883285E-2	4.484744E-2	5.387822E-2	4.965827E-2	4.623915E-2	4.702145E-2	6.947756E-2	4.808958E-2	4.800947E-2	4.281104E-2	6.237908E-2	4.868619E-2	5.819816E-2	6.006373E-2	5.939179E-2	4.857464E-2	3.869134E-2	4.646004E-2	4.904208E-2	4.922198E-2	5.149087E-2	6.049449E-2	5.563799E-2	6.132158E-2	5.733957E-2	4.595320E-2	6.248094E-2	5.226093E-2	5.759130E-2	4.844440E-2	5.596919E-2	5.627322E-2	5.465066E-2	5.762865E-2	6.163066E-2	4.812934E-2	4.231847E-2	5.017848E-2	5.594916E-2	5.734371E-2	4.352486E-2	4.297734E-2	5.529553E-2	5.289032E-2	4.947986E-2	5.299028E-2	6.798045E-2	5.280506E-2	4.073019E-2	4.461613E-2	6.697198E-2	5.557694E-2	4.204977E-2	4.683844E-2	6.164453E-2	6.084075E-2	4.193390E-2	5.266274E-2	5.394264E-2	5.830535E-2	5.226121E-2	5.007709E-2	5.897715E-2	6.495650E-2	4.861310E-2	6.389196E-2	4.725643E-2	4.995861E-2	5.084142E-2	5.575369E-2	6.695908E-2	8.111876E-2	5.245513E-2	5.756765E-2	4.716114E-2	4.069693E-2	5.138534E-2	5.055878E-2	7.310550E-2	5.336073E-2	4.842536E-2	3.561936E-2	6.017238E-2	6.205996E-2	4.574891E-2	4.496398E-2	6.429075E-2	4.558294E-2	4.027595E-2	6.260762E-2	4.254901E-2	5.286375E-2	4.156839E-2	6.326620E-2	4.688044E-2	6.928156E-2	4.849784E-2	5.654683E-2	5.978061E-2	4.724913E-2	4.497401E-2	5.949499E-2	6.474203E-2	5.446222E-2	4.292794E-2	5.161126E-2	6.893472E-2	5.720723E-2	3.923975E-2	6.205581E-2	6.511474E-2	5.264590E-2	4.034875E-2	5.173235E-2	5.652942E-2	6.692472E-2	5.582995E-2	4.362756E-2	5.430213E-2	3.646052E-2	4.971743E-2	5.220534E-2	5.094435E-2	3.674441E-2	4.782590E-2	4.191252E-2	5.511268E-2	3.705368E-2	4.761784E-2	7.339488E-2	6.454784E-2	5.948188E-2	4.494696E-2	4.463978E-2
2.844010E+2	7.573739E-2	7.105245E-2	8.618853E-2	8.837096E-2	7.683299E-2	7.188792E-2	1.092535E-1	1.092524E-1	7.707100E-2	1.006397E-1	7.850936E-2	7.959858E-2	8.005493E-2	8.469714E-2	7.246374E-2	8.443711E-2	7.274218E-2	7.348678E-2	8.893090E-2	7.685585E-2	7.224928E-2	8.937839E-2	6.750546E-2	9.449916E-2	7.719674E-2	6.695151E-2	7.434986E-2	8.428361E-2	7.784627E-2	8.602336E-2	6.720149E-2	9.610226E-2	7.723102E-2	7.238002E-2	8.666427E-2	8.072491E-2	7.729521E-2	9.455907E-2	8.163686E-2	7.944911E-2	8.891386E-2	7.756698E-2	6.839903E-2	1.076903E-1	7.415148E-2	8.004400E-2	8.626867E-2	8.723937E-2	9.406365E-2	7.877591E-2	7.929901E-2	9.862273E-2	7.622355E-2	8.296509E-2	8.716911E-2	9.414100E-2	7.502849E-2	8.471887E-2	9.424499E-2	9.257928E-2	9.629456E-2	5.596724E-2	1.060136E-1	9.109756E-2	1.031580E-1	7.878269E-2	8.476596E-2	9.300943E-2	8.791050E-2	7.584874E-2	6.946128E-2	8.876423E-2	7.687968E-2	7.100365E-2	7.657163E-2	8.365329E-2	9.261007E-2	8.058069E-2	7.716027E-2	8.365742E-2	7.223100E-2	8.678441E-2	7.906774E-2	7.174408E-2	8.158065E-2	7.644449E-2	7.918158E-2	9.433017E-2	9.143619E-2	8.945923E-2	7.169426E-2	9.954720E-2	7.386335E-2	8.078783E-2	1.005209E-1	7.834708E-2	9.308099E-2	6.512479E-2	6.711142E-2	7.910340E-2	8.772483E-2	8.605142E-2	8.024423E-2	7.717192E-2	8.591764E-2	7.009072E-2	7.174285E-2	1.010749E-1	1.068217E-1	8.063324E-2	8.313759E-2	7.201471E-2	8.219892E-2	7.005401E-2	7.072646E-2	7.921594E-2	8.225986E-2	7.361802E-2	8.256318E-2	8.217379E-2	1.022156E-1	7.291709E-2	8.422135E-2	1.122612E-1	9.711021E-2	7.472141E-2	8.747034E-2	8.578570E-2	7.750819E-2	8.151850E-2	8.086582E-2	9.303002E-2	1.014655E-1	9.982958E-2	7.481596E-2	8.887831E-2	6.398267E-2	7.879768E-2	7.239003E-2	9.143087E-2	8.122274E-2	8.500670E-2	7.952838E-2	1.062652E-1	6.805350E-2	6.425206E-2	8.641806E-2	8.989697E-2	8.778020E-2	8.058570E-2	6.786301E-2	8.890987E-2	9.821896E-2	9.771812E-2	8.798304E-2	9.877328E-2	8.407268E-2	9.055077E-2	7.610443E-2	9.775100E-2	7.776568E-2	8.646692E-2	8.540157E-2	9.319518E-2	6.744202E-2	6.583169E-2	1.012069E-1	9.628048E-2	7.770225E-2	9.994999E-2	5.059837E-2
2.845030E+2	1.182673E-1	1.141434E-1	1.300316E-1	1.343136E-1	1.110055E-1	1.176104E-1	1.092535E-1	1.485974E-1	1.122526E-1	1.146074E-1	1.227206E-1	1.500551E-1	1.291130E-1	1.244107E-1	1.130267E-1	1.319430E-1	1.182128E-1	1.141562E-1	1.135932E-1	1.206913E-1	1.053522E-1	1.223788E-1	1.175112E-1	1.257922E-1	1.295237E-1	9.594425E-2	1.058096E-1	1.058926E-1	1.211443E-1	1.134394E-1	1.129184E-1	1.227430E-1	1.155711E-1	1.099101E-1	1.219492E-1	9.811300E-2	1.255060E-1	9.721274E-2	1.003061E-1	1.393387E-1	9.819246E-2	1.165529E-1	1.168129E-1	1.304554E-1	1.125927E-1	1.042333E-1	1.150363E-1	1.120996E-1	1.096854E-1	1.059680E-1	1.103713E-1	1.274455E-1	1.083736E-1	1.177030E-1	1.162471E-1	1.174180E-1	1.037023E-1	9.982260E-2	1.202609E-1	1.515282E-1	1.291263E-1	1.005672E-1	9.067909E-2	1.210149E-1	1.224638E-1	1.021664E-1	1.114932E-1	1.263454E-1	1.244691E-1	1.182449E-1	1.008178E-1	1.280366E-1	1.064071E-1	1.125216E-1	1.049440E-1	1.351038E-1	1.325788E-1	8.607044E-2	1.167405E-1	1.286214E-1	1.205828E-1	1.106593E-1	1.157171E-1	1.425019E-1	1.375329E-1	1.205624E-1	1.125124E-1	1.257920E-1	1.265159E-1	1.173472E-1	1.256669E-1	1.224469E-1	1.343802E-1	1.123977E-1	1.178608E-1	1.377093E-1	1.252485E-1	1.150655E-1	1.151173E-1	1.092928E-1	1.154738E-1	1.064723E-1	1.129486E-1	1.103391E-1	1.286189E-1	1.107283E-1	1.257061E-1	1.156959E-1	1.189172E-1	1.403441E-1	1.294067E-1	1.110704E-1	1.150547E-1	1.245663E-1	1.146631E-1	1.303920E-1	1.345907E-1	1.319588E-1	1.045109E-1	1.305769E-1	1.248032E-1	1.230736E-1	1.194176E-1	1.422427E-1	1.416505E-1	1.071796E-1	1.143490E-1	1.455965E-1	1.185822E-1	1.170296E-1	1.191259E-1	1.230274E-1	1.284104E-1	1.215467E-1	1.357130E-1	1.128840E-1	1.333074E-1	1.280624E-1	1.246868E-1	1.284509E-1	1.331695E-1	1.165658E-1	1.224255E-1	1.231005E-1	1.272910E-1	9.786236E-2	1.048743E-1	1.224237E-1	1.374266E-1	1.074103E-1	1.110932E-1	1.112164E-1	1.030334E-1	1.150512E-1	1.152788E-1	1.201853E-1	1.332987E-1	1.191342E-1	1.177747E-1	1.222020E-1	1.134363E-1	1.200045E-1	1.136694E-1	1.387284E-1	1.188684E-1	1.150090E-1	1.318004E-1	1.280132E-1	1.453779E-1	1.266181E-1	1.161429E-1
2.846060E+2	2.308466E-1	2.355017E-1	2.425347E-1	2.452697E-1	2.279518E-1	1.972307E-1	1.888733E-1	2.361192E-1	2.297592E-1	1.922051E-1	2.155647E-1	2.419546E-1	2.310028E-1	2.244040E-1	1.877781E-1	2.173259E-1	2.421569E-1	1.849770E-1	2.155762E-1	2.143058E-1	2.228356E-1	1.927381E-1	1.925197E-1	2.429746E-1	2.493453E-1	1.903390E-1	1.920092E-1	2.155386E-1	2.474893E-1	1.854863E-1	1.855961E-1	2.233121E-1	2.235491E-1	1.999823E-1	2.155900E-1	1.915742E-1	2.239368E-1	1.867730E-1	2.040858E-1	2.214345E-1	1.981156E-1	2.181946E-1	1.947782E-1	2.442808E-1	2.187948E-1	2.042593E-1	1.988911E-1	2.342073E-1	2.160617E-1	1.985678E-1	1.865723E-1	2.003028E-1	2.170407E-1	2.021639E-1	1.963727E-1	2.490777E-1	1.983261E-1	2.070583E-1	2.039340E-1	2.403446E-1	2.040681E-1	2.165271E-1	2.133559E-1	2.361317E-1	2.295231E-1	2.139697E-1	2.142898E-1	2.004261E-1	2.404719E-1	2.184540E-1	2.138198E-1	2.451396E-1	2.136380E-1	1.910284E-1	2.065573E-1	2.609598E-1	2.195688E-1	1.890031E-1	2.270856E-1	2.358432E-1	2.331104E-1	2.054130E-1	2.200269E-1	2.155174E-1	2.190637E-1	2.193019E-1	2.088019E-1	2.359088E-1	1.904386E-1	1.877644E-1	2.201189E-1	2.361548E-1	2.385613E-1	2.032764E-1	1.997051E-1	2.445615E-1	2.121874E-1	1.831660E-1	2.196461E-1	2.372384E-1	2.157969E-1	2.167453E-1	2.326466E-1	2.345534E-1	2.215127E-1	1.920031E-1	2.156448E-1	2.659678E-1	2.179495E-1	1.859658E-1	2.091604E-1	2.296575E-1	2.179452E-1	1.940134E-1	2.119000E-1	2.258691E-1	2.275361E-1	2.035590E-1	2.136402E-1	2.281163E-1	2.469429E-1	2.150272E-1	2.189147E-1	2.510324E-1	2.185044E-1	2.131658E-1	2.453826E-1	2.277459E-1	2.481937E-1	1.998888E-1	2.270193E-1	2.345558E-1	2.399319E-1	2.156550E-1	2.202921E-1	2.372767E-1	2.074130E-1	2.236506E-1	2.178180E-1	2.575903E-1	2.339145E-1	1.994082E-1	2.102622E-1	2.065448E-1	2.499375E-1	2.158892E-1	2.207795E-1	1.944469E-1	2.168610E-1	2.120266E-1	2.001344E-1	2.364207E-1	2.137666E-1	2.046052E-1	1.998954E-1	2.288923E-1	2.357858E-1	2.076064E-1	2.115330E-1	1.962544E-1	2.240148E-1	2.169718E-1	2.093452E-1	2.223442E-1	2.295129E-1	1.902930E-1	2.263609E-1	2.579185E-1	2.078477E-1	1.849546E-1	2.293559E-1
2.847000E+2	4.585066E-1	4.395246E-1	4.435508E-1	4.845180E-1	4.519721E-1	3.950978E-1	3.978752E-1	4.505091E-1	4.725117E-1	4.087034E-1	4.265161E-1	4.931470E-1	4.593121E-1	4.172982E-1	4.531747E-1	4.574242E-1	4.761101E-1	4.381086E-1	3.915467E-1	4.260533E-1	4.591008E-1	4.442872E-1	3.726542E-1	4.633576E-1	4.912639E-1	4.027280E-1	3.883179E-1	4.676443E-1	4.405563E-1	3.856877E-1	3.983554E-1	5.050375E-1	4.543719E-1	4.236623E-1	4.449417E-1	4.103745E-1	4.422252E-1	4.017171E-1	4.226255E-1	4.576287E-1	4.372178E-1	4.569827E-1	3.884339E-1	5.597396E-1	4.761562E-1	4.101950E-1	4.033256E-1	4.725732E-1	4.779119E-1	4.227187E-1	4.025986E-1	4.549036E-1	4.665245E-1	4.139970E-1	4.406270E-1	4.694804E-1	4.485058E-1	4.441859E-1	4.619844E-1	4.871440E-1	5.173972E-1	4.024750E-1	4.242071E-1	4.501054E-1	5.182327E-1	3.922692E-1	4.185131E-1	4.352604E-1	4.317017E-1	4.047402E-1	4.161579E-1	4.579239E-1	4.397569E-1	4.084316E-1	4.302388E-1	4.770519E-1	4.797561E-1	3.633027E-1	4.003990E-1	4.696559E-1	4.405844E-1	4.165568E-1	3.983397E-1	4.759660E-1	4.748462E-1	4.244848E-1	4.303910E-1	4.787126E-1	4.562648E-1	3.983182E-1	4.324588E-1	5.006844E-1	4.997795E-1	3.962280E-1	4.098650E-1	4.292441E-1	4.895229E-1	4.131962E-1	4.418671E-1	3.831539E-1	4.968435E-1	4.406942E-1	4.380302E-1	4.647731E-1	4.529989E-1	4.650587E-1	4.248356E-1	4.479193E-1	4.666637E-1	4.120611E-1	4.539010E-1	4.483689E-1	4.341016E-1	4.292386E-1	4.567942E-1	4.626531E-1	4.743493E-1	4.004597E-1	4.404335E-1	4.488642E-1	4.828574E-1	4.219224E-1	4.212925E-1	4.583336E-1	5.040879E-1	4.423599E-1	4.274853E-1	4.367226E-1	5.037649E-1	3.988998E-1	4.359188E-1	4.145398E-1	4.292945E-1	4.433577E-1	4.496711E-1	4.918816E-1	4.520420E-1	4.317397E-1	4.112440E-1	4.909028E-1	4.676758E-1	4.117741E-1	4.376854E-1	4.656623E-1	4.226442E-1	4.331839E-1	4.119857E-1	4.616311E-1	4.123910E-1	4.138816E-1	4.537083E-1	4.602056E-1	4.231974E-1	4.277688E-1	4.332736E-1	5.006601E-1	4.536716E-1	4.355919E-1	4.296895E-1	4.456558E-1	4.549829E-1	4.568378E-1	4.347633E-1	4.326263E-1	4.274266E-1	4.288945E-1	4.989191E-1	4.840138E-1	4.629329E-1	4.583023E-1	3.872587E-1
2.848020E+2	8.170932E-1	8.229462E-1	9.167253E-1	9.482783E-1	8.817879E-1	7.813737E-1	8.279643E-1	9.684169E-1	8.665446E-1	8.750671E-1	8.061015E-1	9.763868E-1	9.140436E-1	8.442190E-1	8.066506E-1	8.580163E-1	9.352170E-1	7.802920E-1	7.634843E-1	8.829819E-1	9.141054E-1	7.686862E-1	7.346283E-1	8.169024E-1	9.098805E-1	8.227848E-1	8.174288E-1	9.070278E-1	9.459365E-1	8.007550E-1	7.851897E-1	8.780080E-1	9.136700E-1	7.771966E-1	7.903266E-1	8.153726E-1	8.868377E-1	8.117025E-1	7.619670E-1	8.882954E-1	7.855216E-1	7.772240E-1	7.826611E-1	1.045937E+0	9.361482E-1	7.691121E-1	8.244355E-1	9.427239E-1	9.220159E-1	8.166372E-1	8.701624E-1	9.240729E-1	8.716144E-1	8.363002E-1	8.761494E-1	9.750257E-1	8.449219E-1	8.255528E-1	8.409744E-1	9.139346E-1	8.906804E-1	7.901512E-1	8.088495E-1	8.390317E-1	9.543687E-1	8.219435E-1	7.769310E-1	8.212194E-1	8.500165E-1	7.651080E-1	8.007185E-1	8.906327E-1	8.407073E-1	7.511438E-1	8.492295E-1	9.781005E-1	8.253662E-1	7.702306E-1	8.357821E-1	9.068438E-1	8.731130E-1	7.821414E-1	8.317885E-1	8.914801E-1	8.369386E-1	8.229455E-1	8.439416E-1	9.089201E-1	8.475983E-1	7.971155E-1	8.287317E-1	9.302486E-1	9.394838E-1	7.992549E-1	7.851008E-1	8.408211E-1	9.250881E-1	7.756458E-1	8.584343E-1	8.776849E-1	8.767903E-1	8.293724E-1	8.363691E-1	8.946454E-1	8.680264E-1	8.086946E-1	8.185680E-1	8.857391E-1	8.680831E-1	7.870986E-1	8.155318E-1	8.304042E-1	8.197250E-1	8.220260E-1	8.414196E-1	8.361607E-1	8.937763E-1	8.651974E-1	8.300061E-1	9.042939E-1	8.442581E-1	8.468600E-1	8.355252E-1	9.003469E-1	9.259116E-1	8.172849E-1	8.481360E-1	8.654863E-1	1.012170E+0	8.279932E-1	8.483629E-1	8.229639E-1	9.187914E-1	8.079449E-1	8.515918E-1	8.868828E-1	8.321339E-1	7.927693E-1	7.794702E-1	9.394474E-1	8.942700E-1	7.891683E-1	8.462286E-1	8.133478E-1	8.264600E-1	8.318184E-1	8.313101E-1	8.488536E-1	8.446971E-1	8.162511E-1	8.111635E-1	9.048976E-1	7.818769E-1	8.343737E-1	8.454385E-1	9.783133E-1	8.789529E-1	7.738279E-1	8.280080E-1	8.620258E-1	8.839221E-1	7.827352E-1	8.138428E-1	8.126235E-1	8.365007E-1	7.877070E-1	8.688195E-1	9.064554E-1	7.895980E-1	8.783256E-1	8.132966E-1
2.849010E+2	1.023071E+0	1.084131E+0	1.061491E+0	1.096508E+0	1.000253E+0	9.689928E-1	9.800951E-1	1.145068E+0	1.038934E+0	1.041903E+0	9.242089E-1	1.121895E+0	1.063105E+0	9.768340E-1	1.005408E+0	1.103893E+0	1.152302E+0	9.990657E-1	9.647837E-1	9.832825E-1	1.101689E+0	9.361783E-1	9.176040E-1	1.075236E+0	1.081271E+0	9.347105E-1	9.250216E-1	1.105511E+0	1.137583E+0	9.684392E-1	9.827099E-1	1.041182E+0	1.090503E+0	9.438301E-1	9.077166E-1	9.878047E-1	1.036828E+0	9.888323E-1	9.332850E-1	1.085460E+0	9.867961E-1	9.032319E-1	9.618553E-1	1.128054E+0	1.069715E+0	9.613188E-1	1.008059E+0	1.164272E+0	1.096087E+0	9.011529E-1	1.044759E+0	1.072190E+0	1.063228E+0	9.868314E-1	1.019601E+0	1.102321E+0	1.026284E+0	9.879173E-1	1.016758E+0	1.153660E+0	1.084101E+0	9.651206E-1	1.024174E+0	1.053656E+0	1.132508E+0	9.476306E-1	1.032553E+0	9.723436E-1	1.015936E+0	8.948657E-1	9.367937E-1	1.064146E+0	9.471607E-1	9.330686E-1	1.017485E+0	1.145117E+0	1.058908E+0	8.978679E-1	9.665169E-1	1.072864E+0	1.081465E+0	1.024621E+0	9.607666E-1	1.078913E+0	1.051956E+0	9.707044E-1	1.031582E+0	1.144884E+0	1.046384E+0	9.260971E-1	9.785766E-1	1.149768E+0	1.121800E+0	9.540123E-1	9.654357E-1	1.090803E+0	1.124178E+0	9.368170E-1	1.021808E+0	1.030070E+0	1.026207E+0	9.859324E-1	9.900799E-1	1.060481E+0	1.065800E+0	9.676797E-1	9.737956E-1	1.126174E+0	1.074463E+0	9.581800E-1	9.780831E-1	1.031363E+0	1.013402E+0	9.773488E-1	9.530621E-1	9.782310E-1	1.032023E+0	9.779013E-1	9.964438E-1	1.078105E+0	1.081845E+0	9.757345E-1	9.864633E-1	1.159901E+0	1.123287E+0	9.948109E-1	1.023519E+0	1.027623E+0	1.124439E+0	9.863137E-1	1.027420E+0	9.998715E-1	1.057258E+0	1.046835E+0	1.064731E+0	1.104389E+0	9.843291E-1	1.001594E+0	1.010149E+0	1.098721E+0	1.127244E+0	9.371009E-1	1.015775E+0	1.072465E+0	1.065077E+0	9.881451E-1	9.848660E-1	1.032398E+0	9.775961E-1	9.517156E-1	9.621467E-1	1.018589E+0	9.142755E-1	9.672596E-1	9.539381E-1	1.151257E+0	1.091189E+0	9.596198E-1	9.812076E-1	1.025500E+0	1.058708E+0	9.832309E-1	9.602559E-1	9.765429E-1	1.043765E+0	9.024541E-1	9.703340E-1	1.141474E+0	9.262508E-1	9.883330E-1	9.503450E-1
2.850030E+2	9.163300E-1	9.794808E-1	1.015166E+0	9.794854E-1	9.767126E-1	8.980441E-1	9.182477E-1	1.064772E+0	9.502766E-1	9.472339E-1	9.159989E-1	1.031527E+0	9.643596E-1	1.017257E+0	9.381901E-1	9.472514E-1	1.037158E+0	9.387621E-1	8.854635E-1	9.706519E-1	1.004327E+0	8.844984E-1	8.994198E-1	9.567222E-1	1.006951E+0	8.915580E-1	8.583263E-1	1.025477E+0	1.016917E+0	8.721643E-1	8.871735E-1	1.002553E+0	1.013824E+0	9.130553E-1	9.280731E-1	9.052112E-1	9.859385E-1	8.946284E-1	8.470771E-1	9.596253E-1	9.247003E-1	9.039280E-1	8.838903E-1	1.083336E+0	9.856660E-1	8.926737E-1	9.156353E-1	1.083111E+0	1.043270E+0	8.776349E-1	8.953164E-1	1.029757E+0	9.738516E-1	9.779766E-1	9.368903E-1	1.077590E+0	8.900831E-1	9.025813E-1	1.009726E+0	1.082922E+0	9.877484E-1	8.615109E-1	9.551676E-1	9.847162E-1	1.000877E+0	8.716340E-1	9.359234E-1	8.619640E-1	9.252423E-1	8.017229E-1	8.930133E-1	9.677498E-1	9.432764E-1	8.477674E-1	8.749623E-1	1.055672E+0	9.758360E-1	8.752222E-1	9.209397E-1	1.050037E+0	1.017289E+0	9.268829E-1	9.537185E-1	9.607324E-1	9.288603E-1	9.447947E-1	9.217133E-1	1.059390E+0	9.154195E-1	9.009980E-1	9.111105E-1	9.815746E-1	1.030642E+0	8.874997E-1	9.203516E-1	9.628434E-1	1.014635E+0	9.163874E-1	9.265718E-1	9.466894E-1	9.671523E-1	9.239889E-1	1.015589E+0	9.479727E-1	9.339504E-1	9.077926E-1	9.358207E-1	1.065253E+0	9.905503E-1	8.796843E-1	8.703241E-1	9.603528E-1	9.208863E-1	8.922197E-1	9.141677E-1	9.324018E-1	1.039053E+0	9.295050E-1	9.293813E-1	1.022368E+0	1.014919E+0	9.032865E-1	9.208086E-1	1.033123E+0	1.022853E+0	9.524171E-1	9.556505E-1	9.807836E-1	1.061459E+0	8.723816E-1	8.981010E-1	9.137264E-1	9.831599E-1	9.698373E-1	9.957145E-1	1.057832E+0	9.341285E-1	9.361518E-1	9.163012E-1	1.058256E+0	1.002886E+0	9.200073E-1	9.408747E-1	9.707209E-1	8.965431E-1	9.107635E-1	9.833895E-1	9.417873E-1	9.126734E-1	8.752656E-1	8.589106E-1	9.797325E-1	8.203929E-1	8.943165E-1	9.375615E-1	1.079609E+0	9.951577E-1	8.731894E-1	8.862240E-1	9.556385E-1	9.454542E-1	8.913674E-1	9.058945E-1	9.690920E-1	9.027306E-1	8.769552E-1	9.237491E-1	1.007603E+0	9.587860E-1	8.399904E-1	9.116154E-1
2.851000E+2	6.870012E-1	7.640257E-1	8.100132E-1	8.520593E-1	7.625634E-1	7.096361E-1	7.483449E-1	8.808942E-1	7.982926E-1	8.254043E-1	7.328372E-1	8.975059E-1	8.190719E-1	8.938612E-1	7.747798E-1	7.533747E-1	8.714109E-1	8.896791E-1	7.208247E-1	7.871386E-1	8.141473E-1	7.817623E-1	7.340603E-1	8.282210E-1	8.385950E-1	7.830038E-1	6.733433E-1	8.021846E-1	8.281089E-1	8.613251E-1	7.300954E-1	8.353829E-1	8.526390E-1	8.860335E-1	7.272206E-1	7.559627E-1	8.105038E-1	7.752154E-1	6.999192E-1	8.573411E-1	7.655370E-1	8.210831E-1	7.795171E-1	9.280464E-1	8.742508E-1	8.495248E-1	6.958990E-1	8.286592E-1	8.178707E-1	8.386851E-1	7.799046E-1	8.448106E-1	8.176025E-1	8.342565E-1	8.289791E-1	8.331820E-1	7.646350E-1	7.311553E-1	7.573009E-1	8.856393E-1	8.492836E-1	7.860347E-1	7.730686E-1	8.312268E-1	9.175120E-1	8.540957E-1	7.783018E-1	7.626961E-1	7.712749E-1	7.484062E-1	7.563466E-1	8.063763E-1	7.816529E-1	7.685062E-1	7.363993E-1	8.213739E-1	7.822630E-1	7.215096E-1	7.632184E-1	7.920133E-1	8.282778E-1	8.201919E-1	7.880919E-1	7.928710E-1	7.777884E-1	8.054380E-1	7.723416E-1	8.555716E-1	8.203143E-1	7.329730E-1	7.598457E-1	9.278792E-1	8.092572E-1	7.544742E-1	7.414035E-1	7.933319E-1	8.737928E-1	8.187756E-1	7.717134E-1	8.129931E-1	8.013703E-1	8.055481E-1	7.506834E-1	8.075004E-1	7.713859E-1	6.960504E-1	7.999141E-1	8.158819E-1	8.060941E-1	7.515407E-1	7.449103E-1	8.154916E-1	7.514202E-1	7.242027E-1	7.506655E-1	7.582511E-1	8.586290E-1	7.412229E-1	7.726983E-1	8.368229E-1	8.517871E-1	7.751084E-1	7.624248E-1	8.952076E-1	8.988383E-1	7.662797E-1	7.916909E-1	8.092791E-1	8.150148E-1	7.251588E-1	8.330594E-1	7.891211E-1	7.893064E-1	7.974149E-1	8.231732E-1	8.279602E-1	7.835267E-1	7.493867E-1	7.887839E-1	8.309708E-1	8.659355E-1	7.569515E-1	7.876705E-1	8.184720E-1	7.455293E-1	7.630345E-1	7.375525E-1	7.698601E-1	7.408211E-1	6.854817E-1	7.221227E-1	8.574060E-1	7.200902E-1	7.289305E-1	7.567274E-1	8.786649E-1	8.168140E-1	7.343562E-1	7.642769E-1	8.375741E-1	7.786935E-1	7.550305E-1	7.602063E-1	7.397700E-1	7.772824E-1	6.857102E-1	7.749542E-1	8.786889E-1	7.232236E-1	7.699863E-1	7.745662E-1
2.852010E+2	5.418990E-1	5.740741E-1	6.222325E-1	5.252592E-1	5.582872E-1	5.346304E-1	5.677777E-1	6.255546E-1	5.822773E-1	5.941627E-1	4.751483E-1	6.241046E-1	5.668629E-1	6.491968E-1	5.563202E-1	5.755478E-1	6.359905E-1	5.804510E-1	5.308564E-1	5.642462E-1	5.707422E-1	5.551188E-1	4.931232E-1	5.372623E-1	6.019850E-1	5.436457E-1	5.015726E-1	5.916962E-1	5.647714E-1	6.088422E-1	5.103028E-1	5.303457E-1	5.467009E-1	6.173176E-1	5.100831E-1	5.255702E-1	5.419952E-1	5.921148E-1	4.780843E-1	5.612577E-1	5.378547E-1	5.203353E-1	4.657701E-1	6.125878E-1	5.999501E-1	5.782123E-1	5.147239E-1	5.727447E-1	5.947032E-1	6.071842E-1	5.453828E-1	5.878080E-1	5.726197E-1	6.019899E-1	5.285069E-1	5.945938E-1	5.345272E-1	5.446249E-1	5.463607E-1	6.066138E-1	6.201742E-1	5.829333E-1	5.219649E-1	5.717267E-1	5.954557E-1	5.881073E-1	4.952677E-1	5.471222E-1	5.526265E-1	5.325712E-1	5.262012E-1	5.686000E-1	5.368862E-1	5.178880E-1	5.410906E-1	6.029077E-1	5.628280E-1	5.245644E-1	5.485250E-1	5.990137E-1	5.847601E-1	6.120328E-1	5.315464E-1	5.534986E-1	5.284007E-1	5.148210E-1	5.476666E-1	5.949851E-1	5.583855E-1	5.816811E-1	4.892725E-1	5.851758E-1	5.771484E-1	6.326444E-1	5.111297E-1	5.657766E-1	5.868951E-1	6.258226E-1	5.556873E-1	5.067865E-1	5.822247E-1	5.639009E-1	5.407215E-1	5.538689E-1	5.548831E-1	5.434818E-1	5.374256E-1	5.860064E-1	5.898867E-1	6.213848E-1	5.300014E-1	5.236399E-1	5.240233E-1	5.868013E-1	5.295413E-1	5.741706E-1	5.641711E-1	5.635485E-1	5.355408E-1	5.750056E-1	6.033238E-1	5.689089E-1	5.255277E-1	6.270866E-1	6.123816E-1	5.516578E-1	5.699421E-1	5.613887E-1	5.904771E-1	5.616598E-1	5.705948E-1	4.891486E-1	5.535394E-1	5.730032E-1	5.559030E-1	5.886315E-1	5.795363E-1	5.427686E-1	5.409112E-1	5.683865E-1	5.999044E-1	5.662821E-1	5.405014E-1	5.674055E-1	5.252660E-1	5.746599E-1	5.537289E-1	5.530153E-1	5.315426E-1	5.205094E-1	5.711396E-1	5.523107E-1	4.954144E-1	5.490997E-1	5.513275E-1	6.077205E-1	5.835956E-1	5.587734E-1	5.216087E-1	5.825830E-1	5.486179E-1	5.428691E-1	5.369630E-1	5.452177E-1	5.443056E-1	5.466772E-1	5.350750E-1	5.782204E-1	5.254035E-1	5.016391E-1	4.974925E-1
2.853000E+2	3.175743E-1	3.401514E-1	3.600011E-1	3.588255E-1	3.631237E-1	3.533173E-1	3.111469E-1	4.135740E-1	3.627453E-1	3.978401E-1	3.380928E-1	4.112035E-1	3.492456E-1	3.917683E-1	3.245326E-1	3.367331E-1	4.225726E-1	3.595750E-1	3.275580E-1	3.302097E-1	3.760187E-1	3.683243E-1	3.038963E-1	3.827947E-1	3.630999E-1	3.305834E-1	3.178483E-1	3.676016E-1	4.043557E-1	3.640101E-1	3.256773E-1	3.431949E-1	3.862983E-1	3.778752E-1	3.411224E-1	3.444446E-1	3.350900E-1	3.592588E-1	3.161008E-1	3.728411E-1	3.615617E-1	3.254056E-1	3.349904E-1	4.028234E-1	3.699540E-1	3.833909E-1	3.445655E-1	3.914116E-1	4.161689E-1	3.705400E-1	3.441532E-1	3.620303E-1	3.732895E-1	3.717662E-1	3.559784E-1	3.720086E-1	3.352438E-1	3.490330E-1	3.396388E-1	3.857519E-1	3.532388E-1	3.667946E-1	3.366714E-1	3.954742E-1	4.296016E-1	3.900776E-1	3.335343E-1	3.552539E-1	3.360867E-1	3.841852E-1	3.629109E-1	3.579579E-1	3.628294E-1	3.706878E-1	3.312650E-1	3.986886E-1	3.802263E-1	3.941831E-1	3.566213E-1	3.562080E-1	3.755289E-1	3.949202E-1	3.511188E-1	4.134891E-1	3.669379E-1	3.789664E-1	3.563222E-1	3.993743E-1	3.471285E-1	3.557889E-1	3.252237E-1	3.917139E-1	3.940657E-1	3.982042E-1	3.113742E-1	3.929668E-1	4.217107E-1	3.677957E-1	3.737297E-1	3.299632E-1	3.687713E-1	3.848769E-1	3.660804E-1	3.561667E-1	3.735895E-1	3.787928E-1	3.255705E-1	3.748136E-1	3.714111E-1	4.207834E-1	3.491858E-1	3.972418E-1	3.943290E-1	3.769657E-1	3.617174E-1	3.816881E-1	3.603157E-1	3.600182E-1	3.502039E-1	4.283297E-1	4.251340E-1	3.397218E-1	3.360097E-1	4.052235E-1	4.062734E-1	3.920166E-1	3.663363E-1	3.596180E-1	3.723287E-1	4.114763E-1	3.509821E-1	3.645439E-1	3.828890E-1	4.097943E-1	3.752416E-1	3.718536E-1	3.349073E-1	3.648277E-1	3.417539E-1	3.712337E-1	3.834595E-1	3.677229E-1	3.362301E-1	3.734338E-1	3.600692E-1	3.948839E-1	3.204428E-1	3.377195E-1	3.673280E-1	3.964453E-1	3.259535E-1	4.033606E-1	3.196858E-1	3.519361E-1	3.418330E-1	4.133648E-1	3.536061E-1	3.933976E-1	3.267392E-1	3.653170E-1	3.907757E-1	3.861178E-1	3.506848E-1	3.755026E-1	3.549624E-1	3.827528E-1	3.424762E-1	4.106319E-1	3.718306E-1	3.399632E-1	2.889420E-1
2.854050E+2	2.466910E-1	2.706782E-1	2.805866E-1	2.764753E-1	2.613649E-1	2.382233E-1	2.414792E-1	3.083855E-1	2.677548E-1	3.047224E-1	2.193541E-1	2.879049E-1	2.825764E-1	3.116313E-1	2.642678E-1	2.821651E-1	2.854275E-1	2.754311E-1	2.435716E-1	2.707716E-1	2.578861E-1	2.556249E-1	2.334335E-1	2.629490E-1	2.978808E-1	2.692263E-1	2.366820E-1	2.779646E-1	3.092426E-1	2.543453E-1	2.459661E-1	2.705990E-1	2.861452E-1	2.855513E-1	2.719100E-1	2.335954E-1	3.042888E-1	2.836300E-1	2.315400E-1	2.577723E-1	2.687761E-1	2.690151E-1	2.494793E-1	3.150150E-1	3.034960E-1	3.036316E-1	2.625472E-1	3.139060E-1	3.045852E-1	3.161556E-1	2.598137E-1	3.035840E-1	2.434036E-1	2.709586E-1	2.855451E-1	2.876300E-1	2.628425E-1	2.667178E-1	2.412002E-1	2.977220E-1	2.897162E-1	2.810255E-1	2.651104E-1	2.666994E-1	2.979710E-1	3.001966E-1	2.540377E-1	2.626534E-1	2.510180E-1	2.685590E-1	2.599665E-1	2.758432E-1	2.672541E-1	2.627413E-1	2.534054E-1	3.060776E-1	2.689421E-1	2.686045E-1	2.450763E-1	3.043268E-1	2.744292E-1	3.068812E-1	2.566759E-1	2.426166E-1	2.862066E-1	2.893303E-1	2.273191E-1	2.742101E-1	2.489052E-1	2.491175E-1	2.620187E-1	2.930089E-1	3.059721E-1	2.717642E-1	2.413212E-1	2.966680E-1	2.782612E-1	2.807778E-1	2.560379E-1	2.523331E-1	2.527952E-1	2.739235E-1	2.803949E-1	3.015384E-1	2.522278E-1	2.583062E-1	2.776027E-1	2.594698E-1	2.723788E-1	2.966658E-1	2.304685E-1	2.495401E-1	2.758756E-1	2.813825E-1	2.738435E-1	2.801004E-1	2.868962E-1	2.599107E-1	2.746060E-1	3.036547E-1	2.636743E-1	3.007117E-1	2.602025E-1	3.229885E-1	3.075854E-1	2.880180E-1	2.621818E-1	2.666591E-1	3.157372E-1	2.938459E-1	2.912961E-1	2.437858E-1	2.908276E-1	2.840976E-1	2.581839E-1	2.889250E-1	2.647853E-1	2.773275E-1	2.837259E-1	2.730872E-1	2.827134E-1	2.835660E-1	2.769911E-1	2.768141E-1	2.899855E-1	3.034330E-1	2.510475E-1	2.912529E-1	2.657433E-1	2.596400E-1	2.627215E-1	3.134146E-1	2.346293E-1	2.732154E-1	2.776883E-1	3.178346E-1	2.817838E-1	2.967588E-1	2.740382E-1	2.891687E-1	2.873308E-1	2.687364E-1	2.564583E-1	2.844351E-1	2.552263E-1	2.686122E-1	2.639075E-1	3.203917E-1	2.507958E-1	2.816267E-1	2.293561E-1
2.855020E+2	2.358504E-1	2.056018E-1	2.102726E-1	2.331335E-1	2.393427E-1	2.263981E-1	2.173091E-1	2.698440E-1	2.128716E-1	2.535076E-1	2.263014E-1	3.024549E-1	2.523871E-1	2.626988E-1	2.248639E-1	2.288813E-1	2.597588E-1	2.691209E-1	2.389059E-1	2.284221E-1	2.384138E-1	2.201344E-1	2.089989E-1	2.249979E-1	2.288696E-1	2.085438E-1	2.247275E-1	2.403484E-1	2.340033E-1	2.358557E-1	2.301412E-1	2.353003E-1	2.736259E-1	2.502729E-1	2.264465E-1	2.495345E-1	2.279549E-1	2.212701E-1	2.106746E-1	2.436411E-1	2.245238E-1	2.265486E-1	2.167841E-1	2.646067E-1	2.474630E-1	2.487155E-1	2.166413E-1	2.649164E-1	2.651591E-1	2.235555E-1	2.420586E-1	2.643530E-1	2.260427E-1	2.532489E-1	2.215739E-1	2.454409E-1	2.205485E-1	2.357554E-1	2.573722E-1	2.316986E-1	2.461787E-1	2.515206E-1	2.267739E-1	2.699512E-1	2.198702E-1	2.665827E-1	2.369056E-1	2.307991E-1	2.207868E-1	2.396523E-1	2.274272E-1	2.322867E-1	2.330646E-1	2.355655E-1	2.072172E-1	2.625432E-1	2.399449E-1	2.425284E-1	2.204890E-1	2.572872E-1	2.322317E-1	2.643544E-1	2.305988E-1	2.636933E-1	2.390465E-1	2.144001E-1	2.118882E-1	2.434323E-1	1.919978E-1	2.275040E-1	2.137275E-1	2.495790E-1	2.393269E-1	2.394961E-1	2.073343E-1	2.175182E-1	2.643509E-1	2.293233E-1	2.428746E-1	2.401136E-1	2.634681E-1	2.392081E-1	2.346090E-1	2.247982E-1	2.252585E-1	2.604449E-1	2.316342E-1	2.529715E-1	2.421405E-1	2.557402E-1	2.213367E-1	2.218462E-1	2.257269E-1	2.410584E-1	2.255852E-1	2.411458E-1	2.697132E-1	2.479775E-1	2.221757E-1	2.310499E-1	2.544726E-1	2.233869E-1	2.216218E-1	2.484632E-1	2.543117E-1	2.747697E-1	2.144722E-1	2.695418E-1	2.819652E-1	2.723911E-1	2.186018E-1	2.537849E-1	2.444226E-1	2.393466E-1	2.439743E-1	2.394594E-1	2.050223E-1	2.155621E-1	2.156687E-1	2.773919E-1	2.480826E-1	2.388575E-1	2.150286E-1	2.519274E-1	2.265760E-1	2.698224E-1	2.311146E-1	2.378159E-1	2.336640E-1	2.314741E-1	2.227174E-1	2.428967E-1	2.290123E-1	2.255492E-1	2.401564E-1	2.733637E-1	2.559600E-1	2.879117E-1	2.378834E-1	2.472528E-1	2.516596E-1	2.621743E-1	2.434115E-1	2.297956E-1	2.334086E-1	2.461489E-1	2.291426E-1	2.648601E-1	2.221639E-1	2.032889E-1	2.353147E-1
2.856010E+2	1.891507E-1	2.240696E-1	2.466706E-1	2.305333E-1	2.211174E-1	1.988071E-1	2.002477E-1	2.385287E-1	2.100572E-1	2.341079E-1	1.827218E-1	2.519106E-1	2.228265E-1	2.442606E-1	2.051620E-1	2.359435E-1	2.443570E-1	2.039092E-1	2.269076E-1	2.083621E-1	2.079071E-1	2.493986E-1	2.004753E-1	2.289923E-1	2.190108E-1	2.078698E-1	2.027058E-1	2.355468E-1	2.389720E-1	2.435065E-1	1.885270E-1	2.246439E-1	2.454575E-1	2.465200E-1	2.189828E-1	2.002682E-1	2.031795E-1	2.172898E-1	2.084780E-1	2.517158E-1	2.173867E-1	2.105366E-1	2.029524E-1	2.426548E-1	2.240072E-1	2.487152E-1	2.007276E-1	2.583360E-1	2.339151E-1	2.500128E-1	2.087664E-1	2.203185E-1	2.350448E-1	2.082939E-1	2.235121E-1	2.396217E-1	2.105124E-1	2.176309E-1	2.341685E-1	2.348425E-1	2.183426E-1	2.343669E-1	2.197455E-1	2.309288E-1	2.321560E-1	2.315070E-1	2.231986E-1	2.352435E-1	2.327384E-1	2.229509E-1	1.842377E-1	2.244320E-1	2.128616E-1	2.174491E-1	1.940210E-1	2.585849E-1	2.336758E-1	2.226282E-1	1.941020E-1	2.240832E-1	2.216819E-1	2.427175E-1	2.150930E-1	2.132595E-1	2.270567E-1	2.214031E-1	1.958397E-1	2.359088E-1	2.465663E-1	2.393564E-1	2.052053E-1	2.598439E-1	2.485195E-1	2.539838E-1	1.997053E-1	2.175186E-1	2.174035E-1	2.179736E-1	2.250662E-1	2.113618E-1	2.392764E-1	2.194679E-1	2.228350E-1	2.273994E-1	2.230111E-1	2.098263E-1	2.223070E-1	2.188559E-1	2.194609E-1	2.315878E-1	2.304685E-1	2.282372E-1	2.257268E-1	2.320977E-1	2.263055E-1	2.006632E-1	2.330037E-1	2.207958E-1	2.124209E-1	2.369170E-1	2.427601E-1	2.031847E-1	2.290675E-1	2.441802E-1	2.281113E-1	2.284007E-1	2.185035E-1	2.479230E-1	2.609720E-1	2.280020E-1	2.339063E-1	2.130193E-1	2.436743E-1	2.235525E-1	2.338249E-1	2.387310E-1	2.241466E-1	2.140921E-1	2.235492E-1	2.412328E-1	2.559535E-1	2.335974E-1	2.150290E-1	2.167928E-1	2.082211E-1	2.432466E-1	2.089673E-1	2.292972E-1	2.107506E-1	1.972726E-1	2.259433E-1	2.486535E-1	2.209885E-1	2.168829E-1	1.951191E-1	2.371278E-1	2.204529E-1	2.348285E-1	2.145970E-1	2.214042E-1	2.561184E-1	2.468638E-1	1.890503E-1	2.653947E-1	2.100332E-1	2.431133E-1	2.207987E-1	2.410606E-1	2.573031E-1	2.349573E-1	1.787081E-1
2.858030E+2	3.217446E-1	3.181654E-1	3.533834E-1	3.224185E-1	3.076880E-1	3.162666E-1	3.075922E-1	3.878781E-1	3.247492E-1	3.140343E-1	3.191450E-1	3.392152E-1	3.442139E-1	3.307792E-1	3.558239E-1	3.508565E-1	3.646340E-1	3.757020E-1	3.222251E-1	2.990053E-1	3.403195E-1	3.384371E-1	3.192394E-1	3.421803E-1	3.289739E-1	3.083327E-1	3.184775E-1	3.611994E-1	3.731242E-1	3.346809E-1	3.520523E-1	3.425289E-1	3.636080E-1	3.636139E-1	3.770857E-1	3.227097E-1	3.277249E-1	3.214444E-1	3.397118E-1	3.304473E-1	3.180239E-1	3.149628E-1	3.098396E-1	3.873755E-1	3.393316E-1	3.755453E-1	3.176346E-1	3.636269E-1	3.774869E-1	3.764189E-1	3.419340E-1	3.428153E-1	3.269932E-1	3.370286E-1	3.353004E-1	3.581882E-1	3.244913E-1	3.105183E-1	3.002634E-1	4.069736E-1	3.582349E-1	3.565024E-1	3.443392E-1	3.349889E-1	3.637861E-1	3.659629E-1	3.218839E-1	2.937673E-1	3.487422E-1	3.276563E-1	3.025648E-1	3.501029E-1	3.014431E-1	3.186019E-1	3.213676E-1	3.543623E-1	3.574995E-1	3.427169E-1	3.260361E-1	3.036353E-1	3.386056E-1	3.591073E-1	3.201080E-1	3.427308E-1	3.301697E-1	3.243445E-1	3.124979E-1	3.685959E-1	3.151663E-1	3.599722E-1	3.003682E-1	3.909240E-1	3.703184E-1	3.501307E-1	3.030509E-1	3.322848E-1	3.608532E-1	3.481226E-1	3.226264E-1	3.443390E-1	3.545413E-1	3.242953E-1	3.150619E-1	3.405584E-1	3.286408E-1	2.953794E-1	3.062497E-1	3.780628E-1	3.615837E-1	4.080363E-1	3.193543E-1	3.411432E-1	3.459098E-1	3.784594E-1	3.127385E-1	3.259299E-1	3.454753E-1	3.175887E-1	3.221597E-1	3.608583E-1	4.033830E-1	3.257898E-1	3.292410E-1	3.563962E-1	3.381529E-1	3.853925E-1	3.307220E-1	3.387200E-1	3.622884E-1	3.670873E-1	3.387389E-1	3.099341E-1	3.215144E-1	3.360869E-1	3.021646E-1	3.398461E-1	2.998465E-1	3.273274E-1	3.109491E-1	3.428228E-1	3.535496E-1	3.387941E-1	3.396349E-1	3.353715E-1	3.158493E-1	3.300081E-1	3.632610E-1	2.966743E-1	3.352482E-1	3.354197E-1	3.169204E-1	3.645034E-1	3.068470E-1	3.158257E-1	3.322798E-1	3.351294E-1	3.471497E-1	3.423560E-1	3.255133E-1	3.583311E-1	3.854248E-1	3.620579E-1	3.013970E-1	3.324526E-1	3.385994E-1	3.396466E-1	3.111882E-1	3.798912E-1	3.275818E-1	3.716313E-1	2.919212E-1
2.860040E+2	4.935320E-1	5.459325E-1	5.816990E-1	5.209249E-1	5.233556E-1	5.157106E-1	4.931349E-1	5.773762E-1	5.632798E-1	5.801957E-1	5.250441E-1	6.325288E-1	5.568000E-1	5.591323E-1	5.760222E-1	5.858192E-1	6.264566E-1	5.411847E-1	5.941792E-1	5.404712E-1	5.525681E-1	5.358166E-1	5.374463E-1	5.319361E-1	5.481411E-1	5.375772E-1	5.047192E-1	5.788907E-1	5.647712E-1	5.552851E-1	5.624666E-1	5.449987E-1	5.889531E-1	5.587713E-1	5.840456E-1	5.125290E-1	5.286035E-1	5.430227E-1	5.500161E-1	5.350138E-1	5.435649E-1	5.481821E-1	5.179563E-1	6.255959E-1	5.725846E-1	5.873654E-1	5.128875E-1	6.085727E-1	6.385924E-1	5.807271E-1	6.171449E-1	5.461758E-1	5.391837E-1	5.788318E-1	5.808472E-1	5.938664E-1	5.259251E-1	5.431148E-1	5.470639E-1	6.011119E-1	5.359543E-1	5.856780E-1	5.647742E-1	5.411590E-1	5.901903E-1	5.968760E-1	5.857296E-1	5.048970E-1	5.245045E-1	5.197238E-1	5.368505E-1	5.571757E-1	5.462107E-1	5.548767E-1	5.450492E-1	6.598989E-1	5.730159E-1	5.369164E-1	5.251370E-1	5.402143E-1	5.170673E-1	5.777122E-1	5.040594E-1	5.324227E-1	5.172101E-1	5.729450E-1	5.445797E-1	5.683103E-1	5.427951E-1	5.565821E-1	5.411138E-1	6.009683E-1	5.717860E-1	6.168391E-1	4.819988E-1	5.248827E-1	6.208008E-1	5.872322E-1	5.270387E-1	5.010363E-1	5.715521E-1	5.584548E-1	5.315645E-1	5.766307E-1	5.301605E-1	5.805549E-1	5.127757E-1	6.168739E-1	6.208811E-1	6.280936E-1	5.269577E-1	5.705064E-1	5.300750E-1	5.576782E-1	5.338623E-1	5.161200E-1	5.493309E-1	5.854264E-1	5.257861E-1	5.141351E-1	5.748814E-1	5.027303E-1	5.052226E-1	6.073847E-1	6.263555E-1	5.721922E-1	5.497832E-1	5.592266E-1	6.023425E-1	6.289826E-1	5.155002E-1	4.776109E-1	5.273427E-1	5.572088E-1	5.565794E-1	5.988153E-1	5.205700E-1	5.537981E-1	5.194198E-1	6.036847E-1	5.857370E-1	5.649672E-1	4.962434E-1	5.666743E-1	5.085792E-1	6.262480E-1	4.931931E-1	5.158424E-1	5.506373E-1	5.265454E-1	5.066171E-1	5.508712E-1	5.018338E-1	5.433218E-1	5.322206E-1	5.731320E-1	5.811748E-1	5.846338E-1	5.234470E-1	5.567342E-1	5.940983E-1	5.793228E-1	5.210161E-1	5.054795E-1	5.918361E-1	5.503204E-1	5.253407E-1	5.742540E-1	5.761594E-1	5.383082E-1	5.153684E-1
2.862060E+2	6.628175E-1	7.640252E-1	7.827147E-1	7.307019E-1	6.813087E-1	7.143665E-1	6.772552E-1	7.837367E-1	6.885264E-1	7.718617E-1	6.854683E-1	8.324101E-1	7.643534E-1	8.548564E-1	7.510215E-1	7.867576E-1	7.988044E-1	7.971209E-1	7.488195E-1	7.277002E-1	7.187321E-1	7.581013E-1	7.113298E-1	7.762881E-1	7.711005E-1	7.068134E-1	6.997693E-1	8.077865E-1	7.699050E-1	7.841775E-1	7.969121E-1	7.341479E-1	7.720462E-1	7.824502E-1	8.147544E-1	6.914821E-1	7.622932E-1	7.115280E-1	6.993701E-1	7.092991E-1	7.105795E-1	6.908983E-1	7.210439E-1	8.589375E-1	7.862927E-1	8.429869E-1	7.405804E-1	8.257342E-1	8.223339E-1	7.960593E-1	7.954408E-1	7.903682E-1	7.449435E-1	7.668242E-1	7.785772E-1	7.866287E-1	7.302259E-1	6.820684E-1	7.706606E-1	8.817092E-1	7.793375E-1	7.613327E-1	7.468723E-1	7.954560E-1	8.078195E-1	7.978290E-1	7.851550E-1	6.886154E-1	7.030790E-1	7.657500E-1	7.096068E-1	7.799565E-1	7.622265E-1	7.579383E-1	7.865458E-1	8.110847E-1	7.571846E-1	7.379793E-1	7.668164E-1	7.892460E-1	7.122330E-1	8.060165E-1	7.958444E-1	7.439431E-1	7.466159E-1	7.662220E-1	7.396279E-1	7.420350E-1	6.885711E-1	7.329732E-1	6.852778E-1	8.110130E-1	7.862767E-1	7.854254E-1	7.115790E-1	7.089057E-1	7.738132E-1	7.945618E-1	8.026854E-1	7.145184E-1	7.636601E-1	7.858078E-1	7.317147E-1	7.392148E-1	6.792410E-1	7.580765E-1	7.559438E-1	8.199439E-1	7.645160E-1	7.508700E-1	7.656099E-1	7.309902E-1	7.315333E-1	7.996239E-1	7.521055E-1	7.124218E-1	7.461568E-1	7.279633E-1	7.440444E-1	7.759521E-1	7.764950E-1	7.138063E-1	7.089544E-1	8.044060E-1	8.211104E-1	7.934377E-1	7.601081E-1	7.905425E-1	8.451356E-1	8.109767E-1	7.335830E-1	7.322038E-1	7.436502E-1	7.460834E-1	7.162652E-1	7.639446E-1	7.381067E-1	7.479161E-1	7.329053E-1	7.758710E-1	7.541707E-1	7.727309E-1	7.161754E-1	7.401503E-1	7.388552E-1	8.552678E-1	7.050696E-1	7.001601E-1	7.117969E-1	7.002344E-1	6.950232E-1	7.357989E-1	6.558976E-1	7.065415E-1	6.803000E-1	8.259585E-1	7.336946E-1	7.629394E-1	6.852259E-1	7.509469E-1	7.965287E-1	7.798188E-1	6.935237E-1	7.290077E-1	7.188432E-1	7.755646E-1	7.193301E-1	8.291061E-1	7.648708E-1	7.733200E-1	6.166644E-1
2.864060E+2	6.461391E-1	8.027202E-1	7.016463E-1	6.882258E-1	6.691584E-1	6.142499E-1	6.097206E-1	7.628599E-1	6.913406E-1	7.144392E-1	6.475724E-1	7.474032E-1	7.033443E-1	7.335885E-1	7.203096E-1	7.225596E-1	7.599348E-1	6.758139E-1	7.268237E-1	6.675194E-1	6.752434E-1	6.609686E-1	6.260926E-1	6.677611E-1	7.202897E-1	6.535485E-1	6.437711E-1	6.861356E-1	7.117015E-1	7.102179E-1	6.996175E-1	6.748720E-1	7.610922E-1	7.486730E-1	7.428277E-1	6.740934E-1	7.201081E-1	6.757040E-1	6.587368E-1	6.769999E-1	6.748924E-1	6.658355E-1	6.311318E-1	7.873904E-1	7.237443E-1	7.011205E-1	6.524418E-1	7.116698E-1	7.070303E-1	7.335913E-1	7.429139E-1	6.654698E-1	6.600676E-1	7.409416E-1	6.771277E-1	7.378923E-1	6.528068E-1	6.986824E-1	6.813624E-1	7.661694E-1	6.658540E-1	7.270255E-1	6.842559E-1	6.679818E-1	7.656977E-1	7.422929E-1	6.994905E-1	6.471306E-1	6.531622E-1	6.822428E-1	6.646433E-1	6.907011E-1	6.759756E-1	7.096261E-1	6.829530E-1	7.469689E-1	6.968402E-1	6.741602E-1	6.522736E-1	7.366729E-1	7.324535E-1	7.149927E-1	7.267746E-1	6.543660E-1	6.626867E-1	6.919925E-1	6.791384E-1	7.331439E-1	6.760980E-1	6.304849E-1	6.767559E-1	7.415242E-1	7.747860E-1	7.083767E-1	6.893842E-1	6.561392E-1	7.381689E-1	7.658088E-1	7.329990E-1	6.800169E-1	7.060281E-1	7.177384E-1	6.761178E-1	6.793833E-1	6.253021E-1	6.604034E-1	7.059775E-1	7.484632E-1	6.979905E-1	7.287295E-1	7.747418E-1	6.819925E-1	7.012708E-1	7.025464E-1	7.196932E-1	6.291659E-1	7.203821E-1	6.649823E-1	7.007584E-1	7.363492E-1	6.752696E-1	6.817614E-1	6.994785E-1	6.707738E-1	7.206761E-1	7.351459E-1	7.009753E-1	7.350564E-1	7.063976E-1	7.103622E-1	7.228699E-1	6.399038E-1	6.747910E-1	6.657956E-1	7.142355E-1	7.064775E-1	6.687819E-1	6.839455E-1	6.884884E-1	6.562020E-1	7.132426E-1	7.010656E-1	7.420504E-1	7.130677E-1	6.754454E-1	7.567812E-1	7.176202E-1	6.281368E-1	6.590953E-1	6.365266E-1	6.769561E-1	7.523491E-1	6.205917E-1	6.740424E-1	6.564152E-1	7.740751E-1	6.933458E-1	7.268698E-1	6.809366E-1	6.692102E-1	7.269708E-1	7.506556E-1	7.014965E-1	6.735384E-1	6.853378E-1	6.814598E-1	6.796976E-1	7.646493E-1	6.711655E-1	6.866478E-1	6.643337E-1
2.866110E+2	7.445422E-1	8.431727E-1	8.058771E-1	7.532391E-1	7.245937E-1	7.600884E-1	7.312835E-1	8.391411E-1	7.799982E-1	8.564438E-1	7.764169E-1	8.791265E-1	7.687554E-1	8.576930E-1	7.991175E-1	7.899669E-1	8.450084E-1	8.391930E-1	8.174749E-1	7.641059E-1	7.713073E-1	7.506302E-1	7.488344E-1	7.889380E-1	7.961259E-1	7.128828E-1	7.488466E-1	8.253941E-1	8.288185E-1	7.669629E-1	7.834312E-1	7.767725E-1	8.463789E-1	8.274865E-1	7.950763E-1	7.443712E-1	7.750154E-1	7.931274E-1	7.531814E-1	8.075453E-1	7.712475E-1	7.660853E-1	7.399062E-1	9.020289E-1	8.188695E-1	8.612929E-1	7.754693E-1	8.191536E-1	7.777008E-1	7.960596E-1	8.383502E-1	7.487348E-1	7.841663E-1	8.254027E-1	7.482068E-1	8.186343E-1	7.352443E-1	7.568314E-1	8.001929E-1	8.730636E-1	7.928986E-1	8.093634E-1	8.190727E-1	7.830989E-1	7.832483E-1	8.818640E-1	7.899518E-1	7.463980E-1	7.396377E-1	7.715318E-1	7.640372E-1	7.978078E-1	7.319224E-1	7.405759E-1	7.614727E-1	8.372055E-1	7.806959E-1	7.887585E-1	7.728132E-1	7.850949E-1	8.115741E-1	8.649573E-1	8.205126E-1	7.755580E-1	7.809860E-1	8.033371E-1	8.229550E-1	8.022233E-1	7.602890E-1	7.678331E-1	7.371201E-1	8.157505E-1	8.123214E-1	8.407430E-1	7.726158E-1	7.728849E-1	8.372793E-1	8.513132E-1	8.212685E-1	7.454262E-1	7.906974E-1	7.871692E-1	7.853502E-1	7.795355E-1	7.676400E-1	7.566501E-1	8.165696E-1	8.248181E-1	8.174337E-1	8.763296E-1	8.094439E-1	7.423513E-1	7.816820E-1	8.496550E-1	7.967633E-1	7.490857E-1	7.445948E-1	7.511671E-1	7.836718E-1	8.030869E-1	7.815148E-1	8.169056E-1	7.204609E-1	8.592298E-1	8.394508E-1	8.517304E-1	8.286489E-1	7.718068E-1	8.323564E-1	8.176352E-1	8.261719E-1	7.145126E-1	7.429021E-1	8.020211E-1	7.920480E-1	7.734019E-1	7.835260E-1	7.662985E-1	8.489606E-1	8.301092E-1	8.753798E-1	7.668137E-1	8.033317E-1	7.123359E-1	7.346824E-1	8.208755E-1	8.460753E-1	7.675369E-1	7.622066E-1	7.364485E-1	7.601906E-1	7.940839E-1	7.578045E-1	7.664853E-1	8.147304E-1	7.773695E-1	8.152004E-1	8.269123E-1	8.322974E-1	8.012468E-1	8.830303E-1	8.140854E-1	8.790762E-1	7.761960E-1	7.539061E-1	7.682794E-1	8.006806E-1	8.757135E-1	7.518569E-1	7.749870E-1	6.822087E-1
2.868020E+2	9.305055E-1	1.095562E+0	1.059837E+0	1.018493E+0	9.577272E-1	9.232704E-1	9.473945E-1	1.169156E+0	9.910873E-1	1.084582E+0	9.879993E-1	1.131850E+0	1.081973E+0	1.157672E+0	1.040756E+0	1.027498E+0	1.106097E+0	1.081806E+0	1.042770E+0	1.011517E+0	1.046517E+0	9.834997E-1	9.954537E-1	1.015313E+0	1.038045E+0	9.933701E-1	9.489307E-1	1.118316E+0	1.044599E+0	1.026459E+0	1.043665E+0	1.010545E+0	1.070941E+0	1.084192E+0	1.107212E+0	9.943250E-1	1.042854E+0	1.037261E+0	1.007413E+0	1.064600E+0	9.925059E-1	9.728492E-1	9.731737E-1	1.158136E+0	1.048214E+0	1.105147E+0	9.988774E-1	1.087498E+0	1.021697E+0	1.116485E+0	1.127618E+0	1.070589E+0	1.000858E+0	1.047453E+0	1.032524E+0	1.052858E+0	1.006929E+0	1.016615E+0	1.004102E+0	1.093139E+0	1.017725E+0	1.050890E+0	1.028646E+0	1.045201E+0	1.079856E+0	1.083548E+0	1.055853E+0	9.834558E-1	1.025778E+0	1.009849E+0	9.841243E-1	9.670350E-1	9.557088E-1	9.677919E-1	1.017485E+0	1.137993E+0	1.041666E+0	1.079716E+0	1.022289E+0	1.040352E+0	1.071796E+0	1.073862E+0	1.129212E+0	1.009660E+0	9.776191E-1	1.003619E+0	1.027261E+0	1.066229E+0	9.980510E-1	1.036952E+0	9.594020E-1	1.080280E+0	1.127928E+0	1.065305E+0	9.994220E-1	9.918654E-1	1.044194E+0	1.075289E+0	1.086075E+0	9.632212E-1	9.707095E-1	9.968236E-1	9.998907E-1	1.011706E+0	1.004370E+0	1.006179E+0	1.022429E+0	1.069315E+0	1.051784E+0	1.091691E+0	1.029831E+0	9.802360E-1	1.007350E+0	1.100562E+0	1.096397E+0	9.621907E-1	1.050768E+0	9.944757E-1	1.006198E+0	1.030435E+0	1.041690E+0	9.945432E-1	1.035873E+0	1.132489E+0	1.052546E+0	1.096161E+0	1.036286E+0	9.800630E-1	1.035902E+0	1.080270E+0	1.078688E+0	9.891041E-1	9.906437E-1	1.042228E+0	1.064054E+0	1.017095E+0	1.077559E+0	1.033211E+0	1.018029E+0	1.097858E+0	1.077658E+0	1.052818E+0	1.059352E+0	9.817005E-1	9.390929E-1	1.093666E+0	1.093389E+0	9.681189E-1	9.317690E-1	1.012742E+0	1.044090E+0	1.079752E+0	9.832832E-1	9.947039E-1	9.921527E-1	1.104315E+0	1.085541E+0	1.049454E+0	1.073740E+0	9.961574E-1	1.108647E+0	1.085302E+0	1.107394E+0	1.045257E+0	9.689625E-1	1.037237E+0	1.032216E+0	1.109742E+0	9.353605E-1	9.883323E-1	9.801375E-1
2.870030E+2	7.578846E-1	8.906607E-1	8.182864E-1	8.659291E-1	8.149617E-1	7.829505E-1	7.611410E-1	9.306780E-1	7.940702E-1	8.742916E-1	7.865226E-1	8.730002E-1	8.366824E-1	8.931513E-1	8.443158E-1	8.143623E-1	8.772777E-1	8.055351E-1	8.448036E-1	8.346881E-1	8.615291E-1	8.135170E-1	7.721326E-1	8.302186E-1	8.461789E-1	7.573827E-1	7.947778E-1	8.478029E-1	8.877327E-1	8.058554E-1	8.203566E-1	7.914252E-1	8.213409E-1	8.492537E-1	8.425754E-1	8.059534E-1	8.158605E-1	7.772054E-1	7.756943E-1	8.425371E-1	7.384151E-1	7.890585E-1	8.071827E-1	8.947116E-1	8.188699E-1	8.462561E-1	8.048493E-1	8.798421E-1	8.714312E-1	8.746959E-1	8.856984E-1	8.592221E-1	8.118155E-1	8.240401E-1	7.863316E-1	8.804632E-1	7.589007E-1	8.270633E-1	8.184735E-1	8.927128E-1	8.435730E-1	8.217143E-1	8.062942E-1	8.318771E-1	9.140017E-1	8.497120E-1	8.619098E-1	7.730673E-1	7.593228E-1	7.631807E-1	7.912523E-1	8.385080E-1	7.909772E-1	8.092691E-1	8.228366E-1	9.171517E-1	7.995038E-1	8.127762E-1	8.339827E-1	8.681056E-1	7.904750E-1	8.627191E-1	8.916969E-1	7.996459E-1	8.281457E-1	8.208447E-1	8.087588E-1	8.131662E-1	8.008258E-1	8.131514E-1	7.839910E-1	8.805010E-1	8.559854E-1	9.184512E-1	8.496043E-1	8.137784E-1	8.537971E-1	8.672027E-1	8.932772E-1	7.784908E-1	8.227160E-1	8.375407E-1	7.827338E-1	8.348144E-1	7.781279E-1	8.464803E-1	8.498800E-1	8.670561E-1	8.370885E-1	8.756590E-1	8.477989E-1	7.913483E-1	8.231844E-1	8.825124E-1	9.393767E-1	7.811664E-1	7.656837E-1	7.916080E-1	8.208615E-1	8.052871E-1	8.350553E-1	7.890405E-1	8.165738E-1	9.012030E-1	9.180514E-1	8.649783E-1	8.514954E-1	8.042338E-1	8.670414E-1	8.568458E-1	8.621361E-1	7.622015E-1	7.481410E-1	8.599344E-1	8.380594E-1	8.556021E-1	7.644021E-1	7.670341E-1	8.769000E-1	8.826263E-1	8.470455E-1	8.496561E-1	8.775502E-1	8.133474E-1	7.713930E-1	8.974761E-1	8.822493E-1	8.116802E-1	7.461672E-1	7.894264E-1	8.227781E-1	8.372584E-1	8.115654E-1	7.693743E-1	8.256491E-1	8.687831E-1	8.160080E-1	8.697867E-1	8.280080E-1	8.145202E-1	8.357663E-1	8.811606E-1	8.870494E-1	7.654339E-1	7.546862E-1	8.010647E-1	8.403121E-1	8.905876E-1	7.375397E-1	7.866538E-1	7.417932E-1
2.872040E+2	5.202168E-1	6.620144E-1	6.271951E-1	5.677343E-1	5.506932E-1	5.314770E-1	5.492956E-1	6.078888E-1	5.653903E-1	5.902829E-1	5.351494E-1	6.149144E-1	5.788127E-1	6.265030E-1	5.841344E-1	6.159926E-1	6.022543E-1	6.056946E-1	5.968459E-1	6.036237E-1	5.895657E-1	5.750434E-1	5.391511E-1	6.144962E-1	5.481410E-1	5.193725E-1	5.462460E-1	6.061013E-1	6.016817E-1	6.037415E-1	5.595366E-1	5.736372E-1	6.272926E-1	6.030565E-1	6.193298E-1	5.393363E-1	5.647622E-1	6.053830E-1	6.087690E-1	5.821179E-1	5.685450E-1	5.502709E-1	5.412205E-1	6.483609E-1	6.123293E-1	5.690597E-1	5.569571E-1	6.093043E-1	5.991668E-1	5.799925E-1	5.979103E-1	6.198332E-1	5.976964E-1	5.944976E-1	5.814938E-1	5.938665E-1	5.639178E-1	5.650152E-1	5.611261E-1	6.215475E-1	6.009044E-1	5.760710E-1	6.273905E-1	5.554671E-1	6.226599E-1	5.939530E-1	6.227358E-1	5.537895E-1	5.709055E-1	5.730401E-1	5.877311E-1	5.893074E-1	4.894859E-1	5.027903E-1	5.885980E-1	5.870764E-1	5.965273E-1	5.698550E-1	5.869061E-1	5.990133E-1	6.225625E-1	6.157632E-1	6.309225E-1	5.670477E-1	5.979415E-1	5.764459E-1	5.600113E-1	6.004563E-1	5.451337E-1	5.858645E-1	5.844343E-1	5.630657E-1	6.169825E-1	6.036686E-1	5.499715E-1	5.750103E-1	6.138458E-1	6.349038E-1	5.673018E-1	5.362573E-1	5.644371E-1	5.788758E-1	5.838910E-1	5.473654E-1	5.788553E-1	5.627312E-1	5.494179E-1	6.404296E-1	5.445279E-1	5.878389E-1	5.598332E-1	5.939401E-1	5.586081E-1	5.905352E-1	6.635122E-1	5.497285E-1	5.915077E-1	5.171410E-1	5.745593E-1	5.383362E-1	5.715339E-1	5.549764E-1	5.627544E-1	5.971052E-1	6.141285E-1	5.993513E-1	5.833814E-1	5.779628E-1	6.041685E-1	6.141862E-1	6.188025E-1	5.006856E-1	5.295883E-1	5.861651E-1	5.978537E-1	5.689907E-1	5.213668E-1	5.332101E-1	5.502243E-1	6.028239E-1	5.652731E-1	6.083610E-1	6.092738E-1	5.659417E-1	5.644799E-1	6.528237E-1	6.423185E-1	5.491427E-1	5.613309E-1	5.547113E-1	5.362971E-1	6.235468E-1	5.620148E-1	5.404331E-1	5.833995E-1	5.961916E-1	5.868237E-1	5.968838E-1	5.663429E-1	5.693099E-1	6.484951E-1	6.019245E-1	6.420611E-1	5.849560E-1	5.637843E-1	5.964616E-1	5.906996E-1	6.268109E-1	4.798520E-1	6.333133E-1	5.928305E-1
2.874030E+2	4.226484E-1	4.245741E-1	4.038445E-1	4.507111E-1	3.904620E-1	4.132294E-1	4.064061E-1	4.111644E-1	4.345156E-1	4.125835E-1	4.012518E-1	4.785970E-1	4.165433E-1	4.513382E-1	4.242015E-1	4.497205E-1	4.115716E-1	4.332005E-1	4.208750E-1	4.639450E-1	3.708256E-1	4.112869E-1	3.845871E-1	4.626914E-1	4.086024E-1	3.845227E-1	3.889468E-1	4.556389E-1	4.469446E-1	4.099162E-1	4.077332E-1	4.823928E-1	4.105545E-1	4.146551E-1	4.076213E-1	4.603652E-1	3.812922E-1	3.891122E-1	3.874833E-1	4.953119E-1	4.001037E-1	3.845805E-1	3.727147E-1	4.857535E-1	4.272899E-1	4.376533E-1	4.008767E-1	4.367448E-1	4.176564E-1	4.153695E-1	4.721413E-1	4.436944E-1	4.054395E-1	4.391988E-1	4.076719E-1	4.549328E-1	3.775374E-1	4.132232E-1	4.254215E-1	4.973620E-1	4.067687E-1	4.395271E-1	4.063167E-1	4.188879E-1	4.515398E-1	4.383056E-1	4.205690E-1	4.071099E-1	4.134225E-1	4.028134E-1	3.842093E-1	4.107965E-1	3.737085E-1	4.273036E-1	4.295792E-1	4.398493E-1	4.241137E-1	3.804582E-1	4.183901E-1	4.343766E-1	4.564078E-1	4.381936E-1	4.286460E-1	3.984344E-1	4.236901E-1	4.062777E-1	3.853323E-1	4.253644E-1	3.642784E-1	4.178395E-1	3.507896E-1	4.446198E-1	4.300701E-1	4.475947E-1	4.022355E-1	4.206686E-1	4.295350E-1	4.124399E-1	4.372213E-1	3.960924E-1	4.114623E-1	3.944072E-1	3.811237E-1	4.055922E-1	3.960640E-1	4.080238E-1	4.075144E-1	4.316734E-1	4.129892E-1	4.274927E-1	4.459863E-1	4.164145E-1	3.830888E-1	4.135559E-1	4.517515E-1	3.962008E-1	3.853091E-1	4.210113E-1	4.136087E-1	4.224629E-1	4.100753E-1	4.142602E-1	4.091097E-1	4.403440E-1	4.350935E-1	4.529584E-1	4.167334E-1	3.833978E-1	4.161401E-1	4.551264E-1	4.420408E-1	3.783894E-1	4.285457E-1	4.032132E-1	4.131331E-1	4.162277E-1	3.627962E-1	3.817393E-1	4.499294E-1	4.392463E-1	4.298967E-1	4.196642E-1	4.376850E-1	4.729817E-1	4.101290E-1	4.535061E-1	4.429917E-1	3.996757E-1	3.940602E-1	4.051640E-1	4.053161E-1	4.148736E-1	3.806691E-1	3.909358E-1	3.766349E-1	4.281894E-1	4.012183E-1	4.587310E-1	4.296889E-1	4.079316E-1	4.335805E-1	4.692322E-1	4.630316E-1	4.400768E-1	3.954803E-1	4.118952E-1	4.050542E-1	4.096401E-1	3.809415E-1	3.632976E-1	3.336314E-1
2.876020E+2	3.659418E-1	4.386447E-1	4.071534E-1	3.822312E-1	3.297107E-1	3.730254E-1	3.353170E-1	4.095585E-1	4.049625E-1	3.699049E-1	3.728305E-1	4.142669E-1	3.888693E-1	4.293537E-1	4.091350E-1	4.426593E-1	4.255057E-1	3.672877E-1	3.642180E-1	4.342259E-1	4.221033E-1	3.315882E-1	3.544702E-1	4.134219E-1	4.237695E-1	3.373252E-1	3.486787E-1	3.908116E-1	3.915797E-1	4.067280E-1	4.083188E-1	4.437636E-1	3.847335E-1	3.748732E-1	4.116921E-1	4.284869E-1	3.679004E-1	3.811512E-1	3.572833E-1	4.360956E-1	3.965348E-1	3.664803E-1	3.419063E-1	4.239619E-1	3.901515E-1	3.827375E-1	3.684372E-1	4.133475E-1	4.102176E-1	4.116959E-1	3.907614E-1	4.252798E-1	3.514270E-1	3.744911E-1	3.779478E-1	4.338384E-1	3.510145E-1	3.679125E-1	3.684678E-1	4.352693E-1	3.553800E-1	3.681672E-1	3.852311E-1	4.266920E-1	3.708067E-1	4.054222E-1	3.773942E-1	4.056285E-1	3.403053E-1	3.867541E-1	3.640941E-1	4.257920E-1	3.154302E-1	3.563452E-1	3.629366E-1	4.477645E-1	3.794431E-1	3.605578E-1	3.728130E-1	3.984052E-1	3.860780E-1	3.919353E-1	4.237124E-1	4.375764E-1	3.533496E-1	3.852692E-1	3.822460E-1	3.761195E-1	3.369939E-1	3.530004E-1	3.500791E-1	4.177719E-1	4.254739E-1	4.159849E-1	3.717165E-1	3.738385E-1	4.225805E-1	4.078995E-1	3.992809E-1	3.860293E-1	3.630793E-1	3.596918E-1	3.889731E-1	3.789277E-1	3.518641E-1	3.745153E-1	3.628778E-1	3.878101E-1	3.381484E-1	4.227961E-1	3.966728E-1	3.929813E-1	3.848184E-1	4.247576E-1	3.919690E-1	3.671761E-1	3.993682E-1	3.792444E-1	3.684939E-1	3.623253E-1	3.874870E-1	3.592270E-1	3.481928E-1	3.906610E-1	4.315998E-1	4.145383E-1	3.871670E-1	3.761916E-1	3.978856E-1	4.521665E-1	4.060766E-1	3.722362E-1	3.417234E-1	3.841285E-1	3.874210E-1	3.994965E-1	3.755464E-1	3.596804E-1	4.004982E-1	3.910348E-1	4.117941E-1	3.913928E-1	3.886598E-1	3.727023E-1	3.567314E-1	3.987921E-1	4.068179E-1	3.733437E-1	3.757289E-1	3.649272E-1	3.659571E-1	4.177515E-1	3.686327E-1	3.468809E-1	4.046129E-1	4.059538E-1	3.955685E-1	3.913565E-1	3.935343E-1	3.911651E-1	4.130696E-1	4.087186E-1	3.985226E-1	3.448711E-1	3.814554E-1	3.876098E-1	3.869758E-1	4.225315E-1	3.653238E-1	3.666317E-1	3.634242E-1
2.878050E+2	4.668466E-1	4.456797E-1	4.228703E-1	4.446428E-1	3.752740E-1	4.116523E-1	3.815248E-1	4.376620E-1	4.049629E-1	3.830966E-1	4.239891E-1	4.663434E-1	4.555385E-1	4.520473E-1	4.439026E-1	4.638442E-1	4.453078E-1	4.507299E-1	4.262078E-1	5.033226E-1	4.636446E-1	4.741746E-1	4.141364E-1	4.586970E-1	4.305947E-1	3.899171E-1	4.216649E-1	4.532382E-1	4.384269E-1	4.456208E-1	4.235584E-1	4.990428E-1	4.222910E-1	4.626936E-1	4.483340E-1	4.712325E-1	4.080760E-1	4.017172E-1	3.940726E-1	4.865637E-1	4.065265E-1	4.242630E-1	4.085539E-1	4.678668E-1	4.292451E-1	4.500751E-1	4.137305E-1	4.871967E-1	4.474127E-1	4.315385E-1	4.551251E-1	4.861277E-1	4.208714E-1	4.187650E-1	4.173652E-1	4.360202E-1	4.212654E-1	4.049162E-1	4.190932E-1	4.753543E-1	4.303217E-1	4.745210E-1	4.631825E-1	4.962823E-1	4.524172E-1	4.543820E-1	4.466114E-1	4.848943E-1	3.979552E-1	4.073097E-1	4.108334E-1	4.957678E-1	3.892489E-1	4.174904E-1	4.361773E-1	4.841755E-1	4.060889E-1	4.195733E-1	4.207890E-1	4.627381E-1	4.405839E-1	4.538613E-1	4.427418E-1	4.706968E-1	4.396760E-1	4.090787E-1	4.291562E-1	5.306934E-1	4.258629E-1	3.976211E-1	4.218057E-1	4.469889E-1	4.331339E-1	4.304721E-1	3.890573E-1	5.143295E-1	4.486616E-1	4.714608E-1	4.674187E-1	5.096622E-1	4.221343E-1	4.413753E-1	4.046714E-1	4.881853E-1	4.087992E-1	3.973293E-1	4.541492E-1	4.649764E-1	4.742230E-1	4.375559E-1	4.319839E-1	4.398484E-1	4.150802E-1	4.882310E-1	4.546330E-1	4.741108E-1	4.095225E-1	4.329440E-1	4.428730E-1	4.833330E-1	4.736548E-1	4.184399E-1	4.253537E-1	4.728965E-1	4.621669E-1	4.628949E-1	4.536916E-1	4.352819E-1	4.709058E-1	4.218336E-1	4.374496E-1	3.868503E-1	4.135768E-1	4.374345E-1	4.476414E-1	4.285938E-1	4.137937E-1	4.177689E-1	3.990659E-1	4.383860E-1	4.165159E-1	4.150617E-1	4.342805E-1	4.195481E-1	4.001168E-1	4.550694E-1	4.548039E-1	4.074200E-1	4.123912E-1	3.957751E-1	4.311255E-1	4.609255E-1	4.007297E-1	4.422130E-1	4.435090E-1	4.586600E-1	4.544783E-1	4.771062E-1	4.345914E-1	3.946585E-1	4.888695E-1	4.320490E-1	4.630312E-1	4.450444E-1	4.211930E-1	4.167521E-1	4.565056E-1	4.403814E-1	3.497060E-1	3.716320E-1	3.783208E-1
2.880040E+2	4.768531E-1	5.151531E-1	4.882209E-1	4.749831E-1	4.648820E-1	4.274188E-1	4.291547E-1	5.251846E-1	4.901021E-1	4.963895E-1	4.511476E-1	5.230144E-1	4.819544E-1	5.080722E-1	4.630254E-1	5.190539E-1	4.783104E-1	4.899967E-1	4.881975E-1	5.122381E-1	4.837656E-1	4.735517E-1	4.664155E-1	5.053034E-1	4.920222E-1	4.283491E-1	4.090811E-1	5.100621E-1	4.795954E-1	4.806873E-1	4.780665E-1	5.549887E-1	4.974065E-1	5.347517E-1	4.714054E-1	5.125293E-1	4.489214E-1	4.534622E-1	4.511787E-1	4.757975E-1	4.357903E-1	4.820453E-1	4.575966E-1	5.280315E-1	4.885356E-1	5.069521E-1	4.559638E-1	5.537340E-1	5.106435E-1	4.631398E-1	5.342857E-1	4.861282E-1	4.491632E-1	4.936899E-1	4.748752E-1	5.189438E-1	4.542401E-1	4.479613E-1	4.619848E-1	5.154399E-1	4.652946E-1	4.944193E-1	4.874620E-1	5.131924E-1	4.682126E-1	4.953039E-1	4.520932E-1	5.004519E-1	4.401386E-1	4.503483E-1	4.333147E-1	5.571757E-1	4.514113E-1	4.295679E-1	4.704887E-1	5.292937E-1	4.515433E-1	4.964293E-1	5.077455E-1	5.360644E-1	4.801443E-1	5.501067E-1	5.167453E-1	5.572626E-1	4.588597E-1	4.573984E-1	4.723631E-1	5.361651E-1	4.601629E-1	4.492134E-1	4.558941E-1	5.322701E-1	4.706694E-1	4.805220E-1	4.584169E-1	5.215847E-1	4.773516E-1	5.070247E-1	4.952929E-1	5.441639E-1	4.634021E-1	4.590731E-1	4.550365E-1	5.135479E-1	4.462562E-1	4.764653E-1	4.568144E-1	5.153382E-1	4.628837E-1	5.073299E-1	4.886029E-1	5.286107E-1	4.885734E-1	5.181009E-1	5.021710E-1	5.329246E-1	4.618529E-1	4.634409E-1	4.331178E-1	5.251357E-1	4.527408E-1	4.665061E-1	4.828864E-1	5.491351E-1	5.486281E-1	4.867411E-1	5.094651E-1	4.929305E-1	5.092417E-1	5.098719E-1	4.711185E-1	4.929945E-1	4.457605E-1	4.453315E-1	4.672639E-1	5.442575E-1	4.496513E-1	4.633565E-1	4.728535E-1	5.442804E-1	4.802693E-1	5.110537E-1	4.724113E-1	5.110446E-1	4.326554E-1	5.035314E-1	5.146017E-1	4.972554E-1	4.437067E-1	4.614960E-1	4.337061E-1	5.731780E-1	4.320237E-1	4.516014E-1	4.373678E-1	5.138366E-1	4.762668E-1	5.124950E-1	4.989354E-1	4.386701E-1	4.826279E-1	4.728774E-1	5.253656E-1	5.286601E-1	4.702823E-1	4.519651E-1	4.877951E-1	4.939301E-1	4.551240E-1	4.516357E-1	4.319480E-1
2.882020E+2	5.635815E-1	5.213087E-1	5.320645E-1	4.862513E-1	4.474162E-1	4.613165E-1	4.398182E-1	5.476672E-1	4.739185E-1	4.994935E-1	4.296734E-1	5.375659E-1	4.951623E-1	5.336027E-1	4.688205E-1	5.293260E-1	4.878442E-1	5.208496E-1	5.601852E-1	5.709328E-1	4.993434E-1	4.386836E-1	4.794850E-1	5.758789E-1	5.102229E-1	4.553191E-1	4.380241E-1	4.964561E-1	5.264426E-1	5.183054E-1	4.997530E-1	5.616486E-1	5.240103E-1	5.167372E-1	4.924406E-1	5.559996E-1	4.663316E-1	5.191399E-1	5.296989E-1	5.181911E-1	4.850381E-1	4.973608E-1	4.884056E-1	5.987661E-1	5.282795E-1	4.853782E-1	4.975853E-1	5.420354E-1	5.158507E-1	5.123799E-1	5.520414E-1	5.253590E-1	5.128203E-1	5.345572E-1	4.781056E-1	5.145799E-1	4.563910E-1	5.098870E-1	4.992506E-1	5.665287E-1	4.738599E-1	5.156897E-1	4.906569E-1	5.359556E-1	5.489466E-1	5.223409E-1	5.254216E-1	5.323059E-1	4.914615E-1	4.728311E-1	5.066774E-1	5.171892E-1	4.716141E-1	4.559891E-1	4.850047E-1	5.649130E-1	4.836742E-1	4.751566E-1	5.071462E-1	5.623508E-1	5.038809E-1	5.165329E-1	5.336609E-1	5.580156E-1	4.596591E-1	5.134206E-1	5.013735E-1	5.758342E-1	4.819899E-1	4.875592E-1	4.793292E-1	5.835964E-1	5.564656E-1	4.831559E-1	5.166791E-1	5.519255E-1	5.425564E-1	5.304816E-1	5.285874E-1	5.333813E-1	5.153429E-1	4.808554E-1	4.726967E-1	5.467151E-1	4.522495E-1	5.199548E-1	4.847951E-1	5.202116E-1	4.908543E-1	5.247741E-1	5.482656E-1	5.371319E-1	4.894378E-1	5.293016E-1	5.468283E-1	5.795175E-1	5.048108E-1	4.906227E-1	5.117637E-1	5.603386E-1	4.644527E-1	4.874050E-1	4.964233E-1	5.842557E-1	5.128210E-1	5.417211E-1	5.383597E-1	5.635508E-1	5.274971E-1	5.098719E-1	5.468732E-1	5.760637E-1	4.989012E-1	4.854756E-1	5.281604E-1	5.668083E-1	4.600100E-1	4.545330E-1	5.172702E-1	5.709698E-1	5.054553E-1	5.117110E-1	4.948809E-1	5.761895E-1	4.893903E-1	5.582461E-1	5.035283E-1	6.134223E-1	4.566913E-1	4.849670E-1	4.956480E-1	6.019603E-1	4.938101E-1	4.898784E-1	4.933242E-1	5.747791E-1	5.238799E-1	5.158980E-1	5.081272E-1	5.560366E-1	5.263236E-1	5.559924E-1	5.231918E-1	5.551517E-1	4.648275E-1	4.592506E-1	5.142166E-1	5.633458E-1	4.902625E-1	4.449690E-1	4.379064E-1
2.884040E+2	5.969377E-1	6.294761E-1	5.725986E-1	5.876720E-1	5.681590E-1	4.904845E-1	4.952672E-1	6.191305E-1	5.449855E-1	5.739877E-1	5.484126E-1	6.080223E-1	5.417049E-1	6.321767E-1	5.760219E-1	6.416707E-1	6.000548E-1	5.769447E-1	5.795150E-1	6.140252E-1	5.824259E-1	5.401752E-1	5.113069E-1	6.391306E-1	5.542079E-1	5.348802E-1	5.229656E-1	5.948967E-1	6.101995E-1	5.469961E-1	6.034948E-1	6.389071E-1	5.944304E-1	5.963005E-1	6.139023E-1	5.922251E-1	5.406568E-1	5.582812E-1	5.467213E-1	6.063436E-1	5.021681E-1	5.272971E-1	5.343043E-1	6.524265E-1	5.986475E-1	6.056708E-1	5.557325E-1	6.210030E-1	5.857765E-1	5.836669E-1	5.727563E-1	6.086247E-1	5.378973E-1	5.727014E-1	5.614616E-1	6.331464E-1	5.560329E-1	5.718122E-1	5.512829E-1	6.529875E-1	5.987630E-1	6.042032E-1	5.864982E-1	6.126999E-1	6.402102E-1	5.471853E-1	5.918965E-1	6.182393E-1	5.533293E-1	5.428496E-1	5.528246E-1	6.164408E-1	5.034732E-1	5.344956E-1	5.509877E-1	6.052823E-1	5.651793E-1	5.684825E-1	5.839074E-1	6.052396E-1	5.619029E-1	6.247160E-1	6.104832E-1	6.084493E-1	5.579757E-1	5.575384E-1	5.587764E-1	6.141359E-1	5.045961E-1	5.914420E-1	5.318820E-1	6.436086E-1	6.376656E-1	6.273760E-1	6.047651E-1	6.765862E-1	6.121065E-1	5.917723E-1	5.874331E-1	6.203559E-1	5.509179E-1	5.618586E-1	5.596898E-1	6.117491E-1	5.421472E-1	5.862578E-1	5.620759E-1	6.055013E-1	5.460396E-1	5.818009E-1	5.586155E-1	6.230536E-1	5.724423E-1	6.330996E-1	5.828415E-1	5.879197E-1	5.438637E-1	5.463116E-1	5.843134E-1	6.168084E-1	5.865927E-1	5.354715E-1	5.634314E-1	6.193774E-1	5.774482E-1	5.914026E-1	5.659098E-1	6.622741E-1	5.667455E-1	6.008694E-1	5.935505E-1	6.252896E-1	5.655148E-1	5.631313E-1	5.646987E-1	6.453715E-1	5.492557E-1	5.582104E-1	6.340425E-1	6.338177E-1	5.802273E-1	5.971837E-1	6.011029E-1	6.486543E-1	5.502959E-1	6.285926E-1	5.972859E-1	6.010312E-1	5.002271E-1	5.325808E-1	5.569444E-1	6.530493E-1	5.523859E-1	5.223781E-1	5.376793E-1	6.604267E-1	5.626146E-1	6.125368E-1	5.785989E-1	6.594299E-1	5.940982E-1	5.800518E-1	6.253902E-1	6.975475E-1	5.606674E-1	5.454629E-1	5.733161E-1	6.545763E-1	5.032774E-1	6.149783E-1	5.600578E-1
2.886030E+2	6.169522E-1	6.145263E-1	6.065143E-1	6.232124E-1	5.673999E-1	5.433016E-1	5.080633E-1	6.119045E-1	6.005724E-1	5.949390E-1	5.762027E-1	6.823067E-1	6.329025E-1	6.541611E-1	6.600450E-1	6.493749E-1	6.389249E-1	6.134073E-1	6.181749E-1	6.652903E-1	6.025473E-1	5.787790E-1	5.533574E-1	6.411285E-1	5.663421E-1	5.652216E-1	5.525378E-1	6.429176E-1	5.952932E-1	5.858889E-1	6.040811E-1	6.568892E-1	6.139916E-1	6.375838E-1	6.125447E-1	6.842374E-1	5.875281E-1	6.146711E-1	5.868048E-1	6.487370E-1	6.070873E-1	5.906486E-1	5.820894E-1	6.329134E-1	6.142834E-1	6.481657E-1	6.053114E-1	6.677988E-1	6.177641E-1	6.299666E-1	6.252828E-1	6.750772E-1	5.925523E-1	5.992655E-1	5.543540E-1	6.280547E-1	5.832732E-1	5.989985E-1	5.920645E-1	6.372679E-1	5.773513E-1	6.234161E-1	6.024715E-1	6.588773E-1	6.647809E-1	6.407207E-1	5.932672E-1	6.123123E-1	5.392685E-1	5.627625E-1	5.551912E-1	7.363999E-1	5.182369E-1	5.624262E-1	5.892576E-1	6.543573E-1	6.192545E-1	6.398490E-1	6.168911E-1	6.661135E-1	5.900353E-1	5.986032E-1	6.457232E-1	6.769488E-1	6.219215E-1	6.282668E-1	5.865526E-1	6.428618E-1	5.700793E-1	5.649482E-1	5.361430E-1	6.728259E-1	5.955337E-1	6.188149E-1	5.846514E-1	6.699903E-1	6.434049E-1	6.038793E-1	6.609908E-1	7.123618E-1	5.893402E-1	6.306088E-1	5.956657E-1	6.527201E-1	6.208076E-1	5.598791E-1	6.140403E-1	5.916922E-1	5.989580E-1	6.341319E-1	6.121905E-1	6.109831E-1	5.741710E-1	6.121904E-1	6.195758E-1	6.620104E-1	6.368090E-1	5.734930E-1	5.989457E-1	6.388097E-1	6.125264E-1	5.487077E-1	6.162259E-1	6.562117E-1	6.691494E-1	6.119372E-1	6.384823E-1	6.593921E-1	6.324633E-1	6.741108E-1	6.272196E-1	6.452883E-1	5.782391E-1	5.940624E-1	5.782318E-1	6.853807E-1	5.444751E-1	5.810038E-1	6.147000E-1	6.467316E-1	6.455539E-1	5.853494E-1	6.174439E-1	6.793975E-1	5.661487E-1	6.457894E-1	5.766148E-1	6.722800E-1	5.872994E-1	6.063488E-1	6.098530E-1	6.760761E-1	5.660269E-1	5.779884E-1	6.045542E-1	6.999574E-1	5.795613E-1	6.472456E-1	6.129158E-1	6.244994E-1	6.520628E-1	6.216091E-1	6.659803E-1	7.008593E-1	5.762518E-1	6.274259E-1	6.289411E-1	6.625099E-1	5.826673E-1	5.899767E-1	6.136845E-1
2.888230E+2	7.028464E-1	6.875175E-1	6.362951E-1	6.864921E-1	6.478953E-1	6.189799E-1	5.798632E-1	6.921996E-1	6.385686E-1	6.585688E-1	5.755708E-1	6.861367E-1	6.284998E-1	6.867831E-1	6.826443E-1	7.187084E-1	6.968621E-1	6.905387E-1	6.301733E-1	7.195283E-1	6.317554E-1	6.167603E-1	6.232518E-1	7.150340E-1	6.626544E-1	6.124192E-1	6.456583E-1	6.789325E-1	6.513684E-1	7.000163E-1	6.070112E-1	7.161651E-1	6.625032E-1	6.616029E-1	6.865072E-1	7.371253E-1	6.384171E-1	6.166608E-1	6.137111E-1	7.092993E-1	6.099423E-1	6.198886E-1	5.783165E-1	7.361697E-1	6.996369E-1	6.501273E-1	6.401999E-1	6.773040E-1	7.129819E-1	6.799418E-1	7.251584E-1	7.351245E-1	6.214875E-1	6.755524E-1	6.506344E-1	7.175252E-1	6.255668E-1	6.299604E-1	6.258149E-1	7.197960E-1	6.744188E-1	6.556651E-1	7.142867E-1	7.011514E-1	6.972500E-1	6.648349E-1	6.775605E-1	6.915789E-1	6.011364E-1	6.578327E-1	6.220454E-1	7.349714E-1	6.215832E-1	6.303639E-1	6.163100E-1	7.263886E-1	6.278742E-1	6.254386E-1	6.780606E-1	6.744147E-1	6.673980E-1	6.470988E-1	6.767339E-1	7.311462E-1	6.131293E-1	6.268664E-1	6.272905E-1	7.044169E-1	6.168518E-1	6.053859E-1	6.121308E-1	7.328386E-1	6.414956E-1	6.780841E-1	6.456877E-1	7.049481E-1	6.938296E-1	6.727366E-1	6.857680E-1	7.418326E-1	6.263386E-1	6.278857E-1	6.336021E-1	6.962927E-1	6.342920E-1	6.333119E-1	6.167048E-1	6.972890E-1	6.647274E-1	6.703611E-1	6.925529E-1	6.976149E-1	6.243197E-1	6.726768E-1	6.800789E-1	7.093668E-1	6.125965E-1	6.656450E-1	6.593019E-1	7.077475E-1	6.543554E-1	6.497168E-1	6.162256E-1	7.624315E-1	7.154361E-1	6.755287E-1	6.855206E-1	7.170405E-1	6.708002E-1	6.992652E-1	6.784878E-1	7.129749E-1	6.104228E-1	6.539489E-1	6.255961E-1	7.144791E-1	5.994569E-1	6.648282E-1	6.626980E-1	7.242150E-1	6.707410E-1	6.741089E-1	6.855348E-1	7.130677E-1	5.811664E-1	7.005033E-1	7.154053E-1	7.489504E-1	6.125043E-1	6.304909E-1	6.137245E-1	7.278847E-1	6.639217E-1	6.112104E-1	6.222963E-1	7.254863E-1	6.465411E-1	6.533702E-1	6.270099E-1	6.943602E-1	6.698985E-1	6.828519E-1	6.609063E-1	7.447367E-1	6.050822E-1	6.249968E-1	6.776120E-1	7.011845E-1	5.904759E-1	6.916480E-1	6.434785E-1
2.890080E+2	7.662241E-1	6.954316E-1	6.685568E-1	6.994949E-1	7.321883E-1	6.189800E-1	6.609049E-1	6.785493E-1	6.681209E-1	6.321859E-1	6.425196E-1	7.504667E-1	7.039736E-1	7.619545E-1	6.866999E-1	7.610782E-1	7.063968E-1	6.968498E-1	7.181582E-1	7.291867E-1	6.739462E-1	6.491382E-1	6.385943E-1	7.396683E-1	7.278738E-1	6.366919E-1	6.418839E-1	7.477614E-1	7.031836E-1	6.668622E-1	7.113395E-1	7.781050E-1	6.750223E-1	6.893751E-1	7.068643E-1	7.182888E-1	6.477920E-1	6.325833E-1	6.521477E-1	7.543852E-1	6.434882E-1	6.365966E-1	6.204435E-1	7.743815E-1	6.735746E-1	6.710477E-1	6.708039E-1	7.241006E-1	7.352992E-1	7.343254E-1	7.007446E-1	7.207127E-1	6.832152E-1	6.789580E-1	6.286641E-1	7.488038E-1	6.535236E-1	6.964167E-1	6.335497E-1	7.119364E-1	6.637120E-1	6.419418E-1	6.395299E-1	7.668400E-1	6.911077E-1	6.794494E-1	7.179938E-1	7.234331E-1	6.334768E-1	6.430586E-1	6.918581E-1	7.599635E-1	6.060421E-1	5.963953E-1	6.578797E-1	7.525096E-1	6.537366E-1	7.146472E-1	7.008491E-1	7.103856E-1	6.621232E-1	7.030560E-1	6.901248E-1	7.115747E-1	6.427036E-1	6.807885E-1	6.309937E-1	7.379314E-1	6.230889E-1	6.276959E-1	6.263340E-1	7.841651E-1	7.303556E-1	7.149623E-1	6.269606E-1	7.530970E-1	6.920912E-1	6.772768E-1	7.314511E-1	6.792972E-1	7.017586E-1	6.578368E-1	6.800422E-1	7.665285E-1	6.312949E-1	6.931984E-1	6.520149E-1	6.802316E-1	6.201258E-1	6.971971E-1	6.803768E-1	7.174983E-1	6.822497E-1	7.212152E-1	7.578684E-1	7.353369E-1	6.696141E-1	6.490712E-1	6.666174E-1	7.590848E-1	6.853084E-1	6.845482E-1	6.683433E-1	7.333068E-1	7.294099E-1	7.159358E-1	7.271822E-1	7.559533E-1	7.492963E-1	7.148008E-1	6.922617E-1	8.037357E-1	6.747913E-1	6.940936E-1	6.797264E-1	7.363026E-1	6.249557E-1	6.618868E-1	6.906378E-1	7.224932E-1	6.565735E-1	6.925184E-1	6.964294E-1	7.533260E-1	6.145396E-1	7.083199E-1	7.346003E-1	7.706343E-1	6.331260E-1	6.593273E-1	6.924424E-1	7.573862E-1	6.117646E-1	6.545428E-1	6.550515E-1	7.172512E-1	6.965738E-1	7.411618E-1	6.858386E-1	7.313871E-1	7.555076E-1	7.397198E-1	7.355626E-1	7.497047E-1	6.245613E-1	6.316751E-1	6.915181E-1	7.686160E-1	6.165043E-1	5.816437E-1	6.375187E-1
2.892050E+2	7.111850E-1	6.954321E-1	6.462224E-1	6.630872E-1	7.018127E-1	5.992718E-1	5.862616E-1	7.275294E-1	7.025990E-1	6.461534E-1	6.122035E-1	7.228971E-1	6.951685E-1	7.080580E-1	6.698960E-1	7.309057E-1	6.997963E-1	6.652957E-1	6.714997E-1	7.351302E-1	7.187324E-1	6.074211E-1	5.965440E-1	7.183628E-1	7.498667E-1	6.097221E-1	5.997272E-1	7.101459E-1	7.301554E-1	6.375332E-1	6.427646E-1	7.294858E-1	6.977136E-1	6.653556E-1	6.464727E-1	7.603098E-1	7.227869E-1	6.471777E-1	6.719151E-1	7.288143E-1	7.398421E-1	6.101410E-1	5.789454E-1	7.345432E-1	7.133193E-1	6.952366E-1	6.175530E-1	6.963148E-1	7.047991E-1	7.049292E-1	6.792895E-1	7.287195E-1	6.529944E-1	6.687411E-1	6.564495E-1	6.920660E-1	7.015525E-1	6.314704E-1	6.968309E-1	7.425896E-1	6.929751E-1	6.851702E-1	6.657271E-1	6.842416E-1	7.095354E-1	6.714112E-1	6.542599E-1	6.997277E-1	6.468352E-1	6.340658E-1	6.380193E-1	7.049819E-1	6.549953E-1	5.873367E-1	6.347858E-1	7.137238E-1	6.874360E-1	6.597494E-1	6.426780E-1	6.405193E-1	6.665184E-1	6.702278E-1	7.246596E-1	7.431899E-1	6.490985E-1	6.660820E-1	6.482765E-1	7.351960E-1	6.363408E-1	5.956251E-1	5.787533E-1	7.383660E-1	6.951179E-1	7.208888E-1	6.352835E-1	6.673516E-1	6.529679E-1	6.969506E-1	7.089961E-1	7.332069E-1	6.640480E-1	6.326510E-1	6.283694E-1	7.294599E-1	6.073229E-1	6.418672E-1	6.333605E-1	7.078495E-1	6.760675E-1	7.488568E-1	6.797679E-1	7.047157E-1	6.321013E-1	6.592353E-1	6.685536E-1	7.361007E-1	6.258742E-1	6.530491E-1	6.397926E-1	6.982144E-1	6.702508E-1	6.476271E-1	6.128414E-1	7.393031E-1	6.796292E-1	6.920889E-1	6.855198E-1	6.975841E-1	7.401681E-1	7.088830E-1	6.716009E-1	6.929763E-1	6.515887E-1	6.710598E-1	6.756671E-1	7.326652E-1	6.249559E-1	6.368871E-1	6.476535E-1	7.474604E-1	6.675928E-1	6.616170E-1	6.719169E-1	6.728091E-1	6.112022E-1	6.793994E-1	6.851367E-1	6.931898E-1	6.613863E-1	6.003130E-1	6.388885E-1	7.465932E-1	6.069503E-1	5.960434E-1	6.045540E-1	7.197221E-1	6.529970E-1	7.173422E-1	6.662288E-1	7.488514E-1	6.663315E-1	6.945172E-1	7.159924E-1	7.530164E-1	6.424824E-1	6.426037E-1	6.296360E-1	7.686163E-1	6.425334E-1	6.499807E-1	6.643329E-1
2.894050E+2	6.152839E-1	5.951792E-1	5.362001E-1	5.937405E-1	5.962576E-1	5.007323E-1	5.101963E-1	5.765733E-1	6.343462E-1	5.677794E-1	5.042011E-1	5.950028E-1	5.618310E-1	5.839534E-1	5.290850E-1	6.230539E-1	6.000542E-1	5.818532E-1	5.875134E-1	6.155110E-1	5.817767E-1	5.439110E-1	5.391509E-1	6.031776E-1	6.550708E-1	5.200472E-1	4.852139E-1	6.069023E-1	6.243951E-1	5.348826E-1	5.730167E-1	6.116004E-1	5.654795E-1	5.940493E-1	5.982949E-1	6.270013E-1	6.035985E-1	5.821641E-1	5.176193E-1	6.191287E-1	5.963810E-1	5.161579E-1	5.110403E-1	6.426696E-1	5.934347E-1	5.873653E-1	5.496123E-1	5.785943E-1	6.252032E-1	5.601496E-1	5.838532E-1	5.950137E-1	6.221305E-1	5.495432E-1	5.375535E-1	6.338738E-1	5.954593E-1	5.144178E-1	5.477670E-1	6.427696E-1	5.959079E-1	5.849922E-1	5.475226E-1	6.068466E-1	5.866803E-1	5.720312E-1	5.699668E-1	5.649015E-1	5.800452E-1	5.190815E-1	5.356674E-1	6.135853E-1	6.301302E-1	5.360051E-1	5.490079E-1	6.274455E-1	5.667462E-1	5.650514E-1	5.533229E-1	6.515865E-1	5.513538E-1	5.724895E-1	5.865205E-1	5.986634E-1	5.611729E-1	5.645415E-1	5.556904E-1	5.772018E-1	5.731975E-1	5.349688E-1	5.482164E-1	6.167615E-1	6.200464E-1	5.825952E-1	5.610691E-1	6.370114E-1	5.834174E-1	5.826926E-1	5.618823E-1	6.189187E-1	5.651489E-1	5.441606E-1	5.538032E-1	5.980918E-1	5.563810E-1	5.206675E-1	5.367602E-1	5.876314E-1	5.445281E-1	5.911941E-1	5.628768E-1	5.726367E-1	5.283461E-1	5.920284E-1	5.929257E-1	6.169449E-1	6.102531E-1	5.509525E-1	5.215181E-1	6.336766E-1	5.606597E-1	5.501005E-1	5.282354E-1	6.082412E-1	5.652216E-1	5.655679E-1	5.551589E-1	5.880509E-1	5.786114E-1	5.505617E-1	6.012024E-1	6.175980E-1	5.161166E-1	5.414146E-1	5.322201E-1	6.075451E-1	4.839157E-1	5.185043E-1	5.717163E-1	6.364006E-1	6.117103E-1	5.478726E-1	5.568435E-1	6.201077E-1	5.961850E-1	5.957643E-1	6.201714E-1	6.072269E-1	5.613303E-1	5.500172E-1	5.524279E-1	6.264257E-1	4.986242E-1	5.144333E-1	4.776286E-1	6.332500E-1	5.497021E-1	5.832736E-1	5.681815E-1	6.265959E-1	5.423753E-1	5.888010E-1	5.855256E-1	6.131044E-1	5.489800E-1	5.308914E-1	5.357702E-1	6.287946E-1	5.293074E-1	5.783087E-1	4.498238E-1
2.896060E+2	5.285566E-1	4.905301E-1	4.592684E-1	4.715162E-1	5.393028E-1	4.329374E-1	4.234672E-1	5.332141E-1	5.140258E-1	4.769903E-1	4.227263E-1	5.161220E-1	4.888725E-1	4.981439E-1	4.607081E-1	5.331774E-1	5.157133E-1	4.815823E-1	4.828645E-1	4.988645E-1	5.363410E-1	4.704386E-1	4.402757E-1	4.919874E-1	5.648253E-1	4.519479E-1	4.462039E-1	5.380742E-1	5.292809E-1	4.947140E-1	4.317639E-1	5.556544E-1	5.247919E-1	4.979722E-1	4.992260E-1	5.429587E-1	5.399864E-1	4.746917E-1	4.292149E-1	4.798348E-1	4.957447E-1	4.437559E-1	4.249016E-1	4.963226E-1	5.178552E-1	4.781872E-1	4.480070E-1	5.120570E-1	4.920458E-1	4.910668E-1	5.298465E-1	5.101472E-1	5.153928E-1	4.868779E-1	4.703517E-1	4.971217E-1	5.008356E-1	4.132237E-1	4.612814E-1	5.327313E-1	4.966988E-1	5.122592E-1	4.983240E-1	5.600196E-1	5.454366E-1	5.084573E-1	5.192538E-1	5.211938E-1	5.413774E-1	4.728315E-1	4.540224E-1	5.121911E-1	5.314472E-1	3.971090E-1	4.322189E-1	5.356261E-1	5.056180E-1	4.381010E-1	4.633673E-1	4.855664E-1	4.959689E-1	5.053413E-1	4.878493E-1	4.977958E-1	5.164112E-1	4.482939E-1	4.803870E-1	4.828165E-1	5.264242E-1	4.401499E-1	4.608657E-1	5.117391E-1	5.365491E-1	4.857902E-1	4.341408E-1	5.360955E-1	5.182132E-1	5.070244E-1	5.014871E-1	5.491954E-1	5.395340E-1	4.536278E-1	4.641933E-1	5.154991E-1	5.084359E-1	4.522260E-1	4.221713E-1	5.023420E-1	5.226057E-1	4.885453E-1	5.044317E-1	5.619853E-1	4.816567E-1	4.979384E-1	4.992897E-1	5.023714E-1	5.016865E-1	4.581376E-1	4.770134E-1	5.163353E-1	5.221769E-1	4.734728E-1	4.679954E-1	5.302897E-1	4.962274E-1	5.172121E-1	5.161843E-1	5.188725E-1	5.119789E-1	5.017344E-1	4.634664E-1	5.614499E-1	4.959078E-1	4.644169E-1	4.835028E-1	5.369830E-1	4.568229E-1	4.802687E-1	4.621080E-1	5.675259E-1	5.259195E-1	4.919873E-1	4.710491E-1	5.183643E-1	5.169233E-1	4.941517E-1	4.791659E-1	5.297822E-1	4.719671E-1	4.386949E-1	4.614507E-1	5.487124E-1	4.440599E-1	4.407683E-1	4.865001E-1	5.558382E-1	4.883723E-1	4.709811E-1	4.817773E-1	5.176128E-1	5.102719E-1	5.078731E-1	5.326141E-1	5.410787E-1	4.593735E-1	4.604651E-1	4.342563E-1	5.554126E-1	4.564256E-1	4.566363E-1	3.902377E-1
2.898050E+2	4.668461E-1	4.219364E-1	4.137709E-1	4.021682E-1	4.238747E-1	3.509522E-1	3.538004E-1	4.432832E-1	4.401441E-1	3.869762E-1	3.532510E-1	4.096715E-1	4.052221E-1	4.343186E-1	4.265190E-1	3.970788E-1	4.130386E-1	3.883234E-1	4.042109E-1	4.542864E-1	4.571534E-1	3.571166E-1	3.681081E-1	4.007716E-1	3.881258E-1	3.548559E-1	3.392409E-1	4.020160E-1	4.441054E-1	4.048150E-1	3.872190E-1	4.091312E-1	4.340280E-1	4.184075E-1	4.177991E-1	4.292112E-1	4.355299E-1	3.546151E-1	3.572829E-1	4.387869E-1	4.265115E-1	3.852768E-1	4.041531E-1	4.475402E-1	4.259866E-1	3.945051E-1	3.696609E-1	4.162720E-1	4.481568E-1	4.322736E-1	4.025983E-1	4.356882E-1	4.170136E-1	3.799398E-1	3.876409E-1	3.807379E-1	4.363188E-1	3.898125E-1	3.762018E-1	4.391993E-1	4.303216E-1	4.230591E-1	3.801199E-1	4.566096E-1	4.146838E-1	4.061535E-1	4.137161E-1	4.234081E-1	4.120163E-1	3.880389E-1	3.824344E-1	4.622079E-1	4.451953E-1	3.480417E-1	3.853705E-1	4.137281E-1	3.974680E-1	4.017310E-1	3.836072E-1	4.551294E-1	4.247597E-1	4.158101E-1	4.230077E-1	4.405877E-1	4.596597E-1	3.817680E-1	4.001461E-1	4.424632E-1	4.274217E-1	3.843738E-1	3.380068E-1	4.311960E-1	4.361985E-1	4.080822E-1	4.174947E-1	3.942858E-1	4.330128E-1	4.260601E-1	4.039277E-1	4.277195E-1	4.164429E-1	3.937263E-1	3.713133E-1	4.244519E-1	4.567446E-1	3.738024E-1	3.575485E-1	4.162399E-1	4.379363E-1	4.060230E-1	3.759736E-1	4.064733E-1	3.804954E-1	4.307313E-1	4.279823E-1	4.114778E-1	3.790605E-1	3.971441E-1	3.721514E-1	4.305295E-1	4.619431E-1	3.717663E-1	3.766204E-1	4.412019E-1	4.316000E-1	4.039400E-1	3.878394E-1	4.612236E-1	4.252680E-1	4.003794E-1	4.121977E-1	4.653037E-1	4.607295E-1	4.012393E-1	4.097497E-1	4.278665E-1	4.488548E-1	3.883571E-1	4.026473E-1	4.314989E-1	4.440637E-1	4.045419E-1	4.002347E-1	4.268674E-1	4.143002E-1	4.167702E-1	4.178915E-1	4.693753E-1	4.475260E-1	3.749862E-1	3.995095E-1	4.558882E-1	4.215924E-1	3.779358E-1	3.786821E-1	4.430130E-1	4.076733E-1	3.716202E-1	4.021132E-1	4.079318E-1	4.335805E-1	4.087190E-1	4.441863E-1	4.500118E-1	4.375568E-1	3.791100E-1	3.619447E-1	4.463311E-1	4.329995E-1	4.099666E-1	4.140723E-1
2.900020E+2	4.660124E-1	4.535947E-1	4.485146E-1	4.359749E-1	4.664008E-1	4.140176E-1	3.978761E-1	4.866429E-1	4.647717E-1	4.079276E-1	3.848310E-1	4.854893E-1	4.957915E-1	4.449559E-1	4.352109E-1	4.882391E-1	4.951785E-1	4.710646E-1	4.275409E-1	4.854914E-1	4.552061E-1	4.305890E-1	3.936797E-1	4.926533E-1	4.745795E-1	4.175609E-1	3.694423E-1	4.468354E-1	4.824342E-1	4.494462E-1	4.393835E-1	4.823930E-1	4.621960E-1	4.469309E-1	4.313707E-1	4.944170E-1	4.656616E-1	4.176385E-1	4.231745E-1	4.616660E-1	4.807562E-1	3.720492E-1	3.890624E-1	4.816878E-1	4.676862E-1	4.605347E-1	4.247479E-1	4.747665E-1	4.712165E-1	4.418272E-1	4.329311E-1	4.813242E-1	4.883866E-1	4.500969E-1	4.225344E-1	4.491132E-1	4.900826E-1	4.026509E-1	3.979996E-1	5.060080E-1	4.581576E-1	4.388408E-1	4.229289E-1	4.904294E-1	4.682133E-1	4.989569E-1	4.541494E-1	4.441507E-1	4.338105E-1	3.925353E-1	4.220738E-1	4.407870E-1	4.459723E-1	3.759722E-1	4.506934E-1	4.564711E-1	4.883766E-1	4.456491E-1	4.363810E-1	4.419860E-1	4.915731E-1	4.434159E-1	4.815056E-1	4.947854E-1	4.564616E-1	4.244847E-1	4.124908E-1	4.636657E-1	4.835496E-1	4.178398E-1	4.502133E-1	4.738372E-1	4.653080E-1	4.594482E-1	3.959929E-1	4.912442E-1	4.460536E-1	4.570837E-1	4.132183E-1	4.952859E-1	4.925749E-1	4.406946E-1	4.308349E-1	4.959890E-1	4.702296E-1	4.401054E-1	3.782006E-1	4.519801E-1	4.598597E-1	4.516453E-1	4.605976E-1	4.831638E-1	4.185392E-1	4.665757E-1	4.503110E-1	4.641815E-1	4.704439E-1	4.448778E-1	3.599589E-1	4.789333E-1	4.636160E-1	4.038105E-1	4.043714E-1	4.609040E-1	4.560540E-1	4.516337E-1	4.725068E-1	4.417671E-1	4.599526E-1	4.529066E-1	4.672925E-1	4.876103E-1	4.727048E-1	4.525710E-1	4.077202E-1	4.751497E-1	4.592134E-1	4.162982E-1	3.983488E-1	4.857372E-1	4.842042E-1	4.268967E-1	4.220242E-1	4.744460E-1	4.501763E-1	4.503801E-1	4.415148E-1	5.150674E-1	4.887703E-1	4.433890E-1	4.027353E-1	4.709991E-1	4.665276E-1	3.967131E-1	4.319085E-1	4.924251E-1	4.827226E-1	4.349120E-1	4.352047E-1	4.770933E-1	4.683591E-1	4.641286E-1	4.434612E-1	4.566344E-1	4.733989E-1	4.264658E-1	4.370373E-1	5.097966E-1	4.772485E-1	4.366352E-1	3.842793E-1
2.905110E+2	5.277227E-1	5.327411E-1	5.089023E-1	4.914522E-1	5.408216E-1	4.313607E-1	4.220457E-1	5.027020E-1	5.076929E-1	4.676782E-1	4.454635E-1	5.628385E-1	5.366729E-1	5.130359E-1	5.296642E-1	5.209796E-1	5.223144E-1	5.453916E-1	5.468535E-1	5.263547E-1	5.227102E-1	4.654574E-1	4.567553E-1	4.966481E-1	5.314573E-1	4.634101E-1	4.713718E-1	5.316706E-1	4.838539E-1	4.889766E-1	5.044419E-1	5.396707E-1	5.474827E-1	5.039764E-1	5.039761E-1	5.393361E-1	5.573965E-1	4.912767E-1	4.506294E-1	5.350144E-1	5.100186E-1	4.771722E-1	4.663991E-1	5.760006E-1	5.243706E-1	4.801482E-1	5.116632E-1	5.244867E-1	5.121314E-1	5.160540E-1	5.239281E-1	5.437731E-1	5.411127E-1	5.032255E-1	4.580736E-1	5.647707E-1	5.273589E-1	4.842102E-1	4.943291E-1	5.539532E-1	5.702131E-1	4.752069E-1	4.842675E-1	5.463618E-1	5.243752E-1	5.069952E-1	5.007501E-1	5.152673E-1	5.392681E-1	4.516330E-1	4.652629E-1	5.450372E-1	5.244533E-1	4.522144E-1	4.935828E-1	5.166289E-1	5.173739E-1	4.559425E-1	5.065458E-1	5.194620E-1	4.862984E-1	4.635602E-1	5.160406E-1	5.060760E-1	5.595744E-1	4.630003E-1	4.637220E-1	5.450565E-1	5.654013E-1	4.631571E-1	4.274873E-1	5.377976E-1	5.572316E-1	5.154240E-1	4.320600E-1	4.971804E-1	5.764621E-1	5.115644E-1	5.363308E-1	5.261941E-1	5.402456E-1	4.883434E-1	4.681182E-1	5.415124E-1	5.249166E-1	4.622065E-1	4.741357E-1	5.453933E-1	5.097534E-1	5.120267E-1	4.892117E-1	5.605648E-1	4.738748E-1	5.464772E-1	5.244995E-1	5.627136E-1	5.360528E-1	4.800156E-1	4.721361E-1	5.471369E-1	5.514569E-1	4.463046E-1	4.889781E-1	5.320026E-1	4.743933E-1	4.999898E-1	5.417196E-1	5.015774E-1	5.694837E-1	5.032135E-1	5.262129E-1	5.406822E-1	5.265949E-1	4.736297E-1	4.733530E-1	5.566235E-1	5.460691E-1	4.640928E-1	4.871819E-1	5.520294E-1	5.511057E-1	4.755501E-1	5.418638E-1	5.139721E-1	5.352783E-1	5.316702E-1	5.175551E-1	5.677297E-1	5.177942E-1	4.460712E-1	4.588704E-1	5.098563E-1	5.443622E-1	4.624345E-1	4.742169E-1	5.385436E-1	5.601934E-1	5.315509E-1	4.903561E-1	5.406671E-1	5.272164E-1	4.889176E-1	5.304392E-1	5.410787E-1	5.653427E-1	4.707860E-1	4.891851E-1	5.097968E-1	5.683509E-1	4.549694E-1	5.392026E-1
2.910040E+2	7.211922E-1	7.024668E-1	6.495313E-1	6.630875E-1	7.618045E-1	6.150382E-1	6.161190E-1	7.283326E-1	7.342622E-1	6.880562E-1	6.469405E-1	7.221311E-1	6.794448E-1	6.988391E-1	6.641007E-1	7.540169E-1	6.939292E-1	6.456625E-1	6.541692E-1	7.321580E-1	7.382049E-1	6.279680E-1	6.522322E-1	7.190284E-1	7.286327E-1	6.103963E-1	6.047612E-1	7.085450E-1	7.464814E-1	6.655873E-1	6.779314E-1	7.521302E-1	7.157103E-1	6.443389E-1	7.211133E-1	7.132174E-1	7.254651E-1	6.604458E-1	6.274381E-1	7.288141E-1	7.669639E-1	6.352040E-1	6.078680E-1	7.337301E-1	7.380783E-1	6.782391E-1	6.157167E-1	7.496914E-1	7.367865E-1	7.086039E-1	6.948261E-1	7.535390E-1	7.160086E-1	6.510315E-1	6.545117E-1	6.978854E-1	7.201904E-1	6.571473E-1	6.159712E-1	7.040765E-1	7.165285E-1	6.982070E-1	6.650879E-1	7.310690E-1	7.148002E-1	6.772573E-1	6.837287E-1	7.160250E-1	6.763626E-1	6.359925E-1	6.593191E-1	7.421119E-1	7.381387E-1	5.926207E-1	6.578800E-1	7.335133E-1	6.858682E-1	6.309285E-1	6.324834E-1	7.318304E-1	6.999256E-1	6.761959E-1	6.682765E-1	7.665247E-1	7.154418E-1	6.835893E-1	6.883970E-1	7.222007E-1	7.439183E-1	6.207240E-1	6.057398E-1	7.004633E-1	7.372502E-1	7.314254E-1	6.574785E-1	7.122034E-1	7.251286E-1	7.052743E-1	6.981562E-1	7.526139E-1	7.387574E-1	6.319702E-1	6.381804E-1	7.333616E-1	6.695022E-1	6.653941E-1	6.180376E-1	6.972899E-1	7.070617E-1	6.435247E-1	6.730709E-1	7.437716E-1	6.822496E-1	6.741705E-1	6.995256E-1	7.254072E-1	7.352226E-1	6.663078E-1	6.300381E-1	7.348826E-1	7.706394E-1	6.406612E-1	6.243481E-1	7.033255E-1	6.743892E-1	6.768536E-1	7.204624E-1	7.581153E-1	7.602492E-1	6.622744E-1	6.754270E-1	7.168202E-1	7.503862E-1	6.677692E-1	6.486012E-1	7.457590E-1	7.763546E-1	6.493870E-1	6.469378E-1	7.474604E-1	7.714868E-1	6.372902E-1	6.773641E-1	7.145312E-1	7.480323E-1	6.708010E-1	7.176193E-1	7.435288E-1	7.209629E-1	6.090308E-1	6.298548E-1	7.573865E-1	7.024380E-1	6.502090E-1	6.359436E-1	7.221928E-1	7.030297E-1	7.016895E-1	6.711315E-1	7.041411E-1	7.100274E-1	7.076401E-1	6.942481E-1	7.422526E-1	7.297517E-1	6.213541E-1	6.915178E-1	6.803595E-1	7.310313E-1	6.399801E-1	6.315610E-1
2.915140E+2	7.462098E-1	7.394022E-1	6.842741E-1	7.168317E-1	7.936988E-1	7.774316E-1	6.132757E-1	6.938049E-1	8.067367E-1	7.462542E-1	6.437832E-1	7.412763E-1	7.335344E-1	7.364246E-1	6.785879E-1	7.784116E-1	7.628683E-1	6.884354E-1	7.101597E-1	7.492469E-1	7.167855E-1	7.182525E-1	6.425720E-1	7.689637E-1	7.642754E-1	6.515259E-1	6.242658E-1	7.349560E-1	7.145407E-1	7.172313E-1	6.767589E-1	7.221595E-1	7.650045E-1	7.111432E-1	7.034709E-1	7.429224E-1	7.489007E-1	6.830018E-1	6.817993E-1	7.981244E-1	7.462665E-1	6.755817E-1	6.242157E-1	7.410474E-1	7.426387E-1	7.174644E-1	6.230615E-1	7.153255E-1	7.040555E-1	7.409401E-1	7.495724E-1	7.575424E-1	7.423719E-1	6.762338E-1	6.493417E-1	7.458941E-1	7.187569E-1	6.798027E-1	6.504243E-1	7.928932E-1	7.372277E-1	7.181053E-1	6.663660E-1	7.564336E-1	7.578005E-1	7.269475E-1	7.515748E-1	7.641774E-1	7.417462E-1	6.604024E-1	6.687848E-1	7.699597E-1	7.311454E-1	6.311193E-1	6.869120E-1	7.445938E-1	7.744262E-1	6.734743E-1	7.002496E-1	7.394398E-1	7.509150E-1	7.172311E-1	7.021063E-1	7.605031E-1	7.426192E-1	6.828890E-1	6.791384E-1	7.611861E-1	7.563917E-1	6.548875E-1	6.320156E-1	7.502109E-1	7.426119E-1	7.202304E-1	6.602534E-1	7.445225E-1	7.659895E-1	7.022473E-1	6.818963E-1	7.619588E-1	7.003357E-1	7.190994E-1	6.741550E-1	7.444178E-1	7.331796E-1	6.960502E-1	6.360253E-1	7.273439E-1	7.176449E-1	6.985387E-1	6.858556E-1	7.444820E-1	7.012712E-1	7.040399E-1	7.384203E-1	7.422112E-1	7.203820E-1	6.616672E-1	6.849072E-1	7.121482E-1	7.714761E-1	6.601662E-1	6.419466E-1	7.358771E-1	7.049553E-1	6.616182E-1	7.137426E-1	7.804542E-1	7.319534E-1	7.532710E-1	6.953227E-1	7.883526E-1	7.967913E-1	6.967256E-1	7.189715E-1	7.479414E-1	7.397005E-1	6.493870E-1	6.970848E-1	7.388510E-1	7.415780E-1	6.859437E-1	7.100475E-1	7.313671E-1	8.089389E-1	7.513101E-1	7.272174E-1	7.489502E-1	7.904674E-1	6.593273E-1	6.756666E-1	7.739363E-1	7.401515E-1	6.458759E-1	6.618746E-1	7.625458E-1	7.813072E-1	7.084953E-1	7.036099E-1	7.460571E-1	8.223894E-1	6.558762E-1	7.391863E-1	7.571549E-1	7.406604E-1	6.948165E-1	6.699641E-1	7.705994E-1	7.948038E-1	6.233123E-1	6.434772E-1
2.920030E+2	5.485710E-1	5.811093E-1	5.213110E-1	5.139905E-1	5.917004E-1	5.937540E-1	4.583009E-1	5.581053E-1	5.295055E-1	5.910588E-1	4.833588E-1	5.306730E-1	5.580569E-1	5.733156E-1	4.919987E-1	5.826098E-1	5.413826E-1	5.657269E-1	5.228581E-1	5.315553E-1	5.629532E-1	5.395520E-1	4.948274E-1	5.545737E-1	5.610337E-1	5.463432E-1	4.619341E-1	5.444764E-1	5.654819E-1	5.450834E-1	5.179221E-1	5.669770E-1	5.224447E-1	5.700300E-1	5.148325E-1	5.451319E-1	5.594053E-1	5.529739E-1	4.775351E-1	5.774079E-1	5.871022E-1	5.286890E-1	4.682856E-1	5.686830E-1	5.921317E-1	5.710215E-1	5.098268E-1	5.712827E-1	5.203140E-1	5.410413E-1	5.616588E-1	5.613874E-1	5.751914E-1	5.509049E-1	4.910291E-1	5.793189E-1	5.409786E-1	5.197040E-1	4.936255E-1	5.814621E-1	5.409501E-1	5.335303E-1	4.989630E-1	5.561171E-1	5.515789E-1	5.274559E-1	5.357011E-1	5.426775E-1	5.561412E-1	5.062340E-1	4.995776E-1	5.286144E-1	5.757375E-1	4.982614E-1	5.028202E-1	5.736201E-1	5.683133E-1	4.737844E-1	5.215388E-1	5.402145E-1	5.320127E-1	5.329469E-1	5.019446E-1	5.730695E-1	5.595744E-1	5.022163E-1	5.205079E-1	5.142786E-1	5.560472E-1	4.896508E-1	4.999247E-1	5.520110E-1	6.039600E-1	5.516442E-1	5.028069E-1	5.657767E-1	5.469031E-1	5.441019E-1	5.270395E-1	6.045433E-1	5.893394E-1	4.958315E-1	4.929737E-1	5.850850E-1	5.443951E-1	5.135383E-1	5.081126E-1	5.283354E-1	5.588917E-1	5.120273E-1	5.220867E-1	5.378415E-1	5.309399E-1	5.166074E-1	5.410656E-1	5.634771E-1	5.594848E-1	4.793529E-1	4.989608E-1	5.398039E-1	5.581490E-1	4.874052E-1	4.835626E-1	5.020210E-1	5.599809E-1	5.059516E-1	5.558307E-1	5.563443E-1	5.804367E-1	5.416841E-1	4.971356E-1	5.729869E-1	5.445579E-1	5.229877E-1	4.814729E-1	5.595330E-1	5.691770E-1	4.611514E-1	5.337474E-1	5.158700E-1	5.747176E-1	5.347236E-1	5.418634E-1	5.483749E-1	5.569710E-1	5.285441E-1	5.205080E-1	5.359782E-1	5.865354E-1	4.816145E-1	4.691936E-1	5.825325E-1	6.262084E-1	5.086559E-1	4.981005E-1	5.772502E-1	5.561589E-1	5.077311E-1	5.062885E-1	5.602281E-1	5.281073E-1	5.589085E-1	5.420361E-1	5.841282E-1	5.824855E-1	5.053930E-1	5.635822E-1	6.030110E-1	6.529457E-1	4.216339E-1	4.557823E-1
2.925020E+2	5.585779E-1	5.907825E-1	5.353731E-1	5.408624E-1	5.673998E-1	6.063673E-1	4.952678E-1	5.613175E-1	6.223853E-1	6.143381E-1	4.808325E-1	6.149142E-1	5.404464E-1	5.960092E-1	5.754423E-1	6.127825E-1	5.934536E-1	5.881647E-1	5.361890E-1	5.820774E-1	6.051434E-1	5.806469E-1	4.971006E-1	5.911932E-1	5.830263E-1	6.218585E-1	5.034606E-1	5.420750E-1	5.590938E-1	6.018286E-1	5.355051E-1	5.956160E-1	6.241637E-1	5.993033E-1	5.528319E-1	6.146845E-1	5.962332E-1	6.325825E-1	4.901641E-1	6.083618E-1	5.871021E-1	5.711558E-1	4.871479E-1	5.873831E-1	6.181932E-1	6.102478E-1	5.453274E-1	5.924872E-1	5.850327E-1	5.579447E-1	5.505616E-1	5.541817E-1	6.202014E-1	6.244677E-1	4.936134E-1	6.171440E-1	5.639174E-1	6.148572E-1	5.315943E-1	5.885362E-1	6.001908E-1	5.795022E-1	5.104643E-1	5.970912E-1	5.989662E-1	5.588772E-1	5.912114E-1	5.923109E-1	6.011367E-1	5.595506E-1	4.948448E-1	5.314704E-1	5.990488E-1	5.609153E-1	5.113979E-1	6.084481E-1	5.604771E-1	5.636790E-1	5.353317E-1	6.190746E-1	5.724523E-1	5.426458E-1	5.364801E-1	5.851134E-1	5.843529E-1	5.526365E-1	5.297664E-1	5.881452E-1	5.778745E-1	5.454268E-1	4.949535E-1	5.772796E-1	6.047263E-1	5.661317E-1	5.354056E-1	5.954576E-1	5.442947E-1	6.091761E-1	5.742699E-1	6.203565E-1	6.170888E-1	5.189746E-1	5.217533E-1	5.772809E-1	6.073231E-1	5.099734E-1	5.354272E-1	5.640754E-1	5.498204E-1	5.583194E-1	5.513099E-1	6.116926E-1	5.067305E-1	5.300489E-1	5.302612E-1	5.764625E-1	5.813548E-1	5.045444E-1	5.410275E-1	5.610711E-1	5.271959E-1	5.208425E-1	4.916854E-1	6.339396E-1	5.704612E-1	5.397342E-1	5.309677E-1	6.161549E-1	5.603561E-1	5.764556E-1	5.560563E-1	5.860626E-1	5.670116E-1	5.374653E-1	5.288373E-1	5.951782E-1	5.723645E-1	5.148271E-1	5.351804E-1	6.062669E-1	6.361097E-1	5.057941E-1	5.418633E-1	5.637468E-1	6.295583E-1	5.129110E-1	5.559434E-1	5.545643E-1	5.850079E-1	5.272160E-1	5.401687E-1	6.213888E-1	6.053459E-1	5.599329E-1	5.062899E-1	5.500726E-1	5.618074E-1	5.846342E-1	5.718579E-1	5.686112E-1	5.726960E-1	5.377656E-1	5.717535E-1	6.081367E-1	6.113153E-1	5.151065E-1	5.559346E-1	5.603701E-1	5.826675E-1	5.533076E-1	5.034511E-1
2.930050E+2	6.594819E-1	6.505824E-1	6.139604E-1	6.041420E-1	7.177598E-1	7.309208E-1	5.798632E-1	6.681106E-1	6.667136E-1	6.872796E-1	5.559919E-1	6.493773E-1	6.568026E-1	6.931655E-1	6.131080E-1	6.846836E-1	6.741272E-1	6.652961E-1	6.428373E-1	6.972385E-1	6.862784E-1	6.877419E-1	5.908614E-1	6.291443E-1	6.899557E-1	6.609651E-1	5.720433E-1	6.309126E-1	6.605949E-1	7.121307E-1	6.415921E-1	6.562237E-1	6.625035E-1	6.608528E-1	6.369724E-1	6.668485E-1	6.464529E-1	6.830022E-1	5.868053E-1	6.749809E-1	6.649000E-1	6.686202E-1	5.481370E-1	6.573044E-1	6.911667E-1	6.906604E-1	6.028632E-1	6.407449E-1	6.482632E-1	6.939051E-1	6.519164E-1	6.550614E-1	6.729273E-1	6.680597E-1	6.254338E-1	6.920667E-1	6.506570E-1	6.662098E-1	6.215963E-1	6.679212E-1	6.836975E-1	7.160472E-1	6.248348E-1	6.530233E-1	6.990054E-1	6.465667E-1	6.090299E-1	6.523161E-1	6.672236E-1	6.546203E-1	6.196793E-1	6.664234E-1	6.954015E-1	7.050965E-1	6.097125E-1	6.820622E-1	6.874359E-1	6.480833E-1	6.090949E-1	6.730309E-1	6.498156E-1	6.277001E-1	6.062544E-1	6.731845E-1	6.482990E-1	6.688831E-1	5.816148E-1	6.702195E-1	6.550500E-1	6.778946E-1	5.894057E-1	6.412403E-1	6.774993E-1	6.826937E-1	6.068467E-1	6.891183E-1	6.842666E-1	6.318762E-1	6.462793E-1	6.620464E-1	6.740094E-1	6.768958E-1	6.159418E-1	6.975933E-1	6.620098E-1	6.539868E-1	6.193701E-1	6.761703E-1	7.063059E-1	6.844496E-1	6.085379E-1	6.990350E-1	6.243202E-1	6.577415E-1	6.361420E-1	6.734673E-1	6.493063E-1	6.331594E-1	5.989447E-1	6.688787E-1	6.844719E-1	6.253361E-1	5.546321E-1	7.221707E-1	6.569216E-1	6.351210E-1	6.223551E-1	6.514644E-1	6.881416E-1	6.637535E-1	6.386977E-1	6.852849E-1	6.987422E-1	6.131471E-1	6.188296E-1	6.708323E-1	6.679843E-1	5.957099E-1	6.061035E-1	6.501754E-1	6.573609E-1	6.412352E-1	6.249340E-1	7.086760E-1	7.146592E-1	6.278112E-1	6.371508E-1	7.202956E-1	6.995764E-1	5.801952E-1	5.595256E-1	6.645624E-1	6.703408E-1	5.722102E-1	6.427681E-1	6.851331E-1	6.400852E-1	6.554121E-1	6.319122E-1	7.006477E-1	7.082444E-1	6.522310E-1	6.130688E-1	7.000312E-1	6.939088E-1	5.691413E-1	6.205975E-1	6.615182E-1	6.906876E-1	5.883102E-1	5.898506E-1
2.935140E+2	8.162590E-1	8.458108E-1	7.223268E-1	7.723096E-1	7.716765E-1	7.797965E-1	6.452654E-1	7.500129E-1	8.074399E-1	8.370448E-1	6.823100E-1	8.109676E-1	7.945426E-1	8.037958E-1	7.527602E-1	8.028068E-1	7.797364E-1	7.823958E-1	7.488197E-1	8.443474E-1	8.018145E-1	8.496307E-1	6.988284E-1	7.922671E-1	8.332871E-1	7.755876E-1	6.752312E-1	7.981822E-1	7.663558E-1	7.484726E-1	7.400591E-1	7.554602E-1	8.033445E-1	8.387457E-1	7.896481E-1	7.820451E-1	7.977817E-1	8.196635E-1	6.922316E-1	7.738996E-1	8.240641E-1	8.127285E-1	6.569109E-1	7.857638E-1	7.550184E-1	8.671767E-1	6.769241E-1	8.008745E-1	7.903464E-1	8.181067E-1	7.488323E-1	8.071812E-1	7.623047E-1	8.104172E-1	7.514379E-1	7.917203E-1	8.169647E-1	7.794870E-1	7.333949E-1	8.062550E-1	8.878249E-1	8.141664E-1	7.724299E-1	7.896027E-1	8.104531E-1	7.744456E-1	7.755602E-1	7.463980E-1	7.895541E-1	7.741009E-1	7.362306E-1	7.785281E-1	8.026329E-1	8.205915E-1	7.363989E-1	7.778394E-1	8.049904E-1	7.640543E-1	7.284353E-1	8.293675E-1	7.966290E-1	8.455592E-1	7.634234E-1	8.237335E-1	8.097619E-1	8.033373E-1	7.346896E-1	7.639215E-1	7.805571E-1	7.936295E-1	6.959300E-1	7.786376E-1	8.199818E-1	7.893773E-1	6.970140E-1	7.775018E-1	8.468422E-1	8.346665E-1	7.415170E-1	8.022117E-1	7.985243E-1	8.014642E-1	7.160167E-1	8.016472E-1	7.946097E-1	8.692942E-1	7.399550E-1	7.671457E-1	7.871941E-1	7.897827E-1	7.095993E-1	8.247238E-1	7.142411E-1	8.026105E-1	7.729936E-1	7.727635E-1	7.688073E-1	8.380154E-1	7.312411E-1	8.118878E-1	8.258530E-1	7.855579E-1	7.008325E-1	8.558035E-1	8.018970E-1	8.590168E-1	7.661556E-1	7.854983E-1	8.305313E-1	7.850832E-1	8.078070E-1	8.298874E-1	8.379571E-1	8.086027E-1	7.629526E-1	8.512381E-1	8.512571E-1	8.376220E-1	6.949356E-1	8.473288E-1	8.250070E-1	8.148100E-1	7.638386E-1	8.375028E-1	8.331338E-1	7.935184E-1	8.468136E-1	8.147780E-1	8.095626E-1	7.418133E-1	7.305102E-1	7.703390E-1	8.131709E-1	7.361523E-1	6.925826E-1	7.954874E-1	8.361824E-1	7.867588E-1	7.520209E-1	8.033431E-1	8.027709E-1	7.455516E-1	7.761526E-1	8.449104E-1	7.726072E-1	7.014950E-1	7.255880E-1	8.925711E-1	7.856934E-1	7.916554E-1	6.881679E-1
2.940080E+2	8.779691E-1	8.581229E-1	8.249040E-1	8.433903E-1	9.584866E-1	9.555913E-1	7.327055E-1	8.632299E-1	9.115771E-1	9.224025E-1	7.530478E-1	8.890816E-1	8.656146E-1	9.137180E-1	8.101275E-1	9.093747E-1	8.692107E-1	8.742522E-1	8.488030E-1	9.483631E-1	9.069651E-1	8.726687E-1	7.624725E-1	9.247631E-1	9.015392E-1	8.956042E-1	7.475880E-1	8.510045E-1	9.061875E-1	9.021312E-1	7.892925E-1	8.853340E-1	8.573334E-1	9.265659E-1	8.100042E-1	8.834757E-1	8.962126E-1	8.952914E-1	7.361597E-1	8.647438E-1	9.047161E-1	8.600691E-1	7.694573E-1	8.711336E-1	8.788119E-1	9.188240E-1	7.803660E-1	8.981216E-1	8.468826E-1	8.938040E-1	8.087574E-1	8.592220E-1	9.423446E-1	8.907913E-1	7.947312E-1	9.081044E-1	8.492228E-1	9.116433E-1	8.423806E-1	9.123629E-1	8.742643E-1	9.047390E-1	8.261015E-1	9.404903E-1	9.280427E-1	9.702836E-1	8.207909E-1	8.804838E-1	8.886838E-1	8.614630E-1	7.800113E-1	8.413637E-1	8.974313E-1	8.953245E-1	7.944637E-1	8.751998E-1	8.904131E-1	8.971814E-1	7.848075E-1	8.840156E-1	8.854208E-1	9.074846E-1	8.064158E-1	8.538426E-1	8.561221E-1	9.027772E-1	7.655517E-1	9.321744E-1	9.146396E-1	8.877514E-1	7.761794E-1	9.120873E-1	9.050113E-1	9.033045E-1	8.086828E-1	8.896308E-1	9.407370E-1	8.573665E-1	8.026858E-1	8.669027E-1	9.244616E-1	9.076521E-1	7.670357E-1	8.952958E-1	8.695241E-1	9.284681E-1	7.765963E-1	9.141688E-1	8.249935E-1	9.273185E-1	7.564779E-1	8.715897E-1	8.984059E-1	8.802719E-1	8.551055E-1	8.873368E-1	8.726879E-1	9.281792E-1	7.739178E-1	9.006272E-1	8.802303E-1	8.545232E-1	8.043898E-1	8.806446E-1	8.970912E-1	8.967745E-1	8.320088E-1	8.424265E-1	9.254579E-1	8.457484E-1	8.873878E-1	8.791136E-1	9.060672E-1	9.125826E-1	7.906945E-1	8.548752E-1	8.783496E-1	9.104164E-1	8.045448E-1	8.430235E-1	9.052887E-1	8.726681E-1	8.080978E-1	8.770285E-1	9.140638E-1	9.435928E-1	8.135926E-1	8.914486E-1	9.714857E-1	8.517942E-1	7.814833E-1	8.847500E-1	9.062510E-1	9.383710E-1	7.628689E-1	9.338428E-1	9.233370E-1	9.038149E-1	8.378129E-1	8.536420E-1	9.017576E-1	9.190724E-1	8.812512E-1	9.326651E-1	8.972772E-1	8.799909E-1	8.347501E-1	9.044714E-1	8.689869E-1	8.599922E-1	6.762501E-1
2.945030E+2	8.079197E-1	8.801077E-1	7.305993E-1	7.376358E-1	7.807888E-1	7.821617E-1	6.495301E-1	8.078253E-1	8.025141E-1	7.974690E-1	7.025206E-1	8.339420E-1	7.775611E-1	8.888964E-1	7.365345E-1	7.951034E-1	8.266741E-1	7.732801E-1	7.461531E-1	8.123995E-1	8.005167E-1	7.886114E-1	7.028062E-1	7.689636E-1	8.188772E-1	8.086255E-1	6.657930E-1	8.069862E-1	7.684859E-1	7.924663E-1	7.213033E-1	8.060777E-1	8.111684E-1	8.019657E-1	7.781123E-1	7.682792E-1	7.723370E-1	8.077221E-1	6.922320E-1	7.718804E-1	8.026512E-1	7.744386E-1	6.839471E-1	8.003993E-1	7.921562E-1	8.102997E-1	7.032441E-1	7.570030E-1	8.052248E-1	8.048781E-1	8.065380E-1	7.383271E-1	8.407504E-1	7.974755E-1	7.107285E-1	8.069958E-1	8.004779E-1	8.859678E-1	7.115975E-1	8.204031E-1	7.714867E-1	8.175976E-1	7.372882E-1	8.045615E-1	7.972892E-1	8.014830E-1	7.543158E-1	7.523245E-1	7.452618E-1	8.042925E-1	7.202569E-1	8.170861E-1	8.080717E-1	8.024754E-1	7.119856E-1	8.308726E-1	7.791285E-1	7.832693E-1	7.074463E-1	8.113820E-1	7.904758E-1	7.955711E-1	7.556713E-1	8.297555E-1	7.921768E-1	8.201443E-1	7.248140E-1	8.097468E-1	8.203136E-1	7.978126E-1	6.554507E-1	8.125919E-1	7.870423E-1	7.814744E-1	7.358552E-1	7.676075E-1	8.042424E-1	7.816990E-1	7.817802E-1	7.590834E-1	8.312530E-1	7.926146E-1	7.022812E-1	7.593756E-1	7.631455E-1	8.079814E-1	7.166369E-1	7.712079E-1	8.189458E-1	7.636170E-1	7.284727E-1	8.034202E-1	7.816816E-1	8.257595E-1	7.902807E-1	8.254676E-1	8.078603E-1	8.214417E-1	6.897847E-1	7.752190E-1	8.375650E-1	8.155128E-1	6.778190E-1	8.138286E-1	8.053901E-1	8.431194E-1	7.762354E-1	8.208085E-1	8.615644E-1	8.265136E-1	7.266959E-1	8.021973E-1	7.885576E-1	8.191326E-1	7.555099E-1	7.675819E-1	7.763548E-1	7.876221E-1	7.078308E-1	7.982550E-1	7.872282E-1	7.806208E-1	7.563493E-1	8.009043E-1	7.914182E-1	7.903919E-1	7.744652E-1	7.814765E-1	8.164360E-1	7.981450E-1	7.111535E-1	8.293428E-1	7.995296E-1	8.444840E-1	7.089596E-1	8.473707E-1	7.829214E-1	7.785925E-1	7.458931E-1	7.767953E-1	8.090138E-1	8.031495E-1	7.725276E-1	7.836471E-1	8.115671E-1	7.543155E-1	7.262827E-1	8.697644E-1	7.961047E-1	7.733205E-1	6.524159E-1
2.950070E+2	7.095176E-1	6.672911E-1	6.966828E-1	6.535516E-1	7.375037E-1	7.317093E-1	5.834180E-1	7.211067E-1	7.448170E-1	7.043522E-1	6.046243E-1	7.420427E-1	7.549187E-1	7.385525E-1	6.675784E-1	7.495234E-1	7.203309E-1	7.199896E-1	6.721662E-1	7.210139E-1	7.232757E-1	7.188749E-1	6.312072E-1	7.529843E-1	7.331824E-1	7.202990E-1	6.242657E-1	7.613668E-1	7.202190E-1	7.816275E-1	6.404194E-1	7.381441E-1	7.024085E-1	6.811185E-1	6.932924E-1	7.240850E-1	7.100645E-1	7.088743E-1	6.268894E-1	7.362168E-1	7.327045E-1	7.479848E-1	6.160419E-1	7.418602E-1	7.283047E-1	7.586517E-1	6.200009E-1	7.365300E-1	6.906650E-1	7.497591E-1	6.659726E-1	7.343236E-1	7.507307E-1	7.293618E-1	6.499881E-1	7.393475E-1	7.388289E-1	7.462589E-1	6.926126E-1	7.425900E-1	6.851246E-1	7.812311E-1	6.912846E-1	6.946476E-1	7.902688E-1	7.444854E-1	6.905818E-1	6.989868E-1	7.705714E-1	7.246386E-1	6.646431E-1	7.378271E-1	7.699975E-1	7.164197E-1	6.750350E-1	7.738818E-1	7.140814E-1	7.407230E-1	7.008494E-1	7.581167E-1	7.008040E-1	7.828870E-1	6.541809E-1	6.927558E-1	7.657987E-1	6.884907E-1	6.686453E-1	7.632377E-1	7.446983E-1	7.573752E-1	5.993482E-1	7.352075E-1	6.974160E-1	7.465726E-1	6.429137E-1	7.062668E-1	7.642504E-1	7.514319E-1	6.981570E-1	7.303318E-1	7.295077E-1	7.408816E-1	6.597651E-1	7.281589E-1	7.122027E-1	7.537982E-1	6.533468E-1	7.135359E-1	7.063055E-1	7.501988E-1	7.102077E-1	7.040060E-1	7.488261E-1	7.473512E-1	7.052882E-1	7.208244E-1	7.008559E-1	7.571343E-1	6.355248E-1	7.473503E-1	7.321560E-1	7.186826E-1	6.175797E-1	7.281679E-1	7.556098E-1	7.636296E-1	6.599855E-1	7.386590E-1	7.839820E-1	7.074024E-1	6.716007E-1	7.460490E-1	7.137112E-1	7.434510E-1	6.465715E-1	7.232081E-1	7.564342E-1	7.523280E-1	6.720114E-1	7.534869E-1	7.400035E-1	7.043527E-1	6.535321E-1	7.130675E-1	7.688907E-1	7.505284E-1	7.397672E-1	7.683110E-1	7.354744E-1	6.895055E-1	6.369527E-1	7.516302E-1	7.024375E-1	7.527633E-1	6.721110E-1	7.065451E-1	7.716241E-1	7.588559E-1	6.846133E-1	7.216059E-1	6.663312E-1	7.579463E-1	7.109187E-1	7.439089E-1	7.453357E-1	7.518865E-1	6.574485E-1	7.577082E-1	6.880847E-1	6.883155E-1	5.511198E-1
2.955050E+2	7.228605E-1	7.314880E-1	7.289444E-1	7.558400E-1	7.800302E-1	7.805849E-1	6.552183E-1	7.781164E-1	7.525568E-1	7.648778E-1	6.602042E-1	7.474036E-1	7.215850E-1	7.030932E-1	7.069814E-1	7.296221E-1	7.658019E-1	7.459335E-1	6.868302E-1	7.566762E-1	7.349592E-1	7.630830E-1	6.170008E-1	7.190278E-1	7.430408E-1	7.223217E-1	6.072781E-1	7.125464E-1	7.620971E-1	7.624999E-1	6.474537E-1	7.328161E-1	7.219695E-1	7.389145E-1	7.061854E-1	7.175633E-1	6.960025E-1	6.956067E-1	6.466568E-1	7.335249E-1	7.277093E-1	7.284913E-1	6.330188E-1	7.711302E-1	7.621849E-1	7.736884E-1	6.536654E-1	6.904659E-1	7.085186E-1	7.607831E-1	6.933457E-1	7.695515E-1	7.050767E-1	7.102903E-1	6.751891E-1	7.095237E-1	6.943842E-1	7.553209E-1	6.532379E-1	7.732434E-1	7.507879E-1	7.647639E-1	6.855341E-1	7.525310E-1	7.384939E-1	7.474087E-1	7.241622E-1	7.434348E-1	7.269829E-1	7.541876E-1	6.516272E-1	7.756720E-1	6.806374E-1	7.707704E-1	6.242287E-1	8.007938E-1	7.242692E-1	7.352337E-1	6.354819E-1	7.069270E-1	6.392663E-1	7.784111E-1	7.077453E-1	7.191025E-1	7.434184E-1	7.599193E-1	6.877799E-1	7.044174E-1	7.587302E-1	7.789881E-1	6.490595E-1	7.841656E-1	7.793824E-1	7.604010E-1	6.713508E-1	7.234162E-1	7.546865E-1	7.431078E-1	7.058994E-1	7.296132E-1	7.721983E-1	7.320325E-1	6.564950E-1	7.242573E-1	7.526575E-1	7.701964E-1	6.473513E-1	7.679579E-1	7.373010E-1	7.763645E-1	7.102081E-1	7.508727E-1	7.669836E-1	7.906626E-1	6.815188E-1	7.055481E-1	7.086658E-1	7.816635E-1	6.458893E-1	7.253484E-1	7.606008E-1	6.936041E-1	6.358543E-1	7.538663E-1	6.962229E-1	7.543557E-1	6.828323E-1	7.458644E-1	7.702895E-1	7.510516E-1	6.693061E-1	7.337419E-1	7.541281E-1	7.342371E-1	6.993495E-1	7.639450E-1	7.548401E-1	7.302692E-1	6.777425E-1	7.336860E-1	7.762087E-1	7.280225E-1	7.529444E-1	7.869970E-1	7.630501E-1	7.567815E-1	7.035935E-1	7.698607E-1	7.339466E-1	7.297421E-1	6.666330E-1	7.509101E-1	7.377440E-1	7.404858E-1	6.550510E-1	7.773696E-1	7.062573E-1	7.329948E-1	7.066738E-1	7.341811E-1	7.510496E-1	7.506555E-1	6.949730E-1	7.720566E-1	7.266352E-1	7.342801E-1	7.075102E-1	7.656416E-1	7.154143E-1	7.383185E-1	6.881676E-1
2.960060E+2	8.846410E-1	9.117662E-1	8.348301E-1	8.373232E-1	8.574872E-1	9.382487E-1	8.869688E-1	8.487756E-1	9.003188E-1	8.587717E-1	8.673660E-1	8.576828E-1	8.618406E-1	9.094625E-1	8.703919E-1	8.483872E-1	8.846123E-1	8.314798E-1	8.894628E-1	9.283031E-1	8.946325E-1	8.701776E-1	8.522558E-1	8.734961E-1	8.636212E-1	8.888616E-1	8.690229E-1	8.758153E-1	8.756662E-1	9.072314E-1	9.117903E-1	8.280560E-1	8.049087E-1	8.349919E-1	8.520751E-1	8.305862E-1	8.299216E-1	8.767163E-1	7.883233E-1	8.667620E-1	8.861588E-1	8.482335E-1	7.889486E-1	8.573124E-1	8.781609E-1	9.044413E-1	7.975039E-1	8.703367E-1	8.877961E-1	8.085529E-1	8.124569E-1	8.872443E-1	8.825455E-1	8.860233E-1	8.095938E-1	9.095598E-1	8.771795E-1	8.512292E-1	7.903481E-1	8.762079E-1	8.963898E-1	8.841546E-1	8.126835E-1	9.105731E-1	9.122465E-1	8.935560E-1	8.235326E-1	8.812243E-1	8.668891E-1	8.563238E-1	7.610794E-1	8.656413E-1	8.912149E-1	8.764527E-1	7.443168E-1	8.696591E-1	8.708215E-1	8.930636E-1	7.866063E-1	8.833240E-1	8.564094E-1	8.619735E-1	8.085310E-1	8.410466E-1	8.976868E-1	9.258870E-1	7.754278E-1	8.473641E-1	8.522756E-1	8.933285E-1	7.541644E-1	8.852390E-1	8.751357E-1	8.993534E-1	7.968916E-1	8.711622E-1	9.242178E-1	8.460164E-1	8.352056E-1	8.784037E-1	8.839052E-1	8.967614E-1	7.879661E-1	8.640795E-1	8.380598E-1	8.393512E-1	7.739319E-1	8.191316E-1	8.582553E-1	9.185965E-1	8.094434E-1	8.772708E-1	8.620918E-1	8.952070E-1	8.896777E-1	8.743515E-1	8.406649E-1	8.526010E-1	7.909885E-1	8.844926E-1	9.111841E-1	8.412871E-1	7.813776E-1	8.917806E-1	8.796240E-1	9.080352E-1	8.172260E-1	9.152085E-1	9.930025E-1	8.975348E-1	8.078069E-1	8.860362E-1	8.970860E-1	9.138980E-1	7.839282E-1	8.519654E-1	8.289456E-1	9.008575E-1	8.181552E-1	8.456065E-1	8.651481E-1	8.608338E-1	7.999268E-1	8.638540E-1	9.148984E-1	9.092004E-1	8.601020E-1	9.139079E-1	8.515700E-1	8.799604E-1	7.614813E-1	8.905065E-1	8.508846E-1	8.661505E-1	7.628685E-1	8.481945E-1	8.620061E-1	8.527729E-1	7.599875E-1	8.641213E-1	8.536019E-1	8.899094E-1	8.036948E-1	9.417724E-1	8.349424E-1	8.623842E-1	7.839932E-1	8.638135E-1	8.143260E-1	8.933269E-1	7.388157E-1
2.965110E+2	9.496864E-1	9.645305E-1	9.580866E-1	9.361427E-1	9.448178E-1	1.006044E+0	9.587684E-1	9.796581E-1	9.734966E-1	9.813766E-1	9.785257E-1	9.488167E-1	9.605857E-1	1.006619E+0	8.808224E-1	9.504610E-1	9.278825E-1	9.324515E-1	9.041271E-1	9.921989E-1	9.731714E-1	9.436503E-1	9.642001E-1	9.287580E-1	9.546246E-1	9.846050E-1	9.797607E-1	9.766570E-1	9.260621E-1	9.569629E-1	9.621956E-1	9.439427E-1	9.480975E-1	1.009133E+0	9.830365E-1	9.646200E-1	1.010714E+0	9.536722E-1	9.623867E-1	9.663540E-1	9.910783E-1	9.526597E-1	9.926643E-1	9.166639E-1	9.687256E-1	9.750485E-1	9.676619E-1	9.683153E-1	9.584665E-1	9.827295E-1	9.722565E-1	9.144657E-1	9.513463E-1	1.000454E+0	8.851960E-1	9.626602E-1	9.223409E-1	1.022656E+0	9.928512E-1	9.728833E-1	1.046987E+0	9.932527E-1	9.564450E-1	9.769111E-1	1.007021E+0	9.995129E-1	9.215322E-1	9.508602E-1	9.709405E-1	9.822282E-1	8.717147E-1	9.706055E-1	9.968913E-1	9.549593E-1	8.809016E-1	9.084442E-1	9.656479E-1	9.548241E-1	8.891556E-1	9.808613E-1	9.056413E-1	9.127071E-1	9.015639E-1	9.373970E-1	1.015987E+0	9.798084E-1	8.556691E-1	9.862065E-1	9.731057E-1	1.012550E+0	8.045863E-1	9.294586E-1	1.026811E+0	9.955003E-1	9.307556E-1	9.635033E-1	1.005941E+0	9.882716E-1	9.397347E-1	1.004193E+0	9.934774E-1	9.273925E-1	8.213251E-1	9.681337E-1	9.414425E-1	9.612632E-1	8.625382E-1	9.490965E-1	9.610681E-1	1.001118E+0	8.958941E-1	9.468609E-1	9.770879E-1	9.385179E-1	8.976014E-1	9.224723E-1	9.664148E-1	9.321568E-1	8.513441E-1	9.314290E-1	1.026631E+0	9.576221E-1	8.355259E-1	9.894357E-1	9.346448E-1	9.597034E-1	9.227239E-1	9.879902E-1	9.656187E-1	9.426644E-1	8.881529E-1	9.437235E-1	9.809142E-1	9.744436E-1	8.678304E-1	9.305293E-1	9.899074E-1	9.582106E-1	8.668705E-1	9.885211E-1	9.918669E-1	9.292118E-1	8.816355E-1	9.275347E-1	9.524432E-1	9.263964E-1	9.213763E-1	9.727652E-1	9.783592E-1	9.745165E-1	8.266490E-1	9.451930E-1	9.255090E-1	9.492046E-1	8.536269E-1	9.676077E-1	9.499667E-1	9.385226E-1	8.684525E-1	9.598309E-1	9.704236E-1	9.387577E-1	9.044451E-1	9.740594E-1	1.010260E+0	9.516325E-1	8.660383E-1	1.001653E+0	9.314562E-1	9.483295E-1	8.281946E-1
2.970020E+2	1.031411E+0	1.004984E+0	1.052392E+0	1.001156E+0	1.051892E+0	9.981601E-1	1.054028E+0	1.029442E+0	1.055117E+0	1.056646E+0	1.017052E+0	1.010083E+0	9.895171E-1	1.042077E+0	1.026848E+0	1.069868E+0	9.880211E-1	1.011687E+0	1.030772E+0	1.021175E+0	1.030939E+0	1.010897E+0	1.052847E+0	9.527275E-1	1.034253E+0	9.839302E-1	1.011850E+0	1.007871E+0	1.033952E+0	1.004145E+0	1.024910E+0	1.000555E+0	1.020083E+0	9.963719E-1	1.005429E+0	1.010264E+0	1.058925E+0	1.018023E+0	9.909400E-1	1.039029E+0	1.013918E+0	1.059175E+0	1.042336E+0	1.051628E+0	9.980455E-1	1.090110E+0	9.896963E-1	1.009262E+0	9.830153E-1	9.871386E-1	1.050677E+0	1.072189E+0	1.009859E+0	1.061756E+0	1.015724E+0	1.006305E+0	9.968933E-1	1.074763E+0	1.011836E+0	1.009039E+0	1.060549E+0	1.041283E+0	1.004366E+0	1.025040E+0	1.035979E+0	1.034588E+0	9.832098E-1	1.007161E+0	1.001874E+0	1.007280E+0	1.024355E+0	1.014162E+0	1.021757E+0	1.056112E+0	1.068952E+0	9.733513E-1	1.008751E+0	1.030994E+0	1.008496E+0	1.011990E+0	1.044542E+0	9.999999E-1	1.035475E+0	9.998747E-1	9.888094E-1	1.044235E+0	9.920787E-1	9.903108E-1	1.038588E+0	1.066234E+0	9.608225E-1	1.034481E+0	1.039067E+0	1.035671E+0	1.023698E+0	1.010993E+0	1.006810E+0	1.057886E+0	1.004775E+0	1.006350E+0	1.057514E+0	9.947817E-1	9.292497E-1	1.002601E+0	9.946310E-1	1.009030E+0	9.338230E-1	1.018141E+0	9.905507E-1	1.011853E+0	9.786919E-1	1.022842E+0	1.037611E+0	1.008712E+0	1.004201E+0	1.032462E+0	9.968760E-1	1.028950E+0	9.226742E-1	9.871660E-1	1.006553E+0	9.813073E-1	9.059178E-1	1.015990E+0	1.025472E+0	1.041180E+0	9.926078E-1	9.851073E-1	1.071499E+0	1.029963E+0	1.013647E+0	1.002948E+0	1.000375E+0	1.035647E+0	9.138418E-1	1.004729E+0	1.014609E+0	1.012623E+0	9.643001E-1	1.028123E+0	1.035156E+0	1.008109E+0	9.517692E-1	1.006587E+0	1.047557E+0	1.049113E+0	9.701004E-1	1.030848E+0	1.002038E+0	1.068403E+0	9.421451E-1	1.033700E+0	1.007355E+0	1.014204E+0	9.211835E-1	9.709014E-1	1.039542E+0	1.014745E+0	9.370862E-1	1.028992E+0	1.027496E+0	9.715662E-1	9.798261E-1	1.036151E+0	1.021168E+0	1.023881E+0	9.459976E-1	9.540532E-1	9.965292E-1	9.699976E-1	9.652418E-1
2.975040E+2	9.188320E-1	9.231977E-1	9.324431E-1	9.491451E-1	9.341862E-1	9.272123E-1	9.274890E-1	9.186335E-1	1.010086E+0	9.534412E-1	9.197883E-1	9.449879E-1	9.417177E-1	9.754153E-1	9.532558E-1	9.286342E-1	9.242157E-1	9.619016E-1	9.934453E-1	1.002600E+0	9.374722E-1	9.592170E-1	9.323787E-1	9.187709E-1	9.568992E-1	9.535892E-1	9.363467E-1	9.654521E-1	9.672308E-1	9.576007E-1	9.557485E-1	9.093106E-1	9.496622E-1	9.986236E-1	9.810002E-1	9.841817E-1	9.671895E-1	9.689306E-1	1.015649E+0	9.724105E-1	9.746624E-1	9.443062E-1	9.775745E-1	9.410548E-1	9.276782E-1	9.573967E-1	9.560325E-1	9.792835E-1	9.443326E-1	9.452476E-1	9.456236E-1	9.248743E-1	9.526318E-1	9.711654E-1	9.562751E-1	9.495668E-1	9.388291E-1	9.977344E-1	9.232412E-1	9.595221E-1	9.449235E-1	9.568866E-1	9.430276E-1	9.567500E-1	9.798160E-1	9.110941E-1	9.235878E-1	9.538235E-1	9.660196E-1	9.867244E-1	9.740667E-1	1.001309E+0	9.712492E-1	9.443909E-1	9.924118E-1	9.796840E-1	1.022074E+0	9.829588E-1	9.959021E-1	9.310556E-1	8.950914E-1	9.597108E-1	9.487847E-1	9.878307E-1	9.632310E-1	9.924136E-1	9.686235E-1	9.396976E-1	9.762234E-1	9.825700E-1	9.338364E-1	9.649926E-1	9.754870E-1	9.836463E-1	9.515637E-1	9.569078E-1	9.329114E-1	9.708680E-1	9.799977E-1	9.179373E-1	9.607480E-1	9.648302E-1	9.475639E-1	9.362671E-1	9.811465E-1	9.427273E-1	9.844549E-1	9.287897E-1	9.860149E-1	9.293310E-1	9.172024E-1	9.766857E-1	9.485550E-1	9.788426E-1	9.653067E-1	9.927437E-1	9.398584E-1	9.407750E-1	9.812022E-1	9.790990E-1	9.647249E-1	9.576221E-1	9.478823E-1	9.791555E-1	9.896654E-1	9.550663E-1	9.207085E-1	9.822247E-1	9.619683E-1	9.360058E-1	9.493696E-1	1.002948E+0	9.397485E-1	9.691794E-1	9.327872E-1	9.676292E-1	9.644081E-1	9.523287E-1	9.112860E-1	9.842164E-1	9.422810E-1	9.765499E-1	9.524501E-1	9.838965E-1	9.324191E-1	9.420286E-1	9.265448E-1	9.092602E-1	9.569726E-1	9.530570E-1	8.389082E-1	1.006356E+0	9.880979E-1	9.759262E-1	8.556736E-1	9.552546E-1	9.620712E-1	9.426061E-1	8.941907E-1	9.402691E-1	9.588301E-1	9.744822E-1	8.935724E-1	9.127967E-1	9.479242E-1	9.771316E-1	8.611713E-1	9.560366E-1	9.574862E-1	9.483303E-1	7.596708E-1
2.980020E+2	7.979128E-1	8.713134E-1	8.149765E-1	8.754638E-1	8.650817E-1	8.791248E-1	8.891009E-1	8.407464E-1	8.468427E-1	8.385964E-1	8.894719E-1	8.507905E-1	9.096407E-1	8.293261E-1	8.895147E-1	8.644364E-1	8.882788E-1	8.672403E-1	8.774655E-1	8.592065E-1	8.556875E-1	8.670647E-1	8.698710E-1	8.841489E-1	8.765129E-1	8.747025E-1	8.727978E-1	8.718130E-1	8.366264E-1	8.849161E-1	8.625565E-1	8.493687E-1	8.823721E-1	8.642661E-1	8.195042E-1	8.356583E-1	8.553671E-1	8.488534E-1	8.514695E-1	8.203314E-1	8.276329E-1	8.802579E-1	8.071826E-1	8.638158E-1	8.872823E-1	8.684839E-1	8.629964E-1	8.425521E-1	8.825892E-1	8.438295E-1	8.916168E-1	8.928489E-1	9.018355E-1	8.533288E-1	8.457796E-1	8.870099E-1	8.262836E-1	8.527393E-1	8.416775E-1	8.817088E-1	8.478559E-1	8.731757E-1	8.829673E-1	8.416334E-1	8.481860E-1	8.584802E-1	8.516300E-1	8.315905E-1	8.739199E-1	8.691713E-1	8.657981E-1	8.320810E-1	8.609106E-1	8.900406E-1	8.630860E-1	8.649098E-1	8.371221E-1	8.443421E-1	9.035483E-1	8.943924E-1	8.045408E-1	8.582428E-1	8.620953E-1	8.591120E-1	8.721088E-1	8.957742E-1	8.593724E-1	8.713022E-1	9.045054E-1	8.368554E-1	9.160820E-1	8.805007E-1	8.383664E-1	8.710361E-1	8.336524E-1	8.322471E-1	8.451037E-1	8.808235E-1	8.282375E-1	9.315948E-1	8.682520E-1	8.858703E-1	8.684195E-1	8.413179E-1	8.792628E-1	8.300826E-1	8.731972E-1	8.670565E-1	8.370883E-1	8.810257E-1	8.758035E-1	8.502863E-1	8.923541E-1	8.817658E-1	8.176506E-1	8.415077E-1	8.492565E-1	8.512750E-1	8.428092E-1	8.668911E-1	8.660087E-1	8.635789E-1	8.876431E-1	8.797883E-1	8.263502E-1	8.398068E-1	8.561995E-1	8.813393E-1	8.697810E-1	8.464879E-1	8.506574E-1	8.445011E-1	8.671471E-1	8.967884E-1	8.658012E-1	8.621493E-1	8.281490E-1	8.552695E-1	8.511099E-1	9.058715E-1	8.627873E-1	8.522856E-1	8.462287E-1	8.601937E-1	8.873653E-1	9.177984E-1	8.637936E-1	8.937723E-1	8.622633E-1	8.880071E-1	8.769768E-1	8.552480E-1	8.741545E-1	8.849278E-1	8.918410E-1	8.473708E-1	8.991269E-1	8.588980E-1	8.899007E-1	8.564367E-1	8.286320E-1	8.447067E-1	8.413857E-1	9.078295E-1	8.723429E-1	8.374922E-1	8.500464E-1	8.419981E-1	8.390530E-1	8.416581E-1	8.758630E-1
2.985010E+2	9.163303E-1	8.537252E-1	8.993538E-1	8.823984E-1	8.643217E-1	8.830660E-1	8.848356E-1	9.009682E-1	9.129845E-1	9.161939E-1	8.452600E-1	8.553853E-1	8.731614E-1	8.810958E-1	8.912534E-1	9.035965E-1	8.714114E-1	8.931847E-1	8.721326E-1	8.614354E-1	8.712664E-1	8.975745E-1	8.954423E-1	8.728303E-1	8.894049E-1	8.780727E-1	9.332005E-1	9.086284E-1	8.905722E-1	9.008557E-1	8.654869E-1	8.820039E-1	8.714166E-1	8.650164E-1	8.982168E-1	9.001390E-1	8.754544E-1	8.468635E-1	8.761787E-1	8.842583E-1	9.225592E-1	8.823463E-1	8.832616E-1	9.012159E-1	8.892368E-1	8.684840E-1	8.623843E-1	8.791112E-1	8.900276E-1	9.158518E-1	8.856981E-1	8.664283E-1	8.516813E-1	9.071382E-1	9.045812E-1	8.695522E-1	8.943846E-1	8.972948E-1	8.908971E-1	9.021453E-1	8.978173E-1	8.937605E-1	9.066085E-1	9.131742E-1	8.806550E-1	9.220549E-1	8.701334E-1	8.656677E-1	8.605614E-1	8.261329E-1	8.764476E-1	9.249069E-1	8.888836E-1	9.172160E-1	8.617661E-1	8.989456E-1	8.778740E-1	8.745366E-1	8.735633E-1	8.909337E-1	8.915746E-1	9.238991E-1	8.980399E-1	8.658861E-1	8.489286E-1	8.012366E-1	8.822100E-1	8.624113E-1	8.390231E-1	8.947230E-1	8.919356E-1	8.844491E-1	8.368345E-1	8.354742E-1	8.683329E-1	9.173323E-1	8.903121E-1	8.762826E-1	8.808887E-1	8.920610E-1	8.376572E-1	8.865504E-1	8.579543E-1	8.582267E-1	8.979912E-1	8.757110E-1	8.771946E-1	8.605585E-1	8.635477E-1	8.863934E-1	9.184199E-1	9.582218E-1	8.897597E-1	8.645900E-1	8.983209E-1	8.636582E-1	8.515993E-1	8.592308E-1	8.976788E-1	8.639576E-1	9.019810E-1	9.039829E-1	9.316383E-1	8.729355E-1	8.577907E-1	8.967743E-1	8.770300E-1	9.087230E-1	8.423973E-1	9.226892E-1	9.179966E-1	9.121878E-1	8.813682E-1	8.467726E-1	9.138419E-1	8.730609E-1	8.759589E-1	9.332106E-1	8.647215E-1	8.826266E-1	9.265394E-1	8.779281E-1	8.618899E-1	8.177396E-1	9.098925E-1	8.834056E-1	9.007056E-1	9.038399E-1	8.783031E-1	9.188555E-1	9.137547E-1	8.840299E-1	8.693395E-1	8.322069E-1	8.822876E-1	9.132538E-1	8.999340E-1	9.065372E-1	8.954150E-1	9.074346E-1	8.874893E-1	9.190725E-1	9.058945E-1	8.349756E-1	8.723435E-1	8.660267E-1	8.521323E-1	8.846384E-1	9.770074E-1	9.049940E-1	1.009931E+0
2.990020E+2	1.073107E+0	1.006742E+0	1.032537E+0	1.029762E+0	1.083027E+0	1.002891E+0	9.921803E-1	1.031048E+0	1.010086E+0	1.022504E+0	1.089055E+0	1.036888E+0	1.025997E+0	1.044914E+0	9.996138E-1	1.028140E+0	9.960883E-1	1.054460E+0	1.031439E+0	1.040492E+0	1.003029E+0	9.853679E-1	1.015343E+0	1.069245E+0	1.053212E+0	1.014272E+0	9.829066E-1	1.009471E+0	1.015498E+0	1.046863E+0	1.031943E+0	1.063161E+0	1.029472E+0	1.035403E+0	1.042070E+0	1.055907E+0	1.019418E+0	9.894959E-1	1.049693E+0	1.076039E+0	1.036043E+0	1.044555E+0	1.037306E+0	1.039433E+0	1.056685E+0	1.046962E+0	1.071103E+0	1.015111E+0	1.070793E+0	1.026824E+0	1.018125E+0	1.000934E+0	1.034936E+0	1.040641E+0	1.017016E+0	1.048494E+0	1.030586E+0	9.924481E-1	1.038555E+0	1.011397E+0	1.029858E+0	1.011779E+0	1.002449E+0	9.964230E-1	1.076346E+0	1.047010E+0	1.040091E+0	1.016051E+0	1.058822E+0	1.007280E+0	1.007198E+0	1.005594E+0	9.852364E-1	9.874187E-1	1.026063E+0	9.765171E-1	9.868073E-1	1.004232E+0	9.863064E-1	1.027208E+0	1.077949E+0	1.003731E+0	1.021379E+0	1.013424E+0	1.099915E+0	1.039333E+0	1.009362E+0	1.025876E+0	1.023776E+0	1.025797E+0	9.899396E-1	9.831542E-1	1.070475E+0	1.017890E+0	1.021617E+0	1.047269E+0	1.062451E+0	1.000378E+0	1.032649E+0	1.037976E+0	1.008419E+0	1.023370E+0	1.066608E+0	1.067635E+0	1.043325E+0	1.034696E+0	1.012436E+0	1.050632E+0	1.063123E+0	9.796493E-1	1.020699E+0	1.011480E+0	1.044528E+0	1.016926E+0	9.984395E-1	1.003437E+0	1.042177E+0	1.039557E+0	1.034242E+0	1.023102E+0	1.037506E+0	1.055149E+0	1.000677E+0	1.051112E+0	9.966527E-1	1.049791E+0	1.024191E+0	1.032668E+0	1.013083E+0	9.981504E-1	9.960464E-1	1.033715E+0	1.063994E+0	1.077765E+0	1.023457E+0	1.080383E+0	1.024171E+0	1.015564E+0	1.047401E+0	1.041898E+0	9.863574E-1	1.063337E+0	1.006922E+0	9.904843E-1	1.001668E+0	1.026445E+0	1.040234E+0	1.048661E+0	1.059321E+0	1.043590E+0	1.047316E+0	1.035138E+0	1.025009E+0	1.019259E+0	1.028320E+0	1.017020E+0	1.028245E+0	1.057620E+0	1.040649E+0	1.036677E+0	1.071193E+0	1.017497E+0	1.038536E+0	1.022905E+0	1.023506E+0	1.019630E+0	1.110089E+0	1.058176E+0	9.978310E-1	1.051670E+0	1.075474E+0
2.995040E+2	1.063934E+0	1.145689E+0	1.152486E+0	1.086973E+0	1.095936E+0	1.086452E+0	1.065402E+0	1.131418E+0	1.052303E+0	1.094669E+0	1.071369E+0	1.092793E+0	1.115937E+0	1.101648E+0	1.102179E+0	1.098757E+0	1.147902E+0	1.067081E+0	1.048103E+0	1.077640E+0	1.132196E+0	1.103671E+0	1.092056E+0	1.063252E+0	1.054729E+0	1.105969E+0	1.117554E+0	1.111113E+0	1.107062E+0	1.075554E+0	1.130996E+0	1.150409E+0	1.076419E+0	1.081190E+0	1.109926E+0	1.041417E+0	1.091735E+0	1.148050E+0	1.055733E+0	1.104302E+0	1.078154E+0	1.074490E+0	1.095151E+0	1.106914E+0	1.077534E+0	1.077035E+0	1.104768E+0	1.122595E+0	1.071538E+0	1.077534E+0	1.081010E+0	1.117026E+0	1.082518E+0	1.079466E+0	1.088741E+0	1.091410E+0	1.102987E+0	1.103460E+0	1.106759E+0	1.053840E+0	1.115506E+0	1.090000E+0	1.058676E+0	1.112190E+0	1.057917E+0	1.086471E+0	1.132608E+0	1.138283E+0	1.108036E+0	1.134468E+0	1.083518E+0	1.094134E+0	1.126657E+0	1.096875E+0	1.101943E+0	1.092083E+0	1.066745E+0	1.112654E+0	1.115243E+0	1.079091E+0	1.135092E+0	1.105198E+0	1.084105E+0	1.098484E+0	1.109507E+0	1.096756E+0	1.141451E+0	1.107951E+0	1.098614E+0	1.102488E+0	1.081551E+0	1.120552E+0	1.080434E+0	1.114037E+0	1.137447E+0	1.098057E+0	1.082447E+0	1.095720E+0	1.118595E+0	1.063853E+0	1.128665E+0	1.125475E+0	1.103891E+0	1.108606E+0	1.093519E+0	1.113833E+0	1.068398E+0	1.132673E+0	1.058588E+0	1.115172E+0	1.091321E+0	1.049115E+0	1.093812E+0	1.126697E+0	1.139613E+0	1.114192E+0	1.099975E+0	1.143642E+0	1.086673E+0	1.068571E+0	1.067623E+0	1.071868E+0	1.088667E+0	1.080236E+0	1.113680E+0	1.061052E+0	1.133049E+0	1.043477E+0	1.120788E+0	1.111343E+0	1.103940E+0	1.083710E+0	1.074472E+0	1.081056E+0	1.135778E+0	1.079655E+0	1.073575E+0	1.099387E+0	1.082505E+0	1.049647E+0	1.109928E+0	1.107389E+0	1.144466E+0	1.121507E+0	1.062575E+0	1.081941E+0	1.115535E+0	1.081188E+0	1.092164E+0	1.067061E+0	1.138939E+0	1.061762E+0	1.090005E+0	1.124702E+0	1.129996E+0	1.094432E+0	1.082312E+0	1.075996E+0	1.105606E+0	1.067416E+0	1.092595E+0	1.084573E+0	1.128414E+0	1.140463E+0	1.094412E+0	1.175055E+0	1.161542E+0	1.080985E+0	1.040779E+0	1.105005E+0	1.039725E+0
3.000080E+2	1.229884E+0	1.199333E+0	1.168203E+0	1.176258E+0	1.157447E+0	1.221255E+0	1.240992E+0	1.177186E+0	1.167699E+0	1.174596E+0	1.185056E+0	1.219155E+0	1.133547E+0	1.167601E+0	1.164183E+0	1.176436E+0	1.172104E+0	1.156133E+0	1.177415E+0	1.158625E+0	1.200349E+0	1.187105E+0	1.194909E+0	1.191753E+0	1.169242E+0	1.173394E+0	1.157194E+0	1.133523E+0	1.183011E+0	1.134211E+0	1.153269E+0	1.145747E+0	1.190657E+0	1.155500E+0	1.149282E+0	1.182696E+0	1.190835E+0	1.197806E+0	1.151276E+0	1.142658E+0	1.160948E+0	1.174044E+0	1.199524E+0	1.147566E+0	1.161584E+0	1.181638E+0	1.142716E+0	1.161348E+0	1.140719E+0	1.190713E+0	1.177926E+0	1.197889E+0	1.176397E+0	1.148260E+0	1.187607E+0	1.153967E+0	1.206930E+0	1.156323E+0	1.198870E+0	1.191387E+0	1.164039E+0	1.174397E+0	1.206272E+0	1.179829E+0	1.157080E+0	1.174890E+0	1.181950E+0	1.194585E+0	1.132642E+0	1.176223E+0	1.192971E+0	1.141975E+0	1.167063E+0	1.164059E+0	1.154730E+0	1.187860E+0	1.209378E+0	1.181276E+0	1.125437E+0	1.177319E+0	1.195752E+0	1.149219E+0	1.185596E+0	1.175263E+0	1.106309E+0	1.174487E+0	1.138982E+0	1.192761E+0	1.157859E+0	1.157567E+0	1.186656E+0	1.166351E+0	1.198403E+0	1.177916E+0	1.187387E+0	1.148186E+0	1.186775E+0	1.175927E+0	1.159632E+0	1.156578E+0	1.196259E+0	1.113904E+0	1.155564E+0	1.187947E+0	1.104756E+0	1.202950E+0	1.184319E+0	1.160290E+0	1.191639E+0	1.208428E+0	1.176554E+0	1.154211E+0	1.130991E+0	1.131178E+0	1.180669E+0	1.184462E+0	1.217133E+0	1.165520E+0	1.157394E+0	1.198380E+0	1.162156E+0	1.147800E+0	1.143492E+0	1.136773E+0	1.215861E+0	1.197509E+0	1.188822E+0	1.151568E+0	1.191983E+0	1.185324E+0	1.181990E+0	1.122937E+0	1.173270E+0	1.128439E+0	1.128335E+0	1.137123E+0	1.233739E+0	1.144240E+0	1.242976E+0	1.135740E+0	1.172107E+0	1.122510E+0	1.188043E+0	1.226179E+0	1.206080E+0	1.148381E+0	1.153186E+0	1.163279E+0	1.150976E+0	1.129429E+0	1.184105E+0	1.157465E+0	1.153395E+0	1.162978E+0	1.211883E+0	1.172669E+0	1.128311E+0	1.158343E+0	1.174239E+0	1.191767E+0	1.161261E+0	1.159668E+0	1.192198E+0	1.181030E+0	1.189472E+0	1.124664E+0	1.165018E+0	1.178166E+0	1.187843E+0	1.148342E+0	1.239336E+0
