Photon Energy (eV)	#1	#2	#3	#4	#5	#6	#7	#8	#9	#10	#11	#12	#13	#14	#15	#16	#17	#18	#19	#20	#21	#22	#23	#24	#25	#26	#27	#28	#29	#30	#31	#32	#33	#34	#35	#36	#37	#38	#39	#40	#41	#42	#43	#44	#45	#46	#47	#48	#49	#50	#51	#52	#53	#54	#55	#56	#57	#58	#59	#60	#61	#62	#63	#64	#65	#66	#67	#68	#69	#70	#71	#72	#73	#74	#75	#76	#77	#78	#79	#80	#81	#82	#83	#84	#85	#86	#87	#88	#89	#90	#91	#92	#93	#94	#95	#96	#97	#98	#99	#100	#101	#102	#103	#104	#105	#106	#107	#108	#109	#110	#111	#112	#113	#114	#115	#116	#117	#118	#119	#120	#121	#122	#123	#124	#125	#126	#127	#128	#129	#130	#131	#132	#133	#134	#135	#136	#137	#138	#139	#140	#141	#142	#143	#144	#145	#146	#147	#148	#149	#150	#151	#152	#153	#154	#155	#156	#157	#158	#159	#160	#161	#162	#163	#164	#165	#166	#167	#168	#169	#170	#171	
5.300370E+2	-9.012515E-3	-4.516682E-3	-2.787065E-3	9.754277E-2	-8.186579E-3	8.276557E-4	-8.103898E-3	-5.944113E-3	1.762336E-3	-9.784942E-3	-1.373260E-2	-8.263388E-5	-1.315241E-2	-2.292847E-3	-1.053827E-2	-1.071592E-2	-1.019614E-2	-5.012176E-3	-5.539954E-3	-9.574558E-3	-5.907029E-3	-1.381775E-2	-1.994878E-3	-7.880963E-3	-1.262377E-2	-6.976151E-3	1.753017E-4	-4.539044E-3	-6.397795E-3	9.561250E-4	-8.311619E-3	-3.985040E-3	-7.985095E-3	-4.748567E-3	-5.166125E-3	-2.020505E-3	-4.958228E-3	-1.372901E-2	-5.680836E-3	-7.794674E-3	-6.164138E-3	-1.024783E-2	-4.077448E-3	-1.343578E-2	-4.100259E-3	-7.615141E-3	-4.168724E-3	-2.398609E-3	-1.235782E-3	-6.471399E-3	1.418043E-3	2.190580E-5	-1.250923E-2	-1.077893E-2	-2.824287E-3	-6.989644E-3	-1.103873E-2	-6.379041E-3	3.149211E-3	-5.992050E-3	1.388461E-3	9.800253E-4	-5.687575E-3	-5.919344E-3	-3.370921E-3	-9.570761E-3	-5.262347E-3	-1.153197E-3	-9.777039E-3	-2.159891E-3	-9.334252E-3	-6.573253E-3	-5.069133E-4	2.872301E-4	-2.815130E-3	-6.132320E-3	-4.639637E-3	-8.283923E-3	-2.945988E-3	-6.746536E-3	-7.477920E-3	-1.001554E-2	2.872022E-3	-4.399251E-3	-1.097027E-2	-9.618442E-3	-8.959635E-3	-8.090468E-3	-5.685705E-3	-6.457781E-3	-9.848587E-3	-4.469567E-3	-5.108256E-3	-4.597239E-3	-1.186735E-2	-1.023374E-2	-1.030881E-2	-4.587597E-3	-8.580031E-3	-3.002548E-3	-6.111868E-3	-2.364848E-3	-9.593317E-3	-1.172654E-2	-8.446769E-3	-7.205722E-3	-4.761680E-3	4.706218E-4	-3.667439E-4	-1.505598E-3	-6.827656E-3	-7.784231E-3	-3.985814E-3	-1.048318E-3	5.480445E-3	1.157140E-2	-6.662833E-3	-7.923182E-3	-6.061322E-4	-4.504559E-3	-5.362948E-3	-3.004598E-3	-3.532313E-4	-1.533722E-2	-6.397523E-3	-5.485790E-3	-6.610966E-3	-4.302900E-3	1.298110E-3	5.819809E-4	-3.601626E-3	2.518887E-4	-1.874913E-3	-3.728066E-3	-8.460536E-3	-1.040432E-2	-2.409165E-3	-3.602299E-3	-3.969031E-4	-1.343392E-3	-1.207728E-2	-3.307680E-3	-2.890952E-3	-1.053959E-2	-5.152418E-3	-1.026434E-3	-3.995206E-3	-2.820390E-3	-8.919594E-3	-7.348884E-3	-5.351760E-3	-1.272944E-3	-1.093750E-2	-7.218978E-3	-1.390009E-2	-7.806432E-3	-1.970774E-3	-7.448776E-3	-5.791976E-3	-6.933110E-3	-1.265423E-2	-3.217743E-3	-4.653856E-3	-1.360135E-2	-1.010092E-2	-3.243431E-3	-7.618561E-3	-6.987575E-3	-1.223759E-2	-7.389745E-3	-1.084214E-2
5.305180E+2	-1.090115E-2	-7.339846E-3	-1.581610E-3	-4.716421E-2	-6.257063E-3	-5.542883E-3	-7.139634E-4	-6.023797E-3	-1.149991E-2	-2.519243E-3	-5.015496E-3	-6.847674E-3	1.014202E-3	-5.194180E-3	4.105332E-3	1.115530E-3	-4.530436E-3	-8.708138E-3	-2.165585E-3	4.143346E-3	-3.908863E-3	-1.652993E-3	2.119113E-3	-3.301173E-3	2.126234E-3	-3.078140E-3	-1.605924E-2	-6.258502E-3	-6.226621E-3	-5.968665E-3	-7.318863E-3	-5.635718E-3	-6.834703E-3	1.346120E-3	-4.610895E-3	-4.890287E-3	-1.025029E-2	-9.908914E-3	-1.559115E-3	3.780800E-3	-3.879036E-5	-1.112398E-3	-4.007382E-3	1.900783E-4	-4.327036E-3	4.942431E-3	-4.020244E-3	-5.920762E-3	4.969484E-4	-5.940198E-3	-2.732161E-3	-1.045758E-2	-6.306475E-3	1.611986E-3	-5.306816E-3	-5.107365E-3	-8.317588E-4	8.921124E-3	1.769830E-3	-8.318153E-3	-8.055737E-3	-2.318104E-3	2.212396E-3	-2.163672E-3	-5.560459E-3	-4.412611E-3	-2.012500E-3	-1.054459E-3	-4.330848E-3	-2.869192E-3	-4.689806E-3	4.296785E-4	-2.320566E-3	-4.816031E-3	-1.126316E-2	2.683686E-3	-2.364326E-3	3.032004E-3	-7.095358E-3	-3.376375E-3	5.290513E-4	-3.647329E-3	-4.677726E-4	-1.987502E-3	1.633052E-4	-1.127269E-3	3.518570E-3	-3.178796E-3	-7.573341E-3	-3.715281E-3	-2.659854E-3	-4.503257E-3	-7.591715E-4	-1.934733E-3	-2.618766E-3	3.276250E-3	1.809342E-3	-8.486772E-3	-5.162572E-3	-1.179071E-2	-6.005418E-3	-6.261269E-3	-7.203227E-3	-5.134226E-3	-8.465771E-3	-4.978023E-3	-2.550434E-4	-2.866603E-3	-5.999951E-4	-7.276109E-3	8.197629E-4	-8.743874E-3	1.452618E-3	-4.665030E-3	-3.511068E-3	3.243812E-4	-3.570367E-3	-1.809451E-3	4.449992E-4	-1.557643E-3	-2.835154E-3	-4.587405E-3	-1.220481E-3	-2.707748E-3	8.637714E-4	-1.055827E-2	-5.613286E-3	-2.764344E-3	-3.459579E-3	3.066892E-3	-8.180105E-3	-6.291591E-3	-3.802094E-3	-7.861291E-4	6.651119E-3	-2.480646E-3	-8.428396E-3	-9.978952E-3	-2.965418E-3	-4.723314E-3	6.516713E-3	-5.200693E-3	-4.118148E-3	-7.984464E-3	8.237115E-4	-3.844805E-3	-6.803906E-3	-5.607502E-3	9.527336E-4	1.467252E-4	-3.361946E-3	-1.263535E-4	3.154648E-3	-7.216996E-3	2.698451E-3	2.231660E-3	-1.734115E-3	-1.157791E-2	-7.314470E-3	7.832608E-4	-5.930425E-3	-6.269935E-3	-1.801244E-3	-1.683938E-3	-2.022459E-3	-5.016647E-3	-4.731389E-3	9.053196E-4	-2.195240E-3	9.079108E-3	-1.751885E-2
5.310350E+2	-6.386066E-3	6.826899E-3	-7.507063E-3	-1.095055E-1	-5.923652E-3	-4.238462E-3	-4.814544E-3	5.460872E-4	6.216303E-6	1.995547E-3	2.542038E-3	-2.771258E-3	-2.298819E-3	-4.555930E-4	-3.027998E-3	-4.403834E-3	3.414473E-3	-2.003589E-3	-6.987039E-3	1.505827E-3	5.657663E-3	-2.588959E-3	-3.225888E-3	-2.900640E-3	-7.841500E-3	4.008529E-3	-4.774936E-3	8.724486E-4	-2.296842E-3	-5.605542E-3	-6.953149E-3	1.175915E-3	6.452238E-3	1.751057E-3	1.234842E-3	-3.962460E-3	1.382274E-3	-2.802262E-3	-1.202730E-3	-9.095939E-3	-8.304658E-4	1.685389E-3	3.839471E-4	-3.208123E-3	-2.698243E-3	-5.522447E-3	4.350226E-3	1.083300E-2	-6.361140E-3	-2.254268E-3	-7.314002E-4	2.478541E-3	-1.153144E-3	-2.928553E-3	-1.851803E-3	4.929285E-3	-4.370897E-4	-8.143113E-3	-7.075879E-3	-1.575688E-3	-4.168442E-3	-1.576029E-2	-3.669197E-3	-1.636209E-4	-1.437529E-4	1.221364E-4	-1.120301E-3	3.996443E-3	5.079183E-4	-3.830286E-3	-7.974441E-3	-4.214230E-3	-7.488227E-3	-6.575269E-3	-2.354578E-3	-1.649945E-3	-2.353512E-3	-1.554166E-3	-6.712320E-4	-4.867044E-3	3.501853E-4	4.364033E-3	-9.914135E-3	-6.397288E-3	-1.209666E-2	-8.795428E-3	-3.318784E-3	3.414601E-3	3.233108E-3	3.879407E-3	-2.276828E-3	3.712110E-3	-4.542809E-3	-7.561927E-3	-9.435051E-4	2.658677E-3	5.962083E-4	-4.246045E-3	-1.307849E-3	4.554893E-3	-2.073848E-3	4.106972E-3	1.976998E-3	6.155923E-3	-6.426697E-3	5.543320E-3	-4.904991E-3	2.285748E-3	-6.981145E-3	4.526712E-4	4.030737E-3	3.291239E-3	-2.463598E-3	6.364485E-4	-2.045149E-3	-8.258079E-3	-2.184352E-3	-1.401631E-3	-6.304242E-3	-2.116460E-4	-2.430148E-3	4.078819E-3	-1.272647E-2	-1.043422E-3	2.192216E-3	-4.987422E-3	2.711659E-3	1.430042E-3	-1.916344E-3	-1.303163E-2	-6.743405E-3	-5.954497E-3	7.494758E-5	1.065153E-3	-7.124373E-3	-3.389179E-4	5.266684E-3	-8.818698E-4	1.190513E-4	5.051606E-3	-3.732511E-3	2.106314E-3	6.638628E-3	3.002124E-3	1.212111E-3	-3.487581E-3	-1.343567E-2	-3.965769E-3	-1.238053E-3	-6.301809E-3	-5.722923E-3	7.711996E-4	1.078900E-3	1.132050E-3	9.203426E-4	5.202849E-3	-4.421856E-3	-8.868684E-4	-1.011507E-3	-1.358520E-3	5.973964E-3	-2.167464E-3	-8.800252E-3	1.411835E-3	4.296577E-3	-2.187007E-3	2.652320E-4	-6.095681E-3	-4.079067E-4	-4.036776E-3	1.972207E-2
5.315130E+2	-3.953922E-3	-1.784764E-3	-4.119718E-3	8.328675E-2	4.511155E-3	7.510710E-5	-4.288880E-3	4.573912E-3	-2.210435E-3	6.693872E-3	-3.526170E-3	9.761458E-3	-3.847584E-3	-4.766814E-3	-2.970191E-3	1.475729E-3	-4.485817E-3	-8.863006E-4	-6.827838E-4	4.622362E-4	-5.845572E-3	1.398043E-3	-4.053323E-3	-5.150272E-3	4.340610E-3	2.371999E-3	4.620647E-3	3.238244E-3	1.659560E-4	-8.479467E-4	9.090352E-3	5.816694E-4	-1.573555E-4	-7.669624E-3	-9.210143E-4	-2.718314E-3	2.811002E-3	1.724725E-2	8.804236E-3	2.272435E-3	-2.005646E-3	6.103377E-3	-7.131019E-4	6.262322E-3	-5.330630E-4	1.666585E-3	-8.689992E-3	-2.346933E-3	3.652290E-4	1.078691E-3	-9.366363E-3	-5.641017E-4	3.392762E-4	2.930268E-3	8.647137E-4	1.462810E-4	-2.702496E-3	-5.443195E-3	-7.550385E-3	-1.536965E-3	-4.554889E-3	6.348199E-4	-2.827426E-3	4.704317E-3	-1.800302E-3	1.216178E-3	4.946366E-3	-1.832779E-3	-1.925448E-3	-6.707940E-4	6.301919E-3	2.776982E-3	1.159825E-3	-2.322538E-3	9.194588E-4	7.773248E-4	-1.461437E-3	-9.451127E-3	1.417652E-3	-4.346169E-3	-2.870596E-3	-2.645410E-3	-5.834282E-3	-1.460999E-3	3.065708E-3	7.356815E-4	3.989316E-3	-5.060765E-4	-4.749776E-3	-1.655224E-3	1.917922E-3	5.566745E-3	-1.667590E-3	7.033579E-3	-8.764163E-4	-2.530272E-3	-1.574961E-3	4.800618E-3	6.361906E-3	4.073926E-3	-5.074615E-3	-2.221525E-3	-2.144953E-3	7.666348E-3	5.618311E-3	3.320378E-3	-4.262956E-3	2.864755E-4	3.472152E-3	9.452474E-4	-6.368846E-4	7.921828E-3	-3.663486E-3	-5.609470E-4	-5.282802E-3	-6.304523E-3	-1.627309E-3	-8.880295E-4	-3.580709E-3	4.540638E-3	-1.163234E-3	-3.099936E-3	1.063197E-2	9.169567E-4	-4.962868E-3	3.403635E-3	-1.836692E-3	-5.691373E-3	-6.126127E-3	4.769248E-4	3.064389E-3	-5.316727E-3	-4.932713E-3	-6.154021E-3	-2.177663E-3	-7.196153E-4	1.051660E-3	-8.497705E-4	-4.718303E-3	-2.990333E-3	2.863404E-3	8.788072E-4	-2.819366E-3	2.049216E-5	3.453027E-5	-1.118810E-3	6.460239E-3	-1.251239E-3	-6.700088E-4	-8.409840E-4	6.273943E-3	-8.350802E-3	-4.437449E-3	1.206068E-2	-4.085632E-3	-5.022672E-4	-1.578246E-3	4.609479E-4	-5.201718E-4	7.429079E-3	1.188354E-2	3.462450E-3	3.167904E-3	-4.670741E-3	-5.133584E-4	7.179241E-3	-2.558118E-3	5.822070E-3	-4.462565E-3	5.174024E-3	-9.760582E-3
5.320020E+2	5.941006E-3	5.376587E-3	5.316817E-3	-1.304647E-3	2.381207E-3	6.993724E-3	1.395739E-3	-6.125153E-3	4.772647E-3	1.182938E-3	1.174647E-2	-3.891475E-3	-2.215560E-4	3.464586E-3	2.749812E-3	-1.137857E-3	9.038982E-3	6.338972E-3	2.420158E-3	4.419700E-3	4.193047E-3	8.248622E-3	1.641559E-4	9.525138E-3	5.398834E-4	-6.406074E-3	9.321074E-3	8.414867E-3	6.893913E-3	-5.952615E-4	1.111100E-2	1.105449E-3	7.906776E-3	4.843389E-3	2.148393E-3	4.736276E-3	4.517198E-3	5.164174E-3	-2.295823E-3	2.607808E-3	5.066093E-3	-4.788176E-4	-1.045955E-3	2.106781E-3	-2.326941E-3	1.499937E-3	8.528638E-3	3.255727E-3	4.390754E-3	6.992651E-3	-3.883331E-4	5.593722E-4	5.583094E-3	4.513614E-3	-2.906811E-3	-3.139540E-4	1.265527E-2	1.080876E-2	9.048163E-4	6.921942E-3	1.520565E-3	2.162094E-3	6.487346E-3	-8.048560E-4	2.016589E-3	6.761186E-3	8.009271E-4	3.726705E-3	5.364016E-3	4.021733E-3	2.440036E-3	1.767494E-3	8.216750E-3	3.723205E-3	-9.949750E-4	1.597061E-3	-1.599974E-3	5.922209E-3	6.994693E-3	1.204248E-2	5.519736E-3	6.443174E-3	5.383538E-3	6.741841E-3	3.817500E-3	1.098902E-2	-4.034058E-3	-2.685212E-4	-8.116951E-4	-8.736658E-4	6.866429E-3	-2.695349E-3	-9.292954E-4	-4.313436E-3	-1.866900E-4	-1.254339E-3	-1.883065E-3	1.014071E-2	1.304260E-3	-1.001904E-2	6.932860E-3	-1.530318E-3	5.114521E-3	-2.099738E-3	1.164079E-2	-1.542453E-3	5.589966E-3	-4.249710E-3	1.013936E-3	1.639296E-3	-1.571558E-3	-3.585183E-3	5.205456E-3	-2.840232E-3	-7.816388E-3	-2.268139E-3	7.026258E-4	1.709016E-3	-2.385946E-4	-4.191002E-3	9.963477E-3	-3.456214E-3	-4.239415E-3	6.420115E-3	5.202973E-3	5.410967E-3	-3.212295E-4	2.935882E-4	5.048970E-3	1.303313E-3	6.806269E-3	5.232436E-3	3.396578E-3	1.299730E-3	5.984315E-3	1.304097E-3	2.495571E-3	-1.839690E-3	-1.261525E-3	-4.162204E-3	-1.115389E-3	2.474515E-3	-1.666341E-3	1.803795E-3	-9.686239E-4	4.962076E-3	1.144742E-2	1.650970E-3	-1.999590E-3	4.338003E-3	4.701322E-5	7.866915E-3	-4.206548E-3	-2.614389E-3	7.390186E-3	-8.605144E-3	3.198568E-3	5.934124E-3	6.158445E-3	-2.100927E-3	1.089746E-3	1.197163E-3	5.092944E-3	-1.049644E-3	8.180536E-4	-2.394447E-3	1.390478E-2	3.102841E-3	1.370089E-2	-8.388322E-3	-1.695074E-2
5.325170E+2	2.431265E-2	1.437806E-3	1.067864E-2	-2.285512E-2	1.347493E-2	1.884858E-3	1.652555E-2	1.297306E-2	7.169143E-3	2.431827E-3	7.985759E-3	3.831583E-3	1.850617E-2	9.244848E-3	9.681314E-3	1.366635E-2	6.758939E-3	1.027123E-2	1.295520E-2	-9.565511E-4	5.810755E-3	8.413038E-3	6.990820E-3	9.707910E-3	1.345854E-2	1.007984E-2	6.717149E-3	-1.728014E-3	7.861389E-3	1.206129E-2	2.382275E-3	6.757724E-3	6.181397E-4	4.477626E-3	7.314799E-3	8.855290E-3	6.498047E-3	4.028761E-3	1.934268E-3	8.229569E-3	3.972948E-3	4.050280E-3	9.459940E-3	8.084717E-3	1.398554E-2	5.028635E-3	4.000096E-3	-3.422421E-3	2.343991E-3	6.594523E-3	1.180021E-2	7.961867E-3	1.404648E-2	4.651609E-3	1.202500E-2	7.335397E-3	2.354803E-3	2.354694E-4	8.802406E-3	1.050091E-2	1.387004E-2	1.430146E-2	3.484456E-3	4.347175E-3	8.858846E-3	5.883871E-3	2.647856E-3	-3.682711E-3	1.016140E-2	5.508430E-3	1.325654E-2	5.813329E-3	9.391317E-4	9.703402E-3	1.650839E-2	2.724193E-3	1.241889E-2	1.033500E-2	2.300233E-3	7.293642E-3	3.949543E-3	5.501074E-3	7.960629E-3	7.503199E-3	1.602041E-2	7.816437E-3	8.804591E-3	8.629261E-3	1.558741E-2	8.822544E-3	6.000917E-3	2.389317E-3	1.300712E-2	1.137376E-2	1.649273E-2	8.083421E-3	1.136128E-2	2.379081E-3	7.384286E-3	1.618348E-2	1.233289E-2	8.270988E-3	1.184998E-2	5.138230E-3	6.080140E-3	4.862500E-3	8.594705E-3	4.073468E-3	3.461796E-3	5.744493E-3	4.185598E-3	8.900221E-3	3.454825E-3	8.478079E-3	1.317496E-2	4.934961E-3	1.334223E-2	1.031328E-2	1.028468E-2	5.924212E-3	1.828007E-3	1.006933E-2	7.907631E-3	1.175131E-2	3.101431E-3	1.221689E-2	1.167051E-2	1.103499E-2	5.154970E-3	7.602519E-3	8.654478E-3	1.207849E-2	7.138194E-3	8.303333E-3	5.127138E-3	1.263941E-2	2.023646E-3	1.715258E-2	9.223097E-3	8.167638E-3	7.545059E-3	3.048736E-3	4.856179E-3	1.369764E-2	4.050689E-3	4.515555E-3	6.327119E-3	1.199393E-2	1.187451E-2	1.000695E-2	8.115673E-3	1.111985E-3	1.534795E-2	3.857630E-3	6.976739E-3	9.479335E-3	6.506423E-3	1.351848E-2	8.479680E-3	2.180218E-3	-3.625996E-4	6.995529E-3	6.994503E-3	1.959384E-2	7.522104E-3	5.662291E-3	7.380523E-4	3.253025E-3	5.602415E-3	5.561711E-3	3.535024E-2
5.330030E+2	1.081699E-2	8.328104E-3	7.105602E-4	1.283038E-1	1.113227E-2	1.490489E-2	1.405850E-2	1.695259E-2	5.366827E-3	2.256819E-2	1.017996E-2	1.490400E-2	1.361276E-2	8.159520E-3	1.534302E-2	1.180523E-2	1.753610E-2	1.402355E-2	1.973577E-2	9.976129E-3	1.819636E-2	1.516748E-2	1.333795E-2	1.732677E-2	2.809384E-2	2.656288E-2	1.561499E-2	1.174754E-2	1.081516E-2	1.045319E-2	8.873729E-3	7.684542E-3	1.090435E-2	1.621127E-2	1.341716E-2	1.566572E-2	1.115461E-2	3.202086E-3	1.527944E-2	1.660298E-2	1.511974E-2	2.228915E-2	8.833032E-3	1.334959E-2	2.272429E-2	1.961317E-2	1.738784E-2	1.199367E-2	1.540995E-2	2.137057E-2	1.843418E-2	1.448087E-2	1.463286E-2	1.967492E-2	1.121274E-2	2.263815E-2	8.686620E-3	9.321419E-3	5.105975E-3	9.911945E-3	1.989926E-2	2.827560E-2	1.995693E-2	1.053566E-2	1.983516E-2	1.117657E-2	1.986012E-2	2.376234E-2	2.696172E-2	1.187420E-2	5.437772E-3	1.786303E-2	1.515159E-2	2.415967E-2	1.217010E-2	1.575557E-2	8.825835E-3	1.687799E-2	6.519512E-3	1.690752E-2	2.684713E-2	1.501113E-2	1.083095E-2	1.998275E-2	1.866390E-2	4.956557E-3	2.115923E-2	1.159339E-2	7.364466E-3	1.956035E-2	2.392580E-2	2.647249E-2	1.612180E-2	2.589077E-2	1.034323E-2	2.354609E-2	1.475403E-2	1.264914E-2	1.455807E-2	1.597964E-2	1.157924E-2	1.997418E-2	1.627113E-2	2.081235E-2	1.716414E-2	1.803571E-2	1.030478E-2	1.225977E-2	2.668298E-2	1.249974E-2	1.563748E-2	2.092917E-2	1.310789E-2	2.170116E-2	1.775520E-2	1.238156E-2	2.475939E-2	2.183093E-2	1.950622E-2	1.937111E-2	6.172494E-3	8.926637E-3	1.633364E-2	1.646313E-2	2.426558E-2	1.235373E-2	2.082646E-2	2.232867E-2	2.103099E-2	1.974043E-2	1.442958E-2	1.513801E-2	1.273952E-2	1.418824E-2	1.917938E-2	1.452732E-2	3.644821E-3	1.115266E-2	1.845548E-2	1.203026E-2	1.893538E-2	9.292823E-3	1.974263E-2	9.636988E-3	2.551350E-2	1.741072E-2	1.694450E-2	1.928682E-2	1.527150E-2	1.752520E-2	1.849408E-2	1.859631E-2	1.772487E-2	1.132569E-2	1.765261E-2	1.130604E-2	1.928738E-2	1.321476E-2	2.288721E-2	1.572917E-2	1.989530E-2	2.427399E-3	7.924893E-3	1.746707E-2	2.387964E-2	1.515562E-2	2.116256E-2	2.198285E-3	1.587129E-2	2.682474E-2	2.110193E-2
5.331520E+2	3.349940E-2	1.311417E-2	1.989137E-2	1.651692E-1	3.122212E-2	2.545512E-2	2.312374E-2	2.860856E-2	2.028039E-2	9.313681E-3	1.870391E-2	2.027795E-2	1.273237E-2	1.863400E-2	2.426458E-2	1.872351E-2	2.007033E-2	1.898404E-2	1.236174E-2	2.277975E-2	1.426236E-2	1.958104E-2	2.005848E-2	1.726433E-2	1.819205E-2	2.655528E-2	1.567386E-2	2.650603E-2	1.767652E-2	1.998782E-2	2.079860E-2	1.910708E-2	1.214929E-2	1.968493E-2	2.244779E-2	2.603369E-2	2.362588E-2	2.005023E-2	3.772880E-2	1.108698E-2	2.017073E-2	3.110686E-2	7.230872E-3	1.877657E-2	1.753998E-2	2.680335E-2	2.378870E-2	2.820215E-2	2.119258E-2	2.424973E-2	2.341000E-2	1.889761E-2	2.344084E-2	2.691465E-2	2.159664E-2	2.170955E-2	1.583058E-2	1.857394E-2	1.771981E-2	2.221761E-2	2.663584E-2	9.927276E-3	2.748143E-2	2.099403E-2	3.084941E-2	1.982493E-2	2.658464E-2	2.496946E-2	2.892080E-2	2.088286E-2	2.500443E-2	2.059229E-2	1.840686E-2	8.731971E-3	2.858398E-2	2.589906E-2	2.138640E-2	3.042753E-2	1.515276E-2	1.529835E-2	2.187225E-2	1.272765E-2	2.209736E-2	1.455499E-2	2.164067E-2	2.328290E-2	2.606049E-2	2.334501E-2	1.943355E-2	2.132125E-2	1.711157E-2	3.786984E-2	1.564031E-2	2.366605E-2	1.161337E-2	1.748218E-2	1.084106E-2	7.648813E-3	2.716085E-2	2.027143E-2	1.474395E-2	7.032614E-3	2.097513E-2	2.590423E-2	2.707897E-2	2.096707E-2	2.238839E-2	1.365654E-2	2.252115E-2	1.075539E-2	2.002259E-2	1.742847E-2	3.663556E-2	2.182427E-2	2.781145E-2	1.999470E-2	2.118238E-2	1.988684E-2	2.491596E-2	1.095257E-2	2.000817E-2	2.924118E-2	2.738035E-2	2.135563E-2	1.790310E-2	2.839139E-2	2.632061E-2	2.567608E-2	2.322091E-2	2.112113E-2	1.755414E-2	1.547531E-2	3.031732E-2	2.596067E-2	3.014398E-2	2.286684E-2	2.667077E-2	2.431873E-2	2.729721E-2	2.646597E-2	2.713798E-2	1.940326E-2	1.794578E-2	2.393289E-2	3.075351E-2	2.292276E-2	2.189817E-2	3.302052E-2	2.188783E-2	1.304864E-2	2.924282E-2	2.359906E-2	1.356050E-2	2.419099E-2	1.891112E-2	2.982396E-2	2.837697E-2	3.118202E-2	1.682634E-2	1.472302E-2	2.176016E-2	2.197883E-2	2.986009E-2	1.695964E-2	3.103209E-2	1.021385E-2	1.540370E-2	2.538949E-2	2.229353E-2	2.162605E-2	4.293392E-2
5.333080E+2	2.604864E-2	2.580169E-2	2.267828E-2	1.665898E-1	2.121918E-2	2.836959E-2	3.114893E-2	4.010262E-2	2.588701E-2	1.879010E-2	3.605840E-2	3.131584E-2	3.236082E-2	1.869793E-2	2.260989E-2	1.797627E-2	2.715530E-2	1.722125E-2	2.093828E-2	2.931921E-2	3.103729E-2	3.073708E-2	3.987721E-2	2.523013E-2	2.330871E-2	3.330367E-2	2.673925E-2	2.805984E-2	2.788672E-2	3.354204E-2	2.343510E-2	3.108963E-2	2.064108E-2	2.525114E-2	2.797252E-2	2.420262E-2	2.966188E-2	2.440863E-2	3.091848E-2	1.473068E-2	2.313697E-2	2.471166E-2	1.341990E-2	2.812153E-2	3.216626E-2	3.500398E-2	2.427187E-2	3.315216E-2	3.652963E-2	2.414171E-2	2.277913E-2	2.372669E-2	3.473445E-2	2.647856E-2	1.843726E-2	9.580534E-3	2.328415E-2	2.927975E-2	3.538486E-2	2.602277E-2	2.624570E-2	2.911504E-2	2.998516E-2	2.541810E-2	2.845485E-2	2.346380E-2	3.543109E-2	1.647444E-2	2.487079E-2	2.676141E-2	2.457551E-2	3.305570E-2	2.507657E-2	2.516391E-2	2.415926E-2	2.807401E-2	2.653181E-2	2.414004E-2	1.973782E-2	3.417739E-2	2.228247E-2	2.150333E-2	1.900277E-2	2.871893E-2	2.409797E-2	2.568441E-2	2.259320E-2	2.907642E-2	2.739722E-2	3.424464E-2	2.123600E-2	2.238201E-2	2.471749E-2	2.806237E-2	2.145593E-2	1.880033E-2	2.894678E-2	3.207192E-2	2.165238E-2	2.445722E-2	2.871131E-2	2.691196E-2	2.476708E-2	2.779721E-2	3.164431E-2	2.830998E-2	2.743760E-2	3.329035E-2	3.039686E-2	1.514961E-2	2.819521E-2	1.914679E-2	3.208700E-2	1.095590E-2	1.329230E-2	1.341173E-2	3.688329E-2	2.411207E-2	2.129338E-2	2.722974E-2	3.822228E-2	3.210097E-2	3.270752E-2	2.810584E-2	3.184382E-2	2.356448E-2	2.343089E-2	3.262371E-2	2.740394E-2	3.339947E-2	3.144315E-2	2.289844E-2	3.850297E-2	3.182083E-2	2.318923E-2	2.912922E-2	2.347413E-2	2.362654E-2	2.682409E-2	3.732647E-2	3.055985E-2	1.861283E-2	2.581110E-2	3.117746E-2	2.760139E-2	2.400809E-2	1.467756E-2	3.129059E-2	3.052283E-2	3.609222E-2	2.792941E-2	2.531578E-2	3.359568E-2	3.283425E-2	2.909533E-2	2.883684E-2	2.410658E-2	2.385595E-2	2.427993E-2	3.657701E-2	3.295150E-2	3.573818E-2	3.164650E-2	3.318712E-2	2.454331E-2	1.462464E-2	3.583940E-2	3.029187E-2	3.954717E-2	1.273144E-3	5.869145E-2
5.334580E+2	3.236578E-2	2.478188E-2	4.488556E-2	3.627925E-1	2.143894E-2	2.467938E-2	3.099655E-2	3.807020E-2	2.859063E-2	2.222792E-2	3.738903E-2	3.443515E-2	2.959471E-2	3.799376E-2	4.167682E-2	2.639762E-2	2.552381E-2	3.970507E-2	3.099908E-2	3.335383E-2	2.749463E-2	2.601679E-2	3.014967E-2	2.277365E-2	3.057140E-2	2.663383E-2	3.941054E-2	3.696091E-2	3.216926E-2	2.806342E-2	3.693735E-2	3.408505E-2	3.178297E-2	3.336778E-2	4.474740E-2	3.839953E-2	3.826720E-2	3.500286E-2	3.479627E-2	2.364264E-2	2.956805E-2	3.130982E-2	2.869792E-2	2.478329E-2	3.064370E-2	3.605622E-2	3.567105E-2	3.512582E-2	3.440969E-2	3.423026E-2	3.455705E-2	2.571958E-2	3.295413E-2	4.354073E-2	4.128807E-2	3.151401E-2	2.459939E-2	3.323234E-2	3.661295E-2	3.064422E-2	4.462948E-2	2.304447E-2	3.418787E-2	4.490735E-2	3.732090E-2	4.296919E-2	3.391994E-2	4.423730E-2	3.418504E-2	3.054871E-2	2.473826E-2	3.415811E-2	3.147262E-2	2.960585E-2	4.405468E-2	2.146047E-2	3.347908E-2	4.444056E-2	2.073261E-2	3.595495E-2	4.312685E-2	2.763470E-2	3.563594E-2	3.383405E-2	3.223865E-2	3.502221E-2	3.063220E-2	3.625537E-2	3.759213E-2	3.154363E-2	3.616667E-2	4.318219E-2	4.168251E-2	2.822156E-2	4.175862E-2	4.056418E-2	2.279267E-2	3.220563E-2	2.475908E-2	3.420574E-2	3.251241E-2	3.217901E-2	3.155674E-2	4.387724E-2	4.402490E-2	3.708215E-2	2.642655E-2	2.380007E-2	3.148106E-2	3.081737E-2	2.513640E-2	4.233095E-2	4.042049E-2	3.474540E-2	3.601898E-2	3.311954E-2	3.425495E-2	2.487470E-2	2.966621E-2	2.642873E-2	3.678648E-2	4.115394E-2	3.880788E-2	3.579930E-2	2.762228E-2	3.178048E-2	4.373135E-2	3.618793E-2	3.749253E-2	3.867998E-2	3.141295E-2	3.054341E-2	3.724666E-2	3.551350E-2	3.141672E-2	3.952634E-2	3.611119E-2	3.717451E-2	3.867804E-2	3.252602E-2	3.266148E-2	3.900091E-2	3.511892E-2	3.418482E-2	3.592787E-2	1.466186E-2	2.558070E-2	3.580293E-2	3.236347E-2	2.882301E-2	3.109161E-2	4.769848E-2	3.658392E-2	2.018959E-2	4.212495E-2	3.731222E-2	3.940244E-2	2.805447E-2	3.888169E-2	2.776147E-2	2.773578E-2	4.508189E-2	3.903821E-2	3.472643E-2	4.252525E-2	2.381762E-2	2.783868E-2	4.241333E-2	2.720106E-2	3.649362E-2	1.377504E-2
5.336080E+2	5.278166E-2	3.545203E-2	4.675288E-2	3.832769E-1	4.233326E-2	4.902933E-2	2.606285E-2	4.878580E-2	5.173886E-2	4.166096E-2	3.753639E-2	3.633623E-2	3.918888E-2	4.306474E-2	3.754766E-2	3.275070E-2	4.698845E-2	3.164719E-2	3.574520E-2	5.515411E-2	4.674063E-2	4.181282E-2	4.657090E-2	3.973247E-2	5.251190E-2	5.534016E-2	5.137343E-2	4.915147E-2	4.541924E-2	5.229317E-2	4.270607E-2	4.261905E-2	4.241068E-2	5.054206E-2	4.142591E-2	4.083514E-2	5.555276E-2	3.601639E-2	5.391921E-2	4.362238E-2	5.108422E-2	4.037027E-2	3.758352E-2	5.422668E-2	5.066476E-2	5.211274E-2	5.010840E-2	5.033721E-2	3.514292E-2	3.254750E-2	5.019840E-2	3.353521E-2	5.297556E-2	4.643762E-2	4.236035E-2	3.734491E-2	4.654875E-2	4.746932E-2	4.618843E-2	4.082807E-2	4.024968E-2	3.700319E-2	4.561408E-2	4.640520E-2	3.919070E-2	2.801756E-2	4.973731E-2	4.197879E-2	3.434575E-2	4.430466E-2	5.068536E-2	4.588330E-2	3.974791E-2	3.294782E-2	2.825216E-2	3.398182E-2	4.084074E-2	5.319853E-2	3.829151E-2	3.140631E-2	4.942137E-2	4.634894E-2	4.934139E-2	3.728045E-2	4.839013E-2	3.807136E-2	5.994676E-2	3.421361E-2	4.904508E-2	4.304070E-2	4.635820E-2	4.043069E-2	5.819995E-2	3.799674E-2	4.150507E-2	4.333863E-2	3.377954E-2	4.842028E-2	5.484618E-2	3.112922E-2	3.995741E-2	4.491012E-2	3.835025E-2	3.886770E-2	4.238855E-2	4.469330E-2	3.515738E-2	3.353321E-2	3.904536E-2	3.274748E-2	4.845013E-2	4.167609E-2	5.639056E-2	4.551980E-2	4.057319E-2	4.485243E-2	3.807120E-2	3.645928E-2	4.258981E-2	4.806154E-2	3.316746E-2	3.834971E-2	3.883397E-2	4.917040E-2	5.076234E-2	4.891170E-2	4.548826E-2	5.085155E-2	4.937515E-2	4.554550E-2	3.913014E-2	3.346382E-2	5.600237E-2	4.205182E-2	5.068877E-2	5.283338E-2	5.002797E-2	6.242797E-2	3.607134E-2	3.459489E-2	3.718245E-2	3.392461E-2	3.992345E-2	3.939588E-2	4.988895E-2	4.725896E-2	5.142157E-2	4.575008E-2	4.761818E-2	3.965831E-2	4.015036E-2	4.790830E-2	5.712136E-2	4.955177E-2	6.130687E-2	5.252911E-2	2.540151E-2	3.443795E-2	4.694985E-2	4.398800E-2	4.582325E-2	4.588180E-2	4.443090E-2	6.675399E-2	5.230373E-2	4.353011E-2	4.098546E-2	3.589659E-2	3.572655E-2	4.600454E-2	8.220874E-2
5.337580E+2	5.922256E-2	5.277025E-2	5.918419E-2	2.861844E-1	5.847289E-2	5.695772E-2	5.759432E-2	6.636950E-2	4.564106E-2	6.173185E-2	6.721005E-2	5.671501E-2	6.547276E-2	3.959304E-2	5.322434E-2	4.987284E-2	6.859340E-2	5.700389E-2	6.321682E-2	4.710402E-2	5.189789E-2	4.870540E-2	5.759518E-2	4.611351E-2	6.865143E-2	5.160914E-2	5.784429E-2	5.599594E-2	4.886668E-2	5.380677E-2	4.549741E-2	5.075786E-2	5.948888E-2	4.965640E-2	6.539163E-2	6.065825E-2	6.126736E-2	5.532520E-2	5.781239E-2	5.350178E-2	5.265665E-2	5.943167E-2	6.236745E-2	6.523278E-2	4.915475E-2	5.660912E-2	6.240685E-2	4.921739E-2	4.067919E-2	7.463519E-2	5.378483E-2	5.909595E-2	4.094650E-2	6.993198E-2	6.846078E-2	4.934870E-2	4.514309E-2	5.371129E-2	5.380691E-2	4.282497E-2	5.097733E-2	4.850299E-2	6.429706E-2	5.889863E-2	5.644041E-2	7.080688E-2	4.107945E-2	5.728109E-2	5.971568E-2	4.769511E-2	5.510930E-2	5.812111E-2	6.213544E-2	6.007447E-2	5.326066E-2	5.290447E-2	5.416398E-2	6.880953E-2	4.388576E-2	6.228630E-2	6.543869E-2	5.505512E-2	5.141450E-2	5.520841E-2	6.275583E-2	6.442760E-2	5.177234E-2	5.330160E-2	6.580211E-2	7.231333E-2	6.141031E-2	6.999115E-2	6.753530E-2	4.785828E-2	5.285853E-2	6.992414E-2	5.239565E-2	5.674961E-2	6.411469E-2	4.158728E-2	5.173117E-2	5.771294E-2	5.710526E-2	6.440889E-2	5.612280E-2	4.672951E-2	4.237482E-2	4.865628E-2	5.410824E-2	6.669879E-2	6.405141E-2	5.027367E-2	4.095508E-2	4.775007E-2	6.473676E-2	3.648943E-2	5.315534E-2	5.715919E-2	5.834562E-2	5.947808E-2	5.315405E-2	5.966271E-2	4.812630E-2	5.328487E-2	5.013258E-2	5.540141E-2	5.298301E-2	5.021041E-2	5.034152E-2	4.342937E-2	5.877028E-2	7.339330E-2	5.264067E-2	5.659869E-2	5.744248E-2	5.618516E-2	5.359241E-2	5.546167E-2	4.910310E-2	6.670255E-2	5.420989E-2	5.990822E-2	6.378983E-2	4.796863E-2	6.841275E-2	7.658177E-2	6.482205E-2	5.542831E-2	6.673223E-2	5.397172E-2	4.276103E-2	5.544110E-2	5.810293E-2	4.869118E-2	4.665757E-2	5.514483E-2	4.945205E-2	5.770524E-2	6.506307E-2	4.855569E-2	5.208578E-2	6.085040E-2	5.171732E-2	4.733966E-2	5.924306E-2	4.929747E-2	5.899831E-2	7.214752E-2	2.292816E-2	4.574848E-2	6.676537E-2
5.339400E+2	9.122852E-2	5.869312E-2	7.835857E-2	3.783489E-1	8.648795E-2	8.617003E-2	8.264092E-2	9.300190E-2	7.792407E-2	8.068283E-2	7.739919E-2	5.015984E-2	6.582453E-2	7.442603E-2	8.482614E-2	7.651242E-2	7.214480E-2	8.543784E-2	7.253236E-2	7.825335E-2	7.654164E-2	7.119148E-2	7.265351E-2	8.033432E-2	9.106620E-2	8.299457E-2	9.693524E-2	7.952880E-2	9.119022E-2	8.115853E-2	8.918802E-2	8.249613E-2	8.676173E-2	7.636298E-2	8.483329E-2	8.967105E-2	7.974662E-2	8.553368E-2	8.805954E-2	9.247182E-2	9.023815E-2	8.785567E-2	7.696454E-2	8.512036E-2	8.910174E-2	8.605661E-2	8.560248E-2	8.840781E-2	9.708511E-2	7.499669E-2	6.595992E-2	7.570329E-2	7.860226E-2	8.383972E-2	9.326975E-2	9.018239E-2	9.760817E-2	9.720752E-2	7.800348E-2	8.255555E-2	9.317617E-2	9.697588E-2	8.593884E-2	9.437316E-2	8.913326E-2	8.706743E-2	8.258498E-2	7.472194E-2	9.203541E-2	9.419200E-2	7.685787E-2	8.009731E-2	9.038445E-2	8.111586E-2	7.363422E-2	8.117529E-2	8.241075E-2	9.145204E-2	8.149619E-2	7.442581E-2	7.846041E-2	8.573011E-2	7.738001E-2	9.230033E-2	9.211870E-2	8.107245E-2	7.563716E-2	9.617663E-2	8.413194E-2	8.094264E-2	8.218331E-2	1.121393E-1	7.739123E-2	8.447058E-2	7.674514E-2	8.800744E-2	8.005702E-2	8.441943E-2	7.492442E-2	7.586722E-2	8.397043E-2	7.843207E-2	8.107924E-2	1.074320E-1	8.609528E-2	7.789625E-2	8.324310E-2	7.688480E-2	7.194226E-2	7.717114E-2	7.710950E-2	7.654967E-2	8.016705E-2	7.128602E-2	8.832155E-2	7.776270E-2	8.398447E-2	7.264304E-2	7.730020E-2	7.721504E-2	6.976369E-2	7.477410E-2	7.921761E-2	8.489683E-2	8.671490E-2	9.702169E-2	9.818152E-2	8.461122E-2	8.474091E-2	8.173776E-2	8.993712E-2	7.377483E-2	8.254353E-2	9.975496E-2	8.783411E-2	8.298414E-2	7.354817E-2	8.677014E-2	8.961880E-2	8.481597E-2	7.430111E-2	6.954184E-2	8.627929E-2	7.499218E-2	8.594507E-2	7.711663E-2	6.419814E-2	9.182854E-2	7.788081E-2	7.869286E-2	9.043403E-2	7.977089E-2	6.597401E-2	8.025133E-2	9.965909E-2	9.918437E-2	8.198744E-2	7.563074E-2	9.287535E-2	8.347370E-2	8.474974E-2	7.966502E-2	7.087157E-2	8.425048E-2	1.061447E-1	8.350972E-2	8.146051E-2	7.127895E-2	1.050699E-1	6.027720E-2	1.510748E-1
5.340740E+2	1.175583E-1	9.546253E-2	1.075173E-1	4.864476E-1	1.111303E-1	1.002166E-1	1.097361E-1	1.008849E-1	1.072521E-1	1.176830E-1	1.137320E-1	1.023789E-1	1.129975E-1	1.052362E-1	1.211575E-1	1.143369E-1	1.004690E-1	1.023582E-1	1.093156E-1	9.737886E-2	1.084677E-1	9.700033E-2	1.023259E-1	9.392566E-2	1.368449E-1	1.406922E-1	1.205379E-1	1.311787E-1	1.278426E-1	1.357598E-1	1.208080E-1	1.158193E-1	1.377249E-1	1.137242E-1	1.099354E-1	1.130119E-1	1.292100E-1	1.281537E-1	1.253547E-1	1.204291E-1	1.322749E-1	1.303722E-1	1.108932E-1	1.133685E-1	1.205989E-1	1.198531E-1	1.156851E-1	1.249819E-1	1.194245E-1	1.380810E-1	1.193627E-1	1.210876E-1	1.229134E-1	1.280635E-1	1.239296E-1	1.156709E-1	1.209440E-1	1.201334E-1	1.048832E-1	1.156779E-1	1.205207E-1	1.173168E-1	1.163903E-1	9.891191E-2	1.166318E-1	1.282129E-1	1.343737E-1	1.211677E-1	1.207603E-1	1.375325E-1	1.188136E-1	1.066383E-1	1.130500E-1	1.205331E-1	1.045412E-1	1.010353E-1	1.165661E-1	1.204570E-1	1.191237E-1	1.121494E-1	1.246839E-1	9.842534E-2	1.188416E-1	1.067421E-1	1.208423E-1	1.141880E-1	1.129124E-1	1.222866E-1	1.189603E-1	1.055540E-1	1.258040E-1	1.162450E-1	1.219175E-1	1.343276E-1	1.061726E-1	1.263990E-1	1.226295E-1	1.259702E-1	1.338621E-1	1.290493E-1	1.386652E-1	1.239364E-1	1.222069E-1	1.117915E-1	1.266191E-1	1.404537E-1	1.219659E-1	1.117193E-1	1.162986E-1	1.232024E-1	1.180064E-1	1.225719E-1	1.049008E-1	1.129624E-1	1.295695E-1	1.110458E-1	1.111162E-1	1.023956E-1	1.196355E-1	9.694490E-2	1.172844E-1	1.331664E-1	1.171560E-1	1.210768E-1	1.135411E-1	1.188752E-1	1.120895E-1	1.131886E-1	1.104321E-1	1.068199E-1	1.063971E-1	1.007990E-1	1.248366E-1	1.161717E-1	1.136822E-1	1.281764E-1	1.254952E-1	1.349063E-1	1.280180E-1	1.199705E-1	1.168913E-1	1.058367E-1	1.315382E-1	1.351936E-1	1.186783E-1	1.234481E-1	1.217103E-1	1.034565E-1	1.202157E-1	1.242624E-1	1.123879E-1	1.263017E-1	1.345137E-1	1.213725E-1	1.245316E-1	1.218465E-1	1.171181E-1	1.195694E-1	1.333582E-1	1.079721E-1	1.300446E-1	1.353968E-1	1.338315E-1	1.354249E-1	1.184629E-1	1.164188E-1	1.146540E-1	1.259618E-1	1.346121E-1	9.308943E-2	9.035511E-2
5.342040E+2	1.647901E-1	1.712798E-1	1.625817E-1	1.211671E+0	1.536929E-1	1.619254E-1	1.684147E-1	1.670805E-1	1.699901E-1	1.663373E-1	1.759677E-1	1.886702E-1	1.755952E-1	1.691356E-1	1.630211E-1	1.736973E-1	1.563508E-1	1.776149E-1	1.712702E-1	1.646992E-1	1.600498E-1	1.785444E-1	1.676769E-1	1.579497E-1	2.145120E-1	2.088798E-1	2.155281E-1	2.062690E-1	1.989375E-1	1.898481E-1	1.860837E-1	1.803491E-1	1.969296E-1	1.864920E-1	1.773434E-1	2.048409E-1	1.868980E-1	1.904246E-1	1.909780E-1	1.863923E-1	1.943138E-1	1.749150E-1	1.960959E-1	1.930669E-1	1.909990E-1	1.712731E-1	1.795936E-1	1.957442E-1	1.713716E-1	1.915968E-1	1.682512E-1	1.878350E-1	1.700846E-1	2.025785E-1	1.871541E-1	1.905671E-1	1.734978E-1	1.772265E-1	1.831757E-1	1.677408E-1	1.829939E-1	1.742584E-1	1.795661E-1	1.735876E-1	1.732509E-1	1.692174E-1	1.776332E-1	1.820318E-1	1.775094E-1	1.824414E-1	1.791806E-1	1.891089E-1	1.971276E-1	1.709380E-1	1.759887E-1	1.830280E-1	1.769231E-1	1.844019E-1	1.758622E-1	1.744269E-1	1.784327E-1	1.880882E-1	2.075197E-1	1.791545E-1	1.833222E-1	1.916391E-1	1.842923E-1	1.862208E-1	1.979533E-1	1.871133E-1	1.909870E-1	1.863754E-1	1.710332E-1	1.956146E-1	1.691511E-1	1.934788E-1	1.700988E-1	1.811875E-1	1.907523E-1	1.825515E-1	2.021219E-1	1.744264E-1	1.884539E-1	1.889871E-1	1.896792E-1	1.749357E-1	1.840339E-1	1.519280E-1	1.908381E-1	1.619882E-1	1.763526E-1	1.816564E-1	1.769072E-1	1.764906E-1	1.727205E-1	1.941692E-1	1.963861E-1	1.654343E-1	1.783007E-1	1.939379E-1	1.758933E-1	1.729314E-1	1.702685E-1	1.903992E-1	1.875727E-1	1.827657E-1	2.002372E-1	1.995454E-1	1.887346E-1	1.878621E-1	1.724916E-1	1.644239E-1	1.902849E-1	1.874147E-1	1.949752E-1	1.715883E-1	1.752950E-1	1.718499E-1	1.929577E-1	1.669689E-1	1.826906E-1	1.847452E-1	1.870111E-1	1.772628E-1	1.933501E-1	1.867903E-1	1.663684E-1	1.627035E-1	1.935183E-1	1.766597E-1	1.925800E-1	1.875861E-1	1.792748E-1	1.763918E-1	1.867908E-1	1.756729E-1	2.057741E-1	1.874767E-1	1.746959E-1	1.699092E-1	1.835501E-1	1.968735E-1	1.797129E-1	1.902064E-1	1.864694E-1	1.737726E-1	1.939278E-1	1.833779E-1	1.519171E-1	1.520229E-1	2.055887E-1
5.343550E+2	2.806006E-1	3.056109E-1	2.753926E-1	1.996460E+0	2.882723E-1	2.885503E-1	2.750151E-1	2.912007E-1	3.011336E-1	2.907139E-1	3.059840E-1	2.938060E-1	2.731601E-1	2.837501E-1	3.099196E-1	2.903258E-1	2.974011E-1	2.824382E-1	2.932046E-1	2.896497E-1	2.920824E-1	3.128259E-1	2.962373E-1	2.883912E-1	4.215988E-1	3.599839E-1	3.541640E-1	3.603646E-1	3.444190E-1	3.500097E-1	3.343437E-1	3.385946E-1	3.361879E-1	3.088236E-1	3.455455E-1	3.525661E-1	3.347909E-1	3.345869E-1	3.454554E-1	3.160635E-1	3.132340E-1	3.356079E-1	3.107511E-1	3.237927E-1	3.141865E-1	3.366952E-1	3.192887E-1	3.036831E-1	3.246691E-1	3.043301E-1	3.024531E-1	3.225980E-1	3.098478E-1	3.077248E-1	3.158749E-1	3.166775E-1	2.990974E-1	3.130096E-1	2.987426E-1	3.105233E-1	3.131437E-1	2.955982E-1	3.221853E-1	3.204683E-1	3.073273E-1	3.332362E-1	3.204357E-1	3.394230E-1	3.143455E-1	3.238573E-1	3.171992E-1	3.100340E-1	3.395275E-1	2.996962E-1	3.175049E-1	3.205428E-1	3.002506E-1	3.263921E-1	3.015903E-1	2.924547E-1	2.892725E-1	3.460281E-1	3.245363E-1	3.172377E-1	3.148760E-1	3.281629E-1	3.106854E-1	3.228778E-1	3.181970E-1	3.165242E-1	3.186406E-1	2.855804E-1	3.184774E-1	2.997112E-1	3.232115E-1	3.134456E-1	3.010922E-1	3.145800E-1	3.208411E-1	2.728467E-1	3.181753E-1	3.038128E-1	3.162631E-1	3.224050E-1	2.972044E-1	3.115134E-1	2.994356E-1	2.976784E-1	3.170879E-1	3.148947E-1	2.926494E-1	3.003557E-1	3.301639E-1	3.102711E-1	3.114545E-1	3.014472E-1	2.987491E-1	3.330348E-1	2.926673E-1	3.144795E-1	3.408904E-1	3.279630E-1	2.987431E-1	3.200899E-1	3.170682E-1	3.171650E-1	3.164931E-1	3.195777E-1	3.099690E-1	3.012016E-1	2.987644E-1	3.166944E-1	3.328954E-1	3.297391E-1	3.235961E-1	3.003486E-1	3.347457E-1	2.876247E-1	2.997957E-1	3.212184E-1	3.101721E-1	3.233370E-1	3.044490E-1	3.186519E-1	2.965240E-1	3.323721E-1	3.320236E-1	3.122962E-1	3.322033E-1	3.017929E-1	3.181671E-1	3.144477E-1	2.855038E-1	3.417634E-1	3.374599E-1	3.517028E-1	3.209596E-1	3.164519E-1	3.238082E-1	3.470822E-1	2.986219E-1	3.048242E-1	3.073678E-1	3.125783E-1	3.296371E-1	3.011492E-1	3.196760E-1	3.497756E-1	3.255837E-1	3.494916E-1	3.396843E-1
5.345110E+2	5.330950E-1	4.851612E-1	4.827398E-1	2.612024E+0	4.833846E-1	5.619032E-1	4.938093E-1	5.250953E-1	4.839089E-1	5.331082E-1	5.127303E-1	4.916907E-1	5.009846E-1	5.187790E-1	5.205481E-1	5.142130E-1	5.095812E-1	5.066951E-1	5.172611E-1	5.276292E-1	5.032245E-1	5.293734E-1	5.167114E-1	5.561966E-1	6.107538E-1	6.132681E-1	6.270933E-1	5.709923E-1	5.863249E-1	5.876198E-1	5.762856E-1	5.843486E-1	5.741073E-1	5.879474E-1	5.893392E-1	5.255189E-1	5.585322E-1	5.343710E-1	5.569709E-1	5.303769E-1	5.654483E-1	5.508140E-1	5.428586E-1	5.954354E-1	5.256490E-1	5.319923E-1	5.586944E-1	5.739451E-1	5.480182E-1	5.530800E-1	5.457718E-1	5.986455E-1	5.693544E-1	5.273774E-1	5.586753E-1	5.504539E-1	5.853621E-1	5.153521E-1	5.547151E-1	5.942266E-1	5.732068E-1	5.565798E-1	5.533899E-1	5.472720E-1	5.392324E-1	5.642535E-1	5.593123E-1	5.526958E-1	5.623646E-1	5.857950E-1	5.140862E-1	5.375829E-1	5.492085E-1	5.238296E-1	5.396720E-1	5.173324E-1	5.497359E-1	5.593370E-1	5.719651E-1	5.048185E-1	5.330084E-1	5.695152E-1	5.471509E-1	5.637821E-1	5.372390E-1	5.657407E-1	5.530587E-1	5.388955E-1	5.548043E-1	5.037297E-1	5.565730E-1	5.457524E-1	5.571264E-1	5.184296E-1	5.789195E-1	5.485197E-1	5.250322E-1	5.349713E-1	5.294203E-1	5.518304E-1	5.542462E-1	5.223455E-1	5.710332E-1	5.497532E-1	5.175911E-1	5.213963E-1	5.186389E-1	5.380641E-1	5.650812E-1	5.439311E-1	5.569362E-1	5.384220E-1	5.431902E-1	5.564451E-1	5.419884E-1	5.426154E-1	5.409484E-1	5.647242E-1	5.207323E-1	5.337418E-1	5.455202E-1	5.823813E-1	5.288242E-1	5.585036E-1	5.113403E-1	5.330047E-1	5.398150E-1	5.473644E-1	5.150819E-1	5.205800E-1	5.196293E-1	5.265947E-1	5.603799E-1	5.354989E-1	5.481781E-1	5.509758E-1	5.598689E-1	5.786439E-1	5.368394E-1	5.482228E-1	5.311461E-1	5.429013E-1	5.514233E-1	5.477433E-1	5.371524E-1	5.252203E-1	5.540951E-1	5.255133E-1	5.605936E-1	5.292344E-1	5.519428E-1	5.362856E-1	5.665733E-1	5.490863E-1	5.287296E-1	4.961398E-1	5.342655E-1	5.201767E-1	5.461551E-1	5.420845E-1	5.135139E-1	5.389743E-1	5.736829E-1	5.300266E-1	5.484773E-1	5.457211E-1	5.428732E-1	5.812064E-1	5.432113E-1	5.439370E-1	5.782345E-1
5.346620E+2	8.199983E-1	8.436972E-1	8.110785E-1	4.439782E+0	7.954072E-1	8.196614E-1	8.137210E-1	8.310369E-1	8.413974E-1	8.443042E-1	8.158633E-1	8.250481E-1	8.517374E-1	8.267562E-1	8.566906E-1	8.474300E-1	8.293352E-1	8.081568E-1	8.297044E-1	8.666474E-1	8.549601E-1	8.261129E-1	8.319208E-1	8.405538E-1	9.682395E-1	9.070103E-1	9.501477E-1	8.832141E-1	8.985592E-1	9.124439E-1	9.101087E-1	8.827748E-1	9.177626E-1	9.013023E-1	8.848222E-1	8.765308E-1	8.817233E-1	8.781662E-1	8.551445E-1	9.114979E-1	9.289943E-1	8.659409E-1	8.743032E-1	9.077882E-1	8.717047E-1	8.743980E-1	9.033533E-1	9.005536E-1	8.949881E-1	8.846606E-1	7.973975E-1	8.974051E-1	8.746583E-1	8.788743E-1	9.065797E-1	8.500800E-1	8.863948E-1	8.740728E-1	8.451369E-1	8.959439E-1	8.773776E-1	9.098012E-1	8.273310E-1	8.395270E-1	8.480938E-1	8.182567E-1	8.539454E-1	8.637601E-1	8.719025E-1	8.821366E-1	8.677796E-1	8.798005E-1	8.558339E-1	8.289315E-1	8.304123E-1	8.782801E-1	8.081415E-1	8.636609E-1	8.875610E-1	8.359226E-1	8.898809E-1	8.382865E-1	9.191118E-1	9.040561E-1	8.508882E-1	8.754454E-1	8.618517E-1	8.374319E-1	8.793995E-1	8.357502E-1	8.601214E-1	8.548935E-1	8.929500E-1	8.356306E-1	8.591945E-1	9.303592E-1	8.528687E-1	8.641002E-1	8.578793E-1	8.452261E-1	8.535309E-1	8.485577E-1	8.748729E-1	8.829815E-1	8.558062E-1	8.568246E-1	8.798882E-1	8.983001E-1	8.595343E-1	8.721453E-1	8.878857E-1	8.651718E-1	8.599445E-1	8.812042E-1	9.029646E-1	8.627773E-1	8.550017E-1	8.540702E-1	8.156821E-1	8.389130E-1	8.722200E-1	8.279677E-1	8.254886E-1	8.846643E-1	8.561766E-1	8.522539E-1	8.896370E-1	8.735238E-1	8.908038E-1	8.609986E-1	8.609123E-1	8.014170E-1	8.218535E-1	8.961103E-1	8.981052E-1	7.982725E-1	8.605648E-1	8.481199E-1	8.550031E-1	8.875330E-1	8.780493E-1	8.749002E-1	8.848707E-1	8.909729E-1	8.379802E-1	8.609331E-1	8.695340E-1	8.610884E-1	8.486873E-1	8.995873E-1	8.754460E-1	8.750332E-1	8.841686E-1	8.616154E-1	8.838057E-1	9.092301E-1	8.669750E-1	8.654606E-1	8.802855E-1	8.942288E-1	8.652542E-1	8.435737E-1	8.273675E-1	8.931564E-1	8.850327E-1	8.560056E-1	8.775370E-1	9.067631E-1	9.341074E-1	8.078304E-1	9.779179E-1
5.348020E+2	1.174111E+0	1.153757E+0	1.103695E+0	6.395021E+0	1.149899E+0	1.166929E+0	1.138453E+0	1.219848E+0	1.185325E+0	1.137179E+0	1.157045E+0	1.186472E+0	1.151418E+0	1.181474E+0	1.137645E+0	1.206653E+0	1.143812E+0	1.185266E+0	1.169533E+0	1.159980E+0	1.177279E+0	1.139317E+0	1.154938E+0	1.169518E+0	1.284233E+0	1.235666E+0	1.239102E+0	1.233721E+0	1.237635E+0	1.239163E+0	1.274711E+0	1.186039E+0	1.255018E+0	1.254464E+0	1.230950E+0	1.207290E+0	1.211831E+0	1.175056E+0	1.216167E+0	1.232328E+0	1.248035E+0	1.191286E+0	1.173104E+0	1.242815E+0	1.190287E+0	1.220785E+0	1.198850E+0	1.197501E+0	1.171982E+0	1.162521E+0	1.177372E+0	1.189045E+0	1.207529E+0	1.159419E+0	1.198762E+0	1.188211E+0	1.242890E+0	1.134670E+0	1.218829E+0	1.255284E+0	1.259277E+0	1.168648E+0	1.196503E+0	1.216723E+0	1.147101E+0	1.235558E+0	1.206655E+0	1.176925E+0	1.175712E+0	1.192182E+0	1.165769E+0	1.220766E+0	1.202913E+0	1.162470E+0	1.153777E+0	1.176238E+0	1.140010E+0	1.184814E+0	1.221843E+0	1.164665E+0	1.149411E+0	1.257869E+0	1.195006E+0	1.262149E+0	1.234976E+0	1.147993E+0	1.213435E+0	1.189740E+0	1.158321E+0	1.199169E+0	1.242266E+0	1.211518E+0	1.229942E+0	1.208807E+0	1.196267E+0	1.216174E+0	1.159389E+0	1.192003E+0	1.219078E+0	1.165829E+0	1.236943E+0	1.162303E+0	1.197276E+0	1.174686E+0	1.137457E+0	1.169584E+0	1.185514E+0	1.252082E+0	1.161807E+0	1.211365E+0	1.215438E+0	1.201183E+0	1.190504E+0	1.216212E+0	1.141951E+0	1.220674E+0	1.229015E+0	1.201550E+0	1.188314E+0	1.178060E+0	1.177093E+0	1.219053E+0	1.135494E+0	1.241647E+0	1.153638E+0	1.183420E+0	1.168919E+0	1.177237E+0	1.106451E+0	1.201107E+0	1.143024E+0	1.164770E+0	1.194772E+0	1.178708E+0	1.189726E+0	1.221536E+0	1.180195E+0	1.206564E+0	1.160235E+0	1.193080E+0	1.203939E+0	1.175739E+0	1.186933E+0	1.177205E+0	1.159533E+0	1.148690E+0	1.131589E+0	1.167384E+0	1.160325E+0	1.200659E+0	1.154916E+0	1.179537E+0	1.196276E+0	1.152261E+0	1.226707E+0	1.194984E+0	1.226410E+0	1.176503E+0	1.234007E+0	1.195736E+0	1.165600E+0	1.209296E+0	1.167657E+0	1.206994E+0	1.164922E+0	1.183089E+0	1.190490E+0	1.199637E+0	1.138837E+0	1.335402E+0	1.225113E+0
5.349580E+2	1.611028E+0	1.528563E+0	1.508556E+0	9.555528E+0	1.524104E+0	1.540805E+0	1.554056E+0	1.580843E+0	1.487774E+0	1.556804E+0	1.529570E+0	1.519936E+0	1.566639E+0	1.580548E+0	1.549453E+0	1.544502E+0	1.526666E+0	1.505464E+0	1.586458E+0	1.556439E+0	1.578938E+0	1.562994E+0	1.488487E+0	1.545747E+0	1.653927E+0	1.595272E+0	1.604805E+0	1.557326E+0	1.559663E+0	1.632942E+0	1.565707E+0	1.594830E+0	1.652961E+0	1.616864E+0	1.529634E+0	1.471688E+0	1.598529E+0	1.532919E+0	1.593096E+0	1.575742E+0	1.616610E+0	1.561870E+0	1.585975E+0	1.553581E+0	1.551269E+0	1.530331E+0	1.601021E+0	1.589623E+0	1.603210E+0	1.532431E+0	1.590707E+0	1.610191E+0	1.538952E+0	1.582275E+0	1.569651E+0	1.574083E+0	1.603346E+0	1.551182E+0	1.525033E+0	1.567874E+0	1.552887E+0	1.547954E+0	1.536032E+0	1.598270E+0	1.551138E+0	1.527946E+0	1.514119E+0	1.553321E+0	1.541744E+0	1.556684E+0	1.500510E+0	1.521940E+0	1.530454E+0	1.547006E+0	1.553384E+0	1.592213E+0	1.507515E+0	1.592492E+0	1.504270E+0	1.596845E+0	1.505784E+0	1.569545E+0	1.524641E+0	1.602215E+0	1.534828E+0	1.518511E+0	1.631499E+0	1.594711E+0	1.559699E+0	1.490435E+0	1.556301E+0	1.547924E+0	1.559384E+0	1.526935E+0	1.541355E+0	1.592556E+0	1.541508E+0	1.584170E+0	1.585238E+0	1.552526E+0	1.553388E+0	1.585012E+0	1.587383E+0	1.513198E+0	1.513062E+0	1.530644E+0	1.555449E+0	1.599679E+0	1.564602E+0	1.587741E+0	1.510037E+0	1.569177E+0	1.501671E+0	1.553926E+0	1.527499E+0	1.538018E+0	1.529215E+0	1.548873E+0	1.514447E+0	1.598076E+0	1.469387E+0	1.596570E+0	1.512955E+0	1.567047E+0	1.557890E+0	1.488168E+0	1.548339E+0	1.490431E+0	1.540772E+0	1.513876E+0	1.472691E+0	1.530816E+0	1.496847E+0	1.499908E+0	1.578998E+0	1.557104E+0	1.542053E+0	1.609434E+0	1.554218E+0	1.563068E+0	1.592620E+0	1.585678E+0	1.529327E+0	1.598604E+0	1.517919E+0	1.541568E+0	1.535124E+0	1.520256E+0	1.556153E+0	1.589018E+0	1.567148E+0	1.601981E+0	1.444031E+0	1.501173E+0	1.579985E+0	1.517458E+0	1.559965E+0	1.530550E+0	1.526270E+0	1.595720E+0	1.517911E+0	1.576462E+0	1.449072E+0	1.526643E+0	1.501366E+0	1.503587E+0	1.574809E+0	1.539097E+0	1.518880E+0	1.673775E+0	1.701334E+0
5.351040E+2	1.825182E+0	1.813880E+0	1.769820E+0	1.076082E+1	1.798714E+0	1.765984E+0	1.823212E+0	1.783151E+0	1.822627E+0	1.849232E+0	1.786777E+0	1.849508E+0	1.823806E+0	1.792642E+0	1.777220E+0	1.819377E+0	1.776522E+0	1.765126E+0	1.814311E+0	1.754246E+0	1.826404E+0	1.801860E+0	1.790787E+0	1.836932E+0	1.806499E+0	1.803924E+0	1.793643E+0	1.811958E+0	1.789246E+0	1.859589E+0	1.822650E+0	1.773662E+0	1.842249E+0	1.799157E+0	1.788398E+0	1.775662E+0	1.807802E+0	1.750365E+0	1.821878E+0	1.819893E+0	1.833943E+0	1.776120E+0	1.880160E+0	1.761207E+0	1.774572E+0	1.797140E+0	1.774787E+0	1.771251E+0	1.773348E+0	1.783517E+0	1.832371E+0	1.813930E+0	1.805205E+0	1.831811E+0	1.816538E+0	1.805569E+0	1.886488E+0	1.832542E+0	1.824389E+0	1.765399E+0	1.769728E+0	1.818723E+0	1.792207E+0	1.804743E+0	1.793886E+0	1.782230E+0	1.702853E+0	1.837585E+0	1.761879E+0	1.838105E+0	1.814615E+0	1.782039E+0	1.741506E+0	1.720633E+0	1.755647E+0	1.865337E+0	1.703196E+0	1.801873E+0	1.834017E+0	1.769487E+0	1.732739E+0	1.829553E+0	1.806834E+0	1.790076E+0	1.776795E+0	1.807597E+0	1.772551E+0	1.856313E+0	1.842775E+0	1.777659E+0	1.771212E+0	1.732997E+0	1.840706E+0	1.748900E+0	1.765586E+0	1.766054E+0	1.834891E+0	1.775475E+0	1.811837E+0	1.772407E+0	1.794276E+0	1.715656E+0	1.812171E+0	1.810170E+0	1.756018E+0	1.759621E+0	1.809000E+0	1.816754E+0	1.784917E+0	1.743561E+0	1.814049E+0	1.754237E+0	1.771142E+0	1.824722E+0	1.780044E+0	1.769630E+0	1.795116E+0	1.834334E+0	1.765293E+0	1.759413E+0	1.750813E+0	1.722564E+0	1.737717E+0	1.765581E+0	1.760977E+0	1.772564E+0	1.747895E+0	1.785167E+0	1.741145E+0	1.720191E+0	1.700260E+0	1.754587E+0	1.714205E+0	1.835530E+0	1.779731E+0	1.792837E+0	1.728487E+0	1.797626E+0	1.712518E+0	1.830813E+0	1.810075E+0	1.749774E+0	1.711286E+0	1.820242E+0	1.795008E+0	1.748962E+0	1.733488E+0	1.685467E+0	1.725863E+0	1.842235E+0	1.772141E+0	1.788340E+0	1.750348E+0	1.752183E+0	1.732810E+0	1.738759E+0	1.767938E+0	1.717765E+0	1.767523E+0	1.810546E+0	1.726114E+0	1.756302E+0	1.774615E+0	1.806144E+0	1.720550E+0	1.739652E+0	1.737459E+0	1.822163E+0	1.766272E+0	1.943471E+0	1.852921E+0
5.352550E+2	1.996397E+0	1.964511E+0	1.909172E+0	1.107988E+1	1.896133E+0	1.963144E+0	1.963428E+0	1.987165E+0	1.902901E+0	1.998506E+0	1.943917E+0	1.938593E+0	1.949181E+0	1.909995E+0	1.975932E+0	1.953462E+0	1.925942E+0	1.907964E+0	1.923318E+0	1.899658E+0	1.956931E+0	1.938153E+0	1.918195E+0	1.936181E+0	1.915838E+0	1.824418E+0	1.964399E+0	1.922699E+0	1.857769E+0	1.953206E+0	1.918094E+0	1.903680E+0	1.921208E+0	1.903493E+0	1.879487E+0	1.874229E+0	1.897427E+0	1.871262E+0	1.960462E+0	2.000802E+0	1.945966E+0	1.898504E+0	1.914330E+0	1.997022E+0	1.876430E+0	1.925871E+0	1.940492E+0	1.908122E+0	1.927232E+0	1.905024E+0	1.916733E+0	2.027922E+0	1.907449E+0	1.948821E+0	1.911560E+0	1.956811E+0	1.886167E+0	1.885464E+0	1.929872E+0	1.929510E+0	1.908732E+0	1.923740E+0	1.928914E+0	1.948254E+0	1.925810E+0	1.937879E+0	1.872081E+0	1.908136E+0	1.895634E+0	1.929271E+0	1.863844E+0	1.928835E+0	1.888980E+0	1.902938E+0	1.835404E+0	1.924363E+0	1.871398E+0	1.904300E+0	1.903988E+0	1.866972E+0	1.820655E+0	1.984055E+0	1.916835E+0	1.914471E+0	1.930181E+0	1.899223E+0	1.943347E+0	1.890238E+0	1.855951E+0	1.814540E+0	1.938125E+0	1.868340E+0	1.909309E+0	1.894516E+0	1.953240E+0	1.878565E+0	1.868933E+0	1.889279E+0	1.873990E+0	1.862550E+0	1.931862E+0	1.897237E+0	1.913560E+0	1.863165E+0	1.865286E+0	1.904871E+0	1.946583E+0	1.955302E+0	1.870137E+0	1.885874E+0	1.858666E+0	1.899367E+0	1.946761E+0	1.895792E+0	1.840269E+0	1.831400E+0	1.928118E+0	1.892172E+0	1.885579E+0	1.913065E+0	1.884489E+0	1.895799E+0	1.815301E+0	2.014387E+0	1.893682E+0	1.842452E+0	1.920194E+0	1.896870E+0	1.872100E+0	1.982387E+0	1.911585E+0	1.910616E+0	1.868044E+0	1.810050E+0	1.887946E+0	1.862849E+0	1.870900E+0	1.908320E+0	1.888957E+0	1.998954E+0	1.869183E+0	1.908192E+0	1.868365E+0	1.855690E+0	1.853839E+0	1.884963E+0	1.827890E+0	1.867202E+0	1.988543E+0	1.891482E+0	1.812949E+0	1.901708E+0	1.811800E+0	1.829995E+0	1.917727E+0	1.863332E+0	1.834381E+0	1.881276E+0	1.915893E+0	1.940179E+0	1.910144E+0	1.897509E+0	1.889873E+0	1.890212E+0	1.860394E+0	1.900330E+0	1.875191E+0	1.878635E+0	1.828357E+0	1.897770E+0	1.866654E+0
5.354110E+2	1.885045E+0	1.842347E+0	1.802364E+0	1.081819E+1	1.765306E+0	1.864059E+0	1.870092E+0	1.883246E+0	1.778825E+0	1.793952E+0	1.861319E+0	1.866017E+0	1.867890E+0	1.814215E+0	1.822363E+0	1.889966E+0	1.801108E+0	1.851932E+0	1.833162E+0	1.847595E+0	1.838578E+0	1.795339E+0	1.850140E+0	1.903978E+0	1.794683E+0	1.782479E+0	1.866311E+0	1.812173E+0	1.784199E+0	1.823447E+0	1.831140E+0	1.850095E+0	1.821156E+0	1.816316E+0	1.814535E+0	1.807091E+0	1.814452E+0	1.775146E+0	1.797482E+0	1.852736E+0	1.871774E+0	1.753284E+0	1.774092E+0	1.812614E+0	1.788872E+0	1.791374E+0	1.830376E+0	1.894917E+0	1.824644E+0	1.784857E+0	1.846298E+0	1.875481E+0	1.855020E+0	1.845366E+0	1.866075E+0	1.803573E+0	1.831478E+0	1.770249E+0	1.805926E+0	1.810927E+0	1.863873E+0	1.793370E+0	1.759372E+0	1.840895E+0	1.785809E+0	1.833790E+0	1.763604E+0	1.843127E+0	1.835396E+0	1.825035E+0	1.800743E+0	1.840460E+0	1.796119E+0	1.775285E+0	1.856404E+0	1.854417E+0	1.793069E+0	1.767735E+0	1.800230E+0	1.807109E+0	1.786914E+0	1.898074E+0	1.826441E+0	1.802398E+0	1.787330E+0	1.801287E+0	1.829054E+0	1.858615E+0	1.804194E+0	1.801789E+0	1.795230E+0	1.848172E+0	1.846225E+0	1.761323E+0	1.852609E+0	1.689936E+0	1.763092E+0	1.854615E+0	1.766653E+0	1.806131E+0	1.856150E+0	1.868371E+0	1.755299E+0	1.850984E+0	1.804801E+0	1.834007E+0	1.799285E+0	1.827264E+0	1.796778E+0	1.804636E+0	1.808149E+0	1.805565E+0	1.780874E+0	1.778854E+0	1.791100E+0	1.793470E+0	1.810106E+0	1.773674E+0	1.777145E+0	1.827540E+0	1.788420E+0	1.869749E+0	1.805175E+0	1.850380E+0	1.733879E+0	1.856233E+0	1.752254E+0	1.761364E+0	1.807351E+0	1.765534E+0	1.791377E+0	1.737857E+0	1.799208E+0	1.842905E+0	1.826161E+0	1.800574E+0	1.777687E+0	1.846899E+0	1.777196E+0	1.876762E+0	1.794492E+0	1.785963E+0	1.780711E+0	1.798219E+0	1.739572E+0	1.816233E+0	1.832709E+0	1.813734E+0	1.776068E+0	1.787744E+0	1.780463E+0	1.825431E+0	1.843817E+0	1.785713E+0	1.814198E+0	1.816893E+0	1.759790E+0	1.782567E+0	1.768436E+0	1.808253E+0	1.742094E+0	1.827544E+0	1.823642E+0	1.807384E+0	1.739865E+0	1.814885E+0	1.785017E+0	1.817702E+0	1.710659E+0	1.873699E+0	1.699502E+0
5.355580E+2	1.658715E+0	1.642112E+0	1.671798E+0	9.799949E+0	1.605441E+0	1.665227E+0	1.659428E+0	1.675913E+0	1.607854E+0	1.667092E+0	1.661663E+0	1.693843E+0	1.674781E+0	1.609993E+0	1.619371E+0	1.690287E+0	1.655021E+0	1.623320E+0	1.660463E+0	1.664060E+0	1.675531E+0	1.620222E+0	1.655083E+0	1.676525E+0	1.644697E+0	1.580511E+0	1.628768E+0	1.563527E+0	1.637570E+0	1.658446E+0	1.596388E+0	1.678717E+0	1.638909E+0	1.689078E+0	1.556905E+0	1.635605E+0	1.625164E+0	1.564046E+0	1.590067E+0	1.614744E+0	1.640766E+0	1.625470E+0	1.697625E+0	1.673827E+0	1.574197E+0	1.635252E+0	1.616831E+0	1.646133E+0	1.643315E+0	1.604413E+0	1.601251E+0	1.690910E+0	1.633359E+0	1.642302E+0	1.641841E+0	1.686471E+0	1.626837E+0	1.568220E+0	1.617906E+0	1.637076E+0	1.654922E+0	1.592835E+0	1.671637E+0	1.656080E+0	1.632975E+0	1.603787E+0	1.596193E+0	1.733436E+0	1.578597E+0	1.690049E+0	1.618165E+0	1.618987E+0	1.654561E+0	1.579612E+0	1.621766E+0	1.602418E+0	1.553237E+0	1.648988E+0	1.613630E+0	1.616226E+0	1.551572E+0	1.693487E+0	1.652753E+0	1.627222E+0	1.594389E+0	1.607279E+0	1.655151E+0	1.635262E+0	1.692846E+0	1.578887E+0	1.632733E+0	1.591737E+0	1.670791E+0	1.602646E+0	1.646513E+0	1.620830E+0	1.634351E+0	1.614491E+0	1.699589E+0	1.621748E+0	1.663339E+0	1.629870E+0	1.638375E+0	1.584319E+0	1.598676E+0	1.633799E+0	1.642920E+0	1.693253E+0	1.596416E+0	1.636005E+0	1.612310E+0	1.642783E+0	1.556410E+0	1.622196E+0	1.553185E+0	1.626148E+0	1.637398E+0	1.668043E+0	1.621460E+0	1.669740E+0	1.625691E+0	1.633112E+0	1.599701E+0	1.654421E+0	1.587702E+0	1.590251E+0	1.594232E+0	1.590516E+0	1.622750E+0	1.712406E+0	1.583764E+0	1.612186E+0	1.596150E+0	1.618066E+0	1.612674E+0	1.515782E+0	1.635123E+0	1.626735E+0	1.637482E+0	1.683780E+0	1.648075E+0	1.656607E+0	1.672412E+0	1.631946E+0	1.637099E+0	1.551534E+0	1.576248E+0	1.584821E+0	1.632824E+0	1.671841E+0	1.599916E+0	1.649336E+0	1.638800E+0	1.661629E+0	1.663474E+0	1.609594E+0	1.612148E+0	1.578783E+0	1.651882E+0	1.594759E+0	1.610871E+0	1.638373E+0	1.626973E+0	1.644630E+0	1.563867E+0	1.622733E+0	1.671234E+0	1.608778E+0	1.673768E+0	1.691052E+0	1.810972E+0
5.357090E+2	1.584330E+0	1.491147E+0	1.434746E+0	8.585044E+0	1.407225E+0	1.525019E+0	1.508129E+0	1.515958E+0	1.463244E+0	1.480969E+0	1.521974E+0	1.502041E+0	1.524017E+0	1.469244E+0	1.529559E+0	1.517277E+0	1.436490E+0	1.449842E+0	1.469750E+0	1.512605E+0	1.420449E+0	1.466974E+0	1.521874E+0	1.489527E+0	1.409714E+0	1.457784E+0	1.458830E+0	1.450087E+0	1.417708E+0	1.456359E+0	1.475776E+0	1.447364E+0	1.465502E+0	1.513345E+0	1.461441E+0	1.465743E+0	1.472634E+0	1.447859E+0	1.514865E+0	1.405577E+0	1.491354E+0	1.445701E+0	1.495857E+0	1.527289E+0	1.470575E+0	1.445097E+0	1.484270E+0	1.514099E+0	1.461966E+0	1.405146E+0	1.484560E+0	1.520061E+0	1.443774E+0	1.474067E+0	1.452686E+0	1.460370E+0	1.460632E+0	1.475656E+0	1.508731E+0	1.448661E+0	1.465700E+0	1.448693E+0	1.471089E+0	1.419759E+0	1.440556E+0	1.454176E+0	1.442923E+0	1.528813E+0	1.477069E+0	1.479896E+0	1.508621E+0	1.505559E+0	1.505952E+0	1.432264E+0	1.508953E+0	1.437813E+0	1.454706E+0	1.472434E+0	1.497654E+0	1.459281E+0	1.425124E+0	1.492857E+0	1.511392E+0	1.483035E+0	1.461084E+0	1.449003E+0	1.522133E+0	1.444205E+0	1.479358E+0	1.471416E+0	1.512988E+0	1.442789E+0	1.479054E+0	1.465650E+0	1.430550E+0	1.426247E+0	1.436315E+0	1.443776E+0	1.454682E+0	1.476369E+0	1.493582E+0	1.512033E+0	1.494853E+0	1.457096E+0	1.361622E+0	1.488392E+0	1.496280E+0	1.455627E+0	1.446007E+0	1.444043E+0	1.424798E+0	1.475193E+0	1.468189E+0	1.488745E+0	1.420346E+0	1.451155E+0	1.463972E+0	1.439302E+0	1.468899E+0	1.487471E+0	1.466935E+0	1.470568E+0	1.463548E+0	1.514691E+0	1.452158E+0	1.494215E+0	1.468260E+0	1.467967E+0	1.521128E+0	1.475394E+0	1.424897E+0	1.455019E+0	1.434740E+0	1.477076E+0	1.505050E+0	1.465589E+0	1.488960E+0	1.465011E+0	1.501194E+0	1.550225E+0	1.477884E+0	1.469787E+0	1.448621E+0	1.520459E+0	1.428668E+0	1.505071E+0	1.465353E+0	1.468570E+0	1.417969E+0	1.409225E+0	1.491111E+0	1.475162E+0	1.466342E+0	1.502270E+0	1.481171E+0	1.489628E+0	1.497172E+0	1.454467E+0	1.520337E+0	1.464717E+0	1.437587E+0	1.489548E+0	1.400386E+0	1.477735E+0	1.466239E+0	1.499526E+0	1.442239E+0	1.485956E+0	1.480688E+0	1.467406E+0	1.513852E+0
5.358550E+2	1.322019E+0	1.212355E+0	1.196304E+0	6.828662E+0	1.231897E+0	1.268604E+0	1.270359E+0	1.295647E+0	1.267958E+0	1.200604E+0	1.234303E+0	1.224459E+0	1.231725E+0	1.253971E+0	1.224438E+0	1.274728E+0	1.237301E+0	1.252621E+0	1.249922E+0	1.300046E+0	1.211114E+0	1.222053E+0	1.255178E+0	1.300675E+0	1.204730E+0	1.260357E+0	1.239841E+0	1.192886E+0	1.227923E+0	1.234129E+0	1.239563E+0	1.229029E+0	1.287859E+0	1.209293E+0	1.229101E+0	1.264371E+0	1.233099E+0	1.218486E+0	1.189035E+0	1.251537E+0	1.275447E+0	1.237479E+0	1.215719E+0	1.254011E+0	1.217659E+0	1.211121E+0	1.233055E+0	1.264845E+0	1.258344E+0	1.186272E+0	1.220258E+0	1.279793E+0	1.216101E+0	1.225318E+0	1.234828E+0	1.196314E+0	1.186413E+0	1.290378E+0	1.207349E+0	1.205399E+0	1.257205E+0	1.213064E+0	1.199707E+0	1.247485E+0	1.219496E+0	1.191478E+0	1.194009E+0	1.223000E+0	1.246617E+0	1.203441E+0	1.282834E+0	1.240681E+0	1.258409E+0	1.260754E+0	1.211618E+0	1.242079E+0	1.236798E+0	1.195502E+0	1.242308E+0	1.235226E+0	1.171427E+0	1.245369E+0	1.263063E+0	1.203207E+0	1.200728E+0	1.255905E+0	1.271491E+0	1.234633E+0	1.229394E+0	1.164112E+0	1.266294E+0	1.273866E+0	1.267209E+0	1.241497E+0	1.221714E+0	1.261332E+0	1.233363E+0	1.231523E+0	1.233681E+0	1.275162E+0	1.220072E+0	1.211884E+0	1.277502E+0	1.255239E+0	1.221505E+0	1.221529E+0	1.216225E+0	1.268944E+0	1.253830E+0	1.232415E+0	1.225745E+0	1.225387E+0	1.245827E+0	1.279378E+0	1.195354E+0	1.241745E+0	1.235195E+0	1.206978E+0	1.258612E+0	1.213386E+0	1.206945E+0	1.222129E+0	1.231978E+0	1.221423E+0	1.239864E+0	1.219440E+0	1.197671E+0	1.238352E+0	1.162021E+0	1.184610E+0	1.185716E+0	1.251761E+0	1.233435E+0	1.205356E+0	1.199500E+0	1.179612E+0	1.252066E+0	1.236021E+0	1.241204E+0	1.279752E+0	1.251068E+0	1.206552E+0	1.192513E+0	1.249931E+0	1.161512E+0	1.262421E+0	1.239270E+0	1.226143E+0	1.223820E+0	1.226086E+0	1.278823E+0	1.227318E+0	1.233518E+0	1.194166E+0	1.271431E+0	1.208141E+0	1.260850E+0	1.216894E+0	1.200586E+0	1.280090E+0	1.226379E+0	1.262986E+0	1.258214E+0	1.308454E+0	1.230793E+0	1.254762E+0	1.243120E+0	1.296007E+0	1.256788E+0	1.286595E+0	1.492348E+0
5.360120E+2	1.099499E+0	1.026080E+0	1.059678E+0	6.411182E+0	1.017470E+0	1.072562E+0	1.067534E+0	1.137625E+0	1.047248E+0	1.071573E+0	1.054187E+0	1.047453E+0	1.079628E+0	1.095527E+0	1.034408E+0	1.086351E+0	1.094716E+0	1.011220E+0	1.060435E+0	1.039136E+0	1.079202E+0	1.062206E+0	1.059454E+0	1.079968E+0	1.070732E+0	1.041650E+0	1.113277E+0	1.046337E+0	1.057844E+0	1.058628E+0	1.014663E+0	1.058458E+0	1.080617E+0	1.063082E+0	1.045478E+0	1.093631E+0	1.064638E+0	1.015991E+0	1.064058E+0	1.044764E+0	1.101875E+0	1.036804E+0	1.014425E+0	1.083683E+0	1.055561E+0	1.070562E+0	1.029955E+0	1.043144E+0	1.039218E+0	1.054170E+0	1.072849E+0	1.105023E+0	1.080753E+0	1.062937E+0	1.057104E+0	1.088894E+0	1.054672E+0	1.012736E+0	1.055199E+0	1.077550E+0	1.061920E+0	1.038334E+0	1.072390E+0	1.103605E+0	1.058275E+0	1.019197E+0	1.058191E+0	1.063106E+0	1.079011E+0	1.043711E+0	1.057533E+0	1.066843E+0	1.074775E+0	1.019541E+0	1.037515E+0	1.022617E+0	1.059842E+0	1.070952E+0	1.105449E+0	1.087829E+0	1.033130E+0	1.086421E+0	1.083830E+0	1.056769E+0	1.026547E+0	1.028849E+0	1.038518E+0	1.066319E+0	1.068093E+0	1.072011E+0	1.080174E+0	1.057607E+0	1.117746E+0	1.062199E+0	1.082893E+0	1.068231E+0	1.076329E+0	1.058553E+0	1.038400E+0	1.048981E+0	1.102944E+0	1.048404E+0	1.044868E+0	1.069083E+0	1.094725E+0	1.016609E+0	1.083923E+0	1.075135E+0	1.049440E+0	1.037035E+0	1.001783E+0	1.072972E+0	1.086915E+0	1.031495E+0	1.062588E+0	1.059731E+0	1.067916E+0	1.030893E+0	1.072989E+0	1.063136E+0	1.088433E+0	1.057581E+0	1.025635E+0	1.118150E+0	1.097041E+0	1.045819E+0	1.076535E+0	1.094235E+0	1.063039E+0	1.030651E+0	1.010352E+0	1.013295E+0	1.096033E+0	1.093858E+0	1.094414E+0	1.047574E+0	1.042327E+0	1.090564E+0	1.092587E+0	1.108083E+0	1.078394E+0	1.070885E+0	1.052634E+0	1.054370E+0	1.060571E+0	1.072816E+0	1.052661E+0	1.072152E+0	1.063185E+0	1.045732E+0	1.052787E+0	1.077948E+0	1.062537E+0	1.079686E+0	1.134211E+0	1.083766E+0	1.015843E+0	1.066848E+0	1.077141E+0	1.042740E+0	1.031212E+0	1.072376E+0	1.089135E+0	1.068089E+0	1.050566E+0	1.047765E+0	1.081768E+0	1.069450E+0	1.104427E+0	1.059305E+0	1.252280E+0
5.362630E+2	8.017721E-1	7.417307E-1	7.734165E-1	4.525068E+0	7.453052E-1	7.805649E-1	8.229377E-1	8.015497E-1	7.604398E-1	7.875583E-1	7.792096E-1	7.898034E-1	8.181655E-1	7.936481E-1	7.733756E-1	8.276221E-1	7.548750E-1	7.567826E-1	7.797943E-1	7.749439E-1	7.983419E-1	7.928853E-1	7.616620E-1	8.012636E-1	7.513942E-1	7.761954E-1	8.154396E-1	7.783636E-1	7.783589E-1	7.765818E-1	7.696532E-1	7.899776E-1	7.768860E-1	7.876008E-1	8.234945E-1	7.689036E-1	7.775941E-1	7.460175E-1	8.020835E-1	8.242052E-1	7.724531E-1	7.302365E-1	7.635040E-1	7.857753E-1	7.546297E-1	7.841910E-1	7.672325E-1	7.822253E-1	7.865346E-1	7.608392E-1	8.038097E-1	7.981637E-1	7.766803E-1	7.735141E-1	8.202342E-1	7.358004E-1	7.991806E-1	7.728763E-1	7.919691E-1	7.935230E-1	7.947726E-1	8.100781E-1	7.770934E-1	8.162958E-1	7.908695E-1	7.583985E-1	8.182889E-1	8.238808E-1	8.422137E-1	7.681363E-1	8.037789E-1	7.852800E-1	7.985419E-1	7.929455E-1	8.169602E-1	7.996192E-1	7.786540E-1	7.688323E-1	7.978079E-1	7.830794E-1	7.399545E-1	8.209466E-1	8.061512E-1	8.132806E-1	7.710715E-1	7.762458E-1	7.574639E-1	7.964308E-1	8.184261E-1	7.785526E-1	7.882875E-1	8.074670E-1	8.179820E-1	7.521689E-1	7.675130E-1	7.886567E-1	7.848375E-1	7.502945E-1	7.745115E-1	8.011957E-1	7.789647E-1	7.812237E-1	8.169255E-1	7.799951E-1	7.690469E-1	7.610900E-1	7.711888E-1	7.727017E-1	7.880611E-1	8.162571E-1	7.679128E-1	7.866483E-1	8.040702E-1	7.966886E-1	7.678071E-1	7.833597E-1	7.753080E-1	7.339311E-1	8.023618E-1	8.101255E-1	7.547041E-1	7.660119E-1	8.064445E-1	8.336790E-1	7.789736E-1	7.984003E-1	7.515938E-1	8.109302E-1	7.976587E-1	7.656808E-1	7.836908E-1	7.784342E-1	7.881052E-1	7.967643E-1	7.662269E-1	7.847310E-1	7.974676E-1	8.140656E-1	7.659663E-1	8.322796E-1	7.871779E-1	7.693313E-1	7.769963E-1	8.206645E-1	8.103534E-1	7.841069E-1	7.875497E-1	8.148881E-1	7.861814E-1	7.798714E-1	7.802461E-1	7.948496E-1	8.092977E-1	8.011637E-1	7.980802E-1	7.497998E-1	7.868091E-1	7.667863E-1	7.731543E-1	8.099252E-1	8.096569E-1	7.924992E-1	7.594167E-1	8.044509E-1	8.037247E-1	7.363383E-1	8.344823E-1	8.015513E-1	8.044479E-1	7.994901E-1	8.245689E-1
5.365090E+2	6.492648E-1	6.205961E-1	6.099781E-1	3.425478E+0	6.236220E-1	6.072322E-1	6.230623E-1	6.203275E-1	6.064100E-1	6.455442E-1	5.953205E-1	6.314087E-1	6.713851E-1	6.164747E-1	6.147108E-1	6.541058E-1	5.931747E-1	6.397560E-1	6.280726E-1	6.089024E-1	6.263143E-1	6.397718E-1	6.241682E-1	5.918199E-1	6.056420E-1	6.044876E-1	6.378226E-1	5.871110E-1	6.331949E-1	6.336352E-1	6.192098E-1	6.164256E-1	6.249969E-1	6.762285E-1	6.038598E-1	6.185402E-1	6.222230E-1	5.954206E-1	6.246038E-1	6.088415E-1	6.388496E-1	5.783660E-1	6.444123E-1	6.372261E-1	6.064208E-1	6.213073E-1	6.259309E-1	6.249620E-1	6.166377E-1	6.202661E-1	6.932782E-1	6.230125E-1	6.171805E-1	6.130721E-1	6.240435E-1	6.496077E-1	6.292484E-1	6.280705E-1	6.176430E-1	6.172516E-1	6.557786E-1	6.245294E-1	6.155194E-1	6.127002E-1	6.139587E-1	5.887342E-1	6.295011E-1	6.503877E-1	6.409146E-1	6.351159E-1	6.032058E-1	6.211665E-1	6.441258E-1	5.920103E-1	6.164334E-1	6.222629E-1	6.350899E-1	6.158077E-1	6.150779E-1	6.328397E-1	6.214895E-1	6.219501E-1	6.197555E-1	6.448106E-1	6.133270E-1	6.005293E-1	6.079813E-1	6.052508E-1	6.467889E-1	6.263705E-1	6.548778E-1	6.347076E-1	6.500555E-1	6.387277E-1	6.212541E-1	6.229239E-1	6.377624E-1	6.209451E-1	6.192832E-1	6.598589E-1	6.379097E-1	6.258701E-1	5.716872E-1	6.169646E-1	5.807352E-1	6.327162E-1	6.511770E-1	6.395080E-1	6.012400E-1	6.182674E-1	6.383943E-1	5.983599E-1	6.223963E-1	6.521102E-1	6.045859E-1	6.204998E-1	6.491266E-1	5.960684E-1	6.278020E-1	6.547582E-1	5.780536E-1	6.020218E-1	6.350218E-1	6.448585E-1	6.384718E-1	6.397006E-1	6.120724E-1	6.362145E-1	6.546017E-1	6.156707E-1	5.958418E-1	5.981061E-1	6.526240E-1	6.016207E-1	6.276220E-1	6.328452E-1	6.214787E-1	6.601196E-1	6.594207E-1	6.711813E-1	6.096815E-1	6.185913E-1	6.320365E-1	6.401976E-1	5.871404E-1	6.266082E-1	6.281654E-1	6.244342E-1	6.285668E-1	6.333421E-1	6.259470E-1	6.334468E-1	6.070172E-1	6.068074E-1	6.062768E-1	6.655243E-1	6.289884E-1	6.606573E-1	6.431151E-1	6.572949E-1	6.315938E-1	6.366164E-1	6.507850E-1	6.499032E-1	6.403028E-1	6.124769E-1	6.316205E-1	5.903990E-1	6.669820E-1	7.112344E-1	7.087158E-1
5.368080E+2	5.217913E-1	4.840823E-1	4.957839E-1	3.007463E+0	4.767977E-1	5.031858E-1	5.354526E-1	5.317513E-1	4.951853E-1	5.311429E-1	5.075816E-1	4.763485E-1	5.071449E-1	5.261038E-1	5.150978E-1	5.355811E-1	5.050316E-1	4.942274E-1	5.216463E-1	5.364528E-1	5.268789E-1	4.927125E-1	5.232979E-1	5.282159E-1	5.375153E-1	5.116291E-1	5.275693E-1	5.317190E-1	4.907458E-1	4.873200E-1	5.104550E-1	5.145655E-1	5.243565E-1	5.242794E-1	5.210464E-1	5.151066E-1	5.282875E-1	4.709247E-1	5.461372E-1	5.178789E-1	5.376624E-1	4.822160E-1	5.072287E-1	5.150006E-1	5.181219E-1	5.118548E-1	5.194148E-1	5.210541E-1	4.940511E-1	4.848976E-1	5.367205E-1	5.267621E-1	4.981831E-1	5.157008E-1	5.158100E-1	5.158189E-1	5.352864E-1	4.732659E-1	5.358336E-1	5.029486E-1	4.940624E-1	5.082071E-1	5.169679E-1	5.478190E-1	5.156788E-1	4.871510E-1	4.873650E-1	5.249196E-1	5.186857E-1	5.117962E-1	5.256603E-1	5.084440E-1	5.193182E-1	5.014317E-1	5.301060E-1	5.269326E-1	5.021677E-1	5.271713E-1	5.217800E-1	5.137242E-1	4.989291E-1	4.978490E-1	5.351173E-1	5.174177E-1	5.186888E-1	4.813639E-1	5.243615E-1	4.940255E-1	5.535901E-1	5.078604E-1	5.184754E-1	5.154545E-1	5.319893E-1	5.047750E-1	5.068763E-1	5.412407E-1	5.193433E-1	5.368337E-1	5.000902E-1	4.994892E-1	5.208069E-1	5.059657E-1	5.364841E-1	5.213310E-1	5.310292E-1	5.296176E-1	5.033510E-1	5.136764E-1	5.082222E-1	5.286016E-1	5.119344E-1	5.033631E-1	5.187610E-1	5.337457E-1	4.845738E-1	5.282407E-1	5.185923E-1	5.056348E-1	5.164309E-1	5.534942E-1	5.234659E-1	5.204561E-1	5.130502E-1	5.034987E-1	5.231747E-1	5.008674E-1	5.041561E-1	5.499718E-1	5.240835E-1	4.875374E-1	5.435922E-1	5.293100E-1	5.252754E-1	5.152685E-1	4.960409E-1	5.001545E-1	5.205717E-1	5.197888E-1	5.161211E-1	5.355676E-1	5.388471E-1	5.002895E-1	5.288386E-1	5.644436E-1	5.159242E-1	5.133102E-1	5.289754E-1	5.154064E-1	5.294478E-1	4.951609E-1	5.153746E-1	4.949447E-1	5.475309E-1	5.223625E-1	5.423542E-1	5.661378E-1	5.157174E-1	5.159107E-1	5.444350E-1	5.269487E-1	5.255328E-1	5.135743E-1	5.556624E-1	5.591692E-1	5.239507E-1	4.880228E-1	5.265555E-1	5.351390E-1	5.137647E-1	4.986080E-1	6.470979E-1
5.370010E+2	4.993663E-1	4.787822E-1	4.272909E-1	3.090319E+0	4.724197E-1	4.767901E-1	4.324093E-1	5.007234E-1	4.663038E-1	4.781633E-1	4.569414E-1	5.168675E-1	4.724337E-1	4.467401E-1	4.545074E-1	4.702042E-1	4.641526E-1	4.622679E-1	4.568994E-1	4.448699E-1	4.454984E-1	4.687385E-1	4.705216E-1	4.811711E-1	4.676211E-1	4.570881E-1	4.650425E-1	4.553829E-1	4.604887E-1	4.636979E-1	4.537876E-1	4.669080E-1	4.629482E-1	5.080726E-1	4.838434E-1	4.841488E-1	4.963008E-1	4.501999E-1	4.685396E-1	4.575037E-1	4.684641E-1	4.376734E-1	4.383483E-1	4.838557E-1	4.730500E-1	4.729988E-1	4.797560E-1	4.991402E-1	4.623804E-1	4.570678E-1	4.627819E-1	4.717217E-1	4.803621E-1	4.877132E-1	4.799791E-1	4.613477E-1	5.032018E-1	4.726299E-1	4.849809E-1	4.805122E-1	4.869011E-1	4.625484E-1	4.737155E-1	4.635610E-1	4.788511E-1	4.719477E-1	4.801295E-1	4.787817E-1	5.141805E-1	4.587117E-1	4.503316E-1	4.638761E-1	4.816583E-1	4.641741E-1	4.540630E-1	4.712027E-1	4.575756E-1	4.766350E-1	4.769450E-1	4.815939E-1	4.855267E-1	4.795316E-1	4.772129E-1	4.954430E-1	4.577004E-1	4.544665E-1	4.310276E-1	4.721612E-1	4.917896E-1	4.786529E-1	4.682967E-1	4.562780E-1	4.742309E-1	4.549907E-1	4.773722E-1	4.805245E-1	4.625482E-1	4.738911E-1	4.766105E-1	4.482357E-1	4.993684E-1	4.691405E-1	4.590176E-1	4.527880E-1	4.623444E-1	4.837905E-1	4.784413E-1	4.770184E-1	4.880021E-1	4.989747E-1	4.888186E-1	4.806731E-1	4.739907E-1	4.877819E-1	4.953896E-1	4.450170E-1	4.960623E-1	4.436844E-1	4.801638E-1	4.759349E-1	4.657311E-1	4.912132E-1	4.381484E-1	4.579974E-1	4.756771E-1	4.608534E-1	4.595930E-1	4.718028E-1	4.617453E-1	4.794099E-1	4.400229E-1	4.766770E-1	4.643208E-1	4.411350E-1	4.660089E-1	4.413919E-1	4.887695E-1	4.812659E-1	4.885699E-1	4.653352E-1	5.005576E-1	4.677650E-1	4.675084E-1	4.731490E-1	4.880336E-1	4.518749E-1	4.908508E-1	4.854632E-1	4.757885E-1	4.501350E-1	4.983208E-1	4.964121E-1	4.451708E-1	4.774316E-1	4.810070E-1	4.632122E-1	4.745970E-1	4.868303E-1	5.032204E-1	4.678748E-1	4.714133E-1	4.839032E-1	4.694431E-1	4.811755E-1	4.763504E-1	4.778459E-1	4.907418E-1	4.513776E-1	4.846423E-1	4.840148E-1	3.708834E-1
5.372640E+2	4.404048E-1	4.048614E-1	3.913765E-1	2.981272E+0	3.990862E-1	4.123494E-1	4.107258E-1	4.376816E-1	4.406145E-1	4.178330E-1	4.262729E-1	4.369025E-1	4.329712E-1	4.252324E-1	4.442960E-1	4.476225E-1	4.218124E-1	4.103975E-1	4.416862E-1	3.927890E-1	4.220090E-1	4.109269E-1	4.163175E-1	4.381315E-1	4.841894E-1	4.179785E-1	4.553519E-1	4.496241E-1	4.322623E-1	4.451282E-1	4.435074E-1	4.204847E-1	4.453308E-1	4.314229E-1	4.420260E-1	4.320839E-1	4.275837E-1	3.923653E-1	4.598100E-1	4.613941E-1	4.375933E-1	4.244295E-1	4.290290E-1	4.462502E-1	4.451730E-1	4.205743E-1	4.262154E-1	4.440827E-1	4.229054E-1	4.538955E-1	4.367879E-1	4.555536E-1	4.498659E-1	4.269481E-1	4.350917E-1	4.421153E-1	4.439600E-1	4.384821E-1	4.086829E-1	4.199052E-1	4.611519E-1	4.352496E-1	4.369633E-1	4.561139E-1	4.028747E-1	4.174428E-1	4.452681E-1	4.562819E-1	4.548486E-1	4.315467E-1	4.547385E-1	4.482160E-1	4.443018E-1	4.055426E-1	4.817295E-1	4.543448E-1	4.554828E-1	4.408692E-1	4.404487E-1	4.725190E-1	4.149300E-1	4.465079E-1	4.298263E-1	4.594117E-1	4.077617E-1	4.287157E-1	4.309848E-1	4.379020E-1	4.489270E-1	4.286463E-1	4.436460E-1	4.668718E-1	4.406706E-1	4.331961E-1	4.491023E-1	4.474064E-1	4.425787E-1	4.398014E-1	4.545382E-1	4.163525E-1	4.611981E-1	4.441448E-1	4.512813E-1	4.282815E-1	4.248176E-1	4.094052E-1	4.575745E-1	4.614822E-1	4.667133E-1	4.309893E-1	4.194982E-1	4.355954E-1	4.366902E-1	4.162151E-1	4.374675E-1	4.431533E-1	4.437913E-1	4.373690E-1	4.307720E-1	4.361765E-1	4.257932E-1	4.594192E-1	4.402289E-1	4.371973E-1	4.369083E-1	4.218132E-1	4.649162E-1	4.495697E-1	4.229627E-1	4.467232E-1	4.578351E-1	4.360717E-1	4.406670E-1	4.047251E-1	4.715910E-1	4.320829E-1	4.506329E-1	4.635745E-1	4.104254E-1	4.342937E-1	4.669113E-1	4.161907E-1	4.600018E-1	4.700590E-1	4.425944E-1	4.590868E-1	4.339883E-1	4.422160E-1	4.316788E-1	4.633322E-1	4.276150E-1	4.473534E-1	4.320546E-1	3.929867E-1	4.465686E-1	4.864255E-1	4.292036E-1	4.388236E-1	4.576141E-1	4.542947E-1	4.159931E-1	4.149274E-1	4.139458E-1	4.343772E-1	4.389238E-1	4.192645E-1	4.410248E-1	4.528550E-1	4.110724E-1	4.381904E-1	4.387696E-1
5.375110E+2	4.705772E-1	4.447062E-1	4.692556E-1	3.056209E+0	4.021813E-1	4.771487E-1	4.558015E-1	4.383273E-1	4.661440E-1	4.193557E-1	4.594551E-1	4.953379E-1	4.877136E-1	4.400705E-1	4.396118E-1	4.851123E-1	4.591981E-1	4.368017E-1	4.626765E-1	4.556752E-1	4.843886E-1	4.455505E-1	4.597315E-1	4.553229E-1	5.177553E-1	4.523109E-1	5.036405E-1	4.744727E-1	4.693757E-1	4.793253E-1	4.785544E-1	4.751192E-1	4.937175E-1	4.821250E-1	4.695463E-1	4.916918E-1	4.834143E-1	4.690992E-1	4.793302E-1	4.644698E-1	4.963963E-1	4.691657E-1	4.459865E-1	4.841896E-1	4.708367E-1	4.701098E-1	4.646055E-1	4.870999E-1	4.972078E-1	4.628866E-1	4.603402E-1	4.699880E-1	4.589156E-1	4.488190E-1	4.673853E-1	4.891278E-1	4.374483E-1	4.522211E-1	4.613713E-1	5.024631E-1	4.648161E-1	4.627278E-1	4.597039E-1	4.904505E-1	4.286712E-1	4.725216E-1	4.513301E-1	4.910692E-1	4.998228E-1	4.900933E-1	4.586219E-1	4.633611E-1	4.850299E-1	4.478261E-1	4.803473E-1	4.885292E-1	4.742236E-1	4.856410E-1	4.600171E-1	4.880794E-1	4.834704E-1	4.623847E-1	4.687473E-1	4.659676E-1	4.770547E-1	4.633396E-1	4.656988E-1	4.890434E-1	4.806397E-1	4.671023E-1	4.744853E-1	4.605799E-1	4.847267E-1	4.580738E-1	4.830260E-1	4.648426E-1	4.545282E-1	4.445184E-1	4.507541E-1	4.865900E-1	4.780931E-1	4.582397E-1	4.988848E-1	4.775201E-1	4.641612E-1	4.643006E-1	4.659407E-1	4.529338E-1	4.820909E-1	4.598004E-1	4.931513E-1	4.752332E-1	4.757495E-1	4.648368E-1	4.789196E-1	4.900770E-1	4.547696E-1	4.871228E-1	4.712118E-1	4.713209E-1	4.680766E-1	5.084739E-1	4.685859E-1	4.917803E-1	4.689234E-1	4.811881E-1	4.819569E-1	4.775398E-1	5.106554E-1	4.594619E-1	4.751446E-1	4.606840E-1	4.782269E-1	4.549500E-1	4.837706E-1	4.714449E-1	4.631596E-1	4.536615E-1	4.605136E-1	5.249394E-1	4.862279E-1	4.605482E-1	4.959211E-1	4.599403E-1	4.528146E-1	4.667496E-1	4.756828E-1	4.658906E-1	4.631670E-1	4.800701E-1	4.615250E-1	5.022069E-1	4.595931E-1	4.728653E-1	4.865639E-1	4.810949E-1	4.687562E-1	4.991905E-1	4.992393E-1	4.953686E-1	4.832613E-1	4.550490E-1	4.647978E-1	4.717413E-1	4.774278E-1	4.632649E-1	4.669267E-1	5.327550E-1	4.833497E-1	5.301234E-1	5.717598E-1
5.377630E+2	5.209231E-1	4.910538E-1	5.218780E-1	3.366349E+0	5.211366E-1	5.134295E-1	5.209676E-1	5.431806E-1	4.950961E-1	5.380055E-1	5.150293E-1	5.541484E-1	5.403201E-1	4.998580E-1	5.356384E-1	5.341181E-1	5.220759E-1	5.105595E-1	5.335221E-1	5.613103E-1	5.157513E-1	5.295244E-1	5.182384E-1	5.295564E-1	5.409222E-1	5.149635E-1	5.550420E-1	5.251349E-1	5.472672E-1	5.531993E-1	5.443878E-1	5.427231E-1	5.308459E-1	5.240237E-1	5.228844E-1	5.290339E-1	5.293865E-1	5.289493E-1	5.252467E-1	5.278793E-1	5.269912E-1	5.445181E-1	5.097549E-1	5.192029E-1	5.514867E-1	5.515607E-1	5.362576E-1	5.196748E-1	5.399309E-1	5.524723E-1	5.245559E-1	5.367272E-1	5.369576E-1	5.601287E-1	5.337516E-1	5.611138E-1	5.187399E-1	4.773727E-1	4.855772E-1	5.597857E-1	5.517191E-1	5.321651E-1	5.487915E-1	5.705505E-1	5.628760E-1	5.306063E-1	5.447944E-1	5.155080E-1	5.763092E-1	5.313015E-1	5.432144E-1	5.478665E-1	5.198631E-1	5.135939E-1	5.502716E-1	5.458868E-1	5.223465E-1	5.389425E-1	4.993093E-1	5.441848E-1	5.372614E-1	5.592827E-1	5.745302E-1	5.349791E-1	5.429690E-1	5.369912E-1	5.586028E-1	5.355970E-1	5.485559E-1	5.296640E-1	5.524163E-1	5.211966E-1	5.390940E-1	5.361122E-1	5.266221E-1	5.245758E-1	5.521008E-1	5.037356E-1	5.491080E-1	5.734722E-1	5.198684E-1	5.688520E-1	5.318514E-1	5.383932E-1	5.278459E-1	5.299236E-1	5.493863E-1	5.327850E-1	5.366585E-1	5.255881E-1	5.761030E-1	5.312365E-1	5.438607E-1	5.278599E-1	5.225625E-1	5.437462E-1	5.423288E-1	5.186842E-1	5.232573E-1	5.576700E-1	5.455936E-1	5.243601E-1	5.511261E-1	5.334052E-1	5.325852E-1	5.474246E-1	5.326829E-1	5.398620E-1	5.620697E-1	5.594960E-1	5.238354E-1	5.419864E-1	5.031326E-1	5.358580E-1	5.434601E-1	5.360952E-1	5.601013E-1	5.332501E-1	5.228037E-1	5.373038E-1	5.468192E-1	5.572658E-1	5.355221E-1	5.541375E-1	5.328439E-1	5.232614E-1	5.676261E-1	5.271305E-1	5.269438E-1	5.346636E-1	5.319409E-1	5.414501E-1	5.785649E-1	5.294086E-1	5.602591E-1	5.218208E-1	5.214893E-1	5.392545E-1	5.386132E-1	5.441513E-1	5.065692E-1	5.014404E-1	5.470443E-1	5.575213E-1	5.253329E-1	5.375237E-1	5.313894E-1	5.551561E-1	5.086170E-1	5.648834E-1	6.619163E-1
5.380160E+2	6.823925E-1	6.495491E-1	6.279329E-1	3.473121E+0	6.350692E-1	6.516638E-1	6.319380E-1	6.776977E-1	6.770759E-1	6.351274E-1	6.180361E-1	6.603530E-1	6.524582E-1	6.325216E-1	6.584893E-1	6.375632E-1	6.777127E-1	6.274210E-1	6.594880E-1	6.428438E-1	6.539832E-1	6.127753E-1	6.139050E-1	6.533664E-1	7.007090E-1	6.791440E-1	6.443368E-1	6.771436E-1	6.655173E-1	6.535979E-1	6.538882E-1	6.506502E-1	6.557284E-1	7.023185E-1	6.418369E-1	6.753350E-1	6.631900E-1	6.846224E-1	6.778998E-1	6.382739E-1	7.110825E-1	6.561455E-1	6.706119E-1	6.502838E-1	6.287607E-1	6.496445E-1	6.478269E-1	6.732601E-1	6.822440E-1	6.357982E-1	6.626078E-1	6.734167E-1	6.577108E-1	6.891790E-1	6.568400E-1	6.935133E-1	6.674021E-1	6.452250E-1	6.778692E-1	6.436326E-1	6.844739E-1	6.623710E-1	6.661976E-1	6.797972E-1	6.832974E-1	6.666063E-1	6.271365E-1	6.645649E-1	6.545427E-1	6.703311E-1	6.302620E-1	6.531283E-1	6.902513E-1	6.604557E-1	6.377978E-1	6.533527E-1	6.637082E-1	6.536123E-1	6.718350E-1	6.411263E-1	6.315076E-1	6.378120E-1	6.383149E-1	6.617748E-1	6.703304E-1	6.846084E-1	6.724994E-1	6.694176E-1	6.565567E-1	6.133274E-1	6.581380E-1	7.031293E-1	6.848570E-1	6.692207E-1	6.460873E-1	6.584812E-1	6.696842E-1	6.659772E-1	6.707659E-1	6.259381E-1	7.037971E-1	6.612476E-1	6.346052E-1	6.725666E-1	6.420101E-1	6.145839E-1	6.839667E-1	6.678634E-1	6.629032E-1	6.858725E-1	6.549387E-1	6.669017E-1	6.613013E-1	6.670568E-1	6.149551E-1	7.046265E-1	6.756876E-1	6.523685E-1	6.623481E-1	6.721858E-1	6.687676E-1	6.705770E-1	6.477860E-1	6.652801E-1	6.578552E-1	6.542899E-1	6.629574E-1	6.644637E-1	6.573145E-1	6.680085E-1	6.226427E-1	6.722264E-1	6.433087E-1	6.437875E-1	6.400460E-1	7.068331E-1	6.735391E-1	6.756785E-1	6.870944E-1	7.011220E-1	6.544933E-1	6.809320E-1	6.764706E-1	6.942534E-1	6.450047E-1	6.716516E-1	6.662370E-1	6.355143E-1	6.960817E-1	6.440955E-1	6.435222E-1	6.934372E-1	6.352030E-1	6.644851E-1	6.763648E-1	6.846342E-1	7.111642E-1	6.515517E-1	6.655613E-1	6.329963E-1	6.811152E-1	6.660288E-1	6.583845E-1	6.963747E-1	6.458106E-1	6.357005E-1	6.745352E-1	7.194659E-1	6.540881E-1	6.335309E-1	8.511294E-1
5.382690E+2	8.548185E-1	7.933218E-1	7.642918E-1	5.628042E+0	7.877362E-1	7.775084E-1	7.909990E-1	8.239526E-1	8.050337E-1	7.981494E-1	8.011157E-1	8.744107E-1	8.383242E-1	7.827947E-1	8.195468E-1	8.410202E-1	7.733122E-1	7.535992E-1	8.079928E-1	8.260633E-1	8.333635E-1	8.258484E-1	7.929832E-1	8.344502E-1	8.884057E-1	8.526033E-1	8.762137E-1	8.327918E-1	8.362853E-1	8.361174E-1	8.386702E-1	8.371400E-1	8.738639E-1	8.157176E-1	8.352980E-1	7.956793E-1	8.306270E-1	8.007774E-1	8.302797E-1	8.330620E-1	8.532619E-1	8.027173E-1	8.094293E-1	8.535301E-1	8.119458E-1	8.240131E-1	8.433657E-1	8.510601E-1	8.447992E-1	7.949444E-1	8.372540E-1	8.789464E-1	7.954175E-1	8.364897E-1	8.250365E-1	8.326339E-1	8.536982E-1	8.482035E-1	8.410574E-1	8.103864E-1	8.351020E-1	8.356668E-1	8.452144E-1	8.834860E-1	8.160554E-1	8.072422E-1	8.055915E-1	8.097636E-1	8.438191E-1	8.011703E-1	8.150890E-1	8.229147E-1	8.166629E-1	7.885166E-1	8.270830E-1	8.598701E-1	7.886306E-1	8.400082E-1	8.066246E-1	7.895984E-1	8.095450E-1	8.122139E-1	8.454883E-1	8.145793E-1	8.218308E-1	8.176711E-1	8.071674E-1	8.040251E-1	8.273531E-1	7.760962E-1	8.590067E-1	8.169408E-1	8.638162E-1	8.497797E-1	8.328276E-1	8.229690E-1	8.166220E-1	8.459725E-1	8.350170E-1	8.169651E-1	8.398303E-1	8.136384E-1	7.668728E-1	8.129871E-1	8.291887E-1	8.053622E-1	8.282879E-1	8.023729E-1	8.252063E-1	8.455929E-1	8.185635E-1	8.792575E-1	7.987964E-1	8.003499E-1	8.463517E-1	8.640034E-1	8.229556E-1	8.148954E-1	7.858468E-1	8.507545E-1	7.817121E-1	8.177648E-1	8.224708E-1	8.204232E-1	8.557360E-1	8.325015E-1	8.149815E-1	7.983608E-1	8.040504E-1	7.975421E-1	7.828205E-1	8.189822E-1	8.378389E-1	8.078284E-1	8.245296E-1	8.163503E-1	7.967788E-1	8.096581E-1	8.038944E-1	8.627474E-1	8.448028E-1	8.143836E-1	8.195989E-1	8.607669E-1	8.116685E-1	8.242494E-1	7.750458E-1	8.240662E-1	8.301012E-1	7.932987E-1	8.275791E-1	8.511057E-1	7.851768E-1	8.359846E-1	8.675090E-1	8.056573E-1	8.706226E-1	8.028171E-1	8.103863E-1	8.209436E-1	8.228032E-1	8.439453E-1	8.578128E-1	8.351442E-1	8.283601E-1	7.937087E-1	8.093459E-1	8.720884E-1	8.628857E-1	8.741515E-1	1.056248E+0
5.385110E+2	9.939355E-1	9.801020E-1	9.914381E-1	6.474704E+0	9.972583E-1	1.015229E+0	9.885487E-1	1.051294E+0	1.029129E+0	1.021224E+0	1.024654E+0	1.036325E+0	1.004073E+0	1.004014E+0	1.038901E+0	9.896571E-1	1.015868E+0	9.645125E-1	9.969628E-1	9.560270E-1	1.001247E+0	9.812352E-1	9.889297E-1	1.054405E+0	1.042260E+0	1.027956E+0	1.047209E+0	1.087080E+0	1.024817E+0	1.053020E+0	1.003036E+0	1.017167E+0	1.048367E+0	1.037797E+0	1.001858E+0	1.042943E+0	1.051938E+0	9.803777E-1	1.032204E+0	1.065779E+0	1.025195E+0	9.952892E-1	1.021289E+0	1.078129E+0	9.945626E-1	9.943643E-1	1.021512E+0	1.027133E+0	9.705523E-1	1.022148E+0	9.957488E-1	1.073748E+0	1.009126E+0	1.009289E+0	1.047087E+0	9.654084E-1	1.029624E+0	1.041704E+0	1.020369E+0	1.026943E+0	1.026603E+0	1.005274E+0	1.024891E+0	1.026941E+0	1.020824E+0	1.010984E+0	9.854999E-1	1.007678E+0	1.023066E+0	1.040847E+0	1.018209E+0	1.003584E+0	1.040128E+0	1.013179E+0	9.753167E-1	9.979132E-1	9.558001E-1	1.011864E+0	1.061396E+0	9.966282E-1	1.005116E+0	9.999508E-1	1.023210E+0	1.001118E+0	1.004640E+0	9.918444E-1	1.028422E+0	1.004660E+0	1.055704E+0	9.926213E-1	9.975429E-1	1.006831E+0	1.015226E+0	1.034616E+0	1.016234E+0	1.038872E+0	1.007117E+0	9.906948E-1	1.001765E+0	9.740889E-1	1.058219E+0	9.857257E-1	9.911279E-1	1.048109E+0	1.007515E+0	1.029319E+0	1.022607E+0	9.961984E-1	1.001506E+0	1.002458E+0	1.011041E+0	1.030301E+0	1.035321E+0	9.973670E-1	9.606769E-1	9.907928E-1	1.035007E+0	1.016679E+0	9.649381E-1	1.052951E+0	1.008460E+0	1.064513E+0	9.549508E-1	1.038352E+0	1.037028E+0	1.031710E+0	1.039412E+0	1.015291E+0	1.009173E+0	9.818328E-1	1.004822E+0	1.038307E+0	1.023020E+0	1.022506E+0	1.013604E+0	1.039570E+0	9.997979E-1	1.050695E+0	9.773943E-1	1.043174E+0	1.046685E+0	1.026165E+0	1.018830E+0	1.064252E+0	1.016894E+0	1.006806E+0	9.847247E-1	1.019657E+0	9.842614E-1	1.015704E+0	1.010479E+0	1.014534E+0	9.897100E-1	1.007012E+0	1.018216E+0	1.045551E+0	1.035613E+0	1.028766E+0	1.039328E+0	1.047765E+0	9.807019E-1	1.020279E+0	9.891929E-1	1.058867E+0	1.039232E+0	1.032191E+0	9.787608E-1	1.059597E+0	1.064141E+0	1.057499E+0	1.319994E+0
5.387650E+2	1.232452E+0	1.170979E+0	1.163720E+0	7.250406E+0	1.168862E+0	1.178632E+0	1.135083E+0	1.242508E+0	1.158158E+0	1.173438E+0	1.175815E+0	1.211071E+0	1.191840E+0	1.185445E+0	1.187001E+0	1.219473E+0	1.171587E+0	1.136314E+0	1.184445E+0	1.168322E+0	1.184604E+0	1.177088E+0	1.176187E+0	1.156725E+0	1.236990E+0	1.244617E+0	1.237931E+0	1.210579E+0	1.175137E+0	1.222498E+0	1.203713E+0	1.217419E+0	1.237679E+0	1.199782E+0	1.183925E+0	1.177287E+0	1.227620E+0	1.176516E+0	1.116671E+0	1.236266E+0	1.214845E+0	1.206805E+0	1.212079E+0	1.225799E+0	1.194399E+0	1.219036E+0	1.202010E+0	1.218392E+0	1.158928E+0	1.111558E+0	1.232739E+0	1.238261E+0	1.186472E+0	1.195855E+0	1.197206E+0	1.214089E+0	1.219130E+0	1.199849E+0	1.175358E+0	1.193265E+0	1.233017E+0	1.172646E+0	1.222390E+0	1.210404E+0	1.150964E+0	1.173490E+0	1.174803E+0	1.182036E+0	1.171055E+0	1.162162E+0	1.180516E+0	1.198571E+0	1.229246E+0	1.197112E+0	1.148096E+0	1.219035E+0	1.173576E+0	1.166109E+0	1.181525E+0	1.173846E+0	1.197153E+0	1.242392E+0	1.173378E+0	1.261836E+0	1.240791E+0	1.184271E+0	1.189614E+0	1.179367E+0	1.217160E+0	1.187190E+0	1.182628E+0	1.193436E+0	1.252500E+0	1.211792E+0	1.221294E+0	1.208073E+0	1.186378E+0	1.164169E+0	1.156556E+0	1.181444E+0	1.216081E+0	1.165246E+0	1.212447E+0	1.183333E+0	1.180838E+0	1.192986E+0	1.202377E+0	1.245288E+0	1.197239E+0	1.161900E+0	1.129226E+0	1.207812E+0	1.223003E+0	1.196304E+0	1.132317E+0	1.159440E+0	1.212487E+0	1.160741E+0	1.139593E+0	1.167658E+0	1.180685E+0	1.234590E+0	1.133709E+0	1.203797E+0	1.153450E+0	1.204854E+0	1.205051E+0	1.178329E+0	1.203349E+0	1.221873E+0	1.110291E+0	1.203851E+0	1.193271E+0	1.179943E+0	1.166483E+0	1.203126E+0	1.181519E+0	1.176512E+0	1.187721E+0	1.244155E+0	1.161474E+0	1.157407E+0	1.180538E+0	1.184668E+0	1.170912E+0	1.181995E+0	1.162600E+0	1.181182E+0	1.190873E+0	1.192618E+0	1.147233E+0	1.167818E+0	1.190052E+0	1.133709E+0	1.207818E+0	1.189113E+0	1.152875E+0	1.167112E+0	1.134906E+0	1.196263E+0	1.167428E+0	1.149293E+0	1.122613E+0	1.224783E+0	1.176827E+0	1.151594E+0	1.185011E+0	1.270183E+0	1.179260E+0	1.194655E+0	1.422057E+0
5.390340E+2	1.401370E+0	1.303014E+0	1.266017E+0	5.105099E+0	1.372389E+0	1.341332E+0	1.327875E+0	1.355303E+0	1.370893E+0	1.332259E+0	1.395379E+0	1.375699E+0	1.407883E+0	1.331838E+0	1.365375E+0	1.408060E+0	1.348464E+0	1.327957E+0	1.332130E+0	1.346444E+0	1.400006E+0	1.315630E+0	1.350597E+0	1.348790E+0	1.408306E+0	1.396313E+0	1.461611E+0	1.310147E+0	1.375071E+0	1.383132E+0	1.361222E+0	1.416632E+0	1.394108E+0	1.366861E+0	1.320847E+0	1.305420E+0	1.359983E+0	1.335645E+0	1.354856E+0	1.421254E+0	1.372851E+0	1.320164E+0	1.319336E+0	1.385454E+0	1.348069E+0	1.349088E+0	1.360397E+0	1.385297E+0	1.331499E+0	1.297073E+0	1.400882E+0	1.420542E+0	1.337579E+0	1.325525E+0	1.374544E+0	1.353034E+0	1.378597E+0	1.266646E+0	1.343292E+0	1.361360E+0	1.434685E+0	1.325238E+0	1.316287E+0	1.376059E+0	1.352089E+0	1.286062E+0	1.302525E+0	1.348117E+0	1.342000E+0	1.335201E+0	1.292516E+0	1.313487E+0	1.352228E+0	1.347056E+0	1.336047E+0	1.300521E+0	1.304389E+0	1.315157E+0	1.332964E+0	1.352678E+0	1.328227E+0	1.341845E+0	1.326402E+0	1.377999E+0	1.319099E+0	1.336928E+0	1.340977E+0	1.370044E+0	1.358865E+0	1.344696E+0	1.398066E+0	1.316049E+0	1.443942E+0	1.318378E+0	1.369511E+0	1.349712E+0	1.337091E+0	1.336353E+0	1.315871E+0	1.355088E+0	1.373940E+0	1.301414E+0	1.355254E+0	1.321812E+0	1.286889E+0	1.364434E+0	1.383030E+0	1.342079E+0	1.378377E+0	1.317425E+0	1.341192E+0	1.364139E+0	1.314997E+0	1.321154E+0	1.399838E+0	1.332628E+0	1.326032E+0	1.260059E+0	1.320244E+0	1.363749E+0	1.352548E+0	1.349379E+0	1.349557E+0	1.346134E+0	1.356848E+0	1.322305E+0	1.351250E+0	1.348275E+0	1.300722E+0	1.303197E+0	1.315188E+0	1.371073E+0	1.338505E+0	1.337148E+0	1.337002E+0	1.311104E+0	1.329953E+0	1.290497E+0	1.341449E+0	1.452834E+0	1.324881E+0	1.336970E+0	1.299781E+0	1.358022E+0	1.272459E+0	1.286335E+0	1.330027E+0	1.355084E+0	1.346570E+0	1.333315E+0	1.338251E+0	1.363424E+0	1.358033E+0	1.361111E+0	1.255958E+0	1.338782E+0	1.332490E+0	1.343978E+0	1.365153E+0	1.368600E+0	1.348011E+0	1.330331E+0	1.345071E+0	1.396607E+0	1.287672E+0	1.326939E+0	1.356427E+0	1.403577E+0	1.371184E+0	1.351084E+0	1.460909E+0
5.392780E+2	1.608466E+0	1.530819E+0	1.537450E+0	6.156913E+0	1.541953E+0	1.532222E+0	1.548208E+0	1.636322E+0	1.542220E+0	1.571810E+0	1.579578E+0	1.542564E+0	1.606458E+0	1.572185E+0	1.538540E+0	1.582341E+0	1.546121E+0	1.529617E+0	1.510159E+0	1.521252E+0	1.609949E+0	1.567079E+0	1.509403E+0	1.588984E+0	1.603905E+0	1.496774E+0	1.608312E+0	1.558597E+0	1.564622E+0	1.638258E+0	1.605487E+0	1.601364E+0	1.654344E+0	1.595271E+0	1.532988E+0	1.536668E+0	1.514006E+0	1.510512E+0	1.494519E+0	1.558545E+0	1.587291E+0	1.462618E+0	1.513680E+0	1.605226E+0	1.597786E+0	1.515047E+0	1.545127E+0	1.558667E+0	1.578562E+0	1.480563E+0	1.521088E+0	1.545911E+0	1.529661E+0	1.525736E+0	1.565410E+0	1.538342E+0	1.553424E+0	1.545716E+0	1.522502E+0	1.557093E+0	1.576233E+0	1.535314E+0	1.579900E+0	1.558174E+0	1.561978E+0	1.526652E+0	1.509619E+0	1.571647E+0	1.552999E+0	1.539427E+0	1.503739E+0	1.607717E+0	1.562404E+0	1.533391E+0	1.517407E+0	1.517061E+0	1.541895E+0	1.519622E+0	1.600313E+0	1.560865E+0	1.500256E+0	1.601003E+0	1.524729E+0	1.558960E+0	1.518365E+0	1.532825E+0	1.569216E+0	1.593442E+0	1.547351E+0	1.500730E+0	1.532595E+0	1.522622E+0	1.621489E+0	1.509683E+0	1.509608E+0	1.550854E+0	1.550717E+0	1.485970E+0	1.523273E+0	1.543205E+0	1.524473E+0	1.485179E+0	1.544115E+0	1.592169E+0	1.536392E+0	1.541079E+0	1.574565E+0	1.591211E+0	1.538903E+0	1.569135E+0	1.538974E+0	1.606839E+0	1.518325E+0	1.532497E+0	1.510630E+0	1.490320E+0	1.554436E+0	1.520138E+0	1.490097E+0	1.632064E+0	1.538561E+0	1.504141E+0	1.531841E+0	1.662084E+0	1.547136E+0	1.581680E+0	1.511846E+0	1.584944E+0	1.541359E+0	1.571253E+0	1.507113E+0	1.541684E+0	1.495997E+0	1.592595E+0	1.501747E+0	1.542417E+0	1.554979E+0	1.551716E+0	1.542980E+0	1.629746E+0	1.544930E+0	1.521165E+0	1.509224E+0	1.575620E+0	1.539456E+0	1.517747E+0	1.520324E+0	1.530485E+0	1.525496E+0	1.515551E+0	1.519595E+0	1.554180E+0	1.530164E+0	1.586700E+0	1.530516E+0	1.524604E+0	1.515311E+0	1.529340E+0	1.554813E+0	1.560554E+0	1.508436E+0	1.539021E+0	1.501771E+0	1.538536E+0	1.515697E+0	1.492053E+0	1.548042E+0	1.617621E+0	1.532813E+0	1.718775E+0	1.666384E+0
5.395160E+2	1.905800E+0	1.807632E+0	1.753110E+0	3.821395E+0	1.790769E+0	1.814159E+0	1.798173E+0	1.804098E+0	1.821477E+0	1.800192E+0	1.731881E+0	1.833459E+0	1.835821E+0	1.769480E+0	1.882643E+0	1.827464E+0	1.829406E+0	1.791045E+0	1.777296E+0	1.828619E+0	1.827750E+0	1.800139E+0	1.800617E+0	1.841979E+0	1.835402E+0	1.801275E+0	1.844888E+0	1.749440E+0	1.800460E+0	1.843200E+0	1.808617E+0	1.788331E+0	1.880892E+0	1.818979E+0	1.758908E+0	1.753726E+0	1.809758E+0	1.766367E+0	1.785432E+0	1.812829E+0	1.903309E+0	1.740786E+0	1.795761E+0	1.810168E+0	1.802777E+0	1.786027E+0	1.773147E+0	1.846919E+0	1.823865E+0	1.799308E+0	1.739392E+0	1.741403E+0	1.784642E+0	1.792113E+0	1.839959E+0	1.804907E+0	1.842255E+0	1.743332E+0	1.871106E+0	1.749530E+0	1.906914E+0	1.778072E+0	1.749414E+0	1.774935E+0	1.772644E+0	1.815519E+0	1.775802E+0	1.816870E+0	1.779246E+0	1.833099E+0	1.796303E+0	1.734357E+0	1.805737E+0	1.717794E+0	1.776180E+0	1.795881E+0	1.749206E+0	1.784524E+0	1.788816E+0	1.809374E+0	1.778271E+0	1.851488E+0	1.863642E+0	1.840834E+0	1.794038E+0	1.768121E+0	1.745546E+0	1.800664E+0	1.844169E+0	1.762994E+0	1.815088E+0	1.751310E+0	1.881713E+0	1.804276E+0	1.793754E+0	1.796523E+0	1.774432E+0	1.781082E+0	1.769799E+0	1.780150E+0	1.788166E+0	1.809074E+0	1.808831E+0	1.823343E+0	1.818098E+0	1.780098E+0	1.848281E+0	1.848905E+0	1.784481E+0	1.733446E+0	1.748740E+0	1.802357E+0	1.766858E+0	1.826092E+0	1.736245E+0	1.759230E+0	1.733252E+0	1.762816E+0	1.798193E+0	1.817930E+0	1.758795E+0	1.745027E+0	1.740299E+0	1.814191E+0	1.768197E+0	1.778897E+0	1.720640E+0	1.805032E+0	1.777464E+0	1.766596E+0	1.696601E+0	1.750095E+0	1.728858E+0	1.756399E+0	1.726960E+0	1.794248E+0	1.800210E+0	1.808876E+0	1.785249E+0	1.841314E+0	1.752467E+0	1.770369E+0	1.777206E+0	1.777174E+0	1.755165E+0	1.796240E+0	1.756373E+0	1.736415E+0	1.747034E+0	1.749721E+0	1.784520E+0	1.810155E+0	1.782115E+0	1.697549E+0	1.832893E+0	1.814851E+0	1.738313E+0	1.793224E+0	1.730880E+0	1.725640E+0	1.678893E+0	1.783507E+0	1.722702E+0	1.817733E+0	1.767754E+0	1.703983E+0	1.713659E+0	1.729134E+0	1.804085E+0	1.774343E+0	1.864624E+0
5.397910E+2	1.949975E+0	1.892176E+0	1.919690E+0	2.789548E+0	1.911203E+0	1.954478E+0	1.927735E+0	1.950288E+0	1.982068E+0	1.936472E+0	1.909674E+0	1.879081E+0	1.999361E+0	1.938022E+0	1.916777E+0	2.026845E+0	1.965043E+0	1.902502E+0	1.909986E+0	1.887916E+0	1.921759E+0	1.951394E+0	1.901962E+0	1.932062E+0	1.899217E+0	1.941348E+0	1.905282E+0	1.895406E+0	1.896165E+0	1.970197E+0	1.902514E+0	1.890812E+0	1.992939E+0	1.988270E+0	1.902928E+0	1.925627E+0	1.929187E+0	1.851330E+0	1.875496E+0	1.979014E+0	1.969237E+0	1.902659E+0	1.907143E+0	1.966049E+0	1.929561E+0	1.955758E+0	1.900006E+0	1.938249E+0	1.840710E+0	1.886746E+0	1.864697E+0	1.918755E+0	1.890541E+0	1.912086E+0	1.900494E+0	1.888723E+0	1.968198E+0	1.849586E+0	1.922331E+0	1.906264E+0	1.969001E+0	1.913562E+0	1.831622E+0	1.920870E+0	1.917853E+0	1.829992E+0	1.876453E+0	1.977511E+0	1.926463E+0	1.881791E+0	1.894070E+0	1.908218E+0	1.951829E+0	1.955001E+0	1.891822E+0	1.921515E+0	1.882481E+0	1.972082E+0	1.914579E+0	1.925790E+0	1.862093E+0	1.928974E+0	1.893149E+0	1.900923E+0	1.936336E+0	1.877489E+0	1.920962E+0	1.911850E+0	1.913668E+0	1.876149E+0	1.878966E+0	1.875185E+0	1.976284E+0	1.916955E+0	1.888101E+0	1.923388E+0	1.896344E+0	1.917146E+0	1.885272E+0	1.887882E+0	1.972585E+0	1.850496E+0	1.824555E+0	1.901581E+0	1.918162E+0	1.863485E+0	1.934721E+0	1.893227E+0	1.934031E+0	1.921201E+0	1.905173E+0	1.874490E+0	1.834626E+0	1.945273E+0	1.789265E+0	1.887336E+0	1.940164E+0	1.895501E+0	1.871935E+0	1.903240E+0	1.857836E+0	1.878890E+0	1.881958E+0	1.917788E+0	1.924393E+0	1.856699E+0	1.929036E+0	1.886009E+0	1.843512E+0	1.847025E+0	1.848828E+0	1.910910E+0	1.901883E+0	1.920726E+0	1.901215E+0	1.909133E+0	1.885942E+0	1.925493E+0	1.875970E+0	1.976742E+0	1.889902E+0	1.860516E+0	1.835766E+0	1.919190E+0	1.825996E+0	1.813518E+0	1.902157E+0	1.900163E+0	1.922928E+0	1.844678E+0	1.837908E+0	1.963381E+0	1.942075E+0	1.829965E+0	1.838850E+0	1.874299E+0	1.894665E+0	1.864165E+0	1.899905E+0	1.874648E+0	1.918283E+0	1.822714E+0	1.828991E+0	1.849741E+0	1.817724E+0	1.829502E+0	1.861210E+0	1.959631E+0	1.842939E+0	2.077728E+0	2.049488E+0
5.400350E+2	1.993953E+0	1.961001E+0	1.960790E+0	3.116612E+0	1.962275E+0	1.952662E+0	1.896239E+0	1.997216E+0	1.958886E+0	2.068179E+0	1.965753E+0	2.006968E+0	2.033233E+0	1.943676E+0	2.026688E+0	1.981556E+0	1.937956E+0	1.968870E+0	2.040840E+0	1.995452E+0	1.972430E+0	1.928562E+0	1.948055E+0	1.964055E+0	1.981621E+0	1.937110E+0	1.982407E+0	1.915428E+0	1.922918E+0	1.995736E+0	1.982137E+0	1.917272E+0	2.104879E+0	1.986939E+0	1.904433E+0	1.957509E+0	1.980219E+0	1.893844E+0	1.934802E+0	1.965043E+0	2.066671E+0	1.935424E+0	1.915313E+0	1.951289E+0	2.017794E+0	1.960906E+0	1.933761E+0	2.002605E+0	1.980606E+0	1.912288E+0	1.958966E+0	2.020698E+0	1.931354E+0	1.984019E+0	1.977684E+0	1.965667E+0	2.025773E+0	1.888978E+0	1.952713E+0	1.950191E+0	2.001029E+0	1.949360E+0	1.958915E+0	1.977220E+0	1.920240E+0	1.954798E+0	1.926160E+0	1.953026E+0	1.930337E+0	1.960956E+0	1.957944E+0	1.993935E+0	1.984986E+0	1.920887E+0	1.950644E+0	1.991044E+0	1.904846E+0	1.983361E+0	1.997815E+0	1.946159E+0	1.863077E+0	1.960346E+0	1.929791E+0	1.952016E+0	1.916978E+0	1.886014E+0	1.943465E+0	1.919465E+0	2.030883E+0	1.933239E+0	1.973167E+0	1.923333E+0	2.020615E+0	1.890864E+0	1.942711E+0	1.993527E+0	1.986851E+0	1.972616E+0	1.992773E+0	1.914148E+0	1.993069E+0	1.945539E+0	1.984551E+0	1.909280E+0	1.914917E+0	1.905053E+0	1.961983E+0	1.924168E+0	1.960525E+0	1.923569E+0	1.930214E+0	1.946095E+0	1.899840E+0	1.871917E+0	1.890534E+0	1.943433E+0	1.969126E+0	1.894809E+0	1.856996E+0	1.971435E+0	1.929022E+0	1.967220E+0	1.936492E+0	1.963738E+0	1.859119E+0	1.918980E+0	1.968654E+0	1.969823E+0	1.930780E+0	1.882846E+0	1.849826E+0	1.884816E+0	1.914336E+0	1.847251E+0	1.907725E+0	1.930677E+0	1.947024E+0	1.925956E+0	1.878352E+0	2.025631E+0	1.916605E+0	1.914765E+0	1.840559E+0	1.952847E+0	1.957994E+0	1.907710E+0	1.900369E+0	1.918463E+0	1.914953E+0	1.875312E+0	1.909269E+0	1.898727E+0	2.029901E+0	1.845114E+0	1.950982E+0	1.979936E+0	1.934551E+0	1.904507E+0	1.936708E+0	1.923403E+0	1.943009E+0	1.907916E+0	1.866729E+0	1.965686E+0	1.901133E+0	1.871660E+0	1.921910E+0	2.027866E+0	1.872813E+0	2.010281E+0	1.945782E+0
5.402740E+2	2.005660E+0	1.869801E+0	1.930298E+0	2.720369E+0	1.839187E+0	1.944693E+0	1.907114E+0	1.920154E+0	1.952558E+0	1.908758E+0	1.884181E+0	1.915316E+0	1.950145E+0	1.936177E+0	1.933236E+0	1.960935E+0	1.917117E+0	1.907691E+0	1.903813E+0	1.879435E+0	1.895839E+0	1.934905E+0	1.898597E+0	1.977908E+0	1.984343E+0	1.874232E+0	1.937988E+0	1.925415E+0	1.922779E+0	1.883314E+0	1.904883E+0	1.896431E+0	1.938888E+0	1.895111E+0	1.873187E+0	1.918939E+0	1.913066E+0	1.873460E+0	1.869273E+0	1.911932E+0	2.006228E+0	1.850801E+0	1.939795E+0	1.958630E+0	1.963282E+0	1.893382E+0	1.945046E+0	1.940426E+0	1.922503E+0	1.976429E+0	1.942724E+0	1.975251E+0	1.935913E+0	1.903569E+0	1.910560E+0	1.854905E+0	1.914822E+0	1.866890E+0	1.900254E+0	1.877318E+0	1.959415E+0	1.887263E+0	1.908814E+0	1.912075E+0	1.858996E+0	1.861938E+0	1.888963E+0	1.903107E+0	1.886872E+0	1.903615E+0	1.888504E+0	1.824198E+0	1.900838E+0	1.820343E+0	1.885946E+0	1.831374E+0	1.939820E+0	1.926467E+0	1.932654E+0	1.892925E+0	1.865568E+0	1.926100E+0	1.900192E+0	1.883961E+0	1.899469E+0	1.896022E+0	1.893545E+0	1.883288E+0	1.917177E+0	1.906273E+0	1.886775E+0	1.895839E+0	1.959580E+0	1.870186E+0	1.939807E+0	1.824249E+0	1.891256E+0	1.916049E+0	1.909965E+0	1.966066E+0	1.916014E+0	1.831083E+0	1.889382E+0	1.874504E+0	1.886216E+0	1.884062E+0	1.960242E+0	1.890956E+0	1.868071E+0	1.959870E+0	1.865276E+0	1.925426E+0	1.888393E+0	1.901515E+0	1.847123E+0	1.880937E+0	1.860330E+0	1.892987E+0	1.870155E+0	1.865443E+0	1.911455E+0	1.830291E+0	1.809399E+0	1.943319E+0	1.886306E+0	1.844016E+0	1.817032E+0	1.892860E+0	1.880756E+0	1.898765E+0	1.834854E+0	1.854227E+0	1.872739E+0	1.836200E+0	1.842172E+0	1.862543E+0	1.841975E+0	1.907768E+0	1.828830E+0	1.943203E+0	1.899612E+0	1.938111E+0	1.883119E+0	1.867879E+0	1.842259E+0	1.856393E+0	1.875780E+0	1.837701E+0	1.882420E+0	1.831796E+0	1.849882E+0	1.882341E+0	1.940265E+0	1.820082E+0	1.921773E+0	1.866829E+0	1.901785E+0	1.827737E+0	1.854187E+0	1.875333E+0	1.819871E+0	1.878076E+0	1.823431E+0	1.914119E+0	1.824728E+0	1.849652E+0	1.833357E+0	1.860511E+0	1.995963E+0	1.988336E+0	2.035685E+0
5.405080E+2	1.827908E+0	1.753661E+0	1.732627E+0	2.256473E+0	1.661225E+0	1.766170E+0	1.773097E+0	1.774832E+0	1.721403E+0	1.775210E+0	1.736981E+0	1.773808E+0	1.798051E+0	1.759011E+0	1.771376E+0	1.737621E+0	1.787935E+0	1.711034E+0	1.717119E+0	1.687097E+0	1.748267E+0	1.682961E+0	1.679024E+0	1.764918E+0	1.809896E+0	1.701384E+0	1.775723E+0	1.747569E+0	1.763395E+0	1.717747E+0	1.679454E+0	1.686018E+0	1.794607E+0	1.743576E+0	1.742014E+0	1.726648E+0	1.742745E+0	1.693158E+0	1.800649E+0	1.713908E+0	1.831589E+0	1.744038E+0	1.734461E+0	1.771054E+0	1.767714E+0	1.738921E+0	1.703394E+0	1.752180E+0	1.793349E+0	1.725809E+0	1.733993E+0	1.756208E+0	1.706551E+0	1.716871E+0	1.754604E+0	1.740939E+0	1.778476E+0	1.692953E+0	1.751868E+0	1.745839E+0	1.782799E+0	1.669722E+0	1.710813E+0	1.675217E+0	1.739228E+0	1.738298E+0	1.719038E+0	1.737311E+0	1.708572E+0	1.700927E+0	1.721066E+0	1.660193E+0	1.765050E+0	1.723155E+0	1.712804E+0	1.734651E+0	1.710491E+0	1.706727E+0	1.773207E+0	1.744087E+0	1.680869E+0	1.735951E+0	1.715868E+0	1.747311E+0	1.735357E+0	1.689570E+0	1.688841E+0	1.775115E+0	1.761020E+0	1.728751E+0	1.727710E+0	1.710831E+0	1.746763E+0	1.734449E+0	1.735049E+0	1.738140E+0	1.765701E+0	1.702678E+0	1.656439E+0	1.699964E+0	1.739893E+0	1.763429E+0	1.711153E+0	1.735699E+0	1.710491E+0	1.751336E+0	1.741230E+0	1.705574E+0	1.758130E+0	1.706671E+0	1.705191E+0	1.728196E+0	1.739703E+0	1.752521E+0	1.595787E+0	1.760349E+0	1.722038E+0	1.716118E+0	1.652771E+0	1.720303E+0	1.742878E+0	1.757304E+0	1.681267E+0	1.705596E+0	1.680981E+0	1.684244E+0	1.689053E+0	1.700650E+0	1.766856E+0	1.792719E+0	1.659899E+0	1.746242E+0	1.721684E+0	1.677230E+0	1.696279E+0	1.666690E+0	1.709716E+0	1.732460E+0	1.717888E+0	1.848373E+0	1.700896E+0	1.695094E+0	1.710424E+0	1.733425E+0	1.671934E+0	1.678317E+0	1.738500E+0	1.682494E+0	1.708765E+0	1.672052E+0	1.707039E+0	1.691730E+0	1.698914E+0	1.673661E+0	1.785260E+0	1.709397E+0	1.787557E+0	1.753853E+0	1.671731E+0	1.711975E+0	1.673810E+0	1.755537E+0	1.705021E+0	1.759729E+0	1.726455E+0	1.678735E+0	1.690561E+0	1.713054E+0	1.809008E+0	1.792922E+0	1.829540E+0
5.407630E+2	1.664185E+0	1.634124E+0	1.600693E+0	2.017516E+0	1.623723E+0	1.592699E+0	1.581331E+0	1.656096E+0	1.595135E+0	1.613526E+0	1.585400E+0	1.601413E+0	1.648572E+0	1.595287E+0	1.602819E+0	1.663328E+0	1.553594E+0	1.624298E+0	1.564409E+0	1.572676E+0	1.619349E+0	1.551561E+0	1.574652E+0	1.657060E+0	1.645877E+0	1.612833E+0	1.628602E+0	1.533840E+0	1.583036E+0	1.583586E+0	1.641379E+0	1.543650E+0	1.658027E+0	1.673593E+0	1.571323E+0	1.559352E+0	1.617890E+0	1.589048E+0	1.584291E+0	1.575452E+0	1.668742E+0	1.601449E+0	1.589297E+0	1.682332E+0	1.583917E+0	1.605351E+0	1.623465E+0	1.623259E+0	1.622785E+0	1.637496E+0	1.562318E+0	1.586214E+0	1.644860E+0	1.598253E+0	1.601898E+0	1.606732E+0	1.649550E+0	1.545137E+0	1.597110E+0	1.558440E+0	1.645100E+0	1.614218E+0	1.623852E+0	1.624000E+0	1.594698E+0	1.594127E+0	1.537199E+0	1.631198E+0	1.625548E+0	1.614119E+0	1.572993E+0	1.572427E+0	1.523532E+0	1.605909E+0	1.583733E+0	1.598335E+0	1.570747E+0	1.564443E+0	1.590455E+0	1.573971E+0	1.522322E+0	1.652446E+0	1.624599E+0	1.580275E+0	1.561695E+0	1.572436E+0	1.541848E+0	1.594648E+0	1.585518E+0	1.591613E+0	1.644531E+0	1.578224E+0	1.625908E+0	1.538710E+0	1.615199E+0	1.585553E+0	1.522825E+0	1.594745E+0	1.573378E+0	1.555953E+0	1.607584E+0	1.611938E+0	1.553376E+0	1.587899E+0	1.544160E+0	1.524404E+0	1.591545E+0	1.601832E+0	1.600985E+0	1.598738E+0	1.551665E+0	1.647365E+0	1.600482E+0	1.654878E+0	1.519484E+0	1.558595E+0	1.620655E+0	1.579871E+0	1.545997E+0	1.555997E+0	1.559510E+0	1.625782E+0	1.596997E+0	1.575519E+0	1.570949E+0	1.624819E+0	1.567578E+0	1.644677E+0	1.591525E+0	1.552508E+0	1.579791E+0	1.634438E+0	1.605065E+0	1.520055E+0	1.523253E+0	1.549809E+0	1.544271E+0	1.586698E+0	1.565535E+0	1.607356E+0	1.613489E+0	1.560278E+0	1.570264E+0	1.601449E+0	1.544729E+0	1.542182E+0	1.606700E+0	1.605272E+0	1.611174E+0	1.559139E+0	1.579455E+0	1.557527E+0	1.554021E+0	1.547372E+0	1.563973E+0	1.539630E+0	1.591687E+0	1.580983E+0	1.620879E+0	1.592895E+0	1.555327E+0	1.607009E+0	1.579603E+0	1.592726E+0	1.566826E+0	1.556612E+0	1.557089E+0	1.573055E+0	1.573053E+0	1.525816E+0	1.613073E+0
5.410340E+2	1.729120E+0	1.617201E+0	1.597680E+0	2.140552E+0	1.658317E+0	1.731492E+0	1.626084E+0	1.736628E+0	1.654144E+0	1.650220E+0	1.671484E+0	1.693207E+0	1.754936E+0	1.645676E+0	1.682253E+0	1.746690E+0	1.705068E+0	1.589240E+0	1.633503E+0	1.669738E+0	1.674466E+0	1.630560E+0	1.644533E+0	1.712381E+0	1.688988E+0	1.668126E+0	1.677603E+0	1.599714E+0	1.692198E+0	1.747146E+0	1.683887E+0	1.706140E+0	1.705767E+0	1.681737E+0	1.709752E+0	1.660639E+0	1.714178E+0	1.583583E+0	1.690429E+0	1.713285E+0	1.773448E+0	1.664823E+0	1.634455E+0	1.678839E+0	1.749386E+0	1.674959E+0	1.654536E+0	1.650799E+0	1.675827E+0	1.665403E+0	1.621045E+0	1.719183E+0	1.678525E+0	1.678085E+0	1.666934E+0	1.612344E+0	1.707164E+0	1.625184E+0	1.696483E+0	1.604621E+0	1.650814E+0	1.640088E+0	1.646007E+0	1.657076E+0	1.662065E+0	1.655550E+0	1.658044E+0	1.653518E+0	1.694001E+0	1.677859E+0	1.681822E+0	1.613165E+0	1.657185E+0	1.596792E+0	1.655817E+0	1.723921E+0	1.643591E+0	1.657689E+0	1.652719E+0	1.650539E+0	1.623930E+0	1.696898E+0	1.631069E+0	1.685568E+0	1.657627E+0	1.642347E+0	1.654069E+0	1.671936E+0	1.657250E+0	1.686423E+0	1.620823E+0	1.670941E+0	1.724525E+0	1.612520E+0	1.642228E+0	1.630400E+0	1.637317E+0	1.651479E+0	1.706319E+0	1.649381E+0	1.678841E+0	1.590465E+0	1.638296E+0	1.643252E+0	1.655871E+0	1.597885E+0	1.662626E+0	1.627679E+0	1.638758E+0	1.609997E+0	1.649448E+0	1.712743E+0	1.608911E+0	1.570376E+0	1.591877E+0	1.589319E+0	1.650642E+0	1.619081E+0	1.604615E+0	1.693116E+0	1.610118E+0	1.621918E+0	1.630560E+0	1.673362E+0	1.622549E+0	1.669077E+0	1.649734E+0	1.584957E+0	1.639078E+0	1.594062E+0	1.580536E+0	1.574136E+0	1.609542E+0	1.645340E+0	1.591116E+0	1.657076E+0	1.692411E+0	1.577892E+0	1.696980E+0	1.698441E+0	1.631871E+0	1.587282E+0	1.655541E+0	1.688711E+0	1.617621E+0	1.633401E+0	1.636387E+0	1.613898E+0	1.615829E+0	1.649849E+0	1.613114E+0	1.666374E+0	1.708793E+0	1.645201E+0	1.658248E+0	1.622705E+0	1.636954E+0	1.643059E+0	1.639254E+0	1.627122E+0	1.651611E+0	1.607628E+0	1.624023E+0	1.627972E+0	1.581310E+0	1.626519E+0	1.621630E+0	1.629538E+0	1.601855E+0	1.689075E+0	1.743563E+0
5.412640E+2	1.670284E+0	1.602324E+0	1.644859E+0	2.003366E+0	1.655536E+0	1.600294E+0	1.662388E+0	1.617771E+0	1.643967E+0	1.650870E+0	1.591843E+0	1.656112E+0	1.618723E+0	1.643234E+0	1.611978E+0	1.673020E+0	1.661290E+0	1.658837E+0	1.624966E+0	1.619765E+0	1.646368E+0	1.646557E+0	1.612335E+0	1.642301E+0	1.596921E+0	1.631356E+0	1.685986E+0	1.587713E+0	1.593068E+0	1.651513E+0	1.587511E+0	1.641750E+0	1.601728E+0	1.639639E+0	1.619025E+0	1.570700E+0	1.653233E+0	1.543342E+0	1.594171E+0	1.618227E+0	1.693795E+0	1.639436E+0	1.639718E+0	1.639730E+0	1.633645E+0	1.606544E+0	1.644771E+0	1.600121E+0	1.625593E+0	1.595439E+0	1.609490E+0	1.664886E+0	1.575129E+0	1.597154E+0	1.625669E+0	1.603736E+0	1.603814E+0	1.644213E+0	1.568919E+0	1.709771E+0	1.691905E+0	1.677368E+0	1.607280E+0	1.650572E+0	1.561930E+0	1.559694E+0	1.603345E+0	1.624126E+0	1.669190E+0	1.624167E+0	1.615679E+0	1.611182E+0	1.642329E+0	1.609552E+0	1.649306E+0	1.599783E+0	1.614095E+0	1.637528E+0	1.652541E+0	1.578315E+0	1.606147E+0	1.586204E+0	1.612553E+0	1.681266E+0	1.600292E+0	1.653340E+0	1.626995E+0	1.621151E+0	1.646462E+0	1.638478E+0	1.635929E+0	1.622782E+0	1.654537E+0	1.595429E+0	1.618436E+0	1.619849E+0	1.609282E+0	1.600343E+0	1.634375E+0	1.662881E+0	1.656248E+0	1.598878E+0	1.529127E+0	1.588623E+0	1.605007E+0	1.603253E+0	1.647135E+0	1.613570E+0	1.668920E+0	1.580138E+0	1.625695E+0	1.650754E+0	1.666350E+0	1.620387E+0	1.613525E+0	1.596629E+0	1.581884E+0	1.514638E+0	1.593089E+0	1.627610E+0	1.629965E+0	1.610983E+0	1.615919E+0	1.663114E+0	1.605460E+0	1.632434E+0	1.667505E+0	1.639397E+0	1.648516E+0	1.589099E+0	1.570643E+0	1.592538E+0	1.641944E+0	1.562185E+0	1.586252E+0	1.588647E+0	1.583055E+0	1.596441E+0	1.554588E+0	1.619087E+0	1.587800E+0	1.604713E+0	1.597947E+0	1.608985E+0	1.601504E+0	1.585549E+0	1.570204E+0	1.589219E+0	1.600144E+0	1.582231E+0	1.545532E+0	1.634947E+0	1.634712E+0	1.591288E+0	1.595750E+0	1.610561E+0	1.588038E+0	1.609289E+0	1.609935E+0	1.608298E+0	1.616250E+0	1.580180E+0	1.560364E+0	1.593966E+0	1.560022E+0	1.598235E+0	1.584309E+0	1.629557E+0	1.577024E+0	1.694568E+0	1.638324E+0
5.415140E+2	1.522355E+0	1.533224E+0	1.466761E+0	1.851436E+0	1.497827E+0	1.501982E+0	1.441017E+0	1.537350E+0	1.533077E+0	1.480070E+0	1.464126E+0	1.482594E+0	1.535420E+0	1.586053E+0	1.522933E+0	1.560090E+0	1.522544E+0	1.480065E+0	1.491622E+0	1.503342E+0	1.487362E+0	1.475277E+0	1.523210E+0	1.467938E+0	1.453091E+0	1.457690E+0	1.484481E+0	1.508971E+0	1.437449E+0	1.514912E+0	1.521889E+0	1.504721E+0	1.514624E+0	1.505527E+0	1.422001E+0	1.473833E+0	1.509333E+0	1.466874E+0	1.457780E+0	1.469987E+0	1.509689E+0	1.457961E+0	1.469693E+0	1.457088E+0	1.462663E+0	1.547332E+0	1.465263E+0	1.508418E+0	1.472516E+0	1.464601E+0	1.476741E+0	1.509013E+0	1.527108E+0	1.462238E+0	1.501261E+0	1.502567E+0	1.527953E+0	1.485538E+0	1.493153E+0	1.515915E+0	1.491911E+0	1.544517E+0	1.450522E+0	1.532565E+0	1.421508E+0	1.447593E+0	1.438969E+0	1.445137E+0	1.550182E+0	1.467305E+0	1.484429E+0	1.474578E+0	1.519874E+0	1.427639E+0	1.465779E+0	1.489304E+0	1.494003E+0	1.507255E+0	1.529519E+0	1.475891E+0	1.382840E+0	1.460655E+0	1.521254E+0	1.527936E+0	1.502057E+0	1.446765E+0	1.480889E+0	1.479187E+0	1.423945E+0	1.493002E+0	1.489824E+0	1.472176E+0	1.479891E+0	1.513074E+0	1.484887E+0	1.450337E+0	1.553010E+0	1.458936E+0	1.477988E+0	1.473618E+0	1.469960E+0	1.467155E+0	1.471180E+0	1.497339E+0	1.442693E+0	1.544665E+0	1.489499E+0	1.449387E+0	1.496506E+0	1.407602E+0	1.481304E+0	1.491453E+0	1.516900E+0	1.460597E+0	1.474210E+0	1.499660E+0	1.492177E+0	1.436671E+0	1.441925E+0	1.462497E+0	1.491462E+0	1.502863E+0	1.456699E+0	1.455558E+0	1.483622E+0	1.536801E+0	1.445541E+0	1.459056E+0	1.450191E+0	1.511707E+0	1.457504E+0	1.497787E+0	1.471175E+0	1.500162E+0	1.467165E+0	1.465300E+0	1.459305E+0	1.523682E+0	1.495299E+0	1.528332E+0	1.540219E+0	1.501266E+0	1.479047E+0	1.530638E+0	1.474229E+0	1.481117E+0	1.423689E+0	1.465413E+0	1.443902E+0	1.450699E+0	1.425151E+0	1.488446E+0	1.528095E+0	1.439357E+0	1.571922E+0	1.457933E+0	1.487473E+0	1.473971E+0	1.490230E+0	1.479252E+0	1.516970E+0	1.512361E+0	1.427466E+0	1.483728E+0	1.454110E+0	1.462610E+0	1.480110E+0	1.408133E+0	1.489953E+0	1.562144E+0	1.481575E+0
5.417700E+2	1.421444E+0	1.295238E+0	1.290594E+0	1.537652E+0	1.367133E+0	1.382939E+0	1.329839E+0	1.357822E+0	1.376685E+0	1.332146E+0	1.340141E+0	1.322960E+0	1.347408E+0	1.371330E+0	1.349196E+0	1.407267E+0	1.372466E+0	1.331407E+0	1.335154E+0	1.354396E+0	1.341944E+0	1.343893E+0	1.349448E+0	1.331580E+0	1.340858E+0	1.360357E+0	1.377007E+0	1.319293E+0	1.361930E+0	1.388395E+0	1.340593E+0	1.353187E+0	1.302211E+0	1.351633E+0	1.310096E+0	1.357731E+0	1.324537E+0	1.315837E+0	1.355246E+0	1.327821E+0	1.388174E+0	1.343596E+0	1.336592E+0	1.399872E+0	1.334887E+0	1.360633E+0	1.379394E+0	1.334019E+0	1.327195E+0	1.368098E+0	1.356529E+0	1.414928E+0	1.313939E+0	1.338804E+0	1.346341E+0	1.325948E+0	1.381872E+0	1.323613E+0	1.343940E+0	1.341860E+0	1.345327E+0	1.353879E+0	1.308913E+0	1.365926E+0	1.323013E+0	1.370140E+0	1.338432E+0	1.328483E+0	1.360281E+0	1.358645E+0	1.335253E+0	1.334664E+0	1.382718E+0	1.348114E+0	1.296139E+0	1.353146E+0	1.285794E+0	1.356671E+0	1.361839E+0	1.348764E+0	1.271688E+0	1.400756E+0	1.313071E+0	1.316134E+0	1.337823E+0	1.309994E+0	1.331905E+0	1.337980E+0	1.314271E+0	1.341926E+0	1.393450E+0	1.316595E+0	1.410319E+0	1.361406E+0	1.357667E+0	1.354108E+0	1.364726E+0	1.328620E+0	1.385171E+0	1.367300E+0	1.373079E+0	1.319404E+0	1.316862E+0	1.329207E+0	1.339689E+0	1.376252E+0	1.299343E+0	1.316264E+0	1.323266E+0	1.314838E+0	1.392413E+0	1.367509E+0	1.337670E+0	1.341694E+0	1.367395E+0	1.306972E+0	1.355106E+0	1.346126E+0	1.314205E+0	1.336419E+0	1.328706E+0	1.314258E+0	1.291847E+0	1.411314E+0	1.350084E+0	1.346793E+0	1.347558E+0	1.372217E+0	1.363116E+0	1.323849E+0	1.254664E+0	1.356216E+0	1.320356E+0	1.346509E+0	1.351954E+0	1.370604E+0	1.358975E+0	1.294806E+0	1.371380E+0	1.418066E+0	1.370623E+0	1.355950E+0	1.324790E+0	1.361318E+0	1.346414E+0	1.311684E+0	1.347597E+0	1.255026E+0	1.334529E+0	1.363772E+0	1.341406E+0	1.350080E+0	1.345545E+0	1.362763E+0	1.360749E+0	1.305164E+0	1.347005E+0	1.310303E+0	1.340306E+0	1.332631E+0	1.293731E+0	1.333437E+0	1.398113E+0	1.389534E+0	1.326441E+0	1.273610E+0	1.312481E+0	1.367058E+0	1.318063E+0	1.397152E+0	1.452386E+0
5.420160E+2	1.245266E+0	1.169706E+0	1.229161E+0	1.347232E+0	1.179747E+0	1.202955E+0	1.182477E+0	1.247766E+0	1.238700E+0	1.201136E+0	1.226791E+0	1.218968E+0	1.162205E+0	1.213121E+0	1.174978E+0	1.191589E+0	1.188251E+0	1.227136E+0	1.210954E+0	1.151464E+0	1.188722E+0	1.186117E+0	1.185864E+0	1.161450E+0	1.170382E+0	1.169477E+0	1.213498E+0	1.139243E+0	1.201443E+0	1.149806E+0	1.227568E+0	1.188428E+0	1.249497E+0	1.205806E+0	1.197211E+0	1.178473E+0	1.239132E+0	1.188858E+0	1.177717E+0	1.184242E+0	1.221546E+0	1.193025E+0	1.191590E+0	1.230336E+0	1.180776E+0	1.228147E+0	1.211042E+0	1.245669E+0	1.190430E+0	1.257914E+0	1.231528E+0	1.265053E+0	1.201694E+0	1.191580E+0	1.218151E+0	1.193183E+0	1.221667E+0	1.183899E+0	1.170185E+0	1.240691E+0	1.200398E+0	1.215450E+0	1.172824E+0	1.193359E+0	1.153886E+0	1.186361E+0	1.190025E+0	1.178412E+0	1.260183E+0	1.173888E+0	1.175626E+0	1.194017E+0	1.187099E+0	1.143412E+0	1.131781E+0	1.199279E+0	1.145335E+0	1.177627E+0	1.184922E+0	1.223518E+0	1.213907E+0	1.263736E+0	1.220368E+0	1.216050E+0	1.220415E+0	1.167528E+0	1.239328E+0	1.176313E+0	1.157570E+0	1.180504E+0	1.212025E+0	1.240969E+0	1.252911E+0	1.207173E+0	1.190316E+0	1.241439E+0	1.224153E+0	1.266286E+0	1.207683E+0	1.180544E+0	1.177020E+0	1.191022E+0	1.131953E+0	1.170037E+0	1.171103E+0	1.192935E+0	1.236245E+0	1.193581E+0	1.235464E+0	1.174655E+0	1.153115E+0	1.195405E+0	1.182699E+0	1.218880E+0	1.184501E+0	1.147517E+0	1.201072E+0	1.169302E+0	1.180482E+0	1.214607E+0	1.196659E+0	1.201126E+0	1.195878E+0	1.201769E+0	1.161627E+0	1.183496E+0	1.177734E+0	1.177949E+0	1.176206E+0	1.219560E+0	1.215916E+0	1.222444E+0	1.176147E+0	1.181582E+0	1.207231E+0	1.162265E+0	1.189540E+0	1.185822E+0	1.163039E+0	1.263180E+0	1.163806E+0	1.199028E+0	1.163301E+0	1.232079E+0	1.190026E+0	1.175682E+0	1.201967E+0	1.199338E+0	1.193900E+0	1.203679E+0	1.190565E+0	1.217174E+0	1.193307E+0	1.164439E+0	1.213020E+0	1.213113E+0	1.176727E+0	1.215246E+0	1.210064E+0	1.255082E+0	1.207322E+0	1.201699E+0	1.147635E+0	1.218100E+0	1.213445E+0	1.165359E+0	1.224800E+0	1.246810E+0	1.210752E+0	1.186097E+0	1.191556E+0
5.422670E+2	9.637959E-1	9.401430E-1	9.316337E-1	1.044008E+0	9.534634E-1	1.006260E+0	9.662956E-1	9.497040E-1	9.652019E-1	9.715641E-1	9.711507E-1	9.696043E-1	9.572583E-1	9.565623E-1	9.603877E-1	9.885519E-1	9.705973E-1	9.458286E-1	9.689116E-1	9.318085E-1	1.002495E+0	9.423047E-1	9.545040E-1	9.422349E-1	9.946668E-1	9.698204E-1	9.844473E-1	9.681693E-1	9.384259E-1	9.935507E-1	9.585333E-1	9.668331E-1	9.869791E-1	1.013667E+0	9.058384E-1	9.454931E-1	1.037959E+0	9.787638E-1	9.831644E-1	9.878366E-1	9.584274E-1	9.686804E-1	9.627502E-1	9.918694E-1	9.772429E-1	9.505177E-1	9.731853E-1	9.723104E-1	9.709951E-1	9.741613E-1	9.912882E-1	1.004187E+0	9.747916E-1	9.182207E-1	9.557392E-1	9.303366E-1	9.753868E-1	9.628241E-1	9.224135E-1	9.741555E-1	9.687038E-1	1.009441E+0	9.769564E-1	9.574529E-1	9.581503E-1	9.459514E-1	9.810200E-1	9.878346E-1	9.593110E-1	9.568264E-1	9.813314E-1	9.691524E-1	9.695636E-1	9.540438E-1	9.563365E-1	1.000028E+0	9.789978E-1	9.943815E-1	9.459822E-1	9.623112E-1	9.029229E-1	1.002679E+0	9.584573E-1	9.629841E-1	9.565772E-1	9.311036E-1	9.467560E-1	9.448524E-1	9.651911E-1	9.730466E-1	1.022386E+0	9.802624E-1	9.817499E-1	9.992598E-1	9.862852E-1	9.640405E-1	9.938774E-1	9.595070E-1	9.722897E-1	9.884673E-1	9.857689E-1	9.666225E-1	9.790384E-1	9.465022E-1	9.266592E-1	9.433944E-1	9.652313E-1	9.917651E-1	9.792221E-1	9.855279E-1	9.501237E-1	9.869233E-1	9.688900E-1	9.432456E-1	9.329361E-1	9.758946E-1	9.569326E-1	1.000069E+0	9.551337E-1	9.819980E-1	9.691060E-1	9.496699E-1	9.611963E-1	9.828451E-1	9.728504E-1	9.698861E-1	9.618295E-1	9.867524E-1	9.485385E-1	9.153243E-1	9.729861E-1	9.750462E-1	9.485326E-1	9.725881E-1	9.724684E-1	9.507038E-1	1.000204E+0	1.024664E+0	9.888052E-1	9.715877E-1	9.804190E-1	9.642706E-1	9.780766E-1	9.573713E-1	9.450791E-1	9.552271E-1	9.801868E-1	9.580760E-1	9.655024E-1	9.622706E-1	9.636062E-1	9.378491E-1	1.000405E+0	9.215001E-1	9.662615E-1	9.640936E-1	9.411163E-1	1.017132E+0	9.350130E-1	9.428085E-1	9.690032E-1	9.757528E-1	9.650990E-1	1.014177E+0	9.604550E-1	9.633823E-1	9.991710E-1	9.901311E-1	1.070427E+0	1.019907E+0	1.077467E+0
5.425140E+2	9.112691E-1	8.825325E-1	9.120890E-1	8.813623E-1	9.289810E-1	9.271052E-1	8.787293E-1	9.517218E-1	9.427518E-1	8.967518E-1	9.616793E-1	9.391252E-1	9.339920E-1	9.364584E-1	9.376247E-1	9.227701E-1	9.263179E-1	9.112121E-1	9.394916E-1	8.961041E-1	9.294329E-1	9.040872E-1	9.197972E-1	9.273339E-1	9.869913E-1	9.385387E-1	9.282773E-1	9.394701E-1	9.193244E-1	9.705135E-1	9.399208E-1	9.386031E-1	9.405102E-1	9.119819E-1	9.452610E-1	8.304133E-1	9.402299E-1	9.058035E-1	9.133650E-1	9.771893E-1	9.473511E-1	9.254566E-1	9.374685E-1	8.824946E-1	9.271158E-1	9.466959E-1	9.390030E-1	9.788442E-1	9.438088E-1	9.538241E-1	9.674032E-1	9.512690E-1	9.523397E-1	9.581150E-1	8.925117E-1	9.264191E-1	9.139544E-1	9.165907E-1	9.230739E-1	9.226409E-1	9.584198E-1	9.447495E-1	8.900932E-1	9.516843E-1	8.958675E-1	9.108960E-1	9.347425E-1	9.126239E-1	9.610392E-1	9.321353E-1	8.771592E-1	9.450346E-1	9.436658E-1	9.169051E-1	9.578387E-1	9.292582E-1	9.360551E-1	9.145425E-1	9.336249E-1	9.475718E-1	9.319469E-1	9.443984E-1	9.553766E-1	9.464391E-1	9.588635E-1	9.416281E-1	9.346272E-1	9.548565E-1	9.922811E-1	9.556979E-1	8.908076E-1	9.071171E-1	9.542026E-1	9.587765E-1	9.336841E-1	9.031673E-1	9.285566E-1	9.518313E-1	9.047305E-1	9.305438E-1	9.069600E-1	9.364400E-1	8.808284E-1	9.050098E-1	8.981327E-1	9.307337E-1	8.965351E-1	9.356819E-1	8.976769E-1	9.089311E-1	9.200153E-1	9.283252E-1	9.293984E-1	9.655731E-1	9.024101E-1	9.222330E-1	9.574464E-1	9.209548E-1	8.942353E-1	9.576435E-1	9.199166E-1	9.217808E-1	9.449343E-1	9.461126E-1	9.327639E-1	9.065676E-1	9.723882E-1	9.486158E-1	9.438330E-1	1.006869E+0	9.233821E-1	8.856273E-1	9.292391E-1	8.876823E-1	9.399631E-1	9.652458E-1	9.679345E-1	9.820748E-1	9.166166E-1	9.092416E-1	9.280483E-1	9.534722E-1	9.795433E-1	9.778765E-1	9.064559E-1	9.838353E-1	8.867311E-1	9.038361E-1	9.476323E-1	9.347562E-1	9.530997E-1	9.479157E-1	9.487834E-1	9.305645E-1	9.543660E-1	9.413443E-1	9.341659E-1	9.427429E-1	9.438125E-1	9.367170E-1	8.939482E-1	9.703791E-1	9.326912E-1	9.785419E-1	9.727686E-1	9.116525E-1	9.476165E-1	9.242647E-1	9.970867E-1	1.044843E+0	1.093786E+0
5.427650E+2	9.465824E-1	9.491234E-1	8.907831E-1	9.286068E-1	9.501089E-1	9.772913E-1	9.173017E-1	9.533219E-1	9.496100E-1	8.988743E-1	9.574304E-1	9.215782E-1	9.532335E-1	8.925913E-1	9.284919E-1	9.771567E-1	9.270072E-1	9.022545E-1	9.934903E-1	9.252078E-1	9.501817E-1	9.353009E-1	9.550313E-1	8.941252E-1	1.006417E+0	9.644817E-1	1.008844E+0	9.387833E-1	9.653995E-1	9.745327E-1	9.741992E-1	9.445113E-1	9.519985E-1	9.202101E-1	9.569945E-1	9.487303E-1	8.874753E-1	9.008427E-1	9.549710E-1	9.231306E-1	9.414936E-1	9.475303E-1	9.592219E-1	8.852781E-1	9.401045E-1	9.352657E-1	9.194917E-1	9.254839E-1	9.516386E-1	9.598710E-1	9.842318E-1	9.401461E-1	9.664504E-1	9.305749E-1	9.462554E-1	9.187326E-1	9.485618E-1	9.251124E-1	9.224941E-1	9.298092E-1	9.509333E-1	9.339655E-1	9.236791E-1	9.697978E-1	9.081020E-1	9.387419E-1	9.359518E-1	9.298740E-1	9.500329E-1	9.391837E-1	9.464107E-1	9.051731E-1	9.474960E-1	9.300319E-1	8.912791E-1	9.456107E-1	9.012809E-1	9.250767E-1	9.699420E-1	9.240427E-1	9.177215E-1	9.897581E-1	1.015028E+0	9.509464E-1	9.023945E-1	8.897923E-1	9.256870E-1	9.428471E-1	8.926226E-1	9.491598E-1	9.503976E-1	9.327890E-1	9.950127E-1	9.329217E-1	9.603678E-1	9.509859E-1	9.706847E-1	9.435516E-1	9.973608E-1	9.511100E-1	9.555126E-1	9.163334E-1	9.176940E-1	9.321547E-1	8.958502E-1	9.409391E-1	9.699649E-1	9.146230E-1	9.279460E-1	9.153234E-1	9.250289E-1	9.250998E-1	9.546828E-1	9.428084E-1	8.806897E-1	9.275163E-1	9.120903E-1	9.331739E-1	9.362011E-1	8.889858E-1	9.240277E-1	9.597192E-1	9.317263E-1	9.549032E-1	9.027985E-1	9.571657E-1	9.210034E-1	9.789637E-1	9.075508E-1	9.288600E-1	9.082026E-1	9.415654E-1	9.164770E-1	9.359553E-1	8.961366E-1	9.253043E-1	9.707908E-1	9.616924E-1	9.005222E-1	9.999556E-1	9.331090E-1	9.988628E-1	9.713232E-1	9.643203E-1	9.366489E-1	9.352764E-1	9.167122E-1	9.144661E-1	9.532021E-1	9.351229E-1	9.332891E-1	9.606834E-1	9.367624E-1	9.140814E-1	9.232327E-1	9.504906E-1	9.403529E-1	9.512157E-1	9.731426E-1	9.710963E-1	9.509229E-1	9.122920E-1	9.567564E-1	9.747418E-1	9.243681E-1	8.886877E-1	9.549035E-1	9.019269E-1	8.423080E-1	1.050205E+0	1.078407E+0
5.430120E+2	9.829954E-1	9.756637E-1	9.399104E-1	9.606297E-1	9.857397E-1	1.004843E+0	9.868004E-1	1.007443E+0	9.728011E-1	9.703935E-1	9.633694E-1	9.780905E-1	9.798916E-1	9.779962E-1	1.007275E+0	9.855405E-1	1.023274E+0	9.662384E-1	9.933779E-1	9.997415E-1	9.609690E-1	9.747853E-1	9.649849E-1	1.014455E+0	1.034915E+0	1.014566E+0	1.027098E+0	1.009842E+0	9.927642E-1	9.905264E-1	9.712593E-1	1.040548E+0	1.045045E+0	9.836114E-1	9.806427E-1	9.929150E-1	9.864396E-1	9.599239E-1	9.962505E-1	9.821006E-1	1.010332E+0	9.749776E-1	9.705172E-1	1.053237E+0	9.230390E-1	1.015706E+0	1.012802E+0	9.855651E-1	1.007717E+0	9.879331E-1	9.959594E-1	1.038675E+0	9.877568E-1	9.624143E-1	9.949080E-1	1.016088E+0	9.707505E-1	9.714863E-1	1.010597E+0	1.045716E+0	9.859010E-1	9.949560E-1	9.657069E-1	1.034652E+0	9.608739E-1	1.015716E+0	9.732266E-1	1.030250E+0	9.609521E-1	9.897147E-1	9.998729E-1	1.003963E+0	1.015465E+0	9.407840E-1	1.008743E+0	9.922465E-1	9.729702E-1	1.027849E+0	1.017595E+0	1.016665E+0	9.752504E-1	1.033547E+0	9.473577E-1	9.420293E-1	9.945014E-1	9.597905E-1	9.978224E-1	1.000281E+0	1.003672E+0	1.005152E+0	1.019546E+0	9.828006E-1	1.017975E+0	9.395279E-1	9.704038E-1	9.922700E-1	9.795157E-1	9.944942E-1	9.909686E-1	9.740599E-1	1.024080E+0	9.885301E-1	9.990286E-1	9.926096E-1	9.275908E-1	9.928038E-1	1.010984E+0	9.863186E-1	9.898755E-1	9.889289E-1	9.824800E-1	1.031073E+0	1.041834E+0	1.029528E+0	9.646982E-1	9.576443E-1	1.004099E+0	9.992009E-1	1.000617E+0	1.000104E+0	9.854251E-1	1.015068E+0	9.766249E-1	1.001416E+0	9.788144E-1	1.049375E+0	9.700673E-1	9.589410E-1	1.039286E+0	9.733220E-1	9.376886E-1	9.810851E-1	9.955889E-1	9.724526E-1	9.826815E-1	1.002086E+0	9.913509E-1	1.013734E+0	9.861095E-1	1.014519E+0	9.882713E-1	1.004245E+0	9.806147E-1	9.958962E-1	9.872289E-1	1.017527E+0	1.030121E+0	9.755463E-1	1.017348E+0	1.003311E+0	9.909929E-1	9.768035E-1	1.017362E+0	1.011955E+0	9.826221E-1	9.926789E-1	9.963365E-1	1.060936E+0	9.783495E-1	1.028384E+0	9.610474E-1	1.015134E+0	1.011774E+0	9.896834E-1	9.570769E-1	9.739450E-1	9.663191E-1	1.017451E+0	9.591594E-1	9.658681E-1	1.083018E+0
5.432800E+2	1.183970E+0	1.078460E+0	1.108690E+0	1.170471E+0	1.113565E+0	1.135052E+0	1.094858E+0	1.115610E+0	1.134842E+0	1.098563E+0	1.140384E+0	1.114512E+0	1.126485E+0	1.096442E+0	1.126862E+0	1.167151E+0	1.088606E+0	1.101757E+0	1.116771E+0	1.110893E+0	1.097181E+0	1.109045E+0	1.109540E+0	1.151761E+0	1.160979E+0	1.110223E+0	1.132038E+0	1.158290E+0	1.102743E+0	1.119166E+0	1.095194E+0	1.122440E+0	1.139471E+0	1.114205E+0	1.136317E+0	1.104756E+0	1.139209E+0	1.138167E+0	1.110972E+0	1.149438E+0	1.161324E+0	1.158482E+0	1.114856E+0	1.138480E+0	1.148368E+0	1.142799E+0	1.143749E+0	1.136176E+0	1.098600E+0	1.104255E+0	1.102491E+0	1.161770E+0	1.119612E+0	1.113243E+0	1.153849E+0	1.081048E+0	1.152403E+0	1.146527E+0	1.147667E+0	1.156696E+0	1.153969E+0	1.149162E+0	1.098201E+0	1.139145E+0	1.080477E+0	1.128599E+0	1.122064E+0	1.144201E+0	1.124870E+0	1.126623E+0	1.124075E+0	1.115892E+0	1.085269E+0	1.117045E+0	1.125164E+0	1.111396E+0	1.089011E+0	1.149704E+0	1.164325E+0	1.126666E+0	1.080763E+0	1.121396E+0	1.127554E+0	1.102402E+0	1.117068E+0	1.137071E+0	1.110150E+0	1.100861E+0	1.144559E+0	1.123869E+0	1.130485E+0	1.099353E+0	1.164135E+0	1.154946E+0	1.148411E+0	1.140808E+0	1.156720E+0	1.111359E+0	1.051930E+0	1.146581E+0	1.179170E+0	1.120244E+0	1.120437E+0	1.135904E+0	1.149003E+0	1.134717E+0	1.158190E+0	1.091318E+0	1.095637E+0	1.119281E+0	1.145253E+0	1.154353E+0	1.147272E+0	1.132882E+0	1.082327E+0	1.170124E+0	1.131140E+0	1.087018E+0	1.115681E+0	1.147564E+0	1.112406E+0	1.166201E+0	1.102021E+0	1.117997E+0	1.096657E+0	1.103583E+0	1.135594E+0	1.152953E+0	1.116493E+0	1.117088E+0	1.104591E+0	1.112983E+0	1.149973E+0	1.109856E+0	1.123915E+0	1.124015E+0	1.109389E+0	1.106985E+0	1.096965E+0	1.167185E+0	1.105874E+0	1.104929E+0	1.157802E+0	1.159700E+0	1.090323E+0	1.082137E+0	1.111443E+0	1.140517E+0	1.092506E+0	1.130983E+0	1.132082E+0	1.085703E+0	1.110881E+0	1.141482E+0	1.141960E+0	1.117027E+0	1.075418E+0	1.145856E+0	1.150098E+0	1.096877E+0	1.098621E+0	1.139636E+0	1.181281E+0	1.126398E+0	1.112891E+0	1.102691E+0	1.145709E+0	1.142705E+0	1.157890E+0	1.171936E+0	1.275762E+0
5.435270E+2	1.348435E+0	1.259310E+0	1.276711E+0	1.439681E+0	1.302645E+0	1.291204E+0	1.303705E+0	1.260151E+0	1.283174E+0	1.204818E+0	1.270449E+0	1.293731E+0	1.328438E+0	1.281445E+0	1.293675E+0	1.326282E+0	1.288770E+0	1.290562E+0	1.328401E+0	1.252042E+0	1.277942E+0	1.249357E+0	1.265290E+0	1.342963E+0	1.356997E+0	1.258764E+0	1.345715E+0	1.301446E+0	1.287459E+0	1.313927E+0	1.313027E+0	1.252097E+0	1.276226E+0	1.280612E+0	1.267547E+0	1.291890E+0	1.268817E+0	1.263563E+0	1.235976E+0	1.232117E+0	1.286594E+0	1.283259E+0	1.283238E+0	1.323377E+0	1.298135E+0	1.269464E+0	1.346188E+0	1.366330E+0	1.308531E+0	1.248788E+0	1.281024E+0	1.281060E+0	1.308035E+0	1.284146E+0	1.319094E+0	1.290790E+0	1.264868E+0	1.254518E+0	1.259544E+0	1.308515E+0	1.288854E+0	1.244076E+0	1.285584E+0	1.323623E+0	1.272078E+0	1.285418E+0	1.302337E+0	1.288425E+0	1.341336E+0	1.257542E+0	1.267638E+0	1.317313E+0	1.287648E+0	1.226394E+0	1.306986E+0	1.282290E+0	1.212140E+0	1.308645E+0	1.298271E+0	1.302115E+0	1.247252E+0	1.291238E+0	1.290058E+0	1.261936E+0	1.268971E+0	1.267765E+0	1.242053E+0	1.254894E+0	1.288268E+0	1.269491E+0	1.313795E+0	1.295173E+0	1.342077E+0	1.276716E+0	1.267861E+0	1.280038E+0	1.256020E+0	1.301609E+0	1.295189E+0	1.294032E+0	1.295282E+0	1.285007E+0	1.326483E+0	1.270835E+0	1.239971E+0	1.241534E+0	1.343137E+0	1.321912E+0	1.270924E+0	1.322012E+0	1.288486E+0	1.278226E+0	1.234801E+0	1.245027E+0	1.301657E+0	1.300433E+0	1.236736E+0	1.260892E+0	1.293081E+0	1.296420E+0	1.295583E+0	1.334866E+0	1.296722E+0	1.269455E+0	1.311689E+0	1.276473E+0	1.318921E+0	1.258038E+0	1.297415E+0	1.241500E+0	1.198269E+0	1.305049E+0	1.287573E+0	1.238405E+0	1.238234E+0	1.266422E+0	1.309222E+0	1.235597E+0	1.277048E+0	1.329559E+0	1.309209E+0	1.297724E+0	1.316345E+0	1.287771E+0	1.280728E+0	1.289928E+0	1.245281E+0	1.301225E+0	1.289470E+0	1.285236E+0	1.291076E+0	1.299925E+0	1.264164E+0	1.249458E+0	1.323400E+0	1.363747E+0	1.219875E+0	1.290768E+0	1.297734E+0	1.303506E+0	1.277982E+0	1.258595E+0	1.245674E+0	1.283040E+0	1.265934E+0	1.224761E+0	1.264744E+0	1.291588E+0	1.314478E+0	1.326825E+0	1.495421E+0
5.437640E+2	1.424321E+0	1.346944E+0	1.371859E+0	1.537294E+0	1.391976E+0	1.424758E+0	1.379157E+0	1.396913E+0	1.355213E+0	1.406093E+0	1.424204E+0	1.402941E+0	1.400930E+0	1.344096E+0	1.390829E+0	1.419023E+0	1.423989E+0	1.334296E+0	1.428665E+0	1.420778E+0	1.400391E+0	1.357680E+0	1.390306E+0	1.405479E+0	1.405454E+0	1.394282E+0	1.426173E+0	1.401617E+0	1.363188E+0	1.355109E+0	1.420758E+0	1.378553E+0	1.429341E+0	1.391659E+0	1.402548E+0	1.368983E+0	1.404978E+0	1.360116E+0	1.383735E+0	1.385829E+0	1.431529E+0	1.382744E+0	1.358171E+0	1.426757E+0	1.373931E+0	1.390800E+0	1.417914E+0	1.428455E+0	1.379075E+0	1.448294E+0	1.415277E+0	1.444081E+0	1.379574E+0	1.400307E+0	1.434965E+0	1.357320E+0	1.348231E+0	1.341234E+0	1.377047E+0	1.449300E+0	1.399594E+0	1.361531E+0	1.402070E+0	1.377976E+0	1.338277E+0	1.389902E+0	1.353991E+0	1.401186E+0	1.394515E+0	1.387404E+0	1.358847E+0	1.399767E+0	1.458834E+0	1.351380E+0	1.396551E+0	1.384063E+0	1.364894E+0	1.364735E+0	1.385414E+0	1.392844E+0	1.354819E+0	1.403366E+0	1.375940E+0	1.382662E+0	1.384270E+0	1.383656E+0	1.411236E+0	1.392691E+0	1.421877E+0	1.324781E+0	1.426225E+0	1.348779E+0	1.407865E+0	1.375339E+0	1.381584E+0	1.388412E+0	1.334964E+0	1.354400E+0	1.415372E+0	1.342756E+0	1.394055E+0	1.349003E+0	1.400050E+0	1.400376E+0	1.352610E+0	1.385895E+0	1.415937E+0	1.339824E+0	1.384093E+0	1.386278E+0	1.403218E+0	1.383036E+0	1.374678E+0	1.347479E+0	1.355015E+0	1.416366E+0	1.364164E+0	1.325449E+0	1.332090E+0	1.388426E+0	1.400411E+0	1.342276E+0	1.360681E+0	1.426664E+0	1.356080E+0	1.418524E+0	1.379194E+0	1.404344E+0	1.315115E+0	1.363152E+0	1.366219E+0	1.358698E+0	1.376527E+0	1.351448E+0	1.316419E+0	1.333497E+0	1.374130E+0	1.414109E+0	1.388583E+0	1.408732E+0	1.362945E+0	1.382286E+0	1.401579E+0	1.405065E+0	1.384424E+0	1.437613E+0	1.336131E+0	1.327148E+0	1.385888E+0	1.349890E+0	1.375177E+0	1.397976E+0	1.365493E+0	1.339707E+0	1.421633E+0	1.344602E+0	1.356010E+0	1.380250E+0	1.425472E+0	1.377320E+0	1.338729E+0	1.393849E+0	1.405207E+0	1.426909E+0	1.415934E+0	1.331666E+0	1.352973E+0	1.379798E+0	1.417300E+0	1.384821E+0	1.554226E+0
5.440170E+2	1.525324E+0	1.377962E+0	1.417652E+0	1.532258E+0	1.506351E+0	1.399881E+0	1.414562E+0	1.471008E+0	1.444978E+0	1.445730E+0	1.442883E+0	1.468669E+0	1.429438E+0	1.438326E+0	1.442823E+0	1.509203E+0	1.424719E+0	1.385329E+0	1.462659E+0	1.444926E+0	1.417186E+0	1.357350E+0	1.433816E+0	1.459373E+0	1.463131E+0	1.473110E+0	1.460626E+0	1.413217E+0	1.379282E+0	1.400273E+0	1.482712E+0	1.392433E+0	1.431499E+0	1.436252E+0	1.436172E+0	1.442693E+0	1.436747E+0	1.442855E+0	1.424388E+0	1.407999E+0	1.472382E+0	1.394991E+0	1.468121E+0	1.473311E+0	1.392203E+0	1.421141E+0	1.402771E+0	1.423404E+0	1.439013E+0	1.423422E+0	1.450752E+0	1.421042E+0	1.435530E+0	1.415504E+0	1.427120E+0	1.463492E+0	1.474071E+0	1.383356E+0	1.482052E+0	1.387831E+0	1.409225E+0	1.421087E+0	1.438277E+0	1.479861E+0	1.390038E+0	1.421250E+0	1.420877E+0	1.448719E+0	1.452456E+0	1.357869E+0	1.427260E+0	1.458032E+0	1.367855E+0	1.358936E+0	1.346415E+0	1.463675E+0	1.425066E+0	1.421272E+0	1.441243E+0	1.409605E+0	1.367080E+0	1.439135E+0	1.437328E+0	1.427937E+0	1.445980E+0	1.389248E+0	1.472135E+0	1.450741E+0	1.414193E+0	1.386786E+0	1.418362E+0	1.385740E+0	1.442063E+0	1.381968E+0	1.436971E+0	1.419679E+0	1.421053E+0	1.442239E+0	1.417355E+0	1.352967E+0	1.478314E+0	1.386427E+0	1.387516E+0	1.429279E+0	1.424852E+0	1.394507E+0	1.433122E+0	1.413617E+0	1.420668E+0	1.395534E+0	1.433451E+0	1.391382E+0	1.390712E+0	1.334941E+0	1.406488E+0	1.421311E+0	1.413533E+0	1.406653E+0	1.389680E+0	1.425218E+0	1.451680E+0	1.395037E+0	1.449532E+0	1.399067E+0	1.456509E+0	1.407963E+0	1.442889E+0	1.439073E+0	1.422193E+0	1.365648E+0	1.345566E+0	1.397662E+0	1.441273E+0	1.338172E+0	1.419181E+0	1.370054E+0	1.390380E+0	1.424915E+0	1.425968E+0	1.419954E+0	1.444049E+0	1.435228E+0	1.414054E+0	1.426216E+0	1.372866E+0	1.383233E+0	1.454083E+0	1.431250E+0	1.414178E+0	1.406986E+0	1.401723E+0	1.415199E+0	1.435364E+0	1.407595E+0	1.399204E+0	1.394375E+0	1.383161E+0	1.372876E+0	1.461870E+0	1.410150E+0	1.408528E+0	1.407046E+0	1.411365E+0	1.445512E+0	1.420127E+0	1.363220E+0	1.406879E+0	1.393695E+0	1.411637E+0	1.435066E+0	1.498934E+0
5.442750E+2	1.639318E+0	1.561314E+0	1.553836E+0	1.689258E+0	1.555243E+0	1.591645E+0	1.563278E+0	1.569983E+0	1.530333E+0	1.544742E+0	1.550593E+0	1.506287E+0	1.581615E+0	1.556154E+0	1.543961E+0	1.616187E+0	1.553049E+0	1.565651E+0	1.582837E+0	1.585515E+0	1.526433E+0	1.484590E+0	1.535557E+0	1.580355E+0	1.524429E+0	1.492360E+0	1.531733E+0	1.501997E+0	1.556773E+0	1.564983E+0	1.514181E+0	1.550183E+0	1.568883E+0	1.537879E+0	1.533185E+0	1.561446E+0	1.565562E+0	1.521910E+0	1.504137E+0	1.542547E+0	1.595003E+0	1.531902E+0	1.517647E+0	1.530573E+0	1.511964E+0	1.480045E+0	1.579018E+0	1.552182E+0	1.519184E+0	1.542797E+0	1.641017E+0	1.585388E+0	1.567790E+0	1.513215E+0	1.539603E+0	1.502882E+0	1.543695E+0	1.488400E+0	1.532913E+0	1.565251E+0	1.558659E+0	1.486246E+0	1.528148E+0	1.548242E+0	1.480390E+0	1.498417E+0	1.488924E+0	1.545313E+0	1.566861E+0	1.476865E+0	1.489418E+0	1.528531E+0	1.578832E+0	1.486092E+0	1.476818E+0	1.537908E+0	1.497997E+0	1.524158E+0	1.490853E+0	1.504037E+0	1.487205E+0	1.575003E+0	1.468573E+0	1.553067E+0	1.505213E+0	1.505993E+0	1.541273E+0	1.539965E+0	1.531452E+0	1.481724E+0	1.597910E+0	1.519327E+0	1.526488E+0	1.531921E+0	1.574207E+0	1.575507E+0	1.485813E+0	1.496208E+0	1.526930E+0	1.488252E+0	1.513660E+0	1.493206E+0	1.523436E+0	1.554551E+0	1.471115E+0	1.517434E+0	1.556489E+0	1.564006E+0	1.479556E+0	1.455877E+0	1.547018E+0	1.553262E+0	1.544691E+0	1.540169E+0	1.497697E+0	1.500102E+0	1.533832E+0	1.496662E+0	1.534195E+0	1.547360E+0	1.539325E+0	1.506110E+0	1.470524E+0	1.472124E+0	1.550227E+0	1.483239E+0	1.492099E+0	1.524807E+0	1.558494E+0	1.464089E+0	1.492804E+0	1.526464E+0	1.499965E+0	1.535404E+0	1.506143E+0	1.509554E+0	1.486111E+0	1.497527E+0	1.486111E+0	1.563470E+0	1.521575E+0	1.481475E+0	1.518573E+0	1.525925E+0	1.545642E+0	1.497597E+0	1.483990E+0	1.502783E+0	1.524788E+0	1.524979E+0	1.455285E+0	1.545325E+0	1.510969E+0	1.443697E+0	1.537911E+0	1.508813E+0	1.505903E+0	1.497512E+0	1.514698E+0	1.521716E+0	1.501004E+0	1.558439E+0	1.468659E+0	1.494752E+0	1.492594E+0	1.480461E+0	1.528851E+0	1.548842E+0	1.544562E+0	1.577880E+0	1.331686E+0
5.445130E+2	1.656705E+0	1.492420E+0	1.535944E+0	1.720654E+0	1.584937E+0	1.542502E+0	1.583494E+0	1.577854E+0	1.611833E+0	1.508894E+0	1.561401E+0	1.588113E+0	1.550773E+0	1.586905E+0	1.557602E+0	1.645705E+0	1.578167E+0	1.530022E+0	1.553684E+0	1.516428E+0	1.536142E+0	1.536389E+0	1.527694E+0	1.568062E+0	1.530456E+0	1.517848E+0	1.541393E+0	1.523900E+0	1.522640E+0	1.603303E+0	1.580200E+0	1.543305E+0	1.613175E+0	1.567642E+0	1.503064E+0	1.552226E+0	1.529753E+0	1.516477E+0	1.561463E+0	1.537650E+0	1.560368E+0	1.538283E+0	1.551429E+0	1.583672E+0	1.543507E+0	1.530227E+0	1.526529E+0	1.510468E+0	1.558520E+0	1.564254E+0	1.529761E+0	1.608240E+0	1.587784E+0	1.517486E+0	1.553731E+0	1.593751E+0	1.576689E+0	1.541030E+0	1.518644E+0	1.511914E+0	1.566261E+0	1.532314E+0	1.487613E+0	1.512427E+0	1.557673E+0	1.510695E+0	1.544722E+0	1.573146E+0	1.574699E+0	1.561203E+0	1.619356E+0	1.536532E+0	1.555378E+0	1.503088E+0	1.456234E+0	1.588880E+0	1.514511E+0	1.509257E+0	1.566277E+0	1.574839E+0	1.480228E+0	1.532465E+0	1.514734E+0	1.574148E+0	1.577465E+0	1.492756E+0	1.585781E+0	1.505953E+0	1.567998E+0	1.499141E+0	1.538901E+0	1.541307E+0	1.544209E+0	1.529592E+0	1.563391E+0	1.530189E+0	1.579053E+0	1.500934E+0	1.549907E+0	1.525045E+0	1.551247E+0	1.546049E+0	1.558557E+0	1.576780E+0	1.508817E+0	1.509109E+0	1.578849E+0	1.604605E+0	1.489116E+0	1.529051E+0	1.518069E+0	1.579453E+0	1.534450E+0	1.538194E+0	1.510059E+0	1.521241E+0	1.531772E+0	1.536049E+0	1.536141E+0	1.481569E+0	1.523306E+0	1.545549E+0	1.513608E+0	1.567614E+0	1.564383E+0	1.504227E+0	1.558809E+0	1.480476E+0	1.503806E+0	1.485487E+0	1.510063E+0	1.530773E+0	1.564205E+0	1.525740E+0	1.495160E+0	1.521161E+0	1.481229E+0	1.537736E+0	1.573238E+0	1.566811E+0	1.545208E+0	1.527385E+0	1.520567E+0	1.547188E+0	1.507117E+0	1.528714E+0	1.443420E+0	1.497281E+0	1.519344E+0	1.546252E+0	1.583771E+0	1.534264E+0	1.519296E+0	1.487863E+0	1.536746E+0	1.497743E+0	1.535909E+0	1.528667E+0	1.574849E+0	1.534503E+0	1.562426E+0	1.569858E+0	1.465570E+0	1.551270E+0	1.467570E+0	1.487625E+0	1.549604E+0	1.552197E+0	1.516192E+0	1.641596E+0	1.545583E+0
5.447660E+2	1.571076E+0	1.562315E+0	1.504961E+0	1.630037E+0	1.579211E+0	1.559190E+0	1.499140E+0	1.546255E+0	1.557140E+0	1.497774E+0	1.570119E+0	1.532267E+0	1.485371E+0	1.501668E+0	1.534587E+0	1.554172E+0	1.563993E+0	1.466603E+0	1.538328E+0	1.566175E+0	1.584278E+0	1.505872E+0	1.524761E+0	1.544412E+0	1.541157E+0	1.497195E+0	1.559724E+0	1.550628E+0	1.488931E+0	1.486350E+0	1.512124E+0	1.519649E+0	1.519461E+0	1.597306E+0	1.518683E+0	1.483564E+0	1.495503E+0	1.515589E+0	1.537819E+0	1.460683E+0	1.551363E+0	1.498250E+0	1.525476E+0	1.553891E+0	1.494604E+0	1.516470E+0	1.542626E+0	1.564901E+0	1.532423E+0	1.484212E+0	1.491776E+0	1.551919E+0	1.527574E+0	1.486108E+0	1.597216E+0	1.490974E+0	1.563321E+0	1.498314E+0	1.535629E+0	1.480399E+0	1.548857E+0	1.537985E+0	1.528597E+0	1.517910E+0	1.481318E+0	1.500411E+0	1.539890E+0	1.541055E+0	1.507693E+0	1.469791E+0	1.508945E+0	1.504468E+0	1.557627E+0	1.467630E+0	1.480692E+0	1.556364E+0	1.538289E+0	1.522517E+0	1.508722E+0	1.496787E+0	1.455475E+0	1.537157E+0	1.550024E+0	1.495719E+0	1.522132E+0	1.484250E+0	1.567045E+0	1.554635E+0	1.494993E+0	1.472134E+0	1.559485E+0	1.502698E+0	1.545309E+0	1.496245E+0	1.537050E+0	1.560657E+0	1.504920E+0	1.518807E+0	1.480055E+0	1.529095E+0	1.532891E+0	1.511792E+0	1.487256E+0	1.458380E+0	1.495020E+0	1.475054E+0	1.551156E+0	1.518740E+0	1.506488E+0	1.466539E+0	1.506634E+0	1.507114E+0	1.570095E+0	1.457621E+0	1.502935E+0	1.573873E+0	1.552380E+0	1.525847E+0	1.559359E+0	1.517335E+0	1.508245E+0	1.509326E+0	1.482599E+0	1.489762E+0	1.481645E+0	1.481056E+0	1.506816E+0	1.517327E+0	1.547623E+0	1.490862E+0	1.438059E+0	1.515389E+0	1.550512E+0	1.452271E+0	1.533465E+0	1.490435E+0	1.511770E+0	1.519608E+0	1.455424E+0	1.590578E+0	1.516526E+0	1.522456E+0	1.526933E+0	1.510583E+0	1.542351E+0	1.439640E+0	1.469808E+0	1.494756E+0	1.504587E+0	1.474160E+0	1.494318E+0	1.490186E+0	1.536508E+0	1.455596E+0	1.458357E+0	1.492475E+0	1.432471E+0	1.462290E+0	1.531543E+0	1.537926E+0	1.460087E+0	1.454048E+0	1.504369E+0	1.507412E+0	1.489342E+0	1.440801E+0	1.509434E+0	1.470616E+0	1.607600E+0	1.410160E+0	1.558401E+0
5.450090E+2	1.500065E+0	1.432180E+0	1.440575E+0	1.473758E+0	1.422448E+0	1.444446E+0	1.417704E+0	1.441961E+0	1.494310E+0	1.446067E+0	1.454706E+0	1.478124E+0	1.444597E+0	1.444627E+0	1.473463E+0	1.461128E+0	1.452476E+0	1.403338E+0	1.422060E+0	1.449374E+0	1.459570E+0	1.421643E+0	1.406308E+0	1.517352E+0	1.403620E+0	1.341673E+0	1.487809E+0	1.463695E+0	1.392919E+0	1.462522E+0	1.448019E+0	1.434438E+0	1.468600E+0	1.388106E+0	1.440235E+0	1.451888E+0	1.452004E+0	1.389788E+0	1.387252E+0	1.472604E+0	1.480766E+0	1.405317E+0	1.464213E+0	1.503943E+0	1.414132E+0	1.415601E+0	1.495483E+0	1.458742E+0	1.386162E+0	1.461145E+0	1.456372E+0	1.495223E+0	1.407905E+0	1.431443E+0	1.437055E+0	1.413288E+0	1.510055E+0	1.407869E+0	1.432931E+0	1.395134E+0	1.442963E+0	1.421362E+0	1.481073E+0	1.449083E+0	1.401248E+0	1.366900E+0	1.411971E+0	1.454013E+0	1.474880E+0	1.480361E+0	1.435504E+0	1.398763E+0	1.408057E+0	1.434154E+0	1.413465E+0	1.429188E+0	1.424732E+0	1.455008E+0	1.481038E+0	1.456589E+0	1.395185E+0	1.435357E+0	1.456588E+0	1.447564E+0	1.414854E+0	1.461619E+0	1.452952E+0	1.400871E+0	1.395691E+0	1.383380E+0	1.471831E+0	1.474998E+0	1.427351E+0	1.460413E+0	1.494994E+0	1.466518E+0	1.426611E+0	1.462797E+0	1.406929E+0	1.395991E+0	1.451523E+0	1.402305E+0	1.431519E+0	1.378440E+0	1.431526E+0	1.400824E+0	1.476593E+0	1.462435E+0	1.444393E+0	1.429885E+0	1.457923E+0	1.431018E+0	1.428866E+0	1.427827E+0	1.377553E+0	1.490737E+0	1.429469E+0	1.421456E+0	1.393022E+0	1.429715E+0	1.425974E+0	1.477051E+0	1.421945E+0	1.483196E+0	1.363930E+0	1.397324E+0	1.440504E+0	1.485563E+0	1.455781E+0	1.436977E+0	1.422311E+0	1.433021E+0	1.431590E+0	1.387706E+0	1.397734E+0	1.409751E+0	1.414332E+0	1.403530E+0	1.416709E+0	1.429280E+0	1.411375E+0	1.432158E+0	1.451613E+0	1.421495E+0	1.421906E+0	1.422585E+0	1.416926E+0	1.395336E+0	1.398409E+0	1.440956E+0	1.456102E+0	1.407211E+0	1.458901E+0	1.426229E+0	1.437857E+0	1.436846E+0	1.396743E+0	1.427038E+0	1.423403E+0	1.463441E+0	1.419738E+0	1.497155E+0	1.430446E+0	1.457943E+0	1.434256E+0	1.404827E+0	1.432039E+0	1.446938E+0	1.480284E+0	1.459485E+0	1.549021E+0
5.452800E+2	1.455046E+0	1.392222E+0	1.332764E+0	1.556590E+0	1.425835E+0	1.420964E+0	1.408373E+0	1.411472E+0	1.392862E+0	1.386231E+0	1.406213E+0	1.422825E+0	1.406090E+0	1.411910E+0	1.383429E+0	1.442677E+0	1.448308E+0	1.423656E+0	1.422638E+0	1.405695E+0	1.415411E+0	1.368644E+0	1.414564E+0	1.434339E+0	1.434022E+0	1.374221E+0	1.392960E+0	1.401226E+0	1.356285E+0	1.361573E+0	1.430080E+0	1.467779E+0	1.387124E+0	1.413214E+0	1.410369E+0	1.327732E+0	1.449930E+0	1.337893E+0	1.369542E+0	1.415589E+0	1.419417E+0	1.356387E+0	1.391490E+0	1.441409E+0	1.352358E+0	1.340199E+0	1.417183E+0	1.400178E+0	1.380351E+0	1.377680E+0	1.428914E+0	1.450597E+0	1.385549E+0	1.384927E+0	1.400024E+0	1.336517E+0	1.371379E+0	1.355312E+0	1.378065E+0	1.430569E+0	1.386288E+0	1.389636E+0	1.372153E+0	1.391285E+0	1.347754E+0	1.389997E+0	1.432138E+0	1.418810E+0	1.393263E+0	1.354724E+0	1.436948E+0	1.328312E+0	1.366135E+0	1.394688E+0	1.310064E+0	1.388453E+0	1.393822E+0	1.386976E+0	1.374449E+0	1.407235E+0	1.312512E+0	1.446126E+0	1.436908E+0	1.394957E+0	1.388710E+0	1.408614E+0	1.410040E+0	1.411671E+0	1.375165E+0	1.369187E+0	1.362901E+0	1.327669E+0	1.417228E+0	1.344012E+0	1.410519E+0	1.369559E+0	1.421199E+0	1.356460E+0	1.413356E+0	1.385871E+0	1.399424E+0	1.317300E+0	1.393155E+0	1.390036E+0	1.385691E+0	1.352791E+0	1.391453E+0	1.365964E+0	1.419020E+0	1.382630E+0	1.379256E+0	1.393568E+0	1.369522E+0	1.395065E+0	1.379092E+0	1.369296E+0	1.398424E+0	1.332025E+0	1.377503E+0	1.413735E+0	1.398211E+0	1.394190E+0	1.356438E+0	1.397160E+0	1.365823E+0	1.350344E+0	1.445077E+0	1.391246E+0	1.383478E+0	1.406968E+0	1.397329E+0	1.337183E+0	1.394472E+0	1.373397E+0	1.328499E+0	1.350637E+0	1.320212E+0	1.352473E+0	1.338651E+0	1.448997E+0	1.384352E+0	1.379283E+0	1.409554E+0	1.397025E+0	1.348323E+0	1.343107E+0	1.359810E+0	1.349114E+0	1.389340E+0	1.360127E+0	1.374656E+0	1.353901E+0	1.351505E+0	1.289982E+0	1.388511E+0	1.340703E+0	1.350177E+0	1.329189E+0	1.470450E+0	1.374512E+0	1.377260E+0	1.408547E+0	1.379713E+0	1.350508E+0	1.370640E+0	1.349956E+0	1.377226E+0	1.313347E+0	1.419904E+0	1.406854E+0	1.674109E+0
5.455180E+2	1.313972E+0	1.216914E+0	1.230603E+0	1.321424E+0	1.330495E+0	1.287416E+0	1.291100E+0	1.289802E+0	1.296282E+0	1.303206E+0	1.265317E+0	1.329777E+0	1.305031E+0	1.230427E+0	1.269438E+0	1.341991E+0	1.274618E+0	1.218306E+0	1.286810E+0	1.250127E+0	1.252049E+0	1.262411E+0	1.217016E+0	1.295696E+0	1.252686E+0	1.259879E+0	1.281246E+0	1.256541E+0	1.268695E+0	1.283005E+0	1.281582E+0	1.278912E+0	1.318178E+0	1.296971E+0	1.267541E+0	1.293866E+0	1.298590E+0	1.241894E+0	1.242622E+0	1.276736E+0	1.207692E+0	1.258328E+0	1.267906E+0	1.286290E+0	1.272339E+0	1.225059E+0	1.268932E+0	1.338953E+0	1.290393E+0	1.259678E+0	1.294778E+0	1.260790E+0	1.231866E+0	1.245622E+0	1.272747E+0	1.268538E+0	1.365648E+0	1.269407E+0	1.274712E+0	1.315309E+0	1.281421E+0	1.292899E+0	1.262173E+0	1.283227E+0	1.222696E+0	1.240961E+0	1.254570E+0	1.299375E+0	1.272977E+0	1.239273E+0	1.236820E+0	1.251144E+0	1.281439E+0	1.214776E+0	1.281364E+0	1.229430E+0	1.274521E+0	1.273583E+0	1.307151E+0	1.247841E+0	1.203059E+0	1.242183E+0	1.285305E+0	1.274373E+0	1.273482E+0	1.213216E+0	1.281598E+0	1.257157E+0	1.279630E+0	1.215803E+0	1.235817E+0	1.226909E+0	1.269673E+0	1.285060E+0	1.311230E+0	1.244398E+0	1.273998E+0	1.321723E+0	1.298820E+0	1.264227E+0	1.282538E+0	1.243744E+0	1.249393E+0	1.248146E+0	1.199797E+0	1.283726E+0	1.258695E+0	1.263227E+0	1.265865E+0	1.241145E+0	1.265304E+0	1.266391E+0	1.212626E+0	1.235150E+0	1.248373E+0	1.289122E+0	1.262568E+0	1.269301E+0	1.196808E+0	1.270596E+0	1.293590E+0	1.276736E+0	1.227111E+0	1.246327E+0	1.238736E+0	1.244416E+0	1.253077E+0	1.300398E+0	1.267040E+0	1.256440E+0	1.187857E+0	1.216717E+0	1.263305E+0	1.234250E+0	1.275446E+0	1.262375E+0	1.243210E+0	1.270518E+0	1.266354E+0	1.257020E+0	1.199367E+0	1.256389E+0	1.268019E+0	1.274700E+0	1.305419E+0	1.242644E+0	1.269550E+0	1.249694E+0	1.244854E+0	1.231813E+0	1.235043E+0	1.285556E+0	1.266148E+0	1.210438E+0	1.247277E+0	1.271788E+0	1.238122E+0	1.234294E+0	1.280994E+0	1.272160E+0	1.250930E+0	1.231975E+0	1.173067E+0	1.304204E+0	1.240143E+0	1.228498E+0	1.228799E+0	1.312279E+0	1.197861E+0	1.242300E+0	1.096886E+0
5.457620E+2	1.229041E+0	1.168686E+0	1.184671E+0	1.196973E+0	1.265691E+0	1.192024E+0	1.183267E+0	1.216950E+0	1.241675E+0	1.187429E+0	1.180620E+0	1.227146E+0	1.191270E+0	1.174284E+0	1.208202E+0	1.206391E+0	1.212533E+0	1.170586E+0	1.197053E+0	1.170719E+0	1.193613E+0	1.184927E+0	1.204140E+0	1.190743E+0	1.192790E+0	1.114841E+0	1.218190E+0	1.174066E+0	1.175759E+0	1.166772E+0	1.143350E+0	1.225129E+0	1.202259E+0	1.204113E+0	1.205963E+0	1.216090E+0	1.196038E+0	1.112954E+0	1.148507E+0	1.209374E+0	1.209002E+0	1.211658E+0	1.173404E+0	1.284538E+0	1.150762E+0	1.176732E+0	1.197767E+0	1.196373E+0	1.167727E+0	1.158392E+0	1.211710E+0	1.210238E+0	1.172203E+0	1.217677E+0	1.197275E+0	1.164457E+0	1.234473E+0	1.165097E+0	1.205575E+0	1.214769E+0	1.221088E+0	1.179501E+0	1.182911E+0	1.202171E+0	1.158267E+0	1.167886E+0	1.132463E+0	1.188056E+0	1.220616E+0	1.225969E+0	1.173668E+0	1.167995E+0	1.267358E+0	1.167881E+0	1.159713E+0	1.200524E+0	1.164742E+0	1.174534E+0	1.194078E+0	1.199136E+0	1.156276E+0	1.201700E+0	1.171689E+0	1.186213E+0	1.170255E+0	1.174468E+0	1.163841E+0	1.171226E+0	1.157044E+0	1.215942E+0	1.207110E+0	1.214844E+0	1.228590E+0	1.193846E+0	1.209564E+0	1.222861E+0	1.238429E+0	1.168659E+0	1.152856E+0	1.157161E+0	1.216409E+0	1.192575E+0	1.169300E+0	1.176923E+0	1.190155E+0	1.183683E+0	1.220697E+0	1.202004E+0	1.154538E+0	1.194315E+0	1.153125E+0	1.194150E+0	1.183611E+0	1.155482E+0	1.164220E+0	1.142555E+0	1.215533E+0	1.128378E+0	1.167622E+0	1.215533E+0	1.190662E+0	1.193328E+0	1.214036E+0	1.210218E+0	1.172561E+0	1.191284E+0	1.210251E+0	1.223413E+0	1.206223E+0	1.174684E+0	1.166186E+0	1.176577E+0	1.201434E+0	1.184812E+0	1.200504E+0	1.179077E+0	1.189156E+0	1.196306E+0	1.180141E+0	1.217317E+0	1.174810E+0	1.152943E+0	1.192167E+0	1.226692E+0	1.188739E+0	1.155777E+0	1.230933E+0	1.123635E+0	1.207878E+0	1.204359E+0	1.174988E+0	1.206830E+0	1.170351E+0	1.138721E+0	1.248651E+0	1.227941E+0	1.147950E+0	1.174257E+0	1.191290E+0	1.194370E+0	1.164461E+0	1.216294E+0	1.204961E+0	1.246666E+0	1.160910E+0	1.174244E+0	1.163362E+0	1.197047E+0	1.207988E+0	1.318811E+0	1.341095E+0
5.460160E+2	1.178373E+0	1.214351E+0	1.150824E+0	1.255396E+0	1.194506E+0	1.186280E+0	1.170315E+0	1.185741E+0	1.205115E+0	1.141413E+0	1.177560E+0	1.237739E+0	1.219035E+0	1.183153E+0	1.203414E+0	1.273431E+0	1.209489E+0	1.165775E+0	1.189950E+0	1.222557E+0	1.208852E+0	1.240960E+0	1.213316E+0	1.185704E+0	1.256424E+0	1.258901E+0	1.255922E+0	1.221113E+0	1.235073E+0	1.182473E+0	1.206585E+0	1.200433E+0	1.215139E+0	1.213791E+0	1.215496E+0	1.227782E+0	1.230862E+0	1.190750E+0	1.183765E+0	1.207384E+0	1.200954E+0	1.140191E+0	1.121160E+0	1.186388E+0	1.185619E+0	1.211505E+0	1.189619E+0	1.244659E+0	1.206576E+0	1.210984E+0	1.211135E+0	1.262663E+0	1.185540E+0	1.247115E+0	1.218477E+0	1.211711E+0	1.243876E+0	1.167718E+0	1.223788E+0	1.222305E+0	1.192287E+0	1.220281E+0	1.176732E+0	1.237461E+0	1.143536E+0	1.200744E+0	1.181038E+0	1.186864E+0	1.183233E+0	1.203304E+0	1.173575E+0	1.215871E+0	1.235581E+0	1.142116E+0	1.183311E+0	1.230455E+0	1.205140E+0	1.174145E+0	1.234048E+0	1.226008E+0	1.195008E+0	1.195519E+0	1.215863E+0	1.216196E+0	1.215345E+0	1.159822E+0	1.207727E+0	1.192851E+0	1.202649E+0	1.223230E+0	1.214129E+0	1.180237E+0	1.194578E+0	1.184238E+0	1.211830E+0	1.230685E+0	1.208697E+0	1.234314E+0	1.193183E+0	1.196418E+0	1.205878E+0	1.133467E+0	1.154344E+0	1.195484E+0	1.193396E+0	1.159172E+0	1.250257E+0	1.207987E+0	1.219032E+0	1.206530E+0	1.183818E+0	1.181567E+0	1.197661E+0	1.196790E+0	1.183416E+0	1.249290E+0	1.179403E+0	1.197339E+0	1.220520E+0	1.224876E+0	1.180770E+0	1.197153E+0	1.152914E+0	1.192153E+0	1.225843E+0	1.171257E+0	1.172508E+0	1.188268E+0	1.215836E+0	1.156222E+0	1.164640E+0	1.193337E+0	1.217737E+0	1.150821E+0	1.176436E+0	1.167244E+0	1.150237E+0	1.171040E+0	1.256496E+0	1.211320E+0	1.194520E+0	1.175719E+0	1.225762E+0	1.167307E+0	1.127319E+0	1.235281E+0	1.150756E+0	1.185273E+0	1.162885E+0	1.182644E+0	1.205487E+0	1.192970E+0	1.205622E+0	1.171500E+0	1.216115E+0	1.208695E+0	1.174292E+0	1.173886E+0	1.173591E+0	1.229284E+0	1.190169E+0	1.194602E+0	1.222831E+0	1.198266E+0	1.205386E+0	1.207171E+0	1.179775E+0	1.223183E+0	1.153820E+0	1.376907E+0	1.203500E+0
5.467710E+2	1.254954E+0	1.151736E+0	1.162886E+0	1.242186E+0	1.195046E+0	1.214109E+0	1.203665E+0	1.195487E+0	1.203915E+0	1.142486E+0	1.157974E+0	1.226440E+0	1.189842E+0	1.225808E+0	1.213167E+0	1.212106E+0	1.175594E+0	1.201128E+0	1.226467E+0	1.265750E+0	1.209396E+0	1.175396E+0	1.237494E+0	1.221048E+0	1.174808E+0	1.177785E+0	1.225948E+0	1.156533E+0	1.188831E+0	1.190961E+0	1.219930E+0	1.158705E+0	1.227315E+0	1.206207E+0	1.159673E+0	1.247952E+0	1.201045E+0	1.139210E+0	1.190065E+0	1.190007E+0	1.248841E+0	1.123300E+0	1.174546E+0	1.219753E+0	1.160288E+0	1.167689E+0	1.167187E+0	1.219396E+0	1.226436E+0	1.174877E+0	1.163249E+0	1.218148E+0	1.156414E+0	1.141582E+0	1.207288E+0	1.170055E+0	1.133239E+0	1.197772E+0	1.179549E+0	1.167001E+0	1.231614E+0	1.203931E+0	1.196279E+0	1.219431E+0	1.198772E+0	1.155627E+0	1.199701E+0	1.216290E+0	1.180812E+0	1.264395E+0	1.217621E+0	1.156865E+0	1.259695E+0	1.135117E+0	1.144987E+0	1.164940E+0	1.166711E+0	1.165491E+0	1.176081E+0	1.209452E+0	1.167287E+0	1.176043E+0	1.195983E+0	1.184779E+0	1.220333E+0	1.207603E+0	1.204178E+0	1.186952E+0	1.149097E+0	1.127486E+0	1.258096E+0	1.197455E+0	1.215159E+0	1.172309E+0	1.203136E+0	1.182395E+0	1.195798E+0	1.167388E+0	1.119449E+0	1.139738E+0	1.180946E+0	1.111264E+0	1.125948E+0	1.204992E+0	1.221384E+0	1.199435E+0	1.243538E+0	1.239836E+0	1.172852E+0	1.144398E+0	1.113701E+0	1.218320E+0	1.205541E+0	1.177708E+0	1.217400E+0	1.191298E+0	1.177376E+0	1.184124E+0	1.214698E+0	1.225698E+0	1.189700E+0	1.127923E+0	1.136488E+0	1.134833E+0	1.173723E+0	1.140092E+0	1.171833E+0	1.192610E+0	1.198044E+0	1.151567E+0	1.132883E+0	1.147131E+0	1.212035E+0	1.117487E+0	1.181783E+0	1.188449E+0	1.112971E+0	1.239258E+0	1.150991E+0	1.234996E+0	1.167812E+0	1.162848E+0	1.202871E+0	1.198536E+0	1.168286E+0	1.138339E+0	1.177763E+0	1.142613E+0	1.195462E+0	1.178226E+0	1.194065E+0	1.178284E+0	1.196656E+0	1.160152E+0	1.178600E+0	1.191839E+0	1.116785E+0	1.160156E+0	1.195277E+0	1.193509E+0	1.159535E+0	1.191446E+0	1.186132E+0	1.177773E+0	1.182498E+0	1.182712E+0	1.144896E+0	1.205914E+0	1.247941E+0	1.225404E+0	1.187618E+0
5.475230E+2	1.267214E+0	1.364176E+0	1.304577E+0	1.430113E+0	1.288200E+0	1.359316E+0	1.315447E+0	1.294267E+0	1.299598E+0	1.299381E+0	1.291136E+0	1.309869E+0	1.332835E+0	1.324271E+0	1.276581E+0	1.384644E+0	1.306224E+0	1.334972E+0	1.283628E+0	1.295382E+0	1.315564E+0	1.283661E+0	1.307848E+0	1.282809E+0	1.371822E+0	1.333633E+0	1.333056E+0	1.321210E+0	1.317191E+0	1.279839E+0	1.240189E+0	1.371463E+0	1.308705E+0	1.302610E+0	1.323945E+0	1.299425E+0	1.337539E+0	1.258200E+0	1.304531E+0	1.315757E+0	1.313564E+0	1.314675E+0	1.327166E+0	1.274855E+0	1.268091E+0	1.315764E+0	1.295684E+0	1.328500E+0	1.352298E+0	1.305706E+0	1.266777E+0	1.307284E+0	1.333941E+0	1.310145E+0	1.325853E+0	1.301101E+0	1.350371E+0	1.267644E+0	1.275759E+0	1.293889E+0	1.300466E+0	1.315372E+0	1.281190E+0	1.383439E+0	1.273928E+0	1.278048E+0	1.312465E+0	1.347672E+0	1.366583E+0	1.305607E+0	1.300368E+0	1.256393E+0	1.339093E+0	1.292653E+0	1.342687E+0	1.325125E+0	1.316178E+0	1.312682E+0	1.316122E+0	1.364521E+0	1.285476E+0	1.373177E+0	1.279731E+0	1.311473E+0	1.354783E+0	1.262319E+0	1.345849E+0	1.301645E+0	1.258181E+0	1.217001E+0	1.299855E+0	1.341147E+0	1.378028E+0	1.301043E+0	1.311183E+0	1.320479E+0	1.273416E+0	1.328697E+0	1.323949E+0	1.305943E+0	1.311825E+0	1.263576E+0	1.289078E+0	1.302839E+0	1.262425E+0	1.324312E+0	1.340860E+0	1.345962E+0	1.294793E+0	1.342790E+0	1.290041E+0	1.333268E+0	1.278712E+0	1.325492E+0	1.258410E+0	1.218521E+0	1.303841E+0	1.279208E+0	1.362242E+0	1.316239E+0	1.337300E+0	1.335019E+0	1.234323E+0	1.328312E+0	1.344516E+0	1.323316E+0	1.314074E+0	1.267653E+0	1.300866E+0	1.330395E+0	1.253845E+0	1.312785E+0	1.301481E+0	1.275254E+0	1.305844E+0	1.266777E+0	1.318012E+0	1.277464E+0	1.319628E+0	1.351219E+0	1.322499E+0	1.268196E+0	1.345700E+0	1.381581E+0	1.285843E+0	1.278313E+0	1.259552E+0	1.289661E+0	1.305739E+0	1.256948E+0	1.328854E+0	1.307510E+0	1.304842E+0	1.305371E+0	1.292911E+0	1.341949E+0	1.294878E+0	1.282329E+0	1.298225E+0	1.352251E+0	1.313945E+0	1.278551E+0	1.262076E+0	1.340980E+0	1.330815E+0	1.285265E+0	1.294725E+0	1.304853E+0	1.344875E+0	1.409714E+0	1.611176E+0
5.482600E+2	1.400398E+0	1.416367E+0	1.396002E+0	1.466699E+0	1.431767E+0	1.387492E+0	1.396766E+0	1.338119E+0	1.439424E+0	1.401559E+0	1.441380E+0	1.363112E+0	1.405886E+0	1.454217E+0	1.397324E+0	1.471713E+0	1.335657E+0	1.377386E+0	1.471594E+0	1.376719E+0	1.419975E+0	1.381803E+0	1.361908E+0	1.416858E+0	1.382282E+0	1.397710E+0	1.460998E+0	1.381870E+0	1.424962E+0	1.421142E+0	1.391504E+0	1.405948E+0	1.400616E+0	1.398255E+0	1.382164E+0	1.416404E+0	1.386674E+0	1.375075E+0	1.384854E+0	1.428991E+0	1.447569E+0	1.369277E+0	1.395185E+0	1.436644E+0	1.391242E+0	1.418668E+0	1.412825E+0	1.463493E+0	1.393115E+0	1.443194E+0	1.405180E+0	1.442157E+0	1.423852E+0	1.450056E+0	1.406861E+0	1.378981E+0	1.456921E+0	1.332895E+0	1.421305E+0	1.390433E+0	1.440634E+0	1.383766E+0	1.367432E+0	1.433151E+0	1.304938E+0	1.421747E+0	1.338070E+0	1.386313E+0	1.431400E+0	1.402701E+0	1.330224E+0	1.387555E+0	1.367329E+0	1.364132E+0	1.481780E+0	1.473143E+0	1.388628E+0	1.339271E+0	1.428773E+0	1.409953E+0	1.375047E+0	1.402976E+0	1.384636E+0	1.436575E+0	1.391308E+0	1.375629E+0	1.424316E+0	1.378960E+0	1.434868E+0	1.382553E+0	1.367828E+0	1.403194E+0	1.496805E+0	1.391573E+0	1.407269E+0	1.471012E+0	1.381756E+0	1.343564E+0	1.341805E+0	1.329526E+0	1.354952E+0	1.395512E+0	1.423488E+0	1.346177E+0	1.422075E+0	1.367482E+0	1.392840E+0	1.444521E+0	1.430487E+0	1.388096E+0	1.401895E+0	1.406447E+0	1.400972E+0	1.376902E+0	1.332533E+0	1.347427E+0	1.412740E+0	1.383181E+0	1.387523E+0	1.409294E+0	1.424350E+0	1.423706E+0	1.376776E+0	1.392394E+0	1.392635E+0	1.374661E+0	1.338192E+0	1.429126E+0	1.373974E+0	1.376911E+0	1.345577E+0	1.382678E+0	1.382704E+0	1.361964E+0	1.363087E+0	1.396059E+0	1.402462E+0	1.363179E+0	1.398285E+0	1.453839E+0	1.427924E+0	1.401577E+0	1.365777E+0	1.390723E+0	1.364577E+0	1.371416E+0	1.352910E+0	1.393964E+0	1.400735E+0	1.355340E+0	1.413210E+0	1.420942E+0	1.406645E+0	1.266227E+0	1.375861E+0	1.383188E+0	1.373755E+0	1.357479E+0	1.369932E+0	1.391469E+0	1.371574E+0	1.422781E+0	1.346178E+0	1.432615E+0	1.347629E+0	1.369352E+0	1.379905E+0	1.474432E+0	1.420083E+0	1.358081E+0	1.317792E+0
5.490100E+2	1.405472E+0	1.368040E+0	1.383399E+0	1.467398E+0	1.385954E+0	1.403378E+0	1.382326E+0	1.385177E+0	1.419613E+0	1.397985E+0	1.407556E+0	1.424267E+0	1.443993E+0	1.434732E+0	1.427692E+0	1.442508E+0	1.405404E+0	1.383001E+0	1.370200E+0	1.472527E+0	1.416118E+0	1.392402E+0	1.390056E+0	1.386173E+0	1.405095E+0	1.370237E+0	1.426849E+0	1.402614E+0	1.424781E+0	1.381715E+0	1.381418E+0	1.394270E+0	1.417109E+0	1.396050E+0	1.399418E+0	1.359459E+0	1.394764E+0	1.330814E+0	1.385239E+0	1.371600E+0	1.414174E+0	1.395215E+0	1.387485E+0	1.394923E+0	1.394346E+0	1.424541E+0	1.390218E+0	1.429753E+0	1.382197E+0	1.354480E+0	1.359925E+0	1.448828E+0	1.366175E+0	1.381568E+0	1.410420E+0	1.410755E+0	1.391659E+0	1.377548E+0	1.359447E+0	1.412991E+0	1.422529E+0	1.371407E+0	1.418635E+0	1.446269E+0	1.353645E+0	1.397073E+0	1.380419E+0	1.470277E+0	1.388500E+0	1.386629E+0	1.391274E+0	1.351545E+0	1.489310E+0	1.405179E+0	1.355682E+0	1.437742E+0	1.383454E+0	1.396399E+0	1.321161E+0	1.407189E+0	1.345966E+0	1.446237E+0	1.404010E+0	1.392359E+0	1.450426E+0	1.389513E+0	1.372561E+0	1.392802E+0	1.416253E+0	1.391487E+0	1.407907E+0	1.407858E+0	1.388597E+0	1.404624E+0	1.425291E+0	1.389222E+0	1.382828E+0	1.416995E+0	1.360105E+0	1.402579E+0	1.422859E+0	1.350326E+0	1.371594E+0	1.392051E+0	1.398078E+0	1.394704E+0	1.403023E+0	1.381341E+0	1.423554E+0	1.368529E+0	1.429110E+0	1.413531E+0	1.354142E+0	1.382955E+0	1.389663E+0	1.356493E+0	1.452304E+0	1.334774E+0	1.389436E+0	1.386878E+0	1.396169E+0	1.400159E+0	1.352729E+0	1.436688E+0	1.380261E+0	1.364062E+0	1.390763E+0	1.394557E+0	1.357783E+0	1.410880E+0	1.322866E+0	1.340478E+0	1.356440E+0	1.300952E+0	1.360166E+0	1.327981E+0	1.362267E+0	1.379966E+0	1.434255E+0	1.477107E+0	1.342632E+0	1.426777E+0	1.274361E+0	1.503695E+0	1.385069E+0	1.359237E+0	1.359847E+0	1.378445E+0	1.340754E+0	1.376310E+0	1.388906E+0	1.388629E+0	1.345526E+0	1.355798E+0	1.428911E+0	1.369646E+0	1.320911E+0	1.373452E+0	1.403753E+0	1.413532E+0	1.344017E+0	1.372788E+0	1.363451E+0	1.387916E+0	1.399247E+0	1.369906E+0	1.370209E+0	1.361798E+0	1.450456E+0	1.451021E+0	1.582010E+0
5.497680E+2	1.299986E+0	1.300365E+0	1.318310E+0	1.439797E+0	1.295301E+0	1.323833E+0	1.241284E+0	1.291869E+0	1.353483E+0	1.312239E+0	1.260995E+0	1.364312E+0	1.288561E+0	1.282140E+0	1.311788E+0	1.359088E+0	1.283338E+0	1.233738E+0	1.288714E+0	1.306790E+0	1.319177E+0	1.237465E+0	1.271318E+0	1.320824E+0	1.357271E+0	1.324843E+0	1.276538E+0	1.299395E+0	1.285463E+0	1.320610E+0	1.275644E+0	1.310919E+0	1.339208E+0	1.320955E+0	1.300839E+0	1.306709E+0	1.345350E+0	1.254711E+0	1.307020E+0	1.271188E+0	1.274450E+0	1.285013E+0	1.239627E+0	1.324851E+0	1.333434E+0	1.283235E+0	1.276826E+0	1.311651E+0	1.266271E+0	1.242736E+0	1.347675E+0	1.362922E+0	1.281172E+0	1.258360E+0	1.305048E+0	1.321170E+0	1.314157E+0	1.296272E+0	1.297480E+0	1.282662E+0	1.261875E+0	1.270880E+0	1.276312E+0	1.302091E+0	1.235032E+0	1.328611E+0	1.292108E+0	1.313484E+0	1.341355E+0	1.360273E+0	1.297849E+0	1.302087E+0	1.260487E+0	1.239045E+0	1.278680E+0	1.340941E+0	1.277748E+0	1.336847E+0	1.281607E+0	1.326187E+0	1.227969E+0	1.308428E+0	1.295692E+0	1.347099E+0	1.299824E+0	1.300666E+0	1.311718E+0	1.266166E+0	1.240631E+0	1.286004E+0	1.288414E+0	1.222380E+0	1.374962E+0	1.246228E+0	1.326182E+0	1.284491E+0	1.278537E+0	1.252848E+0	1.285869E+0	1.276471E+0	1.295880E+0	1.234810E+0	1.248883E+0	1.245740E+0	1.283835E+0	1.232170E+0	1.279754E+0	1.317566E+0	1.322299E+0	1.287700E+0	1.275604E+0	1.325194E+0	1.307299E+0	1.312475E+0	1.244857E+0	1.307626E+0	1.249878E+0	1.245360E+0	1.277501E+0	1.291087E+0	1.280449E+0	1.278008E+0	1.252124E+0	1.318876E+0	1.294718E+0	1.257863E+0	1.286432E+0	1.271676E+0	1.301731E+0	1.289036E+0	1.278375E+0	1.262257E+0	1.282466E+0	1.304728E+0	1.238256E+0	1.268701E+0	1.289525E+0	1.284732E+0	1.255781E+0	1.367999E+0	1.332168E+0	1.302761E+0	1.279728E+0	1.311111E+0	1.264620E+0	1.248525E+0	1.279842E+0	1.254837E+0	1.285379E+0	1.302851E+0	1.220436E+0	1.284450E+0	1.232244E+0	1.282769E+0	1.292950E+0	1.290126E+0	1.275785E+0	1.248412E+0	1.311729E+0	1.339288E+0	1.277952E+0	1.225891E+0	1.278937E+0	1.283111E+0	1.237403E+0	1.275544E+0	1.273140E+0	1.337660E+0	1.394475E+0	1.318567E+0	1.563606E+0
5.505060E+2	1.376987E+0	1.344311E+0	1.260263E+0	1.370541E+0	1.298855E+0	1.297655E+0	1.317658E+0	1.352398E+0	1.324273E+0	1.319772E+0	1.308373E+0	1.336995E+0	1.316645E+0	1.325850E+0	1.306831E+0	1.340554E+0	1.305586E+0	1.295942E+0	1.316609E+0	1.325191E+0	1.309584E+0	1.303592E+0	1.262489E+0	1.311257E+0	1.321004E+0	1.324306E+0	1.266990E+0	1.318016E+0	1.304775E+0	1.306044E+0	1.300852E+0	1.313795E+0	1.309329E+0	1.334806E+0	1.281379E+0	1.297886E+0	1.334086E+0	1.256720E+0	1.360918E+0	1.337477E+0	1.345004E+0	1.278208E+0	1.277472E+0	1.385516E+0	1.332880E+0	1.301104E+0	1.278695E+0	1.385768E+0	1.318069E+0	1.307285E+0	1.327335E+0	1.385720E+0	1.297384E+0	1.319876E+0	1.291966E+0	1.297458E+0	1.357570E+0	1.278363E+0	1.298711E+0	1.274738E+0	1.344813E+0	1.329744E+0	1.277590E+0	1.321979E+0	1.319198E+0	1.306296E+0	1.348762E+0	1.269325E+0	1.267786E+0	1.274448E+0	1.334713E+0	1.315469E+0	1.303943E+0	1.268319E+0	1.276598E+0	1.321677E+0	1.284484E+0	1.295220E+0	1.292457E+0	1.351676E+0	1.255347E+0	1.286848E+0	1.351244E+0	1.344938E+0	1.297550E+0	1.272092E+0	1.286582E+0	1.299613E+0	1.304975E+0	1.298620E+0	1.333872E+0	1.283586E+0	1.343411E+0	1.283877E+0	1.277952E+0	1.319976E+0	1.297447E+0	1.302298E+0	1.302299E+0	1.265486E+0	1.336147E+0	1.368830E+0	1.257411E+0	1.267282E+0	1.317206E+0	1.321282E+0	1.272016E+0	1.304749E+0	1.278419E+0	1.311820E+0	1.313659E+0	1.366994E+0	1.274065E+0	1.322031E+0	1.270955E+0	1.306358E+0	1.310959E+0	1.323638E+0	1.293909E+0	1.282486E+0	1.326438E+0	1.269262E+0	1.287539E+0	1.381192E+0	1.292271E+0	1.291511E+0	1.283400E+0	1.330892E+0	1.319026E+0	1.308742E+0	1.267470E+0	1.302858E+0	1.332480E+0	1.303835E+0	1.251958E+0	1.266344E+0	1.297393E+0	1.273303E+0	1.252157E+0	1.359720E+0	1.330338E+0	1.294744E+0	1.277876E+0	1.347812E+0	1.232915E+0	1.280009E+0	1.279135E+0	1.304067E+0	1.279366E+0	1.281673E+0	1.320988E+0	1.327794E+0	1.260325E+0	1.332903E+0	1.303289E+0	1.331783E+0	1.289727E+0	1.330492E+0	1.287879E+0	1.359243E+0	1.292324E+0	1.265657E+0	1.274597E+0	1.296030E+0	1.255902E+0	1.333077E+0	1.340760E+0	1.319037E+0	1.274665E+0	1.376835E+0	1.236948E+0
5.512620E+2	1.318712E+0	1.267343E+0	1.300843E+0	1.379287E+0	1.339435E+0	1.318665E+0	1.279227E+0	1.323538E+0	1.352073E+0	1.308950E+0	1.295029E+0	1.284251E+0	1.287430E+0	1.310228E+0	1.282571E+0	1.320845E+0	1.290084E+0	1.335536E+0	1.282166E+0	1.265869E+0	1.335538E+0	1.297001E+0	1.316930E+0	1.261464E+0	1.288040E+0	1.314805E+0	1.323953E+0	1.265979E+0	1.295810E+0	1.299130E+0	1.313206E+0	1.303379E+0	1.299351E+0	1.326695E+0	1.296359E+0	1.255216E+0	1.299441E+0	1.259363E+0	1.333915E+0	1.335344E+0	1.326965E+0	1.280992E+0	1.279420E+0	1.318324E+0	1.301808E+0	1.312785E+0	1.296547E+0	1.323124E+0	1.304857E+0	1.341151E+0	1.312775E+0	1.329653E+0	1.309390E+0	1.293706E+0	1.339018E+0	1.262739E+0	1.370437E+0	1.277252E+0	1.331763E+0	1.313653E+0	1.338740E+0	1.291170E+0	1.298203E+0	1.296886E+0	1.292706E+0	1.298823E+0	1.281358E+0	1.356214E+0	1.304771E+0	1.310401E+0	1.280138E+0	1.273266E+0	1.322670E+0	1.247685E+0	1.300982E+0	1.267701E+0	1.273018E+0	1.334014E+0	1.310764E+0	1.307456E+0	1.246743E+0	1.316902E+0	1.287570E+0	1.296178E+0	1.316264E+0	1.246184E+0	1.290875E+0	1.309519E+0	1.315998E+0	1.351357E+0	1.291310E+0	1.309837E+0	1.353470E+0	1.311836E+0	1.308247E+0	1.361664E+0	1.284821E+0	1.298292E+0	1.279864E+0	1.287205E+0	1.305532E+0	1.314850E+0	1.275423E+0	1.260510E+0	1.282806E+0	1.315441E+0	1.290063E+0	1.276926E+0	1.299628E+0	1.295531E+0	1.295483E+0	1.336026E+0	1.302399E+0	1.326578E+0	1.308378E+0	1.319491E+0	1.298444E+0	1.253174E+0	1.343981E+0	1.306552E+0	1.310456E+0	1.282806E+0	1.259806E+0	1.314459E+0	1.307256E+0	1.277138E+0	1.277482E+0	1.325563E+0	1.330764E+0	1.278924E+0	1.249358E+0	1.282150E+0	1.265661E+0	1.300170E+0	1.317793E+0	1.265571E+0	1.296050E+0	1.304449E+0	1.303233E+0	1.340089E+0	1.310323E+0	1.287680E+0	1.261821E+0	1.320138E+0	1.308487E+0	1.240754E+0	1.239342E+0	1.284086E+0	1.297267E+0	1.314571E+0	1.315858E+0	1.315886E+0	1.368041E+0	1.243360E+0	1.301139E+0	1.309046E+0	1.294541E+0	1.257497E+0	1.257463E+0	1.312321E+0	1.250645E+0	1.309627E+0	1.232867E+0	1.266086E+0	1.294065E+0	1.314628E+0	1.356289E+0	1.313310E+0	1.320111E+0	1.296527E+0	1.334142E+0
5.520150E+2	1.259099E+0	1.233138E+0	1.242881E+0	1.383668E+0	1.287280E+0	1.323501E+0	1.248773E+0	1.277146E+0	1.257133E+0	1.257306E+0	1.278487E+0	1.301178E+0	1.286228E+0	1.251292E+0	1.272888E+0	1.314135E+0	1.306484E+0	1.246871E+0	1.289887E+0	1.260643E+0	1.326619E+0	1.267271E+0	1.268335E+0	1.258474E+0	1.259079E+0	1.241684E+0	1.271303E+0	1.259770E+0	1.275822E+0	1.321775E+0	1.272772E+0	1.278511E+0	1.285861E+0	1.324322E+0	1.299567E+0	1.247696E+0	1.276573E+0	1.230649E+0	1.287963E+0	1.288511E+0	1.284845E+0	1.244758E+0	1.232836E+0	1.306866E+0	1.264341E+0	1.251428E+0	1.297973E+0	1.260912E+0	1.293225E+0	1.252837E+0	1.269736E+0	1.238460E+0	1.297866E+0	1.301821E+0	1.264295E+0	1.242468E+0	1.319545E+0	1.258181E+0	1.265189E+0	1.267325E+0	1.286267E+0	1.278664E+0	1.279199E+0	1.235590E+0	1.237133E+0	1.225507E+0	1.293357E+0	1.322908E+0	1.321355E+0	1.237253E+0	1.268723E+0	1.276998E+0	1.227152E+0	1.219619E+0	1.291812E+0	1.282552E+0	1.255692E+0	1.258006E+0	1.254445E+0	1.292017E+0	1.250786E+0	1.234884E+0	1.287593E+0	1.238577E+0	1.290358E+0	1.254999E+0	1.307668E+0	1.310960E+0	1.286471E+0	1.278067E+0	1.280729E+0	1.230758E+0	1.326316E+0	1.251503E+0	1.327465E+0	1.283313E+0	1.282435E+0	1.209120E+0	1.269581E+0	1.229022E+0	1.326053E+0	1.259905E+0	1.241754E+0	1.274161E+0	1.262208E+0	1.240216E+0	1.313797E+0	1.320054E+0	1.260745E+0	1.266920E+0	1.249198E+0	1.286478E+0	1.301241E+0	1.247203E+0	1.248656E+0	1.325181E+0	1.259798E+0	1.304141E+0	1.280988E+0	1.267398E+0	1.299888E+0	1.267667E+0	1.306405E+0	1.264730E+0	1.293075E+0	1.246427E+0	1.257813E+0	1.287985E+0	1.245475E+0	1.286626E+0	1.246975E+0	1.258806E+0	1.290718E+0	1.271427E+0	1.274175E+0	1.253973E+0	1.235757E+0	1.232416E+0	1.223301E+0	1.245991E+0	1.277392E+0	1.255092E+0	1.272417E+0	1.308179E+0	1.249042E+0	1.287073E+0	1.256710E+0	1.277590E+0	1.318834E+0	1.230684E+0	1.302654E+0	1.262650E+0	1.275196E+0	1.237792E+0	1.265720E+0	1.290967E+0	1.275730E+0	1.235799E+0	1.255054E+0	1.314584E+0	1.248919E+0	1.244435E+0	1.229310E+0	1.318318E+0	1.259164E+0	1.234979E+0	1.262782E+0	1.264630E+0	1.306022E+0	1.312559E+0	1.322736E+0
5.527650E+2	1.288771E+0	1.307259E+0	1.210690E+0	1.291283E+0	1.314194E+0	1.280861E+0	1.298388E+0	1.245134E+0	1.251440E+0	1.235469E+0	1.280445E+0	1.221479E+0	1.246739E+0	1.242835E+0	1.261758E+0	1.285706E+0	1.266154E+0	1.264692E+0	1.189809E+0	1.246445E+0	1.300124E+0	1.239395E+0	1.259953E+0	1.263687E+0	1.248488E+0	1.260696E+0	1.303211E+0	1.269333E+0	1.280811E+0	1.272418E+0	1.254335E+0	1.223859E+0	1.292244E+0	1.280243E+0	1.208856E+0	1.281050E+0	1.296833E+0	1.233082E+0	1.196078E+0	1.311113E+0	1.321632E+0	1.271964E+0	1.255181E+0	1.270438E+0	1.234137E+0	1.256155E+0	1.280873E+0	1.208999E+0	1.299943E+0	1.273248E+0	1.327420E+0	1.275015E+0	1.284200E+0	1.284751E+0	1.300478E+0	1.285643E+0	1.286687E+0	1.242210E+0	1.241496E+0	1.278864E+0	1.327214E+0	1.242514E+0	1.258026E+0	1.233541E+0	1.300793E+0	1.273095E+0	1.260364E+0	1.301375E+0	1.276611E+0	1.269149E+0	1.260795E+0	1.292968E+0	1.301612E+0	1.223975E+0	1.236245E+0	1.269400E+0	1.250882E+0	1.256402E+0	1.281253E+0	1.245451E+0	1.232115E+0	1.206747E+0	1.259923E+0	1.275213E+0	1.224372E+0	1.254047E+0	1.237672E+0	1.249508E+0	1.254117E+0	1.237058E+0	1.265654E+0	1.258153E+0	1.299276E+0	1.248883E+0	1.306596E+0	1.242943E+0	1.262861E+0	1.224462E+0	1.248109E+0	1.240321E+0	1.326522E+0	1.272221E+0	1.258311E+0	1.290412E+0	1.277561E+0	1.226605E+0	1.273894E+0	1.270749E+0	1.221042E+0	1.294264E+0	1.246784E+0	1.232626E+0	1.272765E+0	1.265823E+0	1.269375E+0	1.251528E+0	1.260899E+0	1.281592E+0	1.215499E+0	1.259139E+0	1.289899E+0	1.233869E+0	1.230831E+0	1.280199E+0	1.244782E+0	1.229021E+0	1.316083E+0	1.281924E+0	1.313292E+0	1.251629E+0	1.232775E+0	1.231565E+0	1.240432E+0	1.209765E+0	1.272680E+0	1.279836E+0	1.259350E+0	1.241256E+0	1.234681E+0	1.211185E+0	1.283512E+0	1.268094E+0	1.230336E+0	1.305156E+0	1.287686E+0	1.235635E+0	1.226360E+0	1.261525E+0	1.269546E+0	1.306677E+0	1.263023E+0	1.245824E+0	1.246153E+0	1.228326E+0	1.242304E+0	1.277498E+0	1.333582E+0	1.251679E+0	1.250393E+0	1.307049E+0	1.228622E+0	1.283913E+0	1.186462E+0	1.287824E+0	1.285372E+0	1.239776E+0	1.209997E+0	1.262073E+0	1.322258E+0	1.295228E+0	1.250360E+0
5.535100E+2	1.226669E+0	1.190949E+0	1.205498E+0	1.267937E+0	1.232402E+0	1.248723E+0	1.191170E+0	1.233277E+0	1.193762E+0	1.221033E+0	1.226360E+0	1.193882E+0	1.247097E+0	1.214823E+0	1.181197E+0	1.219117E+0	1.281434E+0	1.220370E+0	1.196040E+0	1.227883E+0	1.211254E+0	1.194151E+0	1.217788E+0	1.217360E+0	1.204129E+0	1.207469E+0	1.221957E+0	1.170350E+0	1.241362E+0	1.181126E+0	1.193044E+0	1.184051E+0	1.177139E+0	1.244924E+0	1.174623E+0	1.197323E+0	1.225062E+0	1.176935E+0	1.170745E+0	1.216087E+0	1.249303E+0	1.238349E+0	1.178278E+0	1.229927E+0	1.218076E+0	1.196192E+0	1.241097E+0	1.213379E+0	1.250618E+0	1.199671E+0	1.194763E+0	1.221857E+0	1.214394E+0	1.215871E+0	1.192190E+0	1.200849E+0	1.170178E+0	1.206270E+0	1.205929E+0	1.240736E+0	1.263125E+0	1.193419E+0	1.234461E+0	1.181860E+0	1.130113E+0	1.200441E+0	1.230239E+0	1.162229E+0	1.162311E+0	1.214299E+0	1.158046E+0	1.163746E+0	1.230189E+0	1.235719E+0	1.185171E+0	1.186055E+0	1.227786E+0	1.216214E+0	1.206364E+0	1.175126E+0	1.187981E+0	1.226143E+0	1.202656E+0	1.230919E+0	1.215865E+0	1.242191E+0	1.178462E+0	1.195095E+0	1.201141E+0	1.202940E+0	1.203769E+0	1.163620E+0	1.247597E+0	1.199919E+0	1.189507E+0	1.223730E+0	1.182497E+0	1.217933E+0	1.153171E+0	1.199220E+0	1.209632E+0	1.187669E+0	1.214270E+0	1.187813E+0	1.157811E+0	1.215087E+0	1.218448E+0	1.181147E+0	1.224813E+0	1.193543E+0	1.207900E+0	1.208558E+0	1.181152E+0	1.187115E+0	1.168036E+0	1.201188E+0	1.195315E+0	1.202947E+0	1.165202E+0	1.223431E+0	1.234491E+0	1.174217E+0	1.198950E+0	1.157170E+0	1.209861E+0	1.178484E+0	1.217376E+0	1.179331E+0	1.253366E+0	1.201992E+0	1.196389E+0	1.211387E+0	1.283200E+0	1.211252E+0	1.207701E+0	1.198300E+0	1.171159E+0	1.184420E+0	1.207541E+0	1.214332E+0	1.241010E+0	1.197594E+0	1.196114E+0	1.218257E+0	1.202270E+0	1.206232E+0	1.159118E+0	1.226211E+0	1.204594E+0	1.232538E+0	1.194376E+0	1.194778E+0	1.183904E+0	1.147761E+0	1.235249E+0	1.165550E+0	1.164031E+0	1.200018E+0	1.222198E+0	1.250821E+0	1.269862E+0	1.185211E+0	1.197921E+0	1.239883E+0	1.198270E+0	1.172937E+0	1.181177E+0	1.210663E+0	1.219547E+0	1.164486E+0	1.292896E+0
5.542530E+2	1.102204E+0	1.068186E+0	1.081217E+0	1.123707E+0	1.118182E+0	1.103907E+0	1.131337E+0	1.140567E+0	1.125381E+0	1.126952E+0	1.121638E+0	1.108347E+0	1.142841E+0	1.116851E+0	1.119274E+0	1.085760E+0	1.118844E+0	1.094933E+0	1.123655E+0	1.092198E+0	1.132050E+0	1.112578E+0	1.130531E+0	1.119854E+0	1.090892E+0	1.081030E+0	1.131185E+0	1.070973E+0	1.096063E+0	1.129152E+0	1.096654E+0	1.144421E+0	1.178883E+0	1.146425E+0	1.066306E+0	1.086456E+0	1.110053E+0	1.089189E+0	1.108145E+0	1.127840E+0	1.117994E+0	1.111138E+0	1.099300E+0	1.182503E+0	1.115747E+0	1.141744E+0	1.085148E+0	1.134220E+0	1.113049E+0	1.096978E+0	1.138839E+0	1.145926E+0	1.066886E+0	1.098194E+0	1.117678E+0	1.138818E+0	1.151832E+0	1.122339E+0	1.119712E+0	1.100993E+0	1.097878E+0	1.111063E+0	1.123484E+0	1.108554E+0	1.083674E+0	1.121395E+0	1.125494E+0	1.068779E+0	1.138231E+0	1.114690E+0	1.104215E+0	1.113538E+0	1.133397E+0	1.103244E+0	1.122166E+0	1.111936E+0	1.074902E+0	1.121768E+0	1.082553E+0	1.096008E+0	1.106016E+0	1.136240E+0	1.121287E+0	1.135358E+0	1.118647E+0	1.114142E+0	1.100343E+0	1.087912E+0	1.062837E+0	1.105307E+0	1.151997E+0	1.102620E+0	1.140535E+0	1.126172E+0	1.110443E+0	1.135418E+0	1.199178E+0	1.080067E+0	1.114487E+0	1.099984E+0	1.129689E+0	1.092904E+0	1.092220E+0	1.051396E+0	1.094373E+0	1.084415E+0	1.093377E+0	1.124606E+0	1.103174E+0	1.094057E+0	1.079086E+0	1.132325E+0	1.158890E+0	1.066989E+0	1.122521E+0	1.107480E+0	1.117622E+0	1.140148E+0	1.121914E+0	1.106019E+0	1.155322E+0	1.123517E+0	1.085174E+0	1.119364E+0	1.149013E+0	1.087009E+0	1.101019E+0	1.069142E+0	1.205972E+0	1.100380E+0	1.078617E+0	1.099605E+0	1.115617E+0	1.055054E+0	1.133719E+0	1.084286E+0	1.088137E+0	1.072792E+0	1.114825E+0	1.096894E+0	1.136381E+0	1.155247E+0	1.069892E+0	1.086581E+0	1.181703E+0	1.071395E+0	1.089104E+0	1.128809E+0	1.123497E+0	1.101105E+0	1.113696E+0	1.130471E+0	1.115355E+0	1.108299E+0	1.143538E+0	1.111356E+0	1.091671E+0	1.139479E+0	1.118772E+0	1.073767E+0	1.152818E+0	1.087224E+0	1.148280E+0	1.089118E+0	1.157355E+0	1.096116E+0	1.091050E+0	1.092073E+0	1.158160E+0	1.080765E+0	1.146788E+0
5.550140E+2	1.035094E+0	9.731118E-1	9.747482E-1	9.531484E-1	9.912151E-1	1.025731E+0	9.559052E-1	9.705549E-1	1.033617E+0	9.802807E-1	1.018004E+0	9.835490E-1	1.000249E+0	1.032220E+0	1.015044E+0	9.818546E-1	9.737301E-1	9.653344E-1	1.021702E+0	1.005825E+0	1.013971E+0	9.834742E-1	9.616847E-1	9.751525E-1	9.751099E-1	9.777591E-1	9.678699E-1	9.653866E-1	9.889794E-1	9.539310E-1	9.906374E-1	9.931643E-1	1.029690E+0	9.985405E-1	9.942780E-1	9.324673E-1	9.886727E-1	9.507518E-1	9.895655E-1	9.774577E-1	1.003852E+0	9.704310E-1	9.984180E-1	1.050947E+0	1.017021E+0	9.792496E-1	1.040946E+0	9.856711E-1	1.014970E+0	9.553484E-1	1.007102E+0	1.018046E+0	1.005644E+0	9.476124E-1	9.645751E-1	9.790941E-1	9.710984E-1	9.728841E-1	1.003754E+0	9.457051E-1	1.048189E+0	1.025693E+0	9.833030E-1	9.804496E-1	1.013817E+0	1.001453E+0	1.012765E+0	1.062711E+0	1.018899E+0	9.586819E-1	9.657356E-1	1.016656E+0	1.009850E+0	1.008953E+0	9.755027E-1	9.850639E-1	9.574326E-1	1.019859E+0	1.002251E+0	9.660223E-1	1.034674E+0	9.972764E-1	1.002239E+0	1.010130E+0	9.929258E-1	1.007255E+0	9.717212E-1	9.952902E-1	9.940894E-1	9.920143E-1	9.948721E-1	9.880343E-1	1.038758E+0	9.679803E-1	9.893035E-1	9.933817E-1	9.559373E-1	1.005231E+0	9.788050E-1	9.251320E-1	1.022576E+0	9.856134E-1	9.943541E-1	9.664915E-1	1.017758E+0	9.733554E-1	1.011865E+0	9.784192E-1	1.002594E+0	1.013164E+0	9.696387E-1	9.654653E-1	1.014383E+0	9.636292E-1	9.263360E-1	9.752790E-1	1.011597E+0	1.026300E+0	9.918021E-1	1.012151E+0	9.467069E-1	9.989324E-1	1.010294E+0	1.004910E+0	9.523481E-1	9.861376E-1	1.006017E+0	9.449097E-1	1.006523E+0	9.846460E-1	9.780074E-1	9.877122E-1	9.602807E-1	1.005721E+0	1.002098E+0	9.970905E-1	9.680430E-1	9.971169E-1	9.947498E-1	1.046743E+0	9.691216E-1	9.381245E-1	1.020275E+0	1.034268E+0	9.882231E-1	9.808747E-1	9.737666E-1	9.891119E-1	9.671614E-1	9.706409E-1	9.720957E-1	9.933939E-1	1.007452E+0	9.730333E-1	9.957214E-1	9.872341E-1	9.614867E-1	9.748026E-1	9.955350E-1	9.769291E-1	1.016920E+0	9.786228E-1	9.619199E-1	9.745363E-1	1.022138E+0	1.024744E+0	1.022155E+0	1.038630E+0	1.005865E+0	1.044010E+0	9.607404E-1
5.557660E+2	9.976613E-1	9.880686E-1	9.388070E-1	8.974279E-1	9.641424E-1	9.622258E-1	9.640966E-1	1.005585E+0	9.768695E-1	9.666978E-1	9.325814E-1	9.905690E-1	9.993812E-1	1.016917E+0	9.976995E-1	9.901637E-1	9.863959E-1	9.588678E-1	9.955546E-1	9.668522E-1	9.834544E-1	9.913036E-1	1.002799E+0	9.726772E-1	9.837376E-1	9.881121E-1	1.026247E+0	9.634705E-1	9.533887E-1	9.825508E-1	9.715667E-1	9.763429E-1	1.000656E+0	9.924636E-1	9.409688E-1	9.493163E-1	9.903921E-1	9.539292E-1	9.408159E-1	9.691848E-1	9.626752E-1	9.238811E-1	1.019396E+0	9.668037E-1	9.957288E-1	9.723277E-1	9.500555E-1	9.613803E-1	9.516800E-1	9.755149E-1	9.573213E-1	9.577537E-1	9.776710E-1	9.744629E-1	9.972585E-1	9.892613E-1	9.914190E-1	9.475785E-1	9.501039E-1	9.821359E-1	1.045640E+0	9.514591E-1	1.010693E+0	9.359391E-1	9.724318E-1	9.698760E-1	9.657772E-1	9.582867E-1	9.792504E-1	9.791365E-1	1.013940E+0	9.546957E-1	9.989930E-1	9.545504E-1	9.776532E-1	9.495094E-1	9.462878E-1	9.599503E-1	9.720589E-1	9.962827E-1	9.856505E-1	1.019095E+0	9.633932E-1	9.347855E-1	9.470810E-1	1.028973E+0	9.992447E-1	9.689851E-1	9.899812E-1	9.150997E-1	9.800342E-1	9.614452E-1	1.007371E+0	9.751400E-1	9.823341E-1	9.895031E-1	9.904859E-1	9.910252E-1	9.556994E-1	9.971870E-1	9.970732E-1	9.671873E-1	9.706774E-1	9.501792E-1	9.652313E-1	1.022187E+0	1.026312E+0	9.844279E-1	9.674780E-1	9.679889E-1	9.794385E-1	9.935730E-1	1.012558E+0	9.917845E-1	9.324103E-1	9.702404E-1	9.811489E-1	9.523962E-1	9.999541E-1	9.897817E-1	9.883989E-1	9.944651E-1	9.760321E-1	9.548301E-1	9.825935E-1	9.787705E-1	9.961088E-1	9.690317E-1	1.029358E+0	9.965635E-1	9.219931E-1	9.645314E-1	9.801191E-1	9.428554E-1	9.442711E-1	9.568298E-1	9.753573E-1	9.911981E-1	9.546812E-1	9.946076E-1	9.866296E-1	9.554717E-1	9.561371E-1	9.481405E-1	9.728238E-1	9.760226E-1	9.934737E-1	9.633693E-1	9.850539E-1	9.658215E-1	9.638443E-1	1.004561E+0	1.003087E+0	9.586952E-1	9.993904E-1	9.955197E-1	9.531182E-1	1.005152E+0	9.573128E-1	1.007094E+0	9.808018E-1	1.025181E+0	9.835282E-1	9.842158E-1	9.942531E-1	9.531991E-1	9.540001E-1	9.768183E-1	1.006029E+0	9.364047E-1	8.962942E-1
5.560130E+2	9.829124E-1	9.995801E-1	9.720129E-1	9.538413E-1	9.713085E-1	1.025360E+0	9.468744E-1	1.022917E+0	1.017310E+0	9.435102E-1	9.530748E-1	9.680279E-1	9.676810E-1	9.740672E-1	9.659381E-1	9.831513E-1	1.012409E+0	1.000926E+0	9.990146E-1	9.718462E-1	9.929380E-1	9.491636E-1	9.697077E-1	1.021972E+0	1.008658E+0	9.614564E-1	1.009976E+0	9.656298E-1	9.781598E-1	1.003222E+0	9.640706E-1	9.686592E-1	1.028530E+0	9.998935E-1	9.804227E-1	9.793716E-1	9.920722E-1	9.553652E-1	9.475663E-1	9.693500E-1	1.002156E+0	9.921407E-1	9.739868E-1	9.956172E-1	9.863866E-1	9.602962E-1	9.943124E-1	9.807132E-1	1.002447E+0	9.670049E-1	9.741519E-1	1.022430E+0	1.013936E+0	9.593893E-1	9.696615E-1	9.691279E-1	9.880439E-1	9.369152E-1	1.003343E+0	9.646246E-1	9.975330E-1	9.983458E-1	9.479050E-1	9.884617E-1	9.797577E-1	9.615870E-1	1.009952E+0	9.876582E-1	9.926645E-1	9.784168E-1	1.001421E+0	9.841350E-1	1.014632E+0	9.890376E-1	1.017661E+0	9.464505E-1	9.608526E-1	9.784516E-1	9.721345E-1	9.759002E-1	9.632824E-1	9.938595E-1	9.665912E-1	9.897311E-1	9.578391E-1	9.267038E-1	1.006114E+0	9.626181E-1	1.005855E+0	9.757500E-1	9.850474E-1	9.707622E-1	1.003216E+0	9.765396E-1	9.895249E-1	9.545695E-1	1.014933E+0	9.829269E-1	9.514800E-1	1.027640E+0	1.046463E+0	9.571718E-1	9.989254E-1	9.940099E-1	9.435927E-1	9.515676E-1	9.786891E-1	9.762451E-1	1.012009E+0	1.005826E+0	9.325981E-1	9.827099E-1	1.013754E+0	9.817356E-1	9.446044E-1	9.548566E-1	9.917639E-1	9.456811E-1	9.807560E-1	9.643031E-1	9.907820E-1	9.677371E-1	9.475807E-1	9.353285E-1	9.912707E-1	9.569837E-1	9.729529E-1	9.491048E-1	9.878724E-1	9.520228E-1	9.563072E-1	1.034846E+0	9.505601E-1	9.908470E-1	9.551329E-1	9.812415E-1	9.540854E-1	9.294843E-1	1.001416E+0	9.881303E-1	1.010320E+0	9.741995E-1	9.818322E-1	9.816861E-1	9.326779E-1	9.680128E-1	9.952585E-1	9.569917E-1	9.789823E-1	1.001389E+0	1.008439E+0	9.473456E-1	1.061690E+0	9.709952E-1	1.019749E+0	9.829412E-1	9.540496E-1	9.842594E-1	9.939761E-1	9.662692E-1	1.014427E+0	9.885853E-1	9.816344E-1	9.693498E-1	9.685745E-1	9.695248E-1	9.888192E-1	9.573514E-1	9.919247E-1	1.045666E+0	8.777911E-1
5.565140E+2	9.405996E-1	1.008347E+0	9.518852E-1	9.588770E-1	9.950495E-1	9.591235E-1	9.816236E-1	9.535008E-1	9.540793E-1	9.615788E-1	9.883058E-1	9.409664E-1	9.757269E-1	9.651625E-1	9.836479E-1	9.466858E-1	9.739146E-1	9.798284E-1	9.714803E-1	9.741018E-1	9.691818E-1	9.148532E-1	9.467506E-1	9.711245E-1	9.561179E-1	9.524763E-1	9.448463E-1	9.649903E-1	9.651888E-1	9.536212E-1	9.328117E-1	9.342453E-1	9.604901E-1	9.398025E-1	9.704101E-1	9.607839E-1	9.760500E-1	9.570584E-1	9.935374E-1	9.689092E-1	9.568402E-1	9.503938E-1	9.766228E-1	9.766388E-1	9.217150E-1	9.683213E-1	9.307923E-1	9.757495E-1	9.977871E-1	9.864575E-1	9.491591E-1	9.665948E-1	9.893607E-1	9.301250E-1	9.475911E-1	9.435070E-1	9.858990E-1	9.532050E-1	9.798554E-1	9.576624E-1	9.433461E-1	9.891496E-1	9.646498E-1	9.711428E-1	1.041451E+0	9.384762E-1	9.503130E-1	9.500504E-1	9.828723E-1	9.913599E-1	9.790943E-1	9.902036E-1	9.714294E-1	9.321930E-1	9.454320E-1	9.761555E-1	9.833878E-1	9.506865E-1	9.847489E-1	9.669827E-1	9.539476E-1	9.567927E-1	9.331703E-1	9.761063E-1	9.760002E-1	9.394597E-1	9.304757E-1	9.472711E-1	9.588893E-1	9.492178E-1	9.601436E-1	1.000360E+0	9.428859E-1	9.558829E-1	9.817561E-1	9.372950E-1	9.669238E-1	9.642269E-1	9.594214E-1	9.535016E-1	9.555917E-1	9.481402E-1	9.913713E-1	9.316094E-1	9.468378E-1	9.641149E-1	9.765414E-1	9.472103E-1	9.663003E-1	9.799680E-1	9.786967E-1	9.792336E-1	9.813793E-1	9.723850E-1	9.504255E-1	9.589133E-1	9.857782E-1	9.431096E-1	9.624615E-1	9.829703E-1	9.732980E-1	9.794980E-1	9.551423E-1	9.940194E-1	9.305922E-1	9.410057E-1	9.460666E-1	9.878758E-1	9.901652E-1	9.462432E-1	9.739554E-1	9.816786E-1	9.559509E-1	9.792642E-1	9.820488E-1	9.726643E-1	9.580494E-1	9.405739E-1	9.127222E-1	9.481249E-1	9.906610E-1	9.557590E-1	9.496111E-1	9.840050E-1	9.535079E-1	9.682228E-1	9.577490E-1	9.687588E-1	9.579168E-1	9.479959E-1	9.329384E-1	9.775064E-1	9.462803E-1	9.506745E-1	9.690469E-1	9.956916E-1	9.595292E-1	9.586993E-1	9.521893E-1	9.999673E-1	9.727514E-1	9.713935E-1	9.682750E-1	9.263960E-1	1.029036E+0	9.350335E-1	9.536907E-1	9.784303E-1	9.264270E-1	1.014016E+0	9.193070E-1
5.570440E+2	9.660110E-1	9.257481E-1	9.788813E-1	9.976818E-1	1.004045E+0	9.638864E-1	1.029091E+0	9.959045E-1	9.852899E-1	9.944817E-1	9.599945E-1	9.386137E-1	9.631664E-1	9.834513E-1	9.762217E-1	9.838780E-1	9.911418E-1	9.859346E-1	9.885354E-1	1.031061E+0	9.848229E-1	9.956110E-1	9.924292E-1	9.819365E-1	9.904504E-1	9.534310E-1	9.815628E-1	9.652472E-1	1.015837E+0	1.003440E+0	1.022415E+0	1.032748E+0	1.000742E+0	9.956080E-1	1.032215E+0	9.989788E-1	9.759148E-1	9.576302E-1	9.785851E-1	9.863937E-1	1.022613E+0	1.007601E+0	9.330768E-1	9.940701E-1	9.663593E-1	1.006928E+0	1.031315E+0	9.773870E-1	9.940662E-1	9.832548E-1	9.901612E-1	9.579800E-1	1.034541E+0	9.862559E-1	1.002598E+0	9.901635E-1	1.000417E+0	1.014400E+0	9.992777E-1	9.558054E-1	9.872656E-1	9.919255E-1	9.923455E-1	1.001096E+0	9.993403E-1	1.002098E+0	1.013125E+0	9.906078E-1	9.809851E-1	1.006352E+0	9.704137E-1	9.793571E-1	9.774426E-1	9.852530E-1	9.720422E-1	9.778253E-1	1.019274E+0	1.015010E+0	9.879997E-1	9.807542E-1	1.018181E+0	9.899079E-1	9.665451E-1	9.816912E-1	9.714581E-1	9.629431E-1	1.027799E+0	1.002228E+0	9.813388E-1	1.032707E+0	1.004305E+0	9.896484E-1	9.619980E-1	9.992191E-1	9.739505E-1	9.819674E-1	1.026846E+0	9.801888E-1	9.355655E-1	9.516509E-1	9.533603E-1	9.765077E-1	9.644515E-1	9.565985E-1	1.016599E+0	9.885832E-1	1.000992E+0	1.022335E+0	1.001345E+0	9.845315E-1	9.669910E-1	9.673771E-1	9.979979E-1	9.653378E-1	9.922418E-1	9.869546E-1	9.905065E-1	9.698546E-1	1.013699E+0	9.556163E-1	1.013277E+0	1.001123E+0	1.028525E+0	9.802814E-1	1.017876E+0	9.958932E-1	9.959671E-1	9.822331E-1	9.852181E-1	9.957137E-1	9.952709E-1	1.025709E+0	1.027401E+0	9.850702E-1	9.618595E-1	9.583588E-1	9.475302E-1	9.709605E-1	9.786660E-1	1.007079E+0	1.011272E+0	9.553478E-1	9.950459E-1	9.996586E-1	9.919638E-1	1.012975E+0	1.032291E+0	1.028531E+0	9.911016E-1	9.874701E-1	1.028753E+0	1.003054E+0	9.800170E-1	9.934428E-1	9.853290E-1	9.893524E-1	9.849063E-1	9.569258E-1	9.673140E-1	9.658612E-1	1.006834E+0	9.777103E-1	9.710433E-1	1.028623E+0	1.002674E+0	9.577688E-1	9.657451E-1	1.016907E+0	9.783487E-1	9.659133E-1	9.284053E-1
5.575580E+2	9.884698E-1	1.005158E+0	9.923218E-1	9.772189E-1	9.721308E-1	9.459564E-1	9.399798E-1	1.014357E+0	1.001181E+0	9.762227E-1	9.935385E-1	1.017098E+0	9.897080E-1	9.798334E-1	1.014980E+0	1.016398E+0	9.738928E-1	9.886522E-1	9.960039E-1	9.891410E-1	9.964214E-1	9.622852E-1	9.925307E-1	9.703875E-1	9.947669E-1	1.008597E+0	9.952463E-1	9.814262E-1	9.787918E-1	9.868029E-1	1.018619E+0	9.986979E-1	9.814575E-1	9.757179E-1	9.888607E-1	9.804970E-1	9.981623E-1	9.922800E-1	9.508826E-1	1.013073E+0	9.465011E-1	9.853152E-1	9.833523E-1	9.608341E-1	1.030207E+0	9.712018E-1	9.841767E-1	9.608433E-1	1.016357E+0	9.594593E-1	9.843563E-1	1.011235E+0	9.908559E-1	1.004469E+0	9.728229E-1	9.806689E-1	1.023005E+0	9.575896E-1	1.006224E+0	9.808094E-1	9.907305E-1	1.000150E+0	1.001810E+0	9.501338E-1	9.596091E-1	1.004705E+0	1.025203E+0	9.829866E-1	1.011435E+0	1.011889E+0	1.022316E+0	9.755812E-1	9.591293E-1	1.015472E+0	1.016729E+0	9.756030E-1	9.937840E-1	9.861221E-1	9.756009E-1	9.735551E-1	1.013373E+0	1.008926E+0	1.024834E+0	9.529033E-1	9.681289E-1	1.007897E+0	9.648302E-1	9.566383E-1	1.003639E+0	9.624064E-1	9.940944E-1	9.415064E-1	1.023931E+0	9.945559E-1	9.735590E-1	1.008402E+0	1.027093E+0	9.953201E-1	9.933239E-1	9.971300E-1	1.002405E+0	9.648551E-1	9.993589E-1	9.930993E-1	9.999113E-1	9.697435E-1	9.451844E-1	9.559731E-1	1.020311E+0	9.611562E-1	9.733521E-1	9.579136E-1	9.968537E-1	9.596915E-1	9.554194E-1	1.002728E+0	1.021594E+0	9.866153E-1	9.812198E-1	9.724056E-1	9.961068E-1	9.572609E-1	9.883434E-1	9.734018E-1	9.939083E-1	1.014044E+0	1.008768E+0	9.942641E-1	9.852434E-1	1.032684E+0	1.030479E+0	9.797009E-1	9.695070E-1	9.863104E-1	1.012852E+0	9.928816E-1	9.710481E-1	9.804274E-1	1.003582E+0	1.010861E+0	9.528285E-1	1.011670E+0	9.897042E-1	9.744926E-1	1.009795E+0	9.981261E-1	1.012952E+0	1.005437E+0	1.038971E+0	9.661712E-1	9.775617E-1	9.895337E-1	1.004507E+0	9.865154E-1	9.771587E-1	9.858861E-1	9.803893E-1	9.751677E-1	1.000149E+0	9.727450E-1	9.591059E-1	9.927519E-1	9.489298E-1	9.562986E-1	9.693242E-1	9.773530E-1	1.008265E+0	9.550017E-1	1.039297E+0	1.013570E+0	9.889392E-1
5.580170E+2	9.711203E-1	9.789928E-1	9.856250E-1	9.911225E-1	9.635855E-1	9.510165E-1	9.885561E-1	9.331549E-1	9.556697E-1	9.790181E-1	9.437388E-1	1.026112E+0	9.680158E-1	9.717379E-1	9.660155E-1	9.846846E-1	9.942983E-1	9.870209E-1	9.667621E-1	9.429196E-1	9.784726E-1	9.702770E-1	9.694168E-1	1.026663E+0	9.463565E-1	9.587714E-1	9.706966E-1	9.697344E-1	9.694668E-1	9.798430E-1	9.644622E-1	9.872225E-1	9.666330E-1	9.808883E-1	9.411617E-1	9.815034E-1	9.760721E-1	9.490449E-1	9.800968E-1	9.794594E-1	9.685363E-1	9.877346E-1	9.656252E-1	9.889092E-1	9.271946E-1	9.730319E-1	9.761239E-1	9.854578E-1	9.589989E-1	9.872729E-1	9.610045E-1	9.813950E-1	9.650030E-1	9.517301E-1	9.445284E-1	1.018965E+0	9.520708E-1	9.619537E-1	9.674963E-1	9.844776E-1	1.001116E+0	9.841801E-1	9.701490E-1	9.843396E-1	9.733554E-1	9.871721E-1	9.663180E-1	9.867401E-1	9.525023E-1	9.676531E-1	9.821201E-1	9.736601E-1	1.010493E+0	9.731797E-1	9.509818E-1	9.635916E-1	9.701233E-1	9.662285E-1	9.749691E-1	9.843119E-1	9.499357E-1	9.741296E-1	9.899400E-1	9.823114E-1	9.765746E-1	1.032724E+0	9.515155E-1	9.660961E-1	9.874520E-1	9.575276E-1	9.633935E-1	9.590729E-1	9.641190E-1	9.678659E-1	9.584308E-1	9.649626E-1	9.959950E-1	9.859019E-1	9.642695E-1	9.486544E-1	9.382574E-1	9.955714E-1	9.405482E-1	9.839997E-1	1.000130E+0	9.852375E-1	9.261820E-1	1.003152E+0	9.589940E-1	9.595596E-1	9.647181E-1	9.733389E-1	9.390037E-1	9.749601E-1	9.886757E-1	9.700969E-1	9.529975E-1	9.696164E-1	9.257847E-1	1.006083E+0	9.899774E-1	9.799795E-1	1.019686E+0	9.203712E-1	1.006599E+0	9.610422E-1	9.485363E-1	1.002198E+0	9.607588E-1	9.680704E-1	9.407231E-1	1.014505E+0	9.684218E-1	1.001061E+0	9.549202E-1	9.593495E-1	1.008019E+0	1.015041E+0	9.934058E-1	9.833832E-1	9.622138E-1	9.928009E-1	1.007159E+0	9.440850E-1	9.559003E-1	9.609562E-1	9.837009E-1	9.667308E-1	1.010362E+0	9.502881E-1	9.742787E-1	9.579170E-1	1.034174E+0	9.710028E-1	9.759162E-1	9.695692E-1	9.867940E-1	9.711994E-1	9.835938E-1	9.578313E-1	9.658257E-1	9.093319E-1	9.490361E-1	9.860406E-1	1.015345E+0	9.619224E-1	9.953760E-1	9.899025E-1	9.770194E-1	9.278914E-1	1.036385E+0
5.585160E+2	1.012679E+0	9.828085E-1	1.018236E+0	9.915288E-1	1.023307E+0	1.050261E+0	9.918356E-1	1.051535E+0	1.049458E+0	9.755751E-1	9.688056E-1	1.000514E+0	1.047859E+0	1.018508E+0	1.002457E+0	9.888367E-1	1.032561E+0	9.858561E-1	1.044024E+0	1.007283E+0	9.943093E-1	1.006431E+0	1.047661E+0	9.849013E-1	1.028867E+0	9.968303E-1	1.020368E+0	1.040904E+0	1.013023E+0	1.008001E+0	1.029608E+0	9.783506E-1	1.020093E+0	1.010058E+0	9.733892E-1	1.010494E+0	1.037358E+0	1.034656E+0	1.018672E+0	1.021027E+0	9.955527E-1	9.967451E-1	1.029703E+0	1.009154E+0	1.067853E+0	1.002866E+0	9.940932E-1	1.036494E+0	1.015728E+0	1.004922E+0	1.010125E+0	1.023843E+0	9.775963E-1	9.721955E-1	9.884777E-1	9.840020E-1	9.687070E-1	1.021219E+0	1.006623E+0	1.008228E+0	9.912727E-1	1.007931E+0	9.918946E-1	1.006231E+0	1.035619E+0	1.020139E+0	9.841024E-1	1.024952E+0	1.013719E+0	1.000451E+0	9.794719E-1	1.007351E+0	9.675194E-1	1.037246E+0	1.024408E+0	9.924898E-1	1.016870E+0	1.021323E+0	1.000024E+0	1.021184E+0	9.943433E-1	1.007945E+0	1.005393E+0	1.027521E+0	1.001805E+0	9.975158E-1	1.031328E+0	1.048350E+0	1.010251E+0	9.735067E-1	1.017354E+0	1.028710E+0	1.000914E+0	1.046827E+0	1.020512E+0	1.020922E+0	1.023350E+0	1.002593E+0	1.055657E+0	1.021099E+0	9.942329E-1	1.048259E+0	1.019484E+0	1.007347E+0	9.930159E-1	1.032201E+0	1.007724E+0	9.978071E-1	1.021530E+0	1.009399E+0	1.006681E+0	9.979383E-1	1.022109E+0	1.023681E+0	9.898775E-1	9.699342E-1	1.024395E+0	1.032616E+0	1.008021E+0	1.005961E+0	1.005520E+0	1.008689E+0	9.881090E-1	1.026068E+0	9.950452E-1	1.020330E+0	1.027456E+0	1.022660E+0	1.018312E+0	1.025502E+0	9.765048E-1	9.959938E-1	9.892004E-1	9.958690E-1	9.945914E-1	1.021144E+0	1.013241E+0	1.029863E+0	9.917395E-1	1.008738E+0	9.876527E-1	1.035089E+0	9.916652E-1	1.011319E+0	1.025377E+0	9.854728E-1	9.697011E-1	1.027959E+0	9.993391E-1	1.024721E+0	1.021187E+0	9.798279E-1	1.021173E+0	1.017305E+0	9.891493E-1	1.007769E+0	1.024518E+0	9.979726E-1	9.904332E-1	9.982204E-1	1.009513E+0	1.003422E+0	1.019774E+0	1.023145E+0	1.035363E+0	1.008728E+0	1.004777E+0	1.004590E+0	1.053737E+0	9.914441E-1	1.089848E+0
5.590100E+2	1.032739E+0	1.011662E+0	1.039249E+0	1.033622E+0	1.025360E+0	1.043871E+0	1.011874E+0	9.988211E-1	1.016022E+0	1.031846E+0	1.020612E+0	1.006044E+0	1.039203E+0	1.039562E+0	1.047561E+0	9.655942E-1	1.055279E+0	1.029574E+0	9.972622E-1	1.047253E+0	1.018930E+0	1.014524E+0	1.024465E+0	1.038848E+0	1.024500E+0	1.057326E+0	1.013943E+0	1.002130E+0	1.025144E+0	9.828128E-1	1.033017E+0	1.008914E+0	9.828116E-1	1.019503E+0	1.001287E+0	1.031210E+0	1.003152E+0	1.017305E+0	9.993917E-1	1.049868E+0	1.051762E+0	9.891315E-1	1.081217E+0	1.036946E+0	1.009094E+0	9.979757E-1	1.021611E+0	1.032828E+0	1.026122E+0	1.011130E+0	1.028384E+0	1.005732E+0	1.005926E+0	1.049631E+0	1.018175E+0	1.016644E+0	1.050494E+0	9.774473E-1	1.037815E+0	1.023730E+0	9.977846E-1	9.801097E-1	1.001975E+0	1.021849E+0	1.062509E+0	1.004462E+0	1.002446E+0	1.034614E+0	1.028380E+0	1.024572E+0	1.010875E+0	1.030069E+0	1.036184E+0	1.037316E+0	1.051732E+0	9.878478E-1	9.924113E-1	1.075482E+0	1.052546E+0	1.026558E+0	1.016656E+0	9.924983E-1	9.969665E-1	1.014725E+0	1.033203E+0	1.072540E+0	1.025411E+0	1.028691E+0	1.027927E+0	1.034775E+0	1.051955E+0	1.039159E+0	1.034591E+0	1.043954E+0	1.024007E+0	9.952883E-1	9.885172E-1	1.012857E+0	1.024688E+0	1.054220E+0	1.007876E+0	1.028332E+0	1.039243E+0	1.036701E+0	1.030739E+0	1.039892E+0	1.031854E+0	1.027069E+0	9.952393E-1	1.009901E+0	9.805830E-1	1.032854E+0	1.034670E+0	1.008083E+0	1.037652E+0	9.903638E-1	1.017652E+0	1.043697E+0	1.023935E+0	1.051631E+0	9.840227E-1	1.029896E+0	9.833959E-1	9.848956E-1	9.783108E-1	1.013210E+0	1.026741E+0	1.041638E+0	9.885177E-1	1.007228E+0	1.021069E+0	9.943893E-1	1.018732E+0	1.030188E+0	1.036845E+0	1.041790E+0	1.015792E+0	1.033305E+0	1.004443E+0	1.025708E+0	1.041320E+0	1.041983E+0	9.976459E-1	1.040716E+0	1.008003E+0	1.007528E+0	1.047508E+0	9.865303E-1	1.015650E+0	1.046284E+0	1.013875E+0	1.016648E+0	9.558219E-1	9.968428E-1	1.032938E+0	1.036229E+0	1.029061E+0	1.010148E+0	1.031333E+0	1.011967E+0	1.057029E+0	1.062115E+0	1.031022E+0	1.044550E+0	9.849222E-1	1.048303E+0	9.558359E-1	1.019943E+0	9.741738E-1	1.057221E+0	1.014242E+0
5.595110E+2	1.025338E+0	1.015600E+0	9.629894E-1	1.075851E+0	1.006102E+0	1.055023E+0	1.021218E+0	1.081306E+0	1.031910E+0	1.019981E+0	1.035518E+0	1.027313E+0	9.951953E-1	1.033461E+0	1.026794E+0	1.017221E+0	1.049844E+0	1.032890E+0	9.713887E-1	9.711879E-1	9.995640E-1	1.029572E+0	1.007304E+0	9.996399E-1	1.027249E+0	1.050117E+0	1.001248E+0	1.024743E+0	1.031863E+0	9.962868E-1	1.018747E+0	1.022284E+0	1.004640E+0	1.058877E+0	1.033309E+0	9.840923E-1	1.000368E+0	1.055370E+0	1.016221E+0	9.753025E-1	9.843870E-1	1.038932E+0	9.937567E-1	9.844095E-1	1.026494E+0	1.046431E+0	1.039805E+0	9.860014E-1	9.956007E-1	1.012438E+0	1.040368E+0	9.814819E-1	1.018405E+0	1.017047E+0	1.041255E+0	1.020854E+0	1.012479E+0	1.022764E+0	9.921472E-1	1.049229E+0	1.042485E+0	1.038082E+0	1.026152E+0	9.955076E-1	1.010342E+0	1.030051E+0	1.037869E+0	1.006140E+0	1.017135E+0	1.027462E+0	1.002751E+0	1.025099E+0	1.022168E+0	1.029720E+0	1.034322E+0	1.047065E+0	1.018737E+0	9.853189E-1	1.044293E+0	1.056473E+0	1.026059E+0	1.011458E+0	1.036958E+0	1.023448E+0	1.037426E+0	9.903450E-1	9.946470E-1	1.010020E+0	9.977052E-1	1.023084E+0	1.026683E+0	1.021674E+0	1.047639E+0	9.732840E-1	1.027900E+0	1.074104E+0	9.881410E-1	9.883879E-1	1.022152E+0	1.018461E+0	1.035629E+0	1.011487E+0	1.034297E+0	1.036213E+0	1.032442E+0	1.024179E+0	1.018704E+0	1.002202E+0	1.025083E+0	1.026572E+0	1.008735E+0	9.935882E-1	1.020106E+0	1.041791E+0	1.043293E+0	1.020890E+0	1.028791E+0	1.052866E+0	1.022025E+0	1.002699E+0	1.020152E+0	1.009277E+0	9.808777E-1	1.044111E+0	1.062159E+0	1.014709E+0	1.050640E+0	9.698086E-1	1.007765E+0	1.018094E+0	1.030536E+0	1.005669E+0	1.042598E+0	9.816041E-1	1.025333E+0	1.001989E+0	1.035045E+0	9.948207E-1	1.013875E+0	1.011460E+0	1.026253E+0	9.961184E-1	1.014694E+0	1.037936E+0	9.708706E-1	1.026504E+0	1.000559E+0	1.026965E+0	1.039043E+0	1.036907E+0	1.044039E+0	1.025607E+0	1.023855E+0	1.043596E+0	9.994822E-1	1.034790E+0	1.025316E+0	1.037437E+0	1.030839E+0	1.021782E+0	1.014656E+0	1.059649E+0	1.043240E+0	1.003234E+0	1.002937E+0	1.040185E+0	1.035210E+0	1.049826E+0	1.028343E+0	1.024478E+0	1.032076E+0
5.600240E+2	1.018494E+0	1.012355E+0	1.001163E+0	9.861776E-1	9.998712E-1	1.036579E+0	9.901915E-1	9.539139E-1	1.015420E+0	1.045268E+0	1.072776E+0	1.012933E+0	1.008772E+0	1.028707E+0	9.847242E-1	1.018563E+0	9.358989E-1	1.021571E+0	1.062470E+0	9.975444E-1	1.034103E+0	1.019382E+0	9.758337E-1	9.950466E-1	1.005239E+0	1.003060E+0	1.016151E+0	1.016743E+0	9.935504E-1	1.038076E+0	9.804804E-1	1.018561E+0	1.048841E+0	1.028869E+0	1.025533E+0	1.025454E+0	1.016559E+0	1.022459E+0	1.079242E+0	9.932646E-1	1.002381E+0	1.058274E+0	1.016026E+0	1.028064E+0	1.032031E+0	9.917297E-1	1.019079E+0	1.025668E+0	9.765776E-1	1.013834E+0	1.029647E+0	1.008204E+0	1.004433E+0	1.089467E+0	1.024848E+0	1.019616E+0	1.006328E+0	1.034227E+0	1.011576E+0	1.001692E+0	1.004703E+0	9.747694E-1	1.005367E+0	1.020368E+0	1.000824E+0	9.647015E-1	1.001444E+0	1.028583E+0	9.982746E-1	1.018669E+0	1.002866E+0	9.971425E-1	1.043020E+0	9.831597E-1	1.016842E+0	1.028389E+0	1.005641E+0	9.933777E-1	9.917193E-1	1.001905E+0	9.814034E-1	1.025277E+0	1.014774E+0	1.025955E+0	1.008541E+0	1.001419E+0	9.992401E-1	9.886730E-1	1.005799E+0	1.019466E+0	9.871541E-1	1.006770E+0	9.703609E-1	9.951162E-1	1.046712E+0	1.012117E+0	1.020515E+0	1.048882E+0	1.001168E+0	1.025896E+0	1.038433E+0	1.001354E+0	9.923037E-1	1.030064E+0	9.868249E-1	1.001226E+0	1.065442E+0	1.001836E+0	9.801179E-1	9.715460E-1	1.042309E+0	1.023615E+0	9.727725E-1	1.031231E+0	1.022782E+0	1.020399E+0	1.002015E+0	9.595942E-1	1.005834E+0	1.032143E+0	1.026848E+0	1.023063E+0	1.024785E+0	1.037593E+0	1.002333E+0	1.021157E+0	9.919292E-1	1.016120E+0	1.006062E+0	1.029009E+0	1.000948E+0	1.012679E+0	1.012049E+0	1.028832E+0	9.966375E-1	1.017676E+0	1.026218E+0	1.013435E+0	1.022697E+0	9.666323E-1	1.021042E+0	9.764146E-1	1.038710E+0	1.017047E+0	1.011474E+0	1.037213E+0	9.923503E-1	9.803876E-1	9.909629E-1	1.042733E+0	1.012674E+0	1.028589E+0	1.028338E+0	9.950925E-1	1.028281E+0	1.018864E+0	9.999989E-1	1.064956E+0	1.032118E+0	1.019866E+0	1.029848E+0	9.701099E-1	1.022861E+0	9.951494E-1	9.630812E-1	1.029012E+0	1.030578E+0	1.002676E+0	9.876545E-1	9.955191E-1	1.154799E+0
5.605040E+2	1.033113E+0	1.046380E+0	1.040820E+0	9.826372E-1	9.979153E-1	1.005484E+0	1.024890E+0	9.866598E-1	9.943862E-1	1.021664E+0	1.029746E+0	1.033605E+0	9.916828E-1	1.029141E+0	1.011949E+0	1.055689E+0	9.944725E-1	1.000818E+0	1.033921E+0	1.031715E+0	9.981082E-1	1.054066E+0	1.024680E+0	1.037702E+0	9.695009E-1	1.034127E+0	1.035765E+0	1.006578E+0	9.788713E-1	1.007765E+0	9.740668E-1	9.996282E-1	1.030542E+0	9.634811E-1	9.622214E-1	1.022057E+0	9.872095E-1	1.021061E+0	1.005674E+0	1.040500E+0	1.023604E+0	1.004661E+0	1.041451E+0	1.007644E+0	9.705336E-1	1.035091E+0	9.862745E-1	1.003294E+0	1.028823E+0	1.011359E+0	9.976179E-1	1.090507E+0	1.013538E+0	9.746782E-1	1.013633E+0	1.052060E+0	1.032453E+0	1.038230E+0	1.007460E+0	1.022309E+0	1.016714E+0	1.026995E+0	1.029133E+0	1.028285E+0	9.447073E-1	1.027103E+0	1.034679E+0	1.008415E+0	9.939917E-1	9.828640E-1	1.012029E+0	1.016294E+0	1.001968E+0	9.979008E-1	1.006776E+0	1.027813E+0	1.002632E+0	1.010576E+0	1.020651E+0	9.885162E-1	1.000981E+0	1.030954E+0	1.007812E+0	1.014350E+0	9.913595E-1	9.980815E-1	1.040081E+0	1.066524E+0	9.956766E-1	1.056960E+0	1.001275E+0	1.012952E+0	1.021851E+0	1.024056E+0	9.897251E-1	9.980766E-1	9.830244E-1	1.008960E+0	1.001182E+0	1.021395E+0	1.024779E+0	9.946056E-1	1.029192E+0	1.010744E+0	1.025242E+0	9.975373E-1	9.878767E-1	1.012679E+0	1.049060E+0	1.086570E+0	1.042556E+0	1.039013E+0	1.017847E+0	9.892530E-1	1.027362E+0	1.023677E+0	9.726132E-1	1.016058E+0	1.046559E+0	9.852667E-1	9.989724E-1	1.007485E+0	1.024045E+0	1.024277E+0	9.937419E-1	1.021847E+0	1.051460E+0	9.949207E-1	1.060396E+0	1.001982E+0	1.051971E+0	9.876383E-1	1.010726E+0	1.049737E+0	9.971384E-1	1.029628E+0	1.021085E+0	1.008056E+0	1.025737E+0	1.009406E+0	1.020062E+0	1.027684E+0	1.006827E+0	9.900141E-1	1.045611E+0	1.001541E+0	1.015874E+0	1.047309E+0	9.796561E-1	9.941564E-1	1.013049E+0	1.020440E+0	1.001023E+0	1.029284E+0	1.017883E+0	9.598108E-1	1.011830E+0	1.011686E+0	1.004344E+0	1.022763E+0	9.950221E-1	1.041410E+0	1.018338E+0	1.006481E+0	9.995138E-1	1.047165E+0	1.016950E+0	1.007781E+0	1.020899E+0	1.002278E+0	8.884211E-1
5.610640E+2	1.011436E+0	1.012949E+0	1.028829E+0	1.005282E+0	1.012634E+0	9.888003E-1	1.020740E+0	1.030847E+0	9.965840E-1	9.943645E-1	9.869654E-1	9.968009E-1	1.020671E+0	9.504347E-1	9.856495E-1	1.022449E+0	9.986968E-1	9.878550E-1	9.681526E-1	1.007794E+0	1.026086E+0	1.033000E+0	1.018929E+0	9.937512E-1	1.056953E+0	9.852636E-1	1.020173E+0	1.027504E+0	1.028265E+0	1.043351E+0	1.025773E+0	1.019349E+0	1.003750E+0	1.027195E+0	1.071613E+0	1.004930E+0	1.029154E+0	9.931351E-1	9.776974E-1	9.722030E-1	1.047823E+0	9.812113E-1	9.791688E-1	1.013330E+0	1.048519E+0	1.006423E+0	1.016729E+0	1.016276E+0	9.899407E-1	1.029873E+0	1.009177E+0	9.730269E-1	1.000340E+0	1.024401E+0	1.046072E+0	9.735191E-1	9.681469E-1	1.018964E+0	9.915248E-1	1.016058E+0	1.024582E+0	1.006707E+0	1.016524E+0	1.021046E+0	9.722431E-1	1.021093E+0	9.844994E-1	9.869120E-1	1.020705E+0	9.687281E-1	1.038063E+0	1.005242E+0	1.010647E+0	1.008559E+0	9.807351E-1	1.023220E+0	9.971414E-1	9.958754E-1	9.674489E-1	9.997592E-1	1.045121E+0	1.002112E+0	1.023606E+0	1.000989E+0	1.035504E+0	9.970743E-1	1.034673E+0	9.855092E-1	1.031323E+0	9.903498E-1	9.936433E-1	1.000147E+0	1.031711E+0	9.992385E-1	1.003447E+0	1.006865E+0	9.795947E-1	1.012682E+0	1.042573E+0	1.007992E+0	1.049435E+0	1.030888E+0	9.897508E-1	1.013624E+0	9.682572E-1	9.972863E-1	1.039499E+0	1.029737E+0	9.820196E-1	1.010798E+0	1.035378E+0	1.035128E+0	1.017261E+0	1.033587E+0	9.922710E-1	1.056045E+0	1.003657E+0	1.025972E+0	1.010461E+0	1.005225E+0	9.918257E-1	1.003729E+0	1.007090E+0	1.014982E+0	1.019434E+0	9.967609E-1	9.524359E-1	9.882815E-1	9.975609E-1	9.754733E-1	9.785438E-1	1.002036E+0	1.005414E+0	9.620641E-1	1.037773E+0	1.004519E+0	1.003971E+0	1.013518E+0	1.053133E+0	1.028607E+0	9.866947E-1	1.007133E+0	1.008938E+0	1.000728E+0	1.027497E+0	1.001461E+0	9.873141E-1	9.613910E-1	9.769978E-1	1.003274E+0	9.816439E-1	1.000877E+0	1.004811E+0	1.016245E+0	1.024816E+0	1.002038E+0	9.976569E-1	1.015807E+0	1.007687E+0	1.028996E+0	9.894142E-1	1.012107E+0	1.027480E+0	1.030084E+0	9.978027E-1	9.945298E-1	1.033573E+0	9.749421E-1	1.014102E+0	1.007669E+0	9.475777E-1
