Photon Energy (eV)	#1	#2	#3	#4	#5	#6	#7	#8	#9	#10	#11	#12	#13	#14	#15	#16	#17	#18	#19	#20	#21	#22	#23	#24	#25	#26	#27	#28	#29	#30	#31	#32	#33	#34	#35	#36	#37	#38	#39	#40	#41	#42	#43	#44	#45	#46	#47	#48	#49	#50	#51	#52	#53	#54	#55	#56	#57	#58	#59	#60	#61	#62	#63	#64	#65	#66	#67	#68	#69	#70	#71	#72	#73	#74	#75	#76	#77	#78	#79	#80	#81	#82	#83	#84	#85	#86	#87	#88	#89	#90	#91	#92	#93	#94	#95	#96	#97	#98	#99	#100	#101	#102	#103	#104	#105	#106	#107	#108	#109	#110	#111	#112	#113	#114	#115	#116	#117	#118	#119	#120	#121	#122	#123	#124	#125	#126	#127	#128	#129	#130	#131	#132	#133	#134	#135	#136	#137	#138	#139	#140	#141	#142	#143	#144	#145	#146	#147	#148	#149	#150	#151	#152	#153	#154	#155	#156	#157	#158	#159	#160	#161	#162	#163	#164	#165	#166	#167	#168	#169	#170	#171	
5.300370E+2	-8.836446E-3	-4.070370E-3	-2.228686E-3	1.088133E-1	-7.978579E-3	1.571254E-3	-7.912106E-3	-5.679230E-3	2.535245E-3	-9.689498E-3	-1.382383E-2	5.973151E-4	-1.318618E-2	-1.740308E-3	-1.049187E-2	-1.062663E-2	-1.013945E-2	-4.650864E-3	-5.165626E-3	-9.493803E-3	-5.576633E-3	-1.393633E-2	-1.463267E-3	-7.602813E-3	-1.266846E-2	-6.688527E-3	9.038982E-4	-4.177657E-3	-6.096773E-3	1.698584E-3	-8.073928E-3	-3.523718E-3	-7.701166E-3	-4.317094E-3	-4.790663E-3	-1.488910E-3	-4.587166E-3	-1.384617E-2	-5.381296E-3	-7.510774E-3	-5.754420E-3	-1.019042E-2	-3.587873E-3	-1.350580E-2	-3.668494E-3	-7.427694E-3	-3.765242E-3	-1.849268E-3	-6.406207E-4	-6.170312E-3	2.192257E-3	7.143295E-4	-1.252705E-2	-1.079556E-2	-2.336790E-3	-6.721167E-3	-1.097843E-2	-6.090331E-3	3.951698E-3	-5.655237E-3	2.135078E-3	1.765639E-3	-5.413443E-3	-5.591389E-3	-2.881903E-3	-9.489568E-3	-4.932067E-3	-4.838960E-4	-9.645285E-3	-1.634940E-3	-9.161274E-3	-6.266247E-3	1.261398E-4	9.637042E-4	-2.286321E-3	-5.814362E-3	-4.190406E-3	-8.093989E-3	-2.417084E-3	-6.452634E-3	-7.299684E-3	-9.866943E-3	3.683265E-3	-3.959978E-3	-1.091169E-2	-9.500781E-3	-8.833651E-3	-7.897778E-3	-5.329473E-3	-6.172106E-3	-9.723570E-3	-4.065674E-3	-4.681434E-3	-4.248313E-3	-1.182574E-2	-1.015366E-2	-1.015327E-2	-4.190387E-3	-8.406553E-3	-2.479070E-3	-5.738491E-3	-1.834523E-3	-9.431959E-3	-1.173820E-2	-8.225861E-3	-6.936597E-3	-4.338164E-3	1.232715E-3	2.797054E-4	-8.942906E-4	-6.536241E-3	-7.541821E-3	-3.573276E-3	-4.149402E-4	6.466967E-3	1.288520E-2	-6.387797E-3	-7.671922E-3	-1.451459E-5	-4.072055E-3	-4.950395E-3	-2.504781E-3	2.841266E-4	-1.547080E-2	-6.096718E-3	-5.136174E-3	-6.308421E-3	-3.880319E-3	2.026482E-3	1.287789E-3	-3.165910E-3	9.494941E-4	-1.353124E-3	-3.313229E-3	-8.271409E-3	-1.033982E-2	-1.874702E-3	-3.144593E-3	2.520311E-4	-7.483680E-4	-1.209556E-2	-2.776796E-3	-2.408612E-3	-1.041958E-2	-4.795841E-3	-4.057938E-4	-3.477248E-3	-2.363657E-3	-8.730913E-3	-7.055416E-3	-4.985769E-3	-6.586597E-4	-1.088258E-2	-6.936472E-3	-1.404086E-2	-7.553256E-3	-1.381370E-3	-7.175959E-3	-5.450817E-3	-6.631949E-3	-1.270039E-2	-2.678399E-3	-4.253467E-3	-1.366300E-2	-1.000845E-2	-2.722683E-3	-7.330475E-3	-6.733458E-3	-1.217090E-2	-7.083973E-3	-1.063103E-2
5.305180E+2	-1.126492E-2	-7.555341E-3	-1.529884E-3	-4.953853E-2	-6.413704E-3	-5.692626E-3	-6.147385E-4	-6.188258E-3	-1.193037E-2	-2.503856E-3	-5.093075E-3	-7.060290E-3	1.219472E-3	-5.317264E-3	4.432636E-3	1.313387E-3	-4.604357E-3	-8.990855E-3	-2.137302E-3	4.463486E-3	-3.963889E-3	-1.578935E-3	2.327451E-3	-3.311282E-3	2.372193E-3	-3.091245E-3	-1.669325E-2	-6.436539E-3	-6.388193E-3	-6.138715E-3	-7.520940E-3	-5.775502E-3	-7.010762E-3	1.537548E-3	-4.701683E-3	-5.005839E-3	-1.060564E-2	-1.022392E-2	-1.517618E-3	4.097150E-3	1.006884E-4	-1.031966E-3	-4.065874E-3	3.507269E-4	-4.408107E-3	5.293602E-3	-4.088661E-3	-6.080089E-3	6.296372E-4	-6.088449E-3	-2.750256E-3	-1.083326E-2	-6.447402E-3	1.814843E-3	-5.440945E-3	-5.216422E-3	-7.246359E-4	9.461406E-3	1.943649E-3	-8.576033E-3	-8.325371E-3	-2.311366E-3	2.428711E-3	-2.141392E-3	-5.697601E-3	-4.486752E-3	-1.990704E-3	-9.839816E-4	-4.389901E-3	-2.891383E-3	-4.766440E-3	5.781719E-4	-2.321467E-3	-4.933353E-3	-1.166609E-2	2.933451E-3	-2.344946E-3	3.307292E-3	-7.304901E-3	-3.401170E-3	6.738887E-4	-3.669962E-3	-3.927935E-4	-1.954812E-3	3.156863E-4	-1.041988E-3	3.810028E-3	-3.196510E-3	-7.796183E-3	-3.762841E-3	-2.642940E-3	-4.595841E-3	-6.627745E-4	-1.913886E-3	-2.587248E-3	3.566579E-3	2.044752E-3	-8.761679E-3	-5.271261E-3	-1.222008E-2	-6.148576E-3	-6.438020E-3	-7.393230E-3	-5.233932E-3	-8.720229E-3	-5.079714E-3	-1.391424E-4	-2.885999E-3	-5.215845E-4	-7.499517E-3	9.872287E-4	-9.019267E-3	1.635229E-3	-4.768608E-3	-3.582833E-3	4.083914E-4	-3.608940E-3	-1.755843E-3	5.688547E-4	-1.508024E-3	-2.835099E-3	-4.683259E-3	-1.174010E-3	-2.666329E-3	1.031007E-3	-1.092413E-2	-5.743665E-3	-2.770469E-3	-3.518011E-3	3.314881E-3	-8.444900E-3	-6.472208E-3	-3.870422E-3	-7.090665E-4	7.094727E-3	-2.457205E-3	-8.706450E-3	-1.032300E-2	-2.993896E-3	-4.830942E-3	6.962977E-3	-5.318422E-3	-4.196966E-3	-8.206646E-3	9.809452E-4	-3.911437E-3	-6.989303E-3	-5.757623E-3	1.136385E-3	2.914922E-4	-3.395577E-3	-1.681507E-5	3.445143E-3	-7.423440E-3	2.972681E-3	2.470176E-3	-1.696061E-3	-1.198074E-2	-7.527852E-3	9.495567E-4	-6.062635E-3	-6.437830E-3	-1.764358E-3	-1.602865E-3	-1.978051E-3	-5.130351E-3	-4.811643E-3	1.071334E-3	-2.134778E-3	9.638821E-3	-1.816626E-2
5.310350E+2	-6.784441E-3	6.939657E-3	-7.996675E-3	-1.168351E-1	-6.313649E-3	-4.597715E-3	-5.157710E-3	4.303188E-4	-1.652845E-4	1.930715E-3	2.512553E-3	-3.067406E-3	-2.543129E-3	-6.432175E-4	-3.296647E-3	-4.742053E-3	3.422699E-3	-2.230850E-3	-7.437980E-3	1.420621E-3	5.734029E-3	-2.829444E-3	-3.528747E-3	-3.183955E-3	-8.308406E-3	4.010977E-3	-5.145563E-3	7.605537E-4	-2.541255E-3	-6.016666E-3	-7.397133E-3	1.056584E-3	6.550321E-3	1.647496E-3	1.126371E-3	-4.284925E-3	1.290374E-3	-3.046042E-3	-1.406134E-3	-9.647873E-3	-1.052391E-3	1.611054E-3	2.216480E-4	-3.487867E-3	-2.969550E-3	-5.900007E-3	4.375943E-3	1.110366E-2	-6.799680E-3	-2.499274E-3	-9.471050E-4	2.406105E-3	-1.337666E-3	-3.178458E-3	-2.087795E-3	4.978414E-3	-6.037831E-4	-8.644060E-3	-7.543519E-3	-1.791690E-3	-4.510942E-3	-1.660458E-2	-3.964679E-3	-3.324483E-4	-3.153218E-4	-5.566430E-6	-1.320689E-3	3.963318E-3	3.809229E-4	-4.151396E-3	-8.457433E-3	-4.553191E-3	-7.971104E-3	-7.015976E-3	-2.612444E-3	-1.885000E-3	-2.624995E-3	-1.769836E-3	-8.700779E-4	-5.220521E-3	2.248792E-4	4.385552E-3	-1.050168E-2	-6.828914E-3	-1.274167E-2	-9.300773E-3	-3.605634E-3	3.406898E-3	3.212257E-3	3.886529E-3	-2.521065E-3	3.700861E-3	-4.906339E-3	-8.020411E-3	-1.133794E-3	2.615918E-3	4.496999E-4	-4.573554E-3	-1.509222E-3	4.576728E-3	-2.324132E-3	4.110364E-3	1.908593E-3	6.269891E-3	-6.841835E-3	5.612398E-3	-5.277620E-3	2.179355E-3	-7.448714E-3	2.952736E-4	4.030191E-3	3.272833E-3	-2.726245E-3	4.829611E-4	-2.324089E-3	-8.812086E-3	-2.422778E-3	-1.621623E-3	-6.729121E-3	-3.947351E-4	-2.703684E-3	4.079580E-3	-1.342759E-2	-1.233946E-3	2.121523E-3	-5.338011E-3	2.668035E-3	1.327077E-3	-2.170111E-3	-1.375386E-2	-7.169421E-3	-6.372038E-3	-7.968729E-5	9.535023E-4	-7.579742E-3	-4.928661E-4	5.317070E-3	-1.070740E-3	-5.213164E-5	5.085959E-3	-4.039040E-3	2.012984E-3	6.748226E-3	2.975401E-3	1.098705E-3	-3.806444E-3	-1.416843E-2	-4.276071E-3	-1.450081E-3	-6.729901E-3	-6.119939E-3	6.224426E-4	9.719409E-4	1.016333E-3	8.246901E-4	5.246257E-3	-4.784999E-3	-1.071046E-3	-1.205448E-3	-1.587898E-3	6.077046E-3	-2.436235E-3	-9.325459E-3	1.325783E-3	4.325629E-3	-2.455982E-3	1.116835E-4	-6.503292E-3	-5.875251E-4	-4.394354E-3	2.037363E-2
5.315130E+2	-4.186059E-3	-1.952720E-3	-4.399214E-3	8.678193E-2	4.626938E-3	-3.163905E-5	-4.547084E-3	4.694179E-3	-2.404231E-3	6.902794E-3	-3.736083E-3	1.006929E-2	-4.084179E-3	-5.064967E-3	-3.171032E-3	1.457538E-3	-4.738053E-3	-1.000426E-3	-8.023385E-4	4.036389E-4	-6.177295E-3	1.395661E-3	-4.326167E-3	-5.455897E-3	4.452829E-3	2.385487E-3	4.719777E-3	3.294883E-3	9.378453E-5	-9.911211E-4	9.394273E-3	5.132196E-4	-2.516410E-4	-8.095947E-3	-1.046998E-3	-2.924779E-3	2.851774E-3	1.792267E-2	9.091224E-3	2.269972E-3	-2.196383E-3	6.288812E-3	-8.435030E-4	6.456250E-3	-6.448396E-4	1.653109E-3	-9.141555E-3	-2.545696E-3	2.744764E-4	1.043838E-3	-9.876558E-3	-6.880180E-4	2.905671E-4	2.988813E-3	8.113296E-4	7.191025E-5	-2.891729E-3	-5.770582E-3	-7.981590E-3	-1.681334E-3	-4.849064E-3	5.439856E-4	-3.028176E-3	4.814712E-3	-1.968970E-3	1.202202E-3	5.069719E-3	-2.028320E-3	-2.081067E-3	-7.942196E-4	6.490596E-3	2.803007E-3	1.104891E-3	-2.522118E-3	8.705499E-4	7.161344E-4	-1.621505E-3	-9.932648E-3	1.381649E-3	-4.612444E-3	-3.066270E-3	-2.838185E-3	-6.194029E-3	-1.617982E-3	3.121127E-3	6.923260E-4	4.077266E-3	-6.042595E-4	-5.032016E-3	-1.806605E-3	1.922293E-3	5.711741E-3	-1.837684E-3	7.246358E-3	-9.879024E-4	-2.717176E-3	-1.732123E-3	4.921265E-3	6.556245E-3	4.156997E-3	-5.379195E-3	-2.408946E-3	-2.309883E-3	7.925442E-3	5.779871E-3	3.377390E-3	-4.540730E-3	1.782865E-4	3.510355E-3	8.847578E-4	-7.559342E-4	8.180126E-3	-3.911438E-3	-6.895098E-4	-5.630013E-3	-6.717072E-3	-1.775290E-3	-1.012284E-3	-3.832045E-3	4.634661E-3	-1.309007E-3	-3.325377E-3	1.097453E-2	8.887142E-4	-5.261981E-3	3.471776E-3	-1.996201E-3	-6.021952E-3	-6.491225E-3	3.814159E-4	3.111972E-3	-5.643461E-3	-5.231834E-3	-6.501847E-3	-2.360358E-3	-8.195031E-4	1.003353E-3	-9.679901E-4	-5.023018E-3	-3.216975E-3	2.904855E-3	8.143704E-4	-3.030778E-3	-5.124001E-5	-5.609714E-5	-1.269042E-3	6.634593E-3	-1.387022E-3	-7.842954E-4	-9.687408E-4	6.450214E-3	-8.812432E-3	-4.703536E-3	1.248782E-2	-4.321995E-3	-6.169900E-4	-1.751221E-3	4.071163E-4	-6.228974E-4	7.649039E-3	1.232025E-2	3.508956E-3	3.210924E-3	-4.936914E-3	-6.089901E-4	7.383802E-3	-2.753987E-3	5.981327E-3	-4.733627E-3	5.284059E-3	-1.025175E-2
5.320020E+2	5.993665E-3	5.374609E-3	5.297613E-3	-3.236030E-3	2.280520E-3	7.039048E-3	1.258728E-3	-6.548095E-3	4.743918E-3	1.037363E-3	1.203355E-2	-4.277961E-3	-4.310708E-4	3.385596E-3	2.667866E-3	-1.390503E-3	9.221892E-3	6.400031E-3	2.302805E-3	4.403843E-3	4.158157E-3	8.396791E-3	-4.638959E-5	9.690435E-3	3.675954E-4	-6.872270E-3	9.469510E-3	8.558109E-3	6.970843E-3	-8.487137E-4	1.134449E-2	9.335402E-4	8.004239E-3	4.811748E-3	2.027851E-3	4.718413E-3	4.502805E-3	5.194093E-3	-2.585754E-3	2.480998E-3	5.027867E-3	-6.864273E-4	-1.316918E-3	1.993122E-3	-2.627466E-3	1.362900E-3	8.670826E-3	3.164183E-3	4.339073E-3	7.071571E-3	-6.384959E-4	3.593336E-4	5.619404E-3	4.519982E-3	-3.228629E-3	-5.258182E-4	1.296162E-2	1.102594E-2	7.168594E-4	6.999339E-3	1.362641E-3	1.999876E-3	6.556189E-3	-1.046322E-3	1.882988E-3	6.852835E-3	6.333089E-4	3.626193E-3	5.381588E-3	3.970282E-3	2.331801E-3	1.623084E-3	8.321384E-3	3.652667E-3	-1.244210E-3	1.445799E-3	-1.889367E-3	5.958495E-3	7.053131E-3	1.232004E-2	5.556303E-3	6.492471E-3	5.370236E-3	6.792811E-3	3.772261E-3	1.123260E-2	-4.391353E-3	-4.724757E-4	-1.044592E-3	-1.106057E-3	6.940197E-3	-3.012292E-3	-1.194218E-3	-4.678524E-3	-3.963368E-4	-1.503092E-3	-2.181888E-3	1.034421E-2	1.161715E-3	-1.063297E-2	6.995622E-3	-1.802652E-3	5.119705E-3	-2.367679E-3	1.190275E-2	-1.809404E-3	5.593389E-3	-4.672761E-3	8.245398E-4	1.479800E-3	-1.849070E-3	-3.930206E-3	5.204764E-3	-3.182462E-3	-8.371434E-3	-2.620595E-3	5.351021E-4	1.565128E-3	-4.599289E-4	-4.581719E-3	1.013651E-2	-3.807254E-3	-4.636172E-3	6.477650E-3	5.202703E-3	5.433130E-3	-5.361396E-4	9.694246E-5	5.028468E-3	1.117624E-3	6.880786E-3	5.218302E-3	3.329565E-3	1.151939E-3	6.011480E-3	1.169669E-3	2.382571E-3	-2.111939E-3	-1.535525E-3	-4.547473E-3	-1.361670E-3	2.342825E-3	-1.939941E-3	1.675628E-3	-1.216483E-3	4.935823E-3	1.167086E-2	1.523821E-3	-2.290013E-3	4.291832E-3	-1.616845E-4	7.951967E-3	-4.573336E-3	-2.930058E-3	7.505090E-3	-9.167606E-3	3.094681E-3	5.975163E-3	6.204369E-3	-2.408411E-3	9.444793E-4	1.014481E-3	5.084964E-3	-1.285705E-3	6.575780E-4	-2.719463E-3	1.424646E-2	3.020868E-3	1.403323E-2	-8.968551E-3	-1.784930E-2
5.325170E+2	2.507820E-2	1.264165E-3	1.085685E-2	-2.598555E-2	1.379847E-2	1.711678E-3	1.697291E-2	1.329108E-2	7.220720E-3	2.322481E-3	8.106888E-3	3.739052E-3	1.902509E-2	9.380160E-3	9.859043E-3	1.398826E-2	6.837270E-3	1.047296E-2	1.324044E-2	-1.197786E-3	5.825630E-3	8.552252E-3	7.037119E-3	9.863511E-3	1.378425E-2	1.025558E-2	6.745630E-3	-1.999350E-3	7.961593E-3	1.229663E-2	2.253239E-3	6.795877E-3	4.090093E-4	4.416249E-3	7.385123E-3	8.986039E-3	6.547855E-3	3.999376E-3	1.799580E-3	8.310526E-3	3.874639E-3	4.008950E-3	9.592521E-3	8.193565E-3	1.431846E-2	5.018089E-3	3.948688E-3	-3.792793E-3	2.197113E-3	6.642626E-3	1.202016E-2	8.041512E-3	1.440214E-2	4.650377E-3	1.228283E-2	7.413082E-3	2.236957E-3	1.762352E-5	8.912902E-3	1.070495E-2	1.418766E-2	1.460644E-2	3.421399E-3	4.296840E-3	8.980807E-3	5.926850E-3	2.540431E-3	-4.093313E-3	1.035374E-2	5.501656E-3	1.356275E-2	5.815175E-3	7.401567E-4	9.855076E-3	1.693852E-2	2.603978E-3	1.267122E-2	1.053069E-2	2.157283E-3	7.366728E-3	3.910882E-3	5.497066E-3	8.034998E-3	7.568874E-3	1.644429E-2	7.918621E-3	8.943344E-3	8.764125E-3	1.599001E-2	8.961079E-3	6.025086E-3	2.261205E-3	1.328245E-2	1.161477E-2	1.693102E-2	8.191427E-3	1.157283E-2	2.260143E-3	7.469075E-3	1.659840E-2	1.259477E-2	8.373777E-3	1.210677E-2	5.144481E-3	6.105306E-3	4.835927E-3	8.702267E-3	3.968404E-3	3.355698E-3	5.733977E-3	4.123826E-3	9.038336E-3	3.370966E-3	8.572559E-3	1.344140E-2	4.856164E-3	1.365970E-2	1.049654E-2	1.046675E-2	5.921872E-3	1.661675E-3	1.024109E-2	7.979110E-3	1.200471E-2	3.003468E-3	1.249341E-2	1.191639E-2	1.124872E-2	5.124397E-3	7.652154E-3	8.787473E-3	1.231991E-2	7.205503E-3	8.418701E-3	5.105302E-3	1.293973E-2	1.878158E-3	1.761826E-2	9.352540E-3	8.257799E-3	7.628444E-3	2.925038E-3	4.828071E-3	1.402643E-2	3.988770E-3	4.456894E-3	6.329527E-3	1.226055E-2	1.211892E-2	1.017073E-2	8.212755E-3	9.134978E-4	1.574237E-2	3.785822E-3	7.060392E-3	9.621420E-3	6.518970E-3	1.384547E-2	8.602645E-3	2.029662E-3	-5.787399E-4	7.029028E-3	7.047397E-3	2.016270E-2	7.612281E-3	5.644676E-3	5.379605E-4	3.163221E-3	5.593598E-3	5.523998E-3	3.652472E-2
5.330030E+2	1.064934E-2	8.035123E-3	1.458721E-4	1.298514E-1	1.096528E-2	1.481094E-2	1.399807E-2	1.702081E-2	4.992536E-3	2.278217E-2	9.989236E-3	1.481723E-2	1.349971E-2	7.870021E-3	1.532514E-2	1.163369E-2	1.761345E-2	1.396933E-2	1.982019E-2	9.793325E-3	1.825506E-2	1.514829E-2	1.322996E-2	1.731620E-2	2.847553E-2	2.687552E-2	1.554897E-2	1.162992E-2	1.064049E-2	1.022360E-2	8.601084E-3	7.377614E-3	1.067570E-2	1.616388E-2	1.331532E-2	1.564708E-2	1.100117E-2	2.803081E-3	1.526318E-2	1.654697E-2	1.499326E-2	2.250221E-2	8.533799E-3	1.323894E-2	2.292513E-2	1.973869E-2	1.743741E-2	1.182184E-2	1.534931E-2	2.153384E-2	1.845600E-2	1.438936E-2	1.458033E-2	1.984010E-2	1.105053E-2	2.284315E-2	8.429405E-3	9.081131E-3	4.735168E-3	9.702624E-3	1.999874E-2	2.858562E-2	2.011394E-2	1.033686E-2	1.992524E-2	1.105245E-2	1.998823E-2	2.392033E-2	2.730030E-2	1.172466E-2	5.060280E-3	1.788775E-2	1.509089E-2	2.439651E-2	1.201810E-2	1.571840E-2	8.532843E-3	1.689593E-2	6.166598E-3	1.691901E-2	2.723029E-2	1.493566E-2	1.063203E-2	2.007171E-2	1.873332E-2	4.594428E-3	2.132894E-2	1.145223E-2	7.069241E-3	1.967355E-2	2.416156E-2	2.679292E-2	1.606281E-2	2.622627E-2	1.012267E-2	2.377978E-2	1.463897E-2	1.253462E-2	1.450824E-2	1.594512E-2	1.138708E-2	2.008206E-2	1.625329E-2	2.097822E-2	1.717386E-2	1.807797E-2	1.007492E-2	1.204082E-2	2.698380E-2	1.233752E-2	1.559217E-2	2.107016E-2	1.300502E-2	2.183573E-2	1.775501E-2	1.219529E-2	2.504018E-2	2.198045E-2	1.961364E-2	1.943282E-2	5.792116E-3	8.670785E-3	1.630512E-2	1.643398E-2	2.451343E-2	1.223681E-2	2.096434E-2	2.251149E-2	2.116674E-2	1.980475E-2	1.438517E-2	1.506926E-2	1.263855E-2	1.413553E-2	1.925340E-2	1.448701E-2	3.219363E-3	1.099050E-2	1.849980E-2	1.186782E-2	1.901083E-2	9.007937E-3	1.985385E-2	9.396362E-3	2.580623E-2	1.741479E-2	1.689329E-2	1.941063E-2	1.520821E-2	1.752200E-2	1.854941E-2	1.862994E-2	1.776257E-2	1.113855E-2	1.772181E-2	1.110430E-2	1.933376E-2	1.310847E-2	2.310024E-2	1.566895E-2	2.001670E-2	1.918010E-3	7.640155E-3	1.748875E-2	2.412651E-2	1.507037E-2	2.128070E-2	1.738190E-3	1.579420E-2	2.708629E-2	2.117216E-2
5.331520E+2	3.491225E-2	1.362013E-2	2.068018E-2	1.734280E-1	3.252010E-2	2.647722E-2	2.407189E-2	2.978879E-2	2.108315E-2	9.667641E-3	1.948248E-2	2.107604E-2	1.324072E-2	1.937153E-2	2.526097E-2	1.948338E-2	2.089583E-2	1.975132E-2	1.283409E-2	2.370765E-2	1.482277E-2	2.039484E-2	2.084989E-2	1.795647E-2	1.893410E-2	2.764523E-2	1.628474E-2	2.759252E-2	1.838696E-2	2.077480E-2	2.164389E-2	1.986847E-2	1.261999E-2	2.046818E-2	2.335908E-2	2.709134E-2	2.459202E-2	2.088551E-2	3.929317E-2	1.149850E-2	2.097604E-2	3.240024E-2	7.474883E-3	1.954495E-2	1.823661E-2	2.790002E-2	2.475706E-2	2.935100E-2	2.202775E-2	2.524422E-2	2.434173E-2	1.964351E-2	2.441758E-2	2.803239E-2	2.246717E-2	2.259378E-2	1.646802E-2	1.930939E-2	1.839673E-2	2.312742E-2	2.771416E-2	1.027045E-2	2.860721E-2	2.183941E-2	3.211156E-2	2.063796E-2	2.766883E-2	2.596623E-2	3.012407E-2	2.171275E-2	2.603600E-2	2.141881E-2	1.912608E-2	9.035261E-3	2.975857E-2	2.695420E-2	2.224299E-2	3.168512E-2	1.574017E-2	1.590549E-2	2.276339E-2	1.322918E-2	2.296726E-2	1.511893E-2	2.253023E-2	2.423923E-2	2.713023E-2	2.430235E-2	2.022021E-2	2.218788E-2	1.780140E-2	3.943953E-2	1.625026E-2	2.462323E-2	1.207238E-2	1.818599E-2	1.125099E-2	7.923038E-3	2.828546E-2	2.108717E-2	1.532774E-2	7.271216E-3	2.183780E-2	2.698341E-2	2.819926E-2	2.181623E-2	2.329265E-2	1.416016E-2	2.341177E-2	1.114997E-2	2.082746E-2	1.813228E-2	3.814781E-2	2.269439E-2	2.892124E-2	2.074494E-2	2.204177E-2	2.069113E-2	2.591738E-2	1.135604E-2	2.080751E-2	3.043774E-2	2.848006E-2	2.224672E-2	1.861593E-2	2.956604E-2	2.740281E-2	2.671988E-2	2.414590E-2	2.194538E-2	1.825419E-2	1.607002E-2	3.155898E-2	2.701602E-2	3.138558E-2	2.381135E-2	2.775880E-2	2.531259E-2	2.840441E-2	2.753635E-2	2.825796E-2	2.017164E-2	1.865513E-2	2.492549E-2	3.201612E-2	2.383895E-2	2.277633E-2	3.437955E-2	2.277497E-2	1.355258E-2	3.044233E-2	2.454308E-2	1.409713E-2	2.518007E-2	1.969168E-2	3.104852E-2	2.952842E-2	3.248808E-2	1.750044E-2	1.529372E-2	2.265883E-2	2.286151E-2	3.108840E-2	1.765628E-2	3.231989E-2	1.058468E-2	1.601587E-2	2.642295E-2	2.321311E-2	2.248441E-2	4.476063E-2
5.333080E+2	2.681575E-2	2.652688E-2	2.326644E-2	1.727678E-1	2.178620E-2	2.917727E-2	3.210328E-2	4.141158E-2	2.661178E-2	1.926838E-2	3.721536E-2	3.224019E-2	3.335317E-2	1.914654E-2	2.323479E-2	1.840793E-2	2.797010E-2	1.764040E-2	2.147604E-2	3.020271E-2	3.197851E-2	3.169073E-2	4.114357E-2	2.593214E-2	2.395953E-2	3.432517E-2	2.749303E-2	2.889790E-2	2.870956E-2	3.455444E-2	2.407236E-2	3.201851E-2	2.116228E-2	2.594595E-2	2.879215E-2	2.487564E-2	3.055672E-2	2.512042E-2	3.185816E-2	1.500905E-2	2.373303E-2	2.542166E-2	1.365154E-2	2.895335E-2	3.314658E-2	3.610333E-2	2.495709E-2	3.415566E-2	3.765527E-2	2.481929E-2	2.336938E-2	2.436519E-2	3.583138E-2	2.727485E-2	1.889084E-2	9.696025E-3	2.392794E-2	3.014305E-2	3.646906E-2	2.677479E-2	2.698673E-2	2.993470E-2	3.089939E-2	2.613573E-2	2.927871E-2	2.413767E-2	3.654236E-2	1.680274E-2	2.557814E-2	2.752512E-2	2.526293E-2	3.406162E-2	2.576785E-2	2.586083E-2	2.482629E-2	2.889028E-2	2.727294E-2	2.481571E-2	2.022248E-2	3.523858E-2	2.290611E-2	2.206876E-2	1.945500E-2	2.955477E-2	2.477598E-2	2.642553E-2	2.321498E-2	2.995038E-2	2.819844E-2	3.531493E-2	2.179892E-2	2.298120E-2	2.538954E-2	2.889441E-2	2.202571E-2	1.927243E-2	2.978014E-2	3.305472E-2	2.223970E-2	2.513383E-2	2.955342E-2	2.768473E-2	2.546792E-2	2.863239E-2	3.260615E-2	2.914073E-2	2.822400E-2	3.426976E-2	3.128421E-2	1.545446E-2	2.901723E-2	1.963031E-2	3.306184E-2	1.109466E-2	1.350821E-2	1.361501E-2	3.805221E-2	2.477567E-2	2.185043E-2	2.800189E-2	3.941674E-2	3.307139E-2	3.368611E-2	2.893696E-2	3.281030E-2	2.422557E-2	2.407678E-2	3.361575E-2	2.818593E-2	3.439436E-2	3.240496E-2	2.350269E-2	3.973134E-2	3.279267E-2	2.381798E-2	3.001233E-2	2.411406E-2	2.428435E-2	2.758449E-2	3.849149E-2	3.148198E-2	1.904362E-2	2.654553E-2	3.212461E-2	2.840324E-2	2.465542E-2	1.495048E-2	3.224688E-2	3.143072E-2	3.721302E-2	2.874086E-2	2.600928E-2	3.463699E-2	3.383676E-2	2.998455E-2	2.967340E-2	2.474964E-2	2.452746E-2	2.496316E-2	3.771403E-2	3.397789E-2	3.683565E-2	3.260509E-2	3.421875E-2	2.523833E-2	1.490508E-2	3.695588E-2	3.119881E-2	4.080337E-2	1.016717E-3	6.068931E-2
5.334580E+2	3.339388E-2	2.548297E-2	4.635493E-2	3.790329E-1	2.202869E-2	2.535937E-2	3.196108E-2	3.931801E-2	2.943541E-2	2.285307E-2	3.861541E-2	3.549755E-2	3.049672E-2	3.920524E-2	4.305349E-2	2.717163E-2	2.629057E-2	4.100698E-2	3.194195E-2	3.440870E-2	2.831459E-2	2.680286E-2	3.105692E-2	2.339583E-2	3.151922E-2	2.741287E-2	4.067424E-2	3.815847E-2	3.317358E-2	2.887960E-2	3.811434E-2	3.514694E-2	3.275422E-2	3.439446E-2	4.623460E-2	3.963704E-2	3.951092E-2	3.614060E-2	3.590176E-2	2.428166E-2	3.043203E-2	3.228995E-2	2.953863E-2	2.550145E-2	3.158136E-2	3.721292E-2	3.681205E-2	3.622306E-2	3.547073E-2	3.531446E-2	3.562083E-2	2.645054E-2	3.399939E-2	4.501147E-2	4.264335E-2	3.249233E-2	2.530912E-2	3.426523E-2	3.776130E-2	3.159121E-2	4.610009E-2	2.364426E-2	3.527965E-2	4.639741E-2	3.850324E-2	4.441094E-2	3.498950E-2	4.566309E-2	3.526914E-2	3.147385E-2	2.544745E-2	3.522387E-2	3.242751E-2	3.048984E-2	4.550918E-2	2.203498E-2	3.450628E-2	4.591700E-2	2.127017E-2	3.710220E-2	4.456914E-2	2.845395E-2	3.674754E-2	3.488503E-2	3.324839E-2	3.614010E-2	3.157999E-2	3.742333E-2	3.880459E-2	3.252586E-2	3.732314E-2	4.460258E-2	4.303236E-2	2.907461E-2	4.313420E-2	4.189516E-2	2.340384E-2	3.320994E-2	2.548128E-2	3.527709E-2	3.351971E-2	3.317157E-2	3.253702E-2	4.535236E-2	4.548390E-2	3.826915E-2	2.718946E-2	2.442659E-2	3.242672E-2	3.174631E-2	2.585510E-2	4.373149E-2	4.173421E-2	3.582379E-2	3.713211E-2	3.410312E-2	3.533956E-2	2.558333E-2	3.056151E-2	2.718560E-2	3.794368E-2	4.249231E-2	4.003969E-2	3.694778E-2	2.844137E-2	3.277444E-2	4.517942E-2	3.733449E-2	3.868139E-2	3.989677E-2	3.238950E-2	3.145868E-2	3.844373E-2	3.664395E-2	3.238014E-2	4.082840E-2	3.725720E-2	3.837207E-2	3.991581E-2	3.352251E-2	3.368158E-2	4.024005E-2	3.622910E-2	3.526597E-2	3.706826E-2	1.496102E-2	2.629210E-2	3.694872E-2	3.335935E-2	2.967841E-2	3.204145E-2	4.927825E-2	3.775827E-2	2.071693E-2	4.353531E-2	3.849442E-2	4.065603E-2	2.890463E-2	4.014684E-2	2.857270E-2	2.857672E-2	4.656232E-2	4.030101E-2	3.583535E-2	4.392987E-2	2.447046E-2	2.866092E-2	4.380570E-2	2.799456E-2	3.762277E-2	1.404033E-2
5.336080E+2	5.469556E-2	3.664622E-2	4.838399E-2	4.012084E-1	4.381442E-2	5.074807E-2	2.690143E-2	5.053047E-2	5.357163E-2	4.312036E-2	3.884671E-2	3.754980E-2	4.054588E-2	4.455613E-2	3.884058E-2	3.384730E-2	4.866694E-2	3.270708E-2	3.694916E-2	5.714304E-2	4.839315E-2	4.329520E-2	4.819922E-2	4.109797E-2	5.440412E-2	5.733118E-2	5.319605E-2	5.090581E-2	4.702107E-2	5.414486E-2	4.419164E-2	4.409570E-2	4.388288E-2	5.232967E-2	4.286480E-2	4.224570E-2	5.755840E-2	3.726865E-2	5.585500E-2	4.512621E-2	5.288700E-2	4.177954E-2	3.885131E-2	5.618435E-2	5.246951E-2	5.397960E-2	5.189540E-2	5.211601E-2	3.630745E-2	3.363865E-2	5.196185E-2	3.464449E-2	5.489010E-2	4.810163E-2	4.383764E-2	3.862623E-2	4.819667E-2	4.914204E-2	4.778965E-2	4.225144E-2	4.162934E-2	3.822780E-2	4.722799E-2	4.803895E-2	4.052457E-2	2.894669E-2	5.150511E-2	4.340234E-2	3.551124E-2	4.584355E-2	5.249617E-2	4.749086E-2	4.110347E-2	3.403357E-2	2.916226E-2	3.511817E-2	4.223727E-2	5.510556E-2	3.959058E-2	3.244880E-2	5.119109E-2	4.798574E-2	5.107230E-2	3.854381E-2	5.011657E-2	3.938471E-2	6.212846E-2	3.537540E-2	5.079023E-2	4.455044E-2	4.799644E-2	4.182371E-2	6.029426E-2	3.930110E-2	4.295465E-2	4.485994E-2	3.489629E-2	5.013990E-2	5.683014E-2	3.215312E-2	4.133841E-2	4.648056E-2	3.967464E-2	4.022585E-2	4.386747E-2	4.626016E-2	3.633757E-2	3.461779E-2	4.036338E-2	3.382599E-2	5.016649E-2	4.313308E-2	5.841597E-2	4.710438E-2	4.194404E-2	4.637673E-2	3.937990E-2	3.769747E-2	4.406559E-2	4.974825E-2	3.426008E-2	3.965722E-2	4.014492E-2	5.093400E-2	5.256923E-2	5.065636E-2	4.708949E-2	5.265499E-2	5.111255E-2	4.711416E-2	4.048189E-2	3.456623E-2	5.801732E-2	4.351378E-2	5.249173E-2	5.474221E-2	5.180402E-2	6.470418E-2	3.728354E-2	3.574619E-2	3.845562E-2	3.504303E-2	4.129792E-2	4.076150E-2	5.165910E-2	4.891155E-2	5.323421E-2	4.736065E-2	4.929391E-2	4.101836E-2	4.153150E-2	4.958445E-2	5.918921E-2	5.131223E-2	6.355983E-2	5.439600E-2	2.617828E-2	3.561228E-2	4.861415E-2	4.551762E-2	4.745088E-2	4.748183E-2	4.598725E-2	6.921664E-2	5.417698E-2	4.503812E-2	4.240459E-2	3.711150E-2	3.693447E-2	4.759479E-2	8.527883E-2
5.337580E+2	6.197590E-2	5.521211E-2	6.191052E-2	3.024224E-1	6.117120E-2	5.957106E-2	6.024970E-2	6.940373E-2	4.773467E-2	6.457831E-2	7.033460E-2	5.931421E-2	6.851031E-2	4.142137E-2	5.567826E-2	5.219469E-2	7.174389E-2	5.962532E-2	6.612397E-2	4.927336E-2	5.429330E-2	5.098430E-2	6.022594E-2	4.826165E-2	7.182284E-2	5.399624E-2	6.051232E-2	5.856503E-2	5.112483E-2	5.627555E-2	4.761260E-2	5.309845E-2	6.225139E-2	5.194968E-2	6.839921E-2	6.343460E-2	6.408297E-2	5.790041E-2	6.045996E-2	5.597325E-2	5.510299E-2	6.216932E-2	6.524317E-2	6.825419E-2	5.142174E-2	5.920542E-2	6.526798E-2	5.148255E-2	4.254125E-2	7.806617E-2	5.625043E-2	6.180903E-2	4.286835E-2	7.314157E-2	7.160132E-2	5.163082E-2	4.724425E-2	5.618045E-2	5.624503E-2	4.481751E-2	5.331567E-2	5.073081E-2	6.723428E-2	6.160829E-2	5.902529E-2	7.405751E-2	4.296984E-2	5.991282E-2	6.247890E-2	4.987665E-2	5.766697E-2	6.079677E-2	6.497766E-2	6.281858E-2	5.571664E-2	5.534318E-2	5.666024E-2	7.196751E-2	4.591164E-2	6.515604E-2	6.843346E-2	5.761489E-2	5.375789E-2	5.775240E-2	6.566096E-2	6.739437E-2	5.415877E-2	5.576261E-2	6.883205E-2	7.563419E-2	6.424530E-2	7.319624E-2	7.064919E-2	5.004849E-2	5.532379E-2	7.314308E-2	5.482508E-2	5.936116E-2	6.707244E-2	4.351725E-2	5.414056E-2	6.036206E-2	5.975726E-2	6.738763E-2	5.872068E-2	4.889183E-2	4.434030E-2	5.089383E-2	5.657852E-2	6.976496E-2	6.700506E-2	5.260949E-2	4.283727E-2	4.994937E-2	6.768479E-2	3.813066E-2	5.560132E-2	5.980517E-2	6.100805E-2	6.221093E-2	5.560821E-2	6.240080E-2	5.032338E-2	5.578742E-2	5.244394E-2	5.795683E-2	5.542989E-2	5.251743E-2	5.264277E-2	4.541087E-2	6.146590E-2	7.674423E-2	5.505034E-2	5.918690E-2	6.008933E-2	5.878540E-2	5.605936E-2	5.801524E-2	5.136061E-2	6.975280E-2	5.671680E-2	6.266635E-2	6.670986E-2	5.021023E-2	7.154615E-2	8.008275E-2	6.780894E-2	5.795938E-2	6.980072E-2	5.647208E-2	4.473576E-2	5.798463E-2	6.078872E-2	5.094869E-2	4.883259E-2	5.768697E-2	5.172646E-2	6.038700E-2	6.805981E-2	5.080235E-2	5.450479E-2	6.365868E-2	5.410253E-2	4.955821E-2	6.197038E-2	5.157603E-2	6.173623E-2	7.544890E-2	2.403732E-2	4.786227E-2	6.989267E-2
5.339400E+2	9.496733E-2	6.104229E-2	8.152404E-2	3.975093E-1	9.000434E-2	8.965710E-2	8.599754E-2	9.678086E-2	8.106049E-2	8.396114E-2	8.056390E-2	5.213134E-2	6.848781E-2	7.742249E-2	8.826850E-2	7.962253E-2	7.506348E-2	8.890522E-2	7.545486E-2	8.141637E-2	7.963936E-2	7.409512E-2	7.556758E-2	8.359686E-2	9.478661E-2	8.636524E-2	1.008875E-1	8.274780E-2	9.490026E-2	8.443481E-2	9.281687E-2	8.583668E-2	9.030011E-2	7.944709E-2	8.827881E-2	9.330524E-2	8.297648E-2	8.903356E-2	9.162913E-2	9.622814E-2	9.391612E-2	9.143049E-2	8.007482E-2	8.859220E-2	9.272353E-2	8.954574E-2	8.907323E-2	9.199145E-2	1.010134E-1	7.803380E-2	6.859374E-2	7.875348E-2	8.180292E-2	8.725278E-2	9.706820E-2	9.385376E-2	1.015938E-1	1.011662E-1	8.112274E-2	8.591510E-2	9.695821E-2	1.009092E-1	8.942080E-2	9.821551E-2	9.273345E-2	9.061122E-2	8.592324E-2	7.772150E-2	9.579115E-2	9.800150E-2	7.997880E-2	8.333805E-2	9.404637E-2	8.438343E-2	7.660545E-2	8.446581E-2	8.574271E-2	9.516856E-2	8.478952E-2	7.743568E-2	8.163510E-2	8.922607E-2	8.048637E-2	9.605421E-2	9.588437E-2	8.436191E-2	7.869790E-2	1.001001E-1	8.754978E-2	8.422729E-2	8.552035E-2	1.167180E-1	8.052303E-2	8.788214E-2	7.986899E-2	9.159124E-2	8.329587E-2	8.784499E-2	7.796380E-2	7.893751E-2	8.739854E-2	8.159953E-2	8.438075E-2	1.118433E-1	8.959651E-2	8.104818E-2	8.662383E-2	7.997566E-2	7.481940E-2	8.028955E-2	8.023530E-2	7.966102E-2	8.340079E-2	7.415254E-2	9.188336E-2	8.086290E-2	8.738605E-2	7.558234E-2	8.041138E-2	8.032905E-2	7.256799E-2	7.778709E-2	8.239909E-2	8.837964E-2	9.023415E-2	1.009788E-1	1.021847E-1	8.803077E-2	8.816079E-2	8.501891E-2	9.358800E-2	7.673411E-2	8.587879E-2	1.038065E-1	9.140332E-2	8.636370E-2	7.651556E-2	9.029398E-2	9.325773E-2	8.824203E-2	7.730840E-2	7.233418E-2	8.977350E-2	7.804045E-2	8.942793E-2	8.022122E-2	6.676567E-2	9.554451E-2	8.102642E-2	8.188434E-2	9.410488E-2	8.298783E-2	6.863396E-2	8.350860E-2	1.037445E-1	1.032228E-1	8.529728E-2	7.871088E-2	9.666233E-2	8.686181E-2	8.820307E-2	8.289157E-2	7.373098E-2	8.769430E-2	1.104731E-1	8.689860E-2	8.477696E-2	7.414550E-2	1.093877E-1	6.267500E-2	1.573455E-1
5.340740E+2	1.227922E-1	9.969952E-2	1.122826E-1	5.133459E-1	1.160513E-1	1.046462E-1	1.145939E-1	1.053300E-1	1.119800E-1	1.228983E-1	1.188055E-1	1.068997E-1	1.180276E-1	1.098850E-1	1.265119E-1	1.194255E-1	1.049095E-1	1.068799E-1	1.141525E-1	1.016747E-1	1.132696E-1	1.013283E-1	1.068313E-1	9.810067E-2	1.429223E-1	1.469335E-1	1.258853E-1	1.369701E-1	1.334983E-1	1.417661E-1	1.261657E-1	1.209455E-1	1.438587E-1	1.187652E-1	1.148044E-1	1.179963E-1	1.349210E-1	1.338523E-1	1.308843E-1	1.257665E-1	1.381692E-1	1.361405E-1	1.158129E-1	1.184096E-1	1.259372E-1	1.251434E-1	1.207928E-1	1.305097E-1	1.246809E-1	1.442008E-1	1.246382E-1	1.264426E-1	1.283741E-1	1.337271E-1	1.294154E-1	1.207938E-1	1.263069E-1	1.254486E-1	1.094764E-1	1.208124E-1	1.258446E-1	1.225043E-1	1.215185E-1	1.032887E-1	1.217675E-1	1.338808E-1	1.402988E-1	1.265322E-1	1.261187E-1	1.435839E-1	1.240947E-1	1.113580E-1	1.180404E-1	1.258447E-1	1.091674E-1	1.055108E-1	1.217251E-1	1.257810E-1	1.243915E-1	1.171166E-1	1.301825E-1	1.028059E-1	1.240751E-1	1.114688E-1	1.262134E-1	1.192424E-1	1.179081E-1	1.277006E-1	1.242302E-1	1.102273E-1	1.313789E-1	1.213799E-1	1.273324E-1	1.402373E-1	1.109028E-1	1.320023E-1	1.280681E-1	1.315422E-1	1.398000E-1	1.347742E-1	1.448492E-1	1.294139E-1	1.276399E-1	1.167583E-1	1.322326E-1	1.466717E-1	1.273807E-1	1.166648E-1	1.214203E-1	1.286643E-1	1.232462E-1	1.280213E-1	1.095232E-1	1.179640E-1	1.352831E-1	1.159178E-1	1.160211E-1	1.069438E-1	1.249063E-1	1.012305E-1	1.224803E-1	1.390528E-1	1.223133E-1	1.264941E-1	1.185637E-1	1.241360E-1	1.170517E-1	1.181800E-1	1.152978E-1	1.115168E-1	1.110925E-1	1.052395E-1	1.303392E-1	1.212872E-1	1.187176E-1	1.338604E-1	1.310510E-1	1.408732E-1	1.336864E-1	1.252640E-1	1.220731E-1	1.105235E-1	1.373458E-1	1.412085E-1	1.239220E-1	1.289007E-1	1.271062E-1	1.080025E-1	1.255332E-1	1.297842E-1	1.173553E-1	1.318861E-1	1.404775E-1	1.267599E-1	1.300616E-1	1.272403E-1	1.222970E-1	1.248943E-1	1.392688E-1	1.127631E-1	1.358140E-1	1.414121E-1	1.397646E-1	1.414569E-1	1.236956E-1	1.215872E-1	1.197591E-1	1.315223E-1	1.406200E-1	9.721167E-2	9.440914E-2
5.342040E+2	1.722859E-1	1.790607E-1	1.699630E-1	1.280623E+0	1.606537E-1	1.692637E-1	1.760367E-1	1.746069E-1	1.776650E-1	1.738737E-1	1.839805E-1	1.972088E-1	1.835813E-1	1.767853E-1	1.703877E-1	1.816006E-1	1.634108E-1	1.856353E-1	1.790248E-1	1.721303E-1	1.672985E-1	1.866721E-1	1.752412E-1	1.651332E-1	2.242391E-1	2.183498E-1	2.253079E-1	2.155750E-1	2.079308E-1	1.984436E-1	1.945199E-1	1.885164E-1	2.058944E-1	1.949527E-1	1.853776E-1	2.140828E-1	1.953410E-1	1.990673E-1	1.995923E-1	1.948457E-1	2.031729E-1	1.828251E-1	2.049991E-1	2.018338E-1	1.996451E-1	1.790055E-1	1.877022E-1	2.046021E-1	1.790967E-1	2.002755E-1	1.758685E-1	1.963365E-1	1.778043E-1	2.117257E-1	1.956272E-1	1.991934E-1	1.813610E-1	1.852505E-1	1.914027E-1	1.753536E-1	1.912680E-1	1.821548E-1	1.876564E-1	1.814486E-1	1.810579E-1	1.768617E-1	1.856429E-1	1.902884E-1	1.855586E-1	1.906529E-1	1.873215E-1	1.976722E-1	2.060389E-1	1.786499E-1	1.839561E-1	1.913269E-1	1.849374E-1	1.927335E-1	1.838210E-1	1.823265E-1	1.864753E-1	1.966405E-1	2.168820E-1	1.872741E-1	1.916479E-1	2.003050E-1	1.926288E-1	1.946462E-1	2.069145E-1	1.955822E-1	1.996351E-1	1.947978E-1	1.788078E-1	2.044125E-1	1.768519E-1	2.022437E-1	1.778168E-1	1.893819E-1	1.993983E-1	1.908339E-1	2.113341E-1	1.823139E-1	1.970124E-1	1.975599E-1	1.982721E-1	1.828551E-1	1.923929E-1	1.588241E-1	1.994473E-1	1.693399E-1	1.843636E-1	1.899113E-1	1.848869E-1	1.844934E-1	1.805228E-1	2.029246E-1	2.052454E-1	1.729518E-1	1.863420E-1	2.027176E-1	1.838678E-1	1.807516E-1	1.779470E-1	1.990958E-1	1.960590E-1	1.910321E-1	2.092963E-1	2.085453E-1	1.972528E-1	1.963331E-1	1.802775E-1	1.718455E-1	1.988636E-1	1.958560E-1	2.038076E-1	1.793646E-1	1.832345E-1	1.796221E-1	2.017012E-1	1.745110E-1	1.909689E-1	1.931223E-1	1.954559E-1	1.853233E-1	2.020893E-1	1.952351E-1	1.739194E-1	1.700194E-1	2.022694E-1	1.846900E-1	2.012866E-1	1.960762E-1	1.873993E-1	1.843991E-1	1.952600E-1	1.836294E-1	2.150895E-1	1.960053E-1	1.826121E-1	1.776276E-1	1.918687E-1	2.058207E-1	1.878614E-1	1.988592E-1	1.948854E-1	1.816707E-1	2.027542E-1	1.916567E-1	1.588563E-1	1.589282E-1	2.149882E-1
5.343550E+2	2.898396E-1	3.156973E-1	2.844188E-1	2.085335E+0	2.977283E-1	2.980312E-1	2.840281E-1	3.007498E-1	3.110185E-1	3.002764E-1	3.161071E-1	3.034595E-1	2.821179E-1	2.930443E-1	3.201081E-1	2.998957E-1	3.071550E-1	2.916919E-1	3.028269E-1	2.991418E-1	3.016826E-1	3.231982E-1	3.059552E-1	2.978686E-1	4.356735E-1	3.719361E-1	3.659207E-1	3.723034E-1	3.558036E-1	3.616082E-1	3.453831E-1	3.497892E-1	3.473366E-1	3.190070E-1	3.569949E-1	3.642233E-1	3.458426E-1	3.456757E-1	3.568721E-1	3.264671E-1	3.235945E-1	3.466971E-1	3.210009E-1	3.344959E-1	3.245537E-1	3.478174E-1	3.298097E-1	3.136725E-1	3.353397E-1	3.143600E-1	3.124048E-1	3.332415E-1	3.200567E-1	3.178767E-1	3.263159E-1	3.271240E-1	3.089262E-1	3.233404E-1	3.085137E-1	3.207800E-1	3.234665E-1	3.052986E-1	3.328037E-1	3.310496E-1	3.173824E-1	3.442375E-1	3.309830E-1	3.506443E-1	3.247100E-1	3.344898E-1	3.276791E-1	3.202454E-1	3.507572E-1	3.095278E-1	3.279695E-1	3.311445E-1	3.101078E-1	3.371446E-1	3.114967E-1	3.020621E-1	2.987630E-1	3.575059E-1	3.352373E-1	3.277056E-1	3.252838E-1	3.389854E-1	3.209319E-1	3.335365E-1	3.286916E-1	3.269729E-1	3.291399E-1	2.949439E-1	3.290060E-1	3.095331E-1	3.339074E-1	3.237885E-1	3.109657E-1	3.249498E-1	3.314494E-1	2.817983E-1	3.287352E-1	3.138085E-1	3.267058E-1	3.330761E-1	3.069643E-1	3.217687E-1	3.093155E-1	3.074661E-1	3.275112E-1	3.252986E-1	3.023006E-1	3.102746E-1	3.410452E-1	3.205099E-1	3.217099E-1	3.113552E-1	3.085450E-1	3.440631E-1	3.022767E-1	3.248395E-1	3.521549E-1	3.387838E-1	3.085371E-1	3.307110E-1	3.275214E-1	3.276208E-1	3.269200E-1	3.300783E-1	3.201668E-1	3.110697E-1	3.085774E-1	3.270979E-1	3.438776E-1	3.405961E-1	3.342852E-1	3.102435E-1	3.458243E-1	2.970651E-1	3.096821E-1	3.317938E-1	3.203941E-1	3.340044E-1	3.144620E-1	3.291787E-1	3.062715E-1	3.433422E-1	3.429789E-1	3.225361E-1	3.431438E-1	3.117452E-1	3.286472E-1	3.248100E-1	2.948745E-1	3.530903E-1	3.486405E-1	3.633336E-1	3.315399E-1	3.269367E-1	3.345090E-1	3.586019E-1	3.084460E-1	3.148835E-1	3.175186E-1	3.229067E-1	3.404781E-1	3.110902E-1	3.302621E-1	3.613281E-1	3.363635E-1	3.610682E-1	3.509532E-1
5.345110E+2	5.529188E-1	5.031845E-1	5.006630E-1	2.738998E+0	5.012585E-1	5.828105E-1	5.120855E-1	5.444755E-1	5.017946E-1	5.528829E-1	5.318051E-1	5.099221E-1	5.195867E-1	5.379946E-1	5.397889E-1	5.333495E-1	5.283794E-1	5.254219E-1	5.364274E-1	5.471230E-1	5.218697E-1	5.490904E-1	5.358249E-1	5.768901E-1	6.334790E-1	6.361019E-1	6.504790E-1	5.921471E-1	6.080671E-1	6.094819E-1	5.976837E-1	6.060602E-1	5.955225E-1	6.098406E-1	6.112495E-1	5.449630E-1	5.792170E-1	5.542142E-1	5.775909E-1	5.500621E-1	5.865806E-1	5.712200E-1	5.630583E-1	6.175898E-1	5.451536E-1	5.516830E-1	5.793844E-1	5.952633E-1	5.682848E-1	5.736169E-1	5.660506E-1	6.209001E-1	5.904834E-1	5.469037E-1	5.794423E-1	5.708760E-1	6.070839E-1	5.344797E-1	5.751906E-1	6.163412E-1	5.944960E-1	5.772725E-1	5.738545E-1	5.675913E-1	5.591266E-1	5.851342E-1	5.800027E-1	5.732569E-1	5.832395E-1	6.074383E-1	5.331861E-1	5.575314E-1	5.695950E-1	5.432069E-1	5.596853E-1	5.365587E-1	5.701341E-1	5.800444E-1	5.931915E-1	5.235191E-1	5.527025E-1	5.907217E-1	5.674354E-1	5.847377E-1	5.572122E-1	5.867011E-1	5.735772E-1	5.588712E-1	5.753880E-1	5.223990E-1	5.772101E-1	5.659783E-1	5.778844E-1	5.375460E-1	6.004863E-1	5.688839E-1	5.444913E-1	5.547985E-1	5.490770E-1	5.723572E-1	5.749572E-1	5.417028E-1	5.922675E-1	5.701814E-1	5.367635E-1	5.407129E-1	5.379405E-1	5.580920E-1	5.860159E-1	5.641739E-1	5.776872E-1	5.584630E-1	5.632873E-1	5.771537E-1	5.621097E-1	5.627646E-1	5.609405E-1	5.857442E-1	5.400073E-1	5.535475E-1	5.657727E-1	6.039944E-1	5.483910E-1	5.793669E-1	5.302863E-1	5.527478E-1	5.598211E-1	5.675989E-1	5.341529E-1	5.398337E-1	5.388435E-1	5.460681E-1	5.811228E-1	5.552788E-1	5.685388E-1	5.714197E-1	5.806747E-1	6.001060E-1	5.568089E-1	5.685320E-1	5.508491E-1	5.630730E-1	5.718558E-1	5.681092E-1	5.570664E-1	5.446884E-1	5.746830E-1	5.448735E-1	5.813546E-1	5.489295E-1	5.724026E-1	5.561950E-1	5.876039E-1	5.695066E-1	5.483484E-1	5.145128E-1	5.540959E-1	5.395435E-1	5.664315E-1	5.622663E-1	5.325399E-1	5.590535E-1	5.950377E-1	5.497371E-1	5.687361E-1	5.660637E-1	5.631103E-1	6.027337E-1	5.634641E-1	5.641762E-1	5.998388E-1
5.346620E+2	8.538518E-1	8.785788E-1	8.446076E-1	4.675167E+0	8.281233E-1	8.535261E-1	8.472025E-1	8.650945E-1	8.760142E-1	8.790839E-1	8.495779E-1	8.590948E-1	8.869134E-1	8.608016E-1	8.918783E-1	8.824858E-1	8.633274E-1	8.413491E-1	8.638856E-1	9.022188E-1	8.901817E-1	8.602683E-1	8.661308E-1	8.752882E-1	1.008197E+0	9.444639E-1	9.894488E-1	9.195185E-1	9.355318E-1	9.501273E-1	9.476340E-1	9.191802E-1	9.557794E-1	9.385567E-1	9.213172E-1	9.125728E-1	9.179735E-1	9.143710E-1	8.902854E-1	9.491349E-1	9.675770E-1	9.015535E-1	9.104619E-1	9.452616E-1	9.076479E-1	9.103462E-1	9.404934E-1	9.376958E-1	9.317767E-1	9.211336E-1	8.303097E-1	9.344249E-1	9.106845E-1	9.149960E-1	9.439885E-1	8.850967E-1	9.228982E-1	9.101372E-1	8.797871E-1	9.329269E-1	9.135488E-1	9.474074E-1	8.612795E-1	8.741402E-1	8.828744E-1	8.518453E-1	8.890119E-1	8.994822E-1	9.078334E-1	9.183150E-1	9.036253E-1	9.160815E-1	8.911198E-1	8.630153E-1	8.646221E-1	9.145646E-1	8.414571E-1	8.991626E-1	9.241406E-1	8.703531E-1	9.263917E-1	8.729358E-1	9.569751E-1	9.413763E-1	8.860214E-1	9.114499E-1	8.973445E-1	8.719005E-1	9.156287E-1	8.701787E-1	8.955365E-1	8.900837E-1	9.299120E-1	8.698670E-1	8.947152E-1	9.687216E-1	8.880342E-1	8.996739E-1	8.932571E-1	8.801388E-1	8.889424E-1	8.835073E-1	9.109843E-1	9.193989E-1	8.910508E-1	8.921099E-1	9.162948E-1	9.354937E-1	8.949031E-1	9.082068E-1	9.246182E-1	9.009361E-1	8.952851E-1	9.176319E-1	9.402309E-1	8.983903E-1	8.901005E-1	8.893636E-1	8.492275E-1	8.735117E-1	9.082118E-1	8.620625E-1	8.594405E-1	9.213566E-1	8.914457E-1	8.873171E-1	9.262690E-1	9.094017E-1	9.274830E-1	8.964250E-1	8.962851E-1	8.343610E-1	8.556149E-1	9.328843E-1	9.351610E-1	8.311412E-1	8.960689E-1	8.830212E-1	8.903362E-1	9.240663E-1	9.142420E-1	9.110360E-1	9.212828E-1	9.277725E-1	8.724877E-1	8.964128E-1	9.054466E-1	8.963357E-1	8.835989E-1	9.368057E-1	9.114917E-1	9.111429E-1	9.206030E-1	8.972043E-1	9.202233E-1	9.467156E-1	9.027529E-1	9.012598E-1	9.165777E-1	9.312246E-1	9.008848E-1	8.784986E-1	8.615362E-1	9.300637E-1	9.213473E-1	8.914543E-1	9.138808E-1	9.440428E-1	9.728247E-1	8.412411E-1	1.018517E+0
5.348020E+2	1.217929E+0	1.196878E+0	1.144934E+0	6.708544E+0	1.192643E+0	1.210528E+0	1.180786E+0	1.265035E+0	1.229408E+0	1.179510E+0	1.200265E+0	1.230749E+0	1.194388E+0	1.225456E+0	1.179857E+0	1.251788E+0	1.186161E+0	1.229268E+0	1.213083E+0	1.202996E+0	1.221117E+0	1.181896E+0	1.197865E+0	1.213202E+0	1.332141E+0	1.281797E+0	1.285438E+0	1.279564E+0	1.283663E+0	1.285438E+0	1.322223E+0	1.230248E+0	1.302025E+0	1.301353E+0	1.276853E+0	1.252162E+0	1.256859E+0	1.218834E+0	1.261347E+0	1.278322E+0	1.294910E+0	1.235563E+0	1.216960E+0	1.289189E+0	1.234654E+0	1.266154E+0	1.243393E+0	1.242143E+0	1.215510E+0	1.205834E+0	1.221323E+0	1.233381E+0	1.252474E+0	1.202479E+0	1.243480E+0	1.232453E+0	1.289154E+0	1.176981E+0	1.264007E+0	1.302136E+0	1.306229E+0	1.212305E+0	1.240886E+0	1.262084E+0	1.189596E+0	1.281408E+0	1.251442E+0	1.220929E+0	1.219494E+0	1.236360E+0	1.209290E+0	1.266277E+0	1.247759E+0	1.205675E+0	1.196736E+0	1.220169E+0	1.182487E+0	1.228824E+0	1.267362E+0	1.208021E+0	1.192015E+0	1.304890E+0	1.239504E+0	1.309262E+0	1.281084E+0	1.190645E+0	1.258613E+0	1.234005E+0	1.201440E+0	1.243831E+0	1.288504E+0	1.256603E+0	1.275979E+0	1.253570E+0	1.240973E+0	1.261497E+0	1.202580E+0	1.236359E+0	1.264531E+0	1.209363E+0	1.283367E+0	1.205573E+0	1.241942E+0	1.218472E+0	1.179775E+0	1.213112E+0	1.229864E+0	1.298970E+0	1.205015E+0	1.256659E+0	1.260907E+0	1.246077E+0	1.234726E+0	1.261676E+0	1.184546E+0	1.266259E+0	1.274615E+0	1.246441E+0	1.232505E+0	1.221983E+0	1.220991E+0	1.264444E+0	1.177704E+0	1.288213E+0	1.196585E+0	1.227423E+0	1.212409E+0	1.220925E+0	1.147610E+0	1.245784E+0	1.185458E+0	1.208051E+0	1.239144E+0	1.222413E+0	1.234094E+0	1.267014E+0	1.224214E+0	1.251448E+0	1.203587E+0	1.237467E+0	1.248794E+0	1.219632E+0	1.231077E+0	1.221141E+0	1.202694E+0	1.191473E+0	1.173814E+0	1.210554E+0	1.203451E+0	1.245565E+0	1.197885E+0	1.223539E+0	1.240826E+0	1.195277E+0	1.272397E+0	1.239504E+0	1.272173E+0	1.220497E+0	1.280002E+0	1.240461E+0	1.208970E+0	1.254577E+0	1.211260E+0	1.252072E+0	1.208095E+0	1.227394E+0	1.235065E+0	1.244204E+0	1.181478E+0	1.385396E+0	1.271071E+0
5.349580E+2	1.673399E+0	1.587833E+0	1.567059E+0	1.003815E+1	1.582882E+0	1.600533E+0	1.614013E+0	1.641577E+0	1.545167E+0	1.616931E+0	1.588831E+0	1.578774E+0	1.627302E+0	1.641595E+0	1.609108E+0	1.604419E+0	1.585307E+0	1.563430E+0	1.647755E+0	1.616320E+0	1.639931E+0	1.623590E+0	1.545883E+0	1.605649E+0	1.717907E+0	1.657040E+0	1.667048E+0	1.617334E+0	1.619817E+0	1.696198E+0	1.626221E+0	1.656506E+0	1.717177E+0	1.679545E+0	1.588784E+0	1.528409E+0	1.660139E+0	1.592151E+0	1.654481E+0	1.636748E+0	1.679589E+0	1.622082E+0	1.647498E+0	1.613694E+0	1.611246E+0	1.589309E+0	1.662728E+0	1.651102E+0	1.665005E+0	1.591659E+0	1.652323E+0	1.672485E+0	1.598360E+0	1.643232E+0	1.630382E+0	1.634880E+0	1.665244E+0	1.611201E+0	1.583665E+0	1.628551E+0	1.612923E+0	1.607961E+0	1.595124E+0	1.660076E+0	1.610773E+0	1.586737E+0	1.572405E+0	1.613585E+0	1.601301E+0	1.616531E+0	1.558617E+0	1.580782E+0	1.589634E+0	1.606663E+0	1.613395E+0	1.653908E+0	1.565802E+0	1.653862E+0	1.562390E+0	1.658524E+0	1.563680E+0	1.630384E+0	1.583530E+0	1.664238E+0	1.594246E+0	1.577044E+0	1.694506E+0	1.656259E+0	1.619938E+0	1.547998E+0	1.616373E+0	1.607670E+0	1.619919E+0	1.585580E+0	1.601100E+0	1.654114E+0	1.601101E+0	1.645320E+0	1.646536E+0	1.612670E+0	1.613841E+0	1.646237E+0	1.648813E+0	1.571694E+0	1.571472E+0	1.589740E+0	1.615809E+0	1.661817E+0	1.624984E+0	1.649322E+0	1.568615E+0	1.630006E+0	1.559525E+0	1.614175E+0	1.586623E+0	1.597593E+0	1.588056E+0	1.608895E+0	1.572861E+0	1.659901E+0	1.526229E+0	1.658237E+0	1.571318E+0	1.627987E+0	1.618066E+0	1.545556E+0	1.608102E+0	1.547806E+0	1.600260E+0	1.572290E+0	1.529405E+0	1.589838E+0	1.554501E+0	1.557594E+0	1.640085E+0	1.617222E+0	1.601714E+0	1.671540E+0	1.614468E+0	1.623396E+0	1.654170E+0	1.647104E+0	1.588325E+0	1.660505E+0	1.576532E+0	1.601145E+0	1.594579E+0	1.578578E+0	1.616169E+0	1.650670E+0	1.627648E+0	1.663991E+0	1.499794E+0	1.559310E+0	1.641011E+0	1.576102E+0	1.620343E+0	1.589909E+0	1.585259E+0	1.657638E+0	1.576496E+0	1.637694E+0	1.505189E+0	1.585773E+0	1.559090E+0	1.561990E+0	1.635977E+0	1.598407E+0	1.577892E+0	1.738755E+0	1.767559E+0
5.351040E+2	1.881298E+0	1.869759E+0	1.824334E+0	1.121738E+1	1.853760E+0	1.820354E+0	1.879047E+0	1.837480E+0	1.878447E+0	1.905946E+0	1.841758E+0	1.906391E+0	1.879880E+0	1.847591E+0	1.831492E+0	1.875454E+0	1.830627E+0	1.819044E+0	1.869951E+0	1.807768E+0	1.882416E+0	1.857358E+0	1.845598E+0	1.893472E+0	1.861970E+0	1.859386E+0	1.848893E+0	1.867375E+0	1.844003E+0	1.916811E+0	1.878564E+0	1.828102E+0	1.899105E+0	1.854544E+0	1.843310E+0	1.829978E+0	1.863085E+0	1.804044E+0	1.877589E+0	1.875827E+0	1.890732E+0	1.830448E+0	1.938114E+0	1.815296E+0	1.829043E+0	1.852110E+0	1.829055E+0	1.825624E+0	1.827561E+0	1.838242E+0	1.888747E+0	1.869645E+0	1.860504E+0	1.887828E+0	1.872366E+0	1.860926E+0	1.944300E+0	1.888867E+0	1.880039E+0	1.819642E+0	1.824047E+0	1.874721E+0	1.846914E+0	1.860152E+0	1.848564E+0	1.836630E+0	1.754835E+0	1.894222E+0	1.815886E+0	1.894157E+0	1.870428E+0	1.836736E+0	1.794965E+0	1.773263E+0	1.809469E+0	1.922768E+0	1.755438E+0	1.856958E+0	1.890280E+0	1.823719E+0	1.785578E+0	1.885879E+0	1.862253E+0	1.845090E+0	1.831414E+0	1.862886E+0	1.826876E+0	1.913189E+0	1.899280E+0	1.832168E+0	1.825454E+0	1.786068E+0	1.897489E+0	1.802157E+0	1.819924E+0	1.820232E+0	1.891189E+0	1.829862E+0	1.867467E+0	1.826933E+0	1.849782E+0	1.768232E+0	1.867846E+0	1.865742E+0	1.809799E+0	1.813528E+0	1.864779E+0	1.872818E+0	1.839579E+0	1.797260E+0	1.869975E+0	1.808239E+0	1.825286E+0	1.880934E+0	1.834765E+0	1.824085E+0	1.849904E+0	1.890802E+0	1.819340E+0	1.813433E+0	1.804573E+0	1.775344E+0	1.790902E+0	1.820124E+0	1.814958E+0	1.826811E+0	1.801419E+0	1.839681E+0	1.794493E+0	1.772843E+0	1.752194E+0	1.808248E+0	1.766581E+0	1.891549E+0	1.834391E+0	1.847778E+0	1.781572E+0	1.852673E+0	1.765233E+0	1.886902E+0	1.865602E+0	1.803572E+0	1.763660E+0	1.876202E+0	1.850037E+0	1.802606E+0	1.786763E+0	1.736701E+0	1.778638E+0	1.899022E+0	1.826428E+0	1.843298E+0	1.803996E+0	1.806065E+0	1.785916E+0	1.792076E+0	1.822257E+0	1.770669E+0	1.821753E+0	1.866357E+0	1.778964E+0	1.810484E+0	1.829217E+0	1.861696E+0	1.772982E+0	1.793337E+0	1.791052E+0	1.877885E+0	1.820772E+0	2.003431E+0	1.910203E+0
5.352550E+2	2.075538E+0	2.042529E+0	1.985007E+0	1.164996E+1	1.971024E+0	2.041088E+0	2.041007E+0	2.065348E+0	1.978094E+0	2.077556E+0	2.021043E+0	2.015459E+0	2.026474E+0	1.985541E+0	2.053847E+0	2.031070E+0	2.001706E+0	1.983206E+0	1.999418E+0	1.974503E+0	2.034345E+0	2.015091E+0	1.993960E+0	2.013024E+0	1.991711E+0	1.896739E+0	2.042419E+0	1.998567E+0	1.931138E+0	2.030680E+0	1.994014E+0	1.979065E+0	1.997621E+0	1.979050E+0	1.953915E+0	1.948219E+0	1.972308E+0	1.945300E+0	2.037818E+0	2.080144E+0	2.023592E+0	1.973451E+0	1.990373E+0	2.076161E+0	1.950721E+0	2.001885E+0	2.017076E+0	1.983691E+0	2.003305E+0	1.980426E+0	1.992762E+0	2.108270E+0	1.982854E+0	2.025697E+0	1.987293E+0	2.034210E+0	1.960725E+0	1.960170E+0	2.005872E+0	2.005975E+0	1.984304E+0	2.000121E+0	2.004910E+0	2.025402E+0	2.001646E+0	2.014242E+0	1.945886E+0	1.983955E+0	1.970624E+0	2.005238E+0	1.937763E+0	2.005216E+0	1.963786E+0	1.978092E+0	1.908010E+0	2.000714E+0	1.945508E+0	1.979448E+0	1.979337E+0	1.940807E+0	1.892340E+0	2.062818E+0	1.992666E+0	1.990357E+0	2.006704E+0	1.974199E+0	2.020190E+0	1.964935E+0	1.929349E+0	1.886307E+0	2.014740E+0	1.942187E+0	1.985213E+0	1.969036E+0	2.030777E+0	1.952912E+0	1.942930E+0	1.963954E+0	1.948184E+0	1.936435E+0	2.008849E+0	1.972279E+0	1.989387E+0	1.936920E+0	1.939031E+0	1.980191E+0	2.023942E+0	2.033084E+0	1.944048E+0	1.960768E+0	1.932503E+0	1.974757E+0	2.023587E+0	1.971064E+0	1.913217E+0	1.904047E+0	2.004104E+0	1.967261E+0	1.960064E+0	1.988852E+0	1.959165E+0	1.970777E+0	1.887016E+0	2.094610E+0	1.968587E+0	1.915218E+0	1.996098E+0	1.971667E+0	1.946121E+0	2.060749E+0	1.986989E+0	1.986066E+0	1.941734E+0	1.881342E+0	1.962735E+0	1.936493E+0	1.945024E+0	1.983721E+0	1.963941E+0	2.077976E+0	1.943148E+0	1.983889E+0	1.942178E+0	1.929261E+0	1.927149E+0	1.959570E+0	1.900389E+0	1.940565E+0	2.067096E+0	1.966625E+0	1.884612E+0	1.977083E+0	1.883461E+0	1.902572E+0	1.993569E+0	1.937083E+0	1.907084E+0	1.955989E+0	1.991727E+0	2.017269E+0	1.985647E+0	1.972979E+0	1.964840E+0	1.965184E+0	1.933653E+0	1.975929E+0	1.949767E+0	1.952774E+0	1.901099E+0	1.973199E+0	1.941029E+0
5.354110E+2	1.954369E+0	1.910222E+0	1.868772E+0	1.134335E+1	1.829960E+0	1.932719E+0	1.938628E+0	1.951959E+0	1.844008E+0	1.859758E+0	1.929832E+0	1.934655E+0	1.936599E+0	1.880766E+0	1.888996E+0	1.959633E+0	1.866803E+0	1.919667E+0	1.900434E+0	1.915105E+0	1.906038E+0	1.861453E+0	1.917920E+0	1.974085E+0	1.860607E+0	1.848025E+0	1.935079E+0	1.878492E+0	1.849548E+0	1.890536E+0	1.898362E+0	1.918056E+0	1.888353E+0	1.883196E+0	1.881190E+0	1.873256E+0	1.880861E+0	1.840290E+0	1.863253E+0	1.920876E+0	1.941058E+0	1.817466E+0	1.839456E+0	1.879232E+0	1.854565E+0	1.856945E+0	1.897372E+0	1.964540E+0	1.891433E+0	1.850380E+0	1.914237E+0	1.944405E+0	1.923038E+0	1.912885E+0	1.934667E+0	1.869733E+0	1.898624E+0	1.835308E+0	1.871870E+0	1.877495E+0	1.932333E+0	1.859411E+0	1.823646E+0	1.908512E+0	1.851001E+0	1.900804E+0	1.828077E+0	1.911067E+0	1.902742E+0	1.891668E+0	1.866990E+0	1.908062E+0	1.862095E+0	1.840301E+0	1.924532E+0	1.922678E+0	1.858925E+0	1.832418E+0	1.866302E+0	1.873396E+0	1.852163E+0	1.967977E+0	1.893462E+0	1.868665E+0	1.853054E+0	1.867231E+0	1.896136E+0	1.926746E+0	1.870375E+0	1.867895E+0	1.861039E+0	1.915934E+0	1.914320E+0	1.825557E+0	1.920832E+0	1.751952E+0	1.827820E+0	1.922614E+0	1.831528E+0	1.872597E+0	1.924791E+0	1.936926E+0	1.819803E+0	1.918963E+0	1.870977E+0	1.901268E+0	1.865616E+0	1.894693E+0	1.862635E+0	1.871123E+0	1.874794E+0	1.872050E+0	1.846041E+0	1.844370E+0	1.856962E+0	1.859473E+0	1.876252E+0	1.838960E+0	1.842253E+0	1.894694E+0	1.854147E+0	1.938346E+0	1.871322E+0	1.918746E+0	1.797477E+0	1.924238E+0	1.816481E+0	1.825759E+0	1.873634E+0	1.830239E+0	1.856905E+0	1.801484E+0	1.865034E+0	1.910231E+0	1.893268E+0	1.866598E+0	1.843015E+0	1.914586E+0	1.842640E+0	1.945572E+0	1.860353E+0	1.851672E+0	1.845957E+0	1.864348E+0	1.803368E+0	1.882911E+0	1.900140E+0	1.879811E+0	1.841113E+0	1.853626E+0	1.845739E+0	1.892546E+0	1.911471E+0	1.851411E+0	1.880746E+0	1.883593E+0	1.824480E+0	1.848240E+0	1.833353E+0	1.874903E+0	1.805945E+0	1.894982E+0	1.890754E+0	1.873881E+0	1.803381E+0	1.881872E+0	1.850875E+0	1.884230E+0	1.773782E+0	1.942794E+0	1.762296E+0
5.355580E+2	1.721974E+0	1.704847E+0	1.735687E+0	1.028918E+1	1.666434E+0	1.728831E+0	1.722502E+0	1.739341E+0	1.668965E+0	1.730527E+0	1.725095E+0	1.758459E+0	1.738672E+0	1.671244E+0	1.680787E+0	1.754899E+0	1.717650E+0	1.684899E+0	1.723665E+0	1.727132E+0	1.739297E+0	1.682100E+0	1.717969E+0	1.740539E+0	1.707361E+0	1.640783E+0	1.690995E+0	1.622865E+0	1.699788E+0	1.721728E+0	1.657163E+0	1.742674E+0	1.701620E+0	1.753586E+0	1.616207E+0	1.697722E+0	1.686859E+0	1.623573E+0	1.650410E+0	1.676325E+0	1.703731E+0	1.687199E+0	1.762509E+0	1.737638E+0	1.634147E+0	1.697340E+0	1.678210E+0	1.708849E+0	1.705706E+0	1.665500E+0	1.662344E+0	1.755356E+0	1.695473E+0	1.704626E+0	1.704422E+0	1.750646E+0	1.688698E+0	1.627988E+0	1.679185E+0	1.699489E+0	1.717958E+0	1.653659E+0	1.734997E+0	1.719167E+0	1.694819E+0	1.664575E+0	1.656723E+0	1.799712E+0	1.638663E+0	1.754064E+0	1.679904E+0	1.680655E+0	1.717599E+0	1.639612E+0	1.683486E+0	1.663576E+0	1.612393E+0	1.711585E+0	1.675054E+0	1.677715E+0	1.610333E+0	1.758165E+0	1.715653E+0	1.689269E+0	1.655193E+0	1.668311E+0	1.718113E+0	1.697429E+0	1.757264E+0	1.638961E+0	1.694816E+0	1.652255E+0	1.734697E+0	1.663279E+0	1.709392E+0	1.682541E+0	1.696595E+0	1.675878E+0	1.764338E+0	1.683640E+0	1.727119E+0	1.691886E+0	1.700831E+0	1.644653E+0	1.659473E+0	1.695943E+0	1.705732E+0	1.758056E+0	1.657101E+0	1.698513E+0	1.673933E+0	1.705520E+0	1.615477E+0	1.684158E+0	1.612403E+0	1.688208E+0	1.699467E+0	1.731732E+0	1.683077E+0	1.733378E+0	1.687660E+0	1.695245E+0	1.660494E+0	1.717808E+0	1.648109E+0	1.650667E+0	1.654846E+0	1.650835E+0	1.684473E+0	1.777522E+0	1.643852E+0	1.673419E+0	1.656717E+0	1.679375E+0	1.674130E+0	1.573415E+0	1.697449E+0	1.688565E+0	1.700020E+0	1.747808E+0	1.710817E+0	1.719827E+0	1.735981E+0	1.694192E+0	1.699382E+0	1.610594E+0	1.636381E+0	1.644709E+0	1.694858E+0	1.735746E+0	1.660755E+0	1.712226E+0	1.701163E+0	1.725040E+0	1.726768E+0	1.670876E+0	1.673615E+0	1.639101E+0	1.714785E+0	1.655710E+0	1.672120E+0	1.701065E+0	1.689064E+0	1.707390E+0	1.623093E+0	1.684839E+0	1.735188E+0	1.669848E+0	1.737847E+0	1.755719E+0	1.880424E+0
5.357090E+2	1.638723E+0	1.542408E+0	1.484056E+0	8.980138E+0	1.455293E+0	1.577438E+0	1.559700E+0	1.567565E+0	1.513266E+0	1.531662E+0	1.574262E+0	1.553589E+0	1.576328E+0	1.519522E+0	1.581746E+0	1.569469E+0	1.485358E+0	1.499302E+0	1.520063E+0	1.564172E+0	1.469057E+0	1.517394E+0	1.573896E+0	1.540689E+0	1.458013E+0	1.507800E+0	1.508971E+0	1.499596E+0	1.466139E+0	1.506346E+0	1.526313E+0	1.496953E+0	1.515952E+0	1.565348E+0	1.511527E+0	1.515809E+0	1.522918E+0	1.497437E+0	1.566594E+0	1.453768E+0	1.542858E+0	1.495078E+0	1.547289E+0	1.579677E+0	1.520966E+0	1.494444E+0	1.534957E+0	1.566000E+0	1.511875E+0	1.453259E+0	1.535525E+0	1.572183E+0	1.493149E+0	1.524392E+0	1.502502E+0	1.510349E+0	1.510582E+0	1.526266E+0	1.560130E+0	1.498344E+0	1.515919E+0	1.498452E+0	1.521238E+0	1.468396E+0	1.489593E+0	1.503748E+0	1.492131E+0	1.581398E+0	1.527631E+0	1.530292E+0	1.560417E+0	1.557157E+0	1.557577E+0	1.481189E+0	1.560620E+0	1.487182E+0	1.504542E+0	1.522700E+0	1.548940E+0	1.509217E+0	1.473666E+0	1.544149E+0	1.563145E+0	1.533912E+0	1.511218E+0	1.498485E+0	1.574234E+0	1.493585E+0	1.529989E+0	1.521789E+0	1.564743E+0	1.492127E+0	1.529950E+0	1.515516E+0	1.479684E+0	1.475085E+0	1.485493E+0	1.493151E+0	1.504528E+0	1.527066E+0	1.545129E+0	1.563798E+0	1.546120E+0	1.507023E+0	1.408163E+0	1.539317E+0	1.547762E+0	1.505730E+0	1.495441E+0	1.493677E+0	1.473789E+0	1.525885E+0	1.518312E+0	1.539916E+0	1.469061E+0	1.500979E+0	1.513873E+0	1.488728E+0	1.519113E+0	1.538465E+0	1.517228E+0	1.520894E+0	1.513573E+0	1.566923E+0	1.501857E+0	1.545289E+0	1.518474E+0	1.518033E+0	1.573188E+0	1.525839E+0	1.473514E+0	1.504714E+0	1.483703E+0	1.527411E+0	1.556660E+0	1.515732E+0	1.540026E+0	1.515096E+0	1.552792E+0	1.603261E+0	1.528494E+0	1.520238E+0	1.498138E+0	1.572644E+0	1.477549E+0	1.556628E+0	1.515639E+0	1.518474E+0	1.466395E+0	1.457664E+0	1.542122E+0	1.525761E+0	1.516532E+0	1.553852E+0	1.531872E+0	1.540646E+0	1.548531E+0	1.504473E+0	1.572431E+0	1.515089E+0	1.486745E+0	1.540838E+0	1.448453E+0	1.528465E+0	1.516173E+0	1.551180E+0	1.491886E+0	1.536694E+0	1.531683E+0	1.517874E+0	1.566067E+0
5.358550E+2	1.370781E+0	1.257119E+0	1.240474E+0	7.160385E+0	1.277139E+0	1.315442E+0	1.317042E+0	1.343061E+0	1.314549E+0	1.244755E+0	1.279853E+0	1.269594E+0	1.277139E+0	1.300090E+0	1.269324E+0	1.321835E+0	1.282561E+0	1.298559E+0	1.295906E+0	1.347690E+0	1.255657E+0	1.267176E+0	1.301277E+0	1.348690E+0	1.249093E+0	1.306830E+0	1.285627E+0	1.236650E+0	1.273018E+0	1.279641E+0	1.285180E+0	1.274280E+0	1.335505E+0	1.253918E+0	1.274364E+0	1.310792E+0	1.278351E+0	1.263326E+0	1.232648E+0	1.297670E+0	1.322764E+0	1.282910E+0	1.260614E+0	1.300222E+0	1.262488E+0	1.255567E+0	1.278305E+0	1.311428E+0	1.304520E+0	1.229924E+0	1.265256E+0	1.326943E+0	1.260801E+0	1.270274E+0	1.280327E+0	1.240303E+0	1.230007E+0	1.337940E+0	1.251539E+0	1.249816E+0	1.303496E+0	1.257827E+0	1.243654E+0	1.293421E+0	1.264125E+0	1.235130E+0	1.237769E+0	1.268170E+0	1.292479E+0	1.247481E+0	1.330161E+0	1.286362E+0	1.304755E+0	1.307053E+0	1.256183E+0	1.287910E+0	1.282334E+0	1.239356E+0	1.288018E+0	1.280653E+0	1.214309E+0	1.291339E+0	1.309529E+0	1.247544E+0	1.244990E+0	1.302012E+0	1.318255E+0	1.280006E+0	1.274606E+0	1.206917E+0	1.312844E+0	1.320696E+0	1.314061E+0	1.286904E+0	1.266809E+0	1.307763E+0	1.278756E+0	1.276788E+0	1.279108E+0	1.322216E+0	1.265289E+0	1.256449E+0	1.324587E+0	1.301464E+0	1.266405E+0	1.266435E+0	1.261166E+0	1.315877E+0	1.299904E+0	1.277929E+0	1.271033E+0	1.270622E+0	1.291539E+0	1.326627E+0	1.239400E+0	1.287547E+0	1.280452E+0	1.251511E+0	1.304853E+0	1.258071E+0	1.251402E+0	1.267068E+0	1.277231E+0	1.266656E+0	1.285470E+0	1.264225E+0	1.241680E+0	1.283748E+0	1.204722E+0	1.228117E+0	1.229194E+0	1.297718E+0	1.278681E+0	1.249497E+0	1.243677E+0	1.222971E+0	1.298202E+0	1.281434E+0	1.287027E+0	1.326792E+0	1.297110E+0	1.251041E+0	1.236311E+0	1.296019E+0	1.204206E+0	1.308886E+0	1.284968E+0	1.270933E+0	1.268753E+0	1.271379E+0	1.325841E+0	1.272545E+0	1.278891E+0	1.238201E+0	1.318206E+0	1.252592E+0	1.307321E+0	1.261842E+0	1.244769E+0	1.327398E+0	1.271455E+0	1.309705E+0	1.304639E+0	1.356739E+0	1.275852E+0	1.301188E+0	1.289102E+0	1.343579E+0	1.303294E+0	1.334150E+0	1.547713E+0
5.360120E+2	1.145044E+0	1.068639E+0	1.103642E+0	6.752377E+0	1.059460E+0	1.117036E+0	1.111608E+0	1.184408E+0	1.090479E+0	1.115859E+0	1.097891E+0	1.090829E+0	1.124361E+0	1.140801E+0	1.077027E+0	1.131441E+0	1.139733E+0	1.052888E+0	1.104270E+0	1.081919E+0	1.123808E+0	1.106265E+0	1.103170E+0	1.124748E+0	1.115042E+0	1.084791E+0	1.159467E+0	1.089477E+0	1.101503E+0	1.102483E+0	1.056620E+0	1.102246E+0	1.125517E+0	1.107160E+0	1.088732E+0	1.138747E+0	1.108544E+0	1.058000E+0	1.107926E+0	1.088034E+0	1.147782E+0	1.079574E+0	1.056509E+0	1.128553E+0	1.099224E+0	1.114714E+0	1.072424E+0	1.086299E+0	1.082068E+0	1.097765E+0	1.117297E+0	1.150757E+0	1.125406E+0	1.106756E+0	1.100855E+0	1.133897E+0	1.098239E+0	1.054649E+0	1.098609E+0	1.122166E+0	1.105841E+0	1.081385E+0	1.116542E+0	1.149264E+0	1.101820E+0	1.061166E+0	1.101786E+0	1.107223E+0	1.123618E+0	1.086650E+0	1.101355E+0	1.110977E+0	1.119238E+0	1.061602E+0	1.080398E+0	1.064994E+0	1.103691E+0	1.115116E+0	1.151159E+0	1.132787E+0	1.075644E+0	1.131478E+0	1.128619E+0	1.100527E+0	1.069065E+0	1.071291E+0	1.081420E+0	1.110352E+0	1.112235E+0	1.116320E+0	1.124794E+0	1.101284E+0	1.164167E+0	1.105863E+0	1.127807E+0	1.112408E+0	1.120858E+0	1.102271E+0	1.081356E+0	1.092453E+0	1.148859E+0	1.091726E+0	1.088129E+0	1.113310E+0	1.139958E+0	1.058605E+0	1.128918E+0	1.119796E+0	1.092767E+0	1.080051E+0	1.043350E+0	1.117468E+0	1.131732E+0	1.074269E+0	1.106582E+0	1.103627E+0	1.111897E+0	1.073629E+0	1.117273E+0	1.107133E+0	1.133496E+0	1.101280E+0	1.067963E+0	1.164675E+0	1.142385E+0	1.088982E+0	1.121002E+0	1.139326E+0	1.106949E+0	1.073197E+0	1.051992E+0	1.055093E+0	1.141216E+0	1.138889E+0	1.139714E+0	1.090853E+0	1.085467E+0	1.135592E+0	1.137894E+0	1.153846E+0	1.122986E+0	1.115261E+0	1.096085E+0	1.098051E+0	1.104391E+0	1.117176E+0	1.096280E+0	1.116180E+0	1.107065E+0	1.089129E+0	1.096271E+0	1.122580E+0	1.106457E+0	1.124429E+0	1.181095E+0	1.128587E+0	1.057897E+0	1.111117E+0	1.121690E+0	1.086013E+0	1.073806E+0	1.116927E+0	1.134271E+0	1.112358E+0	1.093804E+0	1.091298E+0	1.126715E+0	1.113552E+0	1.150343E+0	1.103278E+0	1.304435E+0
5.362630E+2	8.381726E-1	7.754538E-1	8.085844E-1	4.784040E+0	7.790326E-1	8.160316E-1	8.601780E-1	8.376753E-1	7.948492E-1	8.232330E-1	8.146212E-1	8.256473E-1	8.553266E-1	8.295956E-1	8.083132E-1	8.652661E-1	7.889117E-1	7.909733E-1	8.151307E-1	8.099236E-1	8.345077E-1	8.289281E-1	7.961091E-1	8.376809E-1	7.854809E-1	8.114323E-1	8.525110E-1	8.135381E-1	8.135748E-1	8.118371E-1	8.045514E-1	8.257997E-1	8.122664E-1	8.233912E-1	8.608352E-1	8.036681E-1	8.127477E-1	7.798382E-1	8.383260E-1	8.616283E-1	8.077191E-1	7.632632E-1	7.982261E-1	8.214409E-1	7.888418E-1	8.196380E-1	8.019131E-1	8.176959E-1	8.220873E-1	7.953287E-1	8.403026E-1	8.343632E-1	8.118647E-1	8.084636E-1	8.574333E-1	7.691337E-1	8.353749E-1	8.079346E-1	8.276805E-1	8.295320E-1	8.307952E-1	8.468926E-1	8.121586E-1	8.533042E-1	8.265530E-1	7.926399E-1	8.552404E-1	8.613514E-1	8.803787E-1	8.027837E-1	8.402884E-1	8.208882E-1	8.347420E-1	8.288060E-1	8.539759E-1	8.359347E-1	8.139705E-1	8.035914E-1	8.339647E-1	8.185537E-1	7.733356E-1	8.582645E-1	8.426536E-1	8.501896E-1	8.060820E-1	8.113554E-1	7.917626E-1	8.324805E-1	8.555003E-1	8.138211E-1	8.239857E-1	8.440172E-1	8.552054E-1	7.860642E-1	8.024090E-1	8.244053E-1	8.204408E-1	7.842608E-1	8.096310E-1	8.375854E-1	8.144949E-1	8.166069E-1	8.540045E-1	8.153632E-1	8.038847E-1	7.955618E-1	8.062682E-1	8.078761E-1	8.237234E-1	8.533619E-1	8.028357E-1	8.223999E-1	8.404077E-1	8.328946E-1	8.026390E-1	8.189035E-1	8.103152E-1	7.672852E-1	8.386492E-1	8.468713E-1	7.889561E-1	8.007055E-1	8.429266E-1	8.716937E-1	8.142610E-1	8.345226E-1	7.856270E-1	8.475619E-1	8.337667E-1	8.003293E-1	8.190995E-1	8.136405E-1	8.237101E-1	8.327157E-1	8.009853E-1	8.202700E-1	8.336413E-1	8.509044E-1	8.007656E-1	8.699487E-1	8.228574E-1	8.042751E-1	8.121499E-1	8.579360E-1	8.470487E-1	8.196409E-1	8.233259E-1	8.515732E-1	8.217586E-1	8.153448E-1	8.155737E-1	8.309147E-1	8.459687E-1	8.375507E-1	8.342358E-1	7.837934E-1	8.225153E-1	8.016583E-1	8.082014E-1	8.467609E-1	8.463224E-1	8.285788E-1	7.939026E-1	8.410023E-1	8.399980E-1	7.698654E-1	8.724778E-1	8.377854E-1	8.411076E-1	8.358659E-1	8.622068E-1
5.365090E+2	6.777927E-1	6.478948E-1	6.368104E-1	3.616256E+0	6.509264E-1	6.339231E-1	6.503466E-1	6.473809E-1	6.329543E-1	6.738410E-1	6.215043E-1	6.591311E-1	7.008955E-1	6.434886E-1	6.415799E-1	6.828980E-1	6.190537E-1	6.677224E-1	6.556086E-1	6.354951E-1	6.537680E-1	6.679198E-1	6.514772E-1	6.178449E-1	6.322268E-1	6.310387E-1	6.658788E-1	6.127821E-1	6.609144E-1	6.614650E-1	6.463741E-1	6.434693E-1	6.525370E-1	7.059618E-1	6.303542E-1	6.455970E-1	6.494406E-1	6.215425E-1	6.519117E-1	6.355855E-1	6.670677E-1	6.036742E-1	6.727656E-1	6.652139E-1	6.330202E-1	6.484810E-1	6.533065E-1	6.523792E-1	6.435999E-1	6.474717E-1	7.237326E-1	6.503492E-1	6.442356E-1	6.398787E-1	6.514291E-1	6.780816E-1	6.568240E-1	6.556355E-1	6.445825E-1	6.443560E-1	6.845372E-1	6.519840E-1	6.423934E-1	6.395774E-1	6.407559E-1	6.144550E-1	6.570056E-1	6.790038E-1	6.690207E-1	6.628296E-1	6.297179E-1	6.484178E-1	6.723772E-1	6.179093E-1	6.434572E-1	6.496073E-1	6.629569E-1	6.427440E-1	6.420458E-1	6.605788E-1	6.486172E-1	6.493084E-1	6.469027E-1	6.731251E-1	6.402741E-1	6.268103E-1	6.346184E-1	6.317601E-1	6.751406E-1	6.538264E-1	6.835740E-1	6.625056E-1	6.786785E-1	6.665756E-1	6.485859E-1	6.502461E-1	6.657518E-1	6.481431E-1	6.464557E-1	6.888594E-1	6.660656E-1	6.532962E-1	5.967964E-1	6.440377E-1	6.061876E-1	6.604428E-1	6.798375E-1	6.676691E-1	6.275578E-1	6.454594E-1	6.664864E-1	6.246745E-1	6.496094E-1	6.807840E-1	6.311152E-1	6.477303E-1	6.774854E-1	6.222759E-1	6.552722E-1	6.834927E-1	6.034310E-1	6.284000E-1	6.628124E-1	6.733184E-1	6.664562E-1	6.677067E-1	6.388871E-1	6.640198E-1	6.832711E-1	6.426185E-1	6.218889E-1	6.242725E-1	6.811524E-1	6.278841E-1	6.551685E-1	6.605800E-1	6.487549E-1	6.890259E-1	6.884083E-1	7.005737E-1	6.364200E-1	6.457723E-1	6.597031E-1	6.683346E-1	6.128632E-1	6.540800E-1	6.557710E-1	6.516325E-1	6.560863E-1	6.612158E-1	6.533673E-1	6.612531E-1	6.336320E-1	6.334737E-1	6.328583E-1	6.947159E-1	6.566025E-1	6.897331E-1	6.713239E-1	6.862209E-1	6.592723E-1	6.646581E-1	6.793805E-1	6.784804E-1	6.682638E-1	6.394565E-1	6.594503E-1	6.162197E-1	6.963946E-1	7.425452E-1	7.400211E-1
5.368080E+2	5.444153E-1	5.050866E-1	5.172955E-1	3.173098E+0	4.973919E-1	5.250020E-1	5.585891E-1	5.546340E-1	5.165658E-1	5.541153E-1	5.296115E-1	4.969729E-1	5.291381E-1	5.488478E-1	5.373122E-1	5.588420E-1	5.267724E-1	5.155415E-1	5.442087E-1	5.595703E-1	5.496656E-1	5.141033E-1	5.458844E-1	5.511341E-1	5.607973E-1	5.338001E-1	5.504631E-1	5.546600E-1	5.119396E-1	5.084286E-1	5.325473E-1	5.368362E-1	5.471525E-1	5.470188E-1	5.436019E-1	5.373356E-1	5.510883E-1	4.913104E-1	5.696970E-1	5.403198E-1	5.610912E-1	5.030342E-1	5.292424E-1	5.373186E-1	5.405439E-1	5.339411E-1	5.418276E-1	5.436043E-1	5.153567E-1	5.058789E-1	5.599757E-1	5.495641E-1	5.197313E-1	5.379515E-1	5.381422E-1	5.381254E-1	5.584324E-1	4.937518E-1	5.588894E-1	5.247382E-1	5.154319E-1	5.302412E-1	5.392376E-1	5.715308E-1	5.378822E-1	5.081501E-1	5.083701E-1	5.476991E-1	5.411283E-1	5.338256E-1	5.484565E-1	5.304488E-1	5.417862E-1	5.230708E-1	5.530346E-1	5.497775E-1	5.239019E-1	5.499228E-1	5.443491E-1	5.359401E-1	5.204156E-1	5.194541E-1	5.582412E-1	5.398312E-1	5.411746E-1	5.021465E-1	5.470292E-1	5.153732E-1	5.775344E-1	5.298233E-1	5.408904E-1	5.377251E-1	5.550979E-1	5.264855E-1	5.288785E-1	5.646651E-1	5.418277E-1	5.600345E-1	5.217393E-1	5.211437E-1	5.434865E-1	5.278376E-1	5.597352E-1	5.439049E-1	5.539938E-1	5.525158E-1	5.252044E-1	5.359855E-1	5.301657E-1	5.515376E-1	5.341582E-1	5.252042E-1	5.411374E-1	5.568978E-1	5.055422E-1	5.511045E-1	5.409445E-1	5.275679E-1	5.387225E-1	5.774589E-1	5.461389E-1	5.429544E-1	5.351961E-1	5.254246E-1	5.457977E-1	5.225011E-1	5.259464E-1	5.736869E-1	5.467247E-1	5.085812E-1	5.670404E-1	5.521556E-1	5.479280E-1	5.374606E-1	5.175173E-1	5.217818E-1	5.431123E-1	5.422446E-1	5.385007E-1	5.587037E-1	5.621651E-1	5.219727E-1	5.516773E-1	5.889236E-1	5.382244E-1	5.355092E-1	5.519079E-1	5.375542E-1	5.523168E-1	5.166576E-1	5.376470E-1	5.163730E-1	5.712195E-1	5.450110E-1	5.658201E-1	5.906384E-1	5.380508E-1	5.383139E-1	5.679981E-1	5.498255E-1	5.482578E-1	5.358895E-1	5.797533E-1	5.834325E-1	5.465251E-1	5.092267E-1	5.494458E-1	5.582314E-1	5.361167E-1	5.202526E-1	6.753071E-1
5.370010E+2	5.208597E-1	4.994043E-1	4.456846E-1	3.259548E+0	4.926753E-1	4.973071E-1	4.509483E-1	5.221126E-1	4.862862E-1	4.986898E-1	4.766261E-1	5.390899E-1	4.927693E-1	4.659024E-1	4.739605E-1	4.904712E-1	4.839853E-1	4.820554E-1	4.765097E-1	4.638928E-1	4.646170E-1	4.889390E-1	4.906754E-1	5.018912E-1	4.877232E-1	4.767452E-1	4.850681E-1	4.748804E-1	4.802275E-1	4.836329E-1	4.732779E-1	4.869630E-1	4.829212E-1	5.299470E-1	5.046324E-1	5.048864E-1	5.175628E-1	4.695450E-1	4.885973E-1	4.771753E-1	4.887196E-1	4.564264E-1	4.572240E-1	5.046688E-1	4.933677E-1	4.932562E-1	5.003032E-1	5.205822E-1	4.821694E-1	4.766977E-1	4.826765E-1	4.919854E-1	5.009868E-1	5.086023E-1	5.006052E-1	4.811480E-1	5.247998E-1	4.929391E-1	5.056893E-1	5.011762E-1	5.078068E-1	4.824484E-1	4.939698E-1	4.834710E-1	4.993137E-1	4.921424E-1	5.006713E-1	4.993997E-1	5.362663E-1	4.783051E-1	4.697115E-1	4.838002E-1	5.023402E-1	4.840539E-1	4.735511E-1	4.914765E-1	4.772288E-1	4.970510E-1	4.974188E-1	5.022657E-1	5.062832E-1	5.001881E-1	4.976762E-1	5.167459E-1	4.773926E-1	4.739418E-1	4.495155E-1	4.924135E-1	5.129012E-1	4.991994E-1	4.883901E-1	4.758412E-1	4.946735E-1	4.744119E-1	4.979400E-1	5.011648E-1	4.824205E-1	4.942168E-1	4.970910E-1	4.675201E-1	5.209545E-1	4.892682E-1	4.787603E-1	4.722465E-1	4.821869E-1	5.045506E-1	4.990588E-1	4.975778E-1	5.089159E-1	5.204643E-1	5.098822E-1	5.013759E-1	4.942819E-1	5.087803E-1	5.166719E-1	4.641206E-1	5.172859E-1	4.627829E-1	5.007347E-1	4.963822E-1	4.857489E-1	5.122896E-1	4.569113E-1	4.777930E-1	4.960914E-1	4.806100E-1	4.793077E-1	4.919908E-1	4.815393E-1	4.999502E-1	4.588553E-1	4.970940E-1	4.841922E-1	4.599873E-1	4.860343E-1	4.603344E-1	5.097757E-1	5.019025E-1	5.095974E-1	4.852819E-1	5.220582E-1	4.878857E-1	4.875446E-1	4.935139E-1	5.089718E-1	4.712657E-1	5.119701E-1	5.061696E-1	4.961842E-1	4.695285E-1	5.196977E-1	5.177476E-1	4.642819E-1	4.979766E-1	5.016642E-1	4.831013E-1	4.949937E-1	5.078149E-1	5.248383E-1	4.880317E-1	4.916459E-1	5.047720E-1	4.896391E-1	5.018981E-1	4.967203E-1	4.984547E-1	5.119165E-1	4.707045E-1	5.055706E-1	5.048699E-1	3.869165E-1
5.372640E+2	4.568139E-1	4.199243E-1	4.059172E-1	3.127109E+0	4.138662E-1	4.276794E-1	4.259545E-1	4.538707E-1	4.569528E-1	4.333466E-1	4.421626E-1	4.531461E-1	4.490868E-1	4.410047E-1	4.607580E-1	4.643234E-1	4.374044E-1	4.255871E-1	4.580878E-1	4.073012E-1	4.376748E-1	4.262459E-1	4.317336E-1	4.544454E-1	5.022331E-1	4.335196E-1	4.723272E-1	4.663046E-1	4.482940E-1	4.616910E-1	4.599853E-1	4.360971E-1	4.619518E-1	4.474802E-1	4.584649E-1	4.480970E-1	4.434300E-1	4.069359E-1	4.768661E-1	4.785603E-1	4.539490E-1	4.401665E-1	4.450027E-1	4.628611E-1	4.617267E-1	4.361580E-1	4.420090E-1	4.605865E-1	4.385493E-1	4.707795E-1	4.530309E-1	4.724955E-1	4.665834E-1	4.427844E-1	4.512784E-1	4.585409E-1	4.604446E-1	4.547909E-1	4.237603E-1	4.355229E-1	4.783022E-1	4.514348E-1	4.531439E-1	4.730812E-1	4.177340E-1	4.328978E-1	4.617617E-1	4.732784E-1	4.717595E-1	4.474899E-1	4.716817E-1	4.648785E-1	4.608147E-1	4.205483E-1	4.996491E-1	4.712756E-1	4.724112E-1	4.572093E-1	4.568017E-1	4.900905E-1	4.302775E-1	4.631491E-1	4.457711E-1	4.765133E-1	4.229253E-1	4.446081E-1	4.469894E-1	4.541605E-1	4.656081E-1	4.445681E-1	4.601169E-1	4.842155E-1	4.571018E-1	4.492022E-1	4.658473E-1	4.640443E-1	4.590119E-1	4.561296E-1	4.714568E-1	4.318401E-1	4.784635E-1	4.606396E-1	4.680826E-1	4.442130E-1	4.405780E-1	4.245834E-1	4.746500E-1	4.786936E-1	4.840322E-1	4.470408E-1	4.351284E-1	4.518320E-1	4.528681E-1	4.316991E-1	4.537233E-1	4.596248E-1	4.602220E-1	4.536585E-1	4.467437E-1	4.523831E-1	4.416077E-1	4.764876E-1	4.565441E-1	4.535435E-1	4.531326E-1	4.374552E-1	4.821900E-1	4.662171E-1	4.386442E-1	4.632798E-1	4.748136E-1	4.522227E-1	4.569966E-1	4.196781E-1	4.891501E-1	4.481339E-1	4.674015E-1	4.807948E-1	4.256929E-1	4.503965E-1	4.842807E-1	4.316537E-1	4.770808E-1	4.875798E-1	4.590304E-1	4.761471E-1	4.501200E-1	4.585435E-1	4.476736E-1	4.806199E-1	4.434755E-1	4.639890E-1	4.481009E-1	4.075863E-1	4.631780E-1	5.045217E-1	4.451483E-1	4.551962E-1	4.746392E-1	4.712391E-1	4.314284E-1	4.303854E-1	4.293451E-1	4.505575E-1	4.551589E-1	4.348942E-1	4.574868E-1	4.696448E-1	4.263960E-1	4.545079E-1	4.551644E-1
5.375110E+2	4.867912E-1	4.600068E-1	4.854130E-1	3.196959E+0	4.159186E-1	4.935804E-1	4.714369E-1	4.532998E-1	4.821222E-1	4.337252E-1	4.752920E-1	5.123930E-1	5.045147E-1	4.551442E-1	4.546441E-1	5.018562E-1	4.748948E-1	4.517425E-1	4.785521E-1	4.712634E-1	5.010412E-1	4.609112E-1	4.754814E-1	4.709821E-1	5.356086E-1	4.678607E-1	5.210204E-1	4.907523E-1	4.854761E-1	4.958226E-1	4.949940E-1	4.914485E-1	5.107700E-1	4.987336E-1	4.856930E-1	5.085671E-1	5.000003E-1	4.852397E-1	4.957700E-1	4.804197E-1	5.135750E-1	4.852618E-1	4.613218E-1	5.008600E-1	4.870251E-1	4.862334E-1	4.805313E-1	5.038500E-1	5.142496E-1	4.787942E-1	4.761622E-1	4.861384E-1	4.746652E-1	4.642112E-1	4.834703E-1	5.059465E-1	4.524325E-1	4.677620E-1	4.771264E-1	5.197882E-1	4.807843E-1	4.786292E-1	4.754439E-1	5.073291E-1	4.432719E-1	4.887167E-1	4.667715E-1	5.079853E-1	5.170189E-1	5.068561E-1	4.744004E-1	4.792757E-1	5.017114E-1	4.631524E-1	4.968504E-1	5.053721E-1	4.905074E-1	5.022950E-1	4.757966E-1	5.048558E-1	5.000376E-1	4.783041E-1	4.848355E-1	4.819888E-1	4.934878E-1	4.792212E-1	4.816956E-1	5.058517E-1	4.971561E-1	4.831532E-1	4.907717E-1	4.763764E-1	5.014502E-1	4.737205E-1	4.996807E-1	4.808183E-1	4.701050E-1	4.597582E-1	4.662453E-1	5.033601E-1	4.946372E-1	4.739638E-1	5.160734E-1	4.939619E-1	4.800837E-1	4.802314E-1	4.820040E-1	4.685162E-1	4.986234E-1	4.756326E-1	5.101810E-1	4.916223E-1	4.920549E-1	4.808408E-1	4.953875E-1	5.069435E-1	4.703211E-1	5.039143E-1	4.873790E-1	4.875155E-1	4.841543E-1	5.259618E-1	4.846415E-1	5.088001E-1	4.850258E-1	4.977099E-1	4.985071E-1	4.938871E-1	5.282141E-1	4.751898E-1	4.914329E-1	4.764516E-1	4.946235E-1	4.705049E-1	5.004178E-1	4.876465E-1	4.790851E-1	4.692171E-1	4.763711E-1	5.429895E-1	5.029487E-1	4.763743E-1	5.129580E-1	4.757605E-1	4.683485E-1	4.827711E-1	4.920333E-1	4.817922E-1	4.790278E-1	4.966239E-1	4.773532E-1	5.194991E-1	4.753701E-1	4.891470E-1	5.033093E-1	4.976189E-1	4.848620E-1	5.164406E-1	5.164286E-1	5.124660E-1	4.998671E-1	4.707273E-1	4.808041E-1	4.879910E-1	4.937581E-1	4.792438E-1	4.830373E-1	5.510628E-1	5.000370E-1	5.484317E-1	5.915986E-1
5.377630E+2	5.398056E-1	5.088416E-1	5.407960E-1	3.527561E+0	5.399473E-1	5.320270E-1	5.397838E-1	5.627406E-1	5.129429E-1	5.574688E-1	5.337130E-1	5.742264E-1	5.599056E-1	5.178967E-1	5.549519E-1	5.535121E-1	5.408610E-1	5.289601E-1	5.528070E-1	5.815524E-1	5.343908E-1	5.487579E-1	5.369307E-1	5.487508E-1	5.605161E-1	5.336094E-1	5.751899E-1	5.440857E-1	5.670376E-1	5.732510E-1	5.640800E-1	5.623640E-1	5.501284E-1	5.430142E-1	5.418063E-1	5.481227E-1	5.484890E-1	5.481002E-1	5.441924E-1	5.469785E-1	5.461693E-1	5.641870E-1	5.282268E-1	5.380004E-1	5.714574E-1	5.714806E-1	5.556120E-1	5.384649E-1	5.593955E-1	5.724776E-1	5.435469E-1	5.561503E-1	5.563714E-1	5.803725E-1	5.530871E-1	5.814212E-1	5.374744E-1	4.946232E-1	5.030118E-1	5.800862E-1	5.716907E-1	5.514393E-1	5.685819E-1	5.912228E-1	5.831381E-1	5.497385E-1	5.644400E-1	5.341801E-1	5.971791E-1	5.504135E-1	5.629110E-1	5.676967E-1	5.386624E-1	5.321113E-1	5.701766E-1	5.656881E-1	5.412262E-1	5.583873E-1	5.173335E-1	5.638652E-1	5.566227E-1	5.795851E-1	5.953193E-1	5.543526E-1	5.626567E-1	5.563764E-1	5.788174E-1	5.549552E-1	5.683988E-1	5.488211E-1	5.723874E-1	5.400171E-1	5.586689E-1	5.553987E-1	5.457233E-1	5.435531E-1	5.720673E-1	5.219215E-1	5.690010E-1	5.942886E-1	5.387910E-1	5.894378E-1	5.511150E-1	5.578975E-1	5.469148E-1	5.490710E-1	5.693434E-1	5.521167E-1	5.560282E-1	5.446497E-1	5.970490E-1	5.505145E-1	5.634831E-1	5.469985E-1	5.414666E-1	5.634371E-1	5.618735E-1	5.374828E-1	5.421456E-1	5.778634E-1	5.653431E-1	5.433041E-1	5.710244E-1	5.528204E-1	5.518392E-1	5.672061E-1	5.519285E-1	5.593173E-1	5.823933E-1	5.796988E-1	5.427250E-1	5.615380E-1	5.212622E-1	5.551591E-1	5.631411E-1	5.554852E-1	5.804005E-1	5.525138E-1	5.417589E-1	5.567062E-1	5.666079E-1	5.774643E-1	5.548635E-1	5.742319E-1	5.521044E-1	5.421711E-1	5.881991E-1	5.460672E-1	5.459511E-1	5.540677E-1	5.511566E-1	5.610537E-1	5.995151E-1	5.485952E-1	5.805496E-1	5.406767E-1	5.403531E-1	5.588438E-1	5.581087E-1	5.639075E-1	5.248640E-1	5.196294E-1	5.668889E-1	5.777542E-1	5.442393E-1	5.570573E-1	5.506977E-1	5.751946E-1	5.270822E-1	5.853918E-1	6.860856E-1
5.380160E+2	7.073163E-1	6.732791E-1	6.508546E-1	3.640000E+0	6.581477E-1	6.754548E-1	6.549137E-1	7.022641E-1	7.017005E-1	6.582458E-1	6.406017E-1	6.844362E-1	6.762656E-1	6.555246E-1	6.823921E-1	6.608646E-1	7.022759E-1	6.501883E-1	6.834957E-1	6.661562E-1	6.777939E-1	6.351626E-1	6.361925E-1	6.772188E-1	7.262797E-1	7.039345E-1	6.678696E-1	7.017592E-1	6.897177E-1	6.774409E-1	6.776979E-1	6.743526E-1	6.797200E-1	7.279871E-1	6.652248E-1	6.998835E-1	6.872890E-1	7.095895E-1	7.025343E-1	6.615306E-1	7.371919E-1	6.799973E-1	6.951190E-1	6.739977E-1	6.516598E-1	6.732488E-1	6.713600E-1	6.977978E-1	7.070232E-1	6.589543E-1	6.867821E-1	6.979660E-1	6.816494E-1	7.142436E-1	6.807976E-1	7.187812E-1	6.916892E-1	6.687478E-1	7.024351E-1	6.671079E-1	7.094248E-1	6.865449E-1	6.903745E-1	7.045823E-1	7.080582E-1	6.908062E-1	6.498826E-1	6.888387E-1	6.783765E-1	6.946209E-1	6.532534E-1	6.769218E-1	7.154191E-1	6.844548E-1	6.610074E-1	6.772066E-1	6.878843E-1	6.773503E-1	6.962995E-1	6.644565E-1	6.544008E-1	6.610984E-1	6.615350E-1	6.859113E-1	6.948025E-1	7.095016E-1	6.969896E-1	6.937808E-1	6.804582E-1	6.356426E-1	6.820818E-1	7.287305E-1	7.099152E-1	6.934615E-1	6.696852E-1	6.824738E-1	6.940708E-1	6.902141E-1	6.952263E-1	6.487731E-1	7.296340E-1	6.853193E-1	6.577394E-1	6.970980E-1	6.653615E-1	6.369256E-1	7.089904E-1	6.922859E-1	6.870019E-1	7.109482E-1	6.788849E-1	6.912767E-1	6.853197E-1	6.914266E-1	6.373492E-1	7.303519E-1	7.002067E-1	6.761890E-1	6.864334E-1	6.966883E-1	6.931469E-1	6.949881E-1	6.713222E-1	6.896690E-1	6.818043E-1	6.780816E-1	6.870789E-1	6.885750E-1	6.812275E-1	6.922895E-1	6.452377E-1	6.966503E-1	6.666646E-1	6.671256E-1	6.633705E-1	7.325918E-1	6.981077E-1	7.002639E-1	7.122087E-1	7.266394E-1	6.783309E-1	7.057854E-1	7.010796E-1	7.196064E-1	6.684755E-1	6.961140E-1	6.905382E-1	6.584923E-1	7.213937E-1	6.676302E-1	6.669254E-1	7.187375E-1	6.583201E-1	6.887437E-1	7.010127E-1	7.095757E-1	7.371178E-1	6.753754E-1	6.898172E-1	6.561208E-1	7.059145E-1	6.903990E-1	6.824245E-1	7.218217E-1	6.692122E-1	6.589533E-1	6.992303E-1	7.456285E-1	6.780269E-1	6.566629E-1	8.824275E-1
5.382690E+2	8.802636E-1	8.169149E-1	7.869855E-1	5.861138E+0	8.110244E-1	8.006025E-1	8.144082E-1	8.482637E-1	8.288506E-1	8.218058E-1	8.249481E-1	9.004298E-1	8.632437E-1	8.059565E-1	8.437590E-1	8.660877E-1	7.960779E-1	7.758279E-1	8.319274E-1	8.504603E-1	8.580847E-1	8.504636E-1	8.164297E-1	8.592668E-1	9.148372E-1	8.779664E-1	9.023357E-1	8.574500E-1	8.610506E-1	8.609807E-1	8.635412E-1	8.619901E-1	8.999493E-1	8.399737E-1	8.601107E-1	8.192044E-1	8.552059E-1	8.245346E-1	8.548485E-1	8.577890E-1	8.787826E-1	8.264647E-1	8.335040E-1	8.789018E-1	8.360424E-1	8.484036E-1	8.683347E-1	8.763353E-1	8.697788E-1	8.185168E-1	8.621475E-1	9.050794E-1	8.189609E-1	8.612706E-1	8.495638E-1	8.573298E-1	8.790031E-1	8.734260E-1	8.658753E-1	8.344640E-1	8.598983E-1	8.605111E-1	8.702097E-1	9.097594E-1	8.400903E-1	8.310884E-1	8.293854E-1	8.338347E-1	8.688519E-1	8.247727E-1	8.393131E-1	8.473307E-1	8.409011E-1	8.118195E-1	8.516048E-1	8.854841E-1	8.119833E-1	8.648558E-1	8.305180E-1	8.129776E-1	8.334473E-1	8.363650E-1	8.705755E-1	8.387692E-1	8.462628E-1	8.418564E-1	8.310943E-1	8.278366E-1	8.518826E-1	7.990863E-1	8.844727E-1	8.411377E-1	8.895833E-1	8.748506E-1	8.576135E-1	8.473914E-1	8.408014E-1	8.710596E-1	8.598252E-1	8.412596E-1	8.649515E-1	8.377537E-1	7.896036E-1	8.371300E-1	8.537485E-1	8.292083E-1	8.529732E-1	8.262502E-1	8.496313E-1	8.707866E-1	8.429535E-1	9.054815E-1	8.224009E-1	8.241518E-1	8.715117E-1	8.897255E-1	8.472517E-1	8.391282E-1	8.090982E-1	8.760234E-1	8.048708E-1	8.419971E-1	8.468097E-1	8.449180E-1	8.811317E-1	8.571601E-1	8.391145E-1	8.219151E-1	8.278632E-1	8.211173E-1	8.059410E-1	8.431917E-1	8.626316E-1	8.316666E-1	8.490148E-1	8.405521E-1	8.204299E-1	8.336307E-1	8.278142E-1	8.883223E-1	8.698762E-1	8.385677E-1	8.438711E-1	8.863703E-1	8.357245E-1	8.486916E-1	7.980107E-1	8.483267E-1	8.546482E-1	8.168944E-1	8.520963E-1	8.764026E-1	8.084251E-1	8.608513E-1	8.932807E-1	8.295218E-1	8.965064E-1	8.267251E-1	8.344293E-1	8.453919E-1	8.471810E-1	8.691180E-1	8.833653E-1	8.599847E-1	8.527891E-1	8.173585E-1	8.334668E-1	8.979117E-1	8.886348E-1	9.002041E-1	1.087952E+0
5.385110E+2	1.032929E+0	1.018605E+0	1.030392E+0	6.804990E+0	1.036238E+0	1.055102E+0	1.027200E+0	1.092241E+0	1.069369E+0	1.061202E+0	1.064897E+0	1.076980E+0	1.043472E+0	1.043305E+0	1.079448E+0	1.028558E+0	1.055428E+0	1.002149E+0	1.035990E+0	9.932961E-1	1.040440E+0	1.019786E+0	1.027573E+0	1.095820E+0	1.083119E+0	1.068288E+0	1.088364E+0	1.129551E+0	1.064879E+0	1.094349E+0	1.042319E+0	1.057024E+0	1.089632E+0	1.078560E+0	1.041118E+0	1.083696E+0	1.093035E+0	1.018773E+0	1.072513E+0	1.107597E+0	1.065650E+0	1.034176E+0	1.061427E+0	1.120422E+0	1.033526E+0	1.033203E+0	1.061413E+0	1.067384E+0	1.008442E+0	1.062189E+0	1.034817E+0	1.115847E+0	1.048612E+0	1.048702E+0	1.088148E+0	1.003186E+0	1.069909E+0	1.082554E+0	1.060126E+0	1.067222E+0	1.066824E+0	1.044749E+0	1.064859E+0	1.067183E+0	1.060599E+0	1.050419E+0	1.023947E+0	1.047279E+0	1.063124E+0	1.081406E+0	1.058174E+0	1.042903E+0	1.080890E+0	1.052771E+0	1.013492E+0	1.037087E+0	9.932361E-1	1.051382E+0	1.102968E+0	1.035633E+0	1.044293E+0	1.039225E+0	1.063260E+0	1.040379E+0	1.044057E+0	1.030593E+0	1.068670E+0	1.043953E+0	1.097035E+0	1.031477E+0	1.036563E+0	1.046212E+0	1.055157E+0	1.074899E+0	1.056155E+0	1.079571E+0	1.046569E+0	1.029444E+0	1.041019E+0	1.012319E+0	1.099957E+0	1.024301E+0	1.029992E+0	1.089189E+0	1.046936E+0	1.069600E+0	1.062818E+0	1.035386E+0	1.040663E+0	1.041845E+0	1.050787E+0	1.070778E+0	1.075755E+0	1.036543E+0	9.983367E-1	1.029661E+0	1.075379E+0	1.056604E+0	1.002647E+0	1.094231E+0	1.047997E+0	1.106186E+0	9.922661E-1	1.079278E+0	1.077627E+0	1.072046E+0	1.080078E+0	1.054908E+0	1.048654E+0	1.020213E+0	1.044048E+0	1.078880E+0	1.062963E+0	1.062371E+0	1.053339E+0	1.080257E+0	1.038993E+0	1.091789E+0	1.015775E+0	1.083978E+0	1.087684E+0	1.066441E+0	1.058665E+0	1.106023E+0	1.056691E+0	1.046232E+0	1.023360E+0	1.059312E+0	1.022723E+0	1.055631E+0	1.050009E+0	1.054318E+0	1.028451E+0	1.046536E+0	1.058078E+0	1.086507E+0	1.076230E+0	1.069208E+0	1.080046E+0	1.088962E+0	1.019064E+0	1.060429E+0	1.028018E+0	1.100445E+0	1.079742E+0	1.072821E+0	1.017272E+0	1.100990E+0	1.106050E+0	1.099086E+0	1.372110E+0
5.387650E+2	1.287866E+0	1.223713E+0	1.216140E+0	7.662444E+0	1.221248E+0	1.231690E+0	1.185965E+0	1.297979E+0	1.210075E+0	1.226088E+0	1.228732E+0	1.265525E+0	1.245455E+0	1.238636E+0	1.240113E+0	1.274415E+0	1.223902E+0	1.187164E+0	1.237611E+0	1.220558E+0	1.237761E+0	1.230082E+0	1.228888E+0	1.208799E+0	1.292564E+0	1.300584E+0	1.293684E+0	1.264771E+0	1.227800E+0	1.277484E+0	1.257769E+0	1.272104E+0	1.293505E+0	1.253793E+0	1.237106E+0	1.230018E+0	1.282591E+0	1.229333E+0	1.166658E+0	1.291870E+0	1.269785E+0	1.260861E+0	1.266682E+0	1.280901E+0	1.248038E+0	1.273621E+0	1.255831E+0	1.273125E+0	1.210828E+0	1.161468E+0	1.288189E+0	1.293896E+0	1.239699E+0	1.249373E+0	1.250996E+0	1.268563E+0	1.273815E+0	1.253768E+0	1.227873E+0	1.246900E+0	1.288384E+0	1.225446E+0	1.277031E+0	1.264766E+0	1.202406E+0	1.225964E+0	1.227358E+0	1.235299E+0	1.223619E+0	1.214092E+0	1.233627E+0	1.252409E+0	1.284457E+0	1.250749E+0	1.199627E+0	1.273881E+0	1.226303E+0	1.218328E+0	1.234570E+0	1.226518E+0	1.250646E+0	1.298329E+0	1.226022E+0	1.318566E+0	1.296588E+0	1.237323E+0	1.242971E+0	1.232244E+0	1.271775E+0	1.240462E+0	1.235672E+0	1.246952E+0	1.308963E+0	1.265885E+0	1.276284E+0	1.262313E+0	1.239683E+0	1.216372E+0	1.208500E+0	1.234600E+0	1.271022E+0	1.217529E+0	1.266951E+0	1.236476E+0	1.233816E+0	1.246505E+0	1.256556E+0	1.301452E+0	1.250918E+0	1.214226E+0	1.180098E+0	1.262183E+0	1.277757E+0	1.250166E+0	1.183217E+0	1.211581E+0	1.266713E+0	1.212988E+0	1.190656E+0	1.220127E+0	1.233762E+0	1.289981E+0	1.184523E+0	1.258161E+0	1.205209E+0	1.258848E+0	1.259096E+0	1.231057E+0	1.257319E+0	1.276657E+0	1.159985E+0	1.257789E+0	1.246677E+0	1.232686E+0	1.218899E+0	1.257092E+0	1.234612E+0	1.229251E+0	1.241182E+0	1.299943E+0	1.213618E+0	1.209484E+0	1.233449E+0	1.237956E+0	1.223440E+0	1.235062E+0	1.214916E+0	1.233859E+0	1.244251E+0	1.246353E+0	1.198689E+0	1.220315E+0	1.243463E+0	1.184714E+0	1.262011E+0	1.242512E+0	1.204706E+0	1.219681E+0	1.185864E+0	1.250161E+0	1.219790E+0	1.201127E+0	1.173114E+0	1.279895E+0	1.229432E+0	1.203538E+0	1.238459E+0	1.327061E+0	1.232484E+0	1.248504E+0	1.486328E+0
5.390340E+2	1.455924E+0	1.353807E+0	1.315368E+0	5.363171E+0	1.425615E+0	1.393607E+0	1.379384E+0	1.407658E+0	1.424079E+0	1.383993E+0	1.449750E+0	1.429251E+0	1.462705E+0	1.383551E+0	1.418236E+0	1.462993E+0	1.400551E+0	1.379373E+0	1.383873E+0	1.398531E+0	1.454389E+0	1.366909E+0	1.402968E+0	1.401344E+0	1.463079E+0	1.450674E+0	1.518620E+0	1.360901E+0	1.428400E+0	1.436993E+0	1.414120E+0	1.471720E+0	1.448554E+0	1.420130E+0	1.372200E+0	1.356012E+0	1.412683E+0	1.387540E+0	1.407343E+0	1.476586E+0	1.426613E+0	1.371333E+0	1.370780E+0	1.439362E+0	1.400473E+0	1.401370E+0	1.413113E+0	1.439165E+0	1.383088E+0	1.347472E+0	1.455441E+0	1.475801E+0	1.389498E+0	1.376867E+0	1.428019E+0	1.405578E+0	1.432109E+0	1.315907E+0	1.395220E+0	1.414333E+0	1.490469E+0	1.376881E+0	1.367202E+0	1.429560E+0	1.404357E+0	1.335813E+0	1.352938E+0	1.400698E+0	1.394126E+0	1.386810E+0	1.342838E+0	1.364543E+0	1.404803E+0	1.399285E+0	1.387941E+0	1.351172E+0	1.355093E+0	1.366107E+0	1.384748E+0	1.405206E+0	1.379581E+0	1.394138E+0	1.377911E+0	1.431629E+0	1.370443E+0	1.388748E+0	1.393036E+0	1.423209E+0	1.411635E+0	1.396923E+0	1.452334E+0	1.367117E+0	1.500315E+0	1.369290E+0	1.422890E+0	1.402163E+0	1.389062E+0	1.388213E+0	1.367022E+0	1.407870E+0	1.427703E+0	1.351944E+0	1.407984E+0	1.373192E+0	1.336833E+0	1.417406E+0	1.436995E+0	1.394479E+0	1.431863E+0	1.368786E+0	1.393507E+0	1.417307E+0	1.365938E+0	1.372648E+0	1.454326E+0	1.384520E+0	1.377335E+0	1.309139E+0	1.371445E+0	1.416790E+0	1.405168E+0	1.401776E+0	1.401905E+0	1.398766E+0	1.409545E+0	1.373582E+0	1.403693E+0	1.400470E+0	1.351206E+0	1.353749E+0	1.366119E+0	1.424229E+0	1.390349E+0	1.388862E+0	1.389002E+0	1.361996E+0	1.381685E+0	1.340551E+0	1.393730E+0	1.509230E+0	1.376354E+0	1.389033E+0	1.350191E+0	1.410890E+0	1.321853E+0	1.336307E+0	1.381815E+0	1.407362E+0	1.398785E+0	1.385318E+0	1.390192E+0	1.416480E+0	1.410781E+0	1.414120E+0	1.304718E+0	1.390804E+0	1.384337E+0	1.396389E+0	1.418210E+0	1.421990E+0	1.400330E+0	1.382273E+0	1.397458E+0	1.451008E+0	1.337449E+0	1.378761E+0	1.409396E+0	1.457972E+0	1.424755E+0	1.403799E+0	1.518081E+0
5.392780E+2	1.675154E+0	1.594391E+0	1.601313E+0	6.484554E+0	1.605660E+0	1.595833E+0	1.612190E+0	1.703671E+0	1.605960E+0	1.636834E+0	1.645126E+0	1.606525E+0	1.673088E+0	1.637228E+0	1.601997E+0	1.648085E+0	1.609753E+0	1.592716E+0	1.572652E+0	1.583950E+0	1.676563E+0	1.632139E+0	1.571756E+0	1.654942E+0	1.670347E+0	1.558833E+0	1.675114E+0	1.622926E+0	1.629264E+0	1.706219E+0	1.671961E+0	1.667694E+0	1.723165E+0	1.661498E+0	1.596482E+0	1.600123E+0	1.576505E+0	1.573026E+0	1.556194E+0	1.623177E+0	1.653500E+0	1.523010E+0	1.576557E+0	1.671758E+0	1.663955E+0	1.577592E+0	1.608911E+0	1.623229E+0	1.643738E+0	1.541852E+0	1.584181E+0	1.609958E+0	1.592916E+0	1.588688E+0	1.630273E+0	1.601981E+0	1.617659E+0	1.609770E+0	1.585215E+0	1.621630E+0	1.641504E+0	1.599059E+0	1.645013E+0	1.622704E+0	1.626323E+0	1.589580E+0	1.571874E+0	1.636956E+0	1.617263E+0	1.602834E+0	1.566114E+0	1.674307E+0	1.627117E+0	1.596734E+0	1.580196E+0	1.580004E+0	1.605763E+0	1.582350E+0	1.666558E+0	1.625437E+0	1.562052E+0	1.667472E+0	1.587810E+0	1.623588E+0	1.581321E+0	1.596124E+0	1.634114E+0	1.659312E+0	1.611364E+0	1.562816E+0	1.595964E+0	1.585571E+0	1.688907E+0	1.571802E+0	1.572278E+0	1.615055E+0	1.614943E+0	1.547400E+0	1.586352E+0	1.607232E+0	1.587996E+0	1.546615E+0	1.608113E+0	1.658100E+0	1.599933E+0	1.604817E+0	1.640001E+0	1.657401E+0	1.602518E+0	1.634307E+0	1.602913E+0	1.673547E+0	1.580994E+0	1.596129E+0	1.573253E+0	1.552137E+0	1.618519E+0	1.583228E+0	1.551659E+0	1.699692E+0	1.602329E+0	1.566359E+0	1.595146E+0	1.731308E+0	1.611146E+0	1.647030E+0	1.574353E+0	1.650325E+0	1.605102E+0	1.636209E+0	1.569295E+0	1.605364E+0	1.557724E+0	1.658225E+0	1.563965E+0	1.606202E+0	1.619415E+0	1.615846E+0	1.607034E+0	1.697131E+0	1.608877E+0	1.584272E+0	1.571588E+0	1.640964E+0	1.603134E+0	1.580575E+0	1.583397E+0	1.593397E+0	1.588523E+0	1.578516E+0	1.582430E+0	1.618605E+0	1.593477E+0	1.652526E+0	1.593827E+0	1.587723E+0	1.578126E+0	1.592860E+0	1.619181E+0	1.625397E+0	1.570803E+0	1.603032E+0	1.564068E+0	1.602364E+0	1.578140E+0	1.554117E+0	1.612429E+0	1.684407E+0	1.596599E+0	1.790235E+0	1.735838E+0
5.395160E+2	1.981756E+0	1.879796E+0	1.823109E+0	4.017644E+0	1.861877E+0	1.886564E+0	1.869596E+0	1.875453E+0	1.893839E+0	1.871769E+0	1.800952E+0	1.906543E+0	1.909006E+0	1.839837E+0	1.957279E+0	1.900451E+0	1.901761E+0	1.862054E+0	1.847988E+0	1.901055E+0	1.900438E+0	1.871977E+0	1.872117E+0	1.915475E+0	1.908482E+0	1.873069E+0	1.918550E+0	1.818834E+0	1.871951E+0	1.916699E+0	1.880587E+0	1.859524E+0	1.956107E+0	1.891567E+0	1.828931E+0	1.823327E+0	1.881563E+0	1.836629E+0	1.856253E+0	1.885090E+0	1.979644E+0	1.809870E+0	1.867471E+0	1.882277E+0	1.874535E+0	1.856896E+0	1.843496E+0	1.920460E+0	1.896242E+0	1.870906E+0	1.808743E+0	1.810746E+0	1.855569E+0	1.863182E+0	1.913248E+0	1.876675E+0	1.915474E+0	1.812770E+0	1.945192E+0	1.819224E+0	1.982828E+0	1.849038E+0	1.818701E+0	1.845587E+0	1.842817E+0	1.887443E+0	1.846187E+0	1.889448E+0	1.850007E+0	1.905667E+0	1.867927E+0	1.803392E+0	1.877630E+0	1.785990E+0	1.846824E+0	1.867510E+0	1.818844E+0	1.855321E+0	1.859984E+0	1.881319E+0	1.848669E+0	1.925377E+0	1.937768E+0	1.914194E+0	1.865541E+0	1.838292E+0	1.814927E+0	1.872204E+0	1.917503E+0	1.833100E+0	1.887222E+0	1.820900E+0	1.956926E+0	1.875630E+0	1.865334E+0	1.868006E+0	1.845063E+0	1.851856E+0	1.840242E+0	1.851145E+0	1.859800E+0	1.881012E+0	1.880891E+0	1.895915E+0	1.890368E+0	1.850858E+0	1.922124E+0	1.922844E+0	1.855385E+0	1.802646E+0	1.818579E+0	1.874279E+0	1.836949E+0	1.898986E+0	1.805433E+0	1.829387E+0	1.801915E+0	1.833141E+0	1.869608E+0	1.890333E+0	1.828859E+0	1.814405E+0	1.809421E+0	1.886817E+0	1.838509E+0	1.849532E+0	1.789009E+0	1.876591E+0	1.848119E+0	1.836787E+0	1.763872E+0	1.819569E+0	1.797419E+0	1.825954E+0	1.795730E+0	1.865564E+0	1.871916E+0	1.880731E+0	1.856492E+0	1.914487E+0	1.822183E+0	1.840968E+0	1.847795E+0	1.848010E+0	1.824944E+0	1.867716E+0	1.826409E+0	1.805002E+0	1.816401E+0	1.819598E+0	1.855445E+0	1.882285E+0	1.852986E+0	1.765229E+0	1.905771E+0	1.887073E+0	1.807575E+0	1.864821E+0	1.799748E+0	1.794558E+0	1.745598E+0	1.854818E+0	1.791394E+0	1.890220E+0	1.837740E+0	1.772119E+0	1.782167E+0	1.797733E+0	1.876253E+0	1.845237E+0	1.939326E+0
5.397910E+2	2.018570E+0	1.958856E+0	1.987361E+0	2.918003E+0	1.978162E+0	2.023350E+0	1.995304E+0	2.018339E+0	2.051562E+0	2.004426E+0	1.976910E+0	1.945185E+0	2.069720E+0	2.006030E+0	1.983806E+0	2.098331E+0	2.033598E+0	1.969046E+0	1.977026E+0	1.953881E+0	1.989204E+0	2.020153E+0	1.968601E+0	2.000104E+0	1.965951E+0	2.009652E+0	1.972431E+0	1.961750E+0	1.962594E+0	2.039555E+0	1.969313E+0	1.957240E+0	2.063307E+0	2.058324E+0	1.969793E+0	1.993068E+0	1.996724E+0	1.916312E+0	1.941130E+0	2.048644E+0	2.038980E+0	1.969287E+0	1.974371E+0	2.035179E+0	1.997353E+0	2.024244E+0	1.966519E+0	2.006363E+0	1.905135E+0	1.953001E+0	1.930321E+0	1.986197E+0	1.956832E+0	1.978997E+0	1.967311E+0	1.954992E+0	2.037224E+0	1.914607E+0	1.989469E+0	1.973296E+0	2.038186E+0	1.980978E+0	1.895614E+0	1.988359E+0	1.984814E+0	1.893933E+0	1.942065E+0	2.047256E+0	1.994076E+0	1.947488E+0	1.960725E+0	1.975257E+0	2.020426E+0	2.023501E+0	1.958219E+0	1.989175E+0	1.948613E+0	2.041120E+0	1.981797E+0	1.993363E+0	1.927118E+0	1.996921E+0	1.959595E+0	1.967779E+0	2.004461E+0	1.943224E+0	1.988353E+0	1.978876E+0	1.980815E+0	1.941988E+0	1.944843E+0	1.940934E+0	2.046028E+0	1.983824E+0	1.954602E+0	1.990932E+0	1.962942E+0	1.984374E+0	1.951499E+0	1.954341E+0	2.042386E+0	1.915421E+0	1.888684E+0	1.968377E+0	1.985436E+0	1.928840E+0	2.002965E+0	1.960058E+0	2.001845E+0	1.988921E+0	1.972354E+0	1.940516E+0	1.898827E+0	2.013830E+0	1.852184E+0	1.953786E+0	2.007977E+0	1.962251E+0	1.937534E+0	1.970134E+0	1.923141E+0	1.944809E+0	1.947915E+0	1.985573E+0	1.991930E+0	1.921742E+0	1.996682E+0	1.951959E+0	1.908170E+0	1.911767E+0	1.913503E+0	1.977842E+0	1.968437E+0	1.987832E+0	1.968042E+0	1.976095E+0	1.952243E+0	1.992987E+0	1.942059E+0	2.046068E+0	1.956250E+0	1.925992E+0	1.900095E+0	1.986706E+0	1.890048E+0	1.877181E+0	1.969098E+0	1.966362E+0	1.990293E+0	1.909702E+0	1.902349E+0	2.032445E+0	2.010235E+0	1.894358E+0	1.903356E+0	1.940106E+0	1.961297E+0	1.929866E+0	1.966625E+0	1.940745E+0	1.985547E+0	1.887040E+0	1.893364E+0	1.914830E+0	1.881179E+0	1.894089E+0	1.926901E+0	2.028239E+0	1.908002E+0	2.151053E+0	2.121994E+0
5.400350E+2	2.058038E+0	2.024149E+0	2.023943E+0	3.250222E+0	2.025064E+0	2.015522E+0	1.956928E+0	2.060854E+0	2.021603E+0	2.134500E+0	2.028991E+0	2.071493E+0	2.098601E+0	2.005966E+0	2.091426E+0	2.045401E+0	1.999673E+0	2.031767E+0	2.106294E+0	2.059136E+0	2.035665E+0	1.990641E+0	2.010394E+0	2.027244E+0	2.045238E+0	1.999364E+0	2.046254E+0	1.976657E+0	1.984440E+0	2.059925E+0	2.045712E+0	1.978795E+0	2.172815E+0	2.050894E+0	1.965553E+0	2.020122E+0	2.043535E+0	1.954562E+0	1.996644E+0	2.028185E+0	2.133587E+0	1.997321E+0	1.976989E+0	2.013954E+0	2.082570E+0	2.023616E+0	1.995584E+0	2.066901E+0	2.043935E+0	1.973624E+0	2.021964E+0	2.085599E+0	1.993203E+0	2.047441E+0	2.041219E+0	2.028672E+0	2.090668E+0	1.949641E+0	2.014986E+0	2.012842E+0	2.065262E+0	2.012101E+0	2.021434E+0	2.040686E+0	1.981439E+0	2.017187E+0	1.987666E+0	2.015943E+0	1.992209E+0	2.023474E+0	2.020897E+0	2.057937E+0	2.048719E+0	1.982340E+0	2.013181E+0	2.055110E+0	1.965961E+0	2.046765E+0	2.061894E+0	2.008528E+0	1.922476E+0	2.023430E+0	1.991661E+0	2.014736E+0	1.978578E+0	1.946308E+0	2.005741E+0	1.980922E+0	2.095993E+0	1.995213E+0	2.036362E+0	1.984928E+0	2.085779E+0	1.951073E+0	2.005225E+0	2.057485E+0	2.050590E+0	2.035803E+0	2.056740E+0	1.975706E+0	2.057526E+0	2.007901E+0	2.048296E+0	1.970539E+0	1.976242E+0	1.966074E+0	2.025219E+0	1.986227E+0	2.023308E+0	1.985512E+0	1.992404E+0	2.008733E+0	1.960559E+0	1.932165E+0	1.951280E+0	2.005958E+0	2.031971E+0	1.955757E+0	1.916420E+0	2.034739E+0	1.990964E+0	2.030273E+0	1.998481E+0	2.027168E+0	1.918688E+0	1.980380E+0	2.031708E+0	2.032731E+0	1.992644E+0	1.943116E+0	1.908909E+0	1.945087E+0	1.975510E+0	1.906157E+0	1.968972E+0	1.992527E+0	2.009561E+0	1.987608E+0	1.938804E+0	2.090523E+0	1.978059E+0	1.976323E+0	1.899453E+0	2.015604E+0	2.020750E+0	1.968892E+0	1.961446E+0	1.979476E+0	1.976202E+0	1.935702E+0	1.970416E+0	1.959717E+0	2.094989E+0	1.904417E+0	2.013511E+0	2.043446E+0	1.996699E+0	1.965835E+0	1.998835E+0	1.985368E+0	2.005232E+0	1.969449E+0	1.926753E+0	2.028892E+0	1.961731E+0	1.932035E+0	1.983895E+0	2.092715E+0	1.933214E+0	2.075082E+0	2.008645E+0
5.402740E+2	2.066729E+0	1.926812E+0	1.989184E+0	2.831401E+0	1.894885E+0	2.003995E+0	1.964924E+0	1.978074E+0	2.011765E+0	1.966694E+0	1.941577E+0	1.973621E+0	2.009510E+0	1.994944E+0	1.991693E+0	2.020784E+0	1.974922E+0	1.965388E+0	1.961607E+0	1.936205E+0	1.953385E+0	1.993913E+0	1.956125E+0	2.038191E+0	2.044687E+0	1.931268E+0	1.997104E+0	1.983710E+0	1.981039E+0	1.940660E+0	1.962726E+0	1.954064E+0	1.998127E+0	1.952868E+0	1.930121E+0	1.977060E+0	1.970979E+0	1.930344E+0	1.925839E+0	1.970105E+0	2.067760E+0	1.906834E+0	1.998975E+0	2.018212E+0	2.022969E+0	1.950710E+0	2.003942E+0	1.999419E+0	1.980700E+0	2.036494E+0	2.001902E+0	2.035333E+0	1.994628E+0	1.961182E+0	1.968685E+0	1.911186E+0	1.972887E+0	1.923673E+0	1.957624E+0	1.934425E+0	2.018983E+0	1.944780E+0	1.966495E+0	1.970192E+0	1.915074E+0	1.918189E+0	1.946074E+0	1.961166E+0	1.944138E+0	1.961066E+0	1.945999E+0	1.879608E+0	1.958624E+0	1.875465E+0	1.943192E+0	1.887151E+0	1.998777E+0	1.984774E+0	1.991347E+0	1.950364E+0	1.921892E+0	1.984803E+0	1.957887E+0	1.941279E+0	1.957280E+0	1.953426E+0	1.951001E+0	1.940385E+0	1.975362E+0	1.964147E+0	1.943980E+0	1.953335E+0	2.019432E+0	1.926567E+0	1.998936E+0	1.879637E+0	1.948685E+0	1.974164E+0	1.968017E+0	2.025977E+0	1.974704E+0	1.886639E+0	1.946838E+0	1.931461E+0	1.943414E+0	1.941209E+0	2.020098E+0	1.948720E+0	1.924699E+0	2.019670E+0	1.922190E+0	1.984129E+0	1.945545E+0	1.959499E+0	1.903327E+0	1.938245E+0	1.916523E+0	1.950663E+0	1.926838E+0	1.922147E+0	1.969583E+0	1.885812E+0	1.864213E+0	2.002782E+0	1.943557E+0	1.899872E+0	1.872105E+0	1.950081E+0	1.937818E+0	1.956331E+0	1.890347E+0	1.910365E+0	1.929403E+0	1.891641E+0	1.898170E+0	1.919035E+0	1.897984E+0	1.965602E+0	1.884571E+0	2.002140E+0	1.957295E+0	1.997138E+0	1.940197E+0	1.924709E+0	1.898152E+0	1.912766E+0	1.932871E+0	1.893015E+0	1.939424E+0	1.887658E+0	1.905973E+0	1.939606E+0	1.999167E+0	1.875482E+0	1.980105E+0	1.923510E+0	1.959644E+0	1.883469E+0	1.910501E+0	1.932551E+0	1.875029E+0	1.935448E+0	1.878956E+0	1.972403E+0	1.879775E+0	1.906169E+0	1.889344E+0	1.916811E+0	2.056986E+0	2.049047E+0	2.098020E+0
5.405080E+2	1.892280E+0	1.815520E+0	1.793751E+0	2.359891E+0	1.719461E+0	1.828456E+0	1.835307E+0	1.836820E+0	1.781793E+0	1.837566E+0	1.798192E+0	1.836276E+0	1.861378E+0	1.820790E+0	1.833384E+0	1.798937E+0	1.850372E+0	1.770932E+0	1.777437E+0	1.746093E+0	1.809678E+0	1.742297E+0	1.737891E+0	1.827128E+0	1.873566E+0	1.761282E+0	1.838369E+0	1.808800E+0	1.825237E+0	1.778251E+0	1.738459E+0	1.745294E+0	1.858022E+0	1.805046E+0	1.803282E+0	1.787168E+0	1.803809E+0	1.752644E+0	1.863742E+0	1.774239E+0	1.896520E+0	1.805170E+0	1.795652E+0	1.833379E+0	1.829877E+0	1.799861E+0	1.763072E+0	1.813805E+0	1.856199E+0	1.786468E+0	1.795077E+0	1.817992E+0	1.766442E+0	1.777004E+0	1.816352E+0	1.802081E+0	1.840903E+0	1.752521E+0	1.813107E+0	1.807286E+0	1.845495E+0	1.728575E+0	1.770650E+0	1.734109E+0	1.800005E+0	1.799107E+0	1.779203E+0	1.798617E+0	1.768581E+0	1.760360E+0	1.781685E+0	1.718551E+0	1.827134E+0	1.783572E+0	1.772968E+0	1.795781E+0	1.770631E+0	1.766511E+0	1.835523E+0	1.805338E+0	1.739619E+0	1.797147E+0	1.776142E+0	1.808822E+0	1.796459E+0	1.748775E+0	1.748130E+0	1.837413E+0	1.822871E+0	1.789476E+0	1.788342E+0	1.770871E+0	1.808446E+0	1.795006E+0	1.796216E+0	1.799231E+0	1.827772E+0	1.762430E+0	1.714666E+0	1.759854E+0	1.801500E+0	1.825372E+0	1.771360E+0	1.796725E+0	1.770526E+0	1.812824E+0	1.802697E+0	1.765823E+0	1.819829E+0	1.766870E+0	1.765364E+0	1.789126E+0	1.800652E+0	1.814332E+0	1.651937E+0	1.822388E+0	1.782272E+0	1.776599E+0	1.710728E+0	1.780816E+0	1.804206E+0	1.819023E+0	1.740233E+0	1.765923E+0	1.740011E+0	1.743298E+0	1.748321E+0	1.760167E+0	1.828900E+0	1.855638E+0	1.718013E+0	1.807460E+0	1.781984E+0	1.735868E+0	1.755946E+0	1.725187E+0	1.769873E+0	1.793238E+0	1.778462E+0	1.913266E+0	1.760656E+0	1.754797E+0	1.770421E+0	1.794457E+0	1.730634E+0	1.737289E+0	1.799733E+0	1.741154E+0	1.768669E+0	1.731038E+0	1.766951E+0	1.751266E+0	1.758579E+0	1.732605E+0	1.847968E+0	1.769466E+0	1.850490E+0	1.815733E+0	1.730477E+0	1.772388E+0	1.732539E+0	1.817567E+0	1.765091E+0	1.821722E+0	1.786794E+0	1.738050E+0	1.750277E+0	1.773068E+0	1.872959E+0	1.856225E+0	1.894311E+0
5.407630E+2	1.719079E+0	1.688120E+0	1.653581E+0	2.104591E+0	1.677046E+0	1.645297E+0	1.633275E+0	1.710265E+0	1.647537E+0	1.666601E+0	1.637727E+0	1.654223E+0	1.702950E+0	1.647747E+0	1.655348E+0	1.718325E+0	1.604368E+0	1.677555E+0	1.615861E+0	1.624171E+0	1.672622E+0	1.602800E+0	1.626353E+0	1.711772E+0	1.700104E+0	1.666023E+0	1.682416E+0	1.584148E+0	1.635012E+0	1.635824E+0	1.695404E+0	1.594465E+0	1.712908E+0	1.728876E+0	1.623071E+0	1.610523E+0	1.670978E+0	1.641340E+0	1.636258E+0	1.627377E+0	1.724157E+0	1.654014E+0	1.641806E+0	1.737795E+0	1.636072E+0	1.658037E+0	1.676740E+0	1.676728E+0	1.676029E+0	1.691412E+0	1.613849E+0	1.638465E+0	1.698934E+0	1.650683E+0	1.654698E+0	1.659578E+0	1.703774E+0	1.596048E+0	1.649377E+0	1.609799E+0	1.699287E+0	1.667521E+0	1.677048E+0	1.677489E+0	1.646862E+0	1.646345E+0	1.587561E+0	1.685114E+0	1.679026E+0	1.666933E+0	1.624875E+0	1.624196E+0	1.573690E+0	1.658638E+0	1.635827E+0	1.651093E+0	1.622455E+0	1.615749E+0	1.642782E+0	1.625724E+0	1.572134E+0	1.707020E+0	1.678055E+0	1.632365E+0	1.613183E+0	1.624031E+0	1.592532E+0	1.647048E+0	1.637657E+0	1.643972E+0	1.698588E+0	1.630089E+0	1.679691E+0	1.588993E+0	1.668534E+0	1.637739E+0	1.572913E+0	1.647159E+0	1.625186E+0	1.607287E+0	1.660911E+0	1.664961E+0	1.604551E+0	1.640186E+0	1.594896E+0	1.574495E+0	1.644166E+0	1.654834E+0	1.653589E+0	1.651563E+0	1.602945E+0	1.701785E+0	1.652986E+0	1.709561E+0	1.569561E+0	1.610023E+0	1.673740E+0	1.632017E+0	1.596768E+0	1.607241E+0	1.610881E+0	1.679256E+0	1.649454E+0	1.627717E+0	1.622613E+0	1.678186E+0	1.619085E+0	1.698589E+0	1.643852E+0	1.603500E+0	1.631592E+0	1.688097E+0	1.657712E+0	1.569802E+0	1.573417E+0	1.600749E+0	1.595148E+0	1.638823E+0	1.617234E+0	1.660178E+0	1.666589E+0	1.611737E+0	1.621841E+0	1.654255E+0	1.595514E+0	1.592921E+0	1.659693E+0	1.657682E+0	1.664067E+0	1.610655E+0	1.631364E+0	1.608855E+0	1.605121E+0	1.598408E+0	1.615404E+0	1.590276E+0	1.644150E+0	1.633224E+0	1.674243E+0	1.645547E+0	1.606428E+0	1.660191E+0	1.631730E+0	1.645269E+0	1.618084E+0	1.608129E+0	1.608603E+0	1.624653E+0	1.625111E+0	1.576229E+0	1.666538E+0
5.410340E+2	1.795755E+0	1.679618E+0	1.659354E+0	2.246516E+0	1.721980E+0	1.798321E+0	1.688526E+0	1.803043E+0	1.717674E+0	1.713659E+0	1.735951E+0	1.758466E+0	1.822590E+0	1.708940E+0	1.746725E+0	1.814156E+0	1.770267E+0	1.650147E+0	1.696318E+0	1.733682E+0	1.738850E+0	1.693478E+0	1.707664E+0	1.778446E+0	1.754011E+0	1.732412E+0	1.742366E+0	1.661061E+0	1.757166E+0	1.814517E+0	1.748672E+0	1.771819E+0	1.771722E+0	1.746627E+0	1.775576E+0	1.724364E+0	1.779941E+0	1.644482E+0	1.755263E+0	1.779319E+0	1.842231E+0	1.728708E+0	1.697558E+0	1.743502E+0	1.816727E+0	1.739220E+0	1.718002E+0	1.714344E+0	1.740118E+0	1.729479E+0	1.683536E+0	1.785389E+0	1.743026E+0	1.742431E+0	1.731132E+0	1.674322E+0	1.772765E+0	1.687773E+0	1.761418E+0	1.666423E+0	1.714343E+0	1.703374E+0	1.709038E+0	1.720854E+0	1.725671E+0	1.718959E+0	1.721582E+0	1.717377E+0	1.759145E+0	1.742070E+0	1.746665E+0	1.675247E+0	1.720976E+0	1.658077E+0	1.719491E+0	1.790416E+0	1.706855E+0	1.721271E+0	1.716289E+0	1.713989E+0	1.686081E+0	1.762376E+0	1.693781E+0	1.750515E+0	1.721507E+0	1.705364E+0	1.717640E+0	1.736161E+0	1.720960E+0	1.751271E+0	1.683091E+0	1.735142E+0	1.791176E+0	1.674163E+0	1.705590E+0	1.693120E+0	1.700323E+0	1.714928E+0	1.771997E+0	1.712984E+0	1.743881E+0	1.651601E+0	1.701396E+0	1.706488E+0	1.719505E+0	1.659287E+0	1.726851E+0	1.690603E+0	1.701706E+0	1.672142E+0	1.713147E+0	1.778837E+0	1.670612E+0	1.630969E+0	1.653205E+0	1.650593E+0	1.713865E+0	1.681530E+0	1.666221E+0	1.758315E+0	1.672126E+0	1.684263E+0	1.693174E+0	1.738138E+0	1.684928E+0	1.733157E+0	1.713117E+0	1.645689E+0	1.702070E+0	1.655285E+0	1.641123E+0	1.634538E+0	1.671253E+0	1.708334E+0	1.652374E+0	1.720757E+0	1.757596E+0	1.638479E+0	1.762470E+0	1.763698E+0	1.694637E+0	1.648471E+0	1.719117E+0	1.753798E+0	1.679797E+0	1.696236E+0	1.699474E+0	1.675525E+0	1.677852E+0	1.713561E+0	1.675092E+0	1.730574E+0	1.774505E+0	1.708631E+0	1.721996E+0	1.685129E+0	1.700017E+0	1.706491E+0	1.702320E+0	1.689958E+0	1.715066E+0	1.669773E+0	1.686641E+0	1.690735E+0	1.641822E+0	1.689413E+0	1.684318E+0	1.692042E+0	1.663802E+0	1.754334E+0	1.811109E+0
5.412640E+2	1.735364E+0	1.664857E+0	1.709073E+0	2.103375E+0	1.719806E+0	1.662728E+0	1.726946E+0	1.680321E+0	1.707812E+0	1.715045E+0	1.653914E+0	1.720649E+0	1.681806E+0	1.707112E+0	1.674441E+0	1.738350E+0	1.725524E+0	1.723135E+0	1.688152E+0	1.682485E+0	1.710377E+0	1.710804E+0	1.674919E+0	1.706360E+0	1.659076E+0	1.694923E+0	1.751801E+0	1.649282E+0	1.654903E+0	1.715893E+0	1.649259E+0	1.705648E+0	1.664335E+0	1.703606E+0	1.682039E+0	1.631636E+0	1.717361E+0	1.603353E+0	1.655985E+0	1.681281E+0	1.760208E+0	1.703048E+0	1.703733E+0	1.703589E+0	1.697217E+0	1.668862E+0	1.708569E+0	1.662398E+0	1.688649E+0	1.657500E+0	1.672229E+0	1.729710E+0	1.636322E+0	1.659073E+0	1.688971E+0	1.666073E+0	1.666121E+0	1.708247E+0	1.629627E+0	1.776376E+0	1.757750E+0	1.742825E+0	1.669514E+0	1.714809E+0	1.622361E+0	1.620090E+0	1.665469E+0	1.687546E+0	1.734096E+0	1.687014E+0	1.678659E+0	1.673882E+0	1.706254E+0	1.672022E+0	1.713440E+0	1.662162E+0	1.676915E+0	1.701039E+0	1.716818E+0	1.639659E+0	1.668306E+0	1.648079E+0	1.675246E+0	1.746771E+0	1.662645E+0	1.717492E+0	1.690222E+0	1.684116E+0	1.710465E+0	1.702180E+0	1.699486E+0	1.685824E+0	1.719186E+0	1.657101E+0	1.681576E+0	1.682860E+0	1.671900E+0	1.662509E+0	1.697977E+0	1.727723E+0	1.721124E+0	1.661029E+0	1.588666E+0	1.650433E+0	1.667372E+0	1.665553E+0	1.711470E+0	1.676644E+0	1.733752E+0	1.641808E+0	1.689175E+0	1.715158E+0	1.730981E+0	1.683619E+0	1.676388E+0	1.658874E+0	1.643144E+0	1.573697E+0	1.654936E+0	1.690979E+0	1.693445E+0	1.673600E+0	1.678665E+0	1.728210E+0	1.667872E+0	1.695805E+0	1.732292E+0	1.702931E+0	1.712582E+0	1.650816E+0	1.631526E+0	1.654337E+0	1.705608E+0	1.622655E+0	1.648007E+0	1.650373E+0	1.644694E+0	1.658431E+0	1.615230E+0	1.681979E+0	1.649549E+0	1.667271E+0	1.659992E+0	1.671682E+0	1.663748E+0	1.647220E+0	1.631406E+0	1.650582E+0	1.662253E+0	1.644004E+0	1.605570E+0	1.698636E+0	1.698269E+0	1.653317E+0	1.657774E+0	1.673211E+0	1.649894E+0	1.672107E+0	1.672563E+0	1.671099E+0	1.679038E+0	1.641943E+0	1.621190E+0	1.656101E+0	1.620390E+0	1.660720E+0	1.646233E+0	1.692763E+0	1.638689E+0	1.760772E+0	1.702486E+0
5.415140E+2	1.578341E+0	1.589713E+0	1.520794E+0	1.939100E+0	1.552695E+0	1.557294E+0	1.493813E+0	1.593450E+0	1.589268E+0	1.534365E+0	1.518011E+0	1.537113E+0	1.591900E+0	1.644254E+0	1.578626E+0	1.617600E+0	1.578093E+0	1.534194E+0	1.546356E+0	1.558275E+0	1.541932E+0	1.529609E+0	1.579013E+0	1.521967E+0	1.506463E+0	1.511289E+0	1.539164E+0	1.564202E+0	1.490092E+0	1.570649E+0	1.577760E+0	1.559990E+0	1.570510E+0	1.560961E+0	1.474221E+0	1.527793E+0	1.564581E+0	1.520711E+0	1.511119E+0	1.524031E+0	1.565556E+0	1.511338E+0	1.523837E+0	1.510632E+0	1.516374E+0	1.603988E+0	1.518890E+0	1.563828E+0	1.526406E+0	1.518366E+0	1.531066E+0	1.564460E+0	1.583107E+0	1.515738E+0	1.556439E+0	1.557691E+0	1.583978E+0	1.540138E+0	1.547675E+0	1.571646E+0	1.546700E+0	1.601401E+0	1.503517E+0	1.588862E+0	1.473387E+0	1.500489E+0	1.491572E+0	1.498380E+0	1.607073E+0	1.520869E+0	1.539039E+0	1.528730E+0	1.575709E+0	1.479913E+0	1.519557E+0	1.544117E+0	1.548874E+0	1.562419E+0	1.585664E+0	1.530027E+0	1.433322E+0	1.514427E+0	1.577078E+0	1.584120E+0	1.557298E+0	1.499725E+0	1.535200E+0	1.533403E+0	1.476165E+0	1.547783E+0	1.544441E+0	1.526143E+0	1.534461E+0	1.568271E+0	1.539559E+0	1.503572E+0	1.610044E+0	1.512416E+0	1.532269E+0	1.527842E+0	1.524304E+0	1.520973E+0	1.525248E+0	1.552330E+0	1.495582E+0	1.601323E+0	1.544408E+0	1.502848E+0	1.551358E+0	1.459439E+0	1.535898E+0	1.546374E+0	1.572420E+0	1.514384E+0	1.528413E+0	1.554846E+0	1.546708E+0	1.489544E+0	1.494746E+0	1.516224E+0	1.546275E+0	1.557993E+0	1.510067E+0	1.509321E+0	1.538052E+0	1.593109E+0	1.498525E+0	1.512400E+0	1.503364E+0	1.567117E+0	1.510818E+0	1.552636E+0	1.524999E+0	1.554967E+0	1.521071E+0	1.519030E+0	1.512930E+0	1.579527E+0	1.550366E+0	1.584364E+0	1.596763E+0	1.556502E+0	1.533242E+0	1.586938E+0	1.528301E+0	1.535485E+0	1.476044E+0	1.518799E+0	1.496776E+0	1.504151E+0	1.477389E+0	1.543163E+0	1.584168E+0	1.492303E+0	1.629605E+0	1.511443E+0	1.542155E+0	1.528277E+0	1.544943E+0	1.533769E+0	1.572589E+0	1.568165E+0	1.479982E+0	1.538317E+0	1.507200E+0	1.516582E+0	1.534717E+0	1.459653E+0	1.544945E+0	1.619748E+0	1.536329E+0
5.417700E+2	1.474073E+0	1.343247E+0	1.338434E+0	1.610466E+0	1.417546E+0	1.434203E+0	1.378888E+0	1.407693E+0	1.427471E+0	1.381333E+0	1.389790E+0	1.371919E+0	1.397287E+0	1.421967E+0	1.398856E+0	1.459481E+0	1.422871E+0	1.380419E+0	1.384462E+0	1.404212E+0	1.391500E+0	1.393713E+0	1.399202E+0	1.380910E+0	1.390436E+0	1.410713E+0	1.428069E+0	1.367890E+0	1.412149E+0	1.439813E+0	1.390122E+0	1.403212E+0	1.350553E+0	1.401721E+0	1.358526E+0	1.407773E+0	1.373332E+0	1.364447E+0	1.405167E+0	1.376954E+0	1.439880E+0	1.393115E+0	1.386153E+0	1.451670E+0	1.384228E+0	1.410773E+0	1.430222E+0	1.383335E+0	1.376082E+0	1.418661E+0	1.406760E+0	1.467268E+0	1.362424E+0	1.388115E+0	1.396145E+0	1.374903E+0	1.432874E+0	1.372573E+0	1.393334E+0	1.391508E+0	1.395054E+0	1.404052E+0	1.357049E+0	1.416425E+0	1.371624E+0	1.420550E+0	1.387690E+0	1.377748E+0	1.410522E+0	1.408576E+0	1.384693E+0	1.383997E+0	1.433848E+0	1.397813E+0	1.343997E+0	1.403273E+0	1.333308E+0	1.406649E+0	1.412150E+0	1.398564E+0	1.318423E+0	1.452679E+0	1.361554E+0	1.364828E+0	1.387342E+0	1.358263E+0	1.381071E+0	1.387344E+0	1.362791E+0	1.391485E+0	1.444879E+0	1.365170E+0	1.462678E+0	1.411396E+0	1.407986E+0	1.404146E+0	1.415162E+0	1.377644E+0	1.436387E+0	1.417948E+0	1.424182E+0	1.368117E+0	1.365572E+0	1.378339E+0	1.389132E+0	1.427059E+0	1.347540E+0	1.365126E+0	1.372075E+0	1.363582E+0	1.444078E+0	1.418199E+0	1.386943E+0	1.391429E+0	1.418004E+0	1.355363E+0	1.404956E+0	1.396001E+0	1.362664E+0	1.385837E+0	1.377849E+0	1.362773E+0	1.339476E+0	1.463806E+0	1.399940E+0	1.396456E+0	1.397283E+0	1.422727E+0	1.413435E+0	1.372677E+0	1.300845E+0	1.406205E+0	1.368977E+0	1.396023E+0	1.401957E+0	1.421203E+0	1.409249E+0	1.342555E+0	1.422215E+0	1.470403E+0	1.421265E+0	1.406162E+0	1.373648E+0	1.411712E+0	1.396124E+0	1.360138E+0	1.397490E+0	1.301034E+0	1.383723E+0	1.414360E+0	1.390909E+0	1.400034E+0	1.395236E+0	1.413234E+0	1.411001E+0	1.353376E+0	1.396844E+0	1.358889E+0	1.389835E+0	1.382061E+0	1.341460E+0	1.382948E+0	1.449910E+0	1.441003E+0	1.375191E+0	1.320897E+0	1.361211E+0	1.417425E+0	1.367018E+0	1.449000E+0	1.506438E+0
5.420160E+2	1.286738E+0	1.208695E+0	1.270158E+0	1.404755E+0	1.218846E+0	1.243050E+0	1.221690E+0	1.288986E+0	1.279793E+0	1.241022E+0	1.267682E+0	1.259546E+0	1.200874E+0	1.253394E+0	1.213847E+0	1.231338E+0	1.227472E+0	1.267764E+0	1.251167E+0	1.189519E+0	1.228192E+0	1.225669E+0	1.225169E+0	1.200123E+0	1.209287E+0	1.208392E+0	1.253964E+0	1.176963E+0	1.241272E+0	1.188069E+0	1.268352E+0	1.227925E+0	1.291243E+0	1.245989E+0	1.237017E+0	1.217515E+0	1.280194E+0	1.228357E+0	1.216715E+0	1.223629E+0	1.262465E+0	1.232560E+0	1.231319E+0	1.271274E+0	1.220021E+0	1.268852E+0	1.251165E+0	1.287097E+0	1.229845E+0	1.299740E+0	1.272547E+0	1.307145E+0	1.241568E+0	1.231051E+0	1.258691E+0	1.232797E+0	1.262204E+0	1.223282E+0	1.208833E+0	1.281994E+0	1.240298E+0	1.255951E+0	1.211606E+0	1.233028E+0	1.191970E+0	1.225599E+0	1.229399E+0	1.217694E+0	1.302052E+0	1.212650E+0	1.214761E+0	1.233701E+0	1.226561E+0	1.181284E+0	1.169336E+0	1.239236E+0	1.183371E+0	1.216616E+0	1.224267E+0	1.264146E+0	1.254040E+0	1.305874E+0	1.260903E+0	1.256520E+0	1.261050E+0	1.206198E+0	1.280487E+0	1.215330E+0	1.195984E+0	1.219704E+0	1.252237E+0	1.282159E+0	1.294753E+0	1.247022E+0	1.229981E+0	1.282707E+0	1.264819E+0	1.308330E+0	1.247839E+0	1.219861E+0	1.216413E+0	1.230563E+0	1.169580E+0	1.208927E+0	1.209947E+0	1.232521E+0	1.277516E+0	1.233426E+0	1.276451E+0	1.213815E+0	1.191572E+0	1.235254E+0	1.221861E+0	1.259523E+0	1.223913E+0	1.185713E+0	1.240788E+0	1.208249E+0	1.219624E+0	1.254998E+0	1.236451E+0	1.240999E+0	1.235526E+0	1.241961E+0	1.200183E+0	1.222730E+0	1.216798E+0	1.216909E+0	1.215234E+0	1.260007E+0	1.256180E+0	1.262954E+0	1.215086E+0	1.220635E+0	1.247384E+0	1.200831E+0	1.229109E+0	1.225147E+0	1.201797E+0	1.305106E+0	1.202451E+0	1.238945E+0	1.201867E+0	1.273100E+0	1.229531E+0	1.214728E+0	1.241971E+0	1.238874E+0	1.233457E+0	1.243830E+0	1.230064E+0	1.257676E+0	1.232927E+0	1.203203E+0	1.253309E+0	1.253412E+0	1.215862E+0	1.255792E+0	1.250281E+0	1.296977E+0	1.247383E+0	1.241831E+0	1.185847E+0	1.258672E+0	1.253537E+0	1.204277E+0	1.265717E+0	1.288122E+0	1.251198E+0	1.225654E+0	1.231399E+0
5.422670E+2	9.951386E-1	9.707445E-1	9.619474E-1	1.086858E+0	9.843291E-1	1.039035E+0	9.976043E-1	9.803370E-1	9.964617E-1	1.003084E+0	1.002768E+0	1.001121E+0	9.883720E-1	9.875670E-1	9.914265E-1	1.020775E+0	1.001902E+0	9.764019E-1	1.000333E+0	9.618905E-1	1.035032E+0	9.729960E-1	9.854018E-1	9.728732E-1	1.026989E+0	1.001352E+0	1.016513E+0	9.995072E-1	9.687991E-1	1.025874E+0	9.896206E-1	9.982193E-1	1.019176E+0	1.046680E+0	9.352263E-1	9.760863E-1	1.071582E+0	1.010544E+0	1.014984E+0	1.019935E+0	9.897614E-1	1.000043E+0	9.940963E-1	1.024109E+0	1.008981E+0	9.812776E-1	1.004683E+0	1.003879E+0	1.002397E+0	1.005788E+0	1.023534E+0	1.036818E+0	1.006390E+0	9.479230E-1	9.867998E-1	9.604913E-1	1.006996E+0	9.941120E-1	9.521539E-1	1.005826E+0	1.000155E+0	1.042302E+0	1.008532E+0	9.885373E-1	9.890433E-1	9.765134E-1	1.012738E+0	1.020006E+0	9.904218E-1	9.876878E-1	1.013254E+0	1.000614E+0	1.001049E+0	9.849193E-1	9.873477E-1	1.032590E+0	1.010772E+0	1.026560E+0	9.766508E-1	9.935132E-1	9.320550E-1	1.035331E+0	9.895397E-1	9.942767E-1	9.876774E-1	9.612192E-1	9.774517E-1	9.754638E-1	9.964901E-1	1.004621E+0	1.055542E+0	1.012037E+0	1.013758E+0	1.031498E+0	1.018399E+0	9.953309E-1	1.026121E+0	9.906043E-1	1.003872E+0	1.020639E+0	1.018011E+0	9.979711E-1	1.010854E+0	9.772366E-1	9.566656E-1	9.739604E-1	9.966905E-1	1.024107E+0	1.010943E+0	1.017636E+0	9.810808E-1	1.019072E+0	1.000234E+0	9.739427E-1	9.632357E-1	1.007640E+0	9.878363E-1	1.032631E+0	9.860708E-1	1.013893E+0	1.000576E+0	9.804520E-1	9.923167E-1	1.014957E+0	1.004405E+0	1.001301E+0	9.929947E-1	1.018645E+0	9.792776E-1	9.449327E-1	1.004460E+0	1.006598E+0	9.792080E-1	1.003999E+0	1.004061E+0	9.815261E-1	1.032723E+0	1.057892E+0	1.021015E+0	1.003065E+0	1.012238E+0	9.956165E-1	1.009768E+0	9.884874E-1	9.757160E-1	9.862116E-1	1.012045E+0	9.889258E-1	9.967439E-1	9.936141E-1	9.948322E-1	9.683041E-1	1.032869E+0	9.514483E-1	9.976123E-1	9.953633E-1	9.716736E-1	1.050305E+0	9.653493E-1	9.735129E-1	1.000410E+0	1.007579E+0	9.965046E-1	1.047191E+0	9.914425E-1	9.948131E-1	1.031781E+0	1.022173E+0	1.105401E+0	1.053154E+0	1.112712E+0
5.425140E+2	9.372479E-1	9.076992E-1	9.381119E-1	9.123758E-1	9.553472E-1	9.535636E-1	9.036572E-1	9.786588E-1	9.695270E-1	9.222382E-1	9.891609E-1	9.658965E-1	9.606111E-1	9.630750E-1	9.641945E-1	9.491338E-1	9.524996E-1	9.370301E-1	9.662038E-1	9.214553E-1	9.558669E-1	9.299138E-1	9.458981E-1	9.537765E-1	1.015144E+0	9.653011E-1	9.547804E-1	9.661443E-1	9.454139E-1	9.982181E-1	9.666483E-1	9.653219E-1	9.674086E-1	9.379891E-1	9.721942E-1	8.539082E-1	9.669110E-1	9.315753E-1	9.392664E-1	1.005041E+0	9.745262E-1	9.517241E-1	9.642361E-1	9.075957E-1	9.535135E-1	9.735791E-1	9.656531E-1	1.006741E+0	9.705652E-1	9.809924E-1	9.950124E-1	9.783687E-1	9.794110E-1	9.853404E-1	9.179338E-1	9.527614E-1	9.398987E-1	9.427052E-1	9.491748E-1	9.489390E-1	9.857271E-1	9.716961E-1	9.152914E-1	9.787979E-1	9.211480E-1	9.366953E-1	9.612345E-1	9.386493E-1	9.883871E-1	9.584868E-1	9.021303E-1	9.719403E-1	9.705469E-1	9.429128E-1	9.850929E-1	9.557814E-1	9.626786E-1	9.404597E-1	9.601675E-1	9.745219E-1	9.583417E-1	9.713556E-1	9.825676E-1	9.734185E-1	9.862273E-1	9.683490E-1	9.612141E-1	9.820091E-1	1.020538E+0	9.829087E-1	9.160774E-1	9.328735E-1	9.814929E-1	9.858970E-1	9.603324E-1	9.288537E-1	9.549311E-1	9.788988E-1	9.304831E-1	9.570937E-1	9.329572E-1	9.630727E-1	9.058808E-1	9.307756E-1	9.236155E-1	9.571791E-1	9.221380E-1	9.624228E-1	9.231345E-1	9.348757E-1	9.463093E-1	9.548390E-1	9.557556E-1	9.931700E-1	9.281048E-1	9.485348E-1	9.845698E-1	9.472253E-1	9.196156E-1	9.849240E-1	9.460880E-1	9.479765E-1	9.717656E-1	9.732263E-1	9.592891E-1	9.322947E-1	1.000041E+0	9.754888E-1	9.706701E-1	1.035501E+0	9.495626E-1	9.107044E-1	9.555965E-1	9.127822E-1	9.667428E-1	9.927189E-1	9.955454E-1	1.010009E+0	9.427877E-1	9.350454E-1	9.544463E-1	9.806604E-1	1.007403E+0	1.005779E+0	9.322145E-1	1.011859E+0	9.119441E-1	9.293288E-1	9.745131E-1	9.614593E-1	9.801930E-1	9.749319E-1	9.757728E-1	9.571054E-1	9.815386E-1	9.681129E-1	9.607702E-1	9.697003E-1	9.706894E-1	9.634861E-1	9.193216E-1	9.981612E-1	9.593163E-1	1.006484E+0	1.000301E+0	9.377266E-1	9.747365E-1	9.504684E-1	1.025648E+0	1.074763E+0	1.125217E+0
5.427650E+2	9.757284E-1	9.783871E-1	9.182017E-1	9.642378E-1	9.792313E-1	1.007426E+0	9.454207E-1	9.824430E-1	9.787246E-1	9.264516E-1	9.869472E-1	9.499185E-1	9.825706E-1	9.199473E-1	9.568883E-1	1.007321E+0	9.552942E-1	9.298460E-1	1.024016E+0	9.534853E-1	9.793616E-1	9.641516E-1	9.843073E-1	9.216237E-1	1.037400E+0	9.941783E-1	1.039984E+0	9.675469E-1	9.950029E-1	1.004552E+0	1.004126E+0	9.735346E-1	9.813902E-1	9.485410E-1	9.864265E-1	9.778020E-1	9.146256E-1	9.285037E-1	9.842274E-1	9.514924E-1	9.706333E-1	9.765716E-1	9.887968E-1	9.124669E-1	9.690006E-1	9.639199E-1	9.476452E-1	9.539119E-1	9.807676E-1	9.893777E-1	1.014552E+0	9.690429E-1	9.961118E-1	9.590895E-1	9.753784E-1	9.469239E-1	9.776552E-1	9.535629E-1	9.506540E-1	9.584148E-1	9.801640E-1	9.627116E-1	9.519259E-1	9.996242E-1	9.357890E-1	9.674584E-1	9.645843E-1	9.585146E-1	9.792032E-1	9.678540E-1	9.755476E-1	9.329613E-1	9.766242E-1	9.585183E-1	9.186074E-1	9.747457E-1	9.289309E-1	9.533866E-1	9.997326E-1	9.523926E-1	9.457661E-1	1.020279E+0	1.046239E+0	9.802041E-1	9.301475E-1	9.170161E-1	9.540984E-1	9.717731E-1	9.199910E-1	9.783168E-1	9.795480E-1	9.613963E-1	1.025748E+0	9.613896E-1	9.899685E-1	9.802112E-1	1.000487E+0	9.725028E-1	1.028060E+0	9.804086E-1	9.851009E-1	9.444473E-1	9.459004E-1	9.608136E-1	9.232948E-1	9.698051E-1	9.999120E-1	9.428201E-1	9.563802E-1	9.435261E-1	9.535603E-1	9.536088E-1	9.839225E-1	9.718670E-1	9.077415E-1	9.560647E-1	9.399542E-1	9.619125E-1	9.649092E-1	9.162725E-1	9.524118E-1	9.891836E-1	9.602739E-1	9.844380E-1	9.304890E-1	9.865194E-1	9.492380E-1	1.008921E+0	9.353774E-1	9.573149E-1	9.359880E-1	9.703951E-1	9.445261E-1	9.645598E-1	9.236622E-1	9.536993E-1	1.000671E+0	9.911974E-1	9.282567E-1	1.030652E+0	9.617610E-1	1.029634E+0	1.001127E+0	9.940046E-1	9.653984E-1	9.639927E-1	9.448839E-1	9.423220E-1	9.823973E-1	9.639528E-1	9.619105E-1	9.902404E-1	9.655155E-1	9.422073E-1	9.515789E-1	9.796737E-1	9.692639E-1	9.805682E-1	1.003066E+0	1.001067E+0	9.800998E-1	9.404345E-1	9.862419E-1	1.004773E+0	9.525823E-1	9.161017E-1	9.843972E-1	9.295169E-1	8.682408E-1	1.082651E+0	1.111824E+0
5.430120E+2	1.012528E+0	1.005011E+0	9.681495E-1	9.967036E-1	1.015218E+0	1.035071E+0	1.016335E+0	1.037476E+0	1.001893E+0	9.994638E-1	9.923304E-1	1.007453E+0	1.009310E+0	1.007275E+0	1.037356E+0	1.015209E+0	1.053770E+0	9.950836E-1	1.023135E+0	1.029575E+0	9.897471E-1	1.004127E+0	9.938303E-1	1.044957E+0	1.065997E+0	1.045056E+0	1.058023E+0	1.040050E+0	1.022460E+0	1.020286E+0	1.000345E+0	1.071785E+0	1.076567E+0	1.013179E+0	1.010062E+0	1.022605E+0	1.015923E+0	9.886966E-1	1.026032E+0	1.011557E+0	1.040870E+0	1.004127E+0	9.996984E-1	1.084888E+0	9.506883E-1	1.046094E+0	1.043093E+0	1.015120E+0	1.037824E+0	1.017560E+0	1.025882E+0	1.069866E+0	1.017325E+0	9.911848E-1	1.024794E+0	1.046548E+0	9.997903E-1	1.000645E+0	1.040728E+0	1.077157E+0	1.015471E+0	1.024855E+0	9.945231E-1	1.065718E+0	9.894646E-1	1.046053E+0	1.002275E+0	1.061260E+0	9.897237E-1	1.019199E+0	1.029920E+0	1.034078E+0	1.045946E+0	9.688822E-1	1.038976E+0	1.022085E+0	1.002119E+0	1.058580E+0	1.048096E+0	1.047134E+0	1.004339E+0	1.064650E+0	9.757185E-1	9.702798E-1	1.024382E+0	9.884623E-1	1.027726E+0	1.030236E+0	1.033746E+0	1.035291E+0	1.050076E+0	1.012218E+0	1.048650E+0	9.674802E-1	9.995710E-1	1.022026E+0	1.008838E+0	1.024276E+0	1.020706E+0	1.003330E+0	1.055048E+0	1.018146E+0	1.029018E+0	1.022401E+0	9.553124E-1	1.022530E+0	1.041445E+0	1.016017E+0	1.019487E+0	1.018688E+0	1.012064E+0	1.062123E+0	1.072997E+0	1.060525E+0	9.936473E-1	9.864037E-1	1.034060E+0	1.029247E+0	1.030573E+0	1.030108E+0	1.014977E+0	1.045486E+0	1.005826E+0	1.031647E+0	1.008133E+0	1.080807E+0	9.990904E-1	9.875355E-1	1.070441E+0	1.002419E+0	9.656732E-1	1.010395E+0	1.025344E+0	1.001448E+0	1.012167E+0	1.032114E+0	1.021114E+0	1.044088E+0	1.015779E+0	1.044892E+0	1.017891E+0	1.034412E+0	1.009956E+0	1.025804E+0	1.016804E+0	1.048041E+0	1.061065E+0	1.004551E+0	1.047766E+0	1.033516E+0	1.020659E+0	1.006114E+0	1.047857E+0	1.042378E+0	1.012072E+0	1.022420E+0	1.026239E+0	1.092927E+0	1.007684E+0	1.059368E+0	9.898009E-1	1.045739E+0	1.042212E+0	1.019421E+0	9.855731E-1	1.003298E+0	9.954264E-1	1.047869E+0	9.880368E-1	9.949075E-1	1.115744E+0
5.432800E+2	1.219718E+0	1.111018E+0	1.142173E+0	1.215517E+0	1.146997E+0	1.169336E+0	1.127742E+0	1.148979E+0	1.168937E+0	1.131603E+0	1.174831E+0	1.148114E+0	1.160454E+0	1.129395E+0	1.160636E+0	1.202459E+0	1.121136E+0	1.134781E+0	1.150356E+0	1.144159E+0	1.130176E+0	1.142563E+0	1.142850E+0	1.186534E+0	1.195976E+0	1.143699E+0	1.166242E+0	1.193077E+0	1.135847E+0	1.152927E+0	1.128124E+0	1.156238E+0	1.173954E+0	1.147839E+0	1.170558E+0	1.137910E+0	1.173403E+0	1.172444E+0	1.144302E+0	1.184083E+0	1.196587E+0	1.193282E+0	1.148530E+0	1.172796E+0	1.182971E+0	1.177117E+0	1.178086E+0	1.170399E+0	1.131531E+0	1.137493E+0	1.135737E+0	1.196788E+0	1.153260E+0	1.146659E+0	1.188659E+0	1.113544E+0	1.187047E+0	1.181105E+0	1.182020E+0	1.191593E+0	1.188740E+0	1.183857E+0	1.131099E+0	1.173465E+0	1.112756E+0	1.162423E+0	1.155697E+0	1.178773E+0	1.158707E+0	1.160323E+0	1.157986E+0	1.149487E+0	1.117939E+0	1.150577E+0	1.159011E+0	1.144945E+0	1.121766E+0	1.184203E+0	1.199372E+0	1.160551E+0	1.113109E+0	1.155250E+0	1.161482E+0	1.135623E+0	1.150759E+0	1.171203E+0	1.143538E+0	1.133939E+0	1.178994E+0	1.157691E+0	1.164458E+0	1.132383E+0	1.199365E+0	1.189492E+0	1.183101E+0	1.175163E+0	1.191525E+0	1.144762E+0	1.083583E+0	1.181201E+0	1.214981E+0	1.153940E+0	1.154201E+0	1.170134E+0	1.183546E+0	1.168834E+0	1.193236E+0	1.124304E+0	1.128532E+0	1.153100E+0	1.179897E+0	1.189244E+0	1.181704E+0	1.167110E+0	1.114937E+0	1.205467E+0	1.165021E+0	1.119812E+0	1.149202E+0	1.182143E+0	1.145904E+0	1.201296E+0	1.135105E+0	1.151876E+0	1.129631E+0	1.136721E+0	1.169728E+0	1.187512E+0	1.150061E+0	1.150632E+0	1.137713E+0	1.146372E+0	1.184487E+0	1.143083E+0	1.157781E+0	1.157821E+0	1.142823E+0	1.140239E+0	1.130093E+0	1.202279E+0	1.139145E+0	1.138240E+0	1.192608E+0	1.194687E+0	1.123101E+0	1.114680E+0	1.144936E+0	1.174576E+0	1.125269E+0	1.165168E+0	1.166113E+0	1.118406E+0	1.144288E+0	1.175935E+0	1.176333E+0	1.150628E+0	1.107797E+0	1.180511E+0	1.184743E+0	1.130019E+0	1.131628E+0	1.174131E+0	1.216978E+0	1.160383E+0	1.146176E+0	1.136064E+0	1.180395E+0	1.176996E+0	1.192947E+0	1.207375E+0	1.314499E+0
5.435270E+2	1.393405E+0	1.301347E+0	1.319337E+0	1.501440E+0	1.345890E+0	1.334302E+0	1.347009E+0	1.301806E+0	1.325783E+0	1.244850E+0	1.312835E+0	1.336852E+0	1.372731E+0	1.324037E+0	1.336540E+0	1.370604E+0	1.331368E+0	1.333336E+0	1.372587E+0	1.293484E+0	1.320433E+0	1.291064E+0	1.307282E+0	1.387785E+0	1.402206E+0	1.300710E+0	1.390671E+0	1.344623E+0	1.330197E+0	1.357748E+0	1.356709E+0	1.293759E+0	1.318898E+0	1.323343E+0	1.309743E+0	1.334759E+0	1.310896E+0	1.305595E+0	1.276948E+0	1.273141E+0	1.329746E+0	1.325841E+0	1.326087E+0	1.367471E+0	1.341351E+0	1.311576E+0	1.390864E+0	1.411843E+0	1.351929E+0	1.290329E+0	1.323735E+0	1.323713E+0	1.351502E+0	1.326740E+0	1.363055E+0	1.333707E+0	1.306879E+0	1.296301E+0	1.301202E+0	1.352125E+0	1.331754E+0	1.285566E+0	1.328159E+0	1.367698E+0	1.314136E+0	1.327991E+0	1.345493E+0	1.331450E+0	1.385956E+0	1.299123E+0	1.309898E+0	1.361169E+0	1.330517E+0	1.267073E+0	1.350454E+0	1.325070E+0	1.252446E+0	1.352048E+0	1.341451E+0	1.345407E+0	1.288521E+0	1.334328E+0	1.332959E+0	1.303974E+0	1.311265E+0	1.309817E+0	1.283326E+0	1.296571E+0	1.331096E+0	1.311704E+0	1.357448E+0	1.338206E+0	1.386957E+0	1.318909E+0	1.310165E+0	1.322627E+0	1.297781E+0	1.344861E+0	1.338311E+0	1.337199E+0	1.338707E+0	1.327730E+0	1.370684E+0	1.313137E+0	1.281151E+0	1.282775E+0	1.388044E+0	1.366124E+0	1.313125E+0	1.366173E+0	1.331539E+0	1.320892E+0	1.275731E+0	1.286575E+0	1.345042E+0	1.343814E+0	1.277667E+0	1.302951E+0	1.336024E+0	1.339589E+0	1.338730E+0	1.379258E+0	1.339779E+0	1.311962E+0	1.355311E+0	1.318847E+0	1.362749E+0	1.299703E+0	1.340539E+0	1.282707E+0	1.237964E+0	1.348353E+0	1.330267E+0	1.279381E+0	1.279452E+0	1.308508E+0	1.352844E+0	1.276614E+0	1.319677E+0	1.373737E+0	1.352766E+0	1.340994E+0	1.360071E+0	1.330691E+0	1.323303E+0	1.332840E+0	1.286768E+0	1.344182E+0	1.332257E+0	1.328166E+0	1.333974E+0	1.343239E+0	1.306188E+0	1.291111E+0	1.367419E+0	1.409137E+0	1.260486E+0	1.333887E+0	1.340923E+0	1.347060E+0	1.320438E+0	1.300675E+0	1.287214E+0	1.325824E+0	1.307802E+0	1.265711E+0	1.307035E+0	1.334424E+0	1.358459E+0	1.371164E+0	1.545593E+0
5.437640E+2	1.473879E+0	1.393868E+0	1.419664E+0	1.606067E+0	1.440204E+0	1.474401E+0	1.426960E+0	1.445121E+0	1.402175E+0	1.454893E+0	1.473807E+0	1.451749E+0	1.449671E+0	1.390715E+0	1.438930E+0	1.468505E+0	1.473128E+0	1.380438E+0	1.478261E+0	1.469888E+0	1.448996E+0	1.404981E+0	1.438476E+0	1.454422E+0	1.454299E+0	1.442787E+0	1.475884E+0	1.450146E+0	1.410411E+0	1.402256E+0	1.470094E+0	1.426442E+0	1.479240E+0	1.440129E+0	1.451289E+0	1.416389E+0	1.453624E+0	1.407335E+0	1.431630E+0	1.434021E+0	1.481654E+0	1.430633E+0	1.405496E+0	1.476370E+0	1.421658E+0	1.438961E+0	1.467013E+0	1.478098E+0	1.426808E+0	1.498610E+0	1.464538E+0	1.494285E+0	1.427414E+0	1.448782E+0	1.484873E+0	1.404411E+0	1.394968E+0	1.387854E+0	1.424597E+0	1.499719E+0	1.448217E+0	1.408939E+0	1.450535E+0	1.425847E+0	1.384461E+0	1.437948E+0	1.400807E+0	1.450030E+0	1.442914E+0	1.435305E+0	1.406127E+0	1.448397E+0	1.509547E+0	1.398183E+0	1.445024E+0	1.432252E+0	1.412298E+0	1.411965E+0	1.433506E+0	1.441173E+0	1.401612E+0	1.452247E+0	1.423691E+0	1.430745E+0	1.432426E+0	1.431569E+0	1.460204E+0	1.440979E+0	1.471223E+0	1.370744E+0	1.475689E+0	1.395538E+0	1.456984E+0	1.422782E+0	1.429703E+0	1.436627E+0	1.381298E+0	1.401358E+0	1.464556E+0	1.389486E+0	1.442825E+0	1.395803E+0	1.448729E+0	1.449032E+0	1.399508E+0	1.433966E+0	1.465327E+0	1.386564E+0	1.432071E+0	1.434591E+0	1.452153E+0	1.431215E+0	1.422257E+0	1.394415E+0	1.402134E+0	1.465681E+0	1.411306E+0	1.371584E+0	1.378242E+0	1.436677E+0	1.449093E+0	1.388833E+0	1.407828E+0	1.476538E+0	1.403130E+0	1.467687E+0	1.427016E+0	1.452911E+0	1.360712E+0	1.410394E+0	1.413488E+0	1.405743E+0	1.424163E+0	1.398132E+0	1.362153E+0	1.379740E+0	1.421900E+0	1.463135E+0	1.436961E+0	1.457579E+0	1.410256E+0	1.430387E+0	1.450164E+0	1.453947E+0	1.432459E+0	1.487545E+0	1.382600E+0	1.372859E+0	1.433891E+0	1.396937E+0	1.422864E+0	1.446591E+0	1.412874E+0	1.386320E+0	1.470978E+0	1.391271E+0	1.403151E+0	1.428362E+0	1.474990E+0	1.425339E+0	1.385137E+0	1.442500E+0	1.454134E+0	1.476583E+0	1.464837E+0	1.378143E+0	1.400187E+0	1.427559E+0	1.466792E+0	1.433105E+0	1.608616E+0
5.440170E+2	1.573032E+0	1.421084E+0	1.462035E+0	1.594423E+0	1.553251E+0	1.443683E+0	1.458597E+0	1.516607E+0	1.489966E+0	1.490804E+0	1.488030E+0	1.514584E+0	1.474106E+0	1.483151E+0	1.487634E+0	1.556514E+0	1.468849E+0	1.428349E+0	1.508266E+0	1.489772E+0	1.461360E+0	1.399826E+0	1.478436E+0	1.505031E+0	1.508817E+0	1.519167E+0	1.506372E+0	1.457157E+0	1.422181E+0	1.444041E+0	1.528965E+0	1.435870E+0	1.476389E+0	1.481195E+0	1.481007E+0	1.487573E+0	1.481421E+0	1.487865E+0	1.468668E+0	1.451966E+0	1.518719E+0	1.438370E+0	1.514108E+0	1.519338E+0	1.435638E+0	1.465337E+0	1.446379E+0	1.467825E+0	1.483746E+0	1.467827E+0	1.496120E+0	1.465402E+0	1.480240E+0	1.459512E+0	1.471704E+0	1.509121E+0	1.519991E+0	1.426552E+0	1.528029E+0	1.431174E+0	1.453196E+0	1.465543E+0	1.482928E+0	1.526068E+0	1.433097E+0	1.465367E+0	1.465003E+0	1.494092E+0	1.497740E+0	1.399931E+0	1.471879E+0	1.503540E+0	1.410529E+0	1.401186E+0	1.388353E+0	1.509480E+0	1.469523E+0	1.465445E+0	1.486182E+0	1.453526E+0	1.409469E+0	1.484167E+0	1.482144E+0	1.472548E+0	1.491181E+0	1.432435E+0	1.518032E+0	1.495929E+0	1.458261E+0	1.430009E+0	1.462524E+0	1.428883E+0	1.487268E+0	1.424758E+0	1.481938E+0	1.463962E+0	1.465354E+0	1.487168E+0	1.461591E+0	1.395252E+0	1.524817E+0	1.429626E+0	1.430830E+0	1.473889E+0	1.469226E+0	1.437935E+0	1.478035E+0	1.457933E+0	1.464894E+0	1.439221E+0	1.478369E+0	1.434920E+0	1.433929E+0	1.376692E+0	1.450430E+0	1.465767E+0	1.457394E+0	1.450650E+0	1.432930E+0	1.469707E+0	1.497012E+0	1.438498E+0	1.494658E+0	1.442994E+0	1.501921E+0	1.451772E+0	1.487830E+0	1.483759E+0	1.466505E+0	1.408133E+0	1.387350E+0	1.441115E+0	1.486076E+0	1.379655E+0	1.463491E+0	1.412722E+0	1.433792E+0	1.469277E+0	1.470609E+0	1.464165E+0	1.489086E+0	1.480095E+0	1.458072E+0	1.470780E+0	1.415632E+0	1.426355E+0	1.499532E+0	1.475524E+0	1.458154E+0	1.451046E+0	1.445372E+0	1.459402E+0	1.480106E+0	1.451599E+0	1.442811E+0	1.437839E+0	1.426344E+0	1.415857E+0	1.507491E+0	1.454320E+0	1.452387E+0	1.451165E+0	1.455508E+0	1.490713E+0	1.464148E+0	1.405965E+0	1.450994E+0	1.437006E+0	1.455906E+0	1.480021E+0	1.546037E+0
5.442750E+2	1.705371E+0	1.624325E+0	1.616559E+0	1.775867E+0	1.617680E+0	1.655865E+0	1.626056E+0	1.632767E+0	1.591790E+0	1.606837E+0	1.613120E+0	1.566974E+0	1.645359E+0	1.618711E+0	1.605838E+0	1.681447E+0	1.615153E+0	1.628410E+0	1.646492E+0	1.649015E+0	1.587798E+0	1.544479E+0	1.597197E+0	1.644101E+0	1.585788E+0	1.552485E+0	1.593551E+0	1.562231E+0	1.619270E+0	1.628065E+0	1.575090E+0	1.612572E+0	1.632301E+0	1.599915E+0	1.594893E+0	1.624102E+0	1.628363E+0	1.583115E+0	1.564452E+0	1.604704E+0	1.659662E+0	1.593369E+0	1.578908E+0	1.592211E+0	1.572801E+0	1.539411E+0	1.642360E+0	1.614657E+0	1.580124E+0	1.604860E+0	1.707178E+0	1.649219E+0	1.630789E+0	1.573883E+0	1.601594E+0	1.563291E+0	1.605718E+0	1.548330E+0	1.594264E+0	1.628294E+0	1.621377E+0	1.546202E+0	1.589340E+0	1.610548E+0	1.539632E+0	1.558428E+0	1.548583E+0	1.607710E+0	1.629864E+0	1.535960E+0	1.549449E+0	1.590044E+0	1.642380E+0	1.545735E+0	1.536193E+0	1.599917E+0	1.558285E+0	1.585289E+0	1.550809E+0	1.564492E+0	1.546725E+0	1.638544E+0	1.527605E+0	1.615631E+0	1.565858E+0	1.566418E+0	1.603211E+0	1.601819E+0	1.593013E+0	1.541288E+0	1.662116E+0	1.580362E+0	1.588155E+0	1.593169E+0	1.637718E+0	1.638888E+0	1.545598E+0	1.556311E+0	1.588373E+0	1.548248E+0	1.574955E+0	1.553226E+0	1.584789E+0	1.617103E+0	1.530225E+0	1.578414E+0	1.619348E+0	1.627226E+0	1.538979E+0	1.514624E+0	1.609480E+0	1.615922E+0	1.606644E+0	1.602315E+0	1.558027E+0	1.560569E+0	1.595270E+0	1.557020E+0	1.595791E+0	1.609658E+0	1.601319E+0	1.566646E+0	1.529565E+0	1.531691E+0	1.612551E+0	1.542777E+0	1.552039E+0	1.585917E+0	1.621125E+0	1.522887E+0	1.552650E+0	1.587726E+0	1.560103E+0	1.596880E+0	1.566779E+0	1.570211E+0	1.545946E+0	1.557660E+0	1.546056E+0	1.626279E+0	1.582771E+0	1.541191E+0	1.579549E+0	1.587414E+0	1.607768E+0	1.557833E+0	1.543806E+0	1.562798E+0	1.585999E+0	1.586548E+0	1.513748E+0	1.607571E+0	1.571715E+0	1.501883E+0	1.599730E+0	1.569507E+0	1.566560E+0	1.557952E+0	1.575629E+0	1.583156E+0	1.561304E+0	1.621432E+0	1.527858E+0	1.555006E+0	1.552335E+0	1.540305E+0	1.590645E+0	1.610971E+0	1.607022E+0	1.641616E+0	1.385587E+0
5.445130E+2	1.717620E+0	1.547360E+0	1.592507E+0	1.801883E+0	1.642977E+0	1.599279E+0	1.641504E+0	1.635402E+0	1.670890E+0	1.564216E+0	1.618849E+0	1.646501E+0	1.607784E+0	1.645099E+0	1.614533E+0	1.706350E+0	1.635718E+0	1.585953E+0	1.610673E+0	1.571806E+0	1.592476E+0	1.592948E+0	1.583626E+0	1.625763E+0	1.586650E+0	1.573637E+0	1.598150E+0	1.579645E+0	1.578386E+0	1.662275E+0	1.638188E+0	1.599963E+0	1.672682E+0	1.625341E+0	1.558244E+0	1.609037E+0	1.585717E+0	1.572108E+0	1.618581E+0	1.594162E+0	1.618085E+0	1.594581E+0	1.608568E+0	1.641860E+0	1.600168E+0	1.586217E+0	1.582375E+0	1.565918E+0	1.615541E+0	1.621663E+0	1.586014E+0	1.667318E+0	1.645983E+0	1.572982E+0	1.610812E+0	1.652202E+0	1.634474E+0	1.597645E+0	1.574067E+0	1.567461E+0	1.623760E+0	1.588709E+0	1.541936E+0	1.567943E+0	1.614518E+0	1.565873E+0	1.601178E+0	1.631101E+0	1.632458E+0	1.618179E+0	1.678922E+0	1.592937E+0	1.612489E+0	1.558107E+0	1.509626E+0	1.647343E+0	1.570104E+0	1.564459E+0	1.623743E+0	1.632588E+0	1.534251E+0	1.588861E+0	1.570281E+0	1.632004E+0	1.635459E+0	1.547374E+0	1.643924E+0	1.561121E+0	1.625497E+0	1.554113E+0	1.595291E+0	1.597788E+0	1.601129E+0	1.585358E+0	1.620934E+0	1.586336E+0	1.637012E+0	1.555927E+0	1.606808E+0	1.581138E+0	1.608579E+0	1.602743E+0	1.615819E+0	1.634668E+0	1.564109E+0	1.564419E+0	1.637036E+0	1.663795E+0	1.543659E+0	1.585354E+0	1.573991E+0	1.637595E+0	1.590579E+0	1.594822E+0	1.565553E+0	1.577190E+0	1.587722E+0	1.592566E+0	1.592399E+0	1.535966E+0	1.579260E+0	1.602218E+0	1.569038E+0	1.625506E+0	1.621756E+0	1.559299E+0	1.615934E+0	1.534572E+0	1.558922E+0	1.539894E+0	1.565276E+0	1.586800E+0	1.621416E+0	1.581448E+0	1.550065E+0	1.576915E+0	1.535630E+0	1.594062E+0	1.631155E+0	1.624224E+0	1.601899E+0	1.583551E+0	1.576256E+0	1.604062E+0	1.562368E+0	1.584804E+0	1.496471E+0	1.551799E+0	1.574962E+0	1.603211E+0	1.641824E+0	1.590640E+0	1.575008E+0	1.542569E+0	1.593095E+0	1.552689E+0	1.592347E+0	1.584964E+0	1.632650E+0	1.591032E+0	1.619684E+0	1.627760E+0	1.519462E+0	1.608322E+0	1.521119E+0	1.542491E+0	1.606755E+0	1.608984E+0	1.572122E+0	1.702110E+0	1.602682E+0
5.447660E+2	1.627842E+0	1.618864E+0	1.559429E+0	1.705653E+0	1.636051E+0	1.615607E+0	1.553103E+0	1.601678E+0	1.613206E+0	1.551748E+0	1.626905E+0	1.587627E+0	1.539029E+0	1.555776E+0	1.589711E+0	1.610450E+0	1.620047E+0	1.519283E+0	1.593785E+0	1.622401E+0	1.641395E+0	1.560357E+0	1.579630E+0	1.600267E+0	1.596780E+0	1.551280E+0	1.616182E+0	1.606387E+0	1.542502E+0	1.540060E+0	1.566649E+0	1.574480E+0	1.574535E+0	1.655102E+0	1.573488E+0	1.536918E+0	1.549270E+0	1.570238E+0	1.593105E+0	1.513429E+0	1.607769E+0	1.552137E+0	1.580694E+0	1.610003E+0	1.548523E+0	1.571004E+0	1.598099E+0	1.621382E+0	1.587523E+0	1.537736E+0	1.545686E+0	1.607943E+0	1.582596E+0	1.539520E+0	1.654905E+0	1.544700E+0	1.619634E+0	1.552411E+0	1.590715E+0	1.533853E+0	1.604743E+0	1.593624E+0	1.583470E+0	1.572677E+0	1.534430E+0	1.554273E+0	1.595205E+0	1.596852E+0	1.562035E+0	1.522490E+0	1.563478E+0	1.558744E+0	1.613846E+0	1.520422E+0	1.534057E+0	1.612648E+0	1.593795E+0	1.577253E+0	1.563115E+0	1.550720E+0	1.507679E+0	1.592762E+0	1.605903E+0	1.549736E+0	1.577125E+0	1.537624E+0	1.623516E+0	1.610622E+0	1.548861E+0	1.525187E+0	1.615656E+0	1.556813E+0	1.601300E+0	1.549853E+0	1.592653E+0	1.616952E+0	1.559194E+0	1.573507E+0	1.533448E+0	1.584379E+0	1.588577E+0	1.566275E+0	1.540949E+0	1.510983E+0	1.548865E+0	1.528182E+0	1.607342E+0	1.573786E+0	1.560727E+0	1.519604E+0	1.561186E+0	1.561632E+0	1.626553E+0	1.510347E+0	1.557222E+0	1.630787E+0	1.608116E+0	1.581030E+0	1.615497E+0	1.572101E+0	1.562695E+0	1.563712E+0	1.535957E+0	1.543824E+0	1.535037E+0	1.534347E+0	1.561079E+0	1.571827E+0	1.603386E+0	1.544532E+0	1.489722E+0	1.569900E+0	1.606250E+0	1.504372E+0	1.588824E+0	1.544123E+0	1.566352E+0	1.574314E+0	1.508064E+0	1.647872E+0	1.571207E+0	1.577483E+0	1.581902E+0	1.565155E+0	1.597935E+0	1.491537E+0	1.522911E+0	1.548247E+0	1.558716E+0	1.527520E+0	1.548136E+0	1.543996E+0	1.591892E+0	1.508193E+0	1.510902E+0	1.546289E+0	1.484181E+0	1.515210E+0	1.586786E+0	1.593617E+0	1.512657E+0	1.506737E+0	1.558753E+0	1.561894E+0	1.542756E+0	1.493021E+0	1.564146E+0	1.523479E+0	1.665914E+0	1.461198E+0	1.614994E+0
5.450090E+2	1.547604E+0	1.477626E+0	1.486293E+0	1.534115E+0	1.467302E+0	1.490269E+0	1.462433E+0	1.487252E+0	1.541482E+0	1.491758E+0	1.500839E+0	1.524959E+0	1.490353E+0	1.490257E+0	1.519855E+0	1.507528E+0	1.498084E+0	1.447513E+0	1.466983E+0	1.494967E+0	1.505695E+0	1.466754E+0	1.450651E+0	1.565487E+0	1.448015E+0	1.384132E+0	1.535043E+0	1.509837E+0	1.436833E+0	1.508877E+0	1.493785E+0	1.479806E+0	1.515288E+0	1.432108E+0	1.485803E+0	1.497667E+0	1.497767E+0	1.433707E+0	1.430945E+0	1.519237E+0	1.527995E+0	1.449612E+0	1.510692E+0	1.551571E+0	1.458855E+0	1.460217E+0	1.542636E+0	1.504894E+0	1.429812E+0	1.507355E+0	1.502529E+0	1.542557E+0	1.452337E+0	1.476552E+0	1.482557E+0	1.457926E+0	1.557744E+0	1.452432E+0	1.477967E+0	1.439295E+0	1.488606E+0	1.466425E+0	1.527688E+0	1.494926E+0	1.445249E+0	1.409884E+0	1.456409E+0	1.500166E+0	1.521491E+0	1.526890E+0	1.480988E+0	1.442986E+0	1.452594E+0	1.479377E+0	1.458116E+0	1.474501E+0	1.469779E+0	1.500853E+0	1.527857E+0	1.502605E+0	1.439040E+0	1.480874E+0	1.502624E+0	1.493404E+0	1.459663E+0	1.507698E+0	1.498853E+0	1.445075E+0	1.439761E+0	1.427076E+0	1.518298E+0	1.521576E+0	1.472690E+0	1.506273E+0	1.542429E+0	1.512896E+0	1.471689E+0	1.508988E+0	1.451426E+0	1.440227E+0	1.497783E+0	1.446594E+0	1.476828E+0	1.422024E+0	1.476712E+0	1.445041E+0	1.523509E+0	1.508921E+0	1.489975E+0	1.475264E+0	1.504231E+0	1.476414E+0	1.473884E+0	1.473127E+0	1.421158E+0	1.538020E+0	1.474431E+0	1.466521E+0	1.436962E+0	1.474948E+0	1.471093E+0	1.523721E+0	1.466798E+0	1.530425E+0	1.406992E+0	1.441385E+0	1.485974E+0	1.532335E+0	1.501763E+0	1.482317E+0	1.467106E+0	1.478191E+0	1.476689E+0	1.431327E+0	1.441953E+0	1.454263E+0	1.459097E+0	1.447807E+0	1.461652E+0	1.474386E+0	1.455974E+0	1.477532E+0	1.497424E+0	1.466508E+0	1.466818E+0	1.467549E+0	1.461795E+0	1.439071E+0	1.442477E+0	1.486701E+0	1.502078E+0	1.451753E+0	1.504999E+0	1.471424E+0	1.483287E+0	1.482257E+0	1.440944E+0	1.472338E+0	1.468407E+0	1.509918E+0	1.464546E+0	1.544769E+0	1.475795E+0	1.504151E+0	1.479323E+0	1.449487E+0	1.477558E+0	1.492532E+0	1.527361E+0	1.505831E+0	1.598374E+0
5.452800E+2	1.505140E+0	1.440219E+0	1.378694E+0	1.625588E+0	1.474715E+0	1.469943E+0	1.456672E+0	1.459662E+0	1.440622E+0	1.433820E+0	1.454660E+0	1.471800E+0	1.454486E+0	1.460377E+0	1.430755E+0	1.492453E+0	1.497754E+0	1.472386E+0	1.471493E+0	1.453756E+0	1.464014E+0	1.415819E+0	1.463055E+0	1.483760E+0	1.483333E+0	1.421510E+0	1.440983E+0	1.449219E+0	1.402761E+0	1.408439E+0	1.479208E+0	1.518249E+0	1.435017E+0	1.461914E+0	1.458858E+0	1.373202E+0	1.499605E+0	1.383834E+0	1.416431E+0	1.464297E+0	1.468583E+0	1.402849E+0	1.439467E+0	1.490998E+0	1.398825E+0	1.386093E+0	1.465729E+0	1.448307E+0	1.427613E+0	1.425010E+0	1.478121E+0	1.500489E+0	1.433080E+0	1.432350E+0	1.448185E+0	1.382381E+0	1.418414E+0	1.401921E+0	1.425137E+0	1.479797E+0	1.433928E+0	1.437513E+0	1.419065E+0	1.439103E+0	1.393764E+0	1.437529E+0	1.481146E+0	1.467744E+0	1.441098E+0	1.400982E+0	1.486433E+0	1.373941E+0	1.413087E+0	1.442484E+0	1.355019E+0	1.436279E+0	1.441719E+0	1.434465E+0	1.421642E+0	1.455542E+0	1.357343E+0	1.495970E+0	1.486259E+0	1.442951E+0	1.436504E+0	1.456873E+0	1.458442E+0	1.460098E+0	1.422364E+0	1.416194E+0	1.409641E+0	1.373194E+0	1.466147E+0	1.389866E+0	1.459128E+0	1.416602E+0	1.470024E+0	1.402984E+0	1.461942E+0	1.433598E+0	1.447860E+0	1.362498E+0	1.441072E+0	1.437812E+0	1.433228E+0	1.399198E+0	1.439461E+0	1.413113E+0	1.467692E+0	1.430298E+0	1.426832E+0	1.441597E+0	1.416411E+0	1.443153E+0	1.426543E+0	1.416444E+0	1.446239E+0	1.377893E+0	1.424730E+0	1.462347E+0	1.446293E+0	1.442044E+0	1.402930E+0	1.445471E+0	1.412704E+0	1.396620E+0	1.494664E+0	1.438838E+0	1.430952E+0	1.455219E+0	1.445164E+0	1.382977E+0	1.442215E+0	1.420334E+0	1.374161E+0	1.396975E+0	1.365597E+0	1.398840E+0	1.384773E+0	1.498713E+0	1.431896E+0	1.426762E+0	1.457892E+0	1.445103E+0	1.394591E+0	1.389226E+0	1.406601E+0	1.395086E+0	1.436945E+0	1.407025E+0	1.421811E+0	1.400464E+0	1.397891E+0	1.334366E+0	1.436180E+0	1.386735E+0	1.396607E+0	1.375009E+0	1.520996E+0	1.421917E+0	1.424501E+0	1.457190E+0	1.427230E+0	1.396995E+0	1.417454E+0	1.396573E+0	1.424779E+0	1.358297E+0	1.468956E+0	1.455388E+0	1.732106E+0
5.455180E+2	1.350124E+0	1.250397E+0	1.264466E+0	1.368547E+0	1.366927E+0	1.322868E+0	1.326461E+0	1.324956E+0	1.331778E+0	1.338956E+0	1.300142E+0	1.366362E+0	1.340912E+0	1.264116E+0	1.304095E+0	1.379017E+0	1.309327E+0	1.251557E+0	1.322087E+0	1.284225E+0	1.286365E+0	1.297194E+0	1.250286E+0	1.331349E+0	1.287070E+0	1.294505E+0	1.316538E+0	1.290901E+0	1.303406E+0	1.318295E+0	1.316719E+0	1.314012E+0	1.354564E+0	1.332680E+0	1.302343E+0	1.329269E+0	1.334108E+0	1.275952E+0	1.276580E+0	1.311793E+0	1.241067E+0	1.292743E+0	1.302819E+0	1.321624E+0	1.307268E+0	1.258543E+0	1.303629E+0	1.375742E+0	1.325660E+0	1.294237E+0	1.330396E+0	1.295398E+0	1.265576E+0	1.279682E+0	1.307732E+0	1.303309E+0	1.403091E+0	1.304289E+0	1.309460E+0	1.351484E+0	1.316601E+0	1.328478E+0	1.296628E+0	1.318460E+0	1.255959E+0	1.274822E+0	1.288821E+0	1.335169E+0	1.307869E+0	1.273017E+0	1.270806E+0	1.285464E+0	1.316628E+0	1.247973E+0	1.316495E+0	1.263243E+0	1.309479E+0	1.308386E+0	1.343004E+0	1.282024E+0	1.235845E+0	1.276346E+0	1.320558E+0	1.309390E+0	1.308495E+0	1.246354E+0	1.316737E+0	1.291581E+0	1.314705E+0	1.249115E+0	1.269630E+0	1.260487E+0	1.304677E+0	1.320063E+0	1.347340E+0	1.278525E+0	1.308905E+0	1.357959E+0	1.334497E+0	1.299005E+0	1.318033E+0	1.277823E+0	1.283693E+0	1.282406E+0	1.232604E+0	1.318896E+0	1.293391E+0	1.298054E+0	1.300511E+0	1.275318E+0	1.300185E+0	1.301265E+0	1.245738E+0	1.269142E+0	1.282671E+0	1.324607E+0	1.297006E+0	1.304226E+0	1.229539E+0	1.305474E+0	1.329111E+0	1.311728E+0	1.260666E+0	1.280748E+0	1.272674E+0	1.278458E+0	1.287379E+0	1.335904E+0	1.301758E+0	1.290814E+0	1.220272E+0	1.249946E+0	1.297833E+0	1.267898E+0	1.310476E+0	1.296967E+0	1.277351E+0	1.305303E+0	1.301234E+0	1.291426E+0	1.232216E+0	1.290913E+0	1.302734E+0	1.309728E+0	1.341223E+0	1.276707E+0	1.304423E+0	1.283661E+0	1.278866E+0	1.265725E+0	1.268847E+0	1.320882E+0	1.300848E+0	1.243692E+0	1.281465E+0	1.306652E+0	1.272107E+0	1.268291E+0	1.316151E+0	1.307220E+0	1.285176E+0	1.265938E+0	1.205296E+0	1.340085E+0	1.273913E+0	1.262385E+0	1.262677E+0	1.348168E+0	1.230855E+0	1.276498E+0	1.127052E+0
5.457620E+2	1.278315E+0	1.215605E+0	1.232242E+0	1.257596E+0	1.316258E+0	1.239865E+0	1.230543E+0	1.265375E+0	1.291292E+0	1.234920E+0	1.227990E+0	1.276340E+0	1.239036E+0	1.221243E+0	1.256381E+0	1.254853E+0	1.260782E+0	1.217268E+0	1.244944E+0	1.217364E+0	1.241358E+0	1.232495E+0	1.252231E+0	1.238524E+0	1.240561E+0	1.159519E+0	1.267106E+0	1.220914E+0	1.222718E+0	1.213552E+0	1.189103E+0	1.274188E+0	1.250607E+0	1.252437E+0	1.254257E+0	1.264642E+0	1.243773E+0	1.157483E+0	1.194325E+0	1.257855E+0	1.257754E+0	1.260036E+0	1.220524E+0	1.336023E+0	1.196826E+0	1.223698E+0	1.245570E+0	1.244279E+0	1.214324E+0	1.204751E+0	1.260303E+0	1.258713E+0	1.219067E+0	1.266261E+0	1.245239E+0	1.211025E+0	1.283828E+0	1.211771E+0	1.253578E+0	1.263452E+0	1.269974E+0	1.226836E+0	1.230042E+0	1.250304E+0	1.204381E+0	1.214428E+0	1.177604E+0	1.235773E+0	1.269452E+0	1.274787E+0	1.220735E+0	1.214755E+0	1.318116E+0	1.214513E+0	1.206102E+0	1.248685E+0	1.211375E+0	1.221403E+0	1.241857E+0	1.247096E+0	1.202321E+0	1.249934E+0	1.218548E+0	1.233752E+0	1.217167E+0	1.221354E+0	1.210371E+0	1.218030E+0	1.203315E+0	1.264584E+0	1.255365E+0	1.263404E+0	1.277975E+0	1.241337E+0	1.258117E+0	1.271808E+0	1.288017E+0	1.215367E+0	1.199009E+0	1.203572E+0	1.265423E+0	1.240271E+0	1.216152E+0	1.224042E+0	1.237740E+0	1.231010E+0	1.269746E+0	1.250334E+0	1.200666E+0	1.242270E+0	1.199438E+0	1.242079E+0	1.230839E+0	1.201858E+0	1.210871E+0	1.188360E+0	1.263980E+0	1.173645E+0	1.214258E+0	1.264222E+0	1.238366E+0	1.241051E+0	1.262538E+0	1.258950E+0	1.219458E+0	1.238868E+0	1.258631E+0	1.272200E+0	1.254448E+0	1.221618E+0	1.212702E+0	1.223552E+0	1.249365E+0	1.232009E+0	1.248593E+0	1.226218E+0	1.236795E+0	1.244106E+0	1.227503E+0	1.265971E+0	1.221820E+0	1.199175E+0	1.239795E+0	1.275880E+0	1.236275E+0	1.202023E+0	1.280305E+0	1.168276E+0	1.256123E+0	1.252738E+0	1.221956E+0	1.255193E+0	1.217165E+0	1.184382E+0	1.298602E+0	1.277092E+0	1.193944E+0	1.221414E+0	1.238972E+0	1.242347E+0	1.211006E+0	1.265206E+0	1.253293E+0	1.296680E+0	1.207141E+0	1.221467E+0	1.210139E+0	1.244820E+0	1.256591E+0	1.371824E+0	1.395151E+0
5.460160E+2	1.218638E+0	1.255927E+0	1.190199E+0	1.310088E+0	1.235160E+0	1.226866E+0	1.210158E+0	1.225938E+0	1.246148E+0	1.180307E+0	1.217838E+0	1.280048E+0	1.260702E+0	1.223470E+0	1.244300E+0	1.317073E+0	1.250489E+0	1.205383E+0	1.230515E+0	1.264072E+0	1.250070E+0	1.283461E+0	1.254616E+0	1.226251E+0	1.299338E+0	1.301945E+0	1.298936E+0	1.262655E+0	1.277124E+0	1.222888E+0	1.247736E+0	1.241399E+0	1.256803E+0	1.255322E+0	1.256995E+0	1.269565E+0	1.272736E+0	1.231369E+0	1.224013E+0	1.248627E+0	1.242245E+0	1.178966E+0	1.159510E+0	1.226901E+0	1.226078E+0	1.252723E+0	1.230078E+0	1.287156E+0	1.247602E+0	1.252305E+0	1.252541E+0	1.305794E+0	1.225924E+0	1.289546E+0	1.260106E+0	1.253022E+0	1.286262E+0	1.207592E+0	1.265311E+0	1.264073E+0	1.232972E+0	1.262030E+0	1.216685E+0	1.279709E+0	1.182290E+0	1.241524E+0	1.221156E+0	1.227490E+0	1.223567E+0	1.244115E+0	1.213685E+0	1.257369E+0	1.277770E+0	1.180959E+0	1.223648E+0	1.272554E+0	1.246260E+0	1.214059E+0	1.276140E+0	1.267806E+0	1.235565E+0	1.236419E+0	1.257323E+0	1.257750E+0	1.256888E+0	1.199263E+0	1.248895E+0	1.233480E+0	1.243645E+0	1.264949E+0	1.255490E+0	1.220434E+0	1.235510E+0	1.224368E+0	1.253299E+0	1.272682E+0	1.249920E+0	1.276377E+0	1.233909E+0	1.237332E+0	1.247322E+0	1.172081E+0	1.193751E+0	1.236289E+0	1.234049E+0	1.198654E+0	1.293110E+0	1.249395E+0	1.260548E+0	1.247839E+0	1.224364E+0	1.221999E+0	1.238386E+0	1.237750E+0	1.223842E+0	1.292027E+0	1.219440E+0	1.238296E+0	1.262085E+0	1.266700E+0	1.221077E+0	1.237955E+0	1.192143E+0	1.233081E+0	1.267643E+0	1.211119E+0	1.212437E+0	1.228627E+0	1.257273E+0	1.195570E+0	1.204219E+0	1.233929E+0	1.259147E+0	1.189866E+0	1.216597E+0	1.207013E+0	1.189504E+0	1.210907E+0	1.299522E+0	1.252577E+0	1.235258E+0	1.215897E+0	1.267510E+0	1.207184E+0	1.165718E+0	1.277427E+0	1.190059E+0	1.225389E+0	1.202436E+0	1.223137E+0	1.246556E+0	1.233716E+0	1.246726E+0	1.211543E+0	1.257585E+0	1.249919E+0	1.214389E+0	1.214079E+0	1.213623E+0	1.271398E+0	1.230710E+0	1.235556E+0	1.264662E+0	1.239235E+0	1.246277E+0	1.248578E+0	1.220219E+0	1.264787E+0	1.193370E+0	1.424136E+0	1.244824E+0
5.467710E+2	1.290051E+0	1.183940E+0	1.195401E+0	1.286876E+0	1.228268E+0	1.248082E+0	1.237160E+0	1.228594E+0	1.237406E+0	1.174288E+0	1.190340E+0	1.260711E+0	1.223062E+0	1.259955E+0	1.246837E+0	1.246056E+0	1.208118E+0	1.234475E+0	1.260643E+0	1.300887E+0	1.243098E+0	1.208297E+0	1.271928E+0	1.255189E+0	1.207573E+0	1.210671E+0	1.260271E+0	1.188658E+0	1.221881E+0	1.224236E+0	1.253925E+0	1.190992E+0	1.261729E+0	1.239942E+0	1.192008E+0	1.282670E+0	1.234418E+0	1.170942E+0	1.223127E+0	1.223201E+0	1.283984E+0	1.154486E+0	1.207395E+0	1.253806E+0	1.192633E+0	1.200132E+0	1.199605E+0	1.253417E+0	1.260505E+0	1.207625E+0	1.195729E+0	1.252145E+0	1.188570E+0	1.173290E+0	1.241016E+0	1.202632E+0	1.164728E+0	1.231219E+0	1.212214E+0	1.199575E+0	1.265988E+0	1.237584E+0	1.229472E+0	1.253461E+0	1.231945E+0	1.187667E+0	1.232997E+0	1.250327E+0	1.213692E+0	1.299443E+0	1.251653E+0	1.189098E+0	1.294878E+0	1.166633E+0	1.176849E+0	1.197500E+0	1.199206E+0	1.197837E+0	1.208827E+0	1.243140E+0	1.199637E+0	1.208913E+0	1.229308E+0	1.217850E+0	1.254439E+0	1.241163E+0	1.237728E+0	1.219983E+0	1.181071E+0	1.158868E+0	1.293135E+0	1.230784E+0	1.249210E+0	1.204742E+0	1.236784E+0	1.215353E+0	1.229089E+0	1.199868E+0	1.150639E+0	1.171565E+0	1.214136E+0	1.142168E+0	1.157326E+0	1.238620E+0	1.255381E+0	1.232822E+0	1.278404E+0	1.274599E+0	1.205459E+0	1.176397E+0	1.144848E+0	1.252426E+0	1.239033E+0	1.210650E+0	1.251412E+0	1.224603E+0	1.210007E+0	1.217224E+0	1.248511E+0	1.259904E+0	1.222876E+0	1.159292E+0	1.168055E+0	1.166652E+0	1.206405E+0	1.171768E+0	1.204426E+0	1.225685E+0	1.231405E+0	1.183560E+0	1.164309E+0	1.178967E+0	1.245713E+0	1.148422E+0	1.214752E+0	1.221544E+0	1.143993E+0	1.273763E+0	1.183177E+0	1.269378E+0	1.200338E+0	1.195303E+0	1.236342E+0	1.232002E+0	1.200812E+0	1.170026E+0	1.210622E+0	1.174159E+0	1.228669E+0	1.211196E+0	1.227295E+0	1.211164E+0	1.229986E+0	1.192551E+0	1.211433E+0	1.225036E+0	1.147900E+0	1.192625E+0	1.228606E+0	1.226927E+0	1.191782E+0	1.224839E+0	1.219297E+0	1.210669E+0	1.215231E+0	1.215876E+0	1.176959E+0	1.239413E+0	1.282949E+0	1.259715E+0	1.220925E+0
5.475230E+2	1.293669E+0	1.392791E+0	1.331883E+0	1.470369E+0	1.314937E+0	1.387811E+0	1.342808E+0	1.321024E+0	1.326601E+0	1.326444E+0	1.318146E+0	1.337234E+0	1.360677E+0	1.351837E+0	1.303006E+0	1.413724E+0	1.333199E+0	1.362674E+0	1.310322E+0	1.322196E+0	1.342970E+0	1.310555E+0	1.335023E+0	1.309595E+0	1.400492E+0	1.361517E+0	1.360988E+0	1.348671E+0	1.344561E+0	1.306571E+0	1.265941E+0	1.400104E+0	1.336149E+0	1.329855E+0	1.351586E+0	1.326408E+0	1.365325E+0	1.284395E+0	1.331614E+0	1.343191E+0	1.341219E+0	1.341990E+0	1.354961E+0	1.301426E+0	1.294517E+0	1.343107E+0	1.322580E+0	1.356217E+0	1.380369E+0	1.332929E+0	1.293220E+0	1.334553E+0	1.361691E+0	1.337379E+0	1.353582E+0	1.328189E+0	1.378467E+0	1.294095E+0	1.302120E+0	1.320911E+0	1.327590E+0	1.342867E+0	1.307735E+0	1.412358E+0	1.300191E+0	1.304513E+0	1.339676E+0	1.375901E+0	1.395074E+0	1.332581E+0	1.327533E+0	1.282541E+0	1.367061E+0	1.319487E+0	1.370667E+0	1.352875E+0	1.343591E+0	1.339908E+0	1.343522E+0	1.392964E+0	1.312086E+0	1.401946E+0	1.306377E+0	1.338859E+0	1.383131E+0	1.288481E+0	1.373914E+0	1.328719E+0	1.284332E+0	1.242295E+0	1.326863E+0	1.369071E+0	1.406975E+0	1.327918E+0	1.338609E+0	1.348017E+0	1.299853E+0	1.356362E+0	1.351591E+0	1.333257E+0	1.339460E+0	1.289856E+0	1.315957E+0	1.330028E+0	1.288623E+0	1.351868E+0	1.369007E+0	1.374210E+0	1.321690E+0	1.370950E+0	1.317084E+0	1.361213E+0	1.305226E+0	1.353264E+0	1.284663E+0	1.243953E+0	1.330823E+0	1.305940E+0	1.390626E+0	1.343694E+0	1.365198E+0	1.362828E+0	1.259911E+0	1.356245E+0	1.372541E+0	1.350830E+0	1.341400E+0	1.293867E+0	1.327942E+0	1.358048E+0	1.279820E+0	1.340022E+0	1.328493E+0	1.301630E+0	1.333094E+0	1.293121E+0	1.345547E+0	1.304005E+0	1.347288E+0	1.379342E+0	1.350058E+0	1.294643E+0	1.373715E+0	1.410480E+0	1.312605E+0	1.304920E+0	1.285779E+0	1.316239E+0	1.332814E+0	1.283233E+0	1.356507E+0	1.334805E+0	1.332000E+0	1.332657E+0	1.319839E+0	1.369906E+0	1.321884E+0	1.309193E+0	1.325288E+0	1.380627E+0	1.341271E+0	1.305351E+0	1.288459E+0	1.369025E+0	1.358322E+0	1.312240E+0	1.321883E+0	1.331919E+0	1.373100E+0	1.439308E+0	1.645248E+0
5.482600E+2	1.420551E+0	1.436815E+0	1.416118E+0	1.496800E+0	1.452211E+0	1.407484E+0	1.416724E+0	1.357055E+0	1.460012E+0	1.421641E+0	1.462196E+0	1.382676E+0	1.426071E+0	1.475057E+0	1.417185E+0	1.493032E+0	1.354506E+0	1.396974E+0	1.492704E+0	1.396258E+0	1.440328E+0	1.401761E+0	1.381316E+0	1.437242E+0	1.402103E+0	1.417807E+0	1.482127E+0	1.401590E+0	1.445315E+0	1.441617E+0	1.411382E+0	1.426107E+0	1.420847E+0	1.418390E+0	1.401995E+0	1.436630E+0	1.406429E+0	1.394774E+0	1.404596E+0	1.449486E+0	1.468635E+0	1.388790E+0	1.415285E+0	1.457290E+0	1.411207E+0	1.438939E+0	1.432990E+0	1.484539E+0	1.412925E+0	1.463934E+0	1.425402E+0	1.462890E+0	1.444198E+0	1.470824E+0	1.427127E+0	1.398703E+0	1.477763E+0	1.352006E+0	1.441486E+0	1.410423E+0	1.461354E+0	1.403642E+0	1.386879E+0	1.453752E+0	1.323284E+0	1.441993E+0	1.357057E+0	1.406256E+0	1.451901E+0	1.422565E+0	1.349282E+0	1.407431E+0	1.386935E+0	1.383556E+0	1.503058E+0	1.494456E+0	1.408480E+0	1.358275E+0	1.449232E+0	1.430128E+0	1.394579E+0	1.423168E+0	1.404471E+0	1.457249E+0	1.411312E+0	1.395204E+0	1.444747E+0	1.398660E+0	1.455428E+0	1.402357E+0	1.387317E+0	1.423257E+0	1.518521E+0	1.411279E+0	1.427533E+0	1.492169E+0	1.401439E+0	1.362732E+0	1.361023E+0	1.348608E+0	1.374612E+0	1.415490E+0	1.443932E+0	1.365467E+0	1.442384E+0	1.386989E+0	1.412969E+0	1.465423E+0	1.450933E+0	1.408122E+0	1.422169E+0	1.426751E+0	1.420939E+0	1.396744E+0	1.351637E+0	1.366816E+0	1.432802E+0	1.403080E+0	1.407365E+0	1.429511E+0	1.444775E+0	1.444096E+0	1.396403E+0	1.412561E+0	1.412564E+0	1.394267E+0	1.357245E+0	1.449443E+0	1.393617E+0	1.396527E+0	1.364701E+0	1.402344E+0	1.402408E+0	1.381277E+0	1.382623E+0	1.416039E+0	1.422627E+0	1.382625E+0	1.418481E+0	1.474650E+0	1.448397E+0	1.421706E+0	1.385269E+0	1.410676E+0	1.384087E+0	1.391031E+0	1.372250E+0	1.413649E+0	1.420656E+0	1.374847E+0	1.433415E+0	1.441372E+0	1.426771E+0	1.284319E+0	1.395556E+0	1.402946E+0	1.393440E+0	1.377055E+0	1.389555E+0	1.411553E+0	1.391138E+0	1.443378E+0	1.365545E+0	1.453239E+0	1.366649E+0	1.389156E+0	1.399843E+0	1.495496E+0	1.440597E+0	1.377598E+0	1.336717E+0
5.490100E+2	1.439985E+0	1.401676E+0	1.417415E+0	1.515142E+0	1.419786E+0	1.437891E+0	1.416102E+0	1.418848E+0	1.454312E+0	1.432206E+0	1.442163E+0	1.459244E+0	1.479451E+0	1.469849E+0	1.462492E+0	1.478045E+0	1.439548E+0	1.416708E+0	1.403707E+0	1.508422E+0	1.450792E+0	1.426673E+0	1.424004E+0	1.420211E+0	1.439545E+0	1.403856E+0	1.461966E+0	1.436862E+0	1.459592E+0	1.415640E+0	1.415209E+0	1.428429E+0	1.452034E+0	1.430362E+0	1.433730E+0	1.392627E+0	1.428796E+0	1.363375E+0	1.419036E+0	1.405203E+0	1.449150E+0	1.429280E+0	1.421603E+0	1.429125E+0	1.428523E+0	1.459339E+0	1.424144E+0	1.464809E+0	1.415889E+0	1.387638E+0	1.393298E+0	1.484378E+0	1.399546E+0	1.415294E+0	1.445053E+0	1.445287E+0	1.425661E+0	1.411343E+0	1.392490E+0	1.447680E+0	1.457412E+0	1.405078E+0	1.453214E+0	1.481749E+0	1.386495E+0	1.431107E+0	1.414051E+0	1.506482E+0	1.422468E+0	1.420327E+0	1.425430E+0	1.384628E+0	1.525882E+0	1.439493E+0	1.388831E+0	1.473112E+0	1.417318E+0	1.430451E+0	1.353441E+0	1.441620E+0	1.378706E+0	1.481807E+0	1.438392E+0	1.426518E+0	1.486067E+0	1.423414E+0	1.406140E+0	1.426853E+0	1.450914E+0	1.425556E+0	1.442317E+0	1.442287E+0	1.422788E+0	1.438756E+0	1.460337E+0	1.423248E+0	1.416632E+0	1.451660E+0	1.393428E+0	1.437047E+0	1.458058E+0	1.383345E+0	1.405210E+0	1.426178E+0	1.432243E+0	1.428804E+0	1.437583E+0	1.415355E+0	1.458352E+0	1.402185E+0	1.464328E+0	1.448312E+0	1.387152E+0	1.416964E+0	1.423771E+0	1.389812E+0	1.487688E+0	1.367534E+0	1.423400E+0	1.420863E+0	1.430382E+0	1.434416E+0	1.385745E+0	1.472176E+0	1.414029E+0	1.397364E+0	1.424752E+0	1.428516E+0	1.390977E+0	1.445352E+0	1.355086E+0	1.373146E+0	1.389512E+0	1.332563E+0	1.393496E+0	1.360430E+0	1.395669E+0	1.413683E+0	1.469570E+0	1.513256E+0	1.375469E+0	1.461816E+0	1.305434E+0	1.540655E+0	1.418958E+0	1.392496E+0	1.393172E+0	1.411868E+0	1.373422E+0	1.410163E+0	1.422856E+0	1.422690E+0	1.378415E+0	1.389071E+0	1.463910E+0	1.403145E+0	1.353254E+0	1.407250E+0	1.438150E+0	1.448339E+0	1.376838E+0	1.406604E+0	1.396948E+0	1.421987E+0	1.433256E+0	1.403675E+0	1.403963E+0	1.394994E+0	1.486226E+0	1.486753E+0	1.621153E+0
5.497680E+2	1.324041E+0	1.324475E+0	1.342753E+0	1.476300E+0	1.319092E+0	1.348385E+0	1.264076E+0	1.315495E+0	1.378415E+0	1.336443E+0	1.284327E+0	1.389596E+0	1.312351E+0	1.305725E+0	1.335835E+0	1.384358E+0	1.306760E+0	1.256315E+0	1.312431E+0	1.330728E+0	1.343507E+0	1.260389E+0	1.294666E+0	1.345269E+0	1.382382E+0	1.349365E+0	1.300178E+0	1.323287E+0	1.309075E+0	1.345066E+0	1.299103E+0	1.335111E+0	1.364105E+0	1.345433E+0	1.324868E+0	1.330727E+0	1.370092E+0	1.277827E+0	1.331037E+0	1.294600E+0	1.298179E+0	1.308618E+0	1.262537E+0	1.349332E+0	1.358087E+0	1.306812E+0	1.300264E+0	1.335862E+0	1.289458E+0	1.265621E+0	1.372651E+0	1.388138E+0	1.304713E+0	1.281479E+0	1.329208E+0	1.345533E+0	1.338326E+0	1.320244E+0	1.321208E+0	1.306370E+0	1.285143E+0	1.294354E+0	1.299708E+0	1.326134E+0	1.257500E+0	1.352991E+0	1.315796E+0	1.337815E+0	1.366092E+0	1.385172E+0	1.321848E+0	1.326107E+0	1.283735E+0	1.261756E+0	1.302214E+0	1.365828E+0	1.301263E+0	1.361399E+0	1.305189E+0	1.350632E+0	1.250414E+0	1.332652E+0	1.319585E+0	1.372034E+0	1.323867E+0	1.324543E+0	1.335913E+0	1.289447E+0	1.263430E+0	1.309713E+0	1.312089E+0	1.244813E+0	1.400551E+0	1.268954E+0	1.350756E+0	1.308176E+0	1.302013E+0	1.275878E+0	1.309610E+0	1.300087E+0	1.320057E+0	1.257510E+0	1.271894E+0	1.268711E+0	1.307418E+0	1.254782E+0	1.303502E+0	1.342031E+0	1.346626E+0	1.311574E+0	1.299275E+0	1.349792E+0	1.331305E+0	1.336820E+0	1.267831E+0	1.331868E+0	1.272712E+0	1.268366E+0	1.301006E+0	1.314903E+0	1.304041E+0	1.301526E+0	1.275098E+0	1.343437E+0	1.318569E+0	1.280958E+0	1.310081E+0	1.294932E+0	1.325713E+0	1.312709E+0	1.301823E+0	1.285381E+0	1.306007E+0	1.328622E+0	1.261072E+0	1.292051E+0	1.313356E+0	1.308357E+0	1.279044E+0	1.393217E+0	1.356750E+0	1.326834E+0	1.303261E+0	1.335338E+0	1.287897E+0	1.271495E+0	1.303435E+0	1.277675E+0	1.308934E+0	1.327010E+0	1.242821E+0	1.308168E+0	1.254878E+0	1.306490E+0	1.316788E+0	1.313869E+0	1.299317E+0	1.271544E+0	1.335947E+0	1.364175E+0	1.301442E+0	1.248595E+0	1.302624E+0	1.306821E+0	1.259944E+0	1.299246E+0	1.296770E+0	1.362237E+0	1.420438E+0	1.343008E+0	1.592893E+0
5.505060E+2	1.409447E+0	1.376041E+0	1.289939E+0	1.413124E+0	1.329247E+0	1.328236E+0	1.348537E+0	1.383946E+0	1.355297E+0	1.350751E+0	1.339209E+0	1.368474E+0	1.347615E+0	1.356946E+0	1.337348E+0	1.372213E+0	1.335983E+0	1.326218E+0	1.347490E+0	1.356129E+0	1.340313E+0	1.334357E+0	1.292017E+0	1.342128E+0	1.352058E+0	1.355482E+0	1.296835E+0	1.348873E+0	1.335317E+0	1.336792E+0	1.331354E+0	1.344654E+0	1.340251E+0	1.366274E+0	1.311479E+0	1.328254E+0	1.365309E+0	1.286201E+0	1.392790E+0	1.368918E+0	1.376910E+0	1.308107E+0	1.307566E+0	1.418136E+0	1.364219E+0	1.331555E+0	1.308593E+0	1.418375E+0	1.348878E+0	1.337989E+0	1.358595E+0	1.418339E+0	1.327770E+0	1.350785E+0	1.322366E+0	1.327888E+0	1.389399E+0	1.308420E+0	1.328981E+0	1.304710E+0	1.376439E+0	1.361068E+0	1.307417E+0	1.353052E+0	1.349910E+0	1.336803E+0	1.380298E+0	1.299209E+0	1.297491E+0	1.304113E+0	1.366146E+0	1.346367E+0	1.334588E+0	1.297975E+0	1.306521E+0	1.352837E+0	1.314607E+0	1.325485E+0	1.322759E+0	1.383403E+0	1.284614E+0	1.317144E+0	1.382991E+0	1.376597E+0	1.328081E+0	1.301820E+0	1.316757E+0	1.330068E+0	1.335578E+0	1.329099E+0	1.365131E+0	1.313653E+0	1.375152E+0	1.313762E+0	1.308037E+0	1.350982E+0	1.327840E+0	1.332825E+0	1.332905E+0	1.295265E+0	1.367844E+0	1.400986E+0	1.286929E+0	1.297044E+0	1.348063E+0	1.352258E+0	1.302025E+0	1.335550E+0	1.308336E+0	1.342768E+0	1.344683E+0	1.399274E+0	1.303836E+0	1.353216E+0	1.300836E+0	1.337144E+0	1.341547E+0	1.354830E+0	1.324226E+0	1.312597E+0	1.357605E+0	1.299001E+0	1.317670E+0	1.413929E+0	1.322576E+0	1.321743E+0	1.313451E+0	1.361970E+0	1.349968E+0	1.339380E+0	1.297077E+0	1.333319E+0	1.363662E+0	1.334255E+0	1.281348E+0	1.296018E+0	1.327903E+0	1.303112E+0	1.281658E+0	1.391607E+0	1.361574E+0	1.325192E+0	1.307797E+0	1.379536E+0	1.261789E+0	1.310032E+0	1.309177E+0	1.334381E+0	1.309253E+0	1.311886E+0	1.351953E+0	1.359032E+0	1.289850E+0	1.364303E+0	1.333875E+0	1.363035E+0	1.320029E+0	1.361913E+0	1.318115E+0	1.391357E+0	1.322593E+0	1.295527E+0	1.304616E+0	1.326524E+0	1.285119E+0	1.364616E+0	1.372464E+0	1.349883E+0	1.304737E+0	1.409350E+0	1.266118E+0
5.512620E+2	1.350719E+0	1.298125E+0	1.332454E+0	1.423379E+0	1.371776E+0	1.350716E+0	1.310110E+0	1.355355E+0	1.384750E+0	1.340618E+0	1.326484E+0	1.315386E+0	1.318630E+0	1.341899E+0	1.313436E+0	1.352985E+0	1.321046E+0	1.367732E+0	1.313148E+0	1.296303E+0	1.367864E+0	1.328548E+0	1.348726E+0	1.292046E+0	1.319233E+0	1.346706E+0	1.356146E+0	1.296503E+0	1.327077E+0	1.330655E+0	1.344962E+0	1.334934E+0	1.330977E+0	1.358932E+0	1.327764E+0	1.285470E+0	1.330773E+0	1.289823E+0	1.366105E+0	1.367707E+0	1.359397E+0	1.311888E+0	1.310494E+0	1.350275E+0	1.333342E+0	1.344468E+0	1.327816E+0	1.355176E+0	1.336296E+0	1.373648E+0	1.344637E+0	1.361880E+0	1.341017E+0	1.324924E+0	1.371528E+0	1.293249E+0	1.403572E+0	1.308210E+0	1.363791E+0	1.345522E+0	1.371190E+0	1.322498E+0	1.329464E+0	1.328295E+0	1.323722E+0	1.330091E+0	1.312205E+0	1.389201E+0	1.336318E+0	1.341880E+0	1.311180E+0	1.304070E+0	1.354729E+0	1.277751E+0	1.332440E+0	1.298473E+0	1.303791E+0	1.366180E+0	1.342462E+0	1.339065E+0	1.276708E+0	1.348886E+0	1.318713E+0	1.327598E+0	1.348206E+0	1.276195E+0	1.322091E+0	1.341164E+0	1.347823E+0	1.384090E+0	1.322481E+0	1.341489E+0	1.386442E+0	1.343341E+0	1.340020E+0	1.394665E+0	1.315846E+0	1.329664E+0	1.310858E+0	1.318448E+0	1.337432E+0	1.346657E+0	1.306306E+0	1.291026E+0	1.313767E+0	1.347232E+0	1.321452E+0	1.307980E+0	1.331002E+0	1.327026E+0	1.327007E+0	1.368524E+0	1.333798E+0	1.358839E+0	1.340118E+0	1.351554E+0	1.329674E+0	1.283568E+0	1.376479E+0	1.338196E+0	1.342190E+0	1.313805E+0	1.290185E+0	1.346526E+0	1.338872E+0	1.307953E+0	1.308319E+0	1.357476E+0	1.362956E+0	1.309773E+0	1.279437E+0	1.313043E+0	1.296155E+0	1.331444E+0	1.349736E+0	1.296147E+0	1.327470E+0	1.335956E+0	1.334921E+0	1.372476E+0	1.342028E+0	1.318895E+0	1.292272E+0	1.352153E+0	1.340136E+0	1.270732E+0	1.269323E+0	1.314853E+0	1.328529E+0	1.346542E+0	1.347655E+0	1.347793E+0	1.401161E+0	1.273494E+0	1.332617E+0	1.340702E+0	1.325903E+0	1.288060E+0	1.287878E+0	1.344248E+0	1.280820E+0	1.341523E+0	1.262770E+0	1.296778E+0	1.325137E+0	1.346675E+0	1.389359E+0	1.344972E+0	1.352255E+0	1.328031E+0	1.366664E+0
5.520150E+2	1.288961E+0	1.262418E+0	1.272389E+0	1.427059E+0	1.317655E+0	1.354980E+0	1.278246E+0	1.307154E+0	1.286795E+0	1.287034E+0	1.308860E+0	1.332055E+0	1.316724E+0	1.280843E+0	1.302849E+0	1.345420E+0	1.337168E+0	1.276223E+0	1.320386E+0	1.290289E+0	1.358030E+0	1.297413E+0	1.298262E+0	1.288321E+0	1.288891E+0	1.271111E+0	1.301513E+0	1.289484E+0	1.305926E+0	1.353175E+0	1.302855E+0	1.308778E+0	1.316474E+0	1.355806E+0	1.330372E+0	1.277111E+0	1.306672E+0	1.259751E+0	1.318343E+0	1.319028E+0	1.315540E+0	1.274106E+0	1.262096E+0	1.337848E+0	1.294280E+0	1.280938E+0	1.328600E+0	1.290753E+0	1.323700E+0	1.282480E+0	1.299858E+0	1.267766E+0	1.328528E+0	1.332562E+0	1.294282E+0	1.271825E+0	1.350726E+0	1.288006E+0	1.294913E+0	1.297376E+0	1.316739E+0	1.309008E+0	1.309324E+0	1.264825E+0	1.266129E+0	1.254325E+0	1.323826E+0	1.354368E+0	1.352624E+0	1.266280E+0	1.298814E+0	1.307226E+0	1.256189E+0	1.248351E+0	1.322366E+0	1.313024E+0	1.285375E+0	1.287633E+0	1.284084E+0	1.322568E+0	1.280199E+0	1.264171E+0	1.318065E+0	1.267911E+0	1.320979E+0	1.284572E+0	1.338618E+0	1.341956E+0	1.316890E+0	1.308310E+0	1.310967E+0	1.259802E+0	1.357912E+0	1.280869E+0	1.359023E+0	1.313695E+0	1.312727E+0	1.237646E+0	1.299656E+0	1.258168E+0	1.357775E+0	1.289687E+0	1.271147E+0	1.304350E+0	1.291996E+0	1.269488E+0	1.345092E+0	1.351499E+0	1.290493E+0	1.297036E+0	1.278909E+0	1.317066E+0	1.331931E+0	1.276824E+0	1.278251E+0	1.356694E+0	1.289414E+0	1.335126E+0	1.311254E+0	1.297402E+0	1.330677E+0	1.297626E+0	1.337258E+0	1.294884E+0	1.323663E+0	1.275829E+0	1.287504E+0	1.318295E+0	1.274896E+0	1.316994E+0	1.276344E+0	1.288462E+0	1.321159E+0	1.301328E+0	1.304363E+0	1.283605E+0	1.265026E+0	1.261491E+0	1.252350E+0	1.275389E+0	1.307610E+0	1.284834E+0	1.302465E+0	1.339210E+0	1.278560E+0	1.317530E+0	1.286464E+0	1.307531E+0	1.349941E+0	1.259909E+0	1.333442E+0	1.292567E+0	1.305341E+0	1.267138E+0	1.295658E+0	1.321496E+0	1.305954E+0	1.265172E+0	1.284753E+0	1.345881E+0	1.278397E+0	1.274042E+0	1.258481E+0	1.349623E+0	1.288716E+0	1.264380E+0	1.292845E+0	1.294425E+0	1.337126E+0	1.343777E+0	1.354275E+0
5.527650E+2	1.323728E+0	1.342790E+0	1.243531E+0	1.336616E+0	1.349674E+0	1.315644E+0	1.333462E+0	1.278579E+0	1.285208E+0	1.268855E+0	1.315210E+0	1.254558E+0	1.280510E+0	1.276400E+0	1.295724E+0	1.320659E+0	1.300150E+0	1.298757E+0	1.221918E+0	1.279968E+0	1.335294E+0	1.273061E+0	1.293945E+0	1.297960E+0	1.282280E+0	1.294867E+0	1.338627E+0	1.303571E+0	1.315376E+0	1.306929E+0	1.288232E+0	1.256952E+0	1.327409E+0	1.314996E+0	1.241554E+0	1.315611E+0	1.331813E+0	1.266426E+0	1.228285E+0	1.346639E+0	1.357734E+0	1.306278E+0	1.289259E+0	1.304845E+0	1.267527E+0	1.290032E+0	1.315419E+0	1.241684E+0	1.334985E+0	1.307705E+0	1.363453E+0	1.309540E+0	1.318887E+0	1.319417E+0	1.335750E+0	1.320407E+0	1.321434E+0	1.275859E+0	1.274851E+0	1.313533E+0	1.363176E+0	1.276201E+0	1.291891E+0	1.266914E+0	1.335736E+0	1.307369E+0	1.294299E+0	1.336731E+0	1.311122E+0	1.303244E+0	1.294976E+0	1.327971E+0	1.336875E+0	1.256965E+0	1.269644E+0	1.303856E+0	1.284701E+0	1.290250E+0	1.315894E+0	1.279095E+0	1.265243E+0	1.239455E+0	1.293990E+0	1.309770E+0	1.257541E+0	1.287849E+0	1.271114E+0	1.283245E+0	1.288003E+0	1.270497E+0	1.299821E+0	1.292128E+0	1.334622E+0	1.282409E+0	1.342081E+0	1.276559E+0	1.296976E+0	1.257515E+0	1.281892E+0	1.273957E+0	1.362759E+0	1.306615E+0	1.292384E+0	1.325367E+0	1.312059E+0	1.259713E+0	1.308535E+0	1.305306E+0	1.253970E+0	1.329442E+0	1.280670E+0	1.266083E+0	1.307074E+0	1.300199E+0	1.303782E+0	1.285482E+0	1.294814E+0	1.316377E+0	1.248293E+0	1.293219E+0	1.324826E+0	1.267193E+0	1.264023E+0	1.315090E+0	1.278417E+0	1.262167E+0	1.351649E+0	1.316431E+0	1.348808E+0	1.285393E+0	1.265976E+0	1.264742E+0	1.273853E+0	1.242274E+0	1.307150E+0	1.314432E+0	1.293467E+0	1.274754E+0	1.268201E+0	1.243850E+0	1.318232E+0	1.302466E+0	1.263533E+0	1.340544E+0	1.322506E+0	1.269033E+0	1.259552E+0	1.295345E+0	1.303767E+0	1.342203E+0	1.297131E+0	1.279562E+0	1.279821E+0	1.261616E+0	1.275883E+0	1.312038E+0	1.369743E+0	1.285691E+0	1.284219E+0	1.342596E+0	1.261778E+0	1.318855E+0	1.218617E+0	1.322757E+0	1.319913E+0	1.273511E+0	1.242884E+0	1.296083E+0	1.358261E+0	1.330426E+0	1.284389E+0
5.535100E+2	1.253212E+0	1.216734E+0	1.231597E+0	1.303990E+0	1.258906E+0	1.275795E+0	1.216790E+0	1.259696E+0	1.219423E+0	1.247364E+0	1.252929E+0	1.219670E+0	1.274062E+0	1.240981E+0	1.206504E+0	1.245554E+0	1.308884E+0	1.246569E+0	1.221784E+0	1.254213E+0	1.237361E+0	1.220041E+0	1.243980E+0	1.243684E+0	1.230118E+0	1.233568E+0	1.248434E+0	1.195488E+0	1.268074E+0	1.206645E+0	1.218718E+0	1.209568E+0	1.202642E+0	1.271894E+0	1.199956E+0	1.223049E+0	1.251391E+0	1.202303E+0	1.195873E+0	1.242318E+0	1.276535E+0	1.264995E+0	1.203762E+0	1.256493E+0	1.244378E+0	1.221901E+0	1.267792E+0	1.239557E+0	1.277483E+0	1.225546E+0	1.220583E+0	1.248238E+0	1.240522E+0	1.242034E+0	1.217962E+0	1.226717E+0	1.195310E+0	1.232340E+0	1.231739E+0	1.267582E+0	1.290434E+0	1.219203E+0	1.260971E+0	1.207347E+0	1.154185E+0	1.226185E+0	1.256650E+0	1.187335E+0	1.187307E+0	1.240271E+0	1.183036E+0	1.188807E+0	1.256766E+0	1.262298E+0	1.210681E+0	1.211718E+0	1.254252E+0	1.242322E+0	1.232341E+0	1.200406E+0	1.213436E+0	1.252683E+0	1.228580E+0	1.257527E+0	1.242158E+0	1.268896E+0	1.203841E+0	1.220813E+0	1.227006E+0	1.228876E+0	1.229653E+0	1.188630E+0	1.274684E+0	1.225574E+0	1.215228E+0	1.250138E+0	1.207901E+0	1.244166E+0	1.178027E+0	1.225161E+0	1.235985E+0	1.213244E+0	1.240485E+0	1.213449E+0	1.182665E+0	1.241243E+0	1.244889E+0	1.206728E+0	1.251162E+0	1.219395E+0	1.234106E+0	1.234744E+0	1.206497E+0	1.212812E+0	1.193248E+0	1.227189E+0	1.220909E+0	1.228969E+0	1.190255E+0	1.249838E+0	1.261132E+0	1.199478E+0	1.224719E+0	1.182278E+0	1.235929E+0	1.203806E+0	1.243573E+0	1.204576E+0	1.280400E+0	1.227820E+0	1.222069E+0	1.237393E+0	1.310825E+0	1.237207E+0	1.233775E+0	1.224109E+0	1.196435E+0	1.209887E+0	1.233715E+0	1.240457E+0	1.267784E+0	1.223452E+0	1.221845E+0	1.244574E+0	1.228173E+0	1.232230E+0	1.184081E+0	1.252396E+0	1.230439E+0	1.259263E+0	1.220066E+0	1.220569E+0	1.209382E+0	1.172532E+0	1.261903E+0	1.190611E+0	1.189117E+0	1.226037E+0	1.248578E+0	1.277972E+0	1.297235E+0	1.210910E+0	1.223854E+0	1.266710E+0	1.223881E+0	1.198386E+0	1.206791E+0	1.236655E+0	1.245999E+0	1.189654E+0	1.321022E+0
5.542530E+2	1.124220E+0	1.089520E+0	1.102807E+0	1.152657E+0	1.140380E+0	1.125978E+0	1.153845E+0	1.163149E+0	1.147745E+0	1.149411E+0	1.144088E+0	1.130468E+0	1.165664E+0	1.139060E+0	1.141446E+0	1.107480E+0	1.140940E+0	1.116623E+0	1.146010E+0	1.113800E+0	1.154606E+0	1.134884E+0	1.153001E+0	1.142217E+0	1.112626E+0	1.102585E+0	1.153835E+0	1.092217E+0	1.117811E+0	1.151726E+0	1.118439E+0	1.167250E+0	1.202568E+0	1.169374E+0	1.087532E+0	1.108003E+0	1.132078E+0	1.110881E+0	1.130141E+0	1.150308E+0	1.140476E+0	1.133204E+0	1.121267E+0	1.206146E+0	1.138002E+0	1.164451E+0	1.106666E+0	1.156839E+0	1.135096E+0	1.118828E+0	1.161609E+0	1.168801E+0	1.088037E+0	1.120019E+0	1.140023E+0	1.161510E+0	1.174743E+0	1.144762E+0	1.141852E+0	1.122972E+0	1.119757E+0	1.133237E+0	1.145772E+0	1.130655E+0	1.105009E+0	1.143626E+0	1.147810E+0	1.090085E+0	1.160897E+0	1.136702E+0	1.126254E+0	1.135720E+0	1.156024E+0	1.125132E+0	1.144500E+0	1.134182E+0	1.096243E+0	1.144010E+0	1.104051E+0	1.117794E+0	1.127919E+0	1.158965E+0	1.143629E+0	1.158034E+0	1.140996E+0	1.136243E+0	1.122248E+0	1.109527E+0	1.083935E+0	1.127323E+0	1.174913E+0	1.124534E+0	1.163407E+0	1.148429E+0	1.132633E+0	1.158065E+0	1.223067E+0	1.101522E+0	1.136725E+0	1.121962E+0	1.152449E+0	1.114640E+0	1.113975E+0	1.072323E+0	1.116085E+0	1.105941E+0	1.115273E+0	1.147133E+0	1.125069E+0	1.115943E+0	1.100687E+0	1.155015E+0	1.181922E+0	1.088296E+0	1.144944E+0	1.129630E+0	1.139734E+0	1.162963E+0	1.144241E+0	1.128049E+0	1.178367E+0	1.145878E+0	1.106694E+0	1.141849E+0	1.171915E+0	1.108582E+0	1.122885E+0	1.090252E+0	1.230057E+0	1.122205E+0	1.099982E+0	1.121386E+0	1.137762E+0	1.075884E+0	1.156351E+0	1.105843E+0	1.109837E+0	1.094080E+0	1.137157E+0	1.118668E+0	1.159027E+0	1.178334E+0	1.091123E+0	1.108227E+0	1.205293E+0	1.092684E+0	1.110770E+0	1.151074E+0	1.145762E+0	1.123130E+0	1.135831E+0	1.153039E+0	1.137545E+0	1.130436E+0	1.166349E+0	1.133451E+0	1.113410E+0	1.162342E+0	1.141078E+0	1.095232E+0	1.175767E+0	1.108992E+0	1.171292E+0	1.110840E+0	1.180241E+0	1.118099E+0	1.112905E+0	1.113706E+0	1.181396E+0	1.102333E+0	1.169787E+0
5.550140E+2	1.051687E+0	9.886537E-1	9.902945E-1	9.718154E-1	1.006921E+0	1.042170E+0	9.710479E-1	9.858721E-1	1.050061E+0	9.958735E-1	1.034326E+0	9.992254E-1	1.016187E+0	1.048655E+0	1.031120E+0	9.975619E-1	9.890566E-1	9.805898E-1	1.037957E+0	1.021742E+0	1.030129E+0	9.992466E-1	9.769039E-1	9.906715E-1	9.906289E-1	9.933437E-1	9.833111E-1	9.806954E-1	1.004659E+0	9.691118E-1	1.006349E+0	1.008967E+0	1.046217E+0	1.014493E+0	1.010134E+0	9.471876E-1	1.004340E+0	9.658570E-1	1.005264E+0	9.929550E-1	1.019988E+0	9.858060E-1	1.014371E+0	1.067756E+0	1.033265E+0	9.947844E-1	1.057517E+0	1.001348E+0	1.031038E+0	9.705231E-1	1.023190E+0	1.034289E+0	1.021609E+0	9.626428E-1	9.799695E-1	9.946502E-1	9.864628E-1	9.883967E-1	1.019607E+0	9.607511E-1	1.064966E+0	1.042075E+0	9.988841E-1	9.960608E-1	1.029768E+0	1.017323E+0	1.028821E+0	1.079751E+0	1.035116E+0	9.737411E-1	9.811055E-1	1.032861E+0	1.025971E+0	1.024964E+0	9.909804E-1	1.000817E+0	9.725785E-1	1.036028E+0	1.018172E+0	9.813373E-1	1.051104E+0	1.013197E+0	1.018207E+0	1.026254E+0	1.008779E+0	1.023225E+0	9.871725E-1	1.011113E+0	1.009889E+0	1.007816E+0	1.010646E+0	1.003722E+0	1.055444E+0	9.832227E-1	1.005093E+0	1.009203E+0	9.710011E-1	1.021226E+0	9.944040E-1	9.398307E-1	1.039088E+0	1.001281E+0	1.010189E+0	9.818880E-1	1.033915E+0	9.887785E-1	1.028108E+0	9.940395E-1	1.018498E+0	1.029407E+0	9.851604E-1	9.808926E-1	1.030482E+0	9.790075E-1	9.410338E-1	9.908602E-1	1.027591E+0	1.042733E+0	1.007577E+0	1.028280E+0	9.616847E-1	1.014813E+0	1.026332E+0	1.021056E+0	9.674411E-1	1.001783E+0	1.021995E+0	9.597645E-1	1.022544E+0	1.000227E+0	9.934907E-1	1.003324E+0	9.754758E-1	1.021633E+0	1.018081E+0	1.012961E+0	9.834637E-1	1.012959E+0	1.010693E+0	1.063412E+0	9.845036E-1	9.529880E-1	1.036517E+0	1.050793E+0	1.003941E+0	9.964552E-1	9.892060E-1	1.004671E+0	9.824045E-1	9.861332E-1	9.874984E-1	1.009225E+0	1.023475E+0	9.885425E-1	1.011587E+0	1.002890E+0	9.767470E-1	9.904096E-1	1.011400E+0	9.925471E-1	1.033091E+0	9.942813E-1	9.772811E-1	9.900555E-1	1.038262E+0	1.041233E+0	1.038576E+0	1.055127E+0	1.021957E+0	1.060735E+0	9.760295E-1
5.557660E+2	1.007120E+0	9.974268E-1	9.475886E-1	9.069350E-1	9.731074E-1	9.712882E-1	9.731080E-1	1.014988E+0	9.859870E-1	9.757690E-1	9.413407E-1	9.999147E-1	1.008786E+0	1.026478E+0	1.007001E+0	9.995579E-1	9.955366E-1	9.677805E-1	1.004878E+0	9.758284E-1	9.926919E-1	1.000762E+0	1.012209E+0	9.817974E-1	9.929994E-1	9.974386E-1	1.036015E+0	9.724937E-1	9.622525E-1	9.918236E-1	9.806089E-1	9.854936E-1	1.010143E+0	1.001840E+0	9.497749E-1	9.581480E-1	9.996569E-1	9.628771E-1	9.495677E-1	9.782004E-1	9.717790E-1	9.324454E-1	1.029065E+0	9.758577E-1	1.005134E+0	9.814316E-1	9.588998E-1	9.703705E-1	9.604661E-1	9.846866E-1	9.663034E-1	9.667137E-1	9.867868E-1	9.836361E-1	1.006738E+0	9.985579E-1	1.000674E+0	9.564817E-1	9.588718E-1	9.914161E-1	1.055590E+0	9.603298E-1	1.020199E+0	9.446823E-1	9.813481E-1	9.789167E-1	9.747617E-1	9.672436E-1	9.884095E-1	9.881795E-1	1.023536E+0	9.636087E-1	1.008433E+0	9.634180E-1	9.867999E-1	9.584580E-1	9.550550E-1	9.688482E-1	9.811227E-1	1.005634E+0	9.948652E-1	1.028750E+0	9.724291E-1	9.435070E-1	9.559656E-1	1.038632E+0	1.008680E+0	9.780568E-1	9.992692E-1	9.236177E-1	9.891695E-1	9.704197E-1	1.016941E+0	9.841805E-1	9.915904E-1	9.988215E-1	9.996672E-1	1.000338E+0	9.646784E-1	1.006635E+0	1.006635E+0	9.762442E-1	9.797716E-1	9.591091E-1	9.741927E-1	1.031801E+0	1.036126E+0	9.937163E-1	9.764789E-1	9.771361E-1	9.887470E-1	1.003016E+0	1.022057E+0	1.001187E+0	9.411278E-1	9.794200E-1	9.902490E-1	9.613326E-1	1.009382E+0	9.990764E-1	9.976429E-1	1.003801E+0	9.851328E-1	9.638532E-1	9.918109E-1	9.879274E-1	1.005437E+0	9.779893E-1	1.039091E+0	1.005863E+0	9.305212E-1	9.734625E-1	9.892915E-1	9.515726E-1	9.530994E-1	9.657840E-1	9.845546E-1	1.000498E+0	9.637094E-1	1.003916E+0	9.958881E-1	9.643876E-1	9.650639E-1	9.569839E-1	9.819507E-1	9.851621E-1	1.002760E+0	9.722446E-1	9.941809E-1	9.749205E-1	9.728273E-1	1.014045E+0	1.012509E+0	9.677007E-1	1.008827E+0	1.004828E+0	9.620087E-1	1.014740E+0	9.662873E-1	1.016672E+0	9.899702E-1	1.034965E+0	9.928619E-1	9.934798E-1	1.003440E+0	9.622175E-1	9.630012E-1	9.859091E-1	1.015543E+0	9.451243E-1	9.045433E-1
5.560130E+2	9.978044E-1	1.014761E+0	9.867145E-1	9.715350E-1	9.858806E-1	1.040955E+0	9.610889E-1	1.038289E+0	1.032646E+0	9.577021E-1	9.674965E-1	9.826443E-1	9.822644E-1	9.887095E-1	9.803904E-1	9.980757E-1	1.027565E+0	1.015971E+0	1.014064E+0	9.863944E-1	1.007924E+0	9.635671E-1	9.842720E-1	1.037463E+0	1.023929E+0	9.759728E-1	1.025319E+0	9.801559E-1	9.928556E-1	1.018433E+0	9.785354E-1	9.832477E-1	1.044194E+0	1.015051E+0	9.952400E-1	9.940927E-1	1.006989E+0	9.697682E-1	9.617760E-1	9.839114E-1	1.017438E+0	1.007077E+0	9.887174E-1	1.010660E+0	1.001300E+0	9.747248E-1	1.009278E+0	9.955024E-1	1.017482E+0	9.815889E-1	9.888739E-1	1.037914E+0	1.029214E+0	9.738389E-1	9.843516E-1	9.837212E-1	1.002890E+0	9.510422E-1	1.018371E+0	9.792069E-1	1.012626E+0	1.013436E+0	9.621134E-1	1.003403E+0	9.943304E-1	9.759973E-1	1.025139E+0	1.002587E+0	1.007621E+0	9.930121E-1	1.016586E+0	9.989764E-1	1.030008E+0	1.003901E+0	1.033030E+0	9.607626E-1	9.752689E-1	9.931153E-1	9.867425E-1	9.905863E-1	9.777190E-1	1.008907E+0	9.811592E-1	1.004695E+0	9.723044E-1	9.405413E-1	1.021334E+0	9.770967E-1	1.021034E+0	9.904768E-1	9.998473E-1	9.853615E-1	1.018463E+0	9.911315E-1	1.004507E+0	9.689447E-1	1.030178E+0	9.977385E-1	9.658319E-1	1.043267E+0	1.062535E+0	9.715697E-1	1.014021E+0	1.009067E+0	9.577069E-1	9.658386E-1	9.935563E-1	9.910258E-1	1.027247E+0	1.021120E+0	9.467140E-1	9.976309E-1	1.029016E+0	9.966233E-1	9.588434E-1	9.693042E-1	1.006612E+0	9.599469E-1	9.955424E-1	9.788193E-1	1.005706E+0	9.822921E-1	9.617708E-1	9.494952E-1	1.006221E+0	9.713499E-1	9.875696E-1	9.632545E-1	1.002768E+0	9.662660E-1	9.706406E-1	1.050418E+0	9.648141E-1	1.005700E+0	9.695264E-1	9.960395E-1	9.684853E-1	9.434106E-1	1.016656E+0	1.002990E+0	1.025583E+0	9.888863E-1	9.966166E-1	9.965011E-1	9.466817E-1	9.825803E-1	1.010252E+0	9.712290E-1	9.936256E-1	1.016594E+0	1.023640E+0	9.616070E-1	1.077776E+0	9.856740E-1	1.035195E+0	9.977179E-1	9.683993E-1	9.992245E-1	1.009003E+0	9.809105E-1	1.029727E+0	1.003606E+0	9.965332E-1	9.839849E-1	9.829986E-1	9.842604E-1	1.003852E+0	9.716807E-1	1.006959E+0	1.061563E+0	8.909066E-1
5.565140E+2	9.484454E-1	1.016874E+0	9.598107E-1	9.684916E-1	1.003309E+0	9.671449E-1	9.897992E-1	9.613527E-1	9.619496E-1	9.695880E-1	9.966433E-1	9.487783E-1	9.838468E-1	9.731476E-1	9.917703E-1	9.546039E-1	9.819054E-1	9.879437E-1	9.795228E-1	9.821387E-1	9.772492E-1	9.225084E-1	9.545606E-1	9.792069E-1	9.640750E-1	9.604116E-1	9.527206E-1	9.730229E-1	9.731704E-1	9.615747E-1	9.404492E-1	9.419539E-1	9.685197E-1	9.476090E-1	9.785225E-1	9.687352E-1	9.841397E-1	9.650383E-1	1.001822E+0	9.769026E-1	9.648691E-1	9.582507E-1	9.847920E-1	9.847763E-1	9.293436E-1	9.763707E-1	9.384542E-1	9.838746E-1	1.006029E+0	9.947169E-1	9.570548E-1	9.746385E-1	9.975673E-1	9.378493E-1	9.555345E-1	9.513163E-1	9.940613E-1	9.611714E-1	9.879202E-1	9.656707E-1	9.511877E-1	9.973985E-1	9.726556E-1	9.792546E-1	1.050020E+0	9.461989E-1	9.581375E-1	9.579152E-1	9.910413E-1	9.994987E-1	9.872802E-1	9.984684E-1	9.795508E-1	9.398409E-1	9.532352E-1	9.843755E-1	9.915295E-1	9.584886E-1	9.929193E-1	9.750021E-1	9.618274E-1	9.647543E-1	9.408986E-1	9.842586E-1	9.841797E-1	9.471659E-1	9.381881E-1	9.551154E-1	9.668338E-1	9.571141E-1	9.680558E-1	1.008712E+0	9.507479E-1	9.637201E-1	9.899753E-1	9.450604E-1	9.748293E-1	9.722393E-1	9.674366E-1	9.614676E-1	9.636843E-1	9.559961E-1	9.996533E-1	9.393602E-1	9.546048E-1	9.720863E-1	9.847795E-1	9.550862E-1	9.742761E-1	9.882202E-1	9.869714E-1	9.874929E-1	9.895153E-1	9.805533E-1	9.583447E-1	9.669635E-1	9.938980E-1	9.509524E-1	9.704775E-1	9.911600E-1	9.813538E-1	9.876456E-1	9.630154E-1	1.002435E+0	9.382664E-1	9.487678E-1	9.538583E-1	9.960035E-1	9.984363E-1	9.540017E-1	9.820271E-1	9.897678E-1	9.638636E-1	9.873505E-1	9.902629E-1	9.807735E-1	9.660532E-1	9.483391E-1	9.203282E-1	9.559333E-1	9.989265E-1	9.636731E-1	9.574733E-1	9.922099E-1	9.614261E-1	9.762624E-1	9.656326E-1	9.766810E-1	9.657439E-1	9.559005E-1	9.406062E-1	9.856676E-1	9.540902E-1	9.585936E-1	9.771398E-1	1.003958E+0	9.674826E-1	9.667688E-1	9.601101E-1	1.008417E+0	9.808136E-1	9.795580E-1	9.764266E-1	9.340489E-1	1.037522E+0	9.428662E-1	9.616854E-1	9.865153E-1	9.340757E-1	1.022533E+0	9.268391E-1
5.570440E+2	9.757435E-1	9.350147E-1	9.887378E-1	1.010256E+0	1.014087E+0	9.735880E-1	1.039467E+0	1.005840E+0	9.951315E-1	1.004493E+0	9.696735E-1	9.479925E-1	9.727939E-1	9.932795E-1	9.859184E-1	9.938361E-1	1.000968E+0	9.957709E-1	9.984183E-1	1.041386E+0	9.947076E-1	1.005756E+0	1.002362E+0	9.917919E-1	1.000422E+0	9.629902E-1	9.914687E-1	9.749080E-1	1.026029E+0	1.013588E+0	1.032670E+0	1.043179E+0	1.010875E+0	1.005660E+0	1.042682E+0	1.008989E+0	9.856492E-1	9.672339E-1	9.883718E-1	9.962351E-1	1.033051E+0	1.017717E+0	9.423926E-1	1.004063E+0	9.760643E-1	1.017051E+0	1.041697E+0	9.871812E-1	1.003950E+0	9.931425E-1	1.000142E+0	9.675593E-1	1.044939E+0	9.961867E-1	1.012779E+0	1.000106E+0	1.010413E+0	1.024687E+0	1.009213E+0	9.654115E-1	9.972102E-1	1.001884E+0	1.002289E+0	1.011195E+0	1.009187E+0	1.012126E+0	1.023268E+0	1.000563E+0	9.907939E-1	1.016332E+0	9.801562E-1	9.891701E-1	9.872746E-1	9.950860E-1	9.817528E-1	9.877146E-1	1.029496E+0	1.025154E+0	9.978733E-1	9.905669E-1	1.028394E+0	9.998787E-1	9.762359E-1	9.915597E-1	9.812355E-1	9.725069E-1	1.038202E+0	1.012303E+0	9.911632E-1	1.043168E+0	1.014350E+0	9.995648E-1	9.716853E-1	1.009156E+0	9.837420E-1	9.918343E-1	1.037087E+0	9.900124E-1	9.449264E-1	9.612100E-1	9.630480E-1	9.862934E-1	9.740989E-1	9.662132E-1	1.026773E+0	9.984667E-1	1.011169E+0	1.032704E+0	1.011358E+0	9.944953E-1	9.767841E-1	9.771540E-1	1.007978E+0	9.750696E-1	1.002255E+0	9.969524E-1	1.000342E+0	9.796084E-1	1.023925E+0	9.651518E-1	1.023447E+0	1.011174E+0	1.038856E+0	9.902213E-1	1.028131E+0	1.005874E+0	1.005933E+0	9.919638E-1	9.951023E-1	1.005643E+0	1.005227E+0	1.035962E+0	1.037741E+0	9.948717E-1	9.714997E-1	9.679454E-1	9.570319E-1	9.806642E-1	9.885882E-1	1.017169E+0	1.021449E+0	9.648788E-1	1.005033E+0	1.009712E+0	1.001936E+0	1.023169E+0	1.042670E+0	1.038756E+0	1.000932E+0	9.974451E-1	1.039102E+0	1.013166E+0	9.898174E-1	1.003470E+0	9.952448E-1	9.992299E-1	9.947805E-1	9.665975E-1	9.770193E-1	9.756041E-1	1.016932E+0	9.875963E-1	9.808635E-1	1.039037E+0	1.012595E+0	9.674558E-1	9.754998E-1	1.027083E+0	9.881869E-1	9.755849E-1	9.376177E-1
5.575580E+2	9.971455E-1	1.014011E+0	1.001010E+0	9.876698E-1	9.805116E-1	9.541840E-1	9.480807E-1	1.023158E+0	1.009873E+0	9.847247E-1	1.002283E+0	1.026034E+0	9.983216E-1	9.883136E-1	1.023769E+0	1.025381E+0	9.822300E-1	9.972056E-1	1.004645E+0	9.976763E-1	1.005114E+0	9.707596E-1	1.001145E+0	9.788102E-1	1.003463E+0	1.017453E+0	1.003984E+0	9.899687E-1	9.872562E-1	9.954412E-1	1.027473E+0	1.007404E+0	9.900511E-1	9.842342E-1	9.975093E-1	9.889912E-1	1.006824E+0	1.000962E+0	9.590882E-1	1.021870E+0	9.547646E-1	9.938658E-1	9.919414E-1	9.691579E-1	1.039280E+0	9.796252E-1	9.927126E-1	9.691634E-1	1.025144E+0	9.677933E-1	9.929565E-1	1.020084E+0	9.994310E-1	1.013277E+0	9.813644E-1	9.891956E-1	1.031899E+0	9.659416E-1	1.014903E+0	9.893984E-1	9.993964E-1	1.008868E+0	1.010533E+0	9.583760E-1	9.677249E-1	1.013430E+0	1.034124E+0	9.915364E-1	1.020247E+0	1.020588E+0	1.031299E+0	9.840490E-1	9.674706E-1	1.024302E+0	1.025602E+0	9.841657E-1	1.002385E+0	9.946232E-1	9.840292E-1	9.819871E-1	1.022190E+0	1.017772E+0	1.033836E+0	9.611647E-1	9.765758E-1	1.016634E+0	9.732259E-1	9.649161E-1	1.012384E+0	9.707764E-1	1.002697E+0	9.496137E-1	1.032978E+0	1.003121E+0	9.820445E-1	1.017232E+0	1.035965E+0	1.003994E+0	1.002030E+0	1.005889E+0	1.011334E+0	9.732209E-1	1.008078E+0	1.001814E+0	1.008560E+0	9.781170E-1	9.534447E-1	9.642809E-1	1.029184E+0	9.695629E-1	9.819207E-1	9.663014E-1	1.005496E+0	9.680753E-1	9.637300E-1	1.011575E+0	1.030427E+0	9.952473E-1	9.897698E-1	9.808375E-1	1.004747E+0	9.655302E-1	9.968966E-1	9.819571E-1	1.002564E+0	1.022885E+0	1.017538E+0	1.002809E+0	9.938169E-1	1.041665E+0	1.039470E+0	9.881203E-1	9.778977E-1	9.948161E-1	1.021735E+0	1.001544E+0	9.795281E-1	9.889349E-1	1.012459E+0	1.019650E+0	9.610594E-1	1.020507E+0	9.983141E-1	9.829513E-1	1.018630E+0	1.006819E+0	1.021752E+0	1.014070E+0	1.047967E+0	9.746051E-1	9.860195E-1	9.981686E-1	1.013252E+0	9.951458E-1	9.856801E-1	9.944074E-1	9.889019E-1	9.837512E-1	1.008902E+0	9.812687E-1	9.673761E-1	1.001488E+0	9.572268E-1	9.645931E-1	9.775750E-1	9.859643E-1	1.017172E+0	9.631976E-1	1.048462E+0	1.022445E+0	9.975371E-1
5.580170E+2	9.767946E-1	9.847244E-1	9.913721E-1	9.982436E-1	9.690790E-1	9.565259E-1	9.942858E-1	9.384396E-1	9.611195E-1	9.847083E-1	9.492196E-1	1.032164E+0	9.735836E-1	9.773101E-1	9.715069E-1	9.904714E-1	9.999622E-1	9.926984E-1	9.722904E-1	9.482531E-1	9.841403E-1	9.760151E-1	9.749826E-1	1.032684E+0	9.518006E-1	9.643219E-1	9.763510E-1	9.753508E-1	9.750214E-1	9.855604E-1	9.699491E-1	9.929414E-1	9.722496E-1	9.866027E-1	9.465815E-1	9.871626E-1	9.816794E-1	9.545262E-1	9.857604E-1	9.850522E-1	9.741999E-1	9.934473E-1	9.712133E-1	9.946459E-1	9.325108E-1	9.786549E-1	9.817492E-1	9.911671E-1	9.644142E-1	9.930268E-1	9.665648E-1	9.870837E-1	9.705067E-1	9.572498E-1	9.500350E-1	1.024931E+0	9.574678E-1	9.675557E-1	9.729818E-1	9.902455E-1	1.006986E+0	9.898619E-1	9.757474E-1	9.900756E-1	9.787811E-1	9.928635E-1	9.718422E-1	9.924506E-1	9.579388E-1	9.730988E-1	9.878289E-1	9.792765E-1	1.016433E+0	9.787535E-1	9.564127E-1	9.692280E-1	9.756531E-1	9.717215E-1	9.805542E-1	9.899951E-1	9.553643E-1	9.797750E-1	9.957138E-1	9.880201E-1	9.822691E-1	1.038723E+0	9.570130E-1	9.716664E-1	9.931641E-1	9.630673E-1	9.688795E-1	9.645736E-1	9.697292E-1	9.733621E-1	9.639641E-1	9.705428E-1	1.001642E+0	9.916201E-1	9.698761E-1	9.541487E-1	9.437703E-1	1.001364E+0	9.459182E-1	9.897664E-1	1.005875E+0	9.909072E-1	9.315419E-1	1.009031E+0	9.644519E-1	9.651553E-1	9.703895E-1	9.790563E-1	9.443318E-1	9.806659E-1	9.944590E-1	9.757883E-1	9.583703E-1	9.752482E-1	9.310814E-1	1.011939E+0	9.956709E-1	9.856356E-1	1.025604E+0	9.256756E-1	1.012465E+0	9.665541E-1	9.539319E-1	1.007916E+0	9.662919E-1	9.735756E-1	9.460746E-1	1.020336E+0	9.739958E-1	1.006819E+0	9.604268E-1	9.648836E-1	1.013956E+0	1.020961E+0	9.992927E-1	9.890351E-1	9.677424E-1	9.985504E-1	1.013029E+0	9.494749E-1	9.614068E-1	9.664719E-1	9.893269E-1	9.721793E-1	1.016130E+0	9.557840E-1	9.798723E-1	9.634365E-1	1.040224E+0	9.766466E-1	9.815935E-1	9.750992E-1	9.925012E-1	9.769165E-1	9.893219E-1	9.634080E-1	9.713571E-1	9.145345E-1	9.545741E-1	9.917722E-1	1.021117E+0	9.675684E-1	1.001250E+0	9.955818E-1	9.826761E-1	9.331555E-1	1.042453E+0
5.585160E+2	1.018369E+0	9.882803E-1	1.023933E+0	9.982904E-1	1.028943E+0	1.056219E+0	9.972991E-1	1.057371E+0	1.055298E+0	9.809536E-1	9.741915E-1	1.006078E+0	1.053723E+0	1.024132E+0	1.007922E+0	9.943646E-1	1.038201E+0	9.912366E-1	1.049824E+0	1.012792E+0	9.998038E-1	1.012148E+0	1.053501E+0	9.903144E-1	1.034629E+0	1.002376E+0	1.026102E+0	1.046741E+0	1.018603E+0	1.013636E+0	1.035281E+0	9.837154E-1	1.025821E+0	1.015697E+0	9.787655E-1	1.016072E+0	1.043114E+0	1.040474E+0	1.024322E+0	1.026634E+0	1.001133E+0	1.002233E+0	1.035478E+0	1.014747E+0	1.073912E+0	1.008416E+0	9.995602E-1	1.042283E+0	1.021265E+0	1.010514E+0	1.015762E+0	1.029552E+0	9.829064E-1	9.775815E-1	9.940256E-1	9.894182E-1	9.739431E-1	1.026969E+0	1.012100E+0	1.013879E+0	9.967778E-1	1.013497E+0	9.973624E-1	1.011837E+0	1.041195E+0	1.025773E+0	9.894692E-1	1.030654E+0	1.019315E+0	1.005843E+0	9.848727E-1	1.012925E+0	9.728526E-1	1.042991E+0	1.030088E+0	9.980544E-1	1.022452E+0	1.026923E+0	1.005503E+0	1.026843E+0	9.998051E-1	1.013551E+0	1.010989E+0	1.033270E+0	1.007396E+0	1.002962E+0	1.037119E+0	1.054225E+0	1.015837E+0	9.788803E-1	1.022943E+0	1.034428E+0	1.006512E+0	1.052591E+0	1.026218E+0	1.026622E+0	1.028901E+0	1.008142E+0	1.061640E+0	1.026843E+0	9.998875E-1	1.054138E+0	1.025149E+0	1.012994E+0	9.984154E-1	1.037918E+0	1.013412E+0	1.003350E+0	1.027154E+0	1.015078E+0	1.012378E+0	1.003550E+0	1.027751E+0	1.029458E+0	9.953795E-1	9.753398E-1	1.029991E+0	1.038423E+0	1.013633E+0	1.011520E+0	1.011035E+0	1.014264E+0	9.935026E-1	1.031886E+0	1.000533E+0	1.025983E+0	1.033138E+0	1.028229E+0	1.023977E+0	1.031134E+0	9.818337E-1	1.001395E+0	9.946382E-1	1.001298E+0	1.000105E+0	1.026839E+0	1.018921E+0	1.035591E+0	9.973229E-1	1.014283E+0	9.930819E-1	1.040856E+0	9.971308E-1	1.016919E+0	1.031102E+0	9.908832E-1	9.749348E-1	1.033549E+0	1.004733E+0	1.030485E+0	1.026831E+0	9.852251E-1	1.026827E+0	1.023001E+0	9.946354E-1	1.013290E+0	1.030209E+0	1.003601E+0	9.959221E-1	1.003813E+0	1.015073E+0	1.009053E+0	1.025550E+0	1.028857E+0	1.040977E+0	1.014438E+0	1.010427E+0	1.010084E+0	1.059674E+0	9.969035E-1	1.096009E+0
5.590100E+2	1.033981E+0	1.012834E+0	1.040466E+0	1.035414E+0	1.026450E+0	1.045134E+0	1.012982E+0	9.998632E-1	1.017104E+0	1.033044E+0	1.021829E+0	1.007165E+0	1.040370E+0	1.040712E+0	1.048696E+0	9.666344E-1	1.056401E+0	1.030694E+0	9.982791E-1	1.048400E+0	1.020069E+0	1.015786E+0	1.025588E+0	1.040021E+0	1.025671E+0	1.058609E+0	1.015106E+0	1.003246E+0	1.026254E+0	9.838793E-1	1.034109E+0	1.010004E+0	9.838633E-1	1.020665E+0	1.002407E+0	1.032357E+0	1.004207E+0	1.018475E+0	1.000467E+0	1.051001E+0	1.053063E+0	9.901663E-1	1.082557E+0	1.038121E+0	1.010239E+0	9.990587E-1	1.022738E+0	1.033994E+0	1.027169E+0	1.012267E+0	1.029573E+0	1.006827E+0	1.006956E+0	1.050919E+0	1.019414E+0	1.017773E+0	1.051642E+0	9.785242E-1	1.038910E+0	1.024939E+0	9.988955E-1	9.810854E-1	1.003073E+0	1.023022E+0	1.063554E+0	1.005529E+0	1.003490E+0	1.035766E+0	1.029504E+0	1.025583E+0	1.011995E+0	1.031222E+0	1.037408E+0	1.038454E+0	1.052932E+0	9.889753E-1	9.933835E-1	1.076694E+0	1.053720E+0	1.027689E+0	1.017770E+0	9.935562E-1	9.980666E-1	1.015859E+0	1.034423E+0	1.073760E+0	1.026605E+0	1.029855E+0	1.029067E+0	1.035992E+0	1.053113E+0	1.040335E+0	1.035822E+0	1.045074E+0	1.025169E+0	9.963714E-1	9.893902E-1	1.013977E+0	1.025892E+0	1.055517E+0	1.009131E+0	1.029497E+0	1.040422E+0	1.037954E+0	1.031818E+0	1.041039E+0	1.033123E+0	1.028240E+0	9.962417E-1	1.011081E+0	9.817121E-1	1.034124E+0	1.035808E+0	1.009250E+0	1.038887E+0	9.915093E-1	1.018679E+0	1.044936E+0	1.025118E+0	1.052842E+0	9.849826E-1	1.031043E+0	9.843752E-1	9.859981E-1	9.793186E-1	1.014308E+0	1.027850E+0	1.042713E+0	9.895689E-1	1.008243E+0	1.022181E+0	9.953481E-1	1.019859E+0	1.031290E+0	1.038052E+0	1.043007E+0	1.016971E+0	1.034468E+0	1.005646E+0	1.026812E+0	1.042504E+0	1.043153E+0	9.987180E-1	1.041891E+0	1.009120E+0	1.008610E+0	1.048634E+0	9.874551E-1	1.016632E+0	1.047542E+0	1.014953E+0	1.017783E+0	9.567382E-1	9.979427E-1	1.034149E+0	1.037338E+0	1.030199E+0	1.011364E+0	1.032531E+0	1.013146E+0	1.058232E+0	1.063448E+0	1.032295E+0	1.045763E+0	9.857962E-1	1.049635E+0	9.568443E-1	1.021011E+0	9.751504E-1	1.058448E+0	1.015284E+0
5.595110E+2	1.019576E+0	1.009854E+0	9.573760E-1	1.069162E+0	1.000284E+0	1.049136E+0	1.015409E+0	1.075259E+0	1.026018E+0	1.014207E+0	1.029728E+0	1.021498E+0	9.894268E-1	1.027557E+0	1.020891E+0	1.011479E+0	1.043831E+0	1.027005E+0	9.656938E-1	9.655166E-1	9.938384E-1	1.023873E+0	1.001525E+0	9.938575E-1	1.021432E+0	1.044230E+0	9.955330E-1	1.018971E+0	1.025975E+0	9.905970E-1	1.012845E+0	1.016447E+0	9.988853E-1	1.052946E+0	1.027493E+0	9.784071E-1	9.946095E-1	1.049480E+0	1.010444E+0	9.695272E-1	9.787122E-1	1.033053E+0	9.880284E-1	9.787029E-1	1.020707E+0	1.040553E+0	1.033926E+0	9.802977E-1	9.897753E-1	1.006685E+0	1.034505E+0	9.758046E-1	1.012530E+0	1.011351E+0	1.035490E+0	1.015047E+0	1.006614E+0	1.017016E+0	9.863721E-1	1.043379E+0	1.036641E+0	1.032147E+0	1.020363E+0	9.898180E-1	1.004360E+0	1.024201E+0	1.031968E+0	1.000317E+0	1.011294E+0	1.021498E+0	9.969997E-1	1.019252E+0	1.016394E+0	1.023833E+0	1.028429E+0	1.041249E+0	1.012832E+0	9.795617E-1	1.038329E+0	1.050506E+0	1.020244E+0	1.005663E+0	1.031129E+0	1.017632E+0	1.031594E+0	9.845828E-1	9.889848E-1	1.004260E+0	9.919576E-1	1.017311E+0	1.020774E+0	1.015848E+0	1.041763E+0	9.675999E-1	1.022057E+0	1.068123E+0	9.822425E-1	9.827056E-1	1.016394E+0	1.012706E+0	1.029905E+0	1.005717E+0	1.028410E+0	1.030420E+0	1.026490E+0	1.018305E+0	1.012983E+0	9.964352E-1	1.019193E+0	1.020805E+0	1.003072E+0	9.879596E-1	1.014270E+0	1.035964E+0	1.037446E+0	1.015181E+0	1.022856E+0	1.046959E+0	1.016262E+0	9.969212E-1	1.014253E+0	1.003490E+0	9.751631E-1	1.038268E+0	1.056194E+0	1.008909E+0	1.044671E+0	9.640675E-1	1.002015E+0	1.012204E+0	1.024677E+0	9.998065E-1	1.036720E+0	9.758971E-1	1.019522E+0	9.962701E-1	1.029239E+0	9.891007E-1	1.008201E+0	1.005634E+0	1.020403E+0	9.903382E-1	1.008916E+0	1.032022E+0	9.652621E-1	1.020651E+0	9.946908E-1	1.021035E+0	1.033011E+0	1.031061E+0	1.038103E+0	1.019779E+0	1.017996E+0	1.037728E+0	9.937942E-1	1.028839E+0	1.019448E+0	1.031671E+0	1.025023E+0	1.016018E+0	1.008826E+0	1.053747E+0	1.037454E+0	9.974691E-1	9.970304E-1	1.034398E+0	1.029400E+0	1.043846E+0	1.022450E+0	1.018594E+0	1.026088E+0
5.600240E+2	1.010870E+0	1.004741E+0	9.935575E-1	9.764709E-1	9.922233E-1	1.028833E+0	9.826627E-1	9.465906E-1	1.007708E+0	1.037470E+0	1.064872E+0	1.005291E+0	1.001081E+0	1.020914E+0	9.771547E-1	1.010926E+0	9.285874E-1	1.013841E+0	1.054482E+0	9.899298E-1	1.026340E+0	1.011831E+0	9.683613E-1	9.874288E-1	9.976364E-1	9.954771E-1	1.008498E+0	1.009124E+0	9.859620E-1	1.030318E+0	9.728915E-1	1.010849E+0	1.040988E+0	1.021132E+0	1.017847E+0	1.017722E+0	1.008861E+0	1.014795E+0	1.071242E+0	9.855770E-1	9.947778E-1	1.050370E+0	1.008333E+0	1.020296E+0	1.024314E+0	9.842199E-1	1.011393E+0	1.017923E+0	9.690102E-1	1.006199E+0	1.021913E+0	1.000562E+0	9.967455E-1	1.081499E+0	1.017246E+0	1.011927E+0	9.986194E-1	1.026526E+0	1.003859E+0	9.941533E-1	9.971331E-1	9.672353E-1	9.978017E-1	1.012700E+0	9.930223E-1	9.573125E-1	9.938277E-1	1.020770E+0	9.906494E-1	1.010855E+0	9.952521E-1	9.895441E-1	1.035243E+0	9.756211E-1	1.009127E+0	1.020733E+0	9.979134E-1	9.857502E-1	9.841021E-1	9.942784E-1	9.739450E-1	1.017530E+0	1.007147E+0	1.018228E+0	1.000940E+0	9.937614E-1	9.917123E-1	9.811590E-1	9.981578E-1	1.011820E+0	9.795561E-1	9.991343E-1	9.629403E-1	9.875113E-1	1.038862E+0	1.004483E+0	1.012603E+0	1.041042E+0	9.936300E-1	1.018213E+0	1.030772E+0	9.937662E-1	9.847217E-1	1.022389E+0	9.792043E-1	9.935787E-1	1.057589E+0	9.942043E-1	9.725724E-1	9.641620E-1	1.034600E+0	1.015985E+0	9.653098E-1	1.023529E+0	1.015112E+0	1.012803E+0	9.943253E-1	9.522250E-1	9.982714E-1	1.024348E+0	1.019019E+0	1.015332E+0	1.017014E+0	1.029842E+0	9.947257E-1	1.013445E+0	9.843342E-1	1.008326E+0	9.984561E-1	1.021173E+0	9.933485E-1	1.004914E+0	1.004415E+0	1.021048E+0	9.890784E-1	1.010017E+0	1.018544E+0	1.005772E+0	1.015098E+0	9.591742E-1	1.013319E+0	9.688852E-1	1.030926E+0	1.009317E+0	1.003847E+0	1.029401E+0	9.846624E-1	9.728254E-1	9.832661E-1	1.034932E+0	1.004976E+0	1.020844E+0	1.020558E+0	9.875461E-1	1.020588E+0	1.011078E+0	9.923623E-1	1.057124E+0	1.024387E+0	1.012216E+0	1.022055E+0	9.627029E-1	1.015253E+0	9.875630E-1	9.555380E-1	1.021353E+0	1.022870E+0	9.950142E-1	9.800550E-1	9.878794E-1	1.146260E+0
5.605040E+2	1.022156E+0	1.035288E+0	1.029721E+0	9.689854E-1	9.871308E-1	9.947239E-1	1.013948E+0	9.760548E-1	9.836522E-1	1.010778E+0	1.018821E+0	1.022595E+0	9.809442E-1	1.018103E+0	1.001045E+0	1.044529E+0	9.837049E-1	9.900525E-1	1.022826E+0	1.020670E+0	9.873916E-1	1.043015E+0	1.013719E+0	1.026581E+0	9.590258E-1	1.023120E+0	1.024740E+0	9.958512E-1	9.682747E-1	9.969851E-1	9.634289E-1	9.888607E-1	1.019524E+0	9.530348E-1	9.518329E-1	1.011128E+0	9.765618E-1	1.010190E+0	9.949152E-1	1.029274E+0	1.012649E+0	9.938870E-1	1.030336E+0	9.968022E-1	9.600816E-1	1.024093E+0	9.756619E-1	9.925008E-1	1.017730E+0	1.000550E+0	9.869008E-1	1.078999E+0	1.002603E+0	9.642774E-1	1.002900E+0	1.040886E+0	1.021347E+0	1.027239E+0	9.965985E-1	1.011439E+0	1.005877E+0	1.015941E+0	1.018209E+0	1.017337E+0	9.342282E-1	1.016144E+0	1.023630E+0	9.975124E-1	9.832510E-1	9.721509E-1	1.001169E+0	1.005387E+0	9.912502E-1	9.871374E-1	9.959387E-1	1.016921E+0	9.917496E-1	9.996707E-1	1.009658E+0	9.778412E-1	9.902704E-1	1.019920E+0	9.970495E-1	1.003483E+0	9.807185E-1	9.872951E-1	1.029064E+0	1.055238E+0	9.849491E-1	1.045791E+0	9.904400E-1	1.002092E+0	1.010933E+0	1.013075E+0	9.790410E-1	9.873697E-1	9.721933E-1	9.981587E-1	9.904888E-1	1.010514E+0	1.013949E+0	9.839177E-1	1.018166E+0	9.999886E-1	1.014179E+0	9.867613E-1	9.773025E-1	1.001785E+0	1.037840E+0	1.075166E+0	1.031559E+0	1.028028E+0	1.006937E+0	9.786439E-1	1.016430E+0	1.012840E+0	9.620195E-1	1.005183E+0	1.035490E+0	9.746059E-1	9.881302E-1	9.966609E-1	1.013054E+0	1.013353E+0	9.830461E-1	1.010915E+0	1.040234E+0	9.841054E-1	1.049164E+0	9.911302E-1	1.040789E+0	9.768908E-1	9.999219E-1	1.038543E+0	9.864292E-1	1.018664E+0	1.010220E+0	9.972471E-1	1.014890E+0	9.985351E-1	1.009128E+0	1.016638E+0	9.960452E-1	9.792948E-1	1.034512E+0	9.907586E-1	1.004846E+0	1.036086E+0	9.689225E-1	9.834622E-1	1.002155E+0	1.009519E+0	9.902302E-1	1.018310E+0	1.007041E+0	9.493007E-1	1.000935E+0	1.000939E+0	9.935958E-1	1.011868E+0	9.842786E-1	1.030346E+0	1.007544E+0	9.956525E-1	9.886176E-1	1.036108E+0	1.006097E+0	9.969170E-1	1.009892E+0	9.914272E-1	8.783909E-1
5.610640E+2	9.969186E-1	9.983801E-1	1.014016E+0	9.870165E-1	9.979822E-1	9.745126E-1	1.006066E+0	1.016072E+0	9.821466E-1	9.800328E-1	9.727391E-1	9.824040E-1	1.005909E+0	9.365310E-1	9.713266E-1	1.007776E+0	9.842095E-1	9.735523E-1	9.540181E-1	9.932369E-1	1.011346E+0	1.018308E+0	1.004255E+0	9.793043E-1	1.041845E+0	9.710112E-1	1.005497E+0	1.012817E+0	1.013455E+0	1.028421E+0	1.010904E+0	1.004646E+0	9.892224E-1	1.012419E+0	1.056360E+0	9.904366E-1	1.014355E+0	9.788265E-1	9.635668E-1	9.579268E-1	1.032780E+0	9.670109E-1	9.649280E-1	9.986875E-1	1.033547E+0	9.919572E-1	1.002108E+0	1.001615E+0	9.755142E-1	1.015106E+0	9.946276E-1	9.588899E-1	9.858137E-1	1.009809E+0	1.031212E+0	9.594014E-1	9.539930E-1	1.004369E+0	9.771413E-1	1.001484E+0	1.009896E+0	9.920827E-1	1.001967E+0	1.006385E+0	9.579270E-1	1.006423E+0	9.702430E-1	9.725166E-1	1.005965E+0	9.545540E-1	1.023147E+0	9.907065E-1	9.961225E-1	9.939800E-1	9.664836E-1	1.008584E+0	9.826061E-1	9.814129E-1	9.533120E-1	9.852911E-1	1.030190E+0	9.875989E-1	1.008934E+0	9.865254E-1	1.020668E+0	9.826101E-1	1.019886E+0	9.712633E-1	1.016487E+0	9.760796E-1	9.791933E-1	9.856983E-1	1.016889E+0	9.847898E-1	9.889274E-1	9.923619E-1	9.651477E-1	9.981094E-1	1.027686E+0	9.934912E-1	1.034519E+0	1.016090E+0	9.753834E-1	9.991010E-1	9.540816E-1	9.828215E-1	1.024656E+0	1.014883E+0	9.677282E-1	9.962739E-1	1.020613E+0	1.020349E+0	1.002602E+0	1.018790E+0	9.779569E-1	1.041046E+0	9.890923E-1	1.011217E+0	9.959712E-1	9.906749E-1	9.773617E-1	9.892254E-1	9.925194E-1	1.000364E+0	1.004756E+0	9.823583E-1	9.385119E-1	9.738672E-1	9.831711E-1	9.612297E-1	9.643720E-1	9.874597E-1	9.909478E-1	9.480662E-1	1.022890E+0	9.900564E-1	9.895366E-1	9.989208E-1	1.038173E+0	1.013775E+0	9.723866E-1	9.925204E-1	9.944143E-1	9.862084E-1	1.012758E+0	9.869738E-1	9.728507E-1	9.473635E-1	9.626629E-1	9.887837E-1	9.673803E-1	9.864117E-1	9.902686E-1	1.001617E+0	1.010134E+0	9.874608E-1	9.831802E-1	1.001268E+0	9.931868E-1	1.014240E+0	9.750561E-1	9.975274E-1	1.012815E+0	1.015245E+0	9.832322E-1	9.802135E-1	1.018754E+0	9.607496E-1	9.993789E-1	9.930296E-1	9.335210E-1
