Photon Energy (eV)	#1	#2	#3	#4	#5	#6	#7	#8	#9	#10	#11	#12	#13	#14	#15	#16	#17	#18	#19	#20	#21	#22	#23	#24	#25	#26	#27	#28	#29	#30	#31	#32	#33	#34	#35	#36	#37	#38	#39	#40	#41	#42	#43	#44	#45	#46	#47	#48	#49	#50	#51	#52	#53	#54	#55	#56	#57	#58	#59	#60	#61	#62	#63	#64	#65	#66	#67	#68	#69	#70	#71	#72	#73	#74	#75	#76	#77	#78	#79	#80	#81	#82	#83	#84	#85	#86	#87	#88	#89	#90	#91	#92	#93	#94	#95	#96	#97	#98	#99	#100	#101	#102	#103	#104	#105	#106	#107	#108	#109	#110	#111	#112	#113	#114	#115	#116	#117	#118	#119	#120	#121	#122	#123	#124	#125	#126	#127	#128	#129	#130	#131	#132	#133	#134	#135	#136	#137	#138	#139	#140	#141	#142	#143	#144	#145	#146	#147	#148	#149	#150	#151	#152	#153	#154	#155	#156	#157	#158	#159	#160	#161	#162	#163	#164	#165	#166	#167	#168	#169	#170	#171	#172	
5.300370E+2	-4.946957E-3	-5.289820E-3	7.523316E-4	-9.103601E-2	-8.073461E-3	-2.911087E-3	-6.095802E-3	-1.071853E-2	-5.147152E-3	-4.333447E-3	5.736522E-4	-2.865911E-3	-3.114145E-3	-1.751146E-3	-1.551047E-3	-1.166326E-3	-1.397763E-2	-9.371782E-3	-1.330768E-2	4.230939E-4	-7.042119E-3	-5.037846E-3	-7.003184E-3	-3.498238E-3	-6.653528E-3	-2.847377E-3	-7.798591E-3	-4.096528E-3	-8.216015E-3	-7.442540E-3	-4.898104E-3	-1.533615E-3	-1.186410E-2	-3.963244E-3	-7.766184E-3	2.845320E-3	-4.021031E-3	-3.740054E-3	2.991689E-3	-4.273332E-3	-1.231854E-2	-8.379083E-3	-7.363209E-3	-5.925844E-3	-5.572773E-3	-1.748772E-3	-9.146242E-3	-7.488755E-3	-7.881427E-3	1.419524E-3	-1.125011E-2	-7.164982E-3	-1.125359E-2	-2.762711E-3	-2.564245E-3	-4.801127E-3	-7.342196E-3	-1.249510E-2	-3.165568E-3	-8.667235E-4	4.586651E-4	-7.273324E-3	-2.038078E-3	-1.065254E-2	-6.672432E-3	-7.899623E-3	-9.197920E-3	-4.253056E-3	-1.251788E-2	-7.015594E-3	-1.017833E-2	-4.326100E-3	-3.557659E-3	-5.560362E-4	4.689012E-3	-2.720502E-3	4.045060E-3	2.402943E-4	-7.619307E-3	2.444837E-4	-8.469246E-3	3.102382E-3	3.256952E-3	-1.715529E-4	-1.012667E-2	-3.351072E-3	-8.440411E-3	-1.014899E-2	1.848140E-3	-6.634541E-3	-8.686892E-3	-1.213726E-2	-4.677241E-4	-6.394873E-3	-8.274525E-3	-6.961792E-3	-6.575063E-3	-3.541273E-3	-7.619923E-3	-1.131767E-2	-6.410695E-3	-6.220440E-3	-1.068932E-2	-1.016326E-2	-5.526382E-3	-4.153364E-3	-2.413126E-3	-1.048726E-2	-3.962722E-3	-3.320353E-3	-1.240544E-2	-5.979354E-5	-9.703619E-3	-1.466546E-2	-1.065614E-2	-4.341212E-3	1.796001E-3	-2.210880E-3	-2.659773E-3	-1.233550E-2	-8.367393E-3	-7.656943E-3	-3.404418E-3	-6.493588E-3	-5.255264E-3	-5.413625E-3	-5.246044E-3	-3.133373E-3	-1.099053E-2	-9.619718E-3	-1.373188E-2	-4.269679E-4	-4.018997E-4	-9.518468E-3	-7.760651E-3	-1.170337E-2	1.276767E-2	-8.464444E-3	-3.720872E-3	-9.547819E-3	-6.690764E-3	-8.409140E-3	-9.881625E-3	-3.966838E-3	2.185929E-4	-9.659143E-3	-1.059723E-2	-5.642028E-3	-1.429109E-3	1.785106E-3	-6.248301E-3	-1.257398E-2	-3.458094E-3	1.319933E-3	-6.623407E-3	-6.815085E-3	-7.512475E-3	-2.393717E-3	-6.087521E-3	-7.511059E-3	-6.255737E-3	2.243252E-4	-1.304780E-3	-3.532276E-3	-7.133523E-3	-4.104507E-3	-2.663788E-3	-6.159165E-3	3.555209E-3	-7.428224E-3	-2.670014E-2	-1.349864E-3
5.305180E+2	1.411224E-3	-8.701860E-3	2.630076E-4	-4.214166E-2	5.202883E-3	-7.683473E-3	-3.394399E-3	-5.404459E-3	-4.476362E-3	-5.872716E-3	-6.667964E-3	-3.412279E-3	-7.647744E-3	-6.990378E-3	-5.595605E-4	-7.649087E-3	-7.834536E-3	-8.134339E-3	-3.809583E-3	-7.679718E-3	1.056562E-2	-8.133747E-3	1.547337E-5	-5.188595E-3	-4.767931E-3	-4.487127E-3	-3.142802E-3	-3.406126E-4	-3.103186E-3	-1.169429E-3	-1.042436E-2	-4.793947E-3	-1.548462E-3	-4.445092E-3	-5.961443E-3	-6.337514E-4	2.188758E-3	-4.676099E-5	-1.543557E-3	3.982888E-3	-1.656284E-3	-3.178245E-5	-7.253284E-3	5.752807E-3	-9.342487E-3	-1.203267E-3	-3.363038E-3	1.832417E-3	-5.496671E-3	-4.894857E-3	-3.882632E-3	1.155593E-3	-4.622369E-3	1.967610E-3	-7.967111E-3	-9.666436E-3	-4.281845E-3	-3.544668E-3	-6.810928E-3	-9.852465E-3	-2.610968E-3	-3.944818E-4	1.358571E-3	-1.603154E-3	-5.717585E-4	-6.759831E-4	-6.812781E-3	-1.025393E-4	-4.772255E-3	-3.259967E-3	-3.836611E-3	-2.285927E-3	-9.244541E-3	-1.000950E-3	-8.504764E-3	-3.833383E-3	-6.702130E-3	-3.095505E-3	-3.991134E-4	4.354135E-3	-3.721136E-3	-4.578640E-3	-6.132552E-3	-3.182206E-3	-4.160804E-4	-9.236266E-3	-3.775128E-3	-4.928156E-3	-7.075055E-3	-1.275660E-3	-7.513294E-3	-3.298493E-3	-2.216748E-3	-8.948655E-3	-1.073018E-2	1.874529E-3	-3.062733E-3	-7.556354E-3	2.230497E-3	-5.160676E-3	-4.192999E-3	-5.621998E-3	-7.677193E-3	-1.401722E-4	1.811204E-3	1.487102E-5	-1.106042E-2	4.106245E-3	-2.449000E-3	-4.096613E-3	-1.105009E-2	-4.672625E-3	-5.796013E-3	1.522981E-3	-6.545821E-3	-3.575142E-3	-3.441877E-3	8.509850E-4	1.631245E-3	-8.313449E-3	-1.805503E-4	1.048649E-3	-5.418963E-3	4.254849E-3	-2.322770E-3	-1.608364E-3	-8.150655E-3	-1.525620E-3	-1.915520E-3	8.490857E-3	5.179788E-3	-9.322453E-4	-1.339780E-3	-4.872312E-3	5.590909E-3	-3.327041E-3	-1.610803E-2	-3.464031E-3	-1.897286E-3	-4.364421E-4	-7.215029E-4	-1.516005E-3	-6.508318E-3	-4.869024E-3	-7.729728E-3	1.561593E-3	-6.224791E-3	9.849475E-3	-5.091498E-3	-1.029466E-3	4.087535E-3	-5.509629E-3	-1.409708E-2	-2.184312E-3	3.898482E-3	5.918776E-4	-5.086760E-3	1.828505E-3	-7.265829E-3	-4.741596E-3	-6.136474E-3	-1.254229E-2	-7.118452E-3	-1.331525E-3	-6.405823E-3	-1.460726E-3	-1.224835E-2	2.444972E-4	-8.509274E-3	-1.080014E-3	-5.536379E-3	4.597652E-3
5.310350E+2	-1.620698E-3	-6.837199E-3	-1.053178E-2	3.257121E-2	6.308375E-3	-2.450127E-4	-5.892933E-3	-7.103226E-5	2.518077E-3	-3.630824E-3	-9.157278E-4	8.405787E-3	9.626616E-5	-8.948061E-3	3.493200E-3	-9.030072E-4	-5.947908E-3	-1.298493E-5	2.675472E-3	-6.103602E-4	-7.344549E-3	3.437998E-3	-6.799689E-3	-3.241696E-3	1.279317E-3	-4.383341E-3	-3.591315E-3	8.900622E-3	-4.933576E-5	-1.477937E-3	1.423639E-3	-1.264145E-3	8.427558E-4	2.460972E-3	-1.284331E-3	-7.464004E-3	-6.627972E-3	-3.503861E-3	-1.033844E-2	1.253680E-3	-3.426206E-3	-4.218141E-4	4.948053E-3	-8.918425E-3	6.385115E-3	6.393370E-4	-6.107575E-4	-2.363579E-3	3.470178E-4	-4.234742E-3	-6.019853E-3	3.725316E-3	2.042307E-3	-9.497332E-3	9.703466E-3	4.591934E-3	-1.200278E-3	-9.212646E-5	-1.331479E-3	1.207607E-3	-1.555358E-3	-4.903481E-3	-3.434596E-3	-3.350500E-4	-4.653534E-3	5.441529E-4	-2.120805E-3	2.083665E-3	5.578718E-3	-3.940819E-4	-3.226494E-3	-4.063407E-3	4.418404E-3	2.131097E-4	-2.844558E-3	-4.942278E-3	-2.998851E-5	-4.711935E-3	-7.366310E-3	-1.042361E-2	4.804664E-4	-8.778905E-4	-3.656848E-3	-2.978911E-3	-9.428894E-3	4.934810E-3	-3.145844E-3	8.217270E-4	-1.807588E-3	-1.053822E-2	-4.198989E-3	-1.927501E-3	-3.498723E-3	-3.014934E-3	4.838871E-3	-7.299671E-3	2.178726E-3	1.393779E-3	4.800039E-3	6.546485E-3	-3.020127E-3	-2.638932E-3	-1.726043E-3	6.474495E-3	-7.135771E-3	-3.371745E-3	-8.030731E-3	5.604250E-3	9.380301E-4	-8.535331E-3	-1.377271E-3	-8.642576E-4	-6.126970E-4	-5.449180E-3	-9.307648E-3	3.816066E-3	3.696141E-3	9.919665E-4	-7.047657E-3	7.019113E-3	-4.764581E-3	-6.859873E-3	-5.268048E-3	-4.997795E-3	-5.472753E-3	-4.219073E-3	-1.480311E-3	-3.393041E-3	-2.454480E-3	-1.006791E-2	6.513291E-3	-2.705055E-3	-6.464195E-3	8.470778E-3	9.310459E-5	-4.586617E-3	1.449286E-3	3.537347E-4	-7.455058E-3	-1.694769E-3	2.360152E-3	-1.090456E-2	-2.671858E-4	1.470337E-3	-3.283232E-3	4.779925E-3	-4.282370E-3	-9.666016E-3	-2.255977E-3	-6.429686E-3	8.592962E-4	5.575935E-3	6.384259E-3	-8.736488E-3	6.376008E-4	-1.129012E-2	-5.427672E-3	3.802137E-3	-4.529416E-3	-1.425312E-3	4.982413E-4	-8.195786E-4	-2.839742E-3	-1.935229E-3	2.744896E-3	-2.354031E-3	2.507023E-3	-4.748325E-3	-4.640385E-3	-4.632356E-3	3.408597E-3	4.776175E-3
5.315130E+2	-7.822467E-3	-3.206726E-3	3.618569E-4	-9.061667E-2	-3.875751E-3	-4.543548E-3	5.683798E-3	6.454890E-3	-1.407209E-3	-2.495940E-3	-5.359873E-3	2.013682E-3	4.974018E-3	-3.841689E-3	-2.045324E-3	2.028767E-3	1.064913E-2	-4.561219E-4	-4.851048E-3	-1.043851E-3	-2.088975E-3	1.263893E-3	-2.976948E-3	-9.691284E-4	-3.415307E-4	-1.918577E-3	1.824425E-2	-4.271048E-3	1.777362E-3	1.745025E-3	2.548449E-4	-5.483233E-3	-1.038300E-2	-4.829688E-3	-2.886041E-3	1.744741E-4	-5.094835E-3	2.448468E-3	1.289441E-4	-1.194075E-3	3.564187E-3	-3.408042E-3	-2.782576E-3	1.457991E-3	4.496355E-4	-8.299117E-3	5.233308E-3	-7.726459E-5	4.492922E-3	-7.039046E-4	3.647936E-3	1.293702E-3	1.381524E-4	-2.439681E-3	-3.117017E-3	1.568602E-4	-5.246176E-3	2.816269E-3	5.252412E-3	-4.166399E-3	3.654847E-3	-9.940392E-5	-2.014221E-5	-2.112103E-4	-2.137598E-3	5.625324E-3	2.015723E-3	-1.846494E-3	-5.576915E-3	-2.103023E-3	4.614730E-3	2.302912E-3	-7.091420E-3	-2.983892E-3	6.744935E-3	-1.114707E-3	-9.538745E-3	6.735767E-3	1.572656E-3	1.181034E-3	-8.152031E-3	-1.373044E-3	-5.649600E-4	-3.404667E-4	6.444424E-3	-3.977086E-3	3.088726E-3	2.375628E-3	9.326752E-3	1.012189E-2	4.485399E-3	4.465698E-3	-5.737083E-3	2.549683E-4	6.781520E-4	-4.251764E-5	-2.280118E-3	-2.604949E-4	-1.159908E-2	-3.042117E-3	-7.667687E-3	3.586680E-4	2.794255E-3	4.653252E-3	-1.585409E-3	8.157414E-4	-2.492836E-4	4.332357E-3	3.871812E-3	6.687532E-3	1.693934E-3	-1.809093E-3	5.865664E-3	4.357051E-3	3.484556E-3	-6.042731E-3	-2.650158E-3	3.570050E-3	-2.745145E-3	-7.041902E-4	5.427234E-3	-3.316017E-3	-1.389262E-3	-9.590141E-3	-1.130176E-3	9.865379E-4	8.469259E-4	2.709067E-3	-4.130228E-4	-1.062032E-2	-6.836253E-4	-2.587905E-3	2.585976E-3	-7.165625E-3	-2.361690E-3	6.669846E-3	-7.499011E-3	2.928310E-3	5.190401E-3	-2.955376E-3	-5.286208E-3	-3.493167E-4	-6.167933E-4	5.429979E-5	-6.888965E-4	1.809498E-3	-4.881633E-4	-6.771079E-3	2.768599E-3	-3.804991E-3	-1.484405E-3	-1.269375E-3	1.441083E-3	-1.369402E-3	-4.440343E-3	-7.208830E-3	5.977620E-3	-5.178897E-3	4.779689E-3	-3.440758E-3	-4.757427E-3	-3.305128E-3	8.497466E-4	-5.360225E-3	4.593025E-5	-4.276740E-3	-1.746938E-3	1.086114E-2	2.080961E-3	-1.200469E-2	1.238318E-2	1.076253E-2
5.320020E+2	5.488095E-3	3.975330E-3	3.577677E-3	1.824951E-1	-3.308687E-4	2.448731E-3	3.731835E-3	1.183989E-4	-3.036318E-3	1.741630E-2	9.923460E-4	-1.155454E-2	4.278929E-3	4.625236E-3	2.024661E-3	8.385120E-4	2.871734E-3	1.121355E-2	5.360349E-3	-1.622853E-3	-2.431044E-3	4.678554E-4	3.959709E-4	3.241162E-3	2.779879E-3	4.092110E-3	-7.951255E-3	5.900944E-3	4.089674E-3	9.877354E-3	6.967530E-3	-2.863222E-3	9.669354E-3	-7.049801E-4	2.498009E-3	1.897942E-3	6.468481E-3	1.677428E-3	-6.610100E-4	-2.313057E-3	-1.307555E-3	5.011357E-3	-2.051789E-3	1.071732E-2	-1.515384E-3	1.334876E-3	4.091181E-3	6.460110E-5	6.211807E-3	2.377186E-5	2.729686E-3	-3.595918E-3	4.468946E-3	3.264913E-3	-6.559171E-4	1.350671E-3	2.681603E-3	-2.077236E-3	5.399626E-3	9.357603E-3	-4.944865E-3	3.046821E-3	-2.353550E-3	8.116133E-3	-2.423630E-3	-4.144255E-3	6.790032E-3	5.499006E-5	2.309161E-3	-6.586397E-3	9.012130E-4	-7.750423E-4	4.724440E-3	3.211998E-3	-3.813111E-4	8.542206E-4	6.941989E-4	-1.846904E-3	2.163858E-3	8.220555E-4	9.523461E-3	-3.078686E-3	-4.640244E-4	-2.334181E-4	7.098704E-3	1.180464E-2	6.757296E-4	-7.572169E-4	-7.426477E-3	2.027956E-3	5.180465E-3	-1.702127E-3	8.238638E-3	1.256580E-2	7.302861E-3	6.273455E-4	5.860691E-3	5.789174E-3	-5.369843E-3	8.715155E-3	8.920584E-3	4.339834E-3	9.303692E-3	-1.694655E-3	6.433183E-3	3.280945E-3	7.545286E-3	1.664825E-3	7.274713E-4	8.711134E-4	7.704529E-3	-2.757925E-3	1.553207E-3	5.751843E-3	9.407151E-3	1.002043E-2	1.314298E-3	-5.602727E-3	-3.099975E-3	3.373797E-3	-1.263413E-3	1.005253E-2	1.120433E-2	7.347573E-3	7.955045E-3	8.056863E-3	5.395858E-3	-1.650250E-3	4.272576E-3	1.278282E-2	-3.590022E-3	-5.584054E-4	-4.460758E-4	4.648016E-3	-2.733666E-3	-1.998735E-3	1.015136E-2	-4.385474E-5	-5.551783E-3	7.592765E-3	1.962480E-4	6.184023E-3	6.187660E-3	-3.451276E-3	-4.952524E-3	3.809878E-3	6.404625E-3	3.193585E-3	2.369951E-3	8.462838E-3	3.513667E-3	7.873619E-3	8.008785E-3	2.379414E-3	4.939756E-3	6.930513E-3	3.841824E-3	-7.799843E-3	7.569208E-3	-1.026872E-4	7.969847E-3	4.568440E-3	8.122326E-3	5.308318E-3	3.592698E-3	2.454066E-3	3.541380E-4	-2.188792E-3	-5.767445E-4	8.091683E-3	1.918786E-3	-6.544262E-3
5.325170E+2	7.490803E-3	2.006027E-2	5.576909E-3	8.728028E-3	7.688240E-4	1.293439E-2	5.967500E-3	9.620730E-3	1.154896E-2	-1.083372E-3	1.137757E-2	7.413256E-3	1.412675E-3	1.690604E-2	-1.361929E-3	6.851142E-3	1.423921E-2	6.761675E-3	1.393249E-2	1.053369E-2	8.341068E-3	8.001846E-3	1.636838E-2	9.656495E-3	7.703792E-3	9.544311E-3	4.239716E-3	-6.093377E-3	5.501502E-3	-1.532473E-3	6.676447E-3	1.593816E-2	1.328345E-2	1.148203E-2	1.539999E-2	3.180020E-3	7.086599E-3	3.164780E-3	9.422378E-3	2.543897E-3	1.514439E-2	7.229365E-3	1.450281E-2	-3.083847E-3	9.595894E-3	9.276942E-3	3.795548E-3	8.032581E-3	2.326351E-3	8.390208E-3	1.477498E-2	4.586288E-3	9.226553E-3	9.467201E-3	4.600825E-3	8.368098E-3	1.538889E-2	1.539286E-2	6.559357E-4	4.320378E-3	4.997680E-3	9.623869E-3	6.487797E-3	4.685818E-3	1.645895E-2	6.550385E-3	9.325750E-3	4.063434E-3	1.497917E-2	1.935906E-2	1.172549E-2	9.147564E-3	1.075078E-2	1.115772E-3	2.966852E-4	1.175665E-2	1.153160E-2	2.678283E-3	1.164822E-2	3.821901E-3	1.033849E-2	6.805878E-3	7.561433E-3	6.906555E-3	6.428518E-3	-1.750242E-4	1.159693E-2	1.263701E-2	5.134228E-3	6.298583E-3	1.073331E-2	1.459968E-2	3.681640E-3	5.537695E-3	6.184818E-3	1.180211E-2	3.878497E-3	4.175169E-3	1.755831E-2	4.258824E-3	1.237092E-2	9.782869E-3	7.994605E-3	8.703377E-4	6.003175E-3	3.413552E-3	1.420828E-2	-5.220416E-3	8.744086E-4	8.393652E-3	1.543433E-2	1.016369E-2	8.693458E-3	8.482763E-3	1.361791E-2	1.225860E-4	-7.144047E-4	2.400606E-3	1.392130E-2	1.096023E-2	9.148704E-3	6.731653E-3	4.276362E-3	9.479101E-3	6.225918E-3	2.197661E-3	8.634227E-3	6.993217E-3	1.150098E-2	9.034271E-3	6.312450E-3	7.210579E-3	6.065974E-3	8.437611E-3	7.171994E-3	1.494592E-2	-7.612705E-4	8.690285E-3	1.343460E-2	7.041642E-3	1.014207E-2	1.499499E-2	1.108626E-2	1.076250E-2	1.643579E-2	-2.301752E-3	1.518793E-2	9.036064E-3	3.638035E-3	1.016199E-3	-7.277923E-4	5.903433E-3	1.721048E-3	8.590853E-3	1.587911E-3	1.779165E-2	8.207462E-3	9.741816E-3	5.533870E-3	1.722141E-2	8.681549E-3	1.187424E-2	2.290902E-3	6.850937E-3	7.155821E-3	9.741937E-3	1.379792E-2	1.990642E-3	8.090234E-3	1.705360E-2	1.452595E-2	-1.224223E-2
5.330030E+2	1.267056E-2	1.607272E-2	7.444832E-3	-4.281479E-2	1.126292E-2	1.852502E-2	7.678944E-3	3.153095E-2	1.343376E-2	1.716532E-2	2.238170E-2	3.194618E-2	2.347964E-2	1.541263E-2	1.508037E-2	1.753313E-2	8.738311E-3	1.267822E-2	1.813455E-2	6.069819E-3	1.255417E-2	1.092940E-2	1.233258E-2	1.341222E-2	9.043359E-3	2.214005E-2	6.085463E-3	1.079791E-2	1.242914E-2	6.631765E-3	1.123201E-2	1.197601E-2	1.285346E-2	1.786679E-2	1.902273E-2	1.800063E-2	1.009437E-2	2.051580E-2	1.482052E-2	1.928470E-2	2.285819E-2	1.624216E-2	2.442397E-2	1.205132E-2	2.736001E-2	2.075427E-2	1.902733E-2	1.492265E-2	1.948171E-2	1.263461E-2	9.827019E-3	1.920776E-2	2.116207E-2	1.617907E-2	1.644002E-2	1.077261E-2	1.615544E-2	2.172573E-2	1.925390E-2	1.253809E-2	1.541578E-2	1.581516E-2	1.704936E-2	2.894052E-2	1.786538E-2	1.170515E-2	1.296489E-2	2.381507E-2	1.515064E-2	2.510939E-2	2.553182E-2	8.836055E-3	1.025677E-2	1.680740E-2	2.740967E-2	7.378398E-3	1.349735E-2	2.703317E-2	1.991384E-2	1.683505E-2	2.191549E-2	4.520117E-3	1.918173E-2	1.196144E-2	1.950009E-2	2.334787E-2	2.017216E-3	1.763704E-2	2.361161E-2	2.125961E-2	1.847216E-2	1.720499E-2	2.126737E-2	2.431854E-2	1.552169E-2	2.173204E-2	2.543062E-2	2.709506E-2	1.775932E-3	2.373303E-2	9.536486E-3	2.541875E-2	1.904516E-2	9.547471E-3	2.274848E-2	1.888106E-2	1.856470E-2	8.089414E-3	1.862753E-2	1.877879E-2	1.146065E-2	1.933743E-2	2.225588E-2	2.114881E-2	1.508342E-2	1.970856E-2	1.667765E-2	1.939099E-2	1.509380E-2	9.775347E-3	7.209664E-3	4.584598E-3	1.426610E-2	1.121926E-2	1.116714E-2	1.029803E-2	6.637155E-3	1.982006E-2	2.661053E-2	2.588265E-2	2.308864E-2	2.263789E-2	2.794931E-2	1.012028E-2	1.357864E-2	1.838090E-2	1.105387E-2	1.622623E-2	2.438078E-2	7.126014E-3	1.120200E-2	9.218821E-3	1.420728E-2	2.347891E-2	1.218240E-2	1.970526E-2	1.162367E-2	1.379079E-2	1.109515E-2	1.026945E-2	1.416298E-2	2.037197E-2	1.594056E-2	2.277839E-2	1.388788E-2	1.324092E-2	2.247122E-2	9.902596E-3	2.288665E-2	2.492988E-2	9.923287E-3	1.721173E-2	2.212080E-2	2.752796E-2	2.489414E-2	1.244442E-2	1.052531E-2	1.023087E-2	4.423952E-3	1.203367E-2	2.890292E-2	5.438047E-3
5.331520E+2	1.787403E-2	6.120883E-3	1.737175E-2	5.768689E-2	1.983125E-2	1.621399E-2	1.361858E-2	3.288535E-2	8.919280E-3	1.565161E-2	2.254187E-2	2.968716E-2	2.108447E-2	1.853992E-2	2.056204E-2	1.773346E-2	1.640309E-2	2.038074E-2	2.727216E-2	2.176512E-2	2.494112E-2	1.573424E-2	2.139048E-2	7.729102E-3	2.303727E-2	1.933651E-2	2.470264E-2	1.384982E-2	2.491848E-2	3.229421E-2	2.111450E-2	2.843931E-2	2.231619E-2	1.404763E-2	2.150483E-2	3.170576E-2	2.505842E-2	1.525090E-2	1.356697E-2	2.089890E-2	2.617443E-2	2.321288E-2	6.262685E-3	2.244606E-2	2.095458E-2	3.011257E-2	2.500203E-2	1.061934E-2	1.610167E-2	1.926428E-2	7.692026E-3	2.384887E-2	1.619720E-2	2.292177E-2	2.739825E-2	2.665018E-2	2.654130E-2	1.683333E-2	1.724289E-2	2.368634E-2	2.074046E-2	1.687258E-2	1.222761E-2	1.914936E-2	2.110953E-2	1.408434E-2	1.835745E-2	3.012580E-2	2.259883E-2	2.855376E-2	2.281464E-2	2.518555E-2	2.675883E-2	2.253699E-2	2.872197E-2	2.204058E-2	2.701657E-2	3.253859E-2	8.634980E-3	1.951455E-2	2.866306E-2	2.110289E-2	3.989285E-2	2.393821E-2	2.432843E-2	2.609642E-2	2.070650E-2	2.195602E-2	2.573961E-2	1.073997E-2	1.486658E-2	1.263366E-2	1.471353E-2	2.953481E-2	1.832035E-2	2.372560E-2	3.555029E-2	1.050250E-2	2.608045E-2	1.248245E-2	2.099967E-2	1.402307E-2	2.021887E-2	1.117513E-2	2.291814E-2	2.140213E-2	1.932658E-2	2.271267E-2	3.786514E-2	1.480799E-2	1.756845E-2	2.429214E-2	1.219643E-2	1.939079E-2	1.880809E-2	2.087705E-2	1.860874E-2	7.179821E-3	2.328051E-2	1.861274E-2	2.375709E-2	2.625007E-2	1.606444E-2	-2.320566E-3	2.953194E-2	1.562977E-2	1.658354E-2	2.742856E-2	1.141708E-2	2.741715E-2	2.150760E-2	2.435081E-2	2.293171E-2	1.747429E-2	2.415254E-2	2.305519E-2	2.176203E-2	3.159563E-4	1.426678E-2	3.091499E-2	2.530700E-2	2.366579E-2	2.451452E-2	1.785977E-2	2.319842E-2	2.314680E-2	1.191759E-2	9.983952E-3	1.808851E-2	2.372690E-2	2.029373E-2	2.709832E-2	2.589983E-2	1.316004E-2	2.111303E-2	1.722513E-2	2.183203E-2	1.747905E-2	2.268802E-2	3.351007E-2	1.140345E-2	2.767489E-2	1.808776E-2	2.198716E-2	2.624463E-2	2.132232E-2	1.268415E-2	1.057552E-2	2.843997E-2	1.975125E-2	2.912959E-2	1.734474E-2
5.333080E+2	2.246844E-2	2.471168E-2	1.876693E-2	8.054173E-2	3.197507E-2	3.525968E-2	2.962525E-2	2.892208E-2	3.184032E-2	2.415956E-2	2.441972E-2	2.310585E-2	2.430346E-2	2.843673E-2	2.030385E-2	3.020024E-2	3.228266E-2	2.985185E-2	2.997296E-2	3.406624E-2	2.360157E-2	2.009969E-2	2.674222E-2	1.059813E-2	1.294234E-2	2.068515E-2	2.546143E-2	2.680057E-2	3.023776E-2	2.668780E-2	3.414736E-2	1.652793E-2	2.598462E-2	2.575192E-2	1.408259E-2	2.655707E-2	3.291716E-2	2.953695E-2	1.087532E-2	3.014585E-2	2.443054E-2	2.129740E-2	3.031322E-2	1.596745E-2	2.601672E-2	3.689090E-2	3.591622E-2	1.439218E-2	2.509534E-2	2.356019E-2	1.524780E-2	3.580818E-2	3.489506E-2	3.487949E-2	3.183324E-2	3.046167E-2	3.274675E-2	2.488423E-2	2.450485E-2	3.662840E-2	2.844348E-2	1.922658E-2	2.453000E-2	3.078051E-2	3.361296E-2	1.870727E-2	2.260306E-2	2.844536E-2	2.329482E-2	2.316586E-2	2.838482E-2	3.683922E-2	1.775163E-2	3.220177E-2	3.624577E-2	2.396473E-2	3.347366E-2	3.099328E-2	2.886691E-2	2.468089E-2	2.284683E-2	2.613622E-2	3.948064E-2	3.201002E-2	4.315551E-2	2.475731E-2	2.914389E-2	2.583098E-2	1.866157E-2	2.575779E-2	3.022169E-2	2.937091E-2	2.844197E-2	2.154321E-2	3.690044E-2	3.021263E-2	3.220901E-2	3.104222E-2	2.314062E-2	2.845878E-2	3.088472E-2	1.952258E-2	3.228900E-2	3.135703E-2	2.184622E-2	3.220671E-2	2.425166E-2	3.589530E-2	3.379618E-2	2.289035E-2	2.581473E-2	2.061567E-2	3.383417E-2	1.823243E-2	2.776280E-2	2.579027E-2	2.642442E-2	3.361574E-2	2.725729E-2	2.854016E-2	4.247951E-2	2.653030E-2	3.390502E-2	2.512504E-2	3.088531E-2	2.380371E-2	2.301203E-2	3.077062E-2	2.207058E-2	1.456644E-2	2.663591E-2	9.353745E-3	4.016147E-2	2.741756E-2	4.311980E-2	2.602343E-2	2.459923E-2	2.156461E-2	2.781792E-2	2.354453E-2	2.604565E-2	4.191488E-2	2.810342E-2	2.755753E-2	2.920260E-2	2.713002E-2	2.953625E-2	2.530685E-2	1.559574E-2	3.112372E-2	3.338485E-2	2.523486E-2	3.713676E-2	3.787859E-2	2.837793E-2	3.624490E-2	3.455102E-2	2.141505E-2	3.138830E-2	2.489312E-2	3.095278E-2	3.442962E-2	2.681527E-2	3.052000E-2	3.118151E-2	2.511647E-2	3.275359E-2	3.117137E-2	1.050395E-2	4.520543E-2	4.012092E-2	2.200933E-2
5.334580E+2	2.902788E-2	2.428846E-2	2.507204E-2	1.311961E-1	3.624166E-2	3.348211E-2	2.683297E-2	4.167652E-2	4.581457E-2	1.829417E-2	3.613056E-2	4.785432E-2	4.143449E-2	2.993427E-2	3.204731E-2	5.418409E-2	3.504876E-2	3.704648E-2	4.950916E-2	3.482591E-2	3.432650E-2	3.057670E-2	3.918418E-2	3.068338E-2	3.252862E-2	2.802481E-2	3.334553E-2	3.106494E-2	3.987018E-2	3.228919E-2	4.325125E-2	3.099353E-2	3.669393E-2	2.190505E-2	3.614634E-2	3.821539E-2	2.405326E-2	3.750366E-2	3.115391E-2	1.888375E-2	2.460754E-2	3.883587E-2	3.480646E-2	2.526989E-2	3.465135E-2	3.754364E-2	2.540154E-2	2.585778E-2	3.827524E-2	5.245293E-2	4.230497E-2	3.962250E-2	4.439089E-2	3.366870E-2	2.732531E-2	2.299749E-2	3.957673E-2	3.862308E-2	3.672883E-2	2.519545E-2	3.005688E-2	4.623963E-2	3.143627E-2	3.787677E-2	3.008558E-2	2.894775E-2	4.034309E-2	3.416868E-2	3.131344E-2	3.920245E-2	4.034624E-2	3.512507E-2	2.906373E-2	3.910233E-2	3.529505E-2	3.813669E-2	3.368295E-2	3.562853E-2	4.277304E-2	3.399579E-2	3.139120E-2	4.405153E-2	3.601314E-2	2.936261E-2	3.504934E-2	2.287899E-2	2.155517E-2	3.338470E-2	3.393735E-2	4.320542E-2	3.692989E-2	3.963689E-2	4.270159E-2	3.680749E-2	3.008191E-2	3.805421E-2	3.706197E-2	4.804075E-2	2.514736E-2	3.299476E-2	4.295799E-2	1.530208E-2	3.295852E-2	3.055769E-2	3.305883E-2	2.583391E-2	3.634572E-2	5.106601E-2	3.493077E-2	5.151485E-2	2.728763E-2	4.332770E-2	4.378605E-2	3.191628E-2	3.006081E-2	3.956751E-2	4.079187E-2	3.296828E-2	3.551611E-2	3.597981E-2	3.163080E-2	3.176499E-2	2.536939E-2	3.504133E-2	3.358935E-2	5.451966E-2	2.986524E-2	3.582181E-2	3.737892E-2	5.284013E-2	4.334248E-2	2.707585E-2	3.620251E-2	2.871651E-2	3.032009E-2	3.081334E-2	3.672523E-2	3.260234E-2	1.823597E-2	3.359236E-2	4.407803E-2	3.600977E-2	3.154130E-2	3.958798E-2	3.708454E-2	3.743002E-2	3.974379E-2	2.728781E-2	3.478350E-2	3.243823E-2	3.625408E-2	2.833764E-2	4.415522E-2	5.473087E-2	4.239486E-2	3.728505E-2	3.099314E-2	4.162106E-2	2.762738E-2	3.679079E-2	4.350918E-2	2.898317E-2	4.609402E-2	2.092590E-2	4.535436E-2	4.186881E-2	3.002432E-2	4.288804E-2	2.505424E-2	2.287102E-2	4.219937E-2	5.937630E-2
5.336080E+2	4.901058E-2	3.523072E-2	3.076895E-2	3.314752E-1	4.745616E-2	3.618236E-2	3.982355E-2	5.210046E-2	3.899877E-2	5.808716E-2	3.692174E-2	5.116543E-2	5.475562E-2	3.866009E-2	3.138449E-2	4.215584E-2	4.921062E-2	5.305361E-2	4.610628E-2	2.746229E-2	5.015882E-2	3.734756E-2	5.028563E-2	3.998980E-2	3.883329E-2	4.439995E-2	3.938305E-2	5.057757E-2	4.142878E-2	4.876884E-2	4.440151E-2	5.270679E-2	4.284439E-2	3.600481E-2	3.864416E-2	5.866587E-2	3.031275E-2	5.192359E-2	4.914543E-2	3.680861E-2	4.075832E-2	4.276002E-2	4.797296E-2	5.776983E-2	5.716521E-2	4.129908E-2	3.637779E-2	2.878161E-2	4.860065E-2	3.234126E-2	5.055773E-2	3.814439E-2	4.683164E-2	5.614777E-2	4.124124E-2	5.353481E-2	3.257756E-2	3.769941E-2	5.285936E-2	4.461047E-2	4.254887E-2	4.087385E-2	4.175944E-2	5.605604E-2	3.957704E-2	3.980604E-2	4.231544E-2	4.736155E-2	4.413496E-2	4.224530E-2	4.796755E-2	4.638867E-2	4.111399E-2	3.874631E-2	5.365554E-2	4.068701E-2	4.647233E-2	4.564674E-2	4.218487E-2	4.339106E-2	5.864764E-2	3.197727E-2	4.533902E-2	5.110874E-2	4.255120E-2	4.309294E-2	4.301765E-2	4.608702E-2	6.052365E-2	4.521127E-2	4.315116E-2	4.936350E-2	4.392920E-2	4.392325E-2	5.011114E-2	4.822984E-2	4.844076E-2	4.765750E-2	4.404253E-2	4.690845E-2	5.566115E-2	3.837928E-2	5.309010E-2	3.813035E-2	3.323584E-2	4.798675E-2	4.073239E-2	3.360208E-2	4.808350E-2	4.010647E-2	4.030014E-2	4.055593E-2	4.665268E-2	3.864026E-2	3.023185E-2	4.516769E-2	4.598116E-2	4.020779E-2	4.048054E-2	4.352556E-2	3.630798E-2	5.483542E-2	3.928505E-2	3.783204E-2	4.560461E-2	3.964594E-2	2.818737E-2	5.248508E-2	2.439943E-2	4.047131E-2	3.609199E-2	4.604039E-2	4.661419E-2	3.616294E-2	4.731475E-2	4.662129E-2	4.895381E-2	4.214505E-2	3.876598E-2	4.235650E-2	4.440394E-2	4.744164E-2	4.483227E-2	3.047535E-2	4.693450E-2	4.248516E-2	4.561782E-2	3.500655E-2	4.567898E-2	4.669769E-2	4.190484E-2	3.956099E-2	5.029148E-2	6.055862E-2	3.377609E-2	5.264543E-2	3.937087E-2	3.725199E-2	4.397733E-2	4.516810E-2	3.984725E-2	5.622625E-2	5.183897E-2	4.416990E-2	4.809588E-2	4.627350E-2	4.277357E-2	4.893179E-2	3.198989E-2	1.671617E-2	2.459356E-2	3.265631E-2
5.337580E+2	3.642223E-2	3.903341E-2	5.802731E-2	4.970958E-1	5.069840E-2	5.790747E-2	5.749209E-2	7.360492E-2	4.915635E-2	5.719756E-2	5.332901E-2	3.718162E-2	6.726419E-2	5.508536E-2	5.888406E-2	4.925327E-2	5.070166E-2	4.683926E-2	7.109654E-2	5.616314E-2	6.740304E-2	6.059511E-2	7.753076E-2	5.569862E-2	6.338502E-2	3.740650E-2	6.124488E-2	5.844927E-2	5.629531E-2	5.222177E-2	6.477206E-2	5.300622E-2	5.189807E-2	5.709454E-2	5.178849E-2	4.568513E-2	7.021306E-2	5.815137E-2	4.700039E-2	5.819133E-2	5.245598E-2	5.621780E-2	5.131747E-2	5.740925E-2	6.328515E-2	7.337198E-2	5.462499E-2	5.307872E-2	6.314485E-2	6.469665E-2	6.057568E-2	6.552817E-2	5.702489E-2	6.924104E-2	6.044919E-2	5.292028E-2	6.199252E-2	4.019043E-2	5.422702E-2	5.829600E-2	6.742533E-2	5.812731E-2	5.173137E-2	5.912448E-2	5.976902E-2	4.679234E-2	4.017678E-2	5.190673E-2	6.296747E-2	6.406494E-2	5.365552E-2	5.531191E-2	6.455826E-2	5.640929E-2	6.416160E-2	5.205905E-2	4.855565E-2	6.376904E-2	4.977669E-2	4.409482E-2	6.198250E-2	5.493482E-2	5.714082E-2	5.362736E-2	4.865316E-2	7.267085E-2	4.742254E-2	4.173282E-2	5.819367E-2	4.843381E-2	5.651518E-2	4.183949E-2	5.640009E-2	6.258353E-2	5.834334E-2	5.846689E-2	6.048604E-2	4.969605E-2	7.115824E-2	5.870112E-2	5.487030E-2	5.768582E-2	6.535346E-2	5.756703E-2	5.015006E-2	6.012930E-2	5.175115E-2	6.396201E-2	7.285077E-2	5.584380E-2	6.023861E-2	5.303897E-2	6.461398E-2	4.279355E-2	5.281201E-2	6.711484E-2	6.175152E-2	4.345955E-2	5.742078E-2	5.307076E-2	3.989370E-2	4.742177E-2	5.837462E-2	4.983466E-2	6.145146E-2	5.548463E-2	4.230150E-2	5.145023E-2	5.098432E-2	4.333400E-2	5.184947E-2	5.180007E-2	6.356653E-2	6.185766E-2	6.647152E-2	5.395199E-2	7.388503E-2	4.480059E-2	6.636255E-2	5.836769E-2	6.162224E-2	6.597448E-2	5.139372E-2	4.144857E-2	6.454366E-2	6.233882E-2	7.283231E-2	6.254995E-2	5.718424E-2	3.756933E-2	6.565138E-2	6.509909E-2	6.759096E-2	5.276692E-2	5.538218E-2	8.019430E-2	5.784119E-2	6.696886E-2	5.278526E-2	5.539418E-2	4.740647E-2	5.519040E-2	6.248101E-2	6.751659E-2	4.716999E-2	6.419098E-2	5.206043E-2	4.864906E-2	5.533651E-2	6.414992E-2	7.736435E-2	3.835130E-2
5.339400E+2	7.130401E-2	7.478278E-2	8.289767E-2	3.493460E-1	9.550320E-2	9.022650E-2	7.277628E-2	8.792552E-2	8.127494E-2	6.926480E-2	8.597087E-2	9.182230E-2	7.897571E-2	7.154940E-2	8.286197E-2	9.564998E-2	7.623554E-2	6.876573E-2	8.226403E-2	7.853624E-2	8.585894E-2	8.201156E-2	8.633362E-2	6.821634E-2	8.797793E-2	7.842135E-2	9.734114E-2	7.213076E-2	7.203181E-2	8.239629E-2	9.187433E-2	8.331625E-2	7.859554E-2	8.643572E-2	8.226146E-2	7.763973E-2	9.293538E-2	6.941758E-2	6.698569E-2	7.287201E-2	9.417230E-2	8.454818E-2	8.120296E-2	9.626805E-2	7.653377E-2	7.984861E-2	7.428344E-2	7.653942E-2	8.005684E-2	8.138479E-2	8.554763E-2	7.204815E-2	8.435212E-2	7.615051E-2	8.445023E-2	7.908736E-2	7.074317E-2	7.849448E-2	8.477754E-2	7.608444E-2	7.434326E-2	6.800848E-2	8.798244E-2	6.634332E-2	7.310307E-2	7.010484E-2	7.458930E-2	7.074344E-2	8.592026E-2	9.348692E-2	6.969959E-2	7.825052E-2	7.006309E-2	8.313321E-2	8.607339E-2	6.931483E-2	8.356067E-2	7.972044E-2	8.200581E-2	8.364620E-2	7.740128E-2	8.538449E-2	8.914222E-2	7.549735E-2	7.725870E-2	7.707464E-2	6.747803E-2	8.143795E-2	8.365854E-2	7.987838E-2	7.758811E-2	8.810866E-2	7.526768E-2	9.056072E-2	9.096147E-2	9.142872E-2	7.738088E-2	6.990859E-2	7.831153E-2	8.429464E-2	7.986105E-2	8.735062E-2	6.762781E-2	7.954962E-2	8.086486E-2	8.603947E-2	9.227650E-2	8.786033E-2	9.534113E-2	7.491640E-2	7.998573E-2	7.692849E-2	6.820065E-2	6.838496E-2	7.143454E-2	8.550807E-2	8.426093E-2	8.195860E-2	8.208144E-2	9.324951E-2	7.674531E-2	8.758469E-2	9.005397E-2	5.924883E-2	7.052720E-2	7.512759E-2	9.353086E-2	7.707669E-2	7.929802E-2	6.888134E-2	6.956247E-2	8.606820E-2	6.245859E-2	6.265046E-2	8.679375E-2	8.634392E-2	8.552252E-2	8.156561E-2	8.003138E-2	8.127226E-2	6.814620E-2	7.430056E-2	7.885530E-2	8.640234E-2	7.760001E-2	7.829154E-2	7.744353E-2	9.646639E-2	7.963496E-2	8.171856E-2	7.116199E-2	9.953198E-2	8.064729E-2	7.156014E-2	6.747498E-2	9.500339E-2	7.227120E-2	8.784338E-2	7.236160E-2	7.688605E-2	8.763591E-2	9.758474E-2	8.780992E-2	8.691182E-2	9.762026E-2	8.471510E-2	6.382468E-2	7.831103E-2	8.105837E-2	6.819398E-2	1.085938E-1	7.149747E-2
5.340740E+2	1.065448E-1	1.139386E-1	1.104669E-1	7.478373E-1	1.039640E-1	1.142203E-1	1.010522E-1	1.227609E-1	1.185689E-1	1.154579E-1	1.304910E-1	1.244786E-1	1.118798E-1	1.254569E-1	1.115315E-1	1.192406E-1	9.233137E-2	1.119891E-1	1.027757E-1	1.064794E-1	1.165299E-1	9.998821E-2	1.263564E-1	1.163469E-1	1.306612E-1	1.068013E-1	9.815149E-2	1.118953E-1	1.158256E-1	1.028160E-1	1.088811E-1	1.083686E-1	1.225644E-1	1.274198E-1	1.170736E-1	1.374825E-1	1.477587E-1	1.206596E-1	1.118994E-1	1.066426E-1	1.086209E-1	1.244056E-1	1.013616E-1	1.420744E-1	1.256049E-1	1.220383E-1	1.126693E-1	1.102740E-1	1.362754E-1	1.233043E-1	1.049903E-1	1.077087E-1	1.277875E-1	1.305474E-1	1.243660E-1	1.068174E-1	1.250454E-1	1.142288E-1	1.183009E-1	1.092744E-1	1.301134E-1	1.025562E-1	1.130431E-1	1.033389E-1	1.171606E-1	1.230388E-1	1.281490E-1	1.314717E-1	1.090423E-1	1.283075E-1	1.047020E-1	1.206898E-1	1.008637E-1	1.349592E-1	1.247420E-1	1.261820E-1	1.260764E-1	1.164834E-1	1.053859E-1	9.707266E-2	1.219942E-1	1.457163E-1	1.145920E-1	1.118050E-1	1.028157E-1	9.707384E-2	1.284658E-1	1.265355E-1	1.339030E-1	9.588392E-2	1.103811E-1	1.184712E-1	1.158785E-1	1.136640E-1	1.011538E-1	1.341856E-1	1.233994E-1	1.363852E-1	1.012389E-1	1.222401E-1	1.284065E-1	1.088772E-1	1.216846E-1	1.319147E-1	1.160610E-1	1.157397E-1	1.204121E-1	1.139161E-1	1.107426E-1	1.219550E-1	1.044212E-1	1.163277E-1	1.291835E-1	1.176705E-1	1.166574E-1	1.294846E-1	1.163697E-1	1.297557E-1	1.150790E-1	9.898855E-2	1.368718E-1	1.058049E-1	1.284686E-1	1.201222E-1	1.055189E-1	1.160443E-1	1.011702E-1	1.275069E-1	1.069833E-1	1.069346E-1	1.135871E-1	1.159722E-1	1.127750E-1	1.131155E-1	1.299986E-1	1.146429E-1	1.179219E-1	1.379821E-1	1.447546E-1	1.146342E-1	1.112137E-1	1.254194E-1	1.313921E-1	1.196080E-1	1.341030E-1	1.396186E-1	1.092560E-1	1.199827E-1	1.195948E-1	1.340543E-1	1.193639E-1	1.139292E-1	1.212356E-1	1.303658E-1	1.196895E-1	1.026640E-1	1.339824E-1	1.129050E-1	1.110780E-1	1.258010E-1	1.089156E-1	1.239388E-1	1.311081E-1	1.204295E-1	1.219906E-1	1.254193E-1	1.230429E-1	1.128493E-1	1.105182E-1	1.339265E-1	1.126798E-1	1.320744E-1
5.342040E+2	1.888348E-1	1.505877E-1	1.554302E-1	8.973189E-1	1.686266E-1	1.660632E-1	1.576041E-1	1.847749E-1	1.875879E-1	1.754546E-1	1.478315E-1	1.615422E-1	1.767647E-1	1.744839E-1	1.768630E-1	1.691911E-1	1.628665E-1	1.611514E-1	1.737744E-1	1.971751E-1	1.653473E-1	1.869233E-1	1.788962E-1	1.632218E-1	1.587304E-1	1.635272E-1	1.811341E-1	2.055439E-1	1.754162E-1	1.593558E-1	1.633364E-1	1.676355E-1	1.610904E-1	1.582035E-1	1.781325E-1	1.912344E-1	1.759064E-1	1.753757E-1	1.541840E-1	1.760633E-1	1.626689E-1	1.806571E-1	1.707352E-1	1.623727E-1	1.647017E-1	1.675753E-1	1.793850E-1	1.689033E-1	1.732323E-1	1.772932E-1	1.860725E-1	1.645812E-1	1.700957E-1	1.913343E-1	1.627807E-1	1.798777E-1	1.663649E-1	1.874077E-1	1.697230E-1	1.639049E-1	1.777784E-1	1.698551E-1	1.816804E-1	1.847010E-1	1.607683E-1	1.729076E-1	1.743805E-1	1.908057E-1	1.900644E-1	1.767754E-1	1.862325E-1	1.688909E-1	1.884272E-1	1.869002E-1	1.721466E-1	1.827780E-1	1.730238E-1	1.733150E-1	1.940201E-1	1.673362E-1	1.728323E-1	1.742083E-1	1.899627E-1	1.843886E-1	1.703019E-1	1.764667E-1	1.740026E-1	1.811705E-1	1.900990E-1	1.802242E-1	1.609043E-1	1.687465E-1	1.831098E-1	1.656547E-1	1.737280E-1	1.885781E-1	1.636381E-1	1.934886E-1	1.601628E-1	1.863642E-1	1.985575E-1	1.659174E-1	1.849903E-1	1.883956E-1	1.650323E-1	1.863281E-1	1.709477E-1	1.842593E-1	1.823822E-1	1.876770E-1	2.009700E-1	1.827878E-1	1.983573E-1	1.659325E-1	1.625747E-1	1.662706E-1	1.719524E-1	1.701083E-1	1.716892E-1	1.587169E-1	1.738865E-1	1.883380E-1	1.591708E-1	1.547167E-1	1.808430E-1	1.796989E-1	1.934542E-1	1.808991E-1	1.873067E-1	1.742838E-1	1.721317E-1	1.484355E-1	1.909860E-1	1.847485E-1	1.813131E-1	1.825668E-1	1.571650E-1	1.920202E-1	1.687522E-1	1.726637E-1	1.999594E-1	1.808870E-1	1.837598E-1	1.698222E-1	1.759900E-1	1.985575E-1	2.018592E-1	1.849858E-1	1.872240E-1	1.870203E-1	1.767938E-1	1.664753E-1	1.781093E-1	2.082370E-1	1.590527E-1	1.965017E-1	1.767127E-1	1.785921E-1	1.695100E-1	1.936892E-1	1.996899E-1	2.203260E-1	1.795986E-1	2.047008E-1	1.882125E-1	1.724964E-1	1.720700E-1	1.854147E-1	1.820990E-1	1.820308E-1	2.033203E-1	2.259602E-1
5.343550E+2	3.104359E-1	2.850281E-1	3.166542E-1	1.682309E+0	3.113223E-1	3.140800E-1	3.047935E-1	3.188768E-1	3.150601E-1	2.814432E-1	2.891114E-1	3.028733E-1	2.855121E-1	3.094590E-1	3.008216E-1	2.841321E-1	2.800486E-1	3.001031E-1	2.946553E-1	3.035839E-1	2.800790E-1	2.952676E-1	2.896356E-1	2.996621E-1	3.039810E-1	2.738733E-1	2.909071E-1	3.019851E-1	3.012489E-1	3.081948E-1	3.102078E-1	3.032992E-1	3.036345E-1	3.123305E-1	3.240890E-1	3.020395E-1	3.046202E-1	2.900392E-1	2.988209E-1	3.021478E-1	3.127861E-1	2.845648E-1	2.940325E-1	3.009307E-1	2.778958E-1	2.835285E-1	2.992545E-1	3.064191E-1	2.901585E-1	3.200477E-1	2.854176E-1	2.893113E-1	3.032197E-1	3.062597E-1	3.225440E-1	2.880608E-1	3.011276E-1	2.869300E-1	2.964239E-1	3.025444E-1	3.312436E-1	3.119623E-1	2.998940E-1	3.019809E-1	3.270428E-1	3.086676E-1	3.159827E-1	3.162384E-1	3.197234E-1	3.073901E-1	2.807541E-1	3.080646E-1	2.866448E-1	2.876005E-1	3.054511E-1	3.101815E-1	3.140622E-1	3.154774E-1	3.006438E-1	3.043047E-1	3.192130E-1	3.010169E-1	3.121196E-1	3.144654E-1	3.016984E-1	2.906389E-1	3.297207E-1	2.957822E-1	2.859113E-1	3.018276E-1	2.913573E-1	3.239087E-1	3.102277E-1	2.974003E-1	3.227844E-1	2.878486E-1	3.207032E-1	3.063271E-1	2.871374E-1	2.894065E-1	2.959048E-1	2.895178E-1	3.312173E-1	3.072084E-1	2.952661E-1	3.185512E-1	2.951655E-1	3.299042E-1	3.216957E-1	3.132665E-1	2.965455E-1	3.256215E-1	2.896630E-1	3.270495E-1	2.981892E-1	2.862284E-1	3.097684E-1	3.148302E-1	2.972261E-1	2.819041E-1	2.942873E-1	3.260184E-1	3.143071E-1	3.013705E-1	3.116854E-1	2.944585E-1	2.779774E-1	3.046384E-1	3.167775E-1	3.289108E-1	2.914286E-1	2.938270E-1	3.096067E-1	3.177751E-1	3.146731E-1	3.144438E-1	2.917390E-1	3.061247E-1	2.722407E-1	3.211277E-1	3.031971E-1	3.147059E-1	3.069585E-1	3.015836E-1	3.172997E-1	2.987951E-1	3.139730E-1	3.187974E-1	3.473034E-1	3.035752E-1	3.282663E-1	3.105687E-1	2.921792E-1	2.889161E-1	3.215288E-1	3.122089E-1	3.468933E-1	3.013980E-1	2.954121E-1	3.463175E-1	3.086652E-1	3.130117E-1	3.239560E-1	3.213316E-1	3.303758E-1	3.157583E-1	3.098981E-1	3.107694E-1	3.055457E-1	2.716147E-1	3.097776E-1	3.585194E-1
5.345110E+2	5.503138E-1	5.087984E-1	5.260286E-1	2.916570E+0	4.960363E-1	5.451832E-1	5.424517E-1	5.260061E-1	5.278076E-1	5.214950E-1	4.849326E-1	5.310671E-1	4.946502E-1	5.402086E-1	5.224748E-1	5.585073E-1	5.211996E-1	5.374150E-1	4.960034E-1	5.378255E-1	5.281704E-1	5.247128E-1	5.315828E-1	5.342338E-1	5.213193E-1	5.471713E-1	5.373301E-1	5.329125E-1	5.309543E-1	5.317602E-1	5.299285E-1	5.280774E-1	5.600459E-1	5.371359E-1	5.304525E-1	5.301171E-1	5.293848E-1	5.079832E-1	5.515878E-1	5.313021E-1	5.546347E-1	5.210657E-1	5.853187E-1	5.387584E-1	5.388697E-1	5.135897E-1	5.284659E-1	5.207446E-1	5.545034E-1	5.390940E-1	5.582570E-1	4.989116E-1	5.525926E-1	5.548458E-1	5.788538E-1	5.194378E-1	5.403424E-1	5.478400E-1	5.374706E-1	5.442742E-1	5.307454E-1	5.640925E-1	5.045580E-1	5.593119E-1	5.740832E-1	5.397028E-1	5.697457E-1	5.471069E-1	5.082107E-1	5.425277E-1	5.361783E-1	5.143258E-1	5.373054E-1	5.165797E-1	5.224004E-1	5.569000E-1	5.467251E-1	5.363798E-1	5.508162E-1	5.288577E-1	5.608658E-1	5.414386E-1	5.533279E-1	5.763667E-1	5.259473E-1	5.349576E-1	5.524678E-1	5.494583E-1	5.455208E-1	5.186193E-1	5.481962E-1	5.165291E-1	5.522336E-1	5.483452E-1	5.426126E-1	5.695749E-1	5.413678E-1	5.397766E-1	5.516669E-1	5.492332E-1	5.253720E-1	5.292644E-1	5.333047E-1	5.075375E-1	5.291369E-1	5.269864E-1	5.293794E-1	5.754442E-1	5.077283E-1	5.425344E-1	5.151009E-1	5.512386E-1	5.451069E-1	5.948684E-1	5.297370E-1	5.491100E-1	5.373461E-1	5.127867E-1	4.913626E-1	5.138271E-1	5.323896E-1	5.100676E-1	5.382022E-1	5.240318E-1	5.745303E-1	5.146448E-1	5.199508E-1	5.808457E-1	5.675149E-1	5.372058E-1	5.396634E-1	5.242320E-1	5.257436E-1	5.482036E-1	5.488231E-1	5.065043E-1	5.514299E-1	5.447783E-1	5.714253E-1	5.442449E-1	5.318785E-1	5.505434E-1	5.448013E-1	5.349618E-1	5.176810E-1	5.181968E-1	5.511351E-1	5.402839E-1	5.403822E-1	5.415847E-1	5.462238E-1	5.532162E-1	5.605902E-1	5.844002E-1	5.184692E-1	5.621761E-1	5.297855E-1	5.570353E-1	5.454869E-1	5.511449E-1	5.580108E-1	5.376889E-1	5.420516E-1	5.601417E-1	5.450249E-1	5.653412E-1	5.311579E-1	5.249081E-1	5.557339E-1	5.503573E-1	5.987756E-1	6.296244E-1
5.346620E+2	8.790630E-1	8.736164E-1	8.802531E-1	5.088796E+0	8.573119E-1	8.595407E-1	8.545298E-1	8.558090E-1	8.624531E-1	8.789492E-1	8.877138E-1	9.318415E-1	8.162464E-1	8.376127E-1	8.652286E-1	8.661051E-1	8.477673E-1	8.391219E-1	8.643384E-1	8.653566E-1	8.558145E-1	8.564696E-1	8.812372E-1	8.344632E-1	8.670687E-1	8.632088E-1	8.822396E-1	8.635946E-1	8.748947E-1	8.540815E-1	8.693556E-1	8.770690E-1	8.415289E-1	8.644771E-1	8.510765E-1	8.485096E-1	8.482130E-1	8.648583E-1	8.390195E-1	8.521753E-1	8.680744E-1	8.545466E-1	8.754531E-1	7.674281E-1	8.824682E-1	8.173585E-1	8.875744E-1	8.555435E-1	8.763073E-1	8.678246E-1	8.756266E-1	8.639648E-1	8.734733E-1	8.900157E-1	8.751677E-1	8.491954E-1	8.590620E-1	8.533368E-1	8.964297E-1	8.346840E-1	8.719008E-1	8.567721E-1	8.743233E-1	8.641416E-1	8.978009E-1	8.671521E-1	8.582349E-1	9.044904E-1	8.705428E-1	8.858180E-1	8.707831E-1	8.516262E-1	8.634900E-1	8.658810E-1	8.351491E-1	8.447723E-1	8.747281E-1	8.859144E-1	8.796366E-1	8.695051E-1	8.864955E-1	8.896602E-1	8.687812E-1	8.870136E-1	8.371870E-1	8.788423E-1	8.123982E-1	8.905655E-1	8.698028E-1	8.465461E-1	8.452820E-1	8.307354E-1	9.196347E-1	8.865912E-1	9.018432E-1	8.894861E-1	8.463297E-1	8.621416E-1	8.687719E-1	8.862853E-1	9.043525E-1	8.731200E-1	8.581976E-1	8.459710E-1	9.000107E-1	8.787575E-1	8.726400E-1	9.085206E-1	8.713052E-1	8.733598E-1	8.795862E-1	8.781978E-1	8.551724E-1	8.661568E-1	8.825741E-1	8.848422E-1	8.659568E-1	8.902390E-1	9.228089E-1	8.505790E-1	8.813474E-1	8.878686E-1	8.458930E-1	8.699981E-1	8.996317E-1	8.954496E-1	8.682366E-1	8.401441E-1	8.707427E-1	8.807174E-1	8.523317E-1	8.828936E-1	8.471879E-1	8.965083E-1	8.915058E-1	8.738275E-1	8.965237E-1	8.923149E-1	8.633679E-1	8.962728E-1	8.578661E-1	8.543425E-1	8.752852E-1	8.690445E-1	8.593821E-1	9.214347E-1	8.970210E-1	8.668439E-1	8.724000E-1	8.816357E-1	9.137314E-1	8.800346E-1	8.950739E-1	8.768694E-1	8.513867E-1	8.605977E-1	8.805073E-1	8.383121E-1	8.805701E-1	8.844969E-1	8.332361E-1	9.063399E-1	8.771380E-1	8.530251E-1	9.063619E-1	8.450526E-1	8.328981E-1	8.332973E-1	8.652116E-1	8.836813E-1	9.113477E-1	1.039575E+0
5.348020E+2	1.217284E+0	1.156227E+0	1.202676E+0	7.465954E+0	1.193007E+0	1.156793E+0	1.201883E+0	1.175278E+0	1.177513E+0	1.195938E+0	1.187871E+0	1.250578E+0	1.186887E+0	1.202837E+0	1.246556E+0	1.279169E+0	1.210839E+0	1.197543E+0	1.245421E+0	1.169010E+0	1.178520E+0	1.199336E+0	1.158070E+0	1.228027E+0	1.177469E+0	1.171163E+0	1.262299E+0	1.189044E+0	1.222818E+0	1.225471E+0	1.178128E+0	1.236219E+0	1.193880E+0	1.224694E+0	1.233422E+0	1.206307E+0	1.205814E+0	1.125130E+0	1.226748E+0	1.214102E+0	1.234674E+0	1.226266E+0	1.237359E+0	1.162979E+0	1.218928E+0	1.214983E+0	1.241868E+0	1.214137E+0	1.153904E+0	1.221661E+0	1.201210E+0	1.261650E+0	1.204731E+0	1.216951E+0	1.241956E+0	1.201880E+0	1.187608E+0	1.181945E+0	1.217049E+0	1.259181E+0	1.206026E+0	1.255749E+0	1.165652E+0	1.179723E+0	1.220380E+0	1.243596E+0	1.196819E+0	1.182163E+0	1.207609E+0	1.203119E+0	1.173604E+0	1.224720E+0	1.260189E+0	1.217589E+0	1.161633E+0	1.237331E+0	1.211423E+0	1.199186E+0	1.189446E+0	1.251468E+0	1.195723E+0	1.249659E+0	1.194549E+0	1.225922E+0	1.231416E+0	1.254252E+0	1.192082E+0	1.188209E+0	1.209229E+0	1.168615E+0	1.197871E+0	1.221178E+0	1.206880E+0	1.170826E+0	1.184281E+0	1.189024E+0	1.214639E+0	1.231701E+0	1.259330E+0	1.179630E+0	1.199294E+0	1.206692E+0	1.214304E+0	1.224395E+0	1.229207E+0	1.200433E+0	1.234561E+0	1.173724E+0	1.241237E+0	1.250225E+0	1.229031E+0	1.196588E+0	1.203969E+0	1.254727E+0	1.181543E+0	1.218259E+0	1.219190E+0	1.242227E+0	1.157265E+0	1.166013E+0	1.233693E+0	1.240217E+0	1.213984E+0	1.220738E+0	1.223600E+0	1.224982E+0	1.217572E+0	1.175489E+0	1.221464E+0	1.231725E+0	1.184039E+0	1.149952E+0	1.207931E+0	1.204824E+0	1.217195E+0	1.202915E+0	1.220797E+0	1.212061E+0	1.220597E+0	1.209257E+0	1.214916E+0	1.232703E+0	1.242646E+0	1.200117E+0	1.137143E+0	1.274876E+0	1.209511E+0	1.221225E+0	1.175076E+0	1.238997E+0	1.224849E+0	1.192834E+0	1.213134E+0	1.226925E+0	1.173676E+0	1.223671E+0	1.235663E+0	1.242959E+0	1.196585E+0	1.194004E+0	1.173294E+0	1.227142E+0	1.198219E+0	1.203770E+0	1.222170E+0	1.207781E+0	1.180233E+0	1.191156E+0	1.188877E+0	1.340862E+0	1.227981E+0	1.376537E+0
5.349580E+2	1.680504E+0	1.533753E+0	1.620107E+0	1.052553E+1	1.617594E+0	1.633967E+0	1.619291E+0	1.622745E+0	1.562561E+0	1.601861E+0	1.582213E+0	1.647919E+0	1.625598E+0	1.676744E+0	1.637168E+0	1.669468E+0	1.508706E+0	1.665989E+0	1.662721E+0	1.636124E+0	1.606430E+0	1.613415E+0	1.606367E+0	1.583045E+0	1.584836E+0	1.587946E+0	1.605801E+0	1.619867E+0	1.633094E+0	1.569085E+0	1.618177E+0	1.642239E+0	1.608958E+0	1.659523E+0	1.631887E+0	1.539869E+0	1.602570E+0	1.582169E+0	1.552452E+0	1.633458E+0	1.616142E+0	1.615514E+0	1.634851E+0	1.560417E+0	1.636950E+0	1.633603E+0	1.635715E+0	1.619645E+0	1.568311E+0	1.619809E+0	1.606193E+0	1.622571E+0	1.613045E+0	1.620455E+0	1.671261E+0	1.602535E+0	1.616512E+0	1.632419E+0	1.650365E+0	1.586211E+0	1.631206E+0	1.586517E+0	1.585792E+0	1.590387E+0	1.588486E+0	1.593341E+0	1.602267E+0	1.578216E+0	1.621354E+0	1.624150E+0	1.629305E+0	1.591437E+0	1.621196E+0	1.561108E+0	1.599984E+0	1.586853E+0	1.615542E+0	1.633105E+0	1.575472E+0	1.615226E+0	1.630292E+0	1.585968E+0	1.615722E+0	1.605377E+0	1.629320E+0	1.589066E+0	1.630121E+0	1.555791E+0	1.607572E+0	1.612559E+0	1.620308E+0	1.570160E+0	1.608697E+0	1.610306E+0	1.596735E+0	1.599749E+0	1.519039E+0	1.577711E+0	1.598174E+0	1.564991E+0	1.596421E+0	1.606578E+0	1.576475E+0	1.622916E+0	1.602306E+0	1.581504E+0	1.647714E+0	1.629210E+0	1.553315E+0	1.585505E+0	1.605047E+0	1.588289E+0	1.563905E+0	1.576979E+0	1.612733E+0	1.617417E+0	1.592519E+0	1.639892E+0	1.554539E+0	1.623999E+0	1.621906E+0	1.519804E+0	1.563847E+0	1.619976E+0	1.592450E+0	1.544890E+0	1.601130E+0	1.604684E+0	1.667902E+0	1.638464E+0	1.559566E+0	1.545915E+0	1.545231E+0	1.587157E+0	1.697604E+0	1.615988E+0	1.562503E+0	1.673976E+0	1.622969E+0	1.612183E+0	1.573896E+0	1.565265E+0	1.574025E+0	1.530718E+0	1.528857E+0	1.653858E+0	1.612356E+0	1.560444E+0	1.578231E+0	1.531055E+0	1.613443E+0	1.589046E+0	1.595943E+0	1.612526E+0	1.543009E+0	1.531516E+0	1.539926E+0	1.604362E+0	1.546078E+0	1.631930E+0	1.560676E+0	1.590793E+0	1.604542E+0	1.643232E+0	1.584938E+0	1.525612E+0	1.573954E+0	1.569645E+0	1.586988E+0	1.639220E+0	1.722721E+0	1.681042E+0
5.351040E+2	1.922044E+0	1.762707E+0	1.859181E+0	1.184272E+1	1.830869E+0	1.930051E+0	1.874058E+0	1.874312E+0	1.787625E+0	1.913257E+0	1.867136E+0	1.814424E+0	1.848436E+0	1.847348E+0	1.860772E+0	1.874595E+0	1.812413E+0	1.880229E+0	1.865412E+0	1.854560E+0	1.780146E+0	1.877544E+0	1.836753E+0	1.814168E+0	1.876270E+0	1.865043E+0	1.916391E+0	1.867578E+0	1.839595E+0	1.862697E+0	1.819812E+0	1.902875E+0	1.900174E+0	1.873173E+0	1.828577E+0	1.803508E+0	1.832984E+0	1.848319E+0	1.894185E+0	1.891511E+0	1.852251E+0	1.933386E+0	1.883166E+0	1.907155E+0	1.865290E+0	1.813150E+0	1.835240E+0	1.853751E+0	1.844015E+0	1.849196E+0	1.819694E+0	1.857742E+0	1.874551E+0	1.902453E+0	1.915626E+0	1.811500E+0	1.825264E+0	1.860493E+0	1.897549E+0	1.800932E+0	1.865007E+0	1.831348E+0	1.839031E+0	1.868414E+0	1.890206E+0	1.781924E+0	1.784856E+0	1.803828E+0	1.800004E+0	1.872384E+0	1.831375E+0	1.860524E+0	1.861817E+0	1.841582E+0	1.808189E+0	1.810741E+0	1.879968E+0	1.850301E+0	1.817396E+0	1.819394E+0	1.828518E+0	1.857955E+0	1.865255E+0	1.914845E+0	1.794270E+0	1.883423E+0	1.902747E+0	1.861504E+0	1.800598E+0	1.844824E+0	1.847714E+0	1.881472E+0	1.858298E+0	1.829746E+0	1.847943E+0	1.850619E+0	1.778497E+0	1.818780E+0	1.869030E+0	1.770604E+0	1.863863E+0	1.899233E+0	1.829140E+0	1.832807E+0	1.771796E+0	1.814856E+0	1.843553E+0	1.807713E+0	1.753213E+0	1.860687E+0	1.843864E+0	1.822736E+0	1.760464E+0	1.802881E+0	1.893102E+0	1.801462E+0	1.870699E+0	1.867847E+0	1.794114E+0	1.836930E+0	1.828420E+0	1.786936E+0	1.862541E+0	1.810397E+0	1.842970E+0	1.887878E+0	1.858972E+0	1.798413E+0	1.857198E+0	1.812551E+0	1.718972E+0	1.842148E+0	1.819482E+0	1.807392E+0	1.790555E+0	1.820846E+0	1.874165E+0	1.809408E+0	1.779133E+0	1.840206E+0	1.791810E+0	1.859217E+0	1.820985E+0	1.831842E+0	1.799440E+0	1.855526E+0	1.850273E+0	1.800869E+0	1.774051E+0	1.846895E+0	1.891123E+0	1.829257E+0	1.864574E+0	1.875907E+0	1.823504E+0	1.920887E+0	1.829534E+0	1.854888E+0	1.796373E+0	1.863113E+0	1.784269E+0	1.884868E+0	1.765192E+0	1.903428E+0	1.790380E+0	1.814493E+0	1.753427E+0	1.828873E+0	1.784859E+0	1.932198E+0	1.796342E+0	1.814947E+0
5.352550E+2	2.048030E+0	1.973712E+0	1.989212E+0	1.241445E+1	2.013464E+0	2.067509E+0	1.973930E+0	2.047256E+0	1.991500E+0	2.042285E+0	2.021295E+0	2.047394E+0	1.961014E+0	2.032423E+0	2.014522E+0	2.040133E+0	1.968152E+0	2.113965E+0	1.975804E+0	2.022061E+0	2.000445E+0	1.996561E+0	1.975549E+0	1.959084E+0	1.972113E+0	1.980667E+0	2.017592E+0	2.017209E+0	2.013234E+0	2.044402E+0	2.022730E+0	2.076039E+0	2.058244E+0	1.985340E+0	1.983300E+0	2.011935E+0	1.955962E+0	2.038044E+0	2.022450E+0	2.016103E+0	1.990392E+0	1.999781E+0	2.037777E+0	2.027257E+0	1.951425E+0	1.970402E+0	1.987626E+0	1.973410E+0	1.952548E+0	2.010078E+0	2.065234E+0	2.033843E+0	2.002453E+0	2.040390E+0	2.044734E+0	1.994411E+0	1.977519E+0	1.945430E+0	2.025903E+0	1.998408E+0	2.094627E+0	2.049603E+0	1.955711E+0	2.025980E+0	2.019169E+0	1.909323E+0	2.060046E+0	2.097860E+0	1.943521E+0	2.006879E+0	1.984752E+0	2.015704E+0	2.020514E+0	1.944765E+0	1.952215E+0	1.986712E+0	2.057067E+0	1.976144E+0	1.943980E+0	2.008524E+0	1.964711E+0	1.968604E+0	1.905133E+0	1.978046E+0	1.919497E+0	2.035244E+0	2.063198E+0	2.052064E+0	1.953816E+0	2.040486E+0	1.960778E+0	1.947261E+0	2.081201E+0	2.014371E+0	1.969146E+0	1.956577E+0	2.020752E+0	1.994940E+0	1.944049E+0	1.954209E+0	2.003573E+0	1.965294E+0	1.969901E+0	2.005089E+0	2.011316E+0	2.008824E+0	2.018760E+0	1.964606E+0	1.938661E+0	2.046546E+0	1.983632E+0	2.001752E+0	1.966274E+0	2.033395E+0	1.977691E+0	1.971960E+0	1.980905E+0	1.970859E+0	1.991219E+0	2.023774E+0	1.936343E+0	1.977914E+0	1.959198E+0	1.996815E+0	1.950961E+0	1.992788E+0	1.996239E+0	1.945091E+0	2.004121E+0	2.038449E+0	1.940021E+0	1.912434E+0	1.945506E+0	1.951430E+0	1.994161E+0	1.938902E+0	2.022291E+0	1.984670E+0	1.957359E+0	1.986900E+0	1.964506E+0	1.966436E+0	1.956130E+0	1.988329E+0	1.908633E+0	2.070531E+0	2.033097E+0	1.980941E+0	1.935319E+0	2.008525E+0	2.024918E+0	1.920085E+0	1.912377E+0	1.965091E+0	1.953570E+0	2.009666E+0	1.973999E+0	1.974339E+0	1.934124E+0	1.962877E+0	1.859316E+0	1.988366E+0	1.914124E+0	1.973895E+0	1.910139E+0	1.973737E+0	1.911562E+0	1.964554E+0	1.885904E+0	2.001428E+0	1.841538E+0	2.395853E+0
5.354110E+2	1.993967E+0	1.875404E+0	1.966506E+0	1.232544E+1	1.857537E+0	1.921582E+0	1.935630E+0	1.977805E+0	1.894937E+0	1.896386E+0	1.902184E+0	1.956944E+0	1.904769E+0	1.882372E+0	1.930756E+0	1.952757E+0	1.907566E+0	1.895791E+0	1.983749E+0	1.942804E+0	1.920884E+0	1.887363E+0	1.915607E+0	1.872682E+0	1.909885E+0	1.853964E+0	2.008461E+0	1.924505E+0	1.888532E+0	1.942098E+0	1.921663E+0	2.012023E+0	1.868681E+0	1.887212E+0	1.913106E+0	1.877044E+0	1.880930E+0	1.910669E+0	1.960021E+0	1.919746E+0	1.880851E+0	1.957760E+0	1.943532E+0	1.944583E+0	1.902196E+0	1.831981E+0	1.892310E+0	1.881504E+0	1.862202E+0	1.961354E+0	1.880820E+0	1.932144E+0	1.926091E+0	1.872700E+0	1.951734E+0	1.942848E+0	1.903418E+0	1.862259E+0	1.905770E+0	1.905049E+0	1.953863E+0	1.912192E+0	1.912422E+0	1.898944E+0	1.923440E+0	1.895363E+0	1.976170E+0	1.852629E+0	1.877146E+0	1.906004E+0	1.961832E+0	1.929300E+0	1.901242E+0	1.868043E+0	1.862905E+0	1.905962E+0	1.907490E+0	1.887195E+0	1.859884E+0	1.929522E+0	1.848138E+0	1.991353E+0	1.878727E+0	1.883026E+0	1.875454E+0	1.952044E+0	1.955260E+0	1.980606E+0	1.896232E+0	1.885835E+0	1.918079E+0	1.984347E+0	1.919273E+0	1.881982E+0	1.842358E+0	1.903019E+0	1.798431E+0	1.899683E+0	1.876785E+0	1.867570E+0	1.951885E+0	1.937359E+0	1.893788E+0	1.900825E+0	1.855205E+0	1.896961E+0	1.923830E+0	2.000065E+0	1.893316E+0	1.853298E+0	1.916673E+0	1.869717E+0	1.888534E+0	1.896785E+0	1.913370E+0	1.850240E+0	1.874149E+0	1.846065E+0	1.823302E+0	1.907836E+0	1.824656E+0	1.847112E+0	1.873458E+0	1.950850E+0	1.890429E+0	1.874486E+0	1.877659E+0	1.854549E+0	1.907452E+0	1.941967E+0	1.897515E+0	1.849332E+0	1.877952E+0	1.884570E+0	1.888298E+0	1.812350E+0	1.948293E+0	1.883640E+0	1.875733E+0	1.882654E+0	1.894177E+0	1.878471E+0	1.856697E+0	1.884909E+0	1.807950E+0	1.898409E+0	1.880190E+0	1.857011E+0	1.867861E+0	1.890532E+0	1.883580E+0	1.814393E+0	1.845448E+0	1.950247E+0	1.853515E+0	1.867525E+0	1.889724E+0	1.835920E+0	1.777173E+0	1.916423E+0	1.792748E+0	1.844814E+0	1.821587E+0	1.947119E+0	1.828197E+0	1.885003E+0	1.840108E+0	1.896124E+0	1.898917E+0	1.891507E+0	2.022082E+0	2.177319E+0
5.355580E+2	1.818132E+0	1.633100E+0	1.715046E+0	1.149414E+1	1.637474E+0	1.669072E+0	1.742471E+0	1.731141E+0	1.709720E+0	1.773204E+0	1.674389E+0	1.670515E+0	1.703471E+0	1.751082E+0	1.736268E+0	1.782312E+0	1.674817E+0	1.706066E+0	1.716341E+0	1.701346E+0	1.707925E+0	1.716397E+0	1.704784E+0	1.752808E+0	1.636337E+0	1.758268E+0	1.749503E+0	1.751839E+0	1.741934E+0	1.670174E+0	1.689580E+0	1.751203E+0	1.713951E+0	1.763569E+0	1.708115E+0	1.641487E+0	1.703915E+0	1.705084E+0	1.686027E+0	1.735101E+0	1.701813E+0	1.670449E+0	1.739715E+0	1.710575E+0	1.672352E+0	1.690330E+0	1.715185E+0	1.686739E+0	1.682810E+0	1.736951E+0	1.679893E+0	1.731600E+0	1.729261E+0	1.732271E+0	1.739597E+0	1.712913E+0	1.733503E+0	1.658410E+0	1.690924E+0	1.700812E+0	1.679861E+0	1.671645E+0	1.732390E+0	1.763467E+0	1.728739E+0	1.659857E+0	1.730599E+0	1.639363E+0	1.694837E+0	1.687907E+0	1.714482E+0	1.758424E+0	1.710040E+0	1.680839E+0	1.692461E+0	1.706479E+0	1.731324E+0	1.706208E+0	1.703492E+0	1.724710E+0	1.666646E+0	1.700589E+0	1.708788E+0	1.667832E+0	1.683689E+0	1.744164E+0	1.693997E+0	1.760769E+0	1.725229E+0	1.740483E+0	1.692619E+0	1.656718E+0	1.684408E+0	1.687786E+0	1.645560E+0	1.698369E+0	1.660263E+0	1.672107E+0	1.708532E+0	1.690342E+0	1.705525E+0	1.718158E+0	1.697654E+0	1.726830E+0	1.743308E+0	1.672609E+0	1.754709E+0	1.715997E+0	1.643003E+0	1.685806E+0	1.729304E+0	1.698386E+0	1.727661E+0	1.712192E+0	1.674136E+0	1.684809E+0	1.661316E+0	1.689237E+0	1.662604E+0	1.727567E+0	1.699462E+0	1.737253E+0	1.668680E+0	1.740308E+0	1.713129E+0	1.716488E+0	1.697967E+0	1.687518E+0	1.724787E+0	1.757584E+0	1.695996E+0	1.669131E+0	1.664032E+0	1.746139E+0	1.718707E+0	1.684984E+0	1.659009E+0	1.648977E+0	1.743995E+0	1.665747E+0	1.661733E+0	1.727800E+0	1.699614E+0	1.665823E+0	1.567250E+0	1.727440E+0	1.710204E+0	1.642416E+0	1.679958E+0	1.640145E+0	1.762725E+0	1.702698E+0	1.663767E+0	1.727932E+0	1.678504E+0	1.731819E+0	1.710672E+0	1.713219E+0	1.689696E+0	1.771493E+0	1.661968E+0	1.708274E+0	1.721709E+0	1.712989E+0	1.681834E+0	1.653876E+0	1.698681E+0	1.697496E+0	1.696250E+0	1.661844E+0	1.677529E+0	1.857442E+0
5.357090E+2	1.557993E+0	1.533654E+0	1.565324E+0	1.005853E+1	1.482235E+0	1.506485E+0	1.571074E+0	1.515693E+0	1.504042E+0	1.490263E+0	1.441326E+0	1.508208E+0	1.534689E+0	1.503570E+0	1.550590E+0	1.557223E+0	1.526668E+0	1.530417E+0	1.545728E+0	1.540072E+0	1.515409E+0	1.540973E+0	1.569363E+0	1.516119E+0	1.549536E+0	1.613522E+0	1.523820E+0	1.545662E+0	1.528405E+0	1.568017E+0	1.549730E+0	1.514954E+0	1.533905E+0	1.470815E+0	1.557194E+0	1.523962E+0	1.531429E+0	1.489404E+0	1.513608E+0	1.534851E+0	1.600111E+0	1.515449E+0	1.569590E+0	1.518018E+0	1.493330E+0	1.500621E+0	1.509836E+0	1.500037E+0	1.569551E+0	1.500929E+0	1.552523E+0	1.546156E+0	1.537572E+0	1.526229E+0	1.573176E+0	1.590274E+0	1.527101E+0	1.484296E+0	1.584807E+0	1.568019E+0	1.589510E+0	1.535457E+0	1.512915E+0	1.548842E+0	1.569478E+0	1.544333E+0	1.532171E+0	1.513333E+0	1.510063E+0	1.508755E+0	1.577782E+0	1.468060E+0	1.537879E+0	1.503336E+0	1.479021E+0	1.453388E+0	1.579022E+0	1.492364E+0	1.569586E+0	1.528766E+0	1.541817E+0	1.560709E+0	1.662709E+0	1.543808E+0	1.472514E+0	1.561433E+0	1.610915E+0	1.573551E+0	1.595053E+0	1.522601E+0	1.582481E+0	1.513905E+0	1.517280E+0	1.478395E+0	1.535058E+0	1.580437E+0	1.534463E+0	1.592863E+0	1.547283E+0	1.506397E+0	1.497045E+0	1.537892E+0	1.541215E+0	1.530407E+0	1.513399E+0	1.472065E+0	1.491940E+0	1.517557E+0	1.503959E+0	1.583905E+0	1.559238E+0	1.499883E+0	1.542945E+0	1.533296E+0	1.550556E+0	1.510376E+0	1.522711E+0	1.582309E+0	1.480779E+0	1.551654E+0	1.512535E+0	1.588235E+0	1.526932E+0	1.599115E+0	1.515273E+0	1.531687E+0	1.496917E+0	1.539875E+0	1.563121E+0	1.561256E+0	1.511712E+0	1.528027E+0	1.536725E+0	1.531420E+0	1.483370E+0	1.519402E+0	1.607470E+0	1.482619E+0	1.552929E+0	1.481745E+0	1.525925E+0	1.607717E+0	1.516611E+0	1.509366E+0	1.516123E+0	1.501028E+0	1.490034E+0	1.526451E+0	1.490220E+0	1.524753E+0	1.523463E+0	1.500822E+0	1.495747E+0	1.555914E+0	1.517545E+0	1.569133E+0	1.487719E+0	1.531590E+0	1.537410E+0	1.504512E+0	1.476824E+0	1.584626E+0	1.546781E+0	1.594612E+0	1.489750E+0	1.547038E+0	1.565403E+0	1.543909E+0	1.502215E+0	1.562991E+0	1.464093E+0	1.433722E+0
5.358550E+2	1.297036E+0	1.273967E+0	1.268594E+0	7.789034E+0	1.235742E+0	1.268487E+0	1.316868E+0	1.287889E+0	1.240691E+0	1.361699E+0	1.285903E+0	1.355412E+0	1.290190E+0	1.320617E+0	1.279515E+0	1.322258E+0	1.244605E+0	1.322409E+0	1.255282E+0	1.302774E+0	1.246558E+0	1.263974E+0	1.314293E+0	1.269433E+0	1.299855E+0	1.328414E+0	1.339771E+0	1.243540E+0	1.301401E+0	1.264020E+0	1.284286E+0	1.359011E+0	1.307572E+0	1.280965E+0	1.282148E+0	1.291602E+0	1.244130E+0	1.260213E+0	1.301739E+0	1.313636E+0	1.314797E+0	1.256545E+0	1.316906E+0	1.263649E+0	1.262374E+0	1.234282E+0	1.290342E+0	1.289703E+0	1.295163E+0	1.337948E+0	1.276341E+0	1.279394E+0	1.293707E+0	1.251797E+0	1.365761E+0	1.307563E+0	1.278684E+0	1.275518E+0	1.318898E+0	1.300343E+0	1.305657E+0	1.253553E+0	1.285189E+0	1.324205E+0	1.243426E+0	1.277369E+0	1.274825E+0	1.266890E+0	1.298218E+0	1.237793E+0	1.349426E+0	1.264489E+0	1.299637E+0	1.259026E+0	1.303440E+0	1.307668E+0	1.297515E+0	1.311430E+0	1.268196E+0	1.272632E+0	1.293439E+0	1.308944E+0	1.317132E+0	1.318832E+0	1.257594E+0	1.257280E+0	1.306946E+0	1.309883E+0	1.309507E+0	1.329854E+0	1.245428E+0	1.303679E+0	1.313335E+0	1.324926E+0	1.348349E+0	1.319201E+0	1.289168E+0	1.283665E+0	1.310215E+0	1.313493E+0	1.280311E+0	1.294065E+0	1.323696E+0	1.270960E+0	1.259408E+0	1.294865E+0	1.298975E+0	1.314732E+0	1.270597E+0	1.324158E+0	1.314317E+0	1.280153E+0	1.295909E+0	1.269109E+0	1.283968E+0	1.236156E+0	1.314435E+0	1.268071E+0	1.276632E+0	1.315221E+0	1.302010E+0	1.305822E+0	1.246456E+0	1.329698E+0	1.278044E+0	1.285220E+0	1.329790E+0	1.271019E+0	1.313695E+0	1.321798E+0	1.233987E+0	1.285943E+0	1.305654E+0	1.262792E+0	1.304182E+0	1.304914E+0	1.317675E+0	1.273037E+0	1.287364E+0	1.358119E+0	1.310636E+0	1.275888E+0	1.295718E+0	1.268352E+0	1.274013E+0	1.327892E+0	1.348612E+0	1.254755E+0	1.278572E+0	1.250509E+0	1.353327E+0	1.288912E+0	1.251134E+0	1.271912E+0	1.285237E+0	1.291015E+0	1.239644E+0	1.287347E+0	1.251832E+0	1.330561E+0	1.242846E+0	1.284029E+0	1.299341E+0	1.349471E+0	1.253954E+0	1.296594E+0	1.329174E+0	1.263320E+0	1.272932E+0	1.307688E+0	1.234047E+0	1.364824E+0
5.360120E+2	1.154989E+0	1.063320E+0	1.108956E+0	6.842996E+0	1.066984E+0	1.094979E+0	1.131917E+0	1.177428E+0	1.056831E+0	1.082994E+0	1.130830E+0	1.140598E+0	1.087695E+0	1.030820E+0	1.096717E+0	1.129773E+0	1.105925E+0	1.111136E+0	1.121980E+0	1.075109E+0	1.072646E+0	1.130947E+0	1.122239E+0	1.100626E+0	1.153396E+0	1.123291E+0	1.089090E+0	1.152472E+0	1.096452E+0	1.063829E+0	1.114624E+0	1.118962E+0	1.091286E+0	1.101323E+0	1.073810E+0	1.129690E+0	1.074137E+0	1.116178E+0	1.089141E+0	1.134818E+0	1.081125E+0	1.102879E+0	1.128358E+0	1.088420E+0	1.094011E+0	1.123933E+0	1.102431E+0	1.096701E+0	1.093765E+0	1.047712E+0	1.120684E+0	1.132050E+0	1.125634E+0	1.092573E+0	1.146284E+0	1.120551E+0	1.090464E+0	1.062909E+0	1.096321E+0	1.093089E+0	1.142026E+0	1.088339E+0	1.082257E+0	1.108611E+0	1.078796E+0	1.125491E+0	1.104151E+0	1.137279E+0	1.067666E+0	1.087041E+0	1.184724E+0	1.111163E+0	1.113675E+0	1.101982E+0	1.074362E+0	1.163606E+0	1.135753E+0	1.085662E+0	1.103104E+0	1.095560E+0	1.111451E+0	1.108085E+0	1.100359E+0	1.070390E+0	1.099291E+0	1.116099E+0	1.137279E+0	1.169831E+0	1.127820E+0	1.088210E+0	1.123869E+0	1.092554E+0	1.138479E+0	1.100099E+0	1.094706E+0	1.130135E+0	1.086331E+0	1.077374E+0	1.133234E+0	1.110374E+0	1.151863E+0	1.065591E+0	1.160514E+0	1.131538E+0	1.091860E+0	1.101345E+0	1.139872E+0	1.068352E+0	1.098262E+0	1.096455E+0	1.123392E+0	1.153672E+0	1.096546E+0	1.063834E+0	1.085251E+0	1.103198E+0	1.091854E+0	1.102871E+0	1.058842E+0	1.060946E+0	1.134304E+0	1.116323E+0	1.116729E+0	1.114452E+0	1.083305E+0	1.101745E+0	1.080745E+0	1.143344E+0	1.129693E+0	1.120108E+0	1.066461E+0	1.094830E+0	1.160202E+0	1.066156E+0	1.171130E+0	1.128749E+0	1.117688E+0	1.180698E+0	1.144853E+0	1.052614E+0	1.069100E+0	1.135699E+0	1.084150E+0	1.095831E+0	1.058397E+0	1.107504E+0	1.121514E+0	1.166552E+0	1.050096E+0	1.103300E+0	1.169755E+0	1.111235E+0	1.104644E+0	1.149188E+0	1.114826E+0	1.077054E+0	1.129050E+0	1.106013E+0	1.070069E+0	1.135740E+0	1.086473E+0	1.155967E+0	1.155730E+0	1.160157E+0	1.126478E+0	1.093313E+0	1.106693E+0	1.101627E+0	1.116677E+0	1.149868E+0	1.150326E+0	1.164126E+0
5.362630E+2	8.553963E-1	7.567764E-1	8.460812E-1	4.959657E+0	7.908912E-1	7.796338E-1	8.045315E-1	8.092100E-1	8.339955E-1	8.149154E-1	8.107573E-1	8.165800E-1	8.025125E-1	7.633096E-1	8.153683E-1	8.108962E-1	7.938795E-1	8.259831E-1	8.299944E-1	8.262360E-1	8.195591E-1	8.072713E-1	8.247484E-1	8.069971E-1	8.267828E-1	7.761571E-1	8.400335E-1	8.156082E-1	8.389264E-1	8.169433E-1	8.396399E-1	8.025139E-1	7.727218E-1	8.467677E-1	8.391281E-1	8.242436E-1	8.194203E-1	8.239456E-1	8.161093E-1	8.389067E-1	7.955233E-1	8.076607E-1	8.103554E-1	8.300110E-1	7.897393E-1	8.497781E-1	8.341336E-1	8.197276E-1	7.832916E-1	8.347176E-1	8.359257E-1	8.008859E-1	8.437928E-1	7.856676E-1	8.377027E-1	8.234719E-1	8.484957E-1	7.758677E-1	8.276594E-1	8.167496E-1	8.036303E-1	8.184593E-1	8.251480E-1	8.510631E-1	8.163590E-1	8.069691E-1	7.874646E-1	8.624296E-1	7.995857E-1	8.038486E-1	8.216366E-1	8.214055E-1	8.322588E-1	8.028090E-1	7.911491E-1	8.222369E-1	8.382518E-1	8.514953E-1	8.225491E-1	8.183627E-1	8.026815E-1	8.131162E-1	7.894838E-1	8.035409E-1	8.109928E-1	7.825862E-1	7.985922E-1	7.946795E-1	8.108922E-1	8.035262E-1	8.263561E-1	8.332073E-1	8.172024E-1	8.448353E-1	8.182066E-1	8.074877E-1	8.174800E-1	7.752077E-1	8.301631E-1	8.562191E-1	8.328733E-1	8.006212E-1	8.217758E-1	8.613565E-1	8.509545E-1	8.126999E-1	8.520648E-1	8.227089E-1	8.266690E-1	8.020777E-1	8.126606E-1	8.240662E-1	8.141804E-1	8.288381E-1	8.687821E-1	8.054676E-1	8.184792E-1	8.394020E-1	8.435593E-1	8.652868E-1	8.463310E-1	8.550575E-1	8.155308E-1	8.494872E-1	8.029388E-1	8.064927E-1	8.029559E-1	8.223712E-1	8.793655E-1	8.711433E-1	8.410230E-1	8.561498E-1	8.220210E-1	8.149929E-1	8.555762E-1	8.374904E-1	8.466570E-1	8.006935E-1	8.316848E-1	8.902548E-1	8.535966E-1	8.478667E-1	8.182998E-1	7.806958E-1	7.987300E-1	8.461681E-1	8.412929E-1	8.366031E-1	8.376005E-1	8.382104E-1	8.539126E-1	8.113359E-1	8.217533E-1	8.173345E-1	8.590233E-1	8.276249E-1	8.253792E-1	8.095864E-1	8.415136E-1	8.670706E-1	8.215990E-1	8.035537E-1	8.674485E-1	8.589102E-1	8.328440E-1	8.190498E-1	8.452149E-1	8.341463E-1	8.573812E-1	7.928608E-1	8.050547E-1	8.834062E-1
5.365090E+2	6.349058E-1	6.209706E-1	6.231564E-1	4.396316E+0	6.323838E-1	6.372317E-1	6.712603E-1	6.311640E-1	6.568411E-1	6.463131E-1	6.236757E-1	6.688873E-1	6.336525E-1	6.467746E-1	6.341951E-1	6.700437E-1	6.212064E-1	6.376891E-1	6.905808E-1	6.590441E-1	6.410459E-1	6.466353E-1	6.980518E-1	6.316482E-1	6.515084E-1	6.772111E-1	6.609325E-1	6.460083E-1	6.278221E-1	6.134119E-1	6.659441E-1	6.658951E-1	6.399313E-1	6.548438E-1	6.635775E-1	6.438290E-1	6.577300E-1	6.517245E-1	6.351802E-1	6.523224E-1	6.631139E-1	6.275992E-1	6.256114E-1	6.406925E-1	6.471167E-1	6.796918E-1	6.430337E-1	6.523908E-1	6.410594E-1	6.443901E-1	6.734569E-1	6.590172E-1	6.990426E-1	6.524830E-1	6.613542E-1	6.527193E-1	6.400698E-1	6.431485E-1	6.549041E-1	6.542782E-1	6.639621E-1	6.733046E-1	6.188133E-1	6.667119E-1	6.468091E-1	6.359327E-1	6.765163E-1	6.528759E-1	6.420386E-1	6.289630E-1	6.552479E-1	6.524621E-1	6.652622E-1	6.400109E-1	6.217008E-1	6.274595E-1	6.324164E-1	6.428728E-1	6.591708E-1	6.809771E-1	6.602443E-1	6.486580E-1	6.522184E-1	6.327316E-1	6.304377E-1	6.573824E-1	6.608945E-1	7.201467E-1	6.485752E-1	6.568604E-1	6.843713E-1	6.586299E-1	6.614158E-1	6.517339E-1	6.702938E-1	6.810161E-1	6.656701E-1	6.923895E-1	6.702097E-1	6.658864E-1	6.610205E-1	6.795579E-1	6.759914E-1	6.499294E-1	6.008868E-1	6.588536E-1	6.472418E-1	6.240049E-1	6.570902E-1	6.742396E-1	6.390559E-1	6.703364E-1	6.491302E-1	6.773100E-1	6.903860E-1	6.955970E-1	6.497629E-1	6.641524E-1	6.597093E-1	6.662464E-1	7.017518E-1	6.177083E-1	6.177795E-1	6.875723E-1	6.794477E-1	6.511945E-1	6.873352E-1	6.678526E-1	6.803534E-1	6.315836E-1	6.357033E-1	6.341303E-1	6.566159E-1	6.505557E-1	6.851757E-1	6.693197E-1	6.871196E-1	6.551187E-1	6.928982E-1	6.595804E-1	6.449492E-1	6.777424E-1	6.532167E-1	6.326120E-1	6.466911E-1	6.622580E-1	6.942280E-1	6.679276E-1	6.701524E-1	6.593288E-1	6.877486E-1	6.505147E-1	6.296862E-1	7.105444E-1	6.679706E-1	6.939425E-1	6.455165E-1	6.853388E-1	6.842179E-1	6.733870E-1	6.492116E-1	6.747590E-1	6.514258E-1	6.856890E-1	6.646308E-1	6.874803E-1	6.242339E-1	6.535751E-1	6.554556E-1	7.167377E-1	7.043664E-1	6.692912E-1
5.368080E+2	5.201872E-1	5.072676E-1	5.163848E-1	3.561717E+0	4.885899E-1	5.473116E-1	5.422128E-1	5.582197E-1	5.165737E-1	5.226729E-1	5.535318E-1	5.404422E-1	5.283977E-1	5.018971E-1	5.307148E-1	5.462989E-1	5.111798E-1	5.229843E-1	5.441935E-1	5.305455E-1	5.241440E-1	5.012281E-1	5.318203E-1	4.926894E-1	4.992004E-1	5.728322E-1	5.533927E-1	5.203348E-1	5.468405E-1	5.479633E-1	5.470814E-1	5.308113E-1	5.259510E-1	5.558980E-1	5.403895E-1	5.364840E-1	5.516614E-1	5.116049E-1	5.118947E-1	5.097018E-1	5.332290E-1	5.431384E-1	5.521372E-1	5.440023E-1	5.226621E-1	5.420990E-1	5.232977E-1	5.310841E-1	5.438484E-1	5.230726E-1	5.882739E-1	5.322498E-1	5.467577E-1	5.197800E-1	5.557299E-1	5.451747E-1	5.238008E-1	5.228814E-1	5.229628E-1	5.594500E-1	5.362334E-1	5.394388E-1	5.408261E-1	5.556719E-1	5.165060E-1	5.246438E-1	5.274750E-1	5.423514E-1	5.470544E-1	5.413458E-1	5.478382E-1	5.652429E-1	5.214543E-1	5.091854E-1	5.233944E-1	4.905996E-1	5.659824E-1	5.729075E-1	5.242575E-1	5.524309E-1	5.344438E-1	5.498247E-1	5.694966E-1	5.432923E-1	5.432950E-1	5.094033E-1	5.555147E-1	5.655408E-1	5.513943E-1	5.088833E-1	5.315109E-1	5.268619E-1	5.562111E-1	5.595136E-1	5.327533E-1	5.314077E-1	5.403079E-1	5.107133E-1	5.317160E-1	5.269709E-1	5.496372E-1	5.259910E-1	5.304437E-1	5.461465E-1	5.525770E-1	4.993516E-1	4.930441E-1	5.421565E-1	5.510425E-1	5.309488E-1	5.381045E-1	5.487704E-1	5.423003E-1	5.280036E-1	5.041711E-1	5.174889E-1	5.253036E-1	5.028197E-1	5.279892E-1	5.558862E-1	5.091208E-1	5.511288E-1	5.297863E-1	5.432652E-1	5.121561E-1	5.594911E-1	5.205050E-1	5.425547E-1	5.415461E-1	5.321253E-1	5.452938E-1	5.527560E-1	5.377894E-1	5.299493E-1	5.562069E-1	5.389263E-1	6.011829E-1	5.375847E-1	5.612920E-1	5.382655E-1	5.151079E-1	5.391247E-1	5.536026E-1	5.404878E-1	5.332912E-1	5.354341E-1	5.593053E-1	5.638064E-1	5.190915E-1	5.066369E-1	5.650291E-1	5.460802E-1	5.214260E-1	5.601089E-1	5.518796E-1	5.703178E-1	5.538437E-1	5.434137E-1	5.531556E-1	5.578578E-1	5.540061E-1	5.608272E-1	5.703565E-1	5.670187E-1	5.250371E-1	5.534519E-1	5.487700E-1	5.474013E-1	5.151230E-1	5.936300E-1	5.305425E-1	6.824636E-1
5.370010E+2	4.941470E-1	4.708437E-1	4.569116E-1	3.245005E+0	5.055514E-1	4.558321E-1	4.684591E-1	4.798728E-1	4.541638E-1	4.858836E-1	4.898795E-1	4.974536E-1	4.686187E-1	4.979587E-1	4.782709E-1	4.623629E-1	4.671684E-1	4.939579E-1	5.144228E-1	4.783531E-1	4.609748E-1	4.855013E-1	4.963148E-1	4.967627E-1	5.101903E-1	4.779143E-1	4.905596E-1	5.155479E-1	4.861981E-1	4.944721E-1	4.805586E-1	4.845248E-1	4.754061E-1	4.828298E-1	4.896251E-1	4.251846E-1	4.914668E-1	4.892011E-1	4.747599E-1	4.961783E-1	4.927166E-1	5.205246E-1	4.835935E-1	4.935389E-1	4.827527E-1	4.813476E-1	4.718524E-1	4.844531E-1	4.981807E-1	4.552931E-1	5.289948E-1	4.831598E-1	4.910531E-1	4.684871E-1	4.688429E-1	4.903161E-1	5.064017E-1	5.012084E-1	4.542307E-1	4.820511E-1	4.851871E-1	4.976773E-1	5.002071E-1	4.929151E-1	4.623776E-1	4.930753E-1	5.098577E-1	5.056024E-1	5.126954E-1	4.778684E-1	4.915502E-1	4.497062E-1	5.031664E-1	4.748390E-1	4.773066E-1	4.932224E-1	4.862919E-1	4.836551E-1	5.226786E-1	4.988710E-1	4.745114E-1	4.643290E-1	5.063014E-1	4.733307E-1	4.812702E-1	5.102170E-1	5.190166E-1	4.924756E-1	5.002894E-1	5.037140E-1	5.077380E-1	4.795934E-1	4.914994E-1	4.798463E-1	4.961882E-1	5.102935E-1	4.593552E-1	5.416308E-1	4.992029E-1	4.677515E-1	4.807590E-1	4.903667E-1	4.859080E-1	4.829322E-1	4.963073E-1	4.896055E-1	4.888633E-1	4.860431E-1	4.907173E-1	5.067072E-1	5.204417E-1	5.015112E-1	4.882539E-1	4.808512E-1	5.117307E-1	4.992284E-1	5.024511E-1	4.894895E-1	5.108113E-1	5.216855E-1	5.054538E-1	4.902802E-1	4.716489E-1	5.048760E-1	4.866078E-1	5.057204E-1	5.018669E-1	4.801162E-1	5.037841E-1	5.381192E-1	4.802034E-1	4.634608E-1	5.116809E-1	4.742413E-1	4.711970E-1	4.673644E-1	5.351894E-1	5.099223E-1	4.728128E-1	4.930891E-1	5.022744E-1	5.048167E-1	5.135100E-1	5.062332E-1	4.447840E-1	4.963090E-1	4.866663E-1	4.926494E-1	4.859213E-1	5.012647E-1	5.186835E-1	4.888313E-1	5.126036E-1	5.080777E-1	4.952725E-1	5.168654E-1	4.997098E-1	4.727115E-1	5.182642E-1	5.206495E-1	4.859704E-1	4.883794E-1	5.002802E-1	5.324617E-1	5.233283E-1	4.931617E-1	5.078567E-1	4.611079E-1	5.130391E-1	5.222941E-1	4.668622E-1	5.206026E-1
5.372640E+2	4.642667E-1	4.021035E-1	4.257967E-1	2.846417E+0	4.432400E-1	3.907892E-1	4.317954E-1	4.456492E-1	4.246574E-1	4.243774E-1	3.898995E-1	4.384167E-1	4.443621E-1	4.483589E-1	4.287527E-1	4.612540E-1	4.277881E-1	4.556248E-1	4.359973E-1	4.406975E-1	4.246764E-1	4.430304E-1	4.214501E-1	4.747520E-1	4.359329E-1	4.420076E-1	4.354362E-1	4.563108E-1	4.449809E-1	4.535005E-1	4.402423E-1	4.623702E-1	4.475531E-1	4.447478E-1	4.313091E-1	4.385467E-1	4.414711E-1	4.271417E-1	4.358788E-1	4.588474E-1	4.519982E-1	4.694767E-1	4.643097E-1	4.301004E-1	4.406641E-1	4.259245E-1	4.356494E-1	4.133022E-1	4.381709E-1	4.699344E-1	4.173903E-1	4.255861E-1	4.448558E-1	4.481709E-1	4.631834E-1	4.148400E-1	4.521591E-1	4.430468E-1	4.854370E-1	4.671646E-1	4.376418E-1	4.514485E-1	4.296017E-1	4.663779E-1	4.410632E-1	4.585252E-1	4.476309E-1	4.549708E-1	4.341392E-1	4.507061E-1	4.520569E-1	4.465392E-1	4.339337E-1	4.347280E-1	4.527381E-1	4.632617E-1	4.546659E-1	4.499097E-1	4.498299E-1	4.607713E-1	4.392019E-1	4.337454E-1	4.542460E-1	4.382810E-1	4.249851E-1	4.427875E-1	4.612592E-1	4.699980E-1	4.360324E-1	4.298909E-1	4.520227E-1	4.747811E-1	4.645334E-1	4.381202E-1	4.434262E-1	4.303783E-1	4.492787E-1	4.135313E-1	4.821315E-1	4.546098E-1	4.507030E-1	4.400974E-1	4.485637E-1	4.396577E-1	4.265073E-1	4.483652E-1	4.574525E-1	4.654626E-1	4.140662E-1	4.992729E-1	4.583113E-1	4.572670E-1	4.531571E-1	4.290081E-1	4.309698E-1	4.510549E-1	4.555634E-1	4.464896E-1	4.324057E-1	4.528040E-1	4.736938E-1	4.551517E-1	4.642813E-1	4.574635E-1	4.243210E-1	4.588318E-1	4.576308E-1	4.528744E-1	4.839089E-1	4.383353E-1	4.663239E-1	4.453017E-1	4.389781E-1	4.594794E-1	4.518684E-1	4.486402E-1	4.408593E-1	4.367530E-1	4.212780E-1	4.358106E-1	4.553024E-1	4.904229E-1	4.710738E-1	4.469619E-1	4.078116E-1	4.478766E-1	4.819410E-1	4.714360E-1	4.769844E-1	4.337337E-1	4.685214E-1	4.435507E-1	4.567239E-1	4.572008E-1	4.290049E-1	4.626135E-1	4.742396E-1	4.520866E-1	4.411224E-1	4.819752E-1	4.705947E-1	4.585135E-1	4.551608E-1	4.333962E-1	4.771329E-1	4.640178E-1	4.750693E-1	4.547638E-1	4.556907E-1	4.694293E-1	4.528018E-1	4.880928E-1
5.375110E+2	4.848918E-1	4.511345E-1	4.848985E-1	3.253275E+0	4.785583E-1	4.746111E-1	4.790733E-1	4.622194E-1	4.669150E-1	5.019344E-1	4.493990E-1	4.749480E-1	4.876683E-1	4.665359E-1	4.659268E-1	4.807375E-1	4.748516E-1	4.820866E-1	4.729914E-1	4.803459E-1	4.706183E-1	4.707847E-1	4.835285E-1	4.896842E-1	4.749057E-1	4.630229E-1	4.441536E-1	4.590642E-1	4.743232E-1	4.906198E-1	4.731671E-1	4.745893E-1	4.691994E-1	4.706847E-1	4.727141E-1	4.883472E-1	4.864625E-1	4.654221E-1	4.716284E-1	4.585047E-1	4.742218E-1	4.703134E-1	4.828016E-1	4.801214E-1	4.703565E-1	4.609620E-1	4.967780E-1	4.779306E-1	4.930794E-1	4.629972E-1	4.938188E-1	4.840097E-1	4.716700E-1	4.712571E-1	4.815612E-1	4.650532E-1	4.793424E-1	4.709871E-1	4.794573E-1	4.794282E-1	4.956182E-1	4.685745E-1	4.727546E-1	4.919349E-1	4.754574E-1	4.507094E-1	4.682052E-1	4.819531E-1	4.636869E-1	4.563934E-1	4.793529E-1	5.075698E-1	4.801906E-1	4.930659E-1	4.738892E-1	4.637027E-1	4.720395E-1	4.803853E-1	4.769242E-1	4.925134E-1	4.695716E-1	5.102918E-1	4.567609E-1	4.929096E-1	4.725865E-1	4.690372E-1	4.954695E-1	4.961214E-1	4.793804E-1	4.863101E-1	4.902536E-1	4.593704E-1	4.976663E-1	4.801644E-1	4.830267E-1	5.087836E-1	4.945864E-1	4.914390E-1	5.093245E-1	4.612155E-1	5.043080E-1	4.799547E-1	4.871977E-1	5.016992E-1	4.575568E-1	4.904713E-1	4.850560E-1	4.671336E-1	4.883793E-1	4.908310E-1	4.882440E-1	4.941081E-1	4.767331E-1	4.695579E-1	4.837955E-1	5.006500E-1	4.991196E-1	4.516920E-1	4.786222E-1	5.057018E-1	5.028011E-1	4.398744E-1	5.289855E-1	4.979524E-1	5.055092E-1	5.054457E-1	4.867894E-1	4.767008E-1	4.928988E-1	4.843294E-1	4.871404E-1	5.121881E-1	4.942632E-1	5.169880E-1	4.826948E-1	4.983554E-1	5.203882E-1	4.864188E-1	5.031870E-1	4.956209E-1	4.934947E-1	4.791421E-1	4.909564E-1	4.724299E-1	4.806153E-1	4.825631E-1	5.016413E-1	4.959853E-1	4.914682E-1	4.688273E-1	4.911799E-1	5.235969E-1	4.920059E-1	4.444901E-1	4.660983E-1	4.893851E-1	4.804856E-1	4.943425E-1	4.787863E-1	4.807296E-1	4.751179E-1	4.570294E-1	4.730192E-1	5.112126E-1	4.607978E-1	4.740311E-1	4.779748E-1	4.946621E-1	4.696512E-1	5.394090E-1	5.337140E-1	6.166104E-1
5.377630E+2	5.365754E-1	5.491379E-1	5.547804E-1	4.241299E+0	5.006537E-1	5.158565E-1	5.388053E-1	5.645810E-1	5.449441E-1	5.406473E-1	5.338849E-1	5.355315E-1	5.440263E-1	5.267605E-1	5.252323E-1	5.604885E-1	5.112307E-1	5.617161E-1	5.209321E-1	5.348384E-1	5.330035E-1	5.720942E-1	5.369968E-1	5.420106E-1	5.328379E-1	5.536029E-1	5.602786E-1	5.584443E-1	5.420430E-1	5.371092E-1	5.551885E-1	5.312480E-1	5.374049E-1	5.095624E-1	5.639567E-1	5.408409E-1	5.421314E-1	5.557005E-1	5.270228E-1	5.713864E-1	5.420425E-1	5.450723E-1	5.466811E-1	5.041981E-1	5.620289E-1	5.732706E-1	5.680026E-1	5.196826E-1	5.147514E-1	5.362127E-1	5.764050E-1	5.652155E-1	5.490526E-1	5.387215E-1	5.647917E-1	5.382347E-1	5.582238E-1	5.391337E-1	5.865238E-1	5.621038E-1	5.806403E-1	5.529527E-1	5.353084E-1	5.555373E-1	5.794795E-1	5.432530E-1	5.423130E-1	5.657663E-1	5.263713E-1	5.225095E-1	5.457830E-1	5.508426E-1	5.551943E-1	5.580001E-1	5.451792E-1	5.802908E-1	5.721844E-1	5.662030E-1	5.593894E-1	5.518446E-1	5.313306E-1	5.510373E-1	5.297852E-1	5.541684E-1	5.199971E-1	5.409457E-1	5.488397E-1	5.676614E-1	5.646767E-1	5.623285E-1	5.821077E-1	5.480394E-1	5.472816E-1	5.449315E-1	5.373227E-1	5.639763E-1	5.552394E-1	5.287056E-1	5.328246E-1	5.300896E-1	5.498546E-1	5.643572E-1	5.393132E-1	5.634246E-1	5.585006E-1	5.437665E-1	5.845305E-1	5.594558E-1	5.488616E-1	5.849312E-1	5.479365E-1	5.723619E-1	5.838991E-1	5.214778E-1	5.546788E-1	5.818004E-1	5.423235E-1	5.473650E-1	5.556052E-1	5.737924E-1	5.020308E-1	5.357443E-1	5.440581E-1	6.365724E-1	5.527848E-1	5.362018E-1	5.226573E-1	5.899664E-1	5.569517E-1	5.508662E-1	5.713567E-1	5.421477E-1	5.625911E-1	5.397741E-1	5.428239E-1	5.216614E-1	5.611804E-1	5.392626E-1	5.554592E-1	5.570457E-1	5.309144E-1	5.711679E-1	5.676765E-1	5.207731E-1	5.531577E-1	5.518902E-1	5.371260E-1	5.687027E-1	5.365599E-1	5.777787E-1	5.709542E-1	5.750982E-1	5.449301E-1	5.545394E-1	5.929061E-1	5.460987E-1	5.719868E-1	5.434899E-1	5.799202E-1	5.739696E-1	5.424092E-1	5.313662E-1	5.637745E-1	5.639382E-1	5.418346E-1	5.797758E-1	5.360339E-1	5.683014E-1	5.303777E-1	5.644204E-1	5.274687E-1	7.168047E-1
5.380160E+2	7.044419E-1	6.531840E-1	6.465508E-1	4.960291E+0	6.533149E-1	6.991307E-1	6.711385E-1	6.824135E-1	6.174477E-1	6.709754E-1	6.193177E-1	6.714235E-1	6.672436E-1	6.610898E-1	6.568146E-1	6.608935E-1	6.458322E-1	6.694564E-1	6.758149E-1	6.766813E-1	6.550877E-1	6.925867E-1	6.650028E-1	6.755839E-1	6.593647E-1	6.752731E-1	6.862947E-1	6.942190E-1	6.966271E-1	6.730335E-1	7.111546E-1	7.056596E-1	7.063407E-1	6.300375E-1	6.840775E-1	6.906486E-1	6.820598E-1	6.795341E-1	6.592339E-1	7.045465E-1	7.385250E-1	6.591055E-1	6.634374E-1	6.568562E-1	6.664298E-1	6.480854E-1	6.564765E-1	6.724853E-1	7.005997E-1	6.667722E-1	6.831375E-1	6.979322E-1	6.689836E-1	6.899911E-1	6.393071E-1	6.848247E-1	6.756283E-1	6.632933E-1	6.579568E-1	6.841320E-1	6.755290E-1	6.926621E-1	6.920134E-1	6.624391E-1	7.156061E-1	6.895186E-1	7.175532E-1	6.904810E-1	6.573032E-1	6.551486E-1	6.926606E-1	6.783711E-1	6.623153E-1	6.720770E-1	6.962594E-1	6.776979E-1	6.776496E-1	6.820672E-1	6.696368E-1	6.856255E-1	6.702868E-1	7.087262E-1	6.847096E-1	7.011250E-1	6.488548E-1	6.854341E-1	6.565927E-1	7.176258E-1	7.408079E-1	6.780261E-1	6.501598E-1	6.934423E-1	6.715690E-1	6.867704E-1	6.992564E-1	7.003015E-1	6.250930E-1	6.947201E-1	7.040575E-1	6.536519E-1	6.699706E-1	7.064058E-1	6.814915E-1	6.842990E-1	6.625137E-1	6.500210E-1	6.733106E-1	6.899142E-1	6.839669E-1	7.076218E-1	6.989931E-1	6.911418E-1	6.841528E-1	6.973587E-1	6.920598E-1	6.430293E-1	6.682166E-1	6.730892E-1	6.712687E-1	7.012246E-1	6.770546E-1	6.713603E-1	7.093694E-1	6.513271E-1	6.900708E-1	6.884295E-1	6.731752E-1	6.718108E-1	7.021473E-1	6.938237E-1	6.633120E-1	6.842887E-1	6.854254E-1	6.724263E-1	6.889075E-1	6.935357E-1	6.915588E-1	6.819100E-1	6.685588E-1	6.946310E-1	6.765245E-1	7.062456E-1	6.784490E-1	6.759623E-1	6.527556E-1	6.965598E-1	6.417250E-1	6.911057E-1	6.884767E-1	6.671962E-1	6.903130E-1	7.100162E-1	6.740086E-1	6.665440E-1	6.806827E-1	7.287607E-1	6.596591E-1	7.031400E-1	6.698502E-1	7.184297E-1	6.779970E-1	7.066762E-1	6.890174E-1	7.565824E-1	6.578895E-1	6.994215E-1	6.823785E-1	6.885275E-1	6.551918E-1	7.288081E-1	6.636463E-1	7.432051E-1
5.382690E+2	8.526834E-1	8.234653E-1	8.010278E-1	5.338453E+0	8.222168E-1	8.278196E-1	8.460076E-1	8.929086E-1	8.143770E-1	8.508014E-1	8.219840E-1	7.978783E-1	8.243790E-1	8.153845E-1	8.110845E-1	8.549545E-1	8.449112E-1	8.536314E-1	8.856409E-1	8.561468E-1	8.270655E-1	7.955669E-1	8.357331E-1	8.330168E-1	8.485397E-1	7.890387E-1	8.464710E-1	8.371931E-1	8.238232E-1	8.478524E-1	8.313611E-1	8.714583E-1	8.617186E-1	8.210389E-1	8.312781E-1	8.127831E-1	7.879203E-1	8.239649E-1	7.958581E-1	8.680029E-1	8.417580E-1	8.682045E-1	8.320229E-1	8.121226E-1	8.212095E-1	8.044701E-1	8.622467E-1	8.485551E-1	8.134053E-1	8.264481E-1	8.382922E-1	8.633824E-1	8.588803E-1	7.989741E-1	8.289053E-1	8.307225E-1	8.406043E-1	8.340709E-1	8.081174E-1	8.000943E-1	8.151488E-1	8.386197E-1	8.053897E-1	8.814458E-1	8.472728E-1	8.186472E-1	8.270406E-1	8.465432E-1	8.153458E-1	8.546759E-1	8.429634E-1	8.878245E-1	8.319250E-1	8.464240E-1	8.045369E-1	8.526384E-1	8.813771E-1	8.121308E-1	8.186172E-1	8.074653E-1	8.436753E-1	7.931926E-1	8.648153E-1	8.454600E-1	8.221070E-1	8.564404E-1	8.510395E-1	8.899392E-1	8.452156E-1	8.340035E-1	8.431561E-1	8.626659E-1	8.289659E-1	8.375829E-1	8.342126E-1	8.509439E-1	8.393312E-1	8.367746E-1	8.634460E-1	8.329053E-1	8.661758E-1	8.223022E-1	8.288808E-1	8.607251E-1	8.284185E-1	8.477907E-1	8.343493E-1	8.461673E-1	8.622011E-1	8.882629E-1	8.644861E-1	8.792356E-1	8.300983E-1	8.268518E-1	8.165023E-1	8.459247E-1	8.630905E-1	8.186740E-1	8.090762E-1	8.253326E-1	8.339003E-1	8.747863E-1	8.405857E-1	8.780571E-1	8.636258E-1	8.760326E-1	8.343114E-1	8.794999E-1	9.051260E-1	8.294300E-1	8.269359E-1	8.458557E-1	8.514797E-1	8.531559E-1	7.796269E-1	8.400619E-1	8.938116E-1	8.169444E-1	8.190263E-1	8.574995E-1	8.626491E-1	8.419438E-1	8.914551E-1	8.170013E-1	8.431084E-1	8.416405E-1	8.559863E-1	7.940856E-1	8.274278E-1	7.976334E-1	8.737992E-1	8.223401E-1	8.075149E-1	8.245883E-1	8.622405E-1	8.810756E-1	8.421927E-1	8.418050E-1	8.451930E-1	8.658523E-1	8.297558E-1	8.224593E-1	8.448087E-1	8.419434E-1	8.669559E-1	8.600768E-1	8.466340E-1	8.469933E-1	8.868437E-1	8.592604E-1	8.263881E-1	9.208946E-1
5.385110E+2	1.028278E+0	9.729179E-1	1.063513E+0	6.911096E+0	1.049986E+0	1.026724E+0	9.949055E-1	1.099222E+0	1.004516E+0	1.025675E+0	1.022771E+0	1.075337E+0	1.008168E+0	1.034302E+0	1.068819E+0	1.055823E+0	1.048240E+0	1.022677E+0	1.048395E+0	1.061928E+0	1.038608E+0	1.001639E+0	1.025721E+0	1.039555E+0	1.073564E+0	1.067408E+0	1.039862E+0	1.063339E+0	1.059494E+0	1.048604E+0	1.052372E+0	1.073344E+0	1.027705E+0	1.052997E+0	1.055544E+0	1.046135E+0	1.058931E+0	1.028245E+0	1.028088E+0	1.056059E+0	1.049220E+0	1.098103E+0	1.069864E+0	1.032668E+0	1.023246E+0	1.034869E+0	1.054807E+0	1.052097E+0	1.039977E+0	1.071148E+0	1.039666E+0	1.054182E+0	1.042958E+0	1.014041E+0	1.027098E+0	1.082051E+0	1.107721E+0	1.007742E+0	1.061971E+0	1.073967E+0	1.059189E+0	1.002429E+0	1.047015E+0	1.034598E+0	1.034627E+0	1.023632E+0	1.045777E+0	1.035206E+0	1.002463E+0	1.006586E+0	1.031468E+0	1.065224E+0	1.026920E+0	9.991652E-1	1.041123E+0	1.005440E+0	1.025264E+0	1.055160E+0	1.044549E+0	1.059823E+0	1.057478E+0	1.043566E+0	1.037441E+0	1.042800E+0	1.041840E+0	1.023342E+0	1.000692E+0	1.086525E+0	1.034135E+0	1.028343E+0	1.088088E+0	1.047187E+0	1.044948E+0	1.026063E+0	9.951110E-1	1.058131E+0	1.082171E+0	1.056878E+0	1.033456E+0	1.039468E+0	1.070922E+0	1.030655E+0	1.046961E+0	1.035244E+0	1.032493E+0	1.028705E+0	1.075523E+0	1.019714E+0	1.039753E+0	1.083451E+0	1.072298E+0	1.061378E+0	1.055606E+0	1.052182E+0	1.019688E+0	1.045207E+0	1.061318E+0	1.083266E+0	1.048770E+0	1.073956E+0	1.083140E+0	1.019353E+0	1.010838E+0	1.042954E+0	1.075608E+0	1.106256E+0	1.047162E+0	1.071632E+0	1.067745E+0	1.034250E+0	1.012892E+0	1.038270E+0	1.062925E+0	9.737511E-1	1.009624E+0	1.048986E+0	1.099879E+0	1.072281E+0	1.003907E+0	1.089088E+0	1.067083E+0	1.061114E+0	1.073141E+0	1.035865E+0	1.033110E+0	1.016174E+0	1.092247E+0	1.058766E+0	1.055147E+0	9.882229E-1	1.053429E+0	1.047629E+0	1.029925E+0	1.017463E+0	1.082485E+0	1.049197E+0	1.056477E+0	1.039776E+0	1.076682E+0	1.086274E+0	1.009784E+0	1.075836E+0	1.055194E+0	1.054440E+0	1.034886E+0	1.018067E+0	1.031068E+0	1.021051E+0	1.106245E+0	1.039802E+0	1.033458E+0	1.297725E+0
5.387650E+2	1.255105E+0	1.219871E+0	1.175262E+0	8.855936E+0	1.219111E+0	1.266335E+0	1.235506E+0	1.227568E+0	1.239618E+0	1.289594E+0	1.212705E+0	1.187613E+0	1.226139E+0	1.226349E+0	1.232709E+0	1.266149E+0	1.263594E+0	1.256561E+0	1.231084E+0	1.272747E+0	1.213988E+0	1.187136E+0	1.192249E+0	1.277754E+0	1.235130E+0	1.251051E+0	1.245278E+0	1.289788E+0	1.238500E+0	1.242995E+0	1.280785E+0	1.243910E+0	1.275634E+0	1.210077E+0	1.179272E+0	1.220746E+0	1.256933E+0	1.216404E+0	1.229208E+0	1.296482E+0	1.205120E+0	1.241642E+0	1.239853E+0	1.200933E+0	1.206702E+0	1.202068E+0	1.220958E+0	1.183277E+0	1.288673E+0	1.192270E+0	1.268992E+0	1.308100E+0	1.232055E+0	1.198306E+0	1.214772E+0	1.240033E+0	1.226990E+0	1.172759E+0	1.233956E+0	1.255967E+0	1.276018E+0	1.204574E+0	1.223057E+0	1.204160E+0	1.260991E+0	1.178073E+0	1.216119E+0	1.237881E+0	1.216706E+0	1.254914E+0	1.209946E+0	1.255352E+0	1.302712E+0	1.218846E+0	1.172089E+0	1.235505E+0	1.275653E+0	1.253435E+0	1.236724E+0	1.247075E+0	1.201977E+0	1.248406E+0	1.227800E+0	1.266171E+0	1.234886E+0	1.212748E+0	1.208006E+0	1.275556E+0	1.260607E+0	1.245497E+0	1.245052E+0	1.227274E+0	1.228420E+0	1.241704E+0	1.240001E+0	1.238187E+0	1.240103E+0	1.207358E+0	1.294797E+0	1.215508E+0	1.216585E+0	1.220673E+0	1.255029E+0	1.222259E+0	1.198515E+0	1.206313E+0	1.243425E+0	1.239426E+0	1.254681E+0	1.248377E+0	1.216442E+0	1.202450E+0	1.181483E+0	1.199338E+0	1.218332E+0	1.260618E+0	1.202020E+0	1.212296E+0	1.248160E+0	1.247851E+0	1.242593E+0	1.179134E+0	1.219713E+0	1.217291E+0	1.258087E+0	1.215466E+0	1.260279E+0	1.234267E+0	1.245756E+0	1.213473E+0	1.232625E+0	1.229676E+0	1.207939E+0	1.243654E+0	1.211753E+0	1.275128E+0	1.235875E+0	1.227578E+0	1.255407E+0	1.287544E+0	1.188307E+0	1.247121E+0	1.232483E+0	1.233112E+0	1.211917E+0	1.211162E+0	1.218009E+0	1.246926E+0	1.226055E+0	1.217144E+0	1.249751E+0	1.264484E+0	1.237733E+0	1.272563E+0	1.240897E+0	1.225350E+0	1.244960E+0	1.207658E+0	1.222175E+0	1.284650E+0	1.205265E+0	1.244844E+0	1.170746E+0	1.264531E+0	1.191272E+0	1.245307E+0	1.205660E+0	1.238256E+0	1.260689E+0	1.336239E+0	1.237577E+0	1.389085E+0
5.390340E+2	1.417793E+0	1.312358E+0	1.349788E+0	6.303822E+0	1.346932E+0	1.395886E+0	1.342546E+0	1.421744E+0	1.315216E+0	1.409279E+0	1.405966E+0	1.413869E+0	1.376633E+0	1.405826E+0	1.391462E+0	1.412231E+0	1.389398E+0	1.414222E+0	1.378689E+0	1.416803E+0	1.381919E+0	1.397186E+0	1.386404E+0	1.460395E+0	1.386157E+0	1.418518E+0	1.387838E+0	1.464458E+0	1.413667E+0	1.448129E+0	1.409801E+0	1.426061E+0	1.348310E+0	1.429311E+0	1.417243E+0	1.316325E+0	1.388635E+0	1.358323E+0	1.428538E+0	1.418605E+0	1.383958E+0	1.401333E+0	1.419442E+0	1.426951E+0	1.383036E+0	1.376905E+0	1.430563E+0	1.381518E+0	1.414711E+0	1.409318E+0	1.410289E+0	1.390112E+0	1.415433E+0	1.420434E+0	1.390694E+0	1.404838E+0	1.370886E+0	1.394191E+0	1.334496E+0	1.413047E+0	1.404776E+0	1.418354E+0	1.399154E+0	1.400151E+0	1.395950E+0	1.332649E+0	1.374839E+0	1.376857E+0	1.373427E+0	1.405527E+0	1.342532E+0	1.442267E+0	1.446882E+0	1.370878E+0	1.376103E+0	1.412894E+0	1.426579E+0	1.396193E+0	1.470710E+0	1.402359E+0	1.433424E+0	1.376306E+0	1.427181E+0	1.337844E+0	1.388129E+0	1.366878E+0	1.423735E+0	1.425683E+0	1.427131E+0	1.391801E+0	1.347146E+0	1.456311E+0	1.376421E+0	1.343229E+0	1.386370E+0	1.433316E+0	1.428012E+0	1.382383E+0	1.368026E+0	1.388759E+0	1.374749E+0	1.387405E+0	1.380943E+0	1.418716E+0	1.431969E+0	1.341573E+0	1.396085E+0	1.455958E+0	1.375018E+0	1.397242E+0	1.401490E+0	1.381472E+0	1.377363E+0	1.409524E+0	1.351213E+0	1.371711E+0	1.370846E+0	1.382815E+0	1.349777E+0	1.416633E+0	1.377163E+0	1.369615E+0	1.354018E+0	1.427022E+0	1.435076E+0	1.416107E+0	1.406893E+0	1.371596E+0	1.379190E+0	1.357634E+0	1.341131E+0	1.415808E+0	1.389476E+0	1.381494E+0	1.406022E+0	1.347100E+0	1.391849E+0	1.355524E+0	1.412721E+0	1.385470E+0	1.354554E+0	1.365099E+0	1.399467E+0	1.372614E+0	1.341696E+0	1.431520E+0	1.414087E+0	1.393290E+0	1.376443E+0	1.319261E+0	1.387695E+0	1.378177E+0	1.360196E+0	1.387995E+0	1.379094E+0	1.416671E+0	1.382824E+0	1.378705E+0	1.354923E+0	1.409923E+0	1.339245E+0	1.330626E+0	1.443239E+0	1.377488E+0	1.360244E+0	1.340623E+0	1.371458E+0	1.421836E+0	1.363083E+0	1.354030E+0	1.342961E+0	1.506363E+0
5.392780E+2	1.675790E+0	1.595455E+0	1.517789E+0	6.594135E+0	1.606220E+0	1.596789E+0	1.575376E+0	1.605693E+0	1.594240E+0	1.662747E+0	1.595976E+0	1.625203E+0	1.612080E+0	1.582102E+0	1.546795E+0	1.634714E+0	1.625350E+0	1.630135E+0	1.599719E+0	1.648574E+0	1.628478E+0	1.585446E+0	1.631152E+0	1.570124E+0	1.635397E+0	1.639410E+0	1.652278E+0	1.661469E+0	1.626358E+0	1.646262E+0	1.612034E+0	1.656940E+0	1.650615E+0	1.665810E+0	1.647862E+0	1.533322E+0	1.583835E+0	1.566268E+0	1.542864E+0	1.663241E+0	1.596942E+0	1.606630E+0	1.668318E+0	1.551825E+0	1.611947E+0	1.540790E+0	1.606053E+0	1.616436E+0	1.601303E+0	1.595665E+0	1.589438E+0	1.674340E+0	1.668693E+0	1.584553E+0	1.618841E+0	1.639341E+0	1.659153E+0	1.557570E+0	1.613815E+0	1.649213E+0	1.651333E+0	1.644133E+0	1.628636E+0	1.665657E+0	1.621947E+0	1.569293E+0	1.645929E+0	1.654600E+0	1.624400E+0	1.513524E+0	1.589280E+0	1.664594E+0	1.612726E+0	1.574288E+0	1.593177E+0	1.613405E+0	1.625881E+0	1.644854E+0	1.573677E+0	1.641126E+0	1.618027E+0	1.568809E+0	1.601967E+0	1.585699E+0	1.572392E+0	1.555293E+0	1.612105E+0	1.626809E+0	1.644670E+0	1.562970E+0	1.630480E+0	1.617998E+0	1.550330E+0	1.569189E+0	1.575357E+0	1.657047E+0	1.580785E+0	1.559461E+0	1.617532E+0	1.597902E+0	1.631637E+0	1.592293E+0	1.572722E+0	1.636954E+0	1.676185E+0	1.573923E+0	1.589012E+0	1.591611E+0	1.608542E+0	1.590822E+0	1.621392E+0	1.607350E+0	1.579037E+0	1.625078E+0	1.603115E+0	1.562586E+0	1.584251E+0	1.572665E+0	1.565670E+0	1.677495E+0	1.679514E+0	1.566334E+0	1.612752E+0	1.660815E+0	1.616171E+0	1.607196E+0	1.646632E+0	1.590227E+0	1.713529E+0	1.582730E+0	1.586027E+0	1.554221E+0	1.605904E+0	1.611687E+0	1.649438E+0	1.607130E+0	1.633447E+0	1.565979E+0	1.630126E+0	1.576087E+0	1.585610E+0	1.620844E+0	1.574033E+0	1.595346E+0	1.537713E+0	1.607877E+0	1.604758E+0	1.626908E+0	1.597793E+0	1.562726E+0	1.623468E+0	1.629037E+0	1.575597E+0	1.569860E+0	1.613537E+0	1.684047E+0	1.581864E+0	1.605696E+0	1.537413E+0	1.588032E+0	1.546076E+0	1.576187E+0	1.532165E+0	1.664795E+0	1.620679E+0	1.516992E+0	1.577415E+0	1.577217E+0	1.651587E+0	1.602717E+0	1.580904E+0	1.585813E+0
5.395160E+2	1.918590E+0	1.805407E+0	1.896335E+0	4.561015E+0	1.852330E+0	1.837936E+0	1.847598E+0	1.834614E+0	1.882835E+0	1.912493E+0	1.805461E+0	1.912351E+0	1.810066E+0	1.892094E+0	1.891378E+0	1.958607E+0	1.868668E+0	1.905433E+0	1.859679E+0	1.911398E+0	1.878221E+0	1.878325E+0	1.871187E+0	1.925906E+0	1.910143E+0	1.886276E+0	1.958822E+0	1.895817E+0	1.867871E+0	1.885210E+0	1.878221E+0	1.910064E+0	1.934264E+0	1.867452E+0	1.850830E+0	1.828794E+0	1.881756E+0	1.880333E+0	1.853370E+0	1.834086E+0	1.864646E+0	1.835778E+0	1.911394E+0	1.808033E+0	1.897839E+0	1.786896E+0	1.836231E+0	1.851960E+0	1.919517E+0	1.856404E+0	1.962162E+0	1.885585E+0	1.930728E+0	1.850639E+0	1.829888E+0	1.855481E+0	1.866990E+0	1.844104E+0	1.897648E+0	1.809166E+0	1.945801E+0	1.856729E+0	1.872345E+0	1.906795E+0	1.833974E+0	1.844513E+0	1.867597E+0	1.846190E+0	1.914875E+0	1.799638E+0	1.884727E+0	1.810075E+0	1.878356E+0	1.837893E+0	1.870161E+0	1.855337E+0	1.904789E+0	1.910609E+0	1.877728E+0	1.854023E+0	1.845298E+0	1.875560E+0	1.817217E+0	1.854525E+0	1.860869E+0	1.850746E+0	1.833360E+0	1.888695E+0	1.885999E+0	1.866158E+0	1.878972E+0	1.908127E+0	1.885991E+0	1.856119E+0	1.849373E+0	1.887003E+0	1.851029E+0	1.865766E+0	1.874699E+0	1.862985E+0	1.854093E+0	1.811434E+0	1.838544E+0	1.884642E+0	1.856496E+0	1.798140E+0	1.912918E+0	1.873070E+0	1.813860E+0	1.860055E+0	1.860558E+0	1.878609E+0	1.808720E+0	1.842096E+0	1.885585E+0	1.885530E+0	1.868291E+0	1.863712E+0	1.834185E+0	1.902695E+0	1.810414E+0	1.794189E+0	1.815314E+0	1.896435E+0	1.808831E+0	1.828431E+0	1.832598E+0	1.789531E+0	1.894258E+0	1.835472E+0	1.857758E+0	1.825499E+0	1.843061E+0	1.825233E+0	1.830097E+0	1.772860E+0	1.835772E+0	1.870621E+0	1.837793E+0	1.911786E+0	1.824605E+0	1.869968E+0	1.863888E+0	1.815232E+0	1.799505E+0	1.939138E+0	1.869608E+0	1.799434E+0	1.854996E+0	1.709585E+0	1.807511E+0	1.842287E+0	1.817471E+0	1.769982E+0	1.822162E+0	1.863576E+0	1.844547E+0	1.858973E+0	1.804005E+0	1.817358E+0	1.844888E+0	1.752171E+0	1.902030E+0	1.919552E+0	1.816869E+0	1.841513E+0	1.830690E+0	1.859889E+0	1.869506E+0	1.833228E+0	1.833301E+0	2.080297E+0
5.397910E+2	2.070113E+0	1.885715E+0	2.018240E+0	3.211233E+0	1.980678E+0	1.924281E+0	1.908479E+0	1.998696E+0	1.949373E+0	2.062369E+0	1.958389E+0	2.058488E+0	2.038067E+0	2.043264E+0	2.019498E+0	2.042459E+0	2.015079E+0	2.034371E+0	2.037682E+0	2.048835E+0	2.015743E+0	2.010099E+0	1.985958E+0	1.978666E+0	2.003449E+0	1.969447E+0	1.952146E+0	1.994574E+0	1.997864E+0	2.004523E+0	1.959448E+0	2.008554E+0	2.001013E+0	1.953887E+0	1.978631E+0	1.966731E+0	1.969894E+0	2.015977E+0	1.968280E+0	2.002876E+0	2.057385E+0	1.971422E+0	2.065426E+0	1.965908E+0	1.954974E+0	1.885283E+0	1.998917E+0	1.949761E+0	1.967649E+0	2.008235E+0	1.958385E+0	1.993419E+0	2.003821E+0	1.984475E+0	2.028439E+0	2.002872E+0	2.043560E+0	2.010794E+0	2.067419E+0	2.056935E+0	2.044444E+0	1.902439E+0	2.004345E+0	2.007574E+0	2.005663E+0	1.968048E+0	1.996723E+0	1.929647E+0	1.994927E+0	1.941292E+0	1.979155E+0	1.990932E+0	2.067451E+0	2.002231E+0	1.926191E+0	1.938869E+0	2.052705E+0	1.926803E+0	2.029211E+0	2.071015E+0	2.023329E+0	1.987207E+0	1.927383E+0	1.996296E+0	1.991436E+0	2.025196E+0	1.926496E+0	1.981572E+0	2.001206E+0	2.007227E+0	1.976646E+0	1.978319E+0	2.011552E+0	1.995745E+0	1.998329E+0	2.016692E+0	1.965888E+0	1.975797E+0	1.911217E+0	1.934455E+0	1.959627E+0	1.991888E+0	1.929101E+0	1.973505E+0	2.064462E+0	1.899722E+0	1.987158E+0	1.888746E+0	1.997479E+0	2.056238E+0	2.006022E+0	1.951543E+0	1.945337E+0	1.959148E+0	1.911882E+0	1.925846E+0	1.935239E+0	1.908862E+0	1.890571E+0	1.993910E+0	1.991191E+0	1.950128E+0	1.968094E+0	2.013536E+0	1.955935E+0	1.951168E+0	1.959974E+0	1.954506E+0	1.998192E+0	1.960645E+0	1.918133E+0	1.956078E+0	2.006429E+0	1.944650E+0	1.917896E+0	1.936562E+0	1.986446E+0	1.938458E+0	1.966789E+0	1.930183E+0	1.962468E+0	2.018262E+0	2.005777E+0	1.944416E+0	1.969945E+0	1.901422E+0	1.906856E+0	1.899166E+0	1.972412E+0	1.902345E+0	1.898118E+0	2.011783E+0	1.895575E+0	1.967061E+0	1.916457E+0	2.008263E+0	1.982849E+0	1.953331E+0	1.936711E+0	1.992417E+0	1.914911E+0	1.926329E+0	1.936721E+0	2.006104E+0	1.938299E+0	1.898423E+0	1.895316E+0	1.917537E+0	1.953954E+0	2.018873E+0	1.856493E+0	1.951119E+0
5.400350E+2	2.151639E+0	1.941955E+0	2.066945E+0	3.357873E+0	2.015650E+0	2.015189E+0	2.024709E+0	2.032702E+0	2.027448E+0	2.035556E+0	2.045990E+0	2.032882E+0	1.992591E+0	2.021812E+0	2.012370E+0	2.133455E+0	1.997208E+0	2.012620E+0	2.052966E+0	2.085343E+0	2.030341E+0	2.018436E+0	2.021140E+0	2.032521E+0	2.103501E+0	2.088901E+0	2.053378E+0	2.041405E+0	2.031618E+0	1.979508E+0	1.919137E+0	2.080901E+0	2.001283E+0	2.061839E+0	2.018463E+0	2.019285E+0	2.020940E+0	2.041809E+0	2.037629E+0	2.032818E+0	2.068031E+0	2.059325E+0	2.071224E+0	2.010794E+0	1.979706E+0	1.962958E+0	2.013218E+0	2.018389E+0	2.054136E+0	2.047211E+0	2.016875E+0	2.047779E+0	2.005973E+0	1.969439E+0	2.093684E+0	2.014725E+0	2.108266E+0	1.988508E+0	1.985260E+0	1.996362E+0	2.112683E+0	2.037607E+0	2.012920E+0	2.044549E+0	2.002752E+0	1.996006E+0	2.041655E+0	2.080673E+0	2.047694E+0	1.974862E+0	2.034273E+0	2.035073E+0	2.097407E+0	1.982431E+0	1.991619E+0	2.018171E+0	2.077360E+0	2.027856E+0	2.022570E+0	2.084302E+0	2.060187E+0	1.980995E+0	2.058423E+0	2.005400E+0	2.013596E+0	2.045542E+0	2.011001E+0	2.047473E+0	2.118522E+0	2.002582E+0	2.026849E+0	1.942460E+0	2.042448E+0	2.032087E+0	2.002508E+0	2.072845E+0	1.984159E+0	2.036908E+0	2.063673E+0	1.965476E+0	2.055377E+0	2.004006E+0	1.991851E+0	1.974810E+0	2.057726E+0	1.931059E+0	1.969745E+0	1.962783E+0	2.013085E+0	2.029033E+0	2.009103E+0	2.020483E+0	2.057316E+0	2.063205E+0	1.972654E+0	1.971068E+0	1.984265E+0	2.050660E+0	1.976759E+0	2.034906E+0	2.028757E+0	1.936158E+0	1.928049E+0	1.977494E+0	2.017440E+0	2.014922E+0	1.943717E+0	2.006339E+0	2.034089E+0	1.984509E+0	2.039900E+0	1.965163E+0	1.992852E+0	1.968512E+0	1.971211E+0	1.996212E+0	2.008980E+0	1.998044E+0	2.034788E+0	2.075562E+0	2.008853E+0	2.058548E+0	2.021093E+0	1.979424E+0	2.016029E+0	1.966498E+0	2.009580E+0	1.956357E+0	2.028752E+0	1.922249E+0	2.034118E+0	1.920447E+0	1.909147E+0	2.018371E+0	1.983778E+0	2.030630E+0	2.063097E+0	1.952319E+0	1.976136E+0	2.024500E+0	1.937072E+0	2.001927E+0	1.946788E+0	2.034358E+0	1.955200E+0	1.925132E+0	2.009843E+0	2.029666E+0	2.062983E+0	2.062264E+0	1.878895E+0	2.154349E+0
5.402740E+2	2.054028E+0	1.906751E+0	2.000648E+0	2.921787E+0	1.953288E+0	1.983602E+0	1.993384E+0	1.952271E+0	1.966782E+0	2.003734E+0	1.919790E+0	1.937790E+0	1.983041E+0	1.957175E+0	2.006153E+0	1.984400E+0	1.966291E+0	2.023806E+0	2.004823E+0	1.975999E+0	1.971909E+0	1.995820E+0	1.937084E+0	1.958958E+0	2.047250E+0	1.994838E+0	2.021519E+0	1.976463E+0	1.989886E+0	2.046603E+0	1.927264E+0	2.058243E+0	1.951729E+0	2.014183E+0	1.953917E+0	1.979023E+0	1.918773E+0	2.004755E+0	1.951955E+0	1.927167E+0	2.041831E+0	1.945306E+0	1.957919E+0	1.940905E+0	1.939178E+0	1.940146E+0	1.963219E+0	1.940871E+0	1.975814E+0	1.990673E+0	1.998614E+0	1.970756E+0	1.962662E+0	1.896980E+0	1.979418E+0	1.991760E+0	2.059968E+0	1.951068E+0	2.017390E+0	1.896232E+0	2.014729E+0	1.901602E+0	1.937222E+0	1.974659E+0	1.960063E+0	1.903996E+0	1.924872E+0	1.967423E+0	1.949380E+0	1.955693E+0	1.943138E+0	1.966998E+0	2.034530E+0	1.913289E+0	1.920324E+0	2.003284E+0	1.947978E+0	1.971767E+0	1.960673E+0	2.024573E+0	1.989172E+0	1.951547E+0	1.872527E+0	1.885008E+0	1.958190E+0	1.983505E+0	1.964630E+0	1.966301E+0	2.012446E+0	1.952468E+0	2.008533E+0	1.871218E+0	1.955494E+0	2.012114E+0	1.966932E+0	1.952554E+0	1.917574E+0	1.996535E+0	1.934841E+0	1.936513E+0	2.027278E+0	1.963844E+0	1.959368E+0	1.960082E+0	1.961064E+0	1.917464E+0	1.971101E+0	1.945644E+0	1.953797E+0	1.909436E+0	1.884722E+0	1.899178E+0	1.939087E+0	1.974699E+0	2.004030E+0	1.850538E+0	1.957889E+0	1.976935E+0	1.912169E+0	1.914053E+0	2.003121E+0	1.986166E+0	1.924505E+0	1.957610E+0	1.976646E+0	1.966274E+0	2.001361E+0	1.966176E+0	1.956100E+0	1.993304E+0	1.933645E+0	1.903696E+0	1.919706E+0	1.883244E+0	1.905005E+0	1.917347E+0	2.047838E+0	1.967105E+0	1.946663E+0	1.959529E+0	1.945384E+0	1.939763E+0	1.877138E+0	1.900948E+0	1.852500E+0	2.018630E+0	1.854835E+0	1.927897E+0	1.979022E+0	1.880803E+0	1.891824E+0	1.904349E+0	1.906041E+0	1.956329E+0	1.920583E+0	1.899736E+0	1.978667E+0	1.939370E+0	1.890652E+0	1.945177E+0	1.923340E+0	1.908603E+0	1.915200E+0	1.944893E+0	1.913861E+0	1.939537E+0	1.921370E+0	1.891677E+0	1.851806E+0	1.968014E+0	1.861460E+0	1.929849E+0
5.405080E+2	1.927158E+0	1.749199E+0	1.791484E+0	2.631057E+0	1.788137E+0	1.836972E+0	1.838815E+0	1.855074E+0	1.814142E+0	1.844292E+0	1.755634E+0	1.828768E+0	1.795145E+0	1.826252E+0	1.840276E+0	1.815101E+0	1.817559E+0	1.811970E+0	1.814606E+0	1.805998E+0	1.795178E+0	1.776198E+0	1.781270E+0	1.795146E+0	1.797651E+0	1.744355E+0	1.835682E+0	1.775770E+0	1.827518E+0	1.827818E+0	1.772944E+0	1.823186E+0	1.846237E+0	1.827701E+0	1.750126E+0	1.799780E+0	1.795853E+0	1.778873E+0	1.772612E+0	1.761339E+0	1.813181E+0	1.760155E+0	1.810942E+0	1.738463E+0	1.742513E+0	1.799530E+0	1.808799E+0	1.809033E+0	1.809922E+0	1.802939E+0	1.783059E+0	1.752776E+0	1.791327E+0	1.736332E+0	1.826347E+0	1.748999E+0	1.832672E+0	1.767229E+0	1.828325E+0	1.774371E+0	1.845811E+0	1.747131E+0	1.790485E+0	1.787519E+0	1.871237E+0	1.781273E+0	1.845522E+0	1.784124E+0	1.786084E+0	1.771274E+0	1.810806E+0	1.767219E+0	1.861980E+0	1.770110E+0	1.759761E+0	1.764906E+0	1.826351E+0	1.822718E+0	1.784013E+0	1.781267E+0	1.838798E+0	1.822184E+0	1.822869E+0	1.850117E+0	1.803390E+0	1.795121E+0	1.699849E+0	1.834917E+0	1.847938E+0	1.824169E+0	1.768423E+0	1.819664E+0	1.814759E+0	1.790700E+0	1.745565E+0	1.848989E+0	1.838901E+0	1.750640E+0	1.790220E+0	1.751562E+0	1.831481E+0	1.788269E+0	1.786824E+0	1.747658E+0	1.901829E+0	1.802597E+0	1.809562E+0	1.793493E+0	1.779604E+0	1.803804E+0	1.774534E+0	1.761963E+0	1.760155E+0	1.768080E+0	1.776823E+0	1.733823E+0	1.809741E+0	1.797210E+0	1.714895E+0	1.773383E+0	1.801659E+0	1.738901E+0	1.726205E+0	1.853776E+0	1.798735E+0	1.795754E+0	1.747887E+0	1.822825E+0	1.758462E+0	1.747282E+0	1.796905E+0	1.752102E+0	1.781678E+0	1.755771E+0	1.788727E+0	1.739412E+0	1.854600E+0	1.841841E+0	1.704303E+0	1.787691E+0	1.748941E+0	1.804473E+0	1.761801E+0	1.746080E+0	1.773289E+0	1.763768E+0	1.797531E+0	1.746455E+0	1.841916E+0	1.725386E+0	1.778482E+0	1.725196E+0	1.792387E+0	1.824016E+0	1.764876E+0	1.796904E+0	1.766757E+0	1.770941E+0	1.740123E+0	1.799666E+0	1.702615E+0	1.767308E+0	1.764647E+0	1.805542E+0	1.752670E+0	1.681146E+0	1.699949E+0	1.763000E+0	1.815694E+0	1.801158E+0	1.757551E+0	1.983176E+0
5.407630E+2	1.663323E+0	1.589890E+0	1.693363E+0	2.301865E+0	1.656867E+0	1.662619E+0	1.686265E+0	1.657624E+0	1.644318E+0	1.692329E+0	1.693902E+0	1.687578E+0	1.680317E+0	1.642306E+0	1.673369E+0	1.720538E+0	1.634694E+0	1.650995E+0	1.734778E+0	1.656765E+0	1.647707E+0	1.702913E+0	1.672328E+0	1.653606E+0	1.730304E+0	1.661099E+0	1.683866E+0	1.647411E+0	1.709198E+0	1.663294E+0	1.675379E+0	1.645513E+0	1.702096E+0	1.669091E+0	1.657393E+0	1.642198E+0	1.665433E+0	1.644180E+0	1.633598E+0	1.648122E+0	1.680483E+0	1.638459E+0	1.696978E+0	1.665338E+0	1.653654E+0	1.646251E+0	1.657393E+0	1.637387E+0	1.646741E+0	1.665459E+0	1.668921E+0	1.671289E+0	1.673427E+0	1.661905E+0	1.599559E+0	1.628822E+0	1.647770E+0	1.572759E+0	1.659761E+0	1.613871E+0	1.699435E+0	1.625943E+0	1.688149E+0	1.669576E+0	1.718123E+0	1.669084E+0	1.717905E+0	1.619182E+0	1.666380E+0	1.649373E+0	1.678342E+0	1.665456E+0	1.671155E+0	1.661729E+0	1.620011E+0	1.621896E+0	1.688181E+0	1.619152E+0	1.700896E+0	1.649142E+0	1.592254E+0	1.698075E+0	1.686994E+0	1.653957E+0	1.628986E+0	1.647413E+0	1.676329E+0	1.638899E+0	1.741465E+0	1.574501E+0	1.611412E+0	1.650676E+0	1.633475E+0	1.605943E+0	1.624342E+0	1.683447E+0	1.641045E+0	1.629371E+0	1.636792E+0	1.650627E+0	1.726980E+0	1.640615E+0	1.638976E+0	1.623936E+0	1.653580E+0	1.611023E+0	1.701750E+0	1.659079E+0	1.640678E+0	1.598345E+0	1.667872E+0	1.622945E+0	1.663687E+0	1.678330E+0	1.639700E+0	1.647458E+0	1.633996E+0	1.639818E+0	1.640613E+0	1.630744E+0	1.660989E+0	1.642471E+0	1.652411E+0	1.683820E+0	1.667744E+0	1.642847E+0	1.654477E+0	1.628494E+0	1.645495E+0	1.661932E+0	1.656703E+0	1.663425E+0	1.595143E+0	1.683387E+0	1.628859E+0	1.658277E+0	1.691316E+0	1.608663E+0	1.626960E+0	1.667928E+0	1.656300E+0	1.650832E+0	1.676928E+0	1.640491E+0	1.691076E+0	1.663159E+0	1.561662E+0	1.672939E+0	1.646641E+0	1.646151E+0	1.659474E+0	1.596847E+0	1.605131E+0	1.624325E+0	1.628456E+0	1.681486E+0	1.655344E+0	1.650476E+0	1.605587E+0	1.647958E+0	1.654712E+0	1.671134E+0	1.639621E+0	1.616193E+0	1.649942E+0	1.614067E+0	1.602454E+0	1.589722E+0	1.679933E+0	1.621348E+0	1.643224E+0	1.695623E+0
5.410340E+2	1.748124E+0	1.693226E+0	1.676033E+0	2.214412E+0	1.716706E+0	1.709585E+0	1.741153E+0	1.745604E+0	1.734692E+0	1.825941E+0	1.685861E+0	1.758855E+0	1.740271E+0	1.740079E+0	1.743872E+0	1.749472E+0	1.766156E+0	1.800505E+0	1.729976E+0	1.682018E+0	1.720104E+0	1.691183E+0	1.781762E+0	1.726220E+0	1.759185E+0	1.710784E+0	1.761302E+0	1.803487E+0	1.729892E+0	1.727234E+0	1.696805E+0	1.721680E+0	1.745125E+0	1.724112E+0	1.739490E+0	1.787900E+0	1.756076E+0	1.656152E+0	1.730457E+0	1.742304E+0	1.802248E+0	1.791374E+0	1.759698E+0	1.693950E+0	1.766458E+0	1.695059E+0	1.702366E+0	1.709385E+0	1.784028E+0	1.752178E+0	1.756292E+0	1.770430E+0	1.756668E+0	1.736000E+0	1.700722E+0	1.695543E+0	1.734075E+0	1.678044E+0	1.727469E+0	1.648408E+0	1.781517E+0	1.710305E+0	1.728094E+0	1.755160E+0	1.770949E+0	1.702545E+0	1.778372E+0	1.758371E+0	1.723658E+0	1.666428E+0	1.743084E+0	1.727817E+0	1.714763E+0	1.676706E+0	1.735471E+0	1.689615E+0	1.737817E+0	1.703989E+0	1.699918E+0	1.760390E+0	1.679836E+0	1.747610E+0	1.695955E+0	1.718449E+0	1.680708E+0	1.713490E+0	1.740482E+0	1.760230E+0	1.686428E+0	1.715296E+0	1.652459E+0	1.696254E+0	1.731353E+0	1.714357E+0	1.700065E+0	1.764309E+0	1.680243E+0	1.759079E+0	1.706682E+0	1.695925E+0	1.716618E+0	1.682181E+0	1.718702E+0	1.754067E+0	1.732847E+0	1.674675E+0	1.748241E+0	1.658706E+0	1.718440E+0	1.675059E+0	1.748612E+0	1.743741E+0	1.674213E+0	1.761209E+0	1.677404E+0	1.711267E+0	1.775141E+0	1.737424E+0	1.690769E+0	1.698127E+0	1.745352E+0	1.743330E+0	1.652175E+0	1.624143E+0	1.741681E+0	1.709449E+0	1.637697E+0	1.669121E+0	1.812477E+0	1.851694E+0	1.726850E+0	1.717150E+0	1.751756E+0	1.678034E+0	1.751876E+0	1.662600E+0	1.801343E+0	1.715357E+0	1.763277E+0	1.829295E+0	1.764518E+0	1.776627E+0	1.711360E+0	1.732643E+0	1.691584E+0	1.705947E+0	1.662983E+0	1.774803E+0	1.755498E+0	1.665713E+0	1.720253E+0	1.627972E+0	1.709632E+0	1.661169E+0	1.681638E+0	1.699146E+0	1.713513E+0	1.708684E+0	1.707269E+0	1.731394E+0	1.711229E+0	1.717390E+0	1.687851E+0	1.689896E+0	1.689115E+0	1.692514E+0	1.719930E+0	1.711875E+0	1.732772E+0	1.695762E+0	1.584431E+0	1.698526E+0
5.412640E+2	1.741773E+0	1.643110E+0	1.691675E+0	2.255575E+0	1.634956E+0	1.704283E+0	1.642113E+0	1.688269E+0	1.659893E+0	1.725328E+0	1.651411E+0	1.712742E+0	1.698082E+0	1.660156E+0	1.755155E+0	1.705030E+0	1.702004E+0	1.703783E+0	1.636615E+0	1.696357E+0	1.667314E+0	1.699232E+0	1.655527E+0	1.691214E+0	1.729462E+0	1.653712E+0	1.759303E+0	1.717487E+0	1.668951E+0	1.686234E+0	1.691689E+0	1.733124E+0	1.644629E+0	1.688418E+0	1.695678E+0	1.696147E+0	1.688499E+0	1.664179E+0	1.669570E+0	1.706472E+0	1.743993E+0	1.763552E+0	1.682960E+0	1.702431E+0	1.675503E+0	1.672440E+0	1.691965E+0	1.695414E+0	1.660551E+0	1.686468E+0	1.717653E+0	1.722426E+0	1.746367E+0	1.666343E+0	1.683523E+0	1.683639E+0	1.678558E+0	1.607797E+0	1.670901E+0	1.731712E+0	1.654190E+0	1.587911E+0	1.705295E+0	1.696610E+0	1.706607E+0	1.677917E+0	1.683408E+0	1.643356E+0	1.668479E+0	1.631742E+0	1.688961E+0	1.667576E+0	1.750254E+0	1.665303E+0	1.626482E+0	1.631676E+0	1.714708E+0	1.661838E+0	1.676371E+0	1.706435E+0	1.753494E+0	1.705015E+0	1.715996E+0	1.659381E+0	1.702711E+0	1.715398E+0	1.704796E+0	1.700308E+0	1.762046E+0	1.617156E+0	1.609755E+0	1.687144E+0	1.723203E+0	1.673032E+0	1.652422E+0	1.677211E+0	1.674825E+0	1.692484E+0	1.625721E+0	1.657928E+0	1.672582E+0	1.701637E+0	1.740015E+0	1.657669E+0	1.638667E+0	1.654847E+0	1.725600E+0	1.634864E+0	1.696536E+0	1.747747E+0	1.702358E+0	1.619641E+0	1.696345E+0	1.653413E+0	1.698606E+0	1.699331E+0	1.699251E+0	1.675163E+0	1.613739E+0	1.655084E+0	1.696487E+0	1.670342E+0	1.653209E+0	1.690662E+0	1.704554E+0	1.618289E+0	1.701189E+0	1.673012E+0	1.709003E+0	1.642198E+0	1.618914E+0	1.656860E+0	1.697576E+0	1.641000E+0	1.675558E+0	1.633946E+0	1.707187E+0	1.640986E+0	1.638625E+0	1.665660E+0	1.677133E+0	1.708408E+0	1.676875E+0	1.655798E+0	1.688243E+0	1.638023E+0	1.665293E+0	1.649589E+0	1.665664E+0	1.574766E+0	1.706049E+0	1.643795E+0	1.653673E+0	1.698612E+0	1.637737E+0	1.685989E+0	1.694351E+0	1.678988E+0	1.682491E+0	1.713753E+0	1.647661E+0	1.676182E+0	1.661246E+0	1.715116E+0	1.648720E+0	1.617864E+0	1.667557E+0	1.647651E+0	1.680346E+0	1.702881E+0	1.632115E+0	1.714411E+0
5.415140E+2	1.583089E+0	1.541437E+0	1.533823E+0	1.903887E+0	1.487286E+0	1.567082E+0	1.567320E+0	1.544855E+0	1.541529E+0	1.609272E+0	1.556260E+0	1.597548E+0	1.556449E+0	1.488474E+0	1.564249E+0	1.639259E+0	1.559946E+0	1.544142E+0	1.584765E+0	1.536481E+0	1.551215E+0	1.504468E+0	1.561241E+0	1.543490E+0	1.544979E+0	1.556902E+0	1.565513E+0	1.572648E+0	1.538681E+0	1.578968E+0	1.526879E+0	1.553778E+0	1.538923E+0	1.560297E+0	1.571564E+0	1.547768E+0	1.536484E+0	1.543278E+0	1.528221E+0	1.585537E+0	1.635214E+0	1.564177E+0	1.553114E+0	1.536782E+0	1.530444E+0	1.479257E+0	1.542095E+0	1.510036E+0	1.566499E+0	1.572032E+0	1.528819E+0	1.577948E+0	1.514906E+0	1.512345E+0	1.563184E+0	1.533275E+0	1.566513E+0	1.611845E+0	1.590207E+0	1.530904E+0	1.556533E+0	1.591993E+0	1.578903E+0	1.550443E+0	1.595747E+0	1.551010E+0	1.525775E+0	1.559028E+0	1.514895E+0	1.500870E+0	1.581957E+0	1.524135E+0	1.605614E+0	1.543632E+0	1.559025E+0	1.583150E+0	1.593034E+0	1.562575E+0	1.548547E+0	1.546648E+0	1.570065E+0	1.541738E+0	1.515619E+0	1.535922E+0	1.555638E+0	1.590267E+0	1.528903E+0	1.581957E+0	1.606207E+0	1.494369E+0	1.549005E+0	1.525804E+0	1.514022E+0	1.537023E+0	1.514742E+0	1.580716E+0	1.532805E+0	1.563947E+0	1.568531E+0	1.592432E+0	1.571471E+0	1.570563E+0	1.559289E+0	1.512568E+0	1.538301E+0	1.517628E+0	1.596884E+0	1.522957E+0	1.540181E+0	1.504849E+0	1.576619E+0	1.468783E+0	1.535059E+0	1.620656E+0	1.499475E+0	1.482255E+0	1.571922E+0	1.545880E+0	1.508323E+0	1.517898E+0	1.557126E+0	1.539293E+0	1.511882E+0	1.547845E+0	1.568753E+0	1.564339E+0	1.541138E+0	1.511334E+0	1.574005E+0	1.537970E+0	1.489667E+0	1.544164E+0	1.522080E+0	1.558006E+0	1.491421E+0	1.516130E+0	1.589269E+0	1.521321E+0	1.587016E+0	1.587589E+0	1.537858E+0	1.542813E+0	1.571052E+0	1.545814E+0	1.501647E+0	1.542494E+0	1.542679E+0	1.540743E+0	1.556614E+0	1.505979E+0	1.552236E+0	1.533443E+0	1.529592E+0	1.538346E+0	1.613465E+0	1.561082E+0	1.510135E+0	1.532024E+0	1.515200E+0	1.581431E+0	1.532191E+0	1.512405E+0	1.539334E+0	1.500870E+0	1.503331E+0	1.519522E+0	1.472902E+0	1.553208E+0	1.583659E+0	1.586881E+0	1.534177E+0	1.525974E+0
5.417700E+2	1.444121E+0	1.381349E+0	1.382166E+0	1.928696E+0	1.379306E+0	1.395902E+0	1.427830E+0	1.375373E+0	1.350490E+0	1.417342E+0	1.384793E+0	1.407387E+0	1.335364E+0	1.447379E+0	1.426680E+0	1.386101E+0	1.425479E+0	1.436016E+0	1.421566E+0	1.379887E+0	1.400087E+0	1.387617E+0	1.450665E+0	1.410178E+0	1.365699E+0	1.409739E+0	1.446335E+0	1.409244E+0	1.405298E+0	1.456797E+0	1.357395E+0	1.412565E+0	1.399204E+0	1.420678E+0	1.445636E+0	1.344000E+0	1.372707E+0	1.376630E+0	1.367818E+0	1.413631E+0	1.373587E+0	1.438779E+0	1.413338E+0	1.424606E+0	1.409233E+0	1.412327E+0	1.386512E+0	1.384520E+0	1.374295E+0	1.366112E+0	1.405082E+0	1.433975E+0	1.459880E+0	1.332953E+0	1.377841E+0	1.364462E+0	1.400839E+0	1.370721E+0	1.380168E+0	1.417533E+0	1.403084E+0	1.400539E+0	1.392075E+0	1.442952E+0	1.433892E+0	1.379453E+0	1.376439E+0	1.411329E+0	1.361454E+0	1.375076E+0	1.391364E+0	1.380693E+0	1.433828E+0	1.387966E+0	1.361386E+0	1.389983E+0	1.377737E+0	1.378534E+0	1.432306E+0	1.440808E+0	1.386248E+0	1.419596E+0	1.411517E+0	1.387249E+0	1.438520E+0	1.451825E+0	1.350943E+0	1.388452E+0	1.416345E+0	1.382506E+0	1.369223E+0	1.329220E+0	1.419981E+0	1.409477E+0	1.392695E+0	1.411670E+0	1.399424E+0	1.366128E+0	1.397470E+0	1.376298E+0	1.385016E+0	1.389100E+0	1.391877E+0	1.407822E+0	1.430213E+0	1.386005E+0	1.436741E+0	1.388211E+0	1.403955E+0	1.409004E+0	1.394463E+0	1.395339E+0	1.419652E+0	1.382703E+0	1.376583E+0	1.325125E+0	1.353807E+0	1.395053E+0	1.410370E+0	1.396503E+0	1.404032E+0	1.384666E+0	1.415574E+0	1.404211E+0	1.397530E+0	1.362244E+0	1.403119E+0	1.423096E+0	1.406036E+0	1.399203E+0	1.430636E+0	1.363415E+0	1.359328E+0	1.387654E+0	1.369539E+0	1.350927E+0	1.425448E+0	1.401156E+0	1.418326E+0	1.395525E+0	1.396086E+0	1.416892E+0	1.413800E+0	1.360666E+0	1.358729E+0	1.444931E+0	1.369013E+0	1.359387E+0	1.413020E+0	1.276578E+0	1.417804E+0	1.425205E+0	1.392760E+0	1.416238E+0	1.370216E+0	1.384973E+0	1.404047E+0	1.414544E+0	1.377263E+0	1.422926E+0	1.419735E+0	1.407297E+0	1.351831E+0	1.405829E+0	1.381223E+0	1.361856E+0	1.342530E+0	1.348192E+0	1.399087E+0	1.403563E+0	1.437492E+0	1.363674E+0
5.420160E+2	1.290689E+0	1.216659E+0	1.211003E+0	1.406623E+0	1.222457E+0	1.260601E+0	1.232368E+0	1.219282E+0	1.274656E+0	1.267766E+0	1.162660E+0	1.256114E+0	1.270290E+0	1.252228E+0	1.269553E+0	1.259843E+0	1.199503E+0	1.233937E+0	1.260556E+0	1.279686E+0	1.248544E+0	1.233533E+0	1.228309E+0	1.208697E+0	1.273747E+0	1.277287E+0	1.252826E+0	1.297942E+0	1.201118E+0	1.238318E+0	1.213386E+0	1.228231E+0	1.251644E+0	1.227886E+0	1.219294E+0	1.250045E+0	1.238730E+0	1.277833E+0	1.216509E+0	1.280473E+0	1.241790E+0	1.231169E+0	1.245145E+0	1.249040E+0	1.256689E+0	1.240462E+0	1.262528E+0	1.227814E+0	1.238434E+0	1.254689E+0	1.208282E+0	1.253839E+0	1.220571E+0	1.234093E+0	1.250359E+0	1.255721E+0	1.245809E+0	1.282353E+0	1.216403E+0	1.257101E+0	1.229215E+0	1.257726E+0	1.214846E+0	1.233109E+0	1.314452E+0	1.204519E+0	1.233936E+0	1.221958E+0	1.268230E+0	1.212723E+0	1.240366E+0	1.229497E+0	1.263403E+0	1.241625E+0	1.239866E+0	1.245281E+0	1.211055E+0	1.203792E+0	1.266358E+0	1.246252E+0	1.203721E+0	1.270242E+0	1.184222E+0	1.235722E+0	1.244249E+0	1.236156E+0	1.235005E+0	1.209663E+0	1.250163E+0	1.217297E+0	1.236533E+0	1.234738E+0	1.223719E+0	1.299074E+0	1.243821E+0	1.289037E+0	1.190974E+0	1.195670E+0	1.184608E+0	1.227682E+0	1.266306E+0	1.258115E+0	1.260226E+0	1.234019E+0	1.224099E+0	1.258630E+0	1.260176E+0	1.282743E+0	1.218862E+0	1.274523E+0	1.236704E+0	1.256018E+0	1.201466E+0	1.235644E+0	1.253167E+0	1.256323E+0	1.292880E+0	1.234679E+0	1.186497E+0	1.246161E+0	1.219190E+0	1.231390E+0	1.246256E+0	1.234766E+0	1.188691E+0	1.275647E+0	1.205069E+0	1.180103E+0	1.244248E+0	1.180468E+0	1.258866E+0	1.228695E+0	1.237661E+0	1.223243E+0	1.258272E+0	1.234028E+0	1.247005E+0	1.206009E+0	1.233334E+0	1.276639E+0	1.270585E+0	1.269073E+0	1.232641E+0	1.251824E+0	1.164697E+0	1.256765E+0	1.226330E+0	1.212217E+0	1.226920E+0	1.211758E+0	1.255967E+0	1.217248E+0	1.249626E+0	1.269371E+0	1.226166E+0	1.250932E+0	1.278023E+0	1.268990E+0	1.187063E+0	1.251521E+0	1.228648E+0	1.311759E+0	1.235549E+0	1.271180E+0	1.211321E+0	1.244747E+0	1.222261E+0	1.188749E+0	1.206374E+0	1.297439E+0	1.170141E+0	1.291920E+0
5.422670E+2	1.011245E+0	1.014897E+0	9.826589E-1	1.110983E+0	1.014316E+0	9.819943E-1	9.936494E-1	1.006422E+0	9.881548E-1	1.045723E+0	9.741483E-1	1.043451E+0	9.519912E-1	1.005250E+0	1.006596E+0	1.002854E+0	9.722932E-1	1.003399E+0	1.005818E+0	1.030210E+0	9.999866E-1	9.649454E-1	9.852163E-1	9.908048E-1	1.033031E+0	1.005844E+0	1.037318E+0	9.912528E-1	1.002276E+0	1.031030E+0	1.012527E+0	1.011130E+0	1.002841E+0	9.915219E-1	1.009342E+0	9.702827E-1	1.006332E+0	9.833563E-1	9.535210E-1	9.888444E-1	9.720927E-1	1.027694E+0	9.729638E-1	9.706763E-1	9.976122E-1	9.754845E-1	9.824474E-1	1.018320E+0	1.006837E+0	9.936253E-1	9.852317E-1	9.811769E-1	9.969144E-1	9.968114E-1	9.926563E-1	9.813633E-1	9.775702E-1	9.783818E-1	9.784591E-1	1.001631E+0	9.929593E-1	1.034102E+0	9.896689E-1	1.032560E+0	1.000261E+0	9.994393E-1	1.002333E+0	9.493942E-1	9.705409E-1	9.642904E-1	1.013334E+0	9.908649E-1	9.625566E-1	1.029905E+0	9.608242E-1	1.007275E+0	1.005937E+0	9.967912E-1	1.018138E+0	9.896969E-1	1.023652E+0	1.004840E+0	1.005565E+0	9.884823E-1	1.009756E+0	1.043711E+0	9.702853E-1	1.017085E+0	9.929346E-1	1.010318E+0	1.023025E+0	9.914706E-1	9.851713E-1	9.713867E-1	1.016759E+0	9.971907E-1	9.864415E-1	1.051108E+0	1.015297E+0	9.673648E-1	1.061936E+0	1.019729E+0	1.027513E+0	9.860702E-1	9.821683E-1	9.753735E-1	1.037533E+0	9.927147E-1	9.768532E-1	9.955460E-1	9.911160E-1	1.000875E+0	1.000070E+0	1.044050E+0	9.872320E-1	1.013287E+0	9.899164E-1	9.930739E-1	9.763436E-1	1.022676E+0	9.987201E-1	9.773684E-1	1.062733E+0	1.019420E+0	9.711704E-1	9.851361E-1	1.025673E+0	1.000459E+0	1.015504E+0	9.917103E-1	9.837957E-1	9.981769E-1	9.981507E-1	9.596035E-1	9.939906E-1	9.930792E-1	9.678522E-1	1.009520E+0	9.751798E-1	1.060693E+0	9.798252E-1	1.026669E+0	9.812949E-1	1.035943E+0	9.919374E-1	1.023563E+0	9.786589E-1	9.870987E-1	9.973987E-1	9.740115E-1	1.004855E+0	9.988050E-1	9.944808E-1	1.026953E+0	1.015980E+0	1.031376E+0	1.019435E+0	1.041408E+0	9.792450E-1	1.018927E+0	9.969462E-1	1.006650E+0	9.816954E-1	9.846587E-1	1.019027E+0	9.852285E-1	9.903744E-1	9.290501E-1	1.076125E+0	9.544522E-1	1.042461E+0	1.112754E+0
5.425140E+2	9.424317E-1	8.941698E-1	9.646208E-1	9.998578E-1	9.494186E-1	9.400907E-1	9.346388E-1	9.817356E-1	9.528447E-1	9.238472E-1	9.180034E-1	9.018155E-1	9.527338E-1	9.419679E-1	9.560608E-1	9.380500E-1	9.508099E-1	1.002558E+0	9.475033E-1	9.829167E-1	9.448413E-1	1.003851E+0	9.666097E-1	9.556857E-1	9.405886E-1	9.532239E-1	9.526760E-1	9.452807E-1	9.298486E-1	9.633993E-1	9.386444E-1	9.786188E-1	9.502694E-1	1.001114E+0	9.250900E-1	9.364124E-1	9.393703E-1	9.240225E-1	9.143774E-1	9.645348E-1	9.450474E-1	9.862385E-1	9.258612E-1	9.458470E-1	9.165396E-1	9.101209E-1	9.975010E-1	9.478692E-1	9.774726E-1	9.615993E-1	9.701565E-1	9.567090E-1	9.428209E-1	9.466054E-1	9.438134E-1	9.074383E-1	9.402377E-1	9.461569E-1	1.002596E+0	9.352985E-1	9.301571E-1	9.991533E-1	9.474339E-1	9.568881E-1	9.153514E-1	9.836664E-1	9.345836E-1	9.446118E-1	9.493141E-1	9.534324E-1	9.292620E-1	9.195796E-1	9.823607E-1	9.366476E-1	9.390515E-1	9.941453E-1	9.347304E-1	9.621808E-1	9.501140E-1	9.597730E-1	9.421853E-1	9.770075E-1	9.253229E-1	9.755724E-1	9.446473E-1	9.793293E-1	9.634733E-1	9.482351E-1	9.769165E-1	9.999330E-1	9.231206E-1	9.426517E-1	9.365586E-1	9.527420E-1	9.507413E-1	9.454479E-1	9.365549E-1	9.652904E-1	9.710729E-1	9.867720E-1	1.014264E+0	9.429956E-1	9.591540E-1	9.349307E-1	9.612065E-1	9.404084E-1	9.876778E-1	8.967267E-1	9.217111E-1	9.571288E-1	9.938598E-1	9.575208E-1	9.374729E-1	9.905842E-1	9.575077E-1	9.594928E-1	9.404588E-1	9.223443E-1	9.828284E-1	9.580395E-1	9.412929E-1	9.641920E-1	9.349239E-1	9.890294E-1	9.715225E-1	9.353480E-1	9.434476E-1	9.108949E-1	9.618431E-1	9.891257E-1	9.196824E-1	9.501078E-1	9.780891E-1	9.389627E-1	9.506796E-1	9.538372E-1	9.739552E-1	9.562726E-1	9.783163E-1	9.657104E-1	9.512648E-1	9.444770E-1	9.740252E-1	9.504502E-1	9.275107E-1	9.592212E-1	9.836917E-1	9.498638E-1	9.278051E-1	9.196008E-1	9.690148E-1	9.631003E-1	9.472002E-1	9.650607E-1	9.487720E-1	9.400130E-1	9.579686E-1	9.850705E-1	9.602352E-1	9.596890E-1	9.337911E-1	9.258015E-1	9.823216E-1	9.275927E-1	9.617475E-1	9.062422E-1	9.631271E-1	9.614450E-1	9.635750E-1	1.014913E+0	9.459315E-1	1.042811E+0
5.427650E+2	9.600284E-1	9.343975E-1	9.586713E-1	1.085149E+0	9.566403E-1	9.435735E-1	9.439089E-1	9.485517E-1	9.845837E-1	9.746058E-1	9.492020E-1	9.552463E-1	9.569202E-1	1.043375E+0	9.600232E-1	1.010846E+0	9.452706E-1	9.899806E-1	9.811356E-1	9.695984E-1	9.455540E-1	9.532095E-1	9.519091E-1	9.435379E-1	9.642082E-1	9.560191E-1	1.010121E+0	1.019076E+0	9.502017E-1	9.352697E-1	9.680613E-1	9.855365E-1	1.002291E+0	1.005109E+0	9.527288E-1	9.461063E-1	9.664435E-1	9.389294E-1	9.261195E-1	9.492875E-1	9.516687E-1	9.604844E-1	9.292019E-1	9.731730E-1	9.322283E-1	9.579013E-1	9.569827E-1	9.757947E-1	9.641176E-1	9.406486E-1	1.000071E+0	9.732598E-1	9.542564E-1	9.262500E-1	9.680958E-1	9.909984E-1	9.894292E-1	1.001934E+0	9.565730E-1	9.744303E-1	9.373827E-1	9.844386E-1	9.363122E-1	9.479561E-1	9.610496E-1	9.404399E-1	9.824625E-1	9.431997E-1	9.627303E-1	9.458871E-1	9.629646E-1	9.278058E-1	9.370872E-1	9.228027E-1	9.518790E-1	9.401504E-1	9.667216E-1	1.013139E+0	9.495956E-1	9.613386E-1	9.573802E-1	9.735732E-1	9.635785E-1	9.402858E-1	9.049762E-1	9.884797E-1	9.524289E-1	9.776249E-1	9.865099E-1	9.618864E-1	9.453433E-1	9.374132E-1	9.622537E-1	1.003684E+0	9.623678E-1	9.785613E-1	9.436336E-1	9.568707E-1	9.418581E-1	9.286209E-1	9.564420E-1	9.732857E-1	9.736546E-1	9.566843E-1	9.781564E-1	9.490875E-1	9.878102E-1	9.463430E-1	9.493595E-1	1.013050E+0	9.816088E-1	9.379277E-1	9.406460E-1	9.764839E-1	9.255496E-1	9.175672E-1	9.881631E-1	9.569404E-1	9.263501E-1	9.686326E-1	1.003338E+0	9.374860E-1	9.652634E-1	1.003503E+0	9.875527E-1	1.019407E+0	9.931483E-1	9.546439E-1	9.733512E-1	9.848100E-1	9.409002E-1	9.524836E-1	9.874610E-1	9.670474E-1	9.992602E-1	9.628255E-1	9.456642E-1	9.567936E-1	9.716144E-1	9.874077E-1	9.836355E-1	9.304910E-1	1.032685E+0	9.620840E-1	9.613426E-1	9.925034E-1	1.000932E+0	9.563296E-1	9.795356E-1	9.070823E-1	1.001041E+0	9.220327E-1	1.002525E+0	9.538180E-1	9.905854E-1	9.775823E-1	1.015448E+0	9.713420E-1	9.632136E-1	9.856267E-1	9.341195E-1	9.408292E-1	9.657685E-1	1.001706E+0	9.518421E-1	9.497857E-1	9.668300E-1	9.610229E-1	9.526123E-1	9.884321E-1	8.991796E-1	1.192621E+0
5.430120E+2	1.007835E+0	9.859136E-1	1.051261E+0	1.022797E+0	9.870570E-1	9.926287E-1	1.012454E+0	9.954646E-1	1.023603E+0	1.030205E+0	9.796795E-1	1.053288E+0	9.892128E-1	1.060151E+0	1.031409E+0	1.056819E+0	9.886282E-1	1.062370E+0	1.031710E+0	1.030367E+0	1.038779E+0	1.003995E+0	9.909809E-1	1.003410E+0	1.008392E+0	1.031041E+0	1.008130E+0	1.043732E+0	9.821671E-1	1.033717E+0	9.950162E-1	1.042199E+0	1.009663E+0	1.005383E+0	1.035816E+0	9.842722E-1	9.885301E-1	1.010735E+0	9.842463E-1	9.855402E-1	9.712718E-1	1.024506E+0	1.037146E+0	1.005051E+0	1.011697E+0	1.048919E+0	1.005280E+0	9.478798E-1	9.741798E-1	1.046818E+0	1.044703E+0	1.048716E+0	1.039516E+0	1.019400E+0	1.030240E+0	1.032305E+0	1.007471E+0	1.078981E+0	1.044450E+0	9.827553E-1	1.031935E+0	9.946313E-1	1.034334E+0	1.002043E+0	1.088612E+0	1.012149E+0	1.062721E+0	1.002525E+0	9.900083E-1	9.629366E-1	1.036714E+0	9.767092E-1	1.054133E+0	1.018279E+0	9.959998E-1	1.016741E+0	1.041346E+0	1.045507E+0	1.020232E+0	1.000225E+0	9.656665E-1	1.041680E+0	1.008801E+0	9.951172E-1	1.004853E+0	9.846106E-1	9.971968E-1	1.023106E+0	1.047364E+0	9.696750E-1	1.012322E+0	1.012869E+0	9.924071E-1	1.037046E+0	1.024749E+0	1.040872E+0	9.880909E-1	9.561517E-1	1.008532E+0	1.006957E+0	1.034718E+0	1.018459E+0	1.008747E+0	1.011435E+0	1.022902E+0	9.942805E-1	1.061562E+0	9.984880E-1	1.011566E+0	1.026582E+0	1.056090E+0	1.008146E+0	9.431885E-1	1.036862E+0	1.010428E+0	1.011061E+0	1.009385E+0	1.010569E+0	1.055839E+0	1.014777E+0	1.031213E+0	1.020480E+0	9.837158E-1	1.043961E+0	1.006183E+0	1.046200E+0	1.028029E+0	9.781839E-1	1.048726E+0	1.007487E+0	9.817966E-1	1.004588E+0	1.036458E+0	9.799410E-1	1.017742E+0	1.038697E+0	1.045577E+0	1.009821E+0	1.001135E+0	1.033540E+0	1.015402E+0	1.037088E+0	9.984803E-1	1.030311E+0	1.015512E+0	9.887704E-1	1.016121E+0	1.027144E+0	9.641925E-1	1.025153E+0	9.752370E-1	1.002467E+0	9.795292E-1	1.014309E+0	1.039675E+0	1.013837E+0	1.022708E+0	1.032664E+0	9.771630E-1	1.024609E+0	9.536868E-1	1.038919E+0	1.031882E+0	1.075222E+0	1.032769E+0	9.993234E-1	1.028579E+0	9.594265E-1	1.029512E+0	1.091367E+0	9.996462E-1	1.175717E+0
5.432800E+2	1.195718E+0	1.123861E+0	1.169109E+0	1.263865E+0	1.125801E+0	1.170439E+0	1.170809E+0	1.149695E+0	1.152991E+0	1.163433E+0	1.180694E+0	1.179618E+0	1.121956E+0	1.141207E+0	1.149322E+0	1.129600E+0	1.220131E+0	1.214773E+0	1.168878E+0	1.191889E+0	1.149776E+0	1.154286E+0	1.122036E+0	1.146984E+0	1.163535E+0	1.148489E+0	1.180898E+0	1.139050E+0	1.153146E+0	1.092529E+0	1.150351E+0	1.201717E+0	1.176624E+0	1.120795E+0	1.148383E+0	1.096655E+0	1.127744E+0	1.169065E+0	1.129120E+0	1.120543E+0	1.154127E+0	1.167205E+0	1.179648E+0	1.201338E+0	1.121347E+0	1.189238E+0	1.169544E+0	1.196490E+0	1.131764E+0	1.233416E+0	1.191602E+0	1.137426E+0	1.185441E+0	1.174619E+0	1.154632E+0	1.132541E+0	1.144851E+0	1.163080E+0	1.160450E+0	1.160873E+0	1.205179E+0	1.150479E+0	1.181234E+0	1.119821E+0	1.164087E+0	1.144458E+0	1.121015E+0	1.184212E+0	1.177227E+0	1.142197E+0	1.175291E+0	1.145473E+0	1.152961E+0	1.154654E+0	1.098017E+0	1.134973E+0	1.164589E+0	1.142082E+0	1.141709E+0	1.169126E+0	1.170437E+0	1.128191E+0	1.124014E+0	1.195422E+0	1.132182E+0	1.191520E+0	1.201259E+0	1.207820E+0	1.179584E+0	1.135763E+0	1.173979E+0	1.166442E+0	1.161664E+0	1.142706E+0	1.150252E+0	1.107372E+0	1.148476E+0	1.158757E+0	1.149036E+0	1.126986E+0	1.150251E+0	1.127749E+0	1.131836E+0	1.132604E+0	1.146952E+0	1.144289E+0	1.206049E+0	1.151929E+0	1.158626E+0	1.172162E+0	1.180029E+0	1.155515E+0	1.142227E+0	1.248711E+0	1.125244E+0	1.144096E+0	1.110771E+0	1.160934E+0	1.110877E+0	1.199261E+0	1.185163E+0	1.128512E+0	1.136612E+0	1.174752E+0	1.124174E+0	1.205382E+0	1.160352E+0	1.164640E+0	1.153842E+0	1.167724E+0	1.143699E+0	1.141184E+0	1.143986E+0	1.154808E+0	1.185891E+0	1.167793E+0	1.193797E+0	1.131091E+0	1.146705E+0	1.164920E+0	1.153652E+0	1.129027E+0	1.133414E+0	1.216353E+0	1.135558E+0	1.159720E+0	1.119241E+0	1.169517E+0	1.121310E+0	1.115717E+0	1.185866E+0	1.120132E+0	1.231671E+0	1.172143E+0	1.154754E+0	1.201049E+0	1.130065E+0	1.190236E+0	1.170008E+0	1.174064E+0	1.108252E+0	1.175105E+0	1.150086E+0	1.109199E+0	1.126871E+0	1.135502E+0	1.138214E+0	1.130584E+0	1.121354E+0	1.203802E+0	1.174240E+0	1.153076E+0
5.435270E+2	1.320584E+0	1.289094E+0	1.343678E+0	1.470936E+0	1.308848E+0	1.387223E+0	1.249737E+0	1.343954E+0	1.360435E+0	1.394651E+0	1.307294E+0	1.361140E+0	1.362166E+0	1.299431E+0	1.306748E+0	1.365883E+0	1.329993E+0	1.346079E+0	1.352242E+0	1.328054E+0	1.339183E+0	1.307499E+0	1.320098E+0	1.331982E+0	1.297333E+0	1.323605E+0	1.351256E+0	1.323627E+0	1.325037E+0	1.310822E+0	1.318780E+0	1.395557E+0	1.324543E+0	1.293104E+0	1.305365E+0	1.302314E+0	1.366059E+0	1.341948E+0	1.310185E+0	1.320572E+0	1.287007E+0	1.295136E+0	1.356863E+0	1.312190E+0	1.322283E+0	1.304009E+0	1.341708E+0	1.311719E+0	1.321271E+0	1.324450E+0	1.366037E+0	1.358223E+0	1.362845E+0	1.306855E+0	1.385771E+0	1.336169E+0	1.310952E+0	1.304431E+0	1.336280E+0	1.301734E+0	1.340969E+0	1.303165E+0	1.359974E+0	1.365867E+0	1.378499E+0	1.355288E+0	1.302811E+0	1.348193E+0	1.340721E+0	1.300683E+0	1.320227E+0	1.334473E+0	1.343787E+0	1.337336E+0	1.296311E+0	1.360707E+0	1.331418E+0	1.292278E+0	1.333392E+0	1.357014E+0	1.368836E+0	1.300302E+0	1.343166E+0	1.338001E+0	1.377740E+0	1.303467E+0	1.345391E+0	1.301236E+0	1.348099E+0	1.287149E+0	1.364186E+0	1.291690E+0	1.280474E+0	1.316640E+0	1.307589E+0	1.346127E+0	1.331067E+0	1.313049E+0	1.343870E+0	1.250367E+0	1.390257E+0	1.265268E+0	1.383241E+0	1.317624E+0	1.327018E+0	1.283372E+0	1.366754E+0	1.319937E+0	1.273754E+0	1.351996E+0	1.369745E+0	1.327030E+0	1.315176E+0	1.382245E+0	1.366753E+0	1.322622E+0	1.309228E+0	1.321898E+0	1.298532E+0	1.326523E+0	1.349147E+0	1.319429E+0	1.294967E+0	1.261513E+0	1.312878E+0	1.363342E+0	1.337202E+0	1.321686E+0	1.286650E+0	1.321203E+0	1.335003E+0	1.366814E+0	1.329083E+0	1.312974E+0	1.284086E+0	1.300289E+0	1.343533E+0	1.310624E+0	1.347640E+0	1.370424E+0	1.302063E+0	1.327389E+0	1.304920E+0	1.370212E+0	1.284582E+0	1.329185E+0	1.340563E+0	1.292923E+0	1.309808E+0	1.290977E+0	1.304486E+0	1.275262E+0	1.289310E+0	1.317984E+0	1.334606E+0	1.288829E+0	1.304104E+0	1.336217E+0	1.255712E+0	1.317818E+0	1.273918E+0	1.299007E+0	1.289963E+0	1.337573E+0	1.311397E+0	1.268608E+0	1.281770E+0	1.316600E+0	1.373043E+0	1.344738E+0	1.289989E+0	1.314565E+0
5.437640E+2	1.494716E+0	1.399942E+0	1.385549E+0	1.664924E+0	1.460485E+0	1.447813E+0	1.454930E+0	1.442526E+0	1.349467E+0	1.412534E+0	1.454023E+0	1.429252E+0	1.443638E+0	1.462497E+0	1.425201E+0	1.436899E+0	1.479473E+0	1.384669E+0	1.448785E+0	1.450337E+0	1.423575E+0	1.416009E+0	1.384995E+0	1.449666E+0	1.420765E+0	1.463439E+0	1.466183E+0	1.407050E+0	1.453165E+0	1.377780E+0	1.437985E+0	1.469818E+0	1.382676E+0	1.422006E+0	1.430781E+0	1.357056E+0	1.460191E+0	1.418729E+0	1.439724E+0	1.420004E+0	1.478728E+0	1.444385E+0	1.473746E+0	1.358812E+0	1.417055E+0	1.394860E+0	1.435099E+0	1.413909E+0	1.398267E+0	1.440317E+0	1.455026E+0	1.439663E+0	1.441879E+0	1.443829E+0	1.422813E+0	1.391136E+0	1.464026E+0	1.385977E+0	1.476831E+0	1.421913E+0	1.447245E+0	1.453979E+0	1.446051E+0	1.423278E+0	1.422928E+0	1.381395E+0	1.434938E+0	1.412649E+0	1.446688E+0	1.453780E+0	1.420060E+0	1.414156E+0	1.467440E+0	1.425132E+0	1.453997E+0	1.388370E+0	1.422659E+0	1.398989E+0	1.415224E+0	1.421735E+0	1.388705E+0	1.404364E+0	1.376821E+0	1.391549E+0	1.429672E+0	1.422516E+0	1.464476E+0	1.433955E+0	1.379362E+0	1.419981E+0	1.456204E+0	1.447901E+0	1.466112E+0	1.408898E+0	1.437519E+0	1.451854E+0	1.410398E+0	1.421245E+0	1.424791E+0	1.447086E+0	1.457678E+0	1.393575E+0	1.428750E+0	1.429919E+0	1.474618E+0	1.397366E+0	1.414501E+0	1.407317E+0	1.410367E+0	1.398607E+0	1.440279E+0	1.449870E+0	1.424194E+0	1.466647E+0	1.397576E+0	1.382447E+0	1.427417E+0	1.397162E+0	1.430076E+0	1.446300E+0	1.407891E+0	1.385708E+0	1.404382E+0	1.438287E+0	1.396479E+0	1.440693E+0	1.416713E+0	1.413358E+0	1.488463E+0	1.412563E+0	1.412336E+0	1.430541E+0	1.396237E+0	1.382462E+0	1.456382E+0	1.411381E+0	1.441665E+0	1.468230E+0	1.394304E+0	1.475284E+0	1.422020E+0	1.493976E+0	1.415750E+0	1.392697E+0	1.361770E+0	1.392481E+0	1.437219E+0	1.457889E+0	1.442049E+0	1.400657E+0	1.480947E+0	1.424728E+0	1.385369E+0	1.450290E+0	1.422887E+0	1.503689E+0	1.396365E+0	1.456154E+0	1.443634E+0	1.448938E+0	1.377013E+0	1.443982E+0	1.434971E+0	1.435211E+0	1.403605E+0	1.406772E+0	1.394841E+0	1.410376E+0	1.412883E+0	1.412178E+0	1.438179E+0	1.553667E+0
5.440170E+2	1.464735E+0	1.424246E+0	1.486298E+0	1.716194E+0	1.497986E+0	1.490588E+0	1.527389E+0	1.436355E+0	1.448720E+0	1.491224E+0	1.472763E+0	1.540670E+0	1.452107E+0	1.505547E+0	1.477228E+0	1.491716E+0	1.490934E+0	1.481878E+0	1.408034E+0	1.448110E+0	1.494836E+0	1.505140E+0	1.456741E+0	1.488375E+0	1.545788E+0	1.449338E+0	1.521433E+0	1.544056E+0	1.524511E+0	1.453889E+0	1.503483E+0	1.543821E+0	1.494469E+0	1.434338E+0	1.434734E+0	1.444370E+0	1.452605E+0	1.449791E+0	1.469915E+0	1.493593E+0	1.507911E+0	1.489764E+0	1.532782E+0	1.523497E+0	1.455377E+0	1.426402E+0	1.431551E+0	1.480865E+0	1.484061E+0	1.417036E+0	1.447414E+0	1.456166E+0	1.430924E+0	1.460429E+0	1.436275E+0	1.474709E+0	1.453685E+0	1.440142E+0	1.502165E+0	1.470256E+0	1.488964E+0	1.494936E+0	1.507214E+0	1.449649E+0	1.519580E+0	1.417872E+0	1.458834E+0	1.453595E+0	1.454179E+0	1.469777E+0	1.450647E+0	1.497568E+0	1.514348E+0	1.445873E+0	1.450984E+0	1.420436E+0	1.460943E+0	1.431710E+0	1.504887E+0	1.486839E+0	1.456343E+0	1.510394E+0	1.452242E+0	1.482550E+0	1.412063E+0	1.531882E+0	1.456269E+0	1.482343E+0	1.435951E+0	1.428743E+0	1.479416E+0	1.399172E+0	1.470464E+0	1.468447E+0	1.474098E+0	1.410182E+0	1.469821E+0	1.443265E+0	1.502075E+0	1.448920E+0	1.528825E+0	1.499925E+0	1.477487E+0	1.468863E+0	1.450721E+0	1.419852E+0	1.497480E+0	1.459842E+0	1.414693E+0	1.451742E+0	1.546185E+0	1.529774E+0	1.438249E+0	1.492141E+0	1.460475E+0	1.462270E+0	1.458575E+0	1.465161E+0	1.433107E+0	1.506762E+0	1.522651E+0	1.455064E+0	1.475271E+0	1.468467E+0	1.495037E+0	1.447334E+0	1.464623E+0	1.515593E+0	1.527008E+0	1.419975E+0	1.469815E+0	1.437259E+0	1.438864E+0	1.467093E+0	1.476475E+0	1.460637E+0	1.408858E+0	1.474774E+0	1.455020E+0	1.497435E+0	1.389375E+0	1.487403E+0	1.517804E+0	1.439697E+0	1.481997E+0	1.470854E+0	1.469546E+0	1.473766E+0	1.477629E+0	1.440696E+0	1.477141E+0	1.454506E+0	1.478415E+0	1.445784E+0	1.445504E+0	1.394280E+0	1.459612E+0	1.493322E+0	1.436473E+0	1.481463E+0	1.379636E+0	1.447977E+0	1.417124E+0	1.494311E+0	1.488121E+0	1.434758E+0	1.434938E+0	1.476997E+0	1.475809E+0	1.524231E+0	1.479322E+0	1.751196E+0
5.442750E+2	1.652071E+0	1.535720E+0	1.574137E+0	1.814936E+0	1.556656E+0	1.588635E+0	1.621826E+0	1.593797E+0	1.623277E+0	1.572866E+0	1.574640E+0	1.604893E+0	1.603932E+0	1.624079E+0	1.664184E+0	1.610948E+0	1.519116E+0	1.571048E+0	1.626933E+0	1.671897E+0	1.644408E+0	1.580982E+0	1.629379E+0	1.573637E+0	1.622229E+0	1.613171E+0	1.620753E+0	1.618400E+0	1.643360E+0	1.569256E+0	1.594386E+0	1.624939E+0	1.610668E+0	1.600413E+0	1.627033E+0	1.600299E+0	1.591404E+0	1.569313E+0	1.606011E+0	1.556370E+0	1.603066E+0	1.558662E+0	1.643759E+0	1.609145E+0	1.600847E+0	1.583307E+0	1.576560E+0	1.595562E+0	1.600795E+0	1.613325E+0	1.664570E+0	1.610226E+0	1.620784E+0	1.594010E+0	1.650757E+0	1.584217E+0	1.606869E+0	1.618979E+0	1.679439E+0	1.656079E+0	1.621246E+0	1.644866E+0	1.601876E+0	1.600672E+0	1.598114E+0	1.530956E+0	1.584528E+0	1.582160E+0	1.640734E+0	1.572338E+0	1.583326E+0	1.583354E+0	1.651587E+0	1.552987E+0	1.574665E+0	1.556992E+0	1.653060E+0	1.596936E+0	1.620908E+0	1.619212E+0	1.631298E+0	1.555126E+0	1.574615E+0	1.616126E+0	1.560250E+0	1.581487E+0	1.587152E+0	1.611689E+0	1.650579E+0	1.608481E+0	1.620740E+0	1.557791E+0	1.576343E+0	1.612979E+0	1.612714E+0	1.584751E+0	1.655299E+0	1.654854E+0	1.617631E+0	1.571710E+0	1.572733E+0	1.528621E+0	1.610637E+0	1.617824E+0	1.601847E+0	1.532891E+0	1.683076E+0	1.590660E+0	1.545673E+0	1.579998E+0	1.621901E+0	1.584063E+0	1.559157E+0	1.542005E+0	1.573373E+0	1.522898E+0	1.611260E+0	1.618101E+0	1.585865E+0	1.604467E+0	1.604521E+0	1.607496E+0	1.581986E+0	1.554103E+0	1.580159E+0	1.554613E+0	1.623187E+0	1.619881E+0	1.559348E+0	1.578445E+0	1.568551E+0	1.593961E+0	1.528341E+0	1.528588E+0	1.588491E+0	1.652870E+0	1.567155E+0	1.596658E+0	1.583547E+0	1.669405E+0	1.626108E+0	1.599630E+0	1.622676E+0	1.533498E+0	1.561001E+0	1.666133E+0	1.586234E+0	1.580446E+0	1.622472E+0	1.565068E+0	1.589063E+0	1.516227E+0	1.627989E+0	1.578133E+0	1.602167E+0	1.605832E+0	1.576738E+0	1.578956E+0	1.644848E+0	1.559085E+0	1.535370E+0	1.495168E+0	1.551837E+0	1.522002E+0	1.569347E+0	1.546533E+0	1.577417E+0	1.548394E+0	1.549474E+0	1.495457E+0	1.575689E+0	1.684505E+0
5.445130E+2	1.625245E+0	1.605900E+0	1.653765E+0	1.860473E+0	1.627952E+0	1.610990E+0	1.615731E+0	1.604641E+0	1.626705E+0	1.633061E+0	1.602388E+0	1.613239E+0	1.574765E+0	1.631496E+0	1.600675E+0	1.640795E+0	1.538257E+0	1.623881E+0	1.619437E+0	1.594424E+0	1.644328E+0	1.633037E+0	1.581157E+0	1.599768E+0	1.608713E+0	1.641417E+0	1.673671E+0	1.660679E+0	1.640290E+0	1.600935E+0	1.648204E+0	1.648772E+0	1.588723E+0	1.568044E+0	1.630763E+0	1.612275E+0	1.717813E+0	1.626732E+0	1.585758E+0	1.644062E+0	1.645820E+0	1.618967E+0	1.619230E+0	1.596227E+0	1.573453E+0	1.584117E+0	1.610116E+0	1.572982E+0	1.594833E+0	1.594610E+0	1.635932E+0	1.622087E+0	1.669326E+0	1.610550E+0	1.614589E+0	1.622841E+0	1.634237E+0	1.583342E+0	1.585127E+0	1.640149E+0	1.659731E+0	1.600501E+0	1.605979E+0	1.594925E+0	1.610394E+0	1.575629E+0	1.613945E+0	1.611771E+0	1.626690E+0	1.583672E+0	1.599448E+0	1.586225E+0	1.568426E+0	1.567073E+0	1.675249E+0	1.594551E+0	1.639974E+0	1.568092E+0	1.619750E+0	1.629225E+0	1.639707E+0	1.658675E+0	1.594999E+0	1.596796E+0	1.537110E+0	1.568144E+0	1.630620E+0	1.633679E+0	1.609003E+0	1.613791E+0	1.548088E+0	1.547412E+0	1.622618E+0	1.590332E+0	1.608703E+0	1.690671E+0	1.563963E+0	1.617112E+0	1.611366E+0	1.573584E+0	1.625784E+0	1.600466E+0	1.662568E+0	1.631826E+0	1.580815E+0	1.587633E+0	1.602315E+0	1.550890E+0	1.617234E+0	1.588871E+0	1.604882E+0	1.636408E+0	1.631194E+0	1.592853E+0	1.630323E+0	1.529159E+0	1.641869E+0	1.582396E+0	1.554470E+0	1.612743E+0	1.620028E+0	1.609733E+0	1.587881E+0	1.571550E+0	1.629301E+0	1.589592E+0	1.568894E+0	1.595588E+0	1.579560E+0	1.639438E+0	1.638444E+0	1.539076E+0	1.550981E+0	1.565305E+0	1.569796E+0	1.540348E+0	1.565877E+0	1.573462E+0	1.596235E+0	1.646288E+0	1.562282E+0	1.638384E+0	1.573586E+0	1.587498E+0	1.539986E+0	1.604051E+0	1.638586E+0	1.609990E+0	1.535104E+0	1.589395E+0	1.604057E+0	1.572545E+0	1.622673E+0	1.532086E+0	1.563265E+0	1.613681E+0	1.573492E+0	1.583654E+0	1.602318E+0	1.682248E+0	1.577177E+0	1.643854E+0	1.586921E+0	1.615501E+0	1.569461E+0	1.546829E+0	1.585090E+0	1.584527E+0	1.548848E+0	1.604171E+0	1.604055E+0	1.589543E+0
5.447660E+2	1.642669E+0	1.512888E+0	1.596116E+0	1.773782E+0	1.666928E+0	1.531128E+0	1.615224E+0	1.524508E+0	1.601036E+0	1.565135E+0	1.578506E+0	1.619230E+0	1.568315E+0	1.555654E+0	1.611194E+0	1.585033E+0	1.562522E+0	1.611723E+0	1.582060E+0	1.601971E+0	1.561816E+0	1.584835E+0	1.636714E+0	1.609106E+0	1.573506E+0	1.611048E+0	1.544315E+0	1.629382E+0	1.612972E+0	1.593575E+0	1.650618E+0	1.637939E+0	1.543150E+0	1.534135E+0	1.591974E+0	1.564035E+0	1.585061E+0	1.604243E+0	1.522708E+0	1.549394E+0	1.546359E+0	1.691556E+0	1.595939E+0	1.528502E+0	1.599519E+0	1.560024E+0	1.577719E+0	1.539691E+0	1.561978E+0	1.543547E+0	1.588988E+0	1.585551E+0	1.554306E+0	1.536082E+0	1.616257E+0	1.579374E+0	1.619021E+0	1.542288E+0	1.591103E+0	1.544329E+0	1.603887E+0	1.584996E+0	1.601279E+0	1.571827E+0	1.591155E+0	1.590032E+0	1.566747E+0	1.568740E+0	1.542693E+0	1.576099E+0	1.605367E+0	1.586825E+0	1.557023E+0	1.624921E+0	1.540210E+0	1.546666E+0	1.577545E+0	1.608864E+0	1.597981E+0	1.628216E+0	1.598910E+0	1.549594E+0	1.633548E+0	1.627239E+0	1.603931E+0	1.567871E+0	1.634132E+0	1.632694E+0	1.553813E+0	1.600874E+0	1.544996E+0	1.581949E+0	1.612067E+0	1.614090E+0	1.538016E+0	1.588397E+0	1.579814E+0	1.560268E+0	1.560908E+0	1.611619E+0	1.588897E+0	1.557041E+0	1.599072E+0	1.605061E+0	1.595799E+0	1.516804E+0	1.600399E+0	1.577620E+0	1.528781E+0	1.577747E+0	1.593502E+0	1.509543E+0	1.615106E+0	1.594790E+0	1.603034E+0	1.534484E+0	1.599768E+0	1.641639E+0	1.520874E+0	1.566353E+0	1.583784E+0	1.524449E+0	1.580145E+0	1.583671E+0	1.593716E+0	1.589758E+0	1.605167E+0	1.577357E+0	1.594713E+0	1.554816E+0	1.578327E+0	1.584175E+0	1.512287E+0	1.562910E+0	1.579499E+0	1.570916E+0	1.555712E+0	1.587048E+0	1.621668E+0	1.607308E+0	1.534431E+0	1.577926E+0	1.528224E+0	1.523437E+0	1.499585E+0	1.601023E+0	1.520448E+0	1.557450E+0	1.561227E+0	1.522464E+0	1.601202E+0	1.531249E+0	1.608301E+0	1.513370E+0	1.551161E+0	1.504102E+0	1.529567E+0	1.598415E+0	1.565374E+0	1.598063E+0	1.503178E+0	1.583465E+0	1.497073E+0	1.531174E+0	1.573669E+0	1.558906E+0	1.572237E+0	1.589514E+0	1.495809E+0	1.524319E+0	1.523687E+0	1.849285E+0
5.450090E+2	1.559941E+0	1.438562E+0	1.528099E+0	1.701285E+0	1.471644E+0	1.503576E+0	1.464220E+0	1.519376E+0	1.462369E+0	1.477018E+0	1.478196E+0	1.488594E+0	1.456214E+0	1.528695E+0	1.534552E+0	1.540527E+0	1.521602E+0	1.523422E+0	1.578217E+0	1.540325E+0	1.520095E+0	1.440830E+0	1.509066E+0	1.497053E+0	1.467346E+0	1.492428E+0	1.549001E+0	1.488123E+0	1.459416E+0	1.475661E+0	1.510146E+0	1.540814E+0	1.499186E+0	1.467457E+0	1.487403E+0	1.487429E+0	1.485561E+0	1.504442E+0	1.448958E+0	1.498505E+0	1.475530E+0	1.512278E+0	1.466004E+0	1.502106E+0	1.502221E+0	1.446410E+0	1.516764E+0	1.499372E+0	1.464216E+0	1.453665E+0	1.516227E+0	1.498870E+0	1.459601E+0	1.455877E+0	1.503285E+0	1.457933E+0	1.532519E+0	1.497742E+0	1.483295E+0	1.518607E+0	1.481779E+0	1.477833E+0	1.563043E+0	1.505057E+0	1.513291E+0	1.489416E+0	1.532330E+0	1.558556E+0	1.502034E+0	1.463337E+0	1.480899E+0	1.439885E+0	1.515866E+0	1.440489E+0	1.531878E+0	1.497543E+0	1.524776E+0	1.491552E+0	1.522852E+0	1.505370E+0	1.527077E+0	1.455470E+0	1.468543E+0	1.475576E+0	1.509306E+0	1.501145E+0	1.504880E+0	1.456256E+0	1.449877E+0	1.452682E+0	1.512916E+0	1.441670E+0	1.489435E+0	1.474571E+0	1.465655E+0	1.514142E+0	1.454509E+0	1.492124E+0	1.437389E+0	1.423620E+0	1.565845E+0	1.434832E+0	1.466427E+0	1.487946E+0	1.441444E+0	1.439697E+0	1.511406E+0	1.469427E+0	1.491611E+0	1.508339E+0	1.546046E+0	1.494259E+0	1.472098E+0	1.455905E+0	1.433065E+0	1.459910E+0	1.549313E+0	1.449879E+0	1.478403E+0	1.489557E+0	1.506085E+0	1.461864E+0	1.456775E+0	1.548368E+0	1.499785E+0	1.494726E+0	1.471895E+0	1.510167E+0	1.476399E+0	1.547290E+0	1.537405E+0	1.513060E+0	1.489121E+0	1.479793E+0	1.511456E+0	1.453770E+0	1.568488E+0	1.446840E+0	1.484287E+0	1.503717E+0	1.440191E+0	1.486230E+0	1.523418E+0	1.463378E+0	1.430857E+0	1.499097E+0	1.528191E+0	1.465990E+0	1.498519E+0	1.429926E+0	1.484531E+0	1.511655E+0	1.481230E+0	1.457373E+0	1.520748E+0	1.436647E+0	1.460174E+0	1.474191E+0	1.440602E+0	1.539255E+0	1.447302E+0	1.484817E+0	1.480640E+0	1.470085E+0	1.491734E+0	1.498123E+0	1.461137E+0	1.448491E+0	1.470088E+0	1.454745E+0	1.445813E+0	1.619209E+0
5.452800E+2	1.502289E+0	1.391997E+0	1.446704E+0	1.676326E+0	1.458446E+0	1.427753E+0	1.436595E+0	1.401596E+0	1.498930E+0	1.402223E+0	1.429411E+0	1.511218E+0	1.412245E+0	1.483840E+0	1.446830E+0	1.453408E+0	1.390552E+0	1.448772E+0	1.415768E+0	1.399206E+0	1.403717E+0	1.408614E+0	1.480264E+0	1.397609E+0	1.452790E+0	1.453014E+0	1.453819E+0	1.435760E+0	1.442217E+0	1.413809E+0	1.422761E+0	1.477691E+0	1.415953E+0	1.439616E+0	1.427541E+0	1.422077E+0	1.453902E+0	1.432375E+0	1.484000E+0	1.429782E+0	1.375773E+0	1.404196E+0	1.467748E+0	1.478119E+0	1.405619E+0	1.399980E+0	1.443583E+0	1.464696E+0	1.426803E+0	1.429455E+0	1.429871E+0	1.377467E+0	1.424839E+0	1.431602E+0	1.406195E+0	1.446331E+0	1.400939E+0	1.451009E+0	1.471777E+0	1.439392E+0	1.417203E+0	1.390362E+0	1.458187E+0	1.459864E+0	1.416767E+0	1.446571E+0	1.446366E+0	1.440909E+0	1.433277E+0	1.390040E+0	1.383679E+0	1.431189E+0	1.452620E+0	1.445870E+0	1.416378E+0	1.439001E+0	1.436377E+0	1.460269E+0	1.448981E+0	1.479066E+0	1.448283E+0	1.446886E+0	1.450994E+0	1.400869E+0	1.435119E+0	1.466688E+0	1.476004E+0	1.475966E+0	1.463522E+0	1.398367E+0	1.501432E+0	1.384057E+0	1.437951E+0	1.437990E+0	1.464386E+0	1.448841E+0	1.420765E+0	1.452905E+0	1.410656E+0	1.379200E+0	1.460873E+0	1.423688E+0	1.459081E+0	1.412708E+0	1.417738E+0	1.389016E+0	1.420904E+0	1.418028E+0	1.425169E+0	1.405664E+0	1.476536E+0	1.437296E+0	1.433701E+0	1.399955E+0	1.466103E+0	1.365731E+0	1.396636E+0	1.428389E+0	1.415227E+0	1.446361E+0	1.458384E+0	1.460060E+0	1.409669E+0	1.401590E+0	1.421118E+0	1.456162E+0	1.414340E+0	1.421716E+0	1.467348E+0	1.446888E+0	1.468708E+0	1.430368E+0	1.432260E+0	1.391383E+0	1.444702E+0	1.421343E+0	1.460670E+0	1.444050E+0	1.403068E+0	1.460245E+0	1.391713E+0	1.419233E+0	1.446518E+0	1.376926E+0	1.366548E+0	1.395242E+0	1.476666E+0	1.464998E+0	1.477529E+0	1.422093E+0	1.443964E+0	1.377400E+0	1.403069E+0	1.414772E+0	1.454260E+0	1.450338E+0	1.465047E+0	1.420005E+0	1.447432E+0	1.451668E+0	1.421075E+0	1.402818E+0	1.407221E+0	1.443318E+0	1.416094E+0	1.418365E+0	1.403251E+0	1.414187E+0	1.432870E+0	1.444940E+0	1.415316E+0	1.534281E+0
5.455180E+2	1.383474E+0	1.304561E+0	1.336999E+0	1.468960E+0	1.289160E+0	1.373226E+0	1.285873E+0	1.286985E+0	1.267720E+0	1.272465E+0	1.304490E+0	1.323861E+0	1.276135E+0	1.269713E+0	1.285920E+0	1.349839E+0	1.281072E+0	1.321675E+0	1.324959E+0	1.275075E+0	1.296092E+0	1.332142E+0	1.282184E+0	1.310255E+0	1.308484E+0	1.297515E+0	1.314934E+0	1.367188E+0	1.311030E+0	1.267426E+0	1.292295E+0	1.347144E+0	1.234485E+0	1.333382E+0	1.343563E+0	1.309681E+0	1.317416E+0	1.276994E+0	1.263755E+0	1.330293E+0	1.295045E+0	1.338390E+0	1.288700E+0	1.280369E+0	1.264214E+0	1.243113E+0	1.289986E+0	1.276090E+0	1.262709E+0	1.338527E+0	1.290465E+0	1.271716E+0	1.286855E+0	1.327094E+0	1.284088E+0	1.283093E+0	1.277160E+0	1.294722E+0	1.310569E+0	1.301073E+0	1.306740E+0	1.309450E+0	1.303637E+0	1.306811E+0	1.323123E+0	1.281899E+0	1.267624E+0	1.305052E+0	1.230922E+0	1.305814E+0	1.318720E+0	1.266212E+0	1.345183E+0	1.322347E+0	1.267640E+0	1.344239E+0	1.330216E+0	1.345064E+0	1.284539E+0	1.284952E+0	1.335613E+0	1.379649E+0	1.279699E+0	1.303570E+0	1.278218E+0	1.351228E+0	1.393766E+0	1.272889E+0	1.319696E+0	1.286331E+0	1.339000E+0	1.261515E+0	1.297487E+0	1.280580E+0	1.275956E+0	1.324944E+0	1.331431E+0	1.311616E+0	1.270147E+0	1.317661E+0	1.290378E+0	1.311005E+0	1.314006E+0	1.301900E+0	1.307696E+0	1.280661E+0	1.380635E+0	1.268143E+0	1.303506E+0	1.279896E+0	1.315959E+0	1.357403E+0	1.303945E+0	1.297737E+0	1.299112E+0	1.336638E+0	1.312401E+0	1.262112E+0	1.338543E+0	1.277692E+0	1.287222E+0	1.273371E+0	1.283330E+0	1.301517E+0	1.331023E+0	1.320444E+0	1.347869E+0	1.287228E+0	1.324236E+0	1.324447E+0	1.305080E+0	1.247155E+0	1.327465E+0	1.248335E+0	1.329370E+0	1.267705E+0	1.287585E+0	1.277135E+0	1.334488E+0	1.339287E+0	1.272421E+0	1.323183E+0	1.341195E+0	1.301445E+0	1.256536E+0	1.275737E+0	1.352634E+0	1.269761E+0	1.382785E+0	1.230993E+0	1.305054E+0	1.277725E+0	1.311744E+0	1.307636E+0	1.287516E+0	1.294638E+0	1.309407E+0	1.313586E+0	1.322292E+0	1.299205E+0	1.258814E+0	1.307974E+0	1.321823E+0	1.364905E+0	1.266950E+0	1.323250E+0	1.284143E+0	1.289147E+0	1.259592E+0	1.285671E+0	1.261058E+0	1.215506E+0
5.457620E+2	1.287665E+0	1.168677E+0	1.247437E+0	1.358698E+0	1.247717E+0	1.269639E+0	1.277650E+0	1.253650E+0	1.240328E+0	1.251711E+0	1.190958E+0	1.296980E+0	1.243048E+0	1.223830E+0	1.267393E+0	1.231798E+0	1.238044E+0	1.265677E+0	1.243573E+0	1.243332E+0	1.243037E+0	1.250923E+0	1.245058E+0	1.237044E+0	1.258400E+0	1.240416E+0	1.291454E+0	1.237739E+0	1.240990E+0	1.239510E+0	1.242061E+0	1.267305E+0	1.291208E+0	1.232278E+0	1.260961E+0	1.238586E+0	1.244028E+0	1.209817E+0	1.247415E+0	1.258437E+0	1.228900E+0	1.272161E+0	1.247265E+0	1.236610E+0	1.246649E+0	1.216670E+0	1.203189E+0	1.244359E+0	1.195480E+0	1.302516E+0	1.247446E+0	1.259109E+0	1.254801E+0	1.240633E+0	1.247825E+0	1.240578E+0	1.256142E+0	1.259230E+0	1.275258E+0	1.268626E+0	1.235346E+0	1.246893E+0	1.235923E+0	1.230796E+0	1.295733E+0	1.221970E+0	1.254101E+0	1.211870E+0	1.267789E+0	1.220667E+0	1.247680E+0	1.246041E+0	1.249035E+0	1.217934E+0	1.182744E+0	1.230316E+0	1.226235E+0	1.241069E+0	1.230965E+0	1.265823E+0	1.273311E+0	1.261850E+0	1.232619E+0	1.264374E+0	1.294012E+0	1.207621E+0	1.277201E+0	1.211578E+0	1.302076E+0	1.214236E+0	1.288117E+0	1.262620E+0	1.261950E+0	1.214881E+0	1.244454E+0	1.254516E+0	1.273426E+0	1.246208E+0	1.230886E+0	1.269466E+0	1.286674E+0	1.203958E+0	1.210366E+0	1.258040E+0	1.241409E+0	1.234764E+0	1.250344E+0	1.213670E+0	1.239224E+0	1.207433E+0	1.229394E+0	1.260020E+0	1.186034E+0	1.229603E+0	1.188594E+0	1.170810E+0	1.316371E+0	1.203884E+0	1.252653E+0	1.269021E+0	1.277609E+0	1.235513E+0	1.238175E+0	1.294723E+0	1.254035E+0	1.233206E+0	1.248501E+0	1.188225E+0	1.286544E+0	1.211543E+0	1.250829E+0	1.247911E+0	1.201078E+0	1.231602E+0	1.191159E+0	1.209956E+0	1.261135E+0	1.224397E+0	1.216997E+0	1.271949E+0	1.213940E+0	1.218081E+0	1.275375E+0	1.243602E+0	1.212139E+0	1.248046E+0	1.239957E+0	1.196102E+0	1.233730E+0	1.213649E+0	1.245576E+0	1.228132E+0	1.199537E+0	1.233440E+0	1.252988E+0	1.232415E+0	1.180143E+0	1.209208E+0	1.267108E+0	1.236074E+0	1.247200E+0	1.228204E+0	1.240384E+0	1.233661E+0	1.273463E+0	1.224234E+0	1.186568E+0	1.241911E+0	1.308070E+0	1.264620E+0	1.172418E+0	1.346916E+0
5.460160E+2	1.197747E+0	1.204244E+0	1.303510E+0	1.371900E+0	1.242680E+0	1.255884E+0	1.216834E+0	1.200962E+0	1.195747E+0	1.226686E+0	1.195962E+0	1.232455E+0	1.223624E+0	1.209623E+0	1.201389E+0	1.289898E+0	1.215384E+0	1.271469E+0	1.188106E+0	1.232826E+0	1.243758E+0	1.261194E+0	1.243340E+0	1.202882E+0	1.273118E+0	1.251092E+0	1.269393E+0	1.253788E+0	1.253154E+0	1.194431E+0	1.228813E+0	1.274875E+0	1.222436E+0	1.248023E+0	1.230728E+0	1.231312E+0	1.260994E+0	1.266014E+0	1.218623E+0	1.292335E+0	1.247375E+0	1.234710E+0	1.227357E+0	1.194353E+0	1.235743E+0	1.189629E+0	1.239271E+0	1.272579E+0	1.196701E+0	1.209444E+0	1.265283E+0	1.309873E+0	1.245364E+0	1.268877E+0	1.245631E+0	1.224415E+0	1.234691E+0	1.224995E+0	1.245396E+0	1.296492E+0	1.261241E+0	1.201087E+0	1.201988E+0	1.270856E+0	1.226074E+0	1.214455E+0	1.233831E+0	1.247974E+0	1.248327E+0	1.208114E+0	1.208834E+0	1.235285E+0	1.253573E+0	1.220412E+0	1.236802E+0	1.279109E+0	1.222140E+0	1.213641E+0	1.275893E+0	1.288286E+0	1.210368E+0	1.213832E+0	1.269222E+0	1.276571E+0	1.266186E+0	1.235608E+0	1.248251E+0	1.222576E+0	1.262587E+0	1.190129E+0	1.219407E+0	1.190987E+0	1.241989E+0	1.238903E+0	1.211419E+0	1.242265E+0	1.257123E+0	1.242519E+0	1.222848E+0	1.240630E+0	1.292675E+0	1.222628E+0	1.253921E+0	1.215772E+0	1.283337E+0	1.190924E+0	1.229530E+0	1.207846E+0	1.238699E+0	1.224688E+0	1.227478E+0	1.277327E+0	1.219144E+0	1.259559E+0	1.253311E+0	1.219978E+0	1.281117E+0	1.207249E+0	1.226772E+0	1.232392E+0	1.259011E+0	1.263410E+0	1.234674E+0	1.284079E+0	1.269689E+0	1.249951E+0	1.245563E+0	1.232531E+0	1.271501E+0	1.250287E+0	1.250404E+0	1.222817E+0	1.255010E+0	1.238883E+0	1.239828E+0	1.232328E+0	1.232902E+0	1.234244E+0	1.266615E+0	1.276070E+0	1.304244E+0	1.292667E+0	1.263638E+0	1.296597E+0	1.233900E+0	1.250513E+0	1.186273E+0	1.207157E+0	1.237731E+0	1.210738E+0	1.258184E+0	1.265551E+0	1.190802E+0	1.216475E+0	1.239415E+0	1.240014E+0	1.201027E+0	1.282461E+0	1.274664E+0	1.210974E+0	1.234146E+0	1.217970E+0	1.241063E+0	1.173949E+0	1.286316E+0	1.230291E+0	1.282956E+0	1.229332E+0	1.205682E+0	1.205095E+0	1.265437E+0	1.311535E+0
5.467710E+2	1.198659E+0	1.194120E+0	1.198347E+0	1.363919E+0	1.161822E+0	1.210547E+0	1.229731E+0	1.198407E+0	1.188828E+0	1.219675E+0	1.203393E+0	1.220274E+0	1.219465E+0	1.262612E+0	1.237012E+0	1.182784E+0	1.203239E+0	1.241763E+0	1.224723E+0	1.241249E+0	1.191908E+0	1.228898E+0	1.233069E+0	1.195852E+0	1.198072E+0	1.223396E+0	1.171257E+0	1.218587E+0	1.176569E+0	1.229693E+0	1.167365E+0	1.228617E+0	1.247491E+0	1.185157E+0	1.228339E+0	1.203386E+0	1.231415E+0	1.191165E+0	1.175498E+0	1.209405E+0	1.211732E+0	1.215238E+0	1.213507E+0	1.215015E+0	1.196093E+0	1.169980E+0	1.231562E+0	1.213375E+0	1.190698E+0	1.170149E+0	1.236072E+0	1.239939E+0	1.250081E+0	1.220613E+0	1.229293E+0	1.199481E+0	1.217395E+0	1.172900E+0	1.261599E+0	1.217360E+0	1.264039E+0	1.190437E+0	1.246025E+0	1.211582E+0	1.227854E+0	1.149946E+0	1.249257E+0	1.187039E+0	1.237134E+0	1.173019E+0	1.246563E+0	1.229968E+0	1.216836E+0	1.177178E+0	1.215576E+0	1.257673E+0	1.186974E+0	1.226439E+0	1.176912E+0	1.265228E+0	1.149850E+0	1.167445E+0	1.275882E+0	1.247694E+0	1.204134E+0	1.197560E+0	1.228074E+0	1.227634E+0	1.225625E+0	1.191155E+0	1.211357E+0	1.227709E+0	1.231336E+0	1.157647E+0	1.184552E+0	1.220687E+0	1.213386E+0	1.219610E+0	1.151515E+0	1.214228E+0	1.267525E+0	1.173037E+0	1.247764E+0	1.194800E+0	1.235420E+0	1.239599E+0	1.261953E+0	1.226489E+0	1.187221E+0	1.240867E+0	1.230303E+0	1.268668E+0	1.191472E+0	1.249170E+0	1.206448E+0	1.201534E+0	1.193526E+0	1.272060E+0	1.219357E+0	1.261349E+0	1.247603E+0	1.200707E+0	1.273899E+0	1.248049E+0	1.211251E+0	1.230005E+0	1.243946E+0	1.185684E+0	1.229060E+0	1.176110E+0	1.216964E+0	1.235587E+0	1.268456E+0	1.208767E+0	1.190916E+0	1.177749E+0	1.211627E+0	1.198430E+0	1.201873E+0	1.305968E+0	1.235881E+0	1.203187E+0	1.184976E+0	1.210566E+0	1.201360E+0	1.209901E+0	1.204711E+0	1.258092E+0	1.182485E+0	1.203072E+0	1.237254E+0	1.155539E+0	1.181749E+0	1.194774E+0	1.218992E+0	1.231911E+0	1.147993E+0	1.188064E+0	1.188008E+0	1.246349E+0	1.145137E+0	1.194365E+0	1.245847E+0	1.283622E+0	1.269393E+0	1.202637E+0	1.243156E+0	1.213433E+0	1.252319E+0	1.198492E+0	1.241656E+0	1.268269E+0
5.475230E+2	1.289930E+0	1.287124E+0	1.330023E+0	1.455571E+0	1.313533E+0	1.390336E+0	1.387107E+0	1.309809E+0	1.364764E+0	1.291690E+0	1.292237E+0	1.351465E+0	1.333292E+0	1.341090E+0	1.331100E+0	1.381531E+0	1.276844E+0	1.352338E+0	1.326907E+0	1.292943E+0	1.328484E+0	1.325466E+0	1.349916E+0	1.354057E+0	1.342524E+0	1.297490E+0	1.343456E+0	1.369467E+0	1.389945E+0	1.342003E+0	1.366751E+0	1.421369E+0	1.331035E+0	1.328607E+0	1.304835E+0	1.303535E+0	1.335927E+0	1.334951E+0	1.358698E+0	1.375388E+0	1.335081E+0	1.368551E+0	1.316084E+0	1.316133E+0	1.290254E+0	1.290511E+0	1.354330E+0	1.317572E+0	1.304314E+0	1.372242E+0	1.279598E+0	1.345072E+0	1.349396E+0	1.292593E+0	1.361241E+0	1.414401E+0	1.378315E+0	1.373363E+0	1.408639E+0	1.359078E+0	1.325771E+0	1.270860E+0	1.290976E+0	1.380748E+0	1.319027E+0	1.340599E+0	1.354406E+0	1.353051E+0	1.305480E+0	1.335677E+0	1.409713E+0	1.356858E+0	1.334511E+0	1.276175E+0	1.320836E+0	1.313132E+0	1.340674E+0	1.372845E+0	1.349497E+0	1.375742E+0	1.345986E+0	1.340919E+0	1.298603E+0	1.308776E+0	1.354479E+0	1.317759E+0	1.412479E+0	1.297185E+0	1.366778E+0	1.332814E+0	1.353831E+0	1.323489E+0	1.316958E+0	1.317855E+0	1.290549E+0	1.321217E+0	1.336194E+0	1.333464E+0	1.332734E+0	1.336513E+0	1.321939E+0	1.355031E+0	1.329098E+0	1.295897E+0	1.326986E+0	1.302327E+0	1.332083E+0	1.336589E+0	1.336871E+0	1.351308E+0	1.314132E+0	1.378592E+0	1.322659E+0	1.335764E+0	1.303103E+0	1.292485E+0	1.323667E+0	1.324020E+0	1.330996E+0	1.355478E+0	1.372130E+0	1.315838E+0	1.329398E+0	1.362650E+0	1.331932E+0	1.354458E+0	1.336051E+0	1.338213E+0	1.311513E+0	1.320608E+0	1.290422E+0	1.319011E+0	1.288010E+0	1.292718E+0	1.333780E+0	1.302919E+0	1.354613E+0	1.303727E+0	1.328893E+0	1.386673E+0	1.320182E+0	1.317525E+0	1.308340E+0	1.323462E+0	1.341643E+0	1.354169E+0	1.343195E+0	1.402632E+0	1.372469E+0	1.322733E+0	1.338068E+0	1.275738E+0	1.328782E+0	1.253780E+0	1.368834E+0	1.331912E+0	1.305527E+0	1.311730E+0	1.291301E+0	1.403831E+0	1.375887E+0	1.262876E+0	1.336936E+0	1.388535E+0	1.274096E+0	1.297346E+0	1.304391E+0	1.373813E+0	1.388802E+0	1.359028E+0	1.213521E+0	1.239178E+0
5.482600E+2	1.407068E+0	1.355391E+0	1.469899E+0	1.627534E+0	1.382103E+0	1.393178E+0	1.424166E+0	1.423259E+0	1.479545E+0	1.395606E+0	1.404393E+0	1.523214E+0	1.393726E+0	1.421199E+0	1.445008E+0	1.425985E+0	1.476687E+0	1.496344E+0	1.390460E+0	1.405622E+0	1.398000E+0	1.425779E+0	1.412391E+0	1.450417E+0	1.411821E+0	1.443836E+0	1.426732E+0	1.442428E+0	1.407106E+0	1.371287E+0	1.388380E+0	1.477694E+0	1.426385E+0	1.406553E+0	1.354551E+0	1.428181E+0	1.410356E+0	1.415915E+0	1.355857E+0	1.466716E+0	1.464968E+0	1.441854E+0	1.438433E+0	1.393375E+0	1.444928E+0	1.386267E+0	1.379556E+0	1.411803E+0	1.430645E+0	1.412408E+0	1.433045E+0	1.439356E+0	1.466221E+0	1.406683E+0	1.393341E+0	1.451843E+0	1.390006E+0	1.437370E+0	1.416249E+0	1.430015E+0	1.434831E+0	1.394148E+0	1.397814E+0	1.457953E+0	1.429490E+0	1.435725E+0	1.416452E+0	1.459715E+0	1.470716E+0	1.351313E+0	1.454669E+0	1.446504E+0	1.440263E+0	1.378001E+0	1.410099E+0	1.366030E+0	1.427777E+0	1.400512E+0	1.421236E+0	1.493963E+0	1.432236E+0	1.405548E+0	1.412804E+0	1.449761E+0	1.460877E+0	1.421296E+0	1.382737E+0	1.412939E+0	1.432769E+0	1.388179E+0	1.440423E+0	1.410768E+0	1.466310E+0	1.395703E+0	1.412895E+0	1.449325E+0	1.404124E+0	1.400589E+0	1.397657E+0	1.349916E+0	1.482641E+0	1.410188E+0	1.420038E+0	1.456251E+0	1.413848E+0	1.368601E+0	1.452867E+0	1.441537E+0	1.434207E+0	1.411315E+0	1.395766E+0	1.434971E+0	1.399075E+0	1.409976E+0	1.326892E+0	1.371047E+0	1.520920E+0	1.375561E+0	1.374678E+0	1.396148E+0	1.414349E+0	1.379884E+0	1.403643E+0	1.436406E+0	1.387977E+0	1.428377E+0	1.400810E+0	1.381435E+0	1.457545E+0	1.408063E+0	1.464212E+0	1.382271E+0	1.385637E+0	1.415269E+0	1.406799E+0	1.416820E+0	1.409324E+0	1.406742E+0	1.440288E+0	1.447020E+0	1.393186E+0	1.421953E+0	1.395725E+0	1.460027E+0	1.371677E+0	1.447911E+0	1.376020E+0	1.469938E+0	1.411705E+0	1.344718E+0	1.398877E+0	1.399500E+0	1.389300E+0	1.402651E+0	1.403911E+0	1.450626E+0	1.400313E+0	1.389395E+0	1.387866E+0	1.464866E+0	1.351789E+0	1.370371E+0	1.374238E+0	1.462318E+0	1.395476E+0	1.338494E+0	1.395285E+0	1.449375E+0	1.398733E+0	1.448976E+0	1.352244E+0	1.560996E+0
5.490100E+2	1.447818E+0	1.396295E+0	1.427910E+0	1.667142E+0	1.421284E+0	1.449152E+0	1.383789E+0	1.389325E+0	1.378915E+0	1.463014E+0	1.431270E+0	1.477819E+0	1.455840E+0	1.455395E+0	1.433436E+0	1.462157E+0	1.356757E+0	1.464574E+0	1.458238E+0	1.444457E+0	1.496878E+0	1.455557E+0	1.465844E+0	1.415993E+0	1.497890E+0	1.392388E+0	1.442798E+0	1.516729E+0	1.468065E+0	1.391373E+0	1.433378E+0	1.511604E+0	1.393811E+0	1.416074E+0	1.400789E+0	1.474077E+0	1.427843E+0	1.441405E+0	1.418786E+0	1.403752E+0	1.442363E+0	1.479454E+0	1.419138E+0	1.484778E+0	1.386441E+0	1.413895E+0	1.414979E+0	1.386989E+0	1.422183E+0	1.429959E+0	1.428088E+0	1.413244E+0	1.432722E+0	1.409992E+0	1.443839E+0	1.455779E+0	1.434492E+0	1.444431E+0	1.417868E+0	1.505359E+0	1.508455E+0	1.390739E+0	1.431369E+0	1.447622E+0	1.384117E+0	1.400865E+0	1.464576E+0	1.461953E+0	1.439125E+0	1.431660E+0	1.460500E+0	1.489642E+0	1.403433E+0	1.374167E+0	1.450929E+0	1.414150E+0	1.433144E+0	1.400252E+0	1.361626E+0	1.414587E+0	1.472538E+0	1.478925E+0	1.420961E+0	1.402085E+0	1.442391E+0	1.388987E+0	1.430717E+0	1.479806E+0	1.486102E+0	1.433636E+0	1.438567E+0	1.390029E+0	1.382532E+0	1.443221E+0	1.421421E+0	1.441577E+0	1.390580E+0	1.405760E+0	1.413236E+0	1.346690E+0	1.440210E+0	1.431922E+0	1.423445E+0	1.399860E+0	1.426207E+0	1.365242E+0	1.435231E+0	1.400339E+0	1.450519E+0	1.424618E+0	1.416789E+0	1.436507E+0	1.414291E+0	1.401504E+0	1.467428E+0	1.431285E+0	1.412737E+0	1.396875E+0	1.398396E+0	1.438210E+0	1.422798E+0	1.421097E+0	1.394127E+0	1.458868E+0	1.406429E+0	1.400426E+0	1.410551E+0	1.425165E+0	1.465686E+0	1.463411E+0	1.432078E+0	1.441387E+0	1.378969E+0	1.401775E+0	1.387147E+0	1.478448E+0	1.477993E+0	1.394920E+0	1.379857E+0	1.459079E+0	1.427992E+0	1.434492E+0	1.403518E+0	1.397046E+0	1.408470E+0	1.419110E+0	1.351142E+0	1.415534E+0	1.410078E+0	1.408536E+0	1.420450E+0	1.397312E+0	1.410373E+0	1.411415E+0	1.373122E+0	1.425493E+0	1.399274E+0	1.445948E+0	1.328386E+0	1.479465E+0	1.376127E+0	1.442764E+0	1.399536E+0	1.447438E+0	1.414279E+0	1.443585E+0	1.444651E+0	1.415640E+0	1.405590E+0	1.415705E+0	1.399960E+0	1.547505E+0
5.497680E+2	1.290380E+0	1.246374E+0	1.277319E+0	1.488632E+0	1.316739E+0	1.329502E+0	1.300196E+0	1.299760E+0	1.284363E+0	1.302535E+0	1.301392E+0	1.355973E+0	1.280850E+0	1.293067E+0	1.337589E+0	1.298121E+0	1.291195E+0	1.358493E+0	1.298452E+0	1.340451E+0	1.294687E+0	1.337697E+0	1.327744E+0	1.352797E+0	1.376839E+0	1.296963E+0	1.318611E+0	1.354930E+0	1.277581E+0	1.317456E+0	1.312949E+0	1.352262E+0	1.293542E+0	1.317377E+0	1.306495E+0	1.288321E+0	1.327988E+0	1.272094E+0	1.266488E+0	1.303129E+0	1.341213E+0	1.314938E+0	1.336591E+0	1.328909E+0	1.297148E+0	1.288925E+0	1.294496E+0	1.378523E+0	1.268685E+0	1.282694E+0	1.280233E+0	1.300302E+0	1.346624E+0	1.327578E+0	1.341642E+0	1.271196E+0	1.298122E+0	1.276889E+0	1.303896E+0	1.355285E+0	1.340050E+0	1.325146E+0	1.333021E+0	1.358607E+0	1.301519E+0	1.317493E+0	1.295747E+0	1.327291E+0	1.345952E+0	1.317647E+0	1.335197E+0	1.349661E+0	1.306537E+0	1.296860E+0	1.322094E+0	1.292252E+0	1.340567E+0	1.287566E+0	1.309709E+0	1.386093E+0	1.330749E+0	1.287562E+0	1.326941E+0	1.309528E+0	1.349724E+0	1.324730E+0	1.315465E+0	1.375279E+0	1.296695E+0	1.368991E+0	1.300272E+0	1.324401E+0	1.337004E+0	1.274178E+0	1.323906E+0	1.330028E+0	1.321093E+0	1.303816E+0	1.284547E+0	1.320113E+0	1.307198E+0	1.305130E+0	1.308511E+0	1.304915E+0	1.338381E+0	1.274082E+0	1.324639E+0	1.296490E+0	1.309261E+0	1.316755E+0	1.292603E+0	1.334334E+0	1.291705E+0	1.332265E+0	1.294656E+0	1.321869E+0	1.309774E+0	1.301251E+0	1.288105E+0	1.304706E+0	1.337060E+0	1.318990E+0	1.303746E+0	1.288365E+0	1.307131E+0	1.293877E+0	1.314984E+0	1.345948E+0	1.335230E+0	1.286875E+0	1.276998E+0	1.377624E+0	1.295542E+0	1.302484E+0	1.300446E+0	1.352734E+0	1.308268E+0	1.310472E+0	1.278683E+0	1.313922E+0	1.331956E+0	1.318397E+0	1.295566E+0	1.338424E+0	1.310217E+0	1.317596E+0	1.292522E+0	1.318618E+0	1.335620E+0	1.310420E+0	1.323892E+0	1.320368E+0	1.322392E+0	1.279382E+0	1.213036E+0	1.326252E+0	1.297515E+0	1.320348E+0	1.276943E+0	1.381857E+0	1.233829E+0	1.334671E+0	1.270667E+0	1.300045E+0	1.336633E+0	1.325737E+0	1.296655E+0	1.297586E+0	1.311171E+0	1.324069E+0	1.299971E+0	1.453852E+0
5.505060E+2	1.361467E+0	1.293615E+0	1.382077E+0	1.491030E+0	1.339926E+0	1.282979E+0	1.360048E+0	1.309792E+0	1.368619E+0	1.351179E+0	1.335214E+0	1.382239E+0	1.359378E+0	1.335330E+0	1.327596E+0	1.314869E+0	1.344878E+0	1.367931E+0	1.350381E+0	1.285967E+0	1.297863E+0	1.312878E+0	1.334811E+0	1.351231E+0	1.357597E+0	1.330015E+0	1.358045E+0	1.332689E+0	1.336638E+0	1.347616E+0	1.310823E+0	1.370747E+0	1.300095E+0	1.314477E+0	1.348281E+0	1.341877E+0	1.335654E+0	1.383094E+0	1.346100E+0	1.312487E+0	1.338412E+0	1.291526E+0	1.326838E+0	1.352288E+0	1.336993E+0	1.285443E+0	1.337266E+0	1.366553E+0	1.330476E+0	1.349492E+0	1.324822E+0	1.386763E+0	1.395747E+0	1.317810E+0	1.348447E+0	1.368161E+0	1.303805E+0	1.323014E+0	1.347762E+0	1.369760E+0	1.357542E+0	1.322557E+0	1.309971E+0	1.369086E+0	1.332109E+0	1.290558E+0	1.326417E+0	1.307321E+0	1.313983E+0	1.395461E+0	1.336244E+0	1.304288E+0	1.394266E+0	1.308597E+0	1.339830E+0	1.345654E+0	1.342420E+0	1.319649E+0	1.334248E+0	1.394229E+0	1.286156E+0	1.335502E+0	1.362980E+0	1.350840E+0	1.330026E+0	1.300997E+0	1.403674E+0	1.316600E+0	1.359618E+0	1.349180E+0	1.300944E+0	1.325242E+0	1.364411E+0	1.344435E+0	1.352739E+0	1.329660E+0	1.296839E+0	1.334410E+0	1.343059E+0	1.327465E+0	1.325178E+0	1.336713E+0	1.300859E+0	1.324065E+0	1.323061E+0	1.303552E+0	1.383516E+0	1.304028E+0	1.318629E+0	1.314878E+0	1.309955E+0	1.331384E+0	1.299721E+0	1.327325E+0	1.333987E+0	1.317232E+0	1.331736E+0	1.330929E+0	1.291788E+0	1.351986E+0	1.368043E+0	1.357847E+0	1.318110E+0	1.309650E+0	1.360059E+0	1.335978E+0	1.304279E+0	1.378700E+0	1.303294E+0	1.296585E+0	1.330525E+0	1.344725E+0	1.293970E+0	1.288631E+0	1.295735E+0	1.338197E+0	1.363172E+0	1.308179E+0	1.216180E+0	1.361832E+0	1.321740E+0	1.360971E+0	1.298690E+0	1.334337E+0	1.289032E+0	1.306660E+0	1.357948E+0	1.343015E+0	1.380777E+0	1.271940E+0	1.349827E+0	1.332672E+0	1.327710E+0	1.296265E+0	1.322372E+0	1.353960E+0	1.299123E+0	1.335942E+0	1.257942E+0	1.307924E+0	1.290697E+0	1.337777E+0	1.302254E+0	1.363298E+0	1.390753E+0	1.300828E+0	1.343824E+0	1.299281E+0	1.337510E+0	1.294459E+0	1.425269E+0	1.531866E+0
5.512620E+2	1.346316E+0	1.340920E+0	1.398745E+0	1.424263E+0	1.330889E+0	1.378275E+0	1.303618E+0	1.293545E+0	1.274416E+0	1.331588E+0	1.282294E+0	1.337690E+0	1.301824E+0	1.365761E+0	1.321515E+0	1.334809E+0	1.323025E+0	1.355735E+0	1.326888E+0	1.374230E+0	1.368430E+0	1.334222E+0	1.349520E+0	1.339544E+0	1.364769E+0	1.298108E+0	1.381300E+0	1.382333E+0	1.361178E+0	1.333271E+0	1.336969E+0	1.312325E+0	1.330122E+0	1.329467E+0	1.319294E+0	1.255827E+0	1.387079E+0	1.312973E+0	1.305363E+0	1.304773E+0	1.334116E+0	1.326552E+0	1.317412E+0	1.331814E+0	1.331519E+0	1.346351E+0	1.329505E+0	1.323893E+0	1.339398E+0	1.311611E+0	1.363564E+0	1.274018E+0	1.390115E+0	1.331313E+0	1.357191E+0	1.355027E+0	1.353082E+0	1.336533E+0	1.312996E+0	1.323501E+0	1.349529E+0	1.276474E+0	1.350133E+0	1.341469E+0	1.355015E+0	1.305031E+0	1.375319E+0	1.316671E+0	1.357658E+0	1.273471E+0	1.374565E+0	1.328327E+0	1.358709E+0	1.330398E+0	1.257161E+0	1.359421E+0	1.377706E+0	1.354145E+0	1.334540E+0	1.300802E+0	1.304041E+0	1.371798E+0	1.321879E+0	1.299924E+0	1.333636E+0	1.365809E+0	1.273775E+0	1.369718E+0	1.329570E+0	1.339058E+0	1.338516E+0	1.363007E+0	1.334460E+0	1.327566E+0	1.303010E+0	1.353235E+0	1.324908E+0	1.284267E+0	1.280212E+0	1.319183E+0	1.378136E+0	1.330944E+0	1.340813E+0	1.329434E+0	1.341854E+0	1.309301E+0	1.351594E+0	1.328050E+0	1.303095E+0	1.291872E+0	1.344622E+0	1.333814E+0	1.292792E+0	1.354331E+0	1.309499E+0	1.363197E+0	1.355599E+0	1.342166E+0	1.311677E+0	1.350645E+0	1.323038E+0	1.316159E+0	1.338594E+0	1.323553E+0	1.354220E+0	1.343019E+0	1.338699E+0	1.322189E+0	1.331274E+0	1.269788E+0	1.324576E+0	1.329948E+0	1.308226E+0	1.272811E+0	1.320069E+0	1.337924E+0	1.376797E+0	1.362536E+0	1.296608E+0	1.363344E+0	1.343830E+0	1.272859E+0	1.322512E+0	1.319308E+0	1.341739E+0	1.318768E+0	1.274694E+0	1.288391E+0	1.324901E+0	1.384729E+0	1.368692E+0	1.347988E+0	1.305323E+0	1.308330E+0	1.320572E+0	1.333393E+0	1.325976E+0	1.364852E+0	1.271578E+0	1.331169E+0	1.333763E+0	1.364020E+0	1.306688E+0	1.372664E+0	1.350655E+0	1.302690E+0	1.341121E+0	1.345327E+0	1.280538E+0	1.416059E+0	1.316011E+0	1.345600E+0
5.520150E+2	1.320950E+0	1.245355E+0	1.370390E+0	1.383666E+0	1.305613E+0	1.299625E+0	1.330855E+0	1.287839E+0	1.279688E+0	1.314226E+0	1.240835E+0	1.322221E+0	1.287249E+0	1.326645E+0	1.242844E+0	1.319458E+0	1.304304E+0	1.365216E+0	1.317782E+0	1.304905E+0	1.368401E+0	1.351911E+0	1.331123E+0	1.301941E+0	1.255278E+0	1.288501E+0	1.359020E+0	1.363133E+0	1.305619E+0	1.292862E+0	1.320906E+0	1.264504E+0	1.357041E+0	1.299469E+0	1.296474E+0	1.293562E+0	1.285902E+0	1.269953E+0	1.319388E+0	1.308580E+0	1.312147E+0	1.332634E+0	1.299879E+0	1.316061E+0	1.290562E+0	1.246648E+0	1.257837E+0	1.306539E+0	1.285506E+0	1.291234E+0	1.339511E+0	1.257593E+0	1.340331E+0	1.308528E+0	1.316777E+0	1.287901E+0	1.353483E+0	1.261345E+0	1.293007E+0	1.316858E+0	1.301311E+0	1.276636E+0	1.270686E+0	1.323811E+0	1.312493E+0	1.275150E+0	1.262743E+0	1.350580E+0	1.301276E+0	1.320694E+0	1.294770E+0	1.285240E+0	1.333160E+0	1.294579E+0	1.251072E+0	1.276054E+0	1.284290E+0	1.231635E+0	1.304275E+0	1.307706E+0	1.333434E+0	1.331160E+0	1.275221E+0	1.277160E+0	1.279570E+0	1.271175E+0	1.331034E+0	1.293974E+0	1.392103E+0	1.270563E+0	1.268961E+0	1.280795E+0	1.240843E+0	1.286652E+0	1.275218E+0	1.340471E+0	1.314841E+0	1.340776E+0	1.322086E+0	1.284663E+0	1.361262E+0	1.289201E+0	1.313963E+0	1.295614E+0	1.322782E+0	1.267169E+0	1.298649E+0	1.233709E+0	1.304358E+0	1.294498E+0	1.304794E+0	1.320823E+0	1.320222E+0	1.283321E+0	1.307619E+0	1.306858E+0	1.254491E+0	1.313296E+0	1.330153E+0	1.332063E+0	1.369070E+0	1.311196E+0	1.262739E+0	1.283871E+0	1.321230E+0	1.314519E+0	1.313245E+0	1.328702E+0	1.315112E+0	1.290253E+0	1.288626E+0	1.312965E+0	1.281663E+0	1.301395E+0	1.296676E+0	1.262515E+0	1.350181E+0	1.306361E+0	1.318883E+0	1.316778E+0	1.355310E+0	1.350008E+0	1.292800E+0	1.312302E+0	1.279403E+0	1.332931E+0	1.304320E+0	1.258708E+0	1.366663E+0	1.260979E+0	1.299077E+0	1.286586E+0	1.298814E+0	1.270759E+0	1.244693E+0	1.326877E+0	1.322356E+0	1.261485E+0	1.283658E+0	1.345071E+0	1.286890E+0	1.319440E+0	1.325328E+0	1.259584E+0	1.291403E+0	1.278458E+0	1.319659E+0	1.260991E+0	1.308995E+0	1.233648E+0	1.159697E+0	1.441738E+0
5.527650E+2	1.295492E+0	1.274812E+0	1.354929E+0	1.414285E+0	1.324338E+0	1.283143E+0	1.308843E+0	1.338127E+0	1.305744E+0	1.306726E+0	1.251324E+0	1.335764E+0	1.279601E+0	1.255736E+0	1.290527E+0	1.354521E+0	1.319320E+0	1.315488E+0	1.272061E+0	1.274912E+0	1.329509E+0	1.289644E+0	1.344444E+0	1.255904E+0	1.279478E+0	1.338510E+0	1.368023E+0	1.281332E+0	1.293349E+0	1.306745E+0	1.315959E+0	1.330939E+0	1.344050E+0	1.286303E+0	1.297606E+0	1.285035E+0	1.301140E+0	1.286988E+0	1.313611E+0	1.289333E+0	1.269200E+0	1.331401E+0	1.279925E+0	1.304737E+0	1.335296E+0	1.300917E+0	1.314505E+0	1.292697E+0	1.306578E+0	1.254081E+0	1.313442E+0	1.324246E+0	1.281459E+0	1.293471E+0	1.307650E+0	1.296512E+0	1.268060E+0	1.271455E+0	1.290216E+0	1.258159E+0	1.300402E+0	1.298103E+0	1.239953E+0	1.243418E+0	1.315414E+0	1.290604E+0	1.328467E+0	1.320719E+0	1.275982E+0	1.303524E+0	1.303711E+0	1.275964E+0	1.314468E+0	1.292349E+0	1.292929E+0	1.293331E+0	1.272518E+0	1.308463E+0	1.259348E+0	1.274750E+0	1.278515E+0	1.352884E+0	1.316580E+0	1.286261E+0	1.293306E+0	1.317249E+0	1.317893E+0	1.294371E+0	1.259859E+0	1.308104E+0	1.240776E+0	1.216773E+0	1.339597E+0	1.311711E+0	1.307574E+0	1.288582E+0	1.335233E+0	1.254012E+0	1.260843E+0	1.282699E+0	1.298166E+0	1.258446E+0	1.303861E+0	1.283044E+0	1.293953E+0	1.246624E+0	1.284595E+0	1.229093E+0	1.334381E+0	1.302446E+0	1.317040E+0	1.273192E+0	1.298565E+0	1.306164E+0	1.285122E+0	1.303924E+0	1.306456E+0	1.285428E+0	1.275127E+0	1.301063E+0	1.300955E+0	1.303811E+0	1.238561E+0	1.327143E+0	1.320647E+0	1.337217E+0	1.276054E+0	1.322432E+0	1.357298E+0	1.250161E+0	1.282480E+0	1.290284E+0	1.295539E+0	1.277336E+0	1.246203E+0	1.291443E+0	1.334479E+0	1.257090E+0	1.286074E+0	1.264306E+0	1.256460E+0	1.309556E+0	1.262123E+0	1.280980E+0	1.283584E+0	1.335298E+0	1.271015E+0	1.271018E+0	1.277033E+0	1.244653E+0	1.348315E+0	1.221791E+0	1.270413E+0	1.305323E+0	1.299858E+0	1.326365E+0	1.304495E+0	1.276154E+0	1.285858E+0	1.334833E+0	1.251413E+0	1.322248E+0	1.284631E+0	1.318380E+0	1.278873E+0	1.284086E+0	1.252619E+0	1.281684E+0	1.356832E+0	1.256251E+0	1.268767E+0	1.358800E+0
5.535100E+2	1.218195E+0	1.205772E+0	1.242027E+0	1.331255E+0	1.233941E+0	1.220396E+0	1.237117E+0	1.257686E+0	1.244621E+0	1.245551E+0	1.167494E+0	1.233758E+0	1.226535E+0	1.232775E+0	1.212340E+0	1.239189E+0	1.249728E+0	1.279534E+0	1.290309E+0	1.218899E+0	1.264130E+0	1.227686E+0	1.254446E+0	1.243450E+0	1.193253E+0	1.250724E+0	1.211654E+0	1.220040E+0	1.222385E+0	1.173363E+0	1.249601E+0	1.251946E+0	1.248357E+0	1.249721E+0	1.287002E+0	1.216924E+0	1.231755E+0	1.242269E+0	1.211864E+0	1.213017E+0	1.229814E+0	1.242483E+0	1.208383E+0	1.294719E+0	1.232602E+0	1.199680E+0	1.176695E+0	1.183313E+0	1.237754E+0	1.224215E+0	1.208239E+0	1.267713E+0	1.256087E+0	1.209138E+0	1.211223E+0	1.218159E+0	1.244437E+0	1.235218E+0	1.222998E+0	1.248945E+0	1.312597E+0	1.256515E+0	1.225151E+0	1.215581E+0	1.259139E+0	1.231269E+0	1.300806E+0	1.246974E+0	1.231511E+0	1.229220E+0	1.218663E+0	1.239470E+0	1.266408E+0	1.234994E+0	1.204428E+0	1.227442E+0	1.189930E+0	1.209738E+0	1.266707E+0	1.254739E+0	1.234968E+0	1.263486E+0	1.245038E+0	1.272010E+0	1.236451E+0	1.253434E+0	1.263273E+0	1.245890E+0	1.246062E+0	1.238702E+0	1.256695E+0	1.209950E+0	1.229929E+0	1.243269E+0	1.234983E+0	1.213057E+0	1.240678E+0	1.266415E+0	1.234963E+0	1.257813E+0	1.286500E+0	1.245639E+0	1.236508E+0	1.247149E+0	1.226978E+0	1.218023E+0	1.225624E+0	1.219159E+0	1.238015E+0	1.221440E+0	1.208302E+0	1.229885E+0	1.226932E+0	1.199974E+0	1.263513E+0	1.158905E+0	1.258380E+0	1.250937E+0	1.185115E+0	1.250297E+0	1.235853E+0	1.202418E+0	1.187074E+0	1.224296E+0	1.204508E+0	1.198833E+0	1.203820E+0	1.228694E+0	1.221303E+0	1.203058E+0	1.198347E+0	1.188103E+0	1.246691E+0	1.184863E+0	1.166277E+0	1.264299E+0	1.255318E+0	1.168025E+0	1.219007E+0	1.210339E+0	1.242406E+0	1.245538E+0	1.220312E+0	1.198160E+0	1.276266E+0	1.249304E+0	1.212414E+0	1.226997E+0	1.250076E+0	1.211665E+0	1.233183E+0	1.256803E+0	1.230716E+0	1.263654E+0	1.208212E+0	1.268599E+0	1.189594E+0	1.219504E+0	1.233814E+0	1.280702E+0	1.202253E+0	1.224852E+0	1.226468E+0	1.220958E+0	1.224523E+0	1.233996E+0	1.209143E+0	1.186285E+0	1.214620E+0	1.318470E+0	1.224104E+0	1.297862E+0
5.542530E+2	1.131586E+0	1.074082E+0	1.112982E+0	1.134851E+0	1.113949E+0	1.113111E+0	1.129638E+0	1.098268E+0	1.077466E+0	1.109407E+0	1.132342E+0	1.138120E+0	1.145822E+0	1.130638E+0	1.124157E+0	1.149950E+0	1.150813E+0	1.138089E+0	1.134607E+0	1.108628E+0	1.147621E+0	1.196180E+0	1.159795E+0	1.147546E+0	1.091253E+0	1.176525E+0	1.166949E+0	1.135904E+0	1.156471E+0	1.182160E+0	1.141213E+0	1.158764E+0	1.109784E+0	1.085627E+0	1.169447E+0	1.121995E+0	1.151228E+0	1.149799E+0	1.102927E+0	1.133472E+0	1.174718E+0	1.155448E+0	1.157062E+0	1.125525E+0	1.101521E+0	1.116989E+0	1.115292E+0	1.140622E+0	1.138114E+0	1.122084E+0	1.121967E+0	1.131118E+0	1.152572E+0	1.142582E+0	1.161874E+0	1.160716E+0	1.134633E+0	1.101094E+0	1.121323E+0	1.161909E+0	1.126713E+0	1.135594E+0	1.123536E+0	1.158533E+0	1.185648E+0	1.111118E+0	1.126063E+0	1.134860E+0	1.148234E+0	1.117919E+0	1.169473E+0	1.091844E+0	1.144357E+0	1.137895E+0	1.116258E+0	1.101231E+0	1.119400E+0	1.144719E+0	1.078523E+0	1.181716E+0	1.170993E+0	1.107475E+0	1.149147E+0	1.128983E+0	1.138773E+0	1.130951E+0	1.194272E+0	1.156821E+0	1.194559E+0	1.121141E+0	1.144433E+0	1.105995E+0	1.170471E+0	1.107995E+0	1.138303E+0	1.126354E+0	1.118220E+0	1.160624E+0	1.114263E+0	1.161694E+0	1.209730E+0	1.134027E+0	1.134240E+0	1.074531E+0	1.164281E+0	1.133115E+0	1.180301E+0	1.113677E+0	1.157187E+0	1.167081E+0	1.166703E+0	1.084034E+0	1.141402E+0	1.157106E+0	1.140596E+0	1.128965E+0	1.120851E+0	1.162093E+0	1.095571E+0	1.151629E+0	1.127313E+0	1.157332E+0	1.134459E+0	1.133957E+0	1.148928E+0	1.114779E+0	1.127311E+0	1.154325E+0	1.170414E+0	1.142253E+0	1.140855E+0	1.151023E+0	1.124164E+0	1.166485E+0	1.144630E+0	1.130068E+0	1.171430E+0	1.073318E+0	1.141849E+0	1.138235E+0	1.112211E+0	1.154616E+0	1.114167E+0	1.136760E+0	1.121883E+0	1.164499E+0	1.166087E+0	1.117039E+0	1.082561E+0	1.113603E+0	1.129607E+0	1.087203E+0	1.141685E+0	1.138995E+0	1.101331E+0	1.122530E+0	1.160576E+0	1.139204E+0	1.070899E+0	1.111915E+0	1.120570E+0	1.135260E+0	1.139091E+0	1.127436E+0	1.172738E+0	1.101231E+0	1.125060E+0	1.163906E+0	1.174159E+0	1.133196E+0	1.040312E+0	1.133415E+0
5.550140E+2	1.021981E+0	9.920292E-1	1.004450E+0	9.892858E-1	9.937887E-1	9.639766E-1	9.598890E-1	9.624462E-1	1.048636E+0	1.021640E+0	1.020202E+0	1.009063E+0	9.815589E-1	1.019570E+0	1.009646E+0	9.932661E-1	1.017057E+0	9.967080E-1	1.052092E+0	1.009202E+0	9.925831E-1	9.656251E-1	1.011337E+0	1.013757E+0	1.025757E+0	1.009836E+0	1.011092E+0	1.001881E+0	9.690640E-1	9.994486E-1	1.030648E+0	1.017413E+0	9.813997E-1	1.017213E+0	9.801386E-1	9.800306E-1	1.000499E+0	9.676950E-1	9.721476E-1	9.919508E-1	1.060325E+0	1.035727E+0	1.020600E+0	9.903875E-1	9.957241E-1	9.751570E-1	1.010099E+0	1.023594E+0	9.818907E-1	1.012630E+0	1.035292E+0	1.016145E+0	1.053674E+0	9.848722E-1	1.018219E+0	9.613000E-1	9.991125E-1	9.602363E-1	9.763779E-1	1.015689E+0	1.009438E+0	1.005252E+0	9.880078E-1	9.992960E-1	1.041669E+0	9.975486E-1	1.012741E+0	1.074115E+0	9.936513E-1	9.576967E-1	9.984256E-1	1.018850E+0	1.016394E+0	1.018586E+0	1.013863E+0	1.037757E+0	1.050207E+0	1.006636E+0	1.035022E+0	9.972055E-1	1.020258E+0	9.954811E-1	1.019914E+0	9.367748E-1	1.021760E+0	1.002962E+0	1.009309E+0	1.006212E+0	1.004976E+0	1.012969E+0	9.699376E-1	1.025334E+0	9.912556E-1	1.004177E+0	9.981178E-1	1.013388E+0	1.031932E+0	1.051886E+0	9.928123E-1	1.008830E+0	1.018408E+0	9.669927E-1	9.973920E-1	1.004648E+0	1.001208E+0	9.672171E-1	1.032603E+0	1.002348E+0	9.860944E-1	1.017800E+0	1.010054E+0	1.009443E+0	9.981048E-1	1.011098E+0	1.029378E+0	1.039689E+0	1.011916E+0	9.995638E-1	1.003922E+0	1.018676E+0	1.039794E+0	1.022763E+0	1.049642E+0	9.895885E-1	9.767143E-1	9.809668E-1	9.924110E-1	1.008779E+0	1.010177E+0	9.818353E-1	1.029292E+0	9.988539E-1	1.034521E+0	9.803370E-1	1.048765E+0	1.008108E+0	1.005533E+0	1.006310E+0	9.841755E-1	1.040089E+0	9.982948E-1	1.036368E+0	1.005711E+0	9.588478E-1	1.007441E+0	1.028790E+0	9.892377E-1	9.646053E-1	1.002841E+0	1.013319E+0	1.024735E+0	1.023251E+0	9.874089E-1	1.020859E+0	9.808308E-1	1.016037E+0	1.004530E+0	1.026121E+0	9.737399E-1	9.962108E-1	9.947200E-1	1.003124E+0	9.948395E-1	1.051414E+0	1.045791E+0	9.896935E-1	1.017199E+0	1.000093E+0	9.922125E-1	1.012186E+0	9.507692E-1	1.042054E+0
5.557660E+2	9.900472E-1	9.438345E-1	1.011146E+0	9.854577E-1	9.561710E-1	9.644525E-1	9.840579E-1	1.018201E+0	9.873991E-1	9.869235E-1	9.506051E-1	1.007882E+0	9.992379E-1	9.806335E-1	9.828424E-1	9.952586E-1	1.017847E+0	1.022398E+0	9.509245E-1	1.019085E+0	1.007136E+0	9.766265E-1	9.898029E-1	9.921926E-1	1.004392E+0	9.853001E-1	1.018484E+0	1.004471E+0	1.003246E+0	9.673109E-1	9.853289E-1	1.019634E+0	1.029721E+0	9.805038E-1	9.663339E-1	9.577707E-1	1.002775E+0	9.561389E-1	9.103499E-1	9.734895E-1	9.805293E-1	9.630797E-1	9.668220E-1	1.003203E+0	9.406868E-1	9.693004E-1	9.720468E-1	9.786591E-1	1.002112E+0	1.018309E+0	9.504267E-1	9.896315E-1	9.963252E-1	9.923690E-1	1.035030E+0	9.565933E-1	1.055901E+0	1.001139E+0	9.749750E-1	1.034894E+0	9.850309E-1	9.726987E-1	9.535457E-1	1.005908E+0	1.017338E+0	9.630115E-1	1.009340E+0	9.854829E-1	9.914024E-1	9.715140E-1	9.842736E-1	1.004188E+0	9.748485E-1	9.818967E-1	9.706903E-1	9.817504E-1	9.940526E-1	9.652536E-1	9.726514E-1	9.754114E-1	9.877234E-1	9.760710E-1	9.795421E-1	1.000881E+0	9.832497E-1	9.865083E-1	9.458665E-1	9.704276E-1	9.436818E-1	9.926736E-1	1.003104E+0	9.852076E-1	1.020570E+0	1.002341E+0	1.007019E+0	9.609063E-1	9.445518E-1	1.016892E+0	1.016954E+0	9.542257E-1	1.030920E+0	9.534279E-1	1.002158E+0	9.348731E-1	9.662157E-1	9.835839E-1	1.006338E+0	9.650676E-1	9.865358E-1	9.681201E-1	1.009323E+0	9.677444E-1	1.008196E+0	1.024473E+0	1.026703E+0	9.740913E-1	9.400055E-1	9.755305E-1	9.873280E-1	1.003076E+0	9.854297E-1	9.875571E-1	9.510762E-1	9.888822E-1	9.743327E-1	1.007606E+0	9.767208E-1	9.851279E-1	1.033238E+0	1.015735E+0	9.466577E-1	1.016419E+0	9.891660E-1	9.480390E-1	9.549884E-1	9.941361E-1	9.749034E-1	9.895767E-1	9.652191E-1	1.016521E+0	1.019148E+0	9.798936E-1	9.642532E-1	9.813289E-1	9.742689E-1	9.994973E-1	9.275580E-1	9.844627E-1	1.023928E+0	1.009719E+0	9.715831E-1	1.012087E+0	9.340967E-1	9.936547E-1	9.639999E-1	1.010735E+0	1.042292E+0	9.738678E-1	9.613794E-1	9.734563E-1	9.969633E-1	9.656590E-1	9.886022E-1	1.031815E+0	1.001204E+0	9.619361E-1	9.719153E-1	9.855743E-1	9.731570E-1	1.070167E+0	9.267486E-1	8.707453E-1
5.560130E+2	9.778321E-1	9.995985E-1	1.049741E+0	9.771573E-1	9.994634E-1	9.799265E-1	9.756614E-1	9.807618E-1	9.917065E-1	9.864295E-1	9.863503E-1	9.956026E-1	1.027888E+0	9.842812E-1	9.358649E-1	1.017768E+0	1.018331E+0	9.835918E-1	1.009776E+0	9.701295E-1	9.999888E-1	9.812150E-1	9.926265E-1	1.019425E+0	9.633184E-1	9.468133E-1	1.018252E+0	1.034464E+0	9.772084E-1	9.981011E-1	9.883582E-1	1.034594E+0	1.008740E+0	9.963717E-1	9.620969E-1	9.893331E-1	9.803052E-1	9.696960E-1	9.743313E-1	9.554376E-1	1.008987E+0	9.894619E-1	1.014034E+0	9.675562E-1	9.859685E-1	9.493354E-1	9.897675E-1	9.651720E-1	1.003723E+0	1.007976E+0	1.022014E+0	1.045451E+0	1.062532E+0	9.608968E-1	1.037726E+0	1.010933E+0	1.014325E+0	9.964162E-1	1.017202E+0	1.025721E+0	1.013758E+0	9.972406E-1	9.671656E-1	1.033060E+0	1.025116E+0	1.017788E+0	9.739737E-1	9.917584E-1	1.025606E+0	9.589791E-1	1.009180E+0	9.863782E-1	9.871875E-1	1.019079E+0	1.048687E+0	9.620320E-1	1.011912E+0	9.966079E-1	9.957862E-1	1.016099E+0	1.045070E+0	9.609371E-1	1.009451E+0	9.871427E-1	9.935688E-1	1.020330E+0	9.778526E-1	1.003732E+0	9.459091E-1	9.670879E-1	9.406473E-1	9.584730E-1	1.028450E+0	9.950815E-1	1.002104E+0	9.801047E-1	1.001190E+0	9.594499E-1	1.037530E+0	9.751646E-1	9.714863E-1	9.960520E-1	1.037203E+0	9.864225E-1	9.882243E-1	9.572616E-1	9.859771E-1	1.009386E+0	9.887570E-1	1.005407E+0	9.947776E-1	9.910710E-1	9.977875E-1	1.023157E+0	1.021242E+0	1.013685E+0	9.735176E-1	1.044080E+0	1.044779E+0	1.011712E+0	1.024095E+0	9.714566E-1	9.921972E-1	9.945651E-1	1.019780E+0	9.889877E-1	1.017006E+0	1.017231E+0	1.014135E+0	1.012078E+0	9.509039E-1	9.626343E-1	9.968917E-1	9.916895E-1	9.803527E-1	9.565467E-1	9.883002E-1	9.576689E-1	1.023250E+0	9.591558E-1	1.040340E+0	9.792289E-1	9.802072E-1	1.011462E+0	1.004917E+0	9.669454E-1	9.594008E-1	1.002489E+0	1.003248E+0	1.003113E+0	1.029682E+0	9.818257E-1	9.800280E-1	9.590167E-1	9.500296E-1	9.786953E-1	9.929333E-1	9.890474E-1	9.884832E-1	1.034278E+0	9.952023E-1	1.037807E+0	1.026206E+0	9.661192E-1	1.030434E+0	9.904015E-1	1.020497E+0	9.639428E-1	9.830632E-1	1.042301E+0	9.712169E-1	1.070184E+0
5.565140E+2	9.555516E-1	9.704598E-1	9.813738E-1	1.052527E+0	9.490079E-1	9.461624E-1	9.775813E-1	9.647371E-1	9.767938E-1	1.012132E+0	9.308923E-1	9.874995E-1	9.756322E-1	9.598739E-1	9.543827E-1	9.120252E-1	9.368463E-1	9.392910E-1	9.443540E-1	1.014506E+0	9.958366E-1	9.523825E-1	9.472556E-1	9.392427E-1	9.554551E-1	9.905250E-1	9.907867E-1	9.614028E-1	9.591863E-1	9.806712E-1	9.606551E-1	9.659993E-1	1.017188E+0	9.843319E-1	9.921667E-1	9.208517E-1	1.008285E+0	9.682072E-1	9.604095E-1	9.950175E-1	9.589263E-1	9.633388E-1	9.812978E-1	9.677234E-1	9.644284E-1	9.458477E-1	9.703699E-1	9.334159E-1	9.656175E-1	9.707760E-1	9.990946E-1	9.510843E-1	9.566301E-1	9.778157E-1	9.979940E-1	9.597622E-1	9.531014E-1	9.961583E-1	9.290290E-1	9.888334E-1	9.446939E-1	9.395475E-1	9.799137E-1	9.674202E-1	9.717163E-1	9.645232E-1	9.601223E-1	9.391405E-1	9.831104E-1	9.716085E-1	9.700738E-1	9.741362E-1	1.017338E+0	9.965474E-1	9.676601E-1	9.902439E-1	9.622881E-1	9.606430E-1	9.482575E-1	9.560520E-1	9.565994E-1	1.002710E+0	1.002119E+0	9.835787E-1	9.370131E-1	9.520274E-1	1.022116E+0	9.657304E-1	9.300719E-1	9.693298E-1	9.577031E-1	9.693145E-1	9.694846E-1	9.914226E-1	9.344180E-1	9.610563E-1	9.773697E-1	9.298038E-1	9.851361E-1	9.329434E-1	1.006262E+0	9.922224E-1	9.605855E-1	9.856871E-1	9.752177E-1	9.217471E-1	9.614394E-1	9.818296E-1	9.565796E-1	9.582293E-1	9.505178E-1	9.749190E-1	9.821615E-1	9.690930E-1	9.615071E-1	9.689669E-1	9.974003E-1	9.540691E-1	9.768297E-1	9.298374E-1	9.443962E-1	9.118629E-1	1.002602E+0	9.586450E-1	9.490528E-1	9.628322E-1	1.015716E+0	9.766914E-1	9.651746E-1	9.882412E-1	9.327937E-1	1.032377E+0	9.170119E-1	9.536913E-1	9.880091E-1	9.344802E-1	9.871252E-1	9.565963E-1	9.817029E-1	1.009776E+0	9.867944E-1	9.719933E-1	9.970894E-1	9.882739E-1	9.878319E-1	9.109914E-1	9.439596E-1	9.633939E-1	9.655460E-1	9.444799E-1	9.646449E-1	9.759265E-1	9.810805E-1	9.411354E-1	1.001428E+0	9.380412E-1	9.670918E-1	9.608891E-1	9.799852E-1	9.431146E-1	9.666931E-1	9.480590E-1	9.516038E-1	9.919217E-1	1.002452E+0	9.843882E-1	9.638454E-1	9.777578E-1	1.002117E+0	9.193302E-1	9.781115E-1	9.528855E-1
5.570440E+2	9.848847E-1	9.737337E-1	9.988413E-1	9.622220E-1	1.055180E+0	1.015807E+0	1.013265E+0	9.981736E-1	9.889762E-1	9.900878E-1	9.762981E-1	1.058773E+0	9.731809E-1	9.879388E-1	9.939794E-1	1.026827E+0	1.005644E+0	1.016895E+0	9.773836E-1	9.928739E-1	9.870939E-1	9.991435E-1	1.035368E+0	9.887689E-1	9.948694E-1	9.799475E-1	9.950456E-1	1.008876E+0	1.019203E+0	9.712107E-1	1.009358E+0	9.907205E-1	9.853476E-1	1.005337E+0	9.707770E-1	1.002344E+0	9.674483E-1	1.029437E+0	9.861447E-1	9.872289E-1	9.484986E-1	9.902665E-1	9.901042E-1	9.786901E-1	9.971367E-1	1.021097E+0	1.021559E+0	9.720558E-1	1.031334E+0	9.832992E-1	9.985539E-1	1.007673E+0	1.047288E+0	9.791774E-1	9.988604E-1	1.000749E+0	1.030932E+0	9.706129E-1	9.950499E-1	9.892179E-1	9.830000E-1	9.865353E-1	1.002409E+0	9.835596E-1	1.039688E+0	9.537734E-1	9.930087E-1	9.867190E-1	9.957200E-1	9.858151E-1	1.064554E+0	1.018773E+0	1.024954E+0	9.778042E-1	9.715467E-1	1.007043E+0	9.906315E-1	1.039636E+0	9.960809E-1	9.796214E-1	1.025158E+0	9.842826E-1	9.677667E-1	1.024167E+0	1.028415E+0	9.875110E-1	9.863786E-1	1.033843E+0	1.042657E+0	9.554985E-1	9.682356E-1	9.825382E-1	1.014258E+0	9.671626E-1	1.017352E+0	1.006188E+0	9.835447E-1	1.000149E+0	9.770145E-1	1.005538E+0	9.865795E-1	9.950819E-1	9.985950E-1	9.981277E-1	1.018170E+0	1.030781E+0	9.744355E-1	9.477305E-1	1.020326E+0	9.964859E-1	1.004469E+0	1.025178E+0	9.973310E-1	1.002907E+0	9.947790E-1	9.714236E-1	1.002802E+0	9.940163E-1	9.996917E-1	1.003647E+0	1.046470E+0	1.019298E+0	9.560977E-1	9.844149E-1	1.016809E+0	1.007749E+0	9.789026E-1	9.856487E-1	1.016745E+0	9.971900E-1	1.004016E+0	9.643267E-1	1.013327E+0	1.027462E+0	9.944911E-1	1.005747E+0	9.498262E-1	9.568441E-1	9.914302E-1	9.769528E-1	9.815888E-1	1.030986E+0	1.015748E+0	9.829682E-1	9.738546E-1	9.734981E-1	1.004429E+0	1.001636E+0	1.015010E+0	1.010703E+0	9.888557E-1	9.979780E-1	1.023030E+0	9.957833E-1	9.562323E-1	1.008140E+0	9.925360E-1	9.634892E-1	9.761492E-1	1.019246E+0	9.996713E-1	9.907794E-1	9.991171E-1	9.890364E-1	1.025688E+0	9.931477E-1	1.003231E+0	9.439449E-1	9.937544E-1	9.608181E-1	9.845187E-1	9.772341E-1
5.575580E+2	9.955122E-1	9.577294E-1	9.999819E-1	1.009207E+0	1.005306E+0	9.860365E-1	9.716978E-1	1.017668E+0	9.843364E-1	9.834406E-1	1.004473E+0	9.410492E-1	9.858470E-1	1.016568E+0	1.030831E+0	1.017931E+0	9.958192E-1	1.030722E+0	1.015161E+0	9.948765E-1	1.011297E+0	9.812946E-1	9.972988E-1	1.011452E+0	9.909573E-1	9.780370E-1	1.002263E+0	1.023135E+0	1.002028E+0	9.779018E-1	1.006440E+0	1.003102E+0	9.886653E-1	9.466921E-1	9.695461E-1	9.666052E-1	1.022061E+0	9.750450E-1	1.014592E+0	1.010457E+0	1.013737E+0	9.973392E-1	1.024894E+0	1.000804E+0	1.010787E+0	9.874756E-1	9.863516E-1	1.005569E+0	1.020180E+0	1.001962E+0	1.028750E+0	1.030302E+0	9.691658E-1	9.882757E-1	9.771138E-1	9.431260E-1	9.985339E-1	9.777042E-1	9.909622E-1	1.005079E+0	1.004692E+0	1.031285E+0	9.973014E-1	1.005794E+0	9.702988E-1	1.007841E+0	1.020840E+0	9.837934E-1	1.005586E+0	9.815810E-1	9.991093E-1	1.028854E+0	9.864418E-1	9.738288E-1	1.019290E+0	9.901122E-1	9.982505E-1	9.827197E-1	1.039520E+0	9.995870E-1	9.927238E-1	1.034423E+0	1.004117E+0	1.043910E+0	9.963311E-1	1.035176E+0	9.624296E-1	1.018766E+0	9.759873E-1	9.825150E-1	1.035341E+0	9.783139E-1	1.013519E+0	9.816462E-1	1.001117E+0	9.965842E-1	9.887499E-1	1.030979E+0	1.012975E+0	9.327885E-1	9.630614E-1	1.025233E+0	9.857063E-1	9.879275E-1	9.836850E-1	9.817528E-1	1.003541E+0	9.734975E-1	9.856649E-1	9.947194E-1	9.999126E-1	9.819657E-1	9.961383E-1	1.039930E+0	1.003888E+0	1.012154E+0	9.847037E-1	9.579322E-1	9.871161E-1	1.015994E+0	9.822736E-1	9.894680E-1	9.935554E-1	9.897527E-1	1.028708E+0	9.498805E-1	9.656834E-1	1.022662E+0	1.004895E+0	1.015047E+0	9.967649E-1	9.948757E-1	1.035853E+0	9.715437E-1	9.846474E-1	9.868238E-1	1.013349E+0	9.669272E-1	1.037236E+0	9.827079E-1	9.988877E-1	1.017622E+0	9.788714E-1	1.038148E+0	9.303861E-1	9.829549E-1	1.007327E+0	1.015628E+0	1.003670E+0	1.004719E+0	9.873329E-1	1.013109E+0	1.005397E+0	9.958421E-1	1.009477E+0	9.867870E-1	1.025724E+0	9.845939E-1	1.016303E+0	1.001752E+0	1.003036E+0	1.009297E+0	9.668909E-1	1.006345E+0	1.000766E+0	1.001876E+0	9.831007E-1	1.002142E+0	9.372113E-1	1.024197E+0	9.045341E-1	9.741699E-1
5.580170E+2	9.935468E-1	1.025976E+0	1.022843E+0	9.689688E-1	9.807587E-1	9.879406E-1	9.782481E-1	9.991225E-1	9.846508E-1	1.000048E+0	1.035051E+0	9.374837E-1	9.851624E-1	9.874137E-1	9.792200E-1	9.884728E-1	9.739891E-1	9.599830E-1	9.902369E-1	9.629836E-1	9.609208E-1	9.802579E-1	9.534304E-1	9.795719E-1	9.926324E-1	1.006799E+0	9.530744E-1	9.827430E-1	9.716202E-1	9.834460E-1	1.002308E+0	9.609503E-1	9.620448E-1	9.690191E-1	1.014839E+0	9.913260E-1	9.798293E-1	9.622457E-1	9.686515E-1	9.590391E-1	9.672655E-1	9.594467E-1	9.766332E-1	1.017304E+0	9.859369E-1	9.549063E-1	9.744957E-1	1.010819E+0	9.823732E-1	9.806582E-1	9.604710E-1	9.870476E-1	1.006910E+0	9.569833E-1	9.618239E-1	1.008676E+0	9.726089E-1	9.875797E-1	9.459859E-1	9.297602E-1	9.606531E-1	1.022002E+0	9.843344E-1	1.002197E+0	9.839464E-1	9.774029E-1	9.952223E-1	1.001028E+0	9.803510E-1	9.593077E-1	9.850984E-1	9.698904E-1	9.754925E-1	1.000453E+0	9.589468E-1	1.023530E+0	9.974249E-1	9.844907E-1	9.415225E-1	9.751351E-1	9.915939E-1	1.003687E+0	9.675440E-1	9.272293E-1	1.009879E+0	9.713131E-1	9.693299E-1	9.763846E-1	9.763637E-1	1.034687E+0	9.793834E-1	9.921101E-1	9.745526E-1	9.926718E-1	9.276897E-1	9.987311E-1	9.511458E-1	9.604155E-1	1.014098E+0	9.859344E-1	1.006968E+0	9.760363E-1	9.476718E-1	9.600081E-1	9.608219E-1	1.013704E+0	9.616284E-1	9.681473E-1	1.010779E+0	9.618891E-1	1.023582E+0	9.712170E-1	9.670975E-1	9.189330E-1	9.646063E-1	9.330959E-1	1.007077E+0	9.952775E-1	9.254032E-1	9.629783E-1	9.695842E-1	9.771420E-1	1.017474E+0	9.461175E-1	9.925733E-1	1.002994E+0	9.793120E-1	9.607635E-1	9.673996E-1	9.836729E-1	9.644590E-1	9.468162E-1	9.966797E-1	1.013231E+0	9.744884E-1	1.009039E+0	9.916454E-1	9.684415E-1	9.904189E-1	9.747497E-1	1.000419E+0	9.673493E-1	1.000757E+0	9.918095E-1	1.005054E+0	1.009238E+0	1.013346E+0	9.862098E-1	9.910653E-1	9.486337E-1	9.575295E-1	9.696368E-1	1.006942E+0	9.800746E-1	9.734773E-1	9.906381E-1	9.785735E-1	9.843425E-1	9.506593E-1	9.624299E-1	9.833568E-1	9.459211E-1	1.011705E+0	9.736971E-1	9.839791E-1	9.836599E-1	1.000476E+0	9.866114E-1	1.012461E+0	9.957878E-1	1.014482E+0	9.274471E-1
5.585160E+2	1.032407E+0	1.030296E+0	1.062666E+0	1.047227E+0	9.992851E-1	1.021049E+0	9.967779E-1	1.000393E+0	1.003137E+0	9.957650E-1	1.059310E+0	1.022995E+0	1.010696E+0	9.774447E-1	1.027964E+0	9.838287E-1	1.005625E+0	1.025783E+0	9.913038E-1	1.027226E+0	1.036668E+0	1.026920E+0	1.020792E+0	1.003827E+0	1.020106E+0	9.814048E-1	1.040175E+0	1.001329E+0	1.021287E+0	9.899795E-1	1.008932E+0	1.044764E+0	1.004311E+0	1.043127E+0	1.029617E+0	1.011135E+0	1.007589E+0	9.798874E-1	1.011928E+0	1.037826E+0	1.003984E+0	1.016772E+0	1.008638E+0	1.019279E+0	1.010764E+0	1.055252E+0	9.950041E-1	9.996057E-1	9.791716E-1	1.041630E+0	1.030559E+0	1.050567E+0	1.023105E+0	1.000452E+0	1.000959E+0	1.007494E+0	9.964211E-1	9.911974E-1	9.961161E-1	1.004808E+0	1.010100E+0	9.998064E-1	1.014351E+0	1.016065E+0	1.005056E+0	1.029489E+0	9.788214E-1	9.981414E-1	1.020849E+0	9.878410E-1	9.831001E-1	1.004830E+0	1.016181E+0	9.797832E-1	1.020114E+0	9.780430E-1	9.741887E-1	9.799422E-1	1.014215E+0	1.030427E+0	1.014720E+0	9.695220E-1	9.971531E-1	1.032138E+0	1.026092E+0	9.927405E-1	9.800305E-1	1.015535E+0	1.005060E+0	1.035561E+0	1.010407E+0	9.647791E-1	1.007073E+0	1.042428E+0	1.031467E+0	1.021480E+0	1.045560E+0	1.017814E+0	1.009132E+0	1.024945E+0	1.023926E+0	1.010724E+0	1.031575E+0	1.016753E+0	9.663323E-1	1.025545E+0	1.035085E+0	1.034835E+0	9.946431E-1	1.023943E+0	1.006936E+0	1.024450E+0	9.875804E-1	1.009485E+0	9.797964E-1	1.057796E+0	1.012308E+0	1.001784E+0	9.897000E-1	1.031090E+0	1.038138E+0	1.026191E+0	9.943967E-1	1.016748E+0	9.734479E-1	1.030957E+0	1.001492E+0	9.875014E-1	9.851798E-1	1.013182E+0	9.943624E-1	1.007586E+0	1.009808E+0	1.027976E+0	1.038759E+0	1.031699E+0	1.026161E+0	1.025256E+0	9.877909E-1	1.009318E+0	1.006401E+0	9.655183E-1	1.022356E+0	1.019632E+0	9.925920E-1	1.022675E+0	1.062037E+0	1.013141E+0	1.007856E+0	1.010359E+0	1.055370E+0	1.009590E+0	1.050431E+0	1.030737E+0	1.040000E+0	1.027197E+0	9.722196E-1	1.021378E+0	1.010144E+0	1.029281E+0	1.004168E+0	1.015747E+0	1.013477E+0	1.012176E+0	1.001659E+0	1.019520E+0	1.032148E+0	1.017089E+0	1.005386E+0	1.053534E+0	1.035066E+0	9.638846E-1
5.590100E+2	1.036096E+0	1.050549E+0	9.810156E-1	1.044123E+0	1.039626E+0	1.064253E+0	9.900420E-1	1.032142E+0	1.035511E+0	1.030589E+0	1.039609E+0	1.052796E+0	1.051457E+0	1.050528E+0	1.021681E+0	1.033699E+0	1.045713E+0	1.042130E+0	1.008220E+0	1.030309E+0	1.017245E+0	1.040412E+0	1.042794E+0	1.035980E+0	1.065585E+0	1.016591E+0	9.974508E-1	1.008818E+0	1.026766E+0	1.023675E+0	1.047122E+0	1.035725E+0	1.027084E+0	1.022621E+0	9.778883E-1	1.027285E+0	1.010340E+0	1.034721E+0	1.036093E+0	1.030433E+0	1.016524E+0	1.044933E+0	1.020656E+0	9.885605E-1	1.023309E+0	1.045250E+0	1.032865E+0	1.031712E+0	1.030097E+0	1.029107E+0	1.050824E+0	9.838521E-1	1.028999E+0	1.046381E+0	1.037593E+0	1.033531E+0	1.019050E+0	1.025925E+0	1.096629E+0	1.055133E+0	1.061417E+0	1.009791E+0	1.012713E+0	1.017010E+0	9.789973E-1	1.073239E+0	9.684117E-1	1.043983E+0	1.004459E+0	1.048182E+0	1.005812E+0	1.019722E+0	1.023893E+0	1.007924E+0	1.014374E+0	1.027579E+0	1.042136E+0	1.053285E+0	1.077369E+0	1.045556E+0	1.054836E+0	1.033206E+0	9.906710E-1	1.039435E+0	1.030328E+0	1.046098E+0	1.031777E+0	1.012980E+0	1.071876E+0	1.051618E+0	1.064119E+0	1.057015E+0	1.025047E+0	1.026569E+0	1.033720E+0	1.043618E+0	1.031968E+0	9.970487E-1	1.040752E+0	1.036229E+0	1.023952E+0	1.015111E+0	1.083171E+0	1.021690E+0	1.065015E+0	1.047950E+0	1.019309E+0	1.042819E+0	1.001320E+0	1.069321E+0	1.005631E+0	9.979869E-1	9.925790E-1	1.036277E+0	1.066010E+0	1.045777E+0	1.039319E+0	1.074390E+0	1.050411E+0	1.050065E+0	1.012420E+0	1.027183E+0	1.035552E+0	1.078511E+0	1.049364E+0	1.004818E+0	1.023065E+0	1.051438E+0	1.016971E+0	1.027068E+0	1.039359E+0	1.004236E+0	1.005292E+0	1.006764E+0	1.024572E+0	1.030869E+0	1.013646E+0	1.035196E+0	9.955510E-1	1.034159E+0	1.017250E+0	1.004651E+0	1.034644E+0	1.008011E+0	1.060230E+0	1.062977E+0	9.759937E-1	1.029821E+0	1.028403E+0	1.034674E+0	1.060348E+0	9.909199E-1	9.681711E-1	9.978069E-1	1.024920E+0	9.884601E-1	1.021988E+0	1.040802E+0	1.029612E+0	1.044438E+0	1.043762E+0	9.911364E-1	1.017201E+0	1.013755E+0	1.025348E+0	1.030169E+0	1.027023E+0	1.031948E+0	1.078934E+0	1.081133E+0	9.994708E-1	1.149889E+0
5.595110E+2	9.929000E-1	1.006827E+0	1.015258E+0	9.757302E-1	1.012797E+0	9.989363E-1	1.029021E+0	1.047595E+0	1.031670E+0	1.030266E+0	9.806282E-1	9.886681E-1	1.037080E+0	1.038714E+0	1.007760E+0	1.004632E+0	1.010510E+0	1.029955E+0	1.040690E+0	1.017959E+0	1.005251E+0	1.030896E+0	1.018165E+0	1.022083E+0	9.818155E-1	1.036838E+0	1.015149E+0	1.005576E+0	1.008191E+0	1.028192E+0	9.817589E-1	1.035713E+0	1.029674E+0	1.059122E+0	1.035867E+0	1.067221E+0	9.995410E-1	1.034894E+0	1.032557E+0	9.960341E-1	1.014673E+0	1.027325E+0	9.702923E-1	1.022415E+0	1.029219E+0	1.008316E+0	9.909323E-1	1.025542E+0	9.947116E-1	9.641842E-1	9.797647E-1	9.754625E-1	1.003046E+0	1.069497E+0	9.993280E-1	1.026730E+0	1.024905E+0	9.939709E-1	1.017096E+0	9.872024E-1	1.028264E+0	1.021548E+0	1.007381E+0	9.840591E-1	1.021351E+0	1.019781E+0	1.028922E+0	1.060276E+0	1.002700E+0	1.021544E+0	9.937325E-1	9.982213E-1	1.026991E+0	1.053048E+0	1.061467E+0	9.978629E-1	9.897698E-1	1.014857E+0	9.793944E-1	9.843036E-1	9.912275E-1	1.036657E+0	1.003756E+0	9.723764E-1	1.026178E+0	1.048301E+0	1.020455E+0	9.936611E-1	9.999947E-1	1.003173E+0	9.963157E-1	1.008763E+0	1.053615E+0	1.024545E+0	9.949364E-1	9.950938E-1	1.025018E+0	1.018897E+0	9.958730E-1	1.048027E+0	1.014503E+0	9.770331E-1	9.746448E-1	1.011654E+0	9.986724E-1	1.007967E+0	1.029841E+0	1.034195E+0	1.017309E+0	1.004435E+0	9.956610E-1	1.011263E+0	1.072417E+0	1.034279E+0	1.033220E+0	1.043550E+0	1.020729E+0	1.011683E+0	1.014123E+0	1.002068E+0	1.024665E+0	1.058687E+0	1.046102E+0	1.013910E+0	1.006389E+0	1.011743E+0	9.956623E-1	9.959840E-1	1.047753E+0	1.017463E+0	1.030007E+0	1.004673E+0	1.042471E+0	1.010119E+0	9.813201E-1	1.023325E+0	1.026131E+0	1.021162E+0	1.018873E+0	1.011557E+0	9.896716E-1	9.968121E-1	9.998833E-1	1.009951E+0	1.014885E+0	1.024466E+0	1.070145E+0	1.007672E+0	1.058951E+0	1.023338E+0	1.005923E+0	1.031501E+0	1.028112E+0	1.028211E+0	1.037078E+0	1.034810E+0	1.024528E+0	1.020804E+0	1.016685E+0	9.908435E-1	1.000149E+0	1.059782E+0	1.026584E+0	1.040132E+0	9.934069E-1	1.019660E+0	1.005807E+0	1.044969E+0	9.911209E-1	1.019364E+0	1.061524E+0	1.008570E+0
5.600240E+2	1.024489E+0	1.031323E+0	1.023848E+0	1.034432E+0	9.889008E-1	9.887527E-1	1.007915E+0	9.880663E-1	9.848708E-1	9.691988E-1	1.005453E+0	9.851428E-1	1.000714E+0	1.038806E+0	1.008592E+0	1.005383E+0	1.042712E+0	1.022887E+0	1.030653E+0	9.989860E-1	1.013530E+0	1.061649E+0	1.001195E+0	1.021523E+0	9.992399E-1	9.784461E-1	1.027518E+0	9.691033E-1	1.003933E+0	1.061288E+0	9.938233E-1	9.846871E-1	9.885364E-1	9.832620E-1	1.016456E+0	9.990531E-1	9.779422E-1	1.010472E+0	9.958873E-1	1.003078E+0	1.019430E+0	1.039149E+0	1.001956E+0	1.003194E+0	1.013768E+0	9.932410E-1	1.013286E+0	9.948218E-1	1.000793E+0	1.010615E+0	1.011417E+0	9.999284E-1	9.893074E-1	1.005644E+0	1.021779E+0	1.026423E+0	1.018213E+0	9.914602E-1	1.010661E+0	1.001093E+0	9.993279E-1	9.901523E-1	9.977820E-1	1.019203E+0	1.030064E+0	9.790745E-1	1.057556E+0	1.007149E+0	9.953478E-1	1.015956E+0	1.029864E+0	1.014911E+0	1.008789E+0	1.001084E+0	1.018661E+0	1.026114E+0	1.047352E+0	1.005975E+0	1.008712E+0	1.016367E+0	1.005013E+0	9.933535E-1	1.012492E+0	9.652864E-1	9.807221E-1	9.626212E-1	9.666772E-1	1.004017E+0	1.013414E+0	1.027273E+0	1.002724E+0	9.927117E-1	9.756228E-1	9.660649E-1	1.003538E+0	1.029905E+0	9.796472E-1	1.064064E+0	9.869989E-1	1.022783E+0	1.004133E+0	1.036385E+0	1.032442E+0	1.037304E+0	1.038987E+0	1.016025E+0	1.004910E+0	1.005480E+0	1.009171E+0	1.002602E+0	9.925804E-1	1.023384E+0	9.977971E-1	9.915116E-1	9.899330E-1	9.793917E-1	1.010500E+0	1.002102E+0	1.009418E+0	1.004955E+0	9.876696E-1	9.951121E-1	1.009347E+0	1.000248E+0	1.009798E+0	1.013322E+0	1.012522E+0	1.026107E+0	1.000885E+0	1.016844E+0	1.020604E+0	1.001674E+0	9.907050E-1	9.941668E-1	9.915188E-1	9.831164E-1	1.015147E+0	1.004563E+0	1.054418E+0	9.763773E-1	1.001117E+0	1.016892E+0	9.956617E-1	9.854669E-1	1.043337E+0	1.007214E+0	9.586745E-1	9.864688E-1	9.731806E-1	1.026623E+0	9.918435E-1	1.017598E+0	9.760524E-1	1.035173E+0	9.857369E-1	1.012618E+0	1.011227E+0	1.003850E+0	1.028673E+0	1.030328E+0	9.881067E-1	1.028149E+0	1.021766E+0	9.829056E-1	9.831859E-1	1.015521E+0	1.002918E+0	1.004060E+0	1.003762E+0	9.803949E-1	1.023481E+0	9.721155E-1
5.605040E+2	1.014490E+0	9.718533E-1	9.224076E-1	9.572457E-1	1.006112E+0	9.920806E-1	9.856201E-1	9.906988E-1	1.002924E+0	9.857224E-1	9.902389E-1	1.006917E+0	1.003982E+0	9.583983E-1	9.637621E-1	1.014089E+0	9.724367E-1	9.513089E-1	1.017724E+0	9.723489E-1	9.639382E-1	9.873921E-1	1.000538E+0	1.027545E+0	9.986218E-1	1.021546E+0	1.011688E+0	1.028701E+0	9.762678E-1	9.920700E-1	1.012882E+0	9.847170E-1	9.932099E-1	9.658808E-1	9.878984E-1	1.000256E+0	1.022262E+0	1.012594E+0	9.595601E-1	9.660168E-1	1.025913E+0	9.910683E-1	1.037740E+0	9.969537E-1	9.910222E-1	1.003823E+0	1.031583E+0	1.028195E+0	1.027053E+0	1.007512E+0	9.735810E-1	9.919268E-1	1.000605E+0	1.007966E+0	1.004012E+0	1.008680E+0	1.003907E+0	1.025635E+0	1.011040E+0	1.026222E+0	9.934154E-1	9.997583E-1	1.042051E+0	9.813874E-1	9.998744E-1	9.917595E-1	1.010608E+0	9.657069E-1	9.702347E-1	1.012294E+0	1.009178E+0	9.943499E-1	9.681877E-1	1.041026E+0	1.003170E+0	9.525714E-1	9.845186E-1	9.968584E-1	1.011575E+0	1.016290E+0	9.835956E-1	9.758565E-1	1.027711E+0	1.007527E+0	9.743504E-1	9.784937E-1	1.036351E+0	9.916935E-1	1.001925E+0	9.530353E-1	1.022172E+0	1.010679E+0	1.016574E+0	1.004472E+0	1.044915E+0	9.689343E-1	1.007362E+0	9.645629E-1	1.026428E+0	1.030668E+0	9.722898E-1	9.981593E-1	9.806730E-1	9.654379E-1	1.018612E+0	9.779581E-1	1.011516E+0	1.004655E+0	9.774643E-1	9.756861E-1	1.002512E+0	1.002673E+0	9.984849E-1	1.001089E+0	1.021468E+0	1.017804E+0	9.605190E-1	1.001867E+0	1.007229E+0	9.787513E-1	9.994206E-1	1.008254E+0	9.719542E-1	1.038220E+0	9.747598E-1	1.016245E+0	1.008240E+0	9.938283E-1	9.899439E-1	9.886662E-1	1.011836E+0	1.012277E+0	1.016695E+0	1.011744E+0	1.042165E+0	9.922396E-1	1.020266E+0	1.078511E+0	9.742920E-1	1.023397E+0	9.793074E-1	1.012935E+0	9.868975E-1	1.000347E+0	9.969494E-1	9.918143E-1	1.000127E+0	1.003786E+0	1.003783E+0	9.993883E-1	1.021629E+0	1.009779E+0	9.671044E-1	1.011465E+0	9.897285E-1	1.021966E+0	1.001620E+0	1.017301E+0	1.012003E+0	9.914851E-1	1.030117E+0	1.025208E+0	9.822027E-1	9.745073E-1	9.925474E-1	9.858069E-1	9.872643E-1	1.036932E+0	9.849173E-1	1.014614E+0	9.805018E-1	1.113242E+0
5.610640E+2	9.701225E-1	9.812527E-1	9.917646E-1	9.483181E-1	9.630262E-1	9.989810E-1	1.049832E+0	9.614037E-1	1.007130E+0	1.002750E+0	9.780473E-1	1.018675E+0	9.762484E-1	9.843154E-1	1.011829E+0	1.013113E+0	1.010704E+0	9.810455E-1	9.842732E-1	9.879317E-1	1.008220E+0	9.396532E-1	9.831631E-1	9.700061E-1	1.000718E+0	1.009866E+0	9.668500E-1	1.010315E+0	1.011518E+0	9.915655E-1	9.767204E-1	9.936214E-1	1.003938E+0	1.020606E+0	1.004944E+0	1.013923E+0	1.004703E+0	9.924965E-1	1.034178E+0	1.014869E+0	1.031049E+0	9.703614E-1	9.877889E-1	1.005077E+0	9.736298E-1	9.847919E-1	9.835538E-1	9.982638E-1	9.686692E-1	1.010256E+0	9.669845E-1	1.022157E+0	9.749450E-1	9.678085E-1	1.000536E+0	9.848278E-1	9.823272E-1	1.039756E+0	1.007430E+0	1.012652E+0	1.014437E+0	9.995740E-1	9.617644E-1	1.023305E+0	9.990082E-1	1.003116E+0	9.864873E-1	1.014064E+0	1.041643E+0	1.015871E+0	9.594777E-1	9.763123E-1	9.517318E-1	9.685017E-1	9.647705E-1	1.006901E+0	1.013440E+0	9.815933E-1	9.833539E-1	9.966615E-1	9.845328E-1	9.663035E-1	1.026669E+0	1.004352E+0	9.906915E-1	1.025717E+0	1.024456E+0	9.873892E-1	9.826498E-1	9.873092E-1	9.635990E-1	1.043775E+0	9.502550E-1	1.003018E+0	1.010847E+0	9.784099E-1	1.009635E+0	1.016265E+0	9.515936E-1	9.801448E-1	9.983241E-1	9.740136E-1	1.004934E+0	1.015411E+0	9.744863E-1	9.765695E-1	9.982942E-1	1.006811E+0	1.026743E+0	1.012690E+0	1.018197E+0	9.869636E-1	1.008413E+0	9.964955E-1	9.847916E-1	9.700417E-1	9.646422E-1	1.006881E+0	1.040079E+0	1.020613E+0	9.949621E-1	9.868025E-1	9.729194E-1	9.734326E-1	9.990982E-1	9.994588E-1	1.019405E+0	9.993754E-1	1.005053E+0	9.526247E-1	1.005798E+0	1.031159E+0	9.721576E-1	9.833019E-1	9.800281E-1	1.002660E+0	9.567037E-1	9.865019E-1	9.682872E-1	1.001006E+0	1.038564E+0	1.015242E+0	9.680923E-1	9.753921E-1	9.948808E-1	1.014171E+0	9.639618E-1	9.922431E-1	9.525362E-1	9.970825E-1	9.665239E-1	9.839612E-1	9.936790E-1	9.837725E-1	9.819224E-1	9.913425E-1	1.004493E+0	1.002549E+0	9.797865E-1	9.870799E-1	9.809404E-1	9.859207E-1	1.009453E+0	1.015525E+0	9.909683E-1	9.662513E-1	9.941875E-1	9.545464E-1	9.903352E-1	9.508271E-1	1.018310E+0	9.605620E-1
