Photon Energy (eV)	#1	#2	#3	#4	#5	#6	#7	#8	#9	#10	#11	#12	#13	#14	#15	#16	#17	#18	#19	#20	#21	#22	#23	#24	#25	#26	#27	#28	#29	#30	#31	#32	#33	#34	#35	#36	#37	#38	#39	#40	#41	#42	#43	#44	#45	#46	#47	#48	#49	#50	#51	#52	#53	#54	#55	#56	#57	#58	#59	#60	#61	#62	#63	#64	#65	#66	#67	#68	#69	#70	#71	#72	#73	#74	#75	#76	#77	#78	#79	#80	#81	#82	#83	#84	#85	#86	#87	#88	#89	#90	#91	#92	#93	#94	#95	#96	#97	#98	#99	#100	#101	#102	#103	#104	#105	#106	#107	#108	#109	#110	#111	#112	#113	#114	#115	#116	#117	#118	#119	#120	#121	#122	#123	#124	#125	#126	#127	#128	#129	#130	#131	#132	#133	#134	#135	#136	#137	#138	#139	#140	#141	#142	#143	#144	#145	#146	#147	#148	#149	#150	#151	#152	#153	#154	#155	#156	#157	#158	#159	#160	#161	#162	#163	#164	#165	#166	#167	#168	#169	#170	#171	
5.300370E+2	-7.375669E-3	-4.192696E-3	-2.209215E-3	3.077506E-3	-6.517374E-3	1.980904E-3	-7.916754E-3	-4.593819E-3	2.704990E-3	-9.857630E-3	-1.349567E-2	-8.472914E-4	-1.345617E-2	-1.481914E-3	-1.079011E-2	-1.324986E-2	-9.433206E-3	-4.427203E-3	-5.206811E-3	-1.083296E-2	-4.710316E-3	-1.413627E-2	-1.189416E-3	-8.274197E-3	-1.218888E-2	-6.574612E-3	1.283308E-3	-5.057056E-3	-6.099186E-3	2.133998E-3	-8.348550E-3	-5.932558E-3	-7.054594E-3	-4.176633E-3	-4.777686E-3	-2.388925E-3	-3.872817E-3	-1.441078E-2	-5.263569E-3	-7.496613E-3	-5.056184E-3	-1.106525E-2	-3.148583E-3	-1.392436E-2	-3.418722E-3	-7.759034E-3	-3.620063E-3	-3.756578E-3	-1.909076E-4	-6.319663E-3	2.658627E-3	-6.702396E-4	-1.102918E-2	-1.109840E-2	-2.121617E-3	-6.884238E-3	-1.037686E-2	-6.168138E-3	4.325032E-3	-6.015668E-3	2.593257E-3	2.387388E-3	-5.421349E-3	-6.329971E-3	-2.442467E-3	-9.739477E-3	-4.971081E-3	-1.122328E-3	-8.605857E-3	-1.394536E-3	-9.372288E-3	-6.105082E-3	4.255604E-4	1.387418E-3	-2.133102E-3	-5.824504E-3	-4.071493E-3	-8.722727E-3	-2.231948E-3	-6.655882E-3	-7.107003E-3	-9.816027E-3	4.277953E-3	-4.303706E-3	-9.254868E-3	-9.986767E-3	-8.775052E-3	-7.940182E-3	-4.667807E-3	-6.483698E-3	-1.002518E-2	-3.778681E-3	-4.395407E-3	-4.272520E-3	-1.239238E-2	-8.569870E-3	-9.930463E-3	-4.307077E-3	-8.406001E-3	-2.385668E-3	-4.913994E-3	-1.647726E-3	-9.685618E-3	-1.109807E-2	-7.742215E-3	-7.134788E-3	-4.188989E-3	1.291995E-3	6.568002E-4	-5.591727E-4	-6.700012E-3	-5.955132E-3	-3.136025E-3	-1.084088E-4	7.108168E-3	1.220937E-2	-5.325661E-3	-7.692032E-3	3.394366E-4	-3.816505E-3	-4.090934E-3	-2.332179E-3	7.166170E-4	-1.479515E-2	-6.395763E-3	-5.161490E-3	-6.719684E-3	-3.367101E-3	2.080192E-3	1.529986E-3	-3.118750E-3	1.344435E-3	-9.561401E-4	-3.126809E-3	-8.346050E-3	-1.128529E-2	-1.542561E-3	-2.857355E-3	5.880896E-4	-3.755577E-4	-1.218857E-2	-2.587524E-3	-2.168146E-3	-8.324521E-3	-4.517464E-3	-1.058948E-4	-3.282233E-3	-1.724092E-3	-7.566506E-3	-7.112388E-3	-4.909842E-3	-3.224139E-4	-1.027602E-2	-6.809665E-3	-1.417797E-2	-6.714255E-3	-9.575673E-4	-7.227954E-3	-5.416078E-3	-5.216226E-3	-1.278697E-2	-2.147229E-3	-3.996495E-3	-1.062938E-2	-8.730319E-3	-2.426349E-3	-7.316187E-3	-6.090882E-3	-1.178247E-2	-7.130287E-3	-1.119821E-2
5.305180E+2	-9.534439E-3	-8.164685E-3	-1.546386E-3	-1.379572E-3	-5.269360E-3	-5.770470E-3	-4.447677E-4	-5.094971E-3	-1.128625E-2	-2.464396E-3	-4.881383E-3	-8.472810E-3	1.596480E-3	-5.483020E-3	4.932638E-3	-3.366178E-3	-4.071190E-3	-8.948605E-3	-2.082703E-3	2.166565E-3	-3.342828E-3	-1.413610E-3	2.616664E-3	-3.977980E-3	2.555732E-3	-2.988490E-3	-1.707768E-2	-7.484445E-3	-6.540078E-3	-6.097293E-3	-7.875971E-3	-8.076836E-3	-6.482608E-3	1.789968E-3	-4.777705E-3	-5.972289E-3	-9.466862E-3	-1.065144E-2	-1.376631E-3	3.866653E-3	2.974465E-4	-9.377131E-4	-3.721081E-3	-7.328992E-4	-4.330391E-3	6.017233E-3	-4.082200E-3	-7.292155E-3	9.545972E-4	-6.319663E-3	-2.658670E-3	-1.158580E-2	-5.590131E-3	2.121758E-3	-5.548869E-3	-5.507338E-3	-4.848966E-4	1.028020E-2	2.162525E-3	-8.974225E-3	-8.251199E-3	-2.233368E-3	2.819102E-3	-3.680196E-3	-5.373400E-3	-4.532192E-3	-1.927581E-3	-1.734578E-3	-3.824817E-3	-2.871053E-3	-4.812826E-3	5.549977E-4	-2.128055E-3	-5.153422E-3	-1.249389E-2	2.468011E-3	-2.227778E-3	3.994530E-3	-7.773177E-3	-4.185632E-3	9.603992E-4	-3.550429E-3	-2.139051E-4	-2.543113E-3	5.182790E-4	-8.916793E-4	4.129449E-3	-3.269511E-3	-7.051336E-3	-3.932742E-3	-2.577936E-3	-4.375340E-3	-4.146487E-4	-1.854161E-3	-2.509801E-3	2.511878E-3	2.336572E-3	-9.475606E-3	-5.253755E-3	-1.154666E-2	-5.397269E-3	-6.851118E-3	-7.628457E-3	-4.914857E-3	-8.322863E-3	-5.246160E-3	1.021243E-4	-2.285874E-3	-3.284302E-4	-7.748478E-3	1.339968E-3	-7.262356E-3	1.719717E-3	-4.662360E-3	-3.554070E-3	5.129969E-4	-2.976091E-3	-1.606029E-3	8.485829E-4	-1.327441E-3	-2.337688E-3	-4.765752E-3	-1.126066E-3	-2.393326E-3	1.382842E-3	-1.155186E-2	-6.227955E-3	-2.427462E-3	-3.025706E-3	3.365993E-3	-8.926088E-3	-6.722224E-3	-3.346566E-3	-5.211211E-4	7.635779E-3	-2.498301E-3	-8.329733E-3	-1.020469E-2	-2.940333E-3	-3.755376E-3	7.481233E-3	-5.498474E-3	-4.095394E-3	-6.587228E-3	1.155612E-3	-3.918041E-3	-7.093821E-3	-4.446276E-3	1.220405E-3	5.471467E-4	-3.386107E-3	1.611885E-4	3.565091E-3	-7.419448E-3	3.318246E-3	2.441573E-3	-1.436364E-3	-1.247023E-2	-7.770928E-3	9.551135E-4	-6.017425E-3	-5.660840E-3	-1.598593E-3	-1.118839E-3	-1.610447E-3	-5.025999E-3	-4.807764E-3	1.218190E-3	-1.885252E-3	1.048570E-2	-1.959685E-2
5.310350E+2	-5.756635E-3	7.723356E-3	-8.836640E-3	-3.289750E-3	-5.269327E-3	-4.736962E-3	-5.248145E-3	4.176171E-4	-9.326270E-5	2.085262E-3	2.584277E-3	-4.660045E-3	-2.508793E-3	-5.927663E-4	-3.391220E-3	-8.522896E-3	3.674023E-3	-2.166492E-3	-7.706084E-3	-7.878300E-4	5.318095E-3	-2.827257E-3	-3.568204E-3	-3.977998E-3	-8.060368E-3	4.183846E-3	-5.231848E-3	-2.022547E-4	-2.571936E-3	-6.097262E-3	-7.876003E-3	-2.072822E-3	6.673266E-3	1.789975E-3	1.321471E-3	-5.375033E-3	1.290966E-3	-3.132786E-3	-1.376643E-3	-9.863971E-3	-8.922875E-4	1.875449E-3	2.862399E-4	-4.501880E-3	-2.962891E-3	-6.333934E-3	4.698369E-3	6.408305E-3	-6.491161E-3	-2.590031E-3	-8.862066E-4	4.787681E-4	-1.057615E-3	-3.264217E-3	-2.121659E-3	4.589470E-3	-4.849250E-4	-9.105339E-3	-7.568788E-3	-2.465393E-3	-4.479246E-3	-1.794380E-2	-4.120232E-3	-2.355339E-3	-9.766222E-5	9.642578E-5	-1.318871E-3	2.550787E-3	4.780797E-4	-4.347632E-3	-8.865693E-3	-4.677936E-3	-7.873856E-3	-7.531886E-3	-2.742578E-3	-2.270572E-3	-2.688710E-3	-1.874997E-3	-8.465630E-4	-5.832475E-3	3.841643E-4	4.594710E-3	-1.112273E-2	-7.237989E-3	-1.103180E-2	-9.986809E-3	-3.613298E-3	3.269485E-3	3.078722E-3	4.357888E-3	-2.577908E-3	3.380964E-3	-4.892997E-3	-8.625664E-3	-1.098018E-3	1.625318E-3	5.841447E-4	-4.953194E-3	-1.471075E-3	3.912511E-3	-2.013932E-3	4.596314E-3	2.142822E-3	6.024670E-3	-6.580883E-3	6.085526E-3	-5.415005E-3	1.888308E-3	-7.717792E-3	3.993982E-4	4.466707E-3	2.759726E-3	-2.529007E-3	5.421352E-4	-2.369401E-3	-8.105380E-3	-2.036299E-3	-1.606073E-3	-7.297780E-3	-3.318708E-4	-2.337709E-3	4.360173E-3	-1.525328E-2	-1.087895E-3	2.420031E-3	-5.653049E-3	3.113993E-3	1.331193E-3	-1.891085E-3	-1.315790E-2	-7.635543E-3	-6.722261E-3	2.041402E-8	1.042268E-3	-7.813350E-3	-4.307478E-4	5.244623E-3	-1.020453E-3	-7.174361E-9	4.130952E-3	-4.118876E-3	2.264070E-3	6.986284E-3	2.533581E-3	1.155605E-3	-3.917983E-3	-1.471712E-2	-3.357413E-3	-1.220447E-3	-7.112405E-3	-6.433599E-3	6.448322E-4	1.048585E-3	1.118020E-3	9.049935E-4	4.883104E-3	-4.787888E-3	-1.032539E-3	-1.177402E-3	-1.248967E-3	6.393512E-3	-2.147229E-3	-9.391752E-3	1.118849E-3	3.983738E-3	-2.426365E-3	2.090276E-4	-6.090869E-3	-4.712752E-4	-4.613650E-3	2.239643E-2
5.315130E+2	-3.597918E-3	-2.206647E-3	-4.860135E-3	2.440785E-3	3.882682E-3	-8.614120E-5	-4.714482E-3	3.925627E-3	-2.331861E-3	7.203639E-3	-3.732822E-3	1.122650E-2	-4.333352E-3	-5.483001E-3	-3.391212E-3	3.509422E-3	-4.666978E-3	-1.036143E-3	-8.330630E-4	1.575703E-3	-5.621971E-3	1.413623E-3	-4.519710E-3	-5.410057E-3	4.325071E-3	2.390812E-3	4.837025E-3	2.831945E-3	7.347305E-5	-1.067000E-3	1.008127E-2	-1.215124E-3	-1.906919E-4	-8.353259E-3	-1.118184E-3	-3.583409E-3	2.581870E-3	1.895330E-2	9.312480E-3	1.972784E-3	-2.081967E-3	6.939239E-3	-8.587394E-4	4.920674E-3	-6.837635E-4	1.741851E-3	-9.627820E-3	-4.640503E-3	3.818361E-4	1.139612E-3	-1.033911E-2	-2.393816E-3	3.021698E-4	3.100991E-3	8.160295E-4	-4.589436E-4	-2.812412E-3	-6.168116E-3	-8.109431E-3	-2.465411E-3	-4.950729E-3	5.391001E-4	-3.252818E-3	1.619291E-3	-1.856279E-3	1.253623E-3	5.376916E-3	-2.958908E-3	-1.912408E-3	-9.023247E-4	6.839222E-3	2.457893E-3	1.064057E-3	-2.774930E-3	9.141766E-4	9.869383E-5	-1.766841E-3	-1.116835E-2	1.462270E-3	-5.420741E-3	-3.073323E-3	-2.923900E-3	-6.630874E-3	-2.543048E-3	2.739428E-3	7.133777E-4	4.129445E-3	-9.341534E-4	-4.667800E-3	-2.019527E-3	2.005042E-3	5.170854E-3	-1.907466E-3	7.819541E-3	-1.098078E-3	-2.807402E-3	-1.752416E-3	5.383887E-3	6.724796E-3	3.339942E-3	-4.913976E-3	-2.688396E-3	-2.485712E-3	7.451547E-3	5.613102E-3	3.567401E-3	-4.801952E-3	9.941585E-5	3.612591E-3	8.786925E-4	-8.933409E-4	6.681388E-3	-3.742977E-3	-7.589806E-4	-5.923481E-3	-6.258583E-3	-1.566370E-3	-1.098863E-3	-4.242874E-3	4.646146E-3	-1.168834E-3	-3.548964E-3	1.238688E-2	8.703021E-4	-5.877181E-3	3.686750E-3	-2.294495E-3	-5.716280E-3	-5.862338E-3	3.059837E-4	3.333837E-3	-6.049994E-3	-4.780811E-3	-6.774692E-3	-2.486063E-3	-9.476061E-4	9.255323E-4	-1.020483E-3	-5.292515E-3	-2.628766E-3	2.942066E-3	8.086024E-4	-3.131776E-3	-7.242497E-5	-1.050585E-4	-1.376574E-3	6.882118E-3	-1.179622E-3	-7.321912E-4	-1.094237E-3	6.772216E-3	-8.543956E-3	-4.613684E-3	1.270451E-2	-4.524883E-3	-6.104115E-4	-1.915150E-3	3.971168E-4	-7.064331E-4	6.244755E-3	1.259892E-2	3.123195E-3	3.197196E-3	-3.916086E-3	-5.933090E-4	7.452377E-3	-2.926504E-3	5.603582E-3	-4.712998E-3	5.452499E-3	-1.119826E-2
5.320020E+2	5.037020E-3	5.737372E-3	5.743819E-3	-1.061182E-4	1.802643E-3	7.148518E-3	1.156370E-3	-5.596086E-3	4.383879E-3	9.478353E-4	1.177279E-2	-2.753658E-3	-6.842117E-4	3.408386E-3	2.620493E-3	3.079695E-3	8.440244E-3	6.311121E-3	2.290958E-3	6.893693E-3	3.494760E-3	8.481759E-3	-2.378833E-4	1.082011E-2	1.966130E-4	-7.172344E-3	9.575313E-3	1.072094E-2	7.127962E-3	-1.067020E-3	1.197150E-2	5.646644E-3	7.245309E-3	4.773323E-3	1.931435E-3	6.569518E-3	3.872803E-3	5.325738E-3	-2.834235E-3	2.919745E-3	4.461332E-3	-9.377440E-4	-1.431196E-3	3.664331E-3	-2.962888E-3	1.266770E-3	8.857611E-3	7.292159E-3	3.818301E-3	7.355689E-3	-8.861958E-4	2.776794E-3	4.834683E-3	4.569947E-3	-3.590416E-3	-1.166491E-8	1.231648E-2	1.145512E-2	5.406246E-4	7.001797E-3	1.178724E-3	1.925303E-3	6.722462E-3	-1.472132E-4	1.660858E-3	7.039393E-3	5.072487E-4	3.775207E-3	4.781047E-3	4.019502E-3	2.279751E-3	1.506463E-3	8.086690E-3	3.765983E-3	-1.523626E-3	6.910953E-4	-2.227801E-3	6.440164E-3	7.465357E-3	8.577135E-3	5.570363E-3	6.474377E-3	5.561380E-3	5.086157E-3	3.183667E-3	1.194846E-2	-4.645619E-3	-9.341534E-4	-1.092431E-3	-1.381771E-3	7.160856E-3	-3.182058E-3	-1.409863E-3	-5.239893E-3	-6.274754E-4	-1.920831E-3	-2.336579E-3	1.119847E-2	1.050756E-3	-1.040157E-2	6.202877E-3	-2.168080E-3	5.228525E-3	-2.536687E-3	1.141976E-2	-2.098444E-3	5.619362E-3	-4.074799E-3	6.568513E-4	1.357978E-3	-2.233322E-3	-3.340723E-3	4.754623E-3	-3.361252E-3	-8.885182E-3	-2.565026E-3	3.132792E-4	1.436977E-3	-6.789026E-4	-4.812087E-3	8.766297E-3	-4.157365E-3	-5.425696E-3	6.092110E-3	5.531461E-3	5.653062E-3	-8.194999E-4	-7.828507E-5	4.349468E-3	9.179848E-4	7.205389E-3	5.377771E-3	2.868476E-3	1.042223E-3	6.037582E-3	1.119900E-3	2.159594E-3	-2.245022E-3	-1.764226E-3	-3.755369E-3	-1.597114E-3	2.264115E-3	-2.168152E-3	1.230605E-3	-1.365718E-3	4.976915E-3	1.196425E-2	9.981579E-4	-2.196742E-3	4.376857E-3	-3.386127E-4	7.415537E-3	-4.613707E-3	-3.150722E-3	7.541485E-3	-8.545476E-3	2.872712E-3	6.115967E-3	6.358002E-3	-2.130563E-3	7.521747E-4	7.808063E-4	4.995594E-3	-1.118866E-3	4.238068E-4	-2.946288E-3	1.463242E-2	2.680001E-3	1.366770E-2	-9.646802E-3	-1.959685E-2
5.325170E+2	2.122764E-2	1.103300E-3	1.170856E-2	-7.428508E-4	1.137074E-2	1.464151E-3	1.716778E-2	1.094163E-2	6.622502E-3	2.085290E-3	7.752812E-3	5.507309E-3	1.938604E-2	9.632315E-3	1.001941E-2	1.854981E-2	6.057108E-3	1.026732E-2	1.353770E-2	9.848272E-4	4.862262E-3	8.481751E-3	6.898549E-3	1.082012E-2	1.317183E-2	1.016079E-2	6.613882E-3	-8.091280E-4	8.009765E-3	1.219458E-2	2.047756E-3	1.165070E-2	-1.906814E-4	4.176626E-3	7.420669E-3	1.075014E-2	5.594039E-3	3.915956E-3	1.538598E-3	8.601402E-3	3.271660E-3	4.126016E-3	8.873359E-3	1.057414E-2	1.435865E-2	5.067115E-3	3.774103E-3	1.988773E-3	1.527334E-3	6.734057E-3	1.211156E-2	1.139429E-2	1.254008E-2	4.569926E-3	1.256653E-2	8.261061E-3	1.842611E-3	-2.937236E-4	8.650037E-3	1.291890E-2	1.390919E-2	1.532538E-2	3.252835E-3	1.089343E-2	8.108950E-3	5.882227E-3	2.333368E-3	-5.101798E-4	9.083955E-3	5.496043E-3	1.393183E-2	6.263664E-3	4.256032E-4	1.030684E-2	1.797902E-2	4.837277E-3	1.298262E-2	1.133138E-2	1.924061E-3	1.351759E-2	3.265399E-3	5.221269E-3	8.128179E-3	1.154170E-2	1.384530E-2	8.203415E-3	8.775075E-3	9.808514E-3	1.440065E-2	9.459850E-3	6.015128E-3	2.784262E-3	1.302038E-2	1.217270E-2	1.772575E-2	9.160907E-3	1.109874E-2	2.153523E-3	7.355280E-3	1.708145E-2	1.103629E-2	8.759005E-3	1.242844E-2	5.073400E-3	5.613098E-3	4.826465E-3	8.684460E-3	3.080953E-3	3.119980E-3	5.671582E-3	4.020000E-3	7.117097E-3	2.933668E-3	8.348866E-3	1.362397E-2	4.206617E-3	1.159114E-2	1.056602E-2	1.103154E-2	5.641758E-3	1.168869E-3	1.044409E-2	8.701542E-3	1.131396E-2	2.938610E-3	1.302659E-2	1.294764E-2	1.025794E-2	4.349468E-3	7.037958E-3	9.141155E-3	1.277227E-2	6.215021E-3	8.338132E-3	4.972101E-3	1.404204E-2	1.542544E-3	1.734800E-2	9.408992E-3	6.384117E-3	7.481264E-3	2.749210E-3	4.577185E-3	1.121999E-2	3.677023E-3	4.341577E-3	6.246807E-3	9.709246E-3	1.049548E-2	1.039503E-2	8.295945E-3	6.448116E-4	1.488973E-2	3.557301E-3	6.938124E-3	8.545465E-3	6.224257E-3	1.421764E-2	8.712840E-3	1.395887E-3	-9.402046E-4	6.051298E-3	6.794050E-3	1.566432E-2	6.526529E-3	5.372625E-3	2.090046E-4	2.679978E-3	5.184286E-3	5.452545E-3	3.919375E-2
5.330030E+2	8.814834E-3	8.385423E-3	-2.208875E-4	3.714246E-3	8.874737E-3	1.489990E-2	1.396548E-2	1.394851E-2	4.383893E-3	2.312748E-2	9.475700E-3	1.694550E-2	1.345620E-2	7.854055E-3	1.556863E-2	1.597145E-2	1.618540E-2	1.365836E-2	2.041073E-2	1.221171E-2	1.580234E-2	1.507872E-2	1.308340E-2	1.845786E-2	2.732669E-2	2.689615E-2	1.549821E-2	1.375519E-2	1.065518E-2	9.908097E-3	8.663595E-3	1.207952E-2	9.533203E-3	1.610977E-2	1.351983E-2	1.731963E-2	9.466878E-3	2.506220E-3	1.514291E-2	1.665038E-2	1.338403E-2	2.438109E-2	7.728418E-3	1.559946E-2	2.301940E-2	2.074361E-2	1.763820E-2	1.701507E-2	1.412780E-2	2.227427E-2	1.861038E-2	1.771384E-2	1.254003E-2	2.023829E-2	1.109771E-2	2.386524E-2	7.661413E-3	9.105324E-3	4.325029E-3	1.173551E-2	1.956717E-2	3.011167E-2	2.060111E-2	1.663449E-2	1.866035E-2	1.108949E-2	2.059447E-2	2.703861E-2	2.438325E-2	1.189441E-2	4.812826E-3	1.815674E-2	1.447085E-2	2.576705E-2	1.249388E-2	1.846073E-2	8.373427E-3	1.817911E-2	6.080040E-3	2.422187E-2	2.631527E-2	1.461959E-2	1.069495E-2	2.503958E-2	1.562224E-2	4.458429E-3	2.116347E-2	1.261093E-2	6.058186E-3	2.093916E-2	2.491983E-2	2.963288E-2	1.550837E-2	2.765059E-2	1.019626E-2	3.176761E-2	1.343533E-2	1.313663E-2	1.429024E-2	2.166195E-2	9.586257E-3	2.124708E-2	1.654267E-2	2.172050E-2	1.606505E-2	1.867624E-2	9.910517E-3	1.262197E-2	2.725872E-2	1.238160E-2	1.608009E-2	2.628981E-2	1.143120E-2	2.136015E-2	1.777043E-2	1.528739E-2	2.098931E-2	2.223085E-2	2.070534E-2	2.057574E-2	4.675351E-3	8.618974E-3	1.791493E-2	1.588301E-2	2.627437E-2	1.253503E-2	2.278131E-2	2.200364E-2	1.853254E-2	1.866585E-2	1.494849E-2	1.613338E-2	1.099590E-2	1.407052E-2	1.935574E-2	1.559269E-2	2.776546E-3	1.061289E-2	1.881801E-2	9.200647E-3	1.908139E-2	9.056331E-3	1.951336E-2	7.311123E-3	2.510872E-2	1.768394E-2	1.704642E-2	2.277595E-2	1.293630E-2	1.805451E-2	1.896215E-2	1.950606E-2	1.677715E-2	1.087513E-2	1.779789E-2	9.766213E-3	1.915157E-2	1.326445E-2	2.378375E-2	1.241604E-2	1.993269E-2	1.366403E-3	7.393478E-3	1.342655E-2	2.127482E-2	1.473139E-2	2.153051E-2	1.218154E-3	1.508150E-2	2.810157E-2	2.239637E-2
5.331520E+2	2.932290E-2	1.434342E-2	2.231256E-2	5.624416E-3	2.676281E-2	2.678544E-2	2.410604E-2	2.447256E-2	1.949446E-2	9.478499E-3	1.866420E-2	2.330016E-2	1.300006E-2	1.985745E-2	2.574221E-2	2.370651E-2	1.916430E-2	1.931010E-2	1.291289E-2	2.639300E-2	1.261147E-2	2.026197E-2	2.069556E-2	1.893517E-2	1.789011E-2	2.749385E-2	1.609050E-2	3.074683E-2	1.859144E-2	2.042590E-2	2.236784E-2	2.494533E-2	1.124920E-2	2.028642E-2	2.388842E-2	2.866703E-2	2.151560E-2	2.130291E-2	3.943634E-2	1.144219E-2	1.873769E-2	3.507125E-2	6.583453E-3	2.188114E-2	1.800532E-2	2.929441E-2	2.503234E-2	3.380920E-2	2.042806E-2	2.600387E-2	2.451850E-2	2.288438E-2	2.115186E-2	2.856210E-2	2.284826E-2	2.340629E-2	1.522588E-2	1.967924E-2	1.784071E-2	2.534466E-2	2.711112E-2	1.024257E-2	2.927528E-2	2.767512E-2	3.038414E-2	2.092531E-2	2.850763E-2	2.887519E-2	2.677378E-2	2.223025E-2	2.659709E-2	2.148676E-2	1.830142E-2	9.117584E-3	3.138711E-2	2.971490E-2	2.266197E-2	3.432027E-2	1.623903E-2	2.298675E-2	2.170533E-2	1.273990E-2	2.352890E-2	1.975779E-2	1.873188E-2	2.532367E-2	2.684147E-2	2.568889E-2	1.797593E-2	2.349014E-2	1.804537E-2	4.216220E-2	1.550838E-2	2.571580E-2	1.207866E-2	2.600513E-2	9.930456E-3	7.968126E-3	2.816010E-2	2.681498E-2	1.296964E-2	7.197971E-3	2.219975E-2	2.742809E-2	2.651697E-2	2.245350E-2	2.339696E-2	1.560359E-2	2.331769E-2	1.094373E-2	2.144002E-2	2.716126E-2	3.449599E-2	2.201064E-2	2.902503E-2	2.575258E-2	1.816987E-2	2.070932E-2	2.732431E-2	1.261094E-2	1.753261E-2	3.112961E-2	3.142785E-2	2.371574E-2	1.953290E-2	3.072309E-2	2.966480E-2	3.374940E-2	2.080183E-2	2.050180E-2	1.882002E-2	2.016670E-2	2.772865E-2	2.709886E-2	3.160847E-2	2.644730E-2	2.622324E-2	2.469541E-2	2.881509E-2	2.609982E-2	2.815976E-2	2.070025E-2	1.806793E-2	3.293616E-2	3.015151E-2	2.403743E-2	2.276384E-2	4.400929E-2	1.928237E-2	1.367765E-2	3.115210E-2	2.724401E-2	1.300228E-2	2.490093E-2	1.960780E-2	3.112984E-2	2.920615E-2	3.328039E-2	1.766121E-2	1.594251E-2	2.218919E-2	2.010578E-2	3.077296E-2	1.510488E-2	2.839462E-2	1.005202E-2	1.588664E-2	2.460709E-2	2.215101E-2	2.306845E-2	4.759238E-2
5.333080E+2	2.230702E-2	2.824546E-2	2.496351E-2	5.624409E-3	1.761075E-2	2.936920E-2	3.211170E-2	3.399427E-2	2.453130E-2	1.914654E-2	3.589274E-2	3.473836E-2	3.352644E-2	1.941286E-2	2.343005E-2	2.241738E-2	2.571786E-2	1.704941E-2	2.166038E-2	3.289271E-2	2.765409E-2	3.157101E-2	4.115326E-2	2.705026E-2	2.260840E-2	3.406855E-2	2.734402E-2	3.196056E-2	2.917314E-2	3.414468E-2	2.473065E-2	3.738221E-2	1.925716E-2	2.565635E-2	2.937770E-2	2.627810E-2	2.667932E-2	2.553218E-2	3.166247E-2	1.475649E-2	2.111710E-2	2.719431E-2	1.230821E-2	3.130364E-2	3.304766E-2	3.784519E-2	2.503236E-2	3.822864E-2	3.531950E-2	2.538225E-2	2.333687E-2	2.748043E-2	3.112347E-2	2.758284E-2	1.893138E-2	1.009682E-2	2.220843E-2	3.084060E-2	3.568148E-2	2.889488E-2	2.616815E-2	3.103577E-2	3.144384E-2	3.164977E-2	2.745322E-2	2.439682E-2	3.763818E-2	1.969225E-2	2.247082E-2	2.813642E-2	2.558387E-2	3.385553E-2	2.468555E-2	2.695627E-2	2.590199E-2	3.149181E-2	2.773207E-2	2.649428E-2	2.085673E-2	4.233680E-2	2.170529E-2	2.151166E-2	1.967873E-2	3.442944E-2	2.050878E-2	2.746368E-2	2.271203E-2	3.129379E-2	2.512662E-2	3.752042E-2	2.205545E-2	2.545641E-2	2.446506E-2	3.006900E-2	2.243174E-2	2.689165E-2	2.803905E-2	3.510280E-2	2.185561E-2	3.082295E-2	2.553647E-2	2.905214E-2	2.579972E-2	2.885501E-2	3.058164E-2	3.000799E-2	2.830115E-2	3.349300E-2	3.119970E-2	1.525733E-2	2.992674E-2	2.846848E-2	2.964023E-2	1.030057E-2	1.303165E-2	1.836538E-2	3.179726E-2	2.476669E-2	2.274196E-2	2.953620E-2	3.623401E-2	3.356316E-2	3.695589E-2	3.024300E-2	3.509013E-2	2.482428E-2	2.573135E-2	4.079681E-2	2.420577E-2	3.212974E-2	3.366097E-2	2.823340E-2	3.489988E-2	3.283133E-2	2.361756E-2	3.316681E-2	2.252109E-2	2.347082E-2	2.763891E-2	3.567609E-2	3.118591E-2	1.924474E-2	2.577692E-2	4.118830E-2	2.636947E-2	2.467285E-2	1.450536E-2	4.237593E-2	2.660488E-2	3.829739E-2	2.912044E-2	2.869484E-2	3.250570E-2	3.343836E-2	2.986420E-2	3.540253E-2	2.393949E-2	2.470211E-2	2.519659E-2	4.503579E-2	3.290767E-2	3.240353E-2	3.197188E-2	3.188812E-2	2.178332E-2	1.421146E-2	3.720813E-2	2.972346E-2	3.911772E-2	4.193935E-4	6.438965E-2
5.334580E+2	2.770380E-2	2.692148E-2	5.014799E-2	1.071825E-2	1.761075E-2	2.523514E-2	3.157801E-2	3.198971E-2	2.676992E-2	2.255886E-2	3.704128E-2	3.791567E-2	3.033344E-2	4.030763E-2	4.377719E-2	3.101188E-2	2.393055E-2	4.022153E-2	3.228222E-2	3.702898E-2	2.400741E-2	2.638770E-2	3.068655E-2	2.418611E-2	2.968585E-2	2.689615E-2	4.037435E-2	4.167006E-2	3.358216E-2	2.819993E-2	3.937998E-2	4.038432E-2	3.012507E-2	3.400955E-2	4.706526E-2	4.061155E-2	3.442494E-2	3.681017E-2	3.554943E-2	2.375241E-2	2.706560E-2	3.450861E-2	2.719257E-2	2.753463E-2	3.122436E-2	3.879529E-2	3.704791E-2	3.999645E-2	3.302848E-2	3.594959E-2	3.574382E-2	2.920393E-2	2.931045E-2	4.569936E-2	4.341158E-2	3.304419E-2	2.337220E-2	3.495269E-2	3.676272E-2	3.362851E-2	4.502807E-2	2.410472E-2	3.578090E-2	5.108126E-2	3.624606E-2	4.522573E-2	3.581208E-2	4.785320E-2	3.107667E-2	3.207389E-2	2.558385E-2	3.480701E-2	3.106975E-2	3.171330E-2	4.784245E-2	2.438404E-2	3.510685E-2	4.948315E-2	2.178030E-2	4.398361E-2	4.302641E-2	2.777718E-2	3.764623E-2	3.971126E-2	2.761654E-2	3.762884E-2	3.097091E-2	3.876695E-2	3.466083E-2	3.433175E-2	3.809577E-2	4.693527E-2	4.188091E-2	3.006903E-2	4.454969E-2	4.905509E-2	2.161337E-2	3.510284E-2	2.500786E-2	4.112912E-2	2.891989E-2	3.477580E-2	3.299958E-2	4.502651E-2	4.277557E-2	3.945100E-2	2.707504E-2	2.454826E-2	3.218498E-2	3.203235E-2	2.635342E-2	5.243434E-2	3.753086E-2	3.502193E-2	3.731783E-2	3.929571E-2	2.944770E-2	2.527386E-2	3.190660E-2	2.854059E-2	4.909123E-2	4.268915E-2	4.371239E-2	3.807570E-2	3.197867E-2	3.367251E-2	4.884047E-2	4.455546E-2	3.328292E-2	3.702571E-2	3.366094E-2	3.697231E-2	3.346561E-2	3.647921E-2	3.214121E-2	4.505513E-2	3.486147E-2	3.694104E-2	3.998822E-2	3.116961E-2	3.320328E-2	4.156221E-2	3.541312E-2	4.422857E-2	3.456390E-2	1.450719E-2	2.594022E-2	4.673149E-2	2.806935E-2	3.009081E-2	3.216794E-2	5.190868E-2	3.502221E-2	2.002239E-2	4.313726E-2	4.394798E-2	3.973953E-2	2.899124E-2	4.073847E-2	3.577885E-2	2.726638E-2	4.060201E-2	3.916550E-2	3.300696E-2	3.805728E-2	2.357019E-2	2.842871E-2	4.141790E-2	2.639270E-2	3.816794E-2	1.399774E-2
5.336080E+2	4.551345E-2	3.883754E-2	5.213629E-2	1.262839E-2	3.549885E-2	5.107313E-2	2.624095E-2	4.101028E-2	4.915583E-2	4.303232E-2	3.704132E-2	3.982206E-2	4.036856E-2	4.564234E-2	3.915283E-2	3.745772E-2	4.478291E-2	3.174398E-2	3.728081E-2	6.007372E-2	4.132924E-2	4.288003E-2	4.781392E-2	4.232568E-2	5.150789E-2	5.678078E-2	5.281241E-2	5.502063E-2	4.769117E-2	5.335123E-2	4.552325E-2	4.939020E-2	4.042093E-2	5.190934E-2	4.340574E-2	4.300045E-2	4.991612E-2	3.775003E-2	5.547005E-2	4.411166E-2	4.729046E-2	4.463617E-2	3.577971E-2	5.831482E-2	5.219251E-2	5.637205E-2	5.229847E-2	5.502276E-2	3.360124E-2	3.408478E-2	5.228641E-2	3.724700E-2	4.744062E-2	4.863719E-2	4.439082E-2	3.901055E-2	4.490177E-2	5.022613E-2	4.649401E-2	4.427916E-2	4.031304E-2	3.935312E-2	4.792470E-2	5.240608E-2	3.800460E-2	2.902546E-2	5.285587E-2	4.540445E-2	3.107666E-2	4.683936E-2	5.344748E-2	4.669996E-2	3.936928E-2	3.528105E-2	3.016822E-2	3.741504E-2	4.294251E-2	5.926577E-2	4.117477E-2	3.904318E-2	4.936515E-2	4.720034E-2	5.240534E-2	4.323240E-2	4.183201E-2	4.083889E-2	6.142573E-2	3.643157E-2	4.538680E-2	4.708659E-2	4.898027E-2	4.395209E-2	5.879911E-2	4.071004E-2	4.407916E-2	5.171472E-2	3.271222E-2	5.319262E-2	5.653043E-2	3.769374E-2	3.568669E-2	4.882497E-2	4.019956E-2	3.979453E-2	4.103353E-2	4.763501E-2	3.627035E-2	3.349300E-2	4.006697E-2	3.394950E-2	5.181336E-2	5.156288E-2	5.270502E-2	4.608148E-2	4.205664E-2	5.160780E-2	3.273705E-2	3.744587E-2	4.616274E-2	5.143944E-2	4.500027E-2	3.964710E-2	4.371239E-2	5.178304E-2	5.842592E-2	5.235219E-2	5.080711E-2	6.052963E-2	4.406207E-2	4.375765E-2	4.204938E-2	4.033339E-2	5.067655E-2	4.325399E-2	5.238487E-2	6.004479E-2	4.843584E-2	6.265690E-2	3.704793E-2	3.285948E-2	3.774250E-2	3.574027E-2	4.023127E-2	4.944047E-2	4.843148E-2	4.945148E-2	5.325679E-2	5.707591E-2	4.173787E-2	4.158006E-2	4.181839E-2	5.190868E-2	5.515475E-2	5.051325E-2	6.304672E-2	5.981811E-2	2.489702E-2	3.566323E-2	4.921587E-2	5.208869E-2	4.588273E-2	4.118760E-2	4.456078E-2	6.097905E-2	4.670278E-2	4.384751E-2	4.222494E-2	3.483981E-2	3.487602E-2	4.823415E-2	8.958586E-2
5.337580E+2	5.144994E-2	5.869763E-2	6.671679E-2	1.008151E-2	4.964297E-2	5.985807E-2	5.986485E-2	5.654577E-2	4.355936E-2	6.464331E-2	6.747832E-2	6.206312E-2	6.864944E-2	4.208590E-2	5.626288E-2	5.550621E-2	6.623107E-2	5.830715E-2	6.727205E-2	5.180118E-2	4.634346E-2	5.041927E-2	5.970788E-2	4.948591E-2	6.802182E-2	5.319466E-2	5.991984E-2	6.290961E-2	5.165925E-2	5.518038E-2	4.883123E-2	5.839635E-2	5.758079E-2	5.131266E-2	6.963220E-2	6.390351E-2	5.551025E-2	5.889628E-2	5.984284E-2	5.452785E-2	4.907501E-2	6.657911E-2	6.039617E-2	7.025002E-2	5.082506E-2	6.159746E-2	6.570019E-2	5.413888E-2	3.932875E-2	8.008370E-2	5.642205E-2	6.424867E-2	3.656252E-2	7.409825E-2	7.278781E-2	5.186101E-2	4.373800E-2	5.727543E-2	5.460346E-2	4.664602E-2	5.162902E-2	5.229100E-2	6.830881E-2	6.521324E-2	5.559025E-2	7.531177E-2	4.372521E-2	6.132155E-2	5.498183E-2	5.077684E-2	5.851362E-2	5.954451E-2	6.235237E-2	6.560693E-2	5.820331E-2	5.755414E-2	5.769189E-2	7.736323E-2	4.763944E-2	7.156758E-2	6.607635E-2	5.659860E-2	5.497204E-2	6.259904E-2	5.471478E-2	7.026427E-2	5.316679E-2	5.698257E-2	6.147582E-2	8.024914E-2	6.559347E-2	7.497714E-2	6.875104E-2	5.183475E-2	5.678520E-2	7.919746E-2	5.198902E-2	6.288366E-2	6.661761E-2	4.914498E-2	4.680351E-2	6.339435E-2	6.077075E-2	6.595434E-2	5.496948E-2	5.015313E-2	4.423959E-2	4.780456E-2	5.632369E-2	7.085455E-2	6.923354E-2	6.071347E-2	3.813777E-2	4.868370E-2	6.811991E-2	4.298935E-2	4.636444E-2	5.976130E-2	6.398292E-2	6.388448E-2	6.720821E-2	6.276621E-2	5.476844E-2	5.635213E-2	5.790726E-2	5.972573E-2	5.965746E-2	6.005991E-2	4.519668E-2	4.192167E-2	6.398811E-2	8.671690E-2	4.780800E-2	5.888790E-2	5.984290E-2	6.417991E-2	5.213795E-2	5.592181E-2	5.116141E-2	6.158810E-2	5.589925E-2	6.436472E-2	6.528557E-2	5.856123E-2	6.734183E-2	8.121904E-2	6.786800E-2	6.742040E-2	5.931169E-2	5.744613E-2	4.486583E-2	6.013025E-2	5.641303E-2	4.990345E-2	4.796381E-2	6.287008E-2	5.027291E-2	6.092132E-2	6.899609E-2	5.693760E-2	5.265248E-2	5.524212E-2	5.235390E-2	4.419583E-2	5.331410E-2	5.008658E-2	6.166518E-2	7.065420E-2	2.215099E-2	4.823424E-2	7.278828E-2
5.339400E+2	8.275171E-2	6.465560E-2	8.792481E-2	1.135495E-2	8.333903E-2	8.983004E-2	8.548299E-2	7.859613E-2	7.937696E-2	8.397926E-2	7.724114E-2	5.443758E-2	6.956165E-2	7.942958E-2	8.955833E-2	8.257894E-2	6.920997E-2	8.713097E-2	7.664432E-2	8.430005E-2	6.822350E-2	7.350862E-2	7.493238E-2	8.576507E-2	8.984396E-2	8.547006E-2	1.001955E-1	8.839714E-2	9.663123E-2	8.307559E-2	9.608707E-2	9.184732E-2	8.389261E-2	7.875892E-2	8.975956E-2	9.316760E-2	7.186189E-2	9.085034E-2	9.093846E-2	9.382599E-2	8.417108E-2	9.808691E-2	7.413551E-2	9.035136E-2	9.230551E-2	9.342531E-2	8.973147E-2	9.258848E-2	9.488537E-2	7.946211E-2	6.882901E-2	8.090921E-2	7.055652E-2	8.829772E-2	9.873690E-2	9.408410E-2	9.494355E-2	1.036829E-1	7.893173E-2	8.806543E-2	9.453533E-2	1.049670E-1	9.086175E-2	1.001016E-1	8.783054E-2	9.209074E-2	8.816072E-2	7.846295E-2	8.462406E-2	1.004873E-1	8.131118E-2	8.142783E-2	9.044291E-2	8.820278E-2	8.014384E-2	8.657778E-2	8.765187E-2	1.023084E-1	8.873734E-2	8.350707E-2	7.875377E-2	8.792636E-2	8.256511E-2	1.013322E-1	8.003612E-2	8.791936E-2	7.742742E-2	1.018214E-1	7.816062E-2	8.917750E-2	8.736238E-2	1.179347E-1	7.820519E-2	9.149679E-2	8.219725E-2	9.692807E-2	7.944395E-2	9.324860E-2	7.733527E-2	8.521641E-2	7.580407E-2	8.576879E-2	8.597030E-2	1.087611E-1	8.400285E-2	8.351865E-2	8.715088E-2	7.344611E-2	7.455074E-2	8.139887E-2	8.263339E-2	8.729381E-2	7.516286E-2	7.210390E-2	9.240614E-2	8.608134E-2	7.314921E-2	7.548343E-2	8.434872E-2	8.180536E-2	8.415639E-2	7.797611E-2	8.977927E-2	8.833586E-2	9.887480E-2	1.039671E-1	1.103008E-1	9.670670E-2	7.583208E-2	7.864137E-2	9.754160E-2	8.604479E-2	7.458046E-2	1.037051E-1	9.127371E-2	9.415903E-2	7.126545E-2	8.714818E-2	9.350167E-2	7.679740E-2	7.607344E-2	7.406810E-2	8.793062E-2	8.592351E-2	8.436116E-2	8.058368E-2	6.659745E-2	1.044426E-1	6.858676E-2	8.316011E-2	9.514947E-2	8.479478E-2	6.333359E-2	8.222383E-2	1.028657E-1	1.086492E-1	8.330924E-2	7.950752E-2	9.819630E-2	9.176126E-2	8.593617E-2	7.163909E-2	7.153703E-2	7.608392E-2	9.552469E-2	8.492214E-2	8.486798E-2	6.919239E-2	1.041569E-1	6.333368E-2	1.651735E-1
5.340740E+2	1.129740E-1	1.056999E-1	1.210624E-1	1.453862E-2	1.236912E-1	1.037827E-1	1.137696E-1	8.511081E-2	1.179929E-1	1.226516E-1	1.139951E-1	1.103581E-1	1.224741E-1	1.127725E-1	1.284026E-1	1.216840E-1	1.115106E-1	1.040861E-1	1.160077E-1	1.043904E-1	1.238360E-1	9.942491E-2	1.058566E-1	1.000859E-1	1.458732E-1	1.452394E-1	1.250716E-1	1.454407E-1	1.376355E-1	1.397804E-1	1.305837E-1	1.274427E-1	1.410920E-1	1.175417E-1	1.165958E-1	1.170567E-1	1.316752E-1	1.359627E-1	1.298080E-1	1.222341E-1	1.311639E-1	1.459118E-1	1.073390E-1	1.198753E-1	1.269485E-1	1.304789E-1	1.216185E-1	1.288285E-1	1.183679E-1	1.472173E-1	1.255466E-1	1.280185E-1	1.131623E-1	1.353028E-1	1.315404E-1	1.207030E-1	1.188004E-1	1.283557E-1	1.065038E-1	1.229759E-1	1.228249E-1	1.271467E-1	1.233899E-1	1.045177E-1	1.153816E-1	1.360629E-1	1.441616E-1	1.256018E-1	1.113977E-1	1.472449E-1	1.263993E-1	1.085437E-1	1.134258E-1	1.316104E-1	1.142737E-1	1.073091E-1	1.245258E-1	1.350798E-1	1.302968E-1	1.226188E-1	1.260061E-1	1.010839E-1	1.274840E-1	1.165905E-1	1.053574E-1	1.243002E-1	1.161408E-1	1.293789E-1	1.109345E-1	1.166006E-1	1.343376E-1	1.221110E-1	1.239842E-1	1.461532E-1	1.141977E-1	1.359356E-1	1.226704E-1	1.397654E-1	1.391195E-1	1.419003E-1	1.260712E-1	1.362413E-1	1.301984E-1	1.130419E-1	1.240686E-1	1.515088E-1	1.282233E-1	1.056471E-1	1.213503E-1	1.307653E-1	1.273004E-1	1.347897E-1	9.883462E-2	1.150409E-1	1.362397E-1	1.211706E-1	9.711469E-2	1.069280E-1	1.311901E-1	1.027129E-1	1.355850E-1	1.400325E-1	1.333891E-1	1.255412E-1	1.294703E-1	1.275624E-1	1.260347E-1	1.277152E-1	9.909226E-2	1.031211E-1	1.156089E-1	1.169670E-1	1.133048E-1	1.209024E-1	1.184429E-1	1.458475E-1	1.224778E-1	1.361304E-1	1.340784E-1	1.077791E-1	1.204564E-1	1.133662E-1	1.346667E-1	1.480316E-1	1.171390E-1	1.295056E-1	1.275831E-1	1.164205E-1	1.066634E-1	1.318526E-1	1.185134E-1	1.331570E-1	1.306518E-1	1.249110E-1	1.288084E-1	1.324545E-1	1.196975E-1	1.262110E-1	1.415246E-1	1.164464E-1	1.327593E-1	1.220010E-1	1.362801E-1	1.208390E-1	1.067129E-1	1.187177E-1	1.199860E-1	1.225484E-1	1.338486E-1	9.856555E-2	9.798434E-2
5.342040E+2	1.572280E-1	1.904360E-1	1.826976E-1	3.618735E-2	1.677877E-1	1.683778E-1	1.746132E-1	1.412390E-1	1.840313E-1	1.732669E-1	1.765919E-1	2.024994E-1	1.899831E-1	1.816804E-1	1.727963E-1	1.827052E-1	1.728761E-1	1.809497E-1	1.816138E-1	1.752969E-1	1.817272E-1	1.837717E-1	1.738903E-1	1.683480E-1	2.284433E-1	2.157671E-1	2.239839E-1	2.279717E-1	2.143530E-1	1.955704E-1	2.014678E-1	1.960602E-1	2.108754E-1	1.927210E-1	1.885663E-1	2.108219E-1	2.091314E-1	2.012811E-1	1.978299E-1	1.889934E-1	2.019511E-1	1.954238E-1	1.903481E-1	2.027932E-1	2.035283E-1	1.865343E-1	1.890903E-1	1.986566E-1	1.939709E-1	2.037835E-1	1.769469E-1	1.963845E-1	1.952013E-1	2.121755E-1	1.986161E-1	1.982652E-1	1.862987E-1	1.888623E-1	1.865164E-1	1.774129E-1	1.911923E-1	1.890642E-1	1.906143E-1	1.787107E-1	1.880688E-1	1.788778E-1	1.904231E-1	1.868216E-1	1.921973E-1	1.940020E-1	1.907390E-1	1.922709E-1	2.117428E-1	1.863156E-1	1.928934E-1	1.926037E-1	1.922811E-1	2.069814E-1	1.926364E-1	1.868447E-1	1.824784E-1	1.938137E-1	2.230968E-1	1.928832E-1	1.644404E-1	2.088312E-1	1.899551E-1	1.966372E-1	1.878042E-1	2.071595E-1	2.042277E-1	1.943038E-1	1.747386E-1	2.129016E-1	1.824342E-1	2.037559E-1	1.705708E-1	2.011409E-1	1.983819E-1	1.985838E-1	1.840721E-1	1.919175E-1	2.011691E-1	1.905698E-1	1.861994E-1	1.886514E-1	1.938164E-1	1.426184E-1	1.996781E-1	1.719837E-1	1.902808E-1	1.953579E-1	1.674217E-1	1.807474E-1	1.818504E-1	2.085856E-1	1.723003E-1	1.733668E-1	1.958522E-1	2.047624E-1	1.987024E-1	1.826200E-1	1.948122E-1	1.966883E-1	2.139979E-1	1.968735E-1	2.263378E-1	2.216813E-1	1.700074E-1	1.826803E-1	1.878777E-1	1.902396E-1	1.730649E-1	1.954246E-1	2.031462E-1	1.949516E-1	1.712222E-1	1.734796E-1	2.022935E-1	1.489004E-1	1.890491E-1	1.987546E-1	1.915204E-1	1.910295E-1	1.915197E-1	1.968527E-1	1.745936E-1	1.779425E-1	1.725656E-1	1.876573E-1	2.038433E-1	1.965114E-1	1.740629E-1	1.816242E-1	1.933637E-1	1.886104E-1	2.111460E-1	1.981733E-1	1.853247E-1	1.786004E-1	1.874802E-1	1.776336E-1	1.830391E-1	1.683914E-1	1.677401E-1	1.769496E-1	2.033909E-1	1.780968E-1	1.508153E-1	1.614795E-1	2.239643E-1
5.343550E+2	2.624666E-1	3.360775E-1	3.059695E-1	5.910946E-2	3.038203E-1	2.970511E-1	2.818895E-1	2.434726E-1	3.194662E-1	2.995202E-1	3.035092E-1	3.105273E-1	2.912469E-1	3.012699E-1	3.249375E-1	2.987309E-1	3.212255E-1	2.843766E-1	3.078273E-1	3.029283E-1	3.212131E-1	3.185375E-1	3.037727E-1	3.034400E-1	4.413559E-1	3.675809E-1	3.637637E-1	3.924268E-1	3.664649E-1	3.565384E-1	3.578855E-1	3.598846E-1	3.533021E-1	3.156325E-1	3.636124E-1	3.577402E-1	3.644737E-1	3.497747E-1	3.537939E-1	3.163566E-1	3.191366E-1	3.709677E-1	2.979736E-1	3.347081E-1	3.302488E-1	3.627755E-1	3.323528E-1	3.011890E-1	3.589226E-1	3.200240E-1	3.146049E-1	3.313926E-1	3.443222E-1	3.184266E-1	3.312987E-1	3.249345E-1	3.148940E-1	3.298477E-1	3.005892E-1	3.229720E-1	3.227403E-1	3.170579E-1	3.380754E-1	3.204723E-1	3.445819E-1	3.478236E-1	3.395557E-1	3.410947E-1	3.619239E-1	3.391956E-1	3.336035E-1	3.107260E-1	3.726243E-1	3.224849E-1	3.440391E-1	3.312074E-1	3.250263E-1	3.620341E-1	3.265504E-1	3.045916E-1	3.190484E-1	3.510790E-1	3.443774E-1	3.337306E-1	3.465766E-1	3.495383E-1	3.159037E-1	3.353573E-1	3.391599E-1	3.442740E-1	3.365607E-1	2.921521E-1	3.314807E-1	3.217302E-1	3.447895E-1	3.207790E-1	3.090133E-1	3.445680E-1	3.295154E-1	2.901943E-1	3.078077E-1	3.292863E-1	3.333392E-1	3.199414E-1	2.976868E-1	3.315567E-1	3.115161E-1	2.732118E-1	3.302241E-1	3.306280E-1	3.122210E-1	3.130083E-1	3.094528E-1	3.134621E-1	3.240137E-1	3.169312E-1	2.587637E-1	3.452965E-1	3.175382E-1	3.272217E-1	3.722752E-1	3.420199E-1	3.373121E-1	3.252759E-1	3.566058E-1	3.374624E-1	3.526999E-1	3.466557E-1	2.760969E-1	2.885558E-1	3.214458E-1	3.589678E-1	2.992783E-1	3.397779E-1	3.336648E-1	3.370953E-1	3.236257E-1	2.867524E-1	3.104971E-1	2.807143E-1	3.171550E-1	3.438182E-1	3.081183E-1	3.317507E-1	2.904842E-1	3.461602E-1	3.448458E-1	3.282095E-1	2.926537E-1	3.167743E-1	3.328536E-1	3.232204E-1	2.740956E-1	3.481042E-1	3.453999E-1	3.680642E-1	3.255768E-1	3.306589E-1	3.398015E-1	3.522782E-1	3.019986E-1	2.719160E-1	3.095276E-1	2.713287E-1	2.933543E-1	3.038127E-1	3.313198E-1	3.352420E-1	3.204820E-1	3.678383E-1	3.667418E-1
5.345110E+2	4.977691E-1	5.353398E-1	5.385944E-1	7.757448E-2	5.051652E-1	5.812692E-1	5.081830E-1	4.409232E-1	5.119862E-1	5.514587E-1	5.102508E-1	5.202286E-1	5.352831E-1	5.528961E-1	5.473687E-1	5.273446E-1	5.488143E-1	5.121418E-1	5.452580E-1	5.516926E-1	5.491315E-1	5.409486E-1	5.316620E-1	5.869908E-1	6.395236E-1	6.281749E-1	6.462857E-1	6.224213E-1	6.252757E-1	6.002776E-1	6.187384E-1	6.193444E-1	6.026918E-1	6.038189E-1	6.222173E-1	5.339223E-1	6.045876E-1	5.602977E-1	5.719489E-1	5.322591E-1	5.749210E-1	6.106524E-1	5.223834E-1	6.161271E-1	5.536052E-1	5.746452E-1	5.832919E-1	5.659172E-1	6.040588E-1	5.842068E-1	5.698330E-1	6.140491E-1	6.271531E-1	5.475762E-1	5.878516E-1	5.658819E-1	6.151440E-1	5.448509E-1	5.600910E-1	6.182321E-1	5.919654E-1	5.993841E-1	5.822525E-1	5.439342E-1	6.025050E-1	5.908277E-1	5.946025E-1	5.547508E-1	6.416142E-1	6.158022E-1	5.423276E-1	5.400238E-1	6.018173E-1	5.656865E-1	5.866039E-1	5.343746E-1	5.965091E-1	6.222485E-1	6.216234E-1	5.219712E-1	5.870037E-1	5.797706E-1	5.824476E-1	5.913654E-1	5.860183E-1	6.047364E-1	5.641872E-1	5.604858E-1	5.888368E-1	5.496268E-1	5.897685E-1	5.576547E-1	5.807764E-1	5.582517E-1	6.196176E-1	5.565981E-1	5.748001E-1	5.861954E-1	5.451296E-1	5.833456E-1	6.118289E-1	5.644783E-1	6.033356E-1	5.453913E-1	5.525985E-1	5.550425E-1	5.413997E-1	4.926553E-1	5.987059E-1	5.726676E-1	5.963014E-1	5.552814E-1	5.722695E-1	5.606759E-1	5.650990E-1	5.674793E-1	5.797122E-1	5.831587E-1	5.660023E-1	5.562100E-1	6.376020E-1	6.066718E-1	5.983580E-1	5.674376E-1	5.868523E-1	5.675172E-1	6.029664E-1	5.900270E-1	4.826024E-1	4.984700E-1	5.601918E-1	5.955898E-1	5.564856E-1	5.513582E-1	5.675321E-1	6.198308E-1	5.691981E-1	5.781989E-1	5.580716E-1	4.784348E-1	5.506706E-1	5.786367E-1	5.596243E-1	5.645476E-1	5.287541E-1	5.475664E-1	5.773545E-1	5.459875E-1	4.957290E-1	5.585950E-1	5.791925E-1	5.510061E-1	5.471438E-1	5.609309E-1	5.426845E-1	5.182202E-1	5.439050E-1	5.451151E-1	5.748126E-1	5.466742E-1	5.214468E-1	4.827341E-1	5.798895E-1	4.593004E-1	4.911851E-1	5.528594E-1	5.646022E-1	5.581684E-1	5.368085E-1	5.741971E-1	6.271003E-1
5.346620E+2	7.659928E-1	9.338659E-1	9.077456E-1	1.323330E-1	8.275674E-1	8.499846E-1	8.396195E-1	6.995143E-1	8.897491E-1	8.756233E-1	8.140471E-1	8.741792E-1	9.115998E-1	8.832114E-1	9.029811E-1	8.681166E-1	8.925807E-1	8.190315E-1	8.776609E-1	9.068165E-1	9.292996E-1	8.462920E-1	8.580337E-1	8.886805E-1	1.014626E+0	9.312061E-1	9.815209E-1	9.640744E-1	9.599217E-1	9.341039E-1	9.793024E-1	9.349849E-1	9.636211E-1	9.278040E-1	9.363244E-1	8.916629E-1	9.518477E-1	9.230739E-1	8.799905E-1	9.167163E-1	9.443224E-1	9.623030E-1	8.435421E-1	9.402612E-1	9.196368E-1	9.466050E-1	9.451448E-1	8.863306E-1	9.855092E-1	9.366584E-1	8.345147E-1	9.219820E-1	9.602954E-1	9.148034E-1	9.560335E-1	8.752121E-1	9.316872E-1	9.266875E-1	8.552744E-1	9.330193E-1	9.073974E-1	9.819794E-1	8.719695E-1	8.323154E-1	9.465980E-1	8.587103E-1	9.099123E-1	8.669700E-1	9.911076E-1	9.293226E-1	9.177265E-1	8.853982E-1	9.376262E-1	8.974868E-1	9.047418E-1	9.075385E-1	8.781325E-1	9.626794E-1	9.665676E-1	8.612143E-1	9.800041E-1	8.554540E-1	9.809417E-1	9.475925E-1	9.240809E-1	9.380461E-1	8.811238E-1	8.720227E-1	9.320687E-1	9.144147E-1	9.134392E-1	8.738714E-1	9.320783E-1	9.016670E-1	9.212692E-1	9.400248E-1	9.334654E-1	9.492843E-1	8.855736E-1	8.925299E-1	9.390507E-1	9.193478E-1	9.263037E-1	8.769065E-1	9.131909E-1	9.145085E-1	9.208590E-1	8.224173E-1	9.120168E-1	9.201505E-1	9.527424E-1	8.881885E-1	9.145996E-1	8.885587E-1	9.436084E-1	9.011349E-1	9.293251E-1	8.834023E-1	8.882926E-1	8.753006E-1	1.020396E+0	8.640237E-1	9.361818E-1	8.996757E-1	9.840801E-1	9.091582E-1	9.958206E-1	9.395802E-1	8.905073E-1	8.240514E-1	9.292789E-1	9.061580E-1	9.255630E-1	9.203193E-1	9.313849E-1	8.984318E-1	9.338559E-1	8.469912E-1	8.909139E-1	7.741705E-1	9.254065E-1	9.337755E-1	8.997833E-1	9.137431E-1	9.094824E-1	8.944681E-1	9.076954E-1	8.878979E-1	9.243348E-1	9.464933E-1	9.200035E-1	8.977626E-1	9.315493E-1	8.792563E-1	9.095016E-1	9.473239E-1	9.006031E-1	9.087370E-1	9.285074E-1	8.979971E-1	9.208520E-1	7.556265E-1	8.376634E-1	7.731469E-1	8.827768E-1	8.658578E-1	9.145262E-1	8.717255E-1	9.821853E-1	8.535356E-1	1.063830E+0
5.348020E+2	1.089264E+0	1.269501E+0	1.228516E+0	1.902750E-1	1.185327E+0	1.202932E+0	1.167852E+0	1.020747E+0	1.243448E+0	1.171921E+0	1.147706E+0	1.249100E+0	1.224057E+0	1.253983E+0	1.191539E+0	1.226509E+0	1.222047E+0	1.194307E+0	1.227559E+0	1.205807E+0	1.268443E+0	1.160117E+0	1.183930E+0	1.228558E+0	1.336649E+0	1.261132E+0	1.272335E+0	1.337890E+0	1.313526E+0	1.260613E+0	1.363022E+0	1.246337E+0	1.308536E+0	1.283413E+0	1.294956E+0	1.218944E+0	1.296959E+0	1.226169E+0	1.243906E+0	1.231573E+0	1.259592E+0	1.315082E+0	1.125201E+0	1.278216E+0	1.247378E+0	1.313339E+0	1.246457E+0	1.169178E+0	1.281047E+0	1.222598E+0	1.225038E+0	1.209809E+0	1.313835E+0	1.199284E+0	1.256161E+0	1.215292E+0	1.297108E+0	1.195734E+0	1.226145E+0	1.298693E+0	1.294024E+0	1.253217E+0	1.253199E+0	1.195774E+0	1.270761E+0	1.289176E+0	1.278178E+0	1.173067E+0	1.324343E+0	1.248256E+0	1.225239E+0	1.220781E+0	1.308548E+0	1.251288E+0	1.249696E+0	1.207255E+0	1.230737E+0	1.312404E+0	1.322133E+0	1.189342E+0	1.257179E+0	1.276498E+0	1.267780E+0	1.313211E+0	1.328332E+0	1.222669E+0	1.233159E+0	1.230734E+0	1.218691E+0	1.304713E+0	1.311582E+0	1.230063E+0	1.275420E+0	1.296353E+0	1.274687E+0	1.218399E+0	1.260003E+0	1.302035E+0	1.251235E+0	1.221755E+0	1.348439E+0	1.251844E+0	1.260072E+0	1.158956E+0	1.205265E+0	1.241239E+0	1.233500E+0	1.138464E+0	1.224835E+0	1.270031E+0	1.295336E+0	1.221530E+0	1.256929E+0	1.222296E+0	1.186471E+0	1.265570E+0	1.323582E+0	1.235376E+0	1.286448E+0	1.218784E+0	1.364033E+0	1.266173E+0	1.281991E+0	1.254760E+0	1.319078E+0	1.256207E+0	1.300663E+0	1.258124E+0	1.098147E+0	1.144737E+0	1.228035E+0	1.310164E+0	1.332410E+0	1.203294E+0	1.226515E+0	1.366214E+0	1.268279E+0	1.197829E+0	1.201411E+0	1.033291E+0	1.262314E+0	1.247674E+0	1.199468E+0	1.196488E+0	1.259954E+0	1.188000E+0	1.173873E+0	1.194421E+0	1.274835E+0	1.254513E+0	1.205451E+0	1.200992E+0	1.260590E+0	1.168309E+0	1.254600E+0	1.235427E+0	1.265920E+0	1.227086E+0	1.293035E+0	1.189812E+0	1.302770E+0	1.073611E+0	1.174566E+0	1.036644E+0	1.307934E+0	1.182497E+0	1.231840E+0	1.144354E+0	1.279103E+0	1.397112E+0	1.324188E+0
5.349580E+2	1.492407E+0	1.680604E+0	1.680510E+0	2.845105E-1	1.566386E+0	1.585851E+0	1.593222E+0	1.321934E+0	1.559089E+0	1.600728E+0	1.516397E+0	1.598601E+0	1.663322E+0	1.674547E+0	1.621144E+0	1.566421E+0	1.628370E+0	1.515327E+0	1.668055E+0	1.615885E+0	1.696474E+0	1.589389E+0	1.524097E+0	1.621903E+0	1.719420E+0	1.620345E+0	1.646662E+0	1.686827E+0	1.653024E+0	1.658463E+0	1.672073E+0	1.672196E+0	1.720941E+0	1.652746E+0	1.607844E+0	1.485310E+0	1.706185E+0	1.596934E+0	1.627744E+0	1.572945E+0	1.628992E+0	1.717367E+0	1.520209E+0	1.596066E+0	1.623437E+0	1.643969E+0	1.662842E+0	1.548370E+0	1.748985E+0	1.610481E+0	1.653964E+0	1.636665E+0	1.669638E+0	1.635059E+0	1.642948E+0	1.607693E+0	1.670676E+0	1.633380E+0	1.532681E+0	1.619987E+0	1.593427E+0	1.657993E+0	1.606670E+0	1.566737E+0	1.715092E+0	1.592930E+0	1.602618E+0	1.545893E+0	1.731211E+0	1.628221E+0	1.575310E+0	1.520011E+0	1.662237E+0	1.663957E+0	1.681191E+0	1.631949E+0	1.625286E+0	1.761912E+0	1.625517E+0	1.625748E+0	1.644417E+0	1.591656E+0	1.616223E+0	1.664155E+0	1.645960E+0	1.615899E+0	1.656431E+0	1.647363E+0	1.637601E+0	1.620396E+0	1.641556E+0	1.569549E+0	1.614782E+0	1.635412E+0	1.640338E+0	1.590745E+0	1.672410E+0	1.729085E+0	1.625726E+0	1.623691E+0	1.688710E+0	1.705573E+0	1.668923E+0	1.490945E+0	1.600696E+0	1.623372E+0	1.617253E+0	1.452723E+0	1.647510E+0	1.662564E+0	1.607110E+0	1.589297E+0	1.582263E+0	1.561240E+0	1.585713E+0	1.591838E+0	1.642177E+0	1.590899E+0	1.637758E+0	1.651870E+0	1.697739E+0	1.659199E+0	1.708263E+0	1.582428E+0	1.778537E+0	1.578186E+0	1.721543E+0	1.589824E+0	1.526474E+0	1.442780E+0	1.580991E+0	1.721566E+0	1.663717E+0	1.530044E+0	1.626060E+0	1.739405E+0	1.655150E+0	1.596425E+0	1.607764E+0	1.351559E+0	1.668318E+0	1.680925E+0	1.543963E+0	1.619519E+0	1.646354E+0	1.595262E+0	1.591246E+0	1.552121E+0	1.705396E+0	1.658279E+0	1.635147E+0	1.628028E+0	1.518537E+0	1.520785E+0	1.614177E+0	1.565647E+0	1.608256E+0	1.594044E+0	1.596806E+0	1.582570E+0	1.693151E+0	1.398622E+0	1.456320E+0	1.309090E+0	1.680199E+0	1.501211E+0	1.627541E+0	1.465952E+0	1.701856E+0	1.749434E+0	1.836506E+0
5.351040E+2	1.673743E+0	1.974532E+0	1.951575E+0	3.176207E-1	1.828052E+0	1.799272E+0	1.850471E+0	1.476790E+0	1.889844E+0	1.882812E+0	1.754149E+0	1.925861E+0	1.916024E+0	1.879493E+0	1.840337E+0	1.825115E+0	1.875024E+0	1.758915E+0	1.887364E+0	1.802604E+0	1.940803E+0	1.813211E+0	1.815263E+0	1.907838E+0	1.859199E+0	1.810409E+0	1.821978E+0	1.942914E+0	1.876560E+0	1.868818E+0	1.926314E+0	1.839447E+0	1.898264E+0	1.818020E+0	1.860962E+0	1.773769E+0	1.908433E+0	1.803700E+0	1.842499E+0	1.798319E+0	1.829457E+0	1.923294E+0	1.784692E+0	1.789543E+0	1.837680E+0	1.909520E+0	1.824126E+0	1.706591E+0	1.914508E+0	1.851664E+0	1.886153E+0	1.824528E+0	1.936606E+0	1.872531E+0	1.881874E+0	1.825231E+0	1.945904E+0	1.907128E+0	1.815431E+0	1.805784E+0	1.797115E+0	1.926917E+0	1.855187E+0	1.750010E+0	1.963052E+0	1.839403E+0	1.784620E+0	1.810361E+0	1.956398E+0	1.902860E+0	1.885861E+0	1.761677E+0	1.872276E+0	1.830453E+0	1.881095E+0	1.892571E+0	1.817029E+0	1.972723E+0	1.961688E+0	1.781784E+0	1.873187E+0	1.837264E+0	1.896645E+0	1.840217E+0	1.884069E+0	1.904270E+0	1.781341E+0	1.897712E+0	1.914690E+0	1.913755E+0	1.849506E+0	1.739591E+0	1.886465E+0	1.854040E+0	1.859638E+0	1.745002E+0	1.970325E+0	1.919026E+0	1.840079E+0	1.834396E+0	1.928932E+0	1.827335E+0	1.885948E+0	1.765388E+0	1.838768E+0	1.848113E+0	1.862460E+0	1.633406E+0	1.860322E+0	1.806832E+0	1.910398E+0	1.754880E+0	1.846905E+0	1.816259E+0	1.829759E+0	1.812837E+0	1.906268E+0	1.863249E+0	1.889785E+0	1.798225E+0	2.000468E+0	1.774182E+0	1.944122E+0	1.765191E+0	1.989076E+0	1.860838E+0	1.923132E+0	1.883937E+0	1.704046E+0	1.625152E+0	1.807476E+0	1.954156E+0	1.885068E+0	1.850540E+0	1.814113E+0	1.981825E+0	1.836551E+0	1.766639E+0	1.754193E+0	1.566741E+0	1.876114E+0	1.835693E+0	1.707297E+0	1.822782E+0	1.926227E+0	1.792854E+0	1.779288E+0	1.702933E+0	1.871372E+0	1.902286E+0	1.831711E+0	1.799231E+0	1.821156E+0	1.757397E+0	1.752340E+0	1.775011E+0	1.802643E+0	1.769897E+0	1.829465E+0	1.775203E+0	1.904699E+0	1.542683E+0	1.765645E+0	1.532868E+0	1.903459E+0	1.719063E+0	1.776795E+0	1.717383E+0	1.957772E+0	2.011157E+0	1.979285E+0
5.352550E+2	1.842665E+0	2.157250E+0	2.121901E+0	3.284446E-1	1.937880E+0	2.020964E+0	2.006316E+0	1.656195E+0	1.988903E+0	2.050575E+0	1.920694E+0	2.031344E+0	2.060169E+0	2.015531E+0	2.058608E+0	1.970793E+0	2.045420E+0	1.913211E+0	2.015454E+0	1.963913E+0	2.090776E+0	1.962116E+0	1.956086E+0	2.022880E+0	1.984233E+0	1.843285E+0	2.009736E+0	2.074603E+0	1.959891E+0	1.974451E+0	2.039253E+0	1.985259E+0	1.991494E+0	1.937350E+0	1.967693E+0	1.884256E+0	2.013856E+0	1.939502E+0	1.994574E+0	1.989128E+0	1.953185E+0	2.069580E+0	1.828772E+0	2.043951E+0	1.954374E+0	2.058208E+0	2.006208E+0	1.848457E+0	2.092634E+0	1.990283E+0	1.984816E+0	2.053756E+0	2.057170E+0	2.003264E+0	1.992035E+0	1.989538E+0	1.957542E+0	1.972919E+0	1.932204E+0	1.985661E+0	1.949409E+0	2.049363E+0	2.007850E+0	1.899282E+0	2.119563E+0	2.011822E+0	1.973926E+0	1.891172E+0	2.116085E+0	2.007694E+0	1.948176E+0	1.918194E+0	2.043370E+0	2.028460E+0	1.978612E+0	1.964246E+0	2.007849E+0	2.095492E+0	2.047581E+0	1.889648E+0	1.979790E+0	2.004553E+0	2.024340E+0	1.979889E+0	2.057321E+0	2.011806E+0	1.964590E+0	1.943485E+0	1.940310E+0	1.961588E+0	2.036264E+0	1.886959E+0	1.968074E+0	2.018493E+0	2.069053E+0	1.866014E+0	2.018809E+0	2.054052E+0	1.915097E+0	1.939172E+0	2.087951E+0	2.032869E+0	2.003205E+0	1.827692E+0	1.964772E+0	2.013052E+0	2.016327E+0	1.768767E+0	1.960329E+0	1.965474E+0	1.968018E+0	1.910007E+0	2.041740E+0	1.898879E+0	1.903210E+0	1.887324E+0	2.058048E+0	1.932735E+0	2.030312E+0	1.966479E+0	2.165277E+0	1.964612E+0	2.043015E+0	2.026280E+0	2.151386E+0	1.945388E+0	2.125217E+0	2.012668E+0	1.842474E+0	1.884639E+0	2.044929E+0	2.140361E+0	2.064350E+0	1.835429E+0	1.935575E+0	2.071242E+0	2.000061E+0	1.886031E+0	1.945897E+0	1.721090E+0	1.948742E+0	2.013745E+0	1.874487E+0	1.868385E+0	2.001240E+0	1.944700E+0	1.887284E+0	1.896753E+0	2.166708E+0	1.964109E+0	1.885040E+0	1.924490E+0	1.896026E+0	1.847039E+0	1.951435E+0	1.913568E+0	1.880685E+0	1.949563E+0	1.994299E+0	1.912292E+0	2.119636E+0	1.845439E+0	1.885541E+0	1.612865E+0	2.067722E+0	1.914561E+0	1.927924E+0	1.780970E+0	2.038363E+0	1.975925E+0	2.004479E+0
5.354110E+2	1.731487E+0	2.208884E+0	1.984715E+0	3.169838E-1	1.793523E+0	2.247820E+0	1.889429E+0	1.560981E+0	1.847308E+0	1.957312E+0	1.823636E+0	1.944929E+0	1.962552E+0	1.943064E+0	1.886580E+0	1.896019E+0	1.902430E+0	1.991768E+0	1.904865E+0	1.898917E+0	1.952196E+0	2.022431E+0	1.866645E+0	1.977057E+0	1.846815E+0	1.882731E+0	1.900160E+0	1.945345E+0	1.871269E+0	1.855555E+0	1.934817E+0	1.918358E+0	1.877098E+0	1.864560E+0	1.887797E+0	1.806616E+0	1.914456E+0	1.877942E+0	1.816258E+0	1.831460E+0	1.868715E+0	1.922170E+0	1.685081E+0	1.845452E+0	1.852721E+0	1.908572E+0	1.880968E+0	1.825034E+0	1.970066E+0	1.855393E+0	1.900922E+0	1.891170E+0	1.989183E+0	1.886241E+0	1.933773E+0	1.823398E+0	1.891207E+0	1.842508E+0	1.798130E+0	1.853712E+0	1.892827E+0	1.899194E+0	1.820054E+0	1.784458E+0	1.954844E+0	1.893215E+0	1.849143E+0	1.817097E+0	2.037199E+0	1.888584E+0	1.871678E+0	1.820191E+0	1.932922E+0	1.882187E+0	1.990189E+0	1.882504E+0	1.912438E+0	1.933593E+0	1.924286E+0	1.818423E+0	1.932539E+0	1.907437E+0	1.918461E+0	1.854303E+0	1.894287E+0	1.897317E+0	1.838644E+0	1.900046E+0	1.875955E+0	1.936077E+0	1.875285E+0	1.856527E+0	1.891936E+0	1.865166E+0	1.950932E+0	1.669646E+0	1.894388E+0	2.005598E+0	1.795946E+0	1.870470E+0	1.994667E+0	1.990720E+0	1.826808E+0	1.805340E+0	1.890447E+0	1.927431E+0	1.853263E+0	1.644141E+0	1.872639E+0	1.870097E+0	1.903698E+0	1.806297E+0	1.858433E+0	1.772672E+0	1.842790E+0	1.838690E+0	1.921304E+0	1.799854E+0	1.902514E+0	1.867919E+0	2.043128E+0	1.926892E+0	2.020294E+0	1.851352E+0	1.958998E+0	1.949317E+0	1.926576E+0	1.858566E+0	1.768726E+0	1.669831E+0	1.905556E+0	1.936677E+0	1.977340E+0	1.856791E+0	1.860995E+0	1.990609E+0	1.890848E+0	1.818686E+0	1.822993E+0	1.607304E+0	1.859470E+0	1.873535E+0	1.771861E+0	1.800197E+0	1.868240E+0	1.864013E+0	1.880294E+0	1.833052E+0	1.925068E+0	1.847031E+0	1.838819E+0	1.838403E+0	1.919299E+0	1.792764E+0	1.835596E+0	1.856193E+0	1.796897E+0	1.837091E+0	1.828049E+0	1.772118E+0	1.922189E+0	1.912782E+0	1.797418E+0	1.533426E+0	1.921767E+0	1.840210E+0	1.822573E+0	1.713730E+0	1.896974E+0	1.940693E+0	1.811311E+0
5.355580E+2	1.522632E+0	1.967252E+0	1.838909E+0	2.876943E-1	1.629204E+0	2.005463E+0	1.674345E+0	1.386580E+0	1.665424E+0	1.816838E+0	1.626083E+0	1.763822E+0	1.756833E+0	1.721225E+0	1.673860E+0	1.693188E+0	1.746335E+0	1.819390E+0	1.719294E+0	1.708062E+0	1.776245E+0	1.940438E+0	1.662067E+0	1.737422E+0	1.689341E+0	1.715977E+0	1.654359E+0	1.676512E+0	1.714312E+0	1.697332E+0	1.683415E+0	1.737809E+0	1.687194E+0	1.860381E+0	1.612723E+0	1.632823E+0	1.711349E+0	1.884053E+0	1.593731E+0	1.592356E+0	1.633751E+0	1.868152E+0	1.606651E+0	1.702855E+0	1.627088E+0	1.764631E+0	1.657758E+0	1.583288E+0	1.771895E+0	1.808771E+0	1.640374E+0	1.701584E+0	1.748051E+0	1.940100E+0	1.687011E+0	1.700859E+0	1.675329E+0	1.743229E+0	1.604045E+0	1.673834E+0	1.677353E+0	1.715749E+0	1.725072E+0	1.602951E+0	1.784848E+0	1.709226E+0	1.668359E+0	1.706291E+0	1.749378E+0	1.848720E+0	1.674602E+0	1.598031E+0	1.777788E+0	1.718069E+0	1.734214E+0	1.624844E+0	1.653404E+0	1.812293E+0	1.720643E+0	1.623689E+0	1.675534E+0	1.700049E+0	1.733013E+0	1.671784E+0	1.687274E+0	1.690263E+0	1.661073E+0	1.668845E+0	1.758565E+0	1.694377E+0	1.702854E+0	1.596993E+0	1.709322E+0	1.693941E+0	1.730222E+0	1.598725E+0	1.753606E+0	1.743298E+0	1.725334E+0	1.677514E+0	1.784897E+0	1.733674E+0	1.702351E+0	1.542791E+0	1.672699E+0	1.714651E+0	1.689588E+0	1.521897E+0	1.660812E+0	1.692281E+0	1.693763E+0	1.642459E+0	1.622934E+0	1.614586E+0	1.595782E+0	1.665710E+0	1.735692E+0	1.691321E+0	1.732970E+0	1.704141E+0	1.854365E+0	1.680490E+0	1.786883E+0	1.654229E+0	1.790465E+0	1.666666E+0	1.750554E+0	1.675803E+0	1.588880E+0	1.617810E+0	1.682943E+0	1.794837E+0	1.751686E+0	1.628537E+0	1.640978E+0	1.673244E+0	1.735980E+0	1.598875E+0	1.677156E+0	1.440561E+0	1.705642E+0	1.735264E+0	1.662493E+0	1.632114E+0	1.757297E+0	1.590179E+0	1.614113E+0	1.600575E+0	1.766903E+0	1.723384E+0	1.648355E+0	1.657531E+0	1.703506E+0	1.665920E+0	1.680542E+0	1.643164E+0	1.642727E+0	1.624544E+0	1.703717E+0	1.560971E+0	1.774950E+0	1.713094E+0	1.598395E+0	1.394125E+0	1.724951E+0	1.642634E+0	1.702795E+0	1.514192E+0	1.853144E+0	1.749433E+0	1.928893E+0
5.357090E+2	1.445995E+0	1.775933E+0	1.568508E+0	2.514006E-1	1.419541E+0	1.825112E+0	1.512097E+0	1.246765E+0	1.505362E+0	1.604142E+0	1.480218E+0	1.554754E+0	1.588056E+0	1.560291E+0	1.570736E+0	1.510126E+0	1.506831E+0	1.614232E+0	1.512478E+0	1.543205E+0	1.496817E+0	1.745829E+0	1.516960E+0	1.533589E+0	1.439273E+0	1.573129E+0	1.471345E+0	1.545435E+0	1.474013E+0	1.480571E+0	1.545901E+0	1.488644E+0	1.499579E+0	1.656922E+0	1.504157E+0	1.452461E+0	1.540945E+0	1.732744E+0	1.508705E+0	1.376930E+0	1.476118E+0	1.650974E+0	1.406857E+0	1.543931E+0	1.509936E+0	1.548962E+0	1.511723E+0	1.447166E+0	1.566848E+0	1.610481E+0	1.509810E+0	1.518890E+0	1.535474E+0	1.797619E+0	1.479911E+0	1.462664E+0	1.494364E+0	1.660402E+0	1.485109E+0	1.472059E+0	1.475553E+0	1.558182E+0	1.507352E+0	1.365801E+0	1.565029E+0	1.649633E+0	1.493660E+0	1.495083E+0	1.625550E+0	1.806883E+0	1.541871E+0	1.475295E+0	1.606054E+0	1.637199E+0	1.599526E+0	1.448921E+0	1.537711E+0	1.630338E+0	1.585345E+0	1.456536E+0	1.529168E+0	1.622358E+0	1.568734E+0	1.513330E+0	1.535347E+0	1.747513E+0	1.507253E+0	1.462868E+0	1.525572E+0	1.645907E+0	1.564792E+0	1.438884E+0	1.502818E+0	1.558509E+0	1.492102E+0	1.397923E+0	1.531047E+0	1.576611E+0	1.465586E+0	1.517193E+0	1.592044E+0	1.677477E+0	1.539328E+0	1.409140E+0	1.415466E+0	1.580560E+0	1.527750E+0	1.300662E+0	1.494303E+0	1.489545E+0	1.486063E+0	1.464239E+0	1.520961E+0	1.472763E+0	1.449473E+0	1.477335E+0	1.542088E+0	1.449908E+0	1.559350E+0	1.508005E+0	1.664428E+0	1.504057E+0	1.624730E+0	1.504753E+0	1.626591E+0	1.555570E+0	1.600589E+0	1.536731E+0	1.479957E+0	1.385253E+0	1.504205E+0	1.609976E+0	1.564279E+0	1.477411E+0	1.521647E+0	1.606567E+0	1.572471E+0	1.431107E+0	1.527196E+0	1.318323E+0	1.519031E+0	1.528583E+0	1.429294E+0	1.510502E+0	1.523441E+0	1.532997E+0	1.492145E+0	1.474267E+0	1.524774E+0	1.443813E+0	1.526453E+0	1.473753E+0	1.514136E+0	1.496393E+0	1.486276E+0	1.510712E+0	1.515368E+0	1.485861E+0	1.556772E+0	1.424762E+0	1.574118E+0	1.548538E+0	1.366997E+0	1.245315E+0	1.606968E+0	1.507973E+0	1.459480E+0	1.389207E+0	1.629748E+0	1.507843E+0	1.601343E+0
5.358550E+2	1.206915E+0	1.444271E+0	1.306057E+0	2.004624E-1	1.242737E+0	1.518156E+0	1.272993E+0	1.064848E+0	1.303889E+0	1.300449E+0	1.199966E+0	1.267528E+0	1.282442E+0	1.330449E+0	1.256280E+0	1.268191E+0	1.297117E+0	1.394379E+0	1.285042E+0	1.326348E+0	1.276190E+0	1.454151E+0	1.249583E+0	1.338352E+0	1.229898E+0	1.359152E+0	1.247458E+0	1.271138E+0	1.275610E+0	1.253756E+0	1.297337E+0	1.263489E+0	1.317687E+0	1.322793E+0	1.264460E+0	1.250597E+0	1.290072E+0	1.457838E+0	1.183173E+0	1.225420E+0	1.262566E+0	1.412416E+0	1.142947E+0	1.265023E+0	1.249203E+0	1.297188E+0	1.254775E+0	1.208956E+0	1.348632E+0	1.359351E+0	1.240400E+0	1.277026E+0	1.293437E+0	1.494044E+0	1.257141E+0	1.197395E+0	1.213899E+0	1.451858E+0	1.187761E+0	1.224729E+0	1.264792E+0	1.303582E+0	1.228045E+0	1.200189E+0	1.325276E+0	1.351664E+0	1.235570E+0	1.196331E+0	1.372157E+0	1.469249E+0	1.310351E+0	1.215074E+0	1.342384E+0	1.440974E+0	1.283825E+0	1.251680E+0	1.306326E+0	1.322675E+0	1.313821E+0	1.232982E+0	1.257179E+0	1.367975E+0	1.310132E+0	1.228117E+0	1.262141E+0	1.540466E+0	1.257421E+0	1.249884E+0	1.268150E+0	1.309815E+0	1.308719E+0	1.270634E+0	1.286862E+0	1.321500E+0	1.273274E+0	1.236574E+0	1.314914E+0	1.400237E+0	1.240517E+0	1.310500E+0	1.300587E+0	1.497442E+0	1.307900E+0	1.212704E+0	1.268558E+0	1.352038E+0	1.239017E+0	1.134291E+0	1.294788E+0	1.282490E+0	1.276577E+0	1.216303E+0	1.288492E+0	1.406406E+0	1.214311E+0	1.263723E+0	1.300556E+0	1.486427E+0	1.322595E+0	1.228741E+0	1.367540E+0	1.382376E+0	1.361224E+0	1.213638E+0	1.387012E+0	1.304382E+0	1.302630E+0	1.296182E+0	1.128782E+0	1.155141E+0	1.249328E+0	1.384781E+0	1.344840E+0	1.316382E+0	1.207337E+0	1.291780E+0	1.321960E+0	1.252321E+0	1.261394E+0	1.088495E+0	1.284001E+0	1.265142E+0	1.175380E+0	1.242094E+0	1.240414E+0	1.292198E+0	1.260906E+0	1.231988E+0	1.316331E+0	1.267644E+0	1.308050E+0	1.226140E+0	1.274431E+0	1.192702E+0	1.275716E+0	1.226271E+0	1.275976E+0	1.244241E+0	1.228041E+0	1.244911E+0	1.342260E+0	1.312538E+0	1.227320E+0	1.102657E+0	1.349128E+0	1.261006E+0	1.256924E+0	1.210866E+0	1.383732E+0	1.321618E+0	1.576148E+0
5.360120E+2	1.006153E+0	1.225148E+0	1.158927E+0	1.890015E-1	1.028913E+0	1.286131E+0	1.071251E+0	9.365554E-1	1.079470E+0	1.162822E+0	1.026532E+0	1.086422E+0	1.125531E+0	1.163733E+0	1.062521E+0	1.082549E+0	1.148766E+0	1.128182E+0	1.091973E+0	1.062220E+0	1.138984E+0	1.266141E+0	1.055949E+0	1.112562E+0	1.094837E+0	1.124261E+0	1.121300E+0	1.117000E+0	1.100129E+0	1.076780E+0	1.062945E+0	1.089805E+0	1.107764E+0	1.165274E+0	1.077216E+0	1.083373E+0	1.115797E+0	1.217711E+0	1.060248E+0	1.024194E+0	1.093034E+0	1.185109E+0	9.551750E-1	1.094790E+0	1.084191E+0	1.148025E+0	1.049125E+0	9.990285E-1	1.116097E+0	1.210165E+0	1.092108E+0	1.104674E+0	1.151569E+0	1.298189E+0	1.077455E+0	1.091376E+0	1.081230E+0	1.141690E+0	1.039628E+0	1.096921E+0	1.069593E+0	1.116903E+0	1.098798E+0	1.063727E+0	1.152351E+0	1.158416E+0	1.096783E+0	1.042058E+0	1.189998E+0	1.276310E+0	1.081362E+0	1.046193E+0	1.148943E+0	1.167447E+0	1.100988E+0	1.032519E+0	1.120576E+0	1.186211E+0	1.170210E+0	1.087652E+0	1.110812E+0	1.195673E+0	1.125965E+0	1.080811E+0	1.081339E+0	1.264402E+0	1.028235E+0	1.080804E+0	1.104280E+0	1.208414E+0	1.117954E+0	1.057038E+0	1.136589E+0	1.131902E+0	1.129743E+0	1.049514E+0	1.149600E+0	1.205772E+0	1.045708E+0	1.080330E+0	1.177823E+0	1.297633E+0	1.070817E+0	1.034341E+0	1.139069E+0	1.127293E+0	1.105992E+0	9.631477E-1	1.084930E+0	1.080232E+0	1.043862E+0	1.067277E+0	1.125824E+0	1.139025E+0	1.081033E+0	1.080890E+0	1.126689E+0	1.277474E+0	1.128611E+0	1.077409E+0	1.235462E+0	1.201075E+0	1.134577E+0	1.114423E+0	1.228847E+0	1.120533E+0	1.171351E+0	1.147244E+0	1.035741E+0	1.052938E+0	1.064138E+0	1.122613E+0	1.197113E+0	1.325239E+0	1.098129E+0	1.148606E+0	1.101685E+0	1.155580E+0	1.110261E+0	9.442891E-1	1.107478E+0	1.137058E+0	1.039027E+0	1.050120E+0	1.135146E+0	1.212779E+0	1.067783E+0	1.078999E+0	1.144496E+0	1.296643E+0	1.071870E+0	1.077671E+0	1.098272E+0	1.154284E+0	1.135747E+0	1.101752E+0	1.028919E+0	1.110325E+0	1.101822E+0	1.016134E+0	1.130145E+0	1.191317E+0	1.060067E+0	9.012592E-1	1.153332E+0	1.210573E+0	1.088234E+0	9.996342E-1	1.216891E+0	1.158041E+0	1.324188E+0
5.362630E+2	7.352308E-1	8.875260E-1	8.447840E-1	1.342432E-1	7.560150E-1	9.383503E-1	8.246754E-1	6.604245E-1	7.850948E-1	8.557181E-1	7.583414E-1	8.201655E-1	8.532141E-1	8.432000E-1	7.943090E-1	8.260042E-1	7.936808E-1	8.461598E-1	8.033073E-1	7.933660E-1	8.449697E-1	9.471304E-1	7.590755E-1	8.256690E-1	7.680966E-1	8.385632E-1	8.216028E-1	8.317823E-1	8.095734E-1	7.900552E-1	8.063449E-1	8.144756E-1	7.977426E-1	8.639621E-1	8.491065E-1	7.626611E-1	8.167311E-1	8.958184E-1	7.993361E-1	8.082917E-1	7.676520E-1	8.351468E-1	7.193157E-1	7.951549E-1	7.751388E-1	8.411452E-1	7.815487E-1	7.506523E-1	8.463312E-1	8.744975E-1	8.185628E-1	7.990391E-1	8.297579E-1	9.466302E-1	8.360805E-1	7.375275E-1	8.205483E-1	8.726423E-1	7.806675E-1	8.087610E-1	8.008386E-1	8.715440E-1	7.960708E-1	7.885946E-1	8.627729E-1	8.633393E-1	8.484326E-1	8.088112E-1	9.308660E-1	9.411352E-1	8.219768E-1	7.702733E-1	8.552702E-1	9.093792E-1	8.675652E-1	8.086206E-1	8.232826E-1	8.516482E-1	8.441978E-1	7.846375E-1	7.967578E-1	9.049522E-1	8.378434E-1	8.331544E-1	8.143546E-1	9.557012E-1	7.500124E-1	8.075669E-1	8.480486E-1	8.787015E-1	8.160516E-1	8.082409E-1	8.320617E-1	8.015441E-1	8.003260E-1	7.769029E-1	8.394184E-1	8.556048E-1	7.802876E-1	8.266855E-1	8.341656E-1	9.687795E-1	8.373334E-1	7.551444E-1	8.017033E-1	8.440001E-1	7.872203E-1	6.936132E-1	8.149698E-1	8.501747E-1	7.995355E-1	7.844820E-1	8.344794E-1	8.814027E-1	7.813057E-1	8.007920E-1	8.203065E-1	9.118034E-1	8.439971E-1	8.215382E-1	8.596811E-1	8.713246E-1	8.925721E-1	8.324452E-1	8.720680E-1	8.555771E-1	8.173398E-1	8.517214E-1	7.793118E-1	7.836599E-1	8.260386E-1	8.638077E-1	8.629345E-1	9.672207E-1	7.689032E-1	8.606992E-1	8.443883E-1	8.641346E-1	7.785947E-1	7.105168E-1	8.083958E-1	8.173363E-1	7.672854E-1	8.190612E-1	8.691404E-1	8.881151E-1	7.990644E-1	8.231095E-1	8.486698E-1	9.694717E-1	7.935327E-1	7.952349E-1	8.384363E-1	8.585218E-1	7.996984E-1	7.648175E-1	7.967063E-1	7.986498E-1	7.914567E-1	7.913221E-1	8.870047E-1	9.166683E-1	7.375506E-1	6.797202E-1	8.843022E-1	9.204503E-1	8.361383E-1	7.489336E-1	8.874536E-1	9.063833E-1	8.706606E-1
5.365090E+2	5.932934E-1	7.398987E-1	6.638538E-1	1.024068E-1	6.307982E-1	7.280288E-1	6.202636E-1	5.090786E-1	6.244756E-1	6.987546E-1	5.757192E-1	6.530395E-1	6.967571E-1	6.515902E-1	6.278329E-1	6.502460E-1	6.226914E-1	7.127789E-1	6.439783E-1	6.208268E-1	6.612678E-1	7.619451E-1	6.182504E-1	6.065624E-1	6.177013E-1	6.514852E-1	6.379933E-1	6.248483E-1	6.552569E-1	6.414340E-1	6.447294E-1	6.330679E-1	6.392995E-1	7.398564E-1	6.191678E-1	6.115622E-1	6.514908E-1	7.125510E-1	6.190781E-1	5.938100E-1	6.326214E-1	6.590395E-1	6.036750E-1	6.431386E-1	6.197009E-1	6.630035E-1	6.341272E-1	5.977371E-1	6.613336E-1	7.110149E-1	7.027652E-1	6.215170E-1	6.575210E-1	7.478375E-1	6.324057E-1	6.480334E-1	6.436565E-1	7.063971E-1	6.055037E-1	6.265158E-1	6.575038E-1	6.682331E-1	6.269243E-1	5.903051E-1	6.675721E-1	6.677785E-1	6.493860E-1	6.361726E-1	7.066359E-1	7.752699E-1	6.132529E-1	6.061492E-1	6.873656E-1	6.762864E-1	6.512072E-1	6.267773E-1	6.679521E-1	6.784980E-1	6.470206E-1	6.318959E-1	6.665256E-1	6.831516E-1	6.408417E-1	6.582684E-1	6.459898E-1	7.368835E-1	5.987717E-1	6.104623E-1	6.680901E-1	7.039605E-1	6.745529E-1	6.328308E-1	6.579032E-1	6.772375E-1	6.440881E-1	6.120068E-1	6.793615E-1	7.050715E-1	6.207836E-1	6.783914E-1	6.809469E-1	7.731329E-1	5.822507E-1	5.943814E-1	6.031162E-1	6.985773E-1	6.615514E-1	5.719650E-1	6.184111E-1	6.402475E-1	6.610682E-1	5.953692E-1	6.438921E-1	7.187621E-1	6.118940E-1	6.321179E-1	6.845025E-1	7.383521E-1	6.566312E-1	6.607486E-1	6.586406E-1	6.821131E-1	6.990913E-1	6.405431E-1	7.113101E-1	6.820531E-1	6.619681E-1	6.656695E-1	6.363465E-1	6.276010E-1	6.247180E-1	6.607963E-1	7.123392E-1	7.280218E-1	6.266648E-1	6.901278E-1	6.555809E-1	6.975938E-1	6.668624E-1	5.708174E-1	6.227931E-1	6.533519E-1	6.203326E-1	6.370797E-1	6.270875E-1	7.070399E-1	6.338933E-1	6.298319E-1	6.768369E-1	7.845496E-1	6.330316E-1	6.308034E-1	6.264155E-1	6.475249E-1	6.042235E-1	6.763108E-1	6.334390E-1	6.842731E-1	6.544056E-1	6.401255E-1	6.895578E-1	7.351303E-1	6.290465E-1	5.471332E-1	7.027461E-1	7.634313E-1	6.291939E-1	5.486667E-1	7.333401E-1	8.032041E-1	7.446806E-1
5.368080E+2	4.756420E-1	5.757222E-1	5.379320E-1	9.221917E-2	4.818694E-1	6.019395E-1	5.322010E-1	4.354107E-1	5.091876E-1	5.730699E-1	4.890023E-1	4.909976E-1	5.238794E-1	5.537852E-1	5.237843E-1	5.307825E-1	5.291538E-1	5.494435E-1	5.327616E-1	5.451932E-1	5.550576E-1	5.857131E-1	5.159617E-1	5.392549E-1	5.469274E-1	5.504750E-1	5.254586E-1	5.641635E-1	5.053496E-1	4.909834E-1	5.289518E-1	5.267114E-1	5.346244E-1	5.721959E-1	5.319492E-1	5.088388E-1	5.516592E-1	5.621775E-1	5.389102E-1	5.029038E-1	5.309026E-1	5.476372E-1	4.725783E-1	5.187615E-1	5.271671E-1	5.437676E-1	5.236770E-1	4.969728E-1	5.284561E-1	5.543698E-1	5.414746E-1	5.238516E-1	5.297031E-1	6.273870E-1	5.197963E-1	5.121847E-1	5.459005E-1	5.307524E-1	5.222474E-1	5.087673E-1	4.929507E-1	5.411628E-1	5.237024E-1	5.262691E-1	5.591275E-1	5.509057E-1	5.002531E-1	5.118973E-1	5.708546E-1	6.231850E-1	5.316885E-1	4.938794E-1	5.526587E-1	5.710382E-1	5.567407E-1	5.290435E-1	5.255272E-1	5.782272E-1	5.458921E-1	5.116783E-1	5.334125E-1	5.453102E-1	5.510041E-1	5.268100E-1	5.451486E-1	5.892211E-1	5.141173E-1	4.960298E-1	5.703651E-1	5.687593E-1	5.313359E-1	5.123107E-1	5.359927E-1	5.326161E-1	5.226752E-1	5.304454E-1	5.514336E-1	6.075160E-1	4.991074E-1	5.123482E-1	5.547948E-1	6.232766E-1	5.441937E-1	5.002065E-1	5.496955E-1	5.827422E-1	5.089097E-1	4.580694E-1	5.203782E-1	5.448695E-1	5.275144E-1	4.999423E-1	5.352447E-1	5.866983E-1	4.880941E-1	5.366998E-1	5.458790E-1	6.247463E-1	5.374902E-1	5.562101E-1	5.961078E-1	5.878123E-1	5.621188E-1	4.982485E-1	5.806297E-1	5.316322E-1	5.424890E-1	5.735829E-1	5.081318E-1	4.954101E-1	5.679353E-1	5.828177E-1	5.722619E-1	6.217105E-1	4.929501E-1	5.428154E-1	5.476027E-1	5.475846E-1	5.198475E-1	4.542128E-1	5.481489E-1	5.257541E-1	5.167432E-1	5.606387E-1	5.495553E-1	5.774284E-1	5.316153E-1	5.193095E-1	5.689533E-1	6.122118E-1	5.192580E-1	4.910368E-1	5.635015E-1	5.554427E-1	5.384616E-1	5.737657E-1	5.170927E-1	5.317714E-1	5.512647E-1	5.122913E-1	5.722182E-1	5.928280E-1	5.349296E-1	4.693706E-1	5.740801E-1	6.074523E-1	5.219593E-1	4.953096E-1	5.636723E-1	5.616133E-1	6.774914E-1
5.370010E+2	4.540548E-1	5.677783E-1	4.988291E-1	8.457848E-2	4.756295E-1	5.683502E-1	5.055154E-1	4.053418E-1	4.767279E-1	5.133551E-1	4.746451E-1	5.291255E-1	4.860194E-1	4.679836E-1	4.701417E-1	4.641754E-1	4.832782E-1	5.121420E-1	4.765278E-1	4.500601E-1	4.675371E-1	5.550843E-1	4.850374E-1	4.881775E-1	4.732043E-1	4.889129E-1	4.739292E-1	4.810260E-1	4.722816E-1	4.653750E-1	4.717722E-1	4.761052E-1	4.705611E-1	5.507161E-1	4.923046E-1	4.747968E-1	5.159432E-1	5.353923E-1	4.601992E-1	4.422997E-1	4.613048E-1	4.941858E-1	4.067438E-1	4.848404E-1	4.793054E-1	5.005382E-1	4.816227E-1	4.744333E-1	4.929457E-1	5.189382E-1	4.646693E-1	4.669756E-1	5.088538E-1	5.911541E-1	4.816071E-1	4.561934E-1	5.115696E-1	5.284026E-1	4.708874E-1	4.845068E-1	4.839923E-1	4.903352E-1	4.777291E-1	4.441272E-1	5.175074E-1	5.318126E-1	4.899054E-1	4.653702E-1	5.636834E-1	5.567408E-1	4.531638E-1	4.486854E-1	5.111616E-1	5.252520E-1	4.744634E-1	4.715884E-1	4.766700E-1	5.205106E-1	4.964830E-1	4.779187E-1	5.172778E-1	5.233808E-1	4.894014E-1	5.027484E-1	4.798467E-1	5.544457E-1	4.201728E-1	4.722091E-1	5.054129E-1	5.343212E-1	4.769134E-1	4.520504E-1	4.757836E-1	4.779598E-1	4.897330E-1	4.697174E-1	4.895148E-1	5.345104E-1	4.738892E-1	4.585274E-1	5.301444E-1	5.759253E-1	4.634518E-1	4.326668E-1	4.771121E-1	5.304903E-1	4.819364E-1	4.240791E-1	4.977175E-1	5.108398E-1	5.002679E-1	4.751044E-1	4.872939E-1	5.346533E-1	4.975712E-1	4.511320E-1	5.205037E-1	5.461352E-1	4.977765E-1	4.760639E-1	5.259773E-1	5.531332E-1	4.779698E-1	4.512515E-1	5.246236E-1	4.859168E-1	4.918460E-1	4.894839E-1	4.462934E-1	4.856178E-1	4.575957E-1	5.229905E-1	5.034181E-1	5.299915E-1	4.604541E-1	4.756203E-1	5.124324E-1	5.053373E-1	4.898557E-1	3.933756E-1	5.067919E-1	4.893670E-1	4.536253E-1	4.676937E-1	5.180386E-1	5.069043E-1	4.915932E-1	4.866430E-1	5.089087E-1	5.536708E-1	4.989415E-1	4.891022E-1	4.552890E-1	5.060475E-1	4.757171E-1	4.681688E-1	4.725653E-1	4.998414E-1	5.060520E-1	4.536638E-1	5.101638E-1	5.553493E-1	4.498040E-1	4.022376E-1	5.191554E-1	5.923743E-1	4.843331E-1	4.156416E-1	5.283251E-1	5.414814E-1	3.835390E-1
5.372640E+2	3.973878E-1	4.764217E-1	4.676802E-1	7.884801E-2	3.990847E-1	4.877353E-1	5.065820E-1	3.502162E-1	4.465067E-1	4.445413E-1	4.528225E-1	4.427030E-1	4.413177E-1	4.413089E-1	4.595060E-1	4.379617E-1	4.356157E-1	4.511029E-1	5.046442E-1	3.921531E-1	4.392749E-1	4.825184E-1	5.073981E-1	4.366230E-1	4.861792E-1	4.428902E-1	5.094669E-1	4.688895E-1	4.392139E-1	4.425101E-1	4.708275E-1	4.246419E-1	4.488258E-1	4.636041E-1	4.868158E-1	4.192550E-1	4.410690E-1	4.625549E-1	5.243340E-1	4.389855E-1	4.268041E-1	4.750560E-1	4.307876E-1	4.427531E-1	4.469412E-1	4.406828E-1	4.344847E-1	4.183053E-1	4.471258E-1	5.108574E-1	4.410372E-1	4.468677E-1	4.725934E-1	5.133017E-1	4.429285E-1	4.327873E-1	4.475626E-1	4.861066E-1	3.989837E-1	4.194195E-1	4.542880E-1	4.570656E-1	4.382615E-1	4.330867E-1	4.319241E-1	4.664327E-1	4.509483E-1	4.396578E-1	4.948361E-1	5.193346E-1	4.536700E-1	4.296560E-1	4.677491E-1	4.556806E-1	4.994518E-1	4.508568E-1	4.702166E-1	4.769786E-1	4.539997E-1	4.647445E-1	4.383321E-1	4.832819E-1	4.367820E-1	4.622550E-1	4.243173E-1	5.186008E-1	4.165594E-1	4.339096E-1	4.577419E-1	4.743731E-1	4.476970E-1	4.586133E-1	4.379668E-1	4.508735E-1	4.563207E-1	4.338125E-1	4.643963E-1	4.918701E-1	4.480401E-1	4.224559E-1	4.856767E-1	5.405424E-1	4.516236E-1	4.055557E-1	4.347236E-1	4.448733E-1	4.568025E-1	4.067863E-1	4.716082E-1	4.370297E-1	4.247812E-1	4.276086E-1	4.454132E-1	4.526825E-1	4.353750E-1	4.455920E-1	4.622349E-1	5.334561E-1	4.422795E-1	4.322580E-1	4.774706E-1	5.129789E-1	4.761270E-1	4.271012E-1	4.774334E-1	4.406923E-1	4.933210E-1	4.627031E-1	4.054463E-1	4.488986E-1	4.724367E-1	4.745904E-1	4.737777E-1	4.820468E-1	4.620521E-1	4.611477E-1	4.686249E-1	4.826828E-1	4.075270E-1	3.640834E-1	4.684612E-1	4.311474E-1	4.425438E-1	4.603101E-1	4.663499E-1	5.107162E-1	4.306074E-1	4.398206E-1	4.581405E-1	5.646129E-1	4.237704E-1	4.363878E-1	4.383018E-1	4.127454E-1	4.377073E-1	4.877007E-1	4.232503E-1	4.464655E-1	4.561293E-1	4.364727E-1	4.464168E-1	4.733648E-1	3.928545E-1	3.586014E-1	4.754197E-1	5.159445E-1	4.310287E-1	4.127177E-1	4.449051E-1	4.861173E-1	4.507276E-1
5.375110E+2	4.222136E-1	5.201137E-1	5.571510E-1	8.139486E-2	3.995008E-1	5.600823E-1	5.578190E-1	3.487130E-1	4.694527E-1	4.434041E-1	4.849823E-1	4.992587E-1	4.942299E-1	4.537572E-1	4.516453E-1	4.714807E-1	4.713624E-1	4.771007E-1	5.252635E-1	4.524235E-1	4.999015E-1	5.192726E-1	5.559255E-1	4.509440E-1	5.168481E-1	4.757638E-1	5.598113E-1	4.919489E-1	4.740453E-1	4.736067E-1	5.048517E-1	4.765343E-1	4.945848E-1	5.149165E-1	5.337795E-1	4.742000E-1	4.948579E-1	5.485502E-1	5.797228E-1	4.375650E-1	4.809351E-1	5.217557E-1	4.622735E-1	4.766738E-1	4.697328E-1	4.896127E-1	4.760764E-1	4.554298E-1	5.221554E-1	5.176949E-1	5.101619E-1	4.566347E-1	4.784856E-1	5.353356E-1	5.599440E-1	4.722567E-1	4.376707E-1	4.972685E-1	4.995407E-1	4.963414E-1	4.547598E-1	4.824798E-1	4.720908E-1	4.617920E-1	4.565437E-1	5.242909E-1	4.929492E-1	4.684311E-1	5.393000E-1	5.847950E-1	5.408071E-1	4.377438E-1	5.066925E-1	4.996829E-1	5.378473E-1	4.798804E-1	4.863489E-1	5.219783E-1	4.807827E-1	4.762717E-1	5.074814E-1	4.970656E-1	5.003098E-1	4.646024E-1	4.918407E-1	5.560509E-1	5.032777E-1	4.792152E-1	4.863444E-1	5.132755E-1	4.992552E-1	4.484706E-1	4.787692E-1	4.736069E-1	4.949097E-1	4.471105E-1	4.737425E-1	4.938088E-1	4.417357E-1	4.900182E-1	4.996941E-1	5.535516E-1	4.963656E-1	4.493133E-1	4.718864E-1	5.015313E-1	4.623196E-1	4.103642E-1	4.834315E-1	4.638698E-1	4.966946E-1	4.663899E-1	4.818312E-1	5.021248E-1	4.738771E-1	4.892989E-1	4.702233E-1	5.897515E-1	4.809751E-1	4.641168E-1	5.213024E-1	5.640844E-1	5.037673E-1	4.773610E-1	5.090665E-1	5.001721E-1	5.080717E-1	4.885439E-1	4.860061E-1	4.586906E-1	4.872780E-1	4.981178E-1	5.105895E-1	5.378085E-1	4.711081E-1	4.999137E-1	4.784973E-1	4.692124E-1	4.539840E-1	4.373133E-1	4.846006E-1	4.738416E-1	4.743435E-1	4.472806E-1	4.732840E-1	5.157991E-1	4.693589E-1	4.599647E-1	4.884063E-1	5.815733E-1	4.547535E-1	4.871680E-1	4.628387E-1	4.932414E-1	4.739066E-1	4.785448E-1	4.591590E-1	5.041302E-1	4.942778E-1	4.717368E-1	5.152414E-1	5.149430E-1	4.390135E-1	3.871327E-1	5.135615E-1	5.653377E-1	4.536049E-1	4.828845E-1	5.198415E-1	5.842632E-1	5.851064E-1
5.377630E+2	4.670071E-1	5.737362E-1	6.181238E-1	8.967225E-2	5.155657E-1	6.014223E-1	6.357409E-1	4.324040E-1	4.979947E-1	5.685202E-1	5.429853E-1	5.583559E-1	5.471429E-1	5.151075E-1	5.501435E-1	5.183203E-1	5.351111E-1	5.567905E-1	6.046154E-1	5.570104E-1	5.308979E-1	6.153992E-1	6.249108E-1	5.244564E-1	5.392601E-1	5.409121E-1	6.160789E-1	5.441373E-1	5.525259E-1	5.463164E-1	5.738451E-1	5.434360E-1	5.311928E-1	5.590690E-1	5.935510E-1	5.094364E-1	5.400408E-1	6.171577E-1	6.336542E-1	4.972220E-1	5.100829E-1	6.044633E-1	5.275360E-1	5.105956E-1	5.499588E-1	5.741702E-1	5.490940E-1	4.850399E-1	5.662576E-1	6.171517E-1	5.804676E-1	5.204043E-1	5.582583E-1	6.660681E-1	6.377911E-1	5.415576E-1	5.185526E-1	5.242903E-1	5.249497E-1	5.525531E-1	5.396296E-1	5.545629E-1	5.631695E-1	5.359851E-1	5.984017E-1	5.879347E-1	5.988635E-1	4.910823E-1	6.200996E-1	6.325365E-1	6.487159E-1	5.171892E-1	5.424442E-1	5.716323E-1	6.201241E-1	5.355588E-1	5.352067E-1	5.787161E-1	5.223420E-1	5.297933E-1	5.633771E-1	6.004471E-1	6.459754E-1	5.315049E-1	5.580316E-1	6.427222E-1	6.715532E-1	5.217190E-1	5.536796E-1	5.808764E-1	6.086732E-1	5.057474E-1	5.320119E-1	5.538984E-1	5.471458E-1	5.029627E-1	5.747999E-1	5.590608E-1	6.094360E-1	5.736124E-1	5.417447E-1	6.846762E-1	6.372788E-1	5.016331E-1	5.351783E-1	5.707810E-1	5.977969E-1	5.230674E-1	5.361425E-1	5.300114E-1	5.931747E-1	5.295722E-1	5.492048E-1	5.691331E-1	5.491061E-1	5.403937E-1	5.585661E-1	6.262679E-1	5.812773E-1	5.472499E-1	6.054582E-1	5.805109E-1	6.106430E-1	5.165250E-1	5.780365E-1	5.685005E-1	5.655988E-1	5.510311E-1	5.342284E-1	5.578333E-1	5.453512E-1	5.848345E-1	5.359279E-1	6.316123E-1	5.467555E-1	5.681427E-1	5.772199E-1	5.506457E-1	5.210232E-1	4.468895E-1	5.446183E-1	5.733001E-1	5.133703E-1	5.363165E-1	5.558591E-1	5.774279E-1	5.595671E-1	5.187649E-1	5.543078E-1	6.461316E-1	5.238294E-1	5.244069E-1	5.823749E-1	5.517836E-1	5.457016E-1	5.182201E-1	5.099105E-1	5.436853E-1	5.328968E-1	5.166994E-1	5.394988E-1	5.658905E-1	5.169453E-1	4.570629E-1	5.639090E-1	6.537262E-1	5.163151E-1	5.026194E-1	5.467050E-1	6.220119E-1	6.774920E-1
5.380160E+2	6.100241E-1	7.564490E-1	7.400697E-1	9.285593E-2	6.249739E-1	7.595514E-1	7.670344E-1	5.386465E-1	6.787616E-1	6.691815E-1	6.492274E-1	6.638426E-1	6.588977E-1	6.502569E-1	6.745381E-1	6.162982E-1	6.923979E-1	6.816939E-1	7.433256E-1	6.361899E-1	6.694726E-1	7.086982E-1	7.362390E-1	6.457053E-1	6.961426E-1	7.112546E-1	7.126215E-1	7.000974E-1	6.702477E-1	6.437205E-1	6.872601E-1	6.489358E-1	6.541718E-1	7.470166E-1	7.259029E-1	6.473961E-1	6.725765E-1	7.947864E-1	8.129407E-1	5.999652E-1	6.861577E-1	7.254318E-1	6.912634E-1	6.381131E-1	6.251711E-1	6.744046E-1	6.613933E-1	6.255803E-1	7.128813E-1	7.079068E-1	7.305333E-1	6.508168E-1	6.801840E-1	8.154072E-1	7.807556E-1	6.677680E-1	6.651865E-1	7.063974E-1	7.298480E-1	6.336168E-1	6.678767E-1	6.885637E-1	6.815719E-1	6.357924E-1	7.238461E-1	7.360520E-1	6.871254E-1	6.312747E-1	7.008989E-1	7.939724E-1	7.490248E-1	6.151881E-1	7.180098E-1	7.321814E-1	7.164189E-1	6.392161E-1	6.785529E-1	7.000192E-1	7.015096E-1	6.211912E-1	6.601868E-1	6.825256E-1	7.152788E-1	6.553336E-1	6.850825E-1	8.155292E-1	8.042123E-1	6.506308E-1	6.603438E-1	6.707979E-1	7.226739E-1	6.805620E-1	6.743241E-1	6.898132E-1	6.695007E-1	6.279642E-1	6.951341E-1	7.373748E-1	7.418302E-1	6.239985E-1	7.292808E-1	7.923855E-1	7.565914E-1	6.252971E-1	6.489885E-1	6.601754E-1	7.418567E-1	6.524675E-1	6.607769E-1	6.896137E-1	6.713414E-1	6.607309E-1	6.657427E-1	7.168102E-1	6.782374E-1	6.961397E-1	6.920209E-1	7.829829E-1	7.869722E-1	6.552728E-1	7.375374E-1	7.393026E-1	7.353305E-1	6.418485E-1	7.118288E-1	6.766455E-1	7.076943E-1	6.745966E-1	6.227311E-1	6.637090E-1	7.079564E-1	7.206235E-1	6.807861E-1	7.545990E-1	7.731645E-1	7.428498E-1	6.913683E-1	6.945321E-1	7.333140E-1	5.792663E-1	6.500286E-1	6.984717E-1	6.622501E-1	6.683507E-1	6.712124E-1	7.381720E-1	7.177494E-1	6.194871E-1	7.271176E-1	7.741545E-1	7.681369E-1	6.646567E-1	6.383692E-1	6.889926E-1	7.260937E-1	6.738694E-1	6.956812E-1	6.552025E-1	6.770117E-1	5.973672E-1	7.228420E-1	7.456715E-1	6.722084E-1	5.667137E-1	6.890147E-1	7.681110E-1	7.370560E-1	6.466078E-1	7.008205E-1	6.949913E-1	9.126539E-1
5.382690E+2	7.573577E-1	9.153294E-1	8.925023E-1	1.507980E-1	7.668309E-1	8.970100E-1	9.490303E-1	6.483976E-1	7.985266E-1	8.335387E-1	8.335724E-1	8.710019E-1	8.395301E-1	7.978537E-1	8.322285E-1	8.049474E-1	7.823610E-1	8.111192E-1	9.020288E-1	8.105020E-1	8.440581E-1	9.447744E-1	9.403399E-1	8.180313E-1	8.730785E-1	8.845855E-1	9.596057E-1	8.536294E-1	8.351459E-1	8.165787E-1	8.739207E-1	8.269124E-1	8.640940E-1	8.597853E-1	9.357149E-1	7.560913E-1	8.335133E-1	9.202546E-1	9.849376E-1	7.770427E-1	8.158346E-1	8.795946E-1	8.263684E-1	8.303323E-1	8.002095E-1	8.482709E-1	8.536414E-1	7.829142E-1	8.743964E-1	8.769838E-1	9.142739E-1	8.421261E-1	8.138942E-1	9.794356E-1	9.702319E-1	7.948965E-1	8.432416E-1	9.202254E-1	8.969026E-1	7.910102E-1	8.079113E-1	8.613786E-1	8.572235E-1	8.177414E-1	8.563252E-1	8.830111E-1	8.739981E-1	7.622843E-1	8.935742E-1	9.391662E-1	9.582554E-1	7.688466E-1	8.418634E-1	8.659716E-1	9.205874E-1	8.340902E-1	7.993147E-1	8.922455E-1	8.349624E-1	7.570533E-1	8.388234E-1	8.610931E-1	9.385895E-1	7.991160E-1	8.307914E-1	9.642617E-1	9.549373E-1	7.748715E-1	8.242128E-1	8.417126E-1	9.346356E-1	7.837801E-1	8.435065E-1	8.687768E-1	8.558567E-1	7.764593E-1	8.400025E-1	9.286095E-1	9.145744E-1	8.066456E-1	8.612326E-1	9.651371E-1	9.047038E-1	7.494371E-1	8.307364E-1	8.578501E-1	8.902078E-1	7.759049E-1	8.159546E-1	8.420267E-1	8.321418E-1	8.598654E-1	7.968475E-1	8.521273E-1	9.246533E-1	8.457311E-1	8.339338E-1	9.660703E-1	9.244426E-1	8.225341E-1	8.514991E-1	8.932265E-1	9.257407E-1	7.867539E-1	9.182208E-1	8.536105E-1	8.620828E-1	8.014503E-1	7.566185E-1	7.861080E-1	8.834666E-1	8.705296E-1	8.767987E-1	9.369952E-1	9.841247E-1	8.519122E-1	8.104525E-1	8.249487E-1	8.503384E-1	7.065735E-1	8.326050E-1	8.294654E-1	7.952301E-1	8.199294E-1	8.382540E-1	8.982800E-1	8.276510E-1	7.947986E-1	8.574568E-1	9.421163E-1	9.768896E-1	8.087764E-1	7.811846E-1	8.603514E-1	9.239821E-1	7.861811E-1	8.445849E-1	8.015090E-1	8.168884E-1	7.670777E-1	8.650028E-1	9.336513E-1	9.215889E-1	7.580419E-1	8.700627E-1	9.469671E-1	9.559146E-1	8.015584E-1	9.129047E-1	9.491644E-1	1.164614E+0
5.385110E+2	8.858022E-1	1.137101E+0	1.163567E+0	1.743571E-1	9.744151E-1	1.176060E+0	1.188667E+0	8.303123E-1	1.024625E+0	1.072966E+0	1.071900E+0	1.037492E+0	1.011496E+0	1.029475E+0	1.061134E+0	9.514831E-1	1.030206E+0	1.043405E+0	1.117591E+0	9.434522E-1	1.015909E+0	1.126191E+0	1.177270E+0	1.039048E+0	1.029961E+0	1.069870E+0	1.153284E+0	1.114573E+0	1.029585E+0	1.034709E+0	1.051131E+0	1.009177E+0	1.042556E+0	1.100238E+0	1.128449E+0	9.973725E-1	1.058135E+0	1.131718E+0	1.229331E+0	1.000047E+0	9.859616E-1	1.097337E+0	1.047916E+0	1.050191E+0	9.843645E-1	1.029738E+0	1.039882E+0	9.490877E-1	1.009565E+0	1.134329E+0	1.090334E+0	1.035160E+0	1.036894E+0	1.187041E+0	1.236576E+0	9.270730E-1	1.023042E+0	1.133466E+0	1.093691E+0	1.006390E+0	9.993396E-1	1.042511E+0	1.045453E+0	9.550868E-1	1.077319E+0	1.112129E+0	1.073044E+0	9.545137E-1	1.088162E+0	1.225617E+0	1.202444E+0	9.439125E-1	1.078717E+0	1.116309E+0	1.091845E+0	9.738783E-1	9.749254E-1	1.081537E+0	1.106024E+0	9.600230E-1	1.048001E+0	1.066603E+0	1.142650E+0	9.880863E-1	1.020034E+0	1.175588E+0	1.221802E+0	9.747777E-1	1.057801E+0	1.080866E+0	1.091602E+0	9.723167E-1	9.977607E-1	1.064668E+0	1.051155E+0	9.847971E-1	1.042701E+0	1.094648E+0	1.103710E+0	9.675359E-1	1.090336E+0	1.175353E+0	1.174701E+0	9.729842E-1	1.015968E+0	1.103999E+0	1.105991E+0	9.685149E-1	9.972413E-1	1.002588E+0	1.034929E+0	1.011503E+0	1.039635E+0	1.068764E+0	1.056154E+0	9.762385E-1	1.053851E+0	1.210018E+0	1.141340E+0	1.025139E+0	1.101630E+0	1.170047E+0	1.082367E+0	1.004765E+0	1.120464E+0	1.065477E+0	1.105466E+0	1.022740E+0	9.568837E-1	9.770502E-1	1.142215E+0	1.115219E+0	1.075680E+0	1.191829E+0	1.214264E+0	1.091231E+0	1.027026E+0	1.081495E+0	1.043223E+0	8.626094E-1	1.041407E+0	1.054096E+0	9.951820E-1	1.017546E+0	1.056983E+0	1.107311E+0	1.062066E+0	9.907988E-1	1.023432E+0	1.212387E+0	1.198849E+0	9.712732E-1	9.919467E-1	1.045127E+0	1.092911E+0	1.029116E+0	1.013118E+0	1.034075E+0	1.053313E+0	9.839550E-1	1.036499E+0	1.136271E+0	1.071457E+0	9.874127E-1	1.096372E+0	1.237088E+0	1.161605E+0	9.864786E-1	1.127816E+0	1.153007E+0	1.458566E+0
5.387650E+2	1.102216E+0	1.362844E+0	1.370344E+0	1.960056E-1	1.144562E+0	1.368812E+0	1.369063E+0	9.851664E-1	1.158380E+0	1.236754E+0	1.233849E+0	1.216691E+0	1.204901E+0	1.219749E+0	1.216512E+0	1.175800E+0	1.193451E+0	1.232739E+0	1.331904E+0	1.156762E+0	1.206449E+0	1.355199E+0	1.402778E+0	1.143590E+0	1.227539E+0	1.302971E+0	1.367101E+0	1.246258E+0	1.184783E+0	1.205283E+0	1.265672E+0	1.211170E+0	1.234746E+0	1.275656E+0	1.337041E+0	1.129360E+0	1.239297E+0	1.361036E+0	1.332821E+0	1.163868E+0	1.172149E+0	1.334771E+0	1.247710E+0	1.197810E+0	1.187665E+0	1.266784E+0	1.227508E+0	1.128520E+0	1.209454E+0	1.236895E+0	1.355015E+0	1.197170E+0	1.221370E+0	1.409337E+0	1.416751E+0	1.169397E+0	1.215063E+0	1.310873E+0	1.263449E+0	1.169109E+0	1.204440E+0	1.219946E+0	1.250599E+0	1.127761E+0	1.218004E+0	1.294382E+0	1.283048E+0	1.122867E+0	1.247850E+0	1.371303E+0	1.396980E+0	1.130395E+0	1.278543E+0	1.325020E+0	1.289310E+0	1.190669E+0	1.201238E+0	1.250284E+0	1.234857E+0	1.132115E+0	1.251993E+0	1.329129E+0	1.313982E+0	1.248655E+0	1.261698E+0	1.406714E+0	1.415887E+0	1.147593E+0	1.222862E+0	1.298336E+0	1.297835E+0	1.154886E+0	1.235112E+0	1.250887E+0	1.267157E+0	1.147034E+0	1.231965E+0	1.290406E+0	1.277714E+0	1.176521E+0	1.255640E+0	1.392333E+0	1.439553E+0	1.101880E+0	1.194232E+0	1.283418E+0	1.303997E+0	1.213003E+0	1.195772E+0	1.166982E+0	1.159103E+0	1.187542E+0	1.231436E+0	1.285401E+0	1.248075E+0	1.145528E+0	1.236646E+0	1.383979E+0	1.350598E+0	1.140132E+0	1.292151E+0	1.360475E+0	1.288747E+0	1.168599E+0	1.249589E+0	1.247849E+0	1.285420E+0	1.190940E+0	1.144100E+0	1.219401E+0	1.265459E+0	1.296720E+0	1.256874E+0	1.377872E+0	1.399651E+0	1.268004E+0	1.215832E+0	1.213136E+0	1.270215E+0	1.032165E+0	1.158921E+0	1.192368E+0	1.156588E+0	1.134813E+0	1.220243E+0	1.303634E+0	1.257094E+0	1.149776E+0	1.240175E+0	1.426851E+0	1.363413E+0	1.120711E+0	1.196417E+0	1.180506E+0	1.300452E+0	1.173778E+0	1.130421E+0	1.176568E+0	1.154570E+0	1.126337E+0	1.237895E+0	1.282672E+0	1.219527E+0	1.144056E+0	1.244361E+0	1.382148E+0	1.408056E+0	1.186014E+0	1.253653E+0	1.306517E+0	1.576148E+0
5.390340E+2	1.243614E+0	1.504512E+0	1.481686E+0	2.443967E-1	1.331348E+0	1.544510E+0	1.590022E+0	1.255282E+0	1.357055E+0	1.391444E+0	1.450929E+0	1.456260E+0	1.409709E+0	1.359788E+0	1.388075E+0	1.365309E+0	1.365035E+0	1.428854E+0	1.489984E+0	1.347621E+0	1.415222E+0	1.501742E+0	1.595938E+0	1.430004E+0	1.384422E+0	1.452993E+0	1.599277E+0	1.386440E+0	1.374372E+0	1.352987E+0	1.419729E+0	1.407159E+0	1.379460E+0	1.441526E+0	1.479152E+0	1.255973E+0	1.361934E+0	1.531147E+0	1.601992E+0	1.363196E+0	1.311938E+0	1.450116E+0	1.346746E+0	1.365531E+0	1.330795E+0	1.390771E+0	1.378167E+0	1.277456E+0	1.377846E+0	1.430837E+0	1.529303E+0	1.362052E+0	1.364144E+0	1.547904E+0	1.611615E+0	1.292393E+0	1.362862E+0	1.374904E+0	1.432124E+0	1.327094E+0	1.390212E+0	1.367347E+0	1.335170E+0	1.270848E+0	1.418480E+0	1.406625E+0	1.414529E+0	1.269794E+0	1.416621E+0	1.560792E+0	1.515530E+0	1.228392E+0	1.394734E+0	1.482002E+0	1.487992E+0	1.259971E+0	1.323842E+0	1.398000E+0	1.381239E+0	1.292267E+0	1.377038E+0	1.423111E+0	1.472480E+0	1.351945E+0	1.328775E+0	1.573634E+0	1.581064E+0	1.321347E+0	1.353363E+0	1.460961E+0	1.521254E+0	1.261087E+0	1.411760E+0	1.349074E+0	1.408337E+0	1.268930E+0	1.376248E+0	1.468720E+0	1.441001E+0	1.337414E+0	1.405475E+0	1.540629E+0	1.593840E+0	1.220313E+0	1.290040E+0	1.455284E+0	1.486678E+0	1.295295E+0	1.363755E+0	1.314125E+0	1.364570E+0	1.329161E+0	1.312164E+0	1.407058E+0	1.528847E+0	1.304968E+0	1.339557E+0	1.488960E+0	1.549676E+0	1.319837E+0	1.467478E+0	1.473637E+0	1.520309E+0	1.294575E+0	1.456498E+0	1.356977E+0	1.429976E+0	1.351618E+0	1.225227E+0	1.287332E+0	1.485493E+0	1.460070E+0	1.395992E+0	1.546201E+0	1.589305E+0	1.371379E+0	1.353428E+0	1.315999E+0	1.419581E+0	1.192707E+0	1.308211E+0	1.364601E+0	1.262585E+0	1.288998E+0	1.314794E+0	1.404655E+0	1.421629E+0	1.304942E+0	1.384184E+0	1.580042E+0	1.574703E+0	1.296265E+0	1.351186E+0	1.403698E+0	1.339065E+0	1.308674E+0	1.293210E+0	1.343844E+0	1.377334E+0	1.276211E+0	1.418984E+0	1.467723E+0	1.444928E+0	1.291189E+0	1.344549E+0	1.576082E+0	1.595558E+0	1.298574E+0	1.448770E+0	1.467579E+0	1.609743E+0
5.392780E+2	1.428187E+0	1.767991E+0	1.801793E+0	3.258975E-1	1.494836E+0	1.763619E+0	1.852608E+0	1.573508E+0	1.525510E+0	1.641675E+0	1.642162E+0	1.657699E+0	1.608130E+0	1.605635E+0	1.564262E+0	1.539346E+0	1.565218E+0	1.645881E+0	1.689302E+0	1.556202E+0	1.627645E+0	1.787296E+0	1.781958E+0	1.834326E+0	1.569026E+0	1.558785E+0	1.758010E+0	1.712315E+0	1.562196E+0	1.603128E+0	1.674437E+0	1.602717E+0	1.636860E+0	1.682578E+0	1.716408E+0	1.599381E+0	1.514264E+0	1.729920E+0	1.764759E+0	1.801158E+0	1.499908E+0	1.606526E+0	1.541962E+0	1.773210E+0	1.571930E+0	1.561789E+0	1.564407E+0	1.482520E+0	1.630995E+0	1.632858E+0	1.659872E+0	1.567724E+0	1.555869E+0	1.779501E+0	1.832915E+0	1.669651E+0	1.524041E+0	1.676263E+0	1.620802E+0	1.641288E+0	1.523172E+0	1.584059E+0	1.601898E+0	1.469137E+0	1.636543E+0	1.669301E+0	1.639138E+0	1.490185E+0	1.637023E+0	1.797535E+0	1.761236E+0	1.528099E+0	1.609884E+0	1.690121E+0	1.689723E+0	1.482093E+0	1.564444E+0	1.615173E+0	1.658305E+0	1.492767E+0	1.554519E+0	1.697543E+0	1.691941E+0	1.529178E+0	1.527349E+0	1.802620E+0	1.847936E+0	1.536663E+0	1.540474E+0	1.630600E+0	1.667335E+0	1.459171E+0	1.584923E+0	1.544480E+0	1.551867E+0	1.456433E+0	1.595305E+0	1.632819E+0	1.667333E+0	1.522349E+0	1.557730E+0	1.756570E+0	1.813953E+0	1.470021E+0	1.539728E+0	1.643515E+0	1.692039E+0	1.534418E+0	1.521889E+0	1.567667E+0	1.565121E+0	1.565334E+0	1.514283E+0	1.631501E+0	1.649095E+0	1.458867E+0	1.568405E+0	1.796303E+0	1.747223E+0	1.579688E+0	1.669686E+0	1.642160E+0	1.724847E+0	1.594829E+0	1.659780E+0	1.622919E+0	1.601082E+0	1.588882E+0	1.448187E+0	1.549266E+0	1.699071E+0	1.641571E+0	1.559975E+0	1.840116E+0	1.783219E+0	1.610184E+0	1.581725E+0	1.582339E+0	1.631876E+0	1.335786E+0	1.523572E+0	1.549447E+0	1.466395E+0	1.494433E+0	1.589625E+0	1.654345E+0	1.624919E+0	1.470456E+0	1.563827E+0	1.796149E+0	1.787013E+0	1.477140E+0	1.519797E+0	1.634211E+0	1.629263E+0	1.487518E+0	1.470363E+0	1.528755E+0	1.569489E+0	1.452975E+0	1.584270E+0	1.694937E+0	1.612181E+0	1.422098E+0	1.576454E+0	1.771057E+0	1.819437E+0	1.496650E+0	1.618437E+0	1.870227E+0	1.836508E+0
5.395160E+2	1.686158E+0	2.079796E+0	2.042372E+0	4.080354E-1	1.725715E+0	2.078325E+0	2.141347E+0	1.750414E+0	1.793580E+0	1.873140E+0	1.793201E+0	1.962722E+0	1.830725E+0	1.799916E+0	1.906926E+0	1.770110E+0	1.844640E+0	1.919423E+0	1.979837E+0	1.863465E+0	1.838238E+0	2.043634E+0	2.115464E+0	2.116444E+0	1.789015E+0	1.868981E+0	2.008548E+0	1.914395E+0	1.790586E+0	1.796564E+0	1.878583E+0	1.781983E+0	1.853647E+0	1.911100E+0	1.961595E+0	1.817962E+0	1.801710E+0	2.013753E+0	2.098065E+0	2.084769E+0	1.791983E+0	1.905287E+0	1.821906E+0	1.990556E+0	1.766571E+0	1.833989E+0	1.788081E+0	1.748575E+0	1.876703E+0	1.976604E+0	1.890287E+0	1.821079E+0	1.804711E+0	2.080140E+0	2.143815E+0	2.105189E+0	1.791705E+0	1.881865E+0	1.981941E+0	1.927081E+0	1.832474E+0	1.827110E+0	1.765839E+0	1.689067E+0	1.848744E+0	1.977105E+0	1.920363E+0	1.853220E+0	1.862211E+0	2.129759E+0	2.092558E+0	2.004297E+0	1.830137E+0	1.883375E+0	1.965810E+0	1.941736E+0	1.761258E+0	1.889083E+0	1.844859E+0	1.769019E+0	1.832850E+0	1.955056E+0	2.058993E+0	1.879535E+0	1.793002E+0	2.069051E+0	2.044596E+0	1.940681E+0	1.815178E+0	1.906102E+0	1.964081E+0	1.798657E+0	1.827251E+0	1.838565E+0	1.836108E+0	1.713974E+0	1.816112E+0	1.949390E+0	1.928337E+0	1.749657E+0	1.817764E+0	2.129131E+0	2.114292E+0	1.676443E+0	1.814384E+0	1.890920E+0	1.978318E+0	1.775327E+0	1.757857E+0	1.724393E+0	1.771486E+0	1.747473E+0	1.754646E+0	1.935962E+0	1.887220E+0	1.714958E+0	1.739921E+0	2.073216E+0	2.098536E+0	1.753920E+0	1.899362E+0	1.897688E+0	1.952112E+0	1.733863E+0	1.888990E+0	1.817582E+0	1.814964E+0	1.802658E+0	1.662065E+0	1.734703E+0	1.903621E+0	1.856010E+0	1.794713E+0	2.020429E+0	2.042655E+0	1.866558E+0	1.823592E+0	1.837050E+0	1.880624E+0	1.503653E+0	1.721276E+0	1.795424E+0	1.719341E+0	1.677282E+0	1.803942E+0	1.949149E+0	1.869495E+0	1.660466E+0	1.782038E+0	2.064232E+0	2.088207E+0	1.713631E+0	1.763276E+0	1.741539E+0	1.942385E+0	1.762802E+0	1.679593E+0	1.785147E+0	1.739509E+0	1.598879E+0	1.755767E+0	1.954949E+0	1.841777E+0	1.672728E+0	1.831752E+0	2.012826E+0	2.004432E+0	1.593129E+0	1.896974E+0	1.923076E+0	2.046472E+0
5.397910E+2	1.712598E+0	2.160557E+0	2.217337E+0	6.041466E-1	1.821399E+0	2.219401E+0	2.274773E+0	1.925813E+0	1.934053E+0	1.999393E+0	1.961465E+0	1.996397E+0	1.978061E+0	1.955512E+0	1.925888E+0	1.946730E+0	1.965584E+0	2.022854E+0	2.105429E+0	1.908964E+0	1.913908E+0	2.196306E+0	2.215376E+0	2.200936E+0	1.837378E+0	1.998685E+0	2.058299E+0	2.058216E+0	1.870387E+0	1.904944E+0	1.959862E+0	1.868182E+0	1.948598E+0	2.072795E+0	2.105535E+0	1.978019E+0	1.902405E+0	2.092700E+0	2.185033E+0	2.256161E+0	1.840162E+0	2.066203E+0	1.919795E+0	2.142573E+0	1.875511E+0	1.992179E+0	1.900380E+0	1.819727E+0	1.878993E+0	2.056791E+0	2.010221E+0	1.986537E+0	1.895812E+0	2.200589E+0	2.195709E+0	2.183670E+0	1.899932E+0	1.981141E+0	2.019787E+0	2.082702E+0	1.876800E+0	1.950483E+0	1.833500E+0	1.812722E+0	1.984742E+0	1.977107E+0	2.012882E+0	2.001370E+0	1.999428E+0	2.168145E+0	2.187796E+0	2.186023E+0	1.963567E+0	2.126579E+0	2.077338E+0	2.060792E+0	1.880177E+0	2.071036E+0	1.958455E+0	1.867006E+0	1.904879E+0	2.021470E+0	2.075677E+0	1.990453E+0	1.916942E+0	2.178730E+0	2.230423E+0	2.220924E+0	1.858677E+0	2.011331E+0	2.015068E+0	2.018218E+0	1.899901E+0	1.937714E+0	1.916578E+0	1.849169E+0	1.924761E+0	2.082482E+0	2.038035E+0	2.009027E+0	1.982101E+0	2.158790E+0	2.113261E+0	2.203444E+0	1.872446E+0	1.960173E+0	2.049429E+0	2.069310E+0	1.880523E+0	1.897417E+0	1.913080E+0	1.864251E+0	1.805022E+0	2.046559E+0	1.929271E+0	1.909488E+0	1.928353E+0	2.208123E+0	2.165238E+0	2.033685E+0	1.981182E+0	2.026061E+0	2.092769E+0	1.937508E+0	2.037302E+0	1.882465E+0	2.018029E+0	1.890045E+0	1.711990E+0	1.800796E+0	2.061062E+0	2.018018E+0	1.954869E+0	2.189796E+0	2.229639E+0	2.000434E+0	1.894551E+0	1.940527E+0	1.961189E+0	1.611808E+0	1.841312E+0	1.873535E+0	1.761263E+0	1.798461E+0	1.859408E+0	1.954236E+0	2.008619E+0	1.802567E+0	1.943616E+0	2.157783E+0	2.132395E+0	1.844208E+0	1.909235E+0	1.865331E+0	1.936351E+0	1.809195E+0	1.816528E+0	1.840906E+0	1.893514E+0	1.723630E+0	1.991009E+0	1.981299E+0	1.939493E+0	1.688392E+0	1.867861E+0	2.142287E+0	2.158071E+0	1.791205E+0	1.922424E+0	2.232613E+0	2.231240E+0
5.400350E+2	1.742280E+0	2.227420E+0	2.252461E+0	6.665464E-1	1.859253E+0	2.204414E+0	2.222469E+0	1.960893E+0	1.901036E+0	2.123939E+0	2.007980E+0	2.120951E+0	1.999957E+0	1.949732E+0	2.024849E+0	1.892152E+0	1.926264E+0	2.082196E+0	2.236640E+0	2.007053E+0	1.952655E+0	2.157666E+0	2.255341E+0	2.223851E+0	1.906976E+0	1.980158E+0	2.129965E+0	2.068535E+0	1.885821E+0	1.918662E+0	2.030271E+0	1.883192E+0	2.046979E+0	2.060262E+0	2.095777E+0	1.995936E+0	1.938555E+0	2.127943E+0	2.240424E+0	2.226807E+0	1.921065E+0	2.088149E+0	1.917508E+0	2.114931E+0	1.950268E+0	1.986001E+0	1.923022E+0	1.869227E+0	2.010728E+0	2.073578E+0	2.099433E+0	2.078460E+0	1.925272E+0	2.269626E+0	2.271109E+0	2.258481E+0	1.945324E+0	2.012277E+0	2.040331E+0	2.118796E+0	1.896599E+0	1.975434E+0	1.949735E+0	1.855117E+0	1.976532E+0	2.100343E+0	2.050629E+0	1.965857E+0	1.991776E+0	2.245911E+0	2.248084E+0	2.270226E+0	1.986548E+0	2.076628E+0	2.130361E+0	2.123578E+0	1.891699E+0	2.071037E+0	2.031879E+0	1.875652E+0	1.895662E+0	2.043398E+0	2.104556E+0	2.032711E+0	1.886735E+0	2.176054E+0	2.243331E+0	2.216253E+0	1.962360E+0	2.061707E+0	2.104436E+0	2.058788E+0	1.931748E+0	1.900472E+0	1.960816E+0	1.905468E+0	2.005957E+0	2.131582E+0	2.142695E+0	2.025633E+0	1.991284E+0	2.256611E+0	2.285028E+0	2.199163E+0	1.859672E+0	1.993535E+0	2.067206E+0	2.091377E+0	1.895792E+0	1.886392E+0	1.926927E+0	1.921771E+0	1.859650E+0	1.959384E+0	2.027604E+0	2.022145E+0	1.943860E+0	2.191388E+0	2.135193E+0	2.268645E+0	2.039041E+0	2.108805E+0	2.140066E+0	2.069362E+0	1.952256E+0	1.934080E+0	2.045563E+0	1.980722E+0	1.785175E+0	1.828948E+0	2.052029E+0	2.026756E+0	1.954395E+0	2.093385E+0	2.220583E+0	2.242853E+0	1.935277E+0	1.928280E+0	1.950602E+0	1.719962E+0	1.854425E+0	1.919141E+0	1.754999E+0	1.836681E+0	1.981699E+0	2.046996E+0	1.995916E+0	2.002924E+0	1.917742E+0	2.179121E+0	2.199951E+0	2.152763E+0	1.970893E+0	1.868993E+0	2.039518E+0	2.109502E+0	1.840948E+0	1.869975E+0	1.917536E+0	1.803855E+0	2.003421E+0	2.061529E+0	1.967666E+0	1.837204E+0	1.938038E+0	2.177643E+0	2.213882E+0	1.981240E+0	1.935149E+0	2.149567E+0	2.105265E+0
5.402740E+2	1.744979E+0	2.115541E+0	2.208722E+0	7.926189E-1	1.730707E+0	2.185292E+0	2.226203E+0	1.916793E+0	1.885368E+0	1.952190E+0	1.916670E+0	2.016095E+0	1.909636E+0	1.933728E+0	1.923112E+0	1.864221E+0	1.897665E+0	2.009286E+0	2.077934E+0	1.882963E+0	1.868779E+0	2.155308E+0	2.188257E+0	2.229574E+0	1.902253E+0	1.909032E+0	2.073703E+0	2.070957E+0	1.877446E+0	1.802511E+0	1.942379E+0	1.854461E+0	1.877669E+0	1.957043E+0	2.053082E+0	1.948758E+0	1.864967E+0	2.095520E+0	2.154909E+0	2.156734E+0	1.857416E+0	1.988561E+0	1.934109E+0	2.114306E+0	1.889188E+0	1.909045E+0	1.925798E+0	1.803377E+0	1.943719E+0	2.134495E+0	2.073440E+0	2.023304E+0	1.921195E+0	2.167782E+0	2.183959E+0	2.121255E+0	1.831275E+0	1.980552E+0	1.977076E+0	2.031221E+0	1.848977E+0	1.903812E+0	1.891184E+0	1.786226E+0	1.905602E+0	1.992149E+0	2.003142E+0	1.907700E+0	1.938230E+0	2.170116E+0	2.158416E+0	2.067568E+0	1.894618E+0	1.960676E+0	2.051133E+0	1.945290E+0	1.917973E+0	2.002559E+0	1.956612E+0	1.815952E+0	1.890475E+0	1.999542E+0	2.063486E+0	1.953484E+0	1.860970E+0	2.177659E+0	2.175707E+0	2.163942E+0	1.844971E+0	2.024723E+0	2.003611E+0	2.021200E+0	1.865068E+0	1.871452E+0	1.949049E+0	1.736138E+0	1.901400E+0	2.061806E+0	2.044974E+0	2.071437E+0	1.905732E+0	2.114036E+0	2.165204E+0	2.148746E+0	1.824256E+0	1.963321E+0	2.056786E+0	2.046649E+0	1.798253E+0	1.912754E+0	1.853225E+0	1.891268E+0	1.840833E+0	1.982155E+0	1.972516E+0	1.948882E+0	1.828262E+0	2.178203E+0	2.140289E+0	2.136729E+0	2.012155E+0	1.953659E+0	1.990804E+0	2.039341E+0	1.971964E+0	1.850022E+0	1.877407E+0	1.894743E+0	1.731846E+0	1.837516E+0	2.026861E+0	1.985075E+0	1.903238E+0	2.071500E+0	2.134281E+0	2.153428E+0	1.821743E+0	1.902566E+0	1.891212E+0	1.643913E+0	1.829714E+0	1.933696E+0	1.787763E+0	1.748078E+0	1.851217E+0	1.984095E+0	1.961609E+0	1.934322E+0	1.876250E+0	2.118940E+0	2.121221E+0	2.171620E+0	1.874635E+0	1.835452E+0	1.999699E+0	2.005739E+0	1.801207E+0	1.786100E+0	1.827108E+0	1.756251E+0	1.869155E+0	2.021121E+0	1.913713E+0	1.900978E+0	1.850570E+0	2.141246E+0	2.101002E+0	2.111341E+0	2.034122E+0	2.114336E+0	2.189251E+0
5.405080E+2	1.593867E+0	1.988438E+0	1.986700E+0	8.244545E-1	1.562643E+0	1.987895E+0	2.074098E+0	1.807546E+0	1.662627E+0	1.819113E+0	1.770805E+0	1.871849E+0	1.760937E+0	1.759902E+0	1.765421E+0	1.654944E+0	1.769573E+0	1.805827E+0	1.877996E+0	1.693880E+0	1.726557E+0	1.878238E+0	1.938961E+0	1.993283E+0	1.737702E+0	1.739283E+0	1.904306E+0	1.884051E+0	1.722244E+0	1.647028E+0	1.715076E+0	1.651608E+0	1.740389E+0	1.804294E+0	1.913413E+0	1.759435E+0	1.703170E+0	1.897214E+0	2.079602E+0	1.937044E+0	1.699183E+0	1.879409E+0	1.733168E+0	1.916433E+0	1.702296E+0	1.756083E+0	1.689186E+0	1.631460E+0	1.816570E+0	1.867825E+0	1.854838E+0	1.803268E+0	1.696833E+0	1.958709E+0	2.009169E+0	1.994126E+0	1.704427E+0	1.799625E+0	1.826240E+0	1.892762E+0	1.684896E+0	1.686641E+0	1.697315E+0	1.568061E+0	1.786610E+0	1.863706E+0	1.829663E+0	1.745471E+0	1.758459E+0	1.942235E+0	1.970464E+0	1.884891E+0	1.763104E+0	1.860182E+0	1.866465E+0	1.846375E+0	1.693502E+0	1.776584E+0	1.797759E+0	1.675975E+0	1.706650E+0	1.805939E+0	1.867124E+0	1.815567E+0	1.703267E+0	1.943860E+0	1.943941E+0	2.042504E+0	1.698383E+0	1.839779E+0	1.838048E+0	1.827892E+0	1.665034E+0	1.738438E+0	1.745756E+0	1.657236E+0	1.778723E+0	1.835682E+0	1.777032E+0	1.794890E+0	1.733663E+0	2.039111E+0	1.964119E+0	1.992738E+0	1.657601E+0	1.828595E+0	1.830581E+0	1.850461E+0	1.695293E+0	1.668795E+0	1.696444E+0	1.701284E+0	1.699409E+0	1.830573E+0	1.707140E+0	1.827613E+0	1.695277E+0	1.978379E+0	1.894369E+0	1.973450E+0	1.839167E+0	1.879437E+0	1.853222E+0	1.793910E+0	1.759867E+0	1.692228E+0	1.748095E+0	1.705402E+0	1.630297E+0	1.738371E+0	1.837160E+0	1.873488E+0	1.752643E+0	1.895359E+0	1.969137E+0	1.931168E+0	1.696490E+0	1.731124E+0	1.780064E+0	1.567306E+0	1.641588E+0	1.693539E+0	1.626356E+0	1.625165E+0	1.679134E+0	1.797938E+0	1.821852E+0	1.774253E+0	1.706371E+0	1.937847E+0	1.960723E+0	1.954957E+0	1.645623E+0	1.690922E+0	1.860936E+0	1.840323E+0	1.695875E+0	1.716523E+0	1.649554E+0	1.605936E+0	1.723051E+0	1.892876E+0	1.793221E+0	1.751608E+0	1.754449E+0	1.946791E+0	1.940467E+0	1.946887E+0	1.847488E+0	1.910496E+0	1.970886E+0
5.407630E+2	1.444916E+0	1.844784E+0	1.826978E+0	7.435901E-1	1.519794E+0	1.783773E+0	1.839265E+0	1.678750E+0	1.533347E+0	1.645654E+0	1.608857E+0	1.682482E+0	1.606303E+0	1.587854E+0	1.589237E+0	1.576306E+0	1.531257E+0	1.706354E+0	1.703668E+0	1.571566E+0	1.590719E+0	1.722742E+0	1.809078E+0	1.862014E+0	1.571974E+0	1.640668E+0	1.738462E+0	1.646168E+0	1.535301E+0	1.510755E+0	1.667821E+0	1.504509E+0	1.599680E+0	1.723745E+0	1.717629E+0	1.580867E+0	1.572357E+0	1.771275E+0	1.820631E+0	1.771804E+0	1.539768E+0	1.715677E+0	1.580890E+0	1.811527E+0	1.512217E+0	1.613092E+0	1.601839E+0	1.504177E+0	1.631569E+0	1.764017E+0	1.659875E+0	1.621725E+0	1.627032E+0	1.814266E+0	1.825079E+0	1.831199E+0	1.572917E+0	1.634552E+0	1.657028E+0	1.682115E+0	1.544390E+0	1.622408E+0	1.602770E+0	1.512859E+0	1.629512E+0	1.701128E+0	1.625750E+0	1.631601E+0	1.664754E+0	1.833956E+0	1.792137E+0	1.776424E+0	1.514758E+0	1.722233E+0	1.717762E+0	1.693554E+0	1.546467E+0	1.620063E+0	1.603817E+0	1.505118E+0	1.538387E+0	1.711327E+0	1.759961E+0	1.634814E+0	1.525573E+0	1.800479E+0	1.766374E+0	1.825783E+0	1.522592E+0	1.686083E+0	1.741234E+0	1.678730E+0	1.542128E+0	1.534326E+0	1.616812E+0	1.504751E+0	1.526957E+0	1.711639E+0	1.680573E+0	1.635718E+0	1.594462E+0	1.854913E+0	1.774353E+0	1.814377E+0	1.489791E+0	1.584339E+0	1.665679E+0	1.730604E+0	1.536178E+0	1.554246E+0	1.535643E+0	1.613265E+0	1.556772E+0	1.721278E+0	1.618291E+0	1.611538E+0	1.588140E+0	1.812534E+0	1.763517E+0	1.774826E+0	1.639296E+0	1.730987E+0	1.752488E+0	1.650314E+0	1.636965E+0	1.624885E+0	1.613864E+0	1.641035E+0	1.462369E+0	1.499695E+0	1.741016E+0	1.749126E+0	1.626428E+0	1.709834E+0	1.759778E+0	1.784373E+0	1.525574E+0	1.580503E+0	1.615994E+0	1.357754E+0	1.551815E+0	1.551388E+0	1.486149E+0	1.494433E+0	1.545499E+0	1.646088E+0	1.679547E+0	1.686599E+0	1.602882E+0	1.797791E+0	1.804791E+0	1.793430E+0	1.496520E+0	1.556765E+0	1.623229E+0	1.651100E+0	1.500528E+0	1.539715E+0	1.591158E+0	1.487355E+0	1.591604E+0	1.728317E+0	1.656543E+0	1.580979E+0	1.584591E+0	1.797052E+0	1.778675E+0	1.779510E+0	1.598642E+0	1.616055E+0	1.727323E+0
5.410340E+2	1.506441E+0	1.831544E+0	1.829630E+0	7.868878E-1	1.556403E+0	1.944485E+0	1.895838E+0	1.764947E+0	1.596588E+0	1.687743E+0	1.701316E+0	1.784158E+0	1.721709E+0	1.642534E+0	1.672936E+0	1.660101E+0	1.687950E+0	1.674703E+0	1.783646E+0	1.673789E+0	1.648153E+0	1.813212E+0	1.893764E+0	1.928842E+0	1.617975E+0	1.700437E+0	1.795919E+0	1.720203E+0	1.645966E+0	1.672179E+0	1.716022E+0	1.667476E+0	1.648871E+0	1.737471E+0	1.874378E+0	1.687171E+0	1.667024E+0	1.769395E+0	1.946959E+0	1.930888E+0	1.641484E+0	1.787696E+0	1.630697E+0	1.811527E+0	1.674033E+0	1.688151E+0	1.636963E+0	1.533788E+0	1.688843E+0	1.799449E+0	1.725453E+0	1.761330E+0	1.664200E+0	1.909254E+0	1.903417E+0	1.841758E+0	1.632269E+0	1.724433E+0	1.765153E+0	1.737143E+0	1.552879E+0	1.652906E+0	1.628791E+0	1.547747E+0	1.702783E+0	1.769975E+0	1.754182E+0	1.658539E+0	1.738859E+0	1.910733E+0	1.920817E+0	1.826854E+0	1.652016E+0	1.716881E+0	1.801258E+0	1.832153E+0	1.619757E+0	1.721804E+0	1.671233E+0	1.582107E+0	1.644417E+0	1.762703E+0	1.772153E+0	1.748665E+0	1.622860E+0	1.885544E+0	1.899548E+0	1.918729E+0	1.595889E+0	1.791310E+0	1.721187E+0	1.782547E+0	1.638661E+0	1.612682E+0	1.648341E+0	1.551294E+0	1.646125E+0	1.778187E+0	1.828099E+0	1.738780E+0	1.669378E+0	1.835142E+0	1.876178E+0	1.881914E+0	1.603020E+0	1.666178E+0	1.745370E+0	1.763402E+0	1.577065E+0	1.566706E+0	1.637038E+0	1.680805E+0	1.570123E+0	1.638657E+0	1.700627E+0	1.648471E+0	1.621970E+0	1.861729E+0	1.835306E+0	1.934623E+0	1.691894E+0	1.732204E+0	1.794867E+0	1.758012E+0	1.695566E+0	1.674040E+0	1.702862E+0	1.584184E+0	1.511158E+0	1.545595E+0	1.747465E+0	1.691989E+0	1.635512E+0	1.855752E+0	1.840219E+0	1.909978E+0	1.675510E+0	1.577443E+0	1.756539E+0	1.439437E+0	1.575520E+0	1.582925E+0	1.571911E+0	1.579558E+0	1.622403E+0	1.749652E+0	1.718302E+0	1.700755E+0	1.612643E+0	1.906662E+0	1.846947E+0	1.924494E+0	1.646882E+0	1.660432E+0	1.726397E+0	1.745105E+0	1.546491E+0	1.603100E+0	1.611876E+0	1.521738E+0	1.694280E+0	1.735345E+0	1.709895E+0	1.621815E+0	1.601371E+0	1.882321E+0	1.855811E+0	1.848216E+0	1.632576E+0	1.792217E+0	1.870100E+0
5.412640E+2	1.453010E+0	1.811684E+0	1.880663E+0	7.416800E-1	1.550579E+0	1.793587E+0	1.931060E+0	1.641164E+0	1.734820E+0	1.678071E+0	1.616321E+0	1.740307E+0	1.856725E+0	1.624754E+0	1.598021E+0	1.584469E+0	1.751698E+0	1.740268E+0	1.771154E+0	1.620018E+0	1.640405E+0	1.825463E+0	1.852370E+0	1.845304E+0	1.658672E+0	1.654414E+0	1.800063E+0	1.701999E+0	1.743407E+0	1.567917E+0	1.613006E+0	1.599285E+0	1.640864E+0	1.686158E+0	1.771302E+0	1.592214E+0	1.626579E+0	1.719584E+0	1.831808E+0	1.819151E+0	1.595680E+0	1.753376E+0	1.632414E+0	1.763160E+0	1.603383E+0	1.613569E+0	1.623561E+0	1.483407E+0	1.655050E+0	1.719263E+0	1.708910E+0	1.702160E+0	1.562668E+0	1.812308E+0	1.851518E+0	1.827067E+0	1.530444E+0	1.740881E+0	1.628916E+0	1.847204E+0	1.588239E+0	1.686637E+0	1.586721E+0	1.538473E+0	1.597270E+0	1.663518E+0	1.692707E+0	1.626095E+0	1.709215E+0	1.844781E+0	1.840774E+0	1.819715E+0	1.634144E+0	1.725205E+0	1.790895E+0	1.697106E+0	1.587028E+0	1.696855E+0	1.667076E+0	1.509236E+0	1.623095E+0	1.643657E+0	1.748412E+0	1.740450E+0	1.562886E+0	1.893573E+0	1.863936E+0	1.855675E+0	1.582181E+0	1.737738E+0	1.733785E+0	1.727657E+0	1.567507E+0	1.591883E+0	1.620576E+0	1.537554E+0	1.613995E+0	1.719393E+0	1.747400E+0	1.749084E+0	1.642794E+0	1.840345E+0	1.747094E+0	1.814855E+0	1.550760E+0	1.668695E+0	1.725754E+0	1.744320E+0	1.602680E+0	1.533637E+0	1.609346E+0	1.615879E+0	1.622929E+0	1.687452E+0	1.720173E+0	1.652784E+0	1.551015E+0	1.737472E+0	1.817995E+0	1.853979E+0	1.704751E+0	1.717600E+0	1.775214E+0	1.743655E+0	1.673783E+0	1.633239E+0	1.717120E+0	1.632578E+0	1.516833E+0	1.537636E+0	1.733271E+0	1.708121E+0	1.664675E+0	1.757778E+0	1.828496E+0	1.826239E+0	1.564446E+0	1.591527E+0	1.605411E+0	1.369586E+0	1.529119E+0	1.596507E+0	1.513609E+0	1.501386E+0	1.599079E+0	1.695012E+0	1.644607E+0	1.671356E+0	1.593604E+0	1.818031E+0	1.765684E+0	1.882897E+0	1.570759E+0	1.597625E+0	1.658823E+0	1.729233E+0	1.496697E+0	1.562589E+0	1.577966E+0	1.498817E+0	1.654786E+0	1.701967E+0	1.639755E+0	1.583217E+0	1.575946E+0	1.842808E+0	1.808776E+0	1.842368E+0	1.604298E+0	1.787183E+0	1.752519E+0
5.415140E+2	1.318092E+0	1.724963E+0	1.668581E+0	6.894684E-1	1.395410E+0	1.674217E+0	1.665273E+0	1.551460E+0	1.609461E+0	1.496655E+0	1.479068E+0	1.550309E+0	1.750902E+0	1.559401E+0	1.501369E+0	1.469303E+0	1.597388E+0	1.544714E+0	1.617445E+0	1.495931E+0	1.474483E+0	1.625202E+0	1.740092E+0	1.640040E+0	1.567256E+0	1.469129E+0	1.576177E+0	1.607941E+0	1.662280E+0	1.425240E+0	1.536922E+0	1.456479E+0	1.593389E+0	1.537591E+0	1.547461E+0	1.485905E+0	1.488448E+0	1.624660E+0	1.665640E+0	1.643020E+0	1.589139E+0	1.547448E+0	1.454373E+0	1.557748E+0	1.684062E+0	1.532809E+0	1.436394E+0	1.388386E+0	1.614389E+0	1.563862E+0	1.560026E+0	1.533828E+0	1.533660E+0	1.648769E+0	1.699740E+0	1.701320E+0	1.639836E+0	1.555836E+0	1.540248E+0	1.627088E+0	1.702345E+0	1.529534E+0	1.421479E+0	1.417909E+0	1.569717E+0	1.532178E+0	1.513136E+0	1.438761E+0	1.606903E+0	1.655783E+0	1.681188E+0	1.655118E+0	1.570941E+0	1.520655E+0	1.581848E+0	1.570349E+0	1.575508E+0	1.546697E+0	1.532700E+0	1.402192E+0	1.434661E+0	1.503310E+0	1.640607E+0	1.573193E+0	1.470488E+0	1.646396E+0	1.686370E+0	1.682392E+0	1.361110E+0	1.573840E+0	1.569376E+0	1.558809E+0	1.393349E+0	1.500466E+0	1.477514E+0	1.369111E+0	1.549154E+0	1.558522E+0	1.571502E+0	1.541817E+0	1.449458E+0	1.677995E+0	1.670466E+0	1.699750E+0	1.385851E+0	1.598187E+0	1.551658E+0	1.558865E+0	1.428287E+0	1.358700E+0	1.457029E+0	1.451603E+0	1.469366E+0	1.512447E+0	1.562611E+0	1.543820E+0	1.454216E+0	1.637559E+0	1.635211E+0	1.655852E+0	1.552804E+0	1.593489E+0	1.590948E+0	1.517810E+0	1.537397E+0	1.528046E+0	1.478653E+0	1.446056E+0	1.326776E+0	1.453182E+0	1.599059E+0	1.593843E+0	1.482525E+0	1.677526E+0	1.684129E+0	1.675311E+0	1.433638E+0	1.510092E+0	1.535435E+0	1.285653E+0	1.472632E+0	1.483949E+0	1.392196E+0	1.419296E+0	1.463555E+0	1.573658E+0	1.478804E+0	1.532521E+0	1.429097E+0	1.658277E+0	1.617371E+0	1.701541E+0	1.463801E+0	1.436629E+0	1.625038E+0	1.556493E+0	1.392798E+0	1.422001E+0	1.452693E+0	1.371424E+0	1.543655E+0	1.618224E+0	1.489288E+0	1.464055E+0	1.461518E+0	1.674349E+0	1.679592E+0	1.581435E+0	1.508153E+0	1.636188E+0	1.576148E+0
5.417700E+2	1.228503E+0	1.454201E+0	1.465117E+0	7.881608E-1	1.265201E+0	1.536757E+0	1.531843E+0	1.414646E+0	1.439884E+0	1.343671E+0	1.350428E+0	1.380639E+0	1.532868E+0	1.344232E+0	1.326572E+0	1.321908E+0	1.437127E+0	1.386466E+0	1.444369E+0	1.344665E+0	1.325877E+0	1.476771E+0	1.537894E+0	1.483946E+0	1.443401E+0	1.368118E+0	1.458905E+0	1.402216E+0	1.570573E+0	1.302684E+0	1.349788E+0	1.306375E+0	1.366878E+0	1.377089E+0	1.422428E+0	1.365861E+0	1.302981E+0	1.453612E+0	1.544659E+0	1.480620E+0	1.458269E+0	1.422542E+0	1.319842E+0	1.491794E+0	1.532728E+0	1.343742E+0	1.348587E+0	1.224865E+0	1.451725E+0	1.457565E+0	1.429458E+0	1.435012E+0	1.316553E+0	1.505796E+0	1.520546E+0	1.497547E+0	1.487964E+0	1.382540E+0	1.382928E+0	1.437149E+0	1.543921E+0	1.335927E+0	1.278788E+0	1.260691E+0	1.463032E+0	1.446552E+0	1.404178E+0	1.319994E+0	1.408014E+0	1.529293E+0	1.508436E+0	1.494322E+0	1.507735E+0	1.432056E+0	1.394748E+0	1.422861E+0	1.488390E+0	1.381372E+0	1.359537E+0	1.277034E+0	1.372427E+0	1.435643E+0	1.412804E+0	1.351944E+0	1.321226E+0	1.486431E+0	1.512929E+0	1.517516E+0	1.419504E+0	1.402925E+0	1.462821E+0	1.389365E+0	1.620252E+0	1.333113E+0	1.345276E+0	1.272921E+0	1.481978E+0	1.409928E+0	1.469369E+0	1.426730E+0	1.384692E+0	1.503686E+0	1.490981E+0	1.504741E+0	1.331269E+0	1.417510E+0	1.349361E+0	1.412173E+0	1.334198E+0	1.263799E+0	1.365015E+0	1.327418E+0	1.334014E+0	1.384287E+0	1.445920E+0	1.342520E+0	1.326869E+0	1.529534E+0	1.486033E+0	1.508503E+0	1.380983E+0	1.389678E+0	1.406679E+0	1.468200E+0	1.394791E+0	1.334857E+0	1.374414E+0	1.356790E+0	1.244516E+0	1.268360E+0	1.373218E+0	1.439232E+0	1.327151E+0	1.501382E+0	1.547750E+0	1.562631E+0	1.331832E+0	1.279262E+0	1.404295E+0	1.189890E+0	1.306192E+0	1.335976E+0	1.243315E+0	1.259464E+0	1.329923E+0	1.390675E+0	1.396218E+0	1.310390E+0	1.316328E+0	1.554326E+0	1.517309E+0	1.539044E+0	1.285757E+0	1.356744E+0	1.403017E+0	1.390466E+0	1.257780E+0	1.260443E+0	1.302455E+0	1.232572E+0	1.312925E+0	1.423216E+0	1.454518E+0	1.367830E+0	1.329801E+0	1.454420E+0	1.485819E+0	1.531003E+0	1.331417E+0	1.460028E+0	1.542554E+0
5.420160E+2	1.069835E+0	1.305250E+0	1.386914E+0	7.467739E-1	1.083825E+0	1.327987E+0	1.353584E+0	1.302891E+0	1.287101E+0	1.203769E+0	1.227531E+0	1.264351E+0	1.313462E+0	1.180628E+0	1.147145E+0	1.111771E+0	1.236943E+0	1.270040E+0	1.301912E+0	1.136082E+0	1.167246E+0	1.294411E+0	1.342835E+0	1.285842E+0	1.252310E+0	1.168489E+0	1.277665E+0	1.201958E+0	1.376136E+0	1.070836E+0	1.227396E+0	1.139551E+0	1.303387E+0	1.220764E+0	1.291906E+0	1.178333E+0	1.210895E+0	1.304647E+0	1.333793E+0	1.312064E+0	1.275653E+0	1.254877E+0	1.169281E+0	1.303342E+0	1.346752E+0	1.204553E+0	1.175750E+0	1.136475E+0	1.293075E+0	1.332000E+0	1.289436E+0	1.275302E+0	1.196439E+0	1.331483E+0	1.366809E+0	1.338749E+0	1.307583E+0	1.228632E+0	1.196410E+0	1.320586E+0	1.368523E+0	1.190837E+0	1.137832E+0	1.094640E+0	1.268416E+0	1.244624E+0	1.240438E+0	1.163884E+0	1.296138E+0	1.312732E+0	1.319469E+0	1.328295E+0	1.286842E+0	1.205502E+0	1.210081E+0	1.253455E+0	1.316929E+0	1.190612E+0	1.174365E+0	1.151053E+0	1.302126E+0	1.287150E+0	1.304999E+0	1.241614E+0	1.197729E+0	1.316297E+0	1.398853E+0	1.325547E+0	1.243123E+0	1.226270E+0	1.264034E+0	1.301658E+0	1.430173E+0	1.173982E+0	1.171155E+0	1.159887E+0	1.321337E+0	1.335630E+0	1.273300E+0	1.224617E+0	1.179753E+0	1.348624E+0	1.273441E+0	1.316390E+0	1.255783E+0	1.216057E+0	1.275185E+0	1.272635E+0	1.409570E+0	1.113783E+0	1.121136E+0	1.152250E+0	1.261178E+0	1.245717E+0	1.244521E+0	1.171383E+0	1.189185E+0	1.319567E+0	1.326159E+0	1.362150E+0	1.269944E+0	1.260697E+0	1.293660E+0	1.242357E+0	1.297818E+0	1.160350E+0	1.192002E+0	1.157111E+0	1.096445E+0	1.161873E+0	1.322887E+0	1.291342E+0	1.179901E+0	1.309084E+0	1.373016E+0	1.316075E+0	1.235577E+0	1.160479E+0	1.182593E+0	1.053570E+0	1.248697E+0	1.166167E+0	1.083354E+0	1.131773E+0	1.251129E+0	1.235016E+0	1.237401E+0	1.244509E+0	1.191359E+0	1.363388E+0	1.339543E+0	1.378481E+0	1.149232E+0	1.150625E+0	1.242534E+0	1.284258E+0	1.119887E+0	1.159410E+0	1.168228E+0	1.153224E+0	1.231688E+0	1.275059E+0	1.187755E+0	1.192727E+0	1.213342E+0	1.321838E+0	1.377328E+0	1.387014E+0	1.215477E+0	1.231021E+0	1.256999E+0
5.422670E+2	8.253582E-1	1.045083E+0	1.047586E+0	6.187923E-1	8.729116E-1	1.106814E+0	1.102740E+0	9.916810E-1	1.000000E+0	9.700286E-1	9.673811E-1	1.002542E+0	1.078094E+0	9.263345E-1	9.335015E-1	9.188241E-1	1.007566E+0	9.755850E-1	1.038239E+0	9.162708E-1	9.812653E-1	1.024880E+0	1.077358E+0	1.039526E+0	1.061219E+0	9.640787E-1	1.033050E+0	1.018085E+0	1.071031E+0	9.212995E-1	9.537837E-1	9.234053E-1	1.026540E+0	1.022673E+0	9.741392E-1	9.424271E-1	1.009941E+0	1.070159E+0	1.109807E+0	1.090953E+0	9.984531E-1	1.013503E+0	9.402910E-1	1.047678E+0	1.110630E+0	9.276032E-1	9.405236E-1	8.841210E-1	1.050802E+0	1.028034E+0	1.034208E+0	1.009307E+0	9.675471E-1	1.022524E+0	1.068642E+0	1.040434E+0	1.041080E+0	9.954173E-1	9.396117E-1	1.033018E+0	1.100713E+0	9.842895E-1	9.435305E-1	8.755945E-1	1.050354E+0	9.888910E-1	1.018870E+0	9.728798E-1	9.839355E-1	1.066149E+0	1.097574E+0	1.074734E+0	1.048073E+0	1.000357E+0	1.018101E+0	1.041995E+0	1.121499E+0	1.000831E+0	9.328583E-1	9.023847E-1	9.655976E-1	1.017732E+0	1.021368E+0	9.804575E-1	9.360749E-1	1.046117E+0	1.065400E+0	1.061186E+0	1.033965E+0	1.006887E+0	1.062385E+0	1.025417E+0	1.117183E+0	9.674480E-1	9.659758E-1	8.983585E-1	1.069572E+0	1.008076E+0	1.021751E+0	1.022502E+0	9.849686E-1	1.090538E+0	1.097559E+0	1.061928E+0	9.909999E-1	9.579469E-1	9.919693E-1	1.055577E+0	1.113500E+0	9.302157E-1	9.192422E-1	9.487564E-1	1.030531E+0	9.607710E-1	9.767798E-1	9.934748E-1	9.448325E-1	1.124813E+0	1.069039E+0	1.097818E+0	1.031500E+0	9.930033E-1	1.035687E+0	1.013251E+0	1.099722E+0	9.460259E-1	9.687780E-1	9.640109E-1	8.859687E-1	8.687270E-1	1.055105E+0	1.027830E+0	9.494666E-1	1.074053E+0	1.100792E+0	1.072105E+0	1.079472E+0	9.976123E-1	1.001471E+0	8.074055E-1	1.125634E+0	9.298938E-1	9.065283E-1	8.763912E-1	1.032400E+0	9.980306E-1	1.008069E+0	9.924321E-1	9.711986E-1	1.086552E+0	1.080504E+0	1.061227E+0	1.056119E+0	9.030387E-1	9.855206E-1	1.017519E+0	1.075360E+0	9.602065E-1	8.974233E-1	8.631732E-1	1.070912E+0	1.029104E+0	9.953239E-1	9.907694E-1	9.778777E-1	1.088908E+0	1.119589E+0	1.098307E+0	1.122160E+0	1.052345E+0	1.131020E+0
5.425140E+2	7.757073E-1	9.735867E-1	1.019087E+0	6.913784E-1	8.404633E-1	1.011730E+0	9.954635E-1	1.013230E+0	9.692195E-1	8.892724E-1	9.507262E-1	9.650501E-1	1.044794E+0	9.005494E-1	9.052930E-1	8.517876E-1	9.557340E-1	9.331967E-1	1.000125E+0	8.754999E-1	9.037731E-1	9.763451E-1	1.031210E+0	1.016135E+0	1.046475E+0	9.258261E-1	9.678979E-1	9.816728E-1	1.041929E+0	8.934042E-1	9.287379E-1	8.903832E-1	9.693410E-1	9.128877E-1	1.010124E+0	8.223841E-1	9.079578E-1	9.832240E-1	1.024294E+0	1.072014E+0	9.806078E-1	9.600523E-1	9.082323E-1	9.264417E-1	1.046357E+0	9.176273E-1	9.012419E-1	8.841208E-1	1.013574E+0	1.000062E+0	1.002895E+0	9.501331E-1	9.389921E-1	1.059736E+0	9.912852E-1	1.028960E+0	9.695096E-1	9.413729E-1	9.336649E-1	9.702969E-1	1.081382E+0	9.145170E-1	8.533203E-1	8.645539E-1	9.759074E-1	9.460764E-1	9.646957E-1	8.932947E-1	9.791546E-1	1.031697E+0	9.744667E-1	1.040960E+0	1.013598E+0	9.545709E-1	1.010788E+0	9.620320E-1	1.064804E+0	9.137673E-1	9.143868E-1	8.826234E-1	9.903763E-1	9.525706E-1	1.011743E+0	9.575695E-1	9.320767E-1	1.050933E+0	1.044753E+0	1.064922E+0	1.056014E+0	9.826532E-1	9.191682E-1	9.430808E-1	1.078371E+0	9.219814E-1	9.080924E-1	8.363011E-1	9.930483E-1	9.938625E-1	9.448357E-1	9.566569E-1	9.003835E-1	1.049432E+0	9.808176E-1	1.008657E+0	9.544182E-1	9.390606E-1	9.153417E-1	9.899818E-1	1.013990E+0	8.516124E-1	8.839553E-1	8.868810E-1	9.825800E-1	9.776856E-1	9.388695E-1	9.331460E-1	9.391935E-1	1.028959E+0	9.941954E-1	1.063470E+0	9.730584E-1	9.577166E-1	1.011731E+0	9.695178E-1	1.047345E+0	8.781888E-1	9.732029E-1	9.203166E-1	8.763238E-1	9.501226E-1	9.950958E-1	9.276688E-1	9.241284E-1	9.739961E-1	1.056575E+0	1.079342E+0	1.038749E+0	9.523033E-1	9.238458E-1	7.510749E-1	1.058555E+0	9.133986E-1	9.021923E-1	8.894213E-1	9.813417E-1	1.022173E+0	9.064251E-1	9.309097E-1	9.467905E-1	1.046614E+0	1.061711E+0	1.065579E+0	9.950925E-1	9.066978E-1	9.674208E-1	9.876095E-1	1.061955E+0	8.834793E-1	8.993072E-1	8.503904E-1	9.812144E-1	1.017392E+0	9.563582E-1	9.521682E-1	9.839806E-1	1.025476E+0	1.055624E+0	1.020100E+0	1.064190E+0	1.069960E+0	1.139417E+0
5.427650E+2	8.059294E-1	1.047068E+0	9.952285E-1	7.193952E-1	8.591838E-1	1.065990E+0	1.038694E+0	1.014232E+0	9.759351E-1	8.909779E-1	9.484296E-1	9.466217E-1	1.065320E+0	8.574259E-1	8.960448E-1	9.016357E-1	9.563294E-1	9.235887E-1	1.057608E+0	9.038628E-1	9.233736E-1	1.009330E+0	1.069748E+0	9.789008E-1	1.066528E+0	9.533203E-1	1.051410E+0	9.804592E-1	1.093075E+0	8.961483E-1	9.622898E-1	8.955300E-1	9.830691E-1	9.200480E-1	1.022323E+0	9.394409E-1	8.576101E-1	9.766444E-1	1.069965E+0	1.011884E+0	9.740647E-1	9.836834E-1	9.311311E-1	9.289544E-1	1.060034E+0	9.052758E-1	8.818318E-1	8.355066E-1	1.022738E+0	1.004413E+0	1.020029E+0	9.386429E-1	9.521365E-1	1.027910E+0	1.050038E+0	1.019322E+0	1.005586E+0	9.495974E-1	9.331244E-1	9.791721E-1	1.071951E+0	9.029651E-1	8.849810E-1	8.804521E-1	9.888037E-1	9.709553E-1	9.659125E-1	9.098238E-1	9.672014E-1	1.038094E+0	1.050459E+0	9.962415E-1	1.017429E+0	9.676525E-1	9.419185E-1	9.786170E-1	1.024244E+0	9.235495E-1	9.494818E-1	8.599793E-1	9.748179E-1	9.964289E-1	1.074629E+0	9.616780E-1	8.765475E-1	9.920819E-1	1.033913E+0	1.050442E+0	9.499456E-1	9.756385E-1	9.804648E-1	9.693329E-1	1.123154E+0	8.963466E-1	9.335049E-1	8.797412E-1	1.037444E+0	9.848175E-1	1.041295E+0	9.772691E-1	9.477509E-1	1.026017E+0	1.020931E+0	1.037669E+0	9.515144E-1	9.491334E-1	9.901298E-1	9.673215E-1	1.046996E+0	8.568848E-1	8.879755E-1	8.829598E-1	1.008680E+0	9.542656E-1	9.157680E-1	9.380711E-1	8.940823E-1	1.041639E+0	1.040019E+0	9.863108E-1	9.771489E-1	9.966540E-1	9.969903E-1	9.780029E-1	1.012601E+0	9.268545E-1	9.205929E-1	9.489767E-1	8.422846E-1	8.760711E-1	9.783197E-1	9.861522E-1	9.107422E-1	1.026109E+0	1.006499E+0	1.033856E+0	1.041217E+0	9.314855E-1	9.067924E-1	8.259953E-1	1.063094E+0	9.565779E-1	8.940018E-1	8.763912E-1	1.013490E+0	9.713457E-1	9.369177E-1	9.412544E-1	9.516721E-1	1.046066E+0	1.038348E+0	1.078636E+0	9.818807E-1	8.902324E-1	9.354452E-1	9.967653E-1	1.067702E+0	8.911039E-1	9.270944E-1	8.808059E-1	1.043269E+0	9.564893E-1	9.809367E-1	9.482521E-1	9.346497E-1	9.989603E-1	1.062522E+0	9.945181E-1	8.987666E-1	1.074994E+0	1.122620E+0
5.430120E+2	8.339929E-1	1.072225E+0	1.046260E+0	8.976778E-1	8.828953E-1	1.090795E+0	1.111812E+0	1.101432E+0	9.944035E-1	1.011545E+0	9.484293E-1	1.000635E+0	1.089953E+0	1.014802E+0	9.649472E-1	9.050734E-1	1.050463E+0	1.022494E+0	1.051360E+0	9.729964E-1	9.297553E-1	1.059278E+0	1.075930E+0	1.105880E+0	1.092478E+0	9.999406E-1	1.066218E+0	1.050854E+0	1.118647E+0	9.071233E-1	9.552011E-1	9.825888E-1	1.075160E+0	9.797133E-1	1.043670E+0	9.794555E-1	9.496973E-1	1.036324E+0	1.111264E+0	1.071542E+0	1.040687E+0	1.008440E+0	9.385732E-1	1.100444E+0	1.035873E+0	9.793829E-1	9.677891E-1	8.858888E-1	1.080013E+0	1.029899E+0	1.028300E+0	1.032862E+0	9.689071E-1	1.058267E+0	1.098997E+0	1.121666E+0	1.024788E+0	9.930680E-1	1.018003E+0	1.097513E+0	1.105899E+0	9.579516E-1	9.214124E-1	9.352140E-1	1.042147E+0	1.045014E+0	1.000609E+0	1.004101E+0	9.738955E-1	1.088790E+0	1.104667E+0	1.099472E+0	1.085739E+0	9.747881E-1	1.062592E+0	1.022449E+0	1.100297E+0	1.021864E+0	9.919648E-1	9.419085E-1	1.031866E+0	1.032143E+0	9.989092E-1	9.487664E-1	9.613973E-1	1.064841E+0	1.109276E+0	1.108827E+0	1.063164E+0	1.029209E+0	1.047491E+0	1.017064E+0	1.143557E+0	8.982811E-1	9.391519E-1	9.138727E-1	1.042701E+0	1.031980E+0	1.030577E+0	9.967367E-1	1.011069E+0	1.101465E+0	1.106302E+0	1.099503E+0	9.811282E-1	9.976078E-1	1.028137E+0	1.038283E+0	1.111531E+0	9.225470E-1	9.393421E-1	9.792586E-1	1.096083E+0	1.038188E+0	9.992892E-1	9.645416E-1	9.796048E-1	1.110106E+0	1.106717E+0	1.104289E+0	1.037345E+0	1.050193E+0	1.041214E+0	1.021736E+0	1.092980E+0	1.012388E+0	9.658281E-1	9.254852E-1	9.608548E-1	9.146264E-1	1.006065E+0	1.023797E+0	9.848451E-1	1.061546E+0	1.098661E+0	1.114491E+0	1.059110E+0	9.798561E-1	9.908849E-1	8.350076E-1	1.120591E+0	9.575482E-1	8.988194E-1	9.011479E-1	1.061396E+0	1.053306E+0	1.049361E+0	9.995097E-1	1.010740E+0	1.117737E+0	1.095234E+0	1.091694E+0	1.060524E+0	9.829256E-1	9.915539E-1	1.037661E+0	1.125635E+0	9.916607E-1	9.270945E-1	9.288540E-1	1.050039E+0	1.059556E+0	1.033092E+0	9.588814E-1	9.621124E-1	1.089429E+0	1.071301E+0	1.115849E+0	1.018946E+0	9.843980E-1	1.122620E+0
5.432800E+2	1.002915E+0	1.182779E+0	1.231830E+0	1.069595E+0	9.939681E-1	1.228770E+0	1.229762E+0	1.220203E+0	1.156702E+0	1.210593E+0	1.117269E+0	1.137259E+0	1.248689E+0	1.234864E+0	1.072694E+0	1.068799E+0	1.113616E+0	1.211262E+0	1.176949E+0	1.078766E+0	1.058302E+0	1.215250E+0	1.232933E+0	1.251952E+0	1.222232E+0	1.228856E+0	1.166315E+0	1.201958E+0	1.237692E+0	1.263816E+0	1.064364E+0	1.055923E+0	1.166680E+0	1.235680E+0	1.200419E+0	1.086956E+0	1.092991E+0	1.260945E+0	1.234188E+0	1.250038E+0	1.192374E+0	1.239122E+0	1.074250E+0	1.185875E+0	1.283846E+0	1.184603E+0	1.087020E+0	1.018033E+0	1.173942E+0	1.183436E+0	1.137599E+0	1.152359E+0	1.094914E+0	1.230620E+0	1.270357E+0	1.189591E+0	1.212736E+0	1.177524E+0	1.152619E+0	1.210528E+0	1.289783E+0	1.117829E+0	1.045020E+0	1.026630E+0	1.168764E+0	1.165937E+0	1.151568E+0	1.112460E+0	1.136450E+0	1.237922E+0	1.237906E+0	1.217925E+0	1.157243E+0	1.155554E+0	1.182655E+0	1.142098E+0	1.227511E+0	1.140721E+0	1.132807E+0	1.040716E+0	1.140777E+0	1.117354E+0	1.186285E+0	1.107221E+0	1.076453E+0	1.257981E+0	1.230062E+0	1.216255E+0	1.208561E+0	1.148466E+0	1.158627E+0	1.134601E+0	1.303284E+0	1.102879E+0	1.109508E+0	1.047297E+0	1.227877E+0	1.150856E+0	1.091100E+0	1.169650E+0	1.160421E+0	1.244557E+0	1.236930E+0	1.253607E+0	1.211652E+0	1.137995E+0	1.175263E+0	1.145023E+0	1.226312E+0	1.042368E+0	1.092997E+0	1.092552E+0	1.203516E+0	1.139675E+0	1.118351E+0	1.175077E+0	1.099903E+0	1.203932E+0	1.230439E+0	1.263089E+0	1.167086E+0	1.204117E+0	1.172659E+0	1.137921E+0	1.221069E+0	1.062036E+0	1.128574E+0	1.109659E+0	1.029501E+0	1.047430E+0	1.182221E+0	1.158914E+0	1.134008E+0	1.207982E+0	1.252618E+0	1.246812E+0	1.181897E+0	1.067412E+0	1.099677E+0	9.583720E-1	1.249706E+0	1.051184E+0	1.059264E+0	1.045779E+0	1.168554E+0	1.117476E+0	1.129405E+0	1.163932E+0	1.082012E+0	1.256703E+0	1.245576E+0	1.209213E+0	1.156153E+0	1.106718E+0	1.147813E+0	1.164012E+0	1.210857E+0	1.067911E+0	1.086280E+0	9.879230E-1	1.196713E+0	1.186046E+0	1.203341E+0	1.087553E+0	1.116206E+0	1.229809E+0	1.264449E+0	1.248873E+0	1.226788E+0	1.193272E+0	1.315789E+0
5.435270E+2	1.143772E+0	1.382704E+0	1.420050E+0	1.291812E+0	1.162451E+0	1.398267E+0	1.464598E+0	1.382073E+0	1.308368E+0	1.328315E+0	1.245909E+0	1.321542E+0	1.472656E+0	1.443368E+0	1.233160E+0	1.215335E+0	1.319160E+0	1.419247E+0	1.401258E+0	1.217034E+0	1.232887E+0	1.369806E+0	1.406109E+0	1.460078E+0	1.429247E+0	1.393820E+0	1.387832E+0	1.352455E+0	1.444918E+0	1.483318E+0	1.277957E+0	1.178577E+0	1.307392E+0	1.420645E+0	1.340092E+0	1.272097E+0	1.217781E+0	1.400041E+0	1.373146E+0	1.339999E+0	1.321456E+0	1.430984E+0	1.235116E+0	1.378722E+0	1.450680E+0	1.434003E+0	1.275573E+0	1.223982E+0	1.397316E+0	1.387944E+0	1.321339E+0	1.271280E+0	1.278932E+0	1.433818E+0	1.452001E+0	1.419981E+0	1.331439E+0	1.404275E+0	1.261285E+0	1.369107E+0	1.439248E+0	1.412168E+0	1.215899E+0	1.191796E+0	1.373929E+0	1.441341E+0	1.336613E+0	1.253265E+0	1.354468E+0	1.414122E+0	1.394953E+0	1.437236E+0	1.373030E+0	1.339888E+0	1.371587E+0	1.317426E+0	1.365326E+0	1.416586E+0	1.259333E+0	1.202105E+0	1.315956E+0	1.334141E+0	1.356335E+0	1.268022E+0	1.222608E+0	1.414736E+0	1.375625E+0	1.385800E+0	1.359918E+0	1.341064E+0	1.345382E+0	1.336263E+0	1.501325E+0	1.295386E+0	1.222451E+0	1.174515E+0	1.333022E+0	1.386023E+0	1.342650E+0	1.320234E+0	1.274491E+0	1.437082E+0	1.463726E+0	1.401528E+0	1.307461E+0	1.246275E+0	1.363461E+0	1.385339E+0	1.421884E+0	1.233603E+0	1.230570E+0	1.209331E+0	1.295776E+0	1.253524E+0	1.345812E+0	1.306199E+0	1.202343E+0	1.396151E+0	1.425953E+0	1.426366E+0	1.358774E+0	1.379335E+0	1.380881E+0	1.292617E+0	1.460650E+0	1.229661E+0	1.311971E+0	1.211143E+0	1.196861E+0	1.164933E+0	1.282881E+0	1.359908E+0	1.269304E+0	1.347648E+0	1.380475E+0	1.407046E+0	1.394151E+0	1.190481E+0	1.279036E+0	1.092438E+0	1.478684E+0	1.236031E+0	1.205252E+0	1.160873E+0	1.372155E+0	1.332860E+0	1.265988E+0	1.326721E+0	1.276301E+0	1.430134E+0	1.421824E+0	1.446674E+0	1.316584E+0	1.212216E+0	1.330016E+0	1.420375E+0	1.372211E+0	1.203258E+0	1.226629E+0	1.174381E+0	1.391901E+0	1.309024E+0	1.268684E+0	1.237483E+0	1.269790E+0	1.364991E+0	1.394889E+0	1.410404E+0	1.393628E+0	1.351816E+0	1.542552E+0
5.437640E+2	1.207455E+0	1.478032E+0	1.524765E+0	1.567515E+0	1.234835E+0	1.539862E+0	1.545722E+0	1.567998E+0	1.378323E+0	1.548410E+0	1.395222E+0	1.432112E+0	1.550657E+0	1.511387E+0	1.324721E+0	1.298702E+0	1.456190E+0	1.465593E+0	1.505602E+0	1.380117E+0	1.349125E+0	1.486194E+0	1.542651E+0	1.525951E+0	1.478787E+0	1.542047E+0	1.469566E+0	1.455012E+0	1.527364E+0	1.527216E+0	1.381452E+0	1.296083E+0	1.462399E+0	1.541767E+0	1.481589E+0	1.346750E+0	1.346446E+0	1.504832E+0	1.534943E+0	1.504766E+0	1.468385E+0	1.540136E+0	1.306103E+0	1.484883E+0	1.532728E+0	1.568441E+0	1.342121E+0	1.277898E+0	1.470626E+0	1.607992E+0	1.458408E+0	1.431567E+0	1.346921E+0	1.561124E+0	1.577340E+0	1.490660E+0	1.417559E+0	1.499442E+0	1.377521E+0	1.514667E+0	1.559950E+0	1.542936E+0	1.324761E+0	1.239051E+0	1.443688E+0	1.556479E+0	1.388355E+0	1.361625E+0	1.406103E+0	1.557842E+0	1.493237E+0	1.524771E+0	1.553699E+0	1.517088E+0	1.462396E+0	1.419897E+0	1.534485E+0	1.542295E+0	1.339681E+0	1.283623E+0	1.427171E+0	1.476369E+0	1.444248E+0	1.387744E+0	1.331444E+0	1.549025E+0	1.560421E+0	1.535262E+0	1.498760E+0	1.486470E+0	1.455374E+0	1.389365E+0	1.571486E+0	1.555608E+0	1.324099E+0	1.271145E+0	1.413633E+0	1.516528E+0	1.462435E+0	1.368331E+0	1.369223E+0	1.526060E+0	1.541896E+0	1.541365E+0	1.424176E+0	1.506274E+0	1.430891E+0	1.401440E+0	1.545043E+0	1.501525E+0	1.330177E+0	1.305194E+0	1.438415E+0	1.467556E+0	1.394978E+0	1.420701E+0	1.323580E+0	1.493016E+0	1.465665E+0	1.524933E+0	1.465724E+0	1.412190E+0	1.445988E+0	1.450578E+0	1.507320E+0	1.418914E+0	1.368516E+0	1.350679E+0	1.211611E+0	1.298959E+0	1.460327E+0	1.414359E+0	1.354880E+0	1.475324E+0	1.465179E+0	1.479930E+0	1.461406E+0	1.361308E+0	1.387827E+0	1.156092E+0	1.536685E+0	1.315111E+0	1.281860E+0	1.264677E+0	1.478682E+0	1.484709E+0	1.356831E+0	1.351222E+0	1.369052E+0	1.501258E+0	1.511725E+0	1.552587E+0	1.421023E+0	1.298201E+0	1.425941E+0	1.398401E+0	1.523030E+0	1.285226E+0	1.345782E+0	1.239625E+0	1.456214E+0	1.447226E+0	1.429343E+0	1.373986E+0	1.418290E+0	1.481974E+0	1.489580E+0	1.503958E+0	1.501084E+0	1.409696E+0	1.601344E+0
5.440170E+2	1.285709E+0	1.503189E+0	1.566518E+0	1.554144E+0	1.328018E+0	1.503689E+0	1.573477E+0	1.640164E+0	1.460593E+0	1.582530E+0	1.404984E+0	1.490575E+0	1.571638E+0	1.606527E+0	1.365878E+0	1.372614E+0	1.448441E+0	1.512500E+0	1.532469E+0	1.395480E+0	1.356872E+0	1.473473E+0	1.580712E+0	1.574164E+0	1.530096E+0	1.619151E+0	1.496221E+0	1.457441E+0	1.534860E+0	1.567458E+0	1.432961E+0	1.300801E+0	1.454963E+0	1.581742E+0	1.508425E+0	1.411251E+0	1.366238E+0	1.586128E+0	1.569927E+0	1.518968E+0	1.501102E+0	1.542387E+0	1.403423E+0	1.524455E+0	1.542756E+0	1.592193E+0	1.319475E+0	1.265525E+0	1.523320E+0	1.571319E+0	1.484995E+0	1.400545E+0	1.392699E+0	1.567979E+0	1.558733E+0	1.596675E+0	1.540335E+0	1.537038E+0	1.473754E+0	1.440701E+0	1.560420E+0	1.599768E+0	1.350785E+0	1.322519E+0	1.490583E+0	1.581935E+0	1.448612E+0	1.399580E+0	1.455345E+0	1.515023E+0	1.558590E+0	1.578049E+0	1.448362E+0	1.515895E+0	1.401451E+0	1.492754E+0	1.591639E+0	1.596097E+0	1.385395E+0	1.291032E+0	1.431782E+0	1.504563E+0	1.500077E+0	1.424718E+0	1.382083E+0	1.545818E+0	1.617716E+0	1.588978E+0	1.482073E+0	1.547054E+0	1.438760E+0	1.419196E+0	1.599354E+0	1.553190E+0	1.369278E+0	1.291980E+0	1.496000E+0	1.605684E+0	1.456131E+0	1.370621E+0	1.443175E+0	1.558839E+0	1.518756E+0	1.563243E+0	1.491533E+0	1.549085E+0	1.438250E+0	1.469420E+0	1.575586E+0	1.577252E+0	1.347597E+0	1.304757E+0	1.446305E+0	1.485776E+0	1.438219E+0	1.417621E+0	1.363055E+0	1.585320E+0	1.519636E+0	1.555795E+0	1.509555E+0	1.552730E+0	1.527681E+0	1.414025E+0	1.608442E+0	1.582115E+0	1.414735E+0	1.374170E+0	1.301248E+0	1.365667E+0	1.426774E+0	1.447298E+0	1.409858E+0	1.475326E+0	1.567994E+0	1.508355E+0	1.470662E+0	1.557238E+0	1.411937E+0	1.157782E+0	1.616369E+0	1.593597E+0	1.275115E+0	1.274666E+0	1.455360E+0	1.533633E+0	1.463558E+0	1.448132E+0	1.388088E+0	1.580042E+0	1.528994E+0	1.561774E+0	1.482047E+0	1.431142E+0	1.392762E+0	1.441127E+0	1.543140E+0	1.370532E+0	1.368857E+0	1.261221E+0	1.522217E+0	1.494075E+0	1.425744E+0	1.384057E+0	1.413207E+0	1.517851E+0	1.539746E+0	1.509076E+0	1.485532E+0	1.452479E+0	1.534155E+0
5.442750E+2	1.391489E+0	1.715030E+0	1.726902E+0	1.698043E+0	1.379600E+0	1.720209E+0	1.750667E+0	1.760436E+0	1.556852E+0	1.701387E+0	1.519842E+0	1.538870E+0	1.749537E+0	1.748343E+0	1.471314E+0	1.479188E+0	1.589048E+0	1.719920E+0	1.669302E+0	1.541429E+0	1.470379E+0	1.622372E+0	1.702983E+0	1.714986E+0	1.604413E+0	1.650825E+0	1.579140E+0	1.559391E+0	1.742525E+0	1.761810E+0	1.472655E+0	1.457334E+0	1.605401E+0	1.704055E+0	1.620651E+0	1.537267E+0	1.498775E+0	1.682931E+0	1.667584E+0	1.673794E+0	1.636131E+0	1.705553E+0	1.460101E+0	1.593555E+0	1.684976E+0	1.667724E+0	1.495088E+0	1.388386E+0	1.619541E+0	1.713667E+0	1.691774E+0	1.572320E+0	1.530037E+0	1.685980E+0	1.691419E+0	1.648994E+0	1.622961E+0	1.663923E+0	1.533761E+0	1.635372E+0	1.735348E+0	1.682480E+0	1.444030E+0	1.391854E+0	1.597267E+0	1.677978E+0	1.527747E+0	1.502428E+0	1.579174E+0	1.657261E+0	1.636101E+0	1.663680E+0	1.682024E+0	1.668120E+0	1.547111E+0	1.578050E+0	1.682441E+0	1.721315E+0	1.441730E+0	1.385311E+0	1.567199E+0	1.657444E+0	1.542425E+0	1.559106E+0	1.446943E+0	1.685450E+0	1.703402E+0	1.695939E+0	1.614359E+0	1.663125E+0	1.631244E+0	1.565374E+0	1.702354E+0	1.731183E+0	1.509514E+0	1.441807E+0	1.573691E+0	1.676105E+0	1.578439E+0	1.516625E+0	1.486193E+0	1.688404E+0	1.676637E+0	1.709263E+0	1.549018E+0	1.695766E+0	1.571886E+0	1.634601E+0	1.649973E+0	1.654897E+0	1.463284E+0	1.464239E+0	1.615646E+0	1.723877E+0	1.540697E+0	1.505037E+0	1.487111E+0	1.695885E+0	1.687146E+0	1.698167E+0	1.610074E+0	1.685968E+0	1.559006E+0	1.496923E+0	1.721489E+0	1.676497E+0	1.472752E+0	1.465791E+0	1.434568E+0	1.472766E+0	1.592608E+0	1.590480E+0	1.475356E+0	1.702017E+0	1.674009E+0	1.673241E+0	1.580488E+0	1.671121E+0	1.477802E+0	1.282836E+0	1.712202E+0	1.684323E+0	1.377260E+0	1.371087E+0	1.647615E+0	1.685479E+0	1.500403E+0	1.528712E+0	1.504760E+0	1.726665E+0	1.597563E+0	1.713633E+0	1.570759E+0	1.611649E+0	1.533333E+0	1.567478E+0	1.686297E+0	1.698887E+0	1.422077E+0	1.368779E+0	1.631660E+0	1.745303E+0	1.487492E+0	1.437765E+0	1.493556E+0	1.675910E+0	1.680220E+0	1.684492E+0	1.635405E+0	1.739367E+0	1.366182E+0
5.445130E+2	1.399044E+0	1.630293E+0	1.695088E+0	1.715236E+0	1.397491E+0	1.657165E+0	1.759740E+0	1.758433E+0	1.630166E+0	1.651913E+0	1.521564E+0	1.613217E+0	1.704831E+0	1.771905E+0	1.474551E+0	1.497237E+0	1.605734E+0	1.671317E+0	1.626190E+0	1.465796E+0	1.470834E+0	1.669496E+0	1.683003E+0	1.691119E+0	1.601461E+0	1.669355E+0	1.579734E+0	1.573954E+0	1.693588E+0	1.793364E+0	1.527473E+0	1.441899E+0	1.641438E+0	1.726733E+0	1.578570E+0	1.519348E+0	1.456172E+0	1.666482E+0	1.720058E+0	1.658171E+0	1.591516E+0	1.703301E+0	1.484143E+0	1.639410E+0	1.709135E+0	1.713325E+0	1.436395E+0	1.342867E+0	1.651616E+0	1.727344E+0	1.567708E+0	1.585534E+0	1.540008E+0	1.680105E+0	1.696313E+0	1.737574E+0	1.647980E+0	1.712681E+0	1.510513E+0	1.570877E+0	1.732517E+0	1.723143E+0	1.396755E+0	1.351224E+0	1.670542E+0	1.681454E+0	1.575838E+0	1.520794E+0	1.577261E+0	1.740931E+0	1.767824E+0	1.661776E+0	1.647549E+0	1.677041E+0	1.516640E+0	1.620697E+0	1.689815E+0	1.693435E+0	1.505456E+0	1.441303E+0	1.550487E+0	1.603559E+0	1.581569E+0	1.570845E+0	1.506916E+0	1.660305E+0	1.741599E+0	1.647829E+0	1.642965E+0	1.672688E+0	1.561353E+0	1.578499E+0	1.710816E+0	1.717157E+0	1.489749E+0	1.391716E+0	1.662480E+0	1.671584E+0	1.592938E+0	1.544680E+0	1.513743E+0	1.737316E+0	1.702868E+0	1.722581E+0	1.579214E+0	1.676251E+0	1.584762E+0	1.666798E+0	1.649970E+0	1.726310E+0	1.426658E+0	1.479492E+0	1.595619E+0	1.711517E+0	1.544246E+0	1.517349E+0	1.475830E+0	1.729359E+0	1.678490E+0	1.615532E+0	1.584361E+0	1.719426E+0	1.595245E+0	1.584386E+0	1.726158E+0	1.689277E+0	1.528804E+0	1.415049E+0	1.376137E+0	1.485616E+0	1.601642E+0	1.585778E+0	1.528901E+0	1.680651E+0	1.650568E+0	1.675311E+0	1.566298E+0	1.705408E+0	1.555424E+0	1.277766E+0	1.727330E+0	1.725077E+0	1.370034E+0	1.381509E+0	1.597187E+0	1.710258E+0	1.452122E+0	1.514010E+0	1.490115E+0	1.740345E+0	1.726575E+0	1.690900E+0	1.570758E+0	1.651283E+0	1.523078E+0	1.546725E+0	1.709278E+0	1.723194E+0	1.469644E+0	1.371424E+0	1.687509E+0	1.747643E+0	1.475503E+0	1.483077E+0	1.459993E+0	1.673311E+0	1.692131E+0	1.677186E+0	1.595816E+0	1.819896E+0	1.576148E+0
5.447660E+2	1.322947E+0	1.701791E+0	1.655986E+0	1.633098E+0	1.387923E+0	1.669565E+0	1.658867E+0	1.717339E+0	1.569722E+0	1.634281E+0	1.525011E+0	1.551578E+0	1.626831E+0	1.670543E+0	1.447267E+0	1.409142E+0	1.586665E+0	1.597277E+0	1.604326E+0	1.509522E+0	1.511861E+0	1.628969E+0	1.673485E+0	1.659612E+0	1.607358E+0	1.641267E+0	1.593353E+0	1.596410E+0	1.649937E+0	1.656634E+0	1.455171E+0	1.414877E+0	1.541336E+0	1.754178E+0	1.587715E+0	1.447684E+0	1.418306E+0	1.659436E+0	1.687019E+0	1.569631E+0	1.577239E+0	1.653225E+0	1.454375E+0	1.603603E+0	1.648965E+0	1.691950E+0	1.446100E+0	1.386619E+0	1.618397E+0	1.634101E+0	1.517485E+0	1.525212E+0	1.476551E+0	1.639466E+0	1.736952E+0	1.619624E+0	1.628779E+0	1.659814E+0	1.522409E+0	1.533599E+0	1.707057E+0	1.723144E+0	1.430151E+0	1.351666E+0	1.583786E+0	1.664676E+0	1.563050E+0	1.485286E+0	1.505069E+0	1.633143E+0	1.641167E+0	1.621341E+0	1.644997E+0	1.631850E+0	1.537358E+0	1.582784E+0	1.710095E+0	1.702238E+0	1.444967E+0	1.365137E+0	1.519950E+0	1.603557E+0	1.613657E+0	1.488097E+0	1.449163E+0	1.645325E+0	1.715275E+0	1.695003E+0	1.561924E+0	1.637614E+0	1.577393E+0	1.534347E+0	1.705839E+0	1.673626E+0	1.459632E+0	1.414765E+0	1.579532E+0	1.686443E+0	1.516654E+0	1.544105E+0	1.491027E+0	1.693089E+0	1.619551E+0	1.587977E+0	1.560049E+0	1.633443E+0	1.552270E+0	1.573179E+0	1.663271E+0	1.648668E+0	1.411024E+0	1.407158E+0	1.627789E+0	1.617188E+0	1.532399E+0	1.565367E+0	1.490868E+0	1.712115E+0	1.698347E+0	1.648886E+0	1.563322E+0	1.673798E+0	1.557779E+0	1.501491E+0	1.629186E+0	1.656342E+0	1.472263E+0	1.443239E+0	1.412445E+0	1.486844E+0	1.520981E+0	1.565609E+0	1.510734E+0	1.594664E+0	1.687326E+0	1.633957E+0	1.594065E+0	1.680304E+0	1.436636E+0	1.293539E+0	1.689502E+0	1.713432E+0	1.371476E+0	1.344591E+0	1.629967E+0	1.606061E+0	1.474992E+0	1.506931E+0	1.471078E+0	1.651714E+0	1.622955E+0	1.636735E+0	1.582081E+0	1.612866E+0	1.442837E+0	1.538183E+0	1.589579E+0	1.644082E+0	1.423022E+0	1.370542E+0	1.570171E+0	1.614125E+0	1.511471E+0	1.438322E+0	1.475761E+0	1.616119E+0	1.644475E+0	1.584359E+0	1.686304E+0	1.560691E+0	1.584546E+0
5.450090E+2	1.254947E+0	1.549529E+0	1.574473E+0	1.490470E+0	1.241490E+0	1.536242E+0	1.558532E+0	1.591048E+0	1.496407E+0	1.567175E+0	1.403261E+0	1.486762E+0	1.570726E+0	1.595409E+0	1.379753E+0	1.315463E+0	1.463935E+0	1.518151E+0	1.473113E+0	1.387800E+0	1.383315E+0	1.527188E+0	1.532663E+0	1.619038E+0	1.454018E+0	1.460762E+0	1.509249E+0	1.496277E+0	1.532213E+0	1.618220E+0	1.383338E+0	1.326106E+0	1.479561E+0	1.514320E+0	1.495619E+0	1.407669E+0	1.366668E+0	1.510940E+0	1.511135E+0	1.571053E+0	1.495153E+0	1.539012E+0	1.385677E+0	1.541417E+0	1.548681E+0	1.567962E+0	1.391568E+0	1.283643E+0	1.453444E+0	1.598046E+0	1.467270E+0	1.459719E+0	1.351454E+0	1.567977E+0	1.551390E+0	1.524163E+0	1.562445E+0	1.548787E+0	1.410500E+0	1.434785E+0	1.578813E+0	1.580825E+0	1.374636E+0	1.281447E+0	1.488237E+0	1.506143E+0	1.415744E+0	1.392233E+0	1.462039E+0	1.633146E+0	1.549471E+0	1.496703E+0	1.477092E+0	1.581307E+0	1.456911E+0	1.443590E+0	1.572282E+0	1.615170E+0	1.407563E+0	1.319028E+0	1.447341E+0	1.484514E+0	1.503285E+0	1.430584E+0	1.337661E+0	1.608945E+0	1.578485E+0	1.516583E+0	1.448703E+0	1.528559E+0	1.478289E+0	1.496160E+0	1.564522E+0	1.621871E+0	1.409278E+0	1.320351E+0	1.487236E+0	1.613439E+0	1.430914E+0	1.400393E+0	1.402092E+0	1.559359E+0	1.547553E+0	1.490473E+0	1.483982E+0	1.540900E+0	1.467675E+0	1.505197E+0	1.583466E+0	1.593549E+0	1.355637E+0	1.326981E+0	1.471797E+0	1.573600E+0	1.394977E+0	1.473025E+0	1.363522E+0	1.583799E+0	1.506400E+0	1.542850E+0	1.465725E+0	1.626951E+0	1.484072E+0	1.485172E+0	1.489168E+0	1.551639E+0	1.397524E+0	1.403302E+0	1.319970E+0	1.423806E+0	1.494526E+0	1.470824E+0	1.385476E+0	1.513366E+0	1.527505E+0	1.534717E+0	1.481769E+0	1.541931E+0	1.389591E+0	1.156655E+0	1.561397E+0	1.600389E+0	1.294867E+0	1.256858E+0	1.493182E+0	1.576836E+0	1.412734E+0	1.398043E+0	1.358311E+0	1.601924E+0	1.570643E+0	1.534691E+0	1.494630E+0	1.570180E+0	1.415688E+0	1.474090E+0	1.537394E+0	1.593088E+0	1.315170E+0	1.295606E+0	1.519399E+0	1.651019E+0	1.428141E+0	1.382377E+0	1.409139E+0	1.564643E+0	1.549152E+0	1.547813E+0	1.542086E+0	1.605989E+0	1.567749E+0
5.452800E+2	1.218248E+0	1.507160E+0	1.457164E+0	1.561148E+0	1.244817E+0	1.511952E+0	1.548390E+0	1.557974E+0	1.395673E+0	1.502911E+0	1.485960E+0	1.425122E+0	1.528305E+0	1.558514E+0	1.456517E+0	1.292686E+0	1.459172E+0	1.539066E+0	1.534346E+0	1.344072E+0	1.341830E+0	1.470173E+0	1.557399E+0	1.530248E+0	1.485864E+0	1.496623E+0	1.441730E+0	1.431345E+0	1.491652E+0	1.506183E+0	1.419729E+0	1.355268E+0	1.397766E+0	1.541765E+0	1.485861E+0	1.287029E+0	1.362796E+0	1.454552E+0	1.497531E+0	1.509974E+0	1.433882E+0	1.481620E+0	1.314117E+0	1.477971E+0	1.480764E+0	1.484356E+0	1.318550E+0	1.232379E+0	1.446572E+0	1.507291E+0	1.437730E+0	1.416630E+0	1.330153E+0	1.517057E+0	1.511246E+0	1.441094E+0	1.419303E+0	1.491217E+0	1.356436E+0	1.467920E+0	1.516574E+0	1.545245E+0	1.273150E+0	1.230661E+0	1.431963E+0	1.529865E+0	1.433397E+0	1.359175E+0	1.381240E+0	1.494347E+0	1.550988E+0	1.421063E+0	1.433678E+0	1.536708E+0	1.348429E+0	1.402722E+0	1.537709E+0	1.539356E+0	1.305508E+0	1.274152E+0	1.362057E+0	1.494540E+0	1.482750E+0	1.378939E+0	1.312784E+0	1.550627E+0	1.531511E+0	1.527790E+0	1.427848E+0	1.513255E+0	1.368870E+0	1.347003E+0	1.553079E+0	1.492245E+0	1.328336E+0	1.233027E+0	1.481978E+0	1.496500E+0	1.435326E+0	1.390660E+0	1.351823E+0	1.464661E+0	1.505384E+0	1.502836E+0	1.436951E+0	1.488648E+0	1.383077E+0	1.406807E+0	1.555389E+0	1.540345E+0	1.281937E+0	1.292123E+0	1.411099E+0	1.537820E+0	1.396754E+0	1.353601E+0	1.333919E+0	1.483888E+0	1.489598E+0	1.525430E+0	1.436504E+0	1.536300E+0	1.415891E+0	1.399664E+0	1.490725E+0	1.499042E+0	1.401953E+0	1.314033E+0	1.254728E+0	1.394431E+0	1.468716E+0	1.372681E+0	1.349620E+0	1.497733E+0	1.451858E+0	1.470108E+0	1.383663E+0	1.486214E+0	1.313144E+0	1.171302E+0	1.531138E+0	1.540713E+0	1.257288E+0	1.235142E+0	1.416280E+0	1.489157E+0	1.356196E+0	1.352308E+0	1.349523E+0	1.512201E+0	1.482775E+0	1.471339E+0	1.385161E+0	1.420775E+0	1.367421E+0	1.372766E+0	1.484250E+0	1.483480E+0	1.358025E+0	1.214937E+0	1.472574E+0	1.553807E+0	1.377789E+0	1.281119E+0	1.346583E+0	1.500173E+0	1.489581E+0	1.404556E+0	1.475634E+0	1.548107E+0	1.693729E+0
5.455180E+2	1.090344E+0	1.305250E+0	1.333230E+0	1.350390E+0	1.150801E+0	1.356926E+0	1.406423E+0	1.411137E+0	1.287100E+0	1.399972E+0	1.376845E+0	1.317094E+0	1.404690E+0	1.344674E+0	1.389926E+0	1.188263E+0	1.272094E+0	1.304515E+0	1.399384E+0	1.183353E+0	1.175909E+0	1.342948E+0	1.333317E+0	1.368899E+0	1.286518E+0	1.359750E+0	1.393160E+0	1.269925E+0	1.381426E+0	1.405119E+0	1.406023E+0	1.163568E+0	1.315399E+0	1.400356E+0	1.379735E+0	1.240444E+0	1.211325E+0	1.337072E+0	1.361000E+0	1.348522E+0	1.209029E+0	1.361777E+0	1.367932E+0	1.301457E+0	1.378658E+0	1.342318E+0	1.374006E+0	1.158570E+0	1.341760E+0	1.363080E+0	1.405826E+0	1.217852E+0	1.171512E+0	1.351068E+0	1.393248E+0	1.353433E+0	1.400099E+0	1.383127E+0	1.303996E+0	1.336562E+0	1.387853E+0	1.422796E+0	1.251898E+0	1.120254E+0	1.286588E+0	1.354552E+0	1.296439E+0	1.231226E+0	1.250240E+0	1.353584E+0	1.335175E+0	1.324966E+0	1.332170E+0	1.326211E+0	1.308813E+0	1.230355E+0	1.392058E+0	1.399469E+0	1.229316E+0	1.118940E+0	1.237010E+0	1.272739E+0	1.313983E+0	1.248068E+0	1.192397E+0	1.322715E+0	1.378725E+0	1.347036E+0	1.316417E+0	1.330860E+0	1.229091E+0	1.233046E+0	1.377921E+0	1.412922E+0	1.222451E+0	1.109798E+0	1.316082E+0	1.444816E+0	1.306714E+0	1.256680E+0	1.227123E+0	1.369441E+0	1.336697E+0	1.336367E+0	1.232556E+0	1.399252E+0	1.239017E+0	1.289333E+0	1.374102E+0	1.369242E+0	1.164016E+0	1.163141E+0	1.238114E+0	1.349157E+0	1.252221E+0	1.262491E+0	1.192943E+0	1.400205E+0	1.281354E+0	1.357672E+0	1.316696E+0	1.393937E+0	1.268478E+0	1.237135E+0	1.338782E+0	1.367793E+0	1.202818E+0	1.216308E+0	1.138427E+0	1.233476E+0	1.236423E+0	1.236892E+0	1.210976E+0	1.333054E+0	1.380474E+0	1.360528E+0	1.291109E+0	1.383348E+0	1.230227E+0	1.006816E+0	1.313760E+0	1.389342E+0	1.119491E+0	1.116139E+0	1.358288E+0	1.364628E+0	1.253918E+0	1.241244E+0	1.197707E+0	1.356274E+0	1.319224E+0	1.382835E+0	1.284498E+0	1.320765E+0	1.215385E+0	1.289141E+0	1.349710E+0	1.363859E+0	1.169642E+0	1.112670E+0	1.324207E+0	1.347089E+0	1.160179E+0	1.225735E+0	1.207237E+0	1.353554E+0	1.316499E+0	1.388476E+0	1.233858E+0	1.354332E+0	1.097425E+0
5.457620E+2	1.101677E+0	1.262220E+0	1.295454E+0	1.257429E+0	1.119601E+0	1.267527E+0	1.301281E+0	1.343984E+0	1.244007E+0	1.287938E+0	1.297020E+0	1.227494E+0	1.293848E+0	1.294884E+0	1.334894E+0	1.077824E+0	1.222048E+0	1.265520E+0	1.314409E+0	1.118946E+0	1.131692E+0	1.271794E+0	1.331414E+0	1.269614E+0	1.234616E+0	1.212719E+0	1.337485E+0	1.195890E+0	1.291481E+0	1.289423E+0	1.265674E+0	1.124971E+0	1.210151E+0	1.312649E+0	1.325452E+0	1.177138E+0	1.123972E+0	1.209254E+0	1.269656E+0	1.289340E+0	1.222116E+0	1.323518E+0	1.294654E+0	1.308996E+0	1.257864E+0	1.300989E+0	1.327793E+0	1.044108E+0	1.224919E+0	1.265488E+0	1.337882E+0	1.177636E+0	1.125279E+0	1.332954E+0	1.325684E+0	1.253845E+0	1.277906E+0	1.281501E+0	1.331026E+0	1.243072E+0	1.334103E+0	1.309124E+0	1.315220E+0	1.053570E+0	1.229728E+0	1.283967E+0	1.248960E+0	1.133887E+0	1.210080E+0	1.351124E+0	1.297686E+0	1.247899E+0	1.330255E+0	1.285777E+0	1.275293E+0	1.209623E+0	1.283281E+0	1.301645E+0	1.314283E+0	1.078182E+0	1.198978E+0	1.240784E+0	1.286389E+0	1.170015E+0	1.106217E+0	1.292218E+0	1.284777E+0	1.265766E+0	1.202007E+0	1.343615E+0	1.277213E+0	1.229466E+0	1.345082E+0	1.323925E+0	1.252096E+0	1.096055E+0	1.290963E+0	1.288467E+0	1.224756E+0	1.159344E+0	1.174922E+0	1.325211E+0	1.279615E+0	1.271204E+0	1.234298E+0	1.302304E+0	1.213883E+0	1.238646E+0	1.264738E+0	1.329463E+0	1.070216E+0	1.107365E+0	1.220511E+0	1.274992E+0	1.179363E+0	1.130138E+0	1.159581E+0	1.256679E+0	1.262006E+0	1.310878E+0	1.223774E+0	1.315453E+0	1.267249E+0	1.212985E+0	1.279151E+0	1.321586E+0	1.172827E+0	1.155232E+0	1.094743E+0	1.164933E+0	1.226099E+0	1.207986E+0	1.162689E+0	1.291884E+0	1.311752E+0	1.282478E+0	1.247301E+0	1.315387E+0	1.157894E+0	9.854100E-1	1.299134E+0	1.286002E+0	1.062635E+0	1.084433E+0	1.249238E+0	1.281397E+0	1.227872E+0	1.127455E+0	1.173298E+0	1.338767E+0	1.266908E+0	1.310293E+0	1.200821E+0	1.254904E+0	1.230468E+0	1.257402E+0	1.262090E+0	1.309534E+0	1.098997E+0	1.055366E+0	1.246357E+0	1.342990E+0	1.203941E+0	1.183217E+0	1.141126E+0	1.305201E+0	1.258179E+0	1.278840E+0	1.257894E+0	1.452480E+0	1.357783E+0
5.460160E+2	1.183709E+0	1.292671E+0	1.246410E+0	1.296905E+0	1.075088E+0	1.249956E+0	1.275664E+0	1.297380E+0	1.194198E+0	1.227085E+0	1.281513E+0	1.227494E+0	1.311181E+0	1.292217E+0	1.316862E+0	1.127241E+0	1.208345E+0	1.249129E+0	1.295040E+0	1.158536E+0	1.135795E+0	1.318912E+0	1.329037E+0	1.252427E+0	1.287107E+0	1.354971E+0	1.366509E+0	1.231694E+0	1.341302E+0	1.293997E+0	1.322852E+0	1.091947E+0	1.210151E+0	1.311456E+0	1.324232E+0	1.178333E+0	1.145919E+0	1.281621E+0	1.296381E+0	1.275134E+0	1.203081E+0	1.234059E+0	1.224239E+0	1.197181E+0	1.281110E+0	1.326640E+0	1.306072E+0	1.076369E+0	1.251836E+0	1.311487E+0	1.324884E+0	1.217851E+0	1.127545E+0	1.352537E+0	1.336454E+0	1.292394E+0	1.276160E+0	1.269752E+0	1.338595E+0	1.238339E+0	1.290255E+0	1.341472E+0	1.295703E+0	1.074766E+0	1.203349E+0	1.305953E+0	1.290961E+0	1.122868E+0	1.162267E+0	1.313718E+0	1.285525E+0	1.286909E+0	1.285565E+0	1.245937E+0	1.293577E+0	1.228578E+0	1.315084E+0	1.288925E+0	1.358612E+0	1.091768E+0	1.228366E+0	1.222615E+0	1.328741E+0	1.188795E+0	1.138202E+0	1.264402E+0	1.322461E+0	1.276974E+0	1.238355E+0	1.339789E+0	1.324760E+0	1.181735E+0	1.295324E+0	1.300705E+0	1.333511E+0	1.089408E+0	1.248321E+0	1.347905E+0	1.300410E+0	1.186255E+0	1.154138E+0	1.247680E+0	1.264701E+0	1.278814E+0	1.226749E+0	1.263902E+0	1.362235E+0	1.228508E+0	1.322375E+0	1.329460E+0	1.305162E+0	1.076429E+0	1.222333E+0	1.306219E+0	1.291908E+0	1.220015E+0	1.114940E+0	1.320580E+0	1.337869E+0	1.307890E+0	1.202735E+0	1.307544E+0	1.238995E+0	1.182307E+0	1.324785E+0	1.286684E+0	1.245103E+0	1.106840E+0	1.093041E+0	1.135557E+0	1.259006E+0	1.212692E+0	1.167950E+0	1.243420E+0	1.284052E+0	1.257666E+0	1.196088E+0	1.276201E+0	1.287857E+0	9.702010E-1	1.308213E+0	1.296677E+0	1.202840E+0	1.017980E+0	1.173596E+0	1.355733E+0	1.190391E+0	1.176454E+0	1.119601E+0	1.302660E+0	1.302972E+0	1.282242E+0	1.225988E+0	1.279297E+0	1.188236E+0	1.226271E+0	1.278370E+0	1.296663E+0	1.071681E+0	1.076083E+0	1.263283E+0	1.309024E+0	1.211134E+0	1.127832E+0	1.175707E+0	1.329115E+0	1.263196E+0	1.294189E+0	1.191442E+0	1.502809E+0	1.206606E+0
5.467710E+2	1.250091E+0	1.215880E+0	1.249062E+0	1.274620E+0	1.065938E+0	1.268045E+0	1.300747E+0	1.296880E+0	1.184124E+0	1.217987E+0	1.249928E+0	1.206524E+0	1.268303E+0	1.326891E+0	1.315935E+0	1.063640E+0	1.164853E+0	1.276258E+0	1.323781E+0	1.189852E+0	1.126677E+0	1.239280E+0	1.343784E+0	1.278681E+0	1.193921E+0	1.257546E+0	1.322679E+0	1.157659E+0	1.280458E+0	1.291708E+0	1.325688E+0	1.044772E+0	1.213011E+0	1.292362E+0	1.252872E+0	1.187888E+0	1.108481E+0	1.215362E+0	1.292008E+0	1.245778E+0	1.240557E+0	1.205362E+0	1.271754E+0	1.221052E+0	1.243276E+0	1.267260E+0	1.270025E+0	1.045432E+0	1.262721E+0	1.261759E+0	1.262259E+0	1.164997E+0	1.090380E+0	1.227193E+0	1.312464E+0	1.236863E+0	1.152802E+0	1.292075E+0	1.279128E+0	1.172659E+0	1.320902E+0	1.311437E+0	1.305243E+0	1.050034E+0	1.250830E+0	1.246938E+0	1.300700E+0	1.141234E+0	1.149837E+0	1.368349E+0	1.322002E+0	1.213646E+0	1.299611E+0	1.228098E+0	1.241163E+0	1.153353E+0	1.261620E+0	1.267892E+0	1.282881E+0	1.067478E+0	1.189758E+0	1.192540E+0	1.296015E+0	1.148301E+0	1.132870E+0	1.305061E+0	1.306974E+0	1.259225E+0	1.173404E+0	1.224357E+0	1.360850E+0	1.188894E+0	1.305773E+0	1.276037E+0	1.311866E+0	1.037545E+0	1.224371E+0	1.263917E+0	1.209625E+0	1.120410E+0	1.120304E+0	1.212295E+0	1.222530E+0	1.277387E+0	1.244750E+0	1.296638E+0	1.343228E+0	1.249975E+0	1.260797E+0	1.249421E+0	1.216277E+0	1.099958E+0	1.219904E+0	1.274342E+0	1.317379E+0	1.153531E+0	1.103191E+0	1.294208E+0	1.319543E+0	1.296939E+0	1.201566E+0	1.221152E+0	1.226710E+0	1.115076E+0	1.256850E+0	1.240967E+0	1.276078E+0	1.099790E+0	1.067511E+0	1.120869E+0	1.229970E+0	1.154880E+0	1.152171E+0	1.196520E+0	1.281920E+0	1.269037E+0	1.147343E+0	1.338653E+0	1.243751E+0	9.775239E-1	1.266855E+0	1.269993E+0	1.315106E+0	1.030142E+0	1.204484E+0	1.236922E+0	1.274246E+0	1.122010E+0	1.140591E+0	1.285699E+0	1.297384E+0	1.254674E+0	1.205226E+0	1.255514E+0	1.261237E+0	1.192700E+0	1.204635E+0	1.268547E+0	1.287854E+0	1.029358E+0	1.218150E+0	1.290284E+0	1.269883E+0	1.094266E+0	1.142143E+0	1.290122E+0	1.244382E+0	1.262760E+0	1.276274E+0	1.324133E+0	1.223404E+0
5.475230E+2	1.250090E+0	1.427720E+0	1.388901E+0	1.416610E+0	1.138738E+0	1.407055E+0	1.408025E+0	1.388587E+0	1.267512E+0	1.372106E+0	1.380290E+0	1.276425E+0	1.406974E+0	1.419363E+0	1.370964E+0	1.203304E+0	1.282222E+0	1.405117E+0	1.372517E+0	1.205216E+0	1.213742E+0	1.339646E+0	1.406110E+0	1.329759E+0	1.380883E+0	1.410554E+0	1.424553E+0	1.308764E+0	1.403912E+0	1.374022E+0	1.334194E+0	1.225321E+0	1.279935E+0	1.382459E+0	1.416939E+0	1.225514E+0	1.222513E+0	1.329081E+0	1.402299E+0	1.363674E+0	1.292308E+0	1.397789E+0	1.422317E+0	1.263767E+0	1.344470E+0	1.414047E+0	1.395726E+0	1.128079E+0	1.378414E+0	1.389188E+0	1.361515E+0	1.238534E+0	1.245391E+0	1.394647E+0	1.427032E+0	1.361697E+0	1.360533E+0	1.353169E+0	1.369953E+0	1.287451E+0	1.380781E+0	1.418637E+0	1.383744E+0	1.179871E+0	1.316484E+0	1.365549E+0	1.409048E+0	1.252653E+0	1.317652E+0	1.398864E+0	1.397995E+0	1.304986E+0	1.368560E+0	1.385079E+0	1.440456E+0	1.299657E+0	1.409113E+0	1.414143E+0	1.421415E+0	1.192636E+0	1.298093E+0	1.379880E+0	1.373661E+0	1.259219E+0	1.245262E+0	1.351071E+0	1.446343E+0	1.367117E+0	1.272322E+0	1.309177E+0	1.392359E+0	1.318961E+0	1.465996E+0	1.402277E+0	1.415393E+0	1.147475E+0	1.291546E+0	1.425433E+0	1.417045E+0	1.271566E+0	1.232440E+0	1.365276E+0	1.386069E+0	1.367280E+0	1.274364E+0	1.418140E+0	1.434570E+0	1.343598E+0	1.377056E+0	1.451680E+0	1.394944E+0	1.191900E+0	1.281815E+0	1.420718E+0	1.348774E+0	1.168921E+0	1.209863E+0	1.384483E+0	1.465667E+0	1.379077E+0	1.337735E+0	1.431657E+0	1.320073E+0	1.293270E+0	1.426423E+0	1.426290E+0	1.417192E+0	1.157112E+0	1.148639E+0	1.283048E+0	1.348698E+0	1.310164E+0	1.225318E+0	1.352339E+0	1.402849E+0	1.339850E+0	1.346023E+0	1.366818E+0	1.412524E+0	1.061456E+0	1.420681E+0	1.371393E+0	1.455311E+0	1.176076E+0	1.313534E+0	1.376064E+0	1.349843E+0	1.253766E+0	1.233829E+0	1.358463E+0	1.429948E+0	1.378000E+0	1.303371E+0	1.399431E+0	1.383107E+0	1.330038E+0	1.381787E+0	1.388165E+0	1.405595E+0	1.155428E+0	1.368208E+0	1.371685E+0	1.349612E+0	1.233007E+0	1.273353E+0	1.387349E+0	1.396141E+0	1.352662E+0	1.363937E+0	1.510359E+0	1.727325E+0
5.482600E+2	1.368821E+0	1.469427E+0	1.474396E+0	1.435075E+0	1.255218E+0	1.424621E+0	1.483278E+0	1.419659E+0	1.388396E+0	1.466514E+0	1.526158E+0	1.316458E+0	1.469006E+0	1.546064E+0	1.486576E+0	1.266472E+0	1.299500E+0	1.436768E+0	1.559961E+0	1.267850E+0	1.298072E+0	1.425879E+0	1.450355E+0	1.454350E+0	1.378522E+0	1.464348E+0	1.547157E+0	1.353667E+0	1.503555E+0	1.511212E+0	1.483050E+0	1.243336E+0	1.357154E+0	1.470765E+0	1.466344E+0	1.321668E+0	1.255650E+0	1.439040E+0	1.474693E+0	1.465941E+0	1.411277E+0	1.442800E+0	1.478993E+0	1.411388E+0	1.460708E+0	1.510484E+0	1.507565E+0	1.231051E+0	1.406479E+0	1.522210E+0	1.493857E+0	1.353435E+0	1.317004E+0	1.529297E+0	1.499985E+0	1.429162E+0	1.454799E+0	1.409564E+0	1.512138E+0	1.368512E+0	1.515159E+0	1.478245E+0	1.462680E+0	1.211229E+0	1.336414E+0	1.504983E+0	1.420006E+0	1.277141E+0	1.367376E+0	1.488933E+0	1.416740E+0	1.427720E+0	1.385159E+0	1.446327E+0	1.574537E+0	1.431745E+0	1.472721E+0	1.429306E+0	1.528546E+0	1.221042E+0	1.376462E+0	1.394915E+0	1.473124E+0	1.367203E+0	1.267030E+0	1.459144E+0	1.516542E+0	1.434845E+0	1.437977E+0	1.473075E+0	1.451936E+0	1.367886E+0	1.577457E+0	1.485957E+0	1.504807E+0	1.266713E+0	1.389101E+0	1.428664E+0	1.423349E+0	1.283017E+0	1.261438E+0	1.494322E+0	1.516696E+0	1.399626E+0	1.423015E+0	1.451503E+0	1.476867E+0	1.428870E+0	1.507110E+0	1.486191E+0	1.501697E+0	1.245931E+0	1.392282E+0	1.463004E+0	1.415707E+0	1.281575E+0	1.299146E+0	1.483381E+0	1.479414E+0	1.463204E+0	1.412541E+0	1.513184E+0	1.460115E+0	1.344183E+0	1.464277E+0	1.468073E+0	1.429976E+0	1.293362E+0	1.203102E+0	1.316708E+0	1.435162E+0	1.368648E+0	1.290336E+0	1.431548E+0	1.451324E+0	1.463905E+0	1.420066E+0	1.445802E+0	1.483682E+0	1.132996E+0	1.520038E+0	1.501901E+0	1.461094E+0	1.173468E+0	1.382241E+0	1.463743E+0	1.437510E+0	1.343054E+0	1.311936E+0	1.452018E+0	1.507152E+0	1.480526E+0	1.393339E+0	1.345767E+0	1.459126E+0	1.359337E+0	1.452646E+0	1.455840E+0	1.468232E+0	1.175707E+0	1.416159E+0	1.515743E+0	1.430542E+0	1.308532E+0	1.280471E+0	1.467417E+0	1.473902E+0	1.517116E+0	1.427562E+0	1.442412E+0	1.399776E+0
5.490100E+2	1.384472E+0	1.430369E+0	1.471745E+0	1.445900E+0	1.223185E+0	1.450978E+0	1.477406E+0	1.482300E+0	1.381682E+0	1.473906E+0	1.502038E+0	1.386359E+0	1.520549E+0	1.534061E+0	1.530042E+0	1.250573E+0	1.378144E+0	1.453722E+0	1.463740E+0	1.367118E+0	1.304454E+0	1.449911E+0	1.491270E+0	1.433344E+0	1.412143E+0	1.446419E+0	1.522282E+0	1.384617E+0	1.514581E+0	1.479660E+0	1.483051E+0	1.242049E+0	1.385754E+0	1.479714E+0	1.496229E+0	1.278070E+0	1.272430E+0	1.402859E+0	1.485871E+0	1.417174E+0	1.389268E+0	1.481055E+0	1.481852E+0	1.380608E+0	1.474383E+0	1.527584E+0	1.494160E+0	1.210723E+0	1.407053E+0	1.439538E+0	1.457818E+0	1.368372E+0	1.273043E+0	1.467602E+0	1.514672E+0	1.471843E+0	1.400099E+0	1.467720E+0	1.456994E+0	1.401059E+0	1.506672E+0	1.475472E+0	1.528169E+0	1.230660E+0	1.396791E+0	1.489943E+0	1.476615E+0	1.357338E+0	1.336297E+0	1.482535E+0	1.492730E+0	1.399653E+0	1.520504E+0	1.502813E+0	1.451425E+0	1.405682E+0	1.477789E+0	1.501206E+0	1.423261E+0	1.227218E+0	1.357446E+0	1.449427E+0	1.505208E+0	1.332578E+0	1.330556E+0	1.484822E+0	1.472150E+0	1.459132E+0	1.430231E+0	1.494759E+0	1.505785E+0	1.382800E+0	1.473960E+0	1.510623E+0	1.534927E+0	1.205099E+0	1.400781E+0	1.518465E+0	1.453611E+0	1.363749E+0	1.334424E+0	1.456335E+0	1.471955E+0	1.457653E+0	1.409660E+0	1.491795E+0	1.498936E+0	1.376989E+0	1.510561E+0	1.475642E+0	1.541450E+0	1.261185E+0	1.355866E+0	1.480571E+0	1.487385E+0	1.300043E+0	1.345197E+0	1.441791E+0	1.492140E+0	1.450261E+0	1.395592E+0	1.499189E+0	1.445376E+0	1.397707E+0	1.461687E+0	1.467089E+0	1.496845E+0	1.271279E+0	1.197995E+0	1.359547E+0	1.421612E+0	1.337053E+0	1.275037E+0	1.377350E+0	1.458783E+0	1.402394E+0	1.389832E+0	1.474580E+0	1.533078E+0	1.160035E+0	1.439343E+0	1.539743E+0	1.372923E+0	1.278141E+0	1.413758E+0	1.461835E+0	1.455933E+0	1.338156E+0	1.265071E+0	1.485395E+0	1.491915E+0	1.457314E+0	1.343008E+0	1.451875E+0	1.526697E+0	1.356283E+0	1.406684E+0	1.483481E+0	1.514859E+0	1.203036E+0	1.398107E+0	1.473579E+0	1.459917E+0	1.277763E+0	1.339465E+0	1.478858E+0	1.473902E+0	1.411134E+0	1.468565E+0	1.553141E+0	1.693729E+0
5.497680E+2	1.270598E+0	1.348280E+0	1.390890E+0	1.408333E+0	1.132080E+0	1.354858E+0	1.315690E+0	1.371048E+0	1.306687E+0	1.372108E+0	1.334348E+0	1.325354E+0	1.344937E+0	1.358901E+0	1.393625E+0	1.186543E+0	1.247071E+0	1.285867E+0	1.365018E+0	1.214670E+0	1.204626E+0	1.276978E+0	1.352348E+0	1.357446E+0	1.352572E+0	1.386647E+0	1.350517E+0	1.273567E+0	1.354972E+0	1.401916E+0	1.357349E+0	1.157562E+0	1.298237E+0	1.388426E+0	1.379125E+0	1.218347E+0	1.217782E+0	1.311225E+0	1.390153E+0	1.302120E+0	1.241746E+0	1.352214E+0	1.313546E+0	1.300201E+0	1.397803E+0	1.363695E+0	1.360142E+0	1.101120E+0	1.278756E+0	1.309623E+0	1.431820E+0	1.276452E+0	1.183747E+0	1.325120E+0	1.389335E+0	1.366287E+0	1.311073E+0	1.369029E+0	1.378604E+0	1.260821E+0	1.324673E+0	1.354873E+0	1.362492E+0	1.098173E+0	1.263727E+0	1.404889E+0	1.371918E+0	1.201229E+0	1.279880E+0	1.441685E+0	1.380261E+0	1.336385E+0	1.275989E+0	1.312535E+0	1.356960E+0	1.299065E+0	1.352421E+0	1.424414E+0	1.368309E+0	1.145703E+0	1.227790E+0	1.299680E+0	1.377511E+0	1.273305E+0	1.182179E+0	1.377820E+0	1.394726E+0	1.313872E+0	1.242527E+0	1.367211E+0	1.366006E+0	1.190088E+0	1.446591E+0	1.328276E+0	1.415396E+0	1.104035E+0	1.283954E+0	1.331108E+0	1.362825E+0	1.228624E+0	1.204889E+0	1.320008E+0	1.328471E+0	1.292610E+0	1.283654E+0	1.306711E+0	1.355492E+0	1.302453E+0	1.390853E+0	1.374516E+0	1.363233E+0	1.172293E+0	1.298203E+0	1.393395E+0	1.320933E+0	1.242793E+0	1.147833E+0	1.333260E+0	1.359764E+0	1.338255E+0	1.269359E+0	1.356823E+0	1.326215E+0	1.272383E+0	1.359009E+0	1.340754E+0	1.371958E+0	1.149124E+0	1.138994E+0	1.231641E+0	1.362248E+0	1.248319E+0	1.195199E+0	1.369535E+0	1.316547E+0	1.327962E+0	1.304683E+0	1.361308E+0	1.330787E+0	1.065400E+0	1.415638E+0	1.393223E+0	1.366659E+0	1.104845E+0	1.280125E+0	1.331589E+0	1.358737E+0	1.208577E+0	1.202586E+0	1.394026E+0	1.299415E+0	1.336405E+0	1.219696E+0	1.362233E+0	1.369834E+0	1.267167E+0	1.346355E+0	1.334791E+0	1.402770E+0	1.129864E+0	1.318000E+0	1.305510E+0	1.358006E+0	1.172588E+0	1.174691E+0	1.363951E+0	1.357888E+0	1.372396E+0	1.399284E+0	1.399630E+0	1.660135E+0
5.505060E+2	1.349393E+0	1.397930E+0	1.333230E+0	1.356758E+0	1.137490E+0	1.331088E+0	1.400018E+0	1.436196E+0	1.279826E+0	1.383478E+0	1.386034E+0	1.414319E+0	1.374129E+0	1.407802E+0	1.390851E+0	1.428048E+0	1.259582E+0	1.351991E+0	1.395011E+0	1.403163E+0	1.193231E+0	1.349071E+0	1.345211E+0	1.397066E+0	1.317776E+0	1.389635E+0	1.343408E+0	1.349421E+0	1.376134E+0	1.389110E+0	1.386646E+0	1.290079E+0	1.266206E+0	1.405132E+0	1.360218E+0	1.299568E+0	1.208315E+0	1.316393E+0	1.450403E+0	1.401077E+0	1.312533E+0	1.348275E+0	1.355334E+0	1.366788E+0	1.399170E+0	1.385545E+0	1.364763E+0	1.173155E+0	1.333740E+0	1.381107E+0	1.414095E+0	1.305177E+0	1.201428E+0	1.393180E+0	1.378562E+0	1.345633E+0	1.357622E+0	1.353170E+0	1.382928E+0	1.255498E+0	1.414257E+0	1.420486E+0	1.366397E+0	1.117604E+0	1.353414E+0	1.384641E+0	1.434006E+0	1.163885E+0	1.212467E+0	1.353584E+0	1.422817E+0	1.353034E+0	1.323232E+0	1.344644E+0	1.357570E+0	1.281886E+0	1.362098E+0	1.382837E+0	1.382626E+0	1.170404E+0	1.258332E+0	1.279631E+0	1.440397E+0	1.273891E+0	1.182625E+0	1.350537E+0	1.370981E+0	1.351239E+0	1.309862E+0	1.383155E+0	1.417565E+0	1.252735E+0	1.416239E+0	1.371321E+0	1.366453E+0	1.136836E+0	1.306150E+0	1.387316E+0	1.383629E+0	1.220036E+0	1.245006E+0	1.466741E+0	1.340300E+0	1.317342E+0	1.320236E+0	1.404919E+0	1.350587E+0	1.292910E+0	1.347500E+0	1.402792E+0	1.406557E+0	1.211946E+0	1.268462E+0	1.407056E+0	1.351736E+0	1.244639E+0	1.206573E+0	1.419986E+0	1.380129E+0	1.332280E+0	1.317281E+0	1.351350E+0	1.367368E+0	1.336350E+0	1.359527E+0	1.379591E+0	1.371465E+0	1.205504E+0	1.157149E+0	1.253672E+0	1.353860E+0	1.292014E+0	1.244442E+0	1.371619E+0	1.334124E+0	1.328481E+0	1.315790E+0	1.352737E+0	1.330199E+0	1.062020E+0	1.416647E+0	1.387403E+0	1.367140E+0	1.138289E+0	1.251129E+0	1.368440E+0	1.361278E+0	1.258665E+0	1.199659E+0	1.374332E+0	1.409634E+0	1.384284E+0	1.249266E+0	1.418944E+0	1.384316E+0	1.311725E+0	1.359760E+0	1.427720E+0	1.379693E+0	1.149255E+0	1.333795E+0	1.351187E+0	1.356806E+0	1.187133E+0	1.194525E+0	1.427382E+0	1.433140E+0	1.354854E+0	1.279103E+0	1.465062E+0	1.315789E+0
5.512620E+2	1.290566E+0	1.315842E+0	1.374321E+0	1.363762E+0	1.172016E+0	1.351758E+0	1.356787E+0	1.402619E+0	1.305009E+0	1.369830E+0	1.368230E+0	1.356492E+0	1.340830E+0	1.388243E+0	1.362181E+0	1.403984E+0	1.242901E+0	1.390988E+0	1.356271E+0	1.338165E+0	1.214652E+0	1.338708E+0	1.400400E+0	1.341216E+0	1.282979E+0	1.377084E+0	1.401453E+0	1.338500E+0	1.362026E+0	1.378597E+0	1.396575E+0	1.387430E+0	1.249620E+0	1.393199E+0	1.372416E+0	1.327640E+0	1.173889E+0	1.316397E+0	1.418331E+0	1.420015E+0	1.291715E+0	1.348836E+0	1.354762E+0	1.393797E+0	1.360880E+0	1.394572E+0	1.380015E+0	1.407390E+0	1.304531E+0	1.411565E+0	1.394010E+0	1.408012E+0	1.205054E+0	1.362818E+0	1.425075E+0	1.344258E+0	1.366350E+0	1.349645E+0	1.414284E+0	1.343069E+0	1.402940E+0	1.375666E+0	1.384611E+0	1.236843E+0	1.315312E+0	1.373648E+0	1.359744E+0	1.338973E+0	1.242589E+0	1.389019E+0	1.361519E+0	1.330675E+0	1.338555E+0	1.320859E+0	1.380731E+0	1.228578E+0	1.346428E+0	1.420989E+0	1.398790E+0	1.129644E+0	1.247382E+0	1.309705E+0	1.370452E+0	1.226354E+0	1.197283E+0	1.320578E+0	1.373043E+0	1.358711E+0	1.318203E+0	1.436089E+0	1.369443E+0	1.276004E+0	1.423205E+0	1.397925E+0	1.395629E+0	1.170528E+0	1.290963E+0	1.380854E+0	1.357781E+0	1.238931E+0	1.214070E+0	1.405862E+0	1.356756E+0	1.307352E+0	1.283073E+0	1.396105E+0	1.367138E+0	1.263096E+0	1.366712E+0	1.383142E+0	1.383776E+0	1.182314E+0	1.294561E+0	1.409659E+0	1.389053E+0	1.255104E+0	1.192475E+0	1.341376E+0	1.430535E+0	1.354188E+0	1.298580E+0	1.363517E+0	1.335429E+0	1.269772E+0	1.372492E+0	1.361402E+0	1.362127E+0	1.198456E+0	1.165659E+0	1.223073E+0	1.331921E+0	1.269158E+0	1.179424E+0	1.364845E+0	1.401249E+0	1.324863E+0	1.312087E+0	1.383350E+0	1.381948E+0	1.045120E+0	1.392438E+0	1.376728E+0	1.346902E+0	1.112665E+0	1.325510E+0	1.323965E+0	1.316174E+0	1.236889E+0	1.213813E+0	1.406609E+0	1.401001E+0	1.368809E+0	1.353703E+0	1.321374E+0	1.379487E+0	1.287310E+0	1.361680E+0	1.345751E+0	1.343897E+0	1.107379E+0	1.288103E+0	1.395109E+0	1.309448E+0	1.156923E+0	1.228089E+0	1.405546E+0	1.446310E+0	1.346083E+0	1.321519E+0	1.376981E+0	1.416573E+0
5.520150E+2	1.229043E+0	1.276783E+0	1.309371E+0	1.363125E+0	1.123342E+0	1.352793E+0	1.320494E+0	1.349497E+0	1.209869E+0	1.311823E+0	1.347557E+0	1.370472E+0	1.334902E+0	1.321113E+0	1.347383E+0	1.391953E+0	1.255412E+0	1.294908E+0	1.360645E+0	1.328713E+0	1.202802E+0	1.304305E+0	1.344262E+0	1.333579E+0	1.250540E+0	1.296993E+0	1.341633E+0	1.328789E+0	1.336895E+0	1.397801E+0	1.348842E+0	1.356125E+0	1.233031E+0	1.386637E+0	1.371806E+0	1.315695E+0	1.149362E+0	1.282090E+0	1.364886E+0	1.365566E+0	1.247100E+0	1.306640E+0	1.302094E+0	1.377467E+0	1.317579E+0	1.324739E+0	1.376779E+0	1.336677E+0	1.289067E+0	1.314596E+0	1.344381E+0	1.307474E+0	1.190550E+0	1.366739E+0	1.340862E+0	1.318099E+0	1.311655E+0	1.325560E+0	1.339136E+0	1.340702E+0	1.341647E+0	1.357182E+0	1.359023E+0	1.310155E+0	1.246727E+0	1.293225E+0	1.368875E+0	1.395907E+0	1.251195E+0	1.306827E+0	1.344292E+0	1.353511E+0	1.237045E+0	1.288155E+0	1.366712E+0	1.352373E+0	1.319694E+0	1.334412E+0	1.332755E+0	1.360612E+0	1.231825E+0	1.223868E+0	1.362752E+0	1.302648E+0	1.165301E+0	1.325392E+0	1.385435E+0	1.390004E+0	1.283048E+0	1.356368E+0	1.353402E+0	1.237222E+0	1.387876E+0	1.328275E+0	1.410218E+0	1.203770E+0	1.278111E+0	1.280715E+0	1.341390E+0	1.226907E+0	1.227121E+0	1.342379E+0	1.316128E+0	1.330661E+0	1.257525E+0	1.311747E+0	1.387367E+0	1.301855E+0	1.320407E+0	1.348633E+0	1.328835E+0	1.134385E+0	1.289099E+0	1.321182E+0	1.321528E+0	1.256951E+0	1.153003E+0	1.391078E+0	1.358744E+0	1.308887E+0	1.283385E+0	1.342831E+0	1.380267E+0	1.217554E+0	1.352265E+0	1.323551E+0	1.336064E+0	1.160401E+0	1.087368E+0	1.226744E+0	1.325468E+0	1.242269E+0	1.198546E+0	1.329928E+0	1.350107E+0	1.307806E+0	1.246684E+0	1.302529E+0	1.292562E+0	1.009633E+0	1.350577E+0	1.336459E+0	1.352684E+0	1.106149E+0	1.260585E+0	1.369075E+0	1.330149E+0	1.226543E+0	1.229437E+0	1.311960E+0	1.381698E+0	1.308358E+0	1.257445E+0	1.311007E+0	1.337255E+0	1.265336E+0	1.336780E+0	1.318109E+0	1.336361E+0	1.105617E+0	1.281896E+0	1.320735E+0	1.299856E+0	1.198322E+0	1.190455E+0	1.315078E+0	1.339702E+0	1.291996E+0	1.303138E+0	1.389564E+0	1.399776E+0
5.527650E+2	1.259265E+0	1.355562E+0	1.276897E+0	1.289901E+0	1.149136E+0	1.311453E+0	1.374933E+0	1.316424E+0	1.205392E+0	1.290213E+0	1.349854E+0	1.287862E+0	1.294302E+0	1.313558E+0	1.336282E+0	1.362302E+0	1.217877E+0	1.314688E+0	1.256301E+0	1.315122E+0	1.179554E+0	1.275092E+0	1.336172E+0	1.339784E+0	1.241104E+0	1.317315E+0	1.376577E+0	1.339104E+0	1.342187E+0	1.346129E+0	1.329940E+0	1.298657E+0	1.240466E+0	1.341886E+0	1.277268E+0	1.352126E+0	1.168294E+0	1.285381E+0	1.268200E+0	1.390186E+0	1.283982E+0	1.336459E+0	1.326141E+0	1.340405E+0	1.286125E+0	1.330443E+0	1.359218E+0	1.282316E+0	1.297084E+0	1.337594E+0	1.405824E+0	1.347115E+0	1.178764E+0	1.349603E+0	1.380030E+0	1.364450E+0	1.280234E+0	1.309698E+0	1.314268E+0	1.353131E+0	1.385025E+0	1.319292E+0	1.336904E+0	1.308385E+0	1.312381E+0	1.342985E+0	1.333570E+0	1.374479E+0	1.209601E+0	1.341279E+0	1.336695E+0	1.371111E+0	1.313656E+0	1.292318E+0	1.308813E+0	1.344673E+0	1.315087E+0	1.333437E+0	1.361845E+0	1.323145E+0	1.213961E+0	1.196926E+0	1.334517E+0	1.348422E+0	1.106215E+0	1.325390E+0	1.312138E+0	1.326951E+0	1.252061E+0	1.312366E+0	1.338508E+0	1.328506E+0	1.358021E+0	1.325856E+0	1.388098E+0	1.318578E+0	1.250657E+0	1.296866E+0	1.318064E+0	1.311074E+0	1.225673E+0	1.356431E+0	1.334128E+0	1.369183E+0	1.273203E+0	1.298527E+0	1.346296E+0	1.310203E+0	1.277544E+0	1.377870E+0	1.326156E+0	1.229810E+0	1.252681E+0	1.340699E+0	1.342851E+0	1.274188E+0	1.152062E+0	1.367747E+0	1.289501E+0	1.323819E+0	1.273450E+0	1.308153E+0	1.301032E+0	1.255412E+0	1.301446E+0	1.305363E+0	1.398508E+0	1.191879E+0	1.145802E+0	1.194309E+0	1.311273E+0	1.232186E+0	1.152175E+0	1.266350E+0	1.349573E+0	1.339853E+0	1.271365E+0	1.312937E+0	1.305498E+0	1.167358E+0	1.349569E+0	1.349561E+0	1.306916E+0	1.138723E+0	1.298405E+0	1.315707E+0	1.299022E+0	1.212387E+0	1.184528E+0	1.394028E+0	1.340554E+0	1.291430E+0	1.229762E+0	1.301860E+0	1.313123E+0	1.253128E+0	1.397588E+0	1.335743E+0	1.332126E+0	1.100326E+0	1.262153E+0	1.363486E+0	1.256095E+0	1.172028E+0	1.215885E+0	1.320798E+0	1.283890E+0	1.289804E+0	1.320106E+0	1.371948E+0	1.324189E+0
5.535100E+2	1.189646E+0	1.225148E+0	1.262979E+0	1.261886E+0	1.069265E+0	1.266492E+0	1.253247E+0	1.293369E+0	1.141032E+0	1.265189E+0	1.282663E+0	1.249100E+0	1.282901E+0	1.275321E+0	1.240558E+0	1.281941E+0	1.220857E+0	1.258737E+0	1.253177E+0	1.285577E+0	1.090211E+0	1.217603E+0	1.280984E+0	1.280114E+0	1.186844E+0	1.248580E+0	1.280627E+0	1.225018E+0	1.289719E+0	1.239117E+0	1.254332E+0	1.245908E+0	1.120920E+0	1.294749E+0	1.231525E+0	1.254181E+0	1.093421E+0	1.216773E+0	1.231272E+0	1.278923E+0	1.204271E+0	1.290887E+0	1.235116E+0	1.287637E+0	1.258775E+0	1.256334E+0	1.306073E+0	1.276130E+0	1.238092E+0	1.250570E+0	1.252806E+0	1.281048E+0	1.105789E+0	1.266853E+0	1.254693E+0	1.263943E+0	1.155129E+0	1.260941E+0	1.264531E+0	1.302242E+0	1.307229E+0	1.256451E+0	1.300905E+0	1.243467E+0	1.131248E+0	1.255617E+0	1.289134E+0	1.218370E+0	1.092465E+0	1.272865E+0	1.217640E+0	1.224114E+0	1.231938E+0	1.294696E+0	1.244820E+0	1.245163E+0	1.280057E+0	1.280120E+0	1.271339E+0	1.238334E+0	1.161522E+0	1.206951E+0	1.263930E+0	1.291496E+0	1.089779E+0	1.302388E+0	1.239353E+0	1.258758E+0	1.190088E+0	1.265173E+0	1.262891E+0	1.219323E+0	1.293332E+0	1.263460E+0	1.253039E+0	1.287549E+0	1.161867E+0	1.280069E+0	1.208364E+0	1.257825E+0	1.108702E+0	1.256004E+0	1.277044E+0	1.250277E+0	1.144876E+0	1.276493E+0	1.277637E+0	1.236856E+0	1.270156E+0	1.259486E+0	1.273897E+0	1.272513E+0	1.148889E+0	1.247018E+0	1.224973E+0	1.258798E+0	1.082046E+0	1.273413E+0	1.225859E+0	1.287980E+0	1.209164E+0	1.235145E+0	1.257422E+0	1.212332E+0	1.251662E+0	1.240965E+0	1.281980E+0	1.240740E+0	1.076021E+0	1.136781E+0	1.260942E+0	1.271847E+0	1.180381E+0	1.258011E+0	1.270200E+0	1.261284E+0	1.172642E+0	1.243137E+0	1.266687E+0	1.252417E+0	1.290558E+0	1.263202E+0	1.259215E+0	1.243396E+0	1.189986E+0	1.272502E+0	1.215801E+0	1.263565E+0	1.111301E+0	1.304301E+0	1.256751E+0	1.252258E+0	1.158040E+0	1.206729E+0	1.295023E+0	1.160349E+0	1.208464E+0	1.269498E+0	1.290680E+0	1.125015E+0	1.290359E+0	1.247535E+0	1.256694E+0	1.172028E+0	1.121801E+0	1.239168E+0	1.242501E+0	1.240833E+0	1.206994E+0	1.223470E+0	1.357782E+0
5.542530E+2	1.064978E+0	1.094071E+0	1.127778E+0	1.140907E+0	9.656796E-1	1.116116E+0	1.184932E+0	1.191638E+0	1.070517E+0	1.162821E+0	1.168380E+0	1.155052E+0	1.170233E+0	1.166846E+0	1.170271E+0	1.136696E+0	1.061783E+0	1.124790E+0	1.172575E+0	1.139036E+0	1.014542E+0	1.129487E+0	1.183930E+0	1.172229E+0	1.070066E+0	1.114099E+0	1.180529E+0	1.116393E+0	1.133198E+0	1.179214E+0	1.147531E+0	1.198733E+0	1.118060E+0	1.187351E+0	1.113200E+0	1.133540E+0	9.862743E-1	1.120910E+0	1.160337E+0	1.180912E+0	1.073404E+0	1.153039E+0	1.146954E+0	1.232987E+0	1.147551E+0	1.193629E+0	1.136469E+0	1.187741E+0	1.097196E+0	1.138680E+0	1.189590E+0	1.196595E+0	9.670939E-1	1.139057E+0	1.170971E+0	1.193263E+0	1.132436E+0	1.167538E+0	1.168838E+0	1.150766E+0	1.130887E+0	1.164035E+0	1.178166E+0	1.161324E+0	1.080250E+0	1.167673E+0	1.174698E+0	1.116133E+0	1.065213E+0	1.163110E+0	1.155834E+0	1.166076E+0	1.130430E+0	1.150797E+0	1.172903E+0	1.162238E+0	1.115047E+0	1.174959E+0	1.135115E+0	1.149818E+0	1.076813E+0	1.113594E+0	1.173451E+0	1.186448E+0	9.982678E-1	1.162749E+0	1.152119E+0	1.140588E+0	1.048864E+0	1.157395E+0	1.203311E+0	1.150710E+0	1.176894E+0	1.180269E+0	1.164098E+0	1.189586E+0	1.173549E+0	1.130182E+0	1.162972E+0	1.149038E+0	1.030885E+0	1.150377E+0	1.143330E+0	1.101879E+0	1.077519E+0	1.134217E+0	1.141546E+0	1.173050E+0	1.138626E+0	1.148289E+0	1.132303E+0	1.187108E+0	1.122790E+0	1.116256E+0	1.172254E+0	1.155993E+0	1.007330E+0	1.201396E+0	1.174942E+0	1.159049E+0	1.127345E+0	1.176739E+0	1.132735E+0	1.167947E+0	1.183213E+0	1.139213E+0	1.153650E+0	1.119996E+0	1.031203E+0	1.036413E+0	1.131891E+0	1.149503E+0	1.021657E+0	1.090729E+0	1.187093E+0	1.135682E+0	1.085025E+0	1.121293E+0	1.164363E+0	1.145389E+0	1.175566E+0	1.212745E+0	1.120936E+0	1.140897E+0	1.162251E+0	1.125101E+0	1.137028E+0	1.178088E+0	1.031242E+0	1.159865E+0	1.166344E+0	1.184551E+0	1.086318E+0	1.160382E+0	1.193665E+0	1.159128E+0	1.126114E+0	1.199444E+0	1.175292E+0	1.126775E+0	1.157224E+0	1.138612E+0	1.197946E+0	1.136224E+0	1.073487E+0	1.152860E+0	1.141538E+0	1.145816E+0	1.140540E+0	1.130357E+0	1.198209E+0
5.550140E+2	9.937396E-1	9.901367E-1	1.009809E+0	9.976443E-1	8.496151E-1	1.031368E+0	9.943961E-1	1.008219E+0	9.759350E-1	1.004720E+0	1.053523E+0	1.018428E+0	1.016969E+0	1.070376E+0	1.054197E+0	1.021099E+0	9.170078E-1	9.851925E-1	1.059483E+0	1.042721E+0	9.014938E-1	9.933087E-1	1.000285E+0	1.013748E+0	9.485710E-1	1.002928E+0	1.003435E+0	9.998786E-1	1.015035E+0	9.894375E-1	1.029393E+0	1.033622E+0	9.699128E-1	1.027447E+0	1.031472E+0	9.669134E-1	8.722411E-1	9.714753E-1	1.029151E+0	1.016619E+0	9.574091E-1	9.999996E-1	1.035894E+0	1.089137E+0	1.038608E+0	1.016437E+0	1.082859E+0	1.025987E+0	9.941006E-1	9.851436E-1	1.044252E+0	1.056416E+0	9.054514E-1	9.760082E-1	1.003525E+0	1.018863E+0	9.485620E-1	1.006579E+0	1.041250E+0	9.821306E-1	1.072421E+0	1.067000E+0	1.023766E+0	1.020889E+0	1.004045E+0	1.035756E+0	1.049914E+0	1.102665E+0	9.471222E-1	9.933064E-1	1.003850E+0	1.057610E+0	1.000830E+0	1.045548E+0	1.013225E+0	1.023041E+0	9.859879E-1	1.060505E+0	1.043222E+0	1.006959E+0	1.000749E+0	9.707397E-1	1.041902E+0	1.049120E+0	8.801013E-1	1.043977E+0	1.010685E+0	1.036431E+0	9.749731E-1	1.031759E+0	1.032023E+0	1.024820E+0	1.064438E+0	1.007109E+0	1.029506E+0	1.034443E+0	9.287924E-1	1.044901E+0	1.014816E+0	9.606651E-1	9.269673E-1	1.030179E+0	1.033788E+0	1.006279E+0	9.944837E-1	1.011458E+0	1.049593E+0	1.015027E+0	1.027291E+0	1.056748E+0	1.009916E+0	1.006275E+0	9.765105E-1	1.001757E+0	9.607862E-1	1.011943E+0	9.058301E-1	1.074097E+0	1.031363E+0	1.053514E+0	9.187069E-1	1.039242E+0	1.047357E+0	1.041970E+0	9.731899E-1	1.026151E+0	1.046464E+0	9.832742E-1	8.547658E-1	9.213586E-1	1.019616E+0	1.025813E+0	8.734521E-1	1.032883E+0	1.042192E+0	1.036957E+0	9.591532E-1	1.035574E+0	1.032049E+0	1.086242E+0	9.955112E-1	9.774397E-1	1.061672E+0	1.078786E+0	9.655832E-1	1.023444E+0	1.009974E+0	1.026732E+0	8.818644E-1	1.015428E+0	1.010920E+0	1.034143E+0	9.749598E-1	1.012196E+0	1.032579E+0	1.023622E+0	9.848698E-1	1.018824E+0	1.038243E+0	1.018777E+0	1.013934E+0	1.019735E+0	9.977224E-1	1.012028E+0	9.427867E-1	1.071230E+0	1.062522E+0	1.082958E+0	9.835976E-1	1.085060E+0	9.966402E-1
5.557660E+2	9.494858E-1	9.967561E-1	9.634161E-1	9.447959E-1	8.188306E-1	9.585041E-1	9.933285E-1	1.035281E+0	9.138143E-1	9.819720E-1	9.564696E-1	1.016522E+0	1.006479E+0	1.043700E+0	1.026452E+0	1.019811E+0	9.199863E-1	9.699327E-1	1.023243E+0	9.936773E-1	8.659386E-1	9.928376E-1	1.033590E+0	1.001814E+0	9.473912E-1	1.004722E+0	1.054372E+0	9.889561E-1	9.691807E-1	1.009558E+0	1.000095E+0	1.006605E+0	9.333046E-1	1.011933E+0	9.674304E-1	9.758717E-1	8.632043E-1	9.658366E-1	9.693900E-1	9.986284E-1	9.092260E-1	9.431737E-1	1.047916E+0	9.930273E-1	1.007156E+0	9.998102E-1	9.788805E-1	9.915144E-1	9.230798E-1	9.969542E-1	9.839897E-1	9.851781E-1	8.705505E-1	9.946142E-1	1.028007E+0	1.019780E+0	9.590354E-1	9.713327E-1	9.769153E-1	1.011124E+0	1.059691E+0	9.801312E-1	1.042416E+0	9.656850E-1	9.542188E-1	9.940988E-1	9.920873E-1	9.857359E-1	9.012236E-1	1.005119E+0	1.044379E+0	9.838733E-1	9.810389E-1	9.801395E-1	1.005912E+0	9.774328E-1	9.652461E-1	9.886032E-1	1.002124E+0	1.028367E+0	9.448526E-1	9.832716E-1	9.924918E-1	9.622645E-1	8.316797E-1	1.056818E+0	1.029784E+0	9.995330E-1	9.624590E-1	9.431134E-1	1.007390E+0	9.884250E-1	1.022640E+0	1.005175E+0	1.012564E+0	1.020701E+0	9.539108E-1	1.020997E+0	9.820321E-1	1.025937E+0	8.955498E-1	1.001561E+0	9.998455E-1	9.801183E-1	9.346759E-1	1.053007E+0	1.055111E+0	1.012046E+0	9.819695E-1	9.987544E-1	1.010363E+0	1.025447E+0	9.661922E-1	1.021924E+0	9.584173E-1	9.977838E-1	8.705866E-1	9.873714E-1	1.030345E+0	1.020659E+0	9.508504E-1	1.025249E+0	1.002518E+0	9.812662E-1	9.949695E-1	1.008947E+0	1.026305E+0	9.987782E-1	8.666794E-1	9.244187E-1	9.525088E-1	9.928741E-1	8.834921E-1	9.594042E-1	9.729375E-1	9.857860E-1	9.579193E-1	1.020267E+0	9.814761E-1	1.023152E+0	1.004085E+0	9.861731E-1	9.855460E-1	9.797611E-1	9.422604E-1	1.009467E+0	1.021409E+0	9.913430E-1	8.901637E-1	1.001204E+0	9.931431E-1	1.036078E+0	9.623778E-1	9.884137E-1	1.027150E+0	1.023012E+0	9.671549E-1	1.040748E+0	9.887908E-1	1.039940E+0	9.676758E-1	1.058970E+0	1.011509E+0	1.013147E+0	9.092220E-1	9.880407E-1	9.835069E-1	1.009137E+0	9.751149E-1	9.642631E-1	9.210526E-1
5.560130E+2	9.381520E-1	1.011320E+0	1.000530E+0	9.906397E-1	8.259033E-1	1.022066E+0	9.773167E-1	1.055828E+0	9.541086E-1	9.609300E-1	9.805888E-1	9.961874E-1	9.768287E-1	1.001021E+0	9.959303E-1	1.014653E+0	9.479883E-1	1.015147E+0	1.029491E+0	1.001359E+0	8.764224E-1	9.527847E-1	1.001713E+0	1.055278E+0	9.745212E-1	9.796184E-1	1.040158E+0	9.938104E-1	9.965175E-1	1.032880E+0	9.944235E-1	1.000599E+0	9.619048E-1	1.022076E+0	1.010735E+0	1.009317E+0	8.666468E-1	9.695953E-1	9.786221E-1	1.000994E+0	9.490803E-1	1.015754E+0	1.002691E+0	1.025064E+0	9.994080E-1	9.893590E-1	1.026481E+0	1.013170E+0	9.746273E-1	9.907379E-1	1.004667E+0	1.054119E+0	9.045448E-1	9.813939E-1	1.001567E+0	1.000964E+0	9.578720E-1	9.619339E-1	1.033681E+0	9.951476E-1	1.012542E+0	1.030496E+0	9.790961E-1	1.021329E+0	9.630116E-1	9.883122E-1	1.040783E+0	1.017570E+0	9.141328E-1	1.006595E+0	1.033741E+0	1.016222E+0	9.982763E-1	1.018196E+0	1.049183E+0	9.768402E-1	9.818396E-1	1.009635E+0	1.003971E+0	1.009015E+0	9.246843E-1	9.607157E-1	9.982670E-1	1.020951E+0	8.410088E-1	9.535611E-1	1.039075E+0	9.948627E-1	9.791441E-1	1.008801E+0	1.014837E+0	1.000358E+0	1.020153E+0	1.008561E+0	1.021976E+0	9.865690E-1	9.796133E-1	1.015182E+0	9.801407E-1	1.059719E+0	9.409842E-1	9.932354E-1	1.031217E+0	1.027206E+0	9.155131E-1	9.824981E-1	1.008521E+0	1.006082E+0	1.029261E+0	1.039493E+0	9.634618E-1	1.015861E+0	9.698340E-1	1.014117E+0	9.732254E-1	9.842409E-1	8.818648E-1	9.822998E-1	1.012525E+0	9.962666E-1	9.555257E-1	9.990879E-1	9.754921E-1	9.636429E-1	1.005860E+0	9.883009E-1	1.004179E+0	9.799853E-1	8.337748E-1	8.852513E-1	9.905789E-1	1.068164E+0	8.586323E-1	1.010475E+0	9.862556E-1	1.013180E+0	9.394090E-1	9.590383E-1	1.032049E+0	1.018645E+0	1.030312E+0	1.007520E+0	1.013973E+0	1.015375E+0	9.057003E-1	1.003749E+0	1.025855E+0	9.869876E-1	8.867465E-1	1.040595E+0	1.041395E+0	9.790106E-1	1.021516E+0	1.003659E+0	1.050679E+0	1.012635E+0	9.700275E-1	1.020254E+0	1.027881E+0	9.993832E-1	1.003216E+0	1.023834E+0	1.012109E+0	1.000279E+0	8.878627E-1	1.006759E+0	1.021133E+0	9.901334E-1	9.638051E-1	1.080027E+0	9.042554E-1
5.565140E+2	9.511047E-1	1.008010E+0	9.707066E-1	9.836363E-1	9.935527E-1	9.388676E-1	1.002935E+0	9.746421E-1	9.636230E-1	9.671854E-1	1.009878E+0	9.593307E-1	9.959864E-1	9.823503E-1	1.005178E+0	9.682437E-1	9.408386E-1	9.834970E-1	9.920024E-1	9.942684E-1	9.060520E-1	9.084913E-1	9.688854E-1	9.932216E-1	9.403138E-1	9.622856E-1	9.643445E-1	9.847073E-1	9.797629E-1	9.725167E-1	9.533111E-1	9.559994E-1	8.904055E-1	9.516704E-1	9.912177E-1	9.812466E-1	8.447011E-1	9.625471E-1	1.017005E+0	9.915246E-1	8.985185E-1	9.639912E-1	9.975386E-1	9.967967E-1	9.251070E-1	9.884089E-1	9.516142E-1	9.985869E-1	9.614540E-1	1.001305E+0	9.704005E-1	9.874760E-1	8.746301E-1	9.427126E-1	9.697426E-1	9.656250E-1	9.473983E-1	9.707454E-1	1.000162E+0	9.791717E-1	9.484178E-1	1.011088E+0	9.869020E-1	9.939509E-1	1.014596E+0	9.564910E-1	9.707820E-1	9.710432E-1	8.969210E-1	1.010532E+0	1.001317E+0	1.012892E+0	9.472031E-1	9.504080E-1	9.650781E-1	9.975713E-1	9.952066E-1	9.714840E-1	1.007204E+0	9.900773E-1	9.073972E-1	9.168563E-1	9.552739E-1	9.980634E-1	8.490048E-1	9.578417E-1	9.518400E-1	9.696404E-1	9.249179E-1	9.718118E-1	9.798920E-1	1.021240E+0	9.494940E-1	9.776052E-1	1.004094E+0	9.595299E-1	9.241194E-1	9.867552E-1	9.795106E-1	9.744061E-1	8.501162E-1	9.745033E-1	1.013731E+0	9.534834E-1	9.097066E-1	9.862763E-1	9.968736E-1	9.673221E-1	9.731031E-1	1.003547E+0	1.001429E+0	1.002354E+0	9.303812E-1	9.952510E-1	9.702643E-1	9.793164E-1	8.682371E-1	9.701281E-1	9.840124E-1	1.005724E+0	9.292267E-1	1.002738E+0	9.742643E-1	1.014556E+0	9.348156E-1	9.622474E-1	9.668115E-1	1.010054E+0	8.281016E-1	8.717872E-1	9.996126E-1	1.003630E+0	8.552853E-1	9.891081E-1	1.004368E+0	9.945727E-1	9.344727E-1	9.614868E-1	9.314902E-1	9.685112E-1	1.000555E+0	9.779253E-1	9.710912E-1	1.007557E+0	9.176772E-1	9.910418E-1	9.782106E-1	9.897106E-1	8.594096E-1	9.743957E-1	9.540337E-1	1.000290E+0	9.019796E-1	9.731675E-1	9.891405E-1	1.016298E+0	9.661974E-1	9.830817E-1	9.746620E-1	1.024067E+0	9.524438E-1	9.951393E-1	9.881307E-1	9.460137E-1	9.336331E-1	9.584054E-1	9.741006E-1	1.000365E+0	8.916952E-1	1.037247E+0	9.378492E-1
5.570440E+2	9.856443E-1	9.239363E-1	9.978794E-1	1.013562E+0	1.026001E+0	9.414507E-1	1.050436E+0	1.016237E+0	1.005597E+0	9.990334E-1	9.800145E-1	9.561536E-1	9.850393E-1	9.996868E-1	9.963931E-1	1.004770E+0	1.018886E+0	9.863229E-1	1.008248E+0	1.050994E+0	1.014998E+0	9.852982E-1	1.014082E+0	1.002291E+0	1.015806E+0	9.610900E-1	1.001067E+0	9.834938E-1	1.038844E+0	1.021904E+0	1.044042E+0	1.055066E+0	1.031116E+0	1.002387E+0	1.052819E+0	1.018275E+0	1.014673E+0	9.540888E-1	9.995144E-1	1.006675E+0	1.051990E+0	1.017442E+0	9.523128E-1	1.013129E+0	9.898349E-1	1.025937E+0	1.053284E+0	9.985848E-1	9.935282E-1	9.950896E-1	1.012348E+0	9.771347E-1	1.005167E+0	9.946143E-1	1.024578E+0	1.011520E+0	9.986036E-1	1.031840E+0	1.020706E+0	9.762131E-1	1.002169E+0	1.012014E+0	1.013791E+0	1.022654E+0	9.805972E-1	1.021292E+0	1.033479E+0	1.011448E+0	9.122204E-1	1.023822E+0	9.911850E-1	1.000523E+0	9.599708E-1	1.003925E+0	9.925040E-1	9.987561E-1	1.032080E+0	1.036048E+0	1.009051E+0	1.002429E+0	9.679026E-1	9.475576E-1	9.886423E-1	1.002758E+0	8.441181E-1	9.808467E-1	1.050431E+0	1.024755E+0	9.457740E-1	1.056631E+0	1.024003E+0	1.009307E+0	9.674076E-1	1.020654E+0	9.946823E-1	1.003412E+0	9.807816E-1	1.002261E+0	9.542926E-1	9.715437E-1	8.472157E-1	1.002601E+0	9.849321E-1	9.777403E-1	9.759023E-1	1.010199E+0	1.020781E+0	1.042458E+0	1.007094E+0	1.007861E+0	9.880301E-1	9.888460E-1	9.455545E-1	9.874438E-1	1.012321E+0	1.007018E+0	8.715263E-1	9.965000E-1	1.035437E+0	9.763546E-1	9.660455E-1	1.024032E+0	1.048585E+0	9.995434E-1	1.021936E+0	1.017303E+0	1.016963E+0	1.003007E+0	8.235631E-1	9.170749E-1	1.020907E+0	1.047997E+0	9.183917E-1	9.937989E-1	9.825268E-1	9.785490E-1	9.233663E-1	9.914894E-1	9.979418E-1	1.027095E+0	1.020225E+0	9.759844E-1	1.016382E+0	1.021890E+0	9.542368E-1	1.035516E+0	1.053807E+0	1.049054E+0	8.882111E-1	1.013787E+0	1.051046E+0	1.024955E+0	9.334368E-1	1.015856E+0	1.004827E+0	1.008973E+0	9.906153E-1	9.783158E-1	9.897329E-1	9.879219E-1	9.851631E-1	9.992386E-1	9.911274E-1	1.048951E+0	9.092216E-1	9.802429E-1	9.860160E-1	1.039104E+0	9.411815E-1	9.869146E-1	9.462489E-1
5.575580E+2	1.004534E+0	1.000066E+0	1.007820E+0	9.970070E-1	9.910561E-1	9.223312E-1	9.554350E-1	1.030269E+0	1.017349E+0	9.768540E-1	1.008155E+0	1.032409E+0	1.005565E+0	9.916858E-1	1.031538E+0	1.033132E+0	9.938636E-1	9.851924E-1	1.011996E+0	1.004313E+0	1.021835E+0	9.457167E-1	1.009801E+0	9.860612E-1	1.014037E+0	1.012492E+0	1.011135E+0	9.962371E-1	9.960762E-1	1.000413E+0	1.035538E+0	1.015612E+0	1.007093E+0	9.785206E-1	1.004635E+0	9.955809E-1	1.032746E+0	9.846340E-1	9.669605E-1	1.029402E+0	9.699006E-1	9.909978E-1	9.992559E-1	9.754384E-1	1.050461E+0	9.850837E-1	1.000601E+0	9.773719E-1	1.042211E+0	9.658740E-1	9.993503E-1	1.027117E+0	1.031455E+0	1.005386E+0	9.893270E-1	9.968331E-1	1.049227E+0	9.678085E-1	1.021787E+0	9.975151E-1	1.010184E+0	1.015709E+0	1.018996E+0	9.665697E-1	9.847004E-1	1.017820E+0	1.040783E+0	9.992038E-1	1.053739E+0	1.019884E+0	1.039313E+0	9.914845E-1	9.835924E-1	1.028305E+0	1.032728E+0	9.910565E-1	1.012721E+0	1.001810E+0	9.919653E-1	9.904912E-1	1.038205E+0	9.588356E-1	1.043828E+0	9.687197E-1	1.004042E+0	1.013483E+0	9.807463E-1	9.724429E-1	1.026219E+0	9.801022E-1	1.009682E+0	9.562074E-1	1.043042E+0	1.010980E+0	9.899762E-1	1.025577E+0	1.000058E+0	1.012598E+0	1.009141E+0	1.013341E+0	9.318006E-1	9.843901E-1	1.016303E+0	1.010559E+0	9.764830E-1	9.862761E-1	9.600923E-1	9.714962E-1	1.027291E+0	9.771867E-1	9.902625E-1	9.749019E-1	9.413065E-1	9.776861E-1	9.708568E-1	1.019330E+0	8.954916E-1	1.009687E+0	9.982686E-1	9.897955E-1	9.461748E-1	9.747513E-1	1.003747E+0	9.890996E-1	9.939327E-1	1.031559E+0	1.025813E+0	1.010994E+0	9.296520E-1	9.421665E-1	1.052524E+0	9.962353E-1	8.839702E-1	9.901506E-1	1.031005E+0	1.010079E+0	9.431107E-1	9.976115E-1	1.019700E+0	1.027095E+0	9.571801E-1	1.029353E+0	1.006745E+0	9.919224E-1	9.681044E-1	1.016456E+0	1.030302E+0	1.021832E+0	9.277518E-1	9.880730E-1	9.946667E-1	1.007061E+0	9.535695E-1	1.004879E+0	9.927600E-1	1.001648E+0	9.819977E-1	9.926139E-1	1.017991E+0	9.905670E-1	9.349557E-1	1.010951E+0	9.653504E-1	9.728673E-1	8.761655E-1	9.974007E-1	1.025523E+0	9.718600E-1	9.963239E-1	1.032212E+0	1.005039E+0
5.580170E+2	9.818664E-1	9.689522E-1	9.958911E-1	1.003375E+0	9.769105E-1	9.218138E-1	1.000267E+0	9.430706E-1	9.664208E-1	9.745790E-1	9.524496E-1	1.036221E+0	9.777395E-1	9.787939E-1	9.760458E-1	9.953166E-1	1.009354E+0	9.784101E-1	9.770066E-1	9.523154E-1	9.981312E-1	9.480730E-1	9.807791E-1	1.037615E+0	9.585968E-1	9.569066E-1	9.809286E-1	9.792458E-1	9.806438E-1	9.876075E-1	9.745762E-1	9.980263E-1	9.865010E-1	9.785205E-1	9.509627E-1	9.914001E-1	1.003915E+0	9.362318E-1	9.912545E-1	9.896311E-1	9.871514E-1	9.881841E-1	9.740672E-1	9.986811E-1	9.392379E-1	9.812834E-1	9.867369E-1	9.963752E-1	9.780637E-1	9.888734E-1	9.704005E-1	9.914976E-1	9.988214E-1	9.471194E-1	9.550543E-1	1.029878E+0	9.712553E-1	9.672207E-1	9.769152E-1	9.945563E-1	1.014901E+0	9.935311E-1	9.808313E-1	9.952739E-1	9.934930E-1	9.940988E-1	9.756521E-1	9.973682E-1	9.868043E-1	9.696817E-1	9.927047E-1	9.838730E-1	1.030836E+0	9.801399E-1	9.595929E-1	9.732857E-1	9.827611E-1	9.758860E-1	9.855005E-1	9.954310E-1	9.771223E-1	9.199895E-1	1.002759E+0	9.927815E-1	1.027587E+0	1.031672E+0	9.616478E-1	9.761792E-1	1.011918E+0	9.686230E-1	9.730181E-1	9.687366E-1	9.783543E-1	9.780892E-1	9.687995E-1	9.759306E-1	1.031018E+0	9.945081E-1	9.738361E-1	9.583750E-1	9.956017E-1	1.003643E+0	9.499606E-1	9.943875E-1	1.032807E+0	9.938306E-1	9.355713E-1	1.013238E+0	9.745804E-1	9.695171E-1	9.755217E-1	9.844873E-1	9.607291E-1	9.841912E-1	9.986967E-1	9.799310E-1	9.885342E-1	9.787498E-1	9.351345E-1	1.016676E+0	1.011630E+0	9.899615E-1	1.030159E+0	9.297009E-1	1.020380E+0	9.710954E-1	9.584531E-1	1.012873E+0	9.795763E-1	8.742347E-1	9.544450E-1	1.025142E+0	9.336902E-1	9.964039E-1	9.660117E-1	9.697621E-1	9.943236E-1	1.026389E+0	1.003823E+0	9.938598E-1	9.662589E-1	1.003639E+0	1.018309E+0	9.550040E-1	9.113736E-1	9.726159E-1	9.947271E-1	9.771880E-1	8.969976E-1	9.661889E-1	9.855242E-1	9.693380E-1	9.768476E-1	9.835352E-1	9.861237E-1	9.796738E-1	9.824762E-1	9.821284E-1	9.953843E-1	9.694083E-1	9.360835E-1	9.207675E-1	9.599555E-1	9.969230E-1	9.127821E-1	9.755631E-1	1.006710E+0	1.001096E+0	9.312858E-1	9.390990E-1	1.047033E+0
5.585160E+2	1.020184E+0	9.696139E-1	1.027040E+0	1.000828E+0	1.033073E+0	1.015865E+0	1.001335E+0	1.057832E+0	1.058204E+0	9.677540E-1	9.742724E-1	1.006990E+0	1.055284E+0	1.022807E+0	1.008879E+0	9.961755E-1	1.045100E+0	9.738891E-1	1.051985E+0	1.013768E+0	1.011349E+0	9.796438E-1	1.055950E+0	9.913120E-1	1.038808E+0	9.909749E-1	1.027719E+0	1.047819E+0	1.019885E+0	1.011844E+0	1.036481E+0	9.847329E-1	1.036837E+0	1.004177E+0	9.802386E-1	1.017080E+0	1.061149E+0	1.017058E+0	1.026237E+0	1.027510E+0	1.010945E+0	9.938110E-1	1.034749E+0	1.015641E+0	1.076897E+0	1.007411E+0	1.000601E+0	1.043222E+0	1.031902E+0	1.003170E+0	1.016484E+0	1.030564E+0	1.007433E+0	9.637670E-1	9.956915E-1	9.904073E-1	9.846383E-1	1.023028E+0	1.012597E+0	1.014082E+0	1.000754E+0	1.013400E+0	9.986116E-1	1.012940E+0	1.053285E+0	1.021870E+0	9.902607E-1	1.030426E+0	1.045611E+0	9.987202E-1	9.861187E-1	1.013844E+0	9.835931E-1	1.041386E+0	1.030290E+0	9.987560E-1	1.026089E+0	1.027733E+0	1.006742E+0	1.027953E+0	1.019189E+0	9.488102E-1	1.014310E+0	1.033275E+0	1.049355E+0	9.926170E-1	1.038559E+0	1.055114E+0	1.031582E+0	9.801026E-1	1.024003E+0	1.034963E+0	1.011693E+0	1.054029E+0	1.027624E+0	1.027793E+0	1.055553E+0	1.008076E+0	1.062730E+0	1.027655E+0	1.050219E+0	1.053074E+0	1.026074E+0	1.013889E+0	1.021775E+0	1.037898E+0	1.014652E+0	1.004293E+0	1.034188E+0	1.016008E+0	1.013935E+0	1.004967E+0	1.063307E+0	1.029080E+0	9.963271E-1	9.762377E-1	1.099904E+0	1.036567E+0	1.014562E+0	1.012196E+0	1.043189E+0	1.013689E+0	9.945338E-1	1.032832E+0	1.009489E+0	1.027135E+0	1.034663E+0	1.029318E+0	1.098147E+0	9.299270E-1	9.867076E-1	1.002286E+0	1.063728E+0	9.833764E-1	1.001705E+0	1.027653E+0	1.046153E+0	1.035574E+0	9.985302E-1	1.015266E+0	1.001059E+0	1.041966E+0	9.985548E-1	1.017981E+0	1.070851E+0	9.897705E-1	9.763046E-1	1.033810E+0	1.090310E+0	1.027465E+0	1.027681E+0	9.857817E-1	1.073106E+0	1.021954E+0	9.957769E-1	1.013855E+0	1.041846E+0	1.004051E+0	9.977395E-1	1.004673E+0	1.026345E+0	1.009194E+0	1.027096E+0	1.029371E+0	1.072978E+0	1.014558E+0	1.011727E+0	1.010598E+0	1.075502E+0	9.969796E-1	1.097425E+0
5.590100E+2	1.033137E+0	9.914596E-1	1.040958E+0	1.026934E+0	1.027664E+0	1.001912E+0	1.014677E+0	9.976948E-1	1.017909E+0	1.014957E+0	1.019640E+0	1.005720E+0	1.039319E+0	1.036144E+0	1.046799E+0	9.660942E-1	1.060591E+0	1.010060E+0	9.976256E-1	1.046857E+0	1.029127E+0	9.801150E-1	1.025024E+0	1.038093E+0	1.027012E+0	1.042376E+0	1.014096E+0	1.001700E+0	1.024735E+0	9.789189E-1	1.032228E+0	1.007891E+0	9.922214E-1	1.006563E+0	1.001586E+0	1.030817E+0	1.018978E+0	9.926217E-1	9.995140E-1	1.048815E+0	1.060318E+0	9.791823E-1	1.078257E+0	1.036371E+0	1.009437E+0	9.950595E-1	1.020935E+0	1.031733E+0	1.035338E+0	1.002548E+0	1.027709E+0	1.005285E+0	1.028737E+0	1.033295E+0	1.018213E+0	1.015651E+0	1.060283E+0	9.719203E-1	1.036384E+0	1.021775E+0	9.998109E-1	9.778205E-1	1.001215E+0	1.020888E+0	1.073215E+0	9.993052E-1	1.001826E+0	1.032263E+0	1.052783E+0	1.015454E+0	1.010436E+0	1.029068E+0	1.046158E+0	1.034250E+0	1.050403E+0	9.869098E-1	9.938233E-1	1.074690E+0	1.051996E+0	1.025486E+0	1.034748E+0	9.275080E-1	9.989092E-1	1.013322E+0	1.073787E+0	1.060028E+0	1.025138E+0	1.027558E+0	1.042308E+0	1.034948E+0	1.051501E+0	1.038543E+0	1.038066E+0	1.043386E+0	1.023388E+0	9.945478E-1	1.012326E+0	1.011306E+0	1.024272E+0	1.053420E+0	1.056502E+0	1.025496E+0	1.038417E+0	1.035768E+0	1.053131E+0	1.038528E+0	1.031816E+0	1.026357E+0	1.000197E+0	1.008819E+0	9.799891E-1	1.031983E+0	1.068769E+0	1.006311E+0	1.037200E+0	9.897809E-1	1.084396E+0	1.040117E+0	1.023217E+0	1.050527E+0	1.013968E+0	1.028290E+0	9.828625E-1	9.845299E-1	9.851169E-1	1.012388E+0	1.026305E+0	1.040593E+0	1.058434E+0	1.109241E+0	1.015099E+0	9.922024E-1	1.085720E+0	1.043827E+0	1.035267E+0	1.041093E+0	1.041217E+0	1.031900E+0	1.004410E+0	1.024842E+0	1.047964E+0	1.040996E+0	9.971088E-1	1.039264E+0	1.045007E+0	1.005019E+0	1.047455E+0	9.853538E-1	1.099585E+0	1.041689E+0	1.012952E+0	1.015282E+0	9.976091E-1	9.945115E-1	1.032579E+0	1.035219E+0	1.038496E+0	1.008816E+0	1.030708E+0	1.010844E+0	1.088400E+0	1.059557E+0	1.031293E+0	1.043357E+0	1.069418E+0	1.045754E+0	9.546605E-1	1.018638E+0	1.014703E+0	1.054860E+0	1.013438E+0
5.595110E+2	1.016406E+0	9.861638E-1	9.541380E-1	1.049856E+0	9.985430E-1	1.002945E+0	1.013076E+0	1.070361E+0	1.023505E+0	9.939153E-1	1.025383E+0	1.017793E+0	9.845836E-1	1.019695E+0	1.016279E+0	1.006488E+0	1.045101E+0	1.003843E+0	9.626358E-1	9.617694E-1	9.990430E-1	9.852979E-1	9.983827E-1	9.894025E-1	1.020525E+0	1.023250E+0	9.921816E-1	1.015050E+0	1.021207E+0	9.825757E-1	1.008128E+0	1.011322E+0	1.004804E+0	1.035799E+0	1.024153E+0	9.746779E-1	1.006496E+0	1.019407E+0	1.006802E+0	9.650102E-1	9.835821E-1	1.017442E+0	9.849438E-1	9.748108E-1	1.017186E+0	1.033063E+0	1.029253E+0	9.756047E-1	9.952466E-1	9.944680E-1	1.030072E+0	9.719639E-1	1.031457E+0	9.911866E-1	1.031433E+0	1.010142E+0	1.012569E+0	1.004230E+0	9.817808E-1	1.037751E+0	1.034702E+0	1.025414E+0	1.015526E+0	9.851185E-1	1.011078E+0	1.014928E+0	1.028000E+0	9.949188E-1	1.031268E+0	1.008564E+0	9.927050E-1	1.014319E+0	1.022536E+0	1.017006E+0	1.023586E+0	1.036665E+0	1.010417E+0	9.744187E-1	1.033525E+0	1.044834E+0	1.034748E+0	9.369064E-1	1.029710E+0	1.012735E+0	1.067569E+0	9.690764E-1	9.848757E-1	9.990659E-1	1.002383E+0	1.013903E+0	1.016556E+0	1.011694E+0	1.041052E+0	9.630947E-1	1.017271E+0	1.062368E+0	1.002395E+0	9.777111E-1	1.012294E+0	1.008188E+0	1.074871E+0	9.989594E-1	1.023502E+0	1.025303E+0	1.045002E+0	1.013346E+0	1.009134E+0	9.923668E-1	1.020394E+0	1.015529E+0	9.983017E-1	9.831804E-1	1.043884E+0	1.030381E+0	1.033053E+0	1.010711E+0	1.085335E+0	1.039102E+0	1.011507E+0	9.917865E-1	1.041435E+0	9.978709E-1	9.711924E-1	1.034138E+0	1.059792E+0	1.004031E+0	1.040072E+0	9.593130E-1	1.068646E+0	1.110465E+0	1.015099E+0	9.942187E-1	1.100062E+0	9.849391E-1	1.013958E+0	9.914715E-1	1.051089E+0	9.841419E-1	1.004410E+0	1.001183E+0	1.022746E+0	9.852025E-1	1.004336E+0	1.026232E+0	9.971003E-1	1.014550E+0	9.909154E-1	1.015843E+0	1.113741E+0	1.022540E+0	1.033269E+0	1.014315E+0	1.058636E+0	1.031711E+0	9.897436E-1	1.024232E+0	1.024609E+0	1.025973E+0	1.019875E+0	1.010402E+0	1.034807E+0	1.047259E+0	1.033690E+0	9.930072E-1	1.078573E+0	1.027557E+0	1.024896E+0	1.037641E+0	1.061363E+0	1.012079E+0	1.021837E+0
5.600240E+2	1.005613E+0	9.855025E-1	9.879381E-1	9.766322E-1	9.873135E-1	9.941606E-1	9.767837E-1	9.405637E-1	1.002238E+0	1.019506E+0	1.059266E+0	9.993642E-1	9.932495E-1	1.010359E+0	9.700340E-1	1.002622E+0	9.277318E-1	9.885833E-1	1.048860E+0	9.836323E-1	1.027761E+0	9.711623E-1	9.627001E-1	9.803330E-1	9.957537E-1	9.730440E-1	1.002843E+0	1.002912E+0	9.793219E-1	1.019160E+0	9.655976E-1	1.002744E+0	1.044272E+0	1.001790E+0	1.011955E+0	1.011109E+0	1.018116E+0	9.827537E-1	1.064620E+0	9.782676E-1	9.972636E-1	1.032071E+0	1.002691E+0	1.013757E+0	1.018552E+0	9.741576E-1	1.003836E+0	1.009635E+0	9.717637E-1	9.913596E-1	1.014711E+0	9.937952E-1	1.012420E+0	1.056798E+0	1.010379E+0	1.004177E+0	1.002095E+0	1.009516E+0	9.969187E-1	9.868642E-1	9.922683E-1	9.574892E-1	9.899381E-1	1.004548E+0	9.970105E-1	9.460763E-1	9.872171E-1	1.013284E+0	1.007363E+0	9.947827E-1	9.881457E-1	9.819700E-1	1.039135E+0	9.652739E-1	1.003474E+0	1.013564E+0	9.924414E-1	9.773534E-1	9.762634E-1	9.859598E-1	9.851908E-1	1.097930E+0	9.969837E-1	1.010975E+0	1.032030E+0	9.974321E-1	9.838436E-1	9.733766E-1	1.005958E+0	1.001148E+0	9.730180E-1	9.926014E-1	9.594459E-1	9.795398E-1	1.030919E+0	9.963209E-1	1.030434E+0	1.033272E+0	9.870756E-1	1.011050E+0	1.072451E+0	9.843897E-1	9.772173E-1	1.014364E+0	9.944840E-1	9.862759E-1	1.050819E+0	9.875966E-1	9.706395E-1	9.560971E-1	1.026444E+0	1.007582E+0	9.910777E-1	1.015419E+0	1.008174E+0	1.005787E+0	1.051972E+0	9.422334E-1	9.906319E-1	1.016178E+0	1.043773E+0	1.006997E+0	1.010503E+0	1.023041E+0	9.949696E-1	1.005505E+0	9.766452E-1	1.000188E+0	1.061838E+0	1.117196E+0	9.815456E-1	9.969077E-1	1.062772E+0	1.027672E+0	9.809287E-1	1.002326E+0	1.037515E+0	9.982243E-1	1.008527E+0	9.527387E-1	1.012659E+0	9.609443E-1	1.023127E+0	1.000607E+0	1.034291E+0	1.020903E+0	9.782104E-1	9.657543E-1	1.057115E+0	1.023635E+0	9.972065E-1	1.012381E+0	1.058636E+0	9.792657E-1	1.013876E+0	1.004090E+0	9.944458E-1	1.048372E+0	1.015636E+0	1.002910E+0	1.045525E+0	9.547323E-1	1.009112E+0	9.806992E-1	1.030768E+0	1.011958E+0	1.016117E+0	9.864786E-1	1.014704E+0	9.793648E-1	1.139417E+0
5.605040E+2	1.014248E+0	1.104001E+0	1.017762E+0	9.683553E-1	9.789917E-1	1.143504E+0	9.975986E-1	9.661225E-1	9.748159E-1	1.060453E+0	1.009304E+0	1.013980E+0	9.708975E-1	1.022363E+0	9.903817E-1	1.033561E+0	9.801604E-1	1.038319E+0	1.010747E+0	1.010814E+0	9.858234E-1	1.133257E+0	9.993346E-1	1.015658E+0	9.544683E-1	1.054330E+0	1.014096E+0	9.871353E-1	9.585993E-1	9.953814E-1	9.528388E-1	9.778696E-1	1.019676E+0	9.534605E-1	9.424237E-1	1.001552E+0	9.824005E-1	1.018938E+0	9.839666E-1	1.018513E+0	1.012135E+0	9.921231E-1	1.021582E+0	9.880020E-1	9.510889E-1	1.015011E+0	9.650165E-1	9.813499E-1	1.017584E+0	9.832788E-1	9.768995E-1	1.068481E+0	1.015138E+0	9.392851E-1	9.932435E-1	1.029877E+0	1.022460E+0	1.007754E+0	9.871873E-1	1.001065E+0	9.979246E-1	1.002774E+0	1.006852E+0	1.005873E+0	9.354607E-1	1.001620E+0	1.014001E+0	9.881848E-1	9.968444E-1	9.539318E-1	9.911850E-1	9.948145E-1	9.925303E-1	9.741930E-1	9.864088E-1	1.007049E+0	9.832223E-1	9.881142E-1	9.984301E-1	9.666110E-1	9.990206E-1	1.193166E+0	9.803000E-1	9.933684E-1	1.007597E+0	1.002247E+0	1.017395E+0	1.043905E+0	9.898701E-1	1.031122E+0	9.810379E-1	9.926014E-1	1.004230E+0	1.001789E+0	9.683294E-1	9.763740E-1	9.866232E-1	9.880480E-1	9.814015E-1	1.000744E+0	1.051669E+0	9.719021E-1	1.007560E+0	9.891554E-1	1.027001E+0	9.768331E-1	9.680618E-1	9.923676E-1	1.032710E+0	1.063457E+0	1.020190E+0	1.016297E+0	1.031138E+0	9.685778E-1	1.006990E+0	1.003324E+0	1.014849E+0	9.919363E-1	1.024745E+0	9.639091E-1	1.009292E+0	9.850938E-1	1.003747E+0	1.004112E+0	9.804500E-1	1.000099E+0	1.029255E+0	9.734074E-1	1.112330E+0	1.081702E+0	1.026068E+0	9.666577E-1	1.054644E+0	1.042264E+0	9.756007E-1	1.008012E+0	1.026409E+0	9.872036E-1	1.005586E+0	9.887898E-1	1.005598E+0	1.005580E+0	9.845820E-1	9.680339E-1	1.063286E+0	9.802406E-1	9.921856E-1	1.025643E+0	1.038565E+0	9.700185E-1	9.906039E-1	9.983557E-1	1.024662E+0	1.007318E+0	9.975865E-1	9.406091E-1	1.000192E+0	9.897540E-1	9.812553E-1	9.993827E-1	1.004344E+0	1.019149E+0	9.965229E-1	9.862934E-1	1.062807E+0	1.023917E+0	9.960492E-1	9.857478E-1	1.044397E+0	9.818810E-1	8.706604E-1
5.610640E+2	9.872635E-1	1.062294E+0	9.998668E-1	9.798153E-1	9.868949E-1	1.117150E+0	9.874575E-1	1.003207E+0	9.703385E-1	1.025762E+0	9.616380E-1	9.720395E-1	9.923365E-1	9.361151E-1	9.584733E-1	9.935970E-1	9.783729E-1	1.051883E+0	9.388932E-1	9.812687E-1	1.005880E+0	1.162944E+0	9.850613E-1	9.660119E-1	1.034679E+0	1.023250E+0	9.915895E-1	1.001699E+0	1.000924E+0	1.029679E+0	9.972589E-1	9.907371E-1	9.870731E-1	1.087112E+0	1.040010E+0	9.782610E-1	1.016825E+0	1.131720E+0	9.441254E-1	9.446510E-1	1.028196E+0	1.024756E+0	9.546024E-1	9.873739E-1	1.022199E+0	9.945846E-1	9.881229E-1	9.875370E-1	9.729086E-1	1.074033E+0	9.816256E-1	9.466863E-1	9.947427E-1	1.125835E+0	1.012338E+0	9.458902E-1	9.514709E-1	1.045937E+0	9.655620E-1	9.910063E-1	9.988683E-1	9.907587E-1	9.873364E-1	9.921834E-1	9.565636E-1	1.026499E+0	9.579992E-1	9.618598E-1	1.016447E+0	1.004627E+0	1.006890E+0	9.772125E-1	9.944453E-1	1.005114E+0	9.559360E-1	9.963869E-1	9.712385E-1	9.724621E-1	9.393225E-1	9.707277E-1	1.036477E+0	1.152440E+0	9.892840E-1	9.740018E-1	1.044912E+0	9.947564E-1	1.005523E+0	9.579636E-1	1.019068E+0	9.616082E-1	9.672892E-1	9.741061E-1	1.007215E+0	9.708335E-1	9.749171E-1	9.781458E-1	9.766923E-1	9.854635E-1	1.015446E+0	9.812772E-1	1.069553E+0	1.001041E+0	9.623034E-1	9.853504E-1	9.637084E-1	9.705373E-1	1.012199E+0	1.002505E+0	9.598012E-1	9.819781E-1	1.005896E+0	1.005403E+0	1.023854E+0	1.005660E+0	9.661179E-1	1.028564E+0	1.039754E+0	9.949793E-1	9.824855E-1	9.768522E-1	9.952666E-1	9.765771E-1	9.804059E-1	9.884471E-1	9.991185E-1	9.686378E-1	9.250185E-1	9.602522E-1	1.039712E+0	1.046206E+0	9.479917E-1	9.747244E-1	1.041736E+0	9.484597E-1	1.008630E+0	9.764820E-1	1.002345E+0	9.859791E-1	1.025581E+0	1.000620E+0	9.657544E-1	9.784102E-1	9.797641E-1	9.715086E-1	1.038073E+0	9.738874E-1	9.578817E-1	9.358099E-1	1.028313E+0	9.722068E-1	9.530177E-1	9.722403E-1	1.021517E+0	9.878034E-1	9.975867E-1	9.754011E-1	9.791245E-1	9.868941E-1	9.770173E-1	9.998229E-1	9.919327E-1	9.840130E-1	9.977222E-1	1.002518E+0	1.053653E+0	9.646440E-1	1.004201E+0	9.484715E-1	1.028844E+0	9.793639E-1	9.210533E-1
