Photon Energy (eV)	#1	#2	#3	#4	#5	#6	#7	#8	#9	#10	#11	#12	#13	#14	#15	#16	#17	#18	#19	#20	#21	#22	#23	#24	#25	#26	#27	#28	#29	#30	#31	#32	#33	#34	#35	#36	#37	#38	#39	#40	#41	#42	#43	#44	#45	#46	#47	#48	#49	#50	#51	#52	#53	#54	#55	#56	#57	#58	#59	#60	#61	#62	#63	#64	#65	#66	#67	#68	#69	#70	#71	#72	#73	#74	#75	#76	#77	#78	#79	#80	#81	#82	#83	#84	#85	#86	#87	#88	#89	#90	#91	#92	#93	#94	#95	#96	#97	#98	#99	#100	#101	#102	#103	#104	#105	#106	#107	#108	#109	#110	#111	#112	#113	#114	#115	#116	#117	#118	#119	#120	#121	#122	#123	#124	#125	#126	#127	#128	#129	#130	#131	#132	#133	#134	#135	#136	#137	#138	#139	#140	#141	#142	#143	#144	#145	#146	#147	#148	#149	#150	#151	#152	#153	#154	#155	#156	#157	#158	#159	#160	#161	#162	#163	#164	
5.290120E+2	4.108516E-2	5.187678E-2	-6.933432E-3	5.906101E-2	1.720893E-2	5.078743E-2	2.541948E-2	5.027912E-2	3.104696E-2	4.060204E-2	5.063322E-2	5.864726E-3	6.020859E-2	1.847029E-2	2.180547E-2	2.428683E-2	5.193756E-2	3.940603E-2	4.428424E-2	-1.005386E-2	3.469926E-2	3.662802E-2	4.115722E-2	3.171107E-2	2.994242E-2	2.588733E-2	2.169246E-2	4.676462E-2	2.025972E-2	4.382929E-2	6.359190E-3	2.757810E-2	1.640472E-2	2.161573E-2	2.575762E-2	2.713349E-2	1.444926E-2	3.323056E-2	4.747864E-3	3.561365E-2	2.651103E-2	3.180567E-2	2.432184E-2	1.090438E-2	1.224911E-2	6.364925E-3	1.419620E-2	3.362979E-2	4.112254E-2	4.095798E-2	3.484400E-2	3.160295E-2	3.334632E-2	4.472303E-2	6.376143E-2	3.982978E-2	2.518929E-2	6.339547E-2	1.419093E-2	4.851547E-2	1.557526E-2	2.994568E-2	4.253430E-2	-1.575779E-2	3.119127E-2	3.235652E-2	1.693669E-2	2.728763E-3	1.086553E-2	2.559912E-2	5.533797E-2	2.420368E-2	3.236529E-2	5.510897E-2	2.763626E-2	4.604340E-2	2.748692E-2	1.907574E-2	2.093252E-2	1.432154E-2	2.162176E-2	3.114784E-2	3.843019E-2	2.978429E-2	4.581106E-2	2.635816E-2	3.633239E-2	4.871515E-2	3.219997E-2	3.949092E-2	2.966385E-2	2.775718E-2	2.120994E-2	4.619531E-2	2.658889E-2	4.386765E-2	4.206294E-2	4.077715E-2	3.054526E-2	3.248014E-2	3.246570E-2	2.234068E-2	2.627303E-2	1.711780E-2	2.228036E-2	4.255805E-2	1.330110E-2	3.234131E-2	3.196764E-2	6.782899E-2	2.829247E-2	5.243896E-3	1.091697E-2	1.583191E-2	3.257018E-2	4.256181E-2	1.034415E-2	8.730049E-3	4.019301E-2	2.080089E-2	5.618484E-2	5.611385E-2	4.162137E-2	5.700620E-2	2.032167E-2	6.965864E-2	1.672249E-2	3.577807E-2	2.010873E-2	2.779664E-2	2.051138E-2	4.876029E-2	1.727748E-2	1.331262E-2	5.031989E-2	5.886988E-2	1.434794E-2	5.173855E-2	7.689518E-3	3.423944E-2	2.544853E-2	3.168608E-2	4.523681E-2	2.157970E-2	3.633838E-2	3.372222E-2	3.005774E-2	1.303993E-2	2.872790E-2	1.483059E-2	3.379439E-2	5.161443E-2	3.127006E-2	4.216781E-2	1.645336E-2	2.800429E-2	3.883306E-2	2.760264E-2	3.668053E-2	3.981660E-2	3.527724E-2	8.224102E-3	4.665657E-2	3.197136E-2
5.294960E+2	4.067152E-3	-4.110053E-2	-1.512448E-2	-5.768602E-2	-2.127769E-2	-1.943650E-2	-5.400552E-3	-3.815210E-2	-1.113591E-2	-4.667702E-2	-6.405980E-3	-1.535337E-2	-3.217339E-2	-2.437664E-2	-3.404567E-2	-2.055169E-2	-6.379885E-3	-1.932374E-2	-2.654484E-2	-3.216197E-2	-1.513937E-2	5.297765E-3	-4.052597E-2	6.259992E-4	-1.070003E-2	-8.433565E-3	-2.729959E-2	-1.242410E-2	3.309164E-3	-2.153912E-2	-2.169901E-2	-3.789512E-2	-2.243642E-2	-2.523443E-2	-4.526131E-2	-1.474475E-2	-2.652933E-2	-3.359343E-2	-8.506338E-3	-2.685994E-2	-2.768366E-2	-2.823792E-2	-2.138451E-2	-6.637909E-3	4.077619E-3	-1.653902E-2	-9.650344E-4	-1.632294E-2	4.394776E-3	-1.736698E-2	-1.769018E-2	-2.744728E-2	-3.237157E-2	-1.096857E-2	-8.082707E-3	-5.272975E-2	-1.009966E-2	-3.127104E-2	-2.306250E-2	-3.541521E-2	-4.498881E-2	-3.132100E-3	-1.618858E-2	3.405584E-4	-8.930488E-4	-3.193268E-2	-1.205058E-2	-2.812860E-2	-8.567848E-3	-2.731151E-2	-7.861047E-3	-3.578929E-2	-1.056429E-2	-1.696102E-2	3.662183E-3	-2.741240E-2	-1.008791E-2	-3.675705E-2	-1.774947E-2	-4.471190E-3	-4.239505E-3	-2.240953E-2	-6.268195E-3	-4.051481E-2	-3.903697E-2	-1.868102E-2	-7.003440E-3	-8.229702E-3	-5.088156E-2	-8.639921E-3	-1.733529E-4	1.611258E-4	-1.953270E-2	-2.070260E-2	-2.268257E-2	-1.374026E-3	8.445877E-3	-2.757174E-2	-1.241758E-2	-2.773552E-2	-2.646260E-2	-7.508769E-3	-4.592448E-2	8.916902E-3	-2.078708E-2	-5.551972E-3	-4.527414E-3	-9.482769E-3	1.626062E-3	-1.959072E-2	-2.706252E-2	-1.445146E-2	-6.010837E-3	-2.463468E-2	-7.747963E-3	-1.215916E-2	-1.373022E-2	-6.761016E-4	7.636877E-3	-2.921491E-3	-8.334337E-3	-2.591056E-2	-2.058292E-2	-2.917436E-2	-1.982227E-2	-3.636540E-2	-1.428817E-2	-2.025052E-3	-2.652871E-2	-4.393312E-2	-2.394999E-2	-4.405785E-3	-3.925144E-2	-1.431906E-2	1.170625E-2	-5.765936E-3	-3.147832E-3	-2.162069E-2	-2.441021E-2	-2.806283E-2	-2.396345E-2	-7.584282E-3	-1.272350E-2	-2.056428E-2	-9.866243E-3	-4.333234E-2	-2.580204E-2	-2.190327E-2	1.591552E-2	-2.190021E-3	-3.197599E-2	-1.892842E-2	-1.856259E-2	-3.013842E-2	-1.470513E-2	-6.449798E-3	-3.962392E-3	-1.825961E-2	-2.016519E-3	-1.571747E-2	-9.053310E-3	1.003728E-2	7.968097E-4	-2.556046E-2
5.300060E+2	-3.966585E-2	-5.751170E-2	-6.000208E-2	-3.853614E-2	-8.571038E-3	-2.231428E-2	-7.358255E-2	-8.341415E-2	-3.456264E-2	-4.827638E-2	-4.737575E-2	-4.723037E-2	-3.584085E-2	-1.693673E-2	-7.240199E-2	-5.977216E-2	-5.453620E-2	-5.854721E-2	-5.279213E-2	-4.728891E-2	-2.377595E-2	-3.539199E-2	-2.937533E-2	-4.199957E-2	-5.807964E-2	-2.555070E-2	-3.428931E-2	-4.810088E-2	-4.094039E-2	-3.098031E-2	-2.208562E-2	-4.892050E-2	-5.617240E-2	-2.178501E-2	-1.986438E-2	-2.514585E-2	-4.886465E-2	-2.776848E-2	-3.639049E-2	-2.415404E-2	-1.770359E-2	-6.421353E-2	-5.201994E-2	-8.358532E-2	-4.314423E-2	-2.124749E-2	-5.677821E-2	-4.622566E-2	-4.470440E-2	-2.517128E-2	-3.515604E-2	-6.316835E-2	-3.859309E-2	-6.788061E-2	-5.817717E-2	-5.889994E-2	-4.346286E-2	-3.190998E-2	-5.399034E-2	-5.578391E-2	-1.024969E-2	-4.010998E-2	-3.130946E-2	-5.072522E-2	-5.994829E-2	-5.873743E-2	-1.841256E-2	-3.814107E-2	-4.865389E-2	-5.948586E-2	-3.788031E-2	-4.064178E-2	-2.698607E-2	-4.560684E-2	-3.992162E-2	-7.998136E-2	-5.200970E-2	-4.916257E-2	-2.351537E-2	-3.978707E-2	-5.495687E-2	-3.029462E-2	-4.599593E-2	-5.276151E-2	-3.595891E-2	-2.352620E-2	-4.096080E-2	-7.244899E-2	-6.853840E-2	-4.136575E-2	-4.498547E-2	-5.008347E-2	-5.327973E-2	-5.745159E-2	-5.345914E-2	-4.441498E-2	-4.015648E-2	-5.535045E-2	-5.442331E-2	-4.670647E-2	-4.469654E-2	-4.588252E-2	-4.766363E-2	-3.260582E-2	-2.253888E-2	-5.621298E-2	-4.032733E-2	-6.005963E-2	-6.238203E-2	-6.357599E-2	-3.602128E-2	-2.231633E-2	-4.004577E-2	-3.136774E-2	-5.207884E-2	-3.941516E-2	-2.166257E-2	-5.625254E-2	-2.603602E-2	-3.305507E-2	-3.241041E-2	-2.886026E-2	-5.997878E-2	-5.358863E-2	-1.451868E-2	-6.418703E-2	-5.456374E-2	-6.379452E-2	-5.592807E-2	-3.294953E-2	-1.443063E-2	-5.012462E-2	-2.512671E-3	-4.972148E-2	-6.040136E-2	-4.627115E-2	-5.544667E-2	-5.568919E-2	-4.154996E-2	-5.977633E-2	-2.554226E-2	-6.525228E-2	-6.028499E-2	-4.923249E-2	-2.279893E-2	-6.133364E-2	-6.604524E-2	-3.858446E-2	-4.911794E-2	-4.159874E-2	-4.889108E-2	-4.539141E-2	-5.481036E-2	-6.601989E-2	-5.231860E-2	-4.124365E-2	-8.685840E-2	-4.751974E-2	-5.320116E-2	-6.196414E-2	-4.961587E-2	-5.351593E-2	-5.059052E-2	-6.360878E-2
5.305080E+2	-6.776442E-2	-4.776849E-2	-3.260959E-2	-2.754615E-2	-2.016278E-2	-4.653270E-2	-2.107752E-2	-2.441986E-2	-1.853136E-2	-7.111405E-3	-5.260395E-2	-3.759698E-2	-2.529276E-2	-3.769033E-2	-3.248046E-2	-3.494783E-2	-2.121160E-2	-1.580285E-2	-2.601619E-2	-4.770179E-2	-3.575526E-2	-4.477623E-2	-2.579077E-2	-4.786950E-2	-5.538283E-2	-3.895232E-2	-1.448903E-2	-4.850151E-2	-6.366031E-2	-5.956136E-2	-2.260824E-2	-4.297345E-2	-3.672320E-2	-2.513444E-2	-6.682559E-3	-2.006949E-2	6.021308E-3	-2.791614E-2	-5.073645E-2	-5.920624E-2	-2.467168E-2	6.295262E-3	-3.657286E-2	-6.215295E-2	-3.034893E-2	-2.921001E-2	-9.817756E-4	-3.823615E-2	-4.433476E-2	-3.586619E-2	-5.927514E-2	-5.045145E-2	-1.033416E-2	-2.449401E-2	-5.291736E-2	-2.619592E-2	-2.863800E-2	-2.817526E-2	-2.546243E-2	-3.692067E-2	-4.212982E-2	-5.393644E-2	-5.555492E-2	-1.618493E-2	-4.160914E-2	-2.519885E-2	-3.658298E-2	-1.097888E-2	-4.500801E-2	-3.827697E-2	-4.123381E-2	-3.181286E-2	-2.685183E-2	-3.938874E-2	-6.088255E-2	-2.579852E-2	-5.516008E-2	-5.572630E-3	-2.001733E-2	-1.198815E-2	-6.202648E-2	-5.297904E-2	-5.577242E-2	-6.288315E-2	-2.731533E-2	-2.890903E-2	-4.067009E-2	-2.648257E-2	-4.404828E-2	-3.675999E-2	-3.592363E-2	-3.983271E-2	-3.098928E-2	-6.167568E-3	-3.909580E-2	-5.673999E-2	-5.816439E-2	-3.474423E-2	-2.370387E-2	-1.842739E-2	-2.481843E-2	-3.842606E-2	-1.859964E-2	-3.368496E-2	-5.186141E-2	-2.271069E-2	-5.994547E-2	-3.611642E-2	-3.591071E-2	-4.805076E-2	-1.914617E-2	-2.943907E-2	-3.000199E-3	-3.585777E-2	-3.559768E-2	-9.989095E-3	-2.391897E-2	-4.337133E-2	-2.152895E-2	-1.330199E-2	-3.006165E-2	-1.912991E-2	-1.457101E-2	-4.135831E-2	-3.495655E-2	-4.380757E-2	-1.613622E-2	-1.001594E-2	-2.825078E-2	-1.899504E-2	-4.188072E-2	-2.406368E-2	-3.067150E-2	1.452350E-3	5.109957E-3	-5.072923E-2	-1.278884E-3	-2.989031E-2	9.201978E-3	-5.274061E-2	-3.142774E-2	-3.992039E-2	-2.254271E-2	-4.104803E-2	-4.850159E-2	-1.415078E-2	-4.085098E-2	-3.921618E-2	-4.992358E-2	-3.151707E-2	-2.540167E-2	6.759977E-3	-2.152169E-2	-3.061484E-2	-2.259564E-2	-3.059433E-2	-4.278192E-2	-1.762652E-2	-4.795003E-2	-2.185740E-2	-3.276293E-2	-1.484413E-2	1.529508E-3	-5.256175E-2
5.310100E+2	3.061801E-2	-6.961761E-3	5.489987E-2	-2.239568E-2	-2.119383E-2	1.582583E-2	1.170385E-2	1.699273E-2	7.570756E-3	1.480393E-2	3.222933E-2	1.472720E-2	-2.054705E-2	1.931712E-2	5.664337E-2	3.116376E-2	1.189237E-2	2.714028E-2	3.289277E-2	3.778708E-2	-6.024406E-3	9.618939E-3	6.312344E-3	1.903258E-2	-3.713300E-3	2.129348E-2	2.008251E-2	5.172758E-3	9.884952E-3	-1.694783E-2	3.352769E-2	2.166905E-2	1.707401E-2	2.319971E-3	2.313685E-2	3.189762E-3	-4.812784E-3	-8.868821E-3	1.257957E-2	1.733971E-2	2.263712E-3	2.501352E-3	3.129795E-2	5.069355E-2	2.466385E-3	-9.233251E-3	2.682587E-3	3.441382E-2	1.478593E-2	-2.228979E-3	2.479628E-2	3.170103E-2	3.401037E-2	1.713424E-2	-1.059485E-2	1.889928E-2	1.673365E-2	3.602162E-3	7.616586E-3	1.912200E-2	1.745148E-2	2.594285E-2	9.616343E-3	4.322538E-2	7.826585E-3	-1.116678E-2	-2.007547E-4	2.172305E-2	1.266336E-3	1.929527E-2	-8.919304E-3	1.368428E-2	-6.209162E-3	8.147304E-3	4.416970E-2	-1.119891E-2	2.322696E-2	2.813903E-2	1.123570E-2	5.061871E-3	6.858002E-2	3.062270E-2	2.554733E-2	1.886833E-2	-4.082556E-3	1.824687E-2	-1.357682E-3	2.037702E-2	5.613976E-2	5.528797E-3	2.155375E-2	-2.580907E-3	1.933194E-2	2.461494E-2	2.145321E-2	-3.813193E-4	1.619216E-2	1.506980E-3	2.885465E-2	6.444679E-4	-8.904680E-3	2.312389E-2	1.909479E-3	-2.228637E-3	8.454133E-3	-7.214648E-3	-5.698337E-4	1.623132E-2	3.733670E-3	1.773590E-2	8.629179E-3	1.195656E-2	1.745931E-2	-2.123501E-3	2.558654E-2	3.003363E-3	7.797838E-3	2.682181E-2	-2.492687E-2	1.144465E-2	-6.082464E-3	-3.332712E-3	6.161080E-2	4.164936E-2	-8.788947E-3	2.408841E-3	-7.617115E-4	-2.263761E-2	1.063171E-2	1.912014E-2	1.083045E-2	1.042979E-2	3.246292E-3	-5.725568E-3	-1.026539E-2	1.077686E-2	4.962193E-3	1.312246E-2	1.334471E-2	7.473071E-3	-1.730837E-2	3.710604E-2	4.477045E-3	-2.526520E-3	4.812715E-3	1.823379E-3	1.934131E-2	5.150321E-2	2.370478E-2	5.459955E-3	3.555894E-2	1.394881E-2	-1.688127E-2	3.580598E-2	2.566548E-2	7.039255E-3	2.905274E-2	3.305537E-2	2.481921E-2	4.558183E-2	2.246190E-2	4.897711E-3	-2.600882E-3	2.011756E-2
5.315030E+2	2.311285E-2	1.086547E-1	5.958171E-2	6.924263E-2	3.761728E-2	2.605313E-2	5.799376E-2	7.366877E-2	3.769535E-2	5.298973E-2	5.006320E-2	3.602987E-2	3.546290E-2	5.910912E-2	4.486865E-2	3.170027E-2	3.356785E-2	2.982561E-2	2.860242E-2	5.520925E-2	6.662350E-2	2.702471E-2	2.877449E-2	1.927750E-2	5.353015E-2	3.082615E-2	3.416808E-2	5.001707E-2	3.784472E-2	8.615767E-2	2.316205E-2	4.681899E-2	5.219827E-2	3.462147E-2	1.413333E-2	2.939517E-2	4.366275E-2	4.045190E-2	4.107490E-2	6.393280E-2	5.671790E-2	7.144311E-2	4.199324E-2	1.039588E-1	6.225351E-2	6.032943E-2	2.119483E-2	1.646895E-2	2.001402E-2	4.420101E-2	6.552705E-2	5.019455E-2	4.786939E-2	2.829775E-2	4.504447E-2	6.672531E-2	5.562671E-2	1.580738E-2	5.695616E-2	6.025333E-2	4.640777E-2	2.267473E-2	2.449591E-2	2.633457E-2	1.881515E-2	6.314846E-2	5.271716E-2	5.191567E-2	4.702131E-2	5.604713E-2	3.276985E-2	4.710637E-2	5.046813E-2	3.789570E-2	2.394679E-2	7.704125E-2	4.434299E-2	6.291306E-2	4.343582E-2	2.778896E-2	5.983093E-2	6.752255E-2	4.496276E-2	7.804276E-2	4.797196E-2	2.957165E-2	5.295676E-2	4.424867E-2	4.297221E-2	6.511978E-2	4.668863E-2	4.600266E-2	3.825793E-2	3.795699E-2	6.437439E-2	6.278075E-2	4.875806E-2	3.156514E-2	5.136828E-2	5.102787E-2	3.676227E-2	3.834936E-2	1.963467E-2	2.737111E-2	3.413677E-2	8.210179E-2	5.584388E-2	4.029564E-2	6.317200E-2	6.073735E-2	6.277093E-2	2.894237E-2	3.713093E-2	6.109374E-2	7.400676E-2	4.542485E-2	4.301676E-2	3.537202E-2	4.714280E-2	4.996809E-2	5.644765E-2	2.121581E-2	4.294416E-2	9.883970E-3	4.778868E-2	6.608623E-2	3.093773E-2	4.620315E-2	5.137004E-2	5.438047E-2	6.791643E-2	1.634968E-2	4.324183E-2	8.157411E-2	1.466481E-2	3.230768E-2	4.630202E-2	6.200533E-2	3.453561E-2	5.778909E-2	6.054959E-2	3.290185E-2	5.600767E-2	4.600438E-2	2.027181E-2	1.980308E-2	4.817749E-2	4.444859E-2	3.435092E-2	4.507434E-2	4.062396E-2	2.349336E-2	3.854629E-2	7.282670E-2	3.969278E-2	2.542576E-2	4.111014E-2	2.740548E-2	5.405453E-3	1.529483E-2	4.971408E-2	5.251497E-2	4.106072E-2	6.260949E-2
5.320070E+2	6.664112E-3	6.017683E-3	2.171459E-2	3.314499E-2	1.176858E-2	-9.162170E-3	6.297145E-3	1.786123E-2	1.712369E-3	1.198914E-2	-1.675886E-2	4.477901E-2	-2.131138E-3	1.086237E-2	2.864067E-2	3.467762E-2	-1.706787E-2	1.210750E-2	2.235633E-2	2.481610E-2	-1.098790E-2	2.917665E-2	5.418624E-3	1.667451E-2	2.312889E-2	2.601483E-2	1.233919E-2	1.946166E-3	3.772984E-2	2.156127E-2	7.707068E-3	2.612781E-2	3.201526E-2	1.623565E-2	1.676162E-2	1.628842E-2	1.447040E-2	5.385526E-2	3.176981E-2	2.313475E-2	1.243764E-2	-5.685593E-3	2.861319E-2	2.014428E-2	3.169046E-2	1.486087E-2	4.618089E-2	2.465061E-2	3.246170E-2	-3.763062E-3	1.608918E-2	2.080824E-2	3.033791E-3	2.411175E-2	3.126565E-2	1.371234E-2	4.983112E-3	-4.894167E-3	7.160332E-3	5.046383E-3	2.123245E-2	2.649892E-2	1.949135E-2	1.347932E-2	2.670956E-2	3.263043E-2	3.809127E-2	6.027844E-3	2.232992E-2	2.923216E-2	8.335219E-3	4.109101E-4	3.301659E-3	7.881965E-3	-2.628041E-3	3.917090E-2	1.199619E-2	9.834722E-3	5.827393E-3	4.076472E-2	-2.538762E-3	-2.580677E-3	7.179097E-3	4.410303E-2	2.977992E-2	2.214406E-2	-1.503225E-2	3.388827E-3	3.332335E-2	9.649351E-3	1.650685E-2	1.528661E-3	3.236626E-2	-2.619455E-3	1.424960E-2	1.792897E-2	1.684274E-2	3.741438E-2	-8.120392E-3	6.852359E-3	2.010759E-2	-1.527202E-2	4.495097E-2	3.564753E-2	2.614065E-2	-8.439665E-3	4.103468E-2	1.986137E-2	1.650563E-2	5.624059E-3	8.500477E-3	3.169079E-2	1.355678E-2	2.592547E-2	-5.727342E-3	-9.661144E-3	2.010097E-3	2.638802E-2	-1.640096E-3	-1.241545E-2	4.334880E-3	1.356858E-2	-1.537219E-2	1.606814E-2	2.172690E-2	2.230752E-2	3.363165E-2	2.416769E-2	3.146917E-2	8.520297E-3	1.160494E-2	8.329598E-3	2.760676E-2	1.716814E-3	5.744394E-4	5.047890E-2	1.344111E-2	-1.741302E-2	2.754558E-2	5.262442E-2	1.279473E-2	2.406250E-2	-1.491852E-2	4.919214E-2	3.555611E-2	5.364808E-2	3.353893E-2	2.174159E-2	1.088012E-2	-4.802230E-3	2.992312E-2	2.067175E-3	3.651674E-2	-9.380656E-3	4.847592E-4	5.106197E-2	4.787275E-2	8.712872E-3	4.998181E-2	2.196146E-2	-8.281192E-3	1.474202E-2	-1.743483E-2	5.180088E-2
5.325120E+2	1.882982E-3	-1.320668E-2	-2.152658E-2	-1.528463E-2	4.610553E-3	4.779262E-3	-1.353612E-3	-1.281574E-2	-1.379552E-2	-1.832004E-2	-9.781216E-3	-1.220091E-3	2.031370E-2	-2.875520E-2	-1.303004E-2	-6.556796E-3	1.797794E-3	-1.480563E-2	-2.278260E-2	1.939410E-2	-9.639883E-3	-2.757786E-2	1.402939E-2	2.547409E-3	2.127434E-2	-3.108521E-2	-1.220430E-2	5.125870E-3	-4.427694E-3	-2.251962E-2	-4.363128E-3	7.595124E-3	-2.360250E-3	-2.638951E-3	-7.981169E-3	-1.604676E-2	1.603051E-3	-2.939085E-2	5.461147E-3	-2.980069E-2	-2.787134E-2	-1.390834E-2	-1.624891E-2	-3.332479E-2	-3.924392E-2	-5.325454E-3	-2.552949E-2	-8.378415E-3	-2.373981E-2	-7.624960E-4	-2.913515E-2	6.760312E-3	-3.696105E-2	-1.092358E-2	-1.029947E-2	-1.341094E-3	-2.033223E-2	1.344544E-2	1.659127E-2	-4.817387E-3	-3.298640E-3	-7.883656E-3	6.915055E-3	-7.118921E-4	1.790791E-2	-1.099670E-3	-4.049825E-2	-5.146784E-3	2.074665E-2	-5.099343E-3	-5.485716E-4	2.283870E-2	-1.552373E-2	-7.077340E-3	4.017273E-3	-1.786437E-2	1.020462E-2	-2.847030E-2	-2.014926E-2	-3.169067E-2	-2.627110E-2	-2.102923E-2	-8.082830E-3	-1.463894E-2	-1.716917E-2	-2.520448E-2	1.573512E-2	-9.568402E-3	-1.167077E-3	-3.302320E-2	-3.333062E-2	1.704746E-2	-7.364366E-3	-2.182603E-2	-1.142859E-2	-2.166706E-2	-3.398091E-2	6.402757E-3	-1.210302E-2	1.864543E-3	1.554669E-2	2.327544E-2	1.941960E-2	-2.053392E-2	4.175455E-3	-2.452988E-2	-4.809608E-3	-3.070828E-3	-1.871225E-2	-2.070882E-2	-2.596308E-2	-1.162674E-2	-3.000719E-2	-8.867421E-3	-3.101164E-2	-1.976546E-2	-3.857094E-3	2.988072E-3	-2.084074E-2	-2.051963E-2	-4.007851E-2	-1.366480E-2	-3.567142E-2	-4.863685E-4	-1.175081E-2	-1.610125E-2	4.457964E-3	-7.675776E-3	-2.872103E-3	-1.393985E-2	-3.060186E-2	-5.275274E-3	-1.893675E-2	-2.828978E-2	-1.170860E-2	-4.966701E-2	-1.917988E-2	-2.253140E-3	-2.635722E-2	-1.154625E-2	-5.510476E-4	-1.299953E-2	4.748187E-3	-3.404893E-3	-1.581226E-2	9.820005E-3	1.582778E-3	-3.102942E-2	-1.453772E-2	1.474318E-2	-3.363167E-2	-3.356392E-2	5.442827E-3	-1.464670E-2	7.322979E-3	-3.324350E-2	-2.326597E-2	-1.337049E-2	-1.371930E-2	-2.311570E-2	-7.739918E-3	-2.205602E-2	-1.941737E-2	-2.476830E-2
5.330080E+2	-5.036437E-2	-2.888649E-2	-2.556962E-2	-4.525731E-2	-3.260487E-2	-3.696266E-2	-1.481956E-3	-4.286713E-2	-4.462061E-2	-4.016119E-2	-2.286900E-2	-3.628492E-3	-1.846769E-2	-5.391614E-2	-3.464467E-2	-1.331171E-2	-5.362157E-2	-2.653703E-2	-6.515681E-2	-1.369659E-2	-1.826749E-2	1.783608E-2	-3.007040E-2	-5.796031E-2	-1.209666E-2	-3.916491E-2	-2.084152E-3	-4.362303E-2	-3.639960E-2	-3.527341E-2	-2.490486E-2	-4.693747E-2	-4.056293E-2	-4.789944E-2	-4.884205E-3	-1.508067E-2	-1.328309E-2	-1.931897E-2	-9.420213E-3	-3.320139E-2	-1.884511E-2	-4.850791E-2	-6.818316E-2	-5.930480E-2	-3.949395E-2	-3.420731E-2	-6.658390E-2	-3.892203E-2	-5.949904E-3	-5.047549E-2	-4.212801E-2	-4.550033E-2	-1.810661E-2	-1.017506E-2	-2.752764E-2	-4.103328E-2	-1.390758E-2	-5.814305E-3	-2.605234E-2	-3.515006E-2	-7.158681E-2	-4.463514E-2	-3.059735E-2	-5.617657E-3	-6.373619E-3	-3.119968E-2	-1.827670E-2	-3.139214E-2	-4.614616E-2	-4.979212E-2	-2.855621E-2	-4.828613E-2	-6.200392E-2	-4.051981E-2	-2.847499E-2	-5.585636E-2	-3.123340E-2	-3.703925E-2	-3.042156E-2	-1.804062E-2	-5.342537E-2	-3.734713E-2	-5.248433E-2	-6.040032E-2	-5.412578E-2	-2.329880E-2	-3.033801E-2	-5.669054E-3	-4.155786E-2	-1.778009E-2	-1.007268E-2	-3.795902E-2	-6.398146E-2	-2.678079E-2	-1.771865E-2	-5.298378E-2	-1.941016E-2	-2.106037E-2	-1.812509E-2	-1.524984E-2	-2.760859E-2	-3.811011E-2	-1.451334E-2	-5.027975E-3	2.678908E-3	-3.791829E-2	-5.507086E-2	-5.887160E-2	-5.727096E-2	-2.450464E-2	-3.074610E-2	3.929844E-3	-7.610895E-3	-1.037393E-2	-1.128941E-2	-5.456697E-2	-2.248437E-2	7.289682E-3	-4.614016E-2	-6.526506E-2	-3.921659E-2	-4.223486E-2	-5.807506E-3	-7.481756E-2	-4.612656E-2	-3.177472E-2	-5.796685E-2	-3.545967E-2	-1.942757E-2	-5.006028E-3	-3.085910E-2	-4.548632E-2	-3.378012E-2	-2.850685E-2	-9.786781E-3	-1.352125E-2	-4.035045E-2	-1.484168E-2	-3.910976E-2	-5.716179E-2	-3.230828E-2	-4.640074E-2	-2.833692E-2	-1.616741E-2	-4.951958E-2	-4.609040E-2	-1.610660E-2	-3.751923E-2	-2.836940E-2	-5.786784E-2	-2.751150E-2	-8.833372E-3	-3.287818E-2	-3.846194E-2	-3.301537E-2	-5.050460E-4	-4.534783E-2	-2.322855E-2	-4.085976E-2	-1.165948E-2	-4.767572E-2	-4.191660E-2	-9.769484E-3	-2.505804E-2
5.332090E+2	-1.697073E-2	6.123892E-4	-9.288879E-3	-3.679810E-2	-9.871920E-3	-2.868655E-2	-6.550958E-3	-9.825166E-4	-4.578295E-2	1.429194E-2	-1.232474E-2	-3.041113E-3	-2.208374E-3	-4.108854E-2	-1.516813E-3	-2.334300E-2	-1.326151E-2	-1.647744E-2	-2.088887E-3	-9.634879E-3	-3.950131E-4	-8.928310E-3	-1.928781E-2	-1.560286E-2	-3.311757E-3	5.811620E-3	-1.669632E-5	1.134136E-2	-2.571149E-2	8.888056E-3	7.955918E-3	-1.885402E-2	-2.978093E-3	-9.876058E-3	-1.194750E-2	-5.560195E-3	6.370613E-3	-1.110299E-2	2.996149E-2	-6.351450E-3	1.021271E-2	1.080626E-3	-3.082644E-2	-2.376340E-2	1.933205E-2	-2.443072E-2	-1.473198E-2	-5.871114E-3	-1.283693E-3	5.902161E-3	-6.876660E-4	-3.381879E-2	2.003354E-2	-2.000578E-2	-2.129421E-2	-6.165214E-3	-2.530915E-2	4.712263E-3	-3.680973E-2	-6.431422E-3	9.446132E-3	-9.233305E-3	-4.715293E-2	2.704622E-3	-7.589189E-3	6.753362E-3	-3.216832E-3	-1.136351E-2	-2.934771E-2	-9.070082E-3	-2.653180E-2	3.928988E-3	-7.525051E-3	-3.668375E-3	4.686031E-3	-3.647808E-2	-2.166659E-2	-1.123631E-2	-1.723240E-3	5.196652E-3	-1.656040E-2	8.985710E-3	-2.082720E-2	-1.078863E-3	-1.766497E-2	-1.145036E-2	6.318821E-3	-1.510558E-2	-2.927587E-3	-4.621235E-3	-2.378688E-3	-6.868815E-3	-1.277616E-2	-2.499747E-3	7.214979E-3	-2.881014E-2	2.834868E-2	-2.122198E-2	3.437254E-2	-9.744454E-3	4.637037E-3	-3.469426E-4	1.791390E-2	2.855799E-6	-1.067053E-3	-1.963671E-5	1.514203E-2	-1.341823E-2	-1.921484E-2	-5.045460E-2	-4.220714E-2	-5.114847E-2	1.697456E-3	1.255613E-2	-1.266840E-2	-1.502155E-2	-2.804481E-2	4.799718E-3	-2.538899E-2	-7.929289E-5	-3.114997E-2	-1.290634E-2	1.133271E-2	-1.038142E-2	5.958454E-3	1.175792E-2	-1.162642E-2	-4.501070E-3	1.652334E-2	-1.786831E-2	-1.444768E-2	1.084537E-2	-4.792991E-3	-2.868926E-2	-1.534212E-2	-2.831627E-2	-3.761692E-3	-4.750432E-2	-5.066322E-2	7.939647E-4	7.011528E-3	-1.233857E-2	-2.427680E-2	2.774116E-2	1.950072E-2	-1.423061E-2	3.352752E-2	7.180288E-4	1.789203E-2	6.425346E-3	-1.294864E-2	-2.156462E-2	1.514688E-2	-2.695563E-2	-6.548878E-3	1.314420E-2	-5.840718E-3	-6.803385E-3	2.066860E-3	-1.543738E-2	1.906463E-3	3.072723E-2	4.835667E-3	3.485436E-2
5.334110E+2	8.778775E-2	1.065937E-1	5.079682E-2	6.042598E-2	2.061449E-2	5.043118E-2	6.536161E-2	1.006446E-1	6.040785E-2	5.536646E-2	6.485162E-2	8.154009E-2	5.199513E-2	4.148695E-2	8.822747E-2	7.275704E-2	4.343775E-2	4.831776E-2	4.812776E-2	8.214023E-2	-2.203719E-3	8.354051E-2	2.474022E-2	4.327180E-2	3.547831E-2	7.045146E-2	7.264515E-2	5.642134E-2	9.455706E-2	4.402981E-2	3.334753E-2	5.709456E-2	4.059527E-2	7.734041E-2	3.302982E-2	6.550422E-2	5.777810E-2	5.131168E-2	7.180989E-2	3.793429E-2	4.825690E-2	5.437076E-2	2.312858E-2	3.897740E-2	7.328424E-2	7.123280E-2	2.842291E-2	5.093682E-2	6.579413E-2	1.785013E-2	1.986413E-2	3.296458E-2	3.371585E-2	6.568819E-2	4.657975E-2	8.211581E-3	3.059709E-2	6.839454E-2	4.226986E-2	5.692785E-2	3.539562E-2	6.200801E-2	3.344090E-2	6.654771E-2	4.575332E-2	5.186522E-2	7.432483E-2	7.890252E-2	4.075526E-2	6.342311E-2	5.363580E-2	3.983091E-2	1.173498E-4	5.447932E-2	7.509640E-2	3.427601E-2	9.720728E-2	5.021172E-2	4.282696E-2	6.583841E-2	5.137628E-2	1.056338E-1	6.617694E-2	5.249494E-2	4.594718E-2	3.982518E-2	7.461896E-2	5.721976E-2	1.551105E-2	6.096386E-2	4.033207E-2	8.556961E-2	4.494456E-2	4.531145E-2	5.389504E-2	7.983276E-2	6.173735E-2	2.963985E-2	5.399455E-2	3.316112E-2	5.609646E-2	7.365520E-2	7.079735E-2	5.804684E-2	6.430130E-2	3.687945E-2	2.655745E-2	5.706888E-2	3.221309E-2	6.329104E-2	5.504654E-2	9.280590E-2	8.763561E-2	7.350126E-2	3.555012E-2	5.240190E-2	5.968520E-2	3.577266E-2	3.540738E-2	3.932364E-2	4.714387E-2	3.713058E-2	5.657997E-2	4.095900E-2	5.613710E-2	4.497389E-2	6.259145E-2	5.037780E-2	3.153009E-2	5.461728E-2	3.778026E-2	4.415607E-2	8.416929E-2	7.202964E-2	3.961183E-2	7.235074E-2	5.147905E-2	3.995067E-2	4.954386E-2	4.206307E-2	-2.315569E-3	5.179188E-2	6.283257E-2	3.465563E-2	6.793134E-2	3.135502E-2	8.826097E-2	6.654258E-2	1.157822E-1	5.105392E-2	6.216667E-2	1.805763E-2	6.360586E-2	6.369360E-2	4.705044E-2	1.160449E-1	5.581587E-2	6.493460E-2	3.717965E-2	3.503671E-2	4.141435E-2	5.152964E-2	2.080686E-2	9.653841E-2
5.336080E+2	6.073368E-2	9.112662E-2	8.237613E-2	6.483427E-2	7.754374E-2	5.598915E-2	4.738319E-2	5.749461E-2	5.857811E-2	6.128644E-2	8.728441E-2	6.479492E-2	7.264554E-2	6.510644E-2	9.173552E-2	6.631305E-2	5.885173E-2	6.772290E-2	7.347987E-2	3.930776E-2	4.846740E-2	8.544089E-2	5.658220E-2	6.882900E-2	5.578013E-2	7.347422E-2	5.972221E-2	6.162474E-2	9.693713E-2	6.392890E-2	6.517073E-2	3.433322E-2	3.370410E-2	9.624542E-2	1.415466E-1	8.062504E-2	6.277372E-2	7.613768E-2	3.813513E-2	4.485988E-2	4.899436E-2	5.406700E-2	3.920434E-2	5.338850E-2	9.175226E-2	7.317783E-2	6.786454E-2	9.639368E-2	6.532354E-2	4.634069E-2	7.056713E-2	5.721294E-2	5.712381E-2	8.395927E-2	5.909109E-2	7.577564E-2	4.737002E-2	7.396356E-2	9.663887E-2	1.033746E-1	9.636032E-2	7.705424E-2	7.822091E-2	7.168487E-2	8.593966E-2	7.648777E-2	1.074033E-1	4.851122E-2	5.869921E-2	9.715962E-2	7.060390E-2	6.064479E-2	4.907530E-2	5.284120E-2	7.013308E-2	6.533630E-2	9.825808E-2	7.006758E-2	7.052066E-2	5.863199E-2	4.084181E-2	8.074902E-2	5.106853E-2	7.797622E-2	7.548016E-2	1.119033E-1	9.242447E-2	7.597632E-2	7.252466E-2	8.759328E-2	1.293750E-1	6.891529E-2	7.409152E-2	7.314439E-2	6.930570E-2	3.436149E-2	2.161254E-2	8.616790E-2	9.641416E-2	8.179491E-2	5.202622E-2	6.502641E-2	5.060608E-2	6.222141E-2	6.362214E-2	7.490190E-2	4.117654E-2	5.161581E-2	8.583494E-2	6.776586E-2	8.783206E-2	7.614178E-2	7.925341E-2	8.532965E-2	4.940038E-2	7.268579E-2	7.384455E-2	1.092485E-1	6.993736E-2	8.576738E-2	4.167540E-2	5.635625E-2	8.079104E-2	5.934327E-2	5.313368E-2	4.586361E-2	8.042806E-2	4.531863E-2	5.304785E-2	7.741726E-2	1.151097E-1	4.112273E-2	4.900595E-2	4.543490E-2	7.396858E-2	8.919805E-2	9.810648E-2	4.867343E-2	7.558895E-2	7.023800E-2	2.777764E-2	7.448010E-2	5.197695E-2	8.278352E-2	5.894082E-2	8.799424E-2	7.745366E-2	1.060609E-1	6.210854E-2	7.203866E-2	6.728110E-2	8.496082E-2	6.698847E-2	4.918104E-2	1.989802E-2	7.738150E-2	4.893565E-2	6.219148E-2	6.380714E-2	9.369534E-2	6.584316E-2	5.948245E-2	3.647737E-2	8.017589E-2
5.338100E+2	-6.342399E-4	1.945639E-2	-1.091782E-2	6.703981E-3	2.889563E-3	4.697411E-4	1.440716E-2	2.548658E-2	1.739614E-2	1.895426E-2	2.465486E-3	5.806759E-2	1.515197E-2	4.073815E-2	4.941747E-2	1.608416E-2	2.267929E-2	1.297777E-2	1.722648E-2	3.662440E-2	4.173446E-2	4.675990E-2	7.767614E-3	2.727424E-2	1.730735E-2	4.530628E-2	2.261402E-2	2.397195E-2	4.590108E-2	3.063075E-2	6.518034E-3	1.971678E-2	2.630676E-2	5.732995E-2	5.762324E-2	3.191377E-2	2.784933E-2	5.498461E-2	2.145699E-2	4.202304E-2	2.279825E-2	-6.998156E-4	1.774815E-2	1.679043E-2	2.854621E-2	5.614826E-3	2.089425E-2	2.917276E-2	6.006560E-2	3.149154E-2	1.515679E-2	8.299717E-3	4.672132E-2	1.076806E-2	1.735800E-2	1.618765E-2	3.915352E-2	2.882409E-2	3.036123E-2	3.469361E-2	8.656517E-3	4.909336E-2	1.496499E-2	4.511590E-2	1.186576E-3	-1.427910E-2	4.186527E-2	4.245155E-2	2.214149E-2	-1.767860E-3	3.281123E-2	4.933330E-2	1.561333E-2	-4.441918E-3	1.256952E-2	3.625709E-2	3.902477E-2	5.311365E-2	2.620630E-2	1.608866E-2	4.948123E-2	2.276553E-2	2.856901E-2	3.275086E-2	2.470034E-2	1.072230E-2	2.140517E-2	2.944613E-3	2.681975E-2	3.818303E-2	6.131793E-2	5.076963E-2	2.305653E-2	4.120378E-2	4.612676E-2	2.861937E-2	2.247602E-2	2.781846E-2	2.810091E-2	2.395307E-2	3.607048E-2	4.383669E-3	4.508903E-2	5.317435E-2	3.833839E-2	3.268032E-2	1.352583E-2	4.849445E-2	3.748164E-2	1.914118E-2	2.956428E-2	1.350525E-2	3.577019E-2	2.984402E-2	-7.647311E-3	1.611856E-2	4.655464E-2	2.597215E-2	3.713999E-2	4.655898E-2	1.361922E-2	2.290676E-2	4.449455E-2	6.021097E-2	7.657806E-3	-9.103293E-3	2.497653E-2	1.373172E-2	-2.864878E-2	1.235211E-2	4.436443E-2	8.701350E-3	3.677706E-2	2.875859E-2	2.422269E-3	4.136349E-2	3.102353E-2	6.432826E-2	-6.823157E-3	7.369891E-2	-2.300711E-2	4.214790E-2	5.300263E-2	3.444280E-2	4.716261E-2	2.815580E-2	4.929351E-2	7.037505E-2	5.536722E-2	3.488885E-2	3.530298E-2	6.438502E-2	4.988183E-2	1.357083E-2	1.869266E-2	3.608532E-2	4.200427E-2	3.558795E-2	1.907103E-2	3.707783E-2	3.065629E-2	1.810224E-2	-1.862074E-2	1.978245E-2
5.340070E+2	2.167961E-2	4.644680E-2	4.024937E-2	2.394990E-2	4.998445E-2	5.150465E-2	2.341118E-2	-2.193093E-2	2.283161E-3	4.265176E-2	2.265883E-2	1.189175E-2	-1.568485E-3	2.521238E-2	-5.785693E-4	1.688068E-2	1.389660E-2	2.321247E-2	3.501172E-3	2.217133E-2	-3.419105E-3	5.605866E-2	-1.044696E-2	1.531280E-2	6.900851E-3	3.589356E-2	6.975678E-2	-2.851984E-3	5.237256E-2	2.071393E-2	3.383027E-2	3.479366E-2	1.164349E-2	-2.088911E-3	1.111264E-2	3.628077E-2	3.187650E-2	3.599387E-2	2.029535E-2	6.092593E-3	1.078253E-2	1.350268E-2	2.342078E-2	-3.691652E-4	-7.108124E-3	2.964122E-2	1.947373E-2	2.798177E-2	5.983722E-2	2.394800E-2	2.300074E-2	4.039025E-2	1.270590E-2	1.161165E-2	2.883500E-2	4.138606E-2	2.974340E-2	2.165268E-2	3.936303E-3	5.919357E-2	4.389227E-2	6.064613E-2	4.061410E-2	4.842073E-2	3.444735E-2	1.312846E-2	1.421586E-2	2.840748E-2	2.649173E-2	2.966182E-2	7.965373E-3	1.789037E-2	2.268911E-2	4.061484E-2	2.329299E-2	1.052488E-2	4.490785E-2	4.809512E-2	3.051233E-2	5.143946E-2	2.602530E-2	1.843855E-3	1.232779E-2	4.598926E-2	2.319444E-2	2.912059E-2	1.445463E-2	2.099988E-2	1.919259E-2	-7.760215E-3	2.160271E-2	6.966377E-3	2.648879E-2	5.147354E-2	2.182572E-2	9.734820E-3	2.223648E-2	2.759319E-2	1.405395E-2	2.766414E-2	3.795551E-2	2.853312E-2	2.796407E-2	1.666031E-2	4.404983E-2	4.877728E-3	2.357155E-2	3.938940E-2	3.960380E-2	2.478750E-2	4.637809E-2	4.877251E-2	5.587177E-2	1.490794E-2	1.930823E-2	1.457364E-2	1.478927E-2	3.956481E-2	4.534077E-2	2.385177E-2	3.125360E-2	2.517497E-2	6.867393E-2	-1.816297E-2	3.152440E-2	2.989650E-2	1.271118E-2	2.615991E-2	3.910437E-2	5.488797E-2	3.097449E-2	3.550994E-2	1.956498E-2	1.865136E-2	2.924186E-2	2.347021E-2	1.339821E-2	4.041621E-2	3.868542E-2	1.767897E-2	4.958536E-3	4.877294E-2	3.572519E-2	2.477849E-3	-1.799413E-2	-1.428305E-2	2.105133E-2	4.670438E-2	2.670243E-2	7.825978E-2	5.097856E-2	3.628593E-2	3.315383E-2	3.878184E-3	5.653195E-2	5.163067E-2	5.701152E-3	3.890243E-2	2.119588E-2	3.143561E-2	5.407364E-2	1.068949E-2	4.098043E-2	4.163467E-2
5.342090E+2	5.921033E-2	6.739404E-2	6.083235E-2	6.651352E-2	7.328904E-3	6.268736E-2	5.026935E-2	6.203348E-2	8.619477E-2	6.267081E-2	7.806811E-2	4.159136E-2	6.082543E-2	6.639242E-2	6.942233E-2	8.345991E-2	6.505408E-2	6.281421E-2	3.851802E-2	5.660808E-2	4.944610E-2	5.773660E-2	8.187805E-2	7.421223E-2	9.555828E-2	6.902287E-2	6.605084E-2	7.992925E-2	4.833233E-2	4.872726E-2	5.021103E-2	7.750825E-2	6.352593E-2	8.691658E-2	8.092095E-2	7.282963E-2	4.279622E-2	4.580540E-2	6.255682E-2	4.951749E-2	4.981912E-2	6.839947E-2	5.780185E-2	6.004629E-2	8.257571E-2	3.979128E-2	2.982168E-2	7.543757E-2	8.581913E-2	5.669426E-2	4.989679E-2	6.757037E-2	8.377169E-2	4.672035E-2	3.554065E-2	6.639376E-2	5.792375E-2	6.779563E-2	6.984775E-2	1.069224E-1	6.402705E-2	2.035701E-2	8.050951E-2	9.436337E-2	9.447483E-2	6.906641E-2	6.717656E-2	5.391755E-2	5.800713E-2	8.765984E-2	7.502686E-2	6.786929E-2	9.181388E-2	3.574330E-2	3.911348E-2	4.329496E-3	8.896702E-2	6.861473E-2	6.452736E-2	7.531098E-2	5.975942E-2	5.556869E-2	4.067684E-2	8.818563E-2	7.156596E-2	6.559789E-2	6.078124E-2	5.045888E-2	6.118849E-2	5.829215E-2	3.520922E-2	3.395152E-2	4.271784E-2	7.409597E-2	4.953092E-2	4.073253E-2	6.761269E-2	7.681681E-2	9.871910E-2	8.776237E-2	4.037613E-2	8.316690E-2	8.895962E-2	8.236180E-2	9.470370E-2	6.371623E-2	3.858816E-2	4.578951E-2	6.525098E-2	6.515958E-2	1.026947E-1	5.365942E-2	1.042842E-1	9.348360E-2	4.547702E-2	6.816789E-2	6.198511E-2	6.292070E-2	5.005933E-2	9.079753E-2	5.058204E-2	5.864711E-2	4.203264E-2	5.444444E-2	5.125986E-2	8.865871E-2	6.592754E-2	4.594042E-2	7.846363E-2	5.499478E-2	6.818872E-2	7.137240E-2	3.210453E-2	8.184305E-2	5.451794E-2	8.482795E-2	4.307681E-2	8.384556E-2	8.856906E-2	4.572698E-2	1.433284E-2	4.437601E-2	5.423204E-2	8.578943E-2	5.308261E-2	4.892599E-2	5.496826E-2	4.795769E-2	8.981143E-2	6.644865E-2	3.211602E-2	8.614241E-2	5.734720E-2	7.535755E-2	6.255356E-2	6.342031E-2	7.697093E-2	3.784654E-2	9.213747E-2	5.541063E-2	7.148417E-2	1.228381E-1	1.237451E-1	9.092587E-2
5.344170E+2	2.209342E-1	2.593812E-1	1.770032E-1	2.289357E-1	1.937620E-1	2.435830E-1	2.754152E-1	2.504951E-1	1.927165E-1	2.118726E-1	2.201863E-1	2.470483E-1	2.350652E-1	2.957704E-1	2.264986E-1	2.422622E-1	2.010780E-1	2.265927E-1	2.267130E-1	2.061118E-1	2.511002E-1	2.175053E-1	2.499113E-1	2.520028E-1	2.233521E-1	1.966357E-1	2.809034E-1	3.070039E-1	2.431193E-1	2.528536E-1	2.431567E-1	2.522960E-1	2.337902E-1	2.367497E-1	2.466144E-1	2.276427E-1	2.547452E-1	2.156976E-1	2.739272E-1	2.609946E-1	2.340383E-1	2.584981E-1	2.723464E-1	2.643006E-1	2.607210E-1	2.461771E-1	2.902075E-1	2.588680E-1	2.521503E-1	2.572013E-1	2.213001E-1	2.421227E-1	2.626619E-1	2.210230E-1	2.575623E-1	2.159976E-1	2.325651E-1	2.418995E-1	2.581048E-1	2.400628E-1	2.785524E-1	2.366497E-1	2.242803E-1	2.515507E-1	2.531641E-1	2.710845E-1	2.806117E-1	2.776337E-1	2.918616E-1	2.594826E-1	2.392853E-1	2.419445E-1	2.543299E-1	2.430314E-1	2.493360E-1	2.153996E-1	2.811195E-1	2.719050E-1	2.826324E-1	2.535849E-1	2.110890E-1	2.625915E-1	2.251335E-1	2.602835E-1	2.480034E-1	2.323973E-1	2.439429E-1	2.334092E-1	2.450867E-1	2.303195E-1	2.636834E-1	2.637712E-1	2.832117E-1	2.357392E-1	2.432923E-1	2.599605E-1	2.661824E-1	2.612623E-1	2.275104E-1	2.647354E-1	2.645889E-1	2.830499E-1	2.597093E-1	2.527601E-1	2.381907E-1	2.481540E-1	2.573238E-1	2.575335E-1	2.657552E-1	2.372542E-1	2.389652E-1	2.649056E-1	2.285470E-1	2.747984E-1	2.777561E-1	2.594917E-1	2.419223E-1	2.755912E-1	2.856155E-1	2.516968E-1	2.350751E-1	2.798349E-1	2.226046E-1	2.330624E-1	2.596166E-1	2.492907E-1	1.771045E-1	2.560521E-1	2.344464E-1	2.379159E-1	2.715669E-1	2.672561E-1	2.555222E-1	2.814030E-1	2.224084E-1	2.475332E-1	2.740146E-1	2.281336E-1	2.558206E-1	2.612986E-1	1.978824E-1	2.575413E-1	2.025401E-1	2.183109E-1	2.188473E-1	2.188193E-1	2.301338E-1	2.463364E-1	2.897842E-1	2.314086E-1	2.621978E-1	2.318602E-1	2.570274E-1	2.093379E-1	2.657191E-1	2.407107E-1	3.102186E-1	1.785079E-1	2.530321E-1	2.859633E-1	2.393047E-1	2.269884E-1	2.076694E-1	1.939514E-1
5.346150E+2	3.923371E-1	4.301507E-1	4.506740E-1	4.006747E-1	4.309953E-1	3.964446E-1	4.793475E-1	4.163593E-1	4.405656E-1	3.937017E-1	4.141469E-1	3.922700E-1	4.905032E-1	4.123988E-1	4.514282E-1	4.596047E-1	4.626166E-1	4.636234E-1	4.565159E-1	4.245718E-1	4.507393E-1	5.026446E-1	4.805571E-1	4.877674E-1	4.628878E-1	4.947138E-1	5.099189E-1	4.575209E-1	4.640493E-1	4.841997E-1	4.826781E-1	4.822948E-1	4.075837E-1	5.124244E-1	4.636722E-1	5.330987E-1	4.412367E-1	4.620122E-1	4.772050E-1	4.938341E-1	4.404910E-1	4.997448E-1	5.412259E-1	5.093467E-1	5.008215E-1	4.764923E-1	4.815565E-1	5.334463E-1	4.752792E-1	4.620509E-1	4.756142E-1	5.009382E-1	5.067172E-1	4.533267E-1	4.655137E-1	4.787273E-1	4.628685E-1	4.443827E-1	4.526668E-1	4.995338E-1	4.359578E-1	4.643017E-1	4.887270E-1	4.715827E-1	4.291135E-1	4.219050E-1	4.896968E-1	4.529688E-1	4.546311E-1	5.183608E-1	4.521702E-1	4.272167E-1	4.473859E-1	4.871243E-1	5.004600E-1	4.034843E-1	5.260886E-1	4.771929E-1	4.647200E-1	4.885009E-1	4.472781E-1	4.661402E-1	4.710647E-1	4.498832E-1	4.283490E-1	4.388367E-1	4.770757E-1	4.695469E-1	4.921341E-1	4.260831E-1	4.502734E-1	4.251793E-1	4.881784E-1	4.872637E-1	5.515133E-1	4.828817E-1	4.596401E-1	4.823096E-1	4.624320E-1	5.098358E-1	4.261064E-1	4.496239E-1	4.634981E-1	4.638183E-1	4.666224E-1	4.815460E-1	4.888407E-1	5.114774E-1	4.606892E-1	4.258649E-1	4.603317E-1	4.764379E-1	4.741524E-1	4.769843E-1	4.470235E-1	4.051579E-1	4.881614E-1	4.690206E-1	4.477942E-1	4.591575E-1	4.751294E-1	4.901252E-1	4.258769E-1	4.354017E-1	4.842551E-1	4.880774E-1	4.728803E-1	4.801013E-1	5.392447E-1	4.480092E-1	4.173844E-1	4.533903E-1	4.505006E-1	4.753132E-1	4.863062E-1	4.848292E-1	4.565237E-1	4.986670E-1	4.231549E-1	5.143715E-1	5.025790E-1	4.326799E-1	4.563461E-1	4.501892E-1	4.329390E-1	4.805524E-1	4.926492E-1	5.127682E-1	4.530037E-1	4.855568E-1	4.270010E-1	4.536188E-1	5.152208E-1	4.746514E-1	4.452099E-1	4.964786E-1	4.238702E-1	4.587334E-1	4.532098E-1	4.948445E-1	5.258299E-1	4.557358E-1	4.669188E-1	4.977807E-1
5.348280E+2	5.202533E-1	5.947706E-1	6.490308E-1	5.998752E-1	5.555440E-1	5.726210E-1	5.452719E-1	5.866740E-1	6.498150E-1	6.225355E-1	6.825969E-1	6.268371E-1	6.105611E-1	6.483913E-1	5.843291E-1	5.837956E-1	5.755805E-1	6.249590E-1	6.603270E-1	6.382980E-1	6.598155E-1	6.277798E-1	6.144257E-1	6.063246E-1	6.271552E-1	6.236515E-1	6.666446E-1	6.683629E-1	6.515213E-1	6.381122E-1	6.583506E-1	6.495583E-1	6.787190E-1	7.368816E-1	6.372138E-1	6.122812E-1	6.503120E-1	6.651990E-1	6.624589E-1	6.419518E-1	6.617642E-1	5.954685E-1	6.966031E-1	6.295508E-1	7.023193E-1	6.533821E-1	6.298412E-1	6.981721E-1	6.742686E-1	6.590020E-1	5.786300E-1	6.749475E-1	6.325102E-1	6.244814E-1	6.941343E-1	7.185636E-1	6.516055E-1	6.317037E-1	6.628681E-1	6.819070E-1	6.218027E-1	6.421591E-1	5.649278E-1	6.875672E-1	5.910916E-1	6.902501E-1	6.972832E-1	6.447060E-1	6.659740E-1	6.896357E-1	6.313785E-1	6.727806E-1	6.968359E-1	6.803419E-1	5.876210E-1	6.265617E-1	6.937012E-1	6.504223E-1	6.487275E-1	6.011680E-1	6.098446E-1	6.743222E-1	7.244329E-1	6.454026E-1	7.235133E-1	6.699596E-1	6.621415E-1	6.473708E-1	6.941001E-1	6.366100E-1	6.291780E-1	6.093396E-1	6.524333E-1	6.428229E-1	6.623254E-1	6.422596E-1	6.190507E-1	6.379258E-1	6.417333E-1	6.370714E-1	6.654932E-1	6.264378E-1	6.522291E-1	6.492649E-1	6.265244E-1	7.200575E-1	6.356428E-1	6.244633E-1	6.472308E-1	6.054386E-1	6.927460E-1	6.177265E-1	6.782877E-1	6.525084E-1	5.888610E-1	5.950072E-1	6.099539E-1	5.759231E-1	5.884837E-1	6.217161E-1	6.036361E-1	6.579721E-1	6.528075E-1	6.228250E-1	6.265240E-1	6.479337E-1	6.162176E-1	6.797909E-1	6.085982E-1	5.514803E-1	6.839072E-1	6.473145E-1	6.422452E-1	6.456257E-1	6.672462E-1	6.350577E-1	6.091286E-1	6.246393E-1	6.869381E-1	5.979879E-1	6.860903E-1	6.861596E-1	6.782169E-1	6.934370E-1	6.516080E-1	6.733421E-1	6.650322E-1	6.209454E-1	6.477876E-1	6.995687E-1	6.709341E-1	6.022968E-1	6.287608E-1	6.982153E-1	6.728493E-1	7.097501E-1	7.163672E-1	5.886027E-1	6.609204E-1	6.684798E-1	6.524042E-1	6.420675E-1	6.768129E-1	7.555650E-1
5.350100E+2	9.578008E-1	9.023189E-1	9.707199E-1	9.851808E-1	8.959090E-1	9.584544E-1	9.332117E-1	9.321864E-1	9.812444E-1	9.425515E-1	9.894308E-1	8.899480E-1	9.503378E-1	9.935588E-1	9.828947E-1	9.558463E-1	9.098703E-1	9.860353E-1	1.010549E+0	1.004845E+0	9.905270E-1	9.589876E-1	9.655788E-1	9.018686E-1	9.781997E-1	8.895304E-1	1.010098E+0	9.669171E-1	9.677411E-1	9.507126E-1	9.463514E-1	8.942337E-1	9.480477E-1	9.705068E-1	9.516859E-1	1.008813E+0	1.003918E+0	9.917251E-1	1.011898E+0	9.944397E-1	9.005187E-1	9.648186E-1	9.549825E-1	1.052903E+0	9.573611E-1	9.929275E-1	1.066017E+0	1.020645E+0	9.459708E-1	9.619565E-1	1.003954E+0	9.661777E-1	9.465109E-1	9.823461E-1	9.698147E-1	9.330104E-1	9.419140E-1	9.566699E-1	9.401540E-1	9.693924E-1	1.030631E+0	9.769439E-1	9.382340E-1	9.547806E-1	9.723301E-1	9.064983E-1	9.670837E-1	1.010241E+0	9.176744E-1	9.749557E-1	9.352670E-1	9.939813E-1	1.008616E+0	1.039426E+0	9.818431E-1	9.556996E-1	9.662534E-1	9.769874E-1	9.305842E-1	9.302160E-1	9.705630E-1	9.335158E-1	1.041571E+0	1.001548E+0	9.795763E-1	9.657583E-1	1.009708E+0	8.876594E-1	9.363490E-1	9.454618E-1	9.247012E-1	9.568080E-1	9.568346E-1	9.629843E-1	9.482074E-1	1.026294E+0	9.908227E-1	9.949197E-1	9.775907E-1	1.036045E+0	9.939977E-1	9.663165E-1	9.554848E-1	1.039438E+0	1.036317E+0	9.744844E-1	9.454452E-1	9.873944E-1	1.048354E+0	9.452963E-1	1.003443E+0	9.005688E-1	1.041986E+0	9.769299E-1	9.548548E-1	9.380654E-1	9.613087E-1	1.029728E+0	9.166665E-1	9.813748E-1	9.797426E-1	1.032458E+0	1.059444E+0	9.604101E-1	9.791261E-1	9.682021E-1	1.009039E+0	9.420545E-1	9.511704E-1	9.511860E-1	9.943376E-1	9.709666E-1	1.000443E+0	9.502451E-1	9.278887E-1	9.450458E-1	9.276337E-1	9.886650E-1	1.009003E+0	1.036002E+0	8.743800E-1	1.060083E+0	8.801754E-1	9.588432E-1	1.014254E+0	9.969976E-1	9.378350E-1	9.857252E-1	9.782385E-1	1.039876E+0	9.471203E-1	9.132263E-1	9.727060E-1	9.490895E-1	1.000668E+0	1.041686E+0	1.029565E+0	1.004344E+0	1.058461E+0	9.690312E-1	9.994071E-1	8.820251E-1	1.059409E+0	9.575624E-1
5.352080E+2	1.476620E+0	1.424346E+0	1.429925E+0	1.352555E+0	1.456811E+0	1.373414E+0	1.352377E+0	1.459865E+0	1.439856E+0	1.513923E+0	1.455717E+0	1.449062E+0	1.498698E+0	1.474591E+0	1.515265E+0	1.473746E+0	1.553352E+0	1.483777E+0	1.450261E+0	1.535760E+0	1.459250E+0	1.447888E+0	1.515320E+0	1.398926E+0	1.363932E+0	1.409949E+0	1.511880E+0	1.503720E+0	1.455552E+0	1.428057E+0	1.541435E+0	1.469073E+0	1.502116E+0	1.470070E+0	1.479016E+0	1.444463E+0	1.511103E+0	1.533507E+0	1.442619E+0	1.446275E+0	1.505347E+0	1.485816E+0	1.495793E+0	1.554942E+0	1.428612E+0	1.482584E+0	1.490084E+0	1.601771E+0	1.476229E+0	1.444998E+0	1.466332E+0	1.401639E+0	1.398722E+0	1.439371E+0	1.404763E+0	1.444923E+0	1.412559E+0	1.441052E+0	1.531481E+0	1.490687E+0	1.532522E+0	1.475891E+0	1.432915E+0	1.415199E+0	1.376726E+0	1.402387E+0	1.435841E+0	1.515371E+0	1.467932E+0	1.521579E+0	1.444375E+0	1.536311E+0	1.451605E+0	1.498567E+0	1.537614E+0	1.475693E+0	1.500306E+0	1.502284E+0	1.461776E+0	1.479161E+0	1.460616E+0	1.532664E+0	1.521634E+0	1.473631E+0	1.461968E+0	1.408268E+0	1.423872E+0	1.536385E+0	1.519765E+0	1.453429E+0	1.374044E+0	1.425218E+0	1.535750E+0	1.508240E+0	1.566737E+0	1.488273E+0	1.500710E+0	1.532368E+0	1.460230E+0	1.504643E+0	1.410600E+0	1.400794E+0	1.474459E+0	1.516013E+0	1.445705E+0	1.482531E+0	1.435668E+0	1.547722E+0	1.483841E+0	1.498540E+0	1.477611E+0	1.424652E+0	1.485134E+0	1.374252E+0	1.394881E+0	1.418857E+0	1.378942E+0	1.502123E+0	1.463566E+0	1.547316E+0	1.484505E+0	1.520081E+0	1.469348E+0	1.478773E+0	1.478641E+0	1.450464E+0	1.423579E+0	1.427315E+0	1.490556E+0	1.487250E+0	1.469010E+0	1.468938E+0	1.416693E+0	1.416633E+0	1.416626E+0	1.547639E+0	1.441495E+0	1.551662E+0	1.556190E+0	1.474909E+0	1.450877E+0	1.383881E+0	1.367324E+0	1.537105E+0	1.485425E+0	1.580013E+0	1.487150E+0	1.450996E+0	1.496160E+0	1.519616E+0	1.471963E+0	1.454639E+0	1.451411E+0	1.471616E+0	1.440533E+0	1.455238E+0	1.499754E+0	1.490511E+0	1.482731E+0	1.572014E+0	1.447649E+0	1.455566E+0	1.376486E+0	1.322406E+0
5.354110E+2	2.350365E+0	2.365073E+0	2.342578E+0	2.289585E+0	2.439919E+0	2.284842E+0	2.342104E+0	2.396770E+0	2.333115E+0	2.327356E+0	2.493395E+0	2.298699E+0	2.396061E+0	2.422276E+0	2.316315E+0	2.446718E+0	2.253335E+0	2.440442E+0	2.408012E+0	2.399004E+0	2.336446E+0	2.361220E+0	2.302550E+0	2.331956E+0	2.241668E+0	2.386671E+0	2.290996E+0	2.346291E+0	2.393106E+0	2.308459E+0	2.362656E+0	2.355111E+0	2.333917E+0	2.344441E+0	2.404924E+0	2.501229E+0	2.260847E+0	2.294264E+0	2.256922E+0	2.273147E+0	2.296605E+0	2.441594E+0	2.372733E+0	2.461257E+0	2.349138E+0	2.409515E+0	2.352514E+0	2.410012E+0	2.221298E+0	2.386629E+0	2.401877E+0	2.366452E+0	2.304370E+0	2.344258E+0	2.365277E+0	2.346123E+0	2.317013E+0	2.291312E+0	2.241237E+0	2.377074E+0	2.228710E+0	2.324277E+0	2.318426E+0	2.324721E+0	2.092314E+0	2.365199E+0	2.336113E+0	2.308191E+0	2.234789E+0	2.422627E+0	2.370041E+0	2.282813E+0	2.289893E+0	2.431639E+0	2.258404E+0	2.244718E+0	2.397626E+0	2.420589E+0	2.331677E+0	2.359440E+0	2.272316E+0	2.546810E+0	2.415169E+0	2.319948E+0	2.406195E+0	2.203466E+0	2.395288E+0	2.206070E+0	2.394584E+0	2.321710E+0	2.256916E+0	2.304505E+0	2.399110E+0	2.409112E+0	2.386040E+0	2.320769E+0	2.260256E+0	2.377931E+0	2.462423E+0	2.345132E+0	2.159230E+0	2.209248E+0	2.261400E+0	2.339949E+0	2.344333E+0	2.214176E+0	2.261710E+0	2.426305E+0	2.362090E+0	2.414001E+0	2.219846E+0	2.240824E+0	2.258590E+0	2.248909E+0	2.324759E+0	2.237710E+0	2.217780E+0	2.356527E+0	2.308467E+0	2.300198E+0	2.406934E+0	2.267340E+0	2.339650E+0	2.247524E+0	2.328315E+0	2.334550E+0	2.350834E+0	2.348696E+0	2.264919E+0	2.282997E+0	2.273401E+0	2.291192E+0	2.249423E+0	2.306106E+0	2.310162E+0	2.225068E+0	2.267248E+0	2.278326E+0	2.370612E+0	2.299096E+0	2.351726E+0	2.424325E+0	2.219889E+0	2.375800E+0	2.428450E+0	2.262154E+0	2.283190E+0	2.344554E+0	2.318112E+0	2.321563E+0	2.356252E+0	2.351089E+0	2.352679E+0	2.398438E+0	2.319722E+0	2.390362E+0	2.389271E+0	2.345732E+0	2.295304E+0	2.452167E+0	2.357402E+0	2.300717E+0	2.267337E+0	2.404771E+0
5.356100E+2	2.643984E+0	2.845272E+0	2.648573E+0	2.744002E+0	2.761504E+0	2.814597E+0	2.756278E+0	2.693148E+0	2.691590E+0	2.751702E+0	2.869903E+0	2.701030E+0	2.744203E+0	2.842043E+0	2.828270E+0	2.876612E+0	2.728809E+0	2.675446E+0	2.822970E+0	2.804219E+0	2.746022E+0	2.726349E+0	2.730510E+0	2.700966E+0	2.737395E+0	2.718457E+0	2.570249E+0	2.689898E+0	2.679025E+0	2.572230E+0	2.703423E+0	2.772673E+0	2.671181E+0	2.770992E+0	2.673172E+0	2.693235E+0	2.646569E+0	2.609529E+0	2.681043E+0	2.688100E+0	2.561932E+0	2.729643E+0	2.725699E+0	2.810554E+0	2.615336E+0	2.754454E+0	2.605800E+0	2.851363E+0	2.777427E+0	2.724851E+0	2.691214E+0	2.574247E+0	2.578054E+0	2.654639E+0	2.674712E+0	2.688873E+0	2.582018E+0	2.615976E+0	2.521641E+0	2.649457E+0	2.645576E+0	2.679770E+0	2.650672E+0	2.648200E+0	2.570156E+0	2.611803E+0	2.713136E+0	2.633727E+0	2.565731E+0	2.691831E+0	2.667876E+0	2.585960E+0	2.680532E+0	2.792210E+0	2.729338E+0	2.586641E+0	2.667764E+0	2.670401E+0	2.609119E+0	2.694993E+0	2.523084E+0	2.622759E+0	2.639208E+0	2.602720E+0	2.574344E+0	2.610613E+0	2.667183E+0	2.592029E+0	2.661154E+0	2.593634E+0	2.627208E+0	2.687721E+0	2.706351E+0	2.692683E+0	2.666947E+0	2.700174E+0	2.574964E+0	2.656090E+0	2.681870E+0	2.679682E+0	2.585495E+0	2.594040E+0	2.678664E+0	2.769041E+0	2.573528E+0	2.595442E+0	2.647230E+0	2.706600E+0	2.636754E+0	2.788456E+0	2.596038E+0	2.579744E+0	2.646517E+0	2.665281E+0	2.682072E+0	2.708462E+0	2.591053E+0	2.687368E+0	2.642747E+0	2.594546E+0	2.736079E+0	2.768159E+0	2.758528E+0	2.561412E+0	2.627056E+0	2.776191E+0	2.616814E+0	2.702228E+0	2.683669E+0	2.497980E+0	2.658551E+0	2.657015E+0	2.631065E+0	2.745485E+0	2.625710E+0	2.544014E+0	2.629413E+0	2.703711E+0	2.727150E+0	2.614787E+0	2.722496E+0	2.582928E+0	2.543917E+0	2.625990E+0	2.584037E+0	2.649316E+0	2.602745E+0	2.643562E+0	2.649563E+0	2.591754E+0	2.646256E+0	2.589453E+0	2.747854E+0	2.728200E+0	2.547274E+0	2.706508E+0	2.672866E+0	2.667101E+0	2.609858E+0	2.720493E+0	2.676112E+0	2.473831E+0	2.670542E+0	2.638848E+0
5.358180E+2	2.321634E+0	2.380539E+0	2.248972E+0	2.395334E+0	2.416990E+0	2.358849E+0	2.440988E+0	2.410906E+0	2.349081E+0	2.305408E+0	2.418723E+0	2.369442E+0	2.410799E+0	2.410748E+0	2.412471E+0	2.384973E+0	2.414865E+0	2.426063E+0	2.439541E+0	2.447911E+0	2.376254E+0	2.350961E+0	2.369617E+0	2.332564E+0	2.243427E+0	2.326705E+0	2.357311E+0	2.384880E+0	2.268938E+0	2.333552E+0	2.394905E+0	2.277266E+0	2.277875E+0	2.332148E+0	2.350117E+0	2.334005E+0	2.269968E+0	2.421748E+0	2.383986E+0	2.237663E+0	2.317196E+0	2.293980E+0	2.307001E+0	2.382463E+0	2.336173E+0	2.288211E+0	2.321205E+0	2.368631E+0	2.270196E+0	2.313106E+0	2.205497E+0	2.340399E+0	2.340408E+0	2.253129E+0	2.299716E+0	2.402628E+0	2.324023E+0	2.312089E+0	2.188648E+0	2.389467E+0	2.258402E+0	2.265049E+0	2.244113E+0	2.205813E+0	2.251703E+0	2.255686E+0	2.310409E+0	2.353376E+0	2.222358E+0	2.394693E+0	2.352071E+0	2.359005E+0	2.350687E+0	2.347986E+0	2.420121E+0	2.249380E+0	2.350126E+0	2.317632E+0	2.309643E+0	2.297856E+0	2.246504E+0	2.293081E+0	2.314833E+0	2.309942E+0	2.258211E+0	2.253009E+0	2.389487E+0	2.336225E+0	2.328113E+0	2.209692E+0	2.307484E+0	2.278879E+0	2.231145E+0	2.280780E+0	2.367542E+0	2.390947E+0	2.215121E+0	2.122853E+0	2.422204E+0	2.386888E+0	2.249879E+0	2.303464E+0	2.326660E+0	2.330899E+0	2.353157E+0	2.293342E+0	2.297298E+0	2.442665E+0	2.305742E+0	2.306844E+0	2.269874E+0	2.301442E+0	2.216988E+0	2.199139E+0	2.333262E+0	2.278340E+0	2.299114E+0	2.291719E+0	2.371640E+0	2.314677E+0	2.346718E+0	2.280325E+0	2.190963E+0	2.211543E+0	2.251899E+0	2.320850E+0	2.362134E+0	2.292825E+0	2.312714E+0	2.227157E+0	2.271576E+0	2.284077E+0	2.228223E+0	2.382879E+0	2.305026E+0	2.216633E+0	2.304225E+0	2.284339E+0	2.257144E+0	2.347739E+0	2.252530E+0	2.338329E+0	2.219252E+0	2.332311E+0	2.220823E+0	2.401229E+0	2.325440E+0	2.187178E+0	2.306539E+0	2.259091E+0	2.231441E+0	2.196385E+0	2.274064E+0	2.285522E+0	2.234936E+0	2.378779E+0	2.391516E+0	2.183602E+0	2.334033E+0	2.272298E+0	2.326270E+0	2.397722E+0	2.107517E+0	2.433785E+0
5.360120E+2	2.154178E+0	2.085131E+0	2.074118E+0	1.957122E+0	2.101374E+0	2.083766E+0	1.953878E+0	2.008125E+0	1.994535E+0	2.070821E+0	2.105201E+0	2.034731E+0	2.147292E+0	1.972477E+0	2.041108E+0	1.977094E+0	2.017329E+0	2.009384E+0	2.101401E+0	2.119436E+0	2.146150E+0	2.038839E+0	2.092227E+0	2.049684E+0	2.025558E+0	2.006976E+0	2.096221E+0	2.073410E+0	1.914598E+0	2.040882E+0	1.956138E+0	2.060411E+0	2.045067E+0	1.999100E+0	2.003133E+0	2.047940E+0	1.913214E+0	1.984640E+0	2.042215E+0	2.032472E+0	1.979871E+0	2.022522E+0	2.029214E+0	2.043384E+0	1.894727E+0	2.000679E+0	2.082739E+0	2.075799E+0	1.997578E+0	1.977599E+0	1.971779E+0	1.942071E+0	2.054622E+0	1.942468E+0	2.057974E+0	1.994233E+0	1.939069E+0	1.931728E+0	1.965552E+0	2.062507E+0	1.969535E+0	1.973102E+0	2.069712E+0	2.013514E+0	1.941071E+0	1.987722E+0	2.006888E+0	1.882985E+0	1.913584E+0	2.127396E+0	1.988706E+0	1.989175E+0	1.985721E+0	2.115583E+0	2.101865E+0	1.987778E+0	2.040033E+0	2.052193E+0	2.013601E+0	2.057493E+0	1.944874E+0	1.949022E+0	2.033043E+0	2.050024E+0	2.095885E+0	1.940134E+0	2.017681E+0	1.981511E+0	1.960857E+0	1.900473E+0	1.895645E+0	1.935806E+0	1.969744E+0	2.033000E+0	2.138385E+0	2.031891E+0	1.943665E+0	1.979851E+0	2.036177E+0	2.022773E+0	1.911697E+0	1.948198E+0	1.971572E+0	1.989564E+0	2.083402E+0	1.958514E+0	2.023220E+0	2.134732E+0	2.024064E+0	2.019245E+0	1.965855E+0	2.078152E+0	1.996445E+0	1.954525E+0	1.978192E+0	1.953326E+0	1.991899E+0	2.032674E+0	2.010948E+0	1.984296E+0	2.066829E+0	2.098936E+0	1.998220E+0	1.994792E+0	2.011172E+0	2.027041E+0	2.020481E+0	1.992811E+0	2.081499E+0	1.977188E+0	1.985955E+0	1.965842E+0	1.983418E+0	1.987523E+0	2.010671E+0	1.955430E+0	1.928612E+0	2.040168E+0	2.036669E+0	2.075927E+0	2.014173E+0	2.074677E+0	1.875057E+0	1.983800E+0	1.972410E+0	2.162123E+0	2.007118E+0	1.999936E+0	1.928323E+0	2.058314E+0	1.987440E+0	2.034930E+0	2.002453E+0	2.016627E+0	2.037881E+0	1.985798E+0	2.039020E+0	2.040356E+0	1.997201E+0	1.985802E+0	1.917134E+0	1.956362E+0	1.924953E+0	2.316433E+0
5.362000E+2	1.909324E+0	1.905331E+0	2.074021E+0	1.936590E+0	1.940395E+0	2.053164E+0	1.921878E+0	1.924640E+0	1.930310E+0	2.026288E+0	2.082387E+0	1.947197E+0	1.967157E+0	1.931420E+0	1.969386E+0	2.003120E+0	2.035029E+0	1.977299E+0	2.051455E+0	2.036412E+0	2.016992E+0	1.970641E+0	1.974772E+0	1.923400E+0	1.930733E+0	2.053377E+0	2.008012E+0	2.062710E+0	1.945839E+0	1.946217E+0	2.040635E+0	1.935488E+0	2.027212E+0	2.011182E+0	1.954115E+0	2.027778E+0	1.991455E+0	1.863792E+0	2.014795E+0	1.982900E+0	2.014084E+0	1.996930E+0	2.096419E+0	2.060380E+0	1.942346E+0	1.940921E+0	1.972814E+0	1.994801E+0	1.963160E+0	1.938481E+0	1.937904E+0	1.947443E+0	1.945180E+0	1.977146E+0	1.994610E+0	1.995318E+0	1.936401E+0	1.941447E+0	1.941195E+0	1.960296E+0	1.970776E+0	1.986159E+0	1.920028E+0	1.954240E+0	1.839643E+0	1.949643E+0	1.866788E+0	1.988509E+0	1.972708E+0	2.020164E+0	2.006077E+0	1.956480E+0	1.928275E+0	2.048042E+0	1.946762E+0	1.959260E+0	1.901742E+0	1.965788E+0	1.945846E+0	2.046661E+0	1.915163E+0	2.030698E+0	2.047274E+0	1.993858E+0	1.930112E+0	1.873930E+0	1.962368E+0	1.863215E+0	2.011490E+0	1.887039E+0	1.990253E+0	1.924211E+0	1.990520E+0	1.913120E+0	2.030225E+0	1.939803E+0	1.846207E+0	1.928886E+0	1.898165E+0	2.046507E+0	1.891165E+0	1.887255E+0	1.967867E+0	2.039417E+0	1.832975E+0	1.829035E+0	1.950211E+0	1.994402E+0	1.981951E+0	1.905762E+0	1.928936E+0	2.065457E+0	1.875972E+0	1.845199E+0	2.017586E+0	1.813702E+0	1.884979E+0	1.993259E+0	1.924027E+0	1.943805E+0	2.025816E+0	2.033491E+0	1.967592E+0	1.897146E+0	1.941028E+0	2.036746E+0	2.024521E+0	1.858566E+0	2.018699E+0	1.899728E+0	1.952655E+0	1.957698E+0	1.890060E+0	1.973498E+0	1.921811E+0	1.892695E+0	1.968266E+0	1.902759E+0	2.065560E+0	1.941966E+0	1.905795E+0	1.983994E+0	1.867158E+0	2.032437E+0	1.941710E+0	2.027675E+0	1.896556E+0	1.901327E+0	1.923098E+0	1.993331E+0	1.934721E+0	1.921569E+0	1.906797E+0	1.890297E+0	1.846824E+0	2.058087E+0	2.042857E+0	1.917524E+0	1.980204E+0	2.005843E+0	1.941474E+0	1.873013E+0	1.795883E+0	2.189758E+0
5.364090E+2	2.151406E+0	2.177547E+0	2.093205E+0	2.144193E+0	2.122584E+0	2.093372E+0	2.168680E+0	2.235521E+0	2.135057E+0	2.139003E+0	2.103880E+0	2.194018E+0	2.159180E+0	2.273163E+0	2.147605E+0	2.162654E+0	2.150465E+0	2.225619E+0	2.211214E+0	2.233030E+0	2.185153E+0	2.231793E+0	2.230346E+0	2.179524E+0	2.196031E+0	2.165420E+0	2.197482E+0	2.177174E+0	2.165344E+0	2.178197E+0	2.244737E+0	2.110911E+0	2.190805E+0	2.233730E+0	2.194889E+0	2.148440E+0	2.070623E+0	2.148668E+0	2.139447E+0	2.207985E+0	2.099643E+0	2.148972E+0	2.271487E+0	2.233273E+0	2.178088E+0	2.186626E+0	2.212044E+0	2.208462E+0	2.204579E+0	2.133477E+0	2.242135E+0	2.190899E+0	2.158008E+0	2.106026E+0	2.176476E+0	2.214489E+0	2.177852E+0	2.103923E+0	2.133567E+0	2.077310E+0	2.206650E+0	2.165768E+0	2.167691E+0	2.158460E+0	2.063847E+0	2.147014E+0	2.248580E+0	2.128533E+0	2.173097E+0	2.247138E+0	2.140878E+0	2.110568E+0	2.085089E+0	2.179702E+0	2.189806E+0	2.164019E+0	2.206004E+0	2.167428E+0	2.204280E+0	2.109267E+0	2.208944E+0	2.190240E+0	2.266708E+0	2.128549E+0	2.221110E+0	2.051201E+0	2.131367E+0	2.184863E+0	2.170210E+0	2.084958E+0	2.029921E+0	2.185443E+0	2.201245E+0	2.202783E+0	2.235630E+0	2.124554E+0	2.067183E+0	2.169837E+0	2.177900E+0	2.286444E+0	2.058472E+0	2.081883E+0	2.208164E+0	2.302542E+0	2.188396E+0	2.022679E+0	2.136646E+0	2.302428E+0	2.174459E+0	2.195840E+0	2.100900E+0	2.139175E+0	2.204253E+0	2.115589E+0	2.160785E+0	2.072262E+0	2.179084E+0	2.171348E+0	2.218148E+0	2.148895E+0	2.145104E+0	2.229439E+0	2.191388E+0	2.154203E+0	2.200461E+0	2.103509E+0	2.119521E+0	2.192937E+0	2.174556E+0	2.117822E+0	2.114458E+0	2.060738E+0	2.044702E+0	2.118337E+0	2.070597E+0	2.090825E+0	2.148472E+0	2.111541E+0	2.207511E+0	2.149217E+0	2.151180E+0	2.193094E+0	2.157112E+0	2.197468E+0	2.075849E+0	2.120211E+0	2.154487E+0	2.201315E+0	2.148318E+0	2.218441E+0	2.129794E+0	2.087886E+0	2.166796E+0	2.170333E+0	2.029906E+0	2.189186E+0	2.247938E+0	2.039696E+0	2.171105E+0	2.229558E+0	2.112052E+0	2.052070E+0	2.140094E+0	2.123256E+0
5.366140E+2	1.889095E+0	1.824706E+0	1.829490E+0	1.732727E+0	1.891935E+0	1.793329E+0	1.845050E+0	1.881110E+0	1.701217E+0	1.733240E+0	1.932786E+0	1.791590E+0	1.843127E+0	1.862740E+0	1.771297E+0	1.857294E+0	1.814269E+0	1.893424E+0	1.902390E+0	1.943378E+0	1.962930E+0	1.751112E+0	1.903776E+0	1.758142E+0	1.843518E+0	1.826457E+0	1.845694E+0	1.896558E+0	1.734142E+0	1.846809E+0	1.835378E+0	1.753121E+0	1.836781E+0	1.808293E+0	1.901459E+0	1.963606E+0	1.858595E+0	1.895555E+0	1.929550E+0	1.874807E+0	1.727227E+0	1.781032E+0	1.829135E+0	1.806373E+0	1.782280E+0	1.909630E+0	1.771230E+0	1.953975E+0	1.814250E+0	1.831742E+0	1.824846E+0	1.680987E+0	1.730078E+0	1.809980E+0	1.867336E+0	1.877120E+0	1.810470E+0	1.846129E+0	1.765336E+0	1.832441E+0	1.849819E+0	1.804621E+0	1.781378E+0	1.749814E+0	1.674788E+0	1.783674E+0	1.787972E+0	1.756192E+0	1.756191E+0	1.818976E+0	1.878255E+0	1.741880E+0	1.730269E+0	1.861993E+0	1.894392E+0	1.711018E+0	1.722407E+0	1.833192E+0	1.796743E+0	1.759545E+0	1.816015E+0	1.870938E+0	1.864622E+0	1.903319E+0	1.909288E+0	1.749807E+0	1.820291E+0	1.778920E+0	1.764630E+0	1.771164E+0	1.866692E+0	1.789732E+0	1.823792E+0	1.886665E+0	1.788716E+0	1.786413E+0	1.772111E+0	1.798178E+0	1.829094E+0	1.896209E+0	1.816547E+0	1.790121E+0	1.784024E+0	1.847046E+0	1.758060E+0	1.818326E+0	1.859395E+0	1.922867E+0	1.855277E+0	1.889820E+0	1.752931E+0	1.750903E+0	1.779707E+0	1.812658E+0	1.859102E+0	1.758086E+0	1.723020E+0	1.811936E+0	1.864292E+0	1.790971E+0	1.793519E+0	1.782069E+0	1.843046E+0	1.772391E+0	1.846174E+0	1.777098E+0	1.894180E+0	1.765048E+0	1.811729E+0	1.827749E+0	1.801790E+0	1.818984E+0	1.766953E+0	1.755267E+0	1.863968E+0	1.760443E+0	1.756639E+0	1.812953E+0	1.865728E+0	1.815562E+0	1.777478E+0	1.830290E+0	1.859684E+0	1.818147E+0	1.762926E+0	1.822077E+0	1.770525E+0	1.809227E+0	1.798651E+0	1.815664E+0	1.762374E+0	1.760391E+0	1.736034E+0	1.858817E+0	1.756489E+0	1.878783E+0	1.817909E+0	1.769682E+0	1.804516E+0	1.875726E+0	1.835779E+0	1.790656E+0	1.707027E+0	1.959386E+0
5.368230E+2	1.383691E+0	1.332932E+0	1.338585E+0	1.390733E+0	1.333273E+0	1.379828E+0	1.340307E+0	1.435554E+0	1.365333E+0	1.351933E+0	1.465544E+0	1.393644E+0	1.513234E+0	1.489918E+0	1.431415E+0	1.420788E+0	1.415609E+0	1.473881E+0	1.455538E+0	1.473005E+0	1.428035E+0	1.384456E+0	1.442124E+0	1.388937E+0	1.416466E+0	1.456852E+0	1.315949E+0	1.430385E+0	1.407188E+0	1.464628E+0	1.392652E+0	1.398748E+0	1.408520E+0	1.422850E+0	1.420669E+0	1.481683E+0	1.348940E+0	1.380331E+0	1.512839E+0	1.429934E+0	1.469618E+0	1.464090E+0	1.483517E+0	1.474489E+0	1.439033E+0	1.469053E+0	1.422545E+0	1.496459E+0	1.389847E+0	1.413403E+0	1.404331E+0	1.387867E+0	1.338671E+0	1.406574E+0	1.433667E+0	1.433123E+0	1.372464E+0	1.452334E+0	1.388317E+0	1.447601E+0	1.439410E+0	1.367620E+0	1.334860E+0	1.416314E+0	1.389052E+0	1.365898E+0	1.523458E+0	1.503063E+0	1.358583E+0	1.375692E+0	1.396246E+0	1.424270E+0	1.410455E+0	1.383413E+0	1.376338E+0	1.353322E+0	1.497984E+0	1.470936E+0	1.496528E+0	1.437323E+0	1.426928E+0	1.403617E+0	1.479181E+0	1.447883E+0	1.381657E+0	1.340162E+0	1.431131E+0	1.312890E+0	1.507912E+0	1.405075E+0	1.377328E+0	1.345006E+0	1.405688E+0	1.462588E+0	1.547537E+0	1.478902E+0	1.363761E+0	1.362899E+0	1.461762E+0	1.587751E+0	1.262736E+0	1.415024E+0	1.361389E+0	1.511594E+0	1.369004E+0	1.408399E+0	1.410522E+0	1.449432E+0	1.451673E+0	1.439606E+0	1.436143E+0	1.359934E+0	1.454348E+0	1.381128E+0	1.458830E+0	1.437406E+0	1.343747E+0	1.428963E+0	1.420577E+0	1.444638E+0	1.396529E+0	1.475241E+0	1.409204E+0	1.378896E+0	1.337143E+0	1.441128E+0	1.424535E+0	1.482559E+0	1.403808E+0	1.409464E+0	1.412252E+0	1.388639E+0	1.315191E+0	1.388028E+0	1.408631E+0	1.451779E+0	1.399030E+0	1.431425E+0	1.527531E+0	1.451006E+0	1.425393E+0	1.418501E+0	1.427551E+0	1.457539E+0	1.429657E+0	1.382703E+0	1.472209E+0	1.473856E+0	1.523961E+0	1.422359E+0	1.440819E+0	1.387750E+0	1.457598E+0	1.409537E+0	1.428478E+0	1.427251E+0	1.510055E+0	1.429501E+0	1.540373E+0	1.495701E+0	1.393814E+0	1.340323E+0	1.432566E+0	1.455430E+0
5.370120E+2	1.062272E+0	1.072976E+0	1.077632E+0	1.068557E+0	1.122930E+0	1.072440E+0	1.116101E+0	1.052992E+0	1.022643E+0	1.086692E+0	1.202027E+0	1.087348E+0	1.117541E+0	1.087263E+0	1.055820E+0	1.123522E+0	1.063814E+0	1.085858E+0	1.119881E+0	1.111057E+0	1.141759E+0	1.064689E+0	1.023764E+0	1.044079E+0	1.133428E+0	1.149215E+0	1.147433E+0	1.064909E+0	1.098431E+0	1.108032E+0	1.072497E+0	1.117017E+0	1.091878E+0	1.200352E+0	1.102402E+0	1.177574E+0	1.055803E+0	1.051659E+0	1.075500E+0	1.017487E+0	1.172305E+0	1.158229E+0	1.188204E+0	1.095988E+0	1.135734E+0	1.046424E+0	1.135854E+0	1.162894E+0	1.138602E+0	1.125099E+0	1.080893E+0	1.030705E+0	1.085334E+0	1.038378E+0	1.066286E+0	1.173319E+0	1.082537E+0	1.134757E+0	1.036583E+0	1.130655E+0	1.064221E+0	1.142338E+0	1.093298E+0	1.057947E+0	1.073090E+0	1.104195E+0	1.137478E+0	1.109873E+0	1.075496E+0	1.197152E+0	1.145288E+0	1.160039E+0	1.068240E+0	1.088028E+0	1.138671E+0	1.132888E+0	1.123388E+0	1.161609E+0	1.069340E+0	1.204589E+0	1.028699E+0	1.147686E+0	1.147237E+0	1.202275E+0	1.125943E+0	9.782432E-1	1.073085E+0	1.031745E+0	1.122321E+0	1.051181E+0	1.079433E+0	1.112751E+0	1.100702E+0	1.054028E+0	1.167652E+0	1.125209E+0	1.084620E+0	1.097496E+0	1.079868E+0	1.196526E+0	1.030472E+0	1.114748E+0	1.159467E+0	1.118206E+0	1.072876E+0	1.095556E+0	1.040007E+0	1.119407E+0	1.144094E+0	1.130360E+0	1.091518E+0	1.084107E+0	1.063996E+0	1.068295E+0	1.091556E+0	1.064417E+0	1.019410E+0	1.076788E+0	1.137632E+0	1.122463E+0	1.103054E+0	1.062040E+0	1.141112E+0	1.111979E+0	1.127318E+0	1.149983E+0	1.129179E+0	1.137766E+0	1.106111E+0	1.097431E+0	1.076045E+0	1.153192E+0	1.067484E+0	1.100579E+0	1.116414E+0	1.061271E+0	1.125779E+0	1.134772E+0	1.090550E+0	1.139419E+0	1.076826E+0	1.125166E+0	1.054215E+0	1.096099E+0	1.086485E+0	1.141077E+0	1.102670E+0	1.099766E+0	1.056907E+0	1.118988E+0	1.133391E+0	1.081501E+0	1.166752E+0	1.155359E+0	1.151110E+0	1.197847E+0	1.206539E+0	1.104237E+0	1.141222E+0	1.207004E+0	1.092316E+0	1.025236E+0	1.075453E+0	1.150748E+0
5.372010E+2	1.192070E+0	1.202722E+0	1.156822E+0	1.366444E+0	1.237356E+0	1.249391E+0	1.133089E+0	1.315359E+0	1.276854E+0	1.276915E+0	1.347614E+0	1.212975E+0	1.225555E+0	1.222548E+0	1.169751E+0	1.244255E+0	1.220377E+0	1.303782E+0	1.270643E+0	1.230476E+0	1.309371E+0	1.283032E+0	1.260287E+0	1.143227E+0	1.212965E+0	1.317447E+0	1.205298E+0	1.257334E+0	1.256372E+0	1.206156E+0	1.187219E+0	1.186284E+0	1.248676E+0	1.265343E+0	1.229727E+0	1.299462E+0	1.166212E+0	1.185471E+0	1.295335E+0	1.255155E+0	1.282619E+0	1.244316E+0	1.357373E+0	1.320892E+0	1.242217E+0	1.292099E+0	1.244353E+0	1.414270E+0	1.206520E+0	1.314756E+0	1.268471E+0	1.276681E+0	1.262983E+0	1.230119E+0	1.209194E+0	1.310137E+0	1.331845E+0	1.231044E+0	1.169703E+0	1.312095E+0	1.296783E+0	1.280589E+0	1.276253E+0	1.259552E+0	1.318069E+0	1.215379E+0	1.264811E+0	1.230862E+0	1.230462E+0	1.292572E+0	1.308530E+0	1.285265E+0	1.339160E+0	1.224015E+0	1.300454E+0	1.285107E+0	1.231313E+0	1.250367E+0	1.265074E+0	1.291244E+0	1.203208E+0	1.241514E+0	1.301643E+0	1.281541E+0	1.217602E+0	1.259884E+0	1.327710E+0	1.236703E+0	1.218660E+0	1.201369E+0	1.164762E+0	1.226193E+0	1.210395E+0	1.232594E+0	1.239863E+0	1.297155E+0	1.218716E+0	1.237536E+0	1.239597E+0	1.275309E+0	1.203729E+0	1.245275E+0	1.214757E+0	1.281124E+0	1.229536E+0	1.287724E+0	1.200559E+0	1.328086E+0	1.254748E+0	1.302269E+0	1.205415E+0	1.216245E+0	1.208661E+0	1.195945E+0	1.238083E+0	1.237883E+0	1.210916E+0	1.284897E+0	1.275070E+0	1.323018E+0	1.273963E+0	1.223539E+0	1.199390E+0	1.327129E+0	1.240401E+0	1.292105E+0	1.299593E+0	1.176623E+0	1.343956E+0	1.231914E+0	1.240774E+0	1.317434E+0	1.239270E+0	1.271412E+0	1.334011E+0	1.197395E+0	1.302626E+0	1.264729E+0	1.286946E+0	1.262157E+0	1.245311E+0	1.246463E+0	1.273057E+0	1.228824E+0	1.286980E+0	1.279465E+0	1.252245E+0	1.307089E+0	1.205651E+0	1.316054E+0	1.182249E+0	1.169137E+0	1.255431E+0	1.211639E+0	1.198858E+0	1.278441E+0	1.331439E+0	1.191031E+0	1.320940E+0	1.268504E+0	1.238376E+0	1.280783E+0	1.299964E+0	1.391724E+0
5.374060E+2	1.554398E+0	1.540762E+0	1.484387E+0	1.472744E+0	1.600060E+0	1.504184E+0	1.483969E+0	1.508819E+0	1.453651E+0	1.416484E+0	1.577357E+0	1.594612E+0	1.560542E+0	1.540448E+0	1.522629E+0	1.524461E+0	1.476289E+0	1.559226E+0	1.553603E+0	1.512183E+0	1.567164E+0	1.531317E+0	1.503750E+0	1.396373E+0	1.533447E+0	1.575597E+0	1.535831E+0	1.551198E+0	1.509580E+0	1.573484E+0	1.564510E+0	1.570584E+0	1.511274E+0	1.529805E+0	1.546460E+0	1.587551E+0	1.617405E+0	1.583444E+0	1.570380E+0	1.520865E+0	1.587999E+0	1.629695E+0	1.591970E+0	1.587634E+0	1.438326E+0	1.586993E+0	1.508439E+0	1.656145E+0	1.621060E+0	1.505076E+0	1.576427E+0	1.547218E+0	1.561623E+0	1.518214E+0	1.482044E+0	1.590007E+0	1.530754E+0	1.564700E+0	1.503293E+0	1.521926E+0	1.604662E+0	1.509729E+0	1.521401E+0	1.544555E+0	1.540815E+0	1.487408E+0	1.520706E+0	1.512623E+0	1.478815E+0	1.535023E+0	1.491824E+0	1.535033E+0	1.570304E+0	1.597356E+0	1.585612E+0	1.516742E+0	1.578960E+0	1.516662E+0	1.505587E+0	1.592680E+0	1.527529E+0	1.488495E+0	1.598712E+0	1.557447E+0	1.574701E+0	1.478417E+0	1.568617E+0	1.424711E+0	1.535094E+0	1.520497E+0	1.478986E+0	1.542324E+0	1.586968E+0	1.454563E+0	1.546864E+0	1.552457E+0	1.346660E+0	1.470615E+0	1.533788E+0	1.525330E+0	1.477703E+0	1.519948E+0	1.549524E+0	1.545097E+0	1.440462E+0	1.478300E+0	1.503793E+0	1.659122E+0	1.579350E+0	1.507089E+0	1.483694E+0	1.549654E+0	1.472711E+0	1.509142E+0	1.520093E+0	1.519140E+0	1.492365E+0	1.582379E+0	1.459832E+0	1.472735E+0	1.602449E+0	1.581234E+0	1.508528E+0	1.520134E+0	1.574815E+0	1.553951E+0	1.507962E+0	1.552139E+0	1.550782E+0	1.507288E+0	1.501258E+0	1.447953E+0	1.465990E+0	1.526766E+0	1.515703E+0	1.439256E+0	1.506094E+0	1.461221E+0	1.601728E+0	1.557348E+0	1.521841E+0	1.497014E+0	1.554823E+0	1.511422E+0	1.497278E+0	1.549924E+0	1.534172E+0	1.579700E+0	1.499090E+0	1.457922E+0	1.450335E+0	1.517606E+0	1.572987E+0	1.513277E+0	1.462991E+0	1.681731E+0	1.579324E+0	1.405598E+0	1.455565E+0	1.566556E+0	1.540797E+0	1.487870E+0	1.548166E+0	1.451472E+0
5.376110E+2	1.605789E+0	1.487583E+0	1.508985E+0	1.607350E+0	1.609126E+0	1.515528E+0	1.609843E+0	1.565241E+0	1.624472E+0	1.584787E+0	1.661346E+0	1.498270E+0	1.689943E+0	1.637188E+0	1.585848E+0	1.642366E+0	1.640397E+0	1.645144E+0	1.659939E+0	1.616760E+0	1.689330E+0	1.609003E+0	1.672053E+0	1.595115E+0	1.633926E+0	1.651858E+0	1.590753E+0	1.658192E+0	1.654875E+0	1.649256E+0	1.593013E+0	1.617712E+0	1.598541E+0	1.773680E+0	1.598174E+0	1.588380E+0	1.620184E+0	1.642636E+0	1.682733E+0	1.625122E+0	1.539986E+0	1.581450E+0	1.639674E+0	1.596711E+0	1.630225E+0	1.594085E+0	1.656015E+0	1.706496E+0	1.639702E+0	1.629698E+0	1.618115E+0	1.642665E+0	1.601311E+0	1.582857E+0	1.633173E+0	1.598092E+0	1.553832E+0	1.649870E+0	1.527796E+0	1.634776E+0	1.563834E+0	1.699984E+0	1.581704E+0	1.617464E+0	1.529106E+0	1.634413E+0	1.617300E+0	1.692434E+0	1.549474E+0	1.558538E+0	1.662863E+0	1.583448E+0	1.617687E+0	1.737340E+0	1.588965E+0	1.649157E+0	1.521422E+0	1.619892E+0	1.589104E+0	1.604122E+0	1.563083E+0	1.752453E+0	1.653567E+0	1.635436E+0	1.543636E+0	1.522454E+0	1.552569E+0	1.617456E+0	1.659147E+0	1.525239E+0	1.609638E+0	1.560469E+0	1.529489E+0	1.688459E+0	1.651129E+0	1.559122E+0	1.605468E+0	1.542247E+0	1.661576E+0	1.644668E+0	1.470910E+0	1.522691E+0	1.554918E+0	1.664100E+0	1.599024E+0	1.681984E+0	1.597028E+0	1.606480E+0	1.623116E+0	1.646174E+0	1.575722E+0	1.661604E+0	1.635048E+0	1.536531E+0	1.681782E+0	1.542871E+0	1.540523E+0	1.552079E+0	1.578196E+0	1.549730E+0	1.628170E+0	1.644070E+0	1.607621E+0	1.534145E+0	1.516111E+0	1.613614E+0	1.668168E+0	1.592717E+0	1.591023E+0	1.548230E+0	1.602365E+0	1.616412E+0	1.627047E+0	1.611025E+0	1.601167E+0	1.596128E+0	1.552855E+0	1.591100E+0	1.741702E+0	1.560398E+0	1.557576E+0	1.619343E+0	1.536010E+0	1.629444E+0	1.612979E+0	1.665649E+0	1.561355E+0	1.591177E+0	1.569543E+0	1.622660E+0	1.493697E+0	1.615248E+0	1.659582E+0	1.629981E+0	1.562122E+0	1.585516E+0	1.617917E+0	1.612731E+0	1.550065E+0	1.632441E+0	1.636474E+0	1.610620E+0	1.487862E+0	1.740260E+0
5.378110E+2	1.444687E+0	1.467134E+0	1.506081E+0	1.487888E+0	1.422060E+0	1.433138E+0	1.493147E+0	1.574477E+0	1.476000E+0	1.502411E+0	1.621176E+0	1.547511E+0	1.625315E+0	1.435838E+0	1.551429E+0	1.484150E+0	1.521303E+0	1.561653E+0	1.592898E+0	1.453450E+0	1.521267E+0	1.557608E+0	1.483050E+0	1.566365E+0	1.543223E+0	1.475874E+0	1.609393E+0	1.572137E+0	1.541618E+0	1.628135E+0	1.520934E+0	1.527693E+0	1.525825E+0	1.525070E+0	1.489764E+0	1.539131E+0	1.555676E+0	1.555429E+0	1.506400E+0	1.545957E+0	1.560881E+0	1.556271E+0	1.564249E+0	1.607666E+0	1.477785E+0	1.575622E+0	1.514141E+0	1.625621E+0	1.472887E+0	1.494331E+0	1.567785E+0	1.494262E+0	1.430944E+0	1.605030E+0	1.524337E+0	1.610315E+0	1.478861E+0	1.449232E+0	1.516085E+0	1.504476E+0	1.503014E+0	1.543921E+0	1.473649E+0	1.508355E+0	1.460644E+0	1.537138E+0	1.460116E+0	1.541114E+0	1.499854E+0	1.513539E+0	1.566296E+0	1.518990E+0	1.452656E+0	1.532742E+0	1.565341E+0	1.547572E+0	1.513117E+0	1.605944E+0	1.497513E+0	1.505205E+0	1.453135E+0	1.499350E+0	1.570305E+0	1.550352E+0	1.567809E+0	1.413571E+0	1.485523E+0	1.441118E+0	1.483270E+0	1.514566E+0	1.468246E+0	1.552119E+0	1.580816E+0	1.574421E+0	1.459419E+0	1.607968E+0	1.490609E+0	1.437351E+0	1.467101E+0	1.588692E+0	1.489363E+0	1.459847E+0	1.494951E+0	1.566017E+0	1.464394E+0	1.489457E+0	1.544240E+0	1.623297E+0	1.542150E+0	1.524264E+0	1.571754E+0	1.532135E+0	1.441576E+0	1.504324E+0	1.560613E+0	1.469887E+0	1.416929E+0	1.546905E+0	1.464303E+0	1.566361E+0	1.648121E+0	1.511317E+0	1.520169E+0	1.510706E+0	1.408817E+0	1.578473E+0	1.526801E+0	1.503162E+0	1.480731E+0	1.469041E+0	1.504998E+0	1.528272E+0	1.534334E+0	1.534601E+0	1.449179E+0	1.464212E+0	1.429553E+0	1.567411E+0	1.520442E+0	1.472523E+0	1.604893E+0	1.497955E+0	1.507914E+0	1.470710E+0	1.575159E+0	1.467822E+0	1.499291E+0	1.572242E+0	1.536538E+0	1.518280E+0	1.455081E+0	1.529164E+0	1.490795E+0	1.536659E+0	1.516823E+0	1.560012E+0	1.594371E+0	1.406133E+0	1.512162E+0	1.502290E+0	1.625358E+0	1.480315E+0	1.588490E+0	1.705729E+0
5.380050E+2	1.464154E+0	1.548445E+0	1.448721E+0	1.532427E+0	1.528559E+0	1.568559E+0	1.605354E+0	1.705209E+0	1.552653E+0	1.526140E+0	1.565978E+0	1.594823E+0	1.513314E+0	1.612136E+0	1.513575E+0	1.576631E+0	1.624141E+0	1.638551E+0	1.598052E+0	1.649144E+0	1.641115E+0	1.573904E+0	1.563312E+0	1.485777E+0	1.553577E+0	1.539268E+0	1.563885E+0	1.557873E+0	1.564618E+0	1.475280E+0	1.482009E+0	1.578025E+0	1.579989E+0	1.520847E+0	1.541303E+0	1.582905E+0	1.505008E+0	1.542529E+0	1.540857E+0	1.563450E+0	1.494761E+0	1.534234E+0	1.606905E+0	1.666921E+0	1.554434E+0	1.517971E+0	1.441870E+0	1.531698E+0	1.526082E+0	1.555835E+0	1.580904E+0	1.504542E+0	1.467755E+0	1.544603E+0	1.466887E+0	1.515064E+0	1.518488E+0	1.568313E+0	1.504503E+0	1.569204E+0	1.548071E+0	1.499389E+0	1.514670E+0	1.528406E+0	1.466309E+0	1.546100E+0	1.547958E+0	1.571583E+0	1.535711E+0	1.533343E+0	1.579995E+0	1.492934E+0	1.516522E+0	1.594663E+0	1.563576E+0	1.468163E+0	1.557648E+0	1.528762E+0	1.464026E+0	1.535452E+0	1.502891E+0	1.527720E+0	1.532653E+0	1.571307E+0	1.500543E+0	1.438444E+0	1.487375E+0	1.530715E+0	1.576145E+0	1.442674E+0	1.486118E+0	1.511668E+0	1.538970E+0	1.615892E+0	1.500151E+0	1.492167E+0	1.457413E+0	1.467381E+0	1.470476E+0	1.604043E+0	1.412209E+0	1.482729E+0	1.518885E+0	1.588412E+0	1.496165E+0	1.458168E+0	1.526950E+0	1.620483E+0	1.579716E+0	1.581659E+0	1.435259E+0	1.501253E+0	1.559773E+0	1.548626E+0	1.563919E+0	1.558659E+0	1.526489E+0	1.616915E+0	1.578431E+0	1.520804E+0	1.563932E+0	1.613221E+0	1.571630E+0	1.540722E+0	1.527326E+0	1.548430E+0	1.582282E+0	1.586254E+0	1.582041E+0	1.477126E+0	1.475685E+0	1.527892E+0	1.548075E+0	1.480376E+0	1.524322E+0	1.542647E+0	1.513479E+0	1.559839E+0	1.556408E+0	1.525151E+0	1.539707E+0	1.488561E+0	1.484468E+0	1.544482E+0	1.473880E+0	1.540538E+0	1.559897E+0	1.597937E+0	1.632783E+0	1.582995E+0	1.439874E+0	1.515669E+0	1.626657E+0	1.568292E+0	1.593238E+0	1.555459E+0	1.689536E+0	1.515328E+0	1.545161E+0	1.512541E+0	1.512791E+0	1.423670E+0	1.542707E+0	1.572682E+0
5.382110E+2	1.756948E+0	1.829445E+0	1.805903E+0	1.808612E+0	1.769886E+0	1.793699E+0	1.742019E+0	1.831968E+0	1.808186E+0	1.741141E+0	1.789608E+0	1.844490E+0	1.916182E+0	1.894033E+0	1.820856E+0	1.933076E+0	1.909584E+0	1.757366E+0	1.896915E+0	1.765764E+0	1.855724E+0	1.736808E+0	1.832265E+0	1.772979E+0	1.885949E+0	1.832905E+0	1.778260E+0	1.820964E+0	1.799687E+0	1.714733E+0	1.807706E+0	1.724898E+0	1.800909E+0	1.865843E+0	1.728490E+0	1.824209E+0	1.814721E+0	1.830085E+0	1.884665E+0	1.765182E+0	1.771339E+0	1.742836E+0	1.797163E+0	1.856797E+0	1.704251E+0	1.857127E+0	1.820699E+0	1.799286E+0	1.815702E+0	1.782387E+0	1.806870E+0	1.753069E+0	1.719658E+0	1.727552E+0	1.734981E+0	1.863837E+0	1.712496E+0	1.706458E+0	1.734686E+0	1.783833E+0	1.858714E+0	1.820816E+0	1.756968E+0	1.714814E+0	1.724760E+0	1.814076E+0	1.668124E+0	1.866986E+0	1.712253E+0	1.883445E+0	1.813259E+0	1.739302E+0	1.632873E+0	1.886811E+0	1.803955E+0	1.837926E+0	1.716098E+0	1.835384E+0	1.773755E+0	1.762828E+0	1.769255E+0	1.815597E+0	1.747804E+0	1.724966E+0	1.770057E+0	1.729913E+0	1.815884E+0	1.763818E+0	1.811055E+0	1.757978E+0	1.755286E+0	1.785310E+0	1.763698E+0	1.779950E+0	1.740543E+0	1.761876E+0	1.649837E+0	1.704887E+0	1.757753E+0	1.823257E+0	1.700347E+0	1.752410E+0	1.721844E+0	1.778294E+0	1.745675E+0	1.773195E+0	1.637572E+0	1.954373E+0	1.876829E+0	1.782647E+0	1.666350E+0	1.701797E+0	1.788152E+0	1.720986E+0	1.710956E+0	1.758306E+0	1.684497E+0	1.764382E+0	1.777732E+0	1.774163E+0	1.873599E+0	1.765806E+0	1.751643E+0	1.650121E+0	1.720205E+0	1.829543E+0	1.793042E+0	1.837201E+0	1.761311E+0	1.746917E+0	1.727149E+0	1.752070E+0	1.667518E+0	1.772578E+0	1.775575E+0	1.734261E+0	1.763914E+0	1.836203E+0	1.829202E+0	1.752845E+0	1.706469E+0	1.805512E+0	1.739230E+0	1.737541E+0	1.829824E+0	1.730401E+0	1.798125E+0	1.757240E+0	1.702610E+0	1.752767E+0	1.694520E+0	1.725688E+0	1.724753E+0	1.758279E+0	1.708458E+0	1.799520E+0	1.705351E+0	1.748674E+0	1.738881E+0	1.844534E+0	1.799832E+0	1.725300E+0	1.695929E+0	1.849731E+0
5.384110E+2	2.169646E+0	2.167872E+0	2.165574E+0	2.282032E+0	2.249124E+0	2.170582E+0	2.182848E+0	2.101760E+0	2.060498E+0	2.257641E+0	2.285556E+0	2.169917E+0	2.318633E+0	2.290183E+0	2.291340E+0	2.219220E+0	2.288915E+0	2.224889E+0	2.262717E+0	2.286303E+0	2.273378E+0	2.177457E+0	2.150391E+0	2.098766E+0	2.259401E+0	2.169997E+0	2.260067E+0	2.149779E+0	2.145465E+0	2.157744E+0	2.173329E+0	2.222266E+0	2.207519E+0	2.218117E+0	2.057020E+0	2.263536E+0	2.231459E+0	2.287761E+0	2.273657E+0	2.141678E+0	2.217498E+0	2.155119E+0	2.290611E+0	2.273811E+0	2.155391E+0	2.237788E+0	2.175499E+0	2.248251E+0	2.177915E+0	2.135490E+0	2.240742E+0	2.123173E+0	2.100525E+0	2.118986E+0	2.092861E+0	2.197029E+0	2.108257E+0	2.148644E+0	2.158170E+0	2.104433E+0	2.348706E+0	2.187281E+0	2.218542E+0	2.183653E+0	2.083858E+0	2.188334E+0	2.151676E+0	2.144510E+0	2.114329E+0	2.257970E+0	2.181466E+0	2.185476E+0	2.250301E+0	2.280098E+0	2.188499E+0	2.175734E+0	2.200751E+0	2.209695E+0	2.139108E+0	2.154911E+0	2.171225E+0	2.226144E+0	2.257466E+0	2.217841E+0	2.152318E+0	2.139445E+0	2.140222E+0	2.195739E+0	2.171022E+0	2.215206E+0	2.130151E+0	2.156696E+0	2.154646E+0	2.162499E+0	2.215242E+0	2.261866E+0	2.153502E+0	2.188197E+0	2.250679E+0	2.184469E+0	2.064831E+0	2.112813E+0	2.131580E+0	2.201110E+0	2.189849E+0	2.197632E+0	2.226733E+0	2.210352E+0	2.175483E+0	2.227352E+0	2.076834E+0	2.134076E+0	2.105575E+0	2.058464E+0	2.123007E+0	2.198618E+0	2.224975E+0	2.156427E+0	2.087789E+0	2.124039E+0	2.174481E+0	2.269859E+0	2.176530E+0	2.148692E+0	2.225205E+0	2.128158E+0	2.209603E+0	2.147045E+0	2.275534E+0	2.157087E+0	2.206470E+0	2.179733E+0	2.151923E+0	2.194895E+0	2.142575E+0	2.097287E+0	2.131826E+0	2.197999E+0	2.193945E+0	2.151757E+0	2.106800E+0	2.189300E+0	2.215475E+0	2.084526E+0	2.301337E+0	2.100705E+0	2.204455E+0	2.156085E+0	2.204140E+0	2.144508E+0	2.058647E+0	2.112704E+0	2.181409E+0	2.241557E+0	2.143807E+0	2.192791E+0	2.297974E+0	2.041571E+0	2.156975E+0	2.132279E+0	2.137289E+0	2.113036E+0	2.218620E+0	2.043865E+0
5.386170E+2	2.340619E+0	2.447227E+0	2.403428E+0	2.476001E+0	2.366354E+0	2.467763E+0	2.471645E+0	2.581605E+0	2.457735E+0	2.458147E+0	2.459724E+0	2.518388E+0	2.520087E+0	2.541699E+0	2.457272E+0	2.563861E+0	2.504347E+0	2.516406E+0	2.483053E+0	2.499704E+0	2.552379E+0	2.350393E+0	2.400699E+0	2.373189E+0	2.390770E+0	2.499042E+0	2.532512E+0	2.512425E+0	2.300420E+0	2.427789E+0	2.386698E+0	2.478818E+0	2.478265E+0	2.396586E+0	2.362173E+0	2.422783E+0	2.379413E+0	2.431946E+0	2.423202E+0	2.348639E+0	2.344100E+0	2.407697E+0	2.600866E+0	2.491269E+0	2.289847E+0	2.431336E+0	2.380151E+0	2.444795E+0	2.415810E+0	2.380829E+0	2.332866E+0	2.339997E+0	2.310894E+0	2.305336E+0	2.209440E+0	2.398727E+0	2.399704E+0	2.451826E+0	2.326104E+0	2.400667E+0	2.366124E+0	2.355672E+0	2.386292E+0	2.365324E+0	2.279494E+0	2.360706E+0	2.383875E+0	2.474801E+0	2.275738E+0	2.409748E+0	2.270700E+0	2.297673E+0	2.225806E+0	2.474215E+0	2.495834E+0	2.308810E+0	2.428431E+0	2.501439E+0	2.410926E+0	2.407032E+0	2.336826E+0	2.516760E+0	2.375050E+0	2.445843E+0	2.553335E+0	2.275588E+0	2.309689E+0	2.308897E+0	2.495767E+0	2.333842E+0	2.384973E+0	2.376158E+0	2.449050E+0	2.390166E+0	2.426718E+0	2.278168E+0	2.418188E+0	2.411650E+0	2.340672E+0	2.444724E+0	2.339192E+0	2.353182E+0	2.247013E+0	2.566409E+0	2.363180E+0	2.335230E+0	2.315983E+0	2.498676E+0	2.459947E+0	2.438341E+0	2.343855E+0	2.270837E+0	2.369054E+0	2.419738E+0	2.499096E+0	2.403246E+0	2.360729E+0	2.433200E+0	2.399491E+0	2.535124E+0	2.385482E+0	2.418954E+0	2.384944E+0	2.252386E+0	2.286591E+0	2.349490E+0	2.465694E+0	2.400680E+0	2.520735E+0	2.351981E+0	2.470164E+0	2.340553E+0	2.364557E+0	2.477296E+0	2.314549E+0	2.373911E+0	2.451989E+0	2.471611E+0	2.389971E+0	2.369959E+0	2.328710E+0	2.420133E+0	2.255735E+0	2.367920E+0	2.347485E+0	2.378109E+0	2.410007E+0	2.369271E+0	2.398430E+0	2.453922E+0	2.224637E+0	2.395434E+0	2.380734E+0	2.397827E+0	2.363262E+0	2.403313E+0	2.420233E+0	2.357153E+0	2.287719E+0	2.360126E+0	2.253450E+0	2.322264E+0	2.260193E+0	2.376612E+0
5.388230E+2	1.889551E+0	1.886513E+0	1.805172E+0	1.985195E+0	1.971348E+0	1.967866E+0	1.874696E+0	1.961821E+0	1.907130E+0	1.966730E+0	2.062403E+0	1.940299E+0	1.876844E+0	2.038023E+0	2.046244E+0	2.023421E+0	1.910268E+0	1.865143E+0	1.990599E+0	1.942382E+0	1.975009E+0	1.958579E+0	1.935546E+0	1.913545E+0	1.884135E+0	2.021440E+0	1.918908E+0	1.975093E+0	1.912425E+0	1.858650E+0	2.009321E+0	1.901163E+0	1.894404E+0	1.962800E+0	1.902053E+0	1.961526E+0	1.830936E+0	2.034900E+0	1.927082E+0	1.935315E+0	1.835967E+0	1.965289E+0	2.016492E+0	2.044839E+0	1.885066E+0	1.942466E+0	1.870063E+0	2.017034E+0	1.935435E+0	1.909346E+0	1.882291E+0	1.931787E+0	1.974883E+0	1.875954E+0	1.928560E+0	1.950098E+0	1.872120E+0	1.891633E+0	1.842308E+0	1.939285E+0	1.857327E+0	1.897682E+0	1.881691E+0	1.938956E+0	1.819925E+0	1.876522E+0	1.894838E+0	1.958170E+0	1.883027E+0	2.027302E+0	1.923712E+0	1.836629E+0	1.884812E+0	1.961579E+0	1.915842E+0	1.899788E+0	1.884258E+0	2.008521E+0	1.930794E+0	1.962393E+0	1.916681E+0	1.929607E+0	1.933859E+0	1.878116E+0	1.936838E+0	1.822142E+0	1.889167E+0	1.834201E+0	2.016331E+0	1.930295E+0	1.843352E+0	1.843000E+0	1.967564E+0	2.090597E+0	2.003309E+0	1.988876E+0	1.831087E+0	1.850712E+0	1.978401E+0	1.936620E+0	1.941591E+0	1.897439E+0	1.932498E+0	1.867913E+0	1.853867E+0	1.837819E+0	1.988627E+0	1.958397E+0	2.051068E+0	1.931553E+0	1.820932E+0	1.936359E+0	1.904640E+0	1.866730E+0	1.919193E+0	1.898127E+0	1.877308E+0	1.925229E+0	1.882114E+0	1.890587E+0	1.940212E+0	2.005237E+0	1.875125E+0	1.957657E+0	1.948085E+0	1.924263E+0	2.013986E+0	1.946330E+0	2.012176E+0	1.859719E+0	1.806594E+0	1.943671E+0	1.852923E+0	1.816749E+0	1.956869E+0	1.879858E+0	1.826868E+0	1.916743E+0	1.943958E+0	1.911757E+0	1.796245E+0	1.903170E+0	1.812152E+0	1.910114E+0	1.983676E+0	1.904649E+0	1.906079E+0	1.904881E+0	1.939508E+0	1.919149E+0	1.875243E+0	1.874295E+0	1.861518E+0	1.932871E+0	1.845823E+0	1.937663E+0	1.906068E+0	1.802747E+0	1.903249E+0	1.929465E+0	1.873715E+0	1.848168E+0	1.890402E+0	1.982574E+0
5.390130E+2	1.550860E+0	1.547706E+0	1.437287E+0	1.594877E+0	1.615955E+0	1.533152E+0	1.499877E+0	1.535559E+0	1.554832E+0	1.587071E+0	1.524531E+0	1.468101E+0	1.536097E+0	1.634754E+0	1.604960E+0	1.614208E+0	1.507736E+0	1.567187E+0	1.597589E+0	1.643779E+0	1.631818E+0	1.520415E+0	1.521177E+0	1.539884E+0	1.513368E+0	1.616953E+0	1.566989E+0	1.534362E+0	1.528120E+0	1.481674E+0	1.615236E+0	1.598685E+0	1.631024E+0	1.611452E+0	1.532416E+0	1.571828E+0	1.573141E+0	1.558707E+0	1.641909E+0	1.496860E+0	1.573376E+0	1.527531E+0	1.559992E+0	1.646831E+0	1.443713E+0	1.545675E+0	1.570917E+0	1.523690E+0	1.470891E+0	1.548463E+0	1.606422E+0	1.487766E+0	1.616410E+0	1.523148E+0	1.590993E+0	1.595964E+0	1.534267E+0	1.504763E+0	1.484314E+0	1.551525E+0	1.483533E+0	1.594737E+0	1.531549E+0	1.569430E+0	1.513443E+0	1.518898E+0	1.494444E+0	1.546584E+0	1.570399E+0	1.629316E+0	1.488173E+0	1.581511E+0	1.618249E+0	1.601339E+0	1.558490E+0	1.493278E+0	1.582250E+0	1.609167E+0	1.600010E+0	1.463470E+0	1.444714E+0	1.522520E+0	1.565750E+0	1.604279E+0	1.504392E+0	1.446501E+0	1.608843E+0	1.510524E+0	1.563566E+0	1.527383E+0	1.520151E+0	1.510951E+0	1.570390E+0	1.473015E+0	1.553140E+0	1.602884E+0	1.442852E+0	1.579136E+0	1.592322E+0	1.617300E+0	1.454194E+0	1.426525E+0	1.503562E+0	1.602499E+0	1.538747E+0	1.568522E+0	1.601629E+0	1.560642E+0	1.591272E+0	1.588961E+0	1.413975E+0	1.394336E+0	1.515591E+0	1.545210E+0	1.501834E+0	1.466824E+0	1.544091E+0	1.542376E+0	1.448878E+0	1.497989E+0	1.590835E+0	1.588784E+0	1.512138E+0	1.603209E+0	1.502395E+0	1.522838E+0	1.596493E+0	1.529210E+0	1.612502E+0	1.566320E+0	1.590537E+0	1.512979E+0	1.542513E+0	1.567106E+0	1.542267E+0	1.513733E+0	1.463279E+0	1.443289E+0	1.460105E+0	1.552120E+0	1.619604E+0	1.567361E+0	1.511451E+0	1.438216E+0	1.501399E+0	1.567653E+0	1.511610E+0	1.559601E+0	1.622974E+0	1.602125E+0	1.454123E+0	1.538776E+0	1.497733E+0	1.595857E+0	1.611095E+0	1.539836E+0	1.619590E+0	1.542751E+0	1.539869E+0	1.621362E+0	1.589296E+0	1.513311E+0	1.596445E+0	1.597166E+0
5.392090E+2	1.227849E+0	1.323104E+0	1.212372E+0	1.199691E+0	1.338421E+0	1.258338E+0	1.222047E+0	1.210137E+0	1.230251E+0	1.299542E+0	1.266618E+0	1.192264E+0	1.248930E+0	1.301953E+0	1.291663E+0	1.268488E+0	1.302321E+0	1.245200E+0	1.345818E+0	1.338288E+0	1.252338E+0	1.260991E+0	1.224634E+0	1.218883E+0	1.245107E+0	1.212206E+0	1.258630E+0	1.185405E+0	1.181916E+0	1.223525E+0	1.223458E+0	1.238989E+0	1.308035E+0	1.258814E+0	1.206833E+0	1.266304E+0	1.179669E+0	1.256124E+0	1.282317E+0	1.185170E+0	1.247069E+0	1.313357E+0	1.289419E+0	1.230953E+0	1.271306E+0	1.292453E+0	1.130461E+0	1.246387E+0	1.263759E+0	1.220110E+0	1.229960E+0	1.174850E+0	1.219394E+0	1.155954E+0	1.199705E+0	1.257895E+0	1.141324E+0	1.234450E+0	1.205604E+0	1.298098E+0	1.243042E+0	1.236516E+0	1.218824E+0	1.180185E+0	1.171707E+0	1.227446E+0	1.298524E+0	1.255602E+0	1.139001E+0	1.304513E+0	1.174995E+0	1.199597E+0	1.177728E+0	1.288789E+0	1.321535E+0	1.144531E+0	1.260895E+0	1.249188E+0	1.234882E+0	1.203326E+0	1.214296E+0	1.322295E+0	1.223084E+0	1.247367E+0	1.188172E+0	1.187930E+0	1.173231E+0	1.195839E+0	1.285241E+0	1.285638E+0	1.217144E+0	1.237339E+0	1.239472E+0	1.212746E+0	1.258135E+0	1.229031E+0	1.212175E+0	1.172384E+0	1.206799E+0	1.274968E+0	1.193078E+0	1.242252E+0	1.239289E+0	1.203009E+0	1.243789E+0	1.166386E+0	1.273752E+0	1.305529E+0	1.232680E+0	1.225007E+0	1.232132E+0	1.218465E+0	1.155995E+0	1.210707E+0	1.234680E+0	1.227839E+0	1.220469E+0	1.272257E+0	1.159570E+0	1.262642E+0	1.277249E+0	1.294108E+0	1.231658E+0	1.278992E+0	1.199571E+0	1.252065E+0	1.321574E+0	1.237494E+0	1.246402E+0	1.176529E+0	1.217997E+0	1.186745E+0	1.230421E+0	1.226371E+0	1.251998E+0	1.206970E+0	1.151087E+0	1.292624E+0	1.230872E+0	1.222537E+0	1.238484E+0	1.239090E+0	1.156795E+0	1.208952E+0	1.251969E+0	1.314377E+0	1.288978E+0	1.180697E+0	1.249598E+0	1.246181E+0	1.199689E+0	1.200229E+0	1.158646E+0	1.216379E+0	1.243518E+0	1.265229E+0	1.244499E+0	1.258382E+0	1.212570E+0	1.265444E+0	1.304409E+0	1.152235E+0	1.230954E+0	1.235662E+0
5.394100E+2	1.177079E+0	1.240199E+0	1.253853E+0	1.238993E+0	1.126024E+0	1.253858E+0	1.168954E+0	1.245994E+0	1.176021E+0	1.201147E+0	1.258478E+0	1.219241E+0	1.316188E+0	1.250316E+0	1.217746E+0	1.253581E+0	1.214733E+0	1.236536E+0	1.303833E+0	1.292897E+0	1.254528E+0	1.189654E+0	1.343232E+0	1.172229E+0	1.167563E+0	1.183840E+0	1.222660E+0	1.229970E+0	1.217909E+0	1.271407E+0	1.229894E+0	1.183350E+0	1.155115E+0	1.191372E+0	1.249061E+0	1.277277E+0	1.212788E+0	1.236545E+0	1.252426E+0	1.256182E+0	1.234293E+0	1.205325E+0	1.404385E+0	1.308321E+0	1.208346E+0	1.214816E+0	1.311096E+0	1.286473E+0	1.297458E+0	1.283625E+0	1.237335E+0	1.204228E+0	1.129376E+0	1.173927E+0	1.274610E+0	1.244638E+0	1.172812E+0	1.238968E+0	1.202524E+0	1.268086E+0	1.278163E+0	1.150489E+0	1.300649E+0	1.285146E+0	1.169283E+0	1.244459E+0	1.219217E+0	1.278446E+0	1.161999E+0	1.232530E+0	1.181720E+0	1.279285E+0	1.270107E+0	1.222579E+0	1.284214E+0	1.140606E+0	1.260543E+0	1.217139E+0	1.194192E+0	1.215707E+0	1.172423E+0	1.247794E+0	1.167556E+0	1.240774E+0	1.289946E+0	1.191036E+0	1.260875E+0	1.235887E+0	1.223852E+0	1.244491E+0	1.170200E+0	1.180375E+0	1.181365E+0	1.276313E+0	1.300587E+0	1.207052E+0	1.242341E+0	1.232453E+0	1.225966E+0	1.235057E+0	1.201232E+0	1.179113E+0	1.174685E+0	1.231409E+0	1.222492E+0	1.154159E+0	1.264281E+0	1.230309E+0	1.220260E+0	1.263625E+0	1.194506E+0	1.264094E+0	1.289489E+0	1.142165E+0	1.209516E+0	1.189471E+0	1.227503E+0	1.270249E+0	1.230556E+0	1.183586E+0	1.154036E+0	1.242607E+0	1.259475E+0	1.226635E+0	1.279846E+0	1.207368E+0	1.200393E+0	1.225604E+0	1.253175E+0	1.232038E+0	1.236132E+0	1.169046E+0	1.277737E+0	1.202273E+0	1.191677E+0	1.255344E+0	1.231199E+0	1.231588E+0	1.308820E+0	1.255464E+0	1.203468E+0	1.207361E+0	1.196741E+0	1.261500E+0	1.189407E+0	1.210038E+0	1.239078E+0	1.167567E+0	1.266848E+0	1.274669E+0	1.276889E+0	1.229234E+0	1.267673E+0	1.290910E+0	1.231414E+0	1.210622E+0	1.280440E+0	1.211773E+0	1.266582E+0	1.203300E+0	1.325171E+0	1.238005E+0	1.175785E+0	1.444869E+0
5.396160E+2	1.216629E+0	1.310074E+0	1.309193E+0	1.159970E+0	1.285555E+0	1.302499E+0	1.288620E+0	1.216217E+0	1.258201E+0	1.312868E+0	1.383974E+0	1.325494E+0	1.221689E+0	1.291390E+0	1.237307E+0	1.245056E+0	1.318941E+0	1.337394E+0	1.333154E+0	1.321408E+0	1.329294E+0	1.296958E+0	1.235115E+0	1.201015E+0	1.245075E+0	1.289487E+0	1.288151E+0	1.300539E+0	1.261940E+0	1.302519E+0	1.205953E+0	1.267899E+0	1.200741E+0	1.279159E+0	1.302388E+0	1.355559E+0	1.277042E+0	1.284129E+0	1.256821E+0	1.233428E+0	1.223773E+0	1.262350E+0	1.362878E+0	1.383389E+0	1.266860E+0	1.307046E+0	1.194353E+0	1.239941E+0	1.291858E+0	1.326573E+0	1.244828E+0	1.213661E+0	1.253695E+0	1.192398E+0	1.313746E+0	1.367597E+0	1.264668E+0	1.235644E+0	1.238406E+0	1.379244E+0	1.245406E+0	1.256579E+0	1.277834E+0	1.296146E+0	1.207197E+0	1.183159E+0	1.274420E+0	1.237959E+0	1.297612E+0	1.227922E+0	1.270608E+0	1.274478E+0	1.337314E+0	1.301786E+0	1.280040E+0	1.254611E+0	1.267059E+0	1.317773E+0	1.201965E+0	1.238458E+0	1.248875E+0	1.266510E+0	1.286076E+0	1.292512E+0	1.226253E+0	1.292290E+0	1.201534E+0	1.326547E+0	1.265522E+0	1.296112E+0	1.252498E+0	1.277136E+0	1.241113E+0	1.277304E+0	1.131666E+0	1.260597E+0	1.318375E+0	1.279168E+0	1.240375E+0	1.315513E+0	1.287535E+0	1.200762E+0	1.315044E+0	1.259178E+0	1.262340E+0	1.241483E+0	1.259054E+0	1.362905E+0	1.239496E+0	1.265915E+0	1.204467E+0	1.204035E+0	1.326326E+0	1.261849E+0	1.272745E+0	1.281120E+0	1.270841E+0	1.274871E+0	1.336802E+0	1.316966E+0	1.262518E+0	1.251272E+0	1.304392E+0	1.271794E+0	1.253608E+0	1.329295E+0	1.302474E+0	1.320667E+0	1.294503E+0	1.174118E+0	1.312017E+0	1.266193E+0	1.230537E+0	1.290129E+0	1.288040E+0	1.209421E+0	1.261112E+0	1.272078E+0	1.346898E+0	1.215314E+0	1.320001E+0	1.273819E+0	1.212581E+0	1.251906E+0	1.306990E+0	1.250226E+0	1.273075E+0	1.267904E+0	1.260527E+0	1.287089E+0	1.248436E+0	1.290878E+0	1.294479E+0	1.254270E+0	1.240892E+0	1.277346E+0	1.337096E+0	1.283663E+0	1.306168E+0	1.310538E+0	1.291762E+0	1.323497E+0	1.124925E+0	1.398938E+0
5.398180E+2	1.173354E+0	1.227235E+0	1.120922E+0	1.088260E+0	1.193530E+0	1.194745E+0	1.094421E+0	1.208438E+0	1.233749E+0	1.120980E+0	1.212279E+0	1.173889E+0	1.247994E+0	1.207102E+0	1.277824E+0	1.190140E+0	1.125849E+0	1.132527E+0	1.145954E+0	1.177624E+0	1.165060E+0	1.151108E+0	1.172657E+0	1.120979E+0	1.118772E+0	1.210824E+0	1.217088E+0	1.195982E+0	1.178151E+0	1.188513E+0	1.211829E+0	1.168007E+0	1.149448E+0	1.180865E+0	1.191007E+0	1.118383E+0	1.173425E+0	1.186558E+0	1.199197E+0	1.167467E+0	1.161619E+0	1.173894E+0	1.246880E+0	1.238976E+0	1.083651E+0	1.232242E+0	1.192513E+0	1.168194E+0	1.174098E+0	1.145493E+0	1.111165E+0	1.113177E+0	1.125376E+0	1.127758E+0	1.198917E+0	1.197600E+0	1.113222E+0	1.191785E+0	1.102457E+0	1.204813E+0	1.191305E+0	1.122535E+0	1.161043E+0	1.192362E+0	1.108192E+0	1.156047E+0	1.162168E+0	1.185556E+0	1.173943E+0	1.176977E+0	1.101853E+0	1.184795E+0	1.168625E+0	1.212093E+0	1.158112E+0	1.078154E+0	1.184750E+0	1.239564E+0	1.233492E+0	1.199687E+0	1.169232E+0	1.174567E+0	1.244428E+0	1.155540E+0	1.212261E+0	1.170118E+0	1.169953E+0	1.132236E+0	1.149385E+0	1.067671E+0	1.092072E+0	1.286826E+0	1.158252E+0	1.197321E+0	1.143327E+0	1.172793E+0	1.125713E+0	1.133315E+0	1.198757E+0	1.268931E+0	1.094775E+0	1.159696E+0	1.199854E+0	1.208101E+0	1.136800E+0	1.143242E+0	1.075250E+0	1.301135E+0	1.177336E+0	1.149638E+0	1.086073E+0	1.169782E+0	1.091504E+0	1.168716E+0	1.137299E+0	1.152821E+0	1.222307E+0	1.202654E+0	1.168210E+0	1.117060E+0	1.206490E+0	1.234529E+0	1.156316E+0	1.183192E+0	1.154348E+0	1.169698E+0	1.144063E+0	1.143794E+0	1.207558E+0	1.039025E+0	1.191835E+0	1.197331E+0	1.139122E+0	1.206566E+0	1.195731E+0	1.148847E+0	1.157748E+0	1.169450E+0	1.211906E+0	1.168426E+0	1.220517E+0	1.179857E+0	1.146813E+0	1.183561E+0	1.159387E+0	1.120783E+0	1.185688E+0	1.105165E+0	1.188496E+0	1.201883E+0	1.148206E+0	1.099312E+0	1.237837E+0	1.231598E+0	1.201153E+0	1.226414E+0	1.200186E+0	1.177503E+0	1.248697E+0	1.176991E+0	1.166626E+0	1.180938E+0	1.172834E+0	1.248430E+0
5.400030E+2	7.445146E-1	7.844420E-1	7.616356E-1	7.137702E-1	7.789840E-1	7.629349E-1	8.342894E-1	8.024067E-1	7.985651E-1	7.589675E-1	7.604488E-1	7.665168E-1	7.985792E-1	7.817446E-1	7.476501E-1	7.746142E-1	8.359620E-1	8.409314E-1	8.356025E-1	8.366864E-1	7.651194E-1	8.382757E-1	7.763715E-1	7.654670E-1	7.639094E-1	8.072325E-1	8.349819E-1	8.389685E-1	7.466518E-1	7.699050E-1	7.725225E-1	8.161971E-1	7.894896E-1	8.015719E-1	8.463934E-1	7.489169E-1	7.380271E-1	7.914012E-1	7.851555E-1	7.765323E-1	7.277779E-1	8.442228E-1	8.122390E-1	7.398186E-1	7.517264E-1	8.303104E-1	7.968412E-1	8.012828E-1	8.438941E-1	7.760720E-1	7.469003E-1	7.954504E-1	7.543500E-1	8.104804E-1	7.867283E-1	7.649069E-1	6.997649E-1	8.222831E-1	7.526767E-1	7.361926E-1	8.083182E-1	8.027484E-1	7.082010E-1	8.067836E-1	7.208937E-1	7.172985E-1	7.755039E-1	7.895227E-1	6.486195E-1	7.779066E-1	8.774404E-1	7.734948E-1	7.790515E-1	7.666058E-1	7.710958E-1	7.785675E-1	8.018475E-1	7.519127E-1	7.569420E-1	7.861698E-1	7.503731E-1	7.621967E-1	8.126671E-1	7.946840E-1	7.898263E-1	7.609825E-1	7.600899E-1	6.890721E-1	7.733049E-1	7.758262E-1	7.542969E-1	7.684588E-1	7.757074E-1	7.503116E-1	8.051764E-1	8.356263E-1	7.439966E-1	7.733648E-1	8.146851E-1	8.258745E-1	7.869571E-1	7.649293E-1	7.431775E-1	8.227588E-1	7.470960E-1	7.760267E-1	8.163480E-1	8.011788E-1	7.975606E-1	7.788820E-1	7.138152E-1	7.970446E-1	7.772169E-1	7.905527E-1	7.751493E-1	8.322022E-1	7.825367E-1	8.164950E-1	7.679514E-1	7.252157E-1	8.233042E-1	7.769039E-1	8.159244E-1	7.942823E-1	8.942564E-1	8.365783E-1	7.557383E-1	8.215306E-1	7.877744E-1	7.586508E-1	7.821033E-1	7.412222E-1	7.694740E-1	8.255034E-1	8.313581E-1	7.289047E-1	8.104647E-1	7.708757E-1	8.179082E-1	7.995615E-1	7.614676E-1	8.254242E-1	7.963087E-1	7.660927E-1	7.636527E-1	7.893075E-1	7.690046E-1	7.641705E-1	7.642165E-1	7.717611E-1	8.047491E-1	7.375248E-1	7.918259E-1	7.655731E-1	7.421102E-1	7.992191E-1	8.460530E-1	7.960782E-1	7.505599E-1	7.509300E-1	7.300875E-1	7.822009E-1	7.328722E-1	8.348464E-1
5.402050E+2	5.306023E-1	5.536056E-1	5.982694E-1	5.624015E-1	5.619449E-1	6.154918E-1	5.073658E-1	5.386940E-1	5.390478E-1	5.408006E-1	5.441738E-1	6.028612E-1	5.515708E-1	6.038892E-1	5.337637E-1	5.778281E-1	5.409478E-1	5.220947E-1	5.271026E-1	5.778907E-1	5.630765E-1	5.738198E-1	5.669217E-1	5.773413E-1	5.633133E-1	6.230979E-1	5.888122E-1	5.184077E-1	5.408656E-1	5.397526E-1	6.043664E-1	5.551695E-1	6.030304E-1	5.875164E-1	6.018765E-1	5.607098E-1	5.545932E-1	5.523834E-1	5.973946E-1	6.020567E-1	4.997613E-1	5.476762E-1	5.658685E-1	5.265056E-1	5.443662E-1	6.384293E-1	5.895772E-1	5.560838E-1	5.753116E-1	5.465564E-1	6.015309E-1	5.957420E-1	5.317682E-1	5.668857E-1	5.569816E-1	5.687556E-1	6.150848E-1	5.277567E-1	5.463097E-1	5.609228E-1	5.897561E-1	5.941392E-1	5.918576E-1	5.707826E-1	5.615079E-1	5.404703E-1	5.974742E-1	6.062095E-1	5.022044E-1	6.320953E-1	5.908412E-1	5.501380E-1	5.310037E-1	5.756193E-1	5.620612E-1	5.521210E-1	5.456052E-1	5.888976E-1	5.760295E-1	5.874968E-1	5.577792E-1	6.164759E-1	5.440250E-1	5.689460E-1	6.099786E-1	5.460720E-1	5.252782E-1	6.184392E-1	5.436524E-1	4.989006E-1	5.849901E-1	5.948845E-1	5.156451E-1	6.112349E-1	5.652236E-1	5.529954E-1	5.702154E-1	5.776538E-1	5.636638E-1	5.461854E-1	5.503013E-1	5.891198E-1	6.166348E-1	6.155940E-1	6.042555E-1	5.863054E-1	6.082786E-1	5.986466E-1	5.592079E-1	6.012106E-1	5.804156E-1	5.939731E-1	5.548308E-1	5.147458E-1	6.059066E-1	5.642459E-1	5.586772E-1	5.903593E-1	5.935562E-1	5.800212E-1	5.522471E-1	6.314115E-1	6.131866E-1	5.589060E-1	5.572896E-1	6.222411E-1	5.929192E-1	5.586838E-1	6.216568E-1	5.142010E-1	5.325838E-1	5.546305E-1	6.063211E-1	5.915556E-1	5.939480E-1	5.152977E-1	4.991561E-1	6.423342E-1	5.670748E-1	5.700525E-1	5.617954E-1	5.866976E-1	5.366891E-1	5.409255E-1	5.757282E-1	6.415808E-1	5.487159E-1	5.586960E-1	6.071404E-1	5.765376E-1	5.252083E-1	5.584477E-1	5.589820E-1	5.776311E-1	6.203729E-1	5.824779E-1	6.583923E-1	5.454488E-1	5.760871E-1	6.107712E-1	5.919588E-1	5.456465E-1	5.721420E-1	5.485825E-1
5.404120E+2	4.998090E-1	4.695739E-1	4.836259E-1	5.316126E-1	4.582923E-1	5.720718E-1	5.565818E-1	5.108132E-1	4.958188E-1	5.193789E-1	5.322310E-1	5.150701E-1	5.239259E-1	4.623744E-1	5.176848E-1	5.428236E-1	5.491071E-1	5.396135E-1	4.741494E-1	5.108283E-1	5.259061E-1	5.432606E-1	4.978300E-1	5.265264E-1	5.577584E-1	4.865012E-1	5.069750E-1	4.992072E-1	5.186418E-1	5.114946E-1	5.269960E-1	4.814160E-1	5.078443E-1	5.334926E-1	4.962825E-1	5.159056E-1	5.440334E-1	4.659866E-1	5.489653E-1	4.813495E-1	5.329279E-1	5.449757E-1	5.485823E-1	6.052354E-1	5.191853E-1	5.119516E-1	5.186512E-1	4.681416E-1	5.476640E-1	5.502216E-1	4.771122E-1	5.231953E-1	5.105198E-1	5.484978E-1	4.984845E-1	5.182749E-1	4.909158E-1	5.487503E-1	5.449337E-1	5.119177E-1	5.388031E-1	5.296493E-1	4.938061E-1	5.301815E-1	5.000595E-1	4.951897E-1	5.387334E-1	5.020277E-1	4.800636E-1	4.662138E-1	5.808297E-1	5.296275E-1	5.275604E-1	5.465789E-1	5.412564E-1	4.473430E-1	4.480202E-1	4.988673E-1	5.287554E-1	5.361353E-1	5.328592E-1	4.687272E-1	4.917001E-1	5.406170E-1	5.192183E-1	5.079231E-1	5.285994E-1	4.943796E-1	5.421652E-1	5.075044E-1	5.425546E-1	5.395731E-1	5.339790E-1	5.243776E-1	5.742245E-1	5.029811E-1	5.456774E-1	5.342475E-1	5.676610E-1	5.501129E-1	5.454411E-1	5.571700E-1	5.253551E-1	5.555750E-1	4.787870E-1	4.927791E-1	4.711142E-1	6.062643E-1	5.634642E-1	4.879893E-1	5.824700E-1	5.215958E-1	4.912035E-1	5.333578E-1	4.751713E-1	5.111276E-1	5.268036E-1	5.146769E-1	5.004082E-1	5.148495E-1	4.658947E-1	4.904465E-1	5.364113E-1	5.503117E-1	5.858230E-1	5.182850E-1	5.478341E-1	5.332430E-1	5.403371E-1	5.249602E-1	5.588853E-1	4.816038E-1	4.710094E-1	4.934204E-1	5.273969E-1	5.693116E-1	5.312191E-1	4.704663E-1	5.261401E-1	5.152632E-1	5.543571E-1	5.179661E-1	5.765278E-1	5.213247E-1	5.045763E-1	5.096032E-1	4.854292E-1	5.350787E-1	6.005264E-1	5.704388E-1	5.488511E-1	5.020120E-1	5.492256E-1	5.219988E-1	5.460552E-1	5.211706E-1	5.223343E-1	4.861552E-1	5.104915E-1	5.069306E-1	6.090775E-1	5.381751E-1	5.055395E-1	4.473269E-1
5.406090E+2	5.076276E-1	5.659620E-1	5.343753E-1	5.651876E-1	5.245002E-1	5.859116E-1	5.363269E-1	5.174549E-1	5.108161E-1	5.343240E-1	5.464280E-1	5.618475E-1	5.469098E-1	6.160224E-1	5.477783E-1	5.211845E-1	5.360363E-1	6.134504E-1	5.819537E-1	5.659785E-1	5.482420E-1	5.740822E-1	5.147163E-1	5.349696E-1	5.108906E-1	6.061447E-1	6.235985E-1	5.996946E-1	5.616910E-1	5.311441E-1	5.350102E-1	5.049085E-1	5.629380E-1	6.466150E-1	5.992661E-1	5.349593E-1	6.013503E-1	5.902537E-1	5.211507E-1	5.143307E-1	5.791068E-1	5.591075E-1	5.674726E-1	5.344951E-1	5.434379E-1	5.907138E-1	5.453237E-1	5.894107E-1	5.780112E-1	5.738884E-1	5.708483E-1	5.929487E-1	5.896684E-1	5.670683E-1	5.869565E-1	5.874179E-1	5.685283E-1	5.535238E-1	5.410596E-1	5.459688E-1	5.829843E-1	5.806881E-1	5.643617E-1	5.751348E-1	5.774745E-1	5.247508E-1	6.401440E-1	5.297415E-1	5.433610E-1	5.865562E-1	5.823118E-1	5.584644E-1	5.722878E-1	5.194258E-1	5.869639E-1	5.799449E-1	5.473034E-1	5.911488E-1	5.830576E-1	6.094795E-1	5.819630E-1	5.725522E-1	5.630427E-1	5.519520E-1	5.757869E-1	5.620449E-1	5.534932E-1	5.854599E-1	5.548204E-1	5.547592E-1	5.594670E-1	5.484088E-1	6.006979E-1	6.275165E-1	5.706893E-1	6.134694E-1	5.742913E-1	6.038357E-1	5.995891E-1	5.689841E-1	5.177017E-1	5.706925E-1	5.650716E-1	5.784523E-1	6.089300E-1	5.765582E-1	5.730850E-1	5.898199E-1	5.925895E-1	5.350689E-1	4.735310E-1	6.097819E-1	6.290227E-1	5.075724E-1	5.362528E-1	5.706725E-1	5.018369E-1	5.621073E-1	6.019199E-1	5.924973E-1	5.417098E-1	5.835274E-1	5.566189E-1	5.411394E-1	5.560690E-1	5.717015E-1	5.334619E-1	5.903522E-1	6.263228E-1	5.726840E-1	5.925957E-1	5.572988E-1	5.386112E-1	5.700082E-1	5.905648E-1	5.472236E-1	5.900757E-1	5.942691E-1	5.874144E-1	6.018867E-1	5.285637E-1	5.545624E-1	5.496314E-1	5.208578E-1	5.295289E-1	5.714997E-1	6.058136E-1	5.757568E-1	5.736179E-1	5.411802E-1	5.544098E-1	5.379597E-1	5.828224E-1	6.053257E-1	5.337565E-1	5.782381E-1	5.734161E-1	5.602593E-1	6.237766E-1	4.888313E-1	5.963202E-1	5.831397E-1	5.125881E-1	6.023134E-1
5.408110E+2	5.306145E-1	5.737037E-1	5.490854E-1	5.912322E-1	4.864987E-1	5.280002E-1	5.354146E-1	5.673906E-1	5.408122E-1	5.350490E-1	6.117630E-1	5.342561E-1	5.879867E-1	5.047991E-1	5.622864E-1	5.347786E-1	5.448781E-1	5.636373E-1	5.866892E-1	5.725483E-1	5.491766E-1	5.410671E-1	5.631047E-1	5.451273E-1	5.685627E-1	5.753983E-1	5.777642E-1	5.414453E-1	4.833937E-1	5.361402E-1	5.793354E-1	5.493438E-1	6.474163E-1	5.692939E-1	5.060772E-1	5.676543E-1	5.408058E-1	5.705919E-1	5.970974E-1	5.400111E-1	5.808686E-1	5.846012E-1	5.534115E-1	5.576803E-1	4.837733E-1	5.165318E-1	5.471006E-1	5.757227E-1	4.985444E-1	5.626967E-1	5.470074E-1	5.285695E-1	5.411068E-1	5.458423E-1	5.201015E-1	5.417772E-1	5.239341E-1	5.562645E-1	5.328145E-1	5.520159E-1	5.915879E-1	5.014232E-1	5.076990E-1	5.833239E-1	5.545376E-1	5.783936E-1	4.994966E-1	6.083553E-1	5.636668E-1	5.134559E-1	5.744183E-1	5.745048E-1	5.702868E-1	5.830185E-1	6.102297E-1	5.357388E-1	5.118727E-1	5.403529E-1	5.388241E-1	5.718844E-1	5.367693E-1	5.648621E-1	5.509870E-1	5.577148E-1	5.361341E-1	5.728557E-1	5.813004E-1	5.755665E-1	5.434093E-1	5.236559E-1	5.663970E-1	5.460423E-1	5.151112E-1	5.729889E-1	5.579285E-1	6.369084E-1	5.462096E-1	5.019899E-1	5.150213E-1	5.627829E-1	5.459735E-1	4.340252E-1	5.759846E-1	4.748329E-1	5.297184E-1	5.462051E-1	5.512594E-1	5.974846E-1	5.011799E-1	5.196991E-1	5.662876E-1	5.546753E-1	5.131908E-1	5.315348E-1	5.422877E-1	5.430061E-1	5.871293E-1	5.742654E-1	5.952718E-1	5.706462E-1	4.704679E-1	5.591541E-1	5.068873E-1	5.239638E-1	5.346242E-1	6.091780E-1	5.561443E-1	5.903430E-1	5.433364E-1	5.163510E-1	5.591404E-1	5.463147E-1	5.462069E-1	5.456834E-1	5.431285E-1	5.960855E-1	5.355232E-1	5.556248E-1	5.884637E-1	5.561404E-1	4.986183E-1	5.787586E-1	5.452297E-1	5.862307E-1	5.405940E-1	5.053227E-1	5.399854E-1	5.967618E-1	5.529690E-1	5.685101E-1	5.154284E-1	4.782012E-1	5.162943E-1	5.809409E-1	5.383027E-1	5.344589E-1	6.139978E-1	5.545924E-1	5.880678E-1	6.029636E-1	4.918998E-1	4.795460E-1	5.629282E-1	6.104408E-1
5.410190E+2	3.818938E-1	4.285983E-1	3.837134E-1	4.286822E-1	4.300521E-1	4.067595E-1	3.918381E-1	4.194059E-1	3.657303E-1	4.127651E-1	4.334816E-1	4.463033E-1	4.398431E-1	3.745521E-1	4.003586E-1	4.248368E-1	3.957515E-1	4.167567E-1	4.195819E-1	4.590818E-1	3.890396E-1	4.195741E-1	4.532330E-1	3.773802E-1	4.154589E-1	3.809104E-1	4.274965E-1	3.565462E-1	3.912902E-1	3.516882E-1	4.076643E-1	4.710188E-1	4.328581E-1	4.037311E-1	3.840387E-1	3.972975E-1	3.522719E-1	4.314026E-1	4.232708E-1	4.056876E-1	3.825812E-1	3.496636E-1	4.375633E-1	4.857735E-1	4.167905E-1	4.323067E-1	4.572754E-1	4.170316E-1	3.924640E-1	4.040495E-1	4.597341E-1	3.947961E-1	3.681730E-1	3.992975E-1	4.698714E-1	4.140232E-1	4.028483E-1	4.048139E-1	4.406636E-1	3.737714E-1	4.816640E-1	4.164046E-1	3.777335E-1	4.248062E-1	3.471419E-1	3.935869E-1	4.360196E-1	4.613041E-1	4.085536E-1	5.037801E-1	3.900178E-1	4.116220E-1	4.071745E-1	3.385540E-1	3.920853E-1	3.727140E-1	5.104372E-1	4.272335E-1	4.546936E-1	4.439581E-1	4.156527E-1	4.975660E-1	4.378371E-1	3.995332E-1	3.875744E-1	3.981808E-1	4.222472E-1	4.332130E-1	3.967561E-1	4.015977E-1	4.162057E-1	4.107101E-1	4.079123E-1	4.120488E-1	4.301495E-1	3.866862E-1	4.015318E-1	4.366926E-1	4.435838E-1	4.771064E-1	4.049429E-1	4.455520E-1	4.081749E-1	4.193831E-1	4.169499E-1	3.947331E-1	3.906878E-1	4.830788E-1	4.149406E-1	4.154885E-1	3.749632E-1	4.686941E-1	3.740095E-1	3.971381E-1	4.347366E-1	4.519689E-1	4.020986E-1	4.154209E-1	4.222622E-1	4.275749E-1	4.384859E-1	3.757699E-1	4.809475E-1	3.801723E-1	4.486307E-1	3.876645E-1	4.598174E-1	4.465181E-1	4.466514E-1	3.819079E-1	3.949169E-1	4.256129E-1	4.425737E-1	4.737615E-1	4.037244E-1	4.426786E-1	4.563102E-1	4.080382E-1	4.340456E-1	3.892477E-1	4.217560E-1	4.604830E-1	3.991701E-1	4.111554E-1	3.825774E-1	4.492054E-1	3.703489E-1	4.435784E-1	4.251112E-1	4.198797E-1	3.773270E-1	4.005937E-1	4.417771E-1	4.331066E-1	3.909040E-1	4.488513E-1	4.466738E-1	3.882557E-1	4.514016E-1	4.607176E-1	4.237771E-1	4.293751E-1	3.394557E-1	4.296889E-1
5.415090E+2	3.725208E-1	3.741046E-1	3.839354E-1	3.550396E-1	3.520245E-1	3.260606E-1	3.478206E-1	3.072097E-1	3.416260E-1	3.645770E-1	3.826802E-1	3.431006E-1	3.580989E-1	3.404517E-1	3.588530E-1	3.399556E-1	3.614138E-1	3.784818E-1	3.516787E-1	3.826056E-1	3.401264E-1	3.069683E-1	3.443187E-1	3.211149E-1	3.528201E-1	3.630837E-1	3.505579E-1	3.722927E-1	3.488945E-1	3.928836E-1	3.842675E-1	3.378826E-1	3.712960E-1	3.522436E-1	3.547814E-1	3.919613E-1	3.498243E-1	3.210026E-1	3.803602E-1	3.458945E-1	3.281667E-1	3.948675E-1	3.820633E-1	4.074408E-1	3.409342E-1	3.153474E-1	3.544528E-1	4.080273E-1	3.156976E-1	3.466698E-1	3.782489E-1	3.290206E-1	3.653747E-1	3.645570E-1	3.545612E-1	3.680693E-1	3.417833E-1	3.661504E-1	3.560495E-1	3.314141E-1	3.740919E-1	3.537387E-1	3.753336E-1	4.115274E-1	3.961000E-1	3.837323E-1	3.413383E-1	3.652666E-1	3.568970E-1	3.459535E-1	3.723166E-1	3.619627E-1	2.806825E-1	3.512685E-1	3.773595E-1	4.130280E-1	3.597906E-1	3.190432E-1	3.742070E-1	3.996052E-1	3.618248E-1	3.932773E-1	3.280839E-1	3.457830E-1	3.281472E-1	3.652974E-1	3.493334E-1	3.454197E-1	3.854902E-1	3.508977E-1	3.755176E-1	3.800597E-1	3.205410E-1	3.825311E-1	3.368723E-1	3.881712E-1	3.460412E-1	3.318966E-1	3.452058E-1	3.840274E-1	3.711560E-1	3.564382E-1	3.375188E-1	3.481853E-1	3.841276E-1	3.462560E-1	3.567942E-1	3.555989E-1	3.896338E-1	3.300346E-1	3.318455E-1	3.649950E-1	3.080265E-1	3.444176E-1	3.610986E-1	3.586859E-1	3.573253E-1	3.563559E-1	3.608531E-1	3.223136E-1	3.037420E-1	3.769707E-1	3.115060E-1	3.287507E-1	3.419989E-1	3.170995E-1	3.598620E-1	3.728452E-1	3.536479E-1	3.454550E-1	3.843399E-1	3.648749E-1	3.865074E-1	3.575149E-1	3.824887E-1	3.005451E-1	3.257492E-1	3.467078E-1	3.733551E-1	3.773705E-1	3.696958E-1	4.124605E-1	3.145165E-1	3.641990E-1	3.555703E-1	3.444640E-1	4.114681E-1	3.343985E-1	3.738339E-1	3.803528E-1	3.233350E-1	3.391745E-1	3.542531E-1	3.350386E-1	3.852607E-1	3.688783E-1	4.332888E-1	3.479720E-1	3.609586E-1	3.769381E-1	3.769634E-1	4.055687E-1	3.584104E-1	3.317839E-1
5.420110E+2	5.167946E-1	5.584649E-1	5.009779E-1	5.326093E-1	5.080505E-1	5.790638E-1	5.303792E-1	4.940798E-1	4.663934E-1	5.531801E-1	5.729487E-1	5.470179E-1	4.513273E-1	4.962130E-1	4.819634E-1	5.174113E-1	5.785753E-1	5.776574E-1	5.330681E-1	5.385828E-1	5.269237E-1	5.117024E-1	5.683146E-1	5.362872E-1	5.587976E-1	5.374059E-1	5.812018E-1	5.908172E-1	5.355834E-1	5.530113E-1	4.865491E-1	5.357561E-1	4.942524E-1	5.603927E-1	5.207355E-1	5.510084E-1	5.444143E-1	5.621807E-1	5.265271E-1	5.748474E-1	4.824487E-1	5.089261E-1	5.335336E-1	4.955858E-1	5.176521E-1	4.928009E-1	4.635383E-1	5.363217E-1	5.645532E-1	5.314454E-1	4.930400E-1	4.960087E-1	5.133132E-1	5.054339E-1	5.606405E-1	5.689708E-1	5.386410E-1	4.981246E-1	4.820974E-1	5.429083E-1	5.150398E-1	5.162152E-1	5.645676E-1	5.671303E-1	5.023235E-1	5.650443E-1	5.344883E-1	5.685093E-1	5.061236E-1	5.638802E-1	5.921070E-1	5.490069E-1	5.811913E-1	5.230731E-1	5.070530E-1	5.139954E-1	5.246297E-1	5.036963E-1	5.467176E-1	5.521404E-1	5.040194E-1	5.311550E-1	5.848336E-1	5.220347E-1	5.303593E-1	5.550736E-1	4.653816E-1	5.120935E-1	5.249190E-1	5.117994E-1	5.111446E-1	5.410666E-1	5.892775E-1	5.685575E-1	5.505106E-1	5.663253E-1	4.984529E-1	5.542919E-1	5.530207E-1	5.999095E-1	5.559784E-1	5.164459E-1	5.466824E-1	5.169980E-1	5.273113E-1	5.612126E-1	5.691230E-1	6.351474E-1	5.371210E-1	5.400303E-1	5.534303E-1	5.323053E-1	5.067995E-1	5.382992E-1	5.528217E-1	4.732007E-1	4.888898E-1	5.498920E-1	4.737836E-1	5.154466E-1	5.107318E-1	5.148530E-1	5.768995E-1	4.746265E-1	5.212182E-1	4.808756E-1	5.489176E-1	5.147418E-1	5.142453E-1	5.254121E-1	5.242706E-1	5.059746E-1	5.088856E-1	4.942294E-1	5.105132E-1	5.554030E-1	5.215845E-1	5.577392E-1	5.314199E-1	5.439898E-1	5.146298E-1	5.157872E-1	5.532958E-1	5.486185E-1	4.866498E-1	5.307467E-1	5.420158E-1	4.763796E-1	5.206436E-1	5.276358E-1	4.981203E-1	5.523015E-1	5.460589E-1	5.964128E-1	4.958280E-1	5.455236E-1	5.570058E-1	5.359956E-1	5.061618E-1	5.664351E-1	5.783338E-1	5.092934E-1	5.523288E-1	6.339407E-1
5.425140E+2	7.880174E-1	8.320179E-1	8.048174E-1	8.514333E-1	8.655755E-1	8.328692E-1	8.262231E-1	8.712249E-1	8.522071E-1	8.466927E-1	8.497519E-1	7.837054E-1	8.683877E-1	8.433929E-1	8.329317E-1	8.655268E-1	8.312638E-1	7.944268E-1	8.117222E-1	8.556097E-1	8.495435E-1	9.016809E-1	8.232118E-1	8.555926E-1	7.633060E-1	8.464219E-1	8.613515E-1	8.805763E-1	8.426678E-1	7.906567E-1	8.074834E-1	8.469294E-1	8.380002E-1	8.121161E-1	7.911132E-1	8.998137E-1	8.461079E-1	8.008781E-1	8.369532E-1	9.008802E-1	8.133094E-1	8.696171E-1	8.217661E-1	9.145278E-1	8.139283E-1	8.414020E-1	8.124654E-1	8.473837E-1	8.585662E-1	7.749635E-1	7.988089E-1	8.045398E-1	8.474127E-1	8.329849E-1	7.925172E-1	7.839625E-1	8.394878E-1	8.655671E-1	7.896212E-1	8.195221E-1	7.955804E-1	8.343777E-1	8.479147E-1	7.771785E-1	8.131068E-1	7.733971E-1	8.948694E-1	7.618577E-1	8.326895E-1	8.727682E-1	8.477982E-1	8.338233E-1	8.375069E-1	7.905022E-1	9.129750E-1	8.067655E-1	8.793377E-1	8.145184E-1	8.312462E-1	7.990628E-1	8.295610E-1	8.857948E-1	7.927275E-1	8.574789E-1	7.732754E-1	8.087477E-1	7.912071E-1	8.076010E-1	8.133514E-1	8.362243E-1	7.647575E-1	8.514554E-1	8.481090E-1	9.374258E-1	8.292165E-1	8.604622E-1	8.400205E-1	8.375427E-1	8.211030E-1	8.013027E-1	8.256064E-1	8.094843E-1	8.112799E-1	8.748564E-1	8.101036E-1	7.406489E-1	8.634961E-1	8.661205E-1	8.632198E-1	7.838934E-1	8.632317E-1	8.210983E-1	8.196448E-1	7.829892E-1	7.819322E-1	8.285315E-1	8.085890E-1	8.271717E-1	8.193178E-1	7.935936E-1	8.934397E-1	8.390346E-1	9.128807E-1	8.270494E-1	7.880666E-1	8.702025E-1	8.753284E-1	8.547361E-1	8.393343E-1	8.276391E-1	8.652973E-1	8.892909E-1	8.290412E-1	7.743942E-1	9.175504E-1	8.102186E-1	8.072203E-1	7.871362E-1	8.890423E-1	8.098974E-1	8.738587E-1	9.443125E-1	8.206256E-1	8.677958E-1	8.058226E-1	8.601197E-1	8.671941E-1	8.476625E-1	8.517560E-1	8.309305E-1	8.530147E-1	8.734139E-1	9.062925E-1	8.542847E-1	8.304290E-1	8.320460E-1	8.311916E-1	7.355187E-1	8.217088E-1	8.145272E-1	8.310592E-1	8.800968E-1	8.005796E-1	8.926894E-1
5.430120E+2	1.183561E+0	1.199829E+0	1.139169E+0	1.225751E+0	1.220401E+0	1.280713E+0	1.210941E+0	1.234160E+0	1.141401E+0	1.161944E+0	1.259976E+0	1.162435E+0	1.236977E+0	1.236823E+0	1.304481E+0	1.278398E+0	1.254424E+0	1.220491E+0	1.221693E+0	1.252107E+0	1.172100E+0	1.201432E+0	1.226719E+0	1.088547E+0	1.124603E+0	1.186388E+0	1.208931E+0	1.181659E+0	1.142222E+0	1.231685E+0	1.213039E+0	1.185223E+0	1.278883E+0	1.179633E+0	1.226595E+0	1.261100E+0	1.219145E+0	1.214551E+0	1.221825E+0	1.179001E+0	1.211429E+0	1.183974E+0	1.211012E+0	1.242373E+0	1.184241E+0	1.212967E+0	1.168666E+0	1.188897E+0	1.189593E+0	1.213856E+0	1.190278E+0	1.169381E+0	1.189367E+0	1.188927E+0	1.197294E+0	1.196026E+0	1.201144E+0	1.176470E+0	1.180983E+0	1.214356E+0	1.212086E+0	1.124580E+0	1.239617E+0	1.159295E+0	1.155213E+0	1.230443E+0	1.202866E+0	1.269579E+0	1.184458E+0	1.276749E+0	1.149285E+0	1.178397E+0	1.194284E+0	1.292819E+0	1.189912E+0	1.172888E+0	1.240121E+0	1.170897E+0	1.192641E+0	1.235602E+0	1.194272E+0	1.238473E+0	1.207352E+0	1.217890E+0	1.183168E+0	1.173062E+0	1.178448E+0	1.107372E+0	1.245421E+0	1.164217E+0	1.158179E+0	1.167378E+0	1.222230E+0	1.257864E+0	1.234247E+0	1.182775E+0	1.199844E+0	1.206537E+0	1.225680E+0	1.220226E+0	1.146451E+0	1.165935E+0	1.234408E+0	1.313458E+0	1.146628E+0	1.225314E+0	1.160334E+0	1.280850E+0	1.170148E+0	1.221182E+0	1.198530E+0	1.185889E+0	1.112179E+0	1.163295E+0	1.157650E+0	1.248107E+0	1.190905E+0	1.145310E+0	1.186936E+0	1.257356E+0	1.212837E+0	1.236999E+0	1.177133E+0	1.112067E+0	1.247846E+0	1.225429E+0	1.245463E+0	1.234479E+0	1.269068E+0	1.161113E+0	1.146282E+0	1.227993E+0	1.110443E+0	1.260939E+0	1.152626E+0	1.188118E+0	1.177768E+0	1.202954E+0	1.302267E+0	1.248230E+0	1.178080E+0	1.215942E+0	1.154692E+0	1.239017E+0	1.195136E+0	1.135805E+0	1.223319E+0	1.188526E+0	1.212896E+0	1.168756E+0	1.207138E+0	1.104486E+0	1.227376E+0	1.166173E+0	1.110661E+0	1.185148E+0	1.264439E+0	1.222034E+0	1.213062E+0	1.242764E+0	1.206188E+0	1.175149E+0	1.242864E+0	1.237079E+0
5.435330E+2	1.306804E+0	1.164773E+0	1.194930E+0	1.304530E+0	1.263580E+0	1.214864E+0	1.232756E+0	1.298843E+0	1.212582E+0	1.211689E+0	1.307930E+0	1.280743E+0	1.289546E+0	1.334605E+0	1.305980E+0	1.238811E+0	1.222769E+0	1.355472E+0	1.281978E+0	1.371989E+0	1.258678E+0	1.265055E+0	1.169052E+0	1.223796E+0	1.293923E+0	1.262216E+0	1.241439E+0	1.348258E+0	1.244218E+0	1.219275E+0	1.250063E+0	1.275623E+0	1.308083E+0	1.281417E+0	1.260797E+0	1.232196E+0	1.222072E+0	1.258049E+0	1.257820E+0	1.288523E+0	1.240953E+0	1.196904E+0	1.318280E+0	1.370789E+0	1.260964E+0	1.262907E+0	1.252267E+0	1.221765E+0	1.208131E+0	1.254941E+0	1.203417E+0	1.233365E+0	1.155923E+0	1.251453E+0	1.213821E+0	1.279151E+0	1.180439E+0	1.230512E+0	1.188861E+0	1.258594E+0	1.195604E+0	1.268093E+0	1.169603E+0	1.231932E+0	1.198146E+0	1.217785E+0	1.293318E+0	1.268885E+0	1.146978E+0	1.336620E+0	1.193359E+0	1.237816E+0	1.204695E+0	1.189904E+0	1.188687E+0	1.171658E+0	1.207098E+0	1.247093E+0	1.227106E+0	1.177595E+0	1.241574E+0	1.333222E+0	1.261743E+0	1.312166E+0	1.293831E+0	1.156351E+0	1.233085E+0	1.307089E+0	1.256233E+0	1.179886E+0	1.186738E+0	1.233638E+0	1.208676E+0	1.269677E+0	1.263678E+0	1.277544E+0	1.216596E+0	1.239801E+0	1.333876E+0	1.321764E+0	1.188230E+0	1.150769E+0	1.168549E+0	1.191107E+0	1.245352E+0	1.240406E+0	1.285649E+0	1.312988E+0	1.262920E+0	1.244954E+0	1.178666E+0	1.230042E+0	1.219930E+0	1.178673E+0	1.253924E+0	1.223206E+0	1.182337E+0	1.357668E+0	1.373564E+0	1.241214E+0	1.271790E+0	1.338111E+0	1.260109E+0	1.198779E+0	1.229778E+0	1.262271E+0	1.241205E+0	1.259049E+0	1.347978E+0	1.219340E+0	1.237068E+0	1.210474E+0	1.216505E+0	1.175260E+0	1.240809E+0	1.222234E+0	1.131375E+0	1.257524E+0	1.278226E+0	1.227362E+0	1.211901E+0	1.362291E+0	1.289344E+0	1.220339E+0	1.316301E+0	1.198161E+0	1.214713E+0	1.209305E+0	1.234100E+0	1.288701E+0	1.177332E+0	1.137871E+0	1.250995E+0	1.295738E+0	1.276497E+0	1.267000E+0	1.303522E+0	1.214750E+0	1.242990E+0	1.200799E+0	1.256690E+0	1.234771E+0	1.185414E+0	1.274719E+0
5.440170E+2	1.033724E+0	1.067462E+0	1.110837E+0	1.107256E+0	1.083955E+0	1.126144E+0	1.186588E+0	1.162543E+0	1.096230E+0	1.079731E+0	1.178278E+0	1.051293E+0	1.144754E+0	1.106323E+0	1.125960E+0	1.116731E+0	1.112103E+0	1.115304E+0	1.084990E+0	1.145518E+0	1.191522E+0	1.076870E+0	1.100456E+0	1.068737E+0	1.104424E+0	1.089500E+0	1.096965E+0	1.106529E+0	1.074587E+0	1.077342E+0	1.110263E+0	1.081823E+0	1.103999E+0	1.124156E+0	1.048649E+0	1.114941E+0	1.066169E+0	1.064727E+0	1.082825E+0	1.079922E+0	1.074062E+0	1.142563E+0	1.129493E+0	1.210409E+0	1.052385E+0	1.111416E+0	1.098873E+0	1.069840E+0	1.128932E+0	1.111978E+0	1.133630E+0	1.067053E+0	1.102852E+0	1.052784E+0	1.077051E+0	1.130657E+0	1.088065E+0	1.031584E+0	1.111053E+0	1.072636E+0	1.089340E+0	1.117193E+0	1.127807E+0	1.070078E+0	1.104469E+0	1.055741E+0	1.093634E+0	1.072768E+0	1.041940E+0	1.155747E+0	1.017321E+0	1.154064E+0	1.092462E+0	1.163358E+0	1.113791E+0	1.048597E+0	1.131364E+0	1.151493E+0	1.073783E+0	1.099642E+0	1.072706E+0	1.150302E+0	1.120493E+0	1.094758E+0	1.135062E+0	1.075579E+0	1.072599E+0	1.079832E+0	1.089857E+0	1.046878E+0	1.043122E+0	1.091846E+0	1.118189E+0	1.157954E+0	1.122916E+0	1.146894E+0	1.043322E+0	1.117892E+0	1.140853E+0	1.146597E+0	1.065940E+0	1.060877E+0	1.080824E+0	1.109496E+0	1.135148E+0	1.061432E+0	1.054191E+0	1.141411E+0	1.118727E+0	1.012424E+0	1.052907E+0	1.071828E+0	1.142605E+0	1.020300E+0	1.050944E+0	1.085751E+0	1.103707E+0	1.101412E+0	1.174679E+0	1.146525E+0	1.112000E+0	1.115223E+0	1.096672E+0	1.037490E+0	1.123398E+0	1.144405E+0	1.128434E+0	1.109846E+0	1.153531E+0	1.050428E+0	1.131080E+0	1.093297E+0	1.110619E+0	1.111814E+0	1.067229E+0	1.042948E+0	1.067479E+0	1.147758E+0	1.091954E+0	1.130531E+0	1.097253E+0	1.190643E+0	1.036577E+0	1.053672E+0	1.090394E+0	1.181318E+0	1.125463E+0	1.062389E+0	1.150119E+0	1.086662E+0	1.034133E+0	1.124287E+0	1.117482E+0	1.123979E+0	1.142211E+0	1.148446E+0	1.139707E+0	1.014146E+0	1.133455E+0	1.161913E+0	1.124659E+0	1.036236E+0	1.026945E+0	1.181379E+0
5.445070E+2	9.267744E-1	9.562590E-1	8.849751E-1	9.234562E-1	9.602454E-1	9.455519E-1	9.297238E-1	1.002842E+0	9.199580E-1	9.364763E-1	9.446119E-1	9.230847E-1	1.006188E+0	8.772799E-1	9.042031E-1	9.804831E-1	9.617211E-1	9.556289E-1	8.756317E-1	9.648181E-1	9.700091E-1	9.823420E-1	9.881945E-1	9.418564E-1	9.669411E-1	9.706565E-1	9.759874E-1	8.496585E-1	9.034333E-1	8.727017E-1	9.240362E-1	9.263092E-1	9.818565E-1	9.224125E-1	9.300983E-1	9.719950E-1	8.841652E-1	9.807943E-1	9.710541E-1	9.263825E-1	9.165145E-1	1.015063E+0	1.005113E+0	9.757726E-1	9.006286E-1	9.721515E-1	9.053825E-1	9.498868E-1	9.399077E-1	8.871998E-1	8.985266E-1	8.844375E-1	9.368882E-1	9.040591E-1	9.323580E-1	9.572403E-1	9.123424E-1	8.688012E-1	9.549900E-1	9.751122E-1	9.346804E-1	8.894304E-1	9.462385E-1	9.605736E-1	8.811189E-1	8.879199E-1	8.517127E-1	9.378264E-1	9.518014E-1	9.571359E-1	9.472082E-1	9.351958E-1	9.690215E-1	9.779666E-1	9.304778E-1	9.082926E-1	1.048377E+0	9.727415E-1	9.794226E-1	9.469736E-1	9.432737E-1	8.986334E-1	9.488152E-1	9.747127E-1	8.872810E-1	8.676468E-1	9.206163E-1	9.180109E-1	9.403688E-1	9.915927E-1	8.873630E-1	8.880269E-1	8.882989E-1	9.755335E-1	1.010308E+0	9.137763E-1	9.417349E-1	9.076556E-1	9.101359E-1	9.033999E-1	9.296398E-1	8.649613E-1	8.814258E-1	1.011332E+0	9.547242E-1	9.241863E-1	8.831310E-1	9.725098E-1	1.022036E+0	9.436133E-1	9.670916E-1	9.880383E-1	9.070202E-1	8.917197E-1	8.640061E-1	8.763168E-1	9.363631E-1	9.316100E-1	9.430613E-1	9.396940E-1	9.012221E-1	9.079450E-1	9.885692E-1	8.861169E-1	9.460460E-1	1.004663E+0	9.445378E-1	9.730644E-1	9.865682E-1	8.600286E-1	9.412023E-1	9.320331E-1	9.234149E-1	8.383248E-1	9.072618E-1	9.486982E-1	9.204049E-1	9.566154E-1	9.139219E-1	9.203895E-1	9.607974E-1	9.914188E-1	9.547126E-1	9.152260E-1	9.483891E-1	9.139246E-1	9.354961E-1	9.569892E-1	9.225009E-1	9.092573E-1	9.023025E-1	1.004564E+0	1.009302E+0	9.526565E-1	9.841508E-1	9.990060E-1	9.608620E-1	9.138653E-1	9.666130E-1	9.514449E-1	9.123448E-1	9.615420E-1	9.325524E-1	1.045046E+0
5.450090E+2	9.691457E-1	9.728469E-1	8.595506E-1	9.429567E-1	9.613686E-1	9.590743E-1	8.748782E-1	9.568548E-1	9.983441E-1	9.423512E-1	9.899477E-1	9.438254E-1	9.323966E-1	1.025501E+0	9.450711E-1	1.002742E+0	9.344147E-1	9.556077E-1	9.444414E-1	1.004272E+0	9.538982E-1	9.388174E-1	8.806062E-1	8.996559E-1	8.976943E-1	9.063481E-1	9.797594E-1	9.136765E-1	8.643212E-1	8.946374E-1	8.896822E-1	9.790813E-1	9.304693E-1	9.260275E-1	1.022346E+0	9.358340E-1	9.634603E-1	9.372871E-1	9.843290E-1	9.508486E-1	8.686762E-1	8.881002E-1	9.437181E-1	9.441054E-1	9.370534E-1	8.895095E-1	9.278230E-1	9.756974E-1	9.210150E-1	8.689965E-1	9.251268E-1	9.124514E-1	9.469489E-1	8.993254E-1	9.444072E-1	9.484103E-1	9.329765E-1	1.001467E+0	9.409693E-1	1.004851E+0	9.991919E-1	9.070286E-1	8.596532E-1	9.881171E-1	8.925913E-1	8.969060E-1	9.340270E-1	8.925804E-1	9.068715E-1	9.564221E-1	9.908409E-1	9.357698E-1	8.949434E-1	1.014681E+0	9.604745E-1	9.516592E-1	9.621115E-1	9.800869E-1	9.323636E-1	9.566530E-1	9.370155E-1	9.410451E-1	8.868759E-1	9.718718E-1	1.070790E+0	9.389349E-1	9.088213E-1	9.628897E-1	9.429891E-1	8.885521E-1	9.402420E-1	9.990035E-1	9.480663E-1	1.041714E+0	9.628431E-1	9.532167E-1	8.972122E-1	9.299574E-1	9.628199E-1	9.971594E-1	8.991812E-1	9.308964E-1	9.303363E-1	9.585008E-1	9.562050E-1	9.312765E-1	9.535713E-1	9.732458E-1	9.617463E-1	1.025061E+0	9.340824E-1	9.597640E-1	9.495901E-1	9.738776E-1	9.768850E-1	9.402524E-1	9.214043E-1	9.633502E-1	9.028791E-1	8.990270E-1	9.215008E-1	9.681485E-1	1.023326E+0	9.663256E-1	9.351281E-1	9.085328E-1	1.009457E+0	9.689460E-1	9.858859E-1	8.937066E-1	9.350998E-1	9.047973E-1	9.034251E-1	9.359430E-1	9.771644E-1	9.335056E-1	9.076745E-1	9.599800E-1	9.660575E-1	9.570334E-1	9.403134E-1	9.702921E-1	9.204749E-1	1.017111E+0	9.539109E-1	9.352375E-1	9.844991E-1	9.093799E-1	9.344006E-1	8.920756E-1	8.900418E-1	9.193666E-1	9.688355E-1	8.912783E-1	1.022659E+0	1.011610E+0	9.918079E-1	9.279701E-1	9.835500E-1	9.111266E-1	9.471994E-1	9.282432E-1	8.277968E-1	9.687568E-1
5.455070E+2	1.019033E+0	1.107269E+0	1.069064E+0	1.105862E+0	1.002952E+0	1.053822E+0	1.010336E+0	1.114724E+0	9.996997E-1	1.055124E+0	1.163343E+0	1.048910E+0	1.127574E+0	1.189847E+0	1.141799E+0	1.084957E+0	1.166445E+0	1.107401E+0	1.059030E+0	1.180781E+0	1.120889E+0	1.054802E+0	1.088422E+0	1.065729E+0	1.066304E+0	1.060851E+0	1.163551E+0	1.142102E+0	1.044247E+0	1.051391E+0	1.078291E+0	1.080242E+0	1.093820E+0	1.125177E+0	1.088346E+0	1.212352E+0	1.078430E+0	1.115295E+0	1.068792E+0	1.012146E+0	1.068417E+0	1.138003E+0	1.061792E+0	1.046937E+0	1.076259E+0	1.153781E+0	1.090226E+0	1.084709E+0	1.101633E+0	1.037019E+0	1.097620E+0	1.027896E+0	1.054882E+0	1.065204E+0	1.068643E+0	1.103965E+0	1.016676E+0	1.071048E+0	1.006884E+0	1.091651E+0	1.066822E+0	1.117065E+0	1.031931E+0	1.104332E+0	1.106410E+0	1.046298E+0	1.050557E+0	1.148276E+0	1.054808E+0	1.062928E+0	1.112976E+0	1.077682E+0	1.077438E+0	1.132963E+0	1.081281E+0	1.078306E+0	1.142621E+0	1.143849E+0	1.094608E+0	1.199671E+0	1.108488E+0	1.165241E+0	1.175057E+0	1.122076E+0	1.137359E+0	1.002171E+0	1.024646E+0	1.053717E+0	1.119637E+0	1.073851E+0	1.139348E+0	1.080964E+0	1.061461E+0	1.158758E+0	1.116650E+0	1.099851E+0	1.024820E+0	1.076966E+0	1.059762E+0	1.104365E+0	1.061352E+0	1.158269E+0	1.063861E+0	1.190368E+0	1.063803E+0	1.069000E+0	9.953908E-1	1.163874E+0	1.068195E+0	1.102824E+0	1.112034E+0	1.098343E+0	1.053502E+0	1.079739E+0	1.053933E+0	1.204934E+0	1.040637E+0	1.066039E+0	1.086605E+0	1.103016E+0	1.063412E+0	1.137355E+0	1.082214E+0	1.008051E+0	1.049234E+0	1.135737E+0	1.100214E+0	1.170245E+0	1.056276E+0	1.106081E+0	1.077171E+0	1.162375E+0	1.033384E+0	1.097133E+0	1.050351E+0	1.085053E+0	1.142071E+0	1.175521E+0	1.031304E+0	9.922776E-1	1.088431E+0	1.084377E+0	1.106066E+0	1.011318E+0	1.069180E+0	1.087417E+0	1.027034E+0	1.119001E+0	1.118802E+0	1.035092E+0	1.108630E+0	1.093366E+0	1.119057E+0	1.013744E+0	1.073631E+0	1.147793E+0	1.131536E+0	1.068407E+0	1.063618E+0	1.102998E+0	1.103275E+0	1.060389E+0	1.038491E+0	1.137109E+0
5.460000E+2	1.202666E+0	1.204081E+0	1.295022E+0	1.156473E+0	1.274181E+0	1.180137E+0	1.174279E+0	1.160429E+0	1.173690E+0	1.227157E+0	1.226148E+0	1.185399E+0	1.243941E+0	1.238089E+0	1.163675E+0	1.250286E+0	1.201446E+0	1.187069E+0	1.320783E+0	1.232150E+0	1.230795E+0	1.136272E+0	1.216137E+0	1.192111E+0	1.208105E+0	1.266179E+0	1.171560E+0	1.194622E+0	1.237797E+0	1.258264E+0	1.175167E+0	1.181483E+0	1.228634E+0	1.192998E+0	1.231197E+0	1.216703E+0	1.147843E+0	1.283589E+0	1.144597E+0	1.219486E+0	1.209001E+0	1.185368E+0	1.251216E+0	1.235604E+0	1.222818E+0	1.300932E+0	1.235005E+0	1.255236E+0	1.267750E+0	1.182475E+0	1.215473E+0	1.179746E+0	1.191159E+0	1.189259E+0	1.149682E+0	1.211639E+0	1.209804E+0	1.190632E+0	1.175391E+0	1.228956E+0	1.243718E+0	1.207371E+0	1.278697E+0	1.107005E+0	1.127836E+0	1.168086E+0	1.174111E+0	1.186801E+0	1.113198E+0	1.231804E+0	1.224091E+0	1.152631E+0	1.236667E+0	1.235425E+0	1.180934E+0	1.135775E+0	1.182588E+0	1.240219E+0	1.154689E+0	1.197587E+0	1.220301E+0	1.268923E+0	1.196561E+0	1.219089E+0	1.213135E+0	1.172094E+0	1.254894E+0	1.180835E+0	1.198671E+0	1.140243E+0	1.247361E+0	1.152950E+0	1.190480E+0	1.207905E+0	1.240657E+0	1.247244E+0	1.174567E+0	1.257348E+0	1.184456E+0	1.175073E+0	1.131444E+0	1.170197E+0	1.166271E+0	1.165843E+0	1.201075E+0	1.231373E+0	1.282995E+0	1.219413E+0	1.190219E+0	1.228502E+0	1.180805E+0	1.242245E+0	1.192534E+0	1.214312E+0	1.188567E+0	1.211758E+0	1.147056E+0	1.254423E+0	1.135136E+0	1.159201E+0	1.188334E+0	1.256706E+0	1.247202E+0	1.186264E+0	1.217155E+0	1.214746E+0	1.226644E+0	1.168452E+0	1.221526E+0	1.190380E+0	1.219168E+0	1.218512E+0	1.229431E+0	1.222060E+0	1.188707E+0	1.196448E+0	1.150559E+0	1.178530E+0	1.224680E+0	1.204326E+0	1.154578E+0	1.246493E+0	1.233876E+0	1.223185E+0	1.272401E+0	1.187997E+0	1.078118E+0	1.264188E+0	1.221353E+0	1.185671E+0	1.139148E+0	1.150824E+0	1.264493E+0	1.245115E+0	1.185950E+0	1.249343E+0	1.262428E+0	1.133974E+0	1.226650E+0	1.198678E+0	1.167544E+0	1.177495E+0	1.095568E+0	1.202052E+0
5.465100E+2	1.053463E+0	1.063877E+0	1.033863E+0	1.069790E+0	1.028183E+0	1.101507E+0	1.081827E+0	1.096842E+0	1.009846E+0	1.127853E+0	1.077755E+0	1.104750E+0	1.133601E+0	1.099808E+0	1.061170E+0	1.094571E+0	1.094349E+0	1.072117E+0	1.167508E+0	1.062945E+0	1.129775E+0	1.079133E+0	1.134986E+0	9.580890E-1	1.058800E+0	1.054268E+0	1.065130E+0	1.068103E+0	1.014320E+0	1.088628E+0	1.032677E+0	1.054592E+0	1.136742E+0	1.104484E+0	1.093694E+0	1.077957E+0	1.055297E+0	1.096634E+0	1.116010E+0	1.084597E+0	1.066618E+0	1.031596E+0	1.143652E+0	1.174072E+0	1.088093E+0	1.095956E+0	1.126257E+0	1.079490E+0	1.155134E+0	1.076993E+0	1.114424E+0	1.047431E+0	1.131479E+0	1.081388E+0	1.124136E+0	1.110033E+0	1.074803E+0	1.083064E+0	1.097666E+0	1.093348E+0	1.094173E+0	1.120984E+0	1.053163E+0	1.086809E+0	1.070780E+0	1.039621E+0	1.064431E+0	1.098502E+0	1.061132E+0	1.065891E+0	1.047013E+0	1.154367E+0	1.092539E+0	1.128063E+0	1.148258E+0	1.003547E+0	1.087987E+0	1.111285E+0	1.131301E+0	1.118094E+0	1.134893E+0	1.124031E+0	1.107144E+0	1.134302E+0	1.110603E+0	1.061177E+0	1.185072E+0	1.055249E+0	1.130018E+0	1.114638E+0	1.042143E+0	1.070431E+0	1.098885E+0	1.081233E+0	1.132922E+0	1.059983E+0	1.066893E+0	1.063286E+0	1.159079E+0	1.129197E+0	1.049473E+0	1.033351E+0	1.087141E+0	1.152895E+0	1.125752E+0	1.079480E+0	1.083871E+0	1.115505E+0	1.140585E+0	1.059100E+0	1.067510E+0	1.099164E+0	1.093249E+0	1.059336E+0	1.087846E+0	1.111147E+0	1.050935E+0	1.097037E+0	1.095767E+0	1.002047E+0	1.091946E+0	1.076950E+0	1.107358E+0	1.056019E+0	1.073419E+0	9.981747E-1	1.100625E+0	1.156581E+0	1.101133E+0	1.077667E+0	1.086318E+0	1.124548E+0	1.032261E+0	9.858010E-1	1.040587E+0	1.059494E+0	1.067012E+0	1.177047E+0	1.147260E+0	1.097720E+0	1.043698E+0	1.045567E+0	1.080256E+0	1.069927E+0	1.060605E+0	1.051531E+0	1.144056E+0	1.080208E+0	1.078036E+0	1.133335E+0	1.096007E+0	1.117897E+0	1.152072E+0	1.161708E+0	1.067366E+0	1.092932E+0	1.087256E+0	1.133012E+0	1.080646E+0	1.141812E+0	1.036627E+0	1.075661E+0	9.749918E-1	1.102773E+0
5.470050E+2	9.219257E-1	9.764113E-1	9.404535E-1	9.779597E-1	9.674117E-1	9.566870E-1	9.632622E-1	1.016629E+0	9.453286E-1	9.917832E-1	1.058190E+0	9.846802E-1	9.933259E-1	1.033196E+0	9.497586E-1	9.636247E-1	9.819806E-1	9.980866E-1	1.046730E+0	9.721273E-1	9.703466E-1	9.778566E-1	1.018771E+0	9.991590E-1	9.723766E-1	9.400252E-1	9.601831E-1	1.003725E+0	9.308040E-1	9.647307E-1	1.001212E+0	9.590784E-1	1.007913E+0	9.303012E-1	1.011626E+0	1.057892E+0	1.016606E+0	9.956916E-1	1.040046E+0	9.897281E-1	9.478838E-1	1.029597E+0	1.075444E+0	9.868194E-1	9.908136E-1	9.783755E-1	9.595877E-1	9.976646E-1	9.879771E-1	9.584010E-1	9.984015E-1	9.735067E-1	1.039951E+0	9.699387E-1	9.625591E-1	1.008297E+0	1.028259E+0	9.603754E-1	1.044258E+0	9.674236E-1	1.031150E+0	1.097186E+0	9.684724E-1	9.758337E-1	9.243170E-1	9.477128E-1	9.712335E-1	9.090847E-1	9.554103E-1	9.906910E-1	9.805546E-1	9.408410E-1	1.072823E+0	1.005458E+0	9.283935E-1	9.996896E-1	1.088611E+0	9.746261E-1	9.411944E-1	9.836633E-1	1.016142E+0	1.037144E+0	1.047820E+0	9.840157E-1	9.658144E-1	9.620615E-1	9.405822E-1	9.402667E-1	9.548970E-1	9.583728E-1	9.546133E-1	1.050676E+0	9.864295E-1	1.059783E+0	9.336579E-1	9.825002E-1	9.186635E-1	9.996461E-1	1.011776E+0	1.046197E+0	9.502256E-1	9.318534E-1	8.669900E-1	9.642760E-1	1.013459E+0	9.716392E-1	1.059028E+0	1.047152E+0	9.793278E-1	1.022450E+0	9.658920E-1	9.627740E-1	1.022601E+0	9.906299E-1	1.026582E+0	1.016996E+0	9.114855E-1	9.645560E-1	9.247287E-1	9.507444E-1	9.530006E-1	1.041438E+0	1.044692E+0	9.297195E-1	9.891254E-1	9.884206E-1	9.582558E-1	9.904029E-1	1.021021E+0	8.948406E-1	1.003543E+0	9.959577E-1	9.596449E-1	9.841672E-1	9.702314E-1	9.102536E-1	9.596994E-1	9.962556E-1	9.840673E-1	9.859931E-1	1.056774E+0	9.865881E-1	9.461950E-1	9.306056E-1	9.928376E-1	9.376435E-1	9.597443E-1	1.003069E+0	9.611000E-1	1.015676E+0	9.968322E-1	9.813055E-1	9.678349E-1	9.673148E-1	1.028766E+0	1.013900E+0	1.049487E+0	1.004419E+0	9.542799E-1	1.008922E+0	9.877268E-1	9.938699E-1	9.795996E-1	1.071267E+0
5.475070E+2	8.669282E-1	9.367702E-1	8.826402E-1	9.560076E-1	9.511481E-1	8.965011E-1	8.565566E-1	9.743875E-1	9.509505E-1	8.789067E-1	9.228930E-1	9.278059E-1	9.290162E-1	9.297803E-1	9.213239E-1	9.196575E-1	1.020087E+0	9.168501E-1	9.493186E-1	9.310427E-1	9.420553E-1	9.648807E-1	9.194742E-1	9.173898E-1	9.215977E-1	8.866703E-1	9.630679E-1	9.507336E-1	9.340130E-1	9.306177E-1	9.162091E-1	9.646744E-1	9.212340E-1	9.368389E-1	9.056169E-1	1.044272E+0	9.631618E-1	9.241506E-1	9.149004E-1	8.714028E-1	9.219114E-1	9.593180E-1	9.386708E-1	9.256490E-1	9.553959E-1	9.180544E-1	9.481154E-1	9.725711E-1	8.955903E-1	9.329338E-1	9.130326E-1	9.380726E-1	9.259842E-1	9.157556E-1	9.578813E-1	9.084855E-1	9.343689E-1	9.234572E-1	9.407839E-1	9.746463E-1	9.514112E-1	1.008891E+0	9.205563E-1	9.355216E-1	9.468575E-1	9.822900E-1	9.742594E-1	1.002516E+0	9.893821E-1	9.472286E-1	8.924141E-1	9.337477E-1	9.435322E-1	9.908095E-1	9.279956E-1	8.921213E-1	9.672908E-1	9.796322E-1	8.548665E-1	8.595181E-1	9.280968E-1	1.007429E+0	9.820279E-1	9.554840E-1	9.402752E-1	9.076520E-1	9.159005E-1	9.006544E-1	9.690527E-1	8.385468E-1	8.756516E-1	9.942637E-1	9.443587E-1	9.230224E-1	9.793968E-1	8.687389E-1	8.614303E-1	9.117609E-1	9.266654E-1	1.006637E+0	9.222243E-1	9.464476E-1	9.540367E-1	9.539615E-1	8.913916E-1	8.751567E-1	9.367904E-1	9.673569E-1	9.636325E-1	9.273440E-1	9.535131E-1	9.855585E-1	9.389224E-1	8.986538E-1	9.741958E-1	9.636488E-1	9.351708E-1	9.581620E-1	9.718511E-1	8.968476E-1	9.620853E-1	9.575625E-1	9.426463E-1	8.619303E-1	9.272715E-1	1.003857E+0	9.445336E-1	8.738836E-1	9.648730E-1	9.788601E-1	9.360445E-1	9.071525E-1	9.791460E-1	9.586301E-1	1.013885E+0	9.430492E-1	8.918992E-1	1.006111E+0	1.009728E+0	9.725145E-1	9.228722E-1	9.372378E-1	9.812288E-1	8.880363E-1	9.181680E-1	9.610354E-1	9.972539E-1	9.630665E-1	9.138394E-1	9.140733E-1	9.382901E-1	8.683226E-1	9.217737E-1	9.653226E-1	1.010837E+0	9.536177E-1	9.261763E-1	9.562162E-1	9.908249E-1	9.939673E-1	9.865957E-1	9.335540E-1	9.512886E-1	8.558765E-1
5.480030E+2	1.133952E+0	1.116695E+0	1.149381E+0	1.124233E+0	1.113887E+0	1.134312E+0	1.109071E+0	1.090723E+0	1.160952E+0	1.095529E+0	1.160939E+0	1.108294E+0	1.098943E+0	1.171804E+0	1.132215E+0	1.113889E+0	1.072215E+0	1.072245E+0	1.139812E+0	1.108536E+0	1.059725E+0	1.143332E+0	1.035764E+0	1.147391E+0	1.102881E+0	1.095768E+0	1.086126E+0	1.045879E+0	1.123899E+0	1.087482E+0	1.169150E+0	1.185475E+0	1.127544E+0	1.122727E+0	1.111157E+0	1.177307E+0	1.082693E+0	1.099853E+0	1.039453E+0	1.133038E+0	1.119080E+0	1.144675E+0	1.178540E+0	1.120096E+0	1.052667E+0	1.155706E+0	1.057121E+0	1.151436E+0	1.121169E+0	1.100933E+0	1.096790E+0	1.070534E+0	1.091112E+0	1.072858E+0	1.084354E+0	1.144378E+0	1.140474E+0	1.055843E+0	1.059553E+0	1.046041E+0	1.191620E+0	1.106504E+0	1.118595E+0	1.150644E+0	1.119490E+0	1.091746E+0	1.139428E+0	1.167318E+0	1.108499E+0	1.185117E+0	1.133300E+0	1.144204E+0	1.002861E+0	1.169164E+0	1.181563E+0	1.084730E+0	1.176681E+0	1.128993E+0	1.125395E+0	1.077522E+0	1.134082E+0	1.119664E+0	1.110286E+0	1.161146E+0	1.076983E+0	1.056609E+0	1.096288E+0	1.105023E+0	1.102100E+0	1.090637E+0	1.041701E+0	1.119709E+0	1.112363E+0	1.156578E+0	1.165516E+0	1.121015E+0	1.099933E+0	1.075082E+0	1.138703E+0	1.095149E+0	1.106155E+0	1.128532E+0	1.086128E+0	1.114847E+0	1.102441E+0	1.113470E+0	1.124773E+0	1.129643E+0	1.194167E+0	1.060892E+0	1.145876E+0	1.096876E+0	1.076270E+0	1.027643E+0	1.137994E+0	1.066647E+0	1.121479E+0	1.139257E+0	1.114522E+0	1.075346E+0	1.055958E+0	1.152244E+0	1.074110E+0	1.034172E+0	1.117762E+0	1.142716E+0	1.149523E+0	1.116032E+0	1.167397E+0	1.079129E+0	1.126046E+0	1.168805E+0	1.107766E+0	1.120579E+0	1.147911E+0	1.184532E+0	1.102098E+0	1.154651E+0	1.080080E+0	1.062116E+0	1.187111E+0	1.164275E+0	1.112704E+0	1.045004E+0	1.043046E+0	1.125763E+0	1.119662E+0	1.131693E+0	1.084362E+0	1.098586E+0	1.103349E+0	1.117447E+0	1.088870E+0	1.177904E+0	1.103505E+0	1.184185E+0	1.211012E+0	1.112115E+0	1.103135E+0	1.138640E+0	1.135435E+0	1.144444E+0	1.119289E+0	1.207951E+0
5.485390E+2	1.563925E+0	1.578928E+0	1.572200E+0	1.614031E+0	1.585283E+0	1.608937E+0	1.601289E+0	1.547500E+0	1.474061E+0	1.504203E+0	1.631736E+0	1.563440E+0	1.537907E+0	1.618574E+0	1.644477E+0	1.575190E+0	1.531393E+0	1.537170E+0	1.584951E+0	1.550098E+0	1.519757E+0	1.565528E+0	1.594860E+0	1.453625E+0	1.526304E+0	1.515836E+0	1.626071E+0	1.494863E+0	1.538564E+0	1.625094E+0	1.598159E+0	1.592603E+0	1.595937E+0	1.589116E+0	1.490945E+0	1.616546E+0	1.574295E+0	1.524090E+0	1.523614E+0	1.554879E+0	1.576610E+0	1.567298E+0	1.652884E+0	1.545711E+0	1.531871E+0	1.610219E+0	1.614949E+0	1.695082E+0	1.534217E+0	1.606235E+0	1.632473E+0	1.591695E+0	1.426788E+0	1.554545E+0	1.597923E+0	1.602952E+0	1.566245E+0	1.498002E+0	1.557486E+0	1.572709E+0	1.564683E+0	1.588348E+0	1.611906E+0	1.447440E+0	1.527277E+0	1.609477E+0	1.536286E+0	1.492302E+0	1.485050E+0	1.600078E+0	1.528397E+0	1.640961E+0	1.506211E+0	1.470369E+0	1.569778E+0	1.511087E+0	1.588417E+0	1.498543E+0	1.529913E+0	1.569963E+0	1.522014E+0	1.602052E+0	1.632101E+0	1.564383E+0	1.520720E+0	1.547943E+0	1.557132E+0	1.527305E+0	1.545524E+0	1.509822E+0	1.576940E+0	1.575761E+0	1.528594E+0	1.618071E+0	1.610817E+0	1.559785E+0	1.515255E+0	1.540404E+0	1.556072E+0	1.519040E+0	1.437007E+0	1.569683E+0	1.525559E+0	1.605034E+0	1.600930E+0	1.512594E+0	1.471624E+0	1.643892E+0	1.578565E+0	1.549680E+0	1.457242E+0	1.555357E+0	1.486381E+0	1.428856E+0	1.564739E+0	1.504729E+0	1.519528E+0	1.555561E+0	1.599896E+0	1.527153E+0	1.616770E+0	1.535862E+0	1.488543E+0	1.491654E+0	1.602792E+0	1.571357E+0	1.517639E+0	1.601067E+0	1.636632E+0	1.484570E+0	1.531765E+0	1.532238E+0	1.437454E+0	1.577144E+0	1.451586E+0	1.507781E+0	1.382277E+0	1.601542E+0	1.584266E+0	1.548434E+0	1.559765E+0	1.588452E+0	1.501611E+0	1.622634E+0	1.510724E+0	1.497535E+0	1.513862E+0	1.499154E+0	1.487216E+0	1.490080E+0	1.524372E+0	1.474608E+0	1.553282E+0	1.596422E+0	1.555017E+0	1.561040E+0	1.634245E+0	1.494772E+0	1.609765E+0	1.566538E+0	1.592986E+0	1.557125E+0	1.584042E+0	1.700272E+0
5.490320E+2	1.611024E+0	1.632023E+0	1.735826E+0	1.670409E+0	1.734787E+0	1.676837E+0	1.651166E+0	1.697593E+0	1.588281E+0	1.694669E+0	1.806590E+0	1.688599E+0	1.650667E+0	1.744931E+0	1.758892E+0	1.681462E+0	1.717311E+0	1.692556E+0	1.701539E+0	1.710018E+0	1.656917E+0	1.708120E+0	1.662405E+0	1.635043E+0	1.689141E+0	1.636064E+0	1.653928E+0	1.644692E+0	1.697671E+0	1.672392E+0	1.743578E+0	1.699719E+0	1.757639E+0	1.742635E+0	1.626572E+0	1.646319E+0	1.702826E+0	1.702442E+0	1.747823E+0	1.686633E+0	1.717921E+0	1.731522E+0	1.735642E+0	1.803366E+0	1.619361E+0	1.753185E+0	1.652796E+0	1.718662E+0	1.717649E+0	1.669743E+0	1.774187E+0	1.585627E+0	1.576876E+0	1.651134E+0	1.675394E+0	1.711047E+0	1.667618E+0	1.683367E+0	1.667218E+0	1.692403E+0	1.711323E+0	1.726348E+0	1.747194E+0	1.712300E+0	1.663345E+0	1.692896E+0	1.642422E+0	1.713170E+0	1.695547E+0	1.589920E+0	1.727094E+0	1.633383E+0	1.564469E+0	1.687192E+0	1.754106E+0	1.682754E+0	1.685735E+0	1.681648E+0	1.689254E+0	1.686928E+0	1.635609E+0	1.733471E+0	1.723920E+0	1.714272E+0	1.621006E+0	1.711261E+0	1.701164E+0	1.638203E+0	1.746157E+0	1.625890E+0	1.617071E+0	1.567608E+0	1.642414E+0	1.686347E+0	1.805405E+0	1.709529E+0	1.624215E+0	1.678842E+0	1.539040E+0	1.713042E+0	1.656686E+0	1.633281E+0	1.688671E+0	1.696820E+0	1.700552E+0	1.773335E+0	1.742594E+0	1.686889E+0	1.738574E+0	1.672276E+0	1.803479E+0	1.631922E+0	1.648521E+0	1.613713E+0	1.688774E+0	1.635939E+0	1.624691E+0	1.725217E+0	1.619173E+0	1.628457E+0	1.718421E+0	1.637619E+0	1.619958E+0	1.556970E+0	1.722193E+0	1.762031E+0	1.758474E+0	1.638377E+0	1.709210E+0	1.669076E+0	1.623734E+0	1.535613E+0	1.643062E+0	1.686907E+0	1.681772E+0	1.569476E+0	1.573212E+0	1.688566E+0	1.701483E+0	1.711004E+0	1.684577E+0	1.688831E+0	1.634061E+0	1.609831E+0	1.727075E+0	1.649709E+0	1.615630E+0	1.652224E+0	1.682058E+0	1.685344E+0	1.613246E+0	1.613213E+0	1.676750E+0	1.654408E+0	1.673181E+0	1.644889E+0	1.752582E+0	1.560874E+0	1.667651E+0	1.762837E+0	1.632652E+0	1.598062E+0	1.714811E+0	1.573560E+0
5.495320E+2	1.421126E+0	1.406598E+0	1.472804E+0	1.403516E+0	1.431508E+0	1.386888E+0	1.267991E+0	1.441502E+0	1.311636E+0	1.415236E+0	1.410721E+0	1.392116E+0	1.444873E+0	1.482193E+0	1.410494E+0	1.420801E+0	1.440729E+0	1.439771E+0	1.424093E+0	1.408046E+0	1.417054E+0	1.484329E+0	1.427647E+0	1.389621E+0	1.515297E+0	1.375030E+0	1.401960E+0	1.449968E+0	1.394997E+0	1.390016E+0	1.417659E+0	1.459334E+0	1.420194E+0	1.446335E+0	1.386193E+0	1.389654E+0	1.365878E+0	1.445335E+0	1.417865E+0	1.403911E+0	1.306040E+0	1.410051E+0	1.415532E+0	1.500761E+0	1.329802E+0	1.419318E+0	1.375109E+0	1.519662E+0	1.356000E+0	1.466114E+0	1.533725E+0	1.365850E+0	1.445699E+0	1.356301E+0	1.354992E+0	1.458555E+0	1.458796E+0	1.412216E+0	1.379093E+0	1.333876E+0	1.465960E+0	1.478475E+0	1.380074E+0	1.389648E+0	1.283416E+0	1.365581E+0	1.476510E+0	1.382878E+0	1.356897E+0	1.537014E+0	1.394879E+0	1.449325E+0	1.389682E+0	1.472526E+0	1.397806E+0	1.439500E+0	1.357291E+0	1.424537E+0	1.442965E+0	1.454616E+0	1.392176E+0	1.477611E+0	1.442609E+0	1.548289E+0	1.338682E+0	1.442494E+0	1.373742E+0	1.436600E+0	1.439585E+0	1.404797E+0	1.414538E+0	1.416902E+0	1.420082E+0	1.413962E+0	1.447548E+0	1.354440E+0	1.383797E+0	1.405201E+0	1.427394E+0	1.489236E+0	1.403629E+0	1.328568E+0	1.399631E+0	1.336955E+0	1.410679E+0	1.329854E+0	1.393068E+0	1.440494E+0	1.410525E+0	1.436206E+0	1.383993E+0	1.373855E+0	1.375805E+0	1.441898E+0	1.393151E+0	1.398494E+0	1.340409E+0	1.384733E+0	1.459670E+0	1.440091E+0	1.439821E+0	1.496483E+0	1.448193E+0	1.399306E+0	1.432183E+0	1.466599E+0	1.355473E+0	1.428958E+0	1.506489E+0	1.410677E+0	1.424940E+0	1.461981E+0	1.405518E+0	1.420829E+0	1.351761E+0	1.460619E+0	1.383712E+0	1.403752E+0	1.362705E+0	1.484756E+0	1.407570E+0	1.518937E+0	1.381105E+0	1.408159E+0	1.417055E+0	1.471153E+0	1.337405E+0	1.431832E+0	1.436475E+0	1.412517E+0	1.458148E+0	1.299032E+0	1.473646E+0	1.425301E+0	1.386345E+0	1.422746E+0	1.472456E+0	1.435863E+0	1.443483E+0	1.399999E+0	1.380902E+0	1.361979E+0	1.356485E+0	1.684046E+0
5.500160E+2	1.198632E+0	1.189199E+0	1.309195E+0	1.276971E+0	1.237498E+0	1.277074E+0	1.272767E+0	1.239804E+0	1.237491E+0	1.319612E+0	1.233810E+0	1.278886E+0	1.342066E+0	1.368434E+0	1.288922E+0	1.292182E+0	1.288436E+0	1.342417E+0	1.254184E+0	1.266801E+0	1.235871E+0	1.233831E+0	1.257498E+0	1.186629E+0	1.298988E+0	1.288184E+0	1.270796E+0	1.209594E+0	1.318877E+0	1.306179E+0	1.238606E+0	1.231319E+0	1.245275E+0	1.244424E+0	1.257907E+0	1.260844E+0	1.264713E+0	1.293040E+0	1.304368E+0	1.326352E+0	1.170003E+0	1.258770E+0	1.314195E+0	1.226205E+0	1.231156E+0	1.333524E+0	1.249151E+0	1.292797E+0	1.225969E+0	1.306139E+0	1.353380E+0	1.237863E+0	1.215137E+0	1.337439E+0	1.324205E+0	1.317877E+0	1.224303E+0	1.183392E+0	1.251529E+0	1.243366E+0	1.346422E+0	1.342932E+0	1.244858E+0	1.116633E+0	1.185512E+0	1.233612E+0	1.319204E+0	1.344247E+0	1.244262E+0	1.306655E+0	1.317293E+0	1.283930E+0	1.317769E+0	1.338114E+0	1.250056E+0	1.298605E+0	1.293726E+0	1.331597E+0	1.237814E+0	1.235748E+0	1.242245E+0	1.270851E+0	1.281370E+0	1.287728E+0	1.237314E+0	1.171961E+0	1.273540E+0	1.276370E+0	1.243868E+0	1.224968E+0	1.143328E+0	1.270132E+0	1.189591E+0	1.366190E+0	1.332045E+0	1.344121E+0	1.223508E+0	1.216212E+0	1.297667E+0	1.184637E+0	1.217982E+0	1.238953E+0	1.276542E+0	1.204224E+0	1.242313E+0	1.247469E+0	1.295125E+0	1.304148E+0	1.267723E+0	1.308052E+0	1.276465E+0	1.297142E+0	1.225683E+0	1.224099E+0	1.256947E+0	1.330841E+0	1.206844E+0	1.269381E+0	1.252857E+0	1.274987E+0	1.296720E+0	1.316343E+0	1.273505E+0	1.234172E+0	1.209258E+0	1.278420E+0	1.248434E+0	1.262758E+0	1.323162E+0	1.256104E+0	1.292314E+0	1.309743E+0	1.240582E+0	1.231395E+0	1.262072E+0	1.254465E+0	1.191287E+0	1.255456E+0	1.300679E+0	1.293371E+0	1.217779E+0	1.294871E+0	1.229609E+0	1.230070E+0	1.306388E+0	1.364744E+0	1.275340E+0	1.204087E+0	1.352179E+0	1.311839E+0	1.271603E+0	1.227091E+0	1.340997E+0	1.325774E+0	1.314069E+0	1.286004E+0	1.289837E+0	1.203845E+0	1.282072E+0	1.317224E+0	1.150302E+0	1.219145E+0	1.256315E+0	1.318182E+0
5.504950E+2	1.636148E+0	1.537472E+0	1.604909E+0	1.612756E+0	1.666827E+0	1.594872E+0	1.589162E+0	1.548520E+0	1.572910E+0	1.502554E+0	1.533615E+0	1.532800E+0	1.588207E+0	1.610805E+0	1.597642E+0	1.650302E+0	1.619641E+0	1.657778E+0	1.620234E+0	1.636670E+0	1.596055E+0	1.555541E+0	1.565751E+0	1.531100E+0	1.520247E+0	1.589823E+0	1.508402E+0	1.511391E+0	1.456093E+0	1.510964E+0	1.580974E+0	1.540829E+0	1.442327E+0	1.655195E+0	1.523559E+0	1.538972E+0	1.595855E+0	1.658148E+0	1.532216E+0	1.530752E+0	1.518276E+0	1.592876E+0	1.633764E+0	1.595721E+0	1.510043E+0	1.584986E+0	1.597607E+0	1.617568E+0	1.556949E+0	1.506486E+0	1.603848E+0	1.535137E+0	1.544022E+0	1.598111E+0	1.530510E+0	1.626404E+0	1.461742E+0	1.568656E+0	1.553160E+0	1.574297E+0	1.579052E+0	1.503813E+0	1.478833E+0	1.558808E+0	1.457387E+0	1.570471E+0	1.524888E+0	1.574563E+0	1.615347E+0	1.611487E+0	1.511793E+0	1.535738E+0	1.522869E+0	1.647301E+0	1.563959E+0	1.486753E+0	1.533634E+0	1.658513E+0	1.518156E+0	1.610700E+0	1.500653E+0	1.552417E+0	1.562090E+0	1.641959E+0	1.522698E+0	1.507525E+0	1.637102E+0	1.539031E+0	1.518281E+0	1.563639E+0	1.425155E+0	1.567193E+0	1.507369E+0	1.619728E+0	1.515856E+0	1.507576E+0	1.517304E+0	1.522375E+0	1.508016E+0	1.584386E+0	1.483303E+0	1.597412E+0	1.541778E+0	1.717848E+0	1.516759E+0	1.453621E+0	1.516900E+0	1.557794E+0	1.509900E+0	1.641026E+0	1.502810E+0	1.565342E+0	1.528204E+0	1.510151E+0	1.471987E+0	1.543567E+0	1.568426E+0	1.596858E+0	1.534770E+0	1.531168E+0	1.538017E+0	1.622584E+0	1.653877E+0	1.497768E+0	1.580365E+0	1.592939E+0	1.534771E+0	1.559874E+0	1.551200E+0	1.547070E+0	1.547338E+0	1.564473E+0	1.452794E+0	1.566431E+0	1.554030E+0	1.553810E+0	1.525429E+0	1.581521E+0	1.624887E+0	1.551133E+0	1.483116E+0	1.523017E+0	1.466584E+0	1.480770E+0	1.591805E+0	1.569850E+0	1.530410E+0	1.527464E+0	1.523494E+0	1.578100E+0	1.469364E+0	1.491764E+0	1.572790E+0	1.507461E+0	1.509463E+0	1.498688E+0	1.626018E+0	1.568357E+0	1.584171E+0	1.586706E+0	1.576183E+0	1.499599E+0	1.438525E+0	1.610143E+0
5.510140E+2	1.855180E+0	1.822811E+0	1.860562E+0	1.827996E+0	1.716557E+0	1.839831E+0	1.726837E+0	1.877173E+0	1.768505E+0	1.932200E+0	1.831726E+0	1.859682E+0	1.835708E+0	1.896651E+0	1.893952E+0	1.899945E+0	1.827817E+0	1.825947E+0	2.002276E+0	1.898537E+0	1.804914E+0	1.788277E+0	1.765499E+0	1.726900E+0	1.810338E+0	1.873855E+0	1.895504E+0	1.819638E+0	1.740127E+0	1.794446E+0	1.760860E+0	1.860976E+0	1.898506E+0	1.807421E+0	1.741428E+0	1.917743E+0	1.919513E+0	1.833109E+0	1.883049E+0	1.817830E+0	1.773563E+0	1.831842E+0	1.838938E+0	1.853803E+0	1.759088E+0	1.744361E+0	1.683931E+0	1.837968E+0	1.817538E+0	1.718832E+0	1.817809E+0	1.823255E+0	1.807473E+0	1.815419E+0	1.753228E+0	1.978191E+0	1.793717E+0	1.807100E+0	1.863720E+0	1.785176E+0	1.939724E+0	1.734853E+0	1.752266E+0	1.765189E+0	1.668216E+0	1.738314E+0	1.842201E+0	1.839738E+0	1.762017E+0	1.864001E+0	1.871001E+0	1.784265E+0	1.798561E+0	1.884526E+0	1.904372E+0	1.656268E+0	1.800332E+0	1.857136E+0	1.893464E+0	1.829099E+0	1.790186E+0	1.903215E+0	1.793517E+0	1.856445E+0	1.848189E+0	1.816227E+0	1.768785E+0	1.756292E+0	1.886493E+0	1.756572E+0	1.728958E+0	1.819423E+0	1.865650E+0	1.869676E+0	1.812129E+0	1.823214E+0	1.714923E+0	1.801408E+0	1.784867E+0	1.847032E+0	1.794795E+0	1.729971E+0	1.786802E+0	1.799262E+0	1.851053E+0	1.837561E+0	1.800624E+0	1.831551E+0	1.729986E+0	1.806130E+0	1.765579E+0	1.812829E+0	1.677911E+0	1.712183E+0	1.760487E+0	1.804605E+0	1.805947E+0	1.883048E+0	1.722349E+0	1.753016E+0	1.851675E+0	1.834445E+0	1.787383E+0	1.710645E+0	1.797928E+0	1.769145E+0	1.876661E+0	1.924490E+0	1.871317E+0	1.795024E+0	1.903561E+0	1.752239E+0	1.749404E+0	1.862634E+0	1.892122E+0	1.764470E+0	1.810782E+0	1.843198E+0	1.766734E+0	1.850042E+0	1.913500E+0	1.833498E+0	1.743155E+0	1.806169E+0	1.808516E+0	1.918938E+0	1.718635E+0	1.853474E+0	1.900820E+0	1.797599E+0	1.785952E+0	1.770293E+0	1.826731E+0	1.861145E+0	1.801628E+0	1.804677E+0	1.845458E+0	1.825144E+0	1.834100E+0	1.890040E+0	1.854065E+0	1.969264E+0	1.660984E+0	2.073081E+0
5.514950E+2	1.566782E+0	1.472289E+0	1.483807E+0	1.621091E+0	1.554509E+0	1.629817E+0	1.563702E+0	1.612477E+0	1.552172E+0	1.571730E+0	1.585879E+0	1.586616E+0	1.517734E+0	1.566795E+0	1.596836E+0	1.613198E+0	1.505083E+0	1.492546E+0	1.657209E+0	1.580682E+0	1.591482E+0	1.561851E+0	1.605262E+0	1.520203E+0	1.543911E+0	1.519627E+0	1.554254E+0	1.538385E+0	1.557034E+0	1.516787E+0	1.569361E+0	1.512418E+0	1.549630E+0	1.508763E+0	1.637715E+0	1.562619E+0	1.509976E+0	1.652667E+0	1.494537E+0	1.478685E+0	1.509768E+0	1.595596E+0	1.653680E+0	1.580473E+0	1.581650E+0	1.535772E+0	1.555921E+0	1.556548E+0	1.573270E+0	1.501121E+0	1.542662E+0	1.495903E+0	1.489894E+0	1.541162E+0	1.464564E+0	1.569615E+0	1.494047E+0	1.447164E+0	1.534017E+0	1.550270E+0	1.565948E+0	1.531971E+0	1.612824E+0	1.506040E+0	1.519779E+0	1.514944E+0	1.543816E+0	1.550836E+0	1.436373E+0	1.596644E+0	1.640015E+0	1.565228E+0	1.500046E+0	1.595232E+0	1.590650E+0	1.590960E+0	1.536604E+0	1.600537E+0	1.507339E+0	1.573370E+0	1.548417E+0	1.672270E+0	1.545384E+0	1.548460E+0	1.532632E+0	1.464780E+0	1.548602E+0	1.563685E+0	1.569183E+0	1.506591E+0	1.557821E+0	1.572493E+0	1.580943E+0	1.554242E+0	1.561959E+0	1.557125E+0	1.457239E+0	1.527470E+0	1.547629E+0	1.577561E+0	1.504609E+0	1.466973E+0	1.576500E+0	1.568506E+0	1.463550E+0	1.487524E+0	1.523684E+0	1.558740E+0	1.510144E+0	1.576938E+0	1.432332E+0	1.501967E+0	1.514943E+0	1.488691E+0	1.618348E+0	1.472618E+0	1.504568E+0	1.531364E+0	1.488056E+0	1.546432E+0	1.541633E+0	1.549578E+0	1.568502E+0	1.446817E+0	1.552294E+0	1.578328E+0	1.611274E+0	1.545355E+0	1.652101E+0	1.540186E+0	1.634636E+0	1.556109E+0	1.488770E+0	1.575380E+0	1.499488E+0	1.514706E+0	1.476346E+0	1.500087E+0	1.529566E+0	1.516148E+0	1.516079E+0	1.532533E+0	1.563435E+0	1.619186E+0	1.589566E+0	1.434097E+0	1.571197E+0	1.588806E+0	1.496639E+0	1.534586E+0	1.475201E+0	1.513465E+0	1.521217E+0	1.536200E+0	1.505380E+0	1.528011E+0	1.566607E+0	1.569537E+0	1.566449E+0	1.514325E+0	1.611271E+0	1.550858E+0	1.492291E+0	1.466812E+0
5.520100E+2	1.184339E+0	1.180453E+0	1.190992E+0	1.172976E+0	1.228950E+0	1.179633E+0	1.166798E+0	1.187906E+0	1.179336E+0	1.174596E+0	1.243911E+0	1.154095E+0	1.254509E+0	1.148476E+0	1.196581E+0	1.161064E+0	1.123829E+0	1.148568E+0	1.287664E+0	1.222148E+0	1.158682E+0	1.122226E+0	1.165706E+0	1.232479E+0	1.161581E+0	1.241540E+0	1.163000E+0	1.100254E+0	1.149110E+0	1.181992E+0	1.182968E+0	1.119591E+0	1.227750E+0	1.181284E+0	1.152477E+0	1.182990E+0	1.131141E+0	1.117406E+0	1.130052E+0	1.132502E+0	1.162379E+0	1.203812E+0	1.248258E+0	1.196988E+0	1.144182E+0	1.123931E+0	1.138198E+0	1.242464E+0	1.150241E+0	1.198295E+0	1.191326E+0	1.116372E+0	1.194643E+0	1.172913E+0	1.128155E+0	1.248582E+0	1.118915E+0	1.209409E+0	1.145956E+0	1.204519E+0	1.140884E+0	1.171449E+0	1.113964E+0	1.199739E+0	1.174404E+0	1.193645E+0	1.123951E+0	1.141655E+0	1.086031E+0	1.122036E+0	1.219019E+0	1.141365E+0	1.130308E+0	1.194561E+0	1.147677E+0	1.138721E+0	1.176668E+0	1.211764E+0	1.137954E+0	1.106687E+0	1.100544E+0	1.134304E+0	1.241106E+0	1.230930E+0	1.249973E+0	1.121480E+0	1.201427E+0	1.159663E+0	1.214799E+0	1.138867E+0	1.119972E+0	1.108069E+0	1.114054E+0	1.114923E+0	1.269856E+0	1.155037E+0	1.221282E+0	1.177360E+0	1.146595E+0	1.144317E+0	1.143258E+0	1.086560E+0	1.177035E+0	1.159354E+0	1.106438E+0	1.152231E+0	1.192235E+0	1.146816E+0	1.233140E+0	1.179371E+0	1.146445E+0	1.148779E+0	1.099610E+0	1.149191E+0	1.156638E+0	1.118455E+0	1.151507E+0	1.219286E+0	1.228624E+0	1.204032E+0	1.196996E+0	1.204179E+0	1.145351E+0	1.127877E+0	1.230354E+0	1.176676E+0	1.149891E+0	1.154346E+0	1.195357E+0	1.097341E+0	1.209434E+0	1.116393E+0	1.125846E+0	1.137589E+0	1.239839E+0	1.169166E+0	1.099918E+0	1.150073E+0	1.184342E+0	1.226529E+0	1.168585E+0	1.203201E+0	1.161637E+0	1.130038E+0	1.159761E+0	1.223052E+0	1.202072E+0	1.184163E+0	1.203451E+0	1.099209E+0	1.153271E+0	1.144952E+0	1.105072E+0	1.139604E+0	1.145259E+0	1.136066E+0	1.141090E+0	1.166803E+0	1.176910E+0	1.219110E+0	1.161488E+0	1.101737E+0	1.108006E+0	1.146759E+0
5.525090E+2	9.334541E-1	8.917317E-1	9.444727E-1	8.994110E-1	8.370397E-1	1.002623E+0	9.864307E-1	8.890792E-1	8.866241E-1	9.220788E-1	9.734368E-1	1.000242E+0	8.930275E-1	9.255921E-1	9.507294E-1	9.461343E-1	8.913451E-1	9.092789E-1	9.263093E-1	9.259147E-1	9.124671E-1	9.501785E-1	9.425143E-1	9.436346E-1	8.923905E-1	9.185125E-1	8.906764E-1	9.293811E-1	9.002000E-1	8.699646E-1	9.073818E-1	8.792685E-1	9.240346E-1	9.302888E-1	8.884587E-1	9.257530E-1	9.210581E-1	9.447046E-1	8.621513E-1	9.584974E-1	8.693685E-1	9.690692E-1	9.193440E-1	9.689415E-1	9.815320E-1	9.656759E-1	8.660589E-1	9.413874E-1	8.783091E-1	9.485227E-1	9.206055E-1	9.448244E-1	8.827370E-1	9.144444E-1	9.850997E-1	9.584710E-1	1.008172E+0	9.434376E-1	9.526283E-1	9.214863E-1	8.812574E-1	9.285408E-1	9.530570E-1	9.738021E-1	8.852564E-1	9.575818E-1	9.893919E-1	1.008582E+0	8.652870E-1	9.473431E-1	9.753074E-1	9.429307E-1	8.414140E-1	9.427980E-1	1.029456E+0	8.738103E-1	9.016619E-1	1.005545E+0	9.175605E-1	9.342346E-1	8.869423E-1	9.669984E-1	9.650720E-1	9.662432E-1	8.890132E-1	9.659511E-1	9.967470E-1	9.099408E-1	8.827297E-1	9.382656E-1	9.375156E-1	8.700077E-1	9.975122E-1	9.152384E-1	9.894895E-1	9.699674E-1	9.398368E-1	9.103539E-1	8.921608E-1	9.713201E-1	8.619421E-1	8.958949E-1	9.268551E-1	9.373449E-1	8.495913E-1	9.093720E-1	8.721068E-1	9.150007E-1	9.516360E-1	9.628910E-1	9.297659E-1	9.072761E-1	8.741940E-1	9.289002E-1	9.950837E-1	9.739334E-1	9.172449E-1	9.530717E-1	8.926071E-1	9.543734E-1	9.269455E-1	9.028134E-1	9.533829E-1	8.944112E-1	9.630354E-1	9.760309E-1	9.407430E-1	9.041280E-1	9.560828E-1	9.686709E-1	9.533789E-1	8.855351E-1	9.393426E-1	9.453801E-1	8.925763E-1	9.482707E-1	9.039402E-1	8.491399E-1	9.550247E-1	9.097467E-1	9.679397E-1	9.086861E-1	9.272644E-1	9.074766E-1	9.140707E-1	8.840868E-1	9.604059E-1	1.017270E+0	9.022868E-1	9.019625E-1	9.019275E-1	8.592641E-1	9.079675E-1	9.391010E-1	9.434169E-1	9.386308E-1	9.027762E-1	9.398467E-1	9.292685E-1	9.271295E-1	8.714936E-1	8.641254E-1	9.739340E-1	9.192277E-1
5.530090E+2	8.287380E-1	8.821852E-1	8.654728E-1	9.872088E-1	9.004319E-1	8.717279E-1	9.532864E-1	9.456527E-1	8.763992E-1	8.659139E-1	8.997055E-1	8.861026E-1	8.837445E-1	9.301978E-1	9.141025E-1	9.585668E-1	8.738813E-1	9.463160E-1	9.233088E-1	9.453489E-1	9.306191E-1	8.634643E-1	9.429347E-1	9.053697E-1	8.587188E-1	9.468557E-1	9.166567E-1	9.241782E-1	8.860624E-1	9.281439E-1	9.312963E-1	9.128249E-1	8.828827E-1	9.687469E-1	9.005065E-1	9.641042E-1	8.756391E-1	8.683059E-1	9.012101E-1	9.009446E-1	8.684973E-1	9.026310E-1	9.300008E-1	9.429239E-1	9.490451E-1	9.307068E-1	9.155262E-1	9.200172E-1	9.051419E-1	8.759148E-1	8.843700E-1	8.391131E-1	9.217685E-1	9.208423E-1	9.295629E-1	9.623519E-1	9.161408E-1	9.737131E-1	8.984491E-1	8.785954E-1	9.206854E-1	9.720628E-1	8.875098E-1	9.437628E-1	8.473977E-1	9.665483E-1	9.304414E-1	9.977173E-1	8.372089E-1	9.008884E-1	9.447877E-1	9.183486E-1	8.522284E-1	9.512518E-1	9.053039E-1	8.657929E-1	9.326025E-1	8.884087E-1	9.311672E-1	8.801453E-1	8.500993E-1	9.832471E-1	8.964220E-1	8.959123E-1	8.715613E-1	9.197832E-1	8.877273E-1	9.278722E-1	9.238836E-1	9.039488E-1	9.820982E-1	8.495416E-1	9.046489E-1	8.875164E-1	9.369664E-1	9.612057E-1	8.597373E-1	9.398499E-1	9.122853E-1	1.016843E+0	9.059465E-1	8.582493E-1	9.210139E-1	9.329149E-1	8.896605E-1	8.724227E-1	8.903536E-1	9.685637E-1	8.459580E-1	9.080431E-1	9.241593E-1	8.882340E-1	8.632419E-1	8.830885E-1	9.302615E-1	9.266307E-1	8.693926E-1	1.002121E+0	8.682483E-1	8.590567E-1	9.259732E-1	8.789218E-1	8.786082E-1	8.275661E-1	9.007437E-1	9.169976E-1	9.436737E-1	9.297747E-1	9.133628E-1	8.895942E-1	8.947546E-1	8.797616E-1	8.893576E-1	9.502599E-1	9.295103E-1	9.172562E-1	9.128964E-1	9.359774E-1	9.387698E-1	8.906687E-1	9.695421E-1	9.168398E-1	9.432803E-1	8.514294E-1	9.086221E-1	9.129398E-1	9.100939E-1	8.755201E-1	9.187303E-1	8.652732E-1	8.344168E-1	9.813207E-1	9.534458E-1	9.200590E-1	9.378936E-1	9.295896E-1	9.628933E-1	8.616488E-1	8.761569E-1	9.287004E-1	9.988592E-1	8.993449E-1	8.865705E-1	9.751239E-1
5.534880E+2	9.971229E-1	1.079096E+0	1.018660E+0	1.125847E+0	1.040036E+0	1.083348E+0	1.073201E+0	1.100518E+0	9.761780E-1	1.044155E+0	1.055319E+0	1.038473E+0	1.025975E+0	1.049509E+0	1.132620E+0	1.059446E+0	9.921983E-1	1.013478E+0	1.068320E+0	1.064275E+0	1.073097E+0	1.083894E+0	1.121047E+0	1.076012E+0	9.726537E-1	1.092917E+0	1.025414E+0	1.044630E+0	9.664125E-1	1.042655E+0	1.067164E+0	1.039716E+0	1.081426E+0	1.024499E+0	1.080764E+0	1.105908E+0	1.063021E+0	1.049589E+0	1.078199E+0	1.000197E+0	9.895099E-1	1.034663E+0	1.030418E+0	1.071653E+0	1.095242E+0	1.086802E+0	1.073768E+0	1.039169E+0	1.076682E+0	1.025294E+0	1.092688E+0	1.058480E+0	1.057626E+0	9.870523E-1	1.042954E+0	1.030631E+0	1.044203E+0	1.055323E+0	1.029614E+0	1.056487E+0	1.065698E+0	1.008677E+0	1.030677E+0	1.102560E+0	1.063201E+0	1.005619E+0	1.065594E+0	1.090474E+0	1.009792E+0	1.137911E+0	1.067812E+0	1.073302E+0	1.024707E+0	1.050089E+0	1.107138E+0	1.080124E+0	1.088938E+0	1.054815E+0	1.063915E+0	1.065222E+0	9.646529E-1	1.139457E+0	1.007081E+0	1.085469E+0	1.021413E+0	1.089416E+0	1.030710E+0	1.076387E+0	1.042427E+0	9.633237E-1	9.703207E-1	1.102712E+0	1.041875E+0	1.103758E+0	1.073907E+0	1.018848E+0	1.034524E+0	1.008134E+0	1.036045E+0	1.021093E+0	1.042772E+0	1.018105E+0	1.049303E+0	1.050655E+0	1.039696E+0	1.064676E+0	9.926262E-1	9.738711E-1	1.066732E+0	1.067075E+0	1.001656E+0	1.034441E+0	1.054297E+0	1.091259E+0	1.024883E+0	1.085516E+0	1.031841E+0	1.082663E+0	1.075599E+0	9.616822E-1	1.095564E+0	1.033250E+0	1.073455E+0	1.035663E+0	1.044998E+0	1.102530E+0	1.027623E+0	1.017224E+0	1.079779E+0	9.815362E-1	1.067015E+0	1.118038E+0	1.017337E+0	1.071135E+0	9.998133E-1	1.052577E+0	1.018236E+0	1.103319E+0	1.085190E+0	1.015476E+0	9.788928E-1	1.097299E+0	9.926767E-1	1.026559E+0	9.847597E-1	1.132903E+0	1.016852E+0	1.069304E+0	1.068579E+0	1.088623E+0	1.010526E+0	1.024478E+0	1.044807E+0	9.797202E-1	1.064617E+0	1.035448E+0	1.021387E+0	1.010988E+0	1.028734E+0	1.062851E+0	1.030368E+0	1.016957E+0	1.065005E+0	1.005667E+0
5.540180E+2	1.207453E+0	1.238259E+0	1.211778E+0	1.152325E+0	1.164829E+0	1.221070E+0	1.229529E+0	1.201743E+0	1.213734E+0	1.174134E+0	1.294887E+0	1.134547E+0	1.187695E+0	1.133869E+0	1.175009E+0	1.132749E+0	1.156781E+0	1.244670E+0	1.240226E+0	1.294749E+0	1.228261E+0	1.189403E+0	1.246408E+0	1.221687E+0	1.133191E+0	1.192755E+0	1.179112E+0	1.162210E+0	1.232234E+0	1.170929E+0	1.195300E+0	1.215308E+0	1.215729E+0	1.199744E+0	1.211288E+0	1.224089E+0	1.196949E+0	1.178922E+0	1.289868E+0	1.159973E+0	1.235541E+0	1.219250E+0	1.202222E+0	1.255186E+0	1.190052E+0	1.171650E+0	1.167243E+0	1.326225E+0	1.151835E+0	1.208208E+0	1.208507E+0	1.171346E+0	1.162001E+0	1.278608E+0	1.178829E+0	1.197024E+0	1.174800E+0	1.198820E+0	1.175486E+0	1.217611E+0	1.233760E+0	1.226981E+0	1.159749E+0	1.250571E+0	1.250939E+0	1.231331E+0	1.214542E+0	1.270423E+0	1.207758E+0	1.217572E+0	1.223211E+0	1.244589E+0	1.169274E+0	1.216222E+0	1.203803E+0	1.143236E+0	1.175228E+0	1.189257E+0	1.228570E+0	1.237468E+0	1.214627E+0	1.142805E+0	1.240096E+0	1.243961E+0	1.198820E+0	1.091415E+0	1.212492E+0	1.195786E+0	1.225448E+0	1.157282E+0	1.140880E+0	1.187820E+0	1.209623E+0	1.189927E+0	1.218650E+0	1.135584E+0	1.143526E+0	1.209219E+0	1.202260E+0	1.244091E+0	1.167978E+0	1.173916E+0	1.242443E+0	1.166789E+0	1.177693E+0	1.183282E+0	1.250089E+0	1.202379E+0	1.112860E+0	1.218365E+0	1.129310E+0	1.218230E+0	1.160907E+0	1.269806E+0	1.219993E+0	1.205554E+0	1.240016E+0	1.209266E+0	1.107336E+0	1.254343E+0	1.230190E+0	1.238195E+0	1.197097E+0	1.154420E+0	1.198195E+0	1.144106E+0	1.197870E+0	1.143000E+0	1.212494E+0	1.190943E+0	1.234181E+0	1.264307E+0	1.195169E+0	1.145396E+0	1.211589E+0	1.100093E+0	1.214771E+0	1.186992E+0	1.209166E+0	1.250922E+0	1.204735E+0	1.241764E+0	1.208317E+0	1.177668E+0	1.144076E+0	1.125072E+0	1.289775E+0	1.261898E+0	1.208443E+0	1.138016E+0	1.188711E+0	1.213152E+0	1.175023E+0	1.282415E+0	1.149251E+0	1.332771E+0	1.188277E+0	1.200300E+0	1.210159E+0	1.228034E+0	1.157963E+0	1.243524E+0	1.169576E+0	1.239164E+0
5.550080E+2	9.886096E-1	1.084866E+0	1.104290E+0	1.020177E+0	1.109324E+0	1.132609E+0	1.177817E+0	1.107815E+0	1.129231E+0	1.090897E+0	1.096134E+0	1.042332E+0	1.119494E+0	1.141712E+0	1.154608E+0	1.129446E+0	1.116059E+0	1.049208E+0	1.148557E+0	1.132939E+0	1.180640E+0	1.033731E+0	1.099316E+0	1.073854E+0	1.127710E+0	1.161124E+0	1.086671E+0	1.077656E+0	1.071821E+0	9.948676E-1	1.078276E+0	1.102862E+0	1.009086E+0	1.091753E+0	1.057525E+0	1.106807E+0	1.019259E+0	1.103782E+0	1.120593E+0	1.091833E+0	1.140858E+0	1.008863E+0	1.050765E+0	1.123034E+0	1.108756E+0	1.084993E+0	1.107000E+0	1.149292E+0	1.117266E+0	1.061572E+0	1.136409E+0	1.080696E+0	1.102066E+0	1.080491E+0	1.089726E+0	1.028077E+0	1.076885E+0	1.115048E+0	1.098439E+0	1.120345E+0	1.147161E+0	1.089550E+0	1.074323E+0	1.076633E+0	1.140212E+0	9.981114E-1	1.036844E+0	1.073679E+0	1.016310E+0	1.107632E+0	1.116392E+0	1.145611E+0	1.020099E+0	1.105897E+0	1.090955E+0	1.047484E+0	1.055208E+0	1.123364E+0	9.974111E-1	1.083966E+0	1.061344E+0	1.055545E+0	1.091890E+0	1.158363E+0	1.109955E+0	9.982801E-1	1.061322E+0	1.025384E+0	1.052806E+0	1.049227E+0	1.103802E+0	1.008626E+0	1.109143E+0	1.148588E+0	1.069117E+0	1.128396E+0	1.031751E+0	1.056404E+0	1.044947E+0	1.132587E+0	1.076889E+0	1.087355E+0	1.120449E+0	1.082624E+0	1.110938E+0	1.007388E+0	1.110271E+0	1.111383E+0	1.131415E+0	1.089060E+0	1.069026E+0	1.024382E+0	1.034434E+0	1.007972E+0	1.212050E+0	1.056881E+0	1.009630E+0	1.108645E+0	1.086293E+0	1.072327E+0	1.078896E+0	1.126824E+0	1.065437E+0	1.060438E+0	1.043969E+0	1.071416E+0	1.078549E+0	1.087780E+0	1.124532E+0	1.074811E+0	1.113842E+0	1.039118E+0	1.083940E+0	1.156851E+0	1.141744E+0	1.120818E+0	1.038405E+0	1.159686E+0	1.210687E+0	1.065441E+0	1.054522E+0	1.028930E+0	1.082692E+0	1.022078E+0	1.089682E+0	1.070400E+0	1.065736E+0	1.154136E+0	1.073150E+0	1.033667E+0	1.068317E+0	1.064243E+0	9.960093E-1	1.062699E+0	1.036062E+0	1.103863E+0	1.095696E+0	1.002524E+0	1.173696E+0	1.059290E+0	1.085827E+0	1.122203E+0	1.053948E+0	1.138475E+0
5.560410E+2	9.115975E-1	9.112884E-1	9.754290E-1	1.031554E+0	9.279116E-1	1.001293E+0	1.021717E+0	9.586615E-1	9.488729E-1	9.888778E-1	9.890801E-1	9.167511E-1	9.480136E-1	9.580394E-1	9.759053E-1	9.701627E-1	9.642014E-1	9.315112E-1	9.159260E-1	9.188766E-1	9.497672E-1	1.006738E+0	9.744398E-1	9.108598E-1	9.394930E-1	9.244814E-1	8.933263E-1	9.686639E-1	1.036010E+0	9.189743E-1	9.741350E-1	1.000967E+0	9.511463E-1	8.984876E-1	9.073870E-1	9.579904E-1	9.056688E-1	9.251606E-1	9.753446E-1	8.819263E-1	9.401235E-1	9.894232E-1	9.909623E-1	9.747958E-1	9.271700E-1	9.177111E-1	9.133495E-1	9.775360E-1	9.396804E-1	9.652233E-1	9.406150E-1	8.672579E-1	9.294291E-1	8.820138E-1	9.588734E-1	9.468445E-1	9.534602E-1	8.904636E-1	9.351655E-1	9.434167E-1	9.341773E-1	9.337746E-1	9.335669E-1	9.396390E-1	9.053868E-1	9.193950E-1	9.136219E-1	9.597353E-1	9.030621E-1	9.265784E-1	9.090186E-1	9.812469E-1	9.525893E-1	9.778284E-1	1.041767E+0	9.672596E-1	9.528748E-1	9.499358E-1	9.218656E-1	9.933499E-1	9.287918E-1	9.858860E-1	9.609963E-1	1.017295E+0	9.320176E-1	9.353858E-1	9.734573E-1	9.181801E-1	9.142752E-1	9.104079E-1	8.811948E-1	9.318035E-1	9.500052E-1	9.485399E-1	9.540153E-1	9.705051E-1	9.172843E-1	8.807620E-1	9.399561E-1	1.030236E+0	9.058185E-1	9.587912E-1	9.012910E-1	9.534885E-1	9.733741E-1	8.705521E-1	9.571330E-1	9.401000E-1	9.307241E-1	9.098086E-1	9.562973E-1	8.737312E-1	9.249349E-1	9.036181E-1	9.196166E-1	1.011442E+0	9.254687E-1	9.524784E-1	1.005328E+0	9.744869E-1	9.180824E-1	9.909409E-1	8.730532E-1	9.619468E-1	9.185841E-1	9.899281E-1	9.793585E-1	9.542681E-1	1.000561E+0	9.463001E-1	9.068890E-1	1.010864E+0	9.058682E-1	8.720246E-1	9.017270E-1	9.508788E-1	9.795060E-1	1.003440E+0	9.193043E-1	9.297972E-1	9.429655E-1	9.087690E-1	8.747727E-1	9.637637E-1	8.961653E-1	9.736073E-1	9.452869E-1	9.221935E-1	9.700000E-1	9.305401E-1	9.428320E-1	9.447923E-1	9.269294E-1	9.379643E-1	9.119335E-1	9.570153E-1	9.434992E-1	9.156882E-1	9.350848E-1	9.628797E-1	9.240057E-1	9.234390E-1	8.239100E-1	1.059031E+0
5.570100E+2	8.717288E-1	9.154042E-1	9.309099E-1	8.830514E-1	9.454944E-1	8.874102E-1	8.482057E-1	8.348438E-1	8.198651E-1	9.188681E-1	9.299570E-1	9.212164E-1	8.819043E-1	9.030856E-1	9.390035E-1	9.344005E-1	8.988032E-1	8.577333E-1	9.322026E-1	8.964282E-1	8.904475E-1	9.305931E-1	9.616107E-1	8.695186E-1	7.772160E-1	8.453945E-1	8.660639E-1	8.946835E-1	9.096186E-1	8.632417E-1	8.610947E-1	9.196256E-1	8.968340E-1	9.145837E-1	8.976361E-1	9.770833E-1	8.906151E-1	9.132682E-1	8.900412E-1	8.929658E-1	8.186465E-1	9.129091E-1	8.783020E-1	9.232311E-1	8.721638E-1	8.546203E-1	8.406234E-1	9.494305E-1	9.146008E-1	8.563285E-1	8.429113E-1	8.828077E-1	9.212704E-1	8.377236E-1	9.066878E-1	8.979565E-1	8.796745E-1	9.248627E-1	8.369252E-1	8.692074E-1	9.029342E-1	9.463416E-1	8.403270E-1	8.589385E-1	9.539301E-1	9.023848E-1	8.590898E-1	9.523723E-1	9.867510E-1	8.585801E-1	8.931138E-1	9.049405E-1	8.953339E-1	9.278315E-1	9.025671E-1	8.676103E-1	9.173378E-1	8.748633E-1	8.330336E-1	8.696467E-1	8.055935E-1	9.346150E-1	8.909997E-1	8.672738E-1	8.877648E-1	8.817554E-1	8.468628E-1	9.336192E-1	9.184061E-1	9.008903E-1	8.928631E-1	9.129662E-1	8.890863E-1	9.904439E-1	9.655037E-1	9.011761E-1	8.924415E-1	8.513824E-1	8.922468E-1	9.665516E-1	9.031642E-1	9.506813E-1	9.081715E-1	9.435060E-1	8.735217E-1	8.508399E-1	8.487221E-1	8.615951E-1	9.111032E-1	8.634148E-1	9.853151E-1	8.277094E-1	8.585263E-1	9.296602E-1	9.101756E-1	9.241213E-1	8.267033E-1	8.355702E-1	8.742916E-1	9.081286E-1	8.898574E-1	8.946716E-1	8.684349E-1	8.093720E-1	8.984931E-1	9.207680E-1	9.002698E-1	9.001939E-1	9.757905E-1	7.962291E-1	9.049417E-1	9.409548E-1	9.553229E-1	8.754037E-1	8.478544E-1	8.475451E-1	8.598298E-1	9.133386E-1	8.719972E-1	9.740042E-1	8.534978E-1	8.980560E-1	8.856103E-1	8.970481E-1	9.524526E-1	8.940668E-1	8.890804E-1	8.755577E-1	9.068131E-1	8.985993E-1	8.928408E-1	9.292448E-1	8.341363E-1	9.370075E-1	9.243546E-1	8.795353E-1	1.003493E+0	8.794372E-1	9.119886E-1	9.741079E-1	9.656546E-1	8.943654E-1	8.346495E-1	8.024752E-1
5.580400E+2	9.570804E-1	9.366626E-1	9.525304E-1	9.326071E-1	8.988219E-1	1.012587E+0	9.172518E-1	9.627782E-1	9.380788E-1	9.349048E-1	9.304981E-1	8.983746E-1	1.019404E+0	9.325869E-1	9.228530E-1	9.699842E-1	8.984687E-1	9.830776E-1	9.244407E-1	9.390854E-1	9.458138E-1	9.178468E-1	9.675214E-1	9.211293E-1	9.291746E-1	9.125611E-1	8.751561E-1	9.422976E-1	9.468033E-1	8.814932E-1	9.106885E-1	9.712592E-1	9.669521E-1	9.542026E-1	9.120574E-1	9.577053E-1	9.573047E-1	9.433177E-1	9.847442E-1	9.124263E-1	8.938998E-1	9.313779E-1	9.663702E-1	9.750757E-1	9.519055E-1	9.140822E-1	9.477744E-1	9.956001E-1	9.454523E-1	9.216771E-1	9.472928E-1	9.984786E-1	9.343198E-1	9.847067E-1	9.300548E-1	9.715198E-1	9.418633E-1	9.399459E-1	8.975197E-1	9.276238E-1	9.084519E-1	9.162304E-1	9.237258E-1	9.637276E-1	9.154289E-1	9.345402E-1	8.764490E-1	9.688596E-1	9.401726E-1	8.839361E-1	9.614911E-1	1.014210E+0	1.003958E+0	9.834480E-1	9.888910E-1	8.866146E-1	9.138669E-1	9.818242E-1	9.769252E-1	9.243277E-1	8.593801E-1	9.826086E-1	9.419633E-1	9.490022E-1	1.018394E+0	9.562101E-1	9.457769E-1	8.818249E-1	9.365559E-1	9.789456E-1	8.567993E-1	9.211321E-1	9.219979E-1	9.926300E-1	9.207425E-1	9.568895E-1	8.496705E-1	8.912996E-1	8.995875E-1	9.719521E-1	8.869396E-1	9.715583E-1	9.399778E-1	9.392471E-1	9.554675E-1	9.087793E-1	9.433150E-1	9.405783E-1	9.572085E-1	9.816131E-1	9.523119E-1	9.740172E-1	9.755261E-1	9.084072E-1	8.800583E-1	9.023444E-1	8.726645E-1	9.206362E-1	9.639921E-1	9.315113E-1	9.535969E-1	9.147130E-1	8.947291E-1	8.921791E-1	8.873191E-1	9.472060E-1	9.154925E-1	9.342751E-1	9.652463E-1	8.998587E-1	9.613630E-1	9.667100E-1	8.767301E-1	9.366137E-1	9.579039E-1	9.222507E-1	9.519499E-1	9.524933E-1	9.913885E-1	9.040074E-1	9.316378E-1	9.578977E-1	9.012726E-1	9.258881E-1	9.086288E-1	8.995614E-1	9.413351E-1	9.675887E-1	9.892600E-1	9.056767E-1	8.626520E-1	9.276531E-1	9.442607E-1	8.639832E-1	9.021906E-1	9.576333E-1	9.802363E-1	9.527407E-1	9.750382E-1	1.036807E+0	9.058692E-1	8.871605E-1	9.178760E-1	1.035065E+0
5.590160E+2	1.148026E+0	1.148735E+0	1.160201E+0	1.122409E+0	1.162429E+0	1.098538E+0	1.168522E+0	1.229524E+0	1.105590E+0	1.132910E+0	1.180214E+0	1.167564E+0	1.105834E+0	1.162998E+0	1.234304E+0	1.189406E+0	1.180974E+0	1.181617E+0	1.147709E+0	1.154437E+0	1.234493E+0	1.090903E+0	1.117673E+0	1.173084E+0	1.123004E+0	1.172623E+0	1.159139E+0	1.104918E+0	1.143209E+0	1.058242E+0	1.177932E+0	1.126205E+0	1.149968E+0	1.088662E+0	1.139388E+0	1.220630E+0	1.070427E+0	1.162538E+0	1.133212E+0	1.169292E+0	1.079896E+0	1.118686E+0	1.188146E+0	1.092830E+0	1.100401E+0	1.241372E+0	1.156926E+0	1.183821E+0	1.204179E+0	1.098474E+0	1.057004E+0	1.064852E+0	1.083528E+0	1.148608E+0	1.082719E+0	1.182390E+0	1.108934E+0	1.183887E+0	9.996312E-1	1.125105E+0	1.135834E+0	1.138563E+0	1.101453E+0	1.093085E+0	1.128456E+0	1.159678E+0	1.108159E+0	1.184346E+0	1.022872E+0	1.207016E+0	1.157862E+0	1.219441E+0	1.144440E+0	1.208197E+0	1.165403E+0	1.079777E+0	1.152821E+0	1.149614E+0	1.128648E+0	1.223949E+0	1.114827E+0	1.123442E+0	1.192723E+0	1.202138E+0	1.125899E+0	1.125665E+0	1.068983E+0	1.108748E+0	1.133385E+0	1.037007E+0	1.093495E+0	1.087210E+0	1.106196E+0	1.170919E+0	1.095091E+0	1.135831E+0	1.047300E+0	1.074675E+0	1.141096E+0	1.132779E+0	1.115290E+0	1.118504E+0	1.151105E+0	1.228978E+0	1.195552E+0	1.134930E+0	1.092408E+0	1.163152E+0	1.067043E+0	1.128558E+0	1.138620E+0	1.075310E+0	1.238398E+0	1.148871E+0	1.149330E+0	1.151036E+0	1.131997E+0	1.122588E+0	1.146009E+0	1.113253E+0	1.205826E+0	1.085838E+0	1.072503E+0	1.146733E+0	1.187308E+0	1.127765E+0	1.124627E+0	1.146212E+0	1.141544E+0	1.067830E+0	1.169330E+0	1.171343E+0	1.152343E+0	1.124257E+0	1.040109E+0	1.141869E+0	1.099217E+0	1.143803E+0	1.169875E+0	1.082869E+0	1.123671E+0	1.124319E+0	1.052051E+0	1.158621E+0	1.176380E+0	1.023937E+0	1.160997E+0	1.094903E+0	1.138921E+0	1.136483E+0	1.131310E+0	1.128916E+0	1.106988E+0	1.109850E+0	1.114025E+0	1.194513E+0	1.109983E+0	1.070541E+0	1.120617E+0	1.160690E+0	1.158317E+0	1.157095E+0	9.205856E-1	1.089595E+0
5.600240E+2	1.221388E+0	1.355186E+0	1.346261E+0	1.336913E+0	1.359307E+0	1.374898E+0	1.219688E+0	1.300392E+0	1.278979E+0	1.278431E+0	1.311603E+0	1.283518E+0	1.313826E+0	1.334586E+0	1.344964E+0	1.296419E+0	1.430802E+0	1.324590E+0	1.344395E+0	1.313215E+0	1.440175E+0	1.400901E+0	1.297688E+0	1.322821E+0	1.271180E+0	1.315474E+0	1.320745E+0	1.277593E+0	1.329466E+0	1.279740E+0	1.287550E+0	1.297615E+0	1.297157E+0	1.313355E+0	1.319829E+0	1.397192E+0	1.310230E+0	1.308202E+0	1.320332E+0	1.264174E+0	1.326500E+0	1.334363E+0	1.293221E+0	1.295212E+0	1.269715E+0	1.305729E+0	1.308185E+0	1.283256E+0	1.333251E+0	1.332354E+0	1.304046E+0	1.282148E+0	1.264939E+0	1.315996E+0	1.334118E+0	1.297629E+0	1.272046E+0	1.292452E+0	1.299013E+0	1.302056E+0	1.445230E+0	1.347038E+0	1.288977E+0	1.294050E+0	1.275570E+0	1.348449E+0	1.309595E+0	1.316191E+0	1.306153E+0	1.392215E+0	1.367790E+0	1.350636E+0	1.323239E+0	1.320402E+0	1.322511E+0	1.250431E+0	1.369186E+0	1.364653E+0	1.272429E+0	1.326715E+0	1.233428E+0	1.313538E+0	1.252946E+0	1.346056E+0	1.346729E+0	1.255684E+0	1.304006E+0	1.209529E+0	1.312671E+0	1.174972E+0	1.322322E+0	1.377704E+0	1.318502E+0	1.238169E+0	1.311989E+0	1.356470E+0	1.233492E+0	1.266901E+0	1.307916E+0	1.383369E+0	1.241303E+0	1.288164E+0	1.206483E+0	1.360733E+0	1.242350E+0	1.278105E+0	1.262471E+0	1.357272E+0	1.351779E+0	1.319443E+0	1.341102E+0	1.243115E+0	1.332202E+0	1.219089E+0	1.374443E+0	1.283223E+0	1.336315E+0	1.340010E+0	1.285927E+0	1.310659E+0	1.306620E+0	1.242476E+0	1.248770E+0	1.286528E+0	1.280564E+0	1.380574E+0	1.386485E+0	1.271978E+0	1.359713E+0	1.239152E+0	1.305896E+0	1.271181E+0	1.288534E+0	1.257782E+0	1.325273E+0	1.327608E+0	1.325049E+0	1.244760E+0	1.335988E+0	1.378369E+0	1.272225E+0	1.362775E+0	1.230966E+0	1.216382E+0	1.382098E+0	1.348743E+0	1.359616E+0	1.328483E+0	1.350887E+0	1.243245E+0	1.337929E+0	1.260439E+0	1.306464E+0	1.281227E+0	1.352885E+0	1.307133E+0	1.377625E+0	1.273771E+0	1.335253E+0	1.338213E+0	1.322854E+0	1.333711E+0	1.188434E+0	1.246436E+0
5.610700E+2	1.044136E+0	1.056823E+0	1.039513E+0	1.058163E+0	1.040507E+0	1.041459E+0	1.120125E+0	1.093462E+0	1.106166E+0	1.086256E+0	1.067930E+0	1.074796E+0	1.048684E+0	1.107219E+0	1.061496E+0	1.070597E+0	9.866624E-1	1.069614E+0	1.084029E+0	1.076705E+0	1.130501E+0	1.073988E+0	1.035975E+0	1.085909E+0	1.150534E+0	1.138166E+0	1.003401E+0	1.097954E+0	1.084677E+0	1.150934E+0	1.078582E+0	1.087208E+0	1.096357E+0	1.051252E+0	1.077375E+0	1.051154E+0	1.059395E+0	1.124584E+0	1.109355E+0	1.157951E+0	1.112437E+0	1.120811E+0	1.077246E+0	1.192378E+0	1.028472E+0	1.047287E+0	1.073659E+0	1.081319E+0	1.133044E+0	1.118497E+0	1.138683E+0	1.004590E+0	1.069132E+0	1.125463E+0	1.092317E+0	1.101951E+0	1.046254E+0	1.057599E+0	1.091944E+0	1.054335E+0	1.071408E+0	1.126927E+0	1.077810E+0	1.080211E+0	1.072541E+0	1.147140E+0	1.003461E+0	1.009091E+0	1.047942E+0	1.080387E+0	1.050532E+0	1.034405E+0	1.106021E+0	1.038309E+0	1.068219E+0	1.031473E+0	1.046938E+0	1.045345E+0	1.152268E+0	1.032273E+0	1.125831E+0	1.069312E+0	1.046364E+0	1.103648E+0	1.112265E+0	1.122592E+0	1.070686E+0	1.085537E+0	1.057590E+0	9.944686E-1	1.105655E+0	1.158173E+0	1.095377E+0	1.153468E+0	1.005340E+0	1.078655E+0	1.032714E+0	1.093726E+0	1.128462E+0	1.085608E+0	1.036032E+0	1.029672E+0	1.063013E+0	1.077700E+0	1.030880E+0	1.023180E+0	1.077502E+0	1.030289E+0	1.063286E+0	1.047306E+0	1.064721E+0	1.045839E+0	1.026575E+0	1.064627E+0	1.048270E+0	1.108695E+0	1.088945E+0	1.046178E+0	1.032078E+0	1.077238E+0	1.022154E+0	1.107237E+0	1.010332E+0	1.072563E+0	1.135153E+0	1.053994E+0	1.067007E+0	1.092220E+0	1.049627E+0	1.078807E+0	1.075360E+0	1.052794E+0	9.866569E-1	1.138243E+0	1.087493E+0	1.080409E+0	1.064859E+0	1.108888E+0	1.063418E+0	1.119910E+0	1.094934E+0	1.039676E+0	1.102020E+0	1.062287E+0	1.065653E+0	1.075212E+0	1.094099E+0	1.046263E+0	1.114108E+0	1.044680E+0	1.072657E+0	1.032220E+0	1.058107E+0	1.040080E+0	1.084987E+0	1.057392E+0	1.109342E+0	1.037975E+0	1.039373E+0	1.122749E+0	1.053369E+0	9.808299E-1	1.017049E+0	1.062833E+0
5.620390E+2	8.986525E-1	8.381615E-1	9.003568E-1	8.456092E-1	9.299469E-1	8.630427E-1	8.413814E-1	8.356838E-1	8.429064E-1	8.373090E-1	9.083876E-1	8.766474E-1	8.902975E-1	8.558676E-1	8.807858E-1	8.580721E-1	9.134196E-1	8.990178E-1	8.773245E-1	8.921976E-1	8.551360E-1	8.748020E-1	8.581500E-1	8.650470E-1	8.523172E-1	8.276086E-1	8.697031E-1	8.499489E-1	8.710077E-1	8.152237E-1	8.900556E-1	9.357569E-1	8.652413E-1	8.461639E-1	8.661376E-1	8.183614E-1	9.041840E-1	8.595911E-1	8.852675E-1	8.092068E-1	9.034790E-1	8.309629E-1	8.592568E-1	7.866555E-1	8.665437E-1	8.647223E-1	8.196787E-1	8.360761E-1	8.357481E-1	8.995765E-1	7.939204E-1	8.723182E-1	8.826228E-1	8.315497E-1	8.693116E-1	8.756753E-1	8.898240E-1	8.871850E-1	8.756526E-1	9.301698E-1	9.082802E-1	8.188934E-1	8.864419E-1	8.969462E-1	8.364356E-1	8.298330E-1	8.606944E-1	8.678321E-1	9.219625E-1	8.297504E-1	8.864125E-1	9.263132E-1	8.603284E-1	8.612809E-1	8.954487E-1	8.837049E-1	8.450038E-1	8.029336E-1	8.916498E-1	8.699011E-1	8.611804E-1	8.473009E-1	8.904057E-1	9.331919E-1	8.928181E-1	8.897243E-1	9.183664E-1	8.743732E-1	9.121829E-1	8.212837E-1	8.874687E-1	9.044455E-1	8.325944E-1	8.910036E-1	9.085556E-1	8.620120E-1	9.049763E-1	8.540568E-1	7.636984E-1	9.277617E-1	9.512746E-1	9.167028E-1	8.931038E-1	8.262629E-1	7.961362E-1	8.723212E-1	8.637002E-1	8.146083E-1	8.598143E-1	8.585158E-1	8.503620E-1	9.238977E-1	8.285273E-1	8.813761E-1	8.194430E-1	8.918993E-1	9.136325E-1	9.003188E-1	8.351329E-1	8.551042E-1	8.809348E-1	8.954487E-1	9.130786E-1	8.714984E-1	9.132684E-1	8.525550E-1	9.030900E-1	8.710391E-1	9.001110E-1	8.250910E-1	8.667069E-1	8.685226E-1	8.334381E-1	8.166377E-1	8.378614E-1	8.329590E-1	8.674046E-1	8.390807E-1	8.860683E-1	8.226406E-1	8.344408E-1	8.457923E-1	8.894126E-1	8.972660E-1	8.427478E-1	9.101021E-1	8.617632E-1	8.886729E-1	8.311794E-1	8.871613E-1	8.493595E-1	8.513973E-1	8.821736E-1	9.137007E-1	8.497237E-1	9.107672E-1	8.381711E-1	8.696772E-1	8.948901E-1	8.751593E-1	9.183719E-1	8.600086E-1	9.644414E-1	8.492012E-1
5.630470E+2	7.323857E-1	7.076051E-1	7.603010E-1	7.503181E-1	6.592589E-1	7.307722E-1	7.340063E-1	7.111569E-1	7.174147E-1	7.083407E-1	7.249721E-1	6.669484E-1	6.551395E-1	7.834372E-1	7.055902E-1	7.258687E-1	7.405749E-1	6.823597E-1	7.608145E-1	7.135048E-1	7.415639E-1	7.017686E-1	7.155383E-1	6.922098E-1	6.989525E-1	7.501605E-1	7.062922E-1	7.447552E-1	7.599845E-1	7.649956E-1	7.482213E-1	7.326745E-1	6.836639E-1	7.889255E-1	6.988733E-1	7.296184E-1	6.923823E-1	7.476300E-1	7.469053E-1	7.009137E-1	6.844165E-1	6.875844E-1	6.651279E-1	7.709038E-1	7.462791E-1	7.838365E-1	7.475125E-1	7.424139E-1	6.722987E-1	7.127147E-1	6.756130E-1	7.369608E-1	7.640587E-1	7.114144E-1	7.302999E-1	7.142051E-1	7.445526E-1	6.902335E-1	7.489161E-1	7.211253E-1	7.715963E-1	7.612002E-1	7.694987E-1	7.389526E-1	6.798072E-1	7.590179E-1	7.675003E-1	8.174664E-1	7.194737E-1	7.117523E-1	7.979390E-1	6.850123E-1	7.503758E-1	7.315771E-1	7.250682E-1	7.127437E-1	6.827945E-1	7.091891E-1	7.291609E-1	7.380846E-1	6.721970E-1	6.995698E-1	7.272941E-1	7.483615E-1	7.602866E-1	7.451348E-1	7.266625E-1	7.161266E-1	6.999893E-1	7.354537E-1	7.083125E-1	6.884167E-1	7.167015E-1	6.941655E-1	7.353751E-1	7.849043E-1	7.435505E-1	7.601437E-1	7.430420E-1	7.300100E-1	7.373653E-1	7.353266E-1	7.175412E-1	6.951031E-1	7.601688E-1	7.292323E-1	7.464636E-1	7.086661E-1	6.772145E-1	7.254420E-1	7.493709E-1	7.158165E-1	7.366313E-1	7.482697E-1	7.303571E-1	7.286441E-1	7.089494E-1	7.114031E-1	7.412908E-1	7.578891E-1	7.400031E-1	7.473189E-1	6.989634E-1	7.618268E-1	6.986340E-1	7.091958E-1	6.752770E-1	7.665195E-1	7.704190E-1	7.452315E-1	6.926786E-1	7.353402E-1	7.649750E-1	6.910023E-1	6.946163E-1	7.614095E-1	7.296077E-1	7.244779E-1	7.733541E-1	6.746807E-1	7.621774E-1	7.604790E-1	7.140260E-1	7.158421E-1	7.496036E-1	7.247155E-1	7.297145E-1	7.096058E-1	7.477744E-1	7.263329E-1	7.762118E-1	7.360900E-1	7.770309E-1	7.401332E-1	7.129853E-1	6.832349E-1	7.277757E-1	6.958452E-1	7.488495E-1	7.198872E-1	6.919985E-1	7.107200E-1	6.749666E-1	7.969447E-1
5.640120E+2	8.130119E-1	8.054490E-1	7.926657E-1	9.009446E-1	8.284437E-1	7.465881E-1	7.523098E-1	7.994893E-1	7.548740E-1	7.947771E-1	7.676345E-1	7.778753E-1	8.284571E-1	8.273776E-1	7.717270E-1	8.020168E-1	7.427817E-1	8.054026E-1	7.839713E-1	7.757605E-1	8.093021E-1	8.014760E-1	7.969520E-1	8.122833E-1	8.136006E-1	7.326647E-1	8.013082E-1	7.755939E-1	7.731493E-1	7.664533E-1	7.937942E-1	8.399696E-1	8.212352E-1	8.212185E-1	8.092831E-1	8.493990E-1	8.149907E-1	7.745069E-1	7.591683E-1	7.677019E-1	8.748591E-1	7.925795E-1	8.559587E-1	7.575736E-1	7.720285E-1	7.714152E-1	7.756332E-1	8.094284E-1	7.749744E-1	7.346298E-1	7.209787E-1	7.924827E-1	8.048554E-1	8.038804E-1	7.628783E-1	7.775712E-1	8.396584E-1	7.981442E-1	7.623871E-1	8.075565E-1	7.467580E-1	7.419189E-1	7.876306E-1	7.834408E-1	8.540737E-1	7.780505E-1	8.008447E-1	7.619146E-1	8.090859E-1	8.482518E-1	7.855282E-1	8.097230E-1	7.261954E-1	7.932227E-1	8.073229E-1	8.183169E-1	8.180216E-1	8.214600E-1	7.399949E-1	8.490337E-1	8.091264E-1	8.200907E-1	7.976693E-1	8.087360E-1	7.332818E-1	7.773636E-1	7.907630E-1	7.987675E-1	7.665458E-1	8.013140E-1	8.065136E-1	7.728923E-1	8.424368E-1	7.316465E-1	7.540045E-1	8.306192E-1	7.201493E-1	7.872328E-1	8.510558E-1	7.752625E-1	8.111958E-1	7.123962E-1	8.022081E-1	8.239458E-1	8.277864E-1	8.998898E-1	7.898743E-1	7.436603E-1	7.658015E-1	7.545507E-1	7.441736E-1	8.022827E-1	8.117691E-1	8.521048E-1	8.013858E-1	7.367549E-1	7.780807E-1	8.128165E-1	8.164193E-1	8.240691E-1	7.819447E-1	7.808962E-1	7.945593E-1	7.764596E-1	7.675865E-1	8.337326E-1	8.071018E-1	8.180015E-1	7.776094E-1	7.981880E-1	8.089436E-1	8.301799E-1	8.103310E-1	7.965548E-1	7.533250E-1	8.051245E-1	8.135027E-1	8.322030E-1	8.317132E-1	7.620235E-1	7.618893E-1	8.867968E-1	7.694097E-1	7.992752E-1	7.883346E-1	7.572793E-1	8.005430E-1	7.439775E-1	8.057513E-1	7.274679E-1	8.414822E-1	8.088267E-1	8.196618E-1	7.606643E-1	7.838733E-1	8.245926E-1	7.746364E-1	7.665129E-1	7.943165E-1	8.235057E-1	7.918991E-1	8.141347E-1	7.612137E-1	7.754081E-1
5.650150E+2	1.036226E+0	1.035876E+0	1.033412E+0	9.779096E-1	1.046714E+0	1.086092E+0	1.059019E+0	1.048236E+0	9.923084E-1	1.106104E+0	1.011461E+0	1.070382E+0	1.065700E+0	1.014962E+0	1.101358E+0	9.840103E-1	1.024352E+0	1.037606E+0	9.916711E-1	1.051390E+0	1.081071E+0	1.054345E+0	1.079988E+0	1.050428E+0	1.022341E+0	9.939333E-1	1.034265E+0	1.060024E+0	1.080092E+0	1.033729E+0	9.831371E-1	1.023568E+0	1.061893E+0	1.043895E+0	1.090722E+0	9.673042E-1	1.038532E+0	1.047837E+0	1.005673E+0	1.067081E+0	1.026304E+0	1.124712E+0	1.031342E+0	1.008972E+0	1.044991E+0	1.057437E+0	1.052621E+0	1.053924E+0	1.055883E+0	1.022121E+0	1.087784E+0	1.022171E+0	1.058586E+0	1.042329E+0	1.032865E+0	1.024105E+0	1.016166E+0	1.109116E+0	9.803915E-1	9.919432E-1	1.035972E+0	1.049211E+0	1.046861E+0	1.048195E+0	1.049501E+0	1.019843E+0	1.073321E+0	9.755874E-1	9.899501E-1	1.060457E+0	1.046099E+0	1.058405E+0	1.058994E+0	1.046251E+0	1.024591E+0	9.892774E-1	1.033763E+0	1.043249E+0	1.028369E+0	1.047071E+0	1.063816E+0	1.031166E+0	9.867349E-1	1.023368E+0	9.976065E-1	1.014943E+0	1.032135E+0	1.080254E+0	1.041458E+0	1.067555E+0	1.014755E+0	1.003056E+0	9.988376E-1	1.059567E+0	1.074699E+0	1.020136E+0	1.102030E+0	9.888160E-1	1.004653E+0	1.038403E+0	9.729528E-1	1.070294E+0	1.000217E+0	1.074305E+0	1.044374E+0	1.048437E+0	1.058066E+0	1.131688E+0	1.071411E+0	1.007167E+0	1.050710E+0	1.066461E+0	1.077241E+0	1.038588E+0	1.090404E+0	1.051966E+0	1.058897E+0	1.048861E+0	1.051799E+0	9.518389E-1	9.889949E-1	1.035229E+0	1.093443E+0	1.012340E+0	1.092465E+0	1.060043E+0	1.038568E+0	1.047198E+0	1.000052E+0	1.016539E+0	1.073645E+0	1.002816E+0	1.044480E+0	1.010924E+0	1.093847E+0	1.056139E+0	1.060006E+0	1.051994E+0	1.030612E+0	1.053840E+0	1.038367E+0	1.066398E+0	1.004488E+0	1.072106E+0	1.065542E+0	1.002519E+0	1.090199E+0	1.059861E+0	1.089022E+0	1.080048E+0	1.010188E+0	1.095995E+0	9.721533E-1	1.100403E+0	1.046547E+0	1.032083E+0	1.056714E+0	1.074053E+0	1.101224E+0	1.031049E+0	1.056487E+0	1.077156E+0	9.802061E-1	1.046797E+0
5.660450E+2	1.300802E+0	1.297333E+0	1.326164E+0	1.344169E+0	1.345093E+0	1.316444E+0	1.340964E+0	1.287343E+0	1.413418E+0	1.285238E+0	1.287451E+0	1.309808E+0	1.333047E+0	1.271618E+0	1.338003E+0	1.322044E+0	1.375775E+0	1.293668E+0	1.301422E+0	1.383733E+0	1.252937E+0	1.330101E+0	1.322919E+0	1.352219E+0	1.305175E+0	1.288834E+0	1.346179E+0	1.323697E+0	1.341301E+0	1.288053E+0	1.334360E+0	1.295021E+0	1.368946E+0	1.282658E+0	1.295920E+0	1.366927E+0	1.308651E+0	1.332976E+0	1.319402E+0	1.336703E+0	1.261209E+0	1.246905E+0	1.371122E+0	1.317674E+0	1.337390E+0	1.323500E+0	1.372996E+0	1.326091E+0	1.370873E+0	1.386480E+0	1.369269E+0	1.322114E+0	1.252390E+0	1.329633E+0	1.307062E+0	1.360112E+0	1.271220E+0	1.314855E+0	1.409583E+0	1.388639E+0	1.319037E+0	1.349923E+0	1.323712E+0	1.324847E+0	1.295739E+0	1.306595E+0	1.350873E+0	1.401306E+0	1.291434E+0	1.341437E+0	1.297284E+0	1.269233E+0	1.335033E+0	1.386008E+0	1.264646E+0	1.408568E+0	1.357872E+0	1.369993E+0	1.253014E+0	1.382120E+0	1.322288E+0	1.290124E+0	1.371491E+0	1.258879E+0	1.332206E+0	1.322548E+0	1.290943E+0	1.282455E+0	1.348181E+0	1.383718E+0	1.366774E+0	1.346674E+0	1.353828E+0	1.296178E+0	1.278105E+0	1.224043E+0	1.322820E+0	1.381495E+0	1.354760E+0	1.277832E+0	1.325636E+0	1.352729E+0	1.349226E+0	1.350107E+0	1.344704E+0	1.302857E+0	1.304047E+0	1.298632E+0	1.343702E+0	1.410177E+0	1.272222E+0	1.328939E+0	1.301259E+0	1.276451E+0	1.324977E+0	1.322388E+0	1.331190E+0	1.291163E+0	1.359679E+0	1.341310E+0	1.370309E+0	1.297609E+0	1.386496E+0	1.293840E+0	1.249431E+0	1.319286E+0	1.298308E+0	1.266093E+0	1.326910E+0	1.313359E+0	1.379446E+0	1.267565E+0	1.382931E+0	1.347191E+0	1.296677E+0	1.336963E+0	1.334195E+0	1.278937E+0	1.321640E+0	1.348299E+0	1.318220E+0	1.219202E+0	1.331802E+0	1.326571E+0	1.315720E+0	1.350392E+0	1.250642E+0	1.377838E+0	1.274375E+0	1.334915E+0	1.299750E+0	1.294547E+0	1.271677E+0	1.305082E+0	1.300290E+0	1.347226E+0	1.364399E+0	1.350065E+0	1.301994E+0	1.285025E+0	1.329797E+0	1.342850E+0	1.407846E+0	1.322824E+0
5.670200E+2	1.174787E+0	1.258752E+0	1.147587E+0	1.122886E+0	1.150037E+0	1.215602E+0	1.152194E+0	1.224629E+0	1.172913E+0	1.181975E+0	1.232165E+0	1.223543E+0	1.178675E+0	1.139519E+0	1.141040E+0	1.237391E+0	1.216434E+0	1.212332E+0	1.200767E+0	1.106710E+0	1.129489E+0	1.163519E+0	1.190477E+0	1.141904E+0	1.157080E+0	1.268633E+0	1.238851E+0	1.148027E+0	1.089788E+0	1.180612E+0	1.171850E+0	1.085802E+0	1.102664E+0	1.165888E+0	1.161689E+0	1.217236E+0	1.181865E+0	1.112876E+0	1.174228E+0	1.160442E+0	1.137296E+0	1.196446E+0	1.139947E+0	1.165843E+0	1.204296E+0	1.151802E+0	1.157899E+0	1.150747E+0	1.157179E+0	1.125981E+0	1.213752E+0	1.249363E+0	1.168355E+0	1.155730E+0	1.205266E+0	1.146380E+0	1.192325E+0	1.142867E+0	1.131126E+0	1.106231E+0	1.146948E+0	1.151927E+0	1.108045E+0	1.127407E+0	1.211902E+0	1.159521E+0	1.143306E+0	1.166803E+0	1.220152E+0	1.127964E+0	1.136205E+0	1.216908E+0	1.163052E+0	1.143351E+0	1.214704E+0	1.155916E+0	1.215607E+0	1.207830E+0	1.205543E+0	1.081517E+0	1.145560E+0	1.242436E+0	1.180042E+0	1.123816E+0	1.171537E+0	1.127695E+0	1.170444E+0	1.162486E+0	1.174052E+0	1.196207E+0	1.110522E+0	1.126343E+0	1.160224E+0	1.173971E+0	1.243921E+0	1.199630E+0	1.173759E+0	1.134530E+0	1.154330E+0	1.165123E+0	1.165544E+0	1.182880E+0	1.174691E+0	1.152576E+0	1.195951E+0	1.124082E+0	1.160348E+0	1.272457E+0	1.218770E+0	1.196842E+0	1.268440E+0	1.116765E+0	1.217998E+0	1.138584E+0	1.185163E+0	1.159653E+0	1.120305E+0	1.189260E+0	1.163600E+0	1.192551E+0	1.215660E+0	1.136261E+0	1.103127E+0	1.211473E+0	1.143463E+0	1.171194E+0	1.210648E+0	1.138929E+0	1.175272E+0	1.222784E+0	1.103220E+0	1.242782E+0	1.177188E+0	1.199447E+0	1.236180E+0	1.126996E+0	1.130425E+0	1.164419E+0	1.093195E+0	1.218607E+0	1.189971E+0	1.181655E+0	1.188843E+0	1.126652E+0	1.172399E+0	1.179780E+0	1.173040E+0	1.173781E+0	1.137789E+0	1.199395E+0	1.150352E+0	1.180924E+0	1.219197E+0	1.139937E+0	1.221593E+0	1.144705E+0	1.128962E+0	1.205871E+0	1.119353E+0	1.142624E+0	1.158077E+0	1.214300E+0	1.194277E+0	1.145992E+0
