Photon Energy (eV)	#1	#2	#3	#4	#5	#6	#7	#8	#9	#10	#11	#12	#13	#14	#15	#16	#17	#18	#19	#20	#21	#22	#23	#24	#25	#26	#27	#28	#29	#30	#31	#32	#33	#34	#35	#36	#37	#38	#39	#40	#41	#42	#43	#44	#45	#46	#47	#48	#49	#50	#51	#52	#53	#54	#55	#56	#57	#58	#59	#60	#61	#62	#63	#64	#65	#66	#67	#68	#69	#70	#71	#72	#73	#74	#75	#76	#77	#78	#79	#80	#81	#82	#83	#84	#85	#86	#87	#88	#89	#90	#91	#92	#93	#94	#95	#96	#97	#98	#99	#100	#101	#102	#103	#104	#105	#106	#107	#108	#109	#110	#111	#112	#113	#114	#115	#116	#117	#118	#119	#120	#121	#122	#123	#124	#125	#126	#127	#128	#129	#130	#131	#132	#133	#134	#135	#136	#137	#138	#139	#140	#141	#142	#143	#144	#145	#146	#147	#148	#149	#150	#151	#152	#153	#154	#155	#156	#157	#158	#159	#160	#161	#162	#163	#164	#165	#166	#167	#168	#169	#170	#171	
5.300110E+2	-4.142929E-3	-6.026087E-3	-1.477039E-3	-8.270268E-3	-1.073302E-2	-7.196034E-3	-8.671314E-3	-7.598786E-3	-2.994600E-3	-7.936046E-3	-2.157750E-3	-8.025102E-3	1.027769E-3	3.607961E-3	-1.242142E-3	-2.417012E-3	-7.558026E-3	-1.024975E-2	3.456410E-4	2.302932E-3	-8.719656E-3	1.448919E-3	-8.633147E-3	-7.497339E-3	-3.530991E-3	-1.376731E-2	-2.041645E-3	-1.421228E-2	-1.053570E-3	-2.172982E-3	-9.864729E-3	-2.727499E-3	3.866965E-3	-8.800831E-3	1.499566E-3	-7.704550E-3	-6.692217E-3	-3.468358E-3	3.440139E-3	-8.533878E-3	8.301683E-4	-3.162815E-3	-8.618827E-3	-1.336115E-3	-8.795423E-3	-1.185106E-3	-5.909737E-3	-5.556107E-3	-5.107003E-3	-2.827864E-4	-1.610021E-3	-1.664804E-3	-4.644938E-3	-1.131452E-2	-8.822288E-3	4.504014E-3	-1.068353E-2	-1.549631E-2	-6.100390E-3	-1.057112E-3	-9.056914E-3	-7.838971E-3	-9.172011E-3	-9.059031E-3	-6.888678E-3	-9.934061E-3	-1.022202E-3	-2.629807E-3	-5.863842E-3	-5.944141E-3	-7.145800E-3	-9.704432E-3	-9.865578E-3	1.196960E-3	-5.495708E-3	-2.735726E-4	-9.157346E-3	-1.287115E-2	-1.159509E-2	-7.207118E-3	-6.762252E-3	-1.250860E-2	-8.587156E-3	-9.632173E-3	-5.129991E-3	-7.913012E-3	-1.110739E-3	-5.594066E-3	1.891496E-4	-1.831154E-2	-1.541498E-2	8.518674E-4	-4.071942E-3	-5.899749E-3	-4.311575E-3	-2.191691E-3	4.627107E-3	-1.266642E-2	-5.668092E-3	-9.158221E-3	1.880575E-3	-1.592082E-2	-5.569158E-3	-8.507523E-3	-5.667391E-3	-1.704646E-2	-2.007854E-2	-1.303905E-2	-1.022329E-2	-4.942679E-3	-8.351077E-3	2.019501E-3	4.090126E-3	-6.129550E-3	-1.433262E-2	8.134726E-4	-6.782356E-3	-1.355139E-2	-5.527838E-3	-7.014113E-3	-3.472913E-3	-5.341348E-3	-7.959025E-3	-8.016459E-3	-9.286786E-3	-6.639751E-3	-7.320360E-3	6.016412E-3	-9.005968E-3	-8.628034E-3	-6.533247E-3	-9.380086E-3	-2.154305E-3	-1.053233E-2	-5.237348E-4	-6.850752E-3	-9.799913E-3	-3.829123E-3	-5.368766E-3	-7.655625E-4	-7.183794E-3	-8.593962E-3	-4.487831E-3	-8.629355E-3	-7.056605E-4	-7.460467E-3	-6.285507E-3	1.311799E-3	-1.443818E-2	-5.785603E-3	-5.471292E-3	-5.147971E-3	-4.152380E-3	-8.129590E-3	-7.081399E-4	-4.104323E-3	-3.249045E-3	1.053287E-3	-1.184224E-2	-2.473044E-3	-1.644119E-2	-2.850062E-4	-1.379105E-2	1.121563E-3	-1.746025E-2	-9.373946E-3	-6.065778E-3	2.028411E-3	-1.127780E-2	-1.073209E-2	-1.511179E-2
5.305180E+2	-5.178659E-3	-4.155905E-3	-3.446401E-3	-2.991364E-3	-7.539735E-3	-7.196050E-3	-3.520011E-3	-9.973379E-3	-6.588050E-3	-2.834318E-3	1.078866E-3	-4.884864E-3	-6.087441E-3	-8.298310E-3	-7.097915E-4	-1.477066E-2	-3.169500E-3	1.065985E-3	-8.468690E-3	-1.204626E-2	4.232886E-4	-9.659502E-3	-2.656329E-3	-1.874334E-3	-2.385824E-3	2.016873E-3	-5.104149E-3	-1.176795E-3	-5.268071E-4	-2.172935E-3	-4.347161E-3	-7.686600E-3	5.054691E-9	9.936390E-3	-6.498048E-3	-9.298627E-3	3.346183E-4	-2.948095E-3	3.440157E-3	-8.533889E-3	-2.767412E-4	-9.940478E-4	-8.618797E-3	-9.352792E-3	-5.988335E-3	-5.560900E-3	-1.675896E-3	-1.376944E-2	-5.654161E-3	-1.102880E-2	1.073347E-3	-4.994443E-3	-1.281353E-2	3.377720E-4	3.511833E-3	6.434285E-4	-6.975229E-3	-5.571712E-3	-9.531592E-4	-4.228345E-3	-6.065616E-3	-3.287330E-3	-5.117021E-3	-5.600111E-3	-7.896782E-3	-1.279502E-2	-6.040451E-3	-4.733606E-3	-5.330555E-4	-6.439474E-3	-5.596111E-3	-6.036621E-3	-2.666685E-4	-2.906841E-3	5.495850E-4	5.198069E-3	-3.289557E-3	6.957261E-4	2.005151E-3	6.710097E-3	-9.148990E-3	-1.144407E-2	3.504964E-3	-6.360865E-3	-7.878207E-3	2.297334E-3	-2.776833E-3	-2.375522E-3	-7.757108E-3	-6.356839E-3	9.399308E-4	-7.837244E-3	-8.243112E-3	-5.899774E-3	-4.311536E-3	7.305541E-4	-7.893319E-3	-1.038071E-2	-7.313850E-4	-5.109319E-3	-6.716436E-3	-1.127367E-2	-2.282426E-3	-4.340603E-3	-4.587882E-3	-3.919795E-3	4.334125E-3	-6.780276E-3	5.380730E-4	-4.942638E-3	2.015769E-3	-1.413650E-2	-9.295917E-4	-5.545826E-3	1.824154E-3	-1.321917E-2	-4.403654E-4	-3.113126E-3	1.579380E-3	-1.169012E-2	-3.472899E-3	-5.913657E-3	3.411017E-3	-4.268551E-3	4.359103E-3	-4.979844E-3	1.575271E-3	-1.203285E-2	-3.377253E-3	-9.765823E-3	-1.493348E-3	-6.850600E-3	-6.131510E-3	-8.978372E-3	5.761280E-3	7.562545E-3	-4.807547E-3	-2.735088E-3	5.933881E-3	-9.378553E-3	-4.455741E-3	-8.593891E-3	1.682953E-3	-4.105210E-3	-1.915320E-3	-5.073133E-3	-1.612373E-2	-1.218094E-2	-7.310183E-4	-1.593263E-2	-3.481734E-3	-1.012984E-2	-2.414124E-3	-6.253498E-3	-2.832538E-3	8.732534E-5	-8.565641E-3	-5.266570E-3	-7.568324E-3	-9.892178E-3	3.537972E-3	-1.111555E-2	-3.323067E-4	3.364729E-3	-9.647644E-5	-1.381419E-2	-5.573963E-3	3.853942E-3	-6.374382E-3	-2.536700E-3	1.007410E-3
5.310150E+2	-6.214386E-3	-4.779289E-3	-8.369832E-3	-6.686572E-3	2.040150E-3	-6.116651E-3	-4.035175E-3	4.749214E-3	-6.074695E-3	-9.069755E-3	-7.012598E-3	2.442409E-3	-5.613076E-3	-6.674726E-3	-1.082444E-2	5.639694E-3	1.219062E-3	-3.853911E-3	-6.394737E-3	-3.011556E-3	-8.211707E-3	-4.346777E-3	-7.637006E-3	-9.840218E-3	-5.248760E-3	-1.113662E-2	-4.593716E-3	2.625162E-3	-3.160726E-3	-1.086485E-2	-3.845578E-3	-5.207032E-3	-2.762094E-3	-3.122847E-3	-6.997897E-3	-1.328426E-3	-7.194113E-3	-6.589901E-3	-7.863175E-3	-6.812778E-3	-6.364823E-3	-4.518180E-4	6.622887E-3	-6.146095E-3	-7.111167E-3	-1.267159E-2	-8.026692E-3	3.623532E-3	-6.748496E-3	-6.504148E-3	-3.220086E-3	-1.109870E-3	1.601731E-4	-3.715176E-3	-5.224833E-3	-1.383372E-2	5.209314E-3	4.352893E-3	-3.812459E-4	-8.985178E-3	1.412539E-3	-2.528602E-4	9.655604E-5	-4.611861E-3	-4.368442E-3	-1.351024E-3	-1.022240E-3	-8.415285E-3	-6.930030E-3	-1.981365E-3	-1.463578E-3	-3.744212E-3	3.999575E-3	-8.549626E-4	-3.297411E-3	-1.066974E-2	5.245518E-3	-9.218509E-3	3.051367E-3	-2.236715E-3	-1.272896E-2	3.992096E-3	-6.484154E-3	-1.181307E-2	2.015372E-3	-7.402506E-3	-1.055204E-2	1.762520E-3	2.459586E-3	4.743616E-4	3.759868E-4	-6.815017E-3	-1.479787E-2	-2.417935E-3	3.607607E-3	-5.601006E-3	-6.260199E-3	-3.523746E-3	-1.005633E-2	-5.687763E-3	-7.253781E-3	-7.659198E-3	-5.569135E-3	-4.340568E-3	3.508399E-3	-5.560646E-3	-5.749364E-3	-2.399198E-3	-4.842623E-3	-1.109766E-2	-4.895476E-3	-2.596489E-3	-7.622521E-3	-7.297128E-3	-3.908882E-3	-8.948381E-3	-9.689393E-4	-8.606967E-3	-5.527838E-3	1.298935E-3	-1.304703E-2	9.538225E-4	-1.705492E-3	-5.205559E-4	-8.718266E-3	3.873199E-3	-8.432330E-3	-4.069925E-3	-4.502965E-3	-3.508080E-3	-5.973262E-3	-3.056451E-3	3.811460E-3	-6.388479E-3	-1.047502E-2	-7.384581E-3	-8.135787E-3	-7.111238E-3	-6.499012E-3	-5.359148E-3	-3.910175E-3	1.250025E-2	-1.290253E-2	-6.618658E-3	-1.007754E-4	-4.476247E-3	-9.564924E-3	-9.932152E-3	-6.762181E-3	-8.455877E-3	-2.486926E-3	-6.144351E-3	-3.572942E-3	-5.002821E-3	-5.488089E-3	1.004246E-2	-2.067598E-3	-9.288312E-3	-1.691729E-3	-4.946064E-3	-5.202916E-3	-8.550292E-4	-3.323175E-3	-1.009422E-2	2.797510E-3	-1.184073E-2	-8.033051E-3	-1.440164E-2	1.029709E-2	-8.390586E-3	-9.067094E-3
5.315080E+2	3.625056E-3	-7.272859E-3	-4.923323E-4	5.982720E-3	-6.209310E-4	1.115386E-2	6.782504E-3	5.224171E-3	-2.481224E-3	-2.247605E-8	-5.394536E-4	-4.361491E-3	-2.767017E-3	-1.262785E-3	-8.162682E-3	2.954144E-3	2.681869E-3	-4.099801E-4	4.493583E-3	-6.731728E-3	2.455053E-3	-3.863786E-3	-1.162166E-3	4.217249E-3	7.348252E-3	2.542986E-3	-2.041645E-3	5.884069E-3	2.107157E-3	3.259441E-3	2.173586E-3	1.016612E-2	-4.971792E-3	-1.987278E-3	-2.032723E-8	-3.453738E-3	7.361429E-3	1.734285E-4	-1.965823E-3	6.095631E-3	3.044048E-3	-1.536188E-3	-6.985750E-3	6.146138E-3	2.994201E-3	9.754408E-3	1.261335E-2	1.690986E-3	2.553530E-3	7.635304E-3	-6.440184E-3	2.219759E-3	2.082201E-3	-2.195361E-3	-3.683071E-3	6.434256E-4	-3.796653E-3	5.919942E-3	-3.240816E-3	6.871063E-3	2.908191E-3	-1.264363E-3	1.834377E-3	1.218848E-2	-1.848132E-3	6.755143E-3	1.765674E-3	4.812497E-9	-1.066164E-3	1.981348E-3	4.735164E-3	6.342254E-3	-3.466309E-3	-1.880896E-3	-6.594861E-3	-1.915075E-3	-3.289527E-3	1.217537E-3	-5.318049E-3	-2.236672E-3	9.944738E-4	1.862970E-3	-2.278217E-3	6.179141E-3	9.160808E-4	2.297318E-3	-1.468029E-8	-1.915765E-3	-2.648758E-3	-5.787552E-3	-5.827604E-3	3.407523E-3	1.142118E-2	6.866948E-3	9.679000E-4	-9.010340E-3	2.449655E-3	1.304735E-2	-7.862229E-3	-4.819948E-4	-2.686500E-4	6.282289E-3	6.482120E-3	2.430762E-3	4.048140E-3	-9.113412E-5	5.926233E-3	3.233680E-3	2.690341E-3	6.528126E-4	-2.591732E-3	-2.019525E-3	-2.045056E-3	3.210682E-3	-1.824165E-3	7.524781E-3	-2.025907E-3	1.666453E-2	5.843708E-3	2.338036E-3	1.032480E-3	-6.485925E-3	-6.253567E-3	4.476733E-3	-2.463851E-3	-1.106602E-3	-9.264746E-5	-7.785933E-3	7.880217E-3	-6.352511E-3	-7.093250E-3	-1.791683E-3	8.285730E-4	6.561142E-3	-5.761280E-3	5.427237E-3	3.513189E-3	-1.093987E-3	-1.977948E-3	6.124743E-3	-1.182135E-3	5.468872E-3	7.853679E-3	-3.099845E-3	-1.219761E-2	8.952305E-4	2.459548E-3	-3.748176E-4	1.133126E-2	1.691182E-3	2.486954E-3	3.321020E-4	2.221031E-3	6.878843E-3	1.416259E-3	-9.605756E-4	-2.658305E-3	-4.692039E-3	-1.157485E-3	2.967675E-3	1.664905E-3	-1.054551E-2	-2.824663E-3	-5.607779E-4	1.639909E-3	5.427021E-3	8.688794E-3	8.113538E-4	1.470983E-3	1.385420E-2	1.914166E-2
5.320120E+2	9.839442E-3	8.935176E-3	5.908130E-3	9.150062E-3	7.894536E-3	-1.799041E-3	7.297633E-3	2.374606E-3	1.291944E-2	1.757271E-2	3.236627E-3	7.152846E-3	9.565940E-3	2.525573E-3	9.937179E-3	-1.879905E-3	2.438027E-4	8.199542E-5	2.938134E-3	9.743293E-3	1.159798E-2	7.244612E-3	8.301101E-3	7.497306E-3	4.485312E-3	8.856703E-3	2.041625E-3	3.168364E-3	5.794663E-3	2.172966E-3	3.176783E-3	-1.735651E-3	-5.524322E-4	1.419471E-3	9.997009E-3	1.195539E-2	-1.673176E-4	9.538002E-3	-4.423024E-3	8.677305E-3	-1.383644E-3	6.596657E-3	7.167218E-3	-8.016779E-4	1.702939E-2	4.557716E-4	-6.174391E-4	2.174144E-3	6.383730E-3	8.483408E-4	2.683419E-3	1.664814E-3	9.289826E-3	1.097674E-2	4.025681E-3	1.608468E-4	9.447486E-3	2.785860E-3	9.341152E-3	4.756868E-3	6.896533E-3	6.321757E-3	9.365141E-3	-1.647149E-4	9.744956E-3	2.940457E-3	-3.810116E-3	3.155716E-3	5.330901E-4	1.386965E-2	3.185465E-3	-9.933752E-4	6.665953E-3	1.709894E-3	1.044184E-2	2.462252E-3	4.712039E-3	4.870178E-3	4.359274E-4	1.242610E-3	9.347814E-3	7.185821E-3	3.504705E-4	5.088728E-3	-2.381782E-3	4.339404E-3	4.998364E-3	1.302709E-3	1.324394E-3	1.356760E-2	9.963328E-3	5.452007E-3	4.866399E-3	4.835976E-4	-6.423317E-3	2.191693E-3	5.171491E-3	5.047529E-3	3.108336E-3	1.282150E-2	1.101500E-2	1.454387E-2	2.099834E-3	2.430670E-3	-1.349383E-3	1.522332E-2	5.395579E-3	1.825464E-2	3.228375E-3	8.486447E-3	9.502963E-3	3.750492E-3	1.301428E-3	3.794480E-3	1.224788E-2	2.033746E-3	4.844539E-3	1.172012E-2	3.000844E-3	8.053220E-3	7.790660E-3	1.182730E-2	6.822037E-3	3.227436E-3	3.221977E-3	-2.250134E-8	8.802947E-3	6.547275E-3	2.814364E-3	1.128284E-2	4.106579E-3	2.634841E-3	-3.148602E-3	8.115086E-3	2.094987E-3	1.690423E-3	7.950880E-3	5.470175E-3	1.412828E-3	-1.913989E-3	1.464035E-2	-3.320389E-3	2.908673E-8	1.499663E-2	1.441529E-2	3.282604E-3	8.471768E-3	1.311795E-2	-1.827677E-3	8.899589E-5	3.481729E-3	1.029595E-2	5.117968E-3	4.377443E-3	6.196228E-3	-1.143967E-2	5.611966E-3	1.053283E-3	9.527216E-3	8.902932E-3	1.165453E-2	6.555283E-3	4.153938E-3	2.243180E-3	2.218736E-3	8.880557E-3	3.770636E-3	6.288061E-3	4.903889E-4	-1.951862E-4	1.309695E-2
5.325120E+2	2.071476E-3	1.329896E-2	7.877474E-3	2.815422E-3	8.959006E-3	1.115392E-2	2.146362E-3	5.224174E-3	5.219131E-3	2.267434E-3	5.394309E-3	7.676203E-3	3.873825E-3	1.010229E-2	1.100188E-2	1.047374E-2	6.582791E-3	1.336566E-2	7.086069E-3	9.743322E-3	2.455043E-3	9.176534E-3	1.178755E-2	7.497335E-3	-6.679892E-4	1.148737E-2	1.173953E-2	3.711480E-3	-3.160716E-3	9.778355E-3	1.270710E-2	7.190660E-3	4.419348E-3	2.555095E-3	1.999390E-3	9.829952E-3	6.357600E-3	3.294923E-3	7.371725E-3	9.107608E-3	4.150991E-3	-4.517882E-4	1.043327E-2	1.149054E-2	1.871332E-3	9.207420E-3	3.616419E-3	1.183688E-2	8.572400E-3	9.332085E-3	7.513526E-3	3.884544E-3	5.926271E-3	5.910539E-3	1.019268E-2	7.882009E-3	6.798615E-3	8.009327E-3	1.334459E-3	2.642705E-3	3.905268E-3	6.321766E-3	2.992958E-3	7.247240E-3	1.125708E-2	1.438451E-2	1.012934E-2	1.262298E-2	1.386000E-2	-1.486016E-3	6.284859E-3	1.413639E-2	2.933028E-3	2.735846E-3	4.396551E-3	5.198066E-3	5.778873E-3	1.530621E-2	1.142069E-2	3.727798E-3	1.829791E-2	1.091178E-2	1.349409E-2	1.653824E-2	1.245853E-2	6.381462E-3	9.441266E-3	6.820124E-3	6.432737E-3	1.641396E-2	9.963338E-3	4.940864E-3	1.082535E-2	6.866913E-3	1.047092E-2	1.388079E-2	1.905264E-3	8.476002E-3	2.120970E-2	7.615795E-3	1.343296E-3	1.402752E-2	4.838766E-3	1.232726E-2	4.048117E-3	1.139472E-2	1.017196E-2	7.301999E-4	8.609126E-3	1.184371E-2	4.319554E-3	1.298253E-2	5.205614E-3	1.196734E-2	5.993633E-3	1.179555E-2	5.373029E-3	-3.113167E-3	6.317458E-4	7.014043E-3	1.116970E-2	4.959805E-3	5.685030E-3	5.101397E-3	1.288782E-2	8.853020E-3	5.467119E-3	1.132502E-2	6.191606E-3	1.697161E-2	1.698653E-2	1.844398E-2	6.794384E-3	1.122295E-2	8.903766E-3	-4.448725E-4	1.127918E-2	9.299261E-3	6.499018E-3	1.129251E-2	2.091491E-3	2.539121E-3	7.853696E-3	7.456433E-3	5.040690E-4	1.283201E-2	2.104285E-2	8.058158E-3	1.242780E-2	2.839393E-2	5.471269E-3	1.079411E-2	2.800447E-3	8.129623E-3	1.416281E-3	6.374788E-3	1.092862E-2	1.714035E-2	1.273257E-2	5.440679E-3	4.786695E-3	1.624581E-2	1.611725E-2	3.925531E-3	1.090057E-2	2.072129E-2	7.213363E-3	1.419871E-3	5.393720E-3	8.000364E-3	-9.067143E-3
5.330180E+2	2.330401E-2	1.579254E-2	1.083155E-2	2.393102E-2	1.587778E-2	2.734504E-2	2.635735E-2	2.992018E-2	2.883348E-2	2.040701E-2	2.103787E-2	2.285411E-2	2.711679E-2	3.012645E-2	2.111649E-2	2.658717E-2	2.559974E-2	2.861732E-2	1.797441E-2	1.293203E-2	6.518572E-3	2.946147E-2	1.726629E-2	1.968044E-2	2.853434E-2	8.856716E-3	1.378112E-2	2.435091E-2	2.370543E-2	2.118648E-2	1.421196E-2	1.810065E-2	2.485914E-2	2.526692E-2	2.249321E-2	1.726887E-2	1.539209E-2	2.826716E-2	1.376058E-2	1.599207E-2	2.020145E-2	1.744049E-2	2.295328E-2	2.752394E-2	1.534518E-2	1.303628E-2	2.108104E-2	2.246590E-2	1.732726E-2	3.082404E-2	1.824720E-2	2.441729E-2	2.178302E-2	2.414890E-2	1.892933E-2	1.126001E-2	2.851898E-2	3.047027E-2	1.448827E-2	1.955598E-2	2.733689E-2	1.491932E-2	8.785857E-3	1.564739E-2	1.982591E-2	1.295405E-2	2.462642E-2	1.577868E-2	2.665387E-2	2.030908E-2	1.403336E-2	1.780421E-2	2.586387E-2	1.607304E-2	1.428884E-2	1.504707E-2	1.644764E-2	2.208964E-2	1.717467E-2	2.162137E-2	1.412117E-2	3.326768E-2	1.559709E-2	9.450459E-3	9.710372E-3	2.476005E-2	1.888263E-2	2.567130E-2	2.402797E-2	2.096813E-2	1.503901E-2	9.029907E-3	1.440063E-2	2.137453E-2	1.258274E-2	2.313463E-2	2.640173E-2	2.619003E-2	1.627298E-2	3.075231E-2	1.370161E-2	2.796901E-2	1.415114E-2	1.909854E-2	2.455875E-2	3.272561E-2	2.343973E-2	8.240633E-3	2.690345E-2	2.918958E-2	1.583828E-2	2.856150E-2	2.193801E-2	2.831291E-2	1.641736E-2	1.484614E-2	1.488595E-2	1.721388E-2	1.863666E-2	2.623786E-2	1.736473E-2	2.727917E-2	1.193861E-2	1.696999E-2	8.907764E-3	3.043214E-2	2.492633E-2	1.981875E-2	2.138918E-2	2.607373E-2	1.978645E-2	2.223814E-2	2.121171E-2	3.349624E-2	2.147383E-2	3.158473E-2	2.181876E-2	2.406865E-2	2.345294E-2	2.335064E-2	2.173317E-2	2.597706E-2	1.795133E-2	1.097518E-2	3.135082E-2	2.954338E-2	1.667033E-2	2.773509E-2	1.187955E-2	3.800691E-2	1.989550E-2	1.179051E-2	2.365867E-2	2.689011E-2	1.310055E-2	2.104546E-2	3.633033E-2	2.863111E-2	1.914346E-2	2.374120E-2	1.852239E-2	2.251605E-2	2.060348E-2	1.682370E-2	3.636751E-2	3.058854E-2	1.803335E-2	1.419879E-2	2.108463E-2	2.673274E-2	3.526105E-2
5.331630E+2	3.780422E-2	1.703933E-2	1.920142E-2	2.340312E-2	2.865099E-2	1.978916E-2	2.738759E-2	2.754558E-2	2.318657E-2	3.117743E-2	3.020821E-2	1.971390E-2	3.138585E-2	4.744478E-2	2.377824E-2	3.195833E-2	3.340161E-2	3.452120E-2	2.678881E-2	2.037236E-2	2.226473E-2	3.574014E-2	2.324309E-2	1.218313E-2	2.395353E-2	3.200686E-2	1.939566E-2	3.195495E-2	2.844651E-2	3.150809E-2	2.324069E-2	1.909248E-2	3.038339E-2	2.583466E-2	2.849142E-2	1.939429E-2	2.191697E-2	1.005824E-2	2.064085E-2	3.019131E-2	3.680532E-2	3.641720E-2	3.547320E-2	2.752393E-2	3.162601E-2	3.382133E-2	3.166570E-2	3.406128E-2	2.553487E-2	3.138960E-2	1.824719E-2	1.886788E-2	1.649745E-2	3.276139E-2	2.458245E-2	2.573715E-2	2.639991E-2	2.315744E-2	1.849171E-2	2.959831E-2	2.783549E-2	1.694230E-2	1.689579E-2	2.800058E-2	2.789072E-2	2.487485E-2	1.682036E-2	3.734289E-2	2.878619E-2	2.773925E-2	2.281494E-2	2.330590E-2	2.853030E-2	2.992321E-2	2.033413E-2	2.817904E-2	3.351768E-2	3.200388E-2	1.926701E-2	2.857995E-2	1.591119E-2	3.486457E-2	1.770006E-2	1.762871E-2	3.884137E-2	2.578105E-2	1.777186E-2	2.842998E-2	3.310943E-2	2.267594E-2	2.970201E-2	2.180800E-2	7.845858E-3	3.414123E-2	3.317258E-2	3.238845E-2	2.857920E-2	2.504713E-2	2.395230E-2	3.769325E-2	1.477622E-2	4.913937E-2	3.551476E-2	2.639073E-2	2.833699E-2	3.655423E-2	2.343972E-2	3.515324E-2	3.228410E-2	2.974914E-2	3.772394E-2	3.548550E-2	3.309288E-2	3.823702E-2	2.840466E-2	2.338780E-2	2.069936E-2	3.369527E-2	3.095585E-2	2.779654E-2	2.243336E-2	2.899600E-2	2.615121E-2	1.259732E-2	3.619962E-2	4.703149E-2	2.993013E-2	3.255942E-2	3.433523E-2	3.631363E-2	1.922647E-2	2.919419E-2	3.861199E-2	2.261858E-2	3.090135E-2	4.332890E-2	2.292816E-2	2.625672E-2	2.571346E-2	2.966680E-2	2.882606E-2	3.418030E-2	2.636603E-2	2.102881E-2	3.437500E-2	3.610861E-2	2.268257E-2	2.717291E-2	2.284523E-2	3.960907E-2	2.636159E-2	2.424522E-2	3.814359E-2	5.002813E-2	1.894274E-2	2.523710E-2	3.751186E-2	3.437644E-2	3.784171E-2	2.868730E-2	4.162333E-2	2.992644E-2	2.359430E-2	2.411394E-2	1.900372E-2	4.094923E-2	1.508241E-2	2.028399E-2	2.206533E-2	3.258672E-2	1.511180E-2
5.333080E+2	2.951839E-2	4.010468E-2	2.412485E-2	3.290516E-2	3.823090E-2	2.842440E-2	3.253888E-2	2.802053E-2	3.088692E-2	3.968033E-2	2.858993E-2	2.233076E-2	2.237330E-2	3.391478E-2	3.655459E-2	1.960471E-2	3.340159E-2	2.714138E-2	4.078810E-2	2.515545E-2	3.750299E-2	3.670610E-2	3.569473E-2	2.764627E-2	3.368768E-2	3.832056E-2	1.939569E-2	3.847266E-2	3.318759E-2	3.368102E-2	4.430773E-2	2.454748E-2	3.811735E-2	2.469905E-2	2.699189E-2	3.427204E-2	3.396298E-2	3.451028E-2	4.177314E-2	3.793635E-2	2.573607E-2	3.370623E-2	2.785236E-2	3.767837E-2	2.264352E-2	2.288183E-2	4.066257E-2	3.261185E-2	2.991225E-2	2.007803E-2	3.112755E-2	3.107659E-2	1.697792E-2	3.174814E-2	2.509636E-2	3.731887E-2	3.858447E-2	2.211273E-2	2.764219E-2	3.329809E-2	4.129622E-2	2.705712E-2	3.485364E-2	1.960044E-2	3.545144E-2	4.108719E-2	2.072338E-2	4.155053E-2	3.411693E-2	2.427187E-2	2.074869E-2	3.018309E-2	3.919581E-2	3.094915E-2	3.352385E-2	2.216019E-2	2.444922E-2	4.296176E-2	3.391343E-2	3.752673E-2	3.321466E-2	4.284881E-2	3.294662E-2	2.580691E-2	3.939104E-2	3.650194E-2	2.388094E-2	1.785497E-2	3.367705E-2	3.235356E-2	3.816143E-2	2.794154E-2	3.168139E-2	3.123973E-2	2.578136E-2	2.946621E-2	4.382149E-2	2.961848E-2	2.888905E-2	2.149773E-2	3.250768E-2	4.552496E-2	2.236789E-2	3.576637E-2	1.970093E-2	3.710120E-2	2.768546E-2	2.451340E-2	3.981707E-2	3.254684E-2	2.447739E-2	2.567651E-2	3.086192E-2	4.407471E-2	2.110807E-2	3.314957E-2	2.704134E-2	3.369531E-2	4.753935E-2	2.208135E-2	3.426006E-2	3.643575E-2	2.615124E-2	2.446588E-2	2.369084E-2	2.821886E-2	3.993771E-2	3.680632E-2	2.701793E-2	3.005597E-2	2.202643E-2	3.362070E-2	3.811484E-2	3.401418E-2	2.618758E-2	3.905828E-2	3.679602E-2	3.282095E-2	2.966932E-2	3.426034E-2	2.773487E-2	3.652411E-2	3.702457E-2	2.756364E-2	1.864920E-2	2.954348E-2	3.907958E-2	2.211311E-2	2.997297E-2	5.029017E-2	2.685895E-2	3.420900E-2	3.872298E-2	3.064223E-2	3.009592E-2	3.204850E-2	2.392484E-2	3.380189E-2	3.730745E-2	2.670889E-2	3.225809E-2	3.505678E-2	3.306530E-2	2.635716E-2	3.405238E-2	5.278999E-2	3.573883E-2	2.758615E-2	4.364029E-2	2.673271E-2	3.123113E-2
5.334580E+2	4.298289E-2	4.135149E-2	4.726503E-2	4.082351E-2	5.260074E-2	5.109199E-2	5.365910E-2	4.274316E-2	4.834102E-2	5.045069E-2	3.829969E-2	4.169574E-2	4.561628E-2	5.610371E-2	4.294280E-2	4.323774E-2	5.095573E-2	4.878886E-2	5.375043E-2	3.206432E-2	4.461415E-2	5.022940E-2	6.009995E-2	4.029797E-2	4.800260E-2	4.516039E-2	3.879135E-2	4.390412E-2	4.635723E-2	4.074315E-2	5.183167E-2	7.413844E-2	5.855712E-2	5.252100E-2	4.648605E-2	5.127525E-2	4.500512E-2	4.543561E-2	4.521331E-2	3.535470E-2	6.060435E-2	4.834542E-2	5.017054E-2	5.371179E-2	3.724012E-2	3.491529E-2	4.489640E-2	4.855538E-2	3.866708E-2	3.421750E-2	4.722803E-2	4.495009E-2	5.157450E-2	4.137393E-2	3.280516E-2	3.249312E-2	4.441191E-2	3.882785E-2	3.050175E-2	5.021145E-2	3.930203E-2	3.565469E-2	4.412221E-2	5.122457E-2	4.452433E-2	3.345784E-2	5.362050E-2	5.049176E-2	4.851003E-2	5.646918E-2	2.953026E-2	4.026955E-2	3.599611E-2	4.069560E-2	4.781269E-2	5.116000E-2	5.165455E-2	4.609259E-2	4.803675E-2	4.647347E-2	4.574474E-2	3.859050E-2	3.031794E-2	3.889212E-2	4.488747E-2	5.437003E-2	3.998668E-2	3.440720E-2	4.446123E-2	4.715458E-2	4.662091E-2	5.400882E-2	6.028402E-2	5.387158E-2	5.217865E-2	4.651275E-2	3.184539E-2	5.247519E-2	3.656842E-2	4.868316E-2	4.217940E-2	5.895007E-2	2.675019E-2	5.035074E-2	4.992712E-2	5.350958E-2	3.883033E-2	4.078615E-2	4.950232E-2	5.604773E-2	4.636297E-2	5.971956E-2	4.480550E-2	5.983653E-2	4.560382E-2	4.840250E-2	4.395314E-2	5.896681E-2	4.706551E-2	5.533331E-2	5.284512E-2	5.532131E-2	4.150086E-2	4.507976E-2	4.302259E-2	5.311792E-2	4.605348E-2	5.220128E-2	4.221548E-2	4.370910E-2	4.946615E-2	5.322399E-2	4.457778E-2	5.058964E-2	4.242394E-2	6.147904E-2	4.511666E-2	4.649633E-2	3.532071E-2	3.827973E-2	3.919248E-2	6.464967E-2	4.263434E-2	4.917899E-2	5.433469E-2	4.983589E-2	4.727813E-2	3.560587E-2	3.984212E-2	5.723291E-2	3.630940E-2	5.563121E-2	5.320793E-2	5.252952E-2	3.646920E-2	5.195872E-2	4.637288E-2	4.069630E-2	4.906064E-2	4.253636E-2	3.975021E-2	5.329763E-2	4.502857E-2	3.252579E-2	6.299202E-2	4.933652E-2	4.065706E-2	3.488845E-2	4.756298E-2	6.888079E-2	6.145473E-2
5.336030E+2	5.126877E-2	6.878061E-2	4.874204E-2	3.818404E-2	6.218071E-2	7.699776E-2	7.838521E-2	5.461633E-2	5.347456E-2	6.292159E-2	7.444174E-2	4.117236E-2	4.703928E-2	6.097451E-2	6.104257E-2	6.418508E-2	6.509658E-2	5.862872E-2	7.863819E-2	7.086030E-2	5.680474E-2	5.650810E-2	6.657480E-2	4.498386E-2	4.742994E-2	5.305248E-2	5.002044E-2	5.313755E-2	6.637512E-2	7.768350E-2	5.785085E-2	6.372433E-2	8.396870E-2	5.706334E-2	6.548034E-2	6.190228E-2	6.257206E-2	6.208384E-2	6.437976E-2	4.783287E-2	6.392510E-2	5.268294E-2	5.017056E-2	5.638394E-2	4.678406E-2	4.585482E-2	7.294569E-2	6.159999E-2	5.234652E-2	6.136528E-2	6.332851E-2	5.826854E-2	5.926266E-2	5.910574E-2	5.747322E-2	7.688958E-2	5.447739E-2	6.546762E-2	6.081284E-2	4.704015E-2	6.073955E-2	5.588427E-2	5.165293E-2	6.357780E-2	6.468629E-2	7.065074E-2	6.811766E-2	6.837436E-2	6.130393E-2	7.826408E-2	6.310704E-2	4.622977E-2	5.732727E-2	4.479945E-2	3.682124E-2	4.623551E-2	5.165458E-2	6.174667E-2	6.216001E-2	6.983437E-2	5.767812E-2	7.052750E-2	4.977042E-2	5.633908E-2	8.061416E-2	5.641214E-2	5.387095E-2	5.095940E-2	5.921860E-2	6.195568E-2	6.184789E-2	5.247559E-2	4.002383E-2	6.373678E-2	6.432141E-2	6.258517E-2	6.341869E-2	5.418943E-2	5.028158E-2	4.579105E-2	4.379134E-2	6.411360E-2	5.140054E-2	5.399680E-2	5.964269E-2	6.882405E-2	6.005870E-2	6.206581E-2	5.326873E-2	6.444081E-2	5.500203E-2	6.375859E-2	7.101947E-2	7.443086E-2	5.602750E-2	7.036669E-2	5.399459E-2	7.599741E-2	6.838705E-2	6.624394E-2	5.622409E-2	8.393585E-2	6.424104E-2	5.007702E-2	4.472831E-2	6.584414E-2	5.995296E-2	6.441108E-2	6.585619E-2	5.622451E-2	5.058616E-2	7.598913E-2	6.595521E-2	5.317959E-2	4.242397E-2	6.468201E-2	5.010912E-2	7.056505E-2	5.623057E-2	6.239597E-2	7.520233E-2	6.816542E-2	4.936608E-2	5.772452E-2	6.280245E-2	6.356308E-2	3.962611E-2	6.034265E-2	6.396665E-2	6.631184E-2	4.476501E-2	5.862034E-2	5.378733E-2	6.753795E-2	6.196223E-2	6.086592E-2	6.704869E-2	5.850695E-2	6.615602E-2	5.688000E-2	6.659735E-2	7.210852E-2	4.502858E-2	6.056528E-2	4.678581E-2	7.992490E-2	4.901799E-2	5.618657E-2	6.031195E-2	6.888075E-2	5.138034E-2
5.337580E+2	8.337648E-2	8.374196E-2	8.419072E-2	7.513639E-2	7.282499E-2	1.061418E-1	9.899030E-2	7.788755E-2	8.068243E-2	8.672983E-2	8.630931E-2	7.571537E-2	8.498685E-2	8.803433E-2	1.004363E-1	9.587518E-2	7.631164E-2	9.552768E-2	7.760120E-2	1.022162E-1	7.153495E-2	7.244628E-2	8.898754E-2	7.450418E-2	9.037452E-2	7.304569E-2	8.677005E-2	7.540632E-2	8.850020E-2	8.420238E-2	8.393381E-2	7.860153E-2	9.612182E-2	9.453763E-2	8.797353E-2	7.996812E-2	8.013904E-2	6.000284E-2	9.828973E-2	6.031096E-2	7.831514E-2	8.250364E-2	8.174258E-2	7.615865E-2	7.822292E-2	9.836477E-2	8.035502E-2	8.575688E-2	8.079945E-2	8.002938E-2	8.908921E-2	8.435047E-2	8.953460E-2	8.494322E-2	8.368314E-2	7.737227E-2	7.566782E-2	9.315191E-2	7.739820E-2	7.769566E-2	7.469888E-2	7.004498E-2	7.945842E-2	7.889565E-2	1.004736E-1	8.257172E-2	9.097831E-2	8.152294E-2	9.915224E-2	8.965713E-2	8.428610E-2	7.740627E-2	6.745934E-2	1.012260E-1	8.463388E-2	7.961259E-2	8.739496E-2	8.157516E-2	7.889856E-2	8.921901E-2	8.035164E-2	8.702807E-2	9.183014E-2	7.433123E-2	8.830908E-2	9.163763E-2	8.552707E-2	7.348888E-2	6.886764E-2	8.244931E-2	8.553440E-2	7.343159E-2	8.769485E-2	9.333238E-2	8.015949E-2	7.670935E-2	8.845937E-2	8.733174E-2	8.538724E-2	1.018971E-1	8.838843E-2	8.734931E-2	8.207628E-2	8.316534E-2	8.231235E-2	9.781218E-2	6.112018E-2	8.522311E-2	8.555300E-2	8.682257E-2	8.495065E-2	9.837859E-2	7.603929E-2	8.669003E-2	7.843849E-2	9.904221E-2	7.143477E-2	1.023678E-1	1.043970E-1	8.702673E-2	9.789954E-2	8.908638E-2	8.357024E-2	7.693753E-2	6.235420E-2	9.018961E-2	8.775191E-2	8.989244E-2	8.555652E-2	7.272206E-2	7.242591E-2	9.685717E-2	1.161674E-1	9.513597E-2	6.232653E-2	9.030553E-2	7.950876E-2	6.782995E-2	8.448698E-2	7.043474E-2	7.520240E-2	7.050905E-2	9.312224E-2	9.341488E-2	8.881057E-2	9.221130E-2	8.608439E-2	8.058179E-2	8.809102E-2	8.927630E-2	8.604840E-2	7.705345E-2	9.492467E-2	1.056845E-1	7.364660E-2	8.968339E-2	7.768207E-2	9.987368E-2	8.325162E-2	8.457797E-2	9.282007E-2	1.011801E-1	7.942308E-2	8.411854E-2	9.540420E-2	1.016330E-1	7.705174E-2	7.565922E-2	1.093459E-1	1.016624E-1	7.958901E-2
5.339090E+2	1.501811E-1	1.292496E-1	1.019153E-1	1.147282E-1	1.382877E-1	1.315079E-1	1.386551E-1	1.225302E-1	1.078904E-1	1.541865E-1	1.316215E-1	1.055478E-1	1.196140E-1	1.280823E-1	1.483480E-1	1.291760E-1	1.265360E-1	1.235709E-1	1.356725E-1	1.399494E-1	1.294399E-1	1.289543E-1	1.432769E-1	1.302656E-1	1.264481E-1	1.256600E-1	1.240303E-1	1.215737E-1	1.290627E-1	1.428724E-1	1.305824E-1	1.346392E-1	1.419734E-1	1.303087E-1	1.299613E-1	1.160996E-1	1.253118E-1	1.343993E-1	1.346571E-1	1.046297E-1	1.198248E-1	1.269630E-1	1.176695E-1	1.285338E-1	1.366092E-1	1.366531E-1	1.470378E-1	1.548459E-1	1.294980E-1	1.371531E-1	1.400743E-1	1.331852E-1	1.255724E-1	1.204064E-1	1.350751E-1	1.198385E-1	1.180491E-1	1.511325E-1	1.265822E-1	1.194502E-1	1.180723E-1	1.079755E-1	1.142159E-1	1.253440E-1	1.266844E-1	1.335929E-1	1.300087E-1	1.409564E-1	1.311373E-1	1.411729E-1	1.436907E-1	1.154600E-1	1.090549E-1	1.335431E-1	1.170586E-1	1.228388E-1	1.172670E-1	1.426260E-1	1.285918E-1	1.250061E-1	1.304720E-1	1.333368E-1	1.338897E-1	1.059536E-1	1.295321E-1	1.569840E-1	1.255135E-1	1.162486E-1	1.125721E-1	1.353915E-1	1.396747E-1	1.168774E-1	1.317906E-1	1.531039E-1	1.324265E-1	1.181082E-1	1.194884E-1	1.484736E-1	1.473706E-1	1.389159E-1	1.431947E-1	1.425989E-1	1.341160E-1	1.274395E-1	1.357477E-1	1.268003E-1	1.417882E-1	1.384222E-1	1.183748E-1	1.427772E-1	1.269942E-1	1.301135E-1	1.412956E-1	1.438994E-1	1.170061E-1	1.393097E-1	1.311547E-1	1.336827E-1	1.603071E-1	1.410610E-1	1.215529E-1	1.371590E-1	1.415578E-1	1.300338E-1	1.362697E-1	1.394343E-1	1.389017E-1	1.350154E-1	1.440954E-1	1.478142E-1	1.340252E-1	1.341666E-1	1.504704E-1	1.355385E-1	1.429843E-1	1.404852E-1	1.216671E-1	1.269076E-1	1.359140E-1	1.445059E-1	1.270343E-1	1.519563E-1	1.323908E-1	1.351376E-1	1.414310E-1	1.387646E-1	1.330891E-1	1.115025E-1	1.220850E-1	1.453518E-1	1.104201E-1	1.463017E-1	1.546023E-1	1.457070E-1	1.347236E-1	1.268838E-1	1.267132E-1	1.349201E-1	1.307986E-1	1.325552E-1	1.252861E-1	1.410822E-1	1.168086E-1	1.351502E-1	1.642808E-1	1.623168E-1	1.183645E-1	1.200809E-1	1.338629E-1	1.391274E-1	1.037680E-1
5.340430E+2	1.745210E-1	1.878480E-1	1.669050E-1	1.696288E-1	1.787364E-1	1.800813E-1	1.989251E-1	1.681231E-1	2.085080E-1	2.114391E-1	1.796306E-1	1.704464E-1	1.736897E-1	2.065555E-1	2.042444E-1	2.161885E-1	1.816365E-1	1.880216E-1	2.020396E-1	2.090384E-1	1.898852E-1	1.883602E-1	2.080254E-1	1.789985E-1	1.911516E-1	1.824833E-1	2.005923E-1	1.715429E-1	1.928042E-1	1.798129E-1	1.842530E-1	1.753038E-1	2.032927E-1	1.984443E-1	1.849444E-1	1.830501E-1	1.780129E-1	1.827828E-1	1.852760E-1	1.519607E-1	1.862410E-1	1.692544E-1	2.107523E-1	2.012186E-1	1.629959E-1	1.656428E-1	1.793212E-1	1.920478E-1	1.765551E-1	1.914482E-1	2.264797E-1	1.964488E-1	2.062979E-1	1.741084E-1	2.131907E-1	1.613395E-1	1.821506E-1	1.861299E-1	2.100812E-1	1.797040E-1	1.744080E-1	1.433772E-1	1.866263E-1	1.782156E-1	2.118687E-1	1.898591E-1	1.896700E-1	1.583127E-1	1.967058E-1	2.035861E-1	2.041289E-1	1.512210E-1	1.853137E-1	1.827882E-1	1.928994E-1	1.518385E-1	1.775456E-1	1.828047E-1	1.746235E-1	1.776927E-1	1.829787E-1	1.817746E-1	1.948758E-1	1.735608E-1	2.042835E-1	2.003779E-1	2.032659E-1	1.576296E-1	2.079275E-1	2.099662E-1	1.904315E-1	1.501007E-1	1.967427E-1	2.151963E-1	1.809976E-1	1.780150E-1	1.826348E-1	1.856153E-1	2.022235E-1	1.950218E-1	2.060610E-1	2.154044E-1	1.965634E-1	1.581706E-1	1.816266E-1	1.951687E-1	2.012278E-1	2.091461E-1	2.017755E-1	1.791478E-1	1.822838E-1	2.276266E-1	1.847996E-1	2.005251E-1	1.790272E-1	1.984911E-1	1.845326E-1	2.089476E-1	2.256935E-1	1.909389E-1	2.099720E-1	2.046893E-1	2.126208E-1	1.731352E-1	1.857360E-1	1.892327E-1	2.028392E-1	2.072126E-1	1.970057E-1	1.995829E-1	1.905845E-1	1.929766E-1	1.788080E-1	2.008047E-1	2.105482E-1	1.997400E-1	2.082026E-1	1.974731E-1	1.901667E-1	1.864223E-1	1.996000E-1	2.046915E-1	1.896105E-1	1.934484E-1	1.976812E-1	1.930767E-1	1.992239E-1	1.598515E-1	2.147452E-1	2.040982E-1	1.830388E-1	1.876519E-1	2.148596E-1	1.913575E-1	1.910206E-1	1.782317E-1	1.976015E-1	2.073117E-1	2.173447E-1	2.022951E-1	2.027057E-1	2.094851E-1	1.821084E-1	1.822567E-1	2.169512E-1	2.304014E-1	2.009904E-1	1.572006E-1	1.828972E-1	2.257651E-1	2.347372E-1
5.342040E+2	3.076124E-1	3.418251E-1	2.875290E-1	3.037129E-1	3.112581E-1	3.436116E-1	3.374944E-1	2.916032E-1	3.286332E-1	3.423841E-1	3.333694E-1	2.709352E-1	3.093524E-1	3.510546E-1	3.165701E-1	3.209261E-1	3.186561E-1	3.233189E-1	3.415143E-1	3.312727E-1	2.950291E-1	3.139342E-1	3.693989E-1	3.041095E-1	3.537687E-1	3.397992E-1	3.327888E-1	3.339429E-1	3.339829E-1	3.275754E-1	3.262053E-1	3.394496E-1	3.264834E-1	2.955372E-1	3.284017E-1	3.233263E-1	3.687408E-1	3.430213E-1	3.553174E-1	2.801840E-1	3.013614E-1	3.123927E-1	3.305089E-1	3.123829E-1	2.960495E-1	3.445038E-1	3.322690E-1	3.205624E-1	3.002168E-1	3.452860E-1	3.429397E-1	3.285239E-1	3.100876E-1	3.367334E-1	3.468093E-1	3.027330E-1	3.029370E-1	3.135827E-1	3.210309E-1	2.806556E-1	3.284584E-1	2.768928E-1	3.482468E-1	3.274424E-1	3.373767E-1	3.195581E-1	3.552704E-1	2.940095E-1	3.331735E-1	3.368340E-1	3.322375E-1	2.786775E-1	3.228989E-1	3.294975E-1	3.682133E-1	3.039504E-1	3.295755E-1	3.153427E-1	3.205640E-1	3.248176E-1	3.190199E-1	3.462504E-1	3.436614E-1	3.065936E-1	3.307011E-1	3.632325E-1	3.576583E-1	3.033811E-1	3.242835E-1	3.437446E-1	3.404452E-1	3.049710E-1	3.767005E-1	3.741996E-1	3.261825E-1	3.173097E-1	3.345129E-1	3.421838E-1	3.218024E-1	3.124400E-1	3.264197E-1	3.460415E-1	3.515867E-1	2.764081E-1	3.241216E-1	3.253419E-1	3.498268E-1	3.537230E-1	3.126176E-1	3.235100E-1	3.095661E-1	3.741852E-1	3.164272E-1	3.593113E-1	3.359047E-1	3.497998E-1	3.578787E-1	3.589282E-1	3.711539E-1	3.332983E-1	3.203550E-1	3.563459E-1	3.280273E-1	3.161831E-1	3.381158E-1	3.342003E-1	3.290463E-1	3.542612E-1	3.461670E-1	3.196167E-1	2.717833E-1	3.498028E-1	3.339193E-1	3.401419E-1	3.362487E-1	3.433399E-1	3.174809E-1	3.150813E-1	3.201470E-1	3.127452E-1	3.376376E-1	3.312566E-1	3.393920E-1	3.311834E-1	3.343749E-1	3.398988E-1	3.489834E-1	2.914060E-1	3.781342E-1	3.712570E-1	3.417058E-1	3.191738E-1	3.539150E-1	3.501972E-1	3.009597E-1	3.191747E-1	3.446952E-1	3.532438E-1	3.183153E-1	3.432581E-1	3.712801E-1	3.616825E-1	3.765122E-1	3.336700E-1	3.691736E-1	3.863043E-1	3.716518E-1	3.020281E-1	3.682454E-1	3.369888E-1	4.241387E-1
5.343600E+2	5.924390E-1	6.560138E-1	5.366551E-1	5.122295E-1	5.928010E-1	6.496243E-1	6.038152E-1	5.271656E-1	5.735038E-1	6.450877E-1	6.780668E-1	5.331474E-1	5.821014E-1	6.616999E-1	6.524827E-1	6.974437E-1	5.902577E-1	6.509830E-1	6.702388E-1	6.039081E-1	6.221426E-1	6.317315E-1	6.393505E-1	5.510518E-1	5.896780E-1	5.797192E-1	6.022871E-1	5.370786E-1	6.379389E-1	6.187523E-1	6.171314E-1	6.345157E-1	6.607006E-1	5.800023E-1	5.933218E-1	5.820934E-1	6.121695E-1	5.906629E-1	6.118540E-1	5.211408E-1	5.653642E-1	5.992121E-1	5.972388E-1	6.031212E-1	5.806836E-1	6.240085E-1	6.238756E-1	6.225240E-1	5.869373E-1	5.890505E-1	6.193313E-1	5.971149E-1	5.931066E-1	6.396920E-1	6.597859E-1	5.570478E-1	5.731164E-1	6.384834E-1	6.018377E-1	5.554966E-1	5.931869E-1	5.327970E-1	6.720667E-1	6.071183E-1	6.261968E-1	6.356989E-1	6.050664E-1	6.027455E-1	5.911827E-1	6.107585E-1	6.390764E-1	5.418437E-1	5.948700E-1	5.931636E-1	6.276099E-1	5.846463E-1	6.021623E-1	5.793750E-1	6.192458E-1	6.121077E-1	5.612681E-1	6.139886E-1	6.207283E-1	5.355841E-1	6.280576E-1	6.343168E-1	6.808845E-1	5.594811E-1	6.347555E-1	6.528589E-1	6.472409E-1	5.579785E-1	6.889459E-1	6.492640E-1	6.381985E-1	6.314532E-1	6.279256E-1	6.450351E-1	6.152634E-1	6.091664E-1	6.369889E-1	6.625649E-1	6.413652E-1	5.790332E-1	6.404169E-1	6.103009E-1	6.167739E-1	6.635301E-1	5.924136E-1	6.172711E-1	6.125092E-1	7.290408E-1	6.237451E-1	6.862227E-1	5.662683E-1	6.695006E-1	6.437946E-1	6.369148E-1	6.942953E-1	5.910013E-1	6.317934E-1	6.287556E-1	6.225129E-1	6.403824E-1	6.548151E-1	6.540139E-1	5.831280E-1	6.690616E-1	5.870762E-1	6.353463E-1	5.646609E-1	6.179248E-1	6.003911E-1	5.867011E-1	5.928875E-1	6.027797E-1	6.131431E-1	5.699909E-1	5.919750E-1	5.895077E-1	5.984363E-1	6.394654E-1	5.929541E-1	6.554121E-1	6.083673E-1	6.126532E-1	6.375712E-1	5.562012E-1	6.341838E-1	6.329440E-1	6.097983E-1	6.235680E-1	6.720033E-1	6.628730E-1	6.127182E-1	5.732923E-1	6.607396E-1	6.445339E-1	6.126794E-1	6.444754E-1	6.803328E-1	6.803279E-1	6.182703E-1	5.849037E-1	6.649367E-1	7.060042E-1	6.278893E-1	5.789046E-1	6.036093E-1	6.413907E-1	6.498080E-1
5.345160E+2	1.011393E+0	1.136024E+0	8.684952E-1	8.944218E-1	1.040395E+0	1.039830E+0	9.814040E-1	8.942819E-1	9.995892E-1	9.971086E-1	1.087496E+0	9.220165E-1	9.260023E-1	1.061642E+0	1.062924E+0	1.127673E+0	9.506046E-1	1.011119E+0	1.033702E+0	1.039700E+0	1.012749E+0	1.042259E+0	1.101056E+0	8.907739E-1	1.025996E+0	9.874778E-1	1.017252E+0	9.677914E-1	1.012484E+0	1.021295E+0	1.018911E+0	1.041161E+0	1.017015E+0	9.859758E-1	9.807057E-1	9.588197E-1	1.026250E+0	9.782532E-1	1.028602E+0	8.666555E-1	9.317577E-1	9.868787E-1	9.733813E-1	9.585271E-1	9.568273E-1	1.021113E+0	9.842818E-1	1.013866E+0	9.721487E-1	9.826936E-1	1.034723E+0	9.844618E-1	9.347474E-1	1.008005E+0	1.045739E+0	8.938825E-1	9.317669E-1	1.058451E+0	1.026765E+0	9.630021E-1	9.416706E-1	8.220805E-1	1.030644E+0	9.955033E-1	9.558450E-1	1.002861E+0	1.037748E+0	9.067475E-1	1.022443E+0	1.000594E+0	1.021851E+0	8.604855E-1	9.436326E-1	9.327497E-1	1.063421E+0	9.430398E-1	9.254252E-1	9.910773E-1	1.051837E+0	1.013718E+0	1.003401E+0	1.032362E+0	9.514215E-1	8.807065E-1	1.039189E+0	1.050388E+0	1.111852E+0	8.450067E-1	1.005959E+0	1.043948E+0	1.081492E+0	8.779434E-1	1.051842E+0	1.096679E+0	9.776674E-1	9.436491E-1	1.042188E+0	1.065599E+0	1.004169E+0	1.011163E+0	1.011499E+0	1.037435E+0	1.033580E+0	9.952081E-1	1.031737E+0	9.871469E-1	1.047711E+0	1.038429E+0	1.002421E+0	1.012310E+0	9.897483E-1	1.105245E+0	1.021975E+0	1.030648E+0	9.592431E-1	1.016656E+0	1.054965E+0	1.073672E+0	1.063870E+0	9.354706E-1	9.978597E-1	9.749908E-1	9.772596E-1	1.031420E+0	9.817489E-1	1.045759E+0	1.005671E+0	1.095874E+0	9.799614E-1	9.891911E-1	9.096174E-1	1.078919E+0	9.677846E-1	9.653471E-1	9.369922E-1	9.844658E-1	9.803631E-1	9.769706E-1	9.655271E-1	9.971868E-1	9.798130E-1	9.734568E-1	1.009761E+0	9.821547E-1	9.936491E-1	9.701585E-1	9.999452E-1	9.632322E-1	9.922142E-1	1.001976E+0	9.947775E-1	1.005181E+0	1.077002E+0	1.102495E+0	9.956446E-1	9.484429E-1	1.078391E+0	1.121974E+0	1.017630E+0	1.011970E+0	1.108637E+0	1.056547E+0	1.000100E+0	9.707267E-1	1.123920E+0	1.159406E+0	1.035608E+0	8.929002E-1	9.850934E-1	1.095654E+0	1.159583E+0
5.346620E+2	1.454168E+0	1.503826E+0	1.211167E+0	1.306176E+0	1.417204E+0	1.499659E+0	1.387841E+0	1.511210E+0	1.291687E+0	1.438126E+0	1.548170E+0	1.386253E+0	1.363350E+0	1.510832E+0	1.502644E+0	1.589053E+0	1.307540E+0	1.441609E+0	1.498791E+0	1.443075E+0	1.409452E+0	1.455206E+0	1.410355E+0	1.339206E+0	1.389595E+0	1.415231E+0	1.410781E+0	1.356682E+0	1.395459E+0	1.437419E+0	1.439751E+0	1.439871E+0	1.462824E+0	1.367536E+0	1.387084E+0	1.333952E+0	1.502067E+0	1.425672E+0	1.502851E+0	1.252186E+0	1.304792E+0	1.389729E+0	1.385453E+0	1.393568E+0	1.388550E+0	1.469635E+0	1.361624E+0	1.490238E+0	1.307567E+0	1.406876E+0	1.471046E+0	1.355160E+0	1.347502E+0	1.431031E+0	1.476402E+0	1.247125E+0	1.338095E+0	1.449167E+0	1.386497E+0	1.276956E+0	1.377899E+0	1.126536E+0	1.415867E+0	1.393772E+0	1.416547E+0	1.405786E+0	1.438647E+0	1.348553E+0	1.401993E+0	1.405291E+0	1.501221E+0	1.219016E+0	1.353192E+0	1.336458E+0	1.393712E+0	1.337000E+0	1.352710E+0	1.362078E+0	1.461412E+0	1.379041E+0	1.390639E+0	1.365039E+0	1.366234E+0	1.235644E+0	1.429985E+0	1.497600E+0	1.437855E+0	1.167317E+0	1.409516E+0	1.499364E+0	1.480778E+0	1.273044E+0	1.496969E+0	1.491284E+0	1.387355E+0	1.378579E+0	1.391674E+0	1.461018E+0	1.426534E+0	1.369779E+0	1.396756E+0	1.465491E+0	1.408265E+0	1.328565E+0	1.408483E+0	1.426344E+0	1.437784E+0	1.526607E+0	1.331181E+0	1.440920E+0	1.357197E+0	1.548381E+0	1.429129E+0	1.486575E+0	1.284464E+0	1.408959E+0	1.414340E+0	1.486258E+0	1.482722E+0	1.368265E+0	1.406164E+0	1.396768E+0	1.395680E+0	1.410589E+0	1.422968E+0	1.472361E+0	1.358162E+0	1.532241E+0	1.367781E+0	1.387977E+0	1.287052E+0	1.459601E+0	1.382407E+0	1.386985E+0	1.354423E+0	1.365085E+0	1.315409E+0	1.346755E+0	1.345297E+0	1.354911E+0	1.401563E+0	1.391824E+0	1.380005E+0	1.405411E+0	1.470261E+0	1.416591E+0	1.386366E+0	1.273003E+0	1.436327E+0	1.421744E+0	1.415071E+0	1.338967E+0	1.458245E+0	1.543371E+0	1.361047E+0	1.361318E+0	1.471819E+0	1.501169E+0	1.380910E+0	1.411615E+0	1.550055E+0	1.506868E+0	1.376944E+0	1.358233E+0	1.548175E+0	1.588635E+0	1.401523E+0	1.259837E+0	1.411690E+0	1.489034E+0	1.427565E+0
5.348120E+2	1.800103E+0	1.956403E+0	1.559255E+0	1.698401E+0	1.875976E+0	1.881231E+0	1.797880E+0	1.831780E+0	1.718801E+0	1.839466E+0	1.918220E+0	1.730112E+0	1.690172E+0	1.894540E+0	1.918940E+0	1.980075E+0	1.713721E+0	1.876037E+0	1.866401E+0	1.903313E+0	1.822915E+0	1.917896E+0	1.889991E+0	1.805913E+0	1.871718E+0	1.763535E+0	1.844122E+0	1.780879E+0	1.875890E+0	1.796503E+0	1.848047E+0	1.836103E+0	1.853939E+0	1.745119E+0	1.803959E+0	1.837143E+0	1.899082E+0	1.801297E+0	1.836054E+0	1.769382E+0	1.676721E+0	1.800164E+0	1.806777E+0	1.831277E+0	1.674307E+0	1.900105E+0	1.816761E+0	1.900424E+0	1.744216E+0	1.797693E+0	1.892877E+0	1.948393E+0	1.746325E+0	1.772999E+0	1.881886E+0	1.928033E+0	1.716874E+0	1.847717E+0	1.826865E+0	1.902750E+0	1.783215E+0	1.460324E+0	1.812681E+0	1.815755E+0	1.754258E+0	1.815386E+0	1.868543E+0	1.720927E+0	1.760756E+0	1.781750E+0	1.917055E+0	1.639897E+0	1.763281E+0	1.704255E+0	1.836666E+0	1.796072E+0	1.733053E+0	1.780041E+0	1.822865E+0	1.738405E+0	1.771318E+0	1.825994E+0	1.744769E+0	1.595486E+0	1.826275E+0	1.908055E+0	1.901585E+0	1.525031E+0	1.772774E+0	1.886468E+0	1.910516E+0	1.703413E+0	1.911707E+0	1.950886E+0	1.776450E+0	1.778930E+0	1.829344E+0	1.867297E+0	1.801177E+0	1.759052E+0	1.812102E+0	1.910068E+0	1.768708E+0	1.739528E+0	1.862955E+0	1.828350E+0	1.834226E+0	1.827030E+0	1.724511E+0	1.858343E+0	1.774174E+0	1.994401E+0	1.723622E+0	1.952423E+0	1.755616E+0	1.888513E+0	1.820222E+0	1.949382E+0	1.888305E+0	1.718449E+0	1.701273E+0	1.834570E+0	1.718591E+0	1.820995E+0	1.739100E+0	1.855257E+0	1.759021E+0	1.898002E+0	1.794438E+0	1.733288E+0	1.584412E+0	1.866845E+0	1.775156E+0	1.808625E+0	1.726287E+0	1.723815E+0	1.735882E+0	1.688636E+0	1.747103E+0	1.662677E+0	1.718010E+0	1.801404E+0	1.740716E+0	1.827666E+0	1.810788E+0	1.752013E+0	1.883199E+0	1.680034E+0	1.757621E+0	1.785437E+0	1.735887E+0	1.639377E+0	1.851657E+0	1.924205E+0	1.721133E+0	1.688789E+0	1.923736E+0	1.880937E+0	1.796011E+0	1.822139E+0	1.985847E+0	1.929262E+0	1.805631E+0	1.740692E+0	1.891401E+0	2.014403E+0	1.785141E+0	1.576270E+0	1.836325E+0	1.863682E+0	1.917188E+0
5.349530E+2	2.065770E+0	2.270593E+0	1.747328E+0	1.924866E+0	2.050540E+0	2.189938E+0	2.072443E+0	2.139059E+0	1.950324E+0	2.177314E+0	2.151257E+0	1.925331E+0	1.969090E+0	2.178666E+0	2.160094E+0	2.285154E+0	1.912180E+0	2.022647E+0	2.177496E+0	2.190297E+0	2.069773E+0	2.154073E+0	2.088721E+0	1.963355E+0	2.067548E+0	2.037654E+0	2.062579E+0	2.035069E+0	2.076067E+0	2.107780E+0	2.061728E+0	2.105878E+0	2.120761E+0	2.034124E+0	2.014895E+0	2.073593E+0	2.089311E+0	2.078072E+0	2.221346E+0	2.041319E+0	1.903639E+0	1.980715E+0	2.119775E+0	2.082995E+0	1.954449E+0	2.119444E+0	2.051209E+0	2.107689E+0	1.962538E+0	1.969067E+0	2.109159E+0	2.182018E+0	1.938529E+0	2.065830E+0	2.129082E+0	2.242668E+0	1.922422E+0	2.072327E+0	1.990430E+0	2.087211E+0	1.942252E+0	1.635815E+0	2.101742E+0	2.004018E+0	1.961424E+0	1.944131E+0	2.094362E+0	1.923948E+0	1.971854E+0	2.074993E+0	2.143315E+0	1.984672E+0	2.006984E+0	1.898670E+0	2.024068E+0	2.039561E+0	1.906953E+0	1.977283E+0	2.067671E+0	1.928774E+0	1.970006E+0	2.047958E+0	1.946655E+0	2.014210E+0	2.084611E+0	2.119412E+0	2.025990E+0	2.020215E+0	1.930564E+0	2.122146E+0	2.087604E+0	2.013151E+0	2.125038E+0	2.220149E+0	2.047814E+0	2.019530E+0	2.022048E+0	2.175865E+0	2.031011E+0	1.983477E+0	1.981352E+0	2.082529E+0	1.941256E+0	2.065596E+0	2.023806E+0	1.980949E+0	1.989191E+0	2.110552E+0	1.946194E+0	2.081601E+0	1.979786E+0	2.243089E+0	1.935005E+0	2.149153E+0	1.888516E+0	2.037383E+0	2.007312E+0	2.176275E+0	2.041823E+0	1.942381E+0	2.061145E+0	2.054898E+0	1.948264E+0	2.063363E+0	1.983589E+0	2.038953E+0	1.931932E+0	2.146979E+0	2.031409E+0	2.000098E+0	1.819047E+0	2.115365E+0	1.969046E+0	1.972822E+0	1.924788E+0	1.935211E+0	2.028219E+0	1.893222E+0	1.955641E+0	1.895227E+0	1.971176E+0	1.983634E+0	1.910692E+0	1.975454E+0	1.989215E+0	2.030736E+0	1.947694E+0	1.871183E+0	2.007641E+0	1.992116E+0	1.996024E+0	1.909897E+0	2.108329E+0	2.160592E+0	1.931452E+0	1.906228E+0	2.040112E+0	2.111899E+0	1.976585E+0	2.038284E+0	2.194381E+0	2.117941E+0	1.953178E+0	1.909486E+0	2.199320E+0	2.194978E+0	2.004003E+0	1.724138E+0	1.916741E+0	2.061544E+0	1.957487E+0
5.351140E+2	2.055412E+0	2.214486E+0	1.731081E+0	1.891606E+0	2.066510E+0	2.193717E+0	2.013204E+0	2.149980E+0	1.912851E+0	2.106458E+0	2.141010E+0	1.902304E+0	1.933516E+0	2.136455E+0	2.127621E+0	2.240035E+0	1.921447E+0	2.015759E+0	2.118388E+0	2.138213E+0	1.976820E+0	2.040570E+0	2.168412E+0	1.996625E+0	2.066404E+0	2.007139E+0	2.040629E+0	2.030181E+0	2.070798E+0	2.039871E+0	1.998529E+0	2.072155E+0	2.084301E+0	2.008006E+0	2.047887E+0	2.056587E+0	2.136989E+0	1.976624E+0	2.112739E+0	1.987967E+0	1.887037E+0	1.927040E+0	1.997842E+0	2.007641E+0	1.901119E+0	2.061463E+0	2.056502E+0	2.105276E+0	1.917667E+0	2.009785E+0	2.082863E+0	2.153162E+0	1.947659E+0	1.978688E+0	2.076148E+0	2.212750E+0	1.854618E+0	2.027405E+0	2.009300E+0	2.136893E+0	1.943249E+0	1.634804E+0	2.098842E+0	2.047503E+0	2.021405E+0	1.985136E+0	2.127259E+0	1.957610E+0	1.985715E+0	1.995738E+0	2.131431E+0	2.044273E+0	1.930726E+0	1.960228E+0	2.071333E+0	2.042844E+0	1.874944E+0	1.968935E+0	2.059823E+0	2.042100E+0	1.992681E+0	2.008568E+0	1.930359E+0	2.016395E+0	1.999963E+0	2.124007E+0	2.110408E+0	2.024354E+0	1.902183E+0	2.152886E+0	2.091550E+0	1.973284E+0	2.078558E+0	2.203898E+0	1.998714E+0	1.995178E+0	1.988295E+0	2.085581E+0	1.992614E+0	2.029747E+0	1.992104E+0	2.032961E+0	1.958787E+0	2.219250E+0	1.995737E+0	1.959616E+0	2.038547E+0	2.265765E+0	1.923593E+0	2.041874E+0	1.939470E+0	2.285788E+0	1.919945E+0	2.122302E+0	1.885912E+0	2.172823E+0	2.044834E+0	2.187816E+0	2.020975E+0	2.107600E+0	1.851078E+0	2.064057E+0	1.960776E+0	2.166433E+0	1.944922E+0	2.022355E+0	1.959727E+0	2.154409E+0	1.995949E+0	1.988716E+0	1.792730E+0	2.079952E+0	1.965067E+0	1.948477E+0	1.921645E+0	1.946420E+0	1.954442E+0	1.920025E+0	1.859562E+0	1.953222E+0	1.928073E+0	1.978941E+0	1.960619E+0	2.006117E+0	2.012198E+0	1.980004E+0	1.942771E+0	1.825080E+0	1.976936E+0	2.062608E+0	1.962695E+0	1.905908E+0	2.068350E+0	2.161216E+0	1.962788E+0	1.885274E+0	2.034795E+0	2.082598E+0	2.020386E+0	1.991295E+0	2.231217E+0	2.084875E+0	1.967132E+0	1.858456E+0	2.177904E+0	2.164880E+0	1.981376E+0	1.697362E+0	1.985389E+0	2.079106E+0	2.167036E+0
5.352600E+2	1.939927E+0	2.072356E+0	1.704004E+0	1.817177E+0	1.942503E+0	2.062570E+0	1.951902E+0	1.979955E+0	1.871778E+0	1.926763E+0	1.966232E+0	1.745290E+0	1.836273E+0	2.047696E+0	2.045108E+0	2.046673E+0	1.791742E+0	1.949345E+0	1.947284E+0	2.006413E+0	1.906725E+0	1.952187E+0	1.958726E+0	1.940394E+0	2.014868E+0	1.886654E+0	1.894141E+0	1.890050E+0	1.958594E+0	1.967623E+0	1.934322E+0	1.929335E+0	1.977130E+0	1.912615E+0	1.867439E+0	1.962008E+0	1.974868E+0	1.895462E+0	1.995775E+0	1.879105E+0	1.802909E+0	1.874448E+0	1.947217E+0	1.888462E+0	1.817468E+0	1.944957E+0	1.942191E+0	2.027007E+0	1.832310E+0	1.908545E+0	1.974452E+0	2.028859E+0	1.814556E+0	1.929546E+0	1.998547E+0	2.046748E+0	1.780978E+0	1.906742E+0	1.892635E+0	1.988900E+0	1.829581E+0	1.609521E+0	1.952865E+0	1.904204E+0	1.858093E+0	1.933162E+0	1.958313E+0	1.821384E+0	1.851912E+0	1.925896E+0	2.047230E+0	1.910400E+0	1.808610E+0	1.887386E+0	1.924049E+0	1.964054E+0	1.771990E+0	1.858835E+0	1.977178E+0	1.893484E+0	1.888859E+0	1.958003E+0	1.854650E+0	1.912257E+0	1.950497E+0	1.976465E+0	2.016549E+0	1.972402E+0	1.858483E+0	2.011710E+0	1.991726E+0	1.867483E+0	2.027310E+0	2.003115E+0	1.858284E+0	1.884621E+0	1.866356E+0	1.969583E+0	1.897718E+0	2.012396E+0	1.902907E+0	1.924010E+0	1.913319E+0	2.067158E+0	1.955796E+0	1.883043E+0	1.844839E+0	2.155611E+0	1.810062E+0	1.927165E+0	1.897424E+0	2.123075E+0	1.881458E+0	2.016050E+0	1.844216E+0	2.103882E+0	1.918525E+0	2.141117E+0	1.938057E+0	2.160594E+0	1.839815E+0	1.926710E+0	1.889710E+0	2.192042E+0	1.869303E+0	1.971999E+0	1.817400E+0	2.093890E+0	1.948665E+0	1.959136E+0	1.765845E+0	2.038846E+0	1.839787E+0	1.838150E+0	1.775519E+0	1.996602E+0	1.821310E+0	1.874626E+0	1.831873E+0	1.849869E+0	1.818953E+0	1.901600E+0	1.797937E+0	1.855815E+0	2.014011E+0	1.885109E+0	1.835649E+0	1.923464E+0	1.944040E+0	1.909335E+0	1.820940E+0	1.952241E+0	1.951893E+0	2.017382E+0	1.826824E+0	1.866936E+0	1.896559E+0	2.002736E+0	1.907664E+0	1.853299E+0	2.054527E+0	2.021031E+0	1.836536E+0	1.850607E+0	2.027418E+0	2.044010E+0	1.855474E+0	1.795942E+0	1.912818E+0	2.075593E+0	1.953456E+0
5.354170E+2	1.663907E+0	1.869129E+0	1.462757E+0	1.532639E+0	1.641799E+0	1.692332E+0	1.641800E+0	1.689305E+0	1.618184E+0	1.712489E+0	1.746144E+0	1.538032E+0	1.583445E+0	1.673732E+0	1.757106E+0	1.787786E+0	1.548905E+0	1.667923E+0	1.736257E+0	1.728462E+0	1.663423E+0	1.740159E+0	1.737088E+0	1.656905E+0	1.681045E+0	1.626737E+0	1.622091E+0	1.627711E+0	1.657800E+0	1.650910E+0	1.576186E+0	1.674929E+0	1.645124E+0	1.648595E+0	1.604018E+0	1.641602E+0	1.686770E+0	1.624929E+0	1.675842E+0	1.617924E+0	1.506807E+0	1.574615E+0	1.647283E+0	1.614291E+0	1.531148E+0	1.687329E+0	1.712504E+0	1.721662E+0	1.569664E+0	1.641590E+0	1.706649E+0	1.827412E+0	1.585836E+0	1.615950E+0	1.684538E+0	1.767821E+0	1.575429E+0	1.660197E+0	1.593526E+0	1.641121E+0	1.582300E+0	1.310626E+0	1.628464E+0	1.659115E+0	1.665043E+0	1.564570E+0	1.703497E+0	1.512651E+0	1.572044E+0	1.666832E+0	1.684602E+0	1.718297E+0	1.613959E+0	1.545749E+0	1.643770E+0	1.624263E+0	1.583154E+0	1.637590E+0	1.652861E+0	1.650430E+0	1.606633E+0	1.658861E+0	1.591250E+0	1.563318E+0	1.614116E+0	1.709464E+0	1.716096E+0	1.648248E+0	1.572982E+0	1.711132E+0	1.684366E+0	1.586876E+0	1.705533E+0	1.787819E+0	1.574248E+0	1.614308E+0	1.600161E+0	1.698157E+0	1.629489E+0	1.712199E+0	1.586965E+0	1.630723E+0	1.597797E+0	1.785889E+0	1.616288E+0	1.581129E+0	1.639457E+0	1.833290E+0	1.537262E+0	1.694396E+0	1.600240E+0	1.864578E+0	1.666729E+0	1.747516E+0	1.583622E+0	1.852514E+0	1.682287E+0	1.719192E+0	1.669404E+0	1.914325E+0	1.564982E+0	1.632549E+0	1.572484E+0	1.849103E+0	1.617991E+0	1.704752E+0	1.599454E+0	1.779092E+0	1.590682E+0	1.656488E+0	1.438251E+0	1.864313E+0	1.575301E+0	1.634579E+0	1.494263E+0	1.765455E+0	1.570579E+0	1.566107E+0	1.541960E+0	1.617894E+0	1.535784E+0	1.681868E+0	1.603837E+0	1.618046E+0	1.681957E+0	1.601611E+0	1.596798E+0	1.635619E+0	1.638095E+0	1.660466E+0	1.532953E+0	1.707130E+0	1.692899E+0	1.750361E+0	1.593139E+0	1.543655E+0	1.658492E+0	1.722365E+0	1.591399E+0	1.668318E+0	1.743602E+0	1.721770E+0	1.588296E+0	1.643112E+0	1.735124E+0	1.731709E+0	1.608087E+0	1.679108E+0	1.618614E+0	1.726702E+0	1.631070E+0
5.355630E+2	1.435526E+0	1.611044E+0	1.271233E+0	1.415977E+0	1.483734E+0	1.480767E+0	1.414624E+0	1.407201E+0	1.373312E+0	1.504450E+0	1.488295E+0	1.375262E+0	1.367618E+0	1.541680E+0	1.555881E+0	1.517616E+0	1.363128E+0	1.430785E+0	1.493604E+0	1.551490E+0	1.436879E+0	1.462931E+0	1.460163E+0	1.418397E+0	1.453724E+0	1.373664E+0	1.455187E+0	1.399592E+0	1.445505E+0	1.436877E+0	1.436739E+0	1.479046E+0	1.510886E+0	1.440780E+0	1.397579E+0	1.471040E+0	1.481484E+0	1.406942E+0	1.479261E+0	1.461731E+0	1.348517E+0	1.414126E+0	1.405047E+0	1.503661E+0	1.364411E+0	1.487683E+0	1.485994E+0	1.544353E+0	1.350795E+0	1.408577E+0	1.456019E+0	1.569920E+0	1.391230E+0	1.426977E+0	1.492334E+0	1.577686E+0	1.359816E+0	1.520205E+0	1.472279E+0	1.486258E+0	1.356958E+0	1.124514E+0	1.493492E+0	1.412055E+0	1.429149E+0	1.465864E+0	1.494963E+0	1.415872E+0	1.412656E+0	1.440461E+0	1.455765E+0	1.513815E+0	1.385189E+0	1.324659E+0	1.403605E+0	1.478713E+0	1.337240E+0	1.400171E+0	1.451477E+0	1.439685E+0	1.407942E+0	1.469368E+0	1.469281E+0	1.422107E+0	1.513530E+0	1.541505E+0	1.507829E+0	1.483187E+0	1.408948E+0	1.497655E+0	1.480777E+0	1.460115E+0	1.545236E+0	1.598062E+0	1.450179E+0	1.417546E+0	1.492923E+0	1.564447E+0	1.444636E+0	1.534630E+0	1.442424E+0	1.451031E+0	1.415933E+0	1.605668E+0	1.430613E+0	1.455334E+0	1.452642E+0	1.630504E+0	1.386606E+0	1.486247E+0	1.406728E+0	1.670704E+0	1.439724E+0	1.504668E+0	1.389743E+0	1.705476E+0	1.449746E+0	1.560424E+0	1.443397E+0	1.623373E+0	1.419682E+0	1.454569E+0	1.383171E+0	1.579250E+0	1.380889E+0	1.435842E+0	1.423209E+0	1.573646E+0	1.452773E+0	1.451123E+0	1.281453E+0	1.538017E+0	1.426654E+0	1.446551E+0	1.386371E+0	1.601567E+0	1.449649E+0	1.367541E+0	1.389939E+0	1.434150E+0	1.373738E+0	1.440457E+0	1.401322E+0	1.408932E+0	1.394053E+0	1.458967E+0	1.439388E+0	1.455155E+0	1.442357E+0	1.479956E+0	1.412087E+0	1.580592E+0	1.487214E+0	1.542116E+0	1.415750E+0	1.385420E+0	1.491315E+0	1.482207E+0	1.417240E+0	1.470968E+0	1.588136E+0	1.533658E+0	1.445236E+0	1.468711E+0	1.570170E+0	1.547192E+0	1.407915E+0	1.411359E+0	1.445033E+0	1.532353E+0	1.498086E+0
5.357090E+2	1.211807E+0	1.309325E+0	1.101374E+0	1.165230E+0	1.246362E+0	1.280538E+0	1.182303E+0	1.277545E+0	1.265507E+0	1.278271E+0	1.344266E+0	1.118284E+0	1.243341E+0	1.243484E+0	1.314723E+0	1.349503E+0	1.197827E+0	1.266953E+0	1.218805E+0	1.309148E+0	1.223036E+0	1.267813E+0	1.260936E+0	1.232370E+0	1.287100E+0	1.188990E+0	1.233667E+0	1.208948E+0	1.210556E+0	1.195133E+0	1.233593E+0	1.264818E+0	1.256216E+0	1.212526E+0	1.162150E+0	1.231935E+0	1.233040E+0	1.224854E+0	1.304304E+0	1.221637E+0	1.130452E+0	1.203212E+0	1.210173E+0	1.239111E+0	1.130303E+0	1.255219E+0	1.242546E+0	1.294086E+0	1.187189E+0	1.202138E+0	1.280524E+0	1.357936E+0	1.155298E+0	1.208120E+0	1.251306E+0	1.320477E+0	1.174929E+0	1.234481E+0	1.245234E+0	1.266912E+0	1.148069E+0	1.028423E+0	1.295957E+0	1.260852E+0	1.200309E+0	1.205993E+0	1.207252E+0	1.230211E+0	1.231409E+0	1.248266E+0	1.289946E+0	1.236895E+0	1.228935E+0	1.170767E+0	1.256320E+0	1.240697E+0	1.169738E+0	1.201884E+0	1.268394E+0	1.200110E+0	1.231926E+0	1.231968E+0	1.210086E+0	1.264538E+0	1.232115E+0	1.323515E+0	1.284572E+0	1.264332E+0	1.177372E+0	1.256288E+0	1.296924E+0	1.187175E+0	1.314628E+0	1.362460E+0	1.255368E+0	1.230031E+0	1.300763E+0	1.287311E+0	1.260330E+0	1.358213E+0	1.259200E+0	1.272375E+0	1.238451E+0	1.354089E+0	1.215792E+0	1.237101E+0	1.256809E+0	1.444621E+0	1.205811E+0	1.263544E+0	1.225884E+0	1.313542E+0	1.226110E+0	1.298601E+0	1.184395E+0	1.421774E+0	1.295429E+0	1.317597E+0	1.342949E+0	1.445680E+0	1.192720E+0	1.237098E+0	1.196134E+0	1.384355E+0	1.274567E+0	1.337356E+0	1.203601E+0	1.326265E+0	1.267589E+0	1.243481E+0	1.195774E+0	1.376132E+0	1.182552E+0	1.239359E+0	1.164825E+0	1.303161E+0	1.197811E+0	1.197418E+0	1.142979E+0	1.217678E+0	1.184415E+0	1.256470E+0	1.240322E+0	1.202331E+0	1.236795E+0	1.236945E+0	1.239888E+0	1.240958E+0	1.284450E+0	1.276480E+0	1.222084E+0	1.309575E+0	1.320348E+0	1.311363E+0	1.216054E+0	1.190509E+0	1.296965E+0	1.303528E+0	1.259639E+0	1.239489E+0	1.336525E+0	1.294819E+0	1.205469E+0	1.272433E+0	1.395373E+0	1.368591E+0	1.258400E+0	1.268965E+0	1.252819E+0	1.343858E+0	1.252266E+0
5.358600E+2	1.006214E+0	1.089270E+0	8.675101E-1	9.387646E-1	1.018574E+0	1.056560E+0	1.039613E+0	1.059081E+0	1.072999E+0	1.011847E+0	1.069695E+0	9.644105E-1	1.124280E+0	1.036747E+0	1.018739E+0	1.108336E+0	9.969283E-1	1.007183E+0	1.037332E+0	1.033322E+0	1.003606E+0	1.075586E+0	1.031827E+0	1.014479E+0	1.072376E+0	9.385468E-1	9.590651E-1	9.629032E-1	1.094664E+0	1.027814E+0	1.003360E+0	9.737180E-1	1.034140E+0	9.723484E-1	1.006198E+0	1.002391E+0	1.081460E+0	1.003225E+0	1.000099E+0	1.028441E+0	9.068518E-1	9.879634E-1	9.886232E-1	1.006627E+0	9.573889E-1	9.861068E-1	9.789893E-1	1.048653E+0	9.606576E-1	9.917420E-1	1.022916E+0	1.073252E+0	9.477207E-1	1.024216E+0	1.036488E+0	1.065678E+0	9.307070E-1	1.002038E+0	9.981700E-1	1.028013E+0	9.541335E-1	1.081019E+0	9.895149E-1	1.049363E+0	1.003730E+0	1.030518E+0	1.060051E+0	9.961605E-1	9.824616E-1	1.023380E+0	1.044063E+0	1.014992E+0	9.804288E-1	9.748129E-1	1.002968E+0	1.002134E+0	9.771687E-1	9.785541E-1	1.020976E+0	9.918486E-1	1.040394E+0	1.055251E+0	9.703478E-1	1.011013E+0	9.721331E-1	1.077445E+0	1.074642E+0	9.971941E-1	9.889316E-1	1.085504E+0	1.046526E+0	9.842572E-1	1.064356E+0	1.076948E+0	1.047885E+0	1.037162E+0	9.872077E-1	1.066170E+0	9.970381E-1	1.063221E+0	1.064693E+0	1.013166E+0	1.004547E+0	1.114487E+0	9.885575E-1	9.953509E-1	1.005784E+0	1.122295E+0	9.626040E-1	1.056514E+0	1.030640E+0	1.145635E+0	1.033130E+0	1.051080E+0	9.764423E-1	1.155152E+0	1.042808E+0	1.076968E+0	1.060081E+0	1.155244E+0	9.646321E-1	1.037943E+0	1.004548E+0	1.141361E+0	9.908456E-1	1.077297E+0	9.901040E-1	1.108085E+0	1.048632E+0	9.675741E-1	9.426567E-1	1.135832E+0	9.638073E-1	1.007304E+0	9.987955E-1	1.084291E+0	1.001442E+0	9.682183E-1	9.734392E-1	1.042548E+0	1.006001E+0	1.061935E+0	9.940536E-1	1.005781E+0	9.658265E-1	1.045360E+0	9.983061E-1	1.039691E+0	1.035529E+0	1.022804E+0	9.888086E-1	1.065961E+0	1.049191E+0	1.056219E+0	9.807742E-1	1.001887E+0	1.093750E+0	1.139785E+0	1.014424E+0	1.027797E+0	1.142976E+0	1.128940E+0	1.016051E+0	1.074473E+0	1.181220E+0	1.085401E+0	1.067576E+0	1.054158E+0	9.605771E-1	1.081603E+0	1.002417E+0
5.360070E+2	8.493009E-1	8.567452E-1	7.010978E-1	7.883165E-1	8.354918E-1	8.460764E-1	8.165631E-1	8.306417E-1	9.030786E-1	8.519926E-1	8.550008E-1	7.665737E-1	9.165151E-1	8.473291E-1	8.377397E-1	8.832854E-1	8.462549E-1	8.157994E-1	8.522294E-1	8.749487E-1	8.623986E-1	8.572811E-1	8.873877E-1	7.909659E-1	8.948716E-1	8.033288E-1	8.528991E-1	8.238586E-1	9.608594E-1	8.273579E-1	8.252938E-1	8.641213E-1	8.441060E-1	7.929254E-1	7.912627E-1	8.387348E-1	8.320085E-1	8.585947E-1	8.639672E-1	8.313730E-1	8.409893E-1	8.150044E-1	8.274963E-1	8.382768E-1	9.293190E-1	8.269365E-1	8.657341E-1	8.481494E-1	8.408267E-1	8.152819E-1	8.377611E-1	9.273029E-1	8.285551E-1	8.109300E-1	8.668949E-1	9.324886E-1	8.168078E-1	8.119026E-1	8.248815E-1	8.625793E-1	9.182384E-1	8.802410E-1	8.522246E-1	7.825339E-1	8.464666E-1	8.321544E-1	8.537472E-1	7.952454E-1	8.321341E-1	8.049340E-1	8.994248E-1	8.371030E-1	8.145797E-1	7.762938E-1	8.468895E-1	8.210223E-1	8.112694E-1	7.943572E-1	8.227265E-1	8.139076E-1	7.957596E-1	8.343531E-1	8.052644E-1	8.163711E-1	8.072407E-1	9.074433E-1	8.885927E-1	8.831691E-1	8.311417E-1	8.606425E-1	8.570355E-1	8.457424E-1	8.569866E-1	9.104010E-1	8.335382E-1	8.423432E-1	8.434952E-1	8.884595E-1	8.763621E-1	8.700303E-1	8.320345E-1	8.505165E-1	8.506190E-1	9.498924E-1	8.331081E-1	8.000914E-1	8.242819E-1	9.733379E-1	8.060262E-1	8.623521E-1	8.256065E-1	9.350296E-1	8.340150E-1	8.631055E-1	7.700524E-1	9.263588E-1	8.557212E-1	8.973211E-1	8.511276E-1	9.578112E-1	8.221478E-1	8.679728E-1	8.283113E-1	9.433433E-1	8.293691E-1	8.504402E-1	8.133030E-1	9.185660E-1	8.358662E-1	8.338862E-1	7.404985E-1	9.258868E-1	8.310687E-1	7.918225E-1	8.039595E-1	8.931817E-1	8.450133E-1	7.926264E-1	7.976828E-1	8.111474E-1	8.019465E-1	8.322424E-1	8.280043E-1	8.293397E-1	8.466733E-1	8.633245E-1	8.299629E-1	8.462952E-1	8.425325E-1	8.673945E-1	8.236755E-1	8.442662E-1	8.574105E-1	8.773685E-1	8.177248E-1	8.205982E-1	8.875827E-1	8.783704E-1	8.450715E-1	8.472650E-1	9.100934E-1	8.861084E-1	8.007110E-1	8.675411E-1	9.294446E-1	8.964426E-1	8.492078E-1	8.503042E-1	8.124939E-1	8.556426E-1	8.754787E-1
5.362630E+2	6.333507E-1	7.171055E-1	5.435481E-1	5.966918E-1	6.486837E-1	6.803868E-1	6.723271E-1	6.929141E-1	6.653947E-1	6.785329E-1	6.521741E-1	6.242148E-1	7.296229E-1	6.709006E-1	6.679202E-1	7.291331E-1	6.541349E-1	6.367154E-1	6.774969E-1	6.921293E-1	6.312859E-1	6.708528E-1	6.592731E-1	6.377399E-1	7.179390E-1	6.318069E-1	6.308694E-1	6.142050E-1	7.259122E-1	6.491747E-1	6.703006E-1	6.717089E-1	7.048945E-1	6.083920E-1	6.148157E-1	6.357596E-1	6.623615E-1	6.541340E-1	6.595247E-1	6.355952E-1	7.087112E-1	6.404185E-1	6.522177E-1	6.474797E-1	7.199129E-1	6.415119E-1	6.540414E-1	6.616584E-1	6.586168E-1	6.478703E-1	6.692429E-1	7.236399E-1	6.373130E-1	6.640102E-1	6.926768E-1	7.114707E-1	6.541707E-1	6.640782E-1	6.229982E-1	6.374209E-1	7.253012E-1	6.642898E-1	7.068240E-1	6.392367E-1	7.083573E-1	6.495271E-1	6.619398E-1	5.932781E-1	6.514207E-1	6.370117E-1	6.974480E-1	6.550876E-1	7.292555E-1	6.249681E-1	6.556385E-1	6.377215E-1	7.131172E-1	6.618197E-1	6.590004E-1	6.478950E-1	7.110324E-1	6.310211E-1	6.422840E-1	6.200933E-1	6.714787E-1	6.675002E-1	7.047651E-1	6.767255E-1	6.353228E-1	6.613975E-1	6.517527E-1	6.407811E-1	7.252954E-1	7.159985E-1	6.513970E-1	6.407075E-1	6.322810E-1	6.536069E-1	6.421412E-1	7.092317E-1	6.681532E-1	6.687606E-1	6.676586E-1	7.545657E-1	6.997893E-1	6.403830E-1	6.719683E-1	7.718066E-1	6.860371E-1	6.816190E-1	6.430339E-1	7.232706E-1	6.700380E-1	6.844717E-1	6.277686E-1	7.274615E-1	7.167267E-1	6.792170E-1	6.568638E-1	7.354391E-1	6.520683E-1	6.442078E-1	6.088684E-1	7.165907E-1	6.377578E-1	6.490346E-1	6.509572E-1	6.833945E-1	6.675677E-1	6.398976E-1	5.837002E-1	7.557810E-1	6.590547E-1	6.555931E-1	6.421202E-1	7.517173E-1	6.153618E-1	6.449318E-1	6.473581E-1	6.624307E-1	6.246252E-1	6.377078E-1	6.619547E-1	6.287700E-1	7.039311E-1	6.830798E-1	6.588873E-1	6.877554E-1	6.599533E-1	6.505680E-1	6.371548E-1	7.052713E-1	7.079259E-1	7.047713E-1	6.488334E-1	6.351191E-1	7.109522E-1	6.933697E-1	6.762531E-1	6.449701E-1	6.934442E-1	7.002793E-1	6.262462E-1	7.082775E-1	6.985068E-1	7.291923E-1	6.475626E-1	6.835697E-1	6.948115E-1	7.327120E-1	6.901073E-1
5.365190E+2	5.484204E-1	5.537771E-1	4.534488E-1	5.053670E-1	5.406439E-1	5.433024E-1	5.461213E-1	5.447376E-1	5.729907E-1	5.674281E-1	5.453662E-1	4.949405E-1	5.930114E-1	5.410134E-1	5.433508E-1	5.728329E-1	5.351571E-1	5.373338E-1	5.458008E-1	5.757407E-1	5.632219E-1	5.588025E-1	5.721117E-1	4.990391E-1	5.593305E-1	5.071116E-1	4.971416E-1	5.343629E-1	6.279300E-1	5.225990E-1	5.338660E-1	5.145054E-1	5.745226E-1	5.260617E-1	5.163451E-1	5.077047E-1	5.504342E-1	5.121045E-1	5.607428E-1	5.271650E-1	5.830748E-1	5.070393E-1	5.117764E-1	5.357811E-1	5.565429E-1	5.457911E-1	5.196165E-1	5.370086E-1	5.683331E-1	5.358859E-1	5.458058E-1	5.432852E-1	5.219911E-1	5.626859E-1	5.590578E-1	6.202647E-1	5.582830E-1	5.397595E-1	4.886000E-1	5.618389E-1	5.862066E-1	5.515094E-1	5.324591E-1	5.206462E-1	5.591586E-1	5.436699E-1	5.398298E-1	5.359491E-1	5.703925E-1	5.300178E-1	5.879359E-1	5.381759E-1	5.762053E-1	5.372500E-1	5.418771E-1	5.364960E-1	6.293675E-1	5.334563E-1	5.475835E-1	5.499777E-1	5.397881E-1	5.304203E-1	5.197856E-1	5.279518E-1	5.544055E-1	5.653970E-1	5.786961E-1	5.631590E-1	5.297512E-1	5.503897E-1	5.761816E-1	5.544009E-1	6.436582E-1	5.778868E-1	5.178269E-1	4.999515E-1	5.511705E-1	5.690371E-1	5.527317E-1	5.727257E-1	5.617643E-1	5.670395E-1	5.455027E-1	6.238279E-1	5.880607E-1	5.643573E-1	5.223074E-1	6.178411E-1	6.354585E-1	5.546022E-1	5.393653E-1	5.963300E-1	6.003199E-1	5.683009E-1	5.094594E-1	5.987271E-1	5.201266E-1	5.693410E-1	5.919512E-1	6.107450E-1	6.154616E-1	5.658041E-1	4.911883E-1	5.691706E-1	6.042111E-1	5.616115E-1	5.475455E-1	6.244692E-1	5.730043E-1	5.369296E-1	4.700217E-1	6.002192E-1	5.208474E-1	5.447448E-1	5.054209E-1	6.075836E-1	5.593357E-1	5.388106E-1	5.360271E-1	5.274937E-1	5.782485E-1	5.023536E-1	5.357344E-1	5.463303E-1	5.787293E-1	5.643094E-1	5.452014E-1	5.663203E-1	5.930622E-1	5.795386E-1	5.013679E-1	5.667741E-1	5.468541E-1	5.872048E-1	5.240234E-1	5.334717E-1	5.620862E-1	5.859314E-1	5.672692E-1	5.603918E-1	5.660772E-1	5.703126E-1	5.260538E-1	5.647149E-1	5.954816E-1	6.004243E-1	5.634611E-1	5.509128E-1	5.653628E-1	6.273412E-1	6.155551E-1
5.367660E+2	5.199379E-1	5.494140E-1	4.445871E-1	4.536337E-1	5.257414E-1	5.141582E-1	5.157286E-1	5.238412E-1	5.468094E-1	5.300154E-1	5.334987E-1	4.808093E-1	5.877940E-1	5.172013E-1	5.401567E-1	5.416802E-1	5.166278E-1	5.137181E-1	5.100240E-1	5.566086E-1	4.931261E-1	5.559045E-1	5.427260E-1	4.873250E-1	5.719271E-1	4.897489E-1	5.247038E-1	4.936273E-1	5.878941E-1	5.426990E-1	5.087859E-1	4.966529E-1	5.264613E-1	5.067566E-1	4.943518E-1	5.464929E-1	5.323653E-1	4.923350E-1	5.278160E-1	4.815551E-1	5.376911E-1	4.647489E-1	5.101432E-1	5.122657E-1	5.666489E-1	5.228183E-1	4.915674E-1	5.321770E-1	5.141627E-1	5.296648E-1	4.824775E-1	5.704775E-1	4.965245E-1	5.008783E-1	5.117771E-1	5.541523E-1	5.381518E-1	5.251338E-1	4.954627E-1	5.401690E-1	5.772327E-1	5.596017E-1	5.197146E-1	5.616588E-1	5.324437E-1	5.303186E-1	5.470781E-1	4.880871E-1	5.421398E-1	5.062412E-1	5.342136E-1	5.207539E-1	5.607398E-1	4.869796E-1	5.034071E-1	5.239110E-1	5.776245E-1	5.058011E-1	4.957977E-1	5.047461E-1	5.224846E-1	5.006121E-1	4.829835E-1	5.121402E-1	5.291221E-1	5.572288E-1	5.364884E-1	5.341926E-1	5.462114E-1	5.577897E-1	5.242973E-1	4.802875E-1	5.781106E-1	5.633793E-1	5.310256E-1	5.355055E-1	5.489931E-1	5.627511E-1	5.329848E-1	5.490106E-1	5.134063E-1	4.926853E-1	5.235913E-1	5.873670E-1	5.632321E-1	5.113032E-1	5.223073E-1	6.184670E-1	5.945651E-1	4.952904E-1	5.203595E-1	5.455541E-1	5.205623E-1	5.326907E-1	4.990358E-1	5.798134E-1	5.481367E-1	5.742849E-1	5.393580E-1	5.894426E-1	5.720963E-1	5.457737E-1	5.082432E-1	6.054014E-1	5.973879E-1	5.035136E-1	4.941713E-1	5.273215E-1	5.623103E-1	4.811791E-1	4.627418E-1	5.761897E-1	4.785895E-1	5.012340E-1	5.007071E-1	5.862304E-1	5.887357E-1	4.917673E-1	4.851651E-1	5.303653E-1	5.946166E-1	5.269632E-1	5.099297E-1	4.709284E-1	5.611896E-1	4.712024E-1	5.167799E-1	5.269666E-1	5.179469E-1	5.309397E-1	5.128079E-1	5.373807E-1	5.590212E-1	5.671937E-1	5.171192E-1	4.606423E-1	5.809898E-1	5.686958E-1	5.117085E-1	5.158769E-1	5.929243E-1	5.475116E-1	5.325332E-1	5.456482E-1	5.763815E-1	5.885836E-1	5.246074E-1	4.809333E-1	5.575166E-1	5.524120E-1	5.611523E-1
5.370170E+2	5.427241E-1	5.500370E-1	4.490174E-1	4.715818E-1	4.959372E-1	5.433023E-1	5.337579E-1	5.319152E-1	5.776108E-1	5.334165E-1	5.340384E-1	4.713891E-1	5.522177E-1	5.193657E-1	5.561274E-1	5.255670E-1	4.868833E-1	5.481576E-1	5.753544E-1	5.582032E-1	5.434116E-1	5.559045E-1	5.417294E-1	5.393374E-1	6.022750E-1	5.092161E-1	4.797877E-1	5.066626E-1	5.710368E-1	5.416123E-1	4.922338E-1	5.512029E-1	5.397195E-1	5.271970E-1	5.053484E-1	5.087674E-1	5.549513E-1	5.360360E-1	5.268327E-1	5.357707E-1	5.686851E-1	5.233049E-1	5.248402E-1	5.363155E-1	5.975263E-1	5.168014E-1	5.291428E-1	5.457050E-1	5.212760E-1	5.098693E-1	5.522464E-1	5.471696E-1	4.523180E-1	5.312754E-1	5.559739E-1	5.937233E-1	5.169612E-1	5.293124E-1	5.446473E-1	5.449258E-1	5.991691E-1	5.403829E-1	5.417276E-1	5.433759E-1	5.541180E-1	5.408091E-1	5.415024E-1	5.075477E-1	5.298785E-1	5.424014E-1	5.321478E-1	5.381760E-1	5.671393E-1	5.177572E-1	5.429768E-1	5.195337E-1	5.642880E-1	5.178019E-1	5.188136E-1	5.330775E-1	5.684277E-1	5.235000E-1	5.140022E-1	5.132308E-1	5.214270E-1	5.577394E-1	5.448183E-1	5.240777E-1	5.450755E-1	5.794233E-1	5.530596E-1	5.211779E-1	5.882409E-1	5.720835E-1	4.982926E-1	5.155368E-1	5.544370E-1	5.484652E-1	5.549253E-1	5.559519E-1	5.477940E-1	5.412225E-1	5.624836E-1	5.665326E-1	6.020938E-1	5.523245E-1	5.382287E-1	6.021950E-1	5.951035E-1	5.428514E-1	5.192077E-1	5.767126E-1	5.411988E-1	5.928196E-1	5.078958E-1	6.347242E-1	5.359816E-1	5.836251E-1	5.279865E-1	6.081464E-1	5.811074E-1	5.183037E-1	5.281410E-1	6.066507E-1	6.332086E-1	5.627178E-1	5.403181E-1	5.623584E-1	5.786337E-1	5.369299E-1	5.008216E-1	5.913665E-1	5.297959E-1	5.167741E-1	5.211335E-1	5.835617E-1	5.998300E-1	5.043486E-1	4.998589E-1	5.475915E-1	6.289899E-1	5.521590E-1	5.295637E-1	5.377844E-1	5.763106E-1	5.219338E-1	5.796349E-1	5.398970E-1	5.733238E-1	5.394847E-1	5.277296E-1	5.593013E-1	6.082700E-1	5.534361E-1	4.916264E-1	5.334717E-1	6.063919E-1	5.905277E-1	5.512421E-1	5.252744E-1	5.773157E-1	5.423816E-1	5.115974E-1	5.551814E-1	5.729089E-1	5.787166E-1	5.408376E-1	5.691683E-1	6.124347E-1	5.524113E-1	5.389886E-1
5.372640E+2	6.095287E-1	6.634941E-1	5.140070E-1	5.539326E-1	6.023810E-1	6.048285E-1	5.878464E-1	6.150268E-1	5.853114E-1	5.997391E-1	6.235837E-1	5.540825E-1	6.731759E-1	6.021683E-1	6.295919E-1	6.249330E-1	5.956214E-1	5.855490E-1	6.261668E-1	6.373890E-1	6.216348E-1	6.389765E-1	6.333742E-1	5.861957E-1	6.068556E-1	5.686701E-1	5.793180E-1	5.756417E-1	7.016798E-1	6.051718E-1	6.336839E-1	5.938513E-1	6.303171E-1	5.851128E-1	5.798261E-1	6.357601E-1	5.986182E-1	5.901429E-1	6.462552E-1	6.003124E-1	6.301197E-1	5.872839E-1	6.255443E-1	6.180854E-1	7.086853E-1	6.147099E-1	6.106448E-1	6.452314E-1	6.285225E-1	5.703865E-1	6.467018E-1	6.159820E-1	6.012751E-1	6.042290E-1	6.577301E-1	6.159218E-1	5.853006E-1	6.170666E-1	5.846806E-1	6.268500E-1	6.864149E-1	6.238302E-1	6.170346E-1	5.972362E-1	6.211564E-1	5.784785E-1	6.563642E-1	5.895965E-1	6.087746E-1	6.112542E-1	6.426925E-1	6.339977E-1	6.289995E-1	5.582815E-1	5.940866E-1	5.786275E-1	7.013813E-1	6.018123E-1	6.187231E-1	5.986878E-1	6.334656E-1	6.214403E-1	6.175737E-1	6.010108E-1	6.011248E-1	5.934755E-1	6.309007E-1	6.270691E-1	6.114847E-1	6.545661E-1	6.145316E-1	6.075578E-1	6.609394E-1	6.504246E-1	6.054663E-1	6.324271E-1	6.115952E-1	6.513210E-1	6.020990E-1	6.126363E-1	6.106608E-1	6.253876E-1	6.254793E-1	6.420588E-1	7.089654E-1	6.092067E-1	5.711331E-1	7.248662E-1	6.876510E-1	6.306999E-1	5.808330E-1	6.898044E-1	6.114747E-1	6.190892E-1	5.897219E-1	6.878038E-1	6.469656E-1	6.737231E-1	6.270136E-1	7.027070E-1	6.762845E-1	6.361952E-1	6.100053E-1	6.747387E-1	7.099671E-1	6.612074E-1	6.031435E-1	6.186300E-1	6.506812E-1	6.211241E-1	5.562612E-1	6.710441E-1	6.327056E-1	6.094932E-1	5.881737E-1	6.550943E-1	6.508639E-1	6.219571E-1	5.744558E-1	6.360174E-1	7.021006E-1	6.224730E-1	6.333446E-1	5.850368E-1	6.579633E-1	5.857952E-1	5.971251E-1	6.180427E-1	6.473428E-1	6.500341E-1	5.973638E-1	6.474806E-1	6.882265E-1	6.685007E-1	6.042207E-1	6.015859E-1	7.009094E-1	6.192542E-1	6.206928E-1	5.955094E-1	6.903227E-1	6.529669E-1	6.013228E-1	6.264021E-1	6.967702E-1	6.833099E-1	6.303489E-1	6.196756E-1	7.252138E-1	6.179756E-1	5.631671E-1
5.375110E+2	6.913514E-1	7.657301E-1	6.055834E-1	6.779872E-1	6.939224E-1	7.651210E-1	7.145679E-1	7.304332E-1	7.470179E-1	7.051753E-1	7.719275E-1	7.110953E-1	7.822756E-1	7.461261E-1	7.775846E-1	7.575998E-1	7.389802E-1	7.149417E-1	7.215689E-1	7.915111E-1	7.222074E-1	7.375032E-1	7.509171E-1	6.691341E-1	7.763442E-1	6.754767E-1	7.273380E-1	7.114275E-1	7.928148E-1	6.991524E-1	7.294890E-1	7.222915E-1	7.501934E-1	6.918581E-1	6.932919E-1	7.112115E-1	7.035185E-1	6.962748E-1	7.489682E-1	7.186393E-1	7.563090E-1	6.691545E-1	7.148172E-1	7.725401E-1	7.788607E-1	7.044139E-1	7.249580E-1	7.119043E-1	7.281083E-1	6.806740E-1	7.196910E-1	8.140961E-1	6.911294E-1	6.827544E-1	7.065525E-1	7.930252E-1	7.209209E-1	7.063883E-1	7.270858E-1	7.167020E-1	8.225179E-1	7.881960E-1	7.462150E-1	6.965559E-1	7.597703E-1	6.991179E-1	7.450189E-1	6.763792E-1	7.553707E-1	6.880326E-1	7.542700E-1	7.156069E-1	7.447207E-1	6.824204E-1	7.122441E-1	6.951738E-1	8.203378E-1	7.421776E-1	7.285711E-1	7.184749E-1	7.814395E-1	7.044764E-1	6.938070E-1	6.844285E-1	7.028090E-1	7.302941E-1	7.469735E-1	7.263822E-1	7.040014E-1	7.883454E-1	7.273238E-1	7.010937E-1	7.783293E-1	7.386311E-1	7.200299E-1	7.196086E-1	7.074033E-1	7.353198E-1	7.419731E-1	7.699649E-1	6.885710E-1	7.229775E-1	7.218897E-1	7.847771E-1	7.775141E-1	7.284416E-1	6.793978E-1	8.112365E-1	8.662896E-1	7.247036E-1	7.173296E-1	7.688532E-1	7.938578E-1	7.743721E-1	6.819721E-1	8.128779E-1	7.394522E-1	7.742597E-1	7.241451E-1	8.305187E-1	8.103215E-1	7.363458E-1	7.532687E-1	8.309041E-1	8.242521E-1	7.359044E-1	7.009953E-1	7.550610E-1	7.801418E-1	7.093014E-1	6.475400E-1	7.747518E-1	6.943520E-1	7.125715E-1	6.944954E-1	7.789423E-1	8.145042E-1	6.875993E-1	6.908729E-1	7.502818E-1	8.461404E-1	6.798957E-1	6.720517E-1	6.936158E-1	7.644155E-1	6.938231E-1	7.135443E-1	6.933775E-1	7.367132E-1	7.285395E-1	6.998258E-1	7.496098E-1	8.110584E-1	7.698079E-1	6.934462E-1	7.226193E-1	8.249642E-1	7.427796E-1	7.088409E-1	7.147101E-1	7.752346E-1	8.051647E-1	7.244451E-1	7.234184E-1	8.078990E-1	7.883963E-1	6.972360E-1	7.675449E-1	8.409335E-1	7.537853E-1	7.344340E-1
5.377580E+2	7.762816E-1	8.280696E-1	6.306929E-1	7.402781E-1	7.929145E-1	8.487749E-1	7.645355E-1	8.054712E-1	8.183744E-1	8.661639E-1	8.285688E-1	6.969645E-1	8.093131E-1	8.711415E-1	8.244311E-1	8.199056E-1	7.911548E-1	7.646325E-1	8.180093E-1	8.308386E-1	7.562393E-1	8.200917E-1	8.510287E-1	7.787827E-1	7.975305E-1	7.375611E-1	7.533686E-1	7.537931E-1	8.691989E-1	7.817254E-1	7.620925E-1	7.956861E-1	7.700804E-1	7.804339E-1	7.502749E-1	7.510625E-1	7.948668E-1	7.488208E-1	7.917240E-1	7.638191E-1	8.376685E-1	7.353022E-1	7.866706E-1	7.570412E-1	8.613881E-1	7.946650E-1	7.757648E-1	7.631171E-1	7.740709E-1	7.694698E-1	7.669189E-1	8.928973E-1	7.122722E-1	7.800259E-1	7.815846E-1	8.441775E-1	7.924383E-1	7.727265E-1	7.722664E-1	7.996828E-1	8.738679E-1	7.866786E-1	8.128333E-1	7.835222E-1	8.081587E-1	7.482318E-1	7.901833E-1	7.494871E-1	7.910869E-1	7.504459E-1	8.426027E-1	7.944647E-1	8.375110E-1	7.044782E-1	7.869861E-1	6.929852E-1	8.784826E-1	7.312197E-1	7.698943E-1	7.970079E-1	7.522028E-1	7.992225E-1	7.122074E-1	7.716632E-1	8.017448E-1	8.078925E-1	8.275018E-1	7.760393E-1	7.267052E-1	8.219318E-1	8.299652E-1	7.430059E-1	8.790342E-1	8.198735E-1	8.008059E-1	7.687998E-1	7.803486E-1	8.050325E-1	7.474586E-1	7.855818E-1	7.487510E-1	7.978485E-1	7.344882E-1	8.556151E-1	8.493008E-1	7.825893E-1	8.157904E-1	8.394009E-1	8.770513E-1	7.896108E-1	7.645570E-1	8.600197E-1	8.206288E-1	8.450087E-1	7.486834E-1	9.043947E-1	7.896590E-1	8.643580E-1	7.904797E-1	8.897488E-1	8.559385E-1	8.164665E-1	7.942010E-1	8.590136E-1	8.924815E-1	8.194544E-1	7.243465E-1	8.145171E-1	8.426211E-1	7.161276E-1	6.912197E-1	8.866802E-1	7.326327E-1	7.814628E-1	7.411090E-1	8.339267E-1	8.344734E-1	7.559758E-1	7.745127E-1	7.726764E-1	8.188596E-1	7.900545E-1	7.388079E-1	7.735420E-1	8.333667E-1	7.493285E-1	7.807719E-1	7.940107E-1	7.783832E-1	7.541744E-1	7.664757E-1	8.208507E-1	8.481398E-1	8.242132E-1	7.736434E-1	7.828738E-1	9.194824E-1	8.174699E-1	7.510463E-1	7.379562E-1	8.844955E-1	7.937641E-1	7.633259E-1	7.963212E-1	8.061618E-1	8.678278E-1	7.911734E-1	7.572004E-1	8.674120E-1	8.170071E-1	8.714498E-1
5.380210E+2	9.352666E-1	1.007605E+0	7.916898E-1	8.843922E-1	9.360809E-1	9.513192E-1	9.329819E-1	9.531722E-1	9.929156E-1	1.027152E+0	9.736758E-1	8.843338E-1	1.010435E+0	1.063265E+0	9.937184E-1	1.011656E+0	9.252488E-1	1.008659E+0	9.118560E-1	9.477581E-1	9.284312E-1	9.847867E-1	9.521359E-1	9.038940E-1	9.927855E-1	1.025886E+0	9.238462E-1	8.836041E-1	1.053574E+0	1.069101E+0	9.516961E-1	9.390037E-1	1.002100E+0	9.757554E-1	9.147250E-1	9.030289E-1	9.158290E-1	9.194646E-1	9.244150E-1	9.118341E-1	9.483613E-1	1.003145E+0	9.173141E-1	9.510452E-1	1.029810E+0	1.026583E+0	9.287125E-1	9.607207E-1	8.988274E-1	9.238730E-1	9.493910E-1	9.822417E-1	9.299422E-1	9.274521E-1	9.511779E-1	9.792977E-1	9.672608E-1	9.205507E-1	8.906511E-1	9.693448E-1	1.044869E+0	9.550902E-1	9.617092E-1	9.233602E-1	1.006250E+0	9.518396E-1	9.909115E-1	9.167411E-1	9.062316E-1	9.401625E-1	9.955059E-1	9.407192E-1	1.084418E+0	8.809397E-1	8.886570E-1	9.337383E-1	1.072654E+0	9.472462E-1	8.834043E-1	9.177893E-1	9.920641E-1	8.934367E-1	8.867549E-1	8.883398E-1	9.320094E-1	9.217376E-1	9.935575E-1	9.355844E-1	9.123069E-1	9.784820E-1	9.517808E-1	8.932768E-1	1.036945E+0	9.835198E-1	8.953083E-1	9.261150E-1	9.300492E-1	9.884575E-1	9.750973E-1	9.469598E-1	9.008112E-1	9.486228E-1	9.223793E-1	9.967707E-1	1.015005E+0	9.187786E-1	8.890285E-1	1.042810E+0	1.059457E+0	1.000560E+0	8.958705E-1	1.031389E+0	1.013052E+0	9.553410E-1	9.029548E-1	1.052043E+0	9.413367E-1	1.003901E+0	9.402042E-1	1.081468E+0	1.041225E+0	9.561054E-1	9.067652E-1	1.026423E+0	1.081250E+0	9.306702E-1	9.339500E-1	9.902319E-1	9.720815E-1	9.323029E-1	8.474580E-1	1.061213E+0	9.026577E-1	9.368576E-1	8.956164E-1	1.007954E+0	1.020303E+0	8.806954E-1	9.350095E-1	9.449351E-1	1.069837E+0	9.142757E-1	9.379557E-1	9.238442E-1	1.021472E+0	9.283801E-1	9.922931E-1	9.109478E-1	9.291614E-1	9.747392E-1	9.226559E-1	9.663228E-1	1.045714E+0	9.767992E-1	9.021704E-1	8.698501E-1	1.067167E+0	9.794893E-1	9.524532E-1	9.090912E-1	1.037461E+0	9.778829E-1	8.829586E-1	9.757739E-1	1.015686E+0	1.024718E+0	9.274077E-1	9.081136E-1	1.047858E+0	9.738917E-1	9.742092E-1
5.382790E+2	1.093734E+0	1.112334E+0	8.857275E-1	1.043287E+0	1.007930E+0	1.112690E+0	1.009221E+0	1.059555E+0	1.176698E+0	1.185874E+0	1.103679E+0	9.947663E-1	1.195430E+0	1.265671E+0	1.132129E+0	1.197497E+0	1.072508E+0	1.151829E+0	1.081404E+0	1.174156E+0	1.089955E+0	1.125332E+0	1.101057E+0	1.064150E+0	1.139942E+0	1.204773E+0	1.079523E+0	1.049263E+0	1.231102E+0	1.208171E+0	1.072080E+0	1.088768E+0	1.152911E+0	1.082501E+0	1.044187E+0	1.077843E+0	1.116093E+0	1.082825E+0	1.063495E+0	1.067597E+0	1.109420E+0	1.198875E+0	1.044691E+0	1.098551E+0	1.175777E+0	1.261237E+0	1.072134E+0	1.099381E+0	1.049300E+0	1.120129E+0	1.130789E+0	1.142063E+0	1.031810E+0	1.072852E+0	1.071433E+0	1.139031E+0	1.075862E+0	1.131581E+0	1.019902E+0	1.121036E+0	1.190445E+0	1.262582E+0	1.057870E+0	1.105199E+0	1.130749E+0	1.140189E+0	1.082912E+0	1.039815E+0	1.099205E+0	1.063008E+0	1.059560E+0	1.044794E+0	1.163342E+0	1.125113E+0	1.093647E+0	1.044265E+0	1.172407E+0	1.198755E+0	1.066484E+0	1.048014E+0	1.078581E+0	1.103156E+0	1.017139E+0	1.041545E+0	1.115590E+0	1.165254E+0	1.080196E+0	1.099726E+0	1.095639E+0	1.140154E+0	1.079237E+0	1.017480E+0	1.198431E+0	1.121631E+0	1.039965E+0	1.083919E+0	1.065596E+0	1.048457E+0	1.101806E+0	1.077681E+0	1.066842E+0	1.076161E+0	1.090001E+0	1.155636E+0	1.188806E+0	1.080128E+0	1.032851E+0	1.250600E+0	1.221415E+0	1.058752E+0	1.030640E+0	1.191218E+0	1.146353E+0	1.143900E+0	1.005629E+0	1.233248E+0	1.095129E+0	1.133005E+0	1.110776E+0	1.194213E+0	1.146539E+0	1.063124E+0	1.036953E+0	1.203203E+0	1.218278E+0	1.090024E+0	1.058489E+0	1.197270E+0	1.153327E+0	1.044941E+0	9.616964E-1	1.160494E+0	1.062740E+0	1.021807E+0	1.004033E+0	1.147817E+0	1.146778E+0	9.884583E-1	9.983047E-1	1.088484E+0	1.202420E+0	1.087716E+0	1.046786E+0	1.000754E+0	1.124295E+0	1.129514E+0	1.094501E+0	1.112215E+0	1.081585E+0	1.099174E+0	1.053967E+0	1.155136E+0	1.206787E+0	1.161279E+0	1.020076E+0	1.008174E+0	1.233755E+0	1.140360E+0	1.073724E+0	1.070828E+0	1.236628E+0	1.107849E+0	1.032998E+0	1.084567E+0	1.154017E+0	1.174208E+0	1.083807E+0	1.051115E+0	1.248897E+0	1.110872E+0	1.211969E+0
5.385110E+2	1.325737E+0	1.432758E+0	1.093989E+0	1.194264E+0	1.317149E+0	1.321554E+0	1.234332E+0	1.327887E+0	1.323516E+0	1.438693E+0	1.341569E+0	1.164341E+0	1.418374E+0	1.549798E+0	1.327502E+0	1.352722E+0	1.246585E+0	1.399297E+0	1.316279E+0	1.325621E+0	1.300244E+0	1.336391E+0	1.330168E+0	1.195354E+0	1.389596E+0	1.423125E+0	1.263779E+0	1.269780E+0	1.402834E+0	1.439048E+0	1.268202E+0	1.380362E+0	1.336869E+0	1.329491E+0	1.247625E+0	1.244685E+0	1.292265E+0	1.287283E+0	1.312168E+0	1.253047E+0	1.367332E+0	1.471598E+0	1.299989E+0	1.328896E+0	1.385183E+0	1.501902E+0	1.275887E+0	1.313412E+0	1.252302E+0	1.362198E+0	1.266032E+0	1.330190E+0	1.238428E+0	1.251686E+0	1.297561E+0	1.362457E+0	1.319553E+0	1.390141E+0	1.300708E+0	1.300212E+0	1.406812E+0	1.506851E+0	1.229917E+0	1.251459E+0	1.321782E+0	1.321862E+0	1.312633E+0	1.207068E+0	1.264458E+0	1.329503E+0	1.317328E+0	1.283200E+0	1.317459E+0	1.403143E+0	1.301933E+0	1.272981E+0	1.424189E+0	1.477396E+0	1.286178E+0	1.254286E+0	1.351260E+0	1.342150E+0	1.227437E+0	1.257450E+0	1.317309E+0	1.310243E+0	1.324561E+0	1.356288E+0	1.274429E+0	1.420805E+0	1.293541E+0	1.260778E+0	1.418312E+0	1.526686E+0	1.275957E+0	1.261687E+0	1.243602E+0	1.351308E+0	1.277334E+0	1.343752E+0	1.240932E+0	1.318330E+0	1.265839E+0	1.434823E+0	1.390135E+0	1.368368E+0	1.274856E+0	1.448376E+0	1.461931E+0	1.490159E+0	1.195358E+0	1.432980E+0	1.306425E+0	1.408932E+0	1.175536E+0	1.437638E+0	1.336122E+0	1.413740E+0	1.265239E+0	1.484647E+0	1.388708E+0	1.352131E+0	1.232519E+0	1.433705E+0	1.428654E+0	1.343992E+0	1.221390E+0	1.354935E+0	1.294608E+0	1.250308E+0	1.177854E+0	1.388147E+0	1.256628E+0	1.252828E+0	1.231340E+0	1.344268E+0	1.379757E+0	1.249932E+0	1.150890E+0	1.281989E+0	1.420660E+0	1.268774E+0	1.268933E+0	1.296834E+0	1.345061E+0	1.269174E+0	1.285799E+0	1.299987E+0	1.300351E+0	1.279686E+0	1.253916E+0	1.290146E+0	1.400305E+0	1.385154E+0	1.252700E+0	1.235046E+0	1.511399E+0	1.300081E+0	1.283677E+0	1.296863E+0	1.485121E+0	1.335861E+0	1.291704E+0	1.275236E+0	1.346176E+0	1.382901E+0	1.235778E+0	1.248885E+0	1.472491E+0	1.304052E+0	1.286521E+0
5.387700E+2	1.510617E+0	1.578629E+0	1.270739E+0	1.375859E+0	1.517793E+0	1.591406E+0	1.398659E+0	1.476063E+0	1.631016E+0	1.662035E+0	1.562197E+0	1.436496E+0	1.594830E+0	1.794420E+0	1.530858E+0	1.586905E+0	1.497221E+0	1.611345E+0	1.517454E+0	1.534482E+0	1.485134E+0	1.608792E+0	1.545831E+0	1.464318E+0	1.599737E+0	1.637788E+0	1.464372E+0	1.468571E+0	1.680976E+0	1.701975E+0	1.466336E+0	1.521199E+0	1.581592E+0	1.565693E+0	1.449065E+0	1.472637E+0	1.509596E+0	1.479259E+0	1.477788E+0	1.435917E+0	1.547766E+0	1.649978E+0	1.468738E+0	1.557105E+0	1.617042E+0	1.731637E+0	1.512453E+0	1.560779E+0	1.498533E+0	1.505854E+0	1.470508E+0	1.565484E+0	1.468109E+0	1.480176E+0	1.493361E+0	1.570932E+0	1.546292E+0	1.647134E+0	1.469995E+0	1.512684E+0	1.675528E+0	1.694989E+0	1.480746E+0	1.483208E+0	1.509795E+0	1.535008E+0	1.506676E+0	1.412191E+0	1.513940E+0	1.476124E+0	1.500188E+0	1.507856E+0	1.546770E+0	1.572423E+0	1.486043E+0	1.495129E+0	1.688244E+0	1.739866E+0	1.456185E+0	1.428252E+0	1.557708E+0	1.532709E+0	1.396728E+0	1.459183E+0	1.485499E+0	1.495047E+0	1.553926E+0	1.545262E+0	1.466275E+0	1.657619E+0	1.532662E+0	1.422291E+0	1.634022E+0	1.733856E+0	1.464433E+0	1.464787E+0	1.494558E+0	1.569021E+0	1.473705E+0	1.553712E+0	1.463918E+0	1.472717E+0	1.438391E+0	1.600979E+0	1.620068E+0	1.593708E+0	1.440437E+0	1.631758E+0	1.748724E+0	1.766016E+0	1.439556E+0	1.638969E+0	1.544583E+0	1.633099E+0	1.364204E+0	1.652397E+0	1.539593E+0	1.606571E+0	1.523943E+0	1.635319E+0	1.599898E+0	1.709813E+0	1.426379E+0	1.653584E+0	1.699865E+0	1.701433E+0	1.476584E+0	1.590636E+0	1.535517E+0	1.529629E+0	1.335211E+0	1.618328E+0	1.449026E+0	1.447589E+0	1.391086E+0	1.567404E+0	1.553383E+0	1.544226E+0	1.360553E+0	1.460564E+0	1.638900E+0	1.690074E+0	1.414788E+0	1.406416E+0	1.493246E+0	1.532976E+0	1.504975E+0	1.446161E+0	1.474157E+0	1.491702E+0	1.451877E+0	1.542233E+0	1.641337E+0	1.621539E+0	1.442836E+0	1.390135E+0	1.664992E+0	1.678125E+0	1.455700E+0	1.420518E+0	1.653069E+0	1.565583E+0	1.416822E+0	1.434500E+0	1.608371E+0	1.592090E+0	1.416278E+0	1.428399E+0	1.669609E+0	1.623673E+0	1.554503E+0
5.390240E+2	1.703265E+0	1.877855E+0	1.436661E+0	1.575400E+0	1.670539E+0	1.750079E+0	1.676825E+0	1.780963E+0	1.836870E+0	1.868942E+0	1.763943E+0	1.573097E+0	1.866156E+0	2.022802E+0	1.692692E+0	1.800141E+0	1.670327E+0	1.801254E+0	1.768408E+0	1.746533E+0	1.674088E+0	1.739675E+0	1.731113E+0	1.627384E+0	1.776667E+0	1.898230E+0	1.698142E+0	1.666275E+0	1.903283E+0	1.955672E+0	1.713621E+0	1.657574E+0	1.731301E+0	1.782026E+0	1.669001E+0	1.683584E+0	1.738468E+0	1.631694E+0	1.710731E+0	1.634275E+0	1.776899E+0	1.886375E+0	1.630409E+0	1.739884E+0	1.827574E+0	1.979416E+0	1.605598E+0	1.714416E+0	1.654475E+0	1.708895E+0	1.723824E+0	1.849054E+0	1.612741E+0	1.701566E+0	1.682998E+0	1.757201E+0	1.744954E+0	1.855031E+0	1.641567E+0	1.758459E+0	1.866476E+0	1.970614E+0	1.689289E+0	1.640340E+0	1.751232E+0	1.761026E+0	1.670044E+0	1.635197E+0	1.666399E+0	1.674262E+0	1.705780E+0	1.651817E+0	1.741415E+0	1.834035E+0	1.708617E+0	1.656544E+0	1.822134E+0	1.936062E+0	1.694188E+0	1.631544E+0	1.792798E+0	1.783412E+0	1.629105E+0	1.675633E+0	1.737234E+0	1.648205E+0	1.752746E+0	1.695609E+0	1.612149E+0	1.844340E+0	1.643763E+0	1.579205E+0	1.840796E+0	1.936958E+0	1.652383E+0	1.681524E+0	1.715023E+0	1.774155E+0	1.632781E+0	1.721454E+0	1.661116E+0	1.688555E+0	1.642170E+0	1.795785E+0	1.848385E+0	1.825068E+0	1.627246E+0	1.910899E+0	1.909068E+0	1.959061E+0	1.611187E+0	1.818417E+0	1.733101E+0	1.922652E+0	1.588836E+0	1.841533E+0	1.662731E+0	1.770284E+0	1.677934E+0	1.870161E+0	1.777861E+0	1.895800E+0	1.637864E+0	1.879086E+0	1.884087E+0	1.991923E+0	1.627812E+0	1.755205E+0	1.766296E+0	1.773109E+0	1.494811E+0	1.811197E+0	1.671253E+0	1.636133E+0	1.578065E+0	1.764919E+0	1.739211E+0	1.735133E+0	1.605819E+0	1.604114E+0	1.853873E+0	1.898086E+0	1.581960E+0	1.677866E+0	1.768448E+0	1.667861E+0	1.636149E+0	1.695214E+0	1.668252E+0	1.775287E+0	1.600099E+0	1.710618E+0	1.809358E+0	1.896689E+0	1.630315E+0	1.607577E+0	1.934962E+0	1.882084E+0	1.704119E+0	1.584233E+0	1.766076E+0	1.762808E+0	1.672038E+0	1.650404E+0	1.777957E+0	1.766737E+0	1.635137E+0	1.689454E+0	1.846131E+0	1.751289E+0	1.586743E+0
5.392880E+2	1.888659E+0	1.962640E+0	1.599134E+0	1.689952E+0	1.816367E+0	1.973520E+0	1.809214E+0	1.911095E+0	2.003198E+0	2.075277E+0	1.966773E+0	1.715980E+0	2.035974E+0	2.217633E+0	1.938639E+0	1.982218E+0	1.869757E+0	2.031994E+0	1.905805E+0	1.917130E+0	1.881836E+0	1.956535E+0	1.891488E+0	1.801695E+0	1.969062E+0	2.051333E+0	1.782873E+0	1.830306E+0	2.099246E+0	2.089310E+0	1.860589E+0	1.835606E+0	1.995359E+0	1.877413E+0	1.746978E+0	1.856269E+0	1.891552E+0	1.830431E+0	1.904856E+0	1.815854E+0	1.874863E+0	2.019212E+0	1.853591E+0	1.833948E+0	2.022943E+0	2.209145E+0	1.821526E+0	1.916850E+0	1.816986E+0	1.898931E+0	1.856922E+0	1.990012E+0	1.769390E+0	1.840889E+0	1.901927E+0	1.986907E+0	1.930372E+0	2.018004E+0	1.797694E+0	1.928119E+0	2.061903E+0	2.108177E+0	1.792983E+0	1.856275E+0	1.925129E+0	1.964633E+0	1.880251E+0	1.741963E+0	1.770884E+0	1.850604E+0	1.868499E+0	1.868219E+0	1.937661E+0	2.035123E+0	1.821830E+0	1.803183E+0	2.046179E+0	2.083208E+0	1.896619E+0	1.803021E+0	1.971800E+0	1.939902E+0	1.748976E+0	1.769957E+0	1.807040E+0	1.893763E+0	1.879932E+0	1.851476E+0	1.811372E+0	1.980966E+0	1.863147E+0	1.800017E+0	2.103586E+0	2.093645E+0	1.754278E+0	1.786236E+0	1.801034E+0	1.965010E+0	1.750713E+0	1.964388E+0	1.797594E+0	1.862565E+0	1.762680E+0	1.999965E+0	2.005990E+0	2.021423E+0	1.832631E+0	2.057978E+0	2.041433E+0	2.164416E+0	1.801246E+0	2.099419E+0	1.863053E+0	2.082602E+0	1.718089E+0	2.058735E+0	1.850877E+0	1.994983E+0	1.863664E+0	1.960565E+0	1.929358E+0	2.109841E+0	1.768049E+0	2.017138E+0	2.071714E+0	2.075473E+0	1.797939E+0	1.911806E+0	1.958236E+0	1.842515E+0	1.649930E+0	1.910477E+0	1.801504E+0	1.783760E+0	1.661864E+0	1.915993E+0	1.943903E+0	1.858762E+0	1.716585E+0	1.811393E+0	2.105941E+0	2.112541E+0	1.737910E+0	1.757290E+0	1.923288E+0	1.914952E+0	1.745462E+0	1.808215E+0	1.853570E+0	1.846848E+0	1.758765E+0	1.886978E+0	1.961739E+0	2.048028E+0	1.746095E+0	1.696650E+0	2.167118E+0	2.049275E+0	1.779986E+0	1.805322E+0	2.017064E+0	1.909308E+0	1.771732E+0	1.846120E+0	1.905868E+0	1.896491E+0	1.755630E+0	1.799593E+0	1.985388E+0	2.099009E+0	1.691518E+0
5.395210E+2	2.046092E+0	2.104771E+0	1.733052E+0	1.816646E+0	2.003173E+0	2.045841E+0	1.965299E+0	2.077317E+0	2.100224E+0	2.214725E+0	2.040130E+0	1.857816E+0	2.199149E+0	2.285820E+0	2.074389E+0	2.129389E+0	2.030668E+0	2.117109E+0	2.001729E+0	2.078691E+0	2.038284E+0	2.013525E+0	2.056350E+0	1.968042E+0	2.139117E+0	2.163404E+0	1.903325E+0	1.869410E+0	2.216193E+0	2.268577E+0	1.959905E+0	1.996284E+0	2.059439E+0	2.023904E+0	1.911425E+0	1.928536E+0	2.013017E+0	1.905870E+0	1.970710E+0	1.935470E+0	2.017656E+0	2.198132E+0	1.976069E+0	2.034365E+0	2.100976E+0	2.237042E+0	1.971297E+0	1.957919E+0	1.912199E+0	2.105933E+0	2.038318E+0	2.088238E+0	1.900086E+0	1.894589E+0	1.957946E+0	2.097418E+0	2.001888E+0	2.149114E+0	1.917223E+0	2.015856E+0	2.132199E+0	2.231070E+0	1.952287E+0	1.921007E+0	2.085416E+0	2.029485E+0	2.000686E+0	1.806659E+0	1.939870E+0	1.929365E+0	1.982658E+0	1.946615E+0	2.122709E+0	2.217742E+0	1.979557E+0	1.924652E+0	2.103792E+0	2.235054E+0	1.947362E+0	1.890502E+0	1.968810E+0	2.075637E+0	1.817847E+0	1.894809E+0	1.957090E+0	2.061720E+0	1.968232E+0	1.955846E+0	1.969161E+0	2.157440E+0	2.006391E+0	1.849082E+0	2.199522E+0	2.289202E+0	1.866198E+0	1.901665E+0	1.969244E+0	2.064436E+0	1.957509E+0	2.042472E+0	1.889473E+0	1.944666E+0	1.901817E+0	2.132266E+0	2.193828E+0	2.047678E+0	1.920731E+0	2.181272E+0	2.177022E+0	2.271847E+0	1.940042E+0	2.119035E+0	2.030941E+0	2.205779E+0	1.845260E+0	2.175264E+0	1.931738E+0	2.090577E+0	1.987336E+0	2.149164E+0	2.051569E+0	2.248910E+0	1.841388E+0	2.125830E+0	2.165533E+0	2.274664E+0	1.842418E+0	2.010548E+0	2.007203E+0	2.031383E+0	1.766969E+0	2.189983E+0	1.851720E+0	1.881141E+0	1.787566E+0	2.027565E+0	2.078695E+0	2.044747E+0	1.820008E+0	1.940015E+0	2.177414E+0	2.149457E+0	1.926399E+0	1.947802E+0	2.018853E+0	2.027756E+0	1.897952E+0	1.996552E+0	1.917723E+0	1.932299E+0	1.838843E+0	2.005548E+0	2.101375E+0	2.159343E+0	1.837443E+0	1.823446E+0	2.223831E+0	2.190040E+0	1.872406E+0	1.919082E+0	2.166909E+0	2.067777E+0	1.883389E+0	1.957717E+0	2.072563E+0	2.025753E+0	1.862359E+0	1.904867E+0	2.211926E+0	2.197355E+0	1.913158E+0
5.397970E+2	2.055928E+0	2.229448E+0	1.737483E+0	1.887911E+0	1.994126E+0	2.133269E+0	2.003416E+0	2.060693E+0	2.174662E+0	2.308260E+0	2.098931E+0	1.871427E+0	2.207209E+0	2.291777E+0	2.301169E+0	2.148190E+0	2.035549E+0	2.130886E+0	2.156238E+0	2.136618E+0	2.026092E+0	2.102875E+0	2.073283E+0	1.961017E+0	2.086443E+0	2.254951E+0	2.232032E+0	1.919378E+0	2.221988E+0	2.304434E+0	2.318044E+0	2.076618E+0	2.102532E+0	2.073301E+0	2.107866E+0	1.989638E+0	2.078265E+0	2.001594E+0	2.091116E+0	1.942358E+0	2.117829E+0	2.221991E+0	2.140461E+0	2.000161E+0	2.184069E+0	2.404416E+0	2.159176E+0	2.075804E+0	2.007407E+0	2.062953E+0	2.085010E+0	2.097114E+0	1.918346E+0	1.990848E+0	2.079743E+0	2.109480E+0	2.113669E+0	2.249402E+0	2.022459E+0	2.053382E+0	2.195015E+0	2.281648E+0	1.997473E+0	1.973876E+0	2.095502E+0	2.063341E+0	2.002360E+0	1.915006E+0	1.944665E+0	2.029424E+0	2.021402E+0	1.963584E+0	2.139773E+0	2.202347E+0	2.027370E+0	1.944352E+0	2.177935E+0	2.321151E+0	1.986068E+0	1.943189E+0	2.050559E+0	2.094798E+0	1.908275E+0	1.926980E+0	1.982923E+0	2.065806E+0	2.023215E+0	2.012400E+0	1.945888E+0	2.126133E+0	2.033460E+0	1.921151E+0	2.189992E+0	2.357100E+0	1.988684E+0	1.960597E+0	1.994829E+0	2.080438E+0	1.948734E+0	2.092800E+0	1.968996E+0	2.003012E+0	1.985627E+0	2.132784E+0	2.134454E+0	2.213400E+0	1.983886E+0	2.196294E+0	2.177022E+0	2.298142E+0	1.979784E+0	2.177312E+0	2.045995E+0	2.174841E+0	1.864022E+0	2.253360E+0	2.061219E+0	2.148259E+0	1.997759E+0	2.185534E+0	2.200246E+0	2.191681E+0	1.945426E+0	2.190171E+0	2.317912E+0	2.306756E+0	1.905246E+0	2.105568E+0	2.028594E+0	2.027402E+0	1.752409E+0	2.150142E+0	1.916348E+0	1.914810E+0	1.827894E+0	2.125788E+0	2.123626E+0	2.072096E+0	1.810964E+0	1.967577E+0	2.228154E+0	2.308834E+0	1.916299E+0	1.847770E+0	2.043648E+0	2.132199E+0	1.928019E+0	1.995425E+0	1.970356E+0	1.941916E+0	1.920418E+0	1.989108E+0	2.153520E+0	2.213745E+0	1.869315E+0	1.883175E+0	2.264592E+0	2.257831E+0	1.973379E+0	1.923040E+0	2.146304E+0	2.137321E+0	1.864948E+0	2.050244E+0	2.103238E+0	2.183138E+0	1.924816E+0	1.932861E+0	2.179562E+0	2.218428E+0	2.034053E+0
5.400240E+2	1.979284E+0	2.094172E+0	1.692186E+0	1.848319E+0	1.923341E+0	2.074980E+0	1.930783E+0	1.998477E+0	2.111006E+0	2.307694E+0	2.076815E+0	1.844733E+0	2.194401E+0	2.290696E+0	2.274018E+0	2.141743E+0	2.011164E+0	2.117601E+0	2.129278E+0	2.051583E+0	2.000693E+0	1.990340E+0	2.065318E+0	1.896818E+0	2.035481E+0	2.130779E+0	2.231523E+0	1.919384E+0	2.296269E+0	2.244130E+0	2.256349E+0	2.012647E+0	2.079882E+0	2.057405E+0	2.068881E+0	1.966791E+0	1.927688E+0	1.943327E+0	2.083744E+0	1.882977E+0	2.075766E+0	2.168315E+0	2.174755E+0	1.966490E+0	2.081892E+0	2.326747E+0	2.267667E+0	2.002369E+0	2.009047E+0	1.984902E+0	2.165512E+0	2.079356E+0	1.801102E+0	1.974131E+0	2.065868E+0	2.076662E+0	2.009306E+0	2.171573E+0	2.136836E+0	2.012685E+0	2.195016E+0	2.284177E+0	2.234976E+0	1.911617E+0	2.031484E+0	2.015657E+0	2.099379E+0	1.878191E+0	1.939868E+0	1.986821E+0	2.047230E+0	1.938824E+0	2.135507E+0	2.168496E+0	2.097164E+0	1.875956E+0	2.131526E+0	2.263233E+0	2.215703E+0	1.898456E+0	2.067858E+0	2.045829E+0	1.967157E+0	1.884995E+0	1.968632E+0	1.962683E+0	2.059870E+0	1.921361E+0	1.970294E+0	2.069776E+0	1.974247E+0	1.815345E+0	2.131590E+0	2.307193E+0	1.901045E+0	1.879747E+0	1.986118E+0	2.097578E+0	1.960249E+0	2.007190E+0	1.915263E+0	1.958093E+0	1.958787E+0	2.098408E+0	2.160903E+0	2.130263E+0	1.910649E+0	2.154987E+0	2.131829E+0	2.271843E+0	1.866902E+0	2.064219E+0	1.952850E+0	2.146233E+0	1.864542E+0	2.207601E+0	1.950232E+0	2.112552E+0	1.922419E+0	2.195928E+0	2.127597E+0	2.180233E+0	1.939739E+0	2.138947E+0	2.177476E+0	2.257512E+0	1.901904E+0	2.032314E+0	1.976811E+0	1.981890E+0	1.736726E+0	2.137495E+0	1.884032E+0	1.883729E+0	1.786520E+0	2.014221E+0	2.121406E+0	2.035994E+0	1.879911E+0	1.957818E+0	2.156679E+0	2.190473E+0	1.869180E+0	1.837213E+0	2.067846E+0	2.029543E+0	1.926375E+0	1.914469E+0	1.871662E+0	1.936037E+0	1.872168E+0	1.987611E+0	2.115863E+0	2.100557E+0	1.845412E+0	1.866932E+0	2.235645E+0	2.195206E+0	1.812037E+0	1.922542E+0	2.148804E+0	2.068350E+0	1.791173E+0	2.033981E+0	2.043625E+0	2.086439E+0	1.845633E+0	1.892087E+0	2.125626E+0	2.123595E+0	1.897038E+0
5.402790E+2	1.806316E+0	1.980713E+0	1.538578E+0	1.692594E+0	1.866395E+0	1.913072E+0	1.765428E+0	1.859804E+0	1.980099E+0	2.075847E+0	1.974864E+0	1.715458E+0	2.085777E+0	2.154314E+0	2.083967E+0	1.963424E+0	1.791251E+0	1.980828E+0	1.887143E+0	1.902249E+0	1.773137E+0	1.914032E+0	1.909420E+0	1.774987E+0	2.006278E+0	2.087111E+0	2.074829E+0	1.795545E+0	2.055523E+0	2.129508E+0	2.098348E+0	1.805358E+0	1.947850E+0	1.924542E+0	1.899930E+0	1.786662E+0	1.897071E+0	1.873612E+0	1.908786E+0	1.825753E+0	1.896447E+0	2.056078E+0	2.004373E+0	1.873496E+0	2.026313E+0	2.157184E+0	2.087727E+0	1.903327E+0	1.860214E+0	1.888185E+0	2.014708E+0	1.925083E+0	1.718456E+0	1.841391E+0	1.910665E+0	1.906801E+0	1.901235E+0	1.996589E+0	2.061347E+0	1.870508E+0	2.037972E+0	2.131444E+0	2.140557E+0	1.789566E+0	1.944287E+0	1.873558E+0	1.959985E+0	1.794562E+0	1.796470E+0	1.793146E+0	1.900010E+0	1.842082E+0	1.977656E+0	2.048971E+0	2.079576E+0	1.816315E+0	2.004039E+0	2.148960E+0	2.119977E+0	1.749838E+0	1.901390E+0	1.890404E+0	1.874100E+0	1.810302E+0	1.876296E+0	1.809527E+0	1.932135E+0	1.801820E+0	1.781856E+0	1.938841E+0	2.032899E+0	1.780590E+0	2.019564E+0	2.137746E+0	2.147595E+0	1.795977E+0	1.823351E+0	1.984441E+0	1.960800E+0	1.947618E+0	1.784159E+0	1.814029E+0	1.833347E+0	1.971314E+0	2.061043E+0	2.065177E+0	1.955229E+0	1.989133E+0	2.068331E+0	2.194070E+0	1.979209E+0	2.019215E+0	1.879786E+0	2.004378E+0	1.754573E+0	2.016026E+0	1.814408E+0	1.942240E+0	1.858456E+0	1.985503E+0	1.950759E+0	2.014269E+0	1.753268E+0	1.938430E+0	2.110948E+0	2.135783E+0	1.745678E+0	1.916056E+0	1.927276E+0	1.897693E+0	1.620810E+0	1.933245E+0	1.765215E+0	1.806552E+0	1.648250E+0	1.979520E+0	1.917829E+0	1.895412E+0	1.651031E+0	1.798766E+0	2.019189E+0	2.074456E+0	1.717154E+0	1.770359E+0	1.871875E+0	1.979410E+0	1.761862E+0	1.828455E+0	1.761461E+0	1.828693E+0	1.797562E+0	1.851605E+0	1.913074E+0	1.979237E+0	1.769466E+0	1.747473E+0	2.144079E+0	2.041806E+0	1.783724E+0	1.795430E+0	2.017068E+0	1.934962E+0	1.723880E+0	1.838829E+0	1.891976E+0	1.950765E+0	1.726121E+0	1.769776E+0	1.976562E+0	2.100180E+0	1.792264E+0
5.405020E+2	1.770066E+0	1.821130E+0	1.488355E+0	1.584373E+0	1.745052E+0	1.834815E+0	1.658799E+0	1.732046E+0	1.871268E+0	1.967010E+0	1.900960E+0	1.633810E+0	1.885602E+0	2.050402E+0	2.022749E+0	1.852243E+0	1.717622E+0	1.875546E+0	1.846699E+0	1.795426E+0	1.739613E+0	1.829029E+0	1.819269E+0	1.754370E+0	1.864848E+0	1.934003E+0	1.915068E+0	1.668989E+0	1.904863E+0	1.981205E+0	2.001539E+0	1.750312E+0	1.787650E+0	1.829149E+0	1.802958E+0	1.772848E+0	1.804723E+0	1.714414E+0	1.798702E+0	1.707854E+0	1.803466E+0	1.928667E+0	1.938506E+0	1.735611E+0	1.851155E+0	1.998556E+0	2.003584E+0	1.817806E+0	1.680743E+0	1.793733E+0	1.896099E+0	1.884016E+0	1.674248E+0	1.741588E+0	1.803253E+0	1.857094E+0	1.792631E+0	1.947483E+0	1.948682E+0	1.815540E+0	1.947733E+0	2.023211E+0	2.017168E+0	1.707543E+0	1.786517E+0	1.801555E+0	1.866308E+0	1.711460E+0	1.739964E+0	1.675748E+0	1.795665E+0	1.676576E+0	1.789407E+0	1.932014E+0	1.938886E+0	1.778013E+0	1.935755E+0	1.986677E+0	2.061919E+0	1.679756E+0	1.749836E+0	1.804172E+0	1.809437E+0	1.646191E+0	1.776259E+0	1.760516E+0	1.809954E+0	1.752621E+0	1.732477E+0	1.864834E+0	1.962401E+0	1.687056E+0	1.980237E+0	1.971195E+0	2.035672E+0	1.709769E+0	1.731356E+0	1.863871E+0	1.895522E+0	1.796650E+0	1.655205E+0	1.721602E+0	1.746795E+0	1.841623E+0	1.918013E+0	1.868826E+0	1.930812E+0	1.944068E+0	1.990852E+0	2.008861E+0	2.008583E+0	1.937278E+0	1.791110E+0	1.987450E+0	1.780631E+0	1.908645E+0	1.767904E+0	1.869723E+0	1.749006E+0	1.909127E+0	1.859524E+0	1.981073E+0	1.859011E+0	1.869093E+0	1.940374E+0	2.043382E+0	2.015882E+0	1.852349E+0	1.805695E+0	1.745235E+0	1.705929E+0	1.840920E+0	1.644904E+0	1.705542E+0	1.613154E+0	1.792681E+0	1.930032E+0	1.767407E+0	1.656118E+0	1.761442E+0	1.910066E+0	1.992419E+0	1.800742E+0	1.708026E+0	1.741227E+0	1.747240E+0	1.764591E+0	1.751432E+0	1.707727E+0	1.736302E+0	1.643867E+0	1.749978E+0	1.886998E+0	1.926711E+0	1.672272E+0	1.602862E+0	2.015892E+0	2.001588E+0	1.703054E+0	1.687110E+0	1.927159E+0	1.841472E+0	1.608232E+0	1.719379E+0	1.868826E+0	1.806700E+0	1.651860E+0	1.670589E+0	1.879475E+0	2.034616E+0	1.618982E+0
5.407740E+2	1.628692E+0	1.753802E+0	1.441092E+0	1.542144E+0	1.666282E+0	1.718234E+0	1.656219E+0	1.685029E+0	1.660790E+0	1.870645E+0	1.801164E+0	1.547453E+0	1.781721E+0	1.944869E+0	1.901906E+0	1.828606E+0	1.684951E+0	1.786003E+0	1.780851E+0	1.740688E+0	1.585200E+0	1.733400E+0	1.746055E+0	1.625979E+0	1.775524E+0	1.794577E+0	1.827280E+0	1.610874E+0	1.829005E+0	1.853541E+0	1.879148E+0	1.651130E+0	1.740140E+0	1.772372E+0	1.674499E+0	1.613443E+0	1.646115E+0	1.591635E+0	1.666994E+0	1.601146E+0	1.706054E+0	1.834322E+0	1.853588E+0	1.661324E+0	1.833186E+0	1.947142E+0	1.915198E+0	1.723598E+0	1.646267E+0	1.727561E+0	1.816131E+0	1.745287E+0	1.574782E+0	1.667625E+0	1.732335E+0	1.711841E+0	1.629993E+0	1.750041E+0	1.758806E+0	1.632666E+0	1.850518E+0	1.874020E+0	1.877559E+0	1.616127E+0	1.763835E+0	1.725743E+0	1.765945E+0	1.596277E+0	1.719178E+0	1.642063E+0	1.694416E+0	1.605971E+0	1.736079E+0	1.779149E+0	1.817985E+0	1.612770E+0	1.823198E+0	1.914148E+0	1.944221E+0	1.599235E+0	1.690167E+0	1.739235E+0	1.709545E+0	1.615112E+0	1.583334E+0	1.677810E+0	1.744420E+0	1.631697E+0	1.633714E+0	1.850606E+0	1.791520E+0	1.639518E+0	1.815177E+0	1.862682E+0	1.912132E+0	1.619665E+0	1.615404E+0	1.778156E+0	1.697507E+0	1.696004E+0	1.602011E+0	1.664803E+0	1.672296E+0	1.718697E+0	1.776596E+0	1.772014E+0	1.888354E+0	1.818894E+0	1.817596E+0	1.972488E+0	1.964232E+0	1.769372E+0	1.675097E+0	1.840920E+0	1.641996E+0	1.876308E+0	1.589798E+0	1.712602E+0	1.683617E+0	1.787030E+0	1.779553E+0	1.875204E+0	1.736782E+0	1.769146E+0	1.786287E+0	1.893984E+0	1.899128E+0	1.722288E+0	1.715075E+0	1.675263E+0	1.573211E+0	1.793488E+0	1.616070E+0	1.622147E+0	1.554495E+0	1.690718E+0	1.733663E+0	1.698487E+0	1.804182E+0	1.532337E+0	1.870236E+0	1.885775E+0	1.841133E+0	1.546163E+0	1.712200E+0	1.708444E+0	1.747102E+0	1.654174E+0	1.609584E+0	1.652456E+0	1.632428E+0	1.703642E+0	1.695796E+0	1.846039E+0	1.694047E+0	1.512745E+0	1.855801E+0	1.852784E+0	1.798684E+0	1.593136E+0	1.792925E+0	1.706947E+0	1.695966E+0	1.646478E+0	1.703871E+0	1.771180E+0	1.608085E+0	1.572009E+0	1.792194E+0	1.842607E+0	1.629057E+0
5.410190E+2	1.620921E+0	1.738840E+0	1.358871E+0	1.467181E+0	1.589643E+0	1.673986E+0	1.544439E+0	1.645135E+0	1.711100E+0	1.748769E+0	1.701907E+0	1.519193E+0	1.794051E+0	1.859903E+0	1.878483E+0	1.719037E+0	1.590357E+0	1.727456E+0	1.737296E+0	1.649806E+0	1.621264E+0	1.648396E+0	1.697240E+0	1.587085E+0	1.705096E+0	1.805625E+0	1.833913E+0	1.556559E+0	1.776854E+0	1.832901E+0	1.836513E+0	1.635756E+0	1.607557E+0	1.622473E+0	1.681997E+0	1.664986E+0	1.563300E+0	1.595799E+0	1.683210E+0	1.548651E+0	1.646280E+0	1.820768E+0	1.772483E+0	1.670407E+0	1.718100E+0	1.920340E+0	1.820996E+0	1.642430E+0	1.589362E+0	1.638763E+0	1.762999E+0	1.623195E+0	1.530095E+0	1.555156E+0	1.589465E+0	1.714251E+0	1.591327E+0	1.682134E+0	1.811425E+0	1.646406E+0	1.750809E+0	1.885654E+0	1.897252E+0	1.600810E+0	1.656978E+0	1.642293E+0	1.646065E+0	1.510546E+0	1.633350E+0	1.610364E+0	1.664460E+0	1.558747E+0	1.733417E+0	1.770429E+0	1.796001E+0	1.559695E+0	1.785323E+0	1.823351E+0	1.917022E+0	1.567920E+0	1.659142E+0	1.659923E+0	1.705339E+0	1.528424E+0	1.578389E+0	1.641055E+0	1.673330E+0	1.566408E+0	1.626335E+0	1.731058E+0	1.839458E+0	1.529627E+0	1.741879E+0	1.866164E+0	1.861979E+0	1.553429E+0	1.577302E+0	1.727302E+0	1.671180E+0	1.651469E+0	1.625653E+0	1.587348E+0	1.604371E+0	1.719214E+0	1.805740E+0	1.725526E+0	1.827858E+0	1.803872E+0	1.731503E+0	1.844352E+0	1.837529E+0	1.808611E+0	1.657803E+0	1.758029E+0	1.606556E+0	1.746355E+0	1.666432E+0	1.731829E+0	1.637183E+0	1.740790E+0	1.718171E+0	1.731556E+0	1.766910E+0	1.744156E+0	1.794250E+0	1.837547E+0	1.845196E+0	1.687253E+0	1.683553E+0	1.627479E+0	1.580488E+0	1.763767E+0	1.573313E+0	1.570867E+0	1.559736E+0	1.680045E+0	1.759181E+0	1.670041E+0	1.684939E+0	1.554730E+0	1.784032E+0	1.854139E+0	1.781668E+0	1.553701E+0	1.652922E+0	1.629661E+0	1.725239E+0	1.586147E+0	1.579426E+0	1.579823E+0	1.573241E+0	1.573615E+0	1.780391E+0	1.779751E+0	1.685022E+0	1.551517E+0	1.824490E+0	1.821759E+0	1.826464E+0	1.559008E+0	1.732362E+0	1.714360E+0	1.679513E+0	1.584230E+0	1.706183E+0	1.687799E+0	1.560381E+0	1.609736E+0	1.870648E+0	1.772362E+0	1.671370E+0
5.412790E+2	1.537546E+0	1.653437E+0	1.279603E+0	1.474048E+0	1.508213E+0	1.576834E+0	1.492927E+0	1.569625E+0	1.597137E+0	1.745931E+0	1.642573E+0	1.395151E+0	1.663136E+0	1.763031E+0	1.685242E+0	1.665324E+0	1.524528E+0	1.628071E+0	1.605602E+0	1.598258E+0	1.533389E+0	1.573535E+0	1.552307E+0	1.461507E+0	1.637530E+0	1.665671E+0	1.666494E+0	1.484322E+0	1.713111E+0	1.702520E+0	1.776823E+0	1.480535E+0	1.554526E+0	1.557177E+0	1.577026E+0	1.532145E+0	1.546236E+0	1.552614E+0	1.525457E+0	1.427740E+0	1.594807E+0	1.644016E+0	1.705528E+0	1.483351E+0	1.583918E+0	1.754606E+0	1.736321E+0	1.565127E+0	1.424118E+0	1.585601E+0	1.639027E+0	1.613762E+0	1.447930E+0	1.518676E+0	1.569934E+0	1.615808E+0	1.601918E+0	1.640350E+0	1.662724E+0	1.529596E+0	1.714914E+0	1.843679E+0	1.767493E+0	1.517796E+0	1.574817E+0	1.580782E+0	1.556299E+0	1.421132E+0	1.509143E+0	1.557858E+0	1.577675E+0	1.473470E+0	1.553700E+0	1.656037E+0	1.655860E+0	1.467771E+0	1.623696E+0	1.762823E+0	1.777355E+0	1.452110E+0	1.556518E+0	1.601370E+0	1.575479E+0	1.472267E+0	1.499789E+0	1.605320E+0	1.566701E+0	1.494222E+0	1.490679E+0	1.628590E+0	1.709746E+0	1.486183E+0	1.666801E+0	1.728631E+0	1.745829E+0	1.452612E+0	1.496189E+0	1.563306E+0	1.525270E+0	1.579743E+0	1.524096E+0	1.517124E+0	1.512890E+0	1.635881E+0	1.677822E+0	1.632544E+0	1.737103E+0	1.677447E+0	1.712674E+0	1.731883E+0	1.751138E+0	1.686861E+0	1.571914E+0	1.669877E+0	1.536199E+0	1.689614E+0	1.582399E+0	1.618108E+0	1.581746E+0	1.643631E+0	1.648896E+0	1.686349E+0	1.653212E+0	1.649215E+0	1.689063E+0	1.757872E+0	1.700087E+0	1.596476E+0	1.567602E+0	1.576846E+0	1.458970E+0	1.600619E+0	1.511667E+0	1.519587E+0	1.442413E+0	1.584487E+0	1.608852E+0	1.616981E+0	1.582086E+0	1.517984E+0	1.693462E+0	1.725816E+0	1.689105E+0	1.464729E+0	1.625707E+0	1.573560E+0	1.562363E+0	1.553540E+0	1.507053E+0	1.508259E+0	1.504103E+0	1.540237E+0	1.645969E+0	1.678444E+0	1.626601E+0	1.470825E+0	1.695117E+0	1.731558E+0	1.699847E+0	1.462557E+0	1.714879E+0	1.622584E+0	1.605740E+0	1.496747E+0	1.650622E+0	1.630569E+0	1.475784E+0	1.460041E+0	1.638227E+0	1.753628E+0	1.578683E+0
5.415190E+2	1.310203E+0	1.455199E+0	1.165379E+0	1.221186E+0	1.296390E+0	1.328573E+0	1.326024E+0	1.416699E+0	1.343024E+0	1.508985E+0	1.408458E+0	1.244416E+0	1.438298E+0	1.556295E+0	1.507435E+0	1.493984E+0	1.345571E+0	1.422421E+0	1.458868E+0	1.428722E+0	1.302274E+0	1.367304E+0	1.418324E+0	1.321400E+0	1.386734E+0	1.465740E+0	1.496018E+0	1.349623E+0	1.516091E+0	1.485223E+0	1.529036E+0	1.403173E+0	1.414211E+0	1.373780E+0	1.414576E+0	1.353081E+0	1.390139E+0	1.328906E+0	1.377040E+0	1.305974E+0	1.397775E+0	1.454791E+0	1.466014E+0	1.310726E+0	1.440202E+0	1.531988E+0	1.487053E+0	1.438545E+0	1.315775E+0	1.343533E+0	1.431331E+0	1.502221E+0	1.277828E+0	1.305391E+0	1.358716E+0	1.432435E+0	1.375711E+0	1.499311E+0	1.524899E+0	1.350950E+0	1.482097E+0	1.505838E+0	1.596606E+0	1.290005E+0	1.401424E+0	1.371453E+0	1.439764E+0	1.280702E+0	1.376940E+0	1.314147E+0	1.350388E+0	1.333633E+0	1.437446E+0	1.473931E+0	1.495932E+0	1.293771E+0	1.485003E+0	1.550976E+0	1.594279E+0	1.253789E+0	1.382885E+0	1.432641E+0	1.387264E+0	1.340869E+0	1.354134E+0	1.336787E+0	1.403423E+0	1.308471E+0	1.287486E+0	1.431621E+0	1.551274E+0	1.241865E+0	1.443937E+0	1.568466E+0	1.525677E+0	1.334745E+0	1.318183E+0	1.381021E+0	1.461639E+0	1.414318E+0	1.259738E+0	1.287349E+0	1.333765E+0	1.417631E+0	1.496463E+0	1.448770E+0	1.521106E+0	1.492811E+0	1.509820E+0	1.506948E+0	1.533435E+0	1.465295E+0	1.389530E+0	1.499415E+0	1.331892E+0	1.528542E+0	1.324497E+0	1.463183E+0	1.384169E+0	1.449837E+0	1.464734E+0	1.463726E+0	1.424107E+0	1.458063E+0	1.520195E+0	1.569744E+0	1.522175E+0	1.395807E+0	1.379037E+0	1.361240E+0	1.334654E+0	1.437471E+0	1.280988E+0	1.302554E+0	1.247578E+0	1.345866E+0	1.382532E+0	1.379576E+0	1.410850E+0	1.315290E+0	1.523233E+0	1.523663E+0	1.525859E+0	1.262651E+0	1.421874E+0	1.435689E+0	1.416431E+0	1.299427E+0	1.328860E+0	1.331487E+0	1.283761E+0	1.357900E+0	1.450134E+0	1.488337E+0	1.435400E+0	1.276960E+0	1.484816E+0	1.569535E+0	1.526758E+0	1.325551E+0	1.444536E+0	1.434476E+0	1.391402E+0	1.322341E+0	1.428366E+0	1.385861E+0	1.329717E+0	1.335902E+0	1.501913E+0	1.601428E+0	1.435624E+0
5.417700E+2	1.169862E+0	1.237636E+0	9.861653E-1	1.089741E+0	1.222413E+0	1.188249E+0	1.128215E+0	1.185885E+0	1.231625E+0	1.261834E+0	1.234761E+0	1.095779E+0	1.223890E+0	1.301933E+0	1.332823E+0	1.372595E+0	1.133948E+0	1.227593E+0	1.222953E+0	1.211359E+0	1.148878E+0	1.191018E+0	1.174272E+0	1.139591E+0	1.264768E+0	1.262123E+0	1.261741E+0	1.158978E+0	1.287468E+0	1.328769E+0	1.352473E+0	1.250931E+0	1.189372E+0	1.159721E+0	1.201639E+0	1.192613E+0	1.190880E+0	1.136932E+0	1.184390E+0	1.145049E+0	1.221221E+0	1.317074E+0	1.261884E+0	1.166961E+0	1.290863E+0	1.359146E+0	1.328811E+0	1.348681E+0	1.144509E+0	1.160285E+0	1.252079E+0	1.331853E+0	1.136560E+0	1.144793E+0	1.143383E+0	1.222030E+0	1.197709E+0	1.245973E+0	1.312720E+0	1.315538E+0	1.294642E+0	1.295452E+0	1.388643E+0	1.349299E+0	1.217448E+0	1.219819E+0	1.256878E+0	1.206016E+0	1.105070E+0	1.166039E+0	1.227445E+0	1.141990E+0	1.246001E+0	1.272848E+0	1.283797E+0	1.156982E+0	1.339374E+0	1.338599E+0	1.321226E+0	1.131020E+0	1.264146E+0	1.221323E+0	1.249518E+0	1.090070E+0	1.173302E+0	1.234175E+0	1.219039E+0	1.139728E+0	1.163181E+0	1.224978E+0	1.327944E+0	1.127884E+0	1.294964E+0	1.347372E+0	1.351984E+0	1.146746E+0	1.144530E+0	1.195882E+0	1.224128E+0	1.196834E+0	1.150126E+0	1.140189E+0	1.200654E+0	1.244706E+0	1.222810E+0	1.275933E+0	1.306165E+0	1.268750E+0	1.311272E+0	1.388326E+0	1.369868E+0	1.201604E+0	1.224438E+0	1.327788E+0	1.161464E+0	1.259483E+0	1.180746E+0	1.196733E+0	1.138733E+0	1.222268E+0	1.234958E+0	1.326950E+0	1.251847E+0	1.286283E+0	1.307543E+0	1.370554E+0	1.335367E+0	1.230180E+0	1.158392E+0	1.164406E+0	1.147055E+0	1.288232E+0	1.075170E+0	1.148193E+0	1.070550E+0	1.234296E+0	1.205575E+0	1.235708E+0	1.265612E+0	1.152794E+0	1.306083E+0	1.305689E+0	1.341861E+0	1.149045E+0	1.242843E+0	1.223814E+0	1.251367E+0	1.136390E+0	1.148476E+0	1.193166E+0	1.132057E+0	1.180046E+0	1.285585E+0	1.250703E+0	1.236766E+0	1.147544E+0	1.343631E+0	1.278248E+0	1.377705E+0	1.138590E+0	1.312800E+0	1.233825E+0	1.213941E+0	1.219717E+0	1.229837E+0	1.229957E+0	1.142823E+0	1.146653E+0	1.361675E+0	1.299368E+0	1.270401E+0
5.420210E+2	1.009839E+0	1.033164E+0	8.724336E-1	9.704380E-1	9.914312E-1	1.025258E+0	9.958276E-1	9.930662E-1	1.067352E+0	1.147894E+0	1.081562E+0	9.471382E-1	1.096768E+0	1.177457E+0	1.115094E+0	1.171179E+0	9.910767E-1	1.064255E+0	1.012444E+0	1.026413E+0	9.914162E-1	1.046123E+0	1.033321E+0	1.008388E+0	1.087264E+0	1.061138E+0	1.139242E+0	1.041659E+0	1.141547E+0	1.160907E+0	1.144310E+0	1.167121E+0	1.049608E+0	1.056950E+0	1.012696E+0	1.071466E+0	9.956342E-1	1.004266E+0	1.014842E+0	1.017255E+0	1.029168E+0	1.095317E+0	1.081706E+0	1.056865E+0	1.058443E+0	1.218572E+0	1.161572E+0	1.198426E+0	1.032885E+0	1.056784E+0	1.116836E+0	1.110433E+0	9.496424E-1	1.002432E+0	1.039572E+0	1.086911E+0	1.056791E+0	1.048004E+0	1.047926E+0	1.144820E+0	1.112173E+0	1.207960E+0	1.144763E+0	1.146212E+0	1.026916E+0	1.075816E+0	1.039978E+0	1.080314E+0	1.016579E+0	1.009015E+0	1.040964E+0	1.019118E+0	1.100949E+0	1.118958E+0	1.171135E+0	1.029492E+0	1.085456E+0	1.138224E+0	1.142854E+0	1.126048E+0	1.072018E+0	1.045138E+0	1.054993E+0	1.103700E+0	1.035892E+0	1.038646E+0	1.117405E+0	1.039955E+0	9.980136E-1	1.088920E+0	1.166087E+0	1.025659E+0	1.169828E+0	1.196491E+0	1.176703E+0	1.080510E+0	9.980948E-1	1.110741E+0	1.102903E+0	1.069583E+0	1.012573E+0	1.032788E+0	1.010572E+0	1.090527E+0	1.132671E+0	1.095443E+0	1.154383E+0	1.152338E+0	1.138553E+0	1.227735E+0	1.162529E+0	1.121401E+0	1.033130E+0	1.131640E+0	1.036900E+0	1.153932E+0	1.034881E+0	1.070925E+0	1.067188E+0	1.096535E+0	1.081211E+0	1.115202E+0	1.108016E+0	1.047662E+0	1.102287E+0	1.201239E+0	1.191368E+0	1.030578E+0	1.084656E+0	1.025600E+0	1.050736E+0	1.125081E+0	9.871734E-1	9.575773E-1	9.380401E-1	1.062404E+0	1.062460E+0	1.068869E+0	1.083640E+0	9.897223E-1	1.176229E+0	1.196117E+0	1.198811E+0	9.816519E-1	1.059577E+0	1.037004E+0	1.099420E+0	1.016079E+0	1.002083E+0	9.993054E-1	9.957722E-1	1.014149E+0	1.104813E+0	1.155025E+0	1.085932E+0	9.777843E-1	1.121515E+0	1.155872E+0	1.219572E+0	1.010981E+0	1.106139E+0	1.086758E+0	1.079357E+0	1.026245E+0	1.077616E+0	1.061720E+0	1.030198E+0	1.000000E+0	1.115524E+0	1.092140E+0	1.078985E+0
5.422730E+2	9.057485E-1	9.795529E-1	7.587021E-1	8.379376E-1	8.833910E-1	9.982734E-1	8.855902E-1	9.109044E-1	9.662210E-1	1.013547E+0	9.823065E-1	8.210050E-1	1.004743E+0	1.029712E+0	1.043759E+0	1.050865E+0	9.086700E-1	9.712678E-1	9.258556E-1	9.456322E-1	9.177645E-1	9.500118E-1	9.112946E-1	9.038941E-1	9.996564E-1	1.047984E+0	1.035628E+0	9.422640E-1	9.987877E-1	1.066927E+0	1.030446E+0	1.060500E+0	9.744777E-1	9.746193E-1	9.772068E-1	9.423483E-1	9.263686E-1	9.189440E-1	9.347355E-1	8.980672E-1	9.572172E-1	1.021037E+0	9.853576E-1	1.016247E+0	9.691786E-1	1.071982E+0	1.047789E+0	1.039472E+0	8.785817E-1	9.300943E-1	1.053507E+0	1.006659E+0	8.804498E-1	8.970550E-1	9.239400E-1	9.817104E-1	9.285878E-1	9.294305E-1	9.838721E-1	1.047040E+0	1.037890E+0	1.084559E+0	1.074670E+0	1.055788E+0	9.921366E-1	9.485018E-1	9.825479E-1	9.630255E-1	9.142280E-1	9.158907E-1	9.500480E-1	9.219215E-1	9.788285E-1	1.010208E+0	9.848316E-1	9.720398E-1	1.041714E+0	1.093873E+0	1.107807E+0	1.020677E+0	1.000417E+0	9.551816E-1	9.572048E-1	1.017556E+0	9.067260E-1	9.329690E-1	9.574587E-1	9.346651E-1	9.520384E-1	1.000683E+0	1.036939E+0	9.883465E-1	1.005363E+0	1.116989E+0	1.093816E+0	1.021089E+0	8.598256E-1	1.001029E+0	9.619324E-1	1.075945E+0	9.416473E-1	9.129951E-1	8.938944E-1	1.006667E+0	9.739841E-1	1.019417E+0	1.041342E+0	1.063463E+0	1.007264E+0	1.062669E+0	1.051374E+0	1.085050E+0	9.277165E-1	9.681843E-1	8.977427E-1	1.041061E+0	9.090986E-1	9.852215E-1	9.378357E-1	1.040422E+0	9.832170E-1	1.057973E+0	9.863559E-1	1.058905E+0	1.069310E+0	1.071764E+0	1.027910E+0	1.059244E+0	9.777101E-1	9.715562E-1	9.443368E-1	1.028962E+0	8.837663E-1	9.016351E-1	8.987588E-1	9.679170E-1	1.004771E+0	9.589189E-1	9.672219E-1	1.016135E+0	1.020733E+0	1.067795E+0	1.043981E+0	9.972349E-1	9.688508E-1	9.970158E-1	1.026180E+0	9.165697E-1	9.203889E-1	9.555133E-1	8.719225E-1	9.673190E-1	1.002839E+0	9.968104E-1	9.738698E-1	8.902839E-1	1.039402E+0	1.053604E+0	1.109518E+0	9.224456E-1	1.018730E+0	1.001824E+0	9.766712E-1	9.690444E-1	9.838511E-1	9.556466E-1	9.224892E-1	9.208922E-1	1.000784E+0	1.033601E+0	8.976428E-1
5.425190E+2	9.129984E-1	9.471362E-1	7.498400E-1	7.946507E-1	8.764727E-1	9.113807E-1	9.098009E-1	8.615120E-1	9.292596E-1	1.011280E+0	9.100227E-1	8.581649E-1	9.862443E-1	1.014017E+0	1.032580E+0	9.982274E-1	9.145207E-1	9.383046E-1	9.268928E-1	9.573240E-1	8.969389E-1	9.369724E-1	9.088046E-1	8.584416E-1	9.882045E-1	9.727459E-1	9.993877E-1	9.248830E-1	1.030922E+0	1.012060E+0	1.047500E+0	9.781802E-1	9.496188E-1	9.564504E-1	9.117268E-1	9.306592E-1	9.072963E-1	8.435069E-1	9.136035E-1	8.287910E-1	9.406127E-1	9.716977E-1	9.499746E-1	9.072202E-1	9.719857E-1	1.039164E+0	1.026620E+0	1.055416E+0	9.097706E-1	9.674226E-1	9.692480E-1	1.040511E+0	8.862162E-1	9.284653E-1	9.357602E-1	9.460001E-1	9.073971E-1	9.466684E-1	9.838724E-1	9.926010E-1	9.770668E-1	1.027412E+0	1.036437E+0	1.017245E+0	9.397157E-1	9.322896E-1	9.546690E-1	9.404090E-1	8.849085E-1	9.357048E-1	9.407499E-1	8.857018E-1	9.462990E-1	9.794294E-1	1.022752E+0	9.282661E-1	9.777023E-1	1.054214E+0	1.053407E+0	9.933398E-1	9.198667E-1	9.365517E-1	8.862292E-1	9.406809E-1	9.111230E-1	9.028485E-1	9.402423E-1	9.043193E-1	8.782515E-1	9.898668E-1	1.007049E+0	9.433675E-1	9.767599E-1	1.025881E+0	1.075338E+0	1.048851E+0	9.077302E-1	9.770289E-1	8.994004E-1	1.024467E+0	8.836168E-1	8.938893E-1	8.374724E-1	9.816652E-1	1.015006E+0	9.915223E-1	1.000478E+0	1.043435E+0	1.042777E+0	1.044204E+0	1.011634E+0	1.031966E+0	8.719415E-1	9.582606E-1	9.503831E-1	9.989627E-1	9.291816E-1	9.764316E-1	9.672122E-1	9.895046E-1	9.606901E-1	1.037943E+0	9.380325E-1	1.060780E+0	1.023823E+0	1.061251E+0	1.049037E+0	1.011466E+0	9.416863E-1	9.510758E-1	9.230571E-1	1.015050E+0	8.961953E-1	9.171743E-1	8.819987E-1	9.107974E-1	9.809181E-1	9.255512E-1	9.598759E-1	9.897219E-1	1.018005E+0	1.016231E+0	1.027151E+0	1.050519E+0	8.998993E-1	9.504631E-1	9.764428E-1	9.958399E-1	9.203891E-1	8.946312E-1	8.813726E-1	9.578534E-1	9.344704E-1	9.899316E-1	9.589985E-1	9.955984E-1	1.057714E+0	9.972994E-1	1.061971E+0	1.049559E+0	9.831426E-1	9.619223E-1	1.009571E+0	1.029049E+0	9.699607E-1	9.694607E-1	9.229816E-1	9.275859E-1	1.007650E+0	1.073408E+0	1.056821E+0
5.427650E+2	9.497669E-1	1.010099E+0	7.808578E-1	8.875595E-1	9.579016E-1	9.772249E-1	9.108313E-1	9.726445E-1	1.010370E+0	1.045292E+0	9.990291E-1	8.691558E-1	1.014705E+0	1.086537E+0	1.066118E+0	1.093297E+0	9.320756E-1	9.919314E-1	1.002592E+0	1.011532E+0	9.360501E-1	1.008452E+0	9.780353E-1	9.235745E-1	1.019125E+0	1.035883E+0	1.043793E+0	9.525839E-1	1.066744E+0	1.050087E+0	1.107694E+0	1.024797E+0	9.402280E-1	9.433911E-1	9.877037E-1	9.667906E-1	9.640128E-1	9.137417E-1	9.406330E-1	9.161379E-1	9.942995E-1	1.035134E+0	1.039247E+0	9.831113E-1	1.006793E+0	1.116287E+0	1.112356E+0	1.103246E+0	9.103181E-1	9.323570E-1	1.020769E+0	1.071587E+0	9.092802E-1	9.198531E-1	1.017473E+0	9.937746E-1	9.937488E-1	1.000470E+0	1.055933E+0	1.080867E+0	1.030910E+0	1.086076E+0	1.071774E+0	1.089387E+0	9.744948E-1	9.361040E-1	1.028269E+0	9.961607E-1	9.270214E-1	9.277786E-1	9.608962E-1	9.356754E-1	9.841615E-1	1.044577E+0	1.032644E+0	9.507001E-1	1.080656E+0	1.043257E+0	1.088453E+0	1.070878E+0	9.890813E-1	9.828607E-1	9.645651E-1	1.009923E+0	9.413534E-1	9.533900E-1	9.785632E-1	9.737475E-1	9.230912E-1	1.056471E+0	1.071905E+0	1.004703E+0	1.100705E+0	1.087974E+0	1.105431E+0	1.095607E+0	9.322269E-1	1.013600E+0	1.054085E+0	1.096190E+0	9.464830E-1	9.708259E-1	9.590803E-1	1.076984E+0	1.070600E+0	9.909752E-1	1.057264E+0	1.123547E+0	1.084746E+0	1.091765E+0	1.108391E+0	1.095436E+0	9.751249E-1	1.065090E+0	9.826967E-1	1.056924E+0	9.027575E-1	1.024228E+0	9.653171E-1	1.052892E+0	1.007997E+0	1.072280E+0	1.026720E+0	1.097010E+0	1.099444E+0	1.114922E+0	1.093515E+0	1.099058E+0	9.957223E-1	9.391299E-1	9.947362E-1	1.065007E+0	9.210526E-1	9.192462E-1	9.045198E-1	1.002615E+0	1.010873E+0	9.736887E-1	9.785250E-1	1.058625E+0	1.010367E+0	1.070724E+0	1.101762E+0	1.071632E+0	1.003931E+0	1.023277E+0	1.056789E+0	1.000900E+0	9.768625E-1	9.704670E-1	9.684159E-1	1.007672E+0	1.024856E+0	1.076856E+0	9.935207E-1	1.039611E+0	1.059487E+0	1.050157E+0	1.058766E+0	1.119300E+0	1.029969E+0	9.881437E-1	9.746777E-1	1.045873E+0	1.012212E+0	1.019785E+0	9.323258E-1	9.774843E-1	1.054722E+0	1.062871E+0	9.983881E-1
5.430070E+2	1.052822E+0	1.099866E+0	8.709571E-1	9.582967E-1	1.063813E+0	1.060878E+0	1.023129E+0	1.101351E+0	1.125361E+0	1.148461E+0	1.142518E+0	9.916262E-1	1.175506E+0	1.261885E+0	1.191218E+0	1.246373E+0	1.064706E+0	1.139036E+0	1.122364E+0	1.118886E+0	1.023416E+0	1.071238E+0	1.078645E+0	9.783984E-1	1.143378E+0	1.151635E+0	1.177013E+0	1.013959E+0	1.228993E+0	1.215232E+0	1.236104E+0	1.196380E+0	1.098222E+0	1.085907E+0	1.101170E+0	1.129914E+0	1.066906E+0	1.014671E+0	1.071850E+0	1.045654E+0	1.091155E+0	1.155499E+0	1.190033E+0	1.112983E+0	1.117952E+0	1.302807E+0	1.189625E+0	1.221133E+0	1.077207E+0	1.099768E+0	1.157624E+0	1.173141E+0	9.866425E-1	1.060186E+0	1.081713E+0	1.143373E+0	1.069505E+0	1.203664E+0	1.138859E+0	1.188162E+0	1.148566E+0	1.239821E+0	1.226441E+0	1.220333E+0	1.116638E+0	1.074864E+0	1.144245E+0	1.095565E+0	1.082681E+0	1.073410E+0	1.094170E+0	1.059464E+0	1.140413E+0	1.152815E+0	1.172236E+0	1.099529E+0	1.178809E+0	1.203450E+0	1.245902E+0	1.213529E+0	1.089322E+0	1.094108E+0	1.076548E+0	1.183302E+0	1.090856E+0	1.123902E+0	1.097967E+0	1.077199E+0	9.968783E-1	1.164064E+0	1.243913E+0	1.183086E+0	1.157314E+0	1.211579E+0	1.249033E+0	1.175968E+0	1.034023E+0	1.130169E+0	1.144043E+0	1.204353E+0	1.036215E+0	1.065834E+0	1.036866E+0	1.202514E+0	1.179630E+0	1.169280E+0	1.214356E+0	1.189890E+0	1.189669E+0	1.254595E+0	1.233370E+0	1.233916E+0	1.125716E+0	1.175423E+0	1.092146E+0	1.152712E+0	1.052321E+0	1.116522E+0	1.142997E+0	1.220710E+0	1.142034E+0	1.217070E+0	1.169983E+0	1.196332E+0	1.200652E+0	1.227246E+0	1.260309E+0	1.230181E+0	1.133063E+0	1.067128E+0	1.063615E+0	1.219304E+0	1.018493E+0	1.004714E+0	1.027078E+0	1.048525E+0	1.128472E+0	1.138887E+0	1.124894E+0	1.171742E+0	1.183868E+0	1.223070E+0	1.192078E+0	1.203836E+0	1.113407E+0	1.056700E+0	1.146426E+0	1.121209E+0	1.042108E+0	1.075141E+0	1.038050E+0	1.115781E+0	1.168546E+0	1.174410E+0	1.200651E+0	1.158549E+0	1.158731E+0	1.235732E+0	1.219036E+0	1.233554E+0	1.159833E+0	1.103289E+0	1.158116E+0	1.169807E+0	1.126814E+0	1.121911E+0	1.054788E+0	1.061460E+0	1.184171E+0	1.229121E+0	1.141447E+0
5.432960E+2	1.204040E+0	1.306209E+0	1.008321E+0	1.092909E+0	1.187287E+0	1.227648E+0	1.138518E+0	1.238126E+0	1.309654E+0	1.364433E+0	1.253101E+0	1.135554E+0	1.296465E+0	1.356594E+0	1.402028E+0	1.382804E+0	1.175884E+0	1.307787E+0	1.218807E+0	1.304363E+0	1.155990E+0	1.261533E+0	1.205652E+0	1.150835E+0	1.314012E+0	1.404708E+0	1.330136E+0	1.165496E+0	1.373861E+0	1.335834E+0	1.405642E+0	1.306473E+0	1.271682E+0	1.218203E+0	1.236627E+0	1.245748E+0	1.273193E+0	1.206124E+0	1.211913E+0	1.164841E+0	1.241144E+0	1.353941E+0	1.319585E+0	1.256748E+0	1.316128E+0	1.388132E+0	1.403963E+0	1.351097E+0	1.209077E+0	1.242860E+0	1.313798E+0	1.329079E+0	1.135118E+0	1.182281E+0	1.188608E+0	1.275114E+0	1.244328E+0	1.323283E+0	1.307571E+0	1.333510E+0	1.298629E+0	1.382949E+0	1.340562E+0	1.368075E+0	1.252226E+0	1.228401E+0	1.273047E+0	1.264398E+0	1.173836E+0	1.186843E+0	1.192316E+0	1.188756E+0	1.253466E+0	1.295931E+0	1.289844E+0	1.265867E+0	1.309501E+0	1.384517E+0	1.403877E+0	1.423778E+0	1.275483E+0	1.255387E+0	1.209562E+0	1.324514E+0	1.168906E+0	1.212222E+0	1.230701E+0	1.247778E+0	1.218238E+0	1.271657E+0	1.387725E+0	1.306779E+0	1.293772E+0	1.404239E+0	1.387883E+0	1.382474E+0	1.161949E+0	1.236453E+0	1.268560E+0	1.320037E+0	1.138842E+0	1.141736E+0	1.195177E+0	1.315023E+0	1.320504E+0	1.308206E+0	1.308820E+0	1.372644E+0	1.355932E+0	1.432527E+0	1.451075E+0	1.357394E+0	1.275750E+0	1.314946E+0	1.217753E+0	1.300970E+0	1.205585E+0	1.258812E+0	1.258132E+0	1.277343E+0	1.260300E+0	1.363004E+0	1.297327E+0	1.354372E+0	1.357580E+0	1.343440E+0	1.387072E+0	1.389972E+0	1.255769E+0	1.230397E+0	1.190734E+0	1.347674E+0	1.167141E+0	1.174612E+0	1.110879E+0	1.258852E+0	1.303207E+0	1.226409E+0	1.253179E+0	1.371562E+0	1.331727E+0	1.385380E+0	1.382812E+0	1.387816E+0	1.253730E+0	1.227395E+0	1.294545E+0	1.315730E+0	1.229075E+0	1.190498E+0	1.177318E+0	1.252282E+0	1.330776E+0	1.290726E+0	1.275008E+0	1.284821E+0	1.402704E+0	1.331106E+0	1.365951E+0	1.383420E+0	1.347138E+0	1.289119E+0	1.252825E+0	1.375056E+0	1.254148E+0	1.224530E+0	1.239711E+0	1.209939E+0	1.413651E+0	1.339174E+0	1.282490E+0
5.435330E+2	1.479546E+0	1.454573E+0	1.145192E+0	1.270280E+0	1.553983E+0	1.411685E+0	1.298210E+0	1.316013E+0	1.491900E+0	1.546397E+0	1.447297E+0	1.289427E+0	1.513717E+0	1.556293E+0	1.521810E+0	1.538564E+0	1.374343E+0	1.427833E+0	1.407534E+0	1.410121E+0	1.413005E+0	1.366336E+0	1.402387E+0	1.272198E+0	1.504684E+0	1.487310E+0	1.528688E+0	1.377866E+0	1.469737E+0	1.502608E+0	1.514487E+0	1.515748E+0	1.437962E+0	1.433397E+0	1.313605E+0	1.441285E+0	1.353501E+0	1.292489E+0	1.367702E+0	1.327487E+0	1.368995E+0	1.464548E+0	1.470371E+0	1.448611E+0	1.432341E+0	1.582313E+0	1.518276E+0	1.505220E+0	1.338757E+0	1.393305E+0	1.468362E+0	1.519979E+0	1.266296E+0	1.344907E+0	1.339697E+0	1.439188E+0	1.357166E+0	1.455957E+0	1.449977E+0	1.517969E+0	1.517989E+0	1.536690E+0	1.536360E+0	1.512362E+0	1.401929E+0	1.411508E+0	1.388464E+0	1.375376E+0	1.341758E+0	1.331980E+0	1.407206E+0	1.322173E+0	1.461978E+0	1.452900E+0	1.439875E+0	1.393903E+0	1.489805E+0	1.513925E+0	1.546676E+0	1.553009E+0	1.376915E+0	1.412947E+0	1.349411E+0	1.449369E+0	1.305215E+0	1.355165E+0	1.390649E+0	1.346173E+0	1.348217E+0	1.436743E+0	1.453710E+0	1.403890E+0	1.446322E+0	1.552797E+0	1.582165E+0	1.536384E+0	1.311105E+0	1.411307E+0	1.460542E+0	1.585528E+0	1.353768E+0	1.343117E+0	1.352389E+0	1.483264E+0	1.469477E+0	1.476664E+0	1.468566E+0	1.522857E+0	1.501209E+0	1.534367E+0	1.563959E+0	1.579541E+0	1.399569E+0	1.458554E+0	1.340229E+0	1.485834E+0	1.381044E+0	1.388467E+0	1.369955E+0	1.505429E+0	1.445026E+0	1.516949E+0	1.483799E+0	1.549265E+0	1.503138E+0	1.522159E+0	1.498824E+0	1.545511E+0	1.359339E+0	1.343036E+0	1.339131E+0	1.508926E+0	1.315789E+0	1.364194E+0	1.301000E+0	1.385368E+0	1.375320E+0	1.415132E+0	1.443629E+0	1.432425E+0	1.523235E+0	1.557649E+0	1.499493E+0	1.566271E+0	1.426713E+0	1.398091E+0	1.455236E+0	1.478768E+0	1.313509E+0	1.312796E+0	1.288234E+0	1.388289E+0	1.439122E+0	1.507726E+0	1.447615E+0	1.449868E+0	1.524991E+0	1.470144E+0	1.487223E+0	1.529330E+0	1.531323E+0	1.417374E+0	1.379437E+0	1.438424E+0	1.416788E+0	1.384380E+0	1.340536E+0	1.295740E+0	1.480338E+0	1.504254E+0	1.483982E+0
5.437640E+2	1.659247E+0	1.494474E+0	1.249569E+0	1.339962E+0	1.695021E+0	1.469974E+0	1.494985E+0	1.434270E+0	1.627937E+0	1.550368E+0	1.489915E+0	1.341764E+0	1.632780E+0	1.669944E+0	1.585158E+0	1.649746E+0	1.609858E+0	1.532626E+0	1.498789E+0	1.537140E+0	1.705077E+0	1.499639E+0	1.509968E+0	1.398717E+0	1.663296E+0	1.617791E+0	1.613925E+0	1.472372E+0	1.671496E+0	1.685680E+0	1.702586E+0	1.588643E+0	1.727433E+0	1.497558E+0	1.499050E+0	1.529489E+0	1.653144E+0	1.422032E+0	1.468941E+0	1.392461E+0	1.637423E+0	1.621784E+0	1.598832E+0	1.443803E+0	1.618731E+0	1.692251E+0	1.695572E+0	1.639049E+0	1.520416E+0	1.478140E+0	1.587507E+0	1.599892E+0	1.545470E+0	1.423431E+0	1.494905E+0	1.538115E+0	1.560598E+0	1.557295E+0	1.623837E+0	1.551270E+0	1.576321E+0	1.640876E+0	1.675969E+0	1.652694E+0	1.470985E+0	1.463960E+0	1.521166E+0	1.467944E+0	1.348688E+0	1.455816E+0	1.452667E+0	1.382692E+0	1.540904E+0	1.560624E+0	1.585513E+0	1.477619E+0	1.555415E+0	1.661070E+0	1.688955E+0	1.683235E+0	1.458062E+0	1.495451E+0	1.420383E+0	1.542600E+0	1.447024E+0	1.493517E+0	1.513385E+0	1.507096E+0	1.382272E+0	1.532953E+0	1.636997E+0	1.529627E+0	1.603634E+0	1.742557E+0	1.667166E+0	1.658143E+0	1.399292E+0	1.469021E+0	1.556537E+0	1.626017E+0	1.366130E+0	1.424696E+0	1.386352E+0	1.609835E+0	1.540724E+0	1.569643E+0	1.614509E+0	1.659922E+0	1.624966E+0	1.651869E+0	1.690089E+0	1.671283E+0	1.443630E+0	1.585233E+0	1.464793E+0	1.556610E+0	1.486741E+0	1.506032E+0	1.442920E+0	1.583884E+0	1.541329E+0	1.602794E+0	1.521316E+0	1.690436E+0	1.700434E+0	1.683171E+0	1.648383E+0	1.682474E+0	1.439267E+0	1.462501E+0	1.436573E+0	1.528531E+0	1.355562E+0	1.369374E+0	1.409942E+0	1.531106E+0	1.534522E+0	1.492808E+0	1.521053E+0	1.552435E+0	1.591979E+0	1.661360E+0	1.625715E+0	1.609502E+0	1.501714E+0	1.518650E+0	1.499508E+0	1.578278E+0	1.413846E+0	1.426551E+0	1.414573E+0	1.418181E+0	1.559641E+0	1.539615E+0	1.546400E+0	1.515883E+0	1.642545E+0	1.582176E+0	1.656575E+0	1.649519E+0	1.603746E+0	1.553614E+0	1.481625E+0	1.551142E+0	1.549334E+0	1.553605E+0	1.436932E+0	1.440567E+0	1.620574E+0	1.669333E+0	1.546442E+0
5.440120E+2	1.781460E+0	1.573019E+0	1.298311E+0	1.407528E+0	1.777517E+0	1.613537E+0	1.483136E+0	1.538279E+0	1.665925E+0	1.642198E+0	1.654980E+0	1.423934E+0	1.681638E+0	1.720814E+0	1.705468E+0	1.733000E+0	1.746880E+0	1.620693E+0	1.653820E+0	1.638647E+0	1.802088E+0	1.540209E+0	1.598128E+0	1.478375E+0	1.682191E+0	1.649364E+0	1.655779E+0	1.541894E+0	1.740502E+0	1.675358E+0	1.758264E+0	1.651625E+0	1.692635E+0	1.527654E+0	1.531539E+0	1.575714E+0	1.781632E+0	1.495907E+0	1.519068E+0	1.518961E+0	1.713250E+0	1.664618E+0	1.650002E+0	1.576882E+0	1.689463E+0	1.708662E+0	1.744787E+0	1.683014E+0	1.718494E+0	1.556758E+0	1.642783E+0	1.668147E+0	1.712690E+0	1.539954E+0	1.529849E+0	1.596026E+0	1.739130E+0	1.641915E+0	1.627267E+0	1.718817E+0	1.661570E+0	1.744045E+0	1.744326E+0	1.752015E+0	1.715951E+0	1.556942E+0	1.609823E+0	1.554200E+0	1.681324E+0	1.475629E+0	1.525500E+0	1.445044E+0	1.703016E+0	1.677070E+0	1.634974E+0	1.608392E+0	1.701578E+0	1.726817E+0	1.753295E+0	1.703612E+0	1.567852E+0	1.543354E+0	1.537102E+0	1.624382E+0	1.594327E+0	1.550185E+0	1.567255E+0	1.598596E+0	1.516221E+0	1.604679E+0	1.688879E+0	1.633900E+0	1.722814E+0	1.737334E+0	1.682475E+0	1.716102E+0	1.488024E+0	1.556444E+0	1.630587E+0	1.749217E+0	1.518187E+0	1.478401E+0	1.501934E+0	1.678587E+0	1.614131E+0	1.610663E+0	1.601771E+0	1.719381E+0	1.671777E+0	1.735801E+0	1.772449E+0	1.776295E+0	1.546253E+0	1.609749E+0	1.515350E+0	1.687176E+0	1.524266E+0	1.588441E+0	1.517309E+0	1.654023E+0	1.598774E+0	1.696651E+0	1.619100E+0	1.736040E+0	1.753880E+0	1.754552E+0	1.698420E+0	1.712735E+0	1.487108E+0	1.525079E+0	1.493131E+0	1.672078E+0	1.500232E+0	1.443964E+0	1.449223E+0	1.603706E+0	1.594431E+0	1.564467E+0	1.582087E+0	1.653491E+0	1.678728E+0	1.697690E+0	1.670033E+0	1.713557E+0	1.557356E+0	1.568784E+0	1.592971E+0	1.646303E+0	1.464289E+0	1.541906E+0	1.462321E+0	1.568137E+0	1.608307E+0	1.589020E+0	1.621819E+0	1.589762E+0	1.745333E+0	1.753967E+0	1.672603E+0	1.717776E+0	1.709885E+0	1.628287E+0	1.571350E+0	1.657133E+0	1.606634E+0	1.561495E+0	1.504803E+0	1.480121E+0	1.618613E+0	1.636552E+0	1.576668E+0
5.442650E+2	1.752458E+0	1.602943E+0	1.316034E+0	1.394862E+0	1.790290E+0	1.607602E+0	1.471806E+0	1.529253E+0	1.655658E+0	1.690949E+0	1.597799E+0	1.434925E+0	1.657445E+0	1.697544E+0	1.721440E+0	1.698624E+0	1.680078E+0	1.578873E+0	1.618560E+0	1.549366E+0	1.745705E+0	1.532963E+0	1.538855E+0	1.421207E+0	1.780103E+0	1.639890E+0	1.720601E+0	1.534291E+0	1.696255E+0	1.700889E+0	1.688042E+0	1.667987E+0	1.699261E+0	1.546956E+0	1.572028E+0	1.499735E+0	1.751519E+0	1.422032E+0	1.527915E+0	1.448825E+0	1.575990E+0	1.658109E+0	1.728931E+0	1.550157E+0	1.646801E+0	1.762265E+0	1.749551E+0	1.729879E+0	1.729987E+0	1.570329E+0	1.611655E+0	1.665373E+0	1.699715E+0	1.495374E+0	1.527795E+0	1.511575E+0	1.698865E+0	1.617886E+0	1.670164E+0	1.713530E+0	1.639634E+0	1.714711E+0	1.728685E+0	1.798955E+0	1.650426E+0	1.539775E+0	1.596444E+0	1.587336E+0	1.721838E+0	1.444421E+0	1.551845E+0	1.524818E+0	1.727014E+0	1.644240E+0	1.650911E+0	1.566261E+0	1.670106E+0	1.683508E+0	1.791481E+0	1.732443E+0	1.736113E+0	1.502899E+0	1.562338E+0	1.636921E+0	1.721844E+0	1.544568E+0	1.531713E+0	1.483648E+0	1.595685E+0	1.620620E+0	1.682677E+0	1.625721E+0	1.645346E+0	1.672921E+0	1.657135E+0	1.654731E+0	1.652968E+0	1.620448E+0	1.572443E+0	1.703523E+0	1.752997E+0	1.529517E+0	1.443871E+0	1.606709E+0	1.712904E+0	1.633090E+0	1.627775E+0	1.698724E+0	1.671778E+0	1.735245E+0	1.796640E+0	1.712827E+0	1.647766E+0	1.682720E+0	1.480427E+0	1.702426E+0	1.587686E+0	1.592288E+0	1.484619E+0	1.634281E+0	1.615666E+0	1.656588E+0	1.534964E+0	1.696062E+0	1.669728E+0	1.711946E+0	1.675072E+0	1.671327E+0	1.552965E+0	1.518823E+0	1.532329E+0	1.682827E+0	1.443557E+0	1.477114E+0	1.462842E+0	1.567404E+0	1.552270E+0	1.588532E+0	1.576433E+0	1.670144E+0	1.668910E+0	1.663706E+0	1.690225E+0	1.696965E+0	1.558570E+0	1.499553E+0	1.593519E+0	1.596832E+0	1.444552E+0	1.503454E+0	1.477243E+0	1.523800E+0	1.673200E+0	1.611535E+0	1.516125E+0	1.597624E+0	1.669127E+0	1.637907E+0	1.685960E+0	1.764767E+0	1.634339E+0	1.587244E+0	1.577825E+0	1.653767E+0	1.560328E+0	1.581727E+0	1.464475E+0	1.485600E+0	1.615671E+0	1.668163E+0	1.586743E+0
5.445290E+2	1.676852E+0	1.490109E+0	1.225938E+0	1.377970E+0	1.681718E+0	1.560645E+0	1.357446E+0	1.470367E+0	1.536561E+0	1.612720E+0	1.507177E+0	1.341764E+0	1.547395E+0	1.663450E+0	1.585688E+0	1.681976E+0	1.659596E+0	1.507043E+0	1.533529E+0	1.474429E+0	1.622785E+0	1.515576E+0	1.522422E+0	1.366853E+0	1.639817E+0	1.565180E+0	1.554208E+0	1.406110E+0	1.650952E+0	1.625381E+0	1.623837E+0	1.580710E+0	1.672746E+0	1.465760E+0	1.460064E+0	1.486453E+0	1.639591E+0	1.433998E+0	1.465006E+0	1.416555E+0	1.598684E+0	1.592504E+0	1.576516E+0	1.495643E+0	1.586728E+0	1.734372E+0	1.686572E+0	1.695091E+0	1.619457E+0	1.493977E+0	1.543498E+0	1.660380E+0	1.614665E+0	1.457375E+0	1.458930E+0	1.516881E+0	1.596623E+0	1.541097E+0	1.632416E+0	1.569236E+0	1.569839E+0	1.673748E+0	1.660907E+0	1.675915E+0	1.628249E+0	1.452515E+0	1.546819E+0	1.460051E+0	1.679193E+0	1.389935E+0	1.441299E+0	1.422121E+0	1.635291E+0	1.487269E+0	1.636074E+0	1.483092E+0	1.627964E+0	1.655331E+0	1.603693E+0	1.654904E+0	1.657353E+0	1.458721E+0	1.465075E+0	1.560046E+0	1.679524E+0	1.451145E+0	1.513940E+0	1.436290E+0	1.545741E+0	1.546611E+0	1.611054E+0	1.501517E+0	1.576820E+0	1.658414E+0	1.653440E+0	1.679577E+0	1.677463E+0	1.514732E+0	1.474254E+0	1.638164E+0	1.708937E+0	1.422634E+0	1.383613E+0	1.545770E+0	1.670804E+0	1.521514E+0	1.655907E+0	1.635511E+0	1.586226E+0	1.607105E+0	1.635373E+0	1.644741E+0	1.635495E+0	1.641856E+0	1.503361E+0	1.592603E+0	1.687571E+0	1.533502E+0	1.465190E+0	1.577649E+0	1.606096E+0	1.639993E+0	1.598066E+0	1.639218E+0	1.603772E+0	1.649420E+0	1.612798E+0	1.682474E+0	1.643025E+0	1.448847E+0	1.465690E+0	1.624018E+0	1.649877E+0	1.411846E+0	1.405749E+0	1.522030E+0	1.641585E+0	1.521798E+0	1.516530E+0	1.607558E+0	1.573431E+0	1.572881E+0	1.642545E+0	1.614528E+0	1.585785E+0	1.498956E+0	1.512079E+0	1.463590E+0	1.566267E+0	1.426550E+0	1.422531E+0	1.531768E+0	1.581657E+0	1.570261E+0	1.507629E+0	1.594479E+0	1.653178E+0	1.578156E+0	1.634672E+0	1.691562E+0	1.596253E+0	1.530812E+0	1.440748E+0	1.570774E+0	1.508239E+0	1.524497E+0	1.417259E+0	1.396756E+0	1.571541E+0	1.648259E+0	1.592787E+0
5.447720E+2	1.586223E+0	1.463301E+0	1.151101E+0	1.268695E+0	1.579000E+0	1.430576E+0	1.351266E+0	1.360655E+0	1.517567E+0	1.558302E+0	1.432734E+0	1.314551E+0	1.529372E+0	1.584974E+0	1.551617E+0	1.611075E+0	1.616199E+0	1.490315E+0	1.440721E+0	1.453699E+0	1.560310E+0	1.399663E+0	1.443227E+0	1.325617E+0	1.590574E+0	1.478366E+0	1.467950E+0	1.436525E+0	1.536110E+0	1.544438E+0	1.589731E+0	1.566329E+0	1.549000E+0	1.421475E+0	1.457562E+0	1.426937E+0	1.557277E+0	1.384053E+0	1.414881E+0	1.357175E+0	1.536696E+0	1.527444E+0	1.493234E+0	1.437923E+0	1.494658E+0	1.614035E+0	1.515102E+0	1.566575E+0	1.560909E+0	1.406881E+0	1.523105E+0	1.577137E+0	1.561326E+0	1.353519E+0	1.380815E+0	1.465727E+0	1.559536E+0	1.504536E+0	1.486578E+0	1.561309E+0	1.544412E+0	1.565014E+0	1.579227E+0	1.648246E+0	1.557682E+0	1.397677E+0	1.477676E+0	1.451112E+0	1.598167E+0	1.350802E+0	1.433554E+0	1.324006E+0	1.586230E+0	1.483167E+0	1.517366E+0	1.463941E+0	1.499405E+0	1.523839E+0	1.627752E+0	1.544561E+0	1.600070E+0	1.410816E+0	1.380953E+0	1.537692E+0	1.525074E+0	1.393453E+0	1.443408E+0	1.438587E+0	1.414625E+0	1.428208E+0	1.559733E+0	1.439159E+0	1.517827E+0	1.562085E+0	1.582164E+0	1.573887E+0	1.615949E+0	1.429590E+0	1.484131E+0	1.623701E+0	1.586963E+0	1.347248E+0	1.411004E+0	1.518161E+0	1.569331E+0	1.473928E+0	1.555070E+0	1.615485E+0	1.486145E+0	1.611583E+0	1.625585E+0	1.633202E+0	1.642746E+0	1.514594E+0	1.383491E+0	1.502918E+0	1.630493E+0	1.463732E+0	1.376589E+0	1.500235E+0	1.575116E+0	1.547279E+0	1.503694E+0	1.532399E+0	1.529291E+0	1.535992E+0	1.568320E+0	1.606029E+0	1.585052E+0	1.387408E+0	1.387293E+0	1.488057E+0	1.557899E+0	1.311879E+0	1.254910E+0	1.491068E+0	1.577235E+0	1.439199E+0	1.417067E+0	1.548986E+0	1.574521E+0	1.527177E+0	1.545498E+0	1.555714E+0	1.538610E+0	1.412414E+0	1.426814E+0	1.454592E+0	1.584908E+0	1.335759E+0	1.392689E+0	1.400247E+0	1.577021E+0	1.535237E+0	1.485853E+0	1.471872E+0	1.530304E+0	1.530470E+0	1.570026E+0	1.619350E+0	1.588139E+0	1.472095E+0	1.405854E+0	1.488896E+0	1.595057E+0	1.447037E+0	1.377423E+0	1.362676E+0	1.595077E+0	1.492546E+0	1.461816E+0
5.450200E+2	1.495600E+0	1.348599E+0	1.127468E+0	1.192152E+0	1.538551E+0	1.333430E+0	1.317269E+0	1.303192E+0	1.488305E+0	1.519754E+0	1.396052E+0	1.191555E+0	1.470079E+0	1.498387E+0	1.461119E+0	1.507411E+0	1.459674E+0	1.417010E+0	1.362946E+0	1.380891E+0	1.544058E+0	1.363921E+0	1.340132E+0	1.276887E+0	1.489801E+0	1.416284E+0	1.465902E+0	1.323552E+0	1.515568E+0	1.473269E+0	1.472351E+0	1.436896E+0	1.543476E+0	1.315296E+0	1.312106E+0	1.320671E+0	1.488012E+0	1.289885E+0	1.320524E+0	1.280155E+0	1.435966E+0	1.470516E+0	1.451317E+0	1.417614E+0	1.417744E+0	1.548946E+0	1.490758E+0	1.508116E+0	1.494701E+0	1.383123E+0	1.469971E+0	1.495003E+0	1.462825E+0	1.283099E+0	1.333534E+0	1.365354E+0	1.454114E+0	1.416783E+0	1.503736E+0	1.516911E+0	1.422767E+0	1.508875E+0	1.514349E+0	1.467398E+0	1.498201E+0	1.313279E+0	1.430285E+0	1.359072E+0	1.505410E+0	1.314149E+0	1.344187E+0	1.256151E+0	1.456111E+0	1.395451E+0	1.393715E+0	1.371471E+0	1.547947E+0	1.472701E+0	1.538309E+0	1.454595E+0	1.538016E+0	1.339490E+0	1.346254E+0	1.390485E+0	1.524527E+0	1.357208E+0	1.383985E+0	1.308009E+0	1.322674E+0	1.456100E+0	1.462731E+0	1.374249E+0	1.476712E+0	1.509856E+0	1.495586E+0	1.504236E+0	1.531572E+0	1.349594E+0	1.446280E+0	1.493561E+0	1.532695E+0	1.312133E+0	1.368824E+0	1.420237E+0	1.546664E+0	1.408298E+0	1.469626E+0	1.481546E+0	1.475384E+0	1.562898E+0	1.548983E+0	1.499913E+0	1.526176E+0	1.477815E+0	1.375674E+0	1.487055E+0	1.534310E+0	1.381873E+0	1.347687E+0	1.406713E+0	1.435453E+0	1.436256E+0	1.351903E+0	1.529898E+0	1.480395E+0	1.455209E+0	1.462685E+0	1.522683E+0	1.514691E+0	1.337917E+0	1.280334E+0	1.450751E+0	1.508686E+0	1.266812E+0	1.302048E+0	1.429144E+0	1.490701E+0	1.385593E+0	1.349250E+0	1.432428E+0	1.519413E+0	1.518388E+0	1.446202E+0	1.486846E+0	1.457561E+0	1.349745E+0	1.382544E+0	1.385442E+0	1.499927E+0	1.345374E+0	1.300175E+0	1.321532E+0	1.517346E+0	1.352636E+0	1.432745E+0	1.402187E+0	1.522624E+0	1.514959E+0	1.486689E+0	1.528341E+0	1.501975E+0	1.412243E+0	1.350527E+0	1.404779E+0	1.505923E+0	1.352314E+0	1.299715E+0	1.315821E+0	1.530352E+0	1.530011E+0	1.439655E+0
5.452690E+2	1.456758E+0	1.323664E+0	1.061001E+0	1.198487E+0	1.412946E+0	1.299969E+0	1.232785E+0	1.250949E+0	1.389741E+0	1.405250E+0	1.333478E+0	1.139742E+0	1.362402E+0	1.431820E+0	1.378605E+0	1.447791E+0	1.433831E+0	1.271383E+0	1.327687E+0	1.282573E+0	1.473960E+0	1.261048E+0	1.262432E+0	1.271261E+0	1.397614E+0	1.355776E+0	1.333708E+0	1.264890E+0	1.424959E+0	1.424381E+0	1.431224E+0	1.320356E+0	1.466136E+0	1.243755E+0	1.271121E+0	1.320139E+0	1.451371E+0	1.221212E+0	1.257126E+0	1.206578E+0	1.430432E+0	1.364786E+0	1.374020E+0	1.296831E+0	1.352058E+0	1.430797E+0	1.374325E+0	1.461249E+0	1.419190E+0	1.260957E+0	1.276768E+0	1.426195E+0	1.439763E+0	1.211666E+0	1.252848E+0	1.348946E+0	1.420208E+0	1.400590E+0	1.387641E+0	1.389006E+0	1.359452E+0	1.469933E+0	1.420504E+0	1.433795E+0	1.410497E+0	1.248905E+0	1.309290E+0	1.276493E+0	1.429181E+0	1.241333E+0	1.306993E+0	1.244691E+0	1.413450E+0	1.359540E+0	1.386570E+0	1.292678E+0	1.378848E+0	1.422608E+0	1.493847E+0	1.396939E+0	1.435391E+0	1.272956E+0	1.299991E+0	1.333783E+0	1.439328E+0	1.241831E+0	1.310676E+0	1.255134E+0	1.323244E+0	1.290441E+0	1.340917E+0	1.331822E+0	1.424869E+0	1.430354E+0	1.400552E+0	1.400497E+0	1.399836E+0	1.358737E+0	1.356323E+0	1.384818E+0	1.441889E+0	1.216610E+0	1.197915E+0	1.321271E+0	1.447346E+0	1.312032E+0	1.384182E+0	1.450254E+0	1.372613E+0	1.469457E+0	1.407300E+0	1.435288E+0	1.436380E+0	1.354640E+0	1.201074E+0	1.364423E+0	1.474589E+0	1.319793E+0	1.253394E+0	1.368786E+0	1.348158E+0	1.416799E+0	1.339398E+0	1.465560E+0	1.403065E+0	1.485641E+0	1.444340E+0	1.377230E+0	1.428573E+0	1.250876E+0	1.252895E+0	1.388143E+0	1.441569E+0	1.227964E+0	1.184205E+0	1.314373E+0	1.451871E+0	1.291504E+0	1.303477E+0	1.325626E+0	1.428300E+0	1.392995E+0	1.341299E+0	1.360673E+0	1.418247E+0	1.297821E+0	1.363961E+0	1.311232E+0	1.469223E+0	1.234289E+0	1.183784E+0	1.318541E+0	1.432172E+0	1.376399E+0	1.320681E+0	1.324117E+0	1.437557E+0	1.446587E+0	1.427922E+0	1.429914E+0	1.448907E+0	1.313060E+0	1.325103E+0	1.353745E+0	1.437048E+0	1.360204E+0	1.257420E+0	1.280528E+0	1.505835E+0	1.381322E+0	1.308685E+0
5.455450E+2	1.347487E+0	1.339249E+0	9.704101E-1	1.046982E+0	1.332049E+0	1.356098E+0	1.117913E+0	1.134594E+0	1.296821E+0	1.351963E+0	1.211026E+0	1.086880E+0	1.235751E+0	1.327909E+0	1.334954E+0	1.297937E+0	1.285597E+0	1.315166E+0	1.217247E+0	1.211359E+0	1.342910E+0	1.283748E+0	1.155346E+0	1.112883E+0	1.395891E+0	1.346833E+0	1.286241E+0	1.137795E+0	1.305903E+0	1.321707E+0	1.306325E+0	1.265806E+0	1.292122E+0	1.303374E+0	1.178645E+0	1.210682E+0	1.333425E+0	1.233177E+0	1.192746E+0	1.140742E+0	1.298704E+0	1.337134E+0	1.194385E+0	1.255678E+0	1.284129E+0	1.363518E+0	1.292293E+0	1.306164E+0	1.309207E+0	1.207794E+0	1.263351E+0	1.294118E+0	1.312906E+0	1.136686E+0	1.182955E+0	1.253882E+0	1.290948E+0	1.266345E+0	1.240088E+0	1.317128E+0	1.341006E+0	1.300004E+0	1.335927E+0	1.334970E+0	1.336905E+0	1.226495E+0	1.215060E+0	1.217061E+0	1.340689E+0	1.136319E+0	1.169588E+0	1.138324E+0	1.339856E+0	1.227707E+0	1.305785E+0	1.142209E+0	1.264159E+0	1.301548E+0	1.329073E+0	1.322382E+0	1.283240E+0	1.199501E+0	1.194840E+0	1.249818E+0	1.298620E+0	1.169339E+0	1.192381E+0	1.180191E+0	1.218237E+0	1.275073E+0	1.252373E+0	1.168774E+0	1.300921E+0	1.340407E+0	1.344062E+0	1.285067E+0	1.313283E+0	1.237022E+0	1.235647E+0	1.352424E+0	1.356458E+0	1.179433E+0	1.166692E+0	1.260850E+0	1.312408E+0	1.279216E+0	1.273264E+0	1.340724E+0	1.291365E+0	1.316703E+0	1.293843E+0	1.295079E+0	1.310887E+0	1.282835E+0	1.161465E+0	1.272905E+0	1.339821E+0	1.217060E+0	1.197013E+0	1.296569E+0	1.349285E+0	1.305775E+0	1.273450E+0	1.321264E+0	1.296173E+0	1.294751E+0	1.277545E+0	1.335823E+0	1.319938E+0	1.196833E+0	1.134175E+0	1.352100E+0	1.340149E+0	1.133693E+0	1.122401E+0	1.200665E+0	1.301542E+0	1.225315E+0	1.229444E+0	1.260168E+0	1.313177E+0	1.332644E+0	1.311569E+0	1.348105E+0	1.291834E+0	1.226201E+0	1.245355E+0	1.249954E+0	1.361757E+0	1.176612E+0	1.167868E+0	1.176062E+0	1.366699E+0	1.306986E+0	1.190030E+0	1.265959E+0	1.354857E+0	1.313294E+0	1.332293E+0	1.334455E+0	1.341519E+0	1.258338E+0	1.209456E+0	1.259535E+0	1.335179E+0	1.206276E+0	1.140857E+0	1.104665E+0	1.341081E+0	1.237316E+0	1.294581E+0
5.457890E+2	1.292596E+0	1.310572E+0	9.423468E-1	1.007391E+0	1.315019E+0	1.304285E+0	1.056613E+0	1.114171E+0	1.256265E+0	1.320789E+0	1.163556E+0	1.033496E+0	1.199226E+0	1.269461E+0	1.292368E+0	1.324255E+0	1.229521E+0	1.299425E+0	1.105254E+0	1.159278E+0	1.262150E+0	1.270225E+0	1.140904E+0	1.038845E+0	1.221824E+0	1.257913E+0	1.237751E+0	1.140512E+0	1.269031E+0	1.224468E+0	1.232590E+0	1.238531E+0	1.295989E+0	1.266466E+0	1.157651E+0	1.152764E+0	1.301301E+0	1.255550E+0	1.096422E+0	1.054257E+0	1.232287E+0	1.272613E+0	1.159546E+0	1.184597E+0	1.191497E+0	1.296242E+0	1.247309E+0	1.228379E+0	1.248472E+0	1.300550E+0	1.215048E+0	1.225304E+0	1.223051E+0	1.318057E+0	1.132590E+0	1.160262E+0	1.230025E+0	1.278881E+0	1.181752E+0	1.272730E+0	1.220856E+0	1.244880E+0	1.233973E+0	1.238613E+0	1.209885E+0	1.140188E+0	1.138113E+0	1.121865E+0	1.341757E+0	1.170002E+0	1.103469E+0	1.051672E+0	1.281197E+0	1.237966E+0	1.243680E+0	1.160811E+0	1.263090E+0	1.259284E+0	1.279903E+0	1.206073E+0	1.305911E+0	1.175016E+0	1.152255E+0	1.198569E+0	1.268391E+0	1.117776E+0	1.138510E+0	1.098807E+0	1.127992E+0	1.145278E+0	1.278880E+0	1.194329E+0	1.216903E+0	1.274252E+0	1.328223E+0	1.251950E+0	1.246871E+0	1.190168E+0	1.223580E+0	1.242527E+0	1.306486E+0	1.097848E+0	1.128346E+0	1.202512E+0	1.242241E+0	1.155060E+0	1.246196E+0	1.301920E+0	1.235406E+0	1.238925E+0	1.268503E+0	1.272574E+0	1.261806E+0	1.217453E+0	1.102048E+0	1.282667E+0	1.288558E+0	1.146739E+0	1.133048E+0	1.227984E+0	1.214120E+0	1.262853E+0	1.208642E+0	1.238809E+0	1.271726E+0	1.226138E+0	1.273652E+0	1.260971E+0	1.330069E+0	1.121741E+0	1.103375E+0	1.271158E+0	1.297394E+0	1.115562E+0	1.057979E+0	1.142478E+0	1.264931E+0	1.138340E+0	1.176886E+0	1.227439E+0	1.247159E+0	1.261743E+0	1.279032E+0	1.224951E+0	1.237398E+0	1.197553E+0	1.174301E+0	1.185300E+0	1.309671E+0	1.153113E+0	1.068888E+0	1.137700E+0	1.276314E+0	1.248827E+0	1.174097E+0	1.175315E+0	1.254432E+0	1.258713E+0	1.269254E+0	1.280539E+0	1.279085E+0	1.171122E+0	1.189518E+0	1.173172E+0	1.213054E+0	1.140166E+0	1.104954E+0	1.067546E+0	1.322448E+0	1.298197E+0	1.159581E+0
5.460110E+2	1.279129E+0	1.251351E+0	9.177295E-1	9.968327E-1	1.242107E+0	1.211995E+0	1.017463E+0	1.066679E+0	1.190557E+0	1.280541E+0	1.144675E+0	9.911029E-1	1.195429E+0	1.247272E+0	1.228485E+0	1.232947E+0	1.227569E+0	1.301394E+0	1.151401E+0	1.127921E+0	1.295672E+0	1.272159E+0	1.064201E+0	1.033690E+0	1.290535E+0	1.247392E+0	1.226521E+0	1.137796E+0	1.212138E+0	1.191330E+0	1.255161E+0	1.203321E+0	1.235223E+0	1.203441E+0	1.100670E+0	1.145325E+0	1.207441E+0	1.219132E+0	1.096424E+0	1.018116E+0	1.248892E+0	1.238455E+0	1.196018E+0	1.216131E+0	1.185321E+0	1.278191E+0	1.238841E+0	1.224997E+0	1.265433E+0	1.242860E+0	1.135619E+0	1.236403E+0	1.266298E+0	1.280565E+0	1.091478E+0	1.147233E+0	1.248035E+0	1.256943E+0	1.174889E+0	1.220929E+0	1.237807E+0	1.239317E+0	1.243819E+0	1.269743E+0	1.210388E+0	1.219818E+0	1.159300E+0	1.123441E+0	1.262861E+0	1.267586E+0	1.143759E+0	1.090181E+0	1.232669E+0	1.263613E+0	1.168388E+0	1.156981E+0	1.271093E+0	1.239456E+0	1.259505E+0	1.234404E+0	1.231925E+0	1.227177E+0	1.094424E+0	1.175668E+0	1.250802E+0	1.229066E+0	1.139620E+0	1.116281E+0	1.130829E+0	1.220991E+0	1.228687E+0	1.131973E+0	1.232992E+0	1.281795E+0	1.258005E+0	1.253409E+0	1.221283E+0	1.127312E+0	1.119908E+0	1.218235E+0	1.275320E+0	1.155679E+0	1.120129E+0	1.205118E+0	1.243861E+0	1.222881E+0	1.222845E+0	1.189890E+0	1.205812E+0	1.249558E+0	1.235672E+0	1.230454E+0	1.271845E+0	1.207530E+0	1.078595E+0	1.217384E+0	1.219324E+0	1.165418E+0	1.079507E+0	1.216555E+0	1.185962E+0	1.245686E+0	1.175668E+0	1.220069E+0	1.274568E+0	1.201240E+0	1.188586E+0	1.246107E+0	1.212990E+0	1.096710E+0	1.068096E+0	1.163024E+0	1.283971E+0	1.055994E+0	1.038077E+0	1.173974E+0	1.265485E+0	1.148186E+0	1.082509E+0	1.205045E+0	1.222061E+0	1.241821E+0	1.204420E+0	1.246063E+0	1.216834E+0	1.059684E+0	1.188513E+0	1.182489E+0	1.294867E+0	1.079948E+0	1.046008E+0	1.140688E+0	1.257774E+0	1.162529E+0	1.141167E+0	1.161169E+0	1.269791E+0	1.186897E+0	1.186448E+0	1.300329E+0	1.213527E+0	1.103859E+0	1.110262E+0	1.150180E+0	1.279036E+0	1.123885E+0	1.048887E+0	1.073631E+0	1.244974E+0	1.163557E+0	1.068909E+0
5.467710E+2	1.317970E+0	1.328028E+0	9.832115E-1	1.083406E+0	1.313953E+0	1.316160E+0	1.098853E+0	1.143619E+0	1.259858E+0	1.283942E+0	1.217499E+0	1.028785E+0	1.201122E+0	1.346309E+0	1.266815E+0	1.318887E+0	1.280231E+0	1.321073E+0	1.163325E+0	1.187976E+0	1.280942E+0	1.323837E+0	1.203161E+0	1.078675E+0	1.316303E+0	1.297904E+0	1.228564E+0	1.154633E+0	1.263235E+0	1.289657E+0	1.269209E+0	1.268784E+0	1.267816E+0	1.298264E+0	1.113166E+0	1.158608E+0	1.324389E+0	1.293007E+0	1.158345E+0	1.125256E+0	1.207936E+0	1.287794E+0	1.200918E+0	1.184597E+0	1.217884E+0	1.361879E+0	1.297057E+0	1.283939E+0	1.294983E+0	1.282451E+0	1.236516E+0	1.251942E+0	1.281673E+0	1.280058E+0	1.109465E+0	1.186801E+0	1.262870E+0	1.325371E+0	1.189187E+0	1.262683E+0	1.290650E+0	1.334396E+0	1.288426E+0	1.324099E+0	1.258780E+0	1.341412E+0	1.184392E+0	1.188134E+0	1.323097E+0	1.317120E+0	1.136012E+0	1.061757E+0	1.331323E+0	1.313886E+0	1.281601E+0	1.181604E+0	1.266826E+0	1.326075E+0	1.332735E+0	1.309458E+0	1.238489E+0	1.305423E+0	1.120186E+0	1.186572E+0	1.281583E+0	1.354147E+0	1.169610E+0	1.185708E+0	1.180779E+0	1.329151E+0	1.338656E+0	1.174908E+0	1.224650E+0	1.338085E+0	1.292854E+0	1.306010E+0	1.281709E+0	1.293023E+0	1.252652E+0	1.321769E+0	1.307559E+0	1.309036E+0	1.080688E+0	1.234809E+0	1.291358E+0	1.324614E+0	1.247259E+0	1.276886E+0	1.299434E+0	1.338524E+0	1.387719E+0	1.318159E+0	1.243398E+0	1.352305E+0	1.111951E+0	1.268634E+0	1.294900E+0	1.284084E+0	1.170003E+0	1.207721E+0	1.251289E+0	1.260564E+0	1.243889E+0	1.315642E+0	1.244432E+0	1.278703E+0	1.291999E+0	1.334761E+0	1.270967E+0	1.257704E+0	1.133055E+0	1.216775E+0	1.323245E+0	1.217087E+0	1.079977E+0	1.139809E+0	1.279910E+0	1.290959E+0	1.152585E+0	1.278542E+0	1.249340E+0	1.301586E+0	1.279032E+0	1.280246E+0	1.320868E+0	1.205909E+0	1.184138E+0	1.222404E+0	1.321733E+0	1.147239E+0	1.084805E+0	1.172075E+0	1.321507E+0	1.246326E+0	1.185250E+0	1.214612E+0	1.300508E+0	1.302953E+0	1.307722E+0	1.284007E+0	1.271592E+0	1.190503E+0	1.169082E+0	1.230372E+0	1.316078E+0	1.220585E+0	1.114298E+0	1.112576E+0	1.321467E+0	1.158874E+0	1.238164E+0
5.475070E+2	1.442258E+0	1.443980E+0	1.047216E+0	1.142530E+0	1.414013E+0	1.454864E+0	1.246694E+0	1.235754E+0	1.347131E+0	1.409786E+0	1.329163E+0	1.138172E+0	1.391334E+0	1.404218E+0	1.432374E+0	1.405360E+0	1.458210E+0	1.478018E+0	1.284655E+0	1.302239E+0	1.477514E+0	1.453272E+0	1.265919E+0	1.210815E+0	1.342642E+0	1.454689E+0	1.362801E+0	1.246424E+0	1.399672E+0	1.392329E+0	1.394103E+0	1.342177E+0	1.439070E+0	1.431126E+0	1.307108E+0	1.277100E+0	1.402183E+0	1.415269E+0	1.248774E+0	1.175597E+0	1.319735E+0	1.441237E+0	1.360413E+0	1.332640E+0	1.361039E+0	1.477291E+0	1.394967E+0	1.433715E+0	1.358456E+0	1.448166E+0	1.377126E+0	1.423420E+0	1.409487E+0	1.451299E+0	1.277518E+0	1.313720E+0	1.335977E+0	1.411036E+0	1.315008E+0	1.413318E+0	1.391356E+0	1.482576E+0	1.468002E+0	1.417491E+0	1.366141E+0	1.433918E+0	1.348879E+0	1.287539E+0	1.480887E+0	1.438972E+0	1.254306E+0	1.233685E+0	1.399051E+0	1.462134E+0	1.404705E+0	1.281735E+0	1.364978E+0	1.418954E+0	1.432122E+0	1.388487E+0	1.475365E+0	1.434236E+0	1.266869E+0	1.336508E+0	1.427789E+0	1.464926E+0	1.283462E+0	1.271688E+0	1.269320E+0	1.446992E+0	1.392236E+0	1.348178E+0	1.451087E+0	1.401340E+0	1.438035E+0	1.460404E+0	1.419434E+0	1.441591E+0	1.276787E+0	1.367467E+0	1.488636E+0	1.427799E+0	1.207225E+0	1.363465E+0	1.431154E+0	1.435097E+0	1.371976E+0	1.402062E+0	1.446327E+0	1.467219E+0	1.416518E+0	1.405284E+0	1.436937E+0	1.455050E+0	1.297491E+0	1.431537E+0	1.371003E+0	1.456590E+0	1.261924E+0	1.343846E+0	1.402224E+0	1.399631E+0	1.378056E+0	1.408092E+0	1.402496E+0	1.454654E+0	1.384848E+0	1.452079E+0	1.429135E+0	1.394805E+0	1.213694E+0	1.350834E+0	1.418698E+0	1.419102E+0	1.230295E+0	1.321845E+0	1.427464E+0	1.437558E+0	1.323255E+0	1.354335E+0	1.398838E+0	1.485577E+0	1.406373E+0	1.330513E+0	1.368649E+0	1.461952E+0	1.303290E+0	1.296052E+0	1.456612E+0	1.372613E+0	1.195721E+0	1.300607E+0	1.416528E+0	1.397037E+0	1.286161E+0	1.323070E+0	1.416884E+0	1.431651E+0	1.433265E+0	1.474426E+0	1.369614E+0	1.366073E+0	1.307655E+0	1.363841E+0	1.423737E+0	1.384871E+0	1.252992E+0	1.236714E+0	1.434246E+0	1.456252E+0	1.393309E+0
5.482600E+2	1.531851E+0	1.548086E+0	1.130422E+0	1.229104E+0	1.582191E+0	1.549850E+0	1.316237E+0	1.364458E+0	1.525265E+0	1.585511E+0	1.389039E+0	1.194698E+0	1.485258E+0	1.507046E+0	1.510626E+0	1.490761E+0	1.497710E+0	1.548371E+0	1.349981E+0	1.374515E+0	1.528306E+0	1.544553E+0	1.365530E+0	1.245019E+0	1.499534E+0	1.547818E+0	1.483769E+0	1.388726E+0	1.481853E+0	1.504780E+0	1.462824E+0	1.447805E+0	1.521379E+0	1.549229E+0	1.342098E+0	1.367430E+0	1.490019E+0	1.527645E+0	1.302830E+0	1.263375E+0	1.483011E+0	1.485697E+0	1.407771E+0	1.391430E+0	1.449186E+0	1.536368E+0	1.485992E+0	1.498937E+0	1.464606E+0	1.490584E+0	1.512370E+0	1.477799E+0	1.471476E+0	1.526276E+0	1.329937E+0	1.351843E+0	1.465768E+0	1.484165E+0	1.466561E+0	1.466176E+0	1.409804E+0	1.527080E+0	1.516088E+0	1.503467E+0	1.544576E+0	1.517364E+0	1.357241E+0	1.370642E+0	1.549655E+0	1.515751E+0	1.364849E+0	1.294205E+0	1.524905E+0	1.549340E+0	1.398110E+0	1.301980E+0	1.480732E+0	1.459656E+0	1.489661E+0	1.515235E+0	1.502817E+0	1.454996E+0	1.354666E+0	1.394845E+0	1.479451E+0	1.524659E+0	1.363435E+0	1.340654E+0	1.369217E+0	1.518720E+0	1.530972E+0	1.325690E+0	1.477306E+0	1.545833E+0	1.559992E+0	1.437998E+0	1.517422E+0	1.545018E+0	1.384297E+0	1.519589E+0	1.535917E+0	1.504219E+0	1.327740E+0	1.424404E+0	1.513734E+0	1.523153E+0	1.451051E+0	1.526611E+0	1.467310E+0	1.520376E+0	1.526523E+0	1.541455E+0	1.508331E+0	1.550205E+0	1.357430E+0	1.479124E+0	1.470361E+0	1.502188E+0	1.317836E+0	1.424899E+0	1.436012E+0	1.499780E+0	1.439456E+0	1.536771E+0	1.507117E+0	1.508881E+0	1.407088E+0	1.535956E+0	1.511312E+0	1.489239E+0	1.306654E+0	1.489957E+0	1.500728E+0	1.528912E+0	1.269051E+0	1.402453E+0	1.516771E+0	1.509763E+0	1.373552E+0	1.426109E+0	1.425570E+0	1.526008E+0	1.469203E+0	1.526558E+0	1.498691E+0	1.490603E+0	1.359586E+0	1.428733E+0	1.527890E+0	1.509327E+0	1.261378E+0	1.372346E+0	1.508071E+0	1.496465E+0	1.382822E+0	1.412140E+0	1.527349E+0	1.559770E+0	1.484017E+0	1.505095E+0	1.514463E+0	1.561592E+0	1.315632E+0	1.422164E+0	1.508237E+0	1.529428E+0	1.270697E+0	1.291481E+0	1.540159E+0	1.522987E+0	1.407413E+0
5.490380E+2	1.479026E+0	1.483251E+0	1.198860E+0	1.197959E+0	1.467766E+0	1.525564E+0	1.271936E+0	1.289418E+0	1.395901E+0	1.454565E+0	1.399827E+0	1.181089E+0	1.416003E+0	1.492434E+0	1.448875E+0	1.491300E+0	1.405548E+0	1.483919E+0	1.306431E+0	1.382488E+0	1.454658E+0	1.511711E+0	1.325188E+0	1.236586E+0	1.442846E+0	1.473631E+0	1.428133E+0	1.276840E+0	1.385976E+0	1.409171E+0	1.426205E+0	1.425490E+0	1.489338E+0	1.547524E+0	1.297612E+0	1.369021E+0	1.521140E+0	1.497990E+0	1.305287E+0	1.291771E+0	1.437072E+0	1.525818E+0	1.401237E+0	1.350812E+0	1.391355E+0	1.494793E+0	1.455299E+0	1.508600E+0	1.389099E+0	1.418188E+0	1.375516E+0	1.443397E+0	1.453217E+0	1.536916E+0	1.284197E+0	1.356185E+0	1.394781E+0	1.412082E+0	1.389354E+0	1.431816E+0	1.417283E+0	1.473474E+0	1.494652E+0	1.458993E+0	1.449812E+0	1.478263E+0	1.381217E+0	1.352234E+0	1.406258E+0	1.463740E+0	1.274970E+0	1.255233E+0	1.437980E+0	1.515996E+0	1.399759E+0	1.293772E+0	1.502603E+0	1.474787E+0	1.487570E+0	1.468015E+0	1.476562E+0	1.490127E+0	1.301041E+0	1.364858E+0	1.442627E+0	1.504236E+0	1.341220E+0	1.307549E+0	1.373760E+0	1.461224E+0	1.457657E+0	1.374246E+0	1.437978E+0	1.533068E+0	1.494000E+0	1.499364E+0	1.476593E+0	1.466163E+0	1.395269E+0	1.436297E+0	1.475202E+0	1.503185E+0	1.280082E+0	1.424928E+0	1.472716E+0	1.458614E+0	1.486077E+0	1.487806E+0	1.432338E+0	1.480649E+0	1.463745E+0	1.430674E+0	1.456457E+0	1.509338E+0	1.318862E+0	1.404690E+0	1.471415E+0	1.445051E+0	1.318306E+0	1.409830E+0	1.406729E+0	1.441981E+0	1.376352E+0	1.393725E+0	1.434908E+0	1.511093E+0	1.459350E+0	1.474376E+0	1.456153E+0	1.428937E+0	1.333532E+0	1.391938E+0	1.484322E+0	1.438784E+0	1.198343E+0	1.297287E+0	1.495140E+0	1.485695E+0	1.325517E+0	1.429554E+0	1.447941E+0	1.428154E+0	1.433862E+0	1.479807E+0	1.503527E+0	1.441661E+0	1.330618E+0	1.319105E+0	1.485672E+0	1.439899E+0	1.240488E+0	1.299611E+0	1.485476E+0	1.486463E+0	1.354142E+0	1.371799E+0	1.483046E+0	1.562644E+0	1.485087E+0	1.447224E+0	1.497606E+0	1.473805E+0	1.320615E+0	1.414313E+0	1.478721E+0	1.492427E+0	1.315946E+0	1.270183E+0	1.410709E+0	1.515962E+0	1.407415E+0
5.497850E+2	1.375971E+0	1.465173E+0	1.258434E+0	1.082351E+0	1.444878E+0	1.385241E+0	1.261118E+0	1.227203E+0	1.318382E+0	1.383710E+0	1.327004E+0	1.146023E+0	1.296466E+0	1.412336E+0	1.354119E+0	1.337148E+0	1.371904E+0	1.375189E+0	1.260285E+0	1.233147E+0	1.403865E+0	1.416564E+0	1.244004E+0	1.185042E+0	1.379860E+0	1.359459E+0	1.337281E+0	1.214923E+0	1.364906E+0	1.364624E+0	1.386580E+0	1.369952E+0	1.412553E+0	1.381160E+0	1.254625E+0	1.255845E+0	1.411723E+0	1.375209E+0	1.197168E+0	1.175598E+0	1.348516E+0	1.399485E+0	1.335915E+0	1.289348E+0	1.270094E+0	1.370086E+0	1.357391E+0	1.417284E+0	1.364475E+0	1.402355E+0	1.359415E+0	1.380134E+0	1.317230E+0	1.450789E+0	1.196316E+0	1.249537E+0	1.365115E+0	1.409989E+0	1.337312E+0	1.318711E+0	1.358953E+0	1.397108E+0	1.393274E+0	1.430336E+0	1.401426E+0	1.375746E+0	1.271932E+0	1.274917E+0	1.395065E+0	1.420152E+0	1.193350E+0	1.182337E+0	1.354256E+0	1.396986E+0	1.302486E+0	1.277357E+0	1.368179E+0	1.393389E+0	1.443107E+0	1.353694E+0	1.342310E+0	1.414541E+0	1.232696E+0	1.314696E+0	1.383267E+0	1.427151E+0	1.283463E+0	1.217892E+0	1.254563E+0	1.391202E+0	1.335841E+0	1.315467E+0	1.283643E+0	1.408881E+0	1.379435E+0	1.359587E+0	1.427600E+0	1.366164E+0	1.291598E+0	1.385975E+0	1.401591E+0	1.417470E+0	1.211063E+0	1.318146E+0	1.406325E+0	1.409390E+0	1.335357E+0	1.374524E+0	1.337639E+0	1.403991E+0	1.361803E+0	1.344702E+0	1.396777E+0	1.436950E+0	1.212020E+0	1.374183E+0	1.391088E+0	1.328037E+0	1.231127E+0	1.302283E+0	1.369559E+0	1.367009E+0	1.347926E+0	1.365614E+0	1.401931E+0	1.398216E+0	1.350933E+0	1.403242E+0	1.376223E+0	1.365793E+0	1.190174E+0	1.323010E+0	1.398813E+0	1.350725E+0	1.166397E+0	1.231628E+0	1.355349E+0	1.377387E+0	1.269002E+0	1.370991E+0	1.359008E+0	1.386550E+0	1.351959E+0	1.377762E+0	1.389818E+0	1.367055E+0	1.301651E+0	1.306734E+0	1.373822E+0	1.382223E+0	1.173339E+0	1.231857E+0	1.330198E+0	1.458320E+0	1.307934E+0	1.282725E+0	1.330637E+0	1.387409E+0	1.334966E+0	1.437334E+0	1.427054E+0	1.417373E+0	1.292701E+0	1.307762E+0	1.430101E+0	1.398197E+0	1.177744E+0	1.170993E+0	1.385211E+0	1.411762E+0	1.203909E+0
5.505170E+2	1.333505E+0	1.381015E+0	1.391366E+0	1.099772E+0	1.375162E+0	1.335588E+0	1.383719E+0	1.151216E+0	1.344565E+0	1.363301E+0	1.386881E+0	1.129274E+0	1.327300E+0	1.389066E+0	1.387124E+0	1.356482E+0	1.369954E+0	1.429310E+0	1.312133E+0	1.264503E+0	1.372882E+0	1.407873E+0	1.317219E+0	1.110539E+0	1.333480E+0	1.312632E+0	1.331666E+0	1.166582E+0	1.390716E+0	1.378204E+0	1.376047E+0	1.323332E+0	1.395978E+0	1.377186E+0	1.278114E+0	1.239906E+0	1.368558E+0	1.390297E+0	1.257124E+0	1.143325E+0	1.372314E+0	1.335508E+0	1.329927E+0	1.275987E+0	1.300973E+0	1.415482E+0	1.373266E+0	1.350132E+0	1.282395E+0	1.327131E+0	1.276769E+0	1.304660E+0	1.354229E+0	1.389491E+0	1.198886E+0	1.282835E+0	1.331207E+0	1.378651E+0	1.311576E+0	1.384777E+0	1.295636E+0	1.403176E+0	1.355621E+0	1.350286E+0	1.336908E+0	1.347612E+0	1.252975E+0	1.239678E+0	1.351350E+0	1.355259E+0	1.235710E+0	1.125486E+0	1.378786E+0	1.338508E+0	1.304131E+0	1.245623E+0	1.321770E+0	1.317205E+0	1.364119E+0	1.318902E+0	1.282044E+0	1.398043E+0	1.217447E+0	1.267808E+0	1.353035E+0	1.403155E+0	1.208486E+0	1.178810E+0	1.260239E+0	1.384370E+0	1.327381E+0	1.326712E+0	1.294963E+0	1.383348E+0	1.373629E+0	1.383938E+0	1.351933E+0	1.376449E+0	1.258138E+0	1.370359E+0	1.396216E+0	1.389588E+0	1.201748E+0	1.284291E+0	1.333997E+0	1.379308E+0	1.338541E+0	1.326956E+0	1.301585E+0	1.453790E+0	1.415941E+0	1.347585E+0	1.330967E+0	1.397842E+0	1.194818E+0	1.349169E+0	1.377343E+0	1.382975E+0	1.197011E+0	1.319946E+0	1.370122E+0	1.302914E+0	1.281978E+0	1.381856E+0	1.358146E+0	1.422010E+0	1.369838E+0	1.345910E+0	1.338512E+0	1.329949E+0	1.196333E+0	1.326805E+0	1.354071E+0	1.348652E+0	1.135495E+0	1.265257E+0	1.391407E+0	1.344017E+0	1.261655E+0	1.323902E+0	1.349731E+0	1.417018E+0	1.330081E+0	1.349616E+0	1.331756E+0	1.344375E+0	1.232782E+0	1.263447E+0	1.413300E+0	1.346441E+0	1.163391E+0	1.216914E+0	1.376551E+0	1.364519E+0	1.252169E+0	1.269101E+0	1.386166E+0	1.339724E+0	1.354731E+0	1.335442E+0	1.387722E+0	1.289687E+0	1.236376E+0	1.305517E+0	1.349068E+0	1.383887E+0	1.163974E+0	1.139960E+0	1.356773E+0	1.336832E+0	1.191820E+0
5.512620E+2	1.360434E+0	1.371041E+0	1.351483E+0	1.207461E+0	1.344292E+0	1.402508E+0	1.377539E+0	1.212482E+0	1.298365E+0	1.329856E+0	1.352898E+0	1.127704E+0	1.295517E+0	1.368499E+0	1.327500E+0	1.317275E+0	1.371418E+0	1.416516E+0	1.353611E+0	1.234213E+0	1.386595E+0	1.350884E+0	1.384457E+0	1.108664E+0	1.355238E+0	1.334204E+0	1.342385E+0	1.242624E+0	1.330138E+0	1.336919E+0	1.359496E+0	1.290106E+0	1.321403E+0	1.323812E+0	1.350594E+0	1.221306E+0	1.378596E+0	1.332547E+0	1.314137E+0	1.128695E+0	1.283761E+0	1.335509E+0	1.392526E+0	1.251938E+0	1.274023E+0	1.394698E+0	1.342044E+0	1.317761E+0	1.411529E+0	1.350319E+0	1.322923E+0	1.372363E+0	1.319154E+0	1.394554E+0	1.283684E+0	1.305999E+0	1.291478E+0	1.330071E+0	1.306429E+0	1.303384E+0	1.301122E+0	1.354626E+0	1.341140E+0	1.317675E+0	1.332873E+0	1.358101E+0	1.256320E+0	1.235997E+0	1.320965E+0	1.390924E+0	1.230542E+0	1.169499E+0	1.413984E+0	1.353899E+0	1.270611E+0	1.223735E+0	1.316434E+0	1.330250E+0	1.397074E+0	1.281624E+0	1.323813E+0	1.344281E+0	1.191160E+0	1.249817E+0	1.363478E+0	1.380693E+0	1.241809E+0	1.248238E+0	1.209157E+0	1.397465E+0	1.370241E+0	1.240332E+0	1.291984E+0	1.339244E+0	1.325586E+0	1.340102E+0	1.327979E+0	1.361020E+0	1.240036E+0	1.320615E+0	1.356458E+0	1.356542E+0	1.190794E+0	1.272309E+0	1.413883E+0	1.322972E+0	1.315720E+0	1.302547E+0	1.315041E+0	1.391122E+0	1.334735E+0	1.359124E+0	1.317581E+0	1.337713E+0	1.175013E+0	1.340629E+0	1.380517E+0	1.374184E+0	1.210752E+0	1.310075E+0	1.316621E+0	1.314932E+0	1.331437E+0	1.373735E+0	1.342229E+0	1.347869E+0	1.350935E+0	1.335824E+0	1.328381E+0	1.321421E+0	1.177294E+0	1.243333E+0	1.338163E+0	1.340884E+0	1.115592E+0	1.240702E+0	1.384749E+0	1.290957E+0	1.221532E+0	1.289453E+0	1.297902E+0	1.375419E+0	1.374396E+0	1.350117E+0	1.383771E+0	1.370038E+0	1.279787E+0	1.269066E+0	1.333245E+0	1.342705E+0	1.156429E+0	1.187517E+0	1.311077E+0	1.385779E+0	1.251107E+0	1.270673E+0	1.285739E+0	1.354087E+0	1.322141E+0	1.355230E+0	1.320292E+0	1.386592E+0	1.209455E+0	1.237103E+0	1.375116E+0	1.352312E+0	1.158071E+0	1.139960E+0	1.259684E+0	1.368444E+0	1.244206E+0
5.520210E+2	1.368721E+0	1.404082E+0	1.313079E+0	1.267639E+0	1.348016E+0	1.386860E+0	1.398658E+0	1.221505E+0	1.321977E+0	1.362169E+0	1.329704E+0	1.106246E+0	1.298364E+0	1.374992E+0	1.392445E+0	1.320496E+0	1.289010E+0	1.368301E+0	1.348428E+0	1.271948E+0	1.384562E+0	1.384207E+0	1.378976E+0	1.134905E+0	1.342066E+0	1.345253E+0	1.418947E+0	1.156263E+0	1.330139E+0	1.349414E+0	1.401128E+0	1.353585E+0	1.324164E+0	1.355042E+0	1.355093E+0	1.213869E+0	1.378094E+0	1.332548E+0	1.425692E+0	1.155372E+0	1.236715E+0	1.363159E+0	1.398518E+0	1.238576E+0	1.292551E+0	1.370631E+0	1.347864E+0	1.330804E+0	1.375419E+0	1.353715E+0	1.372835E+0	1.282466E+0	1.319632E+0	1.368212E+0	1.350493E+0	1.262086E+0	1.329618E+0	1.402155E+0	1.383637E+0	1.320823E+0	1.306605E+0	1.323776E+0	1.384010E+0	1.313721E+0	1.351019E+0	1.360486E+0	1.298696E+0	1.194973E+0	1.406792E+0	1.344365E+0	1.351421E+0	1.160788E+0	1.297196E+0	1.269256E+0	1.329963E+0	1.200753E+0	1.298299E+0	1.355295E+0	1.354704E+0	1.308963E+0	1.283240E+0	1.335231E+0	1.336264E+0	1.247637E+0	1.367325E+0	1.378142E+0	1.308454E+0	1.150764E+0	1.188724E+0	1.359894E+0	1.316667E+0	1.279176E+0	1.327141E+0	1.400759E+0	1.363596E+0	1.329873E+0	1.281165E+0	1.338164E+0	1.260878E+0	1.358790E+0	1.359678E+0	1.338468E+0	1.260909E+0	1.254079E+0	1.335618E+0	1.361258E+0	1.362954E+0	1.348862E+0	1.296747E+0	1.388323E+0	1.352590E+0	1.395476E+0	1.347698E+0	1.369236E+0	1.175535E+0	1.286327E+0	1.375230E+0	1.318144E+0	1.210751E+0	1.255522E+0	1.316056E+0	1.354993E+0	1.367254E+0	1.399973E+0	1.320055E+0	1.364469E+0	1.356492E+0	1.301315E+0	1.305302E+0	1.353278E+0	1.182894E+0	1.274320E+0	1.316286E+0	1.318613E+0	1.081548E+0	1.161696E+0	1.339817E+0	1.386137E+0	1.240180E+0	1.273375E+0	1.309903E+0	1.355496E+0	1.314371E+0	1.353133E+0	1.374093E+0	1.352732E+0	1.193432E+0	1.243768E+0	1.385885E+0	1.340035E+0	1.113653E+0	1.198480E+0	1.331936E+0	1.364518E+0	1.289875E+0	1.259672E+0	1.353084E+0	1.344321E+0	1.365417E+0	1.339401E+0	1.388970E+0	1.371201E+0	1.253822E+0	1.281964E+0	1.378589E+0	1.363660E+0	1.135940E+0	1.115010E+0	1.274394E+0	1.353224E+0	1.248238E+0
5.527650E+2	1.304504E+0	1.341119E+0	1.341639E+0	1.273976E+0	1.318211E+0	1.294570E+0	1.362082E+0	1.204884E+0	1.292714E+0	1.266937E+0	1.325927E+0	1.056001E+0	1.288402E+0	1.309509E+0	1.331760E+0	1.302234E+0	1.327041E+0	1.350100E+0	1.271688E+0	1.190102E+0	1.277387E+0	1.308864E+0	1.316721E+0	1.139591E+0	1.344361E+0	1.297901E+0	1.349530E+0	1.174188E+0	1.274825E+0	1.323880E+0	1.344446E+0	1.303993E+0	1.304276E+0	1.330062E+0	1.333600E+0	1.221839E+0	1.329406E+0	1.311735E+0	1.289560E+0	1.082225E+0	1.286529E+0	1.358824E+0	1.302166E+0	1.205442E+0	1.286934E+0	1.348203E+0	1.356331E+0	1.280077E+0	1.309212E+0	1.311296E+0	1.316481E+0	1.291899E+0	1.269182E+0	1.355547E+0	1.302184E+0	1.168466E+0	1.310019E+0	1.300821E+0	1.278403E+0	1.285411E+0	1.237806E+0	1.299500E+0	1.352147E+0	1.341391E+0	1.308680E+0	1.300882E+0	1.302599E+0	1.207595E+0	1.285249E+0	1.315634E+0	1.298729E+0	1.099811E+0	1.328658E+0	1.341584E+0	1.290943E+0	1.177227E+0	1.226817E+0	1.321900E+0	1.314949E+0	1.302499E+0	1.342907E+0	1.310213E+0	1.344151E+0	1.270537E+0	1.322803E+0	1.326578E+0	1.358993E+0	1.179730E+0	1.176805E+0	1.302397E+0	1.318922E+0	1.224999E+0	1.274108E+0	1.355496E+0	1.322943E+0	1.257305E+0	1.275722E+0	1.277595E+0	1.345898E+0	1.296899E+0	1.305949E+0	1.317297E+0	1.270223E+0	1.248870E+0	1.275166E+0	1.267730E+0	1.367728E+0	1.328833E+0	1.270917E+0	1.375453E+0	1.316881E+0	1.336622E+0	1.286345E+0	1.309107E+0	1.289155E+0	1.296701E+0	1.279573E+0	1.323639E+0	1.303619E+0	1.255519E+0	1.285645E+0	1.246828E+0	1.326321E+0	1.273165E+0	1.281960E+0	1.353953E+0	1.319798E+0	1.261503E+0	1.283912E+0	1.351567E+0	1.297695E+0	1.283173E+0	1.285465E+0	1.311358E+0	1.230817E+0	1.203868E+0	1.276027E+0	1.336360E+0	1.311953E+0	1.203897E+0	1.295173E+0	1.360183E+0	1.303153E+0	1.256619E+0	1.365022E+0	1.325277E+0	1.195615E+0	1.214534E+0	1.382594E+0	1.263129E+0	1.147973E+0	1.176062E+0	1.287904E+0	1.323244E+0	1.198527E+0	1.261244E+0	1.299328E+0	1.303528E+0	1.245214E+0	1.313681E+0	1.312799E+0	1.333009E+0	1.193008E+0	1.245515E+0	1.303923E+0	1.361689E+0	1.130529E+0	1.154564E+0	1.301854E+0	1.335661E+0	1.256298E+0
5.535160E+2	1.221647E+0	1.247610E+0	1.258433E+0	1.183178E+0	1.260200E+0	1.228727E+0	1.264722E+0	1.100875E+0	1.211606E+0	1.237458E+0	1.248787E+0	1.165387E+0	1.199226E+0	1.240777E+0	1.233807E+0	1.243153E+0	1.256828E+0	1.269905E+0	1.219842E+0	1.102943E+0	1.263161E+0	1.242210E+0	1.190210E+0	1.075393E+0	1.194339E+0	1.220032E+0	1.265312E+0	1.082395E+0	1.192645E+0	1.217405E+0	1.217543E+0	1.167121E+0	1.215337E+0	1.222746E+0	1.219633E+0	1.107598E+0	1.228521E+0	1.220693E+0	1.224691E+0	1.091694E+0	1.195205E+0	1.270989E+0	1.232489E+0	1.111380E+0	1.146584E+0	1.257406E+0	1.255776E+0	1.199390E+0	1.215644E+0	1.202703E+0	1.255835E+0	1.234186E+0	1.173558E+0	1.218252E+0	1.174216E+0	1.155919E+0	1.225786E+0	1.206275E+0	1.265250E+0	1.136892E+0	1.199419E+0	1.218074E+0	1.256564E+0	1.198590E+0	1.243154E+0	1.266550E+0	1.227324E+0	1.136063E+0	1.238340E+0	1.264117E+0	1.233643E+0	1.058549E+0	1.241202E+0	1.266695E+0	1.186526E+0	1.120869E+0	1.182543E+0	1.228498E+0	1.242764E+0	1.208063E+0	1.264743E+0	1.254324E+0	1.201151E+0	1.144047E+0	1.225516E+0	1.303604E+0	1.233476E+0	1.096508E+0	1.094504E+0	1.215869E+0	1.226996E+0	1.113061E+0	1.201411E+0	1.260325E+0	1.241115E+0	1.219317E+0	1.241972E+0	1.250166E+0	1.189023E+0	1.211294E+0	1.304338E+0	1.237781E+0	1.240643E+0	1.171262E+0	1.228747E+0	1.267729E+0	1.294491E+0	1.259363E+0	1.188593E+0	1.316700E+0	1.227034E+0	1.234492E+0	1.192086E+0	1.268827E+0	1.204201E+0	1.177727E+0	1.229368E+0	1.202228E+0	1.206961E+0	1.138618E+0	1.189339E+0	1.233666E+0	1.249005E+0	1.204452E+0	1.181320E+0	1.238865E+0	1.224170E+0	1.239206E+0	1.224249E+0	1.217882E+0	1.213695E+0	1.197171E+0	1.222325E+0	1.233661E+0	1.227673E+0	1.091231E+0	1.206132E+0	1.219300E+0	1.258829E+0	1.188968E+0	1.220425E+0	1.231860E+0	1.215640E+0	1.206350E+0	1.257963E+0	1.208296E+0	1.173754E+0	1.145385E+0	1.196724E+0	1.217200E+0	1.195225E+0	1.118270E+0	1.209684E+0	1.297604E+0	1.269695E+0	1.140734E+0	1.283377E+0	1.238031E+0	1.222240E+0	1.239984E+0	1.226015E+0	1.192213E+0	1.141665E+0	1.188874E+0	1.275564E+0	1.258080E+0	1.144300E+0	1.059635E+0	1.179268E+0	1.275953E+0	1.306670E+0
5.542580E+2	1.090108E+0	1.096127E+0	1.141746E+0	1.023227E+0	1.124485E+0	1.154247E+0	1.116882E+0	1.012063E+0	1.123308E+0	1.183040E+0	1.148991E+0	1.036636E+0	1.093446E+0	1.187199E+0	1.131597E+0	1.109410E+0	1.143213E+0	1.117880E+0	1.127550E+0	1.043420E+0	1.140243E+0	1.120019E+0	1.163814E+0	9.493462E-1	1.088408E+0	1.141637E+0	1.152001E+0	1.020477E+0	1.137860E+0	1.120708E+0	1.149327E+0	1.055045E+0	1.117556E+0	1.152907E+0	1.150154E+0	1.033209E+0	1.137677E+0	1.118202E+0	1.098386E+0	9.415248E-1	1.122703E+0	1.187490E+0	1.134508E+0	1.045107E+0	1.116267E+0	1.144183E+0	1.134055E+0	1.140447E+0	1.084320E+0	1.117867E+0	1.148500E+0	1.093230E+0	1.083223E+0	1.137701E+0	1.128993E+0	1.004391E+0	1.088577E+0	1.159786E+0	1.158304E+0	1.099366E+0	1.062817E+0	1.141709E+0	1.139549E+0	1.134352E+0	1.106557E+0	1.132082E+0	1.111906E+0	1.029822E+0	1.148250E+0	1.125419E+0	1.101401E+0	9.792322E-1	1.151077E+0	1.146659E+0	1.129369E+0	1.016907E+0	1.091858E+0	1.162227E+0	1.148609E+0	1.113625E+0	1.089918E+0	1.107947E+0	1.099681E+0	1.035003E+0	1.159012E+0	1.106545E+0	1.166832E+0	9.967366E-1	1.007663E+0	1.149264E+0	1.186954E+0	1.067060E+0	1.094150E+0	1.154709E+0	1.123380E+0	1.068333E+0	1.086825E+0	1.130170E+0	1.141849E+0	1.128582E+0	1.109290E+0	1.101980E+0	1.156284E+0	1.043649E+0	1.115939E+0	1.137010E+0	1.148548E+0	1.132310E+0	1.127253E+0	1.154994E+0	1.160225E+0	1.139865E+0	1.157507E+0	1.194104E+0	1.133319E+0	1.144171E+0	1.138466E+0	1.103888E+0	1.183270E+0	1.076791E+0	1.103174E+0	1.107762E+0	1.149515E+0	1.117624E+0	1.112522E+0	1.142588E+0	1.121871E+0	1.095342E+0	1.127434E+0	1.094434E+0	1.151535E+0	1.119390E+0	1.132340E+0	1.148713E+0	1.177918E+0	1.043720E+0	1.100181E+0	1.106066E+0	1.133371E+0	1.075851E+0	1.123306E+0	1.131662E+0	1.175250E+0	1.145025E+0	1.120060E+0	1.153984E+0	1.153531E+0	1.019452E+0	1.134769E+0	1.145101E+0	1.132552E+0	9.797735E-1	1.095543E+0	1.142518E+0	1.180470E+0	1.065285E+0	1.103792E+0	1.057626E+0	1.155463E+0	1.153922E+0	1.131738E+0	1.144331E+0	1.112255E+0	1.080081E+0	1.185851E+0	1.187528E+0	1.152169E+0	9.993913E-1	1.195939E+0	1.115555E+0	1.101150E+0
5.550190E+2	1.039358E+0	1.011345E+0	1.023091E+0	9.641032E-1	1.064878E+0	1.040910E+0	1.124609E+0	9.455739E-1	1.051438E+0	1.057196E+0	1.067537E+0	9.979068E-1	9.805517E-1	1.061101E+0	1.005430E+0	9.955423E-1	1.071534E+0	1.029815E+0	1.062219E+0	9.520101E-1	1.019353E+0	1.055302E+0	1.085121E+0	8.931169E-1	1.066650E+0	1.005892E+0	1.063700E+0	9.113046E-1	1.031976E+0	1.041939E+0	1.043991E+0	9.950423E-1	1.006518E+0	1.077391E+0	1.043687E+0	9.125932E-1	1.040804E+0	1.011029E+0	1.072342E+0	8.976361E-1	1.001494E+0	1.030797E+0	1.009853E+0	9.815084E-1	1.010723E+0	1.074170E+0	1.071605E+0	1.003722E+0	1.042187E+0	1.083367E+0	1.080878E+0	1.000555E+0	1.001538E+0	1.068799E+0	1.019015E+0	9.426223E-1	9.783857E-1	1.051660E+0	1.043351E+0	1.007928E+0	1.012464E+0	1.088605E+0	1.062505E+0	1.041951E+0	1.035485E+0	1.055790E+0	1.046111E+0	9.188449E-1	1.086945E+0	1.052605E+0	1.058010E+0	8.687379E-1	1.085485E+0	1.030214E+0	1.019455E+0	9.315491E-1	1.009175E+0	1.033865E+0	1.129776E+0	1.022665E+0	1.008771E+0	1.033427E+0	1.066561E+0	9.384993E-1	1.008410E+0	1.090719E+0	1.077419E+0	8.992617E-1	9.503356E-1	1.032563E+0	1.021713E+0	9.878351E-1	1.012514E+0	1.063601E+0	1.042078E+0	1.051285E+0	1.065052E+0	1.080456E+0	1.023367E+0	1.090985E+0	1.045350E+0	1.056540E+0	1.079593E+0	9.420791E-1	1.025801E+0	1.065906E+0	1.081675E+0	1.025911E+0	1.046005E+0	1.066586E+0	1.082474E+0	1.051584E+0	1.076635E+0	1.082603E+0	1.030125E+0	9.910316E-1	1.040165E+0	1.050598E+0	1.034967E+0	9.952199E-1	1.055868E+0	1.060263E+0	1.047755E+0	1.030171E+0	1.031784E+0	1.054612E+0	1.040142E+0	1.045972E+0	1.008106E+0	1.060870E+0	1.049616E+0	1.014418E+0	1.045837E+0	1.075678E+0	1.050647E+0	8.915798E-1	1.021412E+0	1.036595E+0	1.081944E+0	1.015561E+0	1.026189E+0	1.061935E+0	1.073152E+0	1.023374E+0	1.089213E+0	1.067443E+0	1.051323E+0	1.009895E+0	1.095840E+0	1.062325E+0	1.074857E+0	9.249730E-1	1.055564E+0	1.033706E+0	1.076372E+0	9.788323E-1	1.038812E+0	1.050157E+0	9.829045E-1	1.056980E+0	1.086161E+0	1.070797E+0	1.061411E+0	9.628761E-1	1.056201E+0	1.033598E+0	1.065117E+0	8.941174E-1	1.027263E+0	1.102677E+0	1.036672E+0
5.557710E+2	1.008803E+0	9.795528E-1	9.654866E-1	9.720216E-1	1.003140E+0	9.977331E-1	1.002009E+0	8.952317E-1	9.610876E-1	9.738679E-1	9.796096E-1	9.445224E-1	9.264763E-1	9.739686E-1	9.665680E-1	1.000913E+0	9.901014E-1	1.022927E+0	9.932596E-1	8.962070E-1	9.924317E-1	1.033567E+0	1.032325E+0	8.584416E-1	9.853415E-1	9.906346E-1	9.713151E-1	8.971830E-1	9.345206E-1	9.887007E-1	9.973416E-1	9.781804E-1	1.006519E+0	1.009823E+0	9.767072E-1	9.019663E-1	9.901125E-1	1.034961E+0	9.937094E-1	8.558989E-1	9.339718E-1	9.879632E-1	1.022373E+0	9.034794E-1	9.315642E-1	9.882948E-1	9.911617E-1	9.800465E-1	9.568280E-1	9.747754E-1	9.660279E-1	9.223087E-1	9.866416E-1	1.007498E+0	1.000514E+0	9.218718E-1	9.714987E-1	9.837552E-1	9.627115E-1	9.286470E-1	9.690904E-1	1.028929E+0	9.825635E-1	9.811730E-1	9.573574E-1	9.895097E-1	9.290201E-1	9.135852E-1	9.744658E-1	1.027839E+0	9.867245E-1	8.371033E-1	9.750960E-1	9.753262E-1	9.831832E-1	8.697191E-1	9.857037E-1	9.628998E-1	1.013129E+0	9.411499E-1	9.592477E-1	1.028636E+0	9.813888E-1	9.265049E-1	9.699347E-1	1.014141E+0	1.025214E+0	8.882267E-1	9.071988E-1	9.910056E-1	9.850554E-1	9.403007E-1	9.642462E-1	1.035746E+0	1.037854E+0	9.753070E-1	9.850302E-1	9.661721E-1	9.981347E-1	9.810856E-1	1.017947E+0	1.016265E+0	9.826350E-1	9.248904E-1	9.502345E-1	9.412029E-1	1.025952E+0	9.545617E-1	9.755180E-1	1.019024E+0	1.001267E+0	1.006578E+0	9.734513E-1	9.851141E-1	9.472558E-1	9.611355E-1	1.005285E+0	9.637956E-1	1.005117E+0	9.214421E-1	9.415419E-1	1.005894E+0	9.795339E-1	9.864454E-1	9.754941E-1	9.832349E-1	1.031802E+0	1.000849E+0	9.985365E-1	9.647294E-1	9.633760E-1	9.809025E-1	1.001591E+0	9.715626E-1	9.678938E-1	8.793016E-1	1.010318E+0	1.014168E+0	1.031082E+0	9.765153E-1	9.623533E-1	1.004511E+0	1.009200E+0	1.020359E+0	9.706655E-1	1.010744E+0	9.819086E-1	9.058879E-1	9.944077E-1	9.843525E-1	9.549863E-1	9.015579E-1	1.030071E+0	1.033706E+0	1.033885E+0	9.756886E-1	9.891897E-1	9.593805E-1	9.834384E-1	1.038185E+0	1.004995E+0	9.835831E-1	9.736807E-1	9.348361E-1	9.439151E-1	1.003010E+0	1.063150E+0	8.551726E-1	9.998041E-1	1.007844E+0	9.782397E-1
5.560130E+2	1.035215E+0	9.920203E-1	9.625327E-1	1.072321E+0	9.829159E-1	1.018242E+0	9.973725E-1	1.057181E+0	9.770014E-1	9.784026E-1	9.725969E-1	9.806349E-1	9.108230E-1	9.782979E-1	1.009689E+0	1.000913E+0	1.006193E+0	1.015547E+0	1.018147E+0	9.791141E-1	9.741459E-1	9.987927E-1	9.899892E-1	9.704327E-1	9.922131E-1	9.190795E-1	9.468148E-1	9.509538E-1	9.713957E-1	9.599086E-1	9.888143E-1	9.915700E-1	9.954699E-1	9.791622E-1	9.937019E-1	9.380977E-1	1.004166E+0	9.891790E-1	9.794577E-1	8.515957E-1	9.893180E-1	9.885053E-1	9.973329E-1	9.168407E-1	9.427919E-1	1.041351E+0	9.742260E-1	1.024979E+0	9.847340E-1	1.005882E+0	1.030967E+0	9.927855E-1	9.534870E-1	9.735548E-1	9.388440E-1	8.890568E-1	9.773263E-1	9.983806E-1	9.861600E-1	9.386891E-1	9.436643E-1	1.044606E+0	9.883562E-1	9.875968E-1	9.361871E-1	9.566078E-1	9.635905E-1	8.751908E-1	9.728665E-1	1.006043E+0	1.010487E+0	8.393954E-1	1.019358E+0	9.958451E-1	1.006815E+0	8.664371E-1	9.515641E-1	1.009340E+0	1.000576E+0	9.774340E-1	1.001014E+0	9.865867E-1	1.009253E+0	9.434066E-1	1.006760E+0	9.962735E-1	1.024103E+0	8.629387E-1	9.020909E-1	9.500182E-1	1.016073E+0	9.535900E-1	9.672259E-1	9.957056E-1	9.787236E-1	1.011835E+0	9.953728E-1	9.347440E-1	1.009106E+0	9.955465E-1	1.037827E+0	1.030207E+0	9.727751E-1	9.363497E-1	1.014465E+0	1.019416E+0	9.723499E-1	9.332820E-1	9.572238E-1	9.720232E-1	1.007603E+0	1.014079E+0	9.829329E-1	9.746058E-1	9.238023E-1	9.568650E-1	9.223115E-1	1.003901E+0	1.007487E+0	9.780747E-1	9.961707E-1	9.721290E-1	1.021034E+0	9.901930E-1	1.026098E+0	9.959609E-1	9.873238E-1	1.002973E+0	9.726445E-1	1.023324E+0	9.964157E-1	9.587701E-1	9.548590E-1	9.948717E-1	9.961763E-1	9.086622E-1	1.006990E+0	9.343037E-1	1.038994E+0	9.363212E-1	9.863601E-1	1.002754E+0	9.845170E-1	1.023375E+0	1.019658E+0	1.042375E+0	1.002132E+0	9.160071E-1	9.686381E-1	9.635237E-1	9.694103E-1	9.224820E-1	1.026594E+0	9.924333E-1	9.802430E-1	9.568261E-1	1.006321E+0	9.783404E-1	9.946578E-1	9.991099E-1	1.008117E+0	9.767426E-1	1.047455E+0	9.146477E-1	1.027261E+0	1.031132E+0	1.021346E+0	8.527382E-1	9.262523E-1	9.891121E-1	9.399548E-1
5.565090E+2	9.761781E-1	9.764364E-1	1.013244E+0	9.841633E-1	9.877056E-1	9.955746E-1	9.736769E-1	1.058131E+0	9.616009E-1	9.965420E-1	9.806890E-1	9.743547E-1	9.463991E-1	1.017806E+0	9.852006E-1	1.011118E+0	9.432908E-1	1.011119E+0	9.958517E-1	1.013127E+0	9.589075E-1	1.045158E+0	9.785335E-1	9.830848E-1	9.492683E-1	1.000632E+0	9.973460E-1	9.857149E-1	9.998418E-1	9.767491E-1	9.602235E-1	9.851228E-1	1.034693E+0	9.996026E-1	9.877038E-1	1.020457E+0	1.026752E+0	9.954218E-1	1.038922E+0	1.017686E+0	9.411665E-1	9.435039E-1	1.007676E+0	1.001817E+0	9.528982E-1	9.822781E-1	1.022916E+0	1.004203E+0	9.650356E-1	9.742100E-1	1.037944E+0	1.008879E+0	9.856807E-1	1.033336E+0	1.027752E+0	1.001978E+0	9.328258E-1	9.722632E-1	9.787250E-1	1.028013E+0	1.008974E+0	1.006170E+0	9.976247E-1	9.955036E-1	9.770152E-1	1.015736E+0	1.042209E+0	9.446165E-1	1.053361E+0	9.758271E-1	1.027016E+0	8.893697E-1	9.873613E-1	1.011747E+0	9.892281E-1	9.173234E-1	9.782354E-1	9.905550E-1	9.916826E-1	9.814106E-1	9.980311E-1	1.023314E+0	1.013985E+0	9.090575E-1	9.985162E-1	1.016694E+0	9.985563E-1	8.450068E-1	8.947120E-1	9.853132E-1	9.827986E-1	9.060555E-1	9.338565E-1	9.864212E-1	1.034158E+0	9.767680E-1	9.735982E-1	1.014171E+0	1.018431E+0	1.025046E+0	9.910803E-1	9.413939E-1	1.029744E+0	9.446832E-1	1.034437E+0	1.018870E+0	9.972933E-1	9.789703E-1	9.862796E-1	1.011750E+0	1.001843E+0	1.000808E+0	9.807019E-1	9.944535E-1	1.000417E+0	9.843199E-1	9.989430E-1	9.912653E-1	9.728978E-1	9.261182E-1	9.961707E-1	9.727015E-1	1.000569E+0	9.758257E-1	9.965316E-1	1.019753E+0	9.784280E-1	9.960716E-1	9.563212E-1	9.965865E-1	1.031136E+0	9.543433E-1	1.056775E+0	1.043044E+0	9.998428E-1	8.995870E-1	1.019193E+0	9.572779E-1	9.886975E-1	9.707737E-1	9.934530E-1	1.037324E+0	9.833948E-1	1.005781E+0	9.876009E-1	9.868695E-1	1.009784E+0	9.604211E-1	1.000987E+0	9.699328E-1	9.818453E-1	9.209874E-1	9.622811E-1	1.006191E+0	1.001487E+0	9.416320E-1	1.009865E+0	1.003045E+0	9.834383E-1	9.956477E-1	1.053694E+0	1.013225E+0	9.886349E-1	9.578290E-1	1.000637E+0	9.714343E-1	9.829832E-1	8.922922E-1	1.007649E+0	1.062870E+0	9.903278E-1
5.570270E+2	9.668568E-1	9.932670E-1	9.832109E-1	1.006863E+0	9.759968E-1	9.610333E-1	9.535870E-1	9.303760E-1	9.456866E-1	9.636647E-1	9.623475E-1	1.005234E+0	9.743853E-1	1.027006E+0	9.782801E-1	9.901710E-1	9.798617E-1	9.860276E-1	9.974078E-1	9.711419E-1	9.924321E-1	9.495291E-1	9.531318E-1	9.802710E-1	9.320900E-1	9.664324E-1	9.769295E-1	9.976649E-1	9.724491E-1	1.001739E+0	1.002357E+0	1.022316E+0	9.744781E-1	9.967636E-1	9.412177E-1	1.040117E+0	1.009185E+0	1.013631E+0	9.858461E-1	9.931589E-1	9.334181E-1	1.001519E+0	9.543294E-1	1.034952E+0	9.304414E-1	9.943116E-1	9.922199E-1	9.872926E-1	9.885643E-1	9.640293E-1	9.891052E-1	9.361819E-1	9.808759E-1	9.786206E-1	9.763601E-1	9.667512E-1	9.963978E-1	9.952463E-1	9.964541E-1	9.698734E-1	9.660991E-1	9.955498E-1	1.031223E+0	1.026633E+0	9.487885E-1	9.513628E-1	1.000947E+0	1.034029E+0	9.963218E-1	9.475925E-1	1.031149E+0	9.870243E-1	1.009759E+0	9.773776E-1	9.661466E-1	1.055209E+0	1.001707E+0	9.670745E-1	9.644826E-1	1.000795E+0	9.634244E-1	1.007877E+0	9.514213E-1	9.913857E-1	9.897218E-1	1.011078E+0	9.774521E-1	9.953566E-1	9.071994E-1	9.522950E-1	9.698282E-1	9.965242E-1	9.392194E-1	9.968667E-1	9.850592E-1	1.008426E+0	9.681542E-1	9.616010E-1	1.005814E+0	9.400182E-1	9.808716E-1	1.015232E+0	9.711320E-1	9.530172E-1	1.003131E+0	9.904282E-1	9.951706E-1	9.733382E-1	9.755177E-1	9.440457E-1	9.811093E-1	1.016964E+0	1.018629E+0	9.821952E-1	9.941629E-1	1.014826E+0	1.027482E+0	9.615980E-1	9.984839E-1	9.157269E-1	9.843432E-1	9.801419E-1	9.818080E-1	1.022051E+0	9.447911E-1	1.019200E+0	9.589690E-1	9.833311E-1	1.028932E+0	9.908982E-1	9.896962E-1	9.499169E-1	9.732529E-1	9.814048E-1	9.857014E-1	8.600841E-1	1.004771E+0	9.720477E-1	9.689180E-1	9.701994E-1	9.667181E-1	9.910350E-1	9.396385E-1	1.022872E+0	9.603833E-1	9.737392E-1	9.545805E-1	9.503020E-1	9.823453E-1	9.795454E-1	9.917924E-1	8.806343E-1	1.065414E+0	9.624162E-1	9.807744E-1	9.185775E-1	9.832824E-1	9.484636E-1	9.909184E-1	9.748737E-1	1.001249E+0	9.488117E-1	9.547386E-1	9.124043E-1	1.003530E+0	9.689671E-1	9.805241E-1	8.667341E-1	9.713642E-1	1.017210E+0	1.002418E+0
5.575640E+2	9.746241E-1	9.739425E-1	9.748414E-1	1.006335E+0	1.024961E+0	9.988129E-1	1.006645E+0	1.036284E+0	9.482537E-1	1.032821E+0	1.042184E+0	9.508026E-1	9.302714E-1	9.966986E-1	9.947831E-1	1.023472E+0	9.871758E-1	1.023419E+0	9.974077E-1	1.004624E+0	9.888757E-1	1.013282E+0	1.007919E+0	1.039784E+0	9.973661E-1	9.974739E-1	1.029502E+0	9.965781E-1	1.000369E+0	9.870709E-1	1.008377E+0	9.702460E-1	1.007623E+0	9.820004E-1	9.957013E-1	1.005579E+0	9.986449E-1	1.032880E+0	9.725772E-1	1.031885E+0	9.815697E-1	1.044894E+0	1.042514E+0	9.718881E-1	9.618800E-1	9.981403E-1	9.948668E-1	1.025945E+0	1.012093E+0	9.962672E-1	9.955457E-1	1.020533E+0	9.919271E-1	1.011551E+0	1.023640E+0	1.003426E+0	9.937485E-1	9.785317E-1	1.016471E+0	1.038055E+0	9.685915E-1	1.032468E+0	1.026589E+0	1.016752E+0	1.011291E+0	9.961850E-1	1.022694E+0	9.756484E-1	1.001120E+0	9.679016E-1	9.629624E-1	1.083305E+0	9.841617E-1	1.010208E+0	9.996703E-1	1.025115E+0	9.611658E-1	9.884688E-1	1.005806E+0	9.948309E-1	1.032638E+0	1.005749E+0	9.861206E-1	1.008833E+0	1.011158E+0	1.016183E+0	1.004110E+0	1.002252E+0	8.918741E-1	9.927131E-1	1.003102E+0	1.005725E+0	9.898701E-1	9.968663E-1	9.882267E-1	1.024985E+0	9.926509E-1	1.003886E+0	9.515102E-1	1.002487E+0	1.021170E+0	1.014200E+0	9.924953E-1	1.021772E+0	1.026880E+0	9.816776E-1	9.792493E-1	9.921138E-1	9.921980E-1	1.001678E+0	1.004147E+0	9.546479E-1	1.003570E+0	9.553417E-1	9.816541E-1	9.745579E-1	1.011627E+0	1.013240E+0	1.033546E+0	1.040422E+0	1.031651E+0	9.944490E-1	9.891984E-1	1.038292E+0	9.675342E-1	9.694016E-1	9.623045E-1	1.031639E+0	9.816503E-1	9.783821E-1	9.807364E-1	1.006829E+0	9.727560E-1	1.024397E+0	1.014508E+0	1.023435E+0	1.003107E+0	1.001587E+0	9.966091E-1	9.960378E-1	9.863599E-1	1.000996E+0	1.036688E+0	1.051022E+0	1.033569E+0	1.053119E+0	1.009237E+0	9.980879E-1	9.938590E-1	9.928969E-1	9.972642E-1	1.015643E+0	1.019062E+0	1.007442E+0	1.016358E+0	1.016033E+0	1.053580E+0	1.005918E+0	1.006945E+0	9.743795E-1	9.419352E-1	9.784531E-1	1.031005E+0	9.466130E-1	9.682243E-1	1.028171E+0	9.756059E-1	9.336714E-1	1.008630E+0	9.516473E-1	1.010477E+0
5.580230E+2	1.018643E+0	1.007605E+0	1.028999E+0	9.757173E-1	1.006866E+0	1.051164E+0	1.012312E+0	9.978157E-1	9.518474E-1	1.039056E+0	1.019527E+0	1.010467E+0	9.350144E-1	9.582738E-1	1.017141E+0	1.026694E+0	9.881513E-1	9.865190E-1	9.999999E-1	9.892117E-1	1.062019E+0	1.011350E+0	1.012900E+0	1.003702E+0	1.000801E+0	1.015890E+0	9.968352E-1	1.009071E+0	9.761368E-1	9.979361E-1	1.036466E+0	1.011405E+0	9.573526E-1	9.967636E-1	1.044686E+0	9.896387E-1	9.896105E-1	1.008949E+0	9.912524E-1	1.031882E+0	9.638586E-1	1.011819E+0	9.668493E-1	1.006092E+0	9.293185E-1	9.986870E-1	9.842816E-1	9.959899E-1	9.967718E-1	1.016628E+0	1.007353E+0	1.014983E+0	9.904862E-1	9.811539E-1	9.758460E-1	1.010182E+0	1.004344E+0	1.032333E+0	1.035344E+0	9.926002E-1	9.800582E-1	1.008193E+0	1.029486E+0	9.910560E-1	1.008770E+0	9.899862E-1	9.814328E-1	1.047178E+0	9.728658E-1	1.046166E+0	1.015652E+0	9.906933E-1	9.996267E-1	1.032266E+0	1.016707E+0	1.016360E+0	9.654336E-1	1.017689E+0	1.021499E+0	9.640144E-1	1.020108E+0	9.780698E-1	1.023974E+0	9.864785E-1	9.924699E-1	9.921890E-1	1.026325E+0	1.047311E+0	9.327401E-1	1.009791E+0	1.026788E+0	1.032814E+0	9.797401E-1	1.042130E+0	1.027823E+0	1.015245E+0	1.064507E+0	1.016456E+0	1.001975E+0	9.666255E-1	9.701253E-1	9.589498E-1	9.448381E-1	1.010834E+0	9.658875E-1	1.003008E+0	9.983548E-1	9.989985E-1	9.970405E-1	1.001679E+0	1.017970E+0	1.017541E+0	9.762398E-1	1.010800E+0	1.032730E+0	9.934719E-1	9.793884E-1	1.039061E+0	1.003221E+0	1.011326E+0	9.916650E-1	1.025925E+0	1.010233E+0	9.845707E-1	9.897087E-1	9.528025E-1	1.020682E+0	1.024738E+0	9.754586E-1	1.002276E+0	9.874562E-1	1.005565E+0	9.752417E-1	9.731165E-1	9.972241E-1	9.833983E-1	9.814724E-1	1.032219E+0	1.019214E+0	1.023025E+0	1.005456E+0	9.957225E-1	1.004712E+0	1.012316E+0	9.724800E-1	9.421072E-1	1.033832E+0	1.032383E+0	1.007566E+0	1.000374E+0	1.030092E+0	1.057989E+0	9.895130E-1	1.009943E+0	9.786494E-1	1.043803E+0	1.005730E+0	1.017409E+0	1.041136E+0	1.025819E+0	9.744020E-1	1.042866E+0	9.716864E-1	1.000448E+0	9.879031E-1	1.040999E+0	1.051837E+0	1.066329E+0	1.031186E+0	1.009015E+0	9.500295E-1
5.585220E+2	1.032626E+0	1.015709E+0	1.047216E+0	1.006334E+0	1.017510E+0	9.966540E-1	1.040128E+0	1.029636E+0	9.821350E-1	1.032821E+0	1.016291E+0	1.004187E+0	9.781805E-1	1.016723E+0	1.033645E+0	9.617037E-1	1.017895E+0	1.027355E+0	9.849636E-1	1.035448E+0	9.924314E-1	9.809225E-1	1.001942E+0	1.000422E+0	1.048900E+0	1.040092E+0	1.033585E+0	9.895180E-1	9.829848E-1	9.897870E-1	1.000351E+0	1.013389E+0	1.013148E+0	1.032535E+0	1.030691E+0	1.001859E+0	1.023741E+0	1.012590E+0	9.971495E-1	1.021127E+0	1.025294E+0	1.053569E+0	9.788247E-1	1.039229E+0	9.349326E-1	1.041898E+0	1.027150E+0	1.015799E+0	1.007168E+0	1.014366E+0	1.000912E+0	1.022752E+0	1.002979E+0	1.043468E+0	1.031349E+0	1.029003E+0	1.005404E+0	1.040169E+0	1.025621E+0	1.007400E+0	9.999998E-1	9.849291E-1	9.900942E-1	1.027127E+0	9.679419E-1	1.027656E+0	1.026596E+0	1.022984E+0	1.038435E+0	1.027838E+0	1.002738E+0	1.002156E+0	9.985600E-1	9.937931E-1	1.043086E+0	1.020190E+0	1.029446E+0	1.031778E+0	1.030391E+0	1.044535E+0	9.634239E-1	1.047267E+0	1.008727E+0	1.019737E+0	1.001814E+0	1.024352E+0	1.006331E+0	1.030299E+0	1.038312E+0	1.033701E+0	1.060627E+0	1.063993E+0	1.015493E+0	1.027042E+0	9.834756E-1	9.952759E-1	1.031301E+0	1.052456E+0	1.018430E+0	1.046447E+0	1.015797E+0	9.847679E-1	1.033031E+0	1.038441E+0	9.826203E-1	1.032543E+0	9.596131E-1	9.858554E-1	9.491527E-1	9.960832E-1	1.062316E+0	1.004847E+0	9.834909E-1	1.051080E+0	1.032731E+0	1.044111E+0	1.051264E+0	1.065431E+0	1.020753E+0	1.061724E+0	9.781490E-1	1.031648E+0	9.954518E-1	1.035168E+0	1.018706E+0	1.036906E+0	1.050149E+0	1.023145E+0	9.805247E-1	1.020480E+0	1.056336E+0	1.046668E+0	1.046334E+0	1.035275E+0	9.799401E-1	1.057600E+0	1.036389E+0	1.036048E+0	1.008477E+0	1.014412E+0	1.039829E+0	1.023848E+0	1.029395E+0	1.026390E+0	1.058366E+0	9.994029E-1	1.017982E+0	1.050935E+0	1.025660E+0	1.064995E+0	9.922904E-1	1.058486E+0	1.009792E+0	1.004940E+0	1.011578E+0	1.032800E+0	9.921431E-1	1.015110E+0	1.026712E+0	1.044118E+0	9.562957E-1	1.025765E+0	1.046458E+0	1.040265E+0	9.879027E-1	1.020277E+0	1.043969E+0	1.117444E+0	1.028244E+0	9.891119E-1	1.008463E+0
5.590160E+2	1.003107E+0	1.052490E+0	1.056078E+0	1.039591E+0	1.070732E+0	1.029036E+0	1.048371E+0	1.023461E+0	9.800816E-1	1.030554E+0	1.038407E+0	1.047627E+0	9.150919E-1	1.012934E+0	1.052809E+0	1.003062E+0	9.891264E-1	1.052446E+0	9.823711E-1	1.035979E+0	1.039670E+0	1.043226E+0	1.026846E+0	9.680881E-1	1.018552E+0	1.040092E+0	1.004492E+0	9.998368E-1	1.019860E+0	1.044111E+0	1.034962E+0	1.051574E+0	1.019224E+0	1.066035E+0	1.018195E+0	9.907010E-1	1.021231E+0	1.043806E+0	1.030569E+0	1.033175E+0	9.987272E-1	1.027001E+0	1.046324E+0	9.964725E-1	1.033179E+0	1.018378E+0	1.065254E+0	1.003237E+0	9.852809E-1	1.056219E+0	9.987658E-1	1.019423E+0	1.035654E+0	1.023710E+0	1.040599E+0	9.957053E-1	9.746774E-1	1.004649E+0	1.027909E+0	1.043341E+0	9.586206E-1	1.039549E+0	9.982042E-1	1.008350E+0	1.057664E+0	1.000954E+0	1.014887E+0	9.719669E-1	9.824619E-1	1.014959E+0	1.036314E+0	1.034248E+0	1.027357E+0	1.051247E+0	1.039239E+0	1.006511E+0	9.675667E-1	1.010384E+0	1.027253E+0	1.019683E+0	1.040394E+0	1.017459E+0	1.047632E+0	1.043181E+0	1.009509E+0	1.029967E+0	1.007442E+0	1.011908E+0	1.072367E+0	1.025731E+0	9.726478E-1	1.017481E+0	1.028007E+0	9.806174E-1	1.026239E+0	1.036188E+0	9.915623E-1	1.033028E+0	1.018979E+0	1.011163E+0	1.049648E+0	1.043633E+0	1.041796E+0	1.027502E+0	1.036595E+0	1.016135E+0	1.056202E+0	1.022156E+0	9.986548E-1	1.038609E+0	1.022000E+0	1.051584E+0	9.985499E-1	1.045242E+0	1.035336E+0	1.041061E+0	9.973574E-1	1.034116E+0	1.061976E+0	1.005091E+0	9.770220E-1	1.023636E+0	1.052871E+0	1.032045E+0	1.052821E+0	1.028606E+0	9.817637E-1	1.033232E+0	1.022740E+0	1.011947E+0	1.005376E+0	1.072596E+0	1.041364E+0	1.015591E+0	1.012413E+0	1.053329E+0	1.000887E+0	1.039331E+0	1.083639E+0	1.040825E+0	1.013640E+0	1.034981E+0	1.033322E+0	9.952249E-1	1.000302E+0	1.053118E+0	1.020168E+0	1.028447E+0	9.856352E-1	1.027611E+0	1.025617E+0	1.044040E+0	1.026015E+0	1.021200E+0	1.037071E+0	1.073144E+0	9.915526E-1	1.010514E+0	1.035259E+0	1.034227E+0	1.030593E+0	1.025195E+0	1.026020E+0	1.068304E+0	1.071829E+0	1.054813E+0	1.014952E+0	1.028600E+0	1.049818E+0	1.023064E+0	1.133387E+0
5.595110E+2	1.047644E+0	9.664616E-1	9.733643E-1	1.030090E+0	1.017510E+0	1.009067E+0	1.012826E+0	1.037709E+0	1.086860E+0	9.908737E-1	1.011436E+0	1.023552E+0	1.106252E+0	1.073007E+0	9.915889E-1	1.019175E+0	1.033498E+0	1.024894E+0	1.034739E+0	1.006218E+0	1.005638E+0	1.002656E+0	1.049757E+0	1.043063E+0	9.601475E-1	1.013259E+0	9.554918E-1	1.056324E+0	1.000896E+0	9.740332E-1	1.029946E+0	9.890900E-1	9.921554E-1	9.990344E-1	1.027192E+0	9.949526E-1	9.911160E-1	9.694088E-1	1.007470E+0	9.686329E-1	9.522360E-1	1.004229E+0	1.030538E+0	1.028005E+0	9.731089E-1	9.833717E-1	9.980420E-1	1.020147E+0	9.770731E-1	9.866521E-1	1.000376E+0	1.025527E+0	9.996154E-1	9.943256E-1	1.012334E+0	1.028037E+0	9.783856E-1	1.044870E+0	1.029053E+0	9.936575E-1	9.466557E-1	1.008699E+0	1.026010E+0	1.025646E+0	9.936491E-1	1.037194E+0	9.959300E-1	9.919526E-1	9.611384E-1	1.028334E+0	9.872409E-1	1.023246E+0	9.884277E-1	9.896891E-1	1.029897E+0	1.018549E+0	1.000640E+0	9.795975E-1	1.040853E+0	1.023659E+0	1.009964E+0	1.030766E+0	1.000841E+0	1.048633E+0	1.035342E+0	1.014141E+0	1.028546E+0	1.052370E+0	1.101883E+0	1.016623E+0	9.929508E-1	1.043548E+0	1.004171E+0	9.957059E-1	1.005121E+0	9.996588E-1	9.784976E-1	1.015885E+0	1.009654E+0	1.011164E+0	1.003439E+0	1.053442E+0	1.009477E+0	1.046254E+0	9.869378E-1	1.009572E+0	1.023298E+0	1.015271E+0	9.954264E-1	1.051478E+0	1.005874E+0	1.002539E+0	1.043170E+0	1.009048E+0	1.007714E+0	1.035570E+0	9.820312E-1	9.907151E-1	9.771620E-1	9.921028E-1	9.815281E-1	9.978825E-1	9.897672E-1	9.739515E-1	9.794744E-1	9.992807E-1	1.077948E+0	1.000850E+0	1.009231E+0	1.022187E+0	9.768156E-1	9.954472E-1	1.008551E+0	9.871023E-1	1.029696E+0	1.071480E+0	1.004216E+0	1.010886E+0	1.018084E+0	1.030490E+0	1.025098E+0	1.001582E+0	1.017615E+0	9.489781E-1	9.815525E-1	1.056102E+0	1.001038E+0	1.042503E+0	1.001535E+0	1.026009E+0	9.942801E-1	1.062971E+0	1.011530E+0	9.993126E-1	1.029636E+0	1.028084E+0	1.017545E+0	1.011663E+0	9.626038E-1	1.018399E+0	1.033715E+0	1.040016E+0	9.911275E-1	1.038583E+0	9.867460E-1	9.743953E-1	9.893768E-1	1.024341E+0	1.013533E+0	1.005502E+0	9.520452E-1
5.600300E+2	1.022786E+0	1.010723E+0	9.763184E-1	1.005279E+0	9.829160E-1	9.869390E-1	9.911907E-1	9.697945E-1	1.104314E+0	9.976762E-1	9.785306E-1	1.005757E+0	1.072101E+0	9.777574E-1	9.926532E-1	9.729832E-1	1.004242E+0	9.619201E-1	1.006222E+0	1.000903E+0	1.011226E+0	9.881673E-1	1.030830E+0	1.009793E+0	1.023133E+0	9.785334E-1	1.027971E+0	1.005268E+0	1.008797E+0	1.010973E+0	9.938303E-1	1.007439E+0	1.013148E+0	9.609923E-1	9.547138E-1	1.004517E+0	1.012196E+0	9.954215E-1	1.011402E+0	9.811101E-1	1.086728E+0	9.847101E-1	1.015296E+0	9.649406E-1	1.062934E+0	9.981404E-1	9.832236E-1	9.988886E-1	1.047659E+0	1.038685E+0	9.993020E-1	9.894564E-1	1.013550E+0	1.013070E+0	9.773877E-1	1.010183E+0	1.027124E+0	9.753976E-1	9.810125E-1	9.688156E-1	1.030910E+0	9.849292E-1	9.987835E-1	9.628907E-1	9.729829E-1	1.004291E+0	9.775295E-1	1.045601E+0	1.004851E+0	1.000595E+0	1.011002E+0	9.934428E-1	9.745628E-1	9.773778E-1	9.546057E-1	9.797001E-1	9.814364E-1	9.978604E-1	1.013652E+0	9.595411E-1	9.765503E-1	9.860544E-1	1.031334E+0	1.006106E+0	9.864242E-1	9.595163E-1	1.009663E+0	1.029840E+0	1.030366E+0	9.790511E-1	9.935144E-1	9.919243E-1	9.749725E-1	1.007312E+0	1.001425E+0	9.621565E-1	9.757754E-1	9.364582E-1	9.981352E-1	9.990164E-1	1.021171E+0	1.025043E+0	9.568897E-1	9.936455E-1	9.313437E-1	9.980853E-1	1.027013E+0	9.927401E-1	9.695989E-1	9.994401E-1	9.949319E-1	9.875363E-1	9.689896E-1	9.570932E-1	9.952053E-1	9.446626E-1	9.651197E-1	9.808269E-1	1.001327E+0	1.046657E+0	9.922277E-1	1.014479E+0	9.664584E-1	9.970642E-1	9.806111E-1	1.008134E+0	1.018458E+0	9.705898E-1	9.709557E-1	1.001707E+0	9.656162E-1	1.016947E+0	1.004077E+0	1.000570E+0	9.872730E-1	1.057600E+0	1.025849E+0	9.731418E-1	9.988701E-1	1.002928E+0	9.634447E-1	9.752147E-1	1.002469E+0	9.690855E-1	1.005746E+0	9.874662E-1	9.988524E-1	9.924662E-1	1.015790E+0	9.651259E-1	9.893058E-1	1.014149E+0	9.472172E-1	9.893064E-1	1.035478E+0	9.971706E-1	9.502010E-1	1.018558E+0	9.738224E-1	9.991099E-1	1.027471E+0	9.659120E-1	1.017048E+0	1.024562E+0	1.030155E+0	9.980760E-1	1.001672E+0	1.060243E+0	9.988236E-1	1.000819E+0	9.983891E-1
5.605090E+2	1.017608E+0	1.018826E+0	9.768108E-1	1.000000E+0	9.456605E-1	9.934154E-1	9.587384E-1	9.778684E-1	1.035524E+0	9.585624E-1	9.844641E-1	1.005757E+0	1.050281E+0	9.777571E-1	9.686984E-1	9.939305E-1	1.021796E+0	9.860277E-1	9.979260E-1	9.764563E-1	9.700821E-1	9.857524E-1	9.601049E-1	9.816783E-1	1.044319E+0	1.014837E+0	9.891795E-1	9.699638E-1	1.049360E+0	9.946760E-1	9.456771E-1	9.930577E-1	1.013700E+0	9.944926E-1	1.031691E+0	9.657281E-1	9.650164E-1	9.626456E-1	1.018773E+0	9.707827E-1	1.061822E+0	9.998918E-1	9.913450E-1	9.809739E-1	1.121882E+0	9.975935E-1	9.932789E-1	1.009036E+0	9.984128E-1	1.003620E+0	9.676380E-1	9.816868E-1	1.012109E+0	9.634222E-1	9.892075E-1	9.479307E-1	1.068975E+0	9.680847E-1	9.598523E-1	9.661734E-1	1.071791E+0	9.778488E-1	9.437515E-1	9.337370E-1	1.026412E+0	1.017166E+0	9.708387E-1	9.677590E-1	1.005384E+0	9.911828E-1	9.696778E-1	9.943601E-1	1.027357E+0	9.773782E-1	9.809846E-1	9.797001E-1	1.065186E+0	1.011428E+0	9.634363E-1	1.053481E+0	1.016528E+0	9.567787E-1	9.845433E-1	1.032823E+0	9.809273E-1	9.574737E-1	9.868932E-1	9.912182E-1	1.042286E+0	9.790506E-1	1.007614E+0	9.796572E-1	1.048863E+0	9.562450E-1	9.866426E-1	9.743325E-1	9.997283E-1	1.008457E+0	9.833250E-1	1.012899E+0	9.620654E-1	9.961274E-1	1.033579E+0	9.926036E-1	1.012846E+0	9.980853E-1	9.994161E-1	1.030918E+0	1.043314E+0	9.988808E-1	9.390656E-1	9.575331E-1	9.935298E-1	1.009049E+0	9.785271E-1	1.015436E+0	1.017969E+0	9.577528E-1	9.819005E-1	9.993769E-1	9.944805E-1	9.767076E-1	1.007959E+0	9.739514E-1	9.806114E-1	1.002047E+0	9.951076E-1	9.599732E-1	9.630754E-1	9.652980E-1	1.018256E+0	9.505486E-1	9.911507E-1	9.684552E-1	9.877967E-1	1.011691E+0	9.210093E-1	1.002133E+0	9.536589E-1	9.925927E-1	9.476220E-1	9.927929E-1	9.934931E-1	9.821545E-1	9.815521E-1	9.403162E-1	9.955727E-1	1.008770E+0	9.850866E-1	9.864883E-1	1.024123E+0	9.543659E-1	9.779250E-1	9.874301E-1	9.765253E-1	9.856433E-1	9.797376E-1	1.000747E+0	1.010150E+0	9.575629E-1	1.019355E+0	9.767427E-1	9.741791E-1	9.897937E-1	9.826941E-1	9.699532E-1	9.997047E-1	9.945236E-1	9.586155E-1	9.703796E-1	1.030628E+0
5.610010E+2	9.399274E-1	9.845400E-1	9.699174E-1	9.456272E-1	9.701426E-1	9.783040E-1	1.002524E+0	9.389243E-1	1.003697E+0	9.574283E-1	9.661238E-1	9.722607E-1	1.092024E+0	9.420383E-1	9.852005E-1	9.976905E-1	1.034962E+0	9.402728E-1	1.003111E+0	9.668907E-1	9.787174E-1	9.799566E-1	9.780354E-1	9.901133E-1	1.025423E+0	9.327593E-1	9.886687E-1	9.900604E-1	9.893062E-1	1.022925E+0	9.878112E-1	9.563605E-1	9.744779E-1	9.717810E-1	9.682095E-1	9.864506E-1	9.625069E-1	9.652468E-1	9.460387E-1	9.505609E-1	1.055180E+0	9.288641E-1	9.663046E-1	9.756294E-1	1.099425E+0	9.872010E-1	9.387677E-1	9.394628E-1	1.021942E+0	9.493238E-1	1.003059E+0	9.805770E-1	9.871222E-1	9.573430E-1	9.455246E-1	1.006804E+0	1.018118E+0	9.884562E-1	9.495575E-1	9.920716E-1	1.068300E+0	9.616645E-1	9.582340E-1	1.012304E+0	1.035485E+0	9.594687E-1	9.669353E-1	9.982643E-1	9.840611E-1	9.996037E-1	9.562472E-1	1.002154E+0	1.002826E+0	9.789170E-1	9.804353E-1	9.813417E-1	1.049183E+0	1.005166E+0	9.409439E-1	9.580494E-1	9.789378E-1	9.466654E-1	9.514213E-1	9.537656E-1	9.941185E-1	9.784050E-1	9.546816E-1	9.944374E-1	1.088261E+0	1.025731E+0	9.901304E-1	9.622787E-1	1.085808E+0	1.010794E+0	9.618297E-1	1.006965E+0	1.024225E+0	9.576011E-1	9.937468E-1	9.851348E-1	9.846327E-1	9.672116E-1	9.870175E-1	9.712479E-1	1.019323E+0	9.515954E-1	9.643895E-1	1.009639E+0	1.092817E+0	9.563554E-1	9.707424E-1	1.006000E+0	1.033130E+0	9.856974E-1	9.415229E-1	9.519838E-1	9.688188E-1	9.659931E-1	9.487334E-1	1.001455E+0	1.072763E+0	9.824305E-1	1.005685E+0	9.670803E-1	1.089210E+0	9.638688E-1	9.561894E-1	9.764301E-1	1.111111E+0	1.010240E+0	9.885760E-1	1.001139E+0	9.304985E-1	9.710445E-1	1.005604E+0	9.817962E-1	1.003106E+0	9.753293E-1	9.638313E-1	9.587153E-1	1.058380E+0	9.465031E-1	9.592731E-1	9.861761E-1	1.018448E+0	1.007759E+0	9.589530E-1	9.356847E-1	1.001535E+0	9.870227E-1	9.733897E-1	9.907337E-1	9.912513E-1	1.011819E+0	9.324434E-1	9.631134E-1	1.016363E+0	9.685728E-1	9.690145E-1	9.758628E-1	9.612906E-1	9.830133E-1	9.991023E-1	1.021198E+0	9.803788E-1	9.729142E-1	9.593754E-1	1.015822E+0	9.321371E-1	9.703802E-1	9.238366E-1
