Photon Energy (eV)	#1	#2	#3	#4	#5	#6	#7	#8	#9	#10	#11	#12	#13	#14	#15	#16	#17	#18	#19	#20	#21	#22	#23	#24	#25	#26	#27	#28	#29	#30	#31	#32	#33	#34	#35	#36	#37	#38	#39	#40	#41	#42	#43	#44	#45	#46	#47	#48	#49	#50	#51	#52	#53	#54	#55	#56	#57	#58	#59	#60	#61	#62	#63	#64	#65	#66	#67	#68	#69	#70	#71	#72	#73	#74	#75	#76	#77	#78	#79	#80	#81	#82	#83	#84	#85	#86	#87	#88	#89	#90	#91	#92	#93	#94	#95	#96	#97	#98	#99	#100	#101	#102	#103	#104	#105	#106	#107	#108	#109	#110	#111	#112	#113	#114	#115	#116	#117	#118	#119	#120	#121	#122	#123	#124	#125	#126	#127	#128	#129	#130	#131	#132	#133	#134	#135	#136	#137	#138	#139	#140	#141	#142	#143	#144	#145	#146	#147	#148	#149	#150	#151	#152	#153	#154	#155	#156	#157	#158	#159	#160	#161	#162	#163	#164	#165	#166	#167	#168	#169	#170	#171	
5.300110E+2	-4.525584E-3	-5.833436E-3	-2.514656E-3	-9.454907E-3	-1.030695E-2	-6.864838E-3	-9.841726E-3	-8.400579E-3	-3.562843E-3	-7.621243E-3	-2.607934E-3	-9.168490E-3	2.782389E-4	2.434102E-3	-1.801172E-3	-2.859179E-3	-8.120559E-3	-8.366986E-3	-4.906216E-4	1.748759E-3	-8.818515E-3	3.080354E-3	-9.734234E-3	-8.447105E-3	-3.844692E-3	-1.248067E-2	-2.834037E-3	-1.405474E-2	-1.614049E-3	-2.300317E-3	-9.734974E-3	-3.144773E-3	2.733442E-3	-7.890523E-3	6.603750E-4	-8.140285E-3	-6.567135E-3	-1.319067E-3	2.473870E-3	-9.898304E-3	1.322167E-4	-3.268201E-3	-8.806376E-3	-1.953060E-3	-9.075662E-3	-1.798389E-3	-6.036107E-3	-5.658463E-3	-5.645694E-3	2.093219E-3	-2.360813E-3	-2.284294E-3	-5.040005E-3	-6.645953E-3	-9.753901E-3	3.788100E-3	-1.104698E-2	-1.333807E-2	-6.630016E-3	-1.768859E-3	-9.199616E-3	-9.279262E-3	-8.951690E-3	-9.077662E-3	-6.915659E-3	-4.625914E-3	-2.001144E-3	-3.350515E-3	-6.079160E-3	-1.415332E-3	-8.344029E-3	-1.094417E-2	-9.846332E-3	2.008079E-3	-6.199844E-3	-1.028893E-3	-9.360579E-3	-1.220656E-2	-1.159564E-2	-7.379794E-3	-7.065766E-3	-8.768390E-3	-9.498860E-3	-1.072452E-2	-5.253616E-3	-3.913570E-3	-1.970145E-3	-6.573442E-3	-6.517495E-4	-1.523024E-2	-1.470647E-2	7.340938E-5	-4.258825E-3	-5.372232E-3	-4.695617E-3	-2.800422E-3	3.279406E-3	-8.820291E-3	-6.759927E-3	-9.089686E-3	8.362533E-4	-1.167431E-2	-6.733329E-3	-8.783820E-3	-5.838769E-3	-1.479595E-2	-1.970788E-2	-1.187038E-2	-1.030110E-2	-4.590966E-3	-8.627607E-3	8.238375E-4	2.994777E-3	-3.870515E-3	-1.516789E-2	-1.348517E-4	-6.765570E-3	-1.019613E-2	-8.036871E-3	-7.411911E-3	-3.894351E-3	-4.463446E-3	-8.666952E-3	-7.866642E-3	-9.206584E-3	-6.359326E-3	-7.617466E-3	4.223708E-3	-8.914087E-3	-7.016753E-3	-7.577953E-3	-8.733593E-3	-2.668487E-3	-8.750572E-3	-1.424809E-3	-7.073629E-3	-9.843679E-3	-3.001099E-3	-6.050339E-3	-1.446159E-3	-7.319840E-3	-8.242113E-3	-4.900092E-3	-8.421722E-3	-1.358202E-3	-7.148689E-3	-7.556080E-3	4.037588E-4	-1.368508E-2	-4.523976E-3	-6.979508E-3	-5.629259E-3	-4.255806E-3	-7.304416E-3	-1.532033E-3	-4.571602E-3	-3.577781E-3	2.977147E-4	-1.173938E-2	-3.029958E-3	-1.403582E-2	3.982417E-4	-1.553155E-2	2.818666E-4	-1.490351E-2	4.015962E-3	-7.879634E-3	1.275287E-3	-1.075551E-2	-8.983458E-3	-1.542611E-2
5.305180E+2	-5.193684E-3	-3.980193E-3	-4.616547E-3	-3.634088E-3	-7.219664E-3	-6.608023E-3	-4.176962E-3	-1.058980E-2	-6.716318E-3	-2.928620E-3	5.086265E-4	-5.614113E-3	-6.285506E-3	-7.655973E-3	-1.060913E-3	-1.314659E-2	-3.568282E-3	1.964497E-4	-8.988753E-3	-1.350890E-2	-1.240892E-4	-9.361409E-3	-3.192207E-3	-2.410762E-3	-2.541508E-3	1.169191E-3	-5.476134E-3	-1.542511E-3	-8.731213E-4	-2.445458E-3	-4.451343E-3	-7.229475E-3	-3.683799E-4	8.649645E-3	-6.937075E-3	-9.431477E-3	-1.717646E-4	-3.665037E-3	2.936710E-3	-9.644383E-3	-6.578542E-4	-1.446481E-3	-8.559299E-3	-9.335567E-3	-6.167405E-3	-5.450212E-3	-1.963985E-3	-1.258372E-2	-5.900860E-3	-1.004736E-2	5.688624E-4	-5.042325E-3	-1.226614E-2	1.741287E-3	2.903020E-3	2.113140E-4	-7.215681E-3	-4.916569E-3	-1.405671E-3	-4.544087E-3	-6.158022E-3	-4.069288E-3	-5.060124E-3	-5.644695E-3	-7.548677E-3	-8.325686E-3	-6.471102E-3	-5.156324E-3	-9.509508E-4	-2.488730E-3	-6.436545E-3	-6.836698E-3	-6.861125E-4	-1.971121E-3	2.762856E-5	4.647837E-3	-3.555348E-3	5.240844E-4	1.348673E-3	5.760626E-3	-9.006546E-3	-7.421437E-3	2.838418E-3	-7.105695E-3	-7.430345E-3	6.769634E-3	-3.266495E-3	-2.950674E-3	-7.699551E-3	-4.399071E-3	3.429350E-4	-8.447197E-3	-7.467957E-3	-5.112936E-3	-4.407961E-3	1.860386E-4	-7.519894E-3	-6.359883E-3	-1.333827E-3	-5.169844E-3	-6.495027E-3	-6.510771E-3	-3.042608E-3	-4.612907E-3	-4.607755E-3	-1.516799E-3	3.445832E-3	-6.299402E-3	9.718862E-6	-4.311871E-3	1.383906E-3	-1.185953E-2	-1.320486E-3	-3.032939E-3	1.193691E-3	-1.177376E-2	-9.227633E-4	8.354595E-5	1.411729E-3	-1.159382E-2	-3.620403E-3	-4.742451E-3	2.851790E-3	-4.285257E-3	3.452904E-3	-4.618349E-3	9.776198E-4	-1.047768E-2	-3.578528E-3	-7.937307E-3	-2.137512E-3	-6.346629E-3	-6.045649E-3	-6.862799E-3	5.367541E-3	6.646690E-3	-4.986075E-3	-1.610962E-3	5.252245E-3	-9.176087E-3	-4.571758E-3	-7.962688E-3	1.046427E-3	-4.158348E-3	-2.134133E-3	-4.547633E-3	-1.781907E-2	-1.196229E-2	-1.191634E-3	-1.453671E-2	-4.482062E-3	-1.002192E-2	-2.514138E-3	-5.373980E-3	-3.401573E-3	-3.605230E-4	-7.833907E-3	-4.727757E-3	-7.522419E-3	-9.375418E-3	2.329738E-3	-1.002002E-2	-9.360063E-4	2.691515E-3	-5.829668E-4	-1.331309E-2	-6.671912E-3	3.546530E-3	-6.114084E-3	-2.283059E-3	3.497918E-4
5.310150E+2	-5.974730E-3	-4.314213E-3	-1.040575E-2	-7.406856E-3	1.535334E-3	-5.509398E-3	-4.560258E-3	4.582747E-3	-6.063061E-3	-8.234043E-3	-6.428886E-3	2.301328E-3	-5.664908E-3	-6.080013E-3	-9.623330E-3	4.572384E-3	9.441181E-4	-4.079539E-3	-6.730759E-3	-3.530879E-3	-7.881059E-3	-4.560875E-3	-8.199939E-3	-1.043570E-2	-4.917650E-3	-1.090737E-2	-4.789247E-3	2.235200E-3	-3.036963E-3	-1.007761E-2	-3.809365E-3	-4.870343E-3	-2.626499E-3	-3.354720E-3	-7.262753E-3	-1.563353E-3	-6.563111E-3	-6.827276E-3	-7.830558E-3	-7.634994E-3	-6.493400E-3	-7.469441E-4	6.013992E-3	-6.130660E-3	-7.060380E-3	-1.163867E-2	-7.540139E-3	2.903586E-3	-6.783347E-3	-7.176449E-3	-3.287173E-3	-1.265262E-3	-1.251876E-4	-5.260463E-3	-5.418790E-3	-1.435259E-2	4.784824E-3	3.194110E-3	-6.012548E-4	-8.978294E-3	1.072413E-3	-7.154765E-4	-1.836384E-4	-4.549305E-3	-4.211955E-3	-3.794974E-3	-1.077573E-3	-8.646550E-3	-6.573614E-3	-4.197918E-3	-1.671328E-3	-4.212438E-3	3.535022E-3	-1.696643E-3	-3.476830E-3	-1.073087E-2	4.772552E-3	-8.919914E-3	2.590708E-3	-2.345445E-3	-1.217157E-2	3.928312E-3	-6.825462E-3	-1.250693E-2	1.567073E-3	-7.141722E-3	-1.038948E-2	1.629264E-3	2.037165E-3	2.560013E-4	3.203506E-5	-7.227737E-3	-1.278266E-2	-2.304165E-3	3.021475E-3	-5.440940E-3	-5.880660E-3	-3.260436E-4	-1.094416E-2	-5.518818E-3	-6.820272E-3	-3.542276E-3	-6.281137E-3	-4.421691E-3	2.804191E-3	-3.498829E-3	-5.834827E-3	-2.364782E-3	-4.853603E-3	-9.871871E-3	-4.920436E-3	-2.368085E-3	-7.316025E-3	-4.528807E-3	-4.344642E-3	-7.961248E-3	-1.161979E-3	-5.027721E-3	-7.636739E-3	9.295421E-4	-1.205374E-2	1.714863E-3	-2.006597E-3	-7.535011E-4	-8.249881E-3	3.397887E-3	-8.231091E-3	-3.653467E-3	-4.387877E-3	-1.368767E-3	-6.570605E-3	-2.919060E-3	3.257080E-3	-3.934225E-3	-1.125153E-2	-7.185464E-3	-7.856182E-3	-5.853513E-3	-6.690533E-3	-5.265561E-3	-3.885656E-3	1.187395E-2	-1.222239E-2	-6.189717E-3	-3.346073E-4	-3.769118E-3	-1.065227E-2	-9.676670E-3	-6.395975E-3	-6.807284E-3	-3.158034E-3	-6.094024E-3	-3.300773E-3	-4.063682E-3	-5.920038E-3	9.231971E-3	-2.063348E-3	-7.941284E-3	-1.885989E-3	-4.746624E-3	-4.527550E-3	3.624646E-4	-3.928747E-3	-9.766445E-3	1.995050E-3	-1.309761E-2	-9.113678E-3	-1.523215E-2	8.836242E-3	-7.586993E-3	-9.110413E-3
5.315080E+2	3.847696E-3	-5.703431E-3	-1.189546E-4	6.906837E-3	-8.616489E-5	1.013310E-2	7.741296E-3	5.850902E-3	-1.953263E-3	4.277343E-4	7.408321E-6	-4.171317E-3	-2.254463E-3	-6.597012E-4	-6.691325E-3	3.098308E-3	3.153093E-3	-2.491217E-4	5.119128E-3	-6.972365E-3	2.812723E-3	-3.475966E-3	-7.701497E-4	4.873988E-3	7.109582E-3	2.657192E-3	-1.526453E-3	6.091707E-3	2.373019E-3	3.356905E-3	2.483191E-3	9.588892E-3	-3.971856E-3	-1.590493E-3	5.149485E-4	-2.958896E-3	7.015723E-3	1.162845E-4	-1.393610E-3	7.089489E-3	3.514946E-3	-1.045597E-3	-6.255343E-3	6.393397E-3	3.357645E-3	9.347979E-3	1.206107E-2	1.995121E-3	2.968689E-3	6.703056E-3	-5.759871E-3	2.579174E-3	2.409055E-3	-3.149717E-3	-3.135176E-3	1.181432E-3	-3.254346E-3	5.391935E-3	-2.600563E-3	7.249074E-3	3.225546E-3	-1.151795E-3	2.152186E-3	1.188601E-2	-1.240871E-3	4.449451E-3	2.382803E-3	4.826486E-4	-5.197586E-4	1.703112E-4	5.574805E-3	7.269195E-3	-2.767677E-3	-1.986566E-3	-6.080629E-3	-1.358501E-3	-2.740165E-3	1.410835E-3	-4.508250E-3	-1.611804E-3	1.433826E-3	-2.218197E-4	-1.734584E-3	6.986089E-3	1.307319E-3	-3.246197E-4	5.885903E-4	-1.548009E-3	-1.923533E-3	-5.371558E-3	-4.956394E-3	4.020243E-3	1.023728E-2	6.141928E-3	1.423733E-3	-7.966476E-3	2.722388E-3	8.795264E-3	-7.906052E-3	-5.099750E-6	2.458811E-4	2.509548E-3	7.568254E-3	2.817981E-3	4.218147E-3	-1.544711E-3	6.176135E-3	3.265467E-3	3.033056E-3	5.504130E-4	-1.986248E-3	-1.170553E-3	-1.399832E-3	2.850744E-3	-1.390437E-3	7.022327E-3	-1.271858E-3	1.465382E-2	8.255101E-3	2.713575E-3	1.401305E-3	-5.638142E-3	-5.805274E-3	4.552006E-3	-1.779330E-3	-5.237107E-4	3.921524E-4	-6.130299E-3	7.748320E-3	-4.231674E-3	-7.054264E-3	-1.171238E-3	1.211732E-3	9.660338E-3	-5.666034E-3	5.619008E-3	3.761477E-3	5.325664E-4	-1.498130E-3	6.257404E-3	-6.628842E-4	6.062445E-3	7.839299E-3	-2.331379E-3	-1.045910E-2	2.320067E-3	3.051362E-3	1.159301E-4	1.079684E-2	4.259164E-3	3.256791E-3	7.652513E-4	2.380861E-3	7.378827E-3	1.960071E-3	-3.818524E-4	-1.816710E-3	-3.357418E-3	-6.474882E-4	3.193472E-3	1.858205E-3	-8.637410E-3	-2.677327E-3	-2.732239E-5	1.798311E-3	4.656107E-3	1.018681E-2	1.361774E-3	1.834662E-3	1.358115E-2	1.926661E-2
5.320120E+2	9.584859E-3	8.104005E-3	7.673143E-3	1.026563E-2	7.601094E-3	-1.140339E-3	8.237015E-3	2.844754E-3	1.291724E-2	1.603470E-2	3.335838E-3	8.099752E-3	9.790857E-3	2.658453E-3	9.166713E-3	-1.179312E-3	6.602864E-4	1.644748E-4	3.457678E-3	1.118470E-2	1.133198E-2	6.339487E-3	9.157979E-3	8.253539E-3	4.462449E-3	8.582867E-3	2.509028E-3	3.414090E-3	5.651581E-3	2.312011E-3	3.369122E-3	-1.136530E-3	-6.758962E-5	1.595483E-3	1.061521E-2	1.213774E-2	2.775468E-4	8.793582E-3	-3.863939E-3	9.853747E-3	-9.762999E-4	6.653745E-3	7.282872E-3	-4.060124E-4	1.682693E-2	8.377070E-4	-1.697651E-4	2.387061E-3	6.657519E-3	2.801448E-4	3.104547E-3	2.005256E-3	9.122818E-3	9.047825E-3	4.626352E-3	6.286118E-4	9.713773E-3	2.520145E-3	9.548544E-3	5.103899E-3	7.001769E-3	7.656975E-3	8.972984E-3	2.583320E-4	9.306391E-3	8.947800E-4	-3.267032E-3	3.561930E-3	9.187166E-4	1.105818E-2	3.882386E-3	-6.850023E-4	6.685811E-3	1.368647E-3	1.095684E-2	2.933080E-3	4.975166E-3	4.771793E-3	9.153532E-4	1.652635E-3	9.230891E-3	4.582849E-3	9.386009E-4	5.769740E-3	-1.744049E-3	1.441345E-3	5.399963E-3	1.820524E-3	1.778170E-3	1.121233E-2	9.674118E-3	6.094618E-3	4.621675E-3	6.154359E-4	-5.434071E-3	2.550667E-3	5.199437E-3	1.906884E-3	3.829914E-3	1.235756E-2	1.056078E-2	9.875695E-3	2.820867E-3	2.777829E-3	-6.983575E-4	1.247283E-2	5.690807E-3	1.626871E-2	3.523672E-3	7.627695E-3	9.606389E-3	3.536379E-3	1.718718E-3	7.765155E-4	1.310131E-2	2.229092E-3	4.859639E-3	6.492136E-3	4.620049E-3	8.221163E-3	7.578986E-3	9.623331E-3	7.432403E-3	3.377923E-3	3.456910E-3	1.721598E-4	8.874083E-3	6.021274E-3	3.055469E-3	7.700865E-3	4.928261E-3	2.702397E-3	-2.492952E-3	3.548604E-3	2.918377E-3	2.046785E-3	7.943762E-3	3.191373E-3	1.997103E-3	-1.399528E-3	1.412623E-2	-3.516465E-3	4.684365E-4	1.399074E-2	1.342663E-2	3.549664E-3	9.606877E-3	1.301798E-2	-1.243623E-3	6.108612E-4	4.441573E-3	1.027300E-2	4.859707E-3	4.221154E-3	6.931299E-3	-1.043924E-2	5.362876E-3	1.355242E-3	9.415850E-3	8.592390E-3	1.005220E-2	8.590116E-3	4.876925E-3	2.615498E-3	2.247599E-3	8.036906E-3	4.638016E-3	7.112606E-3	8.946687E-4	6.320378E-4	1.328564E-2
5.325120E+2	2.261443E-3	1.172727E-2	9.982765E-3	3.323381E-3	8.476349E-3	9.989503E-3	2.600635E-3	5.711980E-3	5.378244E-3	2.321471E-3	5.184948E-3	8.552840E-3	4.135781E-3	9.303133E-3	1.001003E-2	9.514386E-3	6.931343E-3	1.233472E-2	7.633328E-3	1.107869E-2	2.678957E-3	7.978410E-3	1.273855E-2	8.166036E-3	-2.681805E-4	1.097879E-2	1.211684E-2	3.856252E-3	-2.500466E-3	9.154469E-3	1.214337E-2	6.792229E-3	4.300882E-3	2.590608E-3	2.409297E-3	9.956276E-3	6.008741E-3	2.901514E-3	7.677527E-3	1.023444E-2	4.480391E-3	-1.465223E-4	1.032415E-2	1.143190E-2	2.118868E-3	8.701586E-3	3.648921E-3	1.095642E-2	8.703692E-3	8.147388E-3	7.734449E-3	4.007451E-3	5.899465E-3	4.267021E-3	1.077850E-2	8.543136E-3	7.018410E-3	7.148451E-3	1.688960E-3	2.938267E-3	4.057911E-3	7.558846E-3	3.070283E-3	7.127322E-3	1.061077E-2	1.140234E-2	1.043405E-2	1.310881E-2	1.320477E-2	-3.126514E-3	6.994711E-3	1.540912E-2	3.079289E-3	2.277603E-3	4.772838E-3	5.537351E-3	5.908375E-3	1.441976E-2	1.124915E-2	3.923782E-3	1.757916E-2	7.900485E-3	1.428189E-2	1.758131E-2	1.155362E-2	3.168932E-3	9.637567E-3	7.622337E-3	6.459499E-3	1.353254E-2	9.613772E-3	5.486664E-3	9.650483E-3	6.031968E-3	1.009244E-2	1.347113E-2	2.199323E-3	4.804071E-3	2.311405E-2	7.425889E-3	1.672380E-3	9.342119E-3	5.667952E-3	1.222261E-2	4.122542E-3	8.883455E-3	1.022993E-2	1.000385E-3	8.588256E-3	1.059660E-2	4.543997E-3	1.103796E-2	5.322849E-3	7.805002E-3	6.607966E-3	1.061844E-2	5.262532E-3	-6.005656E-3	1.386731E-3	7.141456E-3	1.058821E-2	3.505844E-3	6.194630E-3	4.975471E-3	1.232598E-2	7.931339E-3	5.604703E-3	1.001646E-2	6.076703E-3	1.285364E-2	1.841207E-2	1.646812E-2	6.738276E-3	6.338655E-3	1.005645E-2	-5.338966E-5	1.098070E-2	6.741635E-3	6.989654E-3	1.102993E-2	2.313908E-3	1.784869E-3	7.768321E-3	7.110420E-3	8.594121E-4	9.595708E-3	2.336919E-2	8.101285E-3	1.171947E-2	2.099795E-2	6.921239E-3	1.070695E-2	2.830148E-3	5.142097E-3	1.962274E-3	6.521248E-3	9.928870E-3	1.437350E-2	1.237943E-2	5.366138E-3	4.323227E-3	9.306607E-3	1.819671E-2	4.204888E-3	9.445513E-3	9.701725E-3	8.840401E-3	1.935948E-3	5.304018E-3	4.640325E-3	-8.365516E-3
5.330180E+2	2.228355E-2	1.417342E-2	1.390889E-2	2.646325E-2	1.506806E-2	2.434168E-2	2.904686E-2	3.162170E-2	2.856743E-2	1.875909E-2	1.954906E-2	2.513302E-2	2.724196E-2	2.741577E-2	1.923155E-2	2.393221E-2	2.631829E-2	2.674518E-2	1.914435E-2	1.489073E-2	6.765602E-3	2.629534E-2	1.886691E-2	2.122751E-2	2.641307E-2	8.762795E-3	1.453052E-2	2.401855E-2	2.203683E-2	1.984251E-2	1.386761E-2	1.687203E-2	2.284100E-2	2.446840E-2	2.354239E-2	1.755246E-2	1.432470E-2	2.648774E-2	1.425410E-2	1.804987E-2	2.080928E-2	1.718942E-2	2.264524E-2	2.729879E-2	1.538900E-2	1.246649E-2	2.000187E-2	2.079774E-2	1.754880E-2	2.860469E-2	1.849429E-2	2.355937E-2	2.106923E-2	2.153373E-2	1.995071E-2	1.231507E-2	2.868767E-2	2.770639E-2	1.471909E-2	1.986084E-2	2.681439E-2	1.788852E-2	8.606079E-3	1.528569E-2	1.873189E-2	1.037562E-2	2.498332E-2	1.653923E-2	2.539248E-2	1.721684E-2	1.528604E-2	1.956790E-2	2.502361E-2	1.537768E-2	1.480750E-2	1.552218E-2	1.635906E-2	2.094545E-2	1.692147E-2	2.109620E-2	1.389124E-2	2.862203E-2	1.663633E-2	1.036945E-2	9.266312E-3	1.977086E-2	1.911731E-2	2.805620E-2	2.328227E-2	1.763781E-2	1.458250E-2	9.917731E-3	1.307646E-2	1.875760E-2	1.240712E-2	2.267620E-2	2.482290E-2	2.052245E-2	1.824336E-2	2.935792E-2	1.329282E-2	2.227539E-2	1.602967E-2	1.908358E-2	2.322529E-2	2.885898E-2	2.340963E-2	7.955550E-3	2.650480E-2	2.674199E-2	1.594678E-2	2.420370E-2	2.144233E-2	2.238546E-2	1.762641E-2	1.359907E-2	1.411974E-2	1.135831E-2	2.568293E-2	2.610771E-2	1.657610E-2	2.351116E-2	1.283627E-2	1.598154E-2	8.956383E-3	2.743045E-2	2.458411E-2	1.757183E-2	2.039628E-2	2.158122E-2	2.172360E-2	2.011734E-2	2.053164E-2	2.717398E-2	2.374730E-2	3.088932E-2	2.123926E-2	2.106407E-2	2.426685E-2	2.278926E-2	2.101561E-2	2.368967E-2	1.758273E-2	1.060472E-2	2.891974E-2	2.546615E-2	1.893411E-2	2.733578E-2	1.153459E-2	2.990830E-2	2.375579E-2	1.197362E-2	2.120640E-2	2.145987E-2	1.446768E-2	2.089182E-2	3.248723E-2	2.446751E-2	1.876730E-2	2.244600E-2	1.595768E-2	1.431727E-2	2.350293E-2	1.687100E-2	3.097797E-2	1.758634E-2	2.140203E-2	1.575592E-2	1.972962E-2	2.082263E-2	3.558182E-2
5.331630E+2	3.647270E-2	1.580866E-2	2.483195E-2	2.648554E-2	2.735994E-2	1.833464E-2	3.079123E-2	2.977167E-2	2.365464E-2	2.899337E-2	2.841786E-2	2.235376E-2	3.209055E-2	4.359010E-2	2.216458E-2	2.931224E-2	3.485187E-2	3.287621E-2	2.888347E-2	2.372280E-2	2.219599E-2	3.254971E-2	2.582844E-2	1.387119E-2	2.282223E-2	3.141670E-2	2.080440E-2	3.198571E-2	2.692731E-2	2.990626E-2	2.291128E-2	1.831795E-2	2.838805E-2	2.560946E-2	3.032681E-2	2.020239E-2	2.071246E-2	9.931891E-3	2.170551E-2	3.428483E-2	3.813340E-2	3.601986E-2	3.549234E-2	2.788537E-2	3.179696E-2	3.208771E-2	3.045562E-2	3.189979E-2	2.620588E-2	2.975793E-2	1.904425E-2	1.888278E-2	1.662150E-2	3.023446E-2	2.634871E-2	2.798457E-2	2.721549E-2	2.167270E-2	1.919731E-2	3.041715E-2	2.789321E-2	2.082241E-2	1.657106E-2	2.752857E-2	2.673647E-2	2.205851E-2	1.776994E-2	3.919806E-2	2.798485E-2	2.470161E-2	2.510787E-2	2.607654E-2	2.816284E-2	2.939977E-2	2.144495E-2	2.928177E-2	3.352543E-2	3.078041E-2	1.945051E-2	2.830753E-2	1.614838E-2	3.073238E-2	1.935750E-2	1.952680E-2	3.627242E-2	2.137127E-2	1.865021E-2	3.165886E-2	3.257426E-2	1.969823E-2	2.880469E-2	2.372689E-2	7.877224E-3	3.036039E-2	3.229572E-2	3.208022E-2	2.745533E-2	2.013899E-2	2.726951E-2	3.653048E-2	1.482216E-2	4.221983E-2	3.990601E-2	2.676126E-2	2.735397E-2	3.318322E-2	2.404137E-2	3.218217E-2	3.243376E-2	2.790925E-2	3.780579E-2	3.059413E-2	3.268982E-2	3.174759E-2	3.063861E-2	2.165088E-2	1.996746E-2	2.589928E-2	2.362346E-2	2.897814E-2	2.192104E-2	2.574580E-2	2.636257E-2	1.264448E-2	3.503202E-2	4.299880E-2	3.003799E-2	2.908547E-2	3.306016E-2	3.169993E-2	2.173393E-2	2.683088E-2	3.756707E-2	1.771553E-2	3.448638E-2	4.288894E-2	2.290832E-2	2.374848E-2	2.716218E-2	2.941440E-2	2.829944E-2	3.195991E-2	2.613266E-2	2.032721E-2	3.231786E-2	3.230590E-2	2.614894E-2	2.745973E-2	2.221432E-2	3.199548E-2	3.188139E-2	2.455669E-2	3.446979E-2	4.200089E-2	2.115976E-2	2.554507E-2	3.423079E-2	3.001350E-2	3.721661E-2	2.764996E-2	3.580309E-2	2.138052E-2	2.743695E-2	2.450436E-2	1.703365E-2	2.711185E-2	1.858763E-2	2.279643E-2	2.119395E-2	2.656294E-2	1.630672E-2
5.333080E+2	2.866828E-2	3.577198E-2	2.982083E-2	3.692677E-2	3.620552E-2	2.594139E-2	3.517608E-2	3.033512E-2	3.122125E-2	3.667708E-2	2.667065E-2	2.519231E-2	2.317480E-2	3.143912E-2	3.346553E-2	1.842770E-2	3.488726E-2	2.602773E-2	4.348632E-2	2.908174E-2	3.668989E-2	3.347184E-2	3.916001E-2	3.025863E-2	3.173438E-2	3.749279E-2	2.081622E-2	3.834408E-2	3.128385E-2	3.193672E-2	4.280427E-2	2.330746E-2	3.542185E-2	2.454433E-2	2.883130E-2	3.502022E-2	3.161155E-2	3.302037E-2	4.284329E-2	4.288217E-2	2.694992E-2	3.342370E-2	2.810159E-2	3.787940E-2	2.305700E-2	2.206038E-2	3.887626E-2	3.065453E-2	3.057392E-2	1.906116E-2	3.180700E-2	3.050823E-2	1.712564E-2	2.932373E-2	2.699176E-2	4.017141E-2	3.936258E-2	2.075460E-2	2.831675E-2	3.412842E-2	4.099394E-2	3.279809E-2	3.323190E-2	1.961224E-2	3.378355E-2	3.731099E-2	2.170273E-2	4.357827E-2	3.303665E-2	2.152708E-2	2.303637E-2	3.357169E-2	3.839144E-2	3.043444E-2	3.492226E-2	2.325034E-2	2.473975E-2	4.132835E-2	3.369556E-2	3.690510E-2	3.272832E-2	3.815922E-2	3.517980E-2	2.818697E-2	3.680762E-2	3.091114E-2	2.468022E-2	2.024589E-2	3.314309E-2	2.812324E-2	3.680754E-2	3.028053E-2	2.866845E-2	2.797443E-2	2.528647E-2	2.937895E-2	4.146213E-2	2.411926E-2	3.245826E-2	2.124571E-2	3.118978E-2	3.883149E-2	2.545818E-2	3.590602E-2	1.942830E-2	3.358376E-2	2.817301E-2	2.278029E-2	3.961677E-2	3.050214E-2	2.490320E-2	2.245606E-2	3.057161E-2	3.690275E-2	2.306730E-2	3.023493E-2	2.574489E-2	2.592892E-2	3.727846E-2	2.347962E-2	3.291496E-2	3.244818E-2	2.603683E-2	2.346427E-2	2.330064E-2	2.614745E-2	3.974347E-2	3.277457E-2	2.627319E-2	2.587733E-2	2.472490E-2	3.076496E-2	3.713841E-2	2.836331E-2	2.942626E-2	3.877282E-2	3.610731E-2	3.005767E-2	3.116026E-2	3.382646E-2	2.728105E-2	3.414013E-2	3.627859E-2	2.635534E-2	1.802433E-2	2.614791E-2	4.428413E-2	2.257505E-2	2.883735E-2	4.162339E-2	3.245801E-2	3.424118E-2	3.499460E-2	2.530284E-2	3.294736E-2	3.216266E-2	2.224192E-2	2.954728E-2	3.672669E-2	2.586504E-2	2.801819E-2	2.591721E-2	3.794205E-2	2.669772E-2	2.972757E-2	3.733318E-2	4.217687E-2	3.062991E-2	4.081100E-2	2.150545E-2	3.235377E-2
5.334580E+2	4.097936E-2	3.665769E-2	4.705179E-2	4.582540E-2	4.928140E-2	4.569685E-2	4.646946E-2	4.603701E-2	4.818358E-2	4.628132E-2	3.270504E-2	4.610844E-2	4.605330E-2	5.120403E-2	3.817086E-2	3.917040E-2	5.251596E-2	4.610267E-2	4.475148E-2	3.717715E-2	4.334756E-2	4.555204E-2	5.022628E-2	4.405211E-2	4.471640E-2	4.397291E-2	3.523102E-2	4.368805E-2	4.316191E-2	3.831760E-2	4.806840E-2	6.823716E-2	5.374716E-2	5.113793E-2	4.676887E-2	5.185827E-2	4.144540E-2	4.318996E-2	4.377967E-2	3.998052E-2	6.204928E-2	4.737440E-2	4.894267E-2	5.348069E-2	3.712642E-2	3.298528E-2	4.252462E-2	4.499506E-2	3.909885E-2	3.235032E-2	4.755406E-2	4.355180E-2	4.983740E-2	3.824147E-2	3.475514E-2	3.496970E-2	4.498841E-2	3.585485E-2	3.097237E-2	5.080185E-2	3.892088E-2	4.279666E-2	4.165406E-2	4.949897E-2	4.205245E-2	3.005729E-2	5.448834E-2	5.264307E-2	4.641344E-2	5.128092E-2	3.223523E-2	4.438801E-2	3.519454E-2	3.978283E-2	4.936062E-2	5.235517E-2	5.137153E-2	4.416496E-2	4.722820E-2	4.530583E-2	4.452347E-2	3.409003E-2	3.231613E-2	4.185110E-2	4.167287E-2	4.672402E-2	4.032121E-2	3.802723E-2	4.328989E-2	4.092278E-2	4.480828E-2	5.748311E-2	5.307588E-2	4.752476E-2	4.979415E-2	4.529562E-2	3.026916E-2	4.366125E-2	4.055094E-2	4.669519E-2	3.992092E-2	5.077875E-2	3.003804E-2	4.993848E-2	4.683392E-2	4.864651E-2	3.885849E-2	3.674012E-2	4.876735E-2	5.191121E-2	4.600005E-2	5.056546E-2	4.367268E-2	5.057620E-2	4.828435E-2	4.345392E-2	4.089606E-2	4.726139E-2	3.665597E-2	5.624014E-2	4.999431E-2	4.916789E-2	4.118008E-2	4.204218E-2	4.123791E-2	4.827888E-2	4.546905E-2	4.586456E-2	4.022959E-2	3.843536E-2	5.381582E-2	4.797555E-2	4.310951E-2	4.364559E-2	4.668272E-2	6.027112E-2	4.382923E-2	4.298588E-2	3.668939E-2	3.751525E-2	3.797342E-2	6.005302E-2	4.142469E-2	4.613115E-2	5.026839E-2	4.500851E-2	5.312898E-2	3.568852E-2	3.779513E-2	4.769582E-2	4.318843E-2	5.486410E-2	4.749976E-2	4.396693E-2	3.949122E-2	5.126403E-2	4.189744E-2	3.530454E-2	4.777506E-2	4.052786E-2	3.409240E-2	4.175456E-2	5.098918E-2	3.272704E-2	5.387706E-2	3.424421E-2	4.759412E-2	3.836334E-2	4.416533E-2	5.809293E-2	6.217576E-2
5.336030E+2	4.921899E-2	6.076772E-2	4.904846E-2	4.327115E-2	5.850836E-2	6.885693E-2	7.056069E-2	5.893396E-2	5.360040E-2	5.791399E-2	6.469982E-2	4.590921E-2	4.783186E-2	5.597469E-2	5.447819E-2	5.809261E-2	6.729253E-2	5.569510E-2	6.485110E-2	7.052981E-2	5.570210E-2	5.166259E-2	5.338465E-2	4.832202E-2	4.461693E-2	5.195594E-2	4.502148E-2	5.313128E-2	6.184068E-2	7.281295E-2	5.361930E-2	5.925431E-2	7.716848E-2	5.592182E-2	5.984290E-2	6.316038E-2	5.772719E-2	5.935561E-2	5.497092E-2	5.451778E-2	6.587435E-2	5.201788E-2	4.729472E-2	5.658701E-2	4.679570E-2	4.341720E-2	6.850704E-2	5.727579E-2	5.303452E-2	5.850066E-2	5.445418E-2	5.704651E-2	5.763282E-2	5.542421E-2	4.687085E-2	8.273865E-2	5.548366E-2	6.065734E-2	5.699366E-2	4.819725E-2	6.011817E-2	6.717001E-2	4.814642E-2	6.171816E-2	6.115562E-2	6.539032E-2	6.112570E-2	7.188274E-2	5.892403E-2	7.211841E-2	5.504958E-2	5.175752E-2	5.604379E-2	4.424552E-2	3.260908E-2	4.811979E-2	5.180014E-2	5.940642E-2	5.894355E-2	6.816442E-2	5.640482E-2	6.407041E-2	5.280981E-2	6.080161E-2	7.475202E-2	4.899480E-2	5.436472E-2	5.636253E-2	5.784024E-2	5.420406E-2	5.950702E-2	5.633827E-2	3.591137E-2	5.654982E-2	6.161137E-2	6.109505E-2	5.967994E-2	4.560112E-2	5.582271E-2	4.437187E-2	4.180237E-2	5.592735E-2	5.720155E-2	5.393615E-2	5.621564E-2	6.332609E-2	5.999267E-2	5.591981E-2	5.284921E-2	6.006597E-2	5.481857E-2	5.437254E-2	6.911919E-2	6.387802E-2	5.952426E-2	6.320775E-2	5.042943E-2	6.221972E-2	5.863606E-2	6.753289E-2	5.358312E-2	7.523818E-2	6.433657E-2	4.700828E-2	4.322425E-2	6.014203E-2	5.935417E-2	5.681420E-2	6.265330E-2	5.047808E-2	5.542448E-2	6.860331E-2	6.378842E-2	4.647662E-2	4.707692E-2	6.383553E-2	4.899759E-2	6.651145E-2	5.822814E-2	6.105804E-2	7.253427E-2	6.381192E-2	4.821746E-2	5.441313E-2	5.838555E-2	5.833952E-2	4.506971E-2	6.017394E-2	6.056531E-2	5.629803E-2	5.339287E-2	5.823400E-2	4.841938E-2	5.734986E-2	6.686081E-2	6.035538E-2	6.060207E-2	5.099598E-2	6.456180E-2	5.431989E-2	5.703299E-2	5.869404E-2	5.140189E-2	6.046104E-2	4.065836E-2	6.096138E-2	5.754637E-2	6.165039E-2	5.616656E-2	5.860536E-2	5.262700E-2
5.337580E+2	7.943250E-2	7.376537E-2	8.814854E-2	8.398883E-2	6.836544E-2	9.453771E-2	9.037077E-2	8.353532E-2	8.036190E-2	7.946556E-2	7.513577E-2	8.344166E-2	8.560055E-2	8.038744E-2	8.926831E-2	8.621992E-2	7.873937E-2	9.031510E-2	6.397007E-2	8.857661E-2	7.031062E-2	6.615915E-2	7.366840E-2	7.748581E-2	8.414383E-2	7.120742E-2	7.985579E-2	7.495170E-2	8.212412E-2	7.886337E-2	7.778338E-2	7.287526E-2	8.821649E-2	9.207795E-2	8.135933E-2	8.126982E-2	7.366544E-2	5.741322E-2	8.575193E-2	6.842602E-2	8.047374E-2	8.088836E-2	7.721442E-2	7.609167E-2	7.754609E-2	9.186947E-2	7.543696E-2	7.931526E-2	8.129149E-2	7.627812E-2	7.782182E-2	8.200522E-2	8.652787E-2	7.986867E-2	7.060679E-2	8.326475E-2	7.664920E-2	8.603016E-2	7.273840E-2	7.886964E-2	7.373280E-2	8.397770E-2	7.371545E-2	7.635419E-2	9.441902E-2	7.665831E-2	7.798106E-2	8.566995E-2	9.467524E-2	8.297662E-2	6.851980E-2	8.609994E-2	6.582172E-2	9.953246E-2	7.376225E-2	8.211840E-2	8.670502E-2	7.818443E-2	7.338624E-2	8.689164E-2	7.814770E-2	7.942009E-2	8.730165E-2	8.024434E-2	8.184974E-2	8.079447E-2	7.434600E-2	8.133044E-2	6.710081E-2	7.209386E-2	7.716973E-2	7.860309E-2	7.744120E-2	8.248845E-2	7.512594E-2	7.480731E-2	8.288983E-2	7.474367E-2	8.187184E-2	9.810341E-2	8.320279E-2	7.731497E-2	7.731135E-2	8.287464E-2	7.719352E-2	9.051778E-2	5.780224E-2	7.650842E-2	8.432999E-2	8.079276E-2	8.287832E-2	8.338226E-2	7.400745E-2	7.480849E-2	8.151081E-2	8.864051E-2	6.638808E-2	8.484068E-2	9.308869E-2	8.836044E-2	9.251185E-2	7.992687E-2	8.267995E-2	7.163210E-2	5.984998E-2	8.211504E-2	8.611776E-2	7.893348E-2	8.111406E-2	6.596683E-2	7.885707E-2	8.725529E-2	1.115918E-1	8.576391E-2	6.855048E-2	8.877045E-2	7.707713E-2	6.392574E-2	8.689193E-2	6.884466E-2	7.261462E-2	6.606850E-2	9.002118E-2	8.737135E-2	8.215878E-2	8.538593E-2	9.662149E-2	7.999330E-2	8.303689E-2	7.706972E-2	1.013072E-1	7.624436E-2	8.462750E-2	9.037394E-2	7.929036E-2	8.843317E-2	7.008599E-2	8.668851E-2	8.102666E-2	8.020619E-2	7.927133E-2	8.432131E-2	8.964165E-2	8.348622E-2	8.178171E-2	7.975672E-2	8.967181E-2	8.264818E-2	1.008961E-1	8.741901E-2	8.082350E-2
5.339090E+2	1.425986E-1	1.135563E-1	1.080300E-1	1.279452E-1	1.291440E-1	1.172153E-1	1.288136E-1	1.310621E-1	1.074193E-1	1.408560E-1	1.152021E-1	1.161847E-1	1.204052E-1	1.168215E-1	1.319411E-1	1.161091E-1	1.302245E-1	1.169703E-1	1.164345E-1	1.242133E-1	1.262584E-1	1.175660E-1	1.229200E-1	1.358191E-1	1.175936E-1	1.221758E-1	1.154869E-1	1.205049E-1	1.196297E-1	1.334975E-1	1.213130E-1	1.243748E-1	1.301596E-1	1.269164E-1	1.218026E-1	1.177622E-1	1.148804E-1	1.281823E-1	1.190957E-1	1.180895E-1	1.229021E-1	1.242376E-1	1.115623E-1	1.280501E-1	1.349764E-1	1.275684E-1	1.377502E-1	1.426506E-1	1.299697E-1	1.309849E-1	1.243873E-1	1.290616E-1	1.212538E-1	1.137268E-1	1.174585E-1	1.285316E-1	1.192723E-1	1.395103E-1	1.197227E-1	1.209519E-1	1.162652E-1	1.292772E-1	1.059548E-1	1.209734E-1	1.191088E-1	1.250425E-1	1.133961E-1	1.476132E-1	1.251993E-1	1.315975E-1	1.220641E-1	1.281035E-1	1.060353E-1	1.315243E-1	1.037903E-1	1.262628E-1	1.162383E-1	1.360581E-1	1.200031E-1	1.216378E-1	1.266030E-1	1.227474E-1	1.272885E-1	1.142743E-1	1.199242E-1	1.404204E-1	1.092030E-1	1.283818E-1	1.092792E-1	1.185304E-1	1.258386E-1	1.244474E-1	1.161202E-1	1.348183E-1	1.239178E-1	1.150412E-1	1.119449E-1	1.287849E-1	1.335266E-1	1.341969E-1	1.344745E-1	1.285557E-1	1.184585E-1	1.274359E-1	1.271887E-1	1.181230E-1	1.313215E-1	1.242134E-1	1.166476E-1	1.329009E-1	1.229122E-1	1.103237E-1	1.369254E-1	1.258205E-1	1.108478E-1	1.251099E-1	1.212355E-1	1.121074E-1	1.319605E-1	1.434697E-1	1.150728E-1	1.236493E-1	1.314417E-1	1.209254E-1	1.298139E-1	1.269270E-1	1.334738E-1	1.184489E-1	1.362231E-1	1.366556E-1	1.379528E-1	1.211186E-1	1.447398E-1	1.240312E-1	1.418781E-1	1.384465E-1	1.177458E-1	1.212113E-1	1.348399E-1	1.407132E-1	1.222831E-1	1.425324E-1	1.273155E-1	1.262941E-1	1.305764E-1	1.297023E-1	1.309949E-1	1.112474E-1	1.151280E-1	1.281955E-1	1.094503E-1	1.450276E-1	1.376395E-1	1.255413E-1	1.342971E-1	1.253978E-1	1.139344E-1	1.173185E-1	1.241749E-1	1.254941E-1	1.069252E-1	1.199338E-1	1.315032E-1	1.337382E-1	1.404209E-1	1.325267E-1	1.373671E-1	1.308664E-1	1.236237E-1	1.206875E-1	1.052946E-1
5.340430E+2	1.659657E-1	1.649541E-1	1.803397E-1	1.890692E-1	1.670482E-1	1.605488E-1	1.873491E-1	1.798688E-1	2.071122E-1	1.933173E-1	1.579047E-1	1.873757E-1	1.748729E-1	1.882636E-1	1.819492E-1	1.940256E-1	1.869619E-1	1.780984E-1	1.766755E-1	1.895021E-1	1.849907E-1	1.719115E-1	1.819626E-1	1.871818E-1	1.776878E-1	1.775261E-1	1.887327E-1	1.700726E-1	1.786960E-1	1.682734E-1	1.716435E-1	1.620790E-1	1.864599E-1	1.933097E-1	1.749815E-1	1.854910E-1	1.632202E-1	1.746812E-1	1.656803E-1	1.714833E-1	1.910101E-1	1.657765E-1	2.005411E-1	2.004323E-1	1.613290E-1	1.548738E-1	1.683411E-1	1.772329E-1	1.773317E-1	1.833344E-1	2.035324E-1	1.903132E-1	1.991048E-1	1.651888E-1	1.889673E-1	1.731218E-1	1.839862E-1	1.722418E-1	1.997007E-1	1.819121E-1	1.717774E-1	1.718693E-1	1.731852E-1	1.720705E-1	1.990742E-1	1.787812E-1	1.677450E-1	1.662241E-1	1.878604E-1	1.907005E-1	1.768517E-1	1.679603E-1	1.799762E-1	1.804485E-1	1.740580E-1	1.563544E-1	1.763461E-1	1.751945E-1	1.640917E-1	1.729336E-1	1.777094E-1	1.683945E-1	1.866940E-1	1.869583E-1	1.891432E-1	1.799463E-1	1.794378E-1	1.741652E-1	2.014053E-1	1.843556E-1	1.726043E-1	1.603708E-1	1.732173E-1	1.901136E-1	1.695270E-1	1.729727E-1	1.707712E-1	1.615521E-1	1.853105E-1	1.882798E-1	1.932471E-1	1.953729E-1	1.765918E-1	1.578452E-1	1.697891E-1	1.825798E-1	1.869527E-1	1.873161E-1	1.984615E-1	1.670723E-1	1.766851E-1	1.925282E-1	1.791970E-1	1.765107E-1	1.712932E-1	1.781091E-1	1.704757E-1	1.771551E-1	1.922302E-1	1.940110E-1	1.982890E-1	1.850309E-1	1.993494E-1	1.609476E-1	1.769962E-1	1.723999E-1	1.952753E-1	1.816153E-1	1.862985E-1	1.857419E-1	1.946284E-1	1.742517E-1	1.723150E-1	1.858282E-1	2.060768E-1	1.970250E-1	2.011276E-1	1.898592E-1	1.877243E-1	1.817579E-1	1.920000E-1	1.924243E-1	1.821885E-1	1.807214E-1	1.825361E-1	1.815271E-1	1.827332E-1	1.598855E-1	2.021912E-1	1.820480E-1	1.668633E-1	1.869808E-1	1.914744E-1	1.657983E-1	1.826657E-1	1.764400E-1	1.774780E-1	1.804580E-1	2.036202E-1	1.914655E-1	1.726407E-1	1.809843E-1	1.668907E-1	1.821427E-1	1.859153E-1	1.923401E-1	1.836726E-1	1.734808E-1	1.692226E-1	1.978447E-1	2.133863E-1
5.342040E+2	2.939504E-1	3.013588E-1	3.162889E-1	3.399236E-1	2.921954E-1	3.074426E-1	3.234132E-1	3.135089E-1	3.282182E-1	3.147013E-1	2.956147E-1	2.996768E-1	3.128977E-1	3.215217E-1	2.837869E-1	2.896593E-1	3.295279E-1	3.078948E-1	3.047632E-1	3.066697E-1	2.886518E-1	2.881844E-1	3.305618E-1	3.204100E-1	3.302516E-1	3.321160E-1	3.169771E-1	3.325379E-1	3.109732E-1	3.079067E-1	3.059789E-1	3.150262E-1	3.009421E-1	2.895210E-1	3.149766E-1	3.290026E-1	3.392018E-1	3.295827E-1	3.231353E-1	3.173480E-1	3.106477E-1	3.072797E-1	3.169238E-1	3.128252E-1	2.942060E-1	3.230947E-1	3.134351E-1	2.971997E-1	3.029008E-1	3.328832E-1	3.119936E-1	3.196418E-1	3.009198E-1	3.221400E-1	3.129388E-1	3.258583E-1	3.074245E-1	2.917802E-1	3.077624E-1	2.855094E-1	3.248357E-1	3.333130E-1	3.248293E-1	3.174256E-1	3.186777E-1	3.038728E-1	3.197947E-1	3.098145E-1	3.196695E-1	3.187382E-1	2.945567E-1	3.104811E-1	3.149687E-1	3.271748E-1	3.380747E-1	3.136448E-1	3.285702E-1	3.036885E-1	3.034729E-1	3.174391E-1	3.111869E-1	3.243030E-1	3.338290E-1	3.317621E-1	3.078470E-1	3.305529E-1	3.216779E-1	3.365023E-1	3.157861E-1	3.038728E-1	3.111272E-1	3.269076E-1	3.333884E-1	3.323566E-1	3.081331E-1	3.104064E-1	3.147570E-1	3.018981E-1	3.010486E-1	3.030789E-1	3.078768E-1	3.185574E-1	3.241232E-1	2.775485E-1	3.050072E-1	3.080601E-1	3.291521E-1	3.193241E-1	3.100731E-1	3.034432E-1	3.020464E-1	3.181352E-1	3.082536E-1	3.201140E-1	3.259012E-1	3.151548E-1	3.317397E-1	3.085669E-1	3.280039E-1	3.396737E-1	3.045375E-1	3.244703E-1	3.114243E-1	2.949049E-1	3.235761E-1	3.060280E-1	3.189658E-1	3.119891E-1	3.288198E-1	3.009334E-1	2.801362E-1	3.172244E-1	3.231527E-1	3.194099E-1	3.332783E-1	3.402516E-1	3.083717E-1	3.059995E-1	3.185510E-1	3.064120E-1	3.263995E-1	3.138834E-1	3.277489E-1	3.107781E-1	3.102148E-1	3.230396E-1	3.271908E-1	2.921681E-1	3.576887E-1	3.364075E-1	3.209988E-1	3.192507E-1	3.169682E-1	3.064502E-1	2.918210E-1	3.171407E-1	3.109468E-1	3.092780E-1	3.006033E-1	3.263254E-1	3.173528E-1	3.182972E-1	3.541317E-1	3.343364E-1	3.178021E-1	3.302818E-1	3.480640E-1	3.341113E-1	3.417491E-1	2.984487E-1	3.909017E-1
5.343600E+2	5.604285E-1	5.724585E-1	5.895037E-1	5.678455E-1	5.508048E-1	5.754373E-1	5.775936E-1	5.612949E-1	5.672750E-1	5.871596E-1	5.967728E-1	5.837057E-1	5.830406E-1	6.002062E-1	5.793286E-1	6.228605E-1	6.045380E-1	6.141739E-1	5.986890E-1	5.602862E-1	6.017607E-1	5.744382E-1	5.722462E-1	5.762505E-1	5.452019E-1	5.612822E-1	5.707487E-1	5.304483E-1	5.881859E-1	5.759613E-1	5.740140E-1	5.833016E-1	6.029411E-1	5.624834E-1	5.664816E-1	5.865185E-1	5.579382E-1	5.624437E-1	5.543590E-1	5.848625E-1	5.770860E-1	5.834436E-1	5.681238E-1	5.988784E-1	5.710731E-1	5.794582E-1	5.829351E-1	5.715903E-1	5.860520E-1	5.631115E-1	5.611321E-1	5.751485E-1	5.697958E-1	6.072328E-1	5.950203E-1	5.935893E-1	5.757313E-1	5.883584E-1	5.726340E-1	5.592745E-1	5.810199E-1	6.350416E-1	6.209633E-1	5.827341E-1	5.856636E-1	6.005059E-1	5.428310E-1	6.285512E-1	5.616637E-1	5.739770E-1	5.682861E-1	5.973261E-1	5.745135E-1	5.837247E-1	5.742042E-1	5.969361E-1	5.940393E-1	5.519073E-1	5.808935E-1	5.921764E-1	5.420269E-1	5.713790E-1	5.999491E-1	5.738141E-1	5.789837E-1	5.737490E-1	6.107086E-1	6.145117E-1	6.117752E-1	5.718496E-1	5.870468E-1	5.913854E-1	6.035384E-1	5.705805E-1	5.974286E-1	6.113158E-1	5.855167E-1	5.664955E-1	5.761001E-1	5.848031E-1	5.945390E-1	6.071168E-1	5.915839E-1	5.749171E-1	5.962190E-1	5.738011E-1	5.767673E-1	5.928568E-1	5.818533E-1	5.736535E-1	5.923224E-1	6.137187E-1	6.015464E-1	6.081185E-1	5.467010E-1	5.970264E-1	5.909245E-1	5.452259E-1	6.215037E-1	5.959893E-1	5.943104E-1	5.679966E-1	5.886732E-1	5.907431E-1	6.204272E-1	5.930564E-1	5.604806E-1	5.834809E-1	5.522644E-1	5.953488E-1	5.782327E-1	5.550298E-1	5.755941E-1	5.488996E-1	5.850968E-1	5.917269E-1	5.893952E-1	5.500676E-1	5.843680E-1	5.718375E-1	5.730404E-1	6.014651E-1	5.673275E-1	6.087584E-1	5.588172E-1	5.786565E-1	5.981417E-1	5.514155E-1	5.943096E-1	5.714618E-1	5.746510E-1	6.170925E-1	5.959071E-1	5.760477E-1	5.924481E-1	5.638586E-1	5.899699E-1	5.591279E-1	5.740667E-1	6.065311E-1	5.755613E-1	5.980412E-1	5.809205E-1	5.799030E-1	5.668019E-1	6.052358E-1	5.882502E-1	6.336346E-1	5.547382E-1	5.648280E-1	5.958053E-1
5.345160E+2	9.695964E-1	1.004694E+0	9.706801E-1	1.004746E+0	9.798391E-1	9.338221E-1	9.553914E-1	9.650486E-1	1.002167E+0	9.200968E-1	9.712856E-1	1.022951E+0	9.402130E-1	9.761975E-1	9.569862E-1	1.020930E+0	9.869224E-1	9.674626E-1	9.399995E-1	9.837706E-1	9.927860E-1	9.610265E-1	1.004625E+0	9.449568E-1	9.612530E-1	9.691813E-1	9.795453E-1	9.685231E-1	9.462409E-1	9.637214E-1	9.614120E-1	9.703099E-1	9.409517E-1	9.693846E-1	9.517849E-1	9.793768E-1	9.481867E-1	9.446597E-1	9.478400E-1	9.859954E-1	9.638618E-1	9.739704E-1	9.393258E-1	9.650213E-1	9.537515E-1	9.612422E-1	9.325831E-1	9.439648E-1	9.839172E-1	9.529397E-1	9.531282E-1	9.611154E-1	9.105300E-1	9.710353E-1	9.598284E-1	9.659643E-1	9.487241E-1	9.889509E-1	9.913652E-1	9.833754E-1	9.350944E-1	9.933572E-1	9.656416E-1	9.688606E-1	9.064573E-1	9.619468E-1	9.472169E-1	9.586359E-1	9.846820E-1	9.546102E-1	9.260844E-1	9.624060E-1	9.238322E-1	9.307603E-1	9.895992E-1	9.771117E-1	9.254874E-1	9.561229E-1	1.001066E+0	9.942921E-1	9.823111E-1	9.758117E-1	9.342458E-1	9.564224E-1	9.710890E-1	9.648098E-1	1.013696E+0	9.414663E-1	9.828371E-1	9.275090E-1	9.954188E-1	9.431004E-1	9.323500E-1	9.762110E-1	9.282056E-1	9.268236E-1	9.849676E-1	9.521062E-1	9.589453E-1	9.839304E-1	9.571012E-1	9.659960E-1	9.710993E-1	1.001456E+0	9.737351E-1	9.421972E-1	9.971712E-1	9.406133E-1	9.978574E-1	9.541604E-1	9.708052E-1	9.434927E-1	9.991680E-1	9.277186E-1	9.414059E-1	9.191743E-1	9.817203E-1	9.345068E-1	9.744870E-1	9.559904E-1	9.513656E-1	8.937113E-1	9.393294E-1	9.643392E-1	9.432320E-1	9.616085E-1	9.804357E-1	9.689649E-1	9.344940E-1	9.416136E-1	9.456666E-1	9.822237E-1	9.407327E-1	9.185228E-1	9.399290E-1	9.796666E-1	9.554092E-1	9.573949E-1	9.671558E-1	9.805100E-1	9.511609E-1	9.293469E-1	9.794653E-1	9.250519E-1	9.252373E-1	9.305416E-1	9.554755E-1	9.675362E-1	9.427286E-1	9.199177E-1	9.565321E-1	1.008237E+0	9.681284E-1	9.725932E-1	9.787216E-1	9.454372E-1	9.760454E-1	9.869327E-1	9.676045E-1	9.656274E-1	9.507152E-1	9.450646E-1	9.574333E-1	9.750783E-1	9.711077E-1	1.013783E+0	9.889990E-1	9.903928E-1	9.174230E-1	9.801571E-1	1.081040E+0
5.346620E+2	1.383292E+0	1.319810E+0	1.345435E+0	1.327195E+0	1.329562E+0	1.337287E+0	1.344285E+0	1.386624E+0	1.295314E+0	1.318329E+0	1.375022E+0	1.391656E+0	1.378632E+0	1.379200E+0	1.343639E+0	1.393211E+0	1.348749E+0	1.369495E+0	1.356204E+0	1.325530E+0	1.372807E+0	1.332714E+0	1.280402E+0	1.347012E+0	1.295253E+0	1.379157E+0	1.350286E+0	1.325565E+0	1.295352E+0	1.346253E+0	1.349028E+0	1.328371E+0	1.343719E+0	1.334620E+0	1.337992E+0	1.319266E+0	1.379348E+0	1.367217E+0	1.377351E+0	1.336332E+0	1.344069E+0	1.361874E+0	1.328259E+0	1.360978E+0	1.375195E+0	1.373189E+0	1.280859E+0	1.370541E+0	1.314153E+0	1.354843E+0	1.347144E+0	1.313202E+0	1.303368E+0	1.369435E+0	1.347993E+0	1.337804E+0	1.352379E+0	1.344493E+0	1.329321E+0	1.294324E+0	1.358277E+0	1.351165E+0	1.316957E+0	1.346799E+0	1.333792E+0	1.339897E+0	1.305658E+0	1.415303E+0	1.340700E+0	1.332077E+0	1.354524E+0	1.353363E+0	1.315138E+0	1.324112E+0	1.289210E+0	1.375003E+0	1.343082E+0	1.306170E+0	1.381751E+0	1.343435E+0	1.351220E+0	1.281811E+0	1.333018E+0	1.331648E+0	1.326608E+0	1.367072E+0	1.302685E+0	1.291568E+0	1.366755E+0	1.322636E+0	1.353988E+0	1.358383E+0	1.318320E+0	1.318386E+0	1.307532E+0	1.344716E+0	1.304657E+0	1.293898E+0	1.352664E+0	1.322984E+0	1.311761E+0	1.355818E+0	1.316208E+0	1.326941E+0	1.319491E+0	1.352140E+0	1.358199E+0	1.372089E+0	1.315527E+0	1.348195E+0	1.321536E+0	1.311869E+0	1.386674E+0	1.329202E+0	1.252457E+0	1.264000E+0	1.306466E+0	1.285589E+0	1.354894E+0	1.387512E+0	1.330796E+0	1.271260E+0	1.333215E+0	1.308834E+0	1.356938E+0	1.343904E+0	1.314618E+0	1.344943E+0	1.294628E+0	1.312508E+0	1.328742E+0	1.318875E+0	1.334133E+0	1.311967E+0	1.350416E+0	1.348518E+0	1.272361E+0	1.311086E+0	1.337979E+0	1.322395E+0	1.350460E+0	1.318995E+0	1.328672E+0	1.313761E+0	1.360701E+0	1.349501E+0	1.317871E+0	1.268786E+0	1.358432E+0	1.297279E+0	1.354739E+0	1.333098E+0	1.303096E+0	1.351814E+0	1.329608E+0	1.346695E+0	1.322827E+0	1.310914E+0	1.303819E+0	1.337081E+0	1.319845E+0	1.340446E+0	1.311468E+0	1.353829E+0	1.329011E+0	1.382720E+0	1.331912E+0	1.386671E+0	1.304932E+0	1.323463E+0	1.322321E+0
5.348120E+2	1.729654E+0	1.734456E+0	1.751567E+0	1.744541E+0	1.777949E+0	1.694999E+0	1.761228E+0	1.699998E+0	1.741155E+0	1.703489E+0	1.721854E+0	1.755835E+0	1.726850E+0	1.747391E+0	1.733815E+0	1.754540E+0	1.786018E+0	1.800781E+0	1.708276E+0	1.733530E+0	1.795462E+0	1.775300E+0	1.736731E+0	1.767108E+0	1.766023E+0	1.736923E+0	1.785007E+0	1.733718E+0	1.760247E+0	1.700114E+0	1.750137E+0	1.707699E+0	1.720741E+0	1.720616E+0	1.759527E+0	1.742161E+0	1.766014E+0	1.746306E+0	1.702496E+0	1.702862E+0	1.757052E+0	1.783898E+0	1.752695E+0	1.721725E+0	1.679629E+0	1.794119E+0	1.727587E+0	1.747207E+0	1.772082E+0	1.749616E+0	1.753237E+0	1.739306E+0	1.713672E+0	1.716451E+0	1.740035E+0	1.739796E+0	1.770533E+0	1.734883E+0	1.773812E+0	1.742064E+0	1.785218E+0	1.770770E+0	1.705380E+0	1.725600E+0	1.671583E+0	1.750004E+0	1.716046E+0	1.784119E+0	1.703883E+0	1.708545E+0	1.751575E+0	1.748911E+0	1.736552E+0	1.707717E+0	1.719564E+0	1.823845E+0	1.743030E+0	1.727439E+0	1.744704E+0	1.700961E+0	1.740061E+0	1.733801E+0	1.721665E+0	1.737671E+0	1.713262E+0	1.761805E+0	1.741121E+0	1.705309E+0	1.738199E+0	1.683032E+0	1.766416E+0	1.838501E+0	1.703501E+0	1.746079E+0	1.691404E+0	1.753246E+0	1.730259E+0	1.670667E+0	1.727144E+0	1.716550E+0	1.720023E+0	1.786825E+0	1.671958E+0	1.755356E+0	1.763499E+0	1.751213E+0	1.749334E+0	1.659069E+0	1.722194E+0	1.756996E+0	1.745450E+0	1.707542E+0	1.690100E+0	1.764804E+0	1.730748E+0	1.711454E+0	1.699011E+0	1.704946E+0	1.748488E+0	1.760435E+0	1.627312E+0	1.687358E+0	1.659918E+0	1.707132E+0	1.675942E+0	1.711314E+0	1.720600E+0	1.683736E+0	1.716166E+0	1.656738E+0	1.653057E+0	1.704130E+0	1.731199E+0	1.730109E+0	1.740431E+0	1.720738E+0	1.696688E+0	1.661866E+0	1.756466E+0	1.639855E+0	1.673046E+0	1.723043E+0	1.693690E+0	1.726557E+0	1.693360E+0	1.686804E+0	1.811498E+0	1.691481E+0	1.679812E+0	1.647631E+0	1.682190E+0	1.649612E+0	1.672238E+0	1.703823E+0	1.700630E+0	1.688448E+0	1.747282E+0	1.660133E+0	1.714152E+0	1.744235E+0	1.709334E+0	1.735964E+0	1.740507E+0	1.752964E+0	1.642190E+0	1.775034E+0	1.717206E+0	1.753230E+0	1.715604E+0	1.675192E+0	1.796313E+0
5.349530E+2	1.981054E+0	2.009199E+0	1.959983E+0	1.974082E+0	1.940113E+0	1.969787E+0	2.027617E+0	1.983256E+0	1.972129E+0	2.012545E+0	1.928025E+0	1.950956E+0	2.008326E+0	2.005958E+0	1.948503E+0	2.021715E+0	1.989355E+0	1.938526E+0	1.990867E+0	1.993174E+0	2.034969E+0	1.991015E+0	1.917227E+0	1.918762E+0	1.947346E+0	2.003345E+0	1.993636E+0	1.977778E+0	1.944861E+0	1.991107E+0	1.949562E+0	1.955518E+0	1.965059E+0	2.002068E+0	1.962565E+0	1.963484E+0	1.939860E+0	2.011185E+0	2.057439E+0	1.963128E+0	1.991159E+0	1.959434E+0	2.053001E+0	1.955663E+0	1.956971E+0	1.997898E+0	1.947261E+0	1.935164E+0	1.990425E+0	1.913221E+0	1.951047E+0	1.928793E+0	1.900045E+0	1.997150E+0	1.966524E+0	1.989736E+0	1.980856E+0	1.943083E+0	1.929849E+0	1.889047E+0	1.942311E+0	1.980041E+0	1.974121E+0	1.896944E+0	1.866277E+0	1.871757E+0	1.921005E+0	1.899675E+0	1.909002E+0	1.987654E+0	1.957311E+0	1.904387E+0	1.984302E+0	1.901014E+0	1.894601E+0	1.968831E+0	1.920234E+0	1.916923E+0	1.977894E+0	1.859254E+0	1.933411E+0	1.942300E+0	1.918861E+0	1.963627E+0	1.961533E+0	1.955362E+0	1.854441E+0	1.894711E+0	1.905169E+0	1.892706E+0	1.932337E+0	1.973757E+0	1.893443E+0	1.985294E+0	1.947874E+0	1.932211E+0	1.910558E+0	1.944260E+0	1.946119E+0	1.866908E+0	1.880794E+0	1.946019E+0	1.833681E+0	1.936603E+0	1.915846E+0	1.892666E+0	1.896091E+0	1.839379E+0	1.941201E+0	1.964890E+0	1.944889E+0	1.900461E+0	1.895301E+0	1.940064E+0	1.859579E+0	1.842942E+0	1.871257E+0	1.901240E+0	1.889837E+0	1.986412E+0	1.968492E+0	1.886911E+0	1.878774E+0	1.930441E+0	1.908425E+0	1.877913E+0	1.886638E+0	1.901796E+0	1.940089E+0	1.909269E+0	1.894982E+0	1.927624E+0	1.917914E+0	1.884888E+0	1.937929E+0	1.928582E+0	1.979101E+0	1.860407E+0	1.962692E+0	1.866136E+0	1.916641E+0	1.893172E+0	1.856076E+0	1.863729E+0	1.857508E+0	1.952230E+0	1.871183E+0	1.880791E+0	1.915851E+0	1.836149E+0	1.932972E+0	1.918690E+0	1.901159E+0	1.910271E+0	1.906357E+0	1.903104E+0	1.850528E+0	1.861400E+0	1.884112E+0	1.948711E+0	1.886073E+0	1.903484E+0	1.880850E+0	1.919661E+0	1.906696E+0	1.932819E+0	1.926448E+0	1.914810E+0	1.788052E+0	1.851086E+0	1.832085E+0
5.351140E+2	1.982465E+0	1.970774E+0	1.953144E+0	1.951128E+0	1.966562E+0	1.985142E+0	1.981222E+0	2.005765E+0	1.945836E+0	1.958611E+0	1.930729E+0	1.938973E+0	1.983860E+0	1.978871E+0	1.930470E+0	1.993854E+0	2.010615E+0	1.943321E+0	1.948352E+0	1.957264E+0	1.955488E+0	1.897691E+0	2.002857E+0	1.963354E+0	1.957511E+0	1.985200E+0	1.984221E+0	1.984705E+0	1.951453E+0	1.937985E+0	1.901068E+0	1.935573E+0	1.942615E+0	1.987663E+0	2.006649E+0	1.959183E+0	1.996001E+0	1.924596E+0	1.968851E+0	1.923835E+0	1.985194E+0	1.917378E+0	1.946374E+0	1.895929E+0	1.914517E+0	1.954753E+0	1.963691E+0	1.944822E+0	1.956102E+0	1.964049E+0	1.938314E+0	1.914696E+0	1.920567E+0	1.924344E+0	1.929280E+0	1.975398E+0	1.921898E+0	1.912427E+0	1.959338E+0	1.945505E+0	1.954588E+0	1.989752E+0	1.982910E+0	1.949754E+0	1.934793E+0	1.923136E+0	1.962696E+0	1.944551E+0	1.933664E+0	1.923364E+0	1.958287E+0	1.973553E+0	1.920045E+0	1.973894E+0	1.950112E+0	1.983484E+0	1.895461E+0	1.916447E+0	1.978839E+0	1.980395E+0	1.966695E+0	1.916163E+0	1.914294E+0	1.962960E+0	1.893746E+0	1.972300E+0	1.945752E+0	1.890217E+0	1.891417E+0	1.930590E+0	1.945584E+0	1.931790E+0	1.866288E+0	1.980815E+0	1.914014E+0	1.917558E+0	1.892999E+0	1.877382E+0	1.922433E+0	1.822734E+0	1.907429E+0	1.913038E+0	1.863571E+0	1.879981E+0	1.908425E+0	1.886080E+0	1.965785E+0	1.869121E+0	1.931958E+0	1.939776E+0	1.917932E+0	1.921328E+0	1.893530E+0	1.927956E+0	1.869019E+0	1.850916E+0	1.923236E+0	1.924389E+0	1.883911E+0	1.900781E+0	1.791636E+0	1.908554E+0	1.905010E+0	1.913906E+0	1.887722E+0	1.874455E+0	1.926376E+0	1.895586E+0	1.919170E+0	1.910217E+0	1.879347E+0	1.899715E+0	1.926729E+0	1.873643E+0	1.947273E+0	1.940066E+0	1.919636E+0	1.898551E+0	1.877647E+0	1.931185E+0	1.886348E+0	1.902525E+0	1.916104E+0	1.904052E+0	1.890792E+0	1.915265E+0	1.878393E+0	1.845779E+0	1.898879E+0	1.913398E+0	1.912739E+0	1.926701E+0	1.876778E+0	1.922409E+0	1.949162E+0	1.893673E+0	1.857228E+0	1.847035E+0	1.937603E+0	1.915947E+0	1.929738E+0	1.885551E+0	1.906452E+0	1.879945E+0	1.900296E+0	1.918794E+0	1.916709E+0	1.896367E+0	1.862956E+0	1.878814E+0	2.040790E+0
5.352600E+2	1.872104E+0	1.845358E+0	1.923534E+0	1.875419E+0	1.849938E+0	1.867959E+0	1.922115E+0	1.848524E+0	1.905281E+0	1.792729E+0	1.774499E+0	1.779802E+0	1.885632E+0	1.897977E+0	1.856990E+0	1.823229E+0	1.876312E+0	1.880910E+0	1.792023E+0	1.837645E+0	1.887619E+0	1.817140E+0	1.810173E+0	1.909693E+0	1.909820E+0	1.867282E+0	1.842987E+0	1.848900E+0	1.847083E+0	1.870407E+0	1.841511E+0	1.803762E+0	1.843958E+0	1.894473E+0	1.831133E+0	1.870396E+0	1.846380E+0	1.846939E+0	1.861452E+0	1.820120E+0	1.897732E+0	1.866171E+0	1.898194E+0	1.784529E+0	1.831232E+0	1.845667E+0	1.855982E+0	1.874364E+0	1.870206E+0	1.866371E+0	1.838792E+0	1.805573E+0	1.790971E+0	1.878119E+0	1.858517E+0	1.828771E+0	1.846646E+0	1.800096E+0	1.846482E+0	1.811926E+0	1.841628E+0	1.959924E+0	1.846187E+0	1.814937E+0	1.779985E+0	1.874554E+0	1.807808E+0	1.810492E+0	1.804896E+0	1.857639E+0	1.882297E+0	1.845811E+0	1.799749E+0	1.901801E+0	1.812385E+0	1.908069E+0	1.792426E+0	1.809368E+0	1.900650E+0	1.835675E+0	1.865060E+0	1.869418E+0	1.840636E+0	1.862872E+0	1.848502E+0	1.836393E+0	1.860902E+0	1.843311E+0	1.849850E+0	1.805885E+0	1.854187E+0	1.829601E+0	1.819933E+0	1.799484E+0	1.781767E+0	1.811117E+0	1.780642E+0	1.777039E+0	1.833664E+0	1.808983E+0	1.824036E+0	1.812457E+0	1.821777E+0	1.752771E+0	1.871870E+0	1.815193E+0	1.780874E+0	1.780187E+0	1.820418E+0	1.832763E+0	1.878126E+0	1.786724E+0	1.857369E+0	1.833291E+0	1.829642E+0	1.724626E+0	1.809421E+0	1.885962E+0	1.809075E+0	1.809674E+0	1.790206E+0	1.784172E+0	1.839133E+0	1.866280E+0	1.819039E+0	1.829708E+0	1.788765E+0	1.829579E+0	1.876203E+0	1.883450E+0	1.852882E+0	1.738076E+0	1.810577E+0	1.770101E+0	1.802055E+0	1.768786E+0	1.800780E+0	1.856755E+0	1.853317E+0	1.765675E+0	1.783768E+0	1.827488E+0	1.759194E+0	1.756875E+0	1.894240E+0	1.824994E+0	1.776629E+0	1.814297E+0	1.874658E+0	1.773991E+0	1.777316E+0	1.798507E+0	1.780964E+0	1.797034E+0	1.817105E+0	1.821726E+0	1.735031E+0	1.777763E+0	1.831553E+0	1.778148E+0	1.779187E+0	1.829723E+0	1.781931E+0	1.796312E+0	1.774333E+0	1.814447E+0	1.797388E+0	1.865287E+0	1.802822E+0	1.878287E+0	1.842013E+0
5.354170E+2	1.620915E+0	1.678902E+0	1.664921E+0	1.595030E+0	1.577908E+0	1.546547E+0	1.630298E+0	1.590697E+0	1.662063E+0	1.607683E+0	1.589766E+0	1.581846E+0	1.641822E+0	1.565250E+0	1.609824E+0	1.606827E+0	1.636911E+0	1.623799E+0	1.611398E+0	1.596064E+0	1.661588E+0	1.634525E+0	1.619094E+0	1.644946E+0	1.607625E+0	1.624504E+0	1.592198E+0	1.606260E+0	1.577475E+0	1.583507E+0	1.514116E+0	1.580066E+0	1.548009E+0	1.647263E+0	1.586622E+0	1.578542E+0	1.591436E+0	1.597551E+0	1.576770E+0	1.580856E+0	1.600257E+0	1.581694E+0	1.620026E+0	1.538812E+0	1.556483E+0	1.615568E+0	1.651013E+0	1.606647E+0	1.616327E+0	1.619353E+0	1.603238E+0	1.640573E+0	1.579555E+0	1.587072E+0	1.580032E+0	1.593241E+0	1.648024E+0	1.581490E+0	1.568185E+0	1.507840E+0	1.606987E+0	1.610036E+0	1.553196E+0	1.595585E+0	1.609500E+0	1.530976E+0	1.586126E+0	1.516801E+0	1.546030E+0	1.622326E+0	1.561803E+0	1.674890E+0	1.620360E+0	1.571516E+0	1.561650E+0	1.591624E+0	1.615421E+0	1.608215E+0	1.603087E+0	1.614192E+0	1.600504E+0	1.597887E+0	1.592924E+0	1.535701E+0	1.543507E+0	1.602127E+0	1.597159E+0	1.553760E+0	1.579249E+0	1.549457E+0	1.581462E+0	1.567813E+0	1.544988E+0	1.620030E+0	1.523687E+0	1.565842E+0	1.541939E+0	1.546419E+0	1.588827E+0	1.552457E+0	1.535011E+0	1.550537E+0	1.534741E+0	1.528014E+0	1.561693E+0	1.540053E+0	1.596926E+0	1.527342E+0	1.561046E+0	1.626297E+0	1.598385E+0	1.583747E+0	1.660444E+0	1.603372E+0	1.585184E+0	1.532090E+0	1.601557E+0	1.527909E+0	1.571098E+0	1.617870E+0	1.536513E+0	1.525498E+0	1.543852E+0	1.588270E+0	1.588941E+0	1.596424E+0	1.588574E+0	1.569074E+0	1.545729E+0	1.606551E+0	1.522567E+0	1.603554E+0	1.564711E+0	1.588178E+0	1.530036E+0	1.578072E+0	1.567188E+0	1.564999E+0	1.574115E+0	1.558139E+0	1.519963E+0	1.632595E+0	1.583481E+0	1.546112E+0	1.596342E+0	1.564238E+0	1.558768E+0	1.526775E+0	1.595574E+0	1.556657E+0	1.509156E+0	1.547166E+0	1.560884E+0	1.573443E+0	1.599174E+0	1.507531E+0	1.531681E+0	1.542909E+0	1.541972E+0	1.613763E+0	1.523813E+0	1.572358E+0	1.554504E+0	1.530037E+0	1.535802E+0	1.551272E+0	1.571985E+0	1.615289E+0	1.546443E+0	1.577713E+0	1.552732E+0
5.355630E+2	1.386062E+0	1.434408E+0	1.433491E+0	1.460302E+0	1.413903E+0	1.341719E+0	1.391949E+0	1.313213E+0	1.398895E+0	1.400317E+0	1.343170E+0	1.401533E+0	1.406856E+0	1.428871E+0	1.413197E+0	1.352184E+0	1.428384E+0	1.381059E+0	1.373599E+0	1.419642E+0	1.423399E+0	1.362892E+0	1.348719E+0	1.395755E+0	1.378733E+0	1.360135E+0	1.415783E+0	1.369005E+0	1.364558E+0	1.366179E+0	1.368164E+0	1.383507E+0	1.409601E+0	1.427069E+0	1.370450E+0	1.402147E+0	1.386335E+0	1.371827E+0	1.379787E+0	1.415966E+0	1.421168E+0	1.408411E+0	1.369516E+0	1.420544E+0	1.377560E+0	1.411980E+0	1.420151E+0	1.429167E+0	1.380508E+0	1.377346E+0	1.355740E+0	1.397089E+0	1.374584E+0	1.389698E+0	1.387375E+0	1.409356E+0	1.410811E+0	1.435833E+0	1.435779E+0	1.353352E+0	1.367280E+0	1.369179E+0	1.411800E+0	1.346533E+0	1.370381E+0	1.422334E+0	1.379627E+0	1.407393E+0	1.377631E+0	1.390216E+0	1.337288E+0	1.462882E+0	1.378990E+0	1.335179E+0	1.321368E+0	1.436174E+0	1.353255E+0	1.363356E+0	1.395724E+0	1.397659E+0	1.390370E+0	1.403156E+0	1.457827E+0	1.384437E+0	1.434561E+0	1.433309E+0	1.390588E+0	1.386149E+0	1.401890E+0	1.344144E+0	1.377973E+0	1.429753E+0	1.388305E+0	1.435583E+0	1.391437E+0	1.363324E+0	1.426116E+0	1.411489E+0	1.395720E+0	1.379504E+0	1.383452E+0	1.367598E+0	1.347840E+0	1.361805E+0	1.370529E+0	1.408461E+0	1.402676E+0	1.346166E+0	1.395233E+0	1.414446E+0	1.392775E+0	1.407031E+0	1.422003E+0	1.368399E+0	1.378805E+0	1.398055E+0	1.368701E+0	1.374661E+0	1.345444E+0	1.359890E+0	1.381352E+0	1.347480E+0	1.345735E+0	1.344238E+0	1.344481E+0	1.333233E+0	1.401284E+0	1.376260E+0	1.399520E+0	1.394838E+0	1.344440E+0	1.311188E+0	1.405247E+0	1.393231E+0	1.407106E+0	1.419319E+0	1.434045E+0	1.354611E+0	1.406465E+0	1.369151E+0	1.347823E+0	1.386631E+0	1.371499E+0	1.335090E+0	1.311699E+0	1.412154E+0	1.392487E+0	1.346330E+0	1.393111E+0	1.375335E+0	1.377830E+0	1.420375E+0	1.359515E+0	1.373960E+0	1.408581E+0	1.341285E+0	1.365320E+0	1.316367E+0	1.361349E+0	1.411063E+0	1.375875E+0	1.388020E+0	1.402036E+0	1.355673E+0	1.378106E+0	1.374009E+0	1.364017E+0	1.345621E+0	1.368433E+0	1.388178E+0	1.413587E+0
5.357090E+2	1.183653E+0	1.179533E+0	1.255643E+0	1.215080E+0	1.201837E+0	1.174219E+0	1.176299E+0	1.205924E+0	1.238146E+0	1.206890E+0	1.227900E+0	1.153077E+0	1.203450E+0	1.170258E+0	1.208750E+0	1.217269E+0	1.227143E+0	1.239097E+0	1.133295E+0	1.210971E+0	1.215001E+0	1.195761E+0	1.177789E+0	1.226882E+0	1.234807E+0	1.191308E+0	1.214181E+0	1.196442E+0	1.156371E+0	1.149674E+0	1.188711E+0	1.197240E+0	1.185893E+0	1.215220E+0	1.152900E+0	1.187903E+0	1.167929E+0	1.208642E+0	1.230862E+0	1.196857E+0	1.205577E+0	1.212580E+0	1.193414E+0	1.184039E+0	1.154734E+0	1.205596E+0	1.201669E+0	1.212083E+0	1.227659E+0	1.189417E+0	1.206250E+0	1.222460E+0	1.155617E+0	1.190735E+0	1.176610E+0	1.192746E+0	1.233828E+0	1.180100E+0	1.228420E+0	1.166612E+0	1.171264E+0	1.222109E+0	1.241420E+0	1.216830E+0	1.165478E+0	1.181492E+0	1.126868E+0	1.236989E+0	1.215374E+0	1.219196E+0	1.198365E+0	1.208638E+0	1.238689E+0	1.194064E+0	1.196078E+0	1.218744E+0	1.199248E+0	1.184099E+0	1.234075E+0	1.177789E+0	1.230876E+0	1.190169E+0	1.214613E+0	1.244976E+0	1.182256E+0	1.244032E+0	1.198414E+0	1.194158E+0	1.186473E+0	1.141461E+0	1.221257E+0	1.176090E+0	1.196010E+0	1.238684E+0	1.219169E+0	1.198257E+0	1.257585E+0	1.175372E+0	1.232472E+0	1.233886E+0	1.221556E+0	1.213414E+0	1.191826E+0	1.161436E+0	1.179034E+0	1.213345E+0	1.228080E+0	1.206779E+0	1.230031E+0	1.217099E+0	1.228279E+0	1.119910E+0	1.225615E+0	1.194891E+0	1.188860E+0	1.179033E+0	1.237880E+0	1.174441E+0	1.266093E+0	1.225134E+0	1.174510E+0	1.159788E+0	1.177428E+0	1.192146E+0	1.255756E+0	1.256701E+0	1.199323E+0	1.174078E+0	1.235844E+0	1.209233E+0	1.269223E+0	1.186901E+0	1.179118E+0	1.207702E+0	1.196001E+0	1.168209E+0	1.199456E+0	1.200154E+0	1.170381E+0	1.176252E+0	1.176133E+0	1.224861E+0	1.228416E+0	1.153337E+0	1.177678E+0	1.211267E+0	1.213112E+0	1.161577E+0	1.255609E+0	1.201034E+0	1.205761E+0	1.190573E+0	1.221337E+0	1.183821E+0	1.223682E+0	1.166284E+0	1.201530E+0	1.172240E+0	1.224205E+0	1.203623E+0	1.171930E+0	1.185401E+0	1.182569E+0	1.188248E+0	1.239383E+0	1.229505E+0	1.233057E+0	1.223788E+0	1.200469E+0	1.231925E+0	1.195230E+0
5.358600E+2	9.885450E-1	9.871283E-1	9.937710E-1	9.839528E-1	9.882768E-1	9.748533E-1	1.039707E+0	1.004928E+0	9.736031E-1	9.651377E-1	9.833716E-1	1.000492E+0	9.801384E-1	9.873690E-1	9.431548E-1	1.006842E+0	9.727367E-1	9.935765E-1	9.695575E-1	9.601989E-1	9.881863E-1	1.021337E+0	9.686575E-1	1.015750E+0	1.002761E+0	9.476906E-1	9.495408E-1	9.590647E-1	9.873583E-1	9.977432E-1	9.732686E-1	9.282246E-1	9.654787E-1	9.813925E-1	1.003917E+0	9.721947E-1	1.028492E+0	9.963500E-1	9.492071E-1	1.013260E+0	9.498409E-1	1.003127E+0	9.811153E-1	9.677181E-1	9.576628E-1	9.543714E-1	9.530091E-1	9.888054E-1	9.901004E-1	9.876602E-1	9.690483E-1	9.717016E-1	9.520868E-1	1.016111E+0	9.801312E-1	9.677628E-1	9.838762E-1	9.643748E-1	9.908131E-1	9.519848E-1	9.797990E-1	1.006165E+0	9.657438E-1	1.020877E+0	9.830234E-1	9.973462E-1	9.964291E-1	1.007300E+0	9.764605E-1	1.006044E+0	9.748401E-1	9.975855E-1	9.948098E-1	1.000973E+0	9.604077E-1	9.906312E-1	1.008814E+0	9.720366E-1	1.001152E+0	9.816867E-1	1.047035E+0	1.025975E+0	9.798838E-1	1.001202E+0	9.389760E-1	1.020274E+0	1.007917E+0	9.470812E-1	1.003665E+0	9.925135E-1	9.918852E-1	9.813142E-1	9.765351E-1	9.874697E-1	1.022996E+0	1.016685E+0	9.598853E-1	9.763848E-1	9.772779E-1	9.718804E-1	1.039978E+0	9.712660E-1	9.710114E-1	9.605288E-1	9.642125E-1	9.796923E-1	9.886264E-1	9.422958E-1	9.858101E-1	1.023627E+0	1.038452E+0	9.823849E-1	1.038601E+0	9.725380E-1	9.853174E-1	9.630567E-1	1.002750E+0	9.652119E-1	1.002637E+0	9.836647E-1	9.559154E-1	9.786602E-1	9.940253E-1	9.880758E-1	9.822098E-1	1.018546E+0	9.923575E-1	9.869116E-1	1.028735E+0	9.460687E-1	1.006308E+0	9.849837E-1	9.671133E-1	9.871285E-1	1.031072E+0	9.773315E-1	1.008968E+0	9.759107E-1	1.002488E+0	1.012670E+0	1.005052E+0	1.038799E+0	9.904967E-1	9.709899E-1	9.254013E-1	1.029520E+0	9.815589E-1	9.785463E-1	1.018732E+0	9.689256E-1	9.801580E-1	9.743934E-1	9.765081E-1	9.613496E-1	9.919392E-1	9.872944E-1	1.019442E+0	1.032117E+0	9.918170E-1	1.004521E+0	1.008511E+0	1.039368E+0	1.002012E+0	1.009183E+0	1.055691E+0	9.803715E-1	1.051497E+0	1.021978E+0	9.263927E-1	9.984945E-1	9.621005E-1
5.360070E+2	8.386100E-1	7.808760E-1	8.064278E-1	8.300622E-1	8.152435E-1	7.852298E-1	8.200638E-1	7.914427E-1	8.231521E-1	8.170275E-1	7.901594E-1	7.988440E-1	8.023553E-1	8.114854E-1	7.798436E-1	8.069042E-1	8.298010E-1	8.093383E-1	7.998484E-1	8.160381E-1	8.537712E-1	8.187570E-1	8.365419E-1	7.955471E-1	8.120396E-1	8.167531E-1	8.487138E-1	8.249242E-1	8.133103E-1	8.105070E-1	8.052967E-1	8.287051E-1	7.770265E-1	8.054955E-1	7.933072E-1	8.174978E-1	7.939633E-1	8.571625E-1	8.239723E-1	8.225966E-1	7.821846E-1	8.366721E-1	8.261774E-1	8.107371E-1	8.137081E-1	8.098203E-1	8.479153E-1	8.052304E-1	8.278492E-1	8.180539E-1	7.974850E-1	8.437979E-1	8.263074E-1	8.093988E-1	8.234906E-1	8.507877E-1	7.909946E-1	7.890621E-1	8.238356E-1	8.032435E-1	8.203655E-1	8.273247E-1	8.371867E-1	7.667021E-1	7.823566E-1	8.119008E-1	8.062533E-1	8.085200E-1	8.166366E-1	7.962616E-1	8.436143E-1	8.267503E-1	8.072494E-1	8.029887E-1	8.151658E-1	8.160730E-1	8.047431E-1	7.949231E-1	8.112100E-1	8.102349E-1	7.885688E-1	8.160350E-1	8.171763E-1	8.120944E-1	7.806295E-1	8.641748E-1	8.377754E-1	8.432667E-1	8.482435E-1	7.917745E-1	8.166767E-1	8.471081E-1	7.901469E-1	8.387033E-1	8.188523E-1	8.301013E-1	8.257371E-1	8.183710E-1	8.634255E-1	7.993812E-1	8.180721E-1	8.200509E-1	8.262431E-1	8.227400E-1	8.176722E-1	7.923289E-1	8.148366E-1	8.213631E-1	8.303420E-1	8.404077E-1	8.366795E-1	8.064862E-1	8.434804E-1	8.029898E-1	7.811079E-1	7.761718E-1	8.280751E-1	8.085482E-1	8.069775E-1	8.192057E-1	8.197113E-1	8.228100E-1	8.236865E-1	8.207459E-1	8.270284E-1	8.091176E-1	8.198105E-1	8.231055E-1	8.250700E-1	8.196746E-1	7.948034E-1	8.070442E-1	8.388329E-1	7.798101E-1	8.340250E-1	8.090268E-1	8.562635E-1	8.031707E-1	8.259508E-1	7.923396E-1	8.060588E-1	8.205674E-1	8.299639E-1	8.057755E-1	8.159322E-1	8.548683E-1	8.196858E-1	8.006641E-1	8.339346E-1	8.258900E-1	8.198639E-1	7.756878E-1	8.028289E-1	8.029872E-1	8.313008E-1	8.133803E-1	8.323717E-1	8.004122E-1	8.310202E-1	8.333090E-1	8.080572E-1	8.196990E-1	7.931136E-1	8.190232E-1	8.356916E-1	8.138149E-1	8.398261E-1	8.281205E-1	7.880425E-1	7.953712E-1	8.444888E-1
5.362630E+2	6.280469E-1	6.561562E-1	6.265470E-1	6.300313E-1	6.358563E-1	6.342385E-1	6.769388E-1	6.619581E-1	6.079738E-1	6.534483E-1	6.051096E-1	6.523548E-1	6.401498E-1	6.455538E-1	6.243627E-1	6.686987E-1	6.434541E-1	6.344981E-1	6.371950E-1	6.462723E-1	6.278704E-1	6.436379E-1	6.224927E-1	6.433892E-1	6.536989E-1	6.451736E-1	6.298915E-1	6.174377E-1	6.160316E-1	6.387002E-1	6.567385E-1	6.471221E-1	6.512612E-1	6.207764E-1	6.184418E-1	6.217148E-1	6.349427E-1	6.559486E-1	6.309527E-1	6.302835E-1	6.609634E-1	6.603745E-1	6.537421E-1	6.283281E-1	6.316301E-1	6.312132E-1	6.435149E-1	6.311545E-1	6.507685E-1	6.526916E-1	6.391099E-1	6.605260E-1	6.385298E-1	6.654741E-1	6.598054E-1	6.503778E-1	6.170257E-1	6.490981E-1	6.248443E-1	5.952835E-1	6.213525E-1	6.259006E-1	6.975475E-1	6.292645E-1	6.438630E-1	6.368341E-1	6.269732E-1	6.054853E-1	6.382195E-1	6.329399E-1	6.555527E-1	6.487845E-1	6.522211E-1	6.525980E-1	6.335604E-1	6.368727E-1	6.034456E-1	6.716188E-1	6.543455E-1	6.487010E-1	6.537882E-1	6.213971E-1	6.540533E-1	6.187572E-1	6.412030E-1	6.385378E-1	6.662383E-1	6.476694E-1	6.350841E-1	6.124559E-1	6.245097E-1	6.451534E-1	6.366483E-1	6.653953E-1	6.414071E-1	6.350297E-1	6.145747E-1	6.043656E-1	6.334890E-1	6.536922E-1	6.596035E-1	6.471214E-1	6.496626E-1	6.552119E-1	6.476866E-1	6.374271E-1	6.669966E-1	6.535652E-1	6.350294E-1	6.701896E-1	6.546136E-1	6.268990E-1	6.535367E-1	6.400284E-1	6.388498E-1	6.113392E-1	6.906703E-1	6.142828E-1	6.222365E-1	6.302600E-1	6.530056E-1	6.132990E-1	6.073127E-1	6.252541E-1	6.388199E-1	6.203533E-1	6.587348E-1	6.150845E-1	6.617659E-1	6.310560E-1	6.287076E-1	6.608661E-1	6.681858E-1	6.478157E-1	6.682482E-1	6.830159E-1	6.267486E-1	6.558999E-1	6.728468E-1	6.494151E-1	6.306081E-1	6.301071E-1	6.662749E-1	6.138832E-1	6.811386E-1	6.788350E-1	6.520982E-1	6.528053E-1	6.563807E-1	6.213439E-1	6.351397E-1	6.501096E-1	6.657339E-1	6.475047E-1	6.615845E-1	6.321361E-1	6.696913E-1	6.346816E-1	6.677314E-1	6.375882E-1	6.187759E-1	6.496053E-1	6.216876E-1	6.709948E-1	6.312468E-1	6.636393E-1	6.415660E-1	6.674826E-1	6.766570E-1	6.837328E-1	6.679213E-1
5.365190E+2	5.411937E-1	5.046934E-1	5.193964E-1	5.305777E-1	5.277411E-1	5.044656E-1	5.464630E-1	5.170885E-1	5.205298E-1	5.440680E-1	5.036565E-1	5.142301E-1	5.168985E-1	5.190004E-1	5.057035E-1	5.231080E-1	5.235613E-1	5.331736E-1	5.099122E-1	5.336384E-1	5.575110E-1	5.339260E-1	5.368202E-1	5.005227E-1	5.066998E-1	5.157223E-1	4.937459E-1	5.345328E-1	5.298750E-1	5.121031E-1	5.208237E-1	4.938576E-1	5.282660E-1	5.342205E-1	5.166111E-1	4.937919E-1	5.255002E-1	5.114158E-1	5.335170E-1	5.195178E-1	5.404651E-1	5.207772E-1	5.106428E-1	5.172156E-1	4.848448E-1	5.347088E-1	5.091630E-1	5.102362E-1	5.586227E-1	5.373489E-1	5.183388E-1	4.930790E-1	5.208175E-1	5.612964E-1	5.292401E-1	5.635489E-1	5.235899E-1	5.254638E-1	4.877399E-1	5.217376E-1	4.989205E-1	5.155260E-1	5.235182E-1	5.103182E-1	5.056581E-1	5.304108E-1	5.082803E-1	5.440696E-1	5.561705E-1	5.241877E-1	5.489980E-1	5.297747E-1	5.122479E-1	5.584531E-1	5.205920E-1	5.329230E-1	5.292925E-1	5.388622E-1	5.406912E-1	5.482959E-1	4.934036E-1	5.198254E-1	5.265470E-1	5.237459E-1	5.270696E-1	5.384268E-1	5.443784E-1	5.357931E-1	5.217992E-1	5.075665E-1	5.492635E-1	5.549351E-1	5.496121E-1	5.352311E-1	5.082290E-1	4.934426E-1	5.315613E-1	5.236756E-1	5.421422E-1	5.251606E-1	5.523475E-1	5.460572E-1	5.275084E-1	5.384427E-1	5.088472E-1	5.601970E-1	5.165319E-1	5.206389E-1	5.264584E-1	5.457837E-1	5.470464E-1	5.152359E-1	5.594055E-1	5.297528E-1	5.158172E-1	5.005283E-1	4.952886E-1	5.124642E-1	5.568918E-1	5.201948E-1	5.441359E-1	5.388948E-1	4.877661E-1	4.943883E-1	5.106794E-1	5.383575E-1	5.521271E-1	5.601478E-1	5.276957E-1	5.284171E-1	5.038625E-1	5.224209E-1	5.173995E-1	5.358279E-1	5.232704E-1	5.492177E-1	5.368284E-1	5.467093E-1	5.549047E-1	5.151319E-1	5.350535E-1	4.962631E-1	5.372991E-1	5.315126E-1	5.430886E-1	5.586556E-1	5.361240E-1	5.348239E-1	5.841310E-1	5.507849E-1	4.961650E-1	5.197855E-1	5.124734E-1	5.371391E-1	5.315389E-1	5.286408E-1	5.275182E-1	5.341507E-1	5.576259E-1	5.516695E-1	5.031538E-1	5.259650E-1	5.190486E-1	5.322160E-1	5.360201E-1	5.431385E-1	5.549820E-1	5.347772E-1	5.484770E-1	5.828260E-1	5.927147E-1
5.367660E+2	5.171622E-1	5.047906E-1	5.131530E-1	4.798938E-1	5.173353E-1	4.814079E-1	5.199362E-1	5.011358E-1	5.005743E-1	5.123416E-1	4.965988E-1	5.034395E-1	5.165287E-1	5.001875E-1	5.067167E-1	4.987503E-1	5.094402E-1	5.139451E-1	4.800293E-1	5.197640E-1	4.923754E-1	5.353935E-1	5.130711E-1	4.926750E-1	5.221255E-1	5.020632E-1	5.252513E-1	4.977352E-1	4.999609E-1	5.358085E-1	5.004344E-1	4.806255E-1	4.879691E-1	5.186534E-1	4.985013E-1	5.356494E-1	5.123775E-1	4.956418E-1	5.061316E-1	4.781462E-1	5.020711E-1	4.813841E-1	5.129756E-1	4.984128E-1	4.976816E-1	5.163758E-1	4.855986E-1	5.097426E-1	5.093348E-1	5.351207E-1	4.617039E-1	5.218420E-1	4.994326E-1	5.038204E-1	4.881403E-1	5.070620E-1	5.086579E-1	5.153359E-1	4.983891E-1	5.055084E-1	4.952152E-1	5.274143E-1	5.149305E-1	5.546225E-1	4.853455E-1	5.215547E-1	5.190532E-1	4.992923E-1	5.328161E-1	5.047265E-1	5.023571E-1	5.166414E-1	5.023890E-1	5.104202E-1	4.872916E-1	5.244439E-1	4.892614E-1	5.140794E-1	4.929414E-1	5.072136E-1	4.807173E-1	4.944650E-1	4.930586E-1	5.119521E-1	5.070829E-1	5.347273E-1	5.088904E-1	5.120184E-1	5.422762E-1	5.181889E-1	5.034449E-1	4.839239E-1	4.978251E-1	5.254416E-1	5.263616E-1	5.324514E-1	5.349857E-1	5.222664E-1	5.272995E-1	5.074650E-1	5.093151E-1	4.785825E-1	5.103513E-1	5.111449E-1	4.915366E-1	5.129641E-1	5.207875E-1	5.255264E-1	4.965250E-1	4.918593E-1	5.321713E-1	4.756007E-1	4.891828E-1	5.007527E-1	5.094925E-1	4.887871E-1	5.261853E-1	5.212798E-1	5.106686E-1	5.062059E-1	5.027290E-1	5.244127E-1	5.088976E-1	5.303791E-1	4.995371E-1	4.875348E-1	5.027402E-1	4.775278E-1	5.178138E-1	4.776368E-1	5.001077E-1	5.055875E-1	4.786000E-1	4.970649E-1	5.226221E-1	5.342476E-1	5.272856E-1	5.049627E-1	5.068264E-1	5.224945E-1	4.952309E-1	5.277943E-1	5.161261E-1	4.629589E-1	5.109266E-1	4.712555E-1	5.121352E-1	5.018457E-1	5.107315E-1	5.087871E-1	5.119236E-1	4.970113E-1	4.920127E-1	5.248940E-1	5.291186E-1	4.609137E-1	4.821547E-1	5.257326E-1	5.077238E-1	5.128460E-1	5.106450E-1	5.098003E-1	5.297750E-1	5.185354E-1	5.189334E-1	5.370694E-1	5.207115E-1	4.704543E-1	4.918888E-1	5.196850E-1	5.451765E-1
5.370170E+2	5.409875E-1	5.072837E-1	5.194927E-1	5.000726E-1	4.895263E-1	5.099533E-1	5.395902E-1	5.103774E-1	5.303979E-1	5.170030E-1	4.984424E-1	4.948895E-1	4.865434E-1	5.039093E-1	5.230297E-1	4.853070E-1	4.814086E-1	5.503007E-1	5.433295E-1	5.227021E-1	5.436769E-1	5.371795E-1	5.135735E-1	5.469223E-1	5.513161E-1	5.233166E-1	4.816577E-1	5.121448E-1	4.869544E-1	5.361379E-1	4.855381E-1	5.344736E-1	5.015298E-1	5.407882E-1	5.110206E-1	5.000097E-1	5.354940E-1	5.408087E-1	5.066425E-1	5.340539E-1	5.326019E-1	5.429408E-1	5.290795E-1	5.231179E-1	5.264898E-1	5.118145E-1	5.238720E-1	5.241604E-1	5.177477E-1	5.166372E-1	5.299990E-1	5.019744E-1	4.566483E-1	5.358261E-1	5.320747E-1	5.453278E-1	4.900177E-1	5.208646E-1	5.491018E-1	5.114321E-1	5.157955E-1	5.105585E-1	5.379730E-1	5.382191E-1	5.066589E-1	5.334765E-1	5.153749E-1	5.207160E-1	5.223100E-1	5.424900E-1	5.018892E-1	5.357239E-1	5.096763E-1	5.440237E-1	5.273853E-1	5.215776E-1	4.794780E-1	5.284433E-1	5.180877E-1	5.372204E-1	5.250508E-1	5.187338E-1	5.263736E-1	5.147310E-1	5.013812E-1	5.370306E-1	5.184363E-1	5.040148E-1	5.428083E-1	5.400069E-1	5.327405E-1	5.272505E-1	5.087858E-1	5.352342E-1	4.962557E-1	5.151033E-1	5.418586E-1	5.112690E-1	5.513741E-1	5.152932E-1	5.446378E-1	5.280558E-1	5.511389E-1	4.950837E-1	5.279615E-1	5.562851E-1	5.380897E-1	5.138257E-1	4.991118E-1	5.401619E-1	5.323681E-1	5.040088E-1	5.099603E-1	5.586084E-1	5.198896E-1	5.365854E-1	5.160480E-1	5.312799E-1	5.011457E-1	5.239812E-1	5.127382E-1	4.993852E-1	5.301895E-1	5.329296E-1	5.314662E-1	5.458002E-1	5.508431E-1	5.105103E-1	5.343102E-1	5.342847E-1	5.424845E-1	5.202860E-1	5.309722E-1	5.139303E-1	5.454042E-1	5.333280E-1	5.388108E-1	5.192283E-1	5.234669E-1	5.408264E-1	5.257181E-1	5.542883E-1	5.372337E-1	5.296109E-1	5.260759E-1	5.231345E-1	5.764283E-1	5.155747E-1	5.664753E-1	5.184147E-1	5.285023E-1	5.188961E-1	5.341424E-1	5.136741E-1	5.044054E-1	5.348838E-1	5.003616E-1	5.474591E-1	5.482870E-1	5.236516E-1	4.972645E-1	5.064991E-1	5.103044E-1	5.290705E-1	5.169895E-1	5.296679E-1	5.385468E-1	5.588835E-1	5.139891E-1	5.222824E-1	5.253060E-1
5.372640E+2	6.062707E-1	6.102412E-1	5.940568E-1	5.866531E-1	5.929580E-1	5.665668E-1	5.937963E-1	5.900474E-1	5.370294E-1	5.802327E-1	5.810256E-1	5.811611E-1	5.934894E-1	5.829997E-1	5.909276E-1	5.757914E-1	5.882856E-1	5.870643E-1	5.908295E-1	5.970729E-1	6.207185E-1	6.164032E-1	6.006220E-1	5.939955E-1	5.549610E-1	5.833586E-1	5.809699E-1	5.808828E-1	5.981426E-1	5.986321E-1	6.234457E-1	5.748023E-1	5.845969E-1	5.998559E-1	5.856046E-1	6.239980E-1	5.767025E-1	5.947629E-1	6.210212E-1	5.983424E-1	5.897453E-1	6.081369E-1	6.294257E-1	6.020283E-1	6.243626E-1	6.076344E-1	6.033450E-1	6.184651E-1	6.232708E-1	5.775561E-1	6.199673E-1	5.645543E-1	6.052281E-1	6.085578E-1	6.292266E-1	5.653894E-1	5.543594E-1	6.059118E-1	5.885073E-1	5.878835E-1	5.909884E-1	5.901489E-1	6.113731E-1	5.907068E-1	5.674340E-1	5.700780E-1	6.240631E-1	6.040424E-1	5.990528E-1	6.102394E-1	6.063486E-1	6.310864E-1	5.648422E-1	5.854914E-1	5.761557E-1	5.799992E-1	5.964488E-1	6.134657E-1	6.171046E-1	6.024297E-1	5.846773E-1	6.148173E-1	6.315853E-1	6.022638E-1	5.768094E-1	5.707578E-1	5.996634E-1	6.033172E-1	6.077046E-1	6.092382E-1	5.913462E-1	6.144595E-1	5.715433E-1	6.080839E-1	6.020944E-1	6.320446E-1	5.967436E-1	6.069604E-1	5.984079E-1	5.671403E-1	6.059270E-1	6.101191E-1	6.133453E-1	5.616799E-1	6.220854E-1	6.133147E-1	5.702196E-1	6.189228E-1	5.778285E-1	6.262222E-1	5.944482E-1	6.016051E-1	5.754880E-1	5.826336E-1	6.029016E-1	5.808679E-1	6.214223E-1	6.127153E-1	5.969456E-1	6.056430E-1	5.968595E-1	6.115877E-1	6.116658E-1	5.921941E-1	5.959644E-1	6.398257E-1	6.137947E-1	5.607142E-1	6.001130E-1	6.171510E-1	6.015340E-1	5.896336E-1	6.328682E-1	6.055976E-1	6.149231E-1	5.983559E-1	5.842996E-1	6.391665E-1	6.004771E-1	6.271047E-1	5.868554E-1	6.235808E-1	6.409815E-1	5.751240E-1	5.997045E-1	5.861738E-1	5.932503E-1	5.895075E-1	6.384019E-1	6.241261E-1	5.983771E-1	6.003840E-1	6.036213E-1	6.192322E-1	6.192904E-1	6.022227E-1	5.781302E-1	5.732249E-1	6.163448E-1	5.924896E-1	5.934491E-1	6.094840E-1	5.997552E-1	5.962561E-1	6.271923E-1	6.257291E-1	6.278164E-1	6.081291E-1	6.084687E-1	5.834357E-1	5.482377E-1
5.375110E+2	6.956029E-1	7.124274E-1	7.089001E-1	7.269987E-1	6.908541E-1	7.245329E-1	7.312552E-1	7.101120E-1	6.945628E-1	6.900213E-1	7.277168E-1	7.553112E-1	6.991811E-1	7.303330E-1	7.380956E-1	7.061855E-1	7.390344E-1	7.248634E-1	6.897756E-1	7.522189E-1	7.295517E-1	7.198726E-1	7.217484E-1	6.868315E-1	7.185971E-1	7.009469E-1	7.384867E-1	7.262227E-1	6.846486E-1	6.996038E-1	7.261829E-1	7.070181E-1	7.039460E-1	7.172740E-1	7.088349E-1	7.066574E-1	6.855855E-1	7.098332E-1	7.289377E-1	7.262160E-1	7.171992E-1	7.010358E-1	7.278785E-1	7.617076E-1	6.951004E-1	7.047255E-1	7.244165E-1	6.905773E-1	7.306846E-1	6.975766E-1	6.985240E-1	7.556020E-1	7.038735E-1	6.961079E-1	6.846577E-1	7.386269E-1	6.917078E-1	7.018085E-1	7.404110E-1	6.808324E-1	7.178329E-1	7.577022E-1	7.475299E-1	6.970192E-1	7.025992E-1	6.980158E-1	7.171726E-1	7.013605E-1	7.517881E-1	6.953753E-1	7.213139E-1	7.216941E-1	6.774658E-1	7.236827E-1	6.995467E-1	7.052408E-1	7.070828E-1	7.641298E-1	7.338578E-1	7.311742E-1	7.303688E-1	7.064062E-1	7.183201E-1	6.946731E-1	6.821303E-1	7.111867E-1	7.187302E-1	7.083009E-1	7.076385E-1	7.412505E-1	7.073344E-1	7.170708E-1	6.800795E-1	6.981223E-1	7.247300E-1	7.270389E-1	6.984017E-1	6.941560E-1	7.474594E-1	7.217395E-1	6.913382E-1	7.143522E-1	7.173399E-1	6.962202E-1	6.912916E-1	7.427549E-1	6.865642E-1	7.016518E-1	7.387888E-1	7.281225E-1	7.426487E-1	6.788495E-1	7.565936E-1	7.377836E-1	7.060279E-1	6.954623E-1	7.188755E-1	7.131387E-1	7.003086E-1	7.259281E-1	7.243790E-1	7.163173E-1	7.648281E-1	7.387361E-1	7.015637E-1	7.207141E-1	7.218806E-1	6.924718E-1	7.286271E-1	7.134954E-1	7.087870E-1	6.892299E-1	7.030465E-1	7.170966E-1	7.352601E-1	7.208163E-1	7.410083E-1	7.153504E-1	7.306992E-1	7.486797E-1	7.173033E-1	6.893396E-1	6.884618E-1	6.898106E-1	7.053274E-1	7.029476E-1	7.185898E-1	6.697563E-1	7.351655E-1	7.084550E-1	7.109459E-1	7.042031E-1	7.202018E-1	7.216428E-1	7.198092E-1	7.320251E-1	6.895518E-1	6.954205E-1	7.123592E-1	7.192387E-1	6.745393E-1	7.613961E-1	7.324291E-1	6.972309E-1	7.356966E-1	7.320884E-1	7.037323E-1	7.634136E-1	7.148935E-1	7.202606E-1	7.239721E-1
5.377580E+2	7.771197E-1	7.665650E-1	7.348825E-1	7.901475E-1	7.851215E-1	7.995603E-1	7.789680E-1	7.799032E-1	7.577702E-1	7.805569E-1	7.800463E-1	7.373881E-1	7.209194E-1	7.643508E-1	7.826469E-1	7.611170E-1	7.884553E-1	7.284848E-1	7.809945E-1	7.866647E-1	7.606713E-1	7.838416E-1	8.155859E-1	7.962566E-1	7.351698E-1	7.613922E-1	7.617015E-1	7.661213E-1	7.478843E-1	7.784346E-1	7.553157E-1	7.751844E-1	7.194892E-1	8.049202E-1	7.637019E-1	7.429910E-1	7.708317E-1	7.598898E-1	7.675089E-1	7.691617E-1	7.914025E-1	7.667290E-1	7.976081E-1	7.434942E-1	7.660041E-1	7.910907E-1	7.716887E-1	7.369547E-1	7.734003E-1	7.846663E-1	7.412587E-1	8.253718E-1	7.224098E-1	7.917746E-1	7.546703E-1	7.837642E-1	7.575862E-1	7.643985E-1	7.831513E-1	7.568357E-1	7.600813E-1	7.533550E-1	8.104314E-1	7.805265E-1	7.444112E-1	7.441092E-1	7.591104E-1	7.756859E-1	7.843417E-1	7.567683E-1	8.040721E-1	7.994892E-1	7.592894E-1	7.451171E-1	7.717820E-1	7.017614E-1	7.560522E-1	7.516314E-1	7.741723E-1	8.079073E-1	7.005553E-1	7.989772E-1	7.355150E-1	7.814626E-1	7.758220E-1	7.839055E-1	7.944514E-1	7.543904E-1	7.287199E-1	7.707630E-1	8.048410E-1	7.582247E-1	7.660770E-1	7.722503E-1	8.013793E-1	7.729623E-1	7.661532E-1	7.572500E-1	7.493260E-1	7.327361E-1	7.476193E-1	7.849333E-1	7.247806E-1	7.558081E-1	7.512986E-1	7.924468E-1	8.198422E-1	7.215258E-1	7.440513E-1	7.890940E-1	7.873630E-1	7.552814E-1	7.783954E-1	8.010249E-1	7.713040E-1	7.700895E-1	7.636982E-1	7.922422E-1	7.620754E-1	7.744912E-1	7.614160E-1	7.901349E-1	8.024773E-1	7.601001E-1	7.564127E-1	7.982473E-1	7.422432E-1	7.432714E-1	7.832316E-1	7.168663E-1	7.527459E-1	7.849109E-1	7.382595E-1	7.827523E-1	7.809713E-1	7.683408E-1	7.558214E-1	7.825800E-1	8.149460E-1	7.673777E-1	6.910755E-1	7.964263E-1	7.527996E-1	7.652169E-1	7.651722E-1	7.550089E-1	7.828366E-1	7.633229E-1	7.728065E-1	7.299771E-1	7.765542E-1	7.677852E-1	7.496679E-1	7.687413E-1	8.007870E-1	7.890439E-1	7.653076E-1	7.613130E-1	7.518550E-1	7.390272E-1	7.655681E-1	7.470958E-1	7.686421E-1	7.638611E-1	7.308174E-1	8.028761E-1	7.956657E-1	7.499174E-1	7.342157E-1	7.770691E-1	8.551334E-1
5.380210E+2	9.408070E-1	9.373417E-1	9.282848E-1	9.495613E-1	9.315044E-1	9.010083E-1	9.567397E-1	9.290233E-1	9.253224E-1	8.979367E-1	9.231829E-1	9.414872E-1	9.068421E-1	8.945231E-1	9.503898E-1	9.442972E-1	9.281355E-1	9.403185E-1	8.773209E-1	9.036703E-1	9.387846E-1	9.389147E-1	9.186659E-1	9.299570E-1	9.203442E-1	9.024437E-1	9.466376E-1	9.041154E-1	9.137611E-1	9.053068E-1	9.551315E-1	9.204073E-1	9.424716E-1	9.426639E-1	9.391247E-1	8.987584E-1	8.932632E-1	9.222531E-1	9.022909E-1	9.247738E-1	9.020222E-1	9.606383E-1	9.392004E-1	9.403852E-1	9.229329E-1	9.397496E-1	9.325468E-1	9.330249E-1	9.039015E-1	9.118038E-1	9.247041E-1	9.136120E-1	9.480121E-1	9.399700E-1	9.250316E-1	9.159195E-1	9.308502E-1	9.153944E-1	9.086649E-1	9.235146E-1	9.154792E-1	9.221448E-1	9.638769E-1	9.249779E-1	9.323995E-1	9.520363E-1	9.569926E-1	9.530321E-1	9.033854E-1	9.524217E-1	9.562101E-1	9.525513E-1	9.898451E-1	9.357259E-1	8.761922E-1	9.498929E-1	9.289439E-1	9.779505E-1	8.930710E-1	9.350907E-1	9.291687E-1	8.975906E-1	9.199074E-1	9.044971E-1	9.063783E-1	8.997078E-1	9.594724E-1	9.160355E-1	9.190440E-1	9.223216E-1	9.282269E-1	9.170309E-1	9.091256E-1	9.313521E-1	9.037836E-1	9.370756E-1	9.181633E-1	9.354730E-1	9.849052E-1	8.889727E-1	9.043391E-1	9.392037E-1	9.176925E-1	8.868717E-1	9.039657E-1	9.366858E-1	8.990238E-1	9.031585E-1	9.065027E-1	1.005028E+0	9.278627E-1	9.109698E-1	9.670837E-1	9.112797E-1	9.361092E-1	9.016899E-1	9.154430E-1	9.260093E-1	9.147097E-1	9.484225E-1	9.326560E-1	9.303683E-1	9.219098E-1	9.140779E-1	9.231329E-1	9.118482E-1	9.621498E-1	9.088419E-1	9.093838E-1	9.388563E-1	9.282660E-1	9.450315E-1	9.145898E-1	9.443369E-1	9.496745E-1	9.348462E-1	9.304162E-1	9.170848E-1	9.893556E-1	9.438693E-1	9.101460E-1	9.269237E-1	9.608056E-1	9.189848E-1	9.435700E-1	9.408437E-1	1.002333E+0	8.812245E-1	9.274503E-1	9.495420E-1	9.425423E-1	9.098280E-1	9.299710E-1	9.162650E-1	9.407309E-1	8.820450E-1	8.943854E-1	9.172008E-1	9.592093E-1	9.152147E-1	9.031260E-1	9.265478E-1	8.954546E-1	9.418503E-1	9.253497E-1	9.549786E-1	9.417987E-1	9.053746E-1	8.929698E-1	9.316815E-1	9.646480E-1
5.382790E+2	1.095854E+0	1.031001E+0	1.035466E+0	1.116708E+0	9.996424E-1	1.049919E+0	1.031998E+0	1.030008E+0	1.093676E+0	1.033723E+0	1.042830E+0	1.055602E+0	1.070516E+0	1.062142E+0	1.078837E+0	1.113688E+0	1.072718E+0	1.070743E+0	1.037919E+0	1.117637E+0	1.098074E+0	1.069485E+0	1.059748E+0	1.091697E+0	1.053202E+0	1.057290E+0	1.102450E+0	1.069601E+0	1.064918E+0	1.020523E+0	1.072234E+0	1.063412E+0	1.080687E+0	1.042561E+0	1.068680E+0	1.069363E+0	1.084436E+0	1.082158E+0	1.035047E+0	1.080196E+0	1.052276E+0	1.054529E+0	1.070180E+0	1.083479E+0	1.051836E+0	1.061299E+0	1.077186E+0	1.064459E+0	1.052689E+0	1.062610E+0	1.099678E+0	1.059195E+0	1.048542E+0	1.076143E+0	1.039356E+0	1.063109E+0	1.032541E+0	1.010917E+0	1.042756E+0	1.066032E+0	1.041630E+0	1.062950E+0	1.065078E+0	1.104239E+0	1.046053E+0	1.085689E+0	1.044474E+0	1.076999E+0	1.092252E+0	1.059433E+0	1.015482E+0	1.055263E+0	1.059284E+0	1.062223E+0	1.081114E+0	1.059802E+0	1.013987E+0	1.085891E+0	1.081142E+0	1.065006E+0	1.008021E+0	1.061057E+0	1.053900E+0	1.057026E+0	1.080148E+0	1.125578E+0	1.040158E+0	1.074815E+0	1.099643E+0	1.069803E+0	1.050077E+0	1.042035E+0	1.047815E+0	1.055956E+0	1.046351E+0	1.092963E+0	1.048266E+0	9.884279E-1	1.110259E+0	1.008840E+0	1.067159E+0	1.062303E+0	1.082911E+0	1.026326E+0	1.056387E+0	1.097689E+0	1.041450E+0	1.080117E+0	1.043119E+0	1.059994E+0	1.063853E+0	1.048656E+0	1.091060E+0	1.087762E+0	1.039668E+0	1.054279E+0	1.061423E+0	1.042303E+0	1.080359E+0	1.045140E+0	1.024633E+0	1.031080E+0	1.051180E+0	1.068468E+0	1.037809E+0	1.064077E+0	1.086875E+0	1.095244E+0	1.075867E+0	1.049226E+0	1.050266E+0	1.030529E+0	1.073363E+0	1.027227E+0	1.061658E+0	1.061824E+0	1.043014E+0	1.025948E+0	1.052976E+0	1.083634E+0	1.020944E+0	1.098797E+0	1.068942E+0	9.925802E-1	1.035726E+0	1.141222E+0	1.103101E+0	1.072895E+0	1.076012E+0	1.067917E+0	1.074515E+0	1.084844E+0	1.070008E+0	1.085554E+0	1.060676E+0	1.019008E+0	1.031654E+0	1.064278E+0	1.078184E+0	1.074457E+0	1.073209E+0	1.047099E+0	1.045561E+0	1.043913E+0	1.047901E+0	1.092173E+0	1.098417E+0	1.045448E+0	1.061698E+0	1.059480E+0	1.196614E+0
5.385110E+2	1.330178E+0	1.329457E+0	1.282062E+0	1.280973E+0	1.307837E+0	1.249033E+0	1.265567E+0	1.294710E+0	1.233402E+0	1.257358E+0	1.270022E+0	1.238443E+0	1.274202E+0	1.304401E+0	1.267277E+0	1.260600E+0	1.249828E+0	1.303979E+0	1.266945E+0	1.265607E+0	1.312237E+0	1.272709E+0	1.284167E+0	1.229495E+0	1.286665E+0	1.252803E+0	1.293585E+0	1.296837E+0	1.216784E+0	1.219295E+0	1.270786E+0	1.350354E+0	1.255771E+0	1.283254E+0	1.279939E+0	1.237714E+0	1.258120E+0	1.289156E+0	1.280441E+0	1.271916E+0	1.300607E+0	1.298623E+0	1.334039E+0	1.313644E+0	1.242873E+0	1.267918E+0	1.284241E+0	1.274304E+0	1.259166E+0	1.295444E+0	1.234328E+0	1.236930E+0	1.261007E+0	1.258403E+0	1.262427E+0	1.276141E+0	1.269961E+0	1.245443E+0	1.332225E+0	1.239847E+0	1.235165E+0	1.274902E+0	1.240454E+0	1.253223E+0	1.226066E+0	1.262437E+0	1.270589E+0	1.253813E+0	1.259482E+0	1.329745E+0	1.267205E+0	1.300936E+0	1.203478E+0	1.240514E+0	1.297699E+0	1.297971E+0	1.238590E+0	1.244540E+0	1.311813E+0	1.277872E+0	1.267705E+0	1.261661E+0	1.278567E+0	1.281860E+0	1.280843E+0	1.263485E+0	1.280873E+0	1.330422E+0	1.284006E+0	1.279051E+0	1.264921E+0	1.295899E+0	1.243474E+0	1.298654E+0	1.287750E+0	1.272702E+0	1.226515E+0	1.235138E+0	1.289579E+0	1.260628E+0	1.243588E+0	1.295940E+0	1.259192E+0	1.277704E+0	1.238405E+0	1.240734E+0	1.292849E+0	1.251749E+0	1.251334E+0	1.294036E+0	1.244695E+0	1.264535E+0	1.247564E+0	1.260363E+0	1.221155E+0	1.231951E+0	1.297491E+0	1.283838E+0	1.236096E+0	1.303877E+0	1.244599E+0	1.261063E+0	1.254642E+0	1.276629E+0	1.221213E+0	1.249848E+0	1.259222E+0	1.242242E+0	1.210705E+0	1.232538E+0	1.289812E+0	1.235208E+0	1.271786E+0	1.256320E+0	1.305518E+0	1.247037E+0	1.258633E+0	1.299727E+0	1.216485E+0	1.278909E+0	1.210179E+0	1.283718E+0	1.297873E+0	1.287906E+0	1.241527E+0	1.284714E+0	1.299658E+0	1.256932E+0	1.295809E+0	1.246459E+0	1.282846E+0	1.215056E+0	1.244610E+0	1.297286E+0	1.305787E+0	1.250669E+0	1.267451E+0	1.215706E+0	1.291567E+0	1.303617E+0	1.291369E+0	1.266046E+0	1.311833E+0	1.230483E+0	1.224802E+0	1.290720E+0	1.256420E+0	1.245970E+0	1.255263E+0	1.246552E+0	1.273478E+0
5.387700E+2	1.520645E+0	1.469882E+0	1.495196E+0	1.481416E+0	1.512192E+0	1.509163E+0	1.439973E+0	1.445510E+0	1.526577E+0	1.458628E+0	1.484279E+0	1.533790E+0	1.439487E+0	1.516982E+0	1.466544E+0	1.484193E+0	1.507256E+0	1.507912E+0	1.466887E+0	1.471867E+0	1.504298E+0	1.537957E+0	1.499156E+0	1.512464E+0	1.486846E+0	1.448493E+0	1.504657E+0	1.505171E+0	1.464593E+0	1.448706E+0	1.474742E+0	1.493758E+0	1.491007E+0	1.516933E+0	1.492386E+0	1.470039E+0	1.475003E+0	1.486719E+0	1.448069E+0	1.464391E+0	1.478425E+0	1.462672E+0	1.512660E+0	1.545295E+0	1.457401E+0	1.468696E+0	1.527507E+0	1.519990E+0	1.512247E+0	1.437676E+0	1.439341E+0	1.461588E+0	1.500258E+0	1.493760E+0	1.459182E+0	1.478551E+0	1.494452E+0	1.482144E+0	1.510951E+0	1.448550E+0	1.478302E+0	1.442321E+0	1.498032E+0	1.490718E+0	1.406255E+0	1.472439E+0	1.463331E+0	1.471744E+0	1.513033E+0	1.480763E+0	1.449215E+0	1.535158E+0	1.418756E+0	1.396460E+0	1.485587E+0	1.527776E+0	1.473680E+0	1.472226E+0	1.490601E+0	1.460345E+0	1.466861E+0	1.446545E+0	1.458416E+0	1.492241E+0	1.448119E+0	1.447464E+0	1.507388E+0	1.522610E+0	1.480985E+0	1.497223E+0	1.503948E+0	1.467704E+0	1.438685E+0	1.481535E+0	1.483945E+0	1.484090E+0	1.479486E+0	1.440358E+0	1.495414E+0	1.463796E+0	1.472534E+0	1.454009E+0	1.438748E+0	1.433158E+0	1.450322E+0	1.415734E+0	1.469251E+0	1.416885E+0	1.505602E+0	1.491537E+0	1.507046E+0	1.452495E+0	1.481856E+0	1.445726E+0	1.424098E+0	1.422309E+0	1.501324E+0	1.460099E+0	1.498449E+0	1.443407E+0	1.440422E+0	1.459296E+0	1.464402E+0	1.479828E+0	1.461521E+0	1.419094E+0	1.536754E+0	1.465055E+0	1.443513E+0	1.443741E+0	1.471017E+0	1.445956E+0	1.472785E+0	1.440860E+0	1.481749E+0	1.460794E+0	1.423844E+0	1.426082E+0	1.452147E+0	1.464256E+0	1.404571E+0	1.445504E+0	1.464101E+0	1.403701E+0	1.385949E+0	1.435762E+0	1.533265E+0	1.404348E+0	1.475470E+0	1.433359E+0	1.494078E+0	1.459462E+0	1.465557E+0	1.481104E+0	1.512577E+0	1.413933E+0	1.403308E+0	1.466766E+0	1.475110E+0	1.434437E+0	1.443861E+0	1.453365E+0	1.447240E+0	1.390034E+0	1.469068E+0	1.486852E+0	1.447578E+0	1.432074E+0	1.430100E+0	1.493961E+0	1.548771E+0
5.390240E+2	1.711441E+0	1.745005E+0	1.690894E+0	1.693870E+0	1.661726E+0	1.657130E+0	1.725459E+0	1.742724E+0	1.717511E+0	1.638372E+0	1.673729E+0	1.677387E+0	1.683371E+0	1.708424E+0	1.619578E+0	1.681107E+0	1.679545E+0	1.683788E+0	1.708860E+0	1.674040E+0	1.693066E+0	1.661095E+0	1.677691E+0	1.679023E+0	1.648939E+0	1.677530E+0	1.742478E+0	1.705177E+0	1.656661E+0	1.663299E+0	1.720932E+0	1.625363E+0	1.629770E+0	1.724166E+0	1.717021E+0	1.678175E+0	1.695917E+0	1.637596E+0	1.674423E+0	1.665426E+0	1.695345E+0	1.670843E+0	1.676505E+0	1.724485E+0	1.645643E+0	1.677747E+0	1.619151E+0	1.667454E+0	1.667240E+0	1.629311E+0	1.685088E+0	1.724160E+0	1.645655E+0	1.714675E+0	1.642680E+0	1.652749E+0	1.684434E+0	1.667569E+0	1.684576E+0	1.682022E+0	1.645607E+0	1.677684E+0	1.705805E+0	1.646304E+0	1.629184E+0	1.687620E+0	1.619311E+0	1.701388E+0	1.662784E+0	1.676361E+0	1.646328E+0	1.679900E+0	1.595574E+0	1.627949E+0	1.703611E+0	1.689318E+0	1.588168E+0	1.635290E+0	1.731562E+0	1.666209E+0	1.686407E+0	1.681888E+0	1.698756E+0	1.710546E+0	1.689668E+0	1.594224E+0	1.696293E+0	1.670033E+0	1.623894E+0	1.660729E+0	1.608710E+0	1.625819E+0	1.617915E+0	1.652282E+0	1.672110E+0	1.702506E+0	1.695291E+0	1.627008E+0	1.657678E+0	1.620178E+0	1.668490E+0	1.665526E+0	1.643541E+0	1.606949E+0	1.653362E+0	1.620311E+0	1.659473E+0	1.660981E+0	1.645213E+0	1.653898E+0	1.684352E+0	1.609690E+0	1.661172E+0	1.700984E+0	1.656813E+0	1.583762E+0	1.619713E+0	1.607622E+0	1.650011E+0	1.650279E+0	1.599113E+0	1.617084E+0	1.679572E+0	1.679934E+0	1.619056E+0	1.660831E+0	1.691885E+0	1.614888E+0	1.658744E+0	1.672320E+0	1.644705E+0	1.616562E+0	1.696637E+0	1.627108E+0	1.679137E+0	1.643627E+0	1.592965E+0	1.601489E+0	1.711295E+0	1.606222E+0	1.588155E+0	1.622669E+0	1.634726E+0	1.672154E+0	1.639250E+0	1.560696E+0	1.665504E+0	1.644389E+0	1.667467E+0	1.704440E+0	1.645592E+0	1.617580E+0	1.613874E+0	1.706451E+0	1.708359E+0	1.633083E+0	1.629855E+0	1.589047E+0	1.727145E+0	1.598037E+0	1.541189E+0	1.615277E+0	1.707699E+0	1.597465E+0	1.622027E+0	1.645550E+0	1.670405E+0	1.692635E+0	1.579838E+0	1.523710E+0	1.583697E+0
5.392880E+2	1.920861E+0	1.846120E+0	1.905971E+0	1.839356E+0	1.829023E+0	1.891434E+0	1.885234E+0	1.894162E+0	1.897240E+0	1.842601E+0	1.889768E+0	1.853036E+0	1.860923E+0	1.897439E+0	1.878543E+0	1.874309E+0	1.903954E+0	1.923548E+0	1.866040E+0	1.861053E+0	1.926743E+0	1.891681E+0	1.857166E+0	1.882824E+0	1.850619E+0	1.836805E+0	1.852944E+0	1.896422E+0	1.851028E+0	1.799882E+0	1.893062E+0	1.822197E+0	1.901364E+0	1.838847E+0	1.821553E+0	1.873305E+0	1.868282E+0	1.859923E+0	1.888798E+0	1.875053E+0	1.811891E+0	1.811960E+0	1.929786E+0	1.840740E+0	1.845085E+0	1.896888E+0	1.860244E+0	1.887868E+0	1.853621E+0	1.833056E+0	1.840506E+0	1.879161E+0	1.828110E+0	1.878576E+0	1.881523E+0	1.893712E+0	1.887427E+0	1.837560E+0	1.867828E+0	1.868028E+0	1.841807E+0	1.819186E+0	1.834364E+0	1.886261E+0	1.813643E+0	1.906996E+0	1.848415E+0	1.835108E+0	1.789171E+0	1.876425E+0	1.827476E+0	1.924893E+0	1.798255E+0	1.830282E+0	1.838619E+0	1.861744E+0	1.806716E+0	1.782339E+0	1.962505E+0	1.864040E+0	1.877795E+0	1.852501E+0	1.847584E+0	1.829291E+0	1.779090E+0	1.854798E+0	1.842518E+0	1.847040E+0	1.846426E+0	1.805831E+0	1.845333E+0	1.876755E+0	1.873013E+0	1.809097E+0	1.800468E+0	1.834692E+0	1.802841E+0	1.824988E+0	1.800333E+0	1.872082E+0	1.828039E+0	1.860562E+0	1.786890E+0	1.813180E+0	1.818222E+0	1.818816E+0	1.892285E+0	1.812453E+0	1.783110E+0	1.851949E+0	1.906480E+0	1.881913E+0	1.808729E+0	1.866534E+0	1.814357E+0	1.793333E+0	1.825782E+0	1.835119E+0	1.857991E+0	1.753067E+0	1.757289E+0	1.823521E+0	1.836143E+0	1.826554E+0	1.804003E+0	1.753672E+0	1.892018E+0	1.781456E+0	1.862418E+0	1.760110E+0	1.837951E+0	1.726777E+0	1.852043E+0	1.796729E+0	1.790803E+0	1.807435E+0	1.803777E+0	1.738167E+0	1.852266E+0	1.836377E+0	1.828271E+0	1.830153E+0	1.818042E+0	1.773696E+0	1.805210E+0	1.815027E+0	1.799603E+0	1.776292E+0	1.875794E+0	1.795928E+0	1.832811E+0	1.807738E+0	1.772267E+0	1.866054E+0	1.853075E+0	1.745465E+0	1.849211E+0	1.752568E+0	1.826838E+0	1.843722E+0	1.782018E+0	1.772237E+0	1.833003E+0	1.809614E+0	1.760725E+0	1.790042E+0	1.816975E+0	1.826369E+0	1.720891E+0	1.850792E+0	1.709781E+0
5.395210E+2	2.092379E+0	1.990488E+0	2.077423E+0	1.988104E+0	2.028045E+0	1.971725E+0	2.059446E+0	2.071071E+0	2.000623E+0	1.977689E+0	1.955770E+0	2.018317E+0	2.022617E+0	1.967527E+0	1.962317E+0	2.027457E+0	2.080253E+0	2.016427E+0	1.948208E+0	2.031022E+0	2.098534E+0	1.958138E+0	2.028109E+0	2.068758E+0	2.021907E+0	1.949154E+0	1.982577E+0	1.948647E+0	1.966097E+0	1.966584E+0	1.997536E+0	1.993279E+0	1.973861E+0	1.993527E+0	2.000928E+0	1.957237E+0	1.999634E+0	1.947657E+0	1.964898E+0	2.011020E+0	1.961685E+0	1.984887E+0	2.069411E+0	2.053795E+0	1.928091E+0	1.932827E+0	2.024669E+0	1.939953E+0	1.961918E+0	2.044513E+0	2.031890E+0	1.983302E+0	1.974546E+0	1.944762E+0	1.948738E+0	2.011665E+0	1.969501E+0	1.969167E+0	2.003755E+0	1.965008E+0	1.916732E+0	1.938302E+0	2.009043E+0	1.963624E+0	1.976550E+0	1.982057E+0	1.978798E+0	1.914750E+0	1.971177E+0	1.969407E+0	1.951379E+0	2.018582E+0	1.982392E+0	2.007419E+0	2.013210E+0	2.000569E+0	1.870139E+0	1.927296E+0	2.028899E+0	1.965649E+0	1.885390E+0	1.993748E+0	1.933645E+0	1.970211E+0	1.939846E+0	2.030934E+0	1.943211E+0	1.963262E+0	2.021220E+0	1.981834E+0	2.002830E+0	1.941953E+0	1.969641E+0	1.991150E+0	1.929081E+0	1.960053E+0	1.981513E+0	1.927734E+0	2.027803E+0	1.957264E+0	1.931787E+0	1.953451E+0	1.940068E+0	1.943310E+0	1.999882E+0	1.852321E+0	1.994428E+0	1.928423E+0	1.911672E+0	1.955409E+0	2.064007E+0	1.910146E+0	1.982671E+0	1.988335E+0	1.959482E+0	1.905454E+0	1.916192E+0	1.934035E+0	1.993527E+0	1.933394E+0	1.878621E+0	1.955208E+0	1.922697E+0	1.935712E+0	1.896776E+0	1.933637E+0	1.949452E+0	1.884012E+0	1.919834E+0	1.951678E+0	1.978785E+0	1.990099E+0	1.914504E+0	1.905661E+0	1.936954E+0	1.923813E+0	1.940201E+0	1.923391E+0	1.974559E+0	1.977634E+0	1.901783E+0	1.873092E+0	2.025861E+0	1.976563E+0	1.905399E+0	1.932696E+0	1.967950E+0	1.971992E+0	1.951430E+0	1.889715E+0	1.927427E+0	1.932931E+0	1.909139E+0	1.978516E+0	1.961019E+0	1.887272E+0	1.908710E+0	1.884063E+0	1.932305E+0	1.971229E+0	1.924814E+0	1.930501E+0	1.959751E+0	1.929734E+0	1.924964E+0	1.923810E+0	1.938853E+0	1.944704E+0	1.928330E+0	1.949262E+0	1.944688E+0
5.397970E+2	2.106006E+0	2.111814E+0	2.086658E+0	2.069902E+0	2.022757E+0	2.059752E+0	2.103405E+0	2.058674E+0	2.075730E+0	2.065230E+0	1.974130E+0	2.038868E+0	2.034753E+0	1.977109E+0	2.022946E+0	2.056437E+0	2.090642E+0	2.035096E+0	2.039306E+0	2.095015E+0	2.090345E+0	2.049685E+0	2.040502E+0	2.065830E+0	1.975910E+0	2.035966E+0	2.019107E+0	2.019479E+0	1.977554E+0	2.004597E+0	2.009590E+0	2.094098E+0	2.021220E+0	2.049778E+0	2.057444E+0	2.030162E+0	2.069084E+0	2.050339E+0	2.054833E+0	2.024014E+0	2.063668E+0	2.011622E+0	2.085123E+0	2.030531E+0	2.010321E+0	2.084147E+0	2.027554E+0	2.069058E+0	2.065147E+0	2.008613E+0	1.997767E+0	1.999905E+0	1.998045E+0	2.048480E+0	2.052559E+0	2.029299E+0	2.084488E+0	2.066493E+0	2.104036E+0	2.007372E+0	1.978709E+0	1.988030E+0	2.043201E+0	2.022994E+0	1.990723E+0	2.019885E+0	1.979255E+0	2.034157E+0	1.980473E+0	2.076066E+0	1.992716E+0	2.041912E+0	2.003402E+0	1.998804E+0	2.068010E+0	2.026503E+0	1.941531E+0	2.006557E+0	2.073549E+0	2.025414E+0	1.968410E+0	2.016648E+0	2.034281E+0	2.008789E+0	1.969241E+0	2.040305E+0	2.001579E+0	2.026156E+0	2.001195E+0	1.956596E+0	2.033369E+0	2.021937E+0	1.965202E+0	2.054717E+0	2.060557E+0	2.024759E+0	2.011638E+0	1.946860E+0	2.024002E+0	2.010217E+0	2.017496E+0	2.016738E+0	2.030564E+0	1.948731E+0	1.949505E+0	2.006471E+0	2.064568E+0	1.944939E+0	1.915944E+0	1.982990E+0	2.110655E+0	1.967163E+0	2.001834E+0	1.965295E+0	1.983755E+0	1.978484E+0	2.048849E+0	1.991940E+0	2.008930E+0	1.970869E+0	2.019567E+0	1.909649E+0	2.035285E+0	1.998552E+0	2.035209E+0	1.966044E+0	2.020168E+0	1.977694E+0	1.944947E+0	1.952450E+0	1.966771E+0	1.958344E+0	1.985679E+0	1.944146E+0	1.984656E+0	2.021662E+0	1.986442E+0	1.953613E+0	1.968732E+0	2.009968E+0	1.951015E+0	2.017442E+0	2.019852E+0	1.880092E+0	1.933106E+0	2.037054E+0	2.003735E+0	1.975668E+0	2.009295E+0	1.903411E+0	2.017601E+0	1.922553E+0	1.960933E+0	2.032826E+0	1.999269E+0	1.956184E+0	1.948127E+0	1.947108E+0	2.041032E+0	1.981014E+0	1.910798E+0	2.000038E+0	1.945070E+0	2.025485E+0	1.958064E+0	2.078548E+0	2.008315E+0	1.982589E+0	1.903957E+0	1.972895E+0	2.071736E+0
5.400240E+2	2.018957E+0	1.976094E+0	2.024061E+0	2.018499E+0	1.943626E+0	1.995940E+0	2.019442E+0	1.989088E+0	2.007338E+0	2.056752E+0	1.945712E+0	2.001713E+0	2.015415E+0	1.968852E+0	1.991582E+0	2.042193E+0	2.057845E+0	2.014951E+0	2.006088E+0	2.003714E+0	2.056240E+0	1.933153E+0	2.024789E+0	1.990611E+0	1.919932E+0	1.916453E+0	2.011231E+0	2.011035E+0	2.035966E+0	1.944576E+0	1.949042E+0	2.021948E+0	1.991471E+0	2.026037E+0	2.011671E+0	1.998812E+0	1.912065E+0	1.982765E+0	2.039737E+0	1.954709E+0	2.014491E+0	1.955423E+0	1.986646E+0	1.994059E+0	1.909374E+0	2.010264E+0	1.970290E+0	1.995002E+0	2.059498E+0	1.926226E+0	1.995579E+0	1.978389E+0	1.868920E+0	2.023632E+0	2.012315E+0	1.990786E+0	1.973724E+0	1.987753E+0	1.944915E+0	1.970710E+0	1.973170E+0	1.985127E+0	1.942520E+0	1.964815E+0	1.924287E+0	1.967964E+0	1.956370E+0	1.991549E+0	1.967870E+0	2.023883E+0	1.980230E+0	2.009479E+0	1.991958E+0	1.961485E+0	1.955778E+0	1.954005E+0	1.893133E+0	1.948218E+0	2.025865E+0	1.979475E+0	1.978481E+0	1.963969E+0	1.976876E+0	1.961936E+0	1.946552E+0	1.931742E+0	2.001540E+0	1.928409E+0	2.017421E+0	1.896424E+0	1.946541E+0	1.902965E+0	1.905162E+0	2.003341E+0	1.935599E+0	1.935614E+0	1.996201E+0	1.956339E+0	2.015343E+0	1.922242E+0	1.956013E+0	1.965051E+0	1.992185E+0	1.913011E+0	1.968411E+0	1.926449E+0	1.981735E+0	1.905290E+0	1.871657E+0	1.953776E+0	1.983253E+0	1.858960E+0	1.904201E+0	1.932600E+0	1.977302E+0	1.932040E+0	1.932489E+0	1.952364E+0	1.926800E+0	1.974176E+0	1.947031E+0	1.893166E+0	2.022046E+0	1.945051E+0	1.905279E+0	1.917795E+0	2.009207E+0	1.902709E+0	1.888745E+0	1.901887E+0	1.942308E+0	1.940153E+0	1.945824E+0	1.906044E+0	1.932999E+0	1.909272E+0	1.977429E+0	1.912917E+0	2.035913E+0	1.992583E+0	1.882021E+0	1.907703E+0	1.963326E+0	1.863283E+0	1.949203E+0	1.932505E+0	1.995267E+0	1.889307E+0	1.902396E+0	1.891176E+0	1.960251E+0	1.914717E+0	1.919828E+0	1.922033E+0	1.966674E+0	1.932617E+0	1.916592E+0	1.887097E+0	1.868229E+0	1.974011E+0	1.906469E+0	1.928941E+0	1.861819E+0	2.002615E+0	1.896003E+0	1.979903E+0	1.918783E+0	1.933988E+0	1.849906E+0	1.882374E+0	1.925398E+0
5.402790E+2	1.851611E+0	1.878185E+0	1.849008E+0	1.857249E+0	1.895376E+0	1.849796E+0	1.855437E+0	1.860446E+0	1.892421E+0	1.859543E+0	1.859714E+0	1.870680E+0	1.925739E+0	1.861085E+0	1.834663E+0	1.882074E+0	1.842216E+0	1.894545E+0	1.786581E+0	1.866738E+0	1.832155E+0	1.868798E+0	1.881474E+0	1.872416E+0	1.901973E+0	1.886987E+0	1.879633E+0	1.890920E+0	1.831984E+0	1.854920E+0	1.822174E+0	1.823539E+0	1.874698E+0	1.904805E+0	1.856870E+0	1.825176E+0	1.891490E+0	1.921704E+0	1.878289E+0	1.905484E+0	1.849780E+0	1.863873E+0	1.840427E+0	1.909565E+0	1.867979E+0	1.873677E+0	1.823598E+0	1.906784E+0	1.916777E+0	1.841889E+0	1.866379E+0	1.841259E+0	1.792805E+0	1.897878E+0	1.870805E+0	1.837655E+0	1.877426E+0	1.837514E+0	1.885960E+0	1.841159E+0	1.841858E+0	1.861980E+0	1.870244E+0	1.849411E+0	1.851748E+0	1.839453E+0	1.835905E+0	1.913007E+0	1.832334E+0	1.837302E+0	1.847438E+0	1.919658E+0	1.854612E+0	1.863427E+0	1.860736E+0	1.908416E+0	1.791371E+0	1.862597E+0	1.819181E+0	1.840158E+0	1.830364E+0	1.826252E+0	1.834485E+0	1.898036E+0	1.866470E+0	1.791755E+0	1.873640E+0	1.819243E+0	1.836563E+0	1.788024E+0	1.800737E+0	1.888532E+0	1.817239E+0	1.868978E+0	1.830606E+0	1.868490E+0	1.844041E+0	1.863115E+0	1.855146E+0	1.881847E+0	1.831898E+0	1.830807E+0	1.821202E+0	1.806173E+0	1.886327E+0	1.876849E+0	1.867049E+0	1.771114E+0	1.823617E+0	1.898152E+0	1.876111E+0	1.835936E+0	1.843016E+0	1.815258E+0	1.774282E+0	1.776956E+0	1.807107E+0	1.804500E+0	1.844623E+0	1.795456E+0	1.794613E+0	1.758551E+0	1.835974E+0	1.771976E+0	1.856618E+0	1.823996E+0	1.853429E+0	1.803270E+0	1.850500E+0	1.829680E+0	1.821202E+0	1.763604E+0	1.832652E+0	1.837277E+0	1.792381E+0	1.886563E+0	1.797121E+0	1.790035E+0	1.797442E+0	1.840521E+0	1.771181E+0	1.815765E+0	1.812770E+0	1.804849E+0	1.773348E+0	1.893733E+0	1.833711E+0	1.813744E+0	1.799921E+0	1.795458E+0	1.891934E+0	1.793561E+0	1.745026E+0	1.820305E+0	1.895324E+0	1.818570E+0	1.847531E+0	1.764357E+0	1.848348E+0	1.853629E+0	1.798940E+0	1.813821E+0	1.801318E+0	1.820274E+0	1.764847E+0	1.861222E+0	1.804188E+0	1.818620E+0	1.728919E+0	1.871725E+0	1.828525E+0
5.405020E+2	1.820156E+0	1.732701E+0	1.794177E+0	1.743950E+0	1.778224E+0	1.780112E+0	1.748958E+0	1.738520E+0	1.794474E+0	1.767943E+0	1.796169E+0	1.787344E+0	1.747077E+0	1.777404E+0	1.786964E+0	1.781671E+0	1.772509E+0	1.800161E+0	1.754078E+0	1.767390E+0	1.803562E+0	1.792129E+0	1.798548E+0	1.856995E+0	1.773794E+0	1.754578E+0	1.740833E+0	1.763588E+0	1.703593E+0	1.731598E+0	1.744385E+0	1.774030E+0	1.726363E+0	1.816224E+0	1.768181E+0	1.816970E+0	1.805790E+0	1.764667E+0	1.776133E+0	1.788877E+0	1.764907E+0	1.754438E+0	1.786188E+0	1.775035E+0	1.712136E+0	1.741931E+0	1.756323E+0	1.827772E+0	1.737731E+0	1.755488E+0	1.762517E+0	1.808098E+0	1.752807E+0	1.801372E+0	1.771797E+0	1.796233E+0	1.776229E+0	1.798721E+0	1.788889E+0	1.793139E+0	1.766532E+0	1.773480E+0	1.768501E+0	1.770884E+0	1.707647E+0	1.775201E+0	1.754000E+0	1.830522E+0	1.780764E+0	1.722792E+0	1.751920E+0	1.753457E+0	1.684077E+0	1.763351E+0	1.739814E+0	1.873044E+0	1.735562E+0	1.728400E+0	1.775543E+0	1.771496E+0	1.689627E+0	1.748712E+0	1.776938E+0	1.731143E+0	1.772527E+0	1.749157E+0	1.760048E+0	1.775718E+0	1.790511E+0	1.725602E+0	1.744361E+0	1.795119E+0	1.787902E+0	1.729382E+0	1.740721E+0	1.785433E+0	1.757260E+0	1.756084E+0	1.799882E+0	1.742048E+0	1.705885E+0	1.743779E+0	1.741422E+0	1.692797E+0	1.762220E+0	1.704643E+0	1.730255E+0	1.741151E+0	1.760973E+0	1.745268E+0	1.747281E+0	1.774866E+0	1.763115E+0	1.807555E+0	1.733377E+0	1.691221E+0	1.767376E+0	1.743790E+0	1.721000E+0	1.733455E+0	1.716884E+0	1.736095E+0	1.721363E+0	1.724089E+0	1.714078E+0	1.753384E+0	1.771758E+0	1.763489E+0	1.741790E+0	1.691103E+0	1.706424E+0	1.693359E+0	1.714559E+0	1.741975E+0	1.700248E+0	1.716815E+0	1.815240E+0	1.675636E+0	1.708736E+0	1.813106E+0	1.682256E+0	1.751391E+0	1.762157E+0	1.753157E+0	1.656162E+0	1.678298E+0	1.768614E+0	1.746674E+0	1.751368E+0	1.711176E+0	1.718985E+0	1.702327E+0	1.727611E+0	1.778681E+0	1.796962E+0	1.674766E+0	1.743567E+0	1.736149E+0	1.771033E+0	1.748633E+0	1.724886E+0	1.732097E+0	1.686141E+0	1.708209E+0	1.749403E+0	1.730080E+0	1.732797E+0	1.723339E+0	1.649918E+0	1.820354E+0	1.657887E+0
5.407740E+2	1.686077E+0	1.679910E+0	1.748697E+0	1.708822E+0	1.709616E+0	1.678667E+0	1.757900E+0	1.702956E+0	1.603522E+0	1.692707E+0	1.713568E+0	1.704135E+0	1.662294E+0	1.697528E+0	1.691833E+0	1.770980E+0	1.750694E+0	1.726207E+0	1.702962E+0	1.724935E+0	1.655023E+0	1.710342E+0	1.737824E+0	1.732881E+0	1.700286E+0	1.639233E+0	1.672380E+0	1.713595E+0	1.647088E+0	1.631229E+0	1.649238E+0	1.685291E+0	1.691866E+0	1.771594E+0	1.653319E+0	1.664825E+0	1.658688E+0	1.649509E+0	1.657342E+0	1.688744E+0	1.680741E+0	1.680069E+0	1.719581E+0	1.710678E+0	1.707100E+0	1.709017E+0	1.690591E+0	1.745308E+0	1.713459E+0	1.702050E+0	1.699629E+0	1.686229E+0	1.660108E+0	1.736617E+0	1.713627E+0	1.667082E+0	1.626095E+0	1.627717E+0	1.625458E+0	1.623514E+0	1.690083E+0	1.653484E+0	1.657315E+0	1.687709E+0	1.697544E+0	1.712373E+0	1.670647E+0	1.718826E+0	1.771216E+0	1.699699E+0	1.664210E+0	1.691176E+0	1.644978E+0	1.634925E+0	1.642045E+0	1.709968E+0	1.645195E+0	1.674969E+0	1.684284E+0	1.699971E+0	1.643160E+0	1.697465E+0	1.690480E+0	1.709768E+0	1.590894E+0	1.678802E+0	1.707576E+0	1.664841E+0	1.699419E+0	1.722973E+0	1.602325E+0	1.755714E+0	1.649380E+0	1.645067E+0	1.649422E+0	1.703849E+0	1.651686E+0	1.687212E+0	1.622937E+0	1.656035E+0	1.662898E+0	1.698393E+0	1.679032E+0	1.592951E+0	1.644171E+0	1.627842E+0	1.704708E+0	1.640640E+0	1.620611E+0	1.726195E+0	1.721125E+0	1.633056E+0	1.660785E+0	1.686283E+0	1.609807E+0	1.674427E+0	1.601375E+0	1.608850E+0	1.668435E+0	1.634358E+0	1.654616E+0	1.655040E+0	1.615095E+0	1.643624E+0	1.589260E+0	1.636975E+0	1.674447E+0	1.652058E+0	1.666243E+0	1.634781E+0	1.580572E+0	1.661360E+0	1.696597E+0	1.668672E+0	1.648723E+0	1.630794E+0	1.642281E+0	1.621667E+0	1.732546E+0	1.594442E+0	1.659741E+0	1.670481E+0	1.627826E+0	1.606502E+0	1.640977E+0	1.654088E+0	1.663029E+0	1.665822E+0	1.662908E+0	1.640738E+0	1.694483E+0	1.670085E+0	1.563814E+0	1.716548E+0	1.618910E+0	1.601025E+0	1.617997E+0	1.620543E+0	1.606517E+0	1.674976E+0	1.617814E+0	1.618955E+0	1.641032E+0	1.654110E+0	1.607060E+0	1.709334E+0	1.649421E+0	1.635197E+0	1.584601E+0	1.661144E+0	1.617458E+0
5.410190E+2	1.683485E+0	1.670749E+0	1.654026E+0	1.634320E+0	1.636629E+0	1.641139E+0	1.644646E+0	1.670088E+0	1.657870E+0	1.587951E+0	1.624847E+0	1.679156E+0	1.680094E+0	1.629062E+0	1.676850E+0	1.671082E+0	1.658252E+0	1.675632E+0	1.666872E+0	1.641021E+0	1.698245E+0	1.632509E+0	1.695193E+0	1.697464E+0	1.638333E+0	1.655187E+0	1.684665E+0	1.661075E+0	1.605796E+0	1.618704E+0	1.617807E+0	1.676218E+0	1.568447E+0	1.627187E+0	1.666522E+0	1.724977E+0	1.580833E+0	1.659202E+0	1.679242E+0	1.639760E+0	1.626980E+0	1.673352E+0	1.649921E+0	1.725755E+0	1.605170E+0	1.691493E+0	1.613112E+0	1.669350E+0	1.659532E+0	1.619945E+0	1.655613E+0	1.573603E+0	1.618584E+0	1.625243E+0	1.577591E+0	1.675432E+0	1.592798E+0	1.570079E+0	1.679741E+0	1.642551E+0	1.604704E+0	1.670067E+0	1.680425E+0	1.677225E+0	1.600354E+0	1.635441E+0	1.562168E+0	1.631868E+0	1.688495E+0	1.672563E+0	1.640153E+0	1.647104E+0	1.647883E+0	1.632631E+0	1.627705E+0	1.658954E+0	1.616569E+0	1.600755E+0	1.666193E+0	1.676009E+0	1.618009E+0	1.625544E+0	1.691917E+0	1.623065E+0	1.590924E+0	1.647405E+0	1.643285E+0	1.603947E+0	1.696743E+0	1.617063E+0	1.650616E+0	1.641129E+0	1.585756E+0	1.651383E+0	1.611151E+0	1.640564E+0	1.618818E+0	1.645212E+0	1.603918E+0	1.618693E+0	1.693724E+0	1.625765E+0	1.617023E+0	1.600231E+0	1.679500E+0	1.592226E+0	1.657673E+0	1.633350E+0	1.552460E+0	1.620778E+0	1.616564E+0	1.675534E+0	1.649984E+0	1.616703E+0	1.581336E+0	1.564535E+0	1.684864E+0	1.633307E+0	1.628894E+0	1.598603E+0	1.603507E+0	1.534251E+0	1.649718E+0	1.626550E+0	1.602774E+0	1.594759E+0	1.633478E+0	1.624847E+0	1.641882E+0	1.594186E+0	1.593869E+0	1.639840E+0	1.658283E+0	1.622138E+0	1.660559E+0	1.626800E+0	1.672875E+0	1.600650E+0	1.624154E+0	1.623465E+0	1.589432E+0	1.648908E+0	1.581470E+0	1.620409E+0	1.589970E+0	1.583647E+0	1.648687E+0	1.603270E+0	1.637878E+0	1.574674E+0	1.639297E+0	1.548801E+0	1.647729E+0	1.661020E+0	1.588121E+0	1.649330E+0	1.596926E+0	1.599859E+0	1.601642E+0	1.647205E+0	1.569138E+0	1.632480E+0	1.610819E+0	1.598377E+0	1.615171E+0	1.635464E+0	1.599359E+0	1.680869E+0	1.659924E+0	1.604276E+0	1.570796E+0
5.412790E+2	1.590785E+0	1.582331E+0	1.551076E+0	1.634987E+0	1.546667E+0	1.540066E+0	1.583304E+0	1.587445E+0	1.541488E+0	1.579490E+0	1.562457E+0	1.536393E+0	1.551917E+0	1.538528E+0	1.498916E+0	1.613028E+0	1.583412E+0	1.573424E+0	1.534152E+0	1.583666E+0	1.600003E+0	1.552825E+0	1.544488E+0	1.557421E+0	1.567614E+0	1.521428E+0	1.525168E+0	1.578386E+0	1.542656E+0	1.498097E+0	1.559577E+0	1.513057E+0	1.510951E+0	1.555436E+0	1.556483E+0	1.582817E+0	1.557608E+0	1.608346E+0	1.516348E+0	1.506979E+0	1.570245E+0	1.505411E+0	1.581806E+0	1.527300E+0	1.474230E+0	1.539806E+0	1.532392E+0	1.586044E+0	1.481538E+0	1.561307E+0	1.533205E+0	1.560232E+0	1.526282E+0	1.581290E+0	1.552480E+0	1.574097E+0	1.597504E+0	1.525667E+0	1.535969E+0	1.520386E+0	1.566383E+0	1.626975E+0	1.559432E+0	1.585978E+0	1.515722E+0	1.568583E+0	1.471239E+0	1.531485E+0	1.554568E+0	1.612295E+0	1.548777E+0	1.552174E+0	1.471691E+0	1.521517E+0	1.494828E+0	1.555450E+0	1.464542E+0	1.542106E+0	1.539168E+0	1.546939E+0	1.511884E+0	1.562388E+0	1.557124E+0	1.557597E+0	1.506221E+0	1.605720E+0	1.532805E+0	1.524545E+0	1.549434E+0	1.515775E+0	1.528472E+0	1.588384E+0	1.512678E+0	1.524162E+0	1.506808E+0	1.528021E+0	1.529747E+0	1.483338E+0	1.457792E+0	1.542156E+0	1.581912E+0	1.547785E+0	1.518435E+0	1.516726E+0	1.553587E+0	1.500314E+0	1.569416E+0	1.512851E+0	1.529563E+0	1.516347E+0	1.534698E+0	1.557194E+0	1.558462E+0	1.529669E+0	1.506247E+0	1.507655E+0	1.593952E+0	1.520225E+0	1.567561E+0	1.503811E+0	1.532486E+0	1.488694E+0	1.537488E+0	1.532045E+0	1.503063E+0	1.520018E+0	1.499353E+0	1.531999E+0	1.522986E+0	1.538473E+0	1.465314E+0	1.482384E+0	1.587469E+0	1.563055E+0	1.529825E+0	1.528556E+0	1.524247E+0	1.543869E+0	1.519193E+0	1.578925E+0	1.503144E+0	1.528889E+0	1.493663E+0	1.522103E+0	1.557578E+0	1.522860E+0	1.486843E+0	1.564088E+0	1.556888E+0	1.497631E+0	1.561263E+0	1.510428E+0	1.517730E+0	1.560466E+0	1.527401E+0	1.557765E+0	1.478133E+0	1.515084E+0	1.485028E+0	1.539846E+0	1.547003E+0	1.539022E+0	1.534218E+0	1.504336E+0	1.556719E+0	1.574326E+0	1.506989E+0	1.518777E+0	1.448063E+0	1.581630E+0	1.478088E+0
5.415190E+2	1.370769E+0	1.408516E+0	1.427750E+0	1.369411E+0	1.344739E+0	1.312629E+0	1.421378E+0	1.448457E+0	1.310484E+0	1.380079E+0	1.354712E+0	1.373076E+0	1.357384E+0	1.373072E+0	1.355878E+0	1.392750E+0	1.416310E+0	1.390686E+0	1.409469E+0	1.409350E+0	1.375474E+0	1.364888E+0	1.426554E+0	1.422420E+0	1.342492E+0	1.353539E+0	1.384170E+0	1.415653E+0	1.381849E+0	1.321739E+0	1.357452E+0	1.360699E+0	1.394382E+0	1.388192E+0	1.412356E+0	1.371992E+0	1.418098E+0	1.392445E+0	1.384339E+0	1.383933E+0	1.391736E+0	1.347045E+0	1.374972E+0	1.341569E+0	1.356548E+0	1.359870E+0	1.327524E+0	1.416978E+0	1.387209E+0	1.338179E+0	1.354229E+0	1.439197E+0	1.363811E+0	1.375170E+0	1.358873E+0	1.404353E+0	1.387852E+0	1.410686E+0	1.424559E+0	1.358023E+0	1.369275E+0	1.342333E+0	1.424533E+0	1.364614E+0	1.364476E+0	1.376667E+0	1.376013E+0	1.396355E+0	1.434539E+0	1.376083E+0	1.340299E+0	1.421254E+0	1.377184E+0	1.369652E+0	1.365576E+0	1.387104E+0	1.354723E+0	1.373413E+0	1.396565E+0	1.350699E+0	1.358126E+0	1.413009E+0	1.385916E+0	1.435291E+0	1.375407E+0	1.352646E+0	1.388350E+0	1.350122E+0	1.353619E+0	1.347951E+0	1.402298E+0	1.344594E+0	1.327735E+0	1.401230E+0	1.331351E+0	1.426139E+0	1.363246E+0	1.324824E+0	1.411830E+0	1.397947E+0	1.323208E+0	1.328249E+0	1.352834E+0	1.329661E+0	1.401123E+0	1.345869E+0	1.389246E+0	1.361399E+0	1.360887E+0	1.333805E+0	1.358347E+0	1.368223E+0	1.393100E+0	1.388645E+0	1.320259E+0	1.378983E+0	1.350069E+0	1.389984E+0	1.385758E+0	1.341096E+0	1.376105E+0	1.306303E+0	1.338568E+0	1.369382E+0	1.367623E+0	1.372487E+0	1.357278E+0	1.355000E+0	1.355019E+0	1.342604E+0	1.355124E+0	1.345988E+0	1.360989E+0	1.354654E+0	1.337721E+0	1.312752E+0	1.324498E+0	1.331512E+0	1.369530E+0	1.383562E+0	1.366990E+0	1.364648E+0	1.364293E+0	1.327724E+0	1.377548E+0	1.404544E+0	1.362426E+0	1.322923E+0	1.388550E+0	1.336735E+0	1.346735E+0	1.346689E+0	1.352451E+0	1.399044E+0	1.362470E+0	1.367895E+0	1.310348E+0	1.388635E+0	1.348739E+0	1.411870E+0	1.318524E+0	1.375407E+0	1.343727E+0	1.343901E+0	1.362736E+0	1.352973E+0	1.372564E+0	1.404882E+0	1.342604E+0	1.460673E+0	1.359068E+0
5.417700E+2	1.219193E+0	1.193800E+0	1.203089E+0	1.216995E+0	1.263071E+0	1.169962E+0	1.204358E+0	1.207484E+0	1.198354E+0	1.149435E+0	1.183143E+0	1.199773E+0	1.150726E+0	1.144118E+0	1.194251E+0	1.249979E+0	1.190211E+0	1.195952E+0	1.176608E+0	1.182159E+0	1.209589E+0	1.184964E+0	1.176092E+0	1.221562E+0	1.219625E+0	1.160700E+0	1.162376E+0	1.180954E+0	1.170078E+0	1.177963E+0	1.196247E+0	1.134803E+0	1.172502E+0	1.168076E+0	1.195623E+0	1.168639E+0	1.212543E+0	1.187252E+0	1.186466E+0	1.199665E+0	1.211418E+0	1.214651E+0	1.178856E+0	1.136343E+0	1.213523E+0	1.202187E+0	1.182206E+0	1.193977E+0	1.209752E+0	1.152313E+0	1.181127E+0	1.204528E+0	1.211866E+0	1.201965E+0	1.139411E+0	1.177691E+0	1.204439E+0	1.168284E+0	1.221637E+0	1.187413E+0	1.196818E+0	1.150071E+0	1.235619E+0	1.188336E+0	1.191509E+0	1.221616E+0	1.198688E+0	1.193612E+0	1.152871E+0	1.217158E+0	1.214176E+0	1.188794E+0	1.190452E+0	1.178482E+0	1.167599E+0	1.228092E+0	1.218822E+0	1.182276E+0	1.154592E+0	1.190926E+0	1.238332E+0	1.200953E+0	1.243641E+0	1.148163E+0	1.188686E+0	1.244420E+0	1.201643E+0	1.168332E+0	1.220368E+0	1.150725E+0	1.197256E+0	1.217185E+0	1.186871E+0	1.199498E+0	1.174104E+0	1.219986E+0	1.178421E+0	1.143024E+0	1.177084E+0	1.178642E+0	1.204102E+0	1.172275E+0	1.212687E+0	1.163099E+0	1.140974E+0	1.180964E+0	1.188320E+0	1.152831E+0	1.176805E+0	1.224030E+0	1.208469E+0	1.118736E+0	1.223155E+0	1.224951E+0	1.146631E+0	1.132165E+0	1.199780E+0	1.132900E+0	1.133958E+0	1.126218E+0	1.156299E+0	1.179579E+0	1.171739E+0	1.203439E+0	1.171744E+0	1.193803E+0	1.185998E+0	1.190356E+0	1.134428E+0	1.144027E+0	1.160053E+0	1.201836E+0	1.139074E+0	1.189762E+0	1.143656E+0	1.199540E+0	1.150745E+0	1.187878E+0	1.223688E+0	1.208314E+0	1.167514E+0	1.164607E+0	1.195246E+0	1.204457E+0	1.199910E+0	1.192694E+0	1.198778E+0	1.152912E+0	1.196526E+0	1.193381E+0	1.182826E+0	1.166268E+0	1.194959E+0	1.171401E+0	1.169087E+0	1.224956E+0	1.181759E+0	1.126974E+0	1.212619E+0	1.209323E+0	1.194421E+0	1.178443E+0	1.167701E+0	1.235200E+0	1.169935E+0	1.196374E+0	1.174878E+0	1.201253E+0	1.213090E+0	1.180967E+0	1.197948E+0
5.420210E+2	1.054606E+0	9.991231E-1	1.065889E+0	1.085511E+0	1.027291E+0	1.012064E+0	1.064700E+0	1.012773E+0	1.040892E+0	1.047417E+0	1.038500E+0	1.038796E+0	1.033086E+0	1.036530E+0	1.001130E+0	1.068768E+0	1.042313E+0	1.038965E+0	9.752596E-1	1.002567E+0	1.046357E+0	1.043249E+0	1.036374E+0	1.082902E+0	1.050520E+0	9.774124E-1	1.051112E+0	1.063318E+0	1.039356E+0	1.030836E+0	1.013834E+0	1.060865E+0	1.036812E+0	1.066471E+0	1.009372E+0	1.051688E+0	1.016571E+0	1.050933E+0	1.018546E+0	1.067649E+0	1.022420E+0	1.011663E+0	1.012126E+0	1.030861E+0	9.965109E-1	1.079665E+0	1.035206E+0	1.063089E+0	1.093768E+0	1.051261E+0	1.055302E+0	1.005828E+0	1.015279E+0	1.054778E+0	1.037682E+0	1.049096E+0	1.064585E+0	9.846636E-1	9.765113E-1	1.024833E+0	1.030235E+0	1.073802E+0	1.020247E+0	9.949523E-1	1.008139E+0	1.079709E+0	9.933694E-1	1.061670E+0	1.063046E+0	1.055612E+0	1.031126E+0	1.060698E+0	1.053801E+0	1.037625E+0	1.066520E+0	1.025322E+0	9.908394E-1	1.005905E+0	9.994353E-1	1.001613E+0	1.062434E+0	1.030793E+0	1.053678E+0	1.034011E+0	1.057733E+0	1.050463E+0	1.104476E+0	1.039497E+0	1.050170E+0	1.024432E+0	1.052632E+0	1.026506E+0	1.077273E+0	1.068395E+0	1.025435E+0	1.027714E+0	1.034638E+0	1.064792E+0	1.063461E+0	9.870996E-1	1.066184E+0	1.064404E+0	1.022739E+0	1.005747E+0	1.059859E+0	1.015758E+0	1.052457E+0	1.048911E+0	1.024169E+0	1.084707E+0	1.027362E+0	1.046432E+0	1.034564E+0	1.046051E+0	1.025449E+0	1.039122E+0	1.054496E+0	1.015941E+0	1.064236E+0	1.012201E+0	1.014876E+0	9.933492E-1	1.038917E+0	9.825304E-1	9.899013E-1	1.048576E+0	1.060009E+0	1.000180E+0	1.064596E+0	1.009432E+0	1.064319E+0	1.051744E+0	1.048371E+0	9.943880E-1	1.003984E+0	1.034708E+0	1.016479E+0	1.029431E+0	1.049667E+0	1.039957E+0	1.053577E+0	1.068891E+0	1.069831E+0	1.032088E+0	1.025460E+0	1.012514E+0	1.054659E+0	1.033096E+0	1.046967E+0	1.001595E+0	1.042159E+0	1.004732E+0	1.029563E+0	1.083950E+0	1.028127E+0	1.046548E+0	9.884656E-1	1.021188E+0	1.075487E+0	1.076745E+0	1.009107E+0	1.039929E+0	1.040034E+0	1.041846E+0	1.028057E+0	1.034827E+0	1.061023E+0	1.049704E+0	9.956607E-1	9.946762E-1	1.019258E+0
5.422730E+2	9.482287E-1	9.494653E-1	9.286583E-1	9.393583E-1	9.179591E-1	9.875719E-1	9.487218E-1	9.309727E-1	9.443487E-1	9.269614E-1	9.455051E-1	9.024949E-1	9.485175E-1	9.085111E-1	9.392590E-1	9.613902E-1	9.579057E-1	9.504635E-1	8.935154E-1	9.251537E-1	9.710994E-1	9.499867E-1	9.156892E-1	9.728976E-1	9.680662E-1	9.674478E-1	9.574393E-1	9.640557E-1	9.115075E-1	9.493945E-1	9.149950E-1	9.663145E-1	9.648602E-1	9.855509E-1	9.760754E-1	9.269123E-1	9.482550E-1	9.640541E-1	9.403119E-1	9.446539E-1	9.528595E-1	9.451034E-1	9.239536E-1	9.934627E-1	9.143130E-1	9.518580E-1	9.358547E-1	9.244210E-1	9.328058E-1	9.273285E-1	9.975159E-1	9.137098E-1	9.437369E-1	9.463905E-1	9.242114E-1	9.495577E-1	9.376574E-1	8.754684E-1	9.187863E-1	9.391849E-1	9.636054E-1	9.653759E-1	9.598243E-1	9.185571E-1	9.762303E-1	9.543913E-1	9.403660E-1	9.482891E-1	9.585524E-1	9.606585E-1	9.429171E-1	9.616704E-1	9.390445E-1	9.387194E-1	8.981758E-1	9.701759E-1	9.529014E-1	9.685390E-1	9.708257E-1	9.099822E-1	9.937027E-1	9.443193E-1	9.579310E-1	9.552031E-1	9.284618E-1	9.459454E-1	9.485306E-1	9.362526E-1	1.003965E+0	9.434682E-1	9.379044E-1	9.397448E-1	9.285990E-1	9.990229E-1	9.560771E-1	9.001435E-1	8.962459E-1	9.626775E-1	9.299915E-1	9.501808E-1	9.964947E-1	9.437716E-1	9.067943E-1	9.206596E-1	9.142796E-1	9.475482E-1	9.517770E-1	9.381428E-1	9.084420E-1	9.412622E-1	9.315317E-1	9.497024E-1	9.342850E-1	8.975107E-1	8.903455E-1	9.289443E-1	9.298623E-1	9.369605E-1	9.363710E-1	9.623426E-1	9.252061E-1	9.446520E-1	9.268546E-1	9.545139E-1	9.642748E-1	9.382030E-1	9.169035E-1	9.422856E-1	9.663935E-1	9.589935E-1	9.593309E-1	9.378595E-1	9.423419E-1	9.384676E-1	9.642562E-1	9.420829E-1	9.638207E-1	9.257058E-1	9.391256E-1	9.830317E-1	9.193824E-1	9.570097E-1	9.344440E-1	9.359335E-1	9.457151E-1	9.763286E-1	9.873061E-1	8.851955E-1	9.665585E-1	9.599824E-1	9.145404E-1	9.515742E-1	9.375534E-1	9.381647E-1	9.242039E-1	9.419583E-1	9.191251E-1	9.334415E-1	9.810132E-1	9.670793E-1	9.327689E-1	9.608407E-1	9.430830E-1	9.776449E-1	9.417305E-1	9.336808E-1	9.521563E-1	9.668192E-1	8.955904E-1	9.439319E-1	8.499579E-1
5.425190E+2	9.687150E-1	9.307165E-1	9.302731E-1	9.029761E-1	9.236925E-1	9.146611E-1	9.879226E-1	8.927507E-1	9.208916E-1	9.375983E-1	8.882747E-1	9.560657E-1	9.441296E-1	9.070888E-1	9.420707E-1	9.261443E-1	9.773137E-1	9.310692E-1	9.069706E-1	9.495924E-1	9.623507E-1	9.499989E-1	9.258658E-1	9.369523E-1	9.700656E-1	9.105393E-1	9.368131E-1	9.592666E-1	9.538758E-1	9.130990E-1	9.433971E-1	9.039325E-1	9.532170E-1	9.804999E-1	9.234395E-1	9.280676E-1	9.416813E-1	8.975788E-1	9.318803E-1	8.839911E-1	9.491497E-1	9.118614E-1	9.031681E-1	8.992406E-1	9.296888E-1	9.357383E-1	9.299051E-1	9.521747E-1	9.789393E-1	9.776042E-1	9.304553E-1	9.575770E-1	9.629969E-1	9.928983E-1	9.490847E-1	9.278726E-1	9.289364E-1	9.041671E-1	9.315291E-1	9.027756E-1	9.199484E-1	9.270248E-1	9.386277E-1	8.976828E-1	9.377746E-1	9.513514E-1	9.262228E-1	9.388933E-1	9.406879E-1	9.949588E-1	9.466856E-1	9.368453E-1	9.204915E-1	9.229270E-1	9.460213E-1	9.394345E-1	9.067568E-1	9.466783E-1	9.362667E-1	8.977334E-1	9.264587E-1	9.385372E-1	8.990132E-1	8.948954E-1	9.459502E-1	9.282195E-1	9.446406E-1	9.185829E-1	9.396708E-1	9.464182E-1	9.237731E-1	9.095833E-1	9.154554E-1	9.301825E-1	9.530961E-1	9.380007E-1	9.600313E-1	9.527609E-1	8.815562E-1	9.166336E-1	9.485968E-1	9.370957E-1	8.613290E-1	9.105522E-1	9.660332E-1	9.344910E-1	9.274767E-1	9.334479E-1	9.547061E-1	9.381898E-1	9.090400E-1	9.162586E-1	8.907128E-1	9.008387E-1	9.560294E-1	9.040214E-1	9.636637E-1	9.417553E-1	9.799303E-1	9.283100E-1	9.166346E-1	9.398792E-1	8.938397E-1	9.598152E-1	9.367637E-1	9.423863E-1	9.492427E-1	8.936316E-1	9.450009E-1	9.520765E-1	9.510085E-1	9.317442E-1	9.691874E-1	9.679974E-1	9.596250E-1	8.983764E-1	9.542888E-1	9.061631E-1	9.451606E-1	9.162162E-1	9.320686E-1	9.240802E-1	9.329538E-1	9.256401E-1	8.948574E-1	9.442678E-1	9.531860E-1	9.392519E-1	9.816566E-1	9.115744E-1	9.378550E-1	9.490632E-1	8.864012E-1	9.447278E-1	9.231486E-1	9.328425E-1	9.543672E-1	8.971294E-1	9.534910E-1	9.351887E-1	9.219179E-1	9.365638E-1	9.905239E-1	9.684323E-1	9.449160E-1	9.608654E-1	9.666452E-1	9.650186E-1	9.152394E-1	9.945397E-1	1.015475E+0
5.427650E+2	1.003882E+0	9.879038E-1	9.645026E-1	1.003814E+0	1.006244E+0	9.760594E-1	9.849334E-1	1.003922E+0	9.977108E-1	9.652420E-1	9.708539E-1	9.642549E-1	9.678399E-1	9.681862E-1	9.687649E-1	1.009961E+0	9.926689E-1	9.802825E-1	9.771645E-1	9.994454E-1	1.001177E+0	1.017966E+0	9.925239E-1	1.003800E+0	9.967368E-1	9.658768E-1	9.747594E-1	9.838014E-1	9.831969E-1	9.436642E-1	9.938647E-1	9.433104E-1	9.401143E-1	9.631261E-1	9.963528E-1	9.601826E-1	9.965140E-1	9.678478E-1	9.555914E-1	9.735458E-1	9.994096E-1	9.675502E-1	9.841553E-1	9.704438E-1	9.590722E-1	1.001261E+0	1.003711E+0	9.916188E-1	9.754318E-1	9.384040E-1	9.761007E-1	9.823565E-1	9.839460E-1	9.797826E-1	1.027833E+0	9.711342E-1	1.013016E+0	9.516962E-1	9.957819E-1	9.796119E-1	9.669846E-1	9.769271E-1	9.667724E-1	9.580486E-1	9.685429E-1	9.516059E-1	9.936383E-1	9.906559E-1	9.811461E-1	9.826302E-1	9.631327E-1	9.859232E-1	9.534753E-1	9.806274E-1	9.514202E-1	9.582155E-1	9.984309E-1	9.333136E-1	9.639480E-1	9.639088E-1	9.916941E-1	9.810856E-1	9.748399E-1	9.574552E-1	9.730572E-1	9.761741E-1	9.789902E-1	9.857064E-1	9.830147E-1	1.005593E+0	9.793786E-1	9.653196E-1	1.027603E+0	9.824887E-1	9.766158E-1	9.767277E-1	9.820479E-1	9.843200E-1	1.029806E+0	9.772689E-1	1.011333E+0	1.013360E+0	9.826804E-1	9.953610E-1	1.015062E+0	9.305830E-1	9.769030E-1	1.001069E+0	9.900544E-1	9.773776E-1	9.925596E-1	9.687477E-1	9.917218E-1	9.973197E-1	9.847768E-1	9.525841E-1	9.329046E-1	9.839491E-1	9.744352E-1	9.842807E-1	9.577976E-1	9.673530E-1	9.748784E-1	9.887338E-1	1.002246E+0	9.864107E-1	9.859626E-1	9.673379E-1	9.949934E-1	9.364095E-1	1.020895E+0	9.736193E-1	9.920996E-1	9.664132E-1	9.802522E-1	9.850291E-1	9.796310E-1	9.496787E-1	9.598440E-1	9.763852E-1	9.216250E-1	9.700004E-1	9.971143E-1	9.409852E-1	9.936599E-1	1.012400E+0	1.028064E+0	9.404010E-1	1.037307E+0	9.848961E-1	1.026817E+0	9.946468E-1	9.679636E-1	1.023264E+0	9.529835E-1	9.705579E-1	9.522488E-1	9.409062E-1	9.471785E-1	9.939962E-1	9.616082E-1	9.582886E-1	9.526009E-1	9.805713E-1	9.818503E-1	1.007088E+0	9.728167E-1	1.013119E+0	9.540850E-1	9.811456E-1	9.555948E-1
5.430070E+2	1.103315E+0	1.066276E+0	1.066976E+0	1.074753E+0	1.107542E+0	1.050429E+0	1.097399E+0	1.127965E+0	1.102461E+0	1.052053E+0	1.101101E+0	1.091251E+0	1.113076E+0	1.115887E+0	1.074051E+0	1.142066E+0	1.125068E+0	1.116493E+0	1.085556E+0	1.097164E+0	1.085788E+0	1.072551E+0	1.086360E+0	1.054986E+0	1.109329E+0	1.065781E+0	1.091285E+0	1.038933E+0	1.124143E+0	1.083937E+0	1.100969E+0	1.092596E+0	1.089489E+0	1.099436E+0	1.102181E+0	1.113193E+0	1.095152E+0	1.065740E+0	1.080279E+0	1.103005E+0	1.089025E+0	1.071904E+0	1.118490E+0	1.090065E+0	1.056821E+0	1.159864E+0	1.065328E+0	1.089454E+0	1.145180E+0	1.097794E+0	1.098450E+0	1.067179E+0	1.060249E+0	1.119738E+0	1.084364E+0	1.109387E+0	1.082320E+0	1.135862E+0	1.065746E+0	1.069091E+0	1.069479E+0	1.108452E+0	1.097825E+0	1.065611E+0	1.100981E+0	1.084005E+0	1.097245E+0	1.081398E+0	1.136329E+0	1.127547E+0	1.088608E+0	1.108148E+0	1.096352E+0	1.074310E+0	1.072291E+0	1.099558E+0	1.081070E+0	1.069428E+0	1.096084E+0	1.085680E+0	1.083287E+0	1.083590E+0	1.080036E+0	1.114082E+0	1.117919E+0	1.141427E+0	1.089614E+0	1.082564E+0	1.052698E+0	1.099245E+0	1.128249E+0	1.129410E+0	1.070923E+0	1.086291E+0	1.095105E+0	1.041450E+0	1.078232E+0	1.088258E+0	1.109151E+0	1.065925E+0	1.097408E+0	1.103264E+0	1.053894E+0	1.102815E+0	1.109466E+0	1.089342E+0	1.113301E+0	1.051490E+0	1.076181E+0	1.114644E+0	1.096282E+0	1.082295E+0	1.135189E+0	1.091812E+0	1.085928E+0	1.030354E+0	1.077460E+0	1.063846E+0	1.146780E+0	1.132538E+0	1.076007E+0	1.089500E+0	1.102539E+0	1.069708E+0	1.086105E+0	1.077503E+0	1.128060E+0	1.074325E+0	1.122641E+0	1.055511E+0	1.082971E+0	1.105497E+0	1.087759E+0	1.047725E+0	1.104024E+0	1.022044E+0	1.084890E+0	1.102264E+0	1.094908E+0	1.072511E+0	1.071745E+0	1.099522E+0	1.070658E+0	1.049328E+0	1.092680E+0	1.036991E+0	1.107024E+0	1.045267E+0	1.097249E+0	1.082362E+0	1.092302E+0	1.092781E+0	1.094431E+0	1.106734E+0	1.143581E+0	1.073485E+0	1.033175E+0	1.098216E+0	1.082622E+0	1.087532E+0	1.073346E+0	1.061576E+0	1.124117E+0	1.088375E+0	1.083564E+0	1.099614E+0	1.092538E+0	1.091731E+0	1.062682E+0	1.125915E+0	1.084212E+0
5.432960E+2	1.272368E+0	1.276645E+0	1.246818E+0	1.236540E+0	1.246585E+0	1.228340E+0	1.232126E+0	1.279789E+0	1.294855E+0	1.261501E+0	1.218430E+0	1.260905E+0	1.239512E+0	1.211113E+0	1.275729E+0	1.278824E+0	1.253943E+0	1.293483E+0	1.190062E+0	1.291678E+0	1.236961E+0	1.273912E+0	1.225767E+0	1.252233E+0	1.285990E+0	1.312481E+0	1.245562E+0	1.204800E+0	1.268586E+0	1.202856E+0	1.264292E+0	1.204539E+0	1.272302E+0	1.244195E+0	1.249370E+0	1.238598E+0	1.317625E+0	1.277208E+0	1.232785E+0	1.240642E+0	1.250110E+0	1.268075E+0	1.252089E+0	1.242387E+0	1.256011E+0	1.247671E+0	1.269490E+0	1.217072E+0	1.296943E+0	1.251618E+0	1.258347E+0	1.220475E+0	1.230556E+0	1.259628E+0	1.202691E+0	1.249321E+0	1.270853E+0	1.260352E+0	1.235340E+0	1.211782E+0	1.220988E+0	1.249744E+0	1.211237E+0	1.206528E+0	1.246413E+0	1.250211E+0	1.231965E+0	1.259581E+0	1.243962E+0	1.257652E+0	1.197483E+0	1.255189E+0	1.216468E+0	1.219400E+0	1.191295E+0	1.277420E+0	1.212441E+0	1.241824E+0	1.246840E+0	1.284542E+0	1.279009E+0	1.254163E+0	1.223391E+0	1.258491E+0	1.209734E+0	1.240450E+0	1.232242E+0	1.265264E+0	1.297205E+0	1.211484E+0	1.270363E+0	1.258981E+0	1.208596E+0	1.269024E+0	1.228126E+0	1.235764E+0	1.225199E+0	1.201854E+0	1.242312E+0	1.178043E+0	1.217730E+0	1.193040E+0	1.226728E+0	1.218092E+0	1.254798E+0	1.231138E+0	1.213196E+0	1.224592E+0	1.241797E+0	1.285570E+0	1.303129E+0	1.202059E+0	1.298425E+0	1.233329E+0	1.222826E+0	1.174001E+0	1.245390E+0	1.210825E+0	1.276040E+0	1.196927E+0	1.198462E+0	1.232088E+0	1.234765E+0	1.222742E+0	1.240143E+0	1.191311E+0	1.254068E+0	1.225879E+0	1.255758E+0	1.228571E+0	1.224275E+0	1.233325E+0	1.257652E+0	1.236414E+0	1.205460E+0	1.238713E+0	1.264779E+0	1.198557E+0	1.231697E+0	1.267858E+0	1.217544E+0	1.257858E+0	1.254462E+0	1.222190E+0	1.241319E+0	1.215898E+0	1.262774E+0	1.238603E+0	1.305026E+0	1.209831E+0	1.251273E+0	1.238299E+0	1.257638E+0	1.227585E+0	1.226488E+0	1.202330E+0	1.262360E+0	1.194199E+0	1.225407E+0	1.232147E+0	1.257324E+0	1.252241E+0	1.228238E+0	1.291665E+0	1.216485E+0	1.212135E+0	1.296909E+0	1.256427E+0	1.280374E+0	1.238655E+0	1.230057E+0
5.435330E+2	1.375857E+0	1.435705E+0	1.423690E+0	1.444978E+0	1.423955E+0	1.427014E+0	1.412432E+0	1.368255E+0	1.402752E+0	1.439795E+0	1.413204E+0	1.438575E+0	1.434731E+0	1.396661E+0	1.391411E+0	1.429701E+0	1.418824E+0	1.421101E+0	1.381638E+0	1.404017E+0	1.452730E+0	1.388427E+0	1.433161E+0	1.390980E+0	1.450709E+0	1.397454E+0	1.438887E+0	1.430575E+0	1.357826E+0	1.360199E+0	1.369319E+0	1.404539E+0	1.444967E+0	1.470652E+0	1.333863E+0	1.439902E+0	1.407078E+0	1.374918E+0	1.397744E+0	1.420906E+0	1.385363E+0	1.378470E+0	1.402142E+0	1.438910E+0	1.373786E+0	1.429733E+0	1.380049E+0	1.363217E+0	1.442740E+0	1.409928E+0	1.413410E+0	1.402813E+0	1.378684E+0	1.439092E+0	1.362234E+0	1.417438E+0	1.392757E+0	1.393531E+0	1.376912E+0	1.387070E+0	1.434867E+0	1.397414E+0	1.395374E+0	1.341344E+0	1.402165E+0	1.443681E+0	1.350474E+0	1.377217E+0	1.427935E+0	1.418242E+0	1.420822E+0	1.403406E+0	1.425919E+0	1.374529E+0	1.337699E+0	1.413949E+0	1.387346E+0	1.366938E+0	1.382667E+0	1.410063E+0	1.389405E+0	1.418980E+0	1.372988E+0	1.385071E+0	1.357043E+0	1.395084E+0	1.399184E+0	1.373442E+0	1.442248E+0	1.375563E+0	1.337624E+0	1.360788E+0	1.356713E+0	1.412428E+0	1.406025E+0	1.382367E+0	1.388401E+0	1.377497E+0	1.436832E+0	1.423714E+0	1.454155E+0	1.408027E+0	1.394533E+0	1.380485E+0	1.403878E+0	1.395227E+0	1.366345E+0	1.364324E+0	1.379160E+0	1.383230E+0	1.410950E+0	1.404399E+0	1.430244E+0	1.373938E+0	1.351891E+0	1.346402E+0	1.431922E+0	1.341382E+0	1.396815E+0	1.417468E+0	1.380062E+0	1.377707E+0	1.418959E+0	1.404848E+0	1.379479E+0	1.356235E+0	1.361635E+0	1.369317E+0	1.365064E+0	1.346977E+0	1.383088E+0	1.386895E+0	1.423483E+0	1.442143E+0	1.417886E+0	1.369286E+0	1.340847E+0	1.389433E+0	1.425688E+0	1.330274E+0	1.399184E+0	1.423933E+0	1.366526E+0	1.386234E+0	1.418038E+0	1.394857E+0	1.426227E+0	1.398525E+0	1.400215E+0	1.341366E+0	1.375518E+0	1.379050E+0	1.365759E+0	1.439969E+0	1.399615E+0	1.363345E+0	1.378580E+0	1.325704E+0	1.340852E+0	1.369132E+0	1.434818E+0	1.384263E+0	1.359274E+0	1.357636E+0	1.379466E+0	1.377441E+0	1.409205E+0	1.351811E+0	1.346842E+0	1.398047E+0	1.430112E+0
5.437640E+2	1.499471E+0	1.485297E+0	1.562007E+0	1.532753E+0	1.506161E+0	1.496655E+0	1.635804E+0	1.500150E+0	1.516573E+0	1.452705E+0	1.462843E+0	1.505257E+0	1.550852E+0	1.507454E+0	1.457587E+0	1.541670E+0	1.485276E+0	1.542387E+0	1.481129E+0	1.541531E+0	1.533542E+0	1.541871E+0	1.553193E+0	1.539736E+0	1.512138E+0	1.532683E+0	1.528367E+0	1.537600E+0	1.530605E+0	1.535558E+0	1.548938E+0	1.481272E+0	1.559730E+0	1.553590E+0	1.532442E+0	1.538615E+0	1.469628E+0	1.533566E+0	1.511379E+0	1.501439E+0	1.520294E+0	1.541428E+0	1.533807E+0	1.443440E+0	1.528722E+0	1.539567E+0	1.550892E+0	1.494127E+0	1.500266E+0	1.511275E+0	1.538554E+0	1.486879E+0	1.510589E+0	1.540471E+0	1.530147E+0	1.525590E+0	1.513296E+0	1.503364E+0	1.551577E+0	1.426801E+0	1.479322E+0	1.503553E+0	1.531688E+0	1.476033E+0	1.479603E+0	1.507137E+0	1.488728E+0	1.479027E+0	1.443890E+0	1.559094E+0	1.475699E+0	1.476645E+0	1.511605E+0	1.485966E+0	1.482101E+0	1.507472E+0	1.457668E+0	1.510190E+0	1.520790E+0	1.538942E+0	1.479819E+0	1.511280E+0	1.454032E+0	1.483489E+0	1.512711E+0	1.546582E+0	1.531713E+0	1.547374E+0	1.487648E+0	1.476752E+0	1.516440E+0	1.492099E+0	1.514390E+0	1.595222E+0	1.492490E+0	1.501690E+0	1.490700E+0	1.442384E+0	1.540680E+0	1.469256E+0	1.476451E+0	1.503042E+0	1.438182E+0	1.507943E+0	1.482407E+0	1.493770E+0	1.512827E+0	1.496121E+0	1.503200E+0	1.498329E+0	1.534112E+0	1.494688E+0	1.483700E+0	1.502124E+0	1.486394E+0	1.419046E+0	1.550201E+0	1.463770E+0	1.481154E+0	1.500839E+0	1.482162E+0	1.464469E+0	1.463708E+0	1.541944E+0	1.570119E+0	1.508996E+0	1.506745E+0	1.499841E+0	1.453593E+0	1.475314E+0	1.492657E+0	1.413217E+0	1.475365E+0	1.456637E+0	1.545729E+0	1.522599E+0	1.505014E+0	1.474799E+0	1.511190E+0	1.450570E+0	1.471238E+0	1.529173E+0	1.490666E+0	1.433818E+0	1.500885E+0	1.525341E+0	1.478777E+0	1.502021E+0	1.515690E+0	1.466832E+0	1.520083E+0	1.417591E+0	1.488646E+0	1.479415E+0	1.504845E+0	1.434290E+0	1.493366E+0	1.438472E+0	1.502955E+0	1.486451E+0	1.510995E+0	1.530652E+0	1.469084E+0	1.473087E+0	1.516734E+0	1.557128E+0	1.519732E+0	1.511966E+0	1.482888E+0	1.561311E+0	1.499437E+0
5.440120E+2	1.608356E+0	1.557455E+0	1.617000E+0	1.604107E+0	1.574709E+0	1.636303E+0	1.617420E+0	1.603829E+0	1.547421E+0	1.533884E+0	1.619126E+0	1.592074E+0	1.592638E+0	1.548353E+0	1.563101E+0	1.613992E+0	1.607240E+0	1.625446E+0	1.629034E+0	1.638399E+0	1.616102E+0	1.578567E+0	1.638844E+0	1.622312E+0	1.524825E+0	1.557723E+0	1.563476E+0	1.604856E+0	1.588790E+0	1.521384E+0	1.594733E+0	1.535278E+0	1.523477E+0	1.579420E+0	1.560780E+0	1.579955E+0	1.579439E+0	1.607666E+0	1.558101E+0	1.633206E+0	1.585877E+0	1.577286E+0	1.577999E+0	1.571166E+0	1.590458E+0	1.549657E+0	1.591292E+0	1.529794E+0	1.568262E+0	1.592565E+0	1.588031E+0	1.546717E+0	1.526127E+0	1.668975E+0	1.562112E+0	1.579683E+0	1.597187E+0	1.583513E+0	1.550334E+0	1.577012E+0	1.537038E+0	1.594879E+0	1.589396E+0	1.560899E+0	1.607795E+0	1.602875E+0	1.571842E+0	1.562561E+0	1.589947E+0	1.585790E+0	1.546191E+0	1.540291E+0	1.566569E+0	1.596485E+0	1.525331E+0	1.637244E+0	1.566027E+0	1.568532E+0	1.576459E+0	1.554646E+0	1.560996E+0	1.556898E+0	1.569769E+0	1.558847E+0	1.624824E+0	1.602401E+0	1.583056E+0	1.637477E+0	1.611367E+0	1.543871E+0	1.561429E+0	1.591905E+0	1.620818E+0	1.586788E+0	1.504009E+0	1.551277E+0	1.580970E+0	1.523443E+0	1.609609E+0	1.575996E+0	1.634703E+0	1.555430E+0	1.553224E+0	1.567560E+0	1.549906E+0	1.531057E+0	1.499829E+0	1.545461E+0	1.544784E+0	1.570038E+0	1.604316E+0	1.583596E+0	1.583805E+0	1.520753E+0	1.532850E+0	1.532779E+0	1.583931E+0	1.539125E+0	1.553375E+0	1.562448E+0	1.535224E+0	1.545260E+0	1.553058E+0	1.578570E+0	1.615236E+0	1.568423E+0	1.547986E+0	1.522405E+0	1.496975E+0	1.533370E+0	1.546367E+0	1.540697E+0	1.627018E+0	1.531202E+0	1.583711E+0	1.589983E+0	1.559013E+0	1.541066E+0	1.567068E+0	1.540493E+0	1.546927E+0	1.558000E+0	1.526618E+0	1.522337E+0	1.551187E+0	1.571500E+0	1.566433E+0	1.562081E+0	1.564725E+0	1.580521E+0	1.566878E+0	1.562848E+0	1.530315E+0	1.522028E+0	1.573803E+0	1.499954E+0	1.581818E+0	1.589415E+0	1.513029E+0	1.543821E+0	1.605284E+0	1.599211E+0	1.553788E+0	1.569195E+0	1.567700E+0	1.560729E+0	1.587152E+0	1.549007E+0	1.476538E+0	1.526450E+0	1.524160E+0
5.442650E+2	1.575953E+0	1.580349E+0	1.632188E+0	1.583143E+0	1.580258E+0	1.623724E+0	1.598641E+0	1.588257E+0	1.532171E+0	1.573074E+0	1.557229E+0	1.597767E+0	1.564137E+0	1.521699E+0	1.571862E+0	1.576172E+0	1.540412E+0	1.577723E+0	1.588115E+0	1.542856E+0	1.559938E+0	1.565252E+0	1.571930E+0	1.553672E+0	1.607314E+0	1.542953E+0	1.618774E+0	1.590666E+0	1.542780E+0	1.538846E+0	1.525623E+0	1.544988E+0	1.523866E+0	1.592956E+0	1.595958E+0	1.497991E+0	1.547408E+0	1.522521E+0	1.561312E+0	1.552226E+0	1.453208E+0	1.565281E+0	1.647237E+0	1.538811E+0	1.544409E+0	1.592553E+0	1.589960E+0	1.567182E+0	1.573073E+0	1.600075E+0	1.552145E+0	1.538461E+0	1.509598E+0	1.614630E+0	1.554165E+0	1.490823E+0	1.554659E+0	1.554747E+0	1.585176E+0	1.566636E+0	1.511488E+0	1.562583E+0	1.569290E+0	1.597496E+0	1.487530E+0	1.582216E+0	1.553495E+0	1.590477E+0	1.526735E+0	1.551026E+0	1.567958E+0	1.620693E+0	1.532933E+0	1.562157E+0	1.535085E+0	1.589269E+0	1.517594E+0	1.524418E+0	1.605103E+0	1.576177E+0	1.560511E+0	1.517661E+0	1.591028E+0	1.566891E+0	1.526472E+0	1.600875E+0	1.543387E+0	1.516084E+0	1.591164E+0	1.558183E+0	1.550849E+0	1.579098E+0	1.519888E+0	1.523269E+0	1.476564E+0	1.491223E+0	1.471525E+0	1.588359E+0	1.548450E+0	1.531801E+0	1.553602E+0	1.612014E+0	1.489234E+0	1.497254E+0	1.537441E+0	1.547223E+0	1.516157E+0	1.520715E+0	1.515531E+0	1.565020E+0	1.620715E+0	1.522186E+0	1.571530E+0	1.588571E+0	1.492852E+0	1.541897E+0	1.512912E+0	1.542637E+0	1.514763E+0	1.538948E+0	1.493593E+0	1.505250E+0	1.466791E+0	1.536808E+0	1.522330E+0	1.525796E+0	1.521706E+0	1.480982E+0	1.548962E+0	1.521950E+0	1.581077E+0	1.544655E+0	1.544688E+0	1.561178E+0	1.592420E+0	1.548127E+0	1.505396E+0	1.559523E+0	1.555800E+0	1.550489E+0	1.531154E+0	1.521920E+0	1.539874E+0	1.502947E+0	1.546392E+0	1.495822E+0	1.561262E+0	1.509450E+0	1.537612E+0	1.535509E+0	1.577130E+0	1.513293E+0	1.585945E+0	1.538081E+0	1.466125E+0	1.502361E+0	1.507576E+0	1.479533E+0	1.520083E+0	1.581216E+0	1.528889E+0	1.553184E+0	1.554837E+0	1.560460E+0	1.517054E+0	1.575821E+0	1.539289E+0	1.549476E+0	1.468602E+0	1.551017E+0	1.528827E+0
5.445290E+2	1.517702E+0	1.479060E+0	1.530362E+0	1.574140E+0	1.494442E+0	1.586809E+0	1.485316E+0	1.537183E+0	1.431345E+0	1.510181E+0	1.478865E+0	1.503750E+0	1.470115E+0	1.500991E+0	1.457784E+0	1.571154E+0	1.532146E+0	1.516185E+0	1.514598E+0	1.477858E+0	1.460017E+0	1.557886E+0	1.565417E+0	1.504349E+0	1.490443E+0	1.482360E+0	1.471849E+0	1.467521E+0	1.511662E+0	1.480372E+0	1.477603E+0	1.474211E+0	1.510163E+0	1.519388E+0	1.492323E+0	1.494466E+0	1.458730E+0	1.545323E+0	1.507097E+0	1.528021E+0	1.484037E+0	1.513267E+0	1.511948E+0	1.494442E+0	1.497876E+0	1.577869E+0	1.542958E+0	1.546424E+0	1.482372E+0	1.532263E+0	1.496383E+0	1.544090E+0	1.444034E+0	1.584104E+0	1.494017E+0	1.506228E+0	1.470853E+0	1.491026E+0	1.559463E+0	1.444242E+0	1.456992E+0	1.535541E+0	1.517765E+0	1.498457E+0	1.477662E+0	1.502752E+0	1.514780E+0	1.472658E+0	1.499082E+0	1.501214E+0	1.465590E+0	1.521612E+0	1.461343E+0	1.422244E+0	1.530233E+0	1.513757E+0	1.487539E+0	1.509121E+0	1.446028E+0	1.517054E+0	1.499443E+0	1.482106E+0	1.501375E+0	1.502920E+0	1.498615E+0	1.513916E+0	1.534866E+0	1.477537E+0	1.550483E+0	1.496701E+0	1.494910E+0	1.467984E+0	1.466794E+0	1.520584E+0	1.483864E+0	1.524768E+0	1.505179E+0	1.497663E+0	1.461544E+0	1.483181E+0	1.525347E+0	1.510262E+0	1.436702E+0	1.450537E+0	1.512429E+0	1.451544E+0	1.555474E+0	1.474873E+0	1.448284E+0	1.459697E+0	1.485366E+0	1.472107E+0	1.478530E+0	1.565077E+0	1.527186E+0	1.453374E+0	1.504758E+0	1.501331E+0	1.505905E+0	1.496919E+0	1.448471E+0	1.502242E+0	1.537720E+0	1.495798E+0	1.463352E+0	1.480701E+0	1.475407E+0	1.501624E+0	1.484832E+0	1.468949E+0	1.523895E+0	1.502505E+0	1.468343E+0	1.516761E+0	1.542816E+0	1.516349E+0	1.466298E+0	1.510207E+0	1.507040E+0	1.503576E+0	1.423452E+0	1.449945E+0	1.506908E+0	1.440563E+0	1.498976E+0	1.509036E+0	1.492330E+0	1.394039E+0	1.518864E+0	1.473474E+0	1.530034E+0	1.532918E+0	1.453142E+0	1.511551E+0	1.468073E+0	1.510167E+0	1.491081E+0	1.436309E+0	1.484338E+0	1.526920E+0	1.503242E+0	1.508724E+0	1.429664E+0	1.492478E+0	1.476674E+0	1.529671E+0	1.499939E+0	1.466695E+0	1.437933E+0	1.543419E+0	1.545255E+0
5.447720E+2	1.441226E+0	1.457956E+0	1.442155E+0	1.454979E+0	1.408896E+0	1.461088E+0	1.486863E+0	1.428162E+0	1.419379E+0	1.465712E+0	1.411887E+0	1.478833E+0	1.459262E+0	1.436035E+0	1.432293E+0	1.511190E+0	1.498359E+0	1.505414E+0	1.428430E+0	1.462694E+0	1.409709E+0	1.445484E+0	1.490021E+0	1.464844E+0	1.451540E+0	1.406354E+0	1.395811E+0	1.504971E+0	1.412252E+0	1.412486E+0	1.452683E+0	1.466851E+0	1.404186E+0	1.479113E+0	1.495796E+0	1.440371E+0	1.391551E+0	1.497537E+0	1.461424E+0	1.470140E+0	1.432083E+0	1.457282E+0	1.437830E+0	1.442534E+0	1.416460E+0	1.474427E+0	1.391640E+0	1.435639E+0	1.434516E+0	1.448625E+0	1.482573E+0	1.472629E+0	1.402557E+0	1.477370E+0	1.419730E+0	1.461410E+0	1.442450E+0	1.461537E+0	1.425522E+0	1.442714E+0	1.439311E+0	1.441184E+0	1.448819E+0	1.480050E+0	1.419806E+0	1.452132E+0	1.452739E+0	1.469469E+0	1.432731E+0	1.464638E+0	1.463398E+0	1.422416E+0	1.423236E+0	1.423893E+0	1.424395E+0	1.499787E+0	1.374818E+0	1.392932E+0	1.471961E+0	1.423541E+0	1.453070E+0	1.439096E+0	1.420688E+0	1.487172E+0	1.366497E+0	1.459558E+0	1.468253E+0	1.485964E+0	1.423897E+0	1.386018E+0	1.450516E+0	1.411154E+0	1.416599E+0	1.437287E+0	1.428979E+0	1.435530E+0	1.456971E+0	1.420394E+0	1.477676E+0	1.476586E+0	1.422681E+0	1.437595E+0	1.471251E+0	1.430981E+0	1.428075E+0	1.413322E+0	1.467957E+0	1.465135E+0	1.363503E+0	1.470603E+0	1.483177E+0	1.468446E+0	1.492015E+0	1.450157E+0	1.411667E+0	1.377516E+0	1.460875E+0	1.439344E+0	1.420713E+0	1.429993E+0	1.426729E+0	1.423591E+0	1.453250E+0	1.404552E+0	1.401211E+0	1.385285E+0	1.441226E+0	1.440120E+0	1.438837E+0	1.412575E+0	1.448376E+0	1.382636E+0	1.393113E+0	1.415572E+0	1.383393E+0	1.492043E+0	1.415178E+0	1.434490E+0	1.414141E+0	1.455142E+0	1.430785E+0	1.414048E+0	1.424140E+0	1.394746E+0	1.390074E+0	1.431083E+0	1.414540E+0	1.392043E+0	1.414858E+0	1.391451E+0	1.505272E+0	1.408733E+0	1.405054E+0	1.486590E+0	1.453336E+0	1.400586E+0	1.375738E+0	1.399393E+0	1.432073E+0	1.468793E+0	1.428994E+0	1.460065E+0	1.401600E+0	1.421571E+0	1.422855E+0	1.464017E+0	1.464818E+0	1.438174E+0	1.423169E+0	1.405488E+0	1.424242E+0
5.450200E+2	1.355141E+0	1.340559E+0	1.408598E+0	1.363415E+0	1.369016E+0	1.358924E+0	1.445101E+0	1.363995E+0	1.388061E+0	1.425878E+0	1.371731E+0	1.336723E+0	1.399142E+0	1.354112E+0	1.345277E+0	1.410541E+0	1.349596E+0	1.427775E+0	1.347574E+0	1.385251E+0	1.391361E+0	1.405958E+0	1.379671E+0	1.407005E+0	1.355585E+0	1.345073E+0	1.390044E+0	1.382964E+0	1.389609E+0	1.344312E+0	1.342021E+0	1.342355E+0	1.395386E+0	1.365043E+0	1.342925E+0	1.329370E+0	1.326148E+0	1.393238E+0	1.360368E+0	1.383046E+0	1.334265E+0	1.400584E+0	1.393578E+0	1.418183E+0	1.339777E+0	1.411777E+0	1.365679E+0	1.378753E+0	1.369799E+0	1.420084E+0	1.426984E+0	1.391946E+0	1.310763E+0	1.397477E+0	1.367357E+0	1.357663E+0	1.341189E+0	1.373824E+0	1.437894E+0	1.397849E+0	1.322488E+0	1.386020E+0	1.385423E+0	1.314201E+0	1.362040E+0	1.361017E+0	1.402072E+0	1.372356E+0	1.345986E+0	1.421530E+0	1.368211E+0	1.345919E+0	1.302927E+0	1.336090E+0	1.304379E+0	1.401099E+0	1.415432E+0	1.341609E+0	1.386681E+0	1.338005E+0	1.392694E+0	1.362823E+0	1.381111E+0	1.340829E+0	1.362444E+0	1.417838E+0	1.403667E+0	1.347310E+0	1.327776E+0	1.407646E+0	1.356169E+0	1.342533E+0	1.374854E+0	1.385164E+0	1.346907E+0	1.368420E+0	1.377413E+0	1.338586E+0	1.436014E+0	1.354571E+0	1.371009E+0	1.396142E+0	1.423225E+0	1.335191E+0	1.404558E+0	1.346388E+0	1.383617E+0	1.341305E+0	1.349914E+0	1.422492E+0	1.409549E+0	1.345575E+0	1.382653E+0	1.411274E+0	1.400021E+0	1.359343E+0	1.371441E+0	1.355384E+0	1.387148E+0	1.337400E+0	1.296401E+0	1.318046E+0	1.302827E+0	1.398368E+0	1.352871E+0	1.309154E+0	1.340693E+0	1.362240E+0	1.371498E+0	1.358478E+0	1.333037E+0	1.344327E+0	1.346048E+0	1.363230E+0	1.431253E+0	1.426347E+0	1.334011E+0	1.377327E+0	1.342875E+0	1.342117E+0	1.377187E+0	1.402210E+0	1.329233E+0	1.329886E+0	1.313388E+0	1.363794E+0	1.366847E+0	1.322348E+0	1.335648E+0	1.397503E+0	1.401365E+0	1.326250E+0	1.348421E+0	1.306595E+0	1.397678E+0	1.330918E+0	1.365149E+0	1.381581E+0	1.352621E+0	1.383120E+0	1.347904E+0	1.396833E+0	1.342794E+0	1.337587E+0	1.339955E+0	1.364636E+0	1.378424E+0	1.385089E+0	1.361666E+0	1.437028E+0	1.398886E+0
5.452690E+2	1.322984E+0	1.318990E+0	1.328723E+0	1.373836E+0	1.260552E+0	1.328254E+0	1.355581E+0	1.312502E+0	1.299247E+0	1.321640E+0	1.313405E+0	1.281502E+0	1.299855E+0	1.297174E+0	1.272509E+0	1.358365E+0	1.329268E+0	1.284841E+0	1.316068E+0	1.289438E+0	1.331758E+0	1.303590E+0	1.302605E+0	1.404149E+0	1.274594E+0	1.290633E+0	1.267456E+0	1.324916E+0	1.309956E+0	1.303004E+0	1.308035E+0	1.237011E+0	1.328921E+0	1.294305E+0	1.304273E+0	1.332209E+0	1.296908E+0	1.322625E+0	1.298255E+0	1.306772E+0	1.332313E+0	1.303111E+0	1.322516E+0	1.300600E+0	1.280724E+0	1.307602E+0	1.262257E+0	1.339744E+0	1.303852E+0	1.298237E+0	1.242613E+0	1.331240E+0	1.293523E+0	1.323788E+0	1.287741E+0	1.344604E+0	1.313015E+0	1.362609E+0	1.330056E+0	1.282966E+0	1.266865E+0	1.353989E+0	1.302810E+0	1.287569E+0	1.285604E+0	1.297775E+0	1.286655E+0	1.291959E+0	1.280920E+0	1.348383E+0	1.333467E+0	1.336728E+0	1.267735E+0	1.306425E+0	1.300701E+0	1.323734E+0	1.263642E+0	1.299336E+0	1.349935E+0	1.287737E+0	1.302260E+0	1.298048E+0	1.336868E+0	1.288872E+0	1.289354E+0	1.301050E+0	1.332252E+0	1.296411E+0	1.331014E+0	1.251344E+0	1.246063E+0	1.303997E+0	1.328433E+0	1.314969E+0	1.265689E+0	1.278061E+0	1.262550E+0	1.350940E+0	1.349891E+0	1.258736E+0	1.292586E+0	1.298952E+0	1.248518E+0	1.245499E+0	1.318111E+0	1.259301E+0	1.306717E+0	1.317242E+0	1.260645E+0	1.341157E+0	1.283890E+0	1.291267E+0	1.304842E+0	1.297091E+0	1.225582E+0	1.250713E+0	1.321926E+0	1.298131E+0	1.292973E+0	1.304907E+0	1.220595E+0	1.303597E+0	1.294151E+0	1.343007E+0	1.285602E+0	1.340169E+0	1.327495E+0	1.235939E+0	1.297059E+0	1.273455E+0	1.307778E+0	1.289631E+0	1.290002E+0	1.324810E+0	1.305211E+0	1.315326E+0	1.302715E+0	1.287039E+0	1.300565E+0	1.245212E+0	1.297929E+0	1.290028E+0	1.236103E+0	1.220607E+0	1.281320E+0	1.314640E+0	1.351958E+0	1.254811E+0	1.311937E+0	1.285509E+0	1.278975E+0	1.326675E+0	1.276094E+0	1.332503E+0	1.291529E+0	1.260166E+0	1.292304E+0	1.322812E+0	1.302660E+0	1.297840E+0	1.303637E+0	1.302045E+0	1.320914E+0	1.292254E+0	1.282165E+0	1.376146E+0	1.336804E+0	1.351221E+0	1.342932E+0	1.300880E+0	1.274780E+0
5.455450E+2	1.239893E+0	1.230974E+0	1.236959E+0	1.217324E+0	1.205531E+0	1.237000E+0	1.253562E+0	1.207500E+0	1.230059E+0	1.236162E+0	1.211524E+0	1.238523E+0	1.195381E+0	1.212532E+0	1.249159E+0	1.234789E+0	1.208238E+0	1.217458E+0	1.229234E+0	1.235323E+0	1.231440E+0	1.189282E+0	1.215689E+0	1.247244E+0	1.291757E+0	1.238773E+0	1.241497E+0	1.208096E+0	1.217338E+0	1.211042E+0	1.210912E+0	1.202696E+0	1.187742E+0	1.287950E+0	1.229491E+0	1.239425E+0	1.209099E+0	1.241670E+0	1.253348E+0	1.253091E+0	1.226473E+0	1.259735E+0	1.166766E+0	1.276488E+0	1.233158E+0	1.254597E+0	1.204062E+0	1.214939E+0	1.219702E+0	1.260481E+0	1.246942E+0	1.224855E+0	1.196187E+0	1.259266E+0	1.232681E+0	1.267053E+0	1.209590E+0	1.249077E+0	1.205033E+0	1.233308E+0	1.267120E+0	1.213253E+0	1.242537E+0	1.215934E+0	1.235850E+0	1.292484E+0	1.210640E+0	1.248730E+0	1.218188E+0	1.251948E+0	1.209580E+0	1.239373E+0	1.218104E+0	1.196429E+0	1.241741E+0	1.186037E+0	1.174502E+0	1.205596E+0	1.218025E+0	1.236230E+0	1.179613E+0	1.239829E+0	1.245733E+0	1.223956E+0	1.179259E+0	1.242284E+0	1.228801E+0	1.235348E+0	1.242310E+0	1.254913E+0	1.180189E+0	1.160210E+0	1.228952E+0	1.248711E+0	1.230596E+0	1.188291E+0	1.201273E+0	1.247254E+0	1.246382E+0	1.245724E+0	1.232269E+0	1.278949E+0	1.232865E+0	1.205313E+0	1.212400E+0	1.246512E+0	1.219126E+0	1.234862E+0	1.203016E+0	1.218458E+0	1.196625E+0	1.181575E+0	1.207435E+0	1.245395E+0	1.201651E+0	1.183140E+0	1.218471E+0	1.214209E+0	1.251974E+0	1.253535E+0	1.239064E+0	1.218183E+0	1.247570E+0	1.227577E+0	1.204161E+0	1.184470E+0	1.190525E+0	1.215687E+0	1.215156E+0	1.235162E+0	1.200256E+0	1.273501E+0	1.216488E+0	1.240429E+0	1.254358E+0	1.218543E+0	1.184193E+0	1.237983E+0	1.243752E+0	1.200193E+0	1.209851E+0	1.251650E+0	1.227417E+0	1.226577E+0	1.183362E+0	1.259146E+0	1.254129E+0	1.212483E+0	1.233257E+0	1.242503E+0	1.280226E+0	1.200062E+0	1.234721E+0	1.282638E+0	1.179861E+0	1.221852E+0	1.234738E+0	1.217761E+0	1.234639E+0	1.228473E+0	1.223937E+0	1.264871E+0	1.224835E+0	1.218647E+0	1.208064E+0	1.237598E+0	1.230389E+0	1.181593E+0	1.212263E+0	1.181724E+0	1.278664E+0
5.457890E+2	1.188829E+0	1.204299E+0	1.200461E+0	1.170819E+0	1.189828E+0	1.189446E+0	1.184523E+0	1.185401E+0	1.191395E+0	1.207491E+0	1.163893E+0	1.177671E+0	1.159970E+0	1.159124E+0	1.209249E+0	1.259349E+0	1.155490E+0	1.185141E+0	1.116588E+0	1.181785E+0	1.157430E+0	1.156133E+0	1.201192E+0	1.164508E+0	1.130826E+0	1.148460E+0	1.194941E+0	1.210552E+0	1.182998E+0	1.119780E+0	1.142449E+0	1.176766E+0	1.190935E+0	1.159608E+0	1.211308E+0	1.180544E+0	1.180856E+0	1.144898E+0	1.157613E+0	1.158723E+0	1.164489E+0	1.160422E+0	1.134251E+0	1.204234E+0	1.144137E+0	1.182316E+0	1.162504E+0	1.142827E+0	1.163162E+0	1.192579E+0	1.205724E+0	1.160888E+0	1.115575E+0	1.204684E+0	1.191250E+0	1.173771E+0	1.154343E+0	1.166028E+0	1.152912E+0	1.191850E+0	1.154136E+0	1.136161E+0	1.148792E+0	1.128589E+0	1.119060E+0	1.176373E+0	1.135648E+0	1.151549E+0	1.220107E+0	1.253583E+0	1.142842E+0	1.145544E+0	1.164986E+0	1.195284E+0	1.183102E+0	1.205207E+0	1.173619E+0	1.163832E+0	1.173591E+0	1.127844E+0	1.200930E+0	1.214800E+0	1.201913E+0	1.174116E+0	1.152131E+0	1.188477E+0	1.173375E+0	1.150438E+0	1.150269E+0	1.127370E+0	1.205029E+0	1.185903E+0	1.149719E+0	1.187749E+0	1.215455E+0	1.158808E+0	1.140658E+0	1.200171E+0	1.234620E+0	1.144452E+0	1.187301E+0	1.188682E+0	1.192078E+0	1.149594E+0	1.147884E+0	1.125750E+0	1.193353E+0	1.204288E+0	1.149461E+0	1.146581E+0	1.173269E+0	1.161225E+0	1.162199E+0	1.181834E+0	1.140054E+0	1.191800E+0	1.172057E+0	1.144017E+0	1.184781E+0	1.187206E+0	1.115323E+0	1.178097E+0	1.184138E+0	1.151104E+0	1.181486E+0	1.121999E+0	1.186840E+0	1.147775E+0	1.224485E+0	1.157498E+0	1.167462E+0	1.197007E+0	1.178081E+0	1.220577E+0	1.182402E+0	1.159695E+0	1.151071E+0	1.150224E+0	1.190706E+0	1.168962E+0	1.149210E+0	1.184376E+0	1.197002E+0	1.114803E+0	1.133419E+0	1.229538E+0	1.182325E+0	1.149770E+0	1.186463E+0	1.217672E+0	1.171838E+0	1.161254E+0	1.153452E+0	1.225722E+0	1.164202E+0	1.134606E+0	1.143417E+0	1.167207E+0	1.176715E+0	1.179159E+0	1.167145E+0	1.177169E+0	1.205197E+0	1.135160E+0	1.098059E+0	1.170189E+0	1.191875E+0	1.141999E+0	1.195336E+0	1.239863E+0	1.145565E+0
5.460110E+2	1.172330E+0	1.146096E+0	1.164920E+0	1.154338E+0	1.120210E+0	1.101864E+0	1.136668E+0	1.131165E+0	1.125401E+0	1.166879E+0	1.141154E+0	1.125550E+0	1.152669E+0	1.135093E+0	1.145835E+0	1.168959E+0	1.150157E+0	1.183293E+0	1.159238E+0	1.145779E+0	1.184546E+0	1.154572E+0	1.116706E+0	1.154861E+0	1.190419E+0	1.135295E+0	1.180357E+0	1.203519E+0	1.126446E+0	1.085992E+0	1.159790E+0	1.139899E+0	1.131458E+0	1.098318E+0	1.148009E+0	1.169007E+0	1.092606E+0	1.108305E+0	1.153891E+0	1.115627E+0	1.176476E+0	1.125812E+0	1.166176E+0	1.232227E+0	1.134489E+0	1.162289E+0	1.151120E+0	1.136460E+0	1.175382E+0	1.132856E+0	1.123526E+0	1.167696E+0	1.151898E+0	1.162523E+0	1.144677E+0	1.157125E+0	1.167832E+0	1.140788E+0	1.142630E+0	1.139822E+0	1.166759E+0	1.127295E+0	1.154266E+0	1.153790E+0	1.116353E+0	1.105132E+0	1.161337E+0	1.150843E+0	1.146523E+0	1.148110E+0	1.191008E+0	1.185081E+0	1.119166E+0	1.147616E+0	1.111056E+0	1.197689E+0	1.178119E+0	1.126405E+0	1.152394E+0	1.151861E+0	1.130557E+0	1.126398E+0	1.144732E+0	1.149500E+0	1.134406E+0	1.126015E+0	1.180510E+0	1.167016E+0	1.151298E+0	1.109741E+0	1.158642E+0	1.121122E+0	1.164104E+0	1.168895E+0	1.148496E+0	1.157757E+0	1.114241E+0	1.083216E+0	1.128520E+0	1.119761E+0	1.157566E+0	1.150368E+0	1.182329E+0	1.148809E+0	1.145791E+0	1.150788E+0	1.167488E+0	1.097713E+0	1.117740E+0	1.145235E+0	1.139694E+0	1.119547E+0	1.167955E+0	1.168112E+0	1.112286E+0	1.127522E+0	1.105793E+0	1.158563E+0	1.124707E+0	1.172290E+0	1.085870E+0	1.158108E+0	1.148008E+0	1.129923E+0	1.180225E+0	1.095825E+0	1.104344E+0	1.130913E+0	1.113324E+0	1.127817E+0	1.126449E+0	1.091739E+0	1.162623E+0	1.151633E+0	1.156346E+0	1.187673E+0	1.147947E+0	1.156335E+0	1.091846E+0	1.144013E+0	1.122611E+0	1.162064E+0	1.123775E+0	1.130766E+0	1.110945E+0	1.084496E+0	1.192794E+0	1.143205E+0	1.169617E+0	1.136812E+0	1.143115E+0	1.160789E+0	1.133364E+0	1.137709E+0	1.128170E+0	1.117665E+0	1.153738E+0	1.097436E+0	1.096695E+0	1.193992E+0	1.103919E+0	1.105911E+0	1.121299E+0	1.109422E+0	1.154149E+0	1.150119E+0	1.128062E+0	1.145056E+0	1.121984E+0	1.108396E+0	1.052906E+0
5.467710E+2	1.232708E+0	1.241076E+0	1.273285E+0	1.279764E+0	1.209640E+0	1.221153E+0	1.252377E+0	1.237596E+0	1.215525E+0	1.194049E+0	1.238224E+0	1.192050E+0	1.182212E+0	1.250392E+0	1.205886E+0	1.275946E+0	1.224617E+0	1.226308E+0	1.195386E+0	1.231763E+0	1.195588E+0	1.226573E+0	1.288373E+0	1.229746E+0	1.239008E+0	1.205791E+0	1.206819E+0	1.246056E+0	1.197987E+0	1.199894E+0	1.197238E+0	1.226667E+0	1.185219E+0	1.209503E+0	1.185105E+0	1.206863E+0	1.223277E+0	1.200015E+0	1.243937E+0	1.258539E+0	1.161200E+0	1.194921E+0	1.195019E+0	1.224918E+0	1.189633E+0	1.264021E+0	1.230093E+0	1.216034E+0	1.227847E+0	1.193225E+0	1.248428E+0	1.206804E+0	1.190346E+0	1.186420E+0	1.187516E+0	1.221900E+0	1.206203E+0	1.227873E+0	1.180343E+0	1.203270E+0	1.241816E+0	1.239926E+0	1.220192E+0	1.228318E+0	1.185124E+0	1.241157E+0	1.210697E+0	1.242029E+0	1.226161E+0	1.218175E+0	1.207310E+0	1.178148E+0	1.233957E+0	1.218289E+0	1.244052E+0	1.248272E+0	1.198430E+0	1.230681E+0	1.245238E+0	1.245770E+0	1.158733E+0	1.213615E+0	1.196114E+0	1.184188E+0	1.186418E+0	1.252880E+0	1.237111E+0	1.265370E+0	1.227298E+0	1.226614E+0	1.288928E+0	1.188304E+0	1.178978E+0	1.242464E+0	1.205980E+0	1.231546E+0	1.193989E+0	1.199845E+0	1.292026E+0	1.240698E+0	1.211469E+0	1.208857E+0	1.168147E+0	1.202546E+0	1.215407E+0	1.226964E+0	1.218230E+0	1.202645E+0	1.230556E+0	1.242173E+0	1.307245E+0	1.224109E+0	1.166034E+0	1.256498E+0	1.173670E+0	1.199906E+0	1.199843E+0	1.190736E+0	1.249830E+0	1.188724E+0	1.170579E+0	1.170838E+0	1.241020E+0	1.243417E+0	1.176634E+0	1.185605E+0	1.225889E+0	1.236673E+0	1.191277E+0	1.193135E+0	1.225545E+0	1.166667E+0	1.224495E+0	1.162002E+0	1.236672E+0	1.178008E+0	1.186755E+0	1.217849E+0	1.191351E+0	1.239250E+0	1.172394E+0	1.212058E+0	1.219716E+0	1.186539E+0	1.231384E+0	1.216098E+0	1.215051E+0	1.206782E+0	1.219432E+0	1.178340E+0	1.212678E+0	1.217830E+0	1.215750E+0	1.217701E+0	1.197322E+0	1.193626E+0	1.206450E+0	1.223506E+0	1.234697E+0	1.204173E+0	1.180799E+0	1.217396E+0	1.205880E+0	1.211582E+0	1.212297E+0	1.275261E+0	1.223587E+0	1.211224E+0	1.215446E+0	1.127157E+0	1.245230E+0
5.475070E+2	1.357708E+0	1.357413E+0	1.364540E+0	1.357654E+0	1.310213E+0	1.358141E+0	1.429250E+0	1.345815E+0	1.308065E+0	1.319328E+0	1.359840E+0	1.326669E+0	1.378637E+0	1.312529E+0	1.371884E+0	1.368160E+0	1.404301E+0	1.381081E+0	1.328266E+0	1.358993E+0	1.388127E+0	1.355280E+0	1.364226E+0	1.388602E+0	1.271969E+0	1.360495E+0	1.347497E+0	1.353331E+0	1.335761E+0	1.303865E+0	1.323710E+0	1.305704E+0	1.353694E+0	1.341879E+0	1.400137E+0	1.338435E+0	1.303632E+0	1.322382E+0	1.349304E+0	1.323546E+0	1.277104E+0	1.346305E+0	1.362266E+0	1.386466E+0	1.337977E+0	1.379967E+0	1.331377E+0	1.366633E+0	1.296344E+0	1.356249E+0	1.399090E+0	1.380756E+0	1.317978E+0	1.354427E+0	1.375819E+0	1.361524E+0	1.284530E+0	1.315927E+0	1.313244E+0	1.355833E+0	1.347388E+0	1.387789E+0	1.398856E+0	1.323712E+0	1.294627E+0	1.335868E+0	1.387345E+0	1.354629E+0	1.381549E+0	1.340168E+0	1.341516E+0	1.377579E+0	1.305299E+0	1.364828E+0	1.372536E+0	1.362224E+0	1.299609E+0	1.325033E+0	1.346442E+0	1.330020E+0	1.389194E+0	1.342110E+0	1.361507E+0	1.343082E+0	1.330719E+0	1.364527E+0	1.365453E+0	1.365820E+0	1.327100E+0	1.343717E+0	1.348526E+0	1.372086E+0	1.403429E+0	1.308510E+0	1.350050E+0	1.386385E+0	1.330817E+0	1.346854E+0	1.325762E+0	1.291676E+0	1.387900E+0	1.327939E+0	1.313398E+0	1.336681E+0	1.356568E+0	1.338646E+0	1.349450E+0	1.328989E+0	1.384998E+0	1.370550E+0	1.343334E+0	1.313421E+0	1.357189E+0	1.361047E+0	1.378367E+0	1.362227E+0	1.279087E+0	1.359718E+0	1.357783E+0	1.331531E+0	1.320257E+0	1.308607E+0	1.384040E+0	1.339405E+0	1.334879E+0	1.357587E+0	1.322930E+0	1.354108E+0	1.348450E+0	1.305225E+0	1.322514E+0	1.303388E+0	1.322176E+0	1.323802E+0	1.419670E+0	1.374797E+0	1.332987E+0	1.341766E+0	1.377648E+0	1.321521E+0	1.321626E+0	1.385217E+0	1.350283E+0	1.241628E+0	1.284392E+0	1.370088E+0	1.350849E+0	1.288531E+0	1.353771E+0	1.280310E+0	1.351877E+0	1.360807E+0	1.312746E+0	1.304692E+0	1.310632E+0	1.308910E+0	1.323321E+0	1.337115E+0	1.362859E+0	1.392074E+0	1.279850E+0	1.326328E+0	1.361428E+0	1.352385E+0	1.320643E+0	1.350997E+0	1.390210E+0	1.355699E+0	1.328682E+0	1.382792E+0	1.412272E+0
5.482600E+2	1.444820E+0	1.457560E+0	1.475412E+0	1.462770E+0	1.468855E+0	1.449384E+0	1.512605E+0	1.488704E+0	1.483870E+0	1.486262E+0	1.425341E+0	1.394689E+0	1.474824E+0	1.411290E+0	1.450132E+0	1.453832E+0	1.445560E+0	1.450013E+0	1.398587E+0	1.437218E+0	1.438867E+0	1.443517E+0	1.474819E+0	1.430556E+0	1.422999E+0	1.450707E+0	1.470818E+0	1.509883E+0	1.416932E+0	1.411955E+0	1.392201E+0	1.411122E+0	1.433836E+0	1.455585E+0	1.440491E+0	1.435584E+0	1.388221E+0	1.430573E+0	1.410334E+0	1.425346E+0	1.438110E+0	1.390810E+0	1.412502E+0	1.450316E+0	1.427322E+0	1.438112E+0	1.421127E+0	1.431880E+0	1.400648E+0	1.398868E+0	1.539358E+0	1.436398E+0	1.379200E+0	1.427859E+0	1.435037E+0	1.404060E+0	1.412440E+0	1.387125E+0	1.467214E+0	1.409499E+0	1.368279E+0	1.432983E+0	1.447438E+0	1.407316E+0	1.466775E+0	1.417225E+0	1.398638E+0	1.444974E+0	1.448964E+0	1.415237E+0	1.462613E+0	1.448219E+0	1.425914E+0	1.449632E+0	1.368856E+0	1.386373E+0	1.412789E+0	1.366083E+0	1.403671E+0	1.455561E+0	1.418318E+0	1.364504E+0	1.458491E+0	1.404548E+0	1.381627E+0	1.424168E+0	1.453175E+0	1.442909E+0	1.433938E+0	1.413076E+0	1.485547E+0	1.351706E+0	1.431968E+0	1.445913E+0	1.467858E+0	1.368267E+0	1.426014E+0	1.445940E+0	1.440381E+0	1.438199E+0	1.434789E+0	1.402423E+0	1.447260E+0	1.399365E+0	1.437807E+0	1.423946E+0	1.430205E+0	1.449809E+0	1.408095E+0	1.423408E+0	1.450838E+0	1.443097E+0	1.427766E+0	1.453142E+0	1.445047E+0	1.410190E+0	1.374805E+0	1.405374E+0	1.421463E+0	1.414893E+0	1.354691E+0	1.405151E+0	1.448704E+0	1.464466E+0	1.437459E+0	1.411354E+0	1.347181E+0	1.435402E+0	1.428997E+0	1.396818E+0	1.426494E+0	1.439881E+0	1.402061E+0	1.429925E+0	1.467077E+0	1.461350E+0	1.419652E+0	1.412562E+0	1.432897E+0	1.394405E+0	1.349970E+0	1.426090E+0	1.413644E+0	1.427720E+0	1.409211E+0	1.399926E+0	1.412301E+0	1.423155E+0	1.423234E+0	1.411270E+0	1.429126E+0	1.438741E+0	1.400405E+0	1.400240E+0	1.412292E+0	1.400006E+0	1.429204E+0	1.459558E+0	1.414317E+0	1.424502E+0	1.417351E+0	1.464640E+0	1.374967E+0	1.413527E+0	1.402140E+0	1.426934E+0	1.416361E+0	1.419113E+0	1.430290E+0	1.421419E+0	1.430958E+0
5.490380E+2	1.395853E+0	1.397598E+0	1.435945E+0	1.432255E+0	1.364371E+0	1.428566E+0	1.451054E+0	1.408361E+0	1.358858E+0	1.364461E+0	1.437518E+0	1.379237E+0	1.407110E+0	1.398482E+0	1.392103E+0	1.455295E+0	1.357724E+0	1.391036E+0	1.354477E+0	1.446681E+0	1.370767E+0	1.414023E+0	1.433208E+0	1.421688E+0	1.370047E+0	1.381985E+0	1.417834E+0	1.389543E+0	1.326297E+0	1.323413E+0	1.359156E+0	1.390680E+0	1.404880E+0	1.455004E+0	1.394015E+0	1.438268E+0	1.418361E+0	1.403934E+0	1.414505E+0	1.458693E+0	1.394355E+0	1.429289E+0	1.408573E+0	1.409013E+0	1.371387E+0	1.400352E+0	1.393640E+0	1.442666E+0	1.329485E+0	1.331945E+0	1.401430E+0	1.403962E+0	1.363464E+0	1.439150E+0	1.387141E+0	1.409775E+0	1.345160E+0	1.320972E+0	1.391516E+0	1.377626E+0	1.376793E+0	1.383772E+0	1.428251E+0	1.367035E+0	1.378280E+0	1.382271E+0	1.424268E+0	1.426730E+0	1.316119E+0	1.368202E+0	1.367655E+0	1.405959E+0	1.345875E+0	1.419794E+0	1.372095E+0	1.378721E+0	1.434913E+0	1.382060E+0	1.403688E+0	1.412691E+0	1.395578E+0	1.399066E+0	1.402050E+0	1.375446E+0	1.348619E+0	1.407337E+0	1.430575E+0	1.409073E+0	1.439651E+0	1.360876E+0	1.415554E+0	1.402720E+0	1.397878E+0	1.436303E+0	1.407418E+0	1.428975E+0	1.388527E+0	1.372571E+0	1.452337E+0	1.360683E+0	1.381463E+0	1.402156E+0	1.395535E+0	1.400641E+0	1.398826E+0	1.364246E+0	1.463785E+0	1.411819E+0	1.375308E+0	1.387092E+0	1.391924E+0	1.340569E+0	1.379400E+0	1.415719E+0	1.404902E+0	1.340068E+0	1.376923E+0	1.352874E+0	1.422874E+0	1.400882E+0	1.327549E+0	1.351919E+0	1.385849E+0	1.329131E+0	1.369403E+0	1.414283E+0	1.398121E+0	1.379100E+0	1.377921E+0	1.341148E+0	1.456519E+0	1.346123E+0	1.388033E+0	1.346552E+0	1.386317E+0	1.352843E+0	1.400390E+0	1.390992E+0	1.383515E+0	1.398633E+0	1.372176E+0	1.335399E+0	1.380429E+0	1.386788E+0	1.414314E+0	1.354692E+0	1.383000E+0	1.315018E+0	1.384917E+0	1.347288E+0	1.406277E+0	1.363665E+0	1.380283E+0	1.391609E+0	1.383871E+0	1.361037E+0	1.388736E+0	1.463157E+0	1.416390E+0	1.371122E+0	1.402395E+0	1.383208E+0	1.381183E+0	1.406597E+0	1.375829E+0	1.393775E+0	1.467757E+0	1.396594E+0	1.311014E+0	1.416105E+0	1.431891E+0
5.497850E+2	1.308609E+0	1.391167E+0	1.314826E+0	1.314337E+0	1.355164E+0	1.309529E+0	1.393591E+0	1.353511E+0	1.293716E+0	1.308722E+0	1.356669E+0	1.349362E+0	1.298863E+0	1.333901E+0	1.307566E+0	1.316092E+0	1.336068E+0	1.300026E+0	1.316989E+0	1.300630E+0	1.333840E+0	1.336174E+0	1.356215E+0	1.373339E+0	1.320631E+0	1.284996E+0	1.338058E+0	1.332534E+0	1.316432E+0	1.291931E+0	1.332144E+0	1.347633E+0	1.343497E+0	1.309096E+0	1.358979E+0	1.330256E+0	1.327350E+0	1.299254E+0	1.308012E+0	1.338322E+0	1.318486E+0	1.321152E+0	1.353586E+0	1.355457E+0	1.262053E+0	1.293902E+0	1.310570E+0	1.366918E+0	1.316543E+0	1.327829E+0	1.396275E+0	1.353317E+0	1.246143E+0	1.369319E+0	1.302889E+0	1.309137E+0	1.326967E+0	1.329563E+0	1.350117E+0	1.278970E+0	1.330740E+0	1.322332E+0	1.342243E+0	1.351250E+0	1.343273E+0	1.297001E+0	1.322007E+0	1.356025E+0	1.316038E+0	1.338163E+0	1.291298E+0	1.335095E+0	1.277561E+0	1.318553E+0	1.288488E+0	1.371775E+0	1.316829E+0	1.315832E+0	1.372867E+0	1.312409E+0	1.277415E+0	1.338513E+0	1.338999E+0	1.335299E+0	1.303344E+0	1.345285E+0	1.381271E+0	1.322852E+0	1.325155E+0	1.306012E+0	1.309172E+0	1.353117E+0	1.255249E+0	1.329275E+0	1.311941E+0	1.305103E+0	1.353138E+0	1.290034E+0	1.355308E+0	1.322983E+0	1.321657E+0	1.334897E+0	1.331539E+0	1.306627E+0	1.348187E+0	1.329474E+0	1.328330E+0	1.317021E+0	1.294986E+0	1.326303E+0	1.305635E+0	1.270656E+0	1.333512E+0	1.359070E+0	1.301957E+0	1.321703E+0	1.313015E+0	1.253867E+0	1.339363E+0	1.304996E+0	1.303001E+0	1.292250E+0	1.368319E+0	1.313122E+0	1.349036E+0	1.319767E+0	1.305033E+0	1.323708E+0	1.313250E+0	1.292403E+0	1.310649E+0	1.289986E+0	1.319264E+0	1.274639E+0	1.360349E+0	1.294974E+0	1.280069E+0	1.300059E+0	1.335268E+0	1.352241E+0	1.298677E+0	1.307199E+0	1.312165E+0	1.305065E+0	1.317637E+0	1.294985E+0	1.363866E+0	1.314164E+0	1.291312E+0	1.303954E+0	1.340909E+0	1.303616E+0	1.246325E+0	1.376218E+0	1.347454E+0	1.283213E+0	1.256557E+0	1.310143E+0	1.283850E+0	1.373220E+0	1.347377E+0	1.341146E+0	1.362993E+0	1.311340E+0	1.341580E+0	1.316497E+0	1.324138E+0	1.297869E+0	1.297413E+0	1.329689E+0	1.235073E+0
5.505170E+2	1.260002E+0	1.303022E+0	1.313411E+0	1.333966E+0	1.282763E+0	1.256009E+0	1.302536E+0	1.270574E+0	1.312355E+0	1.283050E+0	1.305267E+0	1.326284E+0	1.321766E+0	1.304383E+0	1.304537E+0	1.327697E+0	1.326165E+0	1.343252E+0	1.275648E+0	1.329655E+0	1.297208E+0	1.321048E+0	1.296785E+0	1.285133E+0	1.269209E+0	1.234135E+0	1.275422E+0	1.274184E+0	1.333066E+0	1.297059E+0	1.300170E+0	1.294818E+0	1.319857E+0	1.297722E+0	1.320811E+0	1.308156E+0	1.279847E+0	1.306323E+0	1.306330E+0	1.296315E+0	1.333910E+0	1.253479E+0	1.312419E+0	1.334535E+0	1.284782E+0	1.328832E+0	1.310339E+0	1.295341E+0	1.230182E+0	1.249353E+0	1.303585E+0	1.272095E+0	1.273949E+0	1.303963E+0	1.297768E+0	1.336114E+0	1.286322E+0	1.292251E+0	1.315979E+0	1.335226E+0	1.261442E+0	1.320494E+0	1.298319E+0	1.268637E+0	1.274356E+0	1.263471E+0	1.294659E+0	1.310938E+0	1.267463E+0	1.269776E+0	1.328942E+0	1.263685E+0	1.293115E+0	1.256004E+0	1.282507E+0	1.329988E+0	1.264877E+0	1.237037E+0	1.290532E+0	1.269346E+0	1.213991E+0	1.315516E+0	1.314346E+0	1.279894E+0	1.267211E+0	1.315202E+0	1.293326E+0	1.273315E+0	1.322942E+0	1.292089E+0	1.293735E+0	1.357085E+0	1.260051E+0	1.298876E+0	1.298939E+0	1.319203E+0	1.274068E+0	1.290605E+0	1.311754E+0	1.300630E+0	1.309606E+0	1.299478E+0	1.312475E+0	1.265328E+0	1.270421E+0	1.293139E+0	1.321618E+0	1.259836E+0	1.252416E+0	1.364741E+0	1.348758E+0	1.265309E+0	1.262601E+0	1.313700E+0	1.275246E+0	1.289380E+0	1.292168E+0	1.297642E+0	1.294130E+0	1.314635E+0	1.295721E+0	1.224170E+0	1.293197E+0	1.320355E+0	1.298737E+0	1.333817E+0	1.314967E+0	1.262146E+0	1.269311E+0	1.250645E+0	1.308953E+0	1.285503E+0	1.269659E+0	1.265180E+0	1.316187E+0	1.322019E+0	1.306229E+0	1.260799E+0	1.319240E+0	1.297738E+0	1.281975E+0	1.327472E+0	1.282780E+0	1.272867E+0	1.254595E+0	1.265496E+0	1.283411E+0	1.266483E+0	1.319977E+0	1.262569E+0	1.321219E+0	1.281564E+0	1.281387E+0	1.279743E+0	1.282013E+0	1.262240E+0	1.300531E+0	1.257312E+0	1.294804E+0	1.269736E+0	1.302216E+0	1.212693E+0	1.295544E+0	1.303225E+0	1.257909E+0	1.295441E+0	1.300559E+0	1.256518E+0	1.262661E+0	1.251584E+0	1.214991E+0
5.512620E+2	1.292438E+0	1.300804E+0	1.282943E+0	1.305335E+0	1.266765E+0	1.327254E+0	1.305348E+0	1.321825E+0	1.275701E+0	1.258591E+0	1.280840E+0	1.331644E+0	1.297487E+0	1.292452E+0	1.255662E+0	1.297015E+0	1.335447E+0	1.339173E+0	1.283200E+0	1.307167E+0	1.318322E+0	1.275622E+0	1.311036E+0	1.293200E+0	1.297440E+0	1.262188E+0	1.269702E+0	1.365532E+0	1.282615E+0	1.265606E+0	1.285480E+0	1.270180E+0	1.256926E+0	1.254922E+0	1.277865E+0	1.302324E+0	1.297811E+0	1.260536E+0	1.241748E+0	1.293133E+0	1.255744E+0	1.261854E+0	1.317364E+0	1.319898E+0	1.265655E+0	1.317585E+0	1.270154E+0	1.272912E+0	1.362442E+0	1.279020E+0	1.268155E+0	1.350301E+0	1.249220E+0	1.317603E+0	1.240022E+0	1.375364E+0	1.256163E+0	1.255439E+0	1.249645E+0	1.267079E+0	1.274628E+0	1.282759E+0	1.274879E+0	1.246467E+0	1.278525E+0	1.281648E+0	1.278207E+0	1.316158E+0	1.246845E+0	1.311694E+0	1.290221E+0	1.322796E+0	1.334494E+0	1.278591E+0	1.244449E+0	1.315298E+0	1.267459E+0	1.257379E+0	1.327994E+0	1.241517E+0	1.261098E+0	1.272688E+0	1.293784E+0	1.269626E+0	1.284759E+0	1.302576E+0	1.336837E+0	1.356652E+0	1.277296E+0	1.312043E+0	1.343607E+0	1.276406E+0	1.266096E+0	1.266489E+0	1.261976E+0	1.285910E+0	1.258935E+0	1.283719E+0	1.300491E+0	1.261001E+0	1.280962E+0	1.276296E+0	1.308110E+0	1.261169E+0	1.354668E+0	1.247712E+0	1.306945E+0	1.243881E+0	1.272838E+0	1.313603E+0	1.279020E+0	1.283539E+0	1.257275E+0	1.264619E+0	1.261402E+0	1.288716E+0	1.302935E+0	1.297211E+0	1.316909E+0	1.312691E+0	1.252929E+0	1.242700E+0	1.350989E+0	1.320364E+0	1.291196E+0	1.272067E+0	1.304531E+0	1.260311E+0	1.267154E+0	1.249937E+0	1.295666E+0	1.211856E+0	1.262475E+0	1.265714E+0	1.300785E+0	1.304248E+0	1.307845E+0	1.218391E+0	1.284888E+0	1.271536E+0	1.240145E+0	1.296437E+0	1.333211E+0	1.281155E+0	1.313624E+0	1.296952E+0	1.340230E+0	1.279665E+0	1.253325E+0	1.266772E+0	1.321218E+0	1.258335E+0	1.227941E+0	1.307339E+0	1.288642E+0	1.271570E+0	1.213814E+0	1.278296E+0	1.271296E+0	1.297281E+0	1.246418E+0	1.311799E+0	1.274928E+0	1.243468E+0	1.289754E+0	1.273895E+0	1.301668E+0	1.264441E+0	1.179291E+0	1.288997E+0	1.275873E+0
5.520210E+2	1.308889E+0	1.340804E+0	1.255021E+0	1.290503E+0	1.282343E+0	1.322021E+0	1.335318E+0	1.326370E+0	1.308308E+0	1.297573E+0	1.267494E+0	1.314861E+0	1.309174E+0	1.307370E+0	1.325794E+0	1.309078E+0	1.263942E+0	1.302805E+0	1.287244E+0	1.356208E+0	1.325605E+0	1.316256E+0	1.314953E+0	1.332511E+0	1.293306E+0	1.281366E+0	1.351462E+0	1.279346E+0	1.291354E+0	1.286016E+0	1.334119E+0	1.341663E+0	1.268220E+0	1.293381E+0	1.291179E+0	1.303163E+0	1.306434E+0	1.269378E+0	1.356860E+0	1.332691E+0	1.217907E+0	1.296788E+0	1.332069E+0	1.314633E+0	1.292725E+0	1.303889E+0	1.284515E+0	1.294632E+0	1.336848E+0	1.290986E+0	1.309226E+0	1.271421E+0	1.258702E+0	1.302053E+0	1.286999E+0	1.339695E+0	1.302401E+0	1.332918E+0	1.319937E+0	1.293515E+0	1.289064E+0	1.262325E+0	1.321301E+0	1.251721E+0	1.305047E+0	1.293267E+0	1.240069E+0	1.285260E+0	1.337750E+0	1.277643E+0	1.287753E+0	1.328333E+0	1.233773E+0	1.208210E+0	1.267897E+0	1.301865E+0	1.258822E+0	1.291392E+0	1.290561E+0	1.277305E+0	1.231245E+0	1.273295E+0	1.286537E+0	1.284251E+0	1.298783E+0	1.309556E+0	1.260337E+0	1.264525E+0	1.265461E+0	1.287667E+0	1.257025E+0	1.329110E+0	1.309503E+0	1.333898E+0	1.297459E+0	1.286384E+0	1.222889E+0	1.271008E+0	1.253982E+0	1.309900E+0	1.293694E+0	1.268779E+0	1.277865E+0	1.254081E+0	1.286435E+0	1.292102E+0	1.322381E+0	1.298582E+0	1.261901E+0	1.320242E+0	1.295956E+0	1.327215E+0	1.295024E+0	1.303492E+0	1.240679E+0	1.246602E+0	1.307294E+0	1.253248E+0	1.291351E+0	1.268269E+0	1.261294E+0	1.289182E+0	1.378881E+0	1.355350E+0	1.278784E+0	1.296728E+0	1.314060E+0	1.236932E+0	1.254000E+0	1.289139E+0	1.310382E+0	1.250304E+0	1.250737E+0	1.253390E+0	1.269588E+0	1.229785E+0	1.274213E+0	1.317384E+0	1.313136E+0	1.264458E+0	1.260249E+0	1.286700E+0	1.284041E+0	1.293295E+0	1.314947E+0	1.289119E+0	1.258156E+0	1.262863E+0	1.312076E+0	1.273171E+0	1.281023E+0	1.278794E+0	1.256046E+0	1.296173E+0	1.337931E+0	1.269539E+0	1.286004E+0	1.277995E+0	1.322239E+0	1.291580E+0	1.319840E+0	1.306212E+0	1.330982E+0	1.297319E+0	1.301977E+0	1.294197E+0	1.285706E+0	1.245609E+0	1.201277E+0	1.283989E+0	1.289017E+0
5.527650E+2	1.250022E+0	1.283613E+0	1.285639E+0	1.299817E+0	1.256904E+0	1.237151E+0	1.303291E+0	1.311239E+0	1.282215E+0	1.209643E+0	1.266587E+0	1.257832E+0	1.302083E+0	1.247986E+0	1.270990E+0	1.293905E+0	1.304353E+0	1.288522E+0	1.216636E+0	1.271548E+0	1.226007E+0	1.247856E+0	1.258386E+0	1.340814E+0	1.298215E+0	1.239073E+0	1.288127E+0	1.301568E+0	1.240509E+0	1.264545E+0	1.283208E+0	1.295695E+0	1.251977E+0	1.272420E+0	1.273775E+0	1.314459E+0	1.263411E+0	1.252429E+0	1.230200E+0	1.251269E+0	1.269631E+0	1.295502E+0	1.243021E+0	1.282227E+0	1.289785E+0	1.285496E+0	1.295532E+0	1.248461E+0	1.275339E+0	1.253288E+0	1.258331E+0	1.283521E+0	1.213547E+0	1.293101E+0	1.243796E+0	1.243189E+0	1.286006E+0	1.239528E+0	1.222170E+0	1.261602E+0	1.224045E+0	1.241932E+0	1.293685E+0	1.281112E+0	1.267153E+0	1.239628E+0	1.246480E+0	1.301464E+0	1.224969E+0	1.253366E+0	1.240209E+0	1.261408E+0	1.266441E+0	1.280126E+0	1.233320E+0	1.279062E+0	1.192101E+0	1.261079E+0	1.254696E+0	1.275566E+0	1.290977E+0	1.252143E+0	1.284589E+0	1.311367E+0	1.259673E+0	1.265322E+0	1.298018E+0	1.301549E+0	1.255548E+0	1.235867E+0	1.257968E+0	1.274417E+0	1.259970E+0	1.292602E+0	1.263221E+0	1.218852E+0	1.221112E+0	1.217041E+0	1.283373E+0	1.256106E+0	1.246369E+0	1.252647E+0	1.210120E+0	1.254615E+0	1.232401E+0	1.207934E+0	1.300524E+0	1.283544E+0	1.241307E+0	1.311630E+0	1.258112E+0	1.275055E+0	1.239451E+0	1.249610E+0	1.230704E+0	1.266040E+0	1.220761E+0	1.262883E+0	1.244720E+0	1.278286E+0	1.236290E+0	1.190621E+0	1.266671E+0	1.239021E+0	1.245116E+0	1.290494E+0	1.260031E+0	1.203121E+0	1.236764E+0	1.291152E+0	1.287886E+0	1.268485E+0	1.225593E+0	1.250986E+0	1.236671E+0	1.285975E+0	1.217531E+0	1.274606E+0	1.286584E+0	1.202397E+0	1.249364E+0	1.295064E+0	1.252335E+0	1.205528E+0	1.309712E+0	1.266547E+0	1.245319E+0	1.237303E+0	1.312674E+0	1.203418E+0	1.287786E+0	1.259564E+0	1.217748E+0	1.260183E+0	1.231384E+0	1.275022E+0	1.238120E+0	1.242476E+0	1.206184E+0	1.270691E+0	1.251039E+0	1.273305E+0	1.269489E+0	1.263920E+0	1.234917E+0	1.295870E+0	1.282570E+0	1.292983E+0	1.229929E+0	1.270503E+0	1.300388E+0
5.535160E+2	1.172449E+0	1.196351E+0	1.207557E+0	1.209058E+0	1.203797E+0	1.176504E+0	1.212118E+0	1.200334E+0	1.203896E+0	1.183505E+0	1.195201E+0	1.177580E+0	1.221560E+0	1.185899E+0	1.181312E+0	1.202160E+0	1.239130E+0	1.214186E+0	1.169192E+0	1.180140E+0	1.214423E+0	1.186762E+0	1.139074E+0	1.267853E+0	1.155585E+0	1.166896E+0	1.210132E+0	1.202195E+0	1.162822E+0	1.165011E+0	1.164378E+0	1.162270E+0	1.168629E+0	1.171697E+0	1.166793E+0	1.193686E+0	1.170039E+0	1.167649E+0	1.170671E+0	1.264384E+0	1.181651E+0	1.214008E+0	1.178575E+0	1.184498E+0	1.151210E+0	1.201101E+0	1.201687E+0	1.172173E+0	1.186241E+0	1.151308E+0	1.202429E+0	1.228380E+0	1.124379E+0	1.164449E+0	1.123368E+0	1.232001E+0	1.205449E+0	1.151645E+0	1.211611E+0	1.117639E+0	1.188120E+0	1.165682E+0	1.204072E+0	1.146998E+0	1.205858E+0	1.209299E+0	1.176290E+0	1.226478E+0	1.182521E+0	1.206547E+0	1.180019E+0	1.216255E+0	1.185032E+0	1.210733E+0	1.135187E+0	1.219656E+0	1.150834E+0	1.173959E+0	1.188011E+0	1.184507E+0	1.215845E+0	1.200016E+0	1.148875E+0	1.182646E+0	1.169088E+0	1.244627E+0	1.179968E+0	1.211332E+0	1.169727E+0	1.155855E+0	1.172272E+0	1.160021E+0	1.187612E+0	1.203018E+0	1.185888E+0	1.185372E+0	1.191154E+0	1.194177E+0	1.136824E+0	1.175242E+0	1.245401E+0	1.179785E+0	1.185697E+0	1.181265E+0	1.191065E+0	1.210871E+0	1.234166E+0	1.219868E+0	1.164099E+0	1.258385E+0	1.174967E+0	1.180771E+0	1.151301E+0	1.213919E+0	1.152054E+0	1.152672E+0	1.175640E+0	1.149648E+0	1.154425E+0	1.161904E+0	1.146342E+0	1.180496E+0	1.195315E+0	1.174833E+0	1.149962E+0	1.183770E+0	1.171223E+0	1.184565E+0	1.181928E+0	1.165702E+0	1.161993E+0	1.188217E+0	1.168555E+0	1.179711E+0	1.173566E+0	1.171360E+0	1.153666E+0	1.165823E+0	1.203788E+0	1.191289E+0	1.179860E+0	1.175698E+0	1.162918E+0	1.160299E+0	1.209544E+0	1.157131E+0	1.123414E+0	1.174056E+0	1.139599E+0	1.163217E+0	1.141561E+0	1.209159E+0	1.150650E+0	1.239650E+0	1.213876E+0	1.159531E+0	1.226101E+0	1.183211E+0	1.168455E+0	1.202828E+0	1.171057E+0	1.141212E+0	1.154727E+0	1.211923E+0	1.211135E+0	1.200561E+0	1.194960E+0	1.193922E+0	1.117073E+0	1.217147E+0	1.303155E+0
5.542580E+2	1.049184E+0	1.054663E+0	1.097910E+0	1.048243E+0	1.077527E+0	1.108560E+0	1.072907E+0	1.107398E+0	1.119338E+0	1.134618E+0	1.102964E+0	1.043424E+0	1.117372E+0	1.138038E+0	1.086824E+0	1.075323E+0	1.130415E+0	1.072130E+0	1.083559E+0	1.119330E+0	1.099557E+0	1.073481E+0	1.116855E+0	1.123298E+0	1.056223E+0	1.094977E+0	1.104737E+0	1.137421E+0	1.112711E+0	1.075527E+0	1.102392E+0	1.054417E+0	1.077655E+0	1.107774E+0	1.103383E+0	1.116745E+0	1.086871E+0	1.072667E+0	1.052936E+0	1.093853E+0	1.112858E+0	1.137395E+0	1.087850E+0	1.117003E+0	1.123700E+0	1.096243E+0	1.088380E+0	1.118022E+0	1.060955E+0	1.073005E+0	1.102587E+0	1.091288E+0	1.040922E+0	1.090618E+0	1.083123E+0	1.073662E+0	1.073528E+0	1.110458E+0	1.112092E+0	1.083647E+0	1.055835E+0	1.095089E+0	1.094969E+0	1.088689E+0	1.076652E+0	1.084039E+0	1.068400E+0	1.114892E+0	1.099645E+0	1.077266E+0	1.056059E+0	1.128350E+0	1.101969E+0	1.098967E+0	1.083184E+0	1.109656E+0	1.065377E+0	1.113606E+0	1.101064E+0	1.094485E+0	1.049206E+0	1.061049E+0	1.052962E+0	1.072102E+0	1.107554E+0	1.058475E+0	1.118219E+0	1.102553E+0	1.080128E+0	1.095694E+0	1.137103E+0	1.114901E+0	1.084555E+0	1.105388E+0	1.075971E+0	1.042815E+0	1.044989E+0	1.083589E+0	1.094361E+0	1.095996E+0	1.061694E+0	1.055544E+0	1.110165E+0	1.056810E+0	1.087346E+0	1.089792E+0	1.100007E+0	1.103028E+0	1.107631E+0	1.107665E+0	1.114525E+0	1.094284E+0	1.121518E+0	1.146127E+0	1.087721E+0	1.123402E+0	1.092531E+0	1.059262E+0	1.135476E+0	1.102388E+0	1.066616E+0	1.063520E+0	1.103399E+0	1.093669E+0	1.086486E+0	1.095559E+0	1.076799E+0	1.051120E+0	1.092100E+0	1.050681E+0	1.105775E+0	1.114593E+0	1.086206E+0	1.101862E+0	1.129503E+0	1.123853E+0	1.055719E+0	1.060678E+0	1.087070E+0	1.081440E+0	1.089410E+0	1.083561E+0	1.127826E+0	1.105099E+0	1.080539E+0	1.108444E+0	1.107564E+0	1.048496E+0	1.084108E+0	1.097685E+0	1.084911E+0	1.063320E+0	1.045758E+0	1.095089E+0	1.131847E+0	1.086387E+0	1.058350E+0	1.014682E+0	1.108143E+0	1.123202E+0	1.084669E+0	1.098667E+0	1.066147E+0	1.107718E+0	1.130180E+0	1.137343E+0	1.103751E+0	1.134555E+0	1.136636E+0	1.068565E+0	1.055209E+0
5.550190E+2	9.978569E-1	9.711621E-1	9.806158E-1	9.852835E-1	1.018130E+0	9.977901E-1	1.077821E+0	1.032623E+0	1.045188E+0	1.011652E+0	1.022452E+0	1.002073E+0	9.998745E-1	1.015044E+0	9.638545E-1	9.633872E-1	1.057122E+0	9.856868E-1	1.018199E+0	1.018794E+0	9.809767E-1	1.009425E+0	1.038705E+0	1.055085E+0	1.032620E+0	9.625428E-1	1.017451E+0	1.014865E+0	1.007098E+0	9.977314E-1	9.992419E-1	9.928755E-1	9.686414E-1	1.032798E+0	9.988207E-1	9.846018E-1	9.925476E-1	9.678085E-1	1.025557E+0	1.042014E+0	9.903658E-1	9.849573E-1	9.660111E-1	1.048359E+0	1.015034E+0	1.026840E+0	1.026080E+0	9.829025E-1	1.017287E+0	1.037378E+0	1.035234E+0	9.966905E-1	9.605243E-1	1.022353E+0	9.751187E-1	1.006055E+0	9.626787E-1	1.004854E+0	9.992607E-1	9.920844E-1	1.003627E+0	1.041439E+0	1.018628E+0	9.983909E-1	1.005384E+0	1.008852E+0	1.002678E+0	9.927665E-1	1.038619E+0	1.005465E+0	1.012094E+0	9.991432E-1	1.036848E+0	9.851039E-1	9.753724E-1	1.014412E+0	9.824112E-1	9.885460E-1	1.080613E+0	1.003539E+0	9.692113E-1	9.888292E-1	1.019846E+0	9.698528E-1	9.624039E-1	1.041948E+0	1.030704E+0	9.939283E-1	1.016490E+0	9.823994E-1	9.767041E-1	1.029861E+0	1.001921E+0	1.016349E+0	9.960554E-1	1.023888E+0	1.022876E+0	1.034703E+0	9.793438E-1	1.058158E+0	9.989165E-1	1.009425E+0	1.033720E+0	9.517858E-1	9.969216E-1	1.019289E+0	1.033161E+0	9.962813E-1	1.025298E+0	1.020610E+0	1.037284E+0	1.007643E+0	1.040756E+0	1.036754E+0	9.861642E-1	9.713674E-1	9.962594E-1	1.005874E+0	9.894910E-1	1.016583E+0	1.018320E+0	1.015487E+0	1.003063E+0	1.005824E+0	1.005391E+0	1.009041E+0	9.959886E-1	1.001698E+0	9.744873E-1	1.015960E+0	1.005251E+0	1.008017E+0	1.001213E+0	1.029343E+0	1.004827E+0	9.584098E-1	9.778536E-1	9.916293E-1	1.035172E+0	1.018434E+0	9.930592E-1	1.014790E+0	1.027490E+0	9.858149E-1	1.048201E+0	1.022702E+0	1.006612E+0	1.036018E+0	1.044569E+0	1.015951E+0	1.027067E+0	1.001794E+0	1.005314E+0	9.886083E-1	1.029392E+0	9.961235E-1	9.938036E-1	1.005085E+0	9.405953E-1	1.026856E+0	1.038603E+0	1.025586E+0	1.014951E+0	9.854601E-1	1.004916E+0	9.874890E-1	1.017848E+0	1.012867E+0	9.742242E-1	1.053884E+0	9.910480E-1
5.557710E+2	9.774206E-1	9.493356E-1	9.334309E-1	1.002358E+0	9.681754E-1	9.653629E-1	9.687414E-1	9.868046E-1	9.642811E-1	9.408178E-1	9.471602E-1	9.571762E-1	9.536514E-1	9.404478E-1	9.353121E-1	9.774586E-1	9.858519E-1	9.882630E-1	9.607246E-1	9.678634E-1	9.641022E-1	9.980467E-1	9.973687E-1	1.023674E+0	9.630422E-1	9.567212E-1	9.376961E-1	1.008308E+0	9.206575E-1	9.555777E-1	9.635252E-1	9.852003E-1	9.775324E-1	9.770566E-1	9.435434E-1	9.822353E-1	9.533333E-1	1.000107E+0	9.593445E-1	1.003135E+0	9.320808E-1	9.529081E-1	9.870746E-1	9.740054E-1	9.443451E-1	9.537487E-1	9.582234E-1	9.689694E-1	9.427248E-1	9.423783E-1	9.339058E-1	9.277149E-1	9.554702E-1	9.730304E-1	9.665609E-1	9.938961E-1	9.649624E-1	9.489605E-1	9.305271E-1	9.234427E-1	9.696776E-1	9.932427E-1	9.509312E-1	9.496751E-1	9.386995E-1	9.546937E-1	8.988245E-1	9.964582E-1	9.402608E-1	9.912724E-1	9.525392E-1	9.727609E-1	9.402527E-1	9.413491E-1	9.493418E-1	9.570345E-1	9.685278E-1	9.294414E-1	9.783717E-1	9.342815E-1	9.322496E-1	9.947698E-1	9.487517E-1	9.668803E-1	9.347763E-1	9.795600E-1	9.903331E-1	9.915210E-1	9.797196E-1	9.519168E-1	9.504932E-1	9.894805E-1	9.642451E-1	9.996208E-1	1.002693E+0	9.593094E-1	9.580864E-1	9.347283E-1	9.647390E-1	9.616241E-1	9.830591E-1	9.814352E-1	9.494568E-1	9.430089E-1	9.326836E-1	9.101979E-1	9.906326E-1	9.372771E-1	9.651045E-1	9.842443E-1	9.683025E-1	9.737351E-1	9.498189E-1	9.522551E-1	9.151328E-1	9.507372E-1	9.719788E-1	9.315774E-1	9.697529E-1	9.500452E-1	9.176755E-1	9.722298E-1	9.462513E-1	9.721180E-1	9.598014E-1	9.497354E-1	9.971745E-1	9.676239E-1	9.741805E-1	9.323667E-1	9.309669E-1	9.836582E-1	9.679468E-1	9.382793E-1	9.340889E-1	9.538908E-1	9.762739E-1	9.791546E-1	9.956730E-1	9.883454E-1	9.400115E-1	9.714357E-1	9.752251E-1	9.920977E-1	9.430133E-1	9.772510E-1	9.486141E-1	9.381802E-1	9.570393E-1	9.501339E-1	9.204611E-1	9.856385E-1	9.900782E-1	9.976209E-1	9.978623E-1	1.002070E+0	9.552772E-1	9.271374E-1	9.499122E-1	1.018172E+0	9.703363E-1	9.507695E-1	9.394944E-1	9.656963E-1	9.071262E-1	9.674012E-1	1.025677E+0	9.777687E-1	9.569032E-1	9.725494E-1	9.439042E-1
5.560130E+2	1.008257E+0	9.664398E-1	9.359283E-1	1.048262E+0	9.566397E-1	9.910895E-1	9.702559E-1	1.036948E+0	9.914368E-1	9.512590E-1	9.467999E-1	9.567063E-1	9.445155E-1	9.498771E-1	9.825210E-1	9.741862E-1	1.007824E+0	9.868621E-1	9.905474E-1	9.822182E-1	9.548832E-1	9.707923E-1	9.626847E-1	9.978026E-1	9.825930E-1	8.936970E-1	9.204804E-1	9.641646E-1	9.662916E-1	9.334248E-1	9.615082E-1	9.756257E-1	9.736684E-1	9.530099E-1	9.660625E-1	1.009868E+0	9.733315E-1	9.618536E-1	9.514776E-1	9.763447E-1	9.943366E-1	9.591630E-1	9.687353E-1	9.788716E-1	9.617723E-1	1.010631E+0	9.474368E-1	1.016093E+0	9.762785E-1	9.782245E-1	1.002728E+0	1.004115E+0	9.292681E-1	9.460414E-1	9.123383E-1	9.642195E-1	9.764575E-1	9.687464E-1	9.585674E-1	9.388268E-1	9.499585E-1	1.014550E+0	9.620402E-1	9.616946E-1	9.237509E-1	9.287777E-1	9.378635E-1	9.603318E-1	9.445120E-1	9.762079E-1	9.813304E-1	9.815148E-1	9.887225E-1	9.668132E-1	9.777612E-1	9.594624E-1	9.406002E-1	9.803082E-1	9.720768E-1	9.763728E-1	9.784382E-1	9.598310E-1	9.814168E-1	9.903545E-1	9.759997E-1	9.677964E-1	9.952048E-1	9.691787E-1	9.797953E-1	9.180679E-1	9.862405E-1	1.009770E+0	9.731035E-1	9.667794E-1	9.517444E-1	1.001369E+0	9.737805E-1	9.096372E-1	9.810570E-1	9.813617E-1	1.008223E+0	1.000826E+0	9.453726E-1	9.602394E-1	1.001353E+0	9.915822E-1	9.446549E-1	9.218257E-1	9.526680E-1	9.444378E-1	9.800637E-1	9.865128E-1	9.645727E-1	9.473843E-1	8.976746E-1	9.517774E-1	8.974671E-1	9.759001E-1	9.780882E-1	1.014188E+0	9.766759E-1	9.451709E-1	9.922869E-1	9.813980E-1	1.015339E+0	9.675723E-1	9.598024E-1	9.753128E-1	9.545598E-1	9.947251E-1	9.686590E-1	9.669719E-1	9.284924E-1	9.666311E-1	9.673660E-1	9.912535E-1	9.788776E-1	9.073760E-1	1.009260E+0	9.532875E-1	9.690783E-1	9.754871E-1	9.569101E-1	1.000944E+0	9.972747E-1	1.013620E+0	9.739911E-1	9.539804E-1	9.400065E-1	9.353011E-1	9.402362E-1	1.014230E+0	9.932195E-1	9.633669E-1	9.515864E-1	9.884646E-1	9.774019E-1	9.508546E-1	9.663887E-1	9.858514E-1	9.801961E-1	9.496372E-1	1.017152E+0	9.502065E-1	9.949276E-1	1.000449E+0	9.911199E-1	9.804097E-1	8.933443E-1	9.599705E-1	9.122694E-1
5.565090E+2	9.482149E-1	9.486551E-1	9.832674E-1	9.553216E-1	9.589711E-1	9.665968E-1	9.447954E-1	1.026946E+0	9.736773E-1	9.662767E-1	9.522325E-1	9.452061E-1	9.789534E-1	9.854307E-1	9.563074E-1	9.809011E-1	9.425570E-1	9.801510E-1	9.663811E-1	9.833865E-1	9.388552E-1	1.013488E+0	9.494397E-1	9.530389E-1	9.406007E-1	9.707478E-1	9.677513E-1	9.567945E-1	9.936000E-1	9.474098E-1	9.317498E-1	9.558722E-1	1.009805E+0	9.704700E-1	9.581457E-1	9.906248E-1	9.968140E-1	9.662555E-1	1.007875E+0	9.865396E-1	9.523593E-1	9.144670E-1	9.780772E-1	9.721292E-1	9.739204E-1	9.514569E-1	9.929425E-1	9.737050E-1	9.553465E-1	9.452805E-1	1.007485E+0	9.932856E-1	9.595342E-1	1.002277E+0	9.971504E-1	1.011001E+0	9.331823E-1	9.419493E-1	9.497427E-1	1.008043E+0	1.014117E+0	9.748561E-1	9.687062E-1	9.662022E-1	9.618716E-1	9.842194E-1	1.012233E+0	9.859568E-1	1.022587E+0	9.454738E-1	9.959188E-1	9.632374E-1	9.589232E-1	9.807061E-1	9.591640E-1	9.627647E-1	9.670007E-1	9.604560E-1	9.620740E-1	9.692523E-1	9.747578E-1	9.936724E-1	9.843811E-1	9.520956E-1	9.662983E-1	9.863729E-1	9.685469E-1	9.470981E-1	9.699508E-1	9.500929E-1	9.519492E-1	9.579463E-1	9.386021E-1	9.566766E-1	1.003764E+0	9.655327E-1	9.497483E-1	9.839759E-1	9.877715E-1	1.007716E+0	9.615903E-1	9.114157E-1	9.980167E-1	9.662538E-1	1.018550E+0	9.867774E-1	9.663023E-1	9.637857E-1	9.792759E-1	9.804115E-1	9.719203E-1	9.712542E-1	9.600334E-1	9.640922E-1	9.698666E-1	9.761690E-1	9.692090E-1	9.611454E-1	9.419674E-1	9.580359E-1	9.743975E-1	9.432632E-1	9.699779E-1	9.647127E-1	9.838089E-1	9.881303E-1	9.488322E-1	9.662941E-1	9.362984E-1	9.661436E-1	9.999828E-1	9.597817E-1	1.025068E+0	1.011047E+0	9.687432E-1	9.788963E-1	9.883987E-1	9.275008E-1	9.581860E-1	9.857963E-1	9.737763E-1	1.005444E+0	9.535046E-1	9.815567E-1	9.637053E-1	9.571147E-1	9.791131E-1	9.973901E-1	9.691630E-1	9.393499E-1	9.503954E-1	1.010262E+0	9.291638E-1	9.742033E-1	9.701436E-1	9.706727E-1	9.785330E-1	9.723404E-1	9.532782E-1	9.802728E-1	1.022202E+0	9.826679E-1	9.576696E-1	9.923099E-1	9.681570E-1	9.403496E-1	9.518377E-1	1.023269E+0	9.698606E-1	1.028949E+0	9.590027E-1
5.570270E+2	9.601632E-1	9.865897E-1	9.755889E-1	9.995569E-1	9.690957E-1	9.543852E-1	9.461872E-1	9.232356E-1	9.791514E-1	9.555085E-1	9.555706E-1	9.973716E-1	1.030451E+0	1.016552E+0	9.710363E-1	9.824239E-1	1.001300E+0	9.775148E-1	9.897451E-1	9.637349E-1	9.936420E-1	9.420746E-1	9.456454E-1	9.720428E-1	9.442915E-1	9.587518E-1	9.694427E-1	9.901284E-1	9.881531E-1	9.933760E-1	9.945407E-1	1.014256E+0	9.725421E-1	9.894867E-1	9.337324E-1	1.032437E+0	1.001968E+0	1.006001E+0	9.780446E-1	9.846886E-1	9.655661E-1	9.924364E-1	9.472147E-1	1.026873E+0	9.723294E-1	9.848334E-1	9.849711E-1	9.792068E-1	1.000665E+0	9.563618E-1	9.816947E-1	9.279709E-1	9.770528E-1	9.708182E-1	9.688128E-1	9.543887E-1	1.021306E+0	9.861699E-1	9.891019E-1	9.614542E-1	9.934656E-1	9.863209E-1	1.023800E+0	1.018169E+0	9.552056E-1	9.429311E-1	9.939123E-1	1.017801E+0	9.925427E-1	9.395448E-1	1.023251E+0	9.670386E-1	1.009305E+0	9.696213E-1	9.590886E-1	1.038575E+0	1.016213E+0	9.587052E-1	9.572131E-1	9.918974E-1	9.623111E-1	1.000723E+0	9.447679E-1	9.925225E-1	9.824205E-1	1.003653E+0	9.703525E-1	1.002505E+0	1.013200E+0	9.402863E-1	9.619469E-1	9.973439E-1	9.691155E-1	9.879042E-1	9.785426E-1	1.001756E+0	9.673317E-1	9.548078E-1	9.981006E-1	9.407238E-1	9.741157E-1	1.006379E+0	9.631558E-1	9.771532E-1	1.011170E+0	9.815595E-1	9.868393E-1	9.749146E-1	9.909952E-1	9.359309E-1	9.735519E-1	1.009021E+0	1.020105E+0	9.741159E-1	9.860328E-1	1.026619E+0	1.020082E+0	9.539729E-1	9.894661E-1	9.619548E-1	9.855442E-1	9.719330E-1	9.734752E-1	1.030927E+0	9.544314E-1	1.010218E+0	9.511803E-1	9.758830E-1	1.030359E+0	9.826438E-1	9.817079E-1	9.769364E-1	9.660757E-1	9.730195E-1	9.769748E-1	9.573132E-1	9.968147E-1	9.633721E-1	9.604657E-1	1.007503E+0	9.693670E-1	9.834338E-1	9.320808E-1	1.021204E+0	9.587617E-1	9.659859E-1	9.466239E-1	1.009429E+0	9.730668E-1	9.703317E-1	9.823980E-1	9.883541E-1	1.051567E+0	9.533162E-1	9.720088E-1	9.687792E-1	9.748239E-1	9.408986E-1	9.826566E-1	9.821235E-1	9.938513E-1	9.411998E-1	9.461149E-1	9.670017E-1	9.930153E-1	9.597234E-1	9.713845E-1	1.016638E+0	9.563016E-1	1.007666E+0	9.931921E-1
5.575640E+2	9.601289E-1	9.597879E-1	9.598727E-1	9.913226E-1	1.009576E+0	9.839198E-1	9.913920E-1	1.020787E+0	9.741303E-1	1.015755E+0	1.026386E+0	9.359095E-1	9.764193E-1	9.790488E-1	9.796233E-1	1.007335E+0	1.001056E+0	1.006747E+0	9.821174E-1	9.894310E-1	9.824991E-1	9.974455E-1	9.925458E-1	1.023507E+0	1.002117E+0	9.818186E-1	1.013808E+0	9.814394E-1	1.008471E+0	9.712911E-1	9.928120E-1	9.554579E-1	9.976184E-1	9.672903E-1	9.803381E-1	9.905286E-1	9.840148E-1	1.017272E+0	9.576465E-1	1.015812E+0	1.007358E+0	1.027349E+0	1.026584E+0	9.569822E-1	9.971720E-1	9.809631E-1	9.799581E-1	1.009727E+0	1.016503E+0	9.805837E-1	9.805204E-1	1.003502E+0	9.806416E-1	9.958873E-1	1.008072E+0	9.833118E-1	1.010753E+0	9.622638E-1	1.001154E+0	1.021095E+0	9.884183E-1	1.015347E+0	1.011311E+0	1.000824E+0	1.010155E+0	9.799089E-1	1.007679E+0	9.530399E-1	9.897367E-1	9.524736E-1	9.482167E-1	1.053997E+0	9.762466E-1	9.945452E-1	9.847253E-1	1.001287E+0	9.676503E-1	9.723747E-1	9.904736E-1	9.781726E-1	1.023349E+0	9.910949E-1	9.716426E-1	9.838004E-1	9.965494E-1	1.001194E+0	9.890907E-1	9.682310E-1	9.904677E-1	9.723612E-1	9.874301E-1	9.780742E-1	1.014217E+0	9.809920E-1	9.741547E-1	1.006234E+0	9.843590E-1	9.889554E-1	9.369489E-1	9.855668E-1	1.006441E+0	9.979496E-1	9.772305E-1	9.953092E-1	1.028229E+0	9.656761E-1	9.641269E-1	9.742698E-1	1.000695E+0	9.853036E-1	9.888857E-1	9.402752E-1	9.974691E-1	9.403660E-1	9.664300E-1	9.550392E-1	9.977820E-1	9.975948E-1	1.017444E+0	1.009390E+0	1.028636E+0	9.790345E-1	9.739219E-1	1.018092E+0	9.705624E-1	9.537742E-1	9.473893E-1	1.015282E+0	9.757178E-1	9.628851E-1	9.654757E-1	9.868256E-1	9.597972E-1	1.008421E+0	9.985390E-1	9.913676E-1	9.931845E-1	9.859222E-1	9.814248E-1	9.741905E-1	9.836255E-1	9.844519E-1	1.020577E+0	1.033220E+0	1.023889E+0	1.036723E+0	9.936868E-1	9.893885E-1	9.795082E-1	9.766821E-1	9.812057E-1	1.011293E+0	1.003758E+0	9.906478E-1	1.000668E+0	1.006513E+0	1.038658E+0	9.899016E-1	9.913729E-1	9.606743E-1	9.290922E-1	9.632955E-1	1.014751E+0	9.655503E-1	9.525331E-1	1.011231E+0	9.598206E-1	1.002706E+0	9.890957E-1	9.363566E-1	9.942004E-1
5.580230E+2	1.012735E+0	1.001467E+0	1.023042E+0	9.697684E-1	1.000866E+0	1.044410E+0	1.006035E+0	9.918226E-1	9.867521E-1	1.030921E+0	1.013166E+0	1.003886E+0	9.906401E-1	9.499061E-1	1.010545E+0	1.019633E+0	1.011319E+0	9.793705E-1	9.935638E-1	9.829484E-1	1.064428E+0	1.004579E+0	1.006402E+0	9.970771E-1	1.014321E+0	1.008839E+0	9.905261E-1	1.002638E+0	9.929291E-1	9.906419E-1	1.029633E+0	1.004807E+0	9.564712E-1	9.905346E-1	1.037970E+0	9.835192E-1	9.838728E-1	1.002568E+0	9.849387E-1	1.025255E+0	9.978632E-1	1.003738E+0	9.606535E-1	9.995360E-1	9.720170E-1	9.903186E-1	9.782384E-1	9.893016E-1	1.009909E+0	1.009375E+0	1.000967E+0	1.006893E+0	9.880398E-1	9.747300E-1	9.696072E-1	9.989565E-1	1.030476E+0	1.023977E+0	1.028689E+0	9.850321E-1	1.008873E+0	1.000173E+0	1.022990E+0	9.843394E-1	1.016509E+0	9.826613E-1	9.754023E-1	1.032128E+0	9.702970E-1	1.038615E+0	1.009164E+0	9.723947E-1	1.000216E+0	1.025186E+0	1.010258E+0	1.001472E+0	9.802916E-1	1.009790E+0	1.014777E+0	9.549747E-1	1.017209E+0	9.706855E-1	1.016099E+0	9.689589E-1	9.856533E-1	9.844991E-1	1.018508E+0	1.021112E+0	1.031119E+0	9.983150E-1	1.019235E+0	1.013618E+0	1.008849E+0	1.032920E+0	1.020303E+0	1.006333E+0	1.063393E+0	1.009081E+0	9.946318E-1	9.576996E-1	9.634553E-1	9.530440E-1	9.392623E-1	9.939699E-1	9.780421E-1	9.978038E-1	9.923681E-1	9.900527E-1	1.015002E+0	9.946820E-1	1.012065E+0	1.011103E+0	9.797169E-1	1.004280E+0	1.026620E+0	9.826025E-1	9.755797E-1	1.032666E+0	9.969658E-1	9.906120E-1	9.981852E-1	1.019274E+0	1.004110E+0	9.748033E-1	1.002053E+0	9.465137E-1	1.014321E+0	1.018198E+0	9.788156E-1	9.957365E-1	9.813830E-1	9.908437E-1	9.716289E-1	9.670870E-1	9.909167E-1	9.502721E-1	9.815451E-1	1.025728E+0	1.013261E+0	1.004912E+0	1.012124E+0	9.900682E-1	9.985943E-1	1.004143E+0	9.726828E-1	9.362492E-1	1.027621E+0	1.005913E+0	1.003404E+0	9.934502E-1	1.023679E+0	1.015003E+0	9.862173E-1	1.002641E+0	9.730035E-1	1.019224E+0	1.002120E+0	1.010489E+0	1.034775E+0	1.014414E+0	9.698623E-1	1.036194E+0	9.653217E-1	9.718582E-1	9.832335E-1	1.034005E+0	1.045518E+0	1.000666E+0	1.028475E+0	1.002733E+0	9.447045E-1
5.585220E+2	1.022764E+0	1.005542E+0	1.037637E+0	9.966579E-1	1.007798E+0	9.869667E-1	1.030103E+0	1.019934E+0	1.014622E+0	1.020892E+0	1.006080E+0	9.937938E-1	1.033347E+0	1.003649E+0	1.023050E+0	9.519872E-1	1.038390E+0	1.016183E+0	9.750897E-1	1.025406E+0	9.914550E-1	9.711509E-1	9.919958E-1	9.903208E-1	1.059070E+0	1.029111E+0	1.023268E+0	9.795839E-1	9.971908E-1	9.789763E-1	9.903454E-1	1.003225E+0	1.008641E+0	1.022232E+0	1.020494E+0	9.920956E-1	1.014110E+0	1.002683E+0	9.872491E-1	1.011253E+0	1.058024E+0	1.041306E+0	9.689618E-1	1.028769E+0	9.750106E-1	1.029162E+0	1.016898E+0	1.005494E+0	1.017009E+0	1.003395E+0	9.909842E-1	1.010917E+0	9.971023E-1	1.032959E+0	1.021262E+0	1.014208E+0	1.027967E+0	1.028089E+0	1.015349E+0	9.962388E-1	1.025849E+0	9.736292E-1	9.804155E-1	1.016596E+0	9.722348E-1	1.016689E+0	1.016644E+0	1.004818E+0	1.031954E+0	1.017132E+0	9.929092E-1	9.806075E-1	9.957539E-1	9.836396E-1	1.032822E+0	1.001807E+0	1.041466E+0	1.020302E+0	1.020085E+0	1.031261E+0	9.577487E-1	1.036908E+0	9.987455E-1	9.993336E-1	9.926204E-1	1.014005E+0	9.966135E-1	1.001530E+0	9.688820E-1	1.025828E+0	1.050625E+0	1.042198E+0	1.021861E+0	1.015429E+0	9.730383E-1	9.822504E-1	1.028220E+0	1.042129E+0	1.008805E+0	1.033738E+0	1.005812E+0	9.752246E-1	1.023177E+0	1.017809E+0	9.898891E-1	1.021690E+0	9.504064E-1	9.731887E-1	9.626362E-1	9.853007E-1	1.051908E+0	9.946212E-1	9.831621E-1	1.040179E+0	1.022877E+0	1.028525E+0	1.042890E+0	1.055060E+0	1.011186E+0	1.036224E+0	9.807395E-1	1.021039E+0	9.855999E-1	1.020442E+0	1.026774E+0	1.025755E+0	1.039585E+0	1.012879E+0	9.802212E-1	1.010001E+0	1.046319E+0	1.027152E+0	1.038714E+0	1.025348E+0	9.702360E-1	1.018352E+0	1.032386E+0	1.025693E+0	9.987950E-1	9.926433E-1	1.042853E+0	1.013637E+0	1.019324E+0	1.014443E+0	1.054060E+0	9.894225E-1	1.008179E+0	1.020238E+0	1.017653E+0	1.053794E+0	9.825601E-1	1.012049E+0	1.002463E+0	9.938254E-1	1.002187E+0	1.005055E+0	9.849386E-1	1.004552E+0	1.016886E+0	1.028967E+0	9.484383E-1	1.015495E+0	1.036403E+0	1.006875E+0	9.795630E-1	1.009950E+0	1.034094E+0	1.045508E+0	1.021631E+0	9.795411E-1	9.992143E-1
5.590160E+2	1.003117E+0	1.051495E+0	1.056754E+0	1.039618E+0	1.070488E+0	1.028631E+0	1.048337E+0	1.023807E+0	1.022333E+0	1.028373E+0	1.037695E+0	1.046976E+0	9.762833E-1	1.009376E+0	1.051930E+0	1.002153E+0	1.018909E+0	1.051045E+0	9.819921E-1	1.035891E+0	1.048802E+0	1.042711E+0	1.026695E+0	9.677751E-1	1.038559E+0	1.039048E+0	1.004147E+0	9.992717E-1	1.044474E+0	1.042219E+0	1.034437E+0	1.050904E+0	1.024521E+0	1.065451E+0	1.018140E+0	9.906193E-1	1.021681E+0	1.043689E+0	1.030432E+0	1.033507E+0	1.041274E+0	1.024862E+0	1.045582E+0	9.959274E-1	1.088166E+0	1.015655E+0	1.064623E+0	1.002897E+0	1.004858E+0	1.054774E+0	9.985988E-1	1.017461E+0	1.039806E+0	1.023529E+0	1.040593E+0	9.910211E-1	1.006771E+0	1.002779E+0	1.027325E+0	1.041566E+0	9.939726E-1	1.037945E+0	9.978307E-1	1.007841E+0	1.072591E+0	1.000146E+0	1.014739E+0	9.640106E-1	9.860932E-1	1.014420E+0	1.036281E+0	1.022224E+0	1.034653E+0	1.050613E+0	1.038881E+0	9.978714E-1	9.892956E-1	1.008843E+0	1.026810E+0	1.016752E+0	1.044131E+0	1.016922E+0	1.047133E+0	1.032402E+0	1.009811E+0	1.028775E+0	1.007298E+0	9.933737E-1	1.010843E+0	1.027742E+0	9.728761E-1	1.006285E+0	1.044912E+0	9.792255E-1	1.025470E+0	1.032829E+0	9.980814E-1	1.032184E+0	1.018580E+0	1.007845E+0	1.049073E+0	1.043489E+0	1.042081E+0	1.016924E+0	1.055227E+0	1.016474E+0	1.056076E+0	1.018411E+0	1.022423E+0	1.037257E+0	1.021933E+0	1.050570E+0	1.007965E+0	1.044490E+0	1.035563E+0	1.035419E+0	9.995342E-1	1.034130E+0	1.062986E+0	9.907401E-1	9.888731E-1	1.022969E+0	1.052687E+0	1.027228E+0	1.071311E+0	1.027587E+0	9.815368E-1	1.032868E+0	1.032240E+0	1.011309E+0	1.005472E+0	1.062501E+0	1.044043E+0	1.015772E+0	1.012446E+0	1.024238E+0	1.006922E+0	1.039004E+0	1.083739E+0	1.028338E+0	1.026525E+0	1.034946E+0	1.033135E+0	9.935274E-1	1.006079E+0	1.052599E+0	1.020267E+0	1.008212E+0	9.876943E-1	1.026755E+0	1.025912E+0	1.008241E+0	1.028231E+0	1.019494E+0	1.037602E+0	1.054488E+0	9.937781E-1	1.009628E+0	1.035321E+0	1.029361E+0	1.031176E+0	1.024821E+0	1.026194E+0	1.044123E+0	1.072254E+0	1.054656E+0	1.015181E+0	9.716945E-1	1.052748E+0	1.022907E+0	1.133754E+0
5.595110E+2	1.055354E+0	9.738480E-1	9.809529E-1	1.038073E+0	1.025360E+0	1.016664E+0	1.020626E+0	1.046311E+0	1.039560E+0	1.001155E+0	1.019463E+0	1.031759E+0	1.030500E+0	1.085266E+0	9.997768E-1	1.027591E+0	1.002633E+0	1.034755E+0	1.042753E+0	1.014445E+0	1.001871E+0	1.011166E+0	1.058101E+0	1.051611E+0	9.848947E-1	1.020438E+0	9.629969E-1	1.064159E+0	1.031472E+0	9.801786E-1	1.037750E+0	9.967125E-1	1.004711E+0	1.006511E+0	1.035344E+0	1.002800E+0	9.995452E-1	9.774608E-1	1.015654E+0	9.769464E-1	1.000836E+0	1.010381E+0	1.038070E+0	1.035570E+0	1.033221E+0	9.887569E-1	1.005569E+0	1.027900E+0	1.004358E+0	9.932785E-1	1.008231E+0	1.031707E+0	1.012005E+0	1.002503E+0	1.020694E+0	1.031792E+0	1.018818E+0	1.051274E+0	1.036765E+0	9.999202E-1	9.895413E-1	1.015069E+0	1.033600E+0	1.033330E+0	1.016126E+0	1.044912E+0	1.003824E+0	9.918804E-1	9.726731E-1	1.036331E+0	9.952362E-1	1.019798E+0	1.003813E+0	9.972942E-1	1.037748E+0	1.018001E+0	1.031336E+0	9.861258E-1	1.048831E+0	1.029792E+0	1.022800E+0	1.038431E+0	1.008863E+0	1.046072E+0	1.044020E+0	1.022428E+0	1.036805E+0	1.041373E+0	1.047528E+0	1.027084E+0	1.001169E+0	1.040611E+0	1.030381E+0	1.002271E+0	1.012966E+0	1.004943E+0	9.935033E-1	1.023212E+0	1.017488E+0	1.015975E+0	1.012064E+0	1.061431E+0	1.017227E+0	1.043590E+0	1.011850E+0	1.017131E+0	1.031174E+0	1.019417E+0	1.027141E+0	1.058320E+0	1.013780E+0	1.009981E+0	1.061105E+0	1.016353E+0	1.015976E+0	1.037956E+0	9.920719E-1	9.986741E-1	9.851712E-1	9.857786E-1	1.001063E+0	1.005098E+0	9.974403E-1	9.773089E-1	1.004927E+0	1.006441E+0	1.085983E+0	1.008663E+0	1.026710E+0	1.029651E+0	9.845895E-1	9.940695E-1	1.019393E+0	9.952871E-1	1.038056E+0	1.050243E+0	1.018344E+0	1.018692E+0	1.026307E+0	1.026235E+0	1.046298E+0	1.008976E+0	1.025535E+0	9.552347E-1	9.950332E-1	1.063721E+0	1.009139E+0	1.030036E+0	1.011454E+0	1.034990E+0	1.002488E+0	1.034881E+0	1.021642E+0	1.008760E+0	1.038083E+0	1.018370E+0	1.027496E+0	1.019960E+0	9.703407E-1	1.021867E+0	1.042080E+0	1.048146E+0	9.991434E-1	1.023161E+0	9.955809E-1	9.823266E-1	9.976260E-1	9.757124E-1	1.024480E+0	1.013604E+0	9.602554E-1
5.600300E+2	1.030695E+0	1.018499E+0	9.845630E-1	1.013584E+0	9.911808E-1	9.950929E-1	9.994055E-1	9.784855E-1	1.045191E+0	1.008920E+0	9.870584E-1	1.014465E+0	9.830006E-1	9.908990E-1	1.001393E+0	9.821070E-1	9.670897E-1	9.723984E-1	1.014619E+0	1.009690E+0	1.005482E+0	9.974453E-1	1.039594E+0	1.018906E+0	9.861317E-1	9.887085E-1	1.037018E+0	1.013898E+0	9.630650E-1	1.021380E+0	1.002635E+0	1.016438E+0	1.009588E+0	9.694991E-1	9.628888E-1	1.013137E+0	1.020055E+0	1.004171E+0	1.020420E+0	9.906083E-1	1.014042E+0	9.966193E-1	1.024311E+0	9.739018E-1	9.745564E-1	1.010606E+0	9.921827E-1	1.008479E+0	1.017517E+0	1.048824E+0	1.007967E+0	9.965242E-1	1.014325E+0	1.022712E+0	9.862980E-1	1.015040E+0	1.015125E+0	9.848580E-1	9.897189E-1	9.763051E-1	1.017619E+0	9.945166E-1	1.007313E+0	9.715772E-1	9.729531E-1	1.013790E+0	9.859932E-1	1.046530E+0	1.012103E+0	1.009738E+0	1.020265E+0	9.913234E-1	9.904866E-1	9.859977E-1	9.628102E-1	9.800340E-1	1.012333E+0	1.005294E+0	1.022333E+0	9.654938E-1	9.889643E-1	9.950197E-1	1.040821E+0	1.005101E+0	9.956034E-1	9.690692E-1	1.018598E+0	1.020209E+0	9.805806E-1	9.903322E-1	1.002346E+0	9.899659E-1	1.001193E+0	1.014656E+0	1.009313E+0	9.681474E-1	9.919969E-1	9.448243E-1	1.007049E+0	1.004807E+0	1.030635E+0	1.033811E+0	9.650361E-1	9.921355E-1	9.561931E-1	1.005920E+0	1.035490E+0	9.976062E-1	1.001334E+0	1.006986E+0	1.003478E+0	9.957309E-1	9.867649E-1	9.650288E-1	1.004200E+0	9.481431E-1	9.759571E-1	9.895789E-1	1.010755E+0	1.040735E+0	1.012763E+0	1.022268E+0	9.746097E-1	1.001073E+0	1.006854E+0	1.016197E+0	1.027070E+0	9.793726E-1	9.887978E-1	1.009836E+0	9.740163E-1	1.015951E+0	1.015840E+0	1.009725E+0	9.960082E-1	1.037549E+0	1.040851E+0	9.814801E-1	1.007715E+0	9.997426E-1	9.844904E-1	9.838001E-1	1.011210E+0	9.763939E-1	1.020115E+0	9.955245E-1	1.007765E+0	9.814639E-1	1.026510E+0	9.746717E-1	9.983754E-1	9.884267E-1	9.578497E-1	9.997883E-1	1.044918E+0	9.888082E-1	9.607781E-1	1.027895E+0	9.825166E-1	1.003666E+0	1.036499E+0	9.744696E-1	1.026349E+0	1.010115E+0	1.039591E+0	1.008176E+0	1.011025E+0	1.011132E+0	1.010235E+0	1.011052E+0	1.007615E+0
5.605090E+2	1.037185E+0	1.038443E+0	9.967336E-1	1.020079E+0	9.650312E-1	1.013321E+0	9.780466E-1	9.983906E-1	9.916645E-1	9.808480E-1	1.004557E+0	1.026432E+0	9.745270E-1	1.002373E+0	9.888140E-1	1.014909E+0	9.958520E-1	1.008413E+0	1.018129E+0	9.965341E-1	9.761889E-1	1.006826E+0	9.795809E-1	1.002316E+0	1.018163E+0	1.037251E+0	1.009647E+0	9.897496E-1	1.013437E+0	1.016646E+0	9.655272E-1	1.013875E+0	1.021881E+0	1.014884E+0	1.052824E+0	9.854979E-1	9.842827E-1	9.826280E-1	1.039988E+0	9.919439E-1	9.784527E-1	1.024882E+0	1.012050E+0	1.001853E+0	1.010857E+0	1.023292E+0	1.014169E+0	1.031052E+0	9.694662E-1	1.025884E+0	9.875636E-1	1.000389E+0	1.022172E+0	9.843359E-1	1.010082E+0	9.638444E-1	9.854475E-1	9.927393E-1	9.804445E-1	9.858357E-1	9.795748E-1	1.003345E+0	9.637554E-1	9.542600E-1	1.000531E+0	1.040663E+0	9.907774E-1	9.802706E-1	1.015642E+0	1.012505E+0	9.901928E-1	1.004364E+0	1.022506E+0	9.992059E-1	1.001435E+0	9.921306E-1	1.002137E+0	1.035789E+0	9.841474E-1	1.072987E+0	1.017180E+0	9.771519E-1	1.004070E+0	1.043755E+0	1.000875E+0	9.776912E-1	1.007719E+0	9.944495E-1	9.725807E-1	1.003545E+0	1.029029E+0	9.896658E-1	9.817991E-1	9.793833E-1	1.007212E+0	9.925171E-1	9.982876E-1	1.030122E+0	1.003748E+0	1.030670E+0	9.806402E-1	1.017367E+0	1.055178E+0	1.003236E+0	9.973611E-1	1.020477E+0	1.020697E+0	1.048635E+0	1.013242E+0	1.021683E+0	9.589880E-1	9.777602E-1	9.940730E-1	1.030611E+0	9.992584E-1	1.030851E+0	1.035713E+0	9.783531E-1	1.003177E+0	1.006024E+0	1.024553E+0	9.962745E-1	1.028649E+0	9.897422E-1	1.014573E+0	1.022385E+0	1.015543E+0	9.803130E-1	9.904734E-1	9.848874E-1	1.039565E+0	9.612101E-1	1.014513E+0	9.893418E-1	1.008603E+0	1.004613E+0	9.462224E-1	1.022869E+0	9.736713E-1	1.001228E+0	9.798288E-1	1.013675E+0	1.014160E+0	1.001545E+0	1.007576E+0	9.596070E-1	1.016610E+0	1.009585E+0	1.007783E+0	1.008295E+0	1.046312E+0	9.416711E-1	1.000359E+0	1.009783E+0	9.972786E-1	9.892927E-1	1.002128E+0	1.022166E+0	1.031293E+0	9.739537E-1	1.040706E+0	9.973996E-1	9.949930E-1	9.877050E-1	1.003942E+0	9.919380E-1	1.021316E+0	9.598411E-1	9.812484E-1	9.923367E-1	1.052560E+0
5.610010E+2	9.696428E-1	1.015673E+0	1.001588E+0	9.760183E-1	1.001633E+0	1.010013E+0	1.035072E+0	9.702815E-1	9.729190E-1	9.913518E-1	9.977909E-1	1.004200E+0	1.025879E+0	9.775001E-1	1.017524E+0	1.030960E+0	1.020895E+0	9.734223E-1	1.035610E+0	9.985333E-1	9.967763E-1	1.013114E+0	1.010000E+0	1.023406E+0	1.011852E+0	9.652864E-1	1.021395E+0	1.022338E+0	9.672084E-1	1.057881E+0	1.020569E+0	9.884538E-1	9.942221E-1	1.003640E+0	1.000123E+0	1.018740E+0	9.936564E-1	9.972721E-1	9.777521E-1	9.834473E-1	9.842235E-1	9.639596E-1	9.984955E-1	1.008459E+0	1.002751E+0	1.024956E+0	9.704478E-1	9.722380E-1	1.004369E+0	9.822440E-1	1.035989E+0	1.011351E+0	1.009322E+0	9.902482E-1	9.774295E-1	1.036436E+0	9.501545E-1	1.025900E+0	9.817118E-1	1.024511E+0	9.885696E-1	9.987984E-1	9.902795E-1	1.046861E+0	1.021822E+0	9.940795E-1	9.987968E-1	1.023564E+0	1.006372E+0	1.033766E+0	9.885653E-1	1.025016E+0	1.008096E+0	1.013191E+0	1.013069E+0	1.006057E+0	9.922775E-1	1.042320E+0	9.732558E-1	9.894167E-1	9.915495E-1	9.793917E-1	9.834774E-1	9.759588E-1	1.026149E+0	1.012312E+0	9.864685E-1	1.010118E+0	1.014848E+0	1.064413E+0	1.023394E+0	9.842924E-1	9.890711E-1	1.050543E+0	9.952374E-1	1.039457E+0	1.025079E+0	9.907098E-1	1.026878E+0	1.015259E+0	1.016174E+0	9.998892E-1	1.019636E+0	9.936193E-1	9.534883E-1	9.864912E-1	9.965197E-1	1.039719E+0	9.872551E-1	9.941254E-1	1.003489E+0	1.039684E+0	1.009605E+0	1.020484E+0	9.731763E-1	9.786763E-1	9.911809E-1	9.988242E-1	9.808812E-1	1.020506E+0	1.005245E+0	1.018847E+0	1.039529E+0	9.956702E-1	9.647040E-1	1.002999E+0	9.885589E-1	1.010248E+0	1.060367E+0	1.046907E+0	1.021489E+0	1.024729E+0	9.449272E-1	1.004951E+0	1.039476E+0	9.871561E-1	9.953315E-1	1.009739E+0	9.964355E-1	9.794106E-1	9.811120E-1	9.815674E-1	9.918787E-1	1.018733E+0	9.980983E-1	1.043053E+0	9.909949E-1	9.483441E-1	1.023764E+0	1.021679E+0	1.006674E+0	9.898192E-1	1.018749E+0	1.047542E+0	9.641082E-1	9.787971E-1	1.036747E+0	1.002168E+0	1.001560E+0	1.004700E+0	9.860924E-1	1.016312E+0	1.033060E+0	1.031302E+0	1.012131E+0	1.007644E+0	9.921965E-1	9.928317E-1	9.659238E-1	1.004856E+0	9.555012E-1
