Photon Energy (eV)	#1	#2	#3	#4	#5	#6	#7	#8	#9	#10	#11	#12	#13	#14	#15	#16	#17	#18	#19	#20	#21	#22	#23	#24	#25	#26	#27	#28	#29	#30	#31	#32	#33	#34	#35	#36	#37	#38	#39	#40	#41	#42	#43	#44	#45	#46	#47	#48	#49	#50	#51	#52	#53	#54	#55	#56	#57	#58	#59	#60	#61	#62	#63	#64	#65	#66	#67	#68	#69	#70	#71	#72	#73	#74	#75	#76	#77	#78	#79	#80	#81	#82	#83	#84	#85	#86	#87	#88	#89	#90	#91	#92	#93	#94	#95	#96	#97	#98	#99	#100	#101	#102	#103	#104	#105	#106	#107	#108	#109	#110	#111	#112	#113	#114	#115	#116	#117	#118	#119	#120	#121	#122	#123	#124	#125	#126	#127	#128	#129	#130	#131	#132	#133	#134	#135	#136	#137	#138	#139	#140	#141	#142	#143	#144	#145	#146	#147	#148	#149	#150	#151	#152	#153	#154	#155	#156	#157	#158	#159	#160	#161	#162	#163	#164	#165	#166	#167	#168	#169	#170	
5.300110E+2	-3.264740E-3	-8.052698E-4	1.981590E-3	-6.155805E-3	-1.605446E-2	-1.240073E-2	-2.987935E-3	-2.021427E-3	1.841716E-3	-1.550678E-2	-5.511947E-3	-3.101923E-3	-1.451844E-2	-5.441008E-3	-6.449158E-3	-8.388270E-3	-5.326476E-3	-5.666725E-3	-1.305553E-2	-5.219098E-3	-4.973945E-3	-6.490850E-3	8.011147E-3	-9.473710E-4	-4.136213E-3	-9.634084E-3	-6.546721E-3	-5.028100E-3	-7.075243E-3	-8.774928E-3	-1.034307E-2	-5.061930E-3	-5.875998E-3	-1.067875E-2	-8.670359E-3	-7.456839E-3	-7.799609E-3	-1.468340E-3	1.547335E-3	2.269477E-3	-3.682989E-3	-4.298354E-3	-6.675474E-3	-7.092802E-3	-3.728046E-3	-7.985715E-3	-6.252492E-3	-1.260828E-2	-2.517856E-3	-1.206343E-3	-1.011516E-2	2.946207E-3	-9.039985E-3	-4.408728E-3	-2.248909E-3	-3.780702E-3	-1.361785E-4	-2.112965E-3	-9.169194E-3	4.061426E-3	1.382859E-3	3.955695E-4	-1.777444E-3	2.558696E-4	-1.035666E-2	-1.371583E-3	-1.061577E-2	-3.173692E-3	-9.308688E-3	-9.768266E-3	-2.863608E-3	-5.289054E-3	-1.184842E-2	-9.511558E-3	-1.230554E-2	-5.672648E-3	-2.847784E-3	-8.064207E-3	-7.487837E-3	1.070789E-3	-5.574138E-3	-1.505206E-3	-4.506236E-3	-5.969727E-3	1.114447E-3	-5.202723E-3	-9.932252E-3	-1.156029E-2	-9.791024E-3	-6.776436E-3	-6.448541E-3	-7.243750E-3	-6.486975E-3	-3.469967E-3	-3.154157E-3	1.066959E-3	-1.168447E-2	-4.474949E-3	-9.870895E-3	-2.248623E-3	-6.019187E-3	-1.163915E-2	-1.013965E-2	-7.712805E-4	-6.363228E-3	-6.770865E-3	-4.843578E-3	-1.639643E-3	-1.701158E-3	-2.977053E-3	-2.854434E-3	-8.043759E-3	-4.713934E-3	-6.089955E-3	-8.434173E-3	-6.681174E-4	-1.060577E-2	-6.983161E-3	4.160438E-3	-1.106518E-2	-9.085424E-3	-4.778182E-3	1.458953E-3	-8.152601E-3	1.189034E-3	-1.123526E-2	-1.035800E-2	-6.391322E-4	-3.217212E-3	-3.278847E-3	-1.170492E-2	-8.638789E-4	-8.081758E-3	-8.351098E-3	-7.110541E-4	-7.613332E-3	-9.999698E-3	-1.949513E-3	-1.234426E-3	-1.162301E-2	-1.055283E-2	-9.616527E-3	-1.053244E-2	-5.565829E-3	-5.663146E-3	-3.200263E-3	-7.699541E-4	-2.636529E-3	-8.504482E-3	-5.669813E-3	-1.474612E-2	-6.901012E-4	-4.918186E-5	-5.804513E-4	-8.098881E-3	-7.098951E-3	-5.193431E-3	9.213193E-4	-6.763916E-3	1.274817E-3	-6.352888E-3	-7.465071E-3	-6.738189E-3	-6.716716E-3	-4.389486E-3	1.989646E-3	-2.430760E-3	-1.132843E-6	-1.728865E-2	-2.493271E-3
5.305180E+2	-5.788951E-3	-3.087255E-3	-4.267372E-3	1.783150E-3	1.178161E-3	-8.952430E-3	-2.710046E-3	-1.768124E-3	2.135709E-3	-7.364861E-3	-3.825740E-3	-1.731009E-3	2.979076E-3	-2.339611E-3	-3.504695E-3	-5.875488E-4	-6.013801E-3	5.587843E-4	-2.232804E-3	-6.091165E-3	3.958811E-3	-5.100810E-3	-2.235910E-3	-1.582914E-3	-2.309227E-3	-3.781930E-3	-2.720619E-3	2.518069E-3	-1.645335E-3	-4.472364E-3	-4.684042E-3	1.274109E-3	-5.602879E-3	-4.740165E-3	-1.061643E-3	-4.132255E-3	1.819285E-3	-4.867538E-3	-4.712488E-3	2.904741E-4	-6.107911E-3	-7.032770E-3	-3.449027E-4	-3.779402E-3	-7.729979E-3	-3.879674E-3	-1.881096E-4	-6.957877E-3	-7.498601E-3	4.800934E-3	-2.176604E-3	-8.919685E-3	-2.491173E-3	6.036778E-4	-7.743498E-4	-4.929848E-3	-4.376773E-3	-8.571441E-3	-1.206055E-4	-5.415251E-3	-7.295836E-3	-1.122775E-2	-4.606497E-3	-1.212399E-2	-6.904729E-3	-6.596090E-3	-3.334232E-3	-1.822236E-3	-4.164374E-3	-2.588879E-3	-5.664726E-3	-7.446352E-4	-3.133228E-3	-1.803208E-3	-1.758998E-3	-8.583636E-3	-8.178020E-3	-3.013303E-3	-7.716669E-3	-2.741419E-3	-4.735138E-3	-8.495505E-3	-3.684566E-3	-6.764712E-4	-3.425360E-3	-4.421446E-3	-9.174871E-3	-1.131925E-2	-7.992845E-3	-8.071946E-3	9.217376E-4	2.831076E-3	-7.234282E-3	-4.667257E-3	-3.815410E-3	-5.751986E-3	-3.217918E-3	-3.070654E-3	-6.810157E-3	-4.631504E-3	-3.850160E-3	-8.685740E-3	6.241751E-3	-8.480768E-3	-6.126343E-3	-9.728718E-3	-1.197776E-2	-1.879909E-3	-4.423660E-3	2.911725E-3	-7.948660E-3	-3.139407E-3	-1.061048E-2	-8.059542E-4	-4.945914E-3	-1.425220E-3	1.859468E-3	7.424754E-4	-4.805311E-3	-3.488338E-3	-2.158925E-3	-3.977389E-3	-9.452583E-3	5.248959E-3	-3.065066E-3	4.640274E-3	-9.594607E-3	-1.663298E-3	-2.427466E-3	-2.396691E-3	-2.812333E-3	-9.262823E-3	-3.258054E-3	-2.588189E-3	-8.486726E-3	-1.445337E-3	-2.597888E-3	-8.318525E-3	-9.723713E-3	-3.352522E-3	2.787382E-3	-4.613918E-3	7.069043E-4	-3.038956E-3	-3.820950E-3	-5.040157E-5	7.087119E-4	-7.877344E-4	-9.681115E-3	-1.530965E-3	-2.602267E-3	-2.726924E-3	7.744247E-4	-2.988327E-3	-1.950817E-3	-7.279118E-3	-4.430959E-3	-6.086887E-3	-1.183687E-2	-3.257443E-3	-3.038950E-3	-2.709253E-3	-1.602948E-3	-4.819090E-3	-3.195112E-3	3.394548E-3	-3.420274E-4	-2.757345E-3	-9.530847E-4	9.866812E-3
5.310150E+2	3.331041E-5	-7.033451E-3	-1.118380E-3	-3.554504E-3	-3.377632E-3	-1.855907E-3	-7.955882E-3	-4.010096E-3	-5.547566E-3	2.267191E-3	-1.328036E-2	-1.264241E-2	-1.402903E-3	7.023490E-4	3.503255E-3	-3.983230E-3	-3.487864E-3	-5.501894E-3	-6.261442E-3	-4.799345E-3	-3.193563E-3	-1.137302E-3	-4.120211E-3	-7.662018E-3	-6.209133E-3	-2.596507E-3	-5.513513E-3	-5.641837E-3	-4.278961E-3	-7.758695E-3	4.844538E-4	-1.027932E-2	-7.911634E-3	-8.764807E-3	2.064289E-3	-1.063592E-2	-4.662057E-3	-1.096637E-2	-1.030505E-2	-4.146056E-3	-2.091625E-3	-7.586267E-4	5.419844E-3	-3.084897E-3	-3.290752E-3	2.163623E-3	2.922382E-3	6.213721E-3	-5.744308E-3	-8.137829E-3	-9.051584E-4	-5.853881E-5	2.224200E-3	-4.657682E-4	-5.536074E-3	-1.056486E-2	-2.624177E-3	-4.100025E-3	2.886299E-3	-7.311959E-3	-4.277181E-3	4.781377E-3	-7.572065E-4	3.540030E-3	-3.517168E-3	-7.706219E-3	4.256497E-3	-7.374052E-3	-1.486819E-3	-2.250721E-3	7.731467E-4	-9.938469E-4	-2.896164E-3	-5.912699E-3	6.160318E-3	-9.674138E-4	-2.378114E-3	-2.369394E-3	-3.281431E-4	-9.965707E-3	-7.902319E-3	1.668752E-3	-1.131354E-2	-9.419551E-3	-3.688008E-3	-1.281873E-2	-4.933173E-4	-3.751923E-3	-9.887494E-4	-8.070643E-3	-8.533318E-3	-6.314561E-3	-2.550184E-3	-7.281498E-3	-3.581448E-3	-3.725177E-3	-3.023269E-3	-7.579414E-3	-3.215304E-3	-3.883165E-3	-6.564926E-3	2.887835E-3	-2.205503E-3	-3.247105E-3	1.112258E-3	4.404004E-3	1.123387E-3	-6.506267E-3	-3.220957E-3	-9.717693E-3	-1.879717E-4	-3.867882E-3	-1.146286E-2	-6.202175E-3	-2.580513E-3	3.619024E-4	3.439781E-3	-9.734744E-3	-1.271682E-2	-1.509374E-2	-5.041859E-3	-3.788363E-3	-3.052904E-3	-6.041792E-3	-4.400304E-3	-8.863539E-3	3.459777E-5	-4.119534E-3	-4.784751E-3	-5.176974E-3	-3.200820E-3	-8.014930E-3	1.555362E-4	-4.622628E-3	-7.449224E-4	1.232570E-3	-8.525892E-3	7.693175E-4	-1.260709E-3	4.922775E-3	-8.138290E-3	-6.538397E-3	4.613430E-3	-5.677479E-4	-6.283825E-3	-1.144092E-2	-1.654937E-2	-5.897530E-3	-2.360687E-4	-1.181732E-2	-4.028002E-3	-8.212139E-3	-3.522588E-3	-3.875925E-3	-3.354297E-3	4.941285E-3	-4.754095E-3	-3.933867E-3	-3.196390E-4	-9.272563E-3	-3.842609E-3	-2.583142E-4	-7.331820E-3	-2.461499E-3	-9.536794E-3	-4.856737E-3	-6.948021E-3	-4.905375E-3	-7.624737E-3	-1.608339E-3
5.315080E+2	-4.910370E-3	3.012082E-3	4.438609E-3	7.199966E-3	4.055081E-3	4.055703E-3	3.707798E-3	3.964634E-3	-7.920989E-3	1.547525E-3	2.389091E-3	-5.351487E-3	7.626948E-3	-4.792362E-4	4.211714E-3	-4.707635E-3	1.013106E-3	-2.156617E-3	6.726132E-3	-2.439240E-3	-2.559278E-4	1.312554E-3	2.037836E-4	-3.564650E-3	-2.969271E-3	1.177947E-3	7.357658E-3	3.123190E-4	4.558322E-3	3.394781E-3	-3.842946E-3	4.670579E-4	-7.002235E-4	3.357329E-4	7.795745E-4	-3.291299E-3	1.025815E-3	1.024979E-2	7.313902E-3	4.501468E-3	-2.366813E-4	2.030526E-3	4.713974E-3	-2.904356E-4	9.942940E-5	-1.989736E-3	1.230856E-3	3.648674E-3	1.051497E-2	-4.869109E-3	-1.277678E-3	-1.387222E-3	4.377435E-3	-3.031337E-3	2.401353E-3	8.989844E-4	1.993734E-4	3.248150E-3	-2.996016E-3	-4.053552E-3	1.687549E-3	-3.758322E-3	-4.287793E-3	-1.643308E-3	1.072863E-2	2.187190E-3	-1.626269E-3	2.819883E-3	-3.215394E-3	-1.538741E-3	-6.043352E-3	-3.686544E-3	-5.248367E-3	-1.297239E-3	-8.066310E-4	4.090588E-3	1.934398E-3	2.262314E-3	-8.911446E-3	2.822956E-3	4.100024E-3	2.845796E-3	-8.459507E-4	3.134836E-4	-2.039350E-3	4.107281E-3	7.851179E-3	1.998113E-3	5.103265E-3	7.042835E-3	-5.295562E-3	-4.116134E-3	7.078747E-4	6.510377E-3	-1.849688E-3	7.103681E-4	7.638038E-3	3.067088E-3	9.206051E-3	3.467501E-3	4.825661E-3	7.997616E-3	-1.863839E-3	-3.900095E-4	4.737208E-4	-2.252863E-4	2.030375E-3	-2.055713E-3	-2.481080E-3	-1.905046E-3	-3.233526E-3	2.528560E-3	4.429761E-3	6.639487E-4	8.776458E-3	-2.603041E-3	-2.213881E-3	7.604348E-4	-3.035622E-3	9.312718E-4	1.035411E-2	3.993383E-3	6.416546E-4	2.520677E-4	-2.685046E-3	2.413779E-3	-1.842399E-3	2.173338E-4	-9.780301E-4	-2.736228E-3	7.568696E-3	5.345801E-3	-4.168123E-3	3.494378E-3	2.232798E-3	-1.565211E-3	4.113692E-3	2.161657E-3	-4.742784E-4	8.513506E-4	4.823141E-3	3.135318E-3	-3.775976E-4	-2.879511E-4	-2.408072E-3	-2.656924E-3	2.363404E-3	3.325366E-3	-4.220304E-4	7.323505E-3	-1.658858E-3	4.551701E-3	1.300182E-3	4.007432E-3	4.471005E-3	-6.274311E-3	1.058519E-3	2.758384E-3	1.500459E-3	3.188117E-3	5.148403E-3	3.943575E-3	3.701749E-3	-5.485953E-4	3.358502E-3	1.097346E-3	-6.912813E-3	-6.583738E-3	8.274270E-3	-1.250991E-2
5.320120E+2	4.637007E-3	7.133968E-3	-2.892005E-3	-7.133616E-4	6.900483E-3	5.876718E-3	-7.580209E-4	4.403814E-3	3.036999E-3	9.575012E-3	1.552774E-2	8.094646E-3	-2.644431E-3	8.644614E-3	3.236747E-3	6.151286E-3	2.881503E-3	2.794995E-3	3.986843E-3	6.731521E-3	-7.607764E-4	5.532224E-3	4.851856E-3	-1.793608E-4	8.374792E-3	5.181748E-3	1.235288E-2	4.493057E-3	5.935232E-3	3.338283E-3	4.865277E-3	1.236020E-2	7.318188E-3	2.410402E-3	6.724410E-3	1.176628E-2	9.151406E-3	1.359589E-3	4.364747E-4	-4.475377E-3	5.271603E-3	4.556908E-3	-1.517792E-3	6.921619E-4	4.386828E-3	9.847268E-3	-7.905646E-4	4.459942E-3	5.079696E-3	4.209892E-3	6.496455E-3	4.786070E-3	1.124713E-3	6.243060E-3	2.861468E-3	5.287437E-3	1.393129E-4	4.621677E-3	-2.494863E-3	6.404904E-3	2.604807E-3	7.869010E-3	9.787208E-4	2.480188E-3	3.187121E-3	1.721841E-3	4.872832E-3	4.277381E-3	8.635390E-3	-2.298216E-4	8.602623E-3	3.957279E-3	4.772899E-3	1.254053E-2	4.135238E-3	2.391500E-3	-1.856136E-4	7.476203E-4	6.176400E-3	4.579639E-4	6.823580E-3	1.328306E-3	1.105286E-2	9.943968E-3	8.527836E-4	1.121911E-2	6.717054E-3	1.038537E-2	9.821108E-3	1.094327E-2	1.384577E-2	6.932615E-3	6.795669E-3	2.016853E-3	4.516852E-3	2.970030E-3	6.157527E-3	4.548939E-3	-2.438469E-3	-2.055678E-3	1.473284E-3	4.752566E-3	1.660509E-3	8.789262E-3	9.073628E-3	2.410324E-4	5.598280E-3	6.064835E-3	3.136904E-3	2.602774E-3	-4.370038E-3	3.922796E-3	7.018183E-3	9.280278E-3	6.091985E-4	1.132447E-3	2.403580E-3	3.930731E-3	9.206006E-4	1.739617E-2	-2.229511E-3	7.384507E-3	9.839671E-3	4.109801E-3	5.033734E-3	4.589240E-3	1.198869E-2	4.714765E-3	8.853881E-3	1.218494E-2	3.637136E-3	9.063127E-4	5.615864E-3	9.167765E-3	-5.773686E-3	-4.088670E-3	4.884532E-4	-4.454420E-4	3.577978E-3	7.370908E-3	8.919343E-3	4.936453E-3	-1.437614E-3	2.457313E-3	3.485501E-3	6.218901E-3	1.770884E-3	2.219068E-3	6.482730E-3	5.612550E-4	1.001758E-2	-2.237266E-3	4.339961E-3	-2.278893E-3	5.006514E-3	5.870499E-3	7.721527E-3	3.614812E-5	4.985004E-3	1.351376E-3	9.900139E-4	5.032614E-3	4.214459E-3	7.556070E-3	4.275705E-3	5.898394E-4	2.022229E-3	5.521572E-3	4.697014E-3	4.095484E-3
5.325120E+2	9.293744E-3	7.799253E-4	1.857558E-3	1.440554E-3	7.298369E-3	1.327665E-2	1.070409E-2	-5.688007E-4	6.454130E-3	9.481914E-3	4.701208E-3	1.473218E-2	7.959750E-3	-1.087107E-3	-9.978616E-4	1.151540E-2	1.093353E-2	9.971457E-3	1.083680E-2	1.181733E-2	5.225401E-3	5.884183E-3	-6.710666E-3	1.393631E-2	7.249053E-3	9.652826E-3	-4.929684E-3	3.346493E-3	2.505985E-3	1.427292E-2	1.352033E-2	1.239882E-3	1.277255E-2	2.143758E-2	1.637291E-4	1.375004E-2	4.651609E-4	5.692869E-3	5.719825E-3	1.560014E-3	6.847603E-3	5.502317E-3	-1.595649E-3	1.355538E-2	1.026252E-2	1.844236E-3	3.077927E-3	5.243825E-3	1.660964E-4	5.202455E-3	7.978144E-3	2.633169E-3	3.804810E-3	1.059095E-3	3.296511E-3	1.308899E-2	6.798442E-3	6.914603E-3	1.189438E-2	6.314431E-3	5.897802E-3	1.940113E-3	1.045022E-2	7.491208E-3	6.862807E-3	1.176486E-2	6.446943E-3	5.272716E-3	9.539884E-3	1.637643E-2	5.195916E-3	6.756801E-3	1.835328E-2	5.984169E-3	4.575616E-3	8.741609E-3	1.165513E-2	1.043697E-2	1.826770E-2	8.355418E-3	7.287991E-3	4.157857E-3	9.297428E-3	5.808297E-3	7.185487E-3	7.116501E-3	5.032206E-3	1.424798E-2	3.848246E-3	4.932921E-3	5.509910E-3	7.910753E-3	8.767899E-3	6.891490E-3	7.883850E-3	4.729806E-3	4.130097E-3	7.508990E-3	1.312877E-2	9.351468E-3	1.013533E-2	4.686878E-3	6.306728E-3	4.099901E-3	1.829964E-3	1.207983E-2	8.069292E-3	6.016697E-3	8.689951E-3	9.085293E-3	1.859463E-2	8.599692E-3	1.533933E-2	3.153857E-3	6.574943E-3	3.202029E-3	5.116825E-3	1.128426E-2	1.547671E-2	1.131982E-2	8.161604E-3	1.166044E-3	5.652087E-4	4.583566E-3	3.927648E-3	8.455508E-3	9.771720E-3	1.489865E-3	2.553579E-3	1.403802E-3	6.512241E-3	1.188952E-2	9.736536E-3	2.899773E-3	1.348359E-2	1.347998E-2	1.652133E-2	7.782505E-3	9.115149E-3	1.830496E-3	2.161259E-3	1.269707E-2	7.027317E-3	7.003171E-3	1.469049E-2	1.112960E-2	1.247632E-2	3.777359E-3	1.236097E-2	1.113334E-2	1.301766E-2	9.314730E-3	-2.842798E-3	5.716164E-3	3.926477E-3	9.840596E-3	5.598438E-3	6.304903E-3	1.243496E-2	6.715695E-3	7.096031E-3	1.456449E-3	7.756748E-3	6.989829E-3	9.487185E-3	-2.214643E-3	1.461139E-2	8.726019E-3	1.289519E-2	2.649220E-3
5.330180E+2	1.919264E-2	1.516664E-2	2.272557E-2	1.122412E-2	2.257217E-2	1.875357E-2	1.655599E-2	2.472228E-2	1.322132E-2	1.482688E-2	2.216813E-2	1.333157E-2	3.291670E-2	1.512368E-2	2.572080E-2	2.136581E-2	2.562826E-2	2.299286E-2	2.132513E-2	2.423496E-2	2.649544E-2	2.281137E-2	2.184027E-2	3.918614E-3	2.517080E-2	2.672653E-2	1.515594E-2	3.653393E-2	1.906750E-2	1.053717E-2	1.846454E-2	1.078735E-2	2.116361E-2	2.762030E-2	2.041093E-2	1.507880E-2	1.663887E-2	2.711075E-2	2.160318E-2	1.687241E-2	1.045844E-2	2.285162E-2	7.901721E-3	1.905376E-2	2.032984E-2	1.500112E-2	3.498429E-2	2.216426E-2	1.008399E-2	2.104517E-2	1.658173E-2	2.367359E-2	3.069884E-2	2.137159E-2	2.384137E-2	1.981263E-2	1.070597E-2	1.003941E-2	1.384592E-2	3.185521E-2	1.871223E-2	2.559249E-2	2.883239E-2	9.619810E-3	1.885098E-2	1.691370E-2	1.600352E-2	2.360015E-2	2.324389E-2	2.392415E-2	1.462317E-2	2.144276E-2	3.237253E-2	2.668480E-2	2.408759E-2	9.976027E-3	1.750342E-2	2.579112E-2	1.895099E-2	1.802154E-2	2.400362E-2	2.630841E-2	1.327716E-2	2.479816E-2	2.369740E-2	1.954041E-2	1.704864E-2	9.006570E-3	2.578493E-2	2.234831E-2	1.924745E-2	2.607481E-2	2.492687E-2	3.292840E-2	2.552937E-2	1.112176E-2	2.291723E-2	6.938739E-3	1.816745E-2	6.371624E-3	2.273902E-2	2.122667E-2	2.148463E-2	1.313635E-2	2.002289E-2	1.242369E-2	2.518406E-2	1.300099E-2	1.933877E-2	2.259839E-2	2.226166E-2	3.656752E-2	1.305908E-2	1.814154E-2	1.682901E-2	2.501959E-2	1.702038E-2	6.966769E-3	2.349400E-2	1.816275E-2	2.002516E-2	2.150300E-2	1.755935E-2	1.495564E-2	1.560987E-2	2.905033E-2	2.185748E-2	1.585865E-2	3.565275E-2	1.296693E-2	2.463415E-2	1.608791E-2	1.613188E-2	2.570117E-2	2.378553E-2	2.694941E-2	2.262285E-2	2.109854E-2	2.974782E-2	2.074222E-2	2.875293E-2	1.618223E-2	3.736458E-2	2.026789E-2	2.202892E-2	1.691972E-2	1.935208E-2	2.455676E-2	1.567729E-2	1.001414E-2	2.059533E-2	1.837032E-2	2.668386E-2	2.066283E-2	3.057814E-2	1.681225E-2	1.621051E-2	1.299260E-2	2.484101E-2	3.384979E-2	2.393827E-2	2.230706E-2	3.129033E-2	1.276407E-2	2.359815E-2	2.286901E-2	1.822042E-2	1.228758E-2	8.512784E-3	2.612254E-2
5.331630E+2	3.524600E-2	2.256382E-2	2.330911E-2	1.849764E-2	2.511028E-2	2.265069E-2	1.710251E-2	3.173481E-2	2.938608E-2	2.404270E-2	2.867430E-2	2.235567E-2	3.262529E-2	2.590610E-2	2.816925E-2	2.973960E-2	1.703281E-2	2.449284E-2	2.083895E-2	2.831245E-2	3.603464E-2	1.739019E-2	2.244620E-2	2.371251E-2	2.839531E-2	3.555813E-2	1.626280E-2	2.650968E-2	2.302578E-2	2.776381E-2	2.136644E-2	2.335945E-2	2.226668E-2	2.446958E-2	1.893254E-2	3.246286E-2	2.316379E-2	3.319817E-2	3.753570E-2	3.594484E-2	3.291463E-2	2.446798E-2	2.198485E-2	3.221097E-2	3.570585E-2	2.905770E-2	1.625169E-2	2.663496E-2	2.251470E-2	2.159385E-2	2.763984E-2	2.898833E-2	2.254923E-2	3.182641E-2	2.601811E-2	1.838239E-2	3.695117E-2	2.829705E-2	2.340102E-2	2.295099E-2	3.436895E-2	2.323796E-2	2.033438E-2	3.165938E-2	2.791889E-2	2.816426E-2	3.209660E-2	2.901152E-2	2.234670E-2	3.639697E-2	1.352670E-2	2.931428E-2	3.303986E-2	1.773833E-2	3.304690E-2	3.331589E-2	2.797393E-2	2.880853E-2	3.370422E-2	4.323954E-2	2.863535E-2	2.351008E-2	1.598891E-2	1.332066E-2	2.626799E-2	3.562024E-2	4.089852E-2	2.814931E-2	4.408584E-2	3.187685E-2	3.390955E-2	3.727566E-2	2.186411E-2	3.455690E-2	2.276587E-2	1.905400E-2	3.107344E-2	2.220025E-2	3.885070E-2	1.737473E-2	3.469050E-2	1.212017E-2	4.314300E-2	2.198812E-2	2.497849E-2	2.965138E-2	2.788931E-2	2.732481E-2	2.155715E-2	3.192706E-2	2.342125E-2	2.480048E-2	2.799095E-2	2.179829E-2	2.355077E-2	2.945272E-2	2.086319E-2	2.958924E-2	3.228003E-2	2.089659E-2	2.975841E-2	2.587082E-2	2.813508E-2	3.140438E-2	3.650584E-2	2.024587E-2	3.270623E-2	2.099937E-2	2.586220E-2	2.434442E-2	2.585983E-2	2.055197E-2	2.944738E-2	2.297285E-2	3.278567E-2	3.165682E-2	2.167023E-2	3.376769E-2	3.667344E-2	2.851263E-2	3.251249E-2	3.528054E-2	2.458048E-2	2.086045E-2	2.588263E-2	2.855720E-2	2.415711E-2	2.515913E-2	2.378889E-2	2.128899E-2	3.189933E-2	3.169532E-2	2.733599E-2	3.339126E-2	3.122717E-2	2.515138E-2	2.247669E-2	2.196512E-2	1.585703E-2	1.992852E-2	3.241422E-2	3.138484E-2	3.419576E-2	2.545920E-2	2.370541E-2	3.510430E-2	3.513192E-2	1.857330E-2	1.018612E-2	3.781881E-2
5.333080E+2	3.957387E-2	2.151173E-2	2.412963E-2	3.044579E-2	2.172167E-2	2.458640E-2	3.532352E-2	2.931880E-2	2.485539E-2	2.354937E-2	2.395629E-2	3.487259E-2	2.748065E-2	2.445121E-2	4.311233E-2	2.057601E-2	3.305868E-2	2.407577E-2	3.005824E-2	3.357412E-2	3.606932E-2	2.735017E-2	2.988241E-2	2.869016E-2	3.050626E-2	1.248636E-2	3.370884E-2	4.152430E-2	1.820866E-2	3.185074E-2	4.099350E-2	3.861674E-2	3.405391E-2	1.427453E-2	3.463774E-2	2.879858E-2	3.884170E-2	2.231540E-2	3.658910E-2	3.122821E-2	2.222785E-2	1.141780E-2	2.460723E-2	3.748544E-2	2.913514E-2	1.906996E-2	3.726583E-2	2.799178E-2	3.450577E-2	2.922546E-2	2.926083E-2	1.906075E-2	3.326876E-2	3.705392E-2	3.875034E-2	3.190523E-2	2.174253E-2	4.322356E-2	2.692148E-2	4.264521E-2	4.075797E-2	3.979546E-2	3.492328E-2	3.312468E-2	3.034345E-2	3.268803E-2	3.213437E-2	3.228919E-2	3.192340E-2	3.234886E-2	1.638036E-2	4.350583E-2	2.589809E-2	2.733820E-2	3.598159E-2	2.735406E-2	3.067499E-2	3.000178E-2	3.388818E-2	3.094971E-2	1.719162E-2	3.141586E-2	3.024665E-2	3.633789E-2	3.079060E-2	3.056289E-2	2.847159E-2	3.372828E-2	2.697147E-2	2.245203E-2	2.141392E-2	4.169133E-2	3.437820E-2	3.019616E-2	4.112950E-2	2.748992E-2	3.207777E-2	2.932358E-2	4.159464E-2	2.513470E-2	3.077200E-2	3.349977E-2	2.500258E-2	2.925258E-2	3.423782E-2	3.256743E-2	2.274467E-2	3.283175E-2	3.599568E-2	3.194748E-2	2.453037E-2	4.454800E-2	3.758917E-2	3.203869E-2	2.355300E-2	2.347636E-2	3.027239E-2	2.209244E-2	2.474443E-2	2.463093E-2	2.764685E-2	2.591707E-2	4.878302E-2	3.763837E-2	2.866486E-2	4.222891E-2	3.325339E-2	2.561756E-2	2.903609E-2	3.519597E-2	3.665802E-2	3.345242E-2	2.429809E-2	3.365737E-2	2.887311E-2	2.503121E-2	2.432057E-2	3.273585E-2	2.927125E-2	3.792336E-2	3.669640E-2	3.210141E-2	2.729042E-2	3.493599E-2	3.024611E-2	2.468840E-2	3.376398E-2	3.336415E-2	2.231037E-2	2.131960E-2	2.344776E-2	2.633707E-2	2.476107E-2	3.445447E-2	2.901364E-2	3.082930E-2	3.970654E-2	3.639831E-2	2.704143E-2	2.456280E-2	3.139886E-2	3.092394E-2	2.416697E-2	2.492859E-2	2.758502E-2	3.104279E-2	3.383031E-2	4.401296E-2	2.678030E-2	4.103423E-2
5.334580E+2	4.648212E-2	4.246862E-2	4.704900E-2	3.803194E-2	5.187413E-2	3.917486E-2	4.360225E-2	5.640862E-2	4.090935E-2	4.644435E-2	4.738160E-2	4.392330E-2	4.845146E-2	4.772219E-2	3.984397E-2	5.627796E-2	5.565465E-2	4.138926E-2	5.224230E-2	4.974167E-2	4.683542E-2	3.763668E-2	4.707207E-2	4.995662E-2	4.350000E-2	3.500143E-2	3.890226E-2	5.230275E-2	4.660032E-2	4.135482E-2	4.621371E-2	5.507777E-2	4.462643E-2	3.244254E-2	5.176312E-2	4.981135E-2	5.617131E-2	4.897357E-2	4.257445E-2	5.447941E-2	4.291204E-2	3.740126E-2	3.787845E-2	5.360424E-2	4.708275E-2	3.395683E-2	5.042742E-2	3.910104E-2	5.336714E-2	4.212127E-2	4.282863E-2	4.360263E-2	4.426297E-2	6.187352E-2	4.541911E-2	4.323743E-2	5.413532E-2	5.313254E-2	4.594417E-2	4.780239E-2	5.425347E-2	4.553293E-2	5.305192E-2	4.612640E-2	5.580555E-2	4.682157E-2	5.711051E-2	4.884898E-2	4.231307E-2	5.038259E-2	4.431427E-2	4.048070E-2	3.447568E-2	5.436614E-2	5.834511E-2	4.361041E-2	4.854320E-2	4.323252E-2	4.519826E-2	4.837772E-2	4.681567E-2	5.041163E-2	6.070189E-2	4.192245E-2	5.208844E-2	5.663606E-2	3.796851E-2	5.121391E-2	3.755575E-2	4.730407E-2	5.448400E-2	4.799870E-2	4.690451E-2	4.808200E-2	4.940356E-2	4.567500E-2	4.999449E-2	4.015784E-2	4.604007E-2	4.652777E-2	5.278370E-2	4.726407E-2	4.875883E-2	3.945022E-2	5.476005E-2	4.095185E-2	4.459750E-2	5.170882E-2	5.288378E-2	4.045041E-2	3.434993E-2	4.579809E-2	5.067686E-2	4.411722E-2	4.062863E-2	4.880307E-2	4.370346E-2	3.605384E-2	4.538195E-2	5.003544E-2	4.818580E-2	3.823803E-2	4.064155E-2	3.914961E-2	5.459019E-2	3.706271E-2	5.192986E-2	5.250617E-2	4.934759E-2	3.286155E-2	4.066520E-2	3.440572E-2	5.007701E-2	4.511333E-2	5.385381E-2	5.089809E-2	3.521352E-2	4.568939E-2	3.990194E-2	5.541593E-2	5.629082E-2	4.832213E-2	4.655570E-2	6.438263E-2	4.040723E-2	4.498713E-2	5.095204E-2	5.136639E-2	5.318547E-2	5.240838E-2	5.478990E-2	4.823607E-2	4.426106E-2	5.695149E-2	5.926215E-2	4.195946E-2	3.589665E-2	4.466603E-2	3.904478E-2	5.026477E-2	4.997454E-2	4.817288E-2	3.682070E-2	4.701615E-2	5.575861E-2	4.209495E-2	3.952834E-2	4.308818E-2	4.079677E-2	6.612183E-2
5.336030E+2	5.036203E-2	4.651721E-2	5.718190E-2	5.319447E-2	4.981502E-2	4.999946E-2	5.427614E-2	5.180611E-2	6.153439E-2	6.168616E-2	6.258862E-2	5.682319E-2	5.871241E-2	7.111247E-2	5.272894E-2	5.760459E-2	6.383581E-2	5.279673E-2	4.466689E-2	6.101829E-2	6.079463E-2	6.143287E-2	6.319213E-2	5.960691E-2	5.287061E-2	5.544334E-2	6.048945E-2	6.191815E-2	5.959113E-2	6.155780E-2	5.901324E-2	6.630855E-2	7.367151E-2	5.487942E-2	5.803398E-2	5.948649E-2	6.034608E-2	6.336452E-2	6.708210E-2	5.570990E-2	6.646943E-2	5.195005E-2	5.159196E-2	5.357936E-2	6.176342E-2	6.243731E-2	5.335545E-2	5.549223E-2	5.107182E-2	6.372545E-2	7.491454E-2	4.860162E-2	5.308437E-2	5.673139E-2	5.708070E-2	6.983992E-2	4.568221E-2	5.173129E-2	5.801640E-2	6.115934E-2	5.467059E-2	5.600417E-2	6.807892E-2	7.385175E-2	6.767252E-2	4.234612E-2	7.197144E-2	4.090287E-2	4.326559E-2	5.130543E-2	6.326292E-2	4.670409E-2	3.642080E-2	4.528320E-2	6.316179E-2	6.510841E-2	5.160096E-2	4.514155E-2	6.846585E-2	5.600381E-2	5.185328E-2	5.531045E-2	6.001985E-2	6.138678E-2	5.854514E-2	6.801193E-2	5.507204E-2	5.975280E-2	4.439166E-2	6.269309E-2	5.224845E-2	4.466066E-2	6.119697E-2	4.548590E-2	5.982387E-2	4.845396E-2	5.848332E-2	5.281496E-2	6.113331E-2	3.696595E-2	5.767594E-2	5.611261E-2	7.736649E-2	6.117670E-2	4.450336E-2	4.688285E-2	6.144371E-2	5.936130E-2	5.073449E-2	4.954213E-2	5.474678E-2	6.550936E-2	6.283772E-2	4.861207E-2	6.446082E-2	5.085067E-2	6.949659E-2	5.579283E-2	5.407300E-2	6.380537E-2	5.182921E-2	5.113089E-2	5.126580E-2	4.577012E-2	5.920779E-2	6.144632E-2	4.639968E-2	5.663584E-2	5.923565E-2	6.797446E-2	6.025094E-2	5.609591E-2	5.477210E-2	6.397938E-2	6.437195E-2	5.337127E-2	5.143060E-2	4.767867E-2	6.653473E-2	6.307618E-2	6.456562E-2	4.289714E-2	4.479703E-2	5.924261E-2	5.004300E-2	6.646949E-2	5.499077E-2	7.367143E-2	7.375621E-2	5.680235E-2	5.692705E-2	6.096526E-2	6.441492E-2	5.265288E-2	4.972466E-2	4.755011E-2	5.716798E-2	6.700099E-2	4.909286E-2	6.183746E-2	5.419339E-2	6.555440E-2	4.499326E-2	5.858718E-2	6.296785E-2	5.874123E-2	6.087180E-2	6.574848E-2	5.304965E-2	7.932912E-2
5.337580E+2	8.335676E-2	7.991708E-2	7.024014E-2	7.376180E-2	8.120998E-2	7.668030E-2	7.441993E-2	8.881822E-2	8.032655E-2	8.068349E-2	7.123465E-2	8.535975E-2	9.125893E-2	8.485774E-2	8.346789E-2	7.377806E-2	8.282701E-2	7.679536E-2	7.034241E-2	7.912459E-2	7.937456E-2	7.715571E-2	6.733089E-2	8.076713E-2	1.019218E-1	7.297663E-2	7.489485E-2	8.078479E-2	7.659222E-2	9.516859E-2	8.056828E-2	6.322023E-2	9.162443E-2	8.080175E-2	8.950881E-2	7.277496E-2	7.470461E-2	7.285554E-2	8.505962E-2	8.303992E-2	7.268303E-2	8.080568E-2	6.783278E-2	7.308597E-2	7.664894E-2	7.502221E-2	7.679773E-2	8.325405E-2	7.835006E-2	7.899790E-2	1.049399E-1	7.505594E-2	7.919008E-2	8.280104E-2	8.813651E-2	8.698076E-2	7.469980E-2	8.695073E-2	8.528198E-2	7.666748E-2	7.525336E-2	7.497640E-2	9.537562E-2	7.343115E-2	7.295452E-2	8.130646E-2	8.499527E-2	8.983645E-2	8.512037E-2	8.540910E-2	5.675063E-2	8.289194E-2	7.867717E-2	8.581941E-2	8.849747E-2	7.843298E-2	7.776268E-2	8.334118E-2	7.923882E-2	7.234036E-2	8.748957E-2	7.556785E-2	8.032934E-2	8.887255E-2	1.031718E-1	8.089630E-2	7.763244E-2	8.660092E-2	8.042272E-2	7.523090E-2	8.053493E-2	7.809463E-2	7.890572E-2	8.378436E-2	6.655931E-2	8.352930E-2	7.781247E-2	7.904395E-2	7.240077E-2	8.759111E-2	8.657824E-2	7.786914E-2	9.050118E-2	6.937082E-2	7.967201E-2	9.045322E-2	8.213080E-2	9.545019E-2	6.646104E-2	8.192828E-2	7.813852E-2	8.108920E-2	9.282624E-2	8.717185E-2	7.268773E-2	7.767158E-2	8.890568E-2	6.769883E-2	8.222829E-2	8.142099E-2	7.431258E-2	6.997812E-2	8.320559E-2	8.044683E-2	7.551518E-2	8.254885E-2	7.647531E-2	7.515714E-2	9.200296E-2	7.240510E-2	7.954160E-2	9.158986E-2	8.989052E-2	8.203053E-2	9.078125E-2	9.288252E-2	7.790204E-2	8.776780E-2	7.742525E-2	7.977655E-2	7.038837E-2	7.165104E-2	8.011392E-2	9.273392E-2	7.630651E-2	7.597549E-2	7.309688E-2	8.031714E-2	8.087883E-2	8.825882E-2	8.918352E-2	1.028289E-1	7.798495E-2	9.615121E-2	7.254873E-2	7.650830E-2	9.333201E-2	7.606654E-2	8.835645E-2	6.700410E-2	7.226665E-2	8.806879E-2	1.015014E-1	7.027403E-2	9.539168E-2	8.340160E-2	9.435611E-2	6.744803E-2	6.616054E-2	1.032373E-1
5.339090E+2	1.093506E-1	1.221183E-1	1.265504E-1	1.203328E-1	1.129190E-1	1.246403E-1	1.317113E-1	1.316830E-1	1.242982E-1	1.272055E-1	1.151276E-1	1.199303E-1	1.208397E-1	1.023175E-1	1.210535E-1	1.160964E-1	1.225691E-1	1.260299E-1	1.238720E-1	1.052964E-1	1.226635E-1	1.178597E-1	1.315052E-1	1.239786E-1	1.354444E-1	1.398189E-1	1.211890E-1	1.485305E-1	1.240305E-1	1.250488E-1	1.258193E-1	1.166311E-1	1.329822E-1	1.140338E-1	1.448050E-1	1.187270E-1	1.198425E-1	1.280082E-1	1.392549E-1	1.529219E-1	1.249801E-1	1.346379E-1	1.168404E-1	1.340268E-1	1.287397E-1	1.342082E-1	1.264553E-1	1.326076E-1	1.430517E-1	1.354661E-1	1.295083E-1	1.383554E-1	1.326584E-1	1.324170E-1	1.334518E-1	1.271298E-1	1.066461E-1	1.239652E-1	1.134029E-1	1.288050E-1	1.260085E-1	1.565059E-1	1.079821E-1	1.104810E-1	1.337707E-1	1.421303E-1	1.174016E-1	1.384585E-1	1.136681E-1	1.298585E-1	1.273314E-1	1.276043E-1	1.181343E-1	1.322172E-1	1.385311E-1	1.138199E-1	1.301245E-1	1.225867E-1	1.216248E-1	1.367270E-1	1.269576E-1	1.267428E-1	1.174832E-1	1.170332E-1	1.381199E-1	1.431755E-1	1.272426E-1	1.302233E-1	1.054723E-1	1.130250E-1	1.276906E-1	1.355974E-1	1.392239E-1	1.472725E-1	1.152714E-1	1.213878E-1	1.359515E-1	1.173928E-1	1.320114E-1	1.460700E-1	1.237759E-1	1.218140E-1	1.231421E-1	1.279304E-1	1.262321E-1	1.182973E-1	1.235983E-1	1.404743E-1	1.424831E-1	1.177708E-1	1.370952E-1	1.371538E-1	1.290674E-1	1.328066E-1	1.382440E-1	1.293149E-1	1.294579E-1	1.206880E-1	1.156799E-1	1.175304E-1	1.228511E-1	1.348110E-1	1.150967E-1	1.180804E-1	1.152380E-1	1.266178E-1	1.288284E-1	1.351434E-1	1.283166E-1	1.359657E-1	1.376636E-1	1.452098E-1	1.263875E-1	1.345375E-1	1.386381E-1	1.301968E-1	1.259559E-1	1.198811E-1	1.388298E-1	1.124941E-1	1.413826E-1	1.268555E-1	1.271333E-1	1.417208E-1	1.165707E-1	1.330855E-1	1.341162E-1	1.401793E-1	1.378211E-1	1.349690E-1	1.276122E-1	1.301957E-1	1.138201E-1	1.216112E-1	1.318997E-1	1.201509E-1	1.366907E-1	1.304044E-1	1.160110E-1	1.174277E-1	1.257348E-1	1.320383E-1	1.359518E-1	1.100356E-1	1.325280E-1	1.230300E-1	1.439699E-1	1.304806E-1	1.354779E-1	1.497557E-1
5.340430E+2	1.656515E-1	1.624115E-1	1.929366E-1	1.734519E-1	1.733490E-1	1.800380E-1	1.858730E-1	1.793178E-1	1.710706E-1	1.750268E-1	1.766091E-1	1.655858E-1	2.046046E-1	1.489352E-1	1.887880E-1	1.822901E-1	1.918202E-1	1.755648E-1	1.566321E-1	1.884476E-1	1.844350E-1	1.579472E-1	1.647197E-1	1.728595E-1	2.030509E-1	1.744544E-1	1.677712E-1	1.879783E-1	1.727232E-1	2.062744E-1	1.920563E-1	1.861490E-1	1.879850E-1	1.973205E-1	1.948045E-1	2.017419E-1	1.889347E-1	1.985669E-1	1.920247E-1	1.934392E-1	1.827305E-1	1.925056E-1	1.539386E-1	1.900415E-1	1.910962E-1	1.901958E-1	1.879254E-1	1.892665E-1	1.714696E-1	1.873658E-1	1.892999E-1	2.020729E-1	1.902813E-1	1.924011E-1	1.837871E-1	1.868362E-1	1.812281E-1	1.695192E-1	1.685627E-1	1.743184E-1	1.913764E-1	2.040089E-1	1.846587E-1	1.719305E-1	1.902554E-1	2.056769E-1	1.938991E-1	1.972863E-1	1.835072E-1	1.805174E-1	1.642204E-1	1.637879E-1	2.054969E-1	2.099764E-1	1.624728E-1	1.821258E-1	1.763546E-1	2.141773E-1	1.711499E-1	2.000832E-1	2.071710E-1	1.832537E-1	2.037817E-1	1.877933E-1	1.713584E-1	1.873801E-1	1.734602E-1	1.796846E-1	1.712088E-1	1.808569E-1	1.724897E-1	1.617349E-1	1.842990E-1	1.759069E-1	1.954974E-1	1.731291E-1	1.886415E-1	1.754847E-1	1.724041E-1	1.740246E-1	2.017649E-1	1.821916E-1	1.842165E-1	1.863063E-1	1.870932E-1	1.943094E-1	1.826107E-1	1.902818E-1	1.931501E-1	1.748952E-1	1.904424E-1	1.856631E-1	1.794031E-1	1.801545E-1	1.865290E-1	1.621042E-1	1.748544E-1	1.928500E-1	1.932144E-1	1.967569E-1	1.886422E-1	1.867146E-1	1.828753E-1	1.789725E-1	1.878009E-1	1.788985E-1	1.816501E-1	1.782190E-1	2.013510E-1	1.834090E-1	1.760843E-1	1.677982E-1	1.801761E-1	1.921622E-1	1.818745E-1	1.788071E-1	1.816626E-1	1.706620E-1	1.709684E-1	2.016515E-1	1.891011E-1	1.721449E-1	1.735238E-1	1.871243E-1	1.817030E-1	1.876335E-1	1.808954E-1	1.849958E-1	1.965873E-1	1.868870E-1	2.057490E-1	1.960666E-1	1.937830E-1	1.871976E-1	2.077019E-1	1.848750E-1	1.734421E-1	1.644975E-1	1.651589E-1	1.886039E-1	1.773711E-1	1.752590E-1	1.848932E-1	2.003746E-1	1.866581E-1	1.925116E-1	2.002684E-1	1.902988E-1	1.863659E-1	1.649795E-1
5.342040E+2	3.220244E-1	2.918279E-1	3.323237E-1	3.191720E-1	3.012548E-1	3.110273E-1	3.343095E-1	3.357620E-1	3.156510E-1	3.145095E-1	3.243108E-1	3.450711E-1	3.216967E-1	3.250954E-1	3.193481E-1	2.977006E-1	3.114116E-1	3.155117E-1	3.230614E-1	3.237015E-1	3.157715E-1	3.032717E-1	3.088158E-1	3.059761E-1	3.490343E-1	3.734237E-1	3.139685E-1	3.243041E-1	3.209391E-1	3.361360E-1	3.349424E-1	3.255883E-1	3.314637E-1	3.390875E-1	3.406755E-1	3.278400E-1	3.189775E-1	3.574339E-1	3.270065E-1	3.249811E-1	3.344677E-1	3.160863E-1	3.234946E-1	3.333052E-1	3.262435E-1	3.147804E-1	3.365433E-1	3.092410E-1	3.278058E-1	3.381959E-1	3.338069E-1	3.262178E-1	3.323081E-1	3.070904E-1	3.456625E-1	3.366856E-1	3.438031E-1	3.280699E-1	3.166053E-1	3.307463E-1	3.246241E-1	3.349842E-1	3.240957E-1	3.315070E-1	3.243103E-1	3.270122E-1	3.212430E-1	3.146407E-1	3.206463E-1	2.937017E-1	3.210532E-1	3.326922E-1	3.206630E-1	3.339602E-1	3.058517E-1	3.094857E-1	3.140338E-1	3.258726E-1	3.317442E-1	3.443689E-1	3.350192E-1	3.151300E-1	3.208258E-1	3.193499E-1	3.274586E-1	3.426861E-1	2.924472E-1	3.287996E-1	3.096994E-1	3.301141E-1	2.866873E-1	3.402075E-1	3.216594E-1	3.072615E-1	3.145259E-1	3.287265E-1	3.455898E-1	3.180031E-1	3.101948E-1	3.187791E-1	3.487103E-1	3.160923E-1	3.291318E-1	3.247206E-1	3.202916E-1	3.135570E-1	3.263847E-1	3.279877E-1	3.169774E-1	3.104768E-1	3.303861E-1	3.296488E-1	3.393642E-1	3.469195E-1	3.484945E-1	3.067945E-1	3.008650E-1	3.482411E-1	3.159347E-1	3.520207E-1	3.202707E-1	3.532758E-1	3.153204E-1	3.363718E-1	3.135523E-1	3.528940E-1	3.415638E-1	3.314674E-1	3.242350E-1	3.446056E-1	3.417022E-1	3.208658E-1	3.333502E-1	3.276887E-1	3.399010E-1	3.380326E-1	3.138220E-1	2.933307E-1	2.974060E-1	3.180294E-1	3.334903E-1	3.229864E-1	3.494107E-1	3.459540E-1	3.385104E-1	3.111673E-1	3.249342E-1	3.434685E-1	3.089290E-1	2.999127E-1	2.980293E-1	3.342724E-1	3.334371E-1	3.263229E-1	3.398033E-1	3.170375E-1	3.444138E-1	3.416689E-1	3.364014E-1	3.405360E-1	3.260896E-1	3.346543E-1	3.187915E-1	3.410972E-1	3.090898E-1	3.556008E-1	3.386475E-1	3.080284E-1	3.070615E-1	2.678621E-1
5.343600E+2	5.637935E-1	5.507322E-1	5.565235E-1	5.825783E-1	6.011712E-1	5.786162E-1	5.804991E-1	5.800484E-1	5.948046E-1	5.777724E-1	5.746185E-1	5.770712E-1	5.943353E-1	5.754033E-1	5.483059E-1	5.684173E-1	5.780043E-1	5.756933E-1	5.697071E-1	5.730260E-1	5.688517E-1	5.759022E-1	5.771506E-1	5.662501E-1	6.380610E-1	6.483223E-1	5.916158E-1	6.201645E-1	6.132744E-1	5.834887E-1	5.987203E-1	6.083828E-1	6.071130E-1	6.006843E-1	6.236773E-1	6.182584E-1	6.101446E-1	6.033269E-1	6.064754E-1	6.273011E-1	6.023018E-1	6.252257E-1	5.250915E-1	6.261185E-1	6.154130E-1	5.888212E-1	6.139216E-1	5.802026E-1	6.195694E-1	5.657694E-1	5.858986E-1	5.770381E-1	5.918202E-1	5.782345E-1	5.915640E-1	6.170172E-1	5.820088E-1	6.011606E-1	6.035109E-1	6.032965E-1	5.914256E-1	6.157935E-1	6.065974E-1	5.847485E-1	6.144930E-1	5.984639E-1	5.895333E-1	6.241992E-1	5.984722E-1	5.829320E-1	5.843983E-1	6.053536E-1	5.926228E-1	6.178619E-1	5.716796E-1	5.862610E-1	5.965110E-1	6.012801E-1	6.061822E-1	5.744524E-1	5.852099E-1	5.951340E-1	5.514676E-1	5.789353E-1	5.449302E-1	5.808340E-1	6.110212E-1	5.962477E-1	5.971211E-1	5.951354E-1	5.772342E-1	5.951066E-1	6.156644E-1	6.144304E-1	5.759892E-1	6.044363E-1	6.324348E-1	5.992390E-1	5.989468E-1	5.771254E-1	5.993214E-1	5.787395E-1	6.122005E-1	5.638761E-1	5.688152E-1	5.811931E-1	5.956981E-1	6.177982E-1	6.075506E-1	6.010646E-1	6.091300E-1	5.900222E-1	5.993318E-1	6.063827E-1	6.294349E-1	5.807173E-1	5.752307E-1	5.752860E-1	5.947459E-1	6.341757E-1	5.802021E-1	5.658954E-1	5.878221E-1	5.729880E-1	5.682609E-1	5.930121E-1	5.892721E-1	5.690983E-1	5.910447E-1	5.616751E-1	5.981886E-1	5.776157E-1	6.067108E-1	5.691042E-1	5.825133E-1	5.939075E-1	5.780885E-1	6.032485E-1	6.132513E-1	5.867884E-1	5.714863E-1	6.063686E-1	5.731007E-1	5.908393E-1	5.954131E-1	5.810563E-1	6.105143E-1	5.842666E-1	5.966452E-1	6.032572E-1	5.862419E-1	6.157773E-1	5.855666E-1	5.856527E-1	5.721378E-1	5.810270E-1	5.800245E-1	5.857523E-1	5.894689E-1	6.062211E-1	6.116032E-1	5.803379E-1	5.748489E-1	5.992807E-1	5.691098E-1	5.868014E-1	6.183540E-1	6.254851E-1	5.566661E-1	6.158476E-1
5.345160E+2	9.787245E-1	9.521577E-1	9.772207E-1	9.758458E-1	9.646657E-1	9.421852E-1	9.650353E-1	9.816727E-1	9.688396E-1	9.838630E-1	9.766129E-1	9.781679E-1	1.000236E+0	9.606051E-1	9.248311E-1	9.463490E-1	9.747430E-1	9.615485E-1	9.108726E-1	9.617562E-1	9.550422E-1	9.920728E-1	9.937371E-1	9.665507E-1	1.063865E+0	1.053509E+0	9.816087E-1	1.035892E+0	1.005323E+0	1.001720E+0	9.618101E-1	9.988917E-1	1.047037E+0	9.869619E-1	1.022129E+0	9.771031E-1	9.980811E-1	1.003153E+0	9.801437E-1	1.025319E+0	9.831319E-1	9.787606E-1	9.191215E-1	9.900694E-1	9.948241E-1	1.015790E+0	1.000411E+0	9.669846E-1	9.634000E-1	9.974448E-1	9.974368E-1	9.967047E-1	9.563252E-1	9.811067E-1	9.459626E-1	9.742431E-1	9.525537E-1	9.771749E-1	9.880239E-1	9.697422E-1	9.795975E-1	9.895088E-1	9.934550E-1	9.529923E-1	1.007413E+0	9.959249E-1	9.796558E-1	9.969130E-1	9.796977E-1	9.556476E-1	9.339231E-1	9.722789E-1	9.867677E-1	9.767085E-1	9.667651E-1	9.933238E-1	9.502667E-1	9.673587E-1	9.676522E-1	1.003281E+0	9.630043E-1	9.632381E-1	1.001022E+0	1.036668E+0	9.793394E-1	9.657031E-1	9.077211E-1	9.971102E-1	1.010552E+0	9.711970E-1	1.024690E+0	9.959378E-1	9.269827E-1	1.003654E+0	9.532212E-1	9.901705E-1	9.510835E-1	9.603211E-1	9.564563E-1	9.963957E-1	9.739613E-1	9.470687E-1	9.485650E-1	9.981433E-1	9.640048E-1	9.843734E-1	9.699090E-1	9.179671E-1	9.621654E-1	9.602604E-1	9.902696E-1	9.562991E-1	9.465681E-1	9.609402E-1	9.873844E-1	8.992625E-1	9.852067E-1	9.540947E-1	9.823059E-1	1.024697E+0	1.005752E+0	9.644082E-1	9.844899E-1	9.614305E-1	9.760389E-1	9.810536E-1	9.762723E-1	1.027768E+0	9.585975E-1	9.665633E-1	9.581313E-1	9.817882E-1	9.770063E-1	1.012539E+0	9.531691E-1	9.640474E-1	9.958987E-1	9.321412E-1	9.739875E-1	9.737464E-1	9.913017E-1	9.380601E-1	9.858686E-1	9.857007E-1	9.304277E-1	9.361104E-1	9.381107E-1	9.816218E-1	9.718575E-1	9.545272E-1	9.729862E-1	9.642972E-1	9.550532E-1	9.752190E-1	9.978654E-1	1.003219E+0	9.748588E-1	9.577475E-1	9.238629E-1	1.005552E+0	1.008780E+0	9.448876E-1	9.704001E-1	9.809670E-1	9.487845E-1	9.318067E-1	1.002709E+0	1.024407E+0	1.021561E+0	9.915726E-1
5.346620E+2	1.322945E+0	1.265077E+0	1.373013E+0	1.323394E+0	1.387418E+0	1.326727E+0	1.335411E+0	1.330742E+0	1.343118E+0	1.340321E+0	1.420661E+0	1.407918E+0	1.312607E+0	1.351537E+0	1.322160E+0	1.312417E+0	1.377438E+0	1.353552E+0	1.342774E+0	1.349457E+0	1.361918E+0	1.385867E+0	1.340390E+0	1.374421E+0	1.413208E+0	1.362441E+0	1.344676E+0	1.399941E+0	1.424319E+0	1.319562E+0	1.363175E+0	1.336699E+0	1.346842E+0	1.385434E+0	1.332590E+0	1.311904E+0	1.367884E+0	1.363241E+0	1.300860E+0	1.398929E+0	1.328304E+0	1.397205E+0	1.353924E+0	1.322052E+0	1.406851E+0	1.395177E+0	1.393169E+0	1.325008E+0	1.368428E+0	1.361082E+0	1.381795E+0	1.329084E+0	1.347365E+0	1.384642E+0	1.360417E+0	1.341100E+0	1.377495E+0	1.352833E+0	1.386085E+0	1.290541E+0	1.391395E+0	1.416574E+0	1.341394E+0	1.294601E+0	1.306521E+0	1.326467E+0	1.390056E+0	1.335370E+0	1.366464E+0	1.350582E+0	1.349582E+0	1.337168E+0	1.326454E+0	1.324223E+0	1.294049E+0	1.310409E+0	1.330810E+0	1.378951E+0	1.353016E+0	1.341928E+0	1.368028E+0	1.331330E+0	1.339935E+0	1.344298E+0	1.312968E+0	1.367964E+0	1.332461E+0	1.366995E+0	1.279158E+0	1.351656E+0	1.330412E+0	1.299891E+0	1.330350E+0	1.309817E+0	1.328260E+0	1.327242E+0	1.359616E+0	1.370410E+0	1.351629E+0	1.351907E+0	1.346487E+0	1.342771E+0	1.336490E+0	1.395941E+0	1.343490E+0	1.305735E+0	1.330023E+0	1.319491E+0	1.306785E+0	1.406249E+0	1.404460E+0	1.307013E+0	1.334653E+0	1.339248E+0	1.374243E+0	1.353153E+0	1.338420E+0	1.321794E+0	1.318236E+0	1.348574E+0	1.326598E+0	1.315920E+0	1.322639E+0	1.345758E+0	1.291594E+0	1.289961E+0	1.363930E+0	1.290375E+0	1.392162E+0	1.285097E+0	1.358459E+0	1.298109E+0	1.272554E+0	1.357900E+0	1.389849E+0	1.337125E+0	1.345487E+0	1.354104E+0	1.379025E+0	1.340271E+0	1.373341E+0	1.307129E+0	1.386854E+0	1.319378E+0	1.354870E+0	1.285259E+0	1.334421E+0	1.299111E+0	1.338914E+0	1.332743E+0	1.339475E+0	1.351327E+0	1.335535E+0	1.312467E+0	1.309784E+0	1.326030E+0	1.349660E+0	1.307240E+0	1.309299E+0	1.346906E+0	1.276647E+0	1.322225E+0	1.377526E+0	1.377554E+0	1.361079E+0	1.325637E+0	1.338022E+0	1.386476E+0	1.256482E+0	1.363475E+0
5.348120E+2	1.740054E+0	1.754570E+0	1.762985E+0	1.740272E+0	1.738006E+0	1.776091E+0	1.739160E+0	1.745094E+0	1.739033E+0	1.689688E+0	1.764612E+0	1.759059E+0	1.796590E+0	1.765005E+0	1.710432E+0	1.751751E+0	1.762196E+0	1.759876E+0	1.731213E+0	1.731890E+0	1.715073E+0	1.748780E+0	1.757590E+0	1.769312E+0	1.748733E+0	1.795652E+0	1.760463E+0	1.784719E+0	1.727863E+0	1.716084E+0	1.701666E+0	1.706019E+0	1.776072E+0	1.755536E+0	1.739616E+0	1.726301E+0	1.783759E+0	1.690962E+0	1.742226E+0	1.735362E+0	1.757420E+0	1.745935E+0	1.743859E+0	1.780582E+0	1.742477E+0	1.744826E+0	1.789224E+0	1.769744E+0	1.824800E+0	1.768910E+0	1.744149E+0	1.701138E+0	1.742676E+0	1.783919E+0	1.725047E+0	1.796905E+0	1.699424E+0	1.770620E+0	1.792055E+0	1.770521E+0	1.799806E+0	1.721264E+0	1.738928E+0	1.710577E+0	1.712833E+0	1.729916E+0	1.697684E+0	1.735827E+0	1.743524E+0	1.723077E+0	1.698203E+0	1.761447E+0	1.711997E+0	1.798619E+0	1.703621E+0	1.750900E+0	1.686513E+0	1.711807E+0	1.748370E+0	1.757950E+0	1.704594E+0	1.651049E+0	1.731565E+0	1.695035E+0	1.688145E+0	1.716728E+0	1.729520E+0	1.758258E+0	1.696875E+0	1.762208E+0	1.726272E+0	1.756907E+0	1.716324E+0	1.770153E+0	1.792607E+0	1.675955E+0	1.746739E+0	1.775369E+0	1.704705E+0	1.696652E+0	1.759960E+0	1.748115E+0	1.724455E+0	1.744959E+0	1.720718E+0	1.671492E+0	1.681636E+0	1.738341E+0	1.765259E+0	1.744369E+0	1.703355E+0	1.743251E+0	1.731186E+0	1.719696E+0	1.759773E+0	1.712429E+0	1.679042E+0	1.706041E+0	1.695517E+0	1.698342E+0	1.768550E+0	1.708566E+0	1.741575E+0	1.717058E+0	1.694020E+0	1.708630E+0	1.741253E+0	1.695464E+0	1.758024E+0	1.694825E+0	1.749549E+0	1.717361E+0	1.714004E+0	1.711625E+0	1.724568E+0	1.727355E+0	1.709104E+0	1.742259E+0	1.686415E+0	1.687154E+0	1.692658E+0	1.765688E+0	1.717476E+0	1.682743E+0	1.675366E+0	1.662795E+0	1.726078E+0	1.671247E+0	1.650744E+0	1.690253E+0	1.666586E+0	1.741833E+0	1.686727E+0	1.654157E+0	1.684980E+0	1.736590E+0	1.670318E+0	1.655491E+0	1.703062E+0	1.738754E+0	1.712022E+0	1.691213E+0	1.766591E+0	1.733941E+0	1.660982E+0	1.691891E+0	1.747983E+0	1.783393E+0	1.643855E+0	1.649038E+0
5.349530E+2	2.035308E+0	1.916868E+0	2.044587E+0	1.989527E+0	1.943094E+0	1.950771E+0	2.002000E+0	1.941998E+0	1.974392E+0	1.936046E+0	1.924813E+0	1.970343E+0	1.948761E+0	1.956156E+0	1.950689E+0	1.934090E+0	1.965373E+0	1.996452E+0	1.970087E+0	1.970539E+0	1.977385E+0	1.907347E+0	1.929339E+0	1.960363E+0	1.937272E+0	1.979980E+0	1.943063E+0	1.952212E+0	1.911102E+0	1.886754E+0	1.919979E+0	1.938114E+0	1.994462E+0	1.964597E+0	1.911025E+0	1.973192E+0	1.989363E+0	1.993120E+0	1.969996E+0	1.939701E+0	1.994096E+0	1.988918E+0	1.858791E+0	1.940141E+0	1.985138E+0	2.023754E+0	1.977128E+0	1.899775E+0	1.961011E+0	2.005678E+0	1.918703E+0	1.945552E+0	1.929218E+0	1.960234E+0	1.898099E+0	1.940915E+0	1.973399E+0	1.924752E+0	1.928223E+0	1.906804E+0	2.007505E+0	1.954037E+0	1.920412E+0	1.927672E+0	1.949789E+0	1.936551E+0	1.959463E+0	1.902789E+0	1.926315E+0	1.949529E+0	1.932210E+0	1.933748E+0	1.897561E+0	1.977315E+0	1.989620E+0	1.904163E+0	1.924589E+0	1.928435E+0	1.944798E+0	1.984038E+0	1.984614E+0	1.877520E+0	1.996442E+0	1.923677E+0	1.884374E+0	1.939827E+0	1.895635E+0	1.961835E+0	1.836429E+0	1.950569E+0	1.942708E+0	1.917745E+0	1.899460E+0	1.941595E+0	1.943469E+0	1.888094E+0	1.914891E+0	1.959944E+0	1.929126E+0	1.892146E+0	1.859823E+0	1.955127E+0	1.900780E+0	1.952101E+0	1.950577E+0	1.887733E+0	2.007337E+0	1.931573E+0	1.906452E+0	1.940973E+0	1.930261E+0	1.880562E+0	1.944122E+0	1.966439E+0	1.970275E+0	1.880178E+0	1.913229E+0	1.913330E+0	1.889381E+0	1.918804E+0	1.996567E+0	1.863850E+0	1.940256E+0	2.013192E+0	1.846350E+0	1.909024E+0	1.922255E+0	1.897367E+0	1.891709E+0	1.971289E+0	1.923569E+0	1.929663E+0	1.881740E+0	1.918127E+0	1.891581E+0	1.926008E+0	1.937777E+0	1.908275E+0	1.908575E+0	1.962610E+0	1.854808E+0	1.907066E+0	1.920675E+0	1.897294E+0	1.892628E+0	1.927844E+0	1.923545E+0	1.940316E+0	1.899953E+0	1.874206E+0	1.863490E+0	1.924381E+0	1.883611E+0	1.900469E+0	1.867924E+0	1.865638E+0	1.886511E+0	1.844595E+0	1.895215E+0	1.881138E+0	1.882095E+0	1.915237E+0	1.948664E+0	1.931330E+0	1.895418E+0	1.892775E+0	1.884811E+0	1.892998E+0	1.795720E+0	1.783887E+0
5.351140E+2	1.951624E+0	1.961993E+0	1.902904E+0	1.922341E+0	1.931143E+0	1.987046E+0	1.972051E+0	1.936783E+0	1.973069E+0	1.941701E+0	1.943614E+0	1.982477E+0	1.979329E+0	1.981926E+0	1.941038E+0	1.865757E+0	1.946350E+0	1.939084E+0	1.892862E+0	1.849065E+0	2.004036E+0	1.926557E+0	1.938493E+0	1.971541E+0	1.966368E+0	1.955344E+0	1.941440E+0	1.948205E+0	1.922483E+0	1.906907E+0	1.934203E+0	1.910449E+0	1.966204E+0	1.966398E+0	1.902663E+0	1.951819E+0	1.947555E+0	1.982076E+0	1.924530E+0	1.948257E+0	2.004447E+0	1.922813E+0	1.867701E+0	1.953568E+0	1.926216E+0	1.902566E+0	1.967206E+0	1.924602E+0	1.969999E+0	1.928925E+0	1.879034E+0	1.955274E+0	1.996706E+0	1.955816E+0	1.905893E+0	1.886113E+0	1.928803E+0	1.890181E+0	1.971234E+0	1.901992E+0	1.932767E+0	1.929597E+0	1.884936E+0	1.904979E+0	1.981049E+0	1.940308E+0	1.928743E+0	1.955339E+0	1.938660E+0	1.926873E+0	1.925341E+0	1.846953E+0	1.965026E+0	1.959049E+0	1.908832E+0	1.923651E+0	1.925656E+0	1.918300E+0	1.975289E+0	1.964787E+0	1.919616E+0	1.945403E+0	1.935639E+0	1.902910E+0	1.926178E+0	1.851386E+0	1.904768E+0	1.935271E+0	1.997465E+0	1.937532E+0	1.914963E+0	1.872996E+0	2.004584E+0	1.920485E+0	1.871472E+0	1.914389E+0	1.914840E+0	1.902417E+0	1.861840E+0	1.922687E+0	1.980441E+0	1.928714E+0	1.886004E+0	1.916728E+0	1.892959E+0	1.873506E+0	1.972456E+0	1.866687E+0	1.930947E+0	1.914379E+0	1.940221E+0	1.914800E+0	1.902561E+0	1.901858E+0	1.946815E+0	1.866474E+0	1.885586E+0	1.914259E+0	1.922839E+0	1.907127E+0	1.950675E+0	1.865080E+0	1.904563E+0	1.910475E+0	1.924694E+0	1.915954E+0	1.876394E+0	1.898693E+0	1.881158E+0	1.917080E+0	1.908027E+0	1.861464E+0	1.944020E+0	1.898511E+0	1.875294E+0	1.884815E+0	1.885722E+0	1.879000E+0	1.922444E+0	1.940603E+0	1.848532E+0	1.855317E+0	1.952349E+0	1.881634E+0	1.866914E+0	1.833127E+0	1.826931E+0	1.911370E+0	1.862988E+0	1.890809E+0	1.930692E+0	1.906897E+0	1.921088E+0	1.895620E+0	1.838689E+0	1.972879E+0	1.910092E+0	1.890463E+0	1.903760E+0	1.903109E+0	1.813986E+0	1.887737E+0	1.902424E+0	1.887044E+0	1.844348E+0	1.837691E+0	1.925700E+0	1.915433E+0	1.886968E+0	1.873853E+0
5.352600E+2	1.868062E+0	1.852097E+0	1.858211E+0	1.875851E+0	1.795525E+0	1.858849E+0	1.806004E+0	1.836708E+0	1.899784E+0	1.843723E+0	1.862809E+0	1.832949E+0	1.848653E+0	1.852393E+0	1.846735E+0	1.821775E+0	1.927170E+0	1.911771E+0	1.821961E+0	1.824661E+0	1.801573E+0	1.883125E+0	1.875811E+0	1.846342E+0	1.877404E+0	1.872875E+0	1.816367E+0	1.931636E+0	1.829476E+0	1.843119E+0	1.872663E+0	1.843871E+0	1.873219E+0	1.809788E+0	1.807166E+0	1.798551E+0	1.853976E+0	1.810316E+0	1.854747E+0	1.860392E+0	1.869070E+0	1.869474E+0	1.860458E+0	1.817937E+0	1.893670E+0	1.846550E+0	1.859609E+0	1.793716E+0	1.874246E+0	1.861908E+0	1.831744E+0	1.835741E+0	1.879473E+0	1.844815E+0	1.818208E+0	1.772493E+0	1.814923E+0	1.871252E+0	1.862314E+0	1.826926E+0	1.891085E+0	1.830224E+0	1.850835E+0	1.819592E+0	1.776061E+0	1.841147E+0	1.806849E+0	1.812036E+0	1.802907E+0	1.856165E+0	1.821611E+0	1.791162E+0	1.865866E+0	1.882220E+0	1.846379E+0	1.823834E+0	1.830697E+0	1.825061E+0	1.839388E+0	1.886950E+0	1.859474E+0	1.880470E+0	1.887857E+0	1.828498E+0	1.811240E+0	1.820061E+0	1.834167E+0	1.817471E+0	1.835404E+0	1.827747E+0	1.830184E+0	1.818567E+0	1.808597E+0	1.856846E+0	1.858352E+0	1.821708E+0	1.794369E+0	1.825626E+0	1.864346E+0	1.862325E+0	1.790774E+0	1.763252E+0	1.757621E+0	1.838375E+0	1.751997E+0	1.737063E+0	1.818785E+0	1.786503E+0	1.865610E+0	1.815964E+0	1.846025E+0	1.826029E+0	1.843285E+0	1.788672E+0	1.803961E+0	1.830203E+0	1.835026E+0	1.807302E+0	1.838209E+0	1.844315E+0	1.790984E+0	1.759037E+0	1.784050E+0	1.803608E+0	1.812579E+0	1.832291E+0	1.849097E+0	1.784997E+0	1.860779E+0	1.788456E+0	1.857948E+0	1.755971E+0	1.816920E+0	1.782646E+0	1.774168E+0	1.756286E+0	1.737225E+0	1.814259E+0	1.816219E+0	1.763207E+0	1.834959E+0	1.772478E+0	1.807222E+0	1.805135E+0	1.725205E+0	1.767875E+0	1.818539E+0	1.737016E+0	1.794172E+0	1.766447E+0	1.729827E+0	1.829649E+0	1.809895E+0	1.774368E+0	1.797952E+0	1.779227E+0	1.818252E+0	1.801679E+0	1.787656E+0	1.834410E+0	1.792274E+0	1.807994E+0	1.824633E+0	1.769740E+0	1.789284E+0	1.759435E+0	1.787335E+0	1.829506E+0	1.781149E+0	1.694585E+0
5.354170E+2	1.591913E+0	1.605399E+0	1.597757E+0	1.598714E+0	1.557175E+0	1.600281E+0	1.572054E+0	1.617668E+0	1.573107E+0	1.584143E+0	1.578061E+0	1.607074E+0	1.671463E+0	1.602060E+0	1.599015E+0	1.544441E+0	1.537147E+0	1.602536E+0	1.625242E+0	1.568306E+0	1.597230E+0	1.610466E+0	1.615066E+0	1.615572E+0	1.579018E+0	1.638363E+0	1.525366E+0	1.600742E+0	1.575755E+0	1.556259E+0	1.549158E+0	1.543114E+0	1.634776E+0	1.552827E+0	1.587130E+0	1.593548E+0	1.623449E+0	1.627817E+0	1.618458E+0	1.573664E+0	1.593136E+0	1.559088E+0	1.555332E+0	1.581710E+0	1.625911E+0	1.566964E+0	1.592964E+0	1.571307E+0	1.614254E+0	1.584549E+0	1.567778E+0	1.611033E+0	1.616090E+0	1.630547E+0	1.592431E+0	1.567322E+0	1.601167E+0	1.604270E+0	1.551634E+0	1.581596E+0	1.593501E+0	1.627677E+0	1.545359E+0	1.587607E+0	1.609292E+0	1.580487E+0	1.559213E+0	1.592799E+0	1.569782E+0	1.566642E+0	1.552408E+0	1.519240E+0	1.674028E+0	1.625191E+0	1.567978E+0	1.539082E+0	1.573629E+0	1.639127E+0	1.546108E+0	1.569097E+0	1.579315E+0	1.582812E+0	1.581579E+0	1.586406E+0	1.577304E+0	1.581750E+0	1.540603E+0	1.580510E+0	1.534013E+0	1.595181E+0	1.559619E+0	1.608969E+0	1.632028E+0	1.575282E+0	1.532677E+0	1.592198E+0	1.608227E+0	1.583570E+0	1.534865E+0	1.568607E+0	1.577346E+0	1.561325E+0	1.555102E+0	1.572333E+0	1.581290E+0	1.552588E+0	1.592609E+0	1.547128E+0	1.589854E+0	1.594274E+0	1.568559E+0	1.539861E+0	1.564550E+0	1.583112E+0	1.607898E+0	1.509169E+0	1.497795E+0	1.549339E+0	1.631835E+0	1.571775E+0	1.670346E+0	1.588029E+0	1.516636E+0	1.531667E+0	1.520044E+0	1.547043E+0	1.599856E+0	1.520246E+0	1.603824E+0	1.646972E+0	1.589681E+0	1.572344E+0	1.571597E+0	1.530978E+0	1.534463E+0	1.547943E+0	1.562342E+0	1.518697E+0	1.542689E+0	1.574105E+0	1.565660E+0	1.587819E+0	1.571642E+0	1.549236E+0	1.518597E+0	1.523202E+0	1.566492E+0	1.539315E+0	1.634802E+0	1.518236E+0	1.553678E+0	1.597110E+0	1.590720E+0	1.484223E+0	1.549043E+0	1.585685E+0	1.529145E+0	1.593034E+0	1.561304E+0	1.620445E+0	1.516904E+0	1.580233E+0	1.586758E+0	1.567426E+0	1.524847E+0	1.544244E+0	1.584238E+0	1.556257E+0	1.532811E+0	1.537236E+0
5.355630E+2	1.450201E+0	1.358498E+0	1.396322E+0	1.375715E+0	1.404265E+0	1.425875E+0	1.390354E+0	1.378529E+0	1.397503E+0	1.430621E+0	1.404110E+0	1.398107E+0	1.369376E+0	1.420063E+0	1.350193E+0	1.386396E+0	1.388869E+0	1.390457E+0	1.359982E+0	1.420541E+0	1.368849E+0	1.449968E+0	1.422794E+0	1.400362E+0	1.388650E+0	1.363609E+0	1.381139E+0	1.389694E+0	1.362688E+0	1.397620E+0	1.332660E+0	1.352604E+0	1.415974E+0	1.372409E+0	1.416807E+0	1.333011E+0	1.386779E+0	1.352231E+0	1.370630E+0	1.389097E+0	1.413064E+0	1.382313E+0	1.373941E+0	1.359445E+0	1.375616E+0	1.392949E+0	1.376145E+0	1.387411E+0	1.459382E+0	1.370822E+0	1.389490E+0	1.373043E+0	1.390358E+0	1.354412E+0	1.375560E+0	1.381586E+0	1.389525E+0	1.430504E+0	1.385763E+0	1.404563E+0	1.404497E+0	1.396085E+0	1.421566E+0	1.353309E+0	1.382544E+0	1.423256E+0	1.402993E+0	1.390009E+0	1.422700E+0	1.398724E+0	1.396754E+0	1.367431E+0	1.396138E+0	1.378370E+0	1.362793E+0	1.363117E+0	1.388935E+0	1.421094E+0	1.367553E+0	1.373526E+0	1.359057E+0	1.400602E+0	1.384067E+0	1.375647E+0	1.350921E+0	1.367011E+0	1.395233E+0	1.400985E+0	1.304778E+0	1.385379E+0	1.335852E+0	1.382566E+0	1.368956E+0	1.369333E+0	1.332976E+0	1.413179E+0	1.398078E+0	1.396072E+0	1.358220E+0	1.351842E+0	1.378216E+0	1.378124E+0	1.428010E+0	1.355825E+0	1.372772E+0	1.398029E+0	1.357540E+0	1.366233E+0	1.387228E+0	1.354883E+0	1.406059E+0	1.384479E+0	1.411499E+0	1.379059E+0	1.401901E+0	1.339352E+0	1.380065E+0	1.367635E+0	1.362299E+0	1.347348E+0	1.402317E+0	1.403010E+0	1.340005E+0	1.392759E+0	1.373333E+0	1.397320E+0	1.409385E+0	1.383919E+0	1.399038E+0	1.337649E+0	1.355151E+0	1.362400E+0	1.387712E+0	1.345943E+0	1.359727E+0	1.375581E+0	1.405277E+0	1.341378E+0	1.372877E+0	1.385265E+0	1.389753E+0	1.374896E+0	1.335949E+0	1.408430E+0	1.347526E+0	1.342365E+0	1.406400E+0	1.345536E+0	1.405543E+0	1.393306E+0	1.353210E+0	1.343686E+0	1.376053E+0	1.353606E+0	1.386673E+0	1.311944E+0	1.395254E+0	1.419832E+0	1.405988E+0	1.349995E+0	1.356349E+0	1.340011E+0	1.372381E+0	1.386442E+0	1.348527E+0	1.372048E+0	1.352953E+0	1.354929E+0	1.297211E+0	1.355155E+0
5.357090E+2	1.247924E+0	1.181650E+0	1.272545E+0	1.190058E+0	1.209355E+0	1.182768E+0	1.184669E+0	1.179185E+0	1.215057E+0	1.212477E+0	1.219206E+0	1.190374E+0	1.191267E+0	1.215280E+0	1.222029E+0	1.192397E+0	1.225643E+0	1.188737E+0	1.196578E+0	1.186368E+0	1.195832E+0	1.209096E+0	1.187720E+0	1.194700E+0	1.162423E+0	1.206535E+0	1.127122E+0	1.215550E+0	1.176998E+0	1.173171E+0	1.149690E+0	1.198421E+0	1.179582E+0	1.209689E+0	1.198689E+0	1.206513E+0	1.192462E+0	1.206974E+0	1.187879E+0	1.224131E+0	1.200802E+0	1.203719E+0	1.162096E+0	1.198417E+0	1.220820E+0	1.177863E+0	1.146360E+0	1.217880E+0	1.176421E+0	1.254402E+0	1.193376E+0	1.172411E+0	1.166771E+0	1.202717E+0	1.197813E+0	1.135723E+0	1.180187E+0	1.233275E+0	1.170529E+0	1.211384E+0	1.202976E+0	1.174444E+0	1.209813E+0	1.189514E+0	1.207758E+0	1.193283E+0	1.182343E+0	1.199244E+0	1.174467E+0	1.203380E+0	1.198592E+0	1.154416E+0	1.215726E+0	1.204434E+0	1.145853E+0	1.239993E+0	1.172912E+0	1.158315E+0	1.178396E+0	1.198574E+0	1.203203E+0	1.114510E+0	1.226807E+0	1.161845E+0	1.168996E+0	1.207866E+0	1.185822E+0	1.206016E+0	1.186010E+0	1.189119E+0	1.160438E+0	1.211585E+0	1.142390E+0	1.207350E+0	1.174893E+0	1.174500E+0	1.180287E+0	1.173345E+0	1.204837E+0	1.211567E+0	1.205912E+0	1.208189E+0	1.209970E+0	1.136166E+0	1.183288E+0	1.158749E+0	1.138635E+0	1.155224E+0	1.207967E+0	1.176951E+0	1.186173E+0	1.173558E+0	1.169265E+0	1.174091E+0	1.218449E+0	1.171098E+0	1.237072E+0	1.186640E+0	1.202776E+0	1.194474E+0	1.201188E+0	1.149023E+0	1.213855E+0	1.197285E+0	1.185626E+0	1.228587E+0	1.152816E+0	1.189024E+0	1.226355E+0	1.251026E+0	1.195207E+0	1.211635E+0	1.207016E+0	1.226140E+0	1.180389E+0	1.209942E+0	1.173345E+0	1.220979E+0	1.221240E+0	1.194989E+0	1.168099E+0	1.201760E+0	1.143718E+0	1.194021E+0	1.185810E+0	1.131744E+0	1.190152E+0	1.155230E+0	1.159719E+0	1.201922E+0	1.175937E+0	1.175348E+0	1.207143E+0	1.215927E+0	1.182898E+0	1.205344E+0	1.203439E+0	1.109438E+0	1.172976E+0	1.216365E+0	1.175313E+0	1.177920E+0	1.190862E+0	1.214445E+0	1.169880E+0	1.172570E+0	1.169469E+0	1.191825E+0	1.171372E+0	1.206910E+0
5.358600E+2	9.974373E-1	9.357367E-1	9.992847E-1	9.995656E-1	9.792908E-1	9.511839E-1	1.003626E+0	1.008026E+0	9.803107E-1	9.766478E-1	9.851062E-1	1.007963E+0	9.863932E-1	1.004752E+0	9.721842E-1	9.749844E-1	9.986149E-1	9.850605E-1	9.699516E-1	9.694623E-1	9.787417E-1	1.001328E+0	9.620244E-1	9.759162E-1	9.698906E-1	1.012437E+0	9.742854E-1	1.030424E+0	9.587691E-1	9.804606E-1	9.475177E-1	9.320702E-1	9.818904E-1	9.990258E-1	9.523935E-1	9.863396E-1	1.015438E+0	1.016114E+0	1.019799E+0	9.468963E-1	9.977569E-1	9.805984E-1	9.903958E-1	9.750000E-1	9.938051E-1	1.015242E+0	9.533720E-1	9.650643E-1	9.968444E-1	9.964288E-1	1.008977E+0	9.854434E-1	9.809088E-1	9.760457E-1	9.745342E-1	9.951706E-1	9.623329E-1	9.508674E-1	9.519057E-1	9.962203E-1	9.790807E-1	9.520863E-1	1.023303E+0	9.786151E-1	9.903528E-1	9.887383E-1	9.830231E-1	9.979918E-1	1.028505E+0	9.890047E-1	9.577514E-1	9.606632E-1	1.036901E+0	9.743958E-1	9.624831E-1	9.660207E-1	1.005449E+0	9.395003E-1	9.887179E-1	9.391866E-1	9.618168E-1	9.526765E-1	1.001626E+0	9.753800E-1	9.799198E-1	9.644147E-1	1.017359E+0	1.006799E+0	9.887861E-1	9.894171E-1	9.885527E-1	1.027345E+0	9.952950E-1	9.990406E-1	9.549718E-1	9.713609E-1	9.910129E-1	1.006201E+0	9.939529E-1	1.003362E+0	9.747825E-1	9.987088E-1	9.524315E-1	9.620463E-1	9.543128E-1	9.889986E-1	9.748602E-1	9.687604E-1	1.011163E+0	9.593162E-1	9.886416E-1	9.809890E-1	1.013175E+0	1.022661E+0	9.778719E-1	9.358108E-1	9.984956E-1	1.008774E+0	9.768430E-1	9.795375E-1	9.633706E-1	9.495096E-1	1.019113E+0	9.730170E-1	9.496828E-1	1.004018E+0	9.602417E-1	9.945852E-1	9.857311E-1	1.005987E+0	9.814410E-1	1.009538E+0	9.787939E-1	9.488682E-1	9.835173E-1	9.786135E-1	9.878998E-1	1.009566E+0	1.011231E+0	9.692202E-1	9.961645E-1	9.524175E-1	9.636159E-1	9.719974E-1	9.904401E-1	9.994177E-1	9.879567E-1	9.777025E-1	9.661446E-1	9.767629E-1	1.044756E+0	9.952866E-1	9.856266E-1	9.999116E-1	9.990428E-1	9.923223E-1	1.006590E+0	9.593992E-1	9.848258E-1	9.605593E-1	1.006119E+0	9.697038E-1	9.950269E-1	9.542085E-1	9.454231E-1	9.403866E-1	9.677718E-1	9.806452E-1	9.599658E-1	9.880033E-1
5.360070E+2	8.345068E-1	8.226404E-1	7.930923E-1	8.267868E-1	7.884851E-1	8.194934E-1	8.035880E-1	8.233621E-1	8.257550E-1	8.177223E-1	8.051102E-1	8.318978E-1	8.250938E-1	8.214656E-1	7.993094E-1	7.808477E-1	8.030077E-1	8.592020E-1	7.964566E-1	8.275690E-1	8.231737E-1	8.031159E-1	8.094737E-1	7.787067E-1	8.178164E-1	8.312128E-1	7.952088E-1	8.140983E-1	7.675214E-1	7.867907E-1	7.812380E-1	7.842726E-1	8.483609E-1	7.754623E-1	8.244381E-1	7.794287E-1	8.079775E-1	8.256214E-1	8.166841E-1	8.229793E-1	8.141318E-1	8.123395E-1	8.291280E-1	8.346176E-1	8.161235E-1	8.109138E-1	7.730809E-1	7.779491E-1	8.111336E-1	8.252903E-1	8.232340E-1	8.253434E-1	8.165933E-1	8.557060E-1	7.843089E-1	8.099989E-1	8.035388E-1	8.177729E-1	8.216692E-1	8.172250E-1	7.773574E-1	8.095762E-1	7.959851E-1	7.802840E-1	8.115083E-1	8.593314E-1	8.318507E-1	8.240698E-1	8.311522E-1	8.127748E-1	8.002471E-1	7.936430E-1	8.234829E-1	8.487091E-1	8.008561E-1	8.046589E-1	8.079263E-1	7.682582E-1	8.139239E-1	8.068901E-1	8.101553E-1	7.961169E-1	8.119223E-1	8.088441E-1	8.127848E-1	8.061092E-1	8.174456E-1	8.334984E-1	8.036633E-1	7.764228E-1	7.816765E-1	7.941598E-1	7.756205E-1	8.108743E-1	8.351221E-1	8.083999E-1	8.207692E-1	8.318106E-1	8.239364E-1	8.121623E-1	8.161004E-1	8.072672E-1	8.194853E-1	8.355938E-1	7.802144E-1	7.805937E-1	7.923761E-1	8.177299E-1	8.130552E-1	8.503983E-1	8.085908E-1	7.822068E-1	8.105127E-1	8.159710E-1	8.348658E-1	8.158602E-1	8.389581E-1	8.188714E-1	8.415836E-1	8.032059E-1	8.153289E-1	8.046901E-1	8.418091E-1	8.412903E-1	8.052157E-1	7.937433E-1	8.448413E-1	7.954509E-1	8.165292E-1	8.478526E-1	8.269723E-1	8.308266E-1	8.267898E-1	8.231639E-1	7.873710E-1	8.386153E-1	8.424977E-1	7.727827E-1	7.950828E-1	8.308821E-1	7.889628E-1	8.046839E-1	8.029894E-1	8.499602E-1	8.358883E-1	7.976248E-1	8.170115E-1	7.713748E-1	8.447348E-1	8.331326E-1	8.124137E-1	8.361529E-1	8.000951E-1	7.939946E-1	7.972773E-1	8.072018E-1	8.398865E-1	8.368699E-1	7.433174E-1	8.470374E-1	7.975567E-1	8.291325E-1	8.029988E-1	7.934908E-1	8.028836E-1	8.268615E-1	8.537820E-1	8.654051E-1	7.810234E-1	8.415398E-1
5.362630E+2	6.238237E-1	6.376970E-1	6.301682E-1	5.888071E-1	6.233271E-1	6.226729E-1	6.310726E-1	6.458285E-1	6.221913E-1	6.280320E-1	6.516633E-1	6.223149E-1	6.355257E-1	6.501878E-1	6.375053E-1	6.122993E-1	6.359180E-1	6.368769E-1	6.290263E-1	6.107920E-1	6.305407E-1	6.359006E-1	6.252097E-1	6.132708E-1	6.494357E-1	6.750725E-1	5.910527E-1	6.876790E-1	5.915369E-1	6.180277E-1	6.206147E-1	6.258866E-1	6.538657E-1	6.722844E-1	6.273587E-1	6.503613E-1	6.356325E-1	6.219518E-1	6.418708E-1	6.425787E-1	6.354839E-1	6.577186E-1	6.473237E-1	6.839070E-1	6.478638E-1	6.575425E-1	6.507635E-1	6.308609E-1	6.506380E-1	6.538731E-1	6.300374E-1	6.012412E-1	6.354119E-1	6.584780E-1	6.220904E-1	6.313971E-1	6.406069E-1	6.271169E-1	6.193933E-1	6.236493E-1	6.339626E-1	6.463343E-1	6.532542E-1	6.197364E-1	6.476244E-1	6.551091E-1	6.198828E-1	6.375415E-1	6.549776E-1	6.186637E-1	6.468885E-1	6.147295E-1	6.302330E-1	6.443141E-1	5.891412E-1	6.204667E-1	6.366417E-1	6.805840E-1	6.402523E-1	6.303795E-1	6.587559E-1	6.282765E-1	6.425842E-1	6.230385E-1	6.568467E-1	6.243445E-1	6.231865E-1	6.612783E-1	6.650572E-1	6.547123E-1	6.489165E-1	6.465184E-1	6.429899E-1	6.632890E-1	6.555998E-1	6.635524E-1	6.569280E-1	6.561552E-1	6.404119E-1	5.939106E-1	6.565452E-1	6.102774E-1	6.363160E-1	6.403330E-1	6.203498E-1	5.971309E-1	6.584143E-1	6.211552E-1	6.385122E-1	6.498642E-1	6.413301E-1	6.289866E-1	6.383305E-1	6.458196E-1	6.654831E-1	6.563534E-1	6.195172E-1	6.343359E-1	6.354851E-1	6.278524E-1	6.413809E-1	6.352747E-1	6.422293E-1	6.546817E-1	6.378744E-1	6.492514E-1	6.549054E-1	6.228278E-1	6.764660E-1	6.355941E-1	6.393742E-1	6.180733E-1	6.185927E-1	6.420539E-1	6.370312E-1	6.290602E-1	6.097828E-1	6.662528E-1	6.137182E-1	6.614912E-1	6.385829E-1	6.452075E-1	6.796746E-1	6.387128E-1	6.904104E-1	6.118755E-1	6.375905E-1	6.678597E-1	6.260460E-1	6.632956E-1	6.236058E-1	6.502018E-1	6.551742E-1	6.303557E-1	6.296022E-1	6.556601E-1	6.573643E-1	6.746805E-1	6.319867E-1	6.125992E-1	6.794057E-1	6.588059E-1	6.213284E-1	6.698371E-1	6.460693E-1	6.220946E-1	6.784249E-1	6.086756E-1	6.914097E-1	6.337309E-1
5.365190E+2	5.034421E-1	5.025361E-1	5.286244E-1	5.065745E-1	5.257870E-1	5.116257E-1	5.470130E-1	5.223187E-1	5.281070E-1	5.030541E-1	5.216751E-1	5.205147E-1	4.903640E-1	5.111798E-1	5.120844E-1	5.376741E-1	5.259067E-1	4.808090E-1	5.332862E-1	5.052352E-1	5.298309E-1	5.204754E-1	5.432371E-1	5.478510E-1	5.386151E-1	5.389056E-1	4.920497E-1	4.789215E-1	5.005188E-1	5.140244E-1	5.298944E-1	5.131255E-1	5.255585E-1	5.437411E-1	5.428871E-1	5.117806E-1	5.079646E-1	5.224511E-1	5.457101E-1	5.346957E-1	5.563916E-1	5.099181E-1	5.102908E-1	5.415321E-1	5.470566E-1	5.204849E-1	5.230176E-1	5.054686E-1	5.079815E-1	5.223028E-1	5.363297E-1	5.251792E-1	5.478140E-1	5.330520E-1	5.087669E-1	5.317678E-1	5.194460E-1	5.372295E-1	5.445492E-1	5.333114E-1	4.905606E-1	5.172102E-1	5.082060E-1	5.148591E-1	5.423519E-1	5.192095E-1	5.202146E-1	5.151502E-1	5.576499E-1	5.323362E-1	5.275792E-1	5.251393E-1	5.235279E-1	5.399026E-1	5.183559E-1	5.338715E-1	5.209034E-1	5.372772E-1	5.534980E-1	5.364256E-1	5.174304E-1	5.007913E-1	5.257534E-1	5.287908E-1	5.301613E-1	5.400936E-1	5.366284E-1	5.572667E-1	5.398440E-1	5.298729E-1	5.243644E-1	5.479076E-1	5.134380E-1	5.383839E-1	5.523728E-1	5.168548E-1	5.388693E-1	5.123149E-1	5.037248E-1	5.531660E-1	5.229832E-1	5.236905E-1	4.984157E-1	5.133252E-1	4.913613E-1	5.320116E-1	5.384323E-1	5.105081E-1	5.241714E-1	5.523459E-1	5.571856E-1	5.294500E-1	5.030756E-1	5.339366E-1	5.522937E-1	4.958669E-1	5.116644E-1	5.347399E-1	5.210057E-1	4.980220E-1	5.339764E-1	5.342995E-1	5.091603E-1	5.293706E-1	5.289156E-1	5.551516E-1	5.386066E-1	5.300804E-1	5.121957E-1	5.186752E-1	5.147429E-1	5.250167E-1	5.328549E-1	5.322991E-1	5.210564E-1	5.543840E-1	4.995940E-1	5.112747E-1	5.474851E-1	5.327290E-1	5.364415E-1	4.959577E-1	5.506235E-1	5.594029E-1	5.375928E-1	5.429233E-1	5.218789E-1	5.340884E-1	4.954923E-1	5.306700E-1	5.425656E-1	5.227211E-1	5.362734E-1	5.316884E-1	5.449721E-1	5.255498E-1	5.186124E-1	5.291171E-1	5.117890E-1	5.368162E-1	4.904814E-1	5.099340E-1	5.222145E-1	5.416245E-1	5.636740E-1	5.266161E-1	5.044749E-1	5.339726E-1	5.007706E-1	5.199431E-1
5.367660E+2	4.960879E-1	4.859443E-1	5.167132E-1	4.967886E-1	4.915187E-1	5.081625E-1	5.088477E-1	4.877906E-1	4.895771E-1	5.015195E-1	4.928462E-1	5.207022E-1	5.044709E-1	5.037025E-1	4.959295E-1	5.014189E-1	4.857730E-1	5.027319E-1	4.552601E-1	4.919654E-1	4.668912E-1	5.062615E-1	4.965517E-1	5.156834E-1	5.318318E-1	4.913218E-1	4.985098E-1	5.019771E-1	4.969120E-1	4.986252E-1	4.997286E-1	4.897275E-1	5.088027E-1	4.989397E-1	5.238008E-1	4.981154E-1	4.998066E-1	5.265365E-1	4.901955E-1	4.998613E-1	5.037961E-1	4.994030E-1	4.821250E-1	4.948875E-1	5.115155E-1	5.090798E-1	5.065639E-1	5.049959E-1	5.026649E-1	4.951463E-1	4.918762E-1	5.242060E-1	5.013329E-1	4.785214E-1	5.029894E-1	4.881616E-1	4.810161E-1	4.824513E-1	5.187853E-1	5.174557E-1	4.971738E-1	4.950341E-1	5.229028E-1	4.990123E-1	4.985350E-1	5.177588E-1	5.146227E-1	5.185483E-1	4.919983E-1	5.131584E-1	4.879161E-1	4.911554E-1	5.064411E-1	5.230743E-1	4.955176E-1	5.065928E-1	4.741331E-1	5.287632E-1	5.173939E-1	5.160877E-1	4.799471E-1	5.282336E-1	5.384360E-1	4.810401E-1	5.217782E-1	5.054704E-1	5.172146E-1	5.274601E-1	4.865083E-1	4.845046E-1	5.269611E-1	5.058704E-1	5.156644E-1	4.908816E-1	5.144229E-1	5.146562E-1	5.179219E-1	5.139377E-1	5.033554E-1	5.087910E-1	5.425236E-1	5.466016E-1	5.241762E-1	5.150258E-1	4.923503E-1	4.920668E-1	5.512096E-1	5.078470E-1	4.930197E-1	4.873607E-1	5.187565E-1	5.153594E-1	5.026209E-1	5.122282E-1	5.191124E-1	5.167493E-1	5.337123E-1	4.961109E-1	5.111217E-1	4.978480E-1	5.101487E-1	4.750396E-1	5.287399E-1	5.060591E-1	4.989441E-1	4.864926E-1	5.278829E-1	4.622504E-1	4.991565E-1	5.156222E-1	5.303984E-1	5.149009E-1	5.272520E-1	5.021429E-1	4.850730E-1	5.223231E-1	5.167004E-1	5.156011E-1	5.311262E-1	4.944275E-1	5.256450E-1	5.216708E-1	5.240909E-1	5.217285E-1	5.122774E-1	4.941020E-1	5.229302E-1	4.920357E-1	5.406424E-1	4.845690E-1	4.984528E-1	5.085085E-1	4.905918E-1	5.022150E-1	5.787268E-1	4.791008E-1	5.080533E-1	5.210571E-1	5.132418E-1	5.139390E-1	5.208712E-1	5.446169E-1	5.118467E-1	5.191971E-1	5.197317E-1	5.294739E-1	5.138968E-1	5.039015E-1	4.872147E-1	5.415571E-1
5.370170E+2	5.304956E-1	4.933766E-1	5.127563E-1	5.001533E-1	5.525812E-1	5.247544E-1	5.112189E-1	4.997051E-1	5.066827E-1	5.105280E-1	4.992483E-1	5.193249E-1	5.232895E-1	4.922856E-1	5.480269E-1	5.084798E-1	5.055327E-1	5.272565E-1	5.211072E-1	5.229863E-1	5.012329E-1	5.273140E-1	5.244705E-1	5.409537E-1	5.270346E-1	5.331106E-1	5.338427E-1	5.492307E-1	5.282695E-1	5.123763E-1	5.151262E-1	5.114841E-1	5.221808E-1	5.389688E-1	5.118385E-1	5.389957E-1	5.134811E-1	5.000150E-1	5.130266E-1	5.463547E-1	5.229999E-1	5.721298E-1	5.016744E-1	5.638671E-1	5.009688E-1	5.072004E-1	5.137416E-1	5.296343E-1	5.127234E-1	5.063144E-1	5.332385E-1	5.105169E-1	5.013683E-1	5.302271E-1	5.192438E-1	5.179583E-1	5.231087E-1	5.331973E-1	4.797723E-1	5.118923E-1	5.122604E-1	5.205381E-1	5.460635E-1	5.335677E-1	4.794745E-1	5.123207E-1	5.454924E-1	5.184796E-1	5.096415E-1	5.158969E-1	5.200035E-1	4.999383E-1	5.210368E-1	5.137984E-1	5.304794E-1	5.275827E-1	4.923233E-1	5.358146E-1	5.223027E-1	5.187388E-1	5.150368E-1	5.121470E-1	5.309586E-1	5.712587E-1	5.287093E-1	5.319587E-1	5.611481E-1	5.424163E-1	5.291496E-1	5.228375E-1	5.415953E-1	5.300367E-1	5.518086E-1	4.989053E-1	5.455560E-1	5.030836E-1	5.386127E-1	5.227036E-1	5.459672E-1	5.417631E-1	5.324195E-1	5.315644E-1	5.190641E-1	5.173360E-1	5.132078E-1	5.658349E-1	5.113936E-1	4.869742E-1	5.028605E-1	5.540226E-1	5.113689E-1	5.278663E-1	5.250269E-1	5.201301E-1	5.254205E-1	5.170795E-1	5.500233E-1	5.322739E-1	5.475861E-1	4.989047E-1	5.056509E-1	4.996260E-1	5.204268E-1	5.205510E-1	4.949183E-1	5.215337E-1	5.405722E-1	5.106984E-1	5.437994E-1	5.360425E-1	5.208113E-1	4.990803E-1	5.153651E-1	5.268287E-1	5.196332E-1	5.097979E-1	5.202000E-1	5.552316E-1	5.254735E-1	5.082366E-1	5.156835E-1	5.270060E-1	5.202945E-1	5.002866E-1	5.027475E-1	5.554252E-1	5.162149E-1	5.432178E-1	5.118484E-1	5.183772E-1	5.339063E-1	5.138169E-1	5.242719E-1	5.228941E-1	5.366954E-1	5.186052E-1	5.124355E-1	5.498595E-1	5.315158E-1	5.438721E-1	5.042509E-1	5.488703E-1	5.613593E-1	5.076871E-1	5.070787E-1	5.213174E-1	5.539607E-1	5.167142E-1	5.148353E-1	5.442338E-1
5.372640E+2	5.700143E-1	5.680749E-1	5.959485E-1	6.137102E-1	5.846141E-1	6.342969E-1	6.142714E-1	6.160641E-1	5.965293E-1	6.141093E-1	5.914499E-1	6.009229E-1	6.183204E-1	5.628367E-1	5.783492E-1	5.975080E-1	5.587571E-1	6.071213E-1	5.854948E-1	5.856156E-1	6.028370E-1	5.858057E-1	6.015899E-1	6.117984E-1	5.793723E-1	6.204110E-1	5.905963E-1	6.160436E-1	5.725386E-1	6.200361E-1	5.983284E-1	5.913909E-1	5.950832E-1	6.285413E-1	5.921364E-1	6.407856E-1	6.379064E-1	6.073487E-1	6.085954E-1	5.882283E-1	5.820601E-1	5.965773E-1	5.713938E-1	5.792678E-1	6.031837E-1	5.860580E-1	6.121743E-1	5.658136E-1	6.050752E-1	6.204695E-1	6.022570E-1	5.774289E-1	6.098198E-1	6.152315E-1	5.550936E-1	6.003645E-1	5.566512E-1	6.230434E-1	6.329864E-1	6.192712E-1	5.959634E-1	5.766195E-1	5.905905E-1	5.981840E-1	6.171188E-1	6.381786E-1	6.052597E-1	5.949843E-1	5.975124E-1	5.781055E-1	6.033000E-1	6.039873E-1	5.813652E-1	5.987328E-1	6.160841E-1	5.902003E-1	5.970955E-1	6.270045E-1	5.980662E-1	6.068919E-1	5.633055E-1	6.306681E-1	6.037496E-1	5.962106E-1	6.210198E-1	6.012926E-1	6.209270E-1	6.199968E-1	6.255645E-1	6.181492E-1	6.253090E-1	5.983911E-1	5.800303E-1	6.171554E-1	5.818169E-1	5.854541E-1	5.901827E-1	5.993461E-1	5.734663E-1	6.139372E-1	6.061869E-1	5.952210E-1	6.077650E-1	5.909724E-1	5.882677E-1	5.837655E-1	5.923737E-1	6.258175E-1	5.985221E-1	6.263514E-1	5.764197E-1	6.056312E-1	6.162968E-1	6.122375E-1	6.427539E-1	6.026862E-1	6.171208E-1	6.031938E-1	6.420779E-1	5.845703E-1	5.840261E-1	5.997350E-1	6.331014E-1	5.745484E-1	5.911406E-1	6.257810E-1	6.059118E-1	5.990288E-1	6.119440E-1	6.328793E-1	5.679447E-1	6.010980E-1	6.234362E-1	5.970766E-1	6.377954E-1	6.195358E-1	5.771379E-1	6.018041E-1	6.098919E-1	5.966366E-1	6.175655E-1	6.171155E-1	6.043059E-1	6.173428E-1	6.089046E-1	5.947029E-1	5.682559E-1	5.875771E-1	6.057830E-1	5.821289E-1	6.284581E-1	6.034951E-1	6.008827E-1	6.139115E-1	6.194532E-1	6.095967E-1	5.877302E-1	5.843469E-1	6.080786E-1	5.981249E-1	6.230887E-1	6.178709E-1	5.945949E-1	6.130401E-1	5.719446E-1	5.700017E-1	5.867724E-1	6.180707E-1	5.549289E-1	6.544287E-1
5.375110E+2	6.895454E-1	7.311212E-1	7.039111E-1	7.247101E-1	7.320960E-1	7.363943E-1	7.174484E-1	6.797175E-1	7.305691E-1	6.692474E-1	7.096797E-1	7.100247E-1	7.867409E-1	7.227073E-1	7.185150E-1	6.315882E-1	7.220188E-1	7.539843E-1	6.985628E-1	7.633932E-1	6.927211E-1	6.990741E-1	6.828968E-1	6.990814E-1	7.567159E-1	7.337704E-1	7.108787E-1	7.384244E-1	7.179123E-1	7.186658E-1	7.073417E-1	7.115171E-1	7.039331E-1	7.221937E-1	7.275193E-1	7.018926E-1	7.190894E-1	6.896888E-1	7.236793E-1	7.147159E-1	7.170875E-1	6.847754E-1	7.089410E-1	7.450742E-1	6.935337E-1	7.328553E-1	7.263197E-1	7.037236E-1	7.132269E-1	7.254466E-1	7.180352E-1	7.043357E-1	7.194056E-1	7.009171E-1	7.203285E-1	7.040751E-1	7.195908E-1	7.110518E-1	7.353737E-1	7.424294E-1	7.226085E-1	6.998407E-1	7.178296E-1	7.163583E-1	7.067322E-1	7.306577E-1	6.932824E-1	7.243039E-1	7.018664E-1	7.587805E-1	7.088567E-1	7.251451E-1	7.315256E-1	7.675010E-1	7.471296E-1	7.771776E-1	7.069643E-1	7.322972E-1	7.130153E-1	7.100650E-1	6.751677E-1	7.133562E-1	7.173292E-1	7.176017E-1	7.200944E-1	7.123721E-1	7.176898E-1	7.000437E-1	7.123134E-1	7.378009E-1	7.086677E-1	7.083052E-1	6.723032E-1	7.612465E-1	7.590238E-1	7.262000E-1	6.972592E-1	7.530869E-1	6.930006E-1	7.295952E-1	7.105443E-1	7.135138E-1	6.869936E-1	7.129837E-1	7.000353E-1	6.929455E-1	7.206254E-1	7.405950E-1	6.993921E-1	6.932702E-1	7.179099E-1	7.120673E-1	7.550063E-1	7.476472E-1	7.131861E-1	7.066987E-1	7.311048E-1	7.296024E-1	7.037618E-1	7.479478E-1	7.338047E-1	6.845493E-1	6.544500E-1	7.051029E-1	6.818517E-1	7.496696E-1	7.426445E-1	7.259202E-1	6.988880E-1	7.104040E-1	7.216353E-1	6.996589E-1	7.198010E-1	6.716849E-1	7.798091E-1	7.307251E-1	7.028315E-1	7.402328E-1	7.458284E-1	7.568271E-1	6.963981E-1	7.552250E-1	7.254269E-1	6.979312E-1	7.131110E-1	6.977000E-1	7.271563E-1	7.190918E-1	7.091823E-1	6.912528E-1	7.207968E-1	7.272577E-1	7.092271E-1	7.195262E-1	6.888836E-1	7.336885E-1	7.095774E-1	7.221321E-1	7.215404E-1	7.132960E-1	7.485431E-1	7.106116E-1	7.248514E-1	7.028992E-1	7.297370E-1	6.790909E-1	7.623899E-1	6.764513E-1	6.943299E-1	7.610271E-1
5.377580E+2	7.948640E-1	7.615730E-1	7.000122E-1	7.733771E-1	7.721529E-1	7.573135E-1	7.538462E-1	7.765144E-1	7.470581E-1	7.580196E-1	7.662549E-1	7.806058E-1	7.445493E-1	7.562641E-1	7.825639E-1	7.796905E-1	8.113844E-1	7.779178E-1	7.839853E-1	7.468390E-1	7.720421E-1	7.291116E-1	7.591840E-1	7.576145E-1	8.063828E-1	7.622187E-1	7.803702E-1	7.225337E-1	7.612859E-1	7.565141E-1	7.454018E-1	7.983260E-1	7.977223E-1	7.263895E-1	7.708780E-1	7.559540E-1	7.608820E-1	7.547801E-1	7.807482E-1	7.525095E-1	7.621995E-1	7.752162E-1	7.445347E-1	7.562633E-1	7.988958E-1	7.858651E-1	7.392111E-1	7.323977E-1	7.671511E-1	7.937597E-1	7.522129E-1	7.520553E-1	7.712343E-1	7.762554E-1	7.468414E-1	7.313633E-1	7.912550E-1	7.487522E-1	7.917175E-1	7.526979E-1	7.766564E-1	7.697177E-1	7.719271E-1	7.580953E-1	7.662713E-1	7.911508E-1	7.642087E-1	7.771347E-1	7.610011E-1	7.750816E-1	7.612239E-1	7.487994E-1	7.581202E-1	8.031519E-1	7.953266E-1	7.386073E-1	7.260395E-1	7.658274E-1	8.127319E-1	7.588116E-1	7.526498E-1	7.755646E-1	7.526046E-1	7.257991E-1	7.326154E-1	8.211385E-1	7.576733E-1	7.804560E-1	7.561208E-1	8.061492E-1	7.690124E-1	7.737866E-1	7.286356E-1	7.774391E-1	8.097067E-1	7.676262E-1	7.671471E-1	7.297621E-1	7.925064E-1	8.119124E-1	7.633737E-1	7.292409E-1	7.941818E-1	8.129869E-1	7.376940E-1	7.560622E-1	8.013353E-1	8.108696E-1	7.061761E-1	7.617124E-1	7.874902E-1	7.966600E-1	7.715316E-1	7.412642E-1	7.611430E-1	7.796155E-1	7.559858E-1	7.747278E-1	8.018486E-1	7.328375E-1	7.755054E-1	8.118694E-1	7.464240E-1	7.380075E-1	7.299639E-1	7.914650E-1	7.515916E-1	7.414459E-1	7.543928E-1	7.923935E-1	8.053165E-1	7.583009E-1	7.629903E-1	7.034030E-1	7.877503E-1	7.674053E-1	7.660579E-1	7.735555E-1	7.535540E-1	7.704348E-1	7.619921E-1	7.572956E-1	7.714868E-1	8.032021E-1	7.662614E-1	7.497215E-1	8.154964E-1	7.675640E-1	7.913545E-1	7.491013E-1	8.093559E-1	7.864664E-1	7.811235E-1	7.605219E-1	7.135441E-1	7.775993E-1	7.694770E-1	7.777193E-1	7.861323E-1	8.065864E-1	8.021934E-1	7.789966E-1	8.083105E-1	7.959562E-1	7.393301E-1	7.859822E-1	8.257190E-1	8.309784E-1	7.654043E-1	7.766392E-1
5.380210E+2	9.714054E-1	8.871704E-1	9.639177E-1	8.864729E-1	9.323716E-1	9.280457E-1	8.955026E-1	9.722773E-1	9.115666E-1	9.637680E-1	9.160957E-1	9.465118E-1	8.830418E-1	9.194115E-1	9.356940E-1	9.186404E-1	9.048970E-1	9.524262E-1	9.246609E-1	9.216341E-1	9.364699E-1	9.275736E-1	9.045943E-1	8.968640E-1	9.348670E-1	9.827780E-1	9.100583E-1	9.376768E-1	8.826434E-1	9.338707E-1	9.113898E-1	9.274494E-1	9.610170E-1	9.012448E-1	9.505871E-1	9.077284E-1	9.233316E-1	9.228353E-1	9.371338E-1	9.553950E-1	9.268891E-1	9.217457E-1	9.325617E-1	9.416807E-1	9.322086E-1	9.749023E-1	9.580219E-1	9.287163E-1	9.753032E-1	9.540827E-1	9.129759E-1	9.270026E-1	9.150000E-1	9.182854E-1	9.429372E-1	8.901777E-1	8.528704E-1	9.003475E-1	9.178597E-1	9.154145E-1	9.082800E-1	9.161862E-1	9.264159E-1	8.905247E-1	8.967603E-1	9.252553E-1	9.248935E-1	9.406333E-1	9.230929E-1	9.337006E-1	9.444795E-1	9.016906E-1	9.248531E-1	9.146016E-1	9.266271E-1	8.945482E-1	9.053848E-1	9.129257E-1	1.011332E+0	9.211061E-1	9.538911E-1	9.586577E-1	9.708234E-1	9.596752E-1	9.307903E-1	9.533844E-1	9.161861E-1	9.292534E-1	9.620239E-1	9.278420E-1	8.850531E-1	8.856109E-1	8.830715E-1	9.315465E-1	9.317458E-1	9.230624E-1	9.180599E-1	9.155321E-1	9.288904E-1	9.109357E-1	9.405514E-1	9.393477E-1	8.847891E-1	9.010545E-1	9.396534E-1	9.080286E-1	9.273721E-1	9.232799E-1	9.377681E-1	9.311276E-1	9.427284E-1	9.285896E-1	9.150714E-1	9.390409E-1	9.557321E-1	9.340175E-1	9.431669E-1	9.179323E-1	9.337256E-1	9.405034E-1	9.510276E-1	9.358388E-1	8.792149E-1	8.953439E-1	9.019243E-1	9.094552E-1	9.554022E-1	9.222399E-1	9.172504E-1	9.436740E-1	9.478770E-1	9.304892E-1	9.499292E-1	9.629428E-1	8.959684E-1	9.066354E-1	9.258971E-1	9.754894E-1	9.235695E-1	9.385448E-1	9.235279E-1	9.346986E-1	9.365774E-1	9.110824E-1	9.169962E-1	9.112448E-1	9.204781E-1	9.048268E-1	9.158099E-1	9.081410E-1	9.142815E-1	9.300926E-1	9.568352E-1	9.303979E-1	9.370261E-1	9.183926E-1	9.277673E-1	9.203335E-1	9.503799E-1	9.001681E-1	8.848623E-1	9.653580E-1	9.293988E-1	9.018988E-1	8.766146E-1	9.101683E-1	9.529920E-1	9.723033E-1	9.506001E-1	9.474057E-1
5.382790E+2	1.035591E+0	1.028722E+0	1.082020E+0	1.035171E+0	1.021355E+0	1.098547E+0	1.099661E+0	1.085705E+0	1.064545E+0	1.080120E+0	1.070167E+0	1.051007E+0	1.065757E+0	1.075333E+0	1.052957E+0	1.070160E+0	1.057077E+0	1.059887E+0	1.011472E+0	1.052711E+0	1.026981E+0	1.048266E+0	1.063139E+0	1.074528E+0	1.088964E+0	1.049222E+0	1.095823E+0	1.102955E+0	1.062267E+0	1.081310E+0	1.068943E+0	1.082951E+0	1.082778E+0	1.081627E+0	1.042749E+0	1.049491E+0	1.074180E+0	1.077803E+0	1.038374E+0	1.049674E+0	1.083784E+0	1.099952E+0	1.010535E+0	1.057386E+0	1.014527E+0	1.039122E+0	1.062182E+0	1.024623E+0	1.047503E+0	1.079560E+0	1.074090E+0	1.061762E+0	1.087489E+0	1.087719E+0	1.090113E+0	1.040837E+0	1.038217E+0	1.057970E+0	1.135795E+0	1.057401E+0	1.046598E+0	1.034246E+0	1.030798E+0	1.107142E+0	1.038006E+0	1.074263E+0	1.112465E+0	1.058622E+0	1.047709E+0	1.061241E+0	1.072044E+0	1.056005E+0	1.099073E+0	1.056925E+0	1.082603E+0	1.024139E+0	1.015673E+0	1.086656E+0	1.076533E+0	1.082343E+0	1.056583E+0	1.029316E+0	1.061133E+0	1.103921E+0	1.033460E+0	1.090762E+0	1.049233E+0	1.128489E+0	1.057950E+0	1.028812E+0	1.068071E+0	1.093764E+0	1.025641E+0	1.086950E+0	1.113399E+0	1.034192E+0	1.080821E+0	1.070928E+0	1.076213E+0	1.067749E+0	1.102236E+0	1.117075E+0	1.005025E+0	1.050115E+0	1.054156E+0	1.025786E+0	1.109551E+0	1.088386E+0	1.032387E+0	1.079589E+0	1.016408E+0	1.077271E+0	1.053061E+0	1.089139E+0	1.109561E+0	1.027708E+0	1.043564E+0	1.037067E+0	1.071968E+0	1.084721E+0	1.095612E+0	1.074739E+0	1.069953E+0	1.031723E+0	1.016269E+0	1.096153E+0	1.000013E+0	1.047141E+0	1.064386E+0	1.088608E+0	1.092821E+0	1.011440E+0	1.066319E+0	1.077923E+0	1.085620E+0	1.037120E+0	1.046983E+0	1.078196E+0	1.050604E+0	1.036566E+0	1.036096E+0	1.024383E+0	1.061878E+0	1.060534E+0	1.077686E+0	1.004583E+0	1.084950E+0	1.034472E+0	1.051308E+0	1.068486E+0	1.041119E+0	1.045841E+0	1.042647E+0	1.139708E+0	1.046733E+0	1.059745E+0	1.012501E+0	1.117545E+0	1.047347E+0	1.120076E+0	1.044467E+0	1.057864E+0	1.057947E+0	1.093879E+0	1.043729E+0	1.045191E+0	1.087440E+0	1.062740E+0	1.009006E+0	1.032727E+0
5.385110E+2	1.317298E+0	1.238271E+0	1.349075E+0	1.280261E+0	1.298524E+0	1.259493E+0	1.281750E+0	1.234082E+0	1.330119E+0	1.288093E+0	1.290332E+0	1.335587E+0	1.284144E+0	1.273287E+0	1.292257E+0	1.297966E+0	1.223439E+0	1.273709E+0	1.289534E+0	1.228897E+0	1.277966E+0	1.265737E+0	1.279204E+0	1.263838E+0	1.281394E+0	1.314294E+0	1.315024E+0	1.347713E+0	1.256378E+0	1.281396E+0	1.259930E+0	1.256690E+0	1.309926E+0	1.281180E+0	1.296352E+0	1.261088E+0	1.293239E+0	1.311871E+0	1.329621E+0	1.281267E+0	1.307158E+0	1.274532E+0	1.252384E+0	1.321837E+0	1.265340E+0	1.288650E+0	1.317581E+0	1.247288E+0	1.256429E+0	1.289116E+0	1.271484E+0	1.277959E+0	1.262344E+0	1.323336E+0	1.281550E+0	1.275696E+0	1.303536E+0	1.301610E+0	1.301211E+0	1.296655E+0	1.240940E+0	1.279463E+0	1.279959E+0	1.273328E+0	1.270405E+0	1.249634E+0	1.240511E+0	1.282918E+0	1.298403E+0	1.240226E+0	1.292217E+0	1.264466E+0	1.225124E+0	1.282416E+0	1.291073E+0	1.263327E+0	1.194300E+0	1.281036E+0	1.259122E+0	1.301433E+0	1.273149E+0	1.286262E+0	1.274832E+0	1.283453E+0	1.249026E+0	1.294197E+0	1.249831E+0	1.263914E+0	1.317458E+0	1.278033E+0	1.273862E+0	1.315033E+0	1.240018E+0	1.246031E+0	1.277893E+0	1.283394E+0	1.267972E+0	1.262163E+0	1.300229E+0	1.305293E+0	1.296378E+0	1.278232E+0	1.246152E+0	1.256048E+0	1.241574E+0	1.214984E+0	1.274961E+0	1.310437E+0	1.261857E+0	1.251887E+0	1.262909E+0	1.217465E+0	1.269181E+0	1.295224E+0	1.256586E+0	1.266249E+0	1.226171E+0	1.288365E+0	1.292656E+0	1.261511E+0	1.277670E+0	1.253682E+0	1.308450E+0	1.277757E+0	1.207051E+0	1.277865E+0	1.308568E+0	1.235479E+0	1.293682E+0	1.288841E+0	1.293253E+0	1.256876E+0	1.280236E+0	1.235197E+0	1.252030E+0	1.261397E+0	1.274571E+0	1.316291E+0	1.296240E+0	1.273370E+0	1.237136E+0	1.203577E+0	1.277634E+0	1.243007E+0	1.258931E+0	1.246184E+0	1.266982E+0	1.282689E+0	1.243699E+0	1.229100E+0	1.273724E+0	1.250557E+0	1.315694E+0	1.270114E+0	1.253268E+0	1.232869E+0	1.272469E+0	1.297781E+0	1.256679E+0	1.293186E+0	1.260768E+0	1.251074E+0	1.292534E+0	1.298817E+0	1.255226E+0	1.265552E+0	1.260461E+0	1.279884E+0	1.208545E+0	1.273832E+0
5.387700E+2	1.527122E+0	1.502723E+0	1.533554E+0	1.465975E+0	1.516167E+0	1.451199E+0	1.497600E+0	1.431476E+0	1.500988E+0	1.497043E+0	1.502011E+0	1.488774E+0	1.437289E+0	1.474200E+0	1.488260E+0	1.490055E+0	1.519889E+0	1.434614E+0	1.491998E+0	1.470512E+0	1.465879E+0	1.490009E+0	1.510408E+0	1.516413E+0	1.498790E+0	1.529756E+0	1.513751E+0	1.505389E+0	1.520056E+0	1.447359E+0	1.481538E+0	1.468821E+0	1.486777E+0	1.475241E+0	1.439650E+0	1.532575E+0	1.492907E+0	1.476398E+0	1.463055E+0	1.494987E+0	1.508409E+0	1.479798E+0	1.454764E+0	1.491550E+0	1.460278E+0	1.506769E+0	1.519822E+0	1.474850E+0	1.541483E+0	1.463057E+0	1.480305E+0	1.436443E+0	1.479047E+0	1.477175E+0	1.467630E+0	1.501165E+0	1.478048E+0	1.480271E+0	1.466508E+0	1.482102E+0	1.469298E+0	1.444949E+0	1.523018E+0	1.453847E+0	1.468047E+0	1.505598E+0	1.486174E+0	1.444898E+0	1.533391E+0	1.463117E+0	1.500434E+0	1.488514E+0	1.506294E+0	1.492624E+0	1.449657E+0	1.473899E+0	1.440008E+0	1.453295E+0	1.506213E+0	1.479017E+0	1.477696E+0	1.485068E+0	1.518381E+0	1.482189E+0	1.435204E+0	1.477164E+0	1.509010E+0	1.468433E+0	1.508473E+0	1.494305E+0	1.444986E+0	1.520521E+0	1.469240E+0	1.503026E+0	1.505846E+0	1.433510E+0	1.475284E+0	1.478377E+0	1.530993E+0	1.429295E+0	1.453456E+0	1.441086E+0	1.475381E+0	1.443217E+0	1.433794E+0	1.421287E+0	1.458717E+0	1.459065E+0	1.412491E+0	1.512029E+0	1.501126E+0	1.461948E+0	1.542777E+0	1.476083E+0	1.486357E+0	1.518589E+0	1.496989E+0	1.438672E+0	1.485018E+0	1.431575E+0	1.438543E+0	1.468517E+0	1.516650E+0	1.445302E+0	1.437401E+0	1.487722E+0	1.520623E+0	1.387644E+0	1.471556E+0	1.528691E+0	1.516951E+0	1.419582E+0	1.470607E+0	1.480521E+0	1.478072E+0	1.500957E+0	1.452423E+0	1.462827E+0	1.482288E+0	1.494710E+0	1.439260E+0	1.392901E+0	1.488502E+0	1.471038E+0	1.490338E+0	1.437094E+0	1.505533E+0	1.418000E+0	1.491834E+0	1.406844E+0	1.433489E+0	1.448768E+0	1.472839E+0	1.465485E+0	1.500700E+0	1.456863E+0	1.476538E+0	1.443573E+0	1.503295E+0	1.502429E+0	1.394309E+0	1.446183E+0	1.480090E+0	1.475491E+0	1.461779E+0	1.393077E+0	1.509146E+0	1.469625E+0	1.418718E+0	1.452999E+0
5.390240E+2	1.703648E+0	1.669283E+0	1.699765E+0	1.638325E+0	1.682272E+0	1.660326E+0	1.705023E+0	1.708217E+0	1.686708E+0	1.644486E+0	1.683412E+0	1.646392E+0	1.734439E+0	1.641684E+0	1.612666E+0	1.665200E+0	1.732345E+0	1.700032E+0	1.679667E+0	1.694552E+0	1.668702E+0	1.711713E+0	1.663448E+0	1.722093E+0	1.694510E+0	1.675098E+0	1.697361E+0	1.729879E+0	1.673928E+0	1.671803E+0	1.636160E+0	1.706120E+0	1.646735E+0	1.689778E+0	1.699023E+0	1.670399E+0	1.752730E+0	1.691779E+0	1.727066E+0	1.700505E+0	1.633007E+0	1.691211E+0	1.711492E+0	1.639052E+0	1.654213E+0	1.715861E+0	1.715124E+0	1.664374E+0	1.775033E+0	1.679405E+0	1.668388E+0	1.687276E+0	1.661661E+0	1.637712E+0	1.607916E+0	1.642078E+0	1.660403E+0	1.658231E+0	1.689900E+0	1.669407E+0	1.673180E+0	1.623461E+0	1.680183E+0	1.658848E+0	1.642307E+0	1.682374E+0	1.606401E+0	1.676209E+0	1.652542E+0	1.647412E+0	1.701072E+0	1.665562E+0	1.663451E+0	1.669247E+0	1.744103E+0	1.628708E+0	1.596036E+0	1.667613E+0	1.704436E+0	1.731078E+0	1.661567E+0	1.628801E+0	1.713605E+0	1.671095E+0	1.632711E+0	1.695871E+0	1.686412E+0	1.715763E+0	1.693740E+0	1.629275E+0	1.690626E+0	1.665409E+0	1.634419E+0	1.612437E+0	1.702111E+0	1.699083E+0	1.625111E+0	1.677749E+0	1.657581E+0	1.599697E+0	1.665975E+0	1.695674E+0	1.693126E+0	1.616904E+0	1.651278E+0	1.591071E+0	1.698438E+0	1.616263E+0	1.655191E+0	1.663927E+0	1.697140E+0	1.691602E+0	1.729104E+0	1.700650E+0	1.689137E+0	1.581050E+0	1.621959E+0	1.670565E+0	1.704181E+0	1.626233E+0	1.688820E+0	1.702378E+0	1.642450E+0	1.677490E+0	1.603842E+0	1.670442E+0	1.672601E+0	1.643246E+0	1.645213E+0	1.645369E+0	1.707119E+0	1.654262E+0	1.631862E+0	1.587732E+0	1.649985E+0	1.695478E+0	1.658953E+0	1.585378E+0	1.653198E+0	1.619993E+0	1.608182E+0	1.603329E+0	1.729958E+0	1.669189E+0	1.615706E+0	1.653839E+0	1.667354E+0	1.597817E+0	1.599964E+0	1.680892E+0	1.664382E+0	1.655950E+0	1.674256E+0	1.672448E+0	1.661629E+0	1.696618E+0	1.601412E+0	1.649101E+0	1.697398E+0	1.612463E+0	1.653055E+0	1.589670E+0	1.670525E+0	1.641548E+0	1.536914E+0	1.643674E+0	1.631040E+0	1.617259E+0	1.523335E+0	1.615352E+0
5.392880E+2	1.943583E+0	1.850394E+0	1.897411E+0	1.849096E+0	1.855894E+0	1.863101E+0	1.887511E+0	1.838098E+0	1.892803E+0	1.903283E+0	1.863682E+0	1.908904E+0	1.882095E+0	1.903170E+0	1.854453E+0	1.877261E+0	1.832725E+0	1.863566E+0	1.807759E+0	1.876213E+0	1.859370E+0	1.891202E+0	1.896969E+0	1.880902E+0	1.859300E+0	1.899678E+0	1.821076E+0	1.875283E+0	1.824684E+0	1.883110E+0	1.889575E+0	1.830167E+0	1.827531E+0	1.844847E+0	1.896123E+0	1.871420E+0	1.906717E+0	1.909659E+0	1.862388E+0	1.847021E+0	1.877543E+0	1.842254E+0	1.849604E+0	1.869013E+0	1.860471E+0	1.865838E+0	1.888253E+0	1.841964E+0	1.874951E+0	1.823013E+0	1.865178E+0	1.826218E+0	1.871606E+0	1.800566E+0	1.856078E+0	1.845506E+0	1.838883E+0	1.828387E+0	1.913311E+0	1.869885E+0	1.838893E+0	1.857438E+0	1.925801E+0	1.881850E+0	1.823419E+0	1.859171E+0	1.795812E+0	1.848774E+0	1.869471E+0	1.856675E+0	1.795807E+0	1.784287E+0	1.869117E+0	1.852056E+0	1.955547E+0	1.854979E+0	1.773616E+0	1.802110E+0	1.870127E+0	1.841585E+0	1.808320E+0	1.830589E+0	1.915678E+0	1.823371E+0	1.822754E+0	1.861481E+0	1.855069E+0	1.848446E+0	1.849222E+0	1.787482E+0	1.864827E+0	1.913915E+0	1.819870E+0	1.778119E+0	1.896112E+0	1.840510E+0	1.863716E+0	1.866212E+0	1.822581E+0	1.862196E+0	1.825033E+0	1.816429E+0	1.781349E+0	1.809875E+0	1.814190E+0	1.736707E+0	1.872282E+0	1.821769E+0	1.796534E+0	1.790975E+0	1.834535E+0	1.833106E+0	1.809974E+0	1.816491E+0	1.846699E+0	1.792917E+0	1.837899E+0	1.844853E+0	1.848184E+0	1.813349E+0	1.835210E+0	1.813855E+0	1.813124E+0	1.823853E+0	1.739169E+0	1.813716E+0	1.896826E+0	1.788973E+0	1.834909E+0	1.817163E+0	1.810430E+0	1.804258E+0	1.812367E+0	1.825897E+0	1.816857E+0	1.815047E+0	1.835979E+0	1.831464E+0	1.808292E+0	1.836135E+0	1.770886E+0	1.800980E+0	1.911943E+0	1.809987E+0	1.820909E+0	1.768874E+0	1.837202E+0	1.807155E+0	1.825457E+0	1.794612E+0	1.781284E+0	1.832558E+0	1.893346E+0	1.769175E+0	1.763070E+0	1.807281E+0	1.800140E+0	1.770948E+0	1.818558E+0	1.829998E+0	1.795866E+0	1.855860E+0	1.844332E+0	1.805036E+0	1.779397E+0	1.895863E+0	1.819733E+0	1.810083E+0	1.779227E+0	1.766176E+0
5.395210E+2	1.997766E+0	1.991551E+0	1.982648E+0	1.983467E+0	2.038605E+0	1.971457E+0	2.017085E+0	2.019779E+0	1.990755E+0	2.017513E+0	2.024626E+0	2.016299E+0	1.986587E+0	1.960450E+0	2.034789E+0	2.006710E+0	1.959297E+0	2.005626E+0	1.940577E+0	2.016801E+0	1.996169E+0	1.967116E+0	1.970352E+0	2.022007E+0	1.957225E+0	1.963003E+0	1.992498E+0	1.988009E+0	1.994731E+0	1.966881E+0	1.989673E+0	1.981159E+0	1.969106E+0	1.962777E+0	1.955714E+0	2.021786E+0	2.075170E+0	1.954033E+0	2.041208E+0	2.034815E+0	2.018296E+0	1.992741E+0	1.921197E+0	1.996035E+0	1.915846E+0	1.997136E+0	2.104820E+0	2.047308E+0	2.011326E+0	2.024093E+0	1.940348E+0	2.014763E+0	1.920301E+0	1.955516E+0	1.952469E+0	1.972309E+0	1.954796E+0	2.000487E+0	1.978186E+0	1.966191E+0	1.970946E+0	1.971562E+0	2.014017E+0	2.054856E+0	1.930228E+0	1.951879E+0	1.936319E+0	1.995234E+0	1.956992E+0	1.946690E+0	1.957503E+0	1.987323E+0	1.965057E+0	1.975298E+0	2.002712E+0	1.958614E+0	1.938902E+0	1.926481E+0	2.044736E+0	2.027172E+0	1.940576E+0	1.966958E+0	1.999765E+0	2.007461E+0	1.977765E+0	1.969957E+0	1.977446E+0	1.983886E+0	1.963052E+0	1.921462E+0	1.938746E+0	1.952990E+0	1.912251E+0	1.902056E+0	2.014366E+0	1.989128E+0	2.043372E+0	1.960892E+0	1.923390E+0	1.965917E+0	1.961210E+0	2.009231E+0	1.920206E+0	2.017804E+0	1.890689E+0	1.934819E+0	1.960893E+0	1.861479E+0	1.917633E+0	2.037253E+0	2.005567E+0	1.969313E+0	1.996009E+0	1.945281E+0	1.939695E+0	1.919818E+0	1.964560E+0	1.946992E+0	1.984569E+0	1.939961E+0	1.924175E+0	1.945442E+0	1.910115E+0	1.989436E+0	1.926725E+0	1.931093E+0	2.030799E+0	1.898905E+0	1.939845E+0	2.001371E+0	1.959637E+0	1.943309E+0	1.901975E+0	1.958466E+0	1.944344E+0	1.976871E+0	1.965757E+0	1.843098E+0	1.967244E+0	1.929286E+0	1.876765E+0	1.908021E+0	1.957827E+0	1.931414E+0	1.935531E+0	1.935563E+0	1.960775E+0	1.926276E+0	1.983030E+0	1.950072E+0	1.923538E+0	1.967798E+0	1.943392E+0	1.870103E+0	1.909013E+0	1.897513E+0	1.868952E+0	1.887569E+0	1.964394E+0	1.992643E+0	1.901277E+0	1.953980E+0	1.980149E+0	1.856103E+0	1.895757E+0	1.886576E+0	1.912806E+0	1.983473E+0	1.847398E+0	1.870059E+0
5.397970E+2	2.116584E+0	2.088041E+0	2.071008E+0	1.993405E+0	2.077937E+0	2.100293E+0	2.063886E+0	2.046130E+0	2.021880E+0	2.095534E+0	2.046506E+0	2.044323E+0	2.055918E+0	2.006626E+0	1.963334E+0	2.051871E+0	2.090876E+0	2.055224E+0	2.049853E+0	2.065855E+0	2.047873E+0	2.035286E+0	2.027210E+0	2.094464E+0	2.088329E+0	2.056640E+0	1.954519E+0	2.080701E+0	1.995001E+0	2.034535E+0	1.965762E+0	2.002071E+0	2.092731E+0	2.032027E+0	1.992284E+0	2.024130E+0	2.030379E+0	2.059488E+0	2.056003E+0	1.978726E+0	2.047190E+0	2.029792E+0	2.018737E+0	2.015845E+0	2.023183E+0	1.941539E+0	2.098661E+0	1.977596E+0	2.025911E+0	2.023270E+0	1.986830E+0	2.039372E+0	2.005365E+0	2.040667E+0	1.989111E+0	1.980968E+0	2.043935E+0	2.034825E+0	2.093426E+0	2.005804E+0	2.012241E+0	1.927989E+0	2.072109E+0	2.050316E+0	2.023253E+0	2.023990E+0	2.059648E+0	1.992089E+0	2.009141E+0	1.961619E+0	2.042633E+0	2.053354E+0	1.970554E+0	2.000318E+0	2.007603E+0	2.008407E+0	1.962492E+0	2.008758E+0	2.015425E+0	1.995085E+0	2.007965E+0	1.950383E+0	1.972195E+0	2.044338E+0	1.917657E+0	2.077921E+0	1.991819E+0	2.087988E+0	1.997320E+0	2.008194E+0	1.977270E+0	2.016661E+0	2.053122E+0	1.979006E+0	2.061899E+0	2.001204E+0	2.083187E+0	2.042134E+0	2.001558E+0	2.007234E+0	2.021017E+0	2.048602E+0	2.050712E+0	2.020995E+0	1.992354E+0	1.929421E+0	2.024322E+0	2.018092E+0	1.948380E+0	2.025992E+0	2.084515E+0	1.902000E+0	2.065940E+0	1.976352E+0	2.034162E+0	1.962833E+0	1.927959E+0	1.897666E+0	1.997166E+0	2.020161E+0	1.953475E+0	1.925434E+0	2.015995E+0	2.019750E+0	1.995470E+0	1.982171E+0	2.052337E+0	2.006448E+0	1.966156E+0	1.970249E+0	2.048193E+0	1.938514E+0	1.970706E+0	2.003504E+0	1.977126E+0	1.920205E+0	1.973658E+0	2.019648E+0	2.078778E+0	2.009870E+0	1.950380E+0	1.928448E+0	2.035182E+0	2.015512E+0	1.917824E+0	1.991377E+0	1.979391E+0	1.974258E+0	1.972033E+0	2.009405E+0	1.912975E+0	1.977311E+0	1.964526E+0	1.905760E+0	1.936637E+0	1.994813E+0	1.945351E+0	1.949588E+0	2.028721E+0	1.992327E+0	1.922732E+0	1.952051E+0	1.989491E+0	1.994906E+0	1.991563E+0	1.982466E+0	1.989990E+0	1.999124E+0	1.941150E+0	1.858626E+0
5.400240E+2	2.008305E+0	1.983688E+0	2.039103E+0	2.029646E+0	1.993928E+0	1.946448E+0	2.030384E+0	2.023006E+0	2.008337E+0	2.011127E+0	2.019609E+0	1.972311E+0	1.975963E+0	2.015542E+0	1.970301E+0	2.004708E+0	1.966258E+0	1.994343E+0	2.023401E+0	1.958316E+0	2.005853E+0	1.980410E+0	1.967318E+0	1.970975E+0	2.007555E+0	2.004016E+0	1.864716E+0	2.044955E+0	2.000614E+0	1.903548E+0	1.896663E+0	1.904994E+0	1.981747E+0	2.021793E+0	1.914871E+0	1.997705E+0	1.987096E+0	2.026012E+0	2.031675E+0	1.973533E+0	1.946996E+0	1.976979E+0	1.924623E+0	1.976130E+0	1.951375E+0	1.931977E+0	2.017750E+0	1.996869E+0	2.026027E+0	1.964343E+0	1.969501E+0	1.984701E+0	1.984900E+0	1.978113E+0	2.022633E+0	1.990127E+0	1.978216E+0	1.961388E+0	1.970806E+0	1.975001E+0	1.933278E+0	1.922593E+0	1.975347E+0	1.958828E+0	1.942608E+0	1.983783E+0	1.871631E+0	1.979679E+0	1.911542E+0	2.003614E+0	1.997113E+0	1.923269E+0	1.959700E+0	1.972127E+0	1.974444E+0	1.994124E+0	1.956257E+0	1.961044E+0	1.950669E+0	1.992556E+0	1.923995E+0	1.907125E+0	1.981709E+0	1.915467E+0	1.977314E+0	1.994019E+0	1.957946E+0	1.958869E+0	1.951933E+0	1.960005E+0	1.983541E+0	1.999503E+0	1.995534E+0	1.968238E+0	1.977759E+0	1.942247E+0	1.926775E+0	1.921011E+0	2.002458E+0	1.925313E+0	1.925900E+0	1.966108E+0	2.016549E+0	1.943178E+0	1.997200E+0	1.969455E+0	1.956500E+0	1.883699E+0	1.912651E+0	1.957515E+0	1.970330E+0	1.890913E+0	1.899539E+0	1.970435E+0	1.972945E+0	1.894329E+0	1.871028E+0	1.947047E+0	1.950443E+0	1.915855E+0	1.973247E+0	1.929441E+0	1.974456E+0	1.936002E+0	1.824632E+0	1.947828E+0	1.978453E+0	1.948517E+0	1.935581E+0	1.951023E+0	1.951308E+0	1.942152E+0	1.926190E+0	1.909386E+0	1.892522E+0	1.893376E+0	1.960040E+0	1.886853E+0	1.983371E+0	1.885793E+0	1.974590E+0	1.934177E+0	1.954105E+0	1.919114E+0	1.939386E+0	2.029154E+0	1.911903E+0	1.894124E+0	1.892257E+0	1.974908E+0	1.947995E+0	1.912837E+0	1.928051E+0	1.861906E+0	1.863810E+0	1.920975E+0	1.841939E+0	1.956319E+0	1.978743E+0	1.879301E+0	1.904521E+0	1.932790E+0	1.960335E+0	1.915489E+0	1.853946E+0	1.878598E+0	1.890494E+0	1.921682E+0	1.879441E+0	1.936107E+0
5.402790E+2	1.917042E+0	1.854974E+0	1.882365E+0	1.845417E+0	1.894387E+0	1.862290E+0	1.861877E+0	1.843355E+0	1.858225E+0	1.872035E+0	1.855302E+0	1.872671E+0	1.847202E+0	1.853983E+0	1.828742E+0	1.859685E+0	1.837218E+0	1.919023E+0	1.885306E+0	1.841246E+0	1.892469E+0	1.912074E+0	1.888567E+0	1.954975E+0	1.922182E+0	1.874944E+0	1.875553E+0	1.926831E+0	1.848156E+0	1.794151E+0	1.855703E+0	1.803056E+0	1.871341E+0	1.833284E+0	1.818052E+0	1.872668E+0	1.924311E+0	1.905111E+0	1.845790E+0	1.833972E+0	1.881980E+0	1.846736E+0	1.808251E+0	1.840425E+0	1.848163E+0	1.844357E+0	1.854264E+0	1.882133E+0	1.845803E+0	1.911416E+0	1.854232E+0	1.833858E+0	1.865821E+0	1.825760E+0	1.828060E+0	1.908083E+0	1.846761E+0	1.845545E+0	1.848998E+0	1.857165E+0	1.885155E+0	1.858702E+0	1.911501E+0	1.792060E+0	1.901416E+0	1.855229E+0	1.890318E+0	1.871405E+0	1.835783E+0	1.844998E+0	1.847965E+0	1.867168E+0	1.810215E+0	1.869520E+0	1.853407E+0	1.907007E+0	1.842220E+0	1.885135E+0	1.814070E+0	1.874629E+0	1.830760E+0	1.812392E+0	1.853210E+0	1.823465E+0	1.788111E+0	1.840751E+0	1.822694E+0	1.824296E+0	1.843728E+0	1.855738E+0	1.865525E+0	1.852369E+0	1.829918E+0	1.836843E+0	1.830959E+0	1.900621E+0	1.842659E+0	1.873411E+0	1.780711E+0	1.827440E+0	1.875461E+0	1.804063E+0	1.855764E+0	1.855011E+0	1.794574E+0	1.796503E+0	1.889475E+0	1.834517E+0	1.808223E+0	1.809895E+0	1.885794E+0	1.807756E+0	1.879282E+0	1.815061E+0	1.854578E+0	1.827743E+0	1.829285E+0	1.819687E+0	1.874477E+0	1.758535E+0	1.847856E+0	1.795243E+0	1.780740E+0	1.793498E+0	1.760503E+0	1.903506E+0	1.829290E+0	1.853899E+0	1.826918E+0	1.802103E+0	1.846872E+0	1.754310E+0	1.852920E+0	1.835627E+0	1.860610E+0	1.839271E+0	1.786036E+0	1.805000E+0	1.900142E+0	1.789012E+0	1.787001E+0	1.785675E+0	1.903049E+0	1.807441E+0	1.720004E+0	1.819291E+0	1.807666E+0	1.807556E+0	1.801020E+0	1.861135E+0	1.805142E+0	1.858800E+0	1.848604E+0	1.873005E+0	1.808681E+0	1.803073E+0	1.780146E+0	1.755379E+0	1.854265E+0	1.805630E+0	1.746141E+0	1.759170E+0	1.818561E+0	1.803824E+0	1.789694E+0	1.747095E+0	1.756339E+0	1.819490E+0	1.729343E+0	1.843258E+0
5.405020E+2	1.778620E+0	1.717590E+0	1.761667E+0	1.788982E+0	1.739160E+0	1.773137E+0	1.776787E+0	1.741294E+0	1.779400E+0	1.753962E+0	1.785233E+0	1.797624E+0	1.857894E+0	1.754825E+0	1.768473E+0	1.746084E+0	1.732582E+0	1.861081E+0	1.796686E+0	1.734988E+0	1.795932E+0	1.748325E+0	1.792405E+0	1.732164E+0	1.783054E+0	1.793522E+0	1.744649E+0	1.841413E+0	1.749870E+0	1.692524E+0	1.682404E+0	1.788665E+0	1.835475E+0	1.774156E+0	1.731262E+0	1.813653E+0	1.792425E+0	1.789898E+0	1.778977E+0	1.768034E+0	1.772706E+0	1.750617E+0	1.766279E+0	1.764623E+0	1.766800E+0	1.740165E+0	1.781900E+0	1.788141E+0	1.738934E+0	1.753005E+0	1.769768E+0	1.826269E+0	1.785567E+0	1.798899E+0	1.776105E+0	1.725910E+0	1.720637E+0	1.743716E+0	1.742317E+0	1.778063E+0	1.746709E+0	1.721965E+0	1.740455E+0	1.743013E+0	1.733400E+0	1.764981E+0	1.696380E+0	1.777469E+0	1.759060E+0	1.704074E+0	1.774746E+0	1.750958E+0	1.741450E+0	1.750690E+0	1.785409E+0	1.740109E+0	1.756814E+0	1.730848E+0	1.785941E+0	1.751649E+0	1.755868E+0	1.714325E+0	1.799561E+0	1.761404E+0	1.736849E+0	1.743556E+0	1.730749E+0	1.798103E+0	1.711451E+0	1.731996E+0	1.718108E+0	1.812772E+0	1.743374E+0	1.764438E+0	1.748899E+0	1.744026E+0	1.781814E+0	1.776535E+0	1.735781E+0	1.738715E+0	1.797282E+0	1.747008E+0	1.734794E+0	1.721636E+0	1.674150E+0	1.704886E+0	1.701043E+0	1.718048E+0	1.702125E+0	1.755362E+0	1.744492E+0	1.751029E+0	1.729254E+0	1.740878E+0	1.772157E+0	1.707730E+0	1.708602E+0	1.726638E+0	1.744177E+0	1.696806E+0	1.689268E+0	1.778589E+0	1.719395E+0	1.746759E+0	1.717106E+0	1.674560E+0	1.707777E+0	1.768977E+0	1.741022E+0	1.806101E+0	1.770739E+0	1.709642E+0	1.807663E+0	1.748480E+0	1.706836E+0	1.742057E+0	1.699366E+0	1.750745E+0	1.733575E+0	1.742188E+0	1.697895E+0	1.717621E+0	1.751883E+0	1.746375E+0	1.690260E+0	1.789232E+0	1.741713E+0	1.709795E+0	1.713287E+0	1.744348E+0	1.700341E+0	1.763016E+0	1.732206E+0	1.753949E+0	1.766522E+0	1.715335E+0	1.659097E+0	1.690727E+0	1.737324E+0	1.811799E+0	1.733188E+0	1.752452E+0	1.737630E+0	1.768538E+0	1.737275E+0	1.736958E+0	1.750763E+0	1.738114E+0	1.610823E+0	1.701330E+0
5.407740E+2	1.748653E+0	1.680510E+0	1.709948E+0	1.580565E+0	1.708979E+0	1.676679E+0	1.734407E+0	1.741787E+0	1.720785E+0	1.689392E+0	1.682230E+0	1.737804E+0	1.660231E+0	1.657346E+0	1.674187E+0	1.681107E+0	1.669042E+0	1.677964E+0	1.741255E+0	1.657533E+0	1.722577E+0	1.740035E+0	1.690551E+0	1.687092E+0	1.622416E+0	1.715834E+0	1.627440E+0	1.706547E+0	1.686644E+0	1.650535E+0	1.667853E+0	1.660065E+0	1.728393E+0	1.707722E+0	1.636661E+0	1.657539E+0	1.624175E+0	1.636461E+0	1.611743E+0	1.649963E+0	1.713293E+0	1.688681E+0	1.648189E+0	1.689239E+0	1.711671E+0	1.653357E+0	1.699233E+0	1.687175E+0	1.708828E+0	1.716782E+0	1.722294E+0	1.662302E+0	1.699596E+0	1.642806E+0	1.650811E+0	1.652939E+0	1.675929E+0	1.653057E+0	1.670772E+0	1.668556E+0	1.626593E+0	1.635609E+0	1.738511E+0	1.694670E+0	1.662508E+0	1.688581E+0	1.667559E+0	1.649136E+0	1.627575E+0	1.663479E+0	1.665211E+0	1.693764E+0	1.704462E+0	1.635360E+0	1.664209E+0	1.689232E+0	1.666475E+0	1.660663E+0	1.659610E+0	1.737858E+0	1.689789E+0	1.586721E+0	1.646899E+0	1.689639E+0	1.650640E+0	1.671883E+0	1.681592E+0	1.670553E+0	1.726915E+0	1.672741E+0	1.629920E+0	1.706603E+0	1.674453E+0	1.674008E+0	1.641091E+0	1.652196E+0	1.638684E+0	1.683309E+0	1.656362E+0	1.706763E+0	1.636614E+0	1.636497E+0	1.665203E+0	1.659113E+0	1.691579E+0	1.607066E+0	1.623402E+0	1.677662E+0	1.626539E+0	1.630408E+0	1.678041E+0	1.648530E+0	1.689056E+0	1.677837E+0	1.692205E+0	1.667558E+0	1.631516E+0	1.713084E+0	1.654296E+0	1.651097E+0	1.601727E+0	1.684537E+0	1.646090E+0	1.648011E+0	1.603425E+0	1.655008E+0	1.667150E+0	1.646432E+0	1.651944E+0	1.682120E+0	1.617679E+0	1.582607E+0	1.697011E+0	1.636487E+0	1.697109E+0	1.612546E+0	1.587162E+0	1.638457E+0	1.645881E+0	1.703078E+0	1.584862E+0	1.650137E+0	1.638343E+0	1.688838E+0	1.594841E+0	1.616171E+0	1.667440E+0	1.618535E+0	1.649761E+0	1.645130E+0	1.686372E+0	1.623750E+0	1.705238E+0	1.635047E+0	1.588520E+0	1.632546E+0	1.628112E+0	1.629905E+0	1.644780E+0	1.740445E+0	1.667601E+0	1.657817E+0	1.589455E+0	1.670370E+0	1.583883E+0	1.628098E+0	1.649492E+0	1.706515E+0	1.504841E+0	1.582062E+0
5.410190E+2	1.632617E+0	1.649981E+0	1.662472E+0	1.596320E+0	1.639938E+0	1.692388E+0	1.648676E+0	1.617420E+0	1.695804E+0	1.662292E+0	1.655192E+0	1.654254E+0	1.682447E+0	1.634616E+0	1.640975E+0	1.632594E+0	1.671341E+0	1.665360E+0	1.616329E+0	1.626008E+0	1.623035E+0	1.678463E+0	1.669323E+0	1.660545E+0	1.665687E+0	1.583872E+0	1.592060E+0	1.604120E+0	1.612691E+0	1.638325E+0	1.605119E+0	1.643450E+0	1.680259E+0	1.669491E+0	1.685725E+0	1.639684E+0	1.613681E+0	1.616712E+0	1.627176E+0	1.665109E+0	1.618026E+0	1.623681E+0	1.567591E+0	1.606705E+0	1.582011E+0	1.683269E+0	1.639233E+0	1.689316E+0	1.676403E+0	1.702045E+0	1.619896E+0	1.645862E+0	1.636330E+0	1.644660E+0	1.717918E+0	1.619731E+0	1.623867E+0	1.622494E+0	1.637947E+0	1.671372E+0	1.671689E+0	1.635067E+0	1.641795E+0	1.658954E+0	1.650913E+0	1.607515E+0	1.626339E+0	1.648199E+0	1.609747E+0	1.669567E+0	1.664577E+0	1.602988E+0	1.651969E+0	1.663552E+0	1.616149E+0	1.614676E+0	1.576415E+0	1.605444E+0	1.632466E+0	1.627229E+0	1.598086E+0	1.663332E+0	1.622480E+0	1.683316E+0	1.633833E+0	1.614943E+0	1.593371E+0	1.665628E+0	1.625147E+0	1.622982E+0	1.619220E+0	1.625066E+0	1.621290E+0	1.642185E+0	1.611646E+0	1.607805E+0	1.640225E+0	1.650216E+0	1.633104E+0	1.664368E+0	1.649481E+0	1.668016E+0	1.648875E+0	1.664716E+0	1.639077E+0	1.635289E+0	1.632852E+0	1.568020E+0	1.608796E+0	1.656390E+0	1.653809E+0	1.630286E+0	1.670045E+0	1.664156E+0	1.681526E+0	1.618649E+0	1.611887E+0	1.621388E+0	1.631480E+0	1.622791E+0	1.638087E+0	1.655643E+0	1.603797E+0	1.583118E+0	1.603384E+0	1.600480E+0	1.608775E+0	1.628792E+0	1.589446E+0	1.525043E+0	1.603357E+0	1.635890E+0	1.611011E+0	1.637924E+0	1.630938E+0	1.592256E+0	1.613312E+0	1.608496E+0	1.624462E+0	1.694766E+0	1.584285E+0	1.529266E+0	1.651461E+0	1.627878E+0	1.544238E+0	1.608382E+0	1.602258E+0	1.560994E+0	1.545076E+0	1.628703E+0	1.587094E+0	1.582952E+0	1.644396E+0	1.602716E+0	1.611274E+0	1.588213E+0	1.523883E+0	1.611083E+0	1.586313E+0	1.639476E+0	1.648935E+0	1.581166E+0	1.618637E+0	1.699718E+0	1.641999E+0	1.610835E+0	1.586047E+0	1.677107E+0	1.613225E+0	1.611395E+0
5.412790E+2	1.570778E+0	1.542879E+0	1.552276E+0	1.486161E+0	1.575634E+0	1.546721E+0	1.590980E+0	1.515600E+0	1.570222E+0	1.500262E+0	1.560920E+0	1.553864E+0	1.510578E+0	1.531366E+0	1.513548E+0	1.566793E+0	1.492775E+0	1.563258E+0	1.457658E+0	1.533876E+0	1.597866E+0	1.525380E+0	1.538223E+0	1.556568E+0	1.514292E+0	1.443188E+0	1.531767E+0	1.550389E+0	1.511033E+0	1.518575E+0	1.538936E+0	1.481372E+0	1.510022E+0	1.514261E+0	1.481223E+0	1.544587E+0	1.559328E+0	1.574733E+0	1.516084E+0	1.553562E+0	1.540167E+0	1.544409E+0	1.501286E+0	1.548695E+0	1.555705E+0	1.525025E+0	1.503921E+0	1.578347E+0	1.596874E+0	1.552921E+0	1.547212E+0	1.547963E+0	1.559990E+0	1.520427E+0	1.574883E+0	1.477529E+0	1.542074E+0	1.551147E+0	1.526625E+0	1.520860E+0	1.544100E+0	1.549035E+0	1.514759E+0	1.494264E+0	1.547539E+0	1.521582E+0	1.517259E+0	1.538653E+0	1.522469E+0	1.507629E+0	1.509317E+0	1.559134E+0	1.523488E+0	1.535352E+0	1.535617E+0	1.536478E+0	1.532752E+0	1.534171E+0	1.513189E+0	1.594831E+0	1.568935E+0	1.523392E+0	1.515520E+0	1.491270E+0	1.514798E+0	1.503520E+0	1.524620E+0	1.546005E+0	1.544199E+0	1.518778E+0	1.488345E+0	1.545351E+0	1.507903E+0	1.575803E+0	1.574108E+0	1.510376E+0	1.556625E+0	1.545729E+0	1.547356E+0	1.561384E+0	1.560873E+0	1.510677E+0	1.565642E+0	1.520562E+0	1.498564E+0	1.474323E+0	1.564981E+0	1.563897E+0	1.476433E+0	1.533450E+0	1.510763E+0	1.528306E+0	1.565124E+0	1.545455E+0	1.577097E+0	1.509187E+0	1.465916E+0	1.528381E+0	1.523620E+0	1.542173E+0	1.506384E+0	1.559676E+0	1.460124E+0	1.579731E+0	1.468773E+0	1.539759E+0	1.541932E+0	1.539159E+0	1.580438E+0	1.570618E+0	1.511694E+0	1.502534E+0	1.532389E+0	1.526799E+0	1.521446E+0	1.536895E+0	1.532198E+0	1.453060E+0	1.556059E+0	1.527743E+0	1.474430E+0	1.453258E+0	1.558759E+0	1.580355E+0	1.521441E+0	1.490537E+0	1.470131E+0	1.507938E+0	1.596840E+0	1.479939E+0	1.505137E+0	1.518746E+0	1.563544E+0	1.484327E+0	1.565483E+0	1.521505E+0	1.532567E+0	1.531212E+0	1.493210E+0	1.595810E+0	1.517351E+0	1.500163E+0	1.543245E+0	1.501592E+0	1.505720E+0	1.552288E+0	1.511106E+0	1.552082E+0	1.459496E+0	1.411251E+0
5.415190E+2	1.415484E+0	1.387069E+0	1.418003E+0	1.369274E+0	1.427010E+0	1.411329E+0	1.348919E+0	1.400078E+0	1.359334E+0	1.438818E+0	1.370857E+0	1.393453E+0	1.398148E+0	1.393862E+0	1.348893E+0	1.341846E+0	1.368964E+0	1.377172E+0	1.372594E+0	1.398464E+0	1.367926E+0	1.356551E+0	1.364565E+0	1.366199E+0	1.378043E+0	1.374111E+0	1.361510E+0	1.410925E+0	1.301125E+0	1.356104E+0	1.346544E+0	1.393956E+0	1.403754E+0	1.357687E+0	1.339345E+0	1.358516E+0	1.429672E+0	1.366220E+0	1.385631E+0	1.420577E+0	1.346364E+0	1.341854E+0	1.382722E+0	1.342589E+0	1.348262E+0	1.401366E+0	1.431864E+0	1.349356E+0	1.366138E+0	1.347814E+0	1.372913E+0	1.382948E+0	1.355550E+0	1.379674E+0	1.372037E+0	1.357684E+0	1.400572E+0	1.379974E+0	1.368794E+0	1.381851E+0	1.330447E+0	1.396494E+0	1.409305E+0	1.351051E+0	1.407210E+0	1.437378E+0	1.380949E+0	1.392947E+0	1.337057E+0	1.339367E+0	1.431384E+0	1.358455E+0	1.397040E+0	1.376563E+0	1.365399E+0	1.375218E+0	1.392076E+0	1.341897E+0	1.391229E+0	1.409618E+0	1.366832E+0	1.351319E+0	1.371467E+0	1.365027E+0	1.329907E+0	1.394685E+0	1.350727E+0	1.357789E+0	1.370578E+0	1.430221E+0	1.331366E+0	1.368474E+0	1.321178E+0	1.361732E+0	1.343692E+0	1.377556E+0	1.422907E+0	1.389019E+0	1.375696E+0	1.355341E+0	1.351434E+0	1.397608E+0	1.290669E+0	1.350699E+0	1.364629E+0	1.322803E+0	1.337182E+0	1.355890E+0	1.334150E+0	1.390803E+0	1.382458E+0	1.382546E+0	1.414822E+0	1.375873E+0	1.424687E+0	1.382616E+0	1.379743E+0	1.378917E+0	1.344029E+0	1.393403E+0	1.382989E+0	1.334391E+0	1.371399E+0	1.400632E+0	1.353986E+0	1.424540E+0	1.327864E+0	1.384688E+0	1.396805E+0	1.373847E+0	1.446716E+0	1.380708E+0	1.370212E+0	1.379914E+0	1.357197E+0	1.410214E+0	1.375151E+0	1.355185E+0	1.400682E+0	1.375050E+0	1.321490E+0	1.299764E+0	1.401688E+0	1.375169E+0	1.362643E+0	1.278911E+0	1.363285E+0	1.309268E+0	1.362478E+0	1.349472E+0	1.314136E+0	1.366099E+0	1.386278E+0	1.371587E+0	1.352305E+0	1.355799E+0	1.384168E+0	1.309694E+0	1.324651E+0	1.362778E+0	1.379077E+0	1.353821E+0	1.381998E+0	1.342390E+0	1.357216E+0	1.383062E+0	1.315692E+0	1.408156E+0	1.338521E+0	1.362766E+0
5.417700E+2	1.189461E+0	1.168361E+0	1.223315E+0	1.167517E+0	1.177037E+0	1.168434E+0	1.181823E+0	1.133590E+0	1.173206E+0	1.177394E+0	1.186275E+0	1.221740E+0	1.201390E+0	1.206866E+0	1.216159E+0	1.200050E+0	1.180016E+0	1.234720E+0	1.214028E+0	1.201367E+0	1.166475E+0	1.159635E+0	1.241866E+0	1.171123E+0	1.192626E+0	1.176878E+0	1.153167E+0	1.242562E+0	1.167316E+0	1.229429E+0	1.184396E+0	1.158805E+0	1.180799E+0	1.176775E+0	1.161601E+0	1.206862E+0	1.236749E+0	1.208600E+0	1.153452E+0	1.198353E+0	1.172875E+0	1.171026E+0	1.123688E+0	1.198945E+0	1.165598E+0	1.174727E+0	1.170748E+0	1.175665E+0	1.240581E+0	1.217019E+0	1.250039E+0	1.211912E+0	1.250890E+0	1.188394E+0	1.199797E+0	1.167528E+0	1.139569E+0	1.130305E+0	1.158157E+0	1.214869E+0	1.154584E+0	1.204125E+0	1.198843E+0	1.176195E+0	1.196374E+0	1.218369E+0	1.164277E+0	1.162755E+0	1.206745E+0	1.209686E+0	1.179758E+0	1.184449E+0	1.175826E+0	1.190651E+0	1.169787E+0	1.176205E+0	1.194648E+0	1.196445E+0	1.160495E+0	1.179693E+0	1.199034E+0	1.165826E+0	1.222246E+0	1.209660E+0	1.157899E+0	1.151978E+0	1.208071E+0	1.227188E+0	1.190629E+0	1.204339E+0	1.108851E+0	1.249082E+0	1.180678E+0	1.168877E+0	1.166516E+0	1.204968E+0	1.187673E+0	1.190789E+0	1.167608E+0	1.212550E+0	1.194699E+0	1.140941E+0	1.171094E+0	1.201995E+0	1.172743E+0	1.155551E+0	1.166605E+0	1.162571E+0	1.174976E+0	1.152903E+0	1.147865E+0	1.192319E+0	1.167392E+0	1.191639E+0	1.195179E+0	1.158288E+0	1.139326E+0	1.128538E+0	1.205721E+0	1.200578E+0	1.145295E+0	1.168341E+0	1.195082E+0	1.183981E+0	1.172413E+0	1.168475E+0	1.216866E+0	1.178807E+0	1.234236E+0	1.216539E+0	1.185966E+0	1.184236E+0	1.197663E+0	1.209577E+0	1.183020E+0	1.176902E+0	1.202419E+0	1.200597E+0	1.213116E+0	1.230365E+0	1.118225E+0	1.159788E+0	1.154697E+0	1.192912E+0	1.213276E+0	1.192415E+0	1.227320E+0	1.165696E+0	1.185129E+0	1.171420E+0	1.178589E+0	1.236468E+0	1.199783E+0	1.174194E+0	1.189163E+0	1.206560E+0	1.208151E+0	1.196159E+0	1.148214E+0	1.199793E+0	1.180342E+0	1.243514E+0	1.171086E+0	1.181869E+0	1.152188E+0	1.191212E+0	1.217539E+0	1.174196E+0	1.109821E+0	1.226242E+0
5.420210E+2	1.056603E+0	1.059674E+0	1.055975E+0	1.073117E+0	1.030141E+0	1.078072E+0	1.022460E+0	1.009923E+0	1.014830E+0	1.040249E+0	1.039866E+0	1.052732E+0	1.026770E+0	1.044389E+0	1.026788E+0	1.018365E+0	1.081747E+0	1.045341E+0	1.010303E+0	1.020000E+0	1.072371E+0	1.018754E+0	1.021857E+0	1.033418E+0	1.020002E+0	1.052051E+0	1.079504E+0	1.053501E+0	1.011268E+0	1.067240E+0	1.011453E+0	1.014224E+0	1.058154E+0	9.820913E-1	1.005347E+0	1.103796E+0	1.097044E+0	1.030718E+0	1.058288E+0	1.034135E+0	1.068420E+0	1.033208E+0	1.007296E+0	1.059171E+0	1.015721E+0	1.048801E+0	1.029915E+0	1.036656E+0	1.060433E+0	1.039214E+0	1.027518E+0	1.010931E+0	1.028822E+0	1.068523E+0	1.059701E+0	1.012502E+0	1.051018E+0	1.031030E+0	1.020070E+0	1.046186E+0	1.040525E+0	1.006854E+0	1.005233E+0	1.038507E+0	1.050965E+0	1.022029E+0	1.053295E+0	1.031592E+0	1.012451E+0	1.016086E+0	1.072471E+0	1.020150E+0	1.038304E+0	1.069367E+0	1.081723E+0	1.028209E+0	1.037373E+0	1.036558E+0	1.027179E+0	1.030791E+0	1.078729E+0	1.033500E+0	1.033358E+0	1.034075E+0	1.045117E+0	1.041655E+0	1.041848E+0	1.051179E+0	9.799389E-1	1.050700E+0	1.016006E+0	1.059795E+0	1.069137E+0	1.055192E+0	1.074616E+0	1.018567E+0	1.047357E+0	1.039390E+0	1.049205E+0	9.978746E-1	1.052137E+0	1.021384E+0	1.040179E+0	1.067612E+0	1.029120E+0	1.057292E+0	1.035884E+0	1.055197E+0	1.018132E+0	1.045325E+0	1.066920E+0	1.013721E+0	1.009779E+0	1.052272E+0	1.041144E+0	1.082981E+0	1.025259E+0	9.987388E-1	1.065391E+0	1.071174E+0	1.019797E+0	1.029831E+0	1.025134E+0	1.048030E+0	1.006211E+0	1.101541E+0	1.041003E+0	1.008430E+0	1.062605E+0	1.060726E+0	1.089430E+0	1.018384E+0	1.051649E+0	1.010374E+0	1.024715E+0	1.049328E+0	9.995410E-1	9.672709E-1	1.048302E+0	1.081790E+0	9.978694E-1	1.056023E+0	1.026461E+0	1.133344E+0	1.040020E+0	1.023074E+0	9.769463E-1	1.023314E+0	1.025015E+0	1.054979E+0	1.015726E+0	1.056297E+0	1.044148E+0	1.046052E+0	1.056504E+0	1.059091E+0	9.941555E-1	1.046249E+0	1.019810E+0	1.044460E+0	1.066174E+0	1.019923E+0	1.049927E+0	1.043976E+0	1.074359E+0	1.039475E+0	1.010624E+0	1.120292E+0	9.397032E-1	1.050628E+0
5.422730E+2	9.324544E-1	9.517424E-1	9.686805E-1	9.360217E-1	9.248552E-1	9.107222E-1	9.401715E-1	9.627518E-1	8.829281E-1	9.223303E-1	9.729385E-1	9.274814E-1	9.888586E-1	9.153641E-1	9.504002E-1	9.304590E-1	9.439242E-1	9.434793E-1	9.480650E-1	8.999432E-1	9.580447E-1	9.685004E-1	9.247333E-1	9.797174E-1	9.556623E-1	9.163423E-1	9.432672E-1	9.607906E-1	9.468774E-1	9.730234E-1	9.496197E-1	9.475343E-1	9.795894E-1	9.479033E-1	9.701592E-1	9.591256E-1	9.649949E-1	9.383800E-1	9.731916E-1	9.508956E-1	8.965719E-1	9.607020E-1	9.653237E-1	9.570937E-1	9.449814E-1	9.592131E-1	9.397720E-1	9.263131E-1	9.388225E-1	9.632557E-1	9.669427E-1	9.297129E-1	9.540279E-1	9.550522E-1	9.221177E-1	9.077420E-1	9.526331E-1	9.497309E-1	9.427967E-1	8.779369E-1	9.363920E-1	9.405365E-1	9.528085E-1	8.915750E-1	9.587745E-1	9.489396E-1	9.416698E-1	9.656547E-1	9.227002E-1	9.445588E-1	9.606164E-1	9.623220E-1	9.320549E-1	9.399103E-1	9.072970E-1	9.591471E-1	9.540466E-1	9.270524E-1	9.644257E-1	9.600574E-1	9.592564E-1	9.865058E-1	9.556044E-1	9.811092E-1	9.124871E-1	9.646424E-1	9.301212E-1	9.489128E-1	9.753179E-1	9.911805E-1	9.584689E-1	9.678251E-1	9.279095E-1	9.498879E-1	9.366533E-1	9.378608E-1	9.334879E-1	9.359858E-1	9.542745E-1	9.723232E-1	9.573130E-1	9.287395E-1	9.414356E-1	9.384488E-1	9.076766E-1	9.097770E-1	9.332825E-1	9.503221E-1	8.956021E-1	9.638617E-1	9.461608E-1	9.612485E-1	9.317174E-1	9.212293E-1	9.541743E-1	9.079092E-1	9.483358E-1	8.966230E-1	9.298207E-1	9.408962E-1	8.684943E-1	9.570301E-1	9.886550E-1	9.801083E-1	9.268852E-1	9.838049E-1	9.334454E-1	9.663304E-1	9.455934E-1	9.438469E-1	9.453695E-1	9.305803E-1	9.612508E-1	9.445836E-1	9.556886E-1	9.664389E-1	9.421121E-1	9.225002E-1	9.922871E-1	9.881036E-1	9.108892E-1	9.057975E-1	9.206798E-1	1.000919E+0	9.205265E-1	9.060122E-1	9.093067E-1	9.266359E-1	9.675662E-1	9.657483E-1	9.270926E-1	9.703707E-1	9.915298E-1	9.237921E-1	9.229994E-1	9.765134E-1	9.540519E-1	9.471067E-1	9.243957E-1	9.768534E-1	8.999405E-1	9.792797E-1	9.739982E-1	9.441460E-1	9.148676E-1	9.389442E-1	9.769819E-1	9.573335E-1	8.989925E-1	9.741040E-1
5.425190E+2	9.364235E-1	9.437060E-1	9.524600E-1	9.233914E-1	9.567387E-1	9.238409E-1	9.164295E-1	9.491259E-1	9.416978E-1	9.455471E-1	9.480746E-1	8.909979E-1	9.482452E-1	9.164347E-1	9.240968E-1	9.433765E-1	8.861869E-1	9.351901E-1	9.245746E-1	9.316116E-1	9.441764E-1	8.948749E-1	9.436387E-1	9.734830E-1	9.227840E-1	9.668196E-1	9.114116E-1	1.013758E+0	9.395287E-1	9.463495E-1	9.175891E-1	9.167346E-1	9.975391E-1	9.557577E-1	9.463305E-1	9.354022E-1	9.725272E-1	9.796749E-1	9.559805E-1	9.141511E-1	9.544146E-1	9.368322E-1	9.263379E-1	9.518678E-1	9.585732E-1	9.747106E-1	9.375271E-1	9.564188E-1	9.681137E-1	9.215814E-1	9.572802E-1	9.675800E-1	9.124468E-1	9.213308E-1	9.484268E-1	9.449548E-1	9.495891E-1	9.314366E-1	9.509405E-1	9.171820E-1	9.203075E-1	9.257151E-1	9.218596E-1	9.201840E-1	9.751864E-1	9.027836E-1	9.459266E-1	9.644550E-1	9.443926E-1	9.317313E-1	9.180187E-1	9.424573E-1	9.288673E-1	9.780395E-1	9.400390E-1	9.604401E-1	9.210409E-1	9.191174E-1	9.017514E-1	9.353806E-1	9.549326E-1	9.281789E-1	9.311485E-1	9.145147E-1	9.523207E-1	8.987718E-1	8.965210E-1	9.623593E-1	9.257637E-1	9.285528E-1	9.146951E-1	9.396215E-1	9.247492E-1	9.279328E-1	8.997122E-1	9.135308E-1	9.780136E-1	9.972633E-1	9.330522E-1	9.594704E-1	9.643082E-1	9.675321E-1	9.976941E-1	9.123364E-1	9.715548E-1	9.996031E-1	9.432570E-1	9.602948E-1	9.356866E-1	9.582345E-1	9.380722E-1	9.083971E-1	9.425770E-1	9.347407E-1	9.548300E-1	9.502362E-1	9.685835E-1	9.434014E-1	9.506299E-1	9.461563E-1	9.176763E-1	9.274525E-1	9.511429E-1	9.613528E-1	9.016673E-1	9.346674E-1	9.453537E-1	9.140533E-1	9.180680E-1	9.467949E-1	9.732550E-1	8.943777E-1	9.376457E-1	9.135161E-1	9.029629E-1	9.600736E-1	9.489868E-1	9.398883E-1	9.307983E-1	8.834265E-1	9.058026E-1	9.024438E-1	9.565738E-1	9.462648E-1	9.693562E-1	9.033265E-1	9.383586E-1	9.495806E-1	9.832915E-1	9.451194E-1	9.149738E-1	9.493978E-1	9.816921E-1	9.506562E-1	9.063968E-1	9.356885E-1	9.111985E-1	9.396955E-1	9.226204E-1	9.269416E-1	9.575632E-1	9.637068E-1	9.537563E-1	8.818098E-1	9.425952E-1	9.461734E-1	9.582723E-1	9.358485E-1	8.769923E-1	8.776203E-1
5.427650E+2	9.910233E-1	9.652556E-1	9.896682E-1	9.742817E-1	1.000295E+0	9.703258E-1	9.578971E-1	9.654368E-1	9.756137E-1	1.004514E+0	9.554105E-1	9.814810E-1	9.710136E-1	9.796960E-1	9.840705E-1	9.750554E-1	9.476126E-1	1.002275E+0	9.912959E-1	9.702037E-1	9.684698E-1	9.866979E-1	9.418930E-1	1.002062E+0	1.050140E+0	9.620442E-1	9.760060E-1	1.008984E+0	9.515167E-1	9.920698E-1	9.452014E-1	9.775376E-1	1.042439E+0	9.648607E-1	1.018908E+0	9.737063E-1	9.711545E-1	9.790088E-1	9.892985E-1	1.013728E+0	1.002717E+0	9.863188E-1	9.257131E-1	9.580285E-1	1.006747E+0	9.850691E-1	9.929498E-1	9.669919E-1	9.933519E-1	1.002831E+0	9.969642E-1	9.551910E-1	1.010057E+0	9.494732E-1	9.865520E-1	1.001536E+0	9.306856E-1	9.607889E-1	9.736857E-1	9.938234E-1	9.640036E-1	9.740753E-1	9.738464E-1	9.686779E-1	1.003363E+0	9.803428E-1	9.054596E-1	1.007521E+0	9.865834E-1	1.005488E+0	9.993326E-1	9.967572E-1	9.630758E-1	9.879014E-1	9.649559E-1	9.930544E-1	9.501576E-1	9.710576E-1	9.682140E-1	9.422653E-1	9.592739E-1	9.908189E-1	9.420964E-1	9.872146E-1	9.567881E-1	9.948385E-1	9.836732E-1	1.026468E+0	9.674753E-1	9.975806E-1	9.727994E-1	1.007343E+0	9.642377E-1	9.896473E-1	9.797145E-1	1.010399E+0	9.812489E-1	1.002872E+0	9.745847E-1	9.889260E-1	9.853665E-1	9.653160E-1	9.569548E-1	1.007863E+0	9.520069E-1	9.898780E-1	9.634272E-1	9.715973E-1	9.488863E-1	1.020982E+0	9.915176E-1	9.676921E-1	9.869229E-1	9.974334E-1	1.003385E+0	9.948321E-1	9.659572E-1	9.869429E-1	9.774539E-1	9.746378E-1	1.037106E+0	9.953206E-1	9.864582E-1	9.559585E-1	9.618649E-1	9.962450E-1	9.650454E-1	9.870383E-1	9.363531E-1	1.030505E+0	9.884780E-1	9.190455E-1	1.043863E+0	9.868242E-1	9.766349E-1	9.735185E-1	9.877214E-1	9.924862E-1	1.001885E+0	9.764617E-1	9.450824E-1	9.476196E-1	9.540650E-1	9.596019E-1	9.842981E-1	9.987317E-1	1.037159E+0	9.565071E-1	9.913996E-1	1.009245E+0	9.866134E-1	9.881934E-1	1.004593E+0	9.515246E-1	9.505177E-1	9.555568E-1	9.330912E-1	9.857527E-1	9.573481E-1	9.990774E-1	9.653002E-1	9.918229E-1	1.000641E+0	9.983219E-1	1.026341E+0	1.007266E+0	9.540846E-1	1.004523E+0	9.688715E-1	1.002960E+0
5.430070E+2	1.067519E+0	1.066863E+0	1.139083E+0	1.076499E+0	1.116290E+0	1.113533E+0	1.089899E+0	1.083509E+0	1.130644E+0	1.052134E+0	1.108941E+0	1.074809E+0	1.090026E+0	1.083740E+0	1.061169E+0	1.088794E+0	1.120817E+0	1.110347E+0	1.090746E+0	1.060575E+0	1.099639E+0	1.103284E+0	1.084039E+0	1.119299E+0	1.112561E+0	1.123888E+0	1.072948E+0	1.140570E+0	1.082359E+0	1.097071E+0	1.058193E+0	1.081992E+0	1.123740E+0	1.084395E+0	1.087797E+0	1.080793E+0	1.085197E+0	1.111019E+0	1.156847E+0	1.062065E+0	1.097848E+0	1.084954E+0	1.086282E+0	1.113283E+0	1.068818E+0	1.089739E+0	1.111272E+0	1.052793E+0	1.134588E+0	1.104476E+0	1.118005E+0	1.099289E+0	1.076595E+0	1.082807E+0	1.088847E+0	1.080704E+0	1.098564E+0	1.081462E+0	1.064118E+0	1.044189E+0	1.091376E+0	1.110267E+0	1.110190E+0	1.026370E+0	1.157070E+0	1.094011E+0	1.081929E+0	1.082159E+0	1.104076E+0	1.109725E+0	1.094702E+0	1.077025E+0	1.077936E+0	1.038888E+0	1.129166E+0	1.024333E+0	1.081483E+0	1.107469E+0	1.094159E+0	1.100789E+0	1.125269E+0	1.103604E+0	1.103755E+0	1.062530E+0	1.072664E+0	1.129742E+0	1.075352E+0	1.061983E+0	1.068875E+0	1.070564E+0	1.073031E+0	1.078923E+0	1.077006E+0	1.119297E+0	1.117997E+0	1.073863E+0	1.061186E+0	1.057555E+0	1.062690E+0	1.069545E+0	1.058982E+0	1.083754E+0	1.083362E+0	1.100054E+0	1.068739E+0	1.095548E+0	1.073424E+0	1.105755E+0	1.102478E+0	1.091721E+0	1.080037E+0	1.094224E+0	1.128819E+0	1.077363E+0	1.110321E+0	1.109720E+0	1.049797E+0	1.115224E+0	1.137649E+0	1.060132E+0	1.097472E+0	1.096413E+0	1.054830E+0	1.078260E+0	1.033146E+0	1.110846E+0	1.070595E+0	1.089189E+0	1.115770E+0	1.118331E+0	1.084772E+0	1.051737E+0	1.166285E+0	1.102346E+0	1.081808E+0	1.054814E+0	1.043343E+0	1.093607E+0	1.093429E+0	1.062458E+0	1.099720E+0	1.053062E+0	1.090371E+0	1.083060E+0	1.044296E+0	1.134092E+0	1.053830E+0	1.068982E+0	1.120530E+0	1.109519E+0	1.056077E+0	1.089318E+0	1.135704E+0	1.072348E+0	1.058491E+0	1.091489E+0	1.074104E+0	1.061325E+0	1.082819E+0	1.083541E+0	1.082972E+0	1.038651E+0	1.066136E+0	1.078867E+0	1.057031E+0	1.088854E+0	1.087151E+0	1.083388E+0	1.089859E+0	1.142960E+0
5.432960E+2	1.248061E+0	1.238812E+0	1.233813E+0	1.202755E+0	1.238507E+0	1.203769E+0	1.194324E+0	1.221237E+0	1.197338E+0	1.236046E+0	1.260414E+0	1.246600E+0	1.251009E+0	1.239177E+0	1.221597E+0	1.252228E+0	1.251830E+0	1.240602E+0	1.252940E+0	1.228047E+0	1.291735E+0	1.231892E+0	1.215692E+0	1.311516E+0	1.260917E+0	1.274220E+0	1.263563E+0	1.244730E+0	1.255057E+0	1.230426E+0	1.220856E+0	1.204547E+0	1.264081E+0	1.266384E+0	1.240987E+0	1.277764E+0	1.283297E+0	1.280309E+0	1.256659E+0	1.280128E+0	1.265567E+0	1.244077E+0	1.204862E+0	1.216785E+0	1.279452E+0	1.260328E+0	1.238875E+0	1.268196E+0	1.291509E+0	1.253206E+0	1.256313E+0	1.262022E+0	1.221780E+0	1.237921E+0	1.223865E+0	1.192525E+0	1.260940E+0	1.258964E+0	1.229572E+0	1.230335E+0	1.254744E+0	1.209469E+0	1.261522E+0	1.263315E+0	1.255481E+0	1.254109E+0	1.220248E+0	1.217307E+0	1.288736E+0	1.256537E+0	1.256417E+0	1.217073E+0	1.221974E+0	1.248468E+0	1.247266E+0	1.265591E+0	1.189709E+0	1.257332E+0	1.260022E+0	1.225297E+0	1.286790E+0	1.267274E+0	1.261865E+0	1.224291E+0	1.242562E+0	1.220106E+0	1.252863E+0	1.289418E+0	1.256845E+0	1.202942E+0	1.195469E+0	1.214527E+0	1.268600E+0	1.241197E+0	1.248064E+0	1.246775E+0	1.242792E+0	1.268832E+0	1.219313E+0	1.226326E+0	1.260431E+0	1.278384E+0	1.277907E+0	1.239270E+0	1.199934E+0	1.233560E+0	1.241304E+0	1.230896E+0	1.217206E+0	1.230981E+0	1.236237E+0	1.236867E+0	1.248518E+0	1.255057E+0	1.225930E+0	1.225717E+0	1.265681E+0	1.265756E+0	1.275500E+0	1.204878E+0	1.267004E+0	1.218117E+0	1.243299E+0	1.201911E+0	1.278573E+0	1.229026E+0	1.262375E+0	1.228308E+0	1.297695E+0	1.246311E+0	1.262266E+0	1.195144E+0	1.239058E+0	1.261538E+0	1.271131E+0	1.228005E+0	1.231290E+0	1.209310E+0	1.266427E+0	1.226034E+0	1.229727E+0	1.251948E+0	1.251436E+0	1.194487E+0	1.277928E+0	1.251108E+0	1.230478E+0	1.216231E+0	1.221554E+0	1.262093E+0	1.256331E+0	1.244709E+0	1.282965E+0	1.234873E+0	1.238845E+0	1.238534E+0	1.250499E+0	1.263911E+0	1.257246E+0	1.244710E+0	1.217416E+0	1.237625E+0	1.271160E+0	1.212007E+0	1.234440E+0	1.227000E+0	1.229191E+0	1.241733E+0	1.229893E+0	1.202651E+0
5.435330E+2	1.377084E+0	1.411971E+0	1.398460E+0	1.378501E+0	1.367979E+0	1.392268E+0	1.397010E+0	1.435993E+0	1.440441E+0	1.436919E+0	1.472532E+0	1.441176E+0	1.417603E+0	1.411500E+0	1.375434E+0	1.417209E+0	1.389494E+0	1.454204E+0	1.422765E+0	1.393874E+0	1.454917E+0	1.380476E+0	1.426031E+0	1.412693E+0	1.379279E+0	1.403642E+0	1.350763E+0	1.423381E+0	1.442080E+0	1.393874E+0	1.361518E+0	1.339493E+0	1.420680E+0	1.402722E+0	1.364541E+0	1.393048E+0	1.408786E+0	1.403061E+0	1.425201E+0	1.421947E+0	1.397184E+0	1.459393E+0	1.350263E+0	1.438692E+0	1.429010E+0	1.421065E+0	1.397427E+0	1.339270E+0	1.428982E+0	1.434769E+0	1.409050E+0	1.348992E+0	1.389635E+0	1.415899E+0	1.434426E+0	1.374238E+0	1.426349E+0	1.407777E+0	1.427448E+0	1.417240E+0	1.394078E+0	1.373533E+0	1.419781E+0	1.348803E+0	1.377014E+0	1.393238E+0	1.335415E+0	1.395033E+0	1.411605E+0	1.386414E+0	1.393059E+0	1.429031E+0	1.344381E+0	1.433756E+0	1.367006E+0	1.386865E+0	1.334975E+0	1.400532E+0	1.376490E+0	1.421465E+0	1.415776E+0	1.409045E+0	1.420995E+0	1.436379E+0	1.380380E+0	1.371194E+0	1.351188E+0	1.426693E+0	1.422292E+0	1.383569E+0	1.402012E+0	1.388480E+0	1.402730E+0	1.415750E+0	1.349874E+0	1.383540E+0	1.416440E+0	1.438323E+0	1.418193E+0	1.364582E+0	1.387171E+0	1.415359E+0	1.432762E+0	1.388760E+0	1.376651E+0	1.353101E+0	1.388699E+0	1.381920E+0	1.376147E+0	1.380965E+0	1.403267E+0	1.399378E+0	1.401824E+0	1.409254E+0	1.386367E+0	1.398732E+0	1.417593E+0	1.419796E+0	1.395085E+0	1.376482E+0	1.382984E+0	1.363840E+0	1.377811E+0	1.413767E+0	1.397029E+0	1.429773E+0	1.429979E+0	1.394448E+0	1.400794E+0	1.402864E+0	1.394399E+0	1.377391E+0	1.390694E+0	1.385750E+0	1.380656E+0	1.342558E+0	1.420957E+0	1.388270E+0	1.367117E+0	1.364621E+0	1.381956E+0	1.369871E+0	1.399681E+0	1.384904E+0	1.364159E+0	1.385322E+0	1.440264E+0	1.361999E+0	1.368141E+0	1.365173E+0	1.362549E+0	1.368357E+0	1.370386E+0	1.378406E+0	1.359640E+0	1.359853E+0	1.390065E+0	1.381653E+0	1.380795E+0	1.375331E+0	1.417781E+0	1.359011E+0	1.384223E+0	1.442456E+0	1.360677E+0	1.422434E+0	1.323108E+0	1.465606E+0	1.326769E+0	1.502831E+0
5.437640E+2	1.503665E+0	1.522789E+0	1.548392E+0	1.554397E+0	1.476233E+0	1.553783E+0	1.481161E+0	1.499575E+0	1.500711E+0	1.521966E+0	1.580153E+0	1.572756E+0	1.493484E+0	1.472327E+0	1.459821E+0	1.473927E+0	1.509819E+0	1.543703E+0	1.519126E+0	1.592443E+0	1.532387E+0	1.511897E+0	1.558693E+0	1.550259E+0	1.504564E+0	1.550250E+0	1.493080E+0	1.555706E+0	1.527893E+0	1.455844E+0	1.485200E+0	1.511768E+0	1.504852E+0	1.516941E+0	1.528009E+0	1.512530E+0	1.537760E+0	1.577853E+0	1.535569E+0	1.489976E+0	1.491805E+0	1.526216E+0	1.474460E+0	1.501968E+0	1.506581E+0	1.525984E+0	1.517537E+0	1.486341E+0	1.523542E+0	1.589980E+0	1.491642E+0	1.478683E+0	1.559156E+0	1.509022E+0	1.482773E+0	1.557436E+0	1.534728E+0	1.523621E+0	1.499963E+0	1.483550E+0	1.474224E+0	1.517511E+0	1.548855E+0	1.435356E+0	1.539755E+0	1.525596E+0	1.454994E+0	1.470148E+0	1.507721E+0	1.586392E+0	1.508220E+0	1.504158E+0	1.550453E+0	1.526644E+0	1.521711E+0	1.455542E+0	1.501465E+0	1.532154E+0	1.549158E+0	1.504525E+0	1.526716E+0	1.529619E+0	1.527562E+0	1.509169E+0	1.475762E+0	1.490953E+0	1.492918E+0	1.536135E+0	1.474376E+0	1.512519E+0	1.506664E+0	1.481712E+0	1.484274E+0	1.507241E+0	1.541106E+0	1.498692E+0	1.549197E+0	1.543717E+0	1.526041E+0	1.486807E+0	1.509080E+0	1.485164E+0	1.484290E+0	1.478437E+0	1.506930E+0	1.420076E+0	1.459606E+0	1.480062E+0	1.475912E+0	1.552879E+0	1.522805E+0	1.530095E+0	1.570087E+0	1.488090E+0	1.540144E+0	1.511815E+0	1.520074E+0	1.566505E+0	1.509972E+0	1.454260E+0	1.449247E+0	1.487929E+0	1.432129E+0	1.462417E+0	1.482286E+0	1.492556E+0	1.496241E+0	1.472492E+0	1.528494E+0	1.552974E+0	1.498471E+0	1.475948E+0	1.509414E+0	1.452892E+0	1.491643E+0	1.451117E+0	1.529580E+0	1.485717E+0	1.525963E+0	1.466776E+0	1.469644E+0	1.455329E+0	1.488571E+0	1.491797E+0	1.476377E+0	1.469883E+0	1.504978E+0	1.449075E+0	1.516805E+0	1.481259E+0	1.491155E+0	1.469778E+0	1.514224E+0	1.497927E+0	1.487966E+0	1.501462E+0	1.475917E+0	1.477829E+0	1.440953E+0	1.529507E+0	1.427135E+0	1.457608E+0	1.484162E+0	1.476219E+0	1.456707E+0	1.481253E+0	1.463947E+0	1.510620E+0	1.446527E+0	1.536181E+0
5.440120E+2	1.569693E+0	1.593921E+0	1.640875E+0	1.564723E+0	1.574871E+0	1.618242E+0	1.591509E+0	1.625088E+0	1.546673E+0	1.555895E+0	1.583570E+0	1.578792E+0	1.607237E+0	1.549689E+0	1.568656E+0	1.571596E+0	1.594362E+0	1.554878E+0	1.544786E+0	1.523625E+0	1.548864E+0	1.629255E+0	1.538625E+0	1.595313E+0	1.501183E+0	1.612679E+0	1.539838E+0	1.686073E+0	1.543413E+0	1.576705E+0	1.543533E+0	1.536037E+0	1.568146E+0	1.618024E+0	1.580872E+0	1.562859E+0	1.619424E+0	1.601479E+0	1.600766E+0	1.579723E+0	1.575942E+0	1.536940E+0	1.569703E+0	1.580014E+0	1.561189E+0	1.578533E+0	1.605067E+0	1.578028E+0	1.520237E+0	1.643081E+0	1.571944E+0	1.540881E+0	1.516259E+0	1.603090E+0	1.613998E+0	1.561632E+0	1.550869E+0	1.589212E+0	1.542152E+0	1.569437E+0	1.577846E+0	1.586972E+0	1.583478E+0	1.526435E+0	1.553740E+0	1.570771E+0	1.610562E+0	1.579081E+0	1.602240E+0	1.569916E+0	1.595372E+0	1.552657E+0	1.569317E+0	1.524282E+0	1.486079E+0	1.629568E+0	1.504027E+0	1.531195E+0	1.526066E+0	1.528940E+0	1.590270E+0	1.509284E+0	1.547695E+0	1.540337E+0	1.565322E+0	1.593773E+0	1.529256E+0	1.621758E+0	1.599722E+0	1.573016E+0	1.539843E+0	1.566283E+0	1.541491E+0	1.571459E+0	1.623671E+0	1.584216E+0	1.627271E+0	1.588179E+0	1.590303E+0	1.538520E+0	1.663299E+0	1.570750E+0	1.577152E+0	1.566341E+0	1.545630E+0	1.552798E+0	1.508309E+0	1.581750E+0	1.524785E+0	1.576166E+0	1.579459E+0	1.543547E+0	1.562825E+0	1.594327E+0	1.527682E+0	1.640167E+0	1.569696E+0	1.546904E+0	1.575533E+0	1.541961E+0	1.575618E+0	1.552012E+0	1.533427E+0	1.587026E+0	1.507162E+0	1.539482E+0	1.557417E+0	1.564741E+0	1.548613E+0	1.553748E+0	1.547682E+0	1.552522E+0	1.528402E+0	1.551927E+0	1.557976E+0	1.500647E+0	1.592110E+0	1.609366E+0	1.554839E+0	1.515147E+0	1.588009E+0	1.497591E+0	1.567188E+0	1.595727E+0	1.555936E+0	1.573405E+0	1.488078E+0	1.537441E+0	1.579000E+0	1.574244E+0	1.517137E+0	1.584305E+0	1.565165E+0	1.541903E+0	1.521387E+0	1.530268E+0	1.561735E+0	1.540837E+0	1.557339E+0	1.492891E+0	1.609545E+0	1.563936E+0	1.515814E+0	1.520339E+0	1.509937E+0	1.499911E+0	1.557243E+0	1.510257E+0	1.443260E+0	1.602814E+0
5.442650E+2	1.557497E+0	1.622104E+0	1.568056E+0	1.538304E+0	1.558828E+0	1.616581E+0	1.554591E+0	1.559350E+0	1.554801E+0	1.548119E+0	1.614521E+0	1.569413E+0	1.589008E+0	1.559938E+0	1.516215E+0	1.541212E+0	1.560424E+0	1.604001E+0	1.535749E+0	1.599457E+0	1.590111E+0	1.566984E+0	1.540270E+0	1.551834E+0	1.558489E+0	1.561780E+0	1.526515E+0	1.560502E+0	1.541148E+0	1.582314E+0	1.536316E+0	1.525141E+0	1.521401E+0	1.553542E+0	1.518522E+0	1.577424E+0	1.539929E+0	1.601271E+0	1.599850E+0	1.539496E+0	1.556740E+0	1.538393E+0	1.496958E+0	1.573053E+0	1.497155E+0	1.587167E+0	1.574991E+0	1.559920E+0	1.547768E+0	1.564999E+0	1.576392E+0	1.590893E+0	1.520851E+0	1.601805E+0	1.587660E+0	1.547285E+0	1.528937E+0	1.592557E+0	1.561943E+0	1.516489E+0	1.609049E+0	1.549991E+0	1.544310E+0	1.613180E+0	1.579616E+0	1.534615E+0	1.572021E+0	1.574785E+0	1.562263E+0	1.589530E+0	1.535720E+0	1.600891E+0	1.548534E+0	1.600411E+0	1.553754E+0	1.556886E+0	1.502072E+0	1.543996E+0	1.539528E+0	1.570483E+0	1.531176E+0	1.521505E+0	1.580974E+0	1.558329E+0	1.506458E+0	1.624677E+0	1.533203E+0	1.627032E+0	1.557736E+0	1.580289E+0	1.554588E+0	1.530294E+0	1.589492E+0	1.531477E+0	1.579498E+0	1.538208E+0	1.599804E+0	1.579198E+0	1.535288E+0	1.581477E+0	1.568480E+0	1.535306E+0	1.553127E+0	1.558099E+0	1.499269E+0	1.518913E+0	1.526805E+0	1.550706E+0	1.513858E+0	1.544540E+0	1.499284E+0	1.517488E+0	1.527897E+0	1.557670E+0	1.550524E+0	1.534084E+0	1.519649E+0	1.491624E+0	1.548766E+0	1.579449E+0	1.519985E+0	1.535691E+0	1.543500E+0	1.524660E+0	1.547487E+0	1.572100E+0	1.557408E+0	1.521155E+0	1.584704E+0	1.556084E+0	1.507155E+0	1.521674E+0	1.596867E+0	1.509012E+0	1.530458E+0	1.511594E+0	1.551686E+0	1.498994E+0	1.511929E+0	1.527429E+0	1.521532E+0	1.517846E+0	1.550493E+0	1.582677E+0	1.514391E+0	1.545581E+0	1.523707E+0	1.498784E+0	1.531996E+0	1.550142E+0	1.560079E+0	1.518514E+0	1.577765E+0	1.516038E+0	1.551361E+0	1.541633E+0	1.543524E+0	1.535216E+0	1.513374E+0	1.513177E+0	1.521358E+0	1.592058E+0	1.576249E+0	1.479018E+0	1.538562E+0	1.548075E+0	1.557344E+0	1.494737E+0	1.481917E+0	1.512003E+0
5.445290E+2	1.517635E+0	1.450253E+0	1.551161E+0	1.517551E+0	1.442809E+0	1.514987E+0	1.510133E+0	1.528068E+0	1.538216E+0	1.476055E+0	1.522095E+0	1.549450E+0	1.493003E+0	1.507508E+0	1.486634E+0	1.516057E+0	1.469588E+0	1.565863E+0	1.480221E+0	1.479568E+0	1.534320E+0	1.519960E+0	1.519880E+0	1.528255E+0	1.490663E+0	1.487876E+0	1.552620E+0	1.520806E+0	1.444373E+0	1.489156E+0	1.483286E+0	1.476761E+0	1.484760E+0	1.504645E+0	1.477497E+0	1.439225E+0	1.488599E+0	1.555292E+0	1.516027E+0	1.532825E+0	1.465691E+0	1.514035E+0	1.468880E+0	1.511861E+0	1.404910E+0	1.498229E+0	1.476634E+0	1.441582E+0	1.480682E+0	1.521780E+0	1.442433E+0	1.592770E+0	1.429642E+0	1.561857E+0	1.527971E+0	1.474947E+0	1.497393E+0	1.565607E+0	1.510098E+0	1.490370E+0	1.487379E+0	1.543610E+0	1.522637E+0	1.491770E+0	1.497447E+0	1.526719E+0	1.478828E+0	1.501298E+0	1.466570E+0	1.506762E+0	1.445244E+0	1.465080E+0	1.501046E+0	1.512994E+0	1.505388E+0	1.478285E+0	1.461403E+0	1.490036E+0	1.488838E+0	1.495304E+0	1.471227E+0	1.480654E+0	1.542190E+0	1.462945E+0	1.495242E+0	1.506650E+0	1.550930E+0	1.514248E+0	1.487604E+0	1.495088E+0	1.473971E+0	1.485590E+0	1.509983E+0	1.490508E+0	1.482748E+0	1.452851E+0	1.468789E+0	1.524117E+0	1.518936E+0	1.519026E+0	1.509353E+0	1.480319E+0	1.518354E+0	1.475141E+0	1.443526E+0	1.477814E+0	1.521503E+0	1.501650E+0	1.505708E+0	1.448425E+0	1.511878E+0	1.506441E+0	1.538977E+0	1.540174E+0	1.508555E+0	1.513457E+0	1.468491E+0	1.487258E+0	1.484961E+0	1.447867E+0	1.484869E+0	1.467757E+0	1.473762E+0	1.470865E+0	1.399153E+0	1.494019E+0	1.486261E+0	1.468074E+0	1.468414E+0	1.494880E+0	1.477250E+0	1.438014E+0	1.462928E+0	1.441263E+0	1.516099E+0	1.519414E+0	1.468817E+0	1.522869E+0	1.522389E+0	1.484426E+0	1.480981E+0	1.470703E+0	1.535288E+0	1.464516E+0	1.434309E+0	1.482735E+0	1.482471E+0	1.489838E+0	1.492179E+0	1.450415E+0	1.489884E+0	1.498946E+0	1.514912E+0	1.477145E+0	1.499752E+0	1.447674E+0	1.450391E+0	1.475674E+0	1.459083E+0	1.468590E+0	1.463367E+0	1.501158E+0	1.431333E+0	1.434339E+0	1.453317E+0	1.443607E+0	1.511717E+0	1.473575E+0	1.410649E+0	1.461742E+0
5.447720E+2	1.426520E+0	1.442264E+0	1.461117E+0	1.472825E+0	1.457735E+0	1.477113E+0	1.427030E+0	1.393589E+0	1.481644E+0	1.451670E+0	1.472629E+0	1.466781E+0	1.420738E+0	1.428514E+0	1.447440E+0	1.419986E+0	1.463872E+0	1.454759E+0	1.462310E+0	1.445839E+0	1.474235E+0	1.431313E+0	1.463669E+0	1.459928E+0	1.413040E+0	1.409413E+0	1.406042E+0	1.505425E+0	1.456534E+0	1.446006E+0	1.462419E+0	1.407751E+0	1.447827E+0	1.466137E+0	1.459251E+0	1.408055E+0	1.458616E+0	1.424755E+0	1.461915E+0	1.488913E+0	1.450765E+0	1.428095E+0	1.445400E+0	1.430049E+0	1.394389E+0	1.403875E+0	1.468741E+0	1.445375E+0	1.449804E+0	1.503442E+0	1.404601E+0	1.438150E+0	1.392157E+0	1.434478E+0	1.485136E+0	1.421170E+0	1.422692E+0	1.430476E+0	1.493781E+0	1.439025E+0	1.444297E+0	1.438457E+0	1.459232E+0	1.405432E+0	1.457262E+0	1.458098E+0	1.446803E+0	1.400737E+0	1.422970E+0	1.458987E+0	1.430208E+0	1.421694E+0	1.391967E+0	1.451417E+0	1.436204E+0	1.455543E+0	1.417368E+0	1.435128E+0	1.409417E+0	1.428212E+0	1.444677E+0	1.436091E+0	1.474817E+0	1.398581E+0	1.449518E+0	1.445946E+0	1.429069E+0	1.477605E+0	1.400568E+0	1.433363E+0	1.426376E+0	1.427000E+0	1.432954E+0	1.411524E+0	1.451841E+0	1.434476E+0	1.439773E+0	1.513925E+0	1.428253E+0	1.437086E+0	1.408394E+0	1.462516E+0	1.444114E+0	1.439612E+0	1.419324E+0	1.457822E+0	1.402001E+0	1.431938E+0	1.426500E+0	1.402446E+0	1.423287E+0	1.377427E+0	1.464481E+0	1.471322E+0	1.445153E+0	1.478624E+0	1.402762E+0	1.429649E+0	1.468863E+0	1.462409E+0	1.447823E+0	1.436260E+0	1.466055E+0	1.415357E+0	1.388642E+0	1.450710E+0	1.442320E+0	1.419527E+0	1.463164E+0	1.452613E+0	1.516218E+0	1.437525E+0	1.434797E+0	1.433955E+0	1.429132E+0	1.441683E+0	1.397844E+0	1.422981E+0	1.429829E+0	1.449766E+0	1.414088E+0	1.437620E+0	1.506995E+0	1.418409E+0	1.454071E+0	1.452785E+0	1.447857E+0	1.432957E+0	1.373860E+0	1.461504E+0	1.403860E+0	1.453405E+0	1.441132E+0	1.430752E+0	1.388291E+0	1.389847E+0	1.376051E+0	1.369941E+0	1.415819E+0	1.455029E+0	1.411558E+0	1.454402E+0	1.402421E+0	1.439175E+0	1.407771E+0	1.466801E+0	1.411722E+0	1.417269E+0	1.299928E+0	1.439117E+0
5.450200E+2	1.374940E+0	1.370007E+0	1.353711E+0	1.337852E+0	1.383759E+0	1.325946E+0	1.369471E+0	1.382203E+0	1.343536E+0	1.338032E+0	1.398729E+0	1.334810E+0	1.414470E+0	1.347743E+0	1.343732E+0	1.365345E+0	1.408887E+0	1.400024E+0	1.395593E+0	1.336722E+0	1.394624E+0	1.397448E+0	1.356497E+0	1.419107E+0	1.342637E+0	1.400466E+0	1.363318E+0	1.385917E+0	1.381724E+0	1.328716E+0	1.327895E+0	1.344364E+0	1.409697E+0	1.345015E+0	1.335600E+0	1.362958E+0	1.350651E+0	1.402566E+0	1.375018E+0	1.378005E+0	1.340917E+0	1.405534E+0	1.364279E+0	1.331478E+0	1.311685E+0	1.371399E+0	1.390234E+0	1.331936E+0	1.417084E+0	1.401170E+0	1.333423E+0	1.374309E+0	1.329170E+0	1.377255E+0	1.320525E+0	1.402736E+0	1.414495E+0	1.360965E+0	1.334022E+0	1.384876E+0	1.352191E+0	1.370060E+0	1.379564E+0	1.381997E+0	1.394296E+0	1.344089E+0	1.412557E+0	1.388292E+0	1.359511E+0	1.374061E+0	1.340960E+0	1.373504E+0	1.338334E+0	1.450532E+0	1.368867E+0	1.353094E+0	1.313177E+0	1.386822E+0	1.360141E+0	1.343083E+0	1.382449E+0	1.404707E+0	1.350933E+0	1.356942E+0	1.351833E+0	1.356182E+0	1.355382E+0	1.428918E+0	1.347110E+0	1.396484E+0	1.328329E+0	1.370507E+0	1.337765E+0	1.377770E+0	1.374291E+0	1.361306E+0	1.353302E+0	1.418634E+0	1.297280E+0	1.342671E+0	1.428790E+0	1.332372E+0	1.411945E+0	1.410875E+0	1.330920E+0	1.315814E+0	1.366132E+0	1.323956E+0	1.310182E+0	1.367439E+0	1.381110E+0	1.343418E+0	1.359669E+0	1.392145E+0	1.365432E+0	1.376626E+0	1.326813E+0	1.331105E+0	1.375757E+0	1.371742E+0	1.337125E+0	1.340222E+0	1.385921E+0	1.324132E+0	1.299440E+0	1.367986E+0	1.374307E+0	1.321897E+0	1.366861E+0	1.395509E+0	1.386354E+0	1.369298E+0	1.363504E+0	1.388107E+0	1.331972E+0	1.327359E+0	1.365954E+0	1.390788E+0	1.388426E+0	1.361115E+0	1.262909E+0	1.368049E+0	1.361502E+0	1.380377E+0	1.325624E+0	1.333272E+0	1.403588E+0	1.332727E+0	1.350672E+0	1.395351E+0	1.284354E+0	1.340853E+0	1.369145E+0	1.328129E+0	1.360095E+0	1.361636E+0	1.359129E+0	1.325224E+0	1.283690E+0	1.368794E+0	1.377925E+0	1.362296E+0	1.368161E+0	1.349778E+0	1.327929E+0	1.344908E+0	1.393378E+0	1.392588E+0	1.310257E+0	1.240102E+0
5.452690E+2	1.334550E+0	1.363497E+0	1.303243E+0	1.290583E+0	1.250413E+0	1.310500E+0	1.317572E+0	1.315552E+0	1.267643E+0	1.249536E+0	1.375070E+0	1.302349E+0	1.304022E+0	1.324980E+0	1.278461E+0	1.305068E+0	1.261356E+0	1.344278E+0	1.306916E+0	1.267330E+0	1.261267E+0	1.362330E+0	1.326345E+0	1.372914E+0	1.254225E+0	1.316594E+0	1.294837E+0	1.339742E+0	1.331762E+0	1.300879E+0	1.284867E+0	1.306523E+0	1.301301E+0	1.309533E+0	1.293575E+0	1.305517E+0	1.284023E+0	1.323751E+0	1.308974E+0	1.321722E+0	1.312985E+0	1.302949E+0	1.248041E+0	1.338426E+0	1.311601E+0	1.319311E+0	1.326835E+0	1.281691E+0	1.356037E+0	1.314179E+0	1.324853E+0	1.276630E+0	1.261127E+0	1.267855E+0	1.343629E+0	1.269291E+0	1.318068E+0	1.338344E+0	1.309686E+0	1.297891E+0	1.291439E+0	1.321730E+0	1.306672E+0	1.225465E+0	1.291826E+0	1.317427E+0	1.236939E+0	1.283960E+0	1.283346E+0	1.307889E+0	1.337237E+0	1.295932E+0	1.280340E+0	1.335546E+0	1.263941E+0	1.337387E+0	1.307001E+0	1.302360E+0	1.276679E+0	1.310679E+0	1.256190E+0	1.322266E+0	1.315614E+0	1.314628E+0	1.258952E+0	1.315791E+0	1.261468E+0	1.289394E+0	1.313205E+0	1.211130E+0	1.292416E+0	1.300689E+0	1.245028E+0	1.299174E+0	1.332379E+0	1.272918E+0	1.252834E+0	1.308690E+0	1.256801E+0	1.313144E+0	1.264773E+0	1.350753E+0	1.250418E+0	1.305363E+0	1.248934E+0	1.305379E+0	1.247288E+0	1.260080E+0	1.301960E+0	1.324048E+0	1.301879E+0	1.229311E+0	1.273125E+0	1.285757E+0	1.315905E+0	1.290932E+0	1.242096E+0	1.392158E+0	1.328783E+0	1.266195E+0	1.300576E+0	1.233054E+0	1.283010E+0	1.338278E+0	1.248231E+0	1.358173E+0	1.307352E+0	1.274668E+0	1.299274E+0	1.329314E+0	1.391038E+0	1.210505E+0	1.285086E+0	1.332836E+0	1.286627E+0	1.319673E+0	1.245143E+0	1.325991E+0	1.317122E+0	1.321247E+0	1.259216E+0	1.275830E+0	1.285502E+0	1.282240E+0	1.198227E+0	1.327008E+0	1.319306E+0	1.225029E+0	1.289109E+0	1.309498E+0	1.265995E+0	1.302733E+0	1.243775E+0	1.278524E+0	1.270121E+0	1.339506E+0	1.274091E+0	1.260549E+0	1.289155E+0	1.295925E+0	1.274217E+0	1.313413E+0	1.284205E+0	1.322297E+0	1.313073E+0	1.305817E+0	1.277898E+0	1.329765E+0	1.294675E+0	1.342029E+0
5.455450E+2	1.274825E+0	1.177635E+0	1.233510E+0	1.196227E+0	1.236683E+0	1.171814E+0	1.253657E+0	1.227590E+0	1.236225E+0	1.179859E+0	1.216621E+0	1.261167E+0	1.196050E+0	1.233724E+0	1.202347E+0	1.206382E+0	1.186317E+0	1.218383E+0	1.250166E+0	1.258482E+0	1.239889E+0	1.192053E+0	1.205563E+0	1.277410E+0	1.245174E+0	1.272606E+0	1.232662E+0	1.263923E+0	1.217176E+0	1.234906E+0	1.203635E+0	1.234238E+0	1.272390E+0	1.205023E+0	1.252378E+0	1.213742E+0	1.219709E+0	1.248556E+0	1.248264E+0	1.211466E+0	1.247299E+0	1.253475E+0	1.216418E+0	1.215631E+0	1.193348E+0	1.284665E+0	1.263572E+0	1.203313E+0	1.212744E+0	1.234270E+0	1.226594E+0	1.177811E+0	1.253196E+0	1.249236E+0	1.253845E+0	1.212227E+0	1.209104E+0	1.243633E+0	1.294207E+0	1.186140E+0	1.231055E+0	1.214893E+0	1.241209E+0	1.214718E+0	1.220626E+0	1.237528E+0	1.239078E+0	1.247368E+0	1.248230E+0	1.231394E+0	1.213203E+0	1.238284E+0	1.191911E+0	1.215882E+0	1.185542E+0	1.235802E+0	1.195369E+0	1.222805E+0	1.214765E+0	1.224103E+0	1.227712E+0	1.195461E+0	1.243482E+0	1.233123E+0	1.195700E+0	1.243983E+0	1.269655E+0	1.268727E+0	1.199713E+0	1.227965E+0	1.200170E+0	1.212540E+0	1.204018E+0	1.254248E+0	1.214786E+0	1.192357E+0	1.223399E+0	1.270340E+0	1.222023E+0	1.270162E+0	1.226199E+0	1.288450E+0	1.200165E+0	1.227192E+0	1.216905E+0	1.197646E+0	1.255514E+0	1.204477E+0	1.211766E+0	1.214392E+0	1.226862E+0	1.197259E+0	1.216396E+0	1.222470E+0	1.253695E+0	1.231414E+0	1.241085E+0	1.227519E+0	1.275063E+0	1.234194E+0	1.193116E+0	1.222024E+0	1.210240E+0	1.216114E+0	1.192524E+0	1.228079E+0	1.244630E+0	1.241287E+0	1.215914E+0	1.300757E+0	1.238528E+0	1.182729E+0	1.240362E+0	1.203462E+0	1.259711E+0	1.259003E+0	1.220341E+0	1.234679E+0	1.169608E+0	1.228145E+0	1.178933E+0	1.233408E+0	1.259132E+0	1.215927E+0	1.192903E+0	1.236271E+0	1.242104E+0	1.203007E+0	1.229475E+0	1.286392E+0	1.209088E+0	1.253990E+0	1.241336E+0	1.234055E+0	1.268623E+0	1.224338E+0	1.225383E+0	1.233985E+0	1.201362E+0	1.215035E+0	1.199075E+0	1.204847E+0	1.267616E+0	1.222740E+0	1.215782E+0	1.283851E+0	1.240879E+0	1.207174E+0	1.185037E+0	1.134527E+0
5.457890E+2	1.133374E+0	1.142540E+0	1.243976E+0	1.163779E+0	1.178712E+0	1.168956E+0	1.204022E+0	1.205559E+0	1.176298E+0	1.173964E+0	1.194503E+0	1.170857E+0	1.183137E+0	1.178604E+0	1.174625E+0	1.159694E+0	1.146332E+0	1.206250E+0	1.231286E+0	1.176582E+0	1.121841E+0	1.159333E+0	1.167672E+0	1.197830E+0	1.130704E+0	1.123336E+0	1.163136E+0	1.241965E+0	1.147633E+0	1.155515E+0	1.162226E+0	1.141213E+0	1.246091E+0	1.149801E+0	1.199168E+0	1.199430E+0	1.181282E+0	1.178616E+0	1.162293E+0	1.146346E+0	1.218687E+0	1.165798E+0	1.194473E+0	1.154222E+0	1.177584E+0	1.165695E+0	1.188530E+0	1.161019E+0	1.181095E+0	1.155841E+0	1.156924E+0	1.178424E+0	1.117372E+0	1.193963E+0	1.185899E+0	1.165433E+0	1.151527E+0	1.178681E+0	1.200123E+0	1.131729E+0	1.134651E+0	1.160019E+0	1.187610E+0	1.175609E+0	1.202261E+0	1.160466E+0	1.165254E+0	1.160846E+0	1.171958E+0	1.178364E+0	1.172999E+0	1.176508E+0	1.171671E+0	1.181205E+0	1.139166E+0	1.153302E+0	1.169029E+0	1.160993E+0	1.162684E+0	1.138440E+0	1.115650E+0	1.172650E+0	1.204945E+0	1.179666E+0	1.193534E+0	1.182109E+0	1.156906E+0	1.190999E+0	1.113809E+0	1.190957E+0	1.150123E+0	1.133825E+0	1.211061E+0	1.161159E+0	1.144453E+0	1.137749E+0	1.145807E+0	1.207549E+0	1.185239E+0	1.192774E+0	1.165801E+0	1.146549E+0	1.143974E+0	1.190626E+0	1.167337E+0	1.160316E+0	1.134395E+0	1.167400E+0	1.179862E+0	1.200563E+0	1.155068E+0	1.174756E+0	1.178847E+0	1.162624E+0	1.188579E+0	1.156068E+0	1.136389E+0	1.158504E+0	1.191489E+0	1.149305E+0	1.161422E+0	1.178041E+0	1.167489E+0	1.194812E+0	1.155801E+0	1.188124E+0	1.159386E+0	1.176018E+0	1.199278E+0	1.203991E+0	1.235328E+0	1.162100E+0	1.174724E+0	1.181851E+0	1.213699E+0	1.214709E+0	1.129708E+0	1.190443E+0	1.195883E+0	1.168772E+0	1.158357E+0	1.136421E+0	1.154360E+0	1.173416E+0	1.124277E+0	1.121866E+0	1.139537E+0	1.161065E+0	1.150862E+0	1.186069E+0	1.148344E+0	1.143184E+0	1.161067E+0	1.097391E+0	1.166185E+0	1.143113E+0	1.155036E+0	1.127389E+0	1.195490E+0	1.129622E+0	1.176263E+0	1.155717E+0	1.164462E+0	1.140934E+0	1.177751E+0	1.142903E+0	1.185461E+0	1.178620E+0	1.060128E+0	1.224383E+0
5.460110E+2	1.165795E+0	1.114626E+0	1.158335E+0	1.099679E+0	1.113576E+0	1.157285E+0	1.166116E+0	1.191037E+0	1.164690E+0	1.172145E+0	1.143278E+0	1.154877E+0	1.128707E+0	1.131202E+0	1.136915E+0	1.138674E+0	1.144654E+0	1.182870E+0	1.180482E+0	1.123113E+0	1.121606E+0	1.105505E+0	1.147654E+0	1.202682E+0	1.160778E+0	1.174010E+0	1.158004E+0	1.191882E+0	1.156260E+0	1.140777E+0	1.094184E+0	1.125612E+0	1.147457E+0	1.101652E+0	1.097482E+0	1.133850E+0	1.153423E+0	1.131478E+0	1.164783E+0	1.175880E+0	1.128655E+0	1.145499E+0	1.133839E+0	1.158568E+0	1.152729E+0	1.137862E+0	1.124195E+0	1.129547E+0	1.166748E+0	1.139066E+0	1.128580E+0	1.107896E+0	1.153443E+0	1.232488E+0	1.137905E+0	1.180705E+0	1.135759E+0	1.169934E+0	1.152244E+0	1.123323E+0	1.188719E+0	1.125918E+0	1.160640E+0	1.179106E+0	1.099185E+0	1.155053E+0	1.161475E+0	1.157970E+0	1.109956E+0	1.153413E+0	1.111256E+0	1.077803E+0	1.142151E+0	1.148690E+0	1.177309E+0	1.142073E+0	1.124282E+0	1.143522E+0	1.118829E+0	1.142498E+0	1.133229E+0	1.161757E+0	1.119877E+0	1.135913E+0	1.094951E+0	1.143979E+0	1.153185E+0	1.165360E+0	1.176373E+0	1.179012E+0	1.110481E+0	1.141130E+0	1.125379E+0	1.130736E+0	1.123772E+0	1.104851E+0	1.156708E+0	1.146547E+0	1.098061E+0	1.155219E+0	1.134240E+0	1.106647E+0	1.130720E+0	1.124353E+0	1.095557E+0	1.099974E+0	1.175647E+0	1.147274E+0	1.112834E+0	1.161955E+0	1.127076E+0	1.113549E+0	1.134299E+0	1.224123E+0	1.157160E+0	1.127660E+0	1.121242E+0	1.169281E+0	1.130766E+0	1.069892E+0	1.134546E+0	1.112418E+0	1.122572E+0	1.138593E+0	1.070991E+0	1.148440E+0	1.111517E+0	1.124786E+0	1.134440E+0	1.165216E+0	1.101063E+0	1.156951E+0	1.137109E+0	1.142199E+0	1.139058E+0	1.166500E+0	1.129669E+0	1.141831E+0	1.140996E+0	1.160139E+0	1.114375E+0	1.138761E+0	1.137596E+0	1.108925E+0	1.098741E+0	1.161294E+0	1.108505E+0	1.117605E+0	1.123503E+0	1.178088E+0	1.130338E+0	1.179203E+0	1.158681E+0	1.132065E+0	1.109778E+0	1.123394E+0	1.117138E+0	1.161766E+0	1.113430E+0	1.151882E+0	1.146307E+0	1.160915E+0	1.144120E+0	1.107761E+0	1.131647E+0	1.130672E+0	1.133290E+0	1.173437E+0	1.143827E+0	1.115940E+0
5.467710E+2	1.235555E+0	1.195540E+0	1.237936E+0	1.202650E+0	1.186071E+0	1.231389E+0	1.286409E+0	1.215005E+0	1.160858E+0	1.243189E+0	1.235729E+0	1.206269E+0	1.225790E+0	1.222172E+0	1.194832E+0	1.224793E+0	1.216606E+0	1.198026E+0	1.196307E+0	1.195004E+0	1.221946E+0	1.211800E+0	1.273039E+0	1.275351E+0	1.202929E+0	1.216246E+0	1.183033E+0	1.248089E+0	1.204183E+0	1.206868E+0	1.224340E+0	1.193176E+0	1.254510E+0	1.189696E+0	1.210513E+0	1.208985E+0	1.210931E+0	1.214226E+0	1.241122E+0	1.263277E+0	1.248408E+0	1.188288E+0	1.191785E+0	1.228748E+0	1.210472E+0	1.221624E+0	1.249578E+0	1.220673E+0	1.261377E+0	1.238375E+0	1.249244E+0	1.225086E+0	1.218474E+0	1.232130E+0	1.271729E+0	1.225834E+0	1.241676E+0	1.212838E+0	1.224372E+0	1.234723E+0	1.168442E+0	1.188310E+0	1.234574E+0	1.195048E+0	1.267144E+0	1.230510E+0	1.213074E+0	1.221676E+0	1.218735E+0	1.227150E+0	1.242888E+0	1.245871E+0	1.194819E+0	1.233648E+0	1.216605E+0	1.247060E+0	1.210559E+0	1.274754E+0	1.235470E+0	1.212607E+0	1.216417E+0	1.214720E+0	1.250299E+0	1.233295E+0	1.227535E+0	1.200183E+0	1.223258E+0	1.222995E+0	1.192419E+0	1.253274E+0	1.204964E+0	1.263674E+0	1.239081E+0	1.197904E+0	1.238127E+0	1.221981E+0	1.250430E+0	1.212533E+0	1.222724E+0	1.219526E+0	1.215299E+0	1.189858E+0	1.213882E+0	1.240919E+0	1.187483E+0	1.144857E+0	1.196090E+0	1.205619E+0	1.207983E+0	1.144658E+0	1.250638E+0	1.237445E+0	1.254172E+0	1.208819E+0	1.230876E+0	1.248928E+0	1.175287E+0	1.191548E+0	1.184050E+0	1.233066E+0	1.210608E+0	1.186373E+0	1.174216E+0	1.238804E+0	1.218876E+0	1.278075E+0	1.210695E+0	1.201758E+0	1.236243E+0	1.160137E+0	1.233066E+0	1.198864E+0	1.229541E+0	1.216291E+0	1.208536E+0	1.240579E+0	1.211764E+0	1.224247E+0	1.244394E+0	1.237664E+0	1.187917E+0	1.159767E+0	1.201812E+0	1.184106E+0	1.169481E+0	1.189777E+0	1.217253E+0	1.209833E+0	1.237548E+0	1.227594E+0	1.203587E+0	1.236090E+0	1.258049E+0	1.249231E+0	1.203965E+0	1.233138E+0	1.190876E+0	1.187330E+0	1.216054E+0	1.222487E+0	1.207394E+0	1.231363E+0	1.231816E+0	1.218275E+0	1.220870E+0	1.222029E+0	1.233923E+0	1.186310E+0	1.222560E+0	1.239366E+0
5.475070E+2	1.356690E+0	1.371809E+0	1.330931E+0	1.371472E+0	1.333990E+0	1.364197E+0	1.378006E+0	1.354110E+0	1.306609E+0	1.373080E+0	1.389254E+0	1.352384E+0	1.346745E+0	1.325945E+0	1.318466E+0	1.327116E+0	1.339807E+0	1.330474E+0	1.348798E+0	1.353625E+0	1.362109E+0	1.343719E+0	1.385780E+0	1.391635E+0	1.343004E+0	1.408196E+0	1.391195E+0	1.372128E+0	1.349820E+0	1.330678E+0	1.348934E+0	1.371922E+0	1.334261E+0	1.325914E+0	1.371805E+0	1.369626E+0	1.354922E+0	1.375881E+0	1.411448E+0	1.335598E+0	1.383339E+0	1.342079E+0	1.321588E+0	1.358192E+0	1.328962E+0	1.383625E+0	1.371110E+0	1.342413E+0	1.350252E+0	1.324190E+0	1.322805E+0	1.387315E+0	1.365140E+0	1.360751E+0	1.343271E+0	1.317395E+0	1.308372E+0	1.340216E+0	1.349542E+0	1.346433E+0	1.315300E+0	1.318146E+0	1.402492E+0	1.314173E+0	1.350760E+0	1.375492E+0	1.381677E+0	1.362265E+0	1.354449E+0	1.321525E+0	1.343614E+0	1.349452E+0	1.282331E+0	1.362017E+0	1.318601E+0	1.359205E+0	1.321572E+0	1.396133E+0	1.390328E+0	1.336652E+0	1.344391E+0	1.357517E+0	1.381695E+0	1.348340E+0	1.301234E+0	1.331744E+0	1.381342E+0	1.379450E+0	1.343019E+0	1.343224E+0	1.304596E+0	1.323876E+0	1.370043E+0	1.318968E+0	1.371618E+0	1.336813E+0	1.340800E+0	1.370892E+0	1.321487E+0	1.369160E+0	1.374749E+0	1.352307E+0	1.392673E+0	1.376449E+0	1.351827E+0	1.319660E+0	1.327523E+0	1.332032E+0	1.339071E+0	1.358307E+0	1.355985E+0	1.278650E+0	1.355975E+0	1.372256E+0	1.330285E+0	1.320935E+0	1.312133E+0	1.366791E+0	1.375135E+0	1.338558E+0	1.274582E+0	1.347552E+0	1.322332E+0	1.326554E+0	1.387143E+0	1.320995E+0	1.337073E+0	1.296615E+0	1.420376E+0	1.334321E+0	1.393255E+0	1.346013E+0	1.332132E+0	1.301181E+0	1.383152E+0	1.390253E+0	1.306299E+0	1.319193E+0	1.360314E+0	1.369743E+0	1.335738E+0	1.342507E+0	1.361199E+0	1.342246E+0	1.318679E+0	1.326865E+0	1.386662E+0	1.308176E+0	1.336824E+0	1.325476E+0	1.323047E+0	1.295774E+0	1.328219E+0	1.257388E+0	1.334761E+0	1.310817E+0	1.323530E+0	1.366724E+0	1.350933E+0	1.338903E+0	1.313756E+0	1.306968E+0	1.401608E+0	1.374345E+0	1.349146E+0	1.341890E+0	1.338979E+0	1.350627E+0	1.280972E+0	1.368662E+0
5.482600E+2	1.421089E+0	1.474640E+0	1.468099E+0	1.427403E+0	1.450006E+0	1.436484E+0	1.479386E+0	1.450146E+0	1.484846E+0	1.440952E+0	1.475648E+0	1.424951E+0	1.447930E+0	1.443931E+0	1.416559E+0	1.359571E+0	1.394000E+0	1.479789E+0	1.445139E+0	1.416253E+0	1.385095E+0	1.486518E+0	1.467526E+0	1.523722E+0	1.421564E+0	1.435797E+0	1.379681E+0	1.450257E+0	1.396082E+0	1.461347E+0	1.393552E+0	1.415541E+0	1.430459E+0	1.452175E+0	1.393573E+0	1.431621E+0	1.454263E+0	1.430216E+0	1.406819E+0	1.456874E+0	1.483374E+0	1.407359E+0	1.380075E+0	1.439232E+0	1.409694E+0	1.426269E+0	1.447231E+0	1.429773E+0	1.476095E+0	1.442473E+0	1.460044E+0	1.471230E+0	1.399044E+0	1.426856E+0	1.493674E+0	1.388500E+0	1.437026E+0	1.427760E+0	1.454364E+0	1.447849E+0	1.382622E+0	1.415998E+0	1.443524E+0	1.461962E+0	1.411675E+0	1.429618E+0	1.449154E+0	1.412534E+0	1.448878E+0	1.464063E+0	1.440900E+0	1.451029E+0	1.436237E+0	1.472616E+0	1.448006E+0	1.448008E+0	1.387319E+0	1.422294E+0	1.407448E+0	1.444134E+0	1.452695E+0	1.428808E+0	1.429799E+0	1.446397E+0	1.384549E+0	1.439447E+0	1.485467E+0	1.461064E+0	1.416547E+0	1.410455E+0	1.403962E+0	1.377774E+0	1.416789E+0	1.466053E+0	1.433913E+0	1.405513E+0	1.442855E+0	1.390818E+0	1.438008E+0	1.401965E+0	1.420974E+0	1.450487E+0	1.465088E+0	1.387768E+0	1.397895E+0	1.393468E+0	1.420411E+0	1.435136E+0	1.421120E+0	1.427980E+0	1.405632E+0	1.420463E+0	1.469890E+0	1.425283E+0	1.459841E+0	1.399892E+0	1.384261E+0	1.444282E+0	1.478495E+0	1.426569E+0	1.452279E+0	1.438085E+0	1.450768E+0	1.411291E+0	1.387516E+0	1.385367E+0	1.478693E+0	1.433668E+0	1.450683E+0	1.447613E+0	1.511120E+0	1.391175E+0	1.435950E+0	1.422685E+0	1.487853E+0	1.408442E+0	1.454551E+0	1.407047E+0	1.421253E+0	1.369264E+0	1.436111E+0	1.369469E+0	1.457103E+0	1.408926E+0	1.382222E+0	1.363483E+0	1.385122E+0	1.396855E+0	1.394366E+0	1.421749E+0	1.386030E+0	1.432691E+0	1.408894E+0	1.324109E+0	1.384336E+0	1.417807E+0	1.382535E+0	1.399434E+0	1.421285E+0	1.391858E+0	1.421274E+0	1.438204E+0	1.468039E+0	1.368660E+0	1.381575E+0	1.403618E+0	1.494589E+0	1.387553E+0	1.335023E+0	1.438239E+0
5.490380E+2	1.374753E+0	1.368850E+0	1.368619E+0	1.414698E+0	1.412287E+0	1.422165E+0	1.474302E+0	1.383458E+0	1.385273E+0	1.375363E+0	1.403760E+0	1.397839E+0	1.390154E+0	1.447860E+0	1.348958E+0	1.427674E+0	1.348570E+0	1.384488E+0	1.451576E+0	1.380711E+0	1.397078E+0	1.411970E+0	1.437910E+0	1.402728E+0	1.384314E+0	1.413550E+0	1.357722E+0	1.396294E+0	1.396473E+0	1.428457E+0	1.363331E+0	1.400990E+0	1.385943E+0	1.394785E+0	1.377346E+0	1.428746E+0	1.408481E+0	1.400790E+0	1.462253E+0	1.383946E+0	1.370733E+0	1.381847E+0	1.353640E+0	1.422394E+0	1.342473E+0	1.392742E+0	1.402992E+0	1.375519E+0	1.421005E+0	1.379594E+0	1.409652E+0	1.366974E+0	1.405950E+0	1.438971E+0	1.426713E+0	1.368410E+0	1.398493E+0	1.383723E+0	1.382876E+0	1.408476E+0	1.434174E+0	1.390046E+0	1.425352E+0	1.369482E+0	1.400418E+0	1.418362E+0	1.420869E+0	1.442343E+0	1.371739E+0	1.428123E+0	1.383237E+0	1.390410E+0	1.399399E+0	1.389249E+0	1.345606E+0	1.422103E+0	1.338821E+0	1.356936E+0	1.415243E+0	1.353410E+0	1.357403E+0	1.401477E+0	1.397481E+0	1.414655E+0	1.397161E+0	1.404357E+0	1.387443E+0	1.379114E+0	1.392895E+0	1.360471E+0	1.344900E+0	1.407325E+0	1.426440E+0	1.421619E+0	1.429526E+0	1.361567E+0	1.410764E+0	1.406453E+0	1.379335E+0	1.386037E+0	1.389329E+0	1.378763E+0	1.410023E+0	1.414121E+0	1.349653E+0	1.343474E+0	1.403499E+0	1.391810E+0	1.346294E+0	1.402834E+0	1.414538E+0	1.393683E+0	1.346499E+0	1.353760E+0	1.433314E+0	1.383481E+0	1.353982E+0	1.371798E+0	1.426918E+0	1.369606E+0	1.330912E+0	1.405780E+0	1.413721E+0	1.443865E+0	1.339909E+0	1.400252E+0	1.403377E+0	1.362248E+0	1.448004E+0	1.355749E+0	1.403476E+0	1.403426E+0	1.382339E+0	1.368280E+0	1.436981E+0	1.336801E+0	1.396927E+0	1.421931E+0	1.423076E+0	1.339682E+0	1.372633E+0	1.254079E+0	1.382446E+0	1.359125E+0	1.383897E+0	1.335983E+0	1.419295E+0	1.302823E+0	1.352471E+0	1.389702E+0	1.365291E+0	1.382953E+0	1.376296E+0	1.410115E+0	1.399160E+0	1.361502E+0	1.384508E+0	1.398694E+0	1.387936E+0	1.382881E+0	1.419116E+0	1.401388E+0	1.401114E+0	1.397697E+0	1.314810E+0	1.360242E+0	1.368441E+0	1.463191E+0	1.334589E+0	1.309381E+0
5.497850E+2	1.339214E+0	1.338239E+0	1.378212E+0	1.331022E+0	1.348784E+0	1.357825E+0	1.316242E+0	1.345780E+0	1.355858E+0	1.327204E+0	1.338838E+0	1.350685E+0	1.351127E+0	1.334192E+0	1.320345E+0	1.310794E+0	1.374057E+0	1.364542E+0	1.344757E+0	1.279995E+0	1.293348E+0	1.293090E+0	1.382996E+0	1.353179E+0	1.367801E+0	1.362463E+0	1.317833E+0	1.297064E+0	1.292775E+0	1.296333E+0	1.302669E+0	1.279616E+0	1.265477E+0	1.334473E+0	1.328555E+0	1.327688E+0	1.309964E+0	1.334020E+0	1.331192E+0	1.298132E+0	1.360112E+0	1.312800E+0	1.304765E+0	1.329757E+0	1.275532E+0	1.311362E+0	1.331176E+0	1.350881E+0	1.338185E+0	1.350725E+0	1.285862E+0	1.307606E+0	1.313197E+0	1.309910E+0	1.373668E+0	1.313299E+0	1.270877E+0	1.292648E+0	1.316244E+0	1.309959E+0	1.370857E+0	1.279069E+0	1.332150E+0	1.302917E+0	1.321142E+0	1.333608E+0	1.320909E+0	1.336026E+0	1.332333E+0	1.311603E+0	1.322832E+0	1.357913E+0	1.335071E+0	1.316697E+0	1.329528E+0	1.375121E+0	1.302391E+0	1.281328E+0	1.306650E+0	1.334974E+0	1.355847E+0	1.294264E+0	1.305409E+0	1.319620E+0	1.314403E+0	1.337202E+0	1.350904E+0	1.353605E+0	1.325437E+0	1.279247E+0	1.342291E+0	1.305534E+0	1.325914E+0	1.302988E+0	1.299408E+0	1.298122E+0	1.307764E+0	1.341376E+0	1.287128E+0	1.306959E+0	1.343386E+0	1.314569E+0	1.393467E+0	1.284303E+0	1.311421E+0	1.279359E+0	1.319049E+0	1.352335E+0	1.356854E+0	1.268698E+0	1.298079E+0	1.312548E+0	1.299813E+0	1.340872E+0	1.351924E+0	1.331956E+0	1.272401E+0	1.300903E+0	1.362343E+0	1.315975E+0	1.278139E+0	1.314150E+0	1.365367E+0	1.299189E+0	1.286167E+0	1.323834E+0	1.356927E+0	1.356052E+0	1.322741E+0	1.303069E+0	1.357961E+0	1.314704E+0	1.317160E+0	1.315936E+0	1.328712E+0	1.291755E+0	1.295526E+0	1.282287E+0	1.326199E+0	1.295432E+0	1.293768E+0	1.310043E+0	1.306535E+0	1.323831E+0	1.254067E+0	1.287019E+0	1.334618E+0	1.315369E+0	1.319891E+0	1.272801E+0	1.297792E+0	1.316759E+0	1.307286E+0	1.350936E+0	1.342918E+0	1.259792E+0	1.320658E+0	1.301625E+0	1.283647E+0	1.365715E+0	1.303624E+0	1.341428E+0	1.325939E+0	1.336866E+0	1.261960E+0	1.323645E+0	1.315008E+0	1.333331E+0	1.253615E+0	1.301345E+0
5.505170E+2	1.316375E+0	1.243402E+0	1.316271E+0	1.338358E+0	1.283976E+0	1.276578E+0	1.329582E+0	1.316790E+0	1.281675E+0	1.279053E+0	1.334191E+0	1.296820E+0	1.314296E+0	1.314244E+0	1.244639E+0	1.287916E+0	1.281120E+0	1.274846E+0	1.299988E+0	1.326613E+0	1.281073E+0	1.304296E+0	1.289845E+0	1.316850E+0	1.289939E+0	1.282227E+0	1.263787E+0	1.339839E+0	1.327902E+0	1.314524E+0	1.310087E+0	1.296162E+0	1.298386E+0	1.317745E+0	1.318003E+0	1.324594E+0	1.291868E+0	1.265912E+0	1.295573E+0	1.322064E+0	1.274684E+0	1.267086E+0	1.302327E+0	1.317852E+0	1.298296E+0	1.299040E+0	1.336003E+0	1.265815E+0	1.334165E+0	1.303607E+0	1.328654E+0	1.308704E+0	1.283802E+0	1.299170E+0	1.343282E+0	1.294180E+0	1.315919E+0	1.282407E+0	1.319608E+0	1.264199E+0	1.232292E+0	1.275985E+0	1.280889E+0	1.282279E+0	1.338127E+0	1.315581E+0	1.294156E+0	1.256399E+0	1.269559E+0	1.289502E+0	1.331515E+0	1.300631E+0	1.299106E+0	1.325608E+0	1.306485E+0	1.258276E+0	1.255900E+0	1.287012E+0	1.271262E+0	1.285527E+0	1.299744E+0	1.310045E+0	1.312738E+0	1.275437E+0	1.262459E+0	1.303116E+0	1.335461E+0	1.279683E+0	1.277994E+0	1.288956E+0	1.340325E+0	1.297226E+0	1.287232E+0	1.314381E+0	1.261270E+0	1.302013E+0	1.279507E+0	1.282195E+0	1.280039E+0	1.287223E+0	1.303161E+0	1.270754E+0	1.324021E+0	1.249205E+0	1.241818E+0	1.202459E+0	1.333619E+0	1.314374E+0	1.310955E+0	1.337931E+0	1.300011E+0	1.304794E+0	1.245453E+0	1.268539E+0	1.257989E+0	1.304570E+0	1.252092E+0	1.273725E+0	1.312898E+0	1.272533E+0	1.307190E+0	1.292947E+0	1.332137E+0	1.293403E+0	1.267963E+0	1.304668E+0	1.321673E+0	1.291093E+0	1.267386E+0	1.266498E+0	1.345570E+0	1.260038E+0	1.297323E+0	1.250046E+0	1.340878E+0	1.211767E+0	1.302320E+0	1.323442E+0	1.310834E+0	1.276050E+0	1.282243E+0	1.273504E+0	1.303715E+0	1.315171E+0	1.230239E+0	1.244528E+0	1.313662E+0	1.294714E+0	1.295361E+0	1.244219E+0	1.288013E+0	1.293878E+0	1.255576E+0	1.318297E+0	1.266937E+0	1.290374E+0	1.249365E+0	1.275556E+0	1.296999E+0	1.305353E+0	1.317029E+0	1.293138E+0	1.343675E+0	1.273698E+0	1.230649E+0	1.285599E+0	1.335641E+0	1.385698E+0	1.262501E+0	1.264700E+0
5.512620E+2	1.254567E+0	1.262960E+0	1.312661E+0	1.308837E+0	1.290002E+0	1.306278E+0	1.312700E+0	1.341032E+0	1.242551E+0	1.231562E+0	1.306438E+0	1.264322E+0	1.271988E+0	1.307418E+0	1.228259E+0	1.284681E+0	1.312924E+0	1.289886E+0	1.244271E+0	1.281993E+0	1.261145E+0	1.281719E+0	1.255998E+0	1.356730E+0	1.266864E+0	1.279525E+0	1.274368E+0	1.333393E+0	1.299028E+0	1.307638E+0	1.296078E+0	1.327809E+0	1.295946E+0	1.275787E+0	1.264392E+0	1.332513E+0	1.316313E+0	1.269503E+0	1.302124E+0	1.252170E+0	1.248521E+0	1.252499E+0	1.265577E+0	1.281778E+0	1.275234E+0	1.256865E+0	1.303834E+0	1.285344E+0	1.292533E+0	1.293733E+0	1.281433E+0	1.243654E+0	1.241035E+0	1.255396E+0	1.256615E+0	1.263514E+0	1.246484E+0	1.309680E+0	1.283375E+0	1.300063E+0	1.270460E+0	1.262343E+0	1.303903E+0	1.274233E+0	1.332798E+0	1.226705E+0	1.273203E+0	1.274075E+0	1.284683E+0	1.268282E+0	1.327479E+0	1.261025E+0	1.280492E+0	1.297915E+0	1.226420E+0	1.334367E+0	1.254790E+0	1.256263E+0	1.272409E+0	1.297224E+0	1.292739E+0	1.309054E+0	1.295464E+0	1.241938E+0	1.254202E+0	1.281051E+0	1.309397E+0	1.322090E+0	1.268648E+0	1.315403E+0	1.275900E+0	1.253168E+0	1.284181E+0	1.337225E+0	1.291508E+0	1.286429E+0	1.258006E+0	1.324444E+0	1.288715E+0	1.306753E+0	1.254882E+0	1.252866E+0	1.299666E+0	1.256311E+0	1.307157E+0	1.242851E+0	1.300994E+0	1.296317E+0	1.236813E+0	1.267111E+0	1.330768E+0	1.251019E+0	1.282073E+0	1.319303E+0	1.262983E+0	1.257767E+0	1.237685E+0	1.317951E+0	1.272039E+0	1.333443E+0	1.272373E+0	1.341702E+0	1.240392E+0	1.314122E+0	1.205926E+0	1.279512E+0	1.285443E+0	1.275887E+0	1.293677E+0	1.291052E+0	1.263960E+0	1.239089E+0	1.296887E+0	1.245058E+0	1.309411E+0	1.272725E+0	1.264164E+0	1.232050E+0	1.304347E+0	1.324537E+0	1.279919E+0	1.208303E+0	1.287123E+0	1.328543E+0	1.286895E+0	1.262705E+0	1.279843E+0	1.254935E+0	1.273723E+0	1.279108E+0	1.311336E+0	1.316680E+0	1.260914E+0	1.293217E+0	1.281592E+0	1.280326E+0	1.261241E+0	1.252114E+0	1.267603E+0	1.242782E+0	1.315202E+0	1.278366E+0	1.305522E+0	1.287520E+0	1.279629E+0	1.290116E+0	1.295332E+0	1.291069E+0	1.213815E+0	1.202609E+0
5.520210E+2	1.333289E+0	1.285224E+0	1.292978E+0	1.211831E+0	1.308785E+0	1.258756E+0	1.341128E+0	1.344961E+0	1.347505E+0	1.332366E+0	1.314263E+0	1.371311E+0	1.276338E+0	1.263727E+0	1.317119E+0	1.241643E+0	1.271019E+0	1.266770E+0	1.320140E+0	1.301724E+0	1.306528E+0	1.301726E+0	1.306960E+0	1.347724E+0	1.257580E+0	1.337247E+0	1.290854E+0	1.302129E+0	1.296104E+0	1.292886E+0	1.266588E+0	1.252811E+0	1.282785E+0	1.321422E+0	1.278909E+0	1.270632E+0	1.260418E+0	1.321498E+0	1.307616E+0	1.330114E+0	1.277854E+0	1.294569E+0	1.258950E+0	1.311926E+0	1.273162E+0	1.273372E+0	1.288914E+0	1.288497E+0	1.310638E+0	1.321114E+0	1.268716E+0	1.298315E+0	1.289104E+0	1.304979E+0	1.281672E+0	1.282143E+0	1.275501E+0	1.299167E+0	1.316647E+0	1.289262E+0	1.327542E+0	1.285287E+0	1.275213E+0	1.285809E+0	1.316995E+0	1.279983E+0	1.305767E+0	1.309841E+0	1.256832E+0	1.328935E+0	1.301269E+0	1.267056E+0	1.301109E+0	1.309288E+0	1.255515E+0	1.282786E+0	1.310981E+0	1.281898E+0	1.327488E+0	1.306279E+0	1.314055E+0	1.262798E+0	1.316653E+0	1.289208E+0	1.306889E+0	1.281642E+0	1.266579E+0	1.279871E+0	1.277178E+0	1.311841E+0	1.321388E+0	1.214488E+0	1.331104E+0	1.282322E+0	1.280740E+0	1.244242E+0	1.332826E+0	1.316512E+0	1.245828E+0	1.314293E+0	1.291815E+0	1.270604E+0	1.314889E+0	1.318925E+0	1.263015E+0	1.295591E+0	1.285529E+0	1.286011E+0	1.234627E+0	1.337333E+0	1.319656E+0	1.285259E+0	1.259491E+0	1.333544E+0	1.330451E+0	1.281487E+0	1.291214E+0	1.288495E+0	1.280154E+0	1.295244E+0	1.214670E+0	1.308300E+0	1.305501E+0	1.288993E+0	1.251539E+0	1.299031E+0	1.285224E+0	1.312513E+0	1.297386E+0	1.283002E+0	1.300211E+0	1.215376E+0	1.317550E+0	1.275086E+0	1.318663E+0	1.247979E+0	1.263456E+0	1.289077E+0	1.346954E+0	1.324626E+0	1.256537E+0	1.230890E+0	1.307286E+0	1.270429E+0	1.266380E+0	1.208159E+0	1.266180E+0	1.262988E+0	1.277244E+0	1.319724E+0	1.294456E+0	1.259904E+0	1.295780E+0	1.320082E+0	1.303135E+0	1.281998E+0	1.283373E+0	1.321181E+0	1.258716E+0	1.287218E+0	1.325979E+0	1.268283E+0	1.315183E+0	1.269471E+0	1.266491E+0	1.313953E+0	1.291425E+0	1.318184E+0	1.255303E+0	1.213091E+0
5.527650E+2	1.215529E+0	1.254120E+0	1.221398E+0	1.255817E+0	1.251612E+0	1.238416E+0	1.243136E+0	1.279034E+0	1.278392E+0	1.245563E+0	1.316528E+0	1.284902E+0	1.284484E+0	1.244795E+0	1.230221E+0	1.244358E+0	1.266068E+0	1.255224E+0	1.243475E+0	1.249238E+0	1.268614E+0	1.233275E+0	1.226941E+0	1.267175E+0	1.291678E+0	1.255440E+0	1.259934E+0	1.270055E+0	1.231614E+0	1.231242E+0	1.253044E+0	1.237190E+0	1.274809E+0	1.281600E+0	1.258977E+0	1.295477E+0	1.308410E+0	1.248206E+0	1.276819E+0	1.313682E+0	1.238229E+0	1.216828E+0	1.259676E+0	1.246657E+0	1.213249E+0	1.262774E+0	1.306695E+0	1.259237E+0	1.272359E+0	1.249067E+0	1.268547E+0	1.232621E+0	1.210578E+0	1.242146E+0	1.259693E+0	1.289542E+0	1.250803E+0	1.250988E+0	1.300265E+0	1.256458E+0	1.292804E+0	1.213786E+0	1.255695E+0	1.261079E+0	1.220005E+0	1.259091E+0	1.226893E+0	1.212327E+0	1.222982E+0	1.287301E+0	1.269411E+0	1.254292E+0	1.260508E+0	1.263029E+0	1.270934E+0	1.222756E+0	1.203831E+0	1.239471E+0	1.219432E+0	1.238997E+0	1.272308E+0	1.208133E+0	1.305413E+0	1.280894E+0	1.240937E+0	1.264260E+0	1.260640E+0	1.283006E+0	1.234653E+0	1.254747E+0	1.255239E+0	1.265786E+0	1.268294E+0	1.255527E+0	1.277079E+0	1.275096E+0	1.221886E+0	1.257502E+0	1.246563E+0	1.247142E+0	1.239532E+0	1.235508E+0	1.220395E+0	1.254582E+0	1.198824E+0	1.233986E+0	1.218349E+0	1.275132E+0	1.240194E+0	1.314034E+0	1.236766E+0	1.271232E+0	1.269324E+0	1.310484E+0	1.222717E+0	1.293492E+0	1.297062E+0	1.256165E+0	1.271239E+0	1.234130E+0	1.274153E+0	1.225886E+0	1.276287E+0	1.205009E+0	1.225542E+0	1.229795E+0	1.236296E+0	1.278795E+0	1.219883E+0	1.282752E+0	1.231695E+0	1.279947E+0	1.275023E+0	1.271744E+0	1.242507E+0	1.218493E+0	1.215773E+0	1.254989E+0	1.298414E+0	1.272948E+0	1.243946E+0	1.215651E+0	1.341057E+0	1.288598E+0	1.245633E+0	1.213862E+0	1.305859E+0	1.257418E+0	1.218751E+0	1.224384E+0	1.301281E+0	1.278519E+0	1.288486E+0	1.271526E+0	1.221253E+0	1.245270E+0	1.257910E+0	1.232170E+0	1.264068E+0	1.287794E+0	1.256474E+0	1.229474E+0	1.226211E+0	1.271181E+0	1.235758E+0	1.241437E+0	1.262621E+0	1.256563E+0	1.217654E+0	1.345031E+0
5.535160E+2	1.186665E+0	1.197122E+0	1.206545E+0	1.178883E+0	1.182901E+0	1.202384E+0	1.169298E+0	1.181332E+0	1.200143E+0	1.181086E+0	1.181821E+0	1.169729E+0	1.224151E+0	1.226961E+0	1.172474E+0	1.203412E+0	1.207309E+0	1.156941E+0	1.136077E+0	1.164532E+0	1.199147E+0	1.174374E+0	1.141994E+0	1.222139E+0	1.193684E+0	1.227527E+0	1.152202E+0	1.236787E+0	1.163255E+0	1.167640E+0	1.168385E+0	1.171929E+0	1.185261E+0	1.163084E+0	1.180151E+0	1.198889E+0	1.193191E+0	1.193594E+0	1.178690E+0	1.180675E+0	1.193710E+0	1.237690E+0	1.121140E+0	1.205056E+0	1.196559E+0	1.243072E+0	1.160406E+0	1.172133E+0	1.158245E+0	1.191829E+0	1.194547E+0	1.160035E+0	1.182536E+0	1.155526E+0	1.174600E+0	1.187867E+0	1.156385E+0	1.169913E+0	1.160424E+0	1.188648E+0	1.190996E+0	1.175516E+0	1.187864E+0	1.206306E+0	1.183343E+0	1.133038E+0	1.175403E+0	1.187183E+0	1.189623E+0	1.154945E+0	1.199469E+0	1.165594E+0	1.222091E+0	1.161910E+0	1.175950E+0	1.169834E+0	1.111704E+0	1.185973E+0	1.165729E+0	1.172183E+0	1.169793E+0	1.156031E+0	1.154349E+0	1.215424E+0	1.143951E+0	1.156904E+0	1.216478E+0	1.205948E+0	1.180172E+0	1.157780E+0	1.165619E+0	1.180407E+0	1.177427E+0	1.190721E+0	1.149278E+0	1.188088E+0	1.172286E+0	1.216348E+0	1.161103E+0	1.241218E+0	1.210503E+0	1.142873E+0	1.168306E+0	1.205815E+0	1.167981E+0	1.147530E+0	1.183026E+0	1.187248E+0	1.173795E+0	1.231985E+0	1.172901E+0	1.210206E+0	1.174188E+0	1.172523E+0	1.215733E+0	1.286953E+0	1.179090E+0	1.207575E+0	1.176292E+0	1.216158E+0	1.135512E+0	1.141792E+0	1.167507E+0	1.143578E+0	1.156078E+0	1.179527E+0	1.228249E+0	1.179742E+0	1.211578E+0	1.201796E+0	1.177091E+0	1.145543E+0	1.157111E+0	1.174399E+0	1.175672E+0	1.217170E+0	1.210737E+0	1.126478E+0	1.191723E+0	1.214151E+0	1.191920E+0	1.143995E+0	1.207719E+0	1.211436E+0	1.109626E+0	1.168400E+0	1.206733E+0	1.155356E+0	1.186546E+0	1.212065E+0	1.135747E+0	1.191035E+0	1.185005E+0	1.152845E+0	1.181473E+0	1.169496E+0	1.111642E+0	1.149813E+0	1.140007E+0	1.176731E+0	1.152032E+0	1.142472E+0	1.170237E+0	1.200035E+0	1.133514E+0	1.157158E+0	1.185821E+0	1.243349E+0	1.126982E+0	1.148746E+0
5.542580E+2	1.076854E+0	1.091579E+0	1.095871E+0	1.065131E+0	1.076103E+0	1.142630E+0	1.094681E+0	1.107257E+0	1.076077E+0	1.098030E+0	1.081082E+0	1.131601E+0	1.118153E+0	1.053871E+0	1.038519E+0	1.026465E+0	1.131014E+0	1.099088E+0	1.077701E+0	1.079639E+0	1.086250E+0	1.089285E+0	1.099405E+0	1.138116E+0	1.064945E+0	1.103627E+0	1.074432E+0	1.116411E+0	1.065362E+0	1.081175E+0	1.043298E+0	1.086356E+0	1.105265E+0	1.070555E+0	1.040837E+0	1.085091E+0	1.113517E+0	1.093011E+0	1.056449E+0	1.083132E+0	1.094728E+0	1.113449E+0	1.023108E+0	1.089264E+0	1.121534E+0	1.043505E+0	1.133789E+0	1.056169E+0	1.125332E+0	1.071989E+0	1.109560E+0	1.088761E+0	1.100640E+0	1.114672E+0	1.108070E+0	1.109283E+0	1.093961E+0	1.095725E+0	1.090073E+0	1.071857E+0	1.078482E+0	1.072038E+0	1.104413E+0	1.083823E+0	1.075694E+0	1.041133E+0	1.107197E+0	1.109949E+0	1.054031E+0	1.066756E+0	1.089870E+0	1.046071E+0	1.057510E+0	1.107614E+0	1.099275E+0	1.057476E+0	1.046560E+0	1.095327E+0	1.106443E+0	1.167923E+0	1.091101E+0	1.109849E+0	1.043764E+0	1.160997E+0	1.094647E+0	1.102329E+0	1.073637E+0	1.074102E+0	1.058107E+0	1.072577E+0	1.059264E+0	1.103573E+0	1.107939E+0	1.073576E+0	1.113639E+0	1.056289E+0	1.098057E+0	1.140704E+0	1.078143E+0	1.078288E+0	1.126479E+0	1.059923E+0	1.051762E+0	1.114181E+0	1.053447E+0	1.091291E+0	1.072146E+0	1.153289E+0	1.080270E+0	1.153995E+0	1.102039E+0	1.100956E+0	1.081835E+0	1.130576E+0	1.115997E+0	1.081607E+0	1.061163E+0	1.032590E+0	1.080521E+0	1.083902E+0	1.115677E+0	1.092372E+0	1.101307E+0	1.069500E+0	1.047239E+0	1.062567E+0	1.069151E+0	1.080847E+0	1.100714E+0	1.044591E+0	1.105601E+0	1.078773E+0	1.070269E+0	1.073303E+0	1.042683E+0	1.109287E+0	1.119951E+0	1.106776E+0	1.063934E+0	1.088257E+0	1.080562E+0	1.056008E+0	1.067617E+0	1.038981E+0	1.115208E+0	1.048414E+0	1.067164E+0	1.065010E+0	1.015231E+0	1.064544E+0	1.050210E+0	1.114437E+0	1.121261E+0	1.092316E+0	1.054013E+0	1.090541E+0	1.065883E+0	1.098594E+0	1.035771E+0	1.080550E+0	1.079714E+0	1.056535E+0	1.056434E+0	1.121080E+0	1.062029E+0	1.097412E+0	1.061522E+0	1.087101E+0	1.030713E+0	1.177334E+0
5.550190E+2	9.979918E-1	1.026497E+0	1.024792E+0	1.036676E+0	9.702315E-1	9.975059E-1	9.873208E-1	1.049746E+0	1.006260E+0	1.021606E+0	1.018446E+0	1.014838E+0	9.872810E-1	1.011372E+0	9.464912E-1	9.616339E-1	1.027092E+0	1.041301E+0	9.707672E-1	1.003901E+0	9.955005E-1	9.688130E-1	9.883720E-1	9.796580E-1	9.915245E-1	1.027755E+0	9.488468E-1	1.074485E+0	9.948061E-1	9.897639E-1	9.737789E-1	9.796396E-1	9.829589E-1	9.768781E-1	9.635681E-1	9.715588E-1	1.021489E+0	9.944663E-1	1.018031E+0	1.000387E+0	1.001836E+0	1.016009E+0	9.714837E-1	1.056444E+0	1.040191E+0	9.957878E-1	1.011691E+0	9.676995E-1	1.030428E+0	1.018975E+0	1.013368E+0	1.045007E+0	1.024457E+0	9.972519E-1	9.959969E-1	1.012026E+0	1.042067E+0	9.797680E-1	9.850200E-1	1.015110E+0	1.037726E+0	1.002195E+0	9.831900E-1	1.010113E+0	1.047419E+0	9.771265E-1	9.943417E-1	1.029557E+0	1.016939E+0	9.502676E-1	1.021669E+0	1.005989E+0	9.798070E-1	1.003267E+0	9.982131E-1	9.792440E-1	1.009621E+0	1.004335E+0	1.034328E+0	1.020326E+0	1.002630E+0	9.369746E-1	1.037342E+0	9.913373E-1	9.829394E-1	1.008653E+0	1.043956E+0	1.049398E+0	1.001750E+0	9.959474E-1	1.020479E+0	1.039535E+0	1.019033E+0	9.995265E-1	1.062420E+0	1.007602E+0	1.001716E+0	1.023189E+0	9.958595E-1	1.072879E+0	1.013263E+0	9.756981E-1	9.696756E-1	1.044346E+0	9.607548E-1	1.000753E+0	9.829064E-1	9.906998E-1	9.390421E-1	1.001554E+0	1.006321E+0	1.009120E+0	1.007034E+0	1.012924E+0	1.026847E+0	1.041501E+0	9.565447E-1	9.968707E-1	1.010029E+0	9.812842E-1	9.724307E-1	9.968638E-1	9.809563E-1	9.858643E-1	9.639910E-1	1.038751E+0	1.025527E+0	1.031176E+0	9.232682E-1	1.029783E+0	9.788932E-1	1.008580E+0	1.028459E+0	1.006102E+0	9.778795E-1	9.750261E-1	1.001736E+0	9.954533E-1	1.008985E+0	1.022648E+0	1.014309E+0	9.689968E-1	1.007413E+0	1.025831E+0	1.027373E+0	1.037310E+0	1.008230E+0	1.052516E+0	1.028830E+0	9.975414E-1	9.813671E-1	1.050326E+0	1.021575E+0	9.855499E-1	9.967574E-1	1.069624E+0	9.771752E-1	1.017657E+0	9.414749E-1	1.049854E+0	1.050793E+0	1.009438E+0	1.011551E+0	1.055739E+0	9.741055E-1	1.049219E+0	9.998954E-1	9.875673E-1	1.021855E+0	9.692863E-1
5.557710E+2	9.537712E-1	9.463219E-1	9.755419E-1	9.737418E-1	9.618344E-1	9.608381E-1	9.870754E-1	9.584862E-1	9.606978E-1	9.585026E-1	9.583801E-1	9.431527E-1	9.784476E-1	9.860496E-1	9.196206E-1	9.522512E-1	9.281776E-1	9.675885E-1	9.490260E-1	9.629485E-1	1.031744E+0	9.475181E-1	8.997855E-1	9.908994E-1	9.231981E-1	9.514789E-1	9.538894E-1	9.774426E-1	9.368497E-1	9.702170E-1	9.532196E-1	9.902091E-1	9.783717E-1	9.399665E-1	9.384859E-1	9.449976E-1	9.577805E-1	9.653420E-1	9.675082E-1	9.786844E-1	9.532986E-1	9.675381E-1	9.046143E-1	9.082452E-1	9.671593E-1	9.699116E-1	9.649323E-1	9.436770E-1	9.637639E-1	9.462960E-1	9.769107E-1	9.302173E-1	9.371660E-1	9.719971E-1	9.658606E-1	9.392580E-1	9.900476E-1	9.312345E-1	9.440953E-1	9.670977E-1	9.530057E-1	9.815605E-1	9.883561E-1	9.310256E-1	9.838175E-1	9.379582E-1	9.870189E-1	9.772898E-1	1.006144E+0	9.797397E-1	9.517875E-1	9.969857E-1	9.471647E-1	9.407975E-1	9.758822E-1	9.713978E-1	9.542473E-1	9.678305E-1	9.747860E-1	9.743310E-1	9.687113E-1	9.845518E-1	9.639905E-1	9.596209E-1	9.745894E-1	9.265633E-1	9.455803E-1	1.032352E+0	9.256083E-1	9.701452E-1	9.471877E-1	9.875956E-1	9.515568E-1	1.013253E+0	9.393566E-1	9.702456E-1	9.769904E-1	9.476862E-1	9.459966E-1	9.364566E-1	9.460619E-1	9.425810E-1	9.970878E-1	1.000359E+0	9.590944E-1	9.397428E-1	9.216186E-1	1.009140E+0	9.545875E-1	9.530162E-1	9.316759E-1	9.956327E-1	9.380411E-1	9.639867E-1	9.647103E-1	9.216213E-1	9.499948E-1	1.019464E+0	1.014525E+0	9.541691E-1	9.523949E-1	9.302279E-1	9.641659E-1	9.893578E-1	9.491386E-1	9.996103E-1	9.231579E-1	9.526956E-1	9.680433E-1	9.493437E-1	9.978100E-1	9.912182E-1	9.531162E-1	9.507073E-1	9.678881E-1	9.622818E-1	9.399778E-1	9.389783E-1	9.454226E-1	9.790684E-1	9.357989E-1	9.606968E-1	9.503241E-1	1.000747E+0	9.764272E-1	9.897679E-1	9.507298E-1	9.838765E-1	9.465114E-1	9.491346E-1	9.329979E-1	1.006300E+0	9.557090E-1	9.797933E-1	9.486886E-1	9.996685E-1	9.424535E-1	9.930631E-1	9.748918E-1	1.003618E+0	9.298253E-1	9.776438E-1	9.303229E-1	1.033941E+0	9.498441E-1	9.572915E-1	9.850498E-1	9.870616E-1	9.503438E-1	1.002738E+0
5.560130E+2	9.563333E-1	9.625586E-1	9.661599E-1	9.440304E-1	9.832186E-1	9.531037E-1	1.012221E+0	1.019167E+0	9.628215E-1	9.734694E-1	9.796910E-1	9.434407E-1	9.709622E-1	9.306204E-1	9.989845E-1	9.395173E-1	9.494948E-1	9.717951E-1	9.499732E-1	9.315742E-1	1.032632E+0	9.610575E-1	9.749002E-1	9.830274E-1	1.001603E+0	9.480164E-1	9.842388E-1	9.593388E-1	9.613826E-1	9.541944E-1	9.344440E-1	9.611415E-1	9.710147E-1	1.000981E+0	9.271550E-1	9.854209E-1	1.011035E+0	9.473194E-1	9.360549E-1	9.903380E-1	9.875474E-1	9.470854E-1	9.350450E-1	9.852366E-1	9.698530E-1	9.850580E-1	9.846456E-1	9.783184E-1	9.703513E-1	9.702954E-1	9.636164E-1	9.512323E-1	9.801348E-1	9.608987E-1	9.342658E-1	9.411718E-1	9.431514E-1	9.663242E-1	9.499820E-1	1.026564E+0	9.254016E-1	9.463830E-1	1.000257E+0	9.429443E-1	1.004031E+0	9.807780E-1	9.299417E-1	9.658634E-1	9.590891E-1	9.828726E-1	9.574411E-1	9.534101E-1	9.741240E-1	9.679118E-1	9.873684E-1	1.012637E+0	8.995623E-1	9.942369E-1	9.940458E-1	9.834989E-1	9.977369E-1	9.201677E-1	9.433466E-1	9.847016E-1	9.720150E-1	9.911645E-1	9.656508E-1	1.016680E+0	9.211997E-1	9.878699E-1	9.858733E-1	9.550174E-1	9.780942E-1	9.569135E-1	1.023315E+0	9.255095E-1	9.485161E-1	9.803078E-1	9.446283E-1	9.753470E-1	9.470937E-1	9.751562E-1	9.878134E-1	9.556626E-1	9.637469E-1	9.668802E-1	9.706291E-1	1.022921E+0	9.874090E-1	9.639495E-1	9.687064E-1	9.527648E-1	1.007383E+0	9.519179E-1	9.949553E-1	1.002939E+0	9.376046E-1	9.756194E-1	9.610546E-1	9.699647E-1	9.571309E-1	9.745483E-1	9.760046E-1	9.840208E-1	9.057943E-1	9.639785E-1	9.658890E-1	9.654679E-1	1.003511E+0	9.000028E-1	9.943377E-1	9.752486E-1	1.001004E+0	9.893177E-1	9.529952E-1	9.787461E-1	9.353906E-1	9.611160E-1	9.691163E-1	9.455506E-1	9.671797E-1	9.177069E-1	9.933312E-1	9.693840E-1	9.610469E-1	9.782302E-1	9.542712E-1	9.713684E-1	9.674329E-1	9.534981E-1	9.515933E-1	9.592379E-1	9.779321E-1	9.580580E-1	9.288226E-1	9.290463E-1	9.405327E-1	9.720215E-1	9.549042E-1	9.502367E-1	9.803954E-1	9.507530E-1	1.003230E+0	1.000374E+0	9.375541E-1	9.934677E-1	9.524953E-1	9.803028E-1	9.911673E-1	9.488742E-1
5.565090E+2	1.032556E+0	9.722004E-1	9.333301E-1	9.892421E-1	9.762392E-1	9.615352E-1	9.848401E-1	9.591742E-1	9.857022E-1	9.692657E-1	9.371175E-1	9.381502E-1	9.872196E-1	9.946676E-1	9.627834E-1	9.816659E-1	9.705841E-1	9.627455E-1	9.940757E-1	9.968913E-1	1.011990E+0	9.654779E-1	9.669935E-1	9.826933E-1	9.556195E-1	9.495735E-1	9.877027E-1	9.972613E-1	9.563627E-1	9.640825E-1	9.822360E-1	9.897140E-1	1.003058E+0	9.876585E-1	9.719774E-1	9.630555E-1	9.634368E-1	9.615020E-1	9.611600E-1	9.748848E-1	9.919911E-1	9.884618E-1	9.452800E-1	9.655281E-1	1.000977E+0	9.782158E-1	9.404012E-1	9.627916E-1	9.623897E-1	9.514224E-1	9.601284E-1	9.639307E-1	9.567803E-1	9.489885E-1	9.570262E-1	9.807141E-1	9.992021E-1	9.789770E-1	9.589741E-1	9.914037E-1	9.589011E-1	9.331434E-1	9.460550E-1	9.704605E-1	9.712987E-1	9.420074E-1	9.691097E-1	9.962920E-1	9.447210E-1	9.737913E-1	9.782101E-1	9.781408E-1	9.566042E-1	9.638853E-1	9.450413E-1	1.029253E+0	9.663745E-1	9.753015E-1	9.876656E-1	9.919917E-1	9.788409E-1	9.922002E-1	1.004466E+0	9.892574E-1	9.607693E-1	9.571227E-1	9.638193E-1	9.770445E-1	9.671139E-1	9.364037E-1	9.567536E-1	9.986478E-1	9.572849E-1	9.452272E-1	9.653773E-1	9.717466E-1	9.819351E-1	9.855813E-1	9.760832E-1	9.405400E-1	9.938765E-1	9.747437E-1	9.784739E-1	9.819242E-1	9.718398E-1	1.008287E+0	9.914658E-1	9.623732E-1	9.368273E-1	9.657887E-1	9.324126E-1	9.932028E-1	1.002736E+0	9.511094E-1	1.008651E+0	9.721923E-1	9.887413E-1	9.607747E-1	9.804713E-1	9.765169E-1	9.989442E-1	9.927972E-1	9.950958E-1	9.686395E-1	9.101867E-1	1.001328E+0	9.656776E-1	9.492541E-1	9.845284E-1	9.782295E-1	9.885448E-1	1.000845E+0	1.008391E+0	9.712763E-1	9.888183E-1	9.682372E-1	9.659161E-1	9.423574E-1	1.005727E+0	9.630516E-1	9.945105E-1	9.623894E-1	9.727640E-1	1.012340E+0	9.970977E-1	9.830905E-1	9.572639E-1	9.885583E-1	9.809919E-1	9.876456E-1	1.000928E+0	9.735212E-1	9.682579E-1	9.958248E-1	9.644971E-1	9.852685E-1	9.798706E-1	9.746830E-1	9.639702E-1	9.937863E-1	1.005034E+0	9.654605E-1	9.613442E-1	9.796371E-1	9.583570E-1	9.659646E-1	9.763069E-1	9.954586E-1	9.594992E-1	1.000889E+0
5.570270E+2	1.001468E+0	9.680760E-1	9.792492E-1	9.826928E-1	1.005583E+0	1.019548E+0	9.679935E-1	9.400027E-1	9.774953E-1	9.457714E-1	9.819321E-1	9.860112E-1	9.958944E-1	9.613241E-1	1.009838E+0	1.003196E+0	9.916286E-1	1.005405E+0	9.711100E-1	9.704567E-1	1.014375E+0	9.746482E-1	9.780078E-1	1.015891E+0	9.792881E-1	9.736244E-1	9.715027E-1	9.940893E-1	9.409556E-1	9.596738E-1	9.750745E-1	9.800057E-1	9.700497E-1	9.760263E-1	9.924157E-1	9.627129E-1	1.001891E+0	9.717014E-1	9.966135E-1	9.654479E-1	9.538036E-1	1.013308E+0	9.671363E-1	9.487514E-1	9.441540E-1	9.433802E-1	9.733409E-1	9.790610E-1	9.729956E-1	9.936676E-1	9.806202E-1	9.910254E-1	1.007631E+0	9.982230E-1	9.675825E-1	9.708444E-1	9.893392E-1	9.468310E-1	1.002583E+0	1.000643E+0	1.006771E+0	9.627593E-1	9.938950E-1	1.022053E+0	9.833227E-1	9.596959E-1	9.963107E-1	9.621035E-1	9.779466E-1	9.988011E-1	1.017624E+0	9.811978E-1	9.889246E-1	9.639263E-1	1.001514E+0	9.676861E-1	9.310247E-1	9.505165E-1	9.643897E-1	1.010789E+0	9.836065E-1	9.355400E-1	9.917879E-1	9.915299E-1	1.006010E+0	1.022324E+0	9.983865E-1	1.008539E+0	1.027448E+0	9.579726E-1	9.731037E-1	9.807050E-1	1.005170E+0	9.636950E-1	9.963265E-1	9.424925E-1	9.909103E-1	9.939749E-1	1.016997E+0	9.730855E-1	9.271813E-1	9.721394E-1	9.943085E-1	9.376069E-1	9.973113E-1	9.824075E-1	9.720236E-1	1.023862E+0	1.004688E+0	9.456093E-1	9.661659E-1	9.609900E-1	9.863980E-1	9.867347E-1	9.946410E-1	9.708524E-1	9.857097E-1	9.141491E-1	9.677606E-1	9.921307E-1	1.012230E+0	9.894549E-1	9.609161E-1	9.556040E-1	1.003980E+0	9.567357E-1	1.002563E+0	9.815590E-1	9.677726E-1	9.667218E-1	1.013431E+0	9.686908E-1	9.830129E-1	1.026524E+0	9.872100E-1	1.026851E+0	9.563183E-1	1.003024E+0	9.387296E-1	9.455814E-1	9.678402E-1	1.000883E+0	9.051397E-1	9.981085E-1	9.717431E-1	9.902619E-1	9.793446E-1	1.005059E+0	9.977193E-1	9.849929E-1	9.172312E-1	1.014348E+0	9.904466E-1	1.001554E+0	9.649222E-1	9.662909E-1	1.002854E+0	1.000451E+0	9.736645E-1	1.005407E+0	1.015559E+0	9.896575E-1	9.359797E-1	9.876919E-1	9.846230E-1	1.001142E+0	9.578654E-1	1.015505E+0	9.659537E-1	1.063194E+0
5.575640E+2	9.550020E-1	9.890099E-1	9.948525E-1	9.884276E-1	9.983161E-1	1.000512E+0	1.010083E+0	9.735745E-1	1.019013E+0	9.750026E-1	1.001069E+0	9.265435E-1	9.684436E-1	9.703015E-1	9.679543E-1	9.740721E-1	1.009701E+0	9.861880E-1	9.636031E-1	9.862185E-1	9.761542E-1	1.008698E+0	9.725366E-1	9.713367E-1	9.876316E-1	1.008693E+0	9.988981E-1	9.885759E-1	1.024435E+0	1.007769E+0	9.739013E-1	9.729654E-1	9.730148E-1	1.055920E+0	9.713776E-1	9.714909E-1	1.008256E+0	1.006696E+0	9.769916E-1	9.724803E-1	9.377382E-1	9.751835E-1	1.008581E+0	1.006097E+0	9.664272E-1	9.531263E-1	9.905400E-1	1.024389E+0	1.006207E+0	9.780653E-1	9.347799E-1	9.491919E-1	1.004917E+0	9.892849E-1	1.007711E+0	1.004320E+0	9.951037E-1	9.730861E-1	9.959821E-1	9.961056E-1	1.011870E+0	1.014286E+0	1.021015E+0	9.959425E-1	9.524788E-1	1.017486E+0	9.881011E-1	9.901765E-1	9.736451E-1	9.841461E-1	9.827519E-1	9.573408E-1	9.786732E-1	9.642284E-1	1.018348E+0	9.851890E-1	1.031082E+0	9.704823E-1	9.842883E-1	9.457044E-1	9.731244E-1	1.032558E+0	9.793817E-1	1.003099E+0	1.035460E+0	9.943494E-1	9.863736E-1	9.947269E-1	9.825910E-1	1.006481E+0	9.844719E-1	9.862762E-1	9.956568E-1	9.957655E-1	9.709087E-1	1.052734E+0	9.549324E-1	9.949508E-1	9.660507E-1	9.727489E-1	9.434382E-1	9.998116E-1	1.000693E+0	1.003389E+0	9.897839E-1	9.931888E-1	9.666095E-1	9.918079E-1	9.700135E-1	9.934467E-1	1.020656E+0	1.003019E+0	9.927357E-1	9.889110E-1	9.677032E-1	9.858731E-1	9.751492E-1	1.005006E+0	1.001004E+0	9.869889E-1	9.576836E-1	1.010888E+0	9.770848E-1	1.002843E+0	9.620264E-1	1.018565E+0	1.003333E+0	9.934825E-1	9.749338E-1	9.902567E-1	9.564897E-1	9.663964E-1	9.795403E-1	9.552044E-1	9.869605E-1	9.777144E-1	9.740994E-1	1.052376E+0	1.008035E+0	1.027689E+0	9.593039E-1	1.024427E+0	1.033058E+0	9.794331E-1	1.008916E+0	9.781197E-1	1.022570E+0	9.999776E-1	9.831603E-1	9.566786E-1	9.805398E-1	1.007935E+0	9.950701E-1	9.465901E-1	1.023725E+0	9.939497E-1	9.878756E-1	9.911853E-1	1.001612E+0	1.014545E+0	9.603208E-1	9.320154E-1	9.566909E-1	1.013436E+0	9.864263E-1	9.688942E-1	1.018078E+0	9.777999E-1	9.394452E-1	1.027375E+0
5.580230E+2	9.935963E-1	9.748280E-1	9.640018E-1	9.947949E-1	9.590353E-1	1.007364E+0	1.033028E+0	1.042303E+0	1.010718E+0	9.613102E-1	1.005698E+0	1.049581E+0	1.032580E+0	9.907655E-1	1.022990E+0	1.039801E+0	1.014647E+0	9.907590E-1	1.018331E+0	1.015378E+0	9.953252E-1	9.424265E-1	1.012345E+0	9.906347E-1	1.035553E+0	1.018231E+0	9.733140E-1	9.767409E-1	1.014285E+0	1.023774E+0	1.009201E+0	9.754521E-1	1.006353E+0	1.003135E+0	9.977754E-1	9.943627E-1	1.042492E+0	9.848638E-1	9.809853E-1	9.725108E-1	9.977899E-1	1.001562E+0	9.984386E-1	1.018899E+0	9.789989E-1	9.988049E-1	9.967461E-1	1.006407E+0	1.027238E+0	1.006509E+0	1.024700E+0	1.011763E+0	9.717180E-1	1.015551E+0	1.006036E+0	1.009691E+0	9.887242E-1	1.027024E+0	9.973331E-1	9.614845E-1	9.820784E-1	9.594618E-1	9.826850E-1	1.021500E+0	1.003014E+0	9.870980E-1	1.014899E+0	1.005737E+0	1.006591E+0	9.978419E-1	9.806993E-1	9.971572E-1	1.002772E+0	1.041952E+0	9.958886E-1	1.010369E+0	9.649319E-1	9.986828E-1	1.017340E+0	1.031807E+0	9.827141E-1	9.556034E-1	1.022509E+0	1.010917E+0	9.876025E-1	1.003833E+0	9.915805E-1	1.000604E+0	1.004954E+0	9.950648E-1	9.685379E-1	1.020775E+0	1.013240E+0	1.014578E+0	9.726198E-1	1.019697E+0	9.748352E-1	9.738413E-1	9.753207E-1	1.004601E+0	1.036170E+0	1.009725E+0	1.015943E+0	1.001410E+0	9.706998E-1	1.004445E+0	1.018156E+0	9.516533E-1	1.009606E+0	1.004567E+0	9.590263E-1	9.732511E-1	1.005085E+0	1.002404E+0	9.974167E-1	1.015754E+0	9.912639E-1	1.017362E+0	9.844106E-1	1.004572E+0	9.907514E-1	1.030669E+0	1.032127E+0	9.847930E-1	1.000837E+0	1.000237E+0	1.004057E+0	9.767543E-1	9.790965E-1	9.887050E-1	1.028258E+0	1.016759E+0	1.012402E+0	9.891715E-1	9.948861E-1	9.977217E-1	1.014760E+0	9.964440E-1	1.003090E+0	1.001658E+0	9.789110E-1	1.011370E+0	1.002336E+0	1.005738E+0	1.012965E+0	9.866890E-1	1.005183E+0	9.557180E-1	9.736612E-1	9.880316E-1	1.016473E+0	1.014644E+0	1.023102E+0	1.010743E+0	1.019726E+0	1.015360E+0	1.009231E+0	9.725004E-1	9.975698E-1	9.870667E-1	9.989675E-1	9.981304E-1	1.006029E+0	9.788437E-1	1.031346E+0	1.001050E+0	9.888052E-1	9.734727E-1	9.724642E-1	9.680143E-1
5.585220E+2	9.562897E-1	1.025671E+0	1.072342E+0	1.016924E+0	1.023185E+0	1.011623E+0	9.608072E-1	1.019903E+0	1.008919E+0	1.034063E+0	9.620460E-1	1.019495E+0	1.023759E+0	1.005628E+0	1.015085E+0	9.930329E-1	1.006044E+0	1.013448E+0	1.004368E+0	9.946276E-1	9.918774E-1	1.038463E+0	1.022559E+0	9.973713E-1	1.015213E+0	9.828551E-1	9.782303E-1	1.011152E+0	1.006230E+0	1.028145E+0	9.963419E-1	9.996866E-1	9.823832E-1	1.020459E+0	9.826294E-1	9.887087E-1	1.002201E+0	9.954686E-1	1.013191E+0	1.028858E+0	9.992289E-1	9.701593E-1	1.030741E+0	1.018981E+0	1.079667E+0	1.014942E+0	9.988668E-1	1.016630E+0	1.015501E+0	9.733826E-1	9.909147E-1	1.003206E+0	1.002329E+0	1.004166E+0	1.013241E+0	1.030305E+0	1.013835E+0	1.020815E+0	1.011327E+0	9.982514E-1	1.045597E+0	1.011929E+0	9.658949E-1	1.007310E+0	9.832006E-1	1.001290E+0	1.010757E+0	1.035244E+0	1.005819E+0	9.921755E-1	9.912592E-1	1.005098E+0	1.017497E+0	1.023573E+0	1.013196E+0	1.006391E+0	1.034118E+0	1.003597E+0	1.003238E+0	1.027581E+0	1.040139E+0	1.005473E+0	1.005589E+0	9.604227E-1	1.019357E+0	1.011042E+0	1.048075E+0	9.899371E-1	1.028739E+0	9.955811E-1	1.009059E+0	1.012245E+0	1.055794E+0	1.029475E+0	9.755151E-1	1.014717E+0	1.015765E+0	9.916339E-1	1.001692E+0	1.011130E+0	1.007994E+0	9.939999E-1	9.845799E-1	1.016414E+0	1.019367E+0	1.038703E+0	1.009725E+0	1.028251E+0	9.932051E-1	1.034064E+0	1.002643E+0	1.060093E+0	9.845209E-1	9.739632E-1	1.025168E+0	9.981010E-1	1.013671E+0	1.023606E+0	1.025233E+0	9.863790E-1	1.037055E+0	1.016991E+0	1.041084E+0	1.056875E+0	1.041785E+0	9.664527E-1	1.006843E+0	1.004028E+0	1.040691E+0	1.005105E+0	9.711480E-1	9.930919E-1	9.670436E-1	9.976048E-1	1.007892E+0	1.035888E+0	1.020315E+0	1.003036E+0	1.002640E+0	9.966745E-1	1.013861E+0	9.700001E-1	1.035723E+0	9.765665E-1	9.841719E-1	9.900266E-1	9.837518E-1	1.019206E+0	1.035417E+0	1.047941E+0	9.994501E-1	1.001065E+0	1.015123E+0	9.730722E-1	9.853513E-1	9.742088E-1	1.016491E+0	1.033223E+0	1.037046E+0	1.001728E+0	9.964323E-1	1.032648E+0	1.035188E+0	9.983809E-1	9.797701E-1	1.031664E+0	1.000205E+0	9.840080E-1	1.035718E+0	9.681427E-1
5.590160E+2	1.034285E+0	1.010494E+0	1.039101E+0	1.012162E+0	1.020876E+0	1.030518E+0	1.045505E+0	1.022358E+0	1.010662E+0	1.046765E+0	1.008161E+0	9.909256E-1	1.019518E+0	9.973774E-1	1.051515E+0	9.571010E-1	9.961934E-1	1.005204E+0	9.912826E-1	1.016844E+0	1.031143E+0	1.001479E+0	1.030121E+0	1.027933E+0	1.033799E+0	1.044658E+0	1.015549E+0	1.052696E+0	1.030116E+0	1.025269E+0	1.067621E+0	1.060815E+0	1.029834E+0	1.011841E+0	1.042513E+0	1.034348E+0	1.014715E+0	9.958621E-1	1.014333E+0	1.006336E+0	1.035083E+0	1.063659E+0	1.023023E+0	1.017033E+0	1.027607E+0	1.017082E+0	1.011704E+0	1.004382E+0	1.004365E+0	1.052371E+0	1.056615E+0	1.034999E+0	1.007996E+0	1.029120E+0	1.032940E+0	1.029549E+0	1.043770E+0	1.007200E+0	1.007789E+0	1.038105E+0	1.010964E+0	1.012169E+0	1.044584E+0	1.017189E+0	9.977636E-1	1.027338E+0	1.016026E+0	1.038097E+0	1.017313E+0	9.839572E-1	1.022338E+0	1.040572E+0	1.035791E+0	1.042857E+0	1.030072E+0	1.050348E+0	1.032943E+0	1.024760E+0	1.006726E+0	1.007080E+0	1.020896E+0	1.025566E+0	1.013553E+0	1.018929E+0	9.964518E-1	1.047878E+0	1.006682E+0	1.005791E+0	1.005832E+0	1.026790E+0	1.049192E+0	9.736508E-1	9.821053E-1	1.023452E+0	1.027295E+0	9.965012E-1	1.026375E+0	1.025555E+0	1.030372E+0	1.061559E+0	1.015992E+0	1.038571E+0	1.039649E+0	1.008494E+0	1.032484E+0	9.630412E-1	9.923115E-1	1.025037E+0	1.035048E+0	1.038682E+0	1.025538E+0	1.028057E+0	1.010494E+0	1.026820E+0	1.019180E+0	1.075435E+0	1.032432E+0	1.018172E+0	1.034561E+0	1.045499E+0	9.921274E-1	9.759839E-1	1.030295E+0	9.884371E-1	1.053578E+0	1.047797E+0	1.045588E+0	1.002325E+0	1.006020E+0	1.039892E+0	9.919034E-1	9.833261E-1	1.071310E+0	1.031371E+0	1.042446E+0	1.026625E+0	9.969917E-1	9.788881E-1	1.049678E+0	1.065535E+0	1.070829E+0	1.020644E+0	9.846041E-1	9.918046E-1	1.046305E+0	1.034279E+0	9.956321E-1	1.029138E+0	1.043938E+0	1.024560E+0	1.057940E+0	9.974727E-1	1.027844E+0	1.025585E+0	1.000845E+0	1.006242E+0	9.967991E-1	9.851542E-1	9.894840E-1	9.743860E-1	1.051871E+0	1.026259E+0	1.022224E+0	1.050922E+0	1.066877E+0	9.834542E-1	1.011879E+0	1.025923E+0	1.033760E+0	9.919969E-1
5.595110E+2	1.044142E+0	1.039725E+0	1.030183E+0	1.020537E+0	1.011134E+0	1.060710E+0	1.041830E+0	1.016613E+0	1.008653E+0	1.063645E+0	1.085622E+0	1.026074E+0	9.849100E-1	9.864901E-1	1.012029E+0	1.044034E+0	1.028115E+0	9.840019E-1	9.993323E-1	1.013730E+0	1.014871E+0	1.031941E+0	1.005919E+0	1.026183E+0	1.029720E+0	1.032603E+0	1.055394E+0	1.025852E+0	1.014233E+0	1.033290E+0	9.768859E-1	1.025848E+0	1.033374E+0	9.888778E-1	1.019574E+0	1.020187E+0	1.031416E+0	1.020935E+0	1.001761E+0	1.019200E+0	1.035211E+0	1.017406E+0	1.012393E+0	1.040760E+0	1.079681E+0	1.032288E+0	1.027743E+0	1.007206E+0	1.016782E+0	1.003217E+0	1.011878E+0	1.039940E+0	9.946257E-1	9.988515E-1	1.018220E+0	1.022366E+0	1.019908E+0	1.002295E+0	1.016500E+0	9.932349E-1	1.035880E+0	1.007171E+0	1.015491E+0	9.743406E-1	1.085564E+0	1.037314E+0	9.832285E-1	1.005719E+0	9.998283E-1	1.056723E+0	1.010296E+0	1.031728E+0	1.011790E+0	1.019672E+0	9.937133E-1	1.021013E+0	1.062853E+0	1.022023E+0	9.787836E-1	9.811364E-1	9.943817E-1	1.006002E+0	1.011007E+0	9.797308E-1	1.011782E+0	1.001682E+0	1.022673E+0	1.020240E+0	9.786802E-1	1.009319E+0	1.054907E+0	9.847215E-1	1.006316E+0	1.019128E+0	1.058432E+0	9.869346E-1	1.047374E+0	9.669929E-1	9.939480E-1	1.009010E+0	1.036308E+0	1.023884E+0	1.044619E+0	9.799190E-1	1.024944E+0	1.000396E+0	1.031182E+0	1.012970E+0	1.018956E+0	1.003991E+0	1.047401E+0	1.006770E+0	1.002629E+0	1.022618E+0	1.047923E+0	1.020424E+0	1.032766E+0	1.069406E+0	9.956334E-1	9.980101E-1	1.047380E+0	1.029655E+0	1.045331E+0	1.020901E+0	1.007273E+0	1.045546E+0	1.035407E+0	1.042217E+0	1.014506E+0	1.034142E+0	1.020153E+0	1.021005E+0	1.017752E+0	1.037110E+0	9.924572E-1	1.008549E+0	1.012812E+0	1.048023E+0	9.876329E-1	1.000672E+0	1.030680E+0	1.029196E+0	1.045530E+0	1.045250E+0	1.033933E+0	9.888823E-1	1.047610E+0	1.000126E+0	1.010806E+0	1.038829E+0	1.009703E+0	1.013506E+0	9.842412E-1	1.031917E+0	1.037670E+0	1.049515E+0	1.018668E+0	1.060141E+0	1.022763E+0	9.897185E-1	9.699802E-1	1.016401E+0	1.021250E+0	9.844444E-1	1.027192E+0	9.969247E-1	1.020218E+0	1.021318E+0	9.881193E-1	1.039962E+0
5.600300E+2	9.818086E-1	1.009690E+0	9.767235E-1	1.027929E+0	9.892634E-1	9.190118E-1	9.851436E-1	1.016863E+0	1.004910E+0	9.979445E-1	9.784236E-1	9.959646E-1	1.022203E+0	1.040979E+0	9.756057E-1	9.974098E-1	1.007250E+0	9.973560E-1	1.038734E+0	9.895297E-1	9.956966E-1	9.793100E-1	9.979939E-1	1.028489E+0	9.930646E-1	9.997523E-1	1.061536E+0	9.499929E-1	9.886353E-1	9.827939E-1	9.919092E-1	1.002983E+0	9.866717E-1	1.006987E+0	1.036556E+0	9.952857E-1	9.883767E-1	1.015174E+0	1.017496E+0	1.000645E+0	1.057345E+0	1.030479E+0	1.016630E+0	9.823352E-1	9.659541E-1	1.011042E+0	1.030352E+0	1.005254E+0	9.756666E-1	1.001781E+0	9.895813E-1	1.015990E+0	1.026094E+0	1.040534E+0	9.953159E-1	9.670364E-1	9.945345E-1	1.017668E+0	9.998483E-1	1.031679E+0	9.996948E-1	1.030533E+0	1.014168E+0	9.969320E-1	9.936572E-1	1.010568E+0	9.985172E-1	9.893739E-1	1.060093E+0	1.005273E+0	1.020778E+0	9.875737E-1	9.967540E-1	9.937302E-1	9.739971E-1	9.775408E-1	9.990630E-1	1.034984E+0	9.842091E-1	9.761417E-1	1.016025E+0	1.037520E+0	9.961900E-1	9.980954E-1	9.888284E-1	9.503141E-1	9.947657E-1	9.969106E-1	1.013302E+0	9.918180E-1	9.910479E-1	1.011067E+0	9.838349E-1	1.005537E+0	1.007199E+0	1.009645E+0	1.006572E+0	1.032080E+0	1.005528E+0	1.031784E+0	9.876394E-1	9.999859E-1	9.731539E-1	1.004154E+0	9.822764E-1	1.014872E+0	1.001106E+0	1.012373E+0	1.007586E+0	9.997744E-1	1.040662E+0	9.982486E-1	9.649825E-1	1.000711E+0	9.843205E-1	9.737541E-1	9.645440E-1	1.029219E+0	9.731405E-1	9.885652E-1	9.837858E-1	9.689653E-1	9.670530E-1	9.993373E-1	1.013731E+0	9.768009E-1	9.785806E-1	1.054417E+0	1.043944E+0	1.017973E+0	1.005601E+0	1.006498E+0	9.915964E-1	9.876638E-1	9.848227E-1	9.840809E-1	1.007300E+0	1.000250E+0	1.016208E+0	1.003856E+0	1.006409E+0	1.008771E+0	1.045303E+0	9.747301E-1	1.002053E+0	1.002150E+0	1.011119E+0	1.005900E+0	1.012077E+0	9.823223E-1	1.001248E+0	9.801342E-1	9.790055E-1	9.985556E-1	9.930410E-1	9.917529E-1	9.809773E-1	9.939863E-1	1.045059E+0	1.004140E+0	1.014284E+0	1.041315E+0	1.008485E+0	1.019823E+0	9.906856E-1	1.019877E+0	9.985436E-1	9.784460E-1	1.004361E+0	9.803115E-1
5.605090E+2	9.982659E-1	1.020068E+0	1.011575E+0	9.636907E-1	9.905983E-1	9.916715E-1	9.999724E-1	1.029908E+0	9.792405E-1	9.951373E-1	1.008058E+0	1.047422E+0	9.851098E-1	1.010986E+0	1.000290E+0	9.927782E-1	1.038920E+0	1.031129E+0	9.990554E-1	1.008097E+0	9.974504E-1	1.034804E+0	9.925484E-1	9.799652E-1	1.005735E+0	1.007636E+0	9.797386E-1	9.935593E-1	9.880600E-1	9.696016E-1	1.017168E+0	1.003357E+0	9.953928E-1	9.470119E-1	9.810681E-1	9.972395E-1	9.752544E-1	1.022273E+0	1.026980E+0	1.032501E+0	1.005083E+0	9.506638E-1	1.015065E+0	1.024605E+0	9.797223E-1	1.002635E+0	1.017517E+0	1.039195E+0	9.754395E-1	1.014590E+0	1.043576E+0	9.858850E-1	1.007001E+0	9.967362E-1	9.898640E-1	9.747531E-1	9.844977E-1	1.019567E+0	9.940880E-1	9.929072E-1	9.534790E-1	1.058551E+0	9.958242E-1	9.869941E-1	1.022650E+0	1.012117E+0	1.002859E+0	1.009785E+0	1.010594E+0	1.017542E+0	9.873287E-1	9.905106E-1	1.022546E+0	9.917393E-1	1.023587E+0	9.742554E-1	1.026215E+0	1.007812E+0	1.058685E+0	1.013152E+0	1.032769E+0	9.985605E-1	9.426021E-1	1.012350E+0	9.835136E-1	1.045646E+0	1.009028E+0	9.985157E-1	1.004102E+0	1.056887E+0	1.001588E+0	1.022863E+0	1.026912E+0	1.029587E+0	9.919702E-1	1.006429E+0	1.022084E+0	9.872184E-1	1.041139E+0	1.014789E+0	9.829883E-1	9.639102E-1	9.832526E-1	1.047596E+0	1.014335E+0	1.011349E+0	1.031650E+0	1.019977E+0	1.014564E+0	1.014400E+0	9.860608E-1	9.854767E-1	1.019374E+0	1.033424E+0	9.677148E-1	1.010978E+0	1.025707E+0	9.666762E-1	1.011902E+0	1.029269E+0	9.930336E-1	9.771840E-1	1.003605E+0	1.003779E+0	1.018610E+0	9.475164E-1	9.749682E-1	1.015770E+0	9.836969E-1	9.799079E-1	1.024024E+0	9.999761E-1	9.900425E-1	1.000867E+0	9.898272E-1	9.981359E-1	1.034717E+0	9.692767E-1	9.789482E-1	1.010021E+0	1.002442E+0	9.967179E-1	1.033527E+0	9.777990E-1	9.810014E-1	1.029862E+0	1.012290E+0	1.024695E+0	9.979952E-1	9.954250E-1	1.036461E+0	9.971655E-1	9.696587E-1	9.880163E-1	9.937802E-1	1.028874E+0	1.003338E+0	9.848098E-1	1.005831E+0	9.809140E-1	9.677190E-1	9.637992E-1	1.043990E+0	1.014114E+0	9.874269E-1	1.022053E+0	1.018385E+0	9.912425E-1	1.040027E+0	9.369180E-1
5.610010E+2	1.002586E+0	9.902382E-1	9.986410E-1	1.003600E+0	1.025770E+0	9.975065E-1	9.707970E-1	9.793002E-1	9.946857E-1	1.011094E+0	1.031873E+0	1.019833E+0	9.803628E-1	1.041481E+0	9.819109E-1	1.016909E+0	9.369173E-1	1.023763E+0	1.020108E+0	1.008227E+0	9.711179E-1	1.022752E+0	1.020977E+0	9.795033E-1	9.643759E-1	9.823731E-1	9.781347E-1	1.010080E+0	1.036687E+0	1.005601E+0	1.009661E+0	9.891734E-1	1.019868E+0	1.002083E+0	1.004113E+0	1.072609E+0	9.719602E-1	1.025524E+0	1.010488E+0	1.027137E+0	9.867260E-1	9.891178E-1	9.827129E-1	9.770099E-1	9.768118E-1	1.048484E+0	1.012789E+0	9.546832E-1	1.043416E+0	1.024995E+0	1.007206E+0	1.004070E+0	1.020909E+0	9.785448E-1	1.012063E+0	1.010421E+0	9.710848E-1	1.006538E+0	1.015575E+0	9.961852E-1	9.947657E-1	1.009996E+0	1.020387E+0	1.007278E+0	1.007051E+0	1.005085E+0	1.020192E+0	9.674725E-1	1.003449E+0	9.897490E-1	1.008714E+0	1.030681E+0	9.886476E-1	9.944374E-1	1.004643E+0	9.779556E-1	9.513956E-1	1.011841E+0	1.014675E+0	1.014617E+0	9.775037E-1	1.010976E+0	1.032915E+0	1.035669E+0	1.010226E+0	9.658087E-1	9.786175E-1	1.007692E+0	9.872385E-1	1.023684E+0	1.011339E+0	1.009048E+0	9.736877E-1	9.735538E-1	1.034357E+0	9.991029E-1	9.792170E-1	1.048172E+0	9.928694E-1	9.807515E-1	1.068413E+0	1.023229E+0	9.853278E-1	1.019094E+0	9.969580E-1	9.833108E-1	9.857714E-1	9.716968E-1	1.009506E+0	9.996758E-1	1.019433E+0	9.908920E-1	1.031045E+0	1.013305E+0	9.872806E-1	9.766371E-1	9.900154E-1	9.956293E-1	1.025883E+0	9.920687E-1	9.870087E-1	1.007412E+0	9.474081E-1	1.018791E+0	9.879930E-1	1.039022E+0	9.829827E-1	9.801937E-1	1.004810E+0	9.990678E-1	1.000447E+0	1.043412E+0	9.789097E-1	1.003207E+0	1.024679E+0	9.761976E-1	1.016771E+0	1.006324E+0	1.009311E+0	9.852616E-1	9.752130E-1	9.756025E-1	9.420158E-1	1.038230E+0	9.618128E-1	1.016640E+0	9.852350E-1	9.716228E-1	9.642326E-1	9.935743E-1	9.800267E-1	1.000209E+0	1.047251E+0	1.028143E+0	1.016442E+0	9.885375E-1	1.003897E+0	1.003867E+0	9.630006E-1	1.048310E+0	1.019831E+0	1.034313E+0	1.008819E+0	9.727080E-1	9.872952E-1	1.008976E+0	1.009714E+0	1.036827E+0	1.060652E+0	1.023197E+0
