Photon Energy (eV)	#1	#2	#3	#4	#5	#6	#7	#8	#9	#10	#11	#12	#13	#14	#15	#16	#17	#18	#19	#20	#21	#22	#23	#24	#25	#26	#27	#28	#29	#30	#31	#32	#33	#34	#35	#36	#37	#38	#39	#40	#41	#42	#43	#44	#45	#46	#47	#48	#49	#50	#51	#52	#53	#54	#55	#56	#57	#58	#59	#60	#61	#62	#63	#64	#65	#66	#67	#68	#69	#70	#71	#72	#73	#74	#75	#76	#77	#78	#79	#80	#81	#82	#83	#84	#85	#86	#87	#88	#89	#90	#91	#92	#93	#94	#95	#96	#97	#98	#99	#100	#101	#102	#103	#104	#105	#106	#107	#108	#109	#110	#111	#112	#113	#114	#115	#116	#117	#118	#119	#120	#121	#122	#123	#124	#125	#126	#127	#128	#129	#130	#131	#132	#133	#134	#135	#136	#137	#138	#139	#140	#141	#142	#143	#144	#145	#146	#147	#148	#149	#150	#151	#152	#153	#154	#155	#156	#157	#158	#159	#160	#161	#162	#163	#164	#165	#166	#167	#168	#169	#170	#171	
5.300110E+2	-4.317377E-3	-5.674350E-3	-2.163317E-3	-9.549350E-3	-1.043694E-2	-6.784322E-3	-9.968225E-3	-8.446771E-3	-3.307943E-3	-7.619185E-3	-2.298568E-3	-9.222834E-3	7.497482E-4	3.033343E-3	-1.441354E-3	-2.522777E-3	-8.154347E-3	-8.428550E-3	-3.495371E-5	2.334645E-3	-8.833439E-3	3.728042E-3	-9.853302E-3	-8.465574E-3	-3.613387E-3	-1.274271E-2	-2.507714E-3	-1.446936E-2	-1.271249E-3	-1.982057E-3	-9.847514E-3	-2.857504E-3	3.311423E-3	-7.916879E-3	1.207617E-3	-8.163495E-3	-6.499331E-3	-9.208833E-4	3.082268E-3	-9.997558E-3	5.782105E-4	-2.993658E-3	-8.889673E-3	-1.623531E-3	-9.111076E-3	-1.401730E-3	-5.933456E-3	-5.510148E-3	-5.494227E-3	2.697996E-3	-2.054415E-3	-1.950243E-3	-4.869362E-3	-6.563651E-3	-9.842374E-3	4.491732E-3	-1.124010E-2	-1.368213E-2	-6.532376E-3	-1.383226E-3	-9.304024E-3	-9.355055E-3	-9.009726E-3	-9.138335E-3	-6.863945E-3	-4.392677E-3	-1.658107E-3	-3.097372E-3	-6.000308E-3	-1.009596E-3	-8.336327E-3	-1.112384E-2	-9.990492E-3	2.597331E-3	-6.091017E-3	-5.913900E-4	-9.492799E-3	-1.248168E-2	-1.180093E-2	-7.384490E-3	-6.959309E-3	-8.846610E-3	-9.604787E-3	-1.084668E-2	-5.136552E-3	-3.688516E-3	-1.598237E-3	-6.528867E-3	-1.869486E-4	-1.565916E-2	-1.514686E-2	5.749888E-4	-3.993337E-3	-5.230954E-3	-4.500705E-3	-2.509217E-3	3.961793E-3	-8.851100E-3	-6.705246E-3	-9.182246E-3	1.395096E-3	-1.188177E-2	-6.655804E-3	-8.843371E-3	-5.692870E-3	-1.521397E-2	-2.041696E-2	-1.208917E-2	-1.046649E-2	-4.374080E-3	-8.676300E-3	1.354358E-3	3.651131E-3	-3.617763E-3	-1.560495E-2	3.677671E-4	-6.673055E-3	-1.032233E-2	-8.047013E-3	-7.379551E-3	-3.659200E-3	-4.308927E-3	-8.717206E-3	-7.817687E-3	-9.271806E-3	-6.250294E-3	-7.603952E-3	4.936554E-3	-8.937846E-3	-6.976118E-3	-7.559582E-3	-8.828334E-3	-2.413282E-3	-8.799299E-3	-1.045458E-3	-7.077733E-3	-9.915165E-3	-2.706276E-3	-5.939566E-3	-1.068750E-3	-7.294935E-3	-8.223707E-3	-4.719574E-3	-8.443785E-3	-9.823742E-4	-7.076001E-3	-7.499943E-3	9.425719E-4	-1.402312E-2	-4.330849E-3	-6.882402E-3	-5.476396E-3	-4.056849E-3	-7.232527E-3	-1.132708E-3	-4.399471E-3	-3.293053E-3	7.855155E-4	-1.196971E-2	-2.716428E-3	-1.438904E-2	9.211369E-4	-1.599313E-2	7.800469E-4	-1.535708E-2	4.831036E-3	-7.875320E-3	1.816181E-3	-1.092074E-2	-8.989383E-3	-1.579181E-2
5.305180E+2	-5.194555E-3	-3.897086E-3	-4.576241E-3	-3.535471E-3	-7.325400E-3	-6.678026E-3	-4.115373E-3	-1.091013E-2	-6.815318E-3	-2.802932E-3	8.212206E-4	-5.627669E-3	-6.377468E-3	-7.833342E-3	-8.401051E-4	-1.360531E-2	-3.488473E-3	4.859497E-4	-9.216732E-3	-1.400928E-2	1.998288E-4	-9.634300E-3	-3.075949E-3	-2.234543E-3	-2.401206E-3	1.559208E-3	-5.493285E-3	-1.345760E-3	-6.575559E-4	-2.306921E-3	-4.405695E-3	-7.353705E-3	-1.530914E-4	9.431302E-3	-7.036170E-3	-9.682056E-3	1.103703E-4	-3.587819E-3	3.372572E-3	-9.878450E-3	-4.342967E-4	-1.244589E-3	-8.776261E-3	-9.600851E-3	-6.194823E-3	-5.455254E-3	-1.781683E-3	-1.301135E-2	-5.934852E-3	-1.034422E-2	8.694651E-4	-5.049231E-3	-1.268189E-2	2.142488E-3	3.387427E-3	5.018419E-4	-7.332888E-3	-4.900424E-3	-1.179008E-3	-4.504505E-3	-6.226840E-3	-3.999088E-3	-5.047246E-3	-5.657905E-3	-7.691369E-3	-8.493178E-3	-6.566980E-3	-5.174691E-3	-7.294249E-4	-2.336497E-3	-6.486562E-3	-6.921555E-3	-4.421442E-4	-1.814289E-3	3.275341E-4	5.217911E-3	-3.489896E-3	8.567873E-4	1.739163E-3	6.368141E-3	-9.191870E-3	-7.567489E-3	3.298558E-3	-7.175435E-3	-7.594034E-3	7.442947E-3	-3.156742E-3	-2.849561E-3	-7.850298E-3	-4.332555E-3	6.555447E-4	-8.636574E-3	-7.572060E-3	-5.119665E-3	-4.374396E-3	4.719181E-4	-7.671705E-3	-6.409540E-3	-1.123536E-3	-5.176316E-3	-6.568457E-3	-6.565421E-3	-2.912914E-3	-4.580991E-3	-4.568550E-3	-1.291273E-3	3.976579E-3	-6.339351E-3	3.034481E-4	-4.254938E-3	1.762133E-3	-1.226414E-2	-1.121034E-3	-2.911085E-3	1.579141E-3	-1.214691E-2	-6.662735E-4	4.075772E-4	1.797195E-3	-1.196345E-2	-3.537307E-3	-4.759080E-3	3.313846E-3	-4.205440E-3	3.963318E-3	-4.584643E-3	1.334282E-3	-1.082138E-2	-3.457548E-3	-8.108772E-3	-1.965437E-3	-6.439920E-3	-6.144521E-3	-6.951815E-3	5.957805E-3	7.297295E-3	-4.939456E-3	-1.414633E-3	5.851157E-3	-9.423987E-3	-4.541487E-3	-8.106550E-3	1.405968E-3	-4.090451E-3	-1.987262E-3	-4.495935E-3	-1.852301E-2	-1.234350E-2	-9.373468E-4	-1.508737E-2	-4.418141E-3	-1.029306E-2	-2.378939E-3	-5.361875E-3	-3.300614E-3	-1.160762E-4	-7.984832E-3	-4.723718E-3	-7.649138E-3	-9.613269E-3	2.790691E-3	-1.031112E-2	-6.765360E-4	3.134356E-3	-3.237283E-4	-1.374959E-2	-6.748726E-3	4.029936E-3	-6.163804E-3	-2.070436E-3	7.540171E-4
5.310150E+2	-6.101586E-3	-4.344195E-3	-1.078015E-2	-7.603730E-3	1.841138E-3	-5.598913E-3	-4.601009E-3	5.045020E-3	-6.202422E-3	-8.488504E-3	-6.600961E-3	2.647581E-3	-5.797657E-3	-6.241465E-3	-9.976241E-3	5.043808E-3	1.194846E-3	-4.119068E-3	-6.905685E-3	-3.535254E-3	-8.096788E-3	-4.634929E-3	-8.450551E-3	-1.080210E-2	-4.995404E-3	-1.129569E-2	-4.854803E-3	2.562330E-3	-3.027624E-3	-1.045358E-2	-3.811605E-3	-4.938318E-3	-2.621132E-3	-3.360086E-3	-7.463946E-3	-1.442771E-3	-6.730230E-3	-7.013701E-3	-8.100397E-3	-7.829832E-3	-6.682184E-3	-5.968207E-4	6.544669E-3	-6.282228E-3	-7.223317E-3	-1.207840E-2	-7.755919E-3	3.279060E-3	-6.950090E-3	-7.382260E-3	-3.296227E-3	-1.142093E-3	7.725971E-5	-5.353820E-3	-5.511235E-3	-1.497582E-2	5.263727E-3	3.586796E-3	-4.258878E-4	-9.273173E-3	1.333973E-3	-5.437912E-4	1.996885E-5	-4.582381E-3	-4.242421E-3	-3.789027E-3	-9.488117E-4	-8.939201E-3	-6.754115E-3	-4.233642E-3	-1.538737E-3	-4.228374E-3	3.927194E-3	-1.614364E-3	-3.472087E-3	-1.114040E-2	5.226192E-3	-9.211803E-3	2.946512E-3	-2.296675E-3	-1.261931E-2	4.345300E-3	-7.009705E-3	-1.296746E-2	1.838637E-3	-7.359298E-3	-1.077044E-2	1.905608E-3	2.352668E-3	4.964853E-4	2.361231E-4	-7.426322E-3	-1.326959E-2	-2.232821E-3	3.386735E-3	-5.566959E-3	-6.018157E-3	-1.197224E-4	-1.136605E-2	-5.622125E-3	-6.997132E-3	-3.512355E-3	-6.421435E-3	-4.461504E-3	3.171097E-3	-3.475279E-3	-5.930078E-3	-2.265212E-3	-4.923274E-3	-1.021569E-2	-4.993690E-3	-2.306170E-3	-7.546961E-3	-4.581264E-3	-4.368034E-3	-8.192023E-3	-1.017764E-3	-5.084285E-3	-7.855373E-3	1.196730E-3	-1.252833E-2	1.986140E-3	-1.921985E-3	-5.684573E-4	-8.504957E-3	3.794991E-3	-8.489000E-3	-3.682098E-3	-4.406016E-3	-1.245104E-3	-6.739938E-3	-2.891821E-3	3.607548E-3	-3.935891E-3	-1.170612E-2	-7.407693E-3	-8.062284E-3	-5.987693E-3	-6.872832E-3	-5.364213E-3	-3.897886E-3	1.276437E-2	-1.270408E-2	-6.322435E-3	-1.747463E-4	-3.763353E-3	-1.101132E-2	-1.000224E-2	-6.527617E-3	-6.981520E-3	-3.111951E-3	-6.218211E-3	-3.294360E-3	-4.065835E-3	-6.050042E-3	9.923833E-3	-1.970749E-3	-8.201769E-3	-1.772969E-3	-4.799614E-3	-4.556963E-3	5.794878E-4	-3.931688E-3	-1.012832E-2	2.311275E-3	-1.360218E-2	-9.404492E-3	-1.589963E-2	9.544231E-3	-7.772836E-3	-9.349173E-3
5.315080E+2	3.571249E-3	-6.451856E-3	-5.958871E-4	6.783568E-3	-5.527535E-4	1.011868E-2	7.658014E-3	5.678116E-3	-2.471370E-3	3.293451E-5	-4.546541E-4	-4.841115E-3	-2.785166E-3	-1.126342E-3	-7.439601E-3	2.740641E-3	2.847006E-3	-6.934681E-4	4.891789E-3	-7.727611E-3	2.452066E-3	-4.073596E-3	-1.231927E-3	4.640879E-3	6.980245E-3	2.324591E-3	-2.077572E-3	5.950020E-3	2.042796E-3	3.069813E-3	2.146513E-3	9.560843E-3	-4.578525E-3	-2.128245E-3	5.995401E-5	-3.513979E-3	6.878102E-3	-3.346897E-4	-1.935268E-3	6.969601E-3	3.231494E-3	-1.561061E-3	-6.962038E-3	6.258620E-3	3.050860E-3	9.290543E-3	1.215201E-2	1.620282E-3	2.643214E-3	6.547447E-3	-6.470840E-3	2.229614E-3	2.082309E-3	-3.760686E-3	-3.767351E-3	7.642752E-4	-3.845502E-3	5.193787E-3	-3.203702E-3	7.106696E-3	2.948429E-3	-1.664524E-3	1.794130E-3	1.196012E-2	-1.726365E-3	4.159831E-3	2.028340E-3	7.651749E-5	-9.742013E-4	-2.979610E-4	5.338815E-3	7.146918E-3	-3.336280E-3	-2.555213E-3	-6.822434E-3	-1.923012E-3	-3.285147E-3	1.043725E-3	-5.212436E-3	-2.135795E-3	1.022527E-3	-6.610801E-4	-2.270579E-3	6.831368E-3	9.415862E-4	-8.118752E-4	1.482249E-4	-2.055151E-3	-2.513343E-3	-6.070317E-3	-5.601217E-3	3.732593E-3	1.021970E-2	5.966354E-3	9.987421E-4	-8.784230E-3	2.376469E-3	8.709995E-3	-8.697442E-3	-4.148765E-4	-2.249220E-4	2.167603E-3	7.446427E-3	2.500860E-3	3.908760E-3	-2.047269E-3	6.005075E-3	2.963670E-3	2.732989E-3	1.151525E-4	-2.527333E-3	-1.681114E-3	-1.941068E-3	2.501076E-3	-1.893718E-3	6.862087E-3	-1.825101E-3	1.484622E-2	8.169191E-3	2.395039E-3	1.030801E-3	-6.298637E-3	-6.536817E-3	4.246937E-3	-2.337671E-3	-1.041613E-3	-3.918542E-5	-6.844985E-3	7.604725E-3	-4.854756E-3	-7.824842E-3	-1.624929E-3	8.466981E-4	9.648204E-3	-6.389936E-3	5.447680E-3	3.449868E-3	8.957637E-5	-2.045839E-3	6.093885E-3	-1.119882E-3	5.808368E-3	7.731572E-3	-2.879280E-3	-1.137687E-2	1.940358E-3	2.758765E-3	-3.415222E-4	1.081962E-2	4.032291E-3	2.903695E-3	3.561408E-4	2.044396E-3	7.223391E-3	1.572716E-3	-8.882091E-4	-2.378286E-3	-3.965290E-3	-1.110911E-3	2.876538E-3	1.473036E-3	-9.507660E-3	-3.243957E-3	-5.118574E-4	1.447653E-3	4.342609E-3	1.020806E-2	9.705205E-4	1.436435E-3	1.367888E-2	1.961730E-2
5.320120E+2	9.749425E-3	8.156384E-3	7.726823E-3	1.048098E-2	7.659710E-3	-1.470177E-3	8.361706E-3	2.712687E-3	1.323448E-2	1.651148E-2	3.191172E-3	8.161595E-3	9.961075E-3	2.497511E-3	9.289105E-3	-1.546918E-3	4.113186E-4	-1.047671E-4	3.335656E-3	1.140345E-2	1.155370E-2	6.339215E-3	9.311121E-3	8.360348E-3	4.395222E-3	8.701115E-3	2.312790E-3	3.322385E-3	5.633172E-3	2.145515E-3	3.246963E-3	-1.462120E-3	-3.607109E-4	1.363434E-3	1.080099E-2	1.242590E-2	1.616360E-5	8.906106E-3	-4.359247E-3	1.005008E-2	-1.299681E-3	6.655821E-3	7.335122E-3	-6.789845E-4	1.732523E-2	5.904077E-4	-4.382577E-4	2.206344E-3	6.680104E-3	1.388644E-5	2.942601E-3	1.802984E-3	9.273961E-3	9.157547E-3	4.520173E-3	3.546684E-4	9.873356E-3	2.369973E-3	9.673124E-3	5.054866E-3	7.063140E-3	7.715891E-3	9.102911E-3	4.308971E-6	9.462275E-3	6.330653E-4	-3.709603E-3	3.455050E-3	6.847370E-4	1.126416E-2	3.764389E-3	-9.830345E-4	6.704527E-3	1.114233E-3	1.115144E-2	2.739446E-3	4.928805E-3	4.725153E-3	6.273466E-4	1.433402E-3	9.364118E-3	4.520293E-3	6.863378E-4	5.759654E-3	-2.092849E-3	1.199957E-3	5.352055E-3	1.620428E-3	1.530975E-3	1.143703E-2	9.844673E-3	6.084529E-3	4.554713E-3	3.679060E-4	-5.998459E-3	2.355821E-3	5.142332E-3	1.707865E-3	3.714959E-3	1.266900E-2	1.074032E-2	1.005415E-2	2.672834E-3	2.631442E-3	-1.043032E-3	1.277430E-2	5.687433E-3	1.674903E-2	3.415964E-3	7.689539E-3	9.756829E-3	3.403932E-3	1.483589E-3	5.111580E-4	1.342639E-2	2.043517E-3	4.763519E-3	6.526573E-3	4.559308E-3	8.328566E-3	7.656632E-3	9.792751E-3	7.463819E-3	3.217742E-3	3.307838E-3	-1.390233E-4	8.999413E-3	6.001527E-3	2.899512E-3	7.774461E-3	4.853913E-3	2.571717E-3	-2.875173E-3	3.451788E-3	2.738013E-3	1.880391E-3	8.016436E-3	3.039628E-3	1.776276E-3	-1.734237E-3	1.450399E-2	-4.007175E-3	2.127759E-4	1.435206E-2	1.373349E-2	3.410658E-3	9.793011E-3	1.332485E-2	-1.569549E-3	3.868076E-4	4.335563E-3	1.046805E-2	4.804313E-3	4.121651E-3	6.949246E-3	-1.124222E-2	5.300895E-3	1.116754E-3	9.577837E-3	8.702854E-3	1.022556E-2	8.660626E-3	4.817937E-3	2.422262E-3	2.082781E-3	8.085668E-3	4.599796E-3	7.149097E-3	6.324564E-4	3.622777E-4	1.361631E-2
5.325120E+2	2.292846E-3	1.221110E-2	1.038878E-2	3.424006E-3	8.814244E-3	1.041276E-2	2.664887E-3	5.921079E-3	5.562575E-3	2.366203E-3	5.341791E-3	8.882441E-3	4.249467E-3	9.670296E-3	1.040820E-2	9.890560E-3	7.189648E-3	1.285990E-2	7.929925E-3	1.153405E-2	2.724627E-3	8.275569E-3	1.330061E-2	8.500991E-3	-3.654700E-4	1.145349E-2	1.262058E-2	3.980386E-3	-2.719539E-3	9.527231E-3	1.267134E-2	7.050804E-3	4.402037E-3	2.610473E-3	2.431556E-3	1.037640E-2	6.224925E-3	2.950987E-3	7.940072E-3	1.068616E-2	4.606457E-3	-2.596919E-4	1.074818E-2	1.192697E-2	2.153123E-3	9.054432E-3	3.757301E-3	1.141581E-2	9.055851E-3	8.467149E-3	8.009416E-3	4.108969E-3	6.117726E-3	4.378121E-3	1.121336E-2	8.863300E-3	7.281402E-3	7.431995E-3	1.667849E-3	2.999343E-3	4.185322E-3	7.846567E-3	3.139962E-3	7.414191E-3	1.106182E-2	1.188199E-2	1.085516E-2	1.367970E-2	1.377331E-2	-3.386465E-3	7.258423E-3	1.610988E-2	3.137194E-3	2.272301E-3	4.906560E-3	5.697444E-3	6.112845E-3	1.506782E-2	1.170034E-2	4.015417E-3	1.838385E-2	8.209585E-3	1.490017E-2	1.839855E-2	1.204321E-2	3.216785E-3	1.002514E-2	7.907544E-3	6.666945E-3	1.412852E-2	1.001174E-2	5.670785E-3	1.006058E-2	6.249180E-3	1.048808E-2	1.403267E-2	2.209269E-3	4.962502E-3	2.417732E-2	7.726566E-3	1.655099E-3	9.737798E-3	5.870892E-3	1.275356E-2	4.224595E-3	9.253495E-3	1.067795E-2	9.810406E-4	8.937361E-3	1.104002E-2	4.678361E-3	1.149313E-2	5.474344E-3	8.097878E-3	6.861172E-3	1.106556E-2	5.418674E-3	-6.373751E-3	1.376691E-3	7.422665E-3	1.103740E-2	3.587752E-3	6.398343E-3	5.126906E-3	1.284328E-2	8.220583E-3	5.798442E-3	1.041038E-2	6.297173E-3	1.341029E-2	1.923589E-2	1.721329E-2	6.978730E-3	6.587013E-3	1.044570E-2	-1.399393E-4	1.145060E-2	6.979398E-3	7.230804E-3	1.149730E-2	2.350200E-3	1.764697E-3	8.073338E-3	7.383895E-3	7.877654E-4	9.984271E-3	2.448250E-2	8.419832E-3	1.223801E-2	2.198064E-2	7.173237E-3	1.116347E-2	2.881440E-3	5.315195E-3	1.961402E-3	6.722147E-3	1.032603E-2	1.498851E-2	1.292489E-2	5.549918E-3	4.456716E-3	9.657531E-3	1.902738E-2	4.303509E-3	9.839102E-3	1.009246E-2	9.220684E-3	1.933895E-3	5.471419E-3	4.791495E-3	-8.846643E-3
5.330180E+2	2.313820E-2	1.460837E-2	1.434667E-2	2.753302E-2	1.556889E-2	2.529614E-2	3.024079E-2	3.292041E-2	2.971659E-2	1.945802E-2	2.025175E-2	2.610048E-2	2.832308E-2	2.849990E-2	1.991885E-2	2.484010E-2	2.735892E-2	2.780238E-2	1.984685E-2	1.537495E-2	6.865531E-3	2.732067E-2	1.956614E-2	2.203803E-2	2.746320E-2	8.977130E-3	1.498752E-2	2.497515E-2	2.286854E-2	2.058274E-2	1.432259E-2	1.747080E-2	2.369523E-2	2.539832E-2	2.443686E-2	1.818677E-2	1.479920E-2	2.752568E-2	1.468592E-2	1.872171E-2	2.158079E-2	1.777593E-2	2.350745E-2	2.840221E-2	1.592061E-2	1.284919E-2	2.075613E-2	2.156983E-2	1.817286E-2	2.975421E-2	1.913909E-2	2.445546E-2	2.187256E-2	2.232548E-2	2.066001E-2	1.266913E-2	2.983565E-2	2.882815E-2	1.518233E-2	2.059287E-2	2.788947E-2	1.852068E-2	8.805785E-3	1.581853E-2	1.942043E-2	1.064478E-2	2.594486E-2	1.712168E-2	2.638593E-2	1.780880E-2	1.579454E-2	2.030315E-2	2.599565E-2	1.586481E-2	1.527810E-2	1.601179E-2	1.692741E-2	2.174596E-2	1.747811E-2	2.187364E-2	1.433984E-2	2.977210E-2	1.720434E-2	1.066505E-2	9.503541E-3	2.047494E-2	1.980432E-2	2.917423E-2	2.414302E-2	1.826384E-2	1.507152E-2	1.017248E-2	1.349494E-2	1.944393E-2	1.275852E-2	2.351663E-2	2.577970E-2	2.128688E-2	1.889193E-2	3.056104E-2	1.369514E-2	2.313634E-2	1.658673E-2	1.978658E-2	2.409183E-2	3.003019E-2	2.433278E-2	8.138714E-3	2.756189E-2	2.779942E-2	1.648588E-2	2.513336E-2	2.222271E-2	2.322597E-2	1.826011E-2	1.403274E-2	1.455119E-2	1.170575E-2	2.669994E-2	2.714891E-2	1.716232E-2	2.441923E-2	1.321255E-2	1.650836E-2	9.150799E-3	2.849744E-2	2.554277E-2	1.817874E-2	2.115384E-2	2.239825E-2	2.253031E-2	2.087989E-2	2.129358E-2	2.827113E-2	2.463811E-2	3.215360E-2	2.203506E-2	2.184181E-2	2.518417E-2	2.366683E-2	2.181141E-2	2.457205E-2	1.821142E-2	1.090038E-2	3.005483E-2	2.645567E-2	1.965103E-2	2.841734E-2	1.188839E-2	3.114258E-2	2.466014E-2	1.233795E-2	2.200501E-2	2.226732E-2	1.492898E-2	2.163342E-2	3.380363E-2	2.540187E-2	1.946057E-2	2.330157E-2	1.650445E-2	1.475143E-2	2.441211E-2	1.743515E-2	3.225065E-2	1.818769E-2	2.223579E-2	1.628197E-2	2.043938E-2	2.159726E-2	3.708102E-2
5.331630E+2	3.748498E-2	1.590280E-2	2.532937E-2	2.710797E-2	2.797090E-2	1.859186E-2	3.159663E-2	3.051947E-2	2.413977E-2	2.971902E-2	2.907396E-2	2.273387E-2	3.292489E-2	4.489315E-2	2.256180E-2	2.998156E-2	3.579670E-2	3.374099E-2	2.958003E-2	2.418691E-2	2.257706E-2	3.338680E-2	2.641194E-2	1.394929E-2	2.327936E-2	3.221188E-2	2.112266E-2	3.285303E-2	2.755055E-2	3.066161E-2	2.336186E-2	1.858534E-2	2.906386E-2	2.614267E-2	3.104997E-2	2.055209E-2	2.107684E-2	9.830804E-3	2.206457E-2	3.522037E-2	3.921546E-2	3.698168E-2	3.646069E-2	2.857652E-2	3.260632E-2	3.290533E-2	3.123559E-2	3.270172E-2	2.678066E-2	3.049237E-2	1.931006E-2	1.914805E-2	1.682538E-2	3.094785E-2	2.688101E-2	2.861737E-2	2.782888E-2	2.208754E-2	1.944151E-2	3.116633E-2	2.857177E-2	2.116321E-2	1.675001E-2	2.818025E-2	2.735353E-2	2.243538E-2	1.799186E-2	4.033423E-2	2.864987E-2	2.519508E-2	2.561559E-2	2.666783E-2	2.882191E-2	3.007554E-2	2.179328E-2	2.993175E-2	3.442434E-2	3.157244E-2	1.968515E-2	2.896764E-2	1.628604E-2	3.151183E-2	1.963871E-2	1.982562E-2	3.729458E-2	2.172477E-2	1.889982E-2	3.247202E-2	3.336049E-2	1.999020E-2	2.950617E-2	2.419252E-2	7.692576E-3	3.112500E-2	3.308927E-2	3.287461E-2	2.807400E-2	2.045502E-2	2.788746E-2	3.757103E-2	1.489740E-2	4.346751E-2	4.105691E-2	2.737411E-2	2.793538E-2	3.406005E-2	2.454697E-2	3.302083E-2	3.328839E-2	2.854887E-2	3.885210E-2	3.134505E-2	3.350645E-2	3.253599E-2	3.140255E-2	2.203077E-2	2.023742E-2	2.648294E-2	2.410725E-2	2.968626E-2	2.234168E-2	2.633352E-2	2.691645E-2	1.260914E-2	3.593931E-2	4.422879E-2	3.077730E-2	2.977538E-2	3.390355E-2	3.251399E-2	2.210616E-2	2.747846E-2	3.863657E-2	1.796968E-2	3.537861E-2	4.419062E-2	2.332486E-2	2.421100E-2	2.774533E-2	3.014378E-2	2.898075E-2	3.271184E-2	2.671604E-2	2.066145E-2	3.312212E-2	3.310969E-2	2.674995E-2	2.807237E-2	2.264111E-2	3.285495E-2	3.265614E-2	2.506956E-2	3.540334E-2	4.321650E-2	2.150663E-2	2.605360E-2	3.510820E-2	3.073375E-2	3.826279E-2	2.828325E-2	3.676502E-2	2.170708E-2	2.806317E-2	2.497932E-2	1.725692E-2	2.766531E-2	1.889023E-2	2.322970E-2	2.153555E-2	2.712284E-2	1.644924E-2
5.333080E+2	2.960029E-2	3.697858E-2	3.077831E-2	3.824496E-2	3.745584E-2	2.675045E-2	3.642004E-2	3.134757E-2	3.226522E-2	3.797926E-2	2.749093E-2	2.593468E-2	2.385978E-2	3.248608E-2	3.458816E-2	1.886600E-2	3.609271E-2	2.683860E-2	4.507762E-2	3.001123E-2	3.795449E-2	3.460051E-2	4.056748E-2	3.126531E-2	3.280596E-2	3.881426E-2	2.136138E-2	3.973512E-2	3.232706E-2	3.302246E-2	4.436636E-2	2.400368E-2	3.663652E-2	2.526331E-2	2.974351E-2	3.624052E-2	3.267261E-2	3.412829E-2	4.436379E-2	4.445996E-2	2.779984E-2	3.453869E-2	2.900179E-2	3.924100E-2	2.373682E-2	2.268887E-2	4.027142E-2	3.165842E-2	3.158127E-2	1.956283E-2	3.285012E-2	3.150182E-2	1.755269E-2	3.025076E-2	2.780178E-2	4.158677E-2	4.075612E-2	2.134580E-2	2.919165E-2	3.529268E-2	4.248281E-2	3.389545E-2	3.435819E-2	2.015089E-2	3.494761E-2	3.860176E-2	2.230492E-2	4.517807E-2	3.415864E-2	2.211424E-2	2.369394E-2	3.473091E-2	3.974513E-2	3.140358E-2	3.609898E-2	2.388722E-2	2.549841E-2	4.283662E-2	3.479581E-2	3.818570E-2	3.382338E-2	3.951069E-2	3.638010E-2	2.909706E-2	3.810955E-2	3.190964E-2	2.541323E-2	2.079737E-2	3.422278E-2	2.901636E-2	3.810459E-2	3.126808E-2	2.959456E-2	2.887752E-2	2.602828E-2	3.030819E-2	4.294456E-2	2.483501E-2	3.354532E-2	2.186843E-2	3.220273E-2	4.022005E-2	2.624547E-2	3.716035E-2	1.990618E-2	3.473678E-2	2.909445E-2	2.345744E-2	4.104042E-2	3.150213E-2	2.565008E-2	2.309370E-2	3.155199E-2	3.817914E-2	2.374662E-2	3.122330E-2	2.650081E-2	2.674809E-2	3.859419E-2	2.418586E-2	3.404083E-2	3.355366E-2	2.681822E-2	2.412109E-2	2.395784E-2	2.692387E-2	4.116289E-2	3.386755E-2	2.708116E-2	2.668234E-2	2.545539E-2	3.181027E-2	3.844448E-2	2.929380E-2	3.035647E-2	4.016619E-2	3.734929E-2	3.103091E-2	3.216577E-2	3.499034E-2	2.815468E-2	3.526095E-2	3.754618E-2	2.717650E-2	1.844758E-2	2.694115E-2	4.592837E-2	2.321615E-2	2.978442E-2	4.315552E-2	3.352670E-2	3.541440E-2	3.620767E-2	2.606737E-2	3.404252E-2	3.320028E-2	2.285364E-2	3.049382E-2	3.802184E-2	2.666169E-2	2.890690E-2	2.667640E-2	3.927980E-2	2.750465E-2	3.071580E-2	3.860575E-2	4.373286E-2	3.162964E-2	4.225198E-2	2.209191E-2	3.344014E-2
5.334580E+2	4.286117E-2	3.830875E-2	4.921798E-2	4.795833E-2	5.156461E-2	4.781539E-2	4.863473E-2	4.815948E-2	5.041088E-2	4.842504E-2	3.415851E-2	4.823281E-2	4.816948E-2	5.356617E-2	3.989322E-2	4.094808E-2	5.495587E-2	4.821928E-2	4.681856E-2	3.885218E-2	4.534258E-2	4.763410E-2	5.256719E-2	4.609429E-2	4.677675E-2	4.600533E-2	3.680888E-2	4.571433E-2	4.512908E-2	4.006851E-2	5.030106E-2	7.145596E-2	5.621343E-2	5.349077E-2	4.892286E-2	5.427447E-2	4.334188E-2	4.516306E-2	4.575778E-2	4.182813E-2	6.493632E-2	4.954611E-2	5.120169E-2	5.597553E-2	3.882976E-2	3.447461E-2	4.448226E-2	4.706454E-2	4.088440E-2	3.380145E-2	4.972725E-2	4.553996E-2	5.215881E-2	3.996435E-2	3.630522E-2	3.652885E-2	4.705623E-2	3.749343E-2	3.233873E-2	5.315734E-2	4.069870E-2	4.475821E-2	4.356417E-2	5.181032E-2	4.398761E-2	3.139208E-2	5.700664E-2	5.509089E-2	4.854497E-2	5.365722E-2	3.368148E-2	4.644681E-2	3.677901E-2	4.156875E-2	5.163326E-2	5.476553E-2	5.374907E-2	4.621220E-2	4.938715E-2	4.737747E-2	4.658447E-2	3.562369E-2	3.375529E-2	4.379404E-2	4.358071E-2	4.885682E-2	4.215674E-2	3.975018E-2	4.525508E-2	4.280572E-2	4.687625E-2	6.016448E-2	5.555956E-2	4.972623E-2	5.208063E-2	4.735986E-2	3.160747E-2	4.567238E-2	4.239880E-2	4.886267E-2	4.173382E-2	5.315841E-2	3.138341E-2	5.225793E-2	4.897405E-2	5.090871E-2	4.065484E-2	3.843224E-2	5.102885E-2	5.432479E-2	4.811266E-2	5.290495E-2	4.565647E-2	5.291724E-2	5.052535E-2	4.545359E-2	4.274995E-2	4.945949E-2	3.832502E-2	5.887500E-2	5.231685E-2	5.143687E-2	4.305214E-2	4.396166E-2	4.311129E-2	5.049653E-2	4.756749E-2	4.795688E-2	4.208120E-2	4.018824E-2	5.631102E-2	5.019857E-2	4.506840E-2	4.566382E-2	4.881658E-2	6.308555E-2	4.584958E-2	4.495110E-2	3.833326E-2	3.922051E-2	3.970401E-2	6.284796E-2	4.332377E-2	4.826226E-2	5.257050E-2	4.708116E-2	5.562813E-2	3.730029E-2	3.953390E-2	4.991909E-2	4.517253E-2	5.741992E-2	4.969466E-2	4.599813E-2	4.128061E-2	5.360392E-2	4.380771E-2	3.688408E-2	4.999660E-2	4.238231E-2	3.563609E-2	4.364286E-2	5.336341E-2	3.417460E-2	5.639408E-2	3.578252E-2	4.981701E-2	4.009023E-2	4.618374E-2	6.081997E-2	6.512906E-2
5.336030E+2	5.133343E-2	6.340951E-2	5.113665E-2	4.511939E-2	6.105216E-2	7.190460E-2	7.369957E-2	6.149905E-2	5.591478E-2	6.044226E-2	6.752340E-2	4.785035E-2	4.986939E-2	5.839023E-2	5.681967E-2	6.060955E-2	7.025459E-2	5.810047E-2	6.770731E-2	7.362973E-2	5.811476E-2	5.386979E-2	5.570233E-2	5.040213E-2	4.651133E-2	5.420042E-2	4.691166E-2	5.544743E-2	6.453027E-2	7.604927E-2	5.594433E-2	6.184348E-2	8.056347E-2	5.832511E-2	6.244524E-2	6.593514E-2	6.023489E-2	6.193066E-2	5.731560E-2	5.689458E-2	6.875183E-2	5.423897E-2	4.930657E-2	5.905529E-2	4.880254E-2	4.525552E-2	7.153086E-2	5.975914E-2	5.532314E-2	6.104753E-2	5.678557E-2	5.951009E-2	6.015132E-2	5.780311E-2	4.884111E-2	8.640883E-2	5.788118E-2	6.332309E-2	5.944832E-2	5.025358E-2	6.274294E-2	7.012205E-2	5.020331E-2	6.443461E-2	6.383607E-2	6.825844E-2	6.377623E-2	7.506428E-2	6.148133E-2	7.530586E-2	5.742948E-2	5.400126E-2	5.846908E-2	4.608611E-2	3.391058E-2	5.014431E-2	5.402668E-2	6.201386E-2	6.148128E-2	7.115399E-2	5.885825E-2	6.687312E-2	5.507462E-2	6.347928E-2	7.806819E-2	5.106639E-2	5.670652E-2	5.880370E-2	6.032842E-2	5.655620E-2	6.210773E-2	5.877648E-2	3.739831E-2	5.901102E-2	6.428078E-2	6.374208E-2	6.227214E-2	4.753773E-2	5.823722E-2	4.626681E-2	4.354409E-2	5.837318E-2	5.969417E-2	5.627173E-2	5.862520E-2	6.611005E-2	6.263528E-2	5.837073E-2	5.513452E-2	6.268620E-2	5.718009E-2	5.671729E-2	7.214577E-2	6.667272E-2	6.212411E-2	6.597780E-2	5.257137E-2	6.495455E-2	6.119398E-2	7.051730E-2	5.590384E-2	7.857155E-2	6.714755E-2	4.899466E-2	4.502846E-2	6.274638E-2	6.194428E-2	5.925959E-2	6.541116E-2	5.264948E-2	5.781282E-2	7.163439E-2	6.656347E-2	4.846755E-2	4.906025E-2	6.663364E-2	5.109283E-2	6.942991E-2	6.073931E-2	6.372519E-2	7.574327E-2	6.658349E-2	5.027985E-2	5.676738E-2	6.089700E-2	6.087495E-2	4.700744E-2	6.279033E-2	6.322917E-2	5.876251E-2	5.569319E-2	6.076527E-2	5.049147E-2	5.984850E-2	6.978719E-2	6.294785E-2	6.323589E-2	5.317070E-2	6.740731E-2	5.666801E-2	5.951522E-2	6.122189E-2	5.361775E-2	6.307813E-2	4.237264E-2	6.361468E-2	6.007227E-2	6.432168E-2	5.858503E-2	6.115919E-2	5.491809E-2
5.337580E+2	8.323987E-2	7.728877E-2	9.237492E-2	8.803071E-2	7.162113E-2	9.909941E-2	9.472825E-2	8.752388E-2	8.420226E-2	8.326728E-2	7.870779E-2	8.745116E-2	8.969232E-2	8.421495E-2	9.354101E-2	9.036029E-2	8.250268E-2	9.463297E-2	6.701590E-2	9.281246E-2	7.367101E-2	6.928364E-2	7.719528E-2	8.120962E-2	8.817450E-2	7.461177E-2	8.366940E-2	7.854429E-2	8.603068E-2	8.264469E-2	8.151387E-2	7.635695E-2	9.240413E-2	9.648279E-2	8.525619E-2	8.516543E-2	7.717383E-2	6.011467E-2	8.982982E-2	7.169944E-2	8.429719E-2	8.474433E-2	8.089558E-2	7.972749E-2	8.127564E-2	9.629974E-2	7.903859E-2	8.310782E-2	8.518661E-2	7.992050E-2	8.151717E-2	8.591759E-2	9.068961E-2	8.367208E-2	7.395655E-2	8.723181E-2	8.030601E-2	9.017256E-2	7.619721E-2	8.263872E-2	7.724346E-2	8.800268E-2	7.723458E-2	8.002083E-2	9.896530E-2	8.032665E-2	8.168597E-2	8.977436E-2	9.920667E-2	8.695528E-2	7.178666E-2	9.024585E-2	6.894401E-2	1.042979E-1	7.727252E-2	8.603569E-2	9.085058E-2	8.194021E-2	7.687147E-2	9.104411E-2	8.190388E-2	8.320509E-2	9.147923E-2	8.411803E-2	8.576259E-2	8.463713E-2	7.788998E-2	8.521616E-2	7.027578E-2	7.555248E-2	8.086251E-2	8.235885E-2	8.116032E-2	8.644529E-2	7.869467E-2	7.835984E-2	8.685277E-2	7.831827E-2	8.578879E-2	1.028272E-1	8.718621E-2	8.104122E-2	8.101615E-2	8.684734E-2	8.086003E-2	9.487458E-2	6.056215E-2	8.019906E-2	8.837217E-2	8.466459E-2	8.683736E-2	8.737498E-2	7.752020E-2	7.837956E-2	8.541993E-2	9.290201E-2	6.953301E-2	8.891831E-2	9.756519E-2	9.261154E-2	9.695941E-2	8.373793E-2	8.663795E-2	7.504706E-2	6.267033E-2	8.603984E-2	9.025352E-2	8.268243E-2	8.502798E-2	6.910637E-2	8.262109E-2	9.143583E-2	1.169269E-1	8.988053E-2	7.179622E-2	9.301502E-2	8.076970E-2	6.695461E-2	9.104491E-2	7.211659E-2	7.607447E-2	6.919508E-2	9.434359E-2	9.156600E-2	8.606325E-2	8.948957E-2	1.012963E-1	8.381523E-2	8.703871E-2	8.076835E-2	1.062096E-1	7.988248E-2	8.868406E-2	9.473636E-2	8.307162E-2	9.263690E-2	7.342064E-2	9.083141E-2	8.491866E-2	8.404628E-2	8.307831E-2	8.834718E-2	9.395737E-2	8.747052E-2	8.570568E-2	8.358524E-2	9.399653E-2	8.657501E-2	1.057438E-1	9.163293E-2	8.473715E-2
5.339090E+2	1.495379E-1	1.190695E-1	1.132488E-1	1.341651E-1	1.354148E-1	1.229086E-1	1.350775E-1	1.373924E-1	1.126019E-1	1.476864E-1	1.207622E-1	1.218326E-1	1.262220E-1	1.224529E-1	1.383335E-1	1.217438E-1	1.365396E-1	1.226089E-1	1.220880E-1	1.302178E-1	1.324046E-1	1.232336E-1	1.288889E-1	1.424406E-1	1.232832E-1	1.281069E-1	1.210757E-1	1.263522E-1	1.253883E-1	1.399925E-1	1.272065E-1	1.304093E-1	1.364177E-1	1.330533E-1	1.277144E-1	1.234674E-1	1.204275E-1	1.343853E-1	1.248305E-1	1.238173E-1	1.288199E-1	1.302462E-1	1.169468E-1	1.342525E-1	1.415597E-1	1.337778E-1	1.444264E-1	1.495836E-1	1.362798E-1	1.373381E-1	1.303920E-1	1.353065E-1	1.271406E-1	1.192114E-1	1.231371E-1	1.347436E-1	1.250415E-1	1.463069E-1	1.255186E-1	1.268069E-1	1.218727E-1	1.355530E-1	1.110746E-1	1.268545E-1	1.248840E-1	1.311197E-1	1.188545E-1	1.547823E-1	1.312419E-1	1.379996E-1	1.279920E-1	1.343345E-1	1.111543E-1	1.378822E-1	1.087969E-1	1.323807E-1	1.218478E-1	1.426861E-1	1.258100E-1	1.275166E-1	1.327720E-1	1.286721E-1	1.334510E-1	1.198452E-1	1.257233E-1	1.472180E-1	1.144799E-1	1.346013E-1	1.145574E-1	1.243065E-1	1.319451E-1	1.304779E-1	1.217624E-1	1.413720E-1	1.299105E-1	1.205952E-1	1.173541E-1	1.350408E-1	1.400087E-1	1.407074E-1	1.410089E-1	1.348360E-1	1.242071E-1	1.336173E-1	1.333323E-1	1.238521E-1	1.377318E-1	1.302816E-1	1.222925E-1	1.393611E-1	1.288559E-1	1.156595E-1	1.435644E-1	1.319297E-1	1.162143E-1	1.311854E-1	1.271101E-1	1.175382E-1	1.383648E-1	1.504531E-1	1.206428E-1	1.296237E-1	1.378302E-1	1.267956E-1	1.361034E-1	1.330847E-1	1.399621E-1	1.241550E-1	1.428919E-1	1.433021E-1	1.446511E-1	1.269736E-1	1.517083E-1	1.300406E-1	1.487698E-1	1.451418E-1	1.234598E-1	1.270868E-1	1.413763E-1	1.475342E-1	1.281970E-1	1.494617E-1	1.334883E-1	1.324206E-1	1.368808E-1	1.360150E-1	1.373765E-1	1.166206E-1	1.207270E-1	1.344250E-1	1.147674E-1	1.520617E-1	1.443260E-1	1.316599E-1	1.408064E-1	1.314365E-1	1.194524E-1	1.229850E-1	1.302084E-1	1.315812E-1	1.121119E-1	1.257356E-1	1.379007E-1	1.402212E-1	1.472510E-1	1.389917E-1	1.440541E-1	1.371722E-1	1.296043E-1	1.265617E-1	1.104330E-1
5.340430E+2	1.740589E-1	1.730256E-1	1.891357E-1	1.983048E-1	1.751932E-1	1.683861E-1	1.965014E-1	1.885939E-1	2.172099E-1	2.027274E-1	1.655740E-1	1.965658E-1	1.833751E-1	1.974151E-1	1.908139E-1	2.035315E-1	1.960787E-1	1.867450E-1	1.853136E-1	1.987297E-1	1.940516E-1	1.802584E-1	1.908483E-1	1.963460E-1	1.863416E-1	1.861913E-1	1.979523E-1	1.783636E-1	1.873572E-1	1.764890E-1	1.800275E-1	1.699753E-1	1.954843E-1	2.027292E-1	1.835302E-1	1.945383E-1	1.711480E-1	1.831788E-1	1.737168E-1	1.798404E-1	2.002757E-1	1.738384E-1	2.103166E-1	2.101980E-1	1.692165E-1	1.624356E-1	1.765213E-1	1.858745E-1	1.859817E-1	1.922726E-1	2.134473E-1	1.995822E-1	2.088390E-1	1.732148E-1	1.981870E-1	1.815354E-1	1.929491E-1	1.806561E-1	2.094600E-1	1.907757E-1	1.801105E-1	1.802519E-1	1.816257E-1	1.804771E-1	2.087995E-1	1.875231E-1	1.758808E-1	1.743097E-1	1.969857E-1	2.000368E-1	1.854930E-1	1.761604E-1	1.887522E-1	1.892260E-1	1.825468E-1	1.639650E-1	1.849169E-1	1.837577E-1	1.720853E-1	1.813470E-1	1.864129E-1	1.765636E-1	1.957910E-1	1.961350E-1	1.983553E-1	1.886957E-1	1.881895E-1	1.826462E-1	2.112597E-1	1.934042E-1	1.810209E-1	1.681759E-1	1.816848E-1	1.994010E-1	1.777765E-1	1.813959E-1	1.790906E-1	1.694274E-1	1.943544E-1	1.974525E-1	2.026944E-1	2.049713E-1	1.852153E-1	1.655268E-1	1.780349E-1	1.914916E-1	1.961183E-1	1.965172E-1	2.081416E-1	1.752229E-1	1.852821E-1	2.019356E-1	1.879295E-1	1.851326E-1	1.796442E-1	1.868068E-1	1.787926E-1	1.857929E-1	2.016081E-1	2.034905E-1	2.079656E-1	1.940300E-1	2.091094E-1	1.688034E-1	1.856188E-1	1.808134E-1	2.048211E-1	1.904361E-1	1.954611E-1	1.948169E-1	2.041312E-1	1.827196E-1	1.806326E-1	1.948793E-1	2.161523E-1	2.065988E-1	2.109677E-1	1.991358E-1	1.968784E-1	1.905999E-1	2.013465E-1	2.018280E-1	1.910695E-1	1.895359E-1	1.914054E-1	1.904115E-1	1.916686E-1	1.676585E-1	2.120995E-1	1.909337E-1	1.750371E-1	1.960798E-1	2.008218E-1	1.739156E-1	1.915651E-1	1.849991E-1	1.861475E-1	1.892462E-1	2.135804E-1	2.008123E-1	1.810855E-1	1.898146E-1	1.750390E-1	1.910229E-1	1.949920E-1	2.017820E-1	1.926432E-1	1.818804E-1	1.774560E-1	2.075474E-1	2.238961E-1
5.342040E+2	3.067087E-1	3.144989E-1	3.300274E-1	3.547221E-1	3.048662E-1	3.208163E-1	3.374830E-1	3.270454E-1	3.424616E-1	3.283293E-1	3.084176E-1	3.127446E-1	3.264620E-1	3.354542E-1	2.960738E-1	3.022570E-1	3.438551E-1	3.212090E-1	3.180329E-1	3.199566E-1	3.011999E-1	3.006372E-1	3.449526E-1	3.343757E-1	3.446003E-1	3.465633E-1	3.307651E-1	3.470078E-1	3.244053E-1	3.213144E-1	3.192891E-1	3.287170E-1	3.139175E-1	3.020557E-1	3.286913E-1	3.433037E-1	3.539218E-1	3.438899E-1	3.371481E-1	3.311124E-1	3.240663E-1	3.206076E-1	3.306742E-1	3.263884E-1	3.069995E-1	3.371832E-1	3.270056E-1	3.100867E-1	3.160452E-1	3.473602E-1	3.255195E-1	3.335083E-1	3.139935E-1	3.361090E-1	3.265212E-1	3.399975E-1	3.207479E-1	3.044583E-1	3.211290E-1	2.978621E-1	3.388854E-1	3.478218E-1	3.389433E-1	3.312403E-1	3.325323E-1	3.170912E-1	3.336368E-1	3.232537E-1	3.335033E-1	3.326393E-1	3.073460E-1	3.239818E-1	3.286589E-1	3.413826E-1	3.528028E-1	3.272864E-1	3.428235E-1	3.169032E-1	3.166485E-1	3.312229E-1	3.247434E-1	3.383394E-1	3.483347E-1	3.462590E-1	3.211990E-1	3.448996E-1	3.356627E-1	3.511441E-1	3.295326E-1	3.171372E-1	3.246479E-1	3.411156E-1	3.479161E-1	3.468329E-1	3.215017E-1	3.238915E-1	3.284351E-1	3.150014E-1	3.141224E-1	3.162093E-1	3.212621E-1	3.324813E-1	3.382322E-1	2.895588E-1	3.181959E-1	3.214348E-1	3.435219E-1	3.332853E-1	3.235237E-1	3.166279E-1	3.151253E-1	3.319815E-1	3.216434E-1	3.340580E-1	3.400643E-1	3.288594E-1	3.461903E-1	3.219497E-1	3.422550E-1	3.544653E-1	3.177491E-1	3.385495E-1	3.249904E-1	3.077155E-1	3.376276E-1	3.193341E-1	3.328461E-1	3.254956E-1	3.432302E-1	3.140150E-1	2.922682E-1	3.309688E-1	3.370763E-1	3.332544E-1	3.478039E-1	3.549989E-1	3.217655E-1	3.193052E-1	3.323899E-1	3.196808E-1	3.405491E-1	3.275249E-1	3.419902E-1	3.242679E-1	3.236464E-1	3.371275E-1	3.414301E-1	3.048059E-1	3.733151E-1	3.510516E-1	3.350252E-1	3.330739E-1	3.307522E-1	3.198134E-1	3.044555E-1	3.308703E-1	3.244763E-1	3.226984E-1	3.136603E-1	3.405109E-1	3.311823E-1	3.321420E-1	3.695866E-1	3.488889E-1	3.316227E-1	3.447153E-1	3.632249E-1	3.485537E-1	3.566016E-1	3.114329E-1	4.080618E-1
5.343600E+2	5.910147E-1	6.038959E-1	6.216898E-1	5.987956E-1	5.808892E-1	6.068804E-1	6.090743E-1	5.917279E-1	5.981490E-1	6.190547E-1	6.292994E-1	6.157456E-1	6.147635E-1	6.328336E-1	6.109321E-1	6.569940E-1	6.374843E-1	6.475294E-1	6.314198E-1	5.908130E-1	6.347266E-1	6.056897E-1	6.034629E-1	6.077564E-1	5.748961E-1	5.919115E-1	6.019641E-1	5.593368E-1	6.200880E-1	6.074195E-1	6.053739E-1	6.151095E-1	6.356148E-1	5.931613E-1	5.974835E-1	6.184734E-1	5.882858E-1	5.930859E-1	5.845690E-1	6.166940E-1	6.083892E-1	6.152704E-1	5.990626E-1	6.314231E-1	6.023140E-1	6.111625E-1	6.146070E-1	6.027826E-1	6.180271E-1	5.938087E-1	5.917076E-1	6.064857E-1	6.008839E-1	6.403279E-1	6.275342E-1	6.259274E-1	6.071015E-1	6.204780E-1	6.039459E-1	5.897553E-1	6.125298E-1	6.697139E-1	6.548177E-1	6.145463E-1	6.175993E-1	6.333737E-1	5.723517E-1	6.627576E-1	5.921690E-1	6.054142E-1	5.993671E-1	6.299224E-1	6.058624E-1	6.155640E-1	6.055959E-1	6.296100E-1	6.263360E-1	5.820541E-1	6.126860E-1	6.244546E-1	5.717274E-1	6.024061E-1	6.326558E-1	6.052603E-1	6.104872E-1	6.050146E-1	6.440459E-1	6.480021E-1	6.452796E-1	6.032300E-1	6.190618E-1	6.236452E-1	6.365225E-1	6.017200E-1	6.300446E-1	6.446994E-1	6.174755E-1	5.974302E-1	6.075516E-1	6.165992E-1	6.270538E-1	6.403994E-1	6.238824E-1	6.062496E-1	6.287015E-1	6.050930E-1	6.083236E-1	6.253564E-1	6.135344E-1	6.049948E-1	6.245856E-1	6.472454E-1	6.344047E-1	6.413780E-1	5.765208E-1	6.296378E-1	6.232650E-1	5.749308E-1	6.553576E-1	6.284954E-1	6.266837E-1	5.988796E-1	6.209085E-1	6.231002E-1	6.542874E-1	6.255166E-1	5.910913E-1	6.152184E-1	5.826318E-1	6.278577E-1	6.098100E-1	5.851726E-1	6.067025E-1	5.787546E-1	6.170912E-1	6.238243E-1	6.216051E-1	5.801374E-1	6.162811E-1	6.029352E-1	6.041978E-1	6.343862E-1	5.982464E-1	6.419530E-1	5.892517E-1	6.103531E-1	6.307699E-1	5.814716E-1	6.267911E-1	6.025935E-1	6.062054E-1	6.506441E-1	6.284087E-1	6.076289E-1	6.247615E-1	5.945666E-1	6.222535E-1	5.896275E-1	6.053979E-1	6.396154E-1	6.070660E-1	6.307582E-1	6.126664E-1	6.115844E-1	5.977117E-1	6.384824E-1	6.203023E-1	6.679987E-1	5.850008E-1	5.957823E-1	6.285192E-1
5.345160E+2	1.010364E+0	1.047240E+0	1.011497E+0	1.046942E+0	1.021049E+0	9.731155E-1	9.955056E-1	1.005305E+0	1.044187E+0	9.585610E-1	1.012078E+0	1.066266E+0	9.796205E-1	1.017092E+0	9.972109E-1	1.064086E+0	1.028382E+0	1.007934E+0	9.796115E-1	1.025060E+0	1.034696E+0	1.001301E+0	1.046866E+0	9.847556E-1	1.001578E+0	1.009898E+0	1.020824E+0	1.009166E+0	9.857572E-1	1.004317E+0	1.001884E+0	1.011081E+0	9.802329E-1	1.010125E+0	9.919123E-1	1.020488E+0	9.878872E-1	9.842836E-1	9.876285E-1	1.027302E+0	1.004129E+0	1.014908E+0	9.787235E-1	1.005434E+0	9.939275E-1	1.001769E+0	9.715794E-1	9.836248E-1	1.025270E+0	9.929576E-1	9.931425E-1	1.001449E+0	9.487852E-1	1.011788E+0	1.000206E+0	1.006508E+0	9.885175E-1	1.030572E+0	1.033126E+0	1.024646E+0	9.741165E-1	1.035159E+0	1.006193E+0	1.009607E+0	9.445169E-1	1.002508E+0	9.868651E-1	9.988429E-1	1.025871E+0	9.949137E-1	9.650632E-1	1.002866E+0	9.626652E-1	9.698654E-1	1.031294E+0	1.018331E+0	9.642416E-1	9.963666E-1	1.043278E+0	1.036082E+0	1.023754E+0	1.016610E+0	9.734630E-1	9.967865E-1	1.011820E+0	1.005310E+0	1.056354E+0	9.810155E-1	1.024330E+0	9.667219E-1	1.037268E+0	9.827144E-1	9.715752E-1	1.017277E+0	9.672271E-1	9.658262E-1	1.026409E+0	9.921266E-1	9.992906E-1	1.025143E+0	9.974260E-1	1.006825E+0	1.011953E+0	1.043510E+0	1.014563E+0	9.817534E-1	1.039220E+0	9.803528E-1	1.039726E+0	9.943124E-1	1.011528E+0	9.832192E-1	1.041260E+0	9.668120E-1	9.809220E-1	9.578274E-1	1.023117E+0	9.736761E-1	1.015382E+0	9.961569E-1	9.912872E-1	9.311365E-1	9.789722E-1	1.005012E+0	9.828635E-1	1.002162E+0	1.021701E+0	1.009573E+0	9.740898E-1	9.812396E-1	9.854432E-1	1.023321E+0	9.798612E-1	9.569490E-1	9.795481E-1	1.020615E+0	9.955908E-1	9.977256E-1	1.007848E+0	1.021584E+0	9.909711E-1	9.684951E-1	1.020585E+0	9.638829E-1	9.640330E-1	9.697974E-1	9.956019E-1	1.008117E+0	9.824149E-1	9.585142E-1	9.970045E-1	1.050448E+0	1.008838E+0	1.013683E+0	1.019840E+0	9.850873E-1	1.017204E+0	1.028424E+0	1.008283E+0	1.006197E+0	9.907954E-1	9.848943E-1	9.977365E-1	1.016135E+0	1.011920E+0	1.056704E+0	1.030519E+0	1.031755E+0	9.559232E-1	1.021515E+0	1.126784E+0
5.346620E+2	1.455301E+0	1.388963E+0	1.415514E+0	1.396178E+0	1.398815E+0	1.406982E+0	1.414165E+0	1.458318E+0	1.362561E+0	1.386636E+0	1.446544E+0	1.464542E+0	1.450212E+0	1.450755E+0	1.413587E+0	1.466075E+0	1.418890E+0	1.440471E+0	1.426954E+0	1.394432E+0	1.444547E+0	1.401903E+0	1.347026E+0	1.417254E+0	1.362542E+0	1.450920E+0	1.420745E+0	1.394411E+0	1.362395E+0	1.416420E+0	1.419332E+0	1.397476E+0	1.413240E+0	1.404084E+0	1.407849E+0	1.387832E+0	1.450909E+0	1.438276E+0	1.448993E+0	1.405677E+0	1.413642E+0	1.432767E+0	1.397273E+0	1.431547E+0	1.446930E+0	1.444859E+0	1.347237E+0	1.441882E+0	1.382547E+0	1.425303E+0	1.417202E+0	1.381470E+0	1.371200E+0	1.440651E+0	1.418267E+0	1.407361E+0	1.422667E+0	1.414513E+0	1.398667E+0	1.361602E+0	1.428537E+0	1.421561E+0	1.385460E+0	1.416922E+0	1.403177E+0	1.409864E+0	1.373394E+0	1.488810E+0	1.410168E+0	1.401696E+0	1.425175E+0	1.423808E+0	1.383614E+0	1.393051E+0	1.356460E+0	1.446834E+0	1.412765E+0	1.374219E+0	1.453905E+0	1.413328E+0	1.421802E+0	1.348209E+0	1.402360E+0	1.401227E+0	1.395491E+0	1.438165E+0	1.370540E+0	1.358755E+0	1.438198E+0	1.391868E+0	1.424439E+0	1.429075E+0	1.387036E+0	1.387030E+0	1.375656E+0	1.414819E+0	1.372612E+0	1.361278E+0	1.423129E+0	1.391597E+0	1.380212E+0	1.426724E+0	1.384761E+0	1.395922E+0	1.388071E+0	1.422463E+0	1.429062E+0	1.443832E+0	1.383859E+0	1.418457E+0	1.390211E+0	1.380268E+0	1.458979E+0	1.398579E+0	1.317596E+0	1.329865E+0	1.374689E+0	1.352362E+0	1.425308E+0	1.459703E+0	1.399956E+0	1.337224E+0	1.402889E+0	1.377218E+0	1.427601E+0	1.414096E+0	1.383108E+0	1.414764E+0	1.362522E+0	1.380896E+0	1.397976E+0	1.387200E+0	1.402937E+0	1.380002E+0	1.420905E+0	1.418320E+0	1.338670E+0	1.379467E+0	1.407706E+0	1.390999E+0	1.420496E+0	1.387875E+0	1.397744E+0	1.382102E+0	1.431423E+0	1.420018E+0	1.386419E+0	1.334731E+0	1.429243E+0	1.364688E+0	1.425702E+0	1.402236E+0	1.370922E+0	1.422503E+0	1.398800E+0	1.416698E+0	1.391895E+0	1.379149E+0	1.371688E+0	1.406661E+0	1.388750E+0	1.410434E+0	1.379830E+0	1.424416E+0	1.398149E+0	1.455176E+0	1.401125E+0	1.458441E+0	1.372830E+0	1.392616E+0	1.391528E+0
5.348120E+2	1.804688E+0	1.810248E+0	1.827590E+0	1.820091E+0	1.855124E+0	1.768611E+0	1.837521E+0	1.773160E+0	1.816458E+0	1.776986E+0	1.796481E+0	1.832532E+0	1.801550E+0	1.822919E+0	1.809038E+0	1.831054E+0	1.863429E+0	1.878525E+0	1.782568E+0	1.808606E+0	1.873688E+0	1.852095E+0	1.812039E+0	1.843923E+0	1.842471E+0	1.812220E+0	1.862656E+0	1.808753E+0	1.836122E+0	1.773987E+0	1.826162E+0	1.781723E+0	1.794889E+0	1.795247E+0	1.836114E+0	1.817603E+0	1.842334E+0	1.821925E+0	1.776282E+0	1.776441E+0	1.832802E+0	1.861294E+0	1.828579E+0	1.796096E+0	1.752636E+0	1.872192E+0	1.802143E+0	1.822991E+0	1.848934E+0	1.825443E+0	1.829223E+0	1.814644E+0	1.787994E+0	1.790807E+0	1.815621E+0	1.815170E+0	1.847199E+0	1.810189E+0	1.850939E+0	1.817501E+0	1.862114E+0	1.847662E+0	1.779280E+0	1.800469E+0	1.744033E+0	1.826176E+0	1.790194E+0	1.861337E+0	1.777405E+0	1.782998E+0	1.827713E+0	1.824773E+0	1.811915E+0	1.781811E+0	1.794327E+0	1.903296E+0	1.818373E+0	1.802453E+0	1.820640E+0	1.774708E+0	1.815818E+0	1.808591E+0	1.796282E+0	1.813353E+0	1.787387E+0	1.838152E+0	1.816702E+0	1.779240E+0	1.813950E+0	1.756485E+0	1.843020E+0	1.918246E+0	1.777482E+0	1.821858E+0	1.764834E+0	1.829444E+0	1.805372E+0	1.743139E+0	1.802136E+0	1.790700E+0	1.794832E+0	1.864758E+0	1.744517E+0	1.831389E+0	1.839843E+0	1.827098E+0	1.825415E+0	1.731388E+0	1.796720E+0	1.833314E+0	1.821014E+0	1.781753E+0	1.763553E+0	1.841602E+0	1.805736E+0	1.785766E+0	1.772954E+0	1.778697E+0	1.824195E+0	1.836764E+0	1.697753E+0	1.760305E+0	1.732233E+0	1.781464E+0	1.748642E+0	1.785819E+0	1.795310E+0	1.756547E+0	1.791234E+0	1.728678E+0	1.724822E+0	1.777660E+0	1.805515E+0	1.804822E+0	1.816180E+0	1.794920E+0	1.770343E+0	1.734106E+0	1.832759E+0	1.710701E+0	1.745296E+0	1.798026E+0	1.767039E+0	1.801383E+0	1.766681E+0	1.760274E+0	1.890007E+0	1.764696E+0	1.752779E+0	1.718953E+0	1.755657E+0	1.720832E+0	1.744773E+0	1.778099E+0	1.774359E+0	1.761563E+0	1.823332E+0	1.732132E+0	1.788500E+0	1.819864E+0	1.783712E+0	1.811521E+0	1.816122E+0	1.829153E+0	1.713367E+0	1.852593E+0	1.791548E+0	1.828785E+0	1.789966E+0	1.748128E+0	1.874682E+0
5.349530E+2	2.075349E+0	2.105504E+0	2.053325E+0	2.067885E+0	2.032504E+0	2.063654E+0	2.123986E+0	2.076967E+0	2.065729E+0	2.107859E+0	2.019719E+0	2.044419E+0	2.103667E+0	2.101110E+0	2.041257E+0	2.118429E+0	2.083952E+0	2.030361E+0	2.085853E+0	2.087903E+0	2.132224E+0	2.085523E+0	2.008435E+0	2.010251E+0	2.039835E+0	2.098648E+0	2.088775E+0	2.071694E+0	2.036870E+0	2.086021E+0	2.042466E+0	2.048532E+0	2.058003E+0	2.097360E+0	2.056273E+0	2.056780E+0	2.031855E+0	2.106757E+0	2.155310E+0	2.056234E+0	2.085378E+0	2.052702E+0	2.150540E+0	2.048365E+0	2.050309E+0	2.093260E+0	2.039495E+0	2.027261E+0	2.085137E+0	2.004191E+0	2.043826E+0	2.020467E+0	1.990455E+0	2.092107E+0	2.060263E+0	2.084332E+0	2.074978E+0	2.035612E+0	2.021904E+0	1.978808E+0	2.034132E+0	2.074370E+0	2.068002E+0	1.987240E+0	1.955035E+0	1.961126E+0	2.012106E+0	1.989875E+0	1.999415E+0	2.082674E+0	2.050657E+0	1.995012E+0	2.078784E+0	1.991517E+0	1.984973E+0	2.062900E+0	2.011313E+0	2.008240E+0	2.072347E+0	1.947698E+0	2.025755E+0	2.034260E+0	2.010119E+0	2.057446E+0	2.054658E+0	2.048339E+0	1.942755E+0	1.984833E+0	1.996246E+0	1.983314E+0	2.024268E+0	2.067673E+0	1.983669E+0	2.079819E+0	2.040675E+0	2.024332E+0	2.001552E+0	2.036824E+0	2.038826E+0	1.955405E+0	1.970536E+0	2.039096E+0	1.920994E+0	2.028642E+0	2.006867E+0	1.982650E+0	1.986543E+0	1.927327E+0	2.033381E+0	2.058525E+0	2.037286E+0	1.991073E+0	1.985677E+0	2.032669E+0	1.947984E+0	1.930736E+0	1.960609E+0	1.991498E+0	1.979619E+0	2.080907E+0	2.062023E+0	1.976426E+0	1.968571E+0	2.022669E+0	1.999283E+0	1.967606E+0	1.976510E+0	1.992057E+0	2.033157E+0	2.000237E+0	1.985262E+0	2.018906E+0	2.008303E+0	1.974219E+0	2.030450E+0	2.019832E+0	2.073394E+0	1.949135E+0	2.056226E+0	1.954629E+0	2.007495E+0	1.983567E+0	1.944281E+0	1.952354E+0	1.945771E+0	2.045522E+0	1.960144E+0	1.970141E+0	2.007162E+0	1.923367E+0	2.025581E+0	2.009635E+0	1.991642E+0	2.001622E+0	1.997056E+0	1.993552E+0	1.938876E+0	1.949988E+0	1.973773E+0	2.041423E+0	1.976106E+0	1.994372E+0	1.970489E+0	2.011190E+0	1.997386E+0	2.025446E+0	2.017962E+0	2.005386E+0	1.873090E+0	1.939515E+0	1.919743E+0
5.351140E+2	2.069443E+0	2.057871E+0	2.038872E+0	2.036572E+0	2.052880E+0	2.072344E+0	2.068008E+0	2.093081E+0	2.030938E+0	2.044078E+0	2.015355E+0	2.024617E+0	2.070655E+0	2.065373E+0	2.015168E+0	2.081791E+0	2.098741E+0	2.028151E+0	2.034044E+0	2.042990E+0	2.041633E+0	1.980688E+0	2.090691E+0	2.049655E+0	2.043197E+0	2.072237E+0	2.071507E+0	2.071571E+0	2.036515E+0	2.023146E+0	1.984566E+0	2.020424E+0	2.027273E+0	2.074864E+0	2.094983E+0	2.044978E+0	2.083235E+0	2.008870E+0	2.055161E+0	2.007903E+0	2.071748E+0	2.001488E+0	2.031588E+0	1.978739E+0	1.998679E+0	2.040760E+0	2.049396E+0	2.030126E+0	2.041884E+0	2.050127E+0	2.023264E+0	1.998560E+0	2.004799E+0	2.008651E+0	2.014031E+0	2.061952E+0	2.006045E+0	1.996365E+0	2.045489E+0	2.030702E+0	2.039719E+0	2.077127E+0	2.069821E+0	2.035302E+0	2.019608E+0	2.007781E+0	2.048469E+0	2.029648E+0	2.018050E+0	2.008125E+0	2.044369E+0	2.060124E+0	2.004305E+0	2.060520E+0	2.035862E+0	2.070851E+0	1.978305E+0	2.000600E+0	2.065947E+0	2.067241E+0	2.053287E+0	1.999748E+0	1.998194E+0	2.049418E+0	1.976598E+0	2.058734E+0	2.031168E+0	1.973082E+0	1.974766E+0	2.015806E+0	2.030900E+0	2.016499E+0	1.948245E+0	2.067750E+0	1.998054E+0	2.001827E+0	1.976094E+0	1.959744E+0	2.006842E+0	1.902340E+0	1.991322E+0	1.997394E+0	1.945356E+0	1.962313E+0	1.991965E+0	1.968715E+0	2.052239E+0	1.951514E+0	2.016503E+0	2.024977E+0	2.001893E+0	2.005773E+0	1.976756E+0	2.012788E+0	1.950897E+0	1.932177E+0	2.007890E+0	2.008575E+0	1.966386E+0	1.984107E+0	1.870061E+0	1.991998E+0	1.988951E+0	1.998186E+0	1.970542E+0	1.956977E+0	2.010962E+0	1.978488E+0	2.004060E+0	1.994110E+0	1.961865E+0	1.982606E+0	2.010372E+0	1.955455E+0	2.032980E+0	2.024648E+0	2.003918E+0	1.982020E+0	1.960107E+0	2.015579E+0	1.968733E+0	1.986252E+0	2.000026E+0	1.987496E+0	1.973589E+0	1.999632E+0	1.960689E+0	1.926567E+0	1.982294E+0	1.997169E+0	1.997225E+0	2.010844E+0	1.959103E+0	2.007162E+0	2.034632E+0	1.976608E+0	1.938955E+0	1.928044E+0	2.022592E+0	1.999950E+0	2.014656E+0	1.968534E+0	1.990200E+0	1.962558E+0	1.983601E+0	2.003566E+0	2.000619E+0	1.979003E+0	1.944607E+0	1.961543E+0	2.130830E+0
5.352600E+2	1.957644E+0	1.930271E+0	2.011478E+0	1.960963E+0	1.934504E+0	1.953411E+0	2.009813E+0	1.932346E+0	1.992083E+0	1.874206E+0	1.855498E+0	1.861650E+0	1.971556E+0	1.984394E+0	1.941847E+0	1.906950E+0	1.961957E+0	1.966440E+0	1.874092E+0	1.921472E+0	1.974221E+0	1.899922E+0	1.892836E+0	1.997118E+0	1.996898E+0	1.952546E+0	1.927409E+0	1.933176E+0	1.930951E+0	1.956004E+0	1.925752E+0	1.886112E+0	1.927664E+0	1.981031E+0	1.915063E+0	1.955706E+0	1.930424E+0	1.931177E+0	1.946438E+0	1.902968E+0	1.983922E+0	1.951440E+0	1.984758E+0	1.865714E+0	1.915074E+0	1.930234E+0	1.940360E+0	1.959995E+0	1.955629E+0	1.951563E+0	1.922724E+0	1.887942E+0	1.872774E+0	1.963830E+0	1.943553E+0	1.912218E+0	1.930865E+0	1.882378E+0	1.931032E+0	1.894566E+0	1.925184E+0	2.049568E+0	1.930459E+0	1.897868E+0	1.861244E+0	1.960487E+0	1.890091E+0	1.893008E+0	1.886938E+0	1.942893E+0	1.968473E+0	1.930133E+0	1.882001E+0	1.988726E+0	1.895373E+0	1.995594E+0	1.874024E+0	1.892110E+0	1.987784E+0	1.919504E+0	1.950578E+0	1.954371E+0	1.924663E+0	1.948318E+0	1.932741E+0	1.920206E+0	1.945984E+0	1.927482E+0	1.934751E+0	1.888885E+0	1.938868E+0	1.913160E+0	1.903182E+0	1.881721E+0	1.863239E+0	1.894004E+0	1.862044E+0	1.858238E+0	1.917514E+0	1.891293E+0	1.907588E+0	1.895680E+0	1.905055E+0	1.832718E+0	1.957232E+0	1.898032E+0	1.862426E+0	1.861907E+0	1.903391E+0	1.916600E+0	1.963773E+0	1.868499E+0	1.942398E+0	1.917297E+0	1.913139E+0	1.803482E+0	1.892362E+0	1.971909E+0	1.891571E+0	1.892302E+0	1.871844E+0	1.865414E+0	1.923528E+0	1.951877E+0	1.902166E+0	1.913606E+0	1.870560E+0	1.912928E+0	1.962625E+0	1.969607E+0	1.937626E+0	1.817063E+0	1.892461E+0	1.850614E+0	1.884641E+0	1.849102E+0	1.883124E+0	1.941777E+0	1.938098E+0	1.846036E+0	1.864918E+0	1.911252E+0	1.839436E+0	1.837061E+0	1.980653E+0	1.908714E+0	1.857703E+0	1.897026E+0	1.960435E+0	1.854879E+0	1.859057E+0	1.880321E+0	1.862327E+0	1.879531E+0	1.900087E+0	1.904831E+0	1.814540E+0	1.858976E+0	1.915223E+0	1.859341E+0	1.860715E+0	1.913593E+0	1.863451E+0	1.878524E+0	1.855340E+0	1.897921E+0	1.879342E+0	1.949973E+0	1.885130E+0	1.964438E+0	1.926630E+0
5.354170E+2	1.684222E+0	1.744999E+0	1.729982E+0	1.657201E+0	1.639538E+0	1.606997E+0	1.693874E+0	1.652282E+0	1.726774E+0	1.670106E+0	1.651781E+0	1.644059E+0	1.705762E+0	1.626122E+0	1.672697E+0	1.669918E+0	1.700777E+0	1.686876E+0	1.674508E+0	1.658271E+0	1.726773E+0	1.698161E+0	1.682300E+0	1.709333E+0	1.670259E+0	1.687895E+0	1.654534E+0	1.668843E+0	1.638641E+0	1.645465E+0	1.573295E+0	1.641717E+0	1.608013E+0	1.711596E+0	1.648787E+0	1.640058E+0	1.653316E+0	1.659804E+0	1.638273E+0	1.642318E+0	1.662328E+0	1.643444E+0	1.683158E+0	1.598619E+0	1.617380E+0	1.678859E+0	1.715144E+0	1.669369E+0	1.679417E+0	1.682529E+0	1.665777E+0	1.704541E+0	1.641222E+0	1.648937E+0	1.641792E+0	1.655360E+0	1.712255E+0	1.643286E+0	1.629539E+0	1.566567E+0	1.669255E+0	1.672962E+0	1.613760E+0	1.657903E+0	1.672310E+0	1.590937E+0	1.647791E+0	1.575853E+0	1.606043E+0	1.685999E+0	1.622892E+0	1.740313E+0	1.683672E+0	1.632882E+0	1.622759E+0	1.654020E+0	1.678269E+0	1.671095E+0	1.665888E+0	1.677202E+0	1.663231E+0	1.659903E+0	1.655058E+0	1.595896E+0	1.603604E+0	1.664606E+0	1.659564E+0	1.614388E+0	1.641201E+0	1.610345E+0	1.643188E+0	1.628988E+0	1.605368E+0	1.683331E+0	1.583204E+0	1.627090E+0	1.602175E+0	1.606787E+0	1.650929E+0	1.612796E+0	1.595088E+0	1.611411E+0	1.594685E+0	1.587554E+0	1.622498E+0	1.600092E+0	1.659453E+0	1.587285E+0	1.621834E+0	1.689892E+0	1.660653E+0	1.645715E+0	1.725444E+0	1.666186E+0	1.646991E+0	1.591948E+0	1.664309E+0	1.587366E+0	1.632309E+0	1.681013E+0	1.596375E+0	1.584842E+0	1.604406E+0	1.650521E+0	1.650979E+0	1.658997E+0	1.650669E+0	1.630137E+0	1.606610E+0	1.669376E+0	1.582051E+0	1.665829E+0	1.625117E+0	1.649888E+0	1.589965E+0	1.639287E+0	1.628411E+0	1.626248E+0	1.635643E+0	1.618720E+0	1.579010E+0	1.696558E+0	1.645203E+0	1.606399E+0	1.658555E+0	1.625574E+0	1.619544E+0	1.586220E+0	1.657977E+0	1.617315E+0	1.568481E+0	1.607260E+0	1.621834E+0	1.635201E+0	1.661577E+0	1.566251E+0	1.591668E+0	1.603134E+0	1.602156E+0	1.676743E+0	1.583481E+0	1.633954E+0	1.615281E+0	1.589869E+0	1.595719E+0	1.612270E+0	1.633234E+0	1.677912E+0	1.606746E+0	1.639552E+0	1.613686E+0
5.355630E+2	1.457812E+0	1.509149E+0	1.507739E+0	1.535778E+0	1.487136E+0	1.411253E+0	1.463902E+0	1.380730E+0	1.471114E+0	1.472464E+0	1.412644E+0	1.474528E+0	1.479493E+0	1.502588E+0	1.486356E+0	1.422508E+0	1.502252E+0	1.452233E+0	1.444857E+0	1.493024E+0	1.497368E+0	1.433252E+0	1.418505E+0	1.468132E+0	1.449958E+0	1.430512E+0	1.489248E+0	1.439710E+0	1.434787E+0	1.436987E+0	1.439067E+0	1.455078E+0	1.482124E+0	1.500931E+0	1.441602E+0	1.474613E+0	1.457855E+0	1.442727E+0	1.451155E+0	1.489029E+0	1.494321E+0	1.481318E+0	1.440276E+0	1.493790E+0	1.449017E+0	1.485263E+0	1.493334E+0	1.503145E+0	1.451953E+0	1.448577E+0	1.425851E+0	1.469313E+0	1.445723E+0	1.461563E+0	1.459299E+0	1.482224E+0	1.483726E+0	1.510192E+0	1.510261E+0	1.423305E+0	1.437610E+0	1.440116E+0	1.484825E+0	1.416250E+0	1.441271E+0	1.496190E+0	1.450800E+0	1.480081E+0	1.448613E+0	1.462469E+0	1.406649E+0	1.538602E+0	1.450391E+0	1.404305E+0	1.389911E+0	1.510783E+0	1.423073E+0	1.433988E+0	1.468201E+0	1.469968E+0	1.462591E+0	1.475432E+0	1.533238E+0	1.456370E+0	1.508634E+0	1.507432E+0	1.462617E+0	1.457854E+0	1.474762E+0	1.414110E+0	1.449271E+0	1.503743E+0	1.460264E+0	1.509913E+0	1.463528E+0	1.434001E+0	1.499983E+0	1.484581E+0	1.468023E+0	1.450647E+0	1.455241E+0	1.438721E+0	1.417648E+0	1.432203E+0	1.441363E+0	1.481303E+0	1.475451E+0	1.416161E+0	1.467300E+0	1.487750E+0	1.464747E+0	1.479984E+0	1.495738E+0	1.439423E+0	1.450112E+0	1.470497E+0	1.439775E+0	1.445659E+0	1.414975E+0	1.430249E+0	1.452738E+0	1.417009E+0	1.415671E+0	1.414079E+0	1.414103E+0	1.402479E+0	1.473881E+0	1.447307E+0	1.472506E+0	1.467111E+0	1.414100E+0	1.378734E+0	1.477313E+0	1.465074E+0	1.480146E+0	1.492375E+0	1.508359E+0	1.424868E+0	1.479353E+0	1.439783E+0	1.417330E+0	1.458638E+0	1.442397E+0	1.404151E+0	1.379492E+0	1.485533E+0	1.464509E+0	1.415913E+0	1.465325E+0	1.446400E+0	1.449600E+0	1.493626E+0	1.429882E+0	1.445407E+0	1.481473E+0	1.410616E+0	1.436208E+0	1.384502E+0	1.431815E+0	1.484082E+0	1.447304E+0	1.460088E+0	1.474711E+0	1.425961E+0	1.449397E+0	1.445607E+0	1.434502E+0	1.414875E+0	1.439237E+0	1.460307E+0	1.487154E+0
5.357090E+2	1.233818E+0	1.229870E+0	1.308898E+0	1.266503E+0	1.252794E+0	1.224040E+0	1.226080E+0	1.256637E+0	1.290475E+0	1.257776E+0	1.279902E+0	1.202257E+0	1.254316E+0	1.219664E+0	1.259985E+0	1.269126E+0	1.279111E+0	1.291365E+0	1.181431E+0	1.262208E+0	1.266708E+0	1.246286E+0	1.227683E+0	1.278996E+0	1.287041E+0	1.241760E+0	1.265771E+0	1.247045E+0	1.205050E+0	1.198476E+0	1.239157E+0	1.247950E+0	1.235813E+0	1.266718E+0	1.201899E+0	1.238159E+0	1.217226E+0	1.259772E+0	1.282986E+0	1.247390E+0	1.256354E+0	1.263968E+0	1.243890E+0	1.234014E+0	1.203764E+0	1.256846E+0	1.252341E+0	1.263444E+0	1.279678E+0	1.239776E+0	1.257320E+0	1.274195E+0	1.204577E+0	1.241118E+0	1.226518E+0	1.243220E+0	1.286028E+0	1.230147E+0	1.280596E+0	1.215952E+0	1.220542E+0	1.273954E+0	1.293994E+0	1.268423E+0	1.214831E+0	1.231719E+0	1.174408E+0	1.289306E+0	1.266621E+0	1.271111E+0	1.249247E+0	1.259865E+0	1.291223E+0	1.244671E+0	1.246877E+0	1.270591E+0	1.249895E+0	1.234340E+0	1.286544E+0	1.227673E+0	1.283237E+0	1.240324E+0	1.266045E+0	1.297970E+0	1.232234E+0	1.296704E+0	1.249234E+0	1.244742E+0	1.236969E+0	1.190118E+0	1.273009E+0	1.225902E+0	1.246759E+0	1.291222E+0	1.270883E+0	1.249126E+0	1.310941E+0	1.225182E+0	1.284766E+0	1.285983E+0	1.273465E+0	1.265122E+0	1.242367E+0	1.210571E+0	1.228873E+0	1.264717E+0	1.280277E+0	1.258194E+0	1.282051E+0	1.268750E+0	1.280234E+0	1.167435E+0	1.277665E+0	1.245681E+0	1.239181E+0	1.229042E+0	1.290522E+0	1.224074E+0	1.319675E+0	1.277040E+0	1.224192E+0	1.208774E+0	1.227540E+0	1.242847E+0	1.308996E+0	1.310170E+0	1.250204E+0	1.223675E+0	1.288675E+0	1.260553E+0	1.323091E+0	1.236946E+0	1.228564E+0	1.258663E+0	1.246847E+0	1.217412E+0	1.250326E+0	1.251132E+0	1.220022E+0	1.225909E+0	1.225758E+0	1.276932E+0	1.280409E+0	1.202153E+0	1.227485E+0	1.262817E+0	1.264479E+0	1.210684E+0	1.308929E+0	1.251852E+0	1.257213E+0	1.240799E+0	1.273116E+0	1.234237E+0	1.275519E+0	1.215606E+0	1.252613E+0	1.221906E+0	1.276096E+0	1.254608E+0	1.221742E+0	1.235788E+0	1.232755E+0	1.238688E+0	1.291901E+0	1.281981E+0	1.285236E+0	1.275313E+0	1.251299E+0	1.284343E+0	1.246159E+0
5.358600E+2	1.027117E+0	1.025910E+0	1.032546E+0	1.022282E+0	1.026839E+0	1.012928E+0	1.080253E+0	1.043823E+0	1.011459E+0	1.002579E+0	1.021691E+0	1.039796E+0	1.018268E+0	1.025746E+0	9.799212E-1	1.046330E+0	1.010642E+0	1.032142E+0	1.007482E+0	9.975682E-1	1.026887E+0	1.061075E+0	1.006430E+0	1.055481E+0	1.041808E+0	9.846073E-1	9.866432E-1	9.964020E-1	1.025622E+0	1.036764E+0	1.011288E+0	9.643840E-1	1.002874E+0	1.019662E+0	1.043215E+0	1.010050E+0	1.068478E+0	1.035143E+0	9.861659E-1	1.052648E+0	9.866369E-1	1.042258E+0	1.019310E+0	1.005316E+0	9.950863E-1	9.916975E-1	9.899762E-1	1.027365E+0	1.028707E+0	1.026156E+0	1.006796E+0	1.009532E+0	9.892146E-1	1.055691E+0	1.018384E+0	1.005442E+0	1.022171E+0	1.002022E+0	1.029532E+0	9.890269E-1	1.017739E+0	1.045455E+0	1.003362E+0	1.060739E+0	1.021351E+0	1.036380E+0	1.035138E+0	1.046521E+0	1.014343E+0	1.045486E+0	1.012924E+0	1.036512E+0	1.033643E+0	1.040025E+0	9.979318E-1	1.029409E+0	1.048044E+0	1.010006E+0	1.040315E+0	1.019963E+0	1.088055E+0	1.065788E+0	1.018061E+0	1.040429E+0	9.754991E-1	1.060035E+0	1.047267E+0	9.839931E-1	1.042990E+0	1.031485E+0	1.030577E+0	1.019568E+0	1.014666E+0	1.026019E+0	1.062945E+0	1.056431E+0	9.973400E-1	1.014465E+0	1.015434E+0	1.009638E+0	1.080677E+0	1.009362E+0	1.008909E+0	9.979277E-1	1.001696E+0	1.017863E+0	1.027305E+0	9.792346E-1	1.024179E+0	1.063628E+0	1.078896E+0	1.020783E+0	1.079224E+0	1.010583E+0	1.023703E+0	1.000644E+0	1.041989E+0	1.002748E+0	1.041684E+0	1.022020E+0	9.931271E-1	1.016722E+0	1.032980E+0	1.026746E+0	1.020507E+0	1.058431E+0	1.031116E+0	1.025288E+0	1.069241E+0	9.830074E-1	1.045608E+0	1.023219E+0	1.004427E+0	1.025462E+0	1.071451E+0	1.015227E+0	1.048356E+0	1.014063E+0	1.041636E+0	1.052040E+0	1.044096E+0	1.079454E+0	1.029079E+0	1.008818E+0	9.613855E-1	1.069872E+0	1.019809E+0	1.016615E+0	1.058561E+0	1.006663E+0	1.018650E+0	1.012211E+0	1.014612E+0	9.990262E-1	1.030604E+0	1.025722E+0	1.059352E+0	1.072402E+0	1.030513E+0	1.043693E+0	1.047989E+0	1.080063E+0	1.041168E+0	1.048627E+0	1.096903E+0	1.018862E+0	1.092487E+0	1.061579E+0	9.624457E-1	1.037589E+0	9.998135E-1
5.360070E+2	8.690682E-1	8.093705E-1	8.356741E-1	8.601580E-1	8.448232E-1	8.137363E-1	8.498031E-1	8.199028E-1	8.529341E-1	8.465217E-1	8.187743E-1	8.280087E-1	8.313839E-1	8.408208E-1	8.081070E-1	8.363160E-1	8.598996E-1	8.385488E-1	8.289519E-1	8.455858E-1	8.848972E-1	8.483736E-1	8.669160E-1	8.244659E-1	8.414457E-1	8.463617E-1	8.796006E-1	8.548319E-1	8.426240E-1	8.399978E-1	8.345587E-1	8.587762E-1	8.049985E-1	8.347012E-1	8.221588E-1	8.471179E-1	8.226382E-1	8.882305E-1	8.538320E-1	8.523308E-1	8.103575E-1	8.670345E-1	8.561067E-1	8.400517E-1	8.432953E-1	8.392925E-1	8.785506E-1	8.344218E-1	8.578790E-1	8.477169E-1	8.263694E-1	8.743805E-1	8.563118E-1	8.386908E-1	8.533759E-1	8.816328E-1	8.196046E-1	8.177109E-1	8.537722E-1	8.323150E-1	8.499192E-1	8.573699E-1	8.675441E-1	7.944977E-1	8.107088E-1	8.414404E-1	8.353666E-1	8.377942E-1	8.461097E-1	8.252733E-1	8.742902E-1	8.567662E-1	8.365524E-1	8.321022E-1	8.447955E-1	8.457718E-1	8.338381E-1	8.238053E-1	8.406952E-1	8.396192E-1	8.172450E-1	8.454709E-1	8.467884E-1	8.416785E-1	8.088756E-1	8.955182E-1	8.682029E-1	8.738862E-1	8.791670E-1	8.206698E-1	8.463135E-1	8.778484E-1	8.188225E-1	8.691849E-1	8.485704E-1	8.602820E-1	8.557278E-1	8.480581E-1	8.948302E-1	8.282682E-1	8.478205E-1	8.499875E-1	8.562567E-1	8.525555E-1	8.472300E-1	8.210261E-1	8.444941E-1	8.513477E-1	8.604186E-1	8.709568E-1	8.669763E-1	8.358033E-1	8.741636E-1	8.322017E-1	8.093791E-1	8.043209E-1	8.582049E-1	8.377973E-1	8.361960E-1	8.489249E-1	8.494137E-1	8.525955E-1	8.537131E-1	8.506106E-1	8.570203E-1	8.385566E-1	8.495975E-1	8.528801E-1	8.552798E-1	8.494723E-1	8.236424E-1	8.361878E-1	8.689611E-1	8.079467E-1	8.644013E-1	8.382120E-1	8.873660E-1	8.323714E-1	8.559447E-1	8.209643E-1	8.351685E-1	8.503951E-1	8.600450E-1	8.349691E-1	8.454663E-1	8.860435E-1	8.494034E-1	8.296144E-1	8.642664E-1	8.558384E-1	8.498135E-1	8.036525E-1	8.319694E-1	8.322581E-1	8.614419E-1	8.428117E-1	8.626736E-1	8.294352E-1	8.611912E-1	8.635367E-1	8.374581E-1	8.495177E-1	8.219143E-1	8.487847E-1	8.660336E-1	8.435186E-1	8.702793E-1	8.579523E-1	8.165603E-1	8.243004E-1	8.753058E-1
5.362630E+2	6.502263E-1	6.794944E-1	6.486471E-1	6.522568E-1	6.583029E-1	6.566656E-1	7.008837E-1	6.851744E-1	6.293491E-1	6.764333E-1	6.264135E-1	6.755541E-1	6.627089E-1	6.682840E-1	6.463928E-1	6.924544E-1	6.661719E-1	6.567918E-1	6.597745E-1	6.690546E-1	6.501004E-1	6.663038E-1	6.444683E-1	6.661748E-1	6.767655E-1	6.679438E-1	6.521597E-1	6.392160E-1	6.376259E-1	6.613339E-1	6.799965E-1	6.699842E-1	6.741271E-1	6.426659E-1	6.403172E-1	6.436264E-1	6.572764E-1	6.790805E-1	6.531855E-1	6.524497E-1	6.841889E-1	6.837057E-1	6.768071E-1	6.504487E-1	6.539750E-1	6.535662E-1	6.661391E-1	6.534190E-1	6.737491E-1	6.757458E-1	6.616511E-1	6.838317E-1	6.610979E-1	6.889413E-1	6.831142E-1	6.733146E-1	6.387365E-1	6.720739E-1	6.469076E-1	6.162101E-1	6.431276E-1	6.479970E-1	7.222180E-1	6.514962E-1	6.666078E-1	6.593765E-1	6.489995E-1	6.268000E-1	6.606433E-1	6.553873E-1	6.787456E-1	6.717202E-1	6.752883E-1	6.756452E-1	6.559595E-1	6.594126E-1	6.246569E-1	6.954295E-1	6.774971E-1	6.716161E-1	6.769569E-1	6.431999E-1	6.771348E-1	6.406723E-1	6.638226E-1	6.610422E-1	6.898026E-1	6.705583E-1	6.575751E-1	6.341907E-1	6.465581E-1	6.679242E-1	6.591481E-1	6.889546E-1	6.640548E-1	6.574828E-1	6.362644E-1	6.256572E-1	6.558808E-1	6.767229E-1	6.829633E-1	6.701228E-1	6.726400E-1	6.783407E-1	6.704688E-1	6.599143E-1	6.906624E-1	6.768045E-1	6.574117E-1	6.939183E-1	6.776864E-1	6.490715E-1	6.766683E-1	6.626962E-1	6.613786E-1	6.329096E-1	7.151690E-1	6.358923E-1	6.441554E-1	6.525076E-1	6.760563E-1	6.348891E-1	6.288102E-1	6.473600E-1	6.613486E-1	6.422905E-1	6.820527E-1	6.367096E-1	6.853647E-1	6.533780E-1	6.509080E-1	6.841388E-1	6.915727E-1	6.706061E-1	6.919539E-1	7.070642E-1	6.488550E-1	6.791367E-1	6.966528E-1	6.722845E-1	6.527762E-1	6.523640E-1	6.898036E-1	6.355075E-1	7.051796E-1	7.029419E-1	6.751266E-1	6.757992E-1	6.796291E-1	6.432637E-1	6.577020E-1	6.729611E-1	6.892995E-1	6.704911E-1	6.849411E-1	6.543821E-1	6.934358E-1	6.570843E-1	6.913537E-1	6.600845E-1	6.406652E-1	6.726014E-1	6.436548E-1	6.947547E-1	6.535429E-1	6.872265E-1	6.642095E-1	6.909092E-1	7.005466E-1	7.079951E-1	6.916459E-1
5.365190E+2	5.647244E-1	5.267332E-1	5.419556E-1	5.536142E-1	5.506748E-1	5.263991E-1	5.702070E-1	5.393906E-1	5.430803E-1	5.676146E-1	5.254948E-1	5.366923E-1	5.392938E-1	5.414661E-1	5.276526E-1	5.459279E-1	5.462884E-1	5.562359E-1	5.321148E-1	5.567829E-1	5.818396E-1	5.570575E-1	5.601536E-1	5.223006E-1	5.286628E-1	5.381105E-1	5.152082E-1	5.577378E-1	5.527600E-1	5.343919E-1	5.434829E-1	5.152860E-1	5.510679E-1	5.574198E-1	5.391072E-1	5.151969E-1	5.482513E-1	5.335793E-1	5.566597E-1	5.420182E-1	5.638177E-1	5.433849E-1	5.327764E-1	5.396116E-1	5.059287E-1	5.580122E-1	5.311779E-1	5.323836E-1	5.829062E-1	5.606846E-1	5.408183E-1	5.144387E-1	5.434504E-1	5.856583E-1	5.522379E-1	5.880149E-1	5.462906E-1	5.483211E-1	5.089238E-1	5.443620E-1	5.204438E-1	5.379278E-1	5.462397E-1	5.324959E-1	5.276079E-1	5.535188E-1	5.302595E-1	5.676754E-1	5.802378E-1	5.470496E-1	5.729012E-1	5.528041E-1	5.345005E-1	5.827220E-1	5.432374E-1	5.561371E-1	5.522184E-1	5.623214E-1	5.642329E-1	5.721164E-1	5.148836E-1	5.422897E-1	5.493955E-1	5.465920E-1	5.499256E-1	5.617855E-1	5.680487E-1	5.590686E-1	5.445351E-1	5.297328E-1	5.731426E-1	5.790504E-1	5.735373E-1	5.585082E-1	5.302942E-1	5.148762E-1	5.546682E-1	5.464260E-1	5.657252E-1	5.479056E-1	5.764086E-1	5.699232E-1	5.504458E-1	5.618164E-1	5.308719E-1	5.845405E-1	5.390352E-1	5.433772E-1	5.492885E-1	5.695345E-1	5.707746E-1	5.376490E-1	5.837610E-1	5.528281E-1	5.381978E-1	5.222736E-1	5.168277E-1	5.346733E-1	5.810706E-1	5.427884E-1	5.677578E-1	5.622536E-1	5.090047E-1	5.158989E-1	5.328397E-1	5.618145E-1	5.761579E-1	5.844298E-1	5.508024E-1	5.514081E-1	5.257471E-1	5.450224E-1	5.396552E-1	5.590285E-1	5.460551E-1	5.729704E-1	5.601689E-1	5.705204E-1	5.790416E-1	5.374317E-1	5.582179E-1	5.178346E-1	5.606202E-1	5.545885E-1	5.666379E-1	5.830362E-1	5.594170E-1	5.580117E-1	6.095978E-1	5.747120E-1	5.178254E-1	5.422686E-1	5.347370E-1	5.605906E-1	5.546120E-1	5.515456E-1	5.504931E-1	5.573521E-1	5.818817E-1	5.756424E-1	5.250593E-1	5.488598E-1	5.416267E-1	5.553640E-1	5.593148E-1	5.668812E-1	5.790914E-1	5.578624E-1	5.722887E-1	6.082707E-1	6.186485E-1
5.367660E+2	5.367679E-1	5.240075E-1	5.325799E-1	4.980278E-1	5.369326E-1	4.996335E-1	5.396416E-1	5.199667E-1	5.194717E-1	5.316670E-1	5.153652E-1	5.226058E-1	5.360576E-1	5.190594E-1	5.258981E-1	5.176985E-1	5.287244E-1	5.333252E-1	4.982333E-1	5.394182E-1	5.110546E-1	5.556394E-1	5.325168E-1	5.113610E-1	5.418863E-1	5.210534E-1	5.451883E-1	5.165730E-1	5.187724E-1	5.561964E-1	5.194112E-1	4.987948E-1	5.063097E-1	5.382921E-1	5.174120E-1	5.559453E-1	5.317172E-1	5.143540E-1	5.252561E-1	4.961606E-1	5.209681E-1	4.995648E-1	5.323754E-1	5.172331E-1	5.165551E-1	5.359982E-1	5.038842E-1	5.290341E-1	5.286124E-1	5.554071E-1	4.791050E-1	5.415809E-1	5.183520E-1	5.228399E-1	5.065805E-1	5.262229E-1	5.278752E-1	5.348948E-1	5.172565E-1	5.246091E-1	5.138373E-1	5.474158E-1	5.344158E-1	5.757003E-1	5.037006E-1	5.413653E-1	5.386350E-1	5.181641E-1	5.529253E-1	5.239136E-1	5.213891E-1	5.362289E-1	5.214194E-1	5.297326E-1	5.057379E-1	5.443604E-1	5.077175E-1	5.335993E-1	5.115990E-1	5.264122E-1	4.989326E-1	5.130766E-1	5.116833E-1	5.314194E-1	5.262630E-1	5.549665E-1	5.281629E-1	5.314157E-1	5.629075E-1	5.379408E-1	5.225127E-1	5.022035E-1	5.166813E-1	5.453846E-1	5.463064E-1	5.526654E-1	5.552870E-1	5.420522E-1	5.473104E-1	5.266302E-1	5.286316E-1	4.967746E-1	5.296986E-1	5.304836E-1	5.100473E-1	5.323795E-1	5.405897E-1	5.455655E-1	5.152846E-1	5.104824E-1	5.523000E-1	4.936048E-1	5.077032E-1	5.197533E-1	5.287636E-1	5.072834E-1	5.461620E-1	5.409907E-1	5.299810E-1	5.253745E-1	5.217417E-1	5.442534E-1	5.282393E-1	5.505258E-1	5.184149E-1	5.060062E-1	5.217959E-1	4.955165E-1	5.375915E-1	4.957221E-1	5.190406E-1	5.246653E-1	4.965178E-1	5.158046E-1	5.424806E-1	5.544156E-1	5.472672E-1	5.241192E-1	5.260147E-1	5.422363E-1	5.138983E-1	5.478152E-1	5.356564E-1	4.804168E-1	5.302246E-1	4.891112E-1	5.315275E-1	5.207826E-1	5.301161E-1	5.280553E-1	5.314219E-1	5.157287E-1	5.106438E-1	5.448804E-1	5.491512E-1	4.782488E-1	5.004169E-1	5.456536E-1	5.269590E-1	5.322573E-1	5.300361E-1	5.291338E-1	5.498911E-1	5.381983E-1	5.386084E-1	5.575391E-1	5.404359E-1	4.880970E-1	5.104545E-1	5.394256E-1	5.659563E-1
5.370170E+2	5.612538E-1	5.263419E-1	5.389060E-1	5.187423E-1	5.077887E-1	5.290391E-1	5.597931E-1	5.293110E-1	5.501916E-1	5.362514E-1	5.170301E-1	5.134681E-1	5.046604E-1	5.226739E-1	5.425866E-1	5.034802E-1	4.993566E-1	5.708197E-1	5.637424E-1	5.422090E-1	5.640971E-1	5.572271E-1	5.327815E-1	5.674587E-1	5.719401E-1	5.428738E-1	4.996413E-1	5.312885E-1	5.050175E-1	5.562716E-1	5.036873E-1	5.544780E-1	5.201462E-1	5.610217E-1	5.301647E-1	5.186653E-1	5.554657E-1	5.610121E-1	5.255325E-1	5.539754E-1	5.524185E-1	5.632559E-1	5.488429E-1	5.426382E-1	5.462268E-1	5.310005E-1	5.433824E-1	5.437520E-1	5.370938E-1	5.359438E-1	5.498015E-1	5.206859E-1	4.736657E-1	5.558260E-1	5.519670E-1	5.657098E-1	5.082612E-1	5.403790E-1	5.696810E-1	5.305068E-1	5.349575E-1	5.296437E-1	5.580883E-1	5.583870E-1	5.255918E-1	5.534864E-1	5.345554E-1	5.401624E-1	5.417506E-1	5.628888E-1	5.206490E-1	5.557889E-1	5.287359E-1	5.643781E-1	5.471377E-1	5.411186E-1	4.973129E-1	5.482609E-1	5.374702E-1	5.573230E-1	5.447407E-1	5.380284E-1	5.460350E-1	5.340475E-1	5.200888E-1	5.570911E-1	5.378217E-1	5.228472E-1	5.631876E-1	5.603460E-1	5.526862E-1	5.469580E-1	5.278143E-1	5.552928E-1	5.147719E-1	5.343792E-1	5.621579E-1	5.303674E-1	5.720517E-1	5.345056E-1	5.650658E-1	5.479268E-1	5.718056E-1	5.135472E-1	5.476271E-1	5.771132E-1	5.583002E-1	5.331466E-1	5.177218E-1	5.604045E-1	5.522380E-1	5.228720E-1	5.290383E-1	5.795987E-1	5.393054E-1	5.566824E-1	5.353662E-1	5.511144E-1	5.198352E-1	5.435814E-1	5.318844E-1	5.180026E-1	5.501014E-1	5.529073E-1	5.513250E-1	5.662847E-1	5.715054E-1	5.295280E-1	5.544696E-1	5.543191E-1	5.628039E-1	5.396756E-1	5.506485E-1	5.330681E-1	5.658839E-1	5.531959E-1	5.589721E-1	5.386832E-1	5.430434E-1	5.610120E-1	5.453080E-1	5.750699E-1	5.573189E-1	5.494048E-1	5.457015E-1	5.427638E-1	5.980415E-1	5.347874E-1	5.877586E-1	5.377994E-1	5.483871E-1	5.382040E-1	5.541532E-1	5.329603E-1	5.232185E-1	5.548378E-1	5.190852E-1	5.679560E-1	5.688328E-1	5.432222E-1	5.158794E-1	5.254472E-1	5.294017E-1	5.488805E-1	5.363302E-1	5.495774E-1	5.586978E-1	5.796782E-1	5.331588E-1	5.418609E-1	5.450382E-1
5.372640E+2	6.313202E-1	6.356046E-1	6.185807E-1	6.108489E-1	6.174415E-1	5.899710E-1	6.183012E-1	6.142285E-1	5.590975E-1	6.040714E-1	6.049754E-1	6.052888E-1	6.179333E-1	6.069795E-1	6.153177E-1	5.996513E-1	6.125523E-1	6.111837E-1	6.152912E-1	6.216783E-1	6.464567E-1	6.417932E-1	6.254293E-1	6.185770E-1	5.778051E-1	6.074208E-1	6.049869E-1	6.048343E-1	6.226911E-1	6.234126E-1	6.492506E-1	5.985139E-1	6.085692E-1	6.246121E-1	6.098407E-1	6.497512E-1	6.004146E-1	6.192692E-1	6.466406E-1	6.229703E-1	6.139468E-1	6.332426E-1	6.553933E-1	6.268140E-1	6.502221E-1	6.328063E-1	6.281512E-1	6.440080E-1	6.490156E-1	6.013722E-1	6.455490E-1	5.877972E-1	6.302360E-1	6.336410E-1	6.552361E-1	5.886668E-1	5.771678E-1	6.309703E-1	6.128269E-1	6.121057E-1	6.152293E-1	6.145241E-1	6.366029E-1	6.151109E-1	5.908367E-1	5.936570E-1	6.497450E-1	6.289440E-1	6.236688E-1	6.355523E-1	6.314276E-1	6.571813E-1	5.881506E-1	6.096421E-1	5.999640E-1	6.039931E-1	6.210003E-1	6.388538E-1	6.426459E-1	6.272952E-1	6.088833E-1	6.400835E-1	6.576594E-1	6.272367E-1	6.005690E-1	5.942611E-1	6.244331E-1	6.282276E-1	6.328872E-1	6.345546E-1	6.157610E-1	6.398284E-1	5.951502E-1	6.332221E-1	6.269593E-1	6.582016E-1	6.213955E-1	6.320282E-1	6.231394E-1	5.904625E-1	6.310012E-1	6.354612E-1	6.387045E-1	5.848169E-1	6.477075E-1	6.386306E-1	5.938163E-1	6.446372E-1	6.016284E-1	6.521302E-1	6.189340E-1	6.264938E-1	5.992627E-1	6.067422E-1	6.277728E-1	6.048585E-1	6.471575E-1	6.379695E-1	6.215550E-1	6.306536E-1	6.214723E-1	6.367876E-1	6.370309E-1	6.167049E-1	6.205530E-1	6.663499E-1	6.391803E-1	5.837642E-1	6.250941E-1	6.426883E-1	6.263886E-1	6.138745E-1	6.587689E-1	6.305129E-1	6.403947E-1	6.229355E-1	6.084208E-1	6.656453E-1	6.252827E-1	6.529350E-1	6.109852E-1	6.493931E-1	6.674471E-1	5.988319E-1	6.244091E-1	6.104549E-1	6.177327E-1	6.137811E-1	6.648446E-1	6.498975E-1	6.232351E-1	6.250664E-1	6.285632E-1	6.449383E-1	6.448521E-1	6.270252E-1	6.020454E-1	5.968658E-1	6.418166E-1	6.169359E-1	6.180203E-1	6.347124E-1	6.245577E-1	6.209009E-1	6.531143E-1	6.517364E-1	6.537375E-1	6.330763E-1	6.335640E-1	6.075892E-1	5.709479E-1
5.375110E+2	7.174698E-1	7.349787E-1	7.311709E-1	7.498619E-1	7.125409E-1	7.473685E-1	7.542733E-1	7.322448E-1	7.163155E-1	7.115844E-1	7.505916E-1	7.792822E-1	7.211042E-1	7.532440E-1	7.613388E-1	7.284873E-1	7.622983E-1	7.475547E-1	7.115237E-1	7.758691E-1	7.525897E-1	7.424472E-1	7.444695E-1	7.084578E-1	7.411674E-1	7.229475E-1	7.617817E-1	7.490774E-1	7.060020E-1	7.216787E-1	7.490852E-1	7.292460E-1	7.259272E-1	7.398251E-1	7.311852E-1	7.288452E-1	7.070228E-1	7.320960E-1	7.518405E-1	7.489719E-1	7.396153E-1	7.230505E-1	7.507483E-1	7.856562E-1	7.169819E-1	7.269521E-1	7.470950E-1	7.122458E-1	7.536665E-1	7.194854E-1	7.204452E-1	7.793680E-1	7.260195E-1	7.179051E-1	7.061230E-1	7.618403E-1	7.133715E-1	7.239110E-1	7.637444E-1	7.021487E-1	7.402459E-1	7.815955E-1	7.710475E-1	7.189392E-1	7.246846E-1	7.200002E-1	7.396186E-1	7.233710E-1	7.753493E-1	7.173298E-1	7.440254E-1	7.444133E-1	6.987478E-1	7.464401E-1	7.215597E-1	7.274604E-1	7.292475E-1	7.882880E-1	7.569843E-1	7.541902E-1	7.534195E-1	7.284783E-1	7.408790E-1	7.165833E-1	7.035244E-1	7.335015E-1	7.413426E-1	7.305824E-1	7.299549E-1	7.647583E-1	7.295850E-1	7.396024E-1	7.014374E-1	7.200934E-1	7.475281E-1	7.499595E-1	7.203633E-1	7.159435E-1	7.710420E-1	7.443740E-1	7.130885E-1	7.369660E-1	7.399275E-1	7.180645E-1	7.128886E-1	7.661229E-1	7.081984E-1	7.238492E-1	7.620105E-1	7.510635E-1	7.659698E-1	7.002061E-1	7.804861E-1	7.610895E-1	7.281837E-1	7.173215E-1	7.415285E-1	7.354979E-1	7.222750E-1	7.487724E-1	7.471471E-1	7.388096E-1	7.890592E-1	7.620435E-1	7.235722E-1	7.434457E-1	7.446283E-1	7.141503E-1	7.517736E-1	7.359865E-1	7.310808E-1	7.107931E-1	7.249036E-1	7.395460E-1	7.584918E-1	7.433791E-1	7.643250E-1	7.379083E-1	7.537037E-1	7.721841E-1	7.397632E-1	7.109919E-1	7.100499E-1	7.114425E-1	7.274363E-1	7.251219E-1	7.411734E-1	6.906795E-1	7.583631E-1	7.307279E-1	7.334446E-1	7.262063E-1	7.428909E-1	7.444626E-1	7.424155E-1	7.549939E-1	7.112584E-1	7.172626E-1	7.347684E-1	7.418419E-1	6.957615E-1	7.854526E-1	7.555222E-1	7.191617E-1	7.588772E-1	7.552544E-1	7.258348E-1	7.872863E-1	7.373192E-1	7.429729E-1	7.468451E-1
5.377580E+2	8.072509E-1	7.964672E-1	7.633315E-1	8.207497E-1	8.155630E-1	8.306130E-1	8.091416E-1	8.098972E-1	7.870412E-1	8.106651E-1	8.102500E-1	7.661233E-1	7.487517E-1	7.938640E-1	8.129852E-1	7.907450E-1	8.190017E-1	7.565464E-1	8.113620E-1	8.171033E-1	7.902496E-1	8.141353E-1	8.472288E-1	8.272067E-1	7.635823E-1	7.908695E-1	7.912722E-1	7.957745E-1	7.766665E-1	8.086875E-1	7.846245E-1	8.052201E-1	7.471502E-1	8.361282E-1	7.933807E-1	7.717236E-1	8.005906E-1	7.892685E-1	7.972069E-1	7.988591E-1	8.218982E-1	7.964272E-1	8.284813E-1	7.721926E-1	7.957517E-1	8.218591E-1	8.014502E-1	7.654753E-1	8.033596E-1	8.150636E-1	7.699267E-1	8.573430E-1	7.503817E-1	8.224096E-1	7.839080E-1	8.140959E-1	7.868704E-1	7.940558E-1	8.135521E-1	7.860974E-1	7.893253E-1	7.825541E-1	8.418343E-1	8.108012E-1	7.732328E-1	7.730072E-1	7.883932E-1	8.056926E-1	8.145914E-1	7.862182E-1	8.353051E-1	8.305032E-1	7.887235E-1	7.739622E-1	8.017453E-1	7.289789E-1	7.852471E-1	7.807985E-1	8.042376E-1	8.392328E-1	7.277338E-1	8.297881E-1	7.639565E-1	8.118795E-1	8.058359E-1	8.142445E-1	8.252697E-1	7.836097E-1	7.570284E-1	8.008220E-1	8.360589E-1	7.875796E-1	7.957943E-1	8.022061E-1	8.324671E-1	8.029641E-1	7.958603E-1	7.865815E-1	7.783786E-1	7.610063E-1	7.766355E-1	8.155385E-1	7.528570E-1	7.850478E-1	7.802992E-1	8.231428E-1	8.517478E-1	7.496101E-1	7.728077E-1	8.197233E-1	8.178150E-1	7.845982E-1	8.086166E-1	8.321816E-1	8.011573E-1	7.999573E-1	7.933610E-1	8.228810E-1	7.915506E-1	8.045013E-1	7.908749E-1	8.206901E-1	8.337344E-1	7.896305E-1	7.856949E-1	8.292965E-1	7.710207E-1	7.719637E-1	8.138535E-1	7.446528E-1	7.819232E-1	8.152035E-1	7.665513E-1	8.129657E-1	8.113371E-1	7.979516E-1	7.851047E-1	8.129858E-1	8.465823E-1	7.970088E-1	7.176865E-1	8.273700E-1	7.819185E-1	7.948367E-1	7.947528E-1	7.843681E-1	8.131604E-1	7.928187E-1	8.028137E-1	7.582118E-1	8.068488E-1	7.973939E-1	7.787220E-1	7.986779E-1	8.318122E-1	8.195595E-1	7.950442E-1	7.908031E-1	7.809841E-1	7.676240E-1	7.953213E-1	7.760993E-1	7.984728E-1	7.934977E-1	7.591112E-1	8.342057E-1	8.264810E-1	7.787561E-1	7.625962E-1	8.072849E-1	8.885080E-1
5.380210E+2	9.739800E-1	9.706191E-1	9.609914E-1	9.829954E-1	9.643325E-1	9.327825E-1	9.904477E-1	9.614794E-1	9.578225E-1	9.293847E-1	9.556732E-1	9.749093E-1	9.386973E-1	9.259017E-1	9.838988E-1	9.777571E-1	9.608160E-1	9.732871E-1	9.082991E-1	9.354268E-1	9.720012E-1	9.719020E-1	9.510322E-1	9.628090E-1	9.527051E-1	9.341920E-1	9.800841E-1	9.359180E-1	9.457294E-1	9.372852E-1	9.888699E-1	9.528234E-1	9.754634E-1	9.758825E-1	9.723334E-1	9.303558E-1	9.245815E-1	9.546731E-1	9.340193E-1	9.572210E-1	9.335784E-1	9.945032E-1	9.722398E-1	9.734128E-1	9.555230E-1	9.729831E-1	9.652358E-1	9.658888E-1	9.357132E-1	9.438965E-1	9.572472E-1	9.457322E-1	9.814471E-1	9.730242E-1	9.576285E-1	9.481269E-1	9.635728E-1	9.476853E-1	9.407126E-1	9.559815E-1	9.474844E-1	9.546537E-1	9.978275E-1	9.575883E-1	9.652484E-1	9.857062E-1	9.905821E-1	9.865655E-1	9.350232E-1	9.861712E-1	9.899774E-1	9.861441E-1	1.024800E+0	9.686977E-1	9.070828E-1	9.834937E-1	9.615669E-1	1.012517E+0	9.245768E-1	9.680372E-1	9.620175E-1	9.290038E-1	9.522732E-1	9.364841E-1	9.382400E-1	9.313332E-1	9.933218E-1	9.483041E-1	9.515517E-1	9.550379E-1	9.609384E-1	9.493112E-1	9.411777E-1	9.642065E-1	9.356186E-1	9.701623E-1	9.505340E-1	9.684335E-1	1.019698E+0	9.201483E-1	9.362590E-1	9.725114E-1	9.500488E-1	9.180432E-1	9.356784E-1	9.696599E-1	9.307801E-1	9.351570E-1	9.383576E-1	1.040549E+0	9.604712E-1	9.431285E-1	1.001260E+0	9.434787E-1	9.690523E-1	9.334670E-1	9.477751E-1	9.585412E-1	9.468681E-1	9.818478E-1	9.654730E-1	9.630673E-1	9.545428E-1	9.463693E-1	9.556320E-1	9.440685E-1	9.961252E-1	9.407461E-1	9.417058E-1	9.720085E-1	9.610008E-1	9.781851E-1	9.464502E-1	9.774665E-1	9.832730E-1	9.675996E-1	9.632023E-1	9.494731E-1	1.024294E+0	9.770138E-1	9.420555E-1	9.596480E-1	9.946348E-1	9.513207E-1	9.767534E-1	9.741443E-1	1.037674E+0	9.121423E-1	9.601934E-1	9.829829E-1	9.759996E-1	9.417011E-1	9.627663E-1	9.487112E-1	9.738529E-1	9.130062E-1	9.259671E-1	9.495076E-1	9.930388E-1	9.474288E-1	9.350287E-1	9.592844E-1	9.270303E-1	9.751021E-1	9.579562E-1	9.888688E-1	9.749482E-1	9.370133E-1	9.243518E-1	9.646215E-1	9.988428E-1
5.382790E+2	1.140698E+0	1.073452E+0	1.077814E+0	1.162340E+0	1.040511E+0	1.092914E+0	1.074145E+0	1.071788E+0	1.138286E+0	1.075771E+0	1.085431E+0	1.099065E+0	1.114186E+0	1.105426E+0	1.122971E+0	1.159495E+0	1.116557E+0	1.114321E+0	1.080479E+0	1.163292E+0	1.143182E+0	1.113098E+0	1.103082E+0	1.136458E+0	1.096185E+0	1.100500E+0	1.147667E+0	1.113272E+0	1.108193E+0	1.062334E+0	1.116158E+0	1.106884E+0	1.124599E+0	1.085181E+0	1.112531E+0	1.113032E+0	1.128627E+0	1.126341E+0	1.077319E+0	1.124217E+0	1.095039E+0	1.097647E+0	1.113868E+0	1.127631E+0	1.094946E+0	1.104838E+0	1.121027E+0	1.107983E+0	1.095721E+0	1.106032E+0	1.144622E+0	1.102442E+0	1.091425E+0	1.120088E+0	1.081890E+0	1.106524E+0	1.074670E+0	1.052279E+0	1.085473E+0	1.109552E+0	1.083920E+0	1.106458E+0	1.108595E+0	1.149439E+0	1.088808E+0	1.130246E+0	1.087008E+0	1.120956E+0	1.136705E+0	1.102963E+0	1.057065E+0	1.098423E+0	1.102629E+0	1.105666E+0	1.125433E+0	1.103299E+0	1.055294E+0	1.130377E+0	1.125492E+0	1.108547E+0	1.049365E+0	1.104208E+0	1.096956E+0	1.100433E+0	1.124232E+0	1.171581E+0	1.082712E+0	1.118764E+0	1.144828E+0	1.113839E+0	1.093011E+0	1.084622E+0	1.090715E+0	1.099168E+0	1.089164E+0	1.137755E+0	1.091163E+0	1.028821E+0	1.155736E+0	1.049918E+0	1.110915E+0	1.105992E+0	1.127243E+0	1.068225E+0	1.099473E+0	1.142552E+0	1.084154E+0	1.124541E+0	1.085677E+0	1.103399E+0	1.107267E+0	1.091624E+0	1.135781E+0	1.132398E+0	1.082127E+0	1.097435E+0	1.104965E+0	1.084810E+0	1.124472E+0	1.087860E+0	1.066454E+0	1.073110E+0	1.094358E+0	1.112321E+0	1.080235E+0	1.107746E+0	1.131388E+0	1.139916E+0	1.120252E+0	1.092194E+0	1.093253E+0	1.072456E+0	1.116807E+0	1.069039E+0	1.105217E+0	1.104994E+0	1.085687E+0	1.067988E+0	1.096078E+0	1.127799E+0	1.062503E+0	1.143877E+0	1.112599E+0	1.033104E+0	1.077989E+0	1.188128E+0	1.148193E+0	1.116678E+0	1.120101E+0	1.111533E+0	1.118768E+0	1.129018E+0	1.113789E+0	1.130188E+0	1.104025E+0	1.060578E+0	1.073964E+0	1.107803E+0	1.122291E+0	1.118382E+0	1.117245E+0	1.090044E+0	1.088381E+0	1.086669E+0	1.090740E+0	1.137159E+0	1.143284E+0	1.087903E+0	1.105073E+0	1.102968E+0	1.245886E+0
5.385110E+2	1.384694E+0	1.384337E+0	1.334600E+0	1.333365E+0	1.361444E+0	1.300255E+0	1.317337E+0	1.347327E+0	1.283754E+0	1.308582E+0	1.321995E+0	1.289509E+0	1.326253E+0	1.357647E+0	1.319190E+0	1.312501E+0	1.300966E+0	1.357134E+0	1.318985E+0	1.317353E+0	1.366226E+0	1.324682E+0	1.336759E+0	1.279948E+0	1.339261E+0	1.304075E+0	1.346715E+0	1.349859E+0	1.266279E+0	1.269322E+0	1.322915E+0	1.405665E+0	1.306855E+0	1.335814E+0	1.332543E+0	1.288313E+0	1.309446E+0	1.341866E+0	1.332841E+0	1.323813E+0	1.353554E+0	1.351821E+0	1.388598E+0	1.367250E+0	1.293885E+0	1.320012E+0	1.336578E+0	1.326489E+0	1.310717E+0	1.348468E+0	1.284819E+0	1.287500E+0	1.312656E+0	1.309861E+0	1.314187E+0	1.328339E+0	1.321874E+0	1.296491E+0	1.386930E+0	1.290525E+0	1.285377E+0	1.327168E+0	1.291200E+0	1.304566E+0	1.276241E+0	1.314314E+0	1.322420E+0	1.305045E+0	1.310794E+0	1.384495E+0	1.319207E+0	1.354236E+0	1.252771E+0	1.291319E+0	1.350984E+0	1.351348E+0	1.289132E+0	1.295575E+0	1.365725E+0	1.330195E+0	1.319815E+0	1.313040E+0	1.330890E+0	1.334587E+0	1.333185E+0	1.315168E+0	1.333374E+0	1.384918E+0	1.336841E+0	1.331782E+0	1.316718E+0	1.348965E+0	1.294459E+0	1.351889E+0	1.340544E+0	1.324926E+0	1.276773E+0	1.285721E+0	1.342462E+0	1.312052E+0	1.294647E+0	1.349328E+0	1.310801E+0	1.329963E+0	1.288988E+0	1.291487E+0	1.345959E+0	1.303290E+0	1.302462E+0	1.347116E+0	1.295556E+0	1.316434E+0	1.298757E+0	1.312144E+0	1.271093E+0	1.282446E+0	1.350819E+0	1.336285E+0	1.286618E+0	1.357272E+0	1.295481E+0	1.312552E+0	1.306261E+0	1.329114E+0	1.271212E+0	1.301216E+0	1.310853E+0	1.292958E+0	1.260700E+0	1.283079E+0	1.342703E+0	1.285532E+0	1.323327E+0	1.307542E+0	1.359185E+0	1.297797E+0	1.310217E+0	1.353102E+0	1.266344E+0	1.331098E+0	1.259509E+0	1.336459E+0	1.350963E+0	1.340615E+0	1.292271E+0	1.337564E+0	1.352849E+0	1.308294E+0	1.348983E+0	1.297422E+0	1.335765E+0	1.264571E+0	1.295593E+0	1.350708E+0	1.359253E+0	1.301791E+0	1.319534E+0	1.265478E+0	1.344479E+0	1.356998E+0	1.344441E+0	1.318067E+0	1.365665E+0	1.280956E+0	1.274933E+0	1.343967E+0	1.307787E+0	1.296644E+0	1.306622E+0	1.297794E+0	1.325928E+0
5.387700E+2	1.581563E+0	1.529186E+0	1.555101E+0	1.540642E+0	1.572786E+0	1.569691E+0	1.497545E+0	1.502909E+0	1.587534E+0	1.516712E+0	1.543667E+0	1.595673E+0	1.496956E+0	1.577517E+0	1.525277E+0	1.543951E+0	1.567567E+0	1.567995E+0	1.525793E+0	1.530701E+0	1.564804E+0	1.599377E+0	1.559179E+0	1.573174E+0	1.546259E+0	1.506444E+0	1.565082E+0	1.565326E+0	1.522847E+0	1.506831E+0	1.533885E+0	1.553546E+0	1.550309E+0	1.577687E+0	1.552360E+0	1.528799E+0	1.533831E+0	1.546142E+0	1.505992E+0	1.522791E+0	1.537246E+0	1.521236E+0	1.573124E+0	1.606940E+0	1.515887E+0	1.527692E+0	1.588368E+0	1.580860E+0	1.572792E+0	1.495179E+0	1.496906E+0	1.520017E+0	1.560342E+0	1.553491E+0	1.517675E+0	1.537676E+0	1.554179E+0	1.541547E+0	1.571600E+0	1.506436E+0	1.537058E+0	1.500116E+0	1.557965E+0	1.550436E+0	1.462509E+0	1.531602E+0	1.521682E+0	1.530537E+0	1.573306E+0	1.540351E+0	1.507351E+0	1.596653E+0	1.475578E+0	1.452361E+0	1.545220E+0	1.589218E+0	1.532477E+0	1.531256E+0	1.550488E+0	1.518795E+0	1.525812E+0	1.504121E+0	1.516755E+0	1.552253E+0	1.505955E+0	1.505344E+0	1.567803E+0	1.583574E+0	1.540569E+0	1.557581E+0	1.564166E+0	1.526447E+0	1.496354E+0	1.540898E+0	1.543422E+0	1.543636E+0	1.538780E+0	1.498030E+0	1.555367E+0	1.522163E+0	1.531658E+0	1.512555E+0	1.496389E+0	1.490442E+0	1.508242E+0	1.472338E+0	1.528246E+0	1.473912E+0	1.565757E+0	1.551348E+0	1.567272E+0	1.510773E+0	1.541324E+0	1.503793E+0	1.481033E+0	1.479302E+0	1.561656E+0	1.518396E+0	1.558344E+0	1.501166E+0	1.497987E+0	1.517539E+0	1.523317E+0	1.539313E+0	1.520041E+0	1.476111E+0	1.598384E+0	1.523536E+0	1.501818E+0	1.501626E+0	1.529983E+0	1.503542E+0	1.531120E+0	1.498276E+0	1.541293E+0	1.518919E+0	1.480882E+0	1.483310E+0	1.510356E+0	1.522659E+0	1.460539E+0	1.503554E+0	1.522634E+0	1.459829E+0	1.441310E+0	1.493491E+0	1.594613E+0	1.460427E+0	1.534652E+0	1.490642E+0	1.554346E+0	1.517619E+0	1.524256E+0	1.540729E+0	1.573125E+0	1.470425E+0	1.459664E+0	1.525499E+0	1.534178E+0	1.491830E+0	1.501856E+0	1.511750E+0	1.505273E+0	1.445768E+0	1.527868E+0	1.546826E+0	1.505425E+0	1.489001E+0	1.487295E+0	1.554026E+0	1.611166E+0
5.390240E+2	1.786639E+0	1.822239E+0	1.765217E+0	1.768162E+0	1.734761E+0	1.730017E+0	1.801159E+0	1.818707E+0	1.792746E+0	1.709962E+0	1.747196E+0	1.751579E+0	1.757122E+0	1.783213E+0	1.690725E+0	1.755344E+0	1.753257E+0	1.757397E+0	1.784133E+0	1.747462E+0	1.767756E+0	1.733852E+0	1.751365E+0	1.752930E+0	1.721216E+0	1.751178E+0	1.819243E+0	1.779922E+0	1.728974E+0	1.736493E+0	1.796645E+0	1.696710E+0	1.700887E+0	1.799915E+0	1.792709E+0	1.751770E+0	1.770141E+0	1.709399E+0	1.747923E+0	1.738311E+0	1.769368E+0	1.744244E+0	1.750009E+0	1.799937E+0	1.718087E+0	1.751670E+0	1.689910E+0	1.740694E+0	1.740455E+0	1.700809E+0	1.759047E+0	1.799802E+0	1.717933E+0	1.789913E+0	1.714934E+0	1.725256E+0	1.758296E+0	1.740872E+0	1.758746E+0	1.755787E+0	1.717380E+0	1.751452E+0	1.780677E+0	1.718637E+0	1.700698E+0	1.762009E+0	1.690162E+0	1.775959E+0	1.735454E+0	1.750343E+0	1.718790E+0	1.753694E+0	1.665681E+0	1.699474E+0	1.778630E+0	1.763823E+0	1.657672E+0	1.707198E+0	1.807893E+0	1.739372E+0	1.760761E+0	1.755367E+0	1.773325E+0	1.785999E+0	1.763711E+0	1.664163E+0	1.770868E+0	1.743359E+0	1.695546E+0	1.734135E+0	1.679342E+0	1.697203E+0	1.689067E+0	1.724893E+0	1.745634E+0	1.777439E+0	1.769827E+0	1.698488E+0	1.730566E+0	1.691052E+0	1.741980E+0	1.739075E+0	1.715781E+0	1.677422E+0	1.725837E+0	1.691403E+0	1.732555E+0	1.734314E+0	1.717311E+0	1.726641E+0	1.758198E+0	1.680527E+0	1.734291E+0	1.775942E+0	1.729509E+0	1.653388E+0	1.691093E+0	1.678043E+0	1.722356E+0	1.722732E+0	1.669221E+0	1.687882E+0	1.753689E+0	1.754018E+0	1.690183E+0	1.734057E+0	1.766288E+0	1.685609E+0	1.732217E+0	1.745876E+0	1.717026E+0	1.687199E+0	1.770409E+0	1.698263E+0	1.753144E+0	1.715386E+0	1.662987E+0	1.671987E+0	1.786574E+0	1.676506E+0	1.657609E+0	1.694170E+0	1.706423E+0	1.745546E+0	1.711132E+0	1.629518E+0	1.738589E+0	1.716475E+0	1.740829E+0	1.779185E+0	1.718376E+0	1.688316E+0	1.684767E+0	1.781799E+0	1.783381E+0	1.704701E+0	1.701680E+0	1.658835E+0	1.803025E+0	1.668189E+0	1.609077E+0	1.686457E+0	1.782837E+0	1.667753E+0	1.693232E+0	1.718344E+0	1.743645E+0	1.766511E+0	1.649168E+0	1.590870E+0	1.653632E+0
5.392880E+2	1.986834E+0	1.910034E+0	1.971443E+0	1.902364E+0	1.891819E+0	1.956473E+0	1.949856E+0	1.958582E+0	1.962148E+0	1.905446E+0	1.954589E+0	1.917163E+0	1.924606E+0	1.962317E+0	1.943052E+0	1.939052E+0	1.969262E+0	1.989217E+0	1.930313E+0	1.924810E+0	1.993227E+0	1.956409E+0	1.920894E+0	1.947623E+0	1.913985E+0	1.899786E+0	1.916740E+0	1.961382E+0	1.914084E+0	1.861800E+0	1.958171E+0	1.884690E+0	1.966151E+0	1.901959E+0	1.884309E+0	1.937485E+0	1.932123E+0	1.923627E+0	1.953589E+0	1.939116E+0	1.873614E+0	1.874137E+0	1.995910E+0	1.903623E+0	1.908571E+0	1.962252E+0	1.923710E+0	1.952666E+0	1.917213E+0	1.895904E+0	1.903612E+0	1.943558E+0	1.890850E+0	1.942952E+0	1.946199E+0	1.958631E+0	1.952072E+0	1.900690E+0	1.932102E+0	1.932012E+0	1.904481E+0	1.881675E+0	1.897241E+0	1.951041E+0	1.875839E+0	1.972730E+0	1.911562E+0	1.897924E+0	1.850180E+0	1.941209E+0	1.890325E+0	1.990992E+0	1.860000E+0	1.893118E+0	1.901893E+0	1.925942E+0	1.868462E+0	1.843582E+0	2.030163E+0	1.928008E+0	1.942521E+0	1.915662E+0	1.910930E+0	1.892362E+0	1.839964E+0	1.918378E+0	1.905806E+0	1.910417E+0	1.910141E+0	1.868260E+0	1.908655E+0	1.941149E+0	1.937395E+0	1.871222E+0	1.862307E+0	1.897805E+0	1.864763E+0	1.887619E+0	1.862185E+0	1.936042E+0	1.890967E+0	1.924841E+0	1.848245E+0	1.875288E+0	1.880428E+0	1.881145E+0	1.957455E+0	1.875034E+0	1.844118E+0	1.915610E+0	1.971775E+0	1.946684E+0	1.870951E+0	1.930846E+0	1.876521E+0	1.854930E+0	1.888677E+0	1.897890E+0	1.921625E+0	1.813162E+0	1.817446E+0	1.885884E+0	1.899508E+0	1.889500E+0	1.865898E+0	1.814077E+0	1.957064E+0	1.842364E+0	1.926996E+0	1.820590E+0	1.901108E+0	1.785646E+0	1.914832E+0	1.858043E+0	1.852497E+0	1.869021E+0	1.865707E+0	1.797951E+0	1.915932E+0	1.899125E+0	1.890692E+0	1.893175E+0	1.880319E+0	1.834471E+0	1.867026E+0	1.877617E+0	1.861262E+0	1.837059E+0	1.940308E+0	1.857431E+0	1.896228E+0	1.869421E+0	1.833091E+0	1.930495E+0	1.916636E+0	1.805210E+0	1.912928E+0	1.812687E+0	1.889528E+0	1.906961E+0	1.843377E+0	1.833265E+0	1.896021E+0	1.871848E+0	1.821096E+0	1.851950E+0	1.879190E+0	1.888543E+0	1.779831E+0	1.914589E+0	1.768756E+0
5.395210E+2	2.157592E+0	2.053049E+0	2.142177E+0	2.049878E+0	2.091237E+0	2.033211E+0	2.123496E+0	2.134931E+0	2.062680E+0	2.038842E+0	2.016589E+0	2.081738E+0	2.085403E+0	2.028508E+0	2.023424E+0	2.091029E+0	2.145000E+0	2.078827E+0	2.009077E+0	2.094146E+0	2.164266E+0	2.018870E+0	2.091256E+0	2.133383E+0	2.084713E+0	2.009759E+0	2.044508E+0	2.009156E+0	2.026805E+0	2.027986E+0	2.059856E+0	2.055304E+0	2.034812E+0	2.055603E+0	2.063502E+0	2.018032E+0	2.061590E+0	2.008136E+0	2.026009E+0	2.073318E+0	2.022273E+0	2.046690E+0	2.133730E+0	2.117452E+0	1.988254E+0	1.993217E+0	2.087309E+0	2.000312E+0	2.022956E+0	2.108132E+0	2.095112E+0	2.044933E+0	2.036024E+0	2.005170E+0	2.009470E+0	2.074209E+0	2.030653E+0	2.030540E+0	2.066313E+0	2.026031E+0	1.975825E+0	1.998693E+0	2.071521E+0	2.024774E+0	2.038046E+0	2.044024E+0	2.040092E+0	1.974169E+0	2.032138E+0	2.031100E+0	2.012256E+0	2.081445E+0	2.044166E+0	2.069960E+0	2.076091E+0	2.063173E+0	1.928063E+0	1.987382E+0	2.092336E+0	2.026827E+0	1.944294E+0	2.055377E+0	1.993753E+0	2.031854E+0	2.000055E+0	2.094099E+0	2.003743E+0	2.024365E+0	2.084538E+0	2.044043E+0	2.065185E+0	2.002359E+0	2.031042E+0	2.053203E+0	1.989181E+0	2.021226E+0	2.043277E+0	1.987725E+0	2.091053E+0	2.017878E+0	1.992107E+0	2.014685E+0	2.000505E+0	2.003680E+0	2.061948E+0	1.909843E+0	2.056738E+0	1.988846E+0	1.970984E+0	2.016374E+0	2.128129E+0	1.969748E+0	2.044576E+0	2.050496E+0	2.020374E+0	1.964812E+0	1.976062E+0	1.994005E+0	2.055449E+0	1.993528E+0	1.936938E+0	2.015850E+0	1.982891E+0	1.996225E+0	1.955780E+0	1.994095E+0	2.010221E+0	1.942409E+0	1.980234E+0	2.012547E+0	2.040475E+0	2.051669E+0	1.973288E+0	1.964606E+0	1.997513E+0	1.983233E+0	2.000621E+0	1.983438E+0	2.036126E+0	2.038912E+0	1.960626E+0	1.931561E+0	2.088835E+0	2.038019E+0	1.964556E+0	1.993167E+0	2.029116E+0	2.033194E+0	2.012293E+0	1.948390E+0	1.987941E+0	1.992718E+0	1.968579E+0	2.040514E+0	2.022016E+0	1.945860E+0	1.968348E+0	1.942685E+0	1.992439E+0	2.032551E+0	1.984951E+0	1.990832E+0	2.020872E+0	1.989937E+0	1.984847E+0	1.984195E+0	1.999057E+0	2.004705E+0	1.988262E+0	2.010208E+0	2.005604E+0
5.397970E+2	2.172350E+0	2.178958E+0	2.152400E+0	2.134944E+0	2.086456E+0	2.124713E+0	2.169541E+0	2.122831E+0	2.140843E+0	2.129817E+0	2.036187E+0	2.103626E+0	2.098599E+0	2.039050E+0	2.086646E+0	2.121619E+0	2.156412E+0	2.098759E+0	2.103744E+0	2.160856E+0	2.156514E+0	2.113983E+0	2.104719E+0	2.131050E+0	2.037924E+0	2.099992E+0	2.082872E+0	2.082891E+0	2.039280E+0	2.067871E+0	2.072961E+0	2.160004E+0	2.084327E+0	2.114317E+0	2.122500E+0	2.093934E+0	2.133913E+0	2.114740E+0	2.119471E+0	2.087394E+0	2.128139E+0	2.074940E+0	2.150631E+0	2.094132E+0	2.073763E+0	2.150037E+0	2.090958E+0	2.134189E+0	2.130136E+0	2.071768E+0	2.060576E+0	2.062726E+0	2.060931E+0	2.112846E+0	2.117267E+0	2.093076E+0	2.149961E+0	2.131633E+0	2.170479E+0	2.070401E+0	2.040399E+0	2.050658E+0	2.107439E+0	2.086695E+0	2.053330E+0	2.083728E+0	2.041222E+0	2.098014E+0	2.042384E+0	2.141845E+0	2.055569E+0	2.106192E+0	2.066507E+0	2.061738E+0	2.133320E+0	2.090608E+0	2.002348E+0	2.069820E+0	2.139098E+0	2.089155E+0	2.030610E+0	2.079667E+0	2.098246E+0	2.072329E+0	2.031032E+0	2.104446E+0	2.064627E+0	2.089920E+0	2.064544E+0	2.018653E+0	2.097366E+0	2.085545E+0	2.027118E+0	2.119465E+0	2.125509E+0	2.088659E+0	2.075026E+0	2.008106E+0	2.087805E+0	2.073164E+0	2.081211E+0	2.080661E+0	2.094541E+0	2.009921E+0	2.010632E+0	2.069527E+0	2.129791E+0	2.006537E+0	1.976029E+0	2.045490E+0	2.176950E+0	2.029230E+0	2.065014E+0	2.027381E+0	2.046075E+0	2.040815E+0	2.113620E+0	2.054398E+0	2.072007E+0	2.032844E+0	2.083001E+0	1.969492E+0	2.099742E+0	2.061731E+0	2.099274E+0	2.028189E+0	2.083850E+0	2.039700E+0	2.006800E+0	2.013995E+0	2.028736E+0	2.019569E+0	2.047341E+0	2.004948E+0	2.047393E+0	2.084820E+0	2.048990E+0	2.015270E+0	2.030770E+0	2.072932E+0	2.012055E+0	2.081174E+0	2.083308E+0	1.939129E+0	1.993782E+0	2.101524E+0	2.066698E+0	2.037646E+0	2.072662E+0	1.963152E+0	2.081670E+0	1.982656E+0	2.022664E+0	2.097232E+0	2.062141E+0	2.017600E+0	2.009669E+0	2.008373E+0	2.105283E+0	2.043306E+0	1.971128E+0	2.063247E+0	2.006375E+0	2.089401E+0	2.019644E+0	2.144573E+0	2.071377E+0	2.044438E+0	1.963754E+0	2.035252E+0	2.137394E+0
5.400240E+2	2.095309E+0	2.051413E+0	2.100637E+0	2.094680E+0	2.017131E+0	2.071511E+0	2.095681E+0	2.063633E+0	2.082982E+0	2.134076E+0	2.019197E+0	2.077981E+0	2.091397E+0	2.042992E+0	2.066898E+0	2.119875E+0	2.135591E+0	2.090723E+0	2.082171E+0	2.079338E+0	2.134360E+0	2.005990E+0	2.101324E+0	2.066041E+0	1.992328E+0	1.988827E+0	2.087502E+0	2.086893E+0	2.112412E+0	2.018244E+0	2.022834E+0	2.098354E+0	2.066224E+0	2.102651E+0	2.088018E+0	2.074241E+0	1.984022E+0	2.057576E+0	2.116811E+0	2.028278E+0	2.090141E+0	2.029346E+0	2.061596E+0	2.069110E+0	1.981707E+0	2.086529E+0	2.044351E+0	2.070416E+0	2.137353E+0	1.998960E+0	2.070957E+0	2.053061E+0	1.939537E+0	2.100035E+0	2.088509E+0	2.065948E+0	2.048180E+0	2.062967E+0	2.018609E+0	2.045063E+0	2.047170E+0	2.060252E+0	2.015865E+0	2.039111E+0	1.996971E+0	2.042635E+0	2.030005E+0	2.066654E+0	2.041838E+0	2.100817E+0	2.055254E+0	2.085453E+0	2.067316E+0	2.035663E+0	2.029902E+0	2.028192E+0	1.964402E+0	2.021960E+0	2.102745E+0	2.054286E+0	2.053572E+0	2.037752E+0	2.051541E+0	2.036429E+0	2.019938E+0	2.004669E+0	2.077276E+0	2.001269E+0	2.094098E+0	1.968595E+0	2.020099E+0	1.974850E+0	1.977257E+0	2.079132E+0	2.008837E+0	2.008935E+0	2.071744E+0	2.030303E+0	2.091636E+0	1.994567E+0	2.030172E+0	2.039780E+0	2.067561E+0	1.985191E+0	2.042636E+0	1.999171E+0	2.056870E+0	1.977710E+0	1.942199E+0	2.027735E+0	2.058060E+0	1.929361E+0	1.976336E+0	2.005902E+0	2.051952E+0	2.005147E+0	2.005803E+0	2.025938E+0	1.999475E+0	2.048765E+0	2.020488E+0	1.964468E+0	2.098901E+0	2.018877E+0	1.977293E+0	1.990576E+0	2.085267E+0	1.974387E+0	1.960792E+0	1.973873E+0	2.015814E+0	2.013073E+0	2.018531E+0	1.977718E+0	2.006341E+0	1.980950E+0	2.052246E+0	1.985407E+0	2.113009E+0	2.067605E+0	1.952801E+0	1.980048E+0	2.037422E+0	1.933613E+0	2.022748E+0	2.005891E+0	2.070606E+0	1.960531E+0	1.974415E+0	1.962508E+0	2.034927E+0	1.986715E+0	1.992410E+0	1.995085E+0	2.040980E+0	2.005539E+0	1.989296E+0	1.958417E+0	1.938818E+0	2.048596E+0	1.978771E+0	2.002120E+0	1.932284E+0	2.078496E+0	1.967621E+0	2.055338E+0	1.991151E+0	2.006549E+0	1.919734E+0	1.953801E+0	1.998599E+0
5.402790E+2	1.916484E+0	1.944553E+0	1.913805E+0	1.922187E+0	1.961819E+0	1.914691E+0	1.920334E+0	1.925017E+0	1.958497E+0	1.924284E+0	1.924803E+0	1.936749E+0	1.993022E+0	1.926017E+0	1.898941E+0	1.948419E+0	1.906680E+0	1.960546E+0	1.849345E+0	1.932009E+0	1.896629E+0	1.934051E+0	1.947373E+0	1.938174E+0	1.968458E+0	1.953043E+0	1.945688E+0	1.957020E+0	1.895674E+0	1.920062E+0	1.886102E+0	1.887365E+0	1.939885E+0	1.971554E+0	1.922172E+0	1.888974E+0	1.957466E+0	1.988906E+0	1.944039E+0	1.971943E+0	1.914112E+0	1.929171E+0	1.904750E+0	1.976170E+0	1.933581E+0	1.939554E+0	1.887084E+0	1.973584E+0	1.983916E+0	1.906342E+0	1.931700E+0	1.905640E+0	1.855584E+0	1.964263E+0	1.936431E+0	1.901925E+0	1.943049E+0	1.901939E+0	1.952199E+0	1.905511E+0	1.905831E+0	1.927273E+0	1.935687E+0	1.914215E+0	1.916573E+0	1.904129E+0	1.899914E+0	1.979869E+0	1.896126E+0	1.902015E+0	1.912289E+0	1.986928E+0	1.919626E+0	1.928732E+0	1.926096E+0	1.975595E+0	1.853849E+0	1.927947E+0	1.883119E+0	1.904595E+0	1.894729E+0	1.889795E+0	1.898671E+0	1.964850E+0	1.931685E+0	1.854412E+0	1.939334E+0	1.882938E+0	1.901232E+0	1.851094E+0	1.863780E+0	1.954668E+0	1.880965E+0	1.934503E+0	1.894787E+0	1.934100E+0	1.908698E+0	1.928388E+0	1.920216E+0	1.947469E+0	1.896256E+0	1.895338E+0	1.885037E+0	1.869313E+0	1.952229E+0	1.942516E+0	1.932657E+0	1.833502E+0	1.887315E+0	1.964762E+0	1.941676E+0	1.900400E+0	1.907734E+0	1.879064E+0	1.836309E+0	1.839240E+0	1.870628E+0	1.867484E+0	1.909094E+0	1.858291E+0	1.857331E+0	1.819905E+0	1.900631E+0	1.834270E+0	1.921656E+0	1.888149E+0	1.918440E+0	1.866206E+0	1.915968E+0	1.893873E+0	1.885063E+0	1.824987E+0	1.896065E+0	1.901288E+0	1.855397E+0	1.952205E+0	1.860091E+0	1.852892E+0	1.860469E+0	1.904710E+0	1.832878E+0	1.879571E+0	1.876143E+0	1.867980E+0	1.835310E+0	1.960413E+0	1.897848E+0	1.877092E+0	1.863064E+0	1.858210E+0	1.958763E+0	1.856020E+0	1.806135E+0	1.884432E+0	1.961691E+0	1.882137E+0	1.912496E+0	1.826132E+0	1.913091E+0	1.918521E+0	1.862163E+0	1.877585E+0	1.864506E+0	1.884166E+0	1.826608E+0	1.926947E+0	1.867233E+0	1.881810E+0	1.789362E+0	1.937578E+0	1.892954E+0
5.405020E+2	1.882291E+0	1.792309E+0	1.855426E+0	1.803327E+0	1.838922E+0	1.840944E+0	1.808529E+0	1.797261E+0	1.855490E+0	1.827884E+0	1.857405E+0	1.848834E+0	1.806492E+0	1.837799E+0	1.847957E+0	1.842839E+0	1.832924E+0	1.861234E+0	1.814120E+0	1.827569E+0	1.865404E+0	1.853075E+0	1.859906E+0	1.920549E+0	1.834167E+0	1.814377E+0	1.800391E+0	1.823620E+0	1.761249E+0	1.790816E+0	1.803993E+0	1.834521E+0	1.784797E+0	1.878211E+0	1.828744E+0	1.878860E+0	1.867134E+0	1.824739E+0	1.836678E+0	1.849627E+0	1.824682E+0	1.814288E+0	1.847002E+0	1.835318E+0	1.770668E+0	1.801564E+0	1.815875E+0	1.890141E+0	1.796972E+0	1.815316E+0	1.822587E+0	1.869693E+0	1.812605E+0	1.862732E+0	1.832319E+0	1.857435E+0	1.836686E+0	1.860166E+0	1.850076E+0	1.854192E+0	1.826285E+0	1.834048E+0	1.828763E+0	1.831323E+0	1.765844E+0	1.836002E+0	1.813553E+0	1.892840E+0	1.841153E+0	1.781881E+0	1.811809E+0	1.813273E+0	1.741537E+0	1.823531E+0	1.799318E+0	1.937289E+0	1.794523E+0	1.787445E+0	1.836337E+0	1.831920E+0	1.747465E+0	1.807966E+0	1.837500E+0	1.790462E+0	1.832845E+0	1.808743E+0	1.820138E+0	1.836288E+0	1.851936E+0	1.784898E+0	1.803852E+0	1.856342E+0	1.848989E+0	1.788413E+0	1.800154E+0	1.846498E+0	1.817269E+0	1.815992E+0	1.861384E+0	1.801189E+0	1.764233E+0	1.803647E+0	1.800871E+0	1.750414E+0	1.822156E+0	1.762692E+0	1.789453E+0	1.800915E+0	1.820887E+0	1.804889E+0	1.806730E+0	1.835576E+0	1.823418E+0	1.869473E+0	1.792407E+0	1.748948E+0	1.827901E+0	1.803073E+0	1.779563E+0	1.792546E+0	1.775321E+0	1.795110E+0	1.780392E+0	1.783132E+0	1.772526E+0	1.813452E+0	1.832289E+0	1.823447E+0	1.801804E+0	1.748866E+0	1.764684E+0	1.750761E+0	1.772314E+0	1.801073E+0	1.758464E+0	1.774958E+0	1.877231E+0	1.732927E+0	1.767084E+0	1.874712E+0	1.739317E+0	1.811335E+0	1.822168E+0	1.812892E+0	1.712496E+0	1.735795E+0	1.828868E+0	1.806088E+0	1.811223E+0	1.769423E+0	1.778087E+0	1.760050E+0	1.786562E+0	1.839733E+0	1.858239E+0	1.731744E+0	1.803270E+0	1.795374E+0	1.831455E+0	1.808243E+0	1.783929E+0	1.791399E+0	1.743730E+0	1.766589E+0	1.809056E+0	1.789559E+0	1.791773E+0	1.781641E+0	1.706084E+0	1.882748E+0	1.714735E+0
5.407740E+2	1.736175E+0	1.730277E+0	1.800693E+0	1.759494E+0	1.760429E+0	1.728611E+0	1.810080E+0	1.753017E+0	1.650918E+0	1.742646E+0	1.764431E+0	1.755224E+0	1.711498E+0	1.747734E+0	1.742107E+0	1.823995E+0	1.802684E+0	1.777176E+0	1.753758E+0	1.776080E+0	1.704411E+0	1.760972E+0	1.789465E+0	1.784528E+0	1.750670E+0	1.687839E+0	1.722207E+0	1.764401E+0	1.695587E+0	1.679810E+0	1.698305E+0	1.735322E+0	1.741711E+0	1.824271E+0	1.702619E+0	1.714160E+0	1.707691E+0	1.698361E+0	1.706501E+0	1.738638E+0	1.730266E+0	1.729967E+0	1.770559E+0	1.761260E+0	1.757956E+0	1.760001E+0	1.740474E+0	1.797165E+0	1.764340E+0	1.752568E+0	1.750070E+0	1.736214E+0	1.709415E+0	1.788115E+0	1.764595E+0	1.716502E+0	1.674225E+0	1.676097E+0	1.673816E+0	1.671578E+0	1.739813E+0	1.702627E+0	1.706455E+0	1.737863E+0	1.747946E+0	1.763462E+0	1.720000E+0	1.769764E+0	1.823524E+0	1.750516E+0	1.713734E+0	1.741415E+0	1.693862E+0	1.683473E+0	1.690932E+0	1.761020E+0	1.693832E+0	1.724815E+0	1.734491E+0	1.750467E+0	1.692146E+0	1.747520E+0	1.740632E+0	1.760826E+0	1.637974E+0	1.728586E+0	1.758351E+0	1.714277E+0	1.750197E+0	1.774604E+0	1.649868E+0	1.807872E+0	1.698413E+0	1.693960E+0	1.698439E+0	1.754604E+0	1.700784E+0	1.737322E+0	1.671181E+0	1.704958E+0	1.712439E+0	1.749217E+0	1.728949E+0	1.640122E+0	1.692797E+0	1.676086E+0	1.755534E+0	1.689691E+0	1.668572E+0	1.777576E+0	1.772119E+0	1.681672E+0	1.710241E+0	1.736579E+0	1.657492E+0	1.724214E+0	1.649073E+0	1.656412E+0	1.717862E+0	1.682846E+0	1.703644E+0	1.704014E+0	1.663318E+0	1.692625E+0	1.636387E+0	1.685789E+0	1.724255E+0	1.700927E+0	1.716281E+0	1.683413E+0	1.627515E+0	1.710386E+0	1.746318E+0	1.717928E+0	1.697902E+0	1.678843E+0	1.691050E+0	1.669955E+0	1.784111E+0	1.641524E+0	1.708745E+0	1.720253E+0	1.676050E+0	1.654106E+0	1.689579E+0	1.703463E+0	1.712333E+0	1.715124E+0	1.712392E+0	1.689361E+0	1.745271E+0	1.719365E+0	1.610229E+0	1.767889E+0	1.666909E+0	1.648416E+0	1.666213E+0	1.668647E+0	1.654189E+0	1.724681E+0	1.666017E+0	1.667196E+0	1.689843E+0	1.703343E+0	1.654739E+0	1.760556E+0	1.698285E+0	1.683299E+0	1.631531E+0	1.710684E+0	1.665759E+0
5.410190E+2	1.733147E+0	1.720478E+0	1.702796E+0	1.682392E+0	1.684877E+0	1.689594E+0	1.693053E+0	1.718809E+0	1.706553E+0	1.634403E+0	1.672677E+0	1.729121E+0	1.729478E+0	1.676858E+0	1.726313E+0	1.720688E+0	1.707091E+0	1.724723E+0	1.716215E+0	1.689279E+0	1.748589E+0	1.680442E+0	1.745182E+0	1.747673E+0	1.686497E+0	1.703924E+0	1.734506E+0	1.709943E+0	1.652713E+0	1.666560E+0	1.665575E+0	1.725618E+0	1.614253E+0	1.675139E+0	1.715869E+0	1.775764E+0	1.627153E+0	1.707994E+0	1.728707E+0	1.687829E+0	1.674545E+0	1.722690E+0	1.698443E+0	1.776425E+0	1.652584E+0	1.741583E+0	1.660321E+0	1.718549E+0	1.708425E+0	1.667633E+0	1.704369E+0	1.619846E+0	1.666289E+0	1.673023E+0	1.624086E+0	1.724749E+0	1.639582E+0	1.616376E+0	1.729392E+0	1.690840E+0	1.651533E+0	1.719358E+0	1.729906E+0	1.726704E+0	1.647473E+0	1.683837E+0	1.607917E+0	1.679833E+0	1.737955E+0	1.722196E+0	1.688595E+0	1.695658E+0	1.696504E+0	1.680762E+0	1.675809E+0	1.708095E+0	1.664000E+0	1.648008E+0	1.715493E+0	1.725422E+0	1.665882E+0	1.673091E+0	1.741751E+0	1.671133E+0	1.637666E+0	1.695887E+0	1.691758E+0	1.651197E+0	1.747077E+0	1.665108E+0	1.699270E+0	1.689465E+0	1.632518E+0	1.700116E+0	1.658662E+0	1.689045E+0	1.666574E+0	1.693698E+0	1.651243E+0	1.666148E+0	1.743842E+0	1.674024E+0	1.664714E+0	1.647280E+0	1.728836E+0	1.639052E+0	1.706716E+0	1.681829E+0	1.598032E+0	1.668612E+0	1.664053E+0	1.725085E+0	1.698760E+0	1.664536E+0	1.627822E+0	1.610651E+0	1.734748E+0	1.681260E+0	1.676778E+0	1.645668E+0	1.650649E+0	1.579255E+0	1.698646E+0	1.674682E+0	1.649969E+0	1.641944E+0	1.681695E+0	1.672549E+0	1.690821E+0	1.641245E+0	1.640876E+0	1.687871E+0	1.706507E+0	1.669649E+0	1.709745E+0	1.674384E+0	1.722216E+0	1.647958E+0	1.672079E+0	1.671077E+0	1.635980E+0	1.697670E+0	1.627955E+0	1.668088E+0	1.636690E+0	1.630535E+0	1.697206E+0	1.650339E+0	1.686253E+0	1.620966E+0	1.688044E+0	1.594098E+0	1.696337E+0	1.710311E+0	1.634848E+0	1.697832E+0	1.644158E+0	1.646995E+0	1.648825E+0	1.695718E+0	1.615523E+0	1.680784E+0	1.658369E+0	1.645574E+0	1.662752E+0	1.684072E+0	1.646369E+0	1.729985E+0	1.708783E+0	1.651739E+0	1.617334E+0
5.412790E+2	1.648318E+0	1.640011E+0	1.607164E+0	1.694022E+0	1.602595E+0	1.595813E+0	1.640471E+0	1.644333E+0	1.597018E+0	1.636261E+0	1.618890E+0	1.592353E+0	1.607853E+0	1.593919E+0	1.553086E+0	1.671705E+0	1.640609E+0	1.629995E+0	1.589779E+0	1.640819E+0	1.658124E+0	1.608774E+0	1.600301E+0	1.613855E+0	1.624158E+0	1.576362E+0	1.580442E+0	1.635332E+0	1.598018E+0	1.552362E+0	1.616051E+0	1.567703E+0	1.565155E+0	1.611661E+0	1.612958E+0	1.639941E+0	1.613672E+0	1.666389E+0	1.571092E+0	1.561191E+0	1.626623E+0	1.559804E+0	1.638879E+0	1.582258E+0	1.527611E+0	1.595652E+0	1.587459E+0	1.643377E+0	1.535034E+0	1.617697E+0	1.588562E+0	1.616538E+0	1.581446E+0	1.638363E+0	1.608660E+0	1.630922E+0	1.655140E+0	1.580860E+0	1.591606E+0	1.575215E+0	1.622554E+0	1.685877E+0	1.615740E+0	1.643344E+0	1.570464E+0	1.625498E+0	1.524145E+0	1.586700E+0	1.610439E+0	1.670918E+0	1.604873E+0	1.608283E+0	1.524888E+0	1.576517E+0	1.548971E+0	1.611915E+0	1.517243E+0	1.597931E+0	1.594983E+0	1.602839E+0	1.566725E+0	1.618514E+0	1.613354E+0	1.614154E+0	1.560513E+0	1.663712E+0	1.588242E+0	1.579627E+0	1.605721E+0	1.570940E+0	1.583702E+0	1.645787E+0	1.567408E+0	1.579286E+0	1.561302E+0	1.583362E+0	1.585086E+0	1.536926E+0	1.510508E+0	1.597650E+0	1.639274E+0	1.604077E+0	1.573352E+0	1.571446E+0	1.609583E+0	1.554455E+0	1.626326E+0	1.567846E+0	1.584703E+0	1.571219E+0	1.590030E+0	1.613619E+0	1.614933E+0	1.585146E+0	1.560595E+0	1.562190E+0	1.651795E+0	1.574992E+0	1.624113E+0	1.558120E+0	1.587770E+0	1.542305E+0	1.593345E+0	1.587632E+0	1.557365E+0	1.575167E+0	1.553596E+0	1.587187E+0	1.578553E+0	1.594172E+0	1.518299E+0	1.535641E+0	1.644200E+0	1.619275E+0	1.585327E+0	1.583436E+0	1.579363E+0	1.599825E+0	1.574160E+0	1.635775E+0	1.557194E+0	1.584316E+0	1.547539E+0	1.577049E+0	1.613772E+0	1.578151E+0	1.540491E+0	1.620483E+0	1.613270E+0	1.551650E+0	1.618141E+0	1.564719E+0	1.572602E+0	1.617198E+0	1.582562E+0	1.613966E+0	1.531721E+0	1.569838E+0	1.538678E+0	1.595468E+0	1.603117E+0	1.594847E+0	1.589762E+0	1.558803E+0	1.612973E+0	1.631679E+0	1.561335E+0	1.573243E+0	1.500297E+0	1.639047E+0	1.531790E+0
5.415190E+2	1.409543E+0	1.448742E+0	1.468166E+0	1.408062E+0	1.382743E+0	1.349763E+0	1.461558E+0	1.489032E+0	1.347347E+0	1.418843E+0	1.392960E+0	1.412249E+0	1.395637E+0	1.411729E+0	1.394215E+0	1.432407E+0	1.456357E+0	1.429770E+0	1.449521E+0	1.449135E+0	1.414556E+0	1.403332E+0	1.466933E+0	1.462799E+0	1.380339E+0	1.391747E+0	1.423435E+0	1.455647E+0	1.420606E+0	1.359215E+0	1.395909E+0	1.399149E+0	1.433504E+0	1.427455E+0	1.452492E+0	1.410709E+0	1.458026E+0	1.431731E+0	1.423443E+0	1.422859E+0	1.430792E+0	1.385106E+0	1.413765E+0	1.379312E+0	1.394993E+0	1.398469E+0	1.364777E+0	1.457056E+0	1.426416E+0	1.375959E+0	1.392465E+0	1.479857E+0	1.402386E+0	1.413952E+0	1.397300E+0	1.444013E+0	1.426990E+0	1.450668E+0	1.464966E+0	1.396307E+0	1.407624E+0	1.380296E+0	1.464791E+0	1.403216E+0	1.403037E+0	1.415748E+0	1.414710E+0	1.435759E+0	1.474875E+0	1.415246E+0	1.378239E+0	1.461486E+0	1.416171E+0	1.408385E+0	1.404287E+0	1.426513E+0	1.392860E+0	1.412338E+0	1.436195E+0	1.388872E+0	1.396668E+0	1.452695E+0	1.425058E+0	1.476130E+0	1.414213E+0	1.390809E+0	1.427645E+0	1.388287E+0	1.392085E+0	1.386366E+0	1.441977E+0	1.382560E+0	1.365284E+0	1.440924E+0	1.368987E+0	1.466613E+0	1.401831E+0	1.362232E+0	1.451847E+0	1.437301E+0	1.360696E+0	1.366052E+0	1.391111E+0	1.367155E+0	1.440590E+0	1.383845E+0	1.428687E+0	1.400168E+0	1.399252E+0	1.371546E+0	1.396622E+0	1.407023E+0	1.432618E+0	1.428086E+0	1.357477E+0	1.418020E+0	1.388360E+0	1.429149E+0	1.424856E+0	1.378975E+0	1.414943E+0	1.343078E+0	1.376620E+0	1.408246E+0	1.406260E+0	1.411461E+0	1.395708E+0	1.393156E+0	1.393753E+0	1.380633E+0	1.393471E+0	1.383801E+0	1.398943E+0	1.392712E+0	1.375696E+0	1.349561E+0	1.361905E+0	1.369255E+0	1.408297E+0	1.422508E+0	1.405417E+0	1.403331E+0	1.402789E+0	1.365174E+0	1.416405E+0	1.444493E+0	1.400880E+0	1.360149E+0	1.427912E+0	1.374452E+0	1.385127E+0	1.384492E+0	1.390717E+0	1.438882E+0	1.400940E+0	1.406465E+0	1.347493E+0	1.427918E+0	1.386860E+0	1.451785E+0	1.355906E+0	1.414446E+0	1.381772E+0	1.381964E+0	1.401263E+0	1.391518E+0	1.411297E+0	1.444260E+0	1.380468E+0	1.502215E+0	1.397711E+0
5.417700E+2	1.261689E+0	1.235711E+0	1.245007E+0	1.259336E+0	1.307124E+0	1.210761E+0	1.246269E+0	1.249177E+0	1.239960E+0	1.189216E+0	1.224306E+0	1.241886E+0	1.190670E+0	1.183787E+0	1.235857E+0	1.293803E+0	1.231632E+0	1.237383E+0	1.217721E+0	1.223246E+0	1.251912E+0	1.226099E+0	1.217044E+0	1.264236E+0	1.262033E+0	1.201071E+0	1.202948E+0	1.222014E+0	1.210531E+0	1.219101E+0	1.237992E+0	1.174277E+0	1.213038E+0	1.208740E+0	1.237419E+0	1.209260E+0	1.254609E+0	1.228512E+0	1.227742E+0	1.241271E+0	1.253337E+0	1.256966E+0	1.219825E+0	1.175732E+0	1.255905E+0	1.244213E+0	1.223147E+0	1.235550E+0	1.251878E+0	1.192391E+0	1.222216E+0	1.246415E+0	1.254102E+0	1.243749E+0	1.179085E+0	1.218635E+0	1.246299E+0	1.209013E+0	1.264288E+0	1.228680E+0	1.238176E+0	1.190133E+0	1.278633E+0	1.229745E+0	1.232993E+0	1.264332E+0	1.240251E+0	1.235094E+0	1.192772E+0	1.259796E+0	1.256557E+0	1.230205E+0	1.231947E+0	1.219524E+0	1.208345E+0	1.271058E+0	1.261138E+0	1.223525E+0	1.194893E+0	1.232397E+0	1.281653E+0	1.242526E+0	1.286942E+0	1.188302E+0	1.229997E+0	1.287734E+0	1.243529E+0	1.209008E+0	1.263093E+0	1.191064E+0	1.238961E+0	1.259571E+0	1.228256E+0	1.241322E+0	1.215013E+0	1.262586E+0	1.219495E+0	1.182799E+0	1.218126E+0	1.219515E+0	1.246163E+0	1.213351E+0	1.254976E+0	1.203528E+0	1.180545E+0	1.222041E+0	1.229839E+0	1.193208E+0	1.217687E+0	1.266743E+0	1.250463E+0	1.157748E+0	1.265876E+0	1.267787E+0	1.186481E+0	1.171598E+0	1.241708E+0	1.172200E+0	1.173337E+0	1.165388E+0	1.196483E+0	1.220536E+0	1.212745E+0	1.245511E+0	1.212525E+0	1.235540E+0	1.227359E+0	1.231679E+0	1.174281E+0	1.183917E+0	1.200478E+0	1.243484E+0	1.178259E+0	1.230993E+0	1.183609E+0	1.241063E+0	1.190809E+0	1.229363E+0	1.266376E+0	1.250241E+0	1.207969E+0	1.205256E+0	1.236812E+0	1.246368E+0	1.241618E+0	1.234425E+0	1.240487E+0	1.192926E+0	1.238285E+0	1.234891E+0	1.224329E+0	1.206653E+0	1.236609E+0	1.212416E+0	1.209754E+0	1.267549E+0	1.223055E+0	1.166186E+0	1.254873E+0	1.251427E+0	1.236167E+0	1.219613E+0	1.208425E+0	1.278335E+0	1.210667E+0	1.238345E+0	1.215719E+0	1.242773E+0	1.255297E+0	1.222246E+0	1.239907E+0
5.420210E+2	1.092047E+0	1.034808E+0	1.103729E+0	1.124004E+0	1.063737E+0	1.048007E+0	1.102459E+0	1.048378E+0	1.077706E+0	1.084381E+0	1.075308E+0	1.075921E+0	1.069639E+0	1.073169E+0	1.036627E+0	1.106915E+0	1.079269E+0	1.075632E+0	1.009934E+0	1.038041E+0	1.083639E+0	1.080149E+0	1.073144E+0	1.121450E+0	1.087726E+0	1.012016E+0	1.088505E+0	1.101007E+0	1.075979E+0	1.067510E+0	1.049852E+0	1.098506E+0	1.073340E+0	1.104322E+0	1.045284E+0	1.088951E+0	1.052473E+0	1.088148E+0	1.054624E+0	1.105389E+0	1.058444E+0	1.047528E+0	1.047948E+0	1.067294E+0	1.031918E+0	1.118131E+0	1.071735E+0	1.100809E+0	1.132594E+0	1.088540E+0	1.092716E+0	1.041426E+0	1.051298E+0	1.092132E+0	1.074514E+0	1.086264E+0	1.102286E+0	1.019608E+0	1.011168E+0	1.061106E+0	1.066501E+0	1.111954E+0	1.056389E+0	1.030242E+0	1.043875E+0	1.118172E+0	1.028421E+0	1.099275E+0	1.100569E+0	1.093270E+0	1.067765E+0	1.098355E+0	1.091229E+0	1.074437E+0	1.104463E+0	1.061820E+0	1.025840E+0	1.041639E+0	1.034953E+0	1.037115E+0	1.100277E+0	1.067137E+0	1.091028E+0	1.070853E+0	1.095199E+0	1.087684E+0	1.143732E+0	1.076377E+0	1.087601E+0	1.061020E+0	1.089991E+0	1.062894E+0	1.115566E+0	1.106359E+0	1.061825E+0	1.064239E+0	1.071376E+0	1.102584E+0	1.101257E+0	1.021949E+0	1.104128E+0	1.102422E+0	1.059046E+0	1.041354E+0	1.097348E+0	1.051739E+0	1.089926E+0	1.086361E+0	1.060414E+0	1.123275E+0	1.063712E+0	1.083652E+0	1.071343E+0	1.083293E+0	1.061769E+0	1.076024E+0	1.092031E+0	1.051864E+0	1.101939E+0	1.048083E+0	1.050810E+0	1.028465E+0	1.075958E+0	1.017459E+0	1.024966E+0	1.085916E+0	1.097684E+0	1.035523E+0	1.102740E+0	1.045291E+0	1.102135E+0	1.088883E+0	1.085157E+0	1.029469E+0	1.039708E+0	1.071195E+0	1.052533E+0	1.066044E+0	1.086950E+0	1.076713E+0	1.090795E+0	1.106927E+0	1.107752E+0	1.068660E+0	1.061753E+0	1.048573E+0	1.092050E+0	1.069639E+0	1.084191E+0	1.037065E+0	1.079405E+0	1.040167E+0	1.066111E+0	1.122651E+0	1.064561E+0	1.083597E+0	1.023611E+0	1.057406E+0	1.113677E+0	1.114949E+0	1.045005E+0	1.076937E+0	1.076995E+0	1.078877E+0	1.064525E+0	1.071787E+0	1.098625E+0	1.086670E+0	1.030901E+0	1.030057E+0	1.055597E+0
5.422730E+2	9.822056E-1	9.837238E-1	9.619056E-1	9.729567E-1	9.508198E-1	1.023029E+0	9.826771E-1	9.640244E-1	9.780659E-1	9.599722E-1	9.793346E-1	9.350131E-1	9.824052E-1	9.409055E-1	9.728983E-1	9.960162E-1	9.921991E-1	9.843320E-1	9.255862E-1	9.582073E-1	1.006039E+0	9.839083E-1	9.484667E-1	1.007851E+0	1.002689E+0	1.002085E+0	9.918197E-1	9.985545E-1	9.439101E-1	9.835011E-1	9.478031E-1	1.000930E+0	9.991956E-1	1.020873E+0	1.011175E+0	9.600466E-1	9.820819E-1	9.985230E-1	9.739427E-1	9.783487E-1	9.867714E-1	9.789433E-1	9.569674E-1	1.028952E+0	9.471111E-1	9.860689E-1	9.691908E-1	9.574992E-1	9.661879E-1	9.605048E-1	1.033244E+0	9.463514E-1	9.775513E-1	9.802124E-1	9.573045E-1	9.835134E-1	9.711559E-1	9.068163E-1	9.517225E-1	9.727474E-1	9.978729E-1	9.999919E-1	9.941722E-1	9.514566E-1	1.011209E+0	9.886882E-1	9.738908E-1	9.821873E-1	9.927068E-1	9.952510E-1	9.767394E-1	9.961355E-1	9.726982E-1	9.723309E-1	9.303723E-1	1.005062E+0	9.869216E-1	1.003312E+0	1.005699E+0	9.425392E-1	1.029452E+0	9.779386E-1	9.922085E-1	9.895689E-1	9.616408E-1	9.797715E-1	9.825226E-1	9.697785E-1	1.040123E+0	9.774884E-1	9.714948E-1	9.733762E-1	9.618814E-1	1.034881E+0	9.903422E-1	9.324063E-1	9.283343E-1	9.971645E-1	9.633291E-1	9.840867E-1	1.032313E+0	9.777803E-1	9.392718E-1	9.535679E-1	9.468832E-1	9.814496E-1	9.859793E-1	9.719419E-1	9.408809E-1	9.750137E-1	9.647999E-1	9.837984E-1	9.678051E-1	9.297215E-1	9.221471E-1	9.622322E-1	9.632455E-1	9.704162E-1	9.698383E-1	9.968132E-1	9.582786E-1	9.783960E-1	9.601932E-1	9.888135E-1	9.988048E-1	9.719113E-1	9.497656E-1	9.759238E-1	1.001341E+0	9.934146E-1	9.937306E-1	9.712850E-1	9.757202E-1	9.719175E-1	9.989285E-1	9.756257E-1	9.983598E-1	9.589306E-1	9.727826E-1	1.018135E+0	9.521432E-1	9.913680E-1	9.678537E-1	9.694100E-1	9.795109E-1	1.011469E+0	1.022664E+0	9.167598E-1	1.001260E+0	9.943400E-1	9.475003E-1	9.854825E-1	9.711520E-1	9.719383E-1	9.572547E-1	9.756100E-1	9.521250E-1	9.668624E-1	1.016183E+0	1.001709E+0	9.662741E-1	9.953646E-1	9.769132E-1	1.012744E+0	9.754591E-1	9.673287E-1	9.862159E-1	1.001201E+0	9.275762E-1	9.778530E-1	8.804772E-1
5.425190E+2	9.928481E-1	9.540307E-1	9.533609E-1	9.253503E-1	9.466152E-1	9.374048E-1	1.012533E+0	9.146387E-1	9.436702E-1	9.607512E-1	9.102559E-1	9.800538E-1	9.675431E-1	9.295055E-1	9.654944E-1	9.492812E-1	1.001643E+0	9.540538E-1	9.295844E-1	9.731423E-1	9.863934E-1	9.735368E-1	9.488763E-1	9.603149E-1	9.941699E-1	9.330935E-1	9.601433E-1	9.831339E-1	9.774106E-1	9.358818E-1	9.669124E-1	9.263567E-1	9.767444E-1	1.004917E+0	9.464551E-1	9.510844E-1	9.649696E-1	9.197670E-1	9.549907E-1	9.057666E-1	9.725722E-1	9.344744E-1	9.255269E-1	9.214736E-1	9.528371E-1	9.590888E-1	9.528566E-1	9.758316E-1	1.003296E+0	1.001941E+0	9.535436E-1	9.813420E-1	9.869908E-1	1.017552E+0	9.726539E-1	9.508669E-1	9.519296E-1	9.266530E-1	9.546878E-1	9.250962E-1	9.425779E-1	9.500577E-1	9.619119E-1	9.199632E-1	9.610849E-1	9.750855E-1	9.490880E-1	9.621898E-1	9.639157E-1	1.019924E+0	9.702440E-1	9.601400E-1	9.433804E-1	9.458351E-1	9.695908E-1	9.628595E-1	9.291775E-1	9.702959E-1	9.595601E-1	9.199998E-1	9.495351E-1	9.616880E-1	9.212612E-1	9.171823E-1	9.694464E-1	9.512208E-1	9.681320E-1	9.414107E-1	9.631252E-1	9.701501E-1	9.467325E-1	9.321222E-1	9.381898E-1	9.533386E-1	9.767984E-1	9.613709E-1	9.839483E-1	9.764328E-1	9.034342E-1	9.392958E-1	9.722414E-1	9.605709E-1	8.826631E-1	9.331087E-1	9.899266E-1	9.576739E-1	9.506097E-1	9.568283E-1	9.783997E-1	9.615366E-1	9.315091E-1	9.390762E-1	9.128429E-1	9.232667E-1	9.797584E-1	9.264568E-1	9.877030E-1	9.650716E-1	1.004280E+0	9.513662E-1	9.393570E-1	9.631982E-1	9.161252E-1	9.837498E-1	9.599939E-1	9.658903E-1	9.728953E-1	9.157001E-1	9.687653E-1	9.758284E-1	9.746776E-1	9.547831E-1	9.929910E-1	9.919455E-1	9.836164E-1	9.205211E-1	9.779913E-1	9.287199E-1	9.686685E-1	9.388610E-1	9.550930E-1	9.470379E-1	9.560917E-1	9.485855E-1	9.169710E-1	9.678528E-1	9.768573E-1	9.624806E-1	1.006171E+0	9.341947E-1	9.613503E-1	9.724863E-1	9.084086E-1	9.683614E-1	9.460246E-1	9.559337E-1	9.781846E-1	9.193728E-1	9.772155E-1	9.583962E-1	9.448874E-1	9.598994E-1	1.015255E+0	9.925845E-1	9.684307E-1	9.849263E-1	9.906757E-1	9.887937E-1	9.378816E-1	1.019401E+0	1.040933E+0
5.427650E+2	1.035616E+0	1.019347E+0	9.949338E-1	1.035490E+0	1.038039E+0	1.006924E+0	1.016016E+0	1.035347E+0	1.029123E+0	9.955319E-1	1.001465E+0	9.949171E-1	9.983089E-1	9.986305E-1	9.993472E-1	1.042056E+0	1.024003E+0	1.011061E+0	1.008134E+0	1.030951E+0	1.032936E+0	1.050036E+0	1.023881E+0	1.035604E+0	1.028162E+0	9.963261E-1	1.005603E+0	1.014838E+0	1.014020E+0	9.735348E-1	1.025323E+0	9.730551E-1	9.695503E-1	9.935131E-1	1.027938E+0	9.904342E-1	1.027854E+0	9.983222E-1	9.856977E-1	1.004137E+0	1.030765E+0	9.980769E-1	1.015173E+0	1.000968E+0	9.894049E-1	1.033010E+0	1.035243E+0	1.022920E+0	1.006205E+0	9.679763E-1	1.006883E+0	1.013314E+0	1.015037E+0	1.010635E+0	1.060331E+0	1.001732E+0	1.044946E+0	9.817708E-1	1.027283E+0	1.010468E+0	9.972577E-1	1.007789E+0	9.972427E-1	9.882995E-1	9.991084E-1	9.817193E-1	1.024869E+0	1.021883E+0	1.011945E+0	1.013830E+0	9.935687E-1	1.017069E+0	9.835855E-1	1.011586E+0	9.814955E-1	9.885525E-1	1.029864E+0	9.628088E-1	9.944312E-1	9.943260E-1	1.023121E+0	1.011863E+0	1.005571E+0	9.877989E-1	1.003723E+0	1.006937E+0	1.009914E+0	1.016843E+0	1.014189E+0	1.037604E+0	1.010310E+0	9.957596E-1	1.060127E+0	1.013553E+0	1.007457E+0	1.007628E+0	1.013087E+0	1.015390E+0	1.062415E+0	1.008001E+0	1.043374E+0	1.045604E+0	1.013741E+0	1.026754E+0	1.047007E+0	9.598823E-1	1.007852E+0	1.032909E+0	1.021253E+0	1.008275E+0	1.023820E+0	9.994043E-1	1.023116E+0	1.028937E+0	1.015823E+0	9.826600E-1	9.623920E-1	1.014919E+0	1.005134E+0	1.015355E+0	9.879734E-1	9.978101E-1	1.005813E+0	1.020052E+0	1.033882E+0	1.017669E+0	1.017147E+0	9.977652E-1	1.026737E+0	9.660007E-1	1.053195E+0	1.004206E+0	1.023066E+0	9.967572E-1	1.011325E+0	1.015948E+0	1.010552E+0	9.797212E-1	9.901521E-1	1.007088E+0	9.505287E-1	1.000671E+0	1.028562E+0	9.706194E-1	1.024969E+0	1.044538E+0	1.060530E+0	9.699514E-1	1.070182E+0	1.015971E+0	1.059528E+0	1.025879E+0	9.985480E-1	1.055797E+0	9.830084E-1	1.001108E+0	9.823842E-1	9.705772E-1	9.770611E-1	1.025367E+0	9.920535E-1	9.886107E-1	9.827034E-1	1.011587E+0	1.012862E+0	1.039124E+0	1.003483E+0	1.044871E+0	9.841235E-1	1.012226E+0	9.858930E-1
5.430070E+2	1.150375E+0	1.112054E+0	1.112481E+0	1.120511E+0	1.154796E+0	1.095267E+0	1.144143E+0	1.175709E+0	1.149339E+0	1.096673E+0	1.148016E+0	1.138096E+0	1.160422E+0	1.163311E+0	1.119847E+0	1.191032E+0	1.173014E+0	1.163880E+0	1.131971E+0	1.143872E+0	1.132272E+0	1.118145E+0	1.132673E+0	1.100055E+0	1.156544E+0	1.111191E+0	1.137933E+0	1.083133E+0	1.171788E+0	1.130248E+0	1.147989E+0	1.139164E+0	1.135640E+0	1.146312E+0	1.149335E+0	1.160594E+0	1.141677E+0	1.111090E+0	1.126292E+0	1.149873E+0	1.135177E+0	1.117598E+0	1.166104E+0	1.136367E+0	1.101974E+0	1.209499E+0	1.110522E+0	1.135901E+0	1.194016E+0	1.144568E+0	1.145242E+0	1.112604E+0	1.105451E+0	1.167424E+0	1.130647E+0	1.156633E+0	1.128379E+0	1.184356E+0	1.111268E+0	1.114590E+0	1.114759E+0	1.155764E+0	1.144597E+0	1.111059E+0	1.147908E+0	1.130374E+0	1.143851E+0	1.127405E+0	1.184554E+0	1.175861E+0	1.135114E+0	1.155412E+0	1.143127E+0	1.120115E+0	1.118105E+0	1.146616E+0	1.127007E+0	1.115082E+0	1.142959E+0	1.131952E+0	1.129640E+0	1.129540E+0	1.126043E+0	1.161791E+0	1.165488E+0	1.190058E+0	1.136104E+0	1.128704E+0	1.097762E+0	1.146414E+0	1.176363E+0	1.177564E+0	1.116639E+0	1.132637E+0	1.141836E+0	1.085913E+0	1.124237E+0	1.134669E+0	1.156499E+0	1.111194E+0	1.144323E+0	1.150569E+0	1.098852E+0	1.149779E+0	1.156668E+0	1.135746E+0	1.160912E+0	1.096549E+0	1.121963E+0	1.162243E+0	1.142932E+0	1.128532E+0	1.183703E+0	1.138507E+0	1.132180E+0	1.074310E+0	1.123540E+0	1.109084E+0	1.195615E+0	1.180827E+0	1.121809E+0	1.135817E+0	1.149764E+0	1.115475E+0	1.132415E+0	1.123602E+0	1.176229E+0	1.119991E+0	1.170927E+0	1.100568E+0	1.129190E+0	1.152411E+0	1.133667E+0	1.092195E+0	1.151255E+0	1.065346E+0	1.131183E+0	1.149377E+0	1.141645E+0	1.118072E+0	1.117248E+0	1.146543E+0	1.116239E+0	1.094018E+0	1.139187E+0	1.081368E+0	1.154194E+0	1.089725E+0	1.144119E+0	1.128443E+0	1.139195E+0	1.139173E+0	1.141112E+0	1.154169E+0	1.192337E+0	1.119165E+0	1.077345E+0	1.145046E+0	1.128787E+0	1.133882E+0	1.119251E+0	1.106967E+0	1.172137E+0	1.134861E+0	1.129750E+0	1.146824E+0	1.139051E+0	1.137974E+0	1.107942E+0	1.174118E+0	1.130694E+0
5.432960E+2	1.318744E+0	1.323532E+0	1.292248E+0	1.281510E+0	1.292010E+0	1.273142E+0	1.276949E+0	1.326023E+0	1.341897E+0	1.307204E+0	1.262756E+0	1.307189E+0	1.284535E+0	1.255044E+0	1.322226E+0	1.325687E+0	1.299586E+0	1.340374E+0	1.233522E+0	1.338666E+0	1.282207E+0	1.320186E+0	1.270401E+0	1.297962E+0	1.332756E+0	1.360289E+0	1.291054E+0	1.248588E+0	1.314489E+0	1.246764E+0	1.310436E+0	1.248374E+0	1.318336E+0	1.289511E+0	1.295044E+0	1.283636E+0	1.365461E+0	1.323653E+0	1.277636E+0	1.285640E+0	1.295345E+0	1.314275E+0	1.297611E+0	1.287459E+0	1.301877E+0	1.293275E+0	1.315493E+0	1.261375E+0	1.344194E+0	1.297176E+0	1.304145E+0	1.264841E+0	1.275382E+0	1.305433E+0	1.246511E+0	1.294761E+0	1.317056E+0	1.306323E+0	1.280423E+0	1.255813E+0	1.265106E+0	1.295309E+0	1.255288E+0	1.250476E+0	1.291796E+0	1.295911E+0	1.276635E+0	1.305367E+0	1.289021E+0	1.303709E+0	1.241155E+0	1.300923E+0	1.260795E+0	1.263808E+0	1.234759E+0	1.324153E+0	1.256429E+0	1.287133E+0	1.292392E+0	1.331343E+0	1.325789E+0	1.299573E+0	1.267893E+0	1.304542E+0	1.253683E+0	1.285569E+0	1.277150E+0	1.311356E+0	1.344711E+0	1.255902E+0	1.316648E+0	1.304824E+0	1.252654E+0	1.315303E+0	1.272884E+0	1.280864E+0	1.269857E+0	1.245608E+0	1.287619E+0	1.220741E+0	1.262191E+0	1.236734E+0	1.271440E+0	1.262379E+0	1.300371E+0	1.275923E+0	1.257506E+0	1.269455E+0	1.286922E+0	1.332485E+0	1.350515E+0	1.245923E+0	1.345858E+0	1.278400E+0	1.267295E+0	1.216768E+0	1.290903E+0	1.254780E+0	1.322446E+0	1.240482E+0	1.242018E+0	1.276827E+0	1.279962E+0	1.267429E+0	1.285302E+0	1.234835E+0	1.299814E+0	1.270379E+0	1.301936E+0	1.273391E+0	1.268905E+0	1.278010E+0	1.302953E+0	1.281228E+0	1.249510E+0	1.283549E+0	1.310882E+0	1.242305E+0	1.276604E+0	1.313870E+0	1.261673E+0	1.303813E+0	1.300090E+0	1.266648E+0	1.286440E+0	1.260369E+0	1.308730E+0	1.283596E+0	1.352685E+0	1.253818E+0	1.297195E+0	1.283168E+0	1.303481E+0	1.272537E+0	1.271118E+0	1.246008E+0	1.308511E+0	1.237671E+0	1.270037E+0	1.276994E+0	1.303286E+0	1.298010E+0	1.273042E+0	1.338834E+0	1.260773E+0	1.256585E+0	1.344096E+0	1.301856E+0	1.326975E+0	1.283942E+0	1.275104E+0
5.435330E+2	1.422882E+0	1.485206E+0	1.472378E+0	1.494309E+0	1.472655E+0	1.475880E+0	1.460655E+0	1.414574E+0	1.450535E+0	1.488733E+0	1.461468E+0	1.488159E+0	1.483647E+0	1.444208E+0	1.438976E+0	1.478875E+0	1.467287E+0	1.469411E+0	1.429015E+0	1.451912E+0	1.502640E+0	1.435719E+0	1.482157E+0	1.438638E+0	1.500211E+0	1.445172E+0	1.488230E+0	1.479394E+0	1.403874E+0	1.406799E+0	1.416190E+0	1.452524E+0	1.494016E+0	1.520957E+0	1.379584E+0	1.489050E+0	1.454962E+0	1.421794E+0	1.445468E+0	1.469261E+0	1.432372E+0	1.425568E+0	1.449967E+0	1.487902E+0	1.420841E+0	1.478793E+0	1.426931E+0	1.409773E+0	1.492051E+0	1.458082E+0	1.461679E+0	1.450676E+0	1.425805E+0	1.488205E+0	1.408810E+0	1.465818E+0	1.440241E+0	1.441214E+0	1.424059E+0	1.434368E+0	1.483524E+0	1.445218E+0	1.443005E+0	1.387178E+0	1.450068E+0	1.493231E+0	1.396387E+0	1.424164E+0	1.476468E+0	1.466996E+0	1.469491E+0	1.451380E+0	1.474709E+0	1.421504E+0	1.383497E+0	1.462488E+0	1.434578E+0	1.413723E+0	1.430063E+0	1.458253E+0	1.437069E+0	1.467175E+0	1.419846E+0	1.432619E+0	1.403293E+0	1.442695E+0	1.447039E+0	1.420364E+0	1.491817E+0	1.422911E+0	1.383305E+0	1.407248E+0	1.403116E+0	1.460755E+0	1.454125E+0	1.429709E+0	1.435895E+0	1.424563E+0	1.486029E+0	1.472172E+0	1.504033E+0	1.456468E+0	1.442236E+0	1.427579E+0	1.451706E+0	1.442851E+0	1.413175E+0	1.411228E+0	1.426168E+0	1.430565E+0	1.459057E+0	1.452523E+0	1.479265E+0	1.421052E+0	1.398000E+0	1.392438E+0	1.481054E+0	1.387048E+0	1.444454E+0	1.465904E+0	1.427135E+0	1.424636E+0	1.467729E+0	1.453050E+0	1.426602E+0	1.402748E+0	1.408217E+0	1.415945E+0	1.412162E+0	1.393071E+0	1.430403E+0	1.434029E+0	1.471569E+0	1.491201E+0	1.466553E+0	1.415762E+0	1.386658E+0	1.437052E+0	1.474491E+0	1.375512E+0	1.446769E+0	1.472761E+0	1.413135E+0	1.433551E+0	1.466414E+0	1.442755E+0	1.474927E+0	1.446187E+0	1.448165E+0	1.387109E+0	1.422888E+0	1.425911E+0	1.412449E+0	1.489497E+0	1.447413E+0	1.409820E+0	1.425857E+0	1.370975E+0	1.386650E+0	1.415878E+0	1.484054E+0	1.431733E+0	1.405790E+0	1.404110E+0	1.426594E+0	1.424863E+0	1.457284E+0	1.397620E+0	1.392782E+0	1.446018E+0	1.479292E+0
5.437640E+2	1.546424E+0	1.532194E+0	1.610954E+0	1.580667E+0	1.553325E+0	1.543581E+0	1.687023E+0	1.546643E+0	1.563882E+0	1.497859E+0	1.508564E+0	1.552781E+0	1.599282E+0	1.554449E+0	1.503200E+0	1.590264E+0	1.531719E+0	1.590401E+0	1.527657E+0	1.589709E+0	1.581798E+0	1.589992E+0	1.601839E+0	1.588091E+0	1.559368E+0	1.580630E+0	1.576372E+0	1.585660E+0	1.578162E+0	1.583800E+0	1.597552E+0	1.527607E+0	1.608209E+0	1.602255E+0	1.580628E+0	1.586708E+0	1.515393E+0	1.581479E+0	1.558647E+0	1.548203E+0	1.567539E+0	1.589703E+0	1.581735E+0	1.488389E+0	1.576717E+0	1.587971E+0	1.599164E+0	1.540875E+0	1.547201E+0	1.558548E+0	1.586690E+0	1.533324E+0	1.557894E+0	1.588612E+0	1.578106E+0	1.573281E+0	1.560551E+0	1.550489E+0	1.600288E+0	1.471311E+0	1.525206E+0	1.550665E+0	1.579589E+0	1.522245E+0	1.525885E+0	1.554502E+0	1.535088E+0	1.525197E+0	1.488768E+0	1.608231E+0	1.521968E+0	1.522859E+0	1.558973E+0	1.532485E+0	1.528608E+0	1.554876E+0	1.503090E+0	1.557562E+0	1.568566E+0	1.587132E+0	1.526313E+0	1.558264E+0	1.499462E+0	1.530141E+0	1.559958E+0	1.594951E+0	1.579716E+0	1.595838E+0	1.534456E+0	1.523330E+0	1.563919E+0	1.538770E+0	1.561863E+0	1.645267E+0	1.539244E+0	1.548813E+0	1.537409E+0	1.487492E+0	1.589005E+0	1.515012E+0	1.522794E+0	1.550421E+0	1.483205E+0	1.555067E+0	1.528629E+0	1.540459E+0	1.560353E+0	1.543270E+0	1.550130E+0	1.545301E+0	1.582021E+0	1.541602E+0	1.530256E+0	1.549330E+0	1.532836E+0	1.463463E+0	1.598939E+0	1.509406E+0	1.527400E+0	1.547797E+0	1.528458E+0	1.510143E+0	1.509767E+0	1.590432E+0	1.619296E+0	1.556439E+0	1.553986E+0	1.546624E+0	1.499549E+0	1.521575E+0	1.539433E+0	1.457146E+0	1.520944E+0	1.501950E+0	1.594357E+0	1.569939E+0	1.552142E+0	1.521092E+0	1.558562E+0	1.495743E+0	1.517028E+0	1.577206E+0	1.537238E+0	1.478601E+0	1.547762E+0	1.573347E+0	1.524986E+0	1.548890E+0	1.563243E+0	1.512654E+0	1.568082E+0	1.461646E+0	1.535273E+0	1.525999E+0	1.551911E+0	1.479041E+0	1.540290E+0	1.483467E+0	1.550006E+0	1.532937E+0	1.558480E+0	1.578768E+0	1.515136E+0	1.519285E+0	1.564215E+0	1.606302E+0	1.567220E+0	1.558895E+0	1.529225E+0	1.610428E+0	1.546654E+0
5.440120E+2	1.667523E+0	1.615179E+0	1.676501E+0	1.663002E+0	1.632637E+0	1.696588E+0	1.676829E+0	1.662297E+0	1.604121E+0	1.589941E+0	1.678628E+0	1.651074E+0	1.651040E+0	1.605055E+0	1.620585E+0	1.673701E+0	1.666298E+0	1.684910E+0	1.689150E+0	1.698561E+0	1.675813E+0	1.636428E+0	1.699117E+0	1.682127E+0	1.580746E+0	1.614947E+0	1.621124E+0	1.663755E+0	1.646804E+0	1.577440E+0	1.653479E+0	1.591683E+0	1.579073E+0	1.637497E+0	1.618375E+0	1.637947E+0	1.637270E+0	1.666674E+0	1.615333E+0	1.693023E+0	1.643797E+0	1.635285E+0	1.635904E+0	1.628687E+0	1.649086E+0	1.606822E+0	1.649480E+0	1.586011E+0	1.625899E+0	1.651078E+0	1.646373E+0	1.603482E+0	1.582226E+0	1.730283E+0	1.619612E+0	1.637685E+0	1.655796E+0	1.641801E+0	1.607457E+0	1.634882E+0	1.593090E+0	1.653588E+0	1.647780E+0	1.618308E+0	1.666896E+0	1.662040E+0	1.629384E+0	1.619873E+0	1.648082E+0	1.644414E+0	1.603147E+0	1.596915E+0	1.624207E+0	1.655216E+0	1.581537E+0	1.697730E+0	1.623390E+0	1.626292E+0	1.634619E+0	1.611785E+0	1.618608E+0	1.613782E+0	1.627429E+0	1.616414E+0	1.684442E+0	1.661258E+0	1.641312E+0	1.697697E+0	1.670932E+0	1.601027E+0	1.618827E+0	1.650419E+0	1.680514E+0	1.645183E+0	1.559330E+0	1.608429E+0	1.639161E+0	1.579442E+0	1.668883E+0	1.633691E+0	1.695013E+0	1.612964E+0	1.610372E+0	1.625102E+0	1.606725E+0	1.587266E+0	1.555109E+0	1.602612E+0	1.601430E+0	1.627847E+0	1.663179E+0	1.641966E+0	1.642182E+0	1.576842E+0	1.589116E+0	1.589182E+0	1.642384E+0	1.595530E+0	1.610367E+0	1.619865E+0	1.591554E+0	1.601883E+0	1.610448E+0	1.636846E+0	1.674645E+0	1.626322E+0	1.604966E+0	1.578182E+0	1.552506E+0	1.589827E+0	1.603279E+0	1.597023E+0	1.686177E+0	1.587205E+0	1.642172E+0	1.648070E+0	1.616368E+0	1.597870E+0	1.624759E+0	1.596890E+0	1.603525E+0	1.615462E+0	1.582639E+0	1.578231E+0	1.608103E+0	1.629551E+0	1.623956E+0	1.619366E+0	1.622359E+0	1.638539E+0	1.624932E+0	1.620012E+0	1.586590E+0	1.578284E+0	1.631634E+0	1.554968E+0	1.640196E+0	1.647870E+0	1.568637E+0	1.600540E+0	1.664530E+0	1.658237E+0	1.611008E+0	1.627012E+0	1.625322E+0	1.618546E+0	1.645403E+0	1.605525E+0	1.530727E+0	1.582782E+0	1.580505E+0
5.442650E+2	1.645254E+0	1.650342E+0	1.704005E+0	1.652642E+0	1.649778E+0	1.695222E+0	1.668839E+0	1.657561E+0	1.599331E+0	1.641882E+0	1.625641E+0	1.668505E+0	1.632724E+0	1.588357E+0	1.640987E+0	1.645835E+0	1.608071E+0	1.646758E+0	1.658130E+0	1.610578E+0	1.628809E+0	1.633875E+0	1.641022E+0	1.622119E+0	1.677844E+0	1.610747E+0	1.690149E+0	1.660456E+0	1.610181E+0	1.606621E+0	1.592784E+0	1.612873E+0	1.590421E+0	1.662998E+0	1.666369E+0	1.563728E+0	1.615185E+0	1.589335E+0	1.629904E+0	1.620219E+0	1.516686E+0	1.634105E+0	1.719541E+0	1.606188E+0	1.612459E+0	1.662789E+0	1.659523E+0	1.636081E+0	1.642218E+0	1.670371E+0	1.620322E+0	1.605999E+0	1.575953E+0	1.685543E+0	1.622588E+0	1.556269E+0	1.622886E+0	1.623150E+0	1.655031E+0	1.635400E+0	1.577467E+0	1.631349E+0	1.638226E+0	1.667761E+0	1.552876E+0	1.652020E+0	1.621536E+0	1.660250E+0	1.593511E+0	1.619532E+0	1.637038E+0	1.691962E+0	1.600356E+0	1.630860E+0	1.602727E+0	1.659422E+0	1.584076E+0	1.591510E+0	1.675916E+0	1.645453E+0	1.629370E+0	1.584013E+0	1.660930E+0	1.636062E+0	1.593412E+0	1.671194E+0	1.611288E+0	1.582700E+0	1.661450E+0	1.627117E+0	1.619012E+0	1.648506E+0	1.586790E+0	1.590265E+0	1.541523E+0	1.556888E+0	1.536251E+0	1.658219E+0	1.616594E+0	1.598874E+0	1.622089E+0	1.683277E+0	1.554738E+0	1.562973E+0	1.604891E+0	1.615176E+0	1.582980E+0	1.587907E+0	1.582001E+0	1.633918E+0	1.691845E+0	1.589234E+0	1.640767E+0	1.658635E+0	1.558399E+0	1.609756E+0	1.579641E+0	1.610281E+0	1.581231E+0	1.606572E+0	1.559134E+0	1.571209E+0	1.531547E+0	1.604628E+0	1.589267E+0	1.593117E+0	1.588671E+0	1.545888E+0	1.617631E+0	1.588942E+0	1.650671E+0	1.612218E+0	1.611905E+0	1.629520E+0	1.662670E+0	1.615781E+0	1.571631E+0	1.628249E+0	1.624286E+0	1.618406E+0	1.598186E+0	1.589038E+0	1.607473E+0	1.568957E+0	1.614265E+0	1.561848E+0	1.629837E+0	1.575672E+0	1.605317E+0	1.602896E+0	1.646954E+0	1.579527E+0	1.655691E+0	1.606040E+0	1.530534E+0	1.568296E+0	1.574064E+0	1.544566E+0	1.586907E+0	1.650712E+0	1.596314E+0	1.621696E+0	1.623301E+0	1.629195E+0	1.583710E+0	1.645599E+0	1.606837E+0	1.617157E+0	1.533104E+0	1.619473E+0	1.596410E+0
5.445290E+2	1.577671E+0	1.537927E+0	1.590853E+0	1.636246E+0	1.553501E+0	1.649613E+0	1.543905E+0	1.597417E+0	1.487684E+0	1.569511E+0	1.537225E+0	1.563586E+0	1.528015E+0	1.560063E+0	1.515365E+0	1.633589E+0	1.592625E+0	1.575774E+0	1.574611E+0	1.536126E+0	1.517924E+0	1.619260E+0	1.627262E+0	1.563908E+0	1.549187E+0	1.540867E+0	1.530137E+0	1.525358E+0	1.570979E+0	1.538971E+0	1.536054E+0	1.532404E+0	1.569412E+0	1.579412E+0	1.551476E+0	1.553396E+0	1.516106E+0	1.606267E+0	1.566581E+0	1.588146E+0	1.542274E+0	1.573049E+0	1.571558E+0	1.553227E+0	1.557182E+0	1.640430E+0	1.603597E+0	1.607517E+0	1.540900E+0	1.592748E+0	1.555435E+0	1.605005E+0	1.501058E+0	1.646616E+0	1.553101E+0	1.565647E+0	1.528824E+0	1.549974E+0	1.621225E+0	1.501163E+0	1.514098E+0	1.596268E+0	1.577665E+0	1.557669E+0	1.535992E+0	1.562322E+0	1.574374E+0	1.530684E+0	1.557978E+0	1.560812E+0	1.523586E+0	1.581729E+0	1.519088E+0	1.478409E+0	1.590838E+0	1.573800E+0	1.546083E+0	1.568819E+0	1.503311E+0	1.576967E+0	1.558895E+0	1.540301E+0	1.560627E+0	1.562543E+0	1.557668E+0	1.573652E+0	1.595553E+0	1.535874E+0	1.612044E+0	1.556219E+0	1.553947E+0	1.525934E+0	1.524796E+0	1.580696E+0	1.542526E+0	1.585129E+0	1.564690E+0	1.556831E+0	1.519328E+0	1.541518E+0	1.585779E+0	1.570268E+0	1.493473E+0	1.507730E+0	1.572027E+0	1.508800E+0	1.617112E+0	1.533449E+0	1.505338E+0	1.517420E+0	1.543905E+0	1.530375E+0	1.537054E+0	1.627130E+0	1.587447E+0	1.510828E+0	1.564405E+0	1.560468E+0	1.565278E+0	1.556021E+0	1.505569E+0	1.561396E+0	1.598772E+0	1.555111E+0	1.521144E+0	1.539407E+0	1.533747E+0	1.560759E+0	1.544008E+0	1.527051E+0	1.584167E+0	1.561544E+0	1.525701E+0	1.576401E+0	1.603995E+0	1.575878E+0	1.524249E+0	1.570018E+0	1.566647E+0	1.562739E+0	1.479400E+0	1.507379E+0	1.566344E+0	1.497390E+0	1.558079E+0	1.568914E+0	1.551211E+0	1.448937E+0	1.578972E+0	1.531571E+0	1.590929E+0	1.593192E+0	1.510545E+0	1.571584E+0	1.526018E+0	1.569719E+0	1.550182E+0	1.493024E+0	1.542968E+0	1.587215E+0	1.562823E+0	1.568529E+0	1.486202E+0	1.551546E+0	1.534975E+0	1.590551E+0	1.559079E+0	1.524210E+0	1.494656E+0	1.604645E+0	1.606660E+0
5.447720E+2	1.497023E+0	1.514834E+0	1.498000E+0	1.511211E+0	1.463439E+0	1.517732E+0	1.544357E+0	1.482974E+0	1.474136E+0	1.522140E+0	1.466477E+0	1.536512E+0	1.515597E+0	1.491410E+0	1.487740E+0	1.570040E+0	1.556327E+0	1.563406E+0	1.483883E+0	1.519218E+0	1.464496E+0	1.501264E+0	1.547702E+0	1.521682E+0	1.507607E+0	1.460734E+0	1.449965E+0	1.563129E+0	1.466535E+0	1.467273E+0	1.509006E+0	1.523608E+0	1.458146E+0	1.536378E+0	1.553923E+0	1.496026E+0	1.445174E+0	1.555413E+0	1.517949E+0	1.526822E+0	1.487148E+0	1.513694E+0	1.493371E+0	1.498138E+0	1.471404E+0	1.531699E+0	1.445196E+0	1.491193E+0	1.490017E+0	1.504650E+0	1.539921E+0	1.529551E+0	1.456833E+0	1.534478E+0	1.474736E+0	1.517905E+0	1.498166E+0	1.518171E+0	1.480812E+0	1.498450E+0	1.494599E+0	1.497019E+0	1.504843E+0	1.537375E+0	1.474725E+0	1.508541E+0	1.508738E+0	1.526226E+0	1.487880E+0	1.521626E+0	1.520164E+0	1.477468E+0	1.478352E+0	1.479014E+0	1.479654E+0	1.558100E+0	1.427814E+0	1.446906E+0	1.529133E+0	1.478617E+0	1.509529E+0	1.494467E+0	1.475616E+0	1.545004E+0	1.419233E+0	1.515990E+0	1.525136E+0	1.543481E+0	1.479267E+0	1.440006E+0	1.506654E+0	1.465738E+0	1.471490E+0	1.492957E+0	1.484333E+0	1.491204E+0	1.513422E+0	1.475370E+0	1.534953E+0	1.533514E+0	1.477893E+0	1.493565E+0	1.528256E+0	1.486280E+0	1.483199E+0	1.467953E+0	1.524952E+0	1.522178E+0	1.416122E+0	1.527615E+0	1.540474E+0	1.525423E+0	1.549916E+0	1.506478E+0	1.466225E+0	1.430865E+0	1.517623E+0	1.494895E+0	1.475588E+0	1.485313E+0	1.481850E+0	1.478513E+0	1.509782E+0	1.459109E+0	1.455428E+0	1.439084E+0	1.497079E+0	1.495689E+0	1.495036E+0	1.467324E+0	1.504503E+0	1.435848E+0	1.446422E+0	1.470094E+0	1.437107E+0	1.549452E+0	1.469981E+0	1.490155E+0	1.468932E+0	1.511251E+0	1.485910E+0	1.468937E+0	1.479171E+0	1.448659E+0	1.443756E+0	1.486719E+0	1.469220E+0	1.445774E+0	1.469707E+0	1.445201E+0	1.563996E+0	1.462980E+0	1.459445E+0	1.544463E+0	1.509561E+0	1.454679E+0	1.429143E+0	1.453544E+0	1.487502E+0	1.525626E+0	1.484486E+0	1.516782E+0	1.455922E+0	1.476695E+0	1.477903E+0	1.521110E+0	1.521421E+0	1.493440E+0	1.478193E+0	1.460088E+0	1.479675E+0
5.450200E+2	1.415213E+0	1.400396E+0	1.471076E+0	1.423755E+0	1.429730E+0	1.419235E+0	1.509089E+0	1.423997E+0	1.449413E+0	1.488773E+0	1.432485E+0	1.396363E+0	1.461001E+0	1.413918E+0	1.404909E+0	1.473394E+0	1.409357E+0	1.490773E+0	1.407457E+0	1.446559E+0	1.453293E+0	1.468109E+0	1.440809E+0	1.469508E+0	1.415544E+0	1.404654E+0	1.451822E+0	1.444138E+0	1.450825E+0	1.404000E+0	1.401582E+0	1.401815E+0	1.456843E+0	1.425542E+0	1.402637E+0	1.388189E+0	1.384702E+0	1.454891E+0	1.420613E+0	1.444131E+0	1.393039E+0	1.462673E+0	1.455237E+0	1.480805E+0	1.399287E+0	1.474551E+0	1.425915E+0	1.439862E+0	1.430498E+0	1.482986E+0	1.490190E+0	1.453560E+0	1.368845E+0	1.459347E+0	1.428043E+0	1.417760E+0	1.400522E+0	1.434765E+0	1.501784E+0	1.459712E+0	1.380691E+0	1.447515E+0	1.446781E+0	1.372458E+0	1.422376E+0	1.421542E+0	1.463992E+0	1.433048E+0	1.405342E+0	1.484840E+0	1.428978E+0	1.405573E+0	1.360688E+0	1.395315E+0	1.362307E+0	1.463446E+0	1.477967E+0	1.401138E+0	1.448345E+0	1.397279E+0	1.454653E+0	1.422902E+0	1.442281E+0	1.400494E+0	1.422686E+0	1.480627E+0	1.465937E+0	1.406996E+0	1.386879E+0	1.470435E+0	1.416260E+0	1.402013E+0	1.435875E+0	1.446595E+0	1.406654E+0	1.429181E+0	1.438515E+0	1.397926E+0	1.499744E+0	1.414374E+0	1.431937E+0	1.458360E+0	1.486366E+0	1.394281E+0	1.466694E+0	1.406001E+0	1.445109E+0	1.401054E+0	1.409609E+0	1.485638E+0	1.471914E+0	1.405327E+0	1.444062E+0	1.474028E+0	1.462018E+0	1.419656E+0	1.432430E+0	1.415305E+0	1.448529E+0	1.396645E+0	1.353750E+0	1.376273E+0	1.360812E+0	1.460591E+0	1.412843E+0	1.367373E+0	1.400173E+0	1.422444E+0	1.432794E+0	1.418767E+0	1.392175E+0	1.403610E+0	1.405102E+0	1.423396E+0	1.494912E+0	1.489209E+0	1.393184E+0	1.438517E+0	1.402460E+0	1.401384E+0	1.437981E+0	1.464567E+0	1.388057E+0	1.388774E+0	1.371489E+0	1.424493E+0	1.427375E+0	1.380833E+0	1.394937E+0	1.459349E+0	1.463913E+0	1.384773E+0	1.408195E+0	1.364782E+0	1.459610E+0	1.389804E+0	1.425854E+0	1.442824E+0	1.412573E+0	1.444404E+0	1.407832E+0	1.458954E+0	1.402397E+0	1.396973E+0	1.399314E+0	1.425543E+0	1.439418E+0	1.446092E+0	1.421976E+0	1.500987E+0	1.461242E+0
5.452690E+2	1.381866E+0	1.378102E+0	1.387884E+0	1.434893E+0	1.316660E+0	1.387442E+0	1.415836E+0	1.370469E+0	1.356891E+0	1.380158E+0	1.371802E+0	1.338900E+0	1.357540E+0	1.354690E+0	1.329130E+0	1.419131E+0	1.388369E+0	1.341735E+0	1.374785E+0	1.346718E+0	1.391268E+0	1.361430E+0	1.360550E+0	1.466782E+0	1.331186E+0	1.348027E+0	1.323987E+0	1.383753E+0	1.367885E+0	1.361088E+0	1.366321E+0	1.292008E+0	1.387677E+0	1.351889E+0	1.362497E+0	1.391399E+0	1.354402E+0	1.381380E+0	1.355971E+0	1.364712E+0	1.391246E+0	1.361094E+0	1.381258E+0	1.358242E+0	1.337833E+0	1.365960E+0	1.318140E+0	1.399362E+0	1.361852E+0	1.355953E+0	1.297834E+0	1.390397E+0	1.351076E+0	1.382621E+0	1.345109E+0	1.404368E+0	1.371337E+0	1.423300E+0	1.389373E+0	1.339953E+0	1.322841E+0	1.414305E+0	1.360730E+0	1.344877E+0	1.342773E+0	1.355710E+0	1.343686E+0	1.349315E+0	1.337626E+0	1.408665E+0	1.392928E+0	1.396218E+0	1.324161E+0	1.364569E+0	1.358706E+0	1.382861E+0	1.319668E+0	1.357220E+0	1.410204E+0	1.345008E+0	1.360414E+0	1.355495E+0	1.396314E+0	1.346451E+0	1.346584E+0	1.358876E+0	1.391581E+0	1.354068E+0	1.390510E+0	1.307353E+0	1.301479E+0	1.362001E+0	1.387628E+0	1.373513E+0	1.322046E+0	1.335021E+0	1.318760E+0	1.411081E+0	1.410026E+0	1.314517E+0	1.350248E+0	1.357055E+0	1.304097E+0	1.300827E+0	1.376643E+0	1.315270E+0	1.365015E+0	1.376157E+0	1.316603E+0	1.400920E+0	1.340901E+0	1.348831E+0	1.363014E+0	1.354978E+0	1.280038E+0	1.306410E+0	1.380944E+0	1.355747E+0	1.350403E+0	1.362945E+0	1.274797E+0	1.361422E+0	1.351987E+0	1.403001E+0	1.342811E+0	1.400025E+0	1.386632E+0	1.290757E+0	1.355249E+0	1.330184E+0	1.366030E+0	1.346727E+0	1.346821E+0	1.383516E+0	1.363472E+0	1.373511E+0	1.360734E+0	1.344433E+0	1.358501E+0	1.300406E+0	1.355445E+0	1.347603E+0	1.291011E+0	1.274854E+0	1.338230E+0	1.373381E+0	1.412073E+0	1.310523E+0	1.370409E+0	1.342611E+0	1.336264E+0	1.385462E+0	1.332878E+0	1.392098E+0	1.348968E+0	1.316134E+0	1.349989E+0	1.381678E+0	1.360626E+0	1.355564E+0	1.361827E+0	1.360165E+0	1.379784E+0	1.349853E+0	1.339186E+0	1.437825E+0	1.396192E+0	1.410973E+0	1.402656E+0	1.358987E+0	1.331810E+0
5.455450E+2	1.281744E+0	1.272841E+0	1.278701E+0	1.258322E+0	1.246195E+0	1.278804E+0	1.295823E+0	1.247851E+0	1.271417E+0	1.277626E+0	1.252344E+0	1.280639E+0	1.235575E+0	1.253269E+0	1.291324E+0	1.276691E+0	1.248953E+0	1.258294E+0	1.270852E+0	1.276918E+0	1.273168E+0	1.229246E+0	1.256692E+0	1.289443E+0	1.335283E+0	1.280532E+0	1.283502E+0	1.248774E+0	1.258103E+0	1.252010E+0	1.251829E+0	1.243237E+0	1.227495E+0	1.331438E+0	1.271123E+0	1.281173E+0	1.249697E+0	1.283474E+0	1.295602E+0	1.295189E+0	1.267560E+0	1.302248E+0	1.206008E+0	1.319407E+0	1.274864E+0	1.297092E+0	1.244434E+0	1.255901E+0	1.260821E+0	1.302992E+0	1.288978E+0	1.266099E+0	1.236534E+0	1.301679E+0	1.274295E+0	1.309755E+0	1.250284E+0	1.291285E+0	1.245748E+0	1.274826E+0	1.309544E+0	1.254207E+0	1.284412E+0	1.256968E+0	1.277532E+0	1.336287E+0	1.251278E+0	1.290775E+0	1.259038E+0	1.294433E+0	1.250447E+0	1.281199E+0	1.259226E+0	1.236774E+0	1.283742E+0	1.226176E+0	1.213946E+0	1.246330E+0	1.259227E+0	1.277933E+0	1.219520E+0	1.281394E+0	1.287721E+0	1.265431E+0	1.218926E+0	1.284140E+0	1.270282E+0	1.277027E+0	1.284431E+0	1.297579E+0	1.219974E+0	1.199279E+0	1.270461E+0	1.290894E+0	1.272140E+0	1.228438E+0	1.241820E+0	1.289339E+0	1.288499E+0	1.287581E+0	1.273958E+0	1.322410E+0	1.274498E+0	1.245895E+0	1.253147E+0	1.288523E+0	1.260382E+0	1.276791E+0	1.243486E+0	1.259614E+0	1.236866E+0	1.221505E+0	1.248250E+0	1.287571E+0	1.242110E+0	1.223063E+0	1.259703E+0	1.255032E+0	1.294138E+0	1.295824E+0	1.280801E+0	1.259152E+0	1.289893E+0	1.269137E+0	1.244748E+0	1.224550E+0	1.230721E+0	1.256554E+0	1.256546E+0	1.276917E+0	1.240771E+0	1.316263E+0	1.257035E+0	1.282068E+0	1.296860E+0	1.259382E+0	1.224121E+0	1.279873E+0	1.285767E+0	1.240498E+0	1.250455E+0	1.294004E+0	1.268756E+0	1.267906E+0	1.223164E+0	1.301844E+0	1.296403E+0	1.253253E+0	1.274947E+0	1.284372E+0	1.323787E+0	1.240302E+0	1.276410E+0	1.326196E+0	1.219594E+0	1.262972E+0	1.276544E+0	1.258839E+0	1.276300E+0	1.269888E+0	1.265369E+0	1.307712E+0	1.266225E+0	1.259834E+0	1.248803E+0	1.279660E+0	1.271826E+0	1.221105E+0	1.253088E+0	1.221707E+0	1.322078E+0
5.457890E+2	1.232073E+0	1.248441E+0	1.244132E+0	1.213322E+0	1.233109E+0	1.232765E+0	1.227548E+0	1.228134E+0	1.234582E+0	1.251166E+0	1.206162E+0	1.220806E+0	1.202020E+0	1.201100E+0	1.253242E+0	1.305443E+0	1.197455E+0	1.228006E+0	1.157282E+0	1.224673E+0	1.199677E+0	1.198022E+0	1.244876E+0	1.206943E+0	1.171828E+0	1.190164E+0	1.238511E+0	1.254510E+0	1.225717E+0	1.160570E+0	1.184038E+0	1.219533E+0	1.233940E+0	1.201753E+0	1.255525E+0	1.223397E+0	1.223613E+0	1.186418E+0	1.199644E+0	1.200664E+0	1.206539E+0	1.202597E+0	1.175383E+0	1.247861E+0	1.185813E+0	1.225451E+0	1.204533E+0	1.184343E+0	1.205424E+0	1.235913E+0	1.249534E+0	1.203013E+0	1.156110E+0	1.248417E+0	1.234603E+0	1.216378E+0	1.196204E+0	1.208467E+0	1.194894E+0	1.235103E+0	1.195762E+0	1.177479E+0	1.190495E+0	1.169615E+0	1.159696E+0	1.219288E+0	1.176730E+0	1.193311E+0	1.264246E+0	1.299445E+0	1.184447E+0	1.187182E+0	1.207367E+0	1.238758E+0	1.226220E+0	1.249211E+0	1.216136E+0	1.206212E+0	1.216380E+0	1.168810E+0	1.244767E+0	1.258721E+0	1.245580E+0	1.216989E+0	1.193915E+0	1.231632E+0	1.216061E+0	1.192244E+0	1.192265E+0	1.168613E+0	1.248857E+0	1.229001E+0	1.191555E+0	1.230978E+0	1.259700E+0	1.201012E+0	1.182145E+0	1.243820E+0	1.279598E+0	1.185873E+0	1.230590E+0	1.232172E+0	1.235466E+0	1.191311E+0	1.189468E+0	1.166602E+0	1.236885E+0	1.248353E+0	1.191140E+0	1.188306E+0	1.215821E+0	1.203534E+0	1.204537E+0	1.224951E+0	1.181424E+0	1.235184E+0	1.214803E+0	1.185469E+0	1.227777E+0	1.230360E+0	1.155770E+0	1.220806E+0	1.227409E+0	1.193086E+0	1.224432E+0	1.162907E+0	1.230053E+0	1.189354E+0	1.269451E+0	1.199644E+0	1.209945E+0	1.240315E+0	1.220433E+0	1.264766E+0	1.225553E+0	1.201589E+0	1.192921E+0	1.192137E+0	1.234052E+0	1.211292E+0	1.190783E+0	1.227557E+0	1.240467E+0	1.155254E+0	1.174514E+0	1.274473E+0	1.225268E+0	1.191443E+0	1.229688E+0	1.261905E+0	1.214754E+0	1.203247E+0	1.195400E+0	1.270561E+0	1.206488E+0	1.175741E+0	1.185108E+0	1.209639E+0	1.219502E+0	1.222005E+0	1.209716E+0	1.220107E+0	1.249105E+0	1.176482E+0	1.137931E+0	1.213031E+0	1.235145E+0	1.183187E+0	1.238751E+0	1.285151E+0	1.187424E+0
5.460110E+2	1.222770E+0	1.195740E+0	1.215051E+0	1.203918E+0	1.168403E+0	1.149305E+0	1.185495E+0	1.179441E+0	1.173657E+0	1.216820E+0	1.190191E+0	1.174278E+0	1.202117E+0	1.183737E+0	1.195123E+0	1.219500E+0	1.199583E+0	1.233953E+0	1.209238E+0	1.194977E+0	1.235715E+0	1.204088E+0	1.164715E+0	1.204641E+0	1.241530E+0	1.184092E+0	1.231263E+0	1.255201E+0	1.174583E+0	1.132773E+0	1.209751E+0	1.188899E+0	1.179798E+0	1.145532E+0	1.197545E+0	1.219214E+0	1.139406E+0	1.155873E+0	1.203474E+0	1.163428E+0	1.226778E+0	1.174222E+0	1.216245E+0	1.285047E+0	1.183390E+0	1.212435E+0	1.200388E+0	1.185327E+0	1.225930E+0	1.181534E+0	1.171791E+0	1.217850E+0	1.201446E+0	1.212456E+0	1.193964E+0	1.206828E+0	1.217973E+0	1.189894E+0	1.191872E+0	1.188759E+0	1.216600E+0	1.175815E+0	1.203869E+0	1.203437E+0	1.164333E+0	1.152803E+0	1.211097E+0	1.200232E+0	1.195585E+0	1.197717E+0	1.242348E+0	1.236069E+0	1.167314E+0	1.196981E+0	1.158933E+0	1.249410E+0	1.228628E+0	1.174908E+0	1.202108E+0	1.201384E+0	1.179350E+0	1.174573E+0	1.193922E+0	1.199143E+0	1.183079E+0	1.174378E+0	1.231328E+0	1.217196E+0	1.201032E+0	1.157756E+0	1.208469E+0	1.169313E+0	1.214243E+0	1.219206E+0	1.197931E+0	1.207641E+0	1.162188E+0	1.129791E+0	1.177099E+0	1.167728E+0	1.207484E+0	1.200115E+0	1.233231E+0	1.198151E+0	1.194956E+0	1.200236E+0	1.217845E+0	1.145157E+0	1.165698E+0	1.194554E+0	1.188609E+0	1.167783E+0	1.218292E+0	1.218512E+0	1.160060E+0	1.176059E+0	1.153487E+0	1.208271E+0	1.172988E+0	1.222698E+0	1.132477E+0	1.207770E+0	1.197602E+0	1.178690E+0	1.231001E+0	1.143101E+0	1.151879E+0	1.179403E+0	1.161597E+0	1.176384E+0	1.174937E+0	1.138447E+0	1.212122E+0	1.200956E+0	1.206241E+0	1.238468E+0	1.197360E+0	1.206186E+0	1.138836E+0	1.193038E+0	1.170687E+0	1.212196E+0	1.172032E+0	1.179353E+0	1.158626E+0	1.131309E+0	1.244067E+0	1.192270E+0	1.220014E+0	1.185628E+0	1.192613E+0	1.210501E+0	1.182117E+0	1.186884E+0	1.176659E+0	1.165637E+0	1.203521E+0	1.144617E+0	1.143850E+0	1.245339E+0	1.151533E+0	1.153606E+0	1.169591E+0	1.157206E+0	1.203774E+0	1.199925E+0	1.176494E+0	1.193980E+0	1.170190E+0	1.156233E+0	1.098406E+0
5.467710E+2	1.262764E+0	1.271621E+0	1.304341E+0	1.310942E+0	1.239084E+0	1.250956E+0	1.282887E+0	1.267400E+0	1.245002E+0	1.222897E+0	1.268363E+0	1.221332E+0	1.210882E+0	1.280740E+0	1.235253E+0	1.307300E+0	1.254429E+0	1.255976E+0	1.224622E+0	1.261694E+0	1.224820E+0	1.256335E+0	1.319831E+0	1.259810E+0	1.269134E+0	1.235096E+0	1.236283E+0	1.276400E+0	1.226885E+0	1.229242E+0	1.226452E+0	1.256544E+0	1.213807E+0	1.238948E+0	1.214058E+0	1.236187E+0	1.252909E+0	1.229135E+0	1.274214E+0	1.289042E+0	1.189187E+0	1.223988E+0	1.224034E+0	1.254632E+0	1.218653E+0	1.294994E+0	1.259848E+0	1.245622E+0	1.257731E+0	1.222240E+0	1.278830E+0	1.236111E+0	1.219334E+0	1.215179E+0	1.216391E+0	1.251599E+0	1.235464E+0	1.257853E+0	1.209094E+0	1.232468E+0	1.271774E+0	1.270169E+0	1.249856E+0	1.258267E+0	1.213950E+0	1.271526E+0	1.239992E+0	1.272232E+0	1.255815E+0	1.248054E+0	1.236745E+0	1.206811E+0	1.264069E+0	1.247961E+0	1.274459E+0	1.278840E+0	1.227479E+0	1.260757E+0	1.275671E+0	1.276144E+0	1.186994E+0	1.242927E+0	1.225170E+0	1.213144E+0	1.215231E+0	1.283365E+0	1.267277E+0	1.296254E+0	1.257360E+0	1.256773E+0	1.320406E+0	1.217181E+0	1.207676E+0	1.272803E+0	1.235349E+0	1.261640E+0	1.223082E+0	1.229025E+0	1.323632E+0	1.270786E+0	1.241056E+0	1.238536E+0	1.196580E+0	1.231761E+0	1.244835E+0	1.256803E+0	1.248025E+0	1.232164E+0	1.260454E+0	1.272498E+0	1.339057E+0	1.254031E+0	1.194463E+0	1.287278E+0	1.202143E+0	1.229137E+0	1.229140E+0	1.219583E+0	1.280221E+0	1.217635E+0	1.198988E+0	1.199231E+0	1.271471E+0	1.273829E+0	1.205203E+0	1.214566E+0	1.255813E+0	1.266689E+0	1.220621E+0	1.222253E+0	1.255433E+0	1.194865E+0	1.253888E+0	1.190058E+0	1.266968E+0	1.206452E+0	1.215599E+0	1.247621E+0	1.220364E+0	1.269303E+0	1.200724E+0	1.241626E+0	1.249363E+0	1.215351E+0	1.261299E+0	1.245874E+0	1.244587E+0	1.236023E+0	1.249207E+0	1.206973E+0	1.242479E+0	1.247260E+0	1.245404E+0	1.247563E+0	1.226411E+0	1.222574E+0	1.235937E+0	1.253314E+0	1.264790E+0	1.233451E+0	1.209632E+0	1.247152E+0	1.235296E+0	1.241151E+0	1.241831E+0	1.306630E+0	1.253338E+0	1.240405E+0	1.244964E+0	1.154606E+0	1.275757E+0
5.475070E+2	1.385355E+0	1.385349E+0	1.392296E+0	1.385224E+0	1.336810E+0	1.385839E+0	1.458375E+0	1.372802E+0	1.334498E+0	1.345905E+0	1.387471E+0	1.353933E+0	1.406613E+0	1.339051E+0	1.399827E+0	1.396237E+0	1.432902E+0	1.408977E+0	1.355423E+0	1.386557E+0	1.416562E+0	1.382726E+0	1.392002E+0	1.417002E+0	1.297692E+0	1.388124E+0	1.374997E+0	1.380835E+0	1.362636E+0	1.330498E+0	1.350691E+0	1.332212E+0	1.380962E+0	1.369165E+0	1.428820E+0	1.365586E+0	1.329927E+0	1.349156E+0	1.376704E+0	1.350241E+0	1.302752E+0	1.373676E+0	1.389916E+0	1.414567E+0	1.365263E+0	1.408220E+0	1.358209E+0	1.394420E+0	1.322622E+0	1.383823E+0	1.427567E+0	1.408794E+0	1.344782E+0	1.381867E+0	1.403818E+0	1.389162E+0	1.310479E+0	1.342731E+0	1.339964E+0	1.383315E+0	1.374462E+0	1.416082E+0	1.427299E+0	1.350634E+0	1.320901E+0	1.363145E+0	1.415399E+0	1.382117E+0	1.409445E+0	1.367648E+0	1.368839E+0	1.405640E+0	1.331851E+0	1.392609E+0	1.400568E+0	1.390089E+0	1.325870E+0	1.352058E+0	1.373903E+0	1.357063E+0	1.417618E+0	1.369139E+0	1.389155E+0	1.370559E+0	1.357716E+0	1.392230E+0	1.393262E+0	1.393643E+0	1.354239E+0	1.371339E+0	1.375973E+0	1.399982E+0	1.432062E+0	1.335143E+0	1.377524E+0	1.414724E+0	1.357911E+0	1.374219E+0	1.352769E+0	1.317739E+0	1.416274E+0	1.355194E+0	1.340113E+0	1.363793E+0	1.383978E+0	1.365805E+0	1.377034E+0	1.356265E+0	1.413115E+0	1.398502E+0	1.370531E+0	1.340210E+0	1.384905E+0	1.388892E+0	1.406357E+0	1.389977E+0	1.305122E+0	1.387242E+0	1.385323E+0	1.358585E+0	1.347024E+0	1.335106E+0	1.412454E+0	1.366739E+0	1.361966E+0	1.385348E+0	1.349875E+0	1.381528E+0	1.376279E+0	1.331822E+0	1.349419E+0	1.329674E+0	1.348584E+0	1.350488E+0	1.448808E+0	1.402549E+0	1.360049E+0	1.369174E+0	1.405733E+0	1.348218E+0	1.348281E+0	1.413495E+0	1.377684E+0	1.266711E+0	1.310358E+0	1.398157E+0	1.378265E+0	1.314524E+0	1.381392E+0	1.306257E+0	1.379676E+0	1.388242E+0	1.339464E+0	1.331395E+0	1.337194E+0	1.335388E+0	1.350334E+0	1.364307E+0	1.390599E+0	1.420394E+0	1.305926E+0	1.353396E+0	1.389199E+0	1.379974E+0	1.347494E+0	1.378728E+0	1.418467E+0	1.382938E+0	1.355596E+0	1.411072E+0	1.441250E+0
5.482600E+2	1.474950E+0	1.488301E+0	1.506178E+0	1.493207E+0	1.499483E+0	1.479661E+0	1.544154E+0	1.519337E+0	1.514678E+0	1.517008E+0	1.454984E+0	1.424030E+0	1.505477E+0	1.440515E+0	1.480373E+0	1.484388E+0	1.475661E+0	1.479989E+0	1.427858E+0	1.467068E+0	1.469016E+0	1.473459E+0	1.505591E+0	1.460471E+0	1.452551E+0	1.480886E+0	1.501605E+0	1.541363E+0	1.446128E+0	1.441514E+0	1.421250E+0	1.440488E+0	1.463410E+0	1.485930E+0	1.470663E+0	1.465421E+0	1.416908E+0	1.460269E+0	1.439644E+0	1.454812E+0	1.467777E+0	1.419731E+0	1.441828E+0	1.480391E+0	1.457141E+0	1.468233E+0	1.450468E+0	1.461678E+0	1.429760E+0	1.427952E+0	1.571493E+0	1.466239E+0	1.407906E+0	1.457481E+0	1.464924E+0	1.433208E+0	1.441723E+0	1.416048E+0	1.497878E+0	1.438730E+0	1.396379E+0	1.462861E+0	1.477539E+0	1.436631E+0	1.497355E+0	1.446867E+0	1.427530E+0	1.475004E+0	1.478907E+0	1.444947E+0	1.493167E+0	1.478412E+0	1.455661E+0	1.479853E+0	1.397397E+0	1.415356E+0	1.442059E+0	1.394574E+0	1.432970E+0	1.485913E+0	1.447980E+0	1.392592E+0	1.488838E+0	1.433955E+0	1.410299E+0	1.453757E+0	1.483489E+0	1.472999E+0	1.464006E+0	1.442810E+0	1.516560E+0	1.379747E+0	1.461829E+0	1.476109E+0	1.498490E+0	1.396805E+0	1.455761E+0	1.476047E+0	1.470464E+0	1.467986E+0	1.464789E+0	1.431892E+0	1.477465E+0	1.428415E+0	1.467568E+0	1.453538E+0	1.460139E+0	1.480319E+0	1.437306E+0	1.453105E+0	1.480950E+0	1.473292E+0	1.457613E+0	1.483595E+0	1.475080E+0	1.439575E+0	1.403497E+0	1.434472E+0	1.450970E+0	1.444335E+0	1.382773E+0	1.434303E+0	1.479138E+0	1.495130E+0	1.467362E+0	1.440883E+0	1.375225E+0	1.465167E+0	1.459195E+0	1.425979E+0	1.456243E+0	1.469670E+0	1.430741E+0	1.459474E+0	1.497865E+0	1.491555E+0	1.449184E+0	1.442098E+0	1.462784E+0	1.423247E+0	1.377805E+0	1.455864E+0	1.443003E+0	1.457392E+0	1.438446E+0	1.429241E+0	1.441634E+0	1.452631E+0	1.452956E+0	1.440611E+0	1.459218E+0	1.468446E+0	1.429600E+0	1.429612E+0	1.441636E+0	1.429030E+0	1.459115E+0	1.489998E+0	1.443765E+0	1.454126E+0	1.446999E+0	1.495321E+0	1.403619E+0	1.443038E+0	1.431334E+0	1.456931E+0	1.445782E+0	1.448300E+0	1.459991E+0	1.451144E+0	1.460957E+0
5.490380E+2	1.427738E+0	1.429847E+0	1.468756E+0	1.464921E+0	1.395482E+0	1.461278E+0	1.484193E+0	1.440112E+0	1.389703E+0	1.395335E+0	1.470331E+0	1.411036E+0	1.439135E+0	1.430254E+0	1.423893E+0	1.488831E+0	1.388659E+0	1.422548E+0	1.385523E+0	1.479660E+0	1.402201E+0	1.446181E+0	1.465968E+0	1.454285E+0	1.401218E+0	1.413466E+0	1.450330E+0	1.421216E+0	1.356221E+0	1.353712E+0	1.390234E+0	1.422412E+0	1.436662E+0	1.488277E+0	1.425990E+0	1.471069E+0	1.450566E+0	1.435890E+0	1.446768E+0	1.491828E+0	1.425893E+0	1.461941E+0	1.440660E+0	1.441035E+0	1.402761E+0	1.432481E+0	1.425203E+0	1.475617E+0	1.359740E+0	1.362268E+0	1.433392E+0	1.435938E+0	1.394585E+0	1.471930E+0	1.418795E+0	1.441900E+0	1.375705E+0	1.351126E+0	1.423341E+0	1.408953E+0	1.407856E+0	1.415377E+0	1.460823E+0	1.398239E+0	1.409720E+0	1.413948E+0	1.456594E+0	1.459243E+0	1.345856E+0	1.399649E+0	1.398903E+0	1.438073E+0	1.376599E+0	1.452236E+0	1.403490E+0	1.410334E+0	1.467557E+0	1.413696E+0	1.435838E+0	1.444962E+0	1.427572E+0	1.430725E+0	1.434005E+0	1.407004E+0	1.379299E+0	1.439406E+0	1.463289E+0	1.441271E+0	1.472763E+0	1.392218E+0	1.447901E+0	1.434713E+0	1.429826E+0	1.469190E+0	1.439579E+0	1.461733E+0	1.420265E+0	1.403858E+0	1.485615E+0	1.391542E+0	1.413094E+0	1.434460E+0	1.427434E+0	1.432551E+0	1.430575E+0	1.395301E+0	1.497415E+0	1.444351E+0	1.406588E+0	1.418804E+0	1.423571E+0	1.371233E+0	1.410980E+0	1.448216E+0	1.436904E+0	1.370638E+0	1.408456E+0	1.383572E+0	1.455287E+0	1.432852E+0	1.357729E+0	1.382647E+0	1.417706E+0	1.359520E+0	1.400596E+0	1.446743E+0	1.430107E+0	1.410431E+0	1.409782E+0	1.371807E+0	1.489871E+0	1.376606E+0	1.419212E+0	1.377023E+0	1.418138E+0	1.383440E+0	1.432342E+0	1.422872E+0	1.415124E+0	1.430392E+0	1.403266E+0	1.365894E+0	1.411857E+0	1.418377E+0	1.446521E+0	1.385762E+0	1.414495E+0	1.344811E+0	1.416605E+0	1.377962E+0	1.438717E+0	1.394507E+0	1.411829E+0	1.423613E+0	1.415399E+0	1.391970E+0	1.420574E+0	1.496631E+0	1.448748E+0	1.402360E+0	1.434558E+0	1.414904E+0	1.412770E+0	1.438804E+0	1.407231E+0	1.425871E+0	1.501256E+0	1.428119E+0	1.340776E+0	1.448588E+0	1.464820E+0
5.497850E+2	1.331467E+0	1.415857E+0	1.337754E+0	1.337234E+0	1.378852E+0	1.332440E+0	1.417989E+0	1.376805E+0	1.316150E+0	1.331344E+0	1.380362E+0	1.373257E+0	1.321436E+0	1.357078E+0	1.330396E+0	1.339272E+0	1.359401E+0	1.322496E+0	1.340143E+0	1.323233E+0	1.357283E+0	1.359404E+0	1.379953E+0	1.397492E+0	1.343625E+0	1.307334E+0	1.361527E+0	1.355802E+0	1.339148E+0	1.314621E+0	1.355503E+0	1.371194E+0	1.366729E+0	1.331940E+0	1.382890E+0	1.353438E+0	1.350363E+0	1.321823E+0	1.330792E+0	1.361511E+0	1.341255E+0	1.344210E+0	1.377193E+0	1.379045E+0	1.284089E+0	1.316598E+0	1.333224E+0	1.390809E+0	1.339491E+0	1.351007E+0	1.420715E+0	1.376908E+0	1.267848E+0	1.393166E+0	1.325586E+0	1.331916E+0	1.350031E+0	1.352865E+0	1.373768E+0	1.301155E+0	1.353673E+0	1.345440E+0	1.365643E+0	1.374906E+0	1.366756E+0	1.319725E+0	1.344899E+0	1.379680E+0	1.338795E+0	1.361774E+0	1.313840E+0	1.358435E+0	1.299867E+0	1.341575E+0	1.311021E+0	1.395924E+0	1.339703E+0	1.338904E+0	1.396969E+0	1.335329E+0	1.299763E+0	1.361652E+0	1.362343E+0	1.358787E+0	1.326045E+0	1.368737E+0	1.405477E+0	1.345985E+0	1.348458E+0	1.329076E+0	1.332041E+0	1.376743E+0	1.277104E+0	1.352561E+0	1.334843E+0	1.327965E+0	1.376850E+0	1.312488E+0	1.379082E+0	1.345941E+0	1.344822E+0	1.358486E+0	1.354841E+0	1.329367E+0	1.371563E+0	1.352642E+0	1.351664E+0	1.340272E+0	1.317490E+0	1.349513E+0	1.328296E+0	1.292890E+0	1.356910E+0	1.382991E+0	1.324593E+0	1.344804E+0	1.336020E+0	1.275552E+0	1.362689E+0	1.327755E+0	1.325682E+0	1.314720E+0	1.392484E+0	1.336122E+0	1.372568E+0	1.342933E+0	1.327866E+0	1.346706E+0	1.336549E+0	1.315033E+0	1.333553E+0	1.312313E+0	1.341859E+0	1.296642E+0	1.384323E+0	1.317352E+0	1.302324E+0	1.322853E+0	1.358625E+0	1.375738E+0	1.321139E+0	1.330043E+0	1.335006E+0	1.327773E+0	1.340551E+0	1.317721E+0	1.387667E+0	1.336946E+0	1.313899E+0	1.326687E+0	1.364628E+0	1.326113E+0	1.268059E+0	1.400535E+0	1.370955E+0	1.305473E+0	1.278527E+0	1.333015E+0	1.306230E+0	1.397218E+0	1.371056E+0	1.364696E+0	1.386906E+0	1.334296E+0	1.365054E+0	1.339697E+0	1.347211E+0	1.320182E+0	1.319945E+0	1.353012E+0	1.256660E+0
5.505170E+2	1.293183E+0	1.337684E+0	1.348023E+0	1.369083E+0	1.316544E+0	1.289125E+0	1.336823E+0	1.303651E+0	1.346804E+0	1.316605E+0	1.339623E+0	1.361579E+0	1.356505E+0	1.338604E+0	1.338925E+0	1.362943E+0	1.361103E+0	1.378445E+0	1.309392E+0	1.364627E+0	1.331549E+0	1.355739E+0	1.330955E+0	1.319088E+0	1.302545E+0	1.266546E+0	1.309103E+0	1.307690E+0	1.367917E+0	1.331378E+0	1.334509E+0	1.328919E+0	1.354360E+0	1.331910E+0	1.355781E+0	1.342563E+0	1.313372E+0	1.340652E+0	1.340709E+0	1.330270E+0	1.368798E+0	1.286454E+0	1.346931E+0	1.369572E+0	1.318710E+0	1.364022E+0	1.344634E+0	1.329442E+0	1.262505E+0	1.282201E+0	1.337897E+0	1.305511E+0	1.307514E+0	1.338219E+0	1.331962E+0	1.371280E+0	1.320093E+0	1.326357E+0	1.350733E+0	1.370338E+0	1.294320E+0	1.355333E+0	1.332469E+0	1.302058E+0	1.307902E+0	1.296855E+0	1.328568E+0	1.345406E+0	1.300598E+0	1.303430E+0	1.364045E+0	1.296957E+0	1.327222E+0	1.289061E+0	1.316374E+0	1.365216E+0	1.298038E+0	1.269663E+0	1.324622E+0	1.302765E+0	1.246019E+0	1.349921E+0	1.348934E+0	1.313772E+0	1.300504E+0	1.349803E+0	1.327418E+0	1.306854E+0	1.358011E+0	1.326426E+0	1.327828E+0	1.392859E+0	1.293249E+0	1.333151E+0	1.333182E+0	1.354075E+0	1.307656E+0	1.324583E+0	1.346390E+0	1.334731E+0	1.344227E+0	1.333988E+0	1.347106E+0	1.298573E+0	1.303699E+0	1.327149E+0	1.356597E+0	1.293254E+0	1.285282E+0	1.400815E+0	1.384218E+0	1.298724E+0	1.295930E+0	1.348476E+0	1.308754E+0	1.323377E+0	1.326325E+0	1.331692E+0	1.328137E+0	1.349271E+0	1.329793E+0	1.256267E+0	1.327481E+0	1.355289E+0	1.332919E+0	1.369145E+0	1.349691E+0	1.295238E+0	1.303123E+0	1.283640E+0	1.343489E+0	1.319160E+0	1.302618E+0	1.298274E+0	1.351054E+0	1.356616E+0	1.340637E+0	1.294101E+0	1.354055E+0	1.331765E+0	1.315535E+0	1.362559E+0	1.316497E+0	1.306325E+0	1.287520E+0	1.298985E+0	1.317154E+0	1.299683E+0	1.354856E+0	1.295764E+0	1.356366E+0	1.315073E+0	1.315176E+0	1.313670E+0	1.315728E+0	1.295365E+0	1.334935E+0	1.290406E+0	1.328920E+0	1.303129E+0	1.336665E+0	1.244679E+0	1.329743E+0	1.337645E+0	1.291024E+0	1.329842E+0	1.334760E+0	1.289260E+0	1.295819E+0	1.284641E+0	1.247104E+0
5.512620E+2	1.322002E+0	1.330858E+0	1.312247E+0	1.335135E+0	1.295688E+0	1.357694E+0	1.335174E+0	1.351691E+0	1.304717E+0	1.287109E+0	1.310070E+0	1.362441E+0	1.327058E+0	1.321858E+0	1.284340E+0	1.326888E+0	1.365997E+0	1.369607E+0	1.312682E+0	1.336978E+0	1.348640E+0	1.304643E+0	1.341035E+0	1.322870E+0	1.327031E+0	1.290959E+0	1.298793E+0	1.396783E+0	1.311651E+0	1.294663E+0	1.314941E+0	1.299187E+0	1.285367E+0	1.283569E+0	1.307198E+0	1.332043E+0	1.327309E+0	1.289228E+0	1.270038E+0	1.322500E+0	1.284158E+0	1.290658E+0	1.347431E+0	1.349961E+0	1.294642E+0	1.347876E+0	1.298946E+0	1.301964E+0	1.393628E+0	1.308225E+0	1.297088E+0	1.381148E+0	1.277760E+0	1.347640E+0	1.268299E+0	1.406819E+0	1.284735E+0	1.284169E+0	1.278215E+0	1.295922E+0	1.303431E+0	1.312095E+0	1.303947E+0	1.274938E+0	1.307734E+0	1.311055E+0	1.307221E+0	1.346196E+0	1.275084E+0	1.341927E+0	1.319760E+0	1.353076E+0	1.365091E+0	1.307807E+0	1.272927E+0	1.345532E+0	1.296284E+0	1.286180E+0	1.358474E+0	1.269853E+0	1.290008E+0	1.301510E+0	1.323306E+0	1.298787E+0	1.314066E+0	1.332298E+0	1.367463E+0	1.387751E+0	1.306647E+0	1.342352E+0	1.374389E+0	1.305534E+0	1.295039E+0	1.295471E+0	1.290805E+0	1.315391E+0	1.287722E+0	1.313031E+0	1.330292E+0	1.289645E+0	1.310327E+0	1.305716E+0	1.338068E+0	1.289908E+0	1.385516E+0	1.276136E+0	1.336970E+0	1.272518E+0	1.301829E+0	1.343705E+0	1.308129E+0	1.312980E+0	1.286074E+0	1.293638E+0	1.290135E+0	1.318201E+0	1.332838E+0	1.326734E+0	1.346953E+0	1.342709E+0	1.281476E+0	1.270980E+0	1.382155E+0	1.350686E+0	1.320667E+0	1.301257E+0	1.334429E+0	1.288967E+0	1.296477E+0	1.278557E+0	1.325323E+0	1.239310E+0	1.290860E+0	1.294415E+0	1.330698E+0	1.333843E+0	1.337732E+0	1.246279E+0	1.314283E+0	1.300431E+0	1.268255E+0	1.326140E+0	1.363664E+0	1.310374E+0	1.343583E+0	1.326777E+0	1.370855E+0	1.308759E+0	1.282012E+0	1.295676E+0	1.351751E+0	1.286829E+0	1.255996E+0	1.337462E+0	1.318045E+0	1.300517E+0	1.241594E+0	1.307510E+0	1.300342E+0	1.326904E+0	1.274983E+0	1.341926E+0	1.304118E+0	1.271914E+0	1.319251E+0	1.303238E+0	1.331374E+0	1.292996E+0	1.206051E+0	1.318573E+0	1.305192E+0
5.520210E+2	1.333077E+0	1.365898E+0	1.278106E+0	1.314263E+0	1.305973E+0	1.346504E+0	1.359983E+0	1.350507E+0	1.332336E+0	1.321301E+0	1.290810E+0	1.339436E+0	1.333261E+0	1.331376E+0	1.350305E+0	1.333455E+0	1.287212E+0	1.326643E+0	1.311144E+0	1.381215E+0	1.350238E+0	1.340447E+0	1.339253E+0	1.357248E+0	1.317102E+0	1.304936E+0	1.376552E+0	1.302920E+0	1.314915E+0	1.309897E+0	1.358865E+0	1.366469E+0	1.291349E+0	1.317242E+0	1.315126E+0	1.327160E+0	1.330382E+0	1.292678E+0	1.381922E+0	1.357124E+0	1.240059E+0	1.320704E+0	1.356623E+0	1.338794E+0	1.316648E+0	1.328095E+0	1.307989E+0	1.318487E+0	1.361528E+0	1.314786E+0	1.333370E+0	1.294777E+0	1.281916E+0	1.325968E+0	1.310706E+0	1.364399E+0	1.326328E+0	1.357631E+0	1.344361E+0	1.317280E+0	1.312535E+0	1.285592E+0	1.345650E+0	1.274790E+0	1.329138E+0	1.317234E+0	1.262703E+0	1.308903E+0	1.362257E+0	1.301409E+0	1.311537E+0	1.352891E+0	1.256513E+0	1.230397E+0	1.291331E+0	1.326018E+0	1.281897E+0	1.315315E+0	1.314426E+0	1.300864E+0	1.253977E+0	1.296522E+0	1.310208E+0	1.308082E+0	1.322710E+0	1.333668E+0	1.283562E+0	1.287851E+0	1.288923E+0	1.311692E+0	1.280196E+0	1.353635E+0	1.333701E+0	1.358618E+0	1.321407E+0	1.310199E+0	1.245407E+0	1.294397E+0	1.277133E+0	1.333940E+0	1.317647E+0	1.292408E+0	1.301460E+0	1.277116E+0	1.309969E+0	1.315883E+0	1.346943E+0	1.322802E+0	1.285069E+0	1.344677E+0	1.319751E+0	1.351853E+0	1.319012E+0	1.327689E+0	1.263433E+0	1.269566E+0	1.331519E+0	1.276191E+0	1.315093E+0	1.291629E+0	1.284478E+0	1.312897E+0	1.404640E+0	1.380523E+0	1.302303E+0	1.320777E+0	1.338392E+0	1.259575E+0	1.277447E+0	1.313014E+0	1.334608E+0	1.273164E+0	1.273347E+0	1.276270E+0	1.293143E+0	1.252209E+0	1.297655E+0	1.341837E+0	1.337410E+0	1.287612E+0	1.283278E+0	1.310468E+0	1.307659E+0	1.317095E+0	1.339141E+0	1.313054E+0	1.281268E+0	1.285973E+0	1.336381E+0	1.296620E+0	1.304909E+0	1.302128E+0	1.279234E+0	1.320295E+0	1.362610E+0	1.292831E+0	1.309834E+0	1.301562E+0	1.346672E+0	1.315365E+0	1.344340E+0	1.330430E+0	1.355643E+0	1.321327E+0	1.326030E+0	1.318292E+0	1.309367E+0	1.268224E+0	1.223239E+0	1.307757E+0	1.312935E+0
5.527650E+2	1.273209E+0	1.307726E+0	1.309487E+0	1.323921E+0	1.280190E+0	1.260118E+0	1.327491E+0	1.335247E+0	1.305894E+0	1.231816E+0	1.290043E+0	1.281427E+0	1.326193E+0	1.270991E+0	1.294583E+0	1.318141E+0	1.328577E+0	1.312242E+0	1.239293E+0	1.295057E+0	1.248818E+0	1.270868E+0	1.281733E+0	1.365881E+0	1.322267E+0	1.261968E+0	1.312126E+0	1.325737E+0	1.263239E+0	1.288160E+0	1.307111E+0	1.319761E+0	1.274947E+0	1.296027E+0	1.297536E+0	1.338840E+0	1.286678E+0	1.275553E+0	1.252932E+0	1.274274E+0	1.292942E+0	1.319554E+0	1.265989E+0	1.305917E+0	1.313810E+0	1.309498E+0	1.319380E+0	1.271565E+0	1.298971E+0	1.276505E+0	1.281632E+0	1.307274E+0	1.236026E+0	1.317002E+0	1.266806E+0	1.266156E+0	1.309772E+0	1.262560E+0	1.244816E+0	1.284900E+0	1.246412E+0	1.264952E+0	1.317653E+0	1.304917E+0	1.290658E+0	1.262687E+0	1.269394E+0	1.325585E+0	1.247440E+0	1.276806E+0	1.263210E+0	1.284811E+0	1.289980E+0	1.303887E+0	1.256226E+0	1.302922E+0	1.214024E+0	1.284562E+0	1.278007E+0	1.299250E+0	1.315052E+0	1.275116E+0	1.308381E+0	1.335899E+0	1.282994E+0	1.288724E+0	1.322146E+0	1.325763E+0	1.278970E+0	1.259015E+0	1.281313E+0	1.298028E+0	1.283350E+0	1.316672E+0	1.286652E+0	1.241486E+0	1.243748E+0	1.239522E+0	1.307262E+0	1.279256E+0	1.269542E+0	1.276111E+0	1.232534E+0	1.277816E+0	1.255031E+0	1.230218E+0	1.324816E+0	1.307625E+0	1.264227E+0	1.336058E+0	1.281324E+0	1.298822E+0	1.262496E+0	1.272897E+0	1.253416E+0	1.289543E+0	1.243425E+0	1.286172E+0	1.267706E+0	1.302002E+0	1.259139E+0	1.212564E+0	1.290361E+0	1.262042E+0	1.268128E+0	1.314580E+0	1.283456E+0	1.225253E+0	1.260022E+0	1.315226E+0	1.311830E+0	1.291855E+0	1.247873E+0	1.273974E+0	1.259728E+0	1.309645E+0	1.240009E+0	1.298373E+0	1.310495E+0	1.224492E+0	1.272336E+0	1.319158E+0	1.275489E+0	1.227759E+0	1.333966E+0	1.290192E+0	1.268335E+0	1.260068E+0	1.337154E+0	1.225654E+0	1.311967E+0	1.282682E+0	1.240335E+0	1.283747E+0	1.254125E+0	1.298580E+0	1.261157E+0	1.265500E+0	1.228491E+0	1.294225E+0	1.274334E+0	1.297031E+0	1.293097E+0	1.287427E+0	1.257809E+0	1.320160E+0	1.306329E+0	1.316675E+0	1.252607E+0	1.294163E+0	1.324694E+0
5.535160E+2	1.194961E+0	1.219586E+0	1.230741E+0	1.232258E+0	1.226911E+0	1.199129E+0	1.235407E+0	1.223063E+0	1.226915E+0	1.206030E+0	1.218121E+0	1.200427E+0	1.244978E+0	1.208550E+0	1.203994E+0	1.225441E+0	1.262970E+0	1.237338E+0	1.191760E+0	1.202710E+0	1.237892E+0	1.209439E+0	1.160899E+0	1.292397E+0	1.177678E+0	1.189220E+0	1.233464E+0	1.225288E+0	1.184886E+0	1.187502E+0	1.186779E+0	1.184554E+0	1.190826E+0	1.194169E+0	1.189277E+0	1.216561E+0	1.192331E+0	1.189957E+0	1.193082E+0	1.288566E+0	1.204108E+0	1.237334E+0	1.201135E+0	1.207138E+0	1.173328E+0	1.224302E+0	1.224578E+0	1.194626E+0	1.208981E+0	1.173355E+0	1.225505E+0	1.251942E+0	1.145920E+0	1.186666E+0	1.144814E+0	1.255645E+0	1.228510E+0	1.173780E+0	1.234932E+0	1.138922E+0	1.210654E+0	1.188046E+0	1.227153E+0	1.168992E+0	1.229034E+0	1.232639E+0	1.198687E+0	1.250018E+0	1.205024E+0	1.229934E+0	1.202688E+0	1.239653E+0	1.207826E+0	1.234004E+0	1.156974E+0	1.243223E+0	1.172788E+0	1.196575E+0	1.210863E+0	1.207257E+0	1.239314E+0	1.222845E+0	1.170830E+0	1.205478E+0	1.191482E+0	1.268529E+0	1.202621E+0	1.234648E+0	1.192292E+0	1.178247E+0	1.194782E+0	1.182221E+0	1.210427E+0	1.226194E+0	1.208653E+0	1.208208E+0	1.214066E+0	1.217078E+0	1.158642E+0	1.197667E+0	1.269465E+0	1.202657E+0	1.208494E+0	1.203884E+0	1.213754E+0	1.234096E+0	1.258041E+0	1.243568E+0	1.186351E+0	1.282676E+0	1.197401E+0	1.203530E+0	1.173438E+0	1.237383E+0	1.174059E+0	1.174774E+0	1.198266E+0	1.171554E+0	1.176478E+0	1.184173E+0	1.168258E+0	1.203099E+0	1.218455E+0	1.197436E+0	1.171934E+0	1.206595E+0	1.193746E+0	1.207197E+0	1.204948E+0	1.188143E+0	1.184292E+0	1.210885E+0	1.190583E+0	1.202167E+0	1.196224E+0	1.193651E+0	1.175725E+0	1.188281E+0	1.226938E+0	1.214035E+0	1.202333E+0	1.198277E+0	1.185161E+0	1.182486E+0	1.232708E+0	1.179441E+0	1.144851E+0	1.196435E+0	1.161484E+0	1.185511E+0	1.163646E+0	1.232172E+0	1.172751E+0	1.263709E+0	1.237157E+0	1.181660E+0	1.249794E+0	1.205927E+0	1.190871E+0	1.225900E+0	1.193618E+0	1.163142E+0	1.176906E+0	1.235282E+0	1.234441E+0	1.223817E+0	1.217868E+0	1.216555E+0	1.138342E+0	1.240634E+0	1.328469E+0
5.542580E+2	1.068868E+0	1.074643E+0	1.118527E+0	1.067862E+0	1.097740E+0	1.129468E+0	1.093047E+0	1.127936E+0	1.140313E+0	1.155824E+0	1.123677E+0	1.063178E+0	1.138347E+0	1.159387E+0	1.107254E+0	1.095664E+0	1.151707E+0	1.092094E+0	1.104050E+0	1.140333E+0	1.120332E+0	1.093542E+0	1.137901E+0	1.144545E+0	1.075985E+0	1.115512E+0	1.125576E+0	1.158866E+0	1.133440E+0	1.095869E+0	1.123200E+0	1.074190E+0	1.097704E+0	1.128615E+0	1.124238E+0	1.137728E+0	1.107159E+0	1.092725E+0	1.072633E+0	1.114258E+0	1.133602E+0	1.158822E+0	1.108245E+0	1.137952E+0	1.144925E+0	1.116966E+0	1.108662E+0	1.139041E+0	1.080824E+0	1.093141E+0	1.123302E+0	1.111735E+0	1.060453E+0	1.111008E+0	1.103425E+0	1.093761E+0	1.093587E+0	1.131427E+0	1.133041E+0	1.103921E+0	1.075398E+0	1.115685E+0	1.115503E+0	1.109172E+0	1.096876E+0	1.104479E+0	1.088295E+0	1.135838E+0	1.120152E+0	1.097666E+0	1.075871E+0	1.149622E+0	1.122741E+0	1.119627E+0	1.103584E+0	1.130627E+0	1.085286E+0	1.134660E+0	1.121800E+0	1.115075E+0	1.068931E+0	1.080761E+0	1.072650E+0	1.092341E+0	1.128374E+0	1.078265E+0	1.139280E+0	1.123325E+0	1.100522E+0	1.116518E+0	1.158563E+0	1.135853E+0	1.104939E+0	1.126244E+0	1.096167E+0	1.062416E+0	1.064600E+0	1.103910E+0	1.114989E+0	1.116496E+0	1.081664E+0	1.075537E+0	1.131091E+0	1.076584E+0	1.107602E+0	1.110228E+0	1.120803E+0	1.123992E+0	1.128412E+0	1.128540E+0	1.135402E+0	1.114947E+0	1.142715E+0	1.167860E+0	1.108096E+0	1.144576E+0	1.113123E+0	1.079021E+0	1.156812E+0	1.123120E+0	1.086597E+0	1.083438E+0	1.124317E+0	1.114275E+0	1.106840E+0	1.116243E+0	1.097072E+0	1.070731E+0	1.112929E+0	1.070456E+0	1.126598E+0	1.135449E+0	1.106272E+0	1.122421E+0	1.150923E+0	1.144859E+0	1.075460E+0	1.080664E+0	1.107505E+0	1.101642E+0	1.109732E+0	1.103922E+0	1.149025E+0	1.125837E+0	1.100756E+0	1.129425E+0	1.128355E+0	1.068010E+0	1.104537E+0	1.118325E+0	1.105500E+0	1.083068E+0	1.065408E+0	1.115838E+0	1.153121E+0	1.106706E+0	1.078275E+0	1.033652E+0	1.129001E+0	1.144319E+0	1.105134E+0	1.119398E+0	1.086196E+0	1.128612E+0	1.151503E+0	1.158952E+0	1.124481E+0	1.155660E+0	1.157972E+0	1.088672E+0	1.075081E+0
5.550190E+2	1.021590E+0	9.944094E-1	1.003876E+0	1.008656E+0	1.042338E+0	1.021549E+0	1.103525E+0	1.056923E+0	1.069987E+0	1.035549E+0	1.046749E+0	1.026107E+0	1.023577E+0	1.039088E+0	9.867235E-1	9.863788E-1	1.082307E+0	1.008941E+0	1.042549E+0	1.042963E+0	1.004361E+0	1.033336E+0	1.063456E+0	1.080320E+0	1.057155E+0	9.853308E-1	1.041713E+0	1.039002E+0	1.030841E+0	1.021573E+0	1.023056E+0	1.016467E+0	9.914429E-1	1.057382E+0	1.022653E+0	1.007946E+0	1.016002E+0	9.906991E-1	1.049923E+0	1.066683E+0	1.013705E+0	1.008334E+0	9.888825E-1	1.073248E+0	1.039238E+0	1.051388E+0	1.050333E+0	1.006216E+0	1.041460E+0	1.062070E+0	1.059856E+0	1.020315E+0	9.833337E-1	1.046584E+0	9.982289E-1	1.029919E+0	9.854276E-1	1.028806E+0	1.023031E+0	1.015577E+0	1.027252E+0	1.066256E+0	1.042815E+0	1.022142E+0	1.029290E+0	1.032921E+0	1.026364E+0	1.016312E+0	1.063181E+0	1.029534E+0	1.036187E+0	1.022902E+0	1.061577E+0	1.008491E+0	9.985728E-1	1.038627E+0	1.005656E+0	1.012109E+0	1.106446E+0	1.027403E+0	9.922772E-1	1.012133E+0	1.044063E+0	9.929777E-1	9.852092E-1	1.066708E+0	1.055248E+0	1.017569E+0	1.040783E+0	1.005933E+0	9.999090E-1	1.054345E+0	1.025751E+0	1.040578E+0	1.019721E+0	1.048320E+0	1.047249E+0	1.059313E+0	1.002642E+0	1.083267E+0	1.022717E+0	1.033630E+0	1.058364E+0	9.743071E-1	1.020456E+0	1.043498E+0	1.057866E+0	1.020156E+0	1.049639E+0	1.044928E+0	1.061890E+0	1.031685E+0	1.065614E+0	1.061548E+0	1.009529E+0	9.944323E-1	1.019991E+0	1.029688E+0	1.012937E+0	1.040762E+0	1.042509E+0	1.039595E+0	1.027058E+0	1.029793E+0	1.029243E+0	1.033121E+0	1.019705E+0	1.025415E+0	9.978926E-1	1.040204E+0	1.029169E+0	1.031863E+0	1.024679E+0	1.053686E+0	1.028837E+0	9.809944E-1	1.001029E+0	1.015274E+0	1.059835E+0	1.042551E+0	1.016511E+0	1.038948E+0	1.051899E+0	1.009182E+0	1.073098E+0	1.047160E+0	1.030504E+0	1.060562E+0	1.069517E+0	1.040111E+0	1.051724E+0	1.025418E+0	1.029262E+0	1.012243E+0	1.053846E+0	1.019706E+0	1.017497E+0	1.028983E+0	9.628836E-1	1.051264E+0	1.063430E+0	1.050068E+0	1.039140E+0	1.008909E+0	1.028829E+0	1.011096E+0	1.042030E+0	1.036702E+0	9.972692E-1	1.079077E+0	1.014698E+0
5.557710E+2	9.937493E-1	9.652899E-1	9.488945E-1	1.019103E+0	9.842849E-1	9.814878E-1	9.849009E-1	1.003031E+0	9.802678E-1	9.563273E-1	9.628838E-1	9.732859E-1	9.694842E-1	9.560081E-1	9.508547E-1	9.938864E-1	1.002313E+0	1.004630E+0	9.768478E-1	9.839310E-1	9.802276E-1	1.014652E+0	1.014064E+0	1.040908E+0	9.790564E-1	9.726000E-1	9.533048E-1	1.025206E+0	9.357703E-1	9.716282E-1	9.796416E-1	1.001659E+0	9.936907E-1	9.933524E-1	9.592997E-1	9.986016E-1	9.690900E-1	1.016757E+0	9.752803E-1	1.019770E+0	9.474109E-1	9.687478E-1	1.003523E+0	9.902042E-1	9.600846E-1	9.697117E-1	9.740425E-1	9.850877E-1	9.583651E-1	9.580445E-1	9.493977E-1	9.430568E-1	9.714140E-1	9.891506E-1	9.826060E-1	1.010452E+0	9.809540E-1	9.648155E-1	9.459652E-1	9.386881E-1	9.856427E-1	1.009839E+0	9.667051E-1	9.654984E-1	9.543115E-1	9.706326E-1	9.135659E-1	1.013090E+0	9.557547E-1	1.007982E+0	9.683853E-1	9.889975E-1	9.559215E-1	9.569833E-1	9.651665E-1	9.730191E-1	9.846131E-1	9.449580E-1	9.946928E-1	9.498172E-1	9.477638E-1	1.011224E+0	9.644848E-1	9.830836E-1	9.503104E-1	9.958490E-1	1.006876E+0	1.008126E+0	9.961462E-1	9.679345E-1	9.663376E-1	1.005972E+0	9.803079E-1	1.016394E+0	1.019448E+0	9.753425E-1	9.740684E-1	9.502120E-1	9.808628E-1	9.775663E-1	9.995098E-1	9.979980E-1	9.652808E-1	9.586526E-1	9.479999E-1	9.252379E-1	1.007277E+0	9.530258E-1	9.811444E-1	1.000700E+0	9.843507E-1	9.900537E-1	9.656768E-1	9.681855E-1	9.302423E-1	9.665581E-1	9.882130E-1	9.469547E-1	9.858677E-1	9.658528E-1	9.328710E-1	9.884297E-1	9.621116E-1	9.883414E-1	9.757163E-1	9.655882E-1	1.013893E+0	9.836744E-1	9.906776E-1	9.479263E-1	9.464299E-1	9.999937E-1	9.838012E-1	9.537383E-1	9.497069E-1	9.696605E-1	9.924957E-1	9.955748E-1	1.012313E+0	1.004762E+0	9.555132E-1	9.876079E-1	9.914530E-1	1.008623E+0	9.586201E-1	9.936459E-1	9.643531E-1	9.536393E-1	9.730269E-1	9.659605E-1	9.358702E-1	1.001911E+0	1.006677E+0	1.014430E+0	1.014486E+0	1.018737E+0	9.712344E-1	9.425266E-1	9.657238E-1	1.035187E+0	9.865784E-1	9.666274E-1	9.551405E-1	9.818226E-1	9.221842E-1	9.836221E-1	1.042846E+0	9.938489E-1	9.727431E-1	9.887938E-1	9.596453E-1
5.560130E+2	1.021923E+0	9.795984E-1	9.484247E-1	1.062498E+0	9.694620E-1	1.004509E+0	9.833379E-1	1.050768E+0	1.004745E+0	9.639122E-1	9.594779E-1	9.697251E-1	9.571573E-1	9.625678E-1	9.957801E-1	9.874188E-1	1.021464E+0	1.000050E+0	1.004047E+0	9.954003E-1	9.677609E-1	9.837941E-1	9.756611E-1	1.011364E+0	9.958199E-1	9.055429E-1	9.328041E-1	9.771793E-1	9.791388E-1	9.460763E-1	9.745028E-1	9.887847E-1	9.866499E-1	9.658067E-1	9.791289E-1	1.023509E+0	9.863349E-1	9.747211E-1	9.642157E-1	9.893652E-1	1.007616E+0	9.720380E-1	9.817473E-1	9.920340E-1	9.747402E-1	1.024404E+0	9.600264E-1	1.029819E+0	9.894002E-1	9.914135E-1	1.016270E+0	1.017637E+0	9.417502E-1	9.586257E-1	9.244389E-1	9.771407E-1	9.895269E-1	9.818606E-1	9.714361E-1	9.513365E-1	9.625294E-1	1.028286E+0	9.749291E-1	9.746530E-1	9.361241E-1	9.412432E-1	9.503040E-1	9.732327E-1	9.570582E-1	9.895036E-1	9.945510E-1	9.947664E-1	1.002115E+0	9.798119E-1	9.909686E-1	9.724021E-1	9.531672E-1	9.936194E-1	9.851496E-1	9.895527E-1	9.916561E-1	9.725819E-1	9.946001E-1	1.003808E+0	9.891662E-1	9.807659E-1	1.008646E+0	9.822732E-1	9.930705E-1	9.304952E-1	9.995825E-1	1.023398E+0	9.862015E-1	9.798542E-1	9.645026E-1	1.014968E+0	9.869280E-1	9.217288E-1	9.943366E-1	9.945252E-1	1.021902E+0	1.014538E+0	9.580858E-1	9.731189E-1	1.014706E+0	1.004931E+0	9.574164E-1	9.343201E-1	9.654293E-1	9.571257E-1	9.931839E-1	9.999048E-1	9.776060E-1	9.601786E-1	9.095739E-1	9.645574E-1	9.094232E-1	9.889553E-1	9.912215E-1	1.027924E+0	9.898206E-1	9.578580E-1	1.005815E+0	9.946313E-1	1.029014E+0	9.806413E-1	9.727553E-1	9.883818E-1	9.676146E-1	1.008246E+0	9.817040E-1	9.799184E-1	9.406755E-1	9.795071E-1	9.804936E-1	1.004537E+0	9.919975E-1	9.195532E-1	1.022913E+0	9.660152E-1	9.820039E-1	9.885896E-1	9.697354E-1	1.014424E+0	1.010679E+0	1.027434E+0	9.870688E-1	9.666604E-1	9.526598E-1	9.478619E-1	9.529795E-1	1.027774E+0	1.006700E+0	9.764408E-1	9.643043E-1	1.001715E+0	9.906257E-1	9.636268E-1	9.794024E-1	9.991137E-1	9.934701E-1	9.624159E-1	1.030967E+0	9.629933E-1	1.008409E+0	1.014060E+0	1.004489E+0	9.934001E-1	9.051386E-1	9.728866E-1	9.244681E-1
5.565090E+2	9.657314E-1	9.663292E-1	1.001433E+0	9.729429E-1	9.766570E-1	9.845010E-1	9.622321E-1	1.045749E+0	9.915996E-1	9.839960E-1	9.697786E-1	9.628179E-1	9.970185E-1	1.003591E+0	9.739720E-1	9.991789E-1	9.599389E-1	9.981459E-1	9.843628E-1	1.001521E+0	9.562277E-1	1.032207E+0	9.669824E-1	9.707072E-1	9.579129E-1	9.886473E-1	9.856760E-1	9.744868E-1	1.011824E+0	9.650281E-1	9.489774E-1	9.735296E-1	1.028367E+0	9.884068E-1	9.759163E-1	1.008938E+0	1.015164E+0	9.840428E-1	1.026525E+0	1.004663E+0	9.697793E-1	9.312681E-1	9.961333E-1	9.900513E-1	9.919759E-1	9.691090E-1	1.011186E+0	9.916793E-1	9.729547E-1	9.627157E-1	1.026146E+0	1.011625E+0	9.772930E-1	1.020752E+0	1.015573E+0	1.029701E+0	9.502924E-1	9.593862E-1	9.672668E-1	1.026659E+0	1.032714E+0	9.928873E-1	9.865645E-1	9.840824E-1	9.796520E-1	1.002495E+0	1.030865E+0	1.004181E+0	1.041417E+0	9.630570E-1	1.014375E+0	9.810486E-1	9.766747E-1	9.988426E-1	9.769158E-1	9.806102E-1	9.848086E-1	9.782839E-1	9.798496E-1	9.871852E-1	9.928340E-1	1.011905E+0	1.002552E+0	9.697613E-1	9.841538E-1	1.004576E+0	9.864503E-1	9.646080E-1	9.879640E-1	9.678086E-1	9.695476E-1	9.756020E-1	9.559046E-1	9.743991E-1	1.022360E+0	9.834343E-1	9.673032E-1	1.002151E+0	1.006109E+0	1.026314E+0	9.793960E-1	9.283436E-1	1.016541E+0	9.840746E-1	1.037283E+0	1.005006E+0	9.842549E-1	9.817783E-1	9.973475E-1	9.985777E-1	9.897992E-1	9.892905E-1	9.778244E-1	9.819943E-1	9.877374E-1	9.942312E-1	9.871586E-1	9.788057E-1	9.592870E-1	9.757290E-1	9.923925E-1	9.606441E-1	9.880423E-1	9.825601E-1	1.001954E+0	1.006491E+0	9.663875E-1	9.840719E-1	9.537974E-1	9.840764E-1	1.018529E+0	9.774212E-1	1.043789E+0	1.029653E+0	9.867614E-1	9.968846E-1	1.006643E+0	9.446581E-1	9.758806E-1	1.003951E+0	9.916545E-1	1.024076E+0	9.710675E-1	9.996718E-1	9.814395E-1	9.748813E-1	9.971862E-1	1.015740E+0	9.871342E-1	9.566829E-1	9.680974E-1	1.028811E+0	9.463342E-1	9.923525E-1	9.880232E-1	9.885290E-1	9.967005E-1	9.903225E-1	9.708834E-1	9.983748E-1	1.041258E+0	1.000904E+0	9.753914E-1	1.010728E+0	9.860850E-1	9.577883E-1	9.693881E-1	1.042020E+0	9.877021E-1	1.048108E+0	9.767780E-1
5.570270E+2	9.586418E-1	9.851524E-1	9.739791E-1	9.980498E-1	9.674918E-1	9.528532E-1	9.446742E-1	9.214660E-1	9.775619E-1	9.538709E-1	9.539908E-1	9.959712E-1	1.028961E+0	1.015018E+0	9.695050E-1	9.809524E-1	9.998094E-1	9.758881E-1	9.883507E-1	9.621267E-1	9.921173E-1	9.404658E-1	9.441259E-1	9.705686E-1	9.427336E-1	9.571313E-1	9.678873E-1	9.887031E-1	9.865161E-1	9.920412E-1	9.930865E-1	1.012781E+0	9.709380E-1	9.879601E-1	9.321855E-1	1.030942E+0	1.000365E+0	1.004423E+0	9.764719E-1	9.830263E-1	9.639299E-1	9.908873E-1	9.456495E-1	1.025402E+0	9.707918E-1	9.833737E-1	9.833414E-1	9.776201E-1	9.991044E-1	9.548304E-1	9.801607E-1	9.263405E-1	9.755777E-1	9.691409E-1	9.671351E-1	9.527862E-1	1.019711E+0	9.847324E-1	9.875147E-1	9.598242E-1	9.917944E-1	9.847678E-1	1.022246E+0	1.016697E+0	9.536848E-1	9.413538E-1	9.922673E-1	1.016322E+0	9.909239E-1	9.380837E-1	1.021701E+0	9.655137E-1	1.007857E+0	9.680594E-1	9.575330E-1	1.037097E+0	1.014701E+0	9.572636E-1	9.555685E-1	9.904176E-1	9.607274E-1	9.990780E-1	9.431465E-1	9.910369E-1	9.809584E-1	1.002081E+0	9.687903E-1	1.001070E+0	1.011714E+0	9.388391E-1	9.604525E-1	9.957759E-1	9.675296E-1	9.864608E-1	9.769605E-1	1.000298E+0	9.658160E-1	9.531762E-1	9.966398E-1	9.391368E-1	9.725721E-1	1.005024E+0	9.616347E-1	9.755961E-1	1.009438E+0	9.799868E-1	9.853902E-1	9.735350E-1	9.894595E-1	9.343579E-1	9.719163E-1	1.007594E+0	1.018660E+0	9.726391E-1	9.844334E-1	1.025106E+0	1.018551E+0	9.523276E-1	9.879006E-1	9.604172E-1	9.840218E-1	9.704575E-1	9.720302E-1	1.029372E+0	9.527590E-1	1.008717E+0	9.496701E-1	9.743003E-1	1.029071E+0	9.812075E-1	9.801649E-1	9.753966E-1	9.643493E-1	9.713656E-1	9.755376E-1	9.557405E-1	9.951666E-1	9.618945E-1	9.588811E-1	1.005942E+0	9.677279E-1	9.817838E-1	9.304816E-1	1.019646E+0	9.571435E-1	9.644738E-1	9.450129E-1	1.007757E+0	9.715691E-1	9.688586E-1	9.809495E-1	9.866412E-1	1.050191E+0	9.518251E-1	9.703881E-1	9.671398E-1	9.732957E-1	9.393376E-1	9.811352E-1	9.805415E-1	9.923529E-1	9.396137E-1	9.445650E-1	9.654680E-1	9.915613E-1	9.581422E-1	9.698582E-1	1.014924E+0	9.546189E-1	1.006101E+0	9.916095E-1
5.575640E+2	9.684871E-1	9.682457E-1	9.681502E-1	9.999840E-1	1.018397E+0	9.925411E-1	1.000086E+0	1.029525E+0	9.825436E-1	1.024559E+0	1.035400E+0	9.441201E-1	9.849050E-1	9.875300E-1	9.881736E-1	1.016274E+0	1.009837E+0	1.015457E+0	9.908123E-1	9.980137E-1	9.911062E-1	1.006112E+0	1.001258E+0	1.032594E+0	1.010882E+0	9.903257E-1	1.022734E+0	9.900604E-1	1.017170E+0	9.799058E-1	1.001561E+0	9.637595E-1	1.006234E+0	9.756965E-1	9.889453E-1	9.991680E-1	9.925015E-1	1.026145E+0	9.659139E-1	1.024599E+0	1.016059E+0	1.036380E+0	1.035602E+0	9.652726E-1	1.005928E+0	9.896016E-1	9.883803E-1	1.018548E+0	1.025402E+0	9.891449E-1	9.890597E-1	1.012242E+0	9.892424E-1	1.004483E+0	1.016828E+0	9.918426E-1	1.019534E+0	9.706979E-1	1.009898E+0	1.029998E+0	9.968733E-1	1.024262E+0	1.020138E+0	1.009618E+0	1.019044E+0	9.884807E-1	1.016385E+0	9.612981E-1	9.982638E-1	9.608525E-1	9.563916E-1	1.063351E+0	9.848021E-1	1.003233E+0	9.933417E-1	1.010093E+0	9.760291E-1	9.809379E-1	9.990936E-1	9.867277E-1	1.032376E+0	9.996085E-1	9.800460E-1	9.924541E-1	1.005302E+0	1.009908E+0	9.977249E-1	9.767076E-1	9.991757E-1	9.809854E-1	9.960959E-1	9.865570E-1	1.023111E+0	9.896182E-1	9.826076E-1	1.015120E+0	9.929813E-1	9.975412E-1	9.450839E-1	9.941152E-1	1.015294E+0	1.006859E+0	9.857753E-1	1.003988E+0	1.037091E+0	9.740290E-1	9.725880E-1	9.829272E-1	1.009431E+0	9.939205E-1	9.974313E-1	9.484710E-1	1.006258E+0	9.485587E-1	9.747661E-1	9.633085E-1	1.006519E+0	1.006232E+0	1.026341E+0	1.018255E+0	1.037688E+0	9.875905E-1	9.825169E-1	1.027028E+0	9.789176E-1	9.620673E-1	9.556338E-1	1.024137E+0	9.844375E-1	9.713330E-1	9.738655E-1	9.953930E-1	9.678937E-1	1.017137E+0	1.007393E+0	9.999568E-1	1.001779E+0	9.946096E-1	9.899705E-1	9.826036E-1	9.920945E-1	9.929801E-1	1.029521E+0	1.042280E+0	1.032833E+0	1.045954E+0	1.002333E+0	9.978881E-1	9.880982E-1	9.852315E-1	9.898929E-1	1.019983E+0	1.012632E+0	9.994138E-1	1.009367E+0	1.015249E+0	1.047879E+0	9.985589E-1	1.000049E+0	9.689703E-1	9.371319E-1	9.716793E-1	1.023699E+0	9.739653E-1	9.608355E-1	1.020169E+0	9.681485E-1	1.011269E+0	9.976309E-1	9.444163E-1	1.002906E+0
5.580230E+2	1.015107E+0	1.003873E+0	1.025369E+0	9.719238E-1	1.003103E+0	1.046929E+0	1.008387E+0	9.938539E-1	9.889167E-1	1.033237E+0	1.015485E+0	1.006324E+0	9.928772E-1	9.519334E-1	1.012889E+0	1.022090E+0	1.013675E+0	9.814628E-1	9.959508E-1	9.850955E-1	1.067031E+0	1.006831E+0	1.008756E+0	9.994208E-1	1.016665E+0	1.011099E+0	9.927694E-1	1.005019E+0	9.950583E-1	9.930640E-1	1.032122E+0	1.007139E+0	9.584833E-1	9.927760E-1	1.040481E+0	9.857211E-1	9.859942E-1	1.004797E+0	9.871188E-1	1.027514E+0	1.000028E+0	1.006017E+0	9.627520E-1	1.001830E+0	9.741874E-1	9.926364E-1	9.803185E-1	9.914910E-1	1.012197E+0	1.011720E+0	1.003251E+0	1.009155E+0	9.903282E-1	9.767724E-1	9.716367E-1	1.001189E+0	1.032803E+0	1.026459E+0	1.031060E+0	9.871700E-1	1.011032E+0	1.002440E+0	1.025323E+0	9.865815E-1	1.018899E+0	9.848766E-1	9.774525E-1	1.034569E+0	9.723474E-1	1.041212E+0	1.011447E+0	9.745751E-1	1.002560E+0	1.027570E+0	1.012601E+0	1.003775E+0	9.824718E-1	1.012229E+0	1.017067E+0	9.570955E-1	1.019563E+0	9.727081E-1	1.018401E+0	9.711494E-1	9.879296E-1	9.866565E-1	1.020864E+0	1.023563E+0	1.033582E+0	1.000742E+0	1.021657E+0	1.015918E+0	1.011143E+0	1.035434E+0	1.022642E+0	1.008705E+0	1.065999E+0	1.011341E+0	9.969489E-1	9.597620E-1	9.655792E-1	9.552680E-1	9.413011E-1	9.962037E-1	9.800149E-1	1.000039E+0	9.947022E-1	9.924612E-1	1.017335E+0	9.969521E-1	1.014308E+0	1.013520E+0	9.819620E-1	1.006657E+0	1.028956E+0	9.847927E-1	9.777289E-1	1.035001E+0	9.991946E-1	9.928649E-1	1.000462E+0	1.021689E+0	1.006523E+0	9.769174E-1	1.004244E+0	9.485644E-1	1.016724E+0	1.020509E+0	9.812027E-1	9.980961E-1	9.835783E-1	9.930649E-1	9.735836E-1	9.691064E-1	9.932658E-1	9.522980E-1	9.836315E-1	1.028210E+0	1.015583E+0	1.007160E+0	1.014355E+0	9.922113E-1	1.000844E+0	1.006389E+0	9.747780E-1	9.382868E-1	1.029981E+0	1.008067E+0	1.005752E+0	9.957629E-1	1.026186E+0	1.017166E+0	9.885274E-1	1.005028E+0	9.750923E-1	1.021501E+0	1.004441E+0	1.012831E+0	1.037228E+0	1.016718E+0	9.720410E-1	1.038653E+0	9.674705E-1	9.740338E-1	9.855054E-1	1.036467E+0	1.048012E+0	1.002740E+0	1.030768E+0	1.004993E+0	9.466931E-1
5.585220E+2	1.031598E+0	1.014312E+0	1.046552E+0	1.005186E+0	1.016408E+0	9.954321E-1	1.039012E+0	1.028469E+0	1.023270E+0	1.029556E+0	1.014685E+0	1.002452E+0	1.042238E+0	1.012198E+0	1.031871E+0	9.601373E-1	1.047372E+0	1.024798E+0	9.835223E-1	1.034176E+0	9.999697E-1	9.793540E-1	1.000513E+0	9.988613E-1	1.068237E+0	1.037926E+0	1.032102E+0	9.879989E-1	1.005582E+0	9.874872E-1	9.988784E-1	1.011845E+0	1.017180E+0	1.031032E+0	1.029342E+0	1.000562E+0	1.022721E+0	1.011210E+0	9.956445E-1	1.019799E+0	1.067053E+0	1.050288E+0	9.771832E-1	1.037618E+0	9.833406E-1	1.038126E+0	1.025514E+0	1.014078E+0	1.025719E+0	1.012008E+0	9.994462E-1	1.019544E+0	1.005689E+0	1.041753E+0	1.029964E+0	1.022874E+0	1.036735E+0	1.037033E+0	1.024053E+0	1.004688E+0	1.034498E+0	9.819085E-1	9.887255E-1	1.025365E+0	9.805339E-1	1.025466E+0	1.025251E+0	1.013433E+0	1.040727E+0	1.026022E+0	1.001377E+0	9.889894E-1	1.004329E+0	9.920219E-1	1.041762E+0	1.010427E+0	1.050425E+0	1.029186E+0	1.028832E+0	1.040188E+0	9.658785E-1	1.045704E+0	1.007248E+0	1.007965E+0	1.001143E+0	1.022662E+0	1.005138E+0	1.010172E+0	9.771681E-1	1.034843E+0	1.059766E+0	1.051168E+0	1.030642E+0	1.024231E+0	9.812928E-1	9.906898E-1	1.037118E+0	1.051086E+0	1.017520E+0	1.042596E+0	1.014466E+0	9.836991E-1	1.032020E+0	1.026534E+0	9.981538E-1	1.030445E+0	9.585372E-1	9.816480E-1	9.707850E-1	9.937292E-1	1.060923E+0	1.003214E+0	9.916086E-1	1.049256E+0	1.031619E+0	1.037389E+0	1.051919E+0	1.064105E+0	1.019823E+0	1.045178E+0	9.890960E-1	1.029845E+0	9.941338E-1	1.029208E+0	1.035537E+0	1.034636E+0	1.048623E+0	1.021515E+0	9.888027E-1	1.018763E+0	1.055380E+0	1.035946E+0	1.047423E+0	1.034046E+0	9.785964E-1	1.027029E+0	1.041205E+0	1.034615E+0	1.007337E+0	1.001062E+0	1.051746E+0	1.022289E+0	1.028060E+0	1.023108E+0	1.063124E+0	9.979490E-1	1.016787E+0	1.028870E+0	1.026459E+0	1.062961E+0	9.910737E-1	1.020553E+0	1.011132E+0	1.002436E+0	1.010711E+0	1.013583E+0	9.933876E-1	1.013174E+0	1.025641E+0	1.037797E+0	9.565060E-1	1.024252E+0	1.045386E+0	1.015544E+0	9.879670E-1	1.018679E+0	1.043013E+0	1.054317E+0	1.030319E+0	9.878829E-1	1.007782E+0
5.590160E+2	1.004691E+0	1.053350E+0	1.058439E+0	1.041303E+0	1.072237E+0	1.030304E+0	1.050090E+0	1.025203E+0	1.023885E+0	1.029906E+0	1.039344E+0	1.048832E+0	9.777226E-1	1.010905E+0	1.053672E+0	1.003769E+0	1.020533E+0	1.052658E+0	9.835851E-1	1.037495E+0	1.050540E+0	1.044348E+0	1.028369E+0	9.692532E-1	1.040231E+0	1.040663E+0	1.005696E+0	1.000888E+0	1.046039E+0	1.044096E+0	1.036169E+0	1.052654E+0	1.026055E+0	1.067232E+0	1.019790E+0	9.921071E-1	1.023199E+0	1.045317E+0	1.032042E+0	1.035025E+0	1.042843E+0	1.026464E+0	1.047273E+0	9.974587E-1	1.090054E+0	1.017325E+0	1.066276E+0	1.004391E+0	1.006366E+0	1.056531E+0	1.000121E+0	1.019004E+0	1.041546E+0	1.025019E+0	1.042164E+0	9.924713E-1	1.008234E+0	1.004409E+0	1.028914E+0	1.043172E+0	9.953229E-1	1.039604E+0	9.992989E-1	1.009431E+0	1.074428E+0	1.001688E+0	1.016197E+0	9.654249E-1	9.874700E-1	1.016137E+0	1.037908E+0	1.023860E+0	1.036375E+0	1.052323E+0	1.040573E+0	9.994024E-1	9.907717E-1	1.010518E+0	1.028381E+0	1.018387E+0	1.045823E+0	1.018379E+0	1.048787E+0	1.034111E+0	1.011436E+0	1.030357E+0	1.008843E+0	9.949531E-1	1.012445E+0	1.029535E+0	9.743567E-1	1.007794E+0	1.046584E+0	9.807585E-1	1.027061E+0	1.034546E+0	9.996375E-1	1.033770E+0	1.020240E+0	1.009367E+0	1.050805E+0	1.045356E+0	1.043804E+0	1.018495E+0	1.056748E+0	1.018028E+0	1.057911E+0	1.020186E+0	1.024021E+0	1.038941E+0	1.023450E+0	1.052380E+0	1.009581E+0	1.046268E+0	1.037159E+0	1.037070E+0	1.001040E+0	1.035694E+0	1.064710E+0	9.922472E-1	9.903647E-1	1.024634E+0	1.054538E+0	1.028813E+0	1.073011E+0	1.029244E+0	9.830496E-1	1.034468E+0	1.034109E+0	1.012978E+0	1.007019E+0	1.064234E+0	1.045512E+0	1.017238E+0	1.014133E+0	1.025811E+0	1.008364E+0	1.040766E+0	1.085571E+0	1.029915E+0	1.028047E+0	1.036517E+0	1.034763E+0	9.949770E-1	1.007566E+0	1.054392E+0	1.021826E+0	1.009616E+0	9.892254E-1	1.028445E+0	1.027654E+0	1.009614E+0	1.029959E+0	1.021191E+0	1.039202E+0	1.056129E+0	9.953085E-1	1.011206E+0	1.036997E+0	1.030957E+0	1.032863E+0	1.026454E+0	1.027849E+0	1.045847E+0	1.074121E+0	1.056420E+0	1.016777E+0	9.729134E-1	1.054359E+0	1.024489E+0	1.135790E+0
5.595110E+2	1.051527E+0	9.701700E-1	9.771138E-1	1.034247E+0	1.021478E+0	1.012882E+0	1.016863E+0	1.042244E+0	1.035663E+0	9.972798E-1	1.015626E+0	1.028051E+0	1.026678E+0	1.081334E+0	9.960012E-1	1.023832E+0	9.988696E-1	1.030827E+0	1.039048E+0	1.010577E+0	9.980711E-1	1.007319E+0	1.054284E+0	1.047830E+0	9.811350E-1	1.016553E+0	9.592382E-1	1.060390E+0	1.027530E+0	9.766080E-1	1.033984E+0	9.929604E-1	1.000856E+0	1.002715E+0	1.031550E+0	9.990061E-1	9.956736E-1	9.736372E-1	1.011810E+0	9.730581E-1	9.969573E-1	1.006553E+0	1.034229E+0	1.031767E+0	1.029396E+0	9.850514E-1	1.001675E+0	1.024023E+0	1.000518E+0	9.895248E-1	1.004433E+0	1.027824E+0	1.008267E+0	9.985724E-1	1.016742E+0	1.027916E+0	1.014908E+0	1.047516E+0	1.032867E+0	9.960504E-1	9.856265E-1	1.011235E+0	1.029710E+0	1.029528E+0	1.012354E+0	1.041066E+0	9.999085E-1	9.881330E-1	9.688349E-1	1.032623E+0	9.913908E-1	1.016006E+0	1.000083E+0	9.934916E-1	1.033914E+0	1.014183E+0	1.027503E+0	9.824712E-1	1.044896E+0	1.026013E+0	1.018950E+0	1.034462E+0	1.005006E+0	1.042265E+0	1.040247E+0	1.018552E+0	1.032951E+0	1.037616E+0	1.043697E+0	1.023401E+0	9.974383E-1	1.036721E+0	1.026511E+0	9.985674E-1	1.009113E+0	1.001206E+0	9.897550E-1	1.019317E+0	1.013737E+0	1.012142E+0	1.008257E+0	1.057729E+0	1.013447E+0	1.039724E+0	1.007816E+0	1.013280E+0	1.027428E+0	1.015770E+0	1.023308E+0	1.054464E+0	1.009876E+0	1.006262E+0	1.057296E+0	1.012610E+0	1.012095E+0	1.034097E+0	9.882484E-1	9.947955E-1	9.813648E-1	9.820225E-1	9.972837E-1	1.001375E+0	9.937517E-1	9.734628E-1	1.001014E+0	1.002644E+0	1.082142E+0	1.004820E+0	1.023080E+0	1.025926E+0	9.808088E-1	9.902926E-1	1.015389E+0	9.913908E-1	1.034328E+0	1.046359E+0	1.014397E+0	1.014957E+0	1.022454E+0	1.022365E+0	1.042346E+0	1.005051E+0	1.021688E+0	9.514446E-1	9.911857E-1	1.059899E+0	1.005288E+0	1.026041E+0	1.007695E+0	1.031228E+0	9.987766E-1	1.030855E+0	1.017925E+0	1.005033E+0	1.034164E+0	1.014461E+0	1.023686E+0	1.016157E+0	9.666017E-1	1.018000E+0	1.038263E+0	1.044291E+0	9.953725E-1	1.019358E+0	9.918716E-1	9.785247E-1	9.938585E-1	9.717580E-1	1.020529E+0	1.009734E+0	9.564354E-1
5.600300E+2	1.028805E+0	1.016671E+0	9.825469E-1	1.011663E+0	9.891800E-1	9.931810E-1	9.975170E-1	9.763363E-1	1.043214E+0	1.006895E+0	9.850913E-1	1.012658E+0	9.810612E-1	9.889317E-1	9.994688E-1	9.802209E-1	9.651640E-1	9.703604E-1	1.012824E+0	1.007697E+0	1.003546E+0	9.954613E-1	1.037721E+0	1.017049E+0	9.841934E-1	9.866980E-1	1.035096E+0	1.012067E+0	9.610086E-1	1.019645E+0	1.000768E+0	1.014538E+0	1.007585E+0	9.675467E-1	9.609664E-1	1.011202E+0	1.018038E+0	1.002170E+0	1.018457E+0	9.885342E-1	1.012013E+0	9.946551E-1	1.022379E+0	9.719860E-1	9.726104E-1	1.008748E+0	9.901420E-1	1.006495E+0	1.015544E+0	1.046932E+0	1.006033E+0	9.945329E-1	1.012457E+0	1.020649E+0	9.842212E-1	1.013064E+0	1.013099E+0	9.830057E-1	9.877150E-1	9.742768E-1	1.015536E+0	9.925528E-1	1.005322E+0	9.696548E-1	9.710390E-1	1.011860E+0	9.839283E-1	1.044636E+0	1.010074E+0	1.007930E+0	1.018283E+0	9.894035E-1	9.886057E-1	9.840364E-1	9.608525E-1	9.780792E-1	1.010394E+0	1.003474E+0	1.020327E+0	9.635850E-1	9.869914E-1	9.929543E-1	1.038846E+0	1.003206E+0	9.937348E-1	9.670595E-1	1.016653E+0	1.018362E+0	9.786435E-1	9.885259E-1	1.000467E+0	9.879751E-1	9.992158E-1	1.012811E+0	1.007335E+0	9.662485E-1	9.900875E-1	9.427850E-1	1.005174E+0	1.002845E+0	1.028716E+0	1.032053E+0	9.631107E-1	9.901741E-1	9.540117E-1	1.003945E+0	1.033654E+0	9.958320E-1	9.993867E-1	1.005058E+0	1.001446E+0	9.938727E-1	9.848714E-1	9.631360E-1	1.002194E+0	9.461565E-1	9.739671E-1	9.875454E-1	1.008783E+0	1.038830E+0	1.010838E+0	1.020403E+0	9.727553E-1	9.990638E-1	1.004806E+0	1.014274E+0	1.025200E+0	9.773816E-1	9.870409E-1	1.008002E+0	9.720558E-1	1.014012E+0	1.013711E+0	1.007673E+0	9.941723E-1	1.035593E+0	1.038807E+0	9.796078E-1	1.005752E+0	9.977566E-1	9.824489E-1	9.817348E-1	1.009252E+0	9.743866E-1	1.018120E+0	9.936250E-1	1.005782E+0	9.793554E-1	1.024632E+0	9.727934E-1	9.965249E-1	9.862985E-1	9.559869E-1	9.979279E-1	1.042924E+0	9.867703E-1	9.588297E-1	1.025982E+0	9.805821E-1	1.001681E+0	1.034609E+0	9.725079E-1	1.024445E+0	1.008199E+0	1.037742E+0	1.006228E+0	1.009107E+0	1.008991E+0	1.008175E+0	1.009065E+0	1.005623E+0
5.605090E+2	1.025782E+0	1.027059E+0	9.855412E-1	1.008805E+0	9.541140E-1	1.002101E+0	9.671676E-1	9.870882E-1	9.805616E-1	9.698152E-1	9.933670E-1	1.015175E+0	9.636379E-1	9.912202E-1	9.777896E-1	1.003691E+0	9.847947E-1	9.971405E-1	1.006986E+0	9.853739E-1	9.652128E-1	9.956080E-1	9.686756E-1	9.912315E-1	1.006902E+0	1.025733E+0	9.984068E-1	9.788425E-1	1.002112E+0	1.005589E+0	9.547491E-1	1.002669E+0	1.010538E+0	1.003632E+0	1.041282E+0	9.744968E-1	9.732125E-1	9.715788E-1	1.028492E+0	9.807506E-1	9.674438E-1	1.013516E+0	1.000830E+0	9.907746E-1	9.996239E-1	1.012032E+0	1.002837E+0	1.019604E+0	9.585382E-1	1.014573E+0	9.765448E-1	9.892047E-1	1.010932E+0	9.731851E-1	9.987006E-1	9.529712E-1	9.743405E-1	9.817718E-1	9.693838E-1	9.747405E-1	9.685002E-1	9.921506E-1	9.528661E-1	9.435387E-1	9.894427E-1	1.029172E+0	9.796105E-1	9.693542E-1	1.004307E+0	1.001381E+0	9.790572E-1	9.932212E-1	1.011258E+0	9.880612E-1	9.902760E-1	9.810280E-1	9.910109E-1	1.024489E+0	9.730195E-1	1.061309E+0	1.005844E+0	9.661104E-1	9.928451E-1	1.032279E+0	9.898416E-1	9.666870E-1	9.964980E-1	9.834649E-1	9.616510E-1	9.924980E-1	1.017726E+0	9.785655E-1	9.707580E-1	9.685203E-1	9.959617E-1	9.815018E-1	9.872031E-1	1.018650E+0	9.926478E-1	1.019280E+0	9.696444E-1	1.006234E+0	1.043620E+0	9.920647E-1	9.860020E-1	1.009135E+0	1.009470E+0	1.037263E+0	1.002006E+0	1.010368E+0	9.481016E-1	9.668927E-1	9.830368E-1	1.019285E+0	9.880580E-1	1.019432E+0	1.024221E+0	9.673145E-1	9.919869E-1	9.948615E-1	1.013239E+0	9.852787E-1	1.017370E+0	9.785756E-1	1.003184E+0	1.011048E+0	1.004338E+0	9.693183E-1	9.795734E-1	9.739863E-1	1.028090E+0	9.504450E-1	1.003114E+0	9.781965E-1	9.975003E-1	9.934603E-1	9.353720E-1	1.011623E+0	9.627120E-1	9.900597E-1	9.687848E-1	1.002268E+0	1.002892E+0	9.903370E-1	9.963184E-1	9.488165E-1	1.005288E+0	9.981958E-1	9.966265E-1	9.971904E-1	1.034859E+0	9.308469E-1	9.893376E-1	9.986217E-1	9.860802E-1	9.781527E-1	9.909695E-1	1.010864E+0	1.019915E+0	9.629834E-1	1.029245E+0	9.862545E-1	9.839120E-1	9.766794E-1	9.928651E-1	9.807913E-1	1.010037E+0	9.488629E-1	9.701272E-1	9.811658E-1	1.040885E+0
5.610010E+2	9.496299E-1	9.948374E-1	9.808751E-1	9.558958E-1	9.809339E-1	9.892755E-1	1.013972E+0	9.500655E-1	9.527841E-1	9.708852E-1	9.772324E-1	9.835984E-1	1.004901E+0	9.573380E-1	9.966579E-1	1.009855E+0	1.000006E+0	9.532625E-1	1.014558E+0	9.779240E-1	9.761779E-1	9.922934E-1	9.893146E-1	1.002484E+0	9.911080E-1	9.452227E-1	1.000394E+0	1.001544E+0	9.471597E-1	1.036536E+0	9.997053E-1	9.681256E-1	9.737651E-1	9.830019E-1	9.795408E-1	9.978566E-1	9.731311E-1	9.766797E-1	9.575263E-1	9.630307E-1	9.638941E-1	9.439705E-1	9.779696E-1	9.878398E-1	9.820924E-1	1.003997E+0	9.503291E-1	9.520700E-1	9.836570E-1	9.620210E-1	1.014805E+0	9.905284E-1	9.886679E-1	9.696733E-1	9.570354E-1	1.015184E+0	9.303413E-1	1.004988E+0	9.613277E-1	1.003421E+0	9.681031E-1	9.781917E-1	9.698053E-1	1.025504E+0	1.000923E+0	9.735430E-1	9.781345E-1	1.002649E+0	9.856352E-1	1.012701E+0	9.680693E-1	1.004031E+0	9.874552E-1	9.923605E-1	9.922312E-1	9.853067E-1	9.718851E-1	1.021148E+0	9.529665E-1	9.690925E-1	9.710123E-1	9.590909E-1	9.631214E-1	9.557727E-1	1.005254E+0	9.914605E-1	9.660872E-1	9.894844E-1	9.939607E-1	1.042821E+0	1.002492E+0	9.639238E-1	9.686003E-1	1.029200E+0	9.746648E-1	1.018250E+0	1.004100E+0	9.701831E-1	1.005900E+0	9.944420E-1	9.952715E-1	9.794339E-1	9.987466E-1	9.731460E-1	9.334418E-1	9.661068E-1	9.760651E-1	1.018599E+0	9.669212E-1	9.736322E-1	9.827493E-1	1.018503E+0	9.889013E-1	9.995952E-1	9.529821E-1	9.584172E-1	9.706469E-1	9.781788E-1	9.606094E-1	9.995952E-1	9.846133E-1	9.980831E-1	1.018339E+0	9.749996E-1	9.445742E-1	9.823145E-1	9.682325E-1	9.894784E-1	1.038885E+0	1.025632E+0	1.000510E+0	1.003794E+0	9.252347E-1	9.841938E-1	1.018312E+0	9.668673E-1	9.746366E-1	9.890598E-1	9.758581E-1	9.591858E-1	9.607953E-1	9.610892E-1	9.714295E-1	9.977602E-1	9.774924E-1	1.021722E+0	9.705163E-1	9.284693E-1	1.002808E+0	1.000846E+0	9.859868E-1	9.692308E-1	9.979750E-1	1.026170E+0	9.440495E-1	9.584851E-1	1.015502E+0	9.815672E-1	9.809680E-1	9.839778E-1	9.657305E-1	9.953902E-1	1.011910E+0	1.010177E+0	9.914457E-1	9.867913E-1	9.718009E-1	9.722040E-1	9.457707E-1	9.840456E-1	9.354986E-1
