Photon Energy (eV)	#1	#2	#3	#4	#5	#6	#7	#8	#9	#10	#11	#12	#13	#14	#15	#16	#17	#18	#19	#20	#21	#22	#23	#24	#25	#26	#27	#28	#29	#30	#31	#32	#33	#34	#35	#36	#37	#38	#39	#40	#41	#42	#43	#44	#45	#46	#47	#48	#49	#50	#51	#52	#53	#54	#55	#56	#57	#58	#59	#60	#61	#62	#63	#64	#65	#66	#67	#68	#69	#70	#71	#72	#73	#74	#75	#76	#77	#78	#79	#80	#81	#82	#83	#84	#85	#86	#87	#88	#89	#90	#91	#92	#93	#94	#95	#96	#97	#98	#99	#100	#101	#102	#103	#104	#105	#106	#107	#108	#109	#110	#111	#112	#113	#114	#115	#116	#117	#118	#119	#120	#121	#122	#123	#124	#125	#126	#127	#128	#129	#130	#131	#132	#133	#134	#135	#136	#137	#138	#139	#140	#141	#142	#143	#144	#145	#146	#147	#148	#149	#150	#151	#152	#153	#154	#155	#156	#157	#158	#159	#160	#161	#162	#163	#164	#165	#166	#167	#168	#169	#170	#171	#172	
5.300270E+2	-4.832822E-3	-1.323634E-2	7.749793E-4	-1.523064E-3	-1.614551E-2	-1.555475E-2	6.671723E-3	-4.683680E-3	-6.614845E-3	-1.077043E-2	-6.455847E-3	-5.112532E-3	-1.617460E-2	-9.292266E-3	-9.574453E-3	-5.750954E-3	-7.422520E-3	-1.634963E-2	-1.080023E-2	-3.133516E-3	-1.033858E-2	-8.485148E-3	-1.187063E-2	-1.007676E-2	-4.400105E-3	-1.410305E-3	-9.472197E-3	-1.017019E-2	-1.240830E-2	-1.036007E-2	-8.719884E-3	-1.549347E-2	-2.097324E-2	-1.241750E-2	-2.474555E-3	-1.735417E-2	-9.409684E-3	-9.031323E-3	-6.013048E-3	-1.463137E-2	-1.159175E-2	-1.170925E-2	-1.649396E-2	-4.306246E-3	-7.818602E-3	-1.370408E-2	-9.848064E-3	-7.935977E-3	-8.203334E-3	-8.959563E-3	-6.827906E-3	-6.891313E-3	-5.515159E-3	-9.651885E-3	-2.854319E-3	-8.087730E-3	-1.068082E-2	-9.367181E-3	-1.302741E-2	-7.516748E-3	-1.587486E-2	8.059133E-4	-1.429058E-2	-2.401327E-3	-7.081127E-3	-1.450362E-2	-1.134120E-2	-5.123193E-3	-1.578485E-3	-1.333043E-2	-1.100872E-2	-6.967960E-3	-2.126428E-2	-3.127875E-3	-3.508957E-3	-1.920991E-2	-5.121103E-3	-1.127266E-2	-1.004077E-2	-5.468588E-3	-5.314369E-3	-1.263028E-2	-9.646922E-3	-9.968601E-3	-1.411473E-2	3.122846E-3	-8.911345E-3	-7.820384E-3	-7.869505E-3	-1.349956E-2	-4.112108E-3	-7.774681E-3	-1.062339E-2	-1.603497E-2	-8.750236E-3	-6.910234E-3	-9.523490E-3	-1.181882E-2	-7.527372E-3	1.340593E-3	-1.156527E-2	3.484184E-3	-1.363668E-2	-5.512752E-3	-1.772772E-2	-9.358545E-3	-2.007424E-2	-4.025909E-3	-1.301972E-2	-1.537612E-2	-1.426189E-2	-5.004785E-3	-1.453996E-2	-1.004624E-2	-5.575073E-3	-7.207049E-3	-7.879778E-3	-6.839350E-3	-1.170311E-2	-1.777048E-2	-7.580910E-3	1.173132E-3	-5.893397E-3	-2.217503E-2	-8.178251E-3	-8.095292E-3	-5.698160E-3	-8.536840E-3	-9.801253E-3	-1.483097E-2	-4.513187E-3	-1.044554E-2	-5.461644E-3	-8.485685E-3	-1.029731E-2	-1.008814E-2	-1.250718E-2	-9.826577E-3	-2.794586E-3	-8.192295E-3	-3.201110E-3	-3.024049E-3	-1.324557E-2	-1.416666E-2	-7.209676E-3	-1.389237E-2	-1.756513E-2	3.597351E-3	-6.915721E-3	-3.688406E-3	-1.380921E-2	-9.470663E-3	-1.754595E-2	-1.315553E-2	-5.921682E-3	-2.680798E-3	-7.395733E-3	-9.222511E-3	-1.080916E-2	-1.331954E-2	-6.307954E-4	-1.112317E-2	-1.088365E-2	-1.364408E-2	-9.268471E-3	-1.038944E-2	-1.100939E-2	-9.512865E-3	-1.817942E-2	-5.389659E-3	1.167963E-2	-1.678194E-2
5.305230E+2	-1.428907E-3	-1.253131E-2	-8.447184E-3	-7.032835E-3	-6.011907E-3	-6.912830E-3	-6.484794E-3	-8.633339E-3	-9.964885E-3	-8.026749E-3	-1.569489E-3	-1.119114E-2	-2.105820E-3	-1.036966E-2	-1.166030E-2	-1.186916E-2	-6.684072E-3	-3.009836E-3	-7.196602E-4	-9.249632E-3	-8.214529E-4	-1.871573E-2	-1.301729E-2	-2.373380E-3	4.692074E-4	-1.682437E-2	-7.418272E-3	-8.163607E-3	-3.639143E-3	-8.352657E-3	-6.992730E-3	-1.324750E-3	-8.326993E-3	-3.262588E-3	-7.792380E-3	2.643810E-3	-4.325983E-3	-1.071215E-2	-7.796911E-3	-4.575678E-3	-1.546353E-2	-1.202576E-3	-4.353805E-3	-8.329226E-3	-5.376175E-3	-5.424461E-3	-1.429574E-2	-1.382641E-2	-6.812646E-3	-5.004458E-3	-6.731907E-3	-6.163791E-3	-5.423898E-3	-4.274355E-3	-7.216594E-3	-1.313786E-2	1.817495E-3	-8.611367E-3	-1.442677E-2	-9.455010E-3	-4.009280E-3	-8.945682E-3	-6.554278E-3	-3.493830E-3	-1.233340E-2	-1.252459E-2	-8.219673E-3	-1.005045E-2	-4.984588E-3	-6.206516E-3	-6.488745E-3	-1.002816E-2	-6.712763E-5	-1.355077E-2	-9.138860E-3	-7.442094E-3	-6.227987E-3	-5.393336E-3	-4.350162E-3	-7.342665E-3	-9.149995E-4	-8.369744E-3	-5.565927E-3	-2.083068E-4	-7.003191E-3	-6.864251E-3	-9.512119E-3	-7.647705E-4	-7.017247E-3	-2.218172E-3	-9.177213E-5	-2.113423E-3	-2.155648E-3	-3.875257E-3	-7.962518E-3	-2.216875E-2	-7.981835E-3	-8.599027E-3	-9.716912E-3	-7.238370E-3	-1.477217E-3	-1.173462E-2	-4.242737E-3	-1.066772E-2	-1.380029E-3	4.493358E-3	4.142486E-4	-9.009354E-3	-7.786870E-3	-2.058882E-3	-1.608821E-2	3.273250E-3	-5.673484E-3	-1.609559E-3	-1.820473E-2	-9.372289E-3	-5.759490E-3	-1.189866E-3	-1.435779E-2	-5.610681E-3	-2.285268E-2	-7.152621E-3	-7.880390E-3	-1.586237E-2	-1.705871E-3	-1.234119E-2	-5.607310E-3	-3.714801E-3	-6.893956E-3	-8.611033E-3	2.028110E-3	-6.497788E-3	-4.115655E-3	-3.651538E-3	-1.074865E-2	-9.989148E-3	3.201877E-3	-4.842194E-3	-5.680229E-3	-1.024627E-2	-3.086690E-3	-9.063279E-3	-8.198032E-4	-4.467026E-3	3.900469E-4	-3.262180E-3	-2.770864E-3	-7.636611E-3	-2.086529E-3	-9.280881E-3	-7.491628E-3	-8.705136E-3	1.182713E-3	-7.096317E-4	5.272082E-3	-1.224094E-2	1.063540E-3	-5.823189E-3	-6.660216E-3	-6.694314E-3	-1.590681E-2	-4.992711E-3	-8.117374E-3	-1.283574E-2	-6.222955E-3	-8.279909E-3	-9.435112E-3	-1.269469E-2	-1.051852E-2	1.315136E-3	-3.293565E-3	-7.076468E-3
5.310100E+2	-2.003909E-3	-9.464646E-4	-4.467564E-3	-9.747212E-3	-2.107240E-3	-6.817567E-3	-1.156779E-2	-1.396170E-2	-7.125425E-3	-1.530281E-2	-5.615965E-3	-1.386117E-2	-1.080923E-2	-6.249115E-3	-7.692340E-4	-8.098508E-3	-1.580292E-2	4.676651E-3	-1.774003E-2	-8.457758E-3	-6.036045E-3	-7.147245E-3	-8.658961E-3	-1.275197E-2	-6.301113E-3	-3.267857E-3	-1.132275E-2	-1.337935E-2	-4.095563E-3	-5.770730E-3	-9.636576E-3	-7.374670E-3	-4.509590E-3	4.628080E-3	-4.343685E-3	5.267330E-4	-4.247247E-3	-4.755687E-3	-7.082126E-3	-4.514097E-3	-6.822263E-3	-1.338771E-2	-2.277293E-3	-1.509881E-2	-8.884343E-3	-8.874613E-3	-5.679896E-3	-1.255111E-2	-6.722972E-3	-3.023601E-3	-1.007662E-2	-4.251376E-3	-1.628238E-2	-1.228855E-3	-1.318368E-4	-7.289057E-3	-1.188129E-2	-1.474374E-5	-3.523497E-3	6.983706E-3	-7.505045E-3	-9.486165E-3	-4.546960E-3	-1.296065E-2	-8.914131E-3	-1.307939E-2	-8.911043E-3	-4.945155E-3	-1.424991E-2	3.667936E-4	-2.582040E-3	-6.793639E-3	-1.881180E-3	-6.892828E-3	-5.236313E-3	-8.827468E-3	-8.537336E-3	-2.714724E-3	-7.619527E-3	-1.642358E-2	-4.434924E-3	-1.007209E-2	3.216050E-3	-3.580383E-3	1.426315E-3	-9.939158E-3	-1.078557E-2	-5.740555E-3	-1.474129E-3	-6.739319E-3	-3.156922E-3	-9.712012E-3	-1.177070E-2	-2.360264E-3	-2.163368E-3	-9.192167E-3	-1.011217E-2	-5.358383E-3	-1.341192E-2	-1.149562E-2	-5.763937E-3	-9.724758E-3	-6.806908E-3	5.479555E-4	-3.508170E-3	-7.290680E-3	-1.038131E-2	-3.844650E-3	-4.464504E-3	-5.418100E-3	1.131255E-3	-1.742961E-2	-4.110741E-3	-4.492378E-3	-7.514164E-3	4.309697E-4	-1.040620E-2	-5.537215E-3	-4.031231E-3	-4.804696E-3	1.292932E-3	-3.165109E-3	-2.277782E-3	-1.020957E-2	-1.120363E-2	-6.062051E-3	-1.379993E-2	-7.000842E-3	-1.840964E-3	-9.152664E-3	-3.503924E-3	-7.186105E-3	-4.635687E-3	7.282855E-4	-1.332274E-3	-7.315105E-3	3.329941E-4	-8.079582E-3	-6.377625E-3	-7.289126E-3	-9.479374E-3	-8.966822E-3	-4.809877E-3	-2.431767E-3	-4.979796E-3	-1.508880E-2	2.785594E-3	-1.252090E-2	-1.378466E-3	-8.290229E-3	7.910269E-4	1.173052E-3	-1.202267E-2	-1.559506E-3	-9.113119E-3	-5.442461E-3	-3.958538E-3	-7.842817E-3	-9.913593E-3	-8.565084E-3	-7.774696E-3	-8.470257E-3	-1.235063E-3	4.052273E-3	4.629828E-3	-7.486199E-3	-1.066253E-2	-1.125114E-2	2.296656E-3	-1.244430E-2	-1.823016E-2	1.879088E-2
5.315080E+2	-1.322400E-2	2.348711E-3	-5.981644E-3	-6.211548E-3	-5.234725E-3	-4.302830E-3	-8.524078E-3	-4.433144E-3	6.078360E-3	-5.216742E-3	-1.251806E-3	-9.534718E-5	5.063807E-3	-4.452655E-3	3.818781E-3	-1.790952E-3	-5.868231E-3	-6.649977E-3	5.385994E-3	5.132557E-4	2.344124E-3	1.416765E-2	4.948125E-3	2.711487E-3	-7.598708E-3	3.008049E-3	-3.914587E-3	1.914563E-3	-5.811005E-3	-9.455383E-3	8.094615E-3	-6.016099E-3	-6.232138E-3	-6.354953E-3	-5.606437E-3	8.776251E-3	9.612762E-4	-2.300304E-3	1.174602E-3	-6.276371E-3	-3.335111E-3	-9.574835E-3	-2.116434E-3	-6.123655E-4	-9.517255E-4	-4.657785E-3	1.937643E-4	1.333557E-3	-5.314425E-3	1.674013E-3	-1.061179E-2	6.511657E-3	-1.183472E-3	-6.435871E-3	-5.134322E-3	5.205775E-4	-6.469495E-3	2.200130E-3	-9.897421E-3	-3.808119E-3	2.106191E-3	1.737253E-3	1.323288E-3	-1.347168E-2	-8.161005E-3	-4.059903E-3	6.487062E-3	-4.850852E-3	-4.204318E-3	2.249372E-3	-3.127017E-3	-4.176032E-3	5.304413E-3	-7.410298E-3	-5.782040E-3	1.182795E-2	-1.827227E-3	-5.850194E-3	5.426439E-3	4.660202E-3	-4.353705E-3	-3.981462E-3	4.668649E-3	-8.357011E-3	-1.261712E-2	-5.435934E-3	1.522120E-3	2.621670E-3	-7.626996E-3	-3.338024E-3	-6.235505E-3	-4.730889E-3	-1.324783E-3	2.014296E-3	-3.502776E-3	3.217224E-3	-3.398858E-3	-1.659873E-2	-7.281583E-3	-7.790650E-3	-1.906216E-3	-4.508094E-3	-3.133905E-5	6.368421E-4	1.778302E-3	-5.317072E-3	-5.510190E-3	-7.393086E-3	4.688669E-3	-4.171601E-3	4.415436E-3	-5.982006E-3	-2.552452E-3	-1.338821E-2	-1.048756E-3	5.761311E-3	-7.604505E-3	-4.889083E-3	7.689952E-3	5.991087E-3	-2.631102E-3	2.130588E-3	-9.104912E-3	4.526139E-3	-1.177086E-2	5.195956E-3	-3.042522E-4	-8.016259E-4	-9.573061E-3	-8.435678E-3	1.072576E-4	-1.099305E-2	-6.417315E-3	-7.118993E-3	7.511572E-4	2.460910E-3	-1.076841E-3	3.349830E-3	1.734053E-3	-3.622835E-3	-2.901829E-3	-4.082869E-3	-3.352439E-3	-6.202958E-3	1.949061E-3	2.190075E-3	-9.504089E-3	5.377525E-3	-5.426999E-3	-7.592629E-4	-4.532143E-3	-7.869711E-3	-3.937194E-3	-2.111740E-3	-3.928698E-3	-2.105774E-2	-7.102213E-3	3.590939E-3	-1.077848E-3	-7.180663E-3	4.393355E-3	-1.177435E-2	6.220884E-3	-1.193993E-2	-4.793567E-3	6.015622E-3	-8.324920E-3	5.288223E-5	-9.472381E-3	-5.842185E-3	4.723310E-3	-3.700327E-3
5.320020E+2	-3.822801E-3	9.505424E-3	1.141468E-3	-4.821250E-4	3.783929E-3	9.391818E-3	-5.486993E-3	4.058390E-4	-7.650605E-3	1.364120E-2	-5.313416E-3	-3.436665E-3	1.037373E-3	7.844473E-3	-4.249552E-3	4.429154E-3	4.759568E-3	4.200573E-4	3.711540E-3	6.173829E-3	-7.653564E-3	9.385528E-4	-2.298281E-3	-1.343744E-3	7.001299E-5	-3.075922E-3	3.523792E-3	-4.629266E-3	6.558083E-3	-1.778998E-3	-8.793532E-3	-7.810348E-3	1.398942E-3	-1.709272E-3	-6.199406E-3	-2.997293E-3	1.050007E-3	-1.030180E-3	-9.396871E-3	5.674741E-3	-1.318610E-3	9.544389E-3	4.194541E-5	4.981779E-3	1.549668E-3	1.290328E-3	5.544597E-3	-4.578220E-3	-5.885401E-3	-4.745629E-3	3.073794E-3	-4.675620E-3	1.810318E-3	1.629001E-4	8.544106E-5	-3.051633E-5	8.076017E-4	-8.340612E-3	3.803634E-4	-3.080878E-3	8.670196E-3	8.033574E-3	-2.410130E-3	5.832245E-3	1.338403E-2	-1.315362E-4	2.015268E-3	-9.806620E-3	8.807289E-3	-8.273563E-3	1.166763E-2	4.136280E-3	9.125967E-4	2.620650E-3	-2.499724E-3	1.631863E-3	-1.129892E-3	-1.221539E-3	-7.435031E-3	-4.438400E-3	-5.001668E-3	7.543483E-3	-5.278727E-3	-4.107041E-3	-3.076629E-4	4.791291E-3	3.661067E-3	-4.615293E-4	-5.982299E-3	7.372018E-3	-7.747255E-3	-6.051727E-3	-1.884158E-3	-2.185387E-3	1.163947E-2	6.412791E-3	7.034221E-3	8.727460E-3	7.214959E-3	2.829103E-4	8.263688E-3	4.588883E-3	-7.294169E-3	2.044547E-3	1.131469E-3	-7.736027E-3	-1.302572E-3	1.016438E-2	1.559994E-3	-1.593262E-5	7.069125E-4	1.078043E-3	1.965778E-3	1.702556E-3	4.025439E-3	-4.640970E-3	1.088165E-2	-8.737402E-4	-5.912922E-3	-3.447314E-4	5.519751E-3	-6.243364E-3	-2.799972E-3	-3.058714E-3	1.169749E-3	-8.999069E-3	-1.960351E-4	-2.739994E-3	4.721409E-4	1.525058E-2	-1.182703E-2	6.163084E-3	-3.211958E-3	-5.187208E-3	1.520941E-3	-3.255735E-3	6.493870E-3	-3.238583E-3	-8.614280E-3	-6.525848E-4	-2.807079E-3	2.035142E-3	-7.370305E-3	-4.816257E-3	6.734109E-4	1.063860E-3	2.195953E-3	-6.658318E-3	-3.548118E-3	-5.235340E-3	-7.828880E-3	3.338573E-3	4.189990E-3	5.732878E-4	-6.036291E-3	7.435871E-3	-2.490998E-3	-4.789978E-4	7.805608E-3	8.056811E-4	-8.809522E-4	3.871180E-3	-7.746364E-3	9.368066E-3	-1.697413E-3	3.007542E-4	5.118263E-3	-1.818110E-3	-3.445378E-3	6.263581E-3	-9.381711E-4	2.840914E-3
5.325070E+2	7.597605E-3	1.904164E-3	-7.326563E-3	8.112152E-3	5.148986E-3	2.724049E-3	3.507497E-3	8.636373E-3	1.254771E-2	8.382307E-3	-2.467467E-3	1.040205E-2	5.689863E-4	8.562552E-3	4.586289E-3	5.175281E-3	6.178717E-3	6.244314E-3	5.014283E-3	2.135340E-3	1.148348E-2	4.073024E-3	1.012683E-2	7.178695E-3	-1.225989E-3	-4.995503E-3	7.621388E-3	1.010327E-2	1.985828E-3	1.503752E-3	1.011066E-2	1.519843E-2	1.100788E-2	7.531286E-3	8.830483E-3	1.548803E-3	6.007712E-4	6.160221E-3	1.398563E-3	3.917420E-3	1.682377E-2	1.061499E-3	2.111309E-2	4.389355E-3	4.059578E-3	6.124082E-3	1.067636E-3	8.160146E-3	1.011347E-2	9.630974E-3	1.482996E-2	2.952047E-3	7.716971E-3	-2.704149E-3	1.480878E-3	1.996287E-3	1.582707E-3	1.033978E-2	1.507923E-2	-2.534765E-4	1.101562E-3	1.037010E-4	1.124731E-2	8.358165E-3	3.424437E-3	1.855302E-2	-1.076257E-4	4.694710E-3	2.451182E-3	1.134854E-2	9.082700E-4	6.144030E-3	2.950627E-3	4.086529E-3	6.607361E-3	-1.223211E-3	6.824140E-3	9.913459E-3	5.711205E-3	2.898006E-3	5.961972E-3	1.007143E-2	5.575150E-3	1.410236E-2	6.882072E-3	1.708723E-3	5.126446E-3	2.735493E-4	1.607160E-2	1.731179E-4	1.299201E-2	1.160879E-2	1.186734E-2	5.067389E-3	6.028936E-3	9.613422E-3	1.749857E-2	1.327431E-2	7.315193E-3	2.557000E-3	3.329355E-3	5.985728E-3	1.023361E-2	-2.481440E-3	7.933571E-3	1.190174E-2	5.655176E-3	-3.586350E-3	1.530410E-2	1.823987E-3	5.275338E-3	4.350316E-3	4.273214E-3	-2.408335E-3	1.276545E-3	2.198646E-3	1.446893E-3	8.197982E-3	7.907589E-3	9.063254E-3	6.301961E-3	1.024074E-3	6.289377E-3	1.174270E-2	-1.309773E-3	3.541824E-3	1.081160E-2	6.215053E-3	5.581208E-4	4.513278E-3	9.976114E-4	1.325598E-2	1.561106E-2	4.725089E-3	-4.038350E-4	1.110658E-2	-8.387387E-3	8.241833E-3	4.355775E-3	9.529503E-3	5.438689E-4	5.752904E-3	9.649419E-4	1.206722E-2	6.949791E-3	9.798004E-3	1.506179E-3	7.018258E-3	5.456654E-3	1.185546E-3	-4.356595E-3	3.437890E-3	1.099312E-2	3.896815E-3	2.105377E-3	8.277274E-3	1.183002E-2	-2.180279E-3	1.061081E-2	1.078959E-2	4.604968E-3	5.780910E-4	4.429881E-3	1.093473E-2	-4.049420E-4	8.081489E-3	1.710182E-2	1.087011E-2	2.586227E-3	-1.313602E-3	-8.545952E-3	9.391596E-3
5.330180E+2	1.771483E-2	1.295581E-2	2.430651E-2	1.688463E-2	2.056647E-2	2.147210E-2	2.188443E-2	2.266965E-2	1.272969E-2	1.729321E-2	2.267399E-2	2.329481E-2	2.241949E-2	1.395667E-2	1.784847E-2	1.790514E-2	2.483946E-2	1.466842E-2	1.514810E-2	1.201848E-2	1.102204E-2	1.516890E-2	2.077021E-2	1.665567E-2	1.898670E-2	2.656591E-2	2.098262E-2	2.432458E-2	1.741010E-2	3.421409E-2	1.593744E-2	2.282090E-2	2.763513E-2	1.158495E-2	1.758598E-2	6.855866E-3	1.537086E-2	2.166942E-2	2.771579E-2	2.040536E-2	2.170749E-2	2.526849E-2	4.086454E-3	1.897552E-2	1.742160E-2	2.524653E-2	2.301770E-2	2.939801E-2	2.282531E-2	1.042826E-2	1.634447E-2	1.251840E-2	1.887762E-2	2.413222E-2	1.377075E-2	2.602830E-2	2.482381E-2	1.379399E-2	2.541551E-2	1.713053E-2	1.551123E-2	7.751405E-3	1.523135E-2	1.813708E-2	1.968119E-2	2.574602E-2	2.007721E-2	3.008156E-2	1.375882E-2	1.384580E-2	1.063062E-2	1.768548E-2	1.404495E-2	2.427459E-2	1.955853E-2	2.324288E-2	1.601941E-2	1.653899E-2	1.830785E-2	2.611503E-2	1.405769E-2	1.743867E-2	7.031726E-3	1.211898E-2	2.573431E-2	1.261648E-2	1.889940E-2	1.189202E-2	1.389858E-2	1.824994E-2	8.351550E-3	1.877394E-2	1.589133E-2	1.737419E-2	4.710493E-3	1.902772E-2	6.483559E-3	2.037318E-2	2.340764E-2	2.234414E-2	9.119594E-3	1.190867E-2	2.177823E-2	1.543257E-2	1.177258E-2	1.330722E-2	3.119888E-2	1.769497E-2	3.718340E-3	2.521664E-2	1.882116E-2	1.971479E-2	2.063764E-2	3.024217E-2	2.704074E-2	1.282938E-2	1.932143E-2	1.113127E-2	2.040751E-2	1.347624E-2	1.995005E-2	1.223330E-2	2.166708E-2	3.503684E-2	3.299864E-2	2.675982E-2	1.479409E-2	1.657905E-2	2.707897E-2	2.126649E-2	1.671116E-2	1.570342E-2	8.231197E-3	1.899005E-2	2.050998E-2	1.708063E-2	1.194267E-2	1.439527E-2	1.737689E-2	2.047361E-2	2.093221E-2	1.734897E-2	2.863305E-2	2.001745E-2	2.227162E-3	1.919141E-2	2.335236E-2	1.082270E-2	1.389918E-2	2.606857E-2	3.722743E-2	1.809599E-2	1.714000E-2	1.306630E-2	1.762233E-2	2.570880E-2	8.053927E-3	2.195685E-2	1.004440E-2	2.416433E-2	1.619493E-2	3.191121E-2	1.733169E-2	1.406469E-2	1.775752E-2	1.175768E-2	1.721187E-2	2.435381E-2	3.673282E-2	1.741103E-2	1.460491E-2	-3.464657E-3
5.331580E+2	4.124555E-2	2.017052E-2	2.251100E-3	1.626057E-2	2.900843E-2	2.028883E-2	2.002390E-2	1.457330E-2	1.841922E-2	2.076934E-2	2.160680E-2	3.518579E-2	3.558276E-2	2.526391E-2	1.744285E-2	3.245203E-2	1.636749E-2	1.861570E-2	1.665716E-2	2.748818E-2	2.549449E-2	3.364990E-2	2.823013E-2	3.326438E-2	2.538229E-2	1.992174E-2	2.928961E-2	1.789043E-2	2.575018E-2	2.037211E-2	1.954184E-2	2.179604E-2	3.038162E-2	3.470430E-2	3.281373E-2	2.443398E-2	2.571143E-2	1.353447E-2	2.473424E-2	2.142988E-2	2.243181E-2	3.103573E-2	8.998694E-3	3.058679E-2	3.752556E-2	1.767855E-2	1.117619E-2	1.211874E-2	2.359689E-2	2.749109E-2	1.645497E-2	3.214229E-2	2.718005E-2	2.311339E-2	1.285583E-2	2.506039E-2	3.154885E-2	2.196457E-2	2.525096E-2	1.660909E-2	3.171189E-2	2.030747E-2	1.726552E-2	9.872815E-3	1.509700E-2	3.491722E-2	1.322126E-2	3.313001E-2	3.457696E-2	2.230368E-2	2.554172E-2	1.973310E-2	1.677514E-2	1.773564E-2	2.548505E-2	2.708670E-2	4.022289E-3	1.601679E-2	2.129762E-2	1.436973E-2	9.801625E-3	1.213497E-2	2.805490E-2	2.974553E-2	2.005028E-2	2.931315E-2	2.998350E-2	2.485285E-2	2.965048E-2	2.305363E-2	2.440437E-2	2.032306E-2	1.993724E-2	1.102482E-2	2.573644E-2	1.606949E-2	1.625493E-2	2.370229E-2	1.744970E-2	2.102552E-2	3.013844E-2	2.690978E-2	9.128720E-3	2.482462E-2	3.434502E-2	2.991243E-2	1.898272E-2	3.247724E-2	2.471380E-2	2.712529E-2	2.089198E-2	3.133131E-2	1.485069E-2	2.316182E-2	1.933542E-2	3.104886E-2	2.083718E-2	2.647576E-2	2.813334E-2	2.367701E-2	2.754247E-2	3.202618E-2	2.249828E-2	1.903038E-2	4.287251E-2	2.566663E-2	1.815320E-2	1.535283E-2	9.334024E-3	1.628529E-2	3.249306E-2	3.065819E-2	2.778567E-2	1.544234E-2	2.468710E-2	2.699769E-2	2.258691E-2	2.193096E-2	1.751892E-2	2.712828E-2	2.763740E-2	9.019740E-3	3.708161E-2	2.277039E-2	3.064165E-2	2.491460E-2	3.128655E-2	2.318474E-2	1.941134E-2	2.162950E-2	1.355374E-2	2.351861E-2	3.276199E-2	3.462142E-2	1.775981E-2	3.113703E-2	3.806381E-2	5.862054E-3	2.374987E-2	2.501430E-2	2.918954E-2	2.187252E-2	2.692113E-2	1.425091E-2	2.756284E-2	3.073264E-2	3.524912E-2	1.390901E-2	4.202818E-2	4.282864E-2	2.244361E-2	3.891152E-2
5.333130E+2	3.131093E-2	3.128408E-2	1.411019E-2	2.984735E-2	3.936347E-2	4.214847E-2	2.281633E-2	2.495528E-2	3.527449E-2	2.629018E-2	3.175127E-2	1.934226E-2	3.515674E-2	3.306460E-2	2.815883E-2	3.571961E-2	2.044693E-2	2.320600E-2	3.869006E-2	3.389118E-2	2.922013E-2	2.829563E-2	2.392369E-2	2.772864E-2	2.203627E-2	1.252085E-2	1.555238E-2	3.009769E-2	3.529391E-2	3.013112E-2	1.013246E-2	3.320912E-2	3.249638E-2	2.629717E-2	4.372752E-2	3.433058E-2	2.359971E-2	3.151255E-2	2.319409E-2	3.551442E-2	2.998860E-2	2.315421E-2	2.669310E-2	2.171340E-2	3.227796E-2	3.272858E-2	4.206628E-2	2.620463E-2	4.508285E-2	4.135436E-2	2.443581E-2	2.727343E-2	3.669383E-2	2.865710E-2	3.340473E-2	2.278663E-2	2.644667E-2	2.751199E-2	3.562118E-2	3.626307E-2	2.829968E-2	2.922248E-2	3.047432E-2	2.521846E-2	3.347083E-2	2.994602E-2	3.700305E-2	2.405555E-2	3.477598E-2	3.262330E-2	2.586407E-2	2.590913E-2	2.344878E-2	2.259983E-2	1.978025E-2	2.904287E-2	3.516126E-2	3.449868E-2	3.106025E-2	2.446810E-2	4.494517E-2	3.349865E-2	2.645214E-2	3.211314E-2	3.449297E-2	4.163499E-2	3.864052E-2	3.294996E-2	1.879010E-2	3.260793E-2	2.522941E-2	3.055780E-2	3.645133E-2	3.207778E-2	3.378649E-2	4.556109E-2	3.648777E-2	2.324481E-2	3.435515E-2	3.362929E-2	2.396438E-2	2.384482E-2	2.409761E-2	5.016753E-2	1.500855E-2	4.086593E-2	2.050175E-2	2.825533E-2	2.878752E-2	2.494236E-2	3.902558E-2	2.001710E-2	3.501855E-2	3.058491E-2	4.667587E-2	4.104402E-2	2.304843E-2	2.889578E-2	3.104996E-2	1.732975E-2	2.771018E-2	3.940824E-2	2.960010E-2	2.974510E-2	3.787661E-2	3.460233E-2	2.862779E-2	3.058909E-2	3.526516E-2	3.699458E-2	2.766232E-2	3.863000E-2	3.736287E-2	2.546688E-2	3.291723E-2	2.650803E-2	2.723913E-2	3.219172E-2	2.494720E-2	3.163908E-2	3.173757E-2	2.068228E-2	3.658019E-2	2.682952E-2	2.941007E-2	2.071689E-2	3.689797E-2	3.918716E-2	2.972106E-2	2.179395E-2	3.075561E-2	2.499410E-2	3.900165E-2	4.131254E-2	2.748287E-2	2.074131E-2	3.108367E-2	2.591278E-2	3.070675E-2	1.985869E-2	3.545881E-2	2.474565E-2	4.803643E-2	2.915331E-2	4.526642E-2	2.677923E-2	3.766562E-2	2.206860E-2	2.939802E-2	3.861032E-2	5.928933E-2	2.604412E-2
5.334630E+2	3.753448E-2	4.442934E-2	2.469543E-2	4.153594E-2	3.248639E-2	4.682140E-2	4.644460E-2	3.544517E-2	3.895363E-2	4.070507E-2	4.054653E-2	4.185332E-2	4.174417E-2	4.255821E-2	4.370604E-2	4.213106E-2	3.991030E-2	4.518471E-2	4.452987E-2	3.472928E-2	2.880595E-2	4.623368E-2	3.247270E-2	4.845488E-2	2.704165E-2	3.730529E-2	4.350870E-2	3.289617E-2	4.086529E-2	3.278607E-2	4.911190E-2	3.391377E-2	3.959186E-2	4.093579E-2	6.102011E-2	4.045769E-2	3.508764E-2	3.881805E-2	3.302021E-2	3.756944E-2	3.074794E-2	3.629997E-2	4.503456E-2	3.155062E-2	2.933709E-2	4.176339E-2	4.108388E-2	2.513352E-2	3.589793E-2	2.319215E-2	3.102099E-2	3.620975E-2	3.335476E-2	3.539388E-2	3.992979E-2	4.384999E-2	4.976958E-2	3.361061E-2	3.504660E-2	4.750084E-2	4.635122E-2	5.127929E-2	4.000965E-2	3.085141E-2	3.295695E-2	4.560993E-2	4.295074E-2	3.584332E-2	3.376254E-2	4.354962E-2	4.492949E-2	5.106880E-2	2.555005E-2	4.280972E-2	3.125581E-2	4.634379E-2	4.021047E-2	3.270625E-2	3.973288E-2	3.990438E-2	3.634399E-2	4.461624E-2	3.016065E-2	4.080123E-2	3.402002E-2	5.656126E-2	3.262667E-2	3.716981E-2	3.552403E-2	2.677757E-2	5.183836E-2	4.295818E-2	4.057044E-2	3.660032E-2	5.120490E-2	3.958048E-2	3.815744E-2	3.362906E-2	3.869944E-2	4.299369E-2	3.943481E-2	4.875591E-2	2.670523E-2	5.484462E-2	2.120222E-2	4.624742E-2	3.042986E-2	2.580754E-2	3.815212E-2	3.570003E-2	3.522182E-2	4.260038E-2	2.553228E-2	3.624645E-2	3.688753E-2	4.369368E-2	4.182108E-2	4.383071E-2	5.492840E-2	4.235395E-2	2.861648E-2	6.861899E-2	2.785055E-2	4.082770E-2	4.134415E-2	4.678831E-2	4.065262E-2	4.531390E-2	4.839713E-2	3.206327E-2	4.363801E-2	4.827428E-2	3.946849E-2	5.105646E-2	4.160977E-2	3.131921E-2	3.874366E-2	5.808096E-2	4.191193E-2	4.713999E-2	3.983513E-2	4.153726E-2	2.963894E-2	2.834690E-2	4.277148E-2	3.770570E-2	4.256465E-2	3.508207E-2	3.891591E-2	3.475000E-2	3.643285E-2	4.173074E-2	3.989561E-2	3.762598E-2	3.431695E-2	4.208439E-2	4.237622E-2	3.760800E-2	4.523240E-2	3.468859E-2	5.402643E-2	4.065246E-2	4.083145E-2	3.750225E-2	3.944340E-2	4.166059E-2	6.111870E-2	4.034808E-2	2.959594E-2	2.556964E-2	2.102618E-2	5.234962E-2
5.336130E+2	5.320555E-2	6.154531E-2	4.422867E-2	6.174498E-2	4.877118E-2	5.023032E-2	6.212329E-2	6.730114E-2	4.829152E-2	7.010707E-2	4.324161E-2	5.739249E-2	5.913725E-2	4.981493E-2	6.257598E-2	4.929219E-2	5.946680E-2	4.219624E-2	4.364146E-2	3.424136E-2	4.585424E-2	5.202122E-2	4.958528E-2	6.657840E-2	6.566777E-2	4.918899E-2	5.043250E-2	6.880690E-2	5.592540E-2	7.095797E-2	4.676696E-2	5.037935E-2	4.365827E-2	4.710843E-2	6.067082E-2	4.821954E-2	4.158382E-2	5.281735E-2	4.411619E-2	5.945453E-2	4.241069E-2	5.145504E-2	3.617424E-2	4.919309E-2	5.999657E-2	6.412738E-2	6.834822E-2	6.862535E-2	4.549346E-2	5.223194E-2	5.139123E-2	6.115822E-2	5.412762E-2	5.903417E-2	5.062634E-2	6.180730E-2	5.536988E-2	4.664471E-2	4.573067E-2	7.284634E-2	5.322772E-2	4.907658E-2	5.968937E-2	4.997548E-2	4.200475E-2	3.810126E-2	5.999108E-2	4.921001E-2	5.780770E-2	5.640889E-2	5.290404E-2	5.585038E-2	4.468972E-2	4.512231E-2	6.438559E-2	6.602345E-2	5.513126E-2	5.724367E-2	4.284094E-2	5.747050E-2	5.928071E-2	4.671537E-2	4.782819E-2	4.950626E-2	3.685117E-2	5.556425E-2	4.897966E-2	4.389925E-2	5.315369E-2	4.379630E-2	4.560428E-2	5.675430E-2	6.646850E-2	5.566506E-2	4.869379E-2	4.734882E-2	6.606416E-2	5.563000E-2	3.894053E-2	5.062300E-2	6.265331E-2	6.467349E-2	4.523590E-2	6.180694E-2	6.058145E-2	4.269907E-2	5.512546E-2	4.673179E-2	5.679606E-2	4.300930E-2	4.826687E-2	5.441695E-2	5.108368E-2	4.380038E-2	5.943410E-2	6.004024E-2	3.588769E-2	5.320860E-2	5.916607E-2	4.132514E-2	4.860566E-2	4.454089E-2	3.699923E-2	6.760966E-2	4.423004E-2	4.078073E-2	5.057800E-2	5.529606E-2	4.505924E-2	4.394247E-2	5.288924E-2	5.514061E-2	5.113121E-2	6.570450E-2	5.117026E-2	5.634346E-2	4.056204E-2	5.643759E-2	5.401301E-2	4.052039E-2	5.400434E-2	5.469910E-2	5.745505E-2	4.044934E-2	4.581240E-2	4.734673E-2	3.434304E-2	5.238194E-2	5.908932E-2	6.362424E-2	4.834674E-2	4.118743E-2	4.293603E-2	5.106412E-2	4.623733E-2	4.590419E-2	5.251031E-2	5.373934E-2	6.500872E-2	5.250097E-2	3.594441E-2	4.164773E-2	4.919271E-2	5.794698E-2	4.272734E-2	6.732146E-2	5.365024E-2	5.359183E-2	4.276373E-2	4.133107E-2	5.643399E-2	6.592470E-2
5.337630E+2	6.083469E-2	9.502421E-2	6.826238E-2	7.270043E-2	8.572133E-2	5.978910E-2	6.642700E-2	8.279503E-2	6.607038E-2	8.054433E-2	7.040291E-2	6.187734E-2	6.415856E-2	8.025324E-2	6.021853E-2	6.416239E-2	6.571352E-2	8.109902E-2	7.330199E-2	8.277071E-2	8.653078E-2	7.574691E-2	8.033067E-2	5.556371E-2	6.948469E-2	7.438685E-2	7.504924E-2	6.995413E-2	6.079053E-2	4.749477E-2	6.997201E-2	5.783017E-2	6.439096E-2	6.856873E-2	8.137285E-2	6.742052E-2	7.956652E-2	7.410883E-2	6.730674E-2	7.321715E-2	7.239379E-2	8.368305E-2	7.676214E-2	6.506402E-2	7.860011E-2	7.051458E-2	5.408492E-2	6.841316E-2	7.259617E-2	7.553106E-2	7.268473E-2	7.489124E-2	6.973695E-2	6.898553E-2	6.954048E-2	7.394832E-2	6.646166E-2	6.513808E-2	8.564596E-2	8.017095E-2	8.188429E-2	6.261797E-2	6.502581E-2	7.961958E-2	5.859359E-2	6.823583E-2	6.398826E-2	9.559880E-2	7.186553E-2	6.995294E-2	6.212196E-2	8.322710E-2	6.786617E-2	6.775051E-2	6.532231E-2	8.580071E-2	5.543325E-2	7.202961E-2	6.648162E-2	8.717165E-2	6.543765E-2	7.633779E-2	5.070868E-2	8.092189E-2	7.242508E-2	8.871386E-2	7.723789E-2	7.995238E-2	6.204789E-2	7.791465E-2	7.207702E-2	7.938289E-2	7.960944E-2	7.345909E-2	5.660453E-2	7.151897E-2	7.010245E-2	7.967976E-2	6.093972E-2	6.716236E-2	6.874851E-2	6.500872E-2	6.144358E-2	8.092034E-2	7.975801E-2	6.282704E-2	8.189239E-2	7.147451E-2	7.816738E-2	7.571162E-2	8.063027E-2	6.627593E-2	5.657474E-2	6.605730E-2	8.347553E-2	6.950010E-2	6.864838E-2	7.917420E-2	8.701881E-2	7.076846E-2	6.594998E-2	7.063399E-2	8.576457E-2	5.292172E-2	7.322266E-2	7.710473E-2	6.222753E-2	8.811602E-2	6.192520E-2	7.013625E-2	7.126924E-2	7.989615E-2	8.246818E-2	9.533921E-2	7.633801E-2	7.779480E-2	8.481056E-2	7.848656E-2	5.720756E-2	7.451881E-2	7.416562E-2	6.846474E-2	8.215877E-2	7.549862E-2	6.767616E-2	5.889638E-2	6.919096E-2	6.139441E-2	7.388355E-2	5.110932E-2	7.809022E-2	8.823643E-2	7.106066E-2	8.020389E-2	9.449587E-2	7.366151E-2	6.984933E-2	7.415244E-2	8.241157E-2	8.229419E-2	7.515496E-2	7.212844E-2	7.178645E-2	7.401993E-2	7.966938E-2	7.190275E-2	7.530324E-2	6.425052E-2	7.837040E-2	7.381099E-2	1.081779E-1	8.614931E-2
5.339140E+2	1.098351E-1	1.085419E-1	1.030150E-1	9.062901E-2	1.159355E-1	1.111803E-1	9.382765E-2	1.085628E-1	1.081281E-1	1.123290E-1	1.078512E-1	9.812244E-2	1.050251E-1	1.012959E-1	9.210077E-2	1.128635E-1	1.056600E-1	9.895254E-2	9.130651E-2	8.243953E-2	1.153967E-1	1.076450E-1	1.044646E-1	1.169804E-1	1.309192E-1	1.078903E-1	9.980358E-2	9.672772E-2	1.147295E-1	1.021629E-1	1.095384E-1	1.036089E-1	1.025928E-1	8.883079E-2	1.201057E-1	1.048745E-1	1.114643E-1	1.231823E-1	1.003726E-1	1.031351E-1	1.037683E-1	1.229761E-1	8.442863E-2	1.041745E-1	9.723122E-2	1.032853E-1	1.097907E-1	9.952582E-2	1.105551E-1	1.127620E-1	1.200426E-1	1.143390E-1	1.161265E-1	1.055423E-1	1.008134E-1	1.178670E-1	1.062412E-1	1.005647E-1	1.072135E-1	7.988615E-2	1.099424E-1	8.824954E-2	9.813982E-2	9.474785E-2	8.620818E-2	1.161376E-1	9.140991E-2	9.674670E-2	1.051681E-1	1.064717E-1	1.047799E-1	1.134601E-1	1.069288E-1	1.127866E-1	1.059662E-1	1.111509E-1	1.036745E-1	1.120200E-1	1.165611E-1	1.138024E-1	1.187787E-1	9.325988E-2	9.387711E-2	1.018695E-1	1.009969E-1	1.207624E-1	1.087788E-1	1.234761E-1	1.118825E-1	9.596087E-2	1.138798E-1	1.107601E-1	1.119687E-1	1.306375E-1	9.113539E-2	1.243140E-1	1.155191E-1	1.328371E-1	8.939038E-2	1.046522E-1	1.140023E-1	8.829075E-2	9.247280E-2	1.142577E-1	1.240449E-1	1.023326E-1	1.017130E-1	9.338272E-2	1.049670E-1	9.503107E-2	9.582627E-2	9.823443E-2	1.048392E-1	1.037515E-1	6.958730E-2	1.272496E-1	1.078433E-1	9.557364E-2	1.068807E-1	1.289389E-1	1.155451E-1	1.068624E-1	9.817724E-2	9.686650E-2	1.155135E-1	1.104698E-1	9.613506E-2	1.148898E-1	9.554654E-2	1.075350E-1	1.065612E-1	1.055987E-1	9.175122E-2	1.032890E-1	9.376094E-2	1.086612E-1	1.019074E-1	1.136376E-1	1.034879E-1	9.399302E-2	1.030805E-1	8.846648E-2	9.205322E-2	1.061424E-1	9.808115E-2	9.815510E-2	1.027973E-1	1.019044E-1	1.009096E-1	9.184889E-2	9.817978E-2	1.275216E-1	1.171363E-1	9.636016E-2	1.082748E-1	1.069117E-1	1.031041E-1	1.179050E-1	1.038703E-1	1.035141E-1	1.118340E-1	1.131330E-1	8.979774E-2	1.027745E-1	1.253318E-1	1.112177E-1	1.232476E-1	1.133829E-1	1.219374E-1	1.131404E-1	8.852016E-2	1.129098E-1
5.340590E+2	1.564882E-1	1.625519E-1	1.302130E-1	1.708263E-1	1.671949E-1	1.678141E-1	1.625724E-1	1.640798E-1	1.859249E-1	1.721038E-1	1.663003E-1	1.668037E-1	1.714632E-1	1.619284E-1	1.709244E-1	1.782060E-1	1.511642E-1	1.590703E-1	1.702003E-1	1.999696E-1	1.446132E-1	1.798656E-1	1.410550E-1	1.567215E-1	1.559954E-1	1.625822E-1	1.643936E-1	1.601537E-1	1.561703E-1	1.702798E-1	1.624567E-1	1.348593E-1	1.502945E-1	1.636222E-1	1.729748E-1	1.624614E-1	1.637508E-1	1.554411E-1	1.696925E-1	1.621441E-1	1.875034E-1	1.780876E-1	1.600879E-1	1.349323E-1	1.591813E-1	1.837207E-1	1.659728E-1	1.708351E-1	1.647837E-1	1.545909E-1	1.612940E-1	1.588982E-1	1.690961E-1	1.572365E-1	1.665734E-1	1.683871E-1	1.745364E-1	1.754250E-1	1.678708E-1	1.664683E-1	1.692032E-1	1.800905E-1	1.514661E-1	1.613835E-1	1.740059E-1	1.634577E-1	1.679993E-1	1.690556E-1	1.583045E-1	1.466447E-1	1.708027E-1	1.507201E-1	1.545715E-1	1.546712E-1	1.388244E-1	1.868163E-1	1.544967E-1	1.606700E-1	1.684530E-1	1.604773E-1	1.715411E-1	1.531422E-1	1.781276E-1	1.540814E-1	1.604663E-1	1.677005E-1	1.646967E-1	1.676880E-1	1.747431E-1	1.548643E-1	1.637671E-1	1.767018E-1	1.535231E-1	1.558103E-1	1.530521E-1	1.652110E-1	1.550281E-1	1.570748E-1	1.658046E-1	1.555749E-1	1.818584E-1	1.555525E-1	1.481391E-1	1.611272E-1	1.608345E-1	1.734606E-1	1.558896E-1	1.667537E-1	1.615927E-1	1.730332E-1	1.574261E-1	1.425231E-1	1.629880E-1	1.660678E-1	1.625280E-1	1.820791E-1	1.728361E-1	1.635008E-1	1.757600E-1	1.638072E-1	1.673921E-1	1.531259E-1	1.815120E-1	1.524419E-1	1.808865E-1	1.833274E-1	1.878846E-1	1.834199E-1	1.807976E-1	1.677945E-1	1.479890E-1	1.503801E-1	1.767934E-1	1.725757E-1	1.740257E-1	1.681593E-1	1.662852E-1	1.837500E-1	1.667234E-1	1.769273E-1	1.893282E-1	1.571028E-1	1.659307E-1	1.619072E-1	1.784791E-1	1.759273E-1	1.633024E-1	1.534978E-1	1.725813E-1	1.667624E-1	1.546751E-1	1.473906E-1	1.615988E-1	1.909167E-1	1.615602E-1	1.786167E-1	1.688066E-1	1.623874E-1	1.656283E-1	1.861004E-1	1.720475E-1	1.549405E-1	1.667971E-1	1.765662E-1	2.131273E-1	1.740450E-1	1.628139E-1	1.484040E-1	1.693569E-1	1.782204E-1	1.705927E-1	1.595690E-1
5.342090E+2	2.640045E-1	2.719978E-1	2.580799E-1	2.613772E-1	2.666049E-1	2.646740E-1	2.628581E-1	2.646590E-1	2.760861E-1	2.825735E-1	2.552187E-1	2.745676E-1	2.620221E-1	2.695505E-1	2.741472E-1	2.478478E-1	2.952473E-1	2.756921E-1	2.940743E-1	2.642916E-1	2.498040E-1	2.756340E-1	2.632949E-1	2.862079E-1	2.761789E-1	2.769262E-1	2.803918E-1	2.822959E-1	2.956458E-1	2.300400E-1	2.745295E-1	2.467332E-1	2.694893E-1	2.622924E-1	2.629009E-1	2.556628E-1	2.745154E-1	2.551709E-1	2.517276E-1	2.678277E-1	2.775528E-1	2.555434E-1	2.598000E-1	2.790122E-1	2.780534E-1	2.666393E-1	2.651441E-1	2.486161E-1	2.822721E-1	2.729888E-1	2.501947E-1	2.596769E-1	2.590793E-1	2.512848E-1	2.734199E-1	2.803735E-1	2.649155E-1	2.712357E-1	2.786973E-1	2.713100E-1	2.457677E-1	2.791668E-1	2.775833E-1	2.885877E-1	2.713849E-1	2.752949E-1	2.621736E-1	2.739475E-1	2.841533E-1	2.654221E-1	2.614736E-1	2.856512E-1	2.808838E-1	2.837953E-1	2.720825E-1	2.428634E-1	2.615821E-1	2.662607E-1	2.853775E-1	2.872502E-1	2.553871E-1	2.578085E-1	2.545419E-1	2.878361E-1	2.813352E-1	2.683562E-1	2.568539E-1	2.658787E-1	3.058498E-1	2.840786E-1	2.536749E-1	2.675464E-1	2.965920E-1	2.750218E-1	2.618276E-1	2.779857E-1	2.893584E-1	2.605163E-1	2.809344E-1	2.799440E-1	2.524539E-1	2.767191E-1	2.585906E-1	2.847715E-1	2.731227E-1	2.780896E-1	2.619225E-1	2.861149E-1	2.726725E-1	2.676480E-1	2.822095E-1	2.689204E-1	2.419313E-1	2.504075E-1	2.492305E-1	2.623289E-1	2.969511E-1	2.606807E-1	2.785633E-1	2.819735E-1	2.798014E-1	2.765144E-1	2.660488E-1	2.399271E-1	2.653783E-1	2.726604E-1	2.624504E-1	2.549411E-1	2.718773E-1	2.566168E-1	2.681040E-1	2.830037E-1	2.713718E-1	2.743808E-1	2.591054E-1	2.526837E-1	2.502044E-1	2.467484E-1	2.553009E-1	2.714295E-1	2.795100E-1	2.879828E-1	2.512637E-1	2.571335E-1	2.698823E-1	2.618274E-1	2.736584E-1	3.075547E-1	2.634541E-1	2.345460E-1	2.617233E-1	2.631505E-1	2.603717E-1	2.722435E-1	2.791049E-1	3.054479E-1	2.627537E-1	2.447313E-1	2.761800E-1	3.023273E-1	2.664697E-1	2.178421E-1	2.870323E-1	2.748309E-1	2.879677E-1	2.966862E-1	2.829684E-1	2.674864E-1	2.631845E-1	2.728669E-1	2.728349E-1	2.297851E-1
5.343600E+2	4.680591E-1	4.574082E-1	4.819250E-1	4.850782E-1	4.856057E-1	4.850135E-1	4.444757E-1	4.812317E-1	5.219354E-1	4.852454E-1	4.724262E-1	4.710654E-1	5.161963E-1	5.105415E-1	4.901260E-1	4.845078E-1	5.040497E-1	4.624898E-1	4.584513E-1	4.806514E-1	4.823700E-1	4.893700E-1	4.600966E-1	4.665888E-1	4.955230E-1	4.902810E-1	4.826909E-1	4.759147E-1	4.667078E-1	4.641611E-1	4.818163E-1	4.909362E-1	4.965104E-1	4.571906E-1	4.596366E-1	5.010479E-1	4.753024E-1	4.852084E-1	4.569371E-1	4.545095E-1	4.716175E-1	4.706803E-1	4.810824E-1	4.746813E-1	4.633526E-1	4.607939E-1	5.130812E-1	4.390564E-1	4.634959E-1	4.393090E-1	5.062466E-1	4.714325E-1	5.012186E-1	4.346655E-1	4.496917E-1	4.733004E-1	4.894412E-1	5.156413E-1	4.454513E-1	4.796827E-1	4.695523E-1	4.974329E-1	4.805912E-1	4.369510E-1	4.668852E-1	4.632540E-1	4.828921E-1	4.668033E-1	4.399396E-1	4.984587E-1	4.860296E-1	4.758510E-1	4.951383E-1	4.796329E-1	4.641920E-1	5.221459E-1	4.734345E-1	4.814893E-1	4.737403E-1	5.071633E-1	4.656946E-1	4.687004E-1	5.231188E-1	4.689320E-1	4.749174E-1	5.095260E-1	4.915058E-1	4.748399E-1	5.026192E-1	4.817879E-1	4.936158E-1	4.723602E-1	4.898528E-1	5.145347E-1	4.796338E-1	4.504148E-1	4.954734E-1	4.760421E-1	4.880819E-1	4.864040E-1	4.887507E-1	4.698904E-1	4.748658E-1	4.460435E-1	4.692934E-1	4.804585E-1	4.645213E-1	4.821210E-1	4.812635E-1	4.731074E-1	4.901248E-1	4.579997E-1	4.835184E-1	5.048540E-1	4.816055E-1	4.720876E-1	4.851894E-1	4.633693E-1	4.699270E-1	5.308144E-1	4.796580E-1	4.757416E-1	4.736593E-1	5.226123E-1	5.041843E-1	4.790302E-1	4.615310E-1	4.658128E-1	4.908807E-1	4.651310E-1	4.539981E-1	4.664998E-1	4.651225E-1	4.537032E-1	5.227427E-1	4.481978E-1	5.037310E-1	4.602703E-1	5.049948E-1	5.017558E-1	5.051392E-1	4.754973E-1	4.682168E-1	4.588922E-1	4.973670E-1	4.785610E-1	4.596328E-1	4.770003E-1	4.532637E-1	4.877539E-1	4.806222E-1	4.704826E-1	4.802258E-1	4.649727E-1	4.798419E-1	4.927423E-1	4.906362E-1	4.988950E-1	5.409882E-1	5.082687E-1	5.117029E-1	5.059844E-1	5.028619E-1	4.884869E-1	5.061806E-1	4.833296E-1	5.196889E-1	4.734306E-1	4.784321E-1	4.590342E-1	4.779474E-1	5.104584E-1
5.345110E+2	7.856299E-1	8.013088E-1	8.174686E-1	8.365238E-1	8.195293E-1	8.013182E-1	8.131446E-1	8.064348E-1	7.956762E-1	8.089116E-1	8.100585E-1	8.159654E-1	7.985521E-1	8.285961E-1	8.510971E-1	7.821671E-1	7.898377E-1	7.900472E-1	8.268298E-1	8.678299E-1	7.945715E-1	8.346008E-1	8.251273E-1	8.315366E-1	8.285062E-1	8.139747E-1	7.536453E-1	8.097778E-1	8.304798E-1	7.984198E-1	7.971696E-1	8.409675E-1	8.435838E-1	7.786613E-1	7.673899E-1	8.574696E-1	8.177589E-1	8.405482E-1	8.165337E-1	8.103766E-1	8.165336E-1	8.067477E-1	8.255516E-1	8.057618E-1	8.329571E-1	7.842374E-1	8.196270E-1	7.663713E-1	8.058942E-1	7.969544E-1	7.619107E-1	8.382097E-1	8.158547E-1	8.075745E-1	8.133873E-1	8.043299E-1	7.974175E-1	7.922459E-1	8.722785E-1	7.949266E-1	7.811096E-1	8.045679E-1	7.618888E-1	8.163735E-1	8.138746E-1	8.010449E-1	8.033058E-1	8.357014E-1	8.634868E-1	8.698809E-1	8.173808E-1	7.867660E-1	8.265490E-1	8.228107E-1	8.046467E-1	8.622716E-1	7.869429E-1	7.940930E-1	7.712953E-1	7.889873E-1	8.046492E-1	8.114974E-1	8.135806E-1	7.833620E-1	7.996507E-1	8.199833E-1	7.910947E-1	8.088004E-1	8.342977E-1	8.140317E-1	8.488337E-1	7.965344E-1	7.964361E-1	8.017507E-1	8.412532E-1	8.107013E-1	8.402818E-1	8.143946E-1	7.724880E-1	8.058349E-1	8.352227E-1	8.256712E-1	8.169572E-1	7.830453E-1	8.302725E-1	8.344165E-1	8.199084E-1	7.806786E-1	7.883912E-1	8.482944E-1	8.207683E-1	7.599297E-1	8.467776E-1	7.916448E-1	8.149120E-1	8.499584E-1	8.101731E-1	7.977168E-1	8.295662E-1	8.170681E-1	8.286407E-1	7.807423E-1	8.349428E-1	8.002790E-1	8.015317E-1	8.114393E-1	8.151867E-1	8.237152E-1	7.843649E-1	8.211706E-1	8.262205E-1	8.257088E-1	8.169879E-1	8.202866E-1	7.704609E-1	8.253121E-1	8.481351E-1	8.132821E-1	8.384096E-1	7.914238E-1	8.127204E-1	8.053624E-1	8.241764E-1	8.053492E-1	8.305474E-1	7.421653E-1	8.350556E-1	8.083501E-1	8.262654E-1	7.795485E-1	7.989407E-1	8.092664E-1	7.961303E-1	8.002327E-1	8.160789E-1	8.014605E-1	8.091097E-1	7.568471E-1	8.025084E-1	8.259341E-1	8.544672E-1	8.345601E-1	8.301335E-1	8.378805E-1	7.982323E-1	7.759950E-1	8.051402E-1	8.402993E-1	8.435280E-1	7.607824E-1	7.792736E-1	8.749811E-1
5.346620E+2	1.185636E+0	1.171904E+0	1.174101E+0	1.118606E+0	1.189556E+0	1.177871E+0	1.139553E+0	1.214789E+0	1.237689E+0	1.297044E+0	1.268544E+0	1.197847E+0	1.170535E+0	1.186146E+0	1.177840E+0	1.179225E+0	1.192141E+0	1.162163E+0	1.180198E+0	1.168352E+0	1.200918E+0	1.178360E+0	1.229901E+0	1.232080E+0	1.193315E+0	1.219291E+0	1.219563E+0	1.150030E+0	1.186184E+0	1.197372E+0	1.182044E+0	1.148321E+0	1.233503E+0	1.166238E+0	1.252763E+0	1.219492E+0	1.176085E+0	1.217253E+0	1.125077E+0	1.230658E+0	1.241492E+0	1.222217E+0	1.192706E+0	1.124095E+0	1.162398E+0	1.211800E+0	1.213409E+0	1.145854E+0	1.214990E+0	1.236148E+0	1.226358E+0	1.172146E+0	1.180900E+0	1.219756E+0	1.241674E+0	1.164795E+0	1.211592E+0	1.175535E+0	1.183500E+0	1.210283E+0	1.207685E+0	1.195676E+0	1.199175E+0	1.163539E+0	1.177678E+0	1.195206E+0	1.189087E+0	1.192356E+0	1.191060E+0	1.160314E+0	1.181200E+0	1.155639E+0	1.185594E+0	1.191731E+0	1.193351E+0	1.182779E+0	1.183543E+0	1.233464E+0	1.151205E+0	1.205976E+0	1.164730E+0	1.194197E+0	1.181947E+0	1.166618E+0	1.161409E+0	1.200763E+0	1.194187E+0	1.115245E+0	1.211143E+0	1.196956E+0	1.212498E+0	1.169139E+0	1.189627E+0	1.136333E+0	1.193554E+0	1.213111E+0	1.199134E+0	1.204890E+0	1.225109E+0	1.159268E+0	1.172619E+0	1.180955E+0	1.220830E+0	1.140491E+0	1.198488E+0	1.222441E+0	1.155155E+0	1.157079E+0	1.217249E+0	1.148072E+0	1.241569E+0	1.148981E+0	1.191677E+0	1.180869E+0	1.279581E+0	1.180028E+0	1.183625E+0	1.198772E+0	1.184669E+0	1.225338E+0	1.210020E+0	1.170137E+0	1.182516E+0	1.129202E+0	1.202068E+0	1.208365E+0	1.203219E+0	1.229339E+0	1.173798E+0	1.197845E+0	1.172817E+0	1.210147E+0	1.188531E+0	1.198839E+0	1.118120E+0	1.191642E+0	1.189256E+0	1.194710E+0	1.180609E+0	1.175545E+0	1.195970E+0	1.148630E+0	1.160204E+0	1.165204E+0	1.145924E+0	1.191970E+0	1.206928E+0	1.183978E+0	1.187342E+0	1.216511E+0	1.176846E+0	1.181752E+0	1.163932E+0	1.168316E+0	1.176694E+0	1.172972E+0	1.228056E+0	1.145965E+0	1.164535E+0	1.224958E+0	1.220913E+0	1.177132E+0	1.243613E+0	1.166148E+0	1.155397E+0	1.222276E+0	1.206492E+0	1.148208E+0	1.192295E+0	1.192656E+0	1.205236E+0	1.310682E+0
5.348120E+2	1.576053E+0	1.534990E+0	1.545392E+0	1.553154E+0	1.547920E+0	1.570187E+0	1.558049E+0	1.602995E+0	1.526483E+0	1.554123E+0	1.530300E+0	1.561007E+0	1.555784E+0	1.549400E+0	1.552326E+0	1.496186E+0	1.496084E+0	1.622854E+0	1.529169E+0	1.499504E+0	1.565059E+0	1.580729E+0	1.547391E+0	1.607658E+0	1.583473E+0	1.601324E+0	1.510049E+0	1.526356E+0	1.557651E+0	1.590293E+0	1.499810E+0	1.508471E+0	1.569954E+0	1.547177E+0	1.509455E+0	1.582408E+0	1.528418E+0	1.505765E+0	1.571820E+0	1.497657E+0	1.573348E+0	1.512849E+0	1.519396E+0	1.571972E+0	1.570935E+0	1.518494E+0	1.513171E+0	1.548763E+0	1.529597E+0	1.563400E+0	1.488266E+0	1.534472E+0	1.555232E+0	1.511790E+0	1.529764E+0	1.547834E+0	1.544353E+0	1.578113E+0	1.482772E+0	1.540963E+0	1.552187E+0	1.520088E+0	1.524508E+0	1.569140E+0	1.505753E+0	1.571285E+0	1.592976E+0	1.538567E+0	1.522778E+0	1.583677E+0	1.496496E+0	1.534948E+0	1.564460E+0	1.469367E+0	1.537901E+0	1.538812E+0	1.517126E+0	1.593635E+0	1.471145E+0	1.589640E+0	1.500564E+0	1.522459E+0	1.509715E+0	1.626547E+0	1.560727E+0	1.463874E+0	1.549626E+0	1.528101E+0	1.527139E+0	1.481447E+0	1.517968E+0	1.497343E+0	1.605040E+0	1.464243E+0	1.516239E+0	1.488015E+0	1.532664E+0	1.524587E+0	1.494233E+0	1.543633E+0	1.445099E+0	1.557711E+0	1.494999E+0	1.511453E+0	1.523696E+0	1.542380E+0	1.554932E+0	1.557531E+0	1.557410E+0	1.520656E+0	1.556375E+0	1.552145E+0	1.633125E+0	1.533235E+0	1.536021E+0	1.507919E+0	1.591130E+0	1.505684E+0	1.513903E+0	1.517834E+0	1.562022E+0	1.480026E+0	1.459192E+0	1.487022E+0	1.514980E+0	1.480135E+0	1.568585E+0	1.484244E+0	1.570832E+0	1.485271E+0	1.422102E+0	1.526218E+0	1.615429E+0	1.560115E+0	1.506914E+0	1.555343E+0	1.599443E+0	1.471301E+0	1.548793E+0	1.514344E+0	1.517272E+0	1.537602E+0	1.505262E+0	1.462646E+0	1.560745E+0	1.483273E+0	1.490896E+0	1.541563E+0	1.519832E+0	1.478809E+0	1.510762E+0	1.450258E+0	1.594747E+0	1.479889E+0	1.527362E+0	1.497645E+0	1.476343E+0	1.575938E+0	1.529460E+0	1.499588E+0	1.497776E+0	1.489667E+0	1.533567E+0	1.518454E+0	1.484178E+0	1.459037E+0	1.483969E+0	1.470332E+0	1.487158E+0	1.485755E+0	1.574779E+0	1.473932E+0
5.349580E+2	1.830931E+0	1.808571E+0	1.767327E+0	1.796905E+0	1.911302E+0	1.838203E+0	1.824888E+0	1.832628E+0	1.873166E+0	1.981928E+0	1.852557E+0	1.893721E+0	1.816936E+0	1.890035E+0	1.800297E+0	1.867937E+0	1.828200E+0	1.846645E+0	1.817805E+0	1.881509E+0	1.833735E+0	1.810286E+0	1.855316E+0	1.906985E+0	1.873721E+0	1.865010E+0	1.897721E+0	1.832620E+0	1.815786E+0	1.851082E+0	1.804973E+0	1.878633E+0	1.866650E+0	1.771409E+0	1.815549E+0	1.891822E+0	1.812560E+0	1.807158E+0	1.781834E+0	1.882949E+0	1.846918E+0	1.810480E+0	1.885764E+0	1.899226E+0	1.834754E+0	1.896678E+0	1.887110E+0	1.760867E+0	1.815486E+0	1.851489E+0	1.893387E+0	1.747306E+0	1.793946E+0	1.800239E+0	1.845822E+0	1.832640E+0	1.900264E+0	1.825895E+0	1.862194E+0	1.790075E+0	1.824819E+0	1.789642E+0	1.830423E+0	1.782560E+0	1.766618E+0	1.822235E+0	1.822577E+0	1.749864E+0	1.788931E+0	1.846217E+0	1.796636E+0	1.887768E+0	1.804161E+0	1.878976E+0	1.811450E+0	1.773375E+0	1.738228E+0	1.818660E+0	1.820884E+0	1.783252E+0	1.801288E+0	1.810282E+0	1.804869E+0	1.764494E+0	1.834616E+0	1.815296E+0	1.790830E+0	1.802526E+0	1.861259E+0	1.817193E+0	1.868238E+0	1.828318E+0	1.874486E+0	1.800749E+0	1.845005E+0	1.798682E+0	1.831166E+0	1.801322E+0	1.792908E+0	1.810820E+0	1.826565E+0	1.826618E+0	1.824060E+0	1.765048E+0	1.854434E+0	1.780024E+0	1.841762E+0	1.830249E+0	1.803954E+0	1.790055E+0	1.814821E+0	1.790979E+0	1.918205E+0	1.759367E+0	1.843571E+0	1.799222E+0	1.771058E+0	1.778485E+0	1.846747E+0	1.855443E+0	1.816186E+0	1.824539E+0	1.820146E+0	1.849280E+0	1.783937E+0	1.801330E+0	1.774047E+0	1.762993E+0	1.806554E+0	1.806593E+0	1.794888E+0	1.805546E+0	1.808761E+0	1.759153E+0	1.779818E+0	1.807255E+0	1.871873E+0	1.772082E+0	1.809465E+0	1.780072E+0	1.839373E+0	1.761104E+0	1.879873E+0	1.772048E+0	1.842182E+0	1.743950E+0	1.778406E+0	1.728197E+0	1.766806E+0	1.789334E+0	1.806074E+0	1.762589E+0	1.784834E+0	1.765938E+0	1.809752E+0	1.792610E+0	1.800083E+0	1.713423E+0	1.815635E+0	1.757241E+0	1.762953E+0	1.747793E+0	1.797330E+0	1.746355E+0	1.796805E+0	1.739528E+0	1.747615E+0	1.768328E+0	1.750694E+0	1.734570E+0	1.765566E+0	1.841002E+0
5.351040E+2	2.037666E+0	1.982448E+0	2.028548E+0	1.999738E+0	2.094111E+0	2.019720E+0	1.985456E+0	2.068724E+0	2.007205E+0	2.086353E+0	2.093901E+0	2.033636E+0	1.981833E+0	1.963970E+0	2.003609E+0	2.022898E+0	1.996962E+0	2.089552E+0	2.040179E+0	2.085029E+0	1.994698E+0	1.996664E+0	2.045802E+0	2.057684E+0	2.061140E+0	2.091390E+0	1.995306E+0	1.981329E+0	2.020641E+0	2.029031E+0	1.994626E+0	2.041694E+0	2.024693E+0	1.987133E+0	2.018861E+0	2.075296E+0	1.998875E+0	2.038759E+0	2.028773E+0	2.000475E+0	2.013830E+0	2.051777E+0	2.008600E+0	1.953574E+0	2.024141E+0	1.999183E+0	2.097705E+0	1.973347E+0	2.014729E+0	1.999893E+0	1.970982E+0	2.012390E+0	1.986257E+0	1.988883E+0	1.995749E+0	2.055024E+0	2.059783E+0	2.051579E+0	2.028508E+0	2.039732E+0	1.976925E+0	2.000736E+0	1.982715E+0	1.927924E+0	1.992775E+0	1.988564E+0	2.005999E+0	1.961231E+0	1.920065E+0	2.071328E+0	1.912472E+0	2.024638E+0	1.961716E+0	1.995768E+0	1.958159E+0	2.028323E+0	2.020681E+0	1.974848E+0	1.960965E+0	2.016364E+0	1.969144E+0	1.906540E+0	2.034251E+0	1.887060E+0	1.910413E+0	2.072254E+0	2.045865E+0	2.043972E+0	1.977568E+0	1.933697E+0	1.993739E+0	1.947897E+0	2.043762E+0	2.030784E+0	1.987779E+0	1.953633E+0	1.978370E+0	2.022764E+0	2.009329E+0	1.944508E+0	1.953323E+0	2.040087E+0	1.982120E+0	1.957945E+0	2.001192E+0	1.968743E+0	1.976454E+0	1.987948E+0	2.029602E+0	1.969134E+0	1.972749E+0	2.009873E+0	2.009554E+0	1.922396E+0	1.998440E+0	1.967535E+0	1.967132E+0	1.926773E+0	1.959497E+0	2.003172E+0	1.974328E+0	1.836763E+0	1.956779E+0	1.953181E+0	1.933670E+0	1.992812E+0	1.971546E+0	1.996268E+0	2.011170E+0	1.999922E+0	1.840349E+0	1.969963E+0	2.034510E+0	1.991267E+0	1.959375E+0	2.000540E+0	1.973448E+0	1.884737E+0	1.938524E+0	1.991535E+0	2.001409E+0	1.937282E+0	1.951636E+0	1.933001E+0	1.963708E+0	1.974387E+0	1.949210E+0	1.942714E+0	2.002860E+0	1.925054E+0	1.938652E+0	1.857279E+0	1.958297E+0	1.957096E+0	2.013874E+0	2.031209E+0	1.924473E+0	1.942562E+0	1.963143E+0	1.975448E+0	1.944878E+0	2.030753E+0	1.975667E+0	1.877217E+0	1.958604E+0	1.890171E+0	1.918560E+0	1.974210E+0	1.928814E+0	1.945404E+0	1.934852E+0	1.859744E+0
5.352600E+2	2.045079E+0	2.125961E+0	2.045659E+0	2.004738E+0	2.043727E+0	1.974573E+0	1.964132E+0	2.028522E+0	2.036734E+0	2.015157E+0	2.004387E+0	2.028780E+0	1.978547E+0	1.983560E+0	1.987513E+0	2.009623E+0	1.961625E+0	2.028570E+0	2.022020E+0	2.077089E+0	2.041487E+0	2.002855E+0	2.043265E+0	2.094772E+0	2.035422E+0	2.028586E+0	1.998963E+0	2.041040E+0	1.945254E+0	2.026111E+0	1.993973E+0	2.043964E+0	2.023567E+0	2.000727E+0	1.974353E+0	2.067858E+0	1.923214E+0	1.969636E+0	1.935599E+0	1.983134E+0	2.023425E+0	2.069989E+0	2.053014E+0	1.934582E+0	2.021296E+0	2.001677E+0	2.039766E+0	1.963272E+0	2.024686E+0	1.977270E+0	2.056348E+0	1.987596E+0	1.984940E+0	1.999642E+0	1.993533E+0	2.029395E+0	2.023321E+0	1.980131E+0	1.941981E+0	2.008825E+0	1.961359E+0	2.000871E+0	2.009222E+0	1.972667E+0	1.970188E+0	1.995007E+0	2.013510E+0	1.960618E+0	2.046840E+0	2.029713E+0	1.998183E+0	2.032178E+0	1.959387E+0	1.921650E+0	1.998145E+0	2.046885E+0	1.914513E+0	2.006070E+0	1.930916E+0	1.985521E+0	1.969575E+0	1.942005E+0	2.026191E+0	1.964081E+0	2.001141E+0	1.930392E+0	1.961729E+0	1.897642E+0	2.010912E+0	1.997673E+0	1.987676E+0	2.058914E+0	1.967862E+0	2.020765E+0	2.092355E+0	1.985998E+0	2.006474E+0	1.981201E+0	1.984421E+0	1.977243E+0	1.964112E+0	2.019637E+0	1.999859E+0	1.960774E+0	1.931171E+0	1.980703E+0	1.975514E+0	2.057650E+0	2.045547E+0	2.000699E+0	1.955058E+0	1.909500E+0	2.004713E+0	1.888642E+0	2.026758E+0	1.965265E+0	2.008986E+0	2.003183E+0	1.985670E+0	1.931181E+0	1.972031E+0	1.863013E+0	1.930709E+0	1.964833E+0	1.996473E+0	1.918052E+0	1.889802E+0	1.972016E+0	1.900478E+0	1.953374E+0	1.876328E+0	1.974340E+0	1.951725E+0	1.975157E+0	1.881050E+0	1.982099E+0	1.985938E+0	1.927165E+0	2.021907E+0	1.930781E+0	2.004033E+0	1.920964E+0	1.980465E+0	1.986587E+0	1.901476E+0	1.861337E+0	1.980151E+0	1.872296E+0	1.944168E+0	1.913863E+0	1.961965E+0	1.875788E+0	1.991612E+0	1.953493E+0	1.946990E+0	1.892911E+0	1.993495E+0	1.958492E+0	2.001055E+0	1.927269E+0	1.944596E+0	2.001288E+0	1.917197E+0	1.977021E+0	1.901631E+0	1.880828E+0	1.902142E+0	1.937950E+0	1.927733E+0	1.897994E+0	1.985037E+0	1.808820E+0
5.354110E+2	1.821924E+0	1.843468E+0	1.866886E+0	1.763690E+0	1.876817E+0	1.763530E+0	1.752495E+0	1.835968E+0	1.859078E+0	1.817650E+0	1.823170E+0	1.714418E+0	1.758671E+0	1.794148E+0	1.746583E+0	1.826387E+0	1.806983E+0	1.777463E+0	1.773443E+0	1.851497E+0	1.823578E+0	1.808223E+0	1.822772E+0	1.870009E+0	1.826879E+0	1.878550E+0	1.790432E+0	1.803462E+0	1.738692E+0	1.797837E+0	1.794833E+0	1.799038E+0	1.827279E+0	1.747298E+0	1.817855E+0	1.815673E+0	1.750740E+0	1.786959E+0	1.796808E+0	1.797929E+0	1.812161E+0	1.762374E+0	1.782534E+0	1.841165E+0	1.769654E+0	1.845035E+0	1.820677E+0	1.743662E+0	1.814536E+0	1.789720E+0	1.801800E+0	1.802448E+0	1.831979E+0	1.795485E+0	1.827864E+0	1.794775E+0	1.854910E+0	1.768668E+0	1.800926E+0	1.774731E+0	1.802624E+0	1.801653E+0	1.789111E+0	1.789419E+0	1.854775E+0	1.760746E+0	1.804339E+0	1.821389E+0	1.816819E+0	1.773212E+0	1.781204E+0	1.771882E+0	1.729253E+0	1.818008E+0	1.631259E+0	1.826629E+0	1.759765E+0	1.807099E+0	1.741405E+0	1.814741E+0	1.832286E+0	1.745932E+0	1.859224E+0	1.787982E+0	1.767015E+0	1.790585E+0	1.837412E+0	1.745729E+0	1.801248E+0	1.746292E+0	1.829755E+0	1.737211E+0	1.735317E+0	1.846677E+0	1.822216E+0	1.797656E+0	1.791729E+0	1.856040E+0	1.762810E+0	1.716762E+0	1.762870E+0	1.752948E+0	1.668686E+0	1.722505E+0	1.787850E+0	1.789985E+0	1.781119E+0	1.777951E+0	1.802973E+0	1.728298E+0	1.815057E+0	1.723660E+0	1.760555E+0	1.755158E+0	1.804286E+0	1.774928E+0	1.726102E+0	1.723137E+0	1.779342E+0	1.745458E+0	1.743330E+0	1.690816E+0	1.836761E+0	1.750724E+0	1.751890E+0	1.743479E+0	1.811640E+0	1.725874E+0	1.789496E+0	1.687542E+0	1.831410E+0	1.830194E+0	1.820970E+0	1.738894E+0	1.733754E+0	1.748552E+0	1.805241E+0	1.737120E+0	1.788069E+0	1.716394E+0	1.754366E+0	1.719642E+0	1.836052E+0	1.802006E+0	1.776017E+0	1.734994E+0	1.751341E+0	1.725856E+0	1.761202E+0	1.802167E+0	1.683714E+0	1.759449E+0	1.738444E+0	1.727715E+0	1.761569E+0	1.737627E+0	1.738080E+0	1.746076E+0	1.731795E+0	1.757126E+0	1.712055E+0	1.733384E+0	1.710678E+0	1.710285E+0	1.732320E+0	1.714663E+0	1.760114E+0	1.753689E+0	1.719934E+0	1.617555E+0	1.716806E+0	1.755920E+0
5.355630E+2	1.543128E+0	1.586033E+0	1.569544E+0	1.574186E+0	1.608340E+0	1.577408E+0	1.557479E+0	1.604286E+0	1.578135E+0	1.586482E+0	1.529740E+0	1.569313E+0	1.585314E+0	1.578592E+0	1.549192E+0	1.556886E+0	1.586727E+0	1.557490E+0	1.620442E+0	1.586093E+0	1.593589E+0	1.526466E+0	1.591467E+0	1.597178E+0	1.588652E+0	1.599091E+0	1.500885E+0	1.578504E+0	1.594133E+0	1.604965E+0	1.518265E+0	1.585227E+0	1.561985E+0	1.484307E+0	1.570484E+0	1.635274E+0	1.505834E+0	1.524858E+0	1.562696E+0	1.550589E+0	1.537795E+0	1.603283E+0	1.583297E+0	1.571607E+0	1.613911E+0	1.577423E+0	1.606527E+0	1.590871E+0	1.524884E+0	1.566985E+0	1.563513E+0	1.557935E+0	1.499352E+0	1.565882E+0	1.582705E+0	1.530610E+0	1.537332E+0	1.570075E+0	1.580304E+0	1.558292E+0	1.593438E+0	1.521987E+0	1.536032E+0	1.544080E+0	1.613445E+0	1.518966E+0	1.640938E+0	1.538274E+0	1.552191E+0	1.568566E+0	1.511511E+0	1.566661E+0	1.561255E+0	1.553771E+0	1.593559E+0	1.533270E+0	1.533212E+0	1.636969E+0	1.507797E+0	1.579408E+0	1.534529E+0	1.508869E+0	1.573803E+0	1.612241E+0	1.571780E+0	1.560931E+0	1.605318E+0	1.572313E+0	1.552713E+0	1.548148E+0	1.599853E+0	1.541714E+0	1.536961E+0	1.553315E+0	1.592893E+0	1.558462E+0	1.557815E+0	1.595282E+0	1.558031E+0	1.594553E+0	1.523493E+0	1.532498E+0	1.570233E+0	1.523167E+0	1.583542E+0	1.544876E+0	1.593471E+0	1.535235E+0	1.530343E+0	1.598190E+0	1.506812E+0	1.508258E+0	1.544244E+0	1.489143E+0	1.601507E+0	1.518581E+0	1.564296E+0	1.535200E+0	1.558307E+0	1.516319E+0	1.572320E+0	1.559566E+0	1.547176E+0	1.523962E+0	1.519492E+0	1.560165E+0	1.564853E+0	1.578447E+0	1.542510E+0	1.551800E+0	1.517872E+0	1.546167E+0	1.563757E+0	1.599086E+0	1.474133E+0	1.512235E+0	1.585394E+0	1.523457E+0	1.611890E+0	1.511457E+0	1.583378E+0	1.556167E+0	1.495849E+0	1.493369E+0	1.568491E+0	1.511587E+0	1.565707E+0	1.514139E+0	1.570893E+0	1.476160E+0	1.548107E+0	1.571012E+0	1.543647E+0	1.526764E+0	1.534581E+0	1.556029E+0	1.522193E+0	1.607354E+0	1.495381E+0	1.531532E+0	1.578301E+0	1.521137E+0	1.608280E+0	1.493180E+0	1.506013E+0	1.552393E+0	1.525727E+0	1.484260E+0	1.458258E+0	1.501009E+0	1.616602E+0	1.534305E+0
5.357140E+2	1.339311E+0	1.308477E+0	1.279722E+0	1.311765E+0	1.313820E+0	1.255074E+0	1.288353E+0	1.277523E+0	1.323445E+0	1.311915E+0	1.280484E+0	1.244016E+0	1.316910E+0	1.293607E+0	1.297474E+0	1.277868E+0	1.286092E+0	1.277396E+0	1.335865E+0	1.285891E+0	1.350658E+0	1.293478E+0	1.308177E+0	1.318911E+0	1.316849E+0	1.279156E+0	1.274575E+0	1.242264E+0	1.300030E+0	1.293959E+0	1.284919E+0	1.357758E+0	1.258292E+0	1.295595E+0	1.258176E+0	1.340079E+0	1.347241E+0	1.275562E+0	1.239263E+0	1.270483E+0	1.259519E+0	1.265188E+0	1.304596E+0	1.261432E+0	1.275260E+0	1.249683E+0	1.323490E+0	1.264255E+0	1.300395E+0	1.292471E+0	1.263491E+0	1.253710E+0	1.254822E+0	1.259323E+0	1.280735E+0	1.305609E+0	1.299994E+0	1.296620E+0	1.293973E+0	1.303525E+0	1.199590E+0	1.325166E+0	1.281786E+0	1.252229E+0	1.344625E+0	1.292188E+0	1.335574E+0	1.241975E+0	1.292137E+0	1.308092E+0	1.288607E+0	1.302255E+0	1.269892E+0	1.276251E+0	1.289282E+0	1.290705E+0	1.286329E+0	1.287647E+0	1.253470E+0	1.321367E+0	1.255442E+0	1.305982E+0	1.382580E+0	1.225811E+0	1.262892E+0	1.289367E+0	1.263401E+0	1.248970E+0	1.254848E+0	1.245108E+0	1.355314E+0	1.286916E+0	1.285935E+0	1.329415E+0	1.325081E+0	1.284521E+0	1.283520E+0	1.263559E+0	1.232785E+0	1.322943E+0	1.245805E+0	1.298238E+0	1.326584E+0	1.288183E+0	1.274341E+0	1.282746E+0	1.355524E+0	1.271069E+0	1.302780E+0	1.327163E+0	1.363433E+0	1.267220E+0	1.265512E+0	1.207770E+0	1.269834E+0	1.306434E+0	1.281552E+0	1.235994E+0	1.306492E+0	1.242704E+0	1.207344E+0	1.258796E+0	1.280253E+0	1.251881E+0	1.326780E+0	1.235070E+0	1.278994E+0	1.333135E+0	1.309167E+0	1.295838E+0	1.286492E+0	1.258558E+0	1.322525E+0	1.326600E+0	1.308735E+0	1.297732E+0	1.331839E+0	1.236819E+0	1.331493E+0	1.274974E+0	1.362138E+0	1.222950E+0	1.290427E+0	1.258855E+0	1.320524E+0	1.283261E+0	1.359940E+0	1.277887E+0	1.227881E+0	1.261190E+0	1.288250E+0	1.251875E+0	1.257882E+0	1.259776E+0	1.263689E+0	1.282335E+0	1.256612E+0	1.274442E+0	1.260268E+0	1.253103E+0	1.276638E+0	1.247981E+0	1.280468E+0	1.284872E+0	1.295778E+0	1.270460E+0	1.336381E+0	1.256220E+0	1.258600E+0	1.326701E+0	1.280953E+0	1.338207E+0
5.358600E+2	1.116723E+0	1.140186E+0	1.164477E+0	1.088619E+0	1.123045E+0	1.111322E+0	1.142197E+0	1.123533E+0	1.157357E+0	1.129539E+0	1.153658E+0	1.144900E+0	1.130127E+0	1.170325E+0	1.138958E+0	1.123098E+0	1.120500E+0	1.113772E+0	1.116186E+0	1.132350E+0	1.116287E+0	1.140205E+0	1.133373E+0	1.128510E+0	1.149922E+0	1.141639E+0	1.111413E+0	1.140067E+0	1.127030E+0	1.142114E+0	1.103541E+0	1.106701E+0	1.133044E+0	1.104117E+0	1.107282E+0	1.160562E+0	1.142534E+0	1.144078E+0	1.167956E+0	1.056235E+0	1.141715E+0	1.108907E+0	1.094021E+0	1.131276E+0	1.115769E+0	1.129736E+0	1.155956E+0	1.102199E+0	1.106761E+0	1.093937E+0	1.117917E+0	1.146205E+0	1.117066E+0	1.113677E+0	1.151737E+0	1.130395E+0	1.171351E+0	1.124955E+0	1.185683E+0	1.121769E+0	1.052774E+0	1.145501E+0	1.107104E+0	1.118416E+0	1.133124E+0	1.133145E+0	1.162977E+0	1.154074E+0	1.095439E+0	1.194257E+0	1.079764E+0	1.185918E+0	1.099208E+0	1.186771E+0	1.081400E+0	1.145785E+0	1.119005E+0	1.132027E+0	1.114491E+0	1.157815E+0	1.162142E+0	1.084707E+0	1.092901E+0	1.114249E+0	1.126739E+0	1.102882E+0	1.140069E+0	1.056627E+0	1.123590E+0	1.170938E+0	1.200529E+0	1.115692E+0	1.145503E+0	1.088927E+0	1.147667E+0	1.120806E+0	1.108836E+0	1.154254E+0	1.156931E+0	1.165607E+0	1.140275E+0	1.194085E+0	1.124250E+0	1.118900E+0	1.164177E+0	1.120479E+0	1.101255E+0	1.154268E+0	1.144738E+0	1.129155E+0	1.179565E+0	1.118038E+0	1.168327E+0	1.116859E+0	1.144075E+0	1.085853E+0	1.164317E+0	1.079621E+0	1.127373E+0	1.187703E+0	1.128417E+0	1.103205E+0	1.121103E+0	1.124753E+0	1.134425E+0	1.156041E+0	1.135731E+0	1.110245E+0	1.129658E+0	1.074536E+0	1.154486E+0	1.110598E+0	1.107443E+0	1.138691E+0	1.089630E+0	1.067261E+0	1.176117E+0	1.060600E+0	1.210548E+0	1.119232E+0	1.139285E+0	1.059961E+0	1.142208E+0	1.131866E+0	1.142755E+0	1.081182E+0	1.109971E+0	1.079351E+0	1.110611E+0	1.114094E+0	1.128165E+0	1.124785E+0	1.131801E+0	1.137422E+0	1.112311E+0	1.129771E+0	1.154557E+0	1.132189E+0	1.162577E+0	1.150229E+0	1.122455E+0	1.086133E+0	1.097509E+0	1.036718E+0	1.155367E+0	1.137122E+0	1.164394E+0	1.126989E+0	1.138936E+0	1.143471E+0	1.180480E+0	1.029461E+0
5.360070E+2	9.907533E-1	9.460499E-1	9.931624E-1	9.536343E-1	1.026848E+0	9.985492E-1	9.851492E-1	1.006719E+0	9.928979E-1	9.612249E-1	9.703975E-1	9.803595E-1	9.924246E-1	9.815084E-1	1.003147E+0	9.733099E-1	9.631556E-1	9.729889E-1	9.771665E-1	1.008492E+0	9.717286E-1	9.972260E-1	1.003901E+0	1.009254E+0	9.585832E-1	9.735982E-1	1.002169E+0	9.604983E-1	9.469384E-1	9.383667E-1	9.417215E-1	1.017927E+0	9.340733E-1	9.614596E-1	9.533954E-1	9.978889E-1	9.593649E-1	9.781246E-1	9.560499E-1	9.386101E-1	9.983959E-1	9.847822E-1	9.353825E-1	9.675278E-1	9.478583E-1	9.198958E-1	9.720560E-1	9.127294E-1	1.018266E+0	9.786347E-1	9.894490E-1	9.252392E-1	9.876706E-1	9.892369E-1	1.025667E+0	9.593904E-1	9.644036E-1	1.012419E+0	9.830211E-1	9.842343E-1	9.506559E-1	9.747511E-1	9.817576E-1	9.471200E-1	1.005493E+0	9.254884E-1	9.947888E-1	9.836529E-1	9.726617E-1	9.770571E-1	9.896515E-1	9.556590E-1	9.678573E-1	1.056374E+0	9.535913E-1	9.389502E-1	9.218015E-1	9.882362E-1	9.850264E-1	9.828731E-1	9.805632E-1	9.576815E-1	9.557763E-1	9.481157E-1	9.402083E-1	9.316642E-1	1.013660E+0	9.512461E-1	9.398998E-1	9.632890E-1	1.003973E+0	1.012569E+0	9.878017E-1	9.340830E-1	9.848363E-1	9.642828E-1	1.001948E+0	9.804678E-1	1.015618E+0	1.029719E+0	9.730314E-1	1.011682E+0	9.979030E-1	9.580771E-1	9.813324E-1	1.004350E+0	9.737951E-1	9.432385E-1	9.382419E-1	1.049204E+0	1.045704E+0	9.319152E-1	9.480602E-1	9.673419E-1	9.500485E-1	9.846924E-1	9.754724E-1	9.535059E-1	9.554615E-1	9.643181E-1	9.769423E-1	1.000172E+0	9.497042E-1	9.708536E-1	9.962992E-1	9.901456E-1	9.483233E-1	9.694406E-1	1.017643E+0	1.017612E+0	9.703017E-1	1.006987E+0	9.900061E-1	9.775190E-1	1.027901E+0	9.759167E-1	9.981753E-1	9.326020E-1	1.059675E+0	9.447392E-1	9.799157E-1	9.848912E-1	9.573232E-1	9.893006E-1	1.056984E+0	9.693517E-1	1.011597E+0	9.662554E-1	9.530111E-1	9.982210E-1	9.767392E-1	9.901177E-1	9.829051E-1	1.044209E+0	9.508371E-1	9.531634E-1	9.924969E-1	1.020820E+0	9.946070E-1	9.345121E-1	9.692829E-1	9.868297E-1	9.496375E-1	9.457415E-1	9.308192E-1	9.973751E-1	9.774148E-1	9.714809E-1	1.006765E+0	9.588524E-1	1.014966E+0	1.013440E+0
5.362630E+2	6.923843E-1	7.944935E-1	7.550805E-1	7.758726E-1	7.251987E-1	7.611222E-1	7.220911E-1	7.255235E-1	7.160589E-1	7.514095E-1	7.396484E-1	7.717083E-1	7.537095E-1	7.188021E-1	7.492775E-1	7.328693E-1	7.412874E-1	7.268987E-1	7.385591E-1	7.497304E-1	7.557355E-1	7.156355E-1	7.713241E-1	7.607024E-1	7.817455E-1	7.241014E-1	7.416425E-1	7.110434E-1	7.437190E-1	7.331918E-1	7.287338E-1	8.199490E-1	7.411485E-1	7.076700E-1	7.555250E-1	8.046038E-1	7.558546E-1	7.155559E-1	7.526559E-1	7.133661E-1	7.746764E-1	7.572760E-1	7.407379E-1	7.260452E-1	7.365002E-1	7.742687E-1	7.038829E-1	7.341832E-1	7.550669E-1	7.154640E-1	7.166485E-1	7.436837E-1	7.861878E-1	7.318730E-1	7.689243E-1	7.485587E-1	7.641670E-1	7.014123E-1	7.487668E-1	7.628220E-1	7.530576E-1	7.777786E-1	7.373002E-1	7.796476E-1	7.556861E-1	7.110177E-1	7.667162E-1	7.745532E-1	7.253730E-1	7.547114E-1	7.442776E-1	7.561794E-1	7.173843E-1	7.621705E-1	7.461630E-1	7.676022E-1	7.293481E-1	7.654669E-1	7.382355E-1	7.762222E-1	7.195468E-1	7.231950E-1	7.206283E-1	7.450103E-1	7.542338E-1	7.529522E-1	7.829874E-1	7.432048E-1	7.458305E-1	7.449299E-1	7.932533E-1	7.911435E-1	7.524535E-1	7.783517E-1	7.535262E-1	7.447475E-1	7.845895E-1	7.678940E-1	7.365337E-1	7.081316E-1	7.509790E-1	7.437941E-1	7.713855E-1	7.097299E-1	7.331726E-1	7.509810E-1	7.413906E-1	7.755129E-1	7.194076E-1	7.580773E-1	7.480986E-1	7.157535E-1	7.647856E-1	7.248191E-1	7.776855E-1	7.667476E-1	7.594945E-1	7.005006E-1	7.718187E-1	7.318461E-1	7.680953E-1	7.278118E-1	7.180344E-1	7.153594E-1	7.736368E-1	7.537836E-1	7.089530E-1	7.559753E-1	7.341912E-1	7.350579E-1	7.173274E-1	7.688228E-1	7.826213E-1	7.533853E-1	7.666182E-1	7.546774E-1	7.942849E-1	7.532170E-1	7.301363E-1	7.626147E-1	7.833969E-1	7.613122E-1	7.682355E-1	7.271131E-1	7.634066E-1	7.420564E-1	7.568399E-1	7.479392E-1	7.255899E-1	7.504943E-1	7.528317E-1	7.353087E-1	7.893525E-1	7.298508E-1	7.796688E-1	7.871426E-1	7.315208E-1	7.804733E-1	7.248988E-1	7.629607E-1	7.232159E-1	7.813562E-1	7.765917E-1	7.484531E-1	7.335123E-1	7.430450E-1	7.572411E-1	7.391157E-1	7.859938E-1	7.502734E-1	7.436948E-1	7.850141E-1
5.365140E+2	5.900093E-1	5.811856E-1	5.883421E-1	5.702207E-1	5.864688E-1	6.163720E-1	5.956697E-1	5.961524E-1	5.993780E-1	5.750748E-1	6.194891E-1	6.031384E-1	5.723216E-1	5.818416E-1	5.697853E-1	5.711977E-1	6.056534E-1	5.722942E-1	6.095515E-1	6.473314E-1	5.477239E-1	6.022831E-1	5.825134E-1	5.842513E-1	6.102512E-1	6.298023E-1	5.784848E-1	6.138310E-1	6.110211E-1	5.968812E-1	5.828045E-1	5.725010E-1	6.282521E-1	5.890164E-1	5.951243E-1	5.885760E-1	5.951964E-1	5.951148E-1	5.750461E-1	6.006017E-1	6.171833E-1	6.021563E-1	5.994685E-1	6.091957E-1	5.996747E-1	5.725770E-1	6.105252E-1	6.023936E-1	6.137838E-1	5.600818E-1	5.898603E-1	5.955941E-1	5.767823E-1	5.624717E-1	5.803363E-1	6.252158E-1	6.193848E-1	5.745386E-1	5.971944E-1	5.758331E-1	6.159384E-1	5.665285E-1	5.991905E-1	5.883602E-1	5.896606E-1	5.969049E-1	5.933710E-1	6.068172E-1	5.675391E-1	6.121180E-1	5.839765E-1	6.229253E-1	6.001458E-1	6.107827E-1	5.941935E-1	6.213557E-1	5.743332E-1	6.087628E-1	5.872899E-1	6.012269E-1	5.897176E-1	5.870330E-1	6.056465E-1	5.811056E-1	5.936207E-1	6.181764E-1	6.294901E-1	5.945001E-1	5.882448E-1	5.541924E-1	5.697555E-1	6.235184E-1	6.339264E-1	5.739050E-1	6.099672E-1	6.050703E-1	5.974819E-1	5.704359E-1	6.066821E-1	6.134287E-1	5.881279E-1	6.002903E-1	5.772651E-1	5.861374E-1	5.915546E-1	5.759824E-1	5.651418E-1	6.579524E-1	5.893142E-1	6.406719E-1	6.162880E-1	5.948170E-1	5.956154E-1	5.508896E-1	6.322301E-1	6.250397E-1	6.038806E-1	6.302255E-1	5.914236E-1	5.961179E-1	6.146783E-1	5.935649E-1	5.341100E-1	5.806693E-1	5.988183E-1	6.485594E-1	5.897217E-1	5.903211E-1	5.976436E-1	5.934865E-1	5.971556E-1	5.976044E-1	6.077912E-1	6.389823E-1	5.915781E-1	6.093666E-1	6.175386E-1	6.277367E-1	6.064901E-1	6.492320E-1	6.035029E-1	6.018651E-1	6.080722E-1	6.271007E-1	6.021868E-1	5.895458E-1	5.902803E-1	6.051572E-1	5.648693E-1	5.799769E-1	6.159626E-1	6.373208E-1	6.126003E-1	5.754399E-1	5.926364E-1	5.843014E-1	6.233847E-1	6.031105E-1	5.960615E-1	5.999567E-1	6.218272E-1	5.939892E-1	5.798584E-1	5.962530E-1	6.095375E-1	6.078470E-1	5.773357E-1	5.911152E-1	5.748065E-1	6.271024E-1	5.935881E-1	6.077742E-1
5.367870E+2	5.034507E-1	5.476619E-1	5.394904E-1	4.908059E-1	5.290156E-1	5.141498E-1	5.021362E-1	4.972129E-1	5.784509E-1	5.791491E-1	5.090027E-1	4.915041E-1	4.941719E-1	5.160200E-1	5.054810E-1	4.964190E-1	5.364463E-1	5.242187E-1	5.141183E-1	5.481505E-1	5.330440E-1	5.342650E-1	5.166064E-1	5.435563E-1	5.377357E-1	5.304264E-1	5.490680E-1	4.953904E-1	5.302434E-1	5.120313E-1	5.211088E-1	5.495922E-1	5.351709E-1	4.997920E-1	5.169716E-1	5.447435E-1	5.417618E-1	5.085187E-1	5.291642E-1	5.120476E-1	5.098950E-1	5.067380E-1	5.383680E-1	5.043662E-1	5.329007E-1	5.215621E-1	5.601936E-1	5.263160E-1	5.332345E-1	5.412814E-1	5.005641E-1	5.395479E-1	5.204338E-1	5.244087E-1	5.324387E-1	5.207179E-1	5.417003E-1	5.266635E-1	5.318892E-1	5.380184E-1	5.018848E-1	5.139447E-1	4.840028E-1	4.921271E-1	5.221381E-1	4.965680E-1	5.410761E-1	4.977170E-1	5.507539E-1	5.364039E-1	5.231043E-1	4.963521E-1	5.317749E-1	5.336799E-1	5.174994E-1	5.206298E-1	4.983769E-1	5.488240E-1	5.401281E-1	5.205677E-1	5.013041E-1	5.210679E-1	5.179118E-1	5.256434E-1	5.193970E-1	5.468231E-1	5.232680E-1	5.258528E-1	5.410003E-1	5.235075E-1	5.552646E-1	5.355746E-1	5.257923E-1	5.509022E-1	5.042431E-1	5.178545E-1	5.260638E-1	5.123429E-1	5.131242E-1	5.185949E-1	5.247579E-1	5.475352E-1	5.152937E-1	5.305766E-1	5.287662E-1	5.291131E-1	5.410415E-1	5.074704E-1	5.334069E-1	5.607581E-1	5.964444E-1	5.159794E-1	5.270087E-1	5.340741E-1	5.111769E-1	5.414445E-1	5.235779E-1	4.967535E-1	5.528969E-1	5.290959E-1	5.113361E-1	5.143187E-1	5.514905E-1	5.400249E-1	5.323684E-1	5.491042E-1	5.603738E-1	5.003497E-1	5.101089E-1	4.922769E-1	5.524012E-1	5.405039E-1	5.263758E-1	5.083360E-1	5.068406E-1	5.443459E-1	5.513819E-1	5.216835E-1	5.077333E-1	5.371247E-1	5.492385E-1	5.437621E-1	5.415105E-1	5.459096E-1	5.400948E-1	4.914425E-1	5.486543E-1	5.010288E-1	5.198762E-1	4.974440E-1	4.973784E-1	5.341561E-1	5.125302E-1	5.284844E-1	5.339849E-1	5.356582E-1	5.377691E-1	5.639760E-1	5.759684E-1	5.231903E-1	5.245678E-1	5.267673E-1	5.293088E-1	5.175942E-1	5.423689E-1	5.598867E-1	5.369905E-1	5.528920E-1	4.850213E-1	4.830980E-1	4.966688E-1	5.723358E-1
5.370120E+2	4.749833E-1	4.960332E-1	4.830577E-1	4.937378E-1	5.007850E-1	4.864028E-1	4.806027E-1	4.922903E-1	4.811768E-1	5.150069E-1	4.876993E-1	5.073854E-1	4.776069E-1	4.846794E-1	4.841908E-1	5.362330E-1	5.031795E-1	4.832373E-1	5.298417E-1	5.284291E-1	4.851857E-1	4.888649E-1	5.091188E-1	4.950632E-1	5.076612E-1	4.991137E-1	4.955226E-1	4.847221E-1	4.901443E-1	4.751046E-1	4.952887E-1	5.338679E-1	5.193788E-1	4.862253E-1	5.113224E-1	5.103786E-1	5.292431E-1	5.163624E-1	4.795145E-1	4.928036E-1	4.845926E-1	4.848593E-1	5.163949E-1	5.394218E-1	5.085331E-1	5.026955E-1	5.068123E-1	4.760942E-1	5.303592E-1	5.069877E-1	5.104200E-1	4.968601E-1	5.437422E-1	4.923462E-1	4.825871E-1	4.844046E-1	4.891126E-1	4.956143E-1	5.226803E-1	5.189839E-1	5.180583E-1	4.980519E-1	4.890403E-1	4.780075E-1	5.274068E-1	4.763801E-1	4.955694E-1	5.132631E-1	5.070782E-1	5.210172E-1	5.504174E-1	5.498940E-1	4.846095E-1	4.709415E-1	5.004857E-1	5.230991E-1	4.871201E-1	5.577093E-1	5.287959E-1	4.843117E-1	5.023885E-1	5.077896E-1	5.231017E-1	5.087854E-1	5.171628E-1	5.185486E-1	4.997679E-1	4.986364E-1	5.396841E-1	5.232644E-1	5.146654E-1	5.291179E-1	4.867557E-1	5.099459E-1	5.308402E-1	5.078458E-1	5.202066E-1	5.111038E-1	5.171170E-1	5.005013E-1	4.851177E-1	5.442721E-1	4.926981E-1	4.883254E-1	5.427382E-1	5.089847E-1	5.228231E-1	5.232417E-1	5.461311E-1	5.134510E-1	5.088024E-1	5.124439E-1	5.125489E-1	5.172503E-1	5.394374E-1	5.233783E-1	5.428894E-1	4.803533E-1	5.064037E-1	5.060582E-1	5.088984E-1	5.075476E-1	5.007411E-1	4.986865E-1	5.134624E-1	4.837976E-1	5.049202E-1	5.057302E-1	5.538261E-1	5.066571E-1	4.797743E-1	5.085883E-1	5.181432E-1	5.136536E-1	4.853020E-1	4.872954E-1	5.644231E-1	4.936419E-1	4.923324E-1	5.137809E-1	5.014859E-1	4.873447E-1	5.365944E-1	5.027934E-1	5.330865E-1	5.244857E-1	5.393292E-1	5.167818E-1	5.511895E-1	5.062849E-1	5.197205E-1	4.643561E-1	4.916406E-1	5.067624E-1	5.116954E-1	5.123897E-1	5.224440E-1	5.014130E-1	5.357098E-1	5.346850E-1	5.072526E-1	5.272620E-1	4.932034E-1	4.859955E-1	5.146043E-1	5.195896E-1	5.153242E-1	5.221878E-1	5.409487E-1	5.120676E-1	5.544276E-1	5.431149E-1
5.372900E+2	5.184807E-1	5.016056E-1	5.390561E-1	5.607857E-1	5.846229E-1	5.297823E-1	5.353142E-1	5.367565E-1	5.291960E-1	5.483348E-1	5.345462E-1	5.225749E-1	5.270230E-1	5.312292E-1	5.128347E-1	5.562736E-1	5.502452E-1	5.288018E-1	5.423840E-1	5.571341E-1	5.451802E-1	5.403209E-1	5.433820E-1	4.979203E-1	5.319659E-1	5.398059E-1	5.444763E-1	5.510426E-1	5.300761E-1	5.435700E-1	5.048838E-1	5.395207E-1	5.138998E-1	5.264671E-1	5.492664E-1	5.598846E-1	5.752895E-1	5.541519E-1	5.268997E-1	5.571413E-1	5.378075E-1	5.673375E-1	5.577679E-1	5.252755E-1	5.548961E-1	5.455389E-1	5.499193E-1	5.491805E-1	5.355284E-1	5.992230E-1	5.439092E-1	5.212618E-1	5.290137E-1	5.509160E-1	5.191311E-1	5.377594E-1	5.219586E-1	5.145568E-1	5.438810E-1	5.540077E-1	5.759914E-1	5.349629E-1	5.575136E-1	5.269036E-1	5.368656E-1	5.221706E-1	5.013126E-1	5.389833E-1	5.183527E-1	5.634220E-1	5.055627E-1	5.246570E-1	5.349469E-1	5.569268E-1	5.577063E-1	5.422361E-1	5.303331E-1	5.289401E-1	5.096889E-1	5.201355E-1	5.530434E-1	5.301761E-1	5.548587E-1	5.660540E-1	5.404825E-1	5.378322E-1	5.217419E-1	5.523047E-1	5.448459E-1	5.463253E-1	5.727553E-1	5.567313E-1	5.385312E-1	5.581912E-1	5.605158E-1	5.378421E-1	5.486420E-1	5.460530E-1	5.550574E-1	5.495824E-1	5.336807E-1	5.577799E-1	5.291976E-1	5.471964E-1	5.561150E-1	5.437751E-1	5.450129E-1	5.392055E-1	5.238471E-1	5.891898E-1	5.301858E-1	5.370730E-1	5.348983E-1	5.923981E-1	5.860882E-1	5.290876E-1	5.525028E-1	5.523883E-1	5.756930E-1	5.658905E-1	5.428987E-1	5.473521E-1	5.575708E-1	5.627784E-1	5.382249E-1	5.436284E-1	5.653277E-1	5.198203E-1	5.099758E-1	5.311758E-1	5.576812E-1	5.460526E-1	5.870453E-1	5.546149E-1	5.525943E-1	5.524311E-1	5.838308E-1	4.993864E-1	5.556274E-1	5.073827E-1	6.153348E-1	5.465430E-1	5.300058E-1	5.494684E-1	5.606673E-1	5.454104E-1	5.662970E-1	5.346497E-1	5.557447E-1	5.254631E-1	5.842245E-1	5.609729E-1	5.197174E-1	5.560214E-1	5.368731E-1	5.523733E-1	5.442747E-1	5.042773E-1	5.663080E-1	5.923368E-1	5.369979E-1	5.330898E-1	5.600330E-1	5.387830E-1	5.474709E-1	5.421208E-1	5.315675E-1	5.222127E-1	5.455779E-1	5.456638E-1	6.098008E-1	5.842603E-1
5.375160E+2	6.086901E-1	6.553916E-1	6.339875E-1	6.063114E-1	6.327035E-1	6.343172E-1	6.368024E-1	6.136827E-1	6.270582E-1	6.165377E-1	6.561046E-1	6.344519E-1	5.757938E-1	6.277722E-1	6.080935E-1	6.053325E-1	6.514723E-1	6.525256E-1	6.692224E-1	6.103386E-1	6.160814E-1	6.243123E-1	6.411386E-1	6.415101E-1	6.660301E-1	6.390083E-1	6.226130E-1	6.092464E-1	6.175102E-1	6.608621E-1	6.456070E-1	6.613859E-1	6.710926E-1	5.909182E-1	6.553072E-1	6.740767E-1	6.440710E-1	6.101326E-1	6.064618E-1	6.346106E-1	6.148001E-1	6.174567E-1	6.108776E-1	6.586704E-1	6.838934E-1	6.184097E-1	6.337868E-1	6.107711E-1	6.236736E-1	6.393294E-1	6.415461E-1	6.620757E-1	5.812653E-1	6.688994E-1	6.228720E-1	6.248826E-1	6.370869E-1	6.007705E-1	6.403928E-1	6.317006E-1	6.557605E-1	6.069439E-1	6.426468E-1	6.196216E-1	6.298351E-1	6.261923E-1	6.348360E-1	6.320904E-1	5.869249E-1	6.756854E-1	6.303717E-1	6.182898E-1	6.019229E-1	6.060466E-1	6.547735E-1	6.486986E-1	6.276689E-1	6.680120E-1	6.561724E-1	6.501205E-1	6.085214E-1	5.804647E-1	6.369745E-1	5.981259E-1	6.842589E-1	6.404509E-1	6.206379E-1	6.320164E-1	6.467246E-1	6.472063E-1	6.643873E-1	6.011061E-1	6.380853E-1	6.168826E-1	6.187314E-1	6.347902E-1	6.246413E-1	6.510678E-1	6.667300E-1	5.994919E-1	6.285637E-1	6.517470E-1	6.417174E-1	6.485277E-1	6.319390E-1	6.480485E-1	6.377148E-1	6.143815E-1	6.434847E-1	6.344500E-1	6.655949E-1	6.315812E-1	6.229115E-1	6.559861E-1	6.421090E-1	6.084899E-1	6.393192E-1	6.151372E-1	6.452691E-1	6.024617E-1	6.625013E-1	6.009987E-1	6.099844E-1	6.485990E-1	6.334209E-1	6.463594E-1	6.213423E-1	6.585201E-1	6.347899E-1	6.611865E-1	6.288371E-1	6.526015E-1	6.213115E-1	6.652437E-1	6.150801E-1	6.550085E-1	6.559017E-1	6.051676E-1	6.722449E-1	6.039907E-1	6.006608E-1	6.419909E-1	6.805086E-1	5.996534E-1	6.321052E-1	6.032308E-1	6.266367E-1	6.155293E-1	5.900932E-1	5.923379E-1	6.643645E-1	6.148807E-1	6.538137E-1	6.397786E-1	6.496430E-1	6.458351E-1	6.796485E-1	6.436869E-1	6.312883E-1	6.376109E-1	6.547941E-1	5.932599E-1	6.873885E-1	6.026133E-1	6.529811E-1	6.282391E-1	6.470614E-1	6.464644E-1	6.255558E-1	6.687252E-1	6.377045E-1	7.019608E-1
5.377790E+2	6.628598E-1	7.029858E-1	7.098087E-1	6.615772E-1	7.361520E-1	6.674812E-1	6.466288E-1	6.770224E-1	7.011683E-1	7.197805E-1	6.958679E-1	6.694449E-1	6.955175E-1	6.823858E-1	6.859551E-1	7.207556E-1	6.755871E-1	6.981870E-1	6.997076E-1	7.659953E-1	7.310786E-1	7.212764E-1	7.378915E-1	7.154766E-1	7.472595E-1	6.995303E-1	7.042637E-1	6.665913E-1	6.686818E-1	7.073858E-1	6.457230E-1	7.043878E-1	6.903200E-1	6.774817E-1	7.017732E-1	7.268511E-1	6.877826E-1	6.698347E-1	6.637986E-1	6.424502E-1	6.763145E-1	7.123235E-1	7.323900E-1	7.329831E-1	7.016442E-1	6.421170E-1	7.516231E-1	6.987367E-1	7.153176E-1	6.585689E-1	6.994955E-1	6.887152E-1	6.922856E-1	6.874136E-1	6.757355E-1	7.255481E-1	7.264805E-1	6.812814E-1	7.142339E-1	6.585590E-1	6.777747E-1	7.052624E-1	7.140267E-1	6.672904E-1	7.160974E-1	6.451692E-1	7.445792E-1	6.933647E-1	7.060914E-1	7.397503E-1	6.641763E-1	7.260152E-1	6.819095E-1	7.067280E-1	6.932200E-1	7.457338E-1	6.790545E-1	7.180147E-1	6.948067E-1	7.025590E-1	6.783395E-1	6.818404E-1	7.139064E-1	6.771071E-1	7.150802E-1	7.027704E-1	7.035739E-1	6.825874E-1	6.908513E-1	7.263460E-1	6.799238E-1	7.312565E-1	6.913122E-1	6.756337E-1	7.064138E-1	6.964358E-1	7.147798E-1	7.119498E-1	7.409584E-1	7.041298E-1	6.885780E-1	7.342480E-1	6.609655E-1	7.174560E-1	6.711412E-1	7.028390E-1	7.190053E-1	7.096956E-1	7.134581E-1	7.217669E-1	6.688327E-1	6.884950E-1	6.842479E-1	6.559744E-1	7.165643E-1	7.194323E-1	6.966125E-1	6.839433E-1	6.950203E-1	7.276763E-1	7.035003E-1	6.938928E-1	7.115648E-1	7.418792E-1	7.301050E-1	6.869145E-1	6.739585E-1	7.033219E-1	7.207628E-1	6.918414E-1	6.659886E-1	6.854284E-1	7.435016E-1	6.909540E-1	7.369513E-1	7.557727E-1	6.849032E-1	6.574064E-1	7.117120E-1	7.172524E-1	6.862033E-1	6.756014E-1	7.245603E-1	7.423726E-1	6.895244E-1	6.697464E-1	6.968759E-1	6.753978E-1	7.109706E-1	7.458374E-1	7.477454E-1	7.332937E-1	6.880433E-1	6.997313E-1	7.245612E-1	6.709516E-1	6.909011E-1	7.066733E-1	6.955323E-1	6.875608E-1	7.192155E-1	6.979010E-1	7.263862E-1	6.430727E-1	7.274997E-1	6.881636E-1	7.209453E-1	7.089638E-1	7.114618E-1	7.326977E-1	6.444273E-1	7.399291E-1
5.380160E+2	7.630200E-1	7.639755E-1	7.908425E-1	7.684926E-1	7.684873E-1	8.005461E-1	7.922883E-1	7.769756E-1	7.774684E-1	8.377721E-1	7.561918E-1	7.900819E-1	7.515507E-1	8.473326E-1	8.016806E-1	7.906772E-1	8.169564E-1	7.792953E-1	8.016495E-1	8.265915E-1	8.558786E-1	7.708574E-1	7.608443E-1	8.463575E-1	8.441571E-1	8.256477E-1	8.346214E-1	7.856016E-1	8.036166E-1	7.916776E-1	7.835271E-1	7.861356E-1	7.955140E-1	7.599939E-1	7.781601E-1	8.001683E-1	8.170185E-1	8.083918E-1	8.182686E-1	7.625136E-1	8.410845E-1	8.025624E-1	8.120732E-1	8.255843E-1	8.129584E-1	8.122984E-1	8.093360E-1	7.763498E-1	8.080259E-1	7.965677E-1	7.969701E-1	7.748349E-1	8.226764E-1	7.953389E-1	8.505120E-1	8.086653E-1	8.314683E-1	8.063312E-1	8.214744E-1	7.979777E-1	8.100330E-1	8.173594E-1	7.920970E-1	8.275460E-1	8.215970E-1	7.782570E-1	8.328507E-1	8.249487E-1	8.114408E-1	7.861530E-1	8.161334E-1	8.550651E-1	8.410747E-1	8.128314E-1	7.656256E-1	8.477918E-1	8.087647E-1	8.046493E-1	7.605282E-1	8.417260E-1	7.642711E-1	7.418256E-1	8.100438E-1	8.037277E-1	7.760089E-1	7.594619E-1	8.253500E-1	7.763996E-1	8.039998E-1	8.060492E-1	7.651508E-1	7.873774E-1	7.638407E-1	8.351399E-1	8.267938E-1	8.186577E-1	7.970203E-1	7.840114E-1	7.929496E-1	7.790063E-1	7.730255E-1	7.934889E-1	8.158774E-1	7.784173E-1	7.833736E-1	8.158373E-1	7.470599E-1	7.712685E-1	8.116333E-1	8.342901E-1	8.559053E-1	7.850513E-1	8.017428E-1	8.408080E-1	7.843948E-1	8.255884E-1	7.846307E-1	8.078900E-1	7.809352E-1	8.201014E-1	8.791931E-1	7.285323E-1	7.577257E-1	8.249905E-1	8.247465E-1	7.477614E-1	7.966621E-1	8.450223E-1	8.213259E-1	8.211268E-1	8.325870E-1	8.147287E-1	8.373161E-1	7.874306E-1	7.942220E-1	8.435221E-1	8.689297E-1	7.611816E-1	8.081240E-1	8.444835E-1	8.170254E-1	7.986958E-1	7.770155E-1	7.903748E-1	8.523434E-1	7.990593E-1	8.010074E-1	8.062693E-1	7.822341E-1	7.524286E-1	8.116761E-1	7.931303E-1	8.276302E-1	8.217902E-1	7.738183E-1	8.431443E-1	7.690084E-1	8.201420E-1	7.955663E-1	7.736933E-1	7.936491E-1	7.946394E-1	8.392719E-1	8.126164E-1	7.914538E-1	7.942975E-1	8.074019E-1	7.850445E-1	8.087194E-1	7.415123E-1	8.593323E-1	8.235448E-1
5.382900E+2	1.033424E+0	1.002434E+0	9.755160E-1	1.029558E+0	1.034142E+0	1.005878E+0	9.865724E-1	1.026557E+0	1.041627E+0	9.947168E-1	1.030962E+0	1.036950E+0	9.894133E-1	9.972314E-1	9.721440E-1	1.086526E+0	1.014141E+0	1.021758E+0	1.033350E+0	1.031440E+0	1.022764E+0	1.040070E+0	9.961456E-1	1.016890E+0	1.095186E+0	1.050595E+0	1.003049E+0	1.011433E+0	1.006743E+0	9.963010E-1	1.000998E+0	1.068865E+0	1.022360E+0	9.940675E-1	1.054321E+0	9.598792E-1	9.874154E-1	9.981614E-1	9.963954E-1	1.017786E+0	1.006095E+0	9.551683E-1	1.003290E+0	9.953090E-1	9.780407E-1	1.000067E+0	1.021550E+0	1.060488E+0	1.046631E+0	1.008563E+0	1.028163E+0	9.928440E-1	9.734909E-1	1.030050E+0	1.017044E+0	1.043358E+0	1.035800E+0	1.019706E+0	1.042202E+0	9.597701E-1	1.054416E+0	1.021143E+0	9.753168E-1	1.038816E+0	1.009677E+0	9.788695E-1	1.023169E+0	1.002436E+0	1.011656E+0	1.007454E+0	1.006612E+0	9.885627E-1	9.799070E-1	9.834153E-1	1.029348E+0	1.025159E+0	1.018014E+0	1.048732E+0	1.014458E+0	1.038379E+0	9.857128E-1	9.960440E-1	1.070764E+0	9.990745E-1	1.001236E+0	1.014481E+0	1.065329E+0	9.501961E-1	1.004615E+0	1.013359E+0	1.004823E+0	1.001687E+0	1.026260E+0	9.884288E-1	1.053320E+0	9.952686E-1	1.039666E+0	1.023872E+0	1.042746E+0	1.001898E+0	9.947455E-1	9.786214E-1	1.039534E+0	1.004182E+0	9.807415E-1	1.019186E+0	9.647919E-1	9.788239E-1	1.015906E+0	1.038396E+0	1.064886E+0	1.015207E+0	1.025707E+0	9.591688E-1	1.061470E+0	1.005829E+0	1.007167E+0	1.033722E+0	9.821586E-1	1.023202E+0	1.028182E+0	9.961393E-1	1.046205E+0	9.801913E-1	1.001436E+0	9.844804E-1	1.031381E+0	9.990046E-1	9.956667E-1	1.023130E+0	1.052557E+0	1.016574E+0	9.828711E-1	9.924307E-1	9.935959E-1	1.023390E+0	1.033910E+0	1.008374E+0	1.042131E+0	9.618262E-1	9.716539E-1	9.655509E-1	1.012991E+0	9.945758E-1	1.051922E+0	9.370413E-1	1.053883E+0	9.897317E-1	9.805721E-1	1.008219E+0	1.044308E+0	1.020760E+0	9.855627E-1	9.743540E-1	9.949970E-1	1.025409E+0	1.018743E+0	9.955338E-1	1.006369E+0	1.024812E+0	9.872598E-1	1.019879E+0	1.047995E+0	1.044808E+0	1.038013E+0	1.007175E+0	1.024768E+0	1.028510E+0	9.987666E-1	1.014776E+0	1.025088E+0	1.016694E+0
5.385110E+2	1.195690E+0	1.199113E+0	1.154984E+0	1.162304E+0	1.196800E+0	1.198711E+0	1.180462E+0	1.162649E+0	1.179175E+0	1.232255E+0	1.223802E+0	1.208179E+0	1.186900E+0	1.182493E+0	1.163698E+0	1.134081E+0	1.221609E+0	1.147821E+0	1.179168E+0	1.249752E+0	1.156113E+0	1.169020E+0	1.202975E+0	1.160122E+0	1.217241E+0	1.152154E+0	1.185546E+0	1.162617E+0	1.220028E+0	1.153918E+0	1.107149E+0	1.168131E+0	1.217074E+0	1.188893E+0	1.161157E+0	1.223775E+0	1.179672E+0	1.185622E+0	1.158863E+0	1.207400E+0	1.170776E+0	1.144766E+0	1.226102E+0	1.219502E+0	1.173282E+0	1.165634E+0	1.206683E+0	1.206736E+0	1.184883E+0	1.222536E+0	1.245160E+0	1.160900E+0	1.200188E+0	1.239390E+0	1.221640E+0	1.226931E+0	1.200023E+0	1.211700E+0	1.219318E+0	1.172281E+0	1.172429E+0	1.147014E+0	1.175833E+0	1.188786E+0	1.180893E+0	1.160409E+0	1.193751E+0	1.199023E+0	1.187720E+0	1.207033E+0	1.158309E+0	1.166838E+0	1.198623E+0	1.189431E+0	1.213626E+0	1.171896E+0	1.190338E+0	1.181079E+0	1.195406E+0	1.170593E+0	1.183041E+0	1.100058E+0	1.210408E+0	1.195416E+0	1.209539E+0	1.136606E+0	1.225614E+0	1.168708E+0	1.209081E+0	1.181984E+0	1.192467E+0	1.194122E+0	1.212946E+0	1.157973E+0	1.189946E+0	1.167747E+0	1.187017E+0	1.195520E+0	1.247959E+0	1.147214E+0	1.169264E+0	1.167243E+0	1.165970E+0	1.161558E+0	1.147163E+0	1.184988E+0	1.140536E+0	1.176543E+0	1.202654E+0	1.165125E+0	1.214236E+0	1.188189E+0	1.198581E+0	1.143010E+0	1.194064E+0	1.211598E+0	1.140787E+0	1.151568E+0	1.192966E+0	1.173993E+0	1.206777E+0	1.143092E+0	1.144787E+0	1.139420E+0	1.142849E+0	1.175613E+0	1.197257E+0	1.200335E+0	1.147026E+0	1.187279E+0	1.210858E+0	1.196846E+0	1.168483E+0	1.191275E+0	1.169677E+0	1.170926E+0	1.250194E+0	1.163207E+0	1.219416E+0	1.226926E+0	1.201438E+0	1.113010E+0	1.203429E+0	1.182819E+0	1.202160E+0	1.177096E+0	1.167906E+0	1.179698E+0	1.167406E+0	1.182772E+0	1.185916E+0	1.160927E+0	1.173098E+0	1.141317E+0	1.229203E+0	1.178297E+0	1.167305E+0	1.190889E+0	1.183290E+0	1.172288E+0	1.156558E+0	1.136010E+0	1.163594E+0	1.139713E+0	1.166948E+0	1.163861E+0	1.134142E+0	1.217489E+0	1.191402E+0	1.233575E+0	1.222897E+0	1.227170E+0
5.387700E+2	1.426914E+0	1.398706E+0	1.405692E+0	1.434423E+0	1.505602E+0	1.416903E+0	1.463354E+0	1.441942E+0	1.498001E+0	1.441035E+0	1.431485E+0	1.432357E+0	1.407217E+0	1.366060E+0	1.429505E+0	1.416390E+0	1.386252E+0	1.457271E+0	1.410625E+0	1.436679E+0	1.432219E+0	1.362160E+0	1.460867E+0	1.463441E+0	1.515701E+0	1.384855E+0	1.395115E+0	1.441181E+0	1.435312E+0	1.441753E+0	1.424761E+0	1.441660E+0	1.413559E+0	1.364538E+0	1.475929E+0	1.456052E+0	1.452656E+0	1.438667E+0	1.446640E+0	1.472441E+0	1.488411E+0	1.428119E+0	1.476317E+0	1.369418E+0	1.482034E+0	1.431798E+0	1.392208E+0	1.359421E+0	1.421626E+0	1.416877E+0	1.482530E+0	1.420924E+0	1.416613E+0	1.355796E+0	1.479954E+0	1.452499E+0	1.362721E+0	1.445766E+0	1.406521E+0	1.413697E+0	1.381845E+0	1.424070E+0	1.401521E+0	1.461129E+0	1.504859E+0	1.427037E+0	1.371639E+0	1.500694E+0	1.366262E+0	1.548481E+0	1.418458E+0	1.479044E+0	1.395956E+0	1.352744E+0	1.425841E+0	1.383563E+0	1.380072E+0	1.440496E+0	1.403825E+0	1.449873E+0	1.412145E+0	1.436972E+0	1.377866E+0	1.433342E+0	1.426983E+0	1.417614E+0	1.445692E+0	1.459727E+0	1.458745E+0	1.415750E+0	1.422367E+0	1.449442E+0	1.371277E+0	1.435935E+0	1.402918E+0	1.374313E+0	1.449758E+0	1.441678E+0	1.404652E+0	1.410083E+0	1.412803E+0	1.473961E+0	1.408646E+0	1.438149E+0	1.396811E+0	1.350430E+0	1.436258E+0	1.432151E+0	1.361762E+0	1.478435E+0	1.442772E+0	1.394135E+0	1.441059E+0	1.383730E+0	1.530706E+0	1.404344E+0	1.426849E+0	1.394480E+0	1.431986E+0	1.457112E+0	1.481515E+0	1.379776E+0	1.437204E+0	1.399800E+0	1.444484E+0	1.388335E+0	1.380458E+0	1.419318E+0	1.435421E+0	1.404601E+0	1.431978E+0	1.457973E+0	1.403617E+0	1.380615E+0	1.395341E+0	1.422834E+0	1.418907E+0	1.365995E+0	1.402121E+0	1.410903E+0	1.438542E+0	1.304955E+0	1.407368E+0	1.371891E+0	1.428447E+0	1.366890E+0	1.351732E+0	1.414638E+0	1.430226E+0	1.413015E+0	1.402089E+0	1.422159E+0	1.369366E+0	1.379580E+0	1.418284E+0	1.405842E+0	1.400023E+0	1.422260E+0	1.468149E+0	1.449077E+0	1.430465E+0	1.473336E+0	1.430679E+0	1.395700E+0	1.367654E+0	1.394354E+0	1.443529E+0	1.408149E+0	1.385912E+0	1.392937E+0	1.487782E+0	1.369913E+0
5.390240E+2	1.602204E+0	1.609413E+0	1.678645E+0	1.637157E+0	1.584442E+0	1.655083E+0	1.616488E+0	1.696531E+0	1.649448E+0	1.647420E+0	1.647000E+0	1.598028E+0	1.610688E+0	1.670227E+0	1.612152E+0	1.686731E+0	1.659436E+0	1.654194E+0	1.662443E+0	1.708252E+0	1.650551E+0	1.632083E+0	1.598860E+0	1.679076E+0	1.724089E+0	1.663533E+0	1.673203E+0	1.629341E+0	1.580144E+0	1.668571E+0	1.653104E+0	1.646799E+0	1.619201E+0	1.607119E+0	1.590212E+0	1.720683E+0	1.622934E+0	1.677145E+0	1.653867E+0	1.585605E+0	1.673623E+0	1.638627E+0	1.661411E+0	1.608580E+0	1.620216E+0	1.660440E+0	1.642835E+0	1.615834E+0	1.621713E+0	1.669093E+0	1.632311E+0	1.651305E+0	1.624371E+0	1.624157E+0	1.684429E+0	1.690088E+0	1.683780E+0	1.667704E+0	1.645268E+0	1.664573E+0	1.575206E+0	1.593641E+0	1.618107E+0	1.659200E+0	1.591477E+0	1.566679E+0	1.606980E+0	1.602581E+0	1.652110E+0	1.660410E+0	1.611433E+0	1.628335E+0	1.627170E+0	1.658271E+0	1.601821E+0	1.627446E+0	1.648706E+0	1.611815E+0	1.650109E+0	1.641763E+0	1.649506E+0	1.596276E+0	1.566381E+0	1.653248E+0	1.600106E+0	1.591823E+0	1.609957E+0	1.621949E+0	1.641412E+0	1.541447E+0	1.610026E+0	1.634108E+0	1.650213E+0	1.583220E+0	1.583031E+0	1.602110E+0	1.624658E+0	1.627861E+0	1.662653E+0	1.606622E+0	1.664360E+0	1.619898E+0	1.634627E+0	1.608379E+0	1.567086E+0	1.620207E+0	1.612271E+0	1.672608E+0	1.616882E+0	1.586479E+0	1.626570E+0	1.572569E+0	1.714227E+0	1.639388E+0	1.621342E+0	1.637076E+0	1.668319E+0	1.588843E+0	1.618161E+0	1.650584E+0	1.636806E+0	1.530208E+0	1.598280E+0	1.568809E+0	1.646402E+0	1.620402E+0	1.583456E+0	1.644484E+0	1.667540E+0	1.570614E+0	1.598552E+0	1.628544E+0	1.608802E+0	1.639796E+0	1.608805E+0	1.615318E+0	1.614318E+0	1.505884E+0	1.647211E+0	1.571299E+0	1.620631E+0	1.627627E+0	1.598909E+0	1.633161E+0	1.638353E+0	1.616068E+0	1.566572E+0	1.590715E+0	1.661538E+0	1.638970E+0	1.569465E+0	1.566277E+0	1.566748E+0	1.624480E+0	1.579656E+0	1.602729E+0	1.562377E+0	1.644752E+0	1.685276E+0	1.596144E+0	1.592213E+0	1.545908E+0	1.592817E+0	1.579210E+0	1.589025E+0	1.587930E+0	1.642935E+0	1.623477E+0	1.554630E+0	1.593320E+0	1.588807E+0	1.592484E+0
5.392880E+2	1.862315E+0	1.833093E+0	1.877499E+0	1.866128E+0	1.893092E+0	1.817654E+0	1.782062E+0	1.868417E+0	1.811571E+0	1.887959E+0	1.846574E+0	1.864403E+0	1.875613E+0	1.857648E+0	1.816181E+0	1.794951E+0	1.817818E+0	1.874440E+0	1.845117E+0	1.880253E+0	1.800555E+0	1.877228E+0	1.807376E+0	1.975258E+0	1.859839E+0	1.873198E+0	1.799830E+0	1.846906E+0	1.845369E+0	1.821535E+0	1.843038E+0	1.910205E+0	1.878861E+0	1.851839E+0	1.877509E+0	1.918343E+0	1.765096E+0	1.847000E+0	1.825049E+0	1.879318E+0	1.910215E+0	1.782242E+0	1.842195E+0	1.830437E+0	1.870799E+0	1.787072E+0	1.783123E+0	1.818472E+0	1.819844E+0	1.856290E+0	1.871681E+0	1.820406E+0	1.884273E+0	1.752777E+0	1.835130E+0	1.869991E+0	1.907598E+0	1.797846E+0	1.858655E+0	1.836010E+0	1.892043E+0	1.744327E+0	1.796512E+0	1.819575E+0	1.883913E+0	1.823188E+0	1.827680E+0	1.813155E+0	1.759126E+0	1.829005E+0	1.801373E+0	1.849650E+0	1.855849E+0	1.800779E+0	1.814766E+0	1.800445E+0	1.833678E+0	1.807007E+0	1.775217E+0	1.878257E+0	1.703361E+0	1.796604E+0	1.886639E+0	1.843943E+0	1.799631E+0	1.795831E+0	1.899143E+0	1.815147E+0	1.918197E+0	1.818057E+0	1.860152E+0	1.912422E+0	1.807242E+0	1.818239E+0	1.864188E+0	1.786618E+0	1.795165E+0	1.771966E+0	1.816651E+0	1.781321E+0	1.810805E+0	1.829630E+0	1.796727E+0	1.793640E+0	1.835540E+0	1.844625E+0	1.834362E+0	1.795969E+0	1.804632E+0	1.842803E+0	1.882899E+0	1.826272E+0	1.854783E+0	1.818500E+0	1.814719E+0	1.829818E+0	1.873423E+0	1.796349E+0	1.847412E+0	1.791843E+0	1.785814E+0	1.758428E+0	1.806099E+0	1.880931E+0	1.801332E+0	1.844169E+0	1.837420E+0	1.797962E+0	1.794422E+0	1.764197E+0	1.751398E+0	1.836204E+0	1.788277E+0	1.867829E+0	1.745276E+0	1.798327E+0	1.852507E+0	1.720858E+0	1.864895E+0	1.823907E+0	1.844967E+0	1.757216E+0	1.880068E+0	1.796532E+0	1.870996E+0	1.744877E+0	1.772019E+0	1.803352E+0	1.796392E+0	1.848944E+0	1.772463E+0	1.720808E+0	1.813255E+0	1.744520E+0	1.743663E+0	1.812105E+0	1.772795E+0	1.781059E+0	1.743484E+0	1.869665E+0	1.764472E+0	1.800869E+0	1.823409E+0	1.783943E+0	1.779615E+0	1.780771E+0	1.865840E+0	1.828811E+0	1.775385E+0	1.900381E+0	1.851435E+0	1.754674E+0
5.395210E+2	1.946963E+0	1.958617E+0	1.936175E+0	1.905915E+0	1.955630E+0	1.915642E+0	1.903209E+0	1.968600E+0	1.925635E+0	1.920631E+0	1.924099E+0	1.942115E+0	1.884129E+0	1.913741E+0	1.877100E+0	1.885099E+0	1.973442E+0	1.922788E+0	1.878855E+0	1.955004E+0	1.970810E+0	1.936595E+0	1.977084E+0	1.909647E+0	1.943189E+0	1.918033E+0	1.977858E+0	1.946440E+0	1.964304E+0	1.874747E+0	1.877426E+0	1.950223E+0	1.970564E+0	1.787945E+0	1.928518E+0	1.966808E+0	1.918268E+0	1.891641E+0	1.943358E+0	1.945117E+0	1.898370E+0	1.951994E+0	1.936951E+0	1.823877E+0	1.890704E+0	1.927886E+0	1.880260E+0	2.001747E+0	1.938698E+0	1.895567E+0	1.920105E+0	1.934314E+0	1.884865E+0	1.886130E+0	1.896015E+0	1.937565E+0	1.974056E+0	1.918990E+0	1.975645E+0	1.959211E+0	1.926091E+0	1.898282E+0	1.894120E+0	1.953698E+0	1.903713E+0	1.842354E+0	1.899720E+0	1.863499E+0	1.921221E+0	1.901758E+0	1.864609E+0	1.870519E+0	1.892988E+0	1.899470E+0	1.845872E+0	1.964390E+0	1.937971E+0	1.827635E+0	1.863787E+0	1.928105E+0	1.896109E+0	1.862665E+0	1.878917E+0	1.881887E+0	1.945558E+0	1.863365E+0	1.903664E+0	1.888101E+0	1.903127E+0	1.852040E+0	1.959735E+0	1.933950E+0	1.823655E+0	1.921192E+0	1.839599E+0	1.827212E+0	1.919696E+0	1.941757E+0	1.900121E+0	1.865579E+0	1.870982E+0	1.936632E+0	1.899301E+0	1.878362E+0	1.827877E+0	1.943920E+0	1.904091E+0	1.849204E+0	1.943196E+0	1.921587E+0	1.877790E+0	1.921500E+0	1.850327E+0	1.815657E+0	1.914288E+0	1.874728E+0	1.940344E+0	1.884747E+0	1.923698E+0	1.902038E+0	1.884372E+0	1.874661E+0	1.933950E+0	1.860288E+0	1.929890E+0	1.827046E+0	1.821522E+0	1.914026E+0	1.908735E+0	1.781516E+0	1.850745E+0	1.902194E+0	1.860540E+0	1.920179E+0	1.838483E+0	1.856764E+0	2.002732E+0	1.853902E+0	1.797010E+0	1.863897E+0	1.846201E+0	1.835911E+0	1.874206E+0	1.861858E+0	1.962048E+0	1.793374E+0	1.839578E+0	1.947502E+0	1.849274E+0	1.843341E+0	1.792615E+0	1.873358E+0	1.835570E+0	1.909861E+0	1.799868E+0	1.841122E+0	1.823558E+0	1.858254E+0	1.818547E+0	1.863693E+0	1.844622E+0	1.904748E+0	1.810108E+0	1.829135E+0	1.942633E+0	1.836033E+0	1.868527E+0	1.891978E+0	1.857461E+0	1.822696E+0	1.930143E+0	1.875407E+0
5.397750E+2	1.992118E+0	1.972938E+0	1.913280E+0	1.986384E+0	2.018979E+0	1.944047E+0	1.986831E+0	1.960648E+0	2.009940E+0	2.002062E+0	2.027643E+0	1.974763E+0	1.951299E+0	1.906326E+0	1.973442E+0	1.959401E+0	1.984193E+0	1.939523E+0	1.923652E+0	2.019157E+0	1.994436E+0	2.020777E+0	2.005174E+0	2.046848E+0	2.029073E+0	1.971928E+0	1.913134E+0	1.999319E+0	1.928431E+0	1.913669E+0	1.946441E+0	1.996238E+0	2.074088E+0	1.913831E+0	1.963906E+0	1.995302E+0	1.967638E+0	2.003113E+0	1.943500E+0	1.942010E+0	2.030499E+0	1.890838E+0	1.998167E+0	1.976854E+0	1.948017E+0	1.918198E+0	2.002278E+0	1.900057E+0	1.989957E+0	1.939055E+0	1.902187E+0	1.918304E+0	1.939153E+0	1.902687E+0	2.016613E+0	1.989129E+0	2.047463E+0	1.928254E+0	1.963788E+0	1.912437E+0	1.922451E+0	1.977744E+0	1.864391E+0	1.894955E+0	1.974333E+0	1.893085E+0	1.927400E+0	1.977921E+0	1.899268E+0	1.982418E+0	1.994197E+0	1.887352E+0	1.972912E+0	1.969793E+0	1.924156E+0	1.975188E+0	1.845240E+0	1.911297E+0	1.920344E+0	1.934675E+0	1.925520E+0	1.932925E+0	1.942207E+0	1.961314E+0	1.930143E+0	1.910845E+0	1.943023E+0	1.959877E+0	1.956288E+0	1.969493E+0	1.989626E+0	1.983475E+0	1.896838E+0	1.961826E+0	1.909796E+0	1.896505E+0	1.937192E+0	1.924401E+0	1.939498E+0	1.942991E+0	1.870008E+0	1.941900E+0	1.946950E+0	1.950619E+0	1.803009E+0	1.999969E+0	1.936792E+0	1.952870E+0	1.849875E+0	2.009731E+0	1.997602E+0	1.874013E+0	1.918810E+0	1.882191E+0	2.012005E+0	1.908781E+0	1.941340E+0	1.878159E+0	1.946097E+0	1.912772E+0	1.929857E+0	1.882556E+0	2.002707E+0	1.914712E+0	1.862493E+0	1.922712E+0	1.941369E+0	1.972044E+0	1.868311E+0	1.899176E+0	1.883918E+0	1.903626E+0	1.941100E+0	1.935230E+0	1.902393E+0	1.870807E+0	1.911657E+0	1.894041E+0	1.921339E+0	1.940826E+0	1.977130E+0	1.892982E+0	1.903647E+0	1.838314E+0	1.933582E+0	1.848408E+0	1.886194E+0	1.911743E+0	1.910517E+0	1.908276E+0	1.970596E+0	1.881924E+0	1.862769E+0	1.886139E+0	1.904276E+0	1.911681E+0	1.888341E+0	1.850917E+0	1.931309E+0	1.992783E+0	1.893281E+0	1.893673E+0	1.915567E+0	1.876364E+0	1.874334E+0	1.868074E+0	1.903983E+0	1.911351E+0	1.874936E+0	1.919818E+0	1.962001E+0	1.922633E+0
5.400190E+2	1.924734E+0	1.966582E+0	1.985914E+0	1.983206E+0	1.951176E+0	1.938910E+0	1.950509E+0	2.008358E+0	2.010552E+0	1.958817E+0	1.934334E+0	1.948821E+0	2.001753E+0	1.946105E+0	1.958183E+0	1.902742E+0	1.993380E+0	1.923312E+0	1.902615E+0	1.995776E+0	2.045802E+0	1.961673E+0	1.949992E+0	2.040433E+0	1.923608E+0	1.910869E+0	1.883412E+0	1.912243E+0	1.890835E+0	1.982461E+0	1.937033E+0	1.976591E+0	1.922894E+0	1.899733E+0	1.913266E+0	1.993624E+0	1.942205E+0	2.005658E+0	1.945896E+0	1.995095E+0	1.997171E+0	1.890983E+0	1.896398E+0	1.960237E+0	1.993484E+0	1.904311E+0	1.968362E+0	1.896406E+0	1.996973E+0	1.914663E+0	1.893092E+0	1.829149E+0	1.988229E+0	1.902284E+0	1.966325E+0	1.945419E+0	1.957106E+0	1.943920E+0	1.988220E+0	1.988210E+0	1.957026E+0	1.883556E+0	1.948874E+0	1.973264E+0	1.972844E+0	1.968868E+0	1.903139E+0	1.942893E+0	1.862372E+0	1.975737E+0	1.944357E+0	1.938304E+0	1.935323E+0	1.942849E+0	1.926665E+0	1.953356E+0	1.977005E+0	1.968613E+0	1.866527E+0	1.951397E+0	1.928755E+0	1.883199E+0	1.958457E+0	1.965365E+0	1.896162E+0	1.989209E+0	1.982945E+0	1.972506E+0	1.896715E+0	1.965326E+0	1.964591E+0	1.952320E+0	1.926655E+0	1.868566E+0	1.885060E+0	1.971267E+0	1.935017E+0	1.962618E+0	1.974237E+0	1.884950E+0	1.914344E+0	1.937783E+0	1.922019E+0	1.905282E+0	1.905798E+0	1.947695E+0	1.938590E+0	1.971455E+0	1.924595E+0	1.951624E+0	1.983263E+0	1.845254E+0	1.977707E+0	1.880024E+0	1.942907E+0	1.961099E+0	1.953257E+0	1.885803E+0	1.958275E+0	1.944105E+0	1.910791E+0	1.832339E+0	1.913141E+0	1.845143E+0	1.981594E+0	1.906700E+0	1.921587E+0	1.944902E+0	1.877204E+0	1.917801E+0	1.879695E+0	1.920089E+0	1.896073E+0	1.916090E+0	1.947506E+0	1.852879E+0	1.928809E+0	1.831836E+0	1.914851E+0	1.935203E+0	1.876957E+0	1.925329E+0	1.875345E+0	1.950471E+0	1.912517E+0	1.804295E+0	1.840543E+0	1.955974E+0	1.927099E+0	1.889287E+0	1.894268E+0	1.877589E+0	1.852217E+0	1.857700E+0	1.908943E+0	1.904457E+0	1.773636E+0	1.855826E+0	1.932929E+0	1.903738E+0	1.929108E+0	1.880810E+0	1.853679E+0	1.913314E+0	1.869739E+0	1.913653E+0	1.893516E+0	1.865046E+0	1.786619E+0	1.862013E+0	1.862806E+0	1.927675E+0
5.402630E+2	1.868723E+0	1.872985E+0	1.903724E+0	1.814867E+0	1.891613E+0	1.843873E+0	1.864819E+0	1.863557E+0	1.861047E+0	1.858157E+0	1.853382E+0	1.835407E+0	1.833843E+0	1.856427E+0	1.845309E+0	1.860207E+0	1.878284E+0	1.845650E+0	1.796175E+0	1.837442E+0	1.868101E+0	1.883505E+0	1.858860E+0	1.756546E+0	1.896743E+0	1.856571E+0	1.845815E+0	1.853328E+0	1.846022E+0	1.908819E+0	1.803291E+0	1.763993E+0	1.862089E+0	1.725655E+0	1.880494E+0	1.888847E+0	1.857463E+0	1.897859E+0	1.801353E+0	1.808341E+0	1.848920E+0	1.798169E+0	1.857967E+0	1.814408E+0	1.890305E+0	1.768346E+0	1.807946E+0	1.807374E+0	1.861415E+0	1.861012E+0	1.858562E+0	1.760356E+0	1.868790E+0	1.752970E+0	1.847444E+0	1.909692E+0	1.834705E+0	1.862657E+0	1.826142E+0	1.897024E+0	1.889371E+0	1.806248E+0	1.801063E+0	1.776638E+0	1.799165E+0	1.865712E+0	1.804111E+0	1.882726E+0	1.825433E+0	1.924721E+0	1.831768E+0	1.836279E+0	1.884333E+0	1.803205E+0	1.796284E+0	1.814494E+0	1.817461E+0	1.817835E+0	1.809278E+0	1.841156E+0	1.780628E+0	1.785592E+0	1.898891E+0	1.783521E+0	1.866878E+0	1.820804E+0	1.797789E+0	1.795102E+0	1.809173E+0	1.812245E+0	1.843761E+0	1.841783E+0	1.789766E+0	1.828013E+0	1.806769E+0	1.832918E+0	1.785680E+0	1.795811E+0	1.764911E+0	1.777584E+0	1.813715E+0	1.849362E+0	1.800734E+0	1.739164E+0	1.850698E+0	1.820782E+0	1.831649E+0	1.754189E+0	1.832685E+0	1.832193E+0	1.821980E+0	1.776508E+0	1.843959E+0	1.766386E+0	1.830181E+0	1.740150E+0	1.886707E+0	1.791083E+0	1.802228E+0	1.799530E+0	1.849774E+0	1.812477E+0	1.785106E+0	1.815527E+0	1.816814E+0	1.758972E+0	1.853887E+0	1.809620E+0	1.783359E+0	1.816234E+0	1.910983E+0	1.803061E+0	1.764788E+0	1.836602E+0	1.777930E+0	1.844600E+0	1.817967E+0	1.767435E+0	1.826087E+0	1.817463E+0	1.745951E+0	1.693916E+0	1.775734E+0	1.808056E+0	1.837929E+0	1.814738E+0	1.773227E+0	1.803768E+0	1.748073E+0	1.829747E+0	1.888781E+0	1.685385E+0	1.757425E+0	1.793193E+0	1.789191E+0	1.782222E+0	1.743018E+0	1.783353E+0	1.736081E+0	1.813735E+0	1.816477E+0	1.726969E+0	1.786570E+0	1.758773E+0	1.772501E+0	1.692201E+0	1.756295E+0	1.757508E+0	1.792596E+0	1.732734E+0	1.891401E+0	1.761705E+0
5.405240E+2	1.779062E+0	1.707144E+0	1.703887E+0	1.738909E+0	1.756803E+0	1.726354E+0	1.672232E+0	1.776135E+0	1.748173E+0	1.766788E+0	1.753953E+0	1.743083E+0	1.742468E+0	1.728786E+0	1.706946E+0	1.689811E+0	1.753953E+0	1.753232E+0	1.720598E+0	1.707483E+0	1.737673E+0	1.770630E+0	1.797920E+0	1.841426E+0	1.690506E+0	1.723575E+0	1.743702E+0	1.750746E+0	1.748529E+0	1.774835E+0	1.673946E+0	1.675027E+0	1.758538E+0	1.654223E+0	1.743447E+0	1.745082E+0	1.728503E+0	1.749328E+0	1.699940E+0	1.716796E+0	1.785687E+0	1.771687E+0	1.737544E+0	1.684251E+0	1.697151E+0	1.728613E+0	1.730471E+0	1.759034E+0	1.722263E+0	1.751464E+0	1.748103E+0	1.677848E+0	1.776443E+0	1.647128E+0	1.713247E+0	1.722888E+0	1.677480E+0	1.742391E+0	1.726709E+0	1.735435E+0	1.665710E+0	1.727894E+0	1.672034E+0	1.689747E+0	1.737929E+0	1.724978E+0	1.684500E+0	1.749451E+0	1.785150E+0	1.738115E+0	1.711538E+0	1.689009E+0	1.712048E+0	1.711923E+0	1.645840E+0	1.748453E+0	1.720132E+0	1.699837E+0	1.646934E+0	1.761609E+0	1.699508E+0	1.644982E+0	1.718684E+0	1.708483E+0	1.716293E+0	1.730097E+0	1.709384E+0	1.769420E+0	1.703052E+0	1.701213E+0	1.721352E+0	1.746531E+0	1.644064E+0	1.667778E+0	1.758520E+0	1.686036E+0	1.663193E+0	1.788771E+0	1.708609E+0	1.747741E+0	1.714823E+0	1.701887E+0	1.693759E+0	1.747533E+0	1.763630E+0	1.647291E+0	1.702742E+0	1.785295E+0	1.742251E+0	1.728820E+0	1.755618E+0	1.679695E+0	1.714754E+0	1.633447E+0	1.675132E+0	1.624807E+0	1.733968E+0	1.666997E+0	1.749145E+0	1.680105E+0	1.764456E+0	1.697698E+0	1.707533E+0	1.669711E+0	1.780255E+0	1.720761E+0	1.707483E+0	1.712512E+0	1.737744E+0	1.668938E+0	1.645243E+0	1.715370E+0	1.720493E+0	1.669965E+0	1.736968E+0	1.682482E+0	1.751892E+0	1.631301E+0	1.715578E+0	1.767082E+0	1.686369E+0	1.704892E+0	1.711089E+0	1.702786E+0	1.772450E+0	1.678641E+0	1.715213E+0	1.724514E+0	1.723523E+0	1.647856E+0	1.726915E+0	1.647023E+0	1.654203E+0	1.611743E+0	1.657130E+0	1.717804E+0	1.698783E+0	1.688751E+0	1.702896E+0	1.693184E+0	1.684723E+0	1.690053E+0	1.754069E+0	1.608355E+0	1.662134E+0	1.655060E+0	1.732533E+0	1.673392E+0	1.733479E+0	1.710710E+0	1.770758E+0	1.677687E+0
5.407630E+2	1.728907E+0	1.711840E+0	1.714946E+0	1.719278E+0	1.797387E+0	1.757460E+0	1.761055E+0	1.774093E+0	1.777098E+0	1.732959E+0	1.709174E+0	1.687935E+0	1.698049E+0	1.700908E+0	1.715920E+0	1.738222E+0	1.678579E+0	1.716738E+0	1.670513E+0	1.702888E+0	1.718640E+0	1.772158E+0	1.750710E+0	1.726499E+0	1.818588E+0	1.763424E+0	1.731770E+0	1.732860E+0	1.751772E+0	1.718480E+0	1.785886E+0	1.770523E+0	1.770842E+0	1.654517E+0	1.744340E+0	1.723920E+0	1.730366E+0	1.739507E+0	1.676988E+0	1.656364E+0	1.744497E+0	1.613109E+0	1.739553E+0	1.735228E+0	1.737807E+0	1.641981E+0	1.731550E+0	1.674081E+0	1.759518E+0	1.702281E+0	1.792928E+0	1.636392E+0	1.684914E+0	1.672035E+0	1.714852E+0	1.742503E+0	1.783935E+0	1.701161E+0	1.702851E+0	1.793331E+0	1.655185E+0	1.686077E+0	1.646550E+0	1.669711E+0	1.720391E+0	1.681694E+0	1.734575E+0	1.705184E+0	1.744637E+0	1.762233E+0	1.719409E+0	1.667461E+0	1.754370E+0	1.678635E+0	1.697090E+0	1.707370E+0	1.646269E+0	1.724491E+0	1.666129E+0	1.761312E+0	1.692820E+0	1.690451E+0	1.658184E+0	1.681668E+0	1.678580E+0	1.721778E+0	1.725984E+0	1.741155E+0	1.697145E+0	1.666592E+0	1.801304E+0	1.672617E+0	1.704928E+0	1.761022E+0	1.719403E+0	1.705015E+0	1.717707E+0	1.755809E+0	1.736464E+0	1.743903E+0	1.694349E+0	1.714101E+0	1.680081E+0	1.737099E+0	1.733056E+0	1.700440E+0	1.643297E+0	1.700664E+0	1.738581E+0	1.673308E+0	1.701652E+0	1.613461E+0	1.745205E+0	1.712793E+0	1.714332E+0	1.725155E+0	1.739533E+0	1.692212E+0	1.754195E+0	1.698350E+0	1.722137E+0	1.623740E+0	1.679697E+0	1.695836E+0	1.755001E+0	1.708747E+0	1.662918E+0	1.642776E+0	1.713130E+0	1.664019E+0	1.725629E+0	1.676900E+0	1.700549E+0	1.703980E+0	1.666055E+0	1.687486E+0	1.705836E+0	1.623852E+0	1.685079E+0	1.757160E+0	1.759957E+0	1.640671E+0	1.712955E+0	1.665753E+0	1.684356E+0	1.643189E+0	1.707965E+0	1.705135E+0	1.725764E+0	1.674305E+0	1.712590E+0	1.683810E+0	1.667917E+0	1.742261E+0	1.686669E+0	1.639582E+0	1.657938E+0	1.684951E+0	1.715057E+0	1.662659E+0	1.650101E+0	1.717720E+0	1.728211E+0	1.618408E+0	1.690096E+0	1.614808E+0	1.668569E+0	1.710944E+0	1.758722E+0	1.633222E+0	1.697788E+0	1.672019E+0
5.410240E+2	1.689534E+0	1.691843E+0	1.701937E+0	1.686261E+0	1.705441E+0	1.682209E+0	1.626928E+0	1.735315E+0	1.759941E+0	1.741805E+0	1.659570E+0	1.682136E+0	1.721354E+0	1.688113E+0	1.705820E+0	1.704354E+0	1.738073E+0	1.665322E+0	1.601399E+0	1.681810E+0	1.656901E+0	1.631501E+0	1.710529E+0	1.749101E+0	1.723050E+0	1.714699E+0	1.679084E+0	1.641904E+0	1.679873E+0	1.717965E+0	1.662838E+0	1.661892E+0	1.726237E+0	1.669945E+0	1.671014E+0	1.721879E+0	1.640450E+0	1.652747E+0	1.659218E+0	1.695464E+0	1.691512E+0	1.673428E+0	1.706921E+0	1.739778E+0	1.642569E+0	1.726611E+0	1.725520E+0	1.672509E+0	1.727048E+0	1.661170E+0	1.704657E+0	1.631707E+0	1.738302E+0	1.694555E+0	1.753413E+0	1.700872E+0	1.744327E+0	1.652700E+0	1.678329E+0	1.731445E+0	1.750595E+0	1.657880E+0	1.657918E+0	1.666925E+0	1.750998E+0	1.644964E+0	1.668269E+0	1.688734E+0	1.742374E+0	1.718866E+0	1.602956E+0	1.660144E+0	1.607401E+0	1.720840E+0	1.690086E+0	1.750761E+0	1.637134E+0	1.719464E+0	1.639344E+0	1.691575E+0	1.685123E+0	1.648390E+0	1.742783E+0	1.626294E+0	1.646476E+0	1.662719E+0	1.681116E+0	1.679463E+0	1.661743E+0	1.636214E+0	1.738031E+0	1.703401E+0	1.660662E+0	1.671782E+0	1.809176E+0	1.646806E+0	1.703452E+0	1.618711E+0	1.743694E+0	1.641315E+0	1.640486E+0	1.711782E+0	1.690331E+0	1.665826E+0	1.734471E+0	1.688371E+0	1.614214E+0	1.685929E+0	1.713535E+0	1.652082E+0	1.693872E+0	1.615873E+0	1.656802E+0	1.663799E+0	1.722828E+0	1.661790E+0	1.723724E+0	1.634335E+0	1.689090E+0	1.665838E+0	1.704245E+0	1.586457E+0	1.624777E+0	1.603905E+0	1.695482E+0	1.612322E+0	1.642235E+0	1.661173E+0	1.666305E+0	1.653580E+0	1.599616E+0	1.705628E+0	1.704270E+0	1.640036E+0	1.674394E+0	1.698277E+0	1.654287E+0	1.658005E+0	1.635807E+0	1.641615E+0	1.741828E+0	1.568044E+0	1.651904E+0	1.663166E+0	1.669620E+0	1.595039E+0	1.693828E+0	1.652703E+0	1.597546E+0	1.585502E+0	1.664192E+0	1.633327E+0	1.642963E+0	1.692192E+0	1.645559E+0	1.639980E+0	1.735226E+0	1.673373E+0	1.696770E+0	1.651150E+0	1.676557E+0	1.666994E+0	1.624493E+0	1.612243E+0	1.652615E+0	1.674604E+0	1.628075E+0	1.624091E+0	1.677897E+0	1.635966E+0	1.599335E+0	1.628756E+0
5.412530E+2	1.628566E+0	1.632326E+0	1.597279E+0	1.674145E+0	1.674678E+0	1.582259E+0	1.590752E+0	1.639394E+0	1.647677E+0	1.625954E+0	1.593340E+0	1.600921E+0	1.560453E+0	1.601125E+0	1.668864E+0	1.556452E+0	1.607854E+0	1.572146E+0	1.543341E+0	1.660112E+0	1.603047E+0	1.561389E+0	1.604593E+0	1.708499E+0	1.602380E+0	1.607162E+0	1.702907E+0	1.588777E+0	1.691990E+0	1.634469E+0	1.613713E+0	1.592074E+0	1.679662E+0	1.620251E+0	1.599754E+0	1.613469E+0	1.659717E+0	1.630997E+0	1.618967E+0	1.620576E+0	1.613526E+0	1.570803E+0	1.565036E+0	1.584260E+0	1.638344E+0	1.579873E+0	1.652907E+0	1.605101E+0	1.645474E+0	1.571571E+0	1.643182E+0	1.563832E+0	1.644111E+0	1.554648E+0	1.622165E+0	1.527104E+0	1.628422E+0	1.636239E+0	1.605528E+0	1.621982E+0	1.610686E+0	1.606644E+0	1.616224E+0	1.616768E+0	1.668115E+0	1.579917E+0	1.566469E+0	1.639953E+0	1.578192E+0	1.609481E+0	1.563602E+0	1.632730E+0	1.586696E+0	1.607462E+0	1.499465E+0	1.646119E+0	1.602308E+0	1.546248E+0	1.544519E+0	1.605216E+0	1.616539E+0	1.552438E+0	1.622727E+0	1.554061E+0	1.628262E+0	1.540557E+0	1.587141E+0	1.589140E+0	1.583391E+0	1.566375E+0	1.640692E+0	1.621992E+0	1.624331E+0	1.600356E+0	1.676302E+0	1.584081E+0	1.635187E+0	1.539871E+0	1.587788E+0	1.521260E+0	1.604156E+0	1.621805E+0	1.590487E+0	1.551707E+0	1.626263E+0	1.583575E+0	1.581226E+0	1.596911E+0	1.643341E+0	1.608816E+0	1.616943E+0	1.551699E+0	1.610960E+0	1.585759E+0	1.624542E+0	1.562406E+0	1.622103E+0	1.551759E+0	1.584393E+0	1.599511E+0	1.610288E+0	1.586214E+0	1.589249E+0	1.513713E+0	1.669082E+0	1.577537E+0	1.624856E+0	1.581545E+0	1.634056E+0	1.520275E+0	1.559300E+0	1.534733E+0	1.572733E+0	1.636622E+0	1.555504E+0	1.580035E+0	1.606911E+0	1.573504E+0	1.522250E+0	1.597669E+0	1.626068E+0	1.570809E+0	1.587056E+0	1.596854E+0	1.660679E+0	1.550606E+0	1.587420E+0	1.568305E+0	1.615900E+0	1.575797E+0	1.547283E+0	1.597523E+0	1.523858E+0	1.592427E+0	1.549919E+0	1.535007E+0	1.639848E+0	1.574923E+0	1.628781E+0	1.595480E+0	1.558894E+0	1.609782E+0	1.579785E+0	1.534579E+0	1.608099E+0	1.578364E+0	1.635519E+0	1.465243E+0	1.564355E+0	1.592731E+0	1.565812E+0	1.480988E+0
5.415190E+2	1.477940E+0	1.547042E+0	1.484751E+0	1.549306E+0	1.500022E+0	1.538074E+0	1.490883E+0	1.515667E+0	1.420213E+0	1.488916E+0	1.477335E+0	1.505985E+0	1.449431E+0	1.441820E+0	1.460912E+0	1.507301E+0	1.487989E+0	1.477500E+0	1.471985E+0	1.530914E+0	1.474206E+0	1.504077E+0	1.462188E+0	1.552722E+0	1.485257E+0	1.485123E+0	1.538677E+0	1.477634E+0	1.487146E+0	1.503079E+0	1.482000E+0	1.498013E+0	1.501034E+0	1.414881E+0	1.486993E+0	1.458835E+0	1.465462E+0	1.509314E+0	1.489856E+0	1.504248E+0	1.539841E+0	1.467819E+0	1.428878E+0	1.483929E+0	1.504371E+0	1.470212E+0	1.468510E+0	1.492819E+0	1.492461E+0	1.541871E+0	1.446845E+0	1.488470E+0	1.457044E+0	1.486126E+0	1.499737E+0	1.511493E+0	1.504810E+0	1.502186E+0	1.514981E+0	1.524135E+0	1.443529E+0	1.422241E+0	1.436759E+0	1.455078E+0	1.455147E+0	1.452662E+0	1.440652E+0	1.494283E+0	1.517105E+0	1.534524E+0	1.476731E+0	1.433672E+0	1.439425E+0	1.557853E+0	1.427374E+0	1.473789E+0	1.475475E+0	1.426904E+0	1.421456E+0	1.513365E+0	1.513147E+0	1.386708E+0	1.515304E+0	1.482374E+0	1.464447E+0	1.396589E+0	1.493538E+0	1.460807E+0	1.453345E+0	1.476143E+0	1.515352E+0	1.462049E+0	1.495352E+0	1.524424E+0	1.441191E+0	1.434189E+0	1.484067E+0	1.499683E+0	1.444463E+0	1.400312E+0	1.554906E+0	1.521522E+0	1.505844E+0	1.456796E+0	1.495232E+0	1.501042E+0	1.421098E+0	1.464795E+0	1.466645E+0	1.520233E+0	1.558802E+0	1.439783E+0	1.519933E+0	1.469838E+0	1.407867E+0	1.468333E+0	1.513610E+0	1.473093E+0	1.490140E+0	1.498807E+0	1.542366E+0	1.471522E+0	1.494719E+0	1.457442E+0	1.468838E+0	1.519760E+0	1.460634E+0	1.453489E+0	1.556544E+0	1.463073E+0	1.458457E+0	1.492101E+0	1.493307E+0	1.460911E+0	1.480957E+0	1.481984E+0	1.488695E+0	1.454537E+0	1.487566E+0	1.535574E+0	1.496271E+0	1.415272E+0	1.419116E+0	1.448143E+0	1.456738E+0	1.401827E+0	1.527107E+0	1.396420E+0	1.514790E+0	1.455748E+0	1.430199E+0	1.499112E+0	1.432081E+0	1.428326E+0	1.390054E+0	1.501169E+0	1.450084E+0	1.475237E+0	1.504209E+0	1.428606E+0	1.447981E+0	1.450875E+0	1.452104E+0	1.415962E+0	1.503701E+0	1.526359E+0	1.514755E+0	1.467492E+0	1.458173E+0	1.438957E+0	1.440050E+0	1.379112E+0
5.417650E+2	1.301633E+0	1.328303E+0	1.278014E+0	1.339662E+0	1.365668E+0	1.302061E+0	1.345490E+0	1.344415E+0	1.326825E+0	1.370359E+0	1.316593E+0	1.343917E+0	1.320251E+0	1.253506E+0	1.326905E+0	1.296917E+0	1.368441E+0	1.320315E+0	1.306073E+0	1.364822E+0	1.344013E+0	1.320846E+0	1.313176E+0	1.359076E+0	1.336992E+0	1.387907E+0	1.361821E+0	1.368399E+0	1.290822E+0	1.296950E+0	1.373013E+0	1.358223E+0	1.309004E+0	1.305339E+0	1.355264E+0	1.367550E+0	1.327296E+0	1.390417E+0	1.329872E+0	1.321418E+0	1.296314E+0	1.297987E+0	1.376788E+0	1.378204E+0	1.298463E+0	1.306507E+0	1.290684E+0	1.305331E+0	1.355184E+0	1.289339E+0	1.314768E+0	1.298146E+0	1.339709E+0	1.325053E+0	1.340333E+0	1.337051E+0	1.348745E+0	1.295842E+0	1.299256E+0	1.335213E+0	1.365964E+0	1.357126E+0	1.350781E+0	1.266472E+0	1.332300E+0	1.317581E+0	1.293461E+0	1.357726E+0	1.308313E+0	1.385314E+0	1.310432E+0	1.335593E+0	1.288334E+0	1.362272E+0	1.306515E+0	1.305275E+0	1.313985E+0	1.362136E+0	1.301273E+0	1.329615E+0	1.281980E+0	1.293993E+0	1.342480E+0	1.283898E+0	1.299046E+0	1.336144E+0	1.373934E+0	1.333190E+0	1.332341E+0	1.325485E+0	1.348581E+0	1.307306E+0	1.312092E+0	1.294641E+0	1.314590E+0	1.384117E+0	1.374926E+0	1.357866E+0	1.323393E+0	1.343094E+0	1.340495E+0	1.358634E+0	1.334353E+0	1.276883E+0	1.374451E+0	1.262910E+0	1.318166E+0	1.335980E+0	1.294414E+0	1.297655E+0	1.327211E+0	1.272585E+0	1.337480E+0	1.329626E+0	1.337065E+0	1.311001E+0	1.357308E+0	1.313456E+0	1.336305E+0	1.301081E+0	1.368590E+0	1.302494E+0	1.259196E+0	1.331761E+0	1.320528E+0	1.297241E+0	1.304664E+0	1.313389E+0	1.322743E+0	1.293899E+0	1.323945E+0	1.356232E+0	1.339950E+0	1.313455E+0	1.323875E+0	1.363665E+0	1.315080E+0	1.318922E+0	1.290415E+0	1.311962E+0	1.352415E+0	1.275719E+0	1.332404E+0	1.354185E+0	1.375481E+0	1.231696E+0	1.393109E+0	1.297860E+0	1.302858E+0	1.292304E+0	1.338589E+0	1.335687E+0	1.289939E+0	1.271583E+0	1.310362E+0	1.295765E+0	1.285562E+0	1.332381E+0	1.364740E+0	1.289626E+0	1.324039E+0	1.300474E+0	1.355392E+0	1.330388E+0	1.338115E+0	1.368139E+0	1.345120E+0	1.371474E+0	1.320084E+0	1.289507E+0	1.296816E+0	1.346866E+0
5.420320E+2	1.098262E+0	1.147183E+0	1.062452E+0	1.164131E+0	1.079755E+0	1.102408E+0	1.134633E+0	1.115721E+0	1.119528E+0	1.153282E+0	1.083137E+0	1.076741E+0	1.111146E+0	1.091555E+0	1.121122E+0	1.096477E+0	1.108333E+0	1.123756E+0	1.069813E+0	1.145055E+0	1.110291E+0	1.174964E+0	1.161391E+0	1.166623E+0	1.153089E+0	1.129589E+0	1.084069E+0	1.049644E+0	1.087600E+0	1.148987E+0	1.161687E+0	1.103498E+0	1.097828E+0	1.109855E+0	1.075970E+0	1.160038E+0	1.101140E+0	1.123139E+0	1.175814E+0	1.128365E+0	1.107459E+0	1.169747E+0	1.112991E+0	1.113469E+0	1.093758E+0	1.100810E+0	1.142246E+0	1.094703E+0	1.096955E+0	1.094902E+0	1.124463E+0	1.072925E+0	1.098698E+0	1.084250E+0	1.171597E+0	1.088287E+0	1.138434E+0	1.161345E+0	1.101456E+0	1.116922E+0	1.099252E+0	1.103228E+0	1.108083E+0	1.105026E+0	1.142673E+0	1.092149E+0	1.088543E+0	1.099296E+0	1.153665E+0	1.094298E+0	1.130921E+0	1.147923E+0	1.109395E+0	1.079977E+0	1.091832E+0	1.138118E+0	1.127112E+0	1.157224E+0	1.072947E+0	1.079028E+0	1.106110E+0	1.120942E+0	1.154672E+0	1.088312E+0	1.097607E+0	1.158240E+0	1.106955E+0	1.096713E+0	1.095557E+0	1.138088E+0	1.149054E+0	1.154573E+0	1.102747E+0	1.133211E+0	1.090706E+0	1.120741E+0	1.157136E+0	1.161946E+0	1.134437E+0	1.110651E+0	1.063954E+0	1.099956E+0	1.121876E+0	1.143373E+0	1.078828E+0	1.152089E+0	1.105201E+0	1.114536E+0	1.173063E+0	1.144436E+0	1.126765E+0	1.105212E+0	1.146713E+0	1.128572E+0	1.116852E+0	1.129391E+0	1.130686E+0	1.147118E+0	1.134900E+0	1.083389E+0	1.114237E+0	1.059222E+0	1.076605E+0	1.102785E+0	1.078759E+0	1.054323E+0	1.099161E+0	1.100360E+0	1.153774E+0	1.092022E+0	1.106788E+0	1.114164E+0	1.109427E+0	1.089169E+0	1.116803E+0	1.120473E+0	1.176858E+0	1.083169E+0	1.080862E+0	1.123705E+0	1.158296E+0	1.115925E+0	1.131064E+0	1.098678E+0	1.138013E+0	1.071438E+0	1.109070E+0	1.102767E+0	1.113487E+0	1.108513E+0	1.061408E+0	1.077779E+0	1.140459E+0	1.089048E+0	1.082683E+0	1.110789E+0	1.088370E+0	1.070727E+0	1.083662E+0	1.156714E+0	1.166887E+0	1.118820E+0	1.088913E+0	1.094796E+0	1.130124E+0	1.070453E+0	1.114568E+0	1.113125E+0	1.149167E+0	1.156992E+0	1.142584E+0	1.006180E+0
5.422670E+2	1.048242E+0	1.057593E+0	1.022669E+0	9.951803E-1	1.020214E+0	1.004969E+0	1.070001E+0	1.050073E+0	1.029552E+0	1.034587E+0	9.874192E-1	1.064871E+0	9.952332E-1	1.018518E+0	9.887602E-1	1.037637E+0	1.005028E+0	1.013528E+0	1.033777E+0	1.050304E+0	9.844179E-1	1.021738E+0	1.033503E+0	1.069214E+0	1.018269E+0	1.048196E+0	9.810838E-1	1.058854E+0	1.066151E+0	1.051781E+0	1.009242E+0	1.038574E+0	1.031442E+0	9.840201E-1	1.018547E+0	1.009401E+0	9.929130E-1	9.919367E-1	1.020315E+0	1.061499E+0	1.008957E+0	1.018372E+0	1.029399E+0	1.055142E+0	1.022238E+0	1.008457E+0	1.038350E+0	1.010424E+0	1.043406E+0	1.028411E+0	1.021658E+0	9.789486E-1	9.938717E-1	9.951368E-1	1.064897E+0	1.022131E+0	9.902265E-1	1.028731E+0	1.009417E+0	1.034581E+0	1.039581E+0	1.010281E+0	1.052838E+0	1.029094E+0	1.036860E+0	9.687298E-1	9.949463E-1	1.036503E+0	1.016164E+0	1.056545E+0	1.021991E+0	9.928651E-1	1.019503E+0	1.025009E+0	1.035233E+0	1.009940E+0	1.026154E+0	1.044332E+0	9.925300E-1	1.004945E+0	1.005089E+0	9.732642E-1	1.028640E+0	9.927943E-1	1.030067E+0	1.023349E+0	1.024425E+0	1.012637E+0	1.015134E+0	1.008183E+0	1.052425E+0	1.007695E+0	1.015836E+0	1.046479E+0	1.028479E+0	9.893798E-1	1.117984E+0	1.027864E+0	1.037269E+0	1.043436E+0	9.864878E-1	1.033117E+0	1.018483E+0	9.939669E-1	1.020272E+0	1.025156E+0	1.045702E+0	1.036016E+0	1.041489E+0	1.029460E+0	1.035503E+0	1.009286E+0	9.841778E-1	1.025282E+0	1.021654E+0	9.895041E-1	1.004995E+0	9.627300E-1	1.039209E+0	1.057422E+0	1.011396E+0	1.020609E+0	1.021451E+0	9.810281E-1	1.029037E+0	9.985485E-1	9.748043E-1	1.068649E+0	1.014193E+0	1.004783E+0	1.029498E+0	1.033993E+0	1.037145E+0	1.028195E+0	9.970513E-1	1.015205E+0	1.026499E+0	9.932012E-1	9.880947E-1	1.024309E+0	1.014754E+0	1.010767E+0	1.010023E+0	1.056041E+0	1.030948E+0	9.755401E-1	1.024968E+0	9.613425E-1	1.053828E+0	9.727896E-1	9.952569E-1	1.003630E+0	1.056766E+0	1.029974E+0	1.084814E+0	9.857270E-1	1.062567E+0	1.065165E+0	9.764886E-1	9.773373E-1	1.015393E+0	1.050982E+0	1.050736E+0	9.861170E-1	1.073229E+0	9.840565E-1	1.049895E+0	1.013225E+0	1.003639E+0	1.119578E+0	1.127312E+0	1.049193E+0
5.425460E+2	9.578051E-1	9.749091E-1	9.095751E-1	9.191284E-1	9.734449E-1	9.403095E-1	9.238639E-1	9.891485E-1	9.015462E-1	9.536473E-1	9.581912E-1	9.884845E-1	9.417500E-1	9.518293E-1	9.981972E-1	8.779834E-1	9.848997E-1	9.244468E-1	9.789433E-1	9.350969E-1	9.565923E-1	9.882323E-1	9.165328E-1	9.543061E-1	9.709440E-1	1.011646E+0	9.540741E-1	9.966016E-1	9.646284E-1	9.691478E-1	9.474305E-1	9.910060E-1	9.266109E-1	9.706659E-1	9.300006E-1	9.607356E-1	9.280875E-1	9.722232E-1	9.192488E-1	9.681383E-1	9.554576E-1	9.858811E-1	9.869518E-1	9.338212E-1	9.839333E-1	9.607647E-1	1.019172E+0	9.412543E-1	9.551117E-1	9.725679E-1	1.030286E+0	9.370020E-1	9.576127E-1	9.114090E-1	9.659940E-1	9.648718E-1	9.681479E-1	9.345702E-1	9.278028E-1	9.607386E-1	9.481911E-1	9.495784E-1	9.697453E-1	9.258866E-1	9.512914E-1	9.297939E-1	9.104636E-1	8.885369E-1	9.513624E-1	9.696467E-1	9.433259E-1	9.487651E-1	9.596634E-1	9.493229E-1	9.418137E-1	9.468121E-1	9.070884E-1	9.653252E-1	9.693242E-1	9.098696E-1	9.706582E-1	9.174392E-1	9.751446E-1	9.053968E-1	9.337367E-1	9.653963E-1	9.568499E-1	9.712611E-1	9.549060E-1	9.886186E-1	9.766824E-1	9.808335E-1	1.015769E+0	9.732120E-1	9.536362E-1	8.993919E-1	9.937833E-1	9.818928E-1	9.086662E-1	9.648411E-1	9.404187E-1	9.622400E-1	9.984478E-1	9.378016E-1	9.532768E-1	9.648891E-1	9.969845E-1	9.465927E-1	9.573602E-1	9.795526E-1	9.515571E-1	9.716623E-1	9.377385E-1	9.580682E-1	9.456265E-1	9.366790E-1	9.580834E-1	9.327657E-1	9.402384E-1	9.224756E-1	9.684457E-1	9.252982E-1	9.943965E-1	9.636957E-1	9.160476E-1	9.525172E-1	9.802271E-1	9.163294E-1	9.587247E-1	9.431403E-1	9.682682E-1	9.718605E-1	9.391943E-1	9.586405E-1	9.724043E-1	9.876650E-1	8.833411E-1	9.407442E-1	9.926334E-1	9.757610E-1	9.357605E-1	9.420159E-1	9.665448E-1	9.841003E-1	1.003533E+0	8.951267E-1	9.806703E-1	9.003212E-1	9.768848E-1	9.274791E-1	9.283227E-1	9.632280E-1	9.073875E-1	9.682378E-1	9.313319E-1	9.061649E-1	9.928333E-1	9.602403E-1	9.303467E-1	9.336083E-1	9.811783E-1	9.474686E-1	9.800573E-1	9.438645E-1	9.271117E-1	9.904744E-1	9.999996E-1	9.429044E-1	8.968667E-1	9.655428E-1	9.026171E-1	8.794301E-1
5.427550E+2	9.379425E-1	9.507754E-1	9.222742E-1	9.171447E-1	9.429744E-1	9.752434E-1	9.426735E-1	9.127560E-1	9.517395E-1	8.956295E-1	9.427730E-1	8.816048E-1	9.212123E-1	9.601935E-1	9.417054E-1	9.678647E-1	9.212552E-1	9.747471E-1	9.052631E-1	9.591979E-1	9.380526E-1	9.583281E-1	9.603917E-1	9.451814E-1	9.234631E-1	9.363337E-1	8.955428E-1	9.310351E-1	9.475046E-1	9.505597E-1	9.332314E-1	9.078136E-1	9.280739E-1	9.519482E-1	9.810023E-1	9.213787E-1	9.307659E-1	9.370798E-1	9.663938E-1	9.431064E-1	9.578634E-1	9.822547E-1	9.790403E-1	9.350162E-1	9.169273E-1	8.911002E-1	9.455471E-1	9.149753E-1	9.470080E-1	9.546900E-1	9.725009E-1	8.855001E-1	8.850514E-1	9.251646E-1	9.285809E-1	9.583843E-1	9.807499E-1	8.999169E-1	8.952575E-1	9.189095E-1	8.970724E-1	9.292039E-1	9.596120E-1	9.498044E-1	9.221430E-1	9.092717E-1	9.302183E-1	9.992313E-1	9.085617E-1	9.970586E-1	8.912911E-1	9.258674E-1	9.307178E-1	9.666531E-1	9.460095E-1	9.411823E-1	9.163154E-1	9.822007E-1	9.504837E-1	9.131863E-1	8.803779E-1	9.041019E-1	9.614989E-1	9.698956E-1	9.227278E-1	9.807810E-1	9.655398E-1	9.235613E-1	9.501947E-1	9.460748E-1	9.270160E-1	9.837311E-1	9.163744E-1	9.382118E-1	9.233379E-1	9.571141E-1	9.902607E-1	9.497934E-1	9.201335E-1	9.092997E-1	9.046888E-1	9.242520E-1	9.391805E-1	9.295618E-1	9.061694E-1	9.501846E-1	9.289310E-1	9.305139E-1	9.495581E-1	9.493354E-1	9.688361E-1	9.143892E-1	9.538629E-1	9.404927E-1	9.946523E-1	9.327654E-1	8.955044E-1	9.101673E-1	9.797146E-1	9.466122E-1	9.572674E-1	9.663572E-1	9.437491E-1	9.383664E-1	9.518897E-1	9.340557E-1	9.376474E-1	9.123001E-1	9.266069E-1	8.826049E-1	9.509930E-1	9.309198E-1	9.544462E-1	9.599650E-1	9.211782E-1	9.624280E-1	9.432295E-1	9.523300E-1	9.564269E-1	8.986777E-1	9.895289E-1	9.351482E-1	8.955576E-1	9.583215E-1	9.287052E-1	8.657691E-1	9.145523E-1	9.318143E-1	9.857204E-1	9.006218E-1	9.657409E-1	9.224618E-1	9.529543E-1	9.196681E-1	9.500389E-1	9.377870E-1	9.489531E-1	9.422035E-1	9.176746E-1	9.350312E-1	9.653771E-1	9.432807E-1	9.250570E-1	8.882427E-1	9.090397E-1	9.546427E-1	9.509662E-1	9.433383E-1	9.107853E-1	9.065676E-1	9.916500E-1	1.049115E+0
5.430120E+2	1.017973E+0	1.038834E+0	1.054313E+0	1.048107E+0	1.066384E+0	1.042342E+0	1.045020E+0	1.043001E+0	1.028806E+0	1.073606E+0	9.772282E-1	9.962890E-1	1.028980E+0	1.079159E+0	1.050549E+0	1.040844E+0	1.080607E+0	1.078326E+0	1.029390E+0	1.152861E+0	1.075457E+0	1.035480E+0	1.042686E+0	1.086113E+0	1.022850E+0	1.096665E+0	1.023524E+0	1.000314E+0	1.013397E+0	1.044266E+0	1.032836E+0	1.035079E+0	1.047418E+0	1.044198E+0	1.067555E+0	1.117250E+0	1.023436E+0	1.018219E+0	1.057511E+0	1.068611E+0	1.034278E+0	1.009503E+0	1.049866E+0	1.070525E+0	1.039417E+0	1.043965E+0	1.064668E+0	1.093423E+0	1.026778E+0	1.072496E+0	1.047196E+0	9.927842E-1	1.027907E+0	1.016085E+0	1.066068E+0	1.062440E+0	1.053062E+0	1.031288E+0	1.058428E+0	1.026204E+0	1.064938E+0	1.091774E+0	9.979617E-1	1.032986E+0	1.034893E+0	1.044891E+0	1.011199E+0	1.039169E+0	1.006786E+0	1.066867E+0	1.047345E+0	1.038107E+0	1.057650E+0	1.080153E+0	1.053994E+0	1.048354E+0	1.082140E+0	1.119356E+0	9.689474E-1	1.046031E+0	1.048433E+0	1.014249E+0	1.008315E+0	1.028045E+0	1.105430E+0	1.028768E+0	1.042949E+0	1.036277E+0	1.009596E+0	1.060903E+0	1.094764E+0	1.053253E+0	1.023890E+0	1.052914E+0	9.919618E-1	1.016910E+0	1.076591E+0	1.026924E+0	1.044984E+0	9.941938E-1	1.027336E+0	1.030847E+0	1.026135E+0	1.034166E+0	1.023497E+0	1.060175E+0	1.041957E+0	1.079264E+0	1.048425E+0	1.047064E+0	1.055924E+0	1.007524E+0	1.084156E+0	1.031768E+0	1.040270E+0	1.002752E+0	1.035499E+0	9.784558E-1	1.032848E+0	1.047212E+0	1.028856E+0	9.896717E-1	1.008479E+0	1.039163E+0	1.039559E+0	1.036494E+0	1.095238E+0	1.033437E+0	1.068086E+0	1.036508E+0	1.057538E+0	1.025127E+0	1.079615E+0	1.034742E+0	1.042401E+0	1.050598E+0	1.040197E+0	1.006896E+0	1.022966E+0	1.064505E+0	1.075644E+0	1.012143E+0	1.048937E+0	1.035624E+0	1.039314E+0	9.894973E-1	1.050707E+0	1.034282E+0	1.031823E+0	1.011456E+0	1.085796E+0	1.016038E+0	1.023552E+0	1.017880E+0	1.026149E+0	1.119347E+0	1.027452E+0	1.062125E+0	1.080208E+0	1.022597E+0	1.048669E+0	1.027026E+0	1.074019E+0	1.032741E+0	1.066484E+0	1.037086E+0	1.061195E+0	1.071075E+0	1.021755E+0	1.080680E+0	9.647179E-1	1.063328E+0
5.432960E+2	1.241315E+0	1.195813E+0	1.219341E+0	1.293174E+0	1.277629E+0	1.248682E+0	1.236243E+0	1.303793E+0	1.231045E+0	1.281463E+0	1.240111E+0	1.274407E+0	1.236723E+0	1.256376E+0	1.193320E+0	1.257851E+0	1.235502E+0	1.252970E+0	1.189978E+0	1.266726E+0	1.245931E+0	1.239494E+0	1.218604E+0	1.270729E+0	1.300456E+0	1.234546E+0	1.283468E+0	1.206993E+0	1.188739E+0	1.306805E+0	1.244221E+0	1.230129E+0	1.276574E+0	1.231599E+0	1.219786E+0	1.291997E+0	1.243234E+0	1.287749E+0	1.316608E+0	1.247367E+0	1.205149E+0	1.224806E+0	1.242679E+0	1.309595E+0	1.278560E+0	1.259815E+0	1.204074E+0	1.276827E+0	1.245102E+0	1.227950E+0	1.224258E+0	1.208105E+0	1.216478E+0	1.248508E+0	1.285271E+0	1.261097E+0	1.211749E+0	1.233591E+0	1.248605E+0	1.210330E+0	1.250858E+0	1.274992E+0	1.173271E+0	1.245467E+0	1.273690E+0	1.255426E+0	1.247646E+0	1.294626E+0	1.206325E+0	1.271836E+0	1.222493E+0	1.248401E+0	1.197016E+0	1.255620E+0	1.195569E+0	1.244599E+0	1.241853E+0	1.263550E+0	1.164099E+0	1.155943E+0	1.205692E+0	1.211995E+0	1.248457E+0	1.232659E+0	1.218402E+0	1.196585E+0	1.298537E+0	1.248632E+0	1.253008E+0	1.224808E+0	1.273169E+0	1.194732E+0	1.262176E+0	1.207092E+0	1.259678E+0	1.280101E+0	1.274414E+0	1.271955E+0	1.224976E+0	1.255594E+0	1.198682E+0	1.274968E+0	1.311777E+0	1.235497E+0	1.200455E+0	1.269991E+0	1.243281E+0	1.212173E+0	1.238030E+0	1.305132E+0	1.228607E+0	1.226356E+0	1.257965E+0	1.197462E+0	1.257219E+0	1.195963E+0	1.218271E+0	1.238610E+0	1.277013E+0	1.209021E+0	1.234140E+0	1.203464E+0	1.264896E+0	1.218740E+0	1.297102E+0	1.177468E+0	1.248811E+0	1.180109E+0	1.218595E+0	1.201048E+0	1.205512E+0	1.216033E+0	1.279156E+0	1.294731E+0	1.208701E+0	1.215657E+0	1.286202E+0	1.229113E+0	1.241769E+0	1.220910E+0	1.220138E+0	1.214870E+0	1.315111E+0	1.237331E+0	1.266096E+0	1.201054E+0	1.249463E+0	1.216805E+0	1.264036E+0	1.270207E+0	1.168683E+0	1.196919E+0	1.206065E+0	1.234292E+0	1.272943E+0	1.260486E+0	1.216970E+0	1.234084E+0	1.269179E+0	1.234420E+0	1.218187E+0	1.251021E+0	1.263747E+0	1.172812E+0	1.188328E+0	1.211004E+0	1.163506E+0	1.223834E+0	1.184277E+0	1.258229E+0	1.227912E+0	1.292748E+0
5.435270E+2	1.395109E+0	1.381348E+0	1.392792E+0	1.377706E+0	1.439114E+0	1.406372E+0	1.362094E+0	1.385252E+0	1.403989E+0	1.399270E+0	1.416207E+0	1.340745E+0	1.401298E+0	1.363003E+0	1.397722E+0	1.411417E+0	1.395829E+0	1.364423E+0	1.404356E+0	1.407645E+0	1.376062E+0	1.373386E+0	1.420424E+0	1.384162E+0	1.452645E+0	1.382778E+0	1.350026E+0	1.346877E+0	1.345951E+0	1.402041E+0	1.370141E+0	1.435182E+0	1.340157E+0	1.333476E+0	1.397200E+0	1.393689E+0	1.429631E+0	1.417837E+0	1.363511E+0	1.426366E+0	1.304544E+0	1.416661E+0	1.383965E+0	1.365874E+0	1.389591E+0	1.285047E+0	1.393046E+0	1.389020E+0	1.404384E+0	1.360408E+0	1.404934E+0	1.330860E+0	1.339008E+0	1.347046E+0	1.397469E+0	1.414961E+0	1.372509E+0	1.369270E+0	1.446458E+0	1.409351E+0	1.370941E+0	1.350252E+0	1.351727E+0	1.394609E+0	1.352607E+0	1.365449E+0	1.324423E+0	1.373073E+0	1.371605E+0	1.415667E+0	1.409313E+0	1.371893E+0	1.376532E+0	1.362629E+0	1.312875E+0	1.416169E+0	1.318453E+0	1.394052E+0	1.393638E+0	1.381708E+0	1.357343E+0	1.349358E+0	1.344384E+0	1.419386E+0	1.384705E+0	1.380991E+0	1.366270E+0	1.385637E+0	1.303883E+0	1.314611E+0	1.357056E+0	1.384399E+0	1.321306E+0	1.382785E+0	1.399410E+0	1.369007E+0	1.427847E+0	1.368281E+0	1.316790E+0	1.320218E+0	1.346644E+0	1.405990E+0	1.328732E+0	1.349489E+0	1.354133E+0	1.325084E+0	1.336768E+0	1.322874E+0	1.378829E+0	1.392853E+0	1.393754E+0	1.375869E+0	1.355391E+0	1.382874E+0	1.375936E+0	1.368481E+0	1.349504E+0	1.305551E+0	1.394193E+0	1.383268E+0	1.367257E+0	1.353675E+0	1.365140E+0	1.337919E+0	1.342071E+0	1.388682E+0	1.373374E+0	1.344110E+0	1.387885E+0	1.364932E+0	1.378298E+0	1.359670E+0	1.344176E+0	1.362127E+0	1.326159E+0	1.337930E+0	1.355289E+0	1.392346E+0	1.460938E+0	1.323591E+0	1.340647E+0	1.361897E+0	1.385829E+0	1.311307E+0	1.412143E+0	1.319533E+0	1.372914E+0	1.377409E+0	1.372944E+0	1.412516E+0	1.313764E+0	1.318689E+0	1.405614E+0	1.406453E+0	1.346249E+0	1.310531E+0	1.375072E+0	1.354351E+0	1.395935E+0	1.337179E+0	1.329473E+0	1.350185E+0	1.367189E+0	1.349243E+0	1.325167E+0	1.337838E+0	1.416164E+0	1.346374E+0	1.279023E+0	1.370153E+0	1.368118E+0	1.391548E+0
5.437640E+2	1.498421E+0	1.573979E+0	1.555689E+0	1.582677E+0	1.589657E+0	1.531909E+0	1.495538E+0	1.568809E+0	1.534913E+0	1.544227E+0	1.577366E+0	1.615524E+0	1.547926E+0	1.534234E+0	1.536247E+0	1.555168E+0	1.591833E+0	1.538771E+0	1.545903E+0	1.540585E+0	1.528358E+0	1.573189E+0	1.565409E+0	1.561768E+0	1.598141E+0	1.567591E+0	1.571557E+0	1.583655E+0	1.568745E+0	1.513591E+0	1.500562E+0	1.539588E+0	1.626501E+0	1.545759E+0	1.510263E+0	1.550317E+0	1.460868E+0	1.555576E+0	1.559381E+0	1.538968E+0	1.555897E+0	1.566373E+0	1.574285E+0	1.517830E+0	1.526698E+0	1.573381E+0	1.549419E+0	1.540501E+0	1.556927E+0	1.504172E+0	1.568941E+0	1.502456E+0	1.549293E+0	1.496354E+0	1.597724E+0	1.581614E+0	1.584196E+0	1.589061E+0	1.629232E+0	1.520924E+0	1.557682E+0	1.511873E+0	1.489029E+0	1.558170E+0	1.567267E+0	1.473350E+0	1.602185E+0	1.526843E+0	1.464917E+0	1.555589E+0	1.523969E+0	1.518484E+0	1.532263E+0	1.536390E+0	1.536758E+0	1.497423E+0	1.525619E+0	1.523051E+0	1.553193E+0	1.553133E+0	1.490205E+0	1.544063E+0	1.528193E+0	1.507977E+0	1.548272E+0	1.539503E+0	1.565484E+0	1.609786E+0	1.525319E+0	1.522508E+0	1.553349E+0	1.514636E+0	1.500243E+0	1.491345E+0	1.512140E+0	1.512466E+0	1.532988E+0	1.509176E+0	1.544987E+0	1.540508E+0	1.506664E+0	1.569261E+0	1.462154E+0	1.496657E+0	1.528351E+0	1.518858E+0	1.571336E+0	1.599853E+0	1.521888E+0	1.585471E+0	1.604450E+0	1.498089E+0	1.526830E+0	1.539127E+0	1.553210E+0	1.516107E+0	1.506691E+0	1.519806E+0	1.552628E+0	1.571865E+0	1.549612E+0	1.519536E+0	1.516033E+0	1.571590E+0	1.567287E+0	1.584233E+0	1.517347E+0	1.525846E+0	1.511814E+0	1.497978E+0	1.624026E+0	1.574736E+0	1.555504E+0	1.576645E+0	1.510838E+0	1.535852E+0	1.569734E+0	1.483237E+0	1.525992E+0	1.523728E+0	1.585744E+0	1.484716E+0	1.515839E+0	1.520390E+0	1.583926E+0	1.521617E+0	1.529744E+0	1.489877E+0	1.541098E+0	1.501436E+0	1.551597E+0	1.511583E+0	1.446038E+0	1.503574E+0	1.525595E+0	1.597320E+0	1.533037E+0	1.520735E+0	1.513508E+0	1.542935E+0	1.440388E+0	1.505187E+0	1.445413E+0	1.487419E+0	1.505129E+0	1.508084E+0	1.552403E+0	1.470186E+0	1.512844E+0	1.574475E+0	1.516892E+0	1.557156E+0
5.440170E+2	1.558614E+0	1.583961E+0	1.611956E+0	1.598696E+0	1.609883E+0	1.597722E+0	1.529712E+0	1.608378E+0	1.603386E+0	1.631157E+0	1.549742E+0	1.588674E+0	1.570502E+0	1.617798E+0	1.606807E+0	1.560932E+0	1.634357E+0	1.586152E+0	1.575219E+0	1.637344E+0	1.596476E+0	1.520353E+0	1.562645E+0	1.606209E+0	1.575737E+0	1.569795E+0	1.543846E+0	1.569036E+0	1.624726E+0	1.622637E+0	1.526450E+0	1.588930E+0	1.562583E+0	1.565821E+0	1.586744E+0	1.626784E+0	1.543055E+0	1.549517E+0	1.550571E+0	1.550162E+0	1.613278E+0	1.544616E+0	1.584744E+0	1.604093E+0	1.605753E+0	1.524589E+0	1.589772E+0	1.622908E+0	1.621813E+0	1.580971E+0	1.570097E+0	1.521924E+0	1.614397E+0	1.589364E+0	1.622829E+0	1.630107E+0	1.597557E+0	1.641156E+0	1.573924E+0	1.555253E+0	1.586957E+0	1.590767E+0	1.533141E+0	1.629253E+0	1.577124E+0	1.505009E+0	1.533736E+0	1.526982E+0	1.595061E+0	1.616731E+0	1.575046E+0	1.545000E+0	1.522094E+0	1.579053E+0	1.512470E+0	1.702772E+0	1.595427E+0	1.527871E+0	1.515391E+0	1.621373E+0	1.563922E+0	1.592288E+0	1.605524E+0	1.537098E+0	1.612087E+0	1.577053E+0	1.630476E+0	1.542378E+0	1.566198E+0	1.522869E+0	1.560265E+0	1.579777E+0	1.634994E+0	1.528546E+0	1.604362E+0	1.543081E+0	1.577792E+0	1.538150E+0	1.504543E+0	1.584570E+0	1.546379E+0	1.567976E+0	1.536177E+0	1.578009E+0	1.615362E+0	1.650060E+0	1.612630E+0	1.567355E+0	1.581918E+0	1.601331E+0	1.637286E+0	1.493819E+0	1.557280E+0	1.604315E+0	1.631666E+0	1.568314E+0	1.588172E+0	1.528879E+0	1.625421E+0	1.490581E+0	1.598186E+0	1.574850E+0	1.544287E+0	1.568954E+0	1.593299E+0	1.562666E+0	1.527622E+0	1.523169E+0	1.563181E+0	1.534294E+0	1.587994E+0	1.573823E+0	1.614123E+0	1.574876E+0	1.539787E+0	1.568863E+0	1.528798E+0	1.495380E+0	1.612734E+0	1.586810E+0	1.589407E+0	1.580927E+0	1.567202E+0	1.546597E+0	1.658467E+0	1.504542E+0	1.452088E+0	1.544323E+0	1.535235E+0	1.579557E+0	1.516363E+0	1.511878E+0	1.550137E+0	1.555767E+0	1.595991E+0	1.547558E+0	1.586936E+0	1.538834E+0	1.578718E+0	1.600915E+0	1.531076E+0	1.563361E+0	1.614088E+0	1.549218E+0	1.574008E+0	1.573737E+0	1.612176E+0	1.582344E+0	1.511514E+0	1.582601E+0	1.517578E+0	1.575718E+0
5.442700E+2	1.542869E+0	1.569874E+0	1.580859E+0	1.543318E+0	1.573679E+0	1.555600E+0	1.522712E+0	1.572314E+0	1.533947E+0	1.573467E+0	1.524511E+0	1.548722E+0	1.469185E+0	1.540463E+0	1.495703E+0	1.550546E+0	1.545321E+0	1.520021E+0	1.558229E+0	1.610199E+0	1.551349E+0	1.542921E+0	1.552129E+0	1.570278E+0	1.576372E+0	1.481639E+0	1.563851E+0	1.522345E+0	1.588600E+0	1.538512E+0	1.544236E+0	1.574186E+0	1.547247E+0	1.543312E+0	1.506750E+0	1.579448E+0	1.528605E+0	1.542324E+0	1.531563E+0	1.552267E+0	1.445431E+0	1.556788E+0	1.528871E+0	1.592046E+0	1.549565E+0	1.556924E+0	1.577787E+0	1.475787E+0	1.544830E+0	1.554063E+0	1.557755E+0	1.535102E+0	1.581905E+0	1.528041E+0	1.572057E+0	1.580547E+0	1.514637E+0	1.579303E+0	1.529274E+0	1.574625E+0	1.513844E+0	1.478189E+0	1.552875E+0	1.543511E+0	1.565780E+0	1.477294E+0	1.525783E+0	1.530350E+0	1.538031E+0	1.516227E+0	1.511617E+0	1.541802E+0	1.571324E+0	1.504136E+0	1.574918E+0	1.573272E+0	1.484848E+0	1.580149E+0	1.491740E+0	1.463456E+0	1.483324E+0	1.460101E+0	1.531239E+0	1.559817E+0	1.548830E+0	1.517031E+0	1.542269E+0	1.543196E+0	1.545994E+0	1.479717E+0	1.539036E+0	1.543267E+0	1.531630E+0	1.546807E+0	1.530949E+0	1.501721E+0	1.574232E+0	1.522348E+0	1.589338E+0	1.480894E+0	1.533518E+0	1.516138E+0	1.517128E+0	1.568576E+0	1.543646E+0	1.569291E+0	1.541484E+0	1.554751E+0	1.532224E+0	1.538251E+0	1.509768E+0	1.481290E+0	1.521483E+0	1.499547E+0	1.510879E+0	1.474118E+0	1.545710E+0	1.526352E+0	1.532838E+0	1.499335E+0	1.523491E+0	1.491836E+0	1.527269E+0	1.543309E+0	1.552335E+0	1.457600E+0	1.488337E+0	1.515581E+0	1.520350E+0	1.497452E+0	1.525795E+0	1.533052E+0	1.532660E+0	1.518305E+0	1.528303E+0	1.580989E+0	1.495699E+0	1.479968E+0	1.541910E+0	1.526196E+0	1.489769E+0	1.531370E+0	1.521502E+0	1.557295E+0	1.592589E+0	1.515956E+0	1.519297E+0	1.510691E+0	1.502710E+0	1.468234E+0	1.514182E+0	1.425920E+0	1.548750E+0	1.521736E+0	1.507451E+0	1.513354E+0	1.468882E+0	1.531349E+0	1.480251E+0	1.502338E+0	1.467148E+0	1.508172E+0	1.590475E+0	1.483570E+0	1.508532E+0	1.500580E+0	1.448650E+0	1.508287E+0	1.475928E+0	1.534533E+0	1.423341E+0	1.541900E+0
5.445340E+2	1.557953E+0	1.671824E+0	1.601217E+0	1.588745E+0	1.620409E+0	1.587195E+0	1.606369E+0	1.565611E+0	1.562614E+0	1.584418E+0	1.619570E+0	1.572732E+0	1.580595E+0	1.553055E+0	1.590530E+0	1.581308E+0	1.580797E+0	1.541757E+0	1.627814E+0	1.551879E+0	1.558903E+0	1.560438E+0	1.602047E+0	1.634606E+0	1.623708E+0	1.567646E+0	1.584658E+0	1.544027E+0	1.609080E+0	1.585846E+0	1.569554E+0	1.554860E+0	1.569521E+0	1.583840E+0	1.598553E+0	1.614928E+0	1.556485E+0	1.575412E+0	1.544893E+0	1.572918E+0	1.562476E+0	1.565618E+0	1.586618E+0	1.552434E+0	1.609418E+0	1.588756E+0	1.648055E+0	1.543190E+0	1.569811E+0	1.582790E+0	1.652434E+0	1.528144E+0	1.580290E+0	1.580356E+0	1.580621E+0	1.565740E+0	1.591183E+0	1.590724E+0	1.547493E+0	1.579161E+0	1.549286E+0	1.559874E+0	1.531360E+0	1.560918E+0	1.646954E+0	1.541196E+0	1.563315E+0	1.596081E+0	1.573633E+0	1.594423E+0	1.482915E+0	1.584278E+0	1.529058E+0	1.553216E+0	1.573053E+0	1.567227E+0	1.482661E+0	1.578605E+0	1.483132E+0	1.588504E+0	1.539352E+0	1.480668E+0	1.587343E+0	1.560016E+0	1.543919E+0	1.540126E+0	1.546822E+0	1.585972E+0	1.575325E+0	1.520592E+0	1.583868E+0	1.570576E+0	1.591949E+0	1.584550E+0	1.547827E+0	1.635932E+0	1.615143E+0	1.572380E+0	1.567742E+0	1.543759E+0	1.520604E+0	1.568554E+0	1.618558E+0	1.590843E+0	1.583447E+0	1.580196E+0	1.558037E+0	1.598528E+0	1.524356E+0	1.575135E+0	1.558726E+0	1.565619E+0	1.593753E+0	1.534635E+0	1.562882E+0	1.536964E+0	1.539030E+0	1.538583E+0	1.667184E+0	1.563301E+0	1.534261E+0	1.566820E+0	1.576899E+0	1.528982E+0	1.591671E+0	1.565804E+0	1.622444E+0	1.526677E+0	1.608924E+0	1.549073E+0	1.531947E+0	1.535322E+0	1.572975E+0	1.553640E+0	1.558811E+0	1.539186E+0	1.575598E+0	1.516080E+0	1.572783E+0	1.602231E+0	1.589123E+0	1.472952E+0	1.595319E+0	1.508082E+0	1.549363E+0	1.528630E+0	1.567272E+0	1.558039E+0	1.522773E+0	1.501290E+0	1.531592E+0	1.547313E+0	1.517836E+0	1.520488E+0	1.591292E+0	1.545587E+0	1.555191E+0	1.574445E+0	1.509873E+0	1.545600E+0	1.570207E+0	1.577121E+0	1.552823E+0	1.514088E+0	1.547425E+0	1.461085E+0	1.567508E+0	1.559238E+0	1.542832E+0	1.478757E+0	1.489038E+0	1.568661E+0
5.447560E+2	1.569307E+0	1.490728E+0	1.510529E+0	1.611375E+0	1.604464E+0	1.561951E+0	1.568403E+0	1.601313E+0	1.560692E+0	1.568951E+0	1.527543E+0	1.605064E+0	1.492191E+0	1.553034E+0	1.521279E+0	1.553465E+0	1.527903E+0	1.543434E+0	1.531647E+0	1.557842E+0	1.566571E+0	1.580605E+0	1.523275E+0	1.557460E+0	1.599121E+0	1.568783E+0	1.498596E+0	1.552396E+0	1.538008E+0	1.543313E+0	1.550749E+0	1.530670E+0	1.518254E+0	1.512356E+0	1.570884E+0	1.562153E+0	1.549381E+0	1.560505E+0	1.470635E+0	1.560088E+0	1.508480E+0	1.520014E+0	1.501515E+0	1.498827E+0	1.534393E+0	1.518372E+0	1.600290E+0	1.569498E+0	1.569103E+0	1.512235E+0	1.583969E+0	1.541224E+0	1.559964E+0	1.533447E+0	1.493233E+0	1.544195E+0	1.550486E+0	1.566397E+0	1.510285E+0	1.561467E+0	1.576385E+0	1.530057E+0	1.493125E+0	1.504550E+0	1.533812E+0	1.438302E+0	1.461606E+0	1.544151E+0	1.519036E+0	1.515248E+0	1.551299E+0	1.568957E+0	1.558474E+0	1.546535E+0	1.526743E+0	1.552321E+0	1.491685E+0	1.485285E+0	1.545398E+0	1.578478E+0	1.532513E+0	1.501511E+0	1.551621E+0	1.561266E+0	1.526558E+0	1.540568E+0	1.503924E+0	1.536358E+0	1.502380E+0	1.515818E+0	1.566079E+0	1.525080E+0	1.502274E+0	1.547834E+0	1.587630E+0	1.543499E+0	1.497992E+0	1.527789E+0	1.573672E+0	1.516480E+0	1.487578E+0	1.608475E+0	1.603616E+0	1.527234E+0	1.523736E+0	1.501796E+0	1.579270E+0	1.571325E+0	1.545497E+0	1.471115E+0	1.544082E+0	1.511494E+0	1.579856E+0	1.531017E+0	1.523638E+0	1.512685E+0	1.548154E+0	1.426418E+0	1.544807E+0	1.572614E+0	1.532869E+0	1.469545E+0	1.481219E+0	1.474069E+0	1.525830E+0	1.516074E+0	1.538434E+0	1.521716E+0	1.535601E+0	1.508537E+0	1.471007E+0	1.556669E+0	1.514057E+0	1.540594E+0	1.488278E+0	1.540471E+0	1.554357E+0	1.539118E+0	1.600988E+0	1.487880E+0	1.549827E+0	1.494890E+0	1.493548E+0	1.517649E+0	1.562664E+0	1.462232E+0	1.521842E+0	1.523208E+0	1.511609E+0	1.430698E+0	1.554613E+0	1.558996E+0	1.475391E+0	1.535295E+0	1.565442E+0	1.491839E+0	1.451452E+0	1.534083E+0	1.526954E+0	1.469215E+0	1.533658E+0	1.514629E+0	1.502653E+0	1.575860E+0	1.429850E+0	1.575281E+0	1.498294E+0	1.494011E+0	1.535629E+0	1.542470E+0	1.531940E+0	1.503055E+0
5.450150E+2	1.464722E+0	1.434971E+0	1.391790E+0	1.444983E+0	1.394197E+0	1.458226E+0	1.405967E+0	1.448756E+0	1.394748E+0	1.449855E+0	1.473025E+0	1.503815E+0	1.358665E+0	1.395951E+0	1.431973E+0	1.443851E+0	1.458619E+0	1.402645E+0	1.406307E+0	1.459863E+0	1.428174E+0	1.439163E+0	1.434423E+0	1.461455E+0	1.422227E+0	1.418937E+0	1.435346E+0	1.447753E+0	1.440562E+0	1.394971E+0	1.372247E+0	1.411246E+0	1.425751E+0	1.434488E+0	1.396060E+0	1.471184E+0	1.379580E+0	1.403707E+0	1.465718E+0	1.388528E+0	1.446037E+0	1.441295E+0	1.422381E+0	1.380511E+0	1.476143E+0	1.422958E+0	1.404774E+0	1.435283E+0	1.423393E+0	1.413106E+0	1.410447E+0	1.374918E+0	1.429687E+0	1.395011E+0	1.440797E+0	1.389812E+0	1.431761E+0	1.401438E+0	1.416181E+0	1.402778E+0	1.434214E+0	1.381887E+0	1.370230E+0	1.427658E+0	1.448623E+0	1.375274E+0	1.441161E+0	1.433556E+0	1.347222E+0	1.424907E+0	1.369532E+0	1.449711E+0	1.426990E+0	1.433658E+0	1.397798E+0	1.500565E+0	1.415273E+0	1.449299E+0	1.339353E+0	1.423166E+0	1.423586E+0	1.404022E+0	1.493542E+0	1.422995E+0	1.410713E+0	1.402460E+0	1.418652E+0	1.426599E+0	1.463525E+0	1.418190E+0	1.391414E+0	1.488107E+0	1.369038E+0	1.425569E+0	1.417220E+0	1.379978E+0	1.412854E+0	1.465872E+0	1.426793E+0	1.421351E+0	1.410670E+0	1.410004E+0	1.432478E+0	1.390150E+0	1.376966E+0	1.428264E+0	1.473299E+0	1.401983E+0	1.449360E+0	1.439537E+0	1.429771E+0	1.403745E+0	1.435172E+0	1.407878E+0	1.397929E+0	1.457929E+0	1.421590E+0	1.330338E+0	1.437208E+0	1.445085E+0	1.404912E+0	1.388071E+0	1.392103E+0	1.411044E+0	1.433383E+0	1.380546E+0	1.431774E+0	1.409784E+0	1.417580E+0	1.398691E+0	1.442260E+0	1.458943E+0	1.470231E+0	1.387032E+0	1.416289E+0	1.404244E+0	1.406027E+0	1.413086E+0	1.433720E+0	1.386728E+0	1.439081E+0	1.394729E+0	1.399417E+0	1.400560E+0	1.448387E+0	1.365234E+0	1.419341E+0	1.425501E+0	1.400361E+0	1.384601E+0	1.406551E+0	1.345507E+0	1.340652E+0	1.363917E+0	1.409518E+0	1.426423E+0	1.336847E+0	1.385267E+0	1.440852E+0	1.448020E+0	1.329043E+0	1.454813E+0	1.413026E+0	1.404333E+0	1.395282E+0	1.368055E+0	1.387539E+0	1.450134E+0	1.311772E+0	1.415769E+0	1.465378E+0	1.335966E+0
5.452580E+2	1.293298E+0	1.341165E+0	1.391715E+0	1.379836E+0	1.344389E+0	1.358368E+0	1.307628E+0	1.416951E+0	1.419558E+0	1.295951E+0	1.346771E+0	1.318879E+0	1.353702E+0	1.376158E+0	1.345306E+0	1.331335E+0	1.368874E+0	1.368558E+0	1.303874E+0	1.420622E+0	1.372550E+0	1.376425E+0	1.331400E+0	1.383225E+0	1.344470E+0	1.376681E+0	1.356399E+0	1.335681E+0	1.361913E+0	1.326112E+0	1.360510E+0	1.360840E+0	1.363587E+0	1.310584E+0	1.400195E+0	1.339537E+0	1.277597E+0	1.381261E+0	1.335735E+0	1.359163E+0	1.337958E+0	1.365650E+0	1.363049E+0	1.307211E+0	1.336224E+0	1.349039E+0	1.371988E+0	1.342548E+0	1.346878E+0	1.352183E+0	1.340291E+0	1.337356E+0	1.279393E+0	1.323419E+0	1.342340E+0	1.405460E+0	1.359832E+0	1.353407E+0	1.282615E+0	1.349827E+0	1.362951E+0	1.359213E+0	1.335155E+0	1.365632E+0	1.391578E+0	1.391264E+0	1.328330E+0	1.328334E+0	1.336587E+0	1.374688E+0	1.339628E+0	1.287413E+0	1.356941E+0	1.382834E+0	1.325697E+0	1.283113E+0	1.344324E+0	1.347338E+0	1.346154E+0	1.354026E+0	1.331414E+0	1.402469E+0	1.343097E+0	1.331060E+0	1.328436E+0	1.338523E+0	1.361808E+0	1.323845E+0	1.301548E+0	1.404483E+0	1.369292E+0	1.353529E+0	1.340962E+0	1.295235E+0	1.425800E+0	1.314797E+0	1.337024E+0	1.361882E+0	1.321243E+0	1.342526E+0	1.283365E+0	1.372457E+0	1.317604E+0	1.387485E+0	1.340080E+0	1.323783E+0	1.363538E+0	1.346724E+0	1.349591E+0	1.362570E+0	1.389121E+0	1.311097E+0	1.359094E+0	1.300402E+0	1.409096E+0	1.318872E+0	1.334860E+0	1.331367E+0	1.349477E+0	1.411989E+0	1.379920E+0	1.331266E+0	1.343110E+0	1.310554E+0	1.367965E+0	1.323371E+0	1.348604E+0	1.305815E+0	1.335654E+0	1.327576E+0	1.327749E+0	1.315550E+0	1.264154E+0	1.334469E+0	1.350952E+0	1.318540E+0	1.348024E+0	1.330504E+0	1.359739E+0	1.353570E+0	1.376220E+0	1.312884E+0	1.312464E+0	1.344044E+0	1.379364E+0	1.290961E+0	1.395927E+0	1.279939E+0	1.375710E+0	1.330556E+0	1.284412E+0	1.349906E+0	1.352781E+0	1.337804E+0	1.386709E+0	1.314730E+0	1.289679E+0	1.321896E+0	1.346738E+0	1.307078E+0	1.320401E+0	1.383132E+0	1.337630E+0	1.307884E+0	1.330165E+0	1.308952E+0	1.358560E+0	1.347666E+0	1.295887E+0	1.307964E+0	1.355611E+0	1.360323E+0
5.455290E+2	1.286658E+0	1.325507E+0	1.301333E+0	1.305080E+0	1.333759E+0	1.298516E+0	1.288473E+0	1.283164E+0	1.279156E+0	1.345771E+0	1.297712E+0	1.346425E+0	1.274382E+0	1.248999E+0	1.289383E+0	1.340083E+0	1.286068E+0	1.257211E+0	1.265306E+0	1.297843E+0	1.294117E+0	1.306207E+0	1.336127E+0	1.357337E+0	1.354679E+0	1.221251E+0	1.294578E+0	1.228826E+0	1.306800E+0	1.287741E+0	1.245041E+0	1.270511E+0	1.318867E+0	1.300380E+0	1.309370E+0	1.311830E+0	1.333132E+0	1.276701E+0	1.202115E+0	1.270356E+0	1.324426E+0	1.311630E+0	1.283399E+0	1.339943E+0	1.341158E+0	1.316115E+0	1.316546E+0	1.273967E+0	1.272774E+0	1.338188E+0	1.302635E+0	1.256092E+0	1.334040E+0	1.334171E+0	1.306678E+0	1.293422E+0	1.336886E+0	1.296774E+0	1.321060E+0	1.285067E+0	1.342638E+0	1.274928E+0	1.281590E+0	1.242107E+0	1.303867E+0	1.319979E+0	1.342279E+0	1.289510E+0	1.282845E+0	1.325320E+0	1.284074E+0	1.270464E+0	1.264193E+0	1.233914E+0	1.293668E+0	1.318677E+0	1.293952E+0	1.307806E+0	1.243296E+0	1.354975E+0	1.308838E+0	1.289643E+0	1.294099E+0	1.280772E+0	1.236723E+0	1.312678E+0	1.311971E+0	1.271916E+0	1.249279E+0	1.286949E+0	1.283648E+0	1.347778E+0	1.320394E+0	1.279784E+0	1.315478E+0	1.245268E+0	1.297370E+0	1.319102E+0	1.278367E+0	1.285221E+0	1.295322E+0	1.274293E+0	1.296473E+0	1.277924E+0	1.312939E+0	1.288284E+0	1.279069E+0	1.344005E+0	1.313929E+0	1.301275E+0	1.344295E+0	1.323855E+0	1.302555E+0	1.251201E+0	1.348550E+0	1.294307E+0	1.313482E+0	1.268585E+0	1.335542E+0	1.253264E+0	1.299971E+0	1.319326E+0	1.307906E+0	1.319394E+0	1.240999E+0	1.294197E+0	1.339130E+0	1.271785E+0	1.238215E+0	1.297082E+0	1.282771E+0	1.341468E+0	1.314212E+0	1.322726E+0	1.333640E+0	1.259207E+0	1.301163E+0	1.294555E+0	1.309772E+0	1.329231E+0	1.304197E+0	1.289148E+0	1.331055E+0	1.306316E+0	1.322301E+0	1.273734E+0	1.285772E+0	1.296729E+0	1.291461E+0	1.234521E+0	1.286935E+0	1.235989E+0	1.261936E+0	1.223880E+0	1.321157E+0	1.318162E+0	1.265462E+0	1.318773E+0	1.346014E+0	1.282180E+0	1.281660E+0	1.309306E+0	1.303630E+0	1.264174E+0	1.259480E+0	1.255978E+0	1.339278E+0	1.261559E+0	1.231850E+0	1.329385E+0	1.240270E+0	1.405610E+0
5.457720E+2	1.172041E+0	1.227765E+0	1.220975E+0	1.226136E+0	1.170250E+0	1.213705E+0	1.196432E+0	1.245275E+0	1.222215E+0	1.216018E+0	1.207664E+0	1.219501E+0	1.225160E+0	1.171366E+0	1.205880E+0	1.242508E+0	1.241709E+0	1.242412E+0	1.214736E+0	1.197275E+0	1.196733E+0	1.198252E+0	1.172342E+0	1.245796E+0	1.159134E+0	1.185138E+0	1.161940E+0	1.164682E+0	1.193320E+0	1.214087E+0	1.147746E+0	1.196895E+0	1.188059E+0	1.170294E+0	1.204603E+0	1.210743E+0	1.211915E+0	1.214182E+0	1.188773E+0	1.209098E+0	1.205217E+0	1.212306E+0	1.218488E+0	1.169846E+0	1.262988E+0	1.226594E+0	1.215439E+0	1.203465E+0	1.175417E+0	1.211514E+0	1.184201E+0	1.197421E+0	1.209212E+0	1.183319E+0	1.130639E+0	1.222766E+0	1.199824E+0	1.180065E+0	1.166390E+0	1.190098E+0	1.166284E+0	1.261187E+0	1.172169E+0	1.220715E+0	1.169897E+0	1.179584E+0	1.166897E+0	1.214073E+0	1.174485E+0	1.186536E+0	1.196279E+0	1.181644E+0	1.235308E+0	1.184605E+0	1.162513E+0	1.156746E+0	1.186998E+0	1.217583E+0	1.178016E+0	1.167833E+0	1.226861E+0	1.164220E+0	1.149281E+0	1.195150E+0	1.236578E+0	1.175172E+0	1.159099E+0	1.165600E+0	1.130843E+0	1.204001E+0	1.198950E+0	1.243898E+0	1.240951E+0	1.242656E+0	1.199532E+0	1.187061E+0	1.171114E+0	1.207415E+0	1.184038E+0	1.197138E+0	1.210347E+0	1.146532E+0	1.150499E+0	1.194536E+0	1.162629E+0	1.211850E+0	1.176483E+0	1.165640E+0	1.122882E+0	1.235059E+0	1.224042E+0	1.144693E+0	1.221659E+0	1.105633E+0	1.250388E+0	1.186493E+0	1.193973E+0	1.135867E+0	1.197957E+0	1.173712E+0	1.195308E+0	1.129437E+0	1.224191E+0	1.236370E+0	1.228414E+0	1.203673E+0	1.164102E+0	1.184045E+0	1.213525E+0	1.154411E+0	1.213463E+0	1.172894E+0	1.183047E+0	1.164281E+0	1.170582E+0	1.159968E+0	1.178892E+0	1.186961E+0	1.160405E+0	1.234899E+0	1.196783E+0	1.164875E+0	1.228263E+0	1.201000E+0	1.190727E+0	1.167442E+0	1.180888E+0	1.176825E+0	1.197264E+0	1.151395E+0	1.151345E+0	1.182956E+0	1.097348E+0	1.122296E+0	1.210297E+0	1.176161E+0	1.207393E+0	1.169880E+0	1.155188E+0	1.190436E+0	1.186264E+0	1.221342E+0	1.163069E+0	1.182440E+0	1.202531E+0	1.191662E+0	1.244448E+0	1.224933E+0	1.190411E+0	1.203200E+0	1.161977E+0	1.228945E+0
5.460000E+2	1.192108E+0	1.194889E+0	1.191159E+0	1.201769E+0	1.229288E+0	1.174476E+0	1.174763E+0	1.202383E+0	1.205057E+0	1.225502E+0	1.209778E+0	1.222571E+0	1.182889E+0	1.181876E+0	1.206917E+0	1.217497E+0	1.177040E+0	1.179947E+0	1.232355E+0	1.216827E+0	1.225395E+0	1.190894E+0	1.215786E+0	1.209583E+0	1.248730E+0	1.237082E+0	1.175457E+0	1.186948E+0	1.216224E+0	1.203823E+0	1.194934E+0	1.148139E+0	1.215650E+0	1.179014E+0	1.150775E+0	1.228112E+0	1.194045E+0	1.191299E+0	1.166281E+0	1.176963E+0	1.229413E+0	1.195614E+0	1.207720E+0	1.191550E+0	1.212418E+0	1.222734E+0	1.203312E+0	1.185384E+0	1.217194E+0	1.176975E+0	1.195989E+0	1.144694E+0	1.169163E+0	1.171922E+0	1.209080E+0	1.230269E+0	1.213228E+0	1.227537E+0	1.164239E+0	1.204488E+0	1.166961E+0	1.178010E+0	1.155556E+0	1.218268E+0	1.194773E+0	1.213449E+0	1.238884E+0	1.191903E+0	1.157249E+0	1.196729E+0	1.232026E+0	1.176912E+0	1.206196E+0	1.221169E+0	1.169255E+0	1.166722E+0	1.178925E+0	1.137837E+0	1.170695E+0	1.223506E+0	1.139681E+0	1.183458E+0	1.205427E+0	1.156105E+0	1.146695E+0	1.194813E+0	1.183949E+0	1.165629E+0	1.182415E+0	1.232935E+0	1.182611E+0	1.175689E+0	1.205417E+0	1.197101E+0	1.192102E+0	1.173134E+0	1.271968E+0	1.180418E+0	1.188360E+0	1.226975E+0	1.143124E+0	1.201758E+0	1.226711E+0	1.233325E+0	1.169107E+0	1.148323E+0	1.241046E+0	1.210967E+0	1.170838E+0	1.158350E+0	1.216244E+0	1.182946E+0	1.204146E+0	1.177095E+0	1.157801E+0	1.163102E+0	1.169361E+0	1.137633E+0	1.196848E+0	1.232535E+0	1.172102E+0	1.146900E+0	1.211521E+0	1.176727E+0	1.270513E+0	1.180019E+0	1.181641E+0	1.169398E+0	1.183583E+0	1.198683E+0	1.217349E+0	1.198193E+0	1.193015E+0	1.247041E+0	1.180781E+0	1.205965E+0	1.195348E+0	1.169251E+0	1.183485E+0	1.166931E+0	1.189223E+0	1.159528E+0	1.173534E+0	1.233173E+0	1.222929E+0	1.234150E+0	1.125532E+0	1.232912E+0	1.124777E+0	1.211793E+0	1.177148E+0	1.155988E+0	1.190159E+0	1.241637E+0	1.239368E+0	1.222919E+0	1.212303E+0	1.192755E+0	1.152882E+0	1.185038E+0	1.190127E+0	1.158789E+0	1.156889E+0	1.159078E+0	1.191264E+0	1.190308E+0	1.195087E+0	1.217243E+0	1.184941E+0	1.216192E+0	1.220890E+0	1.185969E+0
5.467600E+2	1.194814E+0	1.209393E+0	1.184459E+0	1.231446E+0	1.214873E+0	1.218003E+0	1.216381E+0	1.214386E+0	1.197313E+0	1.243637E+0	1.246301E+0	1.185212E+0	1.211018E+0	1.202634E+0	1.185833E+0	1.171372E+0	1.217958E+0	1.207548E+0	1.151369E+0	1.218425E+0	1.198414E+0	1.198457E+0	1.188977E+0	1.260688E+0	1.211116E+0	1.168942E+0	1.205313E+0	1.151232E+0	1.158410E+0	1.202868E+0	1.279082E+0	1.262710E+0	1.212754E+0	1.179461E+0	1.230701E+0	1.200944E+0	1.209542E+0	1.268687E+0	1.218639E+0	1.271819E+0	1.235782E+0	1.197298E+0	1.233062E+0	1.254677E+0	1.228382E+0	1.222432E+0	1.186169E+0	1.247174E+0	1.207155E+0	1.209113E+0	1.197696E+0	1.161013E+0	1.216415E+0	1.162542E+0	1.221061E+0	1.276351E+0	1.253992E+0	1.219323E+0	1.226075E+0	1.189739E+0	1.197704E+0	1.177281E+0	1.190730E+0	1.189614E+0	1.221618E+0	1.172649E+0	1.176565E+0	1.226209E+0	1.227698E+0	1.264273E+0	1.185565E+0	1.177310E+0	1.214154E+0	1.212079E+0	1.180312E+0	1.228640E+0	1.195851E+0	1.226855E+0	1.165342E+0	1.233466E+0	1.217661E+0	1.172783E+0	1.205478E+0	1.234685E+0	1.186425E+0	1.224378E+0	1.213844E+0	1.277638E+0	1.209216E+0	1.212711E+0	1.200770E+0	1.191362E+0	1.203313E+0	1.190317E+0	1.252671E+0	1.190320E+0	1.197964E+0	1.199536E+0	1.252793E+0	1.181803E+0	1.196907E+0	1.236991E+0	1.203494E+0	1.218061E+0	1.202321E+0	1.205340E+0	1.212752E+0	1.230274E+0	1.214495E+0	1.218664E+0	1.207785E+0	1.188648E+0	1.182347E+0	1.169505E+0	1.190991E+0	1.178865E+0	1.259844E+0	1.194546E+0	1.203245E+0	1.254117E+0	1.248260E+0	1.174197E+0	1.188841E+0	1.185930E+0	1.202573E+0	1.159360E+0	1.206552E+0	1.175057E+0	1.167349E+0	1.232905E+0	1.183118E+0	1.212243E+0	1.245686E+0	1.218021E+0	1.186464E+0	1.189320E+0	1.241329E+0	1.183851E+0	1.188681E+0	1.186395E+0	1.252169E+0	1.185459E+0	1.266038E+0	1.190125E+0	1.233803E+0	1.201157E+0	1.124415E+0	1.253818E+0	1.196272E+0	1.181202E+0	1.238887E+0	1.197973E+0	1.133061E+0	1.199186E+0	1.209749E+0	1.188167E+0	1.285517E+0	1.188837E+0	1.209427E+0	1.179071E+0	1.216617E+0	1.186193E+0	1.163796E+0	1.168290E+0	1.183659E+0	1.218369E+0	1.207974E+0	1.258275E+0	1.165016E+0	1.249947E+0	1.226503E+0	1.135753E+0
5.475180E+2	1.282256E+0	1.278387E+0	1.323569E+0	1.288420E+0	1.325056E+0	1.259481E+0	1.321577E+0	1.286545E+0	1.294472E+0	1.266613E+0	1.327155E+0	1.326758E+0	1.284890E+0	1.254077E+0	1.277776E+0	1.294502E+0	1.290608E+0	1.261057E+0	1.284180E+0	1.276701E+0	1.317196E+0	1.271331E+0	1.321094E+0	1.343536E+0	1.325473E+0	1.264851E+0	1.240384E+0	1.280067E+0	1.306912E+0	1.256925E+0	1.241917E+0	1.321072E+0	1.263327E+0	1.218214E+0	1.239111E+0	1.306920E+0	1.294437E+0	1.319873E+0	1.290653E+0	1.320191E+0	1.293834E+0	1.274446E+0	1.300047E+0	1.276404E+0	1.252608E+0	1.305806E+0	1.280630E+0	1.226213E+0	1.330889E+0	1.279733E+0	1.280944E+0	1.283791E+0	1.271206E+0	1.196178E+0	1.264223E+0	1.250379E+0	1.362667E+0	1.235469E+0	1.313497E+0	1.273039E+0	1.291235E+0	1.280928E+0	1.277367E+0	1.279363E+0	1.300872E+0	1.258865E+0	1.266886E+0	1.264539E+0	1.266106E+0	1.282836E+0	1.282750E+0	1.235650E+0	1.253416E+0	1.256482E+0	1.286456E+0	1.333738E+0	1.254420E+0	1.252858E+0	1.241551E+0	1.256022E+0	1.277389E+0	1.246100E+0	1.300659E+0	1.304814E+0	1.277699E+0	1.235311E+0	1.301815E+0	1.256134E+0	1.277402E+0	1.247810E+0	1.303287E+0	1.308067E+0	1.298791E+0	1.242834E+0	1.258790E+0	1.276016E+0	1.277653E+0	1.298919E+0	1.255370E+0	1.252719E+0	1.237949E+0	1.272310E+0	1.315319E+0	1.308610E+0	1.251936E+0	1.336599E+0	1.271482E+0	1.293787E+0	1.290535E+0	1.284155E+0	1.280235E+0	1.216314E+0	1.290075E+0	1.257332E+0	1.234684E+0	1.260444E+0	1.261019E+0	1.257694E+0	1.311287E+0	1.279511E+0	1.264144E+0	1.265744E+0	1.231998E+0	1.296601E+0	1.301408E+0	1.288927E+0	1.245730E+0	1.279547E+0	1.256646E+0	1.221954E+0	1.302363E+0	1.303721E+0	1.257377E+0	1.343891E+0	1.328827E+0	1.221252E+0	1.289720E+0	1.269720E+0	1.276653E+0	1.290650E+0	1.325928E+0	1.204539E+0	1.270364E+0	1.278239E+0	1.292584E+0	1.204009E+0	1.257844E+0	1.269595E+0	1.354623E+0	1.269058E+0	1.190669E+0	1.277043E+0	1.241345E+0	1.247731E+0	1.229111E+0	1.252670E+0	1.281710E+0	1.280125E+0	1.263121E+0	1.277456E+0	1.302078E+0	1.267222E+0	1.241509E+0	1.287526E+0	1.259245E+0	1.201275E+0	1.208866E+0	1.295053E+0	1.170342E+0	1.253188E+0	1.192240E+0	1.282835E+0
5.482550E+2	1.333849E+0	1.375058E+0	1.375226E+0	1.343219E+0	1.365489E+0	1.377346E+0	1.358069E+0	1.385184E+0	1.379338E+0	1.356421E+0	1.355866E+0	1.396766E+0	1.364675E+0	1.337374E+0	1.324706E+0	1.344970E+0	1.351170E+0	1.309709E+0	1.366166E+0	1.329063E+0	1.311368E+0	1.348900E+0	1.335128E+0	1.418929E+0	1.333832E+0	1.298247E+0	1.337493E+0	1.382785E+0	1.314422E+0	1.366025E+0	1.338825E+0	1.327072E+0	1.336677E+0	1.324196E+0	1.412134E+0	1.364051E+0	1.323160E+0	1.337313E+0	1.298435E+0	1.360282E+0	1.339391E+0	1.347693E+0	1.355338E+0	1.310054E+0	1.433710E+0	1.363736E+0	1.347459E+0	1.368230E+0	1.307935E+0	1.352082E+0	1.287939E+0	1.327087E+0	1.310986E+0	1.321689E+0	1.356362E+0	1.378697E+0	1.363835E+0	1.386130E+0	1.324672E+0	1.380391E+0	1.396967E+0	1.337189E+0	1.336314E+0	1.364762E+0	1.378078E+0	1.303563E+0	1.332990E+0	1.348057E+0	1.317835E+0	1.360951E+0	1.316374E+0	1.364823E+0	1.384964E+0	1.347701E+0	1.346680E+0	1.362426E+0	1.294942E+0	1.301428E+0	1.359905E+0	1.368964E+0	1.361242E+0	1.299633E+0	1.360427E+0	1.405612E+0	1.290444E+0	1.333932E+0	1.334316E+0	1.287979E+0	1.342372E+0	1.341090E+0	1.368220E+0	1.373630E+0	1.299311E+0	1.375639E+0	1.359544E+0	1.342816E+0	1.314030E+0	1.358316E+0	1.327678E+0	1.361306E+0	1.286020E+0	1.379379E+0	1.339059E+0	1.373136E+0	1.312933E+0	1.361195E+0	1.317646E+0	1.311682E+0	1.324180E+0	1.365396E+0	1.338165E+0	1.360099E+0	1.327827E+0	1.320094E+0	1.308088E+0	1.340012E+0	1.362631E+0	1.331340E+0	1.338812E+0	1.355279E+0	1.355571E+0	1.331738E+0	1.376458E+0	1.378226E+0	1.339726E+0	1.332534E+0	1.317927E+0	1.295825E+0	1.319449E+0	1.343641E+0	1.334809E+0	1.284403E+0	1.311003E+0	1.350681E+0	1.306480E+0	1.305973E+0	1.313626E+0	1.299000E+0	1.335975E+0	1.384175E+0	1.346764E+0	1.339198E+0	1.347042E+0	1.315132E+0	1.443696E+0	1.305486E+0	1.277040E+0	1.286398E+0	1.368297E+0	1.355633E+0	1.345255E+0	1.316813E+0	1.311299E+0	1.317654E+0	1.323357E+0	1.338890E+0	1.295811E+0	1.335432E+0	1.322788E+0	1.340380E+0	1.354363E+0	1.356236E+0	1.289587E+0	1.315302E+0	1.305521E+0	1.385743E+0	1.367583E+0	1.307967E+0	1.340503E+0	1.235513E+0	1.299565E+0	1.486468E+0
5.490160E+2	1.366862E+0	1.330138E+0	1.336277E+0	1.381026E+0	1.337400E+0	1.325244E+0	1.349135E+0	1.424284E+0	1.388070E+0	1.367586E+0	1.362084E+0	1.367191E+0	1.402559E+0	1.420285E+0	1.333869E+0	1.329302E+0	1.363379E+0	1.378401E+0	1.331536E+0	1.398843E+0	1.341070E+0	1.360753E+0	1.357837E+0	1.390538E+0	1.389632E+0	1.349994E+0	1.393333E+0	1.397585E+0	1.343767E+0	1.330295E+0	1.299814E+0	1.382445E+0	1.383584E+0	1.366082E+0	1.322925E+0	1.341772E+0	1.373813E+0	1.419317E+0	1.290451E+0	1.367855E+0	1.313904E+0	1.358190E+0	1.330351E+0	1.365289E+0	1.327799E+0	1.320991E+0	1.400833E+0	1.265938E+0	1.346796E+0	1.390956E+0	1.387505E+0	1.337155E+0	1.368508E+0	1.353690E+0	1.347991E+0	1.354669E+0	1.417248E+0	1.352440E+0	1.326584E+0	1.403079E+0	1.360149E+0	1.378815E+0	1.313128E+0	1.368211E+0	1.363775E+0	1.303317E+0	1.279619E+0	1.381274E+0	1.341442E+0	1.349592E+0	1.319346E+0	1.380440E+0	1.327302E+0	1.362524E+0	1.332945E+0	1.394330E+0	1.379051E+0	1.351651E+0	1.366717E+0	1.380011E+0	1.368465E+0	1.290932E+0	1.373093E+0	1.265505E+0	1.306671E+0	1.292462E+0	1.336337E+0	1.379940E+0	1.367048E+0	1.326622E+0	1.410077E+0	1.393513E+0	1.342688E+0	1.326092E+0	1.360558E+0	1.394514E+0	1.384506E+0	1.351839E+0	1.322529E+0	1.338385E+0	1.298871E+0	1.341443E+0	1.434194E+0	1.395708E+0	1.351623E+0	1.357186E+0	1.329790E+0	1.339896E+0	1.310162E+0	1.372500E+0	1.355031E+0	1.328271E+0	1.384057E+0	1.328370E+0	1.300712E+0	1.333187E+0	1.334551E+0	1.293595E+0	1.316734E+0	1.414658E+0	1.359557E+0	1.326041E+0	1.320874E+0	1.326148E+0	1.317416E+0	1.357109E+0	1.325594E+0	1.364475E+0	1.369906E+0	1.349522E+0	1.289917E+0	1.357155E+0	1.351328E+0	1.361411E+0	1.277546E+0	1.346964E+0	1.359305E+0	1.292546E+0	1.309917E+0	1.391084E+0	1.355676E+0	1.256039E+0	1.272762E+0	1.325642E+0	1.463628E+0	1.301172E+0	1.326018E+0	1.333100E+0	1.300744E+0	1.294311E+0	1.365064E+0	1.311299E+0	1.363872E+0	1.342433E+0	1.341876E+0	1.327217E+0	1.311955E+0	1.387092E+0	1.349232E+0	1.316556E+0	1.335651E+0	1.336434E+0	1.347451E+0	1.320048E+0	1.365172E+0	1.322430E+0	1.391576E+0	1.361797E+0	1.354872E+0	1.324358E+0	1.376958E+0	1.294840E+0
5.497680E+2	1.315456E+0	1.331996E+0	1.340234E+0	1.291010E+0	1.328317E+0	1.335511E+0	1.283613E+0	1.274638E+0	1.303815E+0	1.343101E+0	1.253923E+0	1.341350E+0	1.243051E+0	1.294819E+0	1.302220E+0	1.327171E+0	1.313979E+0	1.274769E+0	1.318278E+0	1.390311E+0	1.339173E+0	1.291605E+0	1.311408E+0	1.327462E+0	1.318116E+0	1.322997E+0	1.234371E+0	1.308723E+0	1.296004E+0	1.281973E+0	1.308848E+0	1.308589E+0	1.291585E+0	1.305559E+0	1.296391E+0	1.357801E+0	1.322891E+0	1.292186E+0	1.240149E+0	1.264569E+0	1.275172E+0	1.301230E+0	1.334822E+0	1.260112E+0	1.316206E+0	1.332476E+0	1.304702E+0	1.259880E+0	1.269342E+0	1.310346E+0	1.290930E+0	1.264116E+0	1.278759E+0	1.318619E+0	1.269647E+0	1.316419E+0	1.323054E+0	1.336570E+0	1.260624E+0	1.285351E+0	1.255590E+0	1.297891E+0	1.316294E+0	1.347464E+0	1.380205E+0	1.273421E+0	1.274684E+0	1.257629E+0	1.329099E+0	1.355000E+0	1.236085E+0	1.362197E+0	1.302160E+0	1.299059E+0	1.268935E+0	1.282265E+0	1.293764E+0	1.303047E+0	1.268315E+0	1.258683E+0	1.329012E+0	1.281764E+0	1.323592E+0	1.254726E+0	1.329662E+0	1.217216E+0	1.382895E+0	1.234064E+0	1.278151E+0	1.355618E+0	1.314089E+0	1.313938E+0	1.280827E+0	1.285075E+0	1.309119E+0	1.268067E+0	1.310982E+0	1.327537E+0	1.333157E+0	1.263718E+0	1.344931E+0	1.323942E+0	1.282236E+0	1.328366E+0	1.278691E+0	1.265177E+0	1.292533E+0	1.318560E+0	1.301540E+0	1.284460E+0	1.312667E+0	1.261892E+0	1.290061E+0	1.328475E+0	1.270717E+0	1.313769E+0	1.358927E+0	1.299087E+0	1.354811E+0	1.322380E+0	1.343697E+0	1.265613E+0	1.282426E+0	1.304691E+0	1.315665E+0	1.240329E+0	1.298543E+0	1.340632E+0	1.334815E+0	1.264415E+0	1.311608E+0	1.329194E+0	1.275830E+0	1.337301E+0	1.292176E+0	1.312954E+0	1.309529E+0	1.285934E+0	1.252204E+0	1.335585E+0	1.302671E+0	1.312678E+0	1.293477E+0	1.276632E+0	1.307443E+0	1.250804E+0	1.256581E+0	1.252838E+0	1.301785E+0	1.246455E+0	1.296059E+0	1.335196E+0	1.278587E+0	1.265452E+0	1.329109E+0	1.311779E+0	1.308975E+0	1.282600E+0	1.313356E+0	1.318948E+0	1.268676E+0	1.291650E+0	1.272789E+0	1.265318E+0	1.280653E+0	1.282079E+0	1.293701E+0	1.261901E+0	1.249196E+0	1.330504E+0	1.309396E+0	1.362949E+0
5.505060E+2	1.257695E+0	1.289005E+0	1.205196E+0	1.252946E+0	1.304075E+0	1.285934E+0	1.238801E+0	1.265190E+0	1.310260E+0	1.300002E+0	1.291095E+0	1.275661E+0	1.270466E+0	1.316081E+0	1.281179E+0	1.237105E+0	1.302346E+0	1.286556E+0	1.259207E+0	1.212263E+0	1.283464E+0	1.307505E+0	1.268876E+0	1.290617E+0	1.304066E+0	1.245253E+0	1.227778E+0	1.211326E+0	1.264304E+0	1.281312E+0	1.261705E+0	1.262723E+0	1.221900E+0	1.269243E+0	1.257747E+0	1.312097E+0	1.230991E+0	1.319117E+0	1.244968E+0	1.268315E+0	1.292829E+0	1.289072E+0	1.265206E+0	1.243684E+0	1.284519E+0	1.253969E+0	1.270204E+0	1.289989E+0	1.194561E+0	1.253424E+0	1.236607E+0	1.254271E+0	1.325296E+0	1.270337E+0	1.271284E+0	1.278405E+0	1.328320E+0	1.273374E+0	1.252069E+0	1.251316E+0	1.213227E+0	1.281492E+0	1.328918E+0	1.265625E+0	1.304946E+0	1.311976E+0	1.233187E+0	1.300425E+0	1.244273E+0	1.317431E+0	1.219796E+0	1.276564E+0	1.289582E+0	1.230965E+0	1.263986E+0	1.315125E+0	1.263096E+0	1.282160E+0	1.241011E+0	1.295225E+0	1.270503E+0	1.206373E+0	1.307815E+0	1.245278E+0	1.288293E+0	1.214805E+0	1.218316E+0	1.232392E+0	1.164270E+0	1.341442E+0	1.250426E+0	1.369458E+0	1.245187E+0	1.255814E+0	1.291361E+0	1.233044E+0	1.300058E+0	1.290802E+0	1.271164E+0	1.200961E+0	1.280968E+0	1.254102E+0	1.243344E+0	1.270611E+0	1.255107E+0	1.245169E+0	1.271954E+0	1.357803E+0	1.253646E+0	1.338627E+0	1.261891E+0	1.221359E+0	1.253928E+0	1.314355E+0	1.254188E+0	1.261451E+0	1.277644E+0	1.252466E+0	1.272255E+0	1.234618E+0	1.252955E+0	1.211283E+0	1.229125E+0	1.280616E+0	1.243060E+0	1.316380E+0	1.260460E+0	1.304289E+0	1.211346E+0	1.245285E+0	1.214340E+0	1.216348E+0	1.300886E+0	1.262679E+0	1.295537E+0	1.266272E+0	1.291026E+0	1.196534E+0	1.250307E+0	1.241790E+0	1.241927E+0	1.253101E+0	1.266662E+0	1.266476E+0	1.313966E+0	1.214952E+0	1.257725E+0	1.291836E+0	1.302403E+0	1.350324E+0	1.259847E+0	1.344099E+0	1.262909E+0	1.169949E+0	1.220536E+0	1.231718E+0	1.231391E+0	1.315780E+0	1.238746E+0	1.287797E+0	1.214628E+0	1.314431E+0	1.272433E+0	1.219149E+0	1.277829E+0	1.252835E+0	1.218223E+0	1.304221E+0	1.275972E+0	1.184007E+0	1.194462E+0	1.325658E+0
5.512570E+2	1.259635E+0	1.249601E+0	1.254402E+0	1.323969E+0	1.305608E+0	1.224675E+0	1.243913E+0	1.302423E+0	1.328504E+0	1.275915E+0	1.252017E+0	1.279383E+0	1.308169E+0	1.287904E+0	1.295735E+0	1.283966E+0	1.231800E+0	1.277199E+0	1.229021E+0	1.286658E+0	1.280960E+0	1.293419E+0	1.279381E+0	1.271193E+0	1.287741E+0	1.202250E+0	1.231526E+0	1.207045E+0	1.229958E+0	1.291921E+0	1.252792E+0	1.228677E+0	1.303164E+0	1.228598E+0	1.259316E+0	1.286621E+0	1.276016E+0	1.246117E+0	1.230213E+0	1.197721E+0	1.268245E+0	1.261535E+0	1.251137E+0	1.215273E+0	1.309369E+0	1.298619E+0	1.228804E+0	1.231954E+0	1.254178E+0	1.263290E+0	1.293548E+0	1.190626E+0	1.237158E+0	1.248533E+0	1.260089E+0	1.267526E+0	1.291325E+0	1.269907E+0	1.253088E+0	1.257619E+0	1.283486E+0	1.265442E+0	1.302615E+0	1.273158E+0	1.252567E+0	1.246425E+0	1.210747E+0	1.272583E+0	1.289543E+0	1.306394E+0	1.220847E+0	1.273371E+0	1.272659E+0	1.227625E+0	1.269308E+0	1.230613E+0	1.252730E+0	1.305946E+0	1.283271E+0	1.248582E+0	1.241650E+0	1.256279E+0	1.242814E+0	1.238667E+0	1.289696E+0	1.282059E+0	1.257636E+0	1.279551E+0	1.256716E+0	1.277125E+0	1.251286E+0	1.250197E+0	1.280467E+0	1.310723E+0	1.320624E+0	1.288517E+0	1.245104E+0	1.206806E+0	1.216558E+0	1.218160E+0	1.259944E+0	1.285087E+0	1.265498E+0	1.258540E+0	1.283661E+0	1.263602E+0	1.222445E+0	1.237565E+0	1.238131E+0	1.249890E+0	1.258905E+0	1.210175E+0	1.268489E+0	1.230501E+0	1.237587E+0	1.247920E+0	1.310004E+0	1.255169E+0	1.273104E+0	1.311458E+0	1.245662E+0	1.290662E+0	1.197850E+0	1.259343E+0	1.306619E+0	1.295666E+0	1.285062E+0	1.222352E+0	1.293637E+0	1.242097E+0	1.191587E+0	1.257617E+0	1.271652E+0	1.300623E+0	1.284459E+0	1.239464E+0	1.298349E+0	1.228385E+0	1.249530E+0	1.220908E+0	1.273666E+0	1.196957E+0	1.313603E+0	1.248781E+0	1.333354E+0	1.233379E+0	1.286765E+0	1.269278E+0	1.302292E+0	1.275992E+0	1.218388E+0	1.241787E+0	1.216251E+0	1.301218E+0	1.267032E+0	1.223658E+0	1.293407E+0	1.242850E+0	1.279751E+0	1.257245E+0	1.281090E+0	1.229102E+0	1.270122E+0	1.231446E+0	1.251416E+0	1.263447E+0	1.241886E+0	1.251428E+0	1.219922E+0	1.182807E+0	1.272984E+0	1.284215E+0
5.520100E+2	1.198919E+0	1.203974E+0	1.287823E+0	1.276202E+0	1.278162E+0	1.264148E+0	1.250799E+0	1.252464E+0	1.278916E+0	1.245496E+0	1.210523E+0	1.262101E+0	1.241715E+0	1.284343E+0	1.214185E+0	1.214149E+0	1.272920E+0	1.220895E+0	1.259589E+0	1.293195E+0	1.269761E+0	1.216683E+0	1.276804E+0	1.209541E+0	1.300296E+0	1.248146E+0	1.186390E+0	1.169184E+0	1.287807E+0	1.256292E+0	1.238730E+0	1.226242E+0	1.250142E+0	1.245734E+0	1.251906E+0	1.270832E+0	1.206618E+0	1.242050E+0	1.262870E+0	1.243662E+0	1.287007E+0	1.275911E+0	1.279916E+0	1.290620E+0	1.321432E+0	1.307959E+0	1.233975E+0	1.228737E+0	1.161623E+0	1.287715E+0	1.272849E+0	1.241771E+0	1.249558E+0	1.313527E+0	1.234775E+0	1.256404E+0	1.255374E+0	1.245111E+0	1.220295E+0	1.208685E+0	1.256453E+0	1.244334E+0	1.241521E+0	1.245581E+0	1.323015E+0	1.274859E+0	1.238273E+0	1.247487E+0	1.264908E+0	1.277545E+0	1.200552E+0	1.241354E+0	1.213001E+0	1.242658E+0	1.300646E+0	1.219265E+0	1.262374E+0	1.305868E+0	1.215761E+0	1.273536E+0	1.269291E+0	1.233594E+0	1.278816E+0	1.278803E+0	1.212333E+0	1.259778E+0	1.231534E+0	1.242130E+0	1.235165E+0	1.248152E+0	1.243447E+0	1.255453E+0	1.258751E+0	1.238259E+0	1.280751E+0	1.206468E+0	1.293606E+0	1.234228E+0	1.200647E+0	1.226913E+0	1.259190E+0	1.286100E+0	1.273363E+0	1.220970E+0	1.219377E+0	1.233309E+0	1.267578E+0	1.223187E+0	1.268379E+0	1.277435E+0	1.293580E+0	1.244506E+0	1.270276E+0	1.211071E+0	1.273065E+0	1.261175E+0	1.261233E+0	1.302731E+0	1.279572E+0	1.186443E+0	1.273871E+0	1.208012E+0	1.299910E+0	1.216314E+0	1.280396E+0	1.267084E+0	1.287717E+0	1.219876E+0	1.277380E+0	1.262355E+0	1.265216E+0	1.198303E+0	1.238622E+0	1.231215E+0	1.308232E+0	1.275777E+0	1.226565E+0	1.293938E+0	1.219165E+0	1.254064E+0	1.270185E+0	1.246709E+0	1.257929E+0	1.293113E+0	1.267735E+0	1.259553E+0	1.259391E+0	1.218663E+0	1.267752E+0	1.238913E+0	1.247507E+0	1.250395E+0	1.255899E+0	1.276020E+0	1.283741E+0	1.235446E+0	1.256220E+0	1.221830E+0	1.331744E+0	1.247625E+0	1.332400E+0	1.242081E+0	1.269287E+0	1.275002E+0	1.258926E+0	1.236924E+0	1.200613E+0	1.239837E+0	1.251599E+0	1.198445E+0	1.215393E+0	1.180003E+0
5.527590E+2	1.271704E+0	1.242450E+0	1.279000E+0	1.303423E+0	1.354784E+0	1.203065E+0	1.241223E+0	1.304696E+0	1.240990E+0	1.299923E+0	1.259482E+0	1.246058E+0	1.226107E+0	1.272792E+0	1.249909E+0	1.273916E+0	1.292418E+0	1.206780E+0	1.280312E+0	1.296492E+0	1.342847E+0	1.277914E+0	1.227507E+0	1.235634E+0	1.284910E+0	1.236960E+0	1.169702E+0	1.239385E+0	1.270032E+0	1.229494E+0	1.264761E+0	1.212863E+0	1.308348E+0	1.215768E+0	1.226324E+0	1.297232E+0	1.233270E+0	1.218106E+0	1.276522E+0	1.251047E+0	1.225049E+0	1.249787E+0	1.231066E+0	1.264111E+0	1.297606E+0	1.273960E+0	1.274726E+0	1.252810E+0	1.242891E+0	1.264941E+0	1.281533E+0	1.171391E+0	1.233799E+0	1.275049E+0	1.203942E+0	1.221158E+0	1.268812E+0	1.221643E+0	1.323956E+0	1.229290E+0	1.245211E+0	1.223451E+0	1.176426E+0	1.275449E+0	1.259881E+0	1.242842E+0	1.201975E+0	1.223017E+0	1.200436E+0	1.289655E+0	1.160145E+0	1.251109E+0	1.265497E+0	1.285176E+0	1.166110E+0	1.214871E+0	1.195544E+0	1.242643E+0	1.266836E+0	1.289784E+0	1.231942E+0	1.196976E+0	1.245161E+0	1.237047E+0	1.311016E+0	1.196808E+0	1.224410E+0	1.199464E+0	1.225310E+0	1.256490E+0	1.290203E+0	1.243687E+0	1.315171E+0	1.210137E+0	1.225551E+0	1.268316E+0	1.266133E+0	1.253156E+0	1.215088E+0	1.229353E+0	1.270476E+0	1.265736E+0	1.214720E+0	1.254316E+0	1.216039E+0	1.239794E+0	1.263523E+0	1.203057E+0	1.219118E+0	1.202555E+0	1.265599E+0	1.170206E+0	1.239239E+0	1.273785E+0	1.236512E+0	1.219530E+0	1.218682E+0	1.229669E+0	1.243666E+0	1.223377E+0	1.253533E+0	1.227480E+0	1.211713E+0	1.184970E+0	1.307910E+0	1.235269E+0	1.282160E+0	1.290064E+0	1.301488E+0	1.219078E+0	1.219802E+0	1.217819E+0	1.253397E+0	1.285255E+0	1.201959E+0	1.215076E+0	1.316368E+0	1.258475E+0	1.221753E+0	1.214406E+0	1.299805E+0	1.172005E+0	1.269836E+0	1.224043E+0	1.295083E+0	1.195710E+0	1.217350E+0	1.187583E+0	1.305638E+0	1.216647E+0	1.286785E+0	1.266652E+0	1.234249E+0	1.238444E+0	1.209938E+0	1.236792E+0	1.247417E+0	1.303874E+0	1.251357E+0	1.253846E+0	1.226097E+0	1.230590E+0	1.306537E+0	1.207234E+0	1.214049E+0	1.233489E+0	1.255208E+0	1.239109E+0	1.200133E+0	1.199526E+0	1.194796E+0	1.308684E+0
5.534940E+2	1.169518E+0	1.199131E+0	1.197655E+0	1.174801E+0	1.185831E+0	1.188115E+0	1.207675E+0	1.244163E+0	1.204161E+0	1.273493E+0	1.199076E+0	1.183611E+0	1.206948E+0	1.127751E+0	1.156271E+0	1.190564E+0	1.203233E+0	1.197552E+0	1.162497E+0	1.241550E+0	1.225651E+0	1.148370E+0	1.174614E+0	1.145649E+0	1.219770E+0	1.163264E+0	1.218794E+0	1.182797E+0	1.228963E+0	1.230192E+0	1.232957E+0	1.234314E+0	1.253485E+0	1.148299E+0	1.159531E+0	1.169120E+0	1.157839E+0	1.177085E+0	1.212722E+0	1.200223E+0	1.164847E+0	1.184885E+0	1.160560E+0	1.190130E+0	1.201686E+0	1.171827E+0	1.224460E+0	1.201149E+0	1.243381E+0	1.169242E+0	1.169268E+0	1.184019E+0	1.223731E+0	1.164344E+0	1.195646E+0	1.179355E+0	1.207785E+0	1.182662E+0	1.164460E+0	1.173452E+0	1.195280E+0	1.189102E+0	1.200497E+0	1.140786E+0	1.217998E+0	1.182019E+0	1.213487E+0	1.164978E+0	1.215146E+0	1.222514E+0	1.231368E+0	1.146880E+0	1.161160E+0	1.209256E+0	1.164717E+0	1.203203E+0	1.174816E+0	1.223376E+0	1.171894E+0	1.178631E+0	1.195147E+0	1.185413E+0	1.205573E+0	1.211189E+0	1.177898E+0	1.220554E+0	1.190561E+0	1.153331E+0	1.181950E+0	1.197647E+0	1.176050E+0	1.210486E+0	1.188264E+0	1.185952E+0	1.212959E+0	1.139066E+0	1.216577E+0	1.189572E+0	1.233276E+0	1.172276E+0	1.146374E+0	1.191337E+0	1.165390E+0	1.241892E+0	1.182543E+0	1.193443E+0	1.158958E+0	1.176307E+0	1.263848E+0	1.187859E+0	1.158399E+0	1.153288E+0	1.205603E+0	1.199169E+0	1.219358E+0	1.159032E+0	1.192398E+0	1.137513E+0	1.179077E+0	1.211512E+0	1.255369E+0	1.220616E+0	1.191316E+0	1.188997E+0	1.228451E+0	1.150738E+0	1.147385E+0	1.164545E+0	1.244606E+0	1.184450E+0	1.176755E+0	1.170329E+0	1.205236E+0	1.202864E+0	1.177927E+0	1.171274E+0	1.200987E+0	1.234305E+0	1.200250E+0	1.238239E+0	1.250172E+0	1.213740E+0	1.196880E+0	1.161222E+0	1.185255E+0	1.190772E+0	1.197570E+0	1.169332E+0	1.233988E+0	1.186335E+0	1.171697E+0	1.202945E+0	1.219242E+0	1.127915E+0	1.169227E+0	1.164805E+0	1.216440E+0	1.223386E+0	1.234187E+0	1.213614E+0	1.193888E+0	1.164649E+0	1.178997E+0	1.182189E+0	1.208427E+0	1.192710E+0	1.124954E+0	1.178685E+0	1.155816E+0	1.121309E+0	1.177807E+0	1.152061E+0
5.542530E+2	1.081920E+0	1.105390E+0	1.164677E+0	1.060679E+0	1.081932E+0	1.097236E+0	1.091769E+0	1.104698E+0	1.133942E+0	1.120829E+0	1.113970E+0	1.107278E+0	1.094084E+0	1.163003E+0	1.060907E+0	1.113376E+0	1.097465E+0	1.083288E+0	1.056671E+0	1.123791E+0	1.140570E+0	1.105771E+0	1.125758E+0	1.109580E+0	1.155447E+0	1.124687E+0	1.090956E+0	1.091472E+0	1.104750E+0	1.138488E+0	1.117379E+0	1.133118E+0	1.078046E+0	1.071956E+0	1.079819E+0	1.122804E+0	1.085964E+0	1.096415E+0	1.120777E+0	1.103428E+0	1.121283E+0	1.117165E+0	1.089918E+0	1.147735E+0	1.094947E+0	1.104864E+0	1.109423E+0	1.095148E+0	1.142682E+0	1.131857E+0	1.021682E+0	1.077930E+0	1.113718E+0	1.054490E+0	1.129856E+0	1.109562E+0	1.102349E+0	1.124663E+0	1.064168E+0	1.091499E+0	1.080351E+0	1.121844E+0	1.108654E+0	1.114608E+0	1.105648E+0	1.142226E+0	1.061767E+0	1.150586E+0	1.120711E+0	1.092912E+0	1.104072E+0	1.095480E+0	1.119121E+0	1.077831E+0	1.039502E+0	1.119081E+0	1.128831E+0	1.109683E+0	1.093736E+0	1.142730E+0	1.127125E+0	1.072936E+0	1.051289E+0	1.141405E+0	1.095740E+0	1.152635E+0	1.122306E+0	1.086019E+0	1.112614E+0	1.100057E+0	1.108764E+0	1.081225E+0	1.121386E+0	1.127097E+0	1.076077E+0	1.084481E+0	1.129827E+0	1.119817E+0	1.115425E+0	1.083141E+0	1.093453E+0	1.125914E+0	1.086031E+0	1.066010E+0	1.065842E+0	1.033198E+0	1.069992E+0	1.172513E+0	1.079349E+0	1.090388E+0	1.159630E+0	1.092732E+0	1.125943E+0	1.119270E+0	1.103901E+0	1.124656E+0	1.108428E+0	1.106058E+0	1.122288E+0	1.139782E+0	1.087379E+0	1.078708E+0	1.089308E+0	1.073139E+0	1.098161E+0	1.112874E+0	1.076019E+0	1.066618E+0	1.135703E+0	1.069065E+0	1.087377E+0	1.083601E+0	1.128441E+0	1.153459E+0	1.069042E+0	1.122751E+0	1.103631E+0	1.090418E+0	1.113351E+0	1.070202E+0	1.137858E+0	1.087492E+0	1.113966E+0	1.086376E+0	1.150468E+0	1.098994E+0	1.047665E+0	1.055253E+0	1.084997E+0	1.104092E+0	1.114970E+0	1.072980E+0	1.100089E+0	1.113742E+0	1.070302E+0	1.132726E+0	1.158101E+0	1.095209E+0	1.159146E+0	1.108672E+0	1.114621E+0	1.103142E+0	1.109025E+0	1.056562E+0	1.119582E+0	1.087079E+0	1.107324E+0	1.133934E+0	1.069654E+0	1.070886E+0	1.053682E+0	1.154394E+0
5.550190E+2	1.004256E+0	1.065935E+0	9.773090E-1	9.686116E-1	9.968081E-1	1.002429E+0	1.022018E+0	1.066725E+0	1.045980E+0	1.048381E+0	1.002950E+0	1.019959E+0	1.039032E+0	1.029317E+0	9.854466E-1	1.035851E+0	1.032923E+0	1.049032E+0	9.869499E-1	1.077292E+0	1.016955E+0	1.028113E+0	1.024750E+0	1.030410E+0	1.104574E+0	1.037965E+0	1.011864E+0	1.035916E+0	1.024460E+0	1.014385E+0	1.024912E+0	1.037340E+0	9.999043E-1	1.052906E+0	1.041479E+0	1.038320E+0	1.041417E+0	1.044473E+0	1.016276E+0	1.026743E+0	1.056737E+0	1.040067E+0	9.997997E-1	1.022821E+0	1.028888E+0	1.029610E+0	1.071506E+0	1.049186E+0	1.043197E+0	1.014984E+0	1.008755E+0	1.004289E+0	1.051394E+0	1.013716E+0	1.043816E+0	1.015335E+0	1.069441E+0	9.989365E-1	1.003211E+0	1.047903E+0	9.999682E-1	1.089689E+0	9.848343E-1	1.065789E+0	1.082384E+0	1.009373E+0	9.910705E-1	1.010494E+0	1.053840E+0	1.018678E+0	9.840907E-1	1.076178E+0	9.911383E-1	9.600689E-1	9.830088E-1	1.034554E+0	1.074036E+0	1.034180E+0	9.821746E-1	1.014212E+0	9.897671E-1	9.966028E-1	1.032388E+0	1.020867E+0	1.018413E+0	1.017827E+0	1.019280E+0	1.004769E+0	1.032226E+0	9.900094E-1	1.037710E+0	1.055565E+0	1.060592E+0	1.019119E+0	1.099688E+0	1.024008E+0	1.012427E+0	9.709280E-1	1.045398E+0	9.727620E-1	1.011862E+0	1.021371E+0	1.010430E+0	1.012496E+0	1.002638E+0	1.067861E+0	9.971119E-1	1.059264E+0	1.019817E+0	1.004926E+0	1.016824E+0	9.961828E-1	1.040368E+0	9.989876E-1	1.038733E+0	1.063645E+0	1.010517E+0	1.011231E+0	1.058167E+0	1.002931E+0	1.071169E+0	1.045177E+0	9.925930E-1	9.821780E-1	1.072438E+0	1.006344E+0	1.011322E+0	1.007116E+0	1.054634E+0	1.053626E+0	1.061253E+0	1.049651E+0	1.013625E+0	1.026220E+0	1.012731E+0	1.036457E+0	1.075339E+0	1.035478E+0	1.006294E+0	1.055832E+0	1.049455E+0	9.961156E-1	1.046628E+0	1.047084E+0	9.926627E-1	1.040078E+0	1.033384E+0	1.091468E+0	1.024578E+0	9.937077E-1	1.035581E+0	1.034229E+0	1.027064E+0	1.004130E+0	1.009098E+0	1.016447E+0	9.893777E-1	1.055312E+0	1.051077E+0	9.912265E-1	1.043486E+0	9.745708E-1	1.023677E+0	1.061046E+0	9.818163E-1	1.034874E+0	9.980978E-1	9.819987E-1	9.575180E-1	1.019247E+0	9.900871E-1	1.040539E+0
5.557710E+2	9.783470E-1	9.959493E-1	9.908105E-1	9.902467E-1	9.950602E-1	9.403962E-1	9.769247E-1	9.978141E-1	9.882031E-1	1.014566E+0	9.689596E-1	1.004370E+0	9.940509E-1	1.000173E+0	9.512919E-1	9.779455E-1	1.012030E+0	1.002485E+0	9.658767E-1	1.036088E+0	9.590259E-1	9.599453E-1	9.783564E-1	9.452810E-1	9.730751E-1	1.002289E+0	9.687606E-1	1.029642E+0	8.926857E-1	9.978035E-1	9.858802E-1	9.702878E-1	9.629724E-1	9.601173E-1	8.933504E-1	9.502023E-1	1.027351E+0	9.412317E-1	9.933661E-1	9.807708E-1	9.953493E-1	1.020440E+0	9.518136E-1	9.482241E-1	9.594845E-1	9.927283E-1	9.955878E-1	9.512844E-1	9.555201E-1	9.825457E-1	9.658806E-1	9.746556E-1	9.903323E-1	1.018103E+0	1.010632E+0	9.960976E-1	1.040561E+0	9.770304E-1	1.031855E+0	9.457320E-1	1.025360E+0	1.003200E+0	9.448030E-1	1.007929E+0	9.636117E-1	9.849308E-1	9.827716E-1	9.666892E-1	9.707295E-1	1.022384E+0	9.540487E-1	9.995203E-1	9.900559E-1	9.647955E-1	9.632227E-1	9.865325E-1	9.565359E-1	9.165499E-1	9.480689E-1	9.274912E-1	9.402676E-1	9.532145E-1	9.427873E-1	9.437890E-1	9.929569E-1	9.311101E-1	9.729962E-1	9.656466E-1	1.010397E+0	9.632296E-1	9.841181E-1	9.629550E-1	1.021587E+0	9.707293E-1	9.705179E-1	9.677704E-1	1.012935E+0	9.572844E-1	9.440705E-1	9.658607E-1	9.354498E-1	9.882345E-1	9.532828E-1	9.677581E-1	9.345312E-1	9.674221E-1	9.374219E-1	1.025222E+0	9.895865E-1	9.601289E-1	9.828843E-1	9.573947E-1	1.004473E+0	9.791585E-1	9.685807E-1	1.012896E+0	1.022720E+0	9.350783E-1	1.009265E+0	9.647364E-1	1.045454E+0	9.743535E-1	9.434775E-1	9.881696E-1	9.959665E-1	9.564298E-1	9.488539E-1	9.896575E-1	1.027617E+0	1.010214E+0	9.556955E-1	9.740390E-1	1.017568E+0	9.761925E-1	9.739656E-1	9.504435E-1	9.758886E-1	9.706077E-1	1.008877E+0	9.946135E-1	9.940781E-1	8.796499E-1	1.011211E+0	9.254213E-1	9.924684E-1	9.211197E-1	9.327757E-1	9.374545E-1	9.975213E-1	9.714305E-1	9.653855E-1	9.736000E-1	9.782637E-1	9.571436E-1	9.752214E-1	9.451276E-1	9.806693E-1	9.731816E-1	1.020877E+0	9.804971E-1	9.620897E-1	9.565892E-1	9.495579E-1	9.679136E-1	9.955025E-1	9.818905E-1	9.591880E-1	9.678417E-1	9.667200E-1	1.012868E+0	9.110021E-1	9.551634E-1
5.560130E+2	9.610622E-1	9.476055E-1	9.602704E-1	9.956012E-1	9.874372E-1	9.447410E-1	9.741932E-1	9.609549E-1	9.770733E-1	1.020713E+0	9.732551E-1	9.857307E-1	9.762562E-1	9.515005E-1	9.825947E-1	9.856207E-1	9.633116E-1	9.753464E-1	9.106197E-1	9.626501E-1	9.915629E-1	9.402792E-1	9.808212E-1	9.369412E-1	9.646548E-1	9.708750E-1	9.288076E-1	9.990195E-1	9.742198E-1	1.034672E+0	9.581704E-1	9.537134E-1	9.674307E-1	1.012319E+0	9.525465E-1	9.738742E-1	1.014878E+0	1.022437E+0	1.003606E+0	9.407105E-1	1.004373E+0	9.250889E-1	9.843479E-1	9.232152E-1	9.506585E-1	9.401974E-1	9.838266E-1	9.614842E-1	9.535315E-1	9.966187E-1	9.368073E-1	9.376965E-1	9.745681E-1	1.014486E+0	9.648666E-1	9.412973E-1	9.967238E-1	9.438514E-1	9.624411E-1	9.670771E-1	9.809850E-1	9.933649E-1	9.572184E-1	9.475403E-1	1.012366E+0	9.096481E-1	9.990963E-1	9.346267E-1	9.393633E-1	9.781692E-1	9.306092E-1	9.552725E-1	9.373430E-1	9.652385E-1	9.121921E-1	1.026107E+0	9.368133E-1	9.765595E-1	9.545020E-1	9.698633E-1	9.258271E-1	9.399648E-1	9.729907E-1	9.646917E-1	9.619621E-1	9.706211E-1	9.716623E-1	9.494877E-1	9.863050E-1	1.021931E+0	9.317194E-1	9.644682E-1	9.561056E-1	1.020991E+0	9.565328E-1	9.644053E-1	1.012658E+0	9.319041E-1	9.704077E-1	9.478290E-1	9.746578E-1	9.894951E-1	9.967968E-1	9.587380E-1	9.800242E-1	9.605498E-1	9.905473E-1	1.000993E+0	9.620991E-1	9.590649E-1	9.535920E-1	9.466842E-1	1.026545E+0	9.424039E-1	1.003011E+0	9.797740E-1	9.727100E-1	9.700699E-1	9.429377E-1	9.944465E-1	9.567230E-1	9.847829E-1	9.716867E-1	9.490063E-1	9.496465E-1	9.504575E-1	9.716655E-1	9.602337E-1	1.005847E+0	9.776100E-1	9.549678E-1	9.552657E-1	9.785837E-1	9.833348E-1	1.011722E+0	9.965789E-1	9.821999E-1	9.804414E-1	9.560764E-1	9.297094E-1	9.642408E-1	9.599121E-1	9.292011E-1	9.991157E-1	9.785555E-1	9.788309E-1	9.526390E-1	9.234305E-1	9.791221E-1	9.962903E-1	9.664544E-1	9.387504E-1	9.943256E-1	9.463956E-1	9.436306E-1	9.520475E-1	9.807262E-1	9.965966E-1	9.848167E-1	9.498641E-1	9.916928E-1	9.628115E-1	1.019635E+0	9.258852E-1	9.840521E-1	9.449834E-1	9.607150E-1	9.202374E-1	9.532049E-1	9.695354E-1	1.006667E+0	9.580269E-1
5.565090E+2	9.561149E-1	9.634262E-1	9.917096E-1	9.240583E-1	9.669955E-1	9.612372E-1	9.621090E-1	8.973675E-1	9.385443E-1	9.956779E-1	9.557186E-1	9.925587E-1	9.357934E-1	9.387154E-1	1.022919E+0	9.621854E-1	9.935481E-1	9.856508E-1	9.411645E-1	9.638262E-1	9.826397E-1	9.514734E-1	9.528520E-1	9.405748E-1	9.402508E-1	9.632031E-1	9.565197E-1	9.821008E-1	9.334412E-1	9.706116E-1	9.512691E-1	9.571464E-1	1.009890E+0	9.740589E-1	9.842402E-1	1.016761E+0	1.017212E+0	9.968031E-1	9.932569E-1	9.543531E-1	9.885537E-1	9.653621E-1	9.723587E-1	1.016425E+0	9.406503E-1	9.494227E-1	9.402804E-1	1.009787E+0	9.618669E-1	9.905930E-1	9.953254E-1	9.803520E-1	9.593909E-1	9.953542E-1	9.597003E-1	9.372364E-1	9.888889E-1	9.428788E-1	9.373168E-1	9.735115E-1	9.393269E-1	9.614522E-1	9.468011E-1	9.693435E-1	9.840207E-1	9.579967E-1	9.822572E-1	9.715860E-1	9.308524E-1	1.041522E+0	9.549194E-1	9.722919E-1	9.713957E-1	1.013963E+0	9.871312E-1	9.930801E-1	9.950923E-1	9.828977E-1	9.578124E-1	9.635568E-1	9.794032E-1	9.894935E-1	9.723700E-1	1.029448E+0	9.745002E-1	9.780681E-1	9.908475E-1	9.517708E-1	9.627220E-1	9.624551E-1	9.774191E-1	9.514494E-1	9.699679E-1	1.032702E+0	9.390559E-1	1.009100E+0	9.659702E-1	9.915764E-1	9.684211E-1	9.769181E-1	9.757990E-1	9.417029E-1	9.820958E-1	9.484095E-1	9.644120E-1	9.598940E-1	9.466273E-1	9.403921E-1	9.920373E-1	9.486095E-1	9.719754E-1	9.503031E-1	9.573150E-1	9.687181E-1	9.246457E-1	9.520359E-1	9.470099E-1	9.602705E-1	1.035563E+0	9.671732E-1	9.854010E-1	9.576310E-1	9.625776E-1	9.692661E-1	9.579445E-1	9.205399E-1	9.360743E-1	9.323794E-1	9.823023E-1	9.655137E-1	9.520443E-1	1.011680E+0	9.677319E-1	1.001290E+0	9.836715E-1	9.074136E-1	9.851272E-1	9.435527E-1	9.794555E-1	9.398237E-1	9.870671E-1	1.013903E+0	9.703434E-1	9.748030E-1	9.630382E-1	9.515186E-1	9.767567E-1	9.676311E-1	9.992794E-1	9.411493E-1	9.572692E-1	9.603318E-1	9.374368E-1	1.014898E+0	9.707351E-1	9.699412E-1	9.947180E-1	9.686990E-1	9.640573E-1	9.501932E-1	9.806909E-1	9.568551E-1	9.853236E-1	9.482482E-1	9.801990E-1	9.486401E-1	9.884064E-1	9.704848E-1	9.551897E-1	9.850503E-1	9.750761E-1	1.011941E+0
5.570100E+2	1.028999E+0	1.021799E+0	9.949696E-1	9.809998E-1	1.045646E+0	9.817250E-1	1.011198E+0	1.003489E+0	1.037813E+0	9.694612E-1	9.972916E-1	9.638813E-1	1.005909E+0	9.791728E-1	9.390190E-1	1.005280E+0	9.656274E-1	9.831416E-1	1.025848E+0	9.854776E-1	1.011658E+0	9.598837E-1	9.499998E-1	1.002364E+0	9.816940E-1	9.664412E-1	1.031546E+0	1.004835E+0	1.012107E+0	9.756632E-1	1.005162E+0	9.775473E-1	9.567880E-1	1.007444E+0	9.779211E-1	9.825047E-1	9.890879E-1	1.026557E+0	1.002479E+0	1.024411E+0	9.680002E-1	9.887427E-1	1.009883E+0	1.038744E+0	9.907233E-1	9.972701E-1	9.968757E-1	9.284556E-1	1.001165E+0	9.844640E-1	9.531430E-1	9.951892E-1	9.966379E-1	1.025316E+0	1.029061E+0	9.673059E-1	9.842677E-1	9.995959E-1	9.573519E-1	1.003652E+0	9.659195E-1	9.807531E-1	9.618632E-1	9.926293E-1	1.000984E+0	1.023056E+0	9.835799E-1	9.897555E-1	1.028459E+0	9.471900E-1	9.791014E-1	9.808054E-1	9.865524E-1	1.042408E+0	1.011511E+0	9.841908E-1	1.009186E+0	9.997243E-1	9.692487E-1	1.011089E+0	1.012684E+0	1.022633E+0	9.756932E-1	1.004939E+0	1.034105E+0	9.805969E-1	9.784927E-1	9.595394E-1	9.721266E-1	1.088341E+0	1.021034E+0	9.876632E-1	9.687507E-1	1.015829E+0	9.919143E-1	9.566194E-1	9.600003E-1	9.992343E-1	9.625917E-1	9.857370E-1	1.028661E+0	1.012750E+0	1.012858E+0	1.016345E+0	9.983423E-1	1.042241E+0	9.893577E-1	9.821218E-1	9.443386E-1	9.841820E-1	1.014137E+0	9.953474E-1	1.008430E+0	9.840205E-1	1.034762E+0	1.042194E+0	9.945513E-1	1.004024E+0	9.850228E-1	1.004500E+0	9.707396E-1	9.819087E-1	1.050081E+0	9.828460E-1	9.982584E-1	1.035581E+0	1.003975E+0	9.944251E-1	1.034651E+0	1.021186E+0	9.714816E-1	1.000568E+0	9.370847E-1	1.014250E+0	9.951290E-1	1.038223E+0	1.005485E+0	9.747511E-1	9.835546E-1	9.962567E-1	1.006133E+0	1.000864E+0	1.027554E+0	9.837147E-1	1.021209E+0	9.833424E-1	9.741886E-1	9.730352E-1	1.029916E+0	9.917540E-1	9.905230E-1	9.750197E-1	9.466762E-1	9.675722E-1	1.061955E+0	1.030275E+0	1.015116E+0	1.010079E+0	9.760325E-1	1.033771E+0	1.044586E+0	1.032310E+0	1.018186E+0	9.949181E-1	9.497016E-1	9.826705E-1	1.005658E+0	9.979428E-1	1.015087E+0	9.736336E-1	1.003834E+0	1.008716E+0
5.575250E+2	9.631724E-1	9.478545E-1	9.470111E-1	1.055338E+0	1.000418E+0	1.006206E+0	9.770799E-1	9.978316E-1	9.568068E-1	9.980851E-1	9.935702E-1	9.988865E-1	1.006260E+0	9.830940E-1	9.749729E-1	9.642877E-1	9.724104E-1	9.599427E-1	9.594319E-1	9.572231E-1	1.000233E+0	1.036679E+0	9.732450E-1	1.028511E+0	1.038773E+0	9.579661E-1	9.837058E-1	9.181219E-1	1.025422E+0	9.699207E-1	9.837293E-1	1.003147E+0	9.927521E-1	9.944568E-1	1.015737E+0	1.014032E+0	9.796967E-1	9.798327E-1	1.032409E+0	9.897000E-1	1.010786E+0	9.886362E-1	9.976531E-1	9.567087E-1	9.567902E-1	9.826620E-1	9.915913E-1	1.055144E+0	9.906598E-1	9.986914E-1	9.861401E-1	1.033061E+0	1.004725E+0	9.951227E-1	9.759211E-1	9.729779E-1	1.000240E+0	9.631087E-1	9.825351E-1	9.703354E-1	9.962000E-1	9.283215E-1	1.010868E+0	9.927207E-1	9.369244E-1	1.005200E+0	1.023853E+0	1.049763E+0	1.071722E+0	9.946800E-1	9.822749E-1	9.753648E-1	9.910312E-1	9.848964E-1	1.023852E+0	9.730331E-1	1.022585E+0	1.000778E+0	1.054482E+0	9.950048E-1	1.011478E+0	9.777495E-1	9.834354E-1	1.011828E+0	9.730807E-1	9.925484E-1	1.033984E+0	9.961652E-1	1.019966E+0	1.001795E+0	9.535977E-1	1.009109E+0	1.048305E+0	1.007568E+0	1.012812E+0	9.751583E-1	1.032871E+0	1.007036E+0	1.003930E+0	1.006207E+0	9.865835E-1	9.995562E-1	9.747926E-1	9.823080E-1	9.710261E-1	9.883230E-1	1.029291E+0	1.009767E+0	1.003267E+0	9.901627E-1	9.964705E-1	9.575864E-1	1.022270E+0	1.017042E+0	9.950275E-1	9.692870E-1	9.878417E-1	9.937484E-1	1.022378E+0	9.718610E-1	1.003885E+0	1.015982E+0	9.814911E-1	1.028064E+0	1.027367E+0	1.001816E+0	1.049366E+0	1.022195E+0	1.013375E+0	1.003909E+0	9.733950E-1	9.994190E-1	9.906993E-1	9.774672E-1	9.912537E-1	1.002762E+0	1.000431E+0	9.865955E-1	9.978315E-1	1.005026E+0	9.620731E-1	9.938224E-1	1.010629E+0	9.968930E-1	1.011265E+0	1.012933E+0	1.028762E+0	9.989239E-1	9.765188E-1	1.032229E+0	1.026236E+0	9.695847E-1	9.808147E-1	9.811601E-1	9.535989E-1	9.745064E-1	9.823824E-1	9.510906E-1	9.728504E-1	9.792716E-1	9.678882E-1	9.722438E-1	1.005701E+0	9.609420E-1	9.804771E-1	1.028199E+0	9.634306E-1	1.010948E+0	1.004195E+0	1.039787E+0	1.026908E+0	9.771226E-1
5.580110E+2	1.006675E+0	1.048181E+0	1.022703E+0	1.047401E+0	9.913896E-1	9.762387E-1	1.068630E+0	1.031234E+0	1.008058E+0	1.060612E+0	1.034795E+0	9.992556E-1	1.009409E+0	9.936465E-1	1.002844E+0	1.036678E+0	1.023795E+0	1.018826E+0	1.006273E+0	9.643931E-1	1.029744E+0	9.943229E-1	1.041924E+0	1.044969E+0	1.009918E+0	9.726457E-1	1.013415E+0	9.743970E-1	1.004972E+0	1.020933E+0	9.609897E-1	9.876834E-1	1.012517E+0	9.688385E-1	9.871674E-1	1.041980E+0	1.048121E+0	9.946068E-1	1.028728E+0	1.006134E+0	1.021692E+0	1.044442E+0	9.847877E-1	1.029302E+0	1.045217E+0	1.000933E+0	9.749484E-1	1.002083E+0	1.003554E+0	1.002540E+0	1.020520E+0	1.018312E+0	1.021183E+0	9.404722E-1	1.009038E+0	1.058735E+0	1.019199E+0	1.015116E+0	1.000406E+0	1.022215E+0	1.034863E+0	1.030441E+0	1.072465E+0	9.962822E-1	1.024180E+0	1.007474E+0	1.034016E+0	1.015519E+0	1.005699E+0	9.945777E-1	1.037913E+0	1.004964E+0	9.684097E-1	1.010523E+0	1.037264E+0	9.882232E-1	9.964173E-1	9.671075E-1	1.090218E+0	1.004079E+0	1.017008E+0	1.020668E+0	1.014013E+0	1.018282E+0	1.034491E+0	1.023031E+0	1.016872E+0	9.913728E-1	1.013234E+0	1.015209E+0	9.955081E-1	1.001581E+0	9.835224E-1	9.662079E-1	9.767642E-1	1.006434E+0	1.001950E+0	9.952787E-1	1.078996E+0	1.032253E+0	1.009806E+0	1.056193E+0	1.015376E+0	9.931582E-1	1.051739E+0	1.006555E+0	9.955898E-1	9.814163E-1	1.039826E+0	9.956158E-1	1.058347E+0	1.011113E+0	1.032927E+0	1.003212E+0	1.031695E+0	1.019155E+0	9.730500E-1	1.013412E+0	1.004322E+0	1.077720E+0	9.885114E-1	1.016758E+0	1.029725E+0	9.741603E-1	9.805857E-1	1.031349E+0	9.773096E-1	1.034259E+0	1.005208E+0	9.869161E-1	9.767928E-1	9.855627E-1	1.033025E+0	9.890313E-1	9.853133E-1	1.027636E+0	1.017341E+0	1.043738E+0	9.979099E-1	9.871969E-1	1.029210E+0	9.972077E-1	1.078407E+0	1.036798E+0	9.759195E-1	1.045800E+0	1.027917E+0	1.000955E+0	9.738443E-1	9.935496E-1	9.780015E-1	1.058289E+0	9.920804E-1	1.010477E+0	1.032563E+0	9.854804E-1	1.033425E+0	1.001768E+0	1.041557E+0	9.960959E-1	9.906827E-1	9.899454E-1	1.016365E+0	1.022573E+0	1.042095E+0	9.728978E-1	9.808637E-1	1.022577E+0	9.960191E-1	1.048066E+0	9.928316E-1	1.070564E+0
5.585100E+2	1.014007E+0	1.020103E+0	1.035498E+0	1.002165E+0	1.002988E+0	1.033229E+0	1.060742E+0	1.054233E+0	1.039290E+0	1.065217E+0	1.021840E+0	1.035915E+0	1.049316E+0	1.055556E+0	9.968812E-1	1.022361E+0	1.018797E+0	1.034801E+0	1.077846E+0	1.008045E+0	1.033281E+0	1.042673E+0	1.004083E+0	1.019560E+0	1.031050E+0	1.045169E+0	9.939051E-1	1.034286E+0	1.040405E+0	1.012626E+0	1.108791E+0	1.048201E+0	1.036265E+0	1.016658E+0	1.045230E+0	1.031136E+0	9.947404E-1	1.030744E+0	1.033716E+0	9.984776E-1	9.938286E-1	1.059746E+0	1.032033E+0	1.019215E+0	1.025009E+0	1.091247E+0	9.978335E-1	1.045047E+0	9.887255E-1	1.025477E+0	1.035223E+0	1.038514E+0	1.069269E+0	1.040184E+0	1.017261E+0	1.001794E+0	1.037439E+0	1.075736E+0	1.011539E+0	9.684879E-1	1.061520E+0	1.080753E+0	1.036172E+0	1.034433E+0	1.049316E+0	1.020750E+0	1.019818E+0	9.958376E-1	1.038243E+0	1.011148E+0	1.030147E+0	1.027481E+0	1.029953E+0	1.027977E+0	1.021885E+0	1.064168E+0	1.015967E+0	1.064517E+0	9.957430E-1	1.009586E+0	1.013868E+0	1.035003E+0	1.011050E+0	1.052628E+0	1.021957E+0	1.067947E+0	1.068399E+0	1.021205E+0	1.052440E+0	9.982828E-1	1.038087E+0	1.005673E+0	1.011673E+0	1.046598E+0	1.058150E+0	1.020337E+0	1.036662E+0	1.017294E+0	1.027638E+0	1.038709E+0	1.025893E+0	1.005315E+0	1.057954E+0	1.032078E+0	1.060797E+0	9.973578E-1	1.046669E+0	1.048202E+0	1.007997E+0	1.065557E+0	9.835659E-1	1.022172E+0	1.041788E+0	1.012258E+0	9.647292E-1	1.046731E+0	1.020622E+0	1.035100E+0	1.017722E+0	1.026034E+0	1.065394E+0	1.053902E+0	1.041637E+0	1.044625E+0	9.997372E-1	1.051931E+0	1.035209E+0	1.001592E+0	1.023165E+0	1.029330E+0	1.016114E+0	1.043133E+0	1.074382E+0	9.924879E-1	1.042761E+0	1.028812E+0	1.023452E+0	9.941305E-1	1.041434E+0	1.072890E+0	1.002812E+0	1.064675E+0	1.006733E+0	1.012099E+0	1.015411E+0	1.014606E+0	9.662149E-1	1.046317E+0	9.867300E-1	1.011790E+0	1.013194E+0	1.019152E+0	1.038447E+0	1.009773E+0	9.896987E-1	1.025269E+0	1.047592E+0	1.037902E+0	1.043706E+0	1.036903E+0	1.032363E+0	1.033744E+0	1.003594E+0	1.012550E+0	1.038711E+0	1.028729E+0	9.829945E-1	1.072607E+0	1.072472E+0	9.871553E-1	9.936731E-1	1.061456E+0
5.590100E+2	1.029877E+0	9.886744E-1	1.002176E+0	1.041038E+0	1.048320E+0	1.021855E+0	1.087464E+0	1.023056E+0	1.018967E+0	1.049513E+0	1.035441E+0	1.072094E+0	1.050018E+0	1.014653E+0	1.041182E+0	1.060332E+0	1.036516E+0	1.020890E+0	1.007107E+0	1.066491E+0	9.747808E-1	1.023516E+0	1.035119E+0	1.004040E+0	1.088014E+0	1.023550E+0	1.011089E+0	1.029165E+0	1.035025E+0	1.067726E+0	1.026963E+0	1.026912E+0	1.026289E+0	1.094307E+0	1.015487E+0	9.894115E-1	1.014580E+0	1.029011E+0	1.032447E+0	1.051893E+0	9.713860E-1	1.037438E+0	1.010225E+0	9.891863E-1	1.015694E+0	1.038645E+0	1.044533E+0	9.734258E-1	1.039453E+0	1.045704E+0	1.016857E+0	9.856323E-1	1.003125E+0	1.055929E+0	1.014830E+0	1.020708E+0	1.017311E+0	1.053721E+0	1.018056E+0	1.031186E+0	1.033652E+0	1.031225E+0	1.015947E+0	1.028088E+0	9.979907E-1	1.005851E+0	1.000086E+0	1.053437E+0	9.780564E-1	1.019093E+0	1.027734E+0	1.031312E+0	1.109087E+0	9.944617E-1	1.013080E+0	1.020687E+0	1.022172E+0	1.029303E+0	1.010487E+0	1.009331E+0	9.848436E-1	1.033959E+0	1.029112E+0	1.013415E+0	9.998237E-1	9.812157E-1	1.006442E+0	1.051562E+0	1.001075E+0	1.055942E+0	1.030923E+0	1.035623E+0	1.032283E+0	1.052377E+0	1.037861E+0	1.015894E+0	1.005348E+0	1.029602E+0	9.925531E-1	1.012004E+0	9.936132E-1	1.061288E+0	1.001028E+0	1.027357E+0	1.029871E+0	1.017445E+0	1.004349E+0	1.023352E+0	1.042086E+0	1.059733E+0	1.036496E+0	1.026278E+0	1.062121E+0	1.012084E+0	1.051727E+0	1.005225E+0	1.087930E+0	1.022842E+0	1.023774E+0	1.059127E+0	1.021772E+0	1.008436E+0	9.911275E-1	1.045469E+0	9.938430E-1	9.597226E-1	1.047745E+0	1.015539E+0	1.007554E+0	1.001644E+0	1.023778E+0	9.938292E-1	1.041374E+0	9.890545E-1	1.002196E+0	1.019421E+0	1.029508E+0	1.067172E+0	9.952853E-1	1.014943E+0	1.040210E+0	9.741980E-1	1.023718E+0	1.019635E+0	1.035431E+0	1.048831E+0	1.065089E+0	1.016405E+0	1.059823E+0	9.984886E-1	1.029603E+0	1.020593E+0	1.047876E+0	1.043260E+0	1.033408E+0	1.003218E+0	9.868413E-1	1.046045E+0	1.061276E+0	1.029616E+0	1.049847E+0	1.019990E+0	1.020098E+0	1.025512E+0	1.019225E+0	1.012711E+0	1.135951E+0	9.901936E-1	1.019112E+0	1.020675E+0	9.899710E-1	9.321761E-1
5.595170E+2	9.952249E-1	9.897971E-1	9.835214E-1	1.005665E+0	9.668253E-1	1.000938E+0	9.484881E-1	9.588988E-1	1.007326E+0	9.692172E-1	9.932207E-1	9.798216E-1	9.887460E-1	1.020756E+0	1.008094E+0	1.002134E+0	9.873086E-1	1.002280E+0	9.956915E-1	1.011387E+0	9.599679E-1	1.020329E+0	9.920825E-1	9.663016E-1	9.857918E-1	1.052467E+0	9.954482E-1	1.017673E+0	9.708508E-1	1.022749E+0	1.037838E+0	1.012167E+0	9.753683E-1	1.008387E+0	1.015838E+0	9.937807E-1	1.012372E+0	1.005384E+0	9.557757E-1	1.019126E+0	1.019515E+0	1.007254E+0	9.870184E-1	9.889900E-1	1.023954E+0	9.533971E-1	9.887214E-1	9.921792E-1	9.604615E-1	9.806962E-1	1.011529E+0	9.776811E-1	9.509856E-1	9.701498E-1	9.957911E-1	9.791670E-1	9.811458E-1	1.024433E+0	1.039738E+0	1.021009E+0	9.959334E-1	1.009924E+0	9.855593E-1	9.930162E-1	1.003168E+0	1.008729E+0	9.672654E-1	9.893713E-1	9.805217E-1	1.003735E+0	9.823550E-1	1.003865E+0	1.005074E+0	9.915436E-1	9.709748E-1	9.686260E-1	9.894908E-1	9.794365E-1	9.948135E-1	1.004256E+0	1.009118E+0	9.311105E-1	1.001451E+0	9.445312E-1	9.509138E-1	9.701693E-1	9.913421E-1	1.025810E+0	9.965062E-1	9.741886E-1	1.016678E+0	1.003177E+0	9.903763E-1	9.568952E-1	1.025102E+0	9.979073E-1	1.011462E+0	1.034885E+0	9.969645E-1	1.005159E+0	1.019743E+0	9.807235E-1	9.675107E-1	1.028730E+0	9.741952E-1	9.821405E-1	1.012912E+0	1.018695E+0	9.826312E-1	9.688118E-1	9.435005E-1	9.987223E-1	9.703134E-1	9.743690E-1	9.401380E-1	9.894031E-1	1.000946E+0	1.009365E+0	9.570551E-1	9.731918E-1	9.438823E-1	9.789301E-1	9.376043E-1	9.840863E-1	9.885558E-1	9.916320E-1	9.570215E-1	9.933218E-1	9.716920E-1	1.001772E+0	1.008078E+0	9.712170E-1	9.484902E-1	1.025097E+0	9.812141E-1	1.006772E+0	9.755727E-1	1.012767E+0	1.017864E+0	9.635756E-1	9.516825E-1	1.005509E+0	9.468965E-1	1.003071E+0	9.619198E-1	9.926509E-1	9.968007E-1	9.532776E-1	9.985408E-1	1.009952E+0	1.012742E+0	9.885421E-1	1.054693E+0	9.783234E-1	9.666351E-1	9.745601E-1	9.917072E-1	9.967823E-1	9.640426E-1	9.751206E-1	9.579025E-1	9.982278E-1	9.755260E-1	9.837584E-1	9.905244E-1	9.971511E-1	9.663319E-1	9.909426E-1	1.018280E+0	9.889533E-1	9.821314E-1	1.017380E+0
5.600130E+2	1.004505E+0	1.029348E+0	1.029647E+0	1.001868E+0	9.602787E-1	1.019933E+0	9.335963E-1	9.862553E-1	9.971360E-1	9.480199E-1	9.700245E-1	1.008763E+0	9.700424E-1	9.935855E-1	9.883094E-1	9.691416E-1	9.660527E-1	9.661624E-1	9.700106E-1	1.013131E+0	1.000892E+0	1.046139E+0	1.020286E+0	1.008545E+0	9.890029E-1	9.895439E-1	9.832449E-1	1.026692E+0	1.019990E+0	9.999415E-1	9.818474E-1	9.563799E-1	9.770872E-1	9.650020E-1	9.647718E-1	9.871783E-1	9.930665E-1	9.819528E-1	9.878805E-1	9.889071E-1	9.547445E-1	9.826579E-1	1.012380E+0	9.340317E-1	9.736432E-1	9.866687E-1	1.021912E+0	9.640507E-1	1.055055E+0	1.027366E+0	9.776883E-1	9.708284E-1	1.012626E+0	9.692978E-1	1.034986E+0	1.030522E+0	1.038518E+0	9.943677E-1	1.005296E+0	1.012095E+0	1.030310E+0	1.017903E+0	9.805684E-1	1.008880E+0	9.299103E-1	9.620389E-1	9.698517E-1	9.265830E-1	9.959234E-1	9.876214E-1	9.595652E-1	9.839977E-1	9.801101E-1	9.621397E-1	1.016180E+0	9.931189E-1	9.368836E-1	9.995139E-1	9.704851E-1	1.022351E+0	1.028967E+0	9.721201E-1	1.026985E+0	9.688668E-1	9.991966E-1	9.721003E-1	1.013909E+0	1.002751E+0	9.738207E-1	9.836360E-1	9.999216E-1	1.019295E+0	1.044780E+0	9.962009E-1	9.548754E-1	1.028594E+0	9.820943E-1	9.952754E-1	9.902831E-1	9.657288E-1	1.028538E+0	9.463264E-1	9.921198E-1	1.016718E+0	9.679398E-1	9.789859E-1	9.812898E-1	9.929953E-1	9.993973E-1	1.011014E+0	1.033552E+0	1.026436E+0	9.263045E-1	1.008576E+0	9.742892E-1	9.571378E-1	9.676401E-1	9.859939E-1	9.934505E-1	1.013021E+0	1.002888E+0	9.692726E-1	9.996565E-1	1.000522E+0	1.043519E+0	1.029937E+0	9.911381E-1	1.004100E+0	9.837613E-1	1.009255E+0	1.019573E+0	9.504590E-1	1.004441E+0	9.852468E-1	1.023593E+0	9.887295E-1	9.883569E-1	9.835038E-1	9.604152E-1	1.040453E+0	9.950569E-1	1.001894E+0	9.523848E-1	1.003932E+0	1.008380E+0	9.849227E-1	9.757823E-1	1.063670E+0	9.945355E-1	1.006346E+0	1.001548E+0	1.012248E+0	9.914277E-1	1.020385E+0	1.003073E+0	1.015998E+0	9.746334E-1	9.875172E-1	9.821683E-1	9.456311E-1	9.971937E-1	1.007006E+0	1.003962E+0	1.009759E+0	9.844440E-1	1.017545E+0	1.015789E+0	1.012190E+0	9.573136E-1	1.018037E+0	1.033912E+0	1.042515E+0
5.605090E+2	9.987223E-1	9.980030E-1	1.031207E+0	9.796654E-1	1.040519E+0	9.945336E-1	9.811033E-1	1.017790E+0	1.021126E+0	9.720291E-1	1.037212E+0	1.009172E+0	1.013464E+0	1.033053E+0	1.030701E+0	1.030277E+0	1.009478E+0	1.022236E+0	1.012087E+0	1.009037E+0	1.052345E+0	9.891569E-1	1.038516E+0	9.893594E-1	9.683851E-1	9.979298E-1	1.025165E+0	1.028111E+0	9.743565E-1	1.003468E+0	1.009769E+0	1.057204E+0	1.031111E+0	1.010569E+0	1.018141E+0	9.931088E-1	9.638472E-1	9.763451E-1	9.985350E-1	9.819577E-1	1.037097E+0	9.751213E-1	9.962376E-1	1.011009E+0	1.047033E+0	1.012655E+0	1.022701E+0	1.012342E+0	1.003932E+0	9.835602E-1	1.024531E+0	1.044804E+0	9.987517E-1	1.003187E+0	1.014012E+0	1.025606E+0	9.974954E-1	9.751033E-1	1.029869E+0	1.006857E+0	9.979540E-1	1.007052E+0	9.894367E-1	1.007848E+0	1.052517E+0	1.006199E+0	1.040546E+0	1.001341E+0	1.025060E+0	9.853020E-1	1.038153E+0	1.031433E+0	9.592455E-1	1.003888E+0	9.906736E-1	1.009944E+0	1.027239E+0	1.012185E+0	9.725266E-1	1.011210E+0	9.510792E-1	1.023204E+0	9.953382E-1	9.787286E-1	1.030215E+0	1.016915E+0	9.552980E-1	9.998932E-1	9.996995E-1	1.002915E+0	1.006354E+0	9.974697E-1	9.830852E-1	9.416336E-1	1.016095E+0	1.009669E+0	1.010827E+0	9.664564E-1	9.822114E-1	9.826766E-1	9.665330E-1	1.010179E+0	1.004419E+0	9.663427E-1	1.002588E+0	1.037403E+0	9.979703E-1	1.025027E+0	9.752943E-1	9.913292E-1	9.869595E-1	9.815574E-1	1.037728E+0	1.028371E+0	1.026033E+0	1.015343E+0	1.024774E+0	9.701373E-1	9.543170E-1	9.706076E-1	1.009553E+0	1.008074E+0	1.010626E+0	1.034305E+0	1.043904E+0	9.949717E-1	1.006189E+0	1.047975E+0	9.798075E-1	1.025960E+0	1.035141E+0	1.031071E+0	1.000283E+0	1.037583E+0	1.030949E+0	9.951648E-1	1.022687E+0	9.872400E-1	1.022051E+0	9.952314E-1	1.034663E+0	1.006573E+0	9.967476E-1	1.047572E+0	1.013969E+0	9.882697E-1	1.005135E+0	1.011392E+0	1.023813E+0	1.014306E+0	1.027330E+0	1.001890E+0	1.025128E+0	9.863476E-1	1.026175E+0	1.004065E+0	9.780063E-1	9.996313E-1	9.978159E-1	1.014810E+0	9.770109E-1	9.832414E-1	9.937061E-1	1.023493E+0	1.033436E+0	1.047756E+0	1.005125E+0	9.386148E-1	9.705371E-1	9.564728E-1	1.030111E+0	9.365922E-1
5.610010E+2	1.002703E+0	9.928139E-1	9.615567E-1	9.617999E-1	9.766204E-1	1.004105E+0	9.695891E-1	1.029845E+0	9.749334E-1	9.721678E-1	9.608862E-1	9.396526E-1	9.710421E-1	9.877677E-1	9.950784E-1	9.473245E-1	1.026465E+0	1.006069E+0	1.004540E+0	1.020988E+0	9.544592E-1	9.358267E-1	9.918922E-1	9.957744E-1	9.671208E-1	1.031083E+0	1.005961E+0	9.846182E-1	9.834318E-1	9.563615E-1	9.336423E-1	9.736117E-1	9.819311E-1	9.602788E-1	9.754671E-1	9.501072E-1	9.872760E-1	9.787627E-1	9.347726E-1	9.850409E-1	1.034398E+0	9.505993E-1	9.974241E-1	1.016387E+0	9.812871E-1	9.870999E-1	1.020604E+0	1.017485E+0	9.951275E-1	9.609078E-1	9.790421E-1	9.556262E-1	9.833069E-1	1.004988E+0	9.494004E-1	1.005948E+0	9.354959E-1	9.559382E-1	1.017892E+0	9.906515E-1	9.443214E-1	9.521753E-1	1.000320E+0	9.767600E-1	1.020989E+0	1.002706E+0	9.787261E-1	1.006806E+0	9.454634E-1	1.015132E+0	1.007837E+0	9.884849E-1	9.991410E-1	9.681994E-1	9.274491E-1	1.004929E+0	9.849679E-1	9.645373E-1	9.841836E-1	9.695364E-1	9.915510E-1	9.940598E-1	9.905533E-1	9.773324E-1	9.817158E-1	1.017408E+0	9.444128E-1	9.999293E-1	1.008409E+0	9.172362E-1	9.604770E-1	9.889583E-1	9.672561E-1	9.839889E-1	9.873713E-1	9.802882E-1	9.928142E-1	9.633615E-1	9.964110E-1	9.946074E-1	9.648302E-1	9.859654E-1	9.918476E-1	9.885531E-1	9.790889E-1	9.896554E-1	9.959434E-1	9.780320E-1	1.013125E+0	9.849854E-1	9.749971E-1	1.030485E+0	9.408041E-1	9.913495E-1	1.056955E+0	1.003488E+0	9.956357E-1	1.005107E+0	1.006395E+0	9.367653E-1	1.007974E+0	1.009106E+0	9.954745E-1	9.366568E-1	9.662849E-1	9.825181E-1	9.959723E-1	9.542131E-1	9.984850E-1	9.545147E-1	1.023602E+0	1.013061E+0	1.002490E+0	9.884913E-1	9.639203E-1	9.850664E-1	9.520402E-1	1.006550E+0	1.004198E+0	9.846039E-1	9.910916E-1	9.413539E-1	9.865868E-1	9.214829E-1	9.934577E-1	9.771251E-1	9.833538E-1	9.683933E-1	9.569996E-1	1.000436E+0	9.635526E-1	9.943494E-1	9.854203E-1	9.878029E-1	9.621584E-1	1.016687E+0	9.955779E-1	1.000485E+0	9.964937E-1	1.038588E+0	1.001835E+0	1.006437E+0	9.775374E-1	1.018246E+0	9.811864E-1	9.637004E-1	9.554491E-1	9.934994E-1	9.917949E-1	9.821700E-1	9.715516E-1	9.415378E-1
