Photon Energy (eV)	#1	#2	#3	#4	#5	#6	#7	#8	#9	#10	#11	#12	#13	#14	#15	#16	#17	#18	#19	#20	#21	#22	#23	#24	#25	#26	#27	#28	#29	#30	#31	#32	#33	#34	#35	#36	#37	#38	#39	#40	#41	#42	#43	#44	#45	#46	#47	#48	#49	#50	#51	#52	#53	#54	#55	#56	#57	#58	#59	#60	#61	#62	#63	#64	#65	#66	#67	#68	#69	#70	#71	#72	#73	#74	#75	#76	#77	#78	#79	#80	#81	#82	#83	#84	#85	#86	#87	#88	#89	#90	#91	#92	#93	#94	#95	#96	#97	#98	#99	#100	#101	#102	#103	#104	#105	#106	#107	#108	#109	#110	#111	#112	#113	#114	#115	#116	#117	#118	#119	#120	#121	#122	#123	#124	#125	#126	#127	#128	#129	#130	#131	#132	#133	#134	#135	#136	#137	#138	#139	#140	#141	#142	#143	#144	#145	#146	#147	#148	#149	#150	#151	#152	#153	#154	#155	#156	#157	#158	#159	#160	#161	#162	#163	#164	#165	#166	
5.300160E+2	-1.259042E-2	-5.254430E-3	-1.059024E-2	-9.824221E-3	5.311313E-3	5.397319E-3	-2.335884E-3	-7.759818E-3	3.858953E-3	-1.212324E-2	9.560310E-4	-4.193302E-4	-4.058647E-3	-1.025099E-2	6.159609E-3	-7.671764E-3	-1.392671E-2	-5.936908E-3	1.797838E-3	-3.923112E-3	-3.854547E-3	-3.916838E-3	-1.271190E-2	-1.318797E-2	-4.989761E-4	-7.805901E-3	-9.665333E-3	-1.643585E-2	-9.252005E-3	-4.478944E-3	-5.379692E-3	-9.211442E-3	-1.206005E-2	-1.399527E-2	-2.947074E-4	-6.906852E-3	-9.708148E-3	-1.476872E-2	-1.526387E-3	-9.080298E-3	-1.196640E-2	-5.984825E-3	-5.032792E-4	-1.231761E-2	1.470893E-3	-9.999650E-3	3.524177E-3	-1.110986E-2	-3.210675E-3	-1.597078E-2	-1.190332E-3	-3.001792E-3	-8.151607E-3	-3.199215E-3	-5.983178E-3	-1.110956E-2	-7.316759E-3	-9.325414E-3	-1.095232E-3	-1.744901E-2	-7.117921E-3	-1.046431E-2	-8.750924E-4	-6.231071E-3	-3.048752E-3	1.579387E-2	-8.091385E-3	1.331561E-3	-1.381187E-3	-1.844008E-2	-7.409647E-3	-1.109724E-2	-1.407286E-2	-7.852016E-3	-2.355288E-3	-1.214135E-2	-6.475512E-3	-9.755895E-3	-8.819568E-3	5.438944E-3	-6.525855E-3	-1.243554E-2	-9.535832E-3	-1.372826E-2	-1.153827E-2	-6.613090E-3	-1.507595E-2	-7.165537E-4	-5.918037E-3	-6.830819E-4	-4.051461E-3	-2.384599E-3	-4.589405E-4	3.716468E-3	-2.777702E-3	-6.026230E-3	-4.275057E-3	-1.262599E-2	-4.730181E-3	-2.414120E-3	-1.204828E-2	-1.850244E-3	-3.164732E-3	3.493247E-3	-9.606621E-3	-8.530863E-3	-2.535518E-3	-1.061706E-3	-6.258143E-3	-1.208032E-2	-5.087299E-3	-2.499800E-3	-1.935750E-2	-9.579603E-4	-1.106115E-2	3.766055E-3	-5.942614E-3	-7.684142E-3	-6.604152E-3	-7.631007E-3	9.845713E-3	-1.870533E-4	-1.270406E-2	-1.305202E-2	-1.038765E-2	-4.022480E-3	-5.595737E-3	-3.982384E-3	-1.708208E-3	-1.484122E-3	-1.629836E-2	-1.508250E-2	-7.020894E-3	-9.785389E-3	-1.070915E-2	-6.059059E-3	-8.736113E-3	-9.087949E-3	-1.198372E-2	-4.372866E-3	-2.651149E-3	-6.569184E-3	-6.447239E-3	-4.724154E-3	-9.913003E-3	-4.718035E-3	-8.157052E-3	-5.556753E-3	-2.161167E-3	-2.458031E-3	-8.646390E-3	-1.397532E-2	-6.186034E-3	-9.233829E-3	-8.566258E-3	-8.033484E-3	2.862590E-3	-6.013150E-3	-9.671311E-3	-1.347158E-2	-6.655500E-3	-9.939249E-3	-7.847800E-3	-3.044365E-3	-2.160100E-2	-1.254645E-2
5.305130E+2	-2.628344E-3	-9.530278E-4	-8.139052E-3	-1.578822E-3	-1.054315E-2	7.177710E-3	-1.129060E-2	-9.249939E-3	4.205855E-4	-4.658777E-3	-3.973171E-3	-2.877405E-5	-7.577115E-3	-1.218105E-2	-1.807409E-2	-2.839203E-4	-9.306485E-3	-1.263967E-3	-2.487516E-3	3.381297E-3	-1.047609E-2	7.175429E-4	-2.075554E-3	2.544350E-3	7.400082E-4	2.086041E-3	9.673188E-3	-7.428546E-4	-5.393574E-4	-8.878745E-4	-1.008490E-2	-7.230128E-3	-4.710394E-3	5.729730E-4	-2.639811E-3	-2.305991E-5	-3.595433E-3	-1.051611E-2	-4.893920E-3	-7.543126E-3	1.644088E-3	2.756173E-3	-5.877587E-3	-6.426587E-3	-3.748422E-3	-4.206891E-4	-2.471952E-3	-4.048933E-3	-4.761751E-3	2.244096E-3	-2.818117E-3	-5.889012E-3	-3.684732E-3	-6.104094E-4	-7.449677E-3	-1.163952E-2	-5.176563E-3	-1.587827E-2	-1.105859E-2	3.224376E-3	-1.347151E-2	3.353284E-3	-4.055353E-3	-2.780906E-3	-2.521793E-3	-7.950593E-3	5.345346E-4	-1.451873E-2	-5.127583E-3	-1.730803E-3	3.234841E-4	-1.416154E-3	3.745946E-3	-6.420254E-3	-4.794313E-3	9.066562E-4	-4.337857E-3	9.496497E-4	-2.431670E-3	-1.866917E-3	-4.795815E-3	-6.829048E-3	-1.436591E-3	-2.235633E-3	-5.190572E-3	-5.381876E-3	-3.696781E-3	-2.273232E-3	7.134826E-3	-7.778838E-3	7.081072E-3	3.544088E-3	5.456625E-4	-4.037163E-3	-1.470016E-3	-1.025657E-2	4.119940E-3	2.429276E-4	-8.312970E-3	-1.216633E-2	-4.097406E-3	2.020973E-3	-4.872456E-4	6.309042E-3	1.202087E-2	-3.530817E-3	-9.474016E-3	-5.579524E-3	-3.974484E-3	3.337868E-3	-7.035483E-3	8.859670E-3	-6.820428E-3	-9.820522E-3	-5.952952E-3	-4.230508E-3	-4.879583E-3	-9.176384E-3	-6.251432E-3	-1.245114E-3	-7.281463E-3	-2.652215E-3	-2.941506E-3	-2.562040E-3	-2.484938E-3	-6.724290E-3	-6.521768E-3	-6.805070E-3	-4.703986E-3	-3.898043E-3	5.856267E-4	-1.124176E-2	-3.540285E-3	-7.428523E-3	-2.692737E-3	-3.803948E-3	-3.936106E-3	-4.169215E-3	-1.660999E-3	-1.024463E-2	-1.053646E-3	-3.405654E-3	-5.658268E-3	-1.419664E-2	-1.728080E-3	-9.160454E-3	-2.951882E-3	-1.128277E-2	-6.956722E-3	-8.648905E-4	-8.830732E-3	-2.806120E-3	-2.346419E-3	-1.233700E-2	-3.265588E-3	-5.857343E-3	-5.170646E-3	-5.010890E-3	1.987982E-3	-4.486689E-3	-9.659484E-3	-1.298152E-3	-2.945674E-3	-1.144263E-2	6.386335E-3	-5.686811E-3
5.310150E+2	-3.391556E-5	-4.752299E-3	-7.416906E-3	-1.554705E-2	3.352642E-3	-1.529352E-3	-1.250453E-3	-4.889339E-3	-5.820000E-3	-1.219130E-2	2.531908E-3	-6.228977E-3	-4.343893E-3	-5.052962E-3	-1.850638E-3	-3.409890E-4	3.030913E-3	-6.204436E-3	-4.534858E-3	-4.912220E-3	-1.758360E-3	-6.992389E-3	-3.272220E-3	-6.387772E-3	-9.053143E-3	5.349693E-3	-4.504395E-3	-4.090606E-3	-2.835202E-3	-5.887480E-3	-4.404167E-3	-2.339193E-3	1.006714E-2	-3.485500E-3	-5.400634E-3	-5.886052E-3	2.647816E-3	-6.866648E-3	-6.832398E-3	-8.183535E-3	-1.866877E-6	-1.788010E-3	-4.139145E-3	-5.228772E-3	9.447656E-4	-4.538414E-3	-2.542930E-3	-8.036671E-4	-2.195424E-3	-1.289259E-2	-4.279098E-3	3.745403E-3	-5.709130E-3	-3.593826E-3	3.989904E-3	-3.169139E-3	-4.475565E-3	-3.393229E-3	-6.388072E-3	-9.546690E-4	-1.857893E-3	-6.752028E-3	3.992730E-4	-4.439834E-3	-4.482813E-3	-8.652279E-3	-8.638205E-4	8.093565E-4	-3.991799E-3	3.176682E-3	-5.142084E-3	-1.229402E-2	-1.164039E-2	1.504051E-3	-4.141846E-3	-6.709662E-3	1.731811E-3	2.727276E-4	-8.946528E-3	-4.081050E-3	8.939918E-4	3.776784E-3	2.378850E-3	-9.682350E-3	-2.208972E-3	-7.526936E-3	3.026362E-3	-6.842243E-3	3.267807E-3	-1.815761E-4	-9.616188E-3	-3.888771E-3	-4.074710E-3	-2.843863E-3	-8.113301E-3	-7.767118E-3	-1.094392E-2	-4.173873E-4	7.141752E-3	-7.492952E-3	6.752469E-3	1.414208E-3	-4.130000E-3	-6.428938E-3	-6.536441E-3	5.291034E-3	-6.840970E-3	-3.459309E-3	-5.222269E-3	-2.706462E-3	-9.049575E-6	-5.225419E-3	9.645366E-4	1.374995E-3	5.086377E-3	-1.198554E-2	-8.599960E-3	-5.629996E-3	-6.919888E-3	-1.308630E-2	-2.382351E-3	3.854062E-3	-1.066201E-2	-8.282832E-3	-4.363802E-3	-2.089407E-3	-2.425682E-4	2.419785E-3	-7.442682E-3	-3.254275E-3	-6.757309E-3	4.585686E-3	-4.819678E-3	-3.638340E-3	-1.354150E-2	-1.973611E-3	-3.998356E-3	-4.954413E-3	1.058470E-3	-1.295008E-3	-3.627164E-3	-5.790014E-3	-4.563301E-3	-7.465633E-3	-8.700783E-3	-3.021861E-3	-3.676951E-3	-5.694396E-3	-1.078350E-2	-9.312938E-4	-7.049072E-4	2.005467E-3	-1.040976E-2	-8.578065E-3	-1.212797E-2	-4.408906E-3	1.022654E-3	-3.187013E-3	-6.549056E-3	-1.215396E-2	4.569254E-3	-1.083401E-2	4.339995E-3	4.759309E-3	-1.223736E-2	-5.742541E-3
5.315130E+2	-1.234042E-3	-9.861869E-3	-2.552689E-3	4.170706E-3	-6.100963E-3	-1.422609E-3	-1.132038E-3	1.117523E-3	4.494646E-4	-4.626866E-3	-3.279847E-3	-5.443743E-3	3.702528E-3	5.622664E-5	9.084163E-4	-5.634899E-3	5.499043E-3	-4.881592E-3	-1.788167E-3	-4.164278E-3	2.140426E-3	4.055083E-3	3.350281E-3	-6.261475E-3	-4.474512E-3	-4.598749E-3	-6.407720E-3	4.533252E-3	-2.159380E-3	-1.021223E-2	6.593304E-3	1.642169E-3	-1.212677E-2	3.270129E-3	-6.593443E-3	7.727408E-3	-2.429538E-3	5.037172E-3	-3.687993E-3	1.103931E-3	1.325688E-4	-9.070452E-3	3.563323E-3	-1.077834E-3	1.689149E-3	-6.715082E-3	-1.293969E-2	-9.845791E-5	-5.403259E-3	-2.988406E-3	-1.093604E-2	-6.856138E-4	-2.287493E-3	1.231282E-3	-5.569873E-3	4.416215E-3	-4.365231E-3	4.489418E-3	1.104178E-2	-1.106904E-2	-4.563340E-4	-2.664066E-3	-5.647692E-3	-6.569014E-3	4.629733E-3	3.745980E-3	3.318073E-3	4.268980E-3	5.505431E-3	-7.214335E-3	-1.107608E-2	4.411239E-3	7.058311E-3	-7.095383E-3	2.121722E-4	1.468890E-3	-5.265587E-4	2.955212E-3	2.511428E-3	-2.268559E-3	-3.386629E-3	5.524104E-3	-8.984131E-3	1.173712E-3	4.443235E-3	-3.627787E-4	1.322819E-3	-2.360197E-3	4.970584E-3	8.365846E-3	-8.850469E-3	-9.535042E-3	4.676259E-3	-8.819087E-4	-6.340941E-3	-4.750468E-3	1.138230E-3	3.651386E-3	-4.139638E-3	8.727394E-3	-1.782369E-3	-3.794376E-3	-4.610184E-3	-4.012244E-3	3.348696E-3	-1.221876E-3	3.889904E-3	-2.097768E-3	1.105593E-3	-3.770406E-3	-4.217413E-3	-4.441153E-3	4.906191E-3	-7.061861E-3	-3.204091E-3	-9.847562E-4	2.623022E-3	-6.941922E-4	6.236093E-3	3.708508E-3	-1.416744E-3	-6.238035E-3	3.455654E-3	1.574928E-3	2.573081E-3	1.572342E-3	4.350709E-3	2.459910E-3	-1.741445E-3	-3.095335E-3	-2.225783E-3	-4.965409E-3	-3.898598E-3	-4.768772E-3	-6.656139E-3	-7.634517E-3	-2.949088E-3	-9.163453E-3	5.237058E-4	1.509863E-3	-7.932338E-3	-5.652398E-3	5.817097E-3	8.068613E-3	6.682346E-3	-2.186897E-3	-2.881185E-3	5.731143E-3	6.383965E-3	-2.100892E-3	-1.200297E-3	4.187689E-5	-1.671028E-2	6.033355E-3	-4.555803E-3	1.742460E-3	-1.204153E-2	7.120471E-4	1.524445E-3	3.203409E-3	-3.869243E-3	-5.048156E-4	-3.696810E-3	-1.015199E-2	1.221136E-2	9.641780E-3
5.320070E+2	2.152510E-3	8.043417E-3	3.827880E-3	6.633210E-3	-1.895101E-4	-3.559953E-3	-1.836173E-3	1.074859E-2	-8.774788E-3	1.444990E-2	3.339646E-3	-3.373897E-3	-2.887328E-3	7.854947E-3	-2.735290E-3	2.512092E-3	3.966115E-3	2.469372E-3	-4.407722E-3	-5.402967E-3	-6.010523E-3	-5.216085E-3	5.754493E-3	4.427359E-3	-8.929105E-3	-1.062394E-2	5.048435E-3	1.290612E-3	-3.241830E-3	5.909193E-3	-1.703746E-3	-3.283760E-3	-1.548762E-3	7.951123E-3	3.989736E-3	-8.970281E-3	-1.809823E-3	-1.680516E-3	1.887524E-3	6.676721E-4	8.635513E-3	-2.362720E-3	-7.434031E-4	2.398977E-3	-2.459499E-3	3.811428E-3	3.178628E-3	-2.243005E-3	9.260487E-3	7.555304E-3	-5.495909E-3	-6.465510E-3	-1.492103E-3	-3.936274E-3	-3.643032E-3	4.464540E-3	6.940497E-3	-1.009941E-3	3.528414E-3	4.694015E-3	-3.724252E-4	-2.065434E-3	-6.182752E-3	1.964972E-3	1.469619E-4	-3.636859E-3	-3.422835E-3	-7.707080E-3	2.848815E-4	1.471256E-3	-7.517528E-4	-1.854922E-3	8.786127E-4	5.979983E-3	-8.233613E-3	-5.233273E-3	-3.532523E-3	1.055067E-3	9.722577E-3	-6.128780E-6	-3.364418E-3	-1.068210E-2	6.986835E-4	-8.752794E-4	8.619237E-3	5.295613E-3	7.699287E-4	5.145331E-3	-4.389993E-3	-4.645924E-3	5.193296E-3	2.014071E-3	-8.585886E-3	3.700944E-4	-2.438146E-3	-4.718235E-3	1.149653E-3	-2.852531E-3	-7.456817E-3	-2.839156E-3	4.907592E-3	-8.038522E-4	6.395750E-3	-3.406422E-3	-2.651517E-3	6.198980E-3	-5.373392E-3	-3.463831E-3	1.164954E-2	1.673782E-3	-6.902989E-3	3.045698E-3	2.823335E-3	-3.728949E-3	3.349799E-3	-2.326018E-3	1.369371E-3	-3.049934E-3	-5.426726E-3	6.724761E-3	-3.453834E-3	-2.563464E-3	4.880130E-3	-7.877243E-5	-4.133513E-3	4.410933E-4	-8.297535E-3	-5.460728E-3	-1.176247E-2	3.980351E-3	5.880275E-3	6.207135E-3	1.255487E-3	9.430020E-3	6.264157E-3	6.686489E-3	-8.505725E-3	8.953473E-3	-2.918959E-3	-6.300541E-4	-8.501014E-4	2.618180E-3	7.575223E-4	-5.617024E-3	-6.617848E-4	3.413429E-3	4.582491E-3	2.764432E-3	-6.630975E-3	1.258496E-3	-4.910226E-4	7.992277E-3	9.974273E-3	2.256197E-3	9.094124E-3	-1.354940E-3	1.166067E-2	-1.756424E-3	6.689014E-3	1.226119E-2	2.617284E-3	9.029584E-3	-4.479499E-3	4.913900E-3	6.529905E-3	-4.938240E-4
5.325070E+2	-1.870453E-3	8.075421E-3	3.056902E-3	5.020533E-3	-9.014807E-4	-1.377150E-3	-1.086204E-3	5.597789E-3	1.269040E-3	4.268947E-3	4.029325E-3	6.195751E-3	8.400198E-3	5.682912E-3	1.519736E-3	2.008488E-3	1.661297E-3	-1.776084E-3	6.198535E-3	2.867797E-3	5.985530E-3	5.227125E-3	-7.395436E-4	5.062003E-3	6.039548E-3	-3.872133E-3	-7.700872E-3	1.181021E-2	2.938133E-3	1.483391E-2	6.018339E-3	6.690350E-3	3.455033E-3	6.005374E-6	4.662749E-3	2.003898E-3	6.953798E-3	1.077587E-2	6.751784E-3	-2.750212E-3	2.571212E-3	7.311735E-3	5.476550E-4	1.320816E-2	-3.045581E-3	5.587825E-3	-1.077974E-4	7.265066E-3	1.326887E-3	7.602788E-3	1.421851E-2	1.403395E-3	-1.897834E-4	5.466746E-3	3.044824E-3	1.683221E-3	3.967580E-3	1.450327E-2	-7.499653E-3	5.424293E-3	2.776691E-3	3.078527E-3	2.286497E-3	7.667507E-3	8.330277E-4	-3.601531E-3	6.713661E-4	1.169193E-2	3.560544E-4	4.615865E-3	7.806442E-3	1.050789E-3	-7.628544E-3	9.274554E-4	1.155353E-2	4.217476E-3	5.109942E-3	-4.020716E-3	8.592840E-3	-3.859081E-3	2.357819E-3	8.050315E-3	2.716746E-3	7.065068E-3	3.333275E-3	1.169454E-2	-1.604314E-3	3.325616E-3	-9.816417E-3	3.051386E-3	-4.791219E-3	4.927240E-3	2.085458E-3	-2.038820E-3	1.090915E-2	9.236109E-3	-3.960081E-3	-2.804135E-3	1.408121E-3	1.074478E-3	-3.065439E-3	-4.920545E-3	-8.782422E-4	-3.937272E-3	3.939359E-4	-2.647055E-3	8.611760E-3	1.250648E-2	5.559105E-4	-8.063634E-5	1.113007E-2	-3.424816E-4	5.117007E-5	8.894649E-3	7.808682E-4	5.259327E-3	8.487381E-3	7.173594E-3	4.366547E-3	6.774973E-3	2.864199E-3	-1.066068E-3	5.620154E-3	1.199487E-2	3.316272E-3	-9.658590E-5	5.712136E-3	1.655906E-3	1.004186E-2	5.086315E-4	8.113669E-3	1.447731E-2	-1.816263E-3	2.396227E-3	4.270803E-3	-2.603360E-3	1.181051E-2	6.097548E-3	-4.979724E-3	2.411870E-3	5.618503E-3	2.095212E-3	-3.165736E-3	5.490267E-3	3.796495E-3	1.387153E-2	6.014985E-3	4.198917E-3	1.861589E-3	-7.912579E-3	1.480038E-3	-3.170987E-3	2.090335E-3	6.123195E-3	7.117868E-3	5.527733E-3	-6.360912E-3	1.777950E-4	-8.025297E-3	7.095403E-3	7.810893E-4	8.399205E-3	1.344868E-3	5.069473E-3	-1.474578E-2	1.232358E-2
5.330180E+2	1.620466E-2	4.702788E-3	2.181411E-2	1.112565E-2	9.071147E-3	-4.685965E-3	1.893135E-2	4.435199E-3	8.596745E-3	1.488133E-2	-3.603893E-3	9.298970E-3	6.764257E-3	1.389092E-2	1.407226E-2	9.410992E-3	9.075830E-3	1.759361E-2	5.221890E-3	1.215348E-2	1.397357E-2	6.125560E-3	9.694446E-3	1.380350E-2	1.617618E-2	1.946499E-2	1.355670E-2	3.635235E-3	1.508964E-2	7.234264E-4	8.960859E-3	1.373200E-2	1.692381E-2	5.680538E-3	6.276111E-3	1.205494E-2	7.941328E-3	1.801896E-2	8.301391E-3	2.578557E-2	-1.015113E-3	9.138100E-3	7.152437E-3	9.443672E-3	5.148695E-3	1.227458E-2	1.135956E-2	1.103886E-2	4.983735E-3	1.444959E-2	1.050098E-2	1.089313E-2	2.151485E-2	4.641695E-3	1.561103E-2	1.535424E-2	1.042604E-2	1.061417E-2	1.147136E-2	1.613003E-2	2.049939E-2	1.551403E-2	1.407512E-2	1.038835E-2	4.443636E-3	4.301408E-3	7.854067E-3	4.123978E-3	4.354202E-3	1.812142E-2	1.624964E-2	2.120031E-2	2.165892E-2	1.295616E-2	7.759360E-3	1.749126E-2	8.030698E-3	8.543954E-3	-6.290786E-4	6.642792E-3	1.482090E-2	1.259549E-2	1.416227E-2	1.828274E-2	2.542065E-3	2.894531E-3	1.525794E-2	3.721279E-3	4.751229E-3	1.872188E-3	1.503497E-2	5.323012E-3	5.812157E-3	5.715193E-3	1.023096E-2	2.428251E-2	1.277123E-2	1.480573E-2	1.608973E-2	1.511069E-2	9.333430E-3	7.933836E-3	6.874654E-3	7.982587E-3	3.031074E-3	4.440596E-3	1.172223E-2	3.155654E-3	2.143850E-3	1.362617E-2	1.212216E-2	6.034844E-4	1.743269E-2	1.129965E-2	1.100115E-2	1.050144E-2	6.942383E-3	1.906105E-2	1.459956E-2	4.754178E-3	1.824479E-3	8.852773E-3	1.235164E-2	1.040586E-2	1.548055E-2	1.091933E-2	1.059476E-2	9.712579E-3	1.731693E-2	7.242793E-3	1.070188E-2	6.019541E-3	1.984023E-2	1.379478E-2	2.306456E-2	1.538801E-2	1.631488E-2	1.232401E-2	1.996122E-2	1.262083E-2	1.049589E-2	1.670386E-2	1.325993E-2	1.844457E-2	1.052481E-2	1.802282E-3	7.069593E-3	9.839425E-3	1.828681E-2	1.300919E-2	1.839331E-2	9.912811E-3	2.358789E-2	1.573615E-2	1.230363E-2	1.238448E-2	8.027177E-3	1.507763E-2	1.404422E-2	7.552231E-3	1.221660E-2	5.147433E-3	1.328492E-2	9.896305E-3	2.345654E-2	2.504271E-3
5.331630E+2	8.253525E-3	1.609848E-2	1.310607E-2	1.700609E-2	2.193719E-2	1.572465E-2	1.468410E-2	8.255307E-3	2.589414E-3	1.019568E-2	1.046161E-2	1.422410E-2	2.029785E-2	1.067324E-2	1.474392E-2	1.061888E-2	-5.722875E-3	1.094853E-2	2.733239E-2	1.409699E-3	1.983172E-2	2.337996E-2	2.297184E-2	1.155841E-2	8.014487E-3	1.077544E-2	7.574832E-3	1.960642E-2	1.353607E-2	1.931139E-2	4.548694E-3	5.514996E-3	1.517212E-2	2.428310E-3	1.761309E-2	1.542469E-2	1.217550E-2	4.497203E-5	1.455140E-2	1.491015E-2	2.087987E-3	2.255290E-2	1.425663E-2	1.021923E-2	1.567538E-2	1.240029E-2	1.083951E-2	4.417044E-3	3.668473E-3	3.377527E-3	1.402478E-2	1.628948E-2	7.563909E-3	9.580642E-3	9.702863E-3	9.158846E-3	5.874654E-3	1.357589E-2	1.506241E-2	7.872923E-3	1.375005E-2	1.907198E-2	1.814059E-2	6.513620E-3	1.050629E-2	1.200195E-2	9.373482E-3	8.385673E-3	-3.775007E-3	1.768440E-2	7.236174E-3	1.621114E-2	5.470628E-3	2.483210E-2	4.358107E-3	1.495328E-2	2.552414E-2	1.580706E-2	1.836384E-2	5.130385E-3	4.798844E-3	4.665704E-3	6.548971E-3	2.206096E-2	1.717136E-2	1.377945E-2	2.102822E-2	1.083491E-2	8.184234E-3	1.205231E-2	1.856524E-2	1.634325E-2	1.743534E-2	2.073811E-2	1.207816E-2	1.513249E-2	1.815940E-2	2.446472E-3	3.992974E-3	1.464607E-2	1.225444E-2	2.186832E-2	1.813787E-2	1.752412E-3	6.201933E-3	2.268166E-2	1.188619E-2	2.076716E-2	2.666126E-2	2.048021E-2	1.173925E-2	3.637997E-3	1.405209E-2	2.616224E-2	1.510751E-2	1.655227E-3	6.428682E-3	2.589760E-2	1.805051E-2	2.719361E-2	5.475431E-3	1.415926E-2	1.249562E-2	9.876795E-3	1.750068E-2	4.554062E-3	1.267060E-2	3.566873E-2	9.922926E-3	-4.212363E-4	1.452651E-2	1.317799E-2	2.126379E-2	-3.394883E-4	1.433797E-2	2.145423E-2	1.481909E-2	2.561892E-2	1.237510E-2	3.607670E-3	1.256646E-2	5.010450E-3	1.055304E-2	1.389315E-2	2.056468E-2	8.212320E-3	1.195196E-2	6.681192E-3	1.073601E-2	1.050012E-2	1.727947E-2	1.516648E-2	9.560621E-4	1.356240E-2	8.322970E-3	1.763425E-2	5.346729E-3	2.283554E-2	1.535423E-2	1.417928E-2	2.036954E-2	1.339305E-2	2.661479E-3	1.105788E-2	3.200348E-3	7.765712E-3
5.333130E+2	1.888781E-2	5.367057E-3	2.169119E-2	1.841475E-2	7.579105E-3	1.983137E-2	1.735734E-2	2.070052E-2	2.489399E-2	1.478726E-2	1.755979E-2	1.194750E-2	1.473301E-2	2.107097E-2	9.235812E-3	1.480054E-2	1.131844E-2	1.812846E-2	7.802478E-3	1.907518E-2	2.151499E-2	1.599063E-2	2.036189E-2	1.074458E-2	1.309613E-2	1.800405E-2	1.481168E-2	4.045386E-2	2.739051E-2	1.127388E-2	1.918370E-2	8.112237E-3	1.746815E-2	2.097031E-2	2.987519E-2	2.490737E-2	1.844830E-2	1.799009E-2	1.800773E-2	2.104594E-2	8.805711E-3	1.781837E-2	2.802532E-2	2.423276E-2	2.524864E-2	1.218751E-2	1.730693E-2	1.866862E-2	2.613612E-2	1.630613E-2	1.581013E-2	2.134083E-2	1.540477E-2	1.831185E-2	9.537956E-3	2.505995E-2	1.324117E-2	1.829173E-2	7.198265E-3	1.175014E-2	1.355266E-2	2.056138E-2	2.079219E-2	1.378413E-2	2.590160E-2	1.726764E-2	3.505807E-2	2.438092E-2	1.494897E-2	1.997854E-2	1.379086E-2	1.893570E-2	2.963899E-2	9.246779E-3	1.906100E-2	2.014201E-2	2.589543E-2	2.847936E-2	2.179659E-2	1.225327E-2	3.512658E-2	2.420570E-2	1.283721E-2	2.182629E-2	9.783593E-3	2.571426E-2	1.717503E-2	1.823153E-2	4.017219E-3	1.338551E-2	1.296574E-2	1.539112E-2	8.541769E-3	1.928653E-2	1.245332E-2	5.584720E-3	1.967039E-2	2.284722E-2	1.816940E-2	3.201987E-2	3.069523E-2	2.350071E-2	7.454911E-3	1.433608E-2	1.054054E-2	1.130075E-2	1.102192E-2	1.705610E-2	2.830251E-2	1.843728E-2	2.144307E-2	1.503093E-2	9.579670E-3	2.125169E-2	2.080844E-2	1.873311E-2	7.536367E-3	1.419237E-2	-1.815462E-3	1.913934E-2	3.127014E-2	1.983384E-2	2.216196E-2	2.045659E-2	3.594791E-2	4.974422E-3	8.628210E-3	2.036109E-3	2.067691E-2	1.565797E-2	5.187343E-2	1.678679E-2	9.121816E-3	1.761799E-2	1.139892E-2	1.652626E-2	2.274699E-2	6.428987E-3	7.945767E-3	9.944604E-3	2.133750E-2	1.429585E-2	8.628080E-3	2.156510E-2	9.740872E-3	1.496020E-2	1.174500E-2	2.490364E-2	6.678516E-3	1.559393E-2	2.660687E-2	8.577230E-3	2.103917E-2	2.256925E-2	2.319780E-2	3.268883E-2	1.076657E-2	2.259371E-2	5.986519E-3	1.339072E-2	1.649427E-2	1.905347E-2	1.899454E-2	2.115533E-2	1.900685E-2	3.065333E-2
5.334630E+2	1.418111E-2	5.238896E-3	1.112292E-2	2.995191E-2	2.248798E-2	1.840569E-2	1.224783E-2	1.316491E-2	1.712494E-2	1.478216E-2	1.628830E-2	1.332743E-2	3.229332E-2	1.683033E-2	2.119135E-2	2.209623E-2	2.867641E-2	2.197079E-2	2.187540E-2	1.470635E-2	3.452477E-2	1.725915E-2	1.626162E-2	1.148595E-2	1.380955E-2	2.698916E-2	1.554637E-2	2.548599E-2	2.769281E-2	2.212803E-2	2.322418E-2	2.785959E-2	2.264484E-2	1.297936E-2	1.217203E-2	1.723723E-2	1.099540E-2	1.172787E-2	2.989606E-2	1.950692E-2	1.570890E-2	9.554787E-3	2.311794E-2	2.846612E-2	1.188681E-2	2.939796E-2	2.651587E-2	1.271584E-2	1.894323E-2	2.572831E-2	1.314652E-2	1.282527E-2	1.825968E-2	1.955227E-2	2.445480E-2	1.780818E-2	1.472078E-2	1.341339E-2	2.471863E-2	9.725352E-3	1.997060E-2	1.735966E-2	2.326749E-2	2.366226E-2	1.696992E-2	1.669747E-2	1.949255E-2	1.159941E-2	3.677631E-2	2.011614E-2	2.685301E-2	1.268441E-2	2.586913E-2	2.315190E-2	2.562305E-2	3.327535E-2	1.182560E-2	2.152309E-2	2.256635E-2	9.618661E-3	2.002033E-2	1.344662E-2	8.991842E-3	1.822547E-2	2.022384E-2	3.445039E-2	1.540672E-2	1.832414E-2	3.872913E-3	2.889688E-2	2.249435E-2	1.906792E-2	1.196253E-2	2.755382E-2	2.049238E-2	1.628586E-2	2.040764E-2	1.641215E-2	9.263038E-3	1.198860E-2	3.534940E-2	1.826329E-2	2.180877E-2	2.444866E-2	2.041305E-2	2.790022E-2	2.929783E-2	1.495364E-2	2.285734E-2	1.494997E-2	2.726240E-2	1.755058E-2	2.533033E-2	2.339121E-2	3.290233E-2	1.116032E-2	1.603047E-2	2.166260E-2	2.259668E-2	2.354875E-2	1.512968E-2	3.924096E-2	3.294637E-2	1.444584E-2	2.179582E-2	1.699536E-2	2.290215E-2	1.319545E-2	2.426136E-2	8.566998E-3	1.947384E-2	1.691002E-2	2.626589E-2	1.579953E-2	2.862725E-2	2.682643E-2	2.522085E-2	2.548902E-2	5.085032E-3	1.201634E-2	2.215841E-2	2.586193E-2	2.268804E-2	2.396686E-2	2.040640E-2	1.997263E-2	3.295228E-2	1.378289E-2	2.033912E-2	2.969518E-3	2.941647E-2	2.083911E-2	2.762228E-2	2.649643E-2	1.293650E-2	2.993657E-2	1.289261E-2	3.556704E-2	2.053646E-2	3.611460E-2	2.312473E-2	3.250326E-2	1.726283E-2	1.257749E-2	8.053541E-3	3.936465E-2
5.336130E+2	2.195244E-2	2.463540E-2	4.150522E-2	2.961796E-2	2.966145E-2	2.541435E-2	2.664805E-2	3.537477E-2	2.074547E-2	2.418059E-2	2.872828E-2	1.238137E-2	1.787937E-2	1.038757E-2	1.184837E-2	2.130191E-2	1.651490E-2	3.036733E-2	3.030220E-2	1.702103E-2	1.759989E-2	2.757368E-2	1.603680E-2	3.103558E-2	2.339074E-2	2.326818E-2	3.435310E-2	2.386558E-2	3.024271E-2	2.356338E-2	2.359835E-2	3.205690E-2	1.986587E-2	3.428378E-2	2.852507E-2	2.481667E-2	2.137779E-2	2.846067E-2	3.638981E-2	2.748756E-2	1.705074E-2	1.618632E-2	3.317835E-2	2.888820E-2	2.646737E-2	3.093856E-2	1.569209E-2	1.758435E-2	1.340823E-2	3.476356E-2	2.184309E-2	2.257791E-2	2.068929E-2	3.296987E-2	3.083687E-2	2.798459E-2	2.371975E-2	2.313267E-2	7.003999E-3	1.165549E-2	2.416861E-2	2.515450E-2	3.096863E-2	1.937076E-2	1.861026E-2	2.813511E-2	1.506634E-2	2.544303E-2	2.214872E-2	3.551001E-2	1.661628E-2	2.922587E-2	2.003895E-2	2.724927E-2	1.668590E-2	2.744317E-2	1.592297E-2	2.510492E-2	3.310313E-2	1.499669E-2	2.679735E-2	1.381099E-2	2.369502E-2	2.590870E-2	2.672512E-2	1.250293E-2	3.046638E-2	2.243409E-2	2.921380E-2	1.767458E-2	3.300961E-2	2.965834E-2	2.731321E-2	2.659739E-2	1.682797E-2	3.185916E-2	2.598637E-2	1.810088E-2	3.367736E-2	3.067876E-2	2.521805E-2	2.040225E-2	2.767456E-2	3.288644E-2	3.307085E-2	2.740785E-2	1.144378E-2	2.239151E-2	1.440427E-2	3.115596E-2	2.806516E-2	3.647569E-2	1.571884E-2	2.711385E-2	2.990788E-2	2.618575E-2	1.380512E-2	2.439137E-2	2.490988E-2	2.810627E-2	3.603342E-2	1.588170E-2	2.477870E-2	3.247250E-2	2.965192E-2	2.148298E-2	2.451377E-2	2.837875E-2	3.497072E-2	2.752731E-2	3.549406E-2	2.176659E-2	3.479562E-2	2.203445E-2	3.172840E-2	1.230668E-2	2.571111E-2	3.395714E-2	2.040642E-2	2.489273E-2	3.606657E-2	2.673486E-2	1.950387E-2	2.845046E-2	3.572061E-2	2.385846E-2	3.260445E-2	1.484245E-2	2.520045E-2	1.876825E-2	2.653287E-2	2.569320E-2	1.093159E-2	2.770886E-2	3.336179E-2	2.519756E-2	2.957758E-2	1.931361E-2	3.179744E-2	3.104714E-2	1.988232E-2	1.361485E-2	1.947584E-2	4.237318E-2	2.390445E-2	2.091076E-2
5.337840E+2	3.794604E-2	3.026878E-2	5.794467E-2	4.135850E-2	2.957847E-2	3.504469E-2	2.016839E-2	3.106181E-2	3.054214E-2	2.829955E-2	3.096802E-2	3.546997E-2	2.654850E-2	3.007035E-2	2.978270E-2	4.593405E-2	4.516792E-2	3.497695E-2	3.791683E-2	3.659010E-2	3.250443E-2	3.462171E-2	3.843462E-2	2.652734E-2	4.397114E-2	3.033204E-2	3.526858E-2	4.077260E-2	3.445009E-2	3.176508E-2	2.767576E-2	3.465076E-2	3.910841E-2	5.021217E-2	3.427571E-2	2.506498E-2	2.950598E-2	4.070124E-2	4.873611E-2	3.062558E-2	3.123558E-2	2.684708E-2	3.159994E-2	4.231061E-2	4.864478E-2	2.185913E-2	4.091948E-2	2.446751E-2	2.982028E-2	3.647258E-2	3.799691E-2	3.086998E-2	2.699079E-2	3.145512E-2	3.174744E-2	4.273727E-2	1.684197E-2	4.077237E-2	3.323187E-2	1.378547E-2	2.761153E-2	3.349169E-2	4.039599E-2	3.099819E-2	3.435621E-2	3.363544E-2	4.411842E-2	4.925828E-2	3.781640E-2	3.571696E-2	3.821135E-2	2.697235E-2	4.784666E-2	3.615144E-2	3.184267E-2	2.688812E-2	3.608774E-2	3.566712E-2	3.685488E-2	3.000990E-2	3.856749E-2	3.345523E-2	2.891471E-2	3.687484E-2	2.807514E-2	3.697286E-2	3.927918E-2	3.723627E-2	5.501818E-2	3.640126E-2	3.863195E-2	3.197331E-2	2.314099E-2	3.051275E-2	2.999871E-2	2.323201E-2	2.978425E-2	2.016869E-2	2.671820E-2	3.087093E-2	3.196133E-2	2.778386E-2	2.287026E-2	3.198226E-2	4.483793E-2	3.792934E-2	3.791911E-2	2.875761E-2	3.093368E-2	2.152819E-2	3.055698E-2	1.741281E-2	3.299382E-2	5.366525E-2	4.075340E-2	2.559576E-2	4.343533E-2	3.072687E-2	2.906532E-2	3.196032E-2	5.407856E-2	4.054487E-2	3.557105E-2	4.084596E-2	3.613632E-2	2.889260E-2	3.442640E-2	2.981231E-2	4.213844E-2	3.556348E-2	3.785533E-2	4.778708E-2	3.250048E-2	1.689268E-2	4.228019E-2	3.154586E-2	4.557946E-2	2.521045E-2	3.189808E-2	4.235436E-2	4.154187E-2	3.791828E-2	2.086636E-2	3.460424E-2	3.087303E-2	2.776055E-2	4.650763E-2	2.956830E-2	1.297846E-2	4.546901E-2	5.256935E-2	3.231276E-2	2.313671E-2	2.941219E-2	4.186006E-2	3.559446E-2	3.113512E-2	3.420810E-2	3.034752E-2	3.610613E-2	3.023076E-2	2.330629E-2	3.111421E-2	4.541382E-2	5.133068E-2	6.606482E-2
5.339090E+2	3.625677E-2	4.077352E-2	4.793125E-2	3.888270E-2	4.427601E-2	4.677686E-2	5.558536E-2	5.148375E-2	3.068622E-2	4.284840E-2	3.147885E-2	2.900778E-2	3.679728E-2	3.389189E-2	3.231061E-2	4.354341E-2	3.502626E-2	4.996336E-2	2.966577E-2	3.968119E-2	2.762910E-2	4.403438E-2	3.645631E-2	2.829604E-2	3.407532E-2	3.914757E-2	3.389098E-2	4.070844E-2	4.381453E-2	4.597636E-2	4.132936E-2	4.247677E-2	4.251404E-2	3.939102E-2	2.406169E-2	2.704459E-2	3.675457E-2	3.990541E-2	4.358533E-2	2.982520E-2	2.821288E-2	3.806817E-2	5.799930E-2	6.009209E-2	3.642526E-2	4.468771E-2	2.427913E-2	2.265553E-2	3.521161E-2	3.160652E-2	4.069188E-2	3.470687E-2	3.372967E-2	3.060842E-2	3.020990E-2	2.981187E-2	5.359986E-2	3.552941E-2	3.090783E-2	4.227267E-2	3.188672E-2	4.194818E-2	4.307891E-2	3.359594E-2	4.073177E-2	3.685626E-2	3.561202E-2	3.745104E-2	2.982621E-2	3.046149E-2	4.731436E-2	2.913695E-2	5.383103E-2	3.744617E-2	3.164059E-2	4.112818E-2	4.261238E-2	3.940332E-2	2.994167E-2	2.697099E-2	3.965798E-2	3.892239E-2	4.311366E-2	3.209089E-2	3.148489E-2	4.614580E-2	4.153844E-2	4.598234E-2	3.389070E-2	3.934755E-2	3.094366E-2	3.252134E-2	3.792779E-2	4.100286E-2	2.983520E-2	4.440624E-2	3.182206E-2	4.214348E-2	3.338540E-2	3.465037E-2	4.902425E-2	4.524735E-2	3.082821E-2	4.300151E-2	5.077754E-2	2.185214E-2	5.061206E-2	3.990917E-2	3.647384E-2	5.091539E-2	3.319019E-2	4.427379E-2	3.926583E-2	3.245820E-2	4.723050E-2	3.384320E-2	3.731873E-2	4.525265E-2	3.819243E-2	4.829075E-2	3.747417E-2	4.482687E-2	5.255781E-2	5.568211E-2	3.597093E-2	4.555795E-2	3.359384E-2	2.354386E-2	2.664274E-2	4.973281E-2	5.784447E-2	3.919532E-2	3.679443E-2	5.291576E-2	3.308850E-2	3.138988E-2	4.950540E-2	3.465243E-2	3.956036E-2	2.423575E-2	2.833596E-2	3.054307E-2	3.297052E-2	2.860642E-2	3.223107E-2	3.326704E-2	3.327397E-2	3.875682E-2	4.347561E-2	2.904642E-2	3.298051E-2	4.510352E-2	4.270689E-2	3.782546E-2	3.958927E-2	2.802238E-2	4.449485E-2	4.308648E-2	3.543861E-2	4.490844E-2	4.037491E-2	4.810624E-2	4.181391E-2	5.044065E-2	3.929478E-2	2.694752E-2
5.340640E+2	4.169611E-2	6.567516E-2	6.462729E-2	5.403873E-2	4.734094E-2	6.432958E-2	6.202004E-2	5.901254E-2	4.955296E-2	6.854509E-2	6.433704E-2	6.432349E-2	6.968588E-2	4.570376E-2	5.054596E-2	5.840902E-2	5.277396E-2	4.347301E-2	6.188293E-2	4.657636E-2	4.553850E-2	6.484983E-2	4.531727E-2	4.936298E-2	5.904158E-2	5.970141E-2	4.665535E-2	5.995163E-2	5.423656E-2	5.320679E-2	4.435557E-2	4.232016E-2	5.974806E-2	5.022628E-2	5.004393E-2	5.523425E-2	5.438908E-2	4.351134E-2	6.415204E-2	7.095677E-2	4.091816E-2	6.306294E-2	4.746891E-2	5.030859E-2	5.009370E-2	4.241380E-2	4.923879E-2	5.324420E-2	6.434451E-2	5.550184E-2	5.155691E-2	5.328044E-2	5.235093E-2	4.314200E-2	6.478482E-2	5.139856E-2	5.388851E-2	4.478806E-2	5.046855E-2	4.906066E-2	8.716070E-2	6.675774E-2	5.447581E-2	6.180748E-2	4.506019E-2	7.635281E-2	4.780490E-2	5.422713E-2	6.085947E-2	5.436809E-2	6.268155E-2	5.422267E-2	5.423977E-2	5.271640E-2	4.432073E-2	4.706528E-2	6.316729E-2	6.606773E-2	5.055984E-2	4.741965E-2	4.331244E-2	5.670063E-2	4.421128E-2	6.767301E-2	5.871525E-2	6.179487E-2	5.684574E-2	5.540086E-2	6.574394E-2	6.175945E-2	6.285190E-2	6.447052E-2	5.608036E-2	7.418272E-2	5.981975E-2	5.616987E-2	5.758455E-2	6.280443E-2	6.490077E-2	5.759082E-2	6.477146E-2	7.376269E-2	5.503546E-2	5.231126E-2	6.436216E-2	5.789305E-2	4.971731E-2	6.943273E-2	6.676113E-2	6.499357E-2	6.609510E-2	5.298337E-2	5.700219E-2	6.953332E-2	5.972853E-2	4.690840E-2	6.808776E-2	5.370684E-2	4.995867E-2	4.690458E-2	5.652003E-2	5.050344E-2	4.869918E-2	6.302366E-2	5.220743E-2	5.989449E-2	6.005288E-2	6.527166E-2	5.631990E-2	7.470550E-2	6.055927E-2	5.908514E-2	5.765590E-2	5.009915E-2	7.030779E-2	5.579984E-2	4.828360E-2	6.325346E-2	5.431062E-2	5.193360E-2	5.485579E-2	6.059337E-2	4.451044E-2	5.038046E-2	5.209317E-2	4.647560E-2	5.019869E-2	6.063195E-2	5.964946E-2	7.016975E-2	6.322568E-2	6.246219E-2	4.562181E-2	6.412810E-2	5.116500E-2	5.731406E-2	5.924388E-2	5.644479E-2	5.864536E-2	5.556103E-2	6.822389E-2	7.493041E-2	6.074089E-2	5.299245E-2	4.860686E-2	1.943113E-2
5.342040E+2	8.339737E-2	5.861355E-2	7.828788E-2	5.090518E-2	8.121523E-2	7.753977E-2	7.967310E-2	8.529852E-2	5.731942E-2	7.539665E-2	6.349541E-2	8.162312E-2	6.827612E-2	7.640756E-2	7.641928E-2	8.164299E-2	7.748706E-2	7.660142E-2	6.850725E-2	6.398992E-2	7.937876E-2	7.434231E-2	7.677846E-2	6.321652E-2	6.456587E-2	8.455984E-2	6.434627E-2	8.265501E-2	5.990712E-2	8.617987E-2	7.839994E-2	6.375909E-2	6.911142E-2	7.614941E-2	8.426012E-2	8.360700E-2	7.597104E-2	8.058358E-2	7.088891E-2	8.026161E-2	6.565447E-2	7.963588E-2	7.792363E-2	8.482344E-2	7.709581E-2	7.506254E-2	6.843137E-2	8.145568E-2	6.616678E-2	8.838477E-2	7.096434E-2	9.354006E-2	8.642224E-2	9.728304E-2	8.151388E-2	7.018017E-2	7.769199E-2	7.429570E-2	7.737281E-2	7.709894E-2	7.890339E-2	8.597313E-2	6.187669E-2	6.867624E-2	8.047207E-2	7.500787E-2	7.058951E-2	7.265711E-2	6.877077E-2	6.936613E-2	6.760672E-2	7.302863E-2	8.724790E-2	9.789799E-2	5.147136E-2	5.873884E-2	7.479834E-2	7.134639E-2	8.846945E-2	6.967362E-2	7.670262E-2	6.314262E-2	6.512746E-2	6.969733E-2	5.911425E-2	6.889262E-2	8.152984E-2	7.960264E-2	6.235356E-2	8.517994E-2	8.326900E-2	8.035892E-2	1.145645E-1	8.412526E-2	8.474308E-2	7.628026E-2	6.116836E-2	6.605759E-2	5.648004E-2	6.474490E-2	7.795085E-2	7.425296E-2	8.059137E-2	7.345194E-2	7.732215E-2	7.444597E-2	7.749739E-2	6.430912E-2	8.189468E-2	6.178984E-2	7.271438E-2	7.113568E-2	8.498661E-2	7.484459E-2	9.509275E-2	6.928798E-2	8.574897E-2	7.510036E-2	6.050116E-2	7.866175E-2	7.714518E-2	6.237176E-2	7.513978E-2	6.837545E-2	8.885478E-2	7.607315E-2	7.556373E-2	8.526764E-2	9.593801E-2	7.022428E-2	8.065902E-2	7.128515E-2	9.139377E-2	7.175634E-2	6.737861E-2	8.509345E-2	7.970717E-2	7.276302E-2	6.778418E-2	5.980604E-2	7.695770E-2	7.196701E-2	6.431306E-2	6.472978E-2	7.858155E-2	7.266555E-2	8.038252E-2	7.793104E-2	8.698345E-2	6.392555E-2	6.246372E-2	7.924972E-2	6.035447E-2	7.496582E-2	7.058307E-2	6.164212E-2	7.841741E-2	9.695163E-2	8.015280E-2	7.346021E-2	7.843924E-2	6.724982E-2	7.826562E-2	6.546733E-2	8.108289E-2	6.391217E-2
5.343550E+2	9.898645E-2	7.994595E-2	1.019068E-1	1.242886E-1	1.183717E-1	8.346592E-2	1.126774E-1	1.097826E-1	1.085251E-1	1.122566E-1	1.269895E-1	1.169916E-1	9.990390E-2	1.159680E-1	1.116052E-1	1.123155E-1	9.345098E-2	9.829312E-2	1.170860E-1	9.944869E-2	1.141263E-1	1.329993E-1	1.260246E-1	1.045373E-1	1.143184E-1	1.219270E-1	1.105076E-1	1.086265E-1	9.200131E-2	1.178308E-1	9.114266E-2	1.086351E-1	1.168291E-1	1.185466E-1	1.095749E-1	9.919033E-2	9.991105E-2	1.235225E-1	1.240811E-1	1.108941E-1	1.000795E-1	9.758671E-2	1.155254E-1	1.010166E-1	1.187961E-1	1.041915E-1	1.097481E-1	1.107363E-1	1.307104E-1	1.088946E-1	1.082001E-1	9.987469E-2	8.733928E-2	1.123801E-1	1.389688E-1	1.227034E-1	8.497047E-2	1.000127E-1	1.103668E-1	9.698486E-2	1.150033E-1	1.098749E-1	1.097760E-1	1.016102E-1	1.126684E-1	8.985887E-2	1.216749E-1	1.167045E-1	1.041045E-1	1.104629E-1	1.312041E-1	1.143555E-1	1.222453E-1	1.089867E-1	1.082135E-1	1.032591E-1	1.131408E-1	1.026866E-1	1.146137E-1	9.832306E-2	1.135468E-1	1.134432E-1	9.975990E-2	1.169488E-1	1.221929E-1	1.220518E-1	1.043169E-1	1.130195E-1	9.757678E-2	9.511489E-2	1.046987E-1	9.448876E-2	1.340338E-1	1.129578E-1	1.213825E-1	1.073137E-1	1.154182E-1	1.102963E-1	9.748556E-2	1.035763E-1	1.149758E-1	1.292581E-1	1.118650E-1	1.017309E-1	1.060424E-1	1.111551E-1	9.064376E-2	8.491303E-2	1.013133E-1	1.149380E-1	1.154608E-1	9.637480E-2	9.672900E-2	1.181523E-1	1.116197E-1	1.040803E-1	1.326087E-1	8.528420E-2	1.164067E-1	1.017880E-1	1.162202E-1	9.984587E-2	8.814382E-2	1.098738E-1	1.121718E-1	1.080581E-1	1.244424E-1	9.703294E-2	1.110090E-1	9.421195E-2	1.086380E-1	1.067789E-1	1.240171E-1	9.654944E-2	1.038059E-1	1.103091E-1	9.797000E-2	1.094258E-1	9.303359E-2	1.021886E-1	1.147625E-1	1.192885E-1	1.011973E-1	1.071438E-1	1.069799E-1	8.635196E-2	9.857764E-2	1.227648E-1	1.157022E-1	1.249661E-1	1.083549E-1	1.129530E-1	1.225847E-1	1.223755E-1	1.128676E-1	9.741414E-2	1.189509E-1	1.032350E-1	1.153453E-1	1.380038E-1	1.188607E-1	1.013153E-1	1.052153E-1	1.091894E-1	1.110761E-1	1.182614E-1
5.345160E+2	1.792825E-1	1.530433E-1	1.607327E-1	1.870605E-1	1.561912E-1	1.709401E-1	1.842677E-1	1.702243E-1	1.667216E-1	1.572721E-1	1.839621E-1	1.434212E-1	1.670865E-1	1.704203E-1	1.616710E-1	1.648112E-1	1.790954E-1	1.733639E-1	1.461540E-1	1.686711E-1	1.564274E-1	1.446767E-1	1.864756E-1	1.631622E-1	1.432589E-1	2.036327E-1	1.488639E-1	1.327194E-1	1.724783E-1	1.843427E-1	1.452420E-1	1.627416E-1	1.703638E-1	1.586177E-1	1.676637E-1	1.613524E-1	1.806286E-1	1.672112E-1	1.825713E-1	1.784884E-1	1.514123E-1	1.781829E-1	1.735967E-1	1.580699E-1	1.604470E-1	1.502477E-1	1.817938E-1	1.573267E-1	1.763696E-1	1.838998E-1	1.703360E-1	1.757376E-1	1.558368E-1	1.678330E-1	1.968080E-1	1.721842E-1	1.688125E-1	1.725439E-1	1.646147E-1	1.627041E-1	1.781469E-1	1.756176E-1	1.742914E-1	1.695014E-1	1.699770E-1	1.588753E-1	1.691018E-1	1.587346E-1	1.810604E-1	1.839395E-1	1.712293E-1	1.712640E-1	1.469187E-1	1.881984E-1	1.561407E-1	1.538803E-1	1.753162E-1	1.754806E-1	1.797100E-1	1.629532E-1	1.600973E-1	1.408927E-1	1.626982E-1	1.501186E-1	1.674475E-1	1.852331E-1	1.518236E-1	1.847085E-1	1.658355E-1	1.811871E-1	1.683891E-1	1.923575E-1	1.842792E-1	1.683308E-1	1.625704E-1	1.780795E-1	1.980769E-1	2.203220E-1	1.769697E-1	1.569811E-1	1.594664E-1	1.711566E-1	1.593086E-1	1.626440E-1	1.506018E-1	1.736453E-1	1.702600E-1	1.702044E-1	1.551289E-1	1.883917E-1	1.826450E-1	1.706937E-1	1.718347E-1	1.661303E-1	1.425092E-1	1.721003E-1	1.778926E-1	1.767706E-1	1.667162E-1	1.771738E-1	1.704125E-1	1.741593E-1	1.865445E-1	1.941400E-1	1.875021E-1	1.732547E-1	1.426204E-1	1.747554E-1	1.922263E-1	1.652904E-1	1.689436E-1	1.622281E-1	1.676324E-1	1.676409E-1	1.708674E-1	1.827762E-1	1.797906E-1	1.638345E-1	1.766161E-1	1.765318E-1	1.897159E-1	1.795437E-1	1.820072E-1	1.636721E-1	1.524822E-1	1.781009E-1	1.595559E-1	1.766365E-1	1.636388E-1	1.589500E-1	1.670624E-1	1.658711E-1	1.930770E-1	1.695715E-1	1.717785E-1	1.712602E-1	1.814732E-1	1.694566E-1	1.664481E-1	1.662234E-1	2.038133E-1	1.618288E-1	1.499437E-1	1.756459E-1	1.840949E-1	1.629818E-1
5.346670E+2	2.632392E-1	2.885255E-1	2.868736E-1	2.289053E-1	2.669825E-1	2.508935E-1	2.715342E-1	2.868658E-1	2.487882E-1	2.709244E-1	2.592987E-1	2.670789E-1	2.725085E-1	2.632858E-1	2.610823E-1	2.748960E-1	2.624033E-1	2.546369E-1	2.633426E-1	2.417707E-1	2.527618E-1	2.927676E-1	2.541814E-1	2.841815E-1	2.604990E-1	2.684312E-1	2.438108E-1	2.842110E-1	2.538053E-1	2.640111E-1	2.754425E-1	2.487687E-1	2.915955E-1	2.672204E-1	2.703440E-1	2.640892E-1	2.855274E-1	2.334953E-1	2.754531E-1	2.834984E-1	2.537921E-1	2.582449E-1	2.611425E-1	2.506322E-1	2.772346E-1	2.459630E-1	2.333041E-1	2.501252E-1	2.546888E-1	2.480020E-1	2.700686E-1	2.663304E-1	2.495102E-1	2.816793E-1	2.432629E-1	2.735866E-1	2.684886E-1	2.742461E-1	2.546639E-1	2.418832E-1	2.610872E-1	2.525694E-1	2.590671E-1	2.539321E-1	2.571963E-1	2.821368E-1	2.765968E-1	2.820863E-1	2.625469E-1	2.875978E-1	2.727421E-1	2.494751E-1	2.801702E-1	2.507722E-1	2.776616E-1	2.441783E-1	2.631444E-1	2.528761E-1	2.700303E-1	2.454009E-1	2.728305E-1	2.422647E-1	2.537390E-1	2.340488E-1	2.428064E-1	2.901517E-1	2.704001E-1	2.749808E-1	2.269996E-1	2.695705E-1	2.809415E-1	2.536129E-1	2.714902E-1	3.013580E-1	2.559372E-1	2.535611E-1	2.524361E-1	2.799949E-1	2.744669E-1	2.423664E-1	2.654596E-1	2.792689E-1	2.419625E-1	2.828849E-1	2.524165E-1	2.835523E-1	2.819896E-1	2.881786E-1	2.816529E-1	2.674689E-1	2.666434E-1	2.561247E-1	2.620799E-1	2.792133E-1	2.694548E-1	2.550856E-1	2.757614E-1	2.670439E-1	2.763902E-1	2.607355E-1	2.805796E-1	3.007437E-1	2.886385E-1	2.578688E-1	2.699474E-1	2.652364E-1	2.502901E-1	2.648136E-1	2.565038E-1	2.690446E-1	2.610269E-1	2.693322E-1	2.826191E-1	2.574600E-1	2.673441E-1	2.817836E-1	2.807388E-1	2.655622E-1	2.508327E-1	2.763292E-1	2.468236E-1	2.884920E-1	2.532314E-1	2.707740E-1	2.509211E-1	2.439789E-1	2.767457E-1	2.616233E-1	2.656425E-1	2.737074E-1	3.094345E-1	2.679521E-1	2.844288E-1	2.896201E-1	2.890563E-1	2.861578E-1	2.318058E-1	2.681471E-1	2.440288E-1	2.694580E-1	2.469970E-1	2.928922E-1	2.677620E-1	2.551591E-1	2.653565E-1	2.573346E-1
5.348180E+2	4.571789E-1	4.390060E-1	4.797072E-1	4.014961E-1	4.324868E-1	4.532324E-1	4.130613E-1	4.394770E-1	4.004433E-1	4.628967E-1	4.374590E-1	4.157747E-1	4.234271E-1	4.273551E-1	4.241904E-1	4.533198E-1	4.471039E-1	4.536516E-1	4.459636E-1	4.379265E-1	3.952909E-1	4.573518E-1	4.363117E-1	4.386216E-1	4.667896E-1	4.409357E-1	4.273443E-1	4.410720E-1	4.077189E-1	4.440276E-1	4.380573E-1	4.202858E-1	4.342070E-1	4.412186E-1	4.323872E-1	4.795562E-1	4.276843E-1	4.522089E-1	4.471897E-1	4.515598E-1	3.954343E-1	5.027149E-1	4.340917E-1	4.502340E-1	4.453864E-1	4.660483E-1	4.428979E-1	4.308373E-1	4.459324E-1	4.322125E-1	4.432222E-1	4.225902E-1	4.554273E-1	4.507797E-1	4.314409E-1	4.313282E-1	4.457311E-1	4.321753E-1	4.219470E-1	4.695877E-1	4.661455E-1	4.032174E-1	4.370179E-1	4.364056E-1	4.421465E-1	4.615859E-1	4.239165E-1	4.305972E-1	4.345283E-1	4.173791E-1	4.810781E-1	4.369111E-1	4.538805E-1	4.497912E-1	3.763299E-1	4.519869E-1	4.277636E-1	4.397324E-1	4.562632E-1	4.167557E-1	4.664826E-1	4.479787E-1	4.525788E-1	4.468770E-1	4.210861E-1	4.680306E-1	4.616657E-1	4.425714E-1	4.357822E-1	4.415804E-1	4.349341E-1	5.062423E-1	4.235916E-1	4.423995E-1	4.416835E-1	4.134735E-1	4.296992E-1	4.400153E-1	4.246124E-1	4.414381E-1	4.399612E-1	4.708557E-1	4.608491E-1	4.268659E-1	4.381928E-1	4.216697E-1	4.185181E-1	4.196887E-1	4.601371E-1	4.437669E-1	4.014396E-1	4.675692E-1	4.287608E-1	4.343921E-1	4.626385E-1	4.144905E-1	4.440672E-1	4.037442E-1	4.803726E-1	4.750498E-1	4.526269E-1	4.746540E-1	4.637263E-1	4.334287E-1	4.487304E-1	4.271564E-1	4.295642E-1	4.484630E-1	4.734391E-1	4.559311E-1	4.316848E-1	4.836523E-1	4.494442E-1	4.494838E-1	4.427825E-1	4.765708E-1	4.648739E-1	4.526113E-1	4.566457E-1	4.305912E-1	4.428140E-1	4.401252E-1	4.129222E-1	4.392386E-1	4.145179E-1	4.303912E-1	4.523506E-1	4.495499E-1	4.395169E-1	4.426348E-1	4.686983E-1	4.273806E-1	4.392091E-1	4.330938E-1	4.677038E-1	4.167218E-1	4.178357E-1	4.593084E-1	4.339890E-1	4.252398E-1	4.516129E-1	4.527071E-1	4.383440E-1	4.643876E-1	4.480381E-1	4.284615E-1
5.349580E+2	7.314023E-1	7.280370E-1	7.805236E-1	7.098458E-1	7.555911E-1	7.859560E-1	7.228145E-1	7.466275E-1	6.928699E-1	7.013023E-1	7.286705E-1	7.135769E-1	7.773525E-1	7.343245E-1	7.166687E-1	7.164322E-1	7.280647E-1	7.151573E-1	7.727195E-1	6.797678E-1	7.004882E-1	7.395894E-1	7.061549E-1	7.156166E-1	7.199676E-1	7.316936E-1	7.401223E-1	7.468836E-1	7.189769E-1	7.586395E-1	7.563742E-1	7.482704E-1	7.272886E-1	7.496052E-1	7.268110E-1	7.100870E-1	7.270134E-1	6.989347E-1	7.434019E-1	7.614675E-1	6.991154E-1	7.385707E-1	7.430108E-1	7.029019E-1	7.578816E-1	7.465096E-1	7.170995E-1	7.304548E-1	6.984591E-1	7.641274E-1	7.383967E-1	6.998344E-1	7.511540E-1	7.518546E-1	7.385766E-1	7.187848E-1	7.362981E-1	7.238864E-1	7.194364E-1	7.773729E-1	7.373833E-1	7.774969E-1	6.935819E-1	7.357291E-1	7.165181E-1	7.432505E-1	6.998389E-1	7.253991E-1	7.151275E-1	7.598758E-1	7.423930E-1	7.245992E-1	7.340349E-1	7.098536E-1	7.450294E-1	7.153581E-1	7.189373E-1	6.868331E-1	7.242037E-1	7.347835E-1	7.344428E-1	7.226106E-1	7.116438E-1	7.569375E-1	7.057666E-1	7.571118E-1	7.271979E-1	7.344610E-1	7.075351E-1	7.760736E-1	7.536587E-1	7.518019E-1	7.385973E-1	7.738342E-1	7.143122E-1	7.347434E-1	7.560371E-1	7.130505E-1	7.626326E-1	7.403071E-1	6.795863E-1	7.362072E-1	7.240905E-1	7.208330E-1	7.678811E-1	7.824893E-1	7.413355E-1	7.274471E-1	7.416117E-1	7.678830E-1	7.386377E-1	7.469921E-1	7.369405E-1	6.953149E-1	7.260487E-1	7.230855E-1	7.300426E-1	7.237094E-1	7.468645E-1	7.289894E-1	7.178975E-1	7.004277E-1	7.328228E-1	7.559618E-1	7.513630E-1	7.341738E-1	7.338902E-1	7.316545E-1	7.069666E-1	7.700077E-1	7.230867E-1	7.244482E-1	6.846452E-1	7.335170E-1	7.419399E-1	7.728619E-1	7.077202E-1	6.993436E-1	7.169437E-1	7.101357E-1	7.190473E-1	6.960082E-1	7.039652E-1	7.607962E-1	7.351687E-1	7.946494E-1	7.560059E-1	7.451348E-1	7.547696E-1	7.676341E-1	7.291150E-1	6.990209E-1	7.275452E-1	7.486849E-1	6.950157E-1	7.569098E-1	7.175735E-1	7.729745E-1	6.659630E-1	7.287427E-1	7.378924E-1	7.193246E-1	7.292849E-1	7.475808E-1	6.611802E-1	7.321651E-1
5.351200E+2	1.102523E+0	1.141921E+0	1.137870E+0	1.065842E+0	1.041400E+0	1.104959E+0	1.125129E+0	1.091424E+0	1.054031E+0	1.118095E+0	1.089668E+0	1.057435E+0	1.085959E+0	1.084392E+0	1.089824E+0	1.073123E+0	1.130985E+0	1.061697E+0	1.132777E+0	1.014035E+0	1.103688E+0	1.072882E+0	1.117365E+0	1.112375E+0	1.079124E+0	1.114517E+0	1.103037E+0	1.077258E+0	1.065684E+0	1.073113E+0	1.143397E+0	1.030403E+0	1.100158E+0	1.086967E+0	1.079090E+0	1.063572E+0	1.088828E+0	1.130880E+0	1.059260E+0	1.073056E+0	1.070108E+0	1.120923E+0	1.097283E+0	1.084817E+0	1.076125E+0	1.099577E+0	1.100999E+0	1.059109E+0	1.059790E+0	1.113939E+0	1.122345E+0	1.028740E+0	1.042923E+0	1.128407E+0	1.107683E+0	1.069324E+0	1.033576E+0	1.095617E+0	1.063530E+0	1.027835E+0	1.099682E+0	1.150032E+0	1.046597E+0	1.107419E+0	1.131317E+0	1.082995E+0	1.081011E+0	1.090710E+0	1.109845E+0	1.070636E+0	1.100073E+0	1.100615E+0	1.066784E+0	1.090173E+0	1.077295E+0	1.077837E+0	1.119460E+0	1.087709E+0	1.056073E+0	1.065743E+0	1.088952E+0	1.040401E+0	1.147322E+0	1.085162E+0	1.088362E+0	1.164720E+0	1.072947E+0	1.110016E+0	1.016538E+0	1.083798E+0	1.092580E+0	1.056466E+0	1.081057E+0	1.119380E+0	1.114022E+0	1.031166E+0	1.054602E+0	1.094620E+0	1.048549E+0	1.141000E+0	1.073325E+0	1.070948E+0	1.051483E+0	1.089058E+0	1.061266E+0	1.098828E+0	1.037586E+0	1.088079E+0	1.078611E+0	1.107821E+0	1.055593E+0	1.069104E+0	1.109118E+0	1.068721E+0	1.078523E+0	1.110971E+0	1.059218E+0	1.084447E+0	1.125614E+0	1.120055E+0	1.049834E+0	1.166777E+0	1.088619E+0	1.098017E+0	1.075602E+0	1.092959E+0	1.057632E+0	1.068452E+0	1.099856E+0	1.069284E+0	1.047072E+0	1.074186E+0	1.054218E+0	1.129707E+0	1.045387E+0	1.116527E+0	1.033335E+0	1.095733E+0	1.074507E+0	1.033986E+0	1.099691E+0	1.067393E+0	1.046171E+0	1.053116E+0	1.119384E+0	1.072477E+0	1.052671E+0	1.096733E+0	1.074660E+0	1.068627E+0	1.094358E+0	1.064839E+0	1.062484E+0	1.108061E+0	1.049938E+0	1.062859E+0	1.048766E+0	1.074776E+0	1.109510E+0	1.128309E+0	1.098998E+0	1.050909E+0	1.057513E+0	1.020912E+0	1.047379E+0	1.060371E+0
5.352550E+2	1.663719E+0	1.590158E+0	1.452173E+0	1.541346E+0	1.514648E+0	1.528089E+0	1.509932E+0	1.553723E+0	1.466777E+0	1.498888E+0	1.467657E+0	1.490749E+0	1.537980E+0	1.497158E+0	1.523377E+0	1.526879E+0	1.620612E+0	1.540808E+0	1.529505E+0	1.516982E+0	1.567596E+0	1.518828E+0	1.522127E+0	1.515271E+0	1.557180E+0	1.530258E+0	1.548913E+0	1.463889E+0	1.506267E+0	1.527534E+0	1.472944E+0	1.533835E+0	1.549761E+0	1.491690E+0	1.509096E+0	1.541417E+0	1.489701E+0	1.514185E+0	1.597949E+0	1.500753E+0	1.522966E+0	1.561677E+0	1.585110E+0	1.581052E+0	1.552505E+0	1.489534E+0	1.434381E+0	1.473021E+0	1.475007E+0	1.528596E+0	1.494714E+0	1.437398E+0	1.453604E+0	1.505973E+0	1.521373E+0	1.552858E+0	1.543670E+0	1.512869E+0	1.570462E+0	1.471790E+0	1.521404E+0	1.477076E+0	1.442329E+0	1.502248E+0	1.563122E+0	1.543446E+0	1.577084E+0	1.410360E+0	1.490515E+0	1.589010E+0	1.488638E+0	1.468309E+0	1.554384E+0	1.528632E+0	1.483333E+0	1.500668E+0	1.525476E+0	1.550019E+0	1.492892E+0	1.480355E+0	1.477999E+0	1.559582E+0	1.519578E+0	1.448890E+0	1.495961E+0	1.534009E+0	1.518940E+0	1.529108E+0	1.476668E+0	1.569893E+0	1.482670E+0	1.479735E+0	1.589431E+0	1.504102E+0	1.544922E+0	1.488224E+0	1.500911E+0	1.510849E+0	1.424485E+0	1.497807E+0	1.476602E+0	1.542646E+0	1.438063E+0	1.535719E+0	1.455106E+0	1.528639E+0	1.439332E+0	1.515548E+0	1.477076E+0	1.589382E+0	1.450811E+0	1.545261E+0	1.506285E+0	1.479892E+0	1.427781E+0	1.521089E+0	1.538120E+0	1.528336E+0	1.519894E+0	1.491467E+0	1.477708E+0	1.539425E+0	1.568049E+0	1.495118E+0	1.499278E+0	1.557566E+0	1.464587E+0	1.452433E+0	1.466533E+0	1.539260E+0	1.514615E+0	1.496310E+0	1.445832E+0	1.495217E+0	1.488799E+0	1.501362E+0	1.536310E+0	1.497698E+0	1.529017E+0	1.482417E+0	1.456666E+0	1.498578E+0	1.487168E+0	1.385641E+0	1.460121E+0	1.515923E+0	1.504056E+0	1.457941E+0	1.537231E+0	1.547920E+0	1.498017E+0	1.467625E+0	1.487403E+0	1.473249E+0	1.514485E+0	1.493736E+0	1.470573E+0	1.494755E+0	1.445453E+0	1.491908E+0	1.515172E+0	1.498089E+0	1.438528E+0	1.403608E+0	1.428640E+0	1.477307E+0
5.354060E+2	1.949970E+0	1.886525E+0	1.944265E+0	1.920451E+0	1.922937E+0	1.964764E+0	1.864032E+0	1.872061E+0	1.864291E+0	1.899761E+0	1.943210E+0	1.902204E+0	1.916173E+0	1.932597E+0	1.860770E+0	1.873707E+0	1.884107E+0	1.844428E+0	1.928610E+0	1.835007E+0	1.909238E+0	1.924057E+0	1.875997E+0	1.904513E+0	1.914159E+0	1.925610E+0	1.891771E+0	1.872811E+0	1.917733E+0	1.882639E+0	1.889836E+0	1.913076E+0	1.859789E+0	1.840451E+0	1.866770E+0	1.883620E+0	1.863129E+0	1.889267E+0	1.873886E+0	1.860844E+0	1.894951E+0	1.988533E+0	1.874852E+0	1.861005E+0	1.903915E+0	1.932239E+0	1.850166E+0	1.821619E+0	1.903976E+0	1.918852E+0	1.887547E+0	1.861072E+0	1.923108E+0	1.925351E+0	1.880651E+0	1.908764E+0	1.874730E+0	1.971249E+0	1.888466E+0	1.881783E+0	1.953700E+0	1.928824E+0	1.805866E+0	1.847717E+0	1.876512E+0	1.954110E+0	1.814704E+0	1.838295E+0	1.856856E+0	1.897662E+0	1.886853E+0	1.815379E+0	1.824550E+0	1.883359E+0	1.787215E+0	1.878692E+0	1.933110E+0	1.842039E+0	1.815486E+0	1.825637E+0	1.841299E+0	1.839742E+0	1.844133E+0	1.857809E+0	1.841280E+0	1.904376E+0	1.880000E+0	1.943553E+0	1.848852E+0	1.913748E+0	1.849285E+0	1.898040E+0	1.811556E+0	1.932148E+0	1.791603E+0	1.898820E+0	1.878110E+0	1.863311E+0	1.911963E+0	1.863804E+0	1.823911E+0	1.833711E+0	1.859569E+0	1.873275E+0	1.934011E+0	1.890245E+0	1.872226E+0	1.857851E+0	1.847366E+0	1.887947E+0	1.829487E+0	1.878046E+0	1.863099E+0	1.877096E+0	1.843664E+0	1.881288E+0	1.842232E+0	1.848075E+0	1.780064E+0	1.863807E+0	1.861016E+0	1.938357E+0	1.796287E+0	1.842180E+0	1.888454E+0	1.853386E+0	1.815974E+0	1.841934E+0	1.842084E+0	1.888110E+0	1.815617E+0	1.803986E+0	1.819988E+0	1.826170E+0	1.866595E+0	1.908680E+0	1.851700E+0	1.933932E+0	1.814883E+0	1.847979E+0	1.781938E+0	1.833225E+0	1.834802E+0	1.782334E+0	1.818291E+0	1.833457E+0	1.807806E+0	1.764045E+0	1.858877E+0	1.852464E+0	1.835240E+0	1.840936E+0	1.842987E+0	1.811640E+0	1.864496E+0	1.834419E+0	1.791100E+0	1.928000E+0	1.772870E+0	1.880344E+0	1.783827E+0	1.842553E+0	1.794449E+0	1.751343E+0	1.773601E+0	1.669397E+0
5.355630E+2	2.055677E+0	1.995596E+0	2.069257E+0	1.985976E+0	1.952579E+0	2.012639E+0	1.984447E+0	1.940458E+0	1.951385E+0	2.015671E+0	1.968311E+0	1.949834E+0	2.004934E+0	1.968726E+0	1.952761E+0	1.995305E+0	2.040946E+0	1.995149E+0	2.000030E+0	1.946543E+0	1.948135E+0	1.955410E+0	2.008293E+0	1.972399E+0	2.023321E+0	1.954540E+0	1.987495E+0	1.966950E+0	1.940211E+0	1.971379E+0	1.950023E+0	1.982928E+0	1.990987E+0	1.959134E+0	1.937356E+0	1.903942E+0	1.988372E+0	1.965389E+0	1.984676E+0	2.010249E+0	1.956302E+0	2.030485E+0	1.976266E+0	1.945012E+0	1.909908E+0	2.015757E+0	1.921296E+0	2.005240E+0	1.946265E+0	2.034125E+0	1.914963E+0	1.911981E+0	1.992193E+0	2.010545E+0	2.001326E+0	1.947329E+0	1.966783E+0	2.013014E+0	1.996447E+0	2.034434E+0	1.978948E+0	1.968722E+0	1.881287E+0	1.913693E+0	2.015955E+0	1.946927E+0	1.996746E+0	1.949441E+0	1.907657E+0	2.030323E+0	2.030543E+0	1.940181E+0	1.925703E+0	1.943789E+0	1.869366E+0	1.962350E+0	1.939197E+0	2.006746E+0	1.901980E+0	2.004544E+0	1.942205E+0	2.000429E+0	1.927951E+0	1.951483E+0	1.956470E+0	2.023594E+0	1.928229E+0	1.989521E+0	1.927847E+0	1.934166E+0	2.036865E+0	1.974636E+0	1.928608E+0	1.992169E+0	1.911450E+0	1.932578E+0	1.916678E+0	1.864831E+0	1.897707E+0	1.921212E+0	1.867962E+0	1.926812E+0	1.908738E+0	2.006199E+0	1.962167E+0	2.004903E+0	1.953548E+0	1.925070E+0	2.011881E+0	1.951763E+0	1.896053E+0	1.898135E+0	1.951243E+0	1.971744E+0	1.889946E+0	1.993674E+0	1.915418E+0	1.925896E+0	1.927203E+0	1.915082E+0	1.865188E+0	1.851980E+0	1.876868E+0	1.945996E+0	1.912440E+0	1.898873E+0	1.908511E+0	1.940112E+0	2.004346E+0	1.917915E+0	1.932062E+0	1.918309E+0	1.892512E+0	1.908367E+0	1.880804E+0	1.973588E+0	1.908999E+0	1.899096E+0	1.893585E+0	1.916447E+0	1.920320E+0	1.876263E+0	1.889102E+0	1.895638E+0	1.948170E+0	1.927919E+0	1.909015E+0	1.833832E+0	1.877626E+0	1.894464E+0	1.979452E+0	1.868847E+0	1.942118E+0	2.015568E+0	1.901694E+0	1.852560E+0	1.822735E+0	1.915118E+0	1.843320E+0	1.956391E+0	1.912148E+0	1.887339E+0	1.759299E+0	1.765511E+0	1.941219E+0	1.745950E+0
5.357140E+2	2.098772E+0	2.007094E+0	2.007937E+0	1.933955E+0	1.962122E+0	2.038027E+0	1.981653E+0	1.971120E+0	1.983839E+0	1.949734E+0	2.104234E+0	2.033113E+0	2.038575E+0	2.007573E+0	1.924899E+0	1.958298E+0	2.117093E+0	2.011757E+0	1.952681E+0	1.960064E+0	1.882332E+0	2.022088E+0	2.011673E+0	2.025893E+0	1.951284E+0	2.033830E+0	2.018409E+0	1.984843E+0	1.934724E+0	1.926389E+0	1.972351E+0	1.967085E+0	1.979631E+0	2.051472E+0	1.936921E+0	1.954333E+0	2.007339E+0	1.931043E+0	1.975488E+0	2.052645E+0	2.003576E+0	2.013926E+0	1.948632E+0	1.956447E+0	2.003170E+0	2.035220E+0	1.951706E+0	1.928520E+0	2.016104E+0	2.084454E+0	1.962386E+0	1.971363E+0	1.982357E+0	2.014690E+0	1.933104E+0	1.979630E+0	1.928225E+0	1.984549E+0	2.002287E+0	2.012879E+0	2.028124E+0	2.004996E+0	1.901424E+0	1.987317E+0	2.021431E+0	1.983637E+0	2.003340E+0	1.967878E+0	1.958221E+0	2.001798E+0	1.972362E+0	1.983886E+0	2.006309E+0	1.956970E+0	1.906882E+0	2.001446E+0	1.988685E+0	2.029456E+0	1.931369E+0	1.987730E+0	1.917406E+0	2.009102E+0	1.957640E+0	1.977472E+0	1.864630E+0	2.000744E+0	1.961904E+0	1.881533E+0	2.046274E+0	2.032320E+0	1.956036E+0	2.017175E+0	1.944269E+0	2.013975E+0	1.875466E+0	1.923020E+0	1.968602E+0	1.913960E+0	1.962437E+0	1.972658E+0	1.917169E+0	1.958075E+0	1.944857E+0	1.936107E+0	1.941211E+0	2.065689E+0	1.943734E+0	1.945169E+0	1.912088E+0	1.938366E+0	1.892647E+0	1.943466E+0	1.955611E+0	1.980834E+0	1.909912E+0	2.004581E+0	1.954814E+0	1.937454E+0	1.930044E+0	1.863733E+0	1.894965E+0	1.980231E+0	1.942045E+0	1.941739E+0	1.915311E+0	1.915189E+0	1.971051E+0	1.866481E+0	1.901537E+0	1.965608E+0	1.914053E+0	1.934621E+0	1.920634E+0	1.936573E+0	1.922684E+0	1.931854E+0	1.938327E+0	1.956726E+0	1.877372E+0	1.947322E+0	1.938007E+0	1.895526E+0	1.929511E+0	1.884914E+0	1.934346E+0	1.969230E+0	1.876109E+0	1.890807E+0	1.962324E+0	1.905360E+0	1.997167E+0	1.886765E+0	1.876825E+0	1.950673E+0	1.939062E+0	1.889596E+0	1.966959E+0	1.971389E+0	1.887432E+0	1.909447E+0	1.907410E+0	1.867495E+0	1.835242E+0	1.873236E+0	1.876737E+0	1.916742E+0
5.358600E+2	1.752459E+0	1.696762E+0	1.715683E+0	1.683702E+0	1.682517E+0	1.686295E+0	1.668943E+0	1.710891E+0	1.765618E+0	1.642740E+0	1.694790E+0	1.683874E+0	1.700606E+0	1.723420E+0	1.609383E+0	1.726293E+0	1.724431E+0	1.648794E+0	1.723008E+0	1.646497E+0	1.664014E+0	1.674488E+0	1.678925E+0	1.710002E+0	1.664663E+0	1.641330E+0	1.680745E+0	1.715490E+0	1.636130E+0	1.653361E+0	1.656694E+0	1.667782E+0	1.653963E+0	1.671518E+0	1.701490E+0	1.692061E+0	1.648847E+0	1.647947E+0	1.701888E+0	1.709588E+0	1.598360E+0	1.697438E+0	1.648467E+0	1.686909E+0	1.645660E+0	1.660707E+0	1.613742E+0	1.684069E+0	1.687795E+0	1.701490E+0	1.603571E+0	1.618201E+0	1.661616E+0	1.713611E+0	1.643540E+0	1.671739E+0	1.620953E+0	1.684302E+0	1.655350E+0	1.655367E+0	1.722631E+0	1.670860E+0	1.676943E+0	1.626572E+0	1.656630E+0	1.719297E+0	1.732852E+0	1.671936E+0	1.606884E+0	1.705923E+0	1.651289E+0	1.587040E+0	1.708791E+0	1.712379E+0	1.634294E+0	1.682665E+0	1.648061E+0	1.664229E+0	1.660915E+0	1.665871E+0	1.700218E+0	1.691281E+0	1.737531E+0	1.679321E+0	1.597266E+0	1.654785E+0	1.657381E+0	1.679685E+0	1.657596E+0	1.736503E+0	1.618201E+0	1.700400E+0	1.670735E+0	1.687620E+0	1.675748E+0	1.594374E+0	1.671124E+0	1.674426E+0	1.672013E+0	1.716672E+0	1.621107E+0	1.688233E+0	1.692327E+0	1.660897E+0	1.660392E+0	1.706074E+0	1.668377E+0	1.600308E+0	1.675021E+0	1.671800E+0	1.623557E+0	1.604952E+0	1.668934E+0	1.715276E+0	1.644179E+0	1.594281E+0	1.630512E+0	1.613907E+0	1.664700E+0	1.678307E+0	1.610664E+0	1.719691E+0	1.662850E+0	1.637033E+0	1.673963E+0	1.672184E+0	1.684556E+0	1.646557E+0	1.610239E+0	1.623425E+0	1.619037E+0	1.659683E+0	1.660596E+0	1.649128E+0	1.596449E+0	1.654151E+0	1.564789E+0	1.712056E+0	1.616447E+0	1.648755E+0	1.638233E+0	1.642136E+0	1.621115E+0	1.591440E+0	1.583059E+0	1.652813E+0	1.617578E+0	1.645273E+0	1.613240E+0	1.675650E+0	1.687472E+0	1.521339E+0	1.634730E+0	1.712983E+0	1.627632E+0	1.690605E+0	1.702964E+0	1.711467E+0	1.606226E+0	1.620111E+0	1.678217E+0	1.629196E+0	1.557933E+0	1.562642E+0	1.559625E+0	1.719936E+0
5.360070E+2	1.709319E+0	1.651959E+0	1.657716E+0	1.593915E+0	1.677400E+0	1.646233E+0	1.642646E+0	1.594405E+0	1.621688E+0	1.640462E+0	1.648046E+0	1.648783E+0	1.673635E+0	1.624845E+0	1.640872E+0	1.619650E+0	1.689767E+0	1.601445E+0	1.595211E+0	1.585578E+0	1.685230E+0	1.576512E+0	1.630196E+0	1.657708E+0	1.648364E+0	1.637688E+0	1.569278E+0	1.655781E+0	1.594789E+0	1.602394E+0	1.635275E+0	1.564951E+0	1.649464E+0	1.615305E+0	1.616276E+0	1.641586E+0	1.604128E+0	1.631285E+0	1.685884E+0	1.633711E+0	1.582929E+0	1.685928E+0	1.669886E+0	1.582170E+0	1.606815E+0	1.627379E+0	1.547279E+0	1.637678E+0	1.607518E+0	1.698465E+0	1.604405E+0	1.676799E+0	1.611696E+0	1.612400E+0	1.699375E+0	1.608744E+0	1.645352E+0	1.628387E+0	1.667737E+0	1.647268E+0	1.632892E+0	1.567338E+0	1.516879E+0	1.702247E+0	1.664058E+0	1.668825E+0	1.653260E+0	1.603120E+0	1.592306E+0	1.644744E+0	1.623835E+0	1.668172E+0	1.590372E+0	1.645144E+0	1.656404E+0	1.622507E+0	1.588646E+0	1.616322E+0	1.609070E+0	1.609893E+0	1.655918E+0	1.661433E+0	1.586920E+0	1.679000E+0	1.627003E+0	1.640804E+0	1.647623E+0	1.600599E+0	1.624751E+0	1.610620E+0	1.628471E+0	1.682049E+0	1.605807E+0	1.637871E+0	1.597255E+0	1.619318E+0	1.579642E+0	1.670670E+0	1.580205E+0	1.587969E+0	1.576352E+0	1.661447E+0	1.544416E+0	1.623060E+0	1.637192E+0	1.608525E+0	1.603439E+0	1.582275E+0	1.652572E+0	1.600924E+0	1.612687E+0	1.559540E+0	1.649265E+0	1.627176E+0	1.602447E+0	1.610838E+0	1.554503E+0	1.608899E+0	1.626911E+0	1.589852E+0	1.591529E+0	1.696665E+0	1.620507E+0	1.596914E+0	1.632471E+0	1.535367E+0	1.576394E+0	1.562152E+0	1.594090E+0	1.600717E+0	1.623733E+0	1.648127E+0	1.521015E+0	1.603750E+0	1.579254E+0	1.637466E+0	1.593696E+0	1.633082E+0	1.592559E+0	1.587473E+0	1.556116E+0	1.609382E+0	1.571148E+0	1.545893E+0	1.539409E+0	1.586656E+0	1.624448E+0	1.601625E+0	1.572716E+0	1.585149E+0	1.574867E+0	1.573616E+0	1.600968E+0	1.639315E+0	1.623374E+0	1.639915E+0	1.599585E+0	1.635790E+0	1.559385E+0	1.633875E+0	1.638397E+0	1.540886E+0	1.563543E+0	1.546108E+0	1.480505E+0	1.705963E+0
5.362730E+2	1.193733E+0	1.167030E+0	1.182445E+0	1.139098E+0	1.133033E+0	1.149702E+0	1.168040E+0	1.141771E+0	1.106389E+0	1.099331E+0	1.169093E+0	1.117248E+0	1.136758E+0	1.145414E+0	1.109963E+0	1.110750E+0	1.150555E+0	1.107191E+0	1.159670E+0	1.134790E+0	1.177508E+0	1.110837E+0	1.137604E+0	1.166901E+0	1.144704E+0	1.152966E+0	1.198821E+0	1.164618E+0	1.149165E+0	1.151957E+0	1.135560E+0	1.112878E+0	1.075668E+0	1.209111E+0	1.135156E+0	1.142563E+0	1.115953E+0	1.110261E+0	1.177372E+0	1.119106E+0	1.170387E+0	1.113118E+0	1.132829E+0	1.160646E+0	1.182935E+0	1.183958E+0	1.157977E+0	1.128566E+0	1.125967E+0	1.135160E+0	1.110052E+0	1.112040E+0	1.140618E+0	1.169671E+0	1.170144E+0	1.132041E+0	1.136108E+0	1.122860E+0	1.153667E+0	1.134426E+0	1.131767E+0	1.180109E+0	1.086484E+0	1.127561E+0	1.128468E+0	1.153702E+0	1.120041E+0	1.192442E+0	1.142802E+0	1.155266E+0	1.148707E+0	1.147562E+0	1.128839E+0	1.148583E+0	1.105709E+0	1.110515E+0	1.100027E+0	1.157799E+0	1.086135E+0	1.154597E+0	1.078808E+0	1.141102E+0	1.158487E+0	1.160675E+0	1.144045E+0	1.172677E+0	1.168571E+0	1.141693E+0	1.119734E+0	1.196749E+0	1.133827E+0	1.197098E+0	1.147543E+0	1.143434E+0	1.120380E+0	1.105508E+0	1.126962E+0	1.150019E+0	1.129385E+0	1.151654E+0	1.169942E+0	1.164812E+0	1.153832E+0	1.172923E+0	1.097489E+0	1.166742E+0	1.109837E+0	1.159659E+0	1.189183E+0	1.177225E+0	1.137211E+0	1.145153E+0	1.239797E+0	1.102227E+0	1.134293E+0	1.088853E+0	1.067992E+0	1.173224E+0	1.178054E+0	1.078846E+0	1.169299E+0	1.217725E+0	1.068797E+0	1.164475E+0	1.182209E+0	1.143844E+0	1.161920E+0	1.101687E+0	1.182879E+0	1.127138E+0	1.130835E+0	1.161731E+0	1.105118E+0	1.200991E+0	1.144827E+0	1.159105E+0	1.156157E+0	1.145721E+0	1.130466E+0	1.166288E+0	1.163154E+0	1.122875E+0	1.112954E+0	1.104199E+0	1.156064E+0	1.100043E+0	1.153295E+0	1.096489E+0	1.169809E+0	1.141311E+0	1.185786E+0	1.121913E+0	1.141611E+0	1.109322E+0	1.185940E+0	1.146435E+0	1.159850E+0	1.096790E+0	1.126631E+0	1.122907E+0	1.138683E+0	1.136975E+0	1.072338E+0	1.148785E+0	1.081691E+0	1.075308E+0
5.365140E+2	9.808864E-1	9.085627E-1	8.831247E-1	8.808105E-1	8.834952E-1	9.116988E-1	9.321621E-1	9.142098E-1	9.478598E-1	9.073050E-1	8.843868E-1	8.964105E-1	9.163170E-1	9.056514E-1	9.041138E-1	8.849792E-1	9.404221E-1	9.215040E-1	9.009572E-1	9.245063E-1	9.259323E-1	9.110961E-1	9.294271E-1	9.268180E-1	9.017617E-1	9.313274E-1	8.947922E-1	9.470920E-1	8.751619E-1	8.989714E-1	9.176225E-1	9.233226E-1	9.115818E-1	9.402985E-1	9.331842E-1	8.653773E-1	8.980007E-1	9.378629E-1	9.000511E-1	9.096504E-1	8.429304E-1	8.907768E-1	9.245079E-1	9.064833E-1	9.273668E-1	8.873971E-1	9.064396E-1	8.957477E-1	8.986877E-1	8.928427E-1	9.130631E-1	9.010415E-1	9.110183E-1	8.609671E-1	9.373386E-1	9.361020E-1	8.718147E-1	9.160527E-1	9.652756E-1	9.278658E-1	9.585619E-1	9.043447E-1	8.754742E-1	9.296239E-1	9.140793E-1	9.150863E-1	9.020251E-1	9.241260E-1	9.137034E-1	9.356707E-1	9.240550E-1	8.956025E-1	9.434639E-1	8.683302E-1	8.762566E-1	9.106999E-1	8.783709E-1	9.112634E-1	8.813430E-1	9.110528E-1	9.085224E-1	8.877312E-1	9.486241E-1	9.593962E-1	9.120615E-1	9.397190E-1	9.222994E-1	8.811484E-1	9.061995E-1	9.398826E-1	8.653862E-1	9.041899E-1	9.441750E-1	9.416090E-1	9.000307E-1	9.088235E-1	9.237055E-1	9.120102E-1	9.478538E-1	9.315013E-1	9.239790E-1	8.992778E-1	9.010682E-1	9.054327E-1	8.872392E-1	9.138544E-1	9.485309E-1	9.516605E-1	8.870200E-1	9.278633E-1	9.455675E-1	9.243369E-1	9.388774E-1	8.954260E-1	9.290830E-1	9.345679E-1	9.081237E-1	9.550169E-1	9.402539E-1	8.726968E-1	8.996578E-1	9.774277E-1	9.150982E-1	8.977326E-1	9.274564E-1	8.950762E-1	8.985509E-1	9.155726E-1	9.380238E-1	9.663050E-1	8.910231E-1	8.270297E-1	8.959079E-1	9.170706E-1	9.396177E-1	9.290733E-1	9.273413E-1	9.405925E-1	9.214167E-1	9.279142E-1	9.329788E-1	9.009400E-1	8.916299E-1	8.986139E-1	9.248961E-1	8.669178E-1	9.263354E-1	9.082436E-1	9.016181E-1	9.125738E-1	9.001092E-1	8.857928E-1	8.516358E-1	1.028668E+0	8.889730E-1	9.791915E-1	9.098957E-1	9.196642E-1	9.477445E-1	9.267377E-1	8.916839E-1	9.261442E-1	8.679996E-1	9.175732E-1	8.892753E-1	8.887497E-1
5.367660E+2	7.555920E-1	7.060432E-1	7.535161E-1	7.264194E-1	6.690952E-1	7.052555E-1	7.030396E-1	7.374327E-1	6.803999E-1	6.526215E-1	7.267503E-1	6.450249E-1	7.334720E-1	7.287606E-1	6.966371E-1	6.875235E-1	6.926353E-1	6.847471E-1	7.281516E-1	6.891860E-1	6.565686E-1	6.700406E-1	7.134885E-1	7.322449E-1	7.163938E-1	7.268197E-1	7.342569E-1	7.260406E-1	7.221698E-1	7.316890E-1	7.235497E-1	6.971660E-1	6.955489E-1	7.076877E-1	7.392468E-1	6.590239E-1	6.981740E-1	6.691194E-1	6.721819E-1	7.008224E-1	7.037269E-1	7.435825E-1	7.194431E-1	7.030489E-1	7.024295E-1	7.295447E-1	6.634903E-1	6.856312E-1	6.925878E-1	7.316166E-1	6.743792E-1	6.845889E-1	6.691356E-1	6.913760E-1	6.728156E-1	7.227217E-1	6.949593E-1	7.050067E-1	6.971203E-1	7.499641E-1	7.494032E-1	6.792113E-1	7.183958E-1	7.069032E-1	7.306621E-1	7.530135E-1	7.369605E-1	7.233409E-1	7.030217E-1	7.118969E-1	7.460234E-1	7.057232E-1	7.418135E-1	6.815215E-1	6.745240E-1	7.222928E-1	7.184297E-1	6.903868E-1	7.004740E-1	7.013524E-1	7.428368E-1	6.845143E-1	7.323302E-1	7.252046E-1	7.038713E-1	7.223958E-1	6.731218E-1	7.183840E-1	7.409114E-1	7.140938E-1	6.667967E-1	7.446729E-1	6.843578E-1	6.853616E-1	7.060639E-1	7.065429E-1	7.254998E-1	6.698063E-1	7.136008E-1	6.934651E-1	7.198263E-1	7.372001E-1	7.033329E-1	7.283076E-1	6.897077E-1	7.453617E-1	7.285244E-1	6.917662E-1	7.038707E-1	7.153598E-1	7.037723E-1	6.982499E-1	7.233563E-1	7.262630E-1	6.800232E-1	6.992498E-1	6.984808E-1	7.073484E-1	7.359133E-1	7.447011E-1	7.256879E-1	7.296004E-1	7.265019E-1	7.224532E-1	7.369107E-1	7.100419E-1	7.010326E-1	7.225841E-1	7.372335E-1	7.245603E-1	7.285685E-1	6.902967E-1	6.903644E-1	7.068749E-1	7.361904E-1	7.073177E-1	7.050492E-1	7.216944E-1	6.969268E-1	7.092697E-1	7.161433E-1	7.011936E-1	7.364061E-1	6.870896E-1	7.651664E-1	7.568571E-1	7.147373E-1	6.652849E-1	7.359295E-1	7.501820E-1	6.911300E-1	7.114204E-1	7.261823E-1	6.948051E-1	7.118828E-1	7.574563E-1	7.033683E-1	6.956716E-1	6.776310E-1	6.889204E-1	7.375680E-1	7.321825E-1	6.908941E-1	6.611394E-1	7.177190E-1	7.306096E-1
5.370070E+2	5.980177E-1	5.901319E-1	5.764012E-1	5.562585E-1	5.797021E-1	5.611907E-1	5.807475E-1	5.805587E-1	5.357887E-1	5.299120E-1	6.039889E-1	5.847781E-1	5.684434E-1	5.592699E-1	5.839652E-1	5.350559E-1	5.520982E-1	5.589994E-1	5.786672E-1	5.591443E-1	5.602024E-1	5.519179E-1	5.630855E-1	5.665395E-1	5.502188E-1	5.731512E-1	5.946604E-1	5.790819E-1	5.292321E-1	5.416127E-1	5.527369E-1	5.577921E-1	5.472744E-1	5.581612E-1	5.733158E-1	5.833754E-1	5.632985E-1	5.484673E-1	5.627961E-1	5.640343E-1	5.577286E-1	5.557172E-1	6.002504E-1	5.435858E-1	5.724438E-1	5.489168E-1	5.585653E-1	5.667505E-1	5.509576E-1	5.645405E-1	4.970027E-1	5.389182E-1	5.469482E-1	5.684437E-1	6.182278E-1	5.432536E-1	5.489839E-1	5.727994E-1	5.980995E-1	6.107037E-1	5.502512E-1	5.564353E-1	5.543408E-1	5.379191E-1	5.868301E-1	5.354742E-1	5.512364E-1	5.887955E-1	5.658177E-1	5.317133E-1	5.870713E-1	5.620963E-1	5.570586E-1	5.699117E-1	5.354904E-1	5.882194E-1	5.783534E-1	5.454961E-1	5.779554E-1	5.944819E-1	5.691072E-1	5.256319E-1	5.774851E-1	5.533598E-1	5.528268E-1	5.809916E-1	5.414417E-1	5.428201E-1	5.601088E-1	5.959241E-1	6.009479E-1	5.806482E-1	5.520169E-1	5.766610E-1	5.340013E-1	5.551988E-1	5.719141E-1	5.233382E-1	5.763596E-1	5.717750E-1	5.685403E-1	5.603545E-1	5.789386E-1	5.447814E-1	5.662611E-1	5.427389E-1	5.618310E-1	5.482630E-1	5.827040E-1	5.204350E-1	5.757155E-1	6.105249E-1	5.780095E-1	5.571153E-1	5.893508E-1	5.695878E-1	5.737260E-1	5.908467E-1	5.826164E-1	5.847904E-1	5.685272E-1	5.651786E-1	5.538335E-1	5.678039E-1	5.474440E-1	5.247090E-1	5.515098E-1	5.845957E-1	5.946787E-1	5.455984E-1	5.236344E-1	5.070746E-1	5.530804E-1	5.619389E-1	5.636600E-1	5.641136E-1	5.902956E-1	5.672828E-1	5.665849E-1	5.436273E-1	5.342219E-1	5.434432E-1	5.360669E-1	5.702986E-1	5.785234E-1	5.432048E-1	6.067674E-1	5.659346E-1	5.590565E-1	5.755971E-1	5.941685E-1	5.648510E-1	5.580901E-1	5.849059E-1	5.707404E-1	5.588742E-1	5.568413E-1	5.666034E-1	5.461115E-1	5.785196E-1	6.015877E-1	5.727876E-1	5.801436E-1	5.489699E-1	6.007924E-1	5.385550E-1
5.372640E+2	5.148172E-1	5.160990E-1	5.038734E-1	4.980357E-1	4.838434E-1	4.943854E-1	5.339896E-1	5.351113E-1	4.931710E-1	5.025678E-1	5.121289E-1	5.461407E-1	5.292635E-1	5.231410E-1	4.928433E-1	4.943068E-1	4.996249E-1	5.252377E-1	5.261923E-1	4.539745E-1	5.252021E-1	5.078266E-1	4.998214E-1	5.423373E-1	5.337948E-1	4.897001E-1	5.417413E-1	5.215307E-1	5.088506E-1	5.179579E-1	5.301027E-1	4.990488E-1	5.162318E-1	4.971992E-1	5.433885E-1	5.460816E-1	4.923324E-1	4.989931E-1	5.337282E-1	4.986342E-1	4.623503E-1	5.079176E-1	5.226034E-1	5.157112E-1	5.367437E-1	4.953345E-1	5.154499E-1	4.946385E-1	5.222056E-1	4.943279E-1	4.892188E-1	5.319138E-1	4.998374E-1	4.932325E-1	5.188600E-1	5.024006E-1	5.138587E-1	4.974619E-1	5.130459E-1	5.265333E-1	5.300821E-1	4.982389E-1	4.792757E-1	5.317000E-1	4.968694E-1	4.957255E-1	5.029196E-1	4.671010E-1	5.039295E-1	4.816255E-1	5.040874E-1	4.946012E-1	5.227035E-1	4.896815E-1	5.245418E-1	5.264177E-1	5.225629E-1	5.062086E-1	5.207317E-1	5.068589E-1	5.208836E-1	5.423518E-1	5.343153E-1	5.545508E-1	4.711127E-1	5.165545E-1	5.089514E-1	5.082362E-1	5.070481E-1	5.188185E-1	5.025014E-1	5.072148E-1	5.394313E-1	5.431112E-1	5.115060E-1	4.704928E-1	5.069134E-1	5.143636E-1	5.185572E-1	5.450675E-1	5.152468E-1	5.114135E-1	5.268197E-1	5.420059E-1	4.855822E-1	5.271693E-1	5.097096E-1	4.772321E-1	4.932078E-1	5.033398E-1	5.280598E-1	5.320720E-1	4.849855E-1	5.169418E-1	5.244012E-1	5.353470E-1	4.943037E-1	5.290532E-1	5.076479E-1	5.116310E-1	5.139510E-1	5.204665E-1	5.396277E-1	4.934518E-1	4.941390E-1	4.903056E-1	5.301412E-1	5.077730E-1	5.078952E-1	5.086384E-1	4.967836E-1	5.008001E-1	4.896651E-1	4.923360E-1	4.808512E-1	5.425559E-1	4.891488E-1	4.851330E-1	5.330538E-1	5.251648E-1	5.347461E-1	5.017560E-1	5.175923E-1	5.271821E-1	5.172863E-1	5.115159E-1	5.200698E-1	5.293431E-1	5.400544E-1	5.252388E-1	5.270464E-1	5.266914E-1	5.027535E-1	5.236292E-1	5.394198E-1	4.756999E-1	5.017410E-1	5.059946E-1	5.295364E-1	4.942697E-1	5.093315E-1	5.371092E-1	4.962852E-1	4.963280E-1	4.743245E-1	4.984446E-1
5.375060E+2	5.032666E-1	4.776803E-1	4.840650E-1	5.008610E-1	4.691100E-1	4.826377E-1	5.178379E-1	4.933573E-1	4.750420E-1	4.944712E-1	5.367589E-1	4.780458E-1	4.826611E-1	4.623807E-1	4.921511E-1	4.970949E-1	5.229215E-1	4.519012E-1	5.429715E-1	5.236983E-1	5.181810E-1	4.942509E-1	4.839157E-1	4.917602E-1	5.025051E-1	4.858268E-1	5.102522E-1	4.924642E-1	4.452147E-1	5.087688E-1	4.871674E-1	4.763007E-1	5.253553E-1	5.161313E-1	5.018718E-1	4.586729E-1	4.792803E-1	4.870992E-1	5.126850E-1	5.038422E-1	4.489059E-1	5.055899E-1	5.331090E-1	4.922817E-1	5.176547E-1	4.881023E-1	4.719919E-1	5.149685E-1	5.170425E-1	5.250908E-1	4.950351E-1	4.821609E-1	5.078155E-1	4.789860E-1	5.086250E-1	4.959936E-1	4.879938E-1	4.881512E-1	5.001780E-1	4.764003E-1	4.721014E-1	5.025462E-1	5.005712E-1	4.867980E-1	5.189688E-1	5.142606E-1	4.904861E-1	4.900725E-1	4.804693E-1	5.075735E-1	5.381885E-1	4.992140E-1	4.782384E-1	4.916447E-1	4.673102E-1	4.612884E-1	5.207659E-1	5.094585E-1	4.887629E-1	5.418149E-1	4.544686E-1	4.901381E-1	5.083858E-1	5.159048E-1	4.668318E-1	4.879229E-1	4.799806E-1	5.304167E-1	4.938048E-1	4.762183E-1	5.236801E-1	5.142349E-1	5.220004E-1	4.996653E-1	4.791240E-1	5.130212E-1	4.945272E-1	5.311643E-1	5.040990E-1	4.762647E-1	4.938747E-1	5.288895E-1	4.843511E-1	4.923032E-1	4.862348E-1	4.972971E-1	5.117945E-1	5.172727E-1	5.268708E-1	4.558572E-1	4.861299E-1	5.122585E-1	5.232096E-1	4.957703E-1	5.193394E-1	4.814036E-1	5.224892E-1	4.888883E-1	5.370350E-1	4.845427E-1	4.823518E-1	5.197524E-1	4.904449E-1	5.127597E-1	5.002548E-1	4.651192E-1	4.910711E-1	4.919222E-1	5.024780E-1	4.649741E-1	5.335534E-1	5.082134E-1	4.958657E-1	4.903728E-1	4.755712E-1	4.901000E-1	4.983173E-1	4.953178E-1	4.690098E-1	5.096507E-1	4.906350E-1	5.023599E-1	5.249171E-1	5.023707E-1	4.867921E-1	5.173752E-1	5.173349E-1	4.610477E-1	5.117789E-1	4.996698E-1	5.151857E-1	4.781736E-1	4.963235E-1	5.241555E-1	5.177290E-1	4.879910E-1	4.977224E-1	5.075653E-1	5.130493E-1	4.942233E-1	4.982781E-1	4.706873E-1	4.743611E-1	4.733076E-1	4.664159E-1	4.496183E-1
5.377740E+2	5.703912E-1	5.507145E-1	5.681128E-1	5.582401E-1	5.517400E-1	5.225193E-1	5.647070E-1	5.658784E-1	5.175455E-1	5.352202E-1	5.564969E-1	5.102990E-1	5.744956E-1	5.343366E-1	5.262998E-1	5.126243E-1	5.521179E-1	5.424671E-1	5.387755E-1	5.173824E-1	5.621944E-1	5.466860E-1	5.448139E-1	5.314830E-1	5.269806E-1	5.381351E-1	5.856416E-1	5.428758E-1	5.499598E-1	6.055586E-1	5.442170E-1	5.572304E-1	5.500630E-1	5.400302E-1	5.511928E-1	5.734243E-1	5.453172E-1	5.463395E-1	5.657577E-1	5.793594E-1	5.452229E-1	5.745341E-1	5.697629E-1	5.677613E-1	5.378373E-1	5.518678E-1	5.404027E-1	5.376664E-1	5.403470E-1	5.834451E-1	5.126449E-1	5.459389E-1	5.392905E-1	5.395980E-1	5.689803E-1	5.521504E-1	5.499412E-1	5.712285E-1	5.367428E-1	5.304562E-1	5.743950E-1	5.527423E-1	5.608827E-1	5.587985E-1	5.282935E-1	5.543614E-1	5.491314E-1	5.894604E-1	5.182016E-1	5.437963E-1	6.137624E-1	5.534038E-1	5.637978E-1	5.394564E-1	5.475652E-1	5.718136E-1	5.590964E-1	5.200322E-1	5.512211E-1	5.455770E-1	5.501152E-1	5.623814E-1	5.356478E-1	5.508216E-1	5.383850E-1	5.700998E-1	5.367985E-1	5.738773E-1	5.651581E-1	5.775910E-1	5.609248E-1	5.960628E-1	5.092143E-1	5.603039E-1	5.681975E-1	5.523909E-1	5.839338E-1	6.085667E-1	5.456059E-1	5.437099E-1	5.590344E-1	5.506778E-1	5.670065E-1	6.020899E-1	5.357846E-1	5.414127E-1	5.483382E-1	5.616854E-1	5.511252E-1	5.377561E-1	5.978033E-1	6.030729E-1	5.700863E-1	5.547547E-1	5.262070E-1	5.690700E-1	5.804107E-1	5.037478E-1	5.539490E-1	5.772615E-1	5.643507E-1	5.693427E-1	5.435498E-1	5.333925E-1	5.392461E-1	5.597608E-1	5.410931E-1	5.853676E-1	5.408192E-1	5.847359E-1	5.320541E-1	5.718311E-1	5.190771E-1	5.250485E-1	5.756992E-1	5.944755E-1	6.134069E-1	5.489587E-1	5.248855E-1	5.411226E-1	5.537341E-1	5.611117E-1	5.824910E-1	5.393928E-1	5.589779E-1	5.881236E-1	5.293601E-1	5.481999E-1	5.629290E-1	5.633021E-1	5.427258E-1	5.774523E-1	5.346845E-1	5.282228E-1	5.714253E-1	5.691386E-1	5.070337E-1	5.434988E-1	5.605505E-1	5.661018E-1	5.830326E-1	5.328271E-1	5.833547E-1	5.356283E-1	5.517886E-1	5.484602E-1
5.380160E+2	6.131884E-1	5.759807E-1	5.995255E-1	6.009170E-1	5.877623E-1	5.826909E-1	6.107056E-1	5.490184E-1	5.960805E-1	5.870790E-1	6.048797E-1	6.336795E-1	5.858424E-1	6.286339E-1	6.206605E-1	6.025213E-1	6.131977E-1	5.931526E-1	5.883342E-1	5.954862E-1	5.832064E-1	5.858877E-1	6.100487E-1	6.291325E-1	5.876054E-1	6.140956E-1	5.929830E-1	6.003174E-1	5.663194E-1	5.869250E-1	6.060315E-1	5.698949E-1	5.903214E-1	6.152966E-1	6.107928E-1	5.888499E-1	5.428358E-1	5.862086E-1	5.982047E-1	5.823022E-1	5.865411E-1	6.062125E-1	6.117304E-1	6.191853E-1	5.864034E-1	6.225767E-1	5.685181E-1	5.728947E-1	5.638416E-1	6.358471E-1	5.848853E-1	6.191768E-1	5.583314E-1	6.022058E-1	6.003680E-1	5.871443E-1	5.892589E-1	5.990793E-1	6.200259E-1	6.204961E-1	6.185562E-1	5.790687E-1	6.359753E-1	6.059482E-1	6.216660E-1	6.047786E-1	6.112122E-1	5.733889E-1	5.737546E-1	6.194798E-1	5.707487E-1	5.730014E-1	5.732789E-1	6.355164E-1	6.140739E-1	5.993481E-1	5.853056E-1	6.050280E-1	6.041677E-1	5.558661E-1	6.091631E-1	6.108116E-1	6.288348E-1	5.632083E-1	5.744823E-1	5.811826E-1	6.300980E-1	6.184706E-1	5.938754E-1	6.544545E-1	6.357010E-1	5.872157E-1	6.055244E-1	6.218715E-1	5.851231E-1	5.920550E-1	6.088072E-1	5.970231E-1	5.953929E-1	6.080420E-1	6.172040E-1	6.097249E-1	5.883171E-1	6.145666E-1	5.906029E-1	5.922947E-1	6.004536E-1	6.155162E-1	6.145546E-1	6.112269E-1	6.157601E-1	5.857162E-1	5.876688E-1	6.099099E-1	6.203070E-1	6.418578E-1	6.348353E-1	6.077758E-1	6.211285E-1	6.078576E-1	6.360861E-1	5.753426E-1	5.967923E-1	5.855920E-1	5.983529E-1	5.988327E-1	5.928459E-1	5.902621E-1	6.103857E-1	6.081628E-1	5.962197E-1	6.137262E-1	5.795965E-1	5.860636E-1	5.823557E-1	6.295539E-1	5.934344E-1	5.973627E-1	5.862570E-1	6.044708E-1	6.143086E-1	5.989508E-1	5.664366E-1	6.083432E-1	6.004857E-1	6.029429E-1	5.725645E-1	5.907378E-1	5.803828E-1	6.236752E-1	5.919513E-1	6.166806E-1	6.165875E-1	6.454667E-1	5.662666E-1	5.903047E-1	5.966284E-1	6.074702E-1	6.090243E-1	5.884456E-1	6.257365E-1	5.832741E-1	6.094341E-1	5.859662E-1	5.839895E-1	6.099194E-1
5.382850E+2	7.391758E-1	7.326735E-1	7.518925E-1	6.866558E-1	7.117665E-1	7.040315E-1	7.788876E-1	7.104144E-1	7.317322E-1	7.407013E-1	7.400506E-1	6.887444E-1	7.186162E-1	6.924674E-1	6.950444E-1	7.407517E-1	7.280146E-1	7.096469E-1	7.160833E-1	6.929640E-1	7.057916E-1	6.623773E-1	6.829686E-1	7.189592E-1	7.065655E-1	7.162437E-1	7.474535E-1	6.477178E-1	7.242623E-1	7.046111E-1	7.153429E-1	6.969972E-1	7.277909E-1	7.164568E-1	7.206676E-1	6.913644E-1	6.928634E-1	6.722022E-1	7.702241E-1	7.317230E-1	6.984077E-1	7.079024E-1	7.496289E-1	6.783243E-1	7.536778E-1	6.954120E-1	6.890659E-1	6.978655E-1	7.263943E-1	7.250768E-1	6.513470E-1	6.655681E-1	6.855820E-1	7.233782E-1	7.414531E-1	7.406287E-1	7.257465E-1	7.416573E-1	7.550095E-1	7.170208E-1	7.076096E-1	7.410488E-1	6.822140E-1	7.130338E-1	6.935597E-1	7.227431E-1	7.119957E-1	7.586663E-1	7.087461E-1	7.642263E-1	6.809619E-1	7.031968E-1	7.103711E-1	7.274460E-1	7.280268E-1	7.473612E-1	7.533168E-1	7.333926E-1	7.128638E-1	7.222990E-1	7.302465E-1	7.680006E-1	7.241949E-1	6.901288E-1	7.043884E-1	7.027909E-1	6.849581E-1	7.227922E-1	7.358572E-1	6.932629E-1	7.041978E-1	7.561701E-1	6.992133E-1	7.172597E-1	7.281316E-1	6.960816E-1	6.982559E-1	6.903674E-1	7.092032E-1	7.204701E-1	7.340343E-1	7.136863E-1	7.131154E-1	7.093436E-1	7.254230E-1	7.274407E-1	7.514420E-1	6.814518E-1	7.158132E-1	7.073462E-1	7.263733E-1	7.420183E-1	7.122310E-1	7.177127E-1	7.048741E-1	7.520849E-1	7.031639E-1	6.944785E-1	7.269373E-1	7.377387E-1	6.767080E-1	7.200556E-1	7.367074E-1	7.684803E-1	7.177633E-1	7.178197E-1	6.972676E-1	6.990430E-1	6.802956E-1	6.967587E-1	7.093259E-1	7.322075E-1	6.781754E-1	7.181963E-1	7.372067E-1	7.251416E-1	7.272070E-1	7.001036E-1	7.271292E-1	6.863913E-1	7.495863E-1	7.584907E-1	6.956958E-1	7.049595E-1	7.434474E-1	6.826023E-1	7.190255E-1	6.887229E-1	7.122912E-1	7.255804E-1	7.120920E-1	6.946947E-1	7.238443E-1	7.522161E-1	7.526422E-1	6.941483E-1	7.470913E-1	7.470016E-1	7.128100E-1	7.104447E-1	7.274581E-1	7.114933E-1	7.483009E-1	6.597195E-1	6.660135E-1	6.988760E-1
5.385110E+2	8.571687E-1	8.388692E-1	8.918825E-1	8.318088E-1	8.746108E-1	8.267009E-1	8.403641E-1	8.752420E-1	8.181818E-1	8.259358E-1	8.835849E-1	8.112387E-1	8.614994E-1	8.777571E-1	8.366675E-1	7.997734E-1	8.658035E-1	8.693175E-1	8.224231E-1	8.663789E-1	8.426262E-1	8.498476E-1	8.568798E-1	8.479062E-1	8.440862E-1	8.584223E-1	8.148648E-1	8.571419E-1	8.228257E-1	8.616364E-1	8.302533E-1	8.133055E-1	8.199194E-1	8.025837E-1	7.977315E-1	8.626740E-1	8.402158E-1	8.516309E-1	8.268702E-1	8.725702E-1	7.798524E-1	8.283370E-1	8.685081E-1	8.997365E-1	8.021078E-1	8.721992E-1	8.251969E-1	7.909411E-1	8.347856E-1	8.524155E-1	8.404308E-1	7.921025E-1	8.484248E-1	8.484009E-1	8.445259E-1	8.410837E-1	9.307863E-1	8.261480E-1	8.372577E-1	8.485088E-1	8.848316E-1	8.195228E-1	8.023601E-1	8.267111E-1	8.624665E-1	9.109863E-1	7.985381E-1	8.328104E-1	7.866206E-1	8.444768E-1	8.558654E-1	8.438788E-1	8.384142E-1	8.284991E-1	8.101979E-1	8.808152E-1	8.957615E-1	8.596785E-1	8.234450E-1	8.268846E-1	8.259107E-1	8.370951E-1	8.109671E-1	8.462108E-1	8.431470E-1	8.698446E-1	8.354250E-1	8.451785E-1	8.135857E-1	8.600631E-1	7.970567E-1	8.356384E-1	8.306368E-1	8.648478E-1	9.099795E-1	8.273096E-1	8.170764E-1	8.351736E-1	8.915734E-1	8.049572E-1	8.377379E-1	8.285147E-1	8.608016E-1	8.818440E-1	8.033511E-1	8.412148E-1	8.462357E-1	8.346662E-1	8.398849E-1	8.482206E-1	8.300123E-1	8.220164E-1	8.026200E-1	8.429917E-1	8.130912E-1	8.162872E-1	8.423476E-1	7.922015E-1	8.624375E-1	8.587698E-1	8.527422E-1	8.423187E-1	8.358443E-1	8.466796E-1	8.505345E-1	7.958703E-1	8.438717E-1	8.860938E-1	8.756622E-1	8.260324E-1	8.561547E-1	8.486893E-1	8.010679E-1	8.404458E-1	8.401528E-1	8.722141E-1	9.066946E-1	8.796600E-1	8.350649E-1	7.869312E-1	8.679537E-1	8.253493E-1	8.760961E-1	8.538280E-1	8.057755E-1	8.737363E-1	8.550726E-1	8.393030E-1	8.657866E-1	8.238122E-1	8.467773E-1	8.388842E-1	8.582248E-1	7.980584E-1	8.458272E-1	8.405463E-1	8.014373E-1	8.344283E-1	7.848212E-1	8.315573E-1	8.177616E-1	8.426292E-1	8.450633E-1	8.307634E-1	9.153549E-1	7.807829E-1
5.387600E+2	1.006043E+0	1.024601E+0	9.964817E-1	9.921347E-1	1.014218E+0	1.003464E+0	1.016382E+0	1.045834E+0	9.938829E-1	9.774870E-1	9.805079E-1	1.047796E+0	9.795999E-1	1.025320E+0	9.691835E-1	9.929368E-1	1.048075E+0	9.869704E-1	1.001937E+0	1.010805E+0	9.721362E-1	9.523584E-1	1.005952E+0	1.061916E+0	1.027796E+0	9.974343E-1	9.874867E-1	1.042414E+0	9.821903E-1	1.024298E+0	1.007025E+0	9.863607E-1	1.007663E+0	9.835667E-1	9.813274E-1	1.020007E+0	1.020401E+0	1.020477E+0	1.048478E+0	1.015179E+0	9.830868E-1	1.023309E+0	1.010839E+0	1.000155E+0	1.031060E+0	1.028521E+0	9.313402E-1	1.017385E+0	9.905332E-1	9.789380E-1	9.981281E-1	9.749846E-1	9.935767E-1	1.033796E+0	9.961852E-1	1.019441E+0	1.013642E+0	1.000600E+0	9.894749E-1	1.006093E+0	9.934134E-1	1.028121E+0	9.824756E-1	9.636448E-1	9.721304E-1	1.047224E+0	1.022799E+0	1.003549E+0	9.545832E-1	9.750803E-1	9.702961E-1	9.756534E-1	9.887019E-1	1.002689E+0	9.689103E-1	9.931584E-1	1.006410E+0	9.849852E-1	1.002571E+0	9.875952E-1	9.794267E-1	1.018906E+0	1.015324E+0	1.058116E+0	9.821544E-1	9.970667E-1	9.500092E-1	9.768579E-1	9.263175E-1	9.822626E-1	1.007207E+0	1.022949E+0	9.223834E-1	1.027311E+0	9.914235E-1	9.989220E-1	1.016062E+0	9.790540E-1	1.002352E+0	1.012684E+0	1.002715E+0	9.950285E-1	1.010921E+0	9.924779E-1	1.006048E+0	1.036024E+0	1.019161E+0	9.982525E-1	1.022189E+0	1.066777E+0	1.037063E+0	1.011308E+0	9.953600E-1	9.917761E-1	9.898592E-1	1.036369E+0	1.006735E+0	9.981566E-1	9.835473E-1	9.667482E-1	9.909278E-1	9.959190E-1	1.020683E+0	9.906849E-1	9.943139E-1	1.023843E+0	9.713535E-1	1.030604E+0	1.016277E+0	1.005738E+0	1.015801E+0	9.770788E-1	1.011885E+0	9.747198E-1	9.697750E-1	9.872537E-1	9.955220E-1	1.026540E+0	9.850957E-1	1.002983E+0	9.979521E-1	9.766606E-1	1.017249E+0	9.743540E-1	1.014088E+0	9.426172E-1	1.012013E+0	9.716478E-1	1.006806E+0	9.533640E-1	1.032970E+0	1.025007E+0	1.038463E+0	9.668017E-1	9.851885E-1	9.579022E-1	9.957779E-1	1.037512E+0	1.018524E+0	9.975167E-1	9.973836E-1	1.053556E+0	1.032453E+0	9.941381E-1	1.004429E+0	9.720372E-1
5.390240E+2	1.262562E+0	1.183247E+0	1.185113E+0	1.194692E+0	1.199448E+0	1.230184E+0	1.190003E+0	1.220677E+0	1.215390E+0	1.205847E+0	1.123235E+0	1.231739E+0	1.211191E+0	1.221041E+0	1.177946E+0	1.181552E+0	1.263350E+0	1.187393E+0	1.206871E+0	1.194392E+0	1.182665E+0	1.179398E+0	1.195471E+0	1.234655E+0	1.239176E+0	1.245630E+0	1.210219E+0	1.219234E+0	1.203311E+0	1.206885E+0	1.179556E+0	1.196234E+0	1.241536E+0	1.190931E+0	1.187146E+0	1.198912E+0	1.219931E+0	1.180982E+0	1.169950E+0	1.233478E+0	1.222714E+0	1.193421E+0	1.212583E+0	1.239854E+0	1.216586E+0	1.218113E+0	1.124981E+0	1.219033E+0	1.216932E+0	1.220643E+0	1.179267E+0	1.250499E+0	1.225995E+0	1.194982E+0	1.230059E+0	1.229548E+0	1.208922E+0	1.237992E+0	1.232565E+0	1.192895E+0	1.232207E+0	1.166936E+0	1.130253E+0	1.253508E+0	1.277809E+0	1.180521E+0	1.242432E+0	1.205088E+0	1.147692E+0	1.242599E+0	1.202363E+0	1.217765E+0	1.184887E+0	1.225557E+0	1.189361E+0	1.206690E+0	1.215233E+0	1.190702E+0	1.190586E+0	1.237259E+0	1.206255E+0	1.221359E+0	1.178164E+0	1.251463E+0	1.148190E+0	1.239505E+0	1.233169E+0	1.225233E+0	1.198922E+0	1.218082E+0	1.235825E+0	1.251397E+0	1.229925E+0	1.175286E+0	1.211982E+0	1.244414E+0	1.223242E+0	1.171201E+0	1.206624E+0	1.214579E+0	1.177279E+0	1.238647E+0	1.232239E+0	1.234145E+0	1.245491E+0	1.233273E+0	1.179584E+0	1.153758E+0	1.225461E+0	1.191542E+0	1.217381E+0	1.219454E+0	1.198291E+0	1.223060E+0	1.215763E+0	1.250406E+0	1.155412E+0	1.189161E+0	1.212941E+0	1.208380E+0	1.187507E+0	1.241051E+0	1.185769E+0	1.169900E+0	1.222182E+0	1.171510E+0	1.208502E+0	1.191719E+0	1.157545E+0	1.155757E+0	1.206773E+0	1.186463E+0	1.160219E+0	1.143790E+0	1.207674E+0	1.174778E+0	1.208205E+0	1.174155E+0	1.185093E+0	1.213578E+0	1.217762E+0	1.185386E+0	1.193330E+0	1.191953E+0	1.194801E+0	1.192998E+0	1.233679E+0	1.149090E+0	1.182965E+0	1.176616E+0	1.232645E+0	1.205914E+0	1.234548E+0	1.181130E+0	1.163492E+0	1.169622E+0	1.239465E+0	1.204066E+0	1.162284E+0	1.245724E+0	1.164669E+0	1.278809E+0	1.229324E+0	1.201235E+0	1.116572E+0	1.266419E+0
5.392670E+2	1.477568E+0	1.383473E+0	1.414134E+0	1.399575E+0	1.401244E+0	1.321949E+0	1.381410E+0	1.446611E+0	1.446372E+0	1.391004E+0	1.378225E+0	1.422203E+0	1.402100E+0	1.422952E+0	1.348698E+0	1.358663E+0	1.458931E+0	1.352977E+0	1.419666E+0	1.360112E+0	1.371591E+0	1.380066E+0	1.351126E+0	1.373226E+0	1.418474E+0	1.415863E+0	1.406327E+0	1.393537E+0	1.389729E+0	1.376383E+0	1.378559E+0	1.391559E+0	1.446196E+0	1.379032E+0	1.347136E+0	1.415943E+0	1.412522E+0	1.389463E+0	1.363539E+0	1.410545E+0	1.352276E+0	1.382185E+0	1.386502E+0	1.379558E+0	1.393304E+0	1.408404E+0	1.347145E+0	1.390700E+0	1.367318E+0	1.422738E+0	1.352095E+0	1.385914E+0	1.373089E+0	1.428784E+0	1.387525E+0	1.403379E+0	1.339821E+0	1.362479E+0	1.430084E+0	1.398745E+0	1.421160E+0	1.339289E+0	1.310370E+0	1.404228E+0	1.393938E+0	1.362616E+0	1.405059E+0	1.427919E+0	1.373549E+0	1.427376E+0	1.382550E+0	1.444599E+0	1.424178E+0	1.317072E+0	1.367796E+0	1.407784E+0	1.439478E+0	1.409621E+0	1.369716E+0	1.411435E+0	1.346797E+0	1.363081E+0	1.346687E+0	1.368503E+0	1.309905E+0	1.361851E+0	1.356028E+0	1.375239E+0	1.334044E+0	1.400522E+0	1.429483E+0	1.397266E+0	1.374056E+0	1.364369E+0	1.416446E+0	1.373207E+0	1.393724E+0	1.377875E+0	1.357769E+0	1.287770E+0	1.350745E+0	1.353112E+0	1.414134E+0	1.382922E+0	1.361267E+0	1.434379E+0	1.436028E+0	1.351059E+0	1.325894E+0	1.372000E+0	1.386016E+0	1.413448E+0	1.403519E+0	1.393712E+0	1.340388E+0	1.411053E+0	1.350212E+0	1.421372E+0	1.370137E+0	1.405056E+0	1.368563E+0	1.333010E+0	1.405808E+0	1.396896E+0	1.396682E+0	1.338731E+0	1.424919E+0	1.352587E+0	1.440360E+0	1.374125E+0	1.396099E+0	1.335173E+0	1.374806E+0	1.378431E+0	1.337139E+0	1.359370E+0	1.369213E+0	1.373570E+0	1.367956E+0	1.378101E+0	1.430508E+0	1.362559E+0	1.366970E+0	1.307996E+0	1.439622E+0	1.474836E+0	1.405703E+0	1.371103E+0	1.389310E+0	1.394371E+0	1.406483E+0	1.381696E+0	1.387121E+0	1.380428E+0	1.374828E+0	1.396332E+0	1.401954E+0	1.372971E+0	1.373557E+0	1.396984E+0	1.332254E+0	1.390207E+0	1.323297E+0	1.267770E+0	1.273115E+0	1.364416E+0
5.395160E+2	1.711929E+0	1.631707E+0	1.621090E+0	1.583049E+0	1.569094E+0	1.607914E+0	1.577562E+0	1.554017E+0	1.576480E+0	1.554652E+0	1.532184E+0	1.565561E+0	1.680150E+0	1.590305E+0	1.548463E+0	1.588449E+0	1.632968E+0	1.570296E+0	1.604300E+0	1.549389E+0	1.597287E+0	1.598641E+0	1.579569E+0	1.597751E+0	1.594954E+0	1.645679E+0	1.583576E+0	1.560225E+0	1.586522E+0	1.672949E+0	1.657620E+0	1.611103E+0	1.560869E+0	1.530536E+0	1.612181E+0	1.620932E+0	1.647183E+0	1.591078E+0	1.575137E+0	1.629472E+0	1.596490E+0	1.674827E+0	1.614320E+0	1.520553E+0	1.614856E+0	1.680712E+0	1.560653E+0	1.547867E+0	1.606700E+0	1.643324E+0	1.607782E+0	1.549028E+0	1.598341E+0	1.671209E+0	1.600389E+0	1.620612E+0	1.619018E+0	1.613916E+0	1.618257E+0	1.620020E+0	1.719114E+0	1.586943E+0	1.564145E+0	1.602239E+0	1.534312E+0	1.627241E+0	1.580361E+0	1.553562E+0	1.572209E+0	1.629513E+0	1.634956E+0	1.552559E+0	1.609736E+0	1.594170E+0	1.543731E+0	1.621267E+0	1.532676E+0	1.582167E+0	1.539051E+0	1.638864E+0	1.520394E+0	1.605182E+0	1.562360E+0	1.547126E+0	1.506437E+0	1.594604E+0	1.564930E+0	1.543340E+0	1.571381E+0	1.577977E+0	1.562809E+0	1.592326E+0	1.556697E+0	1.545422E+0	1.568815E+0	1.614250E+0	1.578176E+0	1.566478E+0	1.599183E+0	1.549809E+0	1.519352E+0	1.570220E+0	1.547454E+0	1.561659E+0	1.541242E+0	1.580953E+0	1.550369E+0	1.551700E+0	1.549555E+0	1.540424E+0	1.566350E+0	1.577423E+0	1.601707E+0	1.517812E+0	1.515743E+0	1.568682E+0	1.557161E+0	1.526208E+0	1.520660E+0	1.550281E+0	1.609313E+0	1.607412E+0	1.550236E+0	1.576612E+0	1.514582E+0	1.536209E+0	1.567504E+0	1.587262E+0	1.574905E+0	1.572157E+0	1.551491E+0	1.543601E+0	1.574950E+0	1.586362E+0	1.588155E+0	1.553722E+0	1.554397E+0	1.632365E+0	1.530206E+0	1.504763E+0	1.549448E+0	1.566725E+0	1.508639E+0	1.520521E+0	1.528179E+0	1.573890E+0	1.565073E+0	1.542769E+0	1.606222E+0	1.589912E+0	1.545025E+0	1.552143E+0	1.549308E+0	1.588369E+0	1.584755E+0	1.531489E+0	1.524277E+0	1.583659E+0	1.563209E+0	1.570341E+0	1.544108E+0	1.529193E+0	1.506386E+0	1.507362E+0	1.475067E+0	1.510560E+0
5.397700E+2	1.973340E+0	1.909538E+0	1.853164E+0	1.940258E+0	1.795815E+0	1.861983E+0	1.816656E+0	1.875469E+0	1.779002E+0	1.864760E+0	1.868569E+0	1.832016E+0	1.888760E+0	1.852082E+0	1.874888E+0	1.822462E+0	1.863950E+0	1.876292E+0	1.872864E+0	1.922732E+0	1.884341E+0	1.800996E+0	1.907125E+0	1.881279E+0	1.846830E+0	1.862945E+0	1.865512E+0	1.887974E+0	1.872654E+0	1.885683E+0	1.872783E+0	1.874783E+0	1.807814E+0	1.843973E+0	1.853216E+0	1.895892E+0	1.841300E+0	1.847696E+0	1.871896E+0	1.881226E+0	1.794725E+0	1.889014E+0	1.935951E+0	1.857185E+0	1.874676E+0	1.889506E+0	1.813779E+0	1.851907E+0	1.895850E+0	1.909736E+0	1.813446E+0	1.797139E+0	1.885775E+0	1.843473E+0	1.851207E+0	1.887154E+0	1.899760E+0	1.902519E+0	1.861125E+0	1.839061E+0	1.903853E+0	1.894057E+0	1.803892E+0	1.867915E+0	1.935881E+0	1.850536E+0	1.821266E+0	1.844533E+0	1.787313E+0	1.866396E+0	1.845441E+0	1.861209E+0	1.855904E+0	1.878569E+0	1.782543E+0	1.906224E+0	1.863681E+0	1.890827E+0	1.780204E+0	1.810135E+0	1.876548E+0	1.756760E+0	1.932414E+0	1.817439E+0	1.754083E+0	1.884489E+0	1.832095E+0	1.837439E+0	1.851161E+0	1.800722E+0	1.745925E+0	1.898124E+0	1.817039E+0	1.868595E+0	1.808634E+0	1.798989E+0	1.855942E+0	1.801976E+0	1.855141E+0	1.879872E+0	1.809523E+0	1.751187E+0	1.786844E+0	1.882872E+0	1.826276E+0	1.849526E+0	1.869716E+0	1.828518E+0	1.827097E+0	1.871748E+0	1.761655E+0	1.879580E+0	1.876620E+0	1.758036E+0	1.779912E+0	1.826863E+0	1.824174E+0	1.783956E+0	1.829940E+0	1.870667E+0	1.838410E+0	1.926626E+0	1.805273E+0	1.833311E+0	1.752356E+0	1.804901E+0	1.833777E+0	1.817079E+0	1.792166E+0	1.854005E+0	1.827169E+0	1.772430E+0	1.846331E+0	1.788473E+0	1.807090E+0	1.812835E+0	1.763046E+0	1.798139E+0	1.748188E+0	1.839031E+0	1.819486E+0	1.886179E+0	1.788638E+0	1.759149E+0	1.792106E+0	1.717276E+0	1.809925E+0	1.781065E+0	1.819168E+0	1.742447E+0	1.853497E+0	1.800678E+0	1.828350E+0	1.783648E+0	1.861643E+0	1.734756E+0	1.890350E+0	1.826731E+0	1.791397E+0	1.795015E+0	1.848863E+0	1.798447E+0	1.708835E+0	1.793816E+0	1.715908E+0	1.795157E+0
5.400190E+2	2.041797E+0	1.915998E+0	1.851210E+0	1.940377E+0	1.873369E+0	1.932555E+0	1.875121E+0	1.978339E+0	1.895913E+0	1.818751E+0	1.906683E+0	1.884750E+0	1.914415E+0	1.882257E+0	1.908089E+0	1.867971E+0	1.971272E+0	1.891143E+0	1.853985E+0	1.854637E+0	1.849404E+0	1.893755E+0	1.857176E+0	2.022373E+0	1.961997E+0	1.903391E+0	1.884759E+0	1.862037E+0	1.815961E+0	1.885595E+0	1.915493E+0	1.891834E+0	1.922986E+0	1.895537E+0	1.868192E+0	1.921820E+0	1.874476E+0	1.902676E+0	1.902044E+0	1.909687E+0	1.895086E+0	1.900122E+0	1.909106E+0	1.987644E+0	1.915342E+0	1.896985E+0	1.834409E+0	1.848376E+0	1.872094E+0	1.882668E+0	1.847813E+0	1.860085E+0	1.943546E+0	1.880532E+0	1.855306E+0	1.860532E+0	1.899509E+0	1.925846E+0	1.884647E+0	1.935601E+0	1.911373E+0	1.865166E+0	1.824818E+0	1.889590E+0	1.809936E+0	1.915738E+0	1.859109E+0	1.881113E+0	1.877289E+0	1.849267E+0	1.906730E+0	1.869338E+0	1.820943E+0	1.785079E+0	1.836139E+0	1.924453E+0	1.836810E+0	1.899543E+0	1.813747E+0	1.882123E+0	1.843704E+0	1.884113E+0	1.891182E+0	1.813402E+0	1.807304E+0	1.812709E+0	1.843073E+0	1.931642E+0	1.844344E+0	1.860350E+0	1.847705E+0	1.904252E+0	1.844859E+0	1.872880E+0	1.814405E+0	1.774594E+0	1.858425E+0	1.853039E+0	1.832919E+0	1.873516E+0	1.822185E+0	1.853410E+0	1.858797E+0	1.902002E+0	1.870841E+0	1.903918E+0	1.783032E+0	1.835808E+0	1.873301E+0	1.825333E+0	1.815331E+0	1.861404E+0	1.844958E+0	1.799661E+0	1.822907E+0	1.852855E+0	1.838398E+0	1.878394E+0	1.862302E+0	1.796761E+0	1.857145E+0	1.895407E+0	1.796910E+0	1.787560E+0	1.831505E+0	1.899083E+0	1.852810E+0	1.817041E+0	1.889076E+0	1.838939E+0	1.860424E+0	1.832836E+0	1.849784E+0	1.805125E+0	1.794358E+0	1.897227E+0	1.843613E+0	1.873817E+0	1.858690E+0	1.772746E+0	1.850281E+0	1.878371E+0	1.783614E+0	1.861482E+0	1.874464E+0	1.826506E+0	1.824178E+0	1.802795E+0	1.853713E+0	1.806121E+0	1.941032E+0	1.763071E+0	1.826291E+0	1.813072E+0	1.841277E+0	1.845991E+0	1.849646E+0	1.853338E+0	1.780902E+0	1.820808E+0	1.862239E+0	1.749823E+0	1.905960E+0	1.748676E+0	1.811135E+0	1.753075E+0
5.402530E+2	2.074082E+0	2.036729E+0	1.934608E+0	2.050547E+0	1.960427E+0	2.063571E+0	2.026768E+0	2.044079E+0	1.959851E+0	2.010995E+0	2.034446E+0	2.040149E+0	2.096490E+0	2.024383E+0	1.972083E+0	2.019846E+0	2.091300E+0	1.962957E+0	2.031713E+0	1.998715E+0	2.010766E+0	1.957086E+0	2.014899E+0	2.025454E+0	2.006688E+0	2.001784E+0	1.915609E+0	2.035863E+0	1.992026E+0	2.001486E+0	1.971756E+0	1.966416E+0	2.051634E+0	2.004377E+0	2.007281E+0	2.007281E+0	2.023224E+0	1.992016E+0	1.937499E+0	2.060114E+0	2.008896E+0	2.048646E+0	1.988849E+0	2.063004E+0	1.956421E+0	1.991628E+0	1.908293E+0	1.957303E+0	1.988151E+0	2.050961E+0	1.954735E+0	1.937508E+0	1.975136E+0	2.069171E+0	1.967103E+0	2.043385E+0	2.025797E+0	2.017311E+0	2.012074E+0	2.024686E+0	2.074048E+0	1.968111E+0	1.979217E+0	1.947179E+0	2.030070E+0	1.908541E+0	1.920493E+0	2.059151E+0	1.982821E+0	1.999720E+0	2.014485E+0	2.083576E+0	1.971148E+0	1.943817E+0	1.882688E+0	2.072376E+0	2.008353E+0	1.984890E+0	1.951048E+0	1.968444E+0	1.959293E+0	1.973308E+0	1.994748E+0	2.038461E+0	1.863096E+0	2.008687E+0	1.885067E+0	2.035126E+0	1.955062E+0	1.927807E+0	1.967525E+0	2.031973E+0	1.984039E+0	1.977993E+0	1.992131E+0	1.978202E+0	1.981895E+0	1.926871E+0	1.971816E+0	1.998569E+0	1.903060E+0	1.907756E+0	1.913804E+0	1.984178E+0	1.949719E+0	2.005978E+0	1.999163E+0	2.033240E+0	1.919347E+0	1.917901E+0	1.894839E+0	1.975510E+0	2.028176E+0	1.909752E+0	1.911698E+0	2.003196E+0	1.935539E+0	1.972795E+0	1.936783E+0	2.023175E+0	1.999148E+0	1.918613E+0	1.901142E+0	1.972236E+0	1.860368E+0	1.950323E+0	1.835491E+0	1.974780E+0	1.948959E+0	1.912672E+0	1.882803E+0	1.903948E+0	1.884474E+0	1.936796E+0	1.890553E+0	1.926453E+0	1.987340E+0	1.898431E+0	1.959573E+0	1.983643E+0	1.984610E+0	1.947973E+0	1.929937E+0	1.891712E+0	1.954509E+0	1.888757E+0	1.958064E+0	1.935136E+0	1.907034E+0	1.919915E+0	1.867869E+0	1.936218E+0	1.996653E+0	1.893661E+0	1.896289E+0	1.958192E+0	1.856666E+0	1.986662E+0	1.848672E+0	2.002148E+0	2.024204E+0	1.918740E+0	1.948370E+0	1.907626E+0	1.983886E+0	1.822809E+0
5.405080E+2	2.001562E+0	1.940531E+0	1.892099E+0	1.917817E+0	1.904582E+0	1.866116E+0	1.965740E+0	1.897835E+0	1.883643E+0	1.870792E+0	1.849730E+0	1.897603E+0	1.907489E+0	1.957571E+0	1.893998E+0	1.934450E+0	1.985439E+0	1.923068E+0	1.944089E+0	1.882589E+0	1.925905E+0	1.895326E+0	1.950181E+0	1.968499E+0	1.915400E+0	1.876581E+0	1.875867E+0	1.888195E+0	1.875245E+0	1.960483E+0	1.943716E+0	1.911458E+0	1.914888E+0	1.963770E+0	1.904422E+0	1.890463E+0	1.950050E+0	1.847812E+0	1.907450E+0	1.979961E+0	1.890446E+0	1.921442E+0	1.928556E+0	1.915116E+0	1.927895E+0	1.863895E+0	1.902463E+0	1.886467E+0	1.913080E+0	1.963230E+0	1.813087E+0	1.971899E+0	1.851378E+0	1.947449E+0	1.919044E+0	1.890215E+0	1.901753E+0	1.938963E+0	1.793449E+0	1.968598E+0	1.974209E+0	1.896262E+0	1.822434E+0	1.899924E+0	1.922091E+0	1.922770E+0	1.888729E+0	1.903040E+0	1.882512E+0	1.982826E+0	1.932621E+0	1.880014E+0	1.850547E+0	1.888965E+0	1.853668E+0	1.938597E+0	1.932383E+0	1.896150E+0	1.830631E+0	1.884965E+0	1.859160E+0	1.886315E+0	1.927038E+0	1.894417E+0	1.906813E+0	1.967191E+0	1.872423E+0	1.923254E+0	1.880617E+0	1.886338E+0	1.898741E+0	1.928112E+0	1.841875E+0	1.891662E+0	1.769489E+0	1.896788E+0	1.939741E+0	1.836657E+0	1.859581E+0	1.937782E+0	1.897931E+0	1.839425E+0	1.893898E+0	1.857341E+0	1.925760E+0	1.843835E+0	1.894230E+0	1.923118E+0	1.898773E+0	1.854850E+0	1.830630E+0	1.853324E+0	1.928688E+0	1.783115E+0	1.870574E+0	1.884754E+0	1.850966E+0	1.857325E+0	1.818049E+0	1.869967E+0	1.886026E+0	1.928640E+0	1.875769E+0	1.907319E+0	1.854712E+0	1.881507E+0	1.807569E+0	1.927211E+0	1.911410E+0	1.845870E+0	1.846548E+0	1.828912E+0	1.825723E+0	1.894999E+0	1.860587E+0	1.872303E+0	1.900392E+0	1.759351E+0	1.847439E+0	1.886539E+0	1.890626E+0	1.921255E+0	1.853369E+0	1.890719E+0	1.802064E+0	1.839757E+0	1.850917E+0	1.878094E+0	1.894203E+0	1.875350E+0	1.893124E+0	1.843536E+0	1.831171E+0	1.874429E+0	1.840722E+0	1.859978E+0	1.863220E+0	1.832442E+0	1.866080E+0	1.842818E+0	1.913519E+0	1.813618E+0	1.768012E+0	1.797043E+0	1.797747E+0	1.784922E+0
5.407630E+2	1.963695E+0	1.886122E+0	1.940908E+0	1.888860E+0	1.867060E+0	1.868150E+0	1.869778E+0	1.880361E+0	1.885543E+0	1.903078E+0	1.935035E+0	1.912489E+0	1.966185E+0	1.872052E+0	1.853134E+0	1.902391E+0	1.945436E+0	1.881434E+0	1.890623E+0	1.890591E+0	1.922046E+0	1.949146E+0	1.901761E+0	1.965463E+0	1.895707E+0	1.907808E+0	1.853221E+0	1.915277E+0	1.855351E+0	1.867761E+0	1.856713E+0	1.838376E+0	1.892777E+0	1.854060E+0	1.913340E+0	1.898327E+0	1.896143E+0	1.930399E+0	1.869759E+0	2.023470E+0	1.894920E+0	1.962922E+0	1.856517E+0	1.900038E+0	1.910563E+0	1.867994E+0	1.833911E+0	1.896931E+0	1.851611E+0	1.862345E+0	1.846965E+0	1.857499E+0	1.813718E+0	1.933709E+0	1.869304E+0	1.877725E+0	1.879357E+0	1.910107E+0	1.887731E+0	1.910628E+0	1.856112E+0	1.865570E+0	1.847967E+0	1.905697E+0	1.886348E+0	1.838066E+0	1.873674E+0	1.920199E+0	1.849568E+0	1.900442E+0	1.879990E+0	1.855218E+0	1.927422E+0	1.841234E+0	1.815325E+0	1.951452E+0	1.784592E+0	1.904539E+0	1.826048E+0	1.824889E+0	1.834797E+0	1.816008E+0	1.871930E+0	1.855577E+0	1.881575E+0	1.881975E+0	1.866038E+0	1.879795E+0	1.853177E+0	1.926857E+0	1.884354E+0	1.924675E+0	1.883228E+0	1.861765E+0	1.771094E+0	1.803960E+0	1.954974E+0	1.849619E+0	1.848326E+0	1.924285E+0	1.799751E+0	1.806044E+0	1.800465E+0	1.867435E+0	1.827662E+0	1.912120E+0	1.862408E+0	1.877993E+0	1.805110E+0	1.871898E+0	1.852684E+0	1.794343E+0	1.839000E+0	1.839966E+0	1.822398E+0	1.858377E+0	1.787771E+0	1.799194E+0	1.805057E+0	1.902187E+0	1.898569E+0	1.887392E+0	1.795722E+0	1.829006E+0	1.853638E+0	1.881515E+0	1.824049E+0	1.826079E+0	1.839661E+0	1.780801E+0	1.853414E+0	1.828765E+0	1.828183E+0	1.848599E+0	1.742087E+0	1.889101E+0	1.876043E+0	1.853574E+0	1.763812E+0	1.830788E+0	1.831513E+0	1.839926E+0	1.729879E+0	1.765731E+0	1.869854E+0	1.810853E+0	1.886193E+0	1.762974E+0	1.919035E+0	1.829444E+0	1.843297E+0	1.848927E+0	1.805068E+0	1.805576E+0	1.822209E+0	1.862630E+0	1.810741E+0	1.908792E+0	1.804421E+0	1.859328E+0	1.882905E+0	1.766112E+0	1.808340E+0	1.763972E+0	1.729222E+0	1.780042E+0
5.410130E+2	1.679764E+0	1.713600E+0	1.614136E+0	1.664941E+0	1.543442E+0	1.582498E+0	1.609385E+0	1.619910E+0	1.619505E+0	1.647847E+0	1.607542E+0	1.710805E+0	1.695560E+0	1.679093E+0	1.583658E+0	1.635461E+0	1.636409E+0	1.631338E+0	1.662084E+0	1.496622E+0	1.648090E+0	1.596820E+0	1.633684E+0	1.632370E+0	1.581263E+0	1.686709E+0	1.629937E+0	1.663598E+0	1.543576E+0	1.619045E+0	1.608178E+0	1.650425E+0	1.665098E+0	1.613272E+0	1.582839E+0	1.560553E+0	1.629269E+0	1.597215E+0	1.618412E+0	1.634056E+0	1.574727E+0	1.592060E+0	1.605175E+0	1.632457E+0	1.600092E+0	1.617355E+0	1.587575E+0	1.586570E+0	1.593237E+0	1.614759E+0	1.590417E+0	1.638053E+0	1.642863E+0	1.585846E+0	1.599585E+0	1.590033E+0	1.575998E+0	1.623415E+0	1.671119E+0	1.558109E+0	1.709366E+0	1.640940E+0	1.551565E+0	1.580008E+0	1.642305E+0	1.653893E+0	1.607702E+0	1.555455E+0	1.570650E+0	1.601833E+0	1.572982E+0	1.611908E+0	1.575525E+0	1.543262E+0	1.579017E+0	1.662146E+0	1.629251E+0	1.576850E+0	1.530670E+0	1.588898E+0	1.580759E+0	1.588888E+0	1.606093E+0	1.574498E+0	1.559360E+0	1.619637E+0	1.624717E+0	1.648888E+0	1.592417E+0	1.612894E+0	1.575754E+0	1.695119E+0	1.607591E+0	1.647697E+0	1.576429E+0	1.579293E+0	1.607324E+0	1.616791E+0	1.623231E+0	1.632562E+0	1.536364E+0	1.561520E+0	1.574605E+0	1.627378E+0	1.591642E+0	1.617481E+0	1.531600E+0	1.563095E+0	1.604055E+0	1.643534E+0	1.618421E+0	1.603877E+0	1.666672E+0	1.539784E+0	1.541169E+0	1.542807E+0	1.631541E+0	1.594567E+0	1.593411E+0	1.624119E+0	1.607327E+0	1.632573E+0	1.541085E+0	1.643844E+0	1.633752E+0	1.569173E+0	1.566294E+0	1.574599E+0	1.640918E+0	1.561874E+0	1.573264E+0	1.591437E+0	1.563899E+0	1.572607E+0	1.538805E+0	1.604042E+0	1.625458E+0	1.623039E+0	1.528585E+0	1.535039E+0	1.608325E+0	1.502557E+0	1.615428E+0	1.576175E+0	1.659468E+0	1.532872E+0	1.613418E+0	1.584802E+0	1.523575E+0	1.592817E+0	1.559334E+0	1.602380E+0	1.548995E+0	1.556081E+0	1.596713E+0	1.618393E+0	1.627246E+0	1.573304E+0	1.517764E+0	1.591007E+0	1.627025E+0	1.576313E+0	1.610690E+0	1.644812E+0	1.570335E+0	1.493857E+0
5.412690E+2	1.748621E+0	1.718227E+0	1.673620E+0	1.681147E+0	1.635782E+0	1.673258E+0	1.761806E+0	1.731666E+0	1.629716E+0	1.641640E+0	1.666879E+0	1.698476E+0	1.704686E+0	1.687859E+0	1.666186E+0	1.658804E+0	1.656682E+0	1.686842E+0	1.726284E+0	1.733119E+0	1.696919E+0	1.677099E+0	1.678355E+0	1.689631E+0	1.707657E+0	1.650959E+0	1.680967E+0	1.712968E+0	1.619320E+0	1.721109E+0	1.667817E+0	1.680712E+0	1.675149E+0	1.699958E+0	1.668823E+0	1.684884E+0	1.632774E+0	1.662110E+0	1.642664E+0	1.665463E+0	1.702512E+0	1.634425E+0	1.676205E+0	1.714615E+0	1.711013E+0	1.674851E+0	1.659154E+0	1.646552E+0	1.600693E+0	1.696424E+0	1.643543E+0	1.720031E+0	1.658724E+0	1.686740E+0	1.623503E+0	1.728455E+0	1.676840E+0	1.612575E+0	1.656393E+0	1.699339E+0	1.724519E+0	1.652291E+0	1.603656E+0	1.678481E+0	1.628103E+0	1.674699E+0	1.736243E+0	1.691673E+0	1.632313E+0	1.702263E+0	1.639198E+0	1.601119E+0	1.658220E+0	1.647109E+0	1.675289E+0	1.676280E+0	1.692481E+0	1.633139E+0	1.695546E+0	1.646582E+0	1.669767E+0	1.669549E+0	1.645375E+0	1.689065E+0	1.602785E+0	1.692568E+0	1.649872E+0	1.673601E+0	1.658055E+0	1.657932E+0	1.621166E+0	1.657104E+0	1.673565E+0	1.657432E+0	1.666275E+0	1.671343E+0	1.678957E+0	1.604752E+0	1.631530E+0	1.688514E+0	1.597842E+0	1.630852E+0	1.584754E+0	1.658254E+0	1.709960E+0	1.694344E+0	1.675806E+0	1.678552E+0	1.705352E+0	1.667021E+0	1.534079E+0	1.682139E+0	1.713562E+0	1.734235E+0	1.579750E+0	1.652171E+0	1.584158E+0	1.680250E+0	1.594958E+0	1.672179E+0	1.661539E+0	1.693729E+0	1.590203E+0	1.662118E+0	1.666076E+0	1.622713E+0	1.637853E+0	1.673693E+0	1.607622E+0	1.725710E+0	1.604157E+0	1.615742E+0	1.614267E+0	1.595002E+0	1.684484E+0	1.692237E+0	1.651261E+0	1.658888E+0	1.632373E+0	1.627160E+0	1.613180E+0	1.650238E+0	1.591890E+0	1.620013E+0	1.640990E+0	1.610591E+0	1.626900E+0	1.615836E+0	1.673152E+0	1.653856E+0	1.640429E+0	1.624116E+0	1.684049E+0	1.630806E+0	1.624979E+0	1.670586E+0	1.611564E+0	1.642676E+0	1.620422E+0	1.669584E+0	1.685389E+0	1.614152E+0	1.522269E+0	1.576936E+0	1.623426E+0	1.524469E+0
5.415140E+2	1.677904E+0	1.635978E+0	1.595380E+0	1.623348E+0	1.600357E+0	1.600034E+0	1.611421E+0	1.628587E+0	1.618923E+0	1.576519E+0	1.594548E+0	1.597766E+0	1.602568E+0	1.590619E+0	1.615752E+0	1.612102E+0	1.587504E+0	1.546535E+0	1.587306E+0	1.602718E+0	1.599560E+0	1.606457E+0	1.600398E+0	1.667687E+0	1.640971E+0	1.636786E+0	1.633544E+0	1.636667E+0	1.626672E+0	1.599138E+0	1.617452E+0	1.630091E+0	1.620341E+0	1.678152E+0	1.613604E+0	1.657282E+0	1.606407E+0	1.575398E+0	1.614036E+0	1.675179E+0	1.576371E+0	1.641869E+0	1.625072E+0	1.656174E+0	1.628073E+0	1.636568E+0	1.561922E+0	1.624155E+0	1.615298E+0	1.651246E+0	1.525099E+0	1.589719E+0	1.601388E+0	1.561903E+0	1.556886E+0	1.616261E+0	1.595714E+0	1.578303E+0	1.595519E+0	1.643205E+0	1.652449E+0	1.634926E+0	1.551182E+0	1.625276E+0	1.578082E+0	1.576776E+0	1.618245E+0	1.606031E+0	1.580102E+0	1.629923E+0	1.633184E+0	1.578851E+0	1.603274E+0	1.577096E+0	1.622871E+0	1.605740E+0	1.594990E+0	1.524992E+0	1.549944E+0	1.601570E+0	1.561513E+0	1.628471E+0	1.566509E+0	1.553808E+0	1.562017E+0	1.587509E+0	1.588105E+0	1.597583E+0	1.617348E+0	1.616068E+0	1.568533E+0	1.617891E+0	1.594667E+0	1.618409E+0	1.605144E+0	1.589026E+0	1.625298E+0	1.624804E+0	1.548173E+0	1.602535E+0	1.532388E+0	1.586531E+0	1.513002E+0	1.648341E+0	1.564595E+0	1.622118E+0	1.601933E+0	1.585226E+0	1.593531E+0	1.606980E+0	1.548587E+0	1.524320E+0	1.562358E+0	1.550208E+0	1.503972E+0	1.570626E+0	1.622929E+0	1.536844E+0	1.559395E+0	1.625531E+0	1.597423E+0	1.551486E+0	1.551894E+0	1.542972E+0	1.556895E+0	1.581043E+0	1.579456E+0	1.589787E+0	1.595205E+0	1.663816E+0	1.516536E+0	1.539004E+0	1.581098E+0	1.584079E+0	1.533308E+0	1.566607E+0	1.612505E+0	1.541116E+0	1.534318E+0	1.523168E+0	1.624409E+0	1.562650E+0	1.518785E+0	1.563549E+0	1.598651E+0	1.574025E+0	1.593987E+0	1.538557E+0	1.512065E+0	1.581593E+0	1.568692E+0	1.629748E+0	1.501001E+0	1.572538E+0	1.500419E+0	1.655196E+0	1.507020E+0	1.688945E+0	1.612571E+0	1.592207E+0	1.612717E+0	1.573407E+0	1.471866E+0	1.522972E+0	1.492258E+0	1.575473E+0
5.417490E+2	1.592634E+0	1.514825E+0	1.525924E+0	1.480577E+0	1.466598E+0	1.481159E+0	1.525644E+0	1.549644E+0	1.543388E+0	1.527965E+0	1.530369E+0	1.424646E+0	1.473955E+0	1.485544E+0	1.537279E+0	1.465371E+0	1.580701E+0	1.544959E+0	1.495175E+0	1.537692E+0	1.528677E+0	1.527293E+0	1.524815E+0	1.546635E+0	1.553863E+0	1.543042E+0	1.526908E+0	1.520223E+0	1.487291E+0	1.510875E+0	1.527554E+0	1.488102E+0	1.460756E+0	1.468593E+0	1.486615E+0	1.568474E+0	1.512659E+0	1.478195E+0	1.505088E+0	1.504065E+0	1.491099E+0	1.537490E+0	1.516528E+0	1.503968E+0	1.503126E+0	1.490777E+0	1.465696E+0	1.524884E+0	1.513543E+0	1.428314E+0	1.462271E+0	1.460738E+0	1.452673E+0	1.499164E+0	1.469432E+0	1.479799E+0	1.466728E+0	1.531650E+0	1.505981E+0	1.517052E+0	1.535347E+0	1.483435E+0	1.451266E+0	1.506243E+0	1.503765E+0	1.565473E+0	1.417532E+0	1.471525E+0	1.501774E+0	1.505185E+0	1.495624E+0	1.469972E+0	1.596663E+0	1.445653E+0	1.472188E+0	1.533670E+0	1.541920E+0	1.477788E+0	1.428852E+0	1.495710E+0	1.487870E+0	1.584867E+0	1.509804E+0	1.486108E+0	1.467043E+0	1.506519E+0	1.503666E+0	1.475004E+0	1.442884E+0	1.498724E+0	1.382022E+0	1.575263E+0	1.445607E+0	1.442890E+0	1.450771E+0	1.497111E+0	1.525767E+0	1.507096E+0	1.483776E+0	1.542336E+0	1.461885E+0	1.522148E+0	1.426522E+0	1.477726E+0	1.458004E+0	1.454448E+0	1.432065E+0	1.492805E+0	1.479450E+0	1.574093E+0	1.489765E+0	1.517781E+0	1.493396E+0	1.480998E+0	1.425147E+0	1.558435E+0	1.471573E+0	1.473196E+0	1.448276E+0	1.492796E+0	1.524598E+0	1.467574E+0	1.430790E+0	1.480496E+0	1.424833E+0	1.440343E+0	1.509428E+0	1.484326E+0	1.491422E+0	1.476734E+0	1.426290E+0	1.476034E+0	1.471024E+0	1.491329E+0	1.486429E+0	1.456804E+0	1.486015E+0	1.447511E+0	1.493303E+0	1.503842E+0	1.542676E+0	1.499593E+0	1.523011E+0	1.503916E+0	1.493031E+0	1.547415E+0	1.520847E+0	1.432542E+0	1.450196E+0	1.499510E+0	1.520669E+0	1.534080E+0	1.432538E+0	1.478663E+0	1.455596E+0	1.497185E+0	1.497556E+0	1.469474E+0	1.421870E+0	1.565202E+0	1.528771E+0	1.473337E+0	1.384531E+0	1.393789E+0	1.428845E+0	1.386138E+0
5.420320E+2	1.425533E+0	1.430729E+0	1.426412E+0	1.410116E+0	1.403201E+0	1.380685E+0	1.463310E+0	1.409657E+0	1.414188E+0	1.396667E+0	1.440814E+0	1.390402E+0	1.414515E+0	1.440579E+0	1.410150E+0	1.376491E+0	1.451634E+0	1.453054E+0	1.422876E+0	1.419054E+0	1.417294E+0	1.403761E+0	1.345606E+0	1.377204E+0	1.451827E+0	1.415536E+0	1.401644E+0	1.404600E+0	1.417145E+0	1.401295E+0	1.460576E+0	1.416877E+0	1.419053E+0	1.390945E+0	1.343264E+0	1.414760E+0	1.417466E+0	1.416291E+0	1.368092E+0	1.411504E+0	1.353385E+0	1.390698E+0	1.409246E+0	1.441707E+0	1.430524E+0	1.402865E+0	1.380676E+0	1.370435E+0	1.430710E+0	1.408075E+0	1.396802E+0	1.358884E+0	1.366695E+0	1.413163E+0	1.409729E+0	1.383965E+0	1.432155E+0	1.383721E+0	1.427053E+0	1.445492E+0	1.458252E+0	1.443473E+0	1.377348E+0	1.397197E+0	1.347825E+0	1.488334E+0	1.404811E+0	1.372100E+0	1.420783E+0	1.444811E+0	1.436394E+0	1.481153E+0	1.404040E+0	1.315864E+0	1.282388E+0	1.456274E+0	1.408710E+0	1.418209E+0	1.349895E+0	1.398148E+0	1.390017E+0	1.393951E+0	1.402354E+0	1.459510E+0	1.443027E+0	1.411535E+0	1.350882E+0	1.445931E+0	1.389587E+0	1.423480E+0	1.396349E+0	1.431811E+0	1.361683E+0	1.407040E+0	1.357477E+0	1.375108E+0	1.417086E+0	1.380151E+0	1.415994E+0	1.404926E+0	1.373209E+0	1.345449E+0	1.305915E+0	1.380847E+0	1.406492E+0	1.439348E+0	1.378514E+0	1.386525E+0	1.422019E+0	1.359737E+0	1.388010E+0	1.411746E+0	1.443879E+0	1.434495E+0	1.378280E+0	1.358751E+0	1.464569E+0	1.419808E+0	1.429461E+0	1.472904E+0	1.397351E+0	1.398345E+0	1.369007E+0	1.366473E+0	1.422471E+0	1.369816E+0	1.387395E+0	1.421662E+0	1.468341E+0	1.382768E+0	1.393495E+0	1.390293E+0	1.391921E+0	1.431808E+0	1.416964E+0	1.478485E+0	1.437377E+0	1.446500E+0	1.374879E+0	1.445243E+0	1.392013E+0	1.421201E+0	1.364277E+0	1.331374E+0	1.402782E+0	1.384575E+0	1.394232E+0	1.383207E+0	1.389308E+0	1.402734E+0	1.421139E+0	1.373084E+0	1.392841E+0	1.369441E+0	1.381977E+0	1.378851E+0	1.386330E+0	1.480191E+0	1.276661E+0	1.436628E+0	1.482895E+0	1.379563E+0	1.292774E+0	1.435566E+0	1.359334E+0	1.400196E+0
5.422780E+2	1.188881E+0	1.222792E+0	1.168133E+0	1.101643E+0	1.166740E+0	1.207440E+0	1.162135E+0	1.160662E+0	1.195292E+0	1.210802E+0	1.177923E+0	1.228307E+0	1.185975E+0	1.166291E+0	1.157075E+0	1.160673E+0	1.161500E+0	1.188518E+0	1.165512E+0	1.119974E+0	1.149873E+0	1.156802E+0	1.159544E+0	1.206607E+0	1.134208E+0	1.188383E+0	1.179590E+0	1.179165E+0	1.144396E+0	1.229935E+0	1.180160E+0	1.108900E+0	1.155085E+0	1.158981E+0	1.223317E+0	1.134605E+0	1.198693E+0	1.143228E+0	1.120245E+0	1.196306E+0	1.150593E+0	1.151094E+0	1.194792E+0	1.114425E+0	1.278110E+0	1.212867E+0	1.134492E+0	1.133877E+0	1.183549E+0	1.195818E+0	1.159268E+0	1.157946E+0	1.182436E+0	1.161375E+0	1.146096E+0	1.164267E+0	1.186983E+0	1.147589E+0	1.175604E+0	1.143433E+0	1.213373E+0	1.160410E+0	1.102638E+0	1.220140E+0	1.205965E+0	1.217377E+0	1.204229E+0	1.235797E+0	1.144797E+0	1.190138E+0	1.186342E+0	1.169018E+0	1.121807E+0	1.111747E+0	1.171263E+0	1.210442E+0	1.188568E+0	1.163402E+0	1.166620E+0	1.197405E+0	1.153005E+0	1.177183E+0	1.180654E+0	1.142340E+0	1.161508E+0	1.189265E+0	1.142001E+0	1.176437E+0	1.181955E+0	1.118883E+0	1.139810E+0	1.228247E+0	1.217904E+0	1.255957E+0	1.146308E+0	1.156171E+0	1.142443E+0	1.141348E+0	1.141423E+0	1.206301E+0	1.186852E+0	1.128527E+0	1.154848E+0	1.208996E+0	1.141110E+0	1.220017E+0	1.151145E+0	1.189523E+0	1.144896E+0	1.167158E+0	1.142357E+0	1.227537E+0	1.154982E+0	1.090973E+0	1.143351E+0	1.183000E+0	1.130967E+0	1.149205E+0	1.142596E+0	1.169188E+0	1.153556E+0	1.226410E+0	1.149919E+0	1.189111E+0	1.133719E+0	1.138323E+0	1.160449E+0	1.128552E+0	1.163605E+0	1.175804E+0	1.158446E+0	1.172234E+0	1.124490E+0	1.177849E+0	1.183336E+0	1.179777E+0	1.131477E+0	1.153949E+0	1.125843E+0	1.175428E+0	1.165156E+0	1.190859E+0	1.108898E+0	1.132750E+0	1.131610E+0	1.237511E+0	1.083375E+0	1.171352E+0	1.197724E+0	1.143018E+0	1.198861E+0	1.133301E+0	1.148935E+0	1.181543E+0	1.131908E+0	1.144346E+0	1.130331E+0	1.157153E+0	1.111398E+0	1.137854E+0	1.174270E+0	1.172660E+0	1.167335E+0	1.173788E+0	1.079295E+0	1.180207E+0
5.425240E+2	1.050872E+0	1.068081E+0	1.099870E+0	1.076446E+0	1.061442E+0	1.096922E+0	1.099508E+0	1.069700E+0	1.181170E+0	1.008167E+0	1.097164E+0	1.084612E+0	1.072324E+0	1.092858E+0	1.014012E+0	1.088878E+0	1.095000E+0	1.049061E+0	1.059862E+0	1.047157E+0	1.108701E+0	1.079999E+0	1.039010E+0	1.061036E+0	1.096671E+0	1.095636E+0	1.068592E+0	1.039750E+0	1.094901E+0	1.089872E+0	1.122051E+0	1.073004E+0	1.090960E+0	1.099524E+0	1.058378E+0	1.067614E+0	1.063734E+0	1.062460E+0	1.061430E+0	1.092185E+0	1.042630E+0	1.067275E+0	1.082481E+0	1.081795E+0	1.082129E+0	1.122198E+0	1.061212E+0	1.112465E+0	1.068671E+0	1.052276E+0	1.039570E+0	1.049722E+0	9.958964E-1	1.046203E+0	1.056655E+0	1.042500E+0	1.065512E+0	1.058368E+0	1.056855E+0	1.096275E+0	1.089916E+0	1.052418E+0	1.035238E+0	1.045029E+0	1.067538E+0	1.050355E+0	1.111778E+0	1.073783E+0	1.074809E+0	1.067230E+0	1.071903E+0	1.087782E+0	1.065041E+0	1.057785E+0	1.046845E+0	1.094095E+0	1.111504E+0	1.064714E+0	1.039760E+0	1.074915E+0	1.108049E+0	1.094279E+0	1.046816E+0	1.048384E+0	1.064383E+0	1.025080E+0	1.067155E+0	1.108351E+0	1.096964E+0	1.055091E+0	1.084555E+0	1.072240E+0	1.066642E+0	1.040314E+0	1.092906E+0	1.037712E+0	1.137499E+0	1.095853E+0	1.090091E+0	1.094604E+0	1.076904E+0	1.044858E+0	1.067264E+0	1.060152E+0	1.063137E+0	1.088779E+0	1.085227E+0	1.088409E+0	1.018743E+0	1.059264E+0	1.057182E+0	1.043304E+0	1.044783E+0	1.181462E+0	1.056431E+0	1.086222E+0	1.070113E+0	1.052836E+0	1.074050E+0	1.067238E+0	1.046765E+0	1.074010E+0	1.053854E+0	1.139618E+0	1.106988E+0	1.032490E+0	1.075251E+0	1.163356E+0	1.093328E+0	1.090122E+0	1.071047E+0	1.086619E+0	1.088746E+0	1.054747E+0	1.058113E+0	1.037465E+0	1.142769E+0	1.119370E+0	1.050453E+0	1.080835E+0	1.087646E+0	1.074860E+0	1.051151E+0	1.036621E+0	1.061792E+0	1.070720E+0	1.073246E+0	1.095054E+0	1.060057E+0	1.058151E+0	1.088424E+0	1.068214E+0	1.067404E+0	1.064535E+0	1.040604E+0	1.057739E+0	1.083969E+0	1.105389E+0	1.049492E+0	1.107100E+0	1.045274E+0	1.091651E+0	1.094061E+0	1.086565E+0	1.069750E+0	1.008857E+0
5.427870E+2	9.182001E-1	9.469616E-1	9.692408E-1	9.264033E-1	9.912292E-1	9.679631E-1	9.917449E-1	9.477714E-1	9.611377E-1	9.206920E-1	9.906842E-1	9.639304E-1	1.005966E+0	9.930635E-1	9.324289E-1	9.465407E-1	9.908371E-1	1.015423E+0	9.913562E-1	9.949931E-1	9.988432E-1	9.627422E-1	9.524118E-1	9.292519E-1	9.986718E-1	9.636091E-1	9.396767E-1	1.013601E+0	9.930347E-1	1.003497E+0	9.479801E-1	9.332527E-1	9.273016E-1	9.791430E-1	9.427672E-1	9.197858E-1	9.412806E-1	9.332312E-1	8.780487E-1	9.686441E-1	9.752754E-1	9.859127E-1	9.494103E-1	9.482069E-1	9.649498E-1	9.735795E-1	9.145337E-1	9.585252E-1	9.747414E-1	9.504889E-1	9.305743E-1	9.795829E-1	9.684077E-1	1.008861E+0	9.674371E-1	9.588726E-1	9.658159E-1	9.786667E-1	9.355185E-1	9.717121E-1	9.805461E-1	9.850496E-1	9.478572E-1	9.818527E-1	9.745337E-1	9.558760E-1	9.939658E-1	9.739041E-1	9.554988E-1	9.461910E-1	9.619776E-1	9.694017E-1	9.459252E-1	9.611873E-1	9.575924E-1	9.287427E-1	9.837388E-1	9.367458E-1	9.172889E-1	9.355467E-1	9.733602E-1	9.380855E-1	9.243881E-1	9.389353E-1	9.562299E-1	9.714572E-1	9.509389E-1	9.522680E-1	1.000899E+0	9.602398E-1	1.002368E+0	9.566705E-1	1.000922E+0	9.712839E-1	9.515456E-1	9.593357E-1	9.640947E-1	9.492671E-1	9.445219E-1	1.024906E+0	9.841131E-1	9.791864E-1	9.181283E-1	1.021042E+0	9.521308E-1	9.763485E-1	9.669073E-1	1.054387E+0	9.500397E-1	8.967856E-1	1.004267E+0	9.908711E-1	9.368650E-1	9.802479E-1	9.662339E-1	9.593127E-1	9.359630E-1	9.956656E-1	9.494003E-1	9.699283E-1	9.417511E-1	1.035855E+0	9.230574E-1	9.654028E-1	9.621555E-1	9.853814E-1	9.309869E-1	9.657064E-1	9.890253E-1	9.015295E-1	9.203159E-1	9.470369E-1	9.410800E-1	9.647006E-1	9.720411E-1	9.533366E-1	9.692225E-1	9.600047E-1	9.392927E-1	9.907421E-1	1.009935E+0	9.368350E-1	9.532978E-1	9.879635E-1	9.686264E-1	9.945492E-1	9.353566E-1	1.001414E+0	9.751157E-1	9.620761E-1	9.865726E-1	9.697254E-1	9.132188E-1	9.612622E-1	9.953241E-1	9.850717E-1	1.008251E+0	9.669706E-1	9.414208E-1	9.453009E-1	1.006485E+0	9.629515E-1	9.385459E-1	9.506590E-1	8.688349E-1	9.708113E-1
5.430170E+2	9.612218E-1	9.335784E-1	9.257682E-1	9.730033E-1	9.549470E-1	9.503202E-1	9.289914E-1	9.536244E-1	8.899567E-1	8.962070E-1	9.506013E-1	9.092876E-1	9.939393E-1	9.260574E-1	9.070531E-1	9.102198E-1	9.145337E-1	9.247585E-1	8.867314E-1	9.262179E-1	9.262699E-1	9.000763E-1	9.090684E-1	9.316431E-1	9.854909E-1	9.714554E-1	9.461201E-1	9.127864E-1	9.351921E-1	9.571540E-1	9.817907E-1	8.888559E-1	8.910514E-1	9.669739E-1	9.492626E-1	9.026321E-1	9.434381E-1	8.918586E-1	9.432922E-1	8.915804E-1	9.033794E-1	9.752938E-1	9.141652E-1	9.352683E-1	9.698309E-1	9.590782E-1	9.605412E-1	9.180661E-1	9.108034E-1	9.489473E-1	9.018235E-1	8.834502E-1	9.318285E-1	9.358695E-1	8.651890E-1	9.009761E-1	9.398377E-1	9.352934E-1	9.266205E-1	9.268476E-1	9.740352E-1	9.129202E-1	9.023399E-1	9.702360E-1	9.108783E-1	9.520478E-1	9.043972E-1	9.488162E-1	9.129944E-1	9.428464E-1	9.097425E-1	9.440015E-1	9.437319E-1	8.511715E-1	9.217265E-1	9.601867E-1	9.545116E-1	9.287622E-1	8.754396E-1	9.308683E-1	9.350375E-1	9.550694E-1	9.025305E-1	8.781930E-1	8.858334E-1	9.294725E-1	9.207702E-1	9.282362E-1	9.714327E-1	9.160130E-1	9.108999E-1	9.093005E-1	9.814293E-1	9.146027E-1	8.890792E-1	8.999446E-1	9.500735E-1	9.344722E-1	9.065803E-1	9.195919E-1	9.088673E-1	9.285200E-1	9.198159E-1	9.263593E-1	9.733945E-1	9.300531E-1	9.237452E-1	8.854070E-1	9.369696E-1	9.691601E-1	9.107169E-1	9.654860E-1	9.890950E-1	9.508274E-1	9.300198E-1	9.103748E-1	9.332495E-1	9.138481E-1	9.482801E-1	9.135025E-1	9.388005E-1	9.651809E-1	9.039775E-1	9.843144E-1	9.279125E-1	8.974860E-1	9.472469E-1	9.305867E-1	9.356849E-1	8.774880E-1	9.253119E-1	9.201402E-1	9.549266E-1	9.253339E-1	9.498662E-1	9.695260E-1	9.382959E-1	9.266585E-1	9.199769E-1	9.351637E-1	9.795503E-1	9.487882E-1	8.579770E-1	9.294949E-1	9.371259E-1	9.647307E-1	8.896775E-1	9.283842E-1	9.663883E-1	9.191142E-1	9.508484E-1	8.818750E-1	9.072211E-1	9.592055E-1	9.465546E-1	9.434828E-1	9.365898E-1	9.197614E-1	8.932085E-1	8.911714E-1	9.717999E-1	9.065296E-1	9.518054E-1	8.649760E-1	9.427419E-1	8.886831E-1
5.432700E+2	1.050422E+0	1.039274E+0	1.040854E+0	1.005781E+0	1.013559E+0	9.869868E-1	9.671458E-1	1.017265E+0	9.911069E-1	1.020445E+0	1.069152E+0	9.513789E-1	1.041507E+0	9.737039E-1	1.039791E+0	1.005344E+0	1.043953E+0	1.015199E+0	9.855128E-1	9.610970E-1	1.029770E+0	1.030999E+0	9.810812E-1	9.855202E-1	1.026006E+0	1.025243E+0	1.037018E+0	1.018567E+0	9.912641E-1	1.012174E+0	9.964894E-1	1.022397E+0	1.030844E+0	1.011342E+0	1.021219E+0	9.513362E-1	1.012362E+0	1.004399E+0	9.979201E-1	9.805438E-1	1.069247E+0	1.049519E+0	1.035385E+0	1.035319E+0	1.044305E+0	1.068639E+0	9.603313E-1	1.004795E+0	1.017155E+0	9.962417E-1	9.497613E-1	9.930331E-1	9.860070E-1	1.024630E+0	1.024813E+0	9.845623E-1	1.058662E+0	1.010931E+0	9.932200E-1	1.031931E+0	1.074966E+0	9.954674E-1	1.013209E+0	9.857992E-1	1.001598E+0	1.013389E+0	1.012098E+0	9.683852E-1	1.025758E+0	1.062394E+0	1.019136E+0	9.837252E-1	9.793799E-1	1.022440E+0	1.033951E+0	1.059734E+0	1.058460E+0	1.016081E+0	1.002780E+0	1.009784E+0	1.013628E+0	1.013304E+0	1.014517E+0	9.720966E-1	1.007839E+0	9.673200E-1	1.069499E+0	9.699838E-1	1.007812E+0	1.016717E+0	9.749071E-1	9.995383E-1	9.833350E-1	9.789935E-1	1.028744E+0	1.006725E+0	1.050787E+0	9.639270E-1	9.696318E-1	1.040698E+0	1.033497E+0	9.978888E-1	9.927384E-1	1.038194E+0	1.009344E+0	1.098925E+0	1.005826E+0	9.761309E-1	1.036726E+0	1.063094E+0	1.005151E+0	1.013655E+0	1.050443E+0	1.033869E+0	9.853113E-1	1.005946E+0	1.022264E+0	9.475758E-1	1.004729E+0	1.022512E+0	9.921332E-1	1.053711E+0	1.027724E+0	9.948263E-1	1.012473E+0	9.937256E-1	9.959411E-1	9.707073E-1	1.000518E+0	1.064930E+0	1.010244E+0	9.575632E-1	1.065412E+0	9.986846E-1	1.012355E+0	1.063868E+0	1.060704E+0	1.030048E+0	9.783387E-1	1.014192E+0	1.064222E+0	1.077141E+0	1.021785E+0	9.860042E-1	9.719160E-1	1.068949E+0	1.047361E+0	1.002792E+0	1.011003E+0	9.257303E-1	1.016113E+0	1.007385E+0	1.037425E+0	1.007567E+0	1.039377E+0	1.048418E+0	1.003967E+0	1.011345E+0	9.478396E-1	1.024680E+0	1.016505E+0	9.474844E-1	9.902576E-1	9.516591E-1	9.823400E-1	1.035581E+0
5.435110E+2	1.173862E+0	1.101333E+0	1.129458E+0	1.091824E+0	1.117271E+0	1.101396E+0	1.110521E+0	1.107486E+0	1.152621E+0	1.118758E+0	1.120512E+0	1.083040E+0	1.135449E+0	1.129743E+0	1.105421E+0	1.131190E+0	1.120818E+0	1.089549E+0	1.061063E+0	1.105552E+0	1.112635E+0	1.113645E+0	1.093502E+0	1.128937E+0	1.161472E+0	1.074515E+0	1.063455E+0	1.062301E+0	1.042836E+0	1.108094E+0	1.108193E+0	1.072690E+0	1.129522E+0	1.057492E+0	1.105381E+0	1.097482E+0	1.092568E+0	1.114198E+0	1.092979E+0	1.090817E+0	1.067785E+0	1.137091E+0	1.091072E+0	1.084835E+0	1.163166E+0	1.119274E+0	1.071307E+0	1.041540E+0	1.087133E+0	1.126489E+0	1.111753E+0	1.095041E+0	1.081162E+0	1.125760E+0	1.115878E+0	1.074451E+0	1.084143E+0	1.127708E+0	1.169584E+0	1.131728E+0	1.158039E+0	1.133204E+0	1.046641E+0	1.112373E+0	1.092880E+0	1.159328E+0	1.088165E+0	1.099374E+0	1.096907E+0	1.191408E+0	1.133339E+0	1.054548E+0	1.097281E+0	1.088085E+0	1.072157E+0	1.096234E+0	1.143126E+0	1.076409E+0	1.110330E+0	1.111116E+0	1.088143E+0	1.075149E+0	1.100442E+0	1.083151E+0	1.082425E+0	1.111993E+0	1.103723E+0	1.134435E+0	1.107466E+0	1.111121E+0	1.151670E+0	1.079564E+0	1.150921E+0	1.111394E+0	1.126598E+0	1.089344E+0	1.132763E+0	1.117431E+0	1.090527E+0	1.123944E+0	1.129195E+0	1.157830E+0	1.098640E+0	1.123060E+0	1.092479E+0	1.106806E+0	1.076443E+0	1.082362E+0	1.132645E+0	1.121921E+0	1.136111E+0	1.104010E+0	1.105809E+0	1.068544E+0	1.063080E+0	1.124567E+0	1.133369E+0	1.075725E+0	1.131027E+0	1.067593E+0	1.135889E+0	1.116080E+0	1.103046E+0	1.130399E+0	1.116758E+0	1.107833E+0	1.070599E+0	1.122174E+0	1.100648E+0	1.083714E+0	1.135588E+0	1.082204E+0	1.054249E+0	1.106651E+0	1.117977E+0	1.094844E+0	1.116736E+0	1.096520E+0	1.080064E+0	1.052038E+0	1.106456E+0	1.091740E+0	1.060201E+0	1.089586E+0	1.067524E+0	1.108924E+0	1.106884E+0	1.082875E+0	1.063201E+0	1.147509E+0	1.096305E+0	1.088093E+0	1.075209E+0	1.070571E+0	1.051515E+0	1.168048E+0	1.129857E+0	1.136909E+0	1.094779E+0	1.106382E+0	1.064797E+0	1.152082E+0	1.086329E+0	1.053015E+0	1.101935E+0	1.105940E+0
5.437750E+2	1.404717E+0	1.326958E+0	1.370260E+0	1.334394E+0	1.303758E+0	1.336712E+0	1.350047E+0	1.319556E+0	1.278110E+0	1.242670E+0	1.348054E+0	1.323055E+0	1.387671E+0	1.375123E+0	1.358485E+0	1.393527E+0	1.366125E+0	1.356848E+0	1.383468E+0	1.343234E+0	1.353918E+0	1.358241E+0	1.304067E+0	1.356853E+0	1.379644E+0	1.376959E+0	1.358498E+0	1.310747E+0	1.343488E+0	1.376654E+0	1.326555E+0	1.298788E+0	1.356064E+0	1.320235E+0	1.347101E+0	1.338453E+0	1.344068E+0	1.269261E+0	1.288412E+0	1.299883E+0	1.356974E+0	1.312892E+0	1.358419E+0	1.317095E+0	1.374366E+0	1.335902E+0	1.356907E+0	1.313486E+0	1.314384E+0	1.367578E+0	1.313232E+0	1.308068E+0	1.325021E+0	1.339396E+0	1.375196E+0	1.357791E+0	1.419136E+0	1.293171E+0	1.346356E+0	1.304746E+0	1.415775E+0	1.317130E+0	1.276222E+0	1.279917E+0	1.350381E+0	1.346015E+0	1.286004E+0	1.375511E+0	1.341966E+0	1.408348E+0	1.313839E+0	1.316257E+0	1.370047E+0	1.279144E+0	1.332139E+0	1.331675E+0	1.395514E+0	1.306885E+0	1.296889E+0	1.370216E+0	1.315385E+0	1.311071E+0	1.347785E+0	1.279980E+0	1.319173E+0	1.328568E+0	1.288495E+0	1.374977E+0	1.378925E+0	1.321865E+0	1.350297E+0	1.293186E+0	1.312222E+0	1.372024E+0	1.294727E+0	1.308689E+0	1.293789E+0	1.317344E+0	1.318827E+0	1.380253E+0	1.310283E+0	1.299028E+0	1.288652E+0	1.291329E+0	1.305057E+0	1.315768E+0	1.269803E+0	1.351164E+0	1.345810E+0	1.316081E+0	1.316237E+0	1.296906E+0	1.344073E+0	1.323955E+0	1.330897E+0	1.338332E+0	1.356138E+0	1.286439E+0	1.281143E+0	1.298074E+0	1.353741E+0	1.365403E+0	1.279380E+0	1.356250E+0	1.317625E+0	1.337084E+0	1.282673E+0	1.329229E+0	1.321515E+0	1.368343E+0	1.293620E+0	1.355553E+0	1.358753E+0	1.345166E+0	1.311886E+0	1.336551E+0	1.379061E+0	1.304639E+0	1.265224E+0	1.283789E+0	1.305832E+0	1.366744E+0	1.312738E+0	1.252078E+0	1.373787E+0	1.338135E+0	1.327884E+0	1.364090E+0	1.312839E+0	1.375613E+0	1.311112E+0	1.242287E+0	1.350401E+0	1.332222E+0	1.324679E+0	1.313591E+0	1.327946E+0	1.269021E+0	1.343585E+0	1.338812E+0	1.346751E+0	1.340537E+0	1.219505E+0	1.260339E+0	1.273039E+0	1.314512E+0
5.440170E+2	1.533423E+0	1.470081E+0	1.462264E+0	1.474910E+0	1.454444E+0	1.408414E+0	1.469958E+0	1.479731E+0	1.466002E+0	1.479047E+0	1.496227E+0	1.402362E+0	1.471029E+0	1.502362E+0	1.430264E+0	1.435345E+0	1.471810E+0	1.498429E+0	1.478371E+0	1.402456E+0	1.444312E+0	1.457741E+0	1.411575E+0	1.475479E+0	1.522824E+0	1.487129E+0	1.468920E+0	1.412693E+0	1.478282E+0	1.441728E+0	1.471234E+0	1.394156E+0	1.468234E+0	1.491204E+0	1.433686E+0	1.488795E+0	1.435186E+0	1.417507E+0	1.491418E+0	1.490664E+0	1.403299E+0	1.488640E+0	1.435812E+0	1.479014E+0	1.533027E+0	1.479448E+0	1.465418E+0	1.445220E+0	1.421108E+0	1.459930E+0	1.449012E+0	1.397914E+0	1.478168E+0	1.452078E+0	1.458090E+0	1.397645E+0	1.451297E+0	1.471096E+0	1.475593E+0	1.449146E+0	1.541336E+0	1.469828E+0	1.441304E+0	1.435077E+0	1.452090E+0	1.504091E+0	1.473229E+0	1.456276E+0	1.437120E+0	1.488905E+0	1.470927E+0	1.381012E+0	1.476923E+0	1.417689E+0	1.403261E+0	1.418828E+0	1.460777E+0	1.435940E+0	1.421472E+0	1.423486E+0	1.458517E+0	1.450613E+0	1.405431E+0	1.426781E+0	1.373580E+0	1.464233E+0	1.453566E+0	1.507118E+0	1.407724E+0	1.488591E+0	1.449751E+0	1.427966E+0	1.489463E+0	1.477539E+0	1.403675E+0	1.410699E+0	1.447327E+0	1.445790E+0	1.411740E+0	1.468383E+0	1.414149E+0	1.467807E+0	1.423866E+0	1.456568E+0	1.436748E+0	1.454783E+0	1.429932E+0	1.372891E+0	1.432478E+0	1.449237E+0	1.425586E+0	1.449953E+0	1.454185E+0	1.421809E+0	1.415030E+0	1.422457E+0	1.445713E+0	1.416612E+0	1.413358E+0	1.427781E+0	1.419141E+0	1.479901E+0	1.429632E+0	1.444110E+0	1.459042E+0	1.517488E+0	1.468454E+0	1.457746E+0	1.430687E+0	1.468578E+0	1.378878E+0	1.420563E+0	1.460002E+0	1.429107E+0	1.418314E+0	1.431658E+0	1.524217E+0	1.545791E+0	1.381375E+0	1.388049E+0	1.512150E+0	1.427323E+0	1.403372E+0	1.402512E+0	1.463231E+0	1.464581E+0	1.448166E+0	1.412068E+0	1.527638E+0	1.437494E+0	1.461249E+0	1.400125E+0	1.454919E+0	1.447698E+0	1.481344E+0	1.415170E+0	1.391267E+0	1.484949E+0	1.394002E+0	1.455441E+0	1.487815E+0	1.441206E+0	1.448663E+0	1.505103E+0	1.427834E+0	1.382154E+0
5.442700E+2	1.618919E+0	1.533128E+0	1.570444E+0	1.502035E+0	1.565419E+0	1.544634E+0	1.469371E+0	1.564539E+0	1.580324E+0	1.512225E+0	1.533461E+0	1.500582E+0	1.577540E+0	1.567893E+0	1.481693E+0	1.518634E+0	1.560036E+0	1.490629E+0	1.570950E+0	1.528830E+0	1.528739E+0	1.469723E+0	1.493931E+0	1.544748E+0	1.655878E+0	1.540504E+0	1.561701E+0	1.577125E+0	1.564529E+0	1.601017E+0	1.541520E+0	1.501638E+0	1.508250E+0	1.514907E+0	1.565802E+0	1.536758E+0	1.510712E+0	1.532538E+0	1.521317E+0	1.497723E+0	1.549268E+0	1.628161E+0	1.501000E+0	1.495314E+0	1.607324E+0	1.544826E+0	1.475019E+0	1.517140E+0	1.594086E+0	1.533478E+0	1.516573E+0	1.540196E+0	1.522770E+0	1.570747E+0	1.516985E+0	1.500854E+0	1.540951E+0	1.505912E+0	1.576557E+0	1.543236E+0	1.558744E+0	1.564233E+0	1.497087E+0	1.521008E+0	1.580979E+0	1.528844E+0	1.456588E+0	1.497559E+0	1.534984E+0	1.594490E+0	1.509248E+0	1.499684E+0	1.569438E+0	1.482778E+0	1.486868E+0	1.524253E+0	1.554410E+0	1.524437E+0	1.473336E+0	1.506400E+0	1.541250E+0	1.543539E+0	1.538254E+0	1.528884E+0	1.482383E+0	1.521842E+0	1.523046E+0	1.569726E+0	1.528282E+0	1.497880E+0	1.551315E+0	1.493668E+0	1.515819E+0	1.493899E+0	1.471275E+0	1.501657E+0	1.550785E+0	1.533010E+0	1.499285E+0	1.538294E+0	1.513193E+0	1.493917E+0	1.448809E+0	1.515796E+0	1.521198E+0	1.582007E+0	1.528406E+0	1.482192E+0	1.555975E+0	1.496380E+0	1.516961E+0	1.504745E+0	1.550580E+0	1.601550E+0	1.507138E+0	1.551549E+0	1.558541E+0	1.511849E+0	1.458985E+0	1.522052E+0	1.557608E+0	1.511281E+0	1.525992E+0	1.482825E+0	1.550207E+0	1.532042E+0	1.467868E+0	1.497179E+0	1.524357E+0	1.546926E+0	1.440768E+0	1.477702E+0	1.490472E+0	1.532483E+0	1.518646E+0	1.498474E+0	1.551447E+0	1.560298E+0	1.484224E+0	1.498862E+0	1.526518E+0	1.520206E+0	1.494547E+0	1.447981E+0	1.507660E+0	1.520023E+0	1.467334E+0	1.407071E+0	1.513050E+0	1.452812E+0	1.526270E+0	1.475932E+0	1.527519E+0	1.406759E+0	1.516013E+0	1.481536E+0	1.580868E+0	1.559015E+0	1.461117E+0	1.556964E+0	1.561546E+0	1.509647E+0	1.534353E+0	1.489039E+0	1.603573E+0	1.544249E+0
5.445180E+2	1.617283E+0	1.771597E+0	1.601249E+0	1.618476E+0	1.561331E+0	1.644615E+0	1.618249E+0	1.677040E+0	1.611991E+0	1.547197E+0	1.633032E+0	1.556678E+0	1.719896E+0	1.631409E+0	1.635660E+0	1.652808E+0	1.666856E+0	1.652137E+0	1.635030E+0	1.573764E+0	1.622545E+0	1.605810E+0	1.550704E+0	1.630197E+0	1.691422E+0	1.571146E+0	1.621801E+0	1.557024E+0	1.620242E+0	1.646024E+0	1.643772E+0	1.611123E+0	1.597050E+0	1.608598E+0	1.610419E+0	1.578929E+0	1.638743E+0	1.693302E+0	1.634344E+0	1.665628E+0	1.620577E+0	1.695711E+0	1.605876E+0	1.612748E+0	1.649562E+0	1.654873E+0	1.636364E+0	1.573709E+0	1.727187E+0	1.679110E+0	1.588366E+0	1.579646E+0	1.600297E+0	1.631045E+0	1.590579E+0	1.604219E+0	1.660973E+0	1.650652E+0	1.622765E+0	1.615638E+0	1.661200E+0	1.597462E+0	1.602367E+0	1.607816E+0	1.639097E+0	1.657434E+0	1.693387E+0	1.608414E+0	1.631303E+0	1.614997E+0	1.572719E+0	1.623399E+0	1.625605E+0	1.615372E+0	1.519793E+0	1.612502E+0	1.653163E+0	1.610372E+0	1.559677E+0	1.555866E+0	1.596085E+0	1.595679E+0	1.624689E+0	1.587871E+0	1.585450E+0	1.589377E+0	1.611872E+0	1.601494E+0	1.638238E+0	1.575603E+0	1.580979E+0	1.567845E+0	1.643528E+0	1.652385E+0	1.575741E+0	1.545033E+0	1.648013E+0	1.588272E+0	1.621003E+0	1.649574E+0	1.524159E+0	1.585500E+0	1.527361E+0	1.590601E+0	1.560259E+0	1.649613E+0	1.607974E+0	1.591852E+0	1.550701E+0	1.577034E+0	1.585104E+0	1.575354E+0	1.654030E+0	1.625924E+0	1.522384E+0	1.649674E+0	1.631099E+0	1.576969E+0	1.548200E+0	1.559075E+0	1.624361E+0	1.607589E+0	1.536029E+0	1.581247E+0	1.633698E+0	1.596860E+0	1.569213E+0	1.621058E+0	1.550617E+0	1.548057E+0	1.605388E+0	1.556083E+0	1.599422E+0	1.613728E+0	1.608366E+0	1.610244E+0	1.650725E+0	1.661882E+0	1.549024E+0	1.601871E+0	1.638834E+0	1.641074E+0	1.545272E+0	1.567472E+0	1.598511E+0	1.573626E+0	1.617161E+0	1.549064E+0	1.662986E+0	1.554913E+0	1.624645E+0	1.560005E+0	1.585575E+0	1.537964E+0	1.566231E+0	1.578001E+0	1.599707E+0	1.625496E+0	1.551171E+0	1.624821E+0	1.631629E+0	1.596125E+0	1.519737E+0	1.512249E+0	1.599189E+0	1.532558E+0
5.447610E+2	1.554534E+0	1.519735E+0	1.562460E+0	1.513713E+0	1.548567E+0	1.495559E+0	1.495621E+0	1.530586E+0	1.509358E+0	1.564054E+0	1.578308E+0	1.461895E+0	1.522536E+0	1.483964E+0	1.472608E+0	1.498509E+0	1.501619E+0	1.570327E+0	1.558054E+0	1.533656E+0	1.554699E+0	1.574869E+0	1.521267E+0	1.471527E+0	1.534959E+0	1.574623E+0	1.587287E+0	1.468952E+0	1.567575E+0	1.519599E+0	1.499716E+0	1.531472E+0	1.532997E+0	1.614141E+0	1.477042E+0	1.550350E+0	1.520333E+0	1.500582E+0	1.557072E+0	1.551936E+0	1.521904E+0	1.589750E+0	1.527031E+0	1.499263E+0	1.581924E+0	1.517200E+0	1.377680E+0	1.571095E+0	1.549485E+0	1.568230E+0	1.449314E+0	1.500650E+0	1.520540E+0	1.522879E+0	1.469217E+0	1.562941E+0	1.511332E+0	1.518596E+0	1.534507E+0	1.552499E+0	1.589920E+0	1.557083E+0	1.450034E+0	1.531683E+0	1.554142E+0	1.534364E+0	1.510928E+0	1.498948E+0	1.484004E+0	1.585887E+0	1.490823E+0	1.468740E+0	1.511656E+0	1.524196E+0	1.464134E+0	1.488726E+0	1.525659E+0	1.534676E+0	1.453369E+0	1.514243E+0	1.510271E+0	1.524844E+0	1.474228E+0	1.410148E+0	1.439734E+0	1.524862E+0	1.482462E+0	1.519178E+0	1.514192E+0	1.568772E+0	1.539247E+0	1.527482E+0	1.521578E+0	1.524708E+0	1.496315E+0	1.529392E+0	1.530531E+0	1.507061E+0	1.480263E+0	1.509040E+0	1.501374E+0	1.507325E+0	1.478102E+0	1.536442E+0	1.526681E+0	1.580608E+0	1.512826E+0	1.459106E+0	1.581635E+0	1.478871E+0	1.510877E+0	1.531401E+0	1.537286E+0	1.524357E+0	1.459619E+0	1.578424E+0	1.479034E+0	1.511721E+0	1.470330E+0	1.461649E+0	1.543711E+0	1.536395E+0	1.420320E+0	1.544824E+0	1.507860E+0	1.483995E+0	1.493532E+0	1.496956E+0	1.470727E+0	1.481904E+0	1.366666E+0	1.467755E+0	1.499746E+0	1.523457E+0	1.441700E+0	1.558921E+0	1.529791E+0	1.559222E+0	1.486226E+0	1.492940E+0	1.608339E+0	1.582715E+0	1.457787E+0	1.552095E+0	1.489521E+0	1.497001E+0	1.518876E+0	1.517680E+0	1.466983E+0	1.478656E+0	1.567683E+0	1.438707E+0	1.528432E+0	1.509617E+0	1.464435E+0	1.500117E+0	1.551846E+0	1.531023E+0	1.467143E+0	1.520689E+0	1.528283E+0	1.577476E+0	1.499484E+0	1.481566E+0	1.493322E+0	1.411358E+0
5.450150E+2	1.581212E+0	1.505374E+0	1.557840E+0	1.550305E+0	1.542114E+0	1.547453E+0	1.523463E+0	1.544755E+0	1.526682E+0	1.477471E+0	1.556295E+0	1.467641E+0	1.572011E+0	1.593433E+0	1.546566E+0	1.502469E+0	1.535362E+0	1.513670E+0	1.584206E+0	1.577957E+0	1.492261E+0	1.564279E+0	1.541217E+0	1.520415E+0	1.514868E+0	1.562019E+0	1.534200E+0	1.549731E+0	1.504611E+0	1.575001E+0	1.589598E+0	1.510260E+0	1.506498E+0	1.602207E+0	1.552230E+0	1.575202E+0	1.505618E+0	1.501585E+0	1.543839E+0	1.615187E+0	1.440741E+0	1.552490E+0	1.508372E+0	1.478449E+0	1.598694E+0	1.562858E+0	1.464239E+0	1.453932E+0	1.518546E+0	1.542778E+0	1.490517E+0	1.509001E+0	1.491472E+0	1.505944E+0	1.506232E+0	1.520656E+0	1.558724E+0	1.538237E+0	1.595583E+0	1.468863E+0	1.603720E+0	1.474939E+0	1.520751E+0	1.530509E+0	1.547025E+0	1.507938E+0	1.533207E+0	1.525340E+0	1.475359E+0	1.557454E+0	1.489874E+0	1.504263E+0	1.551982E+0	1.552476E+0	1.463189E+0	1.523451E+0	1.541969E+0	1.581325E+0	1.546182E+0	1.485816E+0	1.500796E+0	1.532986E+0	1.521926E+0	1.473166E+0	1.473186E+0	1.462872E+0	1.479850E+0	1.520502E+0	1.541543E+0	1.516753E+0	1.504370E+0	1.558323E+0	1.488982E+0	1.582335E+0	1.470480E+0	1.543640E+0	1.541998E+0	1.516650E+0	1.566716E+0	1.436189E+0	1.498773E+0	1.491939E+0	1.514650E+0	1.491452E+0	1.572495E+0	1.516030E+0	1.470104E+0	1.490944E+0	1.510449E+0	1.485133E+0	1.474227E+0	1.474963E+0	1.561047E+0	1.543754E+0	1.447406E+0	1.524556E+0	1.460877E+0	1.537277E+0	1.522517E+0	1.479983E+0	1.514491E+0	1.530029E+0	1.424413E+0	1.479105E+0	1.494931E+0	1.510987E+0	1.463945E+0	1.579611E+0	1.515453E+0	1.539140E+0	1.501912E+0	1.510630E+0	1.492249E+0	1.471636E+0	1.501508E+0	1.505579E+0	1.484717E+0	1.540110E+0	1.557239E+0	1.511107E+0	1.551546E+0	1.505216E+0	1.541956E+0	1.460864E+0	1.478094E+0	1.545717E+0	1.476503E+0	1.418646E+0	1.538928E+0	1.513210E+0	1.472749E+0	1.424305E+0	1.491043E+0	1.564993E+0	1.480250E+0	1.534694E+0	1.531665E+0	1.517765E+0	1.428498E+0	1.532984E+0	1.559238E+0	1.455332E+0	1.476336E+0	1.415053E+0	1.570302E+0	1.527968E+0
5.452690E+2	1.464947E+0	1.411577E+0	1.432778E+0	1.395743E+0	1.398536E+0	1.404068E+0	1.356398E+0	1.411155E+0	1.360050E+0	1.385556E+0	1.415305E+0	1.376933E+0	1.473902E+0	1.473228E+0	1.396372E+0	1.402137E+0	1.416401E+0	1.442501E+0	1.477433E+0	1.431669E+0	1.431148E+0	1.441096E+0	1.351887E+0	1.444105E+0	1.444920E+0	1.446202E+0	1.462472E+0	1.399259E+0	1.394241E+0	1.419073E+0	1.410388E+0	1.409916E+0	1.395542E+0	1.457361E+0	1.399786E+0	1.363194E+0	1.387363E+0	1.472868E+0	1.389040E+0	1.425786E+0	1.352524E+0	1.488430E+0	1.339128E+0	1.405913E+0	1.421833E+0	1.425423E+0	1.362232E+0	1.372650E+0	1.369328E+0	1.411035E+0	1.366108E+0	1.418758E+0	1.419946E+0	1.401168E+0	1.398583E+0	1.424692E+0	1.436679E+0	1.384983E+0	1.473531E+0	1.385308E+0	1.459837E+0	1.445974E+0	1.417789E+0	1.374750E+0	1.432900E+0	1.406104E+0	1.368908E+0	1.394099E+0	1.369351E+0	1.423633E+0	1.382096E+0	1.416646E+0	1.406173E+0	1.365026E+0	1.360657E+0	1.374217E+0	1.403071E+0	1.403724E+0	1.375781E+0	1.413019E+0	1.406137E+0	1.424102E+0	1.440026E+0	1.383720E+0	1.364936E+0	1.493787E+0	1.399470E+0	1.416037E+0	1.411240E+0	1.417329E+0	1.419814E+0	1.344159E+0	1.416082E+0	1.411700E+0	1.358485E+0	1.385358E+0	1.450457E+0	1.364445E+0	1.461770E+0	1.402324E+0	1.399323E+0	1.385338E+0	1.385082E+0	1.407855E+0	1.373584E+0	1.413439E+0	1.340204E+0	1.367704E+0	1.434891E+0	1.369017E+0	1.417221E+0	1.390001E+0	1.402983E+0	1.410776E+0	1.370195E+0	1.447079E+0	1.370601E+0	1.382067E+0	1.409938E+0	1.437356E+0	1.404811E+0	1.421650E+0	1.432989E+0	1.400026E+0	1.415239E+0	1.347296E+0	1.422518E+0	1.435823E+0	1.374268E+0	1.482140E+0	1.327983E+0	1.420308E+0	1.319378E+0	1.347927E+0	1.449494E+0	1.389186E+0	1.384098E+0	1.412851E+0	1.409258E+0	1.363858E+0	1.419014E+0	1.459337E+0	1.370641E+0	1.341694E+0	1.352623E+0	1.385727E+0	1.346621E+0	1.455753E+0	1.403744E+0	1.438213E+0	1.390899E+0	1.365502E+0	1.386388E+0	1.427742E+0	1.386126E+0	1.334860E+0	1.408582E+0	1.393791E+0	1.320292E+0	1.407288E+0	1.407158E+0	1.375565E+0	1.366902E+0	1.391048E+0	1.361689E+0	1.331243E+0
5.455070E+2	1.462932E+0	1.445757E+0	1.391457E+0	1.422380E+0	1.445319E+0	1.415034E+0	1.427047E+0	1.381418E+0	1.367435E+0	1.419661E+0	1.398692E+0	1.389862E+0	1.391464E+0	1.432593E+0	1.408425E+0	1.399371E+0	1.430624E+0	1.404304E+0	1.473584E+0	1.385432E+0	1.437835E+0	1.448361E+0	1.381210E+0	1.421582E+0	1.430801E+0	1.423528E+0	1.401789E+0	1.405700E+0	1.371823E+0	1.394222E+0	1.437029E+0	1.369937E+0	1.357011E+0	1.445773E+0	1.322332E+0	1.431516E+0	1.377359E+0	1.389689E+0	1.395177E+0	1.351113E+0	1.362912E+0	1.471905E+0	1.372378E+0	1.389960E+0	1.385857E+0	1.384781E+0	1.316336E+0	1.361533E+0	1.318982E+0	1.334740E+0	1.439090E+0	1.371725E+0	1.428659E+0	1.425558E+0	1.456348E+0	1.378726E+0	1.403391E+0	1.341917E+0	1.404730E+0	1.370347E+0	1.358859E+0	1.395849E+0	1.339173E+0	1.415008E+0	1.383592E+0	1.391062E+0	1.408316E+0	1.366824E+0	1.412206E+0	1.434681E+0	1.444047E+0	1.336244E+0	1.366369E+0	1.442045E+0	1.378430E+0	1.375355E+0	1.427685E+0	1.450763E+0	1.335113E+0	1.432093E+0	1.428994E+0	1.383632E+0	1.376552E+0	1.375337E+0	1.334620E+0	1.368557E+0	1.366305E+0	1.459049E+0	1.398579E+0	1.333458E+0	1.424158E+0	1.368261E+0	1.397960E+0	1.379829E+0	1.451232E+0	1.390168E+0	1.377409E+0	1.450166E+0	1.406275E+0	1.410493E+0	1.391322E+0	1.347074E+0	1.376998E+0	1.397790E+0	1.390866E+0	1.387525E+0	1.408055E+0	1.334691E+0	1.393256E+0	1.363329E+0	1.410946E+0	1.451137E+0	1.390514E+0	1.343557E+0	1.367617E+0	1.449703E+0	1.380604E+0	1.418349E+0	1.353924E+0	1.383841E+0	1.390850E+0	1.402130E+0	1.321208E+0	1.353089E+0	1.409429E+0	1.442791E+0	1.395168E+0	1.363639E+0	1.425006E+0	1.359366E+0	1.329202E+0	1.404423E+0	1.366514E+0	1.346833E+0	1.319349E+0	1.393209E+0	1.437643E+0	1.410014E+0	1.321226E+0	1.405065E+0	1.456928E+0	1.394374E+0	1.371726E+0	1.417007E+0	1.370679E+0	1.350863E+0	1.366997E+0	1.376720E+0	1.387697E+0	1.418986E+0	1.390322E+0	1.374008E+0	1.420477E+0	1.410275E+0	1.369604E+0	1.356614E+0	1.410421E+0	1.367852E+0	1.317814E+0	1.322750E+0	1.437884E+0	1.391773E+0	1.326724E+0	1.379098E+0	1.440802E+0	1.525031E+0
5.457720E+2	1.358134E+0	1.315899E+0	1.329770E+0	1.280764E+0	1.335892E+0	1.297602E+0	1.286338E+0	1.314553E+0	1.302111E+0	1.293410E+0	1.320601E+0	1.318405E+0	1.317560E+0	1.362058E+0	1.319967E+0	1.311798E+0	1.323056E+0	1.339613E+0	1.317299E+0	1.276557E+0	1.313891E+0	1.316730E+0	1.287847E+0	1.311124E+0	1.325423E+0	1.329156E+0	1.368395E+0	1.309482E+0	1.290310E+0	1.309312E+0	1.268993E+0	1.285082E+0	1.311580E+0	1.362021E+0	1.271451E+0	1.294992E+0	1.312539E+0	1.323089E+0	1.292422E+0	1.308814E+0	1.274738E+0	1.343949E+0	1.336418E+0	1.320239E+0	1.296482E+0	1.318964E+0	1.287318E+0	1.306879E+0	1.290460E+0	1.318218E+0	1.308494E+0	1.316626E+0	1.271511E+0	1.257736E+0	1.315599E+0	1.317413E+0	1.294315E+0	1.336586E+0	1.289671E+0	1.332093E+0	1.325219E+0	1.274518E+0	1.279170E+0	1.316240E+0	1.294025E+0	1.290701E+0	1.344668E+0	1.307040E+0	1.316931E+0	1.331368E+0	1.324969E+0	1.254171E+0	1.235208E+0	1.257847E+0	1.286281E+0	1.338698E+0	1.308792E+0	1.294891E+0	1.314584E+0	1.276207E+0	1.292789E+0	1.296591E+0	1.251883E+0	1.280174E+0	1.290031E+0	1.368009E+0	1.290615E+0	1.346965E+0	1.276186E+0	1.232041E+0	1.261430E+0	1.301162E+0	1.288805E+0	1.388802E+0	1.265101E+0	1.245399E+0	1.282552E+0	1.252546E+0	1.278604E+0	1.293725E+0	1.304172E+0	1.326879E+0	1.296320E+0	1.221993E+0	1.320358E+0	1.305822E+0	1.254527E+0	1.245085E+0	1.343008E+0	1.351560E+0	1.257598E+0	1.298990E+0	1.286520E+0	1.310016E+0	1.299059E+0	1.302074E+0	1.263379E+0	1.272696E+0	1.266865E+0	1.364854E+0	1.300334E+0	1.339151E+0	1.289828E+0	1.265899E+0	1.332696E+0	1.293160E+0	1.304297E+0	1.300710E+0	1.319001E+0	1.320480E+0	1.255019E+0	1.331244E+0	1.313288E+0	1.293119E+0	1.221229E+0	1.330893E+0	1.402967E+0	1.288439E+0	1.273171E+0	1.251921E+0	1.322687E+0	1.301003E+0	1.284170E+0	1.256482E+0	1.269899E+0	1.318306E+0	1.285660E+0	1.275666E+0	1.307237E+0	1.267105E+0	1.279699E+0	1.284260E+0	1.310344E+0	1.227907E+0	1.279031E+0	1.305967E+0	1.365429E+0	1.294917E+0	1.302372E+0	1.319444E+0	1.304300E+0	1.407811E+0	1.276772E+0	1.224119E+0	1.269318E+0	1.348675E+0
5.460110E+2	1.296179E+0	1.244766E+0	1.268481E+0	1.244191E+0	1.185232E+0	1.203310E+0	1.290550E+0	1.248264E+0	1.282107E+0	1.256678E+0	1.303527E+0	1.260017E+0	1.315592E+0	1.277162E+0	1.219891E+0	1.208427E+0	1.248478E+0	1.269178E+0	1.258497E+0	1.260797E+0	1.252882E+0	1.254051E+0	1.226852E+0	1.276995E+0	1.215601E+0	1.249414E+0	1.241623E+0	1.236789E+0	1.231358E+0	1.259862E+0	1.269243E+0	1.183771E+0	1.219620E+0	1.200132E+0	1.228286E+0	1.224538E+0	1.200963E+0	1.220775E+0	1.230519E+0	1.194925E+0	1.263855E+0	1.292544E+0	1.285037E+0	1.234043E+0	1.239178E+0	1.306513E+0	1.219901E+0	1.243669E+0	1.261484E+0	1.259243E+0	1.235610E+0	1.156182E+0	1.193721E+0	1.287079E+0	1.215208E+0	1.250523E+0	1.219541E+0	1.224402E+0	1.277310E+0	1.269533E+0	1.270836E+0	1.287837E+0	1.195656E+0	1.293880E+0	1.229145E+0	1.247539E+0	1.245403E+0	1.250321E+0	1.183191E+0	1.220187E+0	1.215835E+0	1.266676E+0	1.268481E+0	1.183620E+0	1.198377E+0	1.219221E+0	1.257012E+0	1.221188E+0	1.174815E+0	1.248405E+0	1.222881E+0	1.302777E+0	1.256502E+0	1.208004E+0	1.213217E+0	1.176647E+0	1.242809E+0	1.197333E+0	1.224933E+0	1.210872E+0	1.190376E+0	1.258905E+0	1.194287E+0	1.282189E+0	1.222277E+0	1.176487E+0	1.235929E+0	1.257317E+0	1.184502E+0	1.233194E+0	1.205931E+0	1.211680E+0	1.240181E+0	1.253991E+0	1.210915E+0	1.282134E+0	1.265644E+0	1.163737E+0	1.204640E+0	1.292123E+0	1.264933E+0	1.279737E+0	1.241693E+0	1.246477E+0	1.233621E+0	1.297221E+0	1.205101E+0	1.238235E+0	1.301777E+0	1.288915E+0	1.236459E+0	1.338627E+0	1.258571E+0	1.259242E+0	1.232117E+0	1.256407E+0	1.175058E+0	1.243928E+0	1.232989E+0	1.240920E+0	1.235069E+0	1.267171E+0	1.227111E+0	1.228887E+0	1.238274E+0	1.205140E+0	1.243125E+0	1.211243E+0	1.190528E+0	1.150232E+0	1.231495E+0	1.265752E+0	1.193272E+0	1.201908E+0	1.211706E+0	1.276257E+0	1.244531E+0	1.211782E+0	1.298603E+0	1.217748E+0	1.242388E+0	1.216052E+0	1.217571E+0	1.205252E+0	1.313722E+0	1.265477E+0	1.284468E+0	1.270960E+0	1.217585E+0	1.213204E+0	1.263802E+0	1.239550E+0	1.170650E+0	1.256414E+0	1.185912E+0	1.284758E+0
5.467660E+2	1.193121E+0	1.118268E+0	1.135872E+0	1.128273E+0	1.118146E+0	1.118914E+0	1.166670E+0	1.115485E+0	1.071776E+0	1.148428E+0	1.129890E+0	1.160772E+0	1.174963E+0	1.166771E+0	1.116574E+0	1.122770E+0	1.175517E+0	1.155728E+0	1.181983E+0	1.098422E+0	1.159266E+0	1.132231E+0	1.131923E+0	1.149443E+0	1.132494E+0	1.183265E+0	1.163154E+0	1.133923E+0	1.163082E+0	1.145202E+0	1.144283E+0	1.101525E+0	1.115867E+0	1.127123E+0	1.136664E+0	1.078773E+0	1.172398E+0	1.115198E+0	1.114663E+0	1.170795E+0	1.133909E+0	1.177994E+0	1.188077E+0	1.151360E+0	1.137046E+0	1.156064E+0	1.107289E+0	1.140530E+0	1.143411E+0	1.175610E+0	1.104319E+0	1.164603E+0	1.171857E+0	1.139539E+0	1.191307E+0	1.169806E+0	1.146534E+0	1.130172E+0	1.110342E+0	1.104044E+0	1.148194E+0	1.122298E+0	1.111107E+0	1.092696E+0	1.114799E+0	1.173084E+0	1.162013E+0	1.164535E+0	1.136254E+0	1.137626E+0	1.149413E+0	1.139721E+0	1.124617E+0	1.109143E+0	1.113491E+0	1.154591E+0	1.113509E+0	1.198348E+0	1.102650E+0	1.134920E+0	1.134975E+0	1.126870E+0	1.124889E+0	1.171203E+0	1.139496E+0	1.169290E+0	1.156129E+0	1.128502E+0	1.126948E+0	1.103535E+0	1.161324E+0	1.074913E+0	1.107083E+0	1.181413E+0	1.068175E+0	1.116807E+0	1.139606E+0	1.118769E+0	1.091860E+0	1.175488E+0	1.090606E+0	1.136282E+0	1.113896E+0	1.153112E+0	1.128822E+0	1.121868E+0	1.159556E+0	1.049257E+0	1.144044E+0	1.132456E+0	1.113764E+0	1.205436E+0	1.127256E+0	1.142397E+0	1.104148E+0	1.150473E+0	1.131800E+0	1.142959E+0	1.124401E+0	1.167899E+0	1.164535E+0	1.174809E+0	1.144631E+0	1.088012E+0	1.134534E+0	1.133528E+0	1.094312E+0	1.153193E+0	1.118385E+0	1.168133E+0	1.203906E+0	1.123919E+0	1.102964E+0	1.147221E+0	1.110163E+0	1.140290E+0	1.204129E+0	1.188182E+0	1.164697E+0	1.115248E+0	1.207015E+0	1.134066E+0	1.067081E+0	1.121889E+0	1.106717E+0	1.170234E+0	1.155773E+0	1.101022E+0	1.145536E+0	1.177459E+0	1.129276E+0	1.122576E+0	1.151872E+0	1.092302E+0	1.177860E+0	1.100362E+0	1.136495E+0	1.111978E+0	1.049402E+0	1.151646E+0	1.097158E+0	1.128139E+0	1.125049E+0	1.113764E+0	1.130392E+0	1.091526E+0
5.475120E+2	1.247358E+0	1.356962E+0	1.266885E+0	1.288515E+0	1.268331E+0	1.295804E+0	1.233691E+0	1.339117E+0	1.275003E+0	1.290486E+0	1.298319E+0	1.253936E+0	1.303891E+0	1.290053E+0	1.263168E+0	1.255362E+0	1.284087E+0	1.235966E+0	1.277250E+0	1.267137E+0	1.212488E+0	1.252234E+0	1.249139E+0	1.303378E+0	1.317806E+0	1.273743E+0	1.309240E+0	1.259962E+0	1.253774E+0	1.279729E+0	1.301523E+0	1.226114E+0	1.274263E+0	1.315982E+0	1.256277E+0	1.216590E+0	1.329145E+0	1.311477E+0	1.260347E+0	1.284782E+0	1.233819E+0	1.299060E+0	1.278656E+0	1.208068E+0	1.257477E+0	1.319733E+0	1.247108E+0	1.216084E+0	1.254112E+0	1.334557E+0	1.218888E+0	1.259378E+0	1.303769E+0	1.258333E+0	1.306487E+0	1.257179E+0	1.204971E+0	1.287351E+0	1.246235E+0	1.250217E+0	1.270238E+0	1.254799E+0	1.225934E+0	1.239305E+0	1.278111E+0	1.299364E+0	1.261872E+0	1.291302E+0	1.236805E+0	1.286963E+0	1.269008E+0	1.272921E+0	1.266706E+0	1.282755E+0	1.276501E+0	1.229039E+0	1.276947E+0	1.235362E+0	1.301803E+0	1.250842E+0	1.281467E+0	1.267558E+0	1.297222E+0	1.223403E+0	1.291525E+0	1.274885E+0	1.276550E+0	1.264877E+0	1.242342E+0	1.296360E+0	1.251034E+0	1.251770E+0	1.246921E+0	1.267005E+0	1.277528E+0	1.272066E+0	1.252240E+0	1.274817E+0	1.257998E+0	1.232364E+0	1.207039E+0	1.306140E+0	1.210630E+0	1.265380E+0	1.260672E+0	1.260696E+0	1.251602E+0	1.278264E+0	1.247080E+0	1.283120E+0	1.279138E+0	1.338313E+0	1.295276E+0	1.269609E+0	1.242210E+0	1.279583E+0	1.253889E+0	1.232708E+0	1.272950E+0	1.255690E+0	1.292647E+0	1.341179E+0	1.233138E+0	1.279448E+0	1.212933E+0	1.327445E+0	1.243545E+0	1.334866E+0	1.280460E+0	1.297974E+0	1.248097E+0	1.184263E+0	1.232539E+0	1.260606E+0	1.277892E+0	1.251848E+0	1.265258E+0	1.279999E+0	1.226496E+0	1.191188E+0	1.272378E+0	1.290776E+0	1.243180E+0	1.224830E+0	1.241893E+0	1.274134E+0	1.281491E+0	1.242853E+0	1.327620E+0	1.299855E+0	1.290289E+0	1.262114E+0	1.259185E+0	1.286116E+0	1.198721E+0	1.255119E+0	1.203406E+0	1.328242E+0	1.202951E+0	1.259146E+0	1.242455E+0	1.255109E+0	1.272060E+0	1.208431E+0	1.237184E+0	1.164185E+0
5.482600E+2	1.375532E+0	1.348067E+0	1.349969E+0	1.292308E+0	1.348878E+0	1.325844E+0	1.339671E+0	1.318425E+0	1.338270E+0	1.297092E+0	1.313573E+0	1.373290E+0	1.339096E+0	1.371280E+0	1.302098E+0	1.364146E+0	1.323490E+0	1.308701E+0	1.326236E+0	1.303722E+0	1.341098E+0	1.307929E+0	1.311023E+0	1.325458E+0	1.364042E+0	1.345631E+0	1.317697E+0	1.337052E+0	1.303635E+0	1.380354E+0	1.361354E+0	1.331031E+0	1.340602E+0	1.405376E+0	1.315684E+0	1.318772E+0	1.303560E+0	1.355218E+0	1.325539E+0	1.351911E+0	1.305684E+0	1.262704E+0	1.381859E+0	1.266330E+0	1.307426E+0	1.344262E+0	1.289192E+0	1.310492E+0	1.322385E+0	1.333224E+0	1.301782E+0	1.252192E+0	1.270404E+0	1.310231E+0	1.355976E+0	1.377742E+0	1.307091E+0	1.357634E+0	1.368917E+0	1.332585E+0	1.299302E+0	1.348545E+0	1.310901E+0	1.346920E+0	1.313290E+0	1.322899E+0	1.330280E+0	1.275786E+0	1.305340E+0	1.362829E+0	1.370223E+0	1.275606E+0	1.341912E+0	1.300469E+0	1.361756E+0	1.355390E+0	1.363546E+0	1.367042E+0	1.317631E+0	1.316538E+0	1.280882E+0	1.345203E+0	1.235084E+0	1.284618E+0	1.304850E+0	1.357799E+0	1.337648E+0	1.411810E+0	1.290993E+0	1.294514E+0	1.246330E+0	1.320863E+0	1.331564E+0	1.295386E+0	1.293695E+0	1.315864E+0	1.321864E+0	1.340150E+0	1.322728E+0	1.325145E+0	1.301856E+0	1.311588E+0	1.312013E+0	1.336909E+0	1.278812E+0	1.363643E+0	1.309831E+0	1.310004E+0	1.331640E+0	1.368122E+0	1.331772E+0	1.300986E+0	1.335880E+0	1.300572E+0	1.279243E+0	1.307512E+0	1.315010E+0	1.313299E+0	1.351674E+0	1.287340E+0	1.371148E+0	1.294508E+0	1.266827E+0	1.364295E+0	1.282251E+0	1.345421E+0	1.284245E+0	1.372488E+0	1.298590E+0	1.306919E+0	1.269823E+0	1.307283E+0	1.342965E+0	1.292915E+0	1.315936E+0	1.286194E+0	1.360025E+0	1.362213E+0	1.342121E+0	1.274443E+0	1.338229E+0	1.320402E+0	1.306697E+0	1.290122E+0	1.291468E+0	1.381027E+0	1.298268E+0	1.277389E+0	1.364244E+0	1.335713E+0	1.370698E+0	1.294531E+0	1.307250E+0	1.337804E+0	1.298087E+0	1.293329E+0	1.332166E+0	1.340400E+0	1.296976E+0	1.304092E+0	1.407609E+0	1.404130E+0	1.300276E+0	1.291965E+0	1.297388E+0	1.388451E+0
5.490100E+2	1.479743E+0	1.415804E+0	1.426373E+0	1.439941E+0	1.348717E+0	1.428829E+0	1.441520E+0	1.361863E+0	1.339881E+0	1.422622E+0	1.361003E+0	1.388422E+0	1.435810E+0	1.390122E+0	1.380659E+0	1.419812E+0	1.410803E+0	1.403154E+0	1.443946E+0	1.388673E+0	1.372101E+0	1.381618E+0	1.365351E+0	1.365140E+0	1.394177E+0	1.412941E+0	1.385670E+0	1.395309E+0	1.370611E+0	1.462183E+0	1.455431E+0	1.372643E+0	1.449173E+0	1.415623E+0	1.401961E+0	1.427611E+0	1.398684E+0	1.411375E+0	1.400310E+0	1.359604E+0	1.371588E+0	1.372389E+0	1.378013E+0	1.408178E+0	1.446958E+0	1.452617E+0	1.427867E+0	1.366438E+0	1.357202E+0	1.437479E+0	1.365579E+0	1.376977E+0	1.466639E+0	1.419231E+0	1.353849E+0	1.339295E+0	1.419849E+0	1.414555E+0	1.374288E+0	1.417969E+0	1.472379E+0	1.429007E+0	1.363728E+0	1.405869E+0	1.359724E+0	1.429696E+0	1.365602E+0	1.417746E+0	1.418606E+0	1.459412E+0	1.422041E+0	1.380936E+0	1.345135E+0	1.257442E+0	1.410933E+0	1.372065E+0	1.370172E+0	1.372787E+0	1.381878E+0	1.357439E+0	1.357475E+0	1.386388E+0	1.372483E+0	1.363708E+0	1.403406E+0	1.379755E+0	1.396789E+0	1.344029E+0	1.403849E+0	1.422702E+0	1.354987E+0	1.350434E+0	1.330825E+0	1.415662E+0	1.399627E+0	1.359629E+0	1.408604E+0	1.433621E+0	1.380244E+0	1.360394E+0	1.382394E+0	1.386170E+0	1.406406E+0	1.388044E+0	1.375921E+0	1.432888E+0	1.399081E+0	1.363303E+0	1.402848E+0	1.432315E+0	1.436875E+0	1.406360E+0	1.387236E+0	1.480716E+0	1.377001E+0	1.370465E+0	1.334061E+0	1.350434E+0	1.359708E+0	1.365803E+0	1.412647E+0	1.463276E+0	1.348042E+0	1.388865E+0	1.347801E+0	1.373140E+0	1.341392E+0	1.360371E+0	1.352653E+0	1.385685E+0	1.354921E+0	1.381595E+0	1.404242E+0	1.349970E+0	1.373209E+0	1.379053E+0	1.423549E+0	1.431510E+0	1.357353E+0	1.363859E+0	1.343786E+0	1.360259E+0	1.361696E+0	1.378923E+0	1.330472E+0	1.386778E+0	1.362168E+0	1.363349E+0	1.371927E+0	1.431543E+0	1.410230E+0	1.322319E+0	1.406143E+0	1.408586E+0	1.361413E+0	1.360691E+0	1.412370E+0	1.442658E+0	1.349469E+0	1.408033E+0	1.411558E+0	1.305412E+0	1.306023E+0	1.381273E+0	1.428095E+0	1.416855E+0
5.497630E+2	1.291381E+0	1.301527E+0	1.318573E+0	1.290436E+0	1.237547E+0	1.326901E+0	1.257605E+0	1.306985E+0	1.295398E+0	1.236667E+0	1.310644E+0	1.240882E+0	1.301982E+0	1.284199E+0	1.267844E+0	1.282136E+0	1.292327E+0	1.257689E+0	1.288855E+0	1.250617E+0	1.185999E+0	1.284683E+0	1.295723E+0	1.265192E+0	1.264081E+0	1.274925E+0	1.275226E+0	1.248521E+0	1.240113E+0	1.254379E+0	1.317592E+0	1.203287E+0	1.290335E+0	1.293054E+0	1.289482E+0	1.251797E+0	1.185580E+0	1.262558E+0	1.283178E+0	1.278280E+0	1.231541E+0	1.388297E+0	1.258176E+0	1.246495E+0	1.316215E+0	1.309557E+0	1.209072E+0	1.257296E+0	1.239353E+0	1.317821E+0	1.256933E+0	1.213677E+0	1.283674E+0	1.285438E+0	1.357557E+0	1.307480E+0	1.319383E+0	1.308025E+0	1.237877E+0	1.268373E+0	1.290484E+0	1.328144E+0	1.264234E+0	1.264439E+0	1.214238E+0	1.338190E+0	1.302887E+0	1.241263E+0	1.200665E+0	1.285328E+0	1.234757E+0	1.253238E+0	1.254045E+0	1.206081E+0	1.264188E+0	1.239333E+0	1.229477E+0	1.292532E+0	1.212205E+0	1.274506E+0	1.248092E+0	1.244634E+0	1.288077E+0	1.227082E+0	1.206976E+0	1.299926E+0	1.290169E+0	1.260393E+0	1.271006E+0	1.270635E+0	1.241863E+0	1.293473E+0	1.241465E+0	1.283163E+0	1.197571E+0	1.293382E+0	1.210148E+0	1.250242E+0	1.267267E+0	1.284877E+0	1.263906E+0	1.278963E+0	1.286696E+0	1.262959E+0	1.263848E+0	1.336653E+0	1.269601E+0	1.191235E+0	1.291734E+0	1.296950E+0	1.266696E+0	1.259824E+0	1.255704E+0	1.293492E+0	1.227366E+0	1.319306E+0	1.230208E+0	1.289471E+0	1.245309E+0	1.242487E+0	1.260687E+0	1.284595E+0	1.186022E+0	1.251588E+0	1.255840E+0	1.217592E+0	1.233402E+0	1.258447E+0	1.234266E+0	1.293756E+0	1.292439E+0	1.239942E+0	1.301946E+0	1.335506E+0	1.276877E+0	1.310403E+0	1.238111E+0	1.283588E+0	1.234197E+0	1.261024E+0	1.269608E+0	1.241773E+0	1.275882E+0	1.233991E+0	1.229273E+0	1.242294E+0	1.227434E+0	1.279408E+0	1.257426E+0	1.248265E+0	1.294482E+0	1.162466E+0	1.237909E+0	1.344777E+0	1.264778E+0	1.257574E+0	1.272676E+0	1.323029E+0	1.268244E+0	1.264615E+0	1.331955E+0	1.234419E+0	1.216940E+0	1.279875E+0	1.201306E+0	1.279570E+0
5.505060E+2	1.299836E+0	1.261259E+0	1.351927E+0	1.392680E+0	1.305239E+0	1.277304E+0	1.307747E+0	1.344217E+0	1.334216E+0	1.300333E+0	1.268952E+0	1.249467E+0	1.304014E+0	1.360070E+0	1.324392E+0	1.329471E+0	1.297692E+0	1.303351E+0	1.302940E+0	1.293311E+0	1.298248E+0	1.245715E+0	1.294036E+0	1.290826E+0	1.374827E+0	1.333069E+0	1.307464E+0	1.268110E+0	1.298450E+0	1.283721E+0	1.315327E+0	1.262970E+0	1.348040E+0	1.400788E+0	1.204815E+0	1.315265E+0	1.296513E+0	1.285218E+0	1.281762E+0	1.311423E+0	1.295569E+0	1.306499E+0	1.294841E+0	1.330541E+0	1.332610E+0	1.324210E+0	1.238952E+0	1.277506E+0	1.264385E+0	1.349091E+0	1.269987E+0	1.224574E+0	1.259597E+0	1.258659E+0	1.283612E+0	1.292044E+0	1.269033E+0	1.274642E+0	1.297996E+0	1.288717E+0	1.296219E+0	1.319842E+0	1.272108E+0	1.223617E+0	1.336312E+0	1.391844E+0	1.296821E+0	1.289291E+0	1.277950E+0	1.318690E+0	1.289159E+0	1.283372E+0	1.301641E+0	1.276026E+0	1.279271E+0	1.229913E+0	1.315611E+0	1.314440E+0	1.285053E+0	1.249245E+0	1.205245E+0	1.311608E+0	1.293938E+0	1.268426E+0	1.279750E+0	1.314428E+0	1.225018E+0	1.265967E+0	1.269110E+0	1.297701E+0	1.227427E+0	1.236016E+0	1.334220E+0	1.332709E+0	1.236305E+0	1.268739E+0	1.240863E+0	1.334947E+0	1.324210E+0	1.349313E+0	1.304288E+0	1.285009E+0	1.270145E+0	1.296358E+0	1.278057E+0	1.294770E+0	1.230930E+0	1.244823E+0	1.293815E+0	1.325432E+0	1.329660E+0	1.305275E+0	1.233275E+0	1.267432E+0	1.254444E+0	1.328725E+0	1.296155E+0	1.316947E+0	1.304387E+0	1.268976E+0	1.284340E+0	1.327406E+0	1.285156E+0	1.325427E+0	1.235203E+0	1.291296E+0	1.269025E+0	1.304669E+0	1.329448E+0	1.285492E+0	1.202564E+0	1.269102E+0	1.297350E+0	1.244407E+0	1.273315E+0	1.303764E+0	1.345973E+0	1.277594E+0	1.237876E+0	1.234618E+0	1.318938E+0	1.270894E+0	1.278438E+0	1.235935E+0	1.271977E+0	1.296093E+0	1.248461E+0	1.243121E+0	1.336715E+0	1.315227E+0	1.275319E+0	1.259609E+0	1.276244E+0	1.292220E+0	1.295234E+0	1.284596E+0	1.258887E+0	1.351926E+0	1.199097E+0	1.288311E+0	1.278402E+0	1.255463E+0	1.289349E+0	1.228957E+0	1.272664E+0	1.290102E+0
5.512620E+2	1.245722E+0	1.281089E+0	1.311807E+0	1.259092E+0	1.312654E+0	1.261685E+0	1.244663E+0	1.281633E+0	1.295959E+0	1.225113E+0	1.280165E+0	1.217521E+0	1.319649E+0	1.292528E+0	1.276146E+0	1.265426E+0	1.255357E+0	1.232087E+0	1.236504E+0	1.309807E+0	1.228060E+0	1.259268E+0	1.264702E+0	1.277938E+0	1.299301E+0	1.301947E+0	1.317282E+0	1.296263E+0	1.235250E+0	1.237763E+0	1.303214E+0	1.252746E+0	1.299046E+0	1.289492E+0	1.319799E+0	1.276794E+0	1.281668E+0	1.254901E+0	1.277335E+0	1.243067E+0	1.310422E+0	1.316563E+0	1.238496E+0	1.223209E+0	1.230353E+0	1.262669E+0	1.261538E+0	1.302505E+0	1.220237E+0	1.281432E+0	1.239322E+0	1.306064E+0	1.285001E+0	1.310255E+0	1.297989E+0	1.293389E+0	1.297524E+0	1.337784E+0	1.258385E+0	1.217819E+0	1.294709E+0	1.288071E+0	1.301381E+0	1.226597E+0	1.209454E+0	1.285600E+0	1.348893E+0	1.285517E+0	1.257943E+0	1.266244E+0	1.334432E+0	1.251171E+0	1.277784E+0	1.272702E+0	1.172458E+0	1.292385E+0	1.305497E+0	1.287120E+0	1.253921E+0	1.242514E+0	1.285350E+0	1.305671E+0	1.307027E+0	1.205109E+0	1.261710E+0	1.276950E+0	1.314097E+0	1.325774E+0	1.297859E+0	1.231988E+0	1.291885E+0	1.277230E+0	1.253240E+0	1.308760E+0	1.227578E+0	1.291342E+0	1.296167E+0	1.376415E+0	1.296651E+0	1.307865E+0	1.262764E+0	1.260032E+0	1.240949E+0	1.294573E+0	1.269112E+0	1.277622E+0	1.268038E+0	1.286574E+0	1.314616E+0	1.321492E+0	1.242395E+0	1.284671E+0	1.292830E+0	1.305628E+0	1.213725E+0	1.287103E+0	1.289395E+0	1.262437E+0	1.262958E+0	1.283667E+0	1.277937E+0	1.317887E+0	1.246465E+0	1.271852E+0	1.284513E+0	1.239701E+0	1.258205E+0	1.302889E+0	1.238524E+0	1.301364E+0	1.183619E+0	1.291070E+0	1.290217E+0	1.285399E+0	1.223554E+0	1.284869E+0	1.277964E+0	1.245133E+0	1.243983E+0	1.238179E+0	1.267632E+0	1.308561E+0	1.228995E+0	1.278630E+0	1.258577E+0	1.294052E+0	1.301336E+0	1.255870E+0	1.300741E+0	1.302098E+0	1.277471E+0	1.235579E+0	1.281835E+0	1.295765E+0	1.298406E+0	1.277430E+0	1.249599E+0	1.308787E+0	1.210552E+0	1.328632E+0	1.245037E+0	1.277390E+0	1.203371E+0	1.269942E+0	1.331794E+0	1.223568E+0
5.520150E+2	1.256264E+0	1.301705E+0	1.272546E+0	1.281194E+0	1.291522E+0	1.253082E+0	1.284518E+0	1.248348E+0	1.262356E+0	1.267785E+0	1.269119E+0	1.217449E+0	1.286770E+0	1.232521E+0	1.267246E+0	1.199929E+0	1.295389E+0	1.235930E+0	1.274334E+0	1.209341E+0	1.301209E+0	1.227297E+0	1.244425E+0	1.261800E+0	1.267911E+0	1.291015E+0	1.257007E+0	1.257014E+0	1.182453E+0	1.289841E+0	1.280408E+0	1.265229E+0	1.244557E+0	1.293172E+0	1.230824E+0	1.284517E+0	1.263248E+0	1.254848E+0	1.263649E+0	1.225896E+0	1.270463E+0	1.296954E+0	1.264744E+0	1.286635E+0	1.209035E+0	1.291286E+0	1.203315E+0	1.268445E+0	1.237685E+0	1.217227E+0	1.248785E+0	1.245183E+0	1.227081E+0	1.262688E+0	1.274214E+0	1.265287E+0	1.215253E+0	1.174382E+0	1.262230E+0	1.310886E+0	1.271602E+0	1.272675E+0	1.139192E+0	1.261420E+0	1.273825E+0	1.297993E+0	1.265797E+0	1.217707E+0	1.246644E+0	1.280466E+0	1.272602E+0	1.267938E+0	1.268045E+0	1.225232E+0	1.273851E+0	1.200916E+0	1.276253E+0	1.207575E+0	1.266941E+0	1.220502E+0	1.246705E+0	1.265383E+0	1.219371E+0	1.253538E+0	1.225212E+0	1.268273E+0	1.225150E+0	1.236765E+0	1.255025E+0	1.212531E+0	1.293847E+0	1.236423E+0	1.241550E+0	1.250949E+0	1.250889E+0	1.200446E+0	1.270933E+0	1.259168E+0	1.290145E+0	1.224334E+0	1.200491E+0	1.239375E+0	1.222816E+0	1.188846E+0	1.235403E+0	1.308521E+0	1.193353E+0	1.229152E+0	1.249665E+0	1.287265E+0	1.273406E+0	1.198023E+0	1.240319E+0	1.216515E+0	1.236544E+0	1.248034E+0	1.202926E+0	1.311881E+0	1.195805E+0	1.223616E+0	1.263580E+0	1.266052E+0	1.199965E+0	1.221764E+0	1.248036E+0	1.308842E+0	1.188564E+0	1.250229E+0	1.184967E+0	1.302862E+0	1.263683E+0	1.271820E+0	1.282425E+0	1.266424E+0	1.218100E+0	1.256936E+0	1.235797E+0	1.235562E+0	1.259977E+0	1.292466E+0	1.264433E+0	1.249108E+0	1.225867E+0	1.201763E+0	1.248125E+0	1.293451E+0	1.275171E+0	1.188302E+0	1.283617E+0	1.290104E+0	1.228494E+0	1.203069E+0	1.309929E+0	1.276165E+0	1.295371E+0	1.227643E+0	1.222309E+0	1.307744E+0	1.210931E+0	1.258009E+0	1.240002E+0	1.242332E+0	1.250631E+0	1.243173E+0	1.193871E+0	1.262166E+0
5.527590E+2	1.252032E+0	1.226590E+0	1.210624E+0	1.195428E+0	1.216908E+0	1.283871E+0	1.216626E+0	1.204837E+0	1.147014E+0	1.180895E+0	1.283788E+0	1.251535E+0	1.237627E+0	1.247317E+0	1.209125E+0	1.207945E+0	1.244528E+0	1.277406E+0	1.248860E+0	1.247445E+0	1.283333E+0	1.238742E+0	1.192001E+0	1.236250E+0	1.219771E+0	1.215851E+0	1.262491E+0	1.179588E+0	1.201845E+0	1.263956E+0	1.235411E+0	1.224900E+0	1.281170E+0	1.168188E+0	1.244760E+0	1.221083E+0	1.236231E+0	1.234553E+0	1.286954E+0	1.217337E+0	1.180216E+0	1.262337E+0	1.251719E+0	1.210403E+0	1.179889E+0	1.299060E+0	1.236534E+0	1.214416E+0	1.186838E+0	1.165692E+0	1.174130E+0	1.215971E+0	1.179717E+0	1.264106E+0	1.157917E+0	1.237617E+0	1.249815E+0	1.265457E+0	1.266075E+0	1.250124E+0	1.304201E+0	1.181623E+0	1.162875E+0	1.268851E+0	1.232565E+0	1.218128E+0	1.214687E+0	1.263900E+0	1.166741E+0	1.296150E+0	1.236983E+0	1.199466E+0	1.249544E+0	1.180784E+0	1.217891E+0	1.245264E+0	1.244967E+0	1.229617E+0	1.202574E+0	1.224331E+0	1.233431E+0	1.243061E+0	1.255233E+0	1.236495E+0	1.217483E+0	1.233111E+0	1.247900E+0	1.215459E+0	1.235537E+0	1.171675E+0	1.203587E+0	1.175483E+0	1.233571E+0	1.258662E+0	1.251416E+0	1.227720E+0	1.226706E+0	1.188389E+0	1.218894E+0	1.247408E+0	1.195354E+0	1.222946E+0	1.205849E+0	1.240862E+0	1.208022E+0	1.210304E+0	1.203555E+0	1.195531E+0	1.168848E+0	1.228442E+0	1.257250E+0	1.175877E+0	1.240455E+0	1.192904E+0	1.201985E+0	1.214084E+0	1.216648E+0	1.250540E+0	1.220930E+0	1.224061E+0	1.195884E+0	1.246739E+0	1.200246E+0	1.192484E+0	1.211103E+0	1.214771E+0	1.207623E+0	1.217763E+0	1.224951E+0	1.236213E+0	1.237915E+0	1.170978E+0	1.223619E+0	1.207860E+0	1.265203E+0	1.224475E+0	1.227469E+0	1.221285E+0	1.219754E+0	1.242439E+0	1.248452E+0	1.249556E+0	1.163824E+0	1.188595E+0	1.181773E+0	1.216251E+0	1.220509E+0	1.156612E+0	1.265625E+0	1.216550E+0	1.215410E+0	1.213530E+0	1.254282E+0	1.243925E+0	1.221878E+0	1.281118E+0	1.182947E+0	1.218743E+0	1.159642E+0	1.222342E+0	1.189679E+0	1.267189E+0	1.181750E+0	1.231935E+0	1.177412E+0	1.193831E+0
5.535100E+2	1.202625E+0	1.213065E+0	1.237153E+0	1.250071E+0	1.220428E+0	1.241355E+0	1.184654E+0	1.197638E+0	1.203025E+0	1.190282E+0	1.216203E+0	1.196562E+0	1.196966E+0	1.198923E+0	1.206352E+0	1.164067E+0	1.178683E+0	1.183126E+0	1.174725E+0	1.222968E+0	1.171521E+0	1.247256E+0	1.171772E+0	1.229577E+0	1.206816E+0	1.183090E+0	1.230348E+0	1.156405E+0	1.088476E+0	1.226960E+0	1.228857E+0	1.168296E+0	1.149514E+0	1.205996E+0	1.189104E+0	1.207320E+0	1.181105E+0	1.227512E+0	1.186378E+0	1.166421E+0	1.205944E+0	1.185762E+0	1.170487E+0	1.227078E+0	1.219800E+0	1.185104E+0	1.169033E+0	1.167055E+0	1.159371E+0	1.177254E+0	1.200370E+0	1.136777E+0	1.215861E+0	1.192998E+0	1.154946E+0	1.194663E+0	1.181693E+0	1.179033E+0	1.170917E+0	1.219184E+0	1.180099E+0	1.172572E+0	1.151436E+0	1.191623E+0	1.172935E+0	1.227540E+0	1.179585E+0	1.199643E+0	1.182545E+0	1.219547E+0	1.209060E+0	1.197679E+0	1.233231E+0	1.117642E+0	1.165471E+0	1.191366E+0	1.186565E+0	1.169392E+0	1.139654E+0	1.203106E+0	1.202003E+0	1.220521E+0	1.228383E+0	1.171327E+0	1.163909E+0	1.204460E+0	1.211055E+0	1.156455E+0	1.133030E+0	1.193520E+0	1.171005E+0	1.210063E+0	1.141633E+0	1.193188E+0	1.173450E+0	1.172120E+0	1.200172E+0	1.157821E+0	1.219867E+0	1.225524E+0	1.130630E+0	1.221913E+0	1.170234E+0	1.201856E+0	1.234068E+0	1.199550E+0	1.226001E+0	1.138954E+0	1.260641E+0	1.149746E+0	1.175408E+0	1.170352E+0	1.120196E+0	1.188658E+0	1.196404E+0	1.184889E+0	1.153142E+0	1.149411E+0	1.147337E+0	1.195343E+0	1.221391E+0	1.268676E+0	1.133963E+0	1.171556E+0	1.204543E+0	1.211503E+0	1.124818E+0	1.179409E+0	1.154634E+0	1.177115E+0	1.152793E+0	1.217039E+0	1.167932E+0	1.259214E+0	1.176777E+0	1.203675E+0	1.188704E+0	1.232817E+0	1.182890E+0	1.159776E+0	1.209677E+0	1.197214E+0	1.194308E+0	1.157807E+0	1.159385E+0	1.180864E+0	1.147459E+0	1.144297E+0	1.214984E+0	1.231090E+0	1.263393E+0	1.207651E+0	1.165185E+0	1.218644E+0	1.211583E+0	1.192216E+0	1.158869E+0	1.275978E+0	1.200264E+0	1.196240E+0	1.132203E+0	1.243882E+0	1.130255E+0	1.215771E+0	1.137352E+0	1.300514E+0
5.542530E+2	1.254894E+0	1.220292E+0	1.151180E+0	1.163094E+0	1.194125E+0	1.176124E+0	1.175088E+0	1.116756E+0	1.182892E+0	1.126157E+0	1.217533E+0	1.142175E+0	1.180649E+0	1.202868E+0	1.140268E+0	1.151741E+0	1.116556E+0	1.140299E+0	1.152701E+0	1.117470E+0	1.165782E+0	1.139415E+0	1.118518E+0	1.176584E+0	1.165742E+0	1.211239E+0	1.195949E+0	1.190929E+0	1.110678E+0	1.157866E+0	1.172008E+0	1.163759E+0	1.131961E+0	1.171392E+0	1.172083E+0	1.130206E+0	1.166989E+0	1.185074E+0	1.196955E+0	1.203543E+0	1.095785E+0	1.142421E+0	1.172497E+0	1.181833E+0	1.154581E+0	1.143738E+0	1.123219E+0	1.166246E+0	1.140258E+0	1.112186E+0	1.128472E+0	1.132845E+0	1.097239E+0	1.196146E+0	1.174012E+0	1.118269E+0	1.163994E+0	1.193816E+0	1.135177E+0	1.118610E+0	1.207951E+0	1.118950E+0	1.106292E+0	1.189181E+0	1.229423E+0	1.156185E+0	1.139169E+0	1.125067E+0	1.107873E+0	1.158399E+0	1.201033E+0	1.153313E+0	1.170830E+0	1.146064E+0	1.151204E+0	1.088200E+0	1.159036E+0	1.183106E+0	1.110936E+0	1.146117E+0	1.118570E+0	1.109970E+0	1.129495E+0	1.169324E+0	1.087441E+0	1.159537E+0	1.136193E+0	1.122285E+0	1.124396E+0	1.106023E+0	1.181132E+0	1.139771E+0	1.198830E+0	1.176360E+0	1.126258E+0	1.112763E+0	1.140760E+0	1.187367E+0	1.196135E+0	1.172539E+0	1.102547E+0	1.121051E+0	1.129175E+0	1.187611E+0	1.143041E+0	1.197283E+0	1.131840E+0	1.189338E+0	1.196334E+0	1.123506E+0	1.187547E+0	1.107728E+0	1.157328E+0	1.159844E+0	1.096603E+0	1.154363E+0	1.124244E+0	1.130085E+0	1.153867E+0	1.130786E+0	1.160700E+0	1.168818E+0	1.154979E+0	1.239462E+0	1.155720E+0	1.136525E+0	1.106705E+0	1.178245E+0	1.191521E+0	1.098283E+0	1.143166E+0	1.136120E+0	1.138485E+0	1.143904E+0	1.106007E+0	1.111385E+0	1.197675E+0	1.144328E+0	1.086114E+0	1.122373E+0	1.179648E+0	1.147316E+0	1.151655E+0	1.158374E+0	1.092778E+0	1.233576E+0	1.144710E+0	1.186103E+0	1.152779E+0	1.194129E+0	1.169838E+0	1.122276E+0	1.142029E+0	1.151715E+0	1.095771E+0	1.130230E+0	1.145776E+0	1.153962E+0	1.161097E+0	1.143998E+0	1.111202E+0	1.214409E+0	1.105503E+0	1.100106E+0	1.220519E+0	1.153182E+0
5.550190E+2	1.023048E+0	1.022491E+0	1.066122E+0	1.022616E+0	1.074304E+0	9.656924E-1	1.031163E+0	1.090431E+0	1.024019E+0	1.056326E+0	1.010883E+0	1.032901E+0	1.050053E+0	1.042471E+0	1.012443E+0	1.078390E+0	9.957497E-1	1.023981E+0	1.017917E+0	1.012082E+0	1.069377E+0	1.049184E+0	1.039735E+0	1.003007E+0	1.045738E+0	1.035718E+0	1.061406E+0	1.045937E+0	9.712483E-1	1.093838E+0	1.073870E+0	9.994671E-1	1.023279E+0	1.085208E+0	1.035598E+0	1.038574E+0	9.805425E-1	1.003494E+0	1.080155E+0	1.051269E+0	1.029437E+0	1.060683E+0	1.028991E+0	1.055596E+0	1.054089E+0	1.028978E+0	1.008279E+0	1.012512E+0	1.025909E+0	1.037670E+0	1.062575E+0	9.669878E-1	1.050771E+0	1.079978E+0	1.027409E+0	1.016804E+0	1.025134E+0	9.864603E-1	1.131130E+0	1.087422E+0	1.040966E+0	1.040930E+0	1.019516E+0	1.048080E+0	1.070085E+0	1.028539E+0	1.035348E+0	1.051541E+0	1.017080E+0	1.053123E+0	1.051354E+0	1.038266E+0	1.089481E+0	9.945152E-1	1.063092E+0	1.031404E+0	1.015005E+0	9.997246E-1	1.031607E+0	1.035385E+0	1.025710E+0	1.014431E+0	1.048030E+0	1.025231E+0	1.012036E+0	9.983785E-1	1.067155E+0	1.084420E+0	1.051167E+0	1.044623E+0	1.049418E+0	1.067407E+0	1.072683E+0	1.072185E+0	1.029423E+0	1.040517E+0	1.044109E+0	9.851826E-1	1.034625E+0	1.052457E+0	1.071624E+0	1.044982E+0	1.057526E+0	1.026707E+0	1.004926E+0	1.077615E+0	1.063227E+0	1.043117E+0	1.057785E+0	1.041269E+0	1.046230E+0	1.018932E+0	1.059850E+0	1.055072E+0	1.086570E+0	1.046564E+0	1.050529E+0	1.007827E+0	1.000924E+0	1.097130E+0	1.010074E+0	1.017720E+0	1.062809E+0	1.011227E+0	1.058235E+0	1.061216E+0	1.070055E+0	1.060134E+0	1.092684E+0	1.041148E+0	1.028476E+0	9.922387E-1	1.032434E+0	1.008016E+0	9.862351E-1	1.055476E+0	1.052340E+0	1.111398E+0	1.034018E+0	1.048709E+0	1.045199E+0	1.030925E+0	9.845269E-1	1.013540E+0	1.045475E+0	1.063857E+0	1.118253E+0	1.004598E+0	1.041358E+0	1.080772E+0	1.055807E+0	1.006329E+0	1.003250E+0	1.057160E+0	1.060074E+0	1.030826E+0	1.049886E+0	1.074824E+0	1.046093E+0	1.078180E+0	1.049076E+0	1.066167E+0	9.929072E-1	1.050670E+0	9.885235E-1	1.018794E+0
5.557660E+2	1.050430E+0	1.063586E+0	1.032689E+0	9.931211E-1	9.895029E-1	9.466642E-1	9.507902E-1	1.043480E+0	9.945089E-1	9.819182E-1	1.057350E+0	9.968690E-1	1.003550E+0	9.998191E-1	1.024868E+0	9.789495E-1	9.949942E-1	9.822589E-1	1.062045E+0	1.012019E+0	9.799289E-1	1.001849E+0	1.030649E+0	1.002991E+0	1.036031E+0	1.047890E+0	1.036535E+0	9.959579E-1	9.931183E-1	9.943459E-1	1.076287E+0	1.035155E+0	9.820391E-1	9.750688E-1	9.734750E-1	1.003075E+0	9.797917E-1	9.953862E-1	1.053779E+0	9.742592E-1	9.982440E-1	9.951459E-1	1.035204E+0	1.003515E+0	9.770908E-1	1.027120E+0	1.029419E+0	9.706550E-1	9.368971E-1	9.892260E-1	1.038329E+0	1.014242E+0	1.025121E+0	9.930789E-1	1.020773E+0	9.785268E-1	1.004780E+0	1.014430E+0	9.879163E-1	1.034837E+0	1.035987E+0	9.580102E-1	1.008756E+0	1.043089E+0	1.048174E+0	1.018006E+0	9.822411E-1	1.032520E+0	1.008663E+0	9.877879E-1	1.008435E+0	1.005253E+0	1.046992E+0	9.545931E-1	9.732091E-1	1.023065E+0	1.033320E+0	9.742446E-1	9.863365E-1	9.886644E-1	1.012982E+0	1.002654E+0	9.950982E-1	9.679251E-1	9.933096E-1	1.043335E+0	1.011572E+0	1.011754E+0	1.013967E+0	1.000400E+0	1.029318E+0	1.013332E+0	1.012820E+0	1.014313E+0	9.633447E-1	9.954077E-1	1.044291E+0	1.022339E+0	1.002169E+0	1.021272E+0	9.676190E-1	1.018885E+0	1.015695E+0	1.000834E+0	1.012067E+0	9.888108E-1	1.042477E+0	9.902442E-1	1.008926E+0	9.713775E-1	1.050972E+0	1.005871E+0	1.044326E+0	9.806529E-1	1.019367E+0	9.982553E-1	1.039392E+0	9.936333E-1	9.858973E-1	1.017504E+0	1.042779E+0	1.030747E+0	9.779002E-1	1.052408E+0	1.003568E+0	9.887240E-1	1.011999E+0	1.032545E+0	1.000632E+0	9.515644E-1	1.032454E+0	1.012789E+0	9.899632E-1	1.030968E+0	1.010829E+0	1.051776E+0	1.030579E+0	1.008925E+0	9.892563E-1	1.024610E+0	1.029725E+0	1.028338E+0	1.000586E+0	1.032881E+0	9.597235E-1	1.022328E+0	9.913904E-1	9.342001E-1	9.849285E-1	1.042942E+0	1.017869E+0	9.504147E-1	9.982704E-1	1.038114E+0	9.749666E-1	1.009591E+0	1.002599E+0	1.080847E+0	1.019226E+0	1.040429E+0	9.860989E-1	1.020746E+0	9.987765E-1	9.790758E-1	1.042422E+0	9.824153E-1
5.560130E+2	1.001918E+0	9.814592E-1	1.013354E+0	9.356994E-1	9.702296E-1	9.886201E-1	9.385913E-1	1.005232E+0	9.531391E-1	9.709425E-1	9.702564E-1	9.370521E-1	1.040682E+0	9.756333E-1	1.006256E+0	9.555371E-1	9.769871E-1	1.004539E+0	1.022818E+0	1.044818E+0	1.022547E+0	9.578333E-1	9.758390E-1	9.648389E-1	9.916811E-1	9.515267E-1	1.047029E+0	9.903762E-1	9.507468E-1	9.904182E-1	1.085089E+0	1.026203E+0	1.022769E+0	9.949758E-1	1.010161E+0	9.756825E-1	9.855492E-1	1.019028E+0	9.676604E-1	9.841708E-1	9.624661E-1	9.800011E-1	9.776259E-1	1.005304E+0	9.536108E-1	9.789391E-1	1.001395E+0	1.021544E+0	9.770988E-1	1.007833E+0	9.513583E-1	9.978054E-1	9.979609E-1	1.009586E+0	9.691714E-1	9.762055E-1	1.000533E+0	9.726993E-1	9.357217E-1	1.004481E+0	1.007940E+0	9.271766E-1	9.613838E-1	1.000297E+0	9.304551E-1	9.916041E-1	9.756578E-1	1.002626E+0	9.466305E-1	9.878744E-1	9.934071E-1	9.668093E-1	9.274977E-1	9.329097E-1	9.732961E-1	9.724516E-1	1.005801E+0	1.002604E+0	9.726094E-1	9.301193E-1	9.495239E-1	1.003858E+0	9.907689E-1	9.409452E-1	9.836744E-1	1.000471E+0	9.667327E-1	1.006207E+0	1.042717E+0	9.909867E-1	9.560006E-1	1.000177E+0	9.838007E-1	9.787575E-1	1.034912E+0	1.001309E+0	9.987371E-1	9.946238E-1	1.014379E+0	9.948594E-1	9.942784E-1	1.007469E+0	8.950050E-1	1.015806E+0	9.536666E-1	9.907273E-1	9.658396E-1	9.499101E-1	9.598830E-1	1.019256E+0	1.014467E+0	9.853860E-1	9.876866E-1	9.380651E-1	9.616639E-1	1.023550E+0	1.003873E+0	1.012195E+0	9.897649E-1	9.971147E-1	9.820324E-1	9.894998E-1	9.966751E-1	1.021695E+0	1.012416E+0	9.886163E-1	1.011728E+0	9.961010E-1	1.013339E+0	9.947359E-1	9.375704E-1	9.778909E-1	9.635977E-1	9.631590E-1	9.698529E-1	9.917545E-1	9.803512E-1	9.707141E-1	9.669198E-1	9.671575E-1	1.003661E+0	9.766722E-1	9.463624E-1	1.015259E+0	9.479968E-1	9.275353E-1	9.543307E-1	9.767820E-1	1.062640E+0	9.811045E-1	9.881474E-1	9.445342E-1	1.026128E+0	9.734612E-1	9.627763E-1	1.011262E+0	9.655926E-1	9.625475E-1	9.571130E-1	9.928963E-1	9.627310E-1	9.905573E-1	9.849629E-1	9.927183E-1	9.758406E-1	1.063986E+0
5.565090E+2	9.275156E-1	9.820023E-1	9.357162E-1	9.338231E-1	9.798179E-1	9.712120E-1	9.671751E-1	9.610823E-1	9.574824E-1	9.336998E-1	9.753878E-1	9.451482E-1	9.761182E-1	9.298105E-1	9.661132E-1	9.371460E-1	9.554041E-1	9.095437E-1	9.416803E-1	9.625340E-1	9.602157E-1	9.364787E-1	9.625609E-1	9.631709E-1	9.548195E-1	9.842743E-1	9.760721E-1	9.539163E-1	9.104287E-1	9.519105E-1	9.038164E-1	9.584886E-1	9.535107E-1	9.300467E-1	9.539988E-1	9.474560E-1	8.985829E-1	9.669435E-1	9.596522E-1	9.765817E-1	9.444172E-1	9.387588E-1	9.766576E-1	9.598209E-1	9.857213E-1	9.944974E-1	9.975462E-1	9.294828E-1	9.306124E-1	9.617240E-1	9.660984E-1	9.747493E-1	9.745843E-1	9.442127E-1	9.539419E-1	9.749407E-1	9.629681E-1	9.179607E-1	9.865607E-1	9.787420E-1	9.314643E-1	9.235852E-1	9.814250E-1	9.579596E-1	9.165267E-1	9.513810E-1	1.003412E+0	9.259133E-1	1.000004E+0	9.226523E-1	8.983139E-1	9.400270E-1	9.861353E-1	9.064451E-1	9.207811E-1	9.289174E-1	9.449688E-1	9.529943E-1	9.608878E-1	9.499456E-1	9.385301E-1	9.590206E-1	9.897950E-1	9.855544E-1	9.275275E-1	9.521172E-1	9.449389E-1	9.852866E-1	9.586056E-1	9.866505E-1	9.786431E-1	9.466074E-1	9.687176E-1	9.411066E-1	9.652261E-1	9.438566E-1	9.304657E-1	9.317409E-1	9.811874E-1	9.694375E-1	9.214043E-1	8.948525E-1	9.331766E-1	9.322540E-1	9.651014E-1	9.482271E-1	9.386588E-1	9.470233E-1	9.321538E-1	9.906234E-1	9.799386E-1	9.544413E-1	9.687078E-1	9.300898E-1	9.747547E-1	9.144182E-1	9.843056E-1	9.535319E-1	9.201961E-1	9.234150E-1	9.486736E-1	9.443456E-1	9.258046E-1	9.528984E-1	9.902863E-1	9.355265E-1	9.493025E-1	9.937605E-1	9.805380E-1	9.410074E-1	9.559538E-1	9.602436E-1	9.725574E-1	9.687174E-1	9.631309E-1	9.394962E-1	9.388691E-1	8.991615E-1	9.807567E-1	9.197017E-1	9.242843E-1	9.408073E-1	9.643379E-1	9.905569E-1	9.619249E-1	9.459325E-1	9.536113E-1	9.611591E-1	9.671936E-1	9.455437E-1	9.857549E-1	9.479679E-1	9.926466E-1	9.511011E-1	9.310225E-1	9.907865E-1	9.768514E-1	9.970578E-1	9.960744E-1	9.447126E-1	9.522755E-1	9.624853E-1	9.430003E-1	9.442531E-1	9.870343E-1	9.243237E-1
5.570220E+2	9.700996E-1	9.762714E-1	9.878362E-1	9.760968E-1	9.427235E-1	9.183058E-1	9.056615E-1	9.413246E-1	1.022177E+0	9.630392E-1	8.950539E-1	9.778632E-1	9.414189E-1	9.757811E-1	9.462880E-1	1.002602E+0	9.723068E-1	9.440568E-1	9.751998E-1	9.470571E-1	9.593226E-1	9.094400E-1	9.396899E-1	9.290320E-1	9.592959E-1	9.686760E-1	9.841285E-1	9.888020E-1	9.695133E-1	9.745702E-1	9.967791E-1	9.303009E-1	9.642702E-1	9.477048E-1	9.453059E-1	9.276093E-1	9.873918E-1	9.719185E-1	9.495408E-1	9.701359E-1	9.456479E-1	9.970508E-1	1.014340E+0	9.751613E-1	9.292855E-1	9.506609E-1	9.524045E-1	9.427291E-1	9.819069E-1	9.300947E-1	9.589611E-1	9.375845E-1	9.469474E-1	9.973304E-1	9.642643E-1	9.252890E-1	9.638995E-1	9.395801E-1	9.695475E-1	9.463052E-1	9.282161E-1	9.623943E-1	9.246179E-1	9.571866E-1	1.037180E+0	1.002366E+0	9.595017E-1	9.454741E-1	9.244209E-1	9.754424E-1	9.759545E-1	9.647584E-1	9.914303E-1	9.803664E-1	9.858865E-1	9.546784E-1	9.370725E-1	9.706181E-1	9.633518E-1	9.483599E-1	9.539577E-1	9.581325E-1	9.427051E-1	9.529034E-1	9.876868E-1	9.868132E-1	1.028308E+0	9.156180E-1	9.781048E-1	9.497723E-1	9.333709E-1	9.677428E-1	9.171460E-1	9.492097E-1	1.020603E+0	9.663265E-1	9.468863E-1	9.811313E-1	1.000525E+0	9.551747E-1	9.636389E-1	9.160827E-1	9.405078E-1	9.296571E-1	1.016532E+0	9.530374E-1	9.434393E-1	9.455279E-1	9.790856E-1	9.501939E-1	9.533779E-1	9.456882E-1	1.038857E+0	1.017644E+0	9.673883E-1	9.579637E-1	9.420714E-1	9.603749E-1	9.566117E-1	9.432485E-1	9.688233E-1	9.505379E-1	9.251400E-1	9.522071E-1	9.694238E-1	9.900939E-1	1.011595E+0	9.750048E-1	1.025442E+0	1.006565E+0	9.514215E-1	9.624268E-1	9.687095E-1	9.913819E-1	9.657655E-1	9.792992E-1	9.284733E-1	9.919793E-1	9.359960E-1	9.591757E-1	9.647362E-1	9.823851E-1	9.945684E-1	9.330115E-1	1.008737E+0	9.850724E-1	9.455495E-1	9.818216E-1	9.657962E-1	9.342291E-1	9.529407E-1	9.387953E-1	9.279571E-1	9.937081E-1	9.975014E-1	9.407300E-1	9.530932E-1	9.375773E-1	9.709800E-1	9.258176E-1	9.551815E-1	9.685434E-1	1.004349E+0	9.892363E-1	9.769709E-1	9.476244E-1
5.575130E+2	9.367855E-1	9.128841E-1	9.465003E-1	9.053711E-1	9.595629E-1	9.646364E-1	9.697802E-1	9.418587E-1	9.073945E-1	9.639826E-1	9.883635E-1	9.000997E-1	9.724834E-1	9.422516E-1	9.741525E-1	9.462982E-1	9.631387E-1	9.447664E-1	9.789720E-1	1.006474E+0	9.467458E-1	9.482741E-1	9.602534E-1	9.325090E-1	9.325205E-1	9.490215E-1	9.385115E-1	9.602778E-1	8.968828E-1	9.707029E-1	8.994252E-1	9.374095E-1	9.651829E-1	9.299018E-1	9.166588E-1	9.354625E-1	9.404789E-1	9.573511E-1	9.661115E-1	9.231673E-1	9.450622E-1	9.332868E-1	9.504938E-1	9.360655E-1	9.791077E-1	9.361124E-1	9.409059E-1	9.681878E-1	9.989541E-1	9.584449E-1	9.656820E-1	9.271963E-1	9.905670E-1	9.283527E-1	9.587753E-1	9.471907E-1	9.663263E-1	9.281003E-1	9.613506E-1	9.315748E-1	9.247916E-1	9.542755E-1	9.435366E-1	9.368670E-1	9.705425E-1	9.263499E-1	9.595909E-1	9.825728E-1	9.213616E-1	9.349052E-1	9.750943E-1	9.614387E-1	8.886976E-1	9.841911E-1	9.284300E-1	9.716503E-1	9.794061E-1	9.802475E-1	9.928840E-1	8.948090E-1	9.990420E-1	9.724079E-1	9.675591E-1	9.870623E-1	1.000912E+0	9.112117E-1	9.307110E-1	9.530488E-1	1.013980E+0	9.517791E-1	9.457827E-1	9.585859E-1	9.078630E-1	9.213840E-1	9.247891E-1	9.583285E-1	9.630789E-1	9.568164E-1	9.408648E-1	8.982076E-1	9.962756E-1	9.913707E-1	9.279254E-1	1.013050E+0	1.009729E+0	9.637315E-1	9.433706E-1	9.472490E-1	9.517684E-1	9.498371E-1	9.381463E-1	9.496359E-1	9.098244E-1	9.303406E-1	9.091215E-1	8.965405E-1	9.365867E-1	9.220193E-1	9.391845E-1	1.002530E+0	9.127660E-1	9.877475E-1	9.725296E-1	9.411809E-1	9.558505E-1	9.576181E-1	9.510983E-1	9.198111E-1	9.471611E-1	9.842655E-1	9.724763E-1	9.173529E-1	9.841138E-1	9.665417E-1	9.448172E-1	9.660650E-1	9.506604E-1	9.597965E-1	9.549835E-1	9.848318E-1	9.641479E-1	9.534245E-1	9.255472E-1	9.139317E-1	9.397949E-1	9.421637E-1	9.743565E-1	9.110006E-1	9.633517E-1	9.246164E-1	9.893763E-1	9.859663E-1	9.979908E-1	9.266709E-1	9.281992E-1	9.448970E-1	9.677246E-1	9.984087E-1	9.671449E-1	9.387522E-1	9.490150E-1	9.912179E-1	9.472595E-1	9.988688E-1	9.081515E-1	9.147524E-1
5.580170E+2	1.058360E+0	9.919648E-1	1.070721E+0	9.636768E-1	1.052124E+0	9.949953E-1	1.007257E+0	1.026862E+0	1.023986E+0	1.027009E+0	1.010061E+0	1.019053E+0	9.895242E-1	1.034419E+0	1.039854E+0	1.001747E+0	1.021053E+0	1.048085E+0	1.066551E+0	1.002947E+0	1.023146E+0	1.008837E+0	1.034310E+0	9.954956E-1	9.924016E-1	1.035829E+0	1.029915E+0	1.004369E+0	1.034510E+0	1.089605E+0	1.068660E+0	1.011668E+0	1.054242E+0	1.033907E+0	1.027045E+0	9.873899E-1	1.008717E+0	1.009574E+0	1.037805E+0	1.054809E+0	9.656989E-1	1.008003E+0	1.007659E+0	1.016173E+0	9.843844E-1	1.009638E+0	1.018894E+0	1.011283E+0	1.009217E+0	1.006630E+0	1.004850E+0	9.888909E-1	1.003783E+0	9.888234E-1	9.904914E-1	1.021886E+0	1.046655E+0	1.005357E+0	1.000362E+0	9.876404E-1	1.024194E+0	1.043753E+0	1.069834E+0	1.019801E+0	1.002679E+0	1.023822E+0	9.612430E-1	1.070812E+0	1.034489E+0	1.002914E+0	1.003387E+0	1.035569E+0	1.038985E+0	1.004231E+0	9.888486E-1	1.026097E+0	1.046983E+0	9.690455E-1	1.030200E+0	9.826889E-1	9.874133E-1	9.985934E-1	1.021684E+0	9.976328E-1	9.900203E-1	1.017795E+0	1.048861E+0	1.031300E+0	1.007967E+0	1.045970E+0	9.811100E-1	1.022984E+0	1.012907E+0	1.012952E+0	9.865681E-1	1.009755E+0	1.002137E+0	1.012587E+0	1.018104E+0	1.027085E+0	1.003013E+0	1.036922E+0	1.060653E+0	1.030302E+0	9.864508E-1	1.001063E+0	1.055920E+0	1.038847E+0	1.021633E+0	9.496586E-1	1.041025E+0	1.033234E+0	9.697341E-1	1.017564E+0	1.026096E+0	1.020435E+0	9.986497E-1	1.022858E+0	1.029834E+0	9.786512E-1	9.752163E-1	9.930422E-1	1.027529E+0	1.042896E+0	9.949493E-1	9.925729E-1	1.022555E+0	1.014750E+0	9.912843E-1	1.021249E+0	9.821213E-1	9.837427E-1	1.031261E+0	1.037742E+0	1.001146E+0	9.933268E-1	1.021049E+0	1.019358E+0	9.860279E-1	1.014606E+0	1.029556E+0	9.830401E-1	1.030344E+0	1.006645E+0	1.020826E+0	1.039121E+0	1.012659E+0	1.033219E+0	1.026347E+0	1.002207E+0	9.973461E-1	1.001729E+0	1.016003E+0	1.002557E+0	1.038527E+0	1.004793E+0	9.579982E-1	9.592409E-1	1.007495E+0	1.038514E+0	1.027990E+0	1.034280E+0	1.019474E+0	1.013930E+0	1.032393E+0	1.047977E+0
5.585220E+2	9.698437E-1	9.615260E-1	1.003928E+0	1.016221E+0	9.735793E-1	1.004195E+0	9.859436E-1	1.011798E+0	9.902625E-1	9.829192E-1	1.016880E+0	9.729784E-1	1.020075E+0	9.883647E-1	9.786906E-1	1.013016E+0	9.777605E-1	1.024814E+0	1.038118E+0	1.002091E+0	9.985026E-1	1.022301E+0	1.022943E+0	1.051610E+0	1.007744E+0	9.833732E-1	1.033343E+0	9.890985E-1	9.821299E-1	1.010465E+0	9.789716E-1	9.966436E-1	9.762232E-1	1.007955E+0	1.012190E+0	9.826723E-1	1.016313E+0	9.937162E-1	9.834105E-1	1.028206E+0	1.016561E+0	9.768506E-1	9.482586E-1	9.874462E-1	9.949364E-1	9.983451E-1	9.781583E-1	1.013035E+0	9.859527E-1	1.015146E+0	9.718385E-1	9.863099E-1	9.772773E-1	1.010894E+0	1.009333E+0	1.058218E+0	9.948660E-1	1.073484E+0	9.911159E-1	9.629721E-1	1.051660E+0	1.008429E+0	9.742989E-1	1.000881E+0	9.835416E-1	1.021584E+0	1.003842E+0	9.707062E-1	1.005275E+0	1.013062E+0	1.023518E+0	1.038244E+0	1.002479E+0	9.535932E-1	9.928648E-1	9.739796E-1	1.002342E+0	9.627217E-1	9.926536E-1	1.003222E+0	9.427380E-1	9.884844E-1	1.003433E+0	9.974823E-1	9.921444E-1	9.612512E-1	9.859594E-1	9.829019E-1	9.804744E-1	1.050466E+0	1.028770E+0	1.010954E+0	1.037654E+0	1.039148E+0	1.000558E+0	9.805234E-1	1.031001E+0	1.002024E+0	9.430153E-1	9.779854E-1	1.041058E+0	9.925562E-1	9.715401E-1	9.969645E-1	1.015441E+0	1.047826E+0	1.061290E+0	1.050097E+0	1.030653E+0	9.699796E-1	9.788579E-1	1.043255E+0	1.004177E+0	9.800758E-1	1.048022E+0	1.041158E+0	1.022449E+0	1.039917E+0	9.873301E-1	1.023439E+0	1.018774E+0	1.028370E+0	9.592162E-1	1.002163E+0	1.016203E+0	9.981457E-1	9.933725E-1	1.016769E+0	1.011491E+0	9.871113E-1	9.815922E-1	1.021187E+0	9.775659E-1	9.436629E-1	1.020258E+0	9.993028E-1	1.040521E+0	9.841266E-1	1.012580E+0	9.766231E-1	1.000883E+0	1.018097E+0	1.014527E+0	9.842924E-1	1.024030E+0	9.905049E-1	9.997271E-1	1.043122E+0	1.001427E+0	1.031181E+0	9.707278E-1	1.013078E+0	9.723116E-1	1.006939E+0	1.019100E+0	1.044423E+0	1.033124E+0	9.884293E-1	9.912529E-1	1.013084E+0	9.951643E-1	1.033926E+0	1.002118E+0	9.789475E-1	9.448630E-1	9.480907E-1
5.590210E+2	1.058425E+0	1.049556E+0	1.012189E+0	1.052354E+0	1.050605E+0	1.039528E+0	1.052341E+0	1.024841E+0	1.047433E+0	1.063965E+0	1.074897E+0	1.047921E+0	1.080964E+0	1.068445E+0	1.029303E+0	1.054575E+0	1.051895E+0	1.027815E+0	1.039966E+0	1.018687E+0	1.075158E+0	1.062181E+0	1.040557E+0	1.062535E+0	1.047180E+0	1.045209E+0	9.953017E-1	1.066272E+0	1.059864E+0	1.051355E+0	1.066517E+0	1.037538E+0	1.041145E+0	1.054310E+0	1.067332E+0	1.049237E+0	1.049266E+0	9.996406E-1	1.048987E+0	1.016816E+0	1.111205E+0	1.090050E+0	1.061094E+0	1.063849E+0	1.037907E+0	1.036936E+0	1.042846E+0	1.025643E+0	1.038942E+0	1.048793E+0	1.008486E+0	1.052077E+0	1.072395E+0	1.051053E+0	1.068540E+0	1.031469E+0	1.059846E+0	1.050644E+0	1.025396E+0	1.057877E+0	1.066806E+0	1.034245E+0	1.037484E+0	1.072824E+0	1.032969E+0	1.011294E+0	1.081869E+0	1.064397E+0	1.035528E+0	1.032234E+0	1.078848E+0	1.051416E+0	1.021727E+0	1.040446E+0	1.027991E+0	1.019936E+0	1.086192E+0	1.054297E+0	9.953250E-1	1.057246E+0	1.059326E+0	1.013892E+0	1.007321E+0	1.046640E+0	1.044601E+0	1.069004E+0	1.004923E+0	1.015673E+0	1.022427E+0	1.010952E+0	1.068961E+0	1.027595E+0	1.047284E+0	1.073812E+0	1.033489E+0	1.064347E+0	1.043123E+0	1.031873E+0	1.032366E+0	1.086180E+0	1.056469E+0	1.050944E+0	1.077451E+0	1.016897E+0	1.012424E+0	1.011588E+0	1.063526E+0	9.946805E-1	1.073848E+0	1.018221E+0	1.037656E+0	1.035801E+0	9.981914E-1	1.064604E+0	1.060462E+0	1.104298E+0	1.078458E+0	1.042009E+0	1.042417E+0	1.046097E+0	1.034881E+0	1.077550E+0	1.074662E+0	1.086580E+0	1.070522E+0	1.083461E+0	1.005445E+0	9.998970E-1	1.052464E+0	1.031141E+0	1.090597E+0	1.014514E+0	1.046706E+0	1.078963E+0	1.053401E+0	1.076029E+0	9.848749E-1	1.103143E+0	1.063420E+0	1.052586E+0	1.069791E+0	1.057549E+0	1.062178E+0	1.087251E+0	1.070391E+0	1.058873E+0	1.051365E+0	1.086132E+0	1.054133E+0	1.074264E+0	1.060697E+0	1.051506E+0	1.032948E+0	9.906497E-1	1.039812E+0	1.041158E+0	1.036745E+0	1.050130E+0	1.043479E+0	1.067561E+0	1.034206E+0	1.063959E+0	1.003448E+0	1.040861E+0	9.987578E-1	1.109258E+0
5.595110E+2	1.052225E+0	1.072585E+0	1.026990E+0	1.041225E+0	1.080438E+0	1.015589E+0	1.030925E+0	1.073183E+0	1.024980E+0	1.055886E+0	1.046786E+0	1.038308E+0	9.788785E-1	1.040416E+0	9.856100E-1	9.930227E-1	9.922948E-1	1.087545E+0	9.939359E-1	1.074565E+0	1.041407E+0	9.941585E-1	1.014272E+0	1.068570E+0	1.032311E+0	1.010924E+0	1.008362E+0	1.027884E+0	1.057341E+0	9.972324E-1	1.022065E+0	1.062402E+0	1.035427E+0	1.041256E+0	1.065013E+0	1.087525E+0	1.037000E+0	1.056599E+0	1.057167E+0	1.012106E+0	1.020011E+0	1.048338E+0	1.012131E+0	9.932381E-1	1.045853E+0	1.038907E+0	1.022442E+0	9.826174E-1	1.044175E+0	9.968991E-1	1.064520E+0	1.019358E+0	1.018878E+0	1.040367E+0	1.031953E+0	9.747951E-1	1.035367E+0	1.003859E+0	1.000342E+0	9.990280E-1	1.041448E+0	1.053077E+0	1.056746E+0	9.886716E-1	1.043412E+0	1.015772E+0	9.958822E-1	1.062835E+0	1.028849E+0	1.026494E+0	1.008071E+0	1.014704E+0	1.021147E+0	1.045232E+0	1.041659E+0	1.049965E+0	1.017541E+0	1.039997E+0	1.062679E+0	1.052203E+0	1.017619E+0	1.027031E+0	1.077229E+0	9.795975E-1	1.053970E+0	1.042094E+0	1.027692E+0	1.054501E+0	1.066901E+0	1.009540E+0	1.007548E+0	1.017133E+0	1.064422E+0	1.030035E+0	1.066986E+0	1.034978E+0	1.047772E+0	1.041808E+0	1.008385E+0	1.008371E+0	1.002047E+0	1.030977E+0	1.020755E+0	1.041063E+0	9.815666E-1	9.763017E-1	1.057604E+0	1.013550E+0	1.034987E+0	1.042806E+0	1.039832E+0	1.045880E+0	1.065257E+0	1.021540E+0	1.082367E+0	1.062510E+0	9.995850E-1	9.978408E-1	1.016997E+0	9.641262E-1	1.078015E+0	9.703849E-1	1.021173E+0	1.017176E+0	1.023562E+0	1.003016E+0	1.045248E+0	1.059567E+0	9.865803E-1	1.007993E+0	1.034032E+0	1.068034E+0	1.027647E+0	1.064694E+0	1.024773E+0	1.047052E+0	1.051882E+0	1.035644E+0	1.012117E+0	1.036617E+0	1.008666E+0	1.050781E+0	1.029920E+0	1.042335E+0	1.004689E+0	1.013572E+0	1.023400E+0	9.638202E-1	1.031468E+0	1.035323E+0	1.018662E+0	1.077141E+0	1.046009E+0	1.098034E+0	1.046685E+0	1.011440E+0	1.032526E+0	1.037292E+0	1.043495E+0	1.043901E+0	9.856071E-1	1.014856E+0	1.065680E+0	1.017422E+0	1.099066E+0	1.094450E+0
5.600520E+2	1.008531E+0	1.018549E+0	9.962779E-1	1.004636E+0	9.715778E-1	1.030958E+0	1.010229E+0	9.471914E-1	9.763604E-1	9.693892E-1	9.374860E-1	9.952059E-1	1.038262E+0	9.738929E-1	1.036990E+0	9.670898E-1	1.018453E+0	9.876755E-1	9.635363E-1	1.002164E+0	9.838571E-1	9.967776E-1	9.828452E-1	9.552545E-1	9.627269E-1	9.991206E-1	1.011836E+0	1.002092E+0	1.019532E+0	1.004456E+0	1.001088E+0	9.803927E-1	9.956664E-1	9.481176E-1	9.831484E-1	1.017350E+0	9.885529E-1	9.945516E-1	9.746579E-1	9.967691E-1	9.823380E-1	1.000790E+0	1.000362E+0	1.014570E+0	1.008004E+0	1.003764E+0	9.673886E-1	1.064956E+0	9.839249E-1	1.054786E+0	1.001184E+0	1.022472E+0	1.008002E+0	9.996030E-1	9.867163E-1	1.016248E+0	1.004725E+0	1.009125E+0	9.943587E-1	9.963958E-1	9.995557E-1	1.008836E+0	9.833577E-1	9.895511E-1	1.018882E+0	9.829165E-1	9.624761E-1	9.633027E-1	1.009135E+0	1.003937E+0	1.013376E+0	9.904244E-1	1.041620E+0	9.868538E-1	1.055377E+0	9.975885E-1	9.548038E-1	9.985095E-1	9.457703E-1	9.819502E-1	1.063441E+0	9.994875E-1	9.700486E-1	1.001349E+0	1.002359E+0	1.006735E+0	9.947597E-1	1.031203E+0	9.711208E-1	9.962315E-1	1.008065E+0	1.012677E+0	9.894969E-1	9.879049E-1	9.500400E-1	9.798461E-1	1.007032E+0	9.917818E-1	1.013962E+0	1.010998E+0	9.940084E-1	1.006891E+0	1.040947E+0	9.954047E-1	9.458925E-1	1.029429E+0	9.408026E-1	1.019245E+0	9.844748E-1	1.027182E+0	1.012288E+0	9.152358E-1	9.925970E-1	9.802559E-1	9.792400E-1	9.689949E-1	1.014957E+0	9.688461E-1	1.011100E+0	1.024367E+0	9.848468E-1	9.807573E-1	1.010436E+0	9.912383E-1	9.469447E-1	9.967154E-1	9.523289E-1	9.794012E-1	9.922679E-1	1.024594E+0	9.994279E-1	1.012663E+0	9.657613E-1	9.417365E-1	9.956341E-1	9.808708E-1	9.485033E-1	9.680129E-1	1.024810E+0	9.962098E-1	9.673047E-1	9.841458E-1	9.488388E-1	9.768910E-1	9.433941E-1	9.737107E-1	1.001708E+0	9.640332E-1	9.664919E-1	9.425251E-1	9.886810E-1	9.458295E-1	9.423502E-1	9.740757E-1	9.896621E-1	9.965076E-1	9.513152E-1	9.852370E-1	9.765533E-1	9.440525E-1	9.784997E-1	9.709210E-1	9.874377E-1	1.022946E+0	9.804960E-1	9.500628E-1
5.605090E+2	1.021488E+0	1.004614E+0	1.021150E+0	1.053373E+0	1.016616E+0	1.031463E+0	1.061961E+0	1.023237E+0	1.053644E+0	1.027269E+0	1.045160E+0	1.054926E+0	9.883651E-1	1.031779E+0	1.059487E+0	1.071883E+0	1.056191E+0	1.001886E+0	9.987985E-1	9.926835E-1	1.024561E+0	1.096988E+0	1.007352E+0	1.040439E+0	1.050182E+0	1.047024E+0	1.009055E+0	1.013543E+0	1.058533E+0	1.008433E+0	1.045100E+0	1.034674E+0	1.004938E+0	1.053970E+0	1.002343E+0	1.030144E+0	1.052822E+0	1.029472E+0	1.021492E+0	1.037431E+0	1.051171E+0	1.014156E+0	1.042794E+0	1.056692E+0	1.024821E+0	1.019349E+0	1.030967E+0	1.032176E+0	1.018662E+0	1.018404E+0	1.045966E+0	1.032746E+0	9.894970E-1	1.053977E+0	1.053219E+0	1.039159E+0	9.900806E-1	1.098354E+0	1.063718E+0	1.066829E+0	1.001396E+0	1.021972E+0	9.568084E-1	1.030653E+0	1.029380E+0	1.038892E+0	9.990789E-1	1.015213E+0	1.025343E+0	1.061092E+0	1.035890E+0	1.022851E+0	9.581968E-1	1.031700E+0	9.740932E-1	1.039482E+0	1.005574E+0	1.036877E+0	1.035586E+0	1.074590E+0	1.021303E+0	1.067952E+0	1.001281E+0	1.056295E+0	9.945760E-1	1.033770E+0	1.040260E+0	1.010429E+0	1.001635E+0	9.960608E-1	1.032729E+0	9.779585E-1	1.033656E+0	1.052417E+0	1.041718E+0	1.036637E+0	9.986866E-1	1.023580E+0	1.049680E+0	1.027640E+0	1.026455E+0	1.074005E+0	1.024795E+0	1.012973E+0	1.014877E+0	1.033256E+0	1.002348E+0	1.021515E+0	9.945676E-1	1.042375E+0	9.796487E-1	1.045359E+0	1.024400E+0	1.037159E+0	9.802102E-1	9.999327E-1	1.004321E+0	1.065902E+0	1.054504E+0	1.071539E+0	1.003283E+0	1.041447E+0	1.058579E+0	1.011093E+0	1.008419E+0	1.025659E+0	1.006897E+0	1.039589E+0	1.009833E+0	1.005576E+0	1.025079E+0	1.072998E+0	9.791210E-1	9.949456E-1	1.025978E+0	1.003043E+0	1.129332E+0	1.011943E+0	1.024806E+0	1.067749E+0	1.038943E+0	1.024979E+0	1.023886E+0	1.053160E+0	1.038706E+0	1.004684E+0	1.013662E+0	1.050596E+0	1.002668E+0	1.075790E+0	1.020892E+0	9.937615E-1	1.033388E+0	1.024490E+0	1.005807E+0	9.985584E-1	1.054027E+0	1.041220E+0	1.008020E+0	1.028144E+0	1.008596E+0	9.901392E-1	1.047020E+0	9.936986E-1	1.084767E+0	1.099720E+0
5.610180E+2	9.967268E-1	1.030047E+0	9.986898E-1	1.053223E+0	9.729554E-1	1.029117E+0	1.008727E+0	1.048622E+0	9.962799E-1	1.012841E+0	1.009925E+0	1.048496E+0	1.013911E+0	1.014841E+0	9.835125E-1	1.012621E+0	9.915035E-1	1.023812E+0	1.003242E+0	9.907976E-1	9.870834E-1	1.024564E+0	1.035217E+0	1.001384E+0	1.060818E+0	9.765489E-1	1.013476E+0	9.937467E-1	1.011265E+0	9.412706E-1	1.017578E+0	1.050483E+0	1.009395E+0	1.052830E+0	1.026966E+0	1.035153E+0	1.020876E+0	1.020234E+0	1.001176E+0	9.839780E-1	1.017888E+0	9.927167E-1	9.862102E-1	9.969836E-1	1.009979E+0	1.011790E+0	1.048447E+0	1.029890E+0	1.007653E+0	1.009077E+0	1.012414E+0	1.058616E+0	1.018070E+0	9.853864E-1	9.827655E-1	1.010804E+0	9.752669E-1	9.735356E-1	1.007249E+0	1.072636E+0	1.030469E+0	9.894341E-1	1.071891E+0	1.045606E+0	9.648872E-1	1.025622E+0	1.073104E+0	9.987747E-1	1.015595E+0	1.027267E+0	9.875478E-1	9.805678E-1	1.049583E+0	1.066941E+0	1.084068E+0	1.037706E+0	1.025117E+0	1.034692E+0	1.020661E+0	1.054986E+0	1.016630E+0	1.014998E+0	1.018944E+0	9.954839E-1	1.006203E+0	1.019208E+0	9.935886E-1	1.020038E+0	9.987843E-1	1.002577E+0	1.015020E+0	1.057762E+0	1.020854E+0	9.920300E-1	1.010022E+0	1.025403E+0	1.029817E+0	1.026657E+0	1.011909E+0	1.038921E+0	9.956304E-1	1.005398E+0	1.002250E+0	1.031436E+0	1.051985E+0	1.035540E+0	9.930401E-1	1.022264E+0	9.968291E-1	1.059123E+0	1.039229E+0	1.031471E+0	1.028254E+0	1.020727E+0	9.723391E-1	1.033749E+0	1.018616E+0	1.026701E+0	1.041826E+0	1.022586E+0	1.074722E+0	1.025817E+0	1.024931E+0	1.002568E+0	1.023839E+0	1.017191E+0	1.062158E+0	1.001450E+0	1.002938E+0	9.904974E-1	1.007298E+0	9.868393E-1	1.046557E+0	1.011615E+0	1.005096E+0	1.015515E+0	1.005835E+0	1.026835E+0	1.004502E+0	9.918990E-1	1.031688E+0	1.004791E+0	1.005852E+0	1.011924E+0	9.875083E-1	1.046366E+0	1.023961E+0	1.005097E+0	1.021122E+0	1.034322E+0	1.014922E+0	1.044225E+0	1.038395E+0	1.031775E+0	1.003683E+0	1.026706E+0	1.036596E+0	1.005406E+0	9.955048E-1	1.055461E+0	1.113465E+0	9.696727E-1	9.802129E-1	9.998373E-1	9.875005E-1	9.637399E-1
