Photon Energy (eV)	#1	#2	#3	#4	#5	#6	#7	#8	#9	#10	#11	#12	#13	#14	#15	#16	#17	#18	#19	#20	#21	#22	#23	#24	#25	#26	#27	#28	#29	#30	#31	#32	#33	#34	#35	#36	#37	#38	#39	#40	#41	#42	#43	#44	#45	#46	#47	#48	#49	#50	#51	#52	#53	#54	#55	#56	#57	#58	#59	#60	#61	#62	#63	#64	#65	#66	#67	#68	#69	#70	#71	#72	#73	#74	#75	#76	#77	#78	#79	#80	#81	#82	#83	#84	#85	#86	#87	#88	#89	#90	#91	#92	#93	#94	#95	#96	#97	#98	#99	#100	#101	#102	#103	#104	#105	#106	#107	#108	#109	#110	#111	#112	#113	#114	#115	#116	#117	#118	#119	#120	#121	#122	#123	#124	#125	#126	#127	#128	#129	#130	#131	#132	#133	#134	#135	#136	#137	#138	#139	#140	#141	#142	#143	#144	#145	#146	#147	#148	#149	#150	#151	#152	#153	#154	#155	#156	#157	#158	#159	#160	#161	#162	#163	#164	#165	#166	#167	#168	#169	#170	#171	
5.300160E+2	-2.512062E-3	-6.445723E-3	-5.755854E-3	-1.011298E-3	-2.423254E-3	-1.706012E-2	-2.966048E-3	-8.801105E-3	1.464732E-3	-5.750343E-3	-7.004431E-3	-1.163814E-2	-6.907986E-3	-4.609716E-3	-6.478136E-3	-3.808029E-3	-3.993938E-3	-4.007501E-3	-3.361643E-3	5.357634E-3	-2.748283E-3	-2.032744E-3	-2.419532E-3	-4.116765E-3	-3.539191E-3	-1.522710E-3	1.939285E-3	-5.304008E-3	-2.960810E-3	-7.602515E-3	-8.123098E-3	-1.032893E-2	1.501888E-3	-2.294214E-3	-8.632279E-3	-5.505132E-3	-4.148005E-3	8.258826E-4	-7.079359E-3	-5.121930E-3	-8.553492E-3	-9.120506E-3	-1.247231E-2	-7.355526E-3	3.114941E-3	-1.028225E-2	-1.261713E-3	-1.080177E-2	-7.391563E-4	-2.889851E-3	9.670302E-3	-3.599336E-4	-7.004274E-3	-1.290315E-2	-2.214497E-3	-3.448305E-3	-2.902256E-3	4.102776E-3	-2.284785E-3	-9.339054E-4	-8.030504E-3	-2.657087E-3	-1.164768E-2	2.834305E-4	1.892814E-4	-6.647831E-3	-2.726083E-3	-5.322099E-3	-1.461161E-2	-9.892953E-3	-4.107734E-3	-5.917315E-3	-4.962389E-3	-1.064818E-3	-6.187137E-3	-5.594863E-3	-1.126490E-2	-6.087184E-4	-7.396717E-3	-4.884351E-3	-8.971662E-3	-8.093761E-3	-1.064392E-2	-3.255944E-3	-1.973314E-3	-6.787435E-3	-7.422101E-3	-8.439752E-4	-1.981717E-3	-7.829972E-3	-7.664897E-4	-1.168376E-2	-2.096078E-2	-4.700978E-3	-6.808280E-3	-5.782728E-3	-1.246200E-2	-2.245798E-3	-5.688051E-3	-8.980168E-3	-5.760981E-3	-9.157222E-3	3.978964E-4	-7.954233E-3	-3.686934E-3	7.527076E-3	-2.280648E-3	6.771253E-4	-1.072119E-3	-4.133606E-3	-5.314638E-4	-8.604049E-3	-8.141293E-3	-7.720338E-3	-4.280892E-3	-2.837157E-3	-4.102262E-3	-5.087940E-3	-1.557168E-2	-2.007133E-3	-5.274778E-3	-3.399276E-3	1.101070E-3	-3.160361E-3	-7.904627E-3	-1.007054E-2	-7.147733E-3	-9.576195E-3	-1.173025E-2	-3.618617E-3	-1.583732E-2	-3.559683E-3	-1.347850E-3	-4.793726E-4	-7.227711E-3	1.121621E-3	-6.689629E-3	-1.115439E-2	-6.060884E-3	-5.290305E-3	2.867163E-3	3.717853E-5	-1.223376E-2	-3.147975E-3	-3.482841E-3	-5.688759E-4	-6.536714E-3	3.353973E-3	-8.550418E-3	3.111178E-4	-1.029052E-2	4.098094E-3	-4.731360E-3	-6.107417E-3	-1.859886E-3	-4.699831E-3	-8.995810E-3	-1.149484E-2	-6.540377E-3	-1.026356E-2	-7.661295E-3	-5.988427E-3	-7.657174E-3	1.092981E-3	-4.246927E-3	-1.098059E-2	-4.601626E-3	-1.001509E-2	-1.614175E-2	-9.130328E-3	-4.915711E-3
5.305230E+2	-4.483397E-3	-2.355537E-3	2.224808E-3	-6.546333E-3	-7.054392E-3	-1.398026E-2	-1.563946E-3	-6.751871E-3	-1.029535E-2	-8.670500E-3	-7.918263E-4	1.921863E-3	-1.230327E-2	-9.586439E-3	-1.212028E-3	-5.936603E-3	-5.670131E-3	-5.291145E-3	-2.417485E-3	-7.141958E-3	-1.554363E-3	-7.286069E-3	-2.250886E-4	-4.856315E-3	1.490207E-4	-2.734879E-3	-3.673193E-3	-1.964774E-4	-8.469076E-3	-1.023055E-2	-1.458718E-2	-2.799411E-3	-3.657905E-3	-1.220011E-2	-2.793737E-3	-9.349245E-3	-6.422825E-3	-3.519563E-3	-1.336675E-3	7.791051E-4	-1.337858E-2	2.283730E-3	-8.489605E-3	-5.866726E-3	-6.329741E-3	-4.020361E-3	-2.650315E-3	-6.139015E-3	-2.842185E-3	3.185952E-3	-1.035611E-2	-3.141401E-3	-1.282191E-2	-7.694367E-3	-3.422382E-3	-4.583509E-3	-1.031146E-4	-7.999570E-3	-2.099733E-4	-2.801674E-3	-5.634288E-3	-2.500288E-3	2.021022E-3	1.111872E-2	-7.147980E-3	-7.383201E-3	-8.191293E-3	-4.892545E-3	4.887496E-4	1.066702E-3	3.119655E-3	-9.608033E-3	-1.249740E-3	-9.145059E-3	-8.010408E-3	1.118969E-3	-8.287337E-3	-5.200336E-3	-7.659049E-3	6.547582E-4	-1.032889E-2	-5.605902E-3	-3.050090E-3	2.166853E-3	-2.238470E-3	-1.148200E-2	-6.191914E-3	-1.153096E-2	-4.189928E-3	-1.560026E-3	-2.099267E-3	-8.230595E-3	-2.809437E-3	-5.516773E-3	8.535269E-3	-1.413541E-3	-1.808723E-3	-1.310817E-3	-5.977654E-4	6.037090E-4	3.970357E-4	5.332262E-3	-1.573382E-2	-6.590698E-3	-2.293209E-3	-6.253273E-3	-2.476096E-3	-1.409976E-2	-2.447410E-3	-1.118157E-2	-7.053452E-3	-3.790332E-3	-5.128058E-3	-8.527804E-3	-8.116123E-3	-5.865592E-3	1.638059E-3	-4.240227E-3	-9.096331E-3	-4.132314E-3	-8.675025E-3	-1.443742E-3	8.213864E-4	-3.397382E-3	-1.272349E-2	-3.903243E-5	-8.407564E-3	-1.134800E-2	-4.155219E-3	-3.189948E-3	5.580181E-3	-7.114773E-3	1.628202E-3	-1.304695E-3	-6.402140E-4	-1.089591E-3	-9.707064E-3	-1.066081E-2	-1.037240E-3	-8.962662E-3	-9.384103E-3	-5.687779E-3	3.969469E-3	-5.485746E-3	-3.822676E-3	7.691600E-4	-7.354832E-3	3.261653E-4	3.480267E-3	-5.560146E-3	-7.133320E-3	-9.671530E-3	-2.571755E-3	-1.706364E-3	-4.552509E-4	1.658664E-3	-2.588290E-3	-1.163882E-2	1.308116E-3	-1.982681E-3	-7.251412E-3	-1.695264E-3	-4.811123E-3	-6.164647E-3	-5.593464E-3	3.451852E-3	-2.609199E-3	1.067323E-3	-6.759316E-3	-7.315503E-3	-9.562523E-4
5.310050E+2	-9.787456E-3	-1.268225E-2	-4.216980E-3	-3.451297E-5	-5.923373E-4	-2.592433E-3	-3.181826E-3	-1.163146E-3	-5.946421E-3	3.047228E-3	-6.562042E-3	-1.025171E-2	1.381594E-3	8.179126E-4	-5.224341E-3	7.906319E-3	3.426817E-3	-4.716387E-3	1.015645E-3	-8.245649E-3	-5.060996E-3	-4.788499E-3	-7.314905E-3	-7.962376E-3	4.060811E-3	-4.905896E-3	1.020154E-3	-6.482709E-3	-7.515248E-3	-8.431883E-3	5.114651E-3	-2.799446E-3	-8.595482E-3	5.810571E-3	-8.284346E-4	-4.071327E-3	-2.897340E-3	-2.503077E-3	-5.268879E-3	-7.397844E-3	-5.117163E-4	-3.461528E-3	6.701125E-3	-1.081195E-3	-5.231315E-5	-1.098806E-3	-3.725368E-3	3.231225E-3	4.333816E-3	-6.452221E-3	-4.587579E-3	-2.104788E-3	-4.809084E-3	-2.021383E-4	-4.871846E-3	-6.780670E-3	-6.938368E-3	2.003954E-3	2.013128E-3	1.795935E-3	-9.771608E-3	-4.068441E-3	2.021047E-3	-1.414750E-2	-3.000397E-3	2.669974E-3	-8.773689E-3	-2.028624E-3	9.956706E-4	1.066715E-3	-1.236759E-2	-3.133147E-3	-5.636687E-3	-1.252776E-3	-3.499208E-3	-8.762860E-3	3.307027E-3	-3.113246E-3	2.494704E-3	-8.472705E-3	-2.981485E-3	-3.481001E-3	-7.457626E-3	-3.895903E-3	-8.821327E-3	2.949975E-3	-3.239466E-3	1.166427E-3	-6.228272E-3	2.212767E-3	-3.788627E-3	-1.700229E-3	-4.248115E-3	-1.332760E-2	-9.658654E-3	1.156527E-3	2.970277E-3	-7.608295E-4	-2.333035E-3	-9.151801E-3	4.172779E-3	-2.933541E-3	-2.944396E-3	4.034716E-3	-3.976961E-3	-7.411263E-3	-4.235493E-3	-1.459603E-3	-2.979753E-3	2.275990E-3	-7.053448E-3	-2.259433E-3	-2.625742E-3	-5.977980E-3	-3.893857E-3	3.417214E-4	-8.071132E-3	2.046286E-3	5.536312E-3	2.951654E-3	-2.397621E-3	1.741666E-3	3.136046E-3	-1.347107E-2	1.986741E-3	-3.821118E-3	4.018261E-3	8.015394E-4	7.074254E-3	7.237158E-4	-3.336455E-3	-3.807752E-3	-1.768442E-3	-8.044693E-4	-5.333169E-3	-4.454427E-3	-9.137732E-3	1.140600E-2	-4.973666E-3	-2.699682E-3	-1.636218E-4	-3.544238E-3	-1.887108E-3	-6.941767E-3	-3.271560E-3	-6.876886E-3	-4.467440E-3	-7.427927E-3	-6.354121E-3	-4.694700E-4	-4.331041E-3	3.698572E-3	2.705287E-3	-6.210646E-3	5.232055E-3	2.856532E-3	-4.782032E-3	-5.303447E-3	-2.454883E-3	-1.982638E-3	-9.008136E-3	-7.815058E-3	-2.981552E-3	-8.496399E-3	-4.570788E-3	-9.628949E-3	-3.320792E-4	3.406597E-3	-1.311515E-3	8.816643E-3	3.892168E-3
5.315130E+2	-2.401572E-4	7.423936E-5	-1.119551E-2	-4.770415E-3	-1.669373E-3	1.548582E-3	-5.338952E-3	1.416302E-3	-8.120921E-3	-1.974650E-3	2.670335E-3	9.023089E-3	-2.393542E-3	-2.303420E-3	-7.731955E-3	-8.615873E-3	-3.143259E-3	-5.291162E-3	3.304408E-3	-9.901261E-3	4.494755E-4	-2.927979E-4	-2.757160E-3	1.799549E-3	-7.115732E-3	-2.192115E-3	-5.433184E-3	2.946670E-3	4.407415E-3	-2.436498E-3	-3.891873E-3	-5.405789E-3	7.858869E-4	-8.790696E-4	-5.250355E-3	1.510266E-4	-1.386391E-3	-1.063489E-2	-3.794278E-3	-3.718225E-3	1.827652E-3	-5.759591E-3	-3.100164E-4	5.139834E-4	-2.905699E-3	-8.110577E-3	-1.037720E-3	5.540459E-4	-3.440134E-3	-3.617475E-3	-4.010707E-3	1.004929E-3	-5.309903E-3	3.330107E-4	-2.456037E-3	2.886814E-3	-4.008949E-3	-8.587966E-3	-2.433003E-3	-2.226968E-3	-2.014060E-3	-9.295444E-3	-7.748478E-3	-8.316778E-3	4.109668E-3	-4.032130E-3	1.127622E-3	2.553659E-3	-2.046356E-3	-2.479588E-3	2.120482E-3	3.773421E-3	7.000165E-4	-2.380212E-3	4.959119E-3	-6.248725E-4	3.834029E-3	-3.635052E-3	-6.135973E-3	-2.029803E-3	-2.369207E-3	7.688165E-4	6.866897E-3	-4.906337E-3	3.795778E-3	3.945280E-3	3.157457E-3	-6.089213E-3	-3.680362E-3	-4.254845E-3	7.164125E-4	2.455480E-3	-6.645912E-3	8.542759E-3	-3.940574E-3	-2.955607E-3	5.807826E-4	3.391700E-4	5.186722E-3	-5.899984E-3	-1.760487E-3	-3.905998E-3	1.250175E-4	-1.809247E-3	-4.538134E-3	-2.779222E-3	2.801904E-3	-8.577305E-4	-8.503318E-4	-4.452815E-3	-5.818992E-3	-2.259455E-3	6.758087E-3	1.123348E-2	-1.254952E-3	7.113337E-3	3.682122E-3	-5.383221E-3	3.518003E-3	-4.132328E-3	8.064739E-3	-4.098280E-3	-3.807911E-3	-1.027097E-3	5.537431E-3	-4.361399E-3	-4.783377E-3	-2.742083E-3	-1.807200E-5	-3.944810E-4	4.531210E-3	-2.705386E-3	-1.768392E-3	-5.306307E-3	-2.725956E-3	3.236639E-3	4.526161E-3	-9.499365E-3	8.744765E-5	4.701974E-3	-5.798375E-3	7.709228E-3	-6.572377E-3	2.279756E-3	3.893136E-3	-6.876936E-3	-5.044942E-3	-6.874102E-3	-5.862406E-3	-5.051068E-3	5.757055E-3	-1.833909E-3	-5.503369E-3	7.865376E-3	-2.006353E-3	-7.924071E-3	-6.975780E-3	5.639432E-3	-5.680326E-3	-4.000339E-3	-8.100373E-4	1.332597E-2	1.897314E-3	1.413620E-3	3.610568E-3	-2.303675E-3	-7.163407E-3	-5.365705E-3	3.228372E-3	-3.282372E-3	3.892241E-3
5.320070E+2	3.472668E-3	1.283069E-2	4.372040E-3	5.293304E-3	6.408183E-3	1.811262E-2	5.446824E-3	-1.593053E-3	1.144898E-2	2.489255E-3	5.555479E-3	2.429065E-3	9.875648E-3	-4.384298E-3	5.809418E-3	7.459838E-3	-2.637836E-3	1.310179E-2	-1.287399E-4	7.206332E-3	-1.053405E-3	2.204833E-3	7.371185E-3	6.236777E-3	-9.686619E-4	9.748435E-3	-4.259892E-3	3.470550E-3	4.884350E-3	5.357574E-3	3.425918E-3	8.060422E-3	3.748406E-3	-1.393672E-3	4.084815E-3	5.956691E-3	6.671789E-3	-9.783866E-4	-3.302783E-3	1.596749E-3	-2.851167E-3	1.090158E-2	-8.942099E-4	-1.081169E-3	-4.617736E-3	5.328595E-3	7.025178E-3	1.078511E-4	-5.832158E-3	-7.827185E-4	8.680003E-3	1.523153E-3	1.121657E-2	8.895427E-3	2.375550E-3	2.447390E-3	3.802794E-3	9.065243E-3	4.236147E-3	-1.652268E-3	1.039797E-2	-2.500272E-3	1.127634E-2	4.316333E-3	6.479792E-3	3.787024E-3	-1.202021E-3	8.353073E-4	4.037728E-3	3.599726E-3	6.216970E-4	3.773413E-3	2.649771E-3	2.129688E-3	1.575720E-3	2.281562E-3	5.415060E-3	5.756933E-3	6.048533E-3	-4.714378E-3	4.365946E-3	5.018608E-3	1.357457E-3	6.512011E-4	2.698686E-3	4.442960E-3	1.103065E-2	3.433845E-3	1.415521E-3	1.134831E-3	-4.098447E-4	1.076686E-2	1.781171E-2	5.939139E-3	2.297361E-3	-8.995290E-4	1.775553E-3	2.539139E-3	-6.382211E-3	1.252707E-2	1.475835E-3	-2.447337E-3	1.148232E-3	2.972127E-3	1.061497E-2	1.273818E-3	-4.821923E-3	6.365195E-3	-2.979805E-3	1.003998E-2	6.525355E-3	5.394888E-3	2.378981E-3	-4.703080E-3	7.717355E-3	-2.225983E-4	3.682078E-3	7.761315E-3	1.310486E-2	1.062597E-3	7.018482E-3	-1.443765E-3	5.450656E-3	1.437966E-2	-4.226655E-5	5.363906E-3	7.124744E-3	1.446975E-2	7.665287E-3	5.196486E-3	-7.139275E-4	7.215827E-3	2.113492E-3	-6.306703E-3	1.966977E-3	-1.570235E-3	4.526137E-3	1.024461E-2	5.711001E-3	-9.916411E-4	-1.636156E-4	-8.648508E-4	2.212471E-3	2.279768E-3	3.523021E-5	1.315302E-3	6.504627E-3	2.541616E-3	-2.420363E-3	5.639344E-3	1.416386E-2	1.393379E-3	-3.744419E-3	-3.395465E-3	-9.723154E-4	1.658686E-3	1.002565E-2	7.367238E-3	7.704849E-4	8.610181E-3	1.324379E-2	-8.371450E-3	8.605821E-3	-3.832876E-3	3.610631E-3	3.124861E-4	-3.747735E-3	3.991384E-3	6.860178E-3	-1.938083E-3	3.892168E-3
5.325170E+2	1.355040E-2	8.578576E-3	1.457149E-2	7.069255E-3	5.331173E-3	1.397161E-2	7.603948E-3	1.689287E-2	1.144899E-2	1.085901E-2	6.132485E-3	8.515834E-3	1.034756E-2	2.006596E-2	1.483704E-2	2.994347E-3	1.201835E-2	6.204401E-3	1.587815E-3	1.272490E-2	9.967572E-3	1.219528E-2	5.345501E-3	8.899130E-3	7.413753E-3	1.607166E-3	1.040683E-2	5.565974E-3	9.653369E-3	2.334387E-2	1.806158E-2	1.327316E-2	6.217206E-3	1.095649E-2	1.341999E-2	1.281799E-2	8.182772E-3	1.681003E-2	2.078197E-2	1.386214E-2	2.346730E-2	5.156312E-3	1.546502E-2	1.487063E-2	1.079055E-2	1.818340E-2	1.649938E-3	1.304766E-2	8.519817E-3	1.055631E-2	6.040917E-4	3.078041E-3	1.872860E-2	1.157122E-2	1.058921E-2	9.478280E-3	1.014989E-2	1.415564E-3	-1.321514E-3	5.818880E-3	1.505249E-2	2.102153E-2	4.077751E-3	6.745791E-3	-6.303645E-4	1.160616E-2	1.976546E-2	8.854301E-3	1.113582E-2	6.639398E-3	1.061349E-2	1.111166E-2	8.499029E-3	1.171318E-2	1.116191E-2	1.158206E-2	6.996124E-3	6.800420E-3	1.264850E-2	1.944648E-2	2.028529E-2	1.139324E-2	1.292728E-2	9.240130E-3	6.538647E-3	6.931224E-3	2.665372E-3	1.386387E-2	1.466476E-2	1.029724E-2	6.347815E-3	8.392238E-3	1.685253E-2	9.063455E-3	9.574878E-3	9.894878E-3	8.944109E-3	1.439136E-3	9.814340E-3	1.090117E-2	1.475819E-3	1.311184E-2	1.700707E-2	9.347335E-3	3.880262E-3	7.642863E-3	1.101226E-2	9.374776E-3	1.032942E-2	7.452018E-3	1.393200E-2	1.151838E-2	6.758026E-3	1.569572E-2	9.828470E-3	1.470288E-3	3.171134E-3	4.903787E-3	2.508834E-3	6.257525E-3	1.264203E-3	8.643397E-3	-6.701247E-3	6.676246E-3	1.314621E-2	1.292818E-2	9.195669E-3	8.394989E-3	1.164005E-3	1.282843E-3	9.776313E-3	9.971767E-3	1.142991E-3	1.420155E-2	1.396007E-2	2.755992E-3	1.648213E-2	9.663954E-3	6.273342E-3	1.324232E-2	1.264255E-2	2.350462E-3	1.451130E-2	1.101596E-2	6.648710E-3	1.223824E-2	1.689930E-2	8.080274E-3	1.970704E-2	5.130222E-3	1.833969E-3	2.315394E-3	1.384562E-2	9.554515E-3	6.175054E-5	6.450019E-3	1.331627E-2	1.543043E-2	1.259698E-2	9.619040E-3	1.148709E-2	1.054422E-2	4.946713E-3	1.598732E-2	7.189980E-3	1.914887E-2	1.845405E-2	6.915496E-3	1.412404E-2	1.284964E-2	-5.804613E-3
5.330280E+2	1.991525E-2	2.133507E-2	1.564512E-2	2.009280E-2	1.663973E-2	3.985297E-2	1.623250E-2	2.076202E-2	2.286480E-2	2.871458E-2	1.305677E-2	2.423996E-2	1.648216E-2	2.162663E-2	2.938155E-2	2.442856E-2	3.122309E-2	3.206957E-2	2.447537E-2	2.817701E-2	2.750090E-2	2.568234E-2	1.901881E-2	2.043592E-2	2.417853E-2	2.874472E-2	1.920687E-2	3.385413E-2	2.396066E-2	3.113792E-2	2.256484E-2	1.935469E-2	2.547368E-2	1.507320E-2	2.226383E-2	2.601279E-2	1.624096E-2	2.697485E-2	2.815486E-2	3.103371E-2	2.814612E-2	2.871179E-2	2.072332E-2	1.540233E-2	1.935068E-2	2.344222E-2	3.390152E-2	2.152549E-2	2.705772E-2	3.323438E-2	2.540869E-2	2.847405E-2	2.173344E-2	2.602031E-2	2.025236E-2	1.475146E-2	2.772641E-2	3.319136E-2	1.868601E-2	3.225526E-2	1.453533E-2	3.670274E-2	2.156002E-2	2.083652E-2	2.069996E-2	3.450498E-2	2.326008E-2	2.260113E-2	2.989503E-2	2.589055E-2	1.111312E-2	2.147145E-2	2.019756E-2	3.595386E-2	2.582304E-2	1.565109E-2	1.226630E-2	2.871506E-2	2.584834E-2	3.662756E-2	3.804151E-2	1.829914E-2	2.615004E-2	1.176628E-2	3.177293E-2	3.778579E-2	2.628493E-2	1.522436E-2	1.517430E-2	3.940140E-2	3.844648E-2	7.204850E-3	2.980072E-2	2.624733E-2	2.672916E-2	3.148374E-2	1.312582E-2	2.178878E-2	1.502036E-2	8.191300E-3	1.765764E-2	2.575362E-2	2.826173E-2	2.953549E-2	4.148235E-2	1.922299E-2	3.329728E-2	3.465500E-2	1.884727E-2	1.676878E-2	2.627634E-2	1.355957E-2	2.802796E-2	2.717002E-2	1.193958E-2	1.952793E-2	2.616660E-2	2.090578E-2	1.663691E-2	1.900870E-2	2.323513E-2	1.501428E-2	2.859718E-2	1.200943E-2	2.785644E-2	2.103264E-2	1.799725E-2	2.611304E-2	2.953329E-2	2.588312E-2	3.023220E-2	3.367248E-2	2.103762E-2	1.320113E-2	2.699604E-2	2.919401E-2	3.982467E-2	2.011662E-2	3.382844E-2	2.519893E-2	3.210796E-2	1.896270E-2	2.153924E-2	2.848832E-2	2.208029E-2	1.988431E-2	2.787141E-2	3.245040E-2	2.659114E-2	2.905642E-2	2.369156E-2	1.706863E-2	1.853624E-2	2.363054E-2	1.764082E-2	2.022521E-2	2.318800E-2	3.155673E-2	1.851018E-2	2.727376E-2	2.846882E-2	2.222745E-2	2.263269E-2	2.648033E-2	2.304138E-2	2.699726E-2	1.731546E-2	1.919674E-2	3.500737E-2	1.284969E-2	8.740661E-3
5.331630E+2	3.423624E-2	3.166174E-2	2.530776E-2	2.660465E-2	3.817982E-2	4.761735E-2	2.863612E-2	3.107977E-2	3.373688E-2	3.987423E-2	3.959993E-2	2.525445E-2	3.582974E-2	2.786919E-2	3.690454E-2	3.291298E-2	3.324468E-2	4.184083E-2	2.275878E-2	3.424740E-2	4.854086E-2	2.168619E-2	1.901879E-2	2.576064E-2	3.144326E-2	3.959979E-2	3.094028E-2	3.123482E-2	3.492952E-2	3.053841E-2	3.551174E-2	3.064897E-2	2.251115E-2	3.668603E-2	2.078985E-2	2.812403E-2	1.875918E-2	4.984563E-2	2.471422E-2	2.203910E-2	3.516441E-2	3.790415E-2	2.539743E-2	3.029067E-2	3.647096E-2	2.227361E-2	2.422604E-2	3.625016E-2	3.722368E-2	5.761329E-2	2.483185E-2	3.002889E-2	3.024707E-2	4.153982E-2	1.880288E-2	2.441896E-2	3.651463E-2	3.436823E-2	2.924560E-2	2.076121E-2	2.901605E-2	2.624861E-2	2.567347E-2	2.035065E-2	2.781008E-2	3.338798E-2	2.558981E-2	1.859161E-2	5.017527E-2	4.362191E-2	1.860691E-2	3.787444E-2	1.337344E-2	4.779236E-2	2.977027E-2	5.110953E-2	2.386064E-2	3.288926E-2	2.229457E-2	2.159410E-2	2.702036E-2	3.370463E-2	2.945567E-2	2.237618E-2	2.903008E-2	4.574822E-2	1.644346E-2	3.109610E-2	2.740441E-2	3.293379E-2	3.957278E-2	1.492257E-2	2.788241E-2	4.291051E-2	2.932827E-2	4.484824E-2	3.761846E-2	3.168852E-2	2.716769E-2	3.095408E-2	4.516662E-2	4.666128E-2	2.928487E-2	3.591064E-2	3.418644E-2	3.196110E-2	4.092106E-2	3.164545E-2	2.789752E-2	3.799038E-2	2.504193E-2	3.754314E-2	3.991404E-2	4.310653E-2	2.618973E-2	2.065651E-2	3.638680E-2	3.462173E-2	2.773751E-2	2.656496E-2	3.474369E-2	2.138508E-2	3.496245E-2	3.037904E-2	2.684196E-2	3.291918E-2	2.886991E-2	2.510058E-2	2.776022E-2	4.433339E-2	3.233025E-2	3.973552E-2	2.297856E-2	3.621047E-2	2.230309E-2	3.544303E-2	3.697796E-2	2.708509E-2	4.732475E-2	2.690697E-2	3.159570E-2	2.378569E-2	3.325243E-2	2.460556E-2	2.979607E-2	2.261506E-2	3.075878E-2	2.746562E-2	2.954141E-2	3.058364E-2	2.481241E-2	2.721144E-2	4.902564E-2	2.926093E-2	1.970895E-2	2.082418E-2	3.689879E-2	4.249961E-2	3.409969E-2	3.030030E-2	3.315341E-2	1.332594E-2	2.934123E-2	3.230977E-2	1.588263E-2	4.164784E-2	3.040885E-2	4.200473E-2	1.503200E-2	2.226006E-2	4.267957E-2
5.333080E+2	3.635785E-2	3.409151E-2	3.497039E-2	3.726026E-2	3.441031E-2	3.726485E-2	4.319687E-2	3.752830E-2	2.830087E-2	3.541041E-2	3.729182E-2	3.489186E-2	4.243621E-2	4.035441E-2	4.141835E-2	4.407657E-2	3.526624E-2	3.379389E-2	3.706352E-2	3.204002E-2	3.601709E-2	4.116753E-2	3.573057E-2	3.241648E-2	3.926683E-2	3.959981E-2	5.206040E-2	4.747435E-2	2.872969E-2	4.552702E-2	3.945209E-2	3.282093E-2	3.633631E-2	3.462766E-2	2.766839E-2	3.815203E-2	3.739383E-2	3.764789E-2	3.405319E-2	4.002834E-2	3.340985E-2	5.111814E-2	2.247613E-2	3.294928E-2	3.761230E-2	3.746566E-2	4.465213E-2	4.338940E-2	5.516357E-2	4.967595E-2	3.175406E-2	4.194941E-2	5.528711E-2	5.331318E-2	4.634287E-2	2.925272E-2	2.772641E-2	4.554862E-2	2.924553E-2	4.892169E-2	4.246244E-2	3.983897E-2	4.007060E-2	4.561687E-2	2.721760E-2	3.897308E-2	1.801820E-2	5.124031E-2	3.192306E-2	4.210210E-2	3.109667E-2	3.701122E-2	2.604685E-2	4.102747E-2	3.597305E-2	3.076456E-2	2.860382E-2	2.401909E-2	2.990986E-2	3.340604E-2	5.334860E-2	2.945487E-2	3.551605E-2	4.005928E-2	4.439007E-2	5.371061E-2	2.628495E-2	3.608436E-2	3.861528E-2	4.371313E-2	3.788336E-2	1.789094E-2	3.795318E-2	5.436650E-2	3.504642E-2	4.587632E-2	4.120276E-2	3.168858E-2	2.427550E-2	2.011469E-2	3.815449E-2	5.978918E-2	3.440058E-2	3.219181E-2	3.811500E-2	2.848712E-2	4.326687E-2	3.585885E-2	4.599800E-2	3.954313E-2	4.170681E-2	3.703274E-2	4.491875E-2	4.565639E-2	1.932852E-2	3.702127E-2	4.354096E-2	5.062378E-2	3.429696E-2	4.214973E-2	3.265126E-2	3.041049E-2	4.827183E-2	4.341557E-2	3.647970E-2	2.967741E-2	4.440215E-2	4.889348E-2	3.130638E-2	4.321520E-2	3.600183E-2	4.469602E-2	3.025709E-2	3.571026E-2	3.951055E-2	4.121131E-2	3.299263E-2	3.753781E-2	4.057662E-2	3.544738E-2	3.108347E-2	4.736441E-2	4.262301E-2	3.431245E-2	4.357424E-2	3.845332E-2	3.653360E-2	3.965071E-2	3.937584E-2	4.840093E-2	2.144973E-2	3.458802E-2	3.729896E-2	3.770657E-2	2.694739E-2	3.699503E-2	3.964096E-2	4.480337E-2	3.840022E-2	3.282242E-2	5.072070E-2	3.724865E-2	4.397793E-2	5.038110E-2	3.071138E-2	3.746194E-2	3.439378E-2	3.264760E-2	5.135083E-2	4.645824E-2	4.025534E-2
5.334580E+2	3.794908E-2	5.838956E-2	6.932650E-2	4.377208E-2	5.325797E-2	6.211096E-2	4.050044E-2	3.795820E-2	4.515270E-2	7.893327E-2	3.902294E-2	5.010880E-2	6.555896E-2	4.763750E-2	5.245208E-2	5.881262E-2	4.032007E-2	5.448602E-2	5.880667E-2	6.459960E-2	5.855994E-2	6.064891E-2	4.687173E-2	5.105284E-2	5.211978E-2	5.859614E-2	4.678034E-2	5.009365E-2	5.066747E-2	5.871691E-2	5.633929E-2	4.802459E-2	4.522391E-2	4.491946E-2	4.486479E-2	5.081905E-2	5.905038E-2	5.645277E-2	5.273118E-2	5.024941E-2	5.621921E-2	6.835381E-2	3.825112E-2	5.634531E-2	6.614618E-2	6.375961E-2	5.325256E-2	5.811405E-2	5.217362E-2	6.271584E-2	5.136704E-2	6.112598E-2	5.678959E-2	7.578965E-2	5.310710E-2	5.078474E-2	4.334996E-2	6.143654E-2	3.869360E-2	4.719758E-2	5.952906E-2	6.022458E-2	3.955644E-2	6.262288E-2	5.743559E-2	6.857393E-2	5.762364E-2	4.723083E-2	6.437148E-2	6.793925E-2	3.709174E-2	4.737095E-2	4.213241E-2	6.865058E-2	5.063421E-2	6.273527E-2	5.653569E-2	5.636924E-2	4.514055E-2	6.776796E-2	6.804337E-2	5.495359E-2	6.196140E-2	3.955406E-2	4.823002E-2	6.913789E-2	5.285691E-2	3.563091E-2	4.778783E-2	5.233653E-2	4.970919E-2	6.004154E-2	4.466709E-2	4.707628E-2	5.687911E-2	6.129697E-2	5.135817E-2	6.688785E-2	4.799188E-2	5.751074E-2	5.163927E-2	6.513775E-2	4.105112E-2	5.663006E-2	7.683966E-2	6.496441E-2	6.555200E-2	5.331427E-2	5.664532E-2	5.714156E-2	5.837171E-2	6.560906E-2	4.679554E-2	6.414277E-2	5.205102E-2	5.507883E-2	6.091516E-2	5.462429E-2	6.658975E-2	4.781694E-2	6.142267E-2	5.058472E-2	5.810911E-2	5.111893E-2	5.778418E-2	5.453120E-2	5.113287E-2	5.800568E-2	4.903714E-2	5.998813E-2	5.698221E-2	5.461724E-2	4.966639E-2	6.022026E-2	4.524638E-2	5.370931E-2	6.316721E-2	5.960463E-2	6.756937E-2	3.886355E-2	5.362234E-2	6.076143E-2	6.136409E-2	5.663809E-2	4.743212E-2	5.156086E-2	4.519579E-2	5.958987E-2	5.560268E-2	7.945390E-2	5.283511E-2	4.288672E-2	5.488899E-2	6.022816E-2	4.349241E-2	4.957238E-2	6.432040E-2	7.302439E-2	5.452732E-2	6.560969E-2	3.842365E-2	4.003040E-2	4.458780E-2	5.795938E-2	5.525552E-2	5.158923E-2	6.570395E-2	4.317440E-2	5.770670E-2	3.570357E-2	7.177005E-2
5.336130E+2	7.719919E-2	7.236096E-2	8.006276E-2	7.277915E-2	7.856746E-2	7.505156E-2	6.746481E-2	6.117318E-2	7.070222E-2	9.232495E-2	6.441195E-2	5.974616E-2	5.328974E-2	6.636531E-2	6.549196E-2	6.506437E-2	6.306253E-2	6.943016E-2	5.766228E-2	8.446640E-2	6.607426E-2	8.362687E-2	7.472458E-2	5.815245E-2	6.776694E-2	7.107941E-2	6.614045E-2	8.100116E-2	7.308204E-2	5.871697E-2	6.872324E-2	7.191653E-2	5.114902E-2	6.910525E-2	6.353508E-2	6.665278E-2	6.156844E-2	7.932349E-2	7.386678E-2	5.801759E-2	6.265272E-2	7.926962E-2	4.467794E-2	5.315498E-2	7.185285E-2	8.596342E-2	7.314106E-2	8.220872E-2	7.130952E-2	7.405489E-2	6.751888E-2	7.097347E-2	8.132877E-2	8.542236E-2	5.890489E-2	7.011964E-2	4.774409E-2	7.555893E-2	7.148358E-2	6.788696E-2	8.021582E-2	6.911064E-2	7.863440E-2	6.893939E-2	8.350602E-2	8.365392E-2	4.830470E-2	8.159796E-2	7.349746E-2	7.705801E-2	6.806614E-2	5.470927E-2	6.162989E-2	9.289136E-2	5.627308E-2	6.157271E-2	7.076508E-2	6.263048E-2	7.560166E-2	9.944576E-2	6.681883E-2	5.442230E-2	7.408216E-2	6.835237E-2	7.730428E-2	7.610498E-2	5.826978E-2	5.195612E-2	4.167280E-2	7.605104E-2	6.266130E-2	5.647953E-2	6.289036E-2	6.113593E-2	7.663233E-2	8.391357E-2	6.927971E-2	7.238775E-2	5.551164E-2	6.238862E-2	7.267548E-2	8.069676E-2	5.742154E-2	7.628679E-2	7.683947E-2	8.349254E-2	7.493512E-2	8.942905E-2	7.421333E-2	6.956392E-2	8.429474E-2	6.969155E-2	5.993275E-2	8.709141E-2	5.680102E-2	5.225733E-2	7.266837E-2	7.176914E-2	5.851654E-2	5.206735E-2	7.450056E-2	5.748644E-2	7.431152E-2	5.763722E-2	6.336388E-2	5.939392E-2	8.375051E-2	8.382333E-2	6.795004E-2	8.179284E-2	8.163426E-2	7.776689E-2	7.101679E-2	7.672690E-2	6.453959E-2	6.861064E-2	7.341515E-2	9.444700E-2	9.737395E-2	6.334603E-2	8.538149E-2	7.737380E-2	8.244780E-2	8.139087E-2	5.735241E-2	7.176825E-2	7.406963E-2	7.620589E-2	8.018859E-2	9.116263E-2	7.020905E-2	5.763978E-2	7.658316E-2	7.993464E-2	5.176488E-2	8.191408E-2	7.474055E-2	8.281546E-2	9.430721E-2	7.922902E-2	6.243226E-2	5.950245E-2	7.386126E-2	6.612064E-2	7.161808E-2	8.193664E-2	6.285763E-2	6.422781E-2	6.587841E-2	7.468937E-2	6.207324E-2
5.337580E+2	1.228139E-1	1.167047E-1	1.197870E-1	8.521064E-2	1.044159E-1	9.989783E-2	7.932906E-2	1.067430E-1	1.082112E-1	1.073906E-1	9.037790E-2	9.170158E-2	9.434433E-2	1.116240E-1	9.708845E-2	9.498272E-2	9.995565E-2	1.096648E-1	1.005762E-1	1.280633E-1	1.221810E-1	1.036077E-1	1.000458E-1	9.409376E-2	1.063257E-1	1.036444E-1	1.130739E-1	8.833515E-2	1.069425E-1	1.192708E-1	1.210737E-1	1.023241E-1	8.768677E-2	1.025533E-1	8.269684E-2	1.109870E-1	1.109251E-1	1.159170E-1	8.123975E-2	8.295732E-2	9.949855E-2	1.148900E-1	1.007667E-1	1.036690E-1	1.026692E-1	1.075827E-1	1.118429E-1	1.134429E-1	1.137671E-1	1.273485E-1	7.847894E-2	9.999750E-2	1.233960E-1	1.394729E-1	9.610794E-2	1.079110E-1	8.729126E-2	1.344031E-1	9.593734E-2	9.662227E-2	1.009024E-1	1.062228E-1	1.043434E-1	1.150987E-1	1.166865E-1	1.082284E-1	1.007237E-1	9.018951E-2	1.100017E-1	1.236663E-1	8.305400E-2	9.312700E-2	9.038880E-2	1.351715E-1	8.728710E-2	1.226077E-1	8.499439E-2	1.043725E-1	1.070782E-1	1.091098E-1	1.060049E-1	1.123257E-1	1.027313E-1	8.502490E-2	1.036358E-1	1.104430E-1	9.074647E-2	8.369994E-2	8.651618E-2	1.073110E-1	9.588597E-2	1.075353E-1	1.103668E-1	1.382027E-1	9.222714E-2	1.209230E-1	1.057199E-1	1.103370E-1	1.220331E-1	8.515123E-2	1.190634E-1	1.298055E-1	9.988233E-2	1.086941E-1	1.150028E-1	1.147587E-1	1.060167E-1	1.116998E-1	1.056232E-1	1.218413E-1	1.139214E-1	9.979843E-2	1.112310E-1	1.164145E-1	8.477349E-2	1.103804E-1	9.821886E-2	1.089166E-1	1.180559E-1	9.646043E-2	1.137342E-1	1.084534E-1	1.026662E-1	1.109681E-1	9.024818E-2	1.096416E-1	1.199926E-1	1.167282E-1	1.028208E-1	1.175753E-1	8.740393E-2	1.108375E-1	1.205110E-1	1.197441E-1	1.072972E-1	9.408738E-2	1.081443E-1	9.270477E-2	1.153690E-1	9.238344E-2	9.870002E-2	9.773717E-2	1.211013E-1	1.207033E-1	1.201808E-1	1.061755E-1	1.191129E-1	1.094379E-1	1.318195E-1	1.267974E-1	1.060782E-1	9.452271E-2	1.182130E-1	1.131540E-1	9.674655E-2	9.808506E-2	1.103888E-1	1.294668E-1	1.184975E-1	8.780441E-2	1.028370E-1	9.733381E-2	1.006953E-1	9.876562E-2	1.069003E-1	1.096682E-1	1.123846E-1	9.580815E-2	8.948572E-2	1.230857E-1	9.358803E-2
5.339090E+2	1.859324E-1	1.835244E-1	2.024562E-1	1.503288E-1	1.501880E-1	1.728831E-1	1.877259E-1	1.458646E-1	1.614847E-1	1.721170E-1	1.786634E-1	1.566274E-1	1.641843E-1	1.823736E-1	1.693097E-1	1.825060E-1	1.535269E-1	1.832369E-1	1.577955E-1	1.556564E-1	1.782875E-1	1.815332E-1	1.836047E-1	1.322542E-1	1.772969E-1	1.834292E-1	1.629412E-1	1.684848E-1	1.555871E-1	1.858201E-1	1.841198E-1	1.635737E-1	1.484191E-1	1.478377E-1	1.431296E-1	1.479329E-1	1.622965E-1	1.860540E-1	1.879010E-1	1.430577E-1	1.638324E-1	1.901526E-1	1.644510E-1	1.345090E-1	1.757157E-1	1.940609E-1	1.827963E-1	1.692183E-1	1.855271E-1	1.664684E-1	1.932726E-1	1.445697E-1	1.915052E-1	1.806798E-1	1.850091E-1	1.439444E-1	1.395325E-1	1.873630E-1	1.520696E-1	1.569662E-1	1.779607E-1	1.783564E-1	1.593613E-1	1.661170E-1	1.575695E-1	1.646376E-1	1.886709E-1	1.491863E-1	1.870670E-1	1.621684E-1	1.764771E-1	1.406097E-1	1.352335E-1	1.892904E-1	1.510066E-1	1.476028E-1	1.640466E-1	1.722035E-1	1.847546E-1	1.955517E-1	1.923372E-1	1.787287E-1	1.693958E-1	1.426215E-1	1.656238E-1	1.746405E-1	1.640656E-1	1.530818E-1	1.313598E-1	1.784547E-1	1.769776E-1	1.437492E-1	1.564045E-1	1.741331E-1	1.790384E-1	1.934001E-1	1.469395E-1	1.807357E-1	1.752499E-1	1.485619E-1	1.767787E-1	2.032251E-1	1.643408E-1	1.921028E-1	1.975032E-1	1.801864E-1	1.711130E-1	1.917539E-1	1.774929E-1	1.782597E-1	1.861357E-1	1.661360E-1	1.606519E-1	1.674118E-1	1.296350E-1	1.538313E-1	1.927563E-1	1.997851E-1	1.791098E-1	1.332972E-1	1.749393E-1	1.663219E-1	1.697914E-1	1.637072E-1	1.637990E-1	1.771786E-1	1.759088E-1	1.931693E-1	1.914747E-1	1.857853E-1	1.755213E-1	1.665065E-1	1.947520E-1	1.892722E-1	1.604841E-1	1.503284E-1	1.707706E-1	1.931669E-1	1.620440E-1	1.686774E-1	1.862945E-1	1.732966E-1	1.644398E-1	1.857396E-1	1.659246E-1	1.995668E-1	1.728188E-1	1.648246E-1	1.913171E-1	1.700680E-1	1.509143E-1	1.549187E-1	1.768462E-1	1.762145E-1	1.458648E-1	1.448006E-1	1.888144E-1	2.026106E-1	1.717168E-1	1.685119E-1	1.619805E-1	1.501865E-1	1.629013E-1	1.599752E-1	1.733741E-1	1.834437E-1	1.875292E-1	1.531210E-1	1.884546E-1	1.782039E-1	1.832838E-1
5.340800E+2	2.914835E-1	3.202012E-1	3.049877E-1	2.977320E-1	3.015079E-1	2.965961E-1	3.306368E-1	2.507613E-1	3.120641E-1	3.317009E-1	3.223423E-1	2.484358E-1	2.694165E-1	2.900586E-1	2.987055E-1	2.995015E-1	2.460125E-1	2.993424E-1	2.859654E-1	3.201105E-1	3.190554E-1	2.979216E-1	2.828620E-1	2.560530E-1	2.991210E-1	2.908945E-1	2.990482E-1	2.601597E-1	2.643222E-1	3.123240E-1	3.197810E-1	2.999731E-1	2.491452E-1	2.512704E-1	2.610476E-1	2.851587E-1	2.836736E-1	3.009163E-1	2.980027E-1	2.546730E-1	2.843125E-1	3.108022E-1	2.702018E-1	2.461715E-1	2.818612E-1	3.097544E-1	3.295417E-1	2.972780E-1	2.841967E-1	3.206791E-1	3.397929E-1	2.736232E-1	3.457524E-1	3.219601E-1	3.299564E-1	2.625909E-1	2.376682E-1	3.291772E-1	3.160204E-1	2.638611E-1	2.726022E-1	3.221011E-1	2.940770E-1	2.934203E-1	2.944394E-1	3.104090E-1	2.981683E-1	2.757716E-1	3.031713E-1	3.202311E-1	3.138640E-1	2.442081E-1	2.219976E-1	2.839978E-1	3.055126E-1	2.923434E-1	2.710312E-1	3.402144E-1	3.091381E-1	2.911216E-1	2.988744E-1	2.817855E-1	3.016224E-1	2.603408E-1	3.236123E-1	3.060215E-1	3.087353E-1	2.324407E-1	2.363345E-1	2.981048E-1	2.918575E-1	2.666388E-1	2.959567E-1	2.814018E-1	2.830038E-1	3.208771E-1	2.765709E-1	2.852338E-1	2.730080E-1	2.683378E-1	3.520812E-1	3.398546E-1	2.666564E-1	2.988874E-1	3.321973E-1	3.075678E-1	3.194840E-1	2.964863E-1	2.706569E-1	3.262935E-1	2.990870E-1	2.972806E-1	3.157975E-1	3.293268E-1	2.367750E-1	2.520196E-1	3.046674E-1	3.175142E-1	2.815381E-1	2.631703E-1	3.182734E-1	2.496740E-1	2.959398E-1	2.579259E-1	2.764089E-1	3.052299E-1	2.934364E-1	3.298518E-1	2.919493E-1	3.127004E-1	2.882913E-1	3.004434E-1	2.932543E-1	3.068199E-1	2.809365E-1	2.623296E-1	2.960232E-1	3.104693E-1	3.138781E-1	2.637608E-1	2.989888E-1	3.094099E-1	2.956275E-1	3.012515E-1	3.152796E-1	3.213578E-1	3.004416E-1	2.728287E-1	3.053966E-1	3.166794E-1	2.876649E-1	2.826262E-1	2.911814E-1	3.192274E-1	2.477199E-1	3.077072E-1	2.985005E-1	3.373810E-1	2.985827E-1	3.142896E-1	2.849516E-1	2.597860E-1	2.848743E-1	2.678196E-1	3.063214E-1	2.996013E-1	3.053693E-1	2.595584E-1	3.201103E-1	3.045723E-1	3.335848E-1
5.342040E+2	4.601527E-1	4.550553E-1	4.998511E-1	4.652625E-1	4.743671E-1	4.518843E-1	4.978158E-1	4.197139E-1	4.251350E-1	4.829148E-1	5.023739E-1	4.061849E-1	4.048496E-1	4.861810E-1	4.732388E-1	4.419502E-1	3.920696E-1	4.591316E-1	4.484676E-1	4.829084E-1	4.938878E-1	4.852424E-1	5.097376E-1	4.499602E-1	4.488863E-1	4.303813E-1	4.703555E-1	4.618437E-1	4.212245E-1	4.753998E-1	5.421300E-1	4.133502E-1	3.533276E-1	3.876369E-1	4.010754E-1	4.503578E-1	4.448384E-1	4.498303E-1	4.670875E-1	3.822328E-1	4.691267E-1	5.101620E-1	4.372999E-1	4.040944E-1	4.530643E-1	4.967336E-1	4.951005E-1	4.864672E-1	5.114358E-1	4.522114E-1	4.834292E-1	3.897189E-1	4.719545E-1	5.130103E-1	4.864993E-1	4.049662E-1	3.958564E-1	5.186556E-1	4.282847E-1	4.184564E-1	4.401650E-1	4.867538E-1	4.766125E-1	4.318988E-1	4.360489E-1	4.349563E-1	4.583374E-1	4.544803E-1	4.471609E-1	4.848788E-1	4.682372E-1	3.914037E-1	3.682297E-1	4.373345E-1	4.831379E-1	4.551030E-1	4.301903E-1	4.602233E-1	4.710910E-1	5.080321E-1	4.684769E-1	4.831194E-1	4.784760E-1	3.942270E-1	4.942176E-1	4.752239E-1	5.218029E-1	3.816356E-1	3.280600E-1	5.088407E-1	4.771290E-1	4.067455E-1	4.148877E-1	4.673001E-1	4.867753E-1	4.781671E-1	4.749017E-1	4.628803E-1	4.748859E-1	3.881140E-1	4.863897E-1	4.784279E-1	4.610552E-1	4.386105E-1	5.056158E-1	4.830061E-1	4.842767E-1	4.782638E-1	4.995748E-1	4.489638E-1	5.200511E-1	4.682274E-1	4.765726E-1	5.237523E-1	3.951093E-1	4.167953E-1	4.957854E-1	4.815348E-1	4.374508E-1	3.755695E-1	4.595147E-1	3.733741E-1	4.909491E-1	4.173267E-1	4.803229E-1	4.619163E-1	5.067463E-1	4.751397E-1	4.332049E-1	4.653344E-1	4.566594E-1	4.255609E-1	4.674539E-1	5.043996E-1	4.071248E-1	4.166321E-1	4.782088E-1	4.597116E-1	4.471550E-1	4.328604E-1	4.685430E-1	4.573134E-1	5.111504E-1	4.706362E-1	4.563685E-1	4.939398E-1	4.627131E-1	4.362193E-1	4.376690E-1	4.816174E-1	4.378661E-1	4.089501E-1	4.571137E-1	4.211371E-1	3.557793E-1	4.400687E-1	4.899035E-1	5.228337E-1	4.534023E-1	4.999169E-1	4.500842E-1	3.955333E-1	4.519770E-1	4.444525E-1	4.622791E-1	4.827326E-1	4.755825E-1	3.999150E-1	4.690183E-1	4.497605E-1	5.081272E-1
5.343600E+2	8.378015E-1	8.614401E-1	8.890410E-1	8.382113E-1	8.567046E-1	8.613276E-1	8.672277E-1	7.180684E-1	7.926134E-1	9.019620E-1	7.937714E-1	7.115374E-1	7.833069E-1	8.602179E-1	8.518968E-1	8.121374E-1	7.038936E-1	8.131961E-1	8.278281E-1	8.636906E-1	9.227030E-1	8.833620E-1	8.920822E-1	7.676662E-1	8.216231E-1	7.538615E-1	8.511034E-1	7.756325E-1	7.364609E-1	8.902835E-1	9.350403E-1	8.160338E-1	6.406937E-1	7.097706E-1	7.140492E-1	7.923665E-1	8.180349E-1	8.447323E-1	8.298333E-1	7.056305E-1	8.785257E-1	8.893468E-1	8.094732E-1	7.550338E-1	8.325641E-1	8.993235E-1	8.928703E-1	8.420895E-1	8.792042E-1	8.745904E-1	8.578055E-1	7.478543E-1	8.385422E-1	9.347113E-1	8.686775E-1	7.275089E-1	6.604806E-1	8.334715E-1	8.339933E-1	7.305209E-1	7.432260E-1	8.704214E-1	8.581367E-1	7.642466E-1	7.648929E-1	8.493699E-1	8.538096E-1	7.729488E-1	8.755806E-1	9.073913E-1	8.798994E-1	7.138534E-1	6.382711E-1	8.336414E-1	8.175253E-1	7.782977E-1	7.948853E-1	8.223353E-1	8.843491E-1	8.682968E-1	8.284995E-1	7.976036E-1	8.690954E-1	6.604843E-1	7.827661E-1	8.275625E-1	9.228432E-1	6.800249E-1	6.440035E-1	8.543176E-1	8.121944E-1	7.635414E-1	8.148412E-1	7.854623E-1	8.267420E-1	8.693365E-1	8.267591E-1	7.928740E-1	8.387289E-1	7.463572E-1	8.677411E-1	8.401779E-1	8.585495E-1	8.073098E-1	8.883723E-1	8.732556E-1	9.141441E-1	8.526521E-1	7.726790E-1	8.464800E-1	8.422395E-1	8.575781E-1	8.081332E-1	8.724443E-1	7.233893E-1	7.418323E-1	8.586033E-1	9.095887E-1	9.117500E-1	6.867932E-1	8.361598E-1	6.637787E-1	8.792330E-1	7.947931E-1	7.998901E-1	8.325617E-1	8.608828E-1	8.330450E-1	7.996418E-1	8.281886E-1	8.615815E-1	8.257171E-1	8.236161E-1	8.145248E-1	8.560833E-1	7.194682E-1	8.021578E-1	8.691089E-1	8.441729E-1	7.995284E-1	8.337758E-1	8.351095E-1	8.812869E-1	8.773536E-1	8.112941E-1	8.429278E-1	8.461596E-1	7.441685E-1	8.246529E-1	8.664715E-1	8.072044E-1	7.667152E-1	7.801836E-1	8.028788E-1	6.618619E-1	7.760632E-1	8.162203E-1	9.363588E-1	8.345372E-1	8.570471E-1	7.762504E-1	7.009658E-1	8.514372E-1	7.843100E-1	8.595873E-1	7.971949E-1	8.598440E-1	7.344329E-1	8.667098E-1	9.216243E-1	7.893367E-1
5.345110E+2	1.246744E+0	1.226518E+0	1.288431E+0	1.223000E+0	1.241195E+0	1.205550E+0	1.287332E+0	1.020290E+0	1.135087E+0	1.284180E+0	1.245582E+0	1.018412E+0	1.103249E+0	1.340898E+0	1.253627E+0	1.181878E+0	1.013696E+0	1.220141E+0	1.167136E+0	1.172730E+0	1.304929E+0	1.200059E+0	1.237967E+0	1.112884E+0	1.170330E+0	1.137045E+0	1.235959E+0	1.090994E+0	1.120847E+0	1.276989E+0	1.309375E+0	1.217417E+0	9.083096E-1	9.752997E-1	1.015231E+0	1.143348E+0	1.150941E+0	1.238110E+0	1.182257E+0	1.033525E+0	1.236457E+0	1.278298E+0	1.168208E+0	1.051205E+0	1.185812E+0	1.301329E+0	1.189048E+0	1.181647E+0	1.216474E+0	1.218730E+0	1.265063E+0	1.062454E+0	1.247698E+0	1.355879E+0	1.251824E+0	1.070705E+0	9.934576E-1	1.279509E+0	1.158004E+0	1.049482E+0	1.101624E+0	1.282837E+0	1.228350E+0	1.114086E+0	1.119213E+0	1.186709E+0	1.232972E+0	1.103445E+0	1.184347E+0	1.258470E+0	1.259088E+0	1.006951E+0	9.707046E-1	1.236714E+0	1.271456E+0	1.127069E+0	1.157472E+0	1.280976E+0	1.213838E+0	1.323059E+0	1.239342E+0	1.188053E+0	1.205724E+0	9.863586E-1	1.121234E+0	1.187865E+0	1.278119E+0	1.050971E+0	8.957388E-1	1.226743E+0	1.213711E+0	1.112026E+0	1.126076E+0	1.216100E+0	1.267036E+0	1.293403E+0	1.230589E+0	1.152017E+0	1.166708E+0	1.028182E+0	1.244774E+0	1.204845E+0	1.258603E+0	1.208948E+0	1.300872E+0	1.314458E+0	1.298855E+0	1.199353E+0	1.187393E+0	1.237267E+0	1.294043E+0	1.222436E+0	1.185987E+0	1.339066E+0	1.021586E+0	1.064613E+0	1.276609E+0	1.285064E+0	1.278069E+0	1.049965E+0	1.200774E+0	1.017891E+0	1.297027E+0	1.068560E+0	1.174239E+0	1.172950E+0	1.222269E+0	1.208161E+0	1.164897E+0	1.210613E+0	1.202517E+0	1.111228E+0	1.238493E+0	1.220190E+0	1.219005E+0	1.112195E+0	1.200120E+0	1.217532E+0	1.273808E+0	1.149116E+0	1.192351E+0	1.233268E+0	1.253768E+0	1.220978E+0	1.211962E+0	1.193008E+0	1.245775E+0	1.128553E+0	1.206227E+0	1.210092E+0	1.255005E+0	1.074688E+0	1.118498E+0	1.140141E+0	9.710463E-1	1.161769E+0	1.164475E+0	1.314174E+0	1.193631E+0	1.218717E+0	1.119399E+0	9.919329E-1	1.219795E+0	1.150400E+0	1.234396E+0	1.199037E+0	1.300464E+0	1.071290E+0	1.210831E+0	1.220068E+0	1.213572E+0
5.346510E+2	1.764952E+0	1.652342E+0	1.773710E+0	1.740394E+0	1.693538E+0	1.700401E+0	1.766760E+0	1.417954E+0	1.592805E+0	1.731128E+0	1.710663E+0	1.469339E+0	1.506717E+0	1.727418E+0	1.716542E+0	1.683797E+0	1.389702E+0	1.643755E+0	1.577969E+0	1.652296E+0	1.798365E+0	1.690589E+0	1.748939E+0	1.576573E+0	1.602302E+0	1.563106E+0	1.718787E+0	1.593371E+0	1.552451E+0	1.744633E+0	1.880162E+0	1.679175E+0	1.283068E+0	1.361758E+0	1.387655E+0	1.531275E+0	1.577524E+0	1.680787E+0	1.675750E+0	1.358966E+0	1.713699E+0	1.774111E+0	1.651975E+0	1.468078E+0	1.621808E+0	1.774034E+0	1.753452E+0	1.635438E+0	1.735535E+0	1.723887E+0	1.713853E+0	1.502481E+0	1.684896E+0	1.886751E+0	1.761070E+0	1.449053E+0	1.369889E+0	1.760268E+0	1.643743E+0	1.474764E+0	1.546909E+0	1.751707E+0	1.782128E+0	1.553816E+0	1.615146E+0	1.649715E+0	1.693676E+0	1.475754E+0	1.715185E+0	1.736711E+0	1.740693E+0	1.422637E+0	1.346032E+0	1.709689E+0	1.675764E+0	1.613022E+0	1.614397E+0	1.730227E+0	1.662126E+0	1.811642E+0	1.702840E+0	1.641186E+0	1.700469E+0	1.340021E+0	1.685164E+0	1.658149E+0	1.703764E+0	1.369314E+0	1.277930E+0	1.727982E+0	1.697441E+0	1.554312E+0	1.577821E+0	1.649863E+0	1.669383E+0	1.769900E+0	1.664290E+0	1.588710E+0	1.621946E+0	1.497530E+0	1.722679E+0	1.705169E+0	1.646375E+0	1.630777E+0	1.779602E+0	1.741764E+0	1.764496E+0	1.710378E+0	1.627130E+0	1.747104E+0	1.798311E+0	1.633729E+0	1.663311E+0	1.735567E+0	1.443809E+0	1.504767E+0	1.716592E+0	1.752552E+0	1.673658E+0	1.379608E+0	1.668438E+0	1.342273E+0	1.720608E+0	1.569280E+0	1.583591E+0	1.650034E+0	1.672188E+0	1.720975E+0	1.596346E+0	1.618191E+0	1.686113E+0	1.601779E+0	1.549528E+0	1.705887E+0	1.619471E+0	1.404936E+0	1.590111E+0	1.525308E+0	1.734371E+0	1.594923E+0	1.626735E+0	1.579446E+0	1.746893E+0	1.656816E+0	1.650107E+0	1.671434E+0	1.662716E+0	1.524567E+0	1.667953E+0	1.692689E+0	1.657410E+0	1.443977E+0	1.552386E+0	1.576498E+0	1.323143E+0	1.569036E+0	1.559892E+0	1.783565E+0	1.687657E+0	1.622254E+0	1.527546E+0	1.457038E+0	1.654628E+0	1.504247E+0	1.620966E+0	1.653204E+0	1.811674E+0	1.560199E+0	1.602167E+0	1.722853E+0	1.783262E+0
5.348280E+2	2.040235E+0	1.947563E+0	2.058221E+0	2.014475E+0	1.902477E+0	1.973709E+0	2.081702E+0	1.641936E+0	1.863520E+0	2.035790E+0	1.935125E+0	1.786364E+0	1.772392E+0	1.979203E+0	1.983858E+0	1.982984E+0	1.713153E+0	1.885736E+0	1.842889E+0	1.936503E+0	2.061867E+0	1.987804E+0	2.036078E+0	1.824618E+0	1.870538E+0	1.754697E+0	1.994521E+0	1.834866E+0	1.796629E+0	2.085174E+0	2.168940E+0	1.967613E+0	1.507727E+0	1.618539E+0	1.677537E+0	1.852699E+0	1.827835E+0	1.922200E+0	1.931346E+0	1.641071E+0	2.025425E+0	2.064249E+0	1.899702E+0	1.735006E+0	1.887744E+0	2.039896E+0	1.990501E+0	1.988827E+0	1.983706E+0	2.001123E+0	2.065159E+0	1.741927E+0	1.966350E+0	2.272060E+0	2.025359E+0	1.728975E+0	1.568602E+0	2.069196E+0	1.939409E+0	1.748896E+0	1.793076E+0	2.006265E+0	2.005794E+0	1.840975E+0	1.785784E+0	1.921710E+0	1.905684E+0	1.759855E+0	1.924572E+0	2.090324E+0	2.027457E+0	1.656598E+0	1.585854E+0	1.935748E+0	1.944177E+0	1.880996E+0	1.921646E+0	1.958238E+0	1.941860E+0	2.164928E+0	1.967349E+0	1.881832E+0	2.003488E+0	1.606784E+0	1.867840E+0	1.959726E+0	2.023611E+0	1.613286E+0	1.476158E+0	1.957580E+0	1.953108E+0	1.814934E+0	1.803217E+0	1.969586E+0	2.017143E+0	2.071116E+0	1.987472E+0	1.825754E+0	1.877618E+0	1.679093E+0	2.061958E+0	1.951685E+0	1.896536E+0	1.867719E+0	2.070316E+0	2.029529E+0	1.992036E+0	2.010728E+0	1.821442E+0	1.939131E+0	2.040259E+0	1.946026E+0	1.937312E+0	2.056209E+0	1.612703E+0	1.700016E+0	2.004799E+0	2.000580E+0	1.982455E+0	1.619519E+0	1.931564E+0	1.622061E+0	2.014569E+0	1.802753E+0	1.828083E+0	1.863990E+0	2.010789E+0	1.943209E+0	1.915505E+0	1.861963E+0	1.958334E+0	1.886185E+0	1.832420E+0	1.933976E+0	1.913037E+0	1.640954E+0	1.864531E+0	1.873146E+0	2.034103E+0	1.804447E+0	1.915131E+0	1.896153E+0	1.946014E+0	1.916473E+0	1.935042E+0	1.910099E+0	1.872342E+0	1.733930E+0	1.912828E+0	1.970130E+0	1.949964E+0	1.686482E+0	1.832652E+0	1.765117E+0	1.531505E+0	1.801416E+0	1.829723E+0	2.072112E+0	1.887631E+0	1.942561E+0	1.813893E+0	1.661214E+0	2.052258E+0	1.827780E+0	1.891463E+0	1.872959E+0	2.026293E+0	1.701143E+0	1.898166E+0	1.951391E+0	1.989320E+0
5.349630E+2	2.275735E+0	2.159563E+0	2.293343E+0	2.209832E+0	2.130801E+0	2.118647E+0	2.221378E+0	2.101500E+0	2.054874E+0	2.141807E+0	2.159013E+0	2.107943E+0	1.956431E+0	2.163881E+0	2.123285E+0	2.189290E+0	1.794520E+0	2.075413E+0	1.997954E+0	2.185942E+0	2.253232E+0	2.177125E+0	2.122679E+0	2.096616E+0	2.032599E+0	1.902325E+0	2.059645E+0	2.051744E+0	1.944471E+0	2.201482E+0	2.297280E+0	2.125299E+0	1.616852E+0	1.822831E+0	1.760571E+0	1.940312E+0	1.958778E+0	2.075688E+0	2.095019E+0	1.728974E+0	2.173978E+0	2.298649E+0	2.081406E+0	1.932274E+0	2.054951E+0	2.204671E+0	2.134559E+0	2.066914E+0	2.217523E+0	2.133222E+0	2.083040E+0	1.964788E+0	2.201225E+0	2.335744E+0	2.093484E+0	1.753142E+0	1.670151E+0	2.188065E+0	2.076684E+0	1.827635E+0	1.964778E+0	2.146351E+0	2.104517E+0	1.941556E+0	2.018052E+0	2.057985E+0	2.162535E+0	1.830879E+0	2.142081E+0	2.179489E+0	2.253768E+0	1.724369E+0	1.709178E+0	2.077810E+0	2.126313E+0	2.030970E+0	2.053928E+0	2.096510E+0	2.102801E+0	2.303447E+0	2.141847E+0	2.026852E+0	2.099904E+0	1.737133E+0	2.022535E+0	2.062245E+0	2.185012E+0	1.724386E+0	1.636678E+0	2.106335E+0	2.087697E+0	1.923572E+0	1.876587E+0	2.057590E+0	2.074328E+0	2.176486E+0	2.058558E+0	1.952251E+0	2.055208E+0	1.887750E+0	2.174150E+0	2.154441E+0	2.114471E+0	2.030819E+0	2.202202E+0	2.142438E+0	2.203157E+0	2.151576E+0	1.975297E+0	2.084061E+0	2.242708E+0	2.054719E+0	2.071816E+0	2.254463E+0	1.696092E+0	1.854634E+0	2.124378E+0	2.181177E+0	2.125756E+0	1.797091E+0	2.134013E+0	1.675681E+0	2.207843E+0	1.842456E+0	1.990405E+0	2.079031E+0	2.053760E+0	2.104190E+0	1.901315E+0	1.969308E+0	2.143483E+0	2.023981E+0	2.042044E+0	2.043520E+0	2.085636E+0	1.754397E+0	1.944804E+0	2.007875E+0	2.131388E+0	1.900668E+0	2.002724E+0	2.072995E+0	2.136937E+0	2.126627E+0	2.027632E+0	2.025884E+0	2.074456E+0	1.862425E+0	2.031334E+0	2.171210E+0	2.155654E+0	1.832633E+0	1.933498E+0	1.886170E+0	1.634914E+0	1.899043E+0	1.964635E+0	2.175207E+0	2.108031E+0	2.044959E+0	1.952087E+0	1.734097E+0	2.154716E+0	1.929801E+0	1.998844E+0	2.003767E+0	2.090622E+0	1.838573E+0	2.082484E+0	2.088514E+0	2.171133E+0
5.351140E+2	2.037048E+0	1.965178E+0	2.037288E+0	2.030463E+0	1.919710E+0	1.945754E+0	1.995417E+0	1.937279E+0	1.901031E+0	1.942050E+0	1.925319E+0	1.892370E+0	1.691701E+0	2.009381E+0	1.875026E+0	1.940564E+0	1.583268E+0	1.850101E+0	1.803984E+0	1.990587E+0	2.055354E+0	1.889399E+0	1.959611E+0	2.039822E+0	1.842596E+0	1.782378E+0	1.915907E+0	1.950118E+0	1.738923E+0	2.063593E+0	2.105892E+0	1.882470E+0	1.482547E+0	1.570167E+0	1.653951E+0	1.833700E+0	1.768910E+0	1.912546E+0	1.868920E+0	1.878204E+0	1.873946E+0	1.987833E+0	1.854130E+0	1.873783E+0	1.845515E+0	1.973286E+0	2.000179E+0	1.900479E+0	1.977128E+0	1.908144E+0	2.017276E+0	1.854391E+0	1.944810E+0	2.133990E+0	1.982355E+0	1.828284E+0	1.478274E+0	1.946801E+0	1.872163E+0	1.862114E+0	1.749118E+0	1.968110E+0	1.888562E+0	1.866725E+0	1.747272E+0	1.872560E+0	1.887630E+0	1.765010E+0	1.885030E+0	1.972792E+0	1.954014E+0	1.631563E+0	1.519075E+0	1.900795E+0	1.835913E+0	1.847283E+0	1.784094E+0	1.881018E+0	1.929171E+0	2.079026E+0	1.922035E+0	1.911577E+0	1.902666E+0	1.504224E+0	1.877166E+0	1.889062E+0	1.971451E+0	1.513064E+0	1.504187E+0	1.823376E+0	1.877082E+0	1.764470E+0	1.775878E+0	1.892519E+0	1.866396E+0	1.968311E+0	1.871576E+0	1.828503E+0	1.822088E+0	1.608634E+0	1.902296E+0	1.830128E+0	1.888863E+0	1.818309E+0	1.967047E+0	1.916045E+0	2.000249E+0	1.921646E+0	1.851254E+0	1.910663E+0	1.992119E+0	1.883768E+0	1.884769E+0	1.970154E+0	1.579980E+0	1.708480E+0	1.913844E+0	2.030870E+0	1.909797E+0	1.610074E+0	1.899134E+0	1.556759E+0	1.936449E+0	1.722757E+0	1.739315E+0	1.816986E+0	1.977656E+0	1.996869E+0	1.843986E+0	1.834567E+0	1.918470E+0	1.802408E+0	1.866389E+0	1.852942E+0	1.895831E+0	1.599137E+0	1.748385E+0	1.837726E+0	1.986303E+0	1.735557E+0	1.850074E+0	1.874181E+0	1.896231E+0	1.859688E+0	1.853475E+0	1.817800E+0	1.907565E+0	1.619833E+0	1.865623E+0	1.891733E+0	1.901769E+0	1.613640E+0	1.745873E+0	1.731333E+0	1.510830E+0	1.737331E+0	1.785297E+0	1.982843E+0	1.760764E+0	1.881526E+0	1.740699E+0	1.538817E+0	1.929673E+0	1.721101E+0	1.823456E+0	1.856219E+0	1.980748E+0	1.622193E+0	1.911786E+0	1.886862E+0	2.066895E+0
5.352600E+2	1.913994E+0	1.815137E+0	1.951931E+0	1.893717E+0	1.830857E+0	1.856725E+0	1.884321E+0	1.886554E+0	1.762951E+0	1.863929E+0	1.858959E+0	1.774694E+0	1.653946E+0	1.849152E+0	1.825375E+0	1.837409E+0	1.569622E+0	1.762158E+0	1.715296E+0	1.901738E+0	1.945147E+0	1.823960E+0	1.854278E+0	1.915580E+0	1.734186E+0	1.654289E+0	1.794468E+0	1.832770E+0	1.657846E+0	1.927494E+0	1.973045E+0	1.800805E+0	1.622774E+0	1.498639E+0	1.534069E+0	1.699115E+0	1.801139E+0	1.782434E+0	1.819276E+0	1.740831E+0	1.798502E+0	1.926358E+0	1.786939E+0	1.771694E+0	1.777601E+0	1.902584E+0	1.881923E+0	1.796516E+0	1.894007E+0	1.830470E+0	1.840184E+0	1.730003E+0	1.861180E+0	2.041943E+0	1.844177E+0	1.865637E+0	1.395276E+0	1.902669E+0	1.767678E+0	1.814415E+0	1.703607E+0	1.858859E+0	1.886504E+0	1.815224E+0	1.676766E+0	1.863622E+0	1.769974E+0	1.648737E+0	1.863734E+0	1.902881E+0	1.871582E+0	1.784799E+0	1.442060E+0	1.785790E+0	1.782340E+0	1.978653E+0	1.704514E+0	1.780313E+0	1.828650E+0	2.037681E+0	1.818562E+0	1.702808E+0	1.779255E+0	1.568388E+0	1.731245E+0	1.761161E+0	1.855324E+0	1.659085E+0	1.406853E+0	1.775412E+0	1.840480E+0	1.781686E+0	1.646401E+0	1.810766E+0	1.747877E+0	1.948779E+0	1.767634E+0	1.794954E+0	1.737058E+0	1.592376E+0	1.839723E+0	1.790257E+0	1.792689E+0	1.727995E+0	1.880058E+0	1.892305E+0	1.900553E+0	1.873498E+0	1.703256E+0	1.844413E+0	1.893978E+0	1.797533E+0	1.755895E+0	1.960591E+0	1.550423E+0	1.574740E+0	1.792730E+0	1.880569E+0	1.811912E+0	1.463198E+0	1.832174E+0	1.486679E+0	1.845022E+0	1.668834E+0	1.722069E+0	1.773764E+0	1.845111E+0	1.814121E+0	1.748239E+0	1.746229E+0	1.819862E+0	1.736266E+0	1.764005E+0	1.792921E+0	1.796235E+0	1.531835E+0	1.703977E+0	1.725651E+0	1.894077E+0	1.703103E+0	1.778361E+0	1.761648E+0	1.782030E+0	1.782521E+0	1.819303E+0	1.799235E+0	1.757999E+0	1.644202E+0	1.755480E+0	1.828608E+0	1.747083E+0	1.544483E+0	1.751152E+0	1.613658E+0	1.453954E+0	1.682229E+0	1.703585E+0	1.956349E+0	1.772593E+0	1.865383E+0	1.632366E+0	1.509888E+0	1.811973E+0	1.708282E+0	1.767719E+0	1.754190E+0	1.834447E+0	1.501719E+0	1.755614E+0	1.798137E+0	1.855988E+0
5.354110E+2	1.525741E+0	1.462209E+0	1.494030E+0	1.576412E+0	1.480291E+0	1.455046E+0	1.582325E+0	1.479859E+0	1.385691E+0	1.484498E+0	1.479274E+0	1.399342E+0	1.311355E+0	1.471473E+0	1.472799E+0	1.481064E+0	1.302271E+0	1.417868E+0	1.442358E+0	1.501087E+0	1.525848E+0	1.432835E+0	1.521562E+0	1.558383E+0	1.363125E+0	1.302041E+0	1.478254E+0	1.444071E+0	1.299689E+0	1.528794E+0	1.611094E+0	1.414627E+0	1.433174E+0	1.228480E+0	1.203408E+0	1.399327E+0	1.453627E+0	1.445981E+0	1.420159E+0	1.375728E+0	1.443498E+0	1.534537E+0	1.463844E+0	1.435641E+0	1.480278E+0	1.508759E+0	1.518553E+0	1.434647E+0	1.512483E+0	1.411494E+0	1.526956E+0	1.329369E+0	1.513121E+0	1.655563E+0	1.481805E+0	1.457841E+0	1.206329E+0	1.501355E+0	1.423659E+0	1.446604E+0	1.370553E+0	1.501329E+0	1.401627E+0	1.409995E+0	1.327184E+0	1.470430E+0	1.488080E+0	1.413320E+0	1.472834E+0	1.551800E+0	1.543854E+0	1.398897E+0	1.206140E+0	1.409779E+0	1.513364E+0	1.565359E+0	1.385145E+0	1.447423E+0	1.523529E+0	1.630168E+0	1.486706E+0	1.396291E+0	1.380924E+0	1.258678E+0	1.415267E+0	1.464560E+0	1.502016E+0	1.405592E+0	1.108745E+0	1.423466E+0	1.427703E+0	1.443889E+0	1.337563E+0	1.448863E+0	1.409468E+0	1.569430E+0	1.451023E+0	1.357713E+0	1.378999E+0	1.329519E+0	1.497212E+0	1.510679E+0	1.483184E+0	1.477766E+0	1.446229E+0	1.488737E+0	1.461302E+0	1.484056E+0	1.364137E+0	1.473810E+0	1.496491E+0	1.415326E+0	1.386799E+0	1.556438E+0	1.213171E+0	1.349020E+0	1.474883E+0	1.557098E+0	1.452653E+0	1.397553E+0	1.502610E+0	1.140000E+0	1.511134E+0	1.410471E+0	1.407575E+0	1.397176E+0	1.431950E+0	1.488614E+0	1.380032E+0	1.416921E+0	1.428052E+0	1.412724E+0	1.388917E+0	1.410768E+0	1.464603E+0	1.276590E+0	1.335050E+0	1.326123E+0	1.490312E+0	1.281776E+0	1.435669E+0	1.429400E+0	1.453477E+0	1.459281E+0	1.427454E+0	1.377606E+0	1.456555E+0	1.285850E+0	1.422586E+0	1.398448E+0	1.492640E+0	1.226370E+0	1.337789E+0	1.294976E+0	1.224908E+0	1.357015E+0	1.375072E+0	1.567015E+0	1.457577E+0	1.420486E+0	1.363585E+0	1.222817E+0	1.486304E+0	1.308377E+0	1.415920E+0	1.406238E+0	1.463276E+0	1.228606E+0	1.495934E+0	1.315517E+0	1.434175E+0
5.355630E+2	1.378286E+0	1.290301E+0	1.394185E+0	1.342579E+0	1.299894E+0	1.282676E+0	1.414605E+0	1.297581E+0	1.279685E+0	1.318777E+0	1.286551E+0	1.287751E+0	1.206121E+0	1.337258E+0	1.338384E+0	1.347991E+0	1.097590E+0	1.282792E+0	1.232366E+0	1.397889E+0	1.432171E+0	1.289473E+0	1.321020E+0	1.400860E+0	1.240183E+0	1.190777E+0	1.266465E+0	1.350304E+0	1.141832E+0	1.332146E+0	1.454606E+0	1.339915E+0	1.283072E+0	1.151804E+0	1.094334E+0	1.247853E+0	1.241092E+0	1.324004E+0	1.272699E+0	1.280468E+0	1.370388E+0	1.372520E+0	1.287981E+0	1.295270E+0	1.309647E+0	1.398326E+0	1.382560E+0	1.299447E+0	1.389298E+0	1.300371E+0	1.353321E+0	1.241780E+0	1.351364E+0	1.470399E+0	1.319946E+0	1.333043E+0	1.037888E+0	1.368953E+0	1.233588E+0	1.314422E+0	1.259877E+0	1.300087E+0	1.373349E+0	1.268115E+0	1.285116E+0	1.318517E+0	1.290633E+0	1.250651E+0	1.313125E+0	1.316227E+0	1.433944E+0	1.319043E+0	1.062343E+0	1.294777E+0	1.286120E+0	1.396785E+0	1.252862E+0	1.336808E+0	1.380866E+0	1.460504E+0	1.305469E+0	1.262425E+0	1.312606E+0	1.171273E+0	1.302262E+0	1.333179E+0	1.315516E+0	1.328046E+0	1.022116E+0	1.334536E+0	1.338164E+0	1.349494E+0	1.164920E+0	1.260363E+0	1.298745E+0	1.366395E+0	1.303470E+0	1.223514E+0	1.264467E+0	1.225460E+0	1.344565E+0	1.307439E+0	1.287251E+0	1.324762E+0	1.407505E+0	1.326618E+0	1.389754E+0	1.375110E+0	1.222528E+0	1.290064E+0	1.339100E+0	1.316329E+0	1.275445E+0	1.395164E+0	1.083864E+0	1.228260E+0	1.349684E+0	1.431367E+0	1.346187E+0	1.339936E+0	1.315859E+0	1.096465E+0	1.342742E+0	1.334032E+0	1.253372E+0	1.272903E+0	1.367754E+0	1.308394E+0	1.254732E+0	1.291682E+0	1.311088E+0	1.314061E+0	1.278282E+0	1.328734E+0	1.338414E+0	1.310722E+0	1.307723E+0	1.187336E+0	1.379531E+0	1.334730E+0	1.312214E+0	1.287393E+0	1.334001E+0	1.351048E+0	1.318884E+0	1.259091E+0	1.300056E+0	1.231020E+0	1.283429E+0	1.368919E+0	1.364293E+0	1.319959E+0	1.224624E+0	1.205454E+0	1.047567E+0	1.318687E+0	1.261000E+0	1.406326E+0	1.267276E+0	1.315565E+0	1.223633E+0	1.056469E+0	1.325301E+0	1.244254E+0	1.303426E+0	1.311009E+0	1.367070E+0	1.218664E+0	1.318880E+0	1.412310E+0	1.366299E+0
5.357190E+2	1.077545E+0	1.103813E+0	1.132217E+0	1.095723E+0	9.972535E-1	1.046638E+0	1.082943E+0	1.048233E+0	1.004077E+0	1.103395E+0	1.052279E+0	1.021963E+0	9.654571E-1	1.013162E+0	1.077587E+0	1.003260E+0	9.050377E-1	9.959762E-1	9.748809E-1	1.091609E+0	1.123586E+0	1.047705E+0	1.056668E+0	1.088478E+0	9.333881E-1	9.264567E-1	1.068758E+0	1.060086E+0	9.029017E-1	1.132499E+0	1.133747E+0	1.015856E+0	1.011504E+0	8.780422E-1	9.081225E-1	1.049401E+0	9.786963E-1	1.113592E+0	1.016614E+0	9.869164E-1	1.065679E+0	1.137541E+0	1.052525E+0	9.810177E-1	1.023740E+0	1.077538E+0	1.054129E+0	1.050465E+0	1.104650E+0	1.051479E+0	1.089700E+0	1.045868E+0	1.046375E+0	1.136463E+0	1.058560E+0	1.085207E+0	8.528454E-1	1.023538E+0	1.061857E+0	1.078792E+0	1.031806E+0	1.036117E+0	1.051984E+0	1.001846E+0	9.924167E-1	1.091763E+0	1.082123E+0	9.997712E-1	1.038330E+0	1.086732E+0	1.116205E+0	1.061340E+0	8.693173E-1	9.937426E-1	1.064509E+0	1.146252E+0	9.751251E-1	1.076961E+0	1.071179E+0	1.164132E+0	1.064229E+0	1.007437E+0	1.050907E+0	9.429089E-1	1.030720E+0	1.050512E+0	1.040449E+0	1.028296E+0	9.543412E-1	1.086071E+0	1.057721E+0	1.119743E+0	9.913200E-1	1.035930E+0	1.025834E+0	1.129943E+0	1.077660E+0	9.727204E-1	1.057960E+0	9.214143E-1	1.101837E+0	1.047310E+0	1.045787E+0	1.074537E+0	1.148780E+0	1.082277E+0	1.088905E+0	1.116891E+0	9.829641E-1	1.087162E+0	1.090361E+0	1.026994E+0	1.032718E+0	1.155477E+0	8.706404E-1	9.997176E-1	1.035924E+0	1.120472E+0	1.095918E+0	1.057995E+0	1.027097E+0	8.655217E-1	1.108962E+0	1.034784E+0	9.743837E-1	1.072455E+0	1.035879E+0	1.021363E+0	1.036053E+0	1.043442E+0	1.042538E+0	1.071543E+0	1.022079E+0	1.073630E+0	1.043280E+0	1.099213E+0	9.934531E-1	9.881537E-1	1.102291E+0	1.077376E+0	1.032015E+0	1.044103E+0	1.143663E+0	1.069551E+0	1.027887E+0	1.035172E+0	1.060404E+0	1.028856E+0	1.047401E+0	1.089443E+0	1.072298E+0	1.090823E+0	9.760192E-1	9.993809E-1	8.485094E-1	1.055161E+0	1.004333E+0	1.139090E+0	1.066766E+0	1.064364E+0	9.718333E-1	9.680103E-1	1.102701E+0	1.055380E+0	1.072814E+0	1.011721E+0	1.093817E+0	1.139129E+0	1.003813E+0	1.099079E+0	1.121453E+0
5.358600E+2	9.666906E-1	9.124661E-1	9.668787E-1	9.773273E-1	9.014002E-1	9.513943E-1	9.696920E-1	9.368905E-1	8.899193E-1	9.856601E-1	9.403355E-1	9.220388E-1	8.767417E-1	9.299265E-1	9.135855E-1	9.782527E-1	7.544325E-1	9.063106E-1	9.348276E-1	9.911703E-1	9.873260E-1	9.542937E-1	9.548782E-1	1.001064E+0	8.657698E-1	8.607838E-1	9.250237E-1	9.249319E-1	8.380425E-1	9.694233E-1	1.011033E+0	9.176833E-1	9.152219E-1	7.951927E-1	8.113312E-1	8.298398E-1	9.635866E-1	8.904743E-1	9.335454E-1	9.125061E-1	9.212200E-1	9.967827E-1	9.403470E-1	9.214640E-1	9.700968E-1	9.799582E-1	9.654370E-1	9.407012E-1	9.569443E-1	9.431913E-1	9.777911E-1	8.971202E-1	9.557291E-1	1.066894E+0	9.566123E-1	9.590901E-1	7.288339E-1	9.729321E-1	9.262501E-1	9.270704E-1	8.332132E-1	9.556220E-1	9.182963E-1	8.968943E-1	8.828017E-1	9.353802E-1	1.008737E+0	9.104166E-1	9.490963E-1	9.524796E-1	9.298579E-1	9.486767E-1	7.767041E-1	9.723203E-1	9.686476E-1	1.042202E+0	8.892211E-1	9.475616E-1	9.249637E-1	1.033127E+0	9.625896E-1	8.995987E-1	9.153747E-1	8.191271E-1	8.787660E-1	9.469997E-1	9.730346E-1	9.004160E-1	9.507737E-1	9.443246E-1	9.619880E-1	9.921044E-1	8.810208E-1	9.375131E-1	9.291473E-1	1.023028E+0	9.516121E-1	8.841720E-1	8.884752E-1	8.509575E-1	9.713041E-1	9.340191E-1	9.593296E-1	1.001753E+0	1.005668E+0	1.000058E+0	1.007976E+0	1.003731E+0	9.052392E-1	9.582816E-1	9.595107E-1	9.371832E-1	9.025966E-1	9.833626E-1	8.120563E-1	8.834719E-1	9.909553E-1	1.010744E+0	9.622077E-1	9.394553E-1	9.025953E-1	7.848249E-1	9.446220E-1	9.607122E-1	9.201084E-1	9.055020E-1	9.835874E-1	9.413779E-1	9.001164E-1	8.991948E-1	9.664836E-1	9.265830E-1	9.386178E-1	9.090631E-1	9.509846E-1	9.598144E-1	8.710466E-1	9.091780E-1	9.864473E-1	9.407298E-1	9.623495E-1	9.101323E-1	9.714784E-1	9.360803E-1	9.270313E-1	9.286729E-1	8.888929E-1	9.136522E-1	9.303722E-1	9.672666E-1	9.562847E-1	9.340724E-1	8.399895E-1	8.811415E-1	7.564783E-1	9.251948E-1	8.798383E-1	1.026205E+0	9.716165E-1	9.407805E-1	8.927807E-1	7.922054E-1	9.386479E-1	9.661899E-1	8.928242E-1	9.232942E-1	9.685764E-1	9.899997E-1	9.012129E-1	9.686769E-1	9.372139E-1
5.360070E+2	8.059775E-1	7.199036E-1	7.918771E-1	7.535581E-1	7.220786E-1	7.277799E-1	7.475062E-1	7.262367E-1	7.007441E-1	7.128049E-1	7.931947E-1	7.424788E-1	6.823222E-1	7.499311E-1	7.179876E-1	7.326521E-1	6.179775E-1	7.212316E-1	7.116738E-1	7.798082E-1	7.829372E-1	7.130243E-1	7.158497E-1	7.698849E-1	6.897401E-1	6.295717E-1	7.243831E-1	7.625366E-1	6.596787E-1	8.063475E-1	8.190809E-1	7.239423E-1	7.384575E-1	6.011917E-1	6.005529E-1	6.883920E-1	7.097526E-1	7.059830E-1	7.261219E-1	7.232109E-1	7.159358E-1	7.813364E-1	6.978799E-1	7.156863E-1	7.412561E-1	7.468186E-1	7.767648E-1	7.158148E-1	7.625952E-1	7.220802E-1	7.655095E-1	7.545918E-1	7.403842E-1	8.378483E-1	7.251796E-1	7.310242E-1	5.970096E-1	7.775695E-1	7.661900E-1	7.276479E-1	7.065067E-1	7.820836E-1	7.352471E-1	6.894193E-1	6.985308E-1	7.477209E-1	7.303334E-1	7.254072E-1	7.468015E-1	7.903646E-1	8.189489E-1	7.552931E-1	5.744165E-1	7.225855E-1	7.188447E-1	8.265447E-1	7.074008E-1	7.247635E-1	7.295039E-1	8.194382E-1	7.574748E-1	7.110144E-1	7.330118E-1	6.326965E-1	7.092577E-1	7.583892E-1	7.643951E-1	7.017917E-1	7.326711E-1	7.190375E-1	7.226559E-1	7.955991E-1	6.585047E-1	7.271412E-1	7.643624E-1	8.071397E-1	7.526840E-1	6.834261E-1	7.265101E-1	6.656034E-1	7.630984E-1	7.434196E-1	7.546992E-1	7.573708E-1	7.823005E-1	7.684560E-1	7.827793E-1	7.503274E-1	7.002773E-1	7.377847E-1	7.977990E-1	7.315364E-1	7.268072E-1	7.908491E-1	6.495000E-1	6.859668E-1	7.497580E-1	7.598554E-1	7.810659E-1	7.500764E-1	7.268280E-1	5.952921E-1	7.889612E-1	7.704981E-1	7.156866E-1	7.515169E-1	7.236806E-1	8.021649E-1	6.903016E-1	7.622155E-1	7.545819E-1	7.794181E-1	7.197765E-1	7.489983E-1	7.663954E-1	7.579233E-1	7.076490E-1	6.827027E-1	8.087448E-1	7.676443E-1	7.349113E-1	7.584786E-1	7.664980E-1	7.749461E-1	7.131936E-1	7.069373E-1	7.404811E-1	7.231219E-1	6.928717E-1	7.524406E-1	7.606867E-1	7.307539E-1	6.793345E-1	6.863296E-1	6.111925E-1	7.634860E-1	7.142121E-1	7.929493E-1	6.743422E-1	7.491003E-1	6.708470E-1	6.342047E-1	7.477601E-1	7.493330E-1	7.307308E-1	7.569068E-1	7.977932E-1	7.665981E-1	7.740972E-1	7.374499E-1	8.160015E-1
5.362840E+2	6.245782E-1	6.233190E-1	6.576736E-1	6.612084E-1	5.993000E-1	5.952671E-1	6.337161E-1	6.028540E-1	6.050688E-1	6.084617E-1	6.045066E-1	5.898024E-1	6.412676E-1	5.839817E-1	6.427575E-1	6.062793E-1	5.366102E-1	6.327151E-1	5.646214E-1	6.418437E-1	6.561962E-1	5.741572E-1	6.490023E-1	6.576227E-1	6.137396E-1	5.600993E-1	6.105692E-1	5.571852E-1	5.557130E-1	6.025030E-1	6.541486E-1	6.209911E-1	6.120559E-1	5.095953E-1	4.973747E-1	5.970838E-1	6.075136E-1	6.028103E-1	5.914435E-1	5.919712E-1	5.966254E-1	6.308114E-1	6.283526E-1	5.747787E-1	5.706235E-1	6.241136E-1	6.472204E-1	6.230046E-1	6.262513E-1	6.013195E-1	6.195663E-1	5.851128E-1	6.086733E-1	6.906811E-1	6.188851E-1	6.079836E-1	4.954571E-1	6.516427E-1	6.044621E-1	6.173045E-1	5.627342E-1	6.467023E-1	6.174987E-1	5.572578E-1	5.883242E-1	5.913391E-1	6.150118E-1	5.764835E-1	6.448934E-1	6.247034E-1	6.091214E-1	6.167303E-1	4.598685E-1	6.143478E-1	6.133968E-1	6.556461E-1	5.614173E-1	6.125819E-1	6.127360E-1	6.814529E-1	6.503248E-1	5.973324E-1	6.107021E-1	5.079043E-1	6.192917E-1	6.329803E-1	6.364565E-1	5.893292E-1	5.665463E-1	5.999252E-1	6.139705E-1	6.317462E-1	5.625923E-1	6.183098E-1	6.380447E-1	6.411111E-1	6.057280E-1	6.229276E-1	6.102423E-1	5.496211E-1	6.600740E-1	6.111667E-1	6.058312E-1	6.394294E-1	6.330144E-1	6.184931E-1	6.338214E-1	6.492063E-1	5.799622E-1	6.213244E-1	6.354711E-1	6.243762E-1	5.898039E-1	6.206469E-1	5.138599E-1	6.030146E-1	6.225165E-1	6.398403E-1	6.362525E-1	6.192588E-1	6.185427E-1	5.103477E-1	6.228853E-1	6.039866E-1	5.690917E-1	5.856453E-1	6.325582E-1	6.199218E-1	5.703230E-1	6.157316E-1	6.717089E-1	6.317024E-1	6.033200E-1	6.084417E-1	6.256078E-1	6.214072E-1	6.148482E-1	6.002422E-1	6.726569E-1	6.383993E-1	6.258032E-1	6.014655E-1	6.382384E-1	6.079883E-1	6.255641E-1	6.015309E-1	6.111252E-1	6.134565E-1	6.230478E-1	6.389183E-1	6.385080E-1	6.390077E-1	5.550319E-1	5.613346E-1	4.871048E-1	6.688563E-1	5.293909E-1	6.437809E-1	6.313366E-1	6.436764E-1	5.953079E-1	5.201542E-1	6.410348E-1	6.286634E-1	5.783524E-1	6.156340E-1	6.401038E-1	6.285803E-1	6.615079E-1	6.137706E-1	6.147919E-1
5.365090E+2	4.649262E-1	4.823905E-1	5.148818E-1	5.286050E-1	4.598276E-1	4.808716E-1	4.530551E-1	4.777512E-1	5.055889E-1	4.879365E-1	4.896791E-1	4.837910E-1	4.968684E-1	4.809786E-1	4.566885E-1	4.544534E-1	4.744476E-1	4.798233E-1	4.816540E-1	5.022237E-1	5.204381E-1	4.532732E-1	4.702367E-1	5.165189E-1	5.002976E-1	4.287530E-1	4.621424E-1	4.964180E-1	5.471283E-1	5.149694E-1	5.077925E-1	4.550524E-1	5.182423E-1	3.886661E-1	3.809311E-1	4.429684E-1	4.725379E-1	5.052287E-1	4.493925E-1	4.644109E-1	4.960304E-1	4.952240E-1	4.390531E-1	4.530130E-1	4.992891E-1	5.002398E-1	5.010130E-1	4.663882E-1	5.162199E-1	4.635502E-1	5.145790E-1	4.700533E-1	5.155244E-1	5.258537E-1	4.763534E-1	4.396817E-1	3.885333E-1	4.939409E-1	4.460689E-1	4.920186E-1	4.856762E-1	4.742091E-1	4.745561E-1	4.518200E-1	4.793027E-1	4.779613E-1	4.653267E-1	4.642176E-1	4.821446E-1	5.046371E-1	4.917180E-1	5.088154E-1	3.974756E-1	4.869434E-1	4.712963E-1	5.126504E-1	4.523248E-1	4.670065E-1	4.705834E-1	5.579643E-1	4.776612E-1	4.597456E-1	5.170418E-1	4.169621E-1	4.338752E-1	4.498433E-1	5.114695E-1	4.482971E-1	5.038671E-1	4.905158E-1	4.771290E-1	4.916404E-1	4.551710E-1	4.938569E-1	4.675418E-1	5.054104E-1	4.922252E-1	4.359309E-1	4.667875E-1	4.363491E-1	4.998747E-1	4.759968E-1	4.881687E-1	4.991748E-1	5.005649E-1	4.986391E-1	5.165312E-1	5.216007E-1	4.420795E-1	5.012411E-1	4.873382E-1	4.774125E-1	4.853311E-1	5.314021E-1	3.898313E-1	4.568608E-1	4.569488E-1	5.289695E-1	4.964859E-1	5.011926E-1	4.903786E-1	3.962036E-1	5.216187E-1	5.346555E-1	4.498876E-1	4.867704E-1	4.482414E-1	5.070324E-1	4.556638E-1	5.016754E-1	4.807867E-1	5.010724E-1	4.655132E-1	4.783891E-1	5.124551E-1	4.973880E-1	4.793475E-1	4.904886E-1	5.107001E-1	4.897963E-1	4.854468E-1	4.900021E-1	4.748400E-1	4.730628E-1	4.536125E-1	4.682710E-1	4.788827E-1	4.190493E-1	4.799570E-1	5.157241E-1	4.961528E-1	5.099174E-1	4.119660E-1	4.312724E-1	3.878351E-1	5.233187E-1	4.789348E-1	5.625734E-1	5.012450E-1	5.089961E-1	4.535980E-1	4.083291E-1	4.708827E-1	4.986661E-1	4.576768E-1	4.748846E-1	5.245408E-1	4.905626E-1	4.926250E-1	5.263885E-1	4.766133E-1
5.367660E+2	5.174366E-1	4.975765E-1	5.315230E-1	5.297885E-1	5.061389E-1	5.088236E-1	5.307126E-1	4.678635E-1	4.702542E-1	4.957487E-1	4.948724E-1	4.964718E-1	5.096095E-1	4.825394E-1	5.138634E-1	4.915167E-1	4.269415E-1	4.936182E-1	4.587665E-1	5.198832E-1	4.993980E-1	4.667604E-1	4.869488E-1	5.085315E-1	5.058863E-1	4.244113E-1	4.674220E-1	5.304686E-1	4.946682E-1	5.233630E-1	5.083554E-1	4.689528E-1	5.389797E-1	4.020459E-1	4.104104E-1	4.609135E-1	4.811003E-1	4.650780E-1	4.567657E-1	4.501013E-1	5.270274E-1	5.153326E-1	4.799508E-1	4.641793E-1	5.192624E-1	4.745297E-1	4.881124E-1	4.730809E-1	4.928977E-1	4.970004E-1	5.093875E-1	5.104797E-1	5.475758E-1	5.692012E-1	5.000281E-1	4.994443E-1	4.163622E-1	5.045329E-1	4.716347E-1	4.891454E-1	5.275667E-1	5.087073E-1	4.899814E-1	4.421023E-1	5.130752E-1	5.243176E-1	4.728985E-1	4.785372E-1	5.054665E-1	5.091967E-1	4.952153E-1	4.760090E-1	3.940640E-1	4.948357E-1	4.927247E-1	5.411332E-1	5.134586E-1	5.275322E-1	5.000290E-1	5.429308E-1	5.425629E-1	4.618709E-1	4.916986E-1	4.179729E-1	4.898292E-1	4.717400E-1	4.986758E-1	4.755057E-1	5.227221E-1	4.991386E-1	5.007807E-1	4.975766E-1	5.189526E-1	5.157271E-1	4.904140E-1	5.367652E-1	5.459901E-1	4.903797E-1	5.014942E-1	4.195476E-1	5.085051E-1	5.129502E-1	4.866339E-1	5.283946E-1	5.336769E-1	4.997977E-1	5.177040E-1	5.607253E-1	4.937185E-1	5.240157E-1	5.175820E-1	4.983344E-1	4.853309E-1	5.320396E-1	4.283597E-1	4.811263E-1	5.126493E-1	5.506866E-1	4.874039E-1	4.879689E-1	4.940406E-1	4.455772E-1	5.181464E-1	4.985085E-1	4.402500E-1	5.294539E-1	5.227962E-1	5.131076E-1	4.686668E-1	4.698071E-1	4.697723E-1	5.027264E-1	4.737623E-1	5.018986E-1	5.249697E-1	5.252686E-1	4.577129E-1	4.637761E-1	5.315068E-1	4.721465E-1	4.721288E-1	5.001839E-1	5.310631E-1	4.861670E-1	4.899866E-1	4.857481E-1	5.297010E-1	4.567124E-1	4.863494E-1	5.029980E-1	4.989557E-1	4.974691E-1	4.436279E-1	5.275518E-1	3.914545E-1	5.370941E-1	4.904519E-1	5.602695E-1	4.829682E-1	5.069786E-1	4.740928E-1	5.123656E-1	5.074743E-1	4.881730E-1	4.648354E-1	4.968597E-1	5.142941E-1	4.923170E-1	4.889935E-1	5.156330E-1	4.984305E-1
5.370170E+2	5.216796E-1	4.957541E-1	5.631951E-1	5.463642E-1	4.905223E-1	5.186587E-1	5.528234E-1	4.897884E-1	5.028707E-1	5.013282E-1	4.856399E-1	4.903850E-1	5.015876E-1	5.231165E-1	4.802605E-1	5.066991E-1	4.668673E-1	4.907442E-1	5.085469E-1	5.071901E-1	5.409773E-1	5.137154E-1	4.909999E-1	5.529041E-1	5.293566E-1	4.689168E-1	5.008621E-1	5.194681E-1	5.385445E-1	5.407496E-1	5.415669E-1	4.772060E-1	5.350298E-1	4.324061E-1	4.300633E-1	5.189705E-1	4.891586E-1	5.250497E-1	5.344263E-1	4.913947E-1	4.919361E-1	5.273973E-1	5.138377E-1	4.971469E-1	5.329588E-1	5.183530E-1	5.300400E-1	5.011918E-1	5.736273E-1	5.123084E-1	4.915049E-1	5.027053E-1	4.994982E-1	5.633143E-1	5.048596E-1	4.757146E-1	4.022035E-1	5.527848E-1	4.833058E-1	4.925930E-1	5.363582E-1	5.317065E-1	5.090060E-1	4.741707E-1	4.899675E-1	5.042116E-1	4.938660E-1	4.384423E-1	5.120574E-1	5.345270E-1	5.316851E-1	4.902541E-1	4.208733E-1	5.134388E-1	4.944157E-1	5.585722E-1	5.297962E-1	4.993565E-1	4.919059E-1	5.574273E-1	5.535840E-1	5.006501E-1	5.208982E-1	4.523288E-1	4.777606E-1	5.095620E-1	5.331208E-1	4.854825E-1	5.303655E-1	5.217757E-1	5.199269E-1	5.296347E-1	5.448488E-1	5.126033E-1	5.262826E-1	5.280271E-1	5.322503E-1	5.090790E-1	4.858763E-1	4.650737E-1	5.435655E-1	4.983630E-1	5.214211E-1	5.214884E-1	5.611774E-1	5.241157E-1	5.083210E-1	4.945151E-1	5.245962E-1	5.172869E-1	5.354812E-1	4.973138E-1	5.553965E-1	5.709243E-1	4.283594E-1	5.036972E-1	5.146928E-1	5.181109E-1	5.075867E-1	4.870243E-1	5.651843E-1	3.871778E-1	5.598109E-1	4.973235E-1	5.868452E-1	5.197286E-1	4.963912E-1	5.515803E-1	5.608667E-1	4.910528E-1	5.091101E-1	5.506787E-1	5.159777E-1	5.049001E-1	5.150619E-1	5.286332E-1	5.123686E-1	4.841010E-1	5.461283E-1	5.085858E-1	5.581866E-1	5.092937E-1	5.193494E-1	5.191704E-1	4.916403E-1	5.332626E-1	5.129540E-1	4.777593E-1	4.966751E-1	5.248876E-1	5.163292E-1	5.246704E-1	4.764630E-1	4.599874E-1	4.224764E-1	5.185269E-1	5.156797E-1	5.579662E-1	5.136096E-1	5.332088E-1	5.080568E-1	5.479715E-1	4.757613E-1	4.893397E-1	4.944931E-1	4.973832E-1	5.080318E-1	5.192186E-1	4.962578E-1	5.035343E-1	5.299452E-1
5.372640E+2	5.784332E-1	5.467802E-1	5.776889E-1	6.250978E-1	5.562200E-1	5.259053E-1	5.522842E-1	5.452462E-1	5.517952E-1	5.454095E-1	5.358412E-1	4.949502E-1	5.501924E-1	5.288388E-1	5.559916E-1	5.718952E-1	4.891040E-1	5.378763E-1	5.131246E-1	5.640317E-1	5.474895E-1	5.701609E-1	5.497445E-1	5.724279E-1	5.645632E-1	4.743445E-1	5.278488E-1	5.294209E-1	6.072185E-1	5.239624E-1	5.905401E-1	5.202113E-1	5.686053E-1	4.560774E-1	4.688783E-1	5.057761E-1	5.395226E-1	5.560524E-1	5.388505E-1	5.151081E-1	5.562703E-1	5.768063E-1	5.214331E-1	5.317084E-1	5.854610E-1	5.563328E-1	5.660540E-1	5.333187E-1	5.682456E-1	5.236469E-1	5.751482E-1	5.312111E-1	5.701116E-1	6.409119E-1	5.449620E-1	5.578885E-1	4.476096E-1	5.539615E-1	5.338801E-1	5.845462E-1	6.056594E-1	5.803185E-1	5.239177E-1	5.193585E-1	5.586990E-1	5.114721E-1	5.299769E-1	5.025946E-1	5.369010E-1	5.471921E-1	5.701538E-1	5.852191E-1	4.520695E-1	5.613564E-1	5.361440E-1	5.789168E-1	5.788088E-1	5.348372E-1	5.624744E-1	6.116549E-1	5.695033E-1	5.107432E-1	5.197960E-1	4.548550E-1	5.567549E-1	5.478813E-1	5.557560E-1	5.185865E-1	5.619602E-1	5.713601E-1	5.362578E-1	5.225104E-1	6.115079E-1	5.662373E-1	5.361590E-1	5.933074E-1	5.794434E-1	5.332786E-1	5.101710E-1	4.845848E-1	5.705355E-1	5.537924E-1	5.459766E-1	5.772711E-1	5.752081E-1	5.768050E-1	5.564098E-1	5.823942E-1	6.017890E-1	5.317798E-1	6.083131E-1	5.565071E-1	5.610263E-1	5.658246E-1	4.441931E-1	5.302200E-1	5.586399E-1	5.758322E-1	5.519889E-1	5.791160E-1	5.761704E-1	4.291189E-1	6.049464E-1	5.625063E-1	5.827872E-1	5.332364E-1	5.585208E-1	5.652492E-1	5.856899E-1	5.067072E-1	5.479243E-1	6.041429E-1	5.324757E-1	5.609223E-1	5.531269E-1	5.435343E-1	5.675939E-1	5.288151E-1	5.556882E-1	5.712149E-1	5.904580E-1	5.510926E-1	5.691301E-1	5.555709E-1	6.040702E-1	5.283472E-1	5.730119E-1	5.165300E-1	5.542063E-1	5.869937E-1	5.460331E-1	5.970530E-1	6.054564E-1	4.932066E-1	4.597022E-1	5.682382E-1	6.505936E-1	5.694845E-1	5.458633E-1	5.735619E-1	5.543168E-1	5.896969E-1	5.715097E-1	5.266477E-1	5.584103E-1	5.580779E-1	5.837455E-1	5.671738E-1	5.970416E-1	5.895719E-1	5.420665E-1
5.375110E+2	6.845144E-1	6.640187E-1	7.312176E-1	7.026475E-1	6.811522E-1	6.666997E-1	6.995095E-1	6.544423E-1	7.181392E-1	6.653757E-1	6.714417E-1	6.532065E-1	6.757154E-1	6.687773E-1	6.673324E-1	6.875509E-1	6.351611E-1	6.574305E-1	6.166912E-1	7.251745E-1	7.348458E-1	6.445899E-1	6.920473E-1	6.971144E-1	7.154459E-1	6.328275E-1	6.481159E-1	6.813391E-1	7.040309E-1	6.474686E-1	7.070623E-1	6.666024E-1	6.915510E-1	5.682583E-1	5.568250E-1	6.313902E-1	6.951473E-1	6.754884E-1	6.710712E-1	6.488007E-1	6.592048E-1	7.009035E-1	6.569816E-1	6.316731E-1	6.950306E-1	7.035792E-1	7.149492E-1	6.613780E-1	7.398712E-1	6.563141E-1	7.147466E-1	6.441969E-1	6.837937E-1	7.586456E-1	6.758973E-1	6.470929E-1	5.662505E-1	6.598813E-1	6.628176E-1	6.897172E-1	7.618443E-1	6.968825E-1	6.519489E-1	6.636677E-1	6.931985E-1	6.723226E-1	6.784968E-1	6.320437E-1	6.793694E-1	6.986688E-1	7.010459E-1	6.806157E-1	5.320095E-1	6.808687E-1	6.759882E-1	6.974994E-1	6.973869E-1	6.564107E-1	6.893969E-1	7.576936E-1	7.293094E-1	6.270810E-1	6.608386E-1	6.084453E-1	6.928005E-1	6.344732E-1	7.092831E-1	6.741298E-1	7.280847E-1	6.516661E-1	6.837996E-1	6.994243E-1	7.477029E-1	7.021462E-1	6.707942E-1	7.156442E-1	7.293865E-1	6.641763E-1	6.599885E-1	6.238710E-1	7.145530E-1	6.743757E-1	7.009845E-1	7.053070E-1	7.430140E-1	6.746568E-1	7.294120E-1	6.943491E-1	7.418020E-1	6.994817E-1	7.422497E-1	6.463180E-1	6.867697E-1	7.137158E-1	5.840554E-1	6.554945E-1	6.823043E-1	7.301375E-1	6.498767E-1	6.934048E-1	7.561227E-1	5.613141E-1	7.125780E-1	7.041302E-1	7.714839E-1	6.801971E-1	6.874386E-1	6.867444E-1	7.281275E-1	6.476005E-1	6.879683E-1	7.171349E-1	6.562106E-1	6.904749E-1	6.834870E-1	7.093735E-1	7.110651E-1	6.461175E-1	6.771556E-1	7.124160E-1	7.451569E-1	6.855986E-1	6.991467E-1	6.861284E-1	6.900462E-1	6.725297E-1	6.671407E-1	6.882284E-1	6.850038E-1	7.157880E-1	6.827838E-1	7.026306E-1	6.951652E-1	6.390347E-1	5.543194E-1	7.113798E-1	7.564414E-1	7.163498E-1	6.334868E-1	7.163132E-1	6.913418E-1	7.443604E-1	6.898232E-1	6.671380E-1	6.893125E-1	6.569695E-1	6.867839E-1	7.104548E-1	7.141700E-1	6.608227E-1	6.438829E-1
5.377740E+2	8.378019E-1	8.359270E-1	8.299916E-1	8.660349E-1	8.211633E-1	8.478694E-1	8.337913E-1	8.006101E-1	7.926139E-1	7.886911E-1	8.289697E-1	8.464616E-1	8.380463E-1	8.373278E-1	8.353465E-1	8.291065E-1	7.170338E-1	7.493954E-1	7.751869E-1	8.223016E-1	8.385433E-1	8.174246E-1	8.318188E-1	8.639545E-1	8.434172E-1	7.299803E-1	7.853963E-1	8.123032E-1	8.666566E-1	7.937570E-1	8.945109E-1	7.825855E-1	8.895464E-1	6.989644E-1	6.963614E-1	7.596437E-1	8.104809E-1	8.203368E-1	7.629861E-1	8.164275E-1	8.165309E-1	8.347670E-1	8.071366E-1	7.353597E-1	8.605271E-1	8.817938E-1	8.756697E-1	8.206720E-1	8.355506E-1	8.258321E-1	8.243487E-1	8.017561E-1	8.004804E-1	9.015315E-1	8.319575E-1	8.158346E-1	6.824511E-1	8.311178E-1	8.195435E-1	8.190257E-1	8.451080E-1	7.904466E-1	8.247145E-1	7.452967E-1	8.383633E-1	8.125089E-1	8.491499E-1	7.718031E-1	8.157536E-1	8.734485E-1	8.624132E-1	7.760125E-1	6.875027E-1	8.375876E-1	8.079388E-1	8.352637E-1	8.365196E-1	8.035520E-1	8.290111E-1	8.854778E-1	8.597257E-1	7.779487E-1	8.222654E-1	7.211120E-1	8.156802E-1	8.136285E-1	8.716672E-1	7.634652E-1	8.310214E-1	8.235964E-1	8.217676E-1	7.932248E-1	9.049988E-1	8.052497E-1	8.038697E-1	8.564859E-1	8.422911E-1	8.247732E-1	7.785705E-1	7.403953E-1	8.391534E-1	7.896111E-1	8.160888E-1	8.370606E-1	8.951069E-1	8.338834E-1	8.584314E-1	8.424197E-1	8.892678E-1	8.200829E-1	8.959369E-1	7.795042E-1	8.331563E-1	8.851934E-1	6.721945E-1	7.683548E-1	8.366297E-1	8.644398E-1	8.123489E-1	8.043870E-1	8.701619E-1	6.441352E-1	8.312031E-1	8.173113E-1	9.124994E-1	8.368840E-1	8.018602E-1	8.553194E-1	8.463328E-1	7.840203E-1	8.075574E-1	8.444573E-1	7.915910E-1	8.360338E-1	8.237540E-1	8.035891E-1	8.283468E-1	7.936172E-1	8.571071E-1	8.530483E-1	8.870492E-1	8.061716E-1	8.221352E-1	8.574548E-1	8.250723E-1	8.068825E-1	7.630023E-1	7.330921E-1	7.617126E-1	8.552724E-1	8.475569E-1	8.400195E-1	8.968643E-1	7.933072E-1	6.778897E-1	8.820722E-1	9.259071E-1	8.551509E-1	8.291611E-1	8.504891E-1	8.236824E-1	8.172411E-1	8.307019E-1	7.749830E-1	7.859550E-1	8.087064E-1	8.495975E-1	8.513968E-1	8.621701E-1	7.992907E-1	8.523660E-1
5.380110E+2	9.136505E-1	9.130735E-1	9.089029E-1	8.944497E-1	8.744746E-1	8.897972E-1	9.130669E-1	8.607973E-1	8.355585E-1	8.723887E-1	8.814796E-1	8.616782E-1	8.592811E-1	8.862283E-1	8.719584E-1	8.527732E-1	7.877879E-1	8.068733E-1	8.106624E-1	9.188765E-1	9.547639E-1	8.753697E-1	8.925892E-1	9.145388E-1	9.060054E-1	7.701438E-1	8.687037E-1	8.992626E-1	9.215012E-1	9.112674E-1	9.541789E-1	8.043053E-1	9.028782E-1	6.814684E-1	7.189620E-1	8.050337E-1	8.477495E-1	8.691284E-1	8.234438E-1	8.086598E-1	8.855437E-1	9.232434E-1	8.299227E-1	8.592520E-1	9.158824E-1	9.489895E-1	8.982461E-1	8.545834E-1	8.839883E-1	8.218634E-1	8.566525E-1	8.183411E-1	8.740985E-1	9.416683E-1	9.198922E-1	9.116305E-1	7.141865E-1	8.934922E-1	8.356605E-1	8.523587E-1	9.221663E-1	8.651938E-1	9.023569E-1	7.759080E-1	9.076875E-1	8.527212E-1	8.590510E-1	8.267901E-1	8.608779E-1	8.886470E-1	9.218640E-1	7.954373E-1	7.113870E-1	8.567547E-1	8.699665E-1	9.096679E-1	8.828971E-1	8.541640E-1	8.442418E-1	9.563493E-1	9.123824E-1	8.401017E-1	8.569751E-1	7.751717E-1	8.612118E-1	8.405021E-1	8.716677E-1	8.074528E-1	9.130650E-1	8.710251E-1	8.600606E-1	8.692143E-1	9.217836E-1	8.344099E-1	8.657288E-1	8.924670E-1	9.115876E-1	7.901241E-1	8.236893E-1	7.517773E-1	9.103524E-1	8.581684E-1	8.570149E-1	8.545924E-1	9.096988E-1	8.842567E-1	8.508073E-1	8.893688E-1	9.451665E-1	8.371630E-1	9.477836E-1	8.494135E-1	9.357519E-1	9.419272E-1	7.006949E-1	7.892340E-1	9.592723E-1	8.930149E-1	9.117497E-1	8.445298E-1	9.313670E-1	7.296107E-1	8.653447E-1	8.647167E-1	9.906156E-1	8.925351E-1	8.738263E-1	8.861995E-1	8.741112E-1	8.158892E-1	8.647284E-1	9.078430E-1	8.687437E-1	8.605435E-1	9.108339E-1	8.670406E-1	8.710471E-1	8.400731E-1	8.987207E-1	8.558952E-1	9.900114E-1	8.560091E-1	8.578606E-1	8.535721E-1	9.220703E-1	8.866197E-1	8.120880E-1	8.538345E-1	8.551391E-1	8.669809E-1	8.542823E-1	8.805908E-1	8.839648E-1	7.910554E-1	7.161505E-1	9.102213E-1	9.560703E-1	9.403905E-1	9.060334E-1	8.691526E-1	8.804837E-1	9.107070E-1	8.447286E-1	8.694200E-1	8.258392E-1	9.034112E-1	8.467510E-1	8.882406E-1	9.556913E-1	8.570973E-1	1.060847E+0
5.382690E+2	1.126343E+0	1.089235E+0	1.162279E+0	1.093356E+0	1.082337E+0	1.103577E+0	1.109907E+0	1.056834E+0	1.110080E+0	1.164215E+0	1.051125E+0	1.054426E+0	1.134866E+0	1.219167E+0	1.070066E+0	1.105072E+0	9.914590E-1	1.166112E+0	1.053843E+0	1.151762E+0	1.175183E+0	1.034718E+0	1.114906E+0	1.085816E+0	1.179830E+0	9.883305E-1	1.069345E+0	1.061658E+0	1.134201E+0	1.208641E+0	1.173715E+0	1.071892E+0	1.139387E+0	8.945091E-1	9.208967E-1	1.049929E+0	9.968274E-1	1.070391E+0	1.072156E+0	1.055604E+0	1.102525E+0	1.220271E+0	1.074727E+0	1.013984E+0	1.110483E+0	1.147071E+0	1.123471E+0	1.064743E+0	1.134549E+0	1.056015E+0	1.089700E+0	1.013216E+0	1.063903E+0	1.212455E+0	1.065807E+0	1.057081E+0	9.138753E-1	1.185359E+0	1.067414E+0	1.083389E+0	1.095417E+0	1.170977E+0	1.057641E+0	1.015937E+0	1.112696E+0	1.099582E+0	1.041353E+0	9.608218E-1	1.135674E+0	1.049242E+0	1.144182E+0	1.059613E+0	8.844281E-1	1.034896E+0	1.038006E+0	1.163690E+0	1.076312E+0	1.080093E+0	1.068639E+0	1.230174E+0	1.107089E+0	1.032936E+0	1.106553E+0	9.029953E-1	1.047177E+0	1.046530E+0	1.112783E+0	1.054599E+0	1.103140E+0	1.106015E+0	1.054342E+0	1.078186E+0	1.175950E+0	1.088523E+0	1.050787E+0	1.127889E+0	1.176227E+0	9.793201E-1	1.051598E+0	9.414670E-1	1.084577E+0	1.123159E+0	1.040159E+0	1.112257E+0	1.106689E+0	1.082856E+0	1.126438E+0	1.138560E+0	1.182603E+0	1.057660E+0	1.136035E+0	1.042812E+0	1.082765E+0	1.140816E+0	8.569184E-1	9.963321E-1	1.113599E+0	1.148474E+0	1.050508E+0	1.013600E+0	1.087779E+0	8.262351E-1	1.133845E+0	1.085152E+0	1.184893E+0	1.036254E+0	1.096454E+0	1.111474E+0	1.143619E+0	9.836183E-1	1.065092E+0	1.120049E+0	1.016255E+0	1.073631E+0	1.076652E+0	1.064606E+0	1.114150E+0	9.933802E-1	1.112976E+0	1.105274E+0	1.227693E+0	1.036065E+0	1.083925E+0	1.122453E+0	1.141970E+0	1.045002E+0	1.033840E+0	1.001163E+0	1.026750E+0	1.079262E+0	1.106486E+0	1.119869E+0	1.069246E+0	9.841783E-1	8.728106E-1	1.112657E+0	1.198478E+0	1.151760E+0	1.056552E+0	1.087063E+0	1.084264E+0	1.070377E+0	1.026468E+0	1.093854E+0	1.012477E+0	1.060904E+0	1.100648E+0	1.129772E+0	1.106414E+0	1.035894E+0	1.143272E+0
5.385110E+2	1.385713E+0	1.321888E+0	1.443570E+0	1.437890E+0	1.268121E+0	1.330816E+0	1.384942E+0	1.312628E+0	1.344376E+0	1.405264E+0	1.358102E+0	1.317676E+0	1.364207E+0	1.484478E+0	1.363463E+0	1.285030E+0	1.170872E+0	1.325324E+0	1.274135E+0	1.325596E+0	1.402117E+0	1.325439E+0	1.326591E+0	1.417277E+0	1.368155E+0	1.239082E+0	1.295797E+0	1.322539E+0	1.391255E+0	1.492224E+0	1.406195E+0	1.280835E+0	1.382316E+0	1.087995E+0	1.113005E+0	1.259989E+0	1.284912E+0	1.301640E+0	1.313002E+0	1.258800E+0	1.371557E+0	1.393204E+0	1.285060E+0	1.242628E+0	1.309079E+0	1.457340E+0	1.399222E+0	1.274459E+0	1.423386E+0	1.375775E+0	1.301406E+0	1.237116E+0	1.313801E+0	1.506792E+0	1.329125E+0	1.260977E+0	1.092082E+0	1.560195E+0	1.281382E+0	1.322466E+0	1.392789E+0	1.523284E+0	1.306504E+0	1.245762E+0	1.329554E+0	1.431896E+0	1.323831E+0	1.236905E+0	1.336449E+0	1.388669E+0	1.384984E+0	1.297028E+0	1.065755E+0	1.493214E+0	1.295138E+0	1.382253E+0	1.350359E+0	1.520991E+0	1.290500E+0	1.465339E+0	1.359959E+0	1.377702E+0	1.278446E+0	1.157633E+0	1.257278E+0	1.353583E+0	1.321915E+0	1.270455E+0	1.364557E+0	1.386817E+0	1.322961E+0	1.335839E+0	1.436832E+0	1.467089E+0	1.295625E+0	1.406487E+0	1.431309E+0	1.309314E+0	1.246535E+0	1.201613E+0	1.345103E+0	1.340014E+0	1.316922E+0	1.343889E+0	1.455211E+0	1.316774E+0	1.355152E+0	1.347422E+0	1.404600E+0	1.315942E+0	1.399586E+0	1.323472E+0	1.389925E+0	1.390700E+0	1.072253E+0	1.256475E+0	1.374724E+0	1.369073E+0	1.302793E+0	1.289404E+0	1.399035E+0	1.215388E+0	1.342164E+0	1.294921E+0	1.477070E+0	1.285332E+0	1.284914E+0	1.375724E+0	1.316791E+0	1.198313E+0	1.277518E+0	1.340518E+0	1.289441E+0	1.301223E+0	1.324336E+0	1.341001E+0	1.410772E+0	1.237859E+0	1.356471E+0	1.369458E+0	1.447448E+0	1.324368E+0	1.352742E+0	1.342798E+0	1.288569E+0	1.330637E+0	1.343369E+0	1.274774E+0	1.304080E+0	1.315468E+0	1.343557E+0	1.377592E+0	1.289122E+0	1.163788E+0	1.050669E+0	1.382170E+0	1.460080E+0	1.433973E+0	1.266741E+0	1.358946E+0	1.322593E+0	1.390275E+0	1.329570E+0	1.274567E+0	1.302406E+0	1.279615E+0	1.384148E+0	1.312822E+0	1.365187E+0	1.269811E+0	1.424478E+0
5.387650E+2	1.568702E+0	1.482256E+0	1.572403E+0	1.545630E+0	1.517985E+0	1.445729E+0	1.531630E+0	1.427840E+0	1.523222E+0	1.550900E+0	1.526593E+0	1.469340E+0	1.541165E+0	1.710249E+0	1.472294E+0	1.422120E+0	1.326530E+0	1.536845E+0	1.403450E+0	1.523162E+0	1.552900E+0	1.439828E+0	1.483069E+0	1.531313E+0	1.554801E+0	1.312353E+0	1.482358E+0	1.504315E+0	1.599663E+0	1.608538E+0	1.583513E+0	1.455897E+0	1.588705E+0	1.210984E+0	1.243206E+0	1.384022E+0	1.437009E+0	1.433782E+0	1.434903E+0	1.386768E+0	1.476246E+0	1.598306E+0	1.390812E+0	1.422881E+0	1.540201E+0	1.612183E+0	1.487915E+0	1.469004E+0	1.529227E+0	1.552664E+0	1.495228E+0	1.401412E+0	1.456033E+0	1.659309E+0	1.484706E+0	1.485969E+0	1.207794E+0	1.674352E+0	1.411990E+0	1.438558E+0	1.557764E+0	1.708319E+0	1.420138E+0	1.413881E+0	1.556483E+0	1.586603E+0	1.424009E+0	1.330268E+0	1.497169E+0	1.501643E+0	1.490398E+0	1.470551E+0	1.143746E+0	1.651624E+0	1.429912E+0	1.578148E+0	1.500032E+0	1.690047E+0	1.450421E+0	1.633929E+0	1.536297E+0	1.596566E+0	1.456403E+0	1.227859E+0	1.436114E+0	1.481481E+0	1.461663E+0	1.462278E+0	1.530172E+0	1.587848E+0	1.419254E+0	1.452791E+0	1.602759E+0	1.725372E+0	1.440655E+0	1.572513E+0	1.529279E+0	1.540309E+0	1.374950E+0	1.272070E+0	1.572728E+0	1.488317E+0	1.496485E+0	1.487862E+0	1.637049E+0	1.531584E+0	1.440189E+0	1.504522E+0	1.606897E+0	1.614598E+0	1.588459E+0	1.465841E+0	1.519425E+0	1.631662E+0	1.192587E+0	1.360306E+0	1.462620E+0	1.533665E+0	1.432469E+0	1.431556E+0	1.548646E+0	1.606132E+0	1.492038E+0	1.508246E+0	1.636853E+0	1.493350E+0	1.507024E+0	1.482035E+0	1.520105E+0	1.416361E+0	1.505155E+0	1.493197E+0	1.479658E+0	1.477793E+0	1.438530E+0	1.493864E+0	1.492185E+0	1.426008E+0	1.517305E+0	1.491302E+0	1.542726E+0	1.484595E+0	1.491543E+0	1.479664E+0	1.523352E+0	1.404366E+0	1.439807E+0	1.414904E+0	1.416684E+0	1.495678E+0	1.490396E+0	1.461961E+0	1.472642E+0	1.305111E+0	1.195953E+0	1.470213E+0	1.590059E+0	1.604447E+0	1.432312E+0	1.488076E+0	1.478944E+0	1.531586E+0	1.485085E+0	1.475101E+0	1.427679E+0	1.453328E+0	1.494586E+0	1.465458E+0	1.572204E+0	1.501037E+0	1.552961E+0
5.390340E+2	1.883764E+0	1.798739E+0	1.834368E+0	1.800776E+0	1.751697E+0	1.736636E+0	1.788868E+0	1.662571E+0	1.802636E+0	1.822638E+0	1.778177E+0	1.729551E+0	1.828077E+0	2.001056E+0	1.776728E+0	1.736936E+0	1.522622E+0	1.755836E+0	1.656358E+0	1.763773E+0	1.846460E+0	1.742539E+0	1.770717E+0	1.827277E+0	1.881157E+0	1.660801E+0	1.690042E+0	1.711760E+0	1.813796E+0	1.919697E+0	1.845267E+0	1.737817E+0	1.825217E+0	1.440489E+0	1.453004E+0	1.644751E+0	1.711995E+0	1.719921E+0	1.723429E+0	1.607545E+0	1.798505E+0	1.861438E+0	1.702805E+0	1.695656E+0	1.773036E+0	1.996658E+0	1.813117E+0	1.716196E+0	1.844370E+0	1.790784E+0	1.766347E+0	1.688027E+0	1.807090E+0	1.972373E+0	1.722416E+0	1.726336E+0	1.449470E+0	1.949158E+0	1.672641E+0	1.692574E+0	1.888755E+0	2.076833E+0	1.736364E+0	1.678205E+0	1.773937E+0	1.815032E+0	1.754831E+0	1.646443E+0	1.770955E+0	1.852726E+0	1.762673E+0	1.737749E+0	1.435723E+0	1.903613E+0	1.663924E+0	1.867630E+0	1.770923E+0	1.974934E+0	1.669234E+0	1.927077E+0	1.751210E+0	1.830832E+0	1.735730E+0	1.488054E+0	1.692297E+0	1.741754E+0	1.789876E+0	1.646843E+0	1.746238E+0	1.875121E+0	1.775154E+0	1.737755E+0	1.928383E+0	1.954486E+0	1.693812E+0	1.806395E+0	1.851867E+0	1.845554E+0	1.666486E+0	1.558770E+0	1.737242E+0	1.728507E+0	1.673491E+0	1.789619E+0	1.856489E+0	1.866828E+0	1.724028E+0	1.781400E+0	1.872549E+0	2.013149E+0	1.698939E+0	1.706191E+0	1.853485E+0	1.958039E+0	1.448562E+0	1.662207E+0	1.747250E+0	1.794274E+0	1.712507E+0	1.718694E+0	1.841590E+0	1.880078E+0	1.805093E+0	1.778457E+0	1.886419E+0	1.987721E+0	1.688750E+0	1.745274E+0	1.768929E+0	1.830652E+0	1.719155E+0	1.798551E+0	1.703833E+0	1.771413E+0	1.752957E+0	1.778913E+0	1.719350E+0	1.884184E+0	1.764739E+0	1.699117E+0	1.839317E+0	1.960457E+0	1.732838E+0	1.757767E+0	1.836389E+0	1.757725E+0	1.733168E+0	1.617062E+0	1.675327E+0	1.725268E+0	1.712896E+0	1.780995E+0	1.751153E+0	1.618162E+0	1.395012E+0	1.808603E+0	1.878535E+0	1.858444E+0	1.689807E+0	1.732722E+0	1.657544E+0	1.768586E+0	1.715001E+0	1.686129E+0	1.677214E+0	1.694016E+0	1.723437E+0	1.673069E+0	1.787394E+0	1.743018E+0	1.637810E+0
5.392930E+2	1.982948E+0	1.954853E+0	2.015274E+0	1.963569E+0	1.891704E+0	1.907451E+0	1.949036E+0	1.869786E+0	1.938537E+0	2.038576E+0	1.876847E+0	1.923314E+0	1.947467E+0	2.252841E+0	1.882049E+0	1.907964E+0	1.714667E+0	1.958737E+0	1.783954E+0	1.989482E+0	2.070385E+0	1.885402E+0	1.942898E+0	1.976812E+0	1.992364E+0	1.736787E+0	1.918839E+0	1.895637E+0	1.999311E+0	2.081575E+0	2.046785E+0	1.865965E+0	2.065182E+0	1.570165E+0	1.588607E+0	1.828948E+0	1.879708E+0	1.850537E+0	1.844834E+0	1.811969E+0	1.902024E+0	2.042992E+0	1.793365E+0	1.805194E+0	1.976198E+0	2.155006E+0	1.984590E+0	1.887984E+0	2.010015E+0	1.854282E+0	1.953246E+0	1.772505E+0	1.953826E+0	2.074588E+0	1.920513E+0	1.892000E+0	1.599362E+0	2.236904E+0	1.829923E+0	1.810968E+0	2.015980E+0	2.250890E+0	1.890104E+0	1.760803E+0	1.926802E+0	2.031734E+0	1.922573E+0	1.764438E+0	1.958547E+0	1.968235E+0	1.953518E+0	1.799044E+0	1.533212E+0	2.035527E+0	1.864104E+0	1.979811E+0	1.922704E+0	2.158599E+0	1.912417E+0	2.113387E+0	1.928163E+0	1.998169E+0	1.813968E+0	1.625477E+0	1.855771E+0	1.857210E+0	1.907974E+0	1.824607E+0	1.959245E+0	2.064831E+0	1.887222E+0	1.860645E+0	2.007990E+0	2.128928E+0	1.834684E+0	1.988874E+0	1.950435E+0	1.946203E+0	1.830766E+0	1.653076E+0	1.958391E+0	1.939045E+0	1.899609E+0	1.917656E+0	2.114092E+0	1.984945E+0	1.880028E+0	2.033602E+0	2.002445E+0	2.200520E+0	1.897064E+0	1.768957E+0	2.003000E+0	2.079797E+0	1.522980E+0	1.795942E+0	1.917930E+0	2.024015E+0	1.902730E+0	1.847150E+0	1.998525E+0	2.108901E+0	1.890736E+0	1.889270E+0	2.047217E+0	2.237879E+0	1.849253E+0	1.954855E+0	1.874131E+0	1.913958E+0	1.830877E+0	1.881227E+0	1.823204E+0	1.887459E+0	1.867154E+0	1.850054E+0	1.958470E+0	2.038652E+0	1.929507E+0	1.904656E+0	2.003751E+0	2.129798E+0	1.902679E+0	1.852894E+0	1.883788E+0	1.911193E+0	1.886199E+0	1.733928E+0	1.833169E+0	1.917695E+0	1.865899E+0	1.861217E+0	1.852003E+0	1.800024E+0	1.498933E+0	1.927188E+0	1.961895E+0	2.114732E+0	1.803231E+0	1.911286E+0	1.829704E+0	1.852042E+0	1.886987E+0	1.835944E+0	1.837263E+0	1.810699E+0	1.905606E+0	1.826295E+0	1.897258E+0	2.163797E+0	1.846291E+0
5.395160E+2	2.073115E+0	1.890460E+0	2.052851E+0	2.084924E+0	2.002642E+0	1.934887E+0	2.061748E+0	1.949747E+0	1.954300E+0	2.049182E+0	1.912621E+0	1.894401E+0	2.049867E+0	2.249719E+0	1.962292E+0	1.953510E+0	1.735390E+0	1.997244E+0	1.857195E+0	1.992792E+0	2.110964E+0	1.975316E+0	2.031014E+0	2.054904E+0	2.111953E+0	1.737329E+0	1.893614E+0	1.956928E+0	2.081341E+0	2.149921E+0	2.020891E+0	1.871613E+0	2.085421E+0	1.626774E+0	1.682941E+0	1.865366E+0	1.911437E+0	1.960320E+0	1.945597E+0	1.799703E+0	1.972789E+0	2.061949E+0	1.833676E+0	1.872724E+0	1.995600E+0	2.146829E+0	2.051245E+0	1.895571E+0	2.011211E+0	1.969373E+0	1.989014E+0	1.839363E+0	1.997398E+0	2.182689E+0	1.932590E+0	1.977692E+0	1.562741E+0	2.276917E+0	1.907172E+0	1.878780E+0	2.054251E+0	2.280165E+0	1.890102E+0	1.828828E+0	2.007384E+0	2.071389E+0	1.984894E+0	1.811407E+0	1.892634E+0	2.018892E+0	2.005474E+0	1.870702E+0	1.557581E+0	2.126287E+0	1.872562E+0	2.064684E+0	1.989104E+0	2.193560E+0	1.959123E+0	2.162240E+0	1.959385E+0	1.999230E+0	1.930217E+0	1.675497E+0	1.868386E+0	1.917426E+0	1.947339E+0	1.811004E+0	1.987781E+0	2.048124E+0	1.878771E+0	2.000160E+0	2.088555E+0	2.163296E+0	1.880430E+0	2.014058E+0	2.087833E+0	1.957750E+0	1.829032E+0	1.786402E+0	1.988601E+0	1.898687E+0	1.913931E+0	1.948471E+0	2.077609E+0	2.072374E+0	2.054199E+0	1.972810E+0	2.054619E+0	2.260042E+0	2.040879E+0	1.846012E+0	1.966720E+0	2.137167E+0	1.602144E+0	1.768295E+0	1.942458E+0	2.061732E+0	1.902227E+0	1.860849E+0	2.066009E+0	2.189594E+0	1.928351E+0	1.879195E+0	2.063956E+0	2.210862E+0	1.871519E+0	1.900183E+0	1.940323E+0	1.924581E+0	1.879654E+0	1.987052E+0	1.889193E+0	1.921474E+0	1.872889E+0	1.949075E+0	2.009707E+0	2.082787E+0	1.958188E+0	1.851136E+0	2.037044E+0	2.094430E+0	1.920245E+0	1.869878E+0	1.938349E+0	2.014961E+0	1.837110E+0	1.881812E+0	1.890699E+0	1.939074E+0	1.891118E+0	1.951120E+0	1.932914E+0	1.823108E+0	1.527372E+0	1.868496E+0	2.028255E+0	2.121645E+0	1.848926E+0	1.974342E+0	1.869522E+0	1.936047E+0	1.915650E+0	1.863923E+0	1.821921E+0	1.904880E+0	2.014909E+0	1.864892E+0	1.977160E+0	2.054906E+0	1.868107E+0
5.397750E+2	2.096988E+0	1.970038E+0	2.175247E+0	2.108010E+0	1.977870E+0	1.964390E+0	2.084398E+0	1.966946E+0	2.012469E+0	2.146827E+0	1.987636E+0	1.938527E+0	2.059303E+0	2.236714E+0	1.986366E+0	2.019600E+0	1.764701E+0	2.077139E+0	1.970490E+0	2.079986E+0	2.147029E+0	2.010281E+0	2.059882E+0	2.084639E+0	2.097982E+0	1.861621E+0	1.953455E+0	2.011931E+0	2.050344E+0	2.168513E+0	2.207211E+0	1.966311E+0	2.069129E+0	1.671025E+0	1.748778E+0	1.885950E+0	1.965828E+0	2.013175E+0	1.988359E+0	1.861439E+0	1.976883E+0	2.148129E+0	1.944109E+0	1.899309E+0	2.058949E+0	2.219864E+0	2.075430E+0	1.922789E+0	2.088955E+0	1.955764E+0	1.968820E+0	1.849734E+0	2.066506E+0	2.231387E+0	2.030673E+0	1.978129E+0	1.637929E+0	2.252207E+0	1.918288E+0	1.948321E+0	2.106479E+0	2.325636E+0	1.934838E+0	1.844378E+0	1.954060E+0	2.064128E+0	1.928396E+0	1.887584E+0	1.989474E+0	2.056383E+0	1.997482E+0	1.963507E+0	1.584882E+0	2.141510E+0	1.957151E+0	2.121648E+0	1.976981E+0	2.277567E+0	1.994663E+0	2.179961E+0	2.067148E+0	2.108661E+0	1.951705E+0	1.701262E+0	1.839314E+0	1.921404E+0	1.984738E+0	1.908499E+0	2.060652E+0	2.165084E+0	1.906365E+0	1.969878E+0	2.082318E+0	2.216931E+0	1.901745E+0	2.059807E+0	2.090820E+0	2.001750E+0	1.853325E+0	1.726244E+0	2.074905E+0	2.046500E+0	1.928769E+0	2.056851E+0	2.111282E+0	2.068323E+0	2.050094E+0	1.958963E+0	2.111582E+0	2.217598E+0	2.062480E+0	1.850091E+0	2.090582E+0	2.243624E+0	1.638034E+0	1.869870E+0	1.980271E+0	2.066876E+0	1.951171E+0	1.888239E+0	2.048222E+0	2.150313E+0	2.004152E+0	1.934302E+0	2.145114E+0	2.330810E+0	1.909313E+0	1.982692E+0	2.061483E+0	2.039757E+0	1.923714E+0	1.990358E+0	1.896475E+0	1.953487E+0	1.927641E+0	1.948119E+0	2.093401E+0	2.085689E+0	2.022855E+0	1.963302E+0	2.090833E+0	2.254126E+0	1.947189E+0	1.981511E+0	2.067316E+0	2.053736E+0	1.913918E+0	1.870179E+0	1.886767E+0	1.995582E+0	1.998166E+0	1.950658E+0	1.911222E+0	1.849572E+0	1.567699E+0	2.017031E+0	2.076517E+0	2.209186E+0	1.841400E+0	1.914819E+0	1.913440E+0	2.008371E+0	1.946750E+0	1.900069E+0	1.850043E+0	1.909586E+0	2.062725E+0	1.912260E+0	2.104276E+0	2.041462E+0	1.986894E+0
5.400240E+2	2.080544E+0	1.968826E+0	2.112440E+0	2.112155E+0	1.944476E+0	1.932816E+0	2.043412E+0	1.913206E+0	1.917881E+0	2.108887E+0	2.041302E+0	1.987222E+0	2.034765E+0	2.276771E+0	2.115763E+0	1.998617E+0	1.805133E+0	1.961036E+0	1.910982E+0	2.012661E+0	2.039826E+0	1.956833E+0	2.032536E+0	2.051356E+0	2.048245E+0	1.831222E+0	1.954041E+0	1.981547E+0	2.033175E+0	2.171508E+0	2.054666E+0	1.888120E+0	1.994079E+0	2.080643E+0	1.619067E+0	1.777227E+0	1.923019E+0	1.948124E+0	1.959852E+0	1.889240E+0	1.897931E+0	2.167657E+0	1.864059E+0	1.866340E+0	2.072072E+0	2.215777E+0	2.024904E+0	1.893340E+0	2.055465E+0	2.028337E+0	2.044967E+0	1.815522E+0	1.995395E+0	2.147370E+0	1.966411E+0	1.882774E+0	1.576413E+0	2.199831E+0	1.921623E+0	1.924757E+0	2.080106E+0	2.221097E+0	1.925070E+0	1.881792E+0	1.999683E+0	2.024471E+0	1.925488E+0	1.819998E+0	1.990992E+0	2.046249E+0	2.042445E+0	1.879769E+0	1.561969E+0	2.128544E+0	1.966168E+0	2.033291E+0	2.010185E+0	2.280696E+0	1.942371E+0	2.154193E+0	1.987554E+0	2.046511E+0	1.888896E+0	1.697219E+0	1.798170E+0	1.929868E+0	1.919784E+0	1.893083E+0	1.989818E+0	2.084238E+0	1.891162E+0	1.952662E+0	2.047313E+0	2.188808E+0	1.856518E+0	1.982188E+0	2.041238E+0	1.965449E+0	1.830189E+0	1.720823E+0	2.052788E+0	1.895284E+0	1.859705E+0	1.938907E+0	2.080418E+0	2.081641E+0	1.996146E+0	1.968597E+0	2.070059E+0	2.192235E+0	1.983477E+0	1.860808E+0	2.082452E+0	2.226412E+0	1.597399E+0	1.787483E+0	1.966987E+0	2.089735E+0	1.948145E+0	1.876903E+0	2.041943E+0	2.167830E+0	1.948605E+0	1.955639E+0	2.082217E+0	2.223288E+0	1.931574E+0	1.864742E+0	1.924364E+0	1.997824E+0	1.927909E+0	1.987052E+0	1.848432E+0	1.938482E+0	1.910429E+0	1.982724E+0	1.928296E+0	2.165825E+0	1.958189E+0	1.979242E+0	2.062145E+0	2.144265E+0	1.985844E+0	1.911619E+0	1.967011E+0	2.025883E+0	1.835384E+0	1.847468E+0	1.842022E+0	1.870862E+0	1.941000E+0	1.905936E+0	1.941127E+0	1.856892E+0	1.534609E+0	1.930784E+0	2.046352E+0	2.136619E+0	1.833335E+0	1.891613E+0	1.898214E+0	1.976107E+0	1.924796E+0	1.901817E+0	1.878170E+0	1.856217E+0	1.979044E+0	1.893548E+0	2.014384E+0	2.076415E+0	1.933563E+0
5.402900E+2	1.892250E+0	1.799345E+0	1.849936E+0	1.873584E+0	1.814163E+0	1.780634E+0	1.870840E+0	1.771766E+0	1.773824E+0	1.887365E+0	2.002063E+0	1.700132E+0	1.918209E+0	2.036430E+0	2.035517E+0	1.795880E+0	1.575180E+0	1.821937E+0	1.866926E+0	1.832753E+0	1.905073E+0	1.826959E+0	1.842629E+0	1.873868E+0	1.895689E+0	1.667857E+0	1.774521E+0	1.833820E+0	1.871024E+0	2.002435E+0	2.038903E+0	1.737818E+0	1.851382E+0	1.871715E+0	1.535544E+0	1.648971E+0	1.719549E+0	1.811403E+0	1.741124E+0	1.704852E+0	1.764581E+0	1.883843E+0	1.838356E+0	1.742448E+0	1.839809E+0	1.980884E+0	1.986200E+0	1.771973E+0	1.862313E+0	1.774910E+0	1.878255E+0	1.755920E+0	1.836641E+0	1.900664E+0	1.740779E+0	1.742154E+0	1.467046E+0	2.016238E+0	1.774904E+0	1.808665E+0	1.920819E+0	2.108195E+0	1.860796E+0	1.663627E+0	1.820747E+0	1.879262E+0	1.772309E+0	1.688832E+0	1.810500E+0	1.801052E+0	1.805140E+0	1.698469E+0	1.395755E+0	1.890084E+0	1.783470E+0	1.902502E+0	1.854716E+0	2.029723E+0	1.823065E+0	1.928153E+0	1.780601E+0	1.823924E+0	1.792477E+0	1.480477E+0	1.653896E+0	1.796994E+0	1.791846E+0	1.685389E+0	1.736555E+0	1.902607E+0	1.703073E+0	1.805431E+0	1.925502E+0	1.998747E+0	1.697970E+0	1.788917E+0	1.867400E+0	1.782854E+0	1.646241E+0	1.569613E+0	1.827860E+0	1.794637E+0	1.733343E+0	1.755622E+0	1.887355E+0	1.893462E+0	1.814932E+0	1.792838E+0	1.900233E+0	2.088722E+0	1.826701E+0	1.722520E+0	1.825960E+0	2.020512E+0	1.445921E+0	1.592232E+0	1.854562E+0	1.853707E+0	1.821497E+0	1.764506E+0	1.818050E+0	1.971393E+0	1.825928E+0	1.744089E+0	1.925985E+0	2.089837E+0	1.702732E+0	1.756914E+0	1.817389E+0	1.756849E+0	1.727549E+0	1.828313E+0	1.694126E+0	1.820432E+0	1.773816E+0	1.704406E+0	1.780271E+0	1.866182E+0	1.780484E+0	1.724741E+0	1.881835E+0	2.000113E+0	1.743375E+0	1.765045E+0	1.804979E+0	1.831455E+0	1.744715E+0	1.653062E+0	1.715650E+0	1.817921E+0	1.812657E+0	1.759789E+0	1.725941E+0	1.693047E+0	1.407421E+0	1.772070E+0	1.899375E+0	1.965563E+0	1.684431E+0	1.720110E+0	1.736009E+0	1.807528E+0	1.771721E+0	1.714692E+0	1.668010E+0	1.760468E+0	1.897635E+0	1.771320E+0	1.811908E+0	1.853254E+0	1.909321E+0
5.405080E+2	1.851940E+0	1.738601E+0	1.847254E+0	1.828003E+0	1.705382E+0	1.718002E+0	1.835246E+0	1.712010E+0	1.767845E+0	1.796973E+0	1.906852E+0	1.738171E+0	1.822884E+0	1.939152E+0	1.970818E+0	1.738724E+0	1.599439E+0	1.857573E+0	1.701562E+0	1.785845E+0	1.821409E+0	1.776508E+0	1.799074E+0	1.798878E+0	1.822479E+0	1.557680E+0	1.750470E+0	1.730620E+0	1.843365E+0	1.943081E+0	1.976987E+0	1.685694E+0	1.802010E+0	1.904136E+0	1.529159E+0	1.603581E+0	1.692857E+0	1.744318E+0	1.707698E+0	1.588329E+0	1.799090E+0	1.883846E+0	1.755971E+0	1.579743E+0	1.774178E+0	1.943485E+0	1.984052E+0	1.656407E+0	1.797130E+0	1.756765E+0	1.806727E+0	1.629460E+0	1.713942E+0	1.909226E+0	1.717101E+0	1.744792E+0	1.438730E+0	1.980931E+0	1.829367E+0	1.658668E+0	1.776529E+0	1.970718E+0	1.986769E+0	1.612607E+0	1.788749E+0	1.770913E+0	1.909178E+0	1.593746E+0	1.759798E+0	1.787374E+0	1.755178E+0	1.651420E+0	1.441570E+0	1.856826E+0	1.842110E+0	1.820543E+0	1.748260E+0	2.027636E+0	1.996182E+0	1.955535E+0	1.726716E+0	1.779837E+0	1.835453E+0	1.464310E+0	1.689005E+0	1.663622E+0	1.795782E+0	1.645483E+0	1.755413E+0	1.810440E+0	1.833720E+0	1.684917E+0	1.853092E+0	1.989375E+0	1.807654E+0	1.792517E+0	1.769428E+0	1.791103E+0	1.769451E+0	1.552270E+0	1.751805E+0	1.718299E+0	1.723112E+0	1.795997E+0	1.921026E+0	1.831509E+0	1.748661E+0	1.828350E+0	1.909815E+0	2.011598E+0	1.722395E+0	1.654139E+0	1.778416E+0	1.925530E+0	1.444868E+0	1.618756E+0	1.710969E+0	1.808561E+0	1.718563E+0	1.633686E+0	1.838452E+0	1.919367E+0	1.743758E+0	1.738754E+0	1.846345E+0	1.902890E+0	1.713605E+0	1.719960E+0	1.739965E+0	1.742872E+0	1.724927E+0	1.712010E+0	1.686849E+0	1.636857E+0	1.631983E+0	1.681816E+0	1.712518E+0	1.833080E+0	1.780482E+0	1.707088E+0	1.808072E+0	1.950815E+0	1.690083E+0	1.713115E+0	1.797261E+0	1.782844E+0	1.680040E+0	1.608754E+0	1.655166E+0	1.679450E+0	1.679266E+0	1.728441E+0	1.728284E+0	1.638994E+0	1.610098E+0	1.698402E+0	1.766105E+0	1.903939E+0	1.697869E+0	1.652521E+0	1.683895E+0	1.782492E+0	1.677802E+0	1.631330E+0	1.639887E+0	1.631228E+0	1.691559E+0	1.678334E+0	1.788301E+0	1.791413E+0	1.868108E+0
5.407680E+2	1.729945E+0	1.688181E+0	1.713050E+0	1.691846E+0	1.643995E+0	1.637253E+0	1.743027E+0	1.618289E+0	1.690111E+0	1.734477E+0	1.806448E+0	1.597670E+0	1.737473E+0	1.875681E+0	1.897094E+0	1.637355E+0	1.530202E+0	1.677090E+0	1.703276E+0	1.725694E+0	1.760794E+0	1.686093E+0	1.678045E+0	1.709249E+0	1.706800E+0	1.455097E+0	1.707050E+0	1.615374E+0	1.756088E+0	1.803387E+0	1.897053E+0	1.643557E+0	1.703751E+0	1.721455E+0	1.436789E+0	1.579301E+0	1.652565E+0	1.625387E+0	1.686564E+0	1.558484E+0	1.715454E+0	1.723552E+0	1.655479E+0	1.590375E+0	1.695423E+0	1.841232E+0	1.877084E+0	1.577876E+0	1.724774E+0	1.659818E+0	1.697125E+0	1.548606E+0	1.709938E+0	1.873369E+0	1.647044E+0	1.627904E+0	1.362078E+0	1.847942E+0	1.784351E+0	1.623614E+0	1.721194E+0	1.921581E+0	1.794465E+0	1.567908E+0	1.634697E+0	1.719528E+0	1.781045E+0	1.588593E+0	1.632032E+0	1.697703E+0	1.677744E+0	1.643646E+0	1.305577E+0	1.807779E+0	1.756965E+0	1.750208E+0	1.700829E+0	1.867973E+0	1.842358E+0	1.770300E+0	1.672837E+0	1.695901E+0	1.738486E+0	1.409238E+0	1.558446E+0	1.621818E+0	1.751985E+0	1.631877E+0	1.670818E+0	1.777567E+0	1.809509E+0	1.680169E+0	1.752381E+0	1.844614E+0	1.853920E+0	1.733917E+0	1.727014E+0	1.610712E+0	1.744579E+0	1.460674E+0	1.708652E+0	1.674050E+0	1.613125E+0	1.639274E+0	1.796436E+0	1.735973E+0	1.714647E+0	1.709172E+0	1.779386E+0	1.887371E+0	1.871760E+0	1.587802E+0	1.690834E+0	1.838839E+0	1.427449E+0	1.557246E+0	1.675200E+0	1.713691E+0	1.584851E+0	1.580320E+0	1.727030E+0	1.834425E+0	1.781370E+0	1.674758E+0	1.781417E+0	1.971510E+0	1.751919E+0	1.617705E+0	1.620581E+0	1.696470E+0	1.712864E+0	1.658551E+0	1.568452E+0	1.652863E+0	1.643454E+0	1.678448E+0	1.634516E+0	1.737847E+0	1.642148E+0	1.645594E+0	1.728672E+0	1.832917E+0	1.739277E+0	1.636915E+0	1.700259E+0	1.670339E+0	1.675999E+0	1.507395E+0	1.563706E+0	1.640254E+0	1.631630E+0	1.675879E+0	1.624505E+0	1.564109E+0	1.670586E+0	1.642701E+0	1.714004E+0	1.870531E+0	1.627447E+0	1.614184E+0	1.536916E+0	1.674012E+0	1.622302E+0	1.575368E+0	1.551424E+0	1.576812E+0	1.663663E+0	1.609324E+0	1.692964E+0	1.738985E+0	1.567508E+0
5.410340E+2	1.663114E+0	1.590992E+0	1.630919E+0	1.659882E+0	1.535758E+0	1.552877E+0	1.610365E+0	1.536177E+0	1.620528E+0	1.640176E+0	1.712397E+0	1.514485E+0	1.626103E+0	1.843947E+0	1.856973E+0	1.552513E+0	1.408908E+0	1.567884E+0	1.573392E+0	1.629672E+0	1.666618E+0	1.592180E+0	1.601573E+0	1.652450E+0	1.631361E+0	1.403537E+0	1.582096E+0	1.600705E+0	1.711261E+0	1.725449E+0	1.807551E+0	1.537999E+0	1.672645E+0	1.650958E+0	1.354246E+0	1.471632E+0	1.525143E+0	1.636060E+0	1.601037E+0	1.482438E+0	1.590297E+0	1.692529E+0	1.612828E+0	1.507956E+0	1.617242E+0	1.736638E+0	1.760976E+0	1.485511E+0	1.608165E+0	1.577608E+0	1.629056E+0	1.557937E+0	1.553684E+0	1.721387E+0	1.600661E+0	1.552321E+0	1.289818E+0	1.759088E+0	1.669865E+0	1.542576E+0	1.634312E+0	1.846838E+0	1.822231E+0	1.474128E+0	1.562409E+0	1.592746E+0	1.642426E+0	1.471747E+0	1.626962E+0	1.641470E+0	1.595312E+0	1.531415E+0	1.244647E+0	1.720399E+0	1.650955E+0	1.676966E+0	1.603327E+0	1.800142E+0	1.797172E+0	1.796608E+0	1.622020E+0	1.648623E+0	1.621134E+0	1.348106E+0	1.494809E+0	1.511338E+0	1.626508E+0	1.502635E+0	1.608140E+0	1.647677E+0	1.708707E+0	1.572120E+0	1.641127E+0	1.754531E+0	1.726560E+0	1.639850E+0	1.603950E+0	1.600255E+0	1.581452E+0	1.364746E+0	1.688698E+0	1.590910E+0	1.581917E+0	1.625462E+0	1.713936E+0	1.705864E+0	1.668903E+0	1.622495E+0	1.704321E+0	1.850106E+0	1.798929E+0	1.527079E+0	1.583860E+0	1.792937E+0	1.400006E+0	1.488966E+0	1.582704E+0	1.714261E+0	1.550539E+0	1.526954E+0	1.582125E+0	1.773366E+0	1.688202E+0	1.592985E+0	1.740332E+0	1.826171E+0	1.769004E+0	1.579230E+0	1.605803E+0	1.619873E+0	1.668282E+0	1.513589E+0	1.561660E+0	1.545820E+0	1.568889E+0	1.520303E+0	1.628256E+0	1.688484E+0	1.615719E+0	1.613144E+0	1.656959E+0	1.746640E+0	1.779101E+0	1.572365E+0	1.639085E+0	1.618458E+0	1.575515E+0	1.461981E+0	1.517977E+0	1.555238E+0	1.537475E+0	1.559238E+0	1.565871E+0	1.512311E+0	1.731084E+0	1.607363E+0	1.659160E+0	1.675288E+0	1.748404E+0	1.602583E+0	1.543357E+0	1.597234E+0	1.636331E+0	1.522904E+0	1.541708E+0	1.507223E+0	1.603319E+0	1.507563E+0	1.647565E+0	1.655636E+0	1.732354E+0
5.412850E+2	1.605298E+0	1.487116E+0	1.561129E+0	1.537339E+0	1.447444E+0	1.449870E+0	1.522461E+0	1.471262E+0	1.479734E+0	1.607813E+0	1.695659E+0	1.443979E+0	1.558152E+0	1.703493E+0	1.748136E+0	1.449360E+0	1.379597E+0	1.555814E+0	1.505301E+0	1.541375E+0	1.620527E+0	1.460309E+0	1.564099E+0	1.523326E+0	1.564858E+0	1.369885E+0	1.532224E+0	1.509554E+0	1.530512E+0	1.642110E+0	1.683708E+0	1.485871E+0	1.578832E+0	1.567594E+0	1.234361E+0	1.377160E+0	1.491903E+0	1.527299E+0	1.404920E+0	1.403122E+0	1.531223E+0	1.607502E+0	1.552068E+0	1.436706E+0	1.527075E+0	1.636726E+0	1.681427E+0	1.443125E+0	1.577665E+0	1.479529E+0	1.631942E+0	1.416444E+0	1.525141E+0	1.652350E+0	1.496783E+0	1.464438E+0	1.182405E+0	1.660821E+0	1.593723E+0	1.443729E+0	1.619826E+0	1.715637E+0	1.624269E+0	1.418740E+0	1.493680E+0	1.583812E+0	1.523026E+0	1.414467E+0	1.511875E+0	1.488980E+0	1.478907E+0	1.446810E+0	1.226123E+0	1.619489E+0	1.550583E+0	1.626396E+0	1.511626E+0	1.753704E+0	1.662127E+0	1.605469E+0	1.538751E+0	1.529629E+0	1.609015E+0	1.251605E+0	1.427886E+0	1.455106E+0	1.549255E+0	1.404231E+0	1.553615E+0	1.606175E+0	1.627050E+0	1.489006E+0	1.586934E+0	1.737868E+0	1.684454E+0	1.573544E+0	1.606345E+0	1.555160E+0	1.567572E+0	1.320847E+0	1.498291E+0	1.514086E+0	1.561964E+0	1.521864E+0	1.653885E+0	1.636386E+0	1.527568E+0	1.514153E+0	1.582941E+0	1.674637E+0	1.638452E+0	1.468907E+0	1.539441E+0	1.671821E+0	1.286532E+0	1.343379E+0	1.486638E+0	1.591958E+0	1.474349E+0	1.392830E+0	1.544984E+0	1.692669E+0	1.619919E+0	1.466173E+0	1.583082E+0	1.715411E+0	1.682022E+0	1.473427E+0	1.517741E+0	1.483452E+0	1.589605E+0	1.527369E+0	1.420942E+0	1.500300E+0	1.520917E+0	1.459256E+0	1.488202E+0	1.626930E+0	1.524054E+0	1.466821E+0	1.561680E+0	1.635182E+0	1.680710E+0	1.433559E+0	1.552007E+0	1.502673E+0	1.550109E+0	1.368377E+0	1.440779E+0	1.455972E+0	1.488714E+0	1.494693E+0	1.480851E+0	1.366484E+0	1.624057E+0	1.547473E+0	1.599381E+0	1.697174E+0	1.667229E+0	1.478996E+0	1.439712E+0	1.517678E+0	1.577175E+0	1.446534E+0	1.378594E+0	1.465888E+0	1.566886E+0	1.461365E+0	1.628498E+0	1.568254E+0	1.739625E+0
5.415140E+2	1.369269E+0	1.338290E+0	1.343721E+0	1.349093E+0	1.307433E+0	1.249548E+0	1.365529E+0	1.291562E+0	1.325349E+0	1.430374E+0	1.412917E+0	1.237029E+0	1.339668E+0	1.488638E+0	1.476808E+0	1.251093E+0	1.205238E+0	1.305207E+0	1.358245E+0	1.342154E+0	1.394601E+0	1.285476E+0	1.324057E+0	1.391097E+0	1.401684E+0	1.226055E+0	1.322200E+0	1.325159E+0	1.402700E+0	1.453256E+0	1.503578E+0	1.279967E+0	1.379848E+0	1.384397E+0	1.098756E+0	1.237296E+0	1.301530E+0	1.311296E+0	1.297766E+0	1.246946E+0	1.304299E+0	1.388606E+0	1.354004E+0	1.244220E+0	1.341606E+0	1.474286E+0	1.511026E+0	1.230285E+0	1.368368E+0	1.320782E+0	1.390816E+0	1.232452E+0	1.331830E+0	1.467189E+0	1.281294E+0	1.372595E+0	1.070110E+0	1.523712E+0	1.396426E+0	1.249479E+0	1.328663E+0	1.439127E+0	1.481843E+0	1.251593E+0	1.330740E+0	1.384980E+0	1.354700E+0	1.205400E+0	1.298424E+0	1.353211E+0	1.403470E+0	1.301344E+0	1.032610E+0	1.356788E+0	1.405099E+0	1.367142E+0	1.330335E+0	1.538210E+0	1.482914E+0	1.452454E+0	1.355674E+0	1.358044E+0	1.412878E+0	1.137422E+0	1.241918E+0	1.290880E+0	1.369647E+0	1.237805E+0	1.326338E+0	1.437477E+0	1.415878E+0	1.346527E+0	1.418608E+0	1.451987E+0	1.433901E+0	1.370505E+0	1.409803E+0	1.323063E+0	1.354124E+0	1.190232E+0	1.402279E+0	1.300147E+0	1.308225E+0	1.378952E+0	1.436129E+0	1.407680E+0	1.391512E+0	1.277000E+0	1.405664E+0	1.474845E+0	1.439089E+0	1.350006E+0	1.354894E+0	1.452535E+0	1.125559E+0	1.259297E+0	1.375234E+0	1.391933E+0	1.305823E+0	1.273348E+0	1.365555E+0	1.463320E+0	1.455582E+0	1.316848E+0	1.388805E+0	1.503614E+0	1.516864E+0	1.319027E+0	1.349296E+0	1.324109E+0	1.389767E+0	1.303588E+0	1.289926E+0	1.317226E+0	1.324855E+0	1.321292E+0	1.275271E+0	1.385939E+0	1.427893E+0	1.322200E+0	1.457692E+0	1.449766E+0	1.474560E+0	1.297662E+0	1.331006E+0	1.368867E+0	1.340481E+0	1.223816E+0	1.309981E+0	1.259980E+0	1.302083E+0	1.317193E+0	1.305539E+0	1.232480E+0	1.398114E+0	1.320484E+0	1.424431E+0	1.478319E+0	1.490905E+0	1.296399E+0	1.307955E+0	1.334083E+0	1.324081E+0	1.265823E+0	1.310076E+0	1.227291E+0	1.344299E+0	1.296447E+0	1.371543E+0	1.363913E+0	1.548114E+0
5.417760E+2	1.216512E+0	1.146942E+0	1.182141E+0	1.182152E+0	1.093645E+0	1.103577E+0	1.173004E+0	1.077470E+0	1.150307E+0	1.139664E+0	1.228848E+0	1.130003E+0	1.160349E+0	1.280031E+0	1.274690E+0	1.196167E+0	1.022793E+0	1.120704E+0	1.180296E+0	1.235093E+0	1.203739E+0	1.092661E+0	1.173143E+0	1.155037E+0	1.210007E+0	1.204887E+0	1.146199E+0	1.100423E+0	1.180941E+0	1.232623E+0	1.270532E+0	1.123150E+0	1.156669E+0	1.170844E+0	9.700299E-1	1.039373E+0	1.102088E+0	1.110543E+0	1.079039E+0	1.074818E+0	1.147559E+0	1.236357E+0	1.159444E+0	1.095870E+0	1.165839E+0	1.260427E+0	1.248176E+0	1.089287E+0	1.208103E+0	1.121781E+0	1.141040E+0	1.075930E+0	1.103967E+0	1.245099E+0	1.145530E+0	1.103663E+0	9.451220E-1	1.236554E+0	1.287495E+0	1.101205E+0	1.206608E+0	1.283883E+0	1.249429E+0	1.066469E+0	1.121582E+0	1.182800E+0	1.200357E+0	1.050176E+0	1.116915E+0	1.163231E+0	1.159668E+0	1.083353E+0	8.834533E-1	1.215856E+0	1.206610E+0	1.227632E+0	1.122687E+0	1.337851E+0	1.295068E+0	1.189367E+0	1.136478E+0	1.230019E+0	1.195807E+0	9.843379E-1	1.066925E+0	1.155019E+0	1.124594E+0	1.044621E+0	1.131167E+0	1.220275E+0	1.206952E+0	1.183266E+0	1.193215E+0	1.285356E+0	1.280551E+0	1.204991E+0	1.183396E+0	1.152017E+0	1.118698E+0	9.913285E-1	1.196231E+0	1.131425E+0	1.090292E+0	1.111725E+0	1.213322E+0	1.192288E+0	1.147551E+0	1.142171E+0	1.221998E+0	1.367186E+0	1.232938E+0	1.072411E+0	1.150328E+0	1.269583E+0	9.777800E-1	1.059534E+0	1.170831E+0	1.194196E+0	1.143349E+0	1.102387E+0	1.176186E+0	1.231315E+0	1.184768E+0	1.095818E+0	1.230544E+0	1.303700E+0	1.236763E+0	1.130709E+0	1.146575E+0	1.143521E+0	1.210906E+0	1.126109E+0	1.057501E+0	1.082134E+0	1.149652E+0	1.093925E+0	1.152865E+0	1.243664E+0	1.222072E+0	1.150823E+0	1.186202E+0	1.242378E+0	1.306475E+0	1.125364E+0	1.182203E+0	1.141124E+0	1.205352E+0	1.064858E+0	1.121161E+0	1.154603E+0	1.170379E+0	1.140155E+0	1.107944E+0	1.055122E+0	1.200093E+0	1.184527E+0	1.171056E+0	1.203019E+0	1.232336E+0	1.095638E+0	1.120570E+0	1.166625E+0	1.184422E+0	1.096186E+0	1.134688E+0	1.132065E+0	1.127973E+0	1.080062E+0	1.170881E+0	1.220069E+0	1.242663E+0
5.420270E+2	1.053677E+0	1.019985E+0	1.068337E+0	1.026462E+0	9.805602E-1	9.819347E-1	1.036024E+0	9.850397E-1	1.076377E+0	1.042575E+0	1.067858E+0	1.050366E+0	9.895250E-1	1.114084E+0	1.136265E+0	1.109985E+0	8.241761E-1	9.867797E-1	9.828915E-1	1.140171E+0	1.011872E+0	1.005245E+0	9.964041E-1	1.017926E+0	1.053535E+0	1.043692E+0	1.017717E+0	1.089946E+0	1.031191E+0	1.151685E+0	1.100536E+0	1.126628E+0	9.744721E-1	1.022642E+0	8.054354E-1	1.068402E+0	9.620762E-1	9.951710E-1	9.512408E-1	9.693356E-1	1.010118E+0	1.047915E+0	1.057199E+0	9.751688E-1	1.014610E+0	1.093315E+0	1.132608E+0	1.020125E+0	1.053820E+0	1.060550E+0	1.057973E+0	1.003887E+0	1.002805E+0	1.101144E+0	9.986472E-1	9.854547E-1	7.888863E-1	1.169471E+0	1.051853E+0	9.454605E-1	1.008534E+0	1.138048E+0	1.148136E+0	9.430534E-1	9.817506E-1	1.018598E+0	1.039023E+0	9.281732E-1	9.932062E-1	1.027458E+0	1.036270E+0	9.650793E-1	8.147244E-1	1.050680E+0	1.023345E+0	1.067197E+0	1.014124E+0	1.156271E+0	1.120424E+0	1.063731E+0	9.944283E-1	1.041967E+0	1.027216E+0	8.893544E-1	9.352688E-1	1.019160E+0	1.023718E+0	9.602748E-1	9.940891E-1	1.035949E+0	1.071800E+0	9.701385E-1	1.022492E+0	1.104665E+0	1.147474E+0	1.071859E+0	1.031662E+0	9.848204E-1	1.029038E+0	8.753463E-1	1.014455E+0	9.841001E-1	9.843971E-1	9.459705E-1	1.081434E+0	1.099068E+0	1.081282E+0	9.916941E-1	1.067079E+0	1.127535E+0	1.102088E+0	9.943353E-1	1.018329E+0	1.114042E+0	8.716959E-1	9.359520E-1	9.654048E-1	1.043320E+0	1.005600E+0	9.526803E-1	1.016112E+0	1.141061E+0	1.074821E+0	9.607125E-1	1.072790E+0	1.132969E+0	1.111989E+0	1.029463E+0	9.964540E-1	1.018282E+0	1.089219E+0	9.811500E-1	9.255164E-1	1.007101E+0	9.989571E-1	1.005481E+0	1.015657E+0	1.028223E+0	1.080360E+0	1.026133E+0	1.115000E+0	1.106265E+0	1.177044E+0	9.889823E-1	1.028989E+0	9.985800E-1	1.026911E+0	9.518694E-1	9.815110E-1	1.008501E+0	1.045957E+0	9.695708E-1	1.008854E+0	9.267483E-1	1.117884E+0	1.053963E+0	1.042174E+0	1.104533E+0	1.126973E+0	9.468334E-1	9.858878E-1	1.010849E+0	1.031957E+0	9.760988E-1	9.674793E-1	9.892215E-1	1.030058E+0	1.015732E+0	1.073727E+0	1.056059E+0	1.140846E+0
5.422730E+2	9.285014E-1	9.404090E-1	9.368172E-1	9.690393E-1	9.191708E-1	8.830680E-1	9.373352E-1	8.801424E-1	8.795904E-1	9.722682E-1	9.697640E-1	9.752978E-1	9.579072E-1	1.055299E+0	1.035960E+0	1.023356E+0	8.206385E-1	9.241292E-1	9.537100E-1	1.007726E+0	9.437432E-1	9.577904E-1	9.569044E-1	9.850917E-1	1.015535E+0	1.022524E+0	9.291305E-1	1.012939E+0	8.928867E-1	9.862107E-1	1.004841E+0	1.057991E+0	9.186781E-1	9.716971E-1	7.946261E-1	9.580928E-1	8.835081E-1	8.853915E-1	8.789863E-1	8.658973E-1	9.264837E-1	9.973572E-1	9.298306E-1	9.320984E-1	9.518347E-1	1.006836E+0	1.005751E+0	1.020125E+0	9.348190E-1	9.624676E-1	9.656768E-1	9.525772E-1	9.181691E-1	1.004817E+0	9.087799E-1	9.160254E-1	7.625219E-1	1.040602E+0	9.657097E-1	9.724721E-1	9.764691E-1	1.065391E+0	1.072551E+0	9.921284E-1	9.396826E-1	9.694500E-1	9.231186E-1	9.619673E-1	9.166480E-1	9.580526E-1	9.498414E-1	8.934253E-1	7.016384E-1	1.003890E+0	9.663921E-1	9.701218E-1	9.313823E-1	1.032089E+0	1.015333E+0	9.912484E-1	9.338125E-1	9.436897E-1	9.754282E-1	7.968968E-1	8.546288E-1	8.977318E-1	9.331766E-1	8.206034E-1	9.451688E-1	9.869034E-1	9.890189E-1	9.665764E-1	9.884421E-1	1.013018E+0	1.035192E+0	9.505514E-1	9.617678E-1	9.380711E-1	9.625169E-1	8.048901E-1	9.292316E-1	9.048462E-1	8.754315E-1	8.917811E-1	9.955664E-1	9.971626E-1	9.921418E-1	8.959894E-1	1.019165E+0	1.060766E+0	1.010123E+0	8.769696E-1	9.288710E-1	1.040097E+0	7.867230E-1	8.671073E-1	9.459862E-1	9.570228E-1	9.132640E-1	9.063968E-1	9.120113E-1	1.029040E+0	1.001331E+0	8.682718E-1	9.688038E-1	1.010860E+0	1.058660E+0	9.150547E-1	9.066174E-1	9.014306E-1	9.727778E-1	9.591024E-1	8.522454E-1	9.415764E-1	9.150056E-1	9.535648E-1	9.353812E-1	9.846693E-1	9.628284E-1	9.487008E-1	1.026380E+0	1.049998E+0	1.045857E+0	8.856045E-1	9.093946E-1	9.729111E-1	9.749373E-1	8.566038E-1	8.880841E-1	9.723576E-1	9.506800E-1	9.331494E-1	9.543248E-1	8.428553E-1	1.003102E+0	9.347773E-1	9.933643E-1	1.040028E+0	1.082355E+0	9.554089E-1	9.050780E-1	9.418620E-1	9.057151E-1	9.096435E-1	9.342424E-1	8.814359E-1	9.344196E-1	9.198206E-1	9.802065E-1	9.149033E-1	1.063271E+0
5.425300E+2	9.698729E-1	8.948501E-1	9.325229E-1	9.696309E-1	8.658588E-1	8.778918E-1	9.109099E-1	8.607972E-1	8.975297E-1	9.661304E-1	9.755349E-1	9.184881E-1	9.404468E-1	1.002237E+0	1.043483E+0	1.074261E+0	8.069923E-1	9.689617E-1	9.148010E-1	1.012693E+0	9.447448E-1	9.453024E-1	9.148711E-1	9.398313E-1	9.490350E-1	9.411110E-1	9.308905E-1	9.767933E-1	9.634692E-1	1.014989E+0	1.013284E+0	1.048436E+0	9.379347E-1	9.140638E-1	7.833255E-1	9.390927E-1	8.955959E-1	9.260510E-1	8.711219E-1	8.589488E-1	8.972410E-1	1.007699E+0	9.163927E-1	9.352888E-1	9.307203E-1	1.006837E+0	1.019727E+0	1.053143E+0	9.192701E-1	9.743741E-1	9.679845E-1	9.313272E-1	8.781049E-1	9.603985E-1	9.121619E-1	8.852641E-1	7.678926E-1	1.018830E+0	9.223598E-1	9.621266E-1	9.526791E-1	1.041346E+0	1.018562E+0	1.015937E+0	9.130198E-1	9.448754E-1	9.592294E-1	9.470746E-1	9.435196E-1	9.261360E-1	9.923063E-1	8.882434E-1	7.347842E-1	1.011782E+0	9.793615E-1	9.736098E-1	9.213691E-1	1.007565E+0	1.018887E+0	1.058898E+0	9.405473E-1	9.128792E-1	9.274958E-1	7.428369E-1	8.425607E-1	8.419948E-1	9.193987E-1	8.695790E-1	9.135741E-1	9.701949E-1	9.743776E-1	9.149270E-1	9.683007E-1	9.901065E-1	1.008681E+0	1.052328E+0	9.534040E-1	9.001220E-1	8.873186E-1	7.929670E-1	9.119710E-1	9.131114E-1	8.708272E-1	9.943155E-1	9.663824E-1	9.960052E-1	9.563678E-1	1.015770E+0	9.733820E-1	1.042650E+0	9.700030E-1	1.007602E+0	9.645290E-1	9.935620E-1	7.814452E-1	8.930656E-1	9.546734E-1	9.295910E-1	9.500974E-1	8.728658E-1	9.575225E-1	1.021608E+0	9.799202E-1	9.879703E-1	9.824998E-1	1.031391E+0	1.026560E+0	1.007695E+0	9.030714E-1	9.662862E-1	9.958563E-1	1.000441E+0	8.668030E-1	9.305718E-1	8.858051E-1	9.252041E-1	9.644167E-1	9.713136E-1	9.527063E-1	9.338975E-1	9.418598E-1	1.030706E+0	1.023017E+0	9.753933E-1	9.441155E-1	9.543419E-1	9.183443E-1	9.147597E-1	8.462884E-1	9.194145E-1	9.024808E-1	9.174744E-1	9.144546E-1	8.721336E-1	1.033607E+0	9.461571E-1	9.692328E-1	1.064793E+0	1.044726E+0	9.105154E-1	8.939523E-1	9.279538E-1	9.447464E-1	8.979842E-1	8.667460E-1	8.688783E-1	9.139258E-1	9.016917E-1	9.466112E-1	9.431351E-1	1.075391E+0
5.427650E+2	9.857852E-1	9.586325E-1	9.947931E-1	9.814710E-1	9.547122E-1	9.493246E-1	1.010678E+0	9.145351E-1	9.404751E-1	1.001842E+0	1.048239E+0	1.010297E+0	9.461099E-1	1.115644E+0	1.068059E+0	1.084531E+0	8.924033E-1	1.010346E+0	9.891855E-1	1.093816E+0	1.027902E+0	9.003453E-1	9.812121E-1	1.052982E+0	1.021123E+0	1.019268E+0	9.649172E-1	1.078945E+0	9.839756E-1	1.125904E+0	1.088716E+0	1.089267E+0	9.784226E-1	1.018011E+0	8.010136E-1	9.755105E-1	8.663847E-1	9.377402E-1	9.340369E-1	8.990148E-1	9.463689E-1	9.996557E-1	9.730655E-1	9.799537E-1	9.626779E-1	1.079876E+0	1.053054E+0	1.092856E+0	1.025714E+0	9.772083E-1	9.927893E-1	1.005442E+0	9.542268E-1	1.070105E+0	9.851190E-1	9.406337E-1	7.625216E-1	1.068848E+0	1.032957E+0	9.540814E-1	9.775039E-1	1.094664E+0	1.090033E+0	1.077159E+0	9.645678E-1	1.010779E+0	9.994174E-1	9.997707E-1	9.648137E-1	1.002128E+0	9.868114E-1	9.508359E-1	8.074127E-1	1.043915E+0	1.007556E+0	9.956986E-1	9.877735E-1	1.107227E+0	1.069147E+0	1.077153E+0	9.411597E-1	9.824696E-1	9.836919E-1	7.994228E-1	8.946746E-1	9.574502E-1	9.941937E-1	8.836371E-1	9.874643E-1	1.048345E+0	1.049274E+0	9.909171E-1	1.017216E+0	1.056759E+0	1.098091E+0	1.075460E+0	9.826757E-1	9.815204E-1	9.364863E-1	8.997349E-1	9.578192E-1	9.831276E-1	9.598415E-1	1.013441E+0	1.034852E+0	1.042325E+0	1.007975E+0	1.093417E+0	1.042589E+0	1.063873E+0	1.105792E+0	1.120378E+0	1.008320E+0	1.077707E+0	8.748629E-1	9.348234E-1	9.602941E-1	1.000457E+0	9.738128E-1	9.427614E-1	1.000418E+0	1.108146E+0	1.020426E+0	1.035376E+0	1.000254E+0	1.117299E+0	1.116648E+0	1.069455E+0	9.917264E-1	9.690815E-1	1.026802E+0	9.954806E-1	9.206634E-1	9.270707E-1	9.791426E-1	9.396251E-1	9.718181E-1	1.028222E+0	1.010066E+0	1.052893E+0	1.061214E+0	1.070897E+0	1.065184E+0	1.093331E+0	9.661608E-1	1.007319E+0	9.674305E-1	9.884241E-1	9.382402E-1	9.504677E-1	9.854280E-1	1.000921E+0	9.742600E-1	8.957804E-1	1.010340E+0	1.046776E+0	1.012559E+0	1.073433E+0	1.082356E+0	1.080001E+0	1.014581E+0	1.005285E+0	1.013051E+0	9.726022E-1	8.938468E-1	9.813726E-1	9.645916E-1	9.332717E-1	1.015617E+0	9.632999E-1	1.102059E+0
5.430070E+2	1.128464E+0	1.055825E+0	1.082294E+0	1.135978E+0	1.059720E+0	1.068897E+0	1.162219E+0	1.059414E+0	1.082900E+0	1.115670E+0	1.139986E+0	1.162466E+0	1.138642E+0	1.197839E+0	1.251117E+0	1.242610E+0	9.813511E-1	1.095413E+0	1.117356E+0	1.213017E+0	1.150637E+0	1.070183E+0	1.137694E+0	1.154151E+0	1.110536E+0	1.193491E+0	1.086358E+0	1.181620E+0	1.152802E+0	1.188856E+0	1.240700E+0	1.262593E+0	1.129018E+0	1.116298E+0	9.248273E-1	1.124347E+0	1.080935E+0	1.078523E+0	1.021530E+0	1.050288E+0	1.126504E+0	1.170863E+0	1.120884E+0	1.128837E+0	1.099640E+0	1.185051E+0	1.211626E+0	1.236085E+0	1.089102E+0	1.118379E+0	1.154886E+0	1.184251E+0	1.092948E+0	1.181954E+0	1.086098E+0	1.085645E+0	9.431690E-1	1.233611E+0	1.170786E+0	1.112125E+0	1.111968E+0	1.254612E+0	1.174874E+0	1.220982E+0	1.094920E+0	1.129742E+0	1.122311E+0	1.098863E+0	1.066722E+0	1.117634E+0	1.112208E+0	1.080332E+0	1.114501E+0	1.175265E+0	1.154732E+0	1.145088E+0	1.129012E+0	1.223579E+0	1.188964E+0	1.184535E+0	1.072801E+0	1.127492E+0	1.130794E+0	9.131005E-1	1.072411E+0	1.081366E+0	1.135910E+0	1.035099E+0	1.134736E+0	1.141587E+0	1.093199E+0	1.097184E+0	1.142382E+0	1.216099E+0	1.241042E+0	1.204991E+0	1.100360E+0	1.041469E+0	1.107707E+0	9.729019E-1	1.144989E+0	1.074539E+0	1.038112E+0	1.085162E+0	1.174597E+0	1.177813E+0	1.099462E+0	1.134346E+0	1.120315E+0	1.254867E+0	1.159489E+0	1.238765E+0	1.102158E+0	1.200100E+0	9.281688E-1	1.099034E+0	1.117176E+0	1.163906E+0	1.077756E+0	1.083025E+0	1.087779E+0	1.215919E+0	1.177244E+0	1.150335E+0	1.140257E+0	1.290735E+0	1.232104E+0	1.208162E+0	1.144802E+0	1.119479E+0	1.087123E+0	1.188945E+0	1.069631E+0	1.099142E+0	1.074566E+0	1.116038E+0	1.142048E+0	1.183271E+0	1.202389E+0	1.124064E+0	1.147784E+0	1.203795E+0	1.233268E+0	1.237963E+0	1.086857E+0	1.085963E+0	1.136054E+0	1.115260E+0	1.022324E+0	1.063481E+0	1.065013E+0	1.089442E+0	1.110876E+0	1.011204E+0	1.199575E+0	1.155779E+0	1.160636E+0	1.267523E+0	1.242550E+0	1.252010E+0	1.093048E+0	1.134357E+0	1.111849E+0	1.124168E+0	1.042134E+0	1.064567E+0	1.096663E+0	1.095852E+0	1.118218E+0	1.061436E+0	1.305691E+0
5.433020E+2	1.313577E+0	1.256891E+0	1.294335E+0	1.269174E+0	1.176575E+0	1.187433E+0	1.265762E+0	1.188813E+0	1.234567E+0	1.318220E+0	1.326366E+0	1.342535E+0	1.269826E+0	1.367429E+0	1.450730E+0	1.402473E+0	1.126903E+0	1.310954E+0	1.235228E+0	1.384642E+0	1.313947E+0	1.254007E+0	1.236953E+0	1.320100E+0	1.308920E+0	1.377482E+0	1.233610E+0	1.356064E+0	1.301120E+0	1.395698E+0	1.439971E+0	1.412891E+0	1.293438E+0	1.293829E+0	1.036358E+0	1.316991E+0	1.191229E+0	1.217783E+0	1.190614E+0	1.154134E+0	1.251078E+0	1.333453E+0	1.316611E+0	1.293137E+0	1.281115E+0	1.368526E+0	1.432012E+0	1.393148E+0	1.267905E+0	1.247078E+0	1.319288E+0	1.336625E+0	1.227165E+0	1.361763E+0	1.252307E+0	1.228019E+0	9.958991E-1	1.443685E+0	1.326958E+0	1.318443E+0	1.258843E+0	1.400971E+0	1.326043E+0	1.409995E+0	1.275043E+0	1.289477E+0	1.276655E+0	1.314802E+0	1.231498E+0	1.339021E+0	1.290563E+0	1.214147E+0	1.247084E+0	1.341004E+0	1.348143E+0	1.321217E+0	1.234417E+0	1.408813E+0	1.376299E+0	1.353663E+0	1.279753E+0	1.311828E+0	1.242637E+0	1.108625E+0	1.192000E+0	1.255546E+0	1.263849E+0	1.150283E+0	1.273342E+0	1.348548E+0	1.349425E+0	1.279441E+0	1.322217E+0	1.386378E+0	1.356964E+0	1.341721E+0	1.295107E+0	1.225165E+0	1.248270E+0	1.115982E+0	1.253945E+0	1.236938E+0	1.264229E+0	1.198854E+0	1.373272E+0	1.301140E+0	1.289473E+0	1.372101E+0	1.342314E+0	1.392549E+0	1.384157E+0	1.393383E+0	1.286706E+0	1.432136E+0	1.109726E+0	1.226001E+0	1.221421E+0	1.345641E+0	1.244767E+0	1.205341E+0	1.252561E+0	1.399610E+0	1.288927E+0	1.312699E+0	1.260979E+0	1.383125E+0	1.422116E+0	1.366104E+0	1.293740E+0	1.287209E+0	1.314758E+0	1.360912E+0	1.144841E+0	1.223191E+0	1.181459E+0	1.259286E+0	1.228586E+0	1.309282E+0	1.261998E+0	1.273236E+0	1.346537E+0	1.358664E+0	1.324630E+0	1.454429E+0	1.259911E+0	1.279300E+0	1.259634E+0	1.222157E+0	1.190985E+0	1.216199E+0	1.229225E+0	1.254494E+0	1.294398E+0	1.160974E+0	1.314356E+0	1.344440E+0	1.301583E+0	1.404598E+0	1.352214E+0	1.345830E+0	1.188497E+0	1.271218E+0	1.319201E+0	1.281562E+0	1.219055E+0	1.230431E+0	1.286801E+0	1.237965E+0	1.255322E+0	1.246957E+0	1.373570E+0
5.435270E+2	1.519372E+0	1.430623E+0	1.371635E+0	1.427232E+0	1.408668E+0	1.375329E+0	1.386561E+0	1.292424E+0	1.373188E+0	1.457157E+0	1.512167E+0	1.446006E+0	1.420832E+0	1.551069E+0	1.516427E+0	1.552511E+0	1.250217E+0	1.353490E+0	1.410888E+0	1.575038E+0	1.455714E+0	1.379388E+0	1.376724E+0	1.434138E+0	1.436890E+0	1.500689E+0	1.409613E+0	1.488076E+0	1.390776E+0	1.517405E+0	1.555929E+0	1.572748E+0	1.390711E+0	1.425569E+0	1.178841E+0	1.487996E+0	1.324698E+0	1.351448E+0	1.307595E+0	1.300911E+0	1.395537E+0	1.483404E+0	1.434045E+0	1.345251E+0	1.386118E+0	1.544402E+0	1.550807E+0	1.555121E+0	1.425772E+0	1.431338E+0	1.437542E+0	1.468271E+0	1.401946E+0	1.584923E+0	1.420445E+0	1.374789E+0	1.367935E+0	1.593148E+0	1.471457E+0	1.434535E+0	1.495187E+0	1.599598E+0	1.500864E+0	1.551873E+0	1.391172E+0	1.482719E+0	1.425758E+0	1.419622E+0	1.345574E+0	1.435787E+0	1.384983E+0	1.365229E+0	1.411839E+0	1.505614E+0	1.407920E+0	1.472353E+0	1.457346E+0	1.537691E+0	1.556527E+0	1.534060E+0	1.386901E+0	1.371857E+0	1.430508E+0	1.154601E+0	1.350537E+0	1.403846E+0	1.357345E+0	1.275898E+0	1.383922E+0	1.447720E+0	1.465432E+0	1.386301E+0	1.492459E+0	1.547281E+0	1.519670E+0	1.560692E+0	1.455803E+0	1.417662E+0	1.328672E+0	1.266652E+0	1.357511E+0	1.356061E+0	1.373708E+0	1.407641E+0	1.518065E+0	1.460948E+0	1.439016E+0	1.544249E+0	1.467418E+0	1.516256E+0	1.504516E+0	1.502074E+0	1.425584E+0	1.519467E+0	1.201031E+0	1.389086E+0	1.323111E+0	1.443370E+0	1.367885E+0	1.335686E+0	1.438790E+0	1.551978E+0	1.542382E+0	1.451363E+0	1.439531E+0	1.544675E+0	1.537056E+0	1.498231E+0	1.335112E+0	1.389526E+0	1.470538E+0	1.428155E+0	1.293810E+0	1.353741E+0	1.353534E+0	1.343404E+0	1.353269E+0	1.442848E+0	1.410460E+0	1.444614E+0	1.441302E+0	1.530147E+0	1.526682E+0	1.521888E+0	1.398244E+0	1.410374E+0	1.448471E+0	1.397178E+0	1.323258E+0	1.355686E+0	1.371578E+0	1.407095E+0	1.319611E+0	1.287656E+0	1.460673E+0	1.444461E+0	1.446917E+0	1.531302E+0	1.507033E+0	1.507246E+0	1.330792E+0	1.405853E+0	1.449105E+0	1.352681E+0	1.315188E+0	1.332461E+0	1.439936E+0	1.414578E+0	1.342487E+0	1.448607E+0	1.526297E+0
5.437690E+2	1.692287E+0	1.495622E+0	1.589584E+0	1.548589E+0	1.629994E+0	1.472647E+0	1.551585E+0	1.437302E+0	1.529744E+0	1.627343E+0	1.601030E+0	1.566727E+0	1.583634E+0	1.736782E+0	1.685445E+0	1.691836E+0	1.320971E+0	1.590875E+0	1.483554E+0	1.680993E+0	1.596486E+0	1.489780E+0	1.463826E+0	1.561487E+0	1.564860E+0	1.626066E+0	1.486466E+0	1.611706E+0	1.547679E+0	1.727245E+0	1.678642E+0	1.679608E+0	1.656351E+0	1.510474E+0	1.217165E+0	1.633141E+0	1.611267E+0	1.451063E+0	1.458497E+0	1.418659E+0	1.517188E+0	1.552347E+0	1.535707E+0	1.518591E+0	1.573304E+0	1.674705E+0	1.657772E+0	1.674256E+0	1.601585E+0	1.457417E+0	1.570795E+0	1.573999E+0	1.556693E+0	1.626665E+0	1.457645E+0	1.460481E+0	1.575432E+0	1.657875E+0	1.572607E+0	1.590278E+0	1.557246E+0	1.667551E+0	1.608332E+0	1.711244E+0	1.526268E+0	1.519582E+0	1.524772E+0	1.547926E+0	1.478411E+0	1.509243E+0	1.543853E+0	1.473572E+0	1.584391E+0	1.630766E+0	1.512805E+0	1.586867E+0	1.545882E+0	1.702049E+0	1.588511E+0	1.697818E+0	1.471397E+0	1.538663E+0	1.559428E+0	1.243524E+0	1.435017E+0	1.457593E+0	1.526615E+0	1.416021E+0	1.496030E+0	1.605095E+0	1.605088E+0	1.512755E+0	1.586455E+0	1.683709E+0	1.680297E+0	1.574571E+0	1.550187E+0	1.491360E+0	1.490641E+0	1.351198E+0	1.524181E+0	1.475185E+0	1.466302E+0	1.468738E+0	1.579803E+0	1.590645E+0	1.543990E+0	1.582166E+0	1.630325E+0	1.712941E+0	1.698936E+0	1.680166E+0	1.518173E+0	1.613172E+0	1.316088E+0	1.457364E+0	1.485615E+0	1.544524E+0	1.498063E+0	1.432974E+0	1.502611E+0	1.583837E+0	1.636706E+0	1.574614E+0	1.547576E+0	1.642469E+0	1.626623E+0	1.605556E+0	1.471642E+0	1.607013E+0	1.527186E+0	1.516896E+0	1.388428E+0	1.479294E+0	1.446873E+0	1.507323E+0	1.510405E+0	1.547374E+0	1.589285E+0	1.581827E+0	1.562192E+0	1.611597E+0	1.674856E+0	1.684478E+0	1.477054E+0	1.519056E+0	1.565698E+0	1.483025E+0	1.402916E+0	1.419827E+0	1.514495E+0	1.512671E+0	1.467953E+0	1.340020E+0	1.594070E+0	1.625933E+0	1.580732E+0	1.637278E+0	1.668843E+0	1.652519E+0	1.391107E+0	1.472614E+0	1.475937E+0	1.547388E+0	1.456828E+0	1.414088E+0	1.528745E+0	1.462535E+0	1.518634E+0	1.497004E+0	1.599022E+0
5.440170E+2	1.830720E+0	1.495619E+0	1.603002E+0	1.648042E+0	1.736080E+0	1.488175E+0	1.500352E+0	1.526719E+0	1.674346E+0	1.572661E+0	1.717008E+0	1.674261E+0	1.554380E+0	1.725337E+0	1.751149E+0	1.738273E+0	1.372015E+0	1.570759E+0	1.551077E+0	1.721279E+0	1.649587E+0	1.510761E+0	1.585877E+0	1.584561E+0	1.640304E+0	1.708018E+0	1.556281E+0	1.697093E+0	1.653554E+0	1.718854E+0	1.732119E+0	1.714797E+0	1.667707E+0	1.575829E+0	1.323785E+0	1.581419E+0	1.744734E+0	1.530349E+0	1.502733E+0	1.437464E+0	1.636496E+0	1.702292E+0	1.569593E+0	1.570701E+0	1.660614E+0	1.679379E+0	1.695938E+0	1.682287E+0	1.690090E+0	1.543593E+0	1.611748E+0	1.642418E+0	1.723960E+0	1.679646E+0	1.552345E+0	1.574733E+0	1.664780E+0	1.722018E+0	1.652634E+0	1.552349E+0	1.635861E+0	1.784116E+0	1.739964E+0	1.703955E+0	1.715280E+0	1.611734E+0	1.619126E+0	1.549646E+0	1.718730E+0	1.537613E+0	1.595807E+0	1.507245E+0	1.678955E+0	1.700107E+0	1.649827E+0	1.640345E+0	1.583299E+0	1.759963E+0	1.694620E+0	1.675803E+0	1.677125E+0	1.562037E+0	1.557778E+0	1.328904E+0	1.639086E+0	1.512833E+0	1.539904E+0	1.469534E+0	1.568902E+0	1.571142E+0	1.593265E+0	1.581024E+0	1.600842E+0	1.673814E+0	1.713565E+0	1.671720E+0	1.591409E+0	1.533160E+0	1.573935E+0	1.325183E+0	1.621273E+0	1.526243E+0	1.566572E+0	1.518146E+0	1.600565E+0	1.637542E+0	1.589735E+0	1.667036E+0	1.627129E+0	1.693793E+0	1.715601E+0	1.729662E+0	1.610133E+0	1.717717E+0	1.473896E+0	1.499127E+0	1.496859E+0	1.626251E+0	1.559622E+0	1.495783E+0	1.618218E+0	1.651262E+0	1.618765E+0	1.627944E+0	1.601850E+0	1.718653E+0	1.670118E+0	1.644028E+0	1.527199E+0	1.586885E+0	1.609008E+0	1.612253E+0	1.452482E+0	1.506806E+0	1.472947E+0	1.568369E+0	1.545134E+0	1.622285E+0	1.585912E+0	1.626809E+0	1.590368E+0	1.730566E+0	1.680124E+0	1.722338E+0	1.541536E+0	1.537627E+0	1.524698E+0	1.559462E+0	1.448643E+0	1.503822E+0	1.541398E+0	1.486394E+0	1.469127E+0	1.369859E+0	1.686617E+0	1.681632E+0	1.519308E+0	1.674138E+0	1.695183E+0	1.730706E+0	1.468991E+0	1.492086E+0	1.528386E+0	1.567205E+0	1.452226E+0	1.415656E+0	1.561194E+0	1.501133E+0	1.603983E+0	1.592451E+0	1.599020E+0
5.442810E+2	1.681677E+0	1.523562E+0	1.564889E+0	1.635019E+0	1.759775E+0	1.475232E+0	1.575311E+0	1.465243E+0	1.658581E+0	1.653568E+0	1.618917E+0	1.599700E+0	1.553436E+0	1.713373E+0	1.700996E+0	1.710143E+0	1.385660E+0	1.519024E+0	1.506444E+0	1.704172E+0	1.691165E+0	1.504270E+0	1.571695E+0	1.585007E+0	1.620184E+0	1.657005E+0	1.555108E+0	1.663042E+0	1.574386E+0	1.738036E+0	1.684275E+0	1.728260E+0	1.703259E+0	1.600529E+0	1.328697E+0	1.579305E+0	1.707966E+0	1.498328E+0	1.453580E+0	1.450960E+0	1.589709E+0	1.605201E+0	1.577773E+0	1.536669E+0	1.593845E+0	1.670614E+0	1.731414E+0	1.749665E+0	1.672749E+0	1.519217E+0	1.599637E+0	1.574003E+0	1.735978E+0	1.660916E+0	1.550895E+0	1.525955E+0	1.682361E+0	1.642575E+0	1.547040E+0	1.589129E+0	1.625517E+0	1.704138E+0	1.710138E+0	1.708815E+0	1.693950E+0	1.584927E+0	1.602238E+0	1.555947E+0	1.727859E+0	1.558384E+0	1.554344E+0	1.509403E+0	1.646299E+0	1.671353E+0	1.632346E+0	1.614185E+0	1.578028E+0	1.737528E+0	1.640803E+0	1.657014E+0	1.672226E+0	1.582752E+0	1.559428E+0	1.293035E+0	1.663223E+0	1.475010E+0	1.540395E+0	1.449125E+0	1.649925E+0	1.621803E+0	1.605089E+0	1.561433E+0	1.618583E+0	1.699852E+0	1.721364E+0	1.649106E+0	1.621278E+0	1.537561E+0	1.583769E+0	1.317051E+0	1.753966E+0	1.492203E+0	1.491370E+0	1.550021E+0	1.656128E+0	1.660704E+0	1.654829E+0	1.636943E+0	1.620739E+0	1.666873E+0	1.634128E+0	1.670471E+0	1.659552E+0	1.709431E+0	1.545673E+0	1.486708E+0	1.751849E+0	1.550811E+0	1.473845E+0	1.485866E+0	1.625019E+0	1.701164E+0	1.652325E+0	1.631502E+0	1.678446E+0	1.681371E+0	1.689789E+0	1.692117E+0	1.631808E+0	1.513644E+0	1.613209E+0	1.615561E+0	1.591256E+0	1.458283E+0	1.467731E+0	1.518378E+0	1.543427E+0	1.614739E+0	1.557792E+0	1.643318E+0	1.604708E+0	1.700021E+0	1.718780E+0	1.690304E+0	1.514532E+0	1.528889E+0	1.535670E+0	1.546170E+0	1.458481E+0	1.524697E+0	1.503845E+0	1.487777E+0	1.547110E+0	1.434047E+0	1.632848E+0	1.596585E+0	1.560991E+0	1.675865E+0	1.630138E+0	1.647474E+0	1.501196E+0	1.566077E+0	1.561929E+0	1.532811E+0	1.448136E+0	1.415656E+0	1.525901E+0	1.506398E+0	1.574928E+0	1.601861E+0	1.630537E+0
5.445240E+2	1.654628E+0	1.487722E+0	1.483830E+0	1.498865E+0	1.664460E+0	1.444176E+0	1.520843E+0	1.414084E+0	1.581388E+0	1.485057E+0	1.579101E+0	1.531221E+0	1.455280E+0	1.688925E+0	1.686451E+0	1.628870E+0	1.283066E+0	1.442005E+0	1.482982E+0	1.670507E+0	1.568431E+0	1.432337E+0	1.488138E+0	1.542405E+0	1.572126E+0	1.572877E+0	1.451853E+0	1.563513E+0	1.469467E+0	1.621725E+0	1.609407E+0	1.627481E+0	1.596112E+0	1.505842E+0	1.262857E+0	1.567165E+0	1.675227E+0	1.437849E+0	1.424090E+0	1.399851E+0	1.612519E+0	1.529369E+0	1.512336E+0	1.498388E+0	1.492267E+0	1.643149E+0	1.594883E+0	1.643021E+0	1.637466E+0	1.471589E+0	1.461192E+0	1.536166E+0	1.678889E+0	1.649139E+0	1.464894E+0	1.409944E+0	1.678455E+0	1.673768E+0	1.503691E+0	1.532808E+0	1.570697E+0	1.657619E+0	1.592391E+0	1.650021E+0	1.636476E+0	1.541921E+0	1.563213E+0	1.527880E+0	1.655863E+0	1.460610E+0	1.474408E+0	1.411415E+0	1.554658E+0	1.577775E+0	1.503217E+0	1.543271E+0	1.568018E+0	1.647261E+0	1.590543E+0	1.631779E+0	1.651410E+0	1.446227E+0	1.508191E+0	1.224828E+0	1.619887E+0	1.459085E+0	1.474461E+0	1.356162E+0	1.545969E+0	1.545810E+0	1.546522E+0	1.507411E+0	1.581659E+0	1.626430E+0	1.682896E+0	1.654248E+0	1.568109E+0	1.444610E+0	1.520141E+0	1.259063E+0	1.604550E+0	1.474700E+0	1.409008E+0	1.509113E+0	1.648832E+0	1.553589E+0	1.513494E+0	1.576751E+0	1.618608E+0	1.619773E+0	1.596479E+0	1.602092E+0	1.572599E+0	1.657796E+0	1.499758E+0	1.457931E+0	1.611830E+0	1.544526E+0	1.485450E+0	1.359772E+0	1.576371E+0	1.644890E+0	1.563790E+0	1.553280E+0	1.614025E+0	1.601405E+0	1.633875E+0	1.615678E+0	1.604030E+0	1.500224E+0	1.525088E+0	1.497053E+0	1.631051E+0	1.471290E+0	1.463040E+0	1.446274E+0	1.591250E+0	1.501496E+0	1.495937E+0	1.561902E+0	1.569875E+0	1.598740E+0	1.570020E+0	1.619443E+0	1.550356E+0	1.478644E+0	1.514302E+0	1.486903E+0	1.627631E+0	1.455972E+0	1.385592E+0	1.451816E+0	1.558249E+0	1.369862E+0	1.586314E+0	1.533697E+0	1.568667E+0	1.605028E+0	1.602720E+0	1.644951E+0	1.464303E+0	1.449805E+0	1.482644E+0	1.464609E+0	1.550912E+0	1.465360E+0	1.464416E+0	1.455515E+0	1.562215E+0	1.566910E+0	1.567508E+0
5.447720E+2	1.555441E+0	1.421510E+0	1.439275E+0	1.443215E+0	1.566449E+0	1.381026E+0	1.398965E+0	1.325096E+0	1.484625E+0	1.457716E+0	1.515629E+0	1.421153E+0	1.346747E+0	1.505805E+0	1.525959E+0	1.566357E+0	1.285088E+0	1.389125E+0	1.396585E+0	1.560137E+0	1.557911E+0	1.352413E+0	1.385333E+0	1.434583E+0	1.466510E+0	1.463782E+0	1.396119E+0	1.473932E+0	1.423208E+0	1.484431E+0	1.474868E+0	1.547988E+0	1.542293E+0	1.431226E+0	1.413698E+0	1.468996E+0	1.580546E+0	1.357545E+0	1.308579E+0	1.359783E+0	1.498471E+0	1.457551E+0	1.418855E+0	1.377155E+0	1.445470E+0	1.538562E+0	1.502964E+0	1.582338E+0	1.541187E+0	1.390516E+0	1.476191E+0	1.437692E+0	1.520134E+0	1.471472E+0	1.376476E+0	1.404673E+0	1.513428E+0	1.486641E+0	1.468676E+0	1.402349E+0	1.483811E+0	1.529553E+0	1.537372E+0	1.518345E+0	1.485384E+0	1.446415E+0	1.463033E+0	1.444825E+0	1.565110E+0	1.445916E+0	1.408464E+0	1.397603E+0	1.473743E+0	1.456573E+0	1.414121E+0	1.399692E+0	1.426251E+0	1.558560E+0	1.524035E+0	1.491648E+0	1.523443E+0	1.381950E+0	1.463567E+0	1.163697E+0	1.578193E+0	1.305809E+0	1.379981E+0	1.263651E+0	1.517942E+0	1.426699E+0	1.453607E+0	1.383928E+0	1.450738E+0	1.503018E+0	1.536304E+0	1.511861E+0	1.473127E+0	1.381361E+0	1.384781E+0	1.216791E+0	1.556547E+0	1.333210E+0	1.377800E+0	1.372577E+0	1.537149E+0	1.463843E+0	1.414973E+0	1.539430E+0	1.478599E+0	1.569567E+0	1.511919E+0	1.541366E+0	1.516294E+0	1.491422E+0	1.469672E+0	1.394166E+0	1.524961E+0	1.402223E+0	1.371921E+0	1.347963E+0	1.517783E+0	1.552513E+0	1.498401E+0	1.485136E+0	1.515111E+0	1.533871E+0	1.527219E+0	1.518988E+0	1.499416E+0	1.402939E+0	1.372980E+0	1.463981E+0	1.545160E+0	1.341740E+0	1.353012E+0	1.372727E+0	1.483646E+0	1.428327E+0	1.417207E+0	1.424687E+0	1.495089E+0	1.536042E+0	1.505016E+0	1.548101E+0	1.500202E+0	1.413106E+0	1.401694E+0	1.344007E+0	1.522403E+0	1.428483E+0	1.395680E+0	1.377591E+0	1.469125E+0	1.271892E+0	1.463778E+0	1.538488E+0	1.439789E+0	1.446644E+0	1.554875E+0	1.454279E+0	1.454351E+0	1.413642E+0	1.360674E+0	1.335778E+0	1.580059E+0	1.349205E+0	1.416595E+0	1.418670E+0	1.539517E+0	1.519857E+0	1.543267E+0
5.450150E+2	1.460499E+0	1.292731E+0	1.341037E+0	1.365667E+0	1.450673E+0	1.234020E+0	1.295960E+0	1.252009E+0	1.359054E+0	1.363416E+0	1.400225E+0	1.354199E+0	1.294838E+0	1.400206E+0	1.487842E+0	1.434177E+0	1.148635E+0	1.322453E+0	1.305605E+0	1.470184E+0	1.513828E+0	1.283980E+0	1.362038E+0	1.352493E+0	1.350831E+0	1.432303E+0	1.339799E+0	1.402685E+0	1.337844E+0	1.414284E+0	1.464739E+0	1.494557E+0	1.405028E+0	1.347349E+0	1.330169E+0	1.349714E+0	1.410817E+0	1.319429E+0	1.334631E+0	1.248169E+0	1.341145E+0	1.412737E+0	1.304924E+0	1.313878E+0	1.343320E+0	1.422281E+0	1.492753E+0	1.495329E+0	1.445509E+0	1.353097E+0	1.374666E+0	1.369798E+0	1.516126E+0	1.399761E+0	1.275497E+0	1.301407E+0	1.459722E+0	1.485464E+0	1.383644E+0	1.308098E+0	1.391755E+0	1.453763E+0	1.426824E+0	1.435260E+0	1.433245E+0	1.338624E+0	1.343634E+0	1.351460E+0	1.435822E+0	1.329903E+0	1.326031E+0	1.283215E+0	1.383568E+0	1.401324E+0	1.398895E+0	1.378184E+0	1.391467E+0	1.419246E+0	1.488498E+0	1.499697E+0	1.471398E+0	1.354856E+0	1.373758E+0	1.097512E+0	1.443792E+0	1.245591E+0	1.328802E+0	1.179760E+0	1.407873E+0	1.378732E+0	1.355056E+0	1.379773E+0	1.383122E+0	1.430119E+0	1.488480E+0	1.412655E+0	1.427726E+0	1.283464E+0	1.350078E+0	1.192942E+0	1.453521E+0	1.283614E+0	1.345570E+0	1.265260E+0	1.441740E+0	1.376992E+0	1.348702E+0	1.385945E+0	1.453046E+0	1.468117E+0	1.434769E+0	1.475027E+0	1.366781E+0	1.397711E+0	1.279672E+0	1.258166E+0	1.437580E+0	1.353072E+0	1.281604E+0	1.249265E+0	1.435653E+0	1.467568E+0	1.368784E+0	1.396251E+0	1.391342E+0	1.487403E+0	1.412280E+0	1.444574E+0	1.435586E+0	1.333054E+0	1.395535E+0	1.341070E+0	1.439380E+0	1.265209E+0	1.289398E+0	1.297260E+0	1.424435E+0	1.379550E+0	1.357035E+0	1.356362E+0	1.371637E+0	1.410645E+0	1.444692E+0	1.445690E+0	1.430762E+0	1.302785E+0	1.305831E+0	1.324067E+0	1.434385E+0	1.276271E+0	1.310492E+0	1.301981E+0	1.433361E+0	1.172797E+0	1.349511E+0	1.370790E+0	1.368491E+0	1.380984E+0	1.419949E+0	1.416448E+0	1.377055E+0	1.321288E+0	1.327131E+0	1.362011E+0	1.452736E+0	1.248221E+0	1.349423E+0	1.305803E+0	1.482315E+0	1.401554E+0	1.443872E+0
5.452800E+2	1.391548E+0	1.318851E+0	1.267495E+0	1.240758E+0	1.358588E+0	1.362390E+0	1.250662E+0	1.142386E+0	1.312304E+0	1.317660E+0	1.339635E+0	1.323764E+0	1.274545E+0	1.360669E+0	1.323340E+0	1.331471E+0	1.124377E+0	1.256350E+0	1.231220E+0	1.312905E+0	1.347010E+0	1.248513E+0	1.257208E+0	1.250437E+0	1.273155E+0	1.318865E+0	1.247105E+0	1.359731E+0	1.251042E+0	1.365121E+0	1.302620E+0	1.382918E+0	1.347259E+0	1.203263E+0	1.282021E+0	1.313296E+0	1.381106E+0	1.214731E+0	1.214700E+0	1.201969E+0	1.346995E+0	1.300132E+0	1.269868E+0	1.200091E+0	1.255433E+0	1.340477E+0	1.366969E+0	1.390025E+0	1.306175E+0	1.205123E+0	1.272563E+0	1.329371E+0	1.410959E+0	1.367115E+0	1.202538E+0	1.184956E+0	1.359148E+0	1.366601E+0	1.244703E+0	1.310397E+0	1.309525E+0	1.390517E+0	1.265885E+0	1.330307E+0	1.434428E+0	1.295619E+0	1.249281E+0	1.277572E+0	1.380049E+0	1.250365E+0	1.261584E+0	1.208105E+0	1.311424E+0	1.308873E+0	1.326718E+0	1.321218E+0	1.310307E+0	1.392635E+0	1.321976E+0	1.339164E+0	1.347104E+0	1.242769E+0	1.290569E+0	1.064164E+0	1.388386E+0	1.183884E+0	1.189055E+0	1.135319E+0	1.328888E+0	1.323217E+0	1.295362E+0	1.242634E+0	1.249323E+0	1.347323E+0	1.394394E+0	1.340179E+0	1.310640E+0	1.184467E+0	1.215298E+0	1.143081E+0	1.346721E+0	1.199011E+0	1.264229E+0	1.258886E+0	1.328934E+0	1.257714E+0	1.309996E+0	1.333578E+0	1.268314E+0	1.406003E+0	1.293426E+0	1.389298E+0	1.389928E+0	1.367114E+0	1.262785E+0	1.246881E+0	1.358373E+0	1.306208E+0	1.185735E+0	1.202035E+0	1.331552E+0	1.343335E+0	1.301659E+0	1.281292E+0	1.293951E+0	1.370157E+0	1.333063E+0	1.351932E+0	1.380623E+0	1.206698E+0	1.320004E+0	1.329496E+0	1.407353E+0	1.213185E+0	1.199189E+0	1.266976E+0	1.323096E+0	1.254117E+0	1.231631E+0	1.295440E+0	1.304017E+0	1.347949E+0	1.288905E+0	1.397640E+0	1.318331E+0	1.247624E+0	1.192070E+0	1.208311E+0	1.386687E+0	1.211619E+0	1.257808E+0	1.256333E+0	1.283258E+0	1.316936E+0	1.337105E+0	1.294129E+0	1.291712E+0	1.376378E+0	1.329097E+0	1.315565E+0	1.319082E+0	1.175527E+0	1.284441E+0	1.264075E+0	1.376036E+0	1.183340E+0	1.275987E+0	1.210477E+0	1.393334E+0	1.280565E+0	1.269330E+0
5.455500E+2	1.323656E+0	1.287263E+0	1.242800E+0	1.223592E+0	1.337050E+0	1.344275E+0	1.212370E+0	1.125618E+0	1.234021E+0	1.288644E+0	1.249044E+0	1.257825E+0	1.181113E+0	1.330495E+0	1.316818E+0	1.343975E+0	1.035933E+0	1.329349E+0	1.199179E+0	1.308488E+0	1.273370E+0	1.337429E+0	1.206064E+0	1.226032E+0	1.241861E+0	1.351433E+0	1.164972E+0	1.276440E+0	1.239123E+0	1.308165E+0	1.333018E+0	1.275622E+0	1.302327E+0	1.323680E+0	1.242716E+0	1.224102E+0	1.356423E+0	1.373302E+0	1.156698E+0	1.136962E+0	1.254589E+0	1.349541E+0	1.198588E+0	1.252198E+0	1.261714E+0	1.317689E+0	1.282578E+0	1.339603E+0	1.334281E+0	1.215328E+0	1.229297E+0	1.273913E+0	1.327326E+0	1.288448E+0	1.145525E+0	1.180561E+0	1.283471E+0	1.321878E+0	1.203021E+0	1.210974E+0	1.271256E+0	1.306883E+0	1.321929E+0	1.284148E+0	1.282154E+0	1.254849E+0	1.227730E+0	1.224875E+0	1.354701E+0	1.242261E+0	1.210127E+0	1.155441E+0	1.277793E+0	1.281247E+0	1.172776E+0	1.253208E+0	1.261821E+0	1.344634E+0	1.283901E+0	1.295139E+0	1.254036E+0	1.177961E+0	1.217292E+0	9.590761E-1	1.339019E+0	1.157507E+0	1.183643E+0	1.117632E+0	1.250920E+0	1.243989E+0	1.253129E+0	1.197515E+0	1.231579E+0	1.339510E+0	1.288347E+0	1.270270E+0	1.290925E+0	1.166866E+0	1.182327E+0	1.073708E+0	1.304648E+0	1.160601E+0	1.174192E+0	1.175477E+0	1.282355E+0	1.266979E+0	1.267188E+0	1.304084E+0	1.290139E+0	1.375469E+0	1.309473E+0	1.354601E+0	1.337379E+0	1.348629E+0	1.194171E+0	1.124992E+0	1.300115E+0	1.266206E+0	1.204907E+0	1.077830E+0	1.250470E+0	1.258922E+0	1.235689E+0	1.258774E+0	1.263011E+0	1.338282E+0	1.329439E+0	1.313459E+0	1.292559E+0	1.178186E+0	1.167896E+0	1.209339E+0	1.311278E+0	1.152162E+0	1.215875E+0	1.158340E+0	1.252498E+0	1.221017E+0	1.204639E+0	1.257294E+0	1.266624E+0	1.315794E+0	1.278364E+0	1.283100E+0	1.261013E+0	1.185908E+0	1.178210E+0	1.222711E+0	1.321780E+0	1.183622E+0	1.155246E+0	1.194558E+0	1.266254E+0	1.271892E+0	1.285916E+0	1.238430E+0	1.246738E+0	1.257733E+0	1.288782E+0	1.286310E+0	1.207821E+0	1.176083E+0	1.169786E+0	1.174301E+0	1.335130E+0	1.112705E+0	1.207672E+0	1.135035E+0	1.313432E+0	1.250989E+0	1.366298E+0
5.457720E+2	1.271675E+0	1.291516E+0	1.221329E+0	1.167353E+0	1.276737E+0	1.333920E+0	1.174082E+0	1.100684E+0	1.237285E+0	1.236752E+0	1.210960E+0	1.157900E+0	1.164123E+0	1.258184E+0	1.253125E+0	1.279223E+0	1.030879E+0	1.301761E+0	1.161414E+0	1.252752E+0	1.290402E+0	1.268992E+0	1.191375E+0	1.134180E+0	1.203301E+0	1.266219E+0	1.136226E+0	1.203622E+0	1.176170E+0	1.324953E+0	1.290235E+0	1.319063E+0	1.269245E+0	1.291773E+0	1.160171E+0	1.215655E+0	1.260231E+0	1.276737E+0	1.119833E+0	1.121020E+0	1.271548E+0	1.316793E+0	1.144254E+0	1.142662E+0	1.181818E+0	1.264518E+0	1.315906E+0	1.270890E+0	1.219465E+0	1.167137E+0	1.246026E+0	1.213274E+0	1.302784E+0	1.303434E+0	1.144562E+0	1.146727E+0	1.239527E+0	1.262446E+0	1.170231E+0	1.185112E+0	1.258843E+0	1.313677E+0	1.276683E+0	1.253537E+0	1.232975E+0	1.245913E+0	1.223072E+0	1.136094E+0	1.282202E+0	1.255434E+0	1.186147E+0	1.058317E+0	1.208577E+0	1.289703E+0	1.219579E+0	1.199729E+0	1.161161E+0	1.287760E+0	1.259022E+0	1.262925E+0	1.221585E+0	1.320860E+0	1.160545E+0	1.162181E+0	1.280318E+0	1.275952E+0	1.142800E+0	1.104480E+0	1.218306E+0	1.300043E+0	1.205826E+0	1.171987E+0	1.180747E+0	1.312953E+0	1.295628E+0	1.286720E+0	1.238953E+0	1.189968E+0	1.210670E+0	1.056365E+0	1.251249E+0	1.141637E+0	1.116385E+0	1.178665E+0	1.262149E+0	1.205605E+0	1.134062E+0	1.242089E+0	1.242228E+0	1.266253E+0	1.273058E+0	1.281628E+0	1.246044E+0	1.273407E+0	1.149309E+0	1.099599E+0	1.315446E+0	1.155905E+0	1.199859E+0	1.094358E+0	1.238438E+0	1.254144E+0	1.185346E+0	1.212555E+0	1.221413E+0	1.279929E+0	1.264203E+0	1.255747E+0	1.260641E+0	1.136811E+0	1.213004E+0	1.179574E+0	1.271975E+0	1.160665E+0	1.094902E+0	1.161225E+0	1.294059E+0	1.228566E+0	1.186081E+0	1.211176E+0	1.220012E+0	1.291143E+0	1.239125E+0	1.294751E+0	1.242275E+0	1.150956E+0	1.204196E+0	1.132983E+0	1.273099E+0	1.106753E+0	1.113211E+0	1.141078E+0	1.208794E+0	1.193067E+0	1.168034E+0	1.225853E+0	1.256062E+0	1.272708E+0	1.262978E+0	1.266132E+0	1.250567E+0	1.171076E+0	1.209427E+0	1.163808E+0	1.299334E+0	1.101717E+0	1.168392E+0	1.095852E+0	1.243518E+0	1.230823E+0	1.259630E+0
5.460160E+2	1.167715E+0	1.184604E+0	1.159595E+0	1.162025E+0	1.174960E+0	1.232985E+0	1.176238E+0	1.083917E+0	1.212822E+0	1.219455E+0	1.235196E+0	1.160437E+0	1.140057E+0	1.244139E+0	1.251120E+0	1.210011E+0	9.666948E-1	1.294863E+0	1.098474E+0	1.221849E+0	1.231291E+0	1.307457E+0	1.128072E+0	1.145273E+0	1.142389E+0	1.262964E+0	1.091051E+0	1.178478E+0	1.136110E+0	1.246414E+0	1.233381E+0	1.203948E+0	1.206042E+0	1.233622E+0	1.157715E+0	1.106931E+0	1.193245E+0	1.210156E+0	1.109512E+0	1.060102E+0	1.176802E+0	1.274851E+0	1.172881E+0	1.120861E+0	1.134451E+0	1.261596E+0	1.201413E+0	1.218237E+0	1.182987E+0	1.123482E+0	1.142194E+0	1.147453E+0	1.260216E+0	1.230117E+0	1.123785E+0	1.120360E+0	1.264917E+0	1.255972E+0	1.139108E+0	1.178791E+0	1.190060E+0	1.220636E+0	1.223204E+0	1.255967E+0	1.208682E+0	1.222453E+0	1.143861E+0	1.103445E+0	1.201078E+0	1.190588E+0	1.124699E+0	1.068247E+0	1.163242E+0	1.237277E+0	1.197587E+0	1.150321E+0	1.117946E+0	1.255411E+0	1.209268E+0	1.224265E+0	1.261384E+0	1.242768E+0	1.146772E+0	1.198557E+0	1.215587E+0	1.242110E+0	1.099006E+0	1.028297E+0	1.192319E+0	1.215964E+0	1.190058E+0	1.125086E+0	1.159167E+0	1.303062E+0	1.189582E+0	1.228635E+0	1.176825E+0	1.188866E+0	1.090354E+0	9.582680E-1	1.223743E+0	1.241799E+0	1.105641E+0	1.096318E+0	1.191433E+0	1.205026E+0	1.152828E+0	1.178286E+0	1.166101E+0	1.271427E+0	1.247134E+0	1.231110E+0	1.203502E+0	1.253646E+0	1.145087E+0	1.094520E+0	1.237773E+0	1.268491E+0	1.097433E+0	1.091525E+0	1.204956E+0	1.229190E+0	1.130950E+0	1.170482E+0	1.160543E+0	1.293436E+0	1.224337E+0	1.252710E+0	1.237593E+0	1.208377E+0	1.109675E+0	1.198314E+0	1.249170E+0	1.254203E+0	1.081866E+0	1.101617E+0	1.165391E+0	1.245989E+0	1.134908E+0	1.170751E+0	1.202081E+0	1.231660E+0	1.222140E+0	1.243301E+0	1.210309E+0	1.160785E+0	1.140674E+0	1.120244E+0	1.211637E+0	1.205508E+0	1.104244E+0	1.145227E+0	1.219348E+0	1.234732E+0	1.168036E+0	1.198902E+0	1.175445E+0	1.203019E+0	1.263513E+0	1.200055E+0	1.203137E+0	1.187766E+0	1.141122E+0	1.138158E+0	1.248713E+0	1.073985E+0	1.105203E+0	1.094098E+0	1.199936E+0	1.218725E+0	1.184482E+0
5.467710E+2	1.304029E+0	1.244742E+0	1.190193E+0	1.192808E+0	1.300432E+0	1.341685E+0	1.195653E+0	1.120030E+0	1.249790E+0	1.257957E+0	1.265200E+0	1.203044E+0	1.149966E+0	1.280553E+0	1.275695E+0	1.321649E+0	1.052105E+0	1.325326E+0	1.145965E+0	1.294691E+0	1.285892E+0	1.277983E+0	1.118957E+0	1.176778E+0	1.160271E+0	1.246679E+0	1.160866E+0	1.248672E+0	1.191431E+0	1.251210E+0	1.325137E+0	1.330358E+0	1.218884E+0	1.313900E+0	1.189161E+0	1.199295E+0	1.205837E+0	1.268604E+0	1.136546E+0	1.114476E+0	1.241136E+0	1.272552E+0	1.144254E+0	1.151170E+0	1.210922E+0	1.335219E+0	1.254091E+0	1.340050E+0	1.263719E+0	1.160901E+0	1.157768E+0	1.192542E+0	1.254207E+0	1.322697E+0	1.160988E+0	1.138375E+0	1.310322E+0	1.174767E+0	1.210245E+0	1.181664E+0	1.212816E+0	1.274995E+0	1.281824E+0	1.248678E+0	1.304076E+0	1.253173E+0	1.185214E+0	1.163015E+0	1.271047E+0	1.312679E+0	1.160167E+0	1.116159E+0	1.201264E+0	1.339878E+0	1.202098E+0	1.137532E+0	1.218605E+0	1.270540E+0	1.218407E+0	1.260774E+0	1.287100E+0	1.251267E+0	1.162198E+0	1.164200E+0	1.309396E+0	1.309789E+0	1.144769E+0	1.104029E+0	1.241748E+0	1.339926E+0	1.194000E+0	1.182673E+0	1.247403E+0	1.280669E+0	1.292508E+0	1.268730E+0	1.253288E+0	1.258163E+0	1.139521E+0	9.940382E-1	1.264194E+0	1.276807E+0	1.134289E+0	1.152632E+0	1.280668E+0	1.290139E+0	1.215579E+0	1.305892E+0	1.181006E+0	1.306107E+0	1.270588E+0	1.320921E+0	1.229151E+0	1.275957E+0	1.183088E+0	1.110885E+0	1.330779E+0	1.334215E+0	1.191786E+0	1.079718E+0	1.254652E+0	1.256799E+0	1.266359E+0	1.189444E+0	1.220402E+0	1.228601E+0	1.270416E+0	1.229930E+0	1.265962E+0	1.245836E+0	1.204088E+0	1.199418E+0	1.292354E+0	1.282715E+0	1.156431E+0	1.112194E+0	1.290641E+0	1.263408E+0	1.127035E+0	1.191248E+0	1.232303E+0	1.264886E+0	1.270165E+0	1.230198E+0	1.291326E+0	1.286946E+0	1.148759E+0	1.179508E+0	1.216063E+0	1.296633E+0	1.128344E+0	1.153064E+0	1.294985E+0	1.280898E+0	1.232147E+0	1.242621E+0	1.188606E+0	1.333759E+0	1.211373E+0	1.204088E+0	1.221876E+0	1.272329E+0	1.199669E+0	1.161476E+0	1.268659E+0	1.254499E+0	1.191732E+0	1.079477E+0	1.247150E+0	1.234857E+0	1.334783E+0
5.475230E+2	1.385182E+0	1.449453E+0	1.280377E+0	1.252599E+0	1.363976E+0	1.446766E+0	1.241492E+0	1.150984E+0	1.309586E+0	1.348908E+0	1.375989E+0	1.300433E+0	1.261335E+0	1.396041E+0	1.361454E+0	1.340401E+0	1.076365E+0	1.425912E+0	1.215201E+0	1.384646E+0	1.395604E+0	1.402865E+0	1.280000E+0	1.292148E+0	1.317301E+0	1.417646E+0	1.279372E+0	1.323585E+0	1.269642E+0	1.364522E+0	1.430402E+0	1.422884E+0	1.346273E+0	1.375652E+0	1.259421E+0	1.311185E+0	1.392186E+0	1.456653E+0	1.256478E+0	1.213416E+0	1.331203E+0	1.402970E+0	1.301420E+0	1.250603E+0	1.315354E+0	1.425203E+0	1.357296E+0	1.445798E+0	1.355809E+0	1.252181E+0	1.284675E+0	1.320042E+0	1.472557E+0	1.417955E+0	1.250857E+0	1.216595E+0	1.322529E+0	1.398376E+0	1.315286E+0	1.277639E+0	1.350383E+0	1.408807E+0	1.337870E+0	1.433315E+0	1.411322E+0	1.381071E+0	1.287721E+0	1.274709E+0	1.402359E+0	1.408936E+0	1.308047E+0	1.236591E+0	1.345059E+0	1.388923E+0	1.329539E+0	1.323544E+0	1.325063E+0	1.429159E+0	1.398131E+0	1.393394E+0	1.379554E+0	1.383014E+0	1.301588E+0	1.299604E+0	1.421852E+0	1.395384E+0	1.239244E+0	1.184294E+0	1.347234E+0	1.401906E+0	1.330842E+0	1.255101E+0	1.337562E+0	1.397832E+0	1.444297E+0	1.380786E+0	1.316612E+0	1.375862E+0	1.235542E+0	1.156630E+0	1.359130E+0	1.379886E+0	1.225862E+0	1.247198E+0	1.353630E+0	1.370042E+0	1.260149E+0	1.351036E+0	1.319419E+0	1.423603E+0	1.315029E+0	1.446963E+0	1.377415E+0	1.434050E+0	1.309227E+0	1.210202E+0	1.433494E+0	1.372502E+0	1.217523E+0	1.184561E+0	1.336259E+0	1.383684E+0	1.323646E+0	1.306180E+0	1.312721E+0	1.419327E+0	1.390533E+0	1.383316E+0	1.371756E+0	1.398470E+0	1.278042E+0	1.338866E+0	1.419002E+0	1.334738E+0	1.208576E+0	1.221791E+0	1.338466E+0	1.448071E+0	1.273246E+0	1.258433E+0	1.326046E+0	1.383315E+0	1.408968E+0	1.391816E+0	1.358564E+0	1.378697E+0	1.255593E+0	1.294713E+0	1.373904E+0	1.344485E+0	1.229784E+0	1.243425E+0	1.326062E+0	1.408712E+0	1.351064E+0	1.313296E+0	1.311454E+0	1.378680E+0	1.350601E+0	1.401317E+0	1.365343E+0	1.403628E+0	1.235041E+0	1.288558E+0	1.401603E+0	1.380598E+0	1.241828E+0	1.241473E+0	1.386071E+0	1.405589E+0	1.375994E+0
5.482600E+2	1.481714E+0	1.499872E+0	1.417264E+0	1.434336E+0	1.541138E+0	1.536312E+0	1.354205E+0	1.248143E+0	1.438964E+0	1.495101E+0	1.498896E+0	1.467818E+0	1.365620E+0	1.603608E+0	1.480821E+0	1.480172E+0	1.230507E+0	1.509253E+0	1.399446E+0	1.509918E+0	1.478759E+0	1.453315E+0	1.382296E+0	1.437689E+0	1.441361E+0	1.462152E+0	1.365025E+0	1.437786E+0	1.334981E+0	1.564170E+0	1.468678E+0	1.511499E+0	1.429715E+0	1.512018E+0	1.422048E+0	1.454215E+0	1.466723E+0	1.557793E+0	1.302189E+0	1.322171E+0	1.430044E+0	1.488000E+0	1.382633E+0	1.372902E+0	1.431771E+0	1.471947E+0	1.502430E+0	1.514515E+0	1.452683E+0	1.388816E+0	1.437542E+0	1.447023E+0	1.505607E+0	1.471470E+0	1.344104E+0	1.326453E+0	1.508058E+0	1.506058E+0	1.419214E+0	1.379363E+0	1.446575E+0	1.490876E+0	1.449960E+0	1.503283E+0	1.497237E+0	1.477135E+0	1.357033E+0	1.389835E+0	1.572209E+0	1.492021E+0	1.341520E+0	1.303071E+0	1.412327E+0	1.444168E+0	1.440625E+0	1.381673E+0	1.437843E+0	1.495424E+0	1.480375E+0	1.448154E+0	1.421189E+0	1.535474E+0	1.427203E+0	1.445616E+0	1.489324E+0	1.515818E+0	1.352426E+0	1.281339E+0	1.453735E+0	1.526947E+0	1.407991E+0	1.369085E+0	1.426759E+0	1.528013E+0	1.553978E+0	1.482561E+0	1.444451E+0	1.425361E+0	1.329253E+0	1.223293E+0	1.514471E+0	1.466919E+0	1.338920E+0	1.329014E+0	1.446229E+0	1.519426E+0	1.414386E+0	1.462992E+0	1.463159E+0	1.511596E+0	1.550806E+0	1.499011E+0	1.472505E+0	1.551340E+0	1.387339E+0	1.337168E+0	1.464660E+0	1.491376E+0	1.357288E+0	1.339937E+0	1.449774E+0	1.554105E+0	1.425491E+0	1.396250E+0	1.446126E+0	1.490107E+0	1.497706E+0	1.429386E+0	1.454499E+0	1.430340E+0	1.396060E+0	1.417134E+0	1.454422E+0	1.506803E+0	1.299306E+0	1.332830E+0	1.406787E+0	1.482333E+0	1.384027E+0	1.439491E+0	1.404418E+0	1.509783E+0	1.515557E+0	1.520919E+0	1.484221E+0	1.456800E+0	1.324312E+0	1.380007E+0	1.464874E+0	1.523677E+0	1.358130E+0	1.394187E+0	1.442740E+0	1.581003E+0	1.430168E+0	1.428885E+0	1.432109E+0	1.502506E+0	1.484458E+0	1.437635E+0	1.432684E+0	1.489303E+0	1.362505E+0	1.331114E+0	1.542221E+0	1.482629E+0	1.368209E+0	1.342060E+0	1.441456E+0	1.470117E+0	1.502053E+0
5.490490E+2	1.500280E+0	1.521132E+0	1.491347E+0	1.370995E+0	1.486751E+0	1.538386E+0	1.492801E+0	1.270926E+0	1.369928E+0	1.444324E+0	1.531786E+0	1.423183E+0	1.366566E+0	1.547945E+0	1.494863E+0	1.533311E+0	1.217367E+0	1.490287E+0	1.453228E+0	1.525922E+0	1.487275E+0	1.475297E+0	1.379255E+0	1.374236E+0	1.415095E+0	1.542479E+0	1.369720E+0	1.448786E+0	1.347381E+0	1.418480E+0	1.544669E+0	1.512369E+0	1.443048E+0	1.487320E+0	1.414680E+0	1.340742E+0	1.498452E+0	1.512050E+0	1.350359E+0	1.286192E+0	1.439986E+0	1.472486E+0	1.373285E+0	1.314411E+0	1.381555E+0	1.472530E+0	1.540595E+0	1.461418E+0	1.513678E+0	1.365004E+0	1.447350E+0	1.405559E+0	1.499098E+0	1.517492E+0	1.313184E+0	1.336998E+0	1.531003E+0	1.503118E+0	1.398651E+0	1.385111E+0	1.450199E+0	1.477285E+0	1.458190E+0	1.465384E+0	1.447462E+0	1.492772E+0	1.364022E+0	1.350886E+0	1.494636E+0	1.468210E+0	1.351511E+0	1.327673E+0	1.397218E+0	1.485885E+0	1.382545E+0	1.362490E+0	1.417817E+0	1.423944E+0	1.433667E+0	1.418088E+0	1.487316E+0	1.478631E+0	1.372662E+0	1.371347E+0	1.495361E+0	1.493922E+0	1.343565E+0	1.293582E+0	1.413986E+0	1.551742E+0	1.398981E+0	1.345339E+0	1.366336E+0	1.512392E+0	1.456770E+0	1.422425E+0	1.400843E+0	1.485311E+0	1.385361E+0	1.181018E+0	1.458377E+0	1.436774E+0	1.307201E+0	1.373108E+0	1.483831E+0	1.452837E+0	1.325243E+0	1.421460E+0	1.374254E+0	1.486748E+0	1.453286E+0	1.525036E+0	1.420582E+0	1.492056E+0	1.334559E+0	1.329269E+0	1.492765E+0	1.505091E+0	1.294722E+0	1.273346E+0	1.439837E+0	1.472346E+0	1.345636E+0	1.384994E+0	1.456271E+0	1.482542E+0	1.462502E+0	1.442040E+0	1.447998E+0	1.497990E+0	1.366158E+0	1.403905E+0	1.446174E+0	1.484795E+0	1.345192E+0	1.258803E+0	1.452904E+0	1.546214E+0	1.372218E+0	1.438919E+0	1.402881E+0	1.476022E+0	1.505599E+0	1.498595E+0	1.394938E+0	1.490661E+0	1.379175E+0	1.360623E+0	1.453071E+0	1.540475E+0	1.311611E+0	1.306125E+0	1.397591E+0	1.465582E+0	1.408453E+0	1.382172E+0	1.392074E+0	1.526119E+0	1.423173E+0	1.504724E+0	1.447908E+0	1.505439E+0	1.352745E+0	1.415640E+0	1.533530E+0	1.448099E+0	1.371622E+0	1.301123E+0	1.485947E+0	1.406933E+0	1.424480E+0
5.497960E+2	1.452013E+0	1.389315E+0	1.433369E+0	1.346132E+0	1.393590E+0	1.411564E+0	1.441568E+0	1.272214E+0	1.306324E+0	1.449347E+0	1.421573E+0	1.288259E+0	1.275963E+0	1.437138E+0	1.419132E+0	1.430605E+0	1.191592E+0	1.454651E+0	1.478978E+0	1.467977E+0	1.397105E+0	1.492279E+0	1.436483E+0	1.371572E+0	1.343565E+0	1.392681E+0	1.295212E+0	1.353969E+0	1.306368E+0	1.426276E+0	1.442785E+0	1.445906E+0	1.387254E+0	1.415789E+0	1.464795E+0	1.386131E+0	1.367002E+0	1.440388E+0	1.453579E+0	1.218324E+0	1.385011E+0	1.428251E+0	1.404248E+0	1.291544E+0	1.311933E+0	1.416438E+0	1.400835E+0	1.403856E+0	1.307970E+0	1.355932E+0	1.437543E+0	1.373944E+0	1.394431E+0	1.422772E+0	1.375996E+0	1.306680E+0	1.391858E+0	1.427798E+0	1.367524E+0	1.374764E+0	1.352451E+0	1.414560E+0	1.402141E+0	1.402217E+0	1.423764E+0	1.390008E+0	1.408867E+0	1.339434E+0	1.473848E+0	1.415520E+0	1.380488E+0	1.291417E+0	1.343597E+0	1.374265E+0	1.364497E+0	1.320637E+0	1.322956E+0	1.414552E+0	1.439253E+0	1.392319E+0	1.439559E+0	1.450477E+0	1.330237E+0	1.293538E+0	1.390033E+0	1.491932E+0	1.294850E+0	1.208328E+0	1.378826E+0	1.423466E+0	1.322956E+0	1.299626E+0	1.401342E+0	1.411892E+0	1.452092E+0	1.429102E+0	1.347080E+0	1.376964E+0	1.337350E+0	1.113272E+0	1.447590E+0	1.404198E+0	1.250927E+0	1.280667E+0	1.404699E+0	1.433733E+0	1.310584E+0	1.396782E+0	1.366266E+0	1.435508E+0	1.402056E+0	1.435228E+0	1.390554E+0	1.406636E+0	1.275978E+0	1.290334E+0	1.430937E+0	1.401080E+0	1.254860E+0	1.209120E+0	1.357187E+0	1.428280E+0	1.372254E+0	1.384994E+0	1.388808E+0	1.459850E+0	1.411245E+0	1.421286E+0	1.367618E+0	1.440962E+0	1.266504E+0	1.311308E+0	1.425795E+0	1.376755E+0	1.270106E+0	1.267457E+0	1.425573E+0	1.442267E+0	1.339601E+0	1.345546E+0	1.421323E+0	1.390282E+0	1.449376E+0	1.455884E+0	1.378955E+0	1.395628E+0	1.283890E+0	1.329051E+0	1.394062E+0	1.469208E+0	1.281907E+0	1.324569E+0	1.380587E+0	1.474026E+0	1.330901E+0	1.380974E+0	1.354781E+0	1.425331E+0	1.396294E+0	1.444699E+0	1.334307E+0	1.393057E+0	1.290538E+0	1.293222E+0	1.440466E+0	1.410946E+0	1.245815E+0	1.237378E+0	1.414217E+0	1.534645E+0	1.371146E+0
5.505110E+2	1.379346E+0	1.359550E+0	1.399550E+0	1.250231E+0	1.372589E+0	1.280088E+0	1.352048E+0	1.151842E+0	1.265553E+0	1.380156E+0	1.386952E+0	1.254274E+0	1.223582E+0	1.390840E+0	1.376000E+0	1.314950E+0	1.077880E+0	1.352339E+0	1.429198E+0	1.315663E+0	1.373561E+0	1.339425E+0	1.334691E+0	1.260198E+0	1.267008E+0	1.376942E+0	1.289931E+0	1.311015E+0	1.249137E+0	1.344738E+0	1.363414E+0	1.325578E+0	1.320597E+0	1.385428E+0	1.352278E+0	1.303797E+0	1.356428E+0	1.383972E+0	1.326275E+0	1.136963E+0	1.279738E+0	1.362178E+0	1.384385E+0	1.230929E+0	1.269129E+0	1.356254E+0	1.375571E+0	1.384672E+0	1.323519E+0	1.221566E+0	1.384473E+0	1.285834E+0	1.365387E+0	1.354807E+0	1.390006E+0	1.228900E+0	1.354753E+0	1.380723E+0	1.327515E+0	1.336259E+0	1.289356E+0	1.388947E+0	1.390828E+0	1.335652E+0	1.324815E+0	1.341416E+0	1.412364E+0	1.233466E+0	1.370928E+0	1.367394E+0	1.370994E+0	1.167096E+0	1.296314E+0	1.384415E+0	1.328412E+0	1.252046E+0	1.246539E+0	1.385332E+0	1.358020E+0	1.294064E+0	1.345878E+0	1.343699E+0	1.424447E+0	1.288489E+0	1.353828E+0	1.379461E+0	1.408519E+0	1.216944E+0	1.294236E+0	1.353937E+0	1.420945E+0	1.227198E+0	1.308789E+0	1.398874E+0	1.399072E+0	1.310365E+0	1.298691E+0	1.342315E+0	1.324625E+0	1.050403E+0	1.362366E+0	1.355089E+0	1.272926E+0	1.224885E+0	1.345210E+0	1.364252E+0	1.284193E+0	1.383539E+0	1.284285E+0	1.394619E+0	1.351444E+0	1.351027E+0	1.370534E+0	1.346715E+0	1.234282E+0	1.161672E+0	1.414072E+0	1.334784E+0	1.240228E+0	1.178897E+0	1.327367E+0	1.406512E+0	1.293556E+0	1.269441E+0	1.260979E+0	1.402033E+0	1.378109E+0	1.328139E+0	1.316200E+0	1.346473E+0	1.240279E+0	1.278786E+0	1.332627E+0	1.352744E+0	1.194495E+0	1.206888E+0	1.330495E+0	1.380131E+0	1.273247E+0	1.299996E+0	1.294286E+0	1.373671E+0	1.324630E+0	1.352991E+0	1.377851E+0	1.347568E+0	1.178210E+0	1.215509E+0	1.343907E+0	1.391318E+0	1.246598E+0	1.228675E+0	1.286776E+0	1.374930E+0	1.324181E+0	1.355220E+0	1.298293E+0	1.327424E+0	1.330172E+0	1.346840E+0	1.285702E+0	1.350775E+0	1.259436E+0	1.213941E+0	1.364787E+0	1.351823E+0	1.248659E+0	1.159013E+0	1.301628E+0	1.385423E+0	1.332359E+0
5.512620E+2	1.357070E+0	1.331000E+0	1.423172E+0	1.298773E+0	1.382821E+0	1.381026E+0	1.361753E+0	1.187524E+0	1.287296E+0	1.371226E+0	1.374259E+0	1.276592E+0	1.258030E+0	1.372633E+0	1.403083E+0	1.359603E+0	1.147625E+0	1.352916E+0	1.369117E+0	1.346018E+0	1.333483E+0	1.370395E+0	1.410148E+0	1.248662E+0	1.299420E+0	1.396477E+0	1.303424E+0	1.318871E+0	1.224815E+0	1.334544E+0	1.400005E+0	1.381615E+0	1.342815E+0	1.389545E+0	1.346875E+0	1.266324E+0	1.318151E+0	1.407354E+0	1.376903E+0	1.157405E+0	1.292601E+0	1.369074E+0	1.368611E+0	1.194771E+0	1.327911E+0	1.355670E+0	1.374495E+0	1.315955E+0	1.328300E+0	1.252180E+0	1.345822E+0	1.289981E+0	1.356373E+0	1.393873E+0	1.445085E+0	1.240323E+0	1.344500E+0	1.377191E+0	1.373640E+0	1.257524E+0	1.325557E+0	1.366993E+0	1.343524E+0	1.337111E+0	1.356219E+0	1.309023E+0	1.393144E+0	1.232894E+0	1.360783E+0	1.399817E+0	1.377991E+0	1.186952E+0	1.322149E+0	1.306052E+0	1.351529E+0	1.280529E+0	1.271835E+0	1.359766E+0	1.401681E+0	1.368695E+0	1.361187E+0	1.349546E+0	1.350623E+0	1.235440E+0	1.354378E+0	1.370505E+0	1.391299E+0	1.149829E+0	1.272833E+0	1.379272E+0	1.339851E+0	1.245008E+0	1.285770E+0	1.347843E+0	1.336173E+0	1.393636E+0	1.326172E+0	1.336263E+0	1.351813E+0	1.014091E+0	1.362363E+0	1.333210E+0	1.358871E+0	1.216383E+0	1.327250E+0	1.370043E+0	1.323484E+0	1.287230E+0	1.275234E+0	1.369255E+0	1.384157E+0	1.410732E+0	1.358648E+0	1.366477E+0	1.335615E+0	1.186503E+0	1.341508E+0	1.363359E+0	1.404215E+0	1.165197E+0	1.317950E+0	1.356076E+0	1.421440E+0	1.276554E+0	1.323372E+0	1.393933E+0	1.324779E+0	1.345857E+0	1.343979E+0	1.359333E+0	1.366160E+0	1.263355E+0	1.346699E+0	1.373751E+0	1.345713E+0	1.162185E+0	1.329356E+0	1.377809E+0	1.337353E+0	1.277792E+0	1.280967E+0	1.360272E+0	1.343371E+0	1.343285E+0	1.334314E+0	1.273292E+0	1.285620E+0	1.221049E+0	1.338992E+0	1.313433E+0	1.266775E+0	1.236513E+0	1.315507E+0	1.345652E+0	1.299877E+0	1.312097E+0	1.244545E+0	1.382714E+0	1.318350E+0	1.311026E+0	1.308542E+0	1.391943E+0	1.285660E+0	1.253581E+0	1.371947E+0	1.346591E+0	1.195717E+0	1.194687E+0	1.346119E+0	1.298041E+0	1.378420E+0
5.520210E+2	1.341689E+0	1.293945E+0	1.338890E+0	1.205833E+0	1.302585E+0	1.364460E+0	1.365528E+0	1.118310E+0	1.248157E+0	1.342771E+0	1.324634E+0	1.258329E+0	1.221697E+0	1.375234E+0	1.371487E+0	1.364963E+0	1.077375E+0	1.304633E+0	1.366258E+0	1.294692E+0	1.319958E+0	1.374892E+0	1.325069E+0	1.215383E+0	1.262536E+0	1.372056E+0	1.257078E+0	1.257579E+0	1.215753E+0	1.361523E+0	1.359473E+0	1.352075E+0	1.313191E+0	1.352494E+0	1.305113E+0	1.247850E+0	1.325702E+0	1.386518E+0	1.380836E+0	1.168854E+0	1.323600E+0	1.309323E+0	1.355172E+0	1.201682E+0	1.273126E+0	1.322364E+0	1.357833E+0	1.369054E+0	1.263120E+0	1.225533E+0	1.375243E+0	1.252147E+0	1.300784E+0	1.347850E+0	1.340238E+0	1.184956E+0	1.325948E+0	1.368954E+0	1.371417E+0	1.227066E+0	1.287288E+0	1.358109E+0	1.356893E+0	1.284634E+0	1.314148E+0	1.329690E+0	1.344219E+0	1.212847E+0	1.326309E+0	1.346623E+0	1.350014E+0	1.173573E+0	1.297288E+0	1.348899E+0	1.295139E+0	1.253789E+0	1.186460E+0	1.367592E+0	1.305730E+0	1.368694E+0	1.346490E+0	1.302265E+0	1.337951E+0	1.205123E+0	1.324206E+0	1.306802E+0	1.378994E+0	1.132596E+0	1.267737E+0	1.362024E+0	1.349426E+0	1.181486E+0	1.276178E+0	1.349927E+0	1.297188E+0	1.302140E+0	1.268822E+0	1.327465E+0	1.346603E+0	1.210287E+0	1.316514E+0	1.331748E+0	1.284692E+0	1.214793E+0	1.297506E+0	1.319667E+0	1.321141E+0	1.273989E+0	1.283753E+0	1.282814E+0	1.370578E+0	1.297957E+0	1.301720E+0	1.349265E+0	1.347754E+0	1.144743E+0	1.305229E+0	1.388507E+0	1.336096E+0	1.154808E+0	1.308535E+0	1.324755E+0	1.327697E+0	1.230331E+0	1.260471E+0	1.345304E+0	1.355326E+0	1.296753E+0	1.296106E+0	1.363805E+0	1.243426E+0	1.202172E+0	1.340878E+0	1.344238E+0	1.359273E+0	1.159781E+0	1.269577E+0	1.281412E+0	1.294051E+0	1.263557E+0	1.288652E+0	1.335622E+0	1.317602E+0	1.320958E+0	1.349193E+0	1.325723E+0	1.323159E+0	1.219388E+0	1.338006E+0	1.296632E+0	1.388394E+0	1.172426E+0	1.272120E+0	1.374365E+0	1.318494E+0	1.262988E+0	1.299388E+0	1.362555E+0	1.296847E+0	1.339274E+0	1.257596E+0	1.303486E+0	1.366163E+0	1.245420E+0	1.327457E+0	1.312057E+0	1.374469E+0	1.171294E+0	1.333408E+0	1.342404E+0	1.332359E+0
5.527590E+2	1.334792E+0	1.306702E+0	1.275009E+0	1.208200E+0	1.326279E+0	1.325638E+0	1.321847E+0	1.117020E+0	1.178576E+0	1.228940E+0	1.298668E+0	1.245146E+0	1.181112E+0	1.320089E+0	1.320328E+0	1.299322E+0	1.057664E+0	1.333371E+0	1.300455E+0	1.290278E+0	1.296413E+0	1.276485E+0	1.349886E+0	1.236680E+0	1.232361E+0	1.312898E+0	1.222464E+0	1.260198E+0	1.186185E+0	1.318357E+0	1.358349E+0	1.287787E+0	1.262827E+0	1.316475E+0	1.303638E+0	1.182932E+0	1.287428E+0	1.337214E+0	1.280071E+0	1.121836E+0	1.250494E+0	1.278873E+0	1.341149E+0	1.200622E+0	1.178964E+0	1.324115E+0	1.305692E+0	1.282938E+0	1.221858E+0	1.148428E+0	1.312366E+0	1.170777E+0	1.362380E+0	1.267044E+0	1.341206E+0	1.123875E+0	1.265406E+0	1.340121E+0	1.258597E+0	1.219596E+0	1.259876E+0	1.325700E+0	1.287482E+0	1.294838E+0	1.293409E+0	1.285565E+0	1.291801E+0	1.193945E+0	1.323773E+0	1.292922E+0	1.299555E+0	1.132996E+0	1.265605E+0	1.283503E+0	1.290067E+0	1.238096E+0	1.223876E+0	1.278366E+0	1.326546E+0	1.302656E+0	1.342818E+0	1.284205E+0	1.317015E+0	1.218766E+0	1.328593E+0	1.313770E+0	1.346516E+0	1.133505E+0	1.257034E+0	1.303275E+0	1.323520E+0	1.197514E+0	1.243567E+0	1.305667E+0	1.260278E+0	1.260506E+0	1.279574E+0	1.264767E+0	1.372637E+0	1.252015E+0	1.276062E+0	1.292366E+0	1.271392E+0	1.243479E+0	1.240821E+0	1.311562E+0	1.267773E+0	1.252321E+0	1.247018E+0	1.314907E+0	1.281699E+0	1.248460E+0	1.338005E+0	1.391336E+0	1.307115E+0	1.187066E+0	1.326689E+0	1.321640E+0	1.329537E+0	1.117972E+0	1.206527E+0	1.332719E+0	1.295292E+0	1.300254E+0	1.261996E+0	1.306405E+0	1.318568E+0	1.301309E+0	1.299059E+0	1.287768E+0	1.297450E+0	1.218157E+0	1.319042E+0	1.291218E+0	1.312864E+0	1.170356E+0	1.244526E+0	1.300574E+0	1.278870E+0	1.252739E+0	1.241526E+0	1.267565E+0	1.329903E+0	1.301542E+0	1.237316E+0	1.285854E+0	1.263677E+0	1.200557E+0	1.278019E+0	1.298162E+0	1.286951E+0	1.180266E+0	1.289123E+0	1.300608E+0	1.348997E+0	1.255200E+0	1.226996E+0	1.328573E+0	1.293621E+0	1.292869E+0	1.217191E+0	1.272330E+0	1.283829E+0	1.232595E+0	1.317744E+0	1.275952E+0	1.310143E+0	1.122754E+0	1.293457E+0	1.347781E+0	1.388117E+0
5.535440E+2	1.278570E+0	1.250209E+0	1.249780E+0	1.131243E+0	1.258966E+0	1.262488E+0	1.271693E+0	1.058983E+0	1.148132E+0	1.267442E+0	1.188457E+0	1.110729E+0	1.105610E+0	1.249339E+0	1.295755E+0	1.243501E+0	9.853942E-1	1.229337E+0	1.272991E+0	1.283101E+0	1.196224E+0	1.261001E+0	1.291648E+0	1.162581E+0	1.155243E+0	1.229313E+0	1.183743E+0	1.257578E+0	1.146602E+0	1.205643E+0	1.264341E+0	1.270412E+0	1.230240E+0	1.243399E+0	1.267774E+0	1.155489E+0	1.218429E+0	1.303164E+0	1.253529E+0	1.071138E+0	1.188499E+0	1.230613E+0	1.184567E+0	1.087362E+0	1.190377E+0	1.264518E+0	1.258926E+0	1.272229E+0	1.200329E+0	1.123482E+0	1.239683E+0	1.196172E+0	1.217650E+0	1.224228E+0	1.273565E+0	1.054008E+0	1.199983E+0	1.274215E+0	1.243036E+0	1.100631E+0	1.212814E+0	1.264542E+0	1.230919E+0	1.230698E+0	1.231197E+0	1.207374E+0	1.290634E+0	1.128647E+0	1.207669E+0	1.235675E+0	1.221619E+0	1.054864E+0	1.217839E+0	1.206271E+0	1.209429E+0	1.123000E+0	1.161688E+0	1.288280E+0	1.216887E+0	1.182389E+0	1.230157E+0	1.233740E+0	1.260815E+0	1.133382E+0	1.251797E+0	1.245095E+0	1.258438E+0	1.074551E+0	1.158175E+0	1.247763E+0	1.230041E+0	1.186828E+0	1.115525E+0	1.245783E+0	1.238964E+0	1.238916E+0	1.169059E+0	1.248815E+0	1.248271E+0	1.173972E+0	1.321369E+0	1.225752E+0	1.227907E+0	1.140946E+0	1.221179E+0	1.217185E+0	1.222616E+0	1.190926E+0	1.166098E+0	1.246067E+0	1.271205E+0	1.225498E+0	1.242915E+0	1.238347E+0	1.221616E+0	1.088877E+0	1.224486E+0	1.267347E+0	1.240733E+0	1.065079E+0	1.188740E+0	1.239278E+0	1.247263E+0	1.168705E+0	1.225473E+0	1.303702E+0	1.245565E+0	1.205124E+0	1.226363E+0	1.253103E+0	1.258111E+0	1.195558E+0	1.289928E+0	1.255702E+0	1.266975E+0	1.096331E+0	1.173361E+0	1.251796E+0	1.249627E+0	1.183845E+0	1.207206E+0	1.272923E+0	1.328143E+0	1.264658E+0	1.205351E+0	1.197923E+0	1.198422E+0	1.134645E+0	1.243106E+0	1.250308E+0	1.247720E+0	1.065468E+0	1.257459E+0	1.262320E+0	1.220774E+0	1.188720E+0	1.197381E+0	1.256006E+0	1.236639E+0	1.268150E+0	1.190254E+0	1.235610E+0	1.273462E+0	1.106679E+0	1.267122E+0	1.220489E+0	1.222472E+0	1.109888E+0	1.222635E+0	1.281908E+0	1.218420E+0
5.542580E+2	1.159228E+0	1.110494E+0	1.129533E+0	1.169129E+0	1.136726E+0	1.184845E+0	1.153589E+0	1.142814E+0	1.045935E+0	1.160309E+0	1.174608E+0	1.143698E+0	1.053228E+0	1.131772E+0	1.136266E+0	1.093908E+0	9.378878E-1	1.141396E+0	1.152832E+0	1.130240E+0	1.158150E+0	1.152604E+0	1.128580E+0	1.100014E+0	1.074211E+0	1.146271E+0	1.066998E+0	1.114043E+0	1.047881E+0	1.159478E+0	1.126431E+0	1.121847E+0	1.076186E+0	1.095714E+0	1.120867E+0	1.056263E+0	1.090001E+0	1.176106E+0	1.151784E+0	1.000816E+0	1.094922E+0	1.145584E+0	1.150681E+0	1.076728E+0	1.079666E+0	1.117855E+0	1.165396E+0	1.104010E+0	1.124982E+0	1.045243E+0	1.152577E+0	1.066599E+0	1.176084E+0	1.160545E+0	1.102042E+0	9.863327E-1	1.137974E+0	1.151229E+0	1.064635E+0	1.051781E+0	1.093349E+0	1.137525E+0	1.117286E+0	1.132553E+0	1.155949E+0	1.123040E+0	1.110662E+0	1.054186E+0	1.155449E+0	1.089771E+0	1.174158E+0	9.858001E-1	1.101826E+0	1.123966E+0	1.080298E+0	1.056733E+0	1.055759E+0	1.167228E+0	1.185915E+0	1.122791E+0	1.121783E+0	1.145555E+0	1.161647E+0	1.063659E+0	1.145920E+0	1.134616E+0	1.147228E+0	9.784153E-1	1.069509E+0	1.187938E+0	1.134871E+0	1.046128E+0	1.061336E+0	1.136950E+0	1.147993E+0	1.071347E+0	1.119476E+0	1.110767E+0	1.144149E+0	1.094303E+0	1.164945E+0	1.171783E+0	1.095920E+0	1.015566E+0	1.129699E+0	1.127439E+0	1.137581E+0	1.091009E+0	1.102747E+0	1.209834E+0	1.152700E+0	1.110171E+0	1.099030E+0	1.102567E+0	1.140865E+0	1.004233E+0	1.089580E+0	1.104470E+0	1.155459E+0	9.720419E-1	1.096672E+0	1.090626E+0	1.140210E+0	1.032413E+0	1.085979E+0	1.120002E+0	1.141499E+0	1.140327E+0	1.098110E+0	1.170916E+0	1.154260E+0	1.054457E+0	1.112331E+0	1.122650E+0	1.114195E+0	1.002115E+0	1.106750E+0	1.147848E+0	1.160775E+0	1.108691E+0	1.102705E+0	1.123413E+0	1.195786E+0	1.136042E+0	1.077488E+0	1.100709E+0	1.099673E+0	1.046580E+0	1.132468E+0	1.156132E+0	1.132827E+0	9.935456E-1	1.062796E+0	1.111989E+0	1.142700E+0	1.079117E+0	1.082210E+0	1.150608E+0	1.120523E+0	1.092611E+0	1.090120E+0	1.149378E+0	1.129535E+0	1.072285E+0	1.127527E+0	1.086542E+0	1.146190E+0	1.006374E+0	1.095519E+0	1.092357E+0	1.208724E+0
5.550250E+2	1.039356E+0	1.002976E+0	1.038811E+0	1.049549E+0	1.095261E+0	1.030592E+0	1.067303E+0	1.063711E+0	9.725478E-1	1.036436E+0	1.015926E+0	1.031601E+0	9.258185E-1	1.055820E+0	1.031948E+0	1.030946E+0	8.494451E-1	1.070698E+0	1.047549E+0	1.029249E+0	9.968441E-1	1.048204E+0	1.057175E+0	1.041001E+0	9.848002E-1	1.063231E+0	9.631578E-1	1.039656E+0	9.544078E-1	1.032974E+0	1.064509E+0	1.008471E+0	1.001629E+0	1.075645E+0	1.026040E+0	1.037262E+0	9.645942E-1	1.002795E+0	1.037748E+0	1.060919E+0	9.954965E-1	1.066874E+0	9.765714E-1	1.027809E+0	9.809396E-1	1.084550E+0	1.055204E+0	1.049573E+0	1.031694E+0	1.001587E+0	1.048167E+0	1.035503E+0	9.972959E-1	1.061542E+0	1.043581E+0	1.027641E+0	1.003711E+0	1.019419E+0	9.896074E-1	1.021322E+0	1.041114E+0	1.005802E+0	1.027817E+0	1.015937E+0	1.046926E+0	1.014688E+0	1.047760E+0	9.917519E-1	9.871220E-1	1.032524E+0	1.069743E+0	9.482446E-1	1.023348E+0	1.031513E+0	9.855646E-1	9.590776E-1	9.382334E-1	1.042003E+0	1.015841E+0	1.055677E+0	1.040962E+0	1.061091E+0	1.018401E+0	9.853482E-1	1.051565E+0	1.056982E+0	1.036512E+0	8.954277E-1	1.010395E+0	1.030560E+0	1.073490E+0	9.891357E-1	9.716567E-1	9.947927E-1	1.093413E+0	9.962993E-1	1.033453E+0	1.009020E+0	1.042921E+0	9.929542E-1	1.027401E+0	1.051684E+0	1.024300E+0	9.656273E-1	1.015770E+0	1.023218E+0	9.997656E-1	1.036235E+0	9.590075E-1	1.025052E+0	1.043452E+0	1.018829E+0	1.058992E+0	1.077069E+0	1.015781E+0	9.246656E-1	1.047166E+0	1.034747E+0	1.041930E+0	8.671986E-1	1.038083E+0	1.000371E+0	1.047624E+0	1.012266E+0	9.951810E-1	1.050842E+0	1.064873E+0	1.022376E+0	9.934987E-1	1.037292E+0	1.041489E+0	1.003197E+0	1.005581E+0	1.052121E+0	1.108458E+0	9.458746E-1	9.849126E-1	1.028222E+0	1.024125E+0	9.401604E-1	9.971828E-1	1.031778E+0	9.837773E-1	9.705397E-1	1.027335E+0	1.060295E+0	1.048278E+0	9.779004E-1	1.044943E+0	1.019192E+0	1.065012E+0	8.999549E-1	9.865733E-1	1.059063E+0	1.027920E+0	1.002456E+0	9.769111E-1	1.071129E+0	1.017310E+0	1.008876E+0	1.021608E+0	1.039779E+0	1.091724E+0	9.679381E-1	1.056450E+0	1.022709E+0	1.057952E+0	9.157274E-1	1.002906E+0	1.033206E+0	9.832729E-1
5.557550E+2	9.794201E-1	9.665287E-1	9.539951E-1	1.000414E+0	9.439416E-1	9.643359E-1	1.036024E+0	9.850396E-1	9.344953E-1	9.471589E-1	9.836127E-1	9.920367E-1	8.715508E-1	9.600991E-1	1.009378E+0	9.925418E-1	8.913922E-1	9.695360E-1	1.020083E+0	9.547471E-1	9.577694E-1	9.957540E-1	9.432305E-1	1.005059E+0	9.132699E-1	9.943009E-1	9.332371E-1	9.851751E-1	8.852563E-1	1.008993E+0	1.003716E+0	9.724168E-1	9.418848E-1	9.830186E-1	9.705203E-1	9.844832E-1	9.615723E-1	9.799244E-1	1.016122E+0	9.779214E-1	9.662539E-1	9.795468E-1	9.298301E-1	9.523040E-1	8.981919E-1	9.758680E-1	1.014890E+0	9.995999E-1	8.989381E-1	8.995362E-1	1.015863E+0	9.619059E-1	9.862779E-1	9.705662E-1	9.923659E-1	1.029398E+0	9.334048E-1	9.393907E-1	9.990554E-1	9.351159E-1	9.154434E-1	9.901209E-1	9.656009E-1	9.790093E-1	9.776037E-1	9.465505E-1	1.019803E+0	9.539483E-1	9.567015E-1	9.484270E-1	1.033273E+0	9.538572E-1	9.151370E-1	9.785219E-1	9.224085E-1	9.462894E-1	8.944912E-1	1.002870E+0	9.478096E-1	1.037422E+0	9.742229E-1	9.872504E-1	9.445747E-1	9.777701E-1	9.879317E-1	9.947747E-1	9.907510E-1	9.471251E-1	9.609658E-1	9.901369E-1	1.005913E+0	9.837925E-1	9.313746E-1	9.750053E-1	9.551393E-1	9.844766E-1	9.486251E-1	9.947202E-1	1.011106E+0	9.116586E-1	9.772378E-1	9.398539E-1	1.027370E+0	9.247194E-1	9.383212E-1	9.566325E-1	9.692699E-1	9.507637E-1	9.249363E-1	1.011594E+0	9.502522E-1	9.438170E-1	9.357521E-1	9.425652E-1	9.672246E-1	8.609000E-1	9.909549E-1	9.747396E-1	9.617028E-1	8.223336E-1	9.575226E-1	9.738265E-1	9.585095E-1	9.020484E-1	9.632245E-1	1.006538E+0	9.659845E-1	9.742832E-1	9.154832E-1	9.942412E-1	9.670083E-1	9.453228E-1	9.682168E-1	9.405760E-1	9.885285E-1	8.593494E-1	9.467677E-1	9.747975E-1	9.791369E-1	9.361746E-1	9.264918E-1	9.883715E-1	9.398529E-1	9.812174E-1	9.380536E-1	9.827419E-1	9.350912E-1	9.036826E-1	9.446321E-1	1.030391E+0	9.288224E-1	8.524682E-1	9.461160E-1	1.021902E+0	9.927613E-1	9.210024E-1	9.478440E-1	1.004896E+0	9.538770E-1	9.352320E-1	9.425546E-1	9.418622E-1	9.319391E-1	9.317953E-1	1.017079E+0	9.777102E-1	9.372660E-1	8.391155E-1	9.711262E-1	9.485121E-1	1.046302E+0
5.560190E+2	9.661604E-1	9.890047E-1	1.004456E+0	1.006335E+0	9.428653E-1	9.876285E-1	9.524346E-1	9.695625E-1	9.372130E-1	1.007980E+0	9.616853E-1	9.732693E-1	8.658880E-1	9.496952E-1	9.667486E-1	1.018441E+0	9.353614E-1	1.015519E+0	1.020656E+0	9.939297E-1	9.532608E-1	1.016234E+0	1.019193E+0	1.006390E+0	9.216526E-1	9.780183E-1	9.303038E-1	9.285986E-1	8.976556E-1	9.820138E-1	9.795101E-1	9.415732E-1	9.645971E-1	9.814744E-1	9.547983E-1	9.934555E-1	9.756740E-1	9.972042E-1	9.758168E-1	1.013491E+0	9.574810E-1	9.559918E-1	9.876724E-1	9.597480E-1	9.135999E-1	9.355503E-1	9.519987E-1	1.040649E+0	9.312305E-1	9.001029E-1	1.010672E+0	9.810828E-1	1.002805E+0	1.001605E+0	9.730396E-1	9.608471E-1	9.324277E-1	9.388022E-1	1.002390E+0	9.713220E-1	9.676770E-1	9.854170E-1	1.016505E+0	9.566588E-1	9.959712E-1	9.219769E-1	1.015143E+0	9.705586E-1	1.015008E+0	9.752775E-1	1.008793E+0	9.767350E-1	9.380464E-1	9.711930E-1	9.686473E-1	9.480330E-1	9.013423E-1	1.009653E+0	9.371484E-1	9.697722E-1	9.625896E-1	9.760952E-1	9.952618E-1	9.934320E-1	9.753138E-1	9.863141E-1	9.356368E-1	9.711576E-1	9.823682E-1	9.400133E-1	9.850773E-1	1.019414E+0	9.419252E-1	9.994789E-1	9.951656E-1	9.793364E-1	9.438461E-1	1.012320E+0	1.018626E+0	9.794055E-1	9.804737E-1	1.014732E+0	9.485871E-1	9.645647E-1	1.018576E+0	9.294195E-1	9.299781E-1	9.327067E-1	9.494252E-1	1.009524E+0	9.786442E-1	1.012708E+0	9.801691E-1	9.916492E-1	9.297524E-1	8.981440E-1	9.904439E-1	9.655959E-1	9.531248E-1	9.673192E-1	9.475836E-1	9.706408E-1	9.573526E-1	9.850081E-1	9.921373E-1	9.546692E-1	9.778923E-1	9.813705E-1	9.739944E-1	1.008219E+0	9.601895E-1	9.993386E-1	9.585121E-1	9.575833E-1	1.000000E+0	9.602948E-1	9.695407E-1	9.904768E-1	9.870102E-1	9.925415E-1	9.495436E-1	1.011950E+0	9.767494E-1	9.909239E-1	9.452181E-1	1.006772E+0	9.639656E-1	9.507614E-1	1.014948E+0	9.998473E-1	9.714170E-1	8.953441E-1	9.531522E-1	9.757331E-1	1.013960E+0	9.647233E-1	8.962917E-1	1.006623E+0	9.474261E-1	9.629750E-1	9.888158E-1	9.969404E-1	9.935355E-1	8.793300E-1	9.884437E-1	1.011721E+0	9.765460E-1	8.537365E-1	9.529669E-1	1.013039E+0	9.347873E-1
5.565140E+2	9.560827E-1	9.975096E-1	1.027002E+0	9.536482E-1	1.028487E+0	9.622651E-1	1.036024E+0	9.699927E-1	9.089459E-1	9.627823E-1	1.022850E+0	9.798630E-1	8.937300E-1	9.673822E-1	9.822957E-1	9.809324E-1	9.762976E-1	1.022417E+0	9.783138E-1	1.014348E+0	1.009869E+0	1.006744E+0	9.974173E-1	9.979587E-1	9.540645E-1	1.021981E+0	9.848641E-1	1.012939E+0	9.553614E-1	9.790157E-1	9.671263E-1	1.041919E+0	9.724975E-1	9.948540E-1	1.007862E+0	9.939830E-1	1.006396E+0	1.001779E+0	1.020546E+0	1.005724E+0	9.650843E-1	1.043319E+0	1.008121E+0	1.019834E+0	9.335734E-1	1.012680E+0	1.025102E+0	1.024139E+0	9.270442E-1	9.080404E-1	9.985578E-1	1.012698E+0	9.937899E-1	1.012844E+0	9.981644E-1	1.011382E+0	9.524455E-1	1.010004E+0	9.934976E-1	9.793682E-1	9.557824E-1	1.037165E+0	1.038615E+0	9.930999E-1	9.835280E-1	9.878803E-1	1.019803E+0	1.013518E+0	9.866149E-1	9.697046E-1	9.738216E-1	1.004792E+0	9.375594E-1	1.015729E+0	9.765418E-1	1.013137E+0	9.340171E-1	9.971306E-1	9.797944E-1	9.939326E-1	1.017083E+0	1.015406E+0	1.020055E+0	1.022736E+0	1.008228E+0	9.833285E-1	9.927171E-1	1.004716E+0	9.456781E-1	9.653444E-1	1.006476E+0	9.808245E-1	8.949283E-1	1.004166E+0	9.520203E-1	9.397574E-1	9.301062E-1	9.914203E-1	9.989589E-1	1.018427E+0	1.009601E+0	1.002091E+0	1.016627E+0	1.007597E+0	9.663828E-1	1.059696E+0	9.933148E-1	9.832669E-1	1.005324E+0	1.029193E+0	9.965435E-1	9.953567E-1	9.445107E-1	1.008861E+0	1.006281E+0	9.731955E-1	9.919766E-1	9.730253E-1	9.859226E-1	1.051856E+0	9.779241E-1	1.001964E+0	1.030264E+0	9.950812E-1	9.906156E-1	1.031931E+0	1.021901E+0	9.839020E-1	9.781320E-1	9.880912E-1	1.013165E+0	9.778429E-1	9.963613E-1	9.870947E-1	1.052144E+0	9.872134E-1	9.695408E-1	1.024738E+0	9.875720E-1	1.015316E+0	9.628619E-1	9.921229E-1	9.714785E-1	1.001116E+0	9.832453E-1	1.011142E+0	1.009009E+0	9.851009E-1	1.016424E+0	1.027337E+0	1.028023E+0	1.006916E+0	9.848144E-1	9.853042E-1	9.974148E-1	9.868836E-1	9.352302E-1	1.033692E+0	1.043651E+0	9.816390E-1	9.536812E-1	1.031434E+0	1.005733E+0	1.015740E+0	1.008897E+0	9.860821E-1	1.049982E+0	1.049651E+0	9.711263E-1	1.053370E+0	1.007514E+0
5.570440E+2	9.910890E-1	1.001154E+0	1.032906E+0	1.048365E+0	1.011255E+0	9.984990E-1	9.982745E-1	1.020291E+0	9.633062E-1	9.934714E-1	9.813047E-1	1.056455E+0	9.210997E-1	9.970347E-1	1.033452E+0	1.019782E+0	9.934809E-1	1.034487E+0	1.006924E+0	1.022626E+0	9.893297E-1	1.011239E+0	1.043501E+0	1.031238E+0	9.345058E-1	1.012212E+0	9.707839E-1	1.021321E+0	9.401005E-1	9.820137E-1	9.890793E-1	1.012815E+0	9.947169E-1	1.055061E+0	1.017196E+0	1.009817E+0	9.822214E-1	1.008894E+0	1.003342E+0	1.019624E+0	9.446141E-1	1.004251E+0	9.853354E-1	1.030999E+0	9.432747E-1	9.893069E-1	9.987642E-1	9.969219E-1	9.683058E-1	9.069069E-1	1.042975E+0	1.032393E+0	9.832731E-1	1.016055E+0	9.933321E-1	1.002593E+0	1.006640E+0	1.054137E+0	1.031845E+0	9.736214E-1	9.919843E-1	1.008416E+0	9.650870E-1	1.018367E+0	9.841206E-1	1.025859E+0	1.026209E+0	9.591031E-1	1.026668E+0	1.000101E+0	1.030275E+0	1.018172E+0	9.755794E-1	1.048425E+0	1.005864E+0	1.014881E+0	9.835568E-1	1.036785E+0	1.012286E+0	9.525912E-1	9.791210E-1	9.787513E-1	1.010137E+0	1.006063E+0	9.714746E-1	1.018164E+0	1.028147E+0	9.997275E-1	1.035874E+0	9.976824E-1	1.001408E+0	1.019413E+0	9.395270E-1	9.921891E-1	1.034153E+0	1.050785E+0	9.396644E-1	9.919699E-1	1.022097E+0	1.022221E+0	1.006365E+0	1.001606E+0	9.874668E-1	1.007597E+0	1.049444E+0	9.821088E-1	9.892093E-1	9.934990E-1	9.872236E-1	1.005383E+0	1.019998E+0	1.010665E+0	1.047732E+0	1.013323E+0	9.893916E-1	1.017211E+0	1.069140E+0	9.901704E-1	9.975277E-1	9.810147E-1	9.638003E-1	1.018953E+0	9.822349E-1	1.011081E+0	9.261953E-1	9.957318E-1	1.018276E+0	1.044649E+0	9.639472E-1	9.992730E-1	1.042014E+0	1.009260E+0	9.944195E-1	1.010104E+0	9.739281E-1	9.766386E-1	9.985766E-1	1.033449E+0	9.988191E-1	9.902638E-1	9.157349E-1	1.032314E+0	1.017160E+0	1.007426E+0	9.893081E-1	1.027526E+0	1.010164E+0	1.036611E+0	9.308643E-1	1.063990E+0	9.966374E-1	1.041032E+0	9.965411E-1	1.026970E+0	1.017579E+0	1.006648E+0	9.834920E-1	1.017566E+0	1.003333E+0	1.013922E+0	1.025706E+0	9.746862E-1	9.892665E-1	1.018655E+0	9.879324E-1	1.032126E+0	1.014688E+0	9.864908E-1	1.017433E+0	1.023795E+0	1.022060E+0
5.575640E+2	9.624471E-1	9.829306E-1	9.851303E-1	1.008703E+0	9.977922E-1	9.860755E-1	1.006363E+0	1.009974E+0	9.094894E-1	9.845437E-1	9.807277E-1	9.971088E-1	9.343126E-1	1.026687E+0	9.928283E-1	9.956700E-1	9.520389E-1	9.821819E-1	1.008068E+0	1.003311E+0	9.522594E-1	9.552930E-1	9.726025E-1	9.757735E-1	9.238881E-1	9.861599E-1	9.479037E-1	9.872704E-1	9.262702E-1	1.009593E+0	9.592453E-1	9.654644E-1	9.552161E-1	9.578036E-1	9.877173E-1	1.015623E+0	1.024024E+0	1.008386E+0	9.959706E-1	9.828272E-1	9.428598E-1	9.715039E-1	1.025065E+0	1.004413E+0	9.301491E-1	1.009758E+0	1.012739E+0	9.862126E-1	9.545521E-1	8.893308E-1	1.007210E+0	9.919666E-1	9.832731E-1	9.475547E-1	1.052277E+0	1.012259E+0	9.753926E-1	1.025891E+0	9.979436E-1	1.028218E+0	9.232003E-1	9.828031E-1	1.002622E+0	9.615176E-1	9.894534E-1	9.895559E-1	9.866039E-1	9.831602E-1	9.886430E-1	9.899692E-1	9.903079E-1	1.009540E+0	9.497462E-1	9.751391E-1	9.765425E-1	1.009649E+0	9.319095E-1	9.908688E-1	1.007717E+0	1.001986E+0	9.491187E-1	9.702512E-1	1.002975E+0	9.974727E-1	1.029623E+0	1.048023E+0	1.009940E+0	9.956472E-1	9.752340E-1	1.016007E+0	1.043643E+0	9.558903E-1	9.548732E-1	1.030201E+0	1.019077E+0	1.005552E+0	9.456383E-1	1.009020E+0	9.792914E-1	9.772374E-1	9.982737E-1	1.005495E+0	1.025322E+0	1.005472E+0	1.010720E+0	1.004111E+0	9.903825E-1	1.032022E+0	9.637990E-1	1.000207E+0	1.036663E+0	1.065776E+0	9.745388E-1	9.763504E-1	1.025281E+0	1.004232E+0	9.505857E-1	9.758828E-1	1.029820E+0	1.007462E+0	9.214273E-1	1.026917E+0	1.007118E+0	1.003970E+0	9.662680E-1	1.003836E+0	9.732325E-1	1.033006E+0	9.503534E-1	1.028347E+0	9.512731E-1	1.007055E+0	9.944192E-1	1.032113E+0	1.017207E+0	1.013172E+0	9.945915E-1	9.823466E-1	1.033122E+0	1.007914E+0	9.951335E-1	1.003376E+0	1.014817E+0	9.967479E-1	1.029540E+0	1.067941E+0	1.022868E+0	1.018887E+0	1.037076E+0	9.942474E-1	1.021858E+0	1.002306E+0	9.631192E-1	1.021902E+0	9.901766E-1	1.025215E+0	9.346818E-1	1.041180E+0	9.931194E-1	1.012409E+0	9.530955E-1	1.009736E+0	9.837774E-1	1.040224E+0	1.018102E+0	1.021139E+0	9.799614E-1	9.847363E-1	1.058292E+0	1.023795E+0	1.022061E+0
5.580230E+2	1.019731E+0	1.054002E+0	1.005529E+0	1.002783E+0	1.024718E+0	1.005746E+0	9.944996E-1	9.828907E-1	9.540649E-1	9.499486E-1	9.888059E-1	9.945723E-1	9.456378E-1	9.996361E-1	9.893174E-1	9.961149E-1	9.869102E-1	9.931025E-1	1.009784E+0	1.000000E+0	9.788098E-1	1.008742E+0	9.953918E-1	1.008164E+0	9.635651E-1	1.013297E+0	9.256104E-1	9.930328E-1	9.200704E-1	9.940044E-1	1.003715E+0	1.003258E+0	9.843478E-1	1.008234E+0	9.906649E-1	1.010344E+0	9.887690E-1	9.895813E-1	9.841729E-1	1.019624E+0	9.411052E-1	1.031254E+0	9.567065E-1	1.000691E+0	9.546884E-1	9.782050E-1	9.804876E-1	1.008522E+0	1.041860E+0	9.295846E-1	9.870208E-1	1.028764E+0	1.004307E+0	1.040136E+0	9.865680E-1	1.007866E+0	1.017869E+0	9.876430E-1	9.673765E-1	1.044310E+0	9.547478E-1	9.984838E-1	9.918248E-1	9.785236E-1	9.722705E-1	9.979331E-1	9.941756E-1	1.020964E+0	9.653208E-1	1.023405E+0	1.016786E+0	9.784598E-1	9.570571E-1	9.762666E-1	9.866924E-1	1.000930E+0	9.413960E-1	1.012261E+0	1.042240E+0	9.923221E-1	9.907542E-1	9.867191E-1	9.787336E-1	9.949480E-1	9.802517E-1	9.853189E-1	1.016337E+0	1.007892E+0	9.568891E-1	1.032715E+0	1.004224E+0	1.059783E+0	9.510367E-1	1.016143E+0	9.894472E-1	1.002981E+0	1.008961E+0	9.969202E-1	1.023254E+0	1.025473E+0	1.006365E+0	1.029320E+0	1.002303E+0	1.003878E+0	9.950055E-1	9.925306E-1	1.003284E+0	1.015771E+0	9.281302E-1	1.059214E+0	1.025553E+0	9.836197E-1	1.002690E+0	1.006311E+0	1.006808E+0	9.731955E-1	1.043078E+0	1.006172E+0	1.042939E+0	9.980162E-1	9.774012E-1	9.271067E-1	9.833922E-1	9.873782E-1	9.581521E-1	9.924897E-1	1.006369E+0	1.009720E+0	9.964539E-1	1.037292E+0	1.000577E+0	9.591026E-1	9.963604E-1	1.008603E+0	9.853995E-1	9.867328E-1	9.570154E-1	1.018351E+0	9.858846E-1	1.023287E+0	9.679849E-1	9.915865E-1	9.814344E-1	9.535530E-1	1.008598E+0	1.052103E+0	1.009586E+0	9.950710E-1	9.883951E-1	9.906839E-1	9.893514E-1	1.032735E+0	9.631196E-1	9.864308E-1	9.632910E-1	9.838887E-1	9.056150E-1	9.887688E-1	9.608653E-1	9.967713E-1	1.002869E+0	1.015856E+0	9.953650E-1	9.994171E-1	1.021680E+0	9.892210E-1	9.993167E-1	1.012807E+0	9.983657E-1	9.364122E-1	1.024483E+0
5.585160E+2	1.009123E+0	1.014518E+0	1.014118E+0	9.814704E-1	9.940230E-1	1.036286E+0	1.003128E+0	1.005674E+0	1.061156E+0	1.024161E+0	9.801503E-1	1.015876E+0	1.049455E+0	1.007439E+0	1.026432E+0	1.022013E+0	1.010664E+0	1.059778E+0	1.029811E+0	9.994481E-1	1.007364E+0	9.767722E-1	1.019193E+0	1.018371E+0	1.055771E+0	1.023067E+0	1.010677E+0	1.023416E+0	1.051698E+0	1.041968E+0	9.868277E-1	1.015420E+0	1.035206E+0	1.001029E+0	1.003439E+0	1.008761E+0	1.029061E+0	1.005336E+0	1.011207E+0	1.013902E+0	1.014212E+0	9.916117E-1	1.050188E+0	1.002818E+0	1.020316E+0	9.904761E-1	1.020265E+0	1.004060E+0	9.982062E-1	9.295847E-1	1.026824E+0	1.006997E+0	1.057390E+0	1.028899E+0	9.996135E-1	1.018411E+0	9.753929E-1	9.858777E-1	9.779361E-1	9.908624E-1	9.940526E-1	9.770531E-1	1.016505E+0	1.023711E+0	9.787880E-1	1.010779E+0	1.016308E+0	1.016382E+0	9.992903E-1	1.030498E+0	9.823147E-1	9.957268E-1	9.682681E-1	9.773939E-1	1.003044E+0	1.029995E+0	9.050316E-1	1.012784E+0	9.924863E-1	1.004134E+0	9.729987E-1	1.019655E+0	1.013994E+0	1.030819E+0	1.026880E+0	1.010203E+0	1.009940E+0	1.028298E+0	1.001223E+0	9.998384E-1	1.025059E+0	9.600463E-1	9.448022E-1	9.822956E-1	1.001404E+0	1.008122E+0	9.677417E-1	1.004620E+0	9.717716E-1	1.071540E+0	9.432557E-1	1.021055E+0	9.915589E-1	9.959093E-1	9.697502E-1	1.025534E+0	9.839311E-1	9.459483E-1	9.584751E-1	9.919253E-1	1.016912E+0	1.016278E+0	9.995621E-1	9.954736E-1	1.056948E+0	1.020033E+0	1.024171E+0	1.009601E+0	1.001564E+0	9.909313E-1	9.454911E-1	9.786041E-1	9.909149E-1	1.054338E+0	9.647461E-1	1.037335E+0	1.033809E+0	9.813710E-1	9.787227E-1	1.010455E+0	9.979546E-1	1.018630E+0	1.002183E+0	1.021108E+0	1.030243E+0	1.013650E+0	9.313955E-1	9.660867E-1	1.011191E+0	1.017024E+0	9.172723E-1	1.010343E+0	1.007204E+0	1.026839E+0	9.540363E-1	9.707262E-1	1.010164E+0	9.828854E-1	9.849536E-1	1.006975E+0	1.031385E+0	1.041493E+0	9.930227E-1	9.976912E-1	9.984491E-1	1.007247E+0	9.659424E-1	9.910730E-1	1.013547E+0	9.887008E-1	9.636355E-1	1.017525E+0	1.035006E+0	1.019237E+0	1.030374E+0	9.834658E-1	9.691451E-1	1.037955E+0	9.684025E-1	1.002285E+0	9.929695E-1
5.590210E+2	1.023444E+0	1.030311E+0	1.038812E+0	1.034157E+0	1.019871E+0	1.010405E+0	9.659167E-1	1.022010E+0	1.048109E+0	9.951455E-1	9.968838E-1	1.008268E+0	1.073522E+0	1.004318E+0	9.827971E-1	1.003705E+0	1.006115E+0	9.499943E-1	1.017795E+0	1.008278E+0	1.011372E+0	1.011239E+0	1.017169E+0	1.020588E+0	1.059123E+0	1.020353E+0	9.737172E-1	1.011891E+0	1.090802E+0	9.832126E-1	9.851389E-1	9.811045E-1	1.024342E+0	9.799306E-1	1.027514E+0	1.025123E+0	1.018987E+0	1.014993E+0	1.003342E+0	1.000817E+0	1.056322E+0	9.841434E-1	1.033828E+0	1.018238E+0	1.093363E+0	1.033130E+0	9.675870E-1	1.051357E+0	1.022126E+0	1.058850E+0	1.003750E+0	9.924850E-1	1.005809E+0	1.025152E+0	1.059527E+0	1.017974E+0	1.031540E+0	1.011769E+0	1.051853E+0	1.006954E+0	1.031288E+0	1.007370E+0	9.979946E-1	1.047035E+0	9.936016E-1	1.022508E+0	1.006406E+0	1.050749E+0	1.013993E+0	1.021885E+0	1.075238E+0	1.025079E+0	1.043333E+0	1.014037E+0	9.731589E-1	1.011974E+0	1.115838E+0	1.006001E+0	1.020917E+0	1.046550E+0	1.053208E+0	1.004250E+0	9.864466E-1	1.017683E+0	1.002743E+0	1.004230E+0	9.799232E-1	1.005624E+0	1.020587E+0	1.032177E+0	1.016049E+0	9.938851E-1	1.066611E+0	1.024995E+0	9.785308E-1	1.013262E+0	1.020311E+0	9.947200E-1	1.016312E+0	9.897025E-1	1.032795E+0	9.855588E-1	9.833743E-1	1.025129E+0	1.012403E+0	1.004111E+0	1.017945E+0	1.017576E+0	9.984029E-1	9.862317E-1	9.879024E-1	9.790269E-1	9.976851E-1	1.033722E+0	9.925584E-1	9.630383E-1	1.004242E+0	1.028461E+0	9.884450E-1	9.928215E-1	9.496761E-1	1.013644E+0	1.006538E+0	1.015229E+0	9.398908E-1	1.016263E+0	9.846232E-1	1.018832E+0	9.864065E-1	9.763502E-1	9.911358E-1	1.010362E+0	1.040518E+0	1.008603E+0	1.022422E+0	1.022304E+0	9.672639E-1	1.003832E+0	1.005567E+0	9.902640E-1	9.556904E-1	1.033921E+0	9.954902E-1	9.894680E-1	9.854504E-1	9.745495E-1	1.011318E+0	1.001163E+0	1.026749E+0	1.008502E+0	1.032506E+0	9.815586E-1	9.859867E-1	1.010642E+0	1.034641E+0	1.014434E+0	9.906215E-1	9.755229E-1	1.013009E+0	9.957630E-1	9.940856E-1	9.952706E-1	1.006343E+0	9.737671E-1	1.022192E+0	1.013290E+0	1.019242E+0	9.707001E-1	9.584146E-1	1.054715E+0	1.041454E+0
5.595110E+2	1.008593E+0	9.877903E-1	9.792254E-1	1.030013E+0	9.751748E-1	1.039391E+0	1.011757E+0	1.035769E+0	1.072028E+0	1.048154E+0	1.053432E+0	1.045803E+0	1.117407E+0	1.006919E+0	1.026430E+0	9.782528E-1	1.005610E+0	1.031038E+0	1.028666E+0	1.016556E+0	1.019387E+0	1.051700E+0	1.044007E+0	9.899716E-1	1.025035E+0	1.013297E+0	9.549438E-1	1.017131E+0	1.048835E+0	1.033575E+0	1.009907E+0	9.941358E-1	1.000642E+0	1.013894E+0	1.031445E+0	1.013511E+0	1.027045E+0	1.022109E+0	1.021037E+0	1.020443E+0	1.100186E+0	9.841430E-1	1.011042E+0	1.013984E+0	1.039719E+0	1.024366E+0	9.901632E-1	1.007184E+0	1.023322E+0	1.125183E+0	1.026246E+0	1.027728E+0	1.012320E+0	1.033179E+0	1.027636E+0	1.003472E+0	9.958997E-1	1.002353E+0	1.001278E+0	9.994829E-1	1.050425E+0	1.024620E+0	1.040672E+0	9.960157E-1	1.071219E+0	9.962579E-1	9.895158E-1	1.022682E+0	1.010951E+0	1.051269E+0	9.948044E-1	1.030691E+0	1.085252E+0	1.004454E+0	1.038570E+0	1.002093E+0	1.045218E+0	1.019565E+0	9.935016E-1	9.660141E-1	1.047085E+0	1.042497E+0	1.014545E+0	1.021725E+0	9.835426E-1	1.025630E+0	9.922253E-1	1.012878E+0	1.047595E+0	9.912149E-1	1.012670E+0	1.044347E+0	1.086753E+0	1.027598E+0	1.036752E+0	1.017888E+0	1.056154E+0	1.053019E+0	1.044078E+0	1.000000E+0	1.009601E+0	9.870163E-1	1.037088E+0	1.015035E+0	1.007352E+0	1.023218E+0	1.066620E+0	1.038643E+0	1.064949E+0	1.020911E+0	1.001481E+0	1.007603E+0	1.028339E+0	9.871871E-1	1.001003E+0	1.010440E+0	9.914661E-1	9.998855E-1	1.016702E+0	1.015963E+0	1.078887E+0	1.045499E+0	9.990161E-1	1.034784E+0	1.108806E+0	1.009780E+0	1.019830E+0	1.008201E+0	1.052602E+0	1.014369E+0	1.029949E+0	1.012567E+0	9.866557E-1	1.009104E+0	9.916565E-1	1.045377E+0	1.019642E+0	9.875729E-1	9.830732E-1	9.993738E-1	1.056603E+0	1.047318E+0	1.015403E+0	1.013250E+0	1.008047E+0	9.488804E-1	1.009009E+0	1.028303E+0	1.055269E+0	1.028355E+0	1.015132E+0	1.013830E+0	9.572561E-1	9.920612E-1	9.881082E-1	1.015632E+0	9.950092E-1	1.022750E+0	1.030749E+0	1.023506E+0	1.005212E+0	1.047011E+0	9.959750E-1	1.034977E+0	1.019124E+0	1.037358E+0	1.001594E+0	9.999417E-1	9.929180E-1	1.049337E+0	1.005091E+0
5.600520E+2	1.036174E+0	9.865752E-1	1.007676E+0	9.648951E-1	9.918684E-1	9.974635E-1	1.047349E+0	9.764422E-1	1.061156E+0	1.014675E+0	1.017080E+0	1.004717E+0	1.040015E+0	9.694631E-1	9.953358E-1	9.929900E-1	1.043008E+0	9.821816E-1	9.926183E-1	9.690959E-1	1.014377E+0	1.031719E+0	9.756410E-1	9.842020E-1	1.013859E+0	9.590222E-1	9.883838E-1	1.008224E+0	1.039774E+0	9.790160E-1	1.090403E+0	9.923983E-1	1.026811E+0	1.003602E+0	9.778903E-1	9.913446E-1	9.993452E-1	9.911056E-1	1.035291E+0	9.791496E-1	9.826294E-1	1.047915E+0	9.952674E-1	9.725094E-1	1.035154E+0	1.011511E+0	1.023490E+0	9.759511E-1	1.021528E+0	1.082661E+0	9.864440E-1	9.893757E-1	9.802686E-1	9.625393E-1	9.430839E-1	9.757863E-1	1.038864E+0	1.008827E+0	1.005168E+0	1.009252E+0	1.031805E+0	1.017302E+0	9.805121E-1	1.003304E+0	1.015524E+0	9.722422E-1	9.988354E-1	1.005498E+0	1.025655E+0	9.909825E-1	1.010291E+0	9.784598E-1	1.031634E+0	9.869777E-1	1.047029E+0	9.521025E-1	1.069987E+0	9.653018E-1	1.031577E+0	1.012188E+0	1.003612E+0	9.867198E-1	1.021707E+0	1.004042E+0	1.014263E+0	9.893002E-1	1.001575E+0	1.021040E+0	1.049124E+0	1.014930E+0	9.873293E-1	1.042566E+0	1.081478E+0	1.026036E+0	9.837293E-1	1.033308E+0	1.062127E+0	1.005720E+0	9.972232E-1	9.723595E-1	1.013916E+0	1.024455E+0	9.639338E-1	1.028848E+0	1.004546E+0	1.001216E+0	1.005043E+0	1.031419E+0	1.064417E+0	9.877847E-1	9.669172E-1	9.948460E-1	1.017078E+0	1.017148E+0	9.994193E-1	1.056712E+0	9.797129E-1	1.025032E+0	9.687667E-1	1.010767E+0	1.079409E+0	1.002495E+0	1.013483E+0	9.856006E-1	1.089529E+0	9.541283E-1	9.923891E-1	9.960516E-1	1.062058E+0	1.011574E+0	1.022606E+0	1.011464E+0	9.953911E-1	1.024110E+0	9.582846E-1	9.679859E-1	1.056648E+0	9.939609E-1	1.017377E+0	1.031258E+0	1.109876E+0	9.931942E-1	9.990043E-1	1.050622E+0	1.059852E+0	9.936647E-1	1.034995E+0	9.817776E-1	1.008556E+0	9.519947E-1	9.686153E-1	9.672661E-1	1.066314E+0	9.622199E-1	1.007756E+0	1.024017E+0	1.167217E+0	9.841623E-1	9.850556E-1	1.023506E+0	1.071967E+0	9.808066E-1	1.022809E+0	9.784304E-1	9.863983E-1	9.934076E-1	9.845152E-1	1.014562E+0	1.000182E+0	9.485118E-1	1.009940E+0
5.605090E+2	9.926806E-1	9.853607E-1	9.539951E-1	9.755510E-1	1.005331E+0	9.974639E-1	9.680742E-1	9.742905E-1	1.044304E+0	9.722684E-1	9.697638E-1	9.408061E-1	1.021612E+0	9.855903E-1	9.958372E-1	9.974551E-1	1.025320E+0	9.534426E-1	9.914743E-1	9.955853E-1	1.018385E+0	9.822679E-1	9.948852E-1	9.806545E-1	1.043477E+0	9.812749E-1	1.140918E+0	9.595059E-1	1.020221E+0	9.970023E-1	1.032424E+0	9.854485E-1	1.005579E+0	1.000000E+0	9.430064E-1	1.001900E+0	9.615723E-1	9.911061E-1	9.758170E-1	9.542087E-1	1.053397E+0	9.663329E-1	9.900091E-1	1.011858E+0	1.025452E+0	9.676873E-1	9.804874E-1	1.004507E+0	1.056212E+0	1.104206E+0	9.725993E-1	9.484309E-1	1.004809E+0	9.743129E-1	9.894673E-1	9.762276E-1	1.009569E+0	9.699895E-1	1.004057E+0	9.753451E-1	1.053527E+0	9.937797E-1	9.882254E-1	9.576305E-1	9.983404E-1	9.845297E-1	9.376798E-1	9.986251E-1	9.926994E-1	9.793303E-1	9.738215E-1	9.883890E-1	1.062342E+0	1.013473E+0	9.985341E-1	9.741907E-1	1.052069E+0	9.986957E-1	9.483174E-1	1.018093E+0	9.993263E-1	9.930941E-1	9.936086E-1	9.676652E-1	1.017554E+0	9.708874E-1	9.882887E-1	9.729719E-1	9.686095E-1	9.599544E-1	9.614253E-1	9.600458E-1	1.076683E+0	9.401169E-1	1.020117E+0	9.382148E-1	1.044207E+0	9.606206E-1	9.792913E-1	9.550164E-1	9.918014E-1	9.855587E-1	1.006906E+0	9.518141E-1	9.933214E-1	9.618435E-1	9.886228E-1	9.838689E-1	1.026618E+0	9.789851E-1	1.000247E+0	9.841298E-1	9.983106E-1	1.019698E+0	9.408355E-1	1.029061E+0	9.889110E-1	1.019316E+0	9.813812E-1	9.791255E-1	1.074178E+0	9.971861E-1	9.897579E-1	9.393803E-1	1.049964E+0	9.946510E-1	9.851405E-1	9.646650E-1	1.036053E+0	9.299446E-1	9.722530E-1	9.839053E-1	1.034209E+0	9.445777E-1	1.009386E+0	1.005480E+0	1.089100E+0	1.001510E+0	1.052243E+0	9.669201E-1	1.073509E+0	9.422856E-1	1.011889E+0	1.001602E+0	1.026234E+0	9.811037E-1	9.495287E-1	9.684851E-1	9.795441E-1	9.652305E-1	9.596474E-1	9.741829E-1	1.059278E+0	1.017398E+0	1.024817E+0	1.001857E+0	1.058079E+0	9.634279E-1	9.700031E-1	1.001817E+0	1.016923E+0	9.635594E-1	9.843875E-1	9.463689E-1	9.782170E-1	9.803264E-1	9.936246E-1	9.818118E-1	9.901943E-1	9.915306E-1	8.960030E-1
5.610010E+2	1.000637E+0	9.598480E-1	9.556055E-1	1.000414E+0	9.514810E-1	9.664058E-1	9.686135E-1	1.002665E+0	9.774403E-1	1.054850E+0	1.009001E+0	9.565305E-1	1.003208E+0	1.035531E+0	9.752745E-1	1.013084E+0	1.000556E+0	9.913782E-1	9.365446E-1	9.707517E-1	9.988477E-1	9.642845E-1	9.401921E-1	9.930787E-1	1.026712E+0	9.693342E-1	1.102198E+0	9.652680E-1	1.006867E+0	1.000600E+0	9.761332E-1	1.008036E+0	1.000642E+0	9.855917E-1	1.013266E+0	9.295928E-1	9.625796E-1	9.667099E-1	9.492741E-1	1.003681E+0	9.995908E-1	9.755252E-1	9.444371E-1	9.246539E-1	1.024311E+0	9.828795E-1	1.000914E+0	9.411461E-1	9.868439E-1	1.065653E+0	9.483722E-1	9.691621E-1	9.747598E-1	9.593286E-1	9.503312E-1	9.740287E-1	9.963875E-1	9.435097E-1	9.690441E-1	9.925861E-1	1.013188E+0	9.530084E-1	9.779416E-1	1.020796E+0	1.013153E+0	1.012455E+0	1.024462E+0	9.293184E-1	9.901640E-1	9.428547E-1	9.523395E-1	9.706901E-1	9.892278E-1	9.881054E-1	9.940228E-1	9.910481E-1	1.020977E+0	9.606062E-1	9.711631E-1	1.012188E+0	9.876934E-1	1.002656E+0	9.577979E-1	9.368461E-1	9.654400E-1	9.649153E-1	9.809074E-1	9.512063E-1	9.991848E-1	9.901369E-1	9.417156E-1	9.831995E-1	1.003308E+0	9.562592E-1	9.847694E-1	9.901310E-1	1.025090E+0	9.919697E-1	9.677228E-1	9.680235E-1	9.880255E-1	9.578440E-1	9.854204E-1	9.587206E-1	9.910759E-1	9.456317E-1	9.616463E-1	9.579866E-1	1.002662E+0	9.401654E-1	9.477831E-1	9.626980E-1	9.895533E-1	9.419278E-1	9.814749E-1	9.528806E-1	9.567171E-1	9.724542E-1	9.869316E-1	9.720415E-1	1.031805E+0	9.876299E-1	9.972803E-1	9.731570E-1	1.005833E+0	9.638543E-1	9.644312E-1	9.596028E-1	9.952720E-1	1.004305E+0	9.790722E-1	1.009811E+0	9.594826E-1	9.545817E-1	9.593280E-1	9.814450E-1	1.016226E+0	9.881533E-1	9.251516E-1	9.583797E-1	1.045334E+0	9.535389E-1	9.861199E-1	9.593768E-1	9.556892E-1	9.723649E-1	9.333584E-1	1.001717E+0	9.721686E-1	9.626854E-1	9.568447E-1	9.386814E-1	1.030548E+0	9.993811E-1	9.777678E-1	9.341788E-1	1.064112E+0	9.818573E-1	9.866687E-1	9.619662E-1	1.012824E+0	9.641160E-1	9.813383E-1	9.731842E-1	9.270837E-1	9.635833E-1	9.879317E-1	9.613432E-1	1.044672E+0	9.162473E-1	9.784245E-1
