Photon Energy (eV)	#1	#2	#3	#4	#5	#6	#7	#8	#9	#10	#11	#12	#13	#14	#15	#16	#17	#18	#19	#20	#21	#22	#23	#24	#25	#26	#27	#28	#29	#30	#31	#32	#33	#34	#35	#36	#37	#38	#39	#40	#41	#42	#43	#44	#45	#46	#47	#48	#49	#50	#51	#52	#53	#54	#55	#56	#57	#58	#59	#60	#61	#62	#63	#64	#65	#66	#67	#68	#69	#70	#71	#72	#73	#74	#75	#76	#77	#78	#79	#80	#81	#82	#83	#84	#85	#86	#87	#88	#89	#90	#91	#92	#93	#94	#95	#96	#97	#98	#99	#100	#101	#102	#103	#104	#105	#106	#107	#108	#109	#110	#111	#112	#113	#114	#115	#116	#117	#118	#119	#120	#121	#122	#123	#124	#125	#126	#127	#128	#129	#130	#131	#132	#133	#134	#135	#136	#137	#138	#139	#140	#141	#142	#143	#144	#145	#146	#147	#148	#149	#150	#151	#152	#153	#154	#155	#156	#157	#158	#159	#160	#161	#162	#163	#164	#165	#166	#167	#168	#169	#170	
5.300160E+2	-1.410877E-2	-7.605240E-3	-7.796718E-3	-6.562582E-4	-5.086286E-3	-4.953368E-3	2.409117E-3	-1.087074E-2	5.156921E-4	-3.719114E-3	-3.210773E-3	-8.963895E-4	-6.940312E-3	-7.745720E-3	-4.256846E-3	-2.406677E-3	-2.068451E-3	-1.208581E-3	-9.547847E-3	-6.976286E-3	3.083708E-4	-3.122761E-3	-3.427014E-3	-5.417877E-3	-1.297767E-2	-5.776549E-3	-7.668351E-4	-7.991330E-3	-1.141348E-3	-4.932893E-3	-2.797398E-3	-2.349324E-3	-4.555328E-3	-6.191461E-3	-8.903889E-3	-3.571890E-3	-1.500595E-3	-1.012755E-2	-6.161090E-3	-4.715438E-3	-4.646928E-3	-1.167966E-3	-4.751991E-3	-8.377412E-3	-7.248658E-4	-5.723550E-3	-1.380532E-2	-3.904088E-3	-7.736125E-3	2.792344E-3	-9.177813E-3	-5.747077E-3	-8.321250E-3	-7.295380E-3	-6.297641E-3	-4.226709E-3	-1.024506E-2	-8.383062E-3	6.613533E-3	-4.134997E-3	-1.003062E-2	-1.032505E-2	-6.976114E-3	3.700410E-4	-2.791560E-3	-3.794418E-3	-4.781148E-3	-1.218607E-3	-8.417995E-3	-1.315091E-2	-1.197039E-3	-1.470004E-3	-1.146726E-2	-2.373599E-3	-1.157746E-2	-1.282419E-4	-1.535344E-3	-2.126654E-3	-7.217602E-3	-1.117476E-2	-7.586644E-3	-5.907683E-3	-7.551771E-3	-7.661221E-3	-6.716061E-3	-5.027439E-3	3.860697E-4	-2.764871E-3	2.418194E-4	-8.164556E-3	-5.305822E-3	-4.136422E-3	-7.222221E-3	-4.390022E-3	-8.832781E-3	-7.716057E-3	-1.191635E-3	6.780692E-3	-5.939545E-3	2.872951E-4	-6.255985E-3	-3.509578E-3	-7.117379E-3	3.575596E-3	-2.273781E-3	-1.718912E-3	-1.117514E-2	-2.110066E-3	-6.232069E-3	-8.170825E-3	-5.476571E-3	-1.604041E-2	-8.539867E-3	-1.856280E-2	-1.372849E-2	-1.777832E-3	-3.272207E-3	-6.254021E-3	-4.542502E-3	-8.055634E-3	6.565479E-4	-4.831031E-3	-1.147074E-2	-6.433122E-3	-4.135534E-3	-7.268874E-3	6.269434E-3	-5.064260E-3	-5.712499E-3	1.992297E-3	-7.026355E-3	-3.486258E-3	-1.084840E-2	-1.369983E-3	-9.308097E-3	-1.470575E-3	-1.202110E-3	-1.931407E-3	-6.496420E-3	-6.534726E-3	-1.100955E-2	-8.265320E-3	-3.899720E-3	-6.164009E-3	7.530909E-4	-5.074650E-3	-7.517869E-3	-9.681849E-3	-1.117106E-3	3.518034E-3	-7.233818E-3	-1.609726E-2	-5.904848E-3	-6.158149E-3	-6.242378E-4	-1.059982E-3	-1.427555E-2	-8.339374E-3	-9.310260E-3	6.839846E-3	-5.072616E-3	-6.638047E-3	1.587773E-3	-1.078457E-2	1.089293E-3	-9.114764E-3	-4.720076E-3	-7.173427E-3	-1.198190E-2	-8.219543E-3
5.305230E+2	-6.946884E-3	-8.335351E-3	2.664055E-4	-3.176259E-3	-4.816235E-3	-1.187518E-2	-1.204555E-2	-5.783968E-3	-5.161471E-3	-6.685193E-3	-3.383377E-3	-9.781319E-3	-9.487284E-3	-4.407767E-3	-1.045513E-3	-1.846983E-3	-2.806381E-3	-1.218887E-2	-1.076844E-3	-1.678898E-3	-1.025453E-2	-6.870023E-3	-4.168561E-3	-9.184202E-3	-3.421808E-3	-9.297292E-4	-7.482604E-3	-4.995701E-3	1.470456E-3	-2.771162E-3	-9.875917E-3	-6.735545E-3	-7.103023E-3	-4.739249E-3	1.979418E-3	-6.901830E-3	-9.484847E-3	-9.262451E-3	-6.352363E-3	-4.957960E-3	-7.921871E-3	-3.854231E-3	-2.273876E-4	2.866662E-3	-7.311071E-3	-5.919738E-3	-2.683919E-3	-1.142701E-3	-1.639736E-2	-8.238992E-3	-5.240381E-3	-8.599027E-3	-6.589367E-3	-2.170787E-3	-1.079364E-2	-3.118316E-3	4.806299E-4	-3.746205E-3	-4.504782E-3	-3.726375E-3	-5.004576E-3	-8.525353E-3	-6.616612E-3	-3.852639E-3	-7.645333E-3	-9.648707E-3	-1.292727E-2	-1.949735E-3	4.144907E-3	-4.236256E-3	-4.443539E-3	-6.847045E-3	2.099414E-3	-1.155555E-2	-1.855251E-3	-4.476143E-3	-1.432868E-2	4.214929E-3	-5.430709E-3	4.964805E-4	1.395848E-3	-3.916403E-3	-7.670143E-3	-1.203006E-3	-6.323581E-3	1.201924E-3	6.055225E-4	3.825373E-3	-1.121237E-2	-2.074947E-4	-9.418965E-3	-7.091722E-3	-6.998369E-3	-1.186718E-2	-1.013504E-2	-9.598935E-3	-8.641501E-3	-1.084130E-2	-3.210136E-3	-6.316119E-3	1.463419E-3	-8.767711E-3	-1.587865E-3	-7.551755E-3	-2.593677E-3	-5.988271E-3	-1.304542E-2	-1.561464E-2	-9.216254E-3	-2.257120E-3	-1.456441E-3	-5.970010E-3	-4.877655E-3	-2.202368E-3	-2.557161E-3	-6.073377E-3	-1.035395E-2	-3.037678E-3	-8.321428E-3	-7.779007E-3	-1.494262E-2	-8.195832E-3	-7.510470E-3	-3.061375E-3	4.656131E-3	-5.908495E-3	-1.233176E-2	-5.951930E-3	-1.702255E-3	-4.056015E-3	-1.434476E-3	-1.372475E-2	-2.370972E-3	-1.436951E-2	-3.727550E-3	-2.808231E-4	-1.333637E-2	-2.742590E-3	-3.893301E-4	-5.600521E-3	5.935785E-3	-5.197030E-3	-1.331822E-4	-1.173981E-3	-4.531961E-3	-2.517405E-3	-3.612774E-3	-3.679996E-3	-1.164036E-2	-6.004002E-3	-3.503098E-3	6.917914E-3	-8.318350E-3	-5.684147E-3	-1.838208E-3	-1.285486E-2	8.016059E-4	5.659379E-3	-2.979871E-3	-1.157455E-2	-4.622502E-3	-2.891119E-3	-8.466049E-3	-3.254953E-3	-8.211704E-4	-7.258107E-3	-1.621459E-2	-1.005916E-2	-1.758250E-3	-2.194272E-2
5.310050E+2	-1.110372E-2	-8.335366E-3	-4.582277E-3	-8.137407E-4	3.825933E-3	-8.787365E-3	-4.954612E-3	3.398447E-3	-9.466512E-3	-6.130768E-3	-1.658110E-3	2.415335E-3	-4.799648E-3	-2.995541E-4	4.520174E-4	-3.190249E-3	-3.812684E-3	-4.843545E-3	-1.428588E-2	3.810698E-3	3.419954E-4	-3.872185E-3	5.943869E-3	-3.041075E-3	-1.151091E-3	-1.135495E-2	1.533598E-4	-1.273301E-3	-5.696012E-3	2.683590E-3	-5.948598E-3	-4.978126E-3	-2.650740E-3	2.859339E-3	3.965715E-3	-3.771844E-3	-7.955965E-3	-8.254541E-3	8.118210E-3	-5.119441E-4	-8.408672E-4	-1.086194E-2	-1.405155E-3	-7.962261E-3	-1.132585E-2	-6.213779E-4	2.120460E-3	-5.514284E-3	8.893686E-3	-3.721066E-3	-2.387178E-3	-5.487792E-3	-3.606096E-3	-8.576549E-3	4.033683E-3	-1.356709E-3	-1.479925E-3	3.327045E-3	-5.641211E-3	-8.075484E-4	-3.651505E-4	-1.776585E-3	-9.672756E-4	-5.305937E-3	-4.715465E-3	5.623286E-3	-2.685341E-3	-2.526957E-3	-9.828434E-4	-7.532370E-4	-3.447172E-3	-1.746286E-3	-3.236685E-3	3.060680E-3	-9.965145E-3	-3.321841E-3	4.874243E-3	-4.490882E-3	-9.534702E-3	-8.195786E-3	-2.249829E-3	-3.916358E-3	-8.763075E-3	-9.814004E-3	-3.585475E-3	-7.626141E-4	-8.172651E-3	-3.901131E-3	2.102516E-3	-2.372691E-3	6.921023E-3	-4.796341E-3	-5.559247E-3	-6.514093E-4	2.142003E-4	-7.535571E-3	-6.241544E-3	-7.982249E-4	-2.052766E-3	1.639797E-3	3.055030E-3	4.190703E-3	-4.703067E-3	-4.347111E-3	-4.851703E-3	-7.139523E-3	-1.185161E-2	-3.556998E-3	2.109334E-3	-2.090654E-4	-1.543056E-2	2.188292E-3	-4.244404E-3	2.831647E-3	2.745722E-3	2.407409E-4	-1.608989E-3	-5.935266E-3	-7.970587E-4	1.705978E-3	-4.438156E-3	-2.056741E-4	-1.166271E-3	-5.476947E-3	-1.893539E-3	2.627479E-3	-8.708151E-3	-3.186622E-4	-4.665480E-3	-3.484554E-3	6.979554E-3	-5.137639E-4	-1.404889E-3	-6.412353E-4	1.447602E-3	-6.030107E-3	2.404186E-4	-9.695618E-3	-9.521921E-4	-1.071028E-3	-8.192361E-3	-2.521212E-3	4.375230E-4	-8.875693E-3	-6.722619E-3	-3.621246E-3	-3.612763E-3	-2.578778E-3	-3.094471E-3	-1.417107E-3	-2.403150E-3	-9.725170E-3	-8.318367E-3	-4.010966E-3	-8.050595E-4	-4.182177E-3	-3.521578E-3	-1.753419E-3	-1.365907E-3	-6.471258E-3	7.500944E-5	-3.446200E-3	-5.607840E-4	-7.372695E-3	-5.848605E-3	1.334636E-4	-1.022900E-2	-1.954574E-3	-1.153393E-2	1.450930E-2
5.315130E+2	4.484497E-3	2.007816E-3	-1.888568E-3	1.548735E-3	-2.115496E-3	9.906729E-4	2.136372E-3	3.835746E-3	1.834140E-3	-6.685173E-3	-3.958422E-3	-4.191194E-3	-2.455834E-3	-2.995354E-4	-5.038879E-3	-1.399232E-3	-2.806415E-3	2.417507E-4	4.666228E-3	-8.815335E-3	-5.208572E-3	-2.872922E-3	-5.685456E-3	-1.724713E-3	-1.718781E-3	2.362433E-3	-1.021396E-3	-5.527478E-3	1.948223E-3	-2.165072E-3	2.467009E-3	1.612219E-3	3.174254E-4	-9.805046E-3	-3.979497E-3	1.444674E-3	-8.210668E-4	3.335718E-3	-1.362522E-3	7.005687E-4	1.519472E-3	-1.202989E-2	-3.760703E-3	-2.006386E-3	8.174578E-3	5.854303E-3	5.189788E-4	-8.137273E-3	-3.149669E-3	3.055882E-3	2.177931E-3	3.845775E-3	-3.606106E-3	6.370120E-3	5.468573E-3	-4.439578E-3	-5.891084E-3	-7.282728E-3	8.564375E-3	5.613880E-3	-3.458086E-3	2.895623E-3	-3.535121E-3	-2.883750E-3	5.582963E-4	4.492030E-3	6.987569E-3	-4.835889E-3	-7.648866E-3	-3.241097E-3	4.025627E-3	-5.571862E-3	7.435545E-3	-1.998816E-3	-4.751648E-3	-2.744700E-3	-7.062707E-3	-5.515074E-3	-2.865679E-3	-1.199865E-2	2.003413E-3	-3.385318E-3	2.166088E-3	2.849231E-3	7.955783E-4	-3.709544E-3	1.580881E-3	-2.083111E-3	4.663046E-3	8.751120E-4	1.286564E-3	3.237392E-3	2.595740E-3	1.387796E-3	-3.032465E-4	7.939627E-3	3.358276E-3	-7.493602E-3	-3.788771E-3	-6.316096E-3	-1.126959E-2	1.698737E-3	3.084906E-3	-1.075646E-2	9.261312E-3	-3.685695E-3	7.248906E-3	-1.748387E-3	2.109308E-3	-1.745063E-3	3.404064E-3	-4.440316E-3	-5.510852E-3	4.090127E-3	-7.329715E-3	2.407724E-4	5.592783E-3	-2.458139E-3	7.078353E-4	1.705961E-3	-4.963388E-3	-3.401738E-3	2.294151E-3	-5.476940E-3	3.648485E-3	-4.307970E-3	-2.496291E-3	-4.415580E-3	-4.072850E-3	-4.056025E-3	1.194917E-3	-9.321081E-3	-3.337025E-3	8.841749E-4	9.300880E-4	-9.383854E-3	-9.376442E-3	2.472204E-3	-1.052102E-2	2.326071E-3	-2.137467E-3	-5.197024E-3	-4.698646E-3	3.158233E-3	-6.982710E-4	-1.024435E-2	5.108260E-3	7.250198E-4	-2.089021E-3	-3.965393E-3	-2.953104E-3	-1.865923E-3	6.741557E-3	3.239440E-3	-4.937806E-3	-2.447635E-3	-8.196374E-4	-6.315122E-3	-1.365911E-3	-2.898957E-3	7.504168E-5	-5.111540E-3	5.520161E-3	-9.137428E-3	-7.859630E-3	4.357203E-3	4.402335E-3	9.834023E-3	1.168327E-2	-5.003563E-4
5.320070E+2	9.680597E-3	1.174247E-2	4.037522E-3	-6.129358E-3	4.906243E-3	9.224810E-3	7.591015E-3	7.771077E-3	-3.009024E-3	1.216452E-2	-4.533474E-3	-2.666604E-3	1.113838E-2	-2.353676E-3	8.438837E-3	1.287300E-3	-2.907082E-4	-3.713467E-3	6.963487E-3	4.359622E-3	4.883401E-3	8.618776E-3	-3.157338E-3	6.612380E-3	4.525607E-3	3.459838E-3	-2.783572E-3	5.639746E-3	-2.351647E-3	1.471434E-3	3.028094E-3	6.884409E-3	3.285612E-3	4.885605E-3	6.448591E-3	-4.815174E-3	3.255983E-3	6.863202E-3	1.631415E-3	2.721475E-3	-8.511931E-3	1.600093E-2	6.839304E-3	5.032461E-3	1.449781E-4	2.322152E-3	2.120493E-3	1.109781E-2	3.474148E-3	-8.973182E-4	3.319251E-3	4.882871E-3	-2.611676E-3	-5.694063E-4	-3.619149E-3	-3.547333E-5	9.707065E-4	-3.746202E-3	-2.231815E-3	-2.558865E-3	1.696824E-3	8.086969E-3	1.084509E-2	-4.821527E-3	-1.199636E-3	-2.295501E-3	1.297661E-3	3.245297E-3	1.081096E-2	6.212676E-3	5.383002E-4	4.629615E-3	4.039791E-3	-8.744658E-4	5.675268E-3	1.295388E-3	2.798268E-3	2.166464E-3	8.420360E-3	1.733777E-2	-1.642282E-3	1.924967E-3	1.036299E-2	1.196675E-2	4.628993E-3	7.108222E-4	6.055255E-4	-7.196153E-4	-1.482286E-3	2.498991E-3	-4.038269E-4	2.089730E-3	-1.241904E-3	2.917223E-3	7.976053E-3	7.423787E-3	-8.041524E-3	4.781316E-3	1.183574E-2	-1.012172E-3	3.055011E-3	5.187537E-3	-1.068695E-3	5.801076E-3	-3.355787E-4	-1.383130E-3	1.202405E-2	1.332371E-2	-5.872402E-4	1.326972E-3	1.008731E-2	7.287210E-3	6.520535E-3	6.607087E-3	5.397135E-3	-3.777325E-3	9.631178E-4	-4.776217E-3	3.215979E-3	3.128738E-3	1.289426E-2	1.044784E-2	-2.896549E-3	1.769700E-3	-5.924064E-3	-6.975483E-3	6.303913E-3	2.241933E-3	6.002240E-3	-5.556041E-5	-7.219157E-3	8.844034E-3	6.806927E-3	3.426401E-3	1.965113E-3	1.073867E-2	7.594504E-3	-3.901449E-3	4.676479E-3	6.855550E-3	1.451357E-2	8.182060E-3	6.715103E-3	7.514410E-4	2.040017E-3	7.417277E-3	-8.263926E-3	7.332487E-3	1.198669E-2	2.150470E-3	1.446770E-3	3.219466E-3	2.686982E-3	6.585769E-3	2.281618E-4	8.537787E-3	3.503589E-3	3.378494E-3	6.703986E-3	4.755977E-3	5.359716E-3	3.214971E-3	2.479687E-3	1.145119E-2	6.870710E-4	-3.945228E-4	1.637346E-2	6.150132E-3	-5.363135E-4	3.788171E-3
5.325170E+2	1.799428E-2	1.052567E-2	9.963636E-3	9.226881E-3	3.285841E-3	1.540043E-2	4.863658E-3	1.649436E-3	1.528717E-2	1.105573E-2	1.674416E-2	1.512017E-2	1.254470E-2	1.510625E-2	1.450383E-3	7.555842E-3	1.178464E-2	2.171272E-2	1.328085E-2	9.300200E-3	9.929332E-3	8.119115E-3	1.049450E-2	1.275549E-2	1.474374E-2	1.223895E-2	1.190105E-2	1.414806E-2	5.770328E-3	5.714103E-3	1.312681E-2	5.566367E-3	1.070605E-2	1.299081E-2	4.896608E-4	1.761607E-2	1.650649E-2	1.744562E-2	4.126351E-3	6.763298E-3	2.040213E-2	1.191309E-2	3.305932E-3	1.044694E-2	1.104223E-2	4.088211E-3	1.172931E-2	7.600533E-3	1.491532E-2	7.009151E-3	1.130819E-2	1.110525E-2	2.473450E-2	1.224200E-2	1.120818E-2	1.317679E-2	1.616473E-2	1.983115E-2	-2.800100E-3	5.613905E-3	1.716161E-2	9.644398E-3	7.250032E-3	1.649381E-2	1.579370E-2	5.623310E-3	1.210853E-2	7.285890E-3	2.093842E-3	1.516883E-2	4.523824E-3	1.100558E-2	1.129194E-3	1.374175E-2	2.247423E-2	9.375537E-3	1.525422E-2	5.751217E-3	1.662833E-2	1.353494E-2	8.079494E-3	1.520079E-2	1.145591E-2	3.862256E-3	1.120054E-2	7.586851E-3	4.994652E-3	5.643354E-3	5.687276E-3	7.370640E-3	6.921026E-3	1.069736E-2	1.842600E-2	1.260359E-2	1.108082E-2	9.487148E-3	2.075793E-2	7.571119E-3	3.155480E-3	1.171729E-2	9.952115E-3	1.200311E-3	1.139210E-2	1.327866E-2	7.934273E-4	1.991553E-2	1.679922E-2	9.706381E-3	1.181692E-2	1.105510E-2	8.872199E-3	1.697524E-2	1.665224E-2	7.236310E-3	1.547250E-2	1.114702E-2	8.679240E-3	2.246132E-2	9.737175E-3	9.293964E-3	1.079335E-2	6.186431E-3	2.074988E-2	1.867868E-2	3.648521E-3	2.183334E-2	1.096285E-2	1.350850E-2	1.015084E-2	9.659857E-3	7.505517E-3	1.820182E-2	1.115436E-2	1.207015E-2	8.692843E-3	6.426686E-3	1.608000E-2	1.579886E-2	1.368248E-2	4.024655E-3	8.900179E-4	1.299853E-2	1.578923E-3	1.230401E-2	9.159744E-3	1.404037E-2	1.789907E-2	7.883115E-3	5.954274E-3	5.717997E-3	1.464640E-2	1.755097E-2	1.311303E-2	6.028052E-3	7.977150E-3	1.200687E-2	1.431157E-2	7.370043E-3	8.317963E-3	9.348937E-3	4.185351E-3	1.487194E-2	-5.607877E-4	1.909846E-2	1.275304E-2	1.227673E-2	1.038787E-2	3.203006E-3	1.412712E-2	1.236515E-2
5.330280E+2	2.422955E-2	2.512778E-2	2.289333E-2	2.576435E-2	1.894975E-2	2.003213E-2	1.850018E-2	1.607901E-2	2.604969E-2	1.604535E-2	2.364495E-2	1.816934E-2	2.473258E-2	2.589033E-2	3.239925E-2	2.233166E-2	1.027521E-2	3.075315E-2	1.902394E-2	3.290529E-2	2.607647E-2	3.110243E-2	2.515759E-2	2.109262E-2	1.417616E-2	2.431023E-2	2.717305E-2	3.063300E-2	2.535870E-2	1.965404E-2	9.760586E-3	2.270120E-2	2.208408E-2	2.362889E-2	1.935959E-2	1.813771E-2	2.924735E-2	2.903590E-2	1.859689E-2	2.293059E-2	2.158230E-2	2.125669E-2	1.567260E-2	2.560753E-2	2.021894E-2	3.470089E-2	1.546615E-2	2.246401E-2	3.478684E-2	3.524630E-2	2.557417E-2	2.095741E-2	3.169534E-2	3.519571E-2	2.699214E-2	2.550821E-2	1.861537E-2	3.279871E-2	3.413445E-2	1.962427E-2	3.107994E-2	1.016354E-2	2.779327E-2	2.472922E-2	2.575531E-2	2.089533E-2	2.974743E-2	3.383833E-2	3.029628E-2	3.059339E-2	2.494946E-2	2.163217E-2	2.198857E-2	3.285532E-2	2.884624E-2	1.630134E-2	3.030519E-2	2.009009E-2	3.714840E-2	2.983292E-2	2.873816E-2	4.015930E-2	3.003549E-2	1.601896E-2	2.708180E-2	4.000266E-2	2.645237E-2	2.200542E-2	2.053848E-2	3.605937E-2	2.438795E-2	2.160034E-2	2.322307E-2	3.146648E-2	1.884275E-2	3.785825E-2	2.795784E-2	2.375172E-2	1.993733E-2	2.868986E-2	3.488773E-2	1.116840E-2	2.021849E-2	1.274460E-2	2.901965E-2	3.257960E-2	1.202407E-2	2.899860E-2	2.260325E-2	1.975931E-2	2.527661E-2	2.972255E-2	1.285289E-2	3.177705E-2	1.388169E-2	1.573912E-2	3.079892E-2	2.304086E-2	2.177619E-2	1.830466E-2	2.760052E-2	1.897065E-2	2.709405E-2	1.022421E-2	2.027449E-2	1.703189E-2	2.752785E-2	2.323876E-2	2.496717E-2	2.394710E-2	2.275603E-2	1.765140E-2	2.178140E-2	2.325622E-2	2.059583E-2	2.127902E-2	2.399970E-2	2.506949E-2	2.887994E-2	1.421596E-2	2.309133E-2	1.781503E-2	2.155306E-2	2.289387E-2	2.997117E-2	3.390968E-2	2.952704E-2	2.495248E-2	2.656511E-2	1.693040E-2	2.564612E-2	1.708865E-2	2.411837E-2	1.606701E-2	1.314311E-2	1.374141E-2	2.511954E-2	1.592328E-2	2.876170E-2	8.328269E-3	3.941672E-2	1.209643E-2	2.984399E-2	1.733371E-2	3.286298E-2	2.178013E-2	2.169391E-2	3.267438E-2	3.001257E-2	2.094215E-2
5.331630E+2	3.618053E-2	3.972987E-2	2.504824E-2	3.285188E-2	3.785456E-2	3.598586E-2	3.268209E-2	2.351245E-2	3.358342E-2	3.156861E-2	4.204722E-2	2.426766E-2	2.473265E-2	1.716031E-2	3.439595E-2	2.994346E-2	1.279088E-2	3.131815E-2	2.189547E-2	3.894383E-2	2.759028E-2	3.459992E-2	4.234879E-2	3.250126E-2	3.404475E-2	2.101807E-2	3.363429E-2	2.052935E-2	2.679198E-2	3.844275E-2	3.893480E-2	4.027542E-2	2.999918E-2	3.882609E-2	3.127750E-2	3.170082E-2	3.026666E-2	4.314584E-2	2.857659E-2	2.858916E-2	3.692448E-2	3.235227E-2	2.273926E-2	3.427069E-2	3.914579E-2	4.058789E-2	3.788683E-2	2.902142E-2	3.839981E-2	3.750530E-2	2.671549E-2	3.080951E-2	3.965063E-2	4.960853E-2	2.651378E-2	2.903148E-2	2.547713E-2	2.454663E-2	3.072511E-2	2.662947E-2	3.107992E-2	2.833328E-2	4.011918E-2	2.472922E-2	2.927113E-2	4.747991E-2	3.202343E-2	2.229376E-2	2.106639E-2	4.701302E-2	3.391682E-2	2.758305E-2	3.411604E-2	3.060665E-2	2.421202E-2	2.611294E-2	4.068511E-2	3.442897E-2	2.791437E-2	3.798190E-2	2.387727E-2	3.325587E-2	4.096467E-2	2.260380E-2	2.927230E-2	3.902032E-2	2.840306E-2	2.836840E-2	2.617163E-2	3.497679E-2	3.734727E-2	2.504338E-2	3.041865E-2	2.178013E-2	2.608722E-2	3.682657E-2	4.835747E-2	2.988918E-2	2.051603E-2	3.982813E-2	3.860147E-2	4.356462E-2	3.164086E-2	3.731377E-2	3.297127E-2	4.178988E-2	3.948105E-2	2.176399E-2	2.044596E-2	3.665556E-2	3.864308E-2	2.615332E-2	2.615071E-2	2.233826E-2	2.342683E-2	1.401706E-2	3.954388E-2	2.593847E-2	2.980223E-2	1.925320E-2	3.705452E-2	2.483009E-2	4.093589E-2	2.411364E-2	3.186237E-2	2.503435E-2	3.115145E-2	3.501746E-2	3.504227E-2	3.880596E-2	4.536889E-2	2.811008E-2	3.965411E-2	3.240842E-2	2.266588E-2	3.517312E-2	3.248526E-2	4.187264E-2	5.195764E-2	2.723819E-2	3.217371E-2	4.082703E-2	3.068411E-2	2.674473E-2	3.051879E-2	3.611740E-2	3.359685E-2	2.990809E-2	2.706778E-2	1.642069E-2	3.499585E-2	3.373172E-2	2.991063E-2	3.279863E-2	2.089206E-2	3.629040E-2	2.241754E-2	2.447651E-2	4.651547E-2	2.567949E-2	2.649851E-2	2.985952E-2	3.288443E-2	2.380438E-2	2.984646E-2	3.286745E-2	1.969875E-2	3.562154E-2	3.245645E-2	3.595163E-2
5.333080E+2	3.358253E-2	3.547093E-2	2.558695E-2	2.694560E-2	4.649677E-2	3.650049E-2	3.922762E-2	2.919677E-2	4.972712E-2	4.930952E-2	4.032208E-2	4.307087E-2	2.988901E-2	3.821492E-2	3.938767E-2	3.665976E-2	3.392273E-2	3.753344E-2	3.510461E-2	4.113962E-2	4.171903E-2	3.959628E-2	4.032630E-2	3.732803E-2	4.142450E-2	4.241717E-2	4.244507E-2	3.063301E-2	4.303601E-2	4.450366E-2	5.015559E-2	2.621597E-2	2.999923E-2	4.034580E-2	2.581511E-2	4.891551E-2	2.720884E-2	2.752414E-2	4.304712E-2	4.031041E-2	3.279391E-2	5.220743E-2	3.569484E-2	3.643650E-2	4.086642E-2	3.764441E-2	3.681913E-2	4.082479E-2	3.839986E-2	4.597651E-2	2.728614E-2	2.717978E-2	2.920933E-2	5.761566E-2	4.181944E-2	3.299518E-2	3.724024E-2	5.342879E-2	5.288579E-2	3.129954E-2	3.159536E-2	4.546480E-2	4.833646E-2	4.120009E-2	5.622607E-2	4.069233E-2	3.885139E-2	3.614722E-2	3.696232E-2	5.547165E-2	4.836424E-2	3.098354E-2	3.072035E-2	3.229311E-2	3.521825E-2	5.266195E-2	3.860911E-2	3.135638E-2	3.868740E-2	4.830397E-2	3.542187E-2	5.237304E-2	3.495362E-2	2.361685E-2	3.365330E-2	5.031673E-2	2.742771E-2	4.200343E-2	2.719588E-2	4.201367E-2	4.072793E-2	4.570166E-2	2.178402E-2	2.789784E-2	4.575072E-2	3.785824E-2	3.035780E-2	4.049029E-2	2.630291E-2	4.035856E-2	3.594876E-2	5.004381E-2	3.942889E-2	2.983620E-2	4.031007E-2	4.812192E-2	3.470600E-2	4.889373E-2	2.907494E-2	4.689571E-2	4.471878E-2	4.501938E-2	3.564924E-2	5.002514E-2	3.085080E-2	3.927372E-2	3.491420E-2	5.085794E-2	3.331360E-2	3.348066E-2	5.491212E-2	4.134310E-2	2.709406E-2	3.437980E-2	3.992342E-2	3.837178E-2	4.771655E-2	3.860225E-2	3.859822E-2	3.480550E-2	3.222185E-2	2.976149E-2	4.351850E-2	5.172976E-2	4.077905E-2	4.283889E-2	3.814226E-2	4.129324E-2	4.182597E-2	4.195903E-2	3.822863E-2	3.012372E-2	3.753233E-2	4.022269E-2	3.490014E-2	4.605200E-2	3.127124E-2	3.266125E-2	2.505696E-2	4.190338E-2	3.114592E-2	4.020404E-2	5.250050E-2	4.060677E-2	3.070741E-2	3.802492E-2	3.214477E-2	4.557446E-2	4.920540E-2	3.894806E-2	4.000394E-2	3.763085E-2	2.011444E-2	2.851041E-2	4.191246E-2	3.128355E-2	2.634936E-2	3.856868E-2	3.856626E-2	5.739394E-2
5.334580E+2	5.904324E-2	5.189826E-2	5.791113E-2	4.407368E-2	5.729951E-2	5.811512E-2	4.795494E-2	5.149700E-2	5.295587E-2	4.598311E-2	4.779796E-2	5.069374E-2	5.285851E-2	5.259374E-2	5.785714E-2	4.919684E-2	3.442583E-2	6.239467E-2	4.659072E-2	5.486346E-2	5.584781E-2	7.107351E-2	5.549500E-2	5.531865E-2	6.242846E-2	5.558589E-2	4.596944E-2	6.147581E-2	5.736896E-2	6.935317E-2	7.147534E-2	5.038036E-2	4.632420E-2	5.047733E-2	4.816106E-2	6.143510E-2	4.606533E-2	6.380667E-2	3.955422E-2	4.516067E-2	3.397405E-2	4.753563E-2	4.688366E-2	5.376294E-2	5.291080E-2	6.001520E-2	6.724717E-2	4.738218E-2	5.766919E-2	6.178932E-2	3.869894E-2	3.443925E-2	6.252199E-2	7.362982E-2	5.090715E-2	5.721756E-2	4.165140E-2	8.643713E-2	3.981662E-2	5.114759E-2	5.891639E-2	6.415350E-2	7.555613E-2	4.652892E-2	5.564012E-2	7.236758E-2	4.397242E-2	5.519568E-2	5.798602E-2	5.795947E-2	5.733161E-2	4.841115E-2	4.187769E-2	5.196883E-2	6.012707E-2	5.901066E-2	5.002702E-2	6.054629E-2	5.612943E-2	5.210688E-2	6.944794E-2	6.086957E-2	5.790488E-2	3.830618E-2	5.227273E-2	6.013968E-2	5.668826E-2	5.291147E-2	4.768027E-2	5.283954E-2	6.326592E-2	4.512785E-2	5.104603E-2	5.593731E-2	5.661746E-2	5.849165E-2	5.735734E-2	6.001854E-2	3.556185E-2	6.104390E-2	6.672029E-2	5.602462E-2	5.967770E-2	4.692782E-2	7.305245E-2	6.539112E-2	5.440336E-2	5.492257E-2	4.093989E-2	6.532806E-2	7.509710E-2	5.062824E-2	6.097859E-2	5.694684E-2	4.781993E-2	6.453025E-2	6.423569E-2	6.070984E-2	5.638849E-2	5.577046E-2	5.438692E-2	4.986584E-2	4.670326E-2	4.826932E-2	5.957233E-2	7.038158E-2	6.479911E-2	5.652636E-2	4.215411E-2	6.052268E-2	6.272295E-2	4.242202E-2	5.462874E-2	7.664415E-2	5.268193E-2	4.858826E-2	5.058761E-2	4.708748E-2	6.659224E-2	5.894452E-2	5.740246E-2	5.902254E-2	7.234450E-2	4.936856E-2	6.173583E-2	8.082337E-2	5.103883E-2	6.074322E-2	6.527324E-2	6.993433E-2	6.909495E-2	5.453557E-2	5.250047E-2	6.235790E-2	4.517215E-2	5.363577E-2	5.700311E-2	6.667237E-2	7.126320E-2	5.885088E-2	7.112496E-2	4.817761E-2	5.964063E-2	5.556977E-2	5.146465E-2	5.926593E-2	5.295181E-2	4.962044E-2	3.978819E-2	6.168249E-2
5.336130E+2	8.034706E-2	8.414459E-2	8.484801E-2	4.584562E-2	7.026276E-2	8.333237E-2	6.159146E-2	5.718140E-2	7.179028E-2	5.928886E-2	5.584892E-2	7.051333E-2	6.364027E-2	8.443240E-2	8.631017E-2	5.680862E-2	6.562049E-2	7.878028E-2	7.358321E-2	7.352801E-2	7.603168E-2	7.057386E-2	7.116933E-2	6.979883E-2	7.775570E-2	6.326760E-2	7.827559E-2	6.519818E-2	5.736892E-2	8.450538E-2	8.774541E-2	7.805975E-2	5.423937E-2	4.591816E-2	7.994199E-2	6.560845E-2	6.950842E-2	7.892461E-2	6.550152E-2	6.860304E-2	7.055908E-2	9.366960E-2	7.456149E-2	6.729919E-2	9.936766E-2	7.649890E-2	6.190878E-2	6.530583E-2	6.429301E-2	6.348359E-2	6.266584E-2	6.347713E-2	8.340461E-2	1.056582E-1	7.530047E-2	7.703600E-2	5.390467E-2	7.818506E-2	6.709132E-2	5.523394E-2	5.943199E-2	6.363457E-2	8.428697E-2	7.898638E-2	7.497752E-2	8.198311E-2	6.900803E-2	6.096791E-2	8.413741E-2	8.880858E-2	7.327352E-2	6.498858E-2	5.352007E-2	7.333099E-2	6.360272E-2	5.612488E-2	6.871096E-2	8.103054E-2	8.537053E-2	6.514520E-2	8.342293E-2	9.326256E-2	8.413504E-2	4.995633E-2	7.363027E-2	9.157293E-2	8.399815E-2	6.654653E-2	5.894668E-2	7.665656E-2	6.890040E-2	6.808150E-2	6.111986E-2	6.919232E-2	6.437929E-2	7.448283E-2	7.475697E-2	7.675720E-2	5.465853E-2	6.953019E-2	9.165560E-2	8.243997E-2	6.279288E-2	6.829244E-2	8.490754E-2	8.553856E-2	7.051952E-2	7.361186E-2	7.060192E-2	8.427222E-2	6.780641E-2	8.581097E-2	6.984380E-2	7.456589E-2	5.471362E-2	4.673589E-2	8.944165E-2	8.447025E-2	6.591941E-2	4.628538E-2	7.802190E-2	6.584612E-2	7.784734E-2	5.732762E-2	8.123650E-2	5.597715E-2	6.842285E-2	7.905940E-2	7.060144E-2	6.509462E-2	6.061941E-2	6.278885E-2	6.911990E-2	8.630465E-2	6.820763E-2	6.535682E-2	5.115331E-2	7.084363E-2	8.178974E-2	8.498898E-2	8.162212E-2	8.096423E-2	7.633920E-2	7.199235E-2	7.378451E-2	9.682916E-2	7.313203E-2	7.175565E-2	6.577586E-2	8.471409E-2	8.009465E-2	6.840487E-2	8.667494E-2	6.347338E-2	6.170330E-2	7.734114E-2	7.213431E-2	8.434905E-2	6.749705E-2	7.569162E-2	8.110719E-2	5.261848E-2	8.153204E-2	7.498186E-2	7.006627E-2	6.929733E-2	6.758319E-2	6.877688E-2	7.644685E-2	4.024012E-2
5.337580E+2	1.177589E-1	1.048308E-1	1.225594E-1	9.604871E-2	1.113133E-1	1.028884E-1	1.052282E-1	9.259948E-2	1.073062E-1	1.235997E-1	9.667898E-2	9.287382E-2	1.006728E-1	1.034328E-1	1.122671E-1	1.100912E-1	8.826168E-2	1.013814E-1	1.103388E-1	1.212871E-1	1.189224E-1	1.160408E-1	1.085854E-1	9.437115E-2	1.067071E-1	1.258187E-1	9.824666E-2	1.135892E-1	1.175673E-1	1.111732E-1	1.258963E-1	1.114506E-1	9.925668E-2	9.606893E-2	9.781862E-2	8.543145E-2	1.102790E-1	1.136953E-1	1.109088E-1	9.568318E-2	1.195363E-1	1.100210E-1	1.181390E-1	1.122396E-1	1.291920E-1	1.171194E-1	1.238327E-1	1.055246E-1	9.801439E-2	1.222170E-1	1.054640E-1	9.458914E-2	1.057787E-1	1.334163E-1	1.016071E-1	1.034604E-1	8.723346E-2	1.365391E-1	1.023212E-1	9.960020E-2	1.053107E-1	1.197010E-1	1.145882E-1	9.739494E-2	1.042761E-1	1.142242E-1	9.688888E-2	8.867484E-2	1.179805E-1	1.216480E-1	1.046591E-1	9.729350E-2	9.523887E-2	1.154932E-1	1.111031E-1	1.080683E-1	8.168576E-2	1.184139E-1	1.264106E-1	1.238182E-1	1.375001E-1	1.240623E-1	1.049005E-1	9.807626E-2	1.152500E-1	1.028694E-1	9.375161E-2	8.427203E-2	9.069754E-2	1.183363E-1	9.256513E-2	1.059549E-1	1.023747E-1	9.825133E-2	1.161254E-1	1.080123E-1	9.635654E-2	1.158138E-1	8.301424E-2	9.021537E-2	1.144691E-1	1.168299E-1	9.550240E-2	1.184989E-1	1.131338E-1	1.154718E-1	1.105113E-1	1.194307E-1	1.207581E-1	1.144811E-1	1.291707E-1	1.174242E-1	1.053048E-1	1.205008E-1	9.183357E-2	9.093491E-2	1.264793E-1	1.238778E-1	9.551528E-2	8.375094E-2	1.195144E-1	8.289170E-2	1.141824E-1	1.014114E-1	1.129769E-1	1.045251E-1	1.139765E-1	1.036407E-1	1.269036E-1	1.251014E-1	1.095264E-1	1.035228E-1	9.423834E-2	1.218967E-1	1.127143E-1	1.036853E-1	1.190370E-1	1.224119E-1	1.144362E-1	1.008422E-1	1.043280E-1	1.189606E-1	1.208531E-1	1.100193E-1	1.225266E-1	1.155947E-1	1.004578E-1	1.114007E-1	1.180569E-1	1.239574E-1	1.119939E-1	1.081630E-1	1.127399E-1	1.041871E-1	9.373223E-2	8.717002E-2	1.142855E-1	1.305365E-1	1.180685E-1	1.103943E-1	1.087052E-1	9.258531E-2	1.064640E-1	1.085120E-1	1.047560E-1	1.009754E-1	1.167976E-1	1.166679E-1	1.192152E-1	1.152885E-1
5.339090E+2	1.801117E-1	1.614139E-1	1.624261E-1	1.480236E-1	1.815310E-1	1.713346E-1	1.957748E-1	1.236447E-1	1.519704E-1	1.707236E-1	1.806393E-1	1.457259E-1	1.423928E-1	1.465691E-1	1.746639E-1	1.463591E-1	1.390785E-1	1.691846E-1	1.758102E-1	1.673995E-1	1.577764E-1	1.844913E-1	1.722940E-1	1.768648E-1	1.975351E-1	1.708119E-1	2.022136E-1	1.821882E-1	1.682108E-1	1.808733E-1	1.988322E-1	1.769148E-1	1.467473E-1	1.639499E-1	1.385380E-1	1.485518E-1	1.760225E-1	1.892841E-1	1.967343E-1	1.332723E-1	1.750041E-1	1.987857E-1	1.705504E-1	1.495997E-1	1.945760E-1	1.918846E-1	1.868238E-1	1.658528E-1	1.612418E-1	2.035402E-1	1.825005E-1	1.511089E-1	1.937838E-1	2.140215E-1	1.647429E-1	1.615946E-1	1.352662E-1	1.931246E-1	1.869862E-1	1.620632E-1	1.589220E-1	1.669426E-1	1.880304E-1	1.705451E-1	1.669758E-1	1.753118E-1	1.680137E-1	1.660232E-1	1.938706E-1	1.997657E-1	1.744054E-1	1.487261E-1	1.316213E-1	1.823906E-1	1.557074E-1	1.807896E-1	1.808145E-1	1.778184E-1	1.582169E-1	1.955297E-1	1.867162E-1	1.792896E-1	1.699289E-1	1.416380E-1	1.732988E-1	1.799797E-1	1.566619E-1	1.465384E-1	1.449811E-1	2.103567E-1	1.596159E-1	1.673561E-1	1.844045E-1	1.813500E-1	1.616620E-1	1.626913E-1	1.773553E-1	1.788624E-1	1.460908E-1	1.628795E-1	1.924594E-1	1.836157E-1	1.629981E-1	1.660353E-1	1.887797E-1	1.862756E-1	1.869137E-1	1.827337E-1	1.887116E-1	1.938423E-1	1.850673E-1	1.735126E-1	2.123213E-1	1.909765E-1	1.448619E-1	1.557981E-1	2.041551E-1	1.795119E-1	1.341406E-1	1.629508E-1	1.925208E-1	1.579990E-1	1.926189E-1	1.485149E-1	1.694048E-1	1.904186E-1	1.838604E-1	1.881406E-1	1.837985E-1	1.925376E-1	1.747359E-1	1.860917E-1	1.782886E-1	1.646069E-1	1.732639E-1	1.755515E-1	1.699500E-1	1.658684E-1	1.645319E-1	1.568943E-1	1.880874E-1	1.837157E-1	2.007498E-1	1.754838E-1	1.816751E-1	1.752027E-1	1.888304E-1	1.648111E-1	1.914517E-1	1.953087E-1	1.845921E-1	1.742734E-1	1.909359E-1	1.616326E-1	1.397096E-1	1.721624E-1	1.731890E-1	1.978218E-1	1.788616E-1	1.797987E-1	1.703601E-1	1.392137E-1	1.642329E-1	1.555716E-1	1.565391E-1	1.970657E-1	1.706677E-1	1.778213E-1	1.876447E-1	1.860482E-1
5.340800E+2	3.094940E-1	3.013504E-1	3.035749E-1	2.862301E-1	3.203460E-1	3.138888E-1	3.239573E-1	2.526365E-1	2.639005E-1	3.059982E-1	2.991037E-1	2.443159E-1	2.717721E-1	2.934379E-1	2.979601E-1	3.039680E-1	2.527881E-1	2.946208E-1	2.872259E-1	3.112257E-1	3.015866E-1	2.984087E-1	3.002170E-1	2.773486E-1	3.133403E-1	3.074373E-1	3.255647E-1	2.922650E-1	2.852628E-1	3.220917E-1	3.581679E-1	3.333241E-1	2.743792E-1	2.672911E-1	2.775796E-1	2.706192E-1	3.064887E-1	2.991400E-1	3.264703E-1	2.662483E-1	2.989219E-1	3.249240E-1	3.154166E-1	2.817127E-1	3.396817E-1	3.131576E-1	3.208142E-1	2.956896E-1	3.292460E-1	3.040647E-1	3.474157E-1	3.030397E-1	3.344927E-1	3.437363E-1	3.455407E-1	2.765407E-1	2.401535E-1	3.428407E-1	3.188137E-1	2.887400E-1	2.733617E-1	2.956883E-1	3.349144E-1	2.853568E-1	3.064378E-1	3.121945E-1	3.239182E-1	3.039802E-1	3.123208E-1	3.594840E-1	3.407995E-1	2.698692E-1	2.499858E-1	3.178716E-1	3.202214E-1	2.973747E-1	2.830565E-1	3.109650E-1	3.198120E-1	3.590531E-1	2.912249E-1	3.046134E-1	2.606411E-1	2.556066E-1	2.828244E-1	3.459876E-1	3.034525E-1	2.478923E-1	2.479155E-1	3.132027E-1	2.965337E-1	2.936010E-1	3.024117E-1	2.996258E-1	2.744684E-1	3.055785E-1	3.225525E-1	3.027274E-1	2.901838E-1	2.747926E-1	3.123621E-1	3.226702E-1	2.668379E-1	3.252014E-1	3.197493E-1	3.313365E-1	2.913696E-1	3.370708E-1	3.008888E-1	3.361808E-1	3.047584E-1	3.040456E-1	2.870429E-1	3.212310E-1	2.413738E-1	2.677311E-1	3.322437E-1	3.469942E-1	2.730914E-1	2.663366E-1	3.164733E-1	2.602729E-1	3.102741E-1	2.602348E-1	2.802451E-1	3.013856E-1	3.200043E-1	3.130970E-1	3.088478E-1	2.736895E-1	3.019989E-1	2.785687E-1	2.995336E-1	3.446004E-1	2.829779E-1	2.962869E-1	3.045862E-1	2.910230E-1	3.283271E-1	2.939113E-1	2.970755E-1	3.175064E-1	3.211648E-1	3.213351E-1	3.235208E-1	3.015934E-1	2.946452E-1	2.754876E-1	3.171276E-1	3.436180E-1	2.923889E-1	2.977094E-1	2.841910E-1	2.770812E-1	2.233985E-1	2.733443E-1	3.012637E-1	3.415163E-1	2.956055E-1	3.135051E-1	2.983674E-1	2.602242E-1	3.199057E-1	2.991038E-1	3.209381E-1	3.258899E-1	2.990246E-1	2.691827E-1	3.196151E-1	3.125582E-1
5.342040E+2	4.617383E-1	4.339864E-1	5.260731E-1	4.970829E-1	4.672635E-1	4.893789E-1	5.006861E-1	3.741943E-1	4.291045E-1	4.518063E-1	4.606985E-1	4.125279E-1	4.428720E-1	4.916596E-1	4.561990E-1	4.472492E-1	3.785727E-1	4.471782E-1	4.463094E-1	4.583456E-1	5.231050E-1	4.927682E-1	5.151068E-1	4.392639E-1	5.035119E-1	4.676559E-1	5.182271E-1	4.773213E-1	4.677693E-1	5.299793E-1	5.607043E-1	5.117023E-1	3.757918E-1	4.334475E-1	4.379742E-1	4.359848E-1	4.476575E-1	4.997026E-1	4.986201E-1	4.081160E-1	4.971898E-1	5.135483E-1	4.791275E-1	4.268216E-1	4.779054E-1	5.121403E-1	5.215326E-1	4.543789E-1	5.117031E-1	4.825239E-1	4.712447E-1	4.186722E-1	4.940945E-1	5.545911E-1	4.904656E-1	4.377307E-1	3.979749E-1	5.125975E-1	4.966681E-1	4.527783E-1	4.707952E-1	4.664839E-1	4.740938E-1	4.297192E-1	4.365252E-1	5.050740E-1	4.815308E-1	4.315475E-1	5.158922E-1	4.808902E-1	5.335980E-1	3.778352E-1	3.979416E-1	4.741528E-1	5.079066E-1	4.710975E-1	4.408326E-1	4.492324E-1	5.003880E-1	5.106244E-1	4.674315E-1	4.925987E-1	4.939795E-1	3.908495E-1	4.624467E-1	4.982432E-1	5.307092E-1	3.987864E-1	3.544340E-1	4.875003E-1	4.897972E-1	4.221418E-1	4.065079E-1	4.908034E-1	4.809353E-1	4.974705E-1	4.857492E-1	4.823879E-1	4.082360E-1	4.174687E-1	4.805450E-1	4.831561E-1	4.662107E-1	4.416375E-1	4.795093E-1	5.115125E-1	4.996848E-1	4.829689E-1	4.400312E-1	4.892712E-1	4.937123E-1	4.978049E-1	4.618149E-1	4.930156E-1	4.126563E-1	4.118085E-1	5.246329E-1	5.109991E-1	4.531758E-1	4.218908E-1	5.129070E-1	3.987685E-1	5.080967E-1	4.546875E-1	4.555734E-1	4.678367E-1	4.949729E-1	5.025803E-1	4.404170E-1	4.525671E-1	4.792207E-1	4.684775E-1	4.845404E-1	5.123910E-1	4.123573E-1	4.131890E-1	4.397881E-1	4.781754E-1	5.005650E-1	4.728260E-1	4.423937E-1	5.069541E-1	4.718270E-1	4.970302E-1	4.429128E-1	4.837286E-1	4.766239E-1	4.032318E-1	4.754794E-1	4.878498E-1	4.595842E-1	4.095873E-1	4.735987E-1	4.410509E-1	3.608134E-1	4.531581E-1	4.644639E-1	5.154316E-1	5.070370E-1	5.074300E-1	4.486881E-1	4.150961E-1	4.494302E-1	4.361657E-1	4.762867E-1	5.038153E-1	5.111795E-1	4.327495E-1	5.016872E-1	4.626545E-1
5.343600E+2	8.576792E-1	8.598804E-1	8.784068E-1	8.626802E-1	8.372571E-1	8.537407E-1	8.688714E-1	7.143818E-1	8.165534E-1	8.071786E-1	8.689988E-1	7.575917E-1	7.667892E-1	8.346953E-1	8.455552E-1	8.457492E-1	7.197009E-1	8.054048E-1	8.109952E-1	8.206560E-1	9.182051E-1	8.435138E-1	9.388197E-1	7.854731E-1	8.759062E-1	8.374763E-1	9.440807E-1	8.235043E-1	8.108047E-1	9.475734E-1	9.304310E-1	8.807607E-1	6.587582E-1	7.328329E-1	7.513140E-1	8.053174E-1	8.584234E-1	9.063706E-1	8.309442E-1	7.128690E-1	9.002166E-1	9.836489E-1	8.336392E-1	7.879684E-1	8.759426E-1	9.024510E-1	8.909393E-1	8.119770E-1	8.772182E-1	8.518671E-1	9.026489E-1	7.531260E-1	8.844000E-1	9.698937E-1	8.563662E-1	7.411720E-1	6.998940E-1	9.140015E-1	8.302151E-1	7.756006E-1	8.063808E-1	8.449341E-1	8.171657E-1	7.693107E-1	8.015883E-1	8.778243E-1	8.895009E-1	7.265099E-1	9.020091E-1	8.739668E-1	8.828265E-1	7.166105E-1	6.938525E-1	8.536130E-1	8.317209E-1	8.433614E-1	7.942698E-1	8.599392E-1	8.574370E-1	9.159020E-1	9.286058E-1	8.441417E-1	8.442595E-1	6.957796E-1	8.205969E-1	8.243652E-1	9.032939E-1	7.046651E-1	6.837207E-1	8.896839E-1	8.227954E-1	7.498051E-1	8.339257E-1	8.491990E-1	8.229769E-1	9.524399E-1	8.559429E-1	8.696067E-1	8.272046E-1	7.494949E-1	8.689029E-1	8.858659E-1	8.836476E-1	8.187221E-1	9.367733E-1	8.839515E-1	9.222846E-1	9.212638E-1	8.240220E-1	8.604777E-1	8.673676E-1	9.174479E-1	8.575859E-1	8.749678E-1	7.329482E-1	7.292375E-1	8.734036E-1	9.357888E-1	8.640091E-1	7.325238E-1	8.737363E-1	7.364850E-1	8.979742E-1	8.212479E-1	8.122773E-1	8.450193E-1	8.402505E-1	8.902531E-1	8.576447E-1	8.697571E-1	8.788894E-1	8.009549E-1	8.796731E-1	8.967831E-1	9.039998E-1	7.255670E-1	8.284231E-1	8.333591E-1	8.917600E-1	8.057421E-1	8.127520E-1	8.687249E-1	8.610367E-1	8.489021E-1	8.646167E-1	8.783556E-1	7.882540E-1	7.732528E-1	8.540151E-1	8.853790E-1	8.495239E-1	7.748097E-1	7.840640E-1	8.381491E-1	7.115835E-1	7.757819E-1	8.351783E-1	9.174329E-1	8.535042E-1	8.677228E-1	8.062864E-1	6.998598E-1	7.996934E-1	8.444093E-1	8.312276E-1	8.976796E-1	9.009054E-1	7.503033E-1	8.059537E-1	8.250316E-1
5.345110E+2	1.246346E+0	1.234668E+0	1.300776E+0	1.192839E+0	1.210492E+0	1.234570E+0	1.277966E+0	1.011719E+0	1.171177E+0	1.256799E+0	1.205991E+0	1.068607E+0	1.127738E+0	1.247571E+0	1.192483E+0	1.184696E+0	1.033660E+0	1.206574E+0	1.171660E+0	1.184615E+0	1.289085E+0	1.187764E+0	1.239161E+0	1.105794E+0	1.251140E+0	1.145295E+0	1.276541E+0	1.133528E+0	1.119442E+0	1.339106E+0	1.346723E+0	1.189185E+0	9.956468E-1	1.030699E+0	1.107856E+0	1.128223E+0	1.195802E+0	1.229892E+0	1.262066E+0	1.032980E+0	1.257218E+0	1.390678E+0	1.217595E+0	1.111755E+0	1.227524E+0	1.262151E+0	1.236324E+0	1.188372E+0	1.313789E+0	1.211610E+0	1.277560E+0	1.108840E+0	1.254320E+0	1.370247E+0	1.244746E+0	1.051659E+0	9.459394E-1	1.335447E+0	1.264338E+0	1.130530E+0	1.159494E+0	1.264916E+0	1.282982E+0	1.146688E+0	1.134423E+0	1.276026E+0	1.216106E+0	1.097666E+0	1.302997E+0	1.267541E+0	1.281377E+0	1.013731E+0	9.543518E-1	1.186413E+0	1.269073E+0	1.206967E+0	1.184556E+0	1.243503E+0	1.261683E+0	1.364642E+0	1.206283E+0	1.206837E+0	1.204376E+0	9.708237E-1	1.206675E+0	1.219247E+0	1.275391E+0	1.001454E+0	9.863779E-1	1.224747E+0	1.229042E+0	1.107882E+0	1.131345E+0	1.181595E+0	1.245743E+0	1.267617E+0	1.243535E+0	1.164763E+0	1.213766E+0	1.078339E+0	1.254077E+0	1.258174E+0	1.272008E+0	1.172306E+0	1.361860E+0	1.289777E+0	1.301906E+0	1.234160E+0	1.186981E+0	1.235268E+0	1.279907E+0	1.239190E+0	1.195732E+0	1.333690E+0	9.784702E-1	1.104069E+0	1.273614E+0	1.314219E+0	1.255781E+0	1.048848E+0	1.227211E+0	9.596769E-1	1.275743E+0	1.141914E+0	1.129179E+0	1.186458E+0	1.191223E+0	1.215961E+0	1.142710E+0	1.224082E+0	1.240694E+0	1.198937E+0	1.244374E+0	1.293378E+0	1.245044E+0	1.016385E+0	1.129375E+0	1.173478E+0	1.303781E+0	1.165270E+0	1.184623E+0	1.201062E+0	1.225708E+0	1.265756E+0	1.175144E+0	1.208407E+0	1.262095E+0	1.098672E+0	1.247128E+0	1.214104E+0	1.218013E+0	1.084556E+0	1.154190E+0	1.159397E+0	9.564504E-1	1.113439E+0	1.180493E+0	1.294345E+0	1.226872E+0	1.238732E+0	1.150966E+0	1.026811E+0	1.239954E+0	1.139121E+0	1.182649E+0	1.171168E+0	1.301273E+0	1.038386E+0	1.218974E+0	1.262453E+0
5.346510E+2	1.738411E+0	1.654477E+0	1.826582E+0	1.675379E+0	1.703637E+0	1.703402E+0	1.773245E+0	1.438485E+0	1.590913E+0	1.641554E+0	1.662022E+0	1.506161E+0	1.470408E+0	1.774965E+0	1.719611E+0	1.685732E+0	1.405479E+0	1.633732E+0	1.617898E+0	1.646836E+0	1.793177E+0	1.712383E+0	1.710401E+0	1.540641E+0	1.689383E+0	1.558464E+0	1.695347E+0	1.639242E+0	1.516943E+0	1.810035E+0	1.852226E+0	1.721684E+0	1.307801E+0	1.449636E+0	1.478800E+0	1.547114E+0	1.637146E+0	1.695518E+0	1.714149E+0	1.439993E+0	1.755250E+0	1.831581E+0	1.649249E+0	1.530296E+0	1.669723E+0	1.780209E+0	1.786698E+0	1.601928E+0	1.772640E+0	1.678654E+0	1.702118E+0	1.542853E+0	1.748541E+0	1.883237E+0	1.697219E+0	1.410593E+0	1.336082E+0	1.778701E+0	1.638226E+0	1.486043E+0	1.562093E+0	1.695799E+0	1.691791E+0	1.506139E+0	1.548709E+0	1.666875E+0	1.637730E+0	1.479213E+0	1.702448E+0	1.751175E+0	1.766110E+0	1.408187E+0	1.357470E+0	1.687300E+0	1.709323E+0	1.612708E+0	1.573284E+0	1.705938E+0	1.713636E+0	1.882919E+0	1.655915E+0	1.617324E+0	1.638812E+0	1.321340E+0	1.665040E+0	1.632797E+0	1.734293E+0	1.361874E+0	1.322834E+0	1.657786E+0	1.712479E+0	1.434396E+0	1.549645E+0	1.657242E+0	1.614690E+0	1.813891E+0	1.682127E+0	1.638463E+0	1.659934E+0	1.491514E+0	1.754911E+0	1.749098E+0	1.711769E+0	1.629506E+0	1.786945E+0	1.727839E+0	1.776437E+0	1.748418E+0	1.599014E+0	1.707853E+0	1.747128E+0	1.699625E+0	1.628863E+0	1.720675E+0	1.424439E+0	1.429533E+0	1.747386E+0	1.763346E+0	1.660091E+0	1.409752E+0	1.675229E+0	1.428964E+0	1.726755E+0	1.558599E+0	1.570522E+0	1.693815E+0	1.690762E+0	1.711689E+0	1.574163E+0	1.614981E+0	1.697686E+0	1.596920E+0	1.606659E+0	1.758616E+0	1.697356E+0	1.487349E+0	1.581937E+0	1.588920E+0	1.774341E+0	1.545746E+0	1.582735E+0	1.564970E+0	1.743321E+0	1.633996E+0	1.646683E+0	1.689686E+0	1.610352E+0	1.471444E+0	1.652308E+0	1.662596E+0	1.710799E+0	1.463186E+0	1.505202E+0	1.559840E+0	1.385746E+0	1.562684E+0	1.595520E+0	1.771616E+0	1.673406E+0	1.664857E+0	1.558477E+0	1.443689E+0	1.729472E+0	1.602659E+0	1.598923E+0	1.626274E+0	1.700974E+0	1.392781E+0	1.638105E+0	1.697736E+0
5.348280E+2	2.092263E+0	2.028046E+0	2.054469E+0	1.987820E+0	1.959123E+0	1.957634E+0	2.116335E+0	1.706523E+0	1.960605E+0	1.985840E+0	1.967959E+0	1.751111E+0	1.832764E+0	2.027107E+0	1.977684E+0	1.949460E+0	1.654533E+0	1.919072E+0	1.890119E+0	1.920762E+0	2.072219E+0	2.038644E+0	2.029957E+0	1.798210E+0	1.871039E+0	1.815252E+0	1.957906E+0	1.875351E+0	1.808858E+0	2.063382E+0	2.166966E+0	1.968599E+0	1.518043E+0	1.592997E+0	1.701266E+0	1.765164E+0	1.892982E+0	1.884491E+0	1.953658E+0	1.572564E+0	1.964728E+0	2.079188E+0	1.987861E+0	1.700850E+0	1.944451E+0	2.131670E+0	2.102189E+0	1.893951E+0	2.067702E+0	1.892692E+0	2.029664E+0	1.721225E+0	1.983222E+0	2.249966E+0	1.940199E+0	1.689373E+0	1.595358E+0	2.069879E+0	1.964389E+0	1.698532E+0	1.819840E+0	2.048808E+0	1.965019E+0	1.825868E+0	1.887988E+0	2.003995E+0	1.924502E+0	1.769560E+0	2.021904E+0	2.047724E+0	2.007231E+0	1.637295E+0	1.601477E+0	1.947019E+0	2.014021E+0	1.893780E+0	1.899215E+0	1.941501E+0	2.009126E+0	2.196928E+0	1.975517E+0	1.870097E+0	1.965049E+0	1.594360E+0	1.893948E+0	1.957443E+0	2.007391E+0	1.640028E+0	1.573768E+0	1.923560E+0	1.951387E+0	1.831496E+0	1.837468E+0	1.891246E+0	1.997095E+0	2.026928E+0	1.907125E+0	1.931388E+0	1.832964E+0	1.757241E+0	1.998960E+0	1.964906E+0	1.957353E+0	1.900834E+0	2.127354E+0	2.022568E+0	2.132185E+0	2.046843E+0	1.875685E+0	1.972560E+0	2.060635E+0	1.939277E+0	1.916988E+0	1.993773E+0	1.621176E+0	1.761887E+0	2.012822E+0	2.155106E+0	2.008222E+0	1.631700E+0	1.943618E+0	1.607408E+0	2.047998E+0	1.797134E+0	1.901536E+0	1.900273E+0	1.966155E+0	1.973893E+0	1.843818E+0	1.924163E+0	1.902253E+0	1.793983E+0	1.893106E+0	2.009794E+0	1.953529E+0	1.678034E+0	1.851207E+0	1.920929E+0	2.025943E+0	1.809586E+0	1.895063E+0	1.926205E+0	1.994998E+0	1.900184E+0	1.917236E+0	1.907695E+0	1.942913E+0	1.709315E+0	1.910701E+0	1.946478E+0	1.922550E+0	1.715605E+0	1.775120E+0	1.693135E+0	1.645591E+0	1.801472E+0	1.794386E+0	2.035625E+0	1.897748E+0	1.977691E+0	1.866749E+0	1.602447E+0	1.977575E+0	1.762074E+0	1.789969E+0	1.883398E+0	1.988285E+0	1.715493E+0	1.949703E+0	1.802800E+0
5.349630E+2	2.229440E+0	2.110792E+0	2.303906E+0	2.286084E+0	2.165995E+0	2.092468E+0	2.223796E+0	2.156028E+0	1.974058E+0	2.179326E+0	2.137031E+0	2.151059E+0	1.909639E+0	2.159082E+0	2.150400E+0	2.173336E+0	1.823589E+0	2.022469E+0	2.092849E+0	2.215550E+0	2.281626E+0	2.100601E+0	2.175069E+0	2.156707E+0	2.045884E+0	1.881093E+0	2.155267E+0	2.050839E+0	1.974163E+0	2.230659E+0	2.283664E+0	2.149614E+0	1.658045E+0	1.794106E+0	1.785684E+0	1.890363E+0	2.019373E+0	2.094629E+0	2.148265E+0	1.783951E+0	2.191318E+0	2.187805E+0	2.077372E+0	1.897400E+0	2.102748E+0	2.212317E+0	2.161977E+0	2.052205E+0	2.123704E+0	2.083010E+0	2.176318E+0	1.915160E+0	2.153265E+0	2.394093E+0	2.122429E+0	1.786263E+0	1.694855E+0	2.150047E+0	2.107010E+0	1.866660E+0	1.982737E+0	2.143810E+0	2.135525E+0	1.874312E+0	1.931351E+0	2.151055E+0	2.106582E+0	1.887315E+0	2.132666E+0	2.184554E+0	2.190569E+0	1.752912E+0	1.696071E+0	2.117354E+0	2.088165E+0	2.017866E+0	1.968762E+0	2.060310E+0	2.139939E+0	2.270266E+0	2.136529E+0	2.003918E+0	2.087454E+0	1.719471E+0	2.063714E+0	2.092508E+0	2.201490E+0	1.686842E+0	1.645461E+0	2.127088E+0	2.122108E+0	1.867074E+0	1.894555E+0	2.001875E+0	2.054018E+0	2.222437E+0	2.096721E+0	1.975468E+0	1.994991E+0	1.821952E+0	2.146452E+0	2.120906E+0	2.122976E+0	2.021546E+0	2.193404E+0	2.202742E+0	2.224706E+0	2.169833E+0	1.961975E+0	2.147159E+0	2.163313E+0	2.033097E+0	2.092392E+0	2.200790E+0	1.785565E+0	1.857174E+0	2.177948E+0	2.312154E+0	2.098014E+0	1.694777E+0	2.092781E+0	1.695304E+0	2.101636E+0	1.960789E+0	1.965516E+0	1.997907E+0	2.082629E+0	2.104996E+0	1.943977E+0	1.981884E+0	2.157307E+0	2.048843E+0	2.043335E+0	2.078435E+0	2.061690E+0	1.784873E+0	2.020917E+0	1.966704E+0	2.134577E+0	1.898479E+0	2.027268E+0	2.065887E+0	2.090300E+0	2.038334E+0	2.032244E+0	2.077140E+0	2.088845E+0	1.799620E+0	2.135910E+0	2.091215E+0	2.040790E+0	1.785413E+0	1.903713E+0	1.903396E+0	1.667289E+0	1.913636E+0	1.968935E+0	2.194143E+0	2.052690E+0	2.109865E+0	1.925469E+0	1.699032E+0	2.076086E+0	1.949724E+0	1.990062E+0	2.023310E+0	2.183810E+0	1.819380E+0	2.067010E+0	2.021514E+0
5.351140E+2	1.986265E+0	1.976332E+0	2.050161E+0	2.040976E+0	1.928332E+0	1.907714E+0	2.033973E+0	1.947892E+0	1.788945E+0	1.988613E+0	1.881702E+0	1.912207E+0	1.754479E+0	1.866372E+0	1.900810E+0	1.967370E+0	1.656043E+0	1.902685E+0	1.804550E+0	1.980595E+0	2.031853E+0	1.902245E+0	1.953100E+0	1.998301E+0	1.819383E+0	1.672040E+0	1.915616E+0	1.866311E+0	1.759169E+0	2.037319E+0	2.076641E+0	1.919832E+0	1.491826E+0	1.511943E+0	1.627772E+0	1.746386E+0	1.823163E+0	1.877939E+0	1.962641E+0	1.822350E+0	1.962369E+0	2.052910E+0	1.873027E+0	1.836217E+0	1.916348E+0	1.962707E+0	1.934565E+0	1.938543E+0	1.991226E+0	1.884788E+0	1.971459E+0	1.790712E+0	1.949412E+0	2.099967E+0	1.890930E+0	1.856287E+0	1.466946E+0	1.950229E+0	1.919499E+0	1.869576E+0	1.765198E+0	1.880612E+0	1.946010E+0	1.777914E+0	1.740911E+0	1.953653E+0	1.871587E+0	1.786877E+0	1.935247E+0	1.943235E+0	2.006237E+0	1.596488E+0	1.488932E+0	1.873937E+0	1.920178E+0	1.863766E+0	1.740919E+0	1.799138E+0	1.990141E+0	2.045356E+0	1.895916E+0	1.838765E+0	1.878706E+0	1.546745E+0	1.812353E+0	1.848898E+0	1.973743E+0	1.560492E+0	1.497464E+0	1.878633E+0	1.869119E+0	1.736238E+0	1.778946E+0	1.831089E+0	1.915855E+0	1.979472E+0	1.873525E+0	1.774603E+0	1.795926E+0	1.686171E+0	1.903461E+0	1.939988E+0	1.960988E+0	1.855437E+0	2.034207E+0	1.972489E+0	2.012805E+0	1.916022E+0	1.808810E+0	1.911633E+0	1.920891E+0	1.848514E+0	1.811870E+0	2.024600E+0	1.592010E+0	1.628715E+0	1.922288E+0	2.027608E+0	1.889839E+0	1.550600E+0	1.865886E+0	1.570125E+0	1.924575E+0	1.780226E+0	1.763488E+0	1.870932E+0	1.835192E+0	1.946749E+0	1.808259E+0	1.835582E+0	1.877536E+0	1.775265E+0	1.876200E+0	1.889288E+0	1.821043E+0	1.606169E+0	1.789544E+0	1.802727E+0	2.014688E+0	1.779012E+0	1.788098E+0	1.857173E+0	1.936787E+0	1.820763E+0	1.838369E+0	1.865196E+0	1.862681E+0	1.646545E+0	1.914219E+0	1.889394E+0	1.893944E+0	1.637479E+0	1.757745E+0	1.700946E+0	1.485446E+0	1.766203E+0	1.727920E+0	1.958645E+0	1.848254E+0	1.931248E+0	1.760470E+0	1.573026E+0	1.866293E+0	1.742072E+0	1.793990E+0	1.876007E+0	1.918451E+0	1.716230E+0	1.823841E+0	1.991496E+0
5.352600E+2	1.814795E+0	1.855868E+0	1.911704E+0	1.936437E+0	1.815985E+0	1.774938E+0	1.951610E+0	1.841634E+0	1.744820E+0	1.855554E+0	1.823617E+0	1.825308E+0	1.651819E+0	1.789859E+0	1.891325E+0	1.853644E+0	1.554913E+0	1.777251E+0	1.796506E+0	1.875202E+0	1.897125E+0	1.787829E+0	1.868156E+0	1.889921E+0	1.734232E+0	1.635829E+0	1.811060E+0	1.828556E+0	1.641638E+0	1.870039E+0	1.975089E+0	1.846897E+0	1.557125E+0	1.526128E+0	1.519023E+0	1.695785E+0	1.751814E+0	1.832585E+0	1.753065E+0	1.725344E+0	1.823110E+0	1.971735E+0	1.769971E+0	1.822138E+0	1.782141E+0	1.963888E+0	1.854494E+0	1.746190E+0	1.896086E+0	1.757719E+0	1.804834E+0	1.686488E+0	1.860910E+0	1.988401E+0	1.763226E+0	1.853644E+0	1.379215E+0	1.844715E+0	1.832561E+0	1.881250E+0	1.739939E+0	1.869190E+0	1.853058E+0	1.700401E+0	1.733290E+0	1.785658E+0	1.755511E+0	1.742431E+0	1.819361E+0	1.835761E+0	1.845326E+0	1.814973E+0	1.469528E+0	1.735085E+0	1.802585E+0	1.899549E+0	1.711340E+0	1.770461E+0	1.816235E+0	2.008411E+0	1.802347E+0	1.755925E+0	1.755206E+0	1.584230E+0	1.713781E+0	1.746248E+0	1.860604E+0	1.663206E+0	1.388896E+0	1.819090E+0	1.787984E+0	1.719021E+0	1.608650E+0	1.732696E+0	1.749231E+0	1.886625E+0	1.797925E+0	1.723833E+0	1.743263E+0	1.562059E+0	1.848285E+0	1.801929E+0	1.819246E+0	1.697872E+0	1.838882E+0	1.817066E+0	1.875524E+0	1.855130E+0	1.771595E+0	1.820496E+0	1.937904E+0	1.791407E+0	1.731447E+0	1.869809E+0	1.592011E+0	1.615515E+0	1.903769E+0	1.884464E+0	1.762425E+0	1.473300E+0	1.840675E+0	1.459858E+0	1.832873E+0	1.634086E+0	1.740311E+0	1.749830E+0	1.807234E+0	1.840740E+0	1.710470E+0	1.785860E+0	1.843879E+0	1.742788E+0	1.752536E+0	1.845560E+0	1.755832E+0	1.523761E+0	1.761261E+0	1.765064E+0	1.831187E+0	1.635768E+0	1.717454E+0	1.792417E+0	1.759303E+0	1.818356E+0	1.760054E+0	1.822149E+0	1.798144E+0	1.546331E+0	1.813675E+0	1.802245E+0	1.814198E+0	1.551024E+0	1.686501E+0	1.639595E+0	1.397626E+0	1.561527E+0	1.687386E+0	1.866271E+0	1.760560E+0	1.832247E+0	1.699404E+0	1.474773E+0	1.726434E+0	1.674425E+0	1.723105E+0	1.806841E+0	1.846623E+0	1.605711E+0	1.815289E+0	1.828534E+0
5.354110E+2	1.482766E+0	1.436056E+0	1.583613E+0	1.564933E+0	1.482182E+0	1.432706E+0	1.569240E+0	1.489204E+0	1.355753E+0	1.436980E+0	1.476847E+0	1.448227E+0	1.349934E+0	1.437061E+0	1.432586E+0	1.485589E+0	1.237432E+0	1.378343E+0	1.388176E+0	1.492027E+0	1.552989E+0	1.458066E+0	1.506132E+0	1.533618E+0	1.361835E+0	1.331852E+0	1.479778E+0	1.478648E+0	1.311026E+0	1.571842E+0	1.637347E+0	1.452360E+0	1.391900E+0	1.189256E+0	1.264277E+0	1.312891E+0	1.403732E+0	1.413822E+0	1.444197E+0	1.372897E+0	1.465516E+0	1.519154E+0	1.419581E+0	1.378692E+0	1.407043E+0	1.495865E+0	1.487757E+0	1.435805E+0	1.528162E+0	1.482687E+0	1.470436E+0	1.399219E+0	1.450715E+0	1.615265E+0	1.412630E+0	1.472250E+0	1.176299E+0	1.495771E+0	1.457533E+0	1.410152E+0	1.348678E+0	1.435191E+0	1.432435E+0	1.387938E+0	1.333657E+0	1.502278E+0	1.414115E+0	1.416875E+0	1.416832E+0	1.446664E+0	1.485134E+0	1.442618E+0	1.168283E+0	1.383732E+0	1.428953E+0	1.553260E+0	1.394229E+0	1.449882E+0	1.467396E+0	1.653660E+0	1.504618E+0	1.427214E+0	1.459026E+0	1.271701E+0	1.434492E+0	1.431426E+0	1.512890E+0	1.413230E+0	1.158445E+0	1.395795E+0	1.426249E+0	1.439562E+0	1.328023E+0	1.364104E+0	1.422715E+0	1.504905E+0	1.417530E+0	1.426443E+0	1.395473E+0	1.315956E+0	1.448259E+0	1.488933E+0	1.490592E+0	1.496512E+0	1.527829E+0	1.452683E+0	1.526341E+0	1.460844E+0	1.373044E+0	1.400134E+0	1.515644E+0	1.384004E+0	1.384436E+0	1.496664E+0	1.192706E+0	1.330805E+0	1.467036E+0	1.563410E+0	1.494053E+0	1.329129E+0	1.480896E+0	1.195119E+0	1.485096E+0	1.381658E+0	1.374036E+0	1.400923E+0	1.456781E+0	1.514524E+0	1.349547E+0	1.389245E+0	1.466824E+0	1.440035E+0	1.404746E+0	1.482522E+0	1.439633E+0	1.283246E+0	1.342076E+0	1.380911E+0	1.462510E+0	1.358338E+0	1.409159E+0	1.372848E+0	1.430014E+0	1.434234E+0	1.432549E+0	1.493200E+0	1.428373E+0	1.283131E+0	1.444694E+0	1.423063E+0	1.466057E+0	1.258382E+0	1.312899E+0	1.321695E+0	1.176522E+0	1.334303E+0	1.328564E+0	1.517296E+0	1.420550E+0	1.488791E+0	1.305397E+0	1.204997E+0	1.436980E+0	1.365595E+0	1.354589E+0	1.425121E+0	1.534710E+0	1.266053E+0	1.364387E+0	1.474735E+0
5.355630E+2	1.380924E+0	1.372171E+0	1.410677E+0	1.421410E+0	1.302315E+0	1.330293E+0	1.411059E+0	1.288066E+0	1.265349E+0	1.283963E+0	1.338831E+0	1.306948E+0	1.185396E+0	1.322032E+0	1.326263E+0	1.341860E+0	1.149382E+0	1.203183E+0	1.287096E+0	1.406939E+0	1.408677E+0	1.360140E+0	1.333711E+0	1.386622E+0	1.290877E+0	1.170535E+0	1.284178E+0	1.313267E+0	1.162916E+0	1.393654E+0	1.440419E+0	1.310885E+0	1.252889E+0	1.049442E+0	1.110836E+0	1.212732E+0	1.291612E+0	1.278269E+0	1.321444E+0	1.241135E+0	1.325077E+0	1.389511E+0	1.275305E+0	1.309925E+0	1.288893E+0	1.361054E+0	1.332946E+0	1.263566E+0	1.333660E+0	1.300275E+0	1.324353E+0	1.246253E+0	1.356248E+0	1.393736E+0	1.317450E+0	1.344531E+0	1.011616E+0	1.397337E+0	1.308090E+0	1.273552E+0	1.195063E+0	1.324095E+0	1.336910E+0	1.295413E+0	1.218804E+0	1.343901E+0	1.298609E+0	1.211380E+0	1.357864E+0	1.331228E+0	1.357601E+0	1.254738E+0	1.051372E+0	1.351127E+0	1.325264E+0	1.376650E+0	1.222962E+0	1.274745E+0	1.332990E+0	1.504263E+0	1.374590E+0	1.315699E+0	1.340990E+0	1.153174E+0	1.276770E+0	1.338597E+0	1.380729E+0	1.310970E+0	9.679421E-1	1.308646E+0	1.306233E+0	1.293234E+0	1.174996E+0	1.296809E+0	1.284035E+0	1.395029E+0	1.295734E+0	1.265194E+0	1.237493E+0	1.172219E+0	1.334720E+0	1.339912E+0	1.292257E+0	1.367257E+0	1.412103E+0	1.340434E+0	1.448742E+0	1.327005E+0	1.216641E+0	1.316678E+0	1.358890E+0	1.336581E+0	1.283752E+0	1.399760E+0	1.119526E+0	1.222889E+0	1.417651E+0	1.392453E+0	1.327513E+0	1.307787E+0	1.270804E+0	1.060885E+0	1.358790E+0	1.345427E+0	1.205761E+0	1.255279E+0	1.335130E+0	1.330163E+0	1.287911E+0	1.335524E+0	1.324837E+0	1.304623E+0	1.281566E+0	1.334564E+0	1.312841E+0	1.323016E+0	1.270234E+0	1.236055E+0	1.370763E+0	1.339090E+0	1.244669E+0	1.304346E+0	1.362100E+0	1.328815E+0	1.313157E+0	1.343076E+0	1.291165E+0	1.255600E+0	1.360740E+0	1.397581E+0	1.324163E+0	1.305078E+0	1.238178E+0	1.160512E+0	1.063386E+0	1.347600E+0	1.241560E+0	1.406107E+0	1.307032E+0	1.399996E+0	1.220842E+0	1.126173E+0	1.362790E+0	1.239711E+0	1.231916E+0	1.249837E+0	1.377090E+0	1.222583E+0	1.250744E+0	1.406119E+0
5.357190E+2	1.098777E+0	1.050316E+0	1.127304E+0	1.157992E+0	1.043049E+0	1.013792E+0	1.119237E+0	1.072497E+0	9.704571E-1	1.017298E+0	1.054747E+0	1.053360E+0	9.402321E-1	1.055513E+0	1.030749E+0	1.098281E+0	8.761777E-1	1.012204E+0	9.626127E-1	1.068784E+0	1.072612E+0	1.034375E+0	1.058147E+0	1.103601E+0	9.968209E-1	9.175861E-1	1.070369E+0	1.039405E+0	9.398010E-1	1.063336E+0	1.092011E+0	1.018277E+0	1.032254E+0	8.306015E-1	9.017771E-1	9.680744E-1	1.067883E+0	1.041927E+0	1.103390E+0	1.004283E+0	1.055999E+0	1.123219E+0	1.061538E+0	1.017543E+0	1.042844E+0	1.097901E+0	1.106605E+0	1.010886E+0	1.065697E+0	1.073812E+0	1.107509E+0	9.880220E-1	1.062399E+0	1.178613E+0	1.065382E+0	1.045934E+0	8.366402E-1	1.046035E+0	1.060346E+0	1.038295E+0	9.605133E-1	1.057780E+0	1.059575E+0	9.960273E-1	9.762086E-1	1.030544E+0	1.041992E+0	9.527826E-1	1.073788E+0	1.111803E+0	1.115480E+0	9.865255E-1	8.364729E-1	1.015516E+0	1.043736E+0	1.114623E+0	9.463357E-1	1.049930E+0	1.088287E+0	1.225022E+0	1.002734E+0	9.976104E-1	1.056286E+0	8.892729E-1	1.017195E+0	1.028192E+0	1.078858E+0	1.004636E+0	9.264613E-1	1.093752E+0	1.060571E+0	1.056236E+0	9.615275E-1	1.025593E+0	1.047037E+0	1.134016E+0	1.001140E+0	9.767333E-1	1.035531E+0	9.383154E-1	1.069979E+0	1.047348E+0	1.081981E+0	1.099666E+0	1.079598E+0	1.104421E+0	1.089414E+0	1.091276E+0	1.027883E+0	1.047361E+0	1.087307E+0	1.065317E+0	1.029192E+0	1.102756E+0	9.026393E-1	1.029447E+0	1.086370E+0	1.116600E+0	1.083220E+0	1.094850E+0	1.046535E+0	8.456840E-1	1.120020E+0	1.063409E+0	9.709800E-1	1.023741E+0	1.060773E+0	1.097149E+0	1.008179E+0	9.960566E-1	1.063474E+0	1.082789E+0	1.008646E+0	1.106267E+0	1.062879E+0	1.087294E+0	1.048480E+0	1.063388E+0	1.093830E+0	1.084871E+0	1.049398E+0	1.022316E+0	1.087030E+0	1.076584E+0	1.026179E+0	1.067666E+0	1.031860E+0	9.857940E-1	1.048058E+0	1.017379E+0	1.064018E+0	1.080858E+0	9.786847E-1	9.597327E-1	8.371167E-1	1.127894E+0	9.875709E-1	1.126702E+0	1.056866E+0	1.098902E+0	1.014738E+0	9.080210E-1	1.095836E+0	1.093237E+0	1.025791E+0	1.014361E+0	1.096433E+0	1.073752E+0	1.017352E+0	1.071618E+0
5.358600E+2	9.761497E-1	9.487097E-1	9.538304E-1	9.884826E-1	8.874894E-1	9.551238E-1	9.795994E-1	9.478785E-1	9.091105E-1	9.468883E-1	9.184550E-1	9.359673E-1	8.633549E-1	9.296981E-1	8.889836E-1	9.393294E-1	7.790712E-1	9.314057E-1	8.557911E-1	9.732658E-1	1.012565E+0	8.854833E-1	9.833144E-1	9.732775E-1	8.469547E-1	8.671060E-1	9.070760E-1	9.686788E-1	8.853359E-1	9.742411E-1	1.040395E+0	9.185438E-1	8.927499E-1	7.728519E-1	7.945165E-1	8.616564E-1	9.496486E-1	8.882294E-1	9.062911E-1	8.729247E-1	9.722072E-1	9.789768E-1	9.343389E-1	9.428224E-1	9.000315E-1	9.825154E-1	9.886295E-1	9.094638E-1	9.476715E-1	9.298027E-1	9.665605E-1	9.112793E-1	9.331261E-1	1.046762E+0	9.352859E-1	9.481637E-1	7.538085E-1	9.717657E-1	8.972652E-1	9.454761E-1	8.594767E-1	9.607017E-1	9.650763E-1	8.705578E-1	8.859687E-1	9.615375E-1	9.509525E-1	8.910195E-1	9.502098E-1	9.406409E-1	9.859513E-1	8.959871E-1	7.569158E-1	9.362509E-1	9.244042E-1	9.997693E-1	8.944356E-1	9.085896E-1	9.420820E-1	1.069103E+0	9.298204E-1	8.701625E-1	9.360646E-1	8.178531E-1	9.027407E-1	9.132629E-1	9.905878E-1	9.132806E-1	9.151947E-1	9.107945E-1	9.439370E-1	9.822109E-1	8.675051E-1	9.226116E-1	9.435448E-1	9.895803E-1	9.195412E-1	9.002943E-1	8.879663E-1	8.327672E-1	9.453007E-1	9.700953E-1	1.000468E+0	9.757511E-1	9.904036E-1	9.714486E-1	9.951049E-1	9.911979E-1	9.437499E-1	9.495672E-1	9.506048E-1	9.531405E-1	9.430719E-1	1.003335E+0	8.109003E-1	8.991462E-1	9.546804E-1	1.037206E+0	9.583147E-1	9.132122E-1	8.952705E-1	7.689788E-1	9.475744E-1	9.384031E-1	8.787815E-1	9.234431E-1	9.691474E-1	9.834582E-1	9.097981E-1	8.960458E-1	9.104425E-1	9.837062E-1	9.168676E-1	9.664424E-1	9.547178E-1	9.991373E-1	9.149755E-1	8.779745E-1	9.868848E-1	9.518172E-1	9.020622E-1	9.350848E-1	9.072629E-1	9.735735E-1	9.024053E-1	9.357559E-1	9.452321E-1	8.888834E-1	9.384689E-1	9.725298E-1	9.490714E-1	9.638936E-1	8.767406E-1	8.442840E-1	7.802909E-1	9.451888E-1	8.892179E-1	9.294073E-1	9.465768E-1	9.845883E-1	8.984750E-1	8.192055E-1	9.663113E-1	9.285280E-1	9.086509E-1	9.013758E-1	9.847033E-1	9.904958E-1	9.354806E-1	1.000857E+0
5.360070E+2	8.109145E-1	7.102092E-1	7.690434E-1	7.510521E-1	7.130258E-1	7.451528E-1	7.379612E-1	7.519865E-1	7.207677E-1	7.240180E-1	7.344324E-1	7.423461E-1	6.533474E-1	7.212059E-1	7.247552E-1	7.360495E-1	6.190734E-1	6.969198E-1	7.363352E-1	7.547817E-1	7.819635E-1	7.445852E-1	7.669076E-1	7.332566E-1	6.857354E-1	7.024975E-1	7.091273E-1	7.261909E-1	6.603085E-1	7.681715E-1	8.064404E-1	7.362120E-1	7.181220E-1	5.950447E-1	6.549779E-1	6.947263E-1	7.131778E-1	7.254617E-1	7.516056E-1	6.878098E-1	7.414840E-1	7.652419E-1	7.123281E-1	7.359893E-1	6.998654E-1	7.923634E-1	7.526792E-1	6.908834E-1	7.501610E-1	6.847032E-1	7.588474E-1	6.877914E-1	7.422000E-1	8.337725E-1	7.525746E-1	7.565860E-1	5.798129E-1	7.766638E-1	7.461180E-1	7.744334E-1	6.759609E-1	7.400683E-1	7.216395E-1	6.922848E-1	6.861509E-1	7.273669E-1	6.994565E-1	6.809096E-1	7.727910E-1	7.968446E-1	7.841859E-1	7.085344E-1	6.181773E-1	7.141966E-1	7.361407E-1	7.614058E-1	6.909890E-1	7.232081E-1	7.527843E-1	8.393012E-1	7.475381E-1	7.496184E-1	7.278629E-1	6.218266E-1	7.274995E-1	7.182778E-1	7.794244E-1	7.137556E-1	7.513190E-1	7.083495E-1	7.320800E-1	7.343113E-1	6.828183E-1	7.385705E-1	7.427702E-1	8.043945E-1	7.125454E-1	7.172855E-1	7.068379E-1	6.450077E-1	7.675687E-1	7.901724E-1	7.907110E-1	7.759930E-1	7.403191E-1	7.665211E-1	7.867902E-1	8.049074E-1	7.021377E-1	7.611480E-1	7.701565E-1	7.369452E-1	7.499363E-1	7.705129E-1	6.221186E-1	7.160356E-1	7.643485E-1	7.752612E-1	7.666934E-1	7.562356E-1	7.224717E-1	6.070449E-1	8.016587E-1	7.288534E-1	6.989182E-1	7.489893E-1	7.356837E-1	7.366181E-1	6.952581E-1	7.223117E-1	7.495228E-1	7.893947E-1	7.400718E-1	7.666185E-1	7.239033E-1	7.375450E-1	7.011414E-1	7.221104E-1	7.454142E-1	7.355357E-1	7.153685E-1	7.290467E-1	7.411923E-1	7.497426E-1	7.402962E-1	7.188493E-1	7.667423E-1	6.851520E-1	7.368854E-1	7.773326E-1	7.373271E-1	7.761971E-1	7.394632E-1	6.747363E-1	6.123966E-1	7.595929E-1	7.303409E-1	7.771599E-1	7.695776E-1	7.243202E-1	7.293644E-1	6.354686E-1	7.455726E-1	7.044060E-1	7.080538E-1	7.387614E-1	7.911704E-1	7.171480E-1	7.607416E-1	7.885779E-1
5.362840E+2	6.217779E-1	6.000855E-1	6.774582E-1	6.642297E-1	6.012171E-1	5.804696E-1	6.283240E-1	6.216831E-1	6.158337E-1	6.103653E-1	6.274691E-1	5.710843E-1	5.788141E-1	6.092567E-1	5.969662E-1	6.259024E-1	5.546716E-1	5.421019E-1	5.812716E-1	6.032702E-1	6.744843E-1	6.196756E-1	6.334228E-1	6.349663E-1	6.249940E-1	5.719083E-1	6.509759E-1	6.214314E-1	5.561558E-1	6.396812E-1	6.549589E-1	5.982545E-1	6.117625E-1	5.003150E-1	5.258681E-1	5.710939E-1	5.847495E-1	6.241728E-1	6.283562E-1	5.608967E-1	5.910125E-1	6.431906E-1	5.786502E-1	5.843833E-1	5.782750E-1	6.752114E-1	6.485830E-1	6.091343E-1	6.333407E-1	6.056390E-1	6.515669E-1	6.053440E-1	6.407701E-1	6.853740E-1	6.071706E-1	6.425204E-1	4.822772E-1	6.687974E-1	6.336096E-1	6.144812E-1	5.867812E-1	6.030170E-1	5.968396E-1	5.929751E-1	5.525485E-1	6.232905E-1	6.141065E-1	5.839349E-1	6.215222E-1	6.381210E-1	6.621298E-1	5.861158E-1	5.342550E-1	6.203152E-1	6.579382E-1	6.453977E-1	5.747338E-1	6.274448E-1	6.301777E-1	6.937056E-1	5.816614E-1	5.791567E-1	6.213038E-1	5.301447E-1	5.758065E-1	6.259419E-1	6.428752E-1	5.692243E-1	6.140741E-1	6.157876E-1	6.092477E-1	6.080660E-1	5.907150E-1	6.202949E-1	6.015036E-1	6.357154E-1	6.507466E-1	5.666389E-1	5.754764E-1	5.330944E-1	6.222002E-1	6.366641E-1	6.619492E-1	6.467372E-1	6.590279E-1	6.496656E-1	6.506986E-1	6.264545E-1	5.656914E-1	6.075452E-1	6.601868E-1	6.364966E-1	5.973272E-1	6.452932E-1	5.224246E-1	6.098431E-1	6.403757E-1	6.657319E-1	6.437942E-1	6.172809E-1	6.442133E-1	5.100983E-1	6.240216E-1	5.996205E-1	5.759865E-1	6.150821E-1	6.280110E-1	6.362427E-1	5.802835E-1	6.291586E-1	6.091130E-1	6.413212E-1	6.183444E-1	6.252681E-1	6.530034E-1	6.374113E-1	5.908298E-1	6.004326E-1	6.367796E-1	6.421144E-1	5.639965E-1	5.824122E-1	6.635788E-1	6.438440E-1	6.104982E-1	6.349563E-1	6.190668E-1	6.003560E-1	5.483714E-1	6.152631E-1	6.702286E-1	6.430525E-1	5.685915E-1	5.447874E-1	4.909962E-1	6.335496E-1	5.779477E-1	6.289039E-1	6.227056E-1	6.232747E-1	5.725846E-1	5.266698E-1	6.580069E-1	6.002865E-1	6.004660E-1	6.204962E-1	6.195846E-1	6.707309E-1	5.835573E-1	6.063177E-1
5.365090E+2	4.700529E-1	4.826598E-1	5.099111E-1	5.153922E-1	4.877884E-1	4.657061E-1	4.799590E-1	5.044979E-1	4.856076E-1	4.728739E-1	4.785262E-1	4.648719E-1	4.761544E-1	4.798483E-1	4.941365E-1	4.754576E-1	4.248617E-1	4.432225E-1	4.612414E-1	4.759120E-1	4.887923E-1	4.657877E-1	4.792077E-1	5.173691E-1	5.171360E-1	4.330881E-1	4.735854E-1	4.805122E-1	5.313120E-1	5.069484E-1	5.506057E-1	4.765537E-1	4.999608E-1	3.655666E-1	4.176146E-1	4.432884E-1	4.675338E-1	4.860964E-1	5.175817E-1	4.671264E-1	4.653255E-1	5.158844E-1	4.761840E-1	4.327778E-1	4.985527E-1	4.838824E-1	4.820299E-1	4.670569E-1	4.797880E-1	4.604998E-1	4.746683E-1	4.705260E-1	4.707264E-1	5.252312E-1	4.713336E-1	5.095167E-1	3.695475E-1	5.243863E-1	4.767800E-1	4.878043E-1	4.718262E-1	4.618119E-1	4.951507E-1	4.437686E-1	4.921930E-1	4.722675E-1	4.729960E-1	4.373196E-1	4.820483E-1	5.117387E-1	5.355903E-1	4.607222E-1	3.955160E-1	4.645960E-1	4.708329E-1	4.918750E-1	4.719723E-1	4.651083E-1	4.506272E-1	5.725573E-1	4.728999E-1	4.543643E-1	4.764925E-1	4.283326E-1	4.591613E-1	4.928411E-1	4.931588E-1	4.655979E-1	4.583927E-1	4.907487E-1	4.706395E-1	4.955936E-1	4.424857E-1	4.653135E-1	4.514399E-1	5.160406E-1	5.037496E-1	4.723451E-1	4.666830E-1	4.158775E-1	4.927469E-1	4.956160E-1	4.651723E-1	4.731505E-1	5.139449E-1	5.028775E-1	5.253516E-1	4.877915E-1	4.637610E-1	4.846635E-1	5.064711E-1	4.927064E-1	4.865111E-1	5.332875E-1	4.142469E-1	4.456751E-1	4.927397E-1	5.249080E-1	4.792607E-1	5.025127E-1	5.024029E-1	3.662751E-1	4.665715E-1	5.102451E-1	4.752226E-1	4.432955E-1	4.789255E-1	5.102620E-1	4.759762E-1	4.571388E-1	4.697544E-1	5.070097E-1	4.801927E-1	4.874767E-1	4.967132E-1	4.817016E-1	4.663763E-1	4.915019E-1	5.090083E-1	5.050981E-1	5.089977E-1	4.828718E-1	4.678318E-1	4.941420E-1	4.478419E-1	5.124293E-1	5.167401E-1	4.467315E-1	4.734685E-1	5.021195E-1	5.002834E-1	5.103703E-1	4.365279E-1	4.466280E-1	3.726951E-1	5.184923E-1	4.531160E-1	5.160020E-1	4.752960E-1	5.145747E-1	4.481005E-1	3.945575E-1	5.169288E-1	4.679309E-1	4.652267E-1	4.663292E-1	5.284706E-1	5.219000E-1	4.699163E-1	4.883860E-1
5.367660E+2	4.809643E-1	4.960453E-1	5.336158E-1	5.047612E-1	4.877881E-1	4.888650E-1	5.285049E-1	5.001253E-1	4.813023E-1	4.922775E-1	5.032543E-1	4.704617E-1	4.930298E-1	4.993627E-1	4.706751E-1	4.978453E-1	4.525345E-1	4.573486E-1	4.893823E-1	5.225734E-1	5.488395E-1	5.037596E-1	5.044893E-1	5.327273E-1	5.182713E-1	4.555845E-1	5.070662E-1	5.055055E-1	5.284456E-1	5.130090E-1	5.203091E-1	4.849013E-1	5.370631E-1	3.893757E-1	4.061932E-1	4.704140E-1	4.797648E-1	4.795454E-1	4.701782E-1	4.566177E-1	4.965997E-1	5.380753E-1	4.673505E-1	4.798839E-1	5.341121E-1	5.068419E-1	5.092544E-1	4.718655E-1	5.008636E-1	5.005961E-1	5.032004E-1	4.917857E-1	5.109997E-1	5.647330E-1	4.871177E-1	4.936624E-1	4.053270E-1	4.890201E-1	4.813262E-1	4.837178E-1	5.342011E-1	5.189166E-1	4.756350E-1	4.796165E-1	5.132875E-1	4.909333E-1	4.826684E-1	4.754169E-1	5.133275E-1	4.823830E-1	5.281180E-1	4.921770E-1	4.168601E-1	4.966397E-1	5.021137E-1	5.149612E-1	4.813141E-1	4.845677E-1	5.173173E-1	5.312686E-1	5.093563E-1	4.803849E-1	5.065477E-1	4.232673E-1	4.744952E-1	4.923498E-1	5.253450E-1	5.010491E-1	5.265029E-1	4.929133E-1	5.337461E-1	4.921502E-1	5.413048E-1	4.790785E-1	4.664464E-1	5.041763E-1	5.325487E-1	4.606284E-1	4.846225E-1	4.445189E-1	5.251101E-1	5.150537E-1	4.682875E-1	5.100040E-1	5.399129E-1	5.189958E-1	5.557927E-1	5.444627E-1	4.907269E-1	5.066799E-1	4.949276E-1	4.932162E-1	4.884115E-1	5.062294E-1	3.972777E-1	4.605999E-1	5.092008E-1	5.173734E-1	5.329345E-1	4.949248E-1	5.123822E-1	4.072915E-1	5.294366E-1	5.108492E-1	4.903371E-1	4.939781E-1	5.322441E-1	4.836318E-1	4.730127E-1	4.697113E-1	5.155064E-1	4.833394E-1	4.739137E-1	5.134075E-1	5.241416E-1	5.075735E-1	4.624165E-1	4.671663E-1	5.258944E-1	4.932081E-1	4.746867E-1	4.785906E-1	4.809578E-1	5.056950E-1	5.058945E-1	4.964233E-1	4.946471E-1	4.962876E-1	5.066466E-1	5.016105E-1	5.338325E-1	5.468929E-1	4.863412E-1	4.566668E-1	4.119561E-1	4.918959E-1	4.763525E-1	4.943339E-1	5.221010E-1	5.431535E-1	4.392927E-1	4.772666E-1	5.321312E-1	5.085195E-1	4.828228E-1	5.201822E-1	5.377816E-1	5.565291E-1	4.760256E-1	4.969621E-1
5.370170E+2	5.318856E-1	4.631908E-1	5.659394E-1	5.266147E-1	5.023723E-1	4.986425E-1	5.508687E-1	5.311703E-1	5.119756E-1	5.177803E-1	5.061296E-1	5.400847E-1	5.234997E-1	5.168224E-1	4.721724E-1	4.991883E-1	4.414653E-1	4.918149E-1	5.071863E-1	5.028106E-1	5.291603E-1	4.947662E-1	5.024663E-1	5.445752E-1	5.398430E-1	4.533900E-1	5.105910E-1	5.065692E-1	5.298788E-1	4.905838E-1	5.236749E-1	5.415779E-1	5.746601E-1	4.157173E-1	4.543612E-1	4.829341E-1	5.154390E-1	4.886163E-1	4.826526E-1	4.881439E-1	5.231535E-1	5.614341E-1	4.903168E-1	5.069561E-1	5.134647E-1	5.115512E-1	5.017809E-1	4.862922E-1	5.496395E-1	5.265743E-1	5.014884E-1	5.047489E-1	5.388433E-1	5.679357E-1	4.995538E-1	4.945431E-1	3.984654E-1	5.173130E-1	4.835991E-1	4.959769E-1	5.244063E-1	5.033427E-1	5.018273E-1	4.839763E-1	4.904347E-1	5.243059E-1	4.997385E-1	4.725306E-1	5.097385E-1	5.092512E-1	5.460523E-1	4.764498E-1	3.950309E-1	4.876451E-1	5.067478E-1	5.801793E-1	5.285426E-1	4.917375E-1	5.291163E-1	5.714704E-1	5.312301E-1	4.920680E-1	4.923399E-1	4.293460E-1	4.936621E-1	5.061021E-1	5.619208E-1	5.024123E-1	5.234303E-1	5.324282E-1	5.044463E-1	5.030531E-1	5.365080E-1	4.999801E-1	5.244021E-1	5.196513E-1	5.577481E-1	4.952211E-1	5.048767E-1	4.561875E-1	5.213967E-1	5.160507E-1	5.087849E-1	5.094701E-1	5.907205E-1	5.253278E-1	5.659404E-1	5.239643E-1	5.780955E-1	5.041192E-1	5.544692E-1	5.120824E-1	5.599665E-1	5.037125E-1	4.142469E-1	4.732279E-1	5.323495E-1	5.359187E-1	5.299249E-1	5.124719E-1	5.459966E-1	4.136833E-1	5.328973E-1	5.060182E-1	5.759861E-1	5.254544E-1	5.187856E-1	5.445741E-1	5.435389E-1	4.805701E-1	4.907897E-1	5.213209E-1	4.845404E-1	5.062893E-1	4.961949E-1	5.185927E-1	4.822160E-1	4.689044E-1	5.410918E-1	4.881124E-1	5.720690E-1	5.288957E-1	5.323198E-1	5.143592E-1	5.425876E-1	5.372655E-1	5.306937E-1	4.874779E-1	4.955876E-1	5.138422E-1	4.821335E-1	5.029737E-1	4.909753E-1	4.605713E-1	4.098901E-1	5.075065E-1	5.228275E-1	5.342485E-1	4.978916E-1	5.344777E-1	5.367664E-1	4.911439E-1	5.467253E-1	4.996957E-1	4.823198E-1	5.011754E-1	5.158351E-1	5.027438E-1	5.175722E-1	5.334148E-1
5.372640E+2	5.453953E-1	5.331588E-1	5.955704E-1	5.762270E-1	5.083139E-1	5.382696E-1	5.415956E-1	5.495352E-1	5.152040E-1	5.427283E-1	5.728378E-1	5.390682E-1	5.727199E-1	5.199035E-1	5.315746E-1	5.224715E-1	4.897666E-1	5.437969E-1	5.014429E-1	5.719792E-1	5.876936E-1	5.397335E-1	5.590961E-1	5.660757E-1	5.960429E-1	4.720454E-1	5.147027E-1	5.640000E-1	6.048878E-1	5.766480E-1	5.612653E-1	5.411387E-1	6.236349E-1	4.395265E-1	4.488988E-1	5.387511E-1	5.567194E-1	5.374969E-1	5.475206E-1	5.111823E-1	5.668193E-1	5.631866E-1	5.603945E-1	5.481062E-1	5.639365E-1	5.892606E-1	5.669075E-1	5.186421E-1	5.532521E-1	5.830487E-1	5.374389E-1	5.156382E-1	5.915469E-1	5.882209E-1	5.526449E-1	5.456303E-1	4.509087E-1	5.880450E-1	5.438300E-1	5.374245E-1	5.924517E-1	5.687539E-1	5.911905E-1	5.130428E-1	5.841910E-1	6.006656E-1	5.196531E-1	5.239038E-1	5.999865E-1	5.415930E-1	5.644853E-1	5.380835E-1	4.464516E-1	5.961419E-1	5.629373E-1	6.136544E-1	5.477456E-1	5.296328E-1	5.583573E-1	6.377492E-1	5.597872E-1	5.504816E-1	5.234879E-1	4.617631E-1	5.325438E-1	5.591456E-1	5.580194E-1	5.660427E-1	5.715685E-1	5.297218E-1	5.388166E-1	5.472394E-1	6.127814E-1	5.428040E-1	5.404430E-1	6.078597E-1	5.913479E-1	5.476685E-1	5.245518E-1	4.683861E-1	5.871839E-1	5.778531E-1	5.866648E-1	5.735640E-1	6.070916E-1	5.552612E-1	6.047380E-1	5.794298E-1	5.894212E-1	5.548084E-1	5.745186E-1	5.314584E-1	5.599658E-1	5.911776E-1	4.566700E-1	5.392390E-1	5.940788E-1	5.666331E-1	5.530000E-1	5.689077E-1	5.733081E-1	4.733434E-1	5.848039E-1	5.959980E-1	6.162917E-1	5.467938E-1	5.570914E-1	5.814467E-1	5.785046E-1	5.251460E-1	5.701981E-1	5.416881E-1	5.458874E-1	5.428980E-1	5.800333E-1	5.463810E-1	5.698991E-1	5.320615E-1	5.748643E-1	5.753045E-1	5.806472E-1	5.133758E-1	5.237600E-1	5.668270E-1	5.820201E-1	5.764526E-1	5.789500E-1	5.122564E-1	5.574200E-1	5.699039E-1	5.547324E-1	5.940476E-1	5.599035E-1	4.923618E-1	4.305541E-1	5.797793E-1	5.941604E-1	6.021038E-1	5.656783E-1	5.783657E-1	5.432252E-1	6.010532E-1	5.576710E-1	5.814619E-1	5.004190E-1	5.698112E-1	5.863311E-1	5.624232E-1	5.750045E-1	5.269811E-1
5.375110E+2	6.737388E-1	6.566678E-1	7.205566E-1	7.386492E-1	6.557711E-1	6.170083E-1	7.221431E-1	6.920816E-1	6.664165E-1	6.608160E-1	6.832507E-1	6.366414E-1	6.744418E-1	6.400691E-1	6.808280E-1	6.729166E-1	5.964321E-1	6.325062E-1	6.473175E-1	7.141589E-1	7.224210E-1	6.541505E-1	7.042104E-1	7.143884E-1	7.061718E-1	6.092194E-1	6.738840E-1	6.910942E-1	7.329293E-1	7.269577E-1	7.301389E-1	6.812929E-1	7.359312E-1	5.418544E-1	5.924096E-1	6.368225E-1	6.876956E-1	6.574313E-1	7.047008E-1	6.506252E-1	6.830660E-1	7.045083E-1	6.581495E-1	6.693909E-1	7.348518E-1	7.199534E-1	7.024993E-1	6.484790E-1	7.110198E-1	6.440411E-1	7.246092E-1	6.577161E-1	6.770660E-1	7.622419E-1	6.770029E-1	7.002139E-1	5.891251E-1	7.253827E-1	6.591800E-1	6.471717E-1	7.409135E-1	6.731002E-1	6.856889E-1	7.000360E-1	6.937688E-1	6.758946E-1	6.619023E-1	6.312677E-1	6.640831E-1	6.833991E-1	6.755810E-1	6.634777E-1	5.677269E-1	6.675373E-1	7.054389E-1	7.186961E-1	6.650389E-1	6.622677E-1	7.045628E-1	7.980132E-1	6.734105E-1	6.742113E-1	6.956222E-1	5.671211E-1	6.568556E-1	6.588490E-1	6.853025E-1	6.469441E-1	7.016447E-1	7.164688E-1	6.988367E-1	6.895514E-1	7.346267E-1	6.549617E-1	6.584245E-1	7.213442E-1	7.131455E-1	6.559111E-1	6.385528E-1	5.930286E-1	7.176978E-1	7.004599E-1	6.448157E-1	6.857278E-1	7.386256E-1	7.037761E-1	7.109848E-1	7.494421E-1	7.549899E-1	6.602822E-1	6.966408E-1	6.716794E-1	7.391709E-1	7.126230E-1	5.956042E-1	6.672443E-1	7.093068E-1	7.178883E-1	6.769016E-1	6.974292E-1	7.361276E-1	5.399278E-1	6.620873E-1	7.022823E-1	7.362008E-1	6.881713E-1	6.502703E-1	6.971852E-1	6.851829E-1	6.874504E-1	6.753740E-1	7.018717E-1	6.709962E-1	7.233996E-1	6.685288E-1	6.800525E-1	7.492255E-1	6.618512E-1	7.077014E-1	7.094905E-1	7.562395E-1	6.851636E-1	7.212180E-1	7.073833E-1	7.282473E-1	6.310931E-1	6.638342E-1	6.636779E-1	6.619820E-1	6.983363E-1	7.246771E-1	6.911327E-1	6.716936E-1	6.563321E-1	5.478216E-1	6.884772E-1	7.454721E-1	7.777304E-1	6.732769E-1	7.105413E-1	6.964818E-1	6.865379E-1	7.084789E-1	6.608757E-1	6.678344E-1	6.843807E-1	7.007220E-1	6.604157E-1	7.033097E-1	6.727904E-1
5.377740E+2	8.202681E-1	8.075568E-1	8.568574E-1	8.815799E-1	8.048482E-1	7.858090E-1	8.923263E-1	8.145146E-1	8.052533E-1	7.794581E-1	7.833135E-1	7.946899E-1	8.624169E-1	8.085055E-1	7.756711E-1	7.960484E-1	6.995754E-1	7.935391E-1	7.914684E-1	8.574362E-1	8.843965E-1	8.105376E-1	8.240433E-1	8.890287E-1	9.003165E-1	7.376140E-1	7.984102E-1	8.176555E-1	8.361261E-1	8.681765E-1	8.827416E-1	7.880558E-1	8.353652E-1	6.644451E-1	6.842764E-1	7.724534E-1	8.263165E-1	8.116325E-1	7.995081E-1	8.034057E-1	8.595009E-1	8.510855E-1	8.065499E-1	7.793047E-1	8.656194E-1	8.853792E-1	8.236777E-1	7.905561E-1	8.928747E-1	7.496482E-1	8.398785E-1	7.857936E-1	8.277188E-1	9.383987E-1	8.204932E-1	8.380617E-1	6.837204E-1	8.491636E-1	7.949852E-1	7.977836E-1	8.826736E-1	8.407808E-1	8.176790E-1	7.998304E-1	8.607717E-1	8.263519E-1	8.041515E-1	7.369001E-1	8.820111E-1	8.431176E-1	8.549279E-1	7.990724E-1	6.400065E-1	7.698504E-1	7.813236E-1	8.976131E-1	8.368269E-1	8.071928E-1	8.153705E-1	8.784168E-1	8.089070E-1	7.921010E-1	7.775911E-1	7.054037E-1	7.877386E-1	7.777063E-1	8.550141E-1	7.887473E-1	8.383782E-1	8.084897E-1	8.092723E-1	8.462105E-1	9.322652E-1	7.870021E-1	8.141797E-1	8.327655E-1	9.231412E-1	7.764288E-1	8.040567E-1	6.927429E-1	8.275198E-1	8.380192E-1	7.948642E-1	8.310067E-1	8.927404E-1	8.373246E-1	8.840832E-1	8.302287E-1	9.340423E-1	8.169574E-1	8.424573E-1	7.874248E-1	8.974793E-1	8.755974E-1	7.181005E-1	7.797509E-1	8.888356E-1	8.923250E-1	8.183605E-1	8.164655E-1	8.437985E-1	6.837502E-1	8.737514E-1	8.182287E-1	9.190866E-1	7.980716E-1	7.770962E-1	8.631112E-1	8.345313E-1	7.863188E-1	8.357675E-1	8.730644E-1	8.105971E-1	8.164471E-1	8.118821E-1	7.729986E-1	8.499198E-1	7.812111E-1	8.653052E-1	8.566984E-1	8.722917E-1	8.478526E-1	8.142404E-1	8.325361E-1	8.695452E-1	7.828723E-1	8.109286E-1	7.892206E-1	8.509982E-1	8.374719E-1	8.132251E-1	8.330608E-1	8.529922E-1	7.617412E-1	6.619900E-1	8.139422E-1	8.681425E-1	8.569898E-1	8.056233E-1	8.590468E-1	8.168558E-1	8.619477E-1	7.881391E-1	8.320555E-1	7.583289E-1	8.179568E-1	8.363947E-1	8.453492E-1	9.171508E-1	8.314647E-1
5.380110E+2	8.982090E-1	8.702236E-1	9.247388E-1	8.987075E-1	8.615625E-1	8.784432E-1	8.825082E-1	8.411873E-1	8.585275E-1	8.587383E-1	8.229938E-1	8.993776E-1	8.994499E-1	8.701288E-1	8.780019E-1	8.712711E-1	7.775623E-1	8.274407E-1	7.914679E-1	8.958626E-1	9.449484E-1	8.869815E-1	8.892681E-1	8.587522E-1	9.360796E-1	8.155283E-1	8.436383E-1	8.958259E-1	9.617781E-1	9.269666E-1	9.584829E-1	8.763658E-1	9.184743E-1	6.857216E-1	7.160574E-1	7.917544E-1	9.205986E-1	8.801665E-1	8.713619E-1	8.163394E-1	8.831042E-1	8.837889E-1	8.583727E-1	8.507765E-1	9.218266E-1	9.483704E-1	8.920078E-1	8.622503E-1	9.603174E-1	8.287129E-1	8.547149E-1	8.506105E-1	9.027968E-1	9.544127E-1	9.013261E-1	8.605225E-1	7.440061E-1	8.963186E-1	9.057886E-1	8.293072E-1	9.316458E-1	8.807544E-1	8.551703E-1	8.206609E-1	8.619442E-1	8.936616E-1	8.485339E-1	8.229073E-1	8.702173E-1	8.968544E-1	9.256704E-1	8.598565E-1	7.035550E-1	8.288774E-1	9.186118E-1	8.912648E-1	9.203861E-1	8.650608E-1	9.087370E-1	9.675126E-1	8.666297E-1	8.494525E-1	9.103809E-1	7.479512E-1	8.337397E-1	8.440117E-1	8.862250E-1	8.451058E-1	9.029038E-1	8.615364E-1	8.588561E-1	8.869533E-1	9.500147E-1	7.885314E-1	8.457447E-1	9.390278E-1	9.225412E-1	7.959569E-1	8.260471E-1	7.563906E-1	8.757996E-1	8.803837E-1	8.701480E-1	8.609172E-1	9.441125E-1	8.920106E-1	9.348195E-1	8.977511E-1	9.793445E-1	8.702054E-1	8.989615E-1	8.888941E-1	9.715678E-1	9.114648E-1	7.382513E-1	8.520770E-1	9.006676E-1	9.311528E-1	8.951099E-1	8.705301E-1	9.189055E-1	7.130469E-1	8.939374E-1	8.623127E-1	9.543538E-1	8.562223E-1	8.594039E-1	9.051046E-1	9.151320E-1	8.668994E-1	8.720533E-1	9.082939E-1	8.816049E-1	8.530558E-1	8.563887E-1	8.899008E-1	8.883872E-1	8.420505E-1	8.540479E-1	9.065230E-1	9.177038E-1	8.644430E-1	8.684561E-1	8.782648E-1	9.051440E-1	8.402727E-1	8.498823E-1	8.503398E-1	8.706044E-1	9.164680E-1	8.781235E-1	8.936231E-1	8.941171E-1	8.348026E-1	7.255315E-1	9.076066E-1	9.432586E-1	9.368206E-1	8.691060E-1	9.304930E-1	8.796848E-1	9.402166E-1	8.513809E-1	8.532327E-1	8.573707E-1	8.960957E-1	9.088870E-1	8.637690E-1	9.440344E-1	9.472526E-1
5.382690E+2	1.098258E+0	1.112984E+0	1.155856E+0	1.144407E+0	1.046830E+0	1.053934E+0	1.145965E+0	1.074682E+0	1.095302E+0	1.152572E+0	1.097877E+0	1.025410E+0	1.067737E+0	1.239867E+0	1.063195E+0	1.088879E+0	9.229697E-1	1.124645E+0	1.026935E+0	1.161008E+0	1.162935E+0	1.046866E+0	1.045001E+0	1.150113E+0	1.203455E+0	9.883674E-1	1.094451E+0	1.119170E+0	1.201140E+0	1.162128E+0	1.149798E+0	1.081544E+0	1.158897E+0	9.101340E-1	9.181643E-1	1.010850E+0	1.078586E+0	1.059060E+0	1.109376E+0	1.039448E+0	1.148052E+0	1.139570E+0	1.036217E+0	1.061400E+0	1.117978E+0	1.228005E+0	1.092725E+0	1.025310E+0	1.134344E+0	1.096967E+0	1.074412E+0	1.050246E+0	1.133995E+0	1.199431E+0	1.104127E+0	1.095700E+0	9.042779E-1	1.178068E+0	1.112622E+0	1.055808E+0	1.119285E+0	1.123192E+0	1.079605E+0	1.012014E+0	1.067622E+0	1.160073E+0	1.053941E+0	1.042253E+0	1.083531E+0	1.093891E+0	1.115978E+0	1.043484E+0	8.602420E-1	1.041375E+0	1.055321E+0	1.131360E+0	1.089579E+0	1.083217E+0	1.077001E+0	1.165262E+0	1.146130E+0	1.035313E+0	1.108746E+0	9.378995E-1	1.021029E+0	1.090076E+0	1.082271E+0	1.046904E+0	1.069851E+0	1.093211E+0	1.060007E+0	1.071156E+0	1.169719E+0	1.059240E+0	1.084294E+0	1.147944E+0	1.198536E+0	1.042014E+0	1.012963E+0	9.330113E-1	1.123564E+0	1.071771E+0	1.119884E+0	1.079903E+0	1.164276E+0	1.117661E+0	1.120453E+0	1.175679E+0	1.189138E+0	1.111361E+0	1.133483E+0	1.107638E+0	1.112779E+0	1.095835E+0	9.519558E-1	1.051834E+0	1.108490E+0	1.137462E+0	1.087733E+0	1.068292E+0	1.131096E+0	9.442289E-1	1.111946E+0	1.091791E+0	1.214829E+0	1.030676E+0	1.123927E+0	1.083321E+0	1.131451E+0	1.075494E+0	1.045594E+0	1.095450E+0	1.022172E+0	1.121521E+0	1.101693E+0	1.089688E+0	1.051874E+0	9.741579E-1	1.149555E+0	1.082040E+0	1.186644E+0	1.059778E+0	1.064203E+0	1.056366E+0	1.084231E+0	1.085328E+0	1.088838E+0	1.010022E+0	1.044036E+0	1.072931E+0	1.102517E+0	1.103509E+0	1.062093E+0	9.965420E-1	8.789608E-1	1.071810E+0	1.186978E+0	1.157493E+0	1.053100E+0	1.103495E+0	1.083440E+0	1.096754E+0	1.124417E+0	1.060295E+0	1.068525E+0	1.109395E+0	1.102419E+0	1.120170E+0	1.074784E+0	1.140233E+0
5.385110E+2	1.329482E+0	1.381297E+0	1.410682E+0	1.396605E+0	1.316358E+0	1.285519E+0	1.342331E+0	1.309930E+0	1.305170E+0	1.361026E+0	1.298002E+0	1.306949E+0	1.368216E+0	1.461712E+0	1.305297E+0	1.345441E+0	1.181080E+0	1.335398E+0	1.280779E+0	1.324049E+0	1.419775E+0	1.291689E+0	1.310957E+0	1.362489E+0	1.437905E+0	1.259971E+0	1.322358E+0	1.256898E+0	1.475377E+0	1.504568E+0	1.437612E+0	1.306491E+0	1.374090E+0	1.112257E+0	1.157018E+0	1.235686E+0	1.299766E+0	1.312534E+0	1.310967E+0	1.270640E+0	1.319766E+0	1.453750E+0	1.348916E+0	1.335373E+0	1.392131E+0	1.508227E+0	1.345757E+0	1.289356E+0	1.318606E+0	1.358442E+0	1.376282E+0	1.271660E+0	1.325421E+0	1.443914E+0	1.336102E+0	1.377563E+0	1.091017E+0	1.506381E+0	1.279679E+0	1.359366E+0	1.393528E+0	1.556149E+0	1.342045E+0	1.199977E+0	1.308458E+0	1.349558E+0	1.316250E+0	1.285265E+0	1.291204E+0	1.421786E+0	1.356603E+0	1.330403E+0	1.110070E+0	1.447819E+0	1.344960E+0	1.410124E+0	1.294063E+0	1.459612E+0	1.353510E+0	1.460797E+0	1.328412E+0	1.391637E+0	1.245360E+0	1.168369E+0	1.226390E+0	1.321408E+0	1.339763E+0	1.220522E+0	1.314639E+0	1.421236E+0	1.276934E+0	1.286921E+0	1.435956E+0	1.389087E+0	1.304733E+0	1.389873E+0	1.439133E+0	1.350003E+0	1.241544E+0	1.161610E+0	1.396262E+0	1.354365E+0	1.309911E+0	1.388086E+0	1.461214E+0	1.310500E+0	1.403378E+0	1.393923E+0	1.437762E+0	1.318214E+0	1.390484E+0	1.243271E+0	1.379369E+0	1.372074E+0	1.083467E+0	1.302103E+0	1.382672E+0	1.424905E+0	1.300928E+0	1.288344E+0	1.419970E+0	1.159430E+0	1.344372E+0	1.339387E+0	1.411316E+0	1.280887E+0	1.264212E+0	1.393151E+0	1.423628E+0	1.288090E+0	1.376373E+0	1.351413E+0	1.264662E+0	1.340665E+0	1.300937E+0	1.331638E+0	1.287205E+0	1.284147E+0	1.355565E+0	1.320404E+0	1.469709E+0	1.280800E+0	1.294189E+0	1.352882E+0	1.347110E+0	1.357426E+0	1.289420E+0	1.210449E+0	1.339626E+0	1.305843E+0	1.313160E+0	1.316172E+0	1.324481E+0	1.254768E+0	1.005011E+0	1.283424E+0	1.380978E+0	1.420363E+0	1.331243E+0	1.371929E+0	1.259009E+0	1.349879E+0	1.314142E+0	1.310301E+0	1.274652E+0	1.342757E+0	1.304598E+0	1.403095E+0	1.366831E+0	1.318206E+0
5.387650E+2	1.571619E+0	1.528534E+0	1.573916E+0	1.571429E+0	1.508105E+0	1.485198E+0	1.520693E+0	1.504508E+0	1.503200E+0	1.606073E+0	1.430268E+0	1.461439E+0	1.520563E+0	1.673798E+0	1.451054E+0	1.467679E+0	1.319442E+0	1.468184E+0	1.419188E+0	1.537593E+0	1.583767E+0	1.438582E+0	1.489948E+0	1.608653E+0	1.666676E+0	1.414703E+0	1.472726E+0	1.542990E+0	1.553254E+0	1.668210E+0	1.650249E+0	1.510353E+0	1.557622E+0	1.195335E+0	1.250870E+0	1.396355E+0	1.492917E+0	1.422392E+0	1.440204E+0	1.359155E+0	1.479678E+0	1.629526E+0	1.440783E+0	1.435541E+0	1.534368E+0	1.681311E+0	1.492027E+0	1.425751E+0	1.540204E+0	1.510359E+0	1.540625E+0	1.397144E+0	1.491487E+0	1.683594E+0	1.524553E+0	1.440541E+0	1.270893E+0	1.659045E+0	1.467192E+0	1.452768E+0	1.540959E+0	1.703584E+0	1.460168E+0	1.411191E+0	1.460226E+0	1.590518E+0	1.414684E+0	1.421492E+0	1.508105E+0	1.539710E+0	1.526982E+0	1.459621E+0	1.201753E+0	1.614218E+0	1.445753E+0	1.563073E+0	1.457030E+0	1.714640E+0	1.497150E+0	1.619977E+0	1.513733E+0	1.520143E+0	1.401100E+0	1.284873E+0	1.399442E+0	1.447141E+0	1.469001E+0	1.417322E+0	1.548164E+0	1.575508E+0	1.430193E+0	1.439561E+0	1.548206E+0	1.698029E+0	1.432545E+0	1.584343E+0	1.549531E+0	1.488373E+0	1.429040E+0	1.317547E+0	1.518286E+0	1.525815E+0	1.454249E+0	1.583573E+0	1.633392E+0	1.646676E+0	1.560361E+0	1.554892E+0	1.654026E+0	1.614153E+0	1.500453E+0	1.495670E+0	1.545912E+0	1.576580E+0	1.245204E+0	1.407146E+0	1.481439E+0	1.625420E+0	1.475494E+0	1.467137E+0	1.600118E+0	1.586634E+0	1.497787E+0	1.559202E+0	1.591685E+0	1.526830E+0	1.465063E+0	1.518108E+0	1.551640E+0	1.470969E+0	1.449995E+0	1.463155E+0	1.419720E+0	1.467779E+0	1.439630E+0	1.524715E+0	1.486898E+0	1.394236E+0	1.479961E+0	1.482897E+0	1.532782E+0	1.465431E+0	1.481948E+0	1.471296E+0	1.517435E+0	1.490994E+0	1.451050E+0	1.373985E+0	1.450221E+0	1.491865E+0	1.427557E+0	1.538079E+0	1.502303E+0	1.322809E+0	1.185303E+0	1.458034E+0	1.611191E+0	1.516727E+0	1.436688E+0	1.514309E+0	1.438104E+0	1.514184E+0	1.474681E+0	1.492068E+0	1.430503E+0	1.454688E+0	1.463548E+0	1.457617E+0	1.506133E+0	1.455437E+0
5.390340E+2	1.832460E+0	1.754261E+0	1.788874E+0	1.855517E+0	1.717141E+0	1.743031E+0	1.768881E+0	1.715268E+0	1.695311E+0	1.800671E+0	1.718381E+0	1.744504E+0	1.799952E+0	1.973184E+0	1.774022E+0	1.735881E+0	1.553905E+0	1.745607E+0	1.639720E+0	1.789563E+0	1.893592E+0	1.720876E+0	1.814561E+0	1.803476E+0	1.853442E+0	1.628145E+0	1.731764E+0	1.737089E+0	1.814110E+0	1.944590E+0	1.893741E+0	1.729593E+0	1.873238E+0	1.440518E+0	1.451488E+0	1.631623E+0	1.754872E+0	1.683931E+0	1.741092E+0	1.611768E+0	1.762919E+0	1.907499E+0	1.723448E+0	1.697605E+0	1.847524E+0	1.929149E+0	1.804849E+0	1.696353E+0	1.827439E+0	1.795555E+0	1.762036E+0	1.594706E+0	1.762460E+0	1.995873E+0	1.731656E+0	1.703021E+0	1.440971E+0	2.010347E+0	1.708122E+0	1.657083E+0	1.804373E+0	2.043100E+0	1.725690E+0	1.677149E+0	1.708682E+0	1.791880E+0	1.701461E+0	1.571570E+0	1.782954E+0	1.815361E+0	1.770097E+0	1.705729E+0	1.398220E+0	1.849761E+0	1.762035E+0	1.871846E+0	1.694209E+0	1.932286E+0	1.762883E+0	1.876402E+0	1.764068E+0	1.852040E+0	1.678155E+0	1.483431E+0	1.620138E+0	1.730534E+0	1.814758E+0	1.699566E+0	1.827264E+0	1.919229E+0	1.699520E+0	1.682297E+0	1.874406E+0	1.907563E+0	1.740952E+0	1.851029E+0	1.798526E+0	1.770698E+0	1.632736E+0	1.541374E+0	1.781967E+0	1.797446E+0	1.751228E+0	1.823924E+0	1.919042E+0	1.902835E+0	1.817622E+0	1.736961E+0	1.896177E+0	2.008399E+0	1.739836E+0	1.680250E+0	1.766276E+0	1.936508E+0	1.429742E+0	1.651677E+0	1.730411E+0	1.886784E+0	1.712260E+0	1.709951E+0	1.808107E+0	1.962171E+0	1.809226E+0	1.709571E+0	1.849641E+0	1.968030E+0	1.715608E+0	1.760856E+0	1.717585E+0	1.811005E+0	1.710834E+0	1.757652E+0	1.769446E+0	1.808444E+0	1.730995E+0	1.724028E+0	1.715437E+0	1.802728E+0	1.828377E+0	1.739946E+0	1.752274E+0	1.973303E+0	1.673700E+0	1.691279E+0	1.757865E+0	1.810558E+0	1.746404E+0	1.616812E+0	1.703080E+0	1.765552E+0	1.654152E+0	1.737798E+0	1.705614E+0	1.578246E+0	1.376961E+0	1.708388E+0	1.835997E+0	1.885657E+0	1.696537E+0	1.781723E+0	1.728761E+0	1.759539E+0	1.753187E+0	1.721483E+0	1.671823E+0	1.701773E+0	1.748193E+0	1.729492E+0	1.716310E+0	1.789937E+0
5.392930E+2	2.001335E+0	1.934960E+0	2.012447E+0	2.033890E+0	1.895385E+0	1.823830E+0	1.991426E+0	1.915973E+0	1.932084E+0	1.975863E+0	1.883998E+0	1.843603E+0	1.946674E+0	2.131354E+0	1.878348E+0	1.920803E+0	1.769752E+0	2.004391E+0	1.860258E+0	1.967973E+0	2.058595E+0	1.943213E+0	1.967259E+0	1.977680E+0	2.020337E+0	1.740629E+0	1.915029E+0	1.926934E+0	2.024328E+0	2.097926E+0	1.985753E+0	1.875454E+0	2.005817E+0	1.580332E+0	1.569674E+0	1.745864E+0	1.914895E+0	1.839136E+0	1.938191E+0	1.788397E+0	1.957647E+0	2.123567E+0	1.851237E+0	1.857873E+0	2.016718E+0	2.145208E+0	1.923890E+0	1.834933E+0	1.972557E+0	1.970065E+0	1.930940E+0	1.783454E+0	1.895217E+0	2.120250E+0	1.853147E+0	1.891959E+0	1.611044E+0	2.116442E+0	1.889384E+0	1.926202E+0	2.012121E+0	2.200401E+0	1.893116E+0	1.788568E+0	1.892677E+0	2.005123E+0	1.839157E+0	1.755128E+0	1.929607E+0	1.927314E+0	1.943962E+0	1.853657E+0	1.524348E+0	2.029656E+0	1.915541E+0	2.028253E+0	1.864964E+0	2.158122E+0	1.876257E+0	2.169765E+0	1.915362E+0	1.990111E+0	1.898923E+0	1.616647E+0	1.847950E+0	1.887213E+0	1.979107E+0	1.834097E+0	1.947605E+0	2.067546E+0	1.851091E+0	1.855597E+0	2.057654E+0	2.124230E+0	1.847032E+0	1.954200E+0	2.001920E+0	1.878381E+0	1.779721E+0	1.631008E+0	1.948559E+0	1.968400E+0	1.823401E+0	1.921666E+0	2.082190E+0	2.026597E+0	2.009826E+0	1.948573E+0	2.108664E+0	2.132822E+0	1.973754E+0	1.865342E+0	1.973342E+0	2.054807E+0	1.620645E+0	1.784851E+0	1.987105E+0	2.032824E+0	1.898367E+0	1.832781E+0	1.927335E+0	2.063381E+0	1.903236E+0	1.933011E+0	2.001293E+0	2.152090E+0	1.864697E+0	1.903733E+0	1.929164E+0	1.903585E+0	1.840199E+0	1.904070E+0	1.861223E+0	1.910135E+0	1.862963E+0	1.909924E+0	1.811044E+0	1.964384E+0	1.901550E+0	1.883190E+0	1.979832E+0	2.132781E+0	1.863169E+0	1.905482E+0	1.939689E+0	1.913215E+0	1.855120E+0	1.732991E+0	1.858916E+0	1.858306E+0	1.865345E+0	1.857998E+0	1.867798E+0	1.709866E+0	1.490096E+0	1.896872E+0	1.954884E+0	2.077820E+0	1.844488E+0	1.892974E+0	1.795111E+0	1.866670E+0	1.861427E+0	1.879137E+0	1.785945E+0	1.858580E+0	1.920443E+0	1.875376E+0	1.856834E+0	1.959333E+0
5.395160E+2	2.009646E+0	1.973901E+0	2.052313E+0	2.059879E+0	1.936976E+0	1.924180E+0	2.004516E+0	1.958383E+0	1.999888E+0	1.980298E+0	1.938054E+0	1.887812E+0	2.032927E+0	2.125702E+0	1.938748E+0	1.953486E+0	1.745096E+0	1.958626E+0	1.902758E+0	1.954248E+0	2.068686E+0	1.942718E+0	1.926302E+0	2.085624E+0	2.092434E+0	1.758737E+0	1.979053E+0	1.974790E+0	2.089780E+0	2.135502E+0	2.086739E+0	1.926862E+0	2.021645E+0	1.604139E+0	1.649123E+0	1.799594E+0	1.948531E+0	1.898095E+0	1.882803E+0	1.823967E+0	2.008986E+0	2.114812E+0	1.854183E+0	1.862203E+0	2.090708E+0	2.177584E+0	1.968732E+0	1.834934E+0	2.114672E+0	1.923754E+0	1.980590E+0	1.820269E+0	1.962336E+0	2.190714E+0	1.895233E+0	1.928073E+0	1.622808E+0	2.227848E+0	1.921200E+0	1.958890E+0	1.995622E+0	2.211300E+0	1.925986E+0	1.788570E+0	1.947758E+0	2.049244E+0	1.919384E+0	1.815738E+0	2.000880E+0	1.993492E+0	1.980331E+0	1.854929E+0	1.568975E+0	2.086436E+0	1.960148E+0	2.026522E+0	1.818252E+0	2.127395E+0	1.983473E+0	2.132822E+0	2.023513E+0	2.029940E+0	1.883079E+0	1.670337E+0	1.850139E+0	1.926009E+0	1.916198E+0	1.875005E+0	1.946582E+0	2.120050E+0	1.837566E+0	1.921589E+0	2.077323E+0	2.152778E+0	1.845997E+0	2.072843E+0	2.030121E+0	1.998902E+0	1.831802E+0	1.696246E+0	1.984637E+0	2.006276E+0	1.902838E+0	2.021544E+0	2.059611E+0	2.084163E+0	1.981173E+0	1.988367E+0	2.162594E+0	2.222420E+0	1.970713E+0	1.877581E+0	1.952450E+0	2.171219E+0	1.581933E+0	1.794608E+0	1.937206E+0	2.056588E+0	1.918433E+0	1.849855E+0	2.029752E+0	2.205606E+0	2.018582E+0	1.937842E+0	2.096005E+0	2.212905E+0	1.883847E+0	1.967747E+0	1.927382E+0	1.991598E+0	1.942218E+0	1.933251E+0	1.847697E+0	1.933015E+0	1.926099E+0	1.893154E+0	1.889106E+0	2.055936E+0	1.936447E+0	1.993600E+0	2.022220E+0	2.135457E+0	1.884852E+0	1.945430E+0	1.948998E+0	2.001522E+0	1.938261E+0	1.808979E+0	1.858919E+0	1.916407E+0	1.908245E+0	1.931042E+0	1.862007E+0	1.751695E+0	1.518509E+0	1.869700E+0	2.041890E+0	2.070410E+0	1.862243E+0	1.949109E+0	1.894939E+0	1.947714E+0	1.913118E+0	1.859722E+0	1.786951E+0	1.892371E+0	2.001580E+0	1.915164E+0	1.911823E+0	1.937891E+0
5.397750E+2	2.067328E+0	2.048734E+0	2.127196E+0	2.108307E+0	1.982887E+0	1.979248E+0	2.067788E+0	1.965379E+0	2.016571E+0	2.104481E+0	2.022592E+0	1.988944E+0	2.096212E+0	2.217622E+0	1.956718E+0	2.045278E+0	1.738057E+0	1.980660E+0	1.938362E+0	2.075021E+0	2.078778E+0	2.012166E+0	2.040068E+0	2.067192E+0	2.170772E+0	1.834457E+0	2.004898E+0	1.984893E+0	2.075449E+0	2.222173E+0	2.126577E+0	1.911926E+0	2.011756E+0	1.667970E+0	1.714671E+0	1.822028E+0	2.031606E+0	1.986283E+0	1.958648E+0	1.865191E+0	1.996005E+0	2.161530E+0	1.898939E+0	1.967787E+0	2.114220E+0	2.302393E+0	2.023716E+0	1.931544E+0	2.080950E+0	2.012982E+0	1.963467E+0	1.901677E+0	2.037417E+0	2.233418E+0	1.925369E+0	1.944807E+0	1.641435E+0	2.267339E+0	1.926888E+0	1.953054E+0	2.031707E+0	2.236735E+0	1.955771E+0	1.854935E+0	1.992882E+0	2.106936E+0	1.930197E+0	1.885002E+0	2.043955E+0	2.047722E+0	1.987803E+0	1.933142E+0	1.612635E+0	2.175260E+0	2.007648E+0	2.099243E+0	2.005092E+0	2.231864E+0	1.996810E+0	2.195841E+0	2.018047E+0	2.051180E+0	2.011494E+0	1.750877E+0	1.917499E+0	1.921095E+0	2.037630E+0	2.010445E+0	2.025448E+0	2.143328E+0	1.945186E+0	1.941675E+0	2.061013E+0	2.200702E+0	1.931380E+0	2.086769E+0	2.094316E+0	2.048559E+0	1.896038E+0	1.719052E+0	1.983575E+0	2.033187E+0	1.948525E+0	2.069085E+0	2.180984E+0	2.125608E+0	2.006835E+0	1.978720E+0	2.134552E+0	2.216788E+0	2.018101E+0	1.895427E+0	1.954348E+0	2.206459E+0	1.608449E+0	1.772221E+0	2.010767E+0	2.111061E+0	1.945520E+0	1.917197E+0	2.098033E+0	2.219457E+0	1.999552E+0	1.977694E+0	2.089959E+0	2.218773E+0	1.872978E+0	2.005643E+0	2.037028E+0	2.036172E+0	1.964832E+0	1.975635E+0	1.883444E+0	1.976745E+0	1.934379E+0	1.929085E+0	1.973965E+0	2.058250E+0	1.994425E+0	2.016245E+0	2.091852E+0	2.223758E+0	1.951053E+0	1.913662E+0	2.011980E+0	2.079897E+0	1.940590E+0	1.842015E+0	1.943877E+0	1.930166E+0	1.912096E+0	2.022114E+0	1.879383E+0	1.805795E+0	1.610464E+0	1.955848E+0	2.072693E+0	2.185591E+0	1.916577E+0	1.989938E+0	1.940147E+0	1.965479E+0	1.992776E+0	1.879134E+0	1.844768E+0	1.912960E+0	1.983627E+0	1.999891E+0	1.941149E+0	1.929314E+0
5.400240E+2	2.014844E+0	1.927663E+0	2.017836E+0	2.036253E+0	1.908889E+0	1.878892E+0	2.008881E+0	1.924715E+0	1.984821E+0	2.029081E+0	2.042145E+0	1.956931E+0	2.053083E+0	2.233028E+0	2.103477E+0	1.952147E+0	1.802456E+0	2.039423E+0	2.007282E+0	2.050315E+0	2.120662E+0	1.948712E+0	1.968776E+0	2.029896E+0	2.074271E+0	1.749411E+0	1.932063E+0	1.996065E+0	2.039617E+0	2.176110E+0	2.056441E+0	1.859639E+0	2.034013E+0	1.933919E+0	1.649621E+0	1.763081E+0	1.937827E+0	1.937908E+0	1.966633E+0	1.794058E+0	2.019012E+0	2.124735E+0	1.926032E+0	1.866536E+0	2.045397E+0	2.235275E+0	1.982612E+0	1.864223E+0	2.038798E+0	2.004515E+0	1.981161E+0	1.872119E+0	1.947922E+0	2.176833E+0	1.892845E+0	1.996780E+0	1.596339E+0	2.237868E+0	1.947912E+0	1.975241E+0	2.037378E+0	2.316683E+0	1.891574E+0	1.794867E+0	1.909085E+0	2.030014E+0	1.868743E+0	1.844596E+0	1.938834E+0	1.946220E+0	1.974356E+0	1.877884E+0	1.535017E+0	2.134221E+0	1.965357E+0	2.040375E+0	2.004055E+0	2.159147E+0	1.986036E+0	2.119784E+0	1.995564E+0	2.013474E+0	1.902747E+0	1.618170E+0	1.874232E+0	1.884753E+0	1.974231E+0	1.863642E+0	1.938903E+0	2.128168E+0	1.888841E+0	1.927900E+0	2.067729E+0	2.111992E+0	1.885324E+0	2.025380E+0	2.066119E+0	1.989413E+0	1.839906E+0	1.722769E+0	1.892323E+0	2.032194E+0	1.930876E+0	1.990034E+0	2.104205E+0	2.091639E+0	2.063542E+0	1.913004E+0	2.066601E+0	2.164566E+0	1.977396E+0	1.829646E+0	1.994239E+0	2.202681E+0	1.614284E+0	1.870953E+0	1.984015E+0	2.103530E+0	1.947524E+0	1.867877E+0	2.043411E+0	2.147012E+0	1.960334E+0	1.939648E+0	2.094496E+0	2.179827E+0	1.912837E+0	1.969794E+0	1.972421E+0	2.051602E+0	1.855451E+0	1.899670E+0	1.855425E+0	1.968098E+0	1.922994E+0	1.904650E+0	1.863086E+0	2.086062E+0	1.968534E+0	1.885455E+0	2.006072E+0	2.150439E+0	1.929939E+0	1.925697E+0	1.962693E+0	2.012561E+0	1.871986E+0	1.834857E+0	1.879531E+0	1.942399E+0	1.911544E+0	1.927803E+0	1.915293E+0	1.786834E+0	1.505079E+0	1.951220E+0	2.032160E+0	2.142253E+0	1.887527E+0	1.927677E+0	1.956590E+0	1.875553E+0	1.958721E+0	1.803251E+0	1.827172E+0	1.889204E+0	1.966999E+0	1.974103E+0	1.971697E+0	2.098707E+0
5.402900E+2	1.859484E+0	1.767647E+0	1.889077E+0	1.863199E+0	1.757647E+0	1.742516E+0	1.877427E+0	1.765552E+0	1.791633E+0	1.838920E+0	1.976585E+0	1.762799E+0	1.837921E+0	2.003485E+0	2.047569E+0	1.793195E+0	1.621325E+0	1.763690E+0	1.771239E+0	1.809873E+0	1.941527E+0	1.769344E+0	1.927313E+0	1.834633E+0	1.898289E+0	1.628146E+0	1.819283E+0	1.847698E+0	1.904406E+0	2.039741E+0	1.948719E+0	1.775282E+0	1.884120E+0	1.830073E+0	1.519517E+0	1.627971E+0	1.789019E+0	1.725250E+0	1.809453E+0	1.649762E+0	1.767050E+0	1.892899E+0	1.844171E+0	1.701937E+0	1.895702E+0	1.942693E+0	1.965531E+0	1.711654E+0	1.881631E+0	1.797816E+0	1.867031E+0	1.696859E+0	1.831574E+0	1.959040E+0	1.752225E+0	1.802115E+0	1.449301E+0	2.002095E+0	1.828581E+0	1.782597E+0	1.872934E+0	2.102283E+0	1.900819E+0	1.686836E+0	1.787789E+0	1.857498E+0	1.775429E+0	1.687591E+0	1.784491E+0	1.876065E+0	1.788529E+0	1.730384E+0	1.444788E+0	1.880119E+0	1.822278E+0	1.871270E+0	1.768428E+0	1.951743E+0	1.860867E+0	2.002980E+0	1.784728E+0	1.798407E+0	1.728976E+0	1.541174E+0	1.678731E+0	1.725129E+0	1.752338E+0	1.703656E+0	1.812409E+0	1.946834E+0	1.707408E+0	1.675413E+0	1.912305E+0	1.966191E+0	1.687139E+0	1.851031E+0	1.867527E+0	1.808639E+0	1.707964E+0	1.530235E+0	1.804249E+0	1.804421E+0	1.735133E+0	1.812172E+0	1.856382E+0	1.905713E+0	1.853437E+0	1.796046E+0	1.910739E+0	1.982290E+0	1.839478E+0	1.707276E+0	1.849227E+0	2.042220E+0	1.473758E+0	1.695301E+0	1.743272E+0	1.844480E+0	1.686678E+0	1.714693E+0	1.870085E+0	1.998928E+0	1.761357E+0	1.723462E+0	1.877854E+0	2.041649E+0	1.737353E+0	1.790044E+0	1.794037E+0	1.843008E+0	1.820741E+0	1.780220E+0	1.732250E+0	1.743872E+0	1.697357E+0	1.701510E+0	1.750510E+0	1.868202E+0	1.815995E+0	1.731457E+0	1.840573E+0	1.936374E+0	1.721066E+0	1.672986E+0	1.745267E+0	1.839256E+0	1.767913E+0	1.698852E+0	1.767428E+0	1.734971E+0	1.713551E+0	1.726701E+0	1.747898E+0	1.649080E+0	1.416738E+0	1.677165E+0	1.861396E+0	1.946671E+0	1.715367E+0	1.755187E+0	1.691768E+0	1.793952E+0	1.803052E+0	1.756191E+0	1.669311E+0	1.741902E+0	1.776124E+0	1.784749E+0	1.759079E+0	2.010793E+0
5.405080E+2	1.775308E+0	1.740266E+0	1.815808E+0	1.845482E+0	1.779799E+0	1.695684E+0	1.810879E+0	1.707834E+0	1.727060E+0	1.787364E+0	1.934028E+0	1.683520E+0	1.772291E+0	1.936724E+0	1.988167E+0	1.755580E+0	1.566989E+0	1.736571E+0	1.779853E+0	1.757723E+0	1.799734E+0	1.694397E+0	1.768044E+0	1.840774E+0	1.846631E+0	1.592482E+0	1.815171E+0	1.769528E+0	1.866666E+0	1.899131E+0	1.996975E+0	1.735302E+0	1.826242E+0	1.741928E+0	1.456453E+0	1.617536E+0	1.651414E+0	1.780179E+0	1.674726E+0	1.644510E+0	1.728105E+0	1.892899E+0	1.817670E+0	1.661867E+0	1.789022E+0	1.912666E+0	1.948980E+0	1.681053E+0	1.773241E+0	1.779741E+0	1.812252E+0	1.584334E+0	1.753015E+0	1.849611E+0	1.732135E+0	1.737818E+0	1.427737E+0	1.916038E+0	1.912114E+0	1.707287E+0	1.826024E+0	1.943945E+0	1.890547E+0	1.612718E+0	1.794233E+0	1.819599E+0	1.794206E+0	1.603316E+0	1.797308E+0	1.821333E+0	1.811446E+0	1.659402E+0	1.388517E+0	1.863816E+0	1.915544E+0	1.799124E+0	1.738325E+0	1.952768E+0	1.919863E+0	1.916055E+0	1.756168E+0	1.783537E+0	1.781438E+0	1.413531E+0	1.633279E+0	1.738884E+0	1.759653E+0	1.631846E+0	1.747372E+0	1.909488E+0	1.832496E+0	1.708121E+0	1.814443E+0	1.914188E+0	1.874457E+0	1.806152E+0	1.815922E+0	1.783535E+0	1.696392E+0	1.494699E+0	1.751195E+0	1.792958E+0	1.710213E+0	1.771047E+0	1.852433E+0	1.835483E+0	1.759128E+0	1.776151E+0	1.862198E+0	1.959760E+0	1.772038E+0	1.692999E+0	1.826435E+0	1.888688E+0	1.484891E+0	1.649379E+0	1.752531E+0	1.842163E+0	1.750889E+0	1.673435E+0	1.803908E+0	1.910503E+0	1.689843E+0	1.730101E+0	1.869290E+0	1.889074E+0	1.693868E+0	1.701957E+0	1.696843E+0	1.794431E+0	1.761319E+0	1.778019E+0	1.620670E+0	1.702176E+0	1.684936E+0	1.689054E+0	1.743157E+0	1.815475E+0	1.754638E+0	1.668605E+0	1.793646E+0	1.890884E+0	1.642310E+0	1.630624E+0	1.717883E+0	1.829322E+0	1.677797E+0	1.594787E+0	1.732239E+0	1.710509E+0	1.629406E+0	1.688330E+0	1.716619E+0	1.562630E+0	1.578951E+0	1.699135E+0	1.743049E+0	1.936977E+0	1.671788E+0	1.752121E+0	1.709384E+0	1.696257E+0	1.606637E+0	1.712072E+0	1.571776E+0	1.665347E+0	1.753514E+0	1.707388E+0	1.738305E+0	1.948611E+0
5.407680E+2	1.721267E+0	1.649611E+0	1.681664E+0	1.747437E+0	1.667987E+0	1.677672E+0	1.764515E+0	1.600268E+0	1.656026E+0	1.743010E+0	1.840869E+0	1.616947E+0	1.712289E+0	1.846343E+0	1.917785E+0	1.591256E+0	1.497051E+0	1.663680E+0	1.675904E+0	1.684712E+0	1.776526E+0	1.671914E+0	1.717482E+0	1.666136E+0	1.748990E+0	1.562303E+0	1.694757E+0	1.643497E+0	1.806466E+0	1.832462E+0	1.862322E+0	1.633373E+0	1.756489E+0	1.768270E+0	1.412755E+0	1.518422E+0	1.662119E+0	1.606325E+0	1.676723E+0	1.564481E+0	1.666736E+0	1.787784E+0	1.702251E+0	1.623966E+0	1.696108E+0	1.837315E+0	1.808587E+0	1.538102E+0	1.775046E+0	1.653806E+0	1.748908E+0	1.629965E+0	1.690368E+0	1.810641E+0	1.599645E+0	1.591161E+0	1.310107E+0	1.870063E+0	1.830856E+0	1.609217E+0	1.737876E+0	1.889436E+0	1.803238E+0	1.529393E+0	1.675864E+0	1.745499E+0	1.692924E+0	1.555986E+0	1.700394E+0	1.687984E+0	1.679427E+0	1.546333E+0	1.324969E+0	1.746891E+0	1.753346E+0	1.750646E+0	1.641792E+0	1.852910E+0	1.854713E+0	1.820446E+0	1.658948E+0	1.666179E+0	1.736629E+0	1.388708E+0	1.559348E+0	1.591045E+0	1.726979E+0	1.575942E+0	1.665949E+0	1.754135E+0	1.809957E+0	1.561788E+0	1.737692E+0	1.829561E+0	1.798909E+0	1.685447E+0	1.737924E+0	1.669705E+0	1.706229E+0	1.408774E+0	1.707160E+0	1.638951E+0	1.655699E+0	1.656748E+0	1.817995E+0	1.803250E+0	1.742412E+0	1.724305E+0	1.806651E+0	1.882956E+0	1.787835E+0	1.573681E+0	1.683321E+0	1.834569E+0	1.404821E+0	1.515636E+0	1.639877E+0	1.793483E+0	1.611936E+0	1.539698E+0	1.689933E+0	1.817820E+0	1.727328E+0	1.660054E+0	1.719150E+0	1.847992E+0	1.862106E+0	1.655868E+0	1.661284E+0	1.714423E+0	1.737653E+0	1.601323E+0	1.578642E+0	1.646248E+0	1.631632E+0	1.590357E+0	1.606823E+0	1.705386E+0	1.679780E+0	1.630109E+0	1.725027E+0	1.793487E+0	1.690818E+0	1.624368E+0	1.659830E+0	1.700727E+0	1.649892E+0	1.530363E+0	1.641752E+0	1.657505E+0	1.630503E+0	1.642098E+0	1.598458E+0	1.562072E+0	1.644041E+0	1.639581E+0	1.738185E+0	1.818945E+0	1.682553E+0	1.596474E+0	1.644205E+0	1.660730E+0	1.651027E+0	1.542068E+0	1.565238E+0	1.615187E+0	1.665727E+0	1.547506E+0	1.612443E+0	1.725611E+0
5.410340E+2	1.676061E+0	1.636833E+0	1.677894E+0	1.723810E+0	1.605873E+0	1.577317E+0	1.654333E+0	1.555231E+0	1.551630E+0	1.684245E+0	1.736780E+0	1.588997E+0	1.596971E+0	1.821181E+0	1.792992E+0	1.589465E+0	1.400449E+0	1.575535E+0	1.558169E+0	1.606209E+0	1.658449E+0	1.615954E+0	1.623435E+0	1.538007E+0	1.665541E+0	1.420741E+0	1.597252E+0	1.500451E+0	1.602463E+0	1.727607E+0	1.765263E+0	1.514307E+0	1.643697E+0	1.582358E+0	1.340750E+0	1.493381E+0	1.557644E+0	1.580121E+0	1.566948E+0	1.482028E+0	1.581764E+0	1.731138E+0	1.698128E+0	1.504847E+0	1.578531E+0	1.716628E+0	1.813924E+0	1.497445E+0	1.623304E+0	1.560057E+0	1.662170E+0	1.476999E+0	1.559603E+0	1.768469E+0	1.580992E+0	1.549320E+0	1.290989E+0	1.815833E+0	1.692778E+0	1.575942E+0	1.673441E+0	1.803262E+0	1.771399E+0	1.462543E+0	1.598516E+0	1.645382E+0	1.680408E+0	1.543864E+0	1.585021E+0	1.622305E+0	1.609181E+0	1.470248E+0	1.311387E+0	1.733958E+0	1.711639E+0	1.606933E+0	1.569133E+0	1.743315E+0	1.803924E+0	1.732979E+0	1.593331E+0	1.639627E+0	1.628426E+0	1.353761E+0	1.540728E+0	1.530145E+0	1.629931E+0	1.501404E+0	1.632149E+0	1.765504E+0	1.691070E+0	1.517030E+0	1.683004E+0	1.719953E+0	1.725948E+0	1.671002E+0	1.626927E+0	1.555887E+0	1.659936E+0	1.366875E+0	1.593627E+0	1.616525E+0	1.595992E+0	1.630040E+0	1.706781E+0	1.680060E+0	1.723313E+0	1.594081E+0	1.705798E+0	1.740621E+0	1.701561E+0	1.528808E+0	1.659891E+0	1.763464E+0	1.371942E+0	1.519081E+0	1.583806E+0	1.670624E+0	1.554251E+0	1.520252E+0	1.594868E+0	1.761353E+0	1.690997E+0	1.641935E+0	1.674813E+0	1.758902E+0	1.809823E+0	1.583148E+0	1.588977E+0	1.638416E+0	1.617229E+0	1.564991E+0	1.532754E+0	1.575065E+0	1.543654E+0	1.568319E+0	1.579670E+0	1.686263E+0	1.639252E+0	1.507247E+0	1.658421E+0	1.764588E+0	1.682828E+0	1.551682E+0	1.551940E+0	1.601379E+0	1.621402E+0	1.505034E+0	1.552271E+0	1.618260E+0	1.561204E+0	1.591244E+0	1.547484E+0	1.478412E+0	1.693636E+0	1.559214E+0	1.667392E+0	1.694065E+0	1.734198E+0	1.592391E+0	1.546734E+0	1.589123E+0	1.618189E+0	1.525601E+0	1.491841E+0	1.555526E+0	1.619839E+0	1.492247E+0	1.539126E+0	1.646272E+0
5.412850E+2	1.610592E+0	1.466477E+0	1.576609E+0	1.596235E+0	1.430326E+0	1.483138E+0	1.533239E+0	1.484396E+0	1.483827E+0	1.531785E+0	1.691350E+0	1.485832E+0	1.538850E+0	1.661988E+0	1.672188E+0	1.476185E+0	1.330514E+0	1.469311E+0	1.555873E+0	1.525515E+0	1.631198E+0	1.478551E+0	1.554164E+0	1.535811E+0	1.611042E+0	1.373003E+0	1.546739E+0	1.466418E+0	1.511209E+0	1.695486E+0	1.730479E+0	1.427753E+0	1.540307E+0	1.488643E+0	1.270238E+0	1.403657E+0	1.460812E+0	1.455651E+0	1.490104E+0	1.397959E+0	1.484988E+0	1.620768E+0	1.547370E+0	1.509178E+0	1.529206E+0	1.681896E+0	1.604129E+0	1.446298E+0	1.562483E+0	1.513183E+0	1.574293E+0	1.409587E+0	1.519826E+0	1.645695E+0	1.494899E+0	1.477534E+0	1.219921E+0	1.684392E+0	1.582542E+0	1.425915E+0	1.560548E+0	1.756016E+0	1.668168E+0	1.346760E+0	1.458469E+0	1.576941E+0	1.529052E+0	1.410525E+0	1.538361E+0	1.538713E+0	1.590252E+0	1.471948E+0	1.189624E+0	1.609721E+0	1.646179E+0	1.534791E+0	1.537994E+0	1.753561E+0	1.669519E+0	1.661806E+0	1.479707E+0	1.521205E+0	1.603837E+0	1.293989E+0	1.443253E+0	1.481520E+0	1.490455E+0	1.430047E+0	1.521020E+0	1.641004E+0	1.573309E+0	1.440136E+0	1.581308E+0	1.603205E+0	1.643155E+0	1.538948E+0	1.616128E+0	1.506228E+0	1.548248E+0	1.322320E+0	1.570813E+0	1.493916E+0	1.485400E+0	1.532297E+0	1.627188E+0	1.607533E+0	1.584238E+0	1.486768E+0	1.644317E+0	1.635657E+0	1.600098E+0	1.444167E+0	1.537045E+0	1.643281E+0	1.254748E+0	1.417480E+0	1.452628E+0	1.513574E+0	1.488535E+0	1.466187E+0	1.578588E+0	1.639372E+0	1.584877E+0	1.478886E+0	1.583623E+0	1.708751E+0	1.668501E+0	1.537572E+0	1.497117E+0	1.521260E+0	1.578835E+0	1.481874E+0	1.439041E+0	1.497778E+0	1.447913E+0	1.507471E+0	1.516878E+0	1.544305E+0	1.555385E+0	1.442698E+0	1.567092E+0	1.625445E+0	1.606930E+0	1.482369E+0	1.527844E+0	1.603586E+0	1.526631E+0	1.354714E+0	1.427096E+0	1.508172E+0	1.497408E+0	1.448391E+0	1.464076E+0	1.383045E+0	1.618214E+0	1.455142E+0	1.543640E+0	1.650159E+0	1.732047E+0	1.541869E+0	1.467460E+0	1.466999E+0	1.567718E+0	1.475597E+0	1.408886E+0	1.466301E+0	1.518749E+0	1.516560E+0	1.524463E+0	1.603387E+0
5.415140E+2	1.334679E+0	1.288817E+0	1.343337E+0	1.379477E+0	1.271527E+0	1.288608E+0	1.377239E+0	1.279321E+0	1.311628E+0	1.346614E+0	1.513652E+0	1.315591E+0	1.300711E+0	1.463765E+0	1.542401E+0	1.289473E+0	1.170012E+0	1.372128E+0	1.354867E+0	1.324597E+0	1.417249E+0	1.363138E+0	1.339274E+0	1.347570E+0	1.403275E+0	1.156268E+0	1.318833E+0	1.331348E+0	1.408012E+0	1.428200E+0	1.493718E+0	1.306054E+0	1.357765E+0	1.361997E+0	1.124244E+0	1.220555E+0	1.302313E+0	1.261136E+0	1.330927E+0	1.217693E+0	1.317406E+0	1.411703E+0	1.368350E+0	1.295305E+0	1.348543E+0	1.468196E+0	1.475477E+0	1.265312E+0	1.392672E+0	1.312135E+0	1.345464E+0	1.252474E+0	1.327408E+0	1.435375E+0	1.293533E+0	1.298287E+0	1.105721E+0	1.508150E+0	1.425144E+0	1.282893E+0	1.334246E+0	1.505274E+0	1.488414E+0	1.218869E+0	1.297909E+0	1.428180E+0	1.343561E+0	1.254672E+0	1.321968E+0	1.355612E+0	1.373540E+0	1.276418E+0	1.053797E+0	1.428703E+0	1.462552E+0	1.371455E+0	1.325722E+0	1.489314E+0	1.554605E+0	1.461887E+0	1.402540E+0	1.349684E+0	1.377058E+0	1.113665E+0	1.316750E+0	1.316002E+0	1.354392E+0	1.219615E+0	1.354583E+0	1.386051E+0	1.409344E+0	1.294380E+0	1.434038E+0	1.507363E+0	1.455831E+0	1.391420E+0	1.398334E+0	1.338844E+0	1.333554E+0	1.173279E+0	1.324639E+0	1.398721E+0	1.302643E+0	1.333607E+0	1.444845E+0	1.400877E+0	1.377715E+0	1.363176E+0	1.387603E+0	1.463112E+0	1.434228E+0	1.297319E+0	1.376204E+0	1.485336E+0	1.129602E+0	1.226333E+0	1.342547E+0	1.380864E+0	1.302432E+0	1.298301E+0	1.371124E+0	1.435356E+0	1.377825E+0	1.343615E+0	1.451623E+0	1.478283E+0	1.501819E+0	1.307627E+0	1.299764E+0	1.320663E+0	1.428435E+0	1.278752E+0	1.237612E+0	1.284734E+0	1.325780E+0	1.277977E+0	1.316056E+0	1.380911E+0	1.374140E+0	1.293793E+0	1.429847E+0	1.480951E+0	1.419744E+0	1.257574E+0	1.330134E+0	1.341419E+0	1.371400E+0	1.190626E+0	1.250144E+0	1.323170E+0	1.369810E+0	1.294445E+0	1.294942E+0	1.138761E+0	1.449803E+0	1.310598E+0	1.360988E+0	1.428915E+0	1.457131E+0	1.368357E+0	1.301874E+0	1.337109E+0	1.361574E+0	1.218533E+0	1.269122E+0	1.264090E+0	1.349158E+0	1.340469E+0	1.304512E+0	1.423274E+0
5.417760E+2	1.133591E+0	1.128803E+0	1.205420E+0	1.192248E+0	1.125690E+0	1.088929E+0	1.151419E+0	1.123220E+0	1.084001E+0	1.124851E+0	1.270973E+0	1.145343E+0	1.135239E+0	1.292247E+0	1.250884E+0	1.187832E+0	1.019572E+0	1.105999E+0	1.109635E+0	1.166498E+0	1.189679E+0	1.066352E+0	1.135508E+0	1.169859E+0	1.196642E+0	1.257777E+0	1.197831E+0	1.129275E+0	1.144761E+0	1.262738E+0	1.248540E+0	1.101313E+0	1.140098E+0	1.184698E+0	9.832159E-1	1.040063E+0	1.061257E+0	1.078209E+0	1.124348E+0	1.056828E+0	1.111467E+0	1.164097E+0	1.205228E+0	1.059776E+0	1.180494E+0	1.273924E+0	1.267288E+0	1.105750E+0	1.147591E+0	1.120686E+0	1.204518E+0	1.074098E+0	1.109635E+0	1.241602E+0	1.149563E+0	1.075441E+0	9.121202E-1	1.268251E+0	1.242177E+0	1.131114E+0	1.182692E+0	1.287757E+0	1.285551E+0	1.044471E+0	1.145557E+0	1.160639E+0	1.143843E+0	1.095935E+0	1.133782E+0	1.152105E+0	1.159320E+0	1.093215E+0	9.087526E-1	1.168986E+0	1.245323E+0	1.178109E+0	1.113454E+0	1.234287E+0	1.298104E+0	1.244036E+0	1.169219E+0	1.118155E+0	1.137708E+0	9.606930E-1	1.084554E+0	1.090076E+0	1.136402E+0	1.075538E+0	1.168176E+0	1.192809E+0	1.173824E+0	1.115342E+0	1.230643E+0	1.208104E+0	1.283518E+0	1.163934E+0	1.154737E+0	1.149141E+0	1.174416E+0	9.966591E-1	1.117199E+0	1.153508E+0	1.145324E+0	1.182454E+0	1.256858E+0	1.183284E+0	1.188498E+0	1.191354E+0	1.282977E+0	1.249606E+0	1.227656E+0	1.080614E+0	1.178002E+0	1.262584E+0	1.018242E+0	1.070776E+0	1.170733E+0	1.239459E+0	1.078705E+0	1.059755E+0	1.217233E+0	1.248918E+0	1.211145E+0	1.115343E+0	1.188629E+0	1.264882E+0	1.280261E+0	1.199572E+0	1.170566E+0	1.137216E+0	1.167598E+0	1.124073E+0	1.086902E+0	1.138300E+0	1.133260E+0	1.161076E+0	1.128810E+0	1.228523E+0	1.157435E+0	1.154511E+0	1.233567E+0	1.272772E+0	1.239975E+0	1.113167E+0	1.193217E+0	1.178051E+0	1.178955E+0	1.049116E+0	1.081739E+0	1.105039E+0	1.134966E+0	1.127550E+0	1.146660E+0	1.047295E+0	1.231797E+0	1.097829E+0	1.206974E+0	1.234473E+0	1.305420E+0	1.139217E+0	1.135112E+0	1.123953E+0	1.168199E+0	1.060884E+0	1.040371E+0	1.118371E+0	1.105744E+0	1.176165E+0	1.146879E+0	1.292473E+0
5.420270E+2	9.969344E-1	1.015637E+0	1.013091E+0	1.036914E+0	9.982171E-1	9.844581E-1	9.626904E-1	9.981632E-1	9.973633E-1	9.674013E-1	1.116279E+0	1.044721E+0	1.022267E+0	1.090946E+0	1.106125E+0	1.125593E+0	8.555483E-1	1.005989E+0	1.046461E+0	1.161010E+0	1.077152E+0	9.964022E-1	1.049046E+0	1.046995E+0	1.097300E+0	1.100850E+0	1.008106E+0	1.098963E+0	1.053031E+0	1.099702E+0	1.114453E+0	1.153597E+0	1.078261E+0	1.010942E+0	8.729756E-1	1.064059E+0	1.020996E+0	9.940535E-1	9.961081E-1	1.004284E+0	1.025315E+0	1.103364E+0	9.997056E-1	9.888464E-1	1.001549E+0	1.144410E+0	1.108206E+0	1.015694E+0	1.004275E+0	1.047269E+0	1.036749E+0	9.833555E-1	1.017651E+0	1.093203E+0	9.563305E-1	9.855986E-1	8.194854E-1	1.139755E+0	1.070005E+0	9.991825E-1	1.079076E+0	1.100351E+0	1.122232E+0	8.976865E-1	1.038909E+0	1.045816E+0	1.023215E+0	9.522052E-1	1.012255E+0	1.024231E+0	1.026304E+0	9.720732E-1	8.160982E-1	1.039127E+0	1.062851E+0	1.073644E+0	1.003425E+0	1.154399E+0	1.116503E+0	1.114195E+0	9.924048E-1	1.009824E+0	1.028416E+0	8.624266E-1	9.755754E-1	9.520636E-1	1.022287E+0	9.296430E-1	1.043734E+0	1.069394E+0	1.082546E+0	9.724555E-1	1.074738E+0	1.075554E+0	1.111202E+0	9.622406E-1	1.044939E+0	9.906821E-1	9.834496E-1	8.698942E-1	1.031780E+0	1.034888E+0	9.874872E-1	1.008332E+0	1.082421E+0	1.082547E+0	1.058973E+0	9.797433E-1	1.061859E+0	1.105730E+0	1.115864E+0	9.944416E-1	1.056421E+0	1.112195E+0	8.968069E-1	9.496589E-1	1.027727E+0	1.088203E+0	9.763734E-1	9.905145E-1	1.045485E+0	1.109358E+0	1.095797E+0	9.915455E-1	1.077789E+0	1.155515E+0	1.141528E+0	9.829458E-1	9.945480E-1	1.080638E+0	1.063474E+0	1.042606E+0	9.212149E-1	1.003559E+0	9.764527E-1	9.924301E-1	9.506145E-1	1.032100E+0	1.065687E+0	9.976787E-1	1.047884E+0	1.125068E+0	1.075616E+0	9.634650E-1	1.043704E+0	1.044485E+0	9.981394E-1	9.054029E-1	9.942691E-1	9.873093E-1	1.024969E+0	1.012898E+0	1.032553E+0	9.379812E-1	1.095932E+0	9.862394E-1	1.010268E+0	1.049152E+0	1.128419E+0	9.876500E-1	9.513220E-1	1.049015E+0	1.036851E+0	1.023824E+0	9.347940E-1	9.684274E-1	9.733971E-1	1.005968E+0	1.068673E+0	1.140233E+0
5.422730E+2	9.470524E-1	8.860432E-1	9.683757E-1	9.435956E-1	9.220581E-1	8.949116E-1	9.266900E-1	9.054643E-1	9.247167E-1	9.685098E-1	9.909141E-1	9.588363E-1	9.467953E-1	1.015971E+0	9.528778E-1	1.049028E+0	8.329076E-1	8.771627E-1	9.568694E-1	9.979687E-1	9.484807E-1	9.134630E-1	9.383141E-1	9.372963E-1	9.854675E-1	9.680658E-1	9.335082E-1	9.803774E-1	9.464901E-1	9.863633E-1	1.079107E+0	1.042441E+0	9.343041E-1	9.339426E-1	7.801161E-1	9.706831E-1	9.277337E-1	9.502123E-1	9.227573E-1	8.983887E-1	8.931359E-1	1.007592E+0	9.149058E-1	9.498613E-1	9.482095E-1	9.807493E-1	1.037208E+0	1.034053E+0	9.765750E-1	9.461797E-1	9.237624E-1	9.600211E-1	9.157240E-1	1.005125E+0	9.295458E-1	9.309879E-1	7.234203E-1	1.061949E+0	1.002387E+0	9.501464E-1	9.692765E-1	1.048435E+0	1.041086E+0	1.045925E+0	9.322608E-1	9.852935E-1	9.264854E-1	9.568234E-1	9.399546E-1	9.545726E-1	9.655253E-1	8.823847E-1	7.282949E-1	9.548018E-1	9.707464E-1	9.478255E-1	9.214236E-1	9.971832E-1	1.058021E+0	1.020209E+0	9.699228E-1	9.726516E-1	9.693985E-1	7.702390E-1	8.895981E-1	8.985286E-1	9.393821E-1	8.937374E-1	9.402877E-1	9.486851E-1	1.017185E+0	9.167927E-1	9.931878E-1	9.919454E-1	1.037723E+0	9.720419E-1	9.603404E-1	9.599945E-1	9.429416E-1	8.269324E-1	9.033879E-1	9.860445E-1	8.976664E-1	9.693421E-1	9.424182E-1	9.881423E-1	1.015997E+0	9.483930E-1	1.024646E+0	1.027392E+0	1.027765E+0	9.312150E-1	9.031788E-1	1.044236E+0	8.114304E-1	8.446145E-1	9.495361E-1	1.016343E+0	9.201910E-1	8.871285E-1	9.430661E-1	1.004421E+0	9.792954E-1	8.973384E-1	9.996977E-1	1.041346E+0	9.950303E-1	9.051047E-1	9.678781E-1	9.983426E-1	9.714447E-1	9.209540E-1	8.859523E-1	9.481371E-1	8.869223E-1	9.430821E-1	9.268551E-1	9.556163E-1	9.351014E-1	9.161484E-1	9.903626E-1	1.062453E+0	9.894424E-1	8.999262E-1	9.133587E-1	9.937079E-1	9.074411E-1	8.635553E-1	8.982527E-1	9.149391E-1	8.869228E-1	9.121153E-1	9.665209E-1	8.526498E-1	1.006044E+0	9.128107E-1	9.805457E-1	1.038888E+0	1.052562E+0	9.376375E-1	8.937776E-1	9.280041E-1	9.377314E-1	8.979392E-1	8.855243E-1	8.770892E-1	9.674119E-1	9.146070E-1	9.085978E-1	9.558292E-1
5.425300E+2	9.309442E-1	9.158549E-1	9.182732E-1	9.619045E-1	9.015335E-1	8.743263E-1	9.332356E-1	8.962823E-1	8.929670E-1	9.385721E-1	9.541095E-1	9.578199E-1	9.496076E-1	9.872130E-1	1.027754E+0	1.070522E+0	7.805810E-1	8.720775E-1	8.799120E-1	1.023769E+0	9.964170E-1	8.869820E-1	9.130325E-1	9.684503E-1	9.514071E-1	9.801372E-1	9.487798E-1	9.809096E-1	9.622566E-1	9.948479E-1	1.076863E+0	1.036290E+0	9.719013E-1	9.521795E-1	7.900471E-1	9.555548E-1	8.721834E-1	9.224965E-1	8.848346E-1	8.636289E-1	8.813344E-1	9.743051E-1	9.202054E-1	9.514863E-1	9.826216E-1	1.014305E+0	1.034539E+0	1.000830E+0	9.603172E-1	9.122950E-1	9.083555E-1	9.506875E-1	9.256679E-1	9.859081E-1	8.688021E-1	9.177757E-1	7.528282E-1	1.049571E+0	9.506782E-1	9.466438E-1	9.847413E-1	1.022998E+0	1.040573E+0	1.043502E+0	8.865547E-1	1.002828E+0	9.304685E-1	9.498970E-1	9.322629E-1	9.346698E-1	9.670201E-1	8.726086E-1	7.113163E-1	9.750400E-1	9.805945E-1	9.530202E-1	8.747141E-1	1.039176E+0	9.985119E-1	1.013147E+0	9.687076E-1	9.625620E-1	9.120200E-1	7.808761E-1	9.071222E-1	8.769181E-1	9.437710E-1	8.619223E-1	9.279973E-1	9.757501E-1	9.946474E-1	8.972822E-1	9.730402E-1	1.029161E+0	9.983961E-1	1.004024E+0	9.921396E-1	9.108953E-1	9.354188E-1	8.083687E-1	9.256709E-1	9.646134E-1	8.976663E-1	9.084531E-1	9.424183E-1	9.852639E-1	9.945081E-1	9.725083E-1	1.027883E+0	1.041729E+0	1.007716E+0	1.019937E+0	9.532042E-1	1.015291E+0	7.997640E-1	9.444933E-1	9.181574E-1	9.601292E-1	9.171811E-1	9.279139E-1	9.919116E-1	1.020934E+0	9.867928E-1	9.945647E-1	9.357130E-1	1.039745E+0	1.019361E+0	1.046961E+0	9.376529E-1	9.749115E-1	9.651341E-1	9.512298E-1	8.859524E-1	9.064436E-1	8.703618E-1	9.119400E-1	9.438262E-1	9.654674E-1	9.716877E-1	9.387953E-1	9.449508E-1	1.021245E+0	1.015694E+0	9.706855E-1	9.292411E-1	9.341003E-1	9.743018E-1	8.652071E-1	8.660799E-1	9.174871E-1	9.320218E-1	9.130402E-1	8.987505E-1	8.621313E-1	9.833137E-1	9.417196E-1	1.027560E+0	1.046872E+0	1.097754E+0	9.447823E-1	9.477992E-1	9.274490E-1	9.529334E-1	8.832332E-1	8.825080E-1	8.860644E-1	9.394797E-1	8.910293E-1	9.379258E-1	1.041598E+0
5.427650E+2	9.678363E-1	9.450593E-1	9.721472E-1	9.861207E-1	9.344816E-1	9.458602E-1	9.665087E-1	9.063389E-1	9.521607E-1	9.995565E-1	1.036920E+0	1.047770E+0	9.346072E-1	1.056026E+0	1.093644E+0	1.048134E+0	8.505174E-1	9.551366E-1	9.758214E-1	1.089095E+0	9.928853E-1	9.234556E-1	9.919099E-1	9.763490E-1	1.034287E+0	1.024582E+0	9.746248E-1	1.040468E+0	1.017198E+0	1.065155E+0	1.057788E+0	1.061335E+0	1.019392E+0	9.881466E-1	8.019651E-1	9.821592E-1	9.440424E-1	9.315670E-1	9.816373E-1	9.303185E-1	9.739773E-1	1.011679E+0	9.779171E-1	1.025123E+0	9.929454E-1	1.061991E+0	1.098063E+0	1.068154E+0	9.789846E-1	9.145540E-1	9.802558E-1	1.024838E+0	9.574891E-1	1.011530E+0	9.907685E-1	9.640189E-1	7.670422E-1	1.113819E+0	1.013183E+0	9.997669E-1	9.991752E-1	1.099310E+0	1.070874E+0	1.072568E+0	9.779674E-1	9.966061E-1	1.000455E+0	1.032440E+0	1.010717E+0	1.007812E+0	9.720018E-1	9.121394E-1	8.476295E-1	1.043624E+0	1.067486E+0	1.009581E+0	9.655386E-1	1.078608E+0	1.134971E+0	1.074536E+0	1.005165E+0	9.992037E-1	9.557371E-1	8.685052E-1	9.564083E-1	9.368382E-1	9.920518E-1	9.378244E-1	9.372152E-1	1.009311E+0	9.811242E-1	9.781938E-1	1.026288E+0	1.035279E+0	1.097749E+0	1.099969E+0	1.058139E+0	9.733850E-1	9.684035E-1	8.279931E-1	9.559115E-1	1.011463E+0	9.443938E-1	9.826950E-1	1.042904E+0	1.043403E+0	1.067927E+0	1.018328E+0	1.057544E+0	1.109825E+0	1.039309E+0	1.085713E+0	1.050722E+0	1.031022E+0	8.427175E-1	9.542518E-1	9.773152E-1	1.034888E+0	9.141715E-1	9.402446E-1	9.919118E-1	1.089650E+0	1.048504E+0	1.054954E+0	1.043026E+0	1.074956E+0	1.049902E+0	1.063861E+0	9.690632E-1	9.840553E-1	1.009308E+0	1.007927E+0	9.105882E-1	9.827122E-1	1.002846E+0	1.005845E+0	9.760705E-1	1.054697E+0	9.947653E-1	1.048069E+0	1.038802E+0	1.035160E+0	1.069910E+0	1.043370E+0	9.730548E-1	1.020201E+0	9.894188E-1	1.002313E+0	9.505340E-1	9.572395E-1	9.534709E-1	9.736021E-1	9.039643E-1	9.073062E-1	1.066486E+0	9.931780E-1	9.713588E-1	1.062267E+0	1.068164E+0	1.085633E+0	9.460377E-1	9.585352E-1	1.047189E+0	1.009118E+0	8.825076E-1	9.816269E-1	9.946791E-1	9.897591E-1	9.440340E-1	9.258097E-1
5.430070E+2	1.104493E+0	1.116026E+0	1.181177E+0	1.156220E+0	1.088421E+0	1.039009E+0	1.113237E+0	1.100918E+0	1.124361E+0	1.114318E+0	1.172636E+0	1.138229E+0	1.094927E+0	1.191597E+0	1.223931E+0	1.260369E+0	9.918993E-1	1.109389E+0	1.100446E+0	1.198888E+0	1.126100E+0	1.060856E+0	1.072304E+0	1.105795E+0	1.164853E+0	1.144746E+0	1.102088E+0	1.187238E+0	1.135207E+0	1.198493E+0	1.201414E+0	1.286724E+0	1.183633E+0	1.111750E+0	9.514348E-1	1.127180E+0	1.089798E+0	1.056541E+0	1.075446E+0	1.121091E+0	1.099075E+0	1.175777E+0	1.103350E+0	1.133414E+0	1.148949E+0	1.210344E+0	1.232054E+0	1.268809E+0	1.163247E+0	1.039927E+0	1.126340E+0	1.199065E+0	1.086762E+0	1.209572E+0	1.067296E+0	1.110234E+0	8.704588E-1	1.199287E+0	1.186491E+0	1.139870E+0	1.129595E+0	1.218193E+0	1.227002E+0	1.252295E+0	1.087545E+0	1.143670E+0	1.102874E+0	1.126528E+0	1.120450E+0	1.116281E+0	1.127935E+0	1.029457E+0	1.118800E+0	1.147624E+0	1.166542E+0	1.151560E+0	1.081794E+0	1.199463E+0	1.239624E+0	1.177214E+0	1.101166E+0	1.116561E+0	1.133882E+0	9.490433E-1	1.067030E+0	1.096952E+0	1.141769E+0	1.053722E+0	1.075485E+0	1.177653E+0	1.154667E+0	1.055088E+0	1.169719E+0	1.177005E+0	1.207969E+0	1.253175E+0	1.139138E+0	1.172016E+0	1.110182E+0	9.361937E-1	1.051940E+0	1.087222E+0	1.090289E+0	1.166964E+0	1.149034E+0	1.188465E+0	1.171785E+0	1.216676E+0	1.129273E+0	1.217859E+0	1.185734E+0	1.225423E+0	1.165971E+0	1.174490E+0	9.927878E-1	1.082256E+0	1.112605E+0	1.187882E+0	1.100775E+0	1.030826E+0	1.150530E+0	1.199913E+0	1.220373E+0	1.170901E+0	1.223394E+0	1.269681E+0	1.209857E+0	1.217497E+0	1.105967E+0	1.108069E+0	1.129209E+0	1.167560E+0	1.051154E+0	1.086946E+0	1.063397E+0	1.111249E+0	1.073371E+0	1.176375E+0	1.155183E+0	1.142622E+0	1.174028E+0	1.197849E+0	1.194890E+0	1.223880E+0	1.100661E+0	1.135553E+0	1.142908E+0	1.093166E+0	1.060626E+0	1.084143E+0	1.084918E+0	1.079470E+0	1.069623E+0	1.009370E+0	1.143976E+0	1.162006E+0	1.158877E+0	1.180872E+0	1.161237E+0	1.263227E+0	1.057017E+0	1.098419E+0	1.075769E+0	1.100885E+0	1.056962E+0	1.135794E+0	1.083798E+0	1.159219E+0	1.128551E+0	1.116647E+0
5.433020E+2	1.257777E+0	1.262655E+0	1.289463E+0	1.309783E+0	1.193207E+0	1.210897E+0	1.306330E+0	1.218981E+0	1.214227E+0	1.296162E+0	1.367010E+0	1.274932E+0	1.215398E+0	1.379033E+0	1.416610E+0	1.418873E+0	1.123722E+0	1.247821E+0	1.193484E+0	1.385532E+0	1.311790E+0	1.212747E+0	1.281128E+0	1.287894E+0	1.401571E+0	1.342275E+0	1.222501E+0	1.341983E+0	1.292870E+0	1.406988E+0	1.420223E+0	1.458069E+0	1.299885E+0	1.304247E+0	1.086007E+0	1.286807E+0	1.227398E+0	1.184035E+0	1.246599E+0	1.200316E+0	1.267839E+0	1.329947E+0	1.325361E+0	1.297474E+0	1.250465E+0	1.359875E+0	1.393803E+0	1.379412E+0	1.266218E+0	1.254530E+0	1.297533E+0	1.354622E+0	1.209074E+0	1.260818E+0	1.229442E+0	1.237951E+0	9.920114E-1	1.385549E+0	1.402983E+0	1.297487E+0	1.301253E+0	1.435190E+0	1.346668E+0	1.421364E+0	1.221734E+0	1.311663E+0	1.268452E+0	1.367233E+0	1.234285E+0	1.252614E+0	1.265932E+0	1.191829E+0	1.247837E+0	1.333138E+0	1.307306E+0	1.291808E+0	1.324165E+0	1.361800E+0	1.406346E+0	1.415164E+0	1.192915E+0	1.288617E+0	1.326235E+0	1.077701E+0	1.186961E+0	1.220722E+0	1.264660E+0	1.183254E+0	1.252677E+0	1.330842E+0	1.296655E+0	1.250769E+0	1.340975E+0	1.390615E+0	1.334226E+0	1.357372E+0	1.346134E+0	1.312063E+0	1.299991E+0	1.073566E+0	1.259914E+0	1.302532E+0	1.259549E+0	1.258832E+0	1.391215E+0	1.306472E+0	1.302503E+0	1.363176E+0	1.344459E+0	1.381702E+0	1.389269E+0	1.345249E+0	1.264755E+0	1.367669E+0	1.059074E+0	1.223463E+0	1.207771E+0	1.343774E+0	1.237221E+0	1.228587E+0	1.287088E+0	1.376229E+0	1.335146E+0	1.360521E+0	1.309546E+0	1.462811E+0	1.393110E+0	1.422855E+0	1.252352E+0	1.312092E+0	1.301697E+0	1.299670E+0	1.139552E+0	1.241516E+0	1.252292E+0	1.254501E+0	1.227807E+0	1.342089E+0	1.276201E+0	1.297192E+0	1.286547E+0	1.322007E+0	1.380936E+0	1.375989E+0	1.233745E+0	1.282365E+0	1.293491E+0	1.296896E+0	1.230539E+0	1.193210E+0	1.216364E+0	1.208453E+0	1.224277E+0	1.114221E+0	1.304120E+0	1.322740E+0	1.248584E+0	1.349085E+0	1.372129E+0	1.397443E+0	1.217906E+0	1.285484E+0	1.312318E+0	1.275006E+0	1.191195E+0	1.216044E+0	1.252724E+0	1.232898E+0	1.271518E+0	1.341792E+0
5.435270E+2	1.455226E+0	1.372171E+0	1.445696E+0	1.417868E+0	1.481641E+0	1.385358E+0	1.400694E+0	1.333102E+0	1.438088E+0	1.422012E+0	1.496977E+0	1.489899E+0	1.449313E+0	1.572632E+0	1.527928E+0	1.527677E+0	1.208251E+0	1.386254E+0	1.384156E+0	1.522219E+0	1.430877E+0	1.347647E+0	1.396913E+0	1.413826E+0	1.470827E+0	1.507433E+0	1.433961E+0	1.528103E+0	1.414698E+0	1.517294E+0	1.536356E+0	1.633811E+0	1.417622E+0	1.422787E+0	1.188799E+0	1.417744E+0	1.380292E+0	1.369479E+0	1.405776E+0	1.295293E+0	1.380546E+0	1.496963E+0	1.377184E+0	1.390060E+0	1.405320E+0	1.543553E+0	1.524590E+0	1.533293E+0	1.417964E+0	1.420002E+0	1.444187E+0	1.445368E+0	1.322438E+0	1.534664E+0	1.347103E+0	1.379764E+0	1.303732E+0	1.552361E+0	1.454122E+0	1.479036E+0	1.424972E+0	1.570168E+0	1.586509E+0	1.501297E+0	1.372329E+0	1.450243E+0	1.443703E+0	1.431302E+0	1.399912E+0	1.380986E+0	1.415388E+0	1.312124E+0	1.387060E+0	1.441637E+0	1.497307E+0	1.425709E+0	1.396306E+0	1.578934E+0	1.511514E+0	1.539573E+0	1.364868E+0	1.411284E+0	1.445911E+0	1.146588E+0	1.293201E+0	1.332703E+0	1.363171E+0	1.305515E+0	1.371484E+0	1.462375E+0	1.489357E+0	1.429808E+0	1.470018E+0	1.467084E+0	1.505509E+0	1.505419E+0	1.462531E+0	1.389619E+0	1.348603E+0	1.197678E+0	1.406342E+0	1.375300E+0	1.384156E+0	1.389690E+0	1.458957E+0	1.456137E+0	1.485152E+0	1.544042E+0	1.485219E+0	1.537353E+0	1.486481E+0	1.559914E+0	1.423697E+0	1.513654E+0	1.211796E+0	1.364097E+0	1.380100E+0	1.478800E+0	1.387708E+0	1.341933E+0	1.500852E+0	1.523782E+0	1.498364E+0	1.455333E+0	1.447591E+0	1.583913E+0	1.501816E+0	1.570345E+0	1.425406E+0	1.416677E+0	1.395305E+0	1.467559E+0	1.410542E+0	1.403204E+0	1.312841E+0	1.358468E+0	1.363007E+0	1.481149E+0	1.473769E+0	1.518003E+0	1.418747E+0	1.514668E+0	1.486511E+0	1.552166E+0	1.361900E+0	1.423657E+0	1.431284E+0	1.365726E+0	1.327059E+0	1.365982E+0	1.362110E+0	1.402622E+0	1.393990E+0	1.254210E+0	1.464784E+0	1.441848E+0	1.417187E+0	1.527564E+0	1.484033E+0	1.530637E+0	1.351785E+0	1.393728E+0	1.442451E+0	1.415598E+0	1.354086E+0	1.341702E+0	1.440270E+0	1.341206E+0	1.419375E+0	1.449002E+0
5.437690E+2	1.658914E+0	1.475603E+0	1.555060E+0	1.548394E+0	1.686890E+0	1.446086E+0	1.503787E+0	1.443293E+0	1.574769E+0	1.514042E+0	1.650520E+0	1.565112E+0	1.535565E+0	1.626555E+0	1.666197E+0	1.681259E+0	1.330009E+0	1.493606E+0	1.509927E+0	1.636954E+0	1.598400E+0	1.444577E+0	1.586016E+0	1.543272E+0	1.594583E+0	1.679725E+0	1.510908E+0	1.544589E+0	1.538918E+0	1.641546E+0	1.660907E+0	1.728713E+0	1.569992E+0	1.493708E+0	1.322874E+0	1.532506E+0	1.690656E+0	1.474800E+0	1.442700E+0	1.385427E+0	1.663787E+0	1.582808E+0	1.520871E+0	1.517301E+0	1.529210E+0	1.647751E+0	1.698619E+0	1.677121E+0	1.590785E+0	1.506972E+0	1.534347E+0	1.564629E+0	1.594903E+0	1.636084E+0	1.459023E+0	1.518051E+0	1.584088E+0	1.649027E+0	1.606408E+0	1.636072E+0	1.581167E+0	1.657382E+0	1.648653E+0	1.609324E+0	1.510621E+0	1.562804E+0	1.475567E+0	1.551943E+0	1.508619E+0	1.509358E+0	1.517515E+0	1.422216E+0	1.528711E+0	1.601852E+0	1.600996E+0	1.526132E+0	1.507374E+0	1.647043E+0	1.669004E+0	1.618888E+0	1.512517E+0	1.567939E+0	1.545912E+0	1.277782E+0	1.380272E+0	1.476119E+0	1.499235E+0	1.380960E+0	1.481589E+0	1.595536E+0	1.507951E+0	1.461943E+0	1.500716E+0	1.611871E+0	1.660748E+0	1.621483E+0	1.508732E+0	1.557004E+0	1.526258E+0	1.330278E+0	1.496537E+0	1.522824E+0	1.495784E+0	1.532300E+0	1.633958E+0	1.514277E+0	1.556782E+0	1.592873E+0	1.653483E+0	1.640779E+0	1.666322E+0	1.699626E+0	1.509814E+0	1.626289E+0	1.297170E+0	1.511046E+0	1.485550E+0	1.590650E+0	1.465963E+0	1.480413E+0	1.486672E+0	1.689974E+0	1.572186E+0	1.569469E+0	1.574052E+0	1.639929E+0	1.615700E+0	1.618485E+0	1.470449E+0	1.536119E+0	1.527827E+0	1.485174E+0	1.434212E+0	1.506421E+0	1.429800E+0	1.505077E+0	1.490857E+0	1.579073E+0	1.505852E+0	1.545180E+0	1.510579E+0	1.662906E+0	1.617199E+0	1.613298E+0	1.479099E+0	1.485475E+0	1.538843E+0	1.562848E+0	1.429611E+0	1.453130E+0	1.459458E+0	1.458565E+0	1.443801E+0	1.389178E+0	1.604780E+0	1.541291E+0	1.513379E+0	1.629630E+0	1.630366E+0	1.650570E+0	1.427534E+0	1.496423E+0	1.545217E+0	1.576187E+0	1.425979E+0	1.406642E+0	1.524734E+0	1.462775E+0	1.468253E+0	1.635552E+0
5.440170E+2	1.738414E+0	1.523669E+0	1.617551E+0	1.629902E+0	1.738202E+0	1.500639E+0	1.576879E+0	1.503200E+0	1.603828E+0	1.519031E+0	1.713206E+0	1.612375E+0	1.589008E+0	1.791393E+0	1.725099E+0	1.753346E+0	1.335042E+0	1.558587E+0	1.553003E+0	1.696237E+0	1.737669E+0	1.553499E+0	1.557198E+0	1.577938E+0	1.724013E+0	1.692890E+0	1.538513E+0	1.670617E+0	1.618705E+0	1.745790E+0	1.688400E+0	1.736619E+0	1.627868E+0	1.544362E+0	1.327344E+0	1.619624E+0	1.755378E+0	1.508061E+0	1.487111E+0	1.487282E+0	1.668507E+0	1.708948E+0	1.613327E+0	1.587147E+0	1.662268E+0	1.758426E+0	1.709827E+0	1.680615E+0	1.695561E+0	1.584341E+0	1.635924E+0	1.611814E+0	1.794780E+0	1.641953E+0	1.565208E+0	1.470926E+0	1.663977E+0	1.691463E+0	1.674025E+0	1.627898E+0	1.681172E+0	1.665687E+0	1.723634E+0	1.701368E+0	1.684655E+0	1.650476E+0	1.583107E+0	1.587153E+0	1.750137E+0	1.532743E+0	1.534455E+0	1.520830E+0	1.667934E+0	1.636705E+0	1.661820E+0	1.665802E+0	1.611170E+0	1.698767E+0	1.762371E+0	1.712875E+0	1.667456E+0	1.589179E+0	1.634438E+0	1.267649E+0	1.695705E+0	1.493309E+0	1.541661E+0	1.445046E+0	1.652632E+0	1.654538E+0	1.585144E+0	1.564659E+0	1.695477E+0	1.672028E+0	1.770448E+0	1.669453E+0	1.620329E+0	1.549752E+0	1.576602E+0	1.324973E+0	1.533675E+0	1.556715E+0	1.511877E+0	1.557934E+0	1.609122E+0	1.620771E+0	1.611097E+0	1.687526E+0	1.648631E+0	1.678155E+0	1.719180E+0	1.768460E+0	1.553508E+0	1.721308E+0	1.508223E+0	1.555242E+0	1.534936E+0	1.699600E+0	1.524150E+0	1.495590E+0	1.543920E+0	1.652686E+0	1.691570E+0	1.664884E+0	1.614355E+0	1.684209E+0	1.742528E+0	1.715274E+0	1.555791E+0	1.532691E+0	1.615123E+0	1.602973E+0	1.478169E+0	1.546083E+0	1.482585E+0	1.495492E+0	1.527062E+0	1.594139E+0	1.519361E+0	1.596701E+0	1.606953E+0	1.741039E+0	1.710793E+0	1.715826E+0	1.558510E+0	1.563846E+0	1.523145E+0	1.518250E+0	1.487422E+0	1.528562E+0	1.497409E+0	1.545014E+0	1.524314E+0	1.370775E+0	1.632677E+0	1.573668E+0	1.551747E+0	1.690073E+0	1.657802E+0	1.740896E+0	1.512674E+0	1.487541E+0	1.581093E+0	1.505011E+0	1.443573E+0	1.512763E+0	1.553996E+0	1.455407E+0	1.614887E+0	1.575513E+0
5.442810E+2	1.734776E+0	1.549220E+0	1.630485E+0	1.539534E+0	1.724159E+0	1.494461E+0	1.579607E+0	1.534681E+0	1.573696E+0	1.545091E+0	1.661447E+0	1.616947E+0	1.548693E+0	1.696392E+0	1.691658E+0	1.731852E+0	1.346109E+0	1.512819E+0	1.548980E+0	1.673181E+0	1.669047E+0	1.484048E+0	1.550118E+0	1.584520E+0	1.612182E+0	1.637474E+0	1.551436E+0	1.645623E+0	1.547997E+0	1.786400E+0	1.676619E+0	1.696201E+0	1.646669E+0	1.540819E+0	1.283646E+0	1.598758E+0	1.660590E+0	1.514611E+0	1.520043E+0	1.468689E+0	1.653756E+0	1.617261E+0	1.525581E+0	1.590399E+0	1.596888E+0	1.677188E+0	1.678329E+0	1.678429E+0	1.730487E+0	1.502454E+0	1.613096E+0	1.592111E+0	1.717713E+0	1.677187E+0	1.556120E+0	1.542274E+0	1.670351E+0	1.725653E+0	1.621750E+0	1.579444E+0	1.593022E+0	1.731099E+0	1.710795E+0	1.724137E+0	1.644808E+0	1.627283E+0	1.527915E+0	1.613131E+0	1.755263E+0	1.547173E+0	1.538440E+0	1.432841E+0	1.611180E+0	1.583864E+0	1.688469E+0	1.620782E+0	1.612727E+0	1.716178E+0	1.692091E+0	1.716133E+0	1.699054E+0	1.530236E+0	1.594002E+0	1.264102E+0	1.658470E+0	1.520322E+0	1.498258E+0	1.405048E+0	1.660827E+0	1.709207E+0	1.593031E+0	1.528511E+0	1.593300E+0	1.646541E+0	1.656606E+0	1.617871E+0	1.664729E+0	1.514598E+0	1.525678E+0	1.354674E+0	1.683288E+0	1.495415E+0	1.563279E+0	1.603870E+0	1.712430E+0	1.629981E+0	1.574688E+0	1.641707E+0	1.652950E+0	1.708877E+0	1.629867E+0	1.726652E+0	1.661159E+0	1.682294E+0	1.594131E+0	1.518507E+0	1.690290E+0	1.597025E+0	1.512612E+0	1.503178E+0	1.674176E+0	1.676657E+0	1.577954E+0	1.597248E+0	1.625943E+0	1.626060E+0	1.670056E+0	1.716299E+0	1.686172E+0	1.572691E+0	1.513103E+0	1.629392E+0	1.615353E+0	1.520658E+0	1.529680E+0	1.468662E+0	1.590419E+0	1.579071E+0	1.557637E+0	1.557069E+0	1.570119E+0	1.709464E+0	1.641742E+0	1.681168E+0	1.522366E+0	1.545081E+0	1.562098E+0	1.512740E+0	1.458766E+0	1.514292E+0	1.504558E+0	1.512652E+0	1.471026E+0	1.385272E+0	1.680204E+0	1.570200E+0	1.466903E+0	1.657001E+0	1.717520E+0	1.658733E+0	1.530292E+0	1.524178E+0	1.573800E+0	1.533836E+0	1.423463E+0	1.462605E+0	1.528724E+0	1.512140E+0	1.551347E+0	1.539062E+0
5.445240E+2	1.656316E+0	1.430579E+0	1.521658E+0	1.510597E+0	1.659345E+0	1.436307E+0	1.534332E+0	1.422306E+0	1.460688E+0	1.536219E+0	1.616591E+0	1.463474E+0	1.489628E+0	1.592661E+0	1.668198E+0	1.666928E+0	1.329002E+0	1.390774E+0	1.437566E+0	1.634755E+0	1.648861E+0	1.497537E+0	1.477309E+0	1.493250E+0	1.556550E+0	1.565046E+0	1.462156E+0	1.615313E+0	1.572363E+0	1.603360E+0	1.620513E+0	1.712896E+0	1.591261E+0	1.508398E+0	1.228524E+0	1.511120E+0	1.677409E+0	1.440531E+0	1.393801E+0	1.375323E+0	1.588256E+0	1.590985E+0	1.489073E+0	1.488605E+0	1.493648E+0	1.686017E+0	1.601995E+0	1.613729E+0	1.613066E+0	1.462355E+0	1.554323E+0	1.535591E+0	1.652085E+0	1.652100E+0	1.434629E+0	1.474891E+0	1.636530E+0	1.614247E+0	1.552428E+0	1.531579E+0	1.513637E+0	1.653747E+0	1.594728E+0	1.594309E+0	1.605548E+0	1.543005E+0	1.527346E+0	1.523660E+0	1.635273E+0	1.481991E+0	1.444281E+0	1.412864E+0	1.566062E+0	1.541699E+0	1.638071E+0	1.515744E+0	1.501145E+0	1.607613E+0	1.621809E+0	1.649856E+0	1.562339E+0	1.541918E+0	1.459026E+0	1.216995E+0	1.655184E+0	1.379853E+0	1.476801E+0	1.381417E+0	1.610129E+0	1.571177E+0	1.550773E+0	1.412590E+0	1.602416E+0	1.619009E+0	1.674719E+0	1.595689E+0	1.568128E+0	1.524640E+0	1.470703E+0	1.247003E+0	1.656763E+0	1.415167E+0	1.415308E+0	1.487434E+0	1.667265E+0	1.545361E+0	1.528131E+0	1.623622E+0	1.589847E+0	1.640264E+0	1.613462E+0	1.633848E+0	1.653561E+0	1.629434E+0	1.537918E+0	1.467996E+0	1.685147E+0	1.583114E+0	1.427842E+0	1.391729E+0	1.612725E+0	1.584504E+0	1.566997E+0	1.550748E+0	1.550874E+0	1.605786E+0	1.596032E+0	1.612337E+0	1.651800E+0	1.532687E+0	1.525721E+0	1.571048E+0	1.634191E+0	1.458628E+0	1.415828E+0	1.446144E+0	1.607389E+0	1.558213E+0	1.572270E+0	1.518003E+0	1.540351E+0	1.569789E+0	1.589808E+0	1.569974E+0	1.620948E+0	1.523003E+0	1.524886E+0	1.450523E+0	1.691016E+0	1.445490E+0	1.452308E+0	1.425277E+0	1.560227E+0	1.337869E+0	1.563453E+0	1.520477E+0	1.583092E+0	1.622789E+0	1.584635E+0	1.619950E+0	1.531465E+0	1.419820E+0	1.505693E+0	1.511479E+0	1.473739E+0	1.419314E+0	1.470201E+0	1.429620E+0	1.457256E+0	1.562648E+0
5.447720E+2	1.531093E+0	1.350876E+0	1.469400E+0	1.420820E+0	1.543216E+0	1.350365E+0	1.448695E+0	1.350157E+0	1.416562E+0	1.418130E+0	1.557359E+0	1.439079E+0	1.397749E+0	1.465310E+0	1.559375E+0	1.563496E+0	1.244476E+0	1.388512E+0	1.469154E+0	1.552962E+0	1.547441E+0	1.369134E+0	1.376185E+0	1.417337E+0	1.460609E+0	1.456954E+0	1.418100E+0	1.483435E+0	1.450532E+0	1.482142E+0	1.501571E+0	1.567030E+0	1.500235E+0	1.418230E+0	1.440068E+0	1.459998E+0	1.583636E+0	1.332189E+0	1.400285E+0	1.328841E+0	1.505055E+0	1.537841E+0	1.437837E+0	1.424173E+0	1.436866E+0	1.487036E+0	1.539538E+0	1.512309E+0	1.495643E+0	1.324560E+0	1.454460E+0	1.422034E+0	1.536735E+0	1.466869E+0	1.339926E+0	1.389015E+0	1.535563E+0	1.544105E+0	1.520605E+0	1.442843E+0	1.516731E+0	1.537462E+0	1.536177E+0	1.510015E+0	1.426826E+0	1.482483E+0	1.380546E+0	1.431303E+0	1.574254E+0	1.401388E+0	1.373540E+0	1.316799E+0	1.453034E+0	1.492230E+0	1.469504E+0	1.445909E+0	1.381254E+0	1.506723E+0	1.541782E+0	1.549896E+0	1.501582E+0	1.421373E+0	1.421868E+0	1.198761E+0	1.569207E+0	1.349892E+0	1.358296E+0	1.325513E+0	1.463154E+0	1.431521E+0	1.496680E+0	1.391361E+0	1.459462E+0	1.444656E+0	1.520514E+0	1.547202E+0	1.506331E+0	1.403567E+0	1.422672E+0	1.187601E+0	1.528368E+0	1.420654E+0	1.381561E+0	1.433486E+0	1.548718E+0	1.469955E+0	1.477990E+0	1.495810E+0	1.465267E+0	1.511241E+0	1.516251E+0	1.543089E+0	1.468657E+0	1.489114E+0	1.435578E+0	1.401407E+0	1.605924E+0	1.426066E+0	1.327012E+0	1.324860E+0	1.509259E+0	1.557872E+0	1.442998E+0	1.496398E+0	1.476310E+0	1.542834E+0	1.545303E+0	1.547300E+0	1.514305E+0	1.422390E+0	1.398462E+0	1.433984E+0	1.526957E+0	1.409814E+0	1.385294E+0	1.389611E+0	1.476716E+0	1.488680E+0	1.431554E+0	1.417787E+0	1.449527E+0	1.538211E+0	1.527030E+0	1.501621E+0	1.520720E+0	1.399376E+0	1.451632E+0	1.337644E+0	1.557802E+0	1.394013E+0	1.334061E+0	1.403085E+0	1.427005E+0	1.201784E+0	1.489580E+0	1.353384E+0	1.435562E+0	1.470543E+0	1.562042E+0	1.500020E+0	1.500932E+0	1.392618E+0	1.412654E+0	1.442659E+0	1.527031E+0	1.306327E+0	1.385071E+0	1.414884E+0	1.528129E+0	1.391110E+0
5.450150E+2	1.444318E+0	1.311937E+0	1.328792E+0	1.340495E+0	1.492443E+0	1.219647E+0	1.322148E+0	1.234719E+0	1.316471E+0	1.356593E+0	1.450972E+0	1.382670E+0	1.360716E+0	1.459143E+0	1.414615E+0	1.449769E+0	1.162968E+0	1.344439E+0	1.320983E+0	1.491477E+0	1.434913E+0	1.262210E+0	1.318038E+0	1.388379E+0	1.386243E+0	1.436103E+0	1.344090E+0	1.427065E+0	1.345424E+0	1.485779E+0	1.427513E+0	1.470809E+0	1.390415E+0	1.317418E+0	1.376504E+0	1.353058E+0	1.466416E+0	1.274740E+0	1.268554E+0	1.211226E+0	1.388806E+0	1.395351E+0	1.303572E+0	1.381398E+0	1.350835E+0	1.414035E+0	1.478146E+0	1.435370E+0	1.409534E+0	1.295194E+0	1.348889E+0	1.323513E+0	1.462150E+0	1.427366E+0	1.258138E+0	1.287718E+0	1.494883E+0	1.445670E+0	1.358662E+0	1.413072E+0	1.365175E+0	1.417024E+0	1.432434E+0	1.462540E+0	1.351232E+0	1.357478E+0	1.327059E+0	1.311241E+0	1.458880E+0	1.314811E+0	1.330198E+0	1.255167E+0	1.399188E+0	1.378672E+0	1.381451E+0	1.323553E+0	1.356864E+0	1.436570E+0	1.489456E+0	1.439614E+0	1.405577E+0	1.293397E+0	1.360116E+0	1.113665E+0	1.537442E+0	1.249208E+0	1.257833E+0	1.192800E+0	1.403748E+0	1.382264E+0	1.353564E+0	1.236422E+0	1.380311E+0	1.360536E+0	1.385975E+0	1.440423E+0	1.400131E+0	1.337730E+0	1.290733E+0	1.149411E+0	1.505554E+0	1.296050E+0	1.264222E+0	1.332537E+0	1.501860E+0	1.345614E+0	1.376518E+0	1.440344E+0	1.394073E+0	1.494858E+0	1.447596E+0	1.513515E+0	1.489554E+0	1.434998E+0	1.383077E+0	1.306122E+0	1.494811E+0	1.377385E+0	1.288385E+0	1.258466E+0	1.438349E+0	1.451869E+0	1.387051E+0	1.390717E+0	1.414342E+0	1.487881E+0	1.483700E+0	1.522717E+0	1.426592E+0	1.361241E+0	1.370061E+0	1.383891E+0	1.462226E+0	1.301005E+0	1.220721E+0	1.286601E+0	1.392990E+0	1.362949E+0	1.335864E+0	1.370229E+0	1.412693E+0	1.449374E+0	1.402052E+0	1.439529E+0	1.376137E+0	1.332038E+0	1.366746E+0	1.339846E+0	1.510042E+0	1.315018E+0	1.279612E+0	1.321719E+0	1.367347E+0	1.211823E+0	1.351131E+0	1.280533E+0	1.382604E+0	1.426636E+0	1.460898E+0	1.448988E+0	1.437514E+0	1.274384E+0	1.272183E+0	1.329713E+0	1.454636E+0	1.258284E+0	1.307924E+0	1.294052E+0	1.430372E+0	1.352512E+0
5.452800E+2	1.341954E+0	1.334449E+0	1.272762E+0	1.241861E+0	1.346067E+0	1.337498E+0	1.288873E+0	1.149891E+0	1.298712E+0	1.347723E+0	1.355508E+0	1.299325E+0	1.296024E+0	1.369278E+0	1.351218E+0	1.374543E+0	1.092527E+0	1.281722E+0	1.210714E+0	1.392120E+0	1.323902E+0	1.223237E+0	1.232080E+0	1.292281E+0	1.271008E+0	1.336789E+0	1.280066E+0	1.337730E+0	1.249871E+0	1.343348E+0	1.374776E+0	1.437422E+0	1.360732E+0	1.243967E+0	1.271232E+0	1.270637E+0	1.380292E+0	1.226362E+0	1.211671E+0	1.150599E+0	1.317405E+0	1.313011E+0	1.247629E+0	1.269857E+0	1.239570E+0	1.362230E+0	1.345223E+0	1.359304E+0	1.363769E+0	1.216693E+0	1.261011E+0	1.262844E+0	1.370167E+0	1.357972E+0	1.203612E+0	1.211528E+0	1.315985E+0	1.379654E+0	1.329117E+0	1.263045E+0	1.293521E+0	1.358362E+0	1.331771E+0	1.351603E+0	1.374675E+0	1.322408E+0	1.234313E+0	1.353377E+0	1.408629E+0	1.185441E+0	1.266427E+0	1.158250E+0	1.325938E+0	1.316273E+0	1.335109E+0	1.262951E+0	1.281090E+0	1.372554E+0	1.367872E+0	1.402671E+0	1.383703E+0	1.253568E+0	1.276509E+0	1.029581E+0	1.363298E+0	1.221210E+0	1.227110E+0	1.147350E+0	1.282377E+0	1.294574E+0	1.285949E+0	1.239292E+0	1.303558E+0	1.298851E+0	1.365276E+0	1.354277E+0	1.325133E+0	1.232832E+0	1.254275E+0	1.076748E+0	1.404751E+0	1.220792E+0	1.186860E+0	1.232127E+0	1.368633E+0	1.292656E+0	1.303101E+0	1.345090E+0	1.290528E+0	1.352516E+0	1.368612E+0	1.389101E+0	1.336310E+0	1.373332E+0	1.255280E+0	1.229778E+0	1.356950E+0	1.329865E+0	1.219661E+0	1.198235E+0	1.380577E+0	1.354921E+0	1.270552E+0	1.320062E+0	1.327684E+0	1.392385E+0	1.403980E+0	1.334772E+0	1.345990E+0	1.253800E+0	1.242273E+0	1.277100E+0	1.392668E+0	1.242533E+0	1.198986E+0	1.222881E+0	1.310399E+0	1.287044E+0	1.289709E+0	1.292093E+0	1.259805E+0	1.362147E+0	1.329003E+0	1.355770E+0	1.279201E+0	1.232140E+0	1.269072E+0	1.228068E+0	1.448212E+0	1.213087E+0	1.204814E+0	1.237579E+0	1.349968E+0	1.304405E+0	1.336666E+0	1.290362E+0	1.302624E+0	1.374176E+0	1.325324E+0	1.332123E+0	1.298937E+0	1.245519E+0	1.187658E+0	1.293829E+0	1.350064E+0	1.222381E+0	1.290632E+0	1.195322E+0	1.337503E+0	1.234580E+0
5.455500E+2	1.300385E+0	1.310112E+0	1.176867E+0	1.189886E+0	1.344447E+0	1.360658E+0	1.209784E+0	1.137210E+0	1.209922E+0	1.303925E+0	1.312953E+0	1.252573E+0	1.228993E+0	1.301491E+0	1.338739E+0	1.381261E+0	1.054792E+0	1.319579E+0	1.202099E+0	1.289464E+0	1.273944E+0	1.308177E+0	1.154217E+0	1.228655E+0	1.286903E+0	1.341178E+0	1.214865E+0	1.282424E+0	1.180596E+0	1.345166E+0	1.273226E+0	1.318795E+0	1.262289E+0	1.252072E+0	1.223558E+0	1.222122E+0	1.330855E+0	1.278770E+0	1.209174E+0	1.142515E+0	1.258987E+0	1.337538E+0	1.196983E+0	1.212463E+0	1.259643E+0	1.289819E+0	1.325472E+0	1.346625E+0	1.284885E+0	1.246060E+0	1.237615E+0	1.233806E+0	1.309507E+0	1.304057E+0	1.120865E+0	1.167926E+0	1.260111E+0	1.289471E+0	1.248995E+0	1.247867E+0	1.241972E+0	1.347976E+0	1.286578E+0	1.307522E+0	1.286775E+0	1.249443E+0	1.206432E+0	1.243128E+0	1.304537E+0	1.235199E+0	1.200670E+0	1.143799E+0	1.266270E+0	1.231948E+0	1.312517E+0	1.216202E+0	1.235418E+0	1.341830E+0	1.278096E+0	1.345627E+0	1.283449E+0	1.199933E+0	1.246453E+0	1.009320E+0	1.353989E+0	1.136735E+0	1.131037E+0	1.102353E+0	1.270600E+0	1.234489E+0	1.249326E+0	1.122802E+0	1.255107E+0	1.259593E+0	1.348199E+0	1.313527E+0	1.309534E+0	1.209955E+0	1.187147E+0	1.021056E+0	1.303948E+0	1.243219E+0	1.208666E+0	1.210227E+0	1.296377E+0	1.271932E+0	1.218940E+0	1.314945E+0	1.305629E+0	1.301318E+0	1.325475E+0	1.272845E+0	1.267921E+0	1.295935E+0	1.255811E+0	1.145398E+0	1.334831E+0	1.226129E+0	1.156457E+0	1.159821E+0	1.324903E+0	1.296329E+0	1.259015E+0	1.292283E+0	1.281334E+0	1.327300E+0	1.280776E+0	1.297897E+0	1.299173E+0	1.196651E+0	1.227550E+0	1.241870E+0	1.308618E+0	1.157113E+0	1.147752E+0	1.186468E+0	1.303044E+0	1.265606E+0	1.230608E+0	1.243969E+0	1.262328E+0	1.235311E+0	1.280493E+0	1.318707E+0	1.266055E+0	1.210062E+0	1.230700E+0	1.201639E+0	1.342141E+0	1.173333E+0	1.120667E+0	1.204757E+0	1.298997E+0	1.274288E+0	1.263828E+0	1.223293E+0	1.248583E+0	1.302898E+0	1.302191E+0	1.300992E+0	1.268404E+0	1.183903E+0	1.219887E+0	1.215004E+0	1.299286E+0	1.137377E+0	1.177571E+0	1.198269E+0	1.272740E+0	1.202417E+0
5.457720E+2	1.318570E+0	1.312545E+0	1.222660E+0	1.220599E+0	1.308256E+0	1.318457E+0	1.184147E+0	1.072498E+0	1.173869E+0	1.257908E+0	1.231868E+0	1.224622E+0	1.188209E+0	1.272733E+0	1.295311E+0	1.273353E+0	1.000453E+0	1.259686E+0	1.165918E+0	1.248293E+0	1.293122E+0	1.319170E+0	1.121855E+0	1.210666E+0	1.183018E+0	1.351603E+0	1.208405E+0	1.227650E+0	1.228848E+0	1.328196E+0	1.193559E+0	1.257725E+0	1.244974E+0	1.265751E+0	1.177874E+0	1.173084E+0	1.307413E+0	1.302455E+0	1.100895E+0	1.082695E+0	1.212961E+0	1.308924E+0	1.198161E+0	1.156152E+0	1.158126E+0	1.279811E+0	1.238461E+0	1.267498E+0	1.195162E+0	1.143276E+0	1.160008E+0	1.223954E+0	1.245866E+0	1.276299E+0	1.175391E+0	1.128292E+0	1.259132E+0	1.296544E+0	1.254677E+0	1.216343E+0	1.282695E+0	1.265434E+0	1.270144E+0	1.260047E+0	1.221147E+0	1.295824E+0	1.165464E+0	1.227542E+0	1.311201E+0	1.330234E+0	1.154836E+0	1.116594E+0	1.230375E+0	1.241505E+0	1.214622E+0	1.217356E+0	1.178328E+0	1.317762E+0	1.275018E+0	1.297820E+0	1.276158E+0	1.250381E+0	1.186888E+0	1.160773E+0	1.271296E+0	1.257067E+0	1.177369E+0	1.111443E+0	1.294668E+0	1.332464E+0	1.189602E+0	1.117637E+0	1.199940E+0	1.238184E+0	1.233323E+0	1.280514E+0	1.255535E+0	1.217769E+0	1.187147E+0	1.000902E+0	1.254076E+0	1.193880E+0	1.170765E+0	1.160020E+0	1.300326E+0	1.194222E+0	1.255350E+0	1.263097E+0	1.280821E+0	1.267524E+0	1.307855E+0	1.307517E+0	1.280586E+0	1.323622E+0	1.182630E+0	1.163766E+0	1.279276E+0	1.207585E+0	1.130373E+0	1.102913E+0	1.271331E+0	1.289402E+0	1.189806E+0	1.236725E+0	1.203745E+0	1.265416E+0	1.272495E+0	1.287657E+0	1.220941E+0	1.172076E+0	1.198626E+0	1.239671E+0	1.261764E+0	1.135758E+0	1.176733E+0	1.130891E+0	1.266274E+0	1.196076E+0	1.208656E+0	1.252462E+0	1.182605E+0	1.292040E+0	1.248535E+0	1.244577E+0	1.237031E+0	1.168668E+0	1.147559E+0	1.136665E+0	1.286341E+0	1.115233E+0	1.157516E+0	1.170545E+0	1.253238E+0	1.231343E+0	1.214234E+0	1.173570E+0	1.197246E+0	1.233332E+0	1.274753E+0	1.259654E+0	1.249614E+0	1.126174E+0	1.193739E+0	1.146768E+0	1.299787E+0	1.145824E+0	1.208164E+0	1.118696E+0	1.247079E+0	1.213137E+0
5.460160E+2	1.227640E+0	1.200596E+0	1.139694E+0	1.128462E+0	1.210491E+0	1.215528E+0	1.155783E+0	1.067687E+0	1.131894E+0	1.202468E+0	1.205990E+0	1.130606E+0	1.083206E+0	1.214191E+0	1.283333E+0	1.262607E+0	9.979371E-1	1.163632E+0	1.137777E+0	1.220295E+0	1.190687E+0	1.247720E+0	1.122867E+0	1.098334E+0	1.175638E+0	1.274238E+0	1.111486E+0	1.206912E+0	1.119441E+0	1.315468E+0	1.201416E+0	1.251576E+0	1.223207E+0	1.148730E+0	1.186316E+0	1.131874E+0	1.229949E+0	1.220316E+0	1.088420E+0	1.053594E+0	1.174016E+0	1.227167E+0	1.126905E+0	1.124750E+0	1.145508E+0	1.241545E+0	1.199489E+0	1.215477E+0	1.237917E+0	1.087365E+0	1.164573E+0	1.138915E+0	1.210567E+0	1.235730E+0	1.085472E+0	1.099224E+0	1.215019E+0	1.226990E+0	1.152966E+0	1.191242E+0	1.138359E+0	1.201063E+0	1.198240E+0	1.190771E+0	1.238727E+0	1.270937E+0	1.092063E+0	1.118447E+0	1.229157E+0	1.295405E+0	1.109003E+0	1.046033E+0	1.203693E+0	1.198219E+0	1.157273E+0	1.105388E+0	1.125909E+0	1.207146E+0	1.200123E+0	1.215242E+0	1.155243E+0	1.292865E+0	1.143172E+0	1.203318E+0	1.271294E+0	1.260014E+0	1.163225E+0	1.080992E+0	1.201464E+0	1.248022E+0	1.148469E+0	1.090093E+0	1.153411E+0	1.217281E+0	1.170193E+0	1.196946E+0	1.166137E+0	1.277468E+0	1.089349E+0	9.393760E-1	1.223838E+0	1.261163E+0	1.104307E+0	1.044118E+0	1.207745E+0	1.229336E+0	1.174770E+0	1.184120E+0	1.186981E+0	1.217860E+0	1.200923E+0	1.250410E+0	1.285019E+0	1.201547E+0	1.150283E+0	1.120715E+0	1.255097E+0	1.271912E+0	1.086731E+0	1.057384E+0	1.189396E+0	1.241995E+0	1.141936E+0	1.147349E+0	1.173514E+0	1.247277E+0	1.218141E+0	1.249246E+0	1.257093E+0	1.222939E+0	1.179167E+0	1.175817E+0	1.218772E+0	1.252703E+0	1.046836E+0	1.087293E+0	1.213664E+0	1.265606E+0	1.150117E+0	1.143188E+0	1.160405E+0	1.251365E+0	1.180623E+0	1.220991E+0	1.176787E+0	1.216134E+0	1.117908E+0	1.074996E+0	1.207415E+0	1.178938E+0	1.087668E+0	1.113218E+0	1.219064E+0	1.248074E+0	1.225599E+0	1.109392E+0	1.145367E+0	1.245306E+0	1.253233E+0	1.218320E+0	1.186785E+0	1.080101E+0	1.144484E+0	1.106767E+0	1.316883E+0	1.132098E+0	1.049880E+0	1.087751E+0	1.194535E+0	1.183119E+0
5.467710E+2	1.319091E+0	1.274216E+0	1.202727E+0	1.190477E+0	1.261806E+0	1.316912E+0	1.214693E+0	1.129777E+0	1.224989E+0	1.271768E+0	1.218642E+0	1.176851E+0	1.172739E+0	1.271708E+0	1.302799E+0	1.307828E+0	1.015044E+0	1.261946E+0	1.155580E+0	1.273545E+0	1.252251E+0	1.317669E+0	1.194665E+0	1.161081E+0	1.209699E+0	1.319781E+0	1.139680E+0	1.303163E+0	1.189673E+0	1.282740E+0	1.260323E+0	1.303419E+0	1.261794E+0	1.275880E+0	1.224055E+0	1.227861E+0	1.276834E+0	1.302960E+0	1.183227E+0	1.099672E+0	1.211781E+0	1.317683E+0	1.204638E+0	1.118252E+0	1.212612E+0	1.302771E+0	1.256077E+0	1.305970E+0	1.271035E+0	1.141581E+0	1.196529E+0	1.230176E+0	1.267247E+0	1.317934E+0	1.119431E+0	1.194354E+0	1.242467E+0	1.295954E+0	1.220016E+0	1.231521E+0	1.230115E+0	1.274777E+0	1.230599E+0	1.230010E+0	1.272714E+0	1.299218E+0	1.135307E+0	1.174438E+0	1.273770E+0	1.305357E+0	1.127436E+0	1.177805E+0	1.212911E+0	1.259496E+0	1.235475E+0	1.221973E+0	1.195455E+0	1.267064E+0	1.230388E+0	1.257616E+0	1.272513E+0	1.254628E+0	1.213666E+0	1.185593E+0	1.258153E+0	1.319933E+0	1.142743E+0	1.131441E+0	1.263941E+0	1.273464E+0	1.212702E+0	1.143460E+0	1.221048E+0	1.266734E+0	1.268510E+0	1.247499E+0	1.238736E+0	1.267426E+0	1.153584E+0	1.039620E+0	1.326761E+0	1.264154E+0	1.175438E+0	1.157350E+0	1.296375E+0	1.269630E+0	1.209390E+0	1.273347E+0	1.241990E+0	1.285957E+0	1.244060E+0	1.309558E+0	1.268554E+0	1.297194E+0	1.197478E+0	1.147694E+0	1.280303E+0	1.282344E+0	1.134387E+0	1.102437E+0	1.261876E+0	1.302187E+0	1.208262E+0	1.148557E+0	1.233972E+0	1.223801E+0	1.278190E+0	1.247198E+0	1.248796E+0	1.307521E+0	1.229653E+0	1.172514E+0	1.301855E+0	1.299479E+0	1.108938E+0	1.108374E+0	1.239120E+0	1.255756E+0	1.235674E+0	1.169799E+0	1.202282E+0	1.221932E+0	1.227990E+0	1.307633E+0	1.211838E+0	1.338108E+0	1.176048E+0	1.194481E+0	1.301925E+0	1.275265E+0	1.127816E+0	1.184878E+0	1.162299E+0	1.255325E+0	1.242128E+0	1.186868E+0	1.182114E+0	1.288643E+0	1.270986E+0	1.262207E+0	1.241393E+0	1.307135E+0	1.160902E+0	1.157944E+0	1.233424E+0	1.247722E+0	1.119046E+0	1.125328E+0	1.244635E+0	1.189552E+0
5.475230E+2	1.385081E+0	1.398941E+0	1.283538E+0	1.319823E+0	1.411424E+0	1.395650E+0	1.252330E+0	1.184873E+0	1.288489E+0	1.373779E+0	1.367009E+0	1.306949E+0	1.273994E+0	1.429871E+0	1.406630E+0	1.432306E+0	1.125734E+0	1.419590E+0	1.266422E+0	1.366319E+0	1.388492E+0	1.464064E+0	1.272531E+0	1.302813E+0	1.360132E+0	1.436102E+0	1.261857E+0	1.398352E+0	1.276627E+0	1.403350E+0	1.382633E+0	1.427754E+0	1.350344E+0	1.436465E+0	1.282650E+0	1.278983E+0	1.395070E+0	1.424408E+0	1.251588E+0	1.161105E+0	1.329798E+0	1.429222E+0	1.342439E+0	1.313174E+0	1.314129E+0	1.422279E+0	1.423698E+0	1.399521E+0	1.346908E+0	1.303663E+0	1.326065E+0	1.290325E+0	1.372657E+0	1.449253E+0	1.221789E+0	1.286397E+0	1.370883E+0	1.376707E+0	1.305249E+0	1.284644E+0	1.302799E+0	1.385873E+0	1.433975E+0	1.370497E+0	1.361196E+0	1.386326E+0	1.252522E+0	1.248324E+0	1.431191E+0	1.402878E+0	1.269917E+0	1.188006E+0	1.377846E+0	1.412966E+0	1.333373E+0	1.291808E+0	1.220885E+0	1.367946E+0	1.385316E+0	1.371705E+0	1.340564E+0	1.366147E+0	1.316946E+0	1.264104E+0	1.385203E+0	1.404412E+0	1.229063E+0	1.177346E+0	1.331541E+0	1.408787E+0	1.327647E+0	1.258228E+0	1.316031E+0	1.358497E+0	1.416503E+0	1.371300E+0	1.343133E+0	1.425884E+0	1.258905E+0	1.117588E+0	1.398917E+0	1.395234E+0	1.224240E+0	1.225716E+0	1.369197E+0	1.418722E+0	1.324590E+0	1.392114E+0	1.330977E+0	1.444166E+0	1.357676E+0	1.334034E+0	1.396467E+0	1.400389E+0	1.265884E+0	1.294641E+0	1.417134E+0	1.385499E+0	1.265312E+0	1.225269E+0	1.411040E+0	1.392742E+0	1.308615E+0	1.314627E+0	1.346326E+0	1.379585E+0	1.344450E+0	1.434120E+0	1.352510E+0	1.364671E+0	1.287498E+0	1.317835E+0	1.395085E+0	1.399139E+0	1.229521E+0	1.221922E+0	1.324541E+0	1.367583E+0	1.297589E+0	1.292095E+0	1.326411E+0	1.384621E+0	1.296475E+0	1.407276E+0	1.354778E+0	1.377295E+0	1.224885E+0	1.266063E+0	1.389396E+0	1.423574E+0	1.209765E+0	1.195048E+0	1.321586E+0	1.370773E+0	1.360429E+0	1.266078E+0	1.320455E+0	1.387291E+0	1.381814E+0	1.357129E+0	1.311269E+0	1.387068E+0	1.308062E+0	1.305005E+0	1.385258E+0	1.352789E+0	1.233436E+0	1.201953E+0	1.366831E+0	1.442571E+0
5.482600E+2	1.504072E+0	1.528536E+0	1.428994E+0	1.423774E+0	1.487583E+0	1.449173E+0	1.402877E+0	1.319986E+0	1.428937E+0	1.499629E+0	1.483749E+0	1.423325E+0	1.353213E+0	1.506388E+0	1.506963E+0	1.521856E+0	1.225861E+0	1.491347E+0	1.369796E+0	1.466775E+0	1.514638E+0	1.520021E+0	1.380228E+0	1.342743E+0	1.414062E+0	1.544197E+0	1.349375E+0	1.452061E+0	1.373135E+0	1.488811E+0	1.466788E+0	1.449723E+0	1.498753E+0	1.536261E+0	1.458936E+0	1.397397E+0	1.471516E+0	1.486892E+0	1.312964E+0	1.244772E+0	1.460795E+0	1.562372E+0	1.374239E+0	1.435538E+0	1.414499E+0	1.499398E+0	1.444516E+0	1.488264E+0	1.463729E+0	1.390068E+0	1.354595E+0	1.397663E+0	1.414919E+0	1.544272E+0	1.271532E+0	1.333962E+0	1.423324E+0	1.449797E+0	1.435374E+0	1.461526E+0	1.492500E+0	1.458553E+0	1.482253E+0	1.528908E+0	1.470188E+0	1.522075E+0	1.357785E+0	1.394938E+0	1.504004E+0	1.486468E+0	1.369056E+0	1.275141E+0	1.441879E+0	1.538890E+0	1.382613E+0	1.348369E+0	1.391116E+0	1.510822E+0	1.511514E+0	1.453194E+0	1.456618E+0	1.521737E+0	1.428971E+0	1.423155E+0	1.448180E+0	1.520815E+0	1.339764E+0	1.300971E+0	1.443694E+0	1.524082E+0	1.422306E+0	1.329958E+0	1.462821E+0	1.438026E+0	1.464627E+0	1.453832E+0	1.448131E+0	1.487260E+0	1.378113E+0	1.170627E+0	1.500782E+0	1.488934E+0	1.356119E+0	1.323992E+0	1.504120E+0	1.478589E+0	1.452325E+0	1.525350E+0	1.461487E+0	1.484614E+0	1.483442E+0	1.478841E+0	1.497153E+0	1.463945E+0	1.362397E+0	1.364097E+0	1.559114E+0	1.521108E+0	1.338549E+0	1.297828E+0	1.508204E+0	1.488625E+0	1.385324E+0	1.455938E+0	1.438021E+0	1.504956E+0	1.486288E+0	1.497114E+0	1.458002E+0	1.520688E+0	1.415287E+0	1.367378E+0	1.512947E+0	1.500828E+0	1.293689E+0	1.332116E+0	1.411094E+0	1.468983E+0	1.389338E+0	1.425714E+0	1.425814E+0	1.460615E+0	1.521322E+0	1.510766E+0	1.437479E+0	1.477195E+0	1.355121E+0	1.338194E+0	1.513561E+0	1.519385E+0	1.294464E+0	1.348072E+0	1.427585E+0	1.458337E+0	1.363013E+0	1.397903E+0	1.369635E+0	1.508745E+0	1.469507E+0	1.444392E+0	1.447499E+0	1.461451E+0	1.344547E+0	1.364420E+0	1.462679E+0	1.530187E+0	1.365119E+0	1.316155E+0	1.449923E+0	1.395397E+0
5.490490E+2	1.532130E+0	1.489596E+0	1.446774E+0	1.392470E+0	1.498383E+0	1.551071E+0	1.491241E+0	1.272325E+0	1.367055E+0	1.400943E+0	1.519403E+0	1.450766E+0	1.366809E+0	1.494580E+0	1.507961E+0	1.486930E+0	1.214792E+0	1.546719E+0	1.446755E+0	1.445914E+0	1.476794E+0	1.487548E+0	1.446466E+0	1.385745E+0	1.432794E+0	1.519503E+0	1.386383E+0	1.470142E+0	1.404190E+0	1.506992E+0	1.461738E+0	1.458948E+0	1.433948E+0	1.474964E+0	1.450495E+0	1.410962E+0	1.516872E+0	1.492435E+0	1.399785E+0	1.293275E+0	1.422442E+0	1.492290E+0	1.421349E+0	1.454491E+0	1.452925E+0	1.517060E+0	1.451458E+0	1.451545E+0	1.425791E+0	1.323993E+0	1.387693E+0	1.405439E+0	1.476073E+0	1.452456E+0	1.305490E+0	1.327353E+0	1.491451E+0	1.583010E+0	1.388212E+0	1.432338E+0	1.410023E+0	1.514098E+0	1.521285E+0	1.532784E+0	1.456709E+0	1.552621E+0	1.324782E+0	1.393783E+0	1.510155E+0	1.465071E+0	1.290345E+0	1.258563E+0	1.454489E+0	1.466932E+0	1.435902E+0	1.354142E+0	1.392672E+0	1.402256E+0	1.438154E+0	1.434179E+0	1.465124E+0	1.571657E+0	1.379789E+0	1.347174E+0	1.489250E+0	1.459911E+0	1.355369E+0	1.280064E+0	1.434476E+0	1.508928E+0	1.469636E+0	1.343157E+0	1.377912E+0	1.434460E+0	1.478084E+0	1.477562E+0	1.430133E+0	1.485585E+0	1.376379E+0	1.162141E+0	1.499720E+0	1.515847E+0	1.317178E+0	1.338949E+0	1.512590E+0	1.476284E+0	1.399202E+0	1.471696E+0	1.417806E+0	1.449802E+0	1.437877E+0	1.475272E+0	1.514882E+0	1.483452E+0	1.358152E+0	1.356634E+0	1.456746E+0	1.468370E+0	1.326510E+0	1.260361E+0	1.489822E+0	1.506200E+0	1.435497E+0	1.437217E+0	1.406279E+0	1.514558E+0	1.398286E+0	1.495577E+0	1.489413E+0	1.475537E+0	1.329568E+0	1.418569E+0	1.522126E+0	1.539473E+0	1.274028E+0	1.279413E+0	1.436549E+0	1.508382E+0	1.396653E+0	1.472141E+0	1.389984E+0	1.505568E+0	1.424877E+0	1.468410E+0	1.426525E+0	1.465603E+0	1.365585E+0	1.353611E+0	1.460275E+0	1.523466E+0	1.291162E+0	1.337900E+0	1.399782E+0	1.496261E+0	1.396074E+0	1.386340E+0	1.400976E+0	1.476246E+0	1.408715E+0	1.504613E+0	1.419311E+0	1.447018E+0	1.316575E+0	1.377360E+0	1.469214E+0	1.451519E+0	1.365119E+0	1.329417E+0	1.436483E+0	1.361088E+0
5.497960E+2	1.436522E+0	1.366695E+0	1.474249E+0	1.342267E+0	1.406020E+0	1.468215E+0	1.443239E+0	1.258333E+0	1.363286E+0	1.424785E+0	1.473974E+0	1.348111E+0	1.295555E+0	1.414471E+0	1.459539E+0	1.430961E+0	1.197179E+0	1.410551E+0	1.451348E+0	1.392120E+0	1.456107E+0	1.457068E+0	1.460116E+0	1.360294E+0	1.365809E+0	1.458049E+0	1.378746E+0	1.391436E+0	1.349726E+0	1.399714E+0	1.419099E+0	1.425556E+0	1.418610E+0	1.439503E+0	1.492702E+0	1.295153E+0	1.429724E+0	1.423902E+0	1.458167E+0	1.189804E+0	1.400606E+0	1.474773E+0	1.399563E+0	1.313174E+0	1.365175E+0	1.449947E+0	1.416223E+0	1.423564E+0	1.412544E+0	1.279944E+0	1.433913E+0	1.265955E+0	1.379120E+0	1.400141E+0	1.421717E+0	1.283752E+0	1.408620E+0	1.443901E+0	1.411509E+0	1.369291E+0	1.368784E+0	1.394179E+0	1.462223E+0	1.386970E+0	1.381121E+0	1.431009E+0	1.311127E+0	1.360306E+0	1.460931E+0	1.366558E+0	1.372046E+0	1.235185E+0	1.343887E+0	1.433201E+0	1.395934E+0	1.312009E+0	1.336621E+0	1.398673E+0	1.390445E+0	1.465690E+0	1.387958E+0	1.364555E+0	1.351375E+0	1.276767E+0	1.410392E+0	1.368066E+0	1.260761E+0	1.192799E+0	1.374046E+0	1.471578E+0	1.376665E+0	1.237571E+0	1.318910E+0	1.429360E+0	1.440826E+0	1.366657E+0	1.441534E+0	1.357257E+0	1.345707E+0	1.122892E+0	1.373450E+0	1.467004E+0	1.290701E+0	1.243877E+0	1.431861E+0	1.407783E+0	1.315638E+0	1.396334E+0	1.340144E+0	1.417544E+0	1.406889E+0	1.415103E+0	1.421164E+0	1.383400E+0	1.363989E+0	1.288327E+0	1.423308E+0	1.460256E+0	1.240731E+0	1.227166E+0	1.400536E+0	1.424703E+0	1.346680E+0	1.367770E+0	1.321636E+0	1.444137E+0	1.410711E+0	1.448973E+0	1.461558E+0	1.446395E+0	1.325889E+0	1.331045E+0	1.430346E+0	1.432189E+0	1.256950E+0	1.242046E+0	1.343209E+0	1.382069E+0	1.308284E+0	1.303985E+0	1.357188E+0	1.367498E+0	1.391208E+0	1.436640E+0	1.377233E+0	1.415381E+0	1.313259E+0	1.300751E+0	1.455249E+0	1.466892E+0	1.287861E+0	1.262543E+0	1.325642E+0	1.410929E+0	1.351647E+0	1.333725E+0	1.295599E+0	1.444310E+0	1.388806E+0	1.391831E+0	1.310682E+0	1.437583E+0	1.289818E+0	1.305006E+0	1.395312E+0	1.415617E+0	1.272010E+0	1.236582E+0	1.366830E+0	1.414696E+0
5.505110E+2	1.353386E+0	1.372779E+0	1.349264E+0	1.262533E+0	1.432488E+0	1.424987E+0	1.381603E+0	1.173504E+0	1.233599E+0	1.331644E+0	1.356659E+0	1.234784E+0	1.206022E+0	1.362088E+0	1.385663E+0	1.370963E+0	1.112653E+0	1.337661E+0	1.343953E+0	1.304834E+0	1.345600E+0	1.372632E+0	1.362534E+0	1.296671E+0	1.319261E+0	1.383429E+0	1.287114E+0	1.280828E+0	1.297646E+0	1.393048E+0	1.362432E+0	1.387772E+0	1.343913E+0	1.349841E+0	1.388921E+0	1.263855E+0	1.333913E+0	1.327651E+0	1.408270E+0	1.183742E+0	1.274920E+0	1.403527E+0	1.345973E+0	1.264445E+0	1.244731E+0	1.393431E+0	1.410352E+0	1.381162E+0	1.319811E+0	1.231376E+0	1.364868E+0	1.242621E+0	1.343818E+0	1.356903E+0	1.336580E+0	1.271864E+0	1.341963E+0	1.390853E+0	1.356390E+0	1.305077E+0	1.334246E+0	1.391065E+0	1.347695E+0	1.344337E+0	1.323109E+0	1.354086E+0	1.364612E+0	1.236201E+0	1.307613E+0	1.309834E+0	1.333686E+0	1.122544E+0	1.294409E+0	1.335386E+0	1.357701E+0	1.231207E+0	1.257734E+0	1.360266E+0	1.360179E+0	1.388001E+0	1.306539E+0	1.349684E+0	1.345362E+0	1.267145E+0	1.328247E+0	1.358244E+0	1.360248E+0	1.144167E+0	1.303885E+0	1.404456E+0	1.387371E+0	1.229537E+0	1.252229E+0	1.271831E+0	1.372003E+0	1.312495E+0	1.350933E+0	1.391849E+0	1.260640E+0	1.100086E+0	1.347983E+0	1.372806E+0	1.310948E+0	1.201147E+0	1.374844E+0	1.344462E+0	1.345481E+0	1.334238E+0	1.322346E+0	1.327430E+0	1.369220E+0	1.365133E+0	1.372405E+0	1.392839E+0	1.286568E+0	1.245850E+0	1.342031E+0	1.415633E+0	1.211135E+0	1.173575E+0	1.301268E+0	1.322961E+0	1.347834E+0	1.286244E+0	1.323652E+0	1.375850E+0	1.310283E+0	1.354232E+0	1.342435E+0	1.376100E+0	1.260681E+0	1.231963E+0	1.316348E+0	1.371684E+0	1.160172E+0	1.191739E+0	1.316056E+0	1.389020E+0	1.219350E+0	1.301155E+0	1.282008E+0	1.351976E+0	1.331855E+0	1.339886E+0	1.286868E+0	1.344182E+0	1.226048E+0	1.210449E+0	1.378839E+0	1.332853E+0	1.196565E+0	1.202442E+0	1.314636E+0	1.315559E+0	1.244714E+0	1.288628E+0	1.277765E+0	1.399263E+0	1.344691E+0	1.381115E+0	1.277212E+0	1.401501E+0	1.224753E+0	1.225005E+0	1.339505E+0	1.382354E+0	1.218140E+0	1.212268E+0	1.309399E+0	1.354657E+0
5.512620E+2	1.317532E+0	1.375821E+0	1.353035E+0	1.222371E+0	1.339584E+0	1.400797E+0	1.403421E+0	1.190559E+0	1.242746E+0	1.316675E+0	1.357234E+0	1.245458E+0	1.243055E+0	1.340008E+0	1.398642E+0	1.397829E+0	1.068377E+0	1.328619E+0	1.310644E+0	1.362475E+0	1.306242E+0	1.329162E+0	1.384276E+0	1.301056E+0	1.346509E+0	1.365868E+0	1.289464E+0	1.349426E+0	1.318192E+0	1.339106E+0	1.376461E+0	1.401831E+0	1.351335E+0	1.310835E+0	1.388918E+0	1.289416E+0	1.334423E+0	1.392157E+0	1.385815E+0	1.106948E+0	1.283771E+0	1.325859E+0	1.416640E+0	1.256864E+0	1.313555E+0	1.354575E+0	1.351630E+0	1.343128E+0	1.313789E+0	1.225729E+0	1.376852E+0	1.268548E+0	1.341828E+0	1.332884E+0	1.343755E+0	1.178496E+0	1.295889E+0	1.386138E+0	1.418326E+0	1.247283E+0	1.267747E+0	1.337592E+0	1.343070E+0	1.338042E+0	1.347718E+0	1.420262E+0	1.350387E+0	1.314127E+0	1.372221E+0	1.335709E+0	1.350125E+0	1.190130E+0	1.285674E+0	1.393289E+0	1.376239E+0	1.258911E+0	1.239051E+0	1.366922E+0	1.398140E+0	1.338564E+0	1.326589E+0	1.318885E+0	1.346453E+0	1.245869E+0	1.334822E+0	1.321407E+0	1.321233E+0	1.181437E+0	1.296204E+0	1.425568E+0	1.332717E+0	1.278313E+0	1.267578E+0	1.301400E+0	1.421159E+0	1.306304E+0	1.323334E+0	1.371204E+0	1.328924E+0	1.065079E+0	1.397325E+0	1.331439E+0	1.358714E+0	1.249217E+0	1.321778E+0	1.337557E+0	1.337721E+0	1.342075E+0	1.304551E+0	1.312580E+0	1.352208E+0	1.368702E+0	1.399634E+0	1.378367E+0	1.380957E+0	1.221167E+0	1.339975E+0	1.324069E+0	1.319486E+0	1.204875E+0	1.362718E+0	1.371435E+0	1.353602E+0	1.279601E+0	1.308035E+0	1.315029E+0	1.376545E+0	1.315824E+0	1.334137E+0	1.367528E+0	1.362174E+0	1.292514E+0	1.348714E+0	1.386934E+0	1.343891E+0	1.210423E+0	1.262314E+0	1.353098E+0	1.325171E+0	1.261521E+0	1.251732E+0	1.351443E+0	1.346694E+0	1.330740E+0	1.356422E+0	1.409307E+0	1.246978E+0	1.249544E+0	1.388891E+0	1.344575E+0	1.255963E+0	1.179329E+0	1.354024E+0	1.388061E+0	1.377994E+0	1.221558E+0	1.252366E+0	1.338822E+0	1.307032E+0	1.361210E+0	1.290131E+0	1.385401E+0	1.253941E+0	1.241475E+0	1.357104E+0	1.378130E+0	1.228116E+0	1.216689E+0	1.332616E+0	1.388965E+0
5.520210E+2	1.305583E+0	1.360003E+0	1.301315E+0	1.217646E+0	1.289351E+0	1.373006E+0	1.391965E+0	1.157327E+0	1.231985E+0	1.317230E+0	1.399788E+0	1.238851E+0	1.249618E+0	1.330251E+0	1.357210E+0	1.362009E+0	1.083974E+0	1.291892E+0	1.310069E+0	1.371259E+0	1.347112E+0	1.324665E+0	1.313485E+0	1.256301E+0	1.308475E+0	1.354895E+0	1.251283E+0	1.291997E+0	1.199706E+0	1.353046E+0	1.305769E+0	1.348670E+0	1.313736E+0	1.334643E+0	1.357635E+0	1.221078E+0	1.319131E+0	1.331684E+0	1.379327E+0	1.117053E+0	1.255447E+0	1.345713E+0	1.266472E+0	1.230330E+0	1.251613E+0	1.384601E+0	1.325474E+0	1.334821E+0	1.383640E+0	1.154570E+0	1.286120E+0	1.238471E+0	1.317962E+0	1.364910E+0	1.360974E+0	1.219457E+0	1.316966E+0	1.303617E+0	1.392758E+0	1.209922E+0	1.251766E+0	1.318905E+0	1.331259E+0	1.283784E+0	1.262166E+0	1.342772E+0	1.350956E+0	1.176746E+0	1.343507E+0	1.330235E+0	1.348132E+0	1.119568E+0	1.322058E+0	1.325831E+0	1.329318E+0	1.219088E+0	1.223479E+0	1.330564E+0	1.342222E+0	1.327700E+0	1.293778E+0	1.341718E+0	1.373778E+0	1.255492E+0	1.337011E+0	1.387219E+0	1.353419E+0	1.151440E+0	1.282377E+0	1.336253E+0	1.328772E+0	1.195106E+0	1.263741E+0	1.290183E+0	1.326463E+0	1.282061E+0	1.297534E+0	1.279142E+0	1.352072E+0	1.165854E+0	1.328354E+0	1.313000E+0	1.347813E+0	1.224649E+0	1.316698E+0	1.332376E+0	1.291761E+0	1.342679E+0	1.244686E+0	1.337669E+0	1.324260E+0	1.328931E+0	1.314780E+0	1.312925E+0	1.352851E+0	1.211983E+0	1.354891E+0	1.341456E+0	1.322499E+0	1.128522E+0	1.327004E+0	1.342671E+0	1.308038E+0	1.305569E+0	1.261684E+0	1.338503E+0	1.291650E+0	1.318384E+0	1.251759E+0	1.321807E+0	1.301171E+0	1.224257E+0	1.281084E+0	1.357444E+0	1.314909E+0	1.181679E+0	1.306438E+0	1.388442E+0	1.330799E+0	1.268881E+0	1.254256E+0	1.288826E+0	1.307318E+0	1.286937E+0	1.293987E+0	1.316585E+0	1.310933E+0	1.208247E+0	1.277793E+0	1.356297E+0	1.321413E+0	1.192738E+0	1.246866E+0	1.365198E+0	1.340799E+0	1.242373E+0	1.285331E+0	1.283509E+0	1.399030E+0	1.270881E+0	1.249615E+0	1.347656E+0	1.338466E+0	1.188533E+0	1.288225E+0	1.298407E+0	1.385734E+0	1.134169E+0	1.291070E+0	1.313917E+0
5.527590E+2	1.298827E+0	1.310721E+0	1.254984E+0	1.231230E+0	1.348226E+0	1.335439E+0	1.291603E+0	1.104855E+0	1.258892E+0	1.345503E+0	1.281325E+0	1.234786E+0	1.228522E+0	1.322034E+0	1.318773E+0	1.324845E+0	1.072905E+0	1.302064E+0	1.335913E+0	1.305933E+0	1.293625E+0	1.283694E+0	1.329159E+0	1.153623E+0	1.236948E+0	1.310453E+0	1.243648E+0	1.273383E+0	1.217862E+0	1.345773E+0	1.317551E+0	1.349550E+0	1.299390E+0	1.258659E+0	1.281160E+0	1.220036E+0	1.280399E+0	1.300440E+0	1.339909E+0	1.116648E+0	1.266069E+0	1.342210E+0	1.291794E+0	1.187558E+0	1.261363E+0	1.331029E+0	1.327074E+0	1.272743E+0	1.312585E+0	1.222340E+0	1.305522E+0	1.215659E+0	1.317962E+0	1.268827E+0	1.298317E+0	1.173212E+0	1.252269E+0	1.323658E+0	1.325137E+0	1.252537E+0	1.250735E+0	1.262318E+0	1.347182E+0	1.278456E+0	1.301427E+0	1.295258E+0	1.273574E+0	1.235046E+0	1.280436E+0	1.280976E+0	1.373537E+0	1.113196E+0	1.203695E+0	1.279733E+0	1.304988E+0	1.233516E+0	1.244760E+0	1.293178E+0	1.281174E+0	1.277176E+0	1.287095E+0	1.281181E+0	1.325691E+0	1.229660E+0	1.289914E+0	1.331722E+0	1.257348E+0	1.125987E+0	1.254722E+0	1.290783E+0	1.329337E+0	1.151494E+0	1.210495E+0	1.283044E+0	1.262302E+0	1.256270E+0	1.261535E+0	1.322664E+0	1.339341E+0	1.222606E+0	1.290155E+0	1.318481E+0	1.352486E+0	1.198477E+0	1.318390E+0	1.287474E+0	1.312652E+0	1.245011E+0	1.204777E+0	1.314117E+0	1.295096E+0	1.316187E+0	1.310347E+0	1.262584E+0	1.337471E+0	1.176394E+0	1.288532E+0	1.324068E+0	1.300425E+0	1.103862E+0	1.292339E+0	1.342137E+0	1.271126E+0	1.278997E+0	1.252113E+0	1.241408E+0	1.302518E+0	1.312239E+0	1.263612E+0	1.279517E+0	1.334302E+0	1.234714E+0	1.284468E+0	1.349309E+0	1.319568E+0	1.163951E+0	1.286640E+0	1.389021E+0	1.327985E+0	1.211130E+0	1.294624E+0	1.301671E+0	1.292479E+0	1.281641E+0	1.309871E+0	1.310515E+0	1.277212E+0	1.171905E+0	1.324545E+0	1.303804E+0	1.265862E+0	1.168697E+0	1.228331E+0	1.297711E+0	1.335118E+0	1.239482E+0	1.219402E+0	1.291494E+0	1.301115E+0	1.347433E+0	1.212622E+0	1.314349E+0	1.289819E+0	1.129120E+0	1.321407E+0	1.334312E+0	1.294623E+0	1.123118E+0	1.371720E+0	1.198127E+0
5.535440E+2	1.221405E+0	1.276040E+0	1.247980E+0	1.157992E+0	1.271527E+0	1.264933E+0	1.315057E+0	1.115349E+0	1.129742E+0	1.256246E+0	1.216917E+0	1.137721E+0	1.112268E+0	1.259896E+0	1.269356E+0	1.216490E+0	1.009006E+0	1.239345E+0	1.233687E+0	1.240607E+0	1.216420E+0	1.234231E+0	1.252810E+0	1.133877E+0	1.168259E+0	1.251191E+0	1.223676E+0	1.196277E+0	1.166738E+0	1.283952E+0	1.223857E+0	1.232244E+0	1.220735E+0	1.251058E+0	1.273218E+0	1.143351E+0	1.190196E+0	1.257104E+0	1.249593E+0	1.034193E+0	1.164574E+0	1.247022E+0	1.248806E+0	1.126374E+0	1.178774E+0	1.262739E+0	1.211768E+0	1.224657E+0	1.243937E+0	1.099226E+0	1.276417E+0	1.143582E+0	1.256807E+0	1.229858E+0	1.248095E+0	1.123446E+0	1.218941E+0	1.214023E+0	1.252405E+0	1.214592E+0	1.205889E+0	1.254012E+0	1.209539E+0	1.218384E+0	1.205912E+0	1.225121E+0	1.271297E+0	1.149040E+0	1.294281E+0	1.263065E+0	1.252979E+0	1.043484E+0	1.200300E+0	1.226888E+0	1.243006E+0	1.136554E+0	1.119681E+0	1.288570E+0	1.283229E+0	1.238060E+0	1.245170E+0	1.232327E+0	1.277601E+0	1.116704E+0	1.295390E+0	1.223177E+0	1.247106E+0	1.056903E+0	1.229119E+0	1.235573E+0	1.235802E+0	1.131984E+0	1.197064E+0	1.243791E+0	1.248328E+0	1.192821E+0	1.208736E+0	1.228371E+0	1.250224E+0	1.172218E+0	1.228079E+0	1.257175E+0	1.266816E+0	1.179783E+0	1.238793E+0	1.221853E+0	1.192676E+0	1.234762E+0	1.142756E+0	1.210692E+0	1.243452E+0	1.234093E+0	1.258422E+0	1.299081E+0	1.229296E+0	1.153433E+0	1.238122E+0	1.222653E+0	1.252269E+0	1.078725E+0	1.215132E+0	1.212698E+0	1.244597E+0	1.139498E+0	1.161424E+0	1.230204E+0	1.233153E+0	1.244638E+0	1.277836E+0	1.232083E+0	1.221765E+0	1.161504E+0	1.222636E+0	1.280671E+0	1.206749E+0	1.161554E+0	1.157095E+0	1.252859E+0	1.248058E+0	1.178858E+0	1.212377E+0	1.240663E+0	1.198885E+0	1.225805E+0	1.233196E+0	1.217790E+0	1.265584E+0	1.176861E+0	1.250649E+0	1.274244E+0	1.186665E+0	1.115067E+0	1.170408E+0	1.256998E+0	1.216299E+0	1.089155E+0	1.162120E+0	1.219647E+0	1.241399E+0	1.277516E+0	1.194419E+0	1.234417E+0	1.226576E+0	1.147944E+0	1.195218E+0	1.229244E+0	1.221466E+0	1.011862E+0	1.155432E+0	1.060897E+0
5.542580E+2	1.114366E+0	1.048491E+0	1.161244E+0	1.136139E+0	1.171062E+0	1.117234E+0	1.202693E+0	1.160386E+0	1.068933E+0	1.125406E+0	1.136982E+0	1.154999E+0	1.042893E+0	1.155136E+0	1.143062E+0	1.186937E+0	8.912714E-1	1.113910E+0	1.160749E+0	1.117092E+0	1.101373E+0	1.153787E+0	1.156238E+0	1.094823E+0	1.137036E+0	1.163401E+0	1.053335E+0	1.132996E+0	1.030100E+0	1.135460E+0	1.120624E+0	1.176884E+0	1.102006E+0	1.080343E+0	1.146591E+0	1.068233E+0	1.182040E+0	1.135153E+0	1.167259E+0	9.824585E-1	1.086683E+0	1.164097E+0	1.141039E+0	1.100385E+0	1.063491E+0	1.147353E+0	1.169062E+0	1.109683E+0	1.127117E+0	1.052352E+0	1.146883E+0	1.066320E+0	1.124052E+0	1.231992E+0	1.118954E+0	1.014666E+0	1.094448E+0	1.145060E+0	1.149556E+0	1.017863E+0	1.037837E+0	1.141361E+0	1.101175E+0	1.138452E+0	1.122118E+0	1.138579E+0	1.152946E+0	1.056684E+0	1.147114E+0	1.125236E+0	1.114982E+0	9.754739E-1	1.069321E+0	1.095342E+0	1.142792E+0	1.081725E+0	1.006020E+0	1.140059E+0	1.124196E+0	1.112022E+0	1.106027E+0	1.133023E+0	1.116943E+0	1.060986E+0	1.092769E+0	1.140666E+0	1.157862E+0	9.550953E-1	1.100067E+0	1.140846E+0	1.163682E+0	1.030413E+0	1.066103E+0	1.090338E+0	1.143802E+0	1.080367E+0	1.088139E+0	1.163648E+0	1.159949E+0	1.087886E+0	1.109770E+0	1.075259E+0	1.112614E+0	1.085779E+0	1.131534E+0	1.078518E+0	1.113887E+0	1.085850E+0	1.096914E+0	1.137475E+0	1.138344E+0	1.150470E+0	1.079851E+0	1.143657E+0	1.132253E+0	9.909881E-1	1.117234E+0	1.120657E+0	1.130372E+0	9.819785E-1	1.111664E+0	1.153571E+0	1.161546E+0	1.097830E+0	1.056125E+0	1.103765E+0	1.138421E+0	1.148874E+0	1.111893E+0	1.105212E+0	1.122371E+0	1.006826E+0	1.115883E+0	1.187109E+0	1.129639E+0	9.929090E-1	1.091473E+0	1.145087E+0	1.097770E+0	1.119975E+0	1.117011E+0	1.172697E+0	1.079040E+0	1.107390E+0	1.072730E+0	1.141072E+0	1.097559E+0	9.924012E-1	1.120950E+0	1.148870E+0	1.109667E+0	1.022144E+0	1.069624E+0	1.144338E+0	1.126928E+0	1.070653E+0	1.035666E+0	1.140387E+0	1.154780E+0	1.131563E+0	1.099881E+0	1.132279E+0	1.173672E+0	1.034413E+0	1.124331E+0	1.128402E+0	1.116386E+0	1.034702E+0	1.091891E+0	1.168108E+0
5.550250E+2	1.030189E+0	1.032063E+0	1.016324E+0	1.101883E+0	1.051691E+0	1.035922E+0	1.070146E+0	1.037517E+0	9.715329E-1	1.043909E+0	1.034044E+0	1.087917E+0	9.758588E-1	1.033431E+0	1.042730E+0	1.036491E+0	8.047317E-1	1.087918E+0	1.049333E+0	1.042983E+0	1.004491E+0	1.055360E+0	1.010618E+0	1.056648E+0	9.389182E-1	1.048724E+0	9.652268E-1	1.048444E+0	9.842334E-1	1.058487E+0	1.012343E+0	1.022672E+0	1.049568E+0	1.024620E+0	1.073097E+0	1.078144E+0	1.057181E+0	1.047974E+0	1.039520E+0	1.012771E+0	9.964012E-1	1.025695E+0	1.010894E+0	1.062483E+0	9.671359E-1	1.066112E+0	1.022794E+0	1.016131E+0	9.789848E-1	9.614276E-1	1.088107E+0	1.058024E+0	1.038036E+0	9.944485E-1	1.023293E+0	1.030522E+0	9.993633E-1	1.066076E+0	1.038753E+0	1.071569E+0	9.945355E-1	1.029227E+0	1.045195E+0	1.029938E+0	9.932028E-1	1.055431E+0	9.828161E-1	9.931892E-1	1.050201E+0	1.031695E+0	1.036766E+0	9.550705E-1	9.902497E-1	1.011018E+0	1.086602E+0	9.864943E-1	9.463359E-1	1.041736E+0	9.867127E-1	9.903301E-1	1.031291E+0	1.075141E+0	1.019672E+0	9.181448E-1	1.052792E+0	1.049803E+0	1.059838E+0	9.082818E-1	1.031956E+0	1.032045E+0	1.042541E+0	9.231049E-1	9.811951E-1	1.019475E+0	1.024269E+0	9.911279E-1	9.513406E-1	1.026391E+0	1.070831E+0	9.892330E-1	1.003661E+0	1.064792E+0	1.055502E+0	9.725464E-1	1.055323E+0	1.056068E+0	1.030323E+0	1.028576E+0	1.006849E+0	9.997439E-1	1.013184E+0	1.010248E+0	1.043756E+0	1.032281E+0	1.085588E+0	8.945535E-1	1.041101E+0	1.012286E+0	1.017507E+0	8.880773E-1	1.024475E+0	9.895065E-1	1.014477E+0	9.951692E-1	9.931480E-1	1.049348E+0	1.007972E+0	1.035182E+0	1.060924E+0	1.035490E+0	1.035076E+0	9.413214E-1	1.049706E+0	1.071692E+0	1.050458E+0	8.760067E-1	9.845562E-1	1.047744E+0	1.031915E+0	9.744651E-1	9.676569E-1	1.031414E+0	1.041375E+0	1.024597E+0	9.922227E-1	1.059939E+0	1.049302E+0	9.202691E-1	1.053085E+0	1.048468E+0	1.010119E+0	8.876134E-1	9.810007E-1	1.052872E+0	1.010177E+0	9.538618E-1	1.003782E+0	1.046301E+0	1.067625E+0	1.033580E+0	1.020611E+0	1.012379E+0	1.066039E+0	1.002647E+0	1.046907E+0	1.015417E+0	1.035248E+0	9.160803E-1	9.696962E-1	9.644070E-1
5.557550E+2	9.522482E-1	9.268065E-1	9.597561E-1	9.849392E-1	9.377222E-1	9.582117E-1	9.899632E-1	1.009095E+0	8.961955E-1	9.812615E-1	9.472084E-1	9.390167E-1	8.858561E-1	9.512661E-1	9.903166E-1	1.045000E+0	9.315228E-1	9.331011E-1	9.465319E-1	9.836960E-1	9.242598E-1	9.494366E-1	1.004551E+0	9.680119E-1	9.820612E-1	9.384363E-1	9.323334E-1	9.431535E-1	8.948912E-1	9.718168E-1	9.988782E-1	9.699481E-1	9.174847E-1	9.567385E-1	1.003079E+0	9.863328E-1	9.394555E-1	9.487002E-1	9.976050E-1	9.509320E-1	9.285406E-1	9.737211E-1	1.007950E+0	9.893878E-1	8.822517E-1	1.013128E+0	9.736822E-1	9.772243E-1	9.362306E-1	8.834925E-1	9.859623E-1	9.460207E-1	9.579864E-1	9.346615E-1	9.228494E-1	9.503662E-1	9.577023E-1	9.658720E-1	9.842034E-1	9.705783E-1	9.270062E-1	1.007943E+0	9.897283E-1	9.558191E-1	9.480824E-1	9.994343E-1	9.458315E-1	9.672137E-1	9.748229E-1	9.192454E-1	9.555614E-1	9.720729E-1	9.334926E-1	9.199479E-1	9.400453E-1	9.651402E-1	8.840560E-1	9.961590E-1	9.692717E-1	9.968492E-1	9.602021E-1	9.922998E-1	9.475403E-1	9.991898E-1	9.728376E-1	9.663077E-1	9.788834E-1	1.011000E+0	9.592362E-1	9.741261E-1	9.580231E-1	1.009755E+0	8.905312E-1	9.491211E-1	1.000983E+0	1.008150E+0	9.627404E-1	9.639006E-1	9.846073E-1	9.499839E-1	9.166516E-1	9.581341E-1	9.952747E-1	9.506478E-1	9.565316E-1	9.904445E-1	9.760053E-1	9.688915E-1	9.464462E-1	9.183348E-1	9.548577E-1	9.725166E-1	9.728349E-1	9.869741E-1	1.008167E+0	8.784814E-1	9.644544E-1	9.850486E-1	9.623275E-1	8.899739E-1	9.488436E-1	9.847123E-1	9.562251E-1	9.474617E-1	9.865983E-1	9.810611E-1	9.567241E-1	9.527316E-1	9.578028E-1	9.811978E-1	9.477802E-1	9.066423E-1	9.376387E-1	9.827120E-1	1.000777E+0	8.721742E-1	9.545741E-1	9.869056E-1	9.401667E-1	9.195451E-1	9.429326E-1	9.971637E-1	9.335147E-1	9.456555E-1	9.407423E-1	9.754944E-1	9.946509E-1	8.354729E-1	9.706422E-1	9.552014E-1	9.578710E-1	8.816031E-1	9.670999E-1	9.535978E-1	9.895129E-1	8.867926E-1	9.340709E-1	9.847184E-1	9.616409E-1	9.544785E-1	1.002995E+0	9.846237E-1	9.730004E-1	9.314693E-1	9.689806E-1	1.014888E+0	9.687417E-1	8.313496E-1	9.195960E-1	9.300985E-1
5.560190E+2	9.200323E-1	9.426255E-1	1.009858E+0	9.737177E-1	9.922760E-1	9.484335E-1	9.823272E-1	9.675555E-1	9.225636E-1	9.629660E-1	9.529590E-1	9.547709E-1	8.755427E-1	9.774562E-1	9.134433E-1	9.957460E-1	9.546671E-1	1.004294E+0	1.017172E+0	1.006203E+0	9.727013E-1	9.998999E-1	1.007585E+0	9.640627E-1	9.332414E-1	9.631280E-1	9.082507E-1	9.415581E-1	9.226018E-1	9.615136E-1	9.803636E-1	9.435867E-1	9.521131E-1	9.481268E-1	9.911611E-1	9.821594E-1	9.659565E-1	9.708731E-1	9.851306E-1	9.792238E-1	9.250001E-1	1.009927E+0	9.614274E-1	1.005631E+0	8.925758E-1	1.019603E+0	9.667431E-1	9.912130E-1	9.777801E-1	8.225005E-1	1.017347E+0	9.631324E-1	1.007210E+0	9.837720E-1	9.692450E-1	9.543303E-1	9.331956E-1	9.682296E-1	9.842032E-1	9.618218E-1	9.249439E-1	9.985985E-1	9.553185E-1	9.751964E-1	9.428088E-1	9.762441E-1	9.663156E-1	9.804898E-1	9.502098E-1	9.889046E-1	1.000896E+0	9.686728E-1	9.805472E-1	9.992131E-1	9.811731E-1	9.564830E-1	9.271326E-1	9.802838E-1	9.841480E-1	9.810945E-1	1.000303E+0	1.001328E+0	9.448076E-1	9.850071E-1	9.700997E-1	9.967587E-1	9.803465E-1	9.723656E-1	9.387515E-1	9.670896E-1	1.007607E+0	9.741772E-1	9.274684E-1	9.368854E-1	9.549289E-1	1.007119E+0	9.285416E-1	9.957036E-1	9.817137E-1	9.696084E-1	9.675840E-1	1.000000E+0	1.008774E+0	9.746832E-1	9.384673E-1	9.950499E-1	9.837642E-1	9.948147E-1	9.992992E-1	9.321592E-1	9.846289E-1	9.985211E-1	1.027292E+0	9.599172E-1	9.710463E-1	1.021411E+0	1.014352E+0	9.630265E-1	9.578133E-1	9.999995E-1	9.509443E-1	9.751240E-1	9.481514E-1	9.879226E-1	9.694684E-1	9.911972E-1	9.774301E-1	9.481225E-1	9.886212E-1	9.669105E-1	1.007731E+0	9.594863E-1	9.965703E-1	9.628827E-1	1.001812E+0	9.478733E-1	9.228945E-1	9.863258E-1	9.390412E-1	9.920165E-1	9.732072E-1	9.409715E-1	9.751753E-1	1.006787E+0	9.763408E-1	9.605925E-1	9.795348E-1	9.109084E-1	9.610905E-1	1.010754E+0	9.749205E-1	9.324571E-1	9.665206E-1	9.653096E-1	1.011210E+0	9.365158E-1	9.313692E-1	1.006387E+0	9.718629E-1	1.001429E+0	9.789196E-1	9.768525E-1	9.790814E-1	9.238223E-1	9.840632E-1	1.007497E+0	9.514499E-1	8.586111E-1	9.599196E-1	1.035166E+0
5.565140E+2	1.031748E+0	9.973840E-1	1.012014E+0	1.013880E+0	9.906555E-1	9.818851E-1	1.015055E+0	1.012593E+0	9.209494E-1	9.879140E-1	1.020242E+0	1.022360E+0	9.069501E-1	9.846455E-1	9.958068E-1	1.005597E+0	9.742896E-1	1.023505E+0	1.079197E+0	9.672275E-1	1.012565E+0	1.016388E+0	9.656174E-1	9.908289E-1	9.786554E-1	1.005377E+0	9.270465E-1	1.005371E+0	9.034913E-1	9.639377E-1	9.882182E-1	1.007293E+0	9.432091E-1	1.013475E+0	1.004568E+0	1.007198E+0	1.004689E+0	9.794398E-1	9.926150E-1	9.848836E-1	9.674862E-1	1.001168E+0	1.065072E+0	1.043533E+0	9.120760E-1	1.017249E+0	9.475251E-1	9.890268E-1	1.019932E+0	8.874463E-1	1.017918E+0	1.014467E+0	9.917961E-1	9.682922E-1	9.697236E-1	1.036245E+0	9.831888E-1	1.014795E+0	9.893174E-1	1.028955E+0	9.569050E-1	1.004828E+0	1.032356E+0	1.007654E+0	9.557003E-1	1.018100E+0	1.027767E+0	1.047448E+0	1.010717E+0	1.016270E+0	9.715034E-1	1.018831E+0	9.495009E-1	1.009332E+0	1.033309E+0	9.484024E-1	9.203857E-1	9.756753E-1	1.022111E+0	1.012604E+0	9.541259E-1	1.027348E+0	9.978143E-1	1.009320E+0	9.936473E-1	9.834975E-1	1.009608E+0	1.002363E+0	1.009423E+0	9.974017E-1	9.692920E-1	9.977049E-1	9.639262E-1	1.017435E+0	9.813195E-1	1.032395E+0	9.807405E-1	9.929142E-1	1.029744E+0	1.038030E+0	9.967635E-1	1.004984E+0	1.004102E+0	1.016344E+0	1.021452E+0	9.846881E-1	9.849579E-1	9.887864E-1	9.669402E-1	1.013568E+0	9.815907E-1	1.003111E+0	1.023493E+0	9.360052E-1	9.668041E-1	1.065610E+0	1.017439E+0	1.000116E+0	9.838980E-1	1.009011E+0	9.640751E-1	1.034251E+0	9.873692E-1	9.927532E-1	9.886137E-1	1.011470E+0	9.883011E-1	9.896035E-1	9.809161E-1	1.010915E+0	9.824884E-1	9.930643E-1	9.651721E-1	1.021355E+0	1.004399E+0	9.756618E-1	9.557060E-1	1.001391E+0	9.896995E-1	1.032782E+0	9.535289E-1	9.805734E-1	1.084176E+0	9.735737E-1	9.922232E-1	1.029032E+0	9.963952E-1	9.940534E-1	1.032474E+0	1.003619E+0	1.012870E+0	1.003652E+0	9.983782E-1	9.641941E-1	9.884799E-1	1.071232E+0	9.708178E-1	1.014369E+0	9.923071E-1	9.912226E-1	9.759841E-1	1.052901E+0	1.017391E+0	9.773522E-1	1.012217E+0	9.821543E-1	1.024607E+0	9.882849E-1	1.034459E+0	9.837034E-1
5.570440E+2	1.030709E+0	9.961667E-1	1.016324E+0	1.008564E+0	1.003619E+0	1.032834E+0	1.003055E+0	1.050636E+0	9.387077E-1	1.047235E+0	1.025993E+0	1.038114E+0	9.186692E-1	1.045755E+0	1.021265E+0	1.042761E+0	9.763020E-1	1.000339E+0	9.494035E-1	9.957727E-1	9.429299E-1	1.029878E+0	9.828088E-1	9.816144E-1	9.377829E-1	1.044883E+0	9.481927E-1	1.043127E+0	9.364572E-1	1.019092E+0	9.915840E-1	9.927957E-1	9.783324E-1	1.041337E+0	9.936435E-1	1.000939E+0	1.009785E+0	1.025801E+0	1.062473E+0	1.013175E+0	9.373920E-1	9.760572E-1	9.885162E-1	1.028372E+0	9.470622E-1	9.778053E-1	1.052688E+0	1.075586E+0	1.005480E+0	9.202019E-1	1.009929E+0	1.053876E+0	1.010690E+0	1.015801E+0	1.036686E+0	9.864787E-1	9.400575E-1	9.847342E-1	1.029661E+0	1.040630E+0	9.481414E-1	9.856202E-1	9.686722E-1	1.033330E+0	9.955468E-1	9.920810E-1	1.015249E+0	1.009351E+0	9.553377E-1	1.036671E+0	1.069148E+0	1.003103E+0	9.519267E-1	1.025072E+0	1.003186E+0	1.009581E+0	9.229810E-1	1.023813E+0	9.872262E-1	1.008801E+0	1.033115E+0	1.017789E+0	9.710374E-1	9.865260E-1	1.017743E+0	1.015422E+0	1.008632E+0	9.773647E-1	9.720390E-1	1.026091E+0	1.003662E+0	1.036726E+0	9.548114E-1	1.016925E+0	1.004088E+0	1.010214E+0	9.723404E-1	1.019138E+0	9.880788E-1	1.025830E+0	9.957031E-1	1.014453E+0	9.906026E-1	1.023822E+0	9.745965E-1	1.007713E+0	1.005253E+0	9.905944E-1	9.491427E-1	9.946237E-1	1.020475E+0	9.526310E-1	1.012729E+0	9.983015E-1	1.007636E+0	9.990246E-1	9.901745E-1	1.009388E+0	9.904192E-1	1.052642E+0	9.835077E-1	1.025728E+0	9.983278E-1	1.022948E+0	9.825678E-1	9.975992E-1	1.037479E+0	1.030061E+0	1.013512E+0	1.007487E+0	1.001946E+0	1.005174E+0	1.018308E+0	9.857633E-1	9.816281E-1	1.044174E+0	9.811623E-1	1.016456E+0	1.008837E+0	1.006738E+0	9.666473E-1	1.030344E+0	1.011129E+0	1.014008E+0	9.927707E-1	1.006402E+0	1.016744E+0	1.011673E+0	1.001307E+0	1.007696E+0	1.012869E+0	1.017521E+0	1.021548E+0	1.019967E+0	9.926128E-1	1.000115E+0	8.989456E-1	9.989736E-1	1.018130E+0	1.029497E+0	9.759840E-1	9.796281E-1	1.007662E+0	1.002059E+0	1.005179E+0	1.004330E+0	9.581010E-1	1.043544E+0	9.782481E-1	1.045886E+0
5.575640E+2	9.860224E-1	9.998173E-1	1.038412E+0	9.896642E-1	1.021443E+0	9.993826E-1	9.910546E-1	9.951025E-1	9.177210E-1	1.005100E+0	1.053021E+0	9.745907E-1	9.552328E-1	1.004673E+0	1.015774E+0	9.984330E-1	9.788179E-1	1.003164E+0	1.017172E+0	1.036396E+0	1.006005E+0	9.779165E-1	9.914045E-1	9.969717E-1	9.309710E-1	9.719069E-1	9.734500E-1	9.931405E-1	9.364567E-1	9.984847E-1	9.938291E-1	9.976276E-1	9.926783E-1	9.871335E-1	1.049261E+0	9.889410E-1	9.593314E-1	9.572671E-1	9.886231E-1	1.017622E+0	9.391622E-1	1.027447E+0	9.543613E-1	1.039201E+0	9.493560E-1	1.063757E+0	1.023328E+0	1.018754E+0	9.789843E-1	9.156840E-1	1.008217E+0	9.947631E-1	9.843382E-1	9.933810E-1	1.001769E+0	9.847183E-1	1.010636E+0	1.008900E+0	9.961359E-1	9.892586E-1	9.703075E-1	1.014692E+0	1.038519E+0	9.999030E-1	9.369491E-1	9.994345E-1	1.007283E+0	1.033595E+0	1.044047E+0	1.009305E+0	1.012853E+0	1.000126E+0	9.446500E-1	1.002586E+0	9.724844E-1	9.905346E-1	9.203856E-1	9.848928E-1	1.011338E+0	1.005541E+0	9.492650E-1	1.023631E+0	1.030055E+0	1.012359E+0	9.925522E-1	1.013457E+0	9.818095E-1	9.946377E-1	9.274847E-1	1.008228E+0	1.012115E+0	9.890970E-1	9.183540E-1	1.035279E+0	9.606211E-1	9.813264E-1	9.729407E-1	1.015790E+0	9.672463E-1	9.902937E-1	9.787252E-1	9.960129E-1	9.963136E-1	1.034504E+0	9.576606E-1	1.018075E+0	1.039276E+0	9.918013E-1	9.960629E-1	1.024833E+0	1.010754E+0	1.013308E+0	1.012728E+0	1.056192E+0	1.033620E+0	1.007634E+0	1.002006E+0	9.914231E-1	1.013995E+0	9.990514E-1	9.593478E-1	9.948328E-1	9.862164E-1	1.026571E+0	9.573770E-1	1.006668E+0	1.004348E+0	1.001895E+0	9.862505E-1	1.022917E+0	1.007730E+0	1.007927E+0	1.006231E+0	9.933901E-1	9.930132E-1	1.007282E+0	9.613629E-1	1.045426E+0	1.025161E+0	9.857886E-1	9.515103E-1	9.918120E-1	1.008846E+0	9.832008E-1	9.883892E-1	1.015785E+0	1.040582E+0	9.868954E-1	9.585775E-1	9.781361E-1	1.012320E+0	1.012899E+0	9.560944E-1	9.747904E-1	1.005527E+0	9.908650E-1	9.762223E-1	1.029765E+0	9.847751E-1	1.009084E+0	9.771582E-1	9.973908E-1	1.012527E+0	9.714700E-1	1.021266E+0	9.784591E-1	1.014631E+0	1.000074E+0	1.007576E+0	1.071617E+0
5.580230E+2	1.016679E+0	1.074045E+0	9.931578E-1	1.037505E+0	9.776924E-1	1.007617E+0	1.049419E+0	1.009532E+0	1.001130E+0	1.000111E+0	9.431830E-1	9.852621E-1	9.336698E-1	9.866998E-1	9.888186E-1	9.876868E-1	9.526541E-1	9.540065E-1	1.040718E+0	9.721680E-1	1.000959E+0	1.002398E+0	9.929213E-1	1.017157E+0	9.724104E-1	1.024581E+0	9.705132E-1	1.005370E+0	8.901135E-1	1.008788E+0	1.010099E+0	1.021792E+0	9.867420E-1	9.683898E-1	9.936440E-1	1.045801E+0	9.899093E-1	9.965732E-1	9.716581E-1	9.852886E-1	9.639459E-1	1.028615E+0	9.855722E-1	1.033787E+0	9.149440E-1	9.836929E-1	9.907649E-1	1.003016E+0	9.597146E-1	9.326257E-1	1.021342E+0	9.885404E-1	1.006215E+0	1.041957E+0	9.874201E-1	1.026557E+0	9.728958E-1	1.048982E+0	1.008637E+0	1.014361E+0	9.579357E-1	1.028708E+0	1.034923E+0	9.718054E-1	1.012540E+0	1.039028E+0	9.936268E-1	9.989608E-1	1.015845E+0	1.019754E+0	1.012853E+0	9.848252E-1	9.499860E-1	9.952780E-1	1.036205E+0	1.024010E+0	8.970310E-1	1.008962E+0	9.702968E-1	9.990219E-1	9.766068E-1	1.029472E+0	1.019673E+0	1.009827E+0	1.019386E+0	1.019843E+0	9.813215E-1	1.019634E+0	9.469453E-1	1.010934E+0	1.013241E+0	9.919658E-1	9.356236E-1	9.853172E-1	9.983959E-1	9.735892E-1	9.921404E-1	9.867765E-1	1.005440E+0	1.004614E+0	1.005253E+0	1.007974E+0	9.963133E-1	9.987179E-1	9.932258E-1	1.030164E+0	1.003462E+0	1.017725E+0	9.410531E-1	9.777276E-1	1.024728E+0	1.006680E+0	9.513040E-1	1.027876E+0	9.996821E-1	9.720458E-1	9.917177E-1	1.014604E+0	1.004464E+0	9.791331E-1	9.866590E-1	9.873758E-1	1.012746E+0	1.012078E+0	9.488123E-1	1.006135E+0	1.041620E+0	1.036207E+0	9.743976E-1	9.994858E-1	1.035076E+0	9.864585E-1	1.050189E+0	9.832210E-1	1.047870E+0	9.842853E-1	9.681513E-1	9.770550E-1	1.033603E+0	1.029385E+0	9.474735E-1	9.843197E-1	9.574834E-1	1.017377E+0	9.615532E-1	1.029031E+0	9.667440E-1	1.011122E+0	1.009350E+0	1.015850E+0	9.787708E-1	9.643561E-1	9.584115E-1	1.043391E+0	9.647162E-1	1.015149E+0	9.675761E-1	1.006957E+0	9.836991E-1	1.001429E+0	9.900765E-1	1.027922E+0	9.955003E-1	1.023236E+0	1.053442E+0	1.006441E+0	1.029263E+0	1.031756E+0	9.868030E-1	9.601172E-1
5.585160E+2	1.051493E+0	9.870412E-1	1.009859E+0	9.867109E-1	1.000918E+0	1.011219E+0	9.512358E-1	9.981632E-1	1.015121E+0	9.962301E-1	1.011042E+0	9.939020E-1	1.052736E+0	9.748882E-1	9.938102E-1	1.025299E+0	1.025610E+0	9.963842E-1	9.695045E-1	9.957727E-1	1.033253E+0	9.934046E-1	1.043484E+0	1.021984E+0	1.029746E+0	9.878188E-1	9.793242E-1	1.016538E+0	1.052077E+0	1.017273E+0	1.015709E+0	9.818109E-1	1.022361E+0	1.048429E+0	9.906641E-1	9.967655E-1	1.031189E+0	9.839748E-1	9.856293E-1	1.008729E+0	1.010562E+0	9.678813E-1	1.060361E+0	9.855972E-1	9.981068E-1	9.925238E-1	1.013719E+0	1.011322E+0	9.795868E-1	8.947883E-1	1.005364E+0	9.999479E-1	1.012679E+0	1.002455E+0	9.955525E-1	1.013344E+0	1.024359E+0	9.800181E-1	1.016592E+0	1.049970E+0	9.615441E-1	9.856194E-1	9.922963E-1	1.003294E+0	9.691772E-1	9.999999E-1	9.896447E-1	9.677909E-1	9.907188E-1	1.015275E+0	1.022319E+0	1.003528E+0	1.008683E+0	9.829099E-1	9.979724E-1	9.801458E-1	9.484117E-1	9.925744E-1	1.027241E+0	1.012061E+0	9.668852E-1	9.816793E-1	9.885247E-1	9.920980E-1	9.876238E-1	9.982320E-1	9.944893E-1	1.005546E+0	9.602603E-1	1.009310E+0	9.969005E-1	9.730299E-1	9.600882E-1	1.054651E+0	9.937387E-1	9.467655E-1	9.705407E-1	1.005747E+0	1.019907E+0	9.754429E-1	1.033902E+0	1.013457E+0	1.010852E+0	1.019549E+0	9.949192E-1	1.041676E+0	9.688422E-1	1.038826E+0	9.949848E-1	1.015104E+0	1.008931E+0	1.016368E+0	1.019060E+0	1.043607E+0	1.021954E+0	9.789333E-1	1.052933E+0	1.017501E+0	1.013995E+0	9.924116E-1	9.803563E-1	9.980288E-1	1.034662E+0	1.009058E+0	9.896213E-1	9.965324E-1	9.577587E-1	1.003944E+0	9.951399E-1	9.731973E-1	1.027188E+0	1.021688E+0	1.026519E+0	1.027965E+0	1.034933E+0	1.048965E+0	9.907792E-1	1.047164E+0	1.011651E+0	1.015230E+0	9.555472E-1	1.034625E+0	1.037380E+0	9.957162E-1	9.812697E-1	1.015785E+0	1.013256E+0	1.016629E+0	1.014880E+0	1.027062E+0	1.016720E+0	1.000879E+0	1.012859E+0	1.009928E+0	9.827973E-1	1.011679E+0	9.573080E-1	1.006957E+0	1.001453E+0	1.017759E+0	9.683506E-1	9.973909E-1	9.912434E-1	1.048530E+0	1.006686E+0	1.023864E+0	9.787177E-1	9.927062E-1	1.036903E+0	1.095204E+0
5.590210E+2	9.860229E-1	9.785219E-1	9.759182E-1	1.003839E+0	1.006860E+0	9.921776E-1	1.008509E+0	9.929162E-1	1.078620E+0	1.031712E+0	9.863137E-1	1.005590E+0	1.057424E+0	1.001592E+0	1.023262E+0	9.854462E-1	1.029132E+0	9.980790E-1	1.002240E+0	1.058903E+0	1.026189E+0	1.031877E+0	1.024775E+0	9.996052E-1	1.010445E+0	1.006475E+0	9.681639E-1	9.899496E-1	1.034876E+0	1.001516E+0	1.020758E+0	1.001581E+0	1.060946E+0	9.982771E-1	1.014004E+0	1.026501E+0	1.042401E+0	1.041423E+0	1.014072E+0	9.719505E-1	1.071341E+0	9.526978E-1	9.867502E-1	9.937188E-1	1.053168E+0	1.040797E+0	1.007314E+0	9.767875E-1	1.035588E+0	1.034845E+0	9.893862E-1	9.911333E-1	1.044997E+0	1.007793E+0	1.034294E+0	1.027879E+0	1.019948E+0	9.965223E-1	9.904539E-1	9.845888E-1	1.054333E+0	1.003271E+0	9.866470E-1	1.026548E+0	1.035979E+0	1.024322E+0	1.022646E+0	1.012237E+0	9.891804E-1	9.844263E-1	9.989038E-1	1.004378E+0	1.052828E+0	9.812232E-1	1.009558E+0	1.043056E+0	1.100477E+0	1.019204E+0	1.009285E+0	9.745751E-1	1.046482E+0	1.015665E+0	9.715839E-1	9.819676E-1	1.001862E+0	9.962668E-1	1.055448E+0	1.016907E+0	9.991805E-1	9.887411E-1	1.020002E+0	1.029266E+0	1.100643E+0	1.029161E+0	1.008228E+0	1.020530E+0	1.070139E+0	1.034761E+0	1.001389E+0	1.001962E+0	1.016394E+0	1.014454E+0	1.017082E+0	1.007798E+0	9.729030E-1	9.685703E-1	9.467573E-1	1.011696E+0	1.011703E+0	9.782395E-1	1.031412E+0	1.028605E+0	1.036157E+0	1.002706E+0	9.996818E-1	1.014523E+0	1.001492E+0	1.041262E+0	1.004966E+0	9.981040E-1	9.898109E-1	1.019869E+0	9.573783E-1	1.005435E+0	9.583843E-1	1.004001E+0	1.007454E+0	9.890921E-1	1.027736E+0	9.891984E-1	1.001946E+0	9.930644E-1	9.917397E-1	1.002542E+0	1.027170E+0	1.008720E+0	9.619285E-1	1.015876E+0	9.913879E-1	1.003907E+0	9.338502E-1	1.007332E+0	9.637613E-1	9.981228E-1	9.796270E-1	9.931563E-1	9.545344E-1	1.009470E+0	1.007842E+0	9.511244E-1	1.043669E+0	1.038787E+0	9.392969E-1	1.018294E+0	1.017926E+0	1.006476E+0	9.697379E-1	9.932711E-1	1.030504E+0	1.015208E+0	9.818560E-1	9.973909E-1	9.948920E-1	9.967649E-1	9.453512E-1	1.032311E+0	1.007316E+0	9.868112E-1	1.007576E+0	9.837031E-1
5.595110E+2	1.022915E+0	9.998181E-1	1.007704E+0	1.019195E+0	1.031706E+0	1.016880E+0	1.049964E+0	1.015216E+0	1.051175E+0	9.868049E-1	1.004140E+0	1.056410E+0	1.059299E+0	1.021105E+0	9.853243E-1	1.006940E+0	1.039698E+0	9.862133E-1	9.844359E-1	9.793046E-1	9.883437E-1	9.869097E-1	1.039944E+0	9.903900E-1	1.088217E+0	1.003183E+0	9.992954E-1	1.013347E+0	1.077399E+0	1.008182E+0	1.003366E+0	9.919157E-1	1.069356E+0	1.013981E+0	1.028404E+0	1.010329E+0	1.004179E+0	1.006652E+0	9.976048E-1	1.035405E+0	1.045967E+0	1.025695E+0	9.861612E-1	1.005631E+0	1.088727E+0	9.736846E-1	1.009982E+0	1.021378E+0	1.041610E+0	1.129157E+0	1.015636E+0	1.017059E+0	1.006215E+0	9.811036E-1	9.965078E-1	9.996905E-1	1.032201E+0	9.794288E-1	1.005796E+0	9.869235E-1	1.087840E+0	9.980794E-1	1.011298E+0	1.029454E+0	1.060590E+0	9.983027E-1	1.002162E+0	9.983839E-1	1.025587E+0	1.008309E+0	9.899365E-1	1.035409E+0	1.060104E+0	1.079603E+0	1.045473E+0	1.026895E+0	1.106706E+0	1.028422E+0	1.030318E+0	1.014777E+0	1.055596E+0	9.811486E-1	1.032241E+0	1.042751E+0	1.034172E+0	9.913558E-1	1.010095E+0	1.037814E+0	1.102115E+0	1.029880E+0	9.923934E-1	1.036152E+0	1.056510E+0	9.868469E-1	1.078085E+0	1.056639E+0	1.040739E+0	9.990515E-1	1.023957E+0	1.000371E+0	1.016394E+0	1.029904E+0	1.005140E+0	1.000854E+0	1.033307E+0	9.662673E-1	1.101353E+0	1.012902E+0	1.034354E+0	1.019713E+0	1.021690E+0	1.020447E+0	9.500377E-1	1.002076E+0	1.018242E+0	1.035187E+0	1.043159E+0	9.630266E-1	1.047605E+0	1.015650E+0	1.080149E+0	1.027859E+0	1.040429E+0	9.903380E-1	1.083835E+0	1.020006E+0	1.029196E+0	9.844826E-1	1.047294E+0	1.024060E+0	1.001419E+0	1.006275E+0	1.017824E+0	1.023389E+0	9.935310E-1	9.972212E-1	1.059228E+0	1.003129E+0	9.908250E-1	9.863552E-1	1.031738E+0	1.027132E+0	1.010558E+0	1.029411E+0	1.016321E+0	9.777023E-1	1.008605E+0	1.032046E+0	9.811990E-1	1.001070E+0	1.030469E+0	1.031853E+0	9.659414E-1	1.038929E+0	1.059771E+0	1.012258E+0	1.009187E+0	1.022923E+0	1.001991E+0	9.937744E-1	1.015913E+0	1.057341E+0	1.016783E+0	1.016177E+0	1.022775E+0	1.002217E+0	1.033253E+0	1.009652E+0	9.635855E-1	1.015868E+0
5.600520E+2	9.641989E-1	1.009552E+0	9.888480E-1	9.849390E-1	1.005779E+0	1.000927E+0	1.024873E+0	1.001661E+0	1.022655E+0	9.984477E-1	1.020818E+0	9.852624E-1	1.057892E+0	1.000052E+0	9.783356E-1	9.961938E-1	1.024604E+0	1.011074E+0	9.873072E-1	1.007850E+0	1.056464E+0	9.929052E-1	9.934270E-1	1.029005E+0	1.077999E+0	1.028971E+0	1.006343E+0	1.000585E+0	1.101765E+0	9.984849E-1	1.005610E+0	1.025307E+0	9.906995E-1	9.891597E-1	1.001589E+0	9.978092E-1	9.995923E-1	1.022777E+0	1.023053E+0	1.036215E+0	1.030626E+0	1.043214E+0	1.035628E+0	9.601497E-1	1.041123E+0	1.031967E+0	9.934339E-1	9.811570E-1	1.028964E+0	1.124639E+0	9.756905E-1	1.009800E+0	1.022623E+0	9.773668E-1	1.025685E+0	9.948480E-1	1.013577E+0	1.031888E+0	1.022275E+0	9.548163E-1	1.028558E+0	9.840626E-1	1.000000E+0	9.630851E-1	1.040667E+0	1.003394E+0	9.981795E-1	9.787579E-1	9.866167E-1	9.948751E-1	9.739948E-1	1.012029E+0	1.037304E+0	9.980887E-1	9.788563E-1	9.986150E-1	1.096845E+0	9.838685E-1	1.006207E+0	9.919597E-1	9.881516E-1	9.646862E-1	1.011476E+0	9.723439E-1	1.019934E+0	1.016896E+0	9.935141E-1	9.955469E-1	1.057049E+0	9.806218E-1	9.878855E-1	1.017789E+0	1.063225E+0	9.639055E-1	1.028409E+0	9.715257E-1	1.020940E+0	9.672486E-1	1.002546E+0	9.892329E-1	1.013741E+0	9.860447E-1	1.025908E+0	9.842972E-1	1.058146E+0	1.021529E+0	1.011222E+0	9.942124E-1	1.041365E+0	9.900162E-1	9.779452E-1	9.883236E-1	1.013361E+0	1.009627E+0	9.996819E-1	1.007060E+0	9.932616E-1	9.943207E-1	1.013494E+0	1.009959E+0	1.006618E+0	9.831144E-1	1.014476E+0	9.830914E-1	1.051087E+0	9.810609E-1	9.919245E-1	1.022892E+0	1.009364E+0	1.008629E+0	1.006679E+0	1.015633E+0	9.646895E-1	9.938983E-1	1.008022E+0	9.646417E-1	1.039429E+0	9.706816E-1	9.953285E-1	1.024289E+0	1.137699E+0	9.971639E-1	9.523476E-1	1.010157E+0	1.031655E+0	1.004747E+0	1.045815E+0	9.940531E-1	1.003318E+0	1.021456E+0	9.457716E-1	9.842356E-1	1.058618E+0	9.954265E-1	1.001395E+0	9.845048E-1	1.089166E+0	9.938416E-1	1.022434E+0	1.011635E+0	1.052319E+0	9.713013E-1	1.015568E+0	1.026766E+0	9.724998E-1	1.010137E+0	1.020617E+0	1.002284E+0	1.039347E+0	1.011580E+0
5.605090E+2	9.496499E-1	9.992088E-1	9.980067E-1	9.713547E-1	9.582473E-1	9.860021E-1	9.845089E-1	9.693045E-1	1.017812E+0	9.479971E-1	9.564094E-1	1.019820E+0	1.024610E+0	9.420228E-1	1.014277E+0	9.885822E-1	1.000956E+0	1.014465E+0	9.947736E-1	1.025966E+0	9.757289E-1	9.819125E-1	9.954492E-1	9.855635E-1	9.968208E-1	9.653225E-1	1.152603E+0	9.633611E-1	1.075009E+0	1.021517E+0	9.893408E-1	1.001581E+0	9.659650E-1	9.759883E-1	9.419999E-1	9.936355E-1	9.995924E-1	1.011691E+0	1.001097E+0	9.941800E-1	1.040657E+0	9.579537E-1	9.761504E-1	9.785586E-1	1.064639E+0	9.619106E-1	1.006246E+0	9.684804E-1	9.777803E-1	1.065905E+0	1.004223E+0	9.408353E-1	9.689246E-1	1.017402E+0	1.006554E+0	9.820760E-1	1.015047E+0	9.817862E-1	9.717022E-1	9.688271E-1	1.032682E+0	1.014172E+0	9.676443E-1	9.577566E-1	9.990622E-1	9.604057E-1	9.708674E-1	9.689453E-1	9.707205E-1	9.326794E-1	1.006875E+0	9.635729E-1	1.076597E+0	9.890940E-1	9.423622E-1	9.778373E-1	1.051173E+0	1.013571E+0	9.651673E-1	1.019123E+0	1.031900E+0	9.800861E-1	1.002186E+0	1.013879E+0	9.640753E-1	9.844795E-1	1.003268E+0	9.719116E-1	1.060123E+0	9.903648E-1	1.013241E+0	9.661431E-1	1.006620E+0	9.501413E-1	9.668306E-1	1.008666E+0	9.945398E-1	1.016348E+0	9.684037E-1	9.855200E-1	9.601560E-1	9.725878E-1	1.002544E+0	9.431703E-1	1.021452E+0	9.835363E-1	9.700356E-1	9.785372E-1	1.040826E+0	1.019712E+0	9.828059E-1	1.001071E+0	9.930980E-1	9.800526E-1	9.779402E-1	1.007634E+0	9.809156E-1	9.954792E-1	9.849012E-1	9.606371E-1	1.053363E+0	9.804509E-1	9.769879E-1	9.945646E-1	1.034965E+0	9.879960E-1	9.908895E-1	9.890922E-1	9.655077E-1	9.994858E-1	1.005101E+0	1.005174E+0	1.013477E+0	9.816957E-1	9.821454E-1	9.809316E-1	1.042823E+0	9.753165E-1	9.868850E-1	9.608769E-1	1.096828E+0	1.003586E+0	9.922959E-1	9.548003E-1	1.044252E+0	9.666635E-1	1.007442E+0	9.808383E-1	9.897454E-1	9.791553E-1	9.886702E-1	1.007351E+0	1.039503E+0	9.753488E-1	1.003978E+0	9.787227E-1	1.113484E+0	9.755948E-1	9.697105E-1	9.774435E-1	1.030005E+0	9.796280E-1	9.942839E-1	9.685286E-1	9.629476E-1	1.011193E+0	9.760578E-1	9.956529E-1	9.501448E-1	9.708390E-1
5.610010E+2	9.605620E-1	9.584447E-1	9.597565E-1	9.843486E-1	1.003079E+0	9.710773E-1	9.223261E-1	9.548747E-1	1.036108E+0	9.984476E-1	9.788373E-1	9.186888E-1	1.033517E+0	1.038566E+0	9.833273E-1	9.630603E-1	9.979374E-1	1.012770E+0	9.752475E-1	9.606400E-1	9.575633E-1	9.864097E-1	9.701683E-1	9.868805E-1	9.769529E-1	9.614817E-1	1.075068E+0	9.692107E-1	9.923556E-1	9.627259E-1	9.814854E-1	9.782953E-1	9.897100E-1	9.638307E-1	9.822225E-1	9.320807E-1	9.593308E-1	9.744005E-1	9.631749E-1	9.525498E-1	9.928605E-1	1.019271E+0	9.614278E-1	9.314526E-1	1.030799E+0	9.566128E-1	9.549986E-1	9.544918E-1	9.723607E-1	1.094708E+0	9.522942E-1	9.895774E-1	9.515223E-1	9.944480E-1	9.458082E-1	9.481633E-1	9.880893E-1	9.729449E-1	9.694297E-1	9.816697E-1	1.001753E+0	9.809477E-1	9.676441E-1	1.007170E+0	9.937884E-1	9.649315E-1	9.725741E-1	9.845301E-1	1.011230E+0	9.824358E-1	9.416127E-1	9.741987E-1	9.684200E-1	9.368131E-1	9.805943E-1	1.000923E+0	1.035604E+0	9.690176E-1	9.708105E-1	9.615366E-1	9.978733E-1	9.784934E-1	9.754095E-1	9.789285E-1	9.690041E-1	9.805508E-1	9.618149E-1	9.782748E-1	9.653811E-1	9.584286E-1	9.912664E-1	9.621264E-1	1.040199E+0	9.603372E-1	9.802848E-1	9.983493E-1	9.849401E-1	9.622265E-1	9.932876E-1	9.887029E-1	9.829694E-1	9.601277E-1	9.511438E-1	9.709441E-1	9.723387E-1	9.777805E-1	9.688419E-1	9.749200E-1	1.023568E+0	9.664634E-1	9.396676E-1	9.694570E-1	9.880318E-1	9.435561E-1	9.747587E-1	9.123485E-1	9.269020E-1	9.728782E-1	9.422627E-1	9.834010E-1	9.961135E-1	9.484902E-1	9.914067E-1	9.631628E-1	1.004736E+0	9.885303E-1	9.510293E-1	9.527316E-1	9.998819E-1	9.646245E-1	9.304260E-1	9.655412E-1	9.458506E-1	9.867805E-1	9.272888E-1	9.881178E-1	1.039429E+0	9.475052E-1	9.666221E-1	9.546486E-1	1.025178E+0	9.431123E-1	9.820231E-1	1.023635E+0	1.011939E+0	9.616963E-1	9.498834E-1	9.632186E-1	1.001307E+0	1.014831E+0	9.578714E-1	9.384671E-1	1.049350E+0	9.597321E-1	9.827971E-1	9.289996E-1	1.047555E+0	9.573480E-1	9.949970E-1	9.529475E-1	1.032354E+0	9.391062E-1	9.541495E-1	9.691170E-1	9.976369E-1	9.488929E-1	9.574358E-1	9.492353E-1	9.953570E-1	8.614833E-1
