Photon Energy (eV)	#1	#2	#3	#4	#5	#6	#7	#8	#9	#10	#11	#12	#13	#14	#15	#16	#17	#18	#19	#20	#21	#22	#23	#24	#25	#26	#27	#28	#29	#30	#31	#32	#33	#34	#35	#36	#37	#38	#39	#40	#41	#42	#43	#44	#45	#46	#47	#48	#49	#50	#51	#52	#53	#54	#55	#56	#57	#58	#59	#60	#61	#62	#63	#64	#65	#66	#67	#68	#69	#70	#71	#72	#73	#74	#75	#76	#77	#78	#79	#80	#81	#82	#83	#84	#85	#86	#87	#88	#89	#90	#91	#92	#93	#94	#95	#96	#97	#98	#99	#100	#101	#102	#103	#104	#105	#106	#107	#108	#109	#110	#111	#112	#113	#114	#115	#116	#117	#118	#119	#120	#121	#122	#123	#124	#125	#126	#127	#128	#129	#130	#131	#132	#133	#134	#135	#136	#137	#138	#139	#140	#141	#142	#143	#144	#145	#146	#147	#148	#149	#150	#151	#152	#153	#154	#155	#156	#157	#158	#159	#160	#161	#162	#163	#164	#165	#166	#167	#168	#169	#170	
5.300160E+2	-1.270763E-2	-6.321780E-3	-9.936210E-3	-1.359097E-3	-5.179788E-3	-2.254871E-3	1.536005E-3	-1.250686E-2	-2.512015E-4	-2.711607E-3	-3.805869E-3	-1.607662E-3	-7.485149E-3	-7.386015E-3	-4.524762E-3	-2.904901E-3	-2.984486E-3	-5.299398E-4	-9.819275E-3	-7.036255E-3	-5.226748E-4	-1.873667E-3	-3.880022E-3	-5.969782E-3	-1.276460E-2	-5.935174E-3	-1.408262E-3	-8.488361E-3	-1.797778E-3	-4.722790E-3	-3.032823E-3	-2.930972E-3	-6.140441E-3	-7.133368E-3	-1.044643E-2	-4.188049E-3	-2.163689E-3	-9.512024E-3	-6.996061E-3	-5.849748E-3	-4.833573E-3	-9.301561E-4	-5.262928E-3	-9.283932E-3	-1.377265E-3	-5.466319E-3	-1.258990E-2	-4.292966E-3	-7.334960E-3	2.739023E-3	-9.757751E-3	-6.614106E-3	-7.821267E-3	-6.224802E-3	-7.249408E-3	-5.059812E-3	-1.236900E-2	-7.697725E-3	5.800985E-3	-4.865725E-3	-1.028971E-2	-9.670027E-3	-6.920810E-3	-3.950547E-4	-3.356794E-3	-4.105617E-3	-5.389748E-3	-1.893643E-3	-8.037155E-3	-1.319105E-2	-1.905726E-3	-2.305153E-3	-1.360042E-2	-2.694623E-3	-1.168771E-2	-8.549419E-4	-2.187211E-3	-2.589898E-3	-7.090238E-3	-9.739493E-3	-7.462580E-3	-6.488497E-3	-7.940168E-3	-9.187409E-3	-6.773758E-3	-5.941076E-3	-3.109104E-4	-3.709957E-3	-4.227276E-4	-8.374273E-3	-5.875102E-3	-4.666289E-3	-7.773234E-3	-4.701878E-3	-8.837945E-3	-7.311800E-3	-1.744893E-3	6.301105E-3	-6.774168E-3	-3.729881E-4	-5.994048E-3	-4.332124E-3	-7.877442E-3	2.554239E-3	-2.586358E-3	-2.357685E-3	-1.065270E-2	-2.507477E-3	-6.511560E-3	-8.045100E-3	-5.458060E-3	-1.493727E-2	-8.477991E-3	-1.637243E-2	-1.687265E-2	-2.702572E-3	-3.588068E-3	-6.215593E-3	-5.292422E-3	-9.297936E-3	-2.050161E-4	-6.197242E-3	-1.109047E-2	-7.072087E-3	-4.578590E-3	-7.275835E-3	4.752449E-3	-5.191062E-3	-6.117377E-3	1.156578E-3	-7.183245E-3	-4.014954E-3	-1.040137E-2	-2.222719E-3	-1.010782E-2	-2.251236E-3	-1.833873E-3	-2.704329E-3	-8.098143E-3	-6.978374E-3	-1.058670E-2	-8.152779E-3	-4.226185E-3	-6.182628E-3	-9.611384E-5	-5.718269E-3	-7.543620E-3	-1.050064E-2	-1.840123E-3	2.929320E-3	-7.432158E-3	-1.722438E-2	-6.208849E-3	-7.416377E-3	-1.476879E-3	-1.735508E-3	-1.396819E-2	-7.658086E-3	-9.018185E-3	5.054895E-3	-5.264001E-3	-7.975412E-3	6.525072E-4	-1.089962E-2	7.955364E-4	-9.234969E-3	-5.055857E-3	-8.041517E-3	-1.088898E-2	-7.942836E-3
5.305230E+2	-6.066819E-3	-6.430138E-3	1.873169E-4	-3.317249E-3	-4.327668E-3	-9.143725E-3	-1.230774E-2	-6.400880E-3	-4.887664E-3	-4.870216E-3	-3.367144E-3	-1.003482E-2	-9.422089E-3	-3.724480E-3	-1.001161E-3	-1.763513E-3	-3.108096E-3	-1.098213E-2	-1.170544E-3	-1.600924E-3	-8.698220E-3	-5.122259E-3	-3.973583E-3	-9.063478E-3	-3.287752E-3	9.655525E-6	-6.820888E-3	-4.945587E-3	1.405678E-3	-2.211168E-3	-8.243115E-3	-6.237051E-3	-8.646605E-3	-4.851872E-3	2.113385E-3	-6.862676E-3	-8.939288E-3	-8.032718E-3	-6.588435E-3	-5.497999E-3	-7.025974E-3	-2.637121E-3	-2.904148E-4	2.897841E-3	-6.694203E-3	-5.050434E-3	-2.434078E-3	-1.136936E-3	-1.418348E-2	-7.558657E-3	-5.316933E-3	-8.838487E-3	-5.763103E-3	-8.772249E-4	-1.130816E-2	-3.315999E-3	4.843772E-4	-2.898160E-3	-4.521893E-3	-3.809332E-3	-4.908376E-3	-7.485778E-3	-6.072638E-3	-3.790186E-3	-7.419013E-3	-9.214852E-3	-1.274996E-2	-2.004295E-3	3.566727E-3	-3.794341E-3	-4.454632E-3	-7.470805E-3	2.318323E-3	-1.106777E-2	-1.869045E-3	-4.239589E-3	-1.353667E-2	3.854917E-3	-4.908779E-3	3.142616E-4	1.212083E-3	-3.944975E-3	-7.504548E-3	-1.399657E-3	-5.860665E-3	1.213285E-3	5.559713E-4	4.145699E-3	-1.308904E-2	-2.896821E-4	-9.318182E-3	-7.031965E-3	-6.934994E-3	-1.078022E-2	-9.331625E-3	-8.232296E-3	-7.879629E-3	-1.122984E-2	-3.302491E-3	-6.422683E-3	1.208501E-3	-8.960899E-3	-1.632973E-3	-7.004147E-3	-2.204963E-3	-5.776864E-3	-1.181950E-2	-1.368167E-2	-8.591579E-3	-2.116821E-3	-1.340166E-3	-5.443139E-3	-4.524246E-3	-2.014094E-3	-3.102776E-3	-6.187705E-3	-8.941217E-3	-2.748894E-3	-8.389046E-3	-8.380739E-3	-1.330685E-2	-9.332139E-3	-6.953512E-3	-3.059948E-3	4.278182E-3	-5.428488E-3	-1.110133E-2	-5.274420E-3	-1.685334E-3	-4.051014E-3	-1.407974E-3	-1.276156E-2	-2.237882E-3	-1.506014E-2	-3.874304E-3	-3.507141E-4	-1.240953E-2	-2.817422E-3	-4.883785E-4	-5.443035E-3	5.259761E-3	-4.824680E-3	-1.927665E-4	-1.146242E-3	-4.133356E-3	-2.544843E-3	-3.418351E-3	-3.832573E-3	-1.035405E-2	-6.435534E-3	-3.384075E-3	7.007784E-3	-7.938502E-3	-6.293278E-3	-2.202869E-3	-1.236628E-2	6.597028E-4	4.674558E-3	-2.784460E-3	-1.011326E-2	-4.500556E-3	-3.216731E-3	-7.926751E-3	-3.165585E-3	-9.339343E-4	-6.842581E-3	-1.481138E-2	-1.039139E-2	-1.686070E-3	-1.933471E-2
5.310050E+2	-9.740938E-3	-6.541740E-3	-5.689106E-3	-1.007672E-3	3.198803E-3	-5.868977E-3	-5.294052E-3	3.473898E-3	-9.008259E-3	-4.453449E-3	-1.833154E-3	2.298838E-3	-4.910743E-3	-1.240200E-4	2.397651E-4	-3.092932E-3	-4.328123E-3	-3.640963E-3	-1.385310E-2	3.306351E-3	9.901569E-5	-2.077364E-3	5.249000E-3	-3.163325E-3	-1.300038E-3	-1.148727E-2	-5.867301E-5	-1.433153E-3	-5.785030E-3	2.355528E-3	-5.100302E-3	-4.731425E-3	-3.384425E-3	3.957013E-3	4.186050E-3	-3.895435E-3	-7.619066E-3	-7.068385E-3	8.016550E-3	-7.510840E-4	-9.484575E-4	-9.048237E-3	-1.553136E-3	-8.391364E-3	-1.043815E-2	-4.971880E-4	1.634841E-3	-5.273625E-3	7.438020E-3	-3.160668E-3	-2.603533E-3	-5.801280E-3	-3.301918E-3	-6.908029E-3	3.910317E-3	-1.593584E-3	-1.905425E-3	3.551906E-3	-5.770983E-3	-1.001588E-3	-5.532821E-4	-1.662600E-3	-1.054150E-3	-5.308726E-3	-4.716321E-3	5.625524E-3	-2.844121E-3	-2.715964E-3	-1.042740E-3	-4.255881E-4	-3.589623E-3	-2.060488E-3	-3.872240E-3	3.103619E-3	-9.702228E-3	-3.285878E-3	4.392230E-3	-4.208790E-3	-8.645736E-3	-6.840778E-3	-2.205915E-3	-4.060065E-3	-8.667240E-3	-1.109642E-2	-3.462121E-3	-9.850431E-4	-8.283948E-3	-4.433543E-3	2.273685E-3	-2.460381E-3	6.618417E-3	-4.882016E-3	-5.641873E-3	-7.994287E-4	-1.228133E-5	-6.552680E-3	-5.822063E-3	-9.490084E-4	-2.274571E-3	1.495362E-3	2.450375E-3	4.127591E-3	-4.943869E-3	-4.168246E-3	-4.204835E-3	-6.999481E-3	-1.085822E-2	-3.289418E-3	1.743938E-3	-3.737143E-4	-1.353502E-2	1.732034E-3	-4.059585E-3	2.167798E-3	3.045184E-3	5.615711E-5	-1.572521E-3	-5.393399E-3	-1.008884E-3	1.598176E-3	-4.101084E-3	-4.278944E-4	-1.269358E-3	-5.547466E-3	-1.941946E-3	2.178154E-3	-7.947024E-3	-4.736559E-4	-4.622388E-3	-3.604352E-3	6.285591E-3	-6.734281E-4	-1.463703E-3	-8.637786E-4	1.274499E-3	-6.440833E-3	5.273396E-5	-9.915031E-3	-1.270779E-3	-1.219429E-3	-7.569445E-3	-2.438594E-3	2.080816E-4	-8.040152E-3	-6.195915E-3	-3.751636E-3	-3.527632E-3	-2.816956E-3	-2.924593E-3	-1.670200E-3	-2.455739E-3	-1.024056E-2	-8.030922E-3	-4.578081E-3	-1.116398E-3	-4.169824E-3	-3.499736E-3	-1.647432E-3	-1.430034E-3	-5.777381E-3	-1.426589E-4	-3.954831E-3	-7.287648E-4	-7.190193E-3	-5.598077E-3	-8.743340E-5	-9.485579E-3	-2.200485E-3	-1.031371E-2	1.251897E-2
5.315130E+2	4.219089E-3	4.052934E-3	-1.966992E-3	1.986375E-3	-1.506515E-3	5.513906E-3	2.395240E-3	4.597933E-3	2.069235E-3	-4.514841E-3	-3.559420E-3	-3.936620E-3	-2.093325E-3	4.481139E-4	-4.230441E-3	-9.193451E-4	-2.680828E-3	2.107626E-3	4.798776E-3	-7.779472E-3	-4.019814E-3	-4.728112E-4	-5.016400E-3	-1.351686E-3	-1.275747E-3	4.096073E-3	-5.952641E-4	-5.062104E-3	2.304217E-3	-1.251874E-3	2.427107E-3	1.897234E-3	7.402076E-4	-1.048792E-2	-4.109311E-3	1.786567E-3	-3.952821E-4	5.624989E-3	-1.074762E-3	1.144474E-3	1.738885E-3	-9.631028E-3	-3.285672E-3	-1.710047E-3	7.842603E-3	5.757600E-3	7.790139E-4	-7.245205E-3	-2.351956E-3	4.211999E-3	2.489678E-3	4.350343E-3	-2.787375E-3	7.582025E-3	6.021686E-3	-4.317874E-3	-6.471385E-3	-5.754622E-3	8.969120E-3	6.110215E-3	-3.018396E-3	3.082731E-3	-2.910117E-3	-2.432291E-3	8.944238E-4	5.138995E-3	7.254227E-3	-4.574720E-3	-6.385362E-3	-2.403701E-3	4.329362E-3	-5.711786E-3	8.865614E-3	-1.268157E-3	-4.214768E-3	-2.203503E-3	-6.306921E-3	-4.620706E-3	-2.213806E-3	-9.450310E-3	2.176638E-3	-3.043733E-3	2.447738E-3	3.570030E-3	1.070979E-3	-3.582573E-3	1.946806E-3	-1.921662E-3	5.854527E-3	1.206887E-3	1.648895E-3	3.532219E-3	2.929173E-3	1.648573E-3	1.055840E-4	7.206898E-3	3.348064E-3	-7.517081E-3	-3.641997E-3	-6.104066E-3	-9.401899E-3	2.084103E-3	3.452636E-3	-9.703757E-3	8.085193E-3	-3.187519E-3	6.887050E-3	-1.198429E-3	2.374116E-3	-1.217903E-3	3.366556E-3	-3.622782E-3	-4.676388E-3	3.950235E-3	-8.323810E-3	7.561730E-4	5.246745E-3	-1.773454E-3	1.157783E-3	2.249840E-3	-4.072354E-3	-3.450784E-3	2.464076E-3	-4.907636E-3	3.849524E-3	-3.537392E-3	-1.833741E-3	-3.451866E-3	-3.538532E-3	-3.596859E-3	1.511706E-3	-8.260820E-3	-2.643569E-3	1.351399E-3	1.334193E-3	-9.476062E-3	-8.375742E-3	2.913610E-3	-1.170605E-2	2.660971E-3	-1.553308E-3	-4.350405E-3	-3.914184E-3	3.206398E-3	-2.224371E-4	-9.807407E-3	4.983278E-3	1.121946E-3	-1.411973E-3	-3.820778E-3	-2.474938E-3	-1.561690E-3	6.765464E-3	3.968160E-3	-5.448203E-3	-1.975313E-3	-4.226015E-4	-4.935862E-3	-9.092032E-4	-2.104369E-3	4.058264E-4	-5.218964E-3	5.552366E-3	-8.367278E-3	-6.917935E-3	4.507555E-3	4.407718E-3	1.055107E-2	1.061029E-2	-2.040392E-5
5.320070E+2	8.443968E-3	8.063293E-3	5.053811E-3	-6.207133E-3	4.529500E-3	2.938069E-3	8.126595E-3	8.672127E-3	-2.655571E-3	8.666568E-3	-4.181062E-3	-2.601495E-3	1.114654E-2	-2.534581E-3	7.846971E-3	1.337493E-3	-1.758393E-4	-4.523978E-3	6.821979E-3	4.165371E-3	4.311546E-3	6.682298E-3	-2.733098E-3	6.629638E-3	4.373518E-3	2.919871E-3	-2.366871E-3	5.662800E-3	-2.200732E-3	1.196431E-3	2.659107E-3	6.488717E-3	4.102363E-3	6.169271E-3	7.299651E-3	-4.638417E-3	3.195346E-3	7.862156E-3	1.789767E-3	3.126089E-3	-7.390608E-3	1.499753E-2	6.705128E-3	5.318668E-3	2.460895E-4	2.239567E-3	1.968618E-3	1.049060E-2	3.141144E-3	-3.082113E-5	3.390742E-3	5.121933E-3	-2.136479E-3	8.343361E-4	-3.701060E-3	8.565216E-5	1.201082E-3	-2.681159E-3	-2.109586E-3	-2.472703E-3	1.754318E-3	7.403568E-3	1.000223E-2	-4.536557E-3	-1.046771E-3	-1.820900E-3	1.372234E-3	3.426170E-3	9.670012E-3	6.887878E-3	6.796158E-4	5.173061E-3	4.698760E-3	-3.935264E-4	5.514170E-3	1.365962E-3	2.797493E-3	2.228153E-3	7.624692E-3	1.427328E-2	-1.375405E-3	2.032573E-3	1.017539E-2	1.346473E-2	4.370722E-3	8.936082E-4	7.451146E-4	-6.505114E-4	-1.603880E-3	2.534516E-3	-2.695511E-4	2.162854E-3	-1.093077E-3	2.797865E-3	7.472188E-3	6.442559E-3	-7.265247E-3	5.115834E-3	1.234085E-2	-9.094142E-4	2.777842E-3	5.465382E-3	-1.017981E-3	5.526155E-3	-1.241387E-4	-1.201808E-3	1.093467E-2	1.181012E-2	-4.070491E-4	1.349111E-3	8.897730E-3	6.659861E-3	6.101315E-3	5.780052E-3	6.529547E-3	-3.624143E-3	9.959196E-4	-4.066354E-3	3.372741E-3	3.493262E-3	1.164854E-2	1.200911E-2	-2.551617E-3	1.871341E-3	-5.403274E-3	-6.198766E-3	5.848539E-3	2.136835E-3	5.884562E-3	1.119156E-4	-6.578257E-3	8.376047E-3	6.288772E-3	3.742180E-3	2.134152E-3	1.140715E-2	7.208777E-3	-3.809025E-3	5.488691E-3	6.747033E-3	1.329026E-2	7.584206E-3	6.299247E-3	8.198010E-4	1.997954E-3	7.499509E-3	-7.323079E-3	7.623092E-3	1.080942E-2	2.472702E-3	1.520558E-3	3.441920E-3	2.642734E-3	7.355904E-3	4.254235E-4	8.338198E-3	3.403621E-3	2.993119E-3	6.214737E-3	4.344669E-3	5.213954E-3	3.658436E-3	2.507938E-3	1.103315E-2	6.844141E-4	-2.295456E-4	1.505928E-2	6.449773E-3	-4.122652E-4	3.482496E-3
5.325170E+2	1.585232E-2	7.177429E-3	1.235118E-2	9.904776E-3	3.285668E-3	8.815597E-3	5.543952E-3	2.163779E-3	1.473346E-2	7.883545E-3	1.674665E-2	1.588176E-2	1.276476E-2	1.332098E-2	1.669628E-3	7.343198E-3	1.327737E-2	1.756938E-2	1.322216E-2	8.944929E-3	8.830147E-3	2.863804E-3	1.035410E-2	1.291863E-2	1.425462E-2	1.039684E-2	1.124996E-2	1.426640E-2	6.073645E-3	4.633874E-3	1.129003E-2	5.513497E-3	1.332890E-2	1.234687E-2	9.566501E-4	1.779801E-2	1.592198E-2	1.112598E-2	4.852941E-3	7.828268E-3	1.845973E-2	7.249013E-3	3.687022E-3	1.116883E-2	1.042093E-2	3.016775E-3	1.064151E-2	7.458129E-3	1.329123E-2	3.799123E-3	1.179780E-2	1.178160E-2	2.181014E-2	5.593694E-3	1.232663E-2	1.420162E-2	1.906036E-2	1.547976E-2	-2.367643E-3	6.039134E-3	1.701545E-2	8.332107E-3	6.955483E-3	1.646281E-2	1.564448E-2	4.376850E-3	1.235737E-2	7.762452E-3	2.228517E-3	1.292680E-2	4.941003E-3	1.237517E-2	1.589968E-3	1.232046E-2	2.195958E-2	9.217950E-3	1.484108E-2	5.336324E-3	1.523387E-2	1.144304E-2	7.655179E-3	1.550470E-2	1.148883E-2	4.648727E-3	1.065484E-2	8.401799E-3	5.346967E-3	6.569975E-3	6.987441E-3	7.382933E-3	7.195524E-3	1.088520E-2	1.851400E-2	1.183508E-2	1.060408E-2	8.447320E-3	1.936377E-2	8.278988E-3	3.652381E-3	1.231379E-2	8.959229E-3	1.615947E-3	1.201963E-2	1.279576E-2	1.035102E-3	1.952336E-2	1.550870E-2	8.866876E-3	1.139213E-2	1.040443E-2	8.068957E-3	1.561129E-2	1.563689E-2	6.488440E-3	1.872450E-2	1.170209E-2	7.859140E-3	2.019769E-2	1.015983E-2	1.033740E-2	1.003676E-2	7.398950E-3	1.940088E-2	1.871580E-2	3.796103E-3	2.026233E-2	1.028111E-2	1.225417E-2	1.007907E-2	9.983731E-3	7.372179E-3	1.733472E-2	1.045775E-2	1.305306E-2	9.239280E-3	7.111693E-3	1.535763E-2	1.633220E-2	1.607465E-2	4.232835E-3	1.159438E-3	1.218225E-2	1.825807E-3	1.134282E-2	8.649868E-3	1.432265E-2	1.682940E-2	8.405133E-3	5.721319E-3	6.524490E-3	1.422635E-2	1.857692E-2	1.277007E-2	6.963673E-3	9.818926E-3	1.190873E-2	1.382721E-2	6.573703E-3	7.927145E-3	8.595445E-3	4.287436E-3	1.670750E-2	-5.729565E-5	1.858953E-2	1.197000E-2	1.188697E-2	9.885817E-3	3.632548E-3	1.269074E-2	1.129649E-2
5.330280E+2	2.228064E-2	2.129800E-2	2.902389E-2	2.822363E-2	1.828734E-2	1.406681E-2	2.050598E-2	1.911177E-2	2.596089E-2	1.322785E-2	2.455731E-2	2.004284E-2	2.598291E-2	2.412202E-2	3.114673E-2	2.209675E-2	1.257581E-2	2.717885E-2	1.981348E-2	3.198240E-2	2.367427E-2	2.500433E-2	2.516885E-2	2.219703E-2	1.469066E-2	2.384064E-2	2.627654E-2	3.177021E-2	2.670158E-2	1.752987E-2	9.355465E-3	2.243158E-2	2.831367E-2	2.524327E-2	2.312368E-2	1.931289E-2	2.913391E-2	2.282046E-2	2.087078E-2	2.682556E-2	2.061816E-2	1.618889E-2	1.667576E-2	2.810298E-2	1.983611E-2	3.060583E-2	1.484288E-2	2.240177E-2	3.177661E-2	2.963512E-2	2.733241E-2	2.307316E-2	2.902879E-2	2.311442E-2	3.023226E-2	2.831902E-2	2.302628E-2	2.665536E-2	3.611648E-2	2.138367E-2	3.177157E-2	9.528422E-3	2.683250E-2	2.563756E-2	2.641799E-2	1.538649E-2	3.128837E-2	3.613819E-2	2.840842E-2	2.113054E-2	2.669218E-2	2.514827E-2	2.670869E-2	2.673882E-2	2.955780E-2	1.680395E-2	3.039463E-2	1.839316E-2	3.492967E-2	2.596144E-2	2.758424E-2	3.677755E-2	3.102790E-2	1.938642E-2	2.648252E-2	3.262318E-2	2.847925E-2	2.584095E-2	2.564880E-2	3.144733E-2	2.588032E-2	2.271543E-2	2.443230E-2	2.925921E-2	1.889327E-2	3.396757E-2	2.711527E-2	2.526017E-2	2.230977E-2	3.088882E-2	3.177569E-2	1.145512E-2	2.230166E-2	1.327539E-2	2.591586E-2	3.188316E-2	1.212876E-2	2.699657E-2	2.262490E-2	1.913875E-2	2.353313E-2	2.830092E-2	1.311835E-2	2.861810E-2	1.787710E-2	1.740082E-2	2.814631E-2	2.181211E-2	2.336287E-2	2.114170E-2	2.624448E-2	2.312104E-2	2.636737E-2	1.144477E-2	2.052706E-2	1.690298E-2	2.641830E-2	2.195579E-2	2.545506E-2	2.540017E-2	2.274124E-2	1.790618E-2	2.116493E-2	2.600686E-2	2.254363E-2	2.382812E-2	2.383821E-2	2.690873E-2	2.251032E-2	1.549636E-2	2.252569E-2	1.755800E-2	2.021980E-2	2.192516E-2	2.866620E-2	3.542981E-2	2.865548E-2	2.711191E-2	2.529852E-2	1.965916E-2	2.575187E-2	1.919957E-2	2.432042E-2	1.911577E-2	1.698257E-2	1.454597E-2	2.516552E-2	1.478791E-2	2.766911E-2	8.611612E-3	3.944010E-2	1.466972E-2	2.965161E-2	1.794984E-2	3.168542E-2	2.197941E-2	2.135957E-2	3.540416E-2	2.789945E-2	2.001614E-2
5.331630E+2	3.200515E-2	3.369841E-2	3.079040E-2	3.482530E-2	3.458213E-2	2.812217E-2	3.436174E-2	2.660882E-2	3.233677E-2	2.653013E-2	4.186039E-2	2.565213E-2	2.523714E-2	1.549877E-2	3.218949E-2	2.852123E-2	1.469472E-2	2.691866E-2	2.186174E-2	3.678264E-2	2.424031E-2	2.747374E-2	4.065859E-2	3.282484E-2	3.287250E-2	1.971060E-2	3.143662E-2	2.090755E-2	2.740827E-2	3.293717E-2	3.324024E-2	3.800045E-2	3.720874E-2	4.142397E-2	3.581715E-2	3.216436E-2	2.930519E-2	3.504364E-2	3.052354E-2	3.235485E-2	3.353270E-2	2.492504E-2	2.287897E-2	3.633757E-2	3.654738E-2	3.492574E-2	3.406441E-2	2.790958E-2	3.409158E-2	3.090507E-2	2.772180E-2	3.245357E-2	3.523135E-2	3.392823E-2	2.892539E-2	3.130442E-2	3.026147E-2	1.880926E-2	3.180719E-2	2.779854E-2	3.096837E-2	2.486980E-2	3.747334E-2	2.489529E-2	2.909818E-2	3.857402E-2	3.272959E-2	2.344959E-2	1.943415E-2	3.465582E-2	3.494572E-2	3.096241E-2	3.993514E-2	2.397380E-2	2.423681E-2	2.544455E-2	3.948869E-2	3.071667E-2	2.578962E-2	3.192631E-2	2.237430E-2	2.861676E-2	4.104573E-2	2.608933E-2	2.780269E-2	2.913483E-2	2.980273E-2	3.217671E-2	3.155139E-2	2.890174E-2	3.812014E-2	2.547579E-2	3.083271E-2	1.956318E-2	2.493158E-2	3.221329E-2	4.517618E-2	2.399745E-2	2.248684E-2	4.163023E-2	3.430798E-2	3.154979E-2	3.403095E-2	3.590542E-2	2.864229E-2	3.265505E-2	3.688881E-2	1.985263E-2	1.989348E-2	3.213601E-2	3.461385E-2	2.430969E-2	2.479140E-2	1.923299E-2	2.858023E-2	1.491182E-2	3.497845E-2	2.080747E-2	3.084961E-2	2.144247E-2	3.407632E-2	2.822309E-2	3.845991E-2	2.444652E-2	3.082540E-2	2.350104E-2	2.896900E-2	3.164814E-2	3.446025E-2	3.657196E-2	4.345797E-2	2.701955E-2	3.679763E-2	2.845099E-2	2.421138E-2	3.783340E-2	3.112664E-2	4.025875E-2	3.707945E-2	2.783321E-2	3.017232E-2	3.751260E-2	2.723919E-2	2.473105E-2	2.838531E-2	3.548924E-2	3.168638E-2	3.148986E-2	2.499622E-2	1.620896E-2	3.406010E-2	3.590657E-2	2.918408E-2	3.537242E-2	2.558443E-2	3.578700E-2	2.186890E-2	2.108946E-2	4.322842E-2	2.332446E-2	2.609326E-2	3.360523E-2	3.169458E-2	2.348075E-2	2.810901E-2	3.170812E-2	1.879476E-2	3.762302E-2	2.927122E-2	3.263079E-2
5.333080E+2	3.062781E-2	3.078390E-2	2.734572E-2	2.974652E-2	4.344340E-2	2.958942E-2	4.149771E-2	3.392964E-2	4.871900E-2	4.347532E-2	4.119657E-2	4.619608E-2	3.131555E-2	3.549793E-2	3.778476E-2	3.576882E-2	3.907310E-2	3.373897E-2	3.565384E-2	3.985475E-2	3.735051E-2	3.305466E-2	3.976217E-2	3.863584E-2	4.094593E-2	4.280651E-2	4.052598E-2	3.189583E-2	4.476253E-2	3.918058E-2	4.375083E-2	2.590550E-2	3.821929E-2	4.419848E-2	3.058126E-2	5.048660E-2	2.733523E-2	2.157592E-2	4.669454E-2	4.651235E-2	3.085442E-2	4.292802E-2	3.652501E-2	3.966203E-2	3.916286E-2	3.333133E-2	3.407709E-2	4.006525E-2	3.511701E-2	3.973761E-2	2.920780E-2	2.971295E-2	2.702326E-2	4.142698E-2	4.625808E-2	3.650299E-2	4.509440E-2	4.481291E-2	5.544886E-2	3.358026E-2	3.243729E-2	4.104014E-2	4.613093E-2	4.217256E-2	5.665053E-2	3.349246E-2	4.062357E-2	3.868613E-2	3.461011E-2	4.306830E-2	5.061554E-2	3.572817E-2	3.704792E-2	2.637552E-2	3.595413E-2	5.192731E-2	3.859298E-2	2.888669E-2	3.653909E-2	4.156850E-2	3.391716E-2	4.771545E-2	3.613695E-2	2.820001E-2	3.284206E-2	4.053246E-2	2.974451E-2	4.852223E-2	3.376602E-2	3.626534E-2	4.262689E-2	4.723878E-2	2.318616E-2	2.604074E-2	4.440019E-2	3.414185E-2	2.959043E-2	3.516506E-2	2.955273E-2	4.348104E-2	3.307158E-2	3.848226E-2	4.323684E-2	2.992826E-2	3.588727E-2	3.930725E-2	3.368351E-2	4.521383E-2	2.907847E-2	4.235100E-2	4.099607E-2	4.247697E-2	3.456298E-2	4.356967E-2	3.829727E-2	4.172535E-2	3.194207E-2	4.143415E-2	3.548188E-2	3.787898E-2	5.142589E-2	4.764500E-2	2.650737E-2	3.565316E-2	3.950706E-2	3.669144E-2	4.513481E-2	3.586334E-2	3.890787E-2	3.043539E-2	3.211035E-2	2.955695E-2	4.142106E-2	4.003535E-2	4.444486E-2	4.711010E-2	3.751014E-2	3.731859E-2	2.888351E-2	4.339157E-2	3.676317E-2	2.801733E-2	3.437566E-2	3.794970E-2	3.333835E-2	3.930865E-2	3.072853E-2	3.537350E-2	2.417927E-2	3.025951E-2	3.184556E-2	4.389758E-2	5.209835E-2	3.624784E-2	3.870487E-2	3.849359E-2	3.210497E-2	3.782306E-2	4.687599E-2	3.606879E-2	4.018433E-2	4.294904E-2	2.052990E-2	2.896671E-2	4.034634E-2	2.920151E-2	2.592903E-2	4.179265E-2	3.573270E-2	5.248462E-2
5.334580E+2	5.203371E-2	4.469349E-2	4.134772E-2	4.786919E-2	5.230466E-2	4.885089E-2	4.690027E-2	5.782310E-2	5.069526E-2	3.952992E-2	4.770838E-2	5.304612E-2	5.342773E-2	4.756298E-2	5.395100E-2	4.662107E-2	3.866254E-2	5.624166E-2	4.586385E-2	5.168691E-2	4.851802E-2	6.114189E-2	5.317006E-2	5.559380E-2	5.988769E-2	5.536617E-2	4.282905E-2	6.159226E-2	5.818069E-2	5.956172E-2	6.069078E-2	4.756570E-2	5.729184E-2	5.449222E-2	5.491688E-2	6.192978E-2	4.439837E-2	5.415740E-2	4.201070E-2	5.090577E-2	3.098932E-2	3.793534E-2	4.650808E-2	5.679497E-2	4.932711E-2	5.190357E-2	6.018541E-2	4.537507E-2	5.102162E-2	5.330974E-2	3.991826E-2	3.630671E-2	5.537406E-2	5.329532E-2	5.485758E-2	6.127561E-2	4.920880E-2	7.238122E-2	4.109979E-2	5.299211E-2	5.833476E-2	5.650650E-2	7.027685E-2	4.644501E-2	5.494544E-2	6.104746E-2	4.474036E-2	5.731378E-2	5.248343E-2	4.430242E-2	5.857529E-2	5.403976E-2	4.902594E-2	4.332593E-2	5.915644E-2	5.686218E-2	4.855654E-2	5.454546E-2	5.137071E-2	4.374592E-2	6.414530E-2	5.470343E-2	5.787350E-2	4.390784E-2	4.935748E-2	4.859952E-2	5.876657E-2	5.963287E-2	5.707382E-2	4.511638E-2	6.420446E-2	4.563130E-2	5.148706E-2	5.053254E-2	5.356607E-2	5.093650E-2	5.371214E-2	5.281567E-2	3.840078E-2	6.389320E-2	5.907432E-2	4.288833E-2	6.342211E-2	4.521039E-2	6.283561E-2	5.356474E-2	5.090573E-2	4.952314E-2	3.931124E-2	5.789494E-2	6.676547E-2	4.662542E-2	5.711004E-2	4.849501E-2	5.763510E-2	6.649001E-2	5.658656E-2	4.875079E-2	5.796095E-2	6.105162E-2	4.989396E-2	5.617491E-2	4.390344E-2	4.839753E-2	5.724054E-2	6.515183E-2	5.970400E-2	5.083603E-2	4.143265E-2	5.358505E-2	6.013162E-2	4.058212E-2	5.065498E-2	6.145705E-2	5.584621E-2	5.220262E-2	4.832351E-2	4.187371E-2	5.076472E-2	5.907468E-2	5.348670E-2	5.340456E-2	6.483431E-2	4.560277E-2	5.687913E-2	7.018758E-2	4.820278E-2	6.365739E-2	5.948200E-2	5.459824E-2	6.755290E-2	5.791719E-2	5.105760E-2	5.687546E-2	5.508255E-2	5.272217E-2	5.495050E-2	5.434637E-2	6.617954E-2	5.275023E-2	6.934444E-2	5.336745E-2	5.703110E-2	5.417410E-2	4.825036E-2	5.285384E-2	4.971803E-2	5.233333E-2	3.589928E-2	5.491900E-2
5.336130E+2	7.122580E-2	7.432961E-2	6.657665E-2	5.023317E-2	6.456804E-2	7.283543E-2	6.101677E-2	6.472141E-2	6.909543E-2	5.194852E-2	5.617330E-2	7.416627E-2	6.478075E-2	7.697579E-2	8.083800E-2	5.426837E-2	7.376352E-2	7.227419E-2	7.266770E-2	6.966853E-2	6.641297E-2	6.125980E-2	6.858790E-2	7.059251E-2	7.505365E-2	6.381858E-2	7.315187E-2	6.587105E-2	5.871297E-2	7.317590E-2	7.502874E-2	7.395156E-2	6.755433E-2	4.990007E-2	9.140819E-2	6.668471E-2	6.725303E-2	6.866425E-2	6.968877E-2	7.762779E-2	6.418761E-2	7.784047E-2	7.432806E-2	7.154259E-2	9.278870E-2	6.678981E-2	5.604653E-2	6.285436E-2	5.734947E-2	5.539877E-2	6.475070E-2	6.692253E-2	7.428066E-2	7.959864E-2	8.135807E-2	8.294176E-2	6.405384E-2	6.580302E-2	6.940171E-2	5.770529E-2	5.937671E-2	5.661135E-2	7.899372E-2	7.900865E-2	7.442115E-2	7.028881E-2	7.033420E-2	6.377736E-2	7.646630E-2	7.162145E-2	7.521164E-2	7.291587E-2	6.301513E-2	6.312919E-2	6.313410E-2	5.463478E-2	6.701118E-2	7.374714E-2	7.841771E-2	5.504957E-2	7.752809E-2	8.581826E-2	8.439612E-2	5.758405E-2	6.983365E-2	7.798897E-2	8.726137E-2	7.542988E-2	7.097628E-2	6.713177E-2	7.042608E-2	6.908441E-2	6.207758E-2	6.307934E-2	6.130894E-2	6.532355E-2	7.025335E-2	6.919871E-2	5.898495E-2	7.312930E-2	8.147648E-2	6.696641E-2	6.724606E-2	6.588820E-2	7.351924E-2	7.191828E-2	6.614932E-2	6.663688E-2	6.777838E-2	7.552873E-2	6.093758E-2	7.926800E-2	6.594065E-2	6.418623E-2	6.660092E-2	4.885940E-2	7.922403E-2	6.936174E-2	6.826799E-2	5.134923E-2	7.184340E-2	7.489042E-2	7.340971E-2	5.795469E-2	7.850356E-2	5.249472E-2	6.362846E-2	7.148132E-2	6.960213E-2	5.845736E-2	5.872724E-2	6.031594E-2	6.452480E-2	7.082505E-2	7.264127E-2	7.060147E-2	4.936646E-2	6.506107E-2	6.535699E-2	8.537746E-2	7.640930E-2	7.399744E-2	6.905250E-2	6.671573E-2	6.848928E-2	8.558225E-2	6.929525E-2	7.572646E-2	6.057088E-2	6.854844E-2	7.878557E-2	7.313382E-2	8.453892E-2	5.854971E-2	7.554381E-2	7.638864E-2	6.999053E-2	6.959975E-2	6.330518E-2	6.827740E-2	7.965697E-2	5.882922E-2	7.834145E-2	7.352026E-2	6.608542E-2	6.262675E-2	6.383726E-2	7.292232E-2	6.900475E-2	3.641033E-2
5.337580E+2	1.055272E-1	9.441995E-2	1.023389E-1	1.051443E-1	1.032191E-1	9.247213E-2	1.051789E-1	1.057935E-1	1.043810E-1	1.114944E-1	9.747871E-2	9.889337E-2	1.034851E-1	9.566235E-2	1.062745E-1	1.058398E-1	1.003875E-1	9.505670E-2	1.100443E-1	1.159651E-1	1.048661E-1	1.048704E-1	1.056075E-1	9.657978E-2	1.041918E-1	1.303264E-1	9.294223E-2	1.157395E-1	1.210965E-1	9.759513E-2	1.088018E-1	1.067044E-1	1.246495E-1	1.076573E-1	1.132253E-1	8.792865E-2	1.077342E-1	1.023308E-1	1.188741E-1	1.094673E-1	1.096820E-1	9.325272E-2	1.187562E-1	1.203794E-1	1.220453E-1	1.037244E-1	1.127736E-1	1.024726E-1	8.832751E-2	1.111977E-1	1.098546E-1	1.007819E-1	9.540762E-2	1.034605E-1	1.109603E-1	1.126617E-1	1.045770E-1	1.180796E-1	1.068702E-1	1.048446E-1	1.060462E-1	1.077577E-1	1.086238E-1	9.865961E-2	1.046672E-1	1.008901E-1	9.979479E-2	9.375340E-2	1.083963E-1	1.016592E-1	1.085117E-1	1.102308E-1	1.129726E-1	1.027553E-1	1.111900E-1	1.058408E-1	8.075372E-2	1.093815E-1	1.173520E-1	1.052688E-1	1.289408E-1	1.165180E-1	1.064974E-1	1.137558E-1	1.103229E-1	8.972211E-2	9.870445E-2	9.667577E-2	1.101813E-1	1.063143E-1	9.580409E-2	1.085318E-1	1.048306E-1	9.084263E-2	1.113906E-1	9.583622E-2	9.137953E-2	1.076711E-1	9.009902E-2	9.577331E-2	1.029595E-1	9.911601E-2	1.028113E-1	1.148832E-1	9.891915E-2	9.982897E-2	1.044785E-1	1.088624E-1	1.168576E-1	1.042587E-1	1.169364E-1	1.097828E-1	1.004931E-1	1.053997E-1	1.131336E-1	9.579329E-2	1.133352E-1	1.042534E-1	9.999927E-2	9.361137E-2	1.110352E-1	9.577413E-2	1.088674E-1	1.033846E-1	1.104512E-1	9.880046E-2	1.069297E-1	9.490456E-2	1.261762E-1	1.165396E-1	1.068385E-1	1.003365E-1	8.904473E-2	1.046073E-1	1.209343E-1	1.130862E-1	1.152616E-1	1.160302E-1	9.703517E-2	1.025909E-1	9.889814E-2	1.104645E-1	1.109563E-1	1.028945E-1	1.148085E-1	1.044489E-1	9.619895E-2	1.187739E-1	1.094710E-1	1.056558E-1	1.112287E-1	1.167762E-1	1.112765E-1	1.005982E-1	1.158061E-1	8.733978E-2	1.119763E-1	1.095990E-1	1.116025E-1	1.006460E-1	1.080238E-1	1.046392E-1	1.035165E-1	1.075835E-1	9.988112E-2	9.315796E-2	1.111641E-1	1.247918E-1	1.087042E-1	1.047258E-1
5.339090E+2	1.613403E-1	1.465980E-1	1.299435E-1	1.621644E-1	1.680762E-1	1.575006E-1	1.677939E-1	1.423194E-1	1.479957E-1	1.551857E-1	1.662472E-1	1.555777E-1	1.464193E-1	1.358455E-1	1.618929E-1	1.409240E-1	1.579454E-1	1.603826E-1	1.734082E-1	1.601674E-1	1.392334E-1	1.695499E-1	1.592636E-1	1.808808E-1	1.924875E-1	1.781080E-1	1.874821E-1	1.856017E-1	1.733558E-1	1.588788E-1	1.712088E-1	1.691937E-1	1.843292E-1	1.852051E-1	1.563574E-1	1.526939E-1	1.718144E-1	1.736391E-1	1.946131E-1	1.530586E-1	1.605970E-1	1.706923E-1	1.661915E-1	1.608238E-1	1.837931E-1	1.702847E-1	1.688516E-1	1.609762E-1	1.449946E-1	1.877522E-1	1.817059E-1	1.610694E-1	1.743776E-1	1.697618E-1	1.691663E-1	1.763257E-1	1.620727E-1	1.684289E-1	1.883670E-1	1.706231E-1	1.599952E-1	1.506127E-1	1.765311E-1	1.724804E-1	1.674892E-1	1.572811E-1	1.725219E-1	1.750821E-1	1.779147E-1	1.710704E-1	1.803637E-1	1.684258E-1	1.562328E-1	1.645742E-1	1.557392E-1	1.768218E-1	1.776456E-1	1.647806E-1	1.471426E-1	1.661186E-1	1.753433E-1	1.699354E-1	1.722981E-1	1.643500E-1	1.658966E-1	1.619846E-1	1.644879E-1	1.677180E-1	1.759341E-1	1.911028E-1	1.647797E-1	1.713989E-1	1.884168E-1	1.677498E-1	1.551912E-1	1.440833E-1	1.678950E-1	1.690834E-1	1.581438E-1	1.725478E-1	1.728653E-1	1.600945E-1	1.750268E-1	1.611361E-1	1.649085E-1	1.637953E-1	1.765634E-1	1.665881E-1	1.825212E-1	1.771052E-1	1.675010E-1	1.621465E-1	2.018187E-1	1.667294E-1	1.781428E-1	1.635859E-1	1.826467E-1	1.523328E-1	1.403400E-1	1.813674E-1	1.787445E-1	1.825995E-1	1.834077E-1	1.512873E-1	1.655318E-1	1.795362E-1	1.722169E-1	1.716778E-1	1.827622E-1	1.811844E-1	1.701553E-1	1.797761E-1	1.677789E-1	1.442231E-1	1.856338E-1	1.911763E-1	1.645826E-1	1.586189E-1	1.443642E-1	1.591420E-1	1.777408E-1	1.706936E-1	1.846588E-1	1.639385E-1	1.701861E-1	1.605123E-1	1.799896E-1	1.762425E-1	1.771228E-1	1.715369E-1	1.828611E-1	1.881826E-1	1.881731E-1	1.589968E-1	1.723951E-1	1.718652E-1	1.695984E-1	1.667533E-1	1.689734E-1	1.636316E-1	1.691913E-1	1.573449E-1	1.594257E-1	1.543890E-1	1.491719E-1	1.829280E-1	1.623287E-1	1.902168E-1	1.709086E-1	1.689596E-1
5.340800E+2	2.760839E-1	2.744922E-1	2.540172E-1	3.016707E-1	2.954987E-1	2.918392E-1	2.814236E-1	2.870409E-1	2.557924E-1	2.786581E-1	2.762900E-1	2.595903E-1	2.779693E-1	2.708462E-1	2.754965E-1	2.909119E-1	2.856204E-1	2.802541E-1	2.813882E-1	2.963230E-1	2.645016E-1	2.762560E-1	2.725845E-1	2.828484E-1	3.042705E-1	3.212741E-1	2.993333E-1	2.966937E-1	2.928284E-1	2.820338E-1	3.068332E-1	3.171995E-1	3.431884E-1	3.023800E-1	3.053903E-1	2.770498E-1	2.978693E-1	2.765011E-1	3.014494E-1	3.048574E-1	2.731276E-1	2.800695E-1	2.982461E-1	3.016884E-1	3.195721E-1	2.774460E-1	2.869748E-1	2.858058E-1	2.943297E-1	2.816653E-1	3.124160E-1	3.225127E-1	2.999877E-1	2.757822E-1	3.102718E-1	3.024023E-1	2.866784E-1	3.004954E-1	2.960754E-1	3.038222E-1	2.741085E-1	2.660510E-1	3.066835E-1	2.877162E-1	3.061042E-1	2.825450E-1	3.021773E-1	3.206232E-1	2.857742E-1	3.122097E-1	3.037456E-1	3.062740E-1	2.956312E-1	2.892144E-1	2.929267E-1	2.908629E-1	2.771728E-1	2.879422E-1	2.895918E-1	3.039549E-1	2.726811E-1	2.900207E-1	2.531868E-1	2.959161E-1	2.699447E-1	3.168115E-1	2.951330E-1	2.836368E-1	2.998733E-1	2.855033E-1	2.917496E-1	3.002822E-1	3.080076E-1	2.766710E-1	2.592728E-1	2.693213E-1	3.049899E-1	2.893862E-1	3.122645E-1	2.908278E-1	2.799185E-1	2.859046E-1	2.852538E-1	3.147489E-1	2.782238E-1	2.938116E-1	2.743520E-1	3.064981E-1	2.901075E-1	3.066510E-1	2.745692E-1	2.827834E-1	2.720929E-1	2.793208E-1	2.947978E-1	2.795698E-1	2.959934E-1	2.954787E-1	2.836208E-1	2.951688E-1	2.928285E-1	2.999469E-1	2.943227E-1	2.635970E-1	2.726538E-1	2.830917E-1	2.983592E-1	2.844250E-1	3.058401E-1	2.582304E-1	2.926579E-1	2.680649E-1	2.806102E-1	3.089263E-1	3.017563E-1	3.213949E-1	2.935181E-1	2.796496E-1	2.975015E-1	2.961283E-1	2.796298E-1	2.935196E-1	2.949307E-1	2.985248E-1	3.018059E-1	2.782421E-1	2.796402E-1	2.932829E-1	2.920885E-1	3.073747E-1	2.884057E-1	3.201155E-1	2.792490E-1	2.753716E-1	2.743932E-1	2.718436E-1	2.937474E-1	2.876784E-1	2.781360E-1	2.839877E-1	2.950688E-1	2.927894E-1	3.087035E-1	2.952538E-1	3.040693E-1	3.026121E-1	2.829851E-1	2.870939E-1	2.899031E-1	2.828721E-1
5.342040E+2	4.141842E-1	3.986896E-1	4.530595E-1	4.638211E-1	4.354973E-1	4.609712E-1	4.417667E-1	4.178319E-1	4.184647E-1	4.147916E-1	4.296954E-1	4.403379E-1	4.552609E-1	4.564688E-1	4.244613E-1	4.305337E-1	4.300505E-1	4.293459E-1	4.398781E-1	4.388580E-1	4.609889E-1	4.618179E-1	4.716792E-1	4.502812E-1	4.913730E-1	4.926720E-1	4.793685E-1	4.869808E-1	4.827675E-1	4.667476E-1	4.830875E-1	4.897031E-1	4.728376E-1	4.945144E-1	4.854979E-1	4.486353E-1	4.375330E-1	4.677455E-1	4.660169E-1	4.696730E-1	4.564155E-1	4.467961E-1	4.565888E-1	4.595415E-1	4.522548E-1	4.566679E-1	4.693400E-1	4.416539E-1	4.598912E-1	4.517286E-1	4.283541E-1	4.480392E-1	4.456198E-1	4.512259E-1	4.461598E-1	4.810010E-1	4.773014E-1	4.532916E-1	4.661553E-1	4.787498E-1	4.744279E-1	4.222452E-1	4.372017E-1	4.356239E-1	4.384749E-1	4.623407E-1	4.466407E-1	4.579273E-1	4.744308E-1	4.225215E-1	4.700485E-1	4.316388E-1	4.731002E-1	4.359821E-1	4.625929E-1	4.633586E-1	4.339171E-1	4.188549E-1	4.543629E-1	4.347674E-1	4.398308E-1	4.734062E-1	4.585682E-1	4.560062E-1	4.437202E-1	4.622922E-1	4.738073E-1	4.607483E-1	4.314330E-1	4.489243E-1	4.578788E-1	4.354655E-1	4.166146E-1	4.560957E-1	4.482452E-1	4.408900E-1	4.614534E-1	4.660938E-1	4.051710E-1	4.452811E-1	4.329724E-1	4.345300E-1	4.386038E-1	4.324849E-1	4.199515E-1	4.592055E-1	4.441488E-1	4.417913E-1	4.264593E-1	4.497080E-1	4.398445E-1	4.657437E-1	4.401038E-1	4.316228E-1	4.868714E-1	4.330351E-1	4.701530E-1	4.393409E-1	4.463520E-1	4.712994E-1	4.773388E-1	4.626547E-1	4.692015E-1	4.633706E-1	4.456435E-1	4.420035E-1	4.598961E-1	4.592785E-1	4.387808E-1	4.316792E-1	4.668089E-1	4.531538E-1	4.564226E-1	4.661377E-1	4.420984E-1	4.509355E-1	4.262017E-1	4.641166E-1	4.619958E-1	4.786226E-1	4.187461E-1	4.717923E-1	4.362745E-1	4.643498E-1	4.166318E-1	4.513746E-1	4.546023E-1	4.317962E-1	4.405899E-1	4.429065E-1	4.555448E-1	4.431125E-1	4.677651E-1	4.439580E-1	4.452693E-1	4.530446E-1	4.554584E-1	4.374253E-1	4.795417E-1	4.621770E-1	4.462742E-1	4.697202E-1	4.362077E-1	4.330070E-1	4.539363E-1	4.714947E-1	4.860156E-1	4.640373E-1	4.575094E-1	4.212393E-1
5.343600E+2	7.690699E-1	7.919371E-1	7.663375E-1	8.092958E-1	7.798425E-1	8.083072E-1	7.719997E-1	7.980410E-1	7.958256E-1	7.426210E-1	8.131106E-1	8.082445E-1	7.882002E-1	7.752699E-1	7.870854E-1	8.139427E-1	8.170191E-1	7.754414E-1	7.993146E-1	7.855273E-1	8.090705E-1	7.941265E-1	8.615782E-1	8.050294E-1	8.546444E-1	8.841425E-1	8.737097E-1	8.400408E-1	8.367866E-1	8.347870E-1	8.018052E-1	8.429781E-1	8.287358E-1	8.377892E-1	8.341415E-1	8.284050E-1	8.385902E-1	8.525929E-1	7.805687E-1	8.201881E-1	8.260139E-1	8.583257E-1	7.958645E-1	8.479822E-1	8.286456E-1	8.052565E-1	8.022556E-1	7.892028E-1	7.882638E-1	8.005481E-1	8.253045E-1	8.052816E-1	7.975479E-1	7.940228E-1	7.846609E-1	8.142929E-1	8.391484E-1	8.105110E-1	7.821756E-1	8.197021E-1	8.125867E-1	7.650445E-1	7.544722E-1	7.796496E-1	8.048684E-1	8.069496E-1	8.285390E-1	7.706888E-1	8.294935E-1	7.733094E-1	7.821336E-1	8.179980E-1	8.247376E-1	7.880616E-1	7.601063E-1	8.290751E-1	7.814649E-1	8.024324E-1	7.793358E-1	7.796396E-1	8.733700E-1	8.136203E-1	7.863772E-1	8.112756E-1	7.872488E-1	7.698248E-1	8.111318E-1	8.136671E-1	8.315897E-1	8.216876E-1	7.720361E-1	7.732189E-1	8.539687E-1	7.896091E-1	7.676372E-1	8.439707E-1	8.132619E-1	8.441713E-1	8.059589E-1	7.993811E-1	7.826254E-1	8.031788E-1	8.086301E-1	8.022856E-1	8.200114E-1	7.974074E-1	8.082448E-1	8.435824E-1	7.980649E-1	7.919690E-1	7.697852E-1	8.584790E-1	8.170188E-1	7.663031E-1	8.143294E-1	7.682643E-1	7.831262E-1	8.072761E-1	7.831761E-1	8.213942E-1	8.137934E-1	8.556688E-1	7.906799E-1	8.384840E-1	7.945514E-1	7.985879E-1	7.700898E-1	8.139244E-1	8.542281E-1	8.328036E-1	8.091905E-1	7.766821E-1	8.289491E-1	8.225448E-1	8.485671E-1	7.962594E-1	8.031488E-1	8.123704E-1	7.865075E-1	8.173337E-1	7.690023E-1	8.092909E-1	7.843654E-1	7.934421E-1	8.129048E-1	8.233937E-1	7.339567E-1	8.285273E-1	7.912819E-1	8.114756E-1	7.938895E-1	8.397741E-1	7.748102E-1	8.488386E-1	8.538850E-1	7.763822E-1	8.189218E-1	7.796862E-1	8.023179E-1	7.906672E-1	8.019506E-1	7.922935E-1	7.553197E-1	8.389479E-1	7.925084E-1	8.417033E-1	8.292267E-1	8.056808E-1	7.351860E-1	7.512593E-1
5.345110E+2	1.120610E+0	1.141044E+0	1.145030E+0	1.124561E+0	1.130357E+0	1.174594E+0	1.141858E+0	1.133974E+0	1.144267E+0	1.160287E+0	1.132531E+0	1.143749E+0	1.162202E+0	1.162005E+0	1.113405E+0	1.143918E+0	1.176300E+0	1.166082E+0	1.157826E+0	1.136977E+0	1.139121E+0	1.123198E+0	1.141346E+0	1.136409E+0	1.223655E+0	1.213230E+0	1.184614E+0	1.159534E+0	1.158459E+0	1.183085E+0	1.163899E+0	1.141711E+0	1.255749E+0	1.182304E+0	1.234064E+0	1.163643E+0	1.171143E+0	1.162173E+0	1.191550E+0	1.191563E+0	1.156421E+0	1.218011E+0	1.166399E+0	1.199475E+0	1.164329E+0	1.129673E+0	1.116579E+0	1.158560E+0	1.183368E+0	1.143444E+0	1.173541E+0	1.188471E+0	1.134394E+0	1.127636E+0	1.147177E+0	1.158385E+0	1.137003E+0	1.188691E+0	1.196399E+0	1.197539E+0	1.171617E+0	1.148575E+0	1.188388E+0	1.165024E+0	1.141984E+0	1.178213E+0	1.137383E+0	1.166863E+0	1.201702E+0	1.127667E+0	1.141236E+0	1.162088E+0	1.137119E+0	1.099721E+0	1.164738E+0	1.189543E+0	1.168228E+0	1.163993E+0	1.150248E+0	1.164670E+0	1.137524E+0	1.167610E+0	1.126312E+0	1.134635E+0	1.160517E+0	1.145103E+0	1.151241E+0	1.159234E+0	1.202383E+0	1.135362E+0	1.158133E+0	1.145006E+0	1.161749E+0	1.101876E+0	1.165700E+0	1.126657E+0	1.182552E+0	1.134176E+0	1.186183E+0	1.152457E+0	1.132485E+0	1.147312E+0	1.169097E+0	1.150243E+0	1.195324E+0	1.168589E+0	1.145474E+0	1.132955E+0	1.152649E+0	1.140949E+0	1.139460E+0	1.163275E+0	1.142379E+0	1.173322E+0	1.093348E+0	1.166407E+0	1.145503E+0	1.138374E+0	1.144844E+0	1.179398E+0	1.146261E+0	1.118356E+0	1.128195E+0	1.168926E+0	1.107904E+0	1.124642E+0	1.095519E+0	1.115200E+0	1.141460E+0	1.177021E+0	1.145494E+0	1.165824E+0	1.176333E+0	1.193641E+0	1.171292E+0	1.118634E+0	1.098034E+0	1.148604E+0	1.158140E+0	1.185054E+0	1.124095E+0	1.124273E+0	1.120159E+0	1.186516E+0	1.108213E+0	1.137907E+0	1.164088E+0	1.181054E+0	1.158918E+0	1.119790E+0	1.108177E+0	1.180310E+0	1.143757E+0	1.180001E+0	1.134825E+0	1.117875E+0	1.160830E+0	1.103953E+0	1.152879E+0	1.132287E+0	1.147935E+0	1.165534E+0	1.134732E+0	1.136582E+0	1.131153E+0	1.102367E+0	1.152349E+0	1.120191E+0	1.115011E+0	1.153030E+0
5.346510E+2	1.572834E+0	1.539771E+0	1.624349E+0	1.592040E+0	1.600917E+0	1.633351E+0	1.597324E+0	1.623514E+0	1.564164E+0	1.525931E+0	1.571603E+0	1.623340E+0	1.525056E+0	1.663885E+0	1.616102E+0	1.638913E+0	1.609395E+0	1.590174E+0	1.608885E+0	1.590853E+0	1.594996E+0	1.631787E+0	1.586289E+0	1.594428E+0	1.662820E+0	1.662019E+0	1.583203E+0	1.689815E+0	1.579796E+0	1.609419E+0	1.611163E+0	1.664568E+0	1.659745E+0	1.674144E+0	1.658275E+0	1.605878E+0	1.613729E+0	1.614461E+0	1.630832E+0	1.672448E+0	1.624658E+0	1.615432E+0	1.590509E+0	1.663738E+0	1.593723E+0	1.603762E+0	1.624091E+0	1.572900E+0	1.606701E+0	1.595779E+0	1.575366E+0	1.664084E+0	1.591577E+0	1.562429E+0	1.577236E+0	1.563771E+0	1.615734E+0	1.594358E+0	1.561474E+0	1.584236E+0	1.588522E+0	1.550105E+0	1.577748E+0	1.540303E+0	1.568539E+0	1.550396E+0	1.542948E+0	1.582271E+0	1.580352E+0	1.570733E+0	1.585821E+0	1.624396E+0	1.627406E+0	1.575537E+0	1.580174E+0	1.599370E+0	1.561463E+0	1.607606E+0	1.572791E+0	1.617438E+0	1.571192E+0	1.575927E+0	1.543778E+0	1.553782E+0	1.611523E+0	1.546124E+0	1.578212E+0	1.586276E+0	1.622400E+0	1.547737E+0	1.625497E+0	1.491596E+0	1.601436E+0	1.555472E+0	1.521048E+0	1.622566E+0	1.608748E+0	1.607166E+0	1.633863E+0	1.603234E+0	1.595042E+0	1.608341E+0	1.585530E+0	1.608926E+0	1.578247E+0	1.576947E+0	1.573709E+0	1.615900E+0	1.562196E+0	1.588007E+0	1.565866E+0	1.606136E+0	1.566202E+0	1.524286E+0	1.603924E+0	1.520050E+0	1.582243E+0	1.538651E+0	1.526041E+0	1.595514E+0	1.574312E+0	1.675932E+0	1.538344E+0	1.605424E+0	1.551051E+0	1.615987E+0	1.565624E+0	1.580187E+0	1.582504E+0	1.564378E+0	1.578903E+0	1.563000E+0	1.529207E+0	1.637034E+0	1.609677E+0	1.647328E+0	1.547898E+0	1.566579E+0	1.591558E+0	1.581952E+0	1.511817E+0	1.476212E+0	1.604219E+0	1.542139E+0	1.562907E+0	1.603413E+0	1.495526E+0	1.591895E+0	1.545814E+0	1.547102E+0	1.568127E+0	1.602799E+0	1.501226E+0	1.599743E+0	1.655300E+0	1.578792E+0	1.579180E+0	1.521554E+0	1.582960E+0	1.531967E+0	1.564257E+0	1.649131E+0	1.593957E+0	1.609033E+0	1.539399E+0	1.541374E+0	1.517462E+0	1.512231E+0	1.508035E+0	1.560603E+0
5.348280E+2	1.901662E+0	1.896478E+0	1.837680E+0	1.898749E+0	1.849792E+0	1.887000E+0	1.916983E+0	1.935489E+0	1.936512E+0	1.855075E+0	1.870131E+0	1.895981E+0	1.909652E+0	1.909435E+0	1.867633E+0	1.904673E+0	1.903026E+0	1.877020E+0	1.888396E+0	1.864395E+0	1.852398E+0	1.953202E+0	1.892312E+0	1.870263E+0	1.850338E+0	1.945272E+0	1.836955E+0	1.942178E+0	1.892434E+0	1.843359E+0	1.893837E+0	1.912944E+0	1.935212E+0	1.848668E+0	1.917090E+0	1.840995E+0	1.875105E+0	1.804057E+0	1.868835E+0	1.836088E+0	1.827204E+0	1.843129E+0	1.926184E+0	1.858795E+0	1.864447E+0	1.929463E+0	1.920206E+0	1.869332E+0	1.882883E+0	1.808596E+0	1.888703E+0	1.865558E+0	1.814510E+0	1.877412E+0	1.813269E+0	1.882532E+0	1.938144E+0	1.864572E+0	1.881712E+0	1.821360E+0	1.859305E+0	1.881917E+0	1.841678E+0	1.877116E+0	1.921027E+0	1.873770E+0	1.822457E+0	1.901709E+0	1.886153E+0	1.847115E+0	1.812282E+0	1.898109E+0	1.928915E+0	1.827183E+0	1.871264E+0	1.888652E+0	1.893760E+0	1.838690E+0	1.853183E+0	1.897351E+0	1.882890E+0	1.831377E+0	1.860470E+0	1.883546E+0	1.841688E+0	1.863987E+0	1.836840E+0	1.918992E+0	1.938630E+0	1.804910E+0	1.861498E+0	1.913682E+0	1.907913E+0	1.783757E+0	1.890524E+0	1.824853E+0	1.832069E+0	1.903866E+0	1.812885E+0	1.897359E+0	1.825523E+0	1.818181E+0	1.823917E+0	1.883805E+0	1.886346E+0	1.854898E+0	1.898680E+0	1.900231E+0	1.841384E+0	1.843119E+0	1.856045E+0	1.842145E+0	1.851971E+0	1.775655E+0	1.837194E+0	1.882481E+0	1.832663E+0	1.890490E+0	1.856919E+0	1.855755E+0	1.835240E+0	1.894414E+0	1.834313E+0	1.859856E+0	1.887365E+0	1.822060E+0	1.830080E+0	1.831645E+0	1.862396E+0	1.873510E+0	1.778616E+0	1.764639E+0	1.811276E+0	1.881781E+0	1.863038E+0	1.867715E+0	1.820149E+0	1.903715E+0	1.828501E+0	1.860616E+0	1.819137E+0	1.826152E+0	1.845089E+0	1.802546E+0	1.828695E+0	1.819902E+0	1.813453E+0	1.858144E+0	1.796818E+0	1.822279E+0	1.771540E+0	1.888650E+0	1.778791E+0	1.745435E+0	1.975129E+0	1.828516E+0	1.784628E+0	1.757155E+0	1.804217E+0	1.828909E+0	1.882283E+0	1.839726E+0	1.831891E+0	1.777620E+0	1.732177E+0	1.794293E+0	1.783187E+0	1.871435E+0	1.803571E+0	1.665336E+0
5.349630E+2	2.021558E+0	1.969006E+0	2.057786E+0	2.057623E+0	2.044908E+0	2.013481E+0	2.011157E+0	2.049731E+0	1.963769E+0	2.034325E+0	2.030520E+0	2.050851E+0	1.996291E+0	2.030285E+0	2.028221E+0	2.053231E+0	2.095808E+0	1.973780E+0	2.086384E+0	2.063363E+0	2.038516E+0	2.009427E+0	2.024985E+0	2.045068E+0	2.029878E+0	2.013313E+0	2.020045E+0	2.004697E+0	2.065556E+0	1.988704E+0	1.992296E+0	2.060888E+0	2.110436E+0	2.077614E+0	2.008647E+0	1.953615E+0	1.997480E+0	2.002627E+0	2.052279E+0	2.020476E+0	2.037064E+0	1.936278E+0	2.009325E+0	2.029358E+0	2.013536E+0	1.998420E+0	1.971264E+0	2.015363E+0	1.930637E+0	1.987219E+0	2.022024E+0	2.071575E+0	1.967465E+0	1.995247E+0	1.981341E+0	1.987267E+0	2.055262E+0	1.933194E+0	2.014286E+0	1.997065E+0	2.021798E+0	1.965678E+0	1.997932E+0	1.923502E+0	1.961842E+0	2.008071E+0	1.991829E+0	2.024615E+0	1.986762E+0	1.968178E+0	1.975309E+0	2.028811E+0	2.039129E+0	1.983492E+0	1.936708E+0	2.008686E+0	1.959811E+0	1.948095E+0	1.970811E+0	1.958179E+0	2.033047E+0	1.959709E+0	1.973552E+0	2.027784E+0	2.003431E+0	1.989975E+0	2.012158E+0	1.970503E+0	2.023181E+0	1.992702E+0	2.021278E+0	1.948576E+0	1.964355E+0	1.885306E+0	1.943532E+0	1.998750E+0	2.015473E+0	1.948622E+0	1.974546E+0	1.967742E+0	1.958146E+0	1.962585E+0	1.978558E+0	2.003149E+0	1.943581E+0	2.017397E+0	1.978848E+0	2.013513E+0	1.923898E+0	2.003199E+0	1.943980E+0	1.926902E+0	2.015984E+0	1.955696E+0	2.019203E+0	1.979494E+0	1.978572E+0	2.023837E+0	1.936258E+0	1.923038E+0	1.974431E+0	1.992941E+0	1.878440E+0	2.024314E+0	1.947250E+0	1.911406E+0	1.934533E+0	1.949108E+0	1.959046E+0	1.925338E+0	2.012900E+0	2.010369E+0	1.951111E+0	1.942633E+0	1.962534E+0	1.982448E+0	1.982585E+0	1.945051E+0	1.923507E+0	1.947705E+0	1.942057E+0	1.954512E+0	1.928902E+0	1.929672E+0	1.936056E+0	1.977586E+0	1.945249E+0	1.951344E+0	2.010828E+0	1.953937E+0	1.876731E+0	1.961410E+0	1.907953E+0	1.957536E+0	1.996572E+0	1.937591E+0	1.955061E+0	1.889844E+0	1.947178E+0	1.947130E+0	1.938493E+0	1.947401E+0	1.919009E+0	1.962271E+0	1.925173E+0	1.923500E+0	1.954953E+0	1.980659E+0	1.909765E+0	1.862712E+0
5.351140E+2	1.808255E+0	1.850763E+0	1.837434E+0	1.843875E+0	1.828246E+0	1.842994E+0	1.846730E+0	1.859319E+0	1.786819E+0	1.863747E+0	1.794769E+0	1.830291E+0	1.841658E+0	1.762486E+0	1.800333E+0	1.866643E+0	1.910916E+0	1.864156E+0	1.806391E+0	1.806803E+0	1.825027E+0	1.827303E+0	1.826161E+0	1.798800E+0	1.818810E+0	1.797310E+0	1.803961E+0	1.767820E+0	1.851111E+0	1.823969E+0	1.819798E+0	1.834911E+0	1.906993E+0	1.757794E+0	1.838576E+0	1.748851E+0	1.813800E+0	1.803002E+0	1.883343E+0	1.796548E+0	1.847062E+0	1.826451E+0	1.822229E+0	1.788303E+0	1.850952E+0	1.780871E+0	1.772731E+0	1.879355E+0	1.819116E+0	1.805311E+0	1.839128E+0	1.827506E+0	1.793381E+0	1.758242E+0	1.773608E+0	1.819335E+0	1.800438E+0	1.762567E+0	1.845163E+0	1.822845E+0	1.814388E+0	1.732523E+0	1.829351E+0	1.786291E+0	1.778029E+0	1.831338E+0	1.777329E+0	1.903062E+0	1.812151E+0	1.758448E+0	1.817386E+0	1.795589E+0	1.801212E+0	1.763298E+0	1.788876E+0	1.824414E+0	1.742315E+0	1.708675E+0	1.841027E+0	1.763362E+0	1.812510E+0	1.805882E+0	1.783845E+0	1.831665E+0	1.767714E+0	1.765759E+0	1.811952E+0	1.830847E+0	1.849135E+0	1.767488E+0	1.787346E+0	1.819351E+0	1.852703E+0	1.732163E+0	1.819867E+0	1.789557E+0	1.808856E+0	1.757483E+0	1.784634E+0	1.827962E+0	1.744359E+0	1.803096E+0	1.835474E+0	1.846404E+0	1.810680E+0	1.814030E+0	1.796973E+0	1.785149E+0	1.780996E+0	1.791593E+0	1.733562E+0	1.760183E+0	1.753417E+0	1.807349E+0	1.807668E+0	1.743207E+0	1.754933E+0	1.782260E+0	1.751694E+0	1.767139E+0	1.769159E+0	1.853299E+0	1.727704E+0	1.845999E+0	1.755237E+0	1.797964E+0	1.712666E+0	1.810960E+0	1.830134E+0	1.790442E+0	1.759597E+0	1.749783E+0	1.799705E+0	1.773259E+0	1.740874E+0	1.791840E+0	1.763395E+0	1.790353E+0	1.823271E+0	1.833206E+0	1.721140E+0	1.765847E+0	1.795174E+0	1.731964E+0	1.759256E+0	1.783273E+0	1.742119E+0	1.792961E+0	1.810777E+0	1.772679E+0	1.749376E+0	1.807219E+0	1.769447E+0	1.756644E+0	1.786490E+0	1.796317E+0	1.723692E+0	1.694792E+0	1.761162E+0	1.790479E+0	1.781016E+0	1.810396E+0	1.732283E+0	1.760721E+0	1.745557E+0	1.791201E+0	1.724954E+0	1.876643E+0	1.693902E+0	1.842758E+0
5.352600E+2	1.653779E+0	1.739367E+0	1.714587E+0	1.751031E+0	1.723777E+0	1.716516E+0	1.773826E+0	1.760055E+0	1.744432E+0	1.740868E+0	1.741006E+0	1.748997E+0	1.735877E+0	1.692150E+0	1.793337E+0	1.761277E+0	1.795990E+0	1.742814E+0	1.800055E+0	1.712543E+0	1.706487E+0	1.719253E+0	1.748733E+0	1.703652E+0	1.735375E+0	1.759901E+0	1.707264E+0	1.734058E+0	1.729570E+0	1.676100E+0	1.733041E+0	1.767917E+0	1.763110E+0	1.785720E+0	1.718953E+0	1.701553E+0	1.722280E+0	1.762417E+0	1.683824E+0	1.703451E+0	1.717922E+0	1.755899E+0	1.723728E+0	1.776578E+0	1.723453E+0	1.783969E+0	1.701679E+0	1.695904E+0	1.734175E+0	1.685361E+0	1.685452E+0	1.682140E+0	1.715921E+0	1.667041E+0	1.656167E+0	1.732578E+0	1.699723E+0	1.669698E+0	1.764435E+0	1.769916E+0	1.793245E+0	1.724686E+0	1.744888E+0	1.693426E+0	1.772984E+0	1.675742E+0	1.668997E+0	1.757906E+0	1.709298E+0	1.663856E+0	1.674412E+0	1.735666E+0	1.797191E+0	1.636727E+0	1.684427E+0	1.673514E+0	1.723262E+0	1.684444E+0	1.683921E+0	1.688955E+0	1.727305E+0	1.726813E+0	1.669010E+0	1.793410E+0	1.677050E+0	1.670581E+0	1.711543E+0	1.720754E+0	1.730323E+0	1.715574E+0	1.714148E+0	1.667259E+0	1.683211E+0	1.641862E+0	1.665485E+0	1.677680E+0	1.739884E+0	1.709510E+0	1.734919E+0	1.697169E+0	1.697467E+0	1.678890E+0	1.705118E+0	1.692766E+0	1.639927E+0	1.673418E+0	1.677145E+0	1.731650E+0	1.746891E+0	1.708313E+0	1.750413E+0	1.708071E+0	1.677712E+0	1.671716E+0	1.810267E+0	1.731501E+0	1.740642E+0	1.658808E+0	1.635943E+0	1.681154E+0	1.748535E+0	1.724818E+0	1.646968E+0	1.696070E+0	1.734654E+0	1.683870E+0	1.688785E+0	1.715048E+0	1.733498E+0	1.744271E+0	1.730504E+0	1.720170E+0	1.684026E+0	1.734626E+0	1.680774E+0	1.702055E+0	1.737606E+0	1.754713E+0	1.658413E+0	1.687674E+0	1.655695E+0	1.706592E+0	1.632915E+0	1.732565E+0	1.686992E+0	1.744362E+0	1.683852E+0	1.685821E+0	1.718439E+0	1.693059E+0	1.677860E+0	1.714236E+0	1.699805E+0	1.695269E+0	1.683049E+0	1.590412E+0	1.685797E+0	1.617320E+0	1.680340E+0	1.701574E+0	1.721323E+0	1.698123E+0	1.604291E+0	1.694342E+0	1.678982E+0	1.727337E+0	1.662673E+0	1.758291E+0	1.688218E+0	1.694282E+0
5.354110E+2	1.358332E+0	1.352543E+0	1.425664E+0	1.421110E+0	1.414641E+0	1.392195E+0	1.432770E+0	1.429949E+0	1.362967E+0	1.354982E+0	1.416769E+0	1.394117E+0	1.426315E+0	1.366106E+0	1.365874E+0	1.419406E+0	1.436937E+0	1.358349E+0	1.398424E+0	1.369548E+0	1.404995E+0	1.409114E+0	1.417311E+0	1.389527E+0	1.370157E+0	1.439869E+0	1.402177E+0	1.409153E+0	1.388879E+0	1.416216E+0	1.444611E+0	1.398514E+0	1.373884E+0	1.408939E+0	1.439694E+0	1.325970E+0	1.364512E+0	1.367507E+0	1.393784E+0	1.362277E+0	1.388609E+0	1.359526E+0	1.389590E+0	1.350391E+0	1.368333E+0	1.366330E+0	1.373024E+0	1.402870E+0	1.405527E+0	1.429008E+0	1.379883E+0	1.402870E+0	1.345570E+0	1.360923E+0	1.333259E+0	1.382879E+0	1.457362E+0	1.360889E+0	1.410228E+0	1.332990E+0	1.397990E+0	1.332185E+0	1.356623E+0	1.389943E+0	1.371934E+0	1.416942E+0	1.351146E+0	1.436737E+0	1.339019E+0	1.317685E+0	1.354382E+0	1.386468E+0	1.436962E+0	1.311893E+0	1.342456E+0	1.375353E+0	1.412132E+0	1.387468E+0	1.368348E+0	1.398818E+0	1.449902E+0	1.410870E+0	1.394546E+0	1.414537E+0	1.413020E+0	1.376368E+0	1.399192E+0	1.381821E+0	1.456868E+0	1.324326E+0	1.375348E+0	1.350440E+0	1.400042E+0	1.300354E+0	1.363549E+0	1.333552E+0	1.380031E+0	1.421865E+0	1.395984E+0	1.420693E+0	1.339832E+0	1.392652E+0	1.404172E+0	1.405986E+0	1.374800E+0	1.345635E+0	1.373958E+0	1.339346E+0	1.364298E+0	1.321105E+0	1.376362E+0	1.321966E+0	1.348855E+0	1.344781E+0	1.361786E+0	1.360896E+0	1.351465E+0	1.383959E+0	1.394359E+0	1.353290E+0	1.423225E+0	1.420577E+0	1.342459E+0	1.345889E+0	1.380577E+0	1.355592E+0	1.369345E+0	1.399154E+0	1.376079E+0	1.363904E+0	1.384229E+0	1.403838E+0	1.358876E+0	1.400273E+0	1.385377E+0	1.378456E+0	1.334181E+0	1.379934E+0	1.329685E+0	1.374511E+0	1.367311E+0	1.313223E+0	1.334436E+0	1.368363E+0	1.381382E+0	1.436800E+0	1.345122E+0	1.406340E+0	1.377342E+0	1.343058E+0	1.362824E+0	1.398713E+0	1.330494E+0	1.373031E+0	1.423742E+0	1.365944E+0	1.334887E+0	1.322221E+0	1.363403E+0	1.390876E+0	1.329831E+0	1.394662E+0	1.342357E+0	1.389536E+0	1.327934E+0	1.369898E+0	1.389117E+0	1.394191E+0	1.276288E+0	1.373950E+0
5.355630E+2	1.269768E+0	1.296918E+0	1.273563E+0	1.295052E+0	1.247954E+0	1.297429E+0	1.292786E+0	1.241085E+0	1.276967E+0	1.215260E+0	1.288995E+0	1.262680E+0	1.257531E+0	1.261674E+0	1.269473E+0	1.287375E+0	1.339674E+0	1.189956E+0	1.301502E+0	1.296406E+0	1.279779E+0	1.319414E+0	1.259987E+0	1.261270E+0	1.303709E+0	1.270142E+0	1.221592E+0	1.256176E+0	1.236955E+0	1.260581E+0	1.276030E+0	1.267628E+0	1.240604E+0	1.247792E+0	1.269771E+0	1.229573E+0	1.260625E+0	1.241095E+0	1.280200E+0	1.236317E+0	1.260660E+0	1.248205E+0	1.253040E+0	1.287776E+0	1.258295E+0	1.248001E+0	1.235107E+0	1.239949E+0	1.231612E+0	1.257768E+0	1.247365E+0	1.254299E+0	1.263313E+0	1.178666E+0	1.248269E+0	1.267883E+0	1.258499E+0	1.276024E+0	1.270218E+0	1.208096E+0	1.243788E+0	1.234094E+0	1.271226E+0	1.302506E+0	1.258681E+0	1.272208E+0	1.245484E+0	1.232981E+0	1.288621E+0	1.217228E+0	1.242874E+0	1.210419E+0	1.298225E+0	1.285752E+0	1.249653E+0	1.223408E+0	1.243821E+0	1.224962E+0	1.248208E+0	1.277859E+0	1.329765E+0	1.305645E+0	1.286679E+0	1.287626E+0	1.262798E+0	1.292117E+0	1.281960E+0	1.287987E+0	1.222295E+0	1.246392E+0	1.264406E+0	1.217539E+0	1.244099E+0	1.241217E+0	1.235813E+0	1.241406E+0	1.266716E+0	1.265992E+0	1.242736E+0	1.267968E+0	1.239481E+0	1.259597E+0	1.222046E+0	1.275498E+0	1.276689E+0	1.246616E+0	1.309303E+0	1.217618E+0	1.214375E+0	1.247644E+0	1.239159E+0	1.281058E+0	1.255869E+0	1.262574E+0	1.283627E+0	1.218393E+0	1.312890E+0	1.237814E+0	1.244091E+0	1.251064E+0	1.231054E+0	1.266771E+0	1.233901E+0	1.264574E+0	1.218622E+0	1.219939E+0	1.260579E+0	1.223722E+0	1.318901E+0	1.316275E+0	1.255528E+0	1.202251E+0	1.248168E+0	1.265806E+0	1.269020E+0	1.237093E+0	1.277170E+0	1.241175E+0	1.252282E+0	1.253194E+0	1.216720E+0	1.250628E+0	1.276786E+0	1.252775E+0	1.272402E+0	1.297406E+0	1.221098E+0	1.298896E+0	1.305809E+0	1.325009E+0	1.236625E+0	1.273913E+0	1.269111E+0	1.211176E+0	1.293906E+0	1.281906E+0	1.256254E+0	1.230441E+0	1.260114E+0	1.293958E+0	1.249562E+0	1.308635E+0	1.278309E+0	1.245338E+0	1.213964E+0	1.206874E+0	1.251892E+0	1.293519E+0	1.177447E+0	1.315646E+0
5.357190E+2	1.008893E+0	9.901194E-1	1.012980E+0	1.051309E+0	9.979874E-1	9.857806E-1	1.022065E+0	1.030230E+0	9.776711E-1	9.605843E-1	1.012771E+0	1.014803E+0	9.958857E-1	1.005430E+0	9.848328E-1	1.051773E+0	1.019388E+0	9.984523E-1	9.715052E-1	9.824286E-1	9.731431E-1	1.000584E+0	9.975149E-1	1.001193E+0	1.004893E+0	9.931452E-1	1.015983E+0	9.916451E-1	9.978860E-1	9.600408E-1	9.659141E-1	9.833181E-1	1.018405E+0	9.852168E-1	1.028420E+0	9.793405E-1	1.040162E+0	1.008947E+0	1.066116E+0	9.977102E-1	1.002955E+0	1.006574E+0	1.040510E+0	9.974239E-1	1.016204E+0	1.004662E+0	1.023541E+0	9.904393E-1	9.823400E-1	1.035961E+0	1.040240E+0	9.919629E-1	9.882393E-1	9.941639E-1	1.006568E+0	9.835064E-1	1.038766E+0	9.529109E-1	1.026955E+0	9.819484E-1	9.979596E-1	9.842109E-1	1.005602E+0	9.995853E-1	1.006193E+0	9.729276E-1	9.967432E-1	9.674983E-1	1.017602E+0	1.013931E+0	1.018577E+0	9.488395E-1	1.031085E+0	9.637219E-1	9.817068E-1	9.877346E-1	9.609994E-1	1.007033E+0	1.017270E+0	1.038857E+0	9.684144E-1	9.876581E-1	1.011070E+0	9.906383E-1	1.004408E+0	9.895666E-1	9.990345E-1	9.839754E-1	9.889376E-1	1.046060E+0	1.025118E+0	9.929764E-1	9.984763E-1	9.810331E-1	1.005883E+0	1.007829E+0	9.769480E-1	9.739747E-1	1.037100E+0	1.012602E+0	9.923047E-1	9.814523E-1	1.020832E+0	1.023888E+0	9.750700E-1	1.024683E+0	9.828796E-1	9.988353E-1	1.024511E+0	9.906879E-1	9.895698E-1	1.019516E+0	1.004912E+0	9.930381E-1	1.032401E+0	1.023566E+0	1.004970E+0	9.906472E-1	1.012598E+0	1.044429E+0	1.012460E+0	1.007771E+0	1.014735E+0	9.966356E-1	9.797992E-1	9.933711E-1	9.999162E-1	1.007794E+0	1.030640E+0	9.794527E-1	1.006011E+0	9.956767E-1	9.812271E-1	1.046444E+0	1.024748E+0	1.013988E+0	1.052265E+0	1.065217E+0	9.950620E-1	1.012676E+0	1.024301E+0	9.791144E-1	1.017066E+0	1.013562E+0	9.928742E-1	1.028936E+0	9.738970E-1	9.958158E-1	1.005477E+0	9.611485E-1	9.916196E-1	1.006026E+0	1.004132E+0	9.991417E-1	1.016943E+0	1.042095E+0	9.988858E-1	9.844374E-1	1.017478E+0	1.008841E+0	1.037017E+0	1.053056E+0	1.025654E+0	1.042188E+0	1.011195E+0	9.779792E-1	9.949201E-1	9.989638E-1	9.623667E-1	1.002015E+0
5.358600E+2	8.970328E-1	8.946449E-1	8.558726E-1	8.970859E-1	8.501636E-1	9.292084E-1	8.944920E-1	9.104993E-1	9.170761E-1	8.945315E-1	8.820378E-1	9.017073E-1	9.166558E-1	8.861868E-1	8.500830E-1	9.004045E-1	9.079301E-1	9.190502E-1	8.643188E-1	8.950544E-1	9.196439E-1	8.568309E-1	9.275585E-1	8.832813E-1	8.550805E-1	9.388418E-1	8.615265E-1	9.244298E-1	9.415532E-1	8.800934E-1	9.208410E-1	8.879351E-1	8.805833E-1	9.170119E-1	9.065577E-1	8.722174E-1	9.257498E-1	8.603153E-1	8.757140E-1	8.674207E-1	9.241887E-1	8.776926E-1	9.162177E-1	9.244253E-1	8.784936E-1	8.996870E-1	9.151527E-1	8.920346E-1	8.745774E-1	8.971410E-1	9.079450E-1	9.152500E-1	8.690083E-1	8.831989E-1	8.837440E-1	8.919569E-1	9.365961E-1	8.856207E-1	8.691399E-1	8.942584E-1	8.937597E-1	8.947047E-1	9.166153E-1	8.743874E-1	9.137119E-1	9.080428E-1	9.099335E-1	9.051307E-1	9.014354E-1	8.579076E-1	9.005901E-1	8.621214E-1	9.336964E-1	8.887740E-1	8.697530E-1	8.861695E-1	9.089054E-1	8.722812E-1	8.814725E-1	9.075570E-1	8.985130E-1	8.618588E-1	8.964088E-1	9.114591E-1	8.921498E-1	8.791336E-1	9.177252E-1	8.948588E-1	8.828389E-1	8.754663E-1	9.133895E-1	9.244963E-1	8.907184E-1	8.839640E-1	9.069717E-1	8.804723E-1	8.979434E-1	8.982373E-1	8.894421E-1	8.991087E-1	8.774197E-1	9.095556E-1	9.443489E-1	9.094465E-1	8.952728E-1	9.015018E-1	8.981244E-1	9.076520E-1	9.412600E-1	8.989987E-1	8.658265E-1	9.131081E-1	9.214507E-1	9.044957E-1	9.275855E-1	8.952663E-1	8.843791E-1	9.209866E-1	8.963485E-1	8.711721E-1	8.672666E-1	9.169115E-1	8.589433E-1	8.796329E-1	8.876420E-1	8.969195E-1	9.144078E-1	9.044009E-1	9.308490E-1	8.816180E-1	8.621213E-1	9.052444E-1	8.931080E-1	9.143896E-1	9.209233E-1	9.323283E-1	9.191961E-1	8.798923E-1	8.973128E-1	8.888581E-1	8.816332E-1	8.961742E-1	8.496768E-1	9.176830E-1	8.741085E-1	9.022779E-1	8.928020E-1	8.984381E-1	9.015601E-1	9.192483E-1	8.850239E-1	8.975599E-1	9.002334E-1	8.790716E-1	9.484191E-1	8.735566E-1	9.002414E-1	8.130085E-1	9.121929E-1	9.049023E-1	9.190002E-1	9.506672E-1	9.049848E-1	8.856432E-1	8.967780E-1	8.698343E-1	8.940327E-1	9.220757E-1	8.856898E-1	9.365336E-1
5.360070E+2	7.508087E-1	6.743229E-1	6.926976E-1	6.850027E-1	6.885834E-1	7.296076E-1	6.776300E-1	7.264997E-1	7.329966E-1	6.889289E-1	7.101609E-1	7.196821E-1	6.994044E-1	6.928646E-1	6.983595E-1	7.110349E-1	7.270927E-1	6.924034E-1	7.492173E-1	6.990130E-1	7.163136E-1	7.254105E-1	7.288262E-1	6.696469E-1	6.981625E-1	7.659523E-1	6.786587E-1	6.976124E-1	7.083965E-1	6.991830E-1	7.194657E-1	7.173773E-1	7.119063E-1	7.110679E-1	7.527660E-1	7.084892E-1	7.008219E-1	7.075041E-1	7.310721E-1	6.876961E-1	7.111498E-1	6.910515E-1	7.035405E-1	7.260988E-1	6.894799E-1	7.309163E-1	7.022082E-1	6.831791E-1	6.982596E-1	6.650544E-1	7.173499E-1	6.955968E-1	6.971239E-1	7.079946E-1	7.155071E-1	7.161467E-1	7.263394E-1	7.127556E-1	7.275394E-1	7.369333E-1	7.091076E-1	6.948057E-1	6.907224E-1	7.006402E-1	7.133944E-1	6.913956E-1	6.736962E-1	6.965573E-1	7.391566E-1	7.314940E-1	7.208665E-1	6.857184E-1	7.686623E-1	6.824554E-1	6.972678E-1	6.789885E-1	7.087859E-1	6.996736E-1	7.098489E-1	7.180890E-1	7.284022E-1	7.475852E-1	7.017399E-1	6.978253E-1	7.246187E-1	6.955119E-1	7.266041E-1	7.036086E-1	7.285496E-1	6.857674E-1	7.130211E-1	6.953790E-1	7.068188E-1	7.130001E-1	7.190503E-1	7.215172E-1	7.011730E-1	7.197161E-1	7.124019E-1	7.014901E-1	7.177469E-1	7.456408E-1	7.508827E-1	7.282327E-1	6.749121E-1	7.159343E-1	7.144842E-1	7.427310E-1	7.056248E-1	7.263982E-1	7.069520E-1	7.119962E-1	7.386019E-1	7.002766E-1	7.166975E-1	7.181000E-1	7.141385E-1	6.935822E-1	7.218919E-1	7.260278E-1	7.053696E-1	7.295539E-1	7.318836E-1	6.877138E-1	7.118778E-1	7.333890E-1	6.998449E-1	6.831707E-1	7.170736E-1	7.157368E-1	7.151336E-1	7.317923E-1	7.270194E-1	7.297853E-1	7.028493E-1	6.921821E-1	7.102655E-1	7.288139E-1	6.802402E-1	6.915633E-1	7.050546E-1	7.049688E-1	6.993746E-1	7.126312E-1	7.228886E-1	6.978366E-1	7.296993E-1	6.973847E-1	7.141488E-1	7.390660E-1	6.924736E-1	7.274290E-1	7.651171E-1	7.069648E-1	7.499026E-1	7.067430E-1	7.452214E-1	6.850572E-1	7.474124E-1	6.713973E-1	7.517841E-1	7.432533E-1	7.033394E-1	6.766909E-1	7.047534E-1	7.184092E-1	7.235397E-1	6.714761E-1	7.260980E-1	7.437807E-1
5.362840E+2	5.765856E-1	5.700078E-1	6.090243E-1	6.053750E-1	5.813649E-1	5.680767E-1	5.766856E-1	6.000855E-1	6.020181E-1	5.822633E-1	6.071384E-1	5.538057E-1	5.619462E-1	5.887394E-1	5.764513E-1	6.057680E-1	6.192753E-1	5.399155E-1	5.922804E-1	5.592316E-1	6.111240E-1	6.041972E-1	6.025399E-1	5.801577E-1	6.213931E-1	6.246563E-1	6.237183E-1	5.973812E-1	5.764095E-1	5.840193E-1	5.853225E-1	5.842019E-1	5.944573E-1	5.988364E-1	6.049525E-1	5.830558E-1	5.718785E-1	6.091050E-1	6.113995E-1	5.608353E-1	5.679540E-1	5.814147E-1	5.720089E-1	5.765616E-1	5.705252E-1	6.234534E-1	6.057782E-1	6.031247E-1	5.903269E-1	5.884549E-1	6.159675E-1	6.126560E-1	6.029334E-1	5.821371E-1	5.771108E-1	6.082880E-1	6.052728E-1	6.141254E-1	6.180965E-1	5.843696E-1	6.163324E-1	5.671292E-1	5.719363E-1	6.008121E-1	5.753781E-1	5.926907E-1	5.918341E-1	5.977227E-1	5.958835E-1	5.857446E-1	6.088159E-1	5.670606E-1	6.652220E-1	5.930467E-1	6.234089E-1	5.754298E-1	5.908801E-1	6.077013E-1	5.951645E-1	5.944483E-1	5.679515E-1	5.781281E-1	5.994317E-1	5.954454E-1	5.746843E-1	6.062077E-1	5.993678E-1	5.609219E-1	5.947297E-1	5.966668E-1	5.934692E-1	5.757835E-1	6.128509E-1	5.997614E-1	5.829047E-1	5.719901E-1	6.413861E-1	5.683723E-1	5.801222E-1	5.802599E-1	5.829214E-1	6.005291E-1	6.285102E-1	6.073544E-1	6.017075E-1	6.068266E-1	5.909870E-1	5.801329E-1	5.693540E-1	5.808042E-1	6.067880E-1	6.160047E-1	5.893618E-1	5.873016E-1	6.018686E-1	6.118884E-1	5.995009E-1	5.960942E-1	6.062367E-1	5.922716E-1	6.297756E-1	6.137386E-1	5.700894E-1	5.659149E-1	5.877515E-1	6.034657E-1	5.983755E-1	5.910448E-1	5.994283E-1	6.238214E-1	5.818533E-1	5.949927E-1	6.086064E-1	5.950169E-1	6.343011E-1	5.982395E-1	5.995048E-1	6.064017E-1	5.801627E-1	6.040766E-1	5.572371E-1	5.644862E-1	6.267280E-1	6.130551E-1	5.971803E-1	6.167230E-1	5.899219E-1	6.113882E-1	5.331556E-1	5.847372E-1	6.299112E-1	6.025581E-1	5.894342E-1	5.719553E-1	6.016772E-1	5.896269E-1	5.907940E-1	5.555982E-1	6.056884E-1	5.786021E-1	5.911488E-1	6.169371E-1	6.211358E-1	5.771091E-1	5.987393E-1	6.044515E-1	5.670744E-1	6.284127E-1	5.583181E-1	5.733514E-1
5.365090E+2	4.332464E-1	4.550279E-1	4.521471E-1	4.649892E-1	4.689059E-1	4.519397E-1	4.362628E-1	4.823825E-1	4.585398E-1	4.484618E-1	4.595709E-1	4.471097E-1	4.298258E-1	4.623277E-1	4.742700E-1	4.575818E-1	4.546496E-1	4.388044E-1	4.670345E-1	4.380554E-1	4.367005E-1	4.505674E-1	4.527640E-1	4.688771E-1	4.593071E-1	4.720483E-1	4.514134E-1	4.586748E-1	4.702037E-1	4.637195E-1	4.894554E-1	4.632457E-1	4.432879E-1	4.366542E-1	4.772876E-1	4.498412E-1	4.414484E-1	4.710886E-1	4.996472E-1	4.632820E-1	4.373566E-1	4.633245E-1	4.675646E-1	4.234487E-1	4.626819E-1	4.453089E-1	4.478850E-1	4.600392E-1	4.344317E-1	4.444233E-1	4.448312E-1	4.727164E-1	4.391367E-1	4.424237E-1	4.440055E-1	4.782951E-1	4.489146E-1	4.787104E-1	4.616659E-1	4.600747E-1	4.559433E-1	4.334772E-1	4.717360E-1	4.471577E-1	4.847317E-1	4.464476E-1	4.523965E-1	4.446055E-1	4.554521E-1	4.660740E-1	4.885634E-1	4.417460E-1	4.876894E-1	4.409725E-1	4.428732E-1	4.348941E-1	4.750390E-1	4.482806E-1	4.234088E-1	4.876998E-1	4.564852E-1	4.504888E-1	4.563833E-1	4.776854E-1	4.555874E-1	4.732883E-1	4.560367E-1	4.544658E-1	4.389003E-1	4.724392E-1	4.550749E-1	4.656886E-1	4.564993E-1	4.475920E-1	4.354632E-1	4.610997E-1	4.938661E-1	4.705326E-1	4.669693E-1	4.506046E-1	4.595193E-1	4.631051E-1	4.374249E-1	4.414019E-1	4.667639E-1	4.660597E-1	4.740640E-1	4.492868E-1	4.642838E-1	4.604346E-1	4.626172E-1	4.742054E-1	4.770447E-1	4.823253E-1	4.733447E-1	4.437744E-1	4.589302E-1	4.666859E-1	4.473144E-1	4.777900E-1	4.886780E-1	4.381144E-1	4.230255E-1	4.777094E-1	4.820647E-1	4.327526E-1	4.536814E-1	4.712343E-1	4.886460E-1	4.499351E-1	4.457473E-1	4.669893E-1	4.701651E-1	4.596150E-1	4.784519E-1	4.478186E-1	4.705479E-1	4.926978E-1	4.583809E-1	4.715257E-1	4.997268E-1	4.650850E-1	4.391748E-1	4.679840E-1	4.359199E-1	4.939931E-1	4.891432E-1	4.515298E-1	4.576675E-1	4.730668E-1	4.667852E-1	4.739576E-1	4.500334E-1	4.657400E-1	4.536461E-1	4.788327E-1	4.606301E-1	4.532296E-1	4.597336E-1	4.748617E-1	4.599449E-1	4.596883E-1	4.845863E-1	4.465996E-1	4.614105E-1	4.522168E-1	4.801474E-1	4.846439E-1	4.470223E-1	4.605432E-1
5.367660E+2	4.437227E-1	4.681593E-1	4.744023E-1	4.558932E-1	4.695466E-1	4.752103E-1	4.815275E-1	4.789652E-1	4.550796E-1	4.674525E-1	4.839207E-1	4.531418E-1	4.459174E-1	4.816239E-1	4.524760E-1	4.798255E-1	4.849487E-1	4.533226E-1	4.959553E-1	4.816790E-1	4.907817E-1	4.881055E-1	4.772264E-1	4.837204E-1	4.608654E-1	4.970161E-1	4.836720E-1	4.832297E-1	4.683985E-1	4.697733E-1	4.632943E-1	4.720868E-1	4.777971E-1	4.654488E-1	4.647829E-1	4.778920E-1	4.536372E-1	4.652631E-1	4.542452E-1	4.534795E-1	4.636976E-1	4.839673E-1	4.593442E-1	4.704059E-1	4.844985E-1	4.673471E-1	4.737064E-1	4.655435E-1	4.492187E-1	4.839721E-1	4.722813E-1	4.947557E-1	4.762563E-1	4.765530E-1	4.595846E-1	4.639686E-1	4.779217E-1	4.474699E-1	4.666535E-1	4.568038E-1	4.760934E-1	4.891252E-1	4.540225E-1	4.840592E-1	4.795617E-1	4.656919E-1	4.622271E-1	4.839457E-1	4.801938E-1	4.398451E-1	4.823055E-1	4.729590E-1	5.018484E-1	4.724118E-1	4.729436E-1	4.560989E-1	4.469248E-1	4.691456E-1	4.865444E-1	4.535454E-1	4.778238E-1	4.773306E-1	4.856376E-1	4.725105E-1	4.702765E-1	4.733774E-1	4.865959E-1	4.905170E-1	4.781343E-1	4.763307E-1	5.169749E-1	4.632027E-1	4.732415E-1	4.651566E-1	4.502212E-1	4.522984E-1	4.766157E-1	4.598704E-1	4.841078E-1	4.809733E-1	4.810820E-1	4.817906E-1	4.410722E-1	4.754444E-1	4.809022E-1	4.821980E-1	5.019511E-1	5.016805E-1	4.639822E-1	4.832914E-1	4.530617E-1	4.758600E-1	4.666727E-1	4.591132E-1	4.547522E-1	4.594781E-1	4.732627E-1	4.610900E-1	4.988565E-1	4.716559E-1	4.990009E-1	4.877446E-1	4.810655E-1	4.791814E-1	4.982117E-1	4.827258E-1	5.049026E-1	4.476590E-1	4.862808E-1	4.631915E-1	4.900227E-1	4.460184E-1	4.650466E-1	4.853890E-1	5.060435E-1	4.731543E-1	4.673641E-1	4.691326E-1	4.747776E-1	4.612072E-1	4.671464E-1	4.623511E-1	4.522433E-1	4.798504E-1	4.928474E-1	4.794590E-1	4.691574E-1	5.025623E-1	4.904492E-1	4.735835E-1	4.989715E-1	5.093689E-1	5.017187E-1	4.770394E-1	5.019459E-1	4.549792E-1	4.848433E-1	4.351064E-1	5.056095E-1	5.021133E-1	4.517415E-1	4.644230E-1	5.033929E-1	4.867440E-1	4.802234E-1	4.969028E-1	4.897654E-1	5.179396E-1	4.535052E-1	4.691970E-1
5.370170E+2	4.948246E-1	4.411192E-1	5.084934E-1	4.801602E-1	4.878565E-1	4.893086E-1	5.067232E-1	5.140341E-1	4.885157E-1	4.961293E-1	4.910807E-1	5.254048E-1	4.782720E-1	5.029704E-1	4.581814E-1	4.857347E-1	4.773998E-1	4.918446E-1	5.184601E-1	4.677427E-1	4.778339E-1	4.838820E-1	4.798263E-1	4.994510E-1	4.847167E-1	4.991635E-1	4.914560E-1	4.888536E-1	4.742770E-1	4.535385E-1	4.706780E-1	5.320343E-1	5.170550E-1	5.012877E-1	5.244418E-1	4.950903E-1	4.919531E-1	4.786907E-1	4.708818E-1	4.900185E-1	4.929874E-1	5.097403E-1	4.863683E-1	5.017866E-1	4.701767E-1	4.761126E-1	4.711873E-1	4.844356E-1	4.973978E-1	5.139037E-1	4.750764E-1	5.126962E-1	5.069279E-1	4.840316E-1	4.761469E-1	4.695664E-1	4.743273E-1	4.778356E-1	4.733094E-1	4.729217E-1	4.719762E-1	4.792063E-1	4.835470E-1	4.932082E-1	4.625798E-1	5.021829E-1	4.832003E-1	4.856210E-1	4.815823E-1	4.691899E-1	5.037706E-1	4.624272E-1	4.802512E-1	4.682800E-1	4.818929E-1	5.192428E-1	4.956766E-1	4.807719E-1	5.024995E-1	4.926569E-1	5.030816E-1	4.937128E-1	4.766508E-1	4.839732E-1	4.938785E-1	4.915945E-1	5.259225E-1	4.968781E-1	4.789236E-1	5.195248E-1	4.933421E-1	4.781034E-1	4.705706E-1	4.902211E-1	5.114284E-1	4.702893E-1	5.030960E-1	5.006215E-1	5.105451E-1	4.992429E-1	4.821893E-1	4.881672E-1	4.844550E-1	4.806983E-1	5.095093E-1	4.938171E-1	5.165789E-1	4.879762E-1	4.908891E-1	4.877402E-1	5.122600E-1	4.990045E-1	5.092591E-1	4.608125E-1	4.776040E-1	4.767499E-1	4.951236E-1	4.821421E-1	5.007213E-1	4.933340E-1	4.929828E-1	5.021996E-1	4.890146E-1	4.795381E-1	4.974646E-1	5.222459E-1	4.972687E-1	5.092499E-1	5.061450E-1	4.803115E-1	4.709973E-1	4.859409E-1	4.703577E-1	4.835515E-1	4.834841E-1	4.883797E-1	4.602099E-1	4.766807E-1	4.937035E-1	4.611027E-1	5.126110E-1	5.163155E-1	5.052070E-1	4.930541E-1	5.061703E-1	5.249306E-1	5.077867E-1	4.983167E-1	4.793920E-1	4.902216E-1	4.549284E-1	4.729120E-1	4.880856E-1	4.866741E-1	5.042689E-1	4.740676E-1	4.978204E-1	4.759858E-1	4.869581E-1	4.990853E-1	5.327342E-1	4.552810E-1	5.233836E-1	4.830687E-1	4.799010E-1	4.809087E-1	4.745122E-1	4.722010E-1	4.954571E-1	5.083127E-1
5.372640E+2	5.075206E-1	5.087359E-1	5.360580E-1	5.261102E-1	4.939278E-1	5.290783E-1	4.984642E-1	5.324931E-1	4.918888E-1	5.204378E-1	5.560717E-1	5.247987E-1	5.240502E-1	5.062680E-1	5.158398E-1	5.087124E-1	5.300119E-1	5.440310E-1	5.128459E-1	5.324252E-1	5.307821E-1	5.283727E-1	5.341452E-1	5.198277E-1	5.357904E-1	5.198860E-1	4.956800E-1	5.447531E-1	5.424933E-1	5.328083E-1	5.045085E-1	5.321152E-1	5.625982E-1	5.301002E-1	5.184600E-1	5.524358E-1	5.317444E-1	5.270808E-1	5.348385E-1	5.138516E-1	5.341225E-1	5.116542E-1	5.559542E-1	5.429670E-1	5.167163E-1	5.482908E-1	5.323300E-1	5.169462E-1	5.008853E-1	5.693903E-1	5.095948E-1	5.241275E-1	5.565557E-1	5.018642E-1	5.276088E-1	5.189712E-1	5.368118E-1	5.433734E-1	5.326646E-1	5.129303E-1	5.340544E-1	5.413789E-1	5.696345E-1	5.230747E-1	5.514423E-1	5.757268E-1	5.027844E-1	5.385801E-1	5.666799E-1	4.995763E-1	5.212558E-1	5.233856E-1	5.425888E-1	5.728978E-1	5.356587E-1	5.496545E-1	5.140885E-1	5.179171E-1	5.304822E-1	5.499029E-1	5.302300E-1	5.525656E-1	5.070633E-1	5.206784E-1	5.327265E-1	5.438242E-1	5.226556E-1	5.608787E-1	5.242629E-1	5.171804E-1	5.271742E-1	5.205097E-1	5.386815E-1	5.323028E-1	5.268735E-1	5.510843E-1	5.332324E-1	5.535611E-1	5.301894E-1	5.121859E-1	5.428850E-1	5.476439E-1	5.601726E-1	5.409407E-1	5.240199E-1	5.224443E-1	5.520935E-1	5.395468E-1	5.018008E-1	5.371445E-1	5.312212E-1	5.184270E-1	5.098019E-1	5.424620E-1	5.286415E-1	5.446116E-1	5.535878E-1	5.103161E-1	5.233329E-1	5.489215E-1	5.185771E-1	5.744727E-1	5.372160E-1	5.656632E-1	5.332944E-1	5.438703E-1	5.344177E-1	5.441980E-1	5.393534E-1	5.253113E-1	5.476099E-1	5.054996E-1	5.301466E-1	5.194579E-1	5.661453E-1	5.154747E-1	5.357998E-1	5.416747E-1	5.257754E-1	5.442428E-1	5.085727E-1	5.027627E-1	4.976805E-1	5.438082E-1	5.366621E-1	5.641374E-1	5.542853E-1	5.242137E-1	5.379181E-1	5.449385E-1	5.239233E-1	5.601486E-1	5.297090E-1	5.220208E-1	5.302325E-1	5.424901E-1	5.229117E-1	5.385208E-1	5.536110E-1	5.407256E-1	5.147640E-1	5.604359E-1	5.343316E-1	5.626549E-1	4.929011E-1	5.473801E-1	5.398245E-1	5.294110E-1	5.228406E-1	5.038055E-1
5.375110E+2	6.288570E-1	6.297779E-1	6.537377E-1	6.787225E-1	6.388373E-1	6.096822E-1	6.689669E-1	6.753307E-1	6.389105E-1	6.364218E-1	6.661764E-1	6.231004E-1	6.206398E-1	6.254917E-1	6.628827E-1	6.574992E-1	6.482384E-1	6.363200E-1	6.638251E-1	6.680118E-1	6.547522E-1	6.438929E-1	6.755302E-1	6.599466E-1	6.381175E-1	6.735954E-1	6.510193E-1	6.707049E-1	6.612283E-1	6.741771E-1	6.580929E-1	6.721801E-1	6.690154E-1	6.568134E-1	6.865897E-1	6.555269E-1	6.596628E-1	6.482803E-1	6.920770E-1	6.582135E-1	6.457833E-1	6.427781E-1	6.554098E-1	6.664439E-1	6.761345E-1	6.722655E-1	6.618658E-1	6.486144E-1	6.458629E-1	6.321974E-1	6.907912E-1	6.716216E-1	6.394118E-1	6.542798E-1	6.501822E-1	6.702335E-1	7.038059E-1	6.730182E-1	6.485099E-1	6.208667E-1	6.717138E-1	6.428187E-1	6.632395E-1	7.160724E-1	6.579197E-1	6.507710E-1	6.434204E-1	6.516227E-1	6.297461E-1	6.340686E-1	6.272009E-1	6.495173E-1	6.919935E-1	6.442664E-1	6.741738E-1	6.469097E-1	6.270446E-1	6.496832E-1	6.715911E-1	6.905974E-1	6.401414E-1	6.796342E-1	6.767540E-1	6.420607E-1	6.589924E-1	6.442931E-1	6.453996E-1	6.446289E-1	6.487410E-1	7.020060E-1	6.867288E-1	6.590414E-1	6.498835E-1	6.442682E-1	6.440955E-1	6.565106E-1	6.452983E-1	6.651523E-1	6.475300E-1	6.497280E-1	6.657380E-1	6.667139E-1	6.180565E-1	6.486552E-1	6.398460E-1	6.653590E-1	6.518650E-1	6.999628E-1	6.480452E-1	6.418904E-1	6.466101E-1	6.574181E-1	6.761714E-1	6.574850E-1	6.948089E-1	6.782649E-1	6.643706E-1	6.495059E-1	6.446330E-1	6.774530E-1	6.694476E-1	6.577062E-1	6.111564E-1	6.700523E-1	6.411206E-1	6.866433E-1	6.263876E-1	6.551170E-1	6.420811E-1	6.907375E-1	6.515630E-1	6.580968E-1	6.540871E-1	6.969780E-1	6.560273E-1	6.459431E-1	7.075978E-1	6.768245E-1	6.527262E-1	6.745965E-1	6.662143E-1	6.746316E-1	6.877132E-1	6.811965E-1	6.744527E-1	6.206314E-1	6.394801E-1	6.824056E-1	6.412057E-1	6.721421E-1	6.876466E-1	6.557759E-1	6.384154E-1	6.995596E-1	6.771284E-1	6.474043E-1	6.600349E-1	6.979818E-1	6.613516E-1	6.667903E-1	6.631440E-1	6.443502E-1	6.815455E-1	6.424292E-1	6.598013E-1	6.602992E-1	6.480915E-1	6.254233E-1	6.420894E-1	6.449655E-1
5.377740E+2	7.624785E-1	7.712963E-1	7.770697E-1	8.084241E-1	7.804905E-1	7.745090E-1	8.248691E-1	7.935897E-1	7.694293E-1	7.481946E-1	7.612999E-1	7.759875E-1	7.923189E-1	7.867622E-1	7.525119E-1	7.751648E-1	7.578729E-1	7.954240E-1	8.080764E-1	7.990373E-1	7.984735E-1	7.956641E-1	7.879391E-1	8.197830E-1	8.116783E-1	8.128575E-1	7.684684E-1	7.913859E-1	7.528386E-1	8.022204E-1	7.924265E-1	7.748101E-1	7.587833E-1	8.025943E-1	7.901458E-1	7.922298E-1	7.901101E-1	7.984350E-1	7.832386E-1	8.116369E-1	8.092635E-1	7.741320E-1	8.004474E-1	7.738328E-1	7.939817E-1	8.239530E-1	7.731866E-1	7.878909E-1	8.077291E-1	7.346166E-1	7.985039E-1	7.999770E-1	7.786277E-1	8.042168E-1	7.866376E-1	8.009304E-1	8.140510E-1	7.855019E-1	7.799532E-1	7.635743E-1	7.985482E-1	8.001613E-1	7.881375E-1	8.153861E-1	8.138838E-1	7.945137E-1	7.793596E-1	7.581355E-1	8.329339E-1	7.812642E-1	7.922046E-1	7.811912E-1	7.772960E-1	7.409514E-1	7.443838E-1	8.060860E-1	7.866773E-1	7.890674E-1	7.744997E-1	7.577918E-1	7.661240E-1	7.965195E-1	7.542922E-1	7.960495E-1	7.871451E-1	7.592598E-1	8.036365E-1	7.847781E-1	7.749306E-1	7.896496E-1	7.928056E-1	8.065878E-1	8.239086E-1	7.710501E-1	7.936058E-1	7.553662E-1	8.333718E-1	7.855757E-1	8.136045E-1	7.562425E-1	7.649085E-1	7.965730E-1	7.608996E-1	7.837833E-1	7.710322E-1	7.892952E-1	8.078123E-1	7.726749E-1	8.004637E-1	7.911047E-1	7.788781E-1	7.677773E-1	8.184509E-1	8.038122E-1	8.346465E-1	7.900985E-1	8.290963E-1	8.045528E-1	7.774855E-1	7.917408E-1	7.646499E-1	8.292472E-1	8.040307E-1	7.785318E-1	7.991045E-1	7.931868E-1	7.457501E-1	8.078935E-1	7.798141E-1	7.875060E-1	8.035636E-1	8.160435E-1	7.872120E-1	7.848766E-1	7.948103E-1	7.328543E-1	8.002606E-1	7.963034E-1	7.979368E-1	8.123034E-1	7.666403E-1	8.310098E-1	7.737183E-1	7.988516E-1	8.026860E-1	7.675889E-1	7.780096E-1	8.089595E-1	8.205946E-1	8.047630E-1	7.693708E-1	7.893002E-1	8.083042E-1	8.095871E-1	8.151122E-1	7.632583E-1	7.669565E-1	7.665478E-1	7.882873E-1	8.031539E-1	7.753678E-1	8.084351E-1	7.555590E-1	8.060437E-1	7.465594E-1	7.866113E-1	7.711549E-1	7.995053E-1	8.342077E-1	7.935500E-1
5.380110E+2	8.460455E-1	8.423724E-1	8.510077E-1	8.352417E-1	8.464466E-1	8.776326E-1	8.266847E-1	8.311765E-1	8.312641E-1	8.301189E-1	8.109138E-1	8.904184E-1	8.380866E-1	8.440689E-1	8.637407E-1	8.600524E-1	8.538513E-1	8.339655E-1	8.191322E-1	8.459736E-1	8.645351E-1	8.809901E-1	8.618559E-1	8.028538E-1	8.555851E-1	9.107859E-1	8.228995E-1	8.791221E-1	8.786749E-1	8.681172E-1	8.719527E-1	8.731832E-1	8.470581E-1	8.393085E-1	8.377984E-1	8.229560E-1	8.921664E-1	8.779380E-1	8.656020E-1	8.364517E-1	8.429879E-1	8.150478E-1	8.635352E-1	8.566617E-1	8.571993E-1	8.944246E-1	8.484689E-1	8.709693E-1	8.803309E-1	8.231549E-1	8.236690E-1	8.778763E-1	8.607089E-1	8.295013E-1	8.766268E-1	8.342183E-1	8.980104E-1	8.406353E-1	9.009315E-1	8.049066E-1	8.547837E-1	8.497306E-1	8.355331E-1	8.480589E-1	8.261361E-1	8.712609E-1	8.337174E-1	8.582632E-1	8.333757E-1	8.430703E-1	8.700725E-1	8.529787E-1	8.659924E-1	8.088370E-1	8.874314E-1	8.115060E-1	8.772339E-1	8.575377E-1	8.748282E-1	8.460973E-1	8.318048E-1	8.667533E-1	8.953338E-1	8.557190E-1	8.444955E-1	8.362605E-1	8.449035E-1	8.530936E-1	8.471579E-1	8.531809E-1	8.531062E-1	8.570379E-1	8.516420E-1	7.839372E-1	8.358272E-1	8.632720E-1	8.451982E-1	8.181415E-1	8.487166E-1	8.373531E-1	8.206396E-1	8.500130E-1	8.462040E-1	8.246781E-1	8.269575E-1	8.525711E-1	8.658524E-1	8.467138E-1	8.520781E-1	8.537645E-1	8.420518E-1	8.780149E-1	8.979860E-1	8.471814E-1	8.692708E-1	8.751140E-1	8.517140E-1	8.508981E-1	8.620739E-1	8.561767E-1	8.441396E-1	8.762570E-1	8.337241E-1	8.317642E-1	8.415172E-1	8.622509E-1	8.357334E-1	8.587726E-1	8.668808E-1	8.799711E-1	8.498323E-1	8.606098E-1	8.676705E-1	8.315620E-1	8.500126E-1	8.560275E-1	8.478942E-1	8.699160E-1	7.983224E-1	8.714417E-1	8.179261E-1	8.590029E-1	8.362652E-1	8.541932E-1	8.469395E-1	8.351099E-1	8.257828E-1	8.833476E-1	8.509975E-1	8.932631E-1	8.420591E-1	8.589215E-1	8.587055E-1	8.993992E-1	9.055498E-1	8.627848E-1	8.451384E-1	8.491488E-1	8.618204E-1	8.816281E-1	8.462757E-1	8.946532E-1	8.271460E-1	8.377895E-1	8.551481E-1	8.734954E-1	8.495180E-1	8.284655E-1	8.704131E-1	9.157442E-1
5.382690E+2	1.036059E+0	1.079368E+0	1.069066E+0	1.067371E+0	1.029869E+0	1.055818E+0	1.077074E+0	1.066150E+0	1.062677E+0	1.065971E+0	1.086432E+0	1.018268E+0	9.984880E-1	1.069601E+0	1.053499E+0	1.077709E+0	1.017151E+0	1.070434E+0	1.066958E+0	1.098821E+0	1.066296E+0	1.028217E+0	1.015568E+0	1.079051E+0	1.103340E+0	1.087969E+0	1.069815E+0	1.101340E+0	1.101635E+0	1.034421E+0	1.050129E+0	1.079969E+0	1.075081E+0	1.093815E+0	1.077003E+0	1.052646E+0	1.047919E+0	1.056795E+0	1.105466E+0	1.069096E+0	1.097531E+0	1.031968E+0	1.045844E+0	1.072113E+0	1.042380E+0	1.093871E+0	1.043870E+0	1.038206E+0	1.042466E+0	1.067515E+0	1.039549E+0	1.086667E+0	1.083068E+0	1.042744E+0	1.077893E+0	1.066359E+0	1.093881E+0	1.057837E+0	1.112044E+0	1.028458E+0	1.030864E+0	1.022765E+0	1.059821E+0	1.048296E+0	1.026534E+0	1.101141E+0	1.039662E+0	1.089579E+0	1.039804E+0	1.025140E+0	1.052779E+0	1.039379E+0	1.061033E+0	1.013045E+0	1.022655E+0	1.033595E+0	1.041543E+0	1.067035E+0	1.039466E+0	1.021402E+0	1.102113E+0	1.054667E+0	1.093674E+0	1.075694E+0	1.036095E+0	1.082962E+0	1.035550E+0	1.061035E+0	1.008684E+0	1.085078E+0	1.055918E+0	1.038050E+0	1.052967E+0	1.054474E+0	1.074471E+0	1.057583E+0	1.102160E+0	1.075716E+0	1.044241E+0	1.036365E+0	1.055092E+0	1.039423E+0	1.093014E+0	1.037390E+0	1.022384E+0	1.071191E+0	1.040976E+0	1.111138E+0	1.038938E+0	1.091962E+0	1.063367E+0	1.095771E+0	1.030974E+0	1.020399E+0	1.122567E+0	1.082786E+0	1.049810E+0	1.041659E+0	1.050834E+0	1.054469E+0	1.042080E+0	1.161553E+0	1.039455E+0	1.055819E+0	1.075112E+0	1.039547E+0	1.094736E+0	1.029949E+0	1.074732E+0	1.094248E+0	1.021399E+0	1.040500E+0	1.008152E+0	1.097328E+0	1.096866E+0	1.051979E+0	1.006281E+0	1.008634E+0	1.080559E+0	1.042929E+0	1.061017E+0	1.054504E+0	1.026841E+0	1.029550E+0	1.017019E+0	1.081444E+0	1.058862E+0	1.051883E+0	1.022336E+0	1.049331E+0	1.060656E+0	1.064658E+0	1.022527E+0	1.076309E+0	1.102113E+0	1.021235E+0	1.067093E+0	1.051132E+0	1.047139E+0	1.047673E+0	1.044863E+0	1.047534E+0	1.094731E+0	1.043331E+0	1.067649E+0	1.083811E+0	1.033161E+0	1.078539E+0	9.932705E-1	1.104037E+0
5.385110E+2	1.240394E+0	1.325360E+0	1.293953E+0	1.290220E+0	1.280554E+0	1.275003E+0	1.249478E+0	1.287755E+0	1.253185E+0	1.246089E+0	1.271126E+0	1.285045E+0	1.267517E+0	1.248841E+0	1.279387E+0	1.317686E+0	1.288143E+0	1.258393E+0	1.316018E+0	1.240261E+0	1.287961E+0	1.256235E+0	1.260838E+0	1.266290E+0	1.305188E+0	1.367767E+0	1.278720E+0	1.224344E+0	1.340721E+0	1.310730E+0	1.299257E+0	1.291006E+0	1.264290E+0	1.317156E+0	1.343008E+0	1.273253E+0	1.249951E+0	1.296165E+0	1.293696E+0	1.294923E+0	1.248204E+0	1.285893E+0	1.347709E+0	1.335660E+0	1.284867E+0	1.281309E+0	1.273999E+0	1.292205E+0	1.199446E+0	1.289505E+0	1.319571E+0	1.302473E+0	1.252757E+0	1.240953E+0	1.292242E+0	1.328604E+0	1.305960E+0	1.247775E+0	1.270473E+0	1.312137E+0	1.272238E+0	1.281690E+0	1.309486E+0	1.230897E+0	1.246801E+0	1.210875E+0	1.288145E+0	1.330012E+0	1.226511E+0	1.306244E+0	1.268264E+0	1.313673E+0	1.354795E+0	1.244526E+0	1.297368E+0	1.277117E+0	1.226166E+0	1.209852E+0	1.302761E+0	1.268477E+0	1.266545E+0	1.291210E+0	1.221152E+0	1.326798E+0	1.232142E+0	1.273150E+0	1.271296E+0	1.226105E+0	1.230123E+0	1.314331E+0	1.263608E+0	1.236131E+0	1.282399E+0	1.245651E+0	1.285398E+0	1.267322E+0	1.311987E+0	1.306368E+0	1.270948E+0	1.277691E+0	1.300095E+0	1.281861E+0	1.266674E+0	1.320571E+0	1.270508E+0	1.244631E+0	1.293561E+0	1.306770E+0	1.245035E+0	1.281277E+0	1.290157E+0	1.216729E+0	1.264328E+0	1.262621E+0	1.263368E+0	1.323661E+0	1.292782E+0	1.291168E+0	1.244795E+0	1.259963E+0	1.295719E+0	1.269496E+0	1.248894E+0	1.282897E+0	1.237898E+0	1.265888E+0	1.219005E+0	1.309797E+0	1.338488E+0	1.296726E+0	1.330509E+0	1.270421E+0	1.233816E+0	1.299532E+0	1.282734E+0	1.273885E+0	1.218796E+0	1.315543E+0	1.263069E+0	1.259682E+0	1.301354E+0	1.258162E+0	1.235408E+0	1.304329E+0	1.250518E+0	1.338994E+0	1.240596E+0	1.247777E+0	1.297494E+0	1.265463E+0	1.250740E+0	1.258221E+0	1.262002E+0	1.341647E+0	1.246689E+0	1.210508E+0	1.229606E+0	1.276037E+0	1.309630E+0	1.288759E+0	1.202158E+0	1.278247E+0	1.266430E+0	1.276119E+0	1.260314E+0	1.298392E+0	1.210392E+0	1.338567E+0	1.249852E+0	1.262585E+0
5.387650E+2	1.469861E+0	1.470720E+0	1.449553E+0	1.456754E+0	1.470988E+0	1.477941E+0	1.420470E+0	1.484885E+0	1.447644E+0	1.475323E+0	1.404836E+0	1.441731E+0	1.413713E+0	1.435187E+0	1.426219E+0	1.441897E+0	1.443355E+0	1.387943E+0	1.462078E+0	1.444647E+0	1.441027E+0	1.403790E+0	1.437347E+0	1.500714E+0	1.517823E+0	1.540229E+0	1.428024E+0	1.507835E+0	1.416481E+0	1.457669E+0	1.495346E+0	1.496844E+0	1.439347E+0	1.419504E+0	1.456026E+0	1.442895E+0	1.440081E+0	1.409113E+0	1.425934E+0	1.390166E+0	1.403092E+0	1.445904E+0	1.443505E+0	1.440364E+0	1.420463E+0	1.433032E+0	1.416446E+0	1.433282E+0	1.404658E+0	1.438269E+0	1.481765E+0	1.435414E+0	1.413658E+0	1.452004E+0	1.479742E+0	1.394198E+0	1.525225E+0	1.378929E+0	1.460933E+0	1.406600E+0	1.411693E+0	1.408213E+0	1.428829E+0	1.451490E+0	1.395540E+0	1.432196E+0	1.388497E+0	1.475012E+0	1.436399E+0	1.419396E+0	1.432367E+0	1.446479E+0	1.470380E+0	1.392426E+0	1.398548E+0	1.420014E+0	1.384855E+0	1.426833E+0	1.445008E+0	1.410759E+0	1.446877E+0	1.415099E+0	1.377824E+0	1.463061E+0	1.409363E+0	1.399063E+0	1.398457E+0	1.428902E+0	1.454766E+0	1.396447E+0	1.422526E+0	1.387254E+0	1.388047E+0	1.425558E+0	1.419058E+0	1.450296E+0	1.416115E+0	1.383161E+0	1.469599E+0	1.451071E+0	1.415550E+0	1.430405E+0	1.412649E+0	1.510629E+0	1.424518E+0	1.482267E+0	1.443013E+0	1.459353E+0	1.438007E+0	1.400552E+0	1.405242E+0	1.469370E+0	1.423709E+0	1.361902E+0	1.461416E+0	1.435677E+0	1.393118E+0	1.454603E+0	1.418269E+0	1.440955E+0	1.464839E+0	1.413644E+0	1.409191E+0	1.501318E+0	1.404008E+0	1.410124E+0	1.421329E+0	1.432033E+0	1.464670E+0	1.441336E+0	1.407949E+0	1.380321E+0	1.389726E+0	1.419769E+0	1.425191E+0	1.464821E+0	1.413276E+0	1.432740E+0	1.385062E+0	1.419707E+0	1.362389E+0	1.443883E+0	1.418910E+0	1.423307E+0	1.413050E+0	1.475396E+0	1.400648E+0	1.421081E+0	1.409553E+0	1.451562E+0	1.364806E+0	1.476903E+0	1.436252E+0	1.419320E+0	1.474845E+0	1.379967E+0	1.440084E+0	1.366804E+0	1.417948E+0	1.427021E+0	1.377511E+0	1.439802E+0	1.425739E+0	1.458045E+0	1.418907E+0	1.411525E+0	1.362742E+0	1.395830E+0	1.381752E+0	1.397974E+0
5.390340E+2	1.723746E+0	1.698074E+0	1.660215E+0	1.731706E+0	1.684747E+0	1.745782E+0	1.663696E+0	1.704985E+0	1.642811E+0	1.664723E+0	1.698269E+0	1.732316E+0	1.685198E+0	1.703734E+0	1.753975E+0	1.716268E+0	1.710470E+0	1.661009E+0	1.699120E+0	1.691922E+0	1.733589E+0	1.690372E+0	1.761475E+0	1.694331E+0	1.698833E+0	1.783440E+0	1.689013E+0	1.708522E+0	1.666202E+0	1.709894E+0	1.726381E+0	1.725194E+0	1.744817E+0	1.720804E+0	1.699725E+0	1.696291E+0	1.703524E+0	1.679199E+0	1.735406E+0	1.660510E+0	1.681369E+0	1.703557E+0	1.737055E+0	1.714570E+0	1.721111E+0	1.655169E+0	1.723745E+0	1.716169E+0	1.676584E+0	1.720911E+0	1.705740E+0	1.648864E+0	1.680689E+0	1.733242E+0	1.692407E+0	1.660291E+0	1.739877E+0	1.682745E+0	1.711607E+0	1.614911E+0	1.664467E+0	1.701043E+0	1.698971E+0	1.735618E+0	1.643364E+0	1.624414E+0	1.680429E+0	1.640672E+0	1.708596E+0	1.685238E+0	1.671903E+0	1.702744E+0	1.720866E+0	1.606932E+0	1.715095E+0	1.711847E+0	1.620778E+0	1.619640E+0	1.711909E+0	1.644368E+0	1.696030E+0	1.735975E+0	1.660662E+0	1.699566E+0	1.641301E+0	1.684930E+0	1.739605E+0	1.725821E+0	1.730111E+0	1.713083E+0	1.700931E+0	1.631510E+0	1.693092E+0	1.612934E+0	1.734779E+0	1.704970E+0	1.652511E+0	1.655092E+0	1.688479E+0	1.705465E+0	1.671517E+0	1.695858E+0	1.711611E+0	1.750109E+0	1.683707E+0	1.694906E+0	1.692971E+0	1.640258E+0	1.660547E+0	1.694626E+0	1.642818E+0	1.661894E+0	1.638153E+0	1.649682E+0	1.691105E+0	1.697537E+0	1.638599E+0	1.691494E+0	1.658179E+0	1.692139E+0	1.666147E+0	1.664089E+0	1.718290E+0	1.657937E+0	1.644605E+0	1.643277E+0	1.683454E+0	1.672900E+0	1.633958E+0	1.677050E+0	1.676244E+0	1.669442E+0	1.743739E+0	1.739315E+0	1.726354E+0	1.668622E+0	1.641545E+0	1.622198E+0	1.734840E+0	1.678714E+0	1.570281E+0	1.666202E+0	1.625492E+0	1.648115E+0	1.649953E+0	1.664779E+0	1.702211E+0	1.683417E+0	1.666616E+0	1.695974E+0	1.593345E+0	1.681278E+0	1.641949E+0	1.660072E+0	1.726137E+0	1.628213E+0	1.653237E+0	1.633603E+0	1.688259E+0	1.690218E+0	1.667235E+0	1.672904E+0	1.706274E+0	1.692794E+0	1.668912E+0	1.661054E+0	1.638956E+0	1.668713E+0	1.585058E+0	1.671240E+0
5.392930E+2	1.900644E+0	1.891347E+0	1.890786E+0	1.917760E+0	1.878044E+0	1.845329E+0	1.894262E+0	1.924827E+0	1.891042E+0	1.845188E+0	1.881039E+0	1.849401E+0	1.841532E+0	1.859344E+0	1.876219E+0	1.918279E+0	1.967765E+0	1.926723E+0	1.947650E+0	1.879462E+0	1.903819E+0	1.928586E+0	1.929312E+0	1.877714E+0	1.870650E+0	1.925346E+0	1.886000E+0	1.914800E+0	1.878835E+0	1.862999E+0	1.832538E+0	1.889564E+0	1.888268E+0	1.906504E+0	1.856996E+0	1.833195E+0	1.877732E+0	1.852548E+0	1.951635E+0	1.862039E+0	1.884997E+0	1.915674E+0	1.884094E+0	1.895448E+0	1.897541E+0	1.859270E+0	1.855986E+0	1.875273E+0	1.827759E+0	1.907441E+0	1.888180E+0	1.862749E+0	1.825313E+0	1.860187E+0	1.829891E+0	1.863934E+0	1.964218E+0	1.789685E+0	1.912050E+0	1.896396E+0	1.875456E+0	1.851563E+0	1.882187E+0	1.869579E+0	1.838442E+0	1.836557E+0	1.834526E+0	1.850094E+0	1.867524E+0	1.807641E+0	1.854979E+0	1.870039E+0	1.894142E+0	1.781623E+0	1.883104E+0	1.873693E+0	1.802293E+0	1.828353E+0	1.840071E+0	1.920231E+0	1.859417E+0	1.884480E+0	1.897486E+0	1.870308E+0	1.889877E+0	1.856470E+0	1.916772E+0	1.881807E+0	1.863551E+0	1.864504E+0	1.870968E+0	1.817542E+0	1.878418E+0	1.815112E+0	1.858331E+0	1.817966E+0	1.856089E+0	1.773490E+0	1.854709E+0	1.821148E+0	1.845783E+0	1.875186E+0	1.797116E+0	1.859292E+0	1.842311E+0	1.823679E+0	1.890180E+0	1.857541E+0	1.865071E+0	1.816729E+0	1.882604E+0	1.863794E+0	1.849302E+0	1.769492E+0	1.936612E+0	1.855699E+0	1.901243E+0	1.841719E+0	1.859436E+0	1.833602E+0	1.793333E+0	1.770060E+0	1.826450E+0	1.894448E+0	1.798974E+0	1.816891E+0	1.848661E+0	1.827550E+0	1.854484E+0	1.781683E+0	1.821976E+0	1.827634E+0	1.853556E+0	1.857107E+0	1.877765E+0	1.868809E+0	1.751164E+0	1.786967E+0	1.823618E+0	1.835772E+0	1.793407E+0	1.820515E+0	1.827928E+0	1.876163E+0	1.839612E+0	1.778115E+0	1.826757E+0	1.823163E+0	1.838081E+0	1.804240E+0	1.815464E+0	1.817285E+0	1.816565E+0	1.795762E+0	1.887899E+0	1.826900E+0	1.779288E+0	1.781862E+0	1.856061E+0	1.814733E+0	1.749566E+0	1.787896E+0	1.830378E+0	1.866778E+0	1.801286E+0	1.832384E+0	1.818936E+0	1.828934E+0	1.732395E+0	1.776128E+0
5.395160E+2	1.915716E+0	1.936194E+0	1.935829E+0	1.949399E+0	1.926324E+0	1.954495E+0	1.914135E+0	1.975913E+0	1.965130E+0	1.856763E+0	1.942605E+0	1.901450E+0	1.931263E+0	1.861987E+0	1.945349E+0	1.959014E+0	1.947576E+0	1.889576E+0	2.001806E+0	1.873285E+0	1.920962E+0	1.935719E+0	1.897676E+0	1.988865E+0	1.945358E+0	1.952892E+0	1.956381E+0	1.970389E+0	1.947805E+0	1.903609E+0	1.934774E+0	1.949357E+0	1.911096E+0	1.942098E+0	1.961331E+0	1.896773E+0	1.918315E+0	1.919733E+0	1.904829E+0	1.907378E+0	1.942009E+0	1.915279E+0	1.894852E+0	1.907321E+0	1.974719E+0	1.895140E+0	1.906973E+0	1.883370E+0	1.966770E+0	1.869916E+0	1.945149E+0	1.908874E+0	1.897728E+0	1.930356E+0	1.879739E+0	1.907973E+0	1.986301E+0	1.891821E+0	1.951860E+0	1.936265E+0	1.867991E+0	1.868943E+0	1.923235E+0	1.877305E+0	1.899613E+0	1.884810E+0	1.923053E+0	1.921464E+0	1.944576E+0	1.877856E+0	1.898211E+0	1.879693E+0	1.957210E+0	1.839142E+0	1.934673E+0	1.879802E+0	1.764472E+0	1.810487E+0	1.953155E+0	1.895848E+0	1.972094E+0	1.930435E+0	1.889475E+0	1.940306E+0	1.899830E+0	1.902940E+0	1.863899E+0	1.932400E+0	1.870729E+0	1.920241E+0	1.864830E+0	1.889836E+0	1.905067E+0	1.847888E+0	1.865243E+0	1.936611E+0	1.890378E+0	1.895554E+0	1.918755E+0	1.901496E+0	1.887882E+0	1.920042E+0	1.885289E+0	1.965967E+0	1.832610E+0	1.884157E+0	1.870634E+0	1.902916E+0	1.922567E+0	1.903114E+0	1.886697E+0	1.883602E+0	1.836647E+0	1.876677E+0	1.896835E+0	1.871525E+0	1.860751E+0	1.870563E+0	1.885541E+0	1.858484E+0	1.897671E+0	1.901436E+0	1.944528E+0	1.906492E+0	1.892375E+0	1.876372E+0	1.875082E+0	1.896529E+0	1.859881E+0	1.871635E+0	1.930463E+0	1.863026E+0	1.847793E+0	1.887179E+0	1.949275E+0	1.860289E+0	1.833906E+0	1.878274E+0	1.864766E+0	1.951334E+0	1.839695E+0	1.830610E+0	1.856204E+0	1.923273E+0	1.855856E+0	1.867831E+0	1.915738E+0	1.910362E+0	1.845666E+0	1.868512E+0	1.864624E+0	1.897110E+0	1.818068E+0	1.846891E+0	1.931061E+0	1.807791E+0	1.866210E+0	1.782930E+0	1.881273E+0	1.876139E+0	1.853987E+0	1.873421E+0	1.888436E+0	1.854735E+0	1.809803E+0	1.873361E+0	1.903499E+0	1.875817E+0	1.790794E+0	1.763794E+0
5.397750E+2	1.993234E+0	2.032140E+0	2.029988E+0	2.017794E+0	1.994287E+0	2.033203E+0	1.997075E+0	2.006238E+0	2.004166E+0	1.995797E+0	2.050517E+0	2.026609E+0	2.015071E+0	1.965497E+0	1.986265E+0	2.075009E+0	1.961860E+0	1.932451E+0	2.062216E+0	2.011407E+0	1.952914E+0	2.027939E+0	2.032960E+0	1.994780E+0	2.041770E+0	2.060602E+0	2.004988E+0	2.003583E+0	1.957565E+0	2.003943E+0	1.994726E+0	1.957161E+0	1.924230E+0	2.029891E+0	2.063115E+0	1.942357E+0	2.023418E+0	2.031572E+0	2.005093E+0	1.974119E+0	1.952407E+0	1.980850E+0	1.963607E+0	2.039099E+0	2.020373E+0	2.027330E+0	1.983343E+0	2.005957E+0	1.958011E+0	1.979273E+0	1.951440E+0	2.017461E+0	1.993795E+0	1.991684E+0	1.932951E+0	1.948148E+0	2.033053E+0	1.948387E+0	1.980884E+0	1.953472E+0	1.924802E+0	1.913316E+0	1.977804E+0	1.970051E+0	1.966326E+0	1.960763E+0	1.959057E+0	2.018216E+0	2.010191E+0	1.952417E+0	1.929528E+0	1.983201E+0	2.035505E+0	1.940638E+0	2.005376E+0	1.970674E+0	1.968870E+0	1.922806E+0	1.991113E+0	1.975615E+0	1.989824E+0	1.974006E+0	2.045126E+0	2.057924E+0	1.992187E+0	1.921125E+0	2.007471E+0	2.097720E+0	1.970555E+0	1.964912E+0	1.997913E+0	1.932548E+0	1.913494E+0	1.912440E+0	1.976823E+0	1.972153E+0	1.977752E+0	1.969041E+0	2.014542E+0	1.954373E+0	1.911496E+0	1.973258E+0	1.957573E+0	2.039689E+0	1.965163E+0	1.945277E+0	1.919926E+0	1.918437E+0	1.921101E+0	1.922439E+0	1.953476E+0	1.922903E+0	1.858960E+0	1.926115E+0	1.949217E+0	1.864449E+0	1.952053E+0	1.941654E+0	1.933884E+0	1.948401E+0	1.985151E+0	1.936153E+0	1.947960E+0	1.967527E+0	1.909071E+0	1.903461E+0	1.885555E+0	1.955127E+0	1.987814E+0	1.935459E+0	1.975088E+0	1.925558E+0	1.905191E+0	1.952178E+0	1.980008E+0	1.917748E+0	1.938069E+0	1.902166E+0	1.942948E+0	1.996156E+0	1.925450E+0	1.928620E+0	1.942905E+0	1.913859E+0	1.937738E+0	1.963340E+0	1.939577E+0	1.967097E+0	1.951936E+0	1.903891E+0	1.889691E+0	2.010255E+0	1.855946E+0	1.925567E+0	2.070846E+0	1.912669E+0	1.916449E+0	1.904022E+0	1.958175E+0	1.937671E+0	1.919637E+0	1.912436E+0	1.989113E+0	1.895255E+0	1.889894E+0	1.915697E+0	1.908226E+0	1.982142E+0	1.839261E+0	1.776345E+0
5.400240E+2	1.923451E+0	1.893170E+0	1.906432E+0	1.929496E+0	1.901252E+0	1.911270E+0	1.921190E+0	1.945760E+0	1.953234E+0	1.905227E+0	1.930418E+0	1.979183E+0	1.955199E+0	1.960906E+0	1.962466E+0	1.967638E+0	2.015647E+0	1.971625E+0	2.039819E+0	1.970755E+0	1.973071E+0	1.945160E+0	1.927862E+0	1.940634E+0	1.931901E+0	1.945787E+0	1.912758E+0	1.995330E+0	1.905519E+0	1.943511E+0	1.910426E+0	1.885786E+0	1.927197E+0	1.841902E+0	1.986958E+0	1.864321E+0	1.914878E+0	1.923365E+0	1.995664E+0	1.880332E+0	1.955713E+0	1.928225E+0	1.971650E+0	1.915660E+0	1.935491E+0	1.949649E+0	1.924561E+0	1.918306E+0	1.900386E+0	1.951829E+0	1.950136E+0	1.966840E+0	1.888156E+0	1.922529E+0	1.881914E+0	1.981476E+0	1.957657E+0	1.904604E+0	1.983530E+0	1.956539E+0	1.912394E+0	1.963270E+0	1.895068E+0	1.888394E+0	1.865254E+0	1.871023E+0	1.878209E+0	1.955470E+0	1.888666E+0	1.837550E+0	1.898370E+0	1.908268E+0	1.918717E+0	1.885965E+0	1.944314E+0	1.897417E+0	1.949237E+0	1.842824E+0	1.962166E+0	1.889107E+0	1.948526E+0	1.918923E+0	1.916425E+0	1.883509E+0	1.928020E+0	1.866786E+0	1.926703E+0	1.926022E+0	1.868095E+0	1.932425E+0	1.921578E+0	1.900054E+0	1.901870E+0	1.818039E+0	1.912687E+0	1.896665E+0	1.932395E+0	1.892915E+0	1.937096E+0	1.937206E+0	1.804522E+0	1.953740E+0	1.922354E+0	1.943219E+0	1.877995E+0	1.895292E+0	1.953074E+0	1.836211E+0	1.841754E+0	1.859688E+0	1.895486E+0	1.838595E+0	1.878612E+0	1.906436E+0	1.938211E+0	1.952365E+0	1.909362E+0	1.916718E+0	1.917809E+0	1.880503E+0	1.914945E+0	1.855113E+0	1.891442E+0	1.910743E+0	1.895318E+0	1.852684E+0	1.907135E+0	1.902275E+0	1.906363E+0	1.931667E+0	1.847905E+0	1.834146E+0	1.859628E+0	1.925369E+0	1.949794E+0	1.875967E+0	1.811680E+0	1.909518E+0	1.899021E+0	1.848658E+0	1.829378E+0	1.847581E+0	1.903504E+0	1.907928E+0	1.872448E+0	1.881981E+0	1.853130E+0	1.940756E+0	1.869930E+0	1.897913E+0	1.871077E+0	1.899973E+0	1.872917E+0	1.886702E+0	1.916861E+0	1.892573E+0	1.860760E+0	1.848691E+0	1.910059E+0	1.860510E+0	1.917278E+0	1.807255E+0	1.936149E+0	1.801376E+0	1.854044E+0	1.873866E+0	1.873889E+0	1.938179E+0	1.849899E+0	1.913349E+0
5.402900E+2	1.781235E+0	1.741917E+0	1.790331E+0	1.770991E+0	1.757075E+0	1.778657E+0	1.801545E+0	1.791187E+0	1.769271E+0	1.732741E+0	1.757436E+0	1.793934E+0	1.757172E+0	1.766493E+0	1.771426E+0	1.820556E+0	1.820306E+0	1.712159E+0	1.736163E+0	1.748894E+0	1.813419E+0	1.772838E+0	1.877254E+0	1.760911E+0	1.774181E+0	1.817314E+0	1.738937E+0	1.856378E+0	1.786187E+0	1.828985E+0	1.706365E+0	1.811702E+0	1.791767E+0	1.749943E+0	1.801159E+0	1.729094E+0	1.774387E+0	1.718539E+0	1.837231E+0	1.735840E+0	1.718201E+0	1.724298E+0	1.776084E+0	1.757915E+0	1.801376E+0	1.701679E+0	1.757432E+0	1.774763E+0	1.761492E+0	1.758130E+0	1.782773E+0	1.791977E+0	1.782382E+0	1.736820E+0	1.736212E+0	1.795640E+0	1.784094E+0	1.710183E+0	1.752083E+0	1.777551E+0	1.765531E+0	1.789500E+0	1.751926E+0	1.788945E+0	1.754119E+0	1.719360E+0	1.729534E+0	1.798473E+0	1.745337E+0	1.778359E+0	1.714322E+0	1.765871E+0	1.812976E+0	1.667587E+0	1.765170E+0	1.748835E+0	1.727326E+0	1.672736E+0	1.781067E+0	1.795198E+0	1.749782E+0	1.720866E+0	1.714540E+0	1.802362E+0	1.733979E+0	1.715295E+0	1.709753E+0	1.768159E+0	1.752768E+0	1.774880E+0	1.743402E+0	1.657692E+0	1.766037E+0	1.699427E+0	1.720284E+0	1.737872E+0	1.753308E+0	1.728322E+0	1.805213E+0	1.729287E+0	1.728211E+0	1.741535E+0	1.734222E+0	1.776809E+0	1.663652E+0	1.732987E+0	1.762337E+0	1.730806E+0	1.709208E+0	1.709651E+0	1.769552E+0	1.722425E+0	1.748074E+0	1.772248E+0	1.775562E+0	1.773708E+0	1.683705E+0	1.687126E+0	1.667181E+0	1.732772E+0	1.759675E+0	1.733128E+0	1.705640E+0	1.703908E+0	1.705802E+0	1.742024E+0	1.739068E+0	1.735910E+0	1.740131E+0	1.741529E+0	1.820282E+0	1.725617E+0	1.743148E+0	1.712178E+0	1.727366E+0	1.682250E+0	1.708289E+0	1.715970E+0	1.757661E+0	1.703926E+0	1.685139E+0	1.670279E+0	1.704147E+0	1.664876E+0	1.671727E+0	1.726420E+0	1.756720E+0	1.803643E+0	1.765574E+0	1.701239E+0	1.683405E+0	1.709938E+0	1.715198E+0	1.747250E+0	1.810597E+0	1.635504E+0	1.710607E+0	1.686576E+0	1.742775E+0	1.702127E+0	1.663896E+0	1.734967E+0	1.788802E+0	1.761158E+0	1.700784E+0	1.734413E+0	1.698304E+0	1.759963E+0	1.656775E+0	1.839956E+0
5.405080E+2	1.706241E+0	1.720202E+0	1.726277E+0	1.759877E+0	1.784914E+0	1.736747E+0	1.743577E+0	1.738754E+0	1.711317E+0	1.689761E+0	1.725323E+0	1.719015E+0	1.700381E+0	1.713796E+0	1.726179E+0	1.788868E+0	1.765071E+0	1.691370E+0	1.750369E+0	1.704312E+0	1.687342E+0	1.703562E+0	1.728290E+0	1.773494E+0	1.731628E+0	1.783372E+0	1.740762E+0	1.783935E+0	1.757102E+0	1.708757E+0	1.754710E+0	1.777536E+0	1.742545E+0	1.671146E+0	1.732159E+0	1.723743E+0	1.643810E+0	1.779498E+0	1.706408E+0	1.736861E+0	1.686102E+0	1.730220E+0	1.733141E+0	1.723379E+0	1.705998E+0	1.681454E+0	1.718271E+0	1.750771E+0	1.666024E+0	1.746625E+0	1.724035E+0	1.679559E+0	1.712331E+0	1.645870E+0	1.719984E+0	1.738218E+0	1.763586E+0	1.642578E+0	1.765181E+0	1.711695E+0	1.728140E+0	1.661489E+0	1.656437E+0	1.721252E+0	1.767238E+0	1.691081E+0	1.714827E+0	1.716381E+0	1.764332E+0	1.732950E+0	1.734874E+0	1.700188E+0	1.748606E+0	1.659286E+0	1.731166E+0	1.692967E+0	1.705101E+0	1.681260E+0	1.663554E+0	1.732336E+0	1.729269E+0	1.714581E+0	1.674107E+0	1.664036E+0	1.693461E+0	1.736221E+0	1.701684E+0	1.701032E+0	1.696139E+0	1.747759E+0	1.710602E+0	1.704429E+0	1.683442E+0	1.661962E+0	1.665823E+0	1.710217E+0	1.713264E+0	1.714159E+0	1.666839E+0	1.702764E+0	1.686011E+0	1.738239E+0	1.686933E+0	1.744308E+0	1.666530E+0	1.676102E+0	1.676763E+0	1.721498E+0	1.672947E+0	1.696833E+0	1.699550E+0	1.714393E+0	1.732249E+0	1.642229E+0	1.787772E+0	1.731091E+0	1.696368E+0	1.690799E+0	1.735841E+0	1.697551E+0	1.704503E+0	1.662379E+0	1.642033E+0	1.716509E+0	1.704421E+0	1.617712E+0	1.701559E+0	1.656807E+0	1.651446E+0	1.701313E+0	1.767024E+0	1.729800E+0	1.637275E+0	1.677232E+0	1.720963E+0	1.676440E+0	1.707148E+0	1.673448E+0	1.704046E+0	1.648019E+0	1.648336E+0	1.637121E+0	1.631876E+0	1.628869E+0	1.651405E+0	1.723206E+0	1.673118E+0	1.699302E+0	1.737051E+0	1.683428E+0	1.606545E+0	1.678601E+0	1.690312E+0	1.661230E+0	1.708604E+0	1.674180E+0	1.609212E+0	1.686419E+0	1.677609E+0	1.706665E+0	1.686577E+0	1.646408E+0	1.599721E+0	1.722941E+0	1.607721E+0	1.664246E+0	1.682994E+0	1.690116E+0	1.643096E+0	1.789889E+0
5.407680E+2	1.653645E+0	1.629796E+0	1.597430E+0	1.665298E+0	1.672341E+0	1.717721E+0	1.698165E+0	1.628907E+0	1.640328E+0	1.647188E+0	1.641536E+0	1.650417E+0	1.642524E+0	1.633595E+0	1.664984E+0	1.621688E+0	1.685634E+0	1.619583E+0	1.647431E+0	1.632890E+0	1.665274E+0	1.680413E+0	1.678588E+0	1.605198E+0	1.639570E+0	1.748887E+0	1.624751E+0	1.656581E+0	1.700261E+0	1.648219E+0	1.636316E+0	1.673371E+0	1.675478E+0	1.696309E+0	1.679437E+0	1.617695E+0	1.654049E+0	1.605376E+0	1.708122E+0	1.652444E+0	1.625965E+0	1.633744E+0	1.622604E+0	1.683587E+0	1.617054E+0	1.614966E+0	1.594397E+0	1.602400E+0	1.667151E+0	1.622422E+0	1.663244E+0	1.727388E+0	1.651133E+0	1.611154E+0	1.588268E+0	1.591657E+0	1.618053E+0	1.602947E+0	1.689854E+0	1.612859E+0	1.644580E+0	1.615060E+0	1.580127E+0	1.632273E+0	1.650021E+0	1.621831E+0	1.617575E+0	1.665280E+0	1.669367E+0	1.606041E+0	1.608425E+0	1.584481E+0	1.668330E+0	1.554875E+0	1.584249E+0	1.647169E+0	1.610325E+0	1.595531E+0	1.607390E+0	1.646198E+0	1.633239E+0	1.601599E+0	1.631905E+0	1.634491E+0	1.616710E+0	1.588471E+0	1.670353E+0	1.642965E+0	1.616829E+0	1.605512E+0	1.662192E+0	1.560370E+0	1.612711E+0	1.587546E+0	1.561996E+0	1.598986E+0	1.639586E+0	1.604624E+0	1.653615E+0	1.605731E+0	1.645044E+0	1.588886E+0	1.627940E+0	1.632132E+0	1.635682E+0	1.647590E+0	1.604714E+0	1.673140E+0	1.624181E+0	1.630881E+0	1.574451E+0	1.598786E+0	1.596850E+0	1.595810E+0	1.623393E+0	1.592394E+0	1.586744E+0	1.646185E+0	1.587282E+0	1.562005E+0	1.597565E+0	1.581411E+0	1.582899E+0	1.650800E+0	1.568091E+0	1.583374E+0	1.643584E+0	1.620891E+0	1.617678E+0	1.626936E+0	1.633404E+0	1.562210E+0	1.594905E+0	1.622428E+0	1.638179E+0	1.579212E+0	1.573427E+0	1.571759E+0	1.602311E+0	1.610950E+0	1.585706E+0	1.553178E+0	1.584530E+0	1.626038E+0	1.595821E+0	1.602269E+0	1.599171E+0	1.632048E+0	1.646435E+0	1.631234E+0	1.599195E+0	1.633213E+0	1.573738E+0	1.660418E+0	1.592798E+0	1.623875E+0	1.605948E+0	1.585218E+0	1.625317E+0	1.557980E+0	1.621770E+0	1.611785E+0	1.625620E+0	1.552208E+0	1.600969E+0	1.613847E+0	1.595282E+0	1.532194E+0	1.524368E+0	1.585447E+0
5.410340E+2	1.627266E+0	1.634047E+0	1.610792E+0	1.661587E+0	1.627470E+0	1.632257E+0	1.609098E+0	1.600715E+0	1.553405E+0	1.608447E+0	1.565108E+0	1.639301E+0	1.548355E+0	1.628786E+0	1.573541E+0	1.637345E+0	1.593515E+0	1.549932E+0	1.548152E+0	1.573475E+0	1.571741E+0	1.641461E+0	1.603662E+0	1.497895E+0	1.577733E+0	1.607098E+0	1.547693E+0	1.528658E+0	1.524395E+0	1.570379E+0	1.567839E+0	1.568801E+0	1.584026E+0	1.533413E+0	1.610566E+0	1.607655E+0	1.566792E+0	1.595857E+0	1.613239E+0	1.582193E+0	1.559315E+0	1.598796E+0	1.635692E+0	1.576496E+0	1.521043E+0	1.524900E+0	1.616410E+0	1.576976E+0	1.540895E+0	1.546408E+0	1.597202E+0	1.581893E+0	1.539958E+0	1.590241E+0	1.586381E+0	1.566385E+0	1.610822E+0	1.572791E+0	1.578659E+0	1.595743E+0	1.600411E+0	1.558081E+0	1.568855E+0	1.577498E+0	1.590119E+0	1.544692E+0	1.622256E+0	1.668991E+0	1.572752E+0	1.559569E+0	1.557379E+0	1.522491E+0	1.667889E+0	1.559523E+0	1.562655E+0	1.527645E+0	1.555277E+0	1.517029E+0	1.580090E+0	1.583614E+0	1.584568E+0	1.592360E+0	1.545984E+0	1.609397E+0	1.613613E+0	1.543501E+0	1.592823E+0	1.581454E+0	1.600221E+0	1.632636E+0	1.568866E+0	1.529496E+0	1.578379E+0	1.509979E+0	1.512198E+0	1.601930E+0	1.547452E+0	1.506364E+0	1.620880E+0	1.570079E+0	1.548369E+0	1.580870E+0	1.582908E+0	1.620220E+0	1.551746E+0	1.550104E+0	1.600114E+0	1.559270E+0	1.549306E+0	1.524715E+0	1.515715E+0	1.571280E+0	1.592453E+0	1.554950E+0	1.608030E+0	1.615231E+0	1.554046E+0	1.551221E+0	1.548311E+0	1.560194E+0	1.523846E+0	1.549823E+0	1.553666E+0	1.651837E+0	1.545373E+0	1.524604E+0	1.586301E+0	1.569072E+0	1.564864E+0	1.572646E+0	1.522949E+0	1.544783E+0	1.566421E+0	1.570030E+0	1.563326E+0	1.575293E+0	1.564090E+0	1.571654E+0	1.551000E+0	1.507490E+0	1.542121E+0	1.545990E+0	1.497696E+0	1.575031E+0	1.509674E+0	1.526488E+0	1.540474E+0	1.625074E+0	1.574791E+0	1.610813E+0	1.539764E+0	1.600944E+0	1.540315E+0	1.588928E+0	1.541001E+0	1.567549E+0	1.558770E+0	1.494176E+0	1.523352E+0	1.578535E+0	1.543430E+0	1.560571E+0	1.545437E+0	1.555096E+0	1.543006E+0	1.571819E+0	1.554926E+0	1.494299E+0	1.471337E+0	1.529539E+0
5.412850E+2	1.560271E+0	1.460220E+0	1.509044E+0	1.536015E+0	1.446577E+0	1.531160E+0	1.487729E+0	1.525308E+0	1.482468E+0	1.459773E+0	1.520833E+0	1.529759E+0	1.489159E+0	1.483315E+0	1.464316E+0	1.519387E+0	1.510145E+0	1.441631E+0	1.541856E+0	1.493254E+0	1.542689E+0	1.498575E+0	1.532106E+0	1.493990E+0	1.522686E+0	1.549445E+0	1.495331E+0	1.490947E+0	1.434738E+0	1.537462E+0	1.533528E+0	1.477220E+0	1.480774E+0	1.439156E+0	1.522166E+0	1.509002E+0	1.466425E+0	1.467104E+0	1.530947E+0	1.490070E+0	1.460823E+0	1.493385E+0	1.486916E+0	1.577365E+0	1.470103E+0	1.490737E+0	1.426679E+0	1.520566E+0	1.479877E+0	1.496583E+0	1.509432E+0	1.507037E+0	1.497928E+0	1.476983E+0	1.496848E+0	1.491364E+0	1.518634E+0	1.455603E+0	1.472407E+0	1.440292E+0	1.489344E+0	1.514425E+0	1.474777E+0	1.450015E+0	1.447628E+0	1.477375E+0	1.472884E+0	1.521787E+0	1.523660E+0	1.476296E+0	1.536047E+0	1.521513E+0	1.509861E+0	1.444403E+0	1.499546E+0	1.455863E+0	1.521157E+0	1.523395E+0	1.459882E+0	1.515894E+0	1.468671E+0	1.474261E+0	1.519665E+0	1.534983E+0	1.508588E+0	1.491432E+0	1.453723E+0	1.503368E+0	1.487758E+0	1.514371E+0	1.456517E+0	1.448710E+0	1.480411E+0	1.405043E+0	1.437555E+0	1.472857E+0	1.533958E+0	1.455475E+0	1.508576E+0	1.515163E+0	1.523083E+0	1.458172E+0	1.470260E+0	1.520995E+0	1.477835E+0	1.479390E+0	1.468175E+0	1.451628E+0	1.490601E+0	1.430672E+0	1.422506E+0	1.481559E+0	1.471390E+0	1.445067E+0	1.466899E+0	1.503302E+0	1.422940E+0	1.402696E+0	1.479896E+0	1.501888E+0	1.504765E+0	1.439382E+0	1.453386E+0	1.484712E+0	1.458798E+0	1.478600E+0	1.459957E+0	1.521108E+0	1.471073E+0	1.456940E+0	1.483970E+0	1.459835E+0	1.468153E+0	1.489905E+0	1.463394E+0	1.511403E+0	1.498897E+0	1.436216E+0	1.468281E+0	1.439980E+0	1.454698E+0	1.421449E+0	1.427310E+0	1.502118E+0	1.483138E+0	1.525465E+0	1.447373E+0	1.459772E+0	1.445515E+0	1.498125E+0	1.473781E+0	1.454605E+0	1.454214E+0	1.482872E+0	1.469559E+0	1.459715E+0	1.440166E+0	1.452666E+0	1.518820E+0	1.525679E+0	1.461154E+0	1.437288E+0	1.494043E+0	1.500852E+0	1.454601E+0	1.478943E+0	1.454984E+0	1.516025E+0	1.454152E+0	1.486541E+0
5.415140E+2	1.297493E+0	1.287215E+0	1.288081E+0	1.330711E+0	1.290194E+0	1.334160E+0	1.339932E+0	1.318250E+0	1.314392E+0	1.287155E+0	1.364705E+0	1.358562E+0	1.262559E+0	1.310476E+0	1.354891E+0	1.332076E+0	1.331935E+0	1.350063E+0	1.346556E+0	1.300685E+0	1.345092E+0	1.385675E+0	1.324545E+0	1.315039E+0	1.330169E+0	1.308961E+0	1.279198E+0	1.357881E+0	1.340969E+0	1.299350E+0	1.328097E+0	1.356692E+0	1.308139E+0	1.320051E+0	1.351191E+0	1.316986E+0	1.311476E+0	1.274835E+0	1.371457E+0	1.302133E+0	1.300293E+0	1.304917E+0	1.318760E+0	1.358049E+0	1.300677E+0	1.305344E+0	1.316265E+0	1.335760E+0	1.323267E+0	1.301293E+0	1.293340E+0	1.344730E+0	1.312994E+0	1.292040E+0	1.298967E+0	1.315112E+0	1.380667E+0	1.307006E+0	1.329658E+0	1.299628E+0	1.277239E+0	1.302224E+0	1.319755E+0	1.317312E+0	1.292026E+0	1.341568E+0	1.297608E+0	1.359539E+0	1.314028E+0	1.304298E+0	1.330583E+0	1.323969E+0	1.341587E+0	1.285331E+0	1.335849E+0	1.304829E+0	1.315342E+0	1.297525E+0	1.363573E+0	1.338182E+0	1.395941E+0	1.311652E+0	1.308342E+0	1.325284E+0	1.380608E+0	1.328459E+0	1.324909E+0	1.285811E+0	1.327948E+0	1.282625E+0	1.308182E+0	1.305654E+0	1.346507E+0	1.324936E+0	1.277444E+0	1.336726E+0	1.329914E+0	1.296611E+0	1.302212E+0	1.348185E+0	1.288814E+0	1.368453E+0	1.291828E+0	1.326115E+0	1.314745E+0	1.292963E+0	1.280236E+0	1.334746E+0	1.261480E+0	1.282625E+0	1.279267E+0	1.336039E+0	1.321733E+0	1.311979E+0	1.324986E+0	1.306163E+0	1.320287E+0	1.284102E+0	1.299521E+0	1.334206E+0	1.310586E+0	1.263259E+0	1.267587E+0	1.353299E+0	1.341809E+0	1.283371E+0	1.318687E+0	1.298913E+0	1.281357E+0	1.268752E+0	1.347215E+0	1.264221E+0	1.267727E+0	1.281894E+0	1.344241E+0	1.285355E+0	1.304888E+0	1.288030E+0	1.300359E+0	1.295621E+0	1.331941E+0	1.299423E+0	1.265092E+0	1.279579E+0	1.295832E+0	1.279881E+0	1.304470E+0	1.287122E+0	1.271354E+0	1.318175E+0	1.352539E+0	1.304307E+0	1.290364E+0	1.224462E+0	1.320095E+0	1.318994E+0	1.273914E+0	1.262273E+0	1.281853E+0	1.359019E+0	1.300345E+0	1.313661E+0	1.301606E+0	1.243715E+0	1.315111E+0	1.279567E+0	1.296745E+0	1.344245E+0	1.248716E+0	1.323894E+0
5.417760E+2	1.111816E+0	1.136994E+0	1.164463E+0	1.159137E+0	1.152201E+0	1.136908E+0	1.129167E+0	1.166988E+0	1.095848E+0	1.084195E+0	1.154890E+0	1.134239E+0	1.113471E+0	1.167075E+0	1.108476E+0	1.132727E+0	1.176781E+0	1.097974E+0	1.113504E+0	1.089180E+0	1.142361E+0	1.093504E+0	1.133352E+0	1.137221E+0	1.144681E+0	1.190475E+0	1.181921E+0	1.154018E+0	1.101231E+0	1.137937E+0	1.121394E+0	1.140107E+0	1.107366E+0	1.157301E+0	1.192076E+0	1.121698E+0	1.078793E+0	1.099468E+0	1.168706E+0	1.137127E+0	1.108067E+0	1.085680E+0	1.171778E+0	1.120823E+0	1.148858E+0	1.142620E+0	1.140585E+0	1.178465E+0	1.100598E+0	1.120816E+0	1.167632E+0	1.163442E+0	1.108538E+0	1.127494E+0	1.164593E+0	1.099238E+0	1.149619E+0	1.108681E+0	1.168879E+0	1.155849E+0	1.142329E+0	1.123964E+0	1.150067E+0	1.139738E+0	1.150330E+0	1.099543E+0	1.114228E+0	1.198705E+0	1.137891E+0	1.118366E+0	1.133268E+0	1.144200E+0	1.167935E+0	1.060502E+0	1.147323E+0	1.131076E+0	1.114903E+0	1.084944E+0	1.148916E+0	1.150247E+0	1.174773E+0	1.096214E+0	1.090594E+0	1.154215E+0	1.148363E+0	1.110181E+0	1.121741E+0	1.144332E+0	1.154721E+0	1.113731E+0	1.098969E+0	1.135095E+0	1.166217E+0	1.071141E+0	1.136544E+0	1.130468E+0	1.111537E+0	1.124765E+0	1.159426E+0	1.159698E+0	1.099148E+0	1.140869E+0	1.148716E+0	1.189923E+0	1.156632E+0	1.101345E+0	1.115194E+0	1.179588E+0	1.176881E+0	1.105817E+0	1.104084E+0	1.122983E+0	1.140836E+0	1.121649E+0	1.202298E+0	1.148347E+0	1.160117E+0	1.162166E+0	1.084766E+0	1.097717E+0	1.174808E+0	1.107019E+0	1.123501E+0	1.132773E+0	1.108039E+0	1.107179E+0	1.133654E+0	1.202175E+0	1.163360E+0	1.101293E+0	1.110494E+0	1.120817E+0	1.123548E+0	1.144862E+0	1.158573E+0	1.177449E+0	1.128959E+0	1.155180E+0	1.103110E+0	1.166059E+0	1.159176E+0	1.126085E+0	1.114155E+0	1.142882E+0	1.172465E+0	1.133122E+0	1.131047E+0	1.143689E+0	1.110321E+0	1.109796E+0	1.130126E+0	1.145821E+0	1.153466E+0	1.135160E+0	1.129674E+0	1.114227E+0	1.141239E+0	1.099859E+0	1.158071E+0	1.142177E+0	1.144496E+0	1.112460E+0	1.126126E+0	1.092346E+0	1.088554E+0	1.142004E+0	1.075515E+0	1.189018E+0	1.107742E+0	1.212564E+0
5.420270E+2	9.766402E-1	1.021408E+0	9.756296E-1	1.006056E+0	1.020890E+0	1.026296E+0	9.423832E-1	1.035350E+0	1.006947E+0	9.311368E-1	1.012393E+0	9.936759E-1	1.002777E+0	9.841317E-1	9.790840E-1	1.003276E+0	9.904423E-1	9.976132E-1	1.049499E+0	1.034823E+0	1.035413E+0	1.020513E+0	1.046088E+0	1.006515E+0	1.048594E+0	1.031541E+0	9.942898E-1	1.010054E+0	1.015836E+0	9.898660E-1	1.001003E+0	1.010551E+0	1.054742E+0	9.865042E-1	1.059534E+0	1.011890E+0	1.042119E+0	1.012750E+0	1.034887E+0	1.040957E+0	1.023349E+0	1.027835E+0	9.711199E-1	1.008717E+0	9.754524E-1	1.025667E+0	9.969338E-1	9.887619E-1	9.678353E-1	1.046906E+0	1.004609E+0	1.000072E+0	1.018591E+0	9.917431E-1	9.678681E-1	9.937223E-1	1.032780E+0	9.950044E-1	1.005517E+0	1.019385E+0	1.041468E+0	9.596250E-1	1.003105E+0	9.793003E-1	1.042274E+0	9.894617E-1	9.953532E-1	1.040334E+0	1.015597E+0	9.929732E-1	1.001968E+0	1.016243E+0	1.048361E+0	9.413743E-1	9.779385E-1	1.029762E+0	1.004283E+0	1.013827E+0	9.873955E-1	1.029856E+0	9.967467E-1	9.888725E-1	9.845842E-1	1.035156E+0	1.032510E+0	9.683975E-1	1.008014E+0	9.880264E-1	1.030071E+0	9.975153E-1	1.012382E+0	9.887298E-1	1.017624E+0	9.518563E-1	9.835259E-1	9.354869E-1	1.005097E+0	9.688603E-1	9.699837E-1	1.013125E+0	1.015104E+0	1.022698E+0	9.891834E-1	1.014377E+0	9.959478E-1	1.006233E+0	9.935301E-1	9.707145E-1	9.729537E-1	9.771578E-1	1.002088E+0	1.032424E+0	1.021657E+0	9.861478E-1	1.055188E+0	1.017224E+0	1.016646E+0	1.019204E+0	9.805923E-1	1.024557E+0	1.008717E+0	9.807333E-1	1.015041E+0	1.005579E+0	1.003428E+0	1.009948E+0	1.009633E+0	9.850270E-1	9.872150E-1	1.045014E+0	1.010374E+0	1.038478E+0	9.521982E-1	1.007819E+0	9.968729E-1	1.004958E+0	9.499906E-1	9.684830E-1	1.013569E+0	1.006396E+0	9.838064E-1	9.941681E-1	9.651980E-1	9.889874E-1	1.024822E+0	1.003266E+0	9.566914E-1	9.860311E-1	1.020042E+0	9.899928E-1	1.019407E+0	1.028064E+0	1.038348E+0	1.015013E+0	1.002837E+0	9.996507E-1	9.555412E-1	9.338834E-1	9.999096E-1	9.900391E-1	9.590983E-1	1.036435E+0	9.982960E-1	1.052770E+0	9.776706E-1	9.882740E-1	9.459498E-1	1.015590E+0	1.033116E+0	1.068512E+0
5.422730E+2	9.287214E-1	8.921668E-1	9.330936E-1	9.160902E-1	9.444118E-1	9.339555E-1	9.080481E-1	9.401156E-1	9.347491E-1	9.331232E-1	8.992313E-1	9.127093E-1	9.297580E-1	9.175351E-1	8.443274E-1	9.362862E-1	9.651027E-1	8.706354E-1	9.607622E-1	8.903996E-1	9.135448E-1	9.366621E-1	9.370098E-1	9.022241E-1	9.427317E-1	9.074233E-1	9.218103E-1	9.017686E-1	9.140287E-1	8.888918E-1	9.704223E-1	9.144980E-1	9.136887E-1	9.118376E-1	9.480633E-1	9.240065E-1	9.483545E-1	9.690552E-1	9.598315E-1	9.321938E-1	8.929784E-1	9.397394E-1	8.896006E-1	9.344363E-1	9.261799E-1	8.803289E-1	9.345804E-1	9.171599E-1	9.479965E-1	9.476189E-1	8.969104E-1	9.143066E-1	9.210082E-1	9.130696E-1	9.422556E-1	9.266759E-1	9.136223E-1	9.279655E-1	9.429699E-1	9.031561E-1	9.391218E-1	9.160491E-1	9.323842E-1	9.377725E-1	9.468975E-1	9.346285E-1	9.040828E-1	9.319576E-1	9.488280E-1	9.267199E-1	9.444346E-1	9.042250E-1	9.381164E-1	8.658679E-1	8.943678E-1	9.092912E-1	9.238278E-1	8.769897E-1	9.373679E-1	9.319921E-1	9.761955E-1	9.538562E-1	9.293421E-1	9.243251E-1	9.431123E-1	9.148864E-1	9.273405E-1	9.507263E-1	9.285635E-1	8.860256E-1	9.524238E-1	9.280046E-1	9.422116E-1	8.792534E-1	9.200809E-1	9.313372E-1	9.258219E-1	9.400205E-1	9.310492E-1	9.566223E-1	8.908188E-1	9.756055E-1	9.003187E-1	9.750151E-1	8.688903E-1	9.195534E-1	9.542224E-1	9.407238E-1	9.404560E-1	9.092840E-1	9.241878E-1	9.683780E-1	8.747700E-1	9.270276E-1	9.558246E-1	9.062000E-1	9.416904E-1	9.533515E-1	9.254671E-1	9.188345E-1	9.116685E-1	8.882256E-1	9.083344E-1	9.111866E-1	9.321012E-1	9.113267E-1	8.813358E-1	9.087557E-1	9.618665E-1	9.664931E-1	9.244192E-1	9.189108E-1	9.174084E-1	9.534881E-1	9.068300E-1	9.564267E-1	9.274585E-1	8.975930E-1	8.894140E-1	9.254265E-1	9.312305E-1	9.400787E-1	8.890679E-1	9.255787E-1	8.985088E-1	9.557997E-1	8.712039E-1	9.418706E-1	9.237787E-1	9.185931E-1	8.836752E-1	9.271556E-1	9.732306E-1	9.235059E-1	9.211412E-1	9.263732E-1	9.286450E-1	9.259608E-1	9.340808E-1	9.415688E-1	9.023729E-1	9.176157E-1	9.042626E-1	9.249824E-1	9.278551E-1	8.967151E-1	9.413355E-1	9.245994E-1	8.802425E-1	8.971890E-1
5.425300E+2	9.130307E-1	9.219300E-1	8.843071E-1	9.336420E-1	9.235833E-1	9.123884E-1	9.145744E-1	9.309555E-1	9.029355E-1	9.046433E-1	8.659297E-1	9.122014E-1	9.330267E-1	8.919103E-1	9.112648E-1	9.561144E-1	9.046553E-1	8.655062E-1	8.835800E-1	9.137563E-1	9.595279E-1	9.096960E-1	9.120855E-1	9.328514E-1	9.105250E-1	9.191748E-1	9.369565E-1	9.026989E-1	9.296522E-1	8.966830E-1	9.685189E-1	9.099115E-1	9.510589E-1	9.300511E-1	9.600563E-1	9.097960E-1	8.920613E-1	9.410986E-1	9.206918E-1	8.967733E-1	8.813788E-1	9.089858E-1	8.949751E-1	9.361206E-1	9.598262E-1	9.105238E-1	9.326620E-1	8.884778E-1	9.323622E-1	9.138431E-1	8.821047E-1	9.058690E-1	9.312943E-1	8.960186E-1	8.810488E-1	9.141159E-1	9.506777E-1	9.173256E-1	8.944589E-1	8.955676E-1	9.546191E-1	8.943705E-1	9.325296E-1	9.244598E-1	9.014702E-1	9.515881E-1	9.084395E-1	9.183052E-1	9.417723E-1	9.078100E-1	9.462951E-1	8.935116E-1	9.163950E-1	8.844554E-1	9.036896E-1	9.139228E-1	8.774857E-1	9.145940E-1	8.852805E-1	9.091489E-1	9.762566E-1	9.445777E-1	8.748360E-1	9.353107E-1	9.618513E-1	8.931496E-1	9.321476E-1	9.169500E-1	9.166547E-1	9.116968E-1	9.315013E-1	8.891960E-1	9.244029E-1	9.143633E-1	8.876724E-1	9.074868E-1	9.599276E-1	8.925737E-1	9.244865E-1	9.096556E-1	9.148116E-1	9.550073E-1	9.007033E-1	9.085172E-1	8.695744E-1	9.177964E-1	9.351883E-1	8.806168E-1	9.478980E-1	9.232635E-1	9.073781E-1	8.928678E-1	9.318880E-1	9.050238E-1	9.471384E-1	9.375473E-1	9.155246E-1	9.012688E-1	9.243619E-1	9.491199E-1	9.615566E-1	9.035270E-1	9.158435E-1	9.379733E-1	8.756334E-1	9.110366E-1	9.042583E-1	9.387722E-1	9.377369E-1	9.446864E-1	9.197232E-1	9.072232E-1	9.193817E-1	9.118800E-1	8.904869E-1	9.151232E-1	9.453613E-1	9.073977E-1	9.252524E-1	9.103003E-1	8.907565E-1	9.045905E-1	9.135490E-1	9.184170E-1	9.181956E-1	8.991686E-1	9.361548E-1	8.946818E-1	8.932779E-1	9.216972E-1	9.290637E-1	9.169658E-1	9.062684E-1	9.342579E-1	9.010201E-1	9.525624E-1	9.740257E-1	9.335610E-1	9.749953E-1	9.434308E-1	9.572818E-1	9.174690E-1	9.190047E-1	9.070913E-1	9.253375E-1	9.062818E-1	9.146646E-1	9.008059E-1	9.091872E-1	9.778456E-1
5.427650E+2	9.617378E-1	9.638024E-1	9.493327E-1	9.699291E-1	9.706269E-1	1.000238E+0	9.599171E-1	9.543693E-1	9.757705E-1	9.761953E-1	9.539977E-1	1.011706E+0	9.308852E-1	9.670907E-1	9.830624E-1	9.491453E-1	9.985535E-1	9.606062E-1	9.928114E-1	9.854045E-1	9.692145E-1	9.598742E-1	1.003966E+0	9.534815E-1	1.002967E+0	9.741479E-1	9.751904E-1	9.708175E-1	9.961828E-1	9.728050E-1	9.643817E-1	9.451806E-1	1.011513E+0	9.785924E-1	9.874273E-1	9.479160E-1	9.782235E-1	9.632971E-1	1.035172E+0	9.796010E-1	9.863590E-1	9.565106E-1	9.638780E-1	1.022489E+0	9.828532E-1	9.662092E-1	1.003349E+0	9.617719E-1	9.630878E-1	9.284525E-1	9.648811E-1	9.902652E-1	9.761643E-1	9.318796E-1	1.018586E+0	9.735410E-1	9.813896E-1	9.867574E-1	9.664020E-1	9.588286E-1	9.819168E-1	9.744957E-1	9.729474E-1	9.636657E-1	1.007416E+0	9.585007E-1	9.899157E-1	1.011717E+0	1.034249E+0	9.922681E-1	9.641948E-1	9.471086E-1	1.034687E+0	9.622011E-1	9.977691E-1	9.817702E-1	9.735785E-1	9.629024E-1	1.020156E+0	9.772833E-1	1.026214E+0	9.937825E-1	9.292588E-1	1.053675E+0	1.027299E+0	9.673591E-1	9.933519E-1	1.011674E+0	9.385768E-1	9.560508E-1	9.314002E-1	9.816153E-1	9.886466E-1	9.324252E-1	9.889591E-1	1.006531E+0	1.037486E+0	9.671080E-1	9.703164E-1	9.443974E-1	9.574923E-1	1.015557E+0	9.608634E-1	9.961105E-1	9.748202E-1	9.850554E-1	1.017426E+0	9.345429E-1	9.883423E-1	9.975081E-1	9.485880E-1	9.640237E-1	1.040800E+0	9.317182E-1	1.011451E+0	9.602153E-1	9.878242E-1	9.845806E-1	9.348191E-1	9.752652E-1	9.746152E-1	9.787433E-1	9.864211E-1	9.978040E-1	9.900947E-1	9.552392E-1	9.446458E-1	9.517678E-1	9.831573E-1	9.668924E-1	9.752775E-1	9.680452E-1	9.581368E-1	1.002520E+0	1.040172E+0	1.021843E+0	9.908908E-1	1.005207E+0	9.605245E-1	9.921203E-1	9.940355E-1	9.300096E-1	9.759790E-1	9.295356E-1	9.783663E-1	9.961891E-1	9.645032E-1	1.000997E+0	9.950336E-1	9.751710E-1	9.636078E-1	9.796937E-1	9.243616E-1	9.966289E-1	9.920953E-1	9.521910E-1	9.359594E-1	9.608389E-1	9.624801E-1	9.723592E-1	9.749741E-1	9.622956E-1	1.024674E+0	9.827116E-1	9.404281E-1	1.017338E+0	9.818771E-1	1.001948E+0	9.281285E-1	8.816082E-1
5.430070E+2	1.087864E+0	1.127924E+0	1.145767E+0	1.128038E+0	1.120984E+0	1.089500E+0	1.096677E+0	1.150401E+0	1.142573E+0	1.079157E+0	1.070379E+0	1.090406E+0	1.081832E+0	1.082480E+0	1.091433E+0	1.132647E+0	1.155229E+0	1.106444E+0	1.109844E+0	1.075937E+0	1.090559E+0	1.093386E+0	1.076207E+0	1.071437E+0	1.120590E+0	1.080215E+0	1.092906E+0	1.099206E+0	1.103045E+0	1.085161E+0	1.085776E+0	1.137417E+0	1.166638E+0	1.092993E+0	1.160895E+0	1.079247E+0	1.119771E+0	1.083545E+0	1.124805E+0	1.171677E+0	1.103039E+0	1.102078E+0	1.078444E+0	1.121600E+0	1.127313E+0	1.092032E+0	1.116440E+0	1.134145E+0	1.133675E+0	1.046772E+0	1.099795E+0	1.149834E+0	1.098006E+0	1.105336E+0	1.088571E+0	1.112756E+0	1.103807E+0	1.053997E+0	1.122886E+0	1.084640E+0	1.101104E+0	1.071301E+0	1.106141E+0	1.117107E+0	1.110774E+0	1.091114E+0	1.082298E+0	1.095196E+0	1.136551E+0	1.090376E+0	1.109946E+0	1.060865E+0	1.106288E+0	1.059372E+0	1.083338E+0	1.112475E+0	1.052049E+0	1.064011E+0	1.105356E+0	1.061982E+0	1.114454E+0	1.101408E+0	1.093668E+0	1.141347E+0	1.136204E+0	1.124018E+0	1.134455E+0	1.128297E+0	1.069524E+0	1.106910E+0	1.087900E+0	1.050851E+0	1.118274E+0	1.051845E+0	1.080336E+0	1.137334E+0	1.107427E+0	1.155684E+0	1.103545E+0	1.058563E+0	1.044843E+0	1.083274E+0	1.100835E+0	1.172692E+0	1.065388E+0	1.113496E+0	1.108041E+0	1.107954E+0	1.047279E+0	1.086252E+0	1.073022E+0	1.079749E+0	1.145190E+0	1.052596E+0	1.182075E+0	1.080166E+0	1.114397E+0	1.120567E+0	1.115489E+0	1.060944E+0	1.121055E+0	1.070401E+0	1.138619E+0	1.098540E+0	1.151962E+0	1.119642E+0	1.080236E+0	1.080671E+0	1.112563E+0	1.080181E+0	1.082271E+0	1.112177E+0	1.096114E+0	1.100157E+0	1.094109E+0	1.120154E+0	1.080372E+0	1.112500E+0	1.107677E+0	1.073164E+0	1.114280E+0	1.067978E+0	1.081325E+0	1.082105E+0	1.097221E+0	1.100050E+0	1.104670E+0	1.083175E+0	1.100363E+0	1.095929E+0	1.087072E+0	1.078011E+0	1.084302E+0	1.099637E+0	1.056825E+0	1.105089E+0	1.107707E+0	1.059275E+0	1.038218E+0	1.122642E+0	1.079978E+0	1.094508E+0	1.043982E+0	1.063224E+0	1.115876E+0	1.166656E+0	1.060892E+0	1.164569E+0	1.099370E+0	1.054001E+0
5.433020E+2	1.253529E+0	1.291524E+0	1.267473E+0	1.294134E+0	1.243537E+0	1.285363E+0	1.303234E+0	1.290264E+0	1.248979E+0	1.270809E+0	1.264167E+0	1.237366E+0	1.216457E+0	1.268901E+0	1.279663E+0	1.291905E+0	1.325279E+0	1.260058E+0	1.218598E+0	1.259352E+0	1.285913E+0	1.265333E+0	1.301209E+0	1.264026E+0	1.365246E+0	1.283741E+0	1.227172E+0	1.258907E+0	1.272558E+0	1.289742E+0	1.299169E+0	1.306080E+0	1.298922E+0	1.299730E+0	1.340753E+0	1.247821E+0	1.277682E+0	1.229439E+0	1.320039E+0	1.270940E+0	1.287719E+0	1.262019E+0	1.311628E+0	1.300602E+0	1.242293E+0	1.242279E+0	1.278926E+0	1.249291E+0	1.249052E+0	1.278378E+0	1.282918E+0	1.315981E+0	1.236551E+0	1.166809E+0	1.270084E+0	1.257047E+0	1.272967E+0	1.233371E+0	1.345001E+0	1.250566E+0	1.284523E+0	1.278441E+0	1.229529E+0	1.284725E+0	1.264074E+0	1.267321E+0	1.260242E+0	1.346137E+0	1.268374E+0	1.239108E+0	1.261501E+0	1.244399E+0	1.250895E+0	1.246501E+0	1.229551E+0	1.263440E+0	1.303701E+0	1.223699E+0	1.269967E+0	1.291575E+0	1.222160E+0	1.287077E+0	1.295142E+0	1.311478E+0	1.279678E+0	1.266725E+0	1.272517E+0	1.283170E+0	1.262967E+0	1.266604E+0	1.237159E+0	1.260164E+0	1.298549E+0	1.258584E+0	1.209148E+0	1.247041E+0	1.323995E+0	1.309534E+0	1.307586E+0	1.226082E+0	1.263548E+0	1.314033E+0	1.287461E+0	1.280054E+0	1.304651E+0	1.238981E+0	1.244799E+0	1.254644E+0	1.262179E+0	1.248860E+0	1.273181E+0	1.201336E+0	1.257875E+0	1.241707E+0	1.278618E+0	1.237384E+0	1.225325E+0	1.283573E+0	1.272098E+0	1.281514E+0	1.268885E+0	1.245710E+0	1.261818E+0	1.293484E+0	1.249419E+0	1.307222E+0	1.260464E+0	1.279613E+0	1.275609E+0	1.295817E+0	1.263669E+0	1.254029E+0	1.203165E+0	1.273215E+0	1.305079E+0	1.281310E+0	1.251128E+0	1.286089E+0	1.240542E+0	1.234401E+0	1.236924E+0	1.194268E+0	1.265967E+0	1.232989E+0	1.245127E+0	1.258482E+0	1.265901E+0	1.301905E+0	1.291782E+0	1.222101E+0	1.234033E+0	1.222976E+0	1.256344E+0	1.229420E+0	1.222202E+0	1.274233E+0	1.208886E+0	1.225399E+0	1.242904E+0	1.258250E+0	1.259669E+0	1.298207E+0	1.289242E+0	1.247035E+0	1.272767E+0	1.264781E+0	1.241353E+0	1.254775E+0	1.253708E+0	1.281923E+0
5.435270E+2	1.381226E+0	1.398160E+0	1.414727E+0	1.393746E+0	1.432053E+0	1.466570E+0	1.390245E+0	1.404287E+0	1.431115E+0	1.387740E+0	1.376835E+0	1.438797E+0	1.435144E+0	1.439345E+0	1.373013E+0	1.384009E+0	1.414612E+0	1.392053E+0	1.404925E+0	1.376277E+0	1.388588E+0	1.398419E+0	1.410886E+0	1.380380E+0	1.422566E+0	1.434422E+0	1.430481E+0	1.426180E+0	1.384866E+0	1.383046E+0	1.397529E+0	1.456521E+0	1.409809E+0	1.410957E+0	1.459085E+0	1.367419E+0	1.428358E+0	1.413984E+0	1.480233E+0	1.364506E+0	1.393562E+0	1.412337E+0	1.355384E+0	1.386084E+0	1.388143E+0	1.402318E+0	1.391506E+0	1.382030E+0	1.390287E+0	1.438904E+0	1.420202E+0	1.396834E+0	1.344369E+0	1.412406E+0	1.384274E+0	1.393907E+0	1.342664E+0	1.387124E+0	1.388722E+0	1.420758E+0	1.376108E+0	1.392711E+0	1.440752E+0	1.350467E+0	1.411976E+0	1.393339E+0	1.426434E+0	1.401331E+0	1.430484E+0	1.358999E+0	1.403156E+0	1.363646E+0	1.384173E+0	1.341222E+0	1.401098E+0	1.386763E+0	1.367383E+0	1.411704E+0	1.357899E+0	1.396966E+0	1.390282E+0	1.402319E+0	1.404266E+0	1.387456E+0	1.387269E+0	1.375868E+0	1.364731E+0	1.408461E+0	1.376813E+0	1.384479E+0	1.413544E+0	1.432985E+0	1.416142E+0	1.321012E+0	1.356348E+0	1.375296E+0	1.430675E+0	1.378629E+0	1.348456E+0	1.359236E+0	1.402456E+0	1.380115E+0	1.407425E+0	1.405403E+0	1.360851E+0	1.373682E+0	1.410649E+0	1.412785E+0	1.387021E+0	1.382363E+0	1.354721E+0	1.386098E+0	1.407586E+0	1.366510E+0	1.453734E+0	1.372082E+0	1.391382E+0	1.404604E+0	1.418432E+0	1.392491E+0	1.470592E+0	1.373342E+0	1.408159E+0	1.376358E+0	1.373855E+0	1.408510E+0	1.351931E+0	1.405097E+0	1.443831E+0	1.391603E+0	1.347500E+0	1.408246E+0	1.479592E+0	1.431585E+0	1.360702E+0	1.380494E+0	1.380847E+0	1.412007E+0	1.426323E+0	1.436969E+0	1.356790E+0	1.362316E+0	1.355519E+0	1.384129E+0	1.366307E+0	1.391495E+0	1.392430E+0	1.363565E+0	1.384962E+0	1.392423E+0	1.373919E+0	1.412437E+0	1.422123E+0	1.376576E+0	1.367097E+0	1.381791E+0	1.364783E+0	1.379815E+0	1.337540E+0	1.371028E+0	1.389964E+0	1.400309E+0	1.408840E+0	1.376907E+0	1.437834E+0	1.387414E+0	1.418805E+0	1.357976E+0	1.391349E+0	1.376460E+0
5.437690E+2	1.489980E+0	1.500825E+0	1.516814E+0	1.516806E+0	1.499097E+0	1.530349E+0	1.487368E+0	1.515565E+0	1.510537E+0	1.473512E+0	1.512186E+0	1.506028E+0	1.504873E+0	1.483244E+0	1.491599E+0	1.517895E+0	1.521056E+0	1.494850E+0	1.526307E+0	1.474714E+0	1.459483E+0	1.497078E+0	1.595648E+0	1.501914E+0	1.507060E+0	1.593969E+0	1.500648E+0	1.436200E+0	1.495789E+0	1.490118E+0	1.504595E+0	1.536003E+0	1.467854E+0	1.480095E+0	1.617532E+0	1.473368E+0	1.532334E+0	1.525720E+0	1.514270E+0	1.455536E+0	1.563103E+0	1.491362E+0	1.490782E+0	1.507859E+0	1.482272E+0	1.491903E+0	1.544482E+0	1.506961E+0	1.499004E+0	1.523442E+0	1.503575E+0	1.507391E+0	1.492599E+0	1.505402E+0	1.494441E+0	1.529114E+0	1.468823E+0	1.475315E+0	1.529386E+0	1.567175E+0	1.495686E+0	1.465996E+0	1.491797E+0	1.443223E+0	1.507948E+0	1.497544E+0	1.452781E+0	1.514256E+0	1.486505E+0	1.482084E+0	1.499182E+0	1.473475E+0	1.497293E+0	1.486230E+0	1.492728E+0	1.478741E+0	1.464978E+0	1.467850E+0	1.494198E+0	1.463455E+0	1.533824E+0	1.552622E+0	1.495878E+0	1.539934E+0	1.474490E+0	1.518622E+0	1.495649E+0	1.484365E+0	1.482467E+0	1.505215E+0	1.425858E+0	1.459121E+0	1.440705E+0	1.446584E+0	1.490205E+0	1.475537E+0	1.470148E+0	1.540845E+0	1.522304E+0	1.503969E+0	1.485640E+0	1.523732E+0	1.515333E+0	1.543732E+0	1.517875E+0	1.423158E+0	1.472931E+0	1.451279E+0	1.538362E+0	1.470098E+0	1.512412E+0	1.504884E+0	1.486331E+0	1.462781E+0	1.549387E+0	1.514251E+0	1.491878E+0	1.504870E+0	1.493871E+0	1.530717E+0	1.451846E+0	1.518905E+0	1.471792E+0	1.478774E+0	1.488468E+0	1.453267E+0	1.449188E+0	1.443041E+0	1.483466E+0	1.503126E+0	1.469900E+0	1.419898E+0	1.498762E+0	1.531417E+0	1.476393E+0	1.524234E+0	1.504191E+0	1.499794E+0	1.452138E+0	1.457285E+0	1.439131E+0	1.493299E+0	1.468924E+0	1.433880E+0	1.477618E+0	1.448668E+0	1.490756E+0	1.554770E+0	1.485840E+0	1.476592E+0	1.466233E+0	1.463800E+0	1.467131E+0	1.519181E+0	1.493486E+0	1.471500E+0	1.451948E+0	1.466804E+0	1.464238E+0	1.473181E+0	1.461861E+0	1.499780E+0	1.502885E+0	1.527255E+0	1.508116E+0	1.449273E+0	1.496013E+0	1.475829E+0	1.433558E+0	1.547224E+0
5.440170E+2	1.565541E+0	1.553684E+0	1.582655E+0	1.601205E+0	1.549318E+0	1.592499E+0	1.564197E+0	1.583327E+0	1.542718E+0	1.482394E+0	1.574058E+0	1.556150E+0	1.561840E+0	1.638350E+0	1.549112E+0	1.588235E+0	1.531013E+0	1.564169E+0	1.574109E+0	1.532698E+0	1.591160E+0	1.614327E+0	1.571022E+0	1.540467E+0	1.633691E+0	1.610964E+0	1.532000E+0	1.558173E+0	1.578022E+0	1.588861E+0	1.533994E+0	1.548287E+0	1.513654E+0	1.535614E+0	1.627374E+0	1.561864E+0	1.566811E+0	1.565598E+0	1.565378E+0	1.567686E+0	1.556203E+0	1.614995E+0	1.585548E+0	1.581923E+0	1.611800E+0	1.596496E+0	1.559210E+0	1.515053E+0	1.562314E+0	1.607546E+0	1.607710E+0	1.557796E+0	1.596494E+0	1.518824E+0	1.608331E+0	1.486750E+0	1.511082E+0	1.519246E+0	1.598233E+0	1.563872E+0	1.582329E+0	1.478114E+0	1.564220E+0	1.530723E+0	1.547373E+0	1.591439E+0	1.563658E+0	1.553984E+0	1.555429E+0	1.516724E+0	1.521149E+0	1.581826E+0	1.555288E+0	1.526584E+0	1.553853E+0	1.618744E+0	1.549057E+0	1.519027E+0	1.582430E+0	1.552565E+0	1.562209E+0	1.582964E+0	1.586806E+0	1.532962E+0	1.544679E+0	1.551008E+0	1.543714E+0	1.559519E+0	1.551336E+0	1.570013E+0	1.503281E+0	1.566305E+0	1.610207E+0	1.505869E+0	1.594972E+0	1.526321E+0	1.569988E+0	1.534282E+0	1.573180E+0	1.499897E+0	1.505462E+0	1.560057E+0	1.533749E+0	1.570433E+0	1.491569E+0	1.527592E+0	1.527242E+0	1.541131E+0	1.536538E+0	1.507932E+0	1.565690E+0	1.571546E+0	1.533996E+0	1.554083E+0	1.585959E+0	1.571105E+0	1.547491E+0	1.614643E+0	1.543435E+0	1.552265E+0	1.511676E+0	1.490471E+0	1.588631E+0	1.573773E+0	1.532023E+0	1.497960E+0	1.568779E+0	1.534853E+0	1.574526E+0	1.505132E+0	1.559066E+0	1.537542E+0	1.549495E+0	1.577062E+0	1.535672E+0	1.519537E+0	1.545390E+0	1.519067E+0	1.469925E+0	1.510939E+0	1.536118E+0	1.571649E+0	1.559078E+0	1.530907E+0	1.561846E+0	1.530170E+0	1.480315E+0	1.515257E+0	1.550708E+0	1.558566E+0	1.508856E+0	1.556320E+0	1.553491E+0	1.508080E+0	1.525154E+0	1.507399E+0	1.493910E+0	1.526124E+0	1.494027E+0	1.559306E+0	1.553439E+0	1.495640E+0	1.542307E+0	1.463029E+0	1.531552E+0	1.563110E+0	1.529529E+0	1.473383E+0	1.581230E+0	1.495344E+0
5.442810E+2	1.567967E+0	1.585143E+0	1.601264E+0	1.517764E+0	1.542777E+0	1.591780E+0	1.572677E+0	1.622715E+0	1.519239E+0	1.513195E+0	1.532027E+0	1.566491E+0	1.528089E+0	1.557488E+0	1.525056E+0	1.575302E+0	1.549277E+0	1.523706E+0	1.575740E+0	1.517577E+0	1.534531E+0	1.548010E+0	1.569726E+0	1.553146E+0	1.533374E+0	1.563914E+0	1.550293E+0	1.540792E+0	1.515013E+0	1.631831E+0	1.529098E+0	1.518687E+0	1.537470E+0	1.537965E+0	1.579747E+0	1.547666E+0	1.488067E+0	1.578438E+0	1.606018E+0	1.554370E+0	1.548302E+0	1.534178E+0	1.504853E+0	1.591212E+0	1.554244E+0	1.528659E+0	1.536626E+0	1.519681E+0	1.600501E+0	1.530261E+0	1.591198E+0	1.544802E+0	1.534294E+0	1.557450E+0	1.605295E+0	1.565311E+0	1.523334E+0	1.555892E+0	1.554136E+0	1.522924E+0	1.505340E+0	1.542454E+0	1.558937E+0	1.557800E+0	1.516595E+0	1.575122E+0	1.514770E+0	1.585498E+0	1.566452E+0	1.537055E+0	1.531209E+0	1.496421E+0	1.508539E+0	1.483009E+0	1.584946E+0	1.581122E+0	1.556703E+0	1.540991E+0	1.525672E+0	1.561790E+0	1.574740E+0	1.531189E+0	1.553691E+0	1.534675E+0	1.475149E+0	1.587389E+0	1.506643E+0	1.522883E+0	1.546585E+0	1.629344E+0	1.516789E+0	1.536241E+0	1.515539E+0	1.489310E+0	1.498678E+0	1.484537E+0	1.549650E+0	1.508377E+0	1.528733E+0	1.540032E+0	1.500132E+0	1.513275E+0	1.595341E+0	1.626613E+0	1.542862E+0	1.545086E+0	1.498935E+0	1.505871E+0	1.535924E+0	1.543705E+0	1.490137E+0	1.541170E+0	1.525330E+0	1.528215E+0	1.559216E+0	1.541721E+0	1.516749E+0	1.532685E+0	1.525574E+0	1.568207E+0	1.548130E+0	1.522000E+0	1.487614E+0	1.516026E+0	1.522400E+0	1.452939E+0	1.509806E+0	1.542412E+0	1.617033E+0	1.554157E+0	1.467002E+0	1.569805E+0	1.547082E+0	1.563522E+0	1.591223E+0	1.499116E+0	1.534751E+0	1.513437E+0	1.512892E+0	1.479534E+0	1.489847E+0	1.549879E+0	1.502092E+0	1.506707E+0	1.528025E+0	1.518043E+0	1.523999E+0	1.515746E+0	1.520761E+0	1.550228E+0	1.521594E+0	1.529831E+0	1.500751E+0	1.526306E+0	1.576277E+0	1.509701E+0	1.417042E+0	1.502575E+0	1.554258E+0	1.492226E+0	1.577348E+0	1.538793E+0	1.540995E+0	1.496544E+0	1.516123E+0	1.517263E+0	1.510317E+0	1.536865E+0	1.524955E+0	1.466557E+0
5.445240E+2	1.510036E+0	1.476415E+0	1.506612E+0	1.501722E+0	1.497792E+0	1.543076E+0	1.540586E+0	1.517283E+0	1.422563E+0	1.517415E+0	1.503417E+0	1.430027E+0	1.482812E+0	1.475210E+0	1.517303E+0	1.530092E+0	1.542688E+0	1.412848E+0	1.475178E+0	1.495710E+0	1.529564E+0	1.575693E+0	1.509313E+0	1.476936E+0	1.493389E+0	1.507673E+0	1.473915E+0	1.525834E+0	1.552606E+0	1.477731E+0	1.491108E+0	1.547901E+0	1.498822E+0	1.518769E+0	1.525172E+0	1.475861E+0	1.516895E+0	1.514659E+0	1.485787E+0	1.468833E+0	1.500177E+0	1.522434E+0	1.481619E+0	1.502345E+0	1.466678E+0	1.550231E+0	1.479900E+0	1.474811E+0	1.505352E+0	1.502508E+0	1.546799E+0	1.503424E+0	1.489428E+0	1.548025E+0	1.493349E+0	1.510652E+0	1.506235E+0	1.468260E+0	1.500839E+0	1.489745E+0	1.443265E+0	1.487065E+0	1.466485E+0	1.453767E+0	1.493715E+0	1.506901E+0	1.527646E+0	1.510944E+0	1.473045E+0	1.485727E+0	1.450556E+0	1.489239E+0	1.479816E+0	1.456394E+0	1.551336E+0	1.492024E+0	1.462260E+0	1.456944E+0	1.475918E+0	1.515558E+0	1.461167E+0	1.556877E+0	1.435099E+0	1.490890E+0	1.485923E+0	1.453870E+0	1.498712E+0	1.511151E+0	1.513007E+0	1.511472E+0	1.490034E+0	1.432507E+0	1.538636E+0	1.478096E+0	1.528370E+0	1.476273E+0	1.475659E+0	1.535202E+0	1.489732E+0	1.432703E+0	1.490299E+0	1.446742E+0	1.458380E+0	1.524262E+0	1.516028E+0	1.478296E+0	1.468238E+0	1.503006E+0	1.490885E+0	1.495094E+0	1.487897E+0	1.471519E+0	1.520584E+0	1.491502E+0	1.517080E+0	1.503361E+0	1.509064E+0	1.533342E+0	1.452542E+0	1.464934E+0	1.496585E+0	1.451168E+0	1.490275E+0	1.484811E+0	1.462776E+0	1.447800E+0	1.455950E+0	1.462320E+0	1.523549E+0	1.530909E+0	1.492733E+0	1.527611E+0	1.464147E+0	1.518637E+0	1.486595E+0	1.490319E+0	1.499567E+0	1.509313E+0	1.540752E+0	1.455656E+0	1.460370E+0	1.433951E+0	1.467479E+0	1.420185E+0	1.502514E+0	1.515331E+0	1.501684E+0	1.467426E+0	1.512922E+0	1.504154E+0	1.483227E+0	1.456451E+0	1.445896E+0	1.493188E+0	1.479595E+0	1.475737E+0	1.502542E+0	1.486177E+0	1.447061E+0	1.471152E+0	1.494896E+0	1.449623E+0	1.488170E+0	1.488788E+0	1.427772E+0	1.492796E+0	1.466496E+0	1.467272E+0	1.369664E+0	1.505618E+0
5.447720E+2	1.402211E+0	1.400539E+0	1.460992E+0	1.418435E+0	1.399361E+0	1.457410E+0	1.461104E+0	1.447106E+0	1.386007E+0	1.407529E+0	1.454753E+0	1.412633E+0	1.397865E+0	1.363693E+0	1.425004E+0	1.442179E+0	1.451017E+0	1.416681E+0	1.513982E+0	1.427351E+0	1.442541E+0	1.447433E+0	1.412803E+0	1.408704E+0	1.407752E+0	1.409948E+0	1.435985E+0	1.407756E+0	1.439010E+0	1.372442E+0	1.388355E+0	1.423218E+0	1.419231E+0	1.434284E+0	1.453404E+0	1.445044E+0	1.440713E+0	1.409826E+0	1.474961E+0	1.427230E+0	1.427796E+0	1.478529E+0	1.437028E+0	1.443546E+0	1.417473E+0	1.373652E+0	1.429349E+0	1.389330E+0	1.402785E+0	1.367924E+0	1.454112E+0	1.398939E+0	1.392538E+0	1.381187E+0	1.401381E+0	1.429594E+0	1.419770E+0	1.410790E+0	1.476653E+0	1.410001E+0	1.453157E+0	1.389739E+0	1.419596E+0	1.384021E+0	1.333925E+0	1.454627E+0	1.387654E+0	1.425951E+0	1.425297E+0	1.411628E+0	1.385967E+0	1.394851E+0	1.379293E+0	1.416102E+0	1.398318E+0	1.430004E+0	1.352360E+0	1.372416E+0	1.410319E+0	1.431415E+0	1.411058E+0	1.442282E+0	1.405290E+0	1.475389E+0	1.415560E+0	1.428883E+0	1.385262E+0	1.456956E+0	1.380893E+0	1.383814E+0	1.444946E+0	1.417782E+0	1.408403E+0	1.325660E+0	1.394878E+0	1.438426E+0	1.425756E+0	1.420907E+0	1.448876E+0	1.372238E+0	1.381772E+0	1.459729E+0	1.430685E+0	1.476643E+0	1.415659E+0	1.412859E+0	1.428273E+0	1.392350E+0	1.381021E+0	1.384178E+0	1.404736E+0	1.396631E+0	1.356562E+0	1.369435E+0	1.422291E+0	1.441759E+0	1.445537E+0	1.388154E+0	1.356604E+0	1.401365E+0	1.407880E+0	1.433684E+0	1.378733E+0	1.439472E+0	1.399217E+0	1.397617E+0	1.416590E+0	1.410226E+0	1.403063E+0	1.427363E+0	1.374878E+0	1.401335E+0	1.375032E+0	1.474958E+0	1.461426E+0	1.439034E+0	1.384448E+0	1.448488E+0	1.408753E+0	1.365907E+0	1.381045E+0	1.411491E+0	1.416041E+0	1.365303E+0	1.416452E+0	1.398889E+0	1.436472E+0	1.359611E+0	1.401117E+0	1.457485E+0	1.369141E+0	1.441071E+0	1.328476E+0	1.347425E+0	1.416167E+0	1.319891E+0	1.369063E+0	1.353561E+0	1.433457E+0	1.369333E+0	1.403705E+0	1.431476E+0	1.403370E+0	1.428345E+0	1.377854E+0	1.386322E+0	1.389043E+0	1.460053E+0	1.384959E+0	1.349499E+0
5.450150E+2	1.324951E+0	1.362193E+0	1.322580E+0	1.340049E+0	1.355726E+0	1.318684E+0	1.335367E+0	1.325546E+0	1.290042E+0	1.348736E+0	1.357035E+0	1.359260E+0	1.363048E+0	1.360227E+0	1.295018E+0	1.339977E+0	1.358314E+0	1.373941E+0	1.363851E+0	1.373262E+0	1.340411E+0	1.337051E+0	1.355465E+0	1.382408E+0	1.338035E+0	1.392422E+0	1.363004E+0	1.356376E+0	1.336949E+0	1.377964E+0	1.322314E+0	1.338696E+0	1.317041E+0	1.334423E+0	1.358189E+0	1.343005E+0	1.336644E+0	1.352042E+0	1.335709E+0	1.303353E+0	1.319579E+0	1.345085E+0	1.304771E+0	1.402215E+0	1.334840E+0	1.308811E+0	1.374779E+0	1.321452E+0	1.324268E+0	1.339877E+0	1.350724E+0	1.304146E+0	1.327548E+0	1.347123E+0	1.318150E+0	1.327672E+0	1.384458E+0	1.324653E+0	1.321172E+0	1.382862E+0	1.310111E+0	1.283955E+0	1.326115E+0	1.343010E+0	1.265137E+0	1.334095E+0	1.335874E+0	1.308188E+0	1.323304E+0	1.327096E+0	1.344497E+0	1.331913E+0	1.330322E+0	1.311484E+0	1.316477E+0	1.311076E+0	1.330643E+0	1.311410E+0	1.364926E+0	1.332190E+0	1.322814E+0	1.314457E+0	1.346267E+0	1.372691E+0	1.389155E+0	1.324435E+0	1.284922E+0	1.313176E+0	1.326691E+0	1.338619E+0	1.308596E+0	1.261735E+0	1.334357E+0	1.250738E+0	1.274194E+0	1.341856E+0	1.326653E+0	1.355468E+0	1.315146E+0	1.328402E+0	1.363433E+0	1.333853E+0	1.310963E+0	1.375028E+0	1.375177E+0	1.295022E+0	1.331434E+0	1.342406E+0	1.315945E+0	1.371962E+0	1.343532E+0	1.372737E+0	1.378095E+0	1.322680E+0	1.372691E+0	1.346308E+0	1.348585E+0	1.343267E+0	1.319824E+0	1.333644E+0	1.343732E+0	1.338122E+0	1.327630E+0	1.339985E+0	1.343162E+0	1.350470E+0	1.362885E+0	1.390765E+0	1.324088E+0	1.368390E+0	1.349607E+0	1.355018E+0	1.319769E+0	1.363643E+0	1.290276E+0	1.334873E+0	1.308312E+0	1.328169E+0	1.316285E+0	1.322312E+0	1.348494E+0	1.334049E+0	1.302535E+0	1.311752E+0	1.284400E+0	1.333935E+0	1.354950E+0	1.364245E+0	1.361165E+0	1.377297E+0	1.315525E+0	1.360174E+0	1.275061E+0	1.360734E+0	1.286166E+0	1.250862E+0	1.320906E+0	1.315565E+0	1.343186E+0	1.325527E+0	1.346730E+0	1.311890E+0	1.266112E+0	1.318853E+0	1.315249E+0	1.337745E+0	1.314082E+0	1.337873E+0	1.298702E+0	1.314151E+0
5.452800E+2	1.234666E+0	1.281449E+0	1.274090E+0	1.245569E+0	1.227358E+0	1.295875E+0	1.312359E+0	1.239012E+0	1.277664E+0	1.274370E+0	1.274332E+0	1.281284E+0	1.302728E+0	1.265623E+0	1.241411E+0	1.274725E+0	1.280177E+0	1.284976E+0	1.255275E+0	1.286027E+0	1.241473E+0	1.262792E+0	1.272913E+0	1.291205E+0	1.230867E+0	1.285694E+0	1.302730E+0	1.275323E+0	1.245978E+0	1.246365E+0	1.277796E+0	1.312982E+0	1.293084E+0	1.263737E+0	1.258336E+0	1.265363E+0	1.262337E+0	1.304959E+0	1.279936E+0	1.242217E+0	1.255661E+0	1.269615E+0	1.252432E+0	1.292857E+0	1.228834E+0	1.264841E+0	1.255571E+0	1.256034E+0	1.285523E+0	1.262846E+0	1.266880E+0	1.248501E+0	1.248383E+0	1.285950E+0	1.265064E+0	1.253242E+0	1.221638E+0	1.268311E+0	1.296385E+0	1.239623E+0	1.245295E+0	1.235090E+0	1.237125E+0	1.245285E+0	1.291211E+0	1.303832E+0	1.246580E+0	1.354382E+0	1.282076E+0	1.200664E+0	1.284203E+0	1.233103E+0	1.264518E+0	1.256672E+0	1.276280E+0	1.254937E+0	1.260431E+0	1.257462E+0	1.257845E+0	1.302354E+0	1.306213E+0	1.278104E+0	1.267550E+0	1.273132E+0	1.235685E+0	1.299378E+0	1.257623E+0	1.267069E+0	1.215161E+0	1.258941E+0	1.246995E+0	1.268356E+0	1.264354E+0	1.198433E+0	1.257780E+0	1.265911E+0	1.258298E+0	1.251407E+0	1.280588E+0	1.247752E+0	1.276409E+0	1.259879E+0	1.234732E+0	1.275115E+0	1.257473E+0	1.247950E+0	1.263928E+0	1.256990E+0	1.222230E+0	1.245661E+0	1.274407E+0	1.264314E+0	1.240309E+0	1.270728E+0	1.249474E+0	1.271912E+0	1.228855E+0	1.301329E+0	1.254082E+0	1.274173E+0	1.294186E+0	1.252511E+0	1.220331E+0	1.275948E+0	1.265258E+0	1.268087E+0	1.294338E+0	1.223760E+0	1.253330E+0	1.264502E+0	1.228109E+0	1.254878E+0	1.261654E+0	1.306751E+0	1.271518E+0	1.273040E+0	1.234837E+0	1.258179E+0	1.274605E+0	1.251158E+0	1.206953E+0	1.258755E+0	1.240372E+0	1.239963E+0	1.198014E+0	1.237828E+0	1.265231E+0	1.254153E+0	1.310234E+0	1.274514E+0	1.243924E+0	1.277832E+0	1.262871E+0	1.259580E+0	1.283863E+0	1.265668E+0	1.249984E+0	1.259344E+0	1.223559E+0	1.222828E+0	1.220772E+0	1.286030E+0	1.186430E+0	1.287260E+0	1.224894E+0	1.304023E+0	1.301041E+0	1.240010E+0	1.218702E+0	1.203707E+0
5.455500E+2	1.199455E+0	1.209091E+0	1.182444E+0	1.196618E+0	1.229583E+0	1.248344E+0	1.238540E+0	1.229081E+0	1.194256E+0	1.201710E+0	1.239028E+0	1.238383E+0	1.238888E+0	1.198621E+0	1.233593E+0	1.284735E+0	1.239274E+0	1.205174E+0	1.255061E+0	1.195175E+0	1.199061E+0	1.195793E+0	1.202866E+0	1.232030E+0	1.250911E+0	1.231976E+0	1.242838E+0	1.225879E+0	1.180506E+0	1.235052E+0	1.187487E+0	1.208462E+0	1.202443E+0	1.168974E+0	1.219138E+0	1.221296E+0	1.221715E+0	1.199923E+0	1.288339E+0	1.237929E+0	1.204748E+0	1.235937E+0	1.207439E+0	1.237739E+0	1.252266E+0	1.184226E+0	1.241506E+0	1.248439E+0	1.215099E+0	1.285970E+0	1.247441E+0	1.223526E+0	1.197129E+0	1.223299E+0	1.182166E+0	1.211815E+0	1.172955E+0	1.186305E+0	1.221759E+0	1.227977E+0	1.199153E+0	1.229315E+0	1.199046E+0	1.208488E+0	1.212148E+0	1.218437E+0	1.222896E+0	1.247606E+0	1.191247E+0	1.230041E+0	1.222168E+0	1.221532E+0	1.211032E+0	1.169678E+0	1.258826E+0	1.211968E+0	1.219227E+0	1.231286E+0	1.179322E+0	1.253448E+0	1.215248E+0	1.226928E+0	1.241396E+0	1.251479E+0	1.230865E+0	1.212917E+0	1.162616E+0	1.220954E+0	1.207490E+0	1.204107E+0	1.215067E+0	1.152902E+0	1.221226E+0	1.165884E+0	1.245166E+0	1.232145E+0	1.247139E+0	1.231742E+0	1.215359E+0	1.186810E+0	1.188920E+0	1.286250E+0	1.260671E+0	1.255586E+0	1.194886E+0	1.231280E+0	1.186330E+0	1.232545E+0	1.240109E+0	1.202062E+0	1.237595E+0	1.161977E+0	1.179948E+0	1.202218E+0	1.253384E+0	1.187620E+0	1.212744E+0	1.203609E+0	1.193219E+0	1.236980E+0	1.246128E+0	1.201453E+0	1.212706E+0	1.252455E+0	1.224732E+0	1.212322E+0	1.184397E+0	1.193574E+0	1.212947E+0	1.210150E+0	1.217163E+0	1.223838E+0	1.189462E+0	1.220533E+0	1.220848E+0	1.238918E+0	1.231487E+0	1.240644E+0	1.219423E+0	1.207929E+0	1.212946E+0	1.144932E+0	1.199437E+0	1.209876E+0	1.189162E+0	1.219037E+0	1.232122E+0	1.230542E+0	1.218406E+0	1.236401E+0	1.161168E+0	1.247794E+0	1.218617E+0	1.229941E+0	1.217412E+0	1.203277E+0	1.201514E+0	1.197288E+0	1.207582E+0	1.197903E+0	1.195387E+0	1.225581E+0	1.224941E+0	1.211963E+0	1.182518E+0	1.217150E+0	1.191860E+0	1.246570E+0	1.163096E+0	1.175554E+0
5.457720E+2	1.209160E+0	1.204321E+0	1.221620E+0	1.220124E+0	1.189667E+0	1.202697E+0	1.205160E+0	1.152520E+0	1.152008E+0	1.152669E+0	1.155693E+0	1.203868E+0	1.191145E+0	1.165567E+0	1.187017E+0	1.178097E+0	1.168780E+0	1.143742E+0	1.210233E+0	1.150428E+0	1.210239E+0	1.199265E+0	1.162671E+0	1.207380E+0	1.143374E+0	1.234644E+0	1.228963E+0	1.166821E+0	1.222004E+0	1.212557E+0	1.107210E+0	1.146585E+0	1.179301E+0	1.154483E+0	1.167989E+0	1.165837E+0	1.193860E+0	1.184508E+0	1.167974E+0	1.166952E+0	1.154480E+0	1.190616E+0	1.202213E+0	1.173546E+0	1.145220E+0	1.164904E+0	1.153955E+0	1.169083E+0	1.124082E+0	1.159386E+0	1.163196E+0	1.207115E+0	1.133165E+0	1.169261E+0	1.233831E+0	1.164603E+0	1.166112E+0	1.182888E+0	1.220637E+0	1.190111E+0	1.231808E+0	1.147839E+0	1.177401E+0	1.158457E+0	1.143911E+0	1.181453E+0	1.178403E+0	1.225769E+0	1.191619E+0	1.208467E+0	1.174074E+0	1.186811E+0	1.171281E+0	1.129558E+0	1.160513E+0	1.206439E+0	1.156963E+0	1.194300E+0	1.170671E+0	1.202807E+0	1.201951E+0	1.139504E+0	1.182123E+0	1.195654E+0	1.159092E+0	1.143560E+0	1.214381E+0	1.201522E+0	1.227101E+0	1.211244E+0	1.154679E+0	1.142631E+0	1.161855E+0	1.122549E+0	1.135589E+0	1.196456E+0	1.190788E+0	1.193326E+0	1.213130E+0	1.160485E+0	1.140265E+0	1.179073E+0	1.217236E+0	1.198750E+0	1.192499E+0	1.129253E+0	1.218238E+0	1.179886E+0	1.210568E+0	1.159481E+0	1.214729E+0	1.187105E+0	1.185110E+0	1.217726E+0	1.173249E+0	1.199486E+0	1.155800E+0	1.178329E+0	1.158525E+0	1.169231E+0	1.189948E+0	1.188000E+0	1.139538E+0	1.191592E+0	1.144240E+0	1.149549E+0	1.170461E+0	1.177839E+0	1.133458E+0	1.178393E+0	1.181993E+0	1.214492E+0	1.140711E+0	1.190988E+0	1.244259E+0	1.174229E+0	1.189764E+0	1.165745E+0	1.190767E+0	1.209335E+0	1.130393E+0	1.188299E+0	1.163090E+0	1.135894E+0	1.155404E+0	1.170554E+0	1.142240E+0	1.157182E+0	1.161598E+0	1.168406E+0	1.192474E+0	1.205837E+0	1.169300E+0	1.181823E+0	1.163110E+0	1.148047E+0	1.145824E+0	1.127395E+0	1.175756E+0	1.153597E+0	1.171007E+0	1.158863E+0	1.191759E+0	1.137340E+0	1.176858E+0	1.219325E+0	1.215912E+0	1.157742E+0	1.133605E+0	1.179394E+0
5.460160E+2	1.137607E+0	1.113142E+0	1.150190E+0	1.139724E+0	1.112708E+0	1.120390E+0	1.188641E+0	1.159650E+0	1.122532E+0	1.113452E+0	1.143184E+0	1.123032E+0	1.097456E+0	1.123902E+0	1.188614E+0	1.180984E+0	1.177992E+0	1.067546E+0	1.193406E+0	1.136615E+0	1.126739E+0	1.146380E+0	1.175789E+0	1.107280E+0	1.147989E+0	1.175816E+0	1.142413E+0	1.159276E+0	1.124985E+0	1.213379E+0	1.126173E+0	1.153652E+0	1.170823E+0	1.058098E+0	1.188989E+0	1.136667E+0	1.135091E+0	1.121451E+0	1.166781E+0	1.147751E+0	1.128991E+0	1.127981E+0	1.142356E+0	1.153548E+0	1.144474E+0	1.141907E+0	1.129510E+0	1.133398E+0	1.176115E+0	1.114090E+0	1.179753E+0	1.135017E+0	1.112917E+0	1.143945E+0	1.151287E+0	1.146585E+0	1.136988E+0	1.130877E+0	1.133164E+0	1.177475E+0	1.104616E+0	1.101068E+0	1.122468E+0	1.106451E+0	1.172198E+0	1.170751E+0	1.115490E+0	1.128021E+0	1.129064E+0	1.189100E+0	1.139071E+0	1.123518E+0	1.157856E+0	1.101240E+0	1.117006E+0	1.106846E+0	1.117032E+0	1.105379E+0	1.113565E+0	1.138312E+0	1.099177E+0	1.187817E+0	1.150205E+0	1.188477E+0	1.173697E+0	1.154984E+0	1.212754E+0	1.173031E+0	1.150266E+0	1.144311E+0	1.126041E+0	1.124110E+0	1.128474E+0	1.114686E+0	1.088835E+0	1.131690E+0	1.115155E+0	1.175365E+0	1.126373E+0	1.097807E+0	1.123149E+0	1.153589E+0	1.165493E+0	1.090234E+0	1.120046E+0	1.129557E+0	1.151226E+0	1.115150E+0	1.134198E+0	1.116595E+0	1.128708E+0	1.148540E+0	1.202731E+0	1.105292E+0	1.154607E+0	1.168367E+0	1.147414E+0	1.168227E+0	1.129623E+0	1.134110E+0	1.125877E+0	1.139607E+0	1.106684E+0	1.117693E+0	1.128355E+0	1.143377E+0	1.133436E+0	1.155966E+0	1.180204E+0	1.124163E+0	1.180692E+0	1.165797E+0	1.115414E+0	1.146771E+0	1.127172E+0	1.142402E+0	1.154347E+0	1.161868E+0	1.148579E+0	1.116064E+0	1.122080E+0	1.145228E+0	1.112986E+0	1.127406E+0	1.111825E+0	1.147824E+0	1.128884E+0	1.107084E+0	1.103618E+0	1.122851E+0	1.138814E+0	1.160224E+0	1.150769E+0	1.162482E+0	1.189031E+0	1.097032E+0	1.108589E+0	1.141831E+0	1.169140E+0	1.128479E+0	1.124501E+0	1.078836E+0	1.157569E+0	1.110048E+0	1.206296E+0	1.155055E+0	1.071441E+0	1.138318E+0	1.098097E+0	1.138012E+0
5.467710E+2	1.233731E+0	1.192562E+0	1.225765E+0	1.213365E+0	1.170974E+0	1.226133E+0	1.261222E+0	1.239166E+0	1.226215E+0	1.189254E+0	1.166666E+0	1.180485E+0	1.199745E+0	1.188504E+0	1.218564E+0	1.235321E+0	1.209348E+0	1.169071E+0	1.223377E+0	1.197629E+0	1.196237E+0	1.222909E+0	1.262697E+0	1.182091E+0	1.192715E+0	1.230063E+0	1.182484E+0	1.264045E+0	1.207065E+0	1.194666E+0	1.192345E+0	1.213581E+0	1.219895E+0	1.187866E+0	1.239047E+0	1.244926E+0	1.190216E+0	1.209758E+0	1.280655E+0	1.210077E+0	1.176424E+0	1.222868E+0	1.232579E+0	1.157974E+0	1.222834E+0	1.209598E+0	1.194135E+0	1.230127E+0	1.219071E+0	1.180880E+0	1.223770E+0	1.238257E+0	1.176649E+0	1.232137E+0	1.199108E+0	1.258170E+0	1.174720E+0	1.205938E+0	1.210538E+0	1.229078E+0	1.205273E+0	1.180218E+0	1.164126E+0	1.154605E+0	1.216220E+0	1.208745E+0	1.171091E+0	1.196126E+0	1.181818E+0	1.210413E+0	1.169292E+0	1.277811E+0	1.178456E+0	1.168963E+0	1.204084E+0	1.234936E+0	1.197596E+0	1.171968E+0	1.153100E+0	1.189548E+0	1.222401E+0	1.164378E+0	1.233076E+0	1.182866E+0	1.173167E+0	1.222532E+0	1.203226E+0	1.240038E+0	1.222477E+0	1.179303E+0	1.200567E+0	1.190425E+0	1.206805E+0	1.171632E+0	1.192289E+0	1.190316E+0	1.196513E+0	1.177754E+0	1.204855E+0	1.225988E+0	1.229513E+0	1.168331E+0	1.252743E+0	1.220396E+0	1.213681E+0	1.179581E+0	1.196706E+0	1.210874E+0	1.198159E+0	1.191293E+0	1.180427E+0	1.214993E+0	1.198836E+0	1.204162E+0	1.214151E+0	1.207931E+0	1.182186E+0	1.189346E+0	1.190721E+0	1.194140E+0	1.206016E+0	1.207452E+0	1.182192E+0	1.129848E+0	1.198308E+0	1.133128E+0	1.201184E+0	1.165652E+0	1.183807E+0	1.214119E+0	1.243110E+0	1.173980E+0	1.203541E+0	1.201947E+0	1.205520E+0	1.176117E+0	1.190208E+0	1.164281E+0	1.246612E+0	1.153304E+0	1.174098E+0	1.129140E+0	1.168828E+0	1.219510E+0	1.156152E+0	1.241545E+0	1.200406E+0	1.242291E+0	1.202243E+0	1.178954E+0	1.194582E+0	1.247599E+0	1.108366E+0	1.162029E+0	1.218065E+0	1.184946E+0	1.155506E+0	1.189327E+0	1.197565E+0	1.180822E+0	1.187784E+0	1.213567E+0	1.190346E+0	1.173353E+0	1.142118E+0	1.153402E+0	1.158975E+0	1.189995E+0	1.156455E+0	1.103711E+0
5.475230E+2	1.303687E+0	1.317672E+0	1.317024E+0	1.353649E+0	1.318091E+0	1.308127E+0	1.309520E+0	1.308196E+0	1.297759E+0	1.292921E+0	1.318876E+0	1.319587E+0	1.311832E+0	1.344805E+0	1.324793E+0	1.362024E+0	1.349196E+0	1.323884E+0	1.348722E+0	1.293263E+0	1.334368E+0	1.368121E+0	1.354304E+0	1.335119E+0	1.349205E+0	1.347641E+0	1.318767E+0	1.365310E+0	1.303625E+0	1.314910E+0	1.316783E+0	1.338342E+0	1.314789E+0	1.347363E+0	1.307433E+0	1.305075E+0	1.309137E+0	1.331822E+0	1.363397E+0	1.286395E+0	1.298822E+0	1.334850E+0	1.382388E+0	1.368591E+0	1.333151E+0	1.328747E+0	1.361997E+0	1.327351E+0	1.299703E+0	1.356837E+0	1.364757E+0	1.307508E+0	1.282909E+0	1.363806E+0	1.317327E+0	1.364295E+0	1.305967E+0	1.289263E+0	1.303568E+0	1.290371E+0	1.284912E+0	1.291435E+0	1.365300E+0	1.295448E+0	1.309344E+0	1.298495E+0	1.300178E+0	1.279652E+0	1.336686E+0	1.310019E+0	1.325488E+0	1.297681E+0	1.348801E+0	1.320137E+0	1.307828E+0	1.313614E+0	1.231045E+0	1.273793E+0	1.306731E+0	1.305508E+0	1.295944E+0	1.276815E+0	1.346620E+0	1.270174E+0	1.300311E+0	1.310352E+0	1.302549E+0	1.299079E+0	1.296955E+0	1.313473E+0	1.322876E+0	1.318093E+0	1.309540E+0	1.264936E+0	1.340032E+0	1.316413E+0	1.306194E+0	1.334923E+0	1.323993E+0	1.326497E+0	1.305014E+0	1.299253E+0	1.313543E+0	1.300373E+0	1.290089E+0	1.327831E+0	1.318453E+0	1.331736E+0	1.292551E+0	1.347050E+0	1.296053E+0	1.246124E+0	1.328010E+0	1.307661E+0	1.292451E+0	1.371066E+0	1.317022E+0	1.293340E+0	1.336569E+0	1.335875E+0	1.357024E+0	1.300870E+0	1.288423E+0	1.301581E+0	1.316125E+0	1.285782E+0	1.271947E+0	1.349008E+0	1.290595E+0	1.275782E+0	1.309982E+0	1.327652E+0	1.298578E+0	1.303534E+0	1.344956E+0	1.305194E+0	1.280509E+0	1.276770E+0	1.317946E+0	1.282164E+0	1.303679E+0	1.287639E+0	1.241923E+0	1.321403E+0	1.300745E+0	1.286547E+0	1.257949E+0	1.325202E+0	1.291747E+0	1.325865E+0	1.289228E+0	1.266922E+0	1.268480E+0	1.278153E+0	1.343871E+0	1.272056E+0	1.299094E+0	1.288506E+0	1.310554E+0	1.278017E+0	1.262823E+0	1.296955E+0	1.349084E+0	1.330524E+0	1.291494E+0	1.259175E+0	1.285018E+0	1.279409E+0	1.278083E+0	1.346713E+0
5.482600E+2	1.420027E+0	1.444434E+0	1.472000E+0	1.465083E+0	1.393994E+0	1.363358E+0	1.471810E+0	1.462520E+0	1.443645E+0	1.416115E+0	1.436182E+0	1.441809E+0	1.398036E+0	1.421475E+0	1.424150E+0	1.452470E+0	1.473702E+0	1.395819E+0	1.463375E+0	1.393285E+0	1.460328E+0	1.425755E+0	1.473739E+0	1.380965E+0	1.407154E+0	1.454461E+0	1.414723E+0	1.422479E+0	1.406882E+0	1.399263E+0	1.401544E+0	1.364221E+0	1.465650E+0	1.446990E+0	1.493249E+0	1.430914E+0	1.386005E+0	1.395493E+0	1.435351E+0	1.384108E+0	1.430769E+0	1.463739E+0	1.420649E+0	1.500978E+0	1.439366E+0	1.405363E+0	1.386982E+0	1.416933E+0	1.416750E+0	1.451665E+0	1.398959E+0	1.421367E+0	1.327173E+0	1.458075E+0	1.376428E+0	1.419820E+0	1.361152E+0	1.361936E+0	1.440065E+0	1.472799E+0	1.477025E+0	1.363859E+0	1.416883E+0	1.450698E+0	1.418921E+0	1.430765E+0	1.414097E+0	1.434687E+0	1.409606E+0	1.393237E+0	1.433896E+0	1.397881E+0	1.416879E+0	1.442788E+0	1.361439E+0	1.375405E+0	1.407095E+0	1.411863E+0	1.430828E+0	1.387432E+0	1.412565E+0	1.427604E+0	1.465758E+0	1.435733E+0	1.364030E+0	1.424535E+0	1.424947E+0	1.441184E+0	1.411648E+0	1.425867E+0	1.422888E+0	1.397478E+0	1.460729E+0	1.343573E+0	1.391266E+0	1.400942E+0	1.411058E+0	1.396841E+0	1.452495E+0	1.392951E+0	1.404511E+0	1.391036E+0	1.458942E+0	1.407434E+0	1.420846E+0	1.388360E+0	1.449828E+0	1.463643E+0	1.423707E+0	1.389356E+0	1.420815E+0	1.386532E+0	1.428744E+0	1.372275E+0	1.396782E+0	1.450535E+0	1.454322E+0	1.424906E+0	1.419086E+0	1.420255E+0	1.454848E+0	1.396459E+0	1.368593E+0	1.446530E+0	1.410968E+0	1.407845E+0	1.411222E+0	1.413603E+0	1.396306E+0	1.427331E+0	1.444976E+0	1.382340E+0	1.413814E+0	1.404324E+0	1.420023E+0	1.428103E+0	1.369120E+0	1.376754E+0	1.416451E+0	1.419622E+0	1.406312E+0	1.365329E+0	1.462101E+0	1.423976E+0	1.385075E+0	1.385331E+0	1.396084E+0	1.405753E+0	1.412581E+0	1.421160E+0	1.383812E+0	1.434400E+0	1.374947E+0	1.365248E+0	1.351452E+0	1.409106E+0	1.352210E+0	1.405895E+0	1.398722E+0	1.365143E+0	1.398982E+0	1.372023E+0	1.391385E+0	1.395797E+0	1.368979E+0	1.429744E+0	1.426254E+0	1.405857E+0	1.360369E+0	1.307309E+0
5.490490E+2	1.441555E+0	1.402817E+0	1.379306E+0	1.433239E+0	1.400457E+0	1.455957E+0	1.420863E+0	1.410679E+0	1.377731E+0	1.319873E+0	1.432150E+0	1.466171E+0	1.407609E+0	1.406005E+0	1.413406E+0	1.415365E+0	1.455704E+0	1.443186E+0	1.429399E+0	1.373400E+0	1.420688E+0	1.392282E+0	1.427691E+0	1.425363E+0	1.421757E+0	1.427624E+0	1.400447E+0	1.437384E+0	1.434500E+0	1.412168E+0	1.381183E+0	1.369761E+0	1.398154E+0	1.385484E+0	1.454773E+0	1.442026E+0	1.425258E+0	1.397292E+0	1.477506E+0	1.435895E+0	1.389255E+0	1.394167E+0	1.436249E+0	1.517410E+0	1.473863E+0	1.417913E+0	1.383461E+0	1.379169E+0	1.376669E+0	1.379050E+0	1.428997E+0	1.425697E+0	1.380865E+0	1.367838E+0	1.409146E+0	1.409074E+0	1.423059E+0	1.482364E+0	1.388673E+0	1.439193E+0	1.391772E+0	1.412179E+0	1.450570E+0	1.451232E+0	1.402404E+0	1.455867E+0	1.376112E+0	1.429903E+0	1.412003E+0	1.369737E+0	1.348030E+0	1.376362E+0	1.425837E+0	1.371499E+0	1.410343E+0	1.377637E+0	1.405206E+0	1.307473E+0	1.358520E+0	1.366171E+0	1.417232E+0	1.471140E+0	1.411705E+0	1.355677E+0	1.399498E+0	1.364146E+0	1.438404E+0	1.416530E+0	1.399074E+0	1.408241E+0	1.467491E+0	1.408570E+0	1.372875E+0	1.337246E+0	1.401526E+0	1.418537E+0	1.393160E+0	1.394440E+0	1.450358E+0	1.382322E+0	1.401509E+0	1.413627E+0	1.413482E+0	1.421450E+0	1.425753E+0	1.382902E+0	1.395699E+0	1.410530E+0	1.377937E+0	1.352775E+0	1.372245E+0	1.378659E+0	1.440089E+0	1.382339E+0	1.387564E+0	1.436353E+0	1.354804E+0	1.371022E+0	1.401719E+0	1.374800E+0	1.433765E+0	1.408659E+0	1.413247E+0	1.423091E+0	1.375382E+0	1.412148E+0	1.323494E+0	1.407733E+0	1.421541E+0	1.380283E+0	1.353286E+0	1.429346E+0	1.418318E+0	1.436412E+0	1.393975E+0	1.367434E+0	1.389326E+0	1.409304E+0	1.419327E+0	1.461086E+0	1.366929E+0	1.399811E+0	1.364841E+0	1.381750E+0	1.370008E+0	1.370119E+0	1.401998E+0	1.419743E+0	1.358784E+0	1.420864E+0	1.375720E+0	1.419803E+0	1.343747E+0	1.396591E+0	1.380060E+0	1.392962E+0	1.378772E+0	1.371382E+0	1.336878E+0	1.419266E+0	1.367290E+0	1.354327E+0	1.357973E+0	1.406524E+0	1.371058E+0	1.352351E+0	1.421536E+0	1.416364E+0	1.343432E+0	1.271064E+0
5.497960E+2	1.358621E+0	1.293594E+0	1.397621E+0	1.389244E+0	1.321324E+0	1.385424E+0	1.363537E+0	1.403378E+0	1.381064E+0	1.349528E+0	1.391498E+0	1.369692E+0	1.341303E+0	1.337813E+0	1.374277E+0	1.369644E+0	1.441939E+0	1.322781E+0	1.369033E+0	1.332185E+0	1.408865E+0	1.371684E+0	1.375613E+0	1.409942E+0	1.362930E+0	1.377559E+0	1.366667E+0	1.368844E+0	1.386356E+0	1.318983E+0	1.340396E+0	1.346314E+0	1.390800E+0	1.359559E+0	1.407813E+0	1.335361E+0	1.351589E+0	1.341220E+0	1.372958E+0	1.335054E+0	1.376457E+0	1.386663E+0	1.320136E+0	1.381588E+0	1.392771E+0	1.363263E+0	1.332930E+0	1.361390E+0	1.371476E+0	1.340752E+0	1.373516E+0	1.295607E+0	1.298525E+0	1.327044E+0	1.373449E+0	1.377484E+0	1.352342E+0	1.361187E+0	1.348443E+0	1.386854E+0	1.358847E+0	1.308414E+0	1.381837E+0	1.321664E+0	1.337295E+0	1.349627E+0	1.313477E+0	1.406205E+0	1.374623E+0	1.285566E+0	1.377445E+0	1.361392E+0	1.325075E+0	1.348031E+0	1.352782E+0	1.343742E+0	1.356643E+0	1.311972E+0	1.315691E+0	1.404732E+0	1.350615E+0	1.284740E+0	1.382155E+0	1.292923E+0	1.333434E+0	1.284304E+0	1.334039E+0	1.328493E+0	1.347818E+0	1.381468E+0	1.376568E+0	1.308691E+0	1.322587E+0	1.342093E+0	1.372504E+0	1.321201E+0	1.412177E+0	1.281847E+0	1.425713E+0	1.344331E+0	1.293184E+0	1.374541E+0	1.390062E+0	1.328724E+0	1.358470E+0	1.327140E+0	1.320672E+0	1.347601E+0	1.311705E+0	1.329694E+0	1.349408E+0	1.329646E+0	1.357748E+0	1.294790E+0	1.400662E+0	1.370986E+0	1.330766E+0	1.370473E+0	1.317985E+0	1.345668E+0	1.357007E+0	1.339083E+0	1.332835E+0	1.361453E+0	1.299618E+0	1.353655E+0	1.342398E+0	1.371375E+0	1.401975E+0	1.360042E+0	1.356544E+0	1.348357E+0	1.340324E+0	1.343498E+0	1.382490E+0	1.334699E+0	1.306081E+0	1.298021E+0	1.336169E+0	1.301353E+0	1.341990E+0	1.278008E+0	1.339544E+0	1.359682E+0	1.329728E+0	1.330175E+0	1.355374E+0	1.371830E+0	1.361696E+0	1.375697E+0	1.379457E+0	1.347505E+0	1.279458E+0	1.323798E+0	1.343368E+0	1.347310E+0	1.282131E+0	1.348999E+0	1.325036E+0	1.321622E+0	1.269198E+0	1.352713E+0	1.337310E+0	1.341391E+0	1.309467E+0	1.326458E+0	1.332163E+0	1.325399E+0	1.285378E+0	1.328144E+0
5.505110E+2	1.279931E+0	1.299173E+0	1.278225E+0	1.306322E+0	1.346322E+0	1.344628E+0	1.305327E+0	1.308898E+0	1.249980E+0	1.261553E+0	1.280523E+0	1.254639E+0	1.248801E+0	1.288411E+0	1.304888E+0	1.312567E+0	1.340216E+0	1.254186E+0	1.267664E+0	1.248819E+0	1.302467E+0	1.292200E+0	1.283815E+0	1.344297E+0	1.316509E+0	1.306757E+0	1.275984E+0	1.260017E+0	1.332857E+0	1.312511E+0	1.286982E+0	1.311091E+0	1.316996E+0	1.274371E+0	1.309712E+0	1.302833E+0	1.261138E+0	1.250274E+0	1.325979E+0	1.328399E+0	1.252949E+0	1.319708E+0	1.269307E+0	1.330007E+0	1.270183E+0	1.309946E+0	1.327480E+0	1.321110E+0	1.281349E+0	1.289711E+0	1.282995E+0	1.272675E+0	1.265462E+0	1.286100E+0	1.256358E+0	1.366274E+0	1.288155E+0	1.311058E+0	1.279320E+0	1.322154E+0	1.324341E+0	1.305558E+0	1.269009E+0	1.281129E+0	1.280700E+0	1.276734E+0	1.288105E+0	1.281079E+0	1.231107E+0	1.232556E+0	1.254656E+0	1.240762E+0	1.276325E+0	1.256214E+0	1.279220E+0	1.262271E+0	1.276513E+0	1.275898E+0	1.278811E+0	1.330680E+0	1.271141E+0	1.270734E+0	1.268220E+0	1.287390E+0	1.256327E+0	1.277359E+0	1.278328E+0	1.281056E+0	1.279171E+0	1.319572E+0	1.306919E+0	1.301429E+0	1.255274E+0	1.193246E+0	1.290544E+0	1.271756E+0	1.323833E+0	1.315004E+0	1.252049E+0	1.321525E+0	1.268385E+0	1.290152E+0	1.308167E+0	1.288249E+0	1.304740E+0	1.267531E+0	1.303871E+0	1.289608E+0	1.292991E+0	1.246429E+0	1.300643E+0	1.284398E+0	1.311927E+0	1.308568E+0	1.301060E+0	1.330747E+0	1.256671E+0	1.329804E+0	1.258142E+0	1.288838E+0	1.262624E+0	1.243315E+0	1.321954E+0	1.281898E+0	1.302427E+0	1.290569E+0	1.244694E+0	1.283094E+0	1.288384E+0	1.294572E+0	1.290594E+0	1.248999E+0	1.234555E+0	1.287370E+0	1.276646E+0	1.281382E+0	1.280222E+0	1.304938E+0	1.245303E+0	1.299035E+0	1.268566E+0	1.267577E+0	1.283081E+0	1.269469E+0	1.243206E+0	1.263758E+0	1.266115E+0	1.277210E+0	1.291238E+0	1.250106E+0	1.282333E+0	1.284238E+0	1.269236E+0	1.234515E+0	1.237134E+0	1.302413E+0	1.265107E+0	1.307514E+0	1.283694E+0	1.312189E+0	1.237041E+0	1.319148E+0	1.270182E+0	1.259694E+0	1.257740E+0	1.295904E+0	1.276214E+0	1.299852E+0	1.231988E+0	1.272340E+0
5.512620E+2	1.237503E+0	1.293094E+0	1.273184E+0	1.256019E+0	1.250796E+0	1.313009E+0	1.317156E+0	1.319070E+0	1.250619E+0	1.238978E+0	1.272327E+0	1.256953E+0	1.278440E+0	1.259134E+0	1.308356E+0	1.329649E+0	1.278197E+0	1.237233E+0	1.227815E+0	1.295130E+0	1.256161E+0	1.242949E+0	1.295676E+0	1.340018E+0	1.334381E+0	1.281438E+0	1.269469E+0	1.318585E+0	1.344940E+0	1.253226E+0	1.291351E+0	1.316013E+0	1.315469E+0	1.229171E+0	1.301299E+0	1.320093E+0	1.253290E+0	1.302512E+0	1.296293E+0	1.234110E+0	1.252830E+0	1.238262E+0	1.326895E+0	1.312925E+0	1.330942E+0	1.264921E+0	1.263878E+0	1.276543E+0	1.266715E+0	1.275013E+0	1.285627E+0	1.290500E+0	1.255265E+0	1.254855E+0	1.254939E+0	1.257662E+0	1.235381E+0	1.297585E+0	1.328871E+0	1.254782E+0	1.249911E+0	1.247130E+0	1.256295E+0	1.266825E+0	1.295491E+0	1.330122E+0	1.265985E+0	1.352347E+0	1.283212E+0	1.248646E+0	1.261814E+0	1.306695E+0	1.259237E+0	1.301760E+0	1.287854E+0	1.281620E+0	1.249110E+0	1.273636E+0	1.305684E+0	1.274864E+0	1.281554E+0	1.233394E+0	1.260649E+0	1.257137E+0	1.253892E+0	1.234365E+0	1.233445E+0	1.313758E+0	1.262943E+0	1.330339E+0	1.246691E+0	1.342034E+0	1.262136E+0	1.212749E+0	1.326775E+0	1.257357E+0	1.287841E+0	1.284401E+0	1.247480E+0	1.272783E+0	1.304762E+0	1.243628E+0	1.271067E+0	1.333996E+0	1.246440E+0	1.252925E+0	1.251854E+0	1.287201E+0	1.267117E+0	1.225070E+0	1.265954E+0	1.280151E+0	1.329270E+0	1.287535E+0	1.291002E+0	1.298047E+0	1.248210E+0	1.236971E+0	1.230178E+0	1.320694E+0	1.314249E+0	1.282040E+0	1.264974E+0	1.268848E+0	1.278950E+0	1.226128E+0	1.284190E+0	1.239589E+0	1.272311E+0	1.278514E+0	1.290698E+0	1.305968E+0	1.257727E+0	1.294557E+0	1.288636E+0	1.300143E+0	1.220875E+0	1.264165E+0	1.257921E+0	1.254666E+0	1.230915E+0	1.259901E+0	1.264852E+0	1.253909E+0	1.301965E+0	1.317033E+0	1.231183E+0	1.312104E+0	1.292923E+0	1.253718E+0	1.266680E+0	1.253996E+0	1.298972E+0	1.294964E+0	1.331107E+0	1.228027E+0	1.231974E+0	1.243230E+0	1.232369E+0	1.285666E+0	1.241489E+0	1.295689E+0	1.285845E+0	1.268598E+0	1.266373E+0	1.283785E+0	1.271537E+0	1.296464E+0	1.245538E+0	1.295735E+0
5.520210E+2	1.232473E+0	1.284520E+0	1.230349E+0	1.257314E+0	1.210161E+0	1.293608E+0	1.312915E+0	1.289291E+0	1.245975E+0	1.245744E+0	1.318765E+0	1.257175E+0	1.291807E+0	1.256445E+0	1.276270E+0	1.302732E+0	1.303075E+0	1.208987E+0	1.233558E+0	1.310087E+0	1.301994E+0	1.245271E+0	1.235960E+0	1.300867E+0	1.303219E+0	1.277678E+0	1.238046E+0	1.269058E+0	1.230522E+0	1.272585E+0	1.231572E+0	1.273052E+0	1.285360E+0	1.258251E+0	1.278674E+0	1.256615E+0	1.245481E+0	1.252523E+0	1.297169E+0	1.252091E+0	1.231451E+0	1.263186E+0	1.192166E+0	1.291702E+0	1.274771E+0	1.299383E+0	1.245876E+0	1.275721E+0	1.340435E+0	1.207142E+0	1.207017E+0	1.266481E+0	1.239731E+0	1.291699E+0	1.278146E+0	1.308356E+0	1.262525E+0	1.226601E+0	1.311599E+0	1.223318E+0	1.240595E+0	1.236280E+0	1.251844E+0	1.222004E+0	1.219478E+0	1.264031E+0	1.273182E+0	1.217316E+0	1.263267E+0	1.250277E+0	1.266879E+0	1.235926E+0	1.302135E+0	1.244991E+0	1.250261E+0	1.247510E+0	1.239886E+0	1.246439E+0	1.260353E+0	1.271264E+0	1.256367E+0	1.261496E+0	1.293149E+0	1.273713E+0	1.262602E+0	1.303239E+0	1.270603E+0	1.287287E+0	1.256000E+0	1.253545E+0	1.249525E+0	1.261230E+0	1.265223E+0	1.208838E+0	1.245166E+0	1.240852E+0	1.268900E+0	1.204750E+0	1.276067E+0	1.248227E+0	1.252551E+0	1.233782E+0	1.267039E+0	1.290536E+0	1.249427E+0	1.254673E+0	1.215327E+0	1.295131E+0	1.215356E+0	1.255208E+0	1.246182E+0	1.249914E+0	1.255190E+0	1.232910E+0	1.271600E+0	1.294696E+0	1.268080E+0	1.259654E+0	1.239752E+0	1.243520E+0	1.286740E+0	1.261708E+0	1.228783E+0	1.301333E+0	1.240413E+0	1.254650E+0	1.211838E+0	1.248762E+0	1.200108E+0	1.242345E+0	1.221545E+0	1.244682E+0	1.201480E+0	1.274047E+0	1.234654E+0	1.277357E+0	1.270336E+0	1.304323E+0	1.252488E+0	1.269423E+0	1.240033E+0	1.208246E+0	1.229430E+0	1.219660E+0	1.248812E+0	1.236792E+0	1.232285E+0	1.278266E+0	1.196688E+0	1.272142E+0	1.241443E+0	1.278832E+0	1.202814E+0	1.281136E+0	1.259699E+0	1.257403E+0	1.271200E+0	1.198598E+0	1.314226E+0	1.207623E+0	1.208757E+0	1.267195E+0	1.259867E+0	1.225742E+0	1.209441E+0	1.217013E+0	1.301325E+0	1.220145E+0	1.213904E+0	1.233329E+0
5.527590E+2	1.237690E+0	1.249810E+0	1.197673E+0	1.283509E+0	1.277568E+0	1.270288E+0	1.229603E+0	1.243577E+0	1.285077E+0	1.284466E+0	1.218419E+0	1.266003E+0	1.282138E+0	1.260805E+0	1.252181E+0	1.279954E+0	1.301979E+0	1.230334E+0	1.269948E+0	1.259737E+0	1.262759E+0	1.218360E+0	1.262705E+0	1.207447E+0	1.243752E+0	1.247315E+0	1.241965E+0	1.264535E+0	1.261053E+0	1.277709E+0	1.254528E+0	1.287261E+0	1.283368E+0	1.197584E+0	1.217985E+0	1.267645E+0	1.220532E+0	1.234845E+0	1.272166E+0	1.264073E+0	1.253485E+0	1.271812E+0	1.227486E+0	1.259399E+0	1.296661E+0	1.261186E+0	1.259328E+0	1.228694E+0	1.283695E+0	1.289733E+0	1.236888E+0	1.255053E+0	1.251681E+0	1.212310E+0	1.231018E+0	1.271141E+0	1.211771E+0	1.256981E+0	1.259669E+0	1.278868E+0	1.251386E+0	1.194744E+0	1.278867E+0	1.228971E+0	1.269051E+0	1.230724E+0	1.211473E+0	1.289511E+0	1.215705E+0	1.215457E+0	1.303171E+0	1.240702E+0	1.196378E+0	1.212945E+0	1.238981E+0	1.273960E+0	1.273257E+0	1.223030E+0	1.214614E+0	1.234720E+0	1.261438E+0	1.215921E+0	1.259629E+0	1.259277E+0	1.229676E+0	1.263049E+0	1.191722E+0	1.270705E+0	1.240310E+0	1.222252E+0	1.261701E+0	1.226221E+0	1.223495E+0	1.213517E+0	1.196277E+0	1.227423E+0	1.243417E+0	1.255732E+0	1.273266E+0	1.222925E+0	1.231751E+0	1.250354E+0	1.284715E+0	1.257660E+0	1.263390E+0	1.223561E+0	1.246307E+0	1.211133E+0	1.187440E+0	1.245180E+0	1.230809E+0	1.250667E+0	1.263301E+0	1.199481E+0	1.270874E+0	1.271880E+0	1.221257E+0	1.255766E+0	1.231500E+0	1.228528E+0	1.264891E+0	1.273829E+0	1.205857E+0	1.289797E+0	1.243438E+0	1.175464E+0	1.234460E+0	1.255607E+0	1.223538E+0	1.214624E+0	1.265275E+0	1.267715E+0	1.216924E+0	1.279232E+0	1.251513E+0	1.270578E+0	1.263399E+0	1.317719E+0	1.262224E+0	1.223628E+0	1.292579E+0	1.232678E+0	1.227502E+0	1.227108E+0	1.276665E+0	1.243353E+0	1.212499E+0	1.251894E+0	1.252927E+0	1.234958E+0	1.200941E+0	1.265567E+0	1.196452E+0	1.229587E+0	1.266954E+0	1.266673E+0	1.218067E+0	1.217908E+0	1.234514E+0	1.292907E+0	1.184362E+0	1.247956E+0	1.225890E+0	1.175877E+0	1.252899E+0	1.263081E+0	1.227921E+0	1.220129E+0	1.302088E+0	1.135939E+0
5.535440E+2	1.163276E+0	1.215602E+0	1.189992E+0	1.203557E+0	1.204295E+0	1.202375E+0	1.251131E+0	1.249639E+0	1.153149E+0	1.198594E+0	1.156234E+0	1.163729E+0	1.160425E+0	1.200931E+0	1.204600E+0	1.174499E+0	1.223634E+0	1.170060E+0	1.171859E+0	1.196185E+0	1.187315E+0	1.170840E+0	1.189852E+0	1.186466E+0	1.174153E+0	1.190077E+0	1.221184E+0	1.187325E+0	1.207429E+0	1.218356E+0	1.165053E+0	1.175263E+0	1.204645E+0	1.189888E+0	1.210137E+0	1.187652E+0	1.134291E+0	1.193455E+0	1.185916E+0	1.170803E+0	1.152899E+0	1.181159E+0	1.185876E+0	1.194138E+0	1.211162E+0	1.196018E+0	1.149660E+0	1.182315E+0	1.216302E+0	1.159626E+0	1.208864E+0	1.180385E+0	1.193766E+0	1.174875E+0	1.183066E+0	1.217639E+0	1.179147E+0	1.152440E+0	1.189696E+0	1.240260E+0	1.206106E+0	1.186521E+0	1.148130E+0	1.171438E+0	1.175600E+0	1.163757E+0	1.208952E+0	1.199616E+0	1.228820E+0	1.198374E+0	1.188457E+0	1.163754E+0	1.192932E+0	1.162200E+0	1.179504E+0	1.175297E+0	1.145250E+0	1.218490E+0	1.216376E+0	1.197653E+0	1.220030E+0	1.169313E+0	1.213714E+0	1.143249E+0	1.234752E+0	1.159712E+0	1.181942E+0	1.193216E+0	1.214638E+0	1.169697E+0	1.172462E+0	1.206278E+0	1.209890E+0	1.176329E+0	1.183603E+0	1.166145E+0	1.192889E+0	1.167756E+0	1.190826E+0	1.173714E+0	1.173434E+0	1.193523E+0	1.202775E+0	1.237948E+0	1.187013E+0	1.160672E+0	1.133684E+0	1.203164E+0	1.126160E+0	1.147070E+0	1.180795E+0	1.172045E+0	1.212128E+0	1.230785E+0	1.165710E+0	1.243184E+0	1.170852E+0	1.158867E+0	1.185115E+0	1.199685E+0	1.188906E+0	1.149530E+0	1.179878E+0	1.146253E+0	1.152815E+0	1.164049E+0	1.168094E+0	1.190465E+0	1.236205E+0	1.168704E+0	1.157913E+0	1.191896E+0	1.157968E+0	1.213331E+0	1.143698E+0	1.267164E+0	1.135714E+0	1.187494E+0	1.184981E+0	1.190188E+0	1.210014E+0	1.174323E+0	1.137875E+0	1.173234E+0	1.201375E+0	1.154479E+0	1.200579E+0	1.256182E+0	1.182874E+0	1.206379E+0	1.125197E+0	1.207036E+0	1.139254E+0	1.190070E+0	1.152815E+0	1.112439E+0	1.160131E+0	1.149665E+0	1.177297E+0	1.225507E+0	1.165703E+0	1.170961E+0	1.165041E+0	1.194424E+0	1.133070E+0	1.163189E+0	1.158062E+0	1.098957E+0	1.096715E+0	1.005618E+0
5.542580E+2	1.076276E+0	1.012784E+0	1.122075E+0	1.097884E+0	1.128525E+0	1.077126E+0	1.160746E+0	1.116954E+0	1.116648E+0	1.090095E+0	1.097368E+0	1.113676E+0	1.107019E+0	1.116869E+0	1.100703E+0	1.141132E+0	1.097399E+0	1.066185E+0	1.118244E+0	1.081848E+0	1.091431E+0	1.110081E+0	1.114124E+0	1.095020E+0	1.162734E+0	1.122298E+0	1.067222E+0	1.110083E+0	1.082396E+0	1.093038E+0	1.082439E+0	1.133337E+0	1.102272E+0	1.040970E+0	1.104810E+0	1.088617E+0	1.144294E+0	1.093105E+0	1.123782E+0	1.053488E+0	1.095909E+0	1.118846E+0	1.099394E+0	1.135395E+0	1.110557E+0	1.102304E+0	1.125013E+0	1.079366E+0	1.118657E+0	1.125958E+0	1.101509E+0	1.116148E+0	1.083727E+0	1.193657E+0	1.075667E+0	1.115585E+0	1.073140E+0	1.102178E+0	1.107018E+0	1.053865E+0	1.052972E+0	1.095663E+0	1.060206E+0	1.110234E+0	1.109441E+0	1.096815E+0	1.111818E+0	1.118820E+0	1.105279E+0	1.082696E+0	1.072530E+0	1.103471E+0	1.077318E+0	1.052014E+0	1.099579E+0	1.134417E+0	1.044136E+0	1.093713E+0	1.081229E+0	1.092023E+0	1.099453E+0	1.090229E+0	1.076049E+0	1.101441E+0	1.056734E+0	1.096575E+0	1.112885E+0	1.094006E+0	1.101757E+0	1.095249E+0	1.119485E+0	1.114262E+0	1.093214E+0	1.046268E+0	1.100487E+0	1.072235E+0	1.088752E+0	1.121014E+0	1.119340E+0	1.104477E+0	1.075835E+0	1.034355E+0	1.071165E+0	1.155742E+0	1.100085E+0	1.038965E+0	1.073489E+0	1.072794E+0	1.096443E+0	1.093395E+0	1.096637E+0	1.108593E+0	1.055120E+0	1.100053E+0	1.088404E+0	1.083647E+0	1.072580E+0	1.077647E+0	1.085110E+0	1.107998E+0	1.103704E+0	1.108863E+0	1.116982E+0	1.119823E+0	1.063812E+0	1.059617E+0	1.094134E+0	1.115088E+0	1.091098E+0	1.063146E+0	1.079147E+0	1.048645E+0	1.072517E+0	1.140694E+0	1.086015E+0	1.099021E+0	1.086701E+0	1.100676E+0	1.056274E+0	1.146961E+0	1.131231E+0	1.125977E+0	1.038843E+0	1.075612E+0	1.061927E+0	1.097113E+0	1.056183E+0	1.074434E+0	1.079336E+0	1.102462E+0	1.067225E+0	1.122581E+0	1.057451E+0	1.098092E+0	1.082812E+0	1.108872E+0	1.049307E+0	1.090493E+0	1.110877E+0	1.101691E+0	1.088897E+0	1.088965E+0	1.130600E+0	1.091816E+0	1.082588E+0	1.083147E+0	1.073758E+0	1.139712E+0	1.051863E+0	1.122343E+0
5.550250E+2	9.944273E-1	9.959932E-1	9.801087E-1	1.063728E+0	1.013131E+0	9.978540E-1	1.031859E+0	9.976881E-1	1.014582E+0	1.010477E+0	9.971909E-1	1.048197E+0	1.035387E+0	9.989271E-1	1.003735E+0	9.962548E-1	9.905746E-1	1.040484E+0	1.010219E+0	1.003154E+0	9.957668E-1	1.014692E+0	9.735763E-1	1.015707E+0	9.624374E-1	1.010860E+0	9.781290E-1	1.008054E+0	1.034518E+0	1.018589E+0	9.781066E-1	9.817676E-1	1.049025E+0	9.863811E-1	1.033224E+0	1.038637E+0	1.025468E+0	1.008997E+0	1.000641E+0	9.723640E-1	1.012267E+0	9.866109E-1	9.747938E-1	1.023458E+0	1.013269E+0	1.024170E+0	9.847960E-1	9.763231E-1	9.726683E-1	1.028370E+0	1.044687E+0	1.028968E+0	1.003990E+0	9.643810E-1	9.839478E-1	1.007588E+0	9.846457E-1	1.026755E+0	1.001042E+0	1.043035E+0	1.011119E+0	9.882528E-1	1.006487E+0	9.924257E-1	9.823060E-1	1.016444E+0	9.475274E-1	1.003277E+0	1.014145E+0	9.929335E-1	9.977215E-1	9.941125E-1	1.001334E+0	9.714149E-1	1.046137E+0	9.916304E-1	9.839986E-1	9.995217E-1	9.495886E-1	9.637266E-1	1.025797E+0	1.034528E+0	9.823595E-1	9.492723E-1	1.018597E+0	1.009212E+0	1.018826E+0	1.031738E+0	1.033629E+0	9.908918E-1	1.002702E+0	9.934832E-1	1.006631E+0	9.787619E-1	9.869986E-1	9.837501E-1	9.531200E-1	9.898485E-1	1.034229E+0	1.005725E+0	9.750603E-1	1.024442E+0	1.014704E+0	1.035993E+0	1.026496E+0	1.017385E+0	9.942833E-1	1.017477E+0	1.007526E+0	9.607152E-1	9.755933E-1	9.733064E-1	1.019114E+0	9.914188E-1	1.042343E+0	9.774283E-1	9.983621E-1	9.729689E-1	9.759494E-1	1.001465E+0	1.017633E+0	9.493729E-1	9.751283E-1	1.014494E+0	1.000081E+0	1.006896E+0	9.685674E-1	1.004737E+0	1.040301E+0	9.951322E-1	9.946564E-1	9.799552E-1	1.008587E+0	1.028836E+0	1.009175E+0	9.693425E-1	9.799269E-1	1.006270E+0	9.919834E-1	9.977343E-1	9.802985E-1	9.898988E-1	1.002016E+0	9.951210E-1	9.819692E-1	1.018295E+0	1.009087E+0	9.956078E-1	1.013840E+0	1.005230E+0	9.711201E-1	9.748455E-1	9.694418E-1	1.009403E+0	9.694443E-1	9.876935E-1	1.016635E+0	1.000503E+0	1.026747E+0	1.006305E+0	1.010060E+0	9.724230E-1	1.026359E+0	1.057661E+0	1.008645E+0	9.744250E-1	9.955318E-1	1.009033E+0	9.345412E-1	9.269336E-1
5.557550E+2	9.285198E-1	9.034426E-1	9.343930E-1	9.600448E-1	9.129117E-1	9.322025E-1	9.640620E-1	9.802983E-1	9.454773E-1	9.593558E-1	9.224767E-1	9.134881E-1	9.495806E-1	9.290003E-1	9.630218E-1	1.014819E+0	9.620133E-1	9.082909E-1	9.216620E-1	9.571327E-1	9.098909E-1	9.226983E-1	9.772204E-1	9.401792E-1	1.016136E+0	9.128867E-1	9.542324E-1	9.157473E-1	9.503644E-1	9.448798E-1	9.749592E-1	9.412286E-1	9.252369E-1	9.299689E-1	9.752603E-1	9.596356E-1	9.206011E-1	9.222667E-1	9.698682E-1	9.220996E-1	9.528666E-1	9.461616E-1	9.814865E-1	9.626791E-1	9.340102E-1	9.833159E-1	9.473707E-1	9.487004E-1	9.397511E-1	9.545617E-1	9.558180E-1	9.190930E-1	9.365319E-1	9.156552E-1	8.960653E-1	9.226419E-1	9.536641E-1	9.396930E-1	9.581524E-1	9.452538E-1	9.524669E-1	9.778574E-1	9.627380E-1	9.287484E-1	9.468872E-1	9.719399E-1	9.208149E-1	9.415958E-1	9.527811E-1	8.935777E-1	9.290962E-1	9.428548E-1	9.570452E-1	8.933082E-1	9.149732E-1	9.389981E-1	9.304940E-1	9.655512E-1	9.424932E-1	9.694757E-1	9.649266E-1	9.642441E-1	9.218896E-1	9.709205E-1	9.539151E-1	9.386029E-1	9.511502E-1	9.812609E-1	9.782304E-1	9.458040E-1	9.321201E-1	9.828019E-1	9.267524E-1	9.205777E-1	9.735856E-1	9.796372E-1	9.752151E-1	9.383323E-1	9.604080E-1	9.590997E-1	9.003227E-1	9.316644E-1	9.671950E-1	9.931933E-1	9.417185E-1	9.640287E-1	9.506241E-1	9.605417E-1	9.566252E-1	8.918243E-1	9.291772E-1	9.461516E-1	9.599550E-1	9.584771E-1	9.777737E-1	9.614235E-1	9.356668E-1	9.569183E-1	9.329498E-1	1.002292E+0	9.533070E-1	9.545336E-1	9.285728E-1	9.718667E-1	1.003939E+0	9.514176E-1	9.291055E-1	9.342877E-1	9.492636E-1	9.528238E-1	9.206152E-1	9.538659E-1	9.110118E-1	9.531406E-1	9.712917E-1	9.749888E-1	9.597867E-1	9.574905E-1	9.123169E-1	9.512546E-1	9.654442E-1	9.673660E-1	9.078890E-1	9.286882E-1	9.411148E-1	9.469335E-1	9.665944E-1	9.134494E-1	9.448513E-1	9.249439E-1	9.304617E-1	9.782253E-1	9.654356E-1	9.231282E-1	9.596211E-1	9.278706E-1	9.560483E-1	9.546730E-1	9.343692E-1	9.395454E-1	1.002817E+0	9.557065E-1	9.464157E-1	9.928374E-1	9.434956E-1	9.839512E-1	9.412909E-1	9.254304E-1	8.956498E-1	9.032550E-1
5.560190E+2	8.923925E-1	9.138677E-1	9.784937E-1	9.440214E-1	9.607765E-1	9.178847E-1	9.516698E-1	9.351083E-1	9.678882E-1	9.364793E-1	9.230694E-1	9.239695E-1	9.336186E-1	9.494701E-1	8.838570E-1	9.623171E-1	9.510895E-1	9.739227E-1	9.854658E-1	9.741338E-1	9.491919E-1	9.669519E-1	9.750886E-1	9.317879E-1	9.605289E-1	9.320027E-1	9.246417E-1	9.093702E-1	9.745758E-1	9.297795E-1	9.520636E-1	9.112891E-1	9.554319E-1	9.168019E-1	9.588125E-1	9.506221E-1	9.416379E-1	9.389500E-1	9.528224E-1	9.451425E-1	9.439515E-1	9.759450E-1	9.311480E-1	9.734671E-1	9.396355E-1	9.842620E-1	9.357789E-1	9.575544E-1	9.758163E-1	8.840823E-1	9.811373E-1	9.308940E-1	9.792442E-1	9.584744E-1	9.365134E-1	9.219759E-1	9.242267E-1	9.369005E-1	9.530673E-1	9.317161E-1	9.453127E-1	9.637812E-1	9.245185E-1	9.426834E-1	9.365084E-1	9.442988E-1	9.357245E-1	9.493796E-1	9.240310E-1	9.563569E-1	9.682278E-1	9.350006E-1	1.000284E+0	9.650843E-1	9.497659E-1	9.255541E-1	9.702865E-1	9.451756E-1	9.519300E-1	9.491596E-1	9.994366E-1	9.678775E-1	9.142924E-1	9.520850E-1	9.460860E-1	9.632532E-1	9.476455E-1	9.388123E-1	9.520576E-1	9.339378E-1	9.751205E-1	9.430139E-1	9.599910E-1	9.039144E-1	9.232502E-1	9.734543E-1	9.345616E-1	9.623128E-1	9.505395E-1	9.378399E-1	9.449252E-1	9.671198E-1	9.764715E-1	9.438086E-1	9.221988E-1	9.636774E-1	9.527689E-1	9.636353E-1	1.005436E+0	9.008206E-1	9.533591E-1	9.651198E-1	1.008528E+0	9.296018E-1	9.374627E-1	9.878445E-1	9.832205E-1	9.318808E-1	9.251065E-1	9.654642E-1	9.578436E-1	9.412479E-1	9.174356E-1	9.551669E-1	9.836878E-1	9.564922E-1	9.448206E-1	9.163294E-1	9.753074E-1	9.343671E-1	9.743433E-1	9.502378E-1	9.655172E-1	9.298070E-1	9.682166E-1	9.545667E-1	9.278360E-1	9.526417E-1	9.073389E-1	9.776599E-1	9.929446E-1	9.084061E-1	9.437941E-1	9.754342E-1	9.721864E-1	9.280232E-1	9.474996E-1	9.536397E-1	9.325821E-1	9.746107E-1	9.426752E-1	9.854406E-1	9.621437E-1	9.300286E-1	9.763779E-1	9.523433E-1	9.493062E-1	9.711687E-1	9.396071E-1	9.765476E-1	9.742462E-1	9.435902E-1	9.476376E-1	9.795409E-1	9.537171E-1	9.720431E-1	9.198802E-1	9.508324E-1	9.298689E-1	9.994107E-1
5.565140E+2	9.982596E-1	9.646933E-1	9.785580E-1	9.809205E-1	9.572869E-1	9.485062E-1	9.814038E-1	9.773101E-1	9.640693E-1	9.586825E-1	9.861628E-1	9.876936E-1	9.651126E-1	9.545352E-1	9.614641E-1	9.701726E-1	9.689406E-1	9.904069E-1	1.043316E+0	9.345816E-1	9.858436E-1	9.810394E-1	9.328038E-1	9.560652E-1	1.004850E+0	9.711380E-1	9.416121E-1	9.691951E-1	9.525830E-1	9.301124E-1	9.576817E-1	9.710385E-1	9.446133E-1	9.785890E-1	9.701242E-1	9.730036E-1	9.774847E-1	9.454914E-1	9.583254E-1	9.492337E-1	9.847395E-1	9.654998E-1	1.029347E+0	1.008325E+0	9.579540E-1	9.799890E-1	9.154688E-1	9.539510E-1	1.015359E+0	9.515153E-1	9.797146E-1	9.788113E-1	9.625732E-1	9.416560E-1	9.353327E-1	9.998055E-1	9.728007E-1	9.796736E-1	9.560759E-1	9.947451E-1	9.760246E-1	9.679154E-1	9.969872E-1	9.723763E-1	9.473075E-1	9.827797E-1	9.932546E-1	1.012355E+0	9.807596E-1	9.810750E-1	9.380746E-1	9.821937E-1	9.666789E-1	9.728155E-1	9.981178E-1	9.158615E-1	9.612578E-1	9.389336E-1	9.865573E-1	9.774285E-1	9.514594E-1	9.911969E-1	9.637487E-1	9.740289E-1	9.670919E-1	9.487659E-1	9.742781E-1	9.664287E-1	1.022155E+0	9.612510E-1	9.361148E-1	9.637975E-1	9.957472E-1	9.793991E-1	9.468394E-1	9.958508E-1	9.838886E-1	9.578092E-1	9.953094E-1	1.002310E+0	9.714667E-1	9.694945E-1	9.689994E-1	9.811919E-1	1.000875E+0	9.513794E-1	9.516613E-1	9.554430E-1	9.706933E-1	9.768780E-1	9.486209E-1	9.678161E-1	1.002904E+0	9.047036E-1	9.324390E-1	1.028935E+0	9.846721E-1	9.658765E-1	9.489218E-1	9.728733E-1	9.686533E-1	9.970904E-1	9.535784E-1	9.581363E-1	1.001421E+0	9.743671E-1	9.537838E-1	9.546954E-1	9.659211E-1	9.752609E-1	9.484635E-1	9.584695E-1	9.346459E-1	9.850663E-1	9.693815E-1	9.407941E-1	9.609711E-1	9.657139E-1	9.554066E-1	9.970725E-1	9.720472E-1	9.450600E-1	1.047162E+0	9.383851E-1	9.863628E-1	9.925017E-1	9.620268E-1	9.594352E-1	1.002846E+0	9.666330E-1	9.782806E-1	9.672421E-1	9.969018E-1	9.278247E-1	9.534844E-1	1.035030E+0	9.894882E-1	9.770800E-1	9.578649E-1	9.562658E-1	9.698862E-1	1.015794E+0	9.829666E-1	9.504171E-1	9.822835E-1	9.465471E-1	9.893562E-1	9.624413E-1	1.006090E+0	9.489261E-1
5.570440E+2	1.012285E+0	9.777162E-1	9.975359E-1	9.901421E-1	9.842889E-1	1.012952E+0	9.840788E-1	1.029712E+0	9.978081E-1	1.031086E+0	1.006246E+0	1.017752E+0	9.935171E-1	1.028597E+0	1.000764E+0	1.021280E+0	9.861592E-1	9.824878E-1	9.316577E-1	9.763549E-1	9.325712E-1	1.008936E+0	9.636123E-1	9.615337E-1	9.776585E-1	1.024535E+0	9.769999E-1	1.020756E+0	1.002530E+0	9.976030E-1	9.752864E-1	9.718249E-1	9.951275E-1	1.020793E+0	9.740441E-1	9.814644E-1	9.973694E-1	1.005346E+0	1.041476E+0	9.918229E-1	9.686348E-1	9.553965E-1	9.697498E-1	1.008663E+0	1.009192E+0	9.562643E-1	1.031817E+0	1.053284E+0	1.015929E+0	1.001146E+0	9.865338E-1	1.032402E+0	9.957049E-1	1.002718E+0	1.015437E+0	9.663550E-1	9.451868E-1	9.648459E-1	1.009932E+0	1.021100E+0	9.818757E-1	9.639246E-1	9.498270E-1	1.012364E+0	1.001490E+0	9.720972E-1	9.958649E-1	9.901595E-1	9.414727E-1	1.016084E+0	1.048219E+0	9.820604E-1	9.840172E-1	1.002822E+0	9.837090E-1	9.895232E-1	9.784252E-1	1.000171E+0	9.675245E-1	9.885976E-1	1.045192E+0	9.968706E-1	9.521718E-1	9.666274E-1	1.005494E+0	9.948216E-1	9.883175E-1	9.569512E-1	9.990733E-1	1.003929E+0	9.840319E-1	1.016525E+0	1.001471E+0	9.938393E-1	9.836035E-1	9.895290E-1	9.907386E-1	9.983037E-1	9.695864E-1	1.005729E+0	9.851658E-1	9.943291E-1	9.713319E-1	1.004725E+0	9.700474E-1	9.886714E-1	9.861241E-1	9.719106E-1	9.674706E-1	9.737664E-1	1.000532E+0	9.334403E-1	1.007032E+0	9.783503E-1	9.864476E-1	9.790785E-1	9.730313E-1	9.893863E-1	9.697024E-1	1.030719E+0	1.003255E+0	1.003804E+0	9.785238E-1	1.002098E+0	1.010289E+0	9.754824E-1	1.016197E+0	1.008652E+0	1.012794E+0	9.866666E-1	9.817949E-1	9.848371E-1	1.000915E+0	9.651400E-1	9.617826E-1	1.022455E+0	1.001169E+0	9.950177E-1	9.887065E-1	9.866369E-1	1.000219E+0	1.007668E+0	9.914479E-1	9.921278E-1	1.001730E+0	9.852973E-1	9.963222E-1	9.912125E-1	9.875914E-1	9.854037E-1	9.929256E-1	9.958792E-1	1.035059E+0	9.965610E-1	9.721289E-1	9.808030E-1	9.302744E-1	9.768201E-1	9.975452E-1	1.008168E+0	9.842651E-1	9.590192E-1	9.881346E-1	9.813114E-1	9.906375E-1	9.827031E-1	9.394178E-1	1.020187E+0	9.666554E-1	1.023819E+0
5.575640E+2	9.768002E-1	9.895270E-1	1.028182E+0	9.798595E-1	1.010418E+0	9.886656E-1	9.807097E-1	9.837961E-1	9.841401E-1	9.980525E-1	1.041364E+0	9.635181E-1	1.042045E+0	9.967431E-1	1.003977E+0	9.866498E-1	9.974703E-1	9.937044E-1	1.006724E+0	1.024808E+0	1.003269E+0	9.664592E-1	9.805889E-1	9.852573E-1	9.796690E-1	9.609392E-1	1.011260E+0	9.801587E-1	1.012181E+0	9.858165E-1	9.858104E-1	9.853240E-1	1.019036E+0	9.757247E-1	1.037990E+0	9.781805E-1	9.560986E-1	9.464829E-1	9.775168E-1	1.005263E+0	9.796797E-1	1.014123E+0	9.442009E-1	1.028065E+0	1.021916E+0	1.048632E+0	1.011788E+0	1.006715E+0	9.985370E-1	1.004628E+0	9.933280E-1	9.829952E-1	9.786356E-1	9.892970E-1	9.898838E-1	9.733572E-1	1.025990E+0	9.968757E-1	9.853762E-1	9.789844E-1	1.014204E+0	1.000892E+0	1.027011E+0	9.883734E-1	9.510904E-1	9.877389E-1	9.965981E-1	1.022734E+0	1.037513E+0	9.979866E-1	1.001838E+0	9.881536E-1	9.851540E-1	9.892920E-1	9.619417E-1	9.793946E-1	9.842635E-1	9.708245E-1	9.998045E-1	9.941339E-1	9.690474E-1	1.011378E+0	1.018860E+0	1.000987E+0	9.892443E-1	1.001785E+0	9.706895E-1	9.828898E-1	9.614093E-1	9.951748E-1	1.000981E+0	9.782297E-1	9.719823E-1	1.020635E+0	9.498070E-1	9.700897E-1	1.000629E+0	1.004115E+0	9.577368E-1	9.796901E-1	9.776636E-1	9.856320E-1	9.853754E-1	1.024440E+0	9.616923E-1	1.007494E+0	1.028329E+0	9.816439E-1	1.023948E+0	1.012260E+0	9.994777E-1	1.001338E+0	1.015558E+0	1.043074E+0	1.020518E+0	9.961723E-1	9.932741E-1	9.803255E-1	1.001647E+0	9.868852E-1	9.872260E-1	9.819239E-1	9.749655E-1	1.014280E+0	9.931076E-1	9.928558E-1	9.925033E-1	9.898699E-1	9.940172E-1	1.010479E+0	9.961592E-1	9.962446E-1	9.980174E-1	9.813268E-1	9.815899E-1	9.951367E-1	9.894766E-1	1.032327E+0	1.013550E+0	9.745575E-1	9.932759E-1	9.784374E-1	9.976913E-1	9.707271E-1	1.005999E+0	1.003172E+0	1.028402E+0	9.754363E-1	9.541654E-1	9.649152E-1	1.001026E+0	1.000423E+0	9.772008E-1	9.604480E-1	9.936072E-1	9.801657E-1	1.018547E+0	1.015361E+0	9.734032E-1	9.970490E-1	9.939525E-1	9.850989E-1	1.001474E+0	9.596279E-1	1.015377E+0	9.659658E-1	1.003291E+0	9.864203E-1	1.004038E+0	1.057881E+0
5.580230E+2	1.008023E+0	1.063964E+0	9.842605E-1	1.028398E+0	9.686047E-1	9.982374E-1	1.039955E+0	9.999357E-1	1.034689E+0	9.960039E-1	9.342721E-1	9.758009E-1	9.737522E-1	9.822484E-1	9.790904E-1	9.779594E-1	9.587965E-1	9.466478E-1	1.031414E+0	9.628541E-1	9.960024E-1	9.933013E-1	9.834326E-1	1.006998E+0	1.024057E+0	1.014625E+0	1.009435E+0	9.936127E-1	9.634993E-1	9.967775E-1	1.003067E+0	1.010808E+0	1.014195E+0	9.583592E-1	9.842786E-1	1.035930E+0	9.880620E-1	9.869191E-1	9.622910E-1	9.750650E-1	1.006444E+0	1.016432E+0	9.761594E-1	1.023952E+0	9.862913E-1	9.711132E-1	9.810364E-1	9.928986E-1	9.800228E-1	1.024161E+0	1.007673E+0	9.783296E-1	1.001828E+0	1.038902E+0	9.773005E-1	1.016513E+0	9.893003E-1	1.037515E+0	9.988759E-1	1.004741E+0	1.003238E+0	1.015892E+0	1.024740E+0	9.619719E-1	1.029080E+0	1.028031E+0	9.842769E-1	9.895506E-1	1.011144E+0	1.009750E+0	1.003146E+0	9.745480E-1	9.928537E-1	9.830982E-1	1.025816E+0	1.013308E+0	9.616644E-1	9.955654E-1	9.605758E-1	9.887789E-1	9.980283E-1	1.018393E+0	1.009700E+0	9.997038E-1	1.016943E+0	1.009433E+0	9.713671E-1	1.009090E+0	9.832465E-1	9.988284E-1	1.002867E+0	9.818005E-1	9.924447E-1	9.725089E-1	9.877268E-1	9.634464E-1	1.019013E+0	9.751193E-1	9.950179E-1	9.945537E-1	1.004183E+0	9.966986E-1	9.863016E-1	9.881850E-1	9.965040E-1	1.018770E+0	9.933966E-1	1.007547E+0	9.677853E-1	9.661061E-1	1.014748E+0	9.958937E-1	9.559098E-1	1.018979E+0	9.910044E-1	9.628227E-1	9.852579E-1	1.004936E+0	9.944418E-1	9.694318E-1	1.014483E+0	9.764871E-1	1.002987E+0	1.002071E+0	9.863989E-1	9.944064E-1	1.031373E+0	1.025767E+0	9.838724E-1	9.892062E-1	1.025195E+0	9.769959E-1	1.043688E+0	9.733462E-1	1.038045E+0	9.745028E-1	9.981201E-1	9.664349E-1	1.023863E+0	1.019451E+0	9.909461E-1	9.743049E-1	9.488103E-1	1.006457E+0	9.805995E-1	1.018179E+0	9.576249E-1	1.001300E+0	1.006443E+0	1.004845E+0	9.696425E-1	9.545425E-1	9.810311E-1	1.031106E+0	9.546764E-1	1.005719E+0	1.011188E+0	9.948570E-1	9.739799E-1	9.913764E-1	1.008540E+0	1.017225E+0	9.861971E-1	1.012335E+0	1.049190E+0	9.953073E-1	1.019379E+0	1.019775E+0	9.849164E-1	9.497246E-1
5.585160E+2	1.044278E+0	9.799182E-1	1.002972E+0	9.798754E-1	9.935094E-1	1.003979E+0	9.445918E-1	9.910665E-1	9.633115E-1	9.980753E-1	1.004056E+0	9.872096E-1	9.892444E-1	9.775471E-1	9.867585E-1	1.018330E+0	1.000923E+0	9.922961E-1	9.629552E-1	9.884456E-1	1.020797E+0	9.873331E-1	1.035705E+0	1.014390E+0	9.919327E-1	9.839534E-1	1.021378E+0	1.007727E+0	1.000515E+0	1.014480E+0	1.011650E+0	9.748056E-1	9.966494E-1	1.043089E+0	9.836895E-1	9.900013E-1	1.019956E+0	9.771283E-1	9.785645E-1	1.001290E+0	1.008860E+0	9.607553E-1	1.052943E+0	9.789351E-1	9.993830E-1	9.851054E-1	1.006358E+0	1.004125E+0	9.759475E-1	9.861284E-1	9.941053E-1	9.921792E-1	1.005371E+0	1.002410E+0	9.879479E-1	1.006236E+0	1.037246E+0	9.723838E-1	1.009238E+0	1.042540E+0	9.945791E-1	9.766257E-1	9.851233E-1	9.955990E-1	9.806097E-1	9.920296E-1	9.825859E-1	9.608873E-1	9.874124E-1	1.008090E+0	1.015142E+0	9.960477E-1	1.057112E+0	9.733571E-1	9.904020E-1	9.723196E-1	1.018750E+0	9.819294E-1	1.019089E+0	1.003880E+0	9.902964E-1	9.735663E-1	9.813138E-1	9.845819E-1	9.878280E-1	9.906469E-1	9.870265E-1	9.979259E-1	9.996246E-1	9.997285E-1	9.890092E-1	9.653499E-1	1.020924E+0	1.043297E+0	9.855690E-1	9.395509E-1	9.994641E-1	9.964302E-1	1.011855E+0	9.681537E-1	1.035222E+0	1.004958E+0	1.002843E+0	1.011154E+0	1.000758E+0	1.032662E+0	9.613815E-1	1.030707E+0	1.025683E+0	1.005957E+0	1.001159E+0	1.008530E+0	1.025797E+0	1.036574E+0	1.014677E+0	9.718652E-1	1.048010E+0	1.009954E+0	1.006303E+0	9.851385E-1	1.010842E+0	9.893305E-1	1.026860E+0	1.001301E+0	1.031033E+0	9.873106E-1	9.510565E-1	9.965556E-1	1.006926E+0	9.655402E-1	1.019814E+0	1.014112E+0	1.022774E+0	1.020305E+0	1.027597E+0	1.041383E+0	1.023571E+0	1.038197E+0	1.004308E+0	1.007858E+0	1.001816E+0	1.025986E+0	1.030012E+0	9.877623E-1	1.002857E+0	1.007515E+0	1.005811E+0	1.009118E+0	1.014329E+0	1.020010E+0	1.009316E+0	9.933672E-1	1.038742E+0	1.002411E+0	9.748846E-1	1.004579E+0	1.002783E+0	9.977430E-1	9.937400E-1	1.009941E+0	9.885780E-1	9.893401E-1	9.842171E-1	1.039602E+0	1.005181E+0	1.016382E+0	9.717114E-1	9.836773E-1	1.036783E+0	1.087820E+0
5.590210E+2	9.911665E-1	9.829159E-1	9.806544E-1	1.008729E+0	1.011399E+0	9.971493E-1	1.013605E+0	9.982515E-1	1.036006E+0	1.045819E+0	9.911814E-1	1.010999E+0	1.005997E+0	1.016371E+0	1.028157E+0	9.910519E-1	1.016766E+0	1.005864E+0	1.007413E+0	1.063523E+0	1.026325E+0	1.038245E+0	1.029663E+0	1.004677E+0	9.745867E-1	1.015265E+0	1.021939E+0	9.934991E-1	9.812684E-1	1.011796E+0	1.028956E+0	1.007029E+0	1.040406E+0	1.005407E+0	1.019407E+0	1.032109E+0	1.042332E+0	1.047120E+0	1.019379E+0	9.770773E-1	1.033133E+0	9.591660E-1	9.921722E-1	9.995635E-1	9.916671E-1	1.048746E+0	1.012722E+0	9.827460E-1	1.016137E+0	1.010485E+0	9.959349E-1	9.967704E-1	1.045498E+0	1.010997E+0	1.039906E+0	1.033661E+0	1.000486E+0	1.003136E+0	9.956826E-1	9.902053E-1	1.007638E+0	1.010744E+0	9.924263E-1	1.032394E+0	1.017123E+0	1.030570E+0	1.028125E+0	1.017855E+0	9.895919E-1	9.901347E-1	1.004480E+0	1.010037E+0	1.004859E+0	9.893078E-1	1.015531E+0	1.048763E+0	1.028541E+0	1.027877E+0	1.015125E+0	9.807741E-1	1.020523E+0	1.022485E+0	9.768204E-1	9.873518E-1	1.000006E+0	1.002011E+0	1.061300E+0	1.022796E+0	9.727018E-1	9.959707E-1	1.025678E+0	1.035236E+0	1.056390E+0	1.037409E+0	1.013976E+0	1.026351E+0	1.049973E+0	1.042878E+0	1.008073E+0	1.007767E+0	1.015601E+0	1.021960E+0	1.022541E+0	1.015214E+0	9.885068E-1	9.742787E-1	9.521279E-1	1.017015E+0	1.045615E+0	9.830532E-1	1.035800E+0	1.033364E+0	1.050717E+0	1.005343E+0	1.003266E+0	1.019231E+0	1.008491E+0	1.045967E+0	1.009571E+0	1.003239E+0	1.035077E+0	1.023601E+0	9.616992E-1	1.009420E+0	1.010595E+0	1.006605E+0	1.012159E+0	9.936856E-1	1.052062E+0	9.934053E-1	1.006934E+0	9.978019E-1	1.000624E+0	1.007579E+0	1.032446E+0	1.013815E+0	1.005898E+0	1.019333E+0	9.958942E-1	1.008658E+0	9.910450E-1	1.010166E+0	9.686455E-1	1.002468E+0	1.013404E+0	9.971917E-1	9.591938E-1	1.014309E+0	1.020092E+0	9.561725E-1	1.048535E+0	1.044247E+0	9.750448E-1	1.023075E+0	1.022421E+0	1.011498E+0	1.028069E+0	9.963223E-1	1.035019E+0	1.020118E+0	1.014587E+0	1.001812E+0	9.998354E-1	1.000593E+0	9.560335E-1	1.037744E+0	1.012245E+0	9.902285E-1	1.019867E+0	9.899891E-1
5.595110E+2	1.031616E+0	1.007924E+0	1.016709E+0	1.027942E+0	1.040187E+0	1.026019E+0	1.059293E+0	1.025036E+0	1.013570E+0	1.004259E+0	1.012830E+0	1.066305E+0	1.011958E+0	1.040029E+0	9.940627E-1	1.016720E+0	1.031325E+0	9.976108E-1	9.932617E-1	9.876607E-1	9.927005E-1	9.969156E-1	1.048930E+0	9.995646E-1	1.053500E+0	1.015778E+0	1.058395E+0	1.020868E+0	1.025894E+0	1.022172E+0	1.015424E+0	1.001554E+0	1.052809E+0	1.025241E+0	1.037991E+0	1.019799E+0	1.008201E+0	1.016100E+0	1.006762E+0	1.045539E+0	1.012565E+0	1.036018E+0	9.952810E-1	1.015497E+0	1.029062E+0	9.852225E-1	1.019257E+0	1.031697E+0	1.025777E+0	1.018300E+0	1.030234E+0	1.027481E+0	1.011544E+0	9.818301E-1	1.006196E+0	1.009303E+0	1.016767E+0	9.895697E-1	1.014869E+0	9.962305E-1	1.043781E+0	1.009457E+0	1.021050E+0	1.039519E+0	1.045270E+0	1.008248E+0	1.011377E+0	1.007755E+0	1.029804E+0	1.018034E+0	9.992871E-1	1.045733E+0	1.015921E+0	1.092271E+0	1.055566E+0	1.036412E+0	1.038664E+0	1.041166E+0	1.040253E+0	1.024736E+0	1.033149E+0	9.915466E-1	1.041612E+0	1.052832E+0	1.035980E+0	1.000919E+0	1.019741E+0	1.048188E+0	1.059784E+0	1.042050E+0	1.001777E+0	1.046259E+0	9.940703E-1	1.000084E+0	1.088194E+0	1.066654E+0	1.009157E+0	1.009615E+0	1.033090E+0	1.010061E+0	1.015834E+0	1.040728E+0	1.015806E+0	1.011129E+0	1.023920E+0	9.769964E-1	1.110964E+0	1.022193E+0	9.899974E-1	1.032122E+0	1.030829E+0	1.030286E+0	9.392187E-1	1.009715E+0	1.026548E+0	1.044562E+0	1.047894E+0	9.721145E-1	1.057142E+0	1.025611E+0	1.034864E+0	1.040091E+0	1.049775E+0	9.993395E-1	1.024735E+0	1.032126E+0	1.038825E+0	9.942061E-1	1.028755E+0	1.034325E+0	1.010604E+0	1.015501E+0	1.022225E+0	1.033382E+0	1.002955E+0	1.006880E+0	1.040153E+0	1.013584E+0	9.999376E-1	9.957464E-1	1.004849E+0	1.036613E+0	1.019972E+0	1.038802E+0	1.005663E+0	9.877026E-1	1.017431E+0	1.041663E+0	9.857875E-1	1.011438E+0	1.039721E+0	1.042134E+0	9.900790E-1	1.048976E+0	1.069352E+0	1.021515E+0	1.044939E+0	1.031067E+0	1.010727E+0	1.002997E+0	1.039014E+0	1.067188E+0	1.025889E+0	1.024232E+0	1.035298E+0	1.012206E+0	1.042503E+0	1.017677E+0	9.794836E-1	1.026337E+0
5.600520E+2	9.821433E-1	1.027772E+0	1.007234E+0	1.002914E+0	1.024057E+0	1.019879E+0	1.044017E+0	1.021453E+0	9.957483E-1	1.025800E+0	1.039462E+0	1.004241E+0	1.020726E+0	1.028787E+0	9.967644E-1	1.016028E+0	1.026366E+0	1.032705E+0	1.005798E+0	1.026221E+0	1.070881E+0	1.012912E+0	1.011982E+0	1.048928E+0	1.053697E+0	1.052019E+0	1.009656E+0	1.020457E+0	1.059990E+0	1.022750E+0	1.023553E+0	1.045716E+0	9.842767E-1	1.009869E+0	1.020697E+0	1.016987E+0	1.013491E+0	1.042514E+0	1.042651E+0	1.057096E+0	1.007502E+0	1.063880E+0	1.055215E+0	9.790678E-1	9.938479E-1	1.053864E+0	1.012483E+0	1.001247E+0	1.023118E+0	1.024179E+0	9.992546E-1	1.030269E+0	1.038011E+0	9.877449E-1	1.046012E+0	1.014621E+0	1.008293E+0	1.052225E+0	1.041505E+0	9.732156E-1	9.967171E-1	1.005108E+0	1.019434E+0	9.822414E-1	1.035451E+0	1.023107E+0	1.017150E+0	9.974674E-1	1.000708E+0	1.014316E+0	9.929751E-1	1.032470E+0	1.003909E+0	1.019595E+0	9.980158E-1	1.017702E+0	1.039663E+0	1.005939E+0	1.025986E+0	1.011645E+0	9.766184E-1	9.844190E-1	1.030571E+0	9.912018E-1	1.031618E+0	1.036915E+0	1.012938E+0	1.015451E+0	1.026204E+0	1.001940E+0	1.006804E+0	1.037477E+0	1.010480E+0	9.865189E-1	1.048351E+0	9.910834E-1	9.993562E-1	9.867088E-1	1.021072E+0	1.008541E+0	1.023053E+0	1.005523E+0	1.045692E+0	1.003316E+0	1.057505E+0	1.041854E+0	1.030254E+0	1.013040E+0	1.006040E+0	1.011541E+0	9.968965E-1	1.007703E+0	1.011547E+0	1.028439E+0	1.018677E+0	1.026527E+0	1.008398E+0	1.013586E+0	1.033273E+0	1.030449E+0	9.674619E-1	1.004984E+0	1.033944E+0	1.002191E+0	9.965466E-1	1.003425E+0	1.011684E+0	1.043388E+0	9.983690E-1	1.029157E+0	1.026215E+0	1.035238E+0	9.784836E-1	1.013856E+0	1.027938E+0	9.840178E-1	9.885787E-1	9.924685E-1	1.014978E+0	1.044734E+0	1.058761E+0	1.018408E+0	9.715197E-1	1.030414E+0	9.996795E-1	1.026586E+0	1.065328E+0	1.013681E+0	1.010178E+0	1.042856E+0	9.641425E-1	1.004433E+0	1.007173E+0	1.018577E+0	1.020937E+0	1.004269E+0	9.929841E-1	1.018520E+0	1.042380E+0	1.032338E+0	1.010266E+0	9.928156E-1	1.034912E+0	1.045660E+0	9.794542E-1	1.031071E+0	1.040092E+0	1.021571E+0	1.046078E+0	1.033029E+0
5.605090E+2	9.663805E-1	1.016510E+0	1.015738E+0	9.881315E-1	9.752350E-1	1.003965E+0	1.002155E+0	9.880001E-1	9.902802E-1	9.734749E-1	9.732067E-1	1.038720E+0	9.879795E-1	9.695361E-1	1.032399E+0	1.007647E+0	1.001710E+0	1.036682E+0	1.012272E+0	1.043695E+0	9.889912E-1	1.001542E+0	1.013316E+0	1.004262E+0	9.736860E-1	9.861981E-1	1.002172E+0	9.876386E-1	1.034507E+0	1.047147E+0	9.967145E-1	1.021444E+0	9.584871E-1	9.964712E-1	9.590204E-1	1.011803E+0	1.012747E+0	1.030713E+0	1.019650E+0	1.013788E+0	1.016412E+0	9.769129E-1	9.938884E-1	9.971124E-1	1.015388E+0	9.822808E-1	1.024535E+0	9.877384E-1	9.715042E-1	9.702742E-1	1.027313E+0	9.592209E-1	9.831661E-1	1.027496E+0	1.025821E+0	1.001216E+0	1.009227E+0	1.000378E+0	9.893084E-1	9.864914E-1	9.999946E-1	1.035133E+0	9.857419E-1	9.761590E-1	9.930065E-1	9.790362E-1	9.884311E-1	9.866008E-1	9.840578E-1	9.505555E-1	1.025674E+0	9.825809E-1	1.041572E+0	1.009533E+0	9.599529E-1	9.955702E-1	9.956655E-1	1.035163E+0	9.835947E-1	1.038011E+0	1.018680E+0	9.992486E-1	1.020132E+0	1.033010E+0	9.744431E-1	1.003077E+0	1.022182E+0	9.906599E-1	1.028463E+0	1.010865E+0	1.031466E+0	9.838520E-1	9.560852E-1	9.716457E-1	9.850114E-1	1.027725E+0	9.726224E-1	1.035754E+0	9.853362E-1	1.003864E+0	9.684770E-1	9.905053E-1	1.020792E+0	9.602136E-1	1.018517E+0	1.001186E+0	9.875571E-1	9.961891E-1	1.003759E+0	1.039829E+0	1.000959E+0	1.018957E+0	9.907145E-1	9.998835E-1	9.972377E-1	1.026711E+0	9.955370E-1	1.014084E+0	1.003857E+0	9.797918E-1	1.010012E+0	1.001772E+0	9.953067E-1	1.013276E+0	9.810832E-1	1.010070E+0	1.010217E+0	1.008790E+0	9.545306E-1	1.019231E+0	1.024154E+0	1.024098E+0	1.027284E+0	1.000998E+0	1.001091E+0	1.000403E+0	9.913816E-1	9.966230E-1	1.005833E+0	9.796957E-1	1.020617E+0	1.024633E+0	1.011397E+0	9.741038E-1	1.011298E+0	9.871593E-1	1.025753E+0	9.997444E-1	9.962599E-1	9.991036E-1	1.007179E+0	1.027825E+0	9.884992E-1	9.974250E-1	1.023138E+0	9.977236E-1	1.014884E+0	9.993406E-1	9.883804E-1	9.972003E-1	9.882407E-1	1.000651E+0	1.012550E+0	9.858725E-1	9.695804E-1	1.031607E+0	9.941998E-1	1.016533E+0	9.494543E-1	9.911703E-1
5.610010E+2	9.890492E-1	9.890597E-1	9.881562E-1	1.013087E+0	1.035014E+0	1.000647E+0	9.501918E-1	9.854397E-1	1.020377E+0	9.687463E-1	1.011219E+0	9.477603E-1	1.009668E+0	1.005606E+0	1.016562E+0	9.941620E-1	1.011543E+0	1.021596E+0	1.005188E+0	9.918562E-1	9.826192E-1	1.013316E+0	9.999668E-1	1.018324E+0	9.663630E-1	9.755491E-1	9.471536E-1	1.006087E+0	9.670321E-1	9.713451E-1	1.001857E+0	1.010455E+0	9.943997E-1	9.864560E-1	1.012758E+0	9.607221E-1	9.842576E-1	1.002185E+0	9.933840E-1	9.838261E-1	9.820297E-1	1.051818E+0	9.910433E-1	9.608182E-1	9.952980E-1	9.887831E-1	9.845357E-1	9.855978E-1	9.776681E-1	1.009183E+0	9.859088E-1	1.021542E+0	9.776682E-1	1.016948E+0	9.761623E-1	9.789313E-1	9.947034E-1	1.003397E+0	9.991373E-1	1.011747E+0	9.819467E-1	1.014309E+0	9.976598E-1	1.039002E+0	9.995720E-1	9.963624E-1	1.002336E+0	1.014636E+0	1.037537E+0	1.013974E+0	9.711631E-1	1.006175E+0	9.479228E-1	9.679089E-1	1.010948E+0	1.031147E+0	9.931054E-1	1.002431E+0	1.001491E+0	9.920162E-1	9.970057E-1	1.010897E+0	1.005070E+0	1.009676E+0	9.913525E-1	1.011626E+0	9.921591E-1	1.009619E+0	9.473384E-1	9.902622E-1	1.021272E+0	9.914732E-1	1.000406E+0	9.946625E-1	1.010923E+0	1.029720E+0	9.751580E-1	9.932663E-1	1.022923E+0	1.019331E+0	1.003334E+0	9.901715E-1	9.803184E-1	1.000432E+0	9.816748E-1	1.006709E+0	9.982041E-1	1.004312E+0	9.990083E-1	9.984875E-1	9.709776E-1	1.002672E+0	1.000603E+0	9.749382E-1	1.009186E+0	9.440964E-1	9.554345E-1	1.003772E+0	9.751406E-1	1.015861E+0	9.681258E-1	9.809159E-1	1.022360E+0	9.978872E-1	9.647910E-1	1.023352E+0	9.822002E-1	9.843905E-1	1.002753E+0	9.967297E-1	9.606653E-1	9.967027E-1	9.713434E-1	1.019001E+0	9.571734E-1	1.020613E+0	1.000681E+0	9.803004E-1	9.975244E-1	9.855895E-1	9.664248E-1	9.787232E-1	1.013342E+0	1.058753E+0	9.924082E-1	9.946965E-1	9.821074E-1	9.940991E-1	1.022308E+0	1.048623E+0	9.892318E-1	9.699069E-1	1.010269E+0	9.935956E-1	1.015371E+0	9.586984E-1	9.668429E-1	9.928885E-1	1.026960E+0	9.845470E-1	1.002671E+0	9.710572E-1	9.838234E-1	1.000349E+0	1.016965E+0	9.804665E-1	9.878052E-1	9.814905E-1	1.006635E+0	8.913040E-1
