Photon Energy (eV)	#1	#2	#3	#4	#5	#6	#7	#8	#9	#10	#11	#12	#13	#14	#15	#16	#17	#18	#19	#20	#21	#22	#23	#24	#25	#26	#27	#28	#29	#30	#31	#32	#33	#34	#35	#36	#37	#38	#39	#40	#41	#42	#43	#44	#45	#46	#47	#48	#49	#50	#51	#52	#53	#54	#55	#56	#57	#58	#59	#60	#61	#62	#63	#64	#65	#66	#67	#68	#69	#70	#71	#72	#73	#74	#75	#76	#77	#78	#79	#80	#81	#82	#83	#84	#85	#86	#87	#88	#89	#90	#91	#92	#93	#94	#95	#96	#97	#98	#99	#100	#101	#102	#103	#104	#105	#106	#107	#108	#109	#110	#111	#112	#113	#114	#115	#116	#117	#118	#119	#120	#121	#122	#123	#124	#125	#126	#127	#128	#129	#130	#131	#132	#133	#134	#135	#136	#137	#138	#139	#140	#141	#142	#143	#144	#145	#146	#147	#148	#149	#150	#151	#152	#153	#154	#155	#156	#157	#158	#159	#160	#161	#162	#163	#164	#165	#166	#167	#168	#169	#170	#171	
5.300160E+2	-2.879519E-3	-5.203397E-3	-7.558316E-3	-1.767087E-3	-2.861586E-3	-1.519189E-2	-3.827300E-3	-1.017941E-2	6.006901E-4	-4.785832E-3	-7.454963E-3	-1.254339E-2	-7.453587E-3	-4.565660E-3	-6.533294E-3	-4.184485E-3	-5.013859E-3	-3.443940E-3	-3.914344E-3	4.163274E-3	-2.979871E-3	-7.504267E-4	-3.048729E-3	-4.736038E-3	-3.981833E-3	-1.414352E-3	9.882074E-4	-5.791755E-3	-3.621098E-3	-6.972648E-3	-7.389316E-3	-1.011533E-2	1.054363E-3	-2.642223E-3	-1.017874E-2	-6.056481E-3	-4.560741E-3	1.736317E-3	-7.932211E-3	-6.296770E-3	-8.148965E-3	-8.162643E-3	-1.263828E-2	-8.200201E-3	2.111505E-3	-9.379475E-3	-1.797696E-3	-1.067085E-2	-1.336677E-3	-2.822676E-3	8.734118E-3	-1.028338E-3	-6.727399E-3	-1.136661E-2	-3.053952E-3	-4.296685E-3	-3.980112E-3	3.520599E-3	-2.908340E-3	-1.573909E-3	-8.414732E-3	-2.966806E-3	-1.120261E-2	-4.627525E-4	-5.216128E-4	-6.849022E-3	-3.423011E-3	-6.056886E-3	-1.337988E-2	-1.006146E-2	-4.792575E-3	-7.121769E-3	-6.355606E-3	-1.427826E-3	-6.524155E-3	-5.976987E-3	-1.124557E-2	-1.291559E-3	-7.226972E-3	-4.684938E-3	-8.730753E-3	-8.696563E-3	-1.095325E-2	-4.263129E-3	-2.499168E-3	-7.882865E-3	-8.100384E-3	-1.633689E-3	-3.003123E-3	-8.076498E-3	-1.427569E-3	-1.215386E-2	-2.109588E-2	-4.966435E-3	-6.962352E-3	-5.583726E-3	-1.190305E-2	-2.952682E-3	-6.483215E-3	-9.780876E-3	-5.631679E-3	-9.947096E-3	-2.727155E-4	-8.008786E-3	-3.738171E-3	6.340945E-3	-2.684572E-3	-1.267829E-4	-1.728166E-3	-4.469406E-3	-1.247813E-3	-8.411184E-3	-8.092667E-3	-7.294061E-3	-5.899012E-3	-3.687924E-3	-4.287624E-3	-5.189445E-3	-1.614797E-2	-2.850056E-3	-5.395454E-3	-4.560172E-3	2.956406E-4	-3.850298E-3	-8.117270E-3	-9.818540E-3	-7.069360E-3	-9.034025E-3	-1.184829E-2	-4.209713E-3	-1.530997E-2	-4.011780E-3	-2.009186E-3	-1.304267E-3	-8.066799E-3	4.140360E-4	-6.888328E-3	-1.184461E-2	-7.557724E-3	-5.844195E-3	1.740716E-3	-8.379764E-4	-1.177335E-2	-3.583980E-3	-3.900982E-3	-1.333876E-3	-6.715278E-3	2.688087E-3	-8.238625E-3	-4.257734E-4	-1.040001E-2	3.403167E-3	-5.151853E-3	-7.392811E-3	-2.888821E-3	-5.224547E-3	-9.106751E-3	-1.026245E-2	-6.582999E-3	-9.624294E-3	-7.774437E-3	-7.301317E-3	-7.855326E-3	2.962930E-4	-4.069621E-3	-1.094620E-2	-4.926249E-3	-1.088088E-2	-1.444658E-2	-8.751131E-3	-5.183948E-3
5.305230E+2	-3.902712E-3	-6.063423E-4	2.521510E-3	-6.792622E-3	-6.312164E-3	-1.127057E-2	-1.769785E-3	-7.452015E-3	-9.670924E-3	-6.956520E-3	-8.783122E-4	1.884366E-3	-1.219509E-2	-8.410074E-3	-1.170760E-3	-5.509752E-3	-6.227208E-3	-4.130202E-3	-2.394612E-3	-6.595117E-3	-1.384594E-3	-5.572433E-3	-3.454627E-4	-4.832651E-3	9.982578E-5	-2.079815E-3	-3.369664E-3	-2.419670E-4	-8.441380E-3	-8.607899E-3	-1.214070E-2	-2.662021E-3	-4.465292E-3	-1.366453E-2	-3.197669E-3	-9.274158E-3	-6.070998E-3	-2.089905E-3	-1.513511E-3	7.698146E-4	-1.184540E-2	2.736681E-3	-8.254790E-3	-6.108377E-3	-5.770307E-3	-3.342939E-3	-2.369637E-3	-5.791798E-3	-2.482908E-3	3.868894E-3	-1.033686E-2	-3.241338E-3	-1.111535E-2	-5.995534E-3	-3.658917E-3	-4.852854E-3	-1.629870E-4	-6.932373E-3	-2.502685E-4	-2.852011E-3	-5.520292E-3	-2.154031E-3	1.753665E-3	1.071527E-2	-6.920940E-3	-6.959059E-3	-8.107355E-3	-5.005506E-3	3.366453E-4	1.513713E-3	2.935261E-3	-1.049223E-2	-1.478366E-3	-8.719936E-3	-7.699852E-3	9.917833E-4	-7.872347E-3	-4.748560E-3	-6.868633E-3	4.499729E-4	-9.382139E-3	-5.630766E-3	-3.039364E-3	2.377392E-3	-2.102288E-3	-1.219827E-2	-6.241975E-3	-1.267805E-2	-4.914812E-3	-1.561866E-3	-2.101506E-3	-8.171713E-3	-2.869188E-3	-5.066959E-3	7.791257E-3	-1.280382E-3	-1.661431E-3	-1.347005E-3	-6.178797E-4	5.768791E-4	2.901460E-4	5.428022E-3	-1.604389E-2	-6.136605E-3	-1.952462E-3	-6.000142E-3	-2.263220E-3	-1.234146E-2	-2.305167E-3	-1.015668E-2	-6.168818E-3	-3.480069E-3	-4.755009E-3	-7.378322E-3	-9.648829E-3	-5.975907E-3	1.300747E-3	-3.780150E-3	-9.187326E-3	-4.457789E-3	-7.766888E-3	-1.678269E-3	7.229914E-4	-3.380344E-3	-1.199249E-2	-1.263726E-4	-7.608906E-3	-9.987255E-3	-4.036549E-3	-3.199546E-3	5.062864E-3	-6.650303E-3	1.381521E-3	-1.417894E-3	-7.346811E-4	-1.192592E-3	-9.084389E-3	-1.077048E-2	-1.235490E-3	-8.677376E-3	-8.517158E-3	-5.254520E-3	3.472986E-3	-4.954107E-3	-3.507896E-3	7.133364E-4	-6.815395E-3	3.071592E-4	2.963880E-3	-5.970691E-3	-6.813330E-3	-1.001139E-2	-2.479780E-3	-1.937506E-3	-5.668649E-4	1.547280E-3	-2.505300E-3	-9.856357E-3	1.090049E-3	-1.823017E-3	-7.032450E-3	-1.926400E-3	-4.569423E-3	-5.907144E-3	-5.286877E-3	3.126082E-3	-2.443367E-3	1.025054E-3	-6.034484E-3	-6.483185E-3	-9.103322E-4
5.310050E+2	-8.573778E-3	-1.072141E-2	-5.252744E-3	-2.133488E-4	-7.065535E-4	1.118850E-3	-3.528461E-3	-1.472547E-3	-5.731068E-3	4.192412E-3	-6.575028E-3	-1.067824E-2	1.170723E-3	8.996173E-4	-4.912021E-3	7.091320E-3	3.554020E-3	-3.660768E-3	7.514520E-4	-7.702976E-3	-4.429496E-3	-3.049930E-3	-7.011940E-3	-7.967201E-3	3.616740E-3	-4.540662E-3	7.298005E-4	-6.494154E-3	-7.600741E-3	-7.162138E-3	4.019597E-3	-2.762731E-3	-1.055268E-2	7.392005E-3	-1.135918E-3	-4.190107E-3	-2.890661E-3	-1.123575E-3	-5.627360E-3	-8.273231E-3	-6.537106E-4	-2.532214E-3	6.158061E-3	-1.302974E-3	-1.999912E-4	-8.733396E-4	-3.413132E-3	2.768691E-3	3.554872E-3	-5.873223E-3	-4.729191E-3	-2.299395E-3	-4.334802E-3	8.455071E-4	-5.269561E-3	-7.246686E-3	-8.119709E-3	2.220460E-3	1.831426E-3	1.659074E-3	-9.614547E-3	-3.623805E-3	1.622606E-3	-1.383304E-2	-3.053129E-3	2.762819E-3	-8.799565E-3	-2.244052E-3	6.697099E-4	1.371159E-3	-1.234480E-2	-3.595137E-3	-6.597343E-3	-1.117738E-3	-3.524497E-3	-8.411202E-3	2.887259E-3	-2.965983E-3	2.010211E-3	-7.053971E-3	-2.883448E-3	-3.649574E-3	-7.426693E-3	-4.488275E-3	-8.246825E-3	2.885420E-3	-3.428565E-3	1.102711E-3	-7.414590E-3	1.861354E-3	-3.888003E-3	-1.888425E-3	-4.401088E-3	-1.220146E-2	-9.016170E-3	8.270227E-4	2.533374E-3	-9.283290E-4	-2.563792E-3	-9.492171E-3	3.392484E-3	-3.142727E-3	-3.134970E-3	3.574594E-3	-3.473970E-3	-7.240900E-3	-3.974824E-3	-1.459095E-3	-2.928350E-3	1.870070E-3	-6.276625E-3	-2.216087E-3	-2.580901E-3	-5.291899E-3	-4.761765E-3	1.650837E-4	-7.074491E-3	1.610897E-3	5.259426E-3	2.967451E-3	-2.308933E-3	1.785527E-3	2.717606E-3	-1.330752E-2	1.640076E-3	-3.656031E-3	3.406204E-3	4.955016E-4	6.546821E-3	5.581860E-4	-3.311217E-3	-3.694561E-3	-1.761221E-3	-1.020160E-3	-5.619134E-3	-4.799631E-3	-8.651452E-3	1.124282E-2	-5.846422E-3	-2.793580E-3	-3.212255E-4	-3.351868E-3	-1.941762E-3	-6.331142E-3	-3.122595E-3	-6.955127E-3	-4.313029E-3	-7.715865E-3	-5.797093E-3	-6.646765E-4	-4.303402E-3	3.651238E-3	2.378354E-3	-6.997731E-3	5.981480E-3	2.553601E-3	-4.670586E-3	-4.643577E-3	-2.408654E-3	-1.927427E-3	-8.818000E-3	-8.738982E-3	-3.004195E-3	-8.224932E-3	-4.455382E-3	-9.165138E-3	-5.046764E-4	3.298126E-3	-1.390055E-3	7.525911E-3	3.331906E-3
5.315130E+2	1.872539E-4	2.198909E-3	-1.309084E-2	-4.558114E-3	-1.104897E-3	6.315020E-3	-5.187317E-3	1.870296E-3	-7.274614E-3	-1.261381E-4	2.895456E-3	9.681930E-3	-2.023843E-3	-1.377808E-3	-6.708905E-3	-7.588217E-3	-3.072645E-3	-3.752964E-3	3.517985E-3	-8.786399E-3	7.255734E-4	2.241882E-3	-2.258563E-3	2.139344E-3	-6.345947E-3	-1.077432E-3	-4.583988E-3	3.250589E-3	4.755013E-3	-1.469933E-3	-2.878255E-3	-4.598545E-3	1.359803E-3	8.960772E-5	-5.549362E-3	4.923455E-4	-9.420825E-4	-9.143009E-3	-3.628620E-3	-3.741166E-3	1.948070E-3	-4.168880E-3	3.686356E-5	8.880905E-4	-2.282279E-3	-6.510926E-3	-5.437746E-4	8.911462E-4	-2.597074E-3	-2.542759E-3	-3.622582E-3	1.384754E-3	-4.246038E-3	1.946057E-3	-2.247993E-3	3.394437E-3	-4.295306E-3	-7.051405E-3	-2.101248E-3	-1.907947E-3	-1.601985E-3	-7.701320E-3	-6.697959E-3	-7.730245E-3	4.373010E-3	-3.257463E-3	1.470948E-3	2.975663E-3	-1.478358E-3	-1.582611E-3	2.450881E-3	4.496348E-3	1.191922E-3	-1.669494E-3	5.081347E-3	-1.949191E-4	4.014605E-3	-2.840852E-3	-5.126632E-3	-1.290764E-3	-1.804190E-3	1.144738E-3	7.059815E-3	-5.141344E-3	3.872478E-3	4.604068E-3	3.563344E-3	-6.351588E-3	-3.945522E-3	-3.665568E-3	1.072147E-3	2.817374E-3	-6.202874E-3	8.130630E-3	-3.268214E-3	-2.127471E-3	8.069733E-4	6.397894E-4	5.641504E-3	-5.666652E-3	-1.131139E-3	-3.746213E-3	4.154036E-4	-1.373440E-3	-3.507919E-3	-2.244797E-3	2.876719E-3	-3.857988E-4	-4.066642E-4	-3.658395E-3	-4.657903E-3	-1.617033E-3	6.618705E-3	1.009449E-2	-1.046900E-3	7.700456E-3	3.606423E-3	-4.336169E-3	3.961194E-3	-4.033524E-3	7.576352E-3	-4.248053E-3	-3.095585E-3	-5.630708E-4	5.627821E-3	-3.568637E-3	-3.940323E-3	-2.020555E-3	3.991347E-4	-1.821787E-5	4.620447E-3	-2.127993E-3	-1.161199E-3	-5.142855E-3	-2.394933E-3	3.809990E-3	4.595058E-3	-9.218595E-3	4.777452E-4	4.973590E-3	-4.832027E-3	7.494310E-3	-5.596211E-3	2.451796E-3	3.955283E-3	-6.428090E-3	-4.283545E-3	-6.678059E-3	-4.839616E-3	-5.012181E-3	5.834054E-3	-1.467206E-3	-4.851254E-3	9.095576E-3	-1.967315E-3	-7.212777E-3	-6.215526E-3	5.119005E-3	-4.808054E-3	-3.098130E-3	-4.306770E-4	1.511129E-2	2.146151E-3	1.745592E-3	3.607304E-3	-1.767749E-3	-6.162003E-3	-5.160233E-3	3.137258E-3	-2.469021E-3	3.991090E-3
5.320070E+2	3.122264E-3	8.963381E-3	5.473776E-3	5.641535E-3	5.868537E-3	1.129321E-2	5.952448E-3	-1.623768E-3	1.092482E-2	2.345108E-5	5.627860E-3	2.593606E-3	9.907648E-3	-4.333325E-3	5.435590E-3	7.054271E-3	-2.752181E-3	1.179448E-2	6.223686E-5	6.800876E-3	-7.427907E-4	4.758636E-4	7.090186E-3	6.268191E-3	-7.543411E-4	9.548757E-3	-3.684822E-3	3.515021E-3	4.971579E-3	4.535420E-3	2.986576E-3	7.547737E-3	4.696327E-3	-1.212900E-3	4.648071E-3	6.000793E-3	6.399816E-3	-1.889054E-4	-3.308978E-3	1.883276E-3	-2.432680E-3	1.024317E-2	-7.718802E-4	-1.017392E-3	-4.064545E-3	4.919127E-3	6.300613E-3	2.494625E-4	-4.888099E-3	7.654761E-5	8.816121E-3	1.688987E-3	9.812228E-3	9.666853E-3	2.545359E-3	2.681961E-3	4.473916E-3	9.111395E-3	4.338829E-3	-1.549917E-3	1.018293E-2	-1.903902E-3	1.041353E-2	4.359211E-3	6.400645E-3	4.204078E-3	-1.083001E-3	9.664006E-4	3.669616E-3	4.277351E-3	7.549148E-4	4.224933E-3	3.143964E-3	2.542996E-3	1.601450E-3	2.283954E-3	5.239765E-3	5.546058E-3	5.526573E-3	-3.697762E-3	4.054084E-3	5.119546E-3	1.417812E-3	8.456065E-4	2.609038E-3	4.854869E-3	1.117145E-2	3.915373E-3	1.773890E-3	1.251940E-3	-2.755249E-4	1.074913E-2	1.761053E-2	5.515205E-3	2.251029E-3	-6.204909E-4	1.689876E-3	2.755289E-3	-6.513791E-3	1.287355E-2	1.429715E-3	-2.403461E-3	1.255826E-3	2.863201E-3	9.044085E-3	1.396913E-3	-4.242936E-3	5.716573E-3	-2.628569E-3	9.263517E-3	5.826406E-3	4.990578E-3	2.295018E-3	-3.871948E-3	9.311446E-3	-4.907387E-5	3.335681E-3	6.999505E-3	1.324624E-2	1.299280E-3	6.403877E-3	-1.491667E-3	5.170918E-3	1.420936E-2	9.767512E-5	5.018680E-3	6.561028E-3	1.281871E-2	7.487393E-3	5.289515E-3	-5.390852E-4	6.850409E-3	2.101961E-3	-6.434702E-3	2.147267E-3	-1.483779E-3	4.322919E-3	1.046643E-2	6.650623E-3	-8.137363E-4	3.576131E-5	-5.870328E-4	2.200033E-3	2.197598E-3	1.903670E-4	1.458215E-3	6.185910E-3	2.750347E-3	-1.997893E-3	6.197442E-3	1.354772E-2	1.623773E-3	-3.418710E-3	-3.633128E-3	-9.885630E-4	1.750111E-3	9.574316E-3	6.308288E-3	8.542578E-4	7.672735E-3	1.274708E-2	-9.071639E-3	8.193602E-3	-3.529120E-3	3.345246E-3	4.218902E-4	-3.258957E-3	4.241452E-3	6.064412E-3	-1.558317E-3	3.692727E-3
5.325170E+2	1.204649E-2	5.368861E-3	1.790662E-2	7.689637E-3	5.116663E-3	7.735375E-3	8.360416E-3	1.885744E-2	1.115110E-2	7.652628E-3	6.384988E-3	9.061728E-3	1.059414E-2	1.778725E-2	1.388939E-2	3.136863E-3	1.351187E-2	3.193392E-3	1.977282E-3	1.212034E-2	8.811178E-3	6.655045E-3	5.574509E-3	9.128354E-3	7.365556E-3	-4.364949E-4	9.920466E-3	5.762266E-3	9.936627E-3	1.967720E-2	1.540209E-2	1.259089E-2	7.907482E-3	1.003804E-2	1.541362E-2	1.302761E-2	8.064667E-3	1.080908E-2	2.201068E-2	1.565808E-2	2.113268E-2	1.883882E-3	1.547003E-2	1.574085E-2	1.020562E-2	1.518755E-2	1.823627E-3	1.255335E-2	7.749886E-3	7.293217E-3	1.138393E-3	3.495329E-3	1.661136E-2	4.903723E-3	1.168507E-2	1.031983E-2	1.208420E-2	-8.686759E-4	-9.103984E-4	6.224710E-3	1.496862E-2	1.834986E-2	4.110771E-3	6.951559E-3	-2.779726E-4	1.009865E-2	1.994198E-2	9.364380E-3	1.018227E-2	4.481849E-3	1.099632E-2	1.248786E-2	1.009543E-2	1.039200E-2	1.106571E-2	1.130737E-2	6.976294E-3	6.300896E-3	1.168545E-2	1.627746E-2	1.874645E-2	1.171262E-2	1.294168E-2	1.066975E-2	6.366764E-3	7.736776E-3	3.036133E-3	1.564524E-2	1.750416E-2	1.019064E-2	6.620456E-3	8.647490E-3	1.695850E-2	8.589023E-3	9.204450E-3	8.785047E-3	8.534260E-3	1.832938E-3	1.053717E-2	1.148927E-2	1.650472E-3	1.381147E-2	1.778034E-2	9.081036E-3	3.628437E-3	7.747981E-3	1.028883E-2	8.596568E-3	9.996916E-3	7.150896E-3	1.252475E-2	1.073379E-2	6.514854E-3	1.374174E-2	1.204506E-2	1.847365E-3	3.119263E-3	4.695362E-3	2.868438E-3	7.074638E-3	1.491046E-3	1.019263E-2	-5.811571E-3	6.891870E-3	1.274419E-2	1.215090E-2	8.651356E-3	7.727628E-3	1.451491E-3	1.579776E-3	9.476963E-3	9.634228E-3	1.448124E-3	1.531988E-2	1.466828E-2	3.251975E-3	1.570619E-2	1.012442E-2	7.511267E-3	1.315530E-2	1.189393E-2	2.537087E-3	1.363831E-2	1.021983E-2	6.385823E-3	1.254554E-2	1.594134E-2	8.648330E-3	1.790935E-2	5.875879E-3	2.134973E-3	2.800420E-3	1.352324E-2	1.086560E-2	4.300845E-4	6.586333E-3	1.292385E-2	1.333509E-2	1.185540E-2	8.800133E-3	1.130848E-2	1.192704E-2	5.089191E-3	1.561931E-2	6.859330E-3	1.833112E-2	1.729525E-2	7.476477E-3	1.266944E-2	1.173574E-2	-4.921443E-3
5.330280E+2	1.859221E-2	1.780282E-2	2.024768E-2	2.231993E-2	1.620540E-2	3.275499E-2	1.819151E-2	2.415769E-2	2.298374E-2	2.461808E-2	1.408302E-2	2.643486E-2	1.767958E-2	2.024248E-2	2.833524E-2	2.411182E-2	3.586695E-2	2.850878E-2	2.512547E-2	2.752860E-2	2.477271E-2	2.002763E-2	1.944739E-2	2.157639E-2	2.428245E-2	2.847888E-2	1.896543E-2	3.484723E-2	2.529976E-2	2.748664E-2	2.020770E-2	1.926444E-2	3.261841E-2	1.555909E-2	2.641224E-2	2.722649E-2	1.663737E-2	2.114155E-2	3.081597E-2	3.590590E-2	2.638728E-2	2.284948E-2	2.167373E-2	1.726684E-2	1.901660E-2	2.077772E-2	3.136478E-2	2.157107E-2	2.494551E-2	2.796916E-2	2.731588E-2	3.071038E-2	2.028776E-2	1.555686E-2	2.303119E-2	1.686745E-2	3.366448E-2	2.673919E-2	2.025287E-2	3.431248E-2	1.545655E-2	3.309343E-2	2.120236E-2	2.177864E-2	2.147459E-2	2.765371E-2	2.478499E-2	2.454226E-2	2.796335E-2	1.622765E-2	1.276579E-2	2.501344E-2	2.476348E-2	2.962268E-2	2.646253E-2	1.622538E-2	1.298376E-2	2.627421E-2	2.466189E-2	3.158626E-2	3.618976E-2	1.566847E-2	2.724121E-2	1.446399E-2	3.093814E-2	2.986832E-2	2.848499E-2	1.822738E-2	1.925272E-2	3.445348E-2	4.005256E-2	8.415267E-3	3.106567E-2	2.446293E-2	2.624867E-2	2.835931E-2	1.333526E-2	2.316938E-2	1.702449E-2	9.687555E-3	1.670350E-2	2.634254E-2	3.065286E-2	2.915809E-2	3.655081E-2	1.904715E-2	3.172828E-2	3.210687E-2	1.900054E-2	1.642945E-2	2.449078E-2	1.358627E-2	2.726007E-2	2.462178E-2	1.558942E-2	2.120149E-2	2.410243E-2	1.991933E-2	1.809544E-2	2.184278E-2	2.226857E-2	1.850259E-2	2.783788E-2	1.312630E-2	2.782743E-2	2.066521E-2	1.761007E-2	2.444957E-2	3.000293E-2	2.718279E-2	2.986096E-2	3.296857E-2	2.057355E-2	1.530831E-2	2.928665E-2	3.227604E-2	3.883306E-2	2.182629E-2	2.791495E-2	2.640486E-2	3.093427E-2	1.875365E-2	2.022333E-2	2.706863E-2	2.146070E-2	2.127687E-2	2.718945E-2	3.498292E-2	2.519098E-2	3.286045E-2	2.405069E-2	1.921175E-2	1.904143E-2	2.763659E-2	2.238450E-2	2.100739E-2	2.338797E-2	2.811855E-2	1.825233E-2	2.544859E-2	2.883236E-2	2.599260E-2	2.280048E-2	2.680232E-2	2.253899E-2	2.693774E-2	1.730958E-2	2.125454E-2	3.226917E-2	1.277718E-2	9.315571E-3
5.331630E+2	3.035723E-2	2.638323E-2	3.114052E-2	2.834449E-2	3.488745E-2	3.907011E-2	3.022886E-2	3.485149E-2	3.252751E-2	3.390941E-2	3.945550E-2	2.667549E-2	3.633759E-2	2.517357E-2	3.447952E-2	3.131155E-2	3.722850E-2	3.691813E-2	2.270587E-2	3.242467E-2	4.207672E-2	1.566771E-2	1.874284E-2	2.616309E-2	3.043318E-2	3.889530E-2	2.901359E-2	3.143833E-2	3.554900E-2	2.617958E-2	3.036292E-2	2.905650E-2	2.811976E-2	3.898602E-2	2.400278E-2	2.858448E-2	1.837913E-2	4.144900E-2	2.644191E-2	2.508180E-2	3.189934E-2	2.998814E-2	2.546713E-2	3.213822E-2	3.408682E-2	1.905776E-2	2.203599E-2	3.472423E-2	3.307034E-2	4.955832E-2	2.593561E-2	3.154998E-2	2.704345E-2	2.731744E-2	2.077787E-2	2.644524E-2	4.306350E-2	2.700177E-2	3.026354E-2	2.173914E-2	2.896091E-2	2.309065E-2	2.426376E-2	2.060063E-2	2.770057E-2	2.586619E-2	2.633228E-2	1.966958E-2	4.529693E-2	3.087024E-2	1.964528E-2	4.229206E-2	1.609937E-2	3.951536E-2	2.953872E-2	4.923920E-2	2.339265E-2	2.927135E-2	2.074069E-2	1.842122E-2	2.524781E-2	2.877744E-2	2.975453E-2	2.579682E-2	2.760690E-2	3.442621E-2	1.775479E-2	3.520778E-2	3.298881E-2	2.698505E-2	4.033555E-2	1.548074E-2	2.833178E-2	3.859715E-2	2.792403E-2	3.907876E-2	3.529302E-2	2.578987E-2	2.940034E-2	3.254650E-2	4.006641E-2	3.507070E-2	3.153743E-2	3.453355E-2	2.966281E-2	2.368501E-2	3.821763E-2	2.863437E-2	2.687160E-2	3.332536E-2	2.270380E-2	3.467475E-2	3.750864E-2	3.698060E-2	3.193406E-2	2.161824E-2	3.224810E-2	2.823169E-2	2.873735E-2	2.931457E-2	3.200319E-2	2.430934E-2	3.299427E-2	3.058593E-2	2.608626E-2	3.075195E-2	2.685555E-2	2.283849E-2	2.745994E-2	4.207129E-2	3.115236E-2	3.786139E-2	2.166574E-2	3.213778E-2	2.388858E-2	3.811253E-2	3.532697E-2	2.566482E-2	3.356891E-2	2.754749E-2	2.969343E-2	2.203671E-2	2.943795E-2	2.284951E-2	2.774222E-2	2.217410E-2	2.911411E-2	2.899728E-2	2.713220E-2	3.107124E-2	2.444418E-2	2.914372E-2	4.756929E-2	3.150206E-2	2.416612E-2	2.083659E-2	3.569442E-2	3.629282E-2	3.189648E-2	2.736413E-2	3.254294E-2	1.530168E-2	2.834702E-2	3.166187E-2	1.521970E-2	3.999123E-2	2.867920E-2	4.425747E-2	1.381273E-2	2.046312E-2	3.982675E-2
5.333080E+2	3.317551E-2	2.948076E-2	3.805136E-2	4.076295E-2	3.247860E-2	3.052167E-2	4.562220E-2	4.303923E-2	2.828576E-2	3.079562E-2	3.820380E-2	3.768458E-2	4.401931E-2	3.745671E-2	3.966248E-2	4.280531E-2	4.049761E-2	3.026171E-2	3.754734E-2	3.128108E-2	3.228655E-2	3.456683E-2	3.551016E-2	3.374715E-2	3.888197E-2	3.989176E-2	4.950699E-2	4.862223E-2	3.026413E-2	4.008446E-2	3.466713E-2	3.206604E-2	4.619174E-2	3.770054E-2	3.267929E-2	3.960166E-2	3.705452E-2	3.120955E-2	3.714911E-2	4.619413E-2	3.126519E-2	4.226150E-2	2.351557E-2	3.589756E-2	3.611342E-2	3.320886E-2	4.114679E-2	4.257037E-2	4.990049E-2	4.335872E-2	3.393736E-2	4.492038E-2	5.010323E-2	3.779558E-2	5.109918E-2	3.253872E-2	3.380329E-2	3.767598E-2	3.116787E-2	5.167767E-2	4.322526E-2	3.607350E-2	3.859700E-2	4.655767E-2	2.804089E-2	3.187149E-2	1.962830E-2	5.441135E-2	2.997743E-2	3.058829E-2	3.317917E-2	4.248871E-2	3.174688E-2	3.439579E-2	3.654271E-2	3.090739E-2	2.889270E-2	2.217149E-2	2.854466E-2	2.911884E-2	5.051853E-2	2.573181E-2	3.678495E-2	4.686660E-2	4.300402E-2	4.289473E-2	2.876959E-2	4.186170E-2	4.740231E-2	3.774299E-2	3.970493E-2	1.937130E-2	3.948452E-2	5.016875E-2	3.427598E-2	4.101883E-2	3.976677E-2	2.678829E-2	2.728390E-2	2.247147E-2	3.511562E-2	4.792801E-2	3.786862E-2	3.210525E-2	3.398844E-2	2.155254E-2	4.161477E-2	3.355404E-2	4.512398E-2	3.572616E-2	3.838920E-2	3.523032E-2	4.319802E-2	3.981779E-2	2.445077E-2	3.929021E-2	3.952464E-2	4.123030E-2	3.646638E-2	4.727578E-2	3.111222E-2	3.513518E-2	4.641503E-2	4.457778E-2	3.625735E-2	2.868760E-2	4.202572E-2	4.500117E-2	3.186222E-2	3.870572E-2	3.573987E-2	4.361502E-2	2.928124E-2	2.540986E-2	4.321553E-2	4.535937E-2	3.259804E-2	3.368695E-2	2.841669E-2	3.699087E-2	3.021499E-2	4.384059E-2	3.896516E-2	3.263914E-2	4.137270E-2	3.221766E-2	3.574945E-2	4.272863E-2	3.702620E-2	3.640445E-2	2.268199E-2	3.797869E-2	3.747125E-2	3.319993E-2	3.412373E-2	3.758523E-2	3.940940E-2	3.717848E-2	3.692219E-2	3.058148E-2	5.073463E-2	4.251527E-2	4.328379E-2	5.023024E-2	2.988967E-2	3.496330E-2	3.345617E-2	3.555647E-2	4.708264E-2	4.270297E-2	3.870757E-2
5.334580E+2	3.366924E-2	5.047171E-2	5.149361E-2	4.764173E-2	4.868445E-2	5.276103E-2	3.946238E-2	4.266810E-2	4.336077E-2	6.901800E-2	3.908169E-2	5.244667E-2	6.615367E-2	4.309473E-2	4.896063E-2	5.561584E-2	4.512726E-2	4.892149E-2	5.770490E-2	6.076308E-2	5.078292E-2	5.160277E-2	4.511025E-2	5.138569E-2	5.013420E-2	5.851639E-2	4.362170E-2	5.022402E-2	5.143069E-2	5.045165E-2	4.796628E-2	4.535613E-2	5.603639E-2	4.823899E-2	5.118858E-2	5.131803E-2	5.669948E-2	4.765305E-2	5.564429E-2	5.656159E-2	5.076987E-2	5.601733E-2	3.808374E-2	5.943911E-2	6.149610E-2	5.515604E-2	4.783993E-2	5.550698E-2	4.622625E-2	5.437227E-2	5.285861E-2	6.376705E-2	5.037727E-2	5.486083E-2	5.719614E-2	5.448442E-2	5.113457E-2	5.049449E-2	3.991214E-2	4.887000E-2	5.894113E-2	5.310801E-2	3.717909E-2	6.226469E-2	5.672489E-2	5.756274E-2	5.838793E-2	4.915205E-2	5.812676E-2	5.208612E-2	3.830315E-2	5.292223E-2	4.943609E-2	5.843256E-2	4.986269E-2	6.044132E-2	5.471031E-2	5.071102E-2	4.146907E-2	5.664806E-2	6.285833E-2	4.888059E-2	6.192609E-2	4.527035E-2	4.561930E-2	5.599990E-2	5.499340E-2	4.039873E-2	5.716753E-2	4.457845E-2	5.060993E-2	6.062816E-2	4.517248E-2	4.251093E-2	5.379050E-2	5.333649E-2	4.819284E-2	5.941882E-2	5.139315E-2	6.032597E-2	4.593661E-2	5.173800E-2	4.394549E-2	5.431965E-2	6.603782E-2	5.286590E-2	6.115639E-2	4.811886E-2	5.407749E-2	5.057863E-2	5.208937E-2	6.026548E-2	4.395262E-2	5.463085E-2	6.274886E-2	5.676864E-2	5.370793E-2	4.363068E-2	6.828023E-2	5.240738E-2	5.627674E-2	5.696805E-2	5.454208E-2	5.116379E-2	5.558144E-2	5.064042E-2	4.723218E-2	5.211058E-2	4.814914E-2	5.349509E-2	5.469373E-2	5.197142E-2	4.618362E-2	4.661178E-2	4.818036E-2	5.761874E-2	6.015016E-2	5.373721E-2	5.237318E-2	3.938289E-2	5.006192E-2	5.498164E-2	5.482060E-2	5.222738E-2	4.385816E-2	4.333019E-2	4.284732E-2	6.249215E-2	5.072230E-2	6.342175E-2	5.206588E-2	4.576042E-2	5.343015E-2	5.460849E-2	5.305499E-2	4.882058E-2	6.198913E-2	5.963712E-2	5.085654E-2	5.867800E-2	3.775151E-2	4.438015E-2	4.282520E-2	5.647962E-2	5.175356E-2	4.586654E-2	6.152026E-2	4.562589E-2	5.173743E-2	3.193320E-2	6.667913E-2
5.336130E+2	6.848677E-2	6.361906E-2	6.190958E-2	7.900215E-2	7.210857E-2	6.533910E-2	6.686454E-2	6.896225E-2	6.812574E-2	8.165458E-2	6.463505E-2	6.299121E-2	5.441239E-2	6.057635E-2	6.155533E-2	6.204035E-2	7.085360E-2	6.354277E-2	5.714690E-2	7.991498E-2	5.776972E-2	7.338094E-2	7.206517E-2	5.900173E-2	6.555208E-2	7.194221E-2	6.202236E-2	8.150981E-2	7.453376E-2	5.095742E-2	5.895260E-2	6.819396E-2	6.386443E-2	7.584573E-2	7.282341E-2	6.771479E-2	5.964907E-2	6.927964E-2	7.836129E-2	6.579996E-2	5.702292E-2	6.586861E-2	4.499339E-2	5.661854E-2	6.731212E-2	7.505195E-2	6.610023E-2	7.890180E-2	6.350556E-2	6.534964E-2	6.982316E-2	7.454163E-2	7.247383E-2	6.316780E-2	6.391640E-2	7.561024E-2	5.676465E-2	6.325650E-2	7.380854E-2	7.060726E-2	7.984503E-2	6.150156E-2	7.385134E-2	6.907202E-2	8.282035E-2	7.172031E-2	4.958554E-2	8.509627E-2	6.686369E-2	6.057488E-2	7.001607E-2	6.158377E-2	7.258169E-2	8.091170E-2	5.586782E-2	5.989375E-2	6.890803E-2	5.695238E-2	6.956737E-2	8.346875E-2	6.227033E-2	4.888151E-2	7.450042E-2	7.837218E-2	7.330670E-2	6.298996E-2	6.107883E-2	5.910950E-2	5.043105E-2	6.649925E-2	6.412815E-2	5.759160E-2	6.389357E-2	5.573782E-2	7.275002E-2	7.344462E-2	6.520601E-2	6.510546E-2	5.979107E-2	6.582900E-2	6.485958E-2	6.614381E-2	6.155842E-2	7.340852E-2	6.661807E-2	6.980502E-2	7.022077E-2	8.077870E-2	7.117096E-2	6.231752E-2	7.557300E-2	6.462270E-2	5.668244E-2	7.492683E-2	6.918030E-2	5.442054E-2	6.457573E-2	5.862432E-2	6.070234E-2	5.757600E-2	6.868765E-2	6.536515E-2	7.017931E-2	5.818728E-2	6.150177E-2	5.568623E-2	7.761061E-2	7.568238E-2	6.709399E-2	7.450904E-2	7.870931E-2	7.437301E-2	6.633456E-2	6.208237E-2	6.889476E-2	7.405430E-2	7.042241E-2	8.757406E-2	8.042020E-2	6.404736E-2	7.992122E-2	7.075636E-2	7.446307E-2	7.532444E-2	5.346021E-2	6.245040E-2	7.024066E-2	8.039484E-2	7.348695E-2	7.464184E-2	6.942302E-2	6.183261E-2	7.489134E-2	7.479208E-2	6.354677E-2	8.090374E-2	7.256996E-2	6.835793E-2	8.812438E-2	7.137963E-2	6.155086E-2	6.643484E-2	7.106190E-2	6.492931E-2	6.753009E-2	7.422938E-2	5.947508E-2	6.815797E-2	5.953540E-2	6.705490E-2	5.834014E-2
5.337580E+2	1.100172E-1	1.052153E-1	9.951918E-2	9.364116E-2	9.695084E-2	8.985735E-2	7.919104E-2	1.213906E-1	1.053456E-1	9.665411E-2	9.121152E-2	9.773255E-2	9.711087E-2	1.031701E-1	9.208424E-2	9.153126E-2	1.133920E-1	1.030537E-1	1.003983E-1	1.223806E-1	1.076007E-1	9.328988E-2	9.757473E-2	9.635588E-2	1.038447E-1	1.071520E-1	1.068417E-1	9.013792E-2	1.102392E-1	1.046616E-1	1.046656E-1	9.807273E-2	1.104418E-1	1.149469E-1	9.592785E-2	1.138072E-1	1.083091E-1	1.046348E-1	8.743112E-2	9.510769E-2	9.143580E-2	9.776558E-2	1.015580E-1	1.111774E-1	9.721637E-2	9.532985E-2	1.020437E-1	1.101123E-1	1.022761E-1	1.161349E-1	8.229488E-2	1.061842E-1	1.110795E-1	1.082431E-1	1.050541E-1	1.175001E-1	1.045128E-1	1.159708E-1	1.002041E-1	1.015625E-1	1.016867E-1	9.576594E-2	9.918588E-2	1.163113E-1	1.170040E-1	9.535130E-2	1.037152E-1	9.539288E-2	1.010901E-1	1.026516E-1	8.656982E-2	1.056551E-1	1.075098E-1	1.208042E-1	8.753315E-2	1.199766E-1	8.388126E-2	9.647281E-2	9.964241E-2	9.290550E-2	9.972289E-2	1.050962E-1	1.044307E-1	9.868546E-2	9.938528E-2	9.602735E-2	9.583383E-2	9.603292E-2	1.051177E-1	9.616811E-2	9.915716E-2	1.103653E-1	1.129863E-1	1.274123E-1	8.874645E-2	1.070500E-1	1.001893E-1	1.024649E-1	1.315240E-1	9.064260E-2	1.070982E-1	1.114822E-1	1.073632E-1	1.054281E-1	1.005051E-1	9.892816E-2	1.002735E-1	1.019352E-1	1.023644E-1	1.109782E-1	1.033707E-1	9.361381E-2	1.060264E-1	1.018660E-1	1.046475E-1	1.157747E-1	8.838515E-2	9.146677E-2	1.231948E-1	1.074626E-1	1.058080E-1	1.250109E-1	9.808778E-2	1.128586E-1	8.862681E-2	1.036349E-1	1.124383E-1	1.066238E-1	1.026075E-1	1.097017E-1	8.560043E-2	1.071906E-1	1.135095E-1	1.025606E-1	1.153368E-1	1.027364E-1	1.048526E-1	8.732467E-2	9.854282E-2	9.421727E-2	9.370816E-2	9.098496E-2	1.110924E-1	1.127961E-1	1.126601E-1	9.563386E-2	1.138512E-1	1.167246E-1	1.219032E-1	1.085142E-1	1.057224E-1	1.022787E-1	1.167424E-1	1.094885E-1	1.194433E-1	9.819145E-2	1.083230E-1	1.087289E-1	1.120877E-1	8.034931E-2	1.023457E-1	1.099381E-1	9.799713E-2	9.801997E-2	1.019050E-1	1.012215E-1	1.070529E-1	1.027288E-1	8.186138E-2	1.117337E-1	8.884671E-2
5.339090E+2	1.664569E-1	1.667948E-1	1.648735E-1	1.648147E-1	1.393865E-1	1.591299E-1	1.604623E-1	1.671158E-1	1.572823E-1	1.563730E-1	1.642833E-1	1.671980E-1	1.686732E-1	1.687783E-1	1.569372E-1	1.753339E-1	1.740571E-1	1.739428E-1	1.557353E-1	1.490583E-1	1.570402E-1	1.667990E-1	1.696990E-1	1.357356E-1	1.729607E-1	1.913426E-1	1.513357E-1	1.715634E-1	1.603947E-1	1.632145E-1	1.586054E-1	1.565547E-1	1.866390E-1	1.668500E-1	1.615023E-1	1.520348E-1	1.584981E-1	1.708479E-1	1.858351E-1	1.641803E-1	1.503747E-1	1.635725E-1	1.602344E-1	1.446233E-1	1.660429E-1	1.721884E-1	1.652801E-1	1.642627E-1	1.665803E-1	1.532218E-1	1.924890E-1	1.538535E-1	1.723570E-1	1.424395E-1	1.900801E-1	1.573090E-1	1.669586E-1	1.631360E-1	1.532286E-1	1.650631E-1	1.789910E-1	1.608926E-1	1.498724E-1	1.680139E-1	1.581675E-1	1.474339E-1	1.935470E-1	1.575413E-1	1.716661E-1	1.371472E-1	1.825657E-1	1.594268E-1	1.607480E-1	1.709490E-1	1.508716E-1	1.447634E-1	1.611741E-1	1.596176E-1	1.715403E-1	1.660831E-1	1.805883E-1	1.691629E-1	1.718828E-1	1.653258E-1	1.586543E-1	1.563367E-1	1.724397E-1	1.751452E-1	1.594692E-1	1.617850E-1	1.825093E-1	1.476633E-1	1.601834E-1	1.610500E-1	1.716421E-1	1.709475E-1	1.394156E-1	1.709324E-1	1.891771E-1	1.577246E-1	1.589602E-1	1.784768E-1	1.763630E-1	1.860724E-1	1.724190E-1	1.580866E-1	1.617669E-1	1.747483E-1	1.717570E-1	1.629468E-1	1.685123E-1	1.554094E-1	1.530495E-1	1.462848E-1	1.597061E-1	1.613377E-1	1.725517E-1	1.696367E-1	1.867734E-1	1.485343E-1	1.626979E-1	1.920420E-1	1.619127E-1	1.664542E-1	1.602501E-1	1.672335E-1	1.647984E-1	1.761822E-1	1.904679E-1	1.750472E-1	1.709227E-1	1.609176E-1	1.831659E-1	1.667292E-1	1.722295E-1	1.639125E-1	1.653879E-1	1.849964E-1	1.426410E-1	1.709935E-1	1.760882E-1	1.611312E-1	1.512503E-1	1.734842E-1	1.555775E-1	1.831851E-1	1.649852E-1	1.762670E-1	1.768915E-1	1.486912E-1	1.501270E-1	1.675137E-1	1.745177E-1	1.735905E-1	1.798704E-1	1.448684E-1	1.849041E-1	1.708422E-1	1.623776E-1	1.534226E-1	1.610217E-1	1.696344E-1	1.581417E-1	1.586952E-1	1.650471E-1	1.702892E-1	1.782216E-1	1.640033E-1	1.715781E-1	1.618829E-1	1.731455E-1
5.340800E+2	2.599038E-1	2.916905E-1	2.549972E-1	3.138057E-1	2.783001E-1	2.756647E-1	2.871521E-1	2.844338E-1	3.023517E-1	3.020591E-1	2.977320E-1	2.640460E-1	2.756832E-1	2.677152E-1	2.761632E-1	2.866088E-1	2.778403E-1	2.849232E-1	2.801255E-1	3.048231E-1	2.797706E-1	2.758023E-1	2.566732E-1	2.613399E-1	2.906068E-1	3.039258E-1	2.750992E-1	2.640886E-1	2.712982E-1	2.735240E-1	2.740092E-1	2.856556E-1	3.120436E-1	2.841287E-1	2.871552E-1	2.918216E-1	2.757918E-1	2.784161E-1	2.749282E-1	2.917122E-1	2.598881E-1	2.683186E-1	2.552855E-1	2.636558E-1	2.653106E-1	2.743650E-1	2.947668E-1	2.873387E-1	2.542756E-1	2.972872E-1	3.052440E-1	2.910233E-1	3.099964E-1	2.578946E-1	2.961673E-1	2.873184E-1	2.834913E-1	2.882506E-1	2.935711E-1	2.774770E-1	2.733382E-1	2.898130E-1	2.691548E-1	2.957435E-1	2.941890E-1	2.807944E-1	2.778974E-1	2.910833E-1	2.774232E-1	2.767699E-1	2.790699E-1	2.774799E-1	2.630439E-1	2.581464E-1	2.795428E-1	2.861235E-1	2.652180E-1	3.149728E-1	2.799571E-1	2.467188E-1	2.798021E-1	2.678845E-1	2.930046E-1	3.011720E-1	3.086657E-1	2.789548E-1	3.001451E-1	2.660893E-1	2.857715E-1	2.715334E-1	2.872732E-1	2.730729E-1	3.016428E-1	2.598283E-1	2.673095E-1	2.828032E-1	2.618214E-1	2.724909E-1	2.937362E-1	2.842933E-1	3.152582E-1	3.020803E-1	2.849711E-1	2.893372E-1	2.889471E-1	2.722553E-1	3.006526E-1	2.697577E-1	2.611681E-1	2.977019E-1	2.695117E-1	2.766042E-1	2.991871E-1	2.863548E-1	2.893728E-1	2.630102E-1	2.715665E-1	2.701802E-1	2.923337E-1	2.915062E-1	2.947328E-1	2.875769E-1	2.808555E-1	2.611561E-1	2.691431E-1	2.867507E-1	2.737180E-1	2.995707E-1	2.893275E-1	2.956276E-1	2.794408E-1	2.888759E-1	2.747750E-1	2.742923E-1	2.997499E-1	2.846909E-1	2.853535E-1	2.983936E-1	2.845164E-1	2.660054E-1	2.813913E-1	2.860593E-1	2.712710E-1	2.800484E-1	2.940939E-1	2.966156E-1	2.851951E-1	2.904667E-1	2.813071E-1	2.830247E-1	2.839999E-1	3.040369E-1	2.861696E-1	3.177771E-1	3.040229E-1	3.058038E-1	2.912366E-1	2.843232E-1	2.810066E-1	2.846075E-1	2.819126E-1	2.922802E-1	2.750523E-1	2.645683E-1	2.902903E-1	2.782209E-1	2.889915E-1	2.768643E-1	2.903624E-1	2.756322E-1	3.135824E-1
5.342040E+2	4.123955E-1	4.180453E-1	4.296352E-1	4.335180E-1	4.422091E-1	4.254393E-1	4.390154E-1	4.679825E-1	4.147954E-1	4.433094E-1	4.684936E-1	4.337390E-1	4.164888E-1	4.513511E-1	4.402525E-1	4.253572E-1	4.450826E-1	4.410470E-1	4.419355E-1	4.624146E-1	4.355087E-1	4.546838E-1	4.666703E-1	4.613141E-1	4.383743E-1	4.533179E-1	4.353069E-1	4.710418E-1	4.346650E-1	4.188235E-1	4.669808E-1	3.960256E-1	4.450590E-1	4.420971E-1	4.445676E-1	4.633276E-1	4.347754E-1	4.209919E-1	4.364296E-1	4.400701E-1	4.309172E-1	4.445000E-1	4.165772E-1	4.349324E-1	4.286574E-1	4.428146E-1	4.456103E-1	4.726686E-1	4.596765E-1	4.232417E-1	4.393091E-1	4.167588E-1	4.256813E-1	4.169723E-1	4.426778E-1	4.452533E-1	4.744145E-1	4.584868E-1	4.017162E-1	4.421806E-1	4.436389E-1	4.406562E-1	4.392576E-1	4.377374E-1	4.380005E-1	3.976282E-1	4.248946E-1	4.822160E-1	4.114979E-1	4.252707E-1	4.114831E-1	4.472618E-1	4.383967E-1	4.019613E-1	4.400854E-1	4.479145E-1	4.230965E-1	4.290929E-1	4.278165E-1	4.324765E-1	4.407962E-1	4.639411E-1	4.440073E-1	4.596584E-1	4.740649E-1	4.401804E-1	4.651484E-1	4.410705E-1	3.992384E-1	4.684416E-1	4.462676E-1	4.199406E-1	4.253982E-1	4.342132E-1	4.537698E-1	4.240329E-1	4.513119E-1	4.471051E-1	4.716713E-1	4.144680E-1	4.381267E-1	4.308009E-1	4.338958E-1	4.294172E-1	4.426433E-1	4.332370E-1	4.305650E-1	4.374266E-1	4.840138E-1	4.128038E-1	4.631938E-1	4.382726E-1	4.541140E-1	4.584781E-1	4.663508E-1	4.378876E-1	4.444002E-1	4.138229E-1	4.308464E-1	4.195501E-1	4.282372E-1	4.329792E-1	4.534422E-1	4.253360E-1	4.700706E-1	4.365152E-1	4.708474E-1	4.343841E-1	4.318056E-1	4.441676E-1	4.448997E-1	4.117248E-1	4.403572E-1	4.587463E-1	4.367102E-1	4.545888E-1	4.633507E-1	4.460289E-1	4.121495E-1	4.383968E-1	4.432799E-1	4.256915E-1	4.721243E-1	4.398613E-1	4.291209E-1	4.609131E-1	4.414904E-1	4.669369E-1	4.057231E-1	4.375305E-1	4.343390E-1	4.424796E-1	4.516104E-1	4.236663E-1	4.390271E-1	4.399393E-1	4.805371E-1	4.439032E-1	4.291126E-1	4.552378E-1	4.476931E-1	4.476366E-1	4.386072E-1	4.412713E-1	4.406338E-1	4.518291E-1	4.523697E-1	4.289457E-1	4.279054E-1	4.094680E-1	4.803039E-1
5.343600E+2	7.504448E-1	7.933259E-1	7.756575E-1	7.858620E-1	7.981139E-1	8.154502E-1	7.703389E-1	8.012958E-1	7.728126E-1	8.298173E-1	7.422911E-1	7.594008E-1	8.054377E-1	7.988491E-1	7.929468E-1	7.814305E-1	7.987727E-1	7.832702E-1	8.157801E-1	8.269036E-1	8.135214E-1	8.316830E-1	8.185658E-1	7.869827E-1	8.020221E-1	7.957613E-1	7.879584E-1	7.911362E-1	7.597627E-1	7.844057E-1	8.054740E-1	7.813160E-1	8.066438E-1	8.112953E-1	7.927458E-1	8.150743E-1	7.992770E-1	7.947094E-1	7.796676E-1	8.119705E-1	8.066605E-1	7.769817E-1	7.726125E-1	8.122646E-1	7.873897E-1	8.021473E-1	8.039238E-1	8.182325E-1	7.901240E-1	8.218676E-1	7.838835E-1	7.991359E-1	7.561356E-1	7.650179E-1	7.962460E-1	7.994226E-1	7.914834E-1	7.388496E-1	7.858023E-1	7.715772E-1	7.489831E-1	7.883018E-1	7.917158E-1	7.743782E-1	7.680653E-1	7.804659E-1	7.950453E-1	8.198437E-1	8.053812E-1	8.021926E-1	7.789963E-1	8.151537E-1	7.595172E-1	7.695558E-1	7.471816E-1	7.655887E-1	7.813378E-1	7.673468E-1	8.037530E-1	7.390995E-1	7.793610E-1	7.682448E-1	8.094796E-1	7.698895E-1	7.509729E-1	7.724744E-1	8.281820E-1	7.853733E-1	7.829055E-1	7.886886E-1	7.624758E-1	7.875542E-1	8.348759E-1	7.303099E-1	7.713170E-1	7.709968E-1	7.857699E-1	7.693451E-1	8.173122E-1	7.965126E-1	7.812941E-1	7.619973E-1	7.857673E-1	7.909996E-1	7.776663E-1	7.875151E-1	8.013148E-1	7.806924E-1	7.487520E-1	7.792236E-1	7.473723E-1	8.026552E-1	7.700829E-1	7.641294E-1	8.039035E-1	7.809469E-1	7.698460E-1	7.843911E-1	8.267253E-1	7.699191E-1	7.795975E-1	7.708318E-1	7.742064E-1	8.114286E-1	7.829648E-1	7.869199E-1	7.891450E-1	7.619767E-1	7.968023E-1	7.932040E-1	7.930397E-1	8.005568E-1	7.760750E-1	7.465597E-1	8.032595E-1	7.894322E-1	7.778971E-1	8.471015E-1	7.443417E-1	8.110098E-1	7.885765E-1	7.778758E-1	8.019137E-1	8.199322E-1	7.626240E-1	7.900396E-1	7.877848E-1	7.973849E-1	7.643373E-1	7.944985E-1	7.539481E-1	8.311263E-1	7.709618E-1	8.129373E-1	7.942266E-1	7.764010E-1	8.006964E-1	7.961698E-1	7.845980E-1	7.807498E-1	7.721022E-1	7.935025E-1	8.039473E-1	7.795914E-1	8.194355E-1	7.476147E-1	7.915362E-1	7.886360E-1	7.907243E-1	8.387943E-1	7.367834E-1
5.345110E+2	1.119627E+0	1.133456E+0	1.134036E+0	1.152722E+0	1.159264E+0	1.146708E+0	1.150074E+0	1.142389E+0	1.109411E+0	1.185516E+0	1.169322E+0	1.090337E+0	1.137424E+0	1.248682E+0	1.170384E+0	1.140816E+0	1.153162E+0	1.179661E+0	1.153235E+0	1.125992E+0	1.153890E+0	1.134696E+0	1.140147E+0	1.143885E+0	1.145084E+0	1.204434E+0	1.147250E+0	1.115929E+0	1.159174E+0	1.128281E+0	1.131255E+0	1.168970E+0	1.146543E+0	1.118596E+0	1.130878E+0	1.179170E+0	1.127385E+0	1.170331E+0	1.116139E+0	1.192321E+0	1.138158E+0	1.120958E+0	1.118864E+0	1.133802E+0	1.124397E+0	1.164205E+0	1.073828E+0	1.151740E+0	1.096001E+0	1.149971E+0	1.161774E+0	1.138260E+0	1.128136E+0	1.115771E+0	1.154012E+0	1.179430E+0	1.193272E+0	1.138754E+0	1.095608E+0	1.111060E+0	1.113051E+0	1.165155E+0	1.137001E+0	1.131740E+0	1.126615E+0	1.095246E+0	1.153002E+0	1.172985E+0	1.092706E+0	1.118639E+0	1.120711E+0	1.154719E+0	1.157523E+0	1.146390E+0	1.166909E+0	1.111362E+0	1.140501E+0	1.198938E+0	1.106656E+0	1.129070E+0	1.168539E+0	1.148828E+0	1.127521E+0	1.152306E+0	1.078355E+0	1.115310E+0	1.153158E+0	1.216542E+0	1.091394E+0	1.136811E+0	1.144223E+0	1.149416E+0	1.156884E+0	1.133813E+0	1.185881E+0	1.150324E+0	1.170486E+0	1.121600E+0	1.140140E+0	1.099534E+0	1.123620E+0	1.098923E+0	1.156962E+0	1.185949E+0	1.141776E+0	1.190802E+0	1.143044E+0	1.100722E+0	1.153541E+0	1.142962E+0	1.151781E+0	1.147620E+0	1.133212E+0	1.178092E+0	1.142006E+0	1.124086E+0	1.148109E+0	1.112733E+0	1.165291E+0	1.180185E+0	1.122653E+0	1.185361E+0	1.147104E+0	1.093891E+0	1.152732E+0	1.111938E+0	1.124302E+0	1.108415E+0	1.163846E+0	1.164337E+0	1.109973E+0	1.080694E+0	1.170429E+0	1.125837E+0	1.146625E+0	1.223610E+0	1.166907E+0	1.191522E+0	1.131452E+0	1.168562E+0	1.130989E+0	1.154107E+0	1.144538E+0	1.144562E+0	1.142396E+0	1.123339E+0	1.148971E+0	1.213010E+0	1.121357E+0	1.116681E+0	1.141123E+0	1.169734E+0	1.108338E+0	1.160366E+0	1.152071E+0	1.165827E+0	1.145523E+0	1.121452E+0	1.121749E+0	1.113724E+0	1.116389E+0	1.125951E+0	1.115950E+0	1.148149E+0	1.180479E+0	1.128745E+0	1.151736E+0	1.155545E+0	1.108025E+0	1.114087E+0	1.117075E+0
5.346510E+2	1.594839E+0	1.537730E+0	1.577097E+0	1.653578E+0	1.591848E+0	1.630096E+0	1.591275E+0	1.598735E+0	1.566475E+0	1.609150E+0	1.617062E+0	1.583994E+0	1.563224E+0	1.619185E+0	1.613166E+0	1.636455E+0	1.590746E+0	1.600528E+0	1.569052E+0	1.596701E+0	1.600778E+0	1.610736E+0	1.621936E+0	1.631828E+0	1.577688E+0	1.666889E+0	1.605420E+0	1.642421E+0	1.615680E+0	1.551332E+0	1.634814E+0	1.623851E+0	1.629463E+0	1.572475E+0	1.556077E+0	1.589410E+0	1.555206E+0	1.600839E+0	1.594414E+0	1.578676E+0	1.587444E+0	1.566679E+0	1.592859E+0	1.595575E+0	1.547458E+0	1.597502E+0	1.593711E+0	1.605328E+0	1.573320E+0	1.638452E+0	1.585988E+0	1.619882E+0	1.533336E+0	1.565418E+0	1.637115E+0	1.606462E+0	1.655557E+0	1.577780E+0	1.566710E+0	1.571172E+0	1.572812E+0	1.601590E+0	1.660725E+0	1.588663E+0	1.635585E+0	1.533987E+0	1.595497E+0	1.578541E+0	1.592526E+0	1.556736E+0	1.562258E+0	1.641550E+0	1.614990E+0	1.596376E+0	1.548987E+0	1.600237E+0	1.600702E+0	1.630336E+0	1.525531E+0	1.556074E+0	1.615496E+0	1.598447E+0	1.601908E+0	1.575137E+0	1.630732E+0	1.570250E+0	1.549877E+0	1.595083E+0	1.566398E+0	1.612750E+0	1.611945E+0	1.616175E+0	1.631239E+0	1.548303E+0	1.572881E+0	1.584434E+0	1.592007E+0	1.558069E+0	1.596404E+0	1.610443E+0	1.565075E+0	1.568195E+0	1.525003E+0	1.609989E+0	1.571611E+0	1.589503E+0	1.563430E+0	1.580274E+0	1.590330E+0	1.624703E+0	1.611326E+0	1.543997E+0	1.599473E+0	1.537521E+0	1.626308E+0	1.598912E+0	1.554293E+0	1.528714E+0	1.538622E+0	1.560875E+0	1.569402E+0	1.573380E+0	1.532919E+0	1.616308E+0	1.564884E+0	1.574361E+0	1.548818E+0	1.589298E+0	1.605100E+0	1.567756E+0	1.567804E+0	1.567767E+0	1.474454E+0	1.587926E+0	1.535632E+0	1.555904E+0	1.556196E+0	1.503506E+0	1.555405E+0	1.632001E+0	1.553151E+0	1.489483E+0	1.605776E+0	1.563499E+0	1.565484E+0	1.586044E+0	1.544029E+0	1.649121E+0	1.560993E+0	1.575995E+0	1.518297E+0	1.581979E+0	1.547999E+0	1.616947E+0	1.580453E+0	1.584503E+0	1.544504E+0	1.532637E+0	1.596481E+0	1.492430E+0	1.533064E+0	1.664277E+0	1.524555E+0	1.510858E+0	1.560490E+0	1.567103E+0	1.616416E+0	1.693587E+0	1.475643E+0	1.583218E+0	1.652416E+0
5.348280E+2	1.852118E+0	1.821157E+0	1.841257E+0	1.923866E+0	1.796851E+0	1.902046E+0	1.885347E+0	1.860415E+0	1.841270E+0	1.901687E+0	1.838283E+0	1.934422E+0	1.847499E+0	1.864154E+0	1.873398E+0	1.936684E+0	1.969617E+0	1.845078E+0	1.841057E+0	1.880342E+0	1.844533E+0	1.904128E+0	1.897933E+0	1.897999E+0	1.850377E+0	1.880280E+0	1.871678E+0	1.900124E+0	1.878440E+0	1.862803E+0	1.894845E+0	1.912362E+0	1.923316E+0	1.878116E+0	1.890341E+0	1.932101E+0	1.810855E+0	1.840663E+0	1.847657E+0	1.916156E+0	1.884997E+0	1.832127E+0	1.840472E+0	1.895337E+0	1.809451E+0	1.845650E+0	1.818069E+0	1.962297E+0	1.806736E+0	1.911824E+0	1.921515E+0	1.887133E+0	1.798619E+0	1.895997E+0	1.893459E+0	1.926736E+0	1.904546E+0	1.863946E+0	1.857696E+0	1.874032E+0	1.831654E+0	1.843398E+0	1.878510E+0	1.892245E+0	1.817007E+0	1.796261E+0	1.804377E+0	1.891237E+0	1.795925E+0	1.884590E+0	1.829848E+0	1.921042E+0	1.911610E+0	1.816480E+0	1.806113E+0	1.876570E+0	1.914303E+0	1.854373E+0	1.791160E+0	1.869474E+0	1.874935E+0	1.842048E+0	1.896916E+0	1.897530E+0	1.816069E+0	1.866369E+0	1.851279E+0	1.887940E+0	1.817380E+0	1.836221E+0	1.863970E+0	1.896449E+0	1.873245E+0	1.857259E+0	1.909920E+0	1.865936E+0	1.909488E+0	1.799344E+0	1.857050E+0	1.813948E+0	1.882078E+0	1.806230E+0	1.767315E+0	1.850842E+0	1.835659E+0	1.861137E+0	1.774168E+0	1.866119E+0	1.789025E+0	1.812170E+0	1.837289E+0	1.848565E+0	1.871818E+0	1.831263E+0	1.828201E+0	1.815378E+0	1.825232E+0	1.754340E+0	1.833144E+0	1.841248E+0	1.825580E+0	1.910464E+0	1.804410E+0	1.865563E+0	1.815665E+0	1.787409E+0	1.872044E+0	1.803860E+0	1.935079E+0	1.813172E+0	1.830670E+0	1.855214E+0	1.752725E+0	1.810769E+0	1.824374E+0	1.826155E+0	1.833601E+0	1.855956E+0	1.835691E+0	1.855132E+0	1.837622E+0	1.797229E+0	1.797899E+0	1.817798E+0	1.844856E+0	1.822176E+0	1.747530E+0	1.884683E+0	1.799493E+0	1.845363E+0	1.795882E+0	1.856857E+0	1.836079E+0	1.819885E+0	1.838145E+0	1.827640E+0	1.820335E+0	1.789595E+0	1.794674E+0	1.795988E+0	1.828810E+0	1.907010E+0	1.900589E+0	1.844373E+0	1.830118E+0	1.784602E+0	1.817437E+0	1.855708E+0	1.756752E+0	1.801881E+0	1.852298E+0
5.349630E+2	2.060873E+0	2.014446E+0	2.048549E+0	1.988207E+0	2.012238E+0	2.038188E+0	2.008775E+0	1.996817E+0	2.044623E+0	1.999265E+0	2.050715E+0	2.009511E+0	2.045877E+0	2.034567E+0	2.002605E+0	2.067490E+0	2.061679E+0	2.026213E+0	1.991666E+0	2.036629E+0	2.014720E+0	2.082382E+0	1.976119E+0	1.988241E+0	2.017296E+0	2.035939E+0	1.930908E+0	2.005805E+0	2.033203E+0	1.962713E+0	2.003401E+0	2.038020E+0	2.059371E+0	2.110665E+0	1.980387E+0	2.005126E+0	1.937835E+0	1.984977E+0	2.001548E+0	1.958477E+0	2.022536E+0	2.036914E+0	2.012890E+0	2.065910E+0	1.967073E+0	1.990624E+0	1.946039E+0	2.029208E+0	2.016079E+0	2.034655E+0	1.934950E+0	2.124337E+0	2.010674E+0	1.946645E+0	1.954657E+0	1.950617E+0	2.024148E+0	1.967383E+0	1.985197E+0	1.954101E+0	2.003118E+0	1.968556E+0	1.967494E+0	1.992013E+0	2.049608E+0	1.920575E+0	2.044510E+0	1.964081E+0	1.996018E+0	1.962544E+0	2.031621E+0	1.996433E+0	2.056436E+0	1.946291E+0	1.971879E+0	2.022392E+0	2.042558E+0	1.982111E+0	1.936596E+0	1.986458E+0	2.037895E+0	1.981257E+0	1.985361E+0	2.047887E+0	1.963203E+0	1.961365E+0	1.996638E+0	2.014493E+0	2.011084E+0	1.972591E+0	1.989358E+0	2.007472E+0	1.946618E+0	1.937415E+0	1.963184E+0	1.958946E+0	1.979190E+0	1.925410E+0	2.034140E+0	2.039607E+0	1.982426E+0	1.993986E+0	1.970815E+0	2.012112E+0	1.951169E+0	1.961951E+0	1.960029E+0	1.995907E+0	1.937836E+0	1.944648E+0	2.014786E+0	1.947370E+0	1.996457E+0	2.003416E+0	1.918561E+0	1.975614E+0	1.929832E+0	1.908534E+0	1.962018E+0	2.038222E+0	2.015160E+0	1.968666E+0	1.973474E+0	1.902254E+0	1.973048E+0	1.988983E+0	1.908218E+0	1.949073E+0	1.916474E+0	1.913391E+0	1.999590E+0	1.986092E+0	1.949202E+0	1.910096E+0	1.985393E+0	1.948269E+0	1.908402E+0	1.985373E+0	1.920357E+0	1.949714E+0	1.917789E+0	1.960691E+0	1.969799E+0	2.012907E+0	1.930823E+0	1.928717E+0	1.931731E+0	2.019159E+0	1.913280E+0	2.029859E+0	1.981391E+0	2.013438E+0	1.937455E+0	1.939920E+0	1.957697E+0	1.921948E+0	1.951441E+0	1.874572E+0	1.999665E+0	1.886807E+0	1.964966E+0	1.987443E+0	1.991187E+0	1.942875E+0	1.933535E+0	1.905199E+0	1.871651E+0	2.001423E+0	1.924929E+0	1.923822E+0	2.016901E+0
5.351140E+2	1.852119E+0	1.840264E+0	1.826019E+0	1.833786E+0	1.820550E+0	1.879334E+0	1.811452E+0	1.848352E+0	1.899133E+0	1.820061E+0	1.835761E+0	1.811106E+0	1.776510E+0	1.897151E+0	1.775883E+0	1.840524E+0	1.826362E+0	1.813279E+0	1.805614E+0	1.816697E+0	1.847446E+0	1.814657E+0	1.832181E+0	1.836361E+0	1.842483E+0	1.915801E+0	1.804632E+0	1.847695E+0	1.828671E+0	1.847461E+0	1.844701E+0	1.799608E+0	1.896381E+0	1.825293E+0	1.868114E+0	1.836226E+0	1.760082E+0	1.836721E+0	1.793460E+0	1.851959E+0	1.765237E+0	1.770687E+0	1.803561E+0	1.824567E+0	1.781945E+0	1.789675E+0	1.832557E+0	1.841931E+0	1.806479E+0	1.827248E+0	1.881678E+0	1.892259E+0	1.788690E+0	1.786890E+0	1.859968E+0	1.791755E+0	1.813186E+0	1.759458E+0	1.799551E+0	1.814883E+0	1.797559E+0	1.813514E+0	1.774145E+0	1.875065E+0	1.784362E+0	1.754769E+0	1.792340E+0	1.879715E+0	1.765615E+0	1.784258E+0	1.769280E+0	1.835490E+0	1.839079E+0	1.788476E+0	1.710113E+0	1.808872E+0	1.783786E+0	1.786226E+0	1.784645E+0	1.792069E+0	1.837271E+0	1.876587E+0	1.806642E+0	1.780744E+0	1.830567E+0	1.804406E+0	1.809428E+0	1.775477E+0	1.856221E+0	1.714919E+0	1.795763E+0	1.848983E+0	1.850353E+0	1.789904E+0	1.773322E+0	1.780752E+0	1.807316E+0	1.810663E+0	1.810598E+0	1.744892E+0	1.742503E+0	1.701034E+0	1.768009E+0	1.809319E+0	1.750819E+0	1.761925E+0	1.786081E+0	1.789788E+0	1.823526E+0	1.790947E+0	1.797369E+0	1.793721E+0	1.824079E+0	1.758873E+0	1.794604E+0	1.827300E+0	1.747109E+0	1.784524E+0	1.770325E+0	1.834103E+0	1.802306E+0	1.836383E+0	1.738424E+0	1.786403E+0	1.732275E+0	1.746298E+0	1.845914E+0	1.858153E+0	1.866617E+0	1.789688E+0	1.797587E+0	1.776509E+0	1.789717E+0	1.739215E+0	1.812512E+0	1.783661E+0	1.723254E+0	1.824747E+0	1.797226E+0	1.788324E+0	1.779973E+0	1.781555E+0	1.755757E+0	1.768762E+0	1.772938E+0	1.737897E+0	1.783968E+0	1.763755E+0	1.765530E+0	1.775718E+0	1.755712E+0	1.781154E+0	1.757279E+0	1.788195E+0	1.816882E+0	1.766226E+0	1.781448E+0	1.716630E+0	1.677980E+0	1.743993E+0	1.760829E+0	1.771001E+0	1.790655E+0	1.740094E+0	1.774073E+0	1.772565E+0	1.781132E+0	1.773892E+0	1.776202E+0	1.745601E+0	1.928288E+0
5.352600E+2	1.741895E+0	1.701143E+0	1.751095E+0	1.711724E+0	1.738311E+0	1.795304E+0	1.712326E+0	1.802370E+0	1.763059E+0	1.748665E+0	1.774156E+0	1.700246E+0	1.738739E+0	1.747935E+0	1.730822E+0	1.745202E+0	1.812252E+0	1.728629E+0	1.718586E+0	1.737523E+0	1.750849E+0	1.753762E+0	1.735689E+0	1.726930E+0	1.735802E+0	1.779654E+0	1.692021E+0	1.738455E+0	1.745512E+0	1.727528E+0	1.730605E+0	1.724197E+0	1.838359E+0	1.753383E+0	1.735954E+0	1.704866E+0	1.770901E+0	1.714548E+0	1.747714E+0	1.718970E+0	1.695951E+0	1.717553E+0	1.739969E+0	1.726965E+0	1.718391E+0	1.727589E+0	1.726609E+0	1.744204E+0	1.732483E+0	1.754741E+0	1.718275E+0	1.725577E+0	1.715732E+0	1.712121E+0	1.732775E+0	1.743643E+0	1.718381E+0	1.722153E+0	1.701844E+0	1.706475E+0	1.755551E+0	1.715634E+0	1.775120E+0	1.807337E+0	1.715112E+0	1.748516E+0	1.682535E+0	1.663135E+0	1.751296E+0	1.723860E+0	1.697601E+0	1.706772E+0	1.765128E+0	1.684489E+0	1.665282E+0	1.743616E+0	1.714811E+0	1.693703E+0	1.695379E+0	1.713310E+0	1.742665E+0	1.673823E+0	1.691922E+0	1.775036E+0	1.693880E+0	1.685036E+0	1.706266E+0	1.716675E+0	1.751531E+0	1.673821E+0	1.765293E+0	1.727415E+0	1.723435E+0	1.715444E+0	1.664552E+0	1.734193E+0	1.710949E+0	1.779864E+0	1.728677E+0	1.730903E+0	1.688869E+0	1.668280E+0	1.680358E+0	1.722524E+0	1.676402E+0	1.742653E+0	1.699836E+0	1.748194E+0	1.680356E+0	1.730990E+0	1.710404E+0	1.713937E+0	1.701564E+0	1.752832E+0	1.763528E+0	1.686825E+0	1.639193E+0	1.654823E+0	1.682064E+0	1.669002E+0	1.742094E+0	1.755356E+0	1.657945E+0	1.731938E+0	1.717556E+0	1.706959E+0	1.724545E+0	1.690870E+0	1.772091E+0	1.705768E+0	1.707625E+0	1.713752E+0	1.694480E+0	1.685168E+0	1.719530E+0	1.710723E+0	1.681530E+0	1.715163E+0	1.715568E+0	1.756814E+0	1.713621E+0	1.676941E+0	1.652269E+0	1.698353E+0	1.742949E+0	1.722388E+0	1.646212E+0	1.792161E+0	1.663982E+0	1.718728E+0	1.614934E+0	1.707203E+0	1.764627E+0	1.668511E+0	1.750719E+0	1.712387E+0	1.702550E+0	1.696208E+0	1.691884E+0	1.731819E+0	1.653347E+0	1.738412E+0	1.683347E+0	1.729061E+0	1.722273E+0	1.677269E+0	1.651845E+0	1.644532E+0	1.633500E+0	1.665710E+0	1.734254E+0
5.354110E+2	1.395982E+0	1.377134E+0	1.344419E+0	1.431062E+0	1.413210E+0	1.413647E+0	1.444586E+0	1.420471E+0	1.393454E+0	1.399690E+0	1.418615E+0	1.346787E+0	1.386153E+0	1.398597E+0	1.404107E+0	1.414572E+0	1.511440E+0	1.397782E+0	1.452700E+0	1.378449E+0	1.381369E+0	1.384481E+0	1.431809E+0	1.412087E+0	1.371797E+0	1.407539E+0	1.401074E+0	1.376494E+0	1.376058E+0	1.377504E+0	1.420978E+0	1.362502E+0	1.415028E+0	1.455225E+0	1.370422E+0	1.413163E+0	1.413109E+0	1.399018E+0	1.370691E+0	1.365241E+0	1.368626E+0	1.374902E+0	1.432673E+0	1.406002E+0	1.438795E+0	1.377526E+0	1.401251E+0	1.401378E+0	1.391274E+0	1.360017E+0	1.432814E+0	1.332801E+0	1.402979E+0	1.395021E+0	1.399064E+0	1.369130E+0	1.493473E+0	1.365942E+0	1.377373E+0	1.367234E+0	1.420389E+0	1.393804E+0	1.326674E+0	1.411731E+0	1.365199E+0	1.386497E+0	1.421696E+0	1.432942E+0	1.392056E+0	1.412841E+0	1.407463E+0	1.344273E+0	1.484720E+0	1.336523E+0	1.421606E+0	1.386289E+0	1.401663E+0	1.385095E+0	1.420570E+0	1.378772E+0	1.432573E+0	1.379701E+0	1.319885E+0	1.399762E+0	1.393971E+0	1.408383E+0	1.388716E+0	1.374490E+0	1.393658E+0	1.350139E+0	1.377361E+0	1.353650E+0	1.410772E+0	1.380725E+0	1.351129E+0	1.391668E+0	1.412862E+0	1.353066E+0	1.379443E+0	1.436037E+0	1.384469E+0	1.413355E+0	1.397355E+0	1.388282E+0	1.301413E+0	1.378963E+0	1.315644E+0	1.360141E+0	1.355986E+0	1.390742E+0	1.358735E+0	1.351877E+0	1.351279E+0	1.398441E+0	1.385654E+0	1.378787E+0	1.358583E+0	1.377915E+0	1.355699E+0	1.422943E+0	1.445365E+0	1.354296E+0	1.366063E+0	1.374101E+0	1.415100E+0	1.352098E+0	1.346328E+0	1.375723E+0	1.407461E+0	1.391239E+0	1.347396E+0	1.377271E+0	1.343234E+0	1.332383E+0	1.409448E+0	1.371046E+0	1.327488E+0	1.324899E+0	1.355173E+0	1.297045E+0	1.392464E+0	1.366965E+0	1.354949E+0	1.392121E+0	1.375965E+0	1.325453E+0	1.371595E+0	1.409182E+0	1.356684E+0	1.320386E+0	1.386857E+0	1.363348E+0	1.355576E+0	1.345294E+0	1.482136E+0	1.388623E+0	1.382034E+0	1.366175E+0	1.398971E+0	1.326881E+0	1.388887E+0	1.415183E+0	1.388073E+0	1.331803E+0	1.387837E+0	1.351944E+0	1.324564E+0	1.352967E+0	1.399512E+0	1.225641E+0	1.347387E+0
5.355630E+2	1.265907E+0	1.219530E+0	1.258588E+0	1.222438E+0	1.245971E+0	1.250668E+0	1.295885E+0	1.249956E+0	1.291847E+0	1.248098E+0	1.238232E+0	1.243924E+0	1.279930E+0	1.276026E+0	1.281016E+0	1.292791E+0	1.278895E+0	1.269104E+0	1.246083E+0	1.288609E+0	1.301828E+0	1.250577E+0	1.248020E+0	1.274311E+0	1.252956E+0	1.291982E+0	1.205088E+0	1.291928E+0	1.213874E+0	1.205073E+0	1.288103E+0	1.295872E+0	1.270777E+0	1.369248E+0	1.250916E+0	1.265112E+0	1.211515E+0	1.285897E+0	1.233020E+0	1.275768E+0	1.304362E+0	1.234353E+0	1.265304E+0	1.273098E+0	1.277963E+0	1.281608E+0	1.280865E+0	1.274792E+0	1.282955E+0	1.257561E+0	1.274515E+0	1.249777E+0	1.258507E+0	1.243718E+0	1.250921E+0	1.256848E+0	1.290172E+0	1.250079E+0	1.197762E+0	1.246706E+0	1.310865E+0	1.212073E+0	1.305060E+0	1.274844E+0	1.326908E+0	1.247819E+0	1.237662E+0	1.272786E+0	1.246478E+0	1.202672E+0	1.312376E+0	1.272692E+0	1.312955E+0	1.232002E+0	1.212553E+0	1.241511E+0	1.272969E+0	1.284499E+0	1.292918E+0	1.240559E+0	1.262985E+0	1.252247E+0	1.259469E+0	1.307550E+0	1.287818E+0	1.286902E+0	1.220885E+0	1.304984E+0	1.289691E+0	1.270638E+0	1.295903E+0	1.269791E+0	1.234105E+0	1.206173E+0	1.250158E+0	1.216826E+0	1.274546E+0	1.224048E+0	1.269809E+0	1.326135E+0	1.248157E+0	1.229268E+0	1.217471E+0	1.235781E+0	1.272396E+0	1.233659E+0	1.256215E+0	1.261270E+0	1.220654E+0	1.222688E+0	1.220934E+0	1.261778E+0	1.247863E+0	1.258488E+0	1.243116E+0	1.223192E+0	1.250057E+0	1.271972E+0	1.261693E+0	1.282073E+0	1.275713E+0	1.308300E+0	1.219381E+0	1.254136E+0	1.267435E+0	1.237156E+0	1.291578E+0	1.204128E+0	1.285383E+0	1.273178E+0	1.242274E+0	1.211179E+0	1.244674E+0	1.260367E+0	1.293783E+0	1.225314E+0	1.315029E+0	1.192007E+0	1.260405E+0	1.248796E+0	1.282106E+0	1.234220E+0	1.249270E+0	1.273603E+0	1.277484E+0	1.216195E+0	1.229489E+0	1.273385E+0	1.232122E+0	1.298365E+0	1.273509E+0	1.288843E+0	1.255256E+0	1.258241E+0	1.274583E+0	1.253623E+0	1.276387E+0	1.231226E+0	1.221991E+0	1.215780E+0	1.252382E+0	1.227786E+0	1.242850E+0	1.250247E+0	1.284165E+0	1.266018E+0	1.242892E+0	1.289326E+0	1.241758E+0	1.321100E+0	1.289057E+0
5.357190E+2	9.883910E-1	1.040509E+0	1.017427E+0	9.939966E-1	9.545896E-1	1.017646E+0	9.886189E-1	1.006672E+0	1.011808E+0	1.041733E+0	1.010051E+0	9.842757E-1	1.022897E+0	9.650819E-1	1.029446E+0	9.606052E-1	1.052371E+0	9.827597E-1	9.836814E-1	1.003836E+0	1.019733E+0	1.013353E+0	9.961381E-1	9.874479E-1	9.413775E-1	1.002640E+0	1.014732E+0	1.011679E+0	9.582894E-1	1.022332E+0	1.002361E+0	9.811485E-1	9.976927E-1	1.041315E+0	1.035635E+0	1.061486E+0	9.535306E-1	1.078782E+0	9.821901E-1	9.804845E-1	1.012584E+0	1.020570E+0	1.031533E+0	9.613879E-1	9.972149E-1	9.857067E-1	9.750602E-1	1.028912E+0	1.018191E+0	1.014175E+0	1.023295E+0	1.050116E+0	9.732080E-1	9.585092E-1	1.000336E+0	1.020427E+0	1.058032E+0	9.323545E-1	1.028395E+0	1.020239E+0	1.071644E+0	9.643450E-1	9.978926E-1	1.005219E+0	1.022803E+0	1.030538E+0	1.035033E+0	1.015072E+0	9.842265E-1	9.902241E-1	1.018743E+0	1.021106E+0	1.072483E+0	9.429782E-1	1.001142E+0	1.015946E+0	9.892210E-1	1.032947E+0	1.001293E+0	9.871642E-1	1.027564E+0	9.969561E-1	1.005930E+0	1.050173E+0	1.017648E+0	1.011035E+0	9.629436E-1	1.007391E+0	1.018026E+0	1.038394E+0	1.022822E+0	1.052050E+0	1.029835E+0	9.906761E-1	9.857133E-1	1.004885E+0	1.051624E+0	9.698301E-1	1.059578E+0	9.950122E-1	1.021436E+0	9.817522E-1	9.867408E-1	1.000425E+0	1.037192E+0	1.004007E+0	9.826018E-1	1.021916E+0	9.801961E-1	1.028447E+0	9.921896E-1	9.830537E-1	1.008401E+0	1.040430E+0	9.960801E-1	9.935505E-1	9.584307E-1	9.937589E-1	1.024547E+0	1.009291E+0	9.946222E-1	1.030656E+0	1.004772E+0	9.700225E-1	9.839039E-1	1.040619E+0	9.766760E-1	9.386327E-1	1.059393E+0	1.026176E+0	9.860328E-1	9.855308E-1	9.940458E-1	1.015508E+0	1.005763E+0	1.024957E+0	9.974471E-1	9.896363E-1	1.003032E+0	1.005401E+0	1.007097E+0	9.998254E-1	1.068953E+0	1.006922E+0	9.942132E-1	9.975688E-1	1.000800E+0	1.039284E+0	1.004979E+0	1.030182E+0	9.988362E-1	1.015765E+0	1.001485E+0	1.040560E+0	1.030680E+0	9.740553E-1	1.016230E+0	9.956959E-1	1.027104E+0	9.769517E-1	9.933304E-1	1.122385E+0	1.031816E+0	1.006524E+0	1.057349E+0	9.755569E-1	9.926375E-1	1.060123E+0	9.497840E-1	1.027379E+0	1.057369E+0
5.358600E+2	8.874507E-1	8.604517E-1	8.676812E-1	8.864280E-1	8.636702E-1	9.254518E-1	8.852440E-1	8.998503E-1	8.981575E-1	9.310313E-1	9.027450E-1	8.880436E-1	9.311666E-1	8.863003E-1	8.735164E-1	9.373263E-1	8.788801E-1	8.945677E-1	9.437222E-1	9.119084E-1	8.972080E-1	9.234240E-1	9.007808E-1	9.086046E-1	8.741767E-1	9.318984E-1	8.787807E-1	8.828859E-1	8.909382E-1	8.757675E-1	8.946320E-1	8.872454E-1	9.028432E-1	9.433833E-1	9.257045E-1	8.400271E-1	9.393822E-1	8.627614E-1	9.022382E-1	9.070404E-1	8.762675E-1	8.946579E-1	9.219709E-1	9.032995E-1	9.462025E-1	8.970350E-1	8.936946E-1	9.224225E-1	8.831417E-1	9.098877E-1	9.183556E-1	9.010626E-1	8.898202E-1	9.002509E-1	9.042150E-1	9.021132E-1	9.049872E-1	8.866189E-1	8.972425E-1	8.767252E-1	8.664678E-1	8.901961E-1	8.718692E-1	9.006136E-1	9.104275E-1	8.830605E-1	9.651608E-1	9.247089E-1	9.004588E-1	8.680188E-1	8.487204E-1	9.130163E-1	9.589968E-1	9.230025E-1	9.113113E-1	9.239780E-1	9.028101E-1	9.096679E-1	8.654801E-1	8.769419E-1	9.300329E-1	8.906332E-1	8.765880E-1	9.126931E-1	8.685039E-1	9.116174E-1	9.009960E-1	8.822957E-1	9.166579E-1	9.073989E-1	9.312938E-1	9.331245E-1	9.049946E-1	8.979859E-1	8.932951E-1	9.107286E-1	9.293847E-1	8.819976E-1	8.899497E-1	9.192653E-1	9.012232E-1	8.759233E-1	9.055489E-1	9.336096E-1	9.088977E-1	9.279965E-1	9.099104E-1	9.188307E-1	9.032523E-1	9.074097E-1	8.737994E-1	8.979797E-1	8.820766E-1	8.865820E-1	9.292231E-1	8.792622E-1	9.177852E-1	8.972154E-1	9.000368E-1	8.965810E-1	8.751050E-1	9.351150E-1	8.563265E-1	9.008617E-1	9.298691E-1	8.797027E-1	9.281479E-1	8.660526E-1	9.213120E-1	8.848160E-1	9.149634E-1	8.528333E-1	9.140448E-1	8.598784E-1	9.172626E-1	8.952699E-1	8.754322E-1	9.109862E-1	8.971595E-1	8.782449E-1	9.400351E-1	8.722788E-1	9.088696E-1	8.824419E-1	8.976101E-1	8.954260E-1	8.397230E-1	9.234431E-1	8.938808E-1	9.147479E-1	8.912999E-1	8.700361E-1	8.627691E-1	9.175805E-1	9.194468E-1	8.543869E-1	8.912006E-1	8.978719E-1	9.363746E-1	8.645277E-1	9.132479E-1	9.194028E-1	8.788647E-1	9.219469E-1	8.812125E-1	8.910494E-1	8.794733E-1	9.216809E-1	8.535025E-1	9.063345E-1	8.844711E-1
5.360070E+2	7.455708E-1	6.835060E-1	7.135089E-1	6.868688E-1	6.974764E-1	7.125060E-1	6.863032E-1	7.015366E-1	7.130837E-1	6.781501E-1	7.667250E-1	7.196189E-1	7.305377E-1	7.202545E-1	6.918461E-1	7.075558E-1	7.254000E-1	7.167427E-1	7.240557E-1	7.224770E-1	7.173819E-1	6.945018E-1	6.804445E-1	7.032432E-1	7.023270E-1	6.864033E-1	6.934366E-1	7.327760E-1	7.073810E-1	7.338044E-1	7.304503E-1	7.055635E-1	7.321069E-1	7.183145E-1	6.903347E-1	7.020109E-1	6.974819E-1	6.886874E-1	7.062972E-1	7.233686E-1	6.869062E-1	7.062946E-1	6.892179E-1	7.059216E-1	7.296794E-1	6.888510E-1	7.245738E-1	7.076763E-1	7.097642E-1	7.012585E-1	7.235328E-1	7.631939E-1	6.953544E-1	7.114598E-1	6.895051E-1	6.916509E-1	7.471098E-1	7.135244E-1	7.471195E-1	6.922351E-1	7.409382E-1	7.342101E-1	7.034957E-1	6.976110E-1	7.262075E-1	7.105899E-1	7.033750E-1	7.419695E-1	7.144258E-1	7.248597E-1	7.525379E-1	7.311608E-1	7.154063E-1	6.904377E-1	6.807878E-1	7.373315E-1	7.248778E-1	7.013132E-1	6.879649E-1	7.010191E-1	7.380403E-1	7.088090E-1	7.067225E-1	7.098489E-1	7.065473E-1	7.343795E-1	7.121561E-1	6.918274E-1	7.095986E-1	6.959091E-1	7.041506E-1	7.529621E-1	6.821121E-1	7.018209E-1	7.399447E-1	7.243353E-1	7.406927E-1	6.855729E-1	7.322532E-1	7.243520E-1	7.134908E-1	7.016276E-1	7.167003E-1	7.106997E-1	7.128525E-1	7.176732E-1	7.109715E-1	6.923664E-1	7.038774E-1	7.043499E-1	7.321718E-1	7.069312E-1	7.159211E-1	7.187109E-1	7.485550E-1	6.876139E-1	7.005629E-1	6.796079E-1	7.354991E-1	7.203132E-1	7.102100E-1	7.149709E-1	7.203509E-1	7.273291E-1	7.294254E-1	7.360188E-1	6.885376E-1	7.438504E-1	7.123310E-1	7.553110E-1	7.198317E-1	7.226624E-1	7.071503E-1	7.129524E-1	7.441834E-1	7.112948E-1	7.169793E-1	6.889120E-1	7.391960E-1	7.216003E-1	7.240600E-1	7.333581E-1	7.226052E-1	7.365146E-1	6.964404E-1	6.862514E-1	7.048441E-1	7.360170E-1	6.716756E-1	7.156501E-1	7.140929E-1	6.849312E-1	7.034206E-1	7.191603E-1	7.483594E-1	7.098331E-1	7.292421E-1	6.991826E-1	6.554636E-1	6.940811E-1	6.918892E-1	7.417642E-1	7.052301E-1	7.201041E-1	7.272003E-1	7.360809E-1	7.296667E-1	7.181275E-1	7.387699E-1	6.956789E-1	7.757222E-1
5.362840E+2	5.787180E-1	5.920428E-1	5.907747E-1	6.021671E-1	5.796970E-1	5.826154E-1	5.815274E-1	5.819484E-1	5.917598E-1	5.803194E-1	5.847179E-1	5.718348E-1	6.228777E-1	5.643766E-1	6.204404E-1	5.866902E-1	5.989068E-1	6.302586E-1	5.752417E-1	5.952079E-1	5.947838E-1	5.596357E-1	6.174100E-1	6.009491E-1	6.103820E-1	6.116603E-1	5.853817E-1	5.357045E-1	5.756245E-1	5.502704E-1	5.844226E-1	6.063504E-1	5.944338E-1	6.098427E-1	5.722500E-1	6.094873E-1	5.940705E-1	5.884092E-1	5.754321E-1	5.921811E-1	5.733017E-1	5.707805E-1	6.209606E-1	5.670018E-1	5.627293E-1	5.763246E-1	6.045211E-1	6.167760E-1	5.837300E-1	5.841495E-1	5.854812E-1	5.921820E-1	5.728998E-1	5.866425E-1	5.884877E-1	5.752130E-1	6.211123E-1	5.983100E-1	5.896131E-1	5.871109E-1	5.912256E-1	6.080801E-1	5.915462E-1	5.646340E-1	6.124287E-1	5.621001E-1	5.926211E-1	5.900405E-1	6.180912E-1	5.727419E-1	5.594920E-1	5.967719E-1	5.739552E-1	5.872982E-1	5.811131E-1	5.846141E-1	5.767848E-1	5.935310E-1	5.787550E-1	5.838720E-1	6.345967E-1	5.960323E-1	5.892106E-1	5.703416E-1	6.178397E-1	6.128388E-1	5.929699E-1	5.809729E-1	5.475309E-1	5.811728E-1	5.983459E-1	5.977239E-1	5.841380E-1	5.976672E-1	6.181895E-1	5.770399E-1	5.974748E-1	6.249006E-1	6.152382E-1	5.986782E-1	6.181356E-1	5.766674E-1	5.751156E-1	6.004321E-1	5.780246E-1	5.775840E-1	5.757751E-1	6.009939E-1	5.836571E-1	5.940781E-1	5.841565E-1	6.044883E-1	5.819451E-1	5.650143E-1	5.921838E-1	6.047521E-1	5.828881E-1	5.727748E-1	5.991177E-1	5.944514E-1	6.053703E-1	6.135799E-1	5.691137E-1	5.702486E-1	5.812500E-1	5.749390E-1	6.027249E-1	5.760404E-1	5.895362E-1	6.105336E-1	6.414201E-1	5.861612E-1	5.939282E-1	5.789116E-1	6.075383E-1	5.829931E-1	6.238495E-1	6.060909E-1	6.137899E-1	6.004048E-1	6.177537E-1	5.829690E-1	6.024228E-1	5.791652E-1	6.117401E-1	5.842057E-1	5.824615E-1	6.247159E-1	6.049515E-1	6.078016E-1	5.998278E-1	5.990815E-1	5.757140E-1	5.893890E-1	5.968600E-1	6.220758E-1	5.418271E-1	5.688561E-1	6.141969E-1	5.972870E-1	6.146346E-1	6.093373E-1	6.049890E-1	6.046018E-1	5.768665E-1	5.997882E-1	5.859068E-1	5.887403E-1	6.322419E-1	5.802828E-1	5.853010E-1
5.365090E+2	4.282769E-1	4.547573E-1	4.564955E-1	4.766084E-1	4.423742E-1	4.667833E-1	4.114139E-1	4.568520E-1	4.775226E-1	4.625956E-1	4.701154E-1	4.651807E-1	4.488294E-1	4.633498E-1	4.385021E-1	4.373482E-1	5.077123E-1	4.751473E-1	4.874476E-1	4.624712E-1	4.649046E-1	4.383675E-1	4.443559E-1	4.680636E-1	4.445535E-1	4.672253E-1	4.407417E-1	4.741064E-1	4.837598E-1	4.710304E-1	4.515122E-1	4.425073E-1	4.593219E-1	4.641005E-1	4.354611E-1	4.494908E-1	4.462323E-1	4.899025E-1	4.335712E-1	4.606071E-1	4.660472E-1	4.452160E-1	4.311289E-1	4.433647E-1	4.631982E-1	4.601940E-1	4.654460E-1	4.594019E-1	4.672600E-1	4.473279E-1	4.823102E-1	4.723334E-1	4.805767E-1	4.429031E-1	4.489283E-1	4.119794E-1	4.714529E-1	4.508216E-1	4.318706E-1	4.642149E-1	4.692116E-1	4.450954E-1	4.521543E-1	4.551513E-1	4.720376E-1	4.517232E-1	4.449630E-1	4.718758E-1	4.554854E-1	4.589321E-1	4.479382E-1	4.881888E-1	4.907623E-1	4.622171E-1	4.433022E-1	4.533341E-1	4.549871E-1	4.502579E-1	4.420391E-1	4.752244E-1	4.610727E-1	4.556223E-1	4.952532E-1	4.649191E-1	4.307340E-1	4.313136E-1	4.726484E-1	4.374616E-1	4.827198E-1	4.720905E-1	4.615926E-1	4.613886E-1	4.697888E-1	4.747058E-1	4.509175E-1	4.518021E-1	4.828236E-1	4.340718E-1	4.671098E-1	4.731022E-1	4.661446E-1	4.450042E-1	4.594091E-1	4.656185E-1	4.546311E-1	4.620214E-1	4.662110E-1	4.801926E-1	4.427415E-1	4.762430E-1	4.452365E-1	4.597283E-1	4.758507E-1	4.806536E-1	4.454933E-1	4.547421E-1	4.258816E-1	4.701548E-1	4.635042E-1	4.768400E-1	4.774748E-1	4.733344E-1	4.730450E-1	5.008897E-1	4.569628E-1	4.750198E-1	4.247746E-1	4.683173E-1	4.682264E-1	4.938547E-1	4.561121E-1	4.616165E-1	4.559606E-1	4.509605E-1	4.935980E-1	4.624681E-1	4.836386E-1	4.915834E-1	4.604203E-1	4.570430E-1	4.767523E-1	4.720358E-1	4.454167E-1	4.482238E-1	4.414782E-1	4.513074E-1	4.535109E-1	4.235212E-1	4.636867E-1	4.863787E-1	4.626624E-1	4.738685E-1	4.251692E-1	4.496234E-1	4.719635E-1	4.828755E-1	4.869951E-1	4.940919E-1	4.848228E-1	4.696222E-1	4.657190E-1	4.756194E-1	4.413411E-1	4.761287E-1	4.540110E-1	4.605176E-1	4.766324E-1	4.553656E-1	4.683027E-1	4.960617E-1	4.506883E-1
5.367660E+2	4.768203E-1	4.695876E-1	4.723285E-1	4.783301E-1	4.872198E-1	4.947445E-1	4.834086E-1	4.480474E-1	4.447743E-1	4.706142E-1	4.756811E-1	4.781099E-1	4.611841E-1	4.654412E-1	4.937495E-1	4.736354E-1	4.573810E-1	4.893777E-1	4.649651E-1	4.794077E-1	4.468990E-1	4.520803E-1	4.607209E-1	4.615717E-1	4.500758E-1	4.629513E-1	4.462236E-1	5.073533E-1	4.376409E-1	4.792145E-1	4.525933E-1	4.566917E-1	4.789518E-1	4.804863E-1	4.695835E-1	4.682392E-1	4.549604E-1	4.513652E-1	4.412943E-1	4.469901E-1	4.920366E-1	4.639745E-1	4.716431E-1	4.549330E-1	4.708915E-1	4.376316E-1	4.541811E-1	4.667572E-1	4.421288E-1	4.804295E-1	4.779853E-1	5.136632E-1	5.100669E-1	4.803046E-1	4.720264E-1	4.692788E-1	4.905922E-1	4.615675E-1	4.572503E-1	4.620969E-1	4.698981E-1	4.796382E-1	4.676155E-1	4.462528E-1	4.792866E-1	4.973130E-1	4.527698E-1	4.870557E-1	4.728582E-1	4.638630E-1	4.517178E-1	4.570560E-1	4.750982E-1	4.706709E-1	4.640711E-1	4.793810E-1	4.763276E-1	5.106817E-1	4.703597E-1	4.633508E-1	5.088390E-1	4.587374E-1	4.713720E-1	4.665099E-1	4.854105E-1	4.530746E-1	4.613158E-1	4.653332E-1	4.740633E-1	4.822125E-1	4.852344E-1	4.677725E-1	4.533995E-1	5.002999E-1	4.732417E-1	4.815171E-1	4.886959E-1	4.896252E-1	5.010525E-1	4.545537E-1	4.659172E-1	4.801897E-1	4.586694E-1	4.925324E-1	4.753103E-1	4.642218E-1	4.676614E-1	5.165032E-1	4.670149E-1	4.998886E-1	4.736937E-1	4.809043E-1	4.637451E-1	4.824006E-1	4.906084E-1	4.797732E-1	4.764332E-1	4.905925E-1	4.559934E-1	4.652688E-1	4.816852E-1	5.329346E-1	4.708640E-1	4.677703E-1	4.481068E-1	5.173060E-1	4.960025E-1	4.748165E-1	4.821465E-1	4.633335E-1	4.465580E-1	4.640047E-1	4.649514E-1	4.744117E-1	5.067592E-1	4.897185E-1	4.627542E-1	4.656353E-1	4.804190E-1	4.413079E-1	4.646285E-1	4.832187E-1	4.988226E-1	4.615178E-1	4.774400E-1	4.691131E-1	5.023436E-1	4.624491E-1	4.707867E-1	4.752456E-1	4.660997E-1	4.632421E-1	4.582270E-1	5.514192E-1	4.769937E-1	4.964977E-1	4.994121E-1	4.929915E-1	4.680828E-1	4.687446E-1	4.874438E-1	4.988669E-1	4.799948E-1	4.674723E-1	4.625100E-1	4.747251E-1	4.684335E-1	4.577692E-1	4.656102E-1	4.866478E-1	4.718081E-1
5.370170E+2	4.850827E-1	4.720765E-1	5.058230E-1	4.979453E-1	4.765964E-1	5.090575E-1	5.083984E-1	4.738438E-1	4.799995E-1	4.802622E-1	4.710435E-1	4.766623E-1	4.582693E-1	5.089844E-1	4.659701E-1	4.928981E-1	5.047641E-1	4.908629E-1	5.196782E-1	4.720010E-1	4.884967E-1	5.024005E-1	4.690051E-1	5.071125E-1	4.755352E-1	5.160876E-1	4.823488E-1	5.014650E-1	4.815479E-1	4.995803E-1	4.864955E-1	4.692332E-1	4.800407E-1	5.212771E-1	4.964793E-1	5.318718E-1	4.669591E-1	5.146666E-1	5.216770E-1	4.933531E-1	4.637905E-1	4.792842E-1	5.095875E-1	4.920034E-1	4.878599E-1	4.823277E-1	4.975818E-1	4.992313E-1	5.190276E-1	4.998792E-1	4.654701E-1	5.106115E-1	4.701988E-1	4.800396E-1	4.813914E-1	4.513863E-1	4.784279E-1	5.104991E-1	4.730165E-1	4.697598E-1	4.825730E-1	5.060493E-1	4.904399E-1	4.831653E-1	4.620736E-1	4.827847E-1	4.774442E-1	4.505998E-1	4.837098E-1	4.920513E-1	4.901160E-1	4.757834E-1	5.121033E-1	4.930482E-1	4.700946E-1	4.998193E-1	4.963524E-1	4.883920E-1	4.673611E-1	4.805035E-1	5.241477E-1	5.021418E-1	5.043224E-1	5.097103E-1	4.781493E-1	4.947238E-1	4.984690E-1	4.800538E-1	4.848338E-1	5.090405E-1	5.087203E-1	5.029618E-1	4.778854E-1	5.023050E-1	5.132462E-1	4.779226E-1	4.801184E-1	5.145872E-1	4.912980E-1	5.094299E-1	5.025328E-1	4.716424E-1	4.967207E-1	4.919524E-1	4.840438E-1	4.926327E-1	4.641216E-1	4.606539E-1	4.456516E-1	5.005655E-1	4.948370E-1	4.848911E-1	5.052044E-1	5.218932E-1	4.940845E-1	5.071966E-1	4.788244E-1	4.660258E-1	4.795152E-1	4.688841E-1	5.107501E-1	4.698598E-1	5.137687E-1	4.714441E-1	5.069871E-1	5.168092E-1	4.759259E-1	5.157929E-1	5.222651E-1	4.907372E-1	4.884605E-1	5.133449E-1	5.006584E-1	4.822268E-1	5.018791E-1	4.978223E-1	4.889884E-1	4.920218E-1	4.988182E-1	4.803381E-1	4.999326E-1	4.974781E-1	4.926522E-1	4.977308E-1	4.586547E-1	5.210150E-1	4.909892E-1	4.883746E-1	4.802462E-1	5.012009E-1	4.869969E-1	4.938129E-1	4.738064E-1	4.860522E-1	5.196283E-1	4.840031E-1	4.911951E-1	4.971020E-1	5.023967E-1	4.977885E-1	5.043439E-1	5.086906E-1	4.555494E-1	4.732383E-1	4.919384E-1	4.773275E-1	4.673965E-1	4.878727E-1	4.750731E-1	4.800346E-1	5.062034E-1
5.372640E+2	5.376883E-1	5.217081E-1	5.194783E-1	5.707469E-1	5.402494E-1	5.169101E-1	5.082430E-1	5.285217E-1	5.269245E-1	5.228619E-1	5.199898E-1	4.814824E-1	5.034791E-1	5.148386E-1	5.393861E-1	5.564708E-1	5.291554E-1	5.382184E-1	5.245523E-1	5.252454E-1	4.947599E-1	5.581570E-1	5.253328E-1	5.256755E-1	5.076731E-1	5.222803E-1	5.084787E-1	5.114555E-1	5.440057E-1	4.844758E-1	5.304745E-1	5.117093E-1	5.113992E-1	5.499283E-1	5.414510E-1	5.186946E-1	5.153976E-1	5.455080E-1	5.264045E-1	5.178756E-1	5.243193E-1	5.244629E-1	5.173624E-1	5.266175E-1	5.362517E-1	5.177168E-1	5.315609E-1	5.315249E-1	5.144167E-1	5.112399E-1	5.453871E-1	5.399433E-1	5.365107E-1	5.470263E-1	5.203776E-1	5.305606E-1	5.325325E-1	5.118493E-1	5.228944E-1	5.581719E-1	5.457839E-1	5.523788E-1	5.050939E-1	5.293801E-1	5.272657E-1	4.899936E-1	5.127132E-1	5.166603E-1	5.074089E-1	5.041985E-1	5.261786E-1	5.694819E-1	5.500296E-1	5.393976E-1	5.100797E-1	5.184192E-1	5.427094E-1	5.231913E-1	5.343557E-1	5.273958E-1	5.393798E-1	5.125289E-1	5.035053E-1	5.127546E-1	5.568223E-1	5.325636E-1	5.201652E-1	5.135615E-1	5.146992E-1	5.575923E-1	5.249023E-1	4.964480E-1	5.375002E-1	5.549105E-1	5.227180E-1	5.381113E-1	5.225357E-1	5.389045E-1	5.156292E-1	5.303150E-1	5.275453E-1	5.250123E-1	5.212671E-1	5.443627E-1	4.965194E-1	5.427072E-1	5.081040E-1	5.422115E-1	5.130066E-1	5.151499E-1	5.623005E-1	5.428341E-1	5.108706E-1	5.193709E-1	5.143517E-1	5.352325E-1	5.207970E-1	5.184322E-1	5.223807E-1	5.591078E-1	5.216397E-1	5.207101E-1	5.557759E-1	5.339666E-1	5.042009E-1	5.307034E-1	5.357856E-1	5.291705E-1	5.460195E-1	5.068402E-1	5.262031E-1	5.637974E-1	5.172116E-1	5.368589E-1	5.397388E-1	5.126678E-1	5.337164E-1	5.382720E-1	5.083316E-1	5.402219E-1	5.169056E-1	5.396277E-1	5.402640E-1	5.331751E-1	5.567208E-1	5.170182E-1	5.487207E-1	5.285766E-1	5.346927E-1	5.617831E-1	5.155150E-1	5.633283E-1	5.726604E-1	5.229254E-1	5.659205E-1	5.312634E-1	5.728694E-1	5.096096E-1	5.345124E-1	5.361339E-1	5.250911E-1	5.495745E-1	5.474470E-1	5.098659E-1	5.496233E-1	5.361936E-1	5.375055E-1	5.339841E-1	5.429500E-1	5.630996E-1	5.183421E-1
5.375110E+2	6.383583E-1	6.368144E-1	6.634735E-1	6.449880E-1	6.635894E-1	6.588891E-1	6.477508E-1	6.384232E-1	6.886203E-1	6.406605E-1	6.544555E-1	6.392017E-1	6.220271E-1	6.532899E-1	6.497935E-1	6.715660E-1	6.901466E-1	6.614957E-1	6.323959E-1	6.785669E-1	6.661524E-1	6.343760E-1	6.640023E-1	6.439331E-1	6.468373E-1	6.994971E-1	6.264785E-1	6.613601E-1	6.343591E-1	6.008978E-1	6.372235E-1	6.578342E-1	6.275173E-1	6.886441E-1	6.454571E-1	6.499127E-1	6.668637E-1	6.663106E-1	6.590338E-1	6.564235E-1	6.234927E-1	6.400569E-1	6.541956E-1	6.287061E-1	6.393101E-1	6.568896E-1	6.735448E-1	6.614560E-1	6.720071E-1	6.441013E-1	6.812560E-1	6.577433E-1	6.456755E-1	6.511769E-1	6.492866E-1	6.189691E-1	6.760984E-1	6.122702E-1	6.520611E-1	6.618072E-1	6.904979E-1	6.654814E-1	6.306628E-1	6.788652E-1	6.572927E-1	6.471713E-1	6.594796E-1	6.523803E-1	6.441520E-1	6.477164E-1	6.505791E-1	6.662891E-1	6.493852E-1	6.570895E-1	6.459033E-1	6.278144E-1	6.568948E-1	6.441814E-1	6.571861E-1	6.557158E-1	6.930561E-1	6.319583E-1	6.429599E-1	6.885890E-1	6.948643E-1	6.201613E-1	6.677436E-1	6.719778E-1	6.728625E-1	6.385010E-1	6.722331E-1	6.680116E-1	6.615399E-1	6.901572E-1	6.561580E-1	6.515688E-1	6.600722E-1	6.734411E-1	6.692746E-1	6.839327E-1	6.627343E-1	6.420475E-1	6.722865E-1	6.670711E-1	6.435660E-1	6.377815E-1	6.688425E-1	6.486058E-1	6.373050E-1	6.799916E-1	6.887153E-1	6.329234E-1	6.283524E-1	6.585179E-1	6.815733E-1	6.659701E-1	6.392271E-1	6.603666E-1	6.188249E-1	6.737264E-1	6.882368E-1	6.830890E-1	6.577953E-1	6.719840E-1	6.721794E-1	6.789576E-1	6.620291E-1	6.454376E-1	6.823628E-1	6.506754E-1	6.635946E-1	6.724547E-1	6.397186E-1	6.651269E-1	6.707158E-1	6.738369E-1	6.717113E-1	6.606292E-1	6.244841E-1	6.772169E-1	6.560923E-1	6.752140E-1	6.662858E-1	6.609263E-1	6.388865E-1	6.614069E-1	6.427592E-1	7.076107E-1	6.632374E-1	6.894529E-1	6.477020E-1	6.670819E-1	6.605625E-1	6.811188E-1	6.850552E-1	6.685006E-1	6.698472E-1	6.433181E-1	6.226627E-1	6.720134E-1	6.580433E-1	6.990814E-1	6.635172E-1	6.487258E-1	6.809048E-1	6.339870E-1	6.352820E-1	6.731432E-1	6.521575E-1	6.335060E-1	6.179780E-1
5.377740E+2	7.779948E-1	7.983535E-1	7.522720E-1	7.936476E-1	7.964530E-1	8.357277E-1	7.703672E-1	7.799456E-1	7.575860E-1	7.569083E-1	8.053974E-1	8.265166E-1	7.701027E-1	8.145766E-1	8.101519E-1	8.070161E-1	7.765793E-1	7.513905E-1	7.913337E-1	7.666297E-1	7.575515E-1	8.023151E-1	7.954549E-1	7.966076E-1	7.606249E-1	8.043151E-1	7.562440E-1	7.863618E-1	7.797154E-1	7.337891E-1	8.026795E-1	7.695534E-1	8.083487E-1	8.441022E-1	8.040616E-1	7.790846E-1	7.750790E-1	8.072344E-1	7.474524E-1	8.249348E-1	7.692787E-1	7.600367E-1	8.009441E-1	7.299805E-1	7.890492E-1	8.203844E-1	8.217685E-1	8.177194E-1	7.560807E-1	8.091094E-1	7.835783E-1	8.161612E-1	7.530490E-1	7.725324E-1	7.978758E-1	7.794430E-1	8.120334E-1	7.687859E-1	8.040323E-1	7.838933E-1	7.641476E-1	7.526302E-1	7.946656E-1	7.598017E-1	7.925664E-1	7.809986E-1	8.228992E-1	7.939433E-1	7.706669E-1	8.088429E-1	7.987655E-1	7.584153E-1	8.355957E-1	8.061311E-1	7.696037E-1	7.500152E-1	7.856167E-1	7.857002E-1	7.873819E-1	7.637096E-1	8.140670E-1	7.820174E-1	7.976704E-1	8.135465E-1	8.149244E-1	7.943749E-1	8.190082E-1	7.595825E-1	7.672900E-1	8.041648E-1	8.053953E-1	7.554596E-1	7.997270E-1	7.886042E-1	7.836575E-1	7.771352E-1	7.604273E-1	8.344331E-1	7.877603E-1	8.086463E-1	7.754354E-1	7.506446E-1	7.814436E-1	7.894075E-1	7.729905E-1	7.860137E-1	7.845165E-1	7.837998E-1	7.626356E-1	7.943217E-1	8.280615E-1	7.602469E-1	7.599284E-1	8.126180E-1	7.815161E-1	7.781538E-1	7.806160E-1	7.792090E-1	7.717832E-1	7.801524E-1	7.892450E-1	7.808351E-1	7.649499E-1	7.778456E-1	7.935969E-1	8.317486E-1	7.694821E-1	8.007882E-1	7.908366E-1	7.851722E-1	7.763764E-1	7.894153E-1	7.687351E-1	8.038601E-1	8.064386E-1	7.618722E-1	7.800981E-1	8.087832E-1	7.905468E-1	8.086442E-1	7.792229E-1	7.904234E-1	7.805969E-1	8.226953E-1	7.613634E-1	7.911477E-1	7.322639E-1	7.513968E-1	7.349329E-1	8.224195E-1	8.015413E-1	7.962808E-1	8.496497E-1	8.432456E-1	8.345548E-1	8.266539E-1	8.182617E-1	7.651622E-1	8.113834E-1	7.949884E-1	7.815984E-1	7.659827E-1	7.961144E-1	7.510851E-1	7.736187E-1	7.778234E-1	7.833928E-1	8.053107E-1	7.845972E-1	7.628945E-1	8.145272E-1
5.380110E+2	8.597608E-1	8.837817E-1	8.362062E-1	8.308693E-1	8.593064E-1	8.888789E-1	8.553034E-1	8.505147E-1	8.093250E-1	8.431478E-1	8.682195E-1	8.529252E-1	8.008210E-1	8.595145E-1	8.578066E-1	8.416320E-1	8.647993E-1	8.134433E-1	8.386740E-1	8.679979E-1	8.738039E-1	8.693098E-1	8.652221E-1	8.551837E-1	8.284149E-1	8.600251E-1	8.475395E-1	8.825748E-1	8.409661E-1	8.535108E-1	8.677805E-1	8.018280E-1	8.321539E-1	8.340323E-1	8.411848E-1	8.366706E-1	8.217677E-1	8.671240E-1	8.179926E-1	8.286407E-1	8.455887E-1	8.521061E-1	8.349311E-1	8.650189E-1	8.513712E-1	8.947538E-1	8.543657E-1	8.632309E-1	8.106389E-1	8.161225E-1	8.254536E-1	8.443973E-1	8.334086E-1	8.184290E-1	8.949484E-1	8.838266E-1	8.615308E-1	8.379948E-1	8.311027E-1	8.271604E-1	8.457727E-1	8.349301E-1	8.812653E-1	8.018142E-1	8.698914E-1	8.311514E-1	8.439605E-1	8.622722E-1	8.245001E-1	8.347745E-1	8.661177E-1	7.887207E-1	8.765171E-1	8.359595E-1	8.402435E-1	8.284159E-1	8.407125E-1	8.470208E-1	8.129852E-1	8.362009E-1	8.755318E-1	8.569757E-1	8.429331E-1	8.865228E-1	8.721832E-1	8.327558E-1	8.307511E-1	8.150208E-1	8.559927E-1	8.623442E-1	8.546369E-1	8.394468E-1	8.263064E-1	8.290111E-1	8.555328E-1	8.209750E-1	8.352808E-1	8.119970E-1	8.462164E-1	8.329740E-1	8.526921E-1	8.286875E-1	8.335116E-1	8.185253E-1	7.968035E-1	8.451811E-1	7.882450E-1	8.386686E-1	8.229408E-1	8.217219E-1	8.875297E-1	8.394076E-1	8.650423E-1	8.753936E-1	8.253503E-1	8.101776E-1	9.067706E-1	8.158773E-1	8.781648E-1	8.306191E-1	8.563560E-1	8.958464E-1	8.071436E-1	8.342194E-1	8.739076E-1	8.988390E-1	8.497578E-1	8.410585E-1	8.280361E-1	8.281416E-1	8.426124E-1	8.602304E-1	8.549705E-1	8.389658E-1	9.041576E-1	8.337838E-1	8.315204E-1	8.677141E-1	8.407501E-1	8.226067E-1	8.819888E-1	8.508011E-1	8.255328E-1	8.303783E-1	8.623983E-1	8.811793E-1	7.893199E-1	8.869213E-1	8.359131E-1	8.452344E-1	8.190207E-1	8.466803E-1	8.487925E-1	8.522879E-1	8.937784E-1	8.647300E-1	8.567791E-1	8.526374E-1	8.984604E-1	8.235941E-1	8.468339E-1	8.662215E-1	8.205548E-1	8.539241E-1	8.238607E-1	8.807056E-1	7.916093E-1	8.520708E-1	8.813977E-1	8.289499E-1	1.026716E+0
5.382690E+2	1.061418E+0	1.056373E+0	1.075091E+0	1.019158E+0	1.064929E+0	1.105407E+0	1.042962E+0	1.048030E+0	1.077311E+0	1.076677E+0	1.039896E+0	1.047038E+0	1.061779E+0	1.051621E+0	1.060262E+0	1.093360E+0	1.092239E+0	1.110444E+0	1.094544E+0	1.090493E+0	1.077986E+0	1.016112E+0	1.083523E+0	1.018688E+0	1.082093E+0	1.087780E+0	1.045692E+0	1.044834E+0	1.039156E+0	1.075756E+0	1.071522E+0	1.070522E+0	1.056594E+0	1.074953E+0	1.080199E+0	1.093192E+0	9.687095E-1	1.068343E+0	1.068414E+0	1.085871E+0	1.054647E+0	1.106194E+0	1.084536E+0	1.023927E+0	1.035023E+0	1.021403E+0	1.073086E+0	1.077885E+0	1.042729E+0	1.027394E+0	1.054269E+0	1.048130E+0	1.016279E+0	1.054144E+0	1.040611E+0	1.028554E+0	1.104750E+0	1.064301E+0	1.066765E+0	1.055069E+0	1.008511E+0	1.066497E+0	1.038037E+0	1.052134E+0	1.069753E+0	1.043380E+0	1.027142E+0	1.004517E+0	1.089743E+0	9.825850E-1	1.079021E+0	1.055508E+0	1.091833E+0	1.006652E+0	1.005610E+0	1.063363E+0	1.027882E+0	1.064140E+0	1.031393E+0	1.077885E+0	1.064610E+0	1.051913E+0	1.091625E+0	1.035379E+0	1.062484E+0	1.039677E+0	1.064587E+0	1.068986E+0	1.039429E+0	1.097476E+0	1.050685E+0	1.044404E+0	1.058790E+0	1.083196E+0	1.041475E+0	1.039668E+0	1.081808E+0	1.010793E+0	1.083961E+0	1.046509E+0	1.018364E+0	1.089522E+0	1.015157E+0	1.068298E+0	9.718239E-1	1.037866E+0	1.046657E+0	1.075906E+0	1.034026E+0	1.039647E+0	1.065652E+0	1.032098E+0	1.003346E+0	1.062151E+0	1.010862E+0	1.025130E+0	1.054573E+0	1.051393E+0	1.014862E+0	1.000371E+0	1.003166E+0	1.016211E+0	1.059964E+0	1.049539E+0	1.048974E+0	1.045385E+0	1.068201E+0	1.056825E+0	1.086359E+0	1.000761E+0	1.040272E+0	1.063905E+0	1.002179E+0	1.050443E+0	1.071965E+0	1.027485E+0	1.065972E+0	1.028315E+0	1.045964E+0	1.065111E+0	1.097204E+0	1.031082E+0	1.045023E+0	1.093710E+0	1.070627E+0	1.041296E+0	1.005643E+0	1.042593E+0	1.005519E+0	1.056057E+0	1.064197E+0	1.080855E+0	1.029195E+0	1.063043E+0	1.094307E+0	1.059517E+0	1.077647E+0	1.046321E+0	1.050759E+0	1.031886E+0	1.045407E+0	1.022034E+0	9.993913E-1	1.076651E+0	1.011871E+0	1.036662E+0	1.031595E+0	1.087847E+0	1.022761E+0	1.003314E+0	1.110102E+0
5.385110E+2	1.291301E+0	1.268390E+0	1.324462E+0	1.328052E+0	1.234128E+0	1.319716E+0	1.289118E+0	1.289926E+0	1.291135E+0	1.286575E+0	1.329536E+0	1.295504E+0	1.264231E+0	1.268223E+0	1.336207E+0	1.258238E+0	1.276625E+0	1.249444E+0	1.308963E+0	1.242203E+0	1.272737E+0	1.288899E+0	1.275953E+0	1.317392E+0	1.242304E+0	1.344981E+0	1.253451E+0	1.288472E+0	1.262989E+0	1.299983E+0	1.270515E+0	1.265938E+0	1.271809E+0	1.288310E+0	1.291992E+0	1.298210E+0	1.235838E+0	1.285693E+0	1.295816E+0	1.282964E+0	1.297805E+0	1.233838E+0	1.283858E+0	1.242507E+0	1.207835E+0	1.237398E+0	1.324370E+0	1.277102E+0	1.294688E+0	1.305714E+0	1.247554E+0	1.266915E+0	1.241575E+0	1.295169E+0	1.285748E+0	1.215747E+0	1.306451E+0	1.292221E+0	1.272063E+0	1.276097E+0	1.271160E+0	1.255079E+0	1.274356E+0	1.277503E+0	1.266749E+0	1.284591E+0	1.295422E+0	1.279896E+0	1.269552E+0	1.274951E+0	1.294352E+0	1.280648E+0	1.302002E+0	1.283733E+0	1.249027E+0	1.252061E+0	1.278265E+0	1.260257E+0	1.242258E+0	1.272191E+0	1.296459E+0	1.277441E+0	1.253687E+0	1.314257E+0	1.262982E+0	1.304275E+0	1.254084E+0	1.276576E+0	1.276098E+0	1.282020E+0	1.309674E+0	1.282547E+0	1.283443E+0	1.315463E+0	1.276612E+0	1.283194E+0	1.305023E+0	1.266748E+0	1.275953E+0	1.322375E+0	1.252163E+0	1.268492E+0	1.273591E+0	1.278449E+0	1.265169E+0	1.250587E+0	1.249318E+0	1.262924E+0	1.217192E+0	1.279339E+0	1.298387E+0	1.295057E+0	1.274239E+0	1.279761E+0	1.250736E+0	1.276639E+0	1.285299E+0	1.240236E+0	1.246642E+0	1.261054E+0	1.277832E+0	1.330123E+0	1.246901E+0	1.240476E+0	1.296238E+0	1.270448E+0	1.239106E+0	1.293826E+0	1.238020E+0	1.206371E+0	1.234888E+0	1.260336E+0	1.257607E+0	1.261323E+0	1.305885E+0	1.282620E+0	1.335953E+0	1.267907E+0	1.263907E+0	1.306213E+0	1.280984E+0	1.300742E+0	1.290053E+0	1.294607E+0	1.195699E+0	1.312578E+0	1.292431E+0	1.313974E+0	1.263416E+0	1.275430E+0	1.279235E+0	1.317527E+0	1.227998E+0	1.244380E+0	1.303091E+0	1.302864E+0	1.300406E+0	1.288784E+0	1.246528E+0	1.276269E+0	1.262520E+0	1.316537E+0	1.281008E+0	1.241800E+0	1.287626E+0	1.237580E+0	1.284245E+0	1.252268E+0	1.248885E+0	1.216148E+0	1.368461E+0
5.387650E+2	1.465503E+0	1.426215E+0	1.448270E+0	1.432310E+0	1.480989E+0	1.438318E+0	1.430576E+0	1.408354E+0	1.467294E+0	1.424580E+0	1.498931E+0	1.449455E+0	1.433399E+0	1.466363E+0	1.447009E+0	1.396768E+0	1.450663E+0	1.453579E+0	1.445642E+0	1.431664E+0	1.413880E+0	1.404781E+0	1.430824E+0	1.428567E+0	1.416399E+0	1.428719E+0	1.437730E+0	1.470207E+0	1.457696E+0	1.405561E+0	1.434548E+0	1.443268E+0	1.468286E+0	1.437925E+0	1.447113E+0	1.430123E+0	1.386383E+0	1.420714E+0	1.420793E+0	1.418625E+0	1.400693E+0	1.419924E+0	1.393358E+0	1.427305E+0	1.425355E+0	1.373366E+0	1.412444E+0	1.476376E+0	1.394820E+0	1.478273E+0	1.437919E+0	1.439561E+0	1.379884E+0	1.431121E+0	1.441279E+0	1.438147E+0	1.448739E+0	1.391433E+0	1.405847E+0	1.392386E+0	1.426681E+0	1.412699E+0	1.389140E+0	1.453960E+0	1.487374E+0	1.428232E+0	1.397498E+0	1.380311E+0	1.426253E+0	1.383425E+0	1.397495E+0	1.457423E+0	1.400807E+0	1.424816E+0	1.382885E+0	1.434003E+0	1.424348E+0	1.405645E+0	1.399991E+0	1.422638E+0	1.468281E+0	1.485501E+0	1.432309E+0	1.397800E+0	1.446062E+0	1.432456E+0	1.391243E+0	1.474515E+0	1.436552E+0	1.406849E+0	1.412205E+0	1.399395E+0	1.437432E+0	1.448497E+0	1.427255E+0	1.440382E+0	1.397794E+0	1.431469E+0	1.413834E+0	1.401962E+0	1.465621E+0	1.395441E+0	1.453857E+0	1.419284E+0	1.427559E+0	1.378237E+0	1.332147E+0	1.411766E+0	1.397983E+0	1.401042E+0	1.487219E+0	1.440283E+0	1.399572E+0	1.409515E+0	1.400160E+0	1.387187E+0	1.375399E+0	1.372091E+0	1.376927E+0	1.405912E+0	1.419096E+0	1.430680E+0	1.403841E+0	1.452430E+0	1.444549E+0	1.379224E+0	1.462176E+0	1.398504E+0	1.434961E+0	1.387981E+0	1.461209E+0	1.408802E+0	1.447841E+0	1.429631E+0	1.424179E+0	1.434826E+0	1.418566E+0	1.465078E+0	1.420136E+0	1.427459E+0	1.370552E+0	1.462576E+0	1.426812E+0	1.431331E+0	1.417905E+0	1.389690E+0	1.389860E+0	1.463277E+0	1.377339E+0	1.455951E+0	1.424377E+0	1.404057E+0	1.407543E+0	1.400443E+0	1.487939E+0	1.390622E+0	1.421435E+0	1.446290E+0	1.413811E+0	1.402009E+0	1.416249E+0	1.456249E+0	1.435484E+0	1.442000E+0	1.416063E+0	1.410386E+0	1.391734E+0	1.403388E+0	1.442894E+0	1.441308E+0	1.496321E+0
5.390340E+2	1.769863E+0	1.741075E+0	1.702907E+0	1.680036E+0	1.719005E+0	1.738950E+0	1.682400E+0	1.651595E+0	1.747164E+0	1.684997E+0	1.756785E+0	1.717419E+0	1.712162E+0	1.727668E+0	1.756605E+0	1.716724E+0	1.675515E+0	1.671445E+0	1.716017E+0	1.668210E+0	1.691626E+0	1.711382E+0	1.719085E+0	1.716867E+0	1.724894E+0	1.819037E+0	1.648843E+0	1.683761E+0	1.664570E+0	1.688019E+0	1.681715E+0	1.733683E+0	1.699954E+0	1.720599E+0	1.701494E+0	1.709865E+0	1.662154E+0	1.715445E+0	1.717912E+0	1.656333E+0	1.716330E+0	1.664400E+0	1.716090E+0	1.712154E+0	1.651173E+0	1.712255E+0	1.731466E+0	1.735849E+0	1.692281E+0	1.715917E+0	1.709780E+0	1.744972E+0	1.722749E+0	1.712948E+0	1.683688E+0	1.682957E+0	1.749085E+0	1.631201E+0	1.675903E+0	1.648942E+0	1.741907E+0	1.729817E+0	1.708630E+0	1.736359E+0	1.705920E+0	1.644966E+0	1.732950E+0	1.718640E+0	1.697442E+0	1.719145E+0	1.664336E+0	1.734939E+0	1.768420E+0	1.653836E+0	1.619226E+0	1.708356E+0	1.692518E+0	1.654795E+0	1.621152E+0	1.688395E+0	1.683548E+0	1.715115E+0	1.717770E+0	1.704372E+0	1.714034E+0	1.696130E+0	1.715575E+0	1.672365E+0	1.651652E+0	1.673013E+0	1.777286E+0	1.684681E+0	1.742419E+0	1.652581E+0	1.688162E+0	1.665011E+0	1.701746E+0	1.725076E+0	1.723199E+0	1.725635E+0	1.629041E+0	1.630898E+0	1.635637E+0	1.717078E+0	1.628738E+0	1.662501E+0	1.606076E+0	1.681616E+0	1.640973E+0	1.698736E+0	1.604063E+0	1.687598E+0	1.719300E+0	1.668087E+0	1.714000E+0	1.707447E+0	1.654387E+0	1.608075E+0	1.658506E+0	1.700715E+0	1.698565E+0	1.593410E+0	1.714419E+0	1.724953E+0	1.678118E+0	1.659503E+0	1.657452E+0	1.658636E+0	1.682931E+0	1.695869E+0	1.684137E+0	1.708438E+0	1.678780E+0	1.703800E+0	1.748404E+0	1.721515E+0	1.645604E+0	1.695343E+0	1.673871E+0	1.639007E+0	1.647499E+0	1.654386E+0	1.681353E+0	1.712644E+0	1.722780E+0	1.616039E+0	1.689379E+0	1.683541E+0	1.639921E+0	1.657922E+0	1.649386E+0	1.723603E+0	1.685354E+0	1.702243E+0	1.748570E+0	1.722697E+0	1.691939E+0	1.610901E+0	1.681761E+0	1.643432E+0	1.598175E+0	1.681351E+0	1.668820E+0	1.658650E+0	1.674212E+0	1.653706E+0	1.615901E+0	1.614198E+0	1.651315E+0	1.627089E+0	1.591153E+0
5.392930E+2	1.881083E+0	1.910765E+0	1.893720E+0	1.850885E+0	1.874904E+0	1.929466E+0	1.853764E+0	1.877200E+0	1.897864E+0	1.903706E+0	1.873337E+0	1.929421E+0	1.842926E+0	1.965226E+0	1.879869E+0	1.904836E+0	1.905920E+0	1.883549E+0	1.867613E+0	1.900712E+0	1.915925E+0	1.870870E+0	1.905615E+0	1.877072E+0	1.845403E+0	1.920917E+0	1.890240E+0	1.883810E+0	1.854127E+0	1.848489E+0	1.888030E+0	1.880361E+0	1.944761E+0	1.894071E+0	1.879359E+0	1.920229E+0	1.843485E+0	1.864377E+0	1.857713E+0	1.886820E+0	1.832729E+0	1.845132E+0	1.825104E+0	1.841174E+0	1.858764E+0	1.866843E+0	1.914223E+0	1.928982E+0	1.862598E+0	1.794817E+0	1.909884E+0	1.850870E+0	1.881184E+0	1.820255E+0	1.896852E+0	1.863891E+0	1.948820E+0	1.891560E+0	1.851703E+0	1.782150E+0	1.878541E+0	1.894774E+0	1.878308E+0	1.840242E+0	1.871362E+0	1.860444E+0	1.917511E+0	1.859780E+0	1.895816E+0	1.845261E+0	1.863542E+0	1.815054E+0	1.906764E+0	1.786746E+0	1.832049E+0	1.829349E+0	1.856293E+0	1.828096E+0	1.875381E+0	1.870136E+0	1.871670E+0	1.891135E+0	1.812857E+0	1.879943E+0	1.897667E+0	1.827271E+0	1.847752E+0	1.872264E+0	1.873262E+0	1.861367E+0	1.908184E+0	1.821909E+0	1.833517E+0	1.818993E+0	1.846193E+0	1.851296E+0	1.808642E+0	1.837466E+0	1.907669E+0	1.846788E+0	1.854357E+0	1.847324E+0	1.872370E+0	1.855252E+0	1.870307E+0	1.785909E+0	1.768441E+0	1.937822E+0	1.772195E+0	1.874607E+0	1.809371E+0	1.767918E+0	1.877384E+0	1.791072E+0	1.820623E+0	1.866194E+0	1.835140E+0	1.833137E+0	1.863813E+0	1.847831E+0	1.861239E+0	1.808745E+0	1.814518E+0	1.851743E+0	1.841175E+0	1.889213E+0	1.833703E+0	1.877059E+0	1.801759E+0	1.791931E+0	1.812513E+0	1.805882E+0	1.815300E+0	1.835229E+0	1.882171E+0	1.809783E+0	1.893930E+0	1.854289E+0	1.850139E+0	1.856351E+0	1.814209E+0	1.816998E+0	1.865018E+0	1.824452E+0	1.785887E+0	1.776184E+0	1.857355E+0	1.823992E+0	1.813120E+0	1.862868E+0	1.815515E+0	1.820884E+0	1.800808E+0	1.890716E+0	1.898899E+0	1.855017E+0	1.786074E+0	1.814501E+0	1.814862E+0	1.831773E+0	1.782868E+0	1.773643E+0	1.855105E+0	1.824541E+0	1.852829E+0	1.785479E+0	1.805044E+0	1.781012E+0	1.770778E+0	1.960723E+0	1.814915E+0
5.395160E+2	1.973821E+0	1.854440E+0	1.936618E+0	1.972724E+0	1.991961E+0	1.964864E+0	1.968745E+0	1.965950E+0	1.920916E+0	1.921290E+0	1.916558E+0	1.908122E+0	1.948052E+0	1.970507E+0	1.968875E+0	1.958377E+0	1.936105E+0	1.927602E+0	1.953627E+0	1.910918E+0	1.961365E+0	1.967870E+0	2.000862E+0	1.959752E+0	1.964200E+0	1.928948E+0	1.872606E+0	1.952652E+0	1.938423E+0	1.916446E+0	1.873240E+0	1.893943E+0	1.972034E+0	1.969287E+0	2.001488E+0	1.965915E+0	1.882057E+0	1.983020E+0	1.968489E+0	1.882184E+0	1.908308E+0	1.869547E+0	1.873752E+0	1.917554E+0	1.884273E+0	1.867461E+0	1.986512E+0	1.945084E+0	1.870927E+0	1.913759E+0	1.953318E+0	1.928382E+0	1.931118E+0	1.923460E+0	1.917188E+0	1.957061E+0	1.911725E+0	1.933400E+0	1.937404E+0	1.856259E+0	1.922395E+0	1.927886E+0	1.886618E+0	1.919082E+0	1.957522E+0	1.904675E+0	1.988466E+0	1.916775E+0	1.839973E+0	1.901011E+0	1.921765E+0	1.895937E+0	1.944705E+0	1.874298E+0	1.847748E+0	1.915672E+0	1.928306E+0	1.866247E+0	1.929179E+0	1.921610E+0	1.909562E+0	1.900230E+0	1.936957E+0	1.945691E+0	1.918332E+0	1.894867E+0	1.894157E+0	1.866552E+0	1.909004E+0	1.854348E+0	1.907327E+0	1.966535E+0	1.915945E+0	1.856778E+0	1.900194E+0	1.882991E+0	1.944380E+0	1.856220E+0	1.915615E+0	2.003439E+0	1.890922E+0	1.817037E+0	1.896350E+0	1.894815E+0	1.848408E+0	1.873273E+0	1.939725E+0	1.887492E+0	1.827675E+0	1.935514E+0	1.953395E+0	1.852174E+0	1.850353E+0	1.847325E+0	1.921787E+0	1.843084E+0	1.865660E+0	1.874616E+0	1.869709E+0	1.869355E+0	1.933337E+0	1.886843E+0	1.857763E+0	1.848946E+0	1.864314E+0	1.874411E+0	1.863156E+0	1.832126E+0	1.872557E+0	1.809068E+0	1.868131E+0	1.914966E+0	1.888656E+0	1.876110E+0	1.895608E+0	1.914946E+0	1.951233E+0	1.902434E+0	1.885349E+0	1.811636E+0	1.852307E+0	1.794457E+0	1.889391E+0	1.848723E+0	1.844928E+0	1.880347E+0	1.816051E+0	1.987044E+0	1.877536E+0	1.891490E+0	1.847436E+0	1.917312E+0	1.886837E+0	1.922428E+0	1.942126E+0	1.805597E+0	1.854168E+0	1.828020E+0	1.868071E+0	1.899876E+0	1.828745E+0	1.861967E+0	1.890563E+0	1.859542E+0	1.845051E+0	1.885962E+0	1.916310E+0	1.826520E+0	1.852642E+0	1.869640E+0	1.843341E+0
5.397750E+2	2.019498E+0	1.954199E+0	2.076389E+0	2.017118E+0	1.989787E+0	2.017411E+0	2.013035E+0	2.006501E+0	2.000665E+0	2.035878E+0	2.014526E+0	1.975315E+0	1.980265E+0	1.982228E+0	2.016242E+0	2.048336E+0	1.991217E+0	2.027362E+0	2.095896E+0	2.016961E+0	2.018074E+0	2.025683E+0	2.052908E+0	2.011842E+0	1.973984E+0	2.090855E+0	1.954205E+0	2.030861E+0	1.932383E+0	1.955612E+0	2.069401E+0	2.013011E+0	1.979748E+0	2.033416E+0	2.104086E+0	2.010294E+0	1.958203E+0	2.059410E+0	2.035608E+0	1.970363E+0	1.934900E+0	1.970738E+0	2.010058E+0	1.967551E+0	1.966871E+0	1.953746E+0	2.033712E+0	1.996551E+0	1.965709E+0	1.922460E+0	1.956690E+0	1.961793E+0	2.021749E+0	1.990074E+0	2.039123E+0	1.981506E+0	2.027447E+0	1.935241E+0	1.971807E+0	1.947852E+0	1.995158E+0	1.990092E+0	1.955869E+0	1.958464E+0	1.927830E+0	1.920354E+0	1.957064E+0	2.020892E+0	1.957090E+0	1.959936E+0	1.938403E+0	2.014684E+0	2.002332E+0	1.910399E+0	1.954350E+0	1.992219E+0	1.939472E+0	1.961624E+0	1.988911E+0	1.961021E+0	2.037988E+0	2.028391E+0	1.984672E+0	1.999018E+0	1.911037E+0	1.921934E+0	1.955383E+0	1.991451E+0	2.003392E+0	1.984170E+0	1.958784E+0	1.960153E+0	1.933897E+0	1.926381E+0	1.946811E+0	1.947891E+0	1.974774E+0	1.923717E+0	1.968902E+0	1.963737E+0	1.998530E+0	1.986230E+0	1.937747E+0	2.027444E+0	1.902274E+0	1.892632E+0	1.961444E+0	1.898791E+0	1.901613E+0	1.923300E+0	1.996027E+0	1.877233E+0	1.988705E+0	1.958612E+0	1.985811E+0	1.965932E+0	1.922428E+0	1.900437E+0	1.939609E+0	1.918688E+0	1.939905E+0	1.874750E+0	1.952481E+0	1.924477E+0	1.960458E+0	1.999504E+0	1.922322E+0	1.933369E+0	2.011914E+0	1.939301E+0	1.933597E+0	1.939991E+0	1.917835E+0	1.929412E+0	1.973347E+0	1.936313E+0	2.055585E+0	1.927148E+0	1.970227E+0	1.943461E+0	1.923630E+0	1.954032E+0	1.937499E+0	1.981441E+0	1.990098E+0	1.938583E+0	1.913085E+0	1.996963E+0	1.895168E+0	1.969385E+0	1.974230E+0	1.939582E+0	1.886994E+0	1.972470E+0	2.015778E+0	1.971394E+0	1.920456E+0	1.925583E+0	1.881834E+0	1.864285E+0	1.892880E+0	1.954105E+0	1.942900E+0	1.916945E+0	1.895223E+0	1.912560E+0	1.984355E+0	1.895205E+0	1.994266E+0	1.878928E+0	1.982634E+0
5.400240E+2	1.983759E+0	1.933549E+0	1.996579E+0	2.001140E+0	1.937102E+0	1.965622E+0	1.954145E+0	1.932887E+0	1.887965E+0	1.980099E+0	1.928952E+0	2.009884E+0	1.938418E+0	1.999147E+0	1.973854E+0	2.013698E+0	2.017965E+0	1.896531E+0	1.941845E+0	1.935333E+0	1.899229E+0	1.952931E+0	1.990368E+0	1.961365E+0	1.908327E+0	2.036500E+0	1.934981E+0	1.980893E+0	1.898020E+0	1.939401E+0	1.908113E+0	1.914918E+0	1.889449E+0	1.982012E+0	1.950236E+0	1.879186E+0	1.900473E+0	1.933899E+0	1.988894E+0	1.980418E+0	1.839858E+0	1.969396E+0	1.908133E+0	1.914908E+0	1.959978E+0	1.931703E+0	1.965334E+0	1.947834E+0	1.916085E+0	1.974492E+0	2.012855E+0	1.906912E+0	1.933620E+0	1.896671E+0	1.955494E+0	1.868146E+0	1.932074E+0	1.872027E+0	1.956556E+0	1.905695E+0	1.952008E+0	1.882858E+0	1.927678E+0	1.979250E+0	1.953518E+0	1.865386E+0	1.935028E+0	1.929313E+0	1.939686E+0	1.931310E+0	1.963312E+0	1.910433E+0	1.954018E+0	1.880879E+0	1.944525E+0	1.891288E+0	1.953349E+0	1.946090E+0	1.919081E+0	1.919368E+0	1.940569E+0	1.949458E+0	1.902721E+0	1.974793E+0	1.849826E+0	1.911981E+0	1.873509E+0	1.956708E+0	1.915869E+0	1.891810E+0	1.924650E+0	1.923913E+0	1.883617E+0	1.884089E+0	1.883785E+0	1.857449E+0	1.909434E+0	1.869836E+0	1.926615E+0	1.936155E+0	1.956379E+0	1.822021E+0	1.851505E+0	1.893181E+0	1.856609E+0	1.886018E+0	1.889568E+0	1.888883E+0	1.846045E+0	1.883631E+0	1.901016E+0	1.869956E+0	1.961957E+0	1.927039E+0	1.918674E+0	1.864307E+0	1.892906E+0	1.903530E+0	1.918526E+0	1.889399E+0	1.915365E+0	1.872529E+0	1.880188E+0	1.926632E+0	1.885113E+0	1.889461E+0	1.926089E+0	1.801625E+0	1.860125E+0	1.881461E+0	1.919684E+0	1.918555E+0	1.852145E+0	1.896570E+0	1.937255E+0	1.952593E+0	1.875386E+0	1.982259E+0	1.888549E+0	1.940223E+0	1.879619E+0	1.841323E+0	1.956865E+0	1.893950E+0	1.875749E+0	1.894415E+0	1.817058E+0	1.953911E+0	1.833133E+0	1.828656E+0	1.899408E+0	1.878835E+0	1.897750E+0	1.960920E+0	1.954209E+0	1.871701E+0	1.874200E+0	1.844836E+0	1.855591E+0	1.825345E+0	1.859719E+0	1.904287E+0	1.902303E+0	1.900337E+0	1.905573E+0	1.841434E+0	1.885499E+0	1.859002E+0	1.890653E+0	1.892493E+0	1.910634E+0
5.402900E+2	1.810538E+0	1.773118E+0	1.753264E+0	1.780486E+0	1.813866E+0	1.817112E+0	1.795111E+0	1.796385E+0	1.752213E+0	1.778312E+0	1.779430E+0	1.730212E+0	1.834638E+0	1.795382E+0	1.760900E+0	1.822691E+0	1.767928E+0	1.769400E+0	1.829732E+0	1.771626E+0	1.780508E+0	1.830258E+0	1.795001E+0	1.798778E+0	1.772370E+0	1.861386E+0	1.696623E+0	1.842464E+0	1.753472E+0	1.795574E+0	1.784541E+0	1.773883E+0	1.760689E+0	1.789700E+0	1.820127E+0	1.751282E+0	1.705761E+0	1.804751E+0	1.767938E+0	1.794063E+0	1.716784E+0	1.717950E+0	1.770175E+0	1.799223E+0	1.747666E+0	1.734298E+0	1.775656E+0	1.836839E+0	1.743607E+0	1.735247E+0	1.793318E+0	1.853723E+0	1.786937E+0	1.685193E+0	1.725182E+0	1.735761E+0	1.804759E+0	1.722125E+0	1.700547E+0	1.802760E+0	1.810220E+0	1.795166E+0	1.713706E+0	1.764031E+0	1.786243E+0	1.739052E+0	1.726297E+0	1.799719E+0	1.770979E+0	1.706451E+0	1.729740E+0	1.733466E+0	1.753190E+0	1.676402E+0	1.727169E+0	1.778471E+0	1.809813E+0	1.739089E+0	1.744913E+0	1.728007E+0	1.745626E+0	1.744427E+0	1.777649E+0	1.730892E+0	1.708280E+0	1.787272E+0	1.748282E+0	1.749367E+0	1.677728E+0	1.733894E+0	1.739610E+0	1.785855E+0	1.778768E+0	1.727455E+0	1.731477E+0	1.680680E+0	1.753470E+0	1.703421E+0	1.739767E+0	1.774771E+0	1.750154E+0	1.732171E+0	1.732475E+0	1.721269E+0	1.691174E+0	1.721645E+0	1.725949E+0	1.727237E+0	1.700910E+0	1.801696E+0	1.757064E+0	1.737917E+0	1.726361E+0	1.753485E+0	1.742711E+0	1.665042E+0	1.790681E+0	1.695000E+0	1.800577E+0	1.782996E+0	1.712386E+0	1.708484E+0	1.768120E+0	1.724398E+0	1.750410E+0	1.782999E+0	1.704775E+0	1.704344E+0	1.762974E+0	1.660457E+0	1.727081E+0	1.772270E+0	1.704490E+0	1.787691E+0	1.805381E+0	1.684789E+0	1.737639E+0	1.713720E+0	1.722765E+0	1.697036E+0	1.722108E+0	1.724444E+0	1.724809E+0	1.756142E+0	1.728096E+0	1.719049E+0	1.733827E+0	1.754921E+0	1.714348E+0	1.783549E+0	1.780262E+0	1.743156E+0	1.693339E+0	1.794036E+0	1.798539E+0	1.727062E+0	1.745942E+0	1.703836E+0	1.711677E+0	1.667812E+0	1.707038E+0	1.747958E+0	1.757451E+0	1.720153E+0	1.699415E+0	1.753077E+0	1.814458E+0	1.746704E+0	1.707067E+0	1.695483E+0	1.893304E+0
5.405080E+2	1.777738E+0	1.718570E+0	1.756579E+0	1.742791E+0	1.711002E+0	1.759168E+0	1.766969E+0	1.741921E+0	1.752175E+0	1.698770E+0	1.700351E+0	1.774898E+0	1.749572E+0	1.715777E+0	1.711014E+0	1.771182E+0	1.800962E+0	1.809944E+0	1.673285E+0	1.732170E+0	1.708546E+0	1.785811E+0	1.758733E+0	1.733298E+0	1.709573E+0	1.744232E+0	1.679222E+0	1.744728E+0	1.733799E+0	1.748245E+0	1.736528E+0	1.727168E+0	1.719508E+0	1.827264E+0	1.818470E+0	1.708830E+0	1.685136E+0	1.743983E+0	1.740095E+0	1.677651E+0	1.756123E+0	1.723827E+0	1.673979E+0	1.637726E+0	1.691216E+0	1.707732E+0	1.748926E+0	1.724960E+0	1.688548E+0	1.723591E+0	1.718584E+0	1.726757E+0	1.673986E+0	1.699108E+0	1.705358E+0	1.745143E+0	1.776005E+0	1.698146E+0	1.688677E+0	1.662182E+0	1.680830E+0	1.684980E+0	1.739082E+0	1.720779E+0	1.761648E+0	1.645318E+0	1.824562E+0	1.706102E+0	1.727882E+0	1.699908E+0	1.680443E+0	1.692214E+0	1.816871E+0	1.653002E+0	1.664663E+0	1.713565E+0	1.713222E+0	1.745247E+0	1.729709E+0	1.767591E+0	1.700232E+0	1.710173E+0	1.724909E+0	1.723100E+0	1.750919E+0	1.661344E+0	1.736552E+0	1.715457E+0	1.702632E+0	1.656424E+0	1.712559E+0	1.680924E+0	1.719868E+0	1.727164E+0	1.606915E+0	1.698261E+0	1.669719E+0	1.721230E+0	1.738709E+0	1.769302E+0	1.686049E+0	1.665828E+0	1.699743E+0	1.768648E+0	1.727923E+0	1.672300E+0	1.666960E+0	1.771459E+0	1.716869E+0	1.741905E+0	1.651867E+0	1.675365E+0	1.686999E+0	1.674308E+0	1.740277E+0	1.698010E+0	1.656192E+0	1.659456E+0	1.703877E+0	1.656992E+0	1.738706E+0	1.669566E+0	1.694381E+0	1.725179E+0	1.684309E+0	1.629370E+0	1.721567E+0	1.674703E+0	1.693603E+0	1.652794E+0	1.730386E+0	1.665745E+0	1.703491E+0	1.612951E+0	1.667075E+0	1.668921E+0	1.677524E+0	1.689334E+0	1.728872E+0	1.685721E+0	1.660831E+0	1.688218E+0	1.677919E+0	1.710958E+0	1.726850E+0	1.679329E+0	1.675468E+0	1.714017E+0	1.660322E+0	1.653514E+0	1.655330E+0	1.718926E+0	1.701467E+0	1.742642E+0	1.742372E+0	1.672593E+0	1.630902E+0	1.658551E+0	1.703909E+0	1.609594E+0	1.661143E+0	1.730228E+0	1.670122E+0	1.642327E+0	1.677098E+0	1.630418E+0	1.623759E+0	1.661323E+0	1.690858E+0	1.645221E+0	1.858963E+0
5.407680E+2	1.660182E+0	1.667856E+0	1.627627E+0	1.611829E+0	1.648821E+0	1.675933E+0	1.677360E+0	1.646280E+0	1.674526E+0	1.639053E+0	1.610125E+0	1.630803E+0	1.667286E+0	1.659404E+0	1.646916E+0	1.668016E+0	1.722322E+0	1.633250E+0	1.674164E+0	1.673157E+0	1.651471E+0	1.694371E+0	1.640258E+0	1.646929E+0	1.600577E+0	1.628810E+0	1.636917E+0	1.628234E+0	1.651500E+0	1.622108E+0	1.666160E+0	1.684035E+0	1.625041E+0	1.650949E+0	1.707956E+0	1.682335E+0	1.644704E+0	1.624756E+0	1.718235E+0	1.646284E+0	1.674243E+0	1.576784E+0	1.577706E+0	1.648267E+0	1.615782E+0	1.617644E+0	1.654525E+0	1.643506E+0	1.620186E+0	1.627869E+0	1.613752E+0	1.640704E+0	1.669865E+0	1.667159E+0	1.635702E+0	1.628395E+0	1.681014E+0	1.583793E+0	1.646879E+0	1.626555E+0	1.628355E+0	1.643136E+0	1.570838E+0	1.672915E+0	1.609341E+0	1.597223E+0	1.701622E+0	1.700075E+0	1.602690E+0	1.614621E+0	1.606324E+0	1.684570E+0	1.645514E+0	1.609164E+0	1.587503E+0	1.647182E+0	1.666590E+0	1.607972E+0	1.596658E+0	1.600694E+0	1.646779E+0	1.629381E+0	1.633644E+0	1.658016E+0	1.615677E+0	1.619604E+0	1.694458E+0	1.701549E+0	1.620284E+0	1.626394E+0	1.662606E+0	1.678256E+0	1.626842E+0	1.600487E+0	1.610417E+0	1.645653E+0	1.629576E+0	1.547617E+0	1.690879E+0	1.665820E+0	1.645958E+0	1.623051E+0	1.586116E+0	1.614765E+0	1.616152E+0	1.585871E+0	1.579383E+0	1.658061E+0	1.600681E+0	1.634836E+0	1.647907E+0	1.613266E+0	1.604198E+0	1.599583E+0	1.650143E+0	1.635095E+0	1.620692E+0	1.572533E+0	1.560680E+0	1.603118E+0	1.634087E+0	1.595429E+0	1.632474E+0	1.665486E+0	1.625722E+0	1.689186E+0	1.546760E+0	1.584049E+0	1.578265E+0	1.610291E+0	1.609788E+0	1.617986E+0	1.584296E+0	1.629152E+0	1.650196E+0	1.666486E+0	1.600822E+0	1.601392E+0	1.565981E+0	1.625979E+0	1.588336E+0	1.586556E+0	1.628262E+0	1.638556E+0	1.633950E+0	1.573562E+0	1.624458E+0	1.607444E+0	1.568695E+0	1.614924E+0	1.599967E+0	1.667241E+0	1.599067E+0	1.662731E+0	1.618741E+0	1.626149E+0	1.583979E+0	1.630970E+0	1.572294E+0	1.574818E+0	1.515771E+0	1.624547E+0	1.597086E+0	1.586148E+0	1.586856E+0	1.575776E+0	1.593437E+0	1.593467E+0	1.600855E+0	1.597273E+0	1.560082E+0
5.410340E+2	1.613082E+0	1.588396E+0	1.565629E+0	1.599513E+0	1.557133E+0	1.606592E+0	1.566204E+0	1.580049E+0	1.622742E+0	1.566298E+0	1.542477E+0	1.562549E+0	1.577170E+0	1.648988E+0	1.629666E+0	1.598936E+0	1.602531E+0	1.542942E+0	1.563085E+0	1.596970E+0	1.580214E+0	1.617030E+0	1.582320E+0	1.609558E+0	1.545886E+0	1.587433E+0	1.533442E+0	1.630567E+0	1.626766E+0	1.568427E+0	1.604730E+0	1.593480E+0	1.612277E+0	1.599994E+0	1.626749E+0	1.584222E+0	1.534275E+0	1.652658E+0	1.648391E+0	1.582804E+0	1.568437E+0	1.564777E+0	1.553259E+0	1.579241E+0	1.557660E+0	1.541961E+0	1.569041E+0	1.564341E+0	1.526657E+0	1.563345E+0	1.565202E+0	1.667762E+0	1.533891E+0	1.548051E+0	1.606434E+0	1.569379E+0	1.608281E+0	1.523432E+0	1.557269E+0	1.561197E+0	1.562582E+0	1.596296E+0	1.612354E+0	1.589620E+0	1.554080E+0	1.494814E+0	1.585376E+0	1.591168E+0	1.614393E+0	1.577398E+0	1.543513E+0	1.586136E+0	1.584823E+0	1.547252E+0	1.507118E+0	1.594635E+0	1.587628E+0	1.566056E+0	1.574154E+0	1.641213E+0	1.612938E+0	1.600342E+0	1.539075E+0	1.602058E+0	1.565637E+0	1.524882E+0	1.589434E+0	1.582926E+0	1.575314E+0	1.523068E+0	1.586031E+0	1.584776E+0	1.539519E+0	1.540215E+0	1.513259E+0	1.572906E+0	1.525900E+0	1.549215E+0	1.544129E+0	1.568805E+0	1.639915E+0	1.555827E+0	1.568999E+0	1.615479E+0	1.558058E+0	1.573813E+0	1.549838E+0	1.586579E+0	1.548931E+0	1.620850E+0	1.601998E+0	1.569733E+0	1.519810E+0	1.580970E+0	1.641529E+0	1.582291E+0	1.552888E+0	1.591153E+0	1.544693E+0	1.566881E+0	1.513095E+0	1.559940E+0	1.551153E+0	1.602655E+0	1.606662E+0	1.582829E+0	1.550990E+0	1.565533E+0	1.581665E+0	1.555160E+0	1.570697E+0	1.494125E+0	1.595519E+0	1.541025E+0	1.589049E+0	1.526712E+0	1.612432E+0	1.573376E+0	1.528408E+0	1.613033E+0	1.540092E+0	1.529517E+0	1.581509E+0	1.595986E+0	1.593627E+0	1.542765E+0	1.496917E+0	1.578517E+0	1.540284E+0	1.548617E+0	1.516143E+0	1.569071E+0	1.558363E+0	1.625542E+0	1.575456E+0	1.615148E+0	1.551474E+0	1.478362E+0	1.535726E+0	1.588226E+0	1.539841E+0	1.568398E+0	1.562397E+0	1.552780E+0	1.594349E+0	1.523312E+0	1.539221E+0	1.509640E+0	1.575162E+0	1.537816E+0	1.589740E+0
5.412850E+2	1.553575E+0	1.480756E+0	1.494307E+0	1.478889E+0	1.464218E+0	1.496484E+0	1.477175E+0	1.510838E+0	1.478858E+0	1.532085E+0	1.524107E+0	1.486765E+0	1.508380E+0	1.520220E+0	1.530819E+0	1.491447E+0	1.565204E+0	1.527066E+0	1.491639E+0	1.509269E+0	1.533366E+0	1.479830E+0	1.542089E+0	1.482012E+0	1.479550E+0	1.545705E+0	1.481718E+0	1.534656E+0	1.451963E+0	1.489155E+0	1.491624E+0	1.537316E+0	1.518179E+0	1.515671E+0	1.479282E+0	1.480516E+0	1.497659E+0	1.539611E+0	1.443495E+0	1.495742E+0	1.506818E+0	1.482692E+0	1.491159E+0	1.501166E+0	1.467478E+0	1.450058E+0	1.495184E+0	1.517139E+0	1.494296E+0	1.462879E+0	1.564613E+0	1.513721E+0	1.502902E+0	1.483105E+0	1.499018E+0	1.478087E+0	1.471049E+0	1.435048E+0	1.482862E+0	1.457591E+0	1.545544E+0	1.480095E+0	1.434524E+0	1.526917E+0	1.482399E+0	1.483417E+0	1.466892E+0	1.526029E+0	1.497683E+0	1.427946E+0	1.428027E+0	1.495686E+0	1.557536E+0	1.453151E+0	1.412306E+0	1.543148E+0	1.493721E+0	1.523023E+0	1.453399E+0	1.464401E+0	1.527024E+0	1.481712E+0	1.524586E+0	1.484219E+0	1.492532E+0	1.465144E+0	1.511053E+0	1.476356E+0	1.518588E+0	1.481680E+0	1.507113E+0	1.497614E+0	1.486128E+0	1.523038E+0	1.474263E+0	1.506498E+0	1.524954E+0	1.502679E+0	1.527464E+0	1.514610E+0	1.452650E+0	1.477951E+0	1.546186E+0	1.510470E+0	1.501845E+0	1.505841E+0	1.415888E+0	1.477919E+0	1.435830E+0	1.464924E+0	1.456233E+0	1.507042E+0	1.473866E+0	1.470195E+0	1.504617E+0	1.423968E+0	1.456016E+0	1.474726E+0	1.465865E+0	1.426484E+0	1.474165E+0	1.486075E+0	1.485574E+0	1.471974E+0	1.459026E+0	1.484208E+0	1.472267E+0	1.458213E+0	1.491550E+0	1.421024E+0	1.493790E+0	1.504533E+0	1.449504E+0	1.492599E+0	1.537347E+0	1.462718E+0	1.470918E+0	1.512920E+0	1.438381E+0	1.463820E+0	1.449051E+0	1.429271E+0	1.491060E+0	1.452948E+0	1.505972E+0	1.429324E+0	1.469579E+0	1.474339E+0	1.459384E+0	1.446787E+0	1.464989E+0	1.501498E+0	1.470641E+0	1.465237E+0	1.475046E+0	1.551489E+0	1.492565E+0	1.494724E+0	1.461817E+0	1.463405E+0	1.433356E+0	1.486966E+0	1.502707E+0	1.471761E+0	1.423450E+0	1.478692E+0	1.501137E+0	1.460798E+0	1.553568E+0	1.453647E+0	1.571741E+0
5.415140E+2	1.329719E+0	1.336541E+0	1.288571E+0	1.301021E+0	1.326813E+0	1.293469E+0	1.328447E+0	1.330082E+0	1.328552E+0	1.367043E+0	1.273148E+0	1.277543E+0	1.300855E+0	1.332620E+0	1.297141E+0	1.292253E+0	1.371445E+0	1.284647E+0	1.349751E+0	1.318320E+0	1.324209E+0	1.306523E+0	1.309763E+0	1.357679E+0	1.329112E+0	1.387578E+0	1.282818E+0	1.351444E+0	1.334866E+0	1.322102E+0	1.336362E+0	1.329899E+0	1.329606E+0	1.341679E+0	1.320652E+0	1.334910E+0	1.310747E+0	1.325786E+0	1.337336E+0	1.333586E+0	1.287888E+0	1.284846E+0	1.304702E+0	1.304088E+0	1.293478E+0	1.310170E+0	1.347781E+0	1.298944E+0	1.300306E+0	1.309486E+0	1.336859E+0	1.322629E+0	1.317170E+0	1.320814E+0	1.286908E+0	1.390417E+0	1.335389E+0	1.320358E+0	1.302843E+0	1.265163E+0	1.271569E+0	1.245406E+0	1.312636E+0	1.352249E+0	1.324549E+0	1.300580E+0	1.308210E+0	1.306308E+0	1.290807E+0	1.301444E+0	1.359200E+0	1.350033E+0	1.316096E+0	1.220436E+0	1.283274E+0	1.301090E+0	1.318680E+0	1.339745E+0	1.300652E+0	1.329296E+0	1.349411E+0	1.319141E+0	1.342407E+0	1.352909E+0	1.302488E+0	1.303348E+0	1.339790E+0	1.305160E+0	1.299032E+0	1.329782E+0	1.314922E+0	1.358054E+0	1.332387E+0	1.276095E+0	1.258621E+0	1.317209E+0	1.341053E+0	1.281138E+0	1.322377E+0	1.368682E+0	1.363703E+0	1.271934E+0	1.297435E+0	1.370896E+0	1.306684E+0	1.299127E+0	1.293205E+0	1.250456E+0	1.278723E+0	1.293029E+0	1.283314E+0	1.390248E+0	1.301451E+0	1.283095E+0	1.320726E+0	1.340329E+0	1.352195E+0	1.293965E+0	1.302968E+0	1.308384E+0	1.306475E+0	1.287724E+0	1.339165E+0	1.326357E+0	1.284359E+0	1.305247E+0	1.332328E+0	1.310383E+0	1.330360E+0	1.272365E+0	1.310506E+0	1.288636E+0	1.320848E+0	1.314530E+0	1.343442E+0	1.328719E+0	1.264808E+0	1.292438E+0	1.351462E+0	1.323852E+0	1.357275E+0	1.271409E+0	1.312363E+0	1.320261E+0	1.296236E+0	1.306082E+0	1.275117E+0	1.322814E+0	1.331827E+0	1.255623E+0	1.285627E+0	1.327567E+0	1.300761E+0	1.325438E+0	1.272780E+0	1.328364E+0	1.333656E+0	1.306441E+0	1.311489E+0	1.287631E+0	1.306251E+0	1.310524E+0	1.265525E+0	1.292163E+0	1.357341E+0	1.242570E+0	1.292192E+0	1.300059E+0	1.312964E+0	1.268484E+0	1.402987E+0
5.417760E+2	1.191689E+0	1.155255E+0	1.141887E+0	1.149021E+0	1.119934E+0	1.151968E+0	1.150297E+0	1.118679E+0	1.163081E+0	1.098326E+0	1.116057E+0	1.118941E+0	1.138510E+0	1.155928E+0	1.129531E+0	1.140258E+0	1.179983E+0	1.112915E+0	1.184086E+0	1.153645E+0	1.156069E+0	1.120260E+0	1.171093E+0	1.122934E+0	1.157831E+0	1.140404E+0	1.131520E+0	1.124419E+0	1.135198E+0	1.110867E+0	1.140684E+0	1.162724E+0	1.123546E+0	1.143496E+0	1.176157E+0	1.120878E+0	1.120144E+0	1.132622E+0	1.121652E+0	1.156622E+0	1.144101E+0	1.153963E+0	1.127102E+0	1.158545E+0	1.134154E+0	1.130052E+0	1.123281E+0	1.161100E+0	1.158349E+0	1.121566E+0	1.105945E+0	1.164710E+0	1.102826E+0	1.130787E+0	1.160722E+0	1.128080E+0	1.190144E+0	1.080773E+0	1.211642E+0	1.124704E+0	1.165146E+0	1.120969E+0	1.116678E+0	1.163370E+0	1.126208E+0	1.120267E+0	1.169160E+0	1.148890E+0	1.121049E+0	1.128725E+0	1.133302E+0	1.134007E+0	1.136887E+0	1.103123E+0	1.111575E+0	1.178930E+0	1.123085E+0	1.175743E+0	1.146217E+0	1.099712E+0	1.142021E+0	1.205386E+0	1.146341E+0	1.181950E+0	1.129848E+0	1.176703E+0	1.110072E+0	1.111520E+0	1.116974E+0	1.138998E+0	1.130622E+0	1.204107E+0	1.131033E+0	1.139574E+0	1.134310E+0	1.170379E+0	1.139301E+0	1.127448E+0	1.104337E+0	1.154650E+0	1.176304E+0	1.119025E+0	1.093523E+0	1.118798E+0	1.116583E+0	1.109648E+0	1.076945E+0	1.130961E+0	1.121608E+0	1.210069E+0	1.108613E+0	1.114793E+0	1.114196E+0	1.127900E+0	1.154952E+0	1.135535E+0	1.160171E+0	1.119499E+0	1.149804E+0	1.141801E+0	1.136354E+0	1.090989E+0	1.099103E+0	1.112907E+0	1.147702E+0	1.141083E+0	1.095451E+0	1.133681E+0	1.139795E+0	1.107634E+0	1.151436E+0	1.122701E+0	1.093276E+0	1.088416E+0	1.175471E+0	1.109059E+0	1.153184E+0	1.169190E+0	1.165152E+0	1.162223E+0	1.114304E+0	1.098655E+0	1.172532E+0	1.155489E+0	1.161338E+0	1.097546E+0	1.156360E+0	1.160702E+0	1.150325E+0	1.160215E+0	1.165283E+0	1.158916E+0	1.114565E+0	1.143761E+0	1.100471E+0	1.201560E+0	1.107600E+0	1.072357E+0	1.093117E+0	1.098545E+0	1.129796E+0	1.154744E+0	1.141504E+0	1.128789E+0	1.186639E+0	1.156037E+0	1.097160E+0	1.091801E+0	1.130981E+0	1.144564E+0	1.136011E+0
5.420270E+2	1.031089E+0	1.025812E+0	1.029383E+0	9.956154E-1	1.003257E+0	1.023496E+0	1.014214E+0	1.021122E+0	1.086843E+0	1.003251E+0	9.679366E-1	9.988180E-1	9.709970E-1	1.004908E+0	1.005736E+0	9.888998E-1	9.537869E-1	9.788647E-1	9.857356E-1	1.016712E+0	9.731782E-1	1.029378E+0	9.940470E-1	9.786407E-1	1.007139E+0	9.779206E-1	1.004074E+0	1.002255E+0	9.939728E-1	1.036555E+0	9.882166E-1	9.871283E-1	9.522496E-1	9.978304E-1	9.778937E-1	1.016043E+0	9.821973E-1	1.014067E+0	9.883097E-1	1.004751E+0	1.008416E+0	9.771008E-1	1.026768E+0	9.944936E-1	9.877000E-1	9.795260E-1	1.018751E+0	9.928444E-1	1.015272E+0	1.059850E+0	1.025116E+0	1.020870E+0	1.003786E+0	9.990467E-1	1.010943E+0	9.935228E-1	9.935852E-1	1.020831E+0	9.884619E-1	9.640914E-1	9.731410E-1	9.928613E-1	1.025290E+0	1.028277E+0	9.849600E-1	9.634156E-1	1.010617E+0	1.014263E+0	9.965559E-1	9.956779E-1	1.011419E+0	1.009032E+0	1.047849E+0	9.518669E-1	9.415354E-1	1.023893E+0	1.014023E+0	1.015117E+0	9.908561E-1	9.832466E-1	9.987872E-1	1.019883E+0	9.834465E-1	1.066813E+0	9.901938E-1	1.036980E+0	1.009403E+0	1.020741E+0	9.798872E-1	9.659603E-1	1.002829E+0	9.863920E-1	9.683435E-1	9.775496E-1	1.016052E+0	1.041424E+0	9.925788E-1	9.630003E-1	1.015084E+0	1.020516E+0	9.981181E-1	9.724776E-1	9.861301E-1	9.517046E-1	9.949100E-1	1.021517E+0	1.014523E+0	9.823722E-1	9.783502E-1	9.965347E-1	9.895535E-1	1.032594E+0	9.849912E-1	9.878229E-1	1.026018E+0	1.001868E+0	9.554221E-1	9.770024E-1	1.009980E+0	9.852731E-1	9.813679E-1	1.008868E+0	9.956796E-1	9.742943E-1	9.992755E-1	9.900871E-1	9.837930E-1	1.031353E+0	9.893266E-1	9.848780E-1	1.034620E+0	9.773331E-1	9.566040E-1	1.011507E+0	1.019968E+0	1.017993E+0	1.014964E+0	9.646074E-1	1.027688E+0	1.034933E+0	1.046294E+0	9.770637E-1	1.054983E+0	1.015178E+0	1.010165E+0	9.590933E-1	9.842563E-1	1.036397E+0	1.006821E+0	1.011765E+0	1.040246E+0	9.843041E-1	1.014559E+0	1.002942E+0	1.023301E+0	1.067739E+0	9.859946E-1	9.834259E-1	9.985551E-1	9.492438E-1	9.938210E-1	9.984141E-1	9.933904E-1	1.004059E+0	1.011654E+0	1.009480E+0	1.000903E+0	1.025453E+0	1.038080E+0	9.896624E-1	1.041417E+0
5.422730E+2	9.100100E-1	9.467478E-1	9.024097E-1	9.406010E-1	9.417631E-1	9.214736E-1	9.184344E-1	9.132612E-1	8.896801E-1	9.366066E-1	8.795900E-1	9.281877E-1	9.410080E-1	9.529594E-1	9.179825E-1	9.129280E-1	9.504842E-1	9.175143E-1	9.574431E-1	8.995545E-1	9.090588E-1	9.818980E-1	9.558058E-1	9.483623E-1	9.717830E-1	9.590380E-1	9.178376E-1	9.323170E-1	8.615275E-1	8.887676E-1	9.036052E-1	9.284029E-1	8.981152E-1	9.488203E-1	9.656332E-1	9.120175E-1	9.033063E-1	9.031413E-1	9.143362E-1	8.984858E-1	9.261188E-1	9.309654E-1	9.039538E-1	9.167775E-1	9.292939E-1	9.033502E-1	9.061939E-1	9.042460E-1	9.076498E-1	9.636202E-1	9.375866E-1	9.077097E-1	9.234309E-1	9.128812E-1	9.213608E-1	9.116725E-1	9.619625E-1	9.091061E-1	9.084245E-1	9.243340E-1	9.458639E-1	9.311952E-1	9.596671E-1	8.892115E-1	9.543652E-1	9.193347E-1	9.006915E-1	9.367251E-1	9.253781E-1	9.296985E-1	9.288348E-1	9.156129E-1	9.051590E-1	9.105349E-1	8.903628E-1	9.309414E-1	9.329211E-1	9.074169E-1	8.995369E-1	9.054653E-1	9.400732E-1	9.249946E-1	9.351386E-1	9.556682E-1	9.063909E-1	9.142442E-1	9.211910E-1	8.729128E-1	9.326123E-1	9.214256E-1	9.264727E-1	9.783100E-1	9.379640E-1	8.978611E-1	9.181684E-1	9.110229E-1	9.274091E-1	9.183870E-1	9.504577E-1	9.322997E-1	9.161294E-1	8.951886E-1	8.780410E-1	8.971392E-1	9.175025E-1	9.278722E-1	9.319490E-1	8.890003E-1	9.360038E-1	9.389348E-1	9.081946E-1	9.126987E-1	8.996290E-1	9.233992E-1	9.270635E-1	9.295551E-1	9.381760E-1	8.976305E-1	9.185405E-1	9.387387E-1	8.825640E-1	9.101141E-1	9.288183E-1	8.816476E-1	9.037457E-1	8.844842E-1	9.380140E-1	9.186635E-1	9.013195E-1	8.727810E-1	9.255212E-1	9.566450E-1	8.827960E-1	9.469934E-1	9.356554E-1	9.668841E-1	9.361555E-1	9.247653E-1	9.161398E-1	9.581412E-1	9.646670E-1	9.285994E-1	9.386488E-1	9.111747E-1	8.944243E-1	9.357525E-1	9.358846E-1	9.342326E-1	9.131154E-1	9.768675E-1	9.470839E-1	9.487995E-1	9.609885E-1	9.129733E-1	9.185789E-1	9.483027E-1	9.410567E-1	9.273321E-1	9.604753E-1	9.590920E-1	9.137410E-1	9.312661E-1	8.732813E-1	9.371365E-1	9.785643E-1	9.012052E-1	9.094294E-1	9.298742E-1	9.492472E-1	8.587479E-1	9.717585E-1
5.425300E+2	9.502751E-1	9.009127E-1	8.981893E-1	9.408976E-1	8.875894E-1	9.159725E-1	8.926027E-1	8.935211E-1	9.079035E-1	9.310281E-1	8.850489E-1	8.743647E-1	9.243536E-1	9.053962E-1	9.251728E-1	9.590282E-1	9.347218E-1	9.619288E-1	9.183660E-1	9.042940E-1	9.101613E-1	9.692799E-1	9.142161E-1	9.053504E-1	9.085533E-1	8.825875E-1	9.196993E-1	8.993906E-1	9.301024E-1	9.147995E-1	9.112651E-1	9.208308E-1	9.173800E-1	8.923657E-1	9.519378E-1	8.941117E-1	9.158442E-1	9.448883E-1	9.064297E-1	8.919939E-1	8.971868E-1	9.408281E-1	8.911223E-1	9.200031E-1	9.089018E-1	9.034688E-1	9.192430E-1	9.344730E-1	8.926945E-1	9.756754E-1	9.400136E-1	8.878697E-1	8.838207E-1	8.729256E-1	9.252538E-1	8.815862E-1	9.688133E-1	8.902347E-1	8.677930E-1	9.101853E-1	9.233225E-1	9.107362E-1	9.119233E-1	8.997862E-1	9.282615E-1	8.962835E-1	9.364195E-1	9.152993E-1	9.529743E-1	8.991195E-1	9.707804E-1	9.096058E-1	9.476235E-1	9.178923E-1	9.025615E-1	9.339302E-1	9.232749E-1	8.863975E-1	9.033405E-1	9.497636E-1	9.480593E-1	8.953670E-1	8.897013E-1	8.894320E-1	8.939621E-1	8.576637E-1	9.080466E-1	9.252100E-1	9.015079E-1	9.061894E-1	9.129517E-1	9.064648E-1	9.201514E-1	8.795456E-1	8.971556E-1	9.515158E-1	9.227815E-1	8.818857E-1	8.768785E-1	8.932397E-1	9.013960E-1	9.039827E-1	8.737919E-1	9.938472E-1	8.914414E-1	9.277328E-1	8.994770E-1	9.194243E-1	8.981665E-1	9.241652E-1	8.733413E-1	8.819710E-1	9.429639E-1	8.857382E-1	9.258008E-1	8.860775E-1	9.516041E-1	8.724491E-1	9.575585E-1	8.926642E-1	9.291913E-1	9.039739E-1	9.095282E-1	9.319842E-1	9.198864E-1	9.035907E-1	9.109220E-1	9.039404E-1	9.034735E-1	9.365291E-1	9.487973E-1	9.541126E-1	8.996890E-1	9.363161E-1	9.063992E-1	9.282788E-1	9.661113E-1	9.126984E-1	9.071206E-1	9.053892E-1	8.875320E-1	9.125429E-1	9.190346E-1	9.228474E-1	9.326107E-1	9.186668E-1	8.826153E-1	9.458383E-1	8.727199E-1	9.240623E-1	8.997882E-1	9.216898E-1	9.220779E-1	9.451925E-1	9.478182E-1	9.567201E-1	9.190316E-1	9.498637E-1	9.277964E-1	9.092953E-1	9.030378E-1	9.178460E-1	9.109452E-1	9.223302E-1	9.089828E-1	8.888645E-1	8.899583E-1	9.115945E-1	9.175765E-1	8.855518E-1	9.832511E-1
5.427650E+2	9.787896E-1	9.776495E-1	9.716993E-1	9.651206E-1	9.917754E-1	1.003728E+0	1.003778E+0	9.623914E-1	9.642640E-1	9.782716E-1	9.640405E-1	9.752386E-1	9.426763E-1	1.021544E+0	9.600039E-1	9.817109E-1	1.047037E+0	1.016352E+0	1.006171E+0	9.901292E-1	1.003176E+0	9.357135E-1	9.935441E-1	1.028450E+0	9.905197E-1	9.692783E-1	9.658889E-1	1.007224E+0	9.629132E-1	1.028124E+0	9.921211E-1	9.703208E-1	9.704601E-1	1.008199E+0	9.862812E-1	9.414986E-1	8.980885E-1	9.698114E-1	9.850244E-1	9.466787E-1	9.586035E-1	9.458387E-1	9.589766E-1	9.771668E-1	9.525724E-1	9.820767E-1	9.622275E-1	9.835318E-1	1.008657E+0	9.916222E-1	9.771921E-1	9.718580E-1	9.728606E-1	9.859149E-1	1.012960E+0	9.498383E-1	9.747917E-1	9.467346E-1	9.853148E-1	9.147460E-1	9.604307E-1	9.706944E-1	9.895189E-1	9.676418E-1	9.936131E-1	9.718985E-1	9.887926E-1	9.794177E-1	9.875096E-1	9.863335E-1	9.786586E-1	9.874617E-1	9.867082E-1	9.624425E-1	9.416273E-1	9.686243E-1	9.950091E-1	9.881997E-1	9.610113E-1	9.794103E-1	9.612948E-1	9.767345E-1	9.564950E-1	9.696378E-1	9.615688E-1	9.889475E-1	9.955712E-1	9.532795E-1	9.884229E-1	9.927025E-1	9.967036E-1	9.942578E-1	9.802129E-1	9.516547E-1	9.895838E-1	9.846685E-1	9.639960E-1	9.750757E-1	9.382799E-1	1.026698E+0	9.594417E-1	9.870410E-1	9.765912E-1	1.026929E+0	9.671959E-1	9.840077E-1	9.605131E-1	1.002993E+0	9.749082E-1	9.563044E-1	1.008962E+0	9.947483E-1	9.989858E-1	9.738199E-1	1.050422E+0	9.402096E-1	9.707533E-1	9.516763E-1	9.957719E-1	9.777802E-1	9.838034E-1	9.953087E-1	9.600967E-1	9.794893E-1	9.500412E-1	9.928196E-1	1.004962E+0	9.571219E-1	1.006395E+0	9.522889E-1	9.920054E-1	9.561185E-1	9.686912E-1	9.458195E-1	1.015773E+0	9.543035E-1	9.868092E-1	9.796876E-1	9.754461E-1	9.964536E-1	1.015074E+0	9.617363E-1	9.705970E-1	9.738689E-1	9.713015E-1	9.836023E-1	9.432590E-1	9.870631E-1	9.819208E-1	9.686755E-1	9.959670E-1	1.007492E+0	9.960433E-1	9.840819E-1	9.394755E-1	1.002990E+0	9.759343E-1	9.712432E-1	9.752360E-1	9.670385E-1	1.045413E+0	1.009313E+0	9.911829E-1	9.475252E-1	9.524734E-1	1.017154E+0	9.523852E-1	9.447270E-1	9.980363E-1	9.169753E-1	1.021591E+0
5.430070E+2	1.110454E+0	1.067328E+0	1.049172E+0	1.107982E+0	1.091946E+0	1.120595E+0	1.144924E+0	1.106249E+0	1.101014E+0	1.080331E+0	1.040073E+0	1.113476E+0	1.125424E+0	1.088040E+0	1.115636E+0	1.116185E+0	1.142459E+0	1.092834E+0	1.126677E+0	1.089134E+0	1.114361E+0	1.102787E+0	1.141932E+0	1.118432E+0	1.068732E+0	1.126674E+0	1.077737E+0	1.094471E+0	1.119310E+0	1.076469E+0	1.120762E+0	1.116329E+0	1.112398E+0	1.097310E+0	1.128569E+0	1.076543E+0	1.110677E+0	1.106253E+0	1.068465E+0	1.097660E+0	1.130602E+0	1.098397E+0	1.095401E+0	1.116847E+0	1.078614E+0	1.068811E+0	1.097845E+0	1.104268E+0	1.061760E+0	1.125305E+0	1.127623E+0	1.136025E+0	1.104147E+0	1.080226E+0	1.107968E+0	1.088008E+0	1.194673E+0	1.084066E+0	1.108014E+0	1.057987E+0	1.083680E+0	1.103694E+0	1.058184E+0	1.088896E+0	1.118222E+0	1.077533E+0	1.101253E+0	1.067981E+0	1.082338E+0	1.091291E+0	1.094196E+0	1.113505E+0	1.102144E+0	1.084905E+0	1.072294E+0	1.106581E+0	1.096863E+0	1.085105E+0	1.060179E+0	1.068313E+0	1.085907E+0	1.111700E+0	1.090730E+0	1.097706E+0	1.141951E+0	1.108318E+0	1.128668E+0	1.108457E+0	1.127896E+0	1.072640E+0	1.030392E+0	1.092545E+0	1.092450E+0	1.086675E+0	1.110315E+0	1.094361E+0	1.070084E+0	1.026560E+0	1.101082E+0	1.100788E+0	1.136576E+0	1.070616E+0	1.048156E+0	1.090579E+0	1.088834E+0	1.103445E+0	1.039876E+0	1.032771E+0	1.039574E+0	1.119392E+0	1.049133E+0	1.091423E+0	1.082768E+0	1.075538E+0	1.105584E+0	1.096419E+0	1.118909E+0	1.097687E+0	1.092227E+0	1.114656E+0	1.061105E+0	1.084554E+0	1.098468E+0	1.079487E+0	1.074268E+0	1.138122E+0	1.100420E+0	1.072824E+0	1.151836E+0	1.091493E+0	1.041815E+0	1.132591E+0	1.115201E+0	1.112662E+0	1.105750E+0	1.124770E+0	1.149494E+0	1.118786E+0	1.153232E+0	1.055450E+0	1.089024E+0	1.072812E+0	1.114772E+0	1.094351E+0	1.083267E+0	1.051959E+0	1.098138E+0	1.105040E+0	1.060673E+0	1.075462E+0	1.067247E+0	1.088284E+0	1.125990E+0	1.101751E+0	1.108849E+0	1.098484E+0	1.109727E+0	1.137231E+0	1.110893E+0	1.112351E+0	1.116682E+0	1.130336E+0	1.078714E+0	1.086109E+0	1.100366E+0	1.093910E+0	1.073532E+0	1.100855E+0	1.089447E+0	1.001864E+0	1.200418E+0
5.433020E+2	1.307741E+0	1.285710E+0	1.272433E+0	1.253717E+0	1.226680E+0	1.260229E+0	1.262704E+0	1.257379E+0	1.270316E+0	1.292252E+0	1.226047E+0	1.302952E+0	1.271360E+0	1.258099E+0	1.310430E+0	1.276434E+0	1.328407E+0	1.324129E+0	1.260878E+0	1.259096E+0	1.288288E+0	1.308078E+0	1.256855E+0	1.295792E+0	1.275499E+0	1.317736E+0	1.238697E+0	1.272553E+0	1.279751E+0	1.279432E+0	1.316718E+0	1.265877E+0	1.292560E+0	1.289101E+0	1.279708E+0	1.277108E+0	1.240152E+0	1.264619E+0	1.260822E+0	1.222113E+0	1.271056E+0	1.266362E+0	1.302809E+0	1.295947E+0	1.272073E+0	1.249670E+0	1.313791E+0	1.261144E+0	1.250659E+0	1.270352E+0	1.304392E+0	1.298764E+0	1.254839E+0	1.260305E+0	1.293935E+0	1.246913E+0	1.276919E+0	1.285074E+0	1.272003E+0	1.270450E+0	1.242425E+0	1.248366E+0	1.209715E+0	1.274198E+0	1.319009E+0	1.245567E+0	1.268267E+0	1.294202E+0	1.265493E+0	1.324206E+0	1.285755E+0	1.267900E+0	1.250412E+0	1.253800E+0	1.267811E+0	1.292592E+0	1.214350E+0	1.265672E+0	1.242831E+0	1.235425E+0	1.310692E+0	1.309734E+0	1.213611E+0	1.348303E+0	1.285127E+0	1.303331E+0	1.271828E+0	1.247534E+0	1.282880E+0	1.283041E+0	1.288166E+0	1.288874E+0	1.280817E+0	1.254588E+0	1.230130E+0	1.233386E+0	1.274246E+0	1.222504E+0	1.255463E+0	1.275337E+0	1.257483E+0	1.247729E+0	1.292238E+0	1.219069E+0	1.287726E+0	1.233911E+0	1.232464E+0	1.262441E+0	1.260847E+0	1.258813E+0	1.268292E+0	1.244251E+0	1.279702E+0	1.300143E+0	1.340250E+0	1.239332E+0	1.239034E+0	1.284955E+0	1.279911E+0	1.257057E+0	1.236093E+0	1.266652E+0	1.218243E+0	1.248205E+0	1.203786E+0	1.235899E+0	1.287045E+0	1.229103E+0	1.318021E+0	1.271346E+0	1.276139E+0	1.313061E+0	1.208657E+0	1.254582E+0	1.231526E+0	1.285951E+0	1.252192E+0	1.254317E+0	1.226528E+0	1.211329E+0	1.293983E+0	1.226915E+0	1.213059E+0	1.303033E+0	1.271099E+0	1.255479E+0	1.232960E+0	1.226751E+0	1.250328E+0	1.246199E+0	1.247147E+0	1.269908E+0	1.328078E+0	1.281154E+0	1.232003E+0	1.294393E+0	1.260550E+0	1.276176E+0	1.224834E+0	1.211494E+0	1.229367E+0	1.283620E+0	1.295753E+0	1.253882E+0	1.302382E+0	1.279790E+0	1.275103E+0	1.259919E+0	1.237927E+0	1.191384E+0	1.278933E+0
5.435270E+2	1.440388E+0	1.457598E+0	1.341967E+0	1.402706E+0	1.362090E+0	1.455632E+0	1.376160E+0	1.360409E+0	1.367100E+0	1.421853E+0	1.390294E+0	1.396169E+0	1.407445E+0	1.419471E+0	1.362612E+0	1.405924E+0	1.462989E+0	1.359572E+0	1.431778E+0	1.424688E+0	1.413017E+0	1.431057E+0	1.390888E+0	1.400378E+0	1.390208E+0	1.428181E+0	1.406709E+0	1.389223E+0	1.360441E+0	1.383156E+0	1.414784E+0	1.402371E+0	1.383043E+0	1.413522E+0	1.446921E+0	1.435230E+0	1.371032E+0	1.395593E+0	1.376960E+0	1.370581E+0	1.409042E+0	1.400802E+0	1.411097E+0	1.341047E+0	1.368640E+0	1.402502E+0	1.415243E+0	1.401053E+0	1.397896E+0	1.449898E+0	1.413598E+0	1.419344E+0	1.424553E+0	1.458812E+0	1.459923E+0	1.388830E+0	1.408686E+0	1.423523E+0	1.405278E+0	1.377550E+0	1.443567E+0	1.419253E+0	1.361819E+0	1.395828E+0	1.431222E+0	1.424196E+0	1.408564E+0	1.389590E+0	1.375274E+0	1.412505E+0	1.372705E+0	1.419104E+0	1.409359E+0	1.400760E+0	1.317246E+0	1.432533E+0	1.425732E+0	1.374462E+0	1.398300E+0	1.391697E+0	1.412619E+0	1.362574E+0	1.389388E+0	1.396460E+0	1.448454E+0	1.449851E+0	1.358998E+0	1.376640E+0	1.388255E+0	1.370156E+0	1.391457E+0	1.389168E+0	1.438264E+0	1.393062E+0	1.369532E+0	1.426536E+0	1.424419E+0	1.406291E+0	1.328467E+0	1.438251E+0	1.353811E+0	1.360715E+0	1.396806E+0	1.423279E+0	1.415592E+0	1.378190E+0	1.367027E+0	1.412496E+0	1.371166E+0	1.363543E+0	1.370871E+0	1.334601E+0	1.409553E+0	1.371801E+0	1.441383E+0	1.396546E+0	1.334233E+0	1.370619E+0	1.398258E+0	1.385803E+0	1.411261E+0	1.398481E+0	1.449545E+0	1.372873E+0	1.366954E+0	1.373502E+0	1.384034E+0	1.341162E+0	1.352881E+0	1.365077E+0	1.419832E+0	1.370563E+0	1.357648E+0	1.381267E+0	1.403063E+0	1.364905E+0	1.371307E+0	1.375123E+0	1.364535E+0	1.367152E+0	1.377788E+0	1.375690E+0	1.390595E+0	1.356896E+0	1.402223E+0	1.378509E+0	1.409177E+0	1.394903E+0	1.380887E+0	1.382482E+0	1.383445E+0	1.417277E+0	1.346370E+0	1.413451E+0	1.363358E+0	1.383477E+0	1.393820E+0	1.383776E+0	1.358224E+0	1.349708E+0	1.368395E+0	1.412384E+0	1.415051E+0	1.316242E+0	1.396776E+0	1.378030E+0	1.418590E+0	1.432285E+0	1.316492E+0	1.375771E+0	1.413487E+0
5.437690E+2	1.518016E+0	1.521182E+0	1.550891E+0	1.516719E+0	1.448886E+0	1.558056E+0	1.534618E+0	1.508184E+0	1.467761E+0	1.583509E+0	1.466205E+0	1.507417E+0	1.552541E+0	1.583560E+0	1.508769E+0	1.526800E+0	1.510153E+0	1.592662E+0	1.499483E+0	1.515086E+0	1.458622E+0	1.543596E+0	1.473316E+0	1.519819E+0	1.479480E+0	1.543082E+0	1.476886E+0	1.499214E+0	1.503196E+0	1.567767E+0	1.520077E+0	1.492689E+0	1.549249E+0	1.496571E+0	1.488659E+0	1.570199E+0	1.460641E+0	1.501407E+0	1.530858E+0	1.490659E+0	1.426612E+0	1.464034E+0	1.505091E+0	1.508801E+0	1.524310E+0	1.515629E+0	1.507208E+0	1.503664E+0	1.509251E+0	1.472900E+0	1.539225E+0	1.516784E+0	1.456608E+0	1.496918E+0	1.493292E+0	1.471015E+0	1.460671E+0	1.483174E+0	1.497139E+0	1.522795E+0	1.472651E+0	1.475457E+0	1.454048E+0	1.534573E+0	1.523406E+0	1.455729E+0	1.501064E+0	1.510015E+0	1.457008E+0	1.481505E+0	1.524833E+0	1.526964E+0	1.552438E+0	1.513017E+0	1.410288E+0	1.538004E+0	1.500945E+0	1.516529E+0	1.422132E+0	1.534244E+0	1.492248E+0	1.522981E+0	1.509034E+0	1.498089E+0	1.532666E+0	1.500029E+0	1.523051E+0	1.522238E+0	1.495802E+0	1.513732E+0	1.518539E+0	1.509508E+0	1.523587E+0	1.510891E+0	1.508225E+0	1.433866E+0	1.510769E+0	1.475577E+0	1.486695E+0	1.528587E+0	1.512648E+0	1.475954E+0	1.485473E+0	1.479656E+0	1.467557E+0	1.494929E+0	1.460993E+0	1.441036E+0	1.517679E+0	1.534935E+0	1.541654E+0	1.487540E+0	1.494671E+0	1.451061E+0	1.572573E+0	1.459756E+0	1.491877E+0	1.460880E+0	1.526639E+0	1.481407E+0	1.468703E+0	1.422351E+0	1.532202E+0	1.483930E+0	1.464230E+0	1.455414E+0	1.459401E+0	1.432106E+0	1.484999E+0	1.572718E+0	1.469039E+0	1.450297E+0	1.450966E+0	1.504017E+0	1.494223E+0	1.526214E+0	1.524183E+0	1.469306E+0	1.532777E+0	1.491526E+0	1.487623E+0	1.446627E+0	1.519573E+0	1.496867E+0	1.475130E+0	1.481435E+0	1.516758E+0	1.475197E+0	1.458196E+0	1.443295E+0	1.521320E+0	1.518506E+0	1.491507E+0	1.465580E+0	1.483571E+0	1.551386E+0	1.516976E+0	1.474331E+0	1.498738E+0	1.474491E+0	1.424571E+0	1.475698E+0	1.435321E+0	1.499937E+0	1.540584E+0	1.457064E+0	1.500058E+0	1.475573E+0	1.482862E+0	1.416152E+0	1.475127E+0
5.440170E+2	1.646497E+0	1.525211E+0	1.568558E+0	1.618773E+0	1.547799E+0	1.578909E+0	1.488193E+0	1.606941E+0	1.610905E+0	1.534528E+0	1.576961E+0	1.615830E+0	1.528342E+0	1.577797E+0	1.572443E+0	1.573911E+0	1.572735E+0	1.576866E+0	1.571932E+0	1.556024E+0	1.511629E+0	1.569666E+0	1.600206E+0	1.547115E+0	1.554915E+0	1.625603E+0	1.550097E+0	1.583392E+0	1.610827E+0	1.564398E+0	1.573044E+0	1.529179E+0	1.551020E+0	1.566820E+0	1.623039E+0	1.525001E+0	1.557682E+0	1.588947E+0	1.581828E+0	1.515281E+0	1.527481E+0	1.610191E+0	1.542373E+0	1.565147E+0	1.609555E+0	1.524162E+0	1.546380E+0	1.515849E+0	1.557442E+0	1.565714E+0	1.583861E+0	1.587737E+0	1.533113E+0	1.553861E+0	1.595388E+0	1.591731E+0	1.511773E+0	1.546657E+0	1.577751E+0	1.490737E+0	1.539232E+0	1.583663E+0	1.577696E+0	1.532780E+0	1.575301E+0	1.553676E+0	1.599063E+0	1.516916E+0	1.527992E+0	1.521113E+0	1.581587E+0	1.567904E+0	1.565813E+0	1.585704E+0	1.542438E+0	1.594530E+0	1.520830E+0	1.573409E+0	1.521591E+0	1.518782E+0	1.571089E+0	1.555293E+0	1.512468E+0	1.606123E+0	1.492770E+0	1.571863E+0	1.542068E+0	1.586129E+0	1.471039E+0	1.490398E+0	1.511690E+0	1.582382E+0	1.520734E+0	1.507296E+0	1.544164E+0	1.529361E+0	1.542328E+0	1.517614E+0	1.570463E+0	1.501181E+0	1.590684E+0	1.529407E+0	1.589254E+0	1.530216E+0	1.483483E+0	1.543370E+0	1.507172E+0	1.521914E+0	1.517355E+0	1.522154E+0	1.562122E+0	1.536956E+0	1.589911E+0	1.550907E+0	1.550165E+0	1.513677E+0	1.509250E+0	1.544644E+0	1.579421E+0	1.552226E+0	1.585645E+0	1.488653E+0	1.520362E+0	1.539108E+0	1.520989E+0	1.528515E+0	1.504020E+0	1.471746E+0	1.545990E+0	1.558533E+0	1.552916E+0	1.546542E+0	1.522490E+0	1.537176E+0	1.525915E+0	1.593335E+0	1.563961E+0	1.545596E+0	1.534383E+0	1.539099E+0	1.519693E+0	1.561587E+0	1.529429E+0	1.536446E+0	1.544417E+0	1.504510E+0	1.481875E+0	1.556314E+0	1.510463E+0	1.533931E+0	1.553010E+0	1.497565E+0	1.497267E+0	1.507253E+0	1.575994E+0	1.609865E+0	1.463150E+0	1.512442E+0	1.527663E+0	1.549740E+0	1.508600E+0	1.500074E+0	1.490680E+0	1.524015E+0	1.540695E+0	1.463270E+0	1.536717E+0	1.519675E+0	1.570941E+0	1.511016E+0	1.479739E+0
5.442810E+2	1.518164E+0	1.559018E+0	1.536714E+0	1.611765E+0	1.575018E+0	1.570948E+0	1.568350E+0	1.548061E+0	1.601525E+0	1.619143E+0	1.492191E+0	1.549615E+0	1.533314E+0	1.572904E+0	1.533409E+0	1.554898E+0	1.594093E+0	1.530409E+0	1.532320E+0	1.546372E+0	1.555738E+0	1.568787E+0	1.591861E+0	1.553811E+0	1.541493E+0	1.582819E+0	1.554417E+0	1.557584E+0	1.539724E+0	1.587745E+0	1.535522E+0	1.547774E+0	1.590763E+0	1.597597E+0	1.635038E+0	1.528826E+0	1.530952E+0	1.561701E+0	1.535878E+0	1.535755E+0	1.489480E+0	1.524100E+0	1.556075E+0	1.537033E+0	1.550658E+0	1.522036E+0	1.584978E+0	1.583501E+0	1.547367E+0	1.546790E+0	1.577851E+0	1.527486E+0	1.550150E+0	1.542547E+0	1.600181E+0	1.548700E+0	1.534294E+0	1.480923E+0	1.482424E+0	1.531796E+0	1.535659E+0	1.518912E+0	1.557042E+0	1.543649E+0	1.561731E+0	1.533730E+0	1.588271E+0	1.528947E+0	1.542467E+0	1.547779E+0	1.546688E+0	1.576709E+0	1.541796E+0	1.564932E+0	1.532026E+0	1.575197E+0	1.521790E+0	1.559818E+0	1.479425E+0	1.507882E+0	1.549712E+0	1.583099E+0	1.520096E+0	1.568980E+0	1.479020E+0	1.540648E+0	1.549147E+0	1.570841E+0	1.535096E+0	1.545544E+0	1.528979E+0	1.569057E+0	1.540110E+0	1.537335E+0	1.557748E+0	1.514057E+0	1.509462E+0	1.531048E+0	1.586929E+0	1.498486E+0	1.562255E+0	1.509877E+0	1.521955E+0	1.571923E+0	1.492089E+0	1.574206E+0	1.575239E+0	1.500999E+0	1.506855E+0	1.505935E+0	1.493740E+0	1.490929E+0	1.524135E+0	1.552876E+0	1.511888E+0	1.508681E+0	1.571780E+0	1.488000E+0	1.486565E+0	1.549874E+0	1.504137E+0	1.543832E+0	1.557716E+0	1.548846E+0	1.572383E+0	1.502298E+0	1.528061E+0	1.521302E+0	1.565044E+0	1.495922E+0	1.563680E+0	1.556588E+0	1.523571E+0	1.499566E+0	1.527054E+0	1.549595E+0	1.489750E+0	1.547339E+0	1.512772E+0	1.561178E+0	1.521997E+0	1.540739E+0	1.570828E+0	1.514636E+0	1.519730E+0	1.502140E+0	1.498339E+0	1.549156E+0	1.520414E+0	1.561525E+0	1.520840E+0	1.504992E+0	1.578080E+0	1.580233E+0	1.531679E+0	1.534174E+0	1.508317E+0	1.520303E+0	1.475141E+0	1.481685E+0	1.547355E+0	1.581053E+0	1.529094E+0	1.496091E+0	1.542277E+0	1.468887E+0	1.507656E+0	1.531005E+0	1.548353E+0	1.525864E+0	1.514674E+0
5.445240E+2	1.506683E+0	1.535267E+0	1.469158E+0	1.489818E+0	1.502772E+0	1.551143E+0	1.527004E+0	1.507325E+0	1.540381E+0	1.466820E+0	1.467966E+0	1.496210E+0	1.449147E+0	1.564130E+0	1.533841E+0	1.494543E+0	1.488858E+0	1.465247E+0	1.521409E+0	1.529078E+0	1.455970E+0	1.506895E+0	1.520733E+0	1.525736E+0	1.508806E+0	1.515411E+0	1.464033E+0	1.477240E+0	1.449952E+0	1.494625E+0	1.480415E+0	1.471022E+0	1.503489E+0	1.515975E+0	1.567669E+0	1.530608E+0	1.515269E+0	1.512029E+0	1.518024E+0	1.495213E+0	1.524026E+0	1.464806E+0	1.504552E+0	1.511842E+0	1.464712E+0	1.510263E+0	1.473189E+0	1.500936E+0	1.528188E+0	1.511444E+0	1.454084E+0	1.504191E+0	1.513146E+0	1.545461E+0	1.525108E+0	1.444074E+0	1.544977E+0	1.522387E+0	1.453624E+0	1.490434E+0	1.497310E+0	1.490989E+0	1.463189E+0	1.504394E+0	1.522299E+0	1.505476E+0	1.563355E+0	1.514863E+0	1.491996E+0	1.463958E+0	1.480496E+0	1.487952E+0	1.469165E+0	1.490409E+0	1.423355E+0	1.519590E+0	1.525885E+0	1.492587E+0	1.447460E+0	1.498706E+0	1.544210E+0	1.459761E+0	1.483565E+0	1.499711E+0	1.453876E+0	1.537998E+0	1.496536E+0	1.483679E+0	1.451136E+0	1.486619E+0	1.486607E+0	1.528428E+0	1.519206E+0	1.484668E+0	1.536264E+0	1.531187E+0	1.475888E+0	1.454314E+0	1.539744E+0	1.447627E+0	1.442711E+0	1.507398E+0	1.451864E+0	1.546154E+0	1.499140E+0	1.486191E+0	1.454315E+0	1.459222E+0	1.518677E+0	1.476606E+0	1.472009E+0	1.442855E+0	1.446407E+0	1.517461E+0	1.479562E+0	1.492273E+0	1.443396E+0	1.495626E+0	1.511186E+0	1.431016E+0	1.464263E+0	1.506298E+0	1.487281E+0	1.487467E+0	1.523140E+0	1.443788E+0	1.490841E+0	1.465897E+0	1.479429E+0	1.498536E+0	1.491902E+0	1.455817E+0	1.460703E+0	1.532047E+0	1.536383E+0	1.490162E+0	1.484785E+0	1.453995E+0	1.465320E+0	1.497449E+0	1.487714E+0	1.459878E+0	1.447693E+0	1.464681E+0	1.436471E+0	1.471226E+0	1.491384E+0	1.504138E+0	1.456981E+0	1.515660E+0	1.415356E+0	1.483892E+0	1.443557E+0	1.529081E+0	1.501480E+0	1.487739E+0	1.489275E+0	1.470565E+0	1.463550E+0	1.493404E+0	1.429086E+0	1.480172E+0	1.465173E+0	1.443171E+0	1.502302E+0	1.541160E+0	1.460862E+0	1.493820E+0	1.468566E+0	1.509376E+0	1.469013E+0
5.447720E+2	1.422790E+0	1.473584E+0	1.431072E+0	1.440606E+0	1.420761E+0	1.490088E+0	1.410919E+0	1.419095E+0	1.452917E+0	1.446580E+0	1.415209E+0	1.394910E+0	1.347363E+0	1.401186E+0	1.394417E+0	1.444234E+0	1.497627E+0	1.417678E+0	1.439124E+0	1.434552E+0	1.453014E+0	1.429508E+0	1.422582E+0	1.426028E+0	1.413879E+0	1.416739E+0	1.414279E+0	1.399083E+0	1.410899E+0	1.374568E+0	1.363303E+0	1.406237E+0	1.459358E+0	1.447279E+0	1.426653E+0	1.453934E+0	1.438221E+0	1.436774E+0	1.378466E+0	1.460645E+0	1.422431E+0	1.402616E+0	1.417920E+0	1.395496E+0	1.425329E+0	1.420597E+0	1.395326E+0	1.453066E+0	1.445473E+0	1.435399E+0	1.475817E+0	1.414535E+0	1.377161E+0	1.385709E+0	1.439839E+0	1.445705E+0	1.399131E+0	1.358274E+0	1.426123E+0	1.369909E+0	1.421249E+0	1.383001E+0	1.419625E+0	1.391418E+0	1.388529E+0	1.418904E+0	1.470371E+0	1.439184E+0	1.417406E+0	1.456151E+0	1.420909E+0	1.480763E+0	1.399220E+0	1.382143E+0	1.345365E+0	1.384868E+0	1.395038E+0	1.419375E+0	1.394075E+0	1.377558E+0	1.431430E+0	1.401811E+0	1.446621E+0	1.431635E+0	1.423347E+0	1.382822E+0	1.407585E+0	1.389111E+0	1.431752E+0	1.378737E+0	1.403950E+0	1.410140E+0	1.400460E+0	1.378985E+0	1.409746E+0	1.406439E+0	1.394615E+0	1.398182E+0	1.410166E+0	1.406965E+0	1.406561E+0	1.369678E+0	1.426754E+0	1.413882E+0	1.404950E+0	1.407031E+0	1.367600E+0	1.432423E+0	1.394320E+0	1.437763E+0	1.400507E+0	1.395017E+0	1.400792E+0	1.371606E+0	1.456594E+0	1.433540E+0	1.372685E+0	1.364618E+0	1.402543E+0	1.425527E+0	1.417137E+0	1.428201E+0	1.431644E+0	1.428836E+0	1.436755E+0	1.389450E+0	1.400378E+0	1.384962E+0	1.389252E+0	1.407855E+0	1.349698E+0	1.430595E+0	1.390838E+0	1.403955E+0	1.427674E+0	1.421268E+0	1.391197E+0	1.389400E+0	1.394313E+0	1.372282E+0	1.423813E+0	1.409031E+0	1.394202E+0	1.407326E+0	1.396727E+0	1.412637E+0	1.387319E+0	1.365986E+0	1.369968E+0	1.494124E+0	1.432327E+0	1.415174E+0	1.367248E+0	1.426170E+0	1.391581E+0	1.499497E+0	1.373495E+0	1.332146E+0	1.426875E+0	1.327283E+0	1.359641E+0	1.452999E+0	1.351631E+0	1.323103E+0	1.425574E+0	1.431720E+0	1.420654E+0	1.463926E+0	1.395937E+0	1.473597E+0	1.453130E+0
5.450150E+2	1.338213E+0	1.342404E+0	1.335012E+0	1.365039E+0	1.318139E+0	1.333896E+0	1.308894E+0	1.343042E+0	1.332095E+0	1.355341E+0	1.309035E+0	1.331133E+0	1.297556E+0	1.305207E+0	1.361977E+0	1.325036E+0	1.341028E+0	1.351841E+0	1.347757E+0	1.354228E+0	1.414542E+0	1.359805E+0	1.400984E+0	1.346881E+0	1.304297E+0	1.388883E+0	1.359130E+0	1.333516E+0	1.328473E+0	1.311861E+0	1.356200E+0	1.360619E+0	1.330981E+0	1.364679E+0	1.312233E+0	1.339670E+0	1.286208E+0	1.399504E+0	1.405216E+0	1.343278E+0	1.275146E+0	1.362810E+0	1.305981E+0	1.333287E+0	1.326861E+0	1.315924E+0	1.388206E+0	1.376086E+0	1.358038E+0	1.399151E+0	1.376525E+0	1.349980E+0	1.376110E+0	1.321295E+0	1.336554E+0	1.341782E+0	1.351656E+0	1.361102E+0	1.345427E+0	1.279577E+0	1.335289E+0	1.317583E+0	1.319948E+0	1.317675E+0	1.341814E+0	1.315260E+0	1.352431E+0	1.348104E+0	1.302748E+0	1.342048E+0	1.340047E+0	1.361927E+0	1.315496E+0	1.332959E+0	1.332847E+0	1.365570E+0	1.363244E+0	1.295364E+0	1.364023E+0	1.387201E+0	1.384534E+0	1.376392E+0	1.359902E+0	1.352119E+0	1.304199E+0	1.321181E+0	1.357590E+0	1.298958E+0	1.329495E+0	1.334800E+0	1.310616E+0	1.407788E+0	1.337534E+0	1.314469E+0	1.368791E+0	1.316749E+0	1.353007E+0	1.300226E+0	1.375543E+0	1.379619E+0	1.315811E+0	1.320836E+0	1.395225E+0	1.305636E+0	1.320144E+0	1.325267E+0	1.304670E+0	1.291432E+0	1.372298E+0	1.347615E+0	1.331455E+0	1.337799E+0	1.264771E+0	1.288463E+0	1.269723E+0	1.296204E+0	1.296960E+0	1.319253E+0	1.312949E+0	1.323626E+0	1.342463E+0	1.352222E+0	1.310227E+0	1.345508E+0	1.322053E+0	1.349993E+0	1.297655E+0	1.319976E+0	1.332445E+0	1.340054E+0	1.374474E+0	1.313157E+0	1.298614E+0	1.326332E+0	1.363032E+0	1.345672E+0	1.338076E+0	1.344079E+0	1.337033E+0	1.308677E+0	1.308884E+0	1.298012E+0	1.340742E+0	1.317184E+0	1.334715E+0	1.304681E+0	1.294886E+0	1.348083E+0	1.293633E+0	1.337201E+0	1.347353E+0	1.340136E+0	1.336207E+0	1.317135E+0	1.284727E+0	1.338262E+0	1.307820E+0	1.274085E+0	1.305558E+0	1.295458E+0	1.289608E+0	1.360160E+0	1.320426E+0	1.351273E+0	1.313396E+0	1.327209E+0	1.355719E+0	1.349987E+0	1.346426E+0	1.361336E+0	1.361718E+0
5.452800E+2	1.278733E+0	1.266472E+0	1.268945E+0	1.244280E+0	1.239070E+0	1.319780E+0	1.273453E+0	1.229919E+0	1.291406E+0	1.245867E+0	1.258934E+0	1.305324E+0	1.281612E+0	1.257538E+0	1.215760E+0	1.234302E+0	1.316802E+0	1.259924E+0	1.276197E+0	1.213370E+0	1.263583E+0	1.288625E+0	1.299230E+0	1.249603E+0	1.233321E+0	1.268570E+0	1.269783E+0	1.296634E+0	1.246267E+0	1.266517E+0	1.210632E+0	1.263473E+0	1.280157E+0	1.222016E+0	1.268989E+0	1.307811E+0	1.263361E+0	1.292730E+0	1.283125E+0	1.297849E+0	1.284473E+0	1.258063E+0	1.274589E+0	1.221465E+0	1.243955E+0	1.244229E+0	1.275713E+0	1.283894E+0	1.231475E+0	1.250376E+0	1.278493E+0	1.314493E+0	1.285153E+0	1.294783E+0	1.264145E+0	1.225740E+0	1.262035E+0	1.256306E+0	1.213933E+0	1.285697E+0	1.260392E+0	1.264643E+0	1.175139E+0	1.225407E+0	1.347200E+0	1.277132E+0	1.261582E+0	1.278277E+0	1.256408E+0	1.266137E+0	1.279081E+0	1.286437E+0	1.250676E+0	1.249513E+0	1.268002E+0	1.313186E+0	1.287918E+0	1.275647E+0	1.215672E+0	1.243399E+0	1.271601E+0	1.266684E+0	1.281646E+0	1.314970E+0	1.258156E+0	1.260249E+0	1.218903E+0	1.253917E+0	1.258490E+0	1.286389E+0	1.256677E+0	1.271777E+0	1.212148E+0	1.242928E+0	1.284939E+0	1.253376E+0	1.244790E+0	1.202075E+0	1.240683E+0	1.325371E+0	1.223271E+0	1.237182E+0	1.315110E+0	1.302429E+0	1.220978E+0	1.214290E+0	1.270660E+0	1.245897E+0	1.201826E+0	1.295067E+0	1.204428E+0	1.264460E+0	1.290260E+0	1.265044E+0	1.257257E+0	1.288857E+0	1.230054E+0	1.277896E+0	1.219298E+0	1.277948E+0	1.249473E+0	1.241305E+0	1.250207E+0	1.238622E+0	1.233816E+0	1.247816E+0	1.229317E+0	1.239874E+0	1.285619E+0	1.216985E+0	1.304617E+0	1.306193E+0	1.274436E+0	1.276094E+0	1.271996E+0	1.318691E+0	1.247023E+0	1.225693E+0	1.216728E+0	1.254162E+0	1.248748E+0	1.245273E+0	1.201806E+0	1.278051E+0	1.234066E+0	1.253406E+0	1.188899E+0	1.233891E+0	1.255197E+0	1.273456E+0	1.298688E+0	1.297461E+0	1.200050E+0	1.271696E+0	1.284395E+0	1.268715E+0	1.239904E+0	1.261834E+0	1.227053E+0	1.207331E+0	1.239299E+0	1.213479E+0	1.282606E+0	1.258097E+0	1.248338E+0	1.262701E+0	1.286442E+0	1.255692E+0	1.270054E+0	1.248106E+0	1.201201E+0
5.455500E+2	1.219505E+0	1.187936E+0	1.249266E+0	1.230378E+0	1.223131E+0	1.233035E+0	1.241185E+0	1.215537E+0	1.218380E+0	1.187566E+0	1.178233E+0	1.243497E+0	1.191090E+0	1.225182E+0	1.213356E+0	1.249577E+0	1.216617E+0	1.214766E+0	1.251736E+0	1.213301E+0	1.198975E+0	1.222473E+0	1.257160E+0	1.229583E+0	1.207552E+0	1.241730E+0	1.192488E+0	1.220441E+0	1.238141E+0	1.201187E+0	1.242577E+0	1.169157E+0	1.240856E+0	1.236137E+0	1.238232E+0	1.223253E+0	1.245471E+0	1.289284E+0	1.232490E+0	1.232044E+0	1.201153E+0	1.248222E+0	1.208948E+0	1.277972E+0	1.253758E+0	1.209297E+0	1.201343E+0	1.241425E+0	1.261682E+0	1.253838E+0	1.239084E+0	1.263461E+0	1.213092E+0	1.208843E+0	1.208357E+0	1.224927E+0	1.194917E+0	1.216099E+0	1.176697E+0	1.191210E+0	1.227129E+0	1.192230E+0	1.231111E+0	1.186632E+0	1.207625E+0	1.223414E+0	1.244366E+0	1.229083E+0	1.237277E+0	1.236745E+0	1.231589E+0	1.234188E+0	1.222197E+0	1.216451E+0	1.124585E+0	1.249229E+0	1.244069E+0	1.233662E+0	1.184646E+0	1.206383E+0	1.187348E+0	1.204103E+0	1.212533E+0	1.188731E+0	1.216986E+0	1.235654E+0	1.216889E+0	1.237999E+0	1.187632E+0	1.213013E+0	1.219294E+0	1.229551E+0	1.198748E+0	1.239584E+0	1.190211E+0	1.192253E+0	1.229682E+0	1.187647E+0	1.210323E+0	1.248813E+0	1.189077E+0	1.200574E+0	1.224692E+0	1.219446E+0	1.181862E+0	1.226563E+0	1.233194E+0	1.222048E+0	1.226028E+0	1.270680E+0	1.222542E+0	1.236524E+0	1.244741E+0	1.250983E+0	1.191723E+0	1.165814E+0	1.181201E+0	1.242395E+0	1.243199E+0	1.149284E+0	1.177357E+0	1.166139E+0	1.190335E+0	1.220119E+0	1.207909E+0	1.222327E+0	1.229625E+0	1.208245E+0	1.206777E+0	1.191422E+0	1.158039E+0	1.191791E+0	1.191408E+0	1.215506E+0	1.293463E+0	1.209311E+0	1.183968E+0	1.196635E+0	1.193381E+0	1.220640E+0	1.216625E+0	1.219111E+0	1.196289E+0	1.177118E+0	1.183935E+0	1.194755E+0	1.179952E+0	1.252035E+0	1.200469E+0	1.247719E+0	1.197170E+0	1.237481E+0	1.187516E+0	1.227572E+0	1.238953E+0	1.217551E+0	1.200119E+0	1.156347E+0	1.195183E+0	1.184095E+0	1.137885E+0	1.217350E+0	1.174630E+0	1.171786E+0	1.215025E+0	1.190990E+0	1.222281E+0	1.180789E+0	1.200720E+0	1.222595E+0	1.296524E+0
5.457720E+2	1.164942E+0	1.184947E+0	1.220426E+0	1.166648E+0	1.161321E+0	1.216657E+0	1.194910E+0	1.181887E+0	1.214494E+0	1.133222E+0	1.135630E+0	1.138064E+0	1.167434E+0	1.152133E+0	1.148323E+0	1.183057E+0	1.203675E+0	1.182721E+0	1.205307E+0	1.155024E+0	1.208200E+0	1.153329E+0	1.234879E+0	1.131315E+0	1.163311E+0	1.156508E+0	1.156324E+0	1.144272E+0	1.168797E+0	1.209616E+0	1.196056E+0	1.202776E+0	1.202413E+0	1.178210E+0	1.150295E+0	1.208115E+0	1.150996E+0	1.161475E+0	1.188014E+0	1.208417E+0	1.210687E+0	1.199039E+0	1.148108E+0	1.159547E+0	1.168045E+0	1.150551E+0	1.225833E+0	1.171717E+0	1.146894E+0	1.183155E+0	1.249435E+0	1.196742E+0	1.184530E+0	1.194246E+0	1.201682E+0	1.183630E+0	1.147892E+0	1.151742E+0	1.138365E+0	1.159136E+0	1.208593E+0	1.191878E+0	1.182607E+0	1.152254E+0	1.154839E+0	1.135486E+0	1.236486E+0	1.134202E+0	1.165583E+0	1.139484E+0	1.205674E+0	1.125002E+0	1.150409E+0	1.173494E+0	1.165014E+0	1.189452E+0	1.139066E+0	1.166858E+0	1.155982E+0	1.170360E+0	1.150531E+0	1.203095E+0	1.156061E+0	1.197182E+0	1.167070E+0	1.160498E+0	1.179052E+0	1.194118E+0	1.153198E+0	1.181280E+0	1.170948E+0	1.198134E+0	1.143650E+0	1.190167E+0	1.193263E+0	1.202780E+0	1.175307E+0	1.165875E+0	1.237082E+0	1.225555E+0	1.137240E+0	1.127441E+0	1.160696E+0	1.217678E+0	1.157472E+0	1.140000E+0	1.100907E+0	1.159986E+0	1.174729E+0	1.158475E+0	1.182340E+0	1.163583E+0	1.153353E+0	1.171718E+0	1.140185E+0	1.132778E+0	1.188320E+0	1.127798E+0	1.229719E+0	1.159932E+0	1.160294E+0	1.154892E+0	1.135329E+0	1.168460E+0	1.161662E+0	1.162698E+0	1.163116E+0	1.149090E+0	1.170344E+0	1.142929E+0	1.195998E+0	1.155707E+0	1.149474E+0	1.217290E+0	1.158094E+0	1.205496E+0	1.216077E+0	1.197198E+0	1.168260E+0	1.169253E+0	1.165636E+0	1.187105E+0	1.153191E+0	1.181484E+0	1.159790E+0	1.152850E+0	1.198557E+0	1.153359E+0	1.150175E+0	1.159963E+0	1.147268E+0	1.175729E+0	1.127432E+0	1.144835E+0	1.118625E+0	1.198537E+0	1.202440E+0	1.163682E+0	1.164917E+0	1.159197E+0	1.171490E+0	1.205073E+0	1.207186E+0	1.154567E+0	1.176327E+0	1.172745E+0	1.176154E+0	1.134082E+0	1.130869E+0	1.196291E+0	1.188937E+0
5.460160E+2	1.081087E+0	1.098259E+0	1.170543E+0	1.173501E+0	1.080369E+0	1.136367E+0	1.209669E+0	1.176275E+0	1.202987E+0	1.129121E+0	1.170472E+0	1.152625E+0	1.155409E+0	1.151470E+0	1.158755E+0	1.131386E+0	1.140681E+0	1.188947E+0	1.152054E+0	1.138521E+0	1.165351E+0	1.201309E+0	1.181744E+0	1.154724E+0	1.115901E+0	1.165629E+0	1.121966E+0	1.132188E+0	1.140939E+0	1.149890E+0	1.155610E+0	1.109999E+0	1.154185E+0	1.136790E+0	1.160155E+0	1.111613E+0	1.101428E+0	1.112500E+0	1.189308E+0	1.154968E+0	1.132161E+0	1.172914E+0	1.188764E+0	1.149236E+0	1.132947E+0	1.159871E+0	1.131247E+0	1.135530E+0	1.124161E+0	1.150615E+0	1.157142E+0	1.143621E+0	1.158177E+0	1.138895E+0	1.192078E+0	1.168641E+0	1.184089E+0	1.157566E+0	1.119471E+0	1.164722E+0	1.154504E+0	1.119278E+0	1.145086E+0	1.166926E+0	1.143593E+0	1.125660E+0	1.168235E+0	1.112719E+0	1.103553E+0	1.091865E+0	1.155021E+0	1.147597E+0	1.118738E+0	1.137181E+0	1.155607E+0	1.152168E+0	1.108118E+0	1.149379E+0	1.122011E+0	1.146414E+0	1.199849E+0	1.140868E+0	1.154003E+0	1.183991E+0	1.122058E+0	1.138181E+0	1.146263E+0	1.115945E+0	1.140465E+0	1.114468E+0	1.167316E+0	1.160243E+0	1.134514E+0	1.193017E+0	1.107130E+0	1.161944E+0	1.125583E+0	1.093409E+0	1.127289E+0	1.120885E+0	1.122648E+0	1.136244E+0	1.166817E+0	1.144171E+0	1.104839E+0	1.107040E+0	1.129817E+0	1.109387E+0	1.114804E+0	1.165838E+0	1.171866E+0	1.130828E+0	1.126672E+0	1.153103E+0	1.149594E+0	1.140416E+0	1.131549E+0	1.164722E+0	1.140781E+0	1.170446E+0	1.141612E+0	1.127420E+0	1.096117E+0	1.140350E+0	1.116537E+0	1.185659E+0	1.139435E+0	1.159514E+0	1.161911E+0	1.111319E+0	1.111225E+0	1.187931E+0	1.142783E+0	1.148220E+0	1.165100E+0	1.157223E+0	1.108685E+0	1.143521E+0	1.133145E+0	1.142758E+0	1.161862E+0	1.126832E+0	1.150995E+0	1.147860E+0	1.142969E+0	1.095448E+0	1.151980E+0	1.153594E+0	1.107909E+0	1.148861E+0	1.156513E+0	1.193802E+0	1.150701E+0	1.149873E+0	1.132887E+0	1.184870E+0	1.138041E+0	1.103588E+0	1.178758E+0	1.111312E+0	1.139645E+0	1.186687E+0	1.154033E+0	1.141773E+0	1.143752E+0	1.096107E+0	1.127674E+0	1.144918E+0	1.103468E+0	1.171888E+0	1.131339E+0
5.467710E+2	1.218393E+0	1.164935E+0	1.213083E+0	1.215618E+0	1.207061E+0	1.249056E+0	1.241492E+0	1.227362E+0	1.251400E+0	1.176263E+0	1.210840E+0	1.206746E+0	1.176907E+0	1.196628E+0	1.193198E+0	1.247898E+0	1.252722E+0	1.228543E+0	1.212918E+0	1.217972E+0	1.228587E+0	1.185807E+0	1.183644E+0	1.198246E+0	1.144395E+0	1.161844E+0	1.204818E+0	1.211362E+0	1.208033E+0	1.165419E+0	1.252931E+0	1.238901E+0	1.178060E+0	1.223326E+0	1.203553E+0	1.215961E+0	1.124235E+0	1.178168E+0	1.230189E+0	1.226498E+0	1.205302E+0	1.182144E+0	1.170885E+0	1.191695E+0	1.220565E+0	1.239196E+0	1.192185E+0	1.261759E+0	1.212096E+0	1.200365E+0	1.184241E+0	1.200343E+0	1.164331E+0	1.236750E+0	1.243760E+0	1.199247E+0	1.239327E+0	1.093261E+0	1.200747E+0	1.178800E+0	1.188068E+0	1.180721E+0	1.211790E+0	1.171938E+0	1.246045E+0	1.165499E+0	1.222399E+0	1.184348E+0	1.179528E+0	1.216491E+0	1.203046E+0	1.211184E+0	1.167176E+0	1.243645E+0	1.171240E+0	1.150340E+0	1.219599E+0	1.175033E+0	1.141869E+0	1.192200E+0	1.236296E+0	1.160491E+0	1.181090E+0	1.161635E+0	1.220702E+0	1.212873E+0	1.205778E+0	1.210122E+0	1.199858E+0	1.240466E+0	1.182529E+0	1.231355E+0	1.233315E+0	1.184322E+0	1.215091E+0	1.210898E+0	1.210795E+0	1.169023E+0	1.190013E+0	1.173768E+0	1.171292E+0	1.180462E+0	1.208858E+0	1.215166E+0	1.198881E+0	1.198563E+0	1.202815E+0	1.241406E+0	1.139936E+0	1.210122E+0	1.205393E+0	1.225531E+0	1.161802E+0	1.184564E+0	1.199741E+0	1.168530E+0	1.228565E+0	1.236955E+0	1.250903E+0	1.169234E+0	1.200227E+0	1.164664E+0	1.238938E+0	1.170134E+0	1.185850E+0	1.137583E+0	1.194132E+0	1.149879E+0	1.200152E+0	1.157216E+0	1.217258E+0	1.200677E+0	1.194340E+0	1.186448E+0	1.257355E+0	1.179938E+0	1.239865E+0	1.171127E+0	1.136294E+0	1.174249E+0	1.202925E+0	1.168459E+0	1.207827E+0	1.147349E+0	1.231324E+0	1.193907E+0	1.172928E+0	1.226639E+0	1.123502E+0	1.199463E+0	1.195645E+0	1.214339E+0	1.234543E+0	1.185749E+0	1.208306E+0	1.239973E+0	1.162248E+0	1.231241E+0	1.141547E+0	1.126328E+0	1.168793E+0	1.180869E+0	1.229785E+0	1.177219E+0	1.174625E+0	1.159842E+0	1.233907E+0	1.141521E+0	1.159180E+0	1.145358E+0	1.289483E+0
5.475230E+2	1.302403E+0	1.365205E+0	1.313963E+0	1.284577E+0	1.274190E+0	1.355924E+0	1.298231E+0	1.269599E+0	1.319404E+0	1.269440E+0	1.327096E+0	1.313004E+0	1.299289E+0	1.312888E+0	1.282257E+0	1.274258E+0	1.289592E+0	1.330415E+0	1.294051E+0	1.311093E+0	1.341619E+0	1.310605E+0	1.362825E+0	1.324428E+0	1.307159E+0	1.330481E+0	1.337490E+0	1.292458E+0	1.295638E+0	1.278670E+0	1.361605E+0	1.334053E+0	1.310855E+0	1.289733E+0	1.283631E+0	1.337856E+0	1.306657E+0	1.362479E+0	1.368656E+0	1.344474E+0	1.300743E+0	1.311576E+0	1.340179E+0	1.302987E+0	1.333766E+0	1.330982E+0	1.298588E+0	1.370743E+0	1.308266E+0	1.302848E+0	1.322291E+0	1.337535E+0	1.375697E+0	1.334578E+0	1.348829E+0	1.290347E+0	1.259560E+0	1.309582E+0	1.313473E+0	1.282753E+0	1.331521E+0	1.313086E+0	1.273209E+0	1.354628E+0	1.357401E+0	1.293210E+0	1.336571E+0	1.306548E+0	1.310075E+0	1.314975E+0	1.365067E+0	1.351040E+0	1.316772E+0	1.297573E+0	1.303663E+0	1.346343E+0	1.334566E+0	1.330608E+0	1.318759E+0	1.325682E+0	1.333456E+0	1.291824E+0	1.331191E+0	1.306129E+0	1.334456E+0	1.301748E+0	1.313793E+0	1.306879E+0	1.311252E+0	1.306603E+0	1.326576E+0	1.315053E+0	1.331477E+0	1.301308E+0	1.366588E+0	1.325966E+0	1.280744E+0	1.287813E+0	1.299246E+0	1.373888E+0	1.267573E+0	1.285251E+0	1.315156E+0	1.322740E+0	1.275317E+0	1.282165E+0	1.254541E+0	1.292241E+0	1.281911E+0	1.328096E+0	1.255381E+0	1.351451E+0	1.310088E+0	1.339039E+0	1.337261E+0	1.281002E+0	1.332094E+0	1.280833E+0	1.286261E+0	1.291159E+0	1.286483E+0	1.291892E+0	1.303234E+0	1.293282E+0	1.284097E+0	1.322809E+0	1.315715E+0	1.301725E+0	1.309062E+0	1.307938E+0	1.300301E+0	1.348618E+0	1.320347E+0	1.243377E+0	1.322468E+0	1.304799E+0	1.294202E+0	1.351819E+0	1.292816E+0	1.248626E+0	1.302892E+0	1.286069E+0	1.348274E+0	1.306816E+0	1.303878E+0	1.287815E+0	1.289589E+0	1.355062E+0	1.277819E+0	1.252502E+0	1.310984E+0	1.318370E+0	1.272472E+0	1.313647E+0	1.334648E+0	1.318850E+0	1.290707E+0	1.280990E+0	1.281075E+0	1.319158E+0	1.314557E+0	1.312352E+0	1.273939E+0	1.314130E+0	1.306616E+0	1.285249E+0	1.293811E+0	1.321361E+0	1.296467E+0	1.311944E+0	1.337739E+0
5.482600E+2	1.397484E+0	1.417320E+0	1.460106E+0	1.475843E+0	1.444452E+0	1.445278E+0	1.420842E+0	1.381640E+0	1.454239E+0	1.411759E+0	1.450365E+0	1.486920E+0	1.411347E+0	1.512905E+0	1.399433E+0	1.412216E+0	1.478554E+0	1.413253E+0	1.494553E+0	1.434766E+0	1.426406E+0	1.362846E+0	1.476561E+0	1.478699E+0	1.434650E+0	1.377106E+0	1.431585E+0	1.408641E+0	1.366928E+0	1.469869E+0	1.402894E+0	1.422582E+0	1.397840E+0	1.423795E+0	1.455348E+0	1.488982E+0	1.381723E+0	1.462633E+0	1.423541E+0	1.470289E+0	1.401401E+0	1.395457E+0	1.429225E+0	1.435051E+0	1.456202E+0	1.379187E+0	1.442315E+0	1.441427E+0	1.406126E+0	1.449795E+0	1.484605E+0	1.471425E+0	1.411674E+0	1.389627E+0	1.455089E+0	1.411882E+0	1.442522E+0	1.414799E+0	1.423717E+0	1.389342E+0	1.431304E+0	1.394357E+0	1.385274E+0	1.426100E+0	1.444854E+0	1.388093E+0	1.413243E+0	1.429296E+0	1.473690E+0	1.397739E+0	1.404983E+0	1.428817E+0	1.387990E+0	1.353800E+0	1.418040E+0	1.409856E+0	1.452898E+0	1.397345E+0	1.401378E+0	1.382298E+0	1.378201E+0	1.439680E+0	1.464214E+0	1.458566E+0	1.402511E+0	1.419762E+0	1.438896E+0	1.419592E+0	1.420369E+0	1.428063E+0	1.409117E+0	1.438736E+0	1.425312E+0	1.427312E+0	1.476345E+0	1.429054E+0	1.407781E+0	1.338389E+0	1.400825E+0	1.456627E+0	1.416778E+0	1.370718E+0	1.440341E+0	1.412439E+0	1.366209E+0	1.426680E+0	1.412099E+0	1.403624E+0	1.425965E+0	1.414794E+0	1.484944E+0	1.405433E+0	1.405436E+0	1.453975E+0	1.422832E+0	1.421059E+0	1.366396E+0	1.396676E+0	1.438983E+0	1.465868E+0	1.399920E+0	1.457718E+0	1.408220E+0	1.387319E+0	1.419761E+0	1.394003E+0	1.422327E+0	1.350216E+0	1.393072E+0	1.342842E+0	1.425300E+0	1.432317E+0	1.358723E+0	1.410057E+0	1.426560E+0	1.428588E+0	1.365215E+0	1.388984E+0	1.410641E+0	1.433117E+0	1.384812E+0	1.410861E+0	1.455296E+0	1.433411E+0	1.429457E+0	1.366128E+0	1.364742E+0	1.449522E+0	1.367711E+0	1.425902E+0	1.452070E+0	1.483647E+0	1.389213E+0	1.480626E+0	1.418497E+0	1.439663E+0	1.414277E+0	1.400615E+0	1.413010E+0	1.358429E+0	1.384340E+0	1.398131E+0	1.409729E+0	1.362155E+0	1.443247E+0	1.385511E+0	1.429575E+0	1.433425E+0	1.352902E+0	1.376793E+0	1.464847E+0
5.490490E+2	1.410140E+0	1.432474E+0	1.422245E+0	1.411028E+0	1.389959E+0	1.443717E+0	1.422243E+0	1.407785E+0	1.381087E+0	1.360647E+0	1.443316E+0	1.438296E+0	1.407869E+0	1.455972E+0	1.401094E+0	1.458927E+0	1.458082E+0	1.391077E+0	1.435639E+0	1.449862E+0	1.431249E+0	1.380590E+0	1.361706E+0	1.413782E+0	1.404612E+0	1.449527E+0	1.384137E+0	1.416663E+0	1.375604E+0	1.329505E+0	1.458696E+0	1.420159E+0	1.407195E+0	1.396943E+0	1.418681E+0	1.370305E+0	1.408194E+0	1.416135E+0	1.425396E+0	1.428192E+0	1.406975E+0	1.376976E+0	1.387635E+0	1.370882E+0	1.401081E+0	1.375876E+0	1.468063E+0	1.388076E+0	1.461208E+0	1.421135E+0	1.490438E+0	1.425704E+0	1.402037E+0	1.429203E+0	1.417654E+0	1.419352E+0	1.460864E+0	1.407666E+0	1.398984E+0	1.391094E+0	1.431088E+0	1.378266E+0	1.389683E+0	1.387111E+0	1.393333E+0	1.399294E+0	1.416713E+0	1.385765E+0	1.397807E+0	1.371958E+0	1.411654E+0	1.452246E+0	1.369698E+0	1.389165E+0	1.357564E+0	1.386673E+0	1.429194E+0	1.327543E+0	1.354255E+0	1.350592E+0	1.438549E+0	1.383088E+0	1.404679E+0	1.380214E+0	1.404991E+0	1.395951E+0	1.426397E+0	1.431634E+0	1.377854E+0	1.447721E+0	1.397511E+0	1.411070E+0	1.361888E+0	1.409585E+0	1.381631E+0	1.366369E+0	1.364988E+0	1.394046E+0	1.459599E+0	1.405991E+0	1.362499E+0	1.339983E+0	1.402669E+0	1.457225E+0	1.398574E+0	1.360858E+0	1.322186E+0	1.362181E+0	1.336275E+0	1.387421E+0	1.386753E+0	1.425104E+0	1.350741E+0	1.390388E+0	1.363673E+0	1.406560E+0	1.388109E+0	1.404786E+0	1.368267E+0	1.388557E+0	1.387061E+0	1.376283E+0	1.325045E+0	1.371474E+0	1.425048E+0	1.382351E+0	1.384434E+0	1.357872E+0	1.382119E+0	1.401821E+0	1.390303E+0	1.414476E+0	1.347155E+0	1.385317E+0	1.472030E+0	1.345162E+0	1.405396E+0	1.444415E+0	1.394041E+0	1.427938E+0	1.379107E+0	1.371972E+0	1.440730E+0	1.409980E+0	1.339234E+0	1.393547E+0	1.416131E+0	1.426978E+0	1.352577E+0	1.437517E+0	1.397898E+0	1.386336E+0	1.341323E+0	1.367732E+0	1.392446E+0	1.388177E+0	1.370501E+0	1.418073E+0	1.350652E+0	1.419005E+0	1.394484E+0	1.409127E+0	1.394963E+0	1.445893E+0	1.430916E+0	1.349361E+0	1.428384E+0	1.386198E+0	1.390071E+0	1.313445E+0	1.384755E+0
5.497960E+2	1.371775E+0	1.314968E+0	1.358720E+0	1.393160E+0	1.310004E+0	1.331559E+0	1.361836E+0	1.417456E+0	1.323987E+0	1.372691E+0	1.341507E+0	1.308889E+0	1.321535E+0	1.359062E+0	1.336233E+0	1.368810E+0	1.434529E+0	1.364834E+0	1.395086E+0	1.405192E+0	1.352481E+0	1.404701E+0	1.353354E+0	1.421860E+0	1.341136E+0	1.315769E+0	1.284534E+0	1.332102E+0	1.340993E+0	1.343939E+0	1.362220E+0	1.365782E+0	1.359966E+0	1.336806E+0	1.381280E+0	1.428972E+0	1.292524E+0	1.357196E+0	1.368815E+0	1.367179E+0	1.361767E+0	1.344191E+0	1.324270E+0	1.358390E+0	1.338038E+0	1.331362E+0	1.318382E+0	1.342138E+0	1.270384E+0	1.419613E+0	1.376853E+0	1.405914E+0	1.312628E+0	1.348656E+0	1.329453E+0	1.402128E+0	1.336046E+0	1.346090E+0	1.306349E+0	1.391718E+0	1.342368E+0	1.327811E+0	1.324303E+0	1.335952E+0	1.378420E+0	1.310559E+0	1.411194E+0	1.384519E+0	1.387008E+0	1.331034E+0	1.385639E+0	1.423677E+0	1.325044E+0	1.292458E+0	1.321990E+0	1.353129E+0	1.341579E+0	1.326744E+0	1.361733E+0	1.334494E+0	1.400611E+0	1.364997E+0	1.360824E+0	1.310081E+0	1.313990E+0	1.400977E+0	1.370507E+0	1.345918E+0	1.351432E+0	1.335839E+0	1.323399E+0	1.374470E+0	1.405750E+0	1.325489E+0	1.383500E+0	1.381756E+0	1.320175E+0	1.300395E+0	1.416638E+0	1.334247E+0	1.362314E+0	1.315818E+0	1.347176E+0	1.367490E+0	1.332637E+0	1.351582E+0	1.315608E+0	1.347707E+0	1.337782E+0	1.346736E+0	1.344667E+0	1.348550E+0	1.328714E+0	1.316513E+0	1.310175E+0	1.372241E+0	1.337791E+0	1.314658E+0	1.333025E+0	1.325499E+0	1.316334E+0	1.341970E+0	1.358126E+0	1.378627E+0	1.366379E+0	1.368404E+0	1.343162E+0	1.345620E+0	1.311994E+0	1.355378E+0	1.295913E+0	1.328254E+0	1.335611E+0	1.291404E+0	1.397311E+0	1.361711E+0	1.386306E+0	1.354398E+0	1.367925E+0	1.342588E+0	1.404728E+0	1.298940E+0	1.394236E+0	1.377760E+0	1.330897E+0	1.311538E+0	1.325471E+0	1.401533E+0	1.304997E+0	1.378568E+0	1.373648E+0	1.413837E+0	1.332160E+0	1.383246E+0	1.322708E+0	1.394368E+0	1.341068E+0	1.331807E+0	1.332255E+0	1.371306E+0	1.291767E+0	1.310414E+0	1.337910E+0	1.329625E+0	1.351698E+0	1.322271E+0	1.304984E+0	1.326187E+0	1.330243E+0	1.440105E+0	1.340096E+0
5.505110E+2	1.303046E+0	1.286627E+0	1.326347E+0	1.293516E+0	1.290475E+0	1.207293E+0	1.277221E+0	1.283482E+0	1.282718E+0	1.307393E+0	1.308671E+0	1.274468E+0	1.267414E+0	1.315410E+0	1.295757E+0	1.258564E+0	1.297828E+0	1.268559E+0	1.348093E+0	1.259629E+0	1.329777E+0	1.260684E+0	1.257596E+0	1.306795E+0	1.264815E+0	1.300822E+0	1.279170E+0	1.289816E+0	1.282254E+0	1.267177E+0	1.287494E+0	1.252652E+0	1.294060E+0	1.307984E+0	1.274894E+0	1.343897E+0	1.282621E+0	1.303852E+0	1.248738E+0	1.276089E+0	1.258135E+0	1.282018E+0	1.305270E+0	1.294340E+0	1.294350E+0	1.274640E+0	1.294728E+0	1.324048E+0	1.284927E+0	1.278940E+0	1.301265E+0	1.316735E+0	1.285448E+0	1.284305E+0	1.307049E+0	1.320230E+0	1.300419E+0	1.301582E+0	1.252051E+0	1.353081E+0	1.279562E+0	1.303888E+0	1.308736E+0	1.272610E+0	1.282204E+0	1.264433E+0	1.333049E+0	1.278144E+0	1.290783E+0	1.286158E+0	1.289337E+0	1.290289E+0	1.278440E+0	1.302315E+0	1.251435E+0	1.284123E+0	1.264025E+0	1.299283E+0	1.276755E+0	1.240865E+0	1.309235E+0	1.264342E+0	1.342831E+0	1.309253E+0	1.280291E+0	1.297286E+0	1.323479E+0	1.362616E+0	1.268604E+0	1.271667E+0	1.339240E+0	1.299300E+0	1.312456E+0	1.312025E+0	1.316275E+0	1.270088E+0	1.273067E+0	1.267930E+0	1.315679E+0	1.263582E+0	1.281470E+0	1.273741E+0	1.270247E+0	1.313238E+0	1.276575E+0	1.286165E+0	1.244695E+0	1.336770E+0	1.256376E+0	1.309638E+0	1.283684E+0	1.271190E+0	1.310300E+0	1.265446E+0	1.248168E+0	1.240216E+0	1.323805E+0	1.253658E+0	1.288378E+0	1.294278E+0	1.289035E+0	1.321911E+0	1.268901E+0	1.265194E+0	1.241637E+0	1.315140E+0	1.309229E+0	1.258781E+0	1.263327E+0	1.267090E+0	1.269712E+0	1.296096E+0	1.249386E+0	1.269627E+0	1.314687E+0	1.297401E+0	1.294498E+0	1.296273E+0	1.300264E+0	1.297707E+0	1.280269E+0	1.287574E+0	1.275078E+0	1.281781E+0	1.330367E+0	1.266910E+0	1.217238E+0	1.282442E+0	1.259001E+0	1.305870E+0	1.336258E+0	1.312417E+0	1.242089E+0	1.290469E+0	1.316687E+0	1.369021E+0	1.285860E+0	1.241069E+0	1.269952E+0	1.279415E+0	1.244976E+0	1.270968E+0	1.305854E+0	1.248630E+0	1.281357E+0	1.267467E+0	1.308100E+0	1.242780E+0	1.225064E+0	1.300846E+0	1.302495E+0
5.512620E+2	1.273176E+0	1.250934E+0	1.339818E+0	1.334435E+0	1.291418E+0	1.294174E+0	1.277825E+0	1.314453E+0	1.295773E+0	1.290209E+0	1.287830E+0	1.288386E+0	1.294288E+0	1.289599E+0	1.312459E+0	1.292856E+0	1.371992E+0	1.260510E+0	1.282639E+0	1.279987E+0	1.282609E+0	1.281433E+0	1.319850E+0	1.286374E+0	1.288161E+0	1.310521E+0	1.283559E+0	1.288877E+0	1.248932E+0	1.248988E+0	1.312908E+0	1.297315E+0	1.307172E+0	1.303296E+0	1.261608E+0	1.296443E+0	1.238223E+0	1.317188E+0	1.288123E+0	1.290467E+0	1.261933E+0	1.279715E+0	1.281568E+0	1.247687E+0	1.344806E+0	1.265482E+0	1.285101E+0	1.250325E+0	1.280652E+0	1.301965E+0	1.256377E+0	1.312180E+0	1.268564E+0	1.312375E+0	1.350235E+0	1.323644E+0	1.281972E+0	1.289258E+0	1.286946E+0	1.264507E+0	1.306583E+0	1.274792E+0	1.255874E+0	1.265709E+0	1.303505E+0	1.225455E+0	1.305936E+0	1.268670E+0	1.272781E+0	1.307994E+0	1.287412E+0	1.303511E+0	1.295359E+0	1.220076E+0	1.264572E+0	1.304107E+0	1.280889E+0	1.266843E+0	1.308955E+0	1.303039E+0	1.314808E+0	1.261356E+0	1.264516E+0	1.246719E+0	1.272029E+0	1.280277E+0	1.298660E+0	1.278759E+0	1.238999E+0	1.286672E+0	1.253999E+0	1.307394E+0	1.280746E+0	1.255766E+0	1.247782E+0	1.341467E+0	1.290879E+0	1.251444E+0	1.269204E+0	1.213549E+0	1.271781E+0	1.245615E+0	1.271411E+0	1.298820E+0	1.251406E+0	1.283319E+0	1.238689E+0	1.234481E+0	1.239234E+0	1.278100E+0	1.295607E+0	1.319418E+0	1.290566E+0	1.276520E+0	1.248462E+0	1.260463E+0	1.249556E+0	1.273185E+0	1.309443E+0	1.276859E+0	1.272362E+0	1.267135E+0	1.328377E+0	1.265879E+0	1.294698E+0	1.299643E+0	1.236236E+0	1.268140E+0	1.281794E+0	1.271322E+0	1.294229E+0	1.276433E+0	1.255419E+0	1.282303E+0	1.290360E+0	1.248139E+0	1.285862E+0	1.287023E+0	1.269491E+0	1.270650E+0	1.259159E+0	1.267785E+0	1.260526E+0	1.265619E+0	1.280314E+0	1.189617E+0	1.269338E+0	1.282110E+0	1.246992E+0	1.225174E+0	1.277596E+0	1.314938E+0	1.261736E+0	1.255089E+0	1.255250E+0	1.318317E+0	1.224730E+0	1.284276E+0	1.243086E+0	1.238107E+0	1.258885E+0	1.301665E+0	1.318081E+0	1.281245E+0	1.280111E+0	1.254586E+0	1.238271E+0	1.272996E+0	1.258546E+0	1.210823E+0	1.335984E+0
5.520210E+2	1.265132E+0	1.222115E+0	1.266259E+0	1.245034E+0	1.222870E+0	1.285289E+0	1.287800E+0	1.244626E+0	1.262733E+0	1.269796E+0	1.247441E+0	1.276964E+0	1.263452E+0	1.298711E+0	1.289634E+0	1.305085E+0	1.294517E+0	1.221507E+0	1.286487E+0	1.237494E+0	1.276243E+0	1.292425E+0	1.246850E+0	1.258810E+0	1.257899E+0	1.294156E+0	1.244152E+0	1.235366E+0	1.246143E+0	1.280546E+0	1.281552E+0	1.276514E+0	1.284880E+0	1.274987E+0	1.228857E+0	1.284079E+0	1.251886E+0	1.304638E+0	1.298778E+0	1.310247E+0	1.298511E+0	1.230159E+0	1.275445E+0	1.261221E+0	1.295970E+0	1.240695E+0	1.276113E+0	1.307992E+0	1.224187E+0	1.280648E+0	1.290642E+0	1.280293E+0	1.223387E+0	1.275765E+0	1.258890E+0	1.271438E+0	1.271118E+0	1.288065E+0	1.291482E+0	1.240058E+0	1.275500E+0	1.273234E+0	1.275100E+0	1.222588E+0	1.269551E+0	1.251361E+0	1.266633E+0	1.254526E+0	1.247355E+0	1.265044E+0	1.268182E+0	1.295819E+0	1.277843E+0	1.266610E+0	1.217937E+0	1.283454E+0	1.201380E+0	1.280986E+0	1.226129E+0	1.309908E+0	1.307338E+0	1.223595E+0	1.259363E+0	1.222563E+0	1.250317E+0	1.227256E+0	1.294351E+0	1.266364E+0	1.240546E+0	1.277298E+0	1.269599E+0	1.247213E+0	1.278184E+0	1.264515E+0	1.217984E+0	1.260561E+0	1.241181E+0	1.250314E+0	1.271030E+0	1.296345E+0	1.241054E+0	1.251751E+0	1.207709E+0	1.279918E+0	1.231135E+0	1.242657E+0	1.243052E+0	1.228833E+0	1.253945E+0	1.204008E+0	1.289475E+0	1.220879E+0	1.242891E+0	1.266955E+0	1.266977E+0	1.222221E+0	1.221694E+0	1.303311E+0	1.252588E+0	1.272040E+0	1.270045E+0	1.244315E+0	1.247287E+0	1.226427E+0	1.239983E+0	1.261058E+0	1.271737E+0	1.228657E+0	1.242734E+0	1.282349E+0	1.167115E+0	1.222104E+0	1.257049E+0	1.261706E+0	1.276349E+0	1.253471E+0	1.234799E+0	1.203248E+0	1.217636E+0	1.263944E+0	1.273515E+0	1.251755E+0	1.237912E+0	1.251752E+0	1.301469E+0	1.245354E+0	1.243737E+0	1.289935E+0	1.253327E+0	1.216540E+0	1.303806E+0	1.257269E+0	1.226893E+0	1.289709E+0	1.238705E+0	1.277718E+0	1.285541E+0	1.272517E+0	1.218417E+0	1.272050E+0	1.216192E+0	1.225253E+0	1.285612E+0	1.284496E+0	1.246140E+0	1.229980E+0	1.290869E+0	1.259945E+0	1.253977E+0	1.259695E+0	1.253246E+0
5.527590E+2	1.270562E+0	1.245960E+0	1.217031E+0	1.259458E+0	1.257151E+0	1.260704E+0	1.258350E+0	1.255943E+0	1.203817E+0	1.173178E+0	1.234485E+0	1.276680E+0	1.233212E+0	1.258808E+0	1.253616E+0	1.254906E+0	1.282883E+0	1.260525E+0	1.236203E+0	1.245104E+0	1.265743E+0	1.211327E+0	1.282417E+0	1.294405E+0	1.239457E+0	1.249855E+0	1.221296E+0	1.251487E+0	1.227520E+0	1.251805E+0	1.292755E+0	1.228676E+0	1.247079E+0	1.252773E+0	1.239384E+0	1.229118E+0	1.227403E+0	1.270224E+0	1.215368E+0	1.270079E+0	1.238546E+0	1.212906E+0	1.274140E+0	1.272784E+0	1.211748E+0	1.254234E+0	1.239019E+0	1.238175E+0	1.195375E+0	1.211426E+0	1.243216E+0	1.208488E+0	1.293465E+0	1.210800E+0	1.272101E+0	1.217837E+0	1.224489E+0	1.272671E+0	1.196316E+0	1.244596E+0	1.260274E+0	1.254823E+0	1.221575E+0	1.244491E+0	1.261099E+0	1.221184E+0	1.228659E+0	1.246567E+0	1.256916E+0	1.226208E+0	1.232467E+0	1.263082E+0	1.258463E+0	1.216444E+0	1.224600E+0	1.279254E+0	1.250825E+0	1.208990E+0	1.257484E+0	1.258821E+0	1.315819E+0	1.218100E+0	1.251382E+0	1.248171E+0	1.266310E+0	1.245878E+0	1.276138E+0	1.279309E+0	1.241589E+0	1.233678E+0	1.256766E+0	1.275502E+0	1.257415E+0	1.234645E+0	1.194604E+0	1.231835E+0	1.261444E+0	1.200472E+0	1.305136E+0	1.252587E+0	1.218044E+0	1.225764E+0	1.207647E+0	1.304363E+0	1.189277E+0	1.246459E+0	1.203880E+0	1.217963E+0	1.229438E+0	1.246146E+0	1.218013E+0	1.186529E+0	1.290047E+0	1.321304E+0	1.242014E+0	1.282489E+0	1.257198E+0	1.253084E+0	1.259185E+0	1.243765E+0	1.182277E+0	1.264365E+0	1.228805E+0	1.311180E+0	1.254021E+0	1.236966E+0	1.249876E+0	1.245480E+0	1.257996E+0	1.222847E+0	1.230124E+0	1.250532E+0	1.249228E+0	1.224063E+0	1.245076E+0	1.277310E+0	1.222380E+0	1.233353E+0	1.215178E+0	1.265442E+0	1.239407E+0	1.200199E+0	1.261841E+0	1.246066E+0	1.205774E+0	1.219889E+0	1.199681E+0	1.282345E+0	1.209360E+0	1.230210E+0	1.220489E+0	1.278236E+0	1.255374E+0	1.232275E+0	1.280341E+0	1.282233E+0	1.226108E+0	1.253095E+0	1.227495E+0	1.240453E+0	1.188590E+0	1.207676E+0	1.219923E+0	1.283463E+0	1.249349E+0	1.208035E+0	1.242721E+0	1.219661E+0	1.228356E+0	1.277043E+0	1.318272E+0
5.535440E+2	1.216308E+0	1.190990E+0	1.191809E+0	1.175707E+0	1.192742E+0	1.199831E+0	1.209680E+0	1.185332E+0	1.172304E+0	1.209162E+0	1.128770E+0	1.136157E+0	1.153918E+0	1.190754E+0	1.229570E+0	1.200119E+0	1.194477E+0	1.161115E+0	1.209176E+0	1.237516E+0	1.167917E+0	1.196123E+0	1.226746E+0	1.216663E+0	1.161391E+0	1.169382E+0	1.181884E+0	1.248177E+0	1.185868E+0	1.144382E+0	1.202993E+0	1.211829E+0	1.214135E+0	1.182354E+0	1.204852E+0	1.200185E+0	1.161343E+0	1.237662E+0	1.189826E+0	1.212706E+0	1.176802E+0	1.166572E+0	1.124605E+0	1.152406E+0	1.222421E+0	1.197303E+0	1.194183E+0	1.227831E+0	1.173847E+0	1.184634E+0	1.173846E+0	1.234386E+0	1.156516E+0	1.169692E+0	1.207564E+0	1.142564E+0	1.160645E+0	1.209563E+0	1.180788E+0	1.123343E+0	1.212787E+0	1.196720E+0	1.167732E+0	1.183060E+0	1.200111E+0	1.146579E+0	1.227190E+0	1.178281E+0	1.146998E+0	1.171754E+0	1.158262E+0	1.176747E+0	1.210667E+0	1.142579E+0	1.147442E+0	1.161893E+0	1.186980E+0	1.218164E+0	1.153621E+0	1.143867E+0	1.205318E+0	1.169980E+0	1.197754E+0	1.160488E+0	1.193080E+0	1.180465E+0	1.192442E+0	1.213240E+0	1.143157E+0	1.180852E+0	1.167545E+0	1.264976E+0	1.128066E+0	1.177988E+0	1.174974E+0	1.211200E+0	1.154148E+0	1.187142E+0	1.189082E+0	1.175685E+0	1.261872E+0	1.163850E+0	1.165895E+0	1.197135E+0	1.170057E+0	1.156232E+0	1.162174E+0	1.160406E+0	1.149532E+0	1.180733E+0	1.206942E+0	1.163968E+0	1.197344E+0	1.173537E+0	1.158544E+0	1.172977E+0	1.157950E+0	1.200721E+0	1.174227E+0	1.184113E+0	1.164232E+0	1.174500E+0	1.182458E+0	1.175567E+0	1.217004E+0	1.233537E+0	1.180042E+0	1.153072E+0	1.186572E+0	1.189057E+0	1.192109E+0	1.226422E+0	1.221191E+0	1.189684E+0	1.200873E+0	1.195894E+0	1.151873E+0	1.186218E+0	1.186452E+0	1.195087E+0	1.204528E+0	1.204568E+0	1.259177E+0	1.210271E+0	1.173957E+0	1.135582E+0	1.136987E+0	1.211092E+0	1.176060E+0	1.184216E+0	1.182631E+0	1.153600E+0	1.223673E+0	1.195060E+0	1.157216E+0	1.213431E+0	1.195710E+0	1.184114E+0	1.172871E+0	1.216264E+0	1.161414E+0	1.171937E+0	1.209254E+0	1.151852E+0	1.201047E+0	1.155068E+0	1.159114E+0	1.205081E+0	1.160538E+0	1.214026E+0	1.156473E+0
5.542580E+2	1.118400E+0	1.072591E+0	1.091261E+0	1.129554E+0	1.095851E+0	1.142286E+0	1.113186E+0	1.099745E+0	1.093226E+0	1.123716E+0	1.133306E+0	1.102565E+0	1.118372E+0	1.094215E+0	1.094145E+0	1.051491E+0	1.153790E+0	1.092984E+0	1.110563E+0	1.094923E+0	1.147340E+0	1.108776E+0	1.087631E+0	1.100369E+0	1.098953E+0	1.105880E+0	1.081403E+0	1.091626E+0	1.100372E+0	1.116060E+0	1.087695E+0	1.080645E+0	1.076267E+0	1.055707E+0	1.079813E+0	1.076401E+0	1.055432E+0	1.132945E+0	1.108982E+0	1.073307E+0	1.104316E+0	1.101833E+0	1.108479E+0	1.110656E+0	1.126746E+0	1.073781E+0	1.121457E+0	1.073603E+0	1.116467E+0	1.117852E+0	1.106869E+0	1.116069E+0	1.133481E+0	1.124816E+0	1.059596E+0	1.084604E+0	1.116043E+0	1.108206E+0	1.025115E+0	1.088293E+0	1.108986E+0	1.092206E+0	1.075208E+0	1.104273E+0	1.142750E+0	1.081567E+0	1.070873E+0	1.116163E+0	1.113380E+0	1.048048E+0	1.129145E+0	1.115471E+0	1.110437E+0	1.079441E+0	1.039225E+0	1.108917E+0	1.094537E+0	1.119756E+0	1.140345E+0	1.102152E+0	1.115037E+0	1.101712E+0	1.119169E+0	1.104287E+0	1.107891E+0	1.090664E+0	1.102472E+0	1.120777E+0	1.070076E+0	1.140082E+0	1.092238E+0	1.131798E+0	1.088840E+0	1.090633E+0	1.104690E+0	1.063403E+0	1.120286E+0	1.069805E+0	1.104139E+0	1.111265E+0	1.128858E+0	1.127649E+0	1.055186E+0	1.081179E+0	1.098140E+0	1.086136E+0	1.096311E+0	1.077706E+0	1.102602E+0	1.162996E+0	1.110356E+0	1.069994E+0	1.073870E+0	1.060790E+0	1.096925E+0	1.097224E+0	1.046130E+0	1.061834E+0	1.109283E+0	1.096356E+0	1.089858E+0	1.047574E+0	1.096561E+0	1.053139E+0	1.094522E+0	1.075272E+0	1.097245E+0	1.107020E+0	1.077775E+0	1.126708E+0	1.109586E+0	1.097609E+0	1.068848E+0	1.078634E+0	1.071088E+0	1.108969E+0	1.102093E+0	1.103092E+0	1.117320E+0	1.135358E+0	1.116545E+0	1.078648E+0	1.150003E+0	1.103354E+0	1.066345E+0	1.058240E+0	1.058277E+0	1.132850E+0	1.090536E+0	1.110020E+0	1.089193E+0	1.091368E+0	1.050609E+0	1.066806E+0	1.098210E+0	1.117306E+0	1.096779E+0	1.100464E+0	1.078122E+0	1.063726E+0	1.079107E+0	1.105353E+0	1.087927E+0	1.131740E+0	1.085605E+0	1.043152E+0	1.102442E+0	1.108522E+0	1.055476E+0	1.049672E+0	1.163473E+0
5.550250E+2	1.002391E+0	9.679599E-1	1.002044E+0	1.012775E+0	1.055226E+0	9.925642E-1	1.029027E+0	1.022891E+0	1.016107E+0	1.003120E+0	9.793818E-1	9.935983E-1	9.828361E-1	1.020373E+0	9.933581E-1	9.906047E-1	1.044625E+0	1.024420E+0	1.008455E+0	9.903141E-1	9.881776E-1	1.007652E+0	1.018468E+0	1.000750E+0	1.009446E+0	1.025085E+0	9.764341E-1	9.998226E-1	1.002657E+0	9.942046E-1	1.027828E+0	9.683335E-1	1.000712E+0	1.035708E+0	9.875797E-1	9.992219E-1	9.358948E-1	9.657004E-1	9.990577E-1	1.018968E+0	1.011372E+0	1.026697E+0	9.415269E-1	9.898437E-1	1.027063E+0	1.041519E+0	1.015839E+0	1.008126E+0	1.024545E+0	1.070650E+0	1.006170E+0	1.007339E+0	9.646962E-1	1.029416E+0	1.003753E+0	1.004656E+0	9.889484E-1	9.820171E-1	9.536028E-1	9.937703E-1	1.058194E+0	9.660381E-1	9.893949E-1	9.787491E-1	1.035288E+0	9.769388E-1	1.010063E+0	1.001675E+0	9.535508E-1	9.932655E-1	1.029153E+0	9.870912E-1	1.035153E+0	9.910454E-1	9.486751E-1	9.645841E-1	9.747500E-1	9.998312E-1	9.774768E-1	1.026376E+0	1.035371E+0	1.020433E+0	9.811652E-1	1.019109E+0	1.017303E+0	1.016037E+0	9.961853E-1	1.017260E+0	1.011044E+0	9.891667E-1	1.032977E+0	1.064844E+0	9.973365E-1	9.549208E-1	1.053621E+0	9.888272E-1	1.035292E+0	9.729423E-1	1.007285E+0	1.009761E+0	9.978874E-1	1.011987E+0	9.847640E-1	1.028382E+0	9.881363E-1	9.858006E-1	9.649204E-1	1.024878E+0	9.601058E-1	9.851735E-1	1.004568E+0	9.816534E-1	1.034005E+0	1.034224E+0	9.748393E-1	1.009384E+0	1.004102E+0	9.941671E-1	9.994622E-1	9.775595E-1	1.031989E+0	9.595815E-1	1.006971E+0	1.031785E+0	1.002809E+0	1.008435E+0	1.023196E+0	9.925091E-1	9.744352E-1	9.971386E-1	1.000650E+0	1.043607E+0	9.661038E-1	1.010061E+0	1.064997E+0	1.046233E+0	9.804846E-1	9.872595E-1	9.844715E-1	9.626748E-1	1.009819E+0	9.901601E-1	9.460510E-1	9.429025E-1	1.016307E+0	1.018621E+0	1.008173E+0	1.057707E+0	1.006147E+0	9.775294E-1	1.023580E+0	9.884516E-1	9.748549E-1	1.015295E+0	9.867544E-1	1.037566E+0	9.899595E-1	1.024300E+0	9.786082E-1	9.821729E-1	1.010920E+0	9.987657E-1	1.050829E+0	1.021334E+0	1.017769E+0	9.815343E-1	1.017391E+0	1.008566E+0	9.664568E-1	9.925527E-1	9.465325E-1
5.557550E+2	9.541313E-1	9.420960E-1	9.287705E-1	9.749144E-1	9.191952E-1	9.380524E-1	1.008924E+0	9.566617E-1	9.861241E-1	9.259355E-1	9.576087E-1	9.650297E-1	9.346623E-1	9.374724E-1	9.814740E-1	9.636941E-1	9.203171E-1	9.441288E-1	9.931347E-1	9.293409E-1	9.425281E-1	9.676478E-1	9.178688E-1	9.762824E-1	9.454543E-1	9.676421E-1	9.555570E-1	9.567252E-1	9.396396E-1	9.808137E-1	9.793790E-1	9.437659E-1	9.500139E-1	9.555447E-1	9.433518E-1	9.578350E-1	9.422839E-1	9.529529E-1	9.880226E-1	9.485192E-1	9.911626E-1	9.522520E-1	9.053211E-1	9.263765E-1	9.501924E-1	9.471210E-1	9.872524E-1	9.701529E-1	9.024825E-1	9.713081E-1	9.847615E-1	9.349069E-1	9.639287E-1	9.508768E-1	9.640074E-1	9.995048E-1	9.292944E-1	9.141215E-1	9.725952E-1	9.104198E-1	9.404981E-1	9.608113E-1	9.390602E-1	9.511012E-1	9.762491E-1	9.202832E-1	9.927431E-1	9.284055E-1	9.351691E-1	9.215787E-1	1.004400E+0	9.250104E-1	9.383079E-1	9.501126E-1	8.975454E-1	9.210103E-1	9.405878E-1	9.721445E-1	9.216883E-1	1.008231E+0	9.789639E-1	9.588396E-1	9.190627E-1	9.503218E-1	9.685954E-1	9.662920E-1	9.625774E-1	9.190444E-1	9.791944E-1	9.610564E-1	9.791743E-1	9.571197E-1	9.696128E-1	9.453531E-1	9.292376E-1	9.568892E-1	9.613013E-1	9.683207E-1	9.863980E-1	9.205823E-1	9.593873E-1	9.139882E-1	9.985721E-1	9.660170E-1	9.237772E-1	9.312417E-1	9.440965E-1	9.425868E-1	9.351990E-1	9.822724E-1	9.247536E-1	9.184870E-1	9.235275E-1	9.156806E-1	9.378273E-1	9.414963E-1	9.611684E-1	9.466869E-1	9.323807E-1	9.259141E-1	9.628100E-1	9.435919E-1	9.308397E-1	9.252769E-1	9.809525E-1	9.761769E-1	9.381546E-1	9.553723E-1	9.076045E-1	9.656992E-1	9.391266E-1	9.938587E-1	9.404232E-1	9.122022E-1	9.593485E-1	9.605124E-1	9.521727E-1	9.455151E-1	9.504713E-1	9.683665E-1	9.485567E-1	9.588416E-1	9.134347E-1	9.635065E-1	9.382681E-1	9.539697E-1	9.090141E-1	9.876880E-1	9.196745E-1	9.986157E-1	9.021599E-1	9.460850E-1	9.445087E-1	9.895849E-1	9.629168E-1	9.633386E-1	9.705518E-1	9.742263E-1	9.269983E-1	9.205369E-1	9.424525E-1	9.138142E-1	9.064101E-1	9.932401E-1	9.901387E-1	9.480897E-1	9.108964E-1	9.339512E-1	9.455392E-1	9.209008E-1	1.017453E+0
5.560190E+2	9.361426E-1	9.587592E-1	9.732563E-1	9.754655E-1	9.133987E-1	9.557979E-1	9.225764E-1	9.369681E-1	9.836437E-1	9.800205E-1	9.312109E-1	9.417339E-1	9.237119E-1	9.224910E-1	9.352400E-1	9.838809E-1	9.317147E-1	9.851890E-1	9.887769E-1	9.625998E-1	9.303482E-1	9.826343E-1	9.864435E-1	9.728240E-1	9.488233E-1	9.466512E-1	9.473497E-1	8.970301E-1	9.477584E-1	9.495033E-1	9.509858E-1	9.094960E-1	9.680250E-1	9.491417E-1	9.233513E-1	9.615685E-1	9.511670E-1	9.647569E-1	9.439054E-1	9.785113E-1	9.767751E-1	9.245009E-1	9.563888E-1	9.288108E-1	9.610469E-1	9.033074E-1	9.215783E-1	1.004967E+0	9.295882E-1	9.666115E-1	9.745953E-1	9.486781E-1	9.748882E-1	9.759720E-1	9.404080E-1	9.281661E-1	9.234674E-1	9.086029E-1	9.706827E-1	9.407213E-1	9.887218E-1	9.512832E-1	9.832022E-1	9.245897E-1	9.891601E-1	8.915672E-1	9.829153E-1	9.394739E-1	9.867421E-1	9.427349E-1	9.755690E-1	9.427316E-1	9.568819E-1	9.379356E-1	9.373917E-1	9.176936E-1	9.426132E-1	9.734988E-1	9.066340E-1	9.379977E-1	9.619511E-1	9.429494E-1	9.631677E-1	9.606509E-1	9.510753E-1	9.530170E-1	9.042128E-1	9.377588E-1	9.957518E-1	9.075513E-1	9.537280E-1	9.863816E-1	9.753943E-1	9.638587E-1	9.621703E-1	9.469015E-1	9.501823E-1	9.783255E-1	9.864868E-1	9.472958E-1	9.573779E-1	9.815729E-1	9.181875E-1	9.339049E-1	1.000079E+0	9.002259E-1	9.008740E-1	9.036361E-1	9.557099E-1	9.755399E-1	9.476092E-1	9.788963E-1	9.624660E-1	9.601658E-1	8.973149E-1	8.681025E-1	9.601612E-1	9.340872E-1	9.206070E-1	9.339298E-1	9.553087E-1	9.365883E-1	9.263693E-1	9.524830E-1	1.007307E+0	9.214813E-1	9.453713E-1	9.484064E-1	9.610958E-1	9.745655E-1	9.283303E-1	9.894315E-1	9.285997E-1	9.247489E-1	9.664215E-1	9.669089E-1	9.747491E-1	9.564485E-1	9.541205E-1	9.780356E-1	9.687676E-1	9.766580E-1	9.446504E-1	9.601761E-1	9.411669E-1	9.726811E-1	9.325798E-1	9.952489E-1	9.846229E-1	9.645387E-1	9.391119E-1	9.464314E-1	9.488230E-1	9.400530E-1	9.791767E-1	9.806352E-1	9.141375E-1	9.715474E-1	9.161915E-1	9.390687E-1	9.839835E-1	9.629772E-1	9.614116E-1	9.326826E-1	9.579133E-1	9.762292E-1	9.441449E-1	9.453730E-1	9.231971E-1	9.779927E-1	9.044920E-1
5.565140E+2	9.247136E-1	9.648160E-1	9.932312E-1	9.221993E-1	9.939603E-1	9.293800E-1	1.001638E+0	9.358701E-1	9.520352E-1	9.341983E-1	9.883514E-1	9.463390E-1	9.514537E-1	9.377452E-1	9.484337E-1	9.461217E-1	9.708842E-1	9.897317E-1	9.457865E-1	9.803258E-1	9.832790E-1	9.715710E-1	9.635984E-1	9.630465E-1	9.798930E-1	9.874255E-1	1.000393E+0	9.767039E-1	1.006522E+0	9.445971E-1	9.371544E-1	1.004497E+0	9.741514E-1	9.602927E-1	9.732466E-1	9.602303E-1	9.792279E-1	9.673955E-1	9.854850E-1	9.695376E-1	9.822921E-1	1.006568E+0	9.741459E-1	9.852413E-1	9.798112E-1	9.753617E-1	9.900327E-1	9.875012E-1	9.234346E-1	9.730158E-1	9.609516E-1	9.774967E-1	9.643987E-1	9.850122E-1	9.630823E-1	9.756072E-1	9.421734E-1	9.751575E-1	9.601074E-1	9.464939E-1	9.747376E-1	9.990889E-1	1.002628E+0	9.581507E-1	9.747739E-1	9.533582E-1	9.854258E-1	9.792151E-1	9.575186E-1	9.356309E-1	9.400146E-1	9.684986E-1	9.546140E-1	9.789071E-1	9.430707E-1	9.785976E-1	9.745554E-1	9.596021E-1	9.458474E-1	9.592574E-1	1.013935E+0	9.791291E-1	9.852738E-1	9.874303E-1	9.811540E-1	9.484886E-1	9.577939E-1	9.688333E-1	9.564104E-1	9.301075E-1	9.725043E-1	9.470096E-1	9.251174E-1	9.664437E-1	9.187695E-1	9.071779E-1	9.336189E-1	9.562687E-1	9.655559E-1	9.832972E-1	9.838233E-1	9.668783E-1	9.812486E-1	9.726399E-1	9.471688E-1	1.023888E+0	9.597367E-1	9.499763E-1	1.009345E+0	9.921080E-1	9.629938E-1	9.604784E-1	9.258095E-1	9.746842E-1	9.710184E-1	9.392094E-1	9.601519E-1	9.395720E-1	9.509165E-1	1.014548E+0	9.833398E-1	9.654117E-1	9.949531E-1	9.605287E-1	1.004144E+0	9.941377E-1	9.862094E-1	9.493580E-1	9.633733E-1	9.534557E-1	9.778788E-1	9.437910E-1	9.645367E-1	9.519781E-1	1.015542E+0	9.517890E-1	9.750359E-1	9.880591E-1	9.533761E-1	9.800252E-1	9.813137E-1	9.561046E-1	9.379612E-1	9.648498E-1	9.772700E-1	9.752131E-1	9.742531E-1	9.507406E-1	9.873867E-1	9.900986E-1	9.926882E-1	9.707467E-1	9.833500E-1	9.481855E-1	9.623041E-1	9.530361E-1	9.538073E-1	9.957330E-1	1.007404E+0	9.468556E-1	9.476737E-1	9.948162E-1	9.715338E-1	9.880581E-1	9.790349E-1	9.504411E-1	1.013871E+0	1.022383E+0	9.448430E-1	1.015611E+0	9.738672E-1
5.570440E+2	9.728896E-1	9.826183E-1	1.014018E+0	1.029070E+0	9.920194E-1	9.790708E-1	9.793230E-1	9.995990E-1	1.024307E+0	9.781171E-1	9.621402E-1	1.035635E+0	9.965120E-1	9.807466E-1	1.012644E+0	9.985323E-1	1.003467E+0	1.016380E+0	9.879291E-1	1.002913E+0	9.779967E-1	9.905005E-1	1.023170E+0	1.010264E+0	9.744069E-1	9.925154E-1	1.000555E+0	9.995279E-1	1.005863E+0	9.615825E-1	9.725911E-1	9.915053E-1	1.011940E+0	1.034164E+0	9.971834E-1	9.901661E-1	9.702639E-1	9.890150E-1	9.835046E-1	9.982705E-1	9.758979E-1	9.832938E-1	9.664945E-1	1.011086E+0	1.004597E+0	9.672407E-1	9.792394E-1	9.762347E-1	9.785223E-1	9.862194E-1	1.018784E+0	1.011575E+0	9.687970E-1	1.003173E+0	9.730729E-1	9.820805E-1	1.012478E+0	1.032765E+0	1.012023E+0	9.549632E-1	1.026998E+0	9.862353E-1	9.461000E-1	9.975217E-1	9.899510E-1	1.004956E+0	1.006506E+0	9.405652E-1	1.011354E+0	9.798611E-1	1.009836E+0	9.968324E-1	1.008822E+0	1.025567E+0	9.859922E-1	9.950659E-1	1.041334E+0	1.012943E+0	9.919278E-1	9.337250E-1	9.908830E-1	9.581494E-1	9.905809E-1	9.861984E-1	9.598724E-1	9.975076E-1	1.007392E+0	9.790827E-1	1.064192E+0	9.759105E-1	9.822352E-1	9.992053E-1	9.860136E-1	9.695123E-1	1.013064E+0	1.029076E+0	9.579464E-1	9.715058E-1	1.003102E+0	1.002231E+0	9.956229E-1	9.818041E-1	9.683450E-1	9.886963E-1	1.043708E+0	9.637113E-1	9.704443E-1	9.746125E-1	1.006309E+0	9.845007E-1	1.000096E+0	9.901829E-1	1.041720E+0	9.930106E-1	9.685773E-1	9.965415E-1	1.050031E+0	9.703801E-1	9.767095E-1	9.604198E-1	9.841353E-1	9.967745E-1	9.628554E-1	9.905554E-1	9.533006E-1	9.738228E-1	9.975609E-1	1.022973E+0	9.636116E-1	9.787581E-1	1.020839E+0	9.887479E-1	9.773734E-1	9.891479E-1	9.542214E-1	9.559551E-1	1.019084E+0	1.011458E+0	9.787975E-1	9.703556E-1	9.477590E-1	1.009587E+0	9.967068E-1	9.857839E-1	9.980820E-1	1.005992E+0	9.900258E-1	1.015651E+0	9.184593E-1	1.041189E+0	9.769611E-1	1.019278E+0	1.009813E+0	1.003385E+0	9.968938E-1	9.867253E-1	1.017844E+0	9.949822E-1	9.832654E-1	9.927925E-1	1.034238E+0	9.540212E-1	9.699817E-1	9.978751E-1	9.736842E-1	1.009948E+0	9.947603E-1	9.643154E-1	1.005085E+0	1.002171E+0	1.002796E+0
5.575640E+2	9.529556E-1	9.728854E-1	9.750815E-1	9.985403E-1	9.874272E-1	9.753387E-1	9.958255E-1	9.982936E-1	9.758949E-1	9.775228E-1	9.696450E-1	9.857127E-1	1.019715E+0	1.018348E+0	9.813725E-1	9.836443E-1	9.699713E-1	9.732217E-1	9.976096E-1	9.924962E-1	9.499849E-1	9.439313E-1	9.622965E-1	9.644457E-1	9.723858E-1	9.752037E-1	9.853367E-1	9.744198E-1	1.000685E+0	9.967378E-1	9.515804E-1	9.538167E-1	9.803497E-1	9.463653E-1	9.767559E-1	1.004556E+0	1.020401E+0	9.973227E-1	9.848758E-1	9.708350E-1	9.833075E-1	9.595186E-1	1.013923E+0	9.934034E-1	1.000804E+0	9.954902E-1	1.001392E+0	9.744921E-1	9.736618E-1	9.753137E-1	9.923046E-1	9.804107E-1	9.775279E-1	9.440764E-1	1.040122E+0	1.000557E+0	9.899177E-1	1.013770E+0	9.870952E-1	1.017212E+0	9.650459E-1	9.697511E-1	9.914452E-1	9.502836E-1	1.004197E+0	9.777654E-1	9.760505E-1	9.725689E-1	9.827485E-1	9.785550E-1	9.793150E-1	9.974664E-1	9.907628E-1	9.621243E-1	9.655642E-1	9.986289E-1	9.956450E-1	9.768820E-1	9.962050E-1	9.903091E-1	9.689480E-1	9.581981E-1	9.922119E-1	9.864627E-1	1.025998E+0	1.036109E+0	9.985062E-1	9.840129E-1	1.010359E+0	1.002577E+0	1.032573E+0	9.451491E-1	1.011031E+0	1.015383E+0	1.007455E+0	9.938590E-1	9.730549E-1	9.972780E-1	9.697139E-1	9.668446E-1	9.970693E-1	9.950693E-1	1.014182E+0	9.956157E-1	1.014292E+0	9.938655E-1	9.801337E-1	1.021087E+0	9.911320E-1	9.882961E-1	1.024975E+0	1.053097E+0	9.774327E-1	9.648225E-1	1.012389E+0	9.923905E-1	9.426659E-1	9.647845E-1	1.017331E+0	9.953016E-1	9.492966E-1	1.013430E+0	9.956057E-1	9.920058E-1	1.003045E+0	9.902562E-1	9.619647E-1	1.020500E+0	9.582068E-1	1.015924E+0	9.404227E-1	9.952668E-1	9.862166E-1	1.019796E+0	1.005567E+0	1.000775E+0	1.023738E+0	9.697778E-1	1.021404E+0	9.962621E-1	1.038319E+0	9.898497E-1	1.002990E+0	9.841199E-1	1.047457E+0	1.054697E+0	1.011118E+0	1.007061E+0	1.031727E+0	9.813406E-1	1.010415E+0	9.902445E-1	9.844210E-1	1.007061E+0	9.784201E-1	1.013640E+0	9.759315E-1	1.026643E+0	9.818049E-1	1.000104E+0	9.695600E-1	9.972234E-1	9.729806E-1	1.027732E+0	1.012228E+0	1.008082E+0	9.692380E-1	9.712842E-1	1.054177E+0	1.010816E+0	1.011407E+0
5.580230E+2	1.010312E+0	1.044186E+0	9.966959E-1	9.937175E-1	1.015224E+0	9.962321E-1	9.854395E-1	9.731615E-1	9.867101E-1	9.460173E-1	9.791208E-1	9.849387E-1	9.865666E-1	9.949308E-1	9.795667E-1	9.859943E-1	9.933128E-1	9.857338E-1	1.000687E+0	9.906052E-1	9.740414E-1	9.994311E-1	9.861277E-1	9.982348E-1	1.014933E+0	1.003527E+0	9.634817E-1	9.814684E-1	9.952688E-1	9.823096E-1	9.965309E-1	9.926872E-1	1.011772E+0	9.978960E-1	9.812456E-1	1.000802E+0	9.869528E-1	9.802265E-1	9.747830E-1	1.009305E+0	9.826153E-1	1.019427E+0	9.475004E-1	9.909271E-1	1.028150E+0	9.655414E-1	9.709409E-1	9.981750E-1	1.062997E+0	1.020270E+0	9.737714E-1	1.018364E+0	9.998814E-1	1.037318E+0	9.766604E-1	9.978780E-1	1.035164E+0	9.772256E-1	9.579329E-1	1.034054E+0	9.998083E-1	9.863509E-1	9.820457E-1	9.684294E-1	9.881923E-1	9.871786E-1	9.847257E-1	1.011158E+0	9.611187E-1	1.013056E+0	1.006807E+0	9.681937E-1	1.000560E+0	9.642295E-1	9.764984E-1	9.909112E-1	1.008029E+0	9.989998E-1	1.031368E+0	9.818699E-1	1.012445E+0	9.756637E-1	9.693160E-1	9.851659E-1	9.780018E-1	9.752024E-1	1.006041E+0	9.975388E-1	9.928236E-1	1.020039E+0	9.943418E-1	1.048648E+0	1.009284E+0	1.002525E+0	9.789817E-1	9.923006E-1	1.036536E+0	9.850391E-1	1.012707E+0	1.015332E+0	1.005302E+0	1.017881E+0	9.923113E-1	9.931090E-1	9.980915E-1	9.817736E-1	9.931987E-1	1.005501E+0	9.547245E-1	1.046529E+0	1.015610E+0	9.733648E-1	1.007288E+0	9.978026E-1	9.982966E-1	9.635540E-1	1.035857E+0	9.963557E-1	1.032592E+0	9.882672E-1	1.005896E+0	9.161633E-1	9.740760E-1	9.776645E-1	9.968216E-1	9.811652E-1	9.967019E-1	9.997927E-1	1.006376E+0	1.026691E+0	9.910311E-1	9.498639E-1	9.903038E-1	9.986505E-1	9.761120E-1	9.767418E-1	9.869231E-1	1.007107E+0	9.762318E-1	1.013284E+0	1.012095E+0	9.815375E-1	9.719030E-1	9.437513E-1	1.028117E+0	1.041022E+0	1.000043E+0	9.853371E-1	9.855932E-1	9.803282E-1	9.801057E-1	1.022679E+0	9.859049E-1	9.745133E-1	9.533562E-1	9.743722E-1	9.472693E-1	9.771194E-1	9.516595E-1	9.865929E-1	1.021539E+0	1.005097E+0	9.859148E-1	9.891144E-1	1.017672E+0	9.784321E-1	9.899313E-1	1.001032E+0	9.962757E-1	9.263282E-1	1.015101E+0
5.585160E+2	1.001765E+0	1.007151E+0	1.007316E+0	9.744679E-1	9.869862E-1	1.028741E+0	9.961209E-1	9.982576E-1	1.007222E+0	1.025777E+0	9.731267E-1	1.008981E+0	9.864957E-1	1.009876E+0	1.018995E+0	1.014788E+0	9.862386E-1	1.055721E+0	1.022606E+0	9.923647E-1	9.953799E-1	9.706349E-1	1.011931E+0	1.010947E+0	1.017287E+0	1.019282E+0	1.054317E+0	1.014569E+0	9.993512E-1	1.038956E+0	9.828996E-1	1.008177E+0	1.009186E+0	9.954665E-1	9.963680E-1	1.001897E+0	1.017909E+0	9.985932E-1	1.004070E+0	1.006552E+0	1.012618E+0	9.845009E-1	1.042736E+0	9.958816E-1	1.021029E+0	9.829025E-1	1.012836E+0	9.967914E-1	9.942437E-1	1.023684E+0	1.015311E+0	9.993267E-1	1.049379E+0	1.028953E+0	9.921922E-1	1.011198E+0	9.873007E-1	9.783495E-1	9.707776E-1	9.834302E-1	1.027964E+0	9.683081E-1	1.008885E+0	1.015641E+0	9.902514E-1	1.002496E+0	1.008951E+0	1.008973E+0	9.958686E-1	1.022909E+0	9.752210E-1	9.882569E-1	1.014916E+0	9.677938E-1	9.950167E-1	1.022032E+0	9.716259E-1	1.002047E+0	9.847527E-1	9.957476E-1	9.965707E-1	1.010802E+0	1.006700E+0	1.023474E+0	1.026890E+0	1.002624E+0	1.002383E+0	1.020730E+0	1.041650E+0	9.901145E-1	1.017340E+0	9.522574E-1	1.005296E+0	9.717676E-1	9.932106E-1	9.999118E-1	9.969439E-1	9.951797E-1	9.640280E-1	1.063770E+0	9.451511E-1	1.012529E+0	9.837448E-1	9.876180E-1	9.754906E-1	1.016861E+0	9.762538E-1	9.389984E-1	9.884140E-1	9.833504E-1	1.009083E+0	1.008617E+0	1.006256E+0	9.891618E-1	1.049886E+0	1.012259E+0	1.019568E+0	1.001880E+0	9.940056E-1	9.837256E-1	9.759851E-1	9.695942E-1	9.836558E-1	1.046222E+0	1.006022E+0	1.027749E+0	1.026247E+0	9.743577E-1	9.906557E-1	1.002549E+0	9.907906E-1	1.010951E+0	9.985119E-1	1.013598E+0	1.022978E+0	1.006052E+0	9.627521E-1	9.575577E-1	1.003774E+0	1.009506E+0	9.618744E-1	1.002075E+0	9.996272E-1	1.018562E+0	9.750809E-1	9.628441E-1	1.002923E+0	9.755333E-1	9.845110E-1	1.000460E+0	1.023846E+0	1.034059E+0	1.018539E+0	9.901759E-1	9.906307E-1	9.997563E-1	1.012314E+0	9.822140E-1	1.005887E+0	9.810992E-1	9.838050E-1	1.009279E+0	1.027367E+0	1.010917E+0	1.028717E+0	9.765061E-1	9.623331E-1	1.028604E+0	9.686233E-1	9.959652E-1	9.858340E-1
5.590210E+2	1.027841E+0	1.034807E+0	1.044434E+0	1.039073E+0	1.024688E+0	1.015324E+0	9.707622E-1	1.027218E+0	1.007019E+0	1.008682E+0	1.001507E+0	1.013656E+0	1.021694E+0	1.018979E+0	9.876788E-1	1.009074E+0	9.938688E-1	9.576878E-1	1.022846E+0	1.013152E+0	1.011523E+0	1.017306E+0	1.022373E+0	1.025900E+0	1.021790E+0	1.029374E+0	1.028237E+0	1.015438E+0	1.033564E+0	9.934977E-1	9.931562E-1	9.866648E-1	1.004126E+0	9.866540E-1	1.032983E+0	1.030700E+0	1.019018E+0	1.020751E+0	1.008643E+0	1.006315E+0	1.019094E+0	9.908356E-1	1.039315E+0	1.024026E+0	1.029062E+0	1.040894E+0	9.730794E-1	1.057376E+0	1.002936E+0	1.033680E+0	1.010421E+0	9.981516E-1	1.006508E+0	1.028556E+0	1.065521E+0	1.023627E+0	1.011928E+0	1.018634E+0	1.057268E+0	1.012252E+0	9.853448E-1	1.014942E+0	1.003720E+0	1.052756E+0	9.754575E-1	1.028537E+0	1.011739E+0	1.056422E+0	1.014217E+0	1.027566E+0	1.080963E+0	1.030946E+0	9.956598E-1	1.022210E+0	9.785328E-1	1.018047E+0	1.041885E+0	1.014920E+0	1.026709E+0	1.052004E+0	1.027026E+0	1.010630E+0	9.919071E-1	1.023642E+0	1.000834E+0	1.010179E+0	9.854849E-1	1.011525E+0	9.928455E-1	1.039353E+0	1.022082E+0	9.995841E-1	1.024017E+0	1.032925E+0	9.842795E-1	1.019033E+0	1.001506E+0	1.002316E+0	1.023083E+0	9.956180E-1	1.031875E+0	9.927706E-1	9.886656E-1	1.032405E+0	1.028057E+0	1.010184E+0	1.023277E+0	1.022795E+0	1.032120E+0	9.913275E-1	9.925088E-1	9.840395E-1	1.011877E+0	1.036233E+0	9.962458E-1	9.670384E-1	1.011215E+0	1.032906E+0	9.930220E-1	9.979274E-1	9.942747E-1	1.016916E+0	1.010909E+0	1.019209E+0	9.920039E-1	1.019063E+0	9.893828E-1	1.023383E+0	1.010230E+0	9.804740E-1	9.960477E-1	1.014916E+0	1.049444E+0	1.013806E+0	1.027748E+0	1.027291E+0	1.011685E+0	1.007043E+0	1.010110E+0	9.948816E-1	1.013922E+0	1.036822E+0	9.999025E-1	9.939602E-1	1.019285E+0	9.785522E-1	1.016175E+0	1.005903E+0	1.038948E+0	1.014483E+0	1.037454E+0	9.869157E-1	1.023433E+0	1.015342E+0	1.039413E+0	1.019093E+0	1.050658E+0	9.787179E-1	1.017756E+0	1.000528E+0	1.027251E+0	9.995518E-1	1.011169E+0	9.778169E-1	1.033332E+0	1.018793E+0	1.024254E+0	9.740497E-1	9.702816E-1	1.060817E+0	1.046211E+0
5.595110E+2	1.016635E+0	9.958900E-1	9.878625E-1	1.038718E+0	9.838248E-1	1.048576E+0	1.020724E+0	1.045423E+0	1.033945E+0	1.066230E+0	1.062163E+0	1.055572E+0	1.067923E+0	1.025519E+0	1.035314E+0	9.876249E-1	9.973004E-1	1.043162E+0	1.037593E+0	1.025327E+0	1.023471E+0	1.062171E+0	1.053356E+0	9.993046E-1	9.927249E-1	1.026108E+0	1.012245E+0	1.024595E+0	9.978509E-1	1.047740E+0	1.021731E+0	1.003910E+0	9.845236E-1	1.024985E+0	1.041011E+0	1.022981E+0	1.031098E+0	1.031906E+0	1.030475E+0	1.030486E+0	1.065188E+0	9.944943E-1	1.020255E+0	1.023698E+0	9.824421E-1	1.035970E+0	9.994287E-1	1.017328E+0	1.007801E+0	1.014650E+0	1.041045E+0	1.038238E+0	1.017589E+0	1.033918E+0	1.037869E+0	1.013075E+0	9.807597E-1	1.012853E+0	1.010196E+0	1.008439E+0	1.007614E+0	1.036199E+0	1.050495E+0	1.005619E+0	1.055639E+0	1.005986E+0	9.985595E-1	1.032129E+0	1.015153E+0	1.061168E+0	1.004028E+0	1.040990E+0	1.040169E+0	1.016227E+0	1.048098E+0	1.011910E+0	9.799893E-1	1.032556E+0	1.003261E+0	9.756701E-1	1.024823E+0	1.053131E+0	1.023968E+0	1.031696E+0	9.854173E-1	1.035767E+0	1.001839E+0	1.023037E+0	1.006062E+0	1.002826E+0	1.022590E+0	1.054454E+0	1.022858E+0	1.040823E+0	1.046699E+0	1.027782E+0	1.024299E+0	1.064054E+0	1.053372E+0	1.009899E+0	1.009108E+0	9.972872E-1	1.048131E+0	1.025192E+0	9.982350E-1	1.034690E+0	1.076043E+0	1.047905E+0	1.019705E+0	1.033630E+0	1.010691E+0	1.017609E+0	1.016344E+0	9.948816E-1	1.009236E+0	1.019089E+0	9.963557E-1	1.008774E+0	1.026019E+0	1.025917E+0	1.034595E+0	1.057597E+0	1.008224E+0	1.044059E+0	1.048896E+0	1.022084E+0	1.029460E+0	1.017997E+0	1.034150E+0	1.024471E+0	1.039225E+0	1.021611E+0	9.909791E-1	1.019063E+0	1.001149E+0	1.055369E+0	1.001580E+0	9.976704E-1	9.919482E-1	1.008766E+0	1.028662E+0	1.057027E+0	1.024372E+0	1.022732E+0	9.972762E-1	9.586516E-1	1.018056E+0	1.037825E+0	1.059593E+0	1.039535E+0	1.024438E+0	1.024180E+0	9.812874E-1	1.001472E+0	9.966526E-1	1.024543E+0	1.030834E+0	1.030946E+0	1.039830E+0	1.032576E+0	1.028126E+0	1.056600E+0	1.004862E+0	1.043390E+0	1.031623E+0	1.047651E+0	1.010809E+0	1.007882E+0	1.008861E+0	1.059798E+0	1.013872E+0
5.600520E+2	1.054237E+0	1.004531E+0	1.026656E+0	9.823803E-1	1.010287E+0	1.016186E+0	1.066898E+0	9.951959E-1	1.033483E+0	1.042172E+0	1.035396E+0	1.024089E+0	1.003814E+0	9.973756E-1	1.013984E+0	1.012531E+0	1.044774E+0	1.003452E+0	1.010993E+0	9.871841E-1	1.028416E+0	1.052298E+0	9.943359E-1	1.003513E+0	9.914049E-1	9.803965E-1	9.920991E-1	1.028069E+0	9.995000E-1	1.003029E+0	1.108704E+0	1.012448E+0	1.020416E+0	1.024530E+0	9.964028E-1	1.010374E+0	1.013233E+0	1.010423E+0	1.055164E+0	9.988091E-1	9.610729E-1	1.068841E+0	1.014152E+0	9.914185E-1	9.877650E-1	1.032982E+0	1.042945E+0	9.959216E-1	1.015672E+0	9.857494E-1	1.010343E+0	1.009317E+0	9.953273E-1	9.730714E-1	9.618890E-1	9.951268E-1	1.033550E+0	1.029081E+0	1.023952E+0	1.028146E+0	9.996243E-1	1.038868E+0	9.997079E-1	1.022956E+0	1.010387E+0	9.912215E-1	1.017757E+0	1.024586E+0	1.039951E+0	1.010214E+0	1.029778E+0	9.981829E-1	9.983674E-1	1.008126E+0	1.066709E+0	9.709503E-1	1.013232E+0	9.874290E-1	1.051634E+0	1.031637E+0	9.918252E-1	1.006567E+0	1.041189E+0	1.023802E+0	1.025879E+0	1.008952E+0	1.021343E+0	1.041658E+0	1.017568E+0	1.036649E+0	1.006578E+0	1.062719E+0	1.028153E+0	1.049360E+0	1.003041E+0	1.053360E+0	1.039793E+0	1.025815E+0	1.015582E+0	9.916043E-1	1.023278E+0	1.044562E+0	9.825249E-1	1.048293E+0	1.004203E+0	1.021499E+0	1.023909E+0	1.050609E+0	1.028705E+0	1.009589E+0	9.858812E-1	1.014548E+0	1.015254E+0	1.036077E+0	1.018616E+0	1.076541E+0	9.947467E-1	1.044371E+0	9.877618E-1	1.031225E+0	1.038089E+0	1.024460E+0	1.032987E+0	1.004642E+0	1.033534E+0	9.763245E-1	1.012161E+0	1.016217E+0	1.050622E+0	1.032007E+0	1.042343E+0	1.030753E+0	1.009351E+0	1.044850E+0	9.773325E-1	9.872406E-1	1.005120E+0	1.016054E+0	1.037403E+0	1.051748E+0	1.032487E+0	1.014593E+0	1.018448E+0	1.071576E+0	1.026584E+0	1.015329E+0	1.054612E+0	1.001103E+0	1.015289E+0	9.722098E-1	9.875907E-1	9.873472E-1	1.014234E+0	9.844978E-1	1.027537E+0	1.044124E+0	1.064463E+0	1.008686E+0	1.004740E+0	1.044162E+0	1.028859E+0	1.002453E+0	1.042148E+0	9.968055E-1	9.933822E-1	1.014161E+0	1.003592E+0	1.034079E+0	1.006791E+0	9.690704E-1	1.029031E+0
5.605090E+2	1.009236E+0	1.002536E+0	9.707370E-1	9.922882E-1	1.023124E+0	1.015475E+0	9.854250E-1	9.926475E-1	1.016320E+0	9.980554E-1	9.865094E-1	9.582332E-1	9.854331E-1	1.013925E+0	1.013724E+0	1.016402E+0	1.026098E+0	9.746198E-1	1.008730E+0	1.013181E+0	1.031632E+0	1.001727E+0	1.013136E+0	9.994436E-1	1.019459E+0	1.002573E+0	9.921138E-1	9.834918E-1	9.809532E-1	1.022282E+0	1.039432E+0	1.005197E+0	9.980801E-1	1.020958E+0	9.599914E-1	1.020173E+0	9.743620E-1	1.009929E+0	9.939325E-1	9.730014E-1	1.029090E+0	9.854979E-1	1.007906E+0	1.030795E+0	9.777052E-1	9.880141E-1	9.985444E-1	1.024273E+0	1.048753E+0	1.005197E+0	9.950878E-1	9.668634E-1	1.019256E+0	9.844330E-1	1.008583E+0	9.952135E-1	1.003702E+0	9.886699E-1	1.022077E+0	9.926155E-1	1.019933E+0	1.014551E+0	1.006631E+0	9.758362E-1	9.922096E-1	1.003387E+0	9.546477E-1	1.016687E+0	1.006099E+0	9.979035E-1	9.919243E-1	1.008008E+0	1.027690E+0	1.034218E+0	1.016413E+0	9.923347E-1	9.955502E-1	1.020410E+0	9.664943E-1	1.036582E+0	9.866485E-1	1.012181E+0	1.011631E+0	9.858949E-1	1.028227E+0	9.894126E-1	1.007124E+0	9.918609E-1	9.381631E-1	9.797344E-1	9.791279E-1	9.776842E-1	1.023032E+0	9.611391E-1	1.039010E+0	9.564049E-1	1.021280E+0	9.787521E-1	9.963614E-1	9.730493E-1	1.000208E+0	1.003594E+0	1.025240E+0	9.687592E-1	9.905278E-1	9.794607E-1	1.006283E+0	1.001526E+0	9.905124E-1	9.988440E-1	1.018702E+0	1.002057E+0	9.959028E-1	1.040009E+0	9.593284E-1	1.047979E+0	1.003562E+0	1.037902E+0	1.000316E+0	9.986501E-1	1.030831E+0	1.018527E+0	1.008301E+0	9.570809E-1	9.958336E-1	1.017111E+0	1.004398E+0	9.840564E-1	1.024371E+0	9.482720E-1	9.907945E-1	1.002277E+0	1.048074E+0	9.632352E-1	1.028976E+0	1.025266E+0	1.035516E+0	1.023170E+0	1.072610E+0	9.857763E-1	9.985485E-1	9.626200E-1	1.030849E+0	1.021684E+0	9.936057E-1	1.001931E+0	9.673574E-1	9.870943E-1	9.859225E-1	9.852871E-1	9.779640E-1	9.942068E-1	1.007041E+0	1.040581E+0	1.044584E+0	1.020917E+0	9.645129E-1	9.869795E-1	9.889422E-1	1.021675E+0	9.754359E-1	9.840699E-1	1.002417E+0	9.635916E-1	9.848782E-1	1.000346E+0	1.012071E+0	1.002388E+0	9.890721E-1	1.012050E+0	9.128958E-1
5.610010E+2	1.029415E+0	9.905781E-1	9.839678E-1	1.029546E+0	9.824587E-1	9.956766E-1	9.978434E-1	1.034334E+0	9.630647E-1	1.023228E+0	1.042040E+0	9.868428E-1	9.803929E-1	1.002554E+0	1.008289E+0	1.045287E+0	1.014086E+0	1.000290E+0	9.652193E-1	1.002450E+0	1.024275E+0	9.904291E-1	9.696752E-1	1.024901E+0	1.015716E+0	9.835948E-1	9.712217E-1	1.001718E+0	9.804432E-1	1.009269E+0	9.962211E-1	1.041096E+0	1.005455E+0	1.008688E+0	1.044813E+0	9.581210E-1	9.875332E-1	9.944374E-1	9.790666E-1	1.036888E+0	9.888246E-1	1.007024E+0	9.735737E-1	9.535237E-1	9.886347E-1	1.015603E+0	1.031562E+0	9.719070E-1	9.919776E-1	9.822208E-1	9.819812E-1	1.000258E+0	1.001336E+0	9.814891E-1	9.810085E-1	1.005637E+0	1.003028E+0	9.734951E-1	9.985724E-1	1.022395E+0	9.929305E-1	9.857057E-1	1.008344E+0	1.052806E+0	1.018942E+0	1.045114E+0	1.055638E+0	9.576957E-1	1.015972E+0	9.731362E-1	9.821136E-1	1.002625E+0	9.684393E-1	1.020598E+0	1.024105E+0	1.021523E+0	9.781535E-1	9.942112E-1	1.001800E+0	1.043198E+0	9.868950E-1	1.035549E+0	9.872227E-1	9.662330E-1	9.877272E-1	9.957581E-1	1.012094E+0	9.817216E-1	9.799259E-1	1.022690E+0	9.706284E-1	1.013289E+0	9.651974E-1	9.901212E-1	1.015489E+0	1.021095E+0	1.015022E+0	1.023791E+0	9.964943E-1	9.983542E-1	1.008562E+0	9.876241E-1	1.015606E+0	9.876723E-1	1.000227E+0	9.740667E-1	9.907213E-1	9.869892E-1	9.790321E-1	9.718254E-1	9.794593E-1	9.960056E-1	1.002116E+0	9.733166E-1	1.016407E+0	9.853978E-1	9.858466E-1	1.003074E+0	1.021327E+0	1.004018E+0	1.003558E+0	1.021127E+0	1.028432E+0	1.008032E+0	9.663987E-1	9.982866E-1	9.959148E-1	9.913647E-1	9.984036E-1	1.037398E+0	1.010628E+0	1.041823E+0	9.852091E-1	9.858756E-1	9.903752E-1	1.013520E+0	9.785663E-1	1.022103E+0	9.543456E-1	9.893946E-1	9.850198E-1	9.897841E-1	1.017240E+0	9.929806E-1	9.372430E-1	1.005769E+0	9.654358E-1	1.033750E+0	9.925695E-1	9.950686E-1	9.885368E-1	9.703437E-1	9.919774E-1	1.034787E+0	1.010209E+0	9.637933E-1	9.823658E-1	1.017979E+0	1.018712E+0	9.936138E-1	9.835133E-1	9.968883E-1	1.011625E+0	1.004699E+0	9.454490E-1	9.956390E-1	1.019142E+0	9.939840E-1	1.055990E+0	9.473753E-1	1.008985E+0
