Photon Energy (eV)	#1	#2	#3	#4	#5	#6	#7	#8	#9	#10	#11	#12	#13	#14	#15	#16	#17	#18	#19	#20	#21	#22	#23	#24	#25	#26	#27	#28	#29	#30	#31	#32	#33	#34	#35	#36	#37	#38	#39	#40	#41	#42	#43	#44	#45	#46	#47	#48	#49	#50	#51	#52	#53	#54	#55	#56	#57	#58	#59	#60	#61	#62	#63	#64	#65	#66	#67	#68	#69	#70	#71	#72	#73	#74	#75	#76	#77	#78	#79	#80	#81	#82	#83	#84	#85	#86	#87	#88	#89	#90	#91	#92	#93	#94	#95	#96	#97	#98	#99	#100	#101	#102	#103	#104	#105	#106	#107	#108	#109	#110	#111	#112	#113	#114	#115	#116	#117	#118	#119	#120	#121	#122	#123	#124	#125	#126	#127	#128	#129	#130	#131	#132	#133	#134	#135	#136	#137	#138	#139	#140	#141	#142	#143	#144	#145	#146	#147	#148	#149	#150	#151	#152	#153	#154	#155	#156	#157	#158	#159	#160	#161	#162	#163	#164	#165	#166	#167	#168	#169	#170	#171	
5.300160E+2	-2.578871E-3	-5.020933E-3	-7.507932E-3	-1.405932E-3	-2.577131E-3	-1.553483E-2	-3.588331E-3	-1.030942E-2	1.064698E-3	-4.640765E-3	-7.403655E-3	-1.271999E-2	-7.427140E-3	-4.368658E-3	-6.455214E-3	-3.989773E-3	-4.846116E-3	-3.209642E-3	-3.683231E-3	4.787427E-3	-2.737181E-3	-3.502864E-4	-2.759457E-3	-4.547984E-3	-3.766247E-3	-1.080550E-3	1.475676E-3	-5.690059E-3	-3.377996E-3	-6.894016E-3	-7.349724E-3	-1.020525E-2	1.574061E-3	-2.355328E-3	-1.030044E-2	-5.960980E-3	-4.375866E-3	2.247566E-3	-7.920877E-3	-6.191684E-3	-8.156264E-3	-8.195705E-3	-1.283763E-2	-8.200244E-3	2.634694E-3	-9.443026E-3	-1.475461E-3	-1.079157E-2	-9.754149E-4	-2.549074E-3	9.641769E-3	-6.810679E-4	-6.653176E-3	-1.152323E-2	-2.781950E-3	-4.086151E-3	-3.770360E-3	4.121770E-3	-2.659054E-3	-1.252299E-3	-8.413554E-3	-2.680044E-3	-1.134415E-2	-4.758749E-5	-1.142693E-4	-6.766208E-3	-3.141451E-3	-5.926103E-3	-1.367238E-2	-1.012868E-2	-4.585244E-3	-7.039006E-3	-6.214148E-3	-1.096184E-3	-6.446790E-3	-5.805519E-3	-1.137517E-2	-8.876287E-4	-7.182950E-3	-4.489459E-3	-8.751350E-3	-8.701493E-3	-1.106959E-2	-4.064832E-3	-2.196586E-3	-7.822597E-3	-8.056422E-3	-1.296187E-3	-2.707733E-3	-8.058632E-3	-1.075976E-3	-1.231500E-2	-2.173941E-2	-4.773570E-3	-6.881120E-3	-5.476928E-3	-1.208183E-2	-2.678754E-3	-6.369042E-3	-9.819257E-3	-5.483371E-3	-1.005624E-2	1.444533E-4	-7.981565E-3	-3.521289E-3	7.157987E-3	-2.414433E-3	3.041222E-4	-1.379222E-3	-4.266293E-3	-8.539440E-4	-8.395603E-3	-8.073347E-3	-7.229143E-3	-5.735112E-3	-3.423919E-3	-4.049894E-3	-5.013845E-3	-1.654224E-2	-2.572871E-3	-5.248952E-3	-4.337101E-3	7.280495E-4	-3.579190E-3	-8.085620E-3	-9.871062E-3	-7.027369E-3	-9.079424E-3	-1.201214E-2	-4.026304E-3	-1.566178E-2	-3.791927E-3	-1.657103E-3	-8.982507E-4	-8.026222E-3	8.732504E-4	-6.812246E-3	-1.202174E-2	-7.515165E-3	-5.667347E-3	2.288272E-3	-4.261634E-4	-1.191296E-2	-3.315104E-3	-3.633267E-3	-9.418658E-4	-6.613321E-3	3.251862E-3	-8.238217E-3	-1.743667E-6	-1.046286E-2	4.024633E-3	-4.986980E-3	-7.307013E-3	-2.596555E-3	-5.032090E-3	-9.145432E-3	-1.037938E-2	-6.505286E-3	-9.675528E-3	-7.720859E-3	-7.175714E-3	-7.791356E-3	7.492330E-4	-3.826262E-3	-1.104801E-2	-4.727793E-3	-1.102105E-2	-1.478801E-2	-8.726167E-3	-4.972932E-3
5.305230E+2	-4.229316E-3	-7.870147E-4	2.456019E-3	-7.258263E-3	-6.740826E-3	-1.189385E-2	-2.010654E-3	-7.898419E-3	-1.025540E-2	-7.395498E-3	-1.062959E-3	1.824406E-3	-1.286393E-2	-8.925022E-3	-1.375877E-3	-5.910855E-3	-6.651093E-3	-4.461426E-3	-2.648419E-3	-7.043010E-3	-1.583208E-3	-5.967473E-3	-5.243766E-4	-5.187373E-3	-5.950934E-5	-2.319743E-3	-3.682516E-3	-3.862867E-4	-8.943685E-3	-9.129185E-3	-1.281605E-2	-2.931568E-3	-4.823179E-3	-1.440437E-2	-3.480050E-3	-9.809790E-3	-6.481069E-3	-2.350931E-3	-1.725028E-3	6.491428E-4	-1.248645E-2	2.710208E-3	-8.764138E-3	-6.511425E-3	-6.173331E-3	-3.641505E-3	-2.623686E-3	-6.185101E-3	-2.752061E-3	3.879818E-3	-1.096363E-2	-3.523399E-3	-1.174328E-2	-6.396222E-3	-3.971460E-3	-5.205813E-3	-3.224276E-4	-7.402556E-3	-4.121443E-4	-3.124830E-3	-5.906015E-3	-2.414454E-3	1.664442E-3	1.100453E-2	-7.370388E-3	-7.418547E-3	-8.611254E-3	-5.370815E-3	2.155247E-4	1.416767E-3	2.907713E-3	-1.109114E-2	-1.704018E-3	-9.241895E-3	-8.165071E-3	8.664317E-4	-8.358973E-3	-5.129602E-3	-7.318221E-3	3.155092E-4	-9.930768E-3	-6.024066E-3	-3.307803E-3	2.322530E-3	-2.339263E-3	-1.288114E-2	-6.667650E-3	-1.338357E-2	-5.289119E-3	-1.788268E-3	-2.343174E-3	-8.680458E-3	-3.146024E-3	-5.426128E-3	7.967697E-3	-1.478583E-3	-1.882037E-3	-1.559340E-3	-7.914204E-4	4.326604E-4	1.411268E-4	5.517432E-3	-1.688416E-2	-6.557881E-3	-2.189475E-3	-6.445425E-3	-2.500016E-3	-1.303253E-2	-2.562016E-3	-1.075379E-2	-6.605645E-3	-3.788623E-3	-5.099691E-3	-7.827576E-3	-1.023006E-2	-6.385172E-3	1.198688E-3	-4.111270E-3	-9.725715E-3	-4.810090E-3	-8.238321E-3	-1.922876E-3	5.893054E-4	-3.692529E-3	-1.265297E-2	-2.938272E-4	-8.084185E-3	-1.056517E-2	-4.368821E-3	-3.481622E-3	5.142712E-3	-7.091676E-3	1.271277E-3	-1.658199E-3	-9.269737E-4	-1.398157E-3	-9.610951E-3	-1.140254E-2	-1.438005E-3	-9.209972E-3	-9.060222E-3	-5.633510E-3	3.452574E-3	-5.323730E-3	-3.819373E-3	5.678377E-4	-7.270169E-3	1.523604E-4	2.938711E-3	-6.399249E-3	-7.261222E-3	-1.061196E-2	-2.746673E-3	-2.166741E-3	-7.588858E-4	1.434064E-3	-2.771365E-3	-1.040584E-2	9.831317E-4	-2.061877E-3	-7.491832E-3	-2.156328E-3	-4.928665E-3	-6.311942E-3	-5.668090E-3	3.102849E-3	-2.717910E-3	9.140883E-4	-6.419927E-3	-6.934501E-3	-1.119338E-3
5.310050E+2	-8.877455E-3	-1.111734E-2	-5.401120E-3	-1.298111E-4	-6.454571E-4	1.294993E-3	-3.598874E-3	-1.437858E-3	-5.919205E-3	4.479946E-3	-6.774853E-3	-1.104636E-2	1.320299E-3	1.040650E-3	-5.047650E-3	7.510985E-3	3.818073E-3	-3.743459E-3	8.893085E-4	-7.993374E-3	-4.545380E-3	-3.097238E-3	-7.242166E-3	-8.239584E-3	3.879011E-3	-4.665740E-3	8.518120E-4	-6.698318E-3	-7.855798E-3	-7.395986E-3	4.306951E-3	-2.786450E-3	-1.095102E-2	7.830528E-3	-1.089825E-3	-4.290595E-3	-2.930962E-3	-1.097032E-3	-5.788180E-3	-8.559761E-3	-5.819014E-4	-2.556542E-3	6.566629E-3	-1.258639E-3	-1.269727E-4	-8.135513E-4	-3.482710E-3	3.009627E-3	3.814930E-3	-6.052884E-3	-4.877582E-3	-2.318756E-3	-4.443705E-3	9.962702E-4	-5.421639E-3	-7.483959E-3	-8.407559E-3	2.397987E-3	2.005698E-3	1.824167E-3	-9.960297E-3	-3.700280E-3	1.806795E-3	-1.439150E-2	-3.101653E-3	2.993871E-3	-9.108850E-3	-2.241757E-3	8.098453E-4	1.550466E-3	-1.281469E-2	-3.654001E-3	-6.794283E-3	-1.084871E-3	-3.587014E-3	-8.692239E-3	3.140506E-3	-3.006823E-3	2.200242E-3	-7.282998E-3	-2.914826E-3	-3.710920E-3	-7.652986E-3	-4.603694E-3	-8.533049E-3	3.135884E-3	-3.476195E-3	1.238040E-3	-7.664200E-3	2.054163E-3	-3.975131E-3	-1.855979E-3	-4.481502E-3	-1.266369E-2	-9.332736E-3	9.591449E-4	2.769087E-3	-8.750450E-4	-2.569378E-3	-9.825871E-3	3.655600E-3	-3.185053E-3	-3.193650E-3	3.848693E-3	-3.546663E-3	-7.491687E-3	-4.065269E-3	-1.438783E-3	-2.968353E-3	2.051052E-3	-6.477197E-3	-2.210889E-3	-2.589088E-3	-5.424242E-3	-4.879527E-3	2.822292E-4	-7.296239E-3	1.786000E-3	5.629565E-3	3.197901E-3	-2.313010E-3	1.973443E-3	2.930672E-3	-1.382915E-2	1.830010E-3	-3.715298E-3	3.658914E-3	6.187286E-4	6.972024E-3	6.761744E-4	-3.337666E-3	-3.774064E-3	-1.743062E-3	-9.672524E-4	-5.771680E-3	-4.928345E-3	-8.950359E-3	1.187450E-2	-6.014590E-3	-2.809285E-3	-2.479592E-4	-3.404874E-3	-1.913692E-3	-6.524401E-3	-3.158499E-3	-7.185237E-3	-4.413193E-3	-7.997244E-3	-5.964352E-3	-6.064226E-4	-4.383831E-3	3.906825E-3	2.587832E-3	-7.204508E-3	6.361634E-3	2.777472E-3	-4.787741E-3	-4.752857E-3	-2.423073E-3	-1.908511E-3	-9.124773E-3	-9.013947E-3	-3.030890E-3	-8.515318E-3	-4.558004E-3	-9.476275E-3	-4.268634E-4	3.558300E-3	-1.341651E-3	7.994686E-3	3.603698E-3
5.315130E+2	-1.646472E-4	1.929832E-3	-1.396022E-2	-5.114185E-3	-1.503525E-3	6.205940E-3	-5.746291E-3	1.629680E-3	-7.923982E-3	-4.539022E-4	2.665605E-3	9.706242E-3	-2.446167E-3	-1.785083E-3	-7.307128E-3	-8.235074E-3	-3.543744E-3	-4.238053E-3	3.308010E-3	-9.472871E-3	4.389440E-4	1.974648E-3	-2.705817E-3	1.878365E-3	-6.939624E-3	-1.450627E-3	-5.122316E-3	3.064379E-3	4.596769E-3	-1.881660E-3	-3.344442E-3	-5.127738E-3	1.039819E-3	-2.636834E-4	-6.092573E-3	1.807702E-4	-1.321143E-3	-9.851435E-3	-4.102022E-3	-4.227081E-3	1.691096E-3	-4.641553E-3	-3.309900E-4	5.853103E-4	-2.712822E-3	-7.109372E-3	-9.020780E-4	5.803977E-4	-3.051304E-3	-2.973045E-3	-4.152049E-3	1.114994E-3	-4.760681E-3	1.675665E-3	-2.682558E-3	3.184418E-3	-4.794842E-3	-7.686656E-3	-2.509954E-3	-2.312006E-3	-2.012170E-3	-8.360886E-3	-7.316429E-3	-8.377428E-3	4.190403E-3	-3.746428E-3	1.163036E-3	2.737681E-3	-1.850606E-3	-2.007764E-3	2.196378E-3	4.309780E-3	8.667436E-4	-2.069960E-3	4.950379E-3	-5.807217E-4	3.807695E-3	-3.338901E-3	-5.673233E-3	-1.685726E-3	-2.222787E-3	8.332205E-4	6.990002E-3	-5.675496E-3	3.683427E-3	4.401382E-3	3.330130E-3	-6.957815E-3	-4.463170E-3	-4.162958E-3	7.733429E-4	2.549906E-3	-6.807031E-3	8.099421E-3	-3.739123E-3	-2.529189E-3	4.896564E-4	3.205455E-4	5.513029E-3	-6.261258E-3	-1.531262E-3	-4.205639E-3	7.295279E-5	-1.788502E-3	-3.979028E-3	-2.735067E-3	2.666170E-3	-7.663040E-4	-7.743692E-4	-4.165481E-3	-5.216433E-3	-2.043136E-3	6.532836E-3	1.014641E-2	-1.471978E-3	7.638909E-3	3.387245E-3	-4.874249E-3	3.757537E-3	-4.542253E-3	7.531789E-3	-4.789891E-3	-3.561757E-3	-9.615505E-4	5.483465E-3	-4.071280E-3	-4.432018E-3	-2.448863E-3	4.724796E-5	-3.453121E-4	4.468591E-3	-2.561528E-3	-1.574189E-3	-5.729063E-3	-2.851122E-3	3.611053E-3	4.433023E-3	-9.954812E-3	1.530680E-4	4.785434E-3	-5.403810E-3	7.424758E-3	-6.191721E-3	2.185374E-3	3.736116E-3	-7.051705E-3	-4.817408E-3	-7.285762E-3	-5.362914E-3	-5.579906E-3	5.683161E-3	-1.901319E-3	-5.391584E-3	9.092702E-3	-2.407091E-3	-7.875527E-3	-6.809499E-3	4.991352E-3	-5.329561E-3	-3.580734E-3	-8.146165E-4	1.532500E-2	1.851955E-3	1.464456E-3	3.385399E-3	-2.196899E-3	-6.771586E-3	-5.701436E-3	2.940658E-3	-2.958276E-3	3.761299E-3
5.320070E+2	3.305860E-3	9.421454E-3	5.759166E-3	5.929498E-3	6.169275E-3	1.187146E-2	6.258542E-3	-1.652029E-3	1.144638E-2	5.653415E-5	5.935600E-3	2.783240E-3	1.039546E-2	-4.497444E-3	5.720430E-3	7.401510E-3	-2.845574E-3	1.236305E-2	1.053735E-4	7.125388E-3	-7.407100E-4	5.321130E-4	7.452520E-3	6.597878E-3	-7.593076E-4	1.001473E-2	-3.828967E-3	3.719768E-3	5.239817E-3	4.785637E-3	3.157972E-3	7.937387E-3	4.947368E-3	-1.241544E-3	4.900821E-3	6.312835E-3	6.727882E-3	-1.794010E-4	-3.417534E-3	2.011583E-3	-2.501877E-3	1.074908E-2	-7.583174E-4	-1.019881E-3	-4.227309E-3	5.183787E-3	6.621286E-3	3.078404E-4	-5.083622E-3	1.167297E-4	9.232088E-3	1.797565E-3	1.029624E-2	1.015719E-2	2.696600E-3	2.847707E-3	4.714315E-3	9.540563E-3	4.567647E-3	-1.592555E-3	1.069431E-2	-1.960887E-3	1.093461E-2	4.594024E-3	6.728432E-3	4.433248E-3	-1.091249E-3	1.055172E-3	3.887405E-3	4.522153E-3	8.396785E-4	4.465462E-3	3.336558E-3	2.686318E-3	1.719708E-3	2.437690E-3	5.531052E-3	5.833485E-3	5.813479E-3	-3.825686E-3	4.280875E-3	5.402258E-3	1.543196E-3	9.194818E-4	2.770231E-3	5.123970E-3	1.173411E-2	4.116070E-3	1.890088E-3	1.349874E-3	-2.529054E-4	1.129963E-2	1.848386E-2	5.820098E-3	2.401974E-3	-6.135815E-4	1.818799E-3	2.917827E-3	-6.761646E-3	1.351220E-2	1.534117E-3	-2.466857E-3	1.340601E-3	3.034790E-3	9.489714E-3	1.483960E-3	-4.398582E-3	6.006102E-3	-2.713787E-3	9.717123E-3	6.124123E-3	5.264363E-3	2.451464E-3	-3.994780E-3	9.780191E-3	-6.788610E-6	3.535781E-3	7.355968E-3	1.391137E-2	1.387191E-3	6.742039E-3	-1.524778E-3	5.432801E-3	1.490562E-2	1.490637E-4	5.296266E-3	6.893307E-3	1.344456E-2	7.880542E-3	5.565429E-3	-4.975613E-4	7.199441E-3	2.234882E-3	-6.698777E-3	2.292271E-3	-1.515341E-3	4.568117E-3	1.098051E-2	7.001746E-3	-8.034283E-4	5.958498E-5	-5.726571E-4	2.352569E-3	2.340820E-3	2.436685E-4	1.557565E-3	6.508150E-3	2.899076E-3	-2.045258E-3	6.506420E-3	1.422561E-2	1.717321E-3	-3.541505E-3	-3.741842E-3	-1.001794E-3	1.865357E-3	1.005480E-2	6.646460E-3	9.314767E-4	8.071154E-3	1.337832E-2	-9.420605E-3	8.619502E-3	-3.655677E-3	3.541142E-3	4.973505E-4	-3.373692E-3	4.477843E-3	6.397062E-3	-1.588247E-3	3.907776E-3
5.325170E+2	1.254443E-2	5.574005E-3	1.865409E-2	7.978693E-3	5.297664E-3	8.056281E-3	8.685608E-3	1.966804E-2	1.158751E-2	7.953686E-3	6.640262E-3	9.452466E-3	1.102148E-2	1.853556E-2	1.446544E-2	3.223206E-3	1.406846E-2	3.289533E-3	2.028958E-3	1.259644E-2	9.167535E-3	6.908236E-3	5.779296E-3	9.498697E-3	7.645678E-3	-4.980727E-4	1.030631E-2	5.990517E-3	1.034089E-2	2.051521E-2	1.604529E-2	1.311362E-2	8.212948E-3	1.043440E-2	1.606207E-2	1.356776E-2	8.381158E-3	1.123123E-2	2.295364E-2	1.631780E-2	2.203540E-2	1.934514E-3	1.612445E-2	1.640488E-2	1.060574E-2	1.582367E-2	1.862649E-3	1.307881E-2	8.047472E-3	7.578456E-3	1.119401E-3	3.610664E-3	1.730461E-2	5.090327E-3	1.216101E-2	1.074380E-2	1.258087E-2	-9.711075E-4	-9.921925E-4	6.457524E-3	1.559772E-2	1.911655E-2	4.254730E-3	7.217962E-3	-3.325249E-4	1.050406E-2	2.078977E-2	9.745822E-3	1.061021E-2	4.647055E-3	1.145617E-2	1.300890E-2	1.050915E-2	1.080659E-2	1.152879E-2	1.177436E-2	7.254895E-3	6.529470E-3	1.216068E-2	1.696836E-2	1.953885E-2	1.220100E-2	1.349718E-2	1.110201E-2	6.615240E-3	8.042504E-3	3.136031E-3	1.628347E-2	1.823413E-2	1.060582E-2	6.873843E-3	9.001906E-3	1.769011E-2	8.943873E-3	9.583307E-3	9.139136E-3	8.886324E-3	1.874767E-3	1.097846E-2	1.196153E-2	1.683789E-3	1.439636E-2	1.851980E-2	9.444464E-3	3.746741E-3	8.030232E-3	1.071213E-2	8.927389E-3	1.039775E-2	7.417390E-3	1.302910E-2	1.117389E-2	6.777826E-3	1.432933E-2	1.253649E-2	1.894741E-3	3.224419E-3	4.857397E-3	2.969479E-3	7.340122E-3	1.526455E-3	1.060120E-2	-6.119070E-3	7.156801E-3	1.327605E-2	1.265520E-2	8.991351E-3	8.030169E-3	1.481150E-3	1.611635E-3	9.885704E-3	1.001975E-2	1.468194E-3	1.595154E-2	1.528373E-2	3.357540E-3	1.637242E-2	1.052409E-2	7.812946E-3	1.370460E-2	1.236413E-2	2.612446E-3	1.421323E-2	1.063704E-2	6.631355E-3	1.305340E-2	1.660594E-2	8.979707E-3	1.867203E-2	6.080902E-3	2.199138E-3	2.864501E-3	1.407891E-2	1.132740E-2	4.026923E-4	6.830724E-3	1.345923E-2	1.390027E-2	1.234331E-2	9.155495E-3	1.177376E-2	1.244160E-2	5.279452E-3	1.626925E-2	7.125816E-3	1.912098E-2	1.801784E-2	7.772249E-3	1.321187E-2	1.221250E-2	-5.180502E-3
5.330280E+2	1.847113E-2	1.765836E-2	2.015267E-2	2.228246E-2	1.601469E-2	3.307643E-2	1.805380E-2	2.428564E-2	2.298629E-2	2.475306E-2	1.384539E-2	2.655553E-2	1.755476E-2	2.018041E-2	2.854457E-2	2.417578E-2	3.629431E-2	2.872293E-2	2.522960E-2	2.770865E-2	2.492225E-2	1.996381E-2	1.934559E-2	2.157202E-2	2.435196E-2	2.871076E-2	1.884980E-2	3.530805E-2	2.541462E-2	2.764522E-2	2.014722E-2	1.916555E-2	3.291029E-2	1.535379E-2	2.657661E-2	2.741994E-2	1.648176E-2	2.110836E-2	3.110760E-2	3.634385E-2	2.655007E-2	2.293365E-2	2.161861E-2	1.713459E-2	1.894022E-2	2.073807E-2	3.167990E-2	2.155683E-2	2.503442E-2	2.817814E-2	2.742705E-2	3.102866E-2	2.022987E-2	1.535492E-2	2.306409E-2	1.672133E-2	3.405045E-2	2.687082E-2	2.024073E-2	3.473381E-2	1.524569E-2	3.341300E-2	2.114831E-2	2.177052E-2	2.146191E-2	2.780604E-2	2.484261E-2	2.461204E-2	2.819828E-2	1.601265E-2	1.247130E-2	2.508587E-2	2.480311E-2	2.988874E-2	2.664324E-2	1.598398E-2	1.267287E-2	2.634097E-2	2.474460E-2	3.189210E-2	3.662039E-2	1.545480E-2	2.740536E-2	1.424672E-2	3.123449E-2	3.005754E-2	2.864508E-2	1.809473E-2	1.913254E-2	3.482886E-2	4.062695E-2	7.933087E-3	3.130285E-2	2.454469E-2	2.638184E-2	2.861034E-2	1.305871E-2	2.321862E-2	1.686944E-2	9.241658E-3	1.652369E-2	2.652400E-2	3.091387E-2	2.935525E-2	3.702422E-2	1.886581E-2	3.208171E-2	3.240429E-2	1.890125E-2	1.622701E-2	2.451583E-2	1.329150E-2	2.743424E-2	2.472066E-2	1.532383E-2	2.116251E-2	2.414564E-2	1.982043E-2	1.795098E-2	2.183224E-2	2.230219E-2	1.834422E-2	2.803106E-2	1.279687E-2	2.798347E-2	2.058355E-2	1.748835E-2	2.452128E-2	3.021689E-2	2.738674E-2	3.012127E-2	3.331211E-2	2.049630E-2	1.503117E-2	2.947555E-2	3.260773E-2	3.936864E-2	2.176384E-2	2.810438E-2	2.648355E-2	3.115789E-2	1.863982E-2	2.010442E-2	2.720659E-2	2.139956E-2	2.120407E-2	2.731120E-2	3.539101E-2	2.530194E-2	3.315432E-2	2.405743E-2	1.908435E-2	1.893762E-2	2.779646E-2	2.237522E-2	2.091284E-2	2.341598E-2	2.834580E-2	1.815172E-2	2.552678E-2	2.900761E-2	2.606770E-2	2.277154E-2	2.695339E-2	2.253146E-2	2.705681E-2	1.711870E-2	2.123102E-2	3.263530E-2	1.240167E-2	8.854757E-3
5.331630E+2	3.165774E-2	2.750676E-2	3.245973E-2	2.953995E-2	3.637132E-2	4.077057E-2	3.150982E-2	3.635587E-2	3.389772E-2	3.536104E-2	4.116511E-2	2.783476E-2	3.789023E-2	2.623637E-2	3.595374E-2	3.263561E-2	3.882285E-2	3.848774E-2	2.366320E-2	3.378414E-2	4.388884E-2	1.630944E-2	1.951907E-2	2.727521E-2	3.172119E-2	4.055313E-2	3.022916E-2	3.278595E-2	3.706831E-2	2.729284E-2	3.165889E-2	3.029559E-2	2.930850E-2	4.065097E-2	2.501867E-2	2.979845E-2	1.913985E-2	4.321346E-2	2.756742E-2	2.614590E-2	3.326359E-2	3.126542E-2	2.655194E-2	3.351196E-2	3.552544E-2	1.985332E-2	2.295759E-2	3.621663E-2	3.447848E-2	5.169316E-2	2.700428E-2	3.288830E-2	2.818539E-2	2.848100E-2	2.164391E-2	2.756955E-2	4.491620E-2	2.811917E-2	3.154815E-2	2.264712E-2	3.019537E-2	2.405435E-2	2.528940E-2	2.146134E-2	2.887293E-2	2.695938E-2	2.744987E-2	2.049558E-2	4.726397E-2	3.219511E-2	2.047673E-2	4.412117E-2	1.676742E-2	4.120386E-2	3.080879E-2	5.137560E-2	2.438579E-2	3.050785E-2	2.160517E-2	1.919517E-2	2.631394E-2	3.001105E-2	3.104150E-2	2.688414E-2	2.878195E-2	3.590540E-2	1.849716E-2	3.669832E-2	3.438904E-2	2.813419E-2	4.206270E-2	1.612777E-2	2.955572E-2	4.026828E-2	2.912211E-2	4.076039E-2	3.682206E-2	2.688226E-2	3.066473E-2	3.393825E-2	4.178951E-2	3.658047E-2	3.287248E-2	3.601245E-2	3.091885E-2	2.466144E-2	3.986216E-2	2.984264E-2	2.800541E-2	3.473609E-2	2.364647E-2	3.616342E-2	3.913149E-2	3.858280E-2	3.329548E-2	2.253341E-2	3.362915E-2	2.942947E-2	2.997462E-2	3.055120E-2	3.337696E-2	2.533414E-2	3.439304E-2	3.189015E-2	2.719580E-2	3.206721E-2	2.798702E-2	2.379805E-2	2.863526E-2	4.387904E-2	3.250830E-2	3.948764E-2	2.257195E-2	3.350315E-2	2.489914E-2	3.975097E-2	3.684641E-2	2.674219E-2	3.501215E-2	2.872291E-2	3.094088E-2	2.296449E-2	3.070404E-2	2.381562E-2	2.892012E-2	2.309599E-2	3.034892E-2	3.021761E-2	2.829006E-2	3.237765E-2	2.548572E-2	3.035958E-2	4.961546E-2	3.286800E-2	2.518195E-2	2.170279E-2	3.722630E-2	3.785746E-2	3.325690E-2	2.853242E-2	3.393703E-2	1.595359E-2	2.955974E-2	3.300652E-2	1.584415E-2	4.172913E-2	2.989295E-2	4.616348E-2	1.439466E-2	2.131392E-2	4.154232E-2
5.333080E+2	3.376455E-2	2.994113E-2	3.878015E-2	4.158305E-2	3.303924E-2	3.102137E-2	4.662666E-2	4.402018E-2	2.868878E-2	3.135165E-2	3.898287E-2	3.842868E-2	4.499017E-2	3.819368E-2	4.048876E-2	4.372714E-2	4.134003E-2	3.076398E-2	3.829758E-2	3.181225E-2	3.290040E-2	3.520857E-2	3.616737E-2	3.436999E-2	3.966876E-2	4.073488E-2	5.063517E-2	4.979056E-2	3.076858E-2	4.090952E-2	3.531365E-2	3.261435E-2	4.720184E-2	3.844483E-2	3.327937E-2	4.043831E-2	3.778813E-2	3.172873E-2	3.789464E-2	4.723924E-2	3.181616E-2	4.320768E-2	2.374900E-2	3.659532E-2	3.681401E-2	3.380593E-2	4.203116E-2	4.348652E-2	5.106580E-2	4.431648E-2	3.451123E-2	4.594784E-2	5.127161E-2	3.854595E-2	5.230462E-2	3.312287E-2	3.443804E-2	3.840572E-2	3.172568E-2	5.293240E-2	4.415737E-2	3.674698E-2	3.935687E-2	4.761163E-2	2.846331E-2	3.240501E-2	1.973944E-2	5.572643E-2	3.050537E-2	3.107223E-2	3.377371E-2	4.338924E-2	3.226044E-2	3.505313E-2	3.728934E-2	3.138126E-2	2.932061E-2	2.233804E-2	2.898158E-2	2.958413E-2	5.169536E-2	2.606409E-2	3.750967E-2	4.793658E-2	4.394899E-2	4.378349E-2	2.918491E-2	4.273801E-2	4.845267E-2	3.848760E-2	4.053206E-2	1.945564E-2	4.026823E-2	5.135245E-2	3.491418E-2	4.192357E-2	4.059045E-2	2.717634E-2	2.768173E-2	2.265426E-2	3.576680E-2	4.906174E-2	3.861600E-2	3.264536E-2	3.462669E-2	2.167787E-2	4.253785E-2	3.414806E-2	4.611916E-2	3.638235E-2	3.912044E-2	3.587336E-2	4.414744E-2	4.065702E-2	2.469834E-2	4.008916E-2	4.032052E-2	4.207930E-2	3.716235E-2	4.834463E-2	3.165861E-2	3.576375E-2	4.746872E-2	4.552565E-2	3.694012E-2	2.910070E-2	4.293014E-2	4.599653E-2	3.238932E-2	3.952149E-2	3.644186E-2	4.457075E-2	2.971917E-2	2.568721E-2	4.412580E-2	4.638158E-2	3.318552E-2	3.425620E-2	2.885613E-2	3.767539E-2	3.066423E-2	4.479157E-2	3.971861E-2	3.320368E-2	4.221381E-2	3.274039E-2	3.640222E-2	4.365095E-2	3.776397E-2	3.707228E-2	2.287791E-2	3.870009E-2	3.820201E-2	3.379071E-2	3.473643E-2	3.828479E-2	4.020809E-2	3.794023E-2	3.765629E-2	3.106905E-2	5.190430E-2	4.340061E-2	4.418971E-2	5.140478E-2	3.035376E-2	3.559896E-2	3.402676E-2	3.623181E-2	4.819297E-2	4.355700E-2	3.944518E-2
5.334580E+2	3.543612E-2	5.304313E-2	5.410261E-2	5.007191E-2	5.114828E-2	5.546524E-2	4.149069E-2	4.485130E-2	4.556297E-2	7.245416E-2	4.110987E-2	5.514546E-2	6.945562E-2	4.530178E-2	5.144246E-2	5.840997E-2	4.742864E-2	5.138368E-2	6.061086E-2	6.377787E-2	5.333988E-2	5.421659E-2	4.741393E-2	5.399165E-2	5.266607E-2	6.143258E-2	4.583323E-2	5.275788E-2	5.402539E-2	5.302296E-2	5.041381E-2	4.767885E-2	5.886856E-2	5.068057E-2	5.377735E-2	5.390428E-2	5.954610E-2	5.005486E-2	5.845160E-2	5.941648E-2	5.333725E-2	5.882112E-2	4.007319E-2	6.242285E-2	6.454896E-2	5.794606E-2	5.025891E-2	5.831557E-2	4.857734E-2	5.710372E-2	5.551255E-2	6.693229E-2	5.292709E-2	5.763389E-2	6.007086E-2	5.723561E-2	5.371631E-2	5.302166E-2	4.194618E-2	5.133412E-2	6.191142E-2	5.579208E-2	3.911215E-2	6.539354E-2	5.957858E-2	6.047209E-2	6.134177E-2	5.165797E-2	6.105657E-2	5.474779E-2	4.029720E-2	5.561718E-2	5.196970E-2	6.135228E-2	5.239910E-2	6.350913E-2	5.749214E-2	5.329359E-2	4.359225E-2	5.952036E-2	6.600790E-2	5.138449E-2	6.506193E-2	4.756680E-2	4.794318E-2	5.885310E-2	5.779643E-2	4.245733E-2	6.004492E-2	4.686853E-2	5.316151E-2	6.372142E-2	4.752130E-2	4.470474E-2	5.652907E-2	5.602159E-2	5.066938E-2	6.240700E-2	5.401517E-2	6.338034E-2	4.828399E-2	5.435323E-2	4.618084E-2	5.707417E-2	6.932510E-2	5.554054E-2	6.421719E-2	5.056189E-2	5.680234E-2	5.313342E-2	5.472722E-2	6.331267E-2	4.621387E-2	5.740566E-2	6.591948E-2	5.965191E-2	5.643403E-2	4.587327E-2	7.172609E-2	5.504669E-2	5.911714E-2	5.986127E-2	5.727905E-2	5.377554E-2	5.839999E-2	5.322659E-2	4.962039E-2	5.474789E-2	5.062574E-2	5.618255E-2	5.748734E-2	5.460605E-2	4.854614E-2	4.899968E-2	5.064506E-2	6.052212E-2	6.317678E-2	5.646371E-2	5.503329E-2	4.143745E-2	5.259930E-2	5.776514E-2	5.763303E-2	5.488806E-2	4.611321E-2	4.555016E-2	4.504860E-2	6.561121E-2	5.329952E-2	6.659009E-2	5.473341E-2	4.807377E-2	5.612554E-2	5.740382E-2	5.574431E-2	5.131756E-2	6.511162E-2	6.263415E-2	5.342737E-2	6.165570E-2	3.971733E-2	4.669753E-2	4.504730E-2	5.931563E-2	5.437801E-2	4.824003E-2	6.461880E-2	4.795180E-2	5.436818E-2	3.362286E-2	7.004365E-2
5.336130E+2	7.160705E-2	6.650759E-2	6.470646E-2	8.258456E-2	7.536085E-2	6.832764E-2	6.988694E-2	7.209117E-2	7.119301E-2	8.534865E-2	6.757898E-2	6.587928E-2	5.686981E-2	6.332108E-2	6.434025E-2	6.484002E-2	7.406120E-2	6.639886E-2	5.973516E-2	8.349824E-2	6.038010E-2	7.670457E-2	7.532534E-2	6.167699E-2	6.850950E-2	7.517507E-2	6.480782E-2	8.519066E-2	7.789477E-2	5.327464E-2	6.163217E-2	7.128737E-2	6.675531E-2	7.927008E-2	7.611903E-2	7.077086E-2	6.234103E-2	7.239604E-2	8.190940E-2	6.878266E-2	5.960269E-2	6.883864E-2	4.704597E-2	5.917911E-2	7.032931E-2	7.845646E-2	6.908359E-2	8.247829E-2	6.637860E-2	6.829683E-2	7.296018E-2	7.789262E-2	7.574965E-2	6.602805E-2	6.680362E-2	7.903252E-2	5.933057E-2	6.608853E-2	7.713812E-2	7.379365E-2	8.346023E-2	6.428121E-2	7.720260E-2	7.220345E-2	8.656474E-2	7.497434E-2	5.183840E-2	8.895585E-2	6.990088E-2	6.333496E-2	7.320370E-2	6.438513E-2	7.588324E-2	8.455877E-2	5.841064E-2	6.262170E-2	7.203883E-2	5.953216E-2	7.271454E-2	8.726824E-2	6.508403E-2	5.111105E-2	7.789606E-2	8.190524E-2	7.662361E-2	6.585919E-2	6.386170E-2	6.176896E-2	5.270664E-2	6.952385E-2	6.701916E-2	6.023038E-2	6.682126E-2	5.827718E-2	7.606422E-2	7.676771E-2	6.818412E-2	6.805545E-2	6.251443E-2	6.881841E-2	6.779975E-2	6.913913E-2	6.433550E-2	7.673829E-2	6.962099E-2	7.295308E-2	7.339753E-2	8.443488E-2	7.438350E-2	6.512520E-2	7.898778E-2	6.755923E-2	5.926369E-2	7.833431E-2	7.232237E-2	5.690151E-2	6.750488E-2	6.128795E-2	6.347383E-2	6.017089E-2	7.180320E-2	6.833926E-2	7.334332E-2	6.083134E-2	6.429411E-2	5.821757E-2	8.110849E-2	7.910702E-2	7.015549E-2	7.787217E-2	8.230208E-2	7.774709E-2	6.934316E-2	6.489775E-2	7.202074E-2	7.741095E-2	7.361370E-2	9.154426E-2	8.407042E-2	6.696555E-2	8.353315E-2	7.396471E-2	7.786991E-2	7.875017E-2	5.588472E-2	6.527395E-2	7.342238E-2	8.402080E-2	7.682054E-2	7.800246E-2	7.258527E-2	6.460724E-2	7.827315E-2	7.821148E-2	6.642807E-2	8.457816E-2	7.586311E-2	7.145477E-2	9.210595E-2	7.463071E-2	6.434871E-2	6.948087E-2	7.430289E-2	6.785775E-2	7.058460E-2	7.761971E-2	6.216868E-2	7.123986E-2	6.224747E-2	7.009667E-2	6.099400E-2
5.337580E+2	1.138072E-1	1.088019E-1	1.028691E-1	9.678320E-2	1.002139E-1	9.288447E-2	8.178987E-2	1.256197E-1	1.089188E-1	9.995000E-2	9.429275E-2	1.010532E-1	1.003947E-1	1.066845E-1	9.518541E-2	9.460519E-2	1.172908E-1	1.065463E-1	1.038084E-1	1.265944E-1	1.113033E-1	9.643367E-2	1.008637E-1	9.961810E-2	1.073746E-1	1.108050E-1	1.104603E-1	9.318209E-2	1.140042E-1	1.082372E-1	1.082532E-1	1.013907E-1	1.142108E-1	1.188967E-1	9.917954E-2	1.177213E-1	1.120089E-1	1.081887E-1	9.035938E-2	9.832147E-2	9.451315E-2	1.010880E-1	1.050017E-1	1.149842E-1	1.004858E-1	9.855428E-2	1.055187E-1	1.138847E-1	1.057580E-1	1.201296E-1	8.498462E-2	1.098102E-1	1.148841E-1	1.119355E-1	1.086314E-1	1.215528E-1	1.080831E-1	1.199344E-1	1.036178E-1	1.050285E-1	1.051365E-1	9.898663E-2	1.025406E-1	1.203279E-1	1.210360E-1	9.856759E-2	1.072428E-1	9.861254E-2	1.045529E-1	1.061441E-1	8.946678E-2	1.092621E-1	1.111750E-1	1.249831E-1	9.049016E-2	1.241076E-1	8.665743E-2	9.970820E-2	1.030232E-1	9.605339E-2	1.030905E-1	1.086917E-1	1.080032E-1	1.020227E-1	1.027606E-1	9.926010E-2	9.906491E-2	9.926084E-2	1.086753E-1	9.942617E-2	1.025120E-1	1.141571E-1	1.168773E-1	1.318501E-1	9.173348E-2	1.107347E-1	1.036110E-1	1.059623E-1	1.361145E-1	9.365740E-2	1.107557E-1	1.153225E-1	1.110250E-1	1.090195E-1	1.039167E-1	1.022326E-1	1.036993E-1	1.053990E-1	1.058333E-1	1.147579E-1	1.068626E-1	9.675963E-2	1.096606E-1	1.053449E-1	1.081956E-1	1.197772E-1	9.133071E-2	9.453911E-2	1.274698E-1	1.111244E-1	1.094349E-1	1.293495E-1	1.014088E-1	1.167225E-1	9.158262E-2	1.071516E-1	1.162913E-1	1.102629E-1	1.061050E-1	1.134720E-1	8.847541E-2	1.108677E-1	1.174050E-1	1.060282E-1	1.192905E-1	1.062445E-1	1.084320E-1	9.021958E-2	1.018903E-1	9.737947E-2	9.683893E-2	9.403624E-2	1.149088E-1	1.166783E-1	1.165062E-1	9.883731E-2	1.177486E-1	1.207441E-1	1.261297E-1	1.121929E-1	1.093149E-1	1.057189E-1	1.207509E-1	1.132574E-1	1.235711E-1	1.014994E-1	1.120307E-1	1.124616E-1	1.159351E-1	8.300416E-2	1.058187E-1	1.137069E-1	1.013102E-1	1.013273E-1	1.053502E-1	1.046663E-1	1.106936E-1	1.062159E-1	8.460447E-2	1.155302E-1	9.179886E-2
5.339090E+2	1.722530E-1	1.725656E-1	1.705487E-1	1.705179E-1	1.441272E-1	1.646472E-1	1.659906E-1	1.729322E-1	1.626842E-1	1.617926E-1	1.699902E-1	1.730039E-1	1.745129E-1	1.746321E-1	1.623522E-1	1.814304E-1	1.801053E-1	1.799516E-1	1.610997E-1	1.541525E-1	1.624733E-1	1.725808E-1	1.755662E-1	1.403661E-1	1.789521E-1	1.979962E-1	1.564987E-1	1.775200E-1	1.659076E-1	1.688700E-1	1.641082E-1	1.619478E-1	1.931331E-1	1.726213E-1	1.670892E-1	1.572595E-1	1.639541E-1	1.767575E-1	1.923149E-1	1.698614E-1	1.555399E-1	1.692280E-1	1.657627E-1	1.495646E-1	1.717537E-1	1.781752E-1	1.709995E-1	1.699386E-1	1.723551E-1	1.584827E-1	1.991821E-1	1.591384E-1	1.783307E-1	1.472961E-1	1.967048E-1	1.627304E-1	1.727434E-1	1.687399E-1	1.585109E-1	1.707859E-1	1.852038E-1	1.664372E-1	1.550147E-1	1.738487E-1	1.636212E-1	1.524960E-1	2.003125E-1	1.629731E-1	1.776466E-1	1.418272E-1	1.889399E-1	1.649332E-1	1.662914E-1	1.768775E-1	1.560953E-1	1.497092E-1	1.667278E-1	1.651091E-1	1.774933E-1	1.718661E-1	1.868456E-1	1.750444E-1	1.778580E-1	1.710285E-1	1.641277E-1	1.617222E-1	1.784273E-1	1.812116E-1	1.649384E-1	1.673936E-1	1.888445E-1	1.527474E-1	1.657310E-1	1.666260E-1	1.776252E-1	1.769018E-1	1.442051E-1	1.768751E-1	1.957928E-1	1.631372E-1	1.644436E-1	1.846894E-1	1.824829E-1	1.925586E-1	1.783928E-1	1.634921E-1	1.673738E-1	1.808243E-1	1.776943E-1	1.685479E-1	1.743229E-1	1.607591E-1	1.583302E-1	1.513143E-1	1.652042E-1	1.669337E-1	1.785234E-1	1.755347E-1	1.933024E-1	1.536184E-1	1.683350E-1	1.987719E-1	1.675057E-1	1.722080E-1	1.657708E-1	1.730118E-1	1.704843E-1	1.822994E-1	1.971435E-1	1.811336E-1	1.768739E-1	1.664958E-1	1.895471E-1	1.724887E-1	1.781865E-1	1.695958E-1	1.711080E-1	1.914365E-1	1.475314E-1	1.769201E-1	1.821902E-1	1.666940E-1	1.564661E-1	1.795226E-1	1.609103E-1	1.895428E-1	1.706764E-1	1.823903E-1	1.830484E-1	1.537573E-1	1.552692E-1	1.732688E-1	1.805590E-1	1.796451E-1	1.861403E-1	1.498216E-1	1.913557E-1	1.767683E-1	1.679835E-1	1.587159E-1	1.665781E-1	1.755211E-1	1.636023E-1	1.641498E-1	1.707296E-1	1.762088E-1	1.844046E-1	1.696578E-1	1.775597E-1	1.674378E-1	1.791420E-1
5.340800E+2	2.700755E-1	3.030674E-1	2.648866E-1	3.261073E-1	2.891104E-1	2.864569E-1	2.983388E-1	2.955313E-1	3.141368E-1	3.138678E-1	3.093878E-1	2.743543E-1	2.864071E-1	2.781486E-1	2.869205E-1	2.977941E-1	2.886746E-1	2.959690E-1	2.910322E-1	3.166684E-1	2.906611E-1	2.865582E-1	2.666407E-1	2.715072E-1	3.019206E-1	3.157220E-1	2.857550E-1	2.743356E-1	2.818067E-1	2.842063E-1	2.847400E-1	2.967948E-1	3.242302E-1	2.951974E-1	2.983449E-1	3.031683E-1	2.865047E-1	2.892421E-1	2.856265E-1	3.030897E-1	2.699725E-1	2.787253E-1	2.652292E-1	2.738761E-1	2.755651E-1	2.850714E-1	3.062496E-1	2.985304E-1	2.641740E-1	3.088416E-1	3.171403E-1	3.023115E-1	3.220932E-1	2.678898E-1	3.077021E-1	2.985045E-1	2.945314E-1	2.994378E-1	3.050084E-1	2.882824E-1	2.839649E-1	3.011114E-1	2.796405E-1	3.073099E-1	3.056586E-1	2.917632E-1	2.887387E-1	3.024395E-1	2.882415E-1	2.875839E-1	2.899705E-1	2.883106E-1	2.732924E-1	2.681685E-1	2.904755E-1	2.972980E-1	2.755333E-1	3.272984E-1	2.908698E-1	2.563515E-1	2.906631E-1	2.783512E-1	3.044510E-1	3.128802E-1	3.207010E-1	2.898587E-1	3.118935E-1	2.764256E-1	2.968718E-1	2.821483E-1	2.984286E-1	2.837800E-1	3.134831E-1	2.699524E-1	2.777593E-1	2.938353E-1	2.720634E-1	2.831181E-1	3.052133E-1	2.953680E-1	3.275831E-1	3.138480E-1	2.960694E-1	3.006305E-1	3.001831E-1	2.828335E-1	3.123810E-1	2.802806E-1	2.712965E-1	3.092808E-1	2.799885E-1	2.873936E-1	3.108799E-1	2.975271E-1	3.006769E-1	2.732900E-1	2.821252E-1	2.807488E-1	3.037715E-1	3.028504E-1	3.062365E-1	2.988470E-1	2.917905E-1	2.713306E-1	2.796139E-1	2.979325E-1	2.843421E-1	3.112550E-1	3.006682E-1	3.071433E-1	2.903561E-1	3.001791E-1	2.854947E-1	2.849953E-1	3.114374E-1	2.958074E-1	2.964610E-1	3.100581E-1	2.956192E-1	2.763842E-1	2.923628E-1	2.972145E-1	2.819076E-1	2.909991E-1	3.055454E-1	3.081791E-1	2.963088E-1	3.017889E-1	2.922755E-1	2.940139E-1	2.950795E-1	3.158500E-1	2.972999E-1	3.302564E-1	3.159251E-1	3.177807E-1	3.026140E-1	2.953818E-1	2.919353E-1	2.957488E-1	2.929153E-1	3.037217E-1	2.858121E-1	2.748249E-1	3.015754E-1	2.891066E-1	3.002625E-1	2.876182E-1	3.017049E-1	2.863576E-1	3.258525E-1
5.342040E+2	4.267208E-1	4.324690E-1	4.444398E-1	4.485558E-1	4.574517E-1	4.402032E-1	4.541799E-1	4.842038E-1	4.290914E-1	4.586743E-1	4.847738E-1	4.487613E-1	4.308448E-1	4.669904E-1	4.554750E-1	4.400722E-1	4.604938E-1	4.562083E-1	4.572012E-1	4.783568E-1	4.505487E-1	4.704418E-1	4.828114E-1	4.772839E-1	4.535031E-1	4.689102E-1	4.502653E-1	4.873013E-1	4.495978E-1	4.333235E-1	4.832573E-1	4.096706E-1	4.604451E-1	4.573798E-1	4.599333E-1	4.793166E-1	4.497569E-1	4.355053E-1	4.514959E-1	4.552821E-1	4.457632E-1	4.598110E-1	4.309764E-1	4.498968E-1	4.433625E-1	4.581592E-1	4.610023E-1	4.890193E-1	4.756205E-1	4.377956E-1	4.544748E-1	4.310637E-1	4.403708E-1	4.313032E-1	4.579564E-1	4.606249E-1	4.908383E-1	4.742901E-1	4.155543E-1	4.574707E-1	4.589466E-1	4.558882E-1	4.544517E-1	4.529115E-1	4.531334E-1	4.113659E-1	4.395859E-1	4.989331E-1	4.257078E-1	4.399985E-1	4.257111E-1	4.627593E-1	4.535673E-1	4.158005E-1	4.553615E-1	4.634287E-1	4.376876E-1	4.439365E-1	4.426030E-1	4.475032E-1	4.559688E-1	4.800675E-1	4.593745E-1	4.755024E-1	4.904610E-1	4.554459E-1	4.813003E-1	4.562992E-1	4.129389E-1	4.847372E-1	4.616354E-1	4.345358E-1	4.401652E-1	4.492397E-1	4.695425E-1	4.386964E-1	4.670143E-1	4.625980E-1	4.880323E-1	4.287487E-1	4.532805E-1	4.456525E-1	4.488799E-1	4.442637E-1	4.579071E-1	4.481758E-1	4.454378E-1	4.525873E-1	5.007385E-1	4.269957E-1	4.792114E-1	4.534398E-1	4.698474E-1	4.743513E-1	4.825292E-1	4.530969E-1	4.597369E-1	4.281779E-1	4.457719E-1	4.340017E-1	4.430371E-1	4.480236E-1	4.691265E-1	4.400464E-1	4.863357E-1	4.515974E-1	4.871008E-1	4.493859E-1	4.468026E-1	4.595070E-1	4.603116E-1	4.259863E-1	4.556092E-1	4.746618E-1	4.517805E-1	4.703515E-1	4.793621E-1	4.614841E-1	4.263829E-1	4.535866E-1	4.586236E-1	4.403948E-1	4.886008E-1	4.551242E-1	4.439061E-1	4.768549E-1	4.567464E-1	4.831091E-1	4.197195E-1	4.525949E-1	4.493495E-1	4.577047E-1	4.671962E-1	4.383653E-1	4.542528E-1	4.551966E-1	4.972221E-1	4.592115E-1	4.439043E-1	4.710617E-1	4.631979E-1	4.631606E-1	4.538344E-1	4.564665E-1	4.558093E-1	4.675237E-1	4.680238E-1	4.437125E-1	4.427090E-1	4.235655E-1	4.969732E-1
5.343600E+2	7.775983E-1	8.218517E-1	8.034992E-1	8.142571E-1	8.267383E-1	8.449319E-1	7.980203E-1	8.301016E-1	8.005829E-1	8.597100E-1	7.690380E-1	7.867568E-1	8.343676E-1	8.276266E-1	8.214582E-1	8.095768E-1	8.275383E-1	8.112673E-1	8.450954E-1	8.565335E-1	8.427220E-1	8.616575E-1	8.479927E-1	8.152726E-1	8.308248E-1	8.241939E-1	8.161497E-1	8.194500E-1	7.869005E-1	8.126992E-1	8.346314E-1	8.094162E-1	8.356740E-1	8.404790E-1	8.212205E-1	8.442818E-1	8.279345E-1	8.232575E-1	8.076530E-1	8.411714E-1	8.355766E-1	8.047711E-1	8.004555E-1	8.413471E-1	8.155031E-1	8.310597E-1	8.327894E-1	8.476259E-1	8.185943E-1	8.513002E-1	8.120687E-1	8.276885E-1	7.832895E-1	7.924008E-1	8.248298E-1	8.281153E-1	8.199091E-1	7.652925E-1	8.140079E-1	7.992923E-1	7.758397E-1	8.166599E-1	8.202205E-1	8.022949E-1	7.956579E-1	8.086162E-1	8.236905E-1	8.493473E-1	8.343373E-1	8.311461E-1	8.070669E-1	8.445422E-1	7.868667E-1	7.971649E-1	7.741084E-1	7.931746E-1	8.094128E-1	7.950087E-1	8.326810E-1	7.657900E-1	8.072638E-1	7.959698E-1	8.386167E-1	7.974395E-1	7.778999E-1	8.003606E-1	8.580881E-1	8.135870E-1	8.109636E-1	8.171769E-1	7.897537E-1	8.160957E-1	8.651030E-1	7.565705E-1	7.991630E-1	7.987151E-1	8.141797E-1	7.970411E-1	8.467514E-1	8.251596E-1	8.094094E-1	7.892945E-1	8.140093E-1	8.194830E-1	8.055362E-1	8.158342E-1	8.300946E-1	8.088482E-1	7.755715E-1	8.071630E-1	7.742186E-1	8.315768E-1	7.977883E-1	7.915865E-1	8.329054E-1	8.091642E-1	7.974738E-1	8.127662E-1	8.565639E-1	7.975409E-1	8.076215E-1	7.987210E-1	8.020225E-1	8.406961E-1	8.110980E-1	8.152295E-1	8.174173E-1	7.893471E-1	8.256264E-1	8.216647E-1	8.215898E-1	8.294638E-1	8.040445E-1	7.734771E-1	8.321293E-1	8.178678E-1	8.057993E-1	8.776907E-1	7.711041E-1	8.402884E-1	8.169973E-1	8.058514E-1	8.309973E-1	8.495520E-1	7.899887E-1	8.184528E-1	8.161209E-1	8.260639E-1	7.918102E-1	8.229915E-1	7.810722E-1	8.609240E-1	7.986138E-1	8.423247E-1	8.228931E-1	8.044379E-1	8.295519E-1	8.246992E-1	8.127386E-1	8.089570E-1	7.999114E-1	8.221355E-1	8.330196E-1	8.075072E-1	8.488218E-1	7.745952E-1	8.200305E-1	8.168977E-1	8.191664E-1	8.689983E-1	7.633108E-1
5.345110E+2	1.159433E+0	1.173465E+0	1.174017E+0	1.193641E+0	1.200087E+0	1.187398E+0	1.190674E+0	1.182685E+0	1.148561E+0	1.227423E+0	1.210737E+0	1.128901E+0	1.177519E+0	1.292886E+0	1.211708E+0	1.181171E+0	1.193935E+0	1.221073E+0	1.193905E+0	1.165571E+0	1.194526E+0	1.174816E+0	1.180371E+0	1.184256E+0	1.185451E+0	1.246693E+0	1.187556E+0	1.155109E+0	1.199845E+0	1.168240E+0	1.171452E+0	1.210267E+0	1.187054E+0	1.158080E+0	1.170745E+0	1.220641E+0	1.167054E+0	1.211620E+0	1.155463E+0	1.234421E+0	1.178191E+0	1.160304E+0	1.158465E+0	1.173631E+0	1.163800E+0	1.205406E+0	1.111641E+0	1.192341E+0	1.134759E+0	1.190375E+0	1.202819E+0	1.178165E+0	1.167934E+0	1.154985E+0	1.194684E+0	1.220993E+0	1.235360E+0	1.178815E+0	1.134194E+0	1.150237E+0	1.152255E+0	1.206326E+0	1.177196E+0	1.171809E+0	1.166362E+0	1.134027E+0	1.193797E+0	1.214420E+0	1.131236E+0	1.158269E+0	1.160361E+0	1.195584E+0	1.198489E+0	1.186781E+0	1.208229E+0	1.150699E+0	1.180745E+0	1.241438E+0	1.145738E+0	1.169139E+0	1.209630E+0	1.189559E+0	1.167343E+0	1.192802E+0	1.116314E+0	1.154858E+0	1.194027E+0	1.259491E+0	1.129786E+0	1.177133E+0	1.184428E+0	1.190336E+0	1.197991E+0	1.173882E+0	1.227949E+0	1.190931E+0	1.212054E+0	1.161249E+0	1.180437E+0	1.138348E+0	1.163321E+0	1.137561E+0	1.197802E+0	1.227901E+0	1.181952E+0	1.232894E+0	1.183329E+0	1.139697E+0	1.194145E+0	1.183214E+0	1.192457E+0	1.188219E+0	1.173246E+0	1.219679E+0	1.182462E+0	1.163968E+0	1.188582E+0	1.152259E+0	1.206570E+0	1.221788E+0	1.162267E+0	1.227521E+0	1.187581E+0	1.132605E+0	1.193411E+0	1.151209E+0	1.163837E+0	1.147514E+0	1.205197E+0	1.205349E+0	1.149183E+0	1.118978E+0	1.211878E+0	1.165742E+0	1.187084E+0	1.266914E+0	1.208012E+0	1.233759E+0	1.171422E+0	1.209990E+0	1.171024E+0	1.194876E+0	1.185303E+0	1.185142E+0	1.182673E+0	1.163009E+0	1.189561E+0	1.255869E+0	1.160936E+0	1.155996E+0	1.181470E+0	1.210898E+0	1.147370E+0	1.201543E+0	1.192907E+0	1.207202E+0	1.186052E+0	1.160880E+0	1.161240E+0	1.153234E+0	1.155879E+0	1.165839E+0	1.155563E+0	1.188520E+0	1.222037E+0	1.168776E+0	1.192457E+0	1.196204E+0	1.147127E+0	1.153442E+0	1.156614E+0
5.346510E+2	1.644597E+0	1.585281E+0	1.625820E+0	1.705087E+0	1.640955E+0	1.680834E+0	1.640507E+0	1.648157E+0	1.614938E+0	1.659003E+0	1.667273E+0	1.633123E+0	1.611504E+0	1.669399E+0	1.663082E+0	1.687231E+0	1.640049E+0	1.649723E+0	1.617527E+0	1.645886E+0	1.650171E+0	1.660678E+0	1.672099E+0	1.682318E+0	1.626422E+0	1.718107E+0	1.654831E+0	1.692957E+0	1.665324E+0	1.599498E+0	1.685798E+0	1.674133E+0	1.679944E+0	1.621131E+0	1.604139E+0	1.638359E+0	1.603141E+0	1.650331E+0	1.643650E+0	1.627500E+0	1.636357E+0	1.614841E+0	1.642299E+0	1.644671E+0	1.594939E+0	1.647059E+0	1.642925E+0	1.654915E+0	1.622118E+0	1.688890E+0	1.635100E+0	1.669626E+0	1.580727E+0	1.613609E+0	1.687688E+0	1.656053E+0	1.706731E+0	1.626412E+0	1.615075E+0	1.619734E+0	1.621356E+0	1.651191E+0	1.712223E+0	1.637985E+0	1.686184E+0	1.581616E+0	1.644982E+0	1.627392E+0	1.641757E+0	1.605089E+0	1.610710E+0	1.692493E+0	1.665098E+0	1.645664E+0	1.597051E+0	1.649915E+0	1.650204E+0	1.681002E+0	1.572747E+0	1.604499E+0	1.665254E+0	1.648141E+0	1.651501E+0	1.623614E+0	1.681076E+0	1.619083E+0	1.598017E+0	1.644408E+0	1.614688E+0	1.662928E+0	1.661564E+0	1.666660E+0	1.682084E+0	1.596249E+0	1.621781E+0	1.633451E+0	1.641578E+0	1.606350E+0	1.645863E+0	1.660300E+0	1.613548E+0	1.616507E+0	1.572152E+0	1.659902E+0	1.620054E+0	1.638729E+0	1.611702E+0	1.629360E+0	1.639367E+0	1.674851E+0	1.661208E+0	1.591858E+0	1.649007E+0	1.585044E+0	1.676841E+0	1.648677E+0	1.602283E+0	1.576338E+0	1.586372E+0	1.609062E+0	1.617935E+0	1.622444E+0	1.580305E+0	1.666500E+0	1.613261E+0	1.623104E+0	1.596522E+0	1.638447E+0	1.655116E+0	1.616123E+0	1.616346E+0	1.616496E+0	1.520171E+0	1.637292E+0	1.583088E+0	1.604127E+0	1.604197E+0	1.550178E+0	1.603555E+0	1.682738E+0	1.601349E+0	1.535550E+0	1.655963E+0	1.612097E+0	1.613834E+0	1.635146E+0	1.591815E+0	1.700188E+0	1.609278E+0	1.624621E+0	1.565318E+0	1.630738E+0	1.595765E+0	1.667266E+0	1.629571E+0	1.633808E+0	1.592390E+0	1.579821E+0	1.645736E+0	1.538833E+0	1.580592E+0	1.716005E+0	1.572003E+0	1.557359E+0	1.608584E+0	1.615834E+0	1.666522E+0	1.745826E+0	1.521250E+0	1.632250E+0	1.703735E+0
5.348280E+2	1.905385E+0	1.873046E+0	1.893656E+0	1.979107E+0	1.847880E+0	1.956610E+0	1.939096E+0	1.913390E+0	1.893757E+0	1.955980E+0	1.890862E+0	1.989738E+0	1.900069E+0	1.917412E+0	1.926799E+0	1.992071E+0	2.025912E+0	1.897286E+0	1.893454E+0	1.933694E+0	1.896945E+0	1.958537E+0	1.952009E+0	1.952097E+0	1.903031E+0	1.933451E+0	1.924725E+0	1.953954E+0	1.931578E+0	1.916122E+0	1.949317E+0	1.966924E+0	1.978226E+0	1.931674E+0	1.944153E+0	1.986928E+0	1.862257E+0	1.893076E+0	1.900205E+0	1.970778E+0	1.938499E+0	1.883988E+0	1.893102E+0	1.949052E+0	1.860567E+0	1.898400E+0	1.869765E+0	2.018166E+0	1.858360E+0	1.966021E+0	1.976372E+0	1.940487E+0	1.849831E+0	1.949774E+0	1.947331E+0	1.981539E+0	1.958766E+0	1.916872E+0	1.910531E+0	1.927407E+0	1.883722E+0	1.895987E+0	1.932157E+0	1.946399E+0	1.868756E+0	1.847659E+0	1.855917E+0	1.945177E+0	1.847042E+0	1.938564E+0	1.882141E+0	1.975979E+0	1.966274E+0	1.868122E+0	1.857752E+0	1.930257E+0	1.968857E+0	1.907462E+0	1.842239E+0	1.923119E+0	1.928111E+0	1.894816E+0	1.951029E+0	1.951332E+0	1.867674E+0	1.919877E+0	1.904287E+0	1.941736E+0	1.868976E+0	1.888858E+0	1.916799E+0	1.951069E+0	1.927051E+0	1.910266E+0	1.964676E+0	1.919124E+0	1.964312E+0	1.850709E+0	1.910054E+0	1.865654E+0	1.935807E+0	1.857463E+0	1.817645E+0	1.903699E+0	1.887772E+0	1.914245E+0	1.824604E+0	1.919548E+0	1.839803E+0	1.863656E+0	1.889673E+0	1.901382E+0	1.925226E+0	1.883416E+0	1.880520E+0	1.867434E+0	1.877144E+0	1.804705E+0	1.885582E+0	1.893614E+0	1.877584E+0	1.965418E+0	1.855800E+0	1.918939E+0	1.867365E+0	1.838369E+0	1.925171E+0	1.855228E+0	1.990688E+0	1.864686E+0	1.882885E+0	1.908368E+0	1.802814E+0	1.862631E+0	1.876321E+0	1.878309E+0	1.885697E+0	1.909096E+0	1.888053E+0	1.908262E+0	1.890184E+0	1.848462E+0	1.849671E+0	1.869867E+0	1.897346E+0	1.874136E+0	1.797331E+0	1.938440E+0	1.850760E+0	1.897809E+0	1.847132E+0	1.909572E+0	1.888274E+0	1.872051E+0	1.890790E+0	1.880048E+0	1.872344E+0	1.840329E+0	1.845643E+0	1.847477E+0	1.881068E+0	1.961615E+0	1.955164E+0	1.896683E+0	1.882067E+0	1.835725E+0	1.869316E+0	1.908379E+0	1.806779E+0	1.853272E+0	1.905277E+0
5.349630E+2	2.129377E+0	2.080866E+0	2.116032E+0	2.054155E+0	2.078402E+0	2.105763E+0	2.075008E+0	2.062569E+0	2.112063E+0	2.065229E+0	2.118551E+0	2.075933E+0	2.113239E+0	2.101789E+0	2.068619E+0	2.135829E+0	2.129780E+0	2.092596E+0	2.057244E+0	2.103495E+0	2.080945E+0	2.151185E+0	2.041229E+0	2.053765E+0	2.083712E+0	2.102584E+0	1.994230E+0	2.071543E+0	2.099789E+0	2.027650E+0	2.069927E+0	2.105261E+0	2.127361E+0	2.180300E+0	2.045574E+0	2.070933E+0	2.001491E+0	2.050362E+0	2.067408E+0	2.023013E+0	2.088956E+0	2.103661E+0	2.079473E+0	2.133678E+0	2.031422E+0	2.056411E+0	2.010053E+0	2.096007E+0	2.082716E+0	2.101392E+0	1.998792E+0	2.193876E+0	2.076932E+0	2.010520E+0	2.018967E+0	2.014761E+0	2.090786E+0	2.032014E+0	2.050498E+0	2.018444E+0	2.069022E+0	2.033511E+0	2.032462E+0	2.057900E+0	2.117164E+0	1.984120E+0	2.112093E+0	2.028849E+0	2.061753E+0	2.027508E+0	2.098782E+0	2.062423E+0	2.124438E+0	2.010301E+0	2.037064E+0	2.089307E+0	2.109889E+0	2.047729E+0	2.000479E+0	2.052322E+0	2.104797E+0	2.046872E+0	2.050846E+0	2.115082E+0	2.027756E+0	2.026364E+0	2.062747E+0	2.080880E+0	2.077193E+0	2.037955E+0	2.054609E+0	2.074268E+0	2.011227E+0	2.001345E+0	2.028204E+0	2.023495E+0	2.044833E+0	1.988971E+0	2.101296E+0	2.106915E+0	2.047861E+0	2.059451E+0	2.035775E+0	2.078579E+0	2.015256E+0	2.026712E+0	2.024506E+0	2.061965E+0	2.001504E+0	2.008592E+0	2.081259E+0	2.011709E+0	2.062328E+0	2.069428E+0	1.982048E+0	2.041109E+0	1.993340E+0	1.971884E+0	2.026918E+0	2.105309E+0	2.081573E+0	2.034072E+0	2.038499E+0	1.965162E+0	2.038062E+0	2.054621E+0	1.970851E+0	2.013290E+0	1.980065E+0	1.976272E+0	2.065566E+0	2.051861E+0	2.013660E+0	1.973352E+0	2.050818E+0	2.012605E+0	1.971126E+0	2.051102E+0	1.983696E+0	2.014270E+0	1.981208E+0	2.025361E+0	2.035370E+0	2.079588E+0	1.994384E+0	1.992340E+0	1.995456E+0	2.085754E+0	1.976331E+0	2.096638E+0	2.046835E+0	2.079602E+0	2.001176E+0	2.004204E+0	2.022513E+0	1.985657E+0	2.015921E+0	1.936067E+0	2.065406E+0	1.949335E+0	2.029909E+0	2.053228E+0	2.057258E+0	2.006639E+0	1.997055E+0	1.968310E+0	1.933430E+0	2.067166E+0	1.988350E+0	1.987319E+0	2.083630E+0
5.351140E+2	1.910426E+0	1.897714E+0	1.882950E+0	1.891395E+0	1.877214E+0	1.938353E+0	1.867993E+0	1.905995E+0	1.958457E+0	1.876931E+0	1.893260E+0	1.867781E+0	1.831862E+0	1.956523E+0	1.831295E+0	1.898124E+0	1.883472E+0	1.869501E+0	1.861898E+0	1.873151E+0	1.904952E+0	1.871409E+0	1.889342E+0	1.893670E+0	1.899917E+0	1.975185E+0	1.860660E+0	1.905031E+0	1.885350E+0	1.905361E+0	1.902728E+0	1.855806E+0	1.955670E+0	1.882285E+0	1.926356E+0	1.893281E+0	1.814809E+0	1.894012E+0	1.849321E+0	1.909760E+0	1.820092E+0	1.825592E+0	1.860036E+0	1.881207E+0	1.837114E+0	1.845672E+0	1.889649E+0	1.899333E+0	1.863010E+0	1.883977E+0	1.940498E+0	1.950890E+0	1.844482E+0	1.842391E+0	1.917929E+0	1.847538E+0	1.869695E+0	1.814159E+0	1.855596E+0	1.871477E+0	1.853536E+0	1.870173E+0	1.829602E+0	1.933817E+0	1.840022E+0	1.809743E+0	1.848415E+0	1.938434E+0	1.820656E+0	1.840179E+0	1.824636E+0	1.892942E+0	1.896649E+0	1.844169E+0	1.763622E+0	1.865526E+0	1.839427E+0	1.842205E+0	1.840390E+0	1.848338E+0	1.894360E+0	1.935465E+0	1.863061E+0	1.836029E+0	1.887566E+0	1.861031E+0	1.866152E+0	1.830852E+0	1.913989E+0	1.768701E+0	1.851512E+0	1.907256E+0	1.908535E+0	1.845832E+0	1.828934E+0	1.836314E+0	1.864085E+0	1.867279E+0	1.867185E+0	1.799361E+0	1.796935E+0	1.753867E+0	1.823171E+0	1.865900E+0	1.805248E+0	1.816966E+0	1.841712E+0	1.845871E+0	1.880258E+0	1.846696E+0	1.853495E+0	1.849835E+0	1.881066E+0	1.813722E+0	1.850842E+0	1.884677E+0	1.801527E+0	1.840633E+0	1.825764E+0	1.891250E+0	1.858538E+0	1.894178E+0	1.792635E+0	1.842350E+0	1.786286E+0	1.800831E+0	1.903303E+0	1.916143E+0	1.925313E+0	1.845387E+0	1.853738E+0	1.832209E+0	1.845758E+0	1.793742E+0	1.869055E+0	1.839435E+0	1.776861E+0	1.881953E+0	1.853365E+0	1.844389E+0	1.835711E+0	1.837185E+0	1.811091E+0	1.824225E+0	1.828184E+0	1.792156E+0	1.839687E+0	1.818810E+0	1.820619E+0	1.830991E+0	1.810590E+0	1.836537E+0	1.811985E+0	1.844313E+0	1.873855E+0	1.821664E+0	1.837181E+0	1.769936E+0	1.730156E+0	1.798725E+0	1.815916E+0	1.826487E+0	1.846910E+0	1.794138E+0	1.829239E+0	1.828172E+0	1.836813E+0	1.829034E+0	1.831619E+0	1.800130E+0	1.988726E+0
5.352600E+2	1.799152E+0	1.756602E+0	1.808135E+0	1.767872E+0	1.794837E+0	1.854187E+0	1.768154E+0	1.861098E+0	1.820570E+0	1.805742E+0	1.832206E+0	1.755815E+0	1.795353E+0	1.805051E+0	1.787252E+0	1.802245E+0	1.871470E+0	1.784633E+0	1.774550E+0	1.793936E+0	1.807779E+0	1.811061E+0	1.792254E+0	1.783220E+0	1.792320E+0	1.837279E+0	1.746899E+0	1.794813E+0	1.802045E+0	1.784066E+0	1.787444E+0	1.780447E+0	1.898405E+0	1.810576E+0	1.792478E+0	1.760198E+0	1.828464E+0	1.770403E+0	1.804598E+0	1.774999E+0	1.751020E+0	1.773210E+0	1.796889E+0	1.782976E+0	1.773991E+0	1.784059E+0	1.782797E+0	1.800988E+0	1.789116E+0	1.811666E+0	1.774354E+0	1.781418E+0	1.771642E+0	1.767688E+0	1.789171E+0	1.800370E+0	1.774325E+0	1.778109E+0	1.757210E+0	1.762056E+0	1.812682E+0	1.771621E+0	1.833113E+0	1.866490E+0	1.771005E+0	1.805761E+0	1.737512E+0	1.717361E+0	1.808353E+0	1.780301E+0	1.753086E+0	1.762560E+0	1.822849E+0	1.739282E+0	1.719721E+0	1.800666E+0	1.770697E+0	1.749142E+0	1.750696E+0	1.769496E+0	1.799239E+0	1.728633E+0	1.747107E+0	1.832642E+0	1.748965E+0	1.740253E+0	1.762129E+0	1.772616E+0	1.808474E+0	1.728664E+0	1.822573E+0	1.784256E+0	1.780017E+0	1.771440E+0	1.719064E+0	1.790728E+0	1.767073E+0	1.838015E+0	1.785114E+0	1.787379E+0	1.743992E+0	1.722436E+0	1.735125E+0	1.778791E+0	1.730855E+0	1.799549E+0	1.755146E+0	1.805425E+0	1.734954E+0	1.787294E+0	1.766198E+0	1.769947E+0	1.757083E+0	1.809963E+0	1.821273E+0	1.742124E+0	1.692527E+0	1.709144E+0	1.737085E+0	1.723301E+0	1.798881E+0	1.813050E+0	1.711957E+0	1.788607E+0	1.773530E+0	1.762661E+0	1.780550E+0	1.745967E+0	1.830283E+0	1.761229E+0	1.763345E+0	1.769880E+0	1.749897E+0	1.740363E+0	1.775567E+0	1.766604E+0	1.736197E+0	1.771316E+0	1.771549E+0	1.814363E+0	1.769678E+0	1.731635E+0	1.706642E+0	1.753981E+0	1.799712E+0	1.778592E+0	1.699904E+0	1.850638E+0	1.718216E+0	1.774632E+0	1.667645E+0	1.762669E+0	1.822053E+0	1.723188E+0	1.808064E+0	1.768537E+0	1.758190E+0	1.751264E+0	1.746885E+0	1.788612E+0	1.707369E+0	1.795324E+0	1.738571E+0	1.785197E+0	1.778241E+0	1.732224E+0	1.705771E+0	1.697927E+0	1.686721E+0	1.720071E+0	1.790992E+0
5.354110E+2	1.437883E+0	1.418102E+0	1.384338E+0	1.473936E+0	1.455146E+0	1.455969E+0	1.487597E+0	1.462727E+0	1.434923E+0	1.441408E+0	1.460993E+0	1.386939E+0	1.427337E+0	1.440309E+0	1.445896E+0	1.456787E+0	1.556560E+0	1.439098E+0	1.495905E+0	1.419277E+0	1.422364E+0	1.425759E+0	1.474404E+0	1.454107E+0	1.412545E+0	1.449115E+0	1.442537E+0	1.417211E+0	1.416700E+0	1.418649E+0	1.463612E+0	1.403050E+0	1.457184E+0	1.498574E+0	1.411137E+0	1.455032E+0	1.455022E+0	1.440618E+0	1.411390E+0	1.405842E+0	1.409175E+0	1.415557E+0	1.475459E+0	1.447613E+0	1.481288E+0	1.418621E+0	1.442876E+0	1.443008E+0	1.432788E+0	1.400251E+0	1.475505E+0	1.372129E+0	1.444710E+0	1.436328E+0	1.440618E+0	1.409762E+0	1.537905E+0	1.406422E+0	1.418276E+0	1.407881E+0	1.462571E+0	1.435316E+0	1.366179E+0	1.453903E+0	1.405793E+0	1.427922E+0	1.464118E+0	1.475618E+0	1.433454E+0	1.455072E+0	1.449468E+0	1.384354E+0	1.529062E+0	1.376187E+0	1.464074E+0	1.427667E+0	1.443348E+0	1.426470E+0	1.462900E+0	1.420056E+0	1.475015E+0	1.420950E+0	1.359145E+0	1.441202E+0	1.435349E+0	1.450523E+0	1.430214E+0	1.415356E+0	1.434981E+0	1.390517E+0	1.418121E+0	1.394289E+0	1.453060E+0	1.421860E+0	1.391523E+0	1.433090E+0	1.455193E+0	1.393389E+0	1.420540E+0	1.478801E+0	1.425714E+0	1.455254E+0	1.438934E+0	1.429667E+0	1.339957E+0	1.420015E+0	1.354694E+0	1.400766E+0	1.396177E+0	1.432008E+0	1.399157E+0	1.392174E+0	1.391507E+0	1.440038E+0	1.427041E+0	1.420057E+0	1.398917E+0	1.419223E+0	1.396164E+0	1.465218E+0	1.488395E+0	1.394903E+0	1.406688E+0	1.415117E+0	1.457191E+0	1.392338E+0	1.386200E+0	1.416633E+0	1.449649E+0	1.432533E+0	1.387507E+0	1.418451E+0	1.383308E+0	1.372183E+0	1.451363E+0	1.411924E+0	1.366848E+0	1.364447E+0	1.395518E+0	1.335754E+0	1.434035E+0	1.407652E+0	1.395653E+0	1.433753E+0	1.416828E+0	1.364877E+0	1.412423E+0	1.451144E+0	1.397041E+0	1.359524E+0	1.428183E+0	1.403740E+0	1.395798E+0	1.385529E+0	1.526495E+0	1.430179E+0	1.423258E+0	1.406635E+0	1.440485E+0	1.366565E+0	1.430317E+0	1.457468E+0	1.429646E+0	1.371220E+0	1.428976E+0	1.392365E+0	1.364003E+0	1.393046E+0	1.441167E+0	1.262040E+0	1.387579E+0
5.355630E+2	1.302006E+0	1.253961E+0	1.294090E+0	1.257179E+0	1.281059E+0	1.286216E+0	1.332523E+0	1.285262E+0	1.328375E+0	1.283430E+0	1.273342E+0	1.279153E+0	1.316059E+0	1.312177E+0	1.317234E+0	1.329447E+0	1.315117E+0	1.304724E+0	1.281243E+0	1.324877E+0	1.338557E+0	1.285988E+0	1.283249E+0	1.310324E+0	1.288304E+0	1.328231E+0	1.238906E+0	1.328248E+0	1.247891E+0	1.239232E+0	1.324824E+0	1.332533E+0	1.306721E+0	1.408023E+0	1.286218E+0	1.300702E+0	1.245599E+0	1.322222E+0	1.267782E+0	1.311822E+0	1.341098E+0	1.269009E+0	1.301170E+0	1.308874E+0	1.313788E+0	1.317942E+0	1.317010E+0	1.310757E+0	1.319331E+0	1.292900E+0	1.310563E+0	1.284816E+0	1.294050E+0	1.278671E+0	1.286194E+0	1.292277E+0	1.326604E+0	1.285260E+0	1.231517E+0	1.281915E+0	1.347849E+0	1.246321E+0	1.342026E+0	1.311019E+0	1.364433E+0	1.283222E+0	1.272705E+0	1.308774E+0	1.281682E+0	1.236765E+0	1.349601E+0	1.308760E+0	1.350181E+0	1.266735E+0	1.246928E+0	1.276686E+0	1.308918E+0	1.320953E+0	1.329515E+0	1.275841E+0	1.298494E+0	1.287808E+0	1.295080E+0	1.344332E+0	1.324138E+0	1.323477E+0	1.255506E+0	1.341867E+0	1.326013E+0	1.306760E+0	1.332346E+0	1.306025E+0	1.269211E+0	1.240273E+0	1.285674E+0	1.251209E+0	1.310821E+0	1.258693E+0	1.305750E+0	1.363649E+0	1.283466E+0	1.263852E+0	1.251845E+0	1.270750E+0	1.308233E+0	1.268512E+0	1.291663E+0	1.297067E+0	1.254998E+0	1.257109E+0	1.255410E+0	1.297515E+0	1.283157E+0	1.294036E+0	1.278362E+0	1.257952E+0	1.285302E+0	1.308207E+0	1.297476E+0	1.318243E+0	1.311772E+0	1.345611E+0	1.253809E+0	1.289688E+0	1.303225E+0	1.272119E+0	1.327941E+0	1.238104E+0	1.321987E+0	1.309080E+0	1.277407E+0	1.245557E+0	1.279952E+0	1.296148E+0	1.330326E+0	1.260003E+0	1.352120E+0	1.225781E+0	1.296061E+0	1.284227E+0	1.318468E+0	1.269101E+0	1.284926E+0	1.309787E+0	1.313521E+0	1.250544E+0	1.264229E+0	1.309400E+0	1.266930E+0	1.334964E+0	1.309549E+0	1.325126E+0	1.290635E+0	1.294005E+0	1.310785E+0	1.289247E+0	1.312561E+0	1.265848E+0	1.256401E+0	1.250317E+0	1.287854E+0	1.262587E+0	1.278191E+0	1.285403E+0	1.320321E+0	1.301989E+0	1.278053E+0	1.325628E+0	1.276853E+0	1.358487E+0	1.325609E+0
5.357190E+2	1.021376E+0	1.074995E+0	1.051088E+0	1.027099E+0	9.860942E-1	1.051543E+0	1.021353E+0	1.040006E+0	1.045326E+0	1.076310E+0	1.043622E+0	1.016948E+0	1.056746E+0	9.970902E-1	1.063562E+0	9.924730E-1	1.087314E+0	1.015103E+0	1.016219E+0	1.036950E+0	1.053446E+0	1.046986E+0	1.029107E+0	1.020143E+0	9.724814E-1	1.035627E+0	1.048177E+0	1.045027E+0	9.898024E-1	1.056328E+0	1.035799E+0	1.013651E+0	1.030761E+0	1.075836E+0	1.069919E+0	1.096536E+0	9.849893E-1	1.114527E+0	1.014660E+0	1.012944E+0	1.046010E+0	1.054203E+0	1.065814E+0	9.930522E-1	1.030002E+0	1.018428E+0	1.007290E+0	1.062956E+0	1.052008E+0	1.047612E+0	1.057217E+0	1.084686E+0	1.005412E+0	9.900954E-1	1.033411E+0	1.054167E+0	1.093067E+0	9.630873E-1	1.062418E+0	1.054024E+0	1.107106E+0	9.962875E-1	1.030991E+0	1.038626E+0	1.056681E+0	1.064815E+0	1.069410E+0	1.048714E+0	1.016807E+0	1.023143E+0	1.052582E+0	1.055021E+0	1.108129E+0	9.741255E-1	1.034415E+0	1.049700E+0	1.021961E+0	1.067298E+0	1.034489E+0	1.020045E+0	1.061466E+0	1.030123E+0	1.039275E+0	1.084823E+0	1.051292E+0	1.044687E+0	9.949386E-1	1.040740E+0	1.051644E+0	1.072984E+0	1.056551E+0	1.087225E+0	1.064184E+0	1.023528E+0	1.018510E+0	1.038183E+0	1.086696E+0	1.001995E+0	1.094753E+0	1.027970E+0	1.055319E+0	1.014149E+0	1.019411E+0	1.033616E+0	1.071458E+0	1.037275E+0	1.015096E+0	1.055901E+0	1.012549E+0	1.062437E+0	1.025050E+0	1.015671E+0	1.041840E+0	1.074905E+0	1.029180E+0	1.026637E+0	9.900999E-1	1.026894E+0	1.058609E+0	1.042665E+0	1.027562E+0	1.065060E+0	1.038045E+0	1.002229E+0	1.016464E+0	1.075132E+0	1.008892E+0	9.696754E-1	1.094743E+0	1.060105E+0	1.018722E+0	1.018312E+0	1.027063E+0	1.049292E+0	1.039055E+0	1.058988E+0	1.030405E+0	1.022526E+0	1.036288E+0	1.038834E+0	1.040551E+0	1.032960E+0	1.104722E+0	1.040428E+0	1.027087E+0	1.030620E+0	1.033966E+0	1.073742E+0	1.038274E+0	1.064229E+0	1.031963E+0	1.049292E+0	1.034585E+0	1.075230E+0	1.064979E+0	1.006465E+0	1.049976E+0	1.028548E+0	1.061053E+0	1.009471E+0	1.026301E+0	1.159766E+0	1.066211E+0	1.039728E+0	1.092284E+0	1.008012E+0	1.025555E+0	1.095146E+0	9.812286E-1	1.061443E+0	1.092521E+0
5.358600E+2	9.191572E-1	8.909577E-1	8.984054E-1	9.180318E-1	8.942105E-1	9.584643E-1	9.166372E-1	9.317584E-1	9.300157E-1	9.641144E-1	9.348720E-1	9.196203E-1	9.641727E-1	9.177926E-1	9.044919E-1	9.706654E-1	9.100949E-1	9.261163E-1	9.771887E-1	9.441337E-1	9.289661E-1	9.562504E-1	9.327168E-1	9.408371E-1	9.051332E-1	9.647597E-1	9.097936E-1	9.140488E-1	9.223482E-1	9.069290E-1	9.265776E-1	9.187302E-1	9.348970E-1	9.768768E-1	9.585210E-1	8.696840E-1	9.726269E-1	8.933216E-1	9.341973E-1	9.392162E-1	9.072373E-1	9.262298E-1	9.547803E-1	9.351966E-1	9.795580E-1	9.289297E-1	9.253442E-1	9.551108E-1	9.145336E-1	9.420225E-1	9.509563E-1	9.328191E-1	9.213662E-1	9.320585E-1	9.362407E-1	9.340544E-1	9.370569E-1	9.179565E-1	9.290184E-1	9.077961E-1	8.971311E-1	9.217918E-1	9.028282E-1	9.326609E-1	9.427180E-1	9.144877E-1	9.995053E-1	9.575381E-1	9.323905E-1	8.989100E-1	8.788778E-1	9.454881E-1	9.931257E-1	9.556980E-1	9.437454E-1	9.568616E-1	9.348255E-1	9.420508E-1	8.961909E-1	9.082108E-1	9.629070E-1	9.223581E-1	9.076970E-1	9.449344E-1	8.992365E-1	9.441116E-1	9.330790E-1	9.135652E-1	9.490864E-1	9.397464E-1	9.641975E-1	9.665167E-1	9.373034E-1	9.298823E-1	9.251249E-1	9.430479E-1	9.625590E-1	9.133303E-1	9.215578E-1	9.518962E-1	9.332299E-1	9.068841E-1	9.376698E-1	9.667997E-1	9.410468E-1	9.609476E-1	9.421505E-1	9.515469E-1	9.352027E-1	9.395245E-1	9.047874E-1	9.298988E-1	9.133908E-1	9.180216E-1	9.623118E-1	9.106066E-1	9.503057E-1	9.292472E-1	9.320689E-1	9.283301E-1	9.061359E-1	9.685361E-1	8.866717E-1	9.329134E-1	9.628564E-1	9.109221E-1	9.609700E-1	8.967476E-1	9.542077E-1	9.161296E-1	9.474672E-1	8.831908E-1	9.465681E-1	8.904818E-1	9.497929E-1	9.270870E-1	9.064077E-1	9.434204E-1	9.290139E-1	9.095082E-1	9.734924E-1	9.032262E-1	9.413970E-1	9.138719E-1	9.294078E-1	9.272017E-1	8.694971E-1	9.562224E-1	9.255939E-1	9.471242E-1	9.229607E-1	9.007756E-1	8.932948E-1	9.503059E-1	9.522022E-1	8.848187E-1	9.228811E-1	9.296084E-1	9.695308E-1	8.953365E-1	9.457244E-1	9.521471E-1	9.102079E-1	9.545365E-1	9.123665E-1	9.228041E-1	9.107033E-1	9.542806E-1	8.837691E-1	9.385131E-1	9.159248E-1
5.360070E+2	7.690926E-1	7.048411E-1	7.357670E-1	7.084256E-1	7.191999E-1	7.348982E-1	7.077248E-1	7.234706E-1	7.353657E-1	6.993724E-1	7.908273E-1	7.421714E-1	7.533630E-1	7.428210E-1	7.134616E-1	7.297233E-1	7.481256E-1	7.390147E-1	7.466778E-1	7.449776E-1	7.397839E-1	7.162379E-1	7.016635E-1	7.252186E-1	7.242412E-1	7.076989E-1	7.149733E-1	7.556027E-1	7.293450E-1	7.568446E-1	7.534699E-1	7.276201E-1	7.550152E-1	7.407787E-1	7.118813E-1	7.238660E-1	7.192051E-1	7.101745E-1	7.283401E-1	7.459892E-1	7.082870E-1	7.282653E-1	7.107887E-1	7.278736E-1	7.523368E-1	7.104192E-1	7.472056E-1	7.297582E-1	7.320062E-1	7.230686E-1	7.461538E-1	7.869421E-1	7.170638E-1	7.335968E-1	7.110003E-1	7.132119E-1	7.704754E-1	7.357438E-1	7.704804E-1	7.138598E-1	7.640730E-1	7.571900E-1	7.255019E-1	7.194804E-1	7.489144E-1	7.328791E-1	7.253937E-1	7.651957E-1	7.367697E-1	7.476093E-1	7.761588E-1	7.540840E-1	7.378093E-1	7.119731E-1	7.021320E-1	7.604503E-1	7.475242E-1	7.232817E-1	7.094701E-1	7.230593E-1	7.610263E-1	7.310610E-1	7.288252E-1	7.319350E-1	7.285867E-1	7.574504E-1	7.344925E-1	7.134167E-1	7.316900E-1	7.177588E-1	7.260520E-1	7.767287E-1	7.035339E-1	7.237825E-1	7.632159E-1	7.470160E-1	7.640169E-1	7.070267E-1	7.551930E-1	7.469875E-1	7.358174E-1	7.234894E-1	7.391027E-1	7.329441E-1	7.350720E-1	7.400909E-1	7.331833E-1	7.140692E-1	7.257993E-1	7.262902E-1	7.550621E-1	7.290611E-1	7.383313E-1	7.411834E-1	7.720488E-1	7.092056E-1	7.224066E-1	7.009625E-1	7.585830E-1	7.427935E-1	7.324177E-1	7.374769E-1	7.428745E-1	7.501322E-1	7.522197E-1	7.590497E-1	7.099620E-1	7.671208E-1	7.347352E-1	7.789205E-1	7.423716E-1	7.453696E-1	7.293073E-1	7.353129E-1	7.674446E-1	7.335811E-1	7.393453E-1	7.104866E-1	7.623519E-1	7.442374E-1	7.467525E-1	7.563108E-1	7.453955E-1	7.596619E-1	7.181445E-1	7.076704E-1	7.268690E-1	7.590578E-1	6.926448E-1	7.379466E-1	7.364281E-1	7.062197E-1	7.253481E-1	7.417649E-1	7.718814E-1	7.321161E-1	7.521035E-1	7.209541E-1	6.758560E-1	7.158737E-1	7.135367E-1	7.650473E-1	7.273855E-1	7.425256E-1	7.498568E-1	7.592167E-1	7.525090E-1	7.404985E-1	7.619113E-1	7.173914E-1	8.000776E-1
5.362840E+2	5.982364E-1	6.118725E-1	6.105239E-1	6.224432E-1	5.990491E-1	6.022246E-1	6.009903E-1	6.014473E-1	6.115717E-1	5.997934E-1	6.043671E-1	5.910178E-1	6.437465E-1	5.832922E-1	6.412546E-1	6.063811E-1	6.190064E-1	6.512825E-1	5.944798E-1	6.150690E-1	6.146879E-1	5.783873E-1	6.380951E-1	6.210888E-1	6.308166E-1	6.320410E-1	6.048793E-1	5.535363E-1	5.947760E-1	5.687283E-1	6.041284E-1	6.266822E-1	6.143517E-1	6.302897E-1	5.913914E-1	6.298488E-1	6.139154E-1	6.080968E-1	5.946701E-1	6.120181E-1	5.924330E-1	5.898008E-1	6.418343E-1	5.858873E-1	5.814234E-1	5.956637E-1	6.247576E-1	6.374295E-1	6.033226E-1	6.036263E-1	6.050772E-1	6.119016E-1	5.920636E-1	6.062067E-1	6.081649E-1	5.944333E-1	6.419278E-1	6.182814E-1	6.093434E-1	6.067751E-1	6.109894E-1	6.284706E-1	6.113820E-1	5.835848E-1	6.329563E-1	5.809635E-1	6.125077E-1	6.098100E-1	6.388282E-1	5.919741E-1	5.782523E-1	6.168095E-1	5.931958E-1	6.069416E-1	6.006483E-1	6.042286E-1	5.960745E-1	6.134615E-1	5.981479E-1	6.035386E-1	6.558005E-1	6.160863E-1	6.089628E-1	5.893467E-1	6.385225E-1	6.334670E-1	6.128984E-1	6.004065E-1	5.657626E-1	6.007246E-1	6.183071E-1	6.179057E-1	6.038116E-1	6.177230E-1	6.390201E-1	5.963803E-1	6.176135E-1	6.459047E-1	6.358978E-1	6.187249E-1	6.388853E-1	5.959231E-1	5.943600E-1	6.205789E-1	5.973224E-1	5.968974E-1	5.950405E-1	6.212005E-1	6.031399E-1	6.139200E-1	6.037030E-1	6.247816E-1	6.014555E-1	5.839215E-1	6.120678E-1	6.251286E-1	6.023697E-1	5.920622E-1	6.192547E-1	6.143294E-1	6.256693E-1	6.342863E-1	5.881551E-1	5.893720E-1	6.006943E-1	5.941847E-1	6.228551E-1	5.953146E-1	6.093976E-1	6.309706E-1	6.629825E-1	6.058786E-1	6.138730E-1	5.983500E-1	6.278799E-1	6.025577E-1	6.447327E-1	6.264612E-1	6.343925E-1	6.205864E-1	6.385102E-1	6.024973E-1	6.227754E-1	5.986355E-1	6.322069E-1	6.037604E-1	6.019629E-1	6.456798E-1	6.252364E-1	6.281087E-1	6.199406E-1	6.190689E-1	5.949408E-1	6.092304E-1	6.169337E-1	6.430276E-1	5.599697E-1	5.878348E-1	6.347459E-1	6.173985E-1	6.352804E-1	6.298264E-1	6.253697E-1	6.247855E-1	5.961067E-1	6.199752E-1	6.055409E-1	6.083923E-1	6.534794E-1	5.996954E-1	6.049360E-1
5.365090E+2	4.471097E-1	4.746439E-1	4.764334E-1	4.975375E-1	4.616646E-1	4.872912E-1	4.293886E-1	4.768072E-1	4.983901E-1	4.828218E-1	4.907249E-1	4.855833E-1	4.684209E-1	4.836344E-1	4.576625E-1	4.564843E-1	5.299375E-1	4.958107E-1	5.087408E-1	4.826004E-1	4.851758E-1	4.575513E-1	4.637708E-1	4.885228E-1	4.639562E-1	4.875283E-1	4.599224E-1	4.947404E-1	5.048021E-1	4.916843E-1	4.713535E-1	4.618616E-1	4.794178E-1	4.843837E-1	4.544714E-1	4.690679E-1	4.656836E-1	5.112934E-1	4.524960E-1	4.807399E-1	4.863602E-1	4.645804E-1	4.500296E-1	4.626696E-1	4.833159E-1	4.803489E-1	4.857553E-1	4.794661E-1	4.877187E-1	4.667996E-1	5.033956E-1	4.928546E-1	5.015757E-1	4.622033E-1	4.685204E-1	4.299532E-1	4.920355E-1	4.704550E-1	4.507052E-1	4.844815E-1	4.896969E-1	4.645598E-1	4.719494E-1	4.750938E-1	4.926627E-1	4.715275E-1	4.644528E-1	4.925169E-1	4.753861E-1	4.790681E-1	4.675663E-1	5.095838E-1	5.122762E-1	4.823776E-1	4.627233E-1	4.732149E-1	4.748827E-1	4.700009E-1	4.613683E-1	4.960954E-1	4.811634E-1	4.756168E-1	5.169346E-1	4.851629E-1	4.495253E-1	4.502498E-1	4.933899E-1	4.565610E-1	5.037763E-1	4.928139E-1	4.816892E-1	4.817153E-1	4.904567E-1	4.954882E-1	4.707064E-1	4.715406E-1	5.040420E-1	4.530645E-1	4.875607E-1	4.938083E-1	4.865435E-1	4.643981E-1	4.794814E-1	4.860058E-1	4.744436E-1	4.822329E-1	4.865576E-1	5.012403E-1	4.620445E-1	4.970202E-1	4.647032E-1	4.798681E-1	4.966767E-1	5.016711E-1	4.650311E-1	4.747120E-1	4.444809E-1	4.908204E-1	4.838355E-1	4.976503E-1	4.983460E-1	4.941536E-1	4.937060E-1	5.228575E-1	4.769407E-1	4.958129E-1	4.432755E-1	4.887833E-1	4.888126E-1	5.153946E-1	4.760846E-1	4.818611E-1	4.759419E-1	4.707463E-1	5.151829E-1	4.827118E-1	5.047469E-1	5.131454E-1	4.805652E-1	4.771027E-1	4.976409E-1	4.926855E-1	4.650455E-1	4.678909E-1	4.607646E-1	4.710463E-1	4.733507E-1	4.420210E-1	4.839606E-1	5.075990E-1	4.829341E-1	4.945195E-1	4.437174E-1	4.693759E-1	4.926631E-1	5.040826E-1	5.083295E-1	5.156288E-1	5.059733E-1	4.902495E-1	4.861267E-1	4.965062E-1	4.607375E-1	4.968738E-1	4.738127E-1	4.807459E-1	4.975000E-1	4.752184E-1	4.887805E-1	5.177863E-1	4.704493E-1
5.367660E+2	4.985719E-1	4.908905E-1	4.937318E-1	5.001161E-1	5.092629E-1	5.172886E-1	5.053267E-1	4.683436E-1	4.649331E-1	4.919514E-1	4.973083E-1	4.998621E-1	4.820664E-1	4.865759E-1	5.161300E-1	4.951343E-1	4.781419E-1	5.114521E-1	4.860297E-1	5.010515E-1	4.671063E-1	4.726043E-1	4.816060E-1	4.824977E-1	4.704546E-1	4.838172E-1	4.663735E-1	5.302506E-1	4.573865E-1	5.010082E-1	4.732216E-1	4.774150E-1	5.006909E-1	5.022674E-1	4.908490E-1	4.893934E-1	4.755339E-1	4.718023E-1	4.612777E-1	4.672561E-1	5.142796E-1	4.849061E-1	4.930983E-1	4.754839E-1	4.921063E-1	4.575121E-1	4.747351E-1	4.879040E-1	4.622061E-1	5.021232E-1	4.996597E-1	5.368077E-1	5.331821E-1	5.020197E-1	4.933968E-1	4.905226E-1	5.128048E-1	4.824216E-1	4.779358E-1	4.830184E-1	4.911788E-1	5.013994E-1	4.888539E-1	4.665333E-1	5.010066E-1	5.199303E-1	4.733451E-1	5.091537E-1	4.942843E-1	4.849762E-1	4.722514E-1	4.778312E-1	4.967011E-1	4.919624E-1	4.851569E-1	5.011933E-1	4.979369E-1	5.339156E-1	4.916961E-1	4.844537E-1	5.318399E-1	4.796196E-1	4.927742E-1	4.875800E-1	5.073797E-1	4.737158E-1	4.823157E-1	4.864119E-1	4.955141E-1	5.041661E-1	5.071480E-1	4.891502E-1	4.740919E-1	5.230154E-1	4.947836E-1	5.033333E-1	5.109674E-1	5.118487E-1	5.238049E-1	4.751942E-1	4.870661E-1	5.018961E-1	4.794565E-1	5.149025E-1	4.967958E-1	4.852933E-1	4.888270E-1	5.399822E-1	4.881398E-1	5.225113E-1	4.951839E-1	5.027591E-1	4.847954E-1	5.042772E-1	5.129339E-1	5.016271E-1	4.980240E-1	5.129579E-1	4.767423E-1	4.863292E-1	5.035205E-1	5.572470E-1	4.921923E-1	4.890479E-1	4.684318E-1	5.407946E-1	5.184172E-1	4.963392E-1	5.041340E-1	4.842878E-1	4.668424E-1	4.851096E-1	4.860884E-1	4.960080E-1	5.297443E-1	5.119510E-1	4.837015E-1	4.868183E-1	5.022213E-1	4.614041E-1	4.857445E-1	5.051445E-1	5.216278E-1	4.825248E-1	4.990829E-1	4.904014E-1	5.251433E-1	4.834076E-1	4.921368E-1	4.967531E-1	4.872885E-1	4.841843E-1	4.789703E-1	5.765433E-1	4.986913E-1	5.191152E-1	5.221018E-1	5.152754E-1	4.892606E-1	4.900999E-1	5.096012E-1	5.215922E-1	5.018817E-1	4.885987E-1	4.834394E-1	4.963562E-1	4.897073E-1	4.784735E-1	4.867247E-1	5.087570E-1	4.932728E-1
5.370170E+2	5.041178E-1	4.904746E-1	5.255257E-1	5.174494E-1	4.951228E-1	5.290148E-1	5.282249E-1	4.923094E-1	4.986969E-1	4.990035E-1	4.894553E-1	4.952927E-1	4.760965E-1	5.288709E-1	4.841239E-1	5.121466E-1	5.244769E-1	5.098976E-1	5.399385E-1	4.903163E-1	5.075071E-1	5.220239E-1	4.872662E-1	5.268925E-1	4.940408E-1	5.361034E-1	5.010605E-1	5.209431E-1	5.002160E-1	5.191241E-1	5.055737E-1	4.875251E-1	4.987595E-1	5.416163E-1	5.158229E-1	5.525594E-1	4.851021E-1	5.347218E-1	5.420080E-1	5.125888E-1	4.818066E-1	4.978808E-1	5.295183E-1	5.111086E-1	5.067539E-1	5.011679E-1	5.169560E-1	5.186789E-1	5.393179E-1	5.192933E-1	4.835945E-1	5.304118E-1	4.885094E-1	4.986845E-1	5.001251E-1	4.689353E-1	4.970552E-1	5.303403E-1	4.914212E-1	4.880520E-1	5.013529E-1	5.257957E-1	5.095856E-1	5.020497E-1	4.800658E-1	5.016604E-1	4.960863E-1	4.681535E-1	5.025663E-1	5.113031E-1	5.092719E-1	4.943662E-1	5.321241E-1	5.122387E-1	4.884690E-1	5.193622E-1	5.157033E-1	5.074829E-1	4.855813E-1	4.993278E-1	5.445273E-1	5.218042E-1	5.240148E-1	5.295137E-1	4.967531E-1	5.140943E-1	5.179752E-1	4.987451E-1	5.036776E-1	5.289838E-1	5.284827E-1	5.227276E-1	4.966216E-1	5.219240E-1	5.333555E-1	4.965552E-1	4.989343E-1	5.346939E-1	5.104818E-1	5.293076E-1	5.221514E-1	4.899728E-1	5.160822E-1	5.111605E-1	5.028588E-1	5.118368E-1	4.821848E-1	4.786465E-1	4.629536E-1	5.200380E-1	5.141281E-1	5.038279E-1	5.249330E-1	5.422623E-1	5.134041E-1	5.270766E-1	4.974638E-1	4.842830E-1	4.982645E-1	4.871197E-1	5.306772E-1	4.882776E-1	5.338010E-1	4.898601E-1	5.267567E-1	5.369881E-1	4.944116E-1	5.359095E-1	5.427611E-1	5.098335E-1	5.075362E-1	5.334467E-1	5.202306E-1	5.010846E-1	5.214437E-1	5.172690E-1	5.080184E-1	5.112594E-1	5.182902E-1	4.991248E-1	5.194667E-1	5.168881E-1	5.120141E-1	5.172165E-1	4.764955E-1	5.413487E-1	5.101394E-1	5.074129E-1	4.989708E-1	5.206951E-1	5.060099E-1	5.129957E-1	4.922334E-1	5.050948E-1	5.399733E-1	5.029476E-1	5.103844E-1	5.164300E-1	5.219492E-1	5.172922E-1	5.240552E-1	5.286087E-1	4.733814E-1	4.916131E-1	5.110647E-1	4.960147E-1	4.856239E-1	5.068370E-1	4.936022E-1	4.987517E-1	5.259963E-1
5.372640E+2	5.597985E-1	5.430229E-1	5.406723E-1	5.941844E-1	5.622699E-1	5.381270E-1	5.289936E-1	5.501023E-1	5.484397E-1	5.442344E-1	5.412909E-1	5.011938E-1	5.240107E-1	5.358974E-1	5.614214E-1	5.792463E-1	5.507979E-1	5.600909E-1	5.459603E-1	5.466113E-1	5.149155E-1	5.810009E-1	5.467806E-1	5.471465E-1	5.283750E-1	5.434861E-1	5.291492E-1	5.322532E-1	5.661157E-1	5.043115E-1	5.522691E-1	5.326187E-1	5.322980E-1	5.723985E-1	5.635511E-1	5.398052E-1	5.363893E-1	5.677714E-1	5.478794E-1	5.390252E-1	5.456727E-1	5.457840E-1	5.385522E-1	5.480431E-1	5.580179E-1	5.389044E-1	5.532401E-1	5.532163E-1	5.354628E-1	5.320312E-1	5.676707E-1	5.618698E-1	5.584186E-1	5.693045E-1	5.415988E-1	5.521987E-1	5.542622E-1	5.326768E-1	5.442143E-1	5.809623E-1	5.680520E-1	5.749639E-1	5.257475E-1	5.510612E-1	5.487943E-1	5.100564E-1	5.336935E-1	5.377722E-1	5.281241E-1	5.248598E-1	5.477247E-1	5.928136E-1	5.725596E-1	5.613927E-1	5.309664E-1	5.396543E-1	5.648845E-1	5.446253E-1	5.561990E-1	5.490445E-1	5.613410E-1	5.335428E-1	5.240886E-1	5.336114E-1	5.795377E-1	5.544153E-1	5.414879E-1	5.345151E-1	5.356643E-1	5.804778E-1	5.462556E-1	5.168720E-1	5.595951E-1	5.776194E-1	5.441577E-1	5.600942E-1	5.439930E-1	5.609524E-1	5.367189E-1	5.519932E-1	5.491171E-1	5.463966E-1	5.425494E-1	5.666396E-1	5.167315E-1	5.648908E-1	5.288250E-1	5.644274E-1	5.339021E-1	5.361405E-1	5.852866E-1	5.650587E-1	5.317568E-1	5.405873E-1	5.354231E-1	5.572033E-1	5.420475E-1	5.397252E-1	5.437876E-1	5.819192E-1	5.429459E-1	5.421090E-1	5.784737E-1	5.558424E-1	5.247860E-1	5.524042E-1	5.576020E-1	5.507799E-1	5.684583E-1	5.274921E-1	5.477320E-1	5.869232E-1	5.383880E-1	5.588720E-1	5.617871E-1	5.336372E-1	5.554813E-1	5.603314E-1	5.291091E-1	5.623777E-1	5.380614E-1	5.616886E-1	5.625174E-1	5.550420E-1	5.794529E-1	5.381420E-1	5.711576E-1	5.501655E-1	5.565423E-1	5.846908E-1	5.366076E-1	5.862765E-1	5.960271E-1	5.443910E-1	5.891307E-1	5.530620E-1	5.963345E-1	5.303576E-1	5.563021E-1	5.581418E-1	5.465871E-1	5.721229E-1	5.699373E-1	5.306142E-1	5.720258E-1	5.582019E-1	5.594936E-1	5.557381E-1	5.651442E-1	5.861398E-1	5.395708E-1
5.375110E+2	6.633525E-1	6.615845E-1	6.892585E-1	6.701946E-1	6.893454E-1	6.846512E-1	6.729436E-1	6.632431E-1	7.154181E-1	6.656020E-1	6.799916E-1	6.641298E-1	6.461813E-1	6.787462E-1	6.750689E-1	6.977438E-1	7.170466E-1	6.870927E-1	6.569661E-1	7.048693E-1	6.920168E-1	6.590837E-1	6.898239E-1	6.689768E-1	6.719638E-1	7.265631E-1	6.507260E-1	6.869773E-1	6.588920E-1	6.243251E-1	6.621554E-1	6.834412E-1	6.519343E-1	7.154496E-1	6.705379E-1	6.751031E-1	6.927393E-1	6.922097E-1	6.846386E-1	6.819582E-1	6.476607E-1	6.648307E-1	6.797156E-1	6.530506E-1	6.640104E-1	6.824998E-1	6.997133E-1	6.871612E-1	6.982093E-1	6.690472E-1	7.077741E-1	6.831746E-1	6.707776E-1	6.764173E-1	6.745034E-1	6.429915E-1	7.023794E-1	6.359870E-1	6.773841E-1	6.875362E-1	7.173316E-1	6.913899E-1	6.552208E-1	7.053582E-1	6.828540E-1	6.724253E-1	6.851889E-1	6.777701E-1	6.691996E-1	6.730017E-1	6.759481E-1	6.922738E-1	6.747032E-1	6.826059E-1	6.710985E-1	6.522944E-1	6.824464E-1	6.693138E-1	6.827710E-1	6.813548E-1	7.199357E-1	6.566323E-1	6.679919E-1	7.152814E-1	7.218630E-1	6.443769E-1	6.938206E-1	6.981066E-1	6.989748E-1	6.634431E-1	6.982823E-1	6.942080E-1	6.874356E-1	7.170570E-1	6.817936E-1	6.769166E-1	6.858928E-1	6.996868E-1	6.953535E-1	7.105660E-1	6.885468E-1	6.669456E-1	6.984401E-1	6.930673E-1	6.685246E-1	6.625935E-1	6.948335E-1	6.739113E-1	6.620229E-1	7.063952E-1	7.155273E-1	6.575847E-1	6.528118E-1	6.841379E-1	7.081846E-1	6.920099E-1	6.640587E-1	6.862105E-1	6.429605E-1	6.998998E-1	7.150242E-1	7.098461E-1	6.833729E-1	6.982074E-1	6.983298E-1	7.054041E-1	6.877000E-1	6.705342E-1	7.090754E-1	6.759329E-1	6.894499E-1	6.987216E-1	6.646627E-1	6.911030E-1	6.968064E-1	7.001033E-1	6.977991E-1	6.864136E-1	6.487876E-1	7.036713E-1	6.816757E-1	7.015057E-1	6.924251E-1	6.867440E-1	6.637064E-1	6.871506E-1	6.677732E-1	7.351630E-1	6.890483E-1	7.162261E-1	6.729376E-1	6.929508E-1	6.862142E-1	7.077584E-1	7.118144E-1	6.946314E-1	6.959665E-1	6.682597E-1	6.468188E-1	6.982912E-1	6.837002E-1	7.264004E-1	6.894734E-1	6.738693E-1	7.073324E-1	6.587553E-1	6.600184E-1	6.992605E-1	6.775376E-1	6.581618E-1	6.420664E-1
5.377740E+2	8.130417E-1	8.341113E-1	7.859341E-1	8.293504E-1	8.320382E-1	8.733223E-1	8.048610E-1	8.148262E-1	7.915033E-1	7.907988E-1	8.415504E-1	8.636272E-1	8.045376E-1	8.511039E-1	8.464163E-1	8.431999E-1	8.113899E-1	7.848608E-1	8.267322E-1	8.008198E-1	7.913750E-1	8.382855E-1	8.310623E-1	8.322670E-1	7.946368E-1	8.401158E-1	7.899711E-1	8.214022E-1	8.144479E-1	7.667400E-1	8.388107E-1	8.040315E-1	8.445814E-1	8.818962E-1	8.400163E-1	8.138396E-1	8.096892E-1	8.433412E-1	7.808693E-1	8.618640E-1	8.036152E-1	7.938926E-1	8.369157E-1	7.625357E-1	8.241595E-1	8.571853E-1	8.584956E-1	8.542954E-1	7.899892E-1	8.451863E-1	8.186817E-1	8.524778E-1	7.867497E-1	8.070139E-1	8.335474E-1	8.142810E-1	8.483413E-1	8.031002E-1	8.399550E-1	8.189450E-1	7.983150E-1	7.863523E-1	8.303033E-1	7.939011E-1	8.280358E-1	8.160750E-1	8.598234E-1	8.295098E-1	8.051417E-1	8.451908E-1	8.346107E-1	7.924505E-1	8.731088E-1	8.421478E-1	8.041293E-1	7.837076E-1	8.208021E-1	8.210029E-1	8.226546E-1	7.980538E-1	8.504015E-1	8.171641E-1	8.334188E-1	8.498307E-1	8.513423E-1	8.301073E-1	8.558178E-1	7.935681E-1	8.015738E-1	8.403173E-1	8.413123E-1	7.895444E-1	8.357531E-1	8.239542E-1	8.188775E-1	8.119050E-1	7.946421E-1	8.718357E-1	8.230765E-1	8.448988E-1	8.101919E-1	7.841446E-1	8.164217E-1	8.248114E-1	8.074968E-1	8.212544E-1	8.195759E-1	8.189907E-1	7.966998E-1	8.298237E-1	8.651642E-1	7.943597E-1	7.939816E-1	8.489968E-1	8.166339E-1	8.131520E-1	8.155416E-1	8.142914E-1	8.064497E-1	8.150285E-1	8.245700E-1	8.160139E-1	7.991724E-1	8.127823E-1	8.291335E-1	8.690380E-1	8.038218E-1	8.366323E-1	8.264454E-1	8.202383E-1	8.111790E-1	8.248756E-1	8.032453E-1	8.399999E-1	8.425534E-1	7.960274E-1	8.149603E-1	8.451218E-1	8.259690E-1	8.449994E-1	8.142030E-1	8.258369E-1	8.158326E-1	8.596715E-1	7.954390E-1	8.266035E-1	7.650813E-1	7.850321E-1	7.678391E-1	8.591813E-1	8.375114E-1	8.318396E-1	8.876334E-1	8.811780E-1	8.720477E-1	8.638444E-1	8.549722E-1	7.993076E-1	8.476324E-1	8.307500E-1	8.166784E-1	8.004225E-1	8.319564E-1	7.846025E-1	8.081825E-1	8.128107E-1	8.185260E-1	8.412729E-1	8.197197E-1	7.971166E-1	8.511156E-1
5.380110E+2	8.887759E-1	9.133951E-1	8.641532E-1	8.588252E-1	8.880061E-1	9.188251E-1	8.839412E-1	8.789907E-1	8.363931E-1	8.714227E-1	8.974000E-1	8.815568E-1	8.275718E-1	8.883562E-1	8.865380E-1	8.698714E-1	8.938125E-1	8.404960E-1	8.667214E-1	8.969548E-1	9.030211E-1	8.984837E-1	8.941818E-1	8.838197E-1	8.561019E-1	8.886402E-1	8.757710E-1	9.120078E-1	8.689424E-1	8.821932E-1	8.970532E-1	8.286582E-1	8.600227E-1	8.619546E-1	8.693194E-1	8.645702E-1	8.491830E-1	8.961445E-1	8.453219E-1	8.563706E-1	8.738043E-1	8.804949E-1	8.629520E-1	8.938533E-1	8.796756E-1	9.248161E-1	8.829330E-1	8.921010E-1	8.378232E-1	8.433019E-1	8.530818E-1	8.724828E-1	8.612904E-1	8.456966E-1	9.248922E-1	9.133837E-1	8.903555E-1	8.659458E-1	8.588804E-1	8.548329E-1	8.740328E-1	8.628941E-1	9.108341E-1	8.287190E-1	8.990220E-1	8.590689E-1	8.722737E-1	8.911630E-1	8.520895E-1	8.628201E-1	8.952033E-1	8.151522E-1	9.059464E-1	8.638962E-1	8.684714E-1	8.562121E-1	8.688393E-1	8.754701E-1	8.402087E-1	8.643548E-1	9.047383E-1	8.858013E-1	8.711747E-1	9.160959E-1	9.013425E-1	8.607535E-1	8.586577E-1	8.422693E-1	8.845627E-1	8.913705E-1	8.831244E-1	8.677809E-1	8.541324E-1	8.567950E-1	8.843196E-1	8.484632E-1	8.634082E-1	8.392137E-1	8.745880E-1	8.608521E-1	8.812770E-1	8.563350E-1	8.614053E-1	8.459549E-1	8.233708E-1	8.734785E-1	8.145740E-1	8.668431E-1	8.503939E-1	8.491434E-1	9.172704E-1	8.675621E-1	8.940485E-1	9.047175E-1	8.530553E-1	8.374273E-1	9.371198E-1	8.433543E-1	9.076830E-1	8.583691E-1	8.850370E-1	9.260851E-1	8.341366E-1	8.622196E-1	9.031668E-1	9.289843E-1	8.781079E-1	8.692043E-1	8.559210E-1	8.558032E-1	8.708576E-1	8.891697E-1	8.836812E-1	8.671581E-1	9.344437E-1	8.617504E-1	8.592892E-1	8.968779E-1	8.689241E-1	8.502335E-1	9.116184E-1	8.793051E-1	8.534006E-1	8.582928E-1	8.912342E-1	9.107116E-1	8.157193E-1	9.166538E-1	8.639015E-1	8.734527E-1	8.464563E-1	8.749189E-1	8.771513E-1	8.809762E-1	9.238560E-1	8.938339E-1	8.855367E-1	8.810868E-1	9.285025E-1	8.512991E-1	8.752477E-1	8.953371E-1	8.481655E-1	8.824039E-1	8.513359E-1	9.103552E-1	8.181075E-1	8.805044E-1	9.109461E-1	8.566986E-1	1.061303E+0
5.382690E+2	1.097316E+0	1.091825E+0	1.111131E+0	1.053530E+0	1.100575E+0	1.142727E+0	1.077953E+0	1.083181E+0	1.113476E+0	1.112868E+0	1.074900E+0	1.082258E+0	1.097368E+0	1.086979E+0	1.095847E+0	1.130154E+0	1.128972E+0	1.147511E+0	1.131256E+0	1.126956E+0	1.114091E+0	1.050254E+0	1.119877E+0	1.052850E+0	1.118370E+0	1.124055E+0	1.080602E+0	1.079715E+0	1.073798E+0	1.111997E+0	1.107743E+0	1.106474E+0	1.092080E+0	1.111045E+0	1.116421E+0	1.129748E+0	1.001074E+0	1.104172E+0	1.104217E+0	1.122321E+0	1.089914E+0	1.143139E+0	1.121052E+0	1.058104E+0	1.069495E+0	1.055747E+0	1.109046E+0	1.114014E+0	1.077801E+0	1.061692E+0	1.089666E+0	1.083059E+0	1.050348E+0	1.089367E+0	1.075464E+0	1.062986E+0	1.141804E+0	1.099897E+0	1.102510E+0	1.090454E+0	1.042263E+0	1.102319E+0	1.072915E+0	1.087555E+0	1.105647E+0	1.078517E+0	1.061671E+0	1.038214E+0	1.126314E+0	1.015648E+0	1.115337E+0	1.091015E+0	1.128579E+0	1.040349E+0	1.039443E+0	1.099156E+0	1.062345E+0	1.099981E+0	1.066024E+0	1.114278E+0	1.100189E+0	1.087369E+0	1.128302E+0	1.069955E+0	1.098067E+0	1.074726E+0	1.100457E+0	1.104845E+0	1.074191E+0	1.134513E+0	1.085776E+0	1.079747E+0	1.094554E+0	1.119609E+0	1.076584E+0	1.074559E+0	1.118344E+0	1.044753E+0	1.120401E+0	1.081633E+0	1.052559E+0	1.125974E+0	1.049199E+0	1.104216E+0	1.004293E+0	1.072704E+0	1.081728E+0	1.112155E+0	1.068609E+0	1.074439E+0	1.101426E+0	1.066794E+0	1.037024E+0	1.097790E+0	1.044878E+0	1.059705E+0	1.089908E+0	1.086914E+0	1.049011E+0	1.033854E+0	1.036803E+0	1.050540E+0	1.095526E+0	1.084865E+0	1.084154E+0	1.080487E+0	1.103921E+0	1.092278E+0	1.123067E+0	1.034244E+0	1.075214E+0	1.099772E+0	1.035881E+0	1.085840E+0	1.107924E+0	1.062021E+0	1.101666E+0	1.062934E+0	1.081093E+0	1.101002E+0	1.134153E+0	1.065691E+0	1.080405E+0	1.130600E+0	1.106511E+0	1.076249E+0	1.039384E+0	1.077587E+0	1.039244E+0	1.091405E+0	1.099967E+0	1.117009E+0	1.063647E+0	1.098909E+0	1.131204E+0	1.095258E+0	1.113907E+0	1.081296E+0	1.085930E+0	1.066689E+0	1.080565E+0	1.056439E+0	1.033097E+0	1.112646E+0	1.045692E+0	1.071611E+0	1.066250E+0	1.124243E+0	1.057078E+0	1.036978E+0	1.147491E+0
5.385110E+2	1.351824E+0	1.327507E+0	1.386146E+0	1.390224E+0	1.291520E+0	1.381475E+0	1.349191E+0	1.349946E+0	1.351304E+0	1.346517E+0	1.391626E+0	1.356018E+0	1.323063E+0	1.327403E+0	1.398445E+0	1.316950E+0	1.336177E+0	1.307377E+0	1.369894E+0	1.299874E+0	1.331870E+0	1.349031E+0	1.335395E+0	1.378755E+0	1.300122E+0	1.407287E+0	1.311645E+0	1.348215E+0	1.321543E+0	1.360726E+0	1.330021E+0	1.324961E+0	1.331137E+0	1.348340E+0	1.352110E+0	1.358479E+0	1.293273E+0	1.345549E+0	1.356100E+0	1.342728E+0	1.358086E+0	1.291038E+0	1.343857E+0	1.300178E+0	1.263783E+0	1.295158E+0	1.385965E+0	1.336545E+0	1.355113E+0	1.366302E+0	1.305736E+0	1.325586E+0	1.299404E+0	1.355330E+0	1.345572E+0	1.272297E+0	1.367238E+0	1.352266E+0	1.331206E+0	1.335477E+0	1.330310E+0	1.313608E+0	1.333828E+0	1.337165E+0	1.325746E+0	1.344628E+0	1.355907E+0	1.339559E+0	1.328640E+0	1.334567E+0	1.354787E+0	1.340451E+0	1.362824E+0	1.343422E+0	1.307326E+0	1.310593E+0	1.337840E+0	1.319191E+0	1.300173E+0	1.331716E+0	1.356681E+0	1.337178E+0	1.312146E+0	1.375259E+0	1.321716E+0	1.365323E+0	1.312734E+0	1.336028E+0	1.335446E+0	1.341989E+0	1.370458E+0	1.342751E+0	1.343594E+0	1.376814E+0	1.336307E+0	1.342933E+0	1.366111E+0	1.325831E+0	1.335472E+0	1.384068E+0	1.310570E+0	1.327400E+0	1.332922E+0	1.338115E+0	1.323948E+0	1.308955E+0	1.307414E+0	1.321934E+0	1.273780E+0	1.338855E+0	1.358936E+0	1.355526E+0	1.333650E+0	1.339370E+0	1.309227E+0	1.336381E+0	1.345142E+0	1.298343E+0	1.304905E+0	1.319730E+0	1.337344E+0	1.392478E+0	1.304960E+0	1.298459E+0	1.356640E+0	1.329719E+0	1.296660E+0	1.354093E+0	1.296022E+0	1.262441E+0	1.292479E+0	1.319246E+0	1.316360E+0	1.320338E+0	1.366744E+0	1.342454E+0	1.398076E+0	1.327194E+0	1.322836E+0	1.367318E+0	1.340837E+0	1.361385E+0	1.350639E+0	1.355149E+0	1.251399E+0	1.373800E+0	1.352714E+0	1.375191E+0	1.322281E+0	1.334772E+0	1.338972E+0	1.378773E+0	1.285133E+0	1.302618E+0	1.364008E+0	1.363860E+0	1.361114E+0	1.348628E+0	1.304483E+0	1.336006E+0	1.321487E+0	1.378118E+0	1.341017E+0	1.299478E+0	1.347499E+0	1.295501E+0	1.344186E+0	1.310467E+0	1.307051E+0	1.272933E+0	1.432425E+0
5.387650E+2	1.533277E+0	1.491798E+0	1.514820E+0	1.498472E+0	1.548936E+0	1.504730E+0	1.496350E+0	1.473010E+0	1.534760E+0	1.490068E+0	1.567999E+0	1.516251E+0	1.499211E+0	1.533874E+0	1.513511E+0	1.461076E+0	1.517431E+0	1.520073E+0	1.512036E+0	1.497244E+0	1.478693E+0	1.469447E+0	1.496589E+0	1.494221E+0	1.481437E+0	1.494022E+0	1.503585E+0	1.537464E+0	1.524369E+0	1.470363E+0	1.500842E+0	1.509657E+0	1.535863E+0	1.504032E+0	1.513548E+0	1.495628E+0	1.449952E+0	1.485974E+0	1.486009E+0	1.483826E+0	1.464883E+0	1.484866E+0	1.457604E+0	1.492662E+0	1.490492E+0	1.436617E+0	1.477260E+0	1.544172E+0	1.459053E+0	1.545950E+0	1.504085E+0	1.505335E+0	1.443295E+0	1.496705E+0	1.507442E+0	1.504142E+0	1.515246E+0	1.455225E+0	1.470339E+0	1.456315E+0	1.492177E+0	1.477698E+0	1.453103E+0	1.520957E+0	1.555719E+0	1.494093E+0	1.461880E+0	1.443796E+0	1.491747E+0	1.447250E+0	1.461876E+0	1.524570E+0	1.465372E+0	1.490182E+0	1.446571E+0	1.500141E+0	1.489841E+0	1.470500E+0	1.464387E+0	1.488315E+0	1.535570E+0	1.554038E+0	1.498198E+0	1.461814E+0	1.512408E+0	1.498608E+0	1.455437E+0	1.542269E+0	1.502467E+0	1.471782E+0	1.476872E+0	1.464209E+0	1.503899E+0	1.515151E+0	1.493103E+0	1.506544E+0	1.462355E+0	1.497345E+0	1.478902E+0	1.466495E+0	1.533068E+0	1.459376E+0	1.520682E+0	1.484639E+0	1.492996E+0	1.441703E+0	1.393269E+0	1.476853E+0	1.462103E+0	1.465348E+0	1.555647E+0	1.506635E+0	1.463955E+0	1.474289E+0	1.464762E+0	1.451238E+0	1.438581E+0	1.435520E+0	1.440418E+0	1.470453E+0	1.484303E+0	1.496858E+0	1.468336E+0	1.519409E+0	1.510960E+0	1.442709E+0	1.529180E+0	1.462778E+0	1.501290E+0	1.451627E+0	1.528436E+0	1.473775E+0	1.514578E+0	1.495628E+0	1.489662E+0	1.500868E+0	1.483651E+0	1.532668E+0	1.485463E+0	1.493345E+0	1.433737E+0	1.529853E+0	1.492928E+0	1.497375E+0	1.483065E+0	1.453644E+0	1.453822E+0	1.530543E+0	1.440654E+0	1.522786E+0	1.490000E+0	1.468454E+0	1.472153E+0	1.465107E+0	1.556570E+0	1.454860E+0	1.486909E+0	1.512547E+0	1.478663E+0	1.466757E+0	1.481511E+0	1.523452E+0	1.501831E+0	1.508078E+0	1.481026E+0	1.475510E+0	1.455825E+0	1.467735E+0	1.509194E+0	1.507699E+0	1.565329E+0
5.390340E+2	1.845621E+0	1.815142E+0	1.775292E+0	1.751851E+0	1.791961E+0	1.813250E+0	1.753961E+0	1.721742E+0	1.821493E+0	1.756672E+0	1.831693E+0	1.790639E+0	1.784887E+0	1.801266E+0	1.831301E+0	1.789862E+0	1.746865E+0	1.742161E+0	1.788927E+0	1.738896E+0	1.763366E+0	1.784272E+0	1.792181E+0	1.789865E+0	1.798168E+0	1.895943E+0	1.718692E+0	1.755008E+0	1.734980E+0	1.760028E+0	1.753642E+0	1.807464E+0	1.772336E+0	1.793787E+0	1.773760E+0	1.782310E+0	1.732649E+0	1.788349E+0	1.790858E+0	1.726755E+0	1.789085E+0	1.734810E+0	1.789295E+0	1.784666E+0	1.720957E+0	1.785220E+0	1.804975E+0	1.809588E+0	1.764390E+0	1.788580E+0	1.782572E+0	1.818716E+0	1.795989E+0	1.785551E+0	1.755188E+0	1.754397E+0	1.823373E+0	1.700375E+0	1.747028E+0	1.718984E+0	1.815881E+0	1.803454E+0	1.781415E+0	1.810399E+0	1.778442E+0	1.715151E+0	1.806814E+0	1.791767E+0	1.769555E+0	1.792528E+0	1.735272E+0	1.808897E+0	1.843831E+0	1.724026E+0	1.688223E+0	1.781251E+0	1.764506E+0	1.725434E+0	1.690137E+0	1.760528E+0	1.754906E+0	1.788339E+0	1.790873E+0	1.776567E+0	1.786783E+0	1.768605E+0	1.788815E+0	1.743459E+0	1.721744E+0	1.744465E+0	1.852567E+0	1.756887E+0	1.816974E+0	1.722933E+0	1.760233E+0	1.735774E+0	1.774479E+0	1.798532E+0	1.796569E+0	1.799112E+0	1.698396E+0	1.700012E+0	1.705188E+0	1.790231E+0	1.697795E+0	1.733317E+0	1.674243E+0	1.753355E+0	1.710587E+0	1.770858E+0	1.672332E+0	1.759525E+0	1.792472E+0	1.738998E+0	1.787169E+0	1.780401E+0	1.724679E+0	1.676863E+0	1.729255E+0	1.772940E+0	1.770772E+0	1.661612E+0	1.787293E+0	1.798552E+0	1.749483E+0	1.730162E+0	1.727707E+0	1.729153E+0	1.754916E+0	1.767810E+0	1.755818E+0	1.781353E+0	1.750377E+0	1.776576E+0	1.822770E+0	1.794834E+0	1.715440E+0	1.767712E+0	1.745106E+0	1.708995E+0	1.717771E+0	1.724787E+0	1.753453E+0	1.785768E+0	1.796011E+0	1.684833E+0	1.761300E+0	1.755145E+0	1.709658E+0	1.728317E+0	1.719677E+0	1.796727E+0	1.756916E+0	1.774969E+0	1.823207E+0	1.796333E+0	1.764044E+0	1.679157E+0	1.753120E+0	1.713658E+0	1.666301E+0	1.753132E+0	1.740189E+0	1.728949E+0	1.745248E+0	1.724353E+0	1.684737E+0	1.682649E+0	1.721512E+0	1.696412E+0	1.659035E+0
5.392930E+2	1.946691E+0	1.976917E+0	1.959210E+0	1.915321E+0	1.939631E+0	1.996617E+0	1.917926E+0	1.942098E+0	1.963577E+0	1.969651E+0	1.938374E+0	1.996385E+0	1.906614E+0	2.033403E+0	1.944927E+0	1.970920E+0	1.972002E+0	1.948347E+0	1.932177E+0	1.966234E+0	1.982055E+0	1.935739E+0	1.971552E+0	1.942022E+0	1.909180E+0	1.986953E+0	1.955360E+0	1.948645E+0	1.917882E+0	1.912691E+0	1.953833E+0	1.945484E+0	2.012170E+0	1.959649E+0	1.944315E+0	1.986415E+0	1.907080E+0	1.928855E+0	1.921890E+0	1.952111E+0	1.895911E+0	1.908608E+0	1.888463E+0	1.904571E+0	1.922627E+0	1.931609E+0	1.980361E+0	1.995659E+0	1.927216E+0	1.856606E+0	1.976070E+0	1.914461E+0	1.946267E+0	1.882976E+0	1.962397E+0	1.928258E+0	2.016193E+0	1.956821E+0	1.915653E+0	1.843746E+0	1.943436E+0	1.960424E+0	1.943431E+0	1.904128E+0	1.936104E+0	1.925080E+0	1.984050E+0	1.924173E+0	1.961372E+0	1.909382E+0	1.928201E+0	1.878020E+0	1.972949E+0	1.848434E+0	1.895620E+0	1.892870E+0	1.920522E+0	1.891616E+0	1.940346E+0	1.935221E+0	1.936182E+0	1.956887E+0	1.875624E+0	1.944705E+0	1.963200E+0	1.890833E+0	1.911967E+0	1.937036E+0	1.937917E+0	1.926112E+0	1.973919E+0	1.885514E+0	1.897396E+0	1.882010E+0	1.910378E+0	1.915343E+0	1.871592E+0	1.901155E+0	1.973787E+0	1.910754E+0	1.918614E+0	1.911004E+0	1.937170E+0	1.919580E+0	1.934823E+0	1.847784E+0	1.829503E+0	2.005162E+0	1.833323E+0	1.939346E+0	1.872021E+0	1.829222E+0	1.942416E+0	1.853011E+0	1.883876E+0	1.931137E+0	1.898560E+0	1.897016E+0	1.928541E+0	1.911671E+0	1.925631E+0	1.871806E+0	1.877277E+0	1.916051E+0	1.904872E+0	1.954676E+0	1.896917E+0	1.942004E+0	1.864513E+0	1.853766E+0	1.875284E+0	1.868638E+0	1.878314E+0	1.899042E+0	1.947299E+0	1.872518E+0	1.959322E+0	1.918728E+0	1.914221E+0	1.920883E+0	1.877194E+0	1.879913E+0	1.930180E+0	1.887875E+0	1.847610E+0	1.837690E+0	1.921698E+0	1.887128E+0	1.875859E+0	1.927206E+0	1.878459E+0	1.883694E+0	1.862994E+0	1.956503E+0	1.964910E+0	1.919580E+0	1.848016E+0	1.877025E+0	1.877495E+0	1.895514E+0	1.844711E+0	1.835249E+0	1.919712E+0	1.887422E+0	1.916758E+0	1.847566E+0	1.867613E+0	1.842418E+0	1.832024E+0	2.028720E+0	1.877928E+0
5.395160E+2	2.039355E+0	1.915490E+0	2.000330E+0	2.038102E+0	2.057400E+0	2.029936E+0	2.033595E+0	2.030626E+0	1.984189E+0	1.984611E+0	1.979869E+0	1.971113E+0	2.012114E+0	2.035542E+0	2.033716E+0	2.023028E+0	1.999972E+0	1.990677E+0	2.017891E+0	1.973572E+0	2.025772E+0	2.032807E+0	2.066742E+0	2.024278E+0	2.028802E+0	1.992011E+0	1.933950E+0	2.016584E+0	2.001829E+0	1.979789E+0	1.935357E+0	1.956339E+0	2.037064E+0	2.034167E+0	2.067324E+0	2.030374E+0	1.943815E+0	2.048288E+0	2.033201E+0	1.944134E+0	1.970895E+0	1.930718E+0	1.935641E+0	1.980365E+0	1.945841E+0	1.929092E+0	2.051819E+0	2.009039E+0	1.932675E+0	1.976447E+0	2.017722E+0	1.991407E+0	1.994682E+0	1.986517E+0	1.980204E+0	2.021368E+0	1.974581E+0	1.996854E+0	2.001071E+0	1.917305E+0	1.985569E+0	1.991435E+0	1.948841E+0	1.982486E+0	2.021965E+0	1.967641E+0	2.054128E+0	1.979918E+0	1.900479E+0	1.963869E+0	1.985212E+0	1.958526E+0	2.008928E+0	1.935871E+0	1.908748E+0	1.978973E+0	1.991787E+0	1.927943E+0	1.992766E+0	1.985255E+0	1.972164E+0	1.963088E+0	2.000782E+0	2.009454E+0	1.981347E+0	1.957591E+0	1.956792E+0	1.927971E+0	1.971676E+0	1.915710E+0	1.969814E+0	2.031904E+0	1.979476E+0	1.917976E+0	1.963059E+0	1.944968E+0	2.008807E+0	1.917429E+0	1.978775E+0	2.069491E+0	1.953260E+0	1.876598E+0	1.958783E+0	1.957322E+0	1.909042E+0	1.935029E+0	2.003478E+0	1.949880E+0	1.887643E+0	1.999105E+0	2.017772E+0	1.913290E+0	1.911315E+0	1.908102E+0	1.985331E+0	1.904098E+0	1.926988E+0	1.936781E+0	1.931478E+0	1.930787E+0	1.996981E+0	1.949455E+0	1.918893E+0	1.910025E+0	1.925664E+0	1.936184E+0	1.924248E+0	1.892407E+0	1.934628E+0	1.868445E+0	1.929684E+0	1.978309E+0	1.951043E+0	1.938179E+0	1.957998E+0	1.978123E+0	2.015327E+0	1.965342E+0	1.947474E+0	1.871529E+0	1.913491E+0	1.853547E+0	1.952210E+0	1.909868E+0	1.905586E+0	1.942310E+0	1.875875E+0	2.052518E+0	1.939349E+0	1.953626E+0	1.908365E+0	1.980238E+0	1.948830E+0	1.986077E+0	2.006371E+0	1.865363E+0	1.915355E+0	1.887926E+0	1.929401E+0	1.962792E+0	1.889096E+0	1.923511E+0	1.953214E+0	1.920498E+0	1.905588E+0	1.948380E+0	1.979528E+0	1.886420E+0	1.913614E+0	1.931282E+0	1.904225E+0
5.397750E+2	2.067890E+0	2.000485E+0	2.125554E+0	2.065319E+0	2.036767E+0	2.065577E+0	2.060751E+0	2.054018E+0	2.048098E+0	2.084241E+0	2.062489E+0	2.022256E+0	2.027106E+0	2.029330E+0	2.064041E+0	2.097075E+0	2.038517E+0	2.075024E+0	2.145542E+0	2.064517E+0	2.065760E+0	2.073833E+0	2.101549E+0	2.059516E+0	2.020672E+0	2.139991E+0	2.000181E+0	2.078659E+0	1.977734E+0	2.002169E+0	2.118972E+0	2.060759E+0	2.026715E+0	2.081650E+0	2.153924E+0	2.057673E+0	2.004393E+0	2.108209E+0	2.083756E+0	2.017032E+0	1.980493E+0	2.017076E+0	2.057887E+0	2.013839E+0	2.013008E+0	2.000186E+0	2.081821E+0	2.043761E+0	2.012447E+0	1.967677E+0	2.003100E+0	2.007828E+0	2.069649E+0	2.036943E+0	2.087357E+0	2.028319E+0	2.075434E+0	1.980872E+0	2.018422E+0	1.993959E+0	2.042303E+0	2.037310E+0	2.002294E+0	2.005075E+0	1.973464E+0	1.966065E+0	2.003565E+0	2.068819E+0	2.003414E+0	2.006612E+0	1.984467E+0	2.062598E+0	2.049939E+0	1.955525E+0	2.000852E+0	2.039618E+0	1.985365E+0	2.008331E+0	2.036108E+0	2.007851E+0	2.086016E+0	2.076774E+0	2.031729E+0	2.046091E+0	1.956145E+0	1.967743E+0	2.001949E+0	2.038619E+0	2.050667E+0	2.031518E+0	2.004882E+0	2.007136E+0	1.980097E+0	1.972072E+0	1.993224E+0	1.994049E+0	2.021948E+0	1.969389E+0	2.015626E+0	2.010270E+0	2.045973E+0	2.033060E+0	1.983640E+0	2.075622E+0	1.947116E+0	1.937475E+0	2.007819E+0	1.943981E+0	1.946439E+0	1.968688E+0	2.043352E+0	1.921786E+0	2.035887E+0	2.004979E+0	2.033097E+0	2.012862E+0	1.967843E+0	1.945860E+0	1.985748E+0	1.964015E+0	1.985841E+0	1.919572E+0	1.998723E+0	1.970240E+0	2.006860E+0	2.046934E+0	1.967610E+0	1.979133E+0	2.060028E+0	1.985092E+0	1.979439E+0	1.986230E+0	1.963435E+0	1.975377E+0	2.020053E+0	1.982303E+0	2.104162E+0	1.973023E+0	2.016963E+0	1.989742E+0	1.969376E+0	2.000355E+0	1.983961E+0	2.028687E+0	2.037156E+0	1.984530E+0	1.958419E+0	2.044328E+0	1.940037E+0	2.015885E+0	2.021090E+0	1.985302E+0	1.931529E+0	2.019532E+0	2.063847E+0	2.018443E+0	1.966078E+0	1.970929E+0	1.926219E+0	1.908728E+0	1.937826E+0	2.000606E+0	1.989293E+0	1.962077E+0	1.939874E+0	1.958139E+0	2.031474E+0	1.939846E+0	2.041531E+0	1.923434E+0	2.029797E+0
5.400240E+2	2.056343E+0	2.003778E+0	2.069044E+0	2.074249E+0	2.007279E+0	2.037380E+0	2.025126E+0	2.002996E+0	1.956539E+0	2.052060E+0	1.999208E+0	2.083075E+0	2.008718E+0	2.071900E+0	2.045535E+0	2.087000E+0	2.091381E+0	1.964995E+0	2.012289E+0	2.005336E+0	1.967995E+0	2.023979E+0	2.062637E+0	2.032580E+0	1.977535E+0	2.109982E+0	2.004937E+0	2.052443E+0	1.966515E+0	2.010078E+0	1.977861E+0	1.984500E+0	1.958137E+0	2.054019E+0	2.020965E+0	1.947133E+0	1.969272E+0	2.004079E+0	2.061007E+0	2.052330E+0	1.906410E+0	2.040510E+0	1.977644E+0	1.984112E+0	2.030665E+0	2.002015E+0	2.036581E+0	2.018473E+0	1.985825E+0	2.045860E+0	2.086055E+0	1.975671E+0	2.003812E+0	1.965265E+0	2.026396E+0	1.935833E+0	2.002139E+0	1.939786E+0	2.027465E+0	1.974823E+0	2.022773E+0	1.951291E+0	1.997802E+0	2.051357E+0	2.024438E+0	1.933366E+0	2.005467E+0	1.999408E+0	2.010056E+0	2.001728E+0	2.034792E+0	1.979980E+0	2.025177E+0	1.949031E+0	2.015323E+0	1.960198E+0	2.024281E+0	2.017054E+0	1.988828E+0	1.989438E+0	2.010767E+0	2.020564E+0	1.971855E+0	2.046193E+0	1.916835E+0	1.981768E+0	1.941814E+0	2.027744E+0	1.985262E+0	1.960837E+0	1.994219E+0	1.994384E+0	1.952463E+0	1.952579E+0	1.952486E+0	1.924859E+0	1.979164E+0	1.937829E+0	1.996666E+0	2.006536E+0	2.027520E+0	1.887913E+0	1.918721E+0	1.962052E+0	1.923798E+0	1.954604E+0	1.958046E+0	1.957718E+0	1.912876E+0	1.951884E+0	1.970099E+0	1.938009E+0	2.033269E+0	1.996986E+0	1.988626E+0	1.932353E+0	1.961555E+0	1.973118E+0	1.988430E+0	1.957893E+0	1.984892E+0	1.941019E+0	1.948426E+0	1.996840E+0	1.953547E+0	1.958145E+0	1.995778E+0	1.867003E+0	1.928094E+0	1.949596E+0	1.989453E+0	1.988514E+0	1.919599E+0	1.965763E+0	2.007597E+0	2.023628E+0	1.943316E+0	2.054551E+0	1.957178E+0	2.010995E+0	1.948092E+0	1.908217E+0	2.028593E+0	1.963027E+0	1.943795E+0	1.963272E+0	1.883086E+0	2.024892E+0	1.899682E+0	1.894911E+0	1.968518E+0	1.946854E+0	1.966532E+0	2.032501E+0	2.025475E+0	1.940035E+0	1.942408E+0	1.911543E+0	1.922790E+0	1.891966E+0	1.927415E+0	1.973712E+0	1.971805E+0	1.969075E+0	1.974573E+0	1.908619E+0	1.954087E+0	1.926276E+0	1.959282E+0	1.961327E+0	1.980251E+0
5.402900E+2	1.874775E+0	1.835553E+0	1.814931E+0	1.843542E+0	1.877578E+0	1.881437E+0	1.858326E+0	1.859566E+0	1.813915E+0	1.840968E+0	1.842271E+0	1.791271E+0	1.899159E+0	1.858722E+0	1.822887E+0	1.887017E+0	1.830270E+0	1.831324E+0	1.894096E+0	1.833747E+0	1.843019E+0	1.894827E+0	1.858179E+0	1.862098E+0	1.834688E+0	1.926497E+0	1.756060E+0	1.906989E+0	1.814812E+0	1.859023E+0	1.847802E+0	1.836376E+0	1.822747E+0	1.852731E+0	1.884133E+0	1.812674E+0	1.765612E+0	1.868253E+0	1.830070E+0	1.857218E+0	1.776988E+0	1.778069E+0	1.832696E+0	1.862265E+0	1.808751E+0	1.795492E+0	1.838057E+0	1.901431E+0	1.805132E+0	1.796031E+0	1.856530E+0	1.918543E+0	1.849827E+0	1.744256E+0	1.785806E+0	1.796732E+0	1.868219E+0	1.782549E+0	1.760277E+0	1.866174E+0	1.873843E+0	1.858436E+0	1.774127E+0	1.826330E+0	1.849110E+0	1.800502E+0	1.787208E+0	1.863118E+0	1.833270E+0	1.766757E+0	1.790780E+0	1.794641E+0	1.815077E+0	1.735277E+0	1.788130E+0	1.841302E+0	1.873530E+0	1.800557E+0	1.806392E+0	1.789167E+0	1.806829E+0	1.806107E+0	1.840275E+0	1.791539E+0	1.768271E+0	1.850527E+0	1.810084E+0	1.810925E+0	1.736609E+0	1.795232E+0	1.800559E+0	1.849287E+0	1.841815E+0	1.788334E+0	1.792703E+0	1.739810E+0	1.815559E+0	1.763470E+0	1.801088E+0	1.837311E+0	1.811844E+0	1.792912E+0	1.793456E+0	1.781969E+0	1.750498E+0	1.782330E+0	1.786588E+0	1.788261E+0	1.760601E+0	1.865000E+0	1.818965E+0	1.799237E+0	1.787179E+0	1.815187E+0	1.804303E+0	1.723951E+0	1.853649E+0	1.755065E+0	1.864195E+0	1.845668E+0	1.772638E+0	1.769068E+0	1.830343E+0	1.785306E+0	1.812015E+0	1.845844E+0	1.764554E+0	1.764311E+0	1.825447E+0	1.718736E+0	1.787928E+0	1.834932E+0	1.764671E+0	1.850934E+0	1.868936E+0	1.744189E+0	1.798658E+0	1.774285E+0	1.783455E+0	1.757026E+0	1.782925E+0	1.785184E+0	1.786091E+0	1.818247E+0	1.788864E+0	1.779613E+0	1.794919E+0	1.816721E+0	1.774692E+0	1.846217E+0	1.843065E+0	1.804331E+0	1.752820E+0	1.857533E+0	1.862135E+0	1.788194E+0	1.807551E+0	1.763561E+0	1.771769E+0	1.726825E+0	1.767276E+0	1.809738E+0	1.819708E+0	1.780461E+0	1.759050E+0	1.815104E+0	1.878467E+0	1.807987E+0	1.767137E+0	1.755247E+0	1.960222E+0
5.405080E+2	1.838798E+0	1.777131E+0	1.816382E+0	1.802534E+0	1.769145E+0	1.819441E+0	1.827194E+0	1.801216E+0	1.811902E+0	1.756694E+0	1.758461E+0	1.835544E+0	1.809109E+0	1.774353E+0	1.769304E+0	1.831683E+0	1.862451E+0	1.871262E+0	1.730219E+0	1.790948E+0	1.766592E+0	1.846789E+0	1.818643E+0	1.792343E+0	1.767740E+0	1.803254E+0	1.736150E+0	1.803847E+0	1.792494E+0	1.808038E+0	1.796116E+0	1.786055E+0	1.778161E+0	1.889572E+0	1.880372E+0	1.766799E+0	1.742358E+0	1.803367E+0	1.799282E+0	1.734785E+0	1.815741E+0	1.782216E+0	1.731184E+0	1.693221E+0	1.748409E+0	1.766056E+0	1.808412E+0	1.783644E+0	1.746212E+0	1.782024E+0	1.777200E+0	1.785167E+0	1.730983E+0	1.756747E+0	1.763357E+0	1.804481E+0	1.836448E+0	1.755808E+0	1.746088E+0	1.718745E+0	1.737975E+0	1.742435E+0	1.798444E+0	1.779599E+0	1.821660E+0	1.701571E+0	1.886912E+0	1.764254E+0	1.786703E+0	1.758060E+0	1.737833E+0	1.750011E+0	1.878975E+0	1.709186E+0	1.721525E+0	1.772146E+0	1.771577E+0	1.804963E+0	1.788699E+0	1.828171E+0	1.757913E+0	1.768703E+0	1.783718E+0	1.781533E+0	1.810447E+0	1.718226E+0	1.795974E+0	1.773878E+0	1.760473E+0	1.713130E+0	1.770624E+0	1.738697E+0	1.778867E+0	1.786085E+0	1.661887E+0	1.756103E+0	1.726934E+0	1.779974E+0	1.798033E+0	1.829649E+0	1.743559E+0	1.722349E+0	1.757646E+0	1.829038E+0	1.786602E+0	1.729338E+0	1.723636E+0	1.832061E+0	1.775189E+0	1.801127E+0	1.708163E+0	1.732568E+0	1.744518E+0	1.731315E+0	1.799816E+0	1.756178E+0	1.712523E+0	1.716376E+0	1.762127E+0	1.713333E+0	1.797933E+0	1.726870E+0	1.752081E+0	1.784165E+0	1.741666E+0	1.684914E+0	1.780001E+0	1.731730E+0	1.751684E+0	1.708941E+0	1.789400E+0	1.722733E+0	1.761713E+0	1.668134E+0	1.723840E+0	1.725876E+0	1.734525E+0	1.747120E+0	1.787831E+0	1.743401E+0	1.717588E+0	1.745767E+0	1.735621E+0	1.769521E+0	1.785625E+0	1.736585E+0	1.732593E+0	1.772435E+0	1.716876E+0	1.709707E+0	1.711817E+0	1.777304E+0	1.759318E+0	1.802340E+0	1.802002E+0	1.729888E+0	1.686577E+0	1.714807E+0	1.761806E+0	1.664708E+0	1.717870E+0	1.789419E+0	1.727370E+0	1.698033E+0	1.734050E+0	1.686225E+0	1.679152E+0	1.717713E+0	1.748450E+0	1.701334E+0	1.922561E+0
5.407680E+2	1.721623E+0	1.729145E+0	1.687370E+0	1.671371E+0	1.709251E+0	1.737826E+0	1.738999E+0	1.706696E+0	1.736069E+0	1.699307E+0	1.669444E+0	1.690865E+0	1.728463E+0	1.720486E+0	1.707415E+0	1.729430E+0	1.785714E+0	1.692905E+0	1.735612E+0	1.734390E+0	1.711976E+0	1.756738E+0	1.700495E+0	1.707420E+0	1.659294E+0	1.688252E+0	1.696785E+0	1.687728E+0	1.711807E+0	1.681901E+0	1.727778E+0	1.745952E+0	1.684806E+0	1.711618E+0	1.770635E+0	1.743897E+0	1.704947E+0	1.684398E+0	1.781270E+0	1.706752E+0	1.735539E+0	1.634371E+0	1.635833E+0	1.708537E+0	1.674728E+0	1.677202E+0	1.715201E+0	1.703802E+0	1.679838E+0	1.687388E+0	1.673091E+0	1.700565E+0	1.731195E+0	1.728172E+0	1.695695E+0	1.688093E+0	1.742695E+0	1.641783E+0	1.707261E+0	1.686248E+0	1.688068E+0	1.703559E+0	1.628626E+0	1.734566E+0	1.668434E+0	1.656105E+0	1.764297E+0	1.762575E+0	1.661506E+0	1.674167E+0	1.665472E+0	1.746622E+0	1.706129E+0	1.668154E+0	1.645961E+0	1.707900E+0	1.727815E+0	1.667270E+0	1.655353E+0	1.659800E+0	1.707045E+0	1.689495E+0	1.693697E+0	1.718661E+0	1.674898E+0	1.679399E+0	1.756976E+0	1.764048E+0	1.679651E+0	1.686427E+0	1.723413E+0	1.740447E+0	1.686996E+0	1.659344E+0	1.669832E+0	1.706090E+0	1.689777E+0	1.604537E+0	1.753088E+0	1.727081E+0	1.706503E+0	1.682453E+0	1.644369E+0	1.674190E+0	1.675331E+0	1.644200E+0	1.637284E+0	1.719195E+0	1.659313E+0	1.694771E+0	1.708493E+0	1.672662E+0	1.663172E+0	1.658314E+0	1.711004E+0	1.695477E+0	1.680156E+0	1.630670E+0	1.618187E+0	1.661909E+0	1.694098E+0	1.654455E+0	1.692419E+0	1.726886E+0	1.685431E+0	1.751323E+0	1.603357E+0	1.642212E+0	1.636598E+0	1.669291E+0	1.668973E+0	1.677665E+0	1.642663E+0	1.689276E+0	1.710812E+0	1.727821E+0	1.659486E+0	1.660446E+0	1.623540E+0	1.685968E+0	1.646861E+0	1.644868E+0	1.688622E+0	1.699016E+0	1.693922E+0	1.631408E+0	1.684191E+0	1.666505E+0	1.626309E+0	1.674129E+0	1.658851E+0	1.728318E+0	1.657694E+0	1.724130E+0	1.678446E+0	1.686210E+0	1.642291E+0	1.690650E+0	1.629897E+0	1.632964E+0	1.571567E+0	1.684461E+0	1.656104E+0	1.644184E+0	1.644977E+0	1.633934E+0	1.652068E+0	1.651808E+0	1.659644E+0	1.656035E+0	1.617565E+0
5.410340E+2	1.659463E+0	1.633643E+0	1.610151E+0	1.645390E+0	1.601338E+0	1.652648E+0	1.610809E+0	1.625024E+0	1.668997E+0	1.610978E+0	1.586559E+0	1.607166E+0	1.622026E+0	1.696103E+0	1.676113E+0	1.644618E+0	1.648279E+0	1.586565E+0	1.607544E+0	1.642258E+0	1.625105E+0	1.663210E+0	1.627361E+0	1.655410E+0	1.589835E+0	1.632299E+0	1.576846E+0	1.676754E+0	1.672776E+0	1.613284E+0	1.650833E+0	1.638903E+0	1.658265E+0	1.645596E+0	1.673046E+0	1.629135E+0	1.577797E+0	1.699732E+0	1.695284E+0	1.627880E+0	1.612918E+0	1.609056E+0	1.597635E+0	1.623962E+0	1.601647E+0	1.585991E+0	1.613644E+0	1.608810E+0	1.570245E+0	1.607615E+0	1.609820E+0	1.714926E+0	1.577538E+0	1.591904E+0	1.652114E+0	1.613966E+0	1.654042E+0	1.566632E+0	1.601531E+0	1.605628E+0	1.606975E+0	1.641818E+0	1.658377E+0	1.635079E+0	1.598317E+0	1.537536E+0	1.630653E+0	1.636515E+0	1.660363E+0	1.622530E+0	1.587587E+0	1.631446E+0	1.630090E+0	1.591218E+0	1.550172E+0	1.640219E+0	1.632824E+0	1.610847E+0	1.619040E+0	1.688306E+0	1.658666E+0	1.646172E+0	1.582920E+0	1.647456E+0	1.610112E+0	1.568531E+0	1.634918E+0	1.627992E+0	1.620019E+0	1.566678E+0	1.630961E+0	1.630370E+0	1.583677E+0	1.584129E+0	1.556566E+0	1.617718E+0	1.569638E+0	1.593422E+0	1.588158E+0	1.613498E+0	1.686722E+0	1.599946E+0	1.613683E+0	1.661605E+0	1.602265E+0	1.618678E+0	1.593895E+0	1.631975E+0	1.592878E+0	1.666907E+0	1.647658E+0	1.614550E+0	1.563116E+0	1.625981E+0	1.688513E+0	1.627651E+0	1.597023E+0	1.636848E+0	1.588840E+0	1.611418E+0	1.556155E+0	1.604747E+0	1.595311E+0	1.648482E+0	1.652410E+0	1.627953E+0	1.594965E+0	1.610100E+0	1.627057E+0	1.599330E+0	1.615478E+0	1.536866E+0	1.641134E+0	1.585121E+0	1.634280E+0	1.570275E+0	1.658245E+0	1.618386E+0	1.571963E+0	1.659210E+0	1.584095E+0	1.573088E+0	1.627036E+0	1.641695E+0	1.638947E+0	1.586718E+0	1.539544E+0	1.623505E+0	1.584144E+0	1.592585E+0	1.559364E+0	1.613579E+0	1.602633E+0	1.672145E+0	1.620553E+0	1.661456E+0	1.595773E+0	1.520230E+0	1.579319E+0	1.633756E+0	1.583800E+0	1.613247E+0	1.607199E+0	1.596786E+0	1.639593E+0	1.566916E+0	1.583119E+0	1.552429E+0	1.620033E+0	1.581636E+0	1.635179E+0
5.412850E+2	1.606928E+0	1.531197E+0	1.545157E+0	1.529557E+0	1.513955E+0	1.547735E+0	1.527491E+0	1.562261E+0	1.529239E+0	1.584337E+0	1.576199E+0	1.537537E+0	1.559696E+0	1.572117E+0	1.582975E+0	1.542367E+0	1.618635E+0	1.578779E+0	1.542394E+0	1.560474E+0	1.585471E+0	1.530326E+0	1.594612E+0	1.532480E+0	1.529876E+0	1.598013E+0	1.531943E+0	1.586660E+0	1.501090E+0	1.540065E+0	1.542791E+0	1.589730E+0	1.569959E+0	1.567322E+0	1.529602E+0	1.530730E+0	1.548516E+0	1.592033E+0	1.492564E+0	1.546682E+0	1.557959E+0	1.532903E+0	1.542113E+0	1.552049E+0	1.517094E+0	1.499558E+0	1.546025E+0	1.568749E+0	1.545323E+0	1.512454E+0	1.617987E+0	1.564924E+0	1.554078E+0	1.533407E+0	1.549995E+0	1.528323E+0	1.521084E+0	1.483747E+0	1.533273E+0	1.507187E+0	1.598107E+0	1.530554E+0	1.483449E+0	1.579110E+0	1.532872E+0	1.534138E+0	1.516969E+0	1.578046E+0	1.548661E+0	1.476761E+0	1.476773E+0	1.546765E+0	1.610755E+0	1.502538E+0	1.460529E+0	1.595906E+0	1.544588E+0	1.575120E+0	1.502938E+0	1.514557E+0	1.578834E+0	1.532408E+0	1.576564E+0	1.534537E+0	1.543258E+0	1.515298E+0	1.562745E+0	1.526616E+0	1.570176E+0	1.532403E+0	1.558210E+0	1.549082E+0	1.537090E+0	1.574994E+0	1.524710E+0	1.557812E+0	1.577222E+0	1.553956E+0	1.579576E+0	1.566247E+0	1.502181E+0	1.528101E+0	1.598870E+0	1.562024E+0	1.552838E+0	1.557200E+0	1.464009E+0	1.528447E+0	1.484573E+0	1.514700E+0	1.505851E+0	1.558500E+0	1.524110E+0	1.520248E+0	1.556073E+0	1.472717E+0	1.505531E+0	1.525305E+0	1.515959E+0	1.474969E+0	1.524362E+0	1.537076E+0	1.536156E+0	1.522276E+0	1.508695E+0	1.534812E+0	1.522221E+0	1.507856E+0	1.542694E+0	1.469284E+0	1.544723E+0	1.556013E+0	1.499019E+0	1.543679E+0	1.589711E+0	1.512628E+0	1.520892E+0	1.564670E+0	1.487402E+0	1.513889E+0	1.498553E+0	1.477966E+0	1.542330E+0	1.502655E+0	1.557216E+0	1.478027E+0	1.519673E+0	1.524572E+0	1.509088E+0	1.495941E+0	1.514973E+0	1.552480E+0	1.520628E+0	1.515403E+0	1.525501E+0	1.604654E+0	1.543530E+0	1.545433E+0	1.511473E+0	1.513520E+0	1.482284E+0	1.537814E+0	1.554217E+0	1.521684E+0	1.471762E+0	1.529312E+0	1.552362E+0	1.510375E+0	1.606504E+0	1.503213E+0	1.625484E+0
5.415140E+2	1.374889E+0	1.381598E+0	1.331938E+0	1.345117E+0	1.371417E+0	1.337289E+0	1.373226E+0	1.374881E+0	1.373340E+0	1.413187E+0	1.316178E+0	1.320694E+0	1.344632E+0	1.377630E+0	1.340851E+0	1.335896E+0	1.417767E+0	1.327668E+0	1.395206E+0	1.362569E+0	1.368729E+0	1.350635E+0	1.353880E+0	1.403445E+0	1.373851E+0	1.434051E+0	1.325826E+0	1.396762E+0	1.379573E+0	1.366826E+0	1.381729E+0	1.374752E+0	1.374467E+0	1.386921E+0	1.365108E+0	1.379720E+0	1.354782E+0	1.370439E+0	1.382340E+0	1.378530E+0	1.331123E+0	1.327892E+0	1.348804E+0	1.347816E+0	1.336745E+0	1.354433E+0	1.393139E+0	1.342650E+0	1.344232E+0	1.353400E+0	1.381960E+0	1.366893E+0	1.361544E+0	1.365141E+0	1.330194E+0	1.437208E+0	1.380345E+0	1.364709E+0	1.346667E+0	1.307751E+0	1.314322E+0	1.287387E+0	1.356946E+0	1.397988E+0	1.369177E+0	1.344574E+0	1.352400E+0	1.350350E+0	1.334273E+0	1.345477E+0	1.405145E+0	1.395662E+0	1.360565E+0	1.261451E+0	1.326644E+0	1.345073E+0	1.363108E+0	1.385082E+0	1.344521E+0	1.374360E+0	1.394711E+0	1.363802E+0	1.387691E+0	1.398307E+0	1.346282E+0	1.347490E+0	1.385139E+0	1.349121E+0	1.342675E+0	1.374834E+0	1.359027E+0	1.404246E+0	1.377600E+0	1.319142E+0	1.301217E+0	1.361605E+0	1.386533E+0	1.324377E+0	1.367007E+0	1.414858E+0	1.409741E+0	1.314627E+0	1.341150E+0	1.417205E+0	1.350577E+0	1.342945E+0	1.336710E+0	1.292731E+0	1.321673E+0	1.336494E+0	1.326570E+0	1.437240E+0	1.345350E+0	1.326311E+0	1.365408E+0	1.385763E+0	1.397716E+0	1.337869E+0	1.347027E+0	1.352401E+0	1.350496E+0	1.331437E+0	1.384292E+0	1.371210E+0	1.327614E+0	1.349272E+0	1.377069E+0	1.354529E+0	1.375499E+0	1.315126E+0	1.354717E+0	1.332249E+0	1.365505E+0	1.359034E+0	1.388710E+0	1.373594E+0	1.307312E+0	1.336157E+0	1.397066E+0	1.368663E+0	1.403181E+0	1.314268E+0	1.357007E+0	1.364964E+0	1.339859E+0	1.350127E+0	1.318108E+0	1.367416E+0	1.376725E+0	1.297814E+0	1.329017E+0	1.372162E+0	1.344504E+0	1.370351E+0	1.315842E+0	1.373382E+0	1.378720E+0	1.350292E+0	1.355575E+0	1.331257E+0	1.350381E+0	1.354861E+0	1.308418E+0	1.335526E+0	1.402959E+0	1.284628E+0	1.335803E+0	1.343716E+0	1.357216E+0	1.311261E+0	1.450459E+0
5.417760E+2	1.224790E+0	1.187020E+0	1.173220E+0	1.180819E+0	1.150607E+0	1.183839E+0	1.181923E+0	1.149421E+0	1.195073E+0	1.128564E+0	1.146844E+0	1.149761E+0	1.169766E+0	1.187793E+0	1.160585E+0	1.171699E+0	1.212517E+0	1.143279E+0	1.216632E+0	1.185228E+0	1.187799E+0	1.151114E+0	1.203281E+0	1.153790E+0	1.189626E+0	1.171517E+0	1.162431E+0	1.155153E+0	1.166167E+0	1.141513E+0	1.172312E+0	1.194721E+0	1.154441E+0	1.174947E+0	1.208484E+0	1.151541E+0	1.150815E+0	1.163731E+0	1.152420E+0	1.188427E+0	1.175432E+0	1.185511E+0	1.158167E+0	1.190223E+0	1.165070E+0	1.161204E+0	1.154101E+0	1.192976E+0	1.190305E+0	1.152218E+0	1.136336E+0	1.196503E+0	1.133102E+0	1.161703E+0	1.192584E+0	1.159011E+0	1.222863E+0	1.110323E+0	1.244954E+0	1.155609E+0	1.197115E+0	1.151796E+0	1.147404E+0	1.195498E+0	1.157150E+0	1.151182E+0	1.201399E+0	1.180492E+0	1.151853E+0	1.159878E+0	1.164544E+0	1.165260E+0	1.168209E+0	1.133374E+0	1.142247E+0	1.211461E+0	1.153916E+0	1.208213E+0	1.177771E+0	1.130128E+0	1.173253E+0	1.238743E+0	1.177879E+0	1.214301E+0	1.160829E+0	1.209246E+0	1.140693E+0	1.142038E+0	1.147537E+0	1.170496E+0	1.161529E+0	1.237578E+0	1.162341E+0	1.170950E+0	1.165666E+0	1.202606E+0	1.170843E+0	1.158508E+0	1.134716E+0	1.186390E+0	1.208711E+0	1.149660E+0	1.123549E+0	1.149594E+0	1.147158E+0	1.140126E+0	1.106478E+0	1.162184E+0	1.152315E+0	1.243281E+0	1.139060E+0	1.145487E+0	1.144845E+0	1.158891E+0	1.186826E+0	1.166950E+0	1.192011E+0	1.150505E+0	1.181535E+0	1.173128E+0	1.167597E+0	1.121194E+0	1.129290E+0	1.143577E+0	1.179229E+0	1.172465E+0	1.125409E+0	1.164830E+0	1.171358E+0	1.137998E+0	1.183137E+0	1.153723E+0	1.123394E+0	1.118431E+0	1.207774E+0	1.139607E+0	1.184808E+0	1.201482E+0	1.197239E+0	1.194322E+0	1.145012E+0	1.128845E+0	1.205121E+0	1.187432E+0	1.193207E+0	1.127690E+0	1.188173E+0	1.192650E+0	1.181966E+0	1.192019E+0	1.197370E+0	1.190646E+0	1.145109E+0	1.175394E+0	1.130844E+0	1.234826E+0	1.138106E+0	1.101665E+0	1.123051E+0	1.128900E+0	1.160921E+0	1.186612E+0	1.173090E+0	1.159664E+0	1.219157E+0	1.188000E+0	1.127329E+0	1.121655E+0	1.162089E+0	1.176031E+0	1.167322E+0
5.420270E+2	1.063722E+0	1.058010E+0	1.061646E+0	1.027027E+0	1.034644E+0	1.055800E+0	1.046039E+0	1.053166E+0	1.120996E+0	1.034786E+0	9.983910E-1	1.030230E+0	1.001403E+0	1.036504E+0	1.037298E+0	1.019995E+0	9.837331E-1	1.009369E+0	1.016620E+0	1.048486E+0	1.003634E+0	1.061756E+0	1.025206E+0	1.009328E+0	1.038697E+0	1.008376E+0	1.035408E+0	1.033544E+0	1.024944E+0	1.069221E+0	1.019446E+0	1.018105E+0	9.821123E-1	1.029143E+0	1.008529E+0	1.047799E+0	1.012902E+0	1.045865E+0	1.019259E+0	1.036272E+0	1.039945E+0	1.007578E+0	1.059088E+0	1.025530E+0	1.018447E+0	1.010325E+0	1.050674E+0	1.023938E+0	1.047218E+0	1.092974E+0	1.057307E+0	1.052689E+0	1.035265E+0	1.030246E+0	1.042610E+0	1.024623E+0	1.024720E+0	1.052754E+0	1.019421E+0	9.943063E-1	1.003588E+0	1.024028E+0	1.057520E+0	1.060669E+0	1.015842E+0	9.937326E-1	1.042399E+0	1.046105E+0	1.027813E+0	1.027035E+0	1.043242E+0	1.040772E+0	1.080828E+0	9.816506E-1	9.711491E-1	1.056121E+0	1.045823E+0	1.047083E+0	1.021968E+0	1.014275E+0	1.029978E+0	1.052042E+0	1.014311E+0	1.100164E+0	1.021187E+0	1.069694E+0	1.041201E+0	1.052759E+0	1.010507E+0	9.964036E-1	1.034139E+0	1.017600E+0	9.989017E-1	1.008247E+0	1.048100E+0	1.074142E+0	1.023912E+0	9.932510E-1	1.046985E+0	1.052544E+0	1.029468E+0	1.002867E+0	1.017055E+0	9.815801E-1	1.026022E+0	1.053585E+0	1.046324E+0	1.013300E+0	1.008930E+0	1.027709E+0	1.020590E+0	1.065078E+0	1.015918E+0	1.018800E+0	1.058332E+0	1.033482E+0	9.853136E-1	1.007856E+0	1.041780E+0	1.016118E+0	1.012148E+0	1.040763E+0	1.026909E+0	1.004934E+0	1.030603E+0	1.021159E+0	1.014530E+0	1.063718E+0	1.020563E+0	1.015704E+0	1.067140E+0	1.008128E+0	9.866759E-1	1.043380E+0	1.051952E+0	1.050014E+0	1.046739E+0	9.949546E-1	1.059981E+0	1.067552E+0	1.079244E+0	1.007720E+0	1.088427E+0	1.047186E+0	1.041806E+0	9.891623E-1	1.015138E+0	1.068952E+0	1.038421E+0	1.043422E+0	1.072948E+0	1.015051E+0	1.046327E+0	1.034581E+0	1.055561E+0	1.101457E+0	1.016994E+0	1.014150E+0	1.029803E+0	9.791569E-1	1.025066E+0	1.029846E+0	1.024738E+0	1.035428E+0	1.043285E+0	1.041314E+0	1.032346E+0	1.057523E+0	1.070689E+0	1.020712E+0	1.074205E+0
5.422730E+2	9.400571E-1	9.777874E-1	9.319233E-1	9.716064E-1	9.725511E-1	9.518328E-1	9.485251E-1	9.431793E-1	9.188111E-1	9.673593E-1	9.084866E-1	9.586834E-1	9.718178E-1	9.842696E-1	9.480666E-1	9.429091E-1	9.817015E-1	9.473964E-1	9.888086E-1	9.288982E-1	9.387836E-1	1.014173E+0	9.871264E-1	9.794537E-1	1.003616E+0	9.902781E-1	9.477560E-1	9.627282E-1	8.895417E-1	9.179770E-1	9.334182E-1	9.588458E-1	9.275500E-1	9.799375E-1	9.972723E-1	9.417809E-1	9.328050E-1	9.327006E-1	9.442484E-1	9.279114E-1	9.563652E-1	9.613198E-1	9.336451E-1	9.466693E-1	9.595299E-1	9.330163E-1	9.358351E-1	9.338222E-1	9.374593E-1	9.950726E-1	9.683314E-1	9.372482E-1	9.536784E-1	9.426600E-1	9.515014E-1	9.414817E-1	9.934766E-1	9.387824E-1	9.381423E-1	9.546143E-1	9.768109E-1	9.617368E-1	9.911838E-1	9.184281E-1	9.856499E-1	9.495705E-1	9.302557E-1	9.674423E-1	9.556996E-1	9.602859E-1	9.593562E-1	9.456854E-1	9.348745E-1	9.403165E-1	9.196254E-1	9.615365E-1	9.634804E-1	9.372408E-1	9.290289E-1	9.353038E-1	9.707556E-1	9.554445E-1	9.658135E-1	9.868619E-1	9.360229E-1	9.443374E-1	9.514922E-1	9.014681E-1	9.630775E-1	9.517741E-1	9.566930E-1	1.010679E+0	9.689088E-1	9.273100E-1	9.484007E-1	9.408875E-1	9.579900E-1	9.485385E-1	9.816652E-1	9.628573E-1	9.461816E-1	9.244125E-1	9.067825E-1	9.265699E-1	9.474740E-1	9.582867E-1	9.624599E-1	9.182188E-1	9.665892E-1	9.696312E-1	9.379455E-1	9.426618E-1	9.291285E-1	9.536552E-1	9.575449E-1	9.601907E-1	9.688787E-1	9.272301E-1	9.487382E-1	9.694562E-1	9.114646E-1	9.401460E-1	9.592531E-1	9.105954E-1	9.333309E-1	9.134602E-1	9.686491E-1	9.487549E-1	9.310313E-1	9.012953E-1	9.558899E-1	9.881596E-1	9.117827E-1	9.781674E-1	9.663006E-1	9.986640E-1	9.667709E-1	9.551769E-1	9.461885E-1	9.896828E-1	9.963924E-1	9.590506E-1	9.696962E-1	9.411621E-1	9.236663E-1	9.664339E-1	9.665761E-1	9.648684E-1	9.430405E-1	1.008825E+0	9.781747E-1	9.797891E-1	9.924360E-1	9.430442E-1	9.488045E-1	9.795506E-1	9.719787E-1	9.576118E-1	9.918965E-1	9.907151E-1	9.437447E-1	9.618964E-1	9.020319E-1	9.677295E-1	1.010557E+0	9.308667E-1	9.392605E-1	9.602437E-1	9.803866E-1	8.868536E-1	1.003719E+0
5.425300E+2	9.842289E-1	9.328462E-1	9.299823E-1	9.744436E-1	9.189603E-1	9.486134E-1	9.242327E-1	9.251740E-1	9.400840E-1	9.640820E-1	9.165097E-1	9.054205E-1	9.570861E-1	9.375484E-1	9.579771E-1	9.931198E-1	9.679194E-1	9.958559E-1	9.508926E-1	9.362181E-1	9.423553E-1	1.003729E+0	9.466066E-1	9.374375E-1	9.407164E-1	9.136599E-1	9.521490E-1	9.311154E-1	9.628831E-1	9.473415E-1	9.437845E-1	9.534957E-1	9.499286E-1	9.239953E-1	9.856667E-1	9.256773E-1	9.482162E-1	9.783715E-1	9.385108E-1	9.236006E-1	9.288779E-1	9.740209E-1	9.227898E-1	9.524692E-1	9.408967E-1	9.355671E-1	9.517809E-1	9.675649E-1	9.244029E-1	1.010134E+0	9.733653E-1	9.191274E-1	9.151232E-1	9.037269E-1	9.580060E-1	9.127631E-1	1.003145E+0	9.216740E-1	8.984850E-1	9.424297E-1	9.559984E-1	9.430432E-1	9.442974E-1	9.317754E-1	9.611642E-1	9.281600E-1	9.696979E-1	9.477612E-1	9.867624E-1	9.311060E-1	1.005309E+0	9.419259E-1	9.813122E-1	9.503757E-1	9.346520E-1	9.671438E-1	9.559975E-1	9.179113E-1	9.353861E-1	9.836362E-1	9.815496E-1	9.272348E-1	9.212543E-1	9.208127E-1	9.255802E-1	8.881788E-1	9.403558E-1	9.579939E-1	9.333643E-1	9.384647E-1	9.451702E-1	9.388605E-1	9.529802E-1	9.107503E-1	9.290967E-1	9.852714E-1	9.556880E-1	9.131867E-1	9.079882E-1	9.249048E-1	9.333806E-1	9.359201E-1	9.047429E-1	1.029178E+0	9.229369E-1	9.606451E-1	9.313146E-1	9.521332E-1	9.299062E-1	9.568527E-1	9.042853E-1	9.132849E-1	9.764402E-1	9.171197E-1	9.587366E-1	9.176405E-1	9.853099E-1	9.035561E-1	9.916370E-1	9.242446E-1	9.621374E-1	9.362374E-1	9.417577E-1	9.651306E-1	9.524857E-1	9.356422E-1	9.430983E-1	9.359695E-1	9.356947E-1	9.696680E-1	9.824891E-1	9.880989E-1	9.316658E-1	9.696546E-1	9.385101E-1	9.612562E-1	1.000310E+0	9.451658E-1	9.393052E-1	9.376052E-1	9.190652E-1	9.449111E-1	9.519024E-1	9.557086E-1	9.656375E-1	9.512509E-1	9.139067E-1	9.793939E-1	9.036445E-1	9.567441E-1	9.317267E-1	9.542537E-1	9.547044E-1	9.788866E-1	9.815690E-1	9.908260E-1	9.516868E-1	9.834323E-1	9.606159E-1	9.416951E-1	9.351174E-1	9.505051E-1	9.434214E-1	9.549047E-1	9.411045E-1	9.205122E-1	9.215382E-1	9.438040E-1	9.501173E-1	9.169530E-1	1.018241E+0
5.427650E+2	1.002730E+0	1.001310E+0	9.951552E-1	9.886287E-1	1.015713E+0	1.028214E+0	1.028098E+0	9.857027E-1	9.875919E-1	1.002044E+0	9.874750E-1	9.989008E-1	9.654374E-1	1.046386E+0	9.832444E-1	1.005568E+0	1.072515E+0	1.040813E+0	1.030532E+0	1.014004E+0	1.027462E+0	9.583869E-1	1.017584E+0	1.053402E+0	1.014477E+0	9.925542E-1	9.890998E-1	1.031514E+0	9.860210E-1	1.053181E+0	1.016389E+0	9.938145E-1	9.939534E-1	1.032653E+0	1.010154E+0	9.641594E-1	9.196751E-1	9.932682E-1	1.008841E+0	9.695684E-1	9.817018E-1	9.685839E-1	9.822324E-1	1.000677E+0	9.754076E-1	1.005940E+0	9.854810E-1	1.007299E+0	1.033196E+0	1.015509E+0	1.000850E+0	9.952055E-1	9.963981E-1	1.009651E+0	1.037469E+0	9.727533E-1	9.983735E-1	9.695254E-1	1.009161E+0	9.368497E-1	9.835983E-1	9.942032E-1	1.013518E+0	9.911680E-1	1.017682E+0	9.955300E-1	1.012797E+0	1.003138E+0	1.011444E+0	1.010323E+0	1.002429E+0	1.011442E+0	1.010649E+0	9.857024E-1	9.645190E-1	9.921154E-1	1.019077E+0	1.012213E+0	9.842970E-1	1.003315E+0	9.844137E-1	1.000512E+0	9.796452E-1	9.929754E-1	9.847810E-1	1.013019E+0	1.019790E+0	9.763191E-1	1.012244E+0	1.016909E+0	1.020715E+0	1.018584E+0	1.004116E+0	9.747101E-1	1.013707E+0	1.008565E+0	9.875043E-1	9.987521E-1	9.609946E-1	1.051572E+0	9.826825E-1	1.010866E+0	1.000235E+0	1.051884E+0	9.905255E-1	1.007808E+0	9.837459E-1	1.027421E+0	9.984118E-1	9.793452E-1	1.033402E+0	1.018897E+0	1.023230E+0	9.973909E-1	1.076009E+0	9.630949E-1	9.941833E-1	9.748869E-1	1.019987E+0	1.001402E+0	1.007644E+0	1.019635E+0	9.833340E-1	1.003270E+0	9.729801E-1	1.016867E+0	1.029215E+0	9.802642E-1	1.030976E+0	9.752862E-1	1.016071E+0	9.793925E-1	9.922113E-1	9.687769E-1	1.040357E+0	9.774603E-1	1.010641E+0	1.003495E+0	9.990937E-1	1.020687E+0	1.039759E+0	9.850164E-1	9.943322E-1	9.975752E-1	9.947340E-1	1.007410E+0	9.660564E-1	1.010998E+0	1.005712E+0	9.920187E-1	1.020103E+0	1.031783E+0	1.020106E+0	1.008064E+0	9.623035E-1	1.027432E+0	9.996277E-1	9.946530E-1	9.987795E-1	9.905921E-1	1.070847E+0	1.033856E+0	1.015349E+0	9.703164E-1	9.753900E-1	1.041953E+0	9.754368E-1	9.674607E-1	1.022255E+0	9.390755E-1	1.046422E+0
5.430070E+2	1.149894E+0	1.104941E+0	1.086091E+0	1.147257E+0	1.130336E+0	1.160312E+0	1.185302E+0	1.145221E+0	1.139828E+0	1.118447E+0	1.076826E+0	1.152832E+0	1.165055E+0	1.126461E+0	1.154968E+0	1.155622E+0	1.182812E+0	1.131128E+0	1.166363E+0	1.127367E+0	1.153555E+0	1.141730E+0	1.182183E+0	1.157858E+0	1.106342E+0	1.166140E+0	1.115538E+0	1.132855E+0	1.158531E+0	1.114537E+0	1.160545E+0	1.155709E+0	1.151651E+0	1.135998E+0	1.168317E+0	1.114331E+0	1.149715E+0	1.145219E+0	1.106056E+0	1.136346E+0	1.170329E+0	1.136907E+0	1.134126E+0	1.156037E+0	1.116360E+0	1.106563E+0	1.136479E+0	1.143141E+0	1.099259E+0	1.164796E+0	1.167411E+0	1.175814E+0	1.143053E+0	1.118142E+0	1.146963E+0	1.126279E+0	1.236772E+0	1.122145E+0	1.147006E+0	1.095238E+0	1.121801E+0	1.142632E+0	1.095524E+0	1.127395E+0	1.157633E+0	1.115645E+0	1.140159E+0	1.105631E+0	1.120463E+0	1.129905E+0	1.132861E+0	1.152858E+0	1.141090E+0	1.123071E+0	1.110194E+0	1.145710E+0	1.135514E+0	1.123486E+0	1.097566E+0	1.106166E+0	1.124024E+0	1.151063E+0	1.129202E+0	1.136227E+0	1.182138E+0	1.147579E+0	1.168623E+0	1.147512E+0	1.167551E+0	1.110623E+0	1.066519E+0	1.131380E+0	1.131205E+0	1.125024E+0	1.149637E+0	1.132938E+0	1.108011E+0	1.062777E+0	1.139948E+0	1.139611E+0	1.176704E+0	1.108213E+0	1.085077E+0	1.129084E+0	1.127092E+0	1.142375E+0	1.076453E+0	1.069277E+0	1.076087E+0	1.158766E+0	1.086105E+0	1.129975E+0	1.120966E+0	1.113432E+0	1.144697E+0	1.135273E+0	1.158304E+0	1.136637E+0	1.130852E+0	1.153888E+0	1.098489E+0	1.123052E+0	1.137174E+0	1.117649E+0	1.112111E+0	1.178293E+0	1.139070E+0	1.110617E+0	1.192718E+0	1.129877E+0	1.078556E+0	1.172699E+0	1.154634E+0	1.152058E+0	1.144713E+0	1.164503E+0	1.189942E+0	1.158377E+0	1.193942E+0	1.092785E+0	1.127518E+0	1.110641E+0	1.154427E+0	1.133095E+0	1.121398E+0	1.089042E+0	1.136875E+0	1.144007E+0	1.098051E+0	1.113272E+0	1.104916E+0	1.126512E+0	1.165614E+0	1.140789E+0	1.148099E+0	1.137405E+0	1.148939E+0	1.177183E+0	1.149962E+0	1.151776E+0	1.156146E+0	1.170345E+0	1.116953E+0	1.124239E+0	1.139036E+0	1.132655E+0	1.111420E+0	1.139532E+0	1.127851E+0	1.037170E+0	1.242905E+0
5.433020E+2	1.340912E+0	1.317974E+0	1.304294E+0	1.285382E+0	1.257318E+0	1.292050E+0	1.294376E+0	1.288923E+0	1.302192E+0	1.324778E+0	1.256910E+0	1.335753E+0	1.303215E+0	1.289740E+0	1.343351E+0	1.308572E+0	1.361857E+0	1.357141E+0	1.292468E+0	1.290530E+0	1.320559E+0	1.341011E+0	1.288349E+0	1.328322E+0	1.307456E+0	1.350561E+0	1.269550E+0	1.304298E+0	1.311604E+0	1.311689E+0	1.350102E+0	1.297653E+0	1.325032E+0	1.321477E+0	1.311791E+0	1.309003E+0	1.271129E+0	1.296323E+0	1.292390E+0	1.252738E+0	1.302811E+0	1.297934E+0	1.335625E+0	1.328277E+0	1.303705E+0	1.281114E+0	1.346732E+0	1.292715E+0	1.282132E+0	1.302038E+0	1.337167E+0	1.331105E+0	1.286297E+0	1.291737E+0	1.326350E+0	1.278103E+0	1.308928E+0	1.317193E+0	1.303875E+0	1.302327E+0	1.273491E+0	1.279699E+0	1.240070E+0	1.306314E+0	1.352132E+0	1.276948E+0	1.300168E+0	1.326705E+0	1.297240E+0	1.357626E+0	1.318130E+0	1.299802E+0	1.281846E+0	1.285194E+0	1.299772E+0	1.325138E+0	1.244740E+0	1.297553E+0	1.274038E+0	1.266636E+0	1.343421E+0	1.342810E+0	1.244038E+0	1.381995E+0	1.317300E+0	1.336241E+0	1.303884E+0	1.278801E+0	1.314934E+0	1.315453E+0	1.320310E+0	1.321565E+0	1.313209E+0	1.286107E+0	1.261156E+0	1.264344E+0	1.306468E+0	1.253225E+0	1.287003E+0	1.307323E+0	1.289070E+0	1.278894E+0	1.324678E+0	1.249677E+0	1.319931E+0	1.264839E+0	1.263328E+0	1.294267E+0	1.292350E+0	1.290279E+0	1.300107E+0	1.275523E+0	1.311860E+0	1.332776E+0	1.374062E+0	1.270623E+0	1.270024E+0	1.317489E+0	1.312158E+0	1.288521E+0	1.267090E+0	1.298721E+0	1.248775E+0	1.279612E+0	1.233906E+0	1.266893E+0	1.319205E+0	1.259898E+0	1.351392E+0	1.303176E+0	1.308203E+0	1.346239E+0	1.239045E+0	1.286202E+0	1.262353E+0	1.318322E+0	1.283504E+0	1.285911E+0	1.257310E+0	1.241808E+0	1.326581E+0	1.257686E+0	1.243786E+0	1.335939E+0	1.302912E+0	1.286974E+0	1.263879E+0	1.257528E+0	1.281696E+0	1.277335E+0	1.278452E+0	1.301616E+0	1.361352E+0	1.313514E+0	1.263054E+0	1.327089E+0	1.292264E+0	1.308052E+0	1.255442E+0	1.242051E+0	1.260260E+0	1.315958E+0	1.328514E+0	1.285168E+0	1.334933E+0	1.312093E+0	1.307147E+0	1.291379E+0	1.268989E+0	1.221206E+0	1.311122E+0
5.435270E+2	1.488920E+0	1.506337E+0	1.386739E+0	1.449862E+0	1.407474E+0	1.504565E+0	1.422142E+0	1.405822E+0	1.412782E+0	1.469431E+0	1.436903E+0	1.442946E+0	1.454420E+0	1.467013E+0	1.408134E+0	1.453021E+0	1.511988E+0	1.404713E+0	1.479587E+0	1.472112E+0	1.460122E+0	1.478984E+0	1.437342E+0	1.447168E+0	1.436601E+0	1.475590E+0	1.453491E+0	1.435394E+0	1.405595E+0	1.429543E+0	1.462409E+0	1.449266E+0	1.429303E+0	1.460780E+0	1.495233E+0	1.483004E+0	1.416694E+0	1.442195E+0	1.422889E+0	1.416364E+0	1.455959E+0	1.447347E+0	1.458406E+0	1.385616E+0	1.414031E+0	1.449490E+0	1.462461E+0	1.447804E+0	1.444729E+0	1.498130E+0	1.460886E+0	1.466446E+0	1.472150E+0	1.507376E+0	1.508652E+0	1.435140E+0	1.455705E+0	1.470945E+0	1.452155E+0	1.423542E+0	1.491731E+0	1.466734E+0	1.407389E+0	1.442629E+0	1.479047E+0	1.471985E+0	1.455752E+0	1.436045E+0	1.421193E+0	1.459908E+0	1.418688E+0	1.466658E+0	1.456585E+0	1.447481E+0	1.361371E+0	1.480576E+0	1.473372E+0	1.420564E+0	1.445073E+0	1.438473E+0	1.459631E+0	1.408303E+0	1.435847E+0	1.442907E+0	1.496769E+0	1.498573E+0	1.404585E+0	1.422614E+0	1.434505E+0	1.416170E+0	1.437731E+0	1.436002E+0	1.486671E+0	1.439674E+0	1.415507E+0	1.474219E+0	1.472321E+0	1.453374E+0	1.372895E+0	1.486360E+0	1.399093E+0	1.406004E+0	1.443482E+0	1.470941E+0	1.462751E+0	1.424286E+0	1.412623E+0	1.459885E+0	1.416837E+0	1.408987E+0	1.416694E+0	1.379277E+0	1.456707E+0	1.417618E+0	1.489755E+0	1.443478E+0	1.378729E+0	1.416735E+0	1.445147E+0	1.432029E+0	1.458419E+0	1.445572E+0	1.497990E+0	1.418896E+0	1.412604E+0	1.419435E+0	1.430105E+0	1.385944E+0	1.398375E+0	1.410571E+0	1.467336E+0	1.416561E+0	1.403145E+0	1.427633E+0	1.449932E+0	1.410596E+0	1.417011E+0	1.421251E+0	1.410164E+0	1.413024E+0	1.423970E+0	1.421685E+0	1.437505E+0	1.402436E+0	1.449025E+0	1.424603E+0	1.456313E+0	1.441536E+0	1.427033E+0	1.428567E+0	1.429752E+0	1.464487E+0	1.391251E+0	1.460946E+0	1.409103E+0	1.429961E+0	1.440511E+0	1.429827E+0	1.403481E+0	1.395046E+0	1.414228E+0	1.459774E+0	1.462643E+0	1.360016E+0	1.443304E+0	1.424308E+0	1.466086E+0	1.479996E+0	1.360458E+0	1.421792E+0	1.460881E+0
5.437690E+2	1.579143E+0	1.582039E+0	1.612887E+0	1.577705E+0	1.506697E+0	1.620681E+0	1.596009E+0	1.568435E+0	1.526473E+0	1.646882E+0	1.525000E+0	1.567859E+0	1.614565E+0	1.647018E+0	1.569105E+0	1.587982E+0	1.570638E+0	1.656033E+0	1.559395E+0	1.575456E+0	1.516794E+0	1.605436E+0	1.532220E+0	1.580593E+0	1.538576E+0	1.604422E+0	1.535708E+0	1.558868E+0	1.562979E+0	1.630684E+0	1.581243E+0	1.552426E+0	1.611291E+0	1.556437E+0	1.548119E+0	1.632767E+0	1.518889E+0	1.561411E+0	1.591991E+0	1.550264E+0	1.483466E+0	1.522268E+0	1.565472E+0	1.568884E+0	1.584884E+0	1.576377E+0	1.567383E+0	1.563729E+0	1.569739E+0	1.531543E+0	1.600854E+0	1.577054E+0	1.514836E+0	1.556572E+0	1.552925E+0	1.529731E+0	1.519006E+0	1.542316E+0	1.556896E+0	1.583637E+0	1.531452E+0	1.534518E+0	1.512290E+0	1.596124E+0	1.584315E+0	1.514144E+0	1.561234E+0	1.570438E+0	1.515219E+0	1.540980E+0	1.585964E+0	1.588185E+0	1.614700E+0	1.573411E+0	1.466807E+0	1.599726E+0	1.560976E+0	1.577417E+0	1.479039E+0	1.595910E+0	1.551718E+0	1.584142E+0	1.569431E+0	1.557755E+0	1.593843E+0	1.560313E+0	1.584207E+0	1.583098E+0	1.555489E+0	1.574547E+0	1.579016E+0	1.570371E+0	1.584908E+0	1.571388E+0	1.568793E+0	1.491176E+0	1.571512E+0	1.534668E+0	1.546226E+0	1.589792E+0	1.573219E+0	1.534773E+0	1.544877E+0	1.538936E+0	1.526068E+0	1.554806E+0	1.519311E+0	1.498849E+0	1.578225E+0	1.596216E+0	1.603367E+0	1.547164E+0	1.554496E+0	1.509068E+0	1.635719E+0	1.518418E+0	1.551483E+0	1.519663E+0	1.587897E+0	1.540564E+0	1.527418E+0	1.479612E+0	1.593457E+0	1.543471E+0	1.522780E+0	1.513683E+0	1.517565E+0	1.489356E+0	1.544746E+0	1.635473E+0	1.527841E+0	1.508511E+0	1.509158E+0	1.564436E+0	1.553981E+0	1.587353E+0	1.585016E+0	1.528288E+0	1.594132E+0	1.551428E+0	1.547299E+0	1.504515E+0	1.580876E+0	1.556980E+0	1.534083E+0	1.540740E+0	1.577485E+0	1.534203E+0	1.516511E+0	1.500908E+0	1.582293E+0	1.579078E+0	1.551058E+0	1.524472E+0	1.543128E+0	1.613764E+0	1.577782E+0	1.533075E+0	1.558539E+0	1.533754E+0	1.481675E+0	1.534946E+0	1.493047E+0	1.559715E+0	1.602053E+0	1.515607E+0	1.560158E+0	1.534411E+0	1.542150E+0	1.472874E+0	1.534313E+0
5.440170E+2	1.712352E+0	1.585795E+0	1.630816E+0	1.683421E+0	1.609134E+0	1.641926E+0	1.547296E+0	1.670697E+0	1.674911E+0	1.595498E+0	1.639767E+0	1.680176E+0	1.588960E+0	1.640575E+0	1.634889E+0	1.636542E+0	1.635290E+0	1.639158E+0	1.634304E+0	1.617590E+0	1.571494E+0	1.632108E+0	1.663751E+0	1.608545E+0	1.616596E+0	1.689774E+0	1.611407E+0	1.645959E+0	1.674450E+0	1.626734E+0	1.635903E+0	1.589947E+0	1.612692E+0	1.629062E+0	1.687427E+0	1.585329E+0	1.619373E+0	1.652014E+0	1.644556E+0	1.575444E+0	1.587937E+0	1.673805E+0	1.603817E+0	1.627038E+0	1.673074E+0	1.584820E+0	1.607686E+0	1.575972E+0	1.619428E+0	1.627622E+0	1.646835E+0	1.650388E+0	1.593976E+0	1.615351E+0	1.658661E+0	1.654833E+0	1.571727E+0	1.607902E+0	1.640291E+0	1.549870E+0	1.600264E+0	1.646624E+0	1.640464E+0	1.593822E+0	1.637846E+0	1.615596E+0	1.662723E+0	1.577185E+0	1.588616E+0	1.581751E+0	1.644553E+0	1.630327E+0	1.628168E+0	1.648561E+0	1.603837E+0	1.658077E+0	1.581227E+0	1.636142E+0	1.582062E+0	1.579392E+0	1.633267E+0	1.617315E+0	1.572572E+0	1.669654E+0	1.551924E+0	1.634599E+0	1.603552E+0	1.649103E+0	1.529313E+0	1.549847E+0	1.571465E+0	1.645744E+0	1.581506E+0	1.567219E+0	1.605742E+0	1.590068E+0	1.603905E+0	1.577965E+0	1.632914E+0	1.560855E+0	1.653941E+0	1.589930E+0	1.652374E+0	1.591094E+0	1.542211E+0	1.604757E+0	1.566912E+0	1.582554E+0	1.577457E+0	1.582490E+0	1.624213E+0	1.598132E+0	1.653111E+0	1.612480E+0	1.611965E+0	1.574083E+0	1.569123E+0	1.606373E+0	1.642356E+0	1.613781E+0	1.648604E+0	1.548170E+0	1.580709E+0	1.600434E+0	1.581386E+0	1.589288E+0	1.563543E+0	1.530168E+0	1.607760E+0	1.620278E+0	1.614646E+0	1.608196E+0	1.583129E+0	1.598496E+0	1.586511E+0	1.656722E+0	1.625943E+0	1.607215E+0	1.595367E+0	1.600480E+0	1.580229E+0	1.623650E+0	1.590695E+0	1.597718E+0	1.605712E+0	1.564314E+0	1.540777E+0	1.618136E+0	1.570447E+0	1.594742E+0	1.614816E+0	1.556872E+0	1.556623E+0	1.567396E+0	1.638830E+0	1.674145E+0	1.521373E+0	1.572281E+0	1.588189E+0	1.611600E+0	1.568657E+0	1.559875E+0	1.550218E+0	1.584323E+0	1.601729E+0	1.521645E+0	1.597854E+0	1.579846E+0	1.633317E+0	1.571124E+0	1.538688E+0
5.442810E+2	1.576752E+0	1.618784E+0	1.595564E+0	1.673890E+0	1.635249E+0	1.631461E+0	1.628472E+0	1.607327E+0	1.662933E+0	1.681247E+0	1.549532E+0	1.609156E+0	1.592001E+0	1.633301E+0	1.592169E+0	1.614610E+0	1.655288E+0	1.588735E+0	1.590986E+0	1.605410E+0	1.615201E+0	1.629016E+0	1.652862E+0	1.613350E+0	1.600498E+0	1.643102E+0	1.613738E+0	1.616971E+0	1.598391E+0	1.648809E+0	1.594740E+0	1.607132E+0	1.651810E+0	1.658850E+0	1.697638E+0	1.587184E+0	1.589454E+0	1.621514E+0	1.594643E+0	1.594599E+0	1.546357E+0	1.582188E+0	1.615900E+0	1.595674E+0	1.609693E+0	1.580492E+0	1.645623E+0	1.644119E+0	1.606800E+0	1.605801E+0	1.638391E+0	1.585633E+0	1.609539E+0	1.601443E+0	1.661425E+0	1.607939E+0	1.593016E+0	1.537495E+0	1.539113E+0	1.590441E+0	1.594414E+0	1.577174E+0	1.616818E+0	1.602981E+0	1.621566E+0	1.592717E+0	1.649292E+0	1.587569E+0	1.601528E+0	1.607329E+0	1.606108E+0	1.637292E+0	1.601042E+0	1.624793E+0	1.590882E+0	1.635776E+0	1.580105E+0	1.619834E+0	1.536155E+0	1.565958E+0	1.608887E+0	1.644033E+0	1.578389E+0	1.628859E+0	1.535572E+0	1.599985E+0	1.608756E+0	1.631025E+0	1.593784E+0	1.605053E+0	1.587318E+0	1.629697E+0	1.599512E+0	1.596320E+0	1.617705E+0	1.572055E+0	1.567621E+0	1.589808E+0	1.647833E+0	1.555962E+0	1.622205E+0	1.567529E+0	1.580275E+0	1.632282E+0	1.549086E+0	1.634632E+0	1.635506E+0	1.558712E+0	1.564444E+0	1.563529E+0	1.551019E+0	1.548187E+0	1.582591E+0	1.612370E+0	1.570046E+0	1.566787E+0	1.631959E+0	1.545381E+0	1.543712E+0	1.609183E+0	1.561756E+0	1.603415E+0	1.617391E+0	1.608405E+0	1.632643E+0	1.559930E+0	1.586417E+0	1.579586E+0	1.625399E+0	1.553101E+0	1.623667E+0	1.616482E+0	1.582133E+0	1.557286E+0	1.585569E+0	1.609083E+0	1.546707E+0	1.606872E+0	1.570789E+0	1.621269E+0	1.580505E+0	1.599827E+0	1.631570E+0	1.572926E+0	1.577924E+0	1.559756E+0	1.555810E+0	1.608543E+0	1.578681E+0	1.621264E+0	1.579239E+0	1.562500E+0	1.638462E+0	1.641102E+0	1.590609E+0	1.593281E+0	1.566246E+0	1.578343E+0	1.531527E+0	1.538751E+0	1.606808E+0	1.641893E+0	1.588041E+0	1.553210E+0	1.601229E+0	1.525438E+0	1.565531E+0	1.589498E+0	1.607681E+0	1.584436E+0	1.572908E+0
5.445240E+2	1.554659E+0	1.583766E+0	1.515481E+0	1.537151E+0	1.550096E+0	1.600426E+0	1.575238E+0	1.554889E+0	1.589052E+0	1.513185E+0	1.514467E+0	1.543579E+0	1.494824E+0	1.613656E+0	1.582292E+0	1.541854E+0	1.535953E+0	1.511205E+0	1.569406E+0	1.577169E+0	1.501809E+0	1.554578E+0	1.568738E+0	1.573918E+0	1.556388E+0	1.562925E+0	1.510009E+0	1.523616E+0	1.495405E+0	1.542003E+0	1.527509E+0	1.517490E+0	1.551018E+0	1.563869E+0	1.617137E+0	1.578741E+0	1.562967E+0	1.559746E+0	1.565881E+0	1.542418E+0	1.571975E+0	1.510772E+0	1.552217E+0	1.559335E+0	1.510595E+0	1.558084E+0	1.519615E+0	1.548257E+0	1.576586E+0	1.558930E+0	1.500023E+0	1.551339E+0	1.560913E+0	1.594059E+0	1.573192E+0	1.489549E+0	1.593718E+0	1.570303E+0	1.499421E+0	1.537460E+0	1.544491E+0	1.538113E+0	1.509456E+0	1.552068E+0	1.570363E+0	1.553212E+0	1.612872E+0	1.562727E+0	1.539074E+0	1.510367E+0	1.527366E+0	1.535059E+0	1.515668E+0	1.537376E+0	1.468419E+0	1.567744E+0	1.574059E+0	1.539909E+0	1.493191E+0	1.546322E+0	1.592772E+0	1.506061E+0	1.530437E+0	1.546835E+0	1.499660E+0	1.586841E+0	1.543996E+0	1.530501E+0	1.496791E+0	1.533812E+0	1.533308E+0	1.577155E+0	1.567525E+0	1.531607E+0	1.585035E+0	1.579556E+0	1.522781E+0	1.500307E+0	1.588451E+0	1.493340E+0	1.488304E+0	1.554816E+0	1.497689E+0	1.595092E+0	1.546319E+0	1.533164E+0	1.500144E+0	1.505470E+0	1.566488E+0	1.523106E+0	1.518501E+0	1.488500E+0	1.492105E+0	1.565367E+0	1.526460E+0	1.539670E+0	1.488879E+0	1.543203E+0	1.559082E+0	1.476093E+0	1.510479E+0	1.554247E+0	1.534227E+0	1.534596E+0	1.571225E+0	1.489396E+0	1.537729E+0	1.512156E+0	1.526463E+0	1.545737E+0	1.539057E+0	1.501990E+0	1.506964E+0	1.580674E+0	1.584889E+0	1.537314E+0	1.531544E+0	1.500079E+0	1.511622E+0	1.544945E+0	1.534845E+0	1.505992E+0	1.493836E+0	1.511143E+0	1.481740E+0	1.517705E+0	1.538514E+0	1.551660E+0	1.502978E+0	1.563409E+0	1.460089E+0	1.530575E+0	1.489019E+0	1.577649E+0	1.549111E+0	1.534984E+0	1.536419E+0	1.516793E+0	1.509626E+0	1.540836E+0	1.474299E+0	1.527090E+0	1.511725E+0	1.488523E+0	1.549581E+0	1.590103E+0	1.507055E+0	1.540815E+0	1.514931E+0	1.557098E+0	1.515539E+0
5.447720E+2	1.464774E+0	1.516713E+0	1.472874E+0	1.483027E+0	1.462192E+0	1.533970E+0	1.452182E+0	1.460579E+0	1.495439E+0	1.488975E+0	1.456753E+0	1.435803E+0	1.386679E+0	1.442253E+0	1.435194E+0	1.486606E+0	1.541557E+0	1.458861E+0	1.481177E+0	1.476332E+0	1.495423E+0	1.471416E+0	1.464164E+0	1.467734E+0	1.455170E+0	1.457863E+0	1.455410E+0	1.439759E+0	1.451861E+0	1.414913E+0	1.403473E+0	1.447385E+0	1.502106E+0	1.489641E+0	1.468333E+0	1.496283E+0	1.480150E+0	1.478776E+0	1.418689E+0	1.503381E+0	1.463869E+0	1.443382E+0	1.459524E+0	1.436070E+0	1.466683E+0	1.462267E+0	1.436052E+0	1.495509E+0	1.487887E+0	1.477162E+0	1.519051E+0	1.455587E+0	1.417401E+0	1.426021E+0	1.481883E+0	1.487904E+0	1.439991E+0	1.397821E+0	1.467764E+0	1.409930E+0	1.462723E+0	1.423471E+0	1.461218E+0	1.432255E+0	1.429112E+0	1.460582E+0	1.513513E+0	1.481306E+0	1.458840E+0	1.498948E+0	1.462588E+0	1.524225E+0	1.440240E+0	1.422472E+0	1.384825E+0	1.425485E+0	1.435801E+0	1.461059E+0	1.434882E+0	1.418093E+0	1.473099E+0	1.443009E+0	1.488974E+0	1.473297E+0	1.464879E+0	1.423466E+0	1.448929E+0	1.429703E+0	1.473486E+0	1.419274E+0	1.444787E+0	1.451779E+0	1.441708E+0	1.419355E+0	1.451196E+0	1.447584E+0	1.435670E+0	1.439153E+0	1.451467E+0	1.448119E+0	1.447750E+0	1.409556E+0	1.468487E+0	1.455313E+0	1.445892E+0	1.448207E+0	1.407514E+0	1.474507E+0	1.434948E+0	1.479707E+0	1.441471E+0	1.435903E+0	1.441798E+0	1.411684E+0	1.499387E+0	1.475738E+0	1.412735E+0	1.404814E+0	1.443708E+0	1.467146E+0	1.458582E+0	1.470329E+0	1.473516E+0	1.470778E+0	1.478760E+0	1.430104E+0	1.441158E+0	1.425436E+0	1.430165E+0	1.448926E+0	1.389182E+0	1.472660E+0	1.431640E+0	1.445209E+0	1.469403E+0	1.462937E+0	1.431762E+0	1.430193E+0	1.435124E+0	1.412572E+0	1.465602E+0	1.450265E+0	1.435385E+0	1.448694E+0	1.437496E+0	1.453975E+0	1.427907E+0	1.405935E+0	1.410019E+0	1.537742E+0	1.474293E+0	1.456400E+0	1.407117E+0	1.468132E+0	1.432464E+0	1.543661E+0	1.413750E+0	1.370894E+0	1.468495E+0	1.366292E+0	1.399479E+0	1.495684E+0	1.391390E+0	1.361574E+0	1.467115E+0	1.473831E+0	1.462275E+0	1.506597E+0	1.436765E+0	1.516764E+0	1.495787E+0
5.450150E+2	1.379122E+0	1.383096E+0	1.375418E+0	1.406690E+0	1.357967E+0	1.374560E+0	1.348552E+0	1.383732E+0	1.372475E+0	1.396497E+0	1.348841E+0	1.371581E+0	1.336812E+0	1.344840E+0	1.403277E+0	1.365299E+0	1.381754E+0	1.392555E+0	1.388567E+0	1.395107E+0	1.457351E+0	1.401120E+0	1.443455E+0	1.387705E+0	1.343758E+0	1.430699E+0	1.400114E+0	1.373710E+0	1.368453E+0	1.351769E+0	1.397640E+0	1.401897E+0	1.371358E+0	1.406072E+0	1.351948E+0	1.380099E+0	1.325037E+0	1.441925E+0	1.447768E+0	1.383990E+0	1.313615E+0	1.403886E+0	1.345672E+0	1.373479E+0	1.366758E+0	1.355910E+0	1.430237E+0	1.417746E+0	1.399327E+0	1.441369E+0	1.418304E+0	1.390600E+0	1.417822E+0	1.361145E+0	1.376991E+0	1.382363E+0	1.392582E+0	1.402220E+0	1.386141E+0	1.318312E+0	1.375672E+0	1.357545E+0	1.360013E+0	1.357751E+0	1.382475E+0	1.355279E+0	1.393532E+0	1.388989E+0	1.342199E+0	1.382903E+0	1.380779E+0	1.403331E+0	1.355460E+0	1.373284E+0	1.373390E+0	1.407109E+0	1.404554E+0	1.334759E+0	1.405426E+0	1.429543E+0	1.426328E+0	1.418337E+0	1.401161E+0	1.392904E+0	1.343621E+0	1.361429E+0	1.398926E+0	1.338290E+0	1.369650E+0	1.375483E+0	1.350124E+0	1.450900E+0	1.378362E+0	1.354356E+0	1.410513E+0	1.356665E+0	1.394296E+0	1.339698E+0	1.417316E+0	1.421471E+0	1.355735E+0	1.360710E+0	1.437544E+0	1.345268E+0	1.360015E+0	1.365458E+0	1.344141E+0	1.330714E+0	1.413773E+0	1.388357E+0	1.371820E+0	1.378443E+0	1.303110E+0	1.327479E+0	1.308318E+0	1.335709E+0	1.336181E+0	1.359534E+0	1.352876E+0	1.363664E+0	1.383154E+0	1.393548E+0	1.349919E+0	1.386434E+0	1.362094E+0	1.390950E+0	1.336810E+0	1.359963E+0	1.373115E+0	1.380577E+0	1.416200E+0	1.353146E+0	1.338084E+0	1.366717E+0	1.404331E+0	1.386557E+0	1.378529E+0	1.384990E+0	1.377601E+0	1.348500E+0	1.348672E+0	1.337360E+0	1.381789E+0	1.357298E+0	1.375103E+0	1.344232E+0	1.334138E+0	1.388972E+0	1.332829E+0	1.377621E+0	1.388261E+0	1.380602E+0	1.376616E+0	1.357275E+0	1.323823E+0	1.379059E+0	1.347548E+0	1.312509E+0	1.345007E+0	1.334936E+0	1.328770E+0	1.401560E+0	1.360700E+0	1.392057E+0	1.353049E+0	1.367646E+0	1.396889E+0	1.390756E+0	1.387253E+0	1.402646E+0	1.403135E+0
5.452800E+2	1.317100E+0	1.304136E+0	1.306627E+0	1.281505E+0	1.275796E+0	1.359293E+0	1.311329E+0	1.266464E+0	1.329833E+0	1.282974E+0	1.296508E+0	1.344267E+0	1.319685E+0	1.295017E+0	1.251895E+0	1.271092E+0	1.356068E+0	1.297143E+0	1.314115E+0	1.249270E+0	1.301075E+0	1.327044E+0	1.337861E+0	1.286753E+0	1.269929E+0	1.306022E+0	1.307340E+0	1.335000E+0	1.283056E+0	1.304335E+0	1.246892E+0	1.301069E+0	1.318271E+0	1.258347E+0	1.306688E+0	1.346558E+0	1.300805E+0	1.331163E+0	1.321228E+0	1.336460E+0	1.322535E+0	1.295255E+0	1.312617E+0	1.257568E+0	1.280646E+0	1.281325E+0	1.313594E+0	1.322022E+0	1.268185E+0	1.287358E+0	1.316551E+0	1.353321E+0	1.323367E+0	1.333120E+0	1.301670E+0	1.262089E+0	1.299522E+0	1.293525E+0	1.249949E+0	1.323927E+0	1.297789E+0	1.302286E+0	1.210091E+0	1.261964E+0	1.387300E+0	1.315279E+0	1.299189E+0	1.316317E+0	1.293754E+0	1.303952E+0	1.317236E+0	1.324811E+0	1.287954E+0	1.286598E+0	1.305856E+0	1.352391E+0	1.326208E+0	1.313738E+0	1.251838E+0	1.280607E+0	1.309240E+0	1.304543E+0	1.319797E+0	1.353907E+0	1.295483E+0	1.297921E+0	1.255278E+0	1.291181E+0	1.295779E+0	1.324875E+0	1.293852E+0	1.309960E+0	1.248419E+0	1.279933E+0	1.323367E+0	1.290664E+0	1.282046E+0	1.237866E+0	1.277620E+0	1.364829E+0	1.259674E+0	1.273821E+0	1.354248E+0	1.341257E+0	1.257143E+0	1.250389E+0	1.308400E+0	1.283095E+0	1.237410E+0	1.333492E+0	1.240217E+0	1.302150E+0	1.328689E+0	1.302655E+0	1.294783E+0	1.327436E+0	1.266548E+0	1.316199E+0	1.255663E+0	1.315890E+0	1.286624E+0	1.278507E+0	1.287374E+0	1.275564E+0	1.270467E+0	1.284941E+0	1.265710E+0	1.276720E+0	1.324137E+0	1.253069E+0	1.343482E+0	1.345260E+0	1.312468E+0	1.314228E+0	1.309798E+0	1.358031E+0	1.284002E+0	1.262268E+0	1.252924E+0	1.291614E+0	1.285996E+0	1.282320E+0	1.237866E+0	1.316259E+0	1.270683E+0	1.290693E+0	1.224232E+0	1.270592E+0	1.292530E+0	1.311225E+0	1.337387E+0	1.335913E+0	1.235619E+0	1.309738E+0	1.322785E+0	1.306663E+0	1.276860E+0	1.299201E+0	1.263426E+0	1.243418E+0	1.276232E+0	1.249672E+0	1.321009E+0	1.295340E+0	1.285315E+0	1.300452E+0	1.324773E+0	1.292886E+0	1.307842E+0	1.285235E+0	1.236992E+0
5.455500E+2	1.255833E+0	1.222996E+0	1.286119E+0	1.266947E+0	1.259146E+0	1.269670E+0	1.277851E+0	1.251421E+0	1.254363E+0	1.222684E+0	1.213132E+0	1.280327E+0	1.226201E+0	1.261448E+0	1.249191E+0	1.286598E+0	1.252613E+0	1.250398E+0	1.288679E+0	1.248972E+0	1.234294E+0	1.258654E+0	1.294282E+0	1.265896E+0	1.243155E+0	1.278143E+0	1.227490E+0	1.256288E+0	1.274455E+0	1.236791E+0	1.279582E+0	1.203672E+0	1.277544E+0	1.272665E+0	1.274770E+0	1.259222E+0	1.282142E+0	1.327372E+0	1.268831E+0	1.268431E+0	1.236477E+0	1.284885E+0	1.244751E+0	1.315539E+0	1.290509E+0	1.245104E+0	1.236752E+0	1.278036E+0	1.299074E+0	1.290690E+0	1.275712E+0	1.300521E+0	1.248896E+0	1.244362E+0	1.243968E+0	1.261023E+0	1.230150E+0	1.251876E+0	1.211367E+0	1.226359E+0	1.263289E+0	1.227452E+0	1.267532E+0	1.221787E+0	1.243270E+0	1.259695E+0	1.281217E+0	1.265400E+0	1.273814E+0	1.273433E+0	1.268070E+0	1.270741E+0	1.258379E+0	1.252309E+0	1.157870E+0	1.286251E+0	1.280796E+0	1.270242E+0	1.219649E+0	1.242235E+0	1.222223E+0	1.239829E+0	1.248360E+0	1.223640E+0	1.252841E+0	1.272344E+0	1.252975E+0	1.274550E+0	1.222556E+0	1.249034E+0	1.255115E+0	1.266208E+0	1.234384E+0	1.276256E+0	1.225530E+0	1.227468E+0	1.266246E+0	1.222778E+0	1.246112E+0	1.285712E+0	1.224219E+0	1.235885E+0	1.260860E+0	1.255524E+0	1.216625E+0	1.262805E+0	1.269572E+0	1.258290E+0	1.262115E+0	1.308130E+0	1.258651E+0	1.273133E+0	1.281556E+0	1.287934E+0	1.227028E+0	1.200421E+0	1.215995E+0	1.279379E+0	1.280059E+0	1.183117E+0	1.212103E+0	1.200821E+0	1.225466E+0	1.256269E+0	1.243547E+0	1.258449E+0	1.265797E+0	1.243906E+0	1.242659E+0	1.226511E+0	1.192241E+0	1.227150E+0	1.226689E+0	1.251563E+0	1.331674E+0	1.245102E+0	1.218819E+0	1.232099E+0	1.228646E+0	1.256840E+0	1.252666E+0	1.255136E+0	1.231954E+0	1.212028E+0	1.218811E+0	1.230037E+0	1.214792E+0	1.289051E+0	1.235918E+0	1.284475E+0	1.232557E+0	1.273888E+0	1.222483E+0	1.264038E+0	1.275726E+0	1.253708E+0	1.235640E+0	1.190317E+0	1.230369E+0	1.219250E+0	1.171519E+0	1.253432E+0	1.209513E+0	1.206206E+0	1.250767E+0	1.226329E+0	1.258432E+0	1.215500E+0	1.236184E+0	1.258719E+0	1.334975E+0
5.457720E+2	1.209287E+0	1.229752E+0	1.266534E+0	1.210984E+0	1.205114E+0	1.262893E+0	1.240090E+0	1.226527E+0	1.260423E+0	1.176081E+0	1.178674E+0	1.181185E+0	1.211507E+0	1.195758E+0	1.191721E+0	1.227870E+0	1.249253E+0	1.227184E+0	1.250835E+0	1.198510E+0	1.253766E+0	1.196994E+0	1.281560E+0	1.174062E+0	1.207228E+0	1.199945E+0	1.199838E+0	1.187303E+0	1.212721E+0	1.255506E+0	1.241563E+0	1.248281E+0	1.247923E+0	1.222759E+0	1.193720E+0	1.253616E+0	1.194374E+0	1.205342E+0	1.232857E+0	1.254100E+0	1.256309E+0	1.244130E+0	1.191632E+0	1.203179E+0	1.211902E+0	1.194135E+0	1.272107E+0	1.215953E+0	1.190335E+0	1.227680E+0	1.296728E+0	1.241690E+0	1.229293E+0	1.239226E+0	1.247045E+0	1.228290E+0	1.191223E+0	1.195136E+0	1.181306E+0	1.202909E+0	1.254213E+0	1.236977E+0	1.227387E+0	1.195933E+0	1.198472E+0	1.178549E+0	1.283351E+0	1.177086E+0	1.209610E+0	1.182713E+0	1.251370E+0	1.167617E+0	1.194000E+0	1.217769E+0	1.209167E+0	1.234564E+0	1.182110E+0	1.211128E+0	1.199709E+0	1.214830E+0	1.193854E+0	1.248773E+0	1.199789E+0	1.242251E+0	1.211096E+0	1.204575E+0	1.223799E+0	1.239242E+0	1.196672E+0	1.226145E+0	1.215017E+0	1.243807E+0	1.187148E+0	1.235217E+0	1.238571E+0	1.248245E+0	1.219981E+0	1.210011E+0	1.283924E+0	1.271937E+0	1.180269E+0	1.169901E+0	1.204563E+0	1.263803E+0	1.201088E+0	1.183131E+0	1.142435E+0	1.203980E+0	1.219015E+0	1.202171E+0	1.227062E+0	1.207662E+0	1.196985E+0	1.215999E+0	1.183433E+0	1.175804E+0	1.233193E+0	1.170688E+0	1.276374E+0	1.203706E+0	1.204142E+0	1.198846E+0	1.178216E+0	1.212770E+0	1.205563E+0	1.206692E+0	1.206928E+0	1.192508E+0	1.214856E+0	1.186022E+0	1.241262E+0	1.199564E+0	1.193045E+0	1.263519E+0	1.201859E+0	1.251153E+0	1.261959E+0	1.242630E+0	1.212458E+0	1.213634E+0	1.209826E+0	1.232013E+0	1.197159E+0	1.226339E+0	1.203588E+0	1.196459E+0	1.243912E+0	1.196962E+0	1.193651E+0	1.203718E+0	1.190710E+0	1.220041E+0	1.169960E+0	1.188319E+0	1.161059E+0	1.244084E+0	1.248004E+0	1.207507E+0	1.208846E+0	1.203238E+0	1.215881E+0	1.250813E+0	1.253097E+0	1.198045E+0	1.220674E+0	1.217289E+0	1.220688E+0	1.176809E+0	1.173605E+0	1.241584E+0	1.234027E+0
5.460160E+2	1.114166E+0	1.131592E+0	1.206062E+0	1.209383E+0	1.113053E+0	1.171080E+0	1.246454E+0	1.212015E+0	1.239569E+0	1.163474E+0	1.206173E+0	1.187731E+0	1.190467E+0	1.186529E+0	1.193970E+0	1.165837E+0	1.175394E+0	1.224857E+0	1.187016E+0	1.172956E+0	1.200687E+0	1.237912E+0	1.217640E+0	1.189805E+0	1.149734E+0	1.200797E+0	1.155848E+0	1.166394E+0	1.175355E+0	1.184961E+0	1.190996E+0	1.143715E+0	1.189280E+0	1.171330E+0	1.195369E+0	1.145219E+0	1.134751E+0	1.146249E+0	1.225401E+0	1.190054E+0	1.166416E+0	1.208358E+0	1.225010E+0	1.183963E+0	1.167089E+0	1.195211E+0	1.165548E+0	1.169962E+0	1.158393E+0	1.185392E+0	1.192321E+0	1.178111E+0	1.193351E+0	1.173324E+0	1.228253E+0	1.204078E+0	1.220041E+0	1.192608E+0	1.153411E+0	1.200101E+0	1.189503E+0	1.153290E+0	1.179925E+0	1.202518E+0	1.178322E+0	1.159981E+0	1.203819E+0	1.146514E+0	1.137043E+0	1.125136E+0	1.190210E+0	1.182550E+0	1.152786E+0	1.171661E+0	1.190850E+0	1.187275E+0	1.141733E+0	1.184426E+0	1.156118E+0	1.181463E+0	1.236159E+0	1.175689E+0	1.189088E+0	1.219804E+0	1.156054E+0	1.172926E+0	1.181227E+0	1.149808E+0	1.174984E+0	1.148491E+0	1.202610E+0	1.195820E+0	1.169208E+0	1.229338E+0	1.140914E+0	1.197270E+0	1.159988E+0	1.126663E+0	1.161572E+0	1.154920E+0	1.156781E+0	1.170631E+0	1.202274E+0	1.178989E+0	1.138268E+0	1.140655E+0	1.164087E+0	1.143203E+0	1.148538E+0	1.201166E+0	1.207484E+0	1.165246E+0	1.160925E+0	1.188127E+0	1.184644E+0	1.175264E+0	1.165852E+0	1.200379E+0	1.175554E+0	1.205951E+0	1.176291E+0	1.161926E+0	1.129380E+0	1.175098E+0	1.150414E+0	1.221725E+0	1.173909E+0	1.194733E+0	1.197462E+0	1.144985E+0	1.145001E+0	1.224223E+0	1.177606E+0	1.183257E+0	1.200475E+0	1.192465E+0	1.142257E+0	1.178391E+0	1.167597E+0	1.177614E+0	1.197276E+0	1.161072E+0	1.186303E+0	1.182902E+0	1.177626E+0	1.128706E+0	1.186998E+0	1.188662E+0	1.141551E+0	1.183661E+0	1.191699E+0	1.229954E+0	1.185580E+0	1.185003E+0	1.167451E+0	1.221086E+0	1.172695E+0	1.136953E+0	1.214491E+0	1.145247E+0	1.174344E+0	1.222895E+0	1.189315E+0	1.176303E+0	1.178367E+0	1.129545E+0	1.161969E+0	1.179566E+0	1.136981E+0	1.207521E+0	1.165795E+0
5.467710E+2	1.246713E+0	1.191666E+0	1.240902E+0	1.243775E+0	1.234701E+0	1.278004E+0	1.270053E+0	1.255606E+0	1.280205E+0	1.203369E+0	1.238808E+0	1.234553E+0	1.203897E+0	1.224203E+0	1.220628E+0	1.276725E+0	1.281629E+0	1.256575E+0	1.240768E+0	1.245840E+0	1.256798E+0	1.213123E+0	1.210798E+0	1.225782E+0	1.170604E+0	1.188286E+0	1.232312E+0	1.239047E+0	1.235557E+0	1.192303E+0	1.282066E+0	1.267420E+0	1.205128E+0	1.251478E+0	1.231191E+0	1.243781E+0	1.149904E+0	1.205206E+0	1.258432E+0	1.254706E+0	1.232882E+0	1.209125E+0	1.197846E+0	1.218890E+0	1.248366E+0	1.267811E+0	1.219535E+0	1.290744E+0	1.240067E+0	1.227781E+0	1.211453E+0	1.227697E+0	1.191045E+0	1.265024E+0	1.272317E+0	1.226733E+0	1.267814E+0	1.118180E+0	1.228312E+0	1.205883E+0	1.215277E+0	1.207861E+0	1.239691E+0	1.198978E+0	1.274715E+0	1.192386E+0	1.250583E+0	1.211561E+0	1.206628E+0	1.244594E+0	1.230788E+0	1.239111E+0	1.194029E+0	1.272218E+0	1.198282E+0	1.176801E+0	1.247601E+0	1.202118E+0	1.168102E+0	1.219822E+0	1.264562E+0	1.187284E+0	1.208233E+0	1.188137E+0	1.248700E+0	1.240914E+0	1.233620E+0	1.237924E+0	1.227292E+0	1.269209E+0	1.209522E+0	1.259989E+0	1.261912E+0	1.211575E+0	1.243215E+0	1.238783E+0	1.238861E+0	1.195945E+0	1.217400E+0	1.200689E+0	1.198224E+0	1.207466E+0	1.236649E+0	1.243160E+0	1.226330E+0	1.226088E+0	1.230439E+0	1.270123E+0	1.165967E+0	1.237833E+0	1.233085E+0	1.253783E+0	1.188508E+0	1.211766E+0	1.227412E+0	1.195558E+0	1.256745E+0	1.265680E+0	1.279810E+0	1.196017E+0	1.227823E+0	1.191652E+0	1.267452E+0	1.197086E+0	1.213052E+0	1.163671E+0	1.221441E+0	1.176250E+0	1.227963E+0	1.183723E+0	1.245285E+0	1.228455E+0	1.221884E+0	1.213833E+0	1.286250E+0	1.207127E+0	1.268302E+0	1.198129E+0	1.162389E+0	1.201327E+0	1.230667E+0	1.195300E+0	1.235910E+0	1.173829E+0	1.259562E+0	1.221334E+0	1.199862E+0	1.254884E+0	1.149269E+0	1.226913E+0	1.223134E+0	1.242107E+0	1.262858E+0	1.213170E+0	1.236243E+0	1.268684E+0	1.189007E+0	1.259426E+0	1.167650E+0	1.152328E+0	1.195691E+0	1.208084E+0	1.258279E+0	1.204103E+0	1.201456E+0	1.186617E+0	1.262331E+0	1.167575E+0	1.185817E+0	1.171605E+0	1.319279E+0
5.475230E+2	1.327261E+0	1.390972E+0	1.338647E+0	1.308972E+0	1.298058E+0	1.381731E+0	1.322676E+0	1.293514E+0	1.344279E+0	1.293435E+0	1.352265E+0	1.337816E+0	1.323726E+0	1.337718E+0	1.306415E+0	1.298351E+0	1.313950E+0	1.355268E+0	1.318386E+0	1.335662E+0	1.366890E+0	1.335390E+0	1.388519E+0	1.349402E+0	1.331744E+0	1.355319E+0	1.362502E+0	1.316636E+0	1.319782E+0	1.302878E+0	1.387634E+0	1.359229E+0	1.335570E+0	1.314040E+0	1.307775E+0	1.362948E+0	1.331162E+0	1.388188E+0	1.394445E+0	1.369841E+0	1.325119E+0	1.336114E+0	1.365548E+0	1.327336E+0	1.358640E+0	1.356195E+0	1.323011E+0	1.396560E+0	1.333034E+0	1.327215E+0	1.347233E+0	1.362518E+0	1.401669E+0	1.359558E+0	1.374217E+0	1.314569E+0	1.283228E+0	1.334131E+0	1.338203E+0	1.306921E+0	1.356539E+0	1.337857E+0	1.297207E+0	1.380351E+0	1.383022E+0	1.317709E+0	1.361858E+0	1.331174E+0	1.334778E+0	1.339895E+0	1.390945E+0	1.376627E+0	1.341651E+0	1.321977E+0	1.328395E+0	1.371824E+0	1.359686E+0	1.355815E+0	1.343668E+0	1.350935E+0	1.358416E+0	1.316323E+0	1.356311E+0	1.330563E+0	1.359550E+0	1.326428E+0	1.338684E+0	1.331488E+0	1.335808E+0	1.331429E+0	1.351407E+0	1.340154E+0	1.356819E+0	1.325875E+0	1.392602E+0	1.351029E+0	1.305090E+0	1.312154E+0	1.323769E+0	1.399800E+0	1.291461E+0	1.309337E+0	1.339948E+0	1.347735E+0	1.299216E+0	1.306271E+0	1.278121E+0	1.316733E+0	1.305915E+0	1.353021E+0	1.278963E+0	1.377025E+0	1.334819E+0	1.364291E+0	1.362591E+0	1.305332E+0	1.357128E+0	1.305210E+0	1.310587E+0	1.315408E+0	1.310722E+0	1.316496E+0	1.327801E+0	1.317726E+0	1.308225E+0	1.347745E+0	1.340378E+0	1.326235E+0	1.333972E+0	1.332532E+0	1.324833E+0	1.374276E+0	1.345347E+0	1.266869E+0	1.347341E+0	1.329484E+0	1.318484E+0	1.377463E+0	1.317204E+0	1.272205E+0	1.327535E+0	1.310298E+0	1.374063E+0	1.331618E+0	1.328344E+0	1.312051E+0	1.313870E+0	1.380681E+0	1.301885E+0	1.275926E+0	1.335696E+0	1.343058E+0	1.296328E+0	1.338603E+0	1.359998E+0	1.343891E+0	1.315101E+0	1.304967E+0	1.305103E+0	1.344234E+0	1.339402E+0	1.337176E+0	1.298110E+0	1.338734E+0	1.331076E+0	1.309609E+0	1.318209E+0	1.346123E+0	1.320925E+0	1.336631E+0	1.363046E+0
5.482600E+2	1.423108E+0	1.442962E+0	1.486491E+0	1.502863E+0	1.470500E+0	1.471691E+0	1.446557E+0	1.406642E+0	1.480601E+0	1.437425E+0	1.476805E+0	1.513977E+0	1.436847E+0	1.540477E+0	1.424769E+0	1.437900E+0	1.505460E+0	1.438578E+0	1.521633E+0	1.460600E+0	1.452185E+0	1.387556E+0	1.503302E+0	1.505521E+0	1.460584E+0	1.401735E+0	1.457280E+0	1.433949E+0	1.391354E+0	1.496688E+0	1.428606E+0	1.448352E+0	1.423140E+0	1.449598E+0	1.481698E+0	1.515832E+0	1.406579E+0	1.489132E+0	1.449254E+0	1.496949E+0	1.426613E+0	1.420502E+0	1.455200E+0	1.460822E+0	1.482285E+0	1.404233E+0	1.468399E+0	1.467465E+0	1.431693E+0	1.475864E+0	1.511561E+0	1.497828E+0	1.437207E+0	1.414554E+0	1.481391E+0	1.437350E+0	1.468628E+0	1.440268E+0	1.449463E+0	1.414486E+0	1.457124E+0	1.419604E+0	1.410366E+0	1.452083E+0	1.471029E+0	1.413350E+0	1.438901E+0	1.455189E+0	1.500425E+0	1.423168E+0	1.430510E+0	1.454785E+0	1.413152E+0	1.378210E+0	1.443891E+0	1.435450E+0	1.479175E+0	1.422742E+0	1.426783E+0	1.407555E+0	1.402916E+0	1.465954E+0	1.490776E+0	1.484805E+0	1.427804E+0	1.445641E+0	1.465108E+0	1.445275E+0	1.445917E+0	1.454150E+0	1.434420E+0	1.465150E+0	1.451368E+0	1.453213E+0	1.503347E+0	1.454994E+0	1.433520E+0	1.362642E+0	1.426219E+0	1.482992E+0	1.442471E+0	1.395367E+0	1.466438E+0	1.438063E+0	1.390784E+0	1.452491E+0	1.437635E+0	1.429192E+0	1.451645E+0	1.440277E+0	1.511870E+0	1.430933E+0	1.430912E+0	1.480315E+0	1.448707E+0	1.447028E+0	1.390992E+0	1.422234E+0	1.465177E+0	1.492372E+0	1.425261E+0	1.484461E+0	1.433718E+0	1.412503E+0	1.445415E+0	1.419212E+0	1.447928E+0	1.374583E+0	1.418527E+0	1.367030E+0	1.451147E+0	1.458477E+0	1.383377E+0	1.435727E+0	1.452329E+0	1.454568E+0	1.389782E+0	1.414234E+0	1.436215E+0	1.459209E+0	1.409957E+0	1.436412E+0	1.482052E+0	1.459570E+0	1.455238E+0	1.390802E+0	1.389399E+0	1.475832E+0	1.392440E+0	1.451586E+0	1.478401E+0	1.510383E+0	1.414239E+0	1.507710E+0	1.444364E+0	1.465946E+0	1.439974E+0	1.425802E+0	1.438486E+0	1.383180E+0	1.409442E+0	1.423522E+0	1.435467E+0	1.386591E+0	1.469222E+0	1.410741E+0	1.455504E+0	1.459224E+0	1.377373E+0	1.401642E+0	1.491492E+0
5.490490E+2	1.444063E+0	1.466580E+0	1.456035E+0	1.444868E+0	1.422909E+0	1.478345E+0	1.456102E+0	1.441292E+0	1.413945E+0	1.393091E+0	1.477851E+0	1.472644E+0	1.441328E+0	1.490758E+0	1.434451E+0	1.493812E+0	1.492907E+0	1.423913E+0	1.469784E+0	1.484228E+0	1.465255E+0	1.413520E+0	1.394051E+0	1.447434E+0	1.437987E+0	1.483757E+0	1.416838E+0	1.450176E+0	1.408039E+0	1.361246E+0	1.493798E+0	1.453990E+0	1.440716E+0	1.430204E+0	1.452416E+0	1.402728E+0	1.441577E+0	1.449824E+0	1.459266E+0	1.462195E+0	1.440309E+0	1.409511E+0	1.420757E+0	1.403267E+0	1.434109E+0	1.408715E+0	1.502985E+0	1.421028E+0	1.496152E+0	1.454757E+0	1.526004E+0	1.459355E+0	1.435387E+0	1.463029E+0	1.451329E+0	1.453052E+0	1.495630E+0	1.441024E+0	1.432225E+0	1.424191E+0	1.465069E+0	1.411082E+0	1.422804E+0	1.420266E+0	1.426478E+0	1.432760E+0	1.450531E+0	1.418746E+0	1.431065E+0	1.404745E+0	1.445368E+0	1.486951E+0	1.402355E+0	1.422157E+0	1.390003E+0	1.419768E+0	1.463186E+0	1.359215E+0	1.386498E+0	1.382958E+0	1.472606E+0	1.416185E+0	1.438131E+0	1.412847E+0	1.438340E+0	1.429365E+0	1.460526E+0	1.465707E+0	1.410474E+0	1.482445E+0	1.430561E+0	1.445029E+0	1.394531E+0	1.443194E+0	1.414711E+0	1.398901E+0	1.397709E+0	1.427311E+0	1.494436E+0	1.439439E+0	1.394945E+0	1.371693E+0	1.436053E+0	1.492019E+0	1.431727E+0	1.393214E+0	1.353561E+0	1.394739E+0	1.367896E+0	1.420310E+0	1.419741E+0	1.459122E+0	1.382894E+0	1.423456E+0	1.396229E+0	1.440286E+0	1.421050E+0	1.438530E+0	1.400939E+0	1.421519E+0	1.420067E+0	1.409334E+0	1.356528E+0	1.404209E+0	1.458942E+0	1.415249E+0	1.417213E+0	1.390141E+0	1.415273E+0	1.435103E+0	1.423423E+0	1.448364E+0	1.379298E+0	1.418446E+0	1.507065E+0	1.377233E+0	1.438738E+0	1.478982E+0	1.427256E+0	1.462102E+0	1.412033E+0	1.404624E+0	1.475450E+0	1.443745E+0	1.370974E+0	1.426713E+0	1.449859E+0	1.460989E+0	1.384742E+0	1.471627E+0	1.431200E+0	1.419152E+0	1.373109E+0	1.400477E+0	1.425769E+0	1.421420E+0	1.403195E+0	1.451663E+0	1.382657E+0	1.453029E+0	1.427756E+0	1.442799E+0	1.428404E+0	1.480147E+0	1.464825E+0	1.381629E+0	1.462452E+0	1.419017E+0	1.423169E+0	1.344631E+0	1.417800E+0
5.497960E+2	1.400672E+0	1.342281E+0	1.386914E+0	1.422417E+0	1.337107E+0	1.359453E+0	1.390169E+0	1.447010E+0	1.351509E+0	1.401369E+0	1.369551E+0	1.336153E+0	1.348959E+0	1.387430E+0	1.364035E+0	1.397419E+0	1.464524E+0	1.392988E+0	1.424104E+0	1.434312E+0	1.380564E+0	1.434060E+0	1.381473E+0	1.451497E+0	1.368977E+0	1.342854E+0	1.310989E+0	1.359617E+0	1.368610E+0	1.372042E+0	1.390889E+0	1.394222E+0	1.388282E+0	1.364624E+0	1.410010E+0	1.458598E+0	1.319245E+0	1.385415E+0	1.397243E+0	1.395631E+0	1.389964E+0	1.371952E+0	1.351885E+0	1.386442E+0	1.365571E+0	1.359152E+0	1.345735E+0	1.369980E+0	1.296855E+0	1.448998E+0	1.405536E+0	1.434931E+0	1.339887E+0	1.376514E+0	1.357024E+0	1.431252E+0	1.363797E+0	1.373952E+0	1.333455E+0	1.420714E+0	1.370191E+0	1.355440E+0	1.351876E+0	1.363880E+0	1.407112E+0	1.337937E+0	1.440687E+0	1.413360E+0	1.415897E+0	1.358849E+0	1.414599E+0	1.453453E+0	1.352653E+0	1.319253E+0	1.349634E+0	1.381365E+0	1.369431E+0	1.354443E+0	1.390119E+0	1.362498E+0	1.429589E+0	1.393591E+0	1.389157E+0	1.337119E+0	1.341215E+0	1.430348E+0	1.399178E+0	1.373895E+0	1.379390E+0	1.363829E+0	1.350718E+0	1.403426E+0	1.435297E+0	1.353094E+0	1.412520E+0	1.410577E+0	1.347861E+0	1.327495E+0	1.446218E+0	1.361956E+0	1.390710E+0	1.343039E+0	1.375200E+0	1.396013E+0	1.360231E+0	1.379683E+0	1.342923E+0	1.375905E+0	1.365468E+0	1.374629E+0	1.372621E+0	1.376673E+0	1.356379E+0	1.343861E+0	1.337504E+0	1.401043E+0	1.365523E+0	1.342256E+0	1.360860E+0	1.352983E+0	1.343700E+0	1.370175E+0	1.386395E+0	1.407437E+0	1.394773E+0	1.396889E+0	1.370952E+0	1.373594E+0	1.339503E+0	1.383514E+0	1.322863E+0	1.356070E+0	1.363496E+0	1.318359E+0	1.426362E+0	1.390150E+0	1.415072E+0	1.382712E+0	1.396439E+0	1.370644E+0	1.434113E+0	1.325935E+0	1.423648E+0	1.406636E+0	1.358471E+0	1.338783E+0	1.353027E+0	1.430769E+0	1.332119E+0	1.407141E+0	1.402263E+0	1.443131E+0	1.359764E+0	1.412263E+0	1.350377E+0	1.423616E+0	1.369052E+0	1.359348E+0	1.359859E+0	1.400073E+0	1.318660E+0	1.337741E+0	1.365952E+0	1.357097E+0	1.379656E+0	1.349931E+0	1.332130E+0	1.353604E+0	1.357931E+0	1.470123E+0	1.368045E+0
5.505110E+2	1.333596E+0	1.316447E+0	1.357057E+0	1.323735E+0	1.320283E+0	1.235413E+0	1.306818E+0	1.313245E+0	1.312455E+0	1.337813E+0	1.339171E+0	1.304081E+0	1.296740E+0	1.346016E+0	1.325819E+0	1.287827E+0	1.328000E+0	1.297719E+0	1.379354E+0	1.288666E+0	1.360579E+0	1.289972E+0	1.286694E+0	1.337107E+0	1.294072E+0	1.330730E+0	1.308609E+0	1.319540E+0	1.311716E+0	1.296684E+0	1.317648E+0	1.281681E+0	1.324087E+0	1.338344E+0	1.304412E+0	1.374940E+0	1.312235E+0	1.334073E+0	1.277601E+0	1.305663E+0	1.287148E+0	1.311543E+0	1.335642E+0	1.324150E+0	1.324078E+0	1.304288E+0	1.324702E+0	1.354706E+0	1.314827E+0	1.308399E+0	1.331464E+0	1.347023E+0	1.315233E+0	1.313892E+0	1.337300E+0	1.350782E+0	1.330546E+0	1.331635E+0	1.281015E+0	1.384506E+0	1.309132E+0	1.334159E+0	1.339145E+0	1.302245E+0	1.311921E+0	1.293876E+0	1.364074E+0	1.307780E+0	1.320714E+0	1.316118E+0	1.319331E+0	1.320296E+0	1.308143E+0	1.332469E+0	1.280576E+0	1.313979E+0	1.293270E+0	1.329540E+0	1.306392E+0	1.269836E+0	1.339419E+0	1.293811E+0	1.374026E+0	1.339440E+0	1.309889E+0	1.327544E+0	1.354337E+0	1.394250E+0	1.297855E+0	1.301342E+0	1.370136E+0	1.329764E+0	1.343150E+0	1.342517E+0	1.347018E+0	1.299564E+0	1.302814E+0	1.297398E+0	1.346257E+0	1.292833E+0	1.311220E+0	1.303138E+0	1.299684E+0	1.343767E+0	1.306051E+0	1.315973E+0	1.273493E+0	1.367967E+0	1.285355E+0	1.339905E+0	1.313432E+0	1.300718E+0	1.340740E+0	1.294757E+0	1.277183E+0	1.269147E+0	1.354444E+0	1.282965E+0	1.318370E+0	1.324223E+0	1.318932E+0	1.352885E+0	1.298311E+0	1.294609E+0	1.270349E+0	1.345661E+0	1.339455E+0	1.287928E+0	1.292842E+0	1.296387E+0	1.299173E+0	1.326350E+0	1.278429E+0	1.299196E+0	1.345139E+0	1.327584E+0	1.324420E+0	1.326468E+0	1.330461E+0	1.327938E+0	1.310051E+0	1.317445E+0	1.304973E+0	1.311674E+0	1.361157E+0	1.296265E+0	1.245407E+0	1.312203E+0	1.288180E+0	1.336040E+0	1.367305E+0	1.342704E+0	1.270763E+0	1.320593E+0	1.347415E+0	1.401035E+0	1.315763E+0	1.269665E+0	1.299288E+0	1.309283E+0	1.273879E+0	1.300529E+0	1.336368E+0	1.277387E+0	1.310908E+0	1.297012E+0	1.338488E+0	1.271416E+0	1.253447E+0	1.331002E+0	1.332792E+0
5.512620E+2	1.315053E+0	1.291745E+0	1.383515E+0	1.378267E+0	1.333452E+0	1.336646E+0	1.319524E+0	1.357335E+0	1.338072E+0	1.332372E+0	1.330001E+0	1.330542E+0	1.336475E+0	1.331774E+0	1.355306E+0	1.335153E+0	1.416885E+0	1.301380E+0	1.324452E+0	1.321584E+0	1.324363E+0	1.323332E+0	1.362916E+0	1.328349E+0	1.330145E+0	1.353003E+0	1.325235E+0	1.330716E+0	1.289405E+0	1.289885E+0	1.356081E+0	1.339684E+0	1.349883E+0	1.345851E+0	1.302721E+0	1.338579E+0	1.278483E+0	1.360157E+0	1.330091E+0	1.332577E+0	1.302954E+0	1.321239E+0	1.323519E+0	1.288181E+0	1.388394E+0	1.306878E+0	1.326968E+0	1.291051E+0	1.322552E+0	1.344250E+0	1.297396E+0	1.354709E+0	1.309938E+0	1.355028E+0	1.394253E+0	1.366766E+0	1.323756E+0	1.331190E+0	1.328872E+0	1.305738E+0	1.349147E+0	1.316426E+0	1.296912E+0	1.307147E+0	1.346039E+0	1.265576E+0	1.348666E+0	1.310084E+0	1.314289E+0	1.350866E+0	1.329539E+0	1.346169E+0	1.337745E+0	1.259790E+0	1.305967E+0	1.346810E+0	1.322670E+0	1.308336E+0	1.351725E+0	1.345824E+0	1.357543E+0	1.302700E+0	1.305802E+0	1.287195E+0	1.313443E+0	1.322269E+0	1.341224E+0	1.320467E+0	1.279285E+0	1.328883E+0	1.294710E+0	1.350454E+0	1.322825E+0	1.296789E+0	1.288685E+0	1.385276E+0	1.333270E+0	1.292346E+0	1.310674E+0	1.253134E+0	1.313332E+0	1.286099E+0	1.312894E+0	1.341291E+0	1.292097E+0	1.325235E+0	1.279031E+0	1.274901E+0	1.279529E+0	1.319703E+0	1.337910E+0	1.362591E+0	1.332728E+0	1.318162E+0	1.289339E+0	1.301821E+0	1.290256E+0	1.315026E+0	1.352337E+0	1.318452E+0	1.313875E+0	1.308796E+0	1.371736E+0	1.307317E+0	1.336935E+0	1.342099E+0	1.276405E+0	1.309504E+0	1.323905E+0	1.312707E+0	1.336515E+0	1.318279E+0	1.296504E+0	1.324340E+0	1.332449E+0	1.288940E+0	1.327723E+0	1.329192E+0	1.310953E+0	1.312286E+0	1.300368E+0	1.309178E+0	1.302042E+0	1.307108E+0	1.322036E+0	1.228418E+0	1.310786E+0	1.323969E+0	1.287677E+0	1.265028E+0	1.319355E+0	1.357713E+0	1.302816E+0	1.296257E+0	1.296381E+0	1.361593E+0	1.264769E+0	1.326019E+0	1.283531E+0	1.278718E+0	1.300058E+0	1.344316E+0	1.361381E+0	1.322882E+0	1.321746E+0	1.295724E+0	1.278724E+0	1.314387E+0	1.299614E+0	1.250339E+0	1.379744E+0
5.520210E+2	1.303199E+0	1.258546E+0	1.303976E+0	1.282394E+0	1.259217E+0	1.323866E+0	1.326227E+0	1.281730E+0	1.300405E+0	1.307744E+0	1.284780E+0	1.315161E+0	1.301090E+0	1.337559E+0	1.328124E+0	1.344145E+0	1.333224E+0	1.257681E+0	1.324833E+0	1.274234E+0	1.314233E+0	1.331076E+0	1.284008E+0	1.296354E+0	1.295365E+0	1.332494E+0	1.281049E+0	1.272000E+0	1.283042E+0	1.318908E+0	1.320096E+0	1.314622E+0	1.323255E+0	1.313041E+0	1.265453E+0	1.322226E+0	1.289098E+0	1.343550E+0	1.337472E+0	1.349352E+0	1.337114E+0	1.266623E+0	1.313615E+0	1.298637E+0	1.334342E+0	1.277796E+0	1.314123E+0	1.346968E+0	1.260786E+0	1.318658E+0	1.329186E+0	1.318209E+0	1.259841E+0	1.313644E+0	1.296370E+0	1.309284E+0	1.308995E+0	1.326360E+0	1.329958E+0	1.277019E+0	1.313469E+0	1.311254E+0	1.313205E+0	1.259170E+0	1.307414E+0	1.288837E+0	1.304509E+0	1.291959E+0	1.284540E+0	1.302942E+0	1.306121E+0	1.334596E+0	1.316064E+0	1.304326E+0	1.254381E+0	1.321870E+0	1.237156E+0	1.319356E+0	1.262724E+0	1.349263E+0	1.346174E+0	1.260252E+0	1.296953E+0	1.258826E+0	1.287521E+0	1.264034E+0	1.333144E+0	1.304121E+0	1.277406E+0	1.315623E+0	1.307278E+0	1.284756E+0	1.316590E+0	1.302290E+0	1.254482E+0	1.298181E+0	1.278440E+0	1.287682E+0	1.309004E+0	1.335039E+0	1.278110E+0	1.288943E+0	1.243701E+0	1.318179E+0	1.267718E+0	1.279732E+0	1.280070E+0	1.265622E+0	1.291218E+0	1.239788E+0	1.327963E+0	1.257355E+0	1.279996E+0	1.304738E+0	1.304915E+0	1.258879E+0	1.258046E+0	1.342509E+0	1.290080E+0	1.309919E+0	1.307934E+0	1.281722E+0	1.284479E+0	1.263110E+0	1.276933E+0	1.298700E+0	1.309525E+0	1.265275E+0	1.280056E+0	1.320523E+0	1.201915E+0	1.258721E+0	1.294666E+0	1.299516E+0	1.314399E+0	1.290944E+0	1.271520E+0	1.239248E+0	1.253971E+0	1.301809E+0	1.311632E+0	1.289112E+0	1.275191E+0	1.289272E+0	1.340246E+0	1.282510E+0	1.280849E+0	1.328451E+0	1.290717E+0	1.252697E+0	1.342779E+0	1.294620E+0	1.263386E+0	1.328417E+0	1.275815E+0	1.316058E+0	1.324001E+0	1.310321E+0	1.254639E+0	1.310228E+0	1.252533E+0	1.261917E+0	1.324224E+0	1.322652E+0	1.283163E+0	1.266844E+0	1.329451E+0	1.297381E+0	1.291392E+0	1.297292E+0	1.290736E+0
5.527590E+2	1.299681E+0	1.274174E+0	1.244503E+0	1.288215E+0	1.285527E+0	1.289476E+0	1.286859E+0	1.284415E+0	1.231050E+0	1.199786E+0	1.262573E+0	1.305700E+0	1.261095E+0	1.287416E+0	1.282035E+0	1.283448E+0	1.312047E+0	1.288858E+0	1.264161E+0	1.273167E+0	1.294380E+0	1.238815E+0	1.311463E+0	1.323767E+0	1.267481E+0	1.277922E+0	1.248739E+0	1.279670E+0	1.255062E+0	1.280307E+0	1.322383E+0	1.256506E+0	1.275345E+0	1.281174E+0	1.267426E+0	1.256805E+0	1.255078E+0	1.298998E+0	1.242819E+0	1.298866E+0	1.266468E+0	1.240177E+0	1.303116E+0	1.301439E+0	1.238903E+0	1.282755E+0	1.267035E+0	1.266151E+0	1.222513E+0	1.238666E+0	1.271388E+0	1.235599E+0	1.322790E+0	1.238022E+0	1.300873E+0	1.245325E+0	1.252181E+0	1.301391E+0	1.223343E+0	1.272796E+0	1.288745E+0	1.283280E+0	1.249268E+0	1.272819E+0	1.289673E+0	1.248964E+0	1.256547E+0	1.274815E+0	1.285403E+0	1.254099E+0	1.260468E+0	1.291794E+0	1.287046E+0	1.243931E+0	1.252477E+0	1.308344E+0	1.279119E+0	1.236452E+0	1.286023E+0	1.287590E+0	1.345495E+0	1.245835E+0	1.279749E+0	1.276273E+0	1.294934E+0	1.274260E+0	1.305207E+0	1.308299E+0	1.269565E+0	1.261811E+0	1.285063E+0	1.304740E+0	1.286136E+0	1.262653E+0	1.221804E+0	1.259774E+0	1.290272E+0	1.227711E+0	1.334801E+0	1.280938E+0	1.245652E+0	1.253399E+0	1.234971E+0	1.334019E+0	1.216068E+0	1.274678E+0	1.231095E+0	1.245676E+0	1.257151E+0	1.274263E+0	1.245565E+0	1.213416E+0	1.319349E+0	1.351287E+0	1.270250E+0	1.311794E+0	1.285605E+0	1.281743E+0	1.287835E+0	1.271872E+0	1.209016E+0	1.293302E+0	1.256633E+0	1.341041E+0	1.282395E+0	1.264981E+0	1.278055E+0	1.273679E+0	1.286744E+0	1.250471E+0	1.258013E+0	1.279054E+0	1.277635E+0	1.251908E+0	1.273228E+0	1.306366E+0	1.249960E+0	1.261403E+0	1.242717E+0	1.294251E+0	1.267575E+0	1.227363E+0	1.290774E+0	1.274465E+0	1.232966E+0	1.247495E+0	1.226820E+0	1.311457E+0	1.236736E+0	1.257945E+0	1.248130E+0	1.307060E+0	1.283731E+0	1.260369E+0	1.309544E+0	1.311497E+0	1.253951E+0	1.281346E+0	1.255197E+0	1.268749E+0	1.215531E+0	1.235095E+0	1.247737E+0	1.312402E+0	1.277502E+0	1.235530E+0	1.270906E+0	1.247128E+0	1.256198E+0	1.305978E+0	1.348281E+0
5.535440E+2	1.247999E+0	1.221694E+0	1.222478E+0	1.206217E+0	1.223394E+0	1.230976E+0	1.240882E+0	1.215899E+0	1.202520E+0	1.240437E+0	1.157954E+0	1.165484E+0	1.183605E+0	1.221537E+0	1.261317E+0	1.231173E+0	1.225349E+0	1.190814E+0	1.240333E+0	1.269314E+0	1.197961E+0	1.227047E+0	1.258376E+0	1.248054E+0	1.191270E+0	1.199281E+0	1.212158E+0	1.280221E+0	1.216200E+0	1.173986E+0	1.234307E+0	1.243109E+0	1.245481E+0	1.212851E+0	1.235900E+0	1.230996E+0	1.191158E+0	1.269589E+0	1.220450E+0	1.243990E+0	1.207011E+0	1.196455E+0	1.153637E+0	1.181912E+0	1.253690E+0	1.228282E+0	1.224930E+0	1.259457E+0	1.204204E+0	1.215001E+0	1.204117E+0	1.265995E+0	1.186297E+0	1.199669E+0	1.238652E+0	1.171919E+0	1.190520E+0	1.240639E+0	1.211188E+0	1.152262E+0	1.243993E+0	1.227609E+0	1.197871E+0	1.213692E+0	1.231057E+0	1.176245E+0	1.258940E+0	1.208666E+0	1.176544E+0	1.202088E+0	1.188196E+0	1.207164E+0	1.241973E+0	1.171958E+0	1.177139E+0	1.191914E+0	1.217549E+0	1.249718E+0	1.183380E+0	1.173549E+0	1.236237E+0	1.200297E+0	1.228664E+0	1.190224E+0	1.223771E+0	1.211059E+0	1.223326E+0	1.244524E+0	1.172467E+0	1.211487E+0	1.197463E+0	1.297985E+0	1.157319E+0	1.208403E+0	1.205442E+0	1.242484E+0	1.184104E+0	1.217831E+0	1.219791E+0	1.205971E+0	1.294511E+0	1.193727E+0	1.195939E+0	1.228067E+0	1.200107E+0	1.186011E+0	1.192092E+0	1.190447E+0	1.179027E+0	1.211068E+0	1.238069E+0	1.194028E+0	1.228264E+0	1.203777E+0	1.188499E+0	1.203416E+0	1.187712E+0	1.231953E+0	1.204607E+0	1.214578E+0	1.194241E+0	1.205040E+0	1.212946E+0	1.205966E+0	1.248372E+0	1.265390E+0	1.210330E+0	1.182764E+0	1.217401E+0	1.219653E+0	1.222888E+0	1.258261E+0	1.252814E+0	1.220504E+0	1.231804E+0	1.226823E+0	1.181461E+0	1.216928E+0	1.217081E+0	1.226038E+0	1.235701E+0	1.235658E+0	1.292051E+0	1.241667E+0	1.204139E+0	1.164821E+0	1.166272E+0	1.242365E+0	1.206386E+0	1.214637E+0	1.213148E+0	1.183175E+0	1.255167E+0	1.226072E+0	1.187187E+0	1.244923E+0	1.226634E+0	1.214506E+0	1.203014E+0	1.247852E+0	1.191412E+0	1.202249E+0	1.240663E+0	1.181374E+0	1.231884E+0	1.184990E+0	1.189018E+0	1.236028E+0	1.190467E+0	1.245343E+0	1.186346E+0
5.542580E+2	1.134487E+0	1.087684E+0	1.106577E+0	1.145712E+0	1.111230E+0	1.158637E+0	1.128914E+0	1.115335E+0	1.108653E+0	1.139749E+0	1.149482E+0	1.118175E+0	1.134171E+0	1.109733E+0	1.109620E+0	1.066379E+0	1.170225E+0	1.108235E+0	1.126239E+0	1.110286E+0	1.163613E+0	1.124523E+0	1.102935E+0	1.115920E+0	1.114441E+0	1.121326E+0	1.096475E+0	1.106938E+0	1.115708E+0	1.131961E+0	1.103296E+0	1.095885E+0	1.091427E+0	1.070582E+0	1.095040E+0	1.091483E+0	1.070201E+0	1.148984E+0	1.124623E+0	1.088435E+0	1.119829E+0	1.117287E+0	1.124186E+0	1.126199E+0	1.142479E+0	1.089002E+0	1.137311E+0	1.088675E+0	1.132360E+0	1.133531E+0	1.122504E+0	1.131687E+0	1.149525E+0	1.140572E+0	1.074463E+0	1.099850E+0	1.131826E+0	1.123767E+0	1.039513E+0	1.103697E+0	1.124580E+0	1.107633E+0	1.090378E+0	1.120002E+0	1.158951E+0	1.096927E+0	1.086000E+0	1.131951E+0	1.129163E+0	1.062863E+0	1.145209E+0	1.131304E+0	1.126155E+0	1.094656E+0	1.053985E+0	1.124613E+0	1.109925E+0	1.135657E+0	1.156552E+0	1.117935E+0	1.130645E+0	1.117409E+0	1.135007E+0	1.119757E+0	1.123500E+0	1.106151E+0	1.118127E+0	1.136622E+0	1.085008E+0	1.156410E+0	1.107520E+0	1.148058E+0	1.104353E+0	1.106068E+0	1.120463E+0	1.078462E+0	1.136337E+0	1.084964E+0	1.119777E+0	1.126904E+0	1.144871E+0	1.143541E+0	1.070036E+0	1.096456E+0	1.113581E+0	1.101391E+0	1.111813E+0	1.093024E+0	1.118073E+0	1.179394E+0	1.126011E+0	1.085098E+0	1.089043E+0	1.075721E+0	1.112460E+0	1.112893E+0	1.060750E+0	1.076983E+0	1.125040E+0	1.111786E+0	1.105267E+0	1.062493E+0	1.112073E+0	1.067991E+0	1.109920E+0	1.090397E+0	1.112641E+0	1.122655E+0	1.093140E+0	1.142643E+0	1.125302E+0	1.113280E+0	1.083972E+0	1.093914E+0	1.086104E+0	1.124740E+0	1.117592E+0	1.118750E+0	1.133163E+0	1.151508E+0	1.132398E+0	1.093862E+0	1.166563E+0	1.119079E+0	1.081253E+0	1.073097E+0	1.073146E+0	1.148940E+0	1.105946E+0	1.125588E+0	1.104529E+0	1.106623E+0	1.065309E+0	1.081970E+0	1.113853E+0	1.133227E+0	1.112333E+0	1.115914E+0	1.093262E+0	1.078848E+0	1.094353E+0	1.121008E+0	1.103412E+0	1.147633E+0	1.100775E+0	1.057913E+0	1.118021E+0	1.124068E+0	1.070383E+0	1.064345E+0	1.180017E+0
5.550250E+2	1.019756E+0	9.844353E-1	1.019085E+0	1.030238E+0	1.073232E+0	1.009650E+0	1.046631E+0	1.040444E+0	1.033480E+0	1.020376E+0	9.961944E-1	1.010596E+0	9.995833E-1	1.037895E+0	1.010343E+0	1.007607E+0	1.062589E+0	1.041782E+0	1.025670E+0	1.007129E+0	1.005052E+0	1.024943E+0	1.035851E+0	1.017854E+0	1.026671E+0	1.042457E+0	9.929201E-1	1.016812E+0	1.019599E+0	1.011284E+0	1.045662E+0	9.848355E-1	1.017799E+0	1.053467E+0	1.004434E+0	1.016203E+0	9.517269E-1	9.821453E-1	1.016092E+0	1.036403E+0	1.028580E+0	1.044162E+0	9.575629E-1	1.006598E+0	1.044443E+0	1.059452E+0	1.033199E+0	1.025305E+0	1.042172E+0	1.088899E+0	1.023356E+0	1.024403E+0	9.811204E-1	1.046890E+0	1.020860E+0	1.021773E+0	1.005826E+0	9.986747E-1	9.698443E-1	1.010779E+0	1.076269E+0	9.825032E-1	1.006299E+0	9.955523E-1	1.053022E+0	9.936945E-1	1.027371E+0	1.018790E+0	9.698183E-1	1.010305E+0	1.046843E+0	1.003987E+0	1.052904E+0	1.007957E+0	9.649612E-1	9.810305E-1	9.913107E-1	1.016961E+0	9.941849E-1	1.044143E+0	1.052954E+0	1.038017E+0	9.979076E-1	1.036418E+0	1.034657E+0	1.033506E+0	1.013271E+0	1.034647E+0	1.028197E+0	1.006198E+0	1.050536E+0	1.083345E+0	1.014510E+0	9.712131E-1	1.071848E+0	1.005782E+0	1.053211E+0	9.896068E-1	1.024537E+0	1.026958E+0	1.014957E+0	1.029226E+0	1.001570E+0	1.046018E+0	1.004939E+0	1.002559E+0	9.813795E-1	1.042537E+0	9.763612E-1	1.001884E+0	1.021696E+0	9.984278E-1	1.051751E+0	1.051935E+0	9.914975E-1	1.026802E+0	1.021182E+0	1.011333E+0	1.016605E+0	9.941830E-1	1.049685E+0	9.760976E-1	1.024205E+0	1.049498E+0	1.019895E+0	1.025648E+0	1.040610E+0	1.009444E+0	9.912038E-1	1.014156E+0	1.017775E+0	1.061654E+0	9.826249E-1	1.027401E+0	1.083210E+0	1.064254E+0	9.971463E-1	1.004172E+0	1.001303E+0	9.791218E-1	1.027135E+0	1.007068E+0	9.623375E-1	9.590499E-1	1.033590E+0	1.036017E+0	1.025386E+0	1.075890E+0	1.023361E+0	9.940872E-1	1.041070E+0	1.005185E+0	9.914051E-1	1.032797E+0	1.003714E+0	1.055452E+0	1.006918E+0	1.041739E+0	9.952424E-1	9.990643E-1	1.028236E+0	1.015861E+0	1.068984E+0	1.038686E+0	1.035044E+0	9.983789E-1	1.034799E+0	1.025695E+0	9.829752E-1	1.009424E+0	9.626414E-1
5.557550E+2	9.634581E-1	9.510448E-1	9.375029E-1	9.843786E-1	9.278332E-1	9.470949E-1	1.018637E+0	9.658840E-1	9.955872E-1	9.348753E-1	9.668662E-1	9.742708E-1	9.435466E-1	9.464538E-1	9.909282E-1	9.730109E-1	9.291018E-1	9.529910E-1	1.002669E+0	9.381128E-1	9.515588E-1	9.769777E-1	9.265252E-1	9.856561E-1	9.544454E-1	9.767741E-1	9.645252E-1	9.658190E-1	9.484236E-1	9.903200E-1	9.890017E-1	9.527544E-1	9.590513E-1	9.646952E-1	9.523602E-1	9.669279E-1	9.511999E-1	9.620532E-1	9.974956E-1	9.575744E-1	1.000626E+0	9.612846E-1	9.138790E-1	9.350538E-1	9.590991E-1	9.562321E-1	9.967440E-1	9.793922E-1	9.110964E-1	9.805160E-1	9.941960E-1	9.437012E-1	9.731439E-1	9.598123E-1	9.731928E-1	1.009085E+0	9.381437E-1	9.227033E-1	9.819531E-1	9.191092E-1	9.493822E-1	9.699975E-1	9.479993E-1	9.602883E-1	9.856196E-1	9.290912E-1	1.002314E+0	9.372211E-1	9.441282E-1	9.303712E-1	1.014139E+0	9.338242E-1	9.472259E-1	9.591986E-1	9.061793E-1	9.297225E-1	9.494702E-1	9.814754E-1	9.304756E-1	1.018148E+0	9.882126E-1	9.681080E-1	9.277753E-1	9.592905E-1	9.778391E-1	9.755906E-1	9.718263E-1	9.277504E-1	9.884460E-1	9.703803E-1	9.884611E-1	9.664180E-1	9.789965E-1	9.544014E-1	9.382021E-1	9.661398E-1	9.706559E-1	9.776800E-1	9.959026E-1	9.292133E-1	9.685760E-1	9.226217E-1	1.008192E+0	9.752767E-1	9.325110E-1	9.399921E-1	9.531460E-1	9.516726E-1	9.440078E-1	9.915962E-1	9.334713E-1	9.272017E-1	9.323292E-1	9.243629E-1	9.467544E-1	9.506032E-1	9.702701E-1	9.558772E-1	9.412899E-1	9.346686E-1	9.720581E-1	9.527318E-1	9.397275E-1	9.340674E-1	9.903040E-1	9.854886E-1	9.470171E-1	9.644890E-1	9.163069E-1	9.749593E-1	9.480937E-1	1.003575E+0	9.494239E-1	9.208630E-1	9.684327E-1	9.697860E-1	9.612088E-1	9.545616E-1	9.595756E-1	9.776565E-1	9.576305E-1	9.680056E-1	9.222315E-1	9.728296E-1	9.470810E-1	9.630266E-1	9.175748E-1	9.972284E-1	9.284204E-1	1.008105E+0	9.106136E-1	9.549658E-1	9.534428E-1	9.992107E-1	9.722358E-1	9.726192E-1	9.799002E-1	9.835003E-1	9.357648E-1	9.293749E-1	9.514369E-1	9.224535E-1	9.150548E-1	1.002681E+0	9.995148E-1	9.572016E-1	9.194974E-1	9.427340E-1	9.546244E-1	9.295127E-1	1.027264E+0
5.560190E+2	9.527288E-1	9.755333E-1	9.902438E-1	9.927112E-1	9.292549E-1	9.726680E-1	9.386727E-1	9.534020E-1	1.000898E+0	9.973272E-1	9.475873E-1	9.582339E-1	9.398253E-1	9.386570E-1	9.516125E-1	1.001237E+0	9.480506E-1	1.002316E+0	1.006112E+0	9.793771E-1	9.466179E-1	9.999412E-1	1.003719E+0	9.898880E-1	9.653983E-1	9.630603E-1	9.637672E-1	9.125880E-1	9.641652E-1	9.662183E-1	9.678524E-1	9.253594E-1	9.849816E-1	9.657699E-1	9.394785E-1	9.783303E-1	9.677413E-1	9.816540E-1	9.603890E-1	9.956785E-1	9.938263E-1	9.405590E-1	9.731680E-1	9.449068E-1	9.776960E-1	9.191287E-1	9.376607E-1	1.022576E+0	9.459138E-1	9.834358E-1	9.916748E-1	9.651397E-1	9.919744E-1	9.929465E-1	9.568118E-1	9.443355E-1	9.395950E-1	9.243613E-1	9.877079E-1	9.572146E-1	1.006005E+0	9.679407E-1	1.000471E+0	9.408424E-1	1.006528E+0	9.071777E-1	1.000201E+0	9.559025E-1	1.004097E+0	9.592991E-1	9.927445E-1	9.592681E-1	9.736537E-1	9.543308E-1	9.539257E-1	9.337217E-1	9.590439E-1	9.906163E-1	9.224800E-1	9.545803E-1	9.786633E-1	9.595573E-1	9.800488E-1	9.773618E-1	9.676807E-1	9.697816E-1	9.200359E-1	9.541415E-1	1.013109E+0	9.235115E-1	9.703066E-1	1.003896E+0	9.926358E-1	9.807856E-1	9.791703E-1	9.635465E-1	9.669829E-1	9.955652E-1	1.003836E+0	9.638056E-1	9.741678E-1	9.987344E-1	9.342174E-1	9.502527E-1	1.017585E+0	9.158453E-1	9.165994E-1	9.194911E-1	9.723507E-1	9.925499E-1	9.641504E-1	9.960976E-1	9.793633E-1	9.769845E-1	9.129755E-1	8.833203E-1	9.769029E-1	9.505903E-1	9.367409E-1	9.502088E-1	9.720616E-1	9.531338E-1	9.425739E-1	9.691933E-1	1.024966E+0	9.375422E-1	9.618256E-1	9.649934E-1	9.780858E-1	9.916435E-1	9.445774E-1	1.006955E+0	9.448808E-1	9.409573E-1	9.832927E-1	9.839369E-1	9.917804E-1	9.732570E-1	9.708581E-1	9.952463E-1	9.857964E-1	9.937934E-1	9.613741E-1	9.771128E-1	9.575305E-1	9.897048E-1	9.488560E-1	1.012767E+0	1.001920E+0	9.813291E-1	9.555017E-1	9.628580E-1	9.653588E-1	9.566172E-1	9.964727E-1	9.979406E-1	9.301424E-1	9.884974E-1	9.321307E-1	9.556181E-1	1.001282E+0	9.798805E-1	9.783724E-1	9.488718E-1	9.745609E-1	9.934524E-1	9.606617E-1	9.618077E-1	9.393710E-1	9.950735E-1	9.202663E-1
5.565140E+2	9.453155E-1	9.861120E-1	1.015130E+0	9.426579E-1	1.015857E+0	9.500063E-1	1.023791E+0	9.565427E-1	9.730414E-1	9.548916E-1	1.010316E+0	9.672626E-1	9.724272E-1	9.584856E-1	9.693803E-1	9.670801E-1	9.923889E-1	1.011444E+0	9.666298E-1	1.001892E+0	1.005001E+0	9.930994E-1	9.848455E-1	9.843181E-1	1.001516E+0	1.009078E+0	1.022359E+0	9.981798E-1	1.028600E+0	9.655383E-1	9.580403E-1	1.026734E+0	9.956766E-1	9.815112E-1	9.947411E-1	9.813372E-1	1.000787E+0	9.887506E-1	1.007236E+0	9.909567E-1	1.003915E+0	1.028718E+0	9.957216E-1	1.006877E+0	1.001264E+0	9.969959E-1	1.011901E+0	1.009285E+0	9.438643E-1	9.943870E-1	9.821658E-1	9.989309E-1	9.856864E-1	1.006647E+0	9.843040E-1	9.971120E-1	9.629468E-1	9.966057E-1	9.812992E-1	9.674025E-1	9.962059E-1	1.021206E+0	1.024840E+0	9.794123E-1	9.963123E-1	9.745017E-1	1.007261E+0	1.000862E+0	9.786818E-1	9.563489E-1	9.608164E-1	9.899503E-1	9.757173E-1	1.000521E+0	9.640095E-1	1.000266E+0	9.960445E-1	9.808533E-1	9.667515E-1	9.806234E-1	1.036237E+0	1.000897E+0	1.007068E+0	1.009134E+0	1.002790E+0	9.695180E-1	9.790234E-1	9.902196E-1	9.774024E-1	9.507540E-1	9.938609E-1	9.681168E-1	9.456498E-1	9.878303E-1	9.391498E-1	9.272093E-1	9.543771E-1	9.774516E-1	9.869182E-1	1.004990E+0	1.005602E+0	9.881623E-1	1.002939E+0	9.941650E-1	9.679987E-1	1.046530E+0	9.809301E-1	9.710513E-1	1.031586E+0	1.013954E+0	9.842324E-1	9.817252E-1	9.462475E-1	9.962198E-1	9.925301E-1	9.600796E-1	9.812830E-1	9.604825E-1	9.719793E-1	1.036958E+0	1.005096E+0	9.869291E-1	1.016974E+0	9.817921E-1	1.026326E+0	1.016116E+0	1.007915E+0	9.702978E-1	9.848178E-1	9.744746E-1	9.995228E-1	9.647572E-1	9.859099E-1	9.730709E-1	1.037974E+0	9.728724E-1	9.965156E-1	1.009987E+0	9.744520E-1	1.001763E+0	1.003067E+0	9.772202E-1	9.588667E-1	9.862856E-1	9.987836E-1	9.967446E-1	9.957713E-1	9.717529E-1	1.009233E+0	1.011889E+0	1.014637E+0	9.920620E-1	1.005018E+0	9.692463E-1	9.836758E-1	9.741848E-1	9.749229E-1	1.017661E+0	1.029634E+0	9.678892E-1	9.686242E-1	1.016881E+0	9.931392E-1	1.009783E+0	1.000549E+0	9.715295E-1	1.036335E+0	1.044911E+0	9.657294E-1	1.038054E+0	9.954222E-1
5.570440E+2	9.822282E-1	9.918180E-1	1.023498E+0	1.038941E+0	1.001265E+0	9.883774E-1	9.884954E-1	1.009094E+0	1.033987E+0	9.874412E-1	9.712468E-1	1.045462E+0	1.005882E+0	9.900131E-1	1.022237E+0	1.008035E+0	1.012984E+0	1.025830E+0	9.971979E-1	1.012295E+0	9.872186E-1	9.998817E-1	1.032800E+0	1.019809E+0	9.835186E-1	1.001714E+0	1.009814E+0	1.008886E+0	1.015168E+0	9.706668E-1	9.819309E-1	1.000825E+0	1.021467E+0	1.043986E+0	1.006587E+0	9.994112E-1	9.792888E-1	9.983139E-1	9.927205E-1	1.007677E+0	9.849868E-1	9.924640E-1	9.755463E-1	1.020492E+0	1.013894E+0	9.763770E-1	9.884358E-1	9.853370E-1	9.877951E-1	9.953861E-1	1.028391E+0	1.021002E+0	9.778634E-1	1.012480E+0	9.821556E-1	9.912595E-1	1.022049E+0	1.042457E+0	1.021611E+0	9.639529E-1	1.036637E+0	9.955019E-1	9.549195E-1	1.007028E+0	9.992681E-1	1.014520E+0	1.016022E+0	9.493200E-1	1.020957E+0	9.891136E-1	1.019425E+0	1.006254E+0	1.018331E+0	1.035283E+0	9.954242E-1	1.004414E+0	1.051135E+0	1.022528E+0	1.001302E+0	9.425905E-1	1.000056E+0	9.672079E-1	9.998933E-1	9.953592E-1	9.688168E-1	1.006954E+0	1.016942E+0	9.882600E-1	1.074172E+0	9.851992E-1	9.913499E-1	1.008781E+0	9.953783E-1	9.786302E-1	1.022774E+0	1.038924E+0	9.670606E-1	9.806971E-1	1.012585E+0	1.011576E+0	1.005013E+0	9.909866E-1	9.774204E-1	9.980054E-1	1.053562E+0	9.726271E-1	9.795855E-1	9.838590E-1	1.015702E+0	9.936424E-1	1.009457E+0	9.995047E-1	1.051640E+0	1.002355E+0	9.776518E-1	1.006070E+0	1.059911E+0	9.796393E-1	9.859185E-1	9.693598E-1	9.934170E-1	1.006319E+0	9.719017E-1	9.998828E-1	9.621391E-1	9.829024E-1	1.006877E+0	1.032637E+0	9.727560E-1	9.879591E-1	1.030515E+0	9.981985E-1	9.865896E-1	9.984830E-1	9.630463E-1	9.649760E-1	1.028656E+0	1.021047E+0	9.880164E-1	9.794633E-1	9.566236E-1	1.019113E+0	1.006262E+0	9.951544E-1	1.007359E+0	1.015427E+0	9.992962E-1	1.025294E+0	9.269979E-1	1.050938E+0	9.860590E-1	1.028764E+0	1.019268E+0	1.012957E+0	1.006392E+0	9.960667E-1	1.027516E+0	1.004279E+0	9.924550E-1	1.002251E+0	1.044050E+0	9.629185E-1	9.791539E-1	1.007159E+0	9.826712E-1	1.019557E+0	1.004105E+0	9.732345E-1	1.014630E+0	1.011495E+0	1.012228E+0
5.575640E+2	9.561745E-1	9.759678E-1	9.781027E-1	1.001897E+0	9.905355E-1	9.785722E-1	9.990400E-1	1.001646E+0	9.790148E-1	9.808360E-1	9.728520E-1	9.888844E-1	1.023072E+0	1.021763E+0	9.845753E-1	9.869217E-1	9.731311E-1	9.762111E-1	1.000842E+0	9.956637E-1	9.530615E-1	9.469625E-1	9.653049E-1	9.675344E-1	9.754811E-1	9.782202E-1	9.883546E-1	9.775220E-1	1.003777E+0	1.000067E+0	9.548037E-1	9.568217E-1	9.834651E-1	9.493704E-1	9.799222E-1	1.007787E+0	1.023703E+0	1.000575E+0	9.880420E-1	9.739501E-1	9.864267E-1	9.625349E-1	1.017240E+0	9.965015E-1	1.003910E+0	9.988067E-1	1.004678E+0	9.775621E-1	9.768761E-1	9.783595E-1	9.954898E-1	9.834826E-1	9.806633E-1	9.469032E-1	1.043551E+0	1.003781E+0	9.931509E-1	1.017019E+0	9.903458E-1	1.020648E+0	9.680432E-1	9.728442E-1	9.946468E-1	9.533932E-1	1.007491E+0	9.809845E-1	9.791924E-1	9.756738E-1	9.859934E-1	9.817393E-1	9.825161E-1	1.000737E+0	9.939401E-1	9.652232E-1	9.688234E-1	1.001835E+0	9.987879E-1	9.800106E-1	9.994904E-1	9.937073E-1	9.719012E-1	9.613309E-1	9.954198E-1	9.895558E-1	1.029364E+0	1.039591E+0	1.001782E+0	9.871798E-1	1.013516E+0	1.005982E+0	1.035896E+0	9.482383E-1	1.014424E+0	1.018757E+0	1.010893E+0	9.972166E-1	9.763279E-1	1.000618E+0	9.728374E-1	9.698019E-1	1.000326E+0	9.982833E-1	1.017524E+0	9.988559E-1	1.017593E+0	9.969638E-1	9.833597E-1	1.024567E+0	9.942505E-1	9.913816E-1	1.028288E+0	1.056633E+0	9.806098E-1	9.679025E-1	1.015695E+0	9.957465E-1	9.455258E-1	9.680123E-1	1.020716E+0	9.984965E-1	9.523389E-1	1.016903E+0	9.988908E-1	9.952126E-1	1.006244E+0	9.933961E-1	9.649643E-1	1.023856E+0	9.613540E-1	1.019300E+0	9.433912E-1	9.986586E-1	9.894390E-1	1.023172E+0	1.008751E+0	1.004135E+0	1.027064E+0	9.728928E-1	1.024809E+0	9.994938E-1	1.041797E+0	9.930493E-1	1.006405E+0	9.873932E-1	1.050821E+0	1.058175E+0	1.014382E+0	1.010416E+0	1.035177E+0	9.843684E-1	1.013635E+0	9.933015E-1	9.875254E-1	1.010456E+0	9.816690E-1	1.017018E+0	9.791093E-1	1.029982E+0	9.849331E-1	1.003468E+0	9.726486E-1	1.000428E+0	9.761571E-1	1.031024E+0	1.015397E+0	1.011438E+0	9.723008E-1	9.742885E-1	1.057799E+0	1.013976E+0	1.014678E+0
5.580230E+2	1.016132E+0	1.049999E+0	1.002088E+0	9.993014E-1	1.020768E+0	1.001836E+0	9.908309E-1	9.785792E-1	9.921198E-1	9.513015E-1	9.845942E-1	9.903419E-1	9.919814E-1	1.000473E+0	9.849741E-1	9.915128E-1	9.988417E-1	9.910110E-1	1.006196E+0	9.959976E-1	9.794346E-1	1.005014E+0	9.914935E-1	1.003755E+0	1.020539E+0	1.008945E+0	9.685710E-1	9.868166E-1	1.000582E+0	9.877874E-1	1.002253E+0	9.981431E-1	1.017344E+0	1.003425E+0	9.866509E-1	1.006270E+0	9.923143E-1	9.856058E-1	9.801010E-1	1.014901E+0	9.879498E-1	1.025034E+0	9.526199E-1	9.962514E-1	1.033707E+0	9.708863E-1	9.762630E-1	1.003625E+0	1.069080E+0	1.025841E+0	9.790669E-1	1.023914E+0	1.005393E+0	1.042958E+0	9.819716E-1	1.003342E+0	1.040962E+0	9.824970E-1	9.631961E-1	1.039903E+0	1.005246E+0	9.917651E-1	9.874245E-1	9.738280E-1	9.936364E-1	9.926847E-1	9.901463E-1	1.016751E+0	9.664227E-1	1.018721E+0	1.012432E+0	9.735054E-1	1.006060E+0	9.695160E-1	9.820204E-1	9.963280E-1	1.013520E+0	1.004515E+0	1.037165E+0	9.874446E-1	1.017907E+0	9.811025E-1	9.746016E-1	9.904772E-1	9.833326E-1	9.805723E-1	1.011638E+0	1.003031E+0	9.981389E-1	1.025845E+0	9.997165E-1	1.054687E+0	1.014959E+0	1.008099E+0	9.844843E-1	9.978856E-1	1.042495E+0	9.905405E-1	1.018346E+0	1.020848E+0	1.010876E+0	1.023503E+0	9.977822E-1	9.985858E-1	1.003562E+0	9.870402E-1	9.987295E-1	1.011172E+0	9.598197E-1	1.052278E+0	1.021174E+0	9.786877E-1	1.012898E+0	1.003309E+0	1.003794E+0	9.689401E-1	1.041541E+0	1.002014E+0	1.038396E+0	9.936601E-1	1.011502E+0	9.211903E-1	9.794499E-1	9.830156E-1	1.002246E+0	9.864844E-1	1.002127E+0	1.005301E+0	1.012068E+0	1.032433E+0	9.965071E-1	9.551647E-1	9.957926E-1	1.004181E+0	9.813575E-1	9.821840E-1	9.922921E-1	1.012706E+0	9.816104E-1	1.018907E+0	1.017726E+0	9.869167E-1	9.773572E-1	9.489512E-1	1.033709E+0	1.046783E+0	1.005515E+0	9.908041E-1	9.910311E-1	9.855727E-1	9.853941E-1	1.028214E+0	9.912478E-1	9.799450E-1	9.586336E-1	9.797528E-1	9.524448E-1	9.824143E-1	9.567869E-1	9.921212E-1	1.027217E+0	1.010628E+0	9.914022E-1	9.944455E-1	1.023171E+0	9.838513E-1	9.953487E-1	1.006450E+0	1.001846E+0	9.311561E-1	1.020697E+0
5.585160E+2	1.007856E+0	1.013030E+0	1.013125E+0	9.802341E-1	9.926562E-1	1.034936E+0	1.001926E+0	1.004192E+0	1.013121E+0	1.031991E+0	9.788824E-1	1.014903E+0	9.922408E-1	1.015869E+0	1.025033E+0	1.020861E+0	9.920462E-1	1.061852E+0	1.028618E+0	9.981020E-1	1.001260E+0	9.763303E-1	1.017827E+0	1.016900E+0	1.023252E+0	1.025153E+0	1.060415E+0	1.020492E+0	1.005028E+0	1.045206E+0	9.888484E-1	1.014085E+0	1.015079E+0	1.001312E+0	1.002218E+0	1.007708E+0	1.023836E+0	1.004442E+0	1.009939E+0	1.012465E+0	1.018508E+0	9.901881E-1	1.048919E+0	1.001575E+0	1.026878E+0	9.887068E-1	1.018802E+0	1.002566E+0	1.000148E+0	1.029622E+0	1.021256E+0	1.005075E+0	1.055605E+0	1.034878E+0	9.979497E-1	1.017097E+0	9.930800E-1	9.839573E-1	9.764594E-1	9.892379E-1	1.033952E+0	9.739145E-1	1.014802E+0	1.021733E+0	9.960430E-1	1.008454E+0	1.014891E+0	1.014889E+0	1.001760E+0	1.028992E+0	9.809386E-1	9.940507E-1	1.020865E+0	9.734305E-1	1.001010E+0	1.028027E+0	9.771764E-1	1.007923E+0	9.905356E-1	1.001761E+0	1.002253E+0	1.016845E+0	1.012599E+0	1.029404E+0	1.032920E+0	1.008539E+0	1.008291E+0	1.026735E+0	1.047671E+0	9.960277E-1	1.023220E+0	9.578773E-1	1.011280E+0	9.774404E-1	9.991539E-1	1.005887E+0	1.002939E+0	1.001090E+0	9.696310E-1	1.070003E+0	9.505978E-1	1.018451E+0	9.894828E-1	9.933863E-1	9.811242E-1	1.022732E+0	9.819881E-1	9.444861E-1	9.940858E-1	9.889680E-1	1.014939E+0	1.014543E+0	1.012196E+0	9.949368E-1	1.056124E+0	1.018353E+0	1.025475E+0	1.007917E+0	9.998548E-1	9.894154E-1	9.816989E-1	9.753565E-1	9.894299E-1	1.052439E+0	1.011853E+0	1.033759E+0	1.032229E+0	9.800061E-1	9.965616E-1	1.008450E+0	9.965977E-1	1.017050E+0	1.004398E+0	1.019582E+0	1.028912E+0	1.012049E+0	9.682687E-1	9.631073E-1	1.009693E+0	1.015441E+0	9.674528E-1	1.007942E+0	1.005633E+0	1.024667E+0	9.806121E-1	9.683502E-1	1.008754E+0	9.812553E-1	9.902713E-1	1.006188E+0	1.029805E+0	1.040023E+0	1.024462E+0	9.960592E-1	9.965214E-1	1.005666E+0	1.018314E+0	9.878748E-1	1.011745E+0	9.869163E-1	9.895331E-1	1.015182E+0	1.033515E+0	1.016745E+0	1.034641E+0	9.822400E-1	9.678695E-1	1.034566E+0	9.743152E-1	1.001648E+0	9.915423E-1
5.590210E+2	1.024802E+0	1.031503E+0	1.041041E+0	1.035904E+0	1.021348E+0	1.012176E+0	9.675355E-1	1.024088E+0	1.003768E+0	1.005644E+0	9.983865E-1	1.010383E+0	1.018448E+0	1.015792E+0	9.845116E-1	1.005949E+0	9.907061E-1	9.543881E-1	1.019585E+0	1.009874E+0	1.008385E+0	1.014131E+0	1.019061E+0	1.022665E+0	1.018524E+0	1.026013E+0	1.024811E+0	1.012192E+0	1.030135E+0	9.903562E-1	9.901592E-1	9.834308E-1	1.000840E+0	9.834688E-1	1.029761E+0	1.027404E+0	1.015718E+0	1.017517E+0	1.005399E+0	1.003091E+0	1.015803E+0	9.876070E-1	1.036014E+0	1.020650E+0	1.025660E+0	1.037711E+0	9.699148E-1	1.054029E+0	9.998029E-1	1.030340E+0	1.007140E+0	9.948648E-1	1.003269E+0	1.025146E+0	1.062193E+0	1.020342E+0	1.008727E+0	1.015314E+0	1.054060E+0	1.009121E+0	9.820469E-1	1.011686E+0	1.000463E+0	1.049599E+0	9.722717E-1	1.025355E+0	1.008497E+0	1.053124E+0	1.011067E+0	1.024336E+0	1.077707E+0	1.027704E+0	9.923794E-1	1.019012E+0	9.755214E-1	1.014728E+0	1.038507E+0	1.011648E+0	1.023506E+0	1.048925E+0	1.023619E+0	1.007481E+0	9.886691E-1	1.020302E+0	9.975885E-1	1.006942E+0	9.822708E-1	1.008279E+0	9.894587E-1	1.036218E+0	1.018741E+0	9.964574E-1	1.020814E+0	1.029698E+0	9.811992E-1	1.015941E+0	9.984275E-1	9.991883E-1	1.019852E+0	9.922381E-1	1.028625E+0	9.895508E-1	9.854600E-1	1.029141E+0	1.024784E+0	1.006788E+0	1.020117E+0	1.019653E+0	1.028764E+0	9.879894E-1	9.891929E-1	9.808059E-1	1.008674E+0	1.032975E+0	9.929726E-1	9.639645E-1	1.007863E+0	1.029801E+0	9.898170E-1	9.946658E-1	9.911087E-1	1.013794E+0	1.007732E+0	1.015932E+0	9.886948E-1	1.015730E+0	9.861124E-1	1.020122E+0	1.007089E+0	9.773262E-1	9.928405E-1	1.011835E+0	1.046198E+0	1.010550E+0	1.024371E+0	1.024141E+0	1.008395E+0	1.003806E+0	1.006907E+0	9.916208E-1	1.010679E+0	1.033547E+0	9.967780E-1	9.908256E-1	1.015877E+0	9.752571E-1	1.012863E+0	1.002738E+0	1.035711E+0	1.011095E+0	1.034069E+0	9.835434E-1	1.020105E+0	1.012183E+0	1.036251E+0	1.015870E+0	1.047425E+0	9.754744E-1	1.014480E+0	9.973874E-1	1.023972E+0	9.962506E-1	1.007969E+0	9.745116E-1	1.029907E+0	1.015581E+0	1.020953E+0	9.707431E-1	9.671809E-1	1.057340E+0	1.042865E+0
5.595110E+2	1.012271E+0	9.913168E-1	9.832273E-1	1.034187E+0	9.792391E-1	1.044027E+0	1.016113E+0	1.040913E+0	1.029316E+0	1.061748E+0	1.057602E+0	1.050879E+0	1.063237E+0	1.020984E+0	1.030747E+0	9.832257E-1	9.928282E-1	1.038401E+0	1.032961E+0	1.020698E+0	1.018987E+0	1.057568E+0	1.048636E+0	9.947874E-1	9.881886E-1	1.021413E+0	1.007512E+0	1.020003E+0	9.931597E-1	1.043181E+0	1.017375E+0	9.993439E-1	9.799621E-1	1.020423E+0	1.036422E+0	1.018359E+0	1.026438E+0	1.027313E+0	1.025862E+0	1.025891E+0	1.060457E+0	9.899643E-1	1.015631E+0	1.018985E+0	9.778132E-1	1.031436E+0	9.949305E-1	1.012691E+0	1.003344E+0	1.010006E+0	1.036372E+0	1.033550E+0	1.013007E+0	1.029150E+0	1.033213E+0	1.008476E+0	9.763083E-1	1.008214E+0	1.005721E+0	1.003996E+0	1.002972E+0	1.031567E+0	1.045820E+0	1.001185E+0	1.050995E+0	1.001503E+0	9.940184E-1	1.027503E+0	1.010677E+0	1.056521E+0	9.995240E-1	1.036375E+0	1.035485E+0	1.011710E+0	1.043657E+0	1.007265E+0	9.753827E-1	1.027913E+0	9.987658E-1	9.713723E-1	1.020077E+0	1.048568E+0	1.019358E+0	1.027000E+0	9.808988E-1	1.031151E+0	9.972948E-1	1.018441E+0	1.001341E+0	9.984045E-1	1.017913E+0	1.049907E+0	1.018311E+0	1.036227E+0	1.042198E+0	1.023342E+0	1.019861E+0	1.059480E+0	1.048736E+0	1.005178E+0	1.004557E+0	9.927598E-1	1.043499E+0	1.020591E+0	9.936900E-1	1.029913E+0	1.071427E+0	1.043371E+0	1.015028E+0	1.028895E+0	1.006031E+0	1.013011E+0	1.011806E+0	9.903613E-1	1.004625E+0	1.014639E+0	9.917107E-1	1.004362E+0	1.021440E+0	1.021285E+0	1.030037E+0	1.053060E+0	1.003732E+0	1.039392E+0	1.044158E+0	1.017407E+0	1.024801E+0	1.013409E+0	1.029635E+0	1.019940E+0	1.034617E+0	1.017188E+0	9.864814E-1	1.014465E+0	9.964825E-1	1.050815E+0	9.969901E-1	9.931293E-1	9.874629E-1	1.004167E+0	1.024058E+0	1.052351E+0	1.019884E+0	1.018234E+0	9.925802E-1	9.541131E-1	1.013407E+0	1.033274E+0	1.054952E+0	1.034760E+0	1.019718E+0	1.019426E+0	9.767168E-1	9.970095E-1	9.922185E-1	1.019969E+0	1.026268E+0	1.026298E+0	1.035174E+0	1.028057E+0	1.023498E+0	1.051864E+0	1.000345E+0	1.038649E+0	1.026848E+0	1.043042E+0	1.006194E+0	1.003219E+0	1.004404E+0	1.054930E+0	1.009220E+0
5.600520E+2	1.042257E+0	9.927379E-1	1.014576E+0	9.709025E-1	9.984100E-1	1.004415E+0	1.054561E+0	9.836991E-1	1.021462E+0	1.030323E+0	1.023488E+0	1.012115E+0	9.920950E-1	9.857561E-1	1.002217E+0	1.000838E+0	1.032732E+0	9.916171E-1	9.991892E-1	9.755903E-1	1.016599E+0	1.040199E+0	9.826170E-1	9.918051E-1	9.797745E-1	9.688112E-1	9.803064E-1	1.016148E+0	9.876567E-1	9.913746E-1	1.096269E+0	1.000609E+0	1.008460E+0	1.012644E+0	9.847939E-1	9.985681E-1	1.001373E+0	9.986537E-1	1.042965E+0	9.871342E-1	9.497066E-1	1.056530E+0	1.002256E+0	9.796880E-1	9.760651E-1	1.021067E+0	1.030909E+0	9.841978E-1	1.003933E+0	9.741273E-1	9.984930E-1	9.975075E-1	9.836676E-1	9.614678E-1	9.505101E-1	9.834481E-1	1.021602E+0	1.017053E+0	1.012146E+0	1.016330E+0	9.878389E-1	1.026796E+0	9.879683E-1	1.011168E+0	9.986178E-1	9.796572E-1	1.005877E+0	1.012642E+0	1.028006E+0	9.984198E-1	1.017845E+0	9.864965E-1	9.865956E-1	9.964320E-1	1.054627E+0	9.593944E-1	1.001282E+0	9.757748E-1	1.039523E+0	1.019847E+0	9.800500E-1	9.948821E-1	1.029090E+0	1.011813E+0	1.013939E+0	9.971364E-1	1.009426E+0	1.029578E+0	1.005529E+0	1.024738E+0	9.947456E-1	1.050530E+0	1.016208E+0	1.037244E+0	9.914439E-1	1.041365E+0	1.027880E+0	1.013994E+0	1.003754E+0	9.797870E-1	1.011369E+0	1.032479E+0	9.709986E-1	1.036138E+0	9.924708E-1	1.009408E+0	1.012116E+0	1.038559E+0	1.016652E+0	9.976750E-1	9.741912E-1	1.002678E+0	1.003454E+0	1.024059E+0	1.006665E+0	1.064278E+0	9.829677E-1	1.032409E+0	9.761670E-1	1.019211E+0	1.026113E+0	1.012635E+0	1.021066E+0	9.928371E-1	1.021425E+0	9.647254E-1	1.000312E+0	1.004361E+0	1.038543E+0	1.020104E+0	1.030273E+0	1.018942E+0	9.975750E-1	1.032701E+0	9.656930E-1	9.757670E-1	9.933317E-1	1.004180E+0	1.025402E+0	1.039513E+0	1.020473E+0	1.002743E+0	1.006646E+0	1.059314E+0	1.014458E+0	1.003382E+0	1.042331E+0	9.894751E-1	1.003485E+0	9.606053E-1	9.758389E-1	9.755970E-1	1.002328E+0	9.729956E-1	1.015681E+0	1.032019E+0	1.052216E+0	9.968863E-1	9.929809E-1	1.032138E+0	1.016850E+0	9.906129E-1	1.030076E+0	9.850411E-1	9.815701E-1	1.002336E+0	9.917877E-1	1.021963E+0	9.951472E-1	9.574046E-1	1.016954E+0
5.605090E+2	1.001044E+0	9.941313E-1	9.624350E-1	9.840652E-1	1.014561E+0	1.007126E+0	9.771385E-1	9.844958E-1	1.007866E+0	9.899439E-1	9.783540E-1	9.500842E-1	9.771886E-1	1.005560E+0	1.005357E+0	1.008082E+0	1.017666E+0	9.663216E-1	1.000330E+0	1.004740E+0	1.023229E+0	9.934452E-1	1.004650E+0	9.911270E-1	1.010991E+0	9.941363E-1	9.836537E-1	9.752738E-1	9.725743E-1	1.013888E+0	1.031093E+0	9.968017E-1	9.896845E-1	1.012528E+0	9.519373E-1	1.011691E+0	9.661291E-1	1.001550E+0	9.856264E-1	9.648308E-1	1.020543E+0	9.772563E-1	9.994614E-1	1.022154E+0	9.693761E-1	9.798226E-1	9.902593E-1	1.015728E+0	1.040230E+0	9.967628E-1	9.867229E-1	9.586865E-1	1.010798E+0	9.760339E-1	1.000162E+0	9.868736E-1	9.953893E-1	9.803297E-1	1.013705E+0	9.844459E-1	1.011386E+0	1.006107E+0	9.982152E-1	9.677506E-1	9.839359E-1	9.950879E-1	9.465533E-1	1.008229E+0	9.978291E-1	9.895801E-1	9.836678E-1	9.996238E-1	1.019114E+0	1.025744E+0	1.008186E+0	9.839374E-1	9.871122E-1	1.011900E+0	9.584001E-1	1.028224E+0	9.782369E-1	1.003848E+0	1.003198E+0	9.775620E-1	1.019710E+0	9.811086E-1	9.987263E-1	9.835627E-1	9.300139E-1	9.716262E-1	9.708337E-1	9.695416E-1	1.014580E+0	9.530538E-1	1.030578E+0	9.484959E-1	1.012962E+0	9.706416E-1	9.880561E-1	9.646858E-1	9.918689E-1	9.952473E-1	1.016765E+0	9.605829E-1	9.822411E-1	9.710550E-1	9.980164E-1	9.932786E-1	9.821352E-1	9.903858E-1	1.010144E+0	9.936716E-1	9.876220E-1	1.031440E+0	9.511477E-1	1.039486E+0	9.950779E-1	1.029484E+0	9.919765E-1	9.902843E-1	1.022372E+0	1.010183E+0	9.999818E-1	9.489330E-1	9.874179E-1	1.008568E+0	9.959858E-1	9.757990E-1	1.015971E+0	9.403162E-1	9.825209E-1	9.940837E-1	1.039471E+0	9.550640E-1	1.020329E+0	1.016886E+0	1.026918E+0	1.014676E+0	1.063881E+0	9.774554E-1	9.901993E-1	9.544802E-1	1.022414E+0	1.013300E+0	9.851263E-1	9.934774E-1	9.591237E-1	9.789044E-1	9.776960E-1	9.768798E-1	9.696018E-1	9.857367E-1	9.985818E-1	1.032078E+0	1.036081E+0	1.012456E+0	9.564102E-1	9.786887E-1	9.806459E-1	1.013286E+0	9.671944E-1	9.757187E-1	9.940762E-1	9.553709E-1	9.764582E-1	9.920150E-1	1.003595E+0	9.939263E-1	9.809043E-1	1.003415E+0	9.049493E-1
5.610010E+2	1.011920E+0	9.733844E-1	9.667783E-1	1.011910E+0	9.653595E-1	9.785272E-1	9.805688E-1	1.016749E+0	9.463036E-1	1.005880E+0	1.024279E+0	9.696847E-1	9.634285E-1	9.853037E-1	9.909667E-1	1.027495E+0	9.966760E-1	9.829251E-1	9.484501E-1	9.851486E-1	1.006824E+0	9.733681E-1	9.527647E-1	1.007300E+0	9.982155E-1	9.665161E-1	9.542043E-1	9.844873E-1	9.633186E-1	9.919335E-1	9.792268E-1	1.023205E+0	9.880226E-1	9.913321E-1	1.026967E+0	9.414643E-1	9.704124E-1	9.772789E-1	9.621097E-1	1.019104E+0	9.717041E-1	9.897038E-1	9.565903E-1	9.368263E-1	9.714328E-1	9.981905E-1	1.013906E+0	9.549797E-1	9.749258E-1	9.651688E-1	9.649031E-1	9.829866E-1	9.840469E-1	9.643355E-1	9.639901E-1	9.882681E-1	9.857844E-1	9.565536E-1	9.814569E-1	1.004962E+0	9.756710E-1	9.686128E-1	9.909011E-1	1.034902E+0	1.001429E+0	1.027252E+0	1.037542E+0	9.410062E-1	9.986060E-1	9.562283E-1	9.651275E-1	9.853045E-1	9.515127E-1	1.003128E+0	1.006721E+0	1.003806E+0	9.610527E-1	9.769350E-1	9.845617E-1	1.025505E+0	9.696639E-1	1.017837E+0	9.701027E-1	9.493941E-1	9.706395E-1	9.784875E-1	9.946063E-1	9.647137E-1	9.627575E-1	1.005206E+0	9.537241E-1	9.958629E-1	9.483957E-1	9.730202E-1	9.981250E-1	1.003733E+0	9.976705E-1	1.006299E+0	9.792834E-1	9.808904E-1	9.911655E-1	9.705776E-1	9.981298E-1	9.705484E-1	9.829741E-1	9.569428E-1	9.737311E-1	9.700032E-1	9.619759E-1	9.548307E-1	9.623513E-1	9.787395E-1	9.848536E-1	9.564415E-1	9.987942E-1	9.684422E-1	9.686446E-1	9.858776E-1	1.003735E+0	9.866643E-1	9.863157E-1	1.003630E+0	1.010843E+0	9.905637E-1	9.494961E-1	9.809123E-1	9.786769E-1	9.742104E-1	9.812054E-1	1.019697E+0	9.932147E-1	1.024122E+0	9.681459E-1	9.687307E-1	9.730838E-1	9.961739E-1	9.615685E-1	1.004469E+0	9.377666E-1	9.721745E-1	9.679241E-1	9.726373E-1	9.997558E-1	9.758755E-1	9.206740E-1	9.882919E-1	9.485580E-1	1.016086E+0	9.754446E-1	9.777038E-1	9.712416E-1	9.533312E-1	9.747467E-1	1.017070E+0	9.928766E-1	9.469975E-1	9.653730E-1	1.000442E+0	1.001165E+0	9.764869E-1	9.664125E-1	9.795150E-1	9.941663E-1	9.872725E-1	9.287873E-1	9.784111E-1	1.001511E+0	9.766982E-1	1.038044E+0	9.305810E-1	9.914433E-1
