Photon Energy (eV)	#1	#2	#3	#4	#5	#6	#7	#8	#9	#10	#11	#12	#13	#14	#15	#16	#17	#18	#19	#20	#21	#22	#23	#24	#25	#26	#27	#28	#29	#30	#31	#32	#33	#34	#35	#36	#37	#38	#39	#40	#41	#42	#43	#44	#45	#46	#47	#48	#49	#50	#51	#52	#53	#54	#55	#56	#57	#58	#59	#60	#61	#62	#63	#64	#65	#66	#67	#68	#69	#70	#71	#72	#73	#74	#75	#76	#77	#78	#79	#80	#81	#82	#83	#84	#85	#86	#87	#88	#89	#90	#91	#92	#93	#94	#95	#96	#97	#98	#99	#100	#101	#102	#103	#104	#105	#106	#107	#108	#109	#110	#111	#112	#113	#114	#115	#116	#117	#118	#119	#120	#121	#122	#123	#124	#125	#126	#127	#128	#129	#130	#131	#132	#133	#134	#135	#136	#137	#138	#139	#140	#141	#142	#143	#144	#145	#146	#147	#148	#149	#150	#151	#152	#153	#154	#155	#156	#157	#158	#159	#160	#161	#162	#163	#164	#165	#166	#167	#168	#169	#170	
5.290120E+2	-2.591289E-2	-4.079664E-2	-1.565378E-2	-2.478920E-2	-3.360494E-2	-3.660442E-2	-2.265998E-2	-2.149800E-2	-3.409615E-2	-4.840821E-2	-4.923258E-2	-3.451197E-2	-3.519969E-2	-2.212060E-2	-2.461280E-2	-3.038960E-2	-2.593565E-2	-1.884810E-2	-4.342948E-2	-3.532598E-2	-1.137648E-2	-2.650541E-2	-1.932473E-2	-3.177572E-2	-2.456652E-2	-3.119058E-2	-1.490972E-2	-3.745853E-2	-2.381795E-2	-2.220256E-2	-4.318494E-2	-3.230056E-2	-4.279641E-2	-2.604461E-2	-1.617349E-2	-5.031307E-2	-2.557004E-2	-2.054009E-2	-4.082288E-2	-3.140321E-2	-1.993694E-2	-2.629682E-2	-3.313442E-2	-3.408050E-3	-2.453123E-2	-4.733176E-2	-3.639342E-2	-2.181737E-2	-7.494857E-3	-4.848219E-2	-2.961913E-2	-1.680762E-2	-8.262251E-3	-4.208415E-2	-9.105060E-3	-2.562381E-2	-3.092122E-2	-2.177802E-2	-2.111162E-2	-3.383626E-2	-2.772547E-2	-3.101420E-2	-1.079629E-2	-3.227217E-2	-2.404822E-2	-4.653500E-2	-2.602065E-2	-3.400829E-2	-3.198899E-2	-1.974905E-2	-3.542194E-2	-3.846520E-2	-3.037706E-2	-3.156815E-2	-2.000931E-2	-3.155885E-2	-1.885415E-2	-2.887427E-2	-4.161086E-2	-2.208618E-2	-2.859810E-2	-4.865780E-2	-4.022784E-2	1.430992E-2	-2.897115E-2	-3.169580E-2	-2.928239E-2	-2.370307E-2	-2.738478E-2	-2.488843E-2	-4.277916E-2	-1.805428E-2	-2.014859E-2	-1.172726E-2	-3.189169E-2	-1.247223E-2	-3.549493E-2	-1.102638E-2	-1.941253E-2	-4.171773E-2	-3.360268E-2	-3.391188E-2	-2.332223E-2	-2.455251E-2	-7.920870E-3	-3.196564E-2	-2.565664E-2	-7.056647E-3	-2.847404E-2	-2.286897E-2	-2.440519E-2	-2.928196E-2	-2.494706E-2	-1.604121E-2	-3.094713E-2	-1.894273E-2	-4.217339E-2	-1.199296E-2	-2.625925E-2	-2.432844E-2	-2.043500E-2	-2.741651E-2	-2.608716E-2	-3.465546E-2	-3.037026E-2	-3.245587E-2	-2.602006E-2	-3.347689E-2	-3.920245E-2	-8.982777E-3	-3.545519E-2	-1.822084E-2	-4.367650E-2	-5.103241E-2	-2.972728E-2	-3.825012E-2	-2.164854E-2	-3.653983E-2	-1.364855E-2	-1.336375E-2	-3.365473E-2	-2.079886E-2	-2.704904E-2	-3.344029E-2	-3.376025E-2	-7.198991E-3	-3.226884E-2	-3.728941E-2	-2.719143E-2	-2.769656E-2	-3.434997E-2	-2.327034E-2	-1.455223E-2	-2.133815E-2	-1.009256E-2	-4.149984E-2	-2.419366E-2	-1.233149E-2	-2.582687E-2	-1.698090E-2	-6.723238E-3	-4.173777E-2	-3.675850E-2	-4.032039E-2	-4.677106E-2	-3.148816E-2	-3.386339E-2	-3.931935E-2	-6.137354E-2	-1.988501E-2
5.295010E+2	3.176931E-2	2.370571E-2	1.713733E-2	1.726666E-2	3.521703E-3	3.659945E-3	2.095480E-2	3.422665E-2	3.574534E-2	5.850494E-3	7.214890E-3	1.682578E-2	2.842475E-2	2.399133E-2	2.355621E-3	1.735787E-2	3.728930E-3	1.181130E-2	7.281843E-3	1.192625E-2	2.334578E-2	1.651005E-3	8.060761E-3	2.025318E-2	1.352150E-2	3.028948E-2	1.652125E-2	2.439268E-2	3.965478E-3	3.310780E-2	2.085501E-2	1.642833E-2	1.096035E-2	3.965793E-2	1.284401E-2	5.469621E-3	3.315849E-3	1.307604E-2	2.385446E-2	2.566503E-2	4.873000E-3	1.933490E-2	8.766903E-3	1.040266E-2	4.097283E-3	1.012158E-2	3.349676E-2	1.022363E-4	-3.904750E-3	4.061051E-2	3.335095E-2	1.707976E-2	1.317113E-2	1.612252E-2	-2.856939E-3	2.102163E-2	5.648402E-3	1.894338E-2	1.901999E-2	5.430732E-3	2.414673E-2	2.041279E-2	1.335850E-2	2.398761E-2	-7.229305E-3	1.875363E-2	3.151112E-2	2.450630E-2	2.254163E-2	3.121556E-2	2.466527E-2	2.569170E-2	-1.284201E-3	8.531260E-3	7.160787E-3	2.342371E-2	1.199996E-2	6.945101E-3	2.432546E-2	1.435240E-2	2.639556E-2	8.631405E-3	3.107289E-3	1.189665E-2	1.128916E-3	1.132797E-2	9.689089E-3	4.107268E-3	2.675507E-2	6.894387E-3	1.233291E-2	1.390688E-2	3.448423E-2	2.434207E-2	-3.089044E-4	1.230127E-2	2.003737E-2	1.801386E-2	3.006189E-2	4.357050E-2	2.027861E-2	1.173213E-2	3.272650E-2	1.348769E-2	1.266366E-2	2.746057E-2	7.489597E-3	9.873244E-3	2.926455E-2	1.737793E-4	2.982326E-2	5.931908E-3	1.677754E-2	1.378249E-2	2.695777E-2	3.055106E-2	4.721729E-2	2.241192E-2	2.569580E-2	2.347094E-2	9.008429E-3	2.338101E-2	5.747177E-3	1.626747E-2	4.259231E-2	1.829884E-2	-8.749916E-3	1.736648E-2	1.152462E-4	1.072480E-2	3.791747E-3	3.925270E-2	-3.596557E-3	3.324309E-2	5.362920E-3	9.632391E-3	2.125487E-2	7.639022E-3	-5.514626E-3	1.463811E-2	2.261734E-2	1.560274E-2	1.533866E-2	1.934172E-2	2.063729E-2	7.353781E-3	2.527324E-2	2.171433E-2	7.035465E-3	7.721330E-3	1.874686E-2	7.857342E-3	-2.148815E-3	2.636185E-2	-1.011783E-2	2.726751E-2	-5.800603E-3	2.393713E-2	1.065906E-2	3.687660E-3	-2.741089E-3	1.353192E-2	1.298882E-2	2.529262E-2	4.936001E-2	2.258630E-2	6.557174E-3	1.055180E-2	2.720967E-2	-4.339080E-4
5.300110E+2	-9.166220E-3	3.846086E-2	1.008110E-2	-7.775120E-3	1.167827E-2	-3.065013E-3	1.054886E-2	-1.202985E-2	-1.454013E-3	-2.781787E-3	-2.429363E-3	-7.745951E-3	-3.905798E-3	-2.954655E-3	-6.479829E-3	-2.196618E-3	-1.249442E-2	-3.960246E-3	-8.058869E-3	-8.626233E-3	-1.134889E-2	2.440782E-3	-4.982739E-3	1.044323E-2	-5.519524E-3	-7.409387E-3	-1.424670E-2	4.426724E-3	-2.091440E-2	-1.665319E-2	-1.174535E-2	2.048832E-2	4.926586E-3	2.535243E-4	-2.446779E-3	-1.473763E-2	-1.478319E-3	-1.378701E-2	-8.812237E-3	-4.841182E-4	1.140828E-2	6.047021E-3	-1.318620E-2	-1.616443E-2	4.482341E-3	1.807792E-2	5.414110E-4	1.514270E-2	8.804220E-4	-9.089340E-3	7.761782E-3	5.224382E-3	-1.820961E-2	1.303504E-2	1.521502E-4	-3.423890E-3	4.618487E-3	-6.356314E-3	-4.522137E-3	2.535854E-2	-1.130699E-2	-5.415370E-3	-1.901156E-2	1.719027E-2	4.806940E-3	-9.979194E-4	-2.647049E-3	-5.633519E-3	7.517296E-3	1.607810E-2	7.318903E-3	6.645103E-3	-6.028221E-3	-9.150073E-3	-8.911719E-3	4.861533E-4	1.133032E-3	1.028406E-3	-6.277330E-4	7.334495E-3	-1.339547E-2	-4.629928E-3	8.444864E-4	-6.519412E-3	1.466552E-2	2.270611E-3	-1.889938E-3	-3.510274E-3	1.714693E-2	3.756834E-3	-1.486956E-2	-1.803509E-2	-7.643887E-3	-2.050094E-2	-5.969363E-4	3.586293E-3	-3.321460E-3	-2.090941E-2	1.326089E-2	-8.294805E-3	-1.142075E-2	9.099923E-3	2.764084E-3	6.763648E-3	-1.885716E-2	-1.060244E-2	-4.301419E-3	-1.472951E-2	4.920718E-4	-3.880062E-3	2.363384E-2	1.157086E-3	2.269055E-3	-1.211711E-2	1.525026E-2	-1.082120E-2	2.088796E-2	-9.299051E-3	-9.166799E-3	-1.816622E-2	-3.446229E-4	-5.292686E-3	-4.021087E-3	6.057092E-4	-1.177650E-2	2.061786E-2	2.184970E-3	-4.196658E-3	1.059085E-2	5.418440E-3	4.306104E-3	-2.545123E-2	1.413619E-3	1.608357E-2	-4.318566E-3	-1.305582E-3	-8.266299E-3	4.491495E-3	9.823082E-3	4.694959E-3	1.045858E-2	-4.076116E-3	6.413760E-3	-6.820590E-3	-1.612376E-2	-2.149750E-2	-4.228810E-4	8.022629E-3	-7.763762E-3	-1.118709E-2	-1.304630E-2	2.105465E-2	1.366996E-3	-2.622501E-3	2.984815E-2	-7.006105E-3	1.780175E-2	-1.841588E-2	8.323720E-3	-1.300478E-2	2.722377E-3	-5.931652E-3	8.176726E-3	2.542613E-3	-8.445623E-3	-5.939623E-3	7.055393E-3	-1.659457E-2	3.427058E-3	3.794257E-2
5.305330E+2	-3.130401E-2	-3.832062E-2	-2.497519E-2	-1.587867E-2	-2.775180E-2	-2.186258E-2	-7.779090E-3	-3.576932E-2	-2.465476E-2	-2.499171E-2	7.213815E-3	-7.430860E-3	-2.600084E-2	-8.961650E-3	-2.453001E-2	-1.188904E-2	-2.583776E-2	7.960647E-3	-9.079457E-3	-9.612127E-3	-2.875659E-3	-1.329981E-2	6.501530E-3	-1.457132E-2	-2.176921E-2	-5.709383E-2	-1.945821E-2	-1.342276E-2	-1.758005E-2	-1.193023E-2	-2.644088E-2	-1.888754E-2	-2.056502E-2	-2.137902E-2	2.788164E-3	-9.148873E-4	-1.074608E-2	-1.512264E-2	-2.246497E-2	2.123069E-3	-1.100740E-2	-1.272304E-2	-2.043061E-2	-1.541928E-3	-2.783274E-2	-2.795631E-2	-2.176559E-3	-1.359096E-2	-1.269814E-2	-5.815117E-3	-1.691764E-2	-3.525916E-2	-7.562928E-3	-1.565856E-2	-7.852406E-3	-1.342643E-2	-2.964658E-2	-1.319632E-2	-2.807142E-2	-2.792527E-2	-1.420979E-2	-1.990145E-2	-1.113098E-2	-1.977628E-2	-3.460790E-2	-2.115432E-2	-4.136833E-2	8.802573E-3	-1.055323E-2	-1.504472E-2	-8.611352E-4	-1.622956E-2	1.024399E-3	-1.521839E-2	-9.956728E-3	-2.012241E-2	-1.798262E-2	-3.494541E-2	-1.649873E-2	-4.283445E-3	-1.235225E-2	1.335126E-3	-1.152458E-2	-3.787594E-2	-4.559849E-2	-2.388470E-2	-5.117393E-3	-2.427941E-2	-2.071290E-2	-1.166114E-2	-1.299880E-2	-4.047222E-2	-1.856015E-2	-2.366566E-2	-2.424684E-2	-9.017671E-3	-1.889891E-2	-3.031387E-2	-1.987431E-2	-2.418419E-2	-1.186824E-2	-1.421505E-2	-2.739953E-2	-2.969235E-2	-1.628650E-2	-1.698689E-2	-1.006599E-2	-3.426132E-2	-1.244994E-2	-1.755513E-2	-2.699680E-2	-1.865562E-2	-1.039958E-2	-1.173648E-2	-2.038192E-2	-5.720185E-3	-8.883929E-3	-2.263887E-2	-1.975499E-2	-3.048903E-2	-1.912896E-2	-9.412199E-3	-2.998913E-2	-3.819750E-3	-2.695503E-2	-2.796520E-2	-2.184537E-2	-1.846715E-2	-1.828554E-2	-1.249537E-2	-2.459572E-2	-3.107774E-2	-1.164757E-2	-7.684740E-3	-5.665333E-3	-1.285189E-2	-9.405413E-3	-2.213303E-2	-8.237118E-3	-2.603436E-2	-3.963672E-2	-1.035940E-2	-3.002034E-2	-1.555372E-2	-1.509319E-2	-2.593381E-2	-1.472137E-2	-2.365337E-2	-2.895327E-2	-1.264642E-2	-1.359996E-2	-2.432652E-2	-3.563952E-2	-1.650716E-2	-2.602018E-2	-2.120506E-2	-1.020233E-2	-1.984329E-2	-2.160162E-2	-3.356826E-2	-2.195118E-2	-7.309360E-3	-3.767677E-2	-8.842242E-3	-2.742775E-3	-6.937044E-3	-1.686246E-2	-1.893439E-3	-2.180426E-2	-5.594102E-2
5.310100E+2	-4.555104E-3	1.031549E-2	-9.939828E-3	-1.677410E-2	4.972252E-3	1.454842E-2	-2.006526E-3	4.170319E-3	-1.875396E-2	1.018363E-2	-5.656290E-3	-2.206217E-4	6.854096E-3	3.552299E-3	-5.141327E-3	-1.383451E-2	-1.546192E-3	-2.295486E-2	2.548061E-2	1.896161E-4	-1.307692E-2	3.279833E-3	7.478103E-3	7.788699E-4	8.029344E-3	2.150364E-2	-1.881025E-2	-1.634849E-2	1.668905E-3	-1.455141E-3	1.794676E-2	-6.932191E-3	4.316910E-3	9.686914E-3	-2.987111E-2	-7.615340E-3	-1.542824E-2	-2.023530E-3	1.009993E-2	-1.226683E-2	9.364115E-3	-2.698996E-2	-6.677986E-3	-6.708037E-3	-1.601511E-3	-8.834434E-3	-3.804778E-3	-7.644981E-3	-5.585878E-3	9.647012E-3	-2.552655E-2	1.322628E-2	-1.689225E-2	1.057685E-2	-1.177473E-2	-1.243687E-2	5.248287E-3	-1.253653E-2	-1.989248E-3	-6.156397E-3	1.114555E-2	-3.964480E-3	2.527441E-3	-4.965052E-4	2.510082E-2	-3.576143E-3	-6.466440E-4	-6.798289E-3	1.851851E-3	-8.750045E-3	-9.477869E-3	1.675152E-3	1.018349E-3	1.430335E-2	1.295320E-2	-2.189663E-2	-3.857191E-3	-8.891834E-3	2.938058E-3	-2.091423E-2	4.146808E-3	-1.228080E-2	7.307362E-3	1.742364E-2	-4.876552E-3	2.125473E-2	7.780236E-3	1.219045E-2	-1.778495E-2	5.025341E-3	2.273985E-2	-2.377993E-3	-3.421147E-3	1.816652E-3	2.274892E-4	1.710725E-3	4.398649E-5	-1.289843E-2	-3.294404E-3	1.196113E-2	-1.425441E-2	7.524311E-3	1.484210E-2	1.200821E-2	-1.260636E-2	4.067548E-3	1.486550E-2	-5.336479E-3	-7.268614E-3	-3.333354E-4	-1.502243E-2	1.568541E-3	-8.634404E-4	-2.113112E-2	1.027247E-2	-8.287909E-3	-6.510483E-3	1.086889E-3	-6.684617E-3	1.220396E-2	-4.789277E-3	-5.371754E-3	-1.700777E-2	-9.340027E-3	-5.045293E-4	3.903467E-3	3.368033E-3	1.680644E-2	-5.421219E-3	-3.171095E-2	3.659765E-3	1.188639E-2	4.013918E-3	-1.374112E-2	-5.639669E-3	-1.128595E-2	1.840830E-3	2.955411E-2	-2.982893E-2	5.998829E-3	4.571302E-3	-9.621688E-3	1.468083E-2	2.289389E-3	-1.764810E-2	8.129456E-3	-3.593081E-3	-8.965384E-3	-9.602366E-4	1.010717E-2	8.238911E-3	1.129788E-3	5.131208E-3	-9.926336E-3	7.727909E-3	-1.838100E-2	1.543440E-2	-4.053634E-3	7.934041E-5	1.955339E-2	3.778145E-3	5.804981E-3	9.118427E-3	4.021843E-3	5.815284E-3	2.398359E-3	1.082708E-3	4.213108E-3	1.272066E-2	4.589529E-3
5.315130E+2	1.394593E-2	-9.129192E-3	-6.797596E-3	1.491220E-2	-2.300868E-2	7.417648E-3	-2.862223E-2	-3.101100E-2	3.814731E-3	-2.433034E-2	-4.172857E-3	-8.894521E-3	-7.739088E-3	1.435634E-2	2.473719E-3	-1.718597E-2	1.383512E-2	-2.155066E-2	-2.047653E-2	-7.800152E-3	-1.280697E-2	-1.253081E-3	-7.897964E-3	-4.884999E-3	-1.569956E-2	-6.302720E-3	-2.835551E-3	-1.499392E-2	1.082444E-2	-1.920869E-2	-8.675006E-3	-7.786765E-3	-2.659936E-3	-1.455258E-2	6.118510E-3	-1.242002E-2	-3.016219E-3	-1.497336E-2	-2.295276E-4	2.842921E-3	-3.655670E-2	1.638697E-3	9.041248E-3	-2.859174E-2	-2.900919E-3	2.046242E-2	-2.136683E-2	-1.088616E-2	1.324347E-2	-9.023618E-3	-1.532294E-3	-1.882569E-2	5.011897E-3	-4.861411E-3	-1.549919E-2	-7.333101E-4	-9.152848E-3	-1.157430E-2	-1.295774E-2	-1.008722E-2	-5.559940E-3	4.084253E-3	-2.248006E-2	-3.276776E-2	-1.676824E-2	-1.389684E-2	4.110510E-3	-2.176286E-2	-4.291079E-3	-1.029271E-2	-1.572481E-2	-1.298535E-2	-3.173862E-2	-9.364779E-3	-1.745635E-2	-2.023474E-2	-5.304736E-3	-4.179888E-3	-1.521267E-2	-2.260625E-2	-5.605317E-3	6.858091E-3	-1.532774E-2	-1.761137E-2	1.030408E-3	-1.960099E-2	-1.577892E-2	-1.131227E-2	-2.208677E-2	7.145842E-3	-2.174147E-2	1.104304E-3	-1.777171E-2	-1.957654E-2	-9.801570E-3	-4.163542E-2	-1.532599E-2	1.276376E-2	-3.015494E-2	-1.618701E-2	-9.908940E-3	-6.997037E-3	-2.496120E-2	-1.753100E-2	-1.694549E-3	-1.624402E-2	-1.571265E-2	-3.935518E-3	-9.926782E-3	-1.503282E-2	-1.122594E-2	-8.515840E-3	-1.763451E-2	6.678006E-3	-1.894918E-2	-1.351561E-2	-4.594013E-2	-1.395540E-2	-2.114853E-2	-1.484011E-2	-9.121198E-3	2.020203E-3	-1.085635E-2	-1.353094E-2	-1.438905E-2	-2.822798E-2	1.669911E-2	-1.403686E-2	3.600448E-3	-1.408284E-3	-6.709485E-3	-1.430505E-2	-1.400589E-2	-5.223303E-3	-9.107250E-4	5.437715E-3	-2.732188E-2	-3.158144E-2	1.095627E-3	-2.657438E-2	-2.205566E-3	-2.376167E-2	-2.517205E-2	-9.873760E-3	-1.979730E-2	1.693342E-3	-7.771742E-3	5.869053E-3	4.187658E-3	-1.336883E-2	-1.230505E-2	-3.070409E-2	1.456222E-2	-3.217967E-2	-1.717361E-2	-7.701539E-4	-1.109439E-2	-2.692708E-2	-2.844355E-3	1.103662E-2	5.966528E-3	-9.260853E-3	-3.019212E-2	-3.128526E-2	-2.046188E-2	8.188952E-3	-2.298823E-3	-4.448011E-3	-2.729484E-2	-6.286190E-2
5.320020E+2	2.938895E-2	3.351287E-2	3.723799E-2	2.845360E-2	5.509963E-2	3.372681E-2	2.642040E-2	2.948458E-2	5.472342E-2	4.302039E-2	3.898914E-2	2.363439E-2	1.868318E-2	-7.183532E-3	1.979820E-2	1.563075E-2	3.044304E-2	2.382659E-2	2.403253E-2	2.619463E-2	1.949552E-2	3.447394E-2	1.267291E-2	2.242240E-2	2.172356E-2	2.583550E-2	4.455418E-2	4.124618E-2	3.919377E-2	2.746086E-2	2.882300E-2	1.719390E-2	2.688412E-2	1.618144E-2	3.384287E-2	5.381694E-2	2.866439E-2	3.096941E-2	2.430225E-2	1.325857E-2	3.558638E-2	2.262543E-2	3.841756E-2	2.321151E-2	2.724018E-2	1.702692E-2	2.961587E-2	2.216771E-2	1.867983E-2	1.835029E-2	2.347601E-2	2.754904E-2	4.485769E-2	3.059694E-2	2.527900E-2	2.787580E-2	3.202936E-2	4.212332E-2	2.984720E-2	1.592339E-2	7.991920E-3	3.217345E-2	2.662443E-2	3.106450E-2	2.493778E-2	5.144027E-2	2.640914E-2	1.100473E-2	1.444980E-2	1.403130E-2	1.085346E-2	3.664028E-2	5.301352E-2	3.593720E-2	1.594479E-2	5.529503E-2	2.808671E-2	4.477620E-2	3.589725E-2	3.103312E-2	1.796234E-2	2.835162E-2	2.583907E-2	3.044215E-2	3.723038E-2	3.293779E-2	1.091713E-2	4.455029E-2	3.686839E-2	2.411423E-2	4.135501E-2	2.767613E-2	1.693130E-2	2.171946E-2	6.506686E-2	4.468937E-2	3.475105E-2	3.107506E-2	2.527064E-2	2.615772E-2	5.315813E-2	2.737187E-2	1.648234E-2	4.563186E-2	1.996015E-2	2.540441E-2	3.064829E-2	3.137430E-2	1.860717E-2	2.220870E-2	1.544015E-2	2.675473E-2	2.277851E-2	1.577659E-2	1.901171E-2	3.999614E-3	1.756865E-2	1.432282E-2	2.494939E-2	3.275600E-2	4.624277E-2	2.685355E-2	5.455693E-2	2.877466E-2	3.526548E-2	2.745681E-2	3.476076E-2	3.140271E-2	3.549358E-2	2.648549E-2	3.494298E-2	2.957426E-2	4.962427E-2	2.919312E-2	3.607816E-2	1.798875E-2	4.438168E-2	3.336316E-2	3.288707E-2	2.853876E-2	2.369534E-2	2.867779E-2	4.586644E-2	3.024205E-2	4.973595E-2	2.947164E-2	3.289580E-2	2.985565E-2	4.333433E-2	7.306905E-3	3.873432E-2	4.265823E-2	2.836692E-2	2.271063E-2	8.862289E-3	4.230345E-2	1.579489E-2	2.770770E-2	1.264510E-2	1.921130E-2	2.421041E-3	3.500517E-2	6.484903E-2	3.629163E-2	9.760823E-3	9.748902E-3	1.307945E-2	1.989580E-2	4.824423E-2	8.032430E-2
5.325070E+2	-4.165955E-3	-1.774849E-2	-7.090025E-3	4.584618E-3	9.093571E-3	2.179189E-3	3.143757E-3	3.242662E-2	-1.532461E-2	4.145753E-2	8.073246E-3	1.834375E-2	1.888339E-2	-6.795278E-4	3.613643E-2	4.250711E-2	1.780693E-2	2.371532E-2	2.424934E-2	2.305399E-2	8.643622E-3	-7.872604E-4	-2.507874E-3	-2.665642E-3	2.428041E-2	2.436789E-2	9.185013E-3	1.215812E-2	6.659823E-3	1.088116E-2	2.242142E-2	1.179651E-2	1.893341E-2	-3.803597E-3	-7.102170E-3	2.671439E-2	2.425866E-2	2.240118E-2	1.407297E-2	2.645604E-4	6.269266E-3	1.636376E-2	1.720351E-2	2.280001E-2	2.104659E-2	1.843366E-2	8.754145E-5	1.652683E-2	-3.120092E-3	3.802454E-3	9.006864E-3	7.812989E-3	-1.211368E-2	-7.727225E-3	2.165718E-2	6.746873E-3	2.217611E-2	4.374774E-3	1.978497E-2	3.129250E-2	1.551799E-2	3.625003E-3	2.090851E-2	1.307033E-2	2.780812E-2	1.596633E-2	8.651899E-3	2.388935E-2	4.727132E-4	-7.488436E-3	1.864812E-2	-2.972108E-3	1.437184E-2	6.529583E-3	2.027532E-2	1.460773E-2	4.778997E-3	2.414168E-2	1.078923E-2	1.717009E-2	1.144643E-2	2.039229E-2	2.998194E-2	-1.206563E-2	2.539097E-2	7.390389E-3	2.368219E-2	1.957029E-3	7.199007E-3	-1.038707E-2	1.596123E-2	3.625227E-2	1.612996E-2	2.759222E-2	1.551591E-3	8.376752E-4	1.820888E-2	1.329541E-2	4.142764E-3	8.694377E-3	7.618277E-3	-6.042632E-4	8.867937E-3	-6.115552E-3	2.474163E-2	1.886646E-2	2.733311E-3	2.407193E-2	9.755585E-3	3.728784E-2	8.753124E-3	2.104115E-2	1.201948E-2	2.478884E-2	-1.213983E-3	2.273697E-2	1.783403E-2	2.006466E-2	3.236900E-2	1.939292E-2	-1.432139E-3	-4.761619E-3	2.765738E-2	1.569834E-2	6.137581E-3	1.837206E-2	-3.975426E-4	4.601920E-3	1.310909E-2	1.196866E-2	2.005980E-2	8.341502E-3	1.787471E-2	-8.382052E-4	4.820500E-3	3.063469E-2	-8.352416E-4	1.520651E-2	1.342345E-2	1.210183E-2	1.415446E-2	2.433722E-2	-5.826425E-5	1.381519E-2	3.204936E-2	7.982082E-3	6.088704E-4	4.446502E-3	1.031125E-2	3.976350E-2	7.581196E-3	5.600936E-3	2.913228E-3	3.350134E-2	1.696582E-2	1.929119E-2	2.259946E-3	2.992655E-2	1.856561E-2	1.006496E-2	1.652742E-2	9.897555E-3	9.494389E-3	1.229919E-2	1.348523E-2	1.442314E-3	2.524994E-2	2.759465E-2	1.887103E-2	1.626545E-2
5.330080E+2	-1.018096E-2	1.371766E-2	7.809690E-3	4.783484E-2	-4.970405E-3	8.751841E-4	3.267218E-2	1.269135E-2	1.424974E-2	2.205809E-2	-1.238194E-2	1.111355E-2	7.884727E-3	1.936123E-2	4.274787E-2	-2.556828E-3	-1.681581E-3	3.078001E-2	6.112491E-3	2.266957E-3	1.541433E-2	7.446447E-3	1.118791E-2	5.721369E-3	1.417865E-2	-5.730632E-3	8.047176E-3	2.433436E-2	2.516780E-2	2.327116E-2	1.601388E-2	2.132681E-2	2.123865E-2	3.268323E-3	2.510175E-2	-8.340872E-4	1.165127E-2	1.246667E-2	2.109523E-2	-3.885937E-3	2.283093E-2	-6.515913E-3	3.677102E-2	1.144243E-2	9.953003E-3	2.650940E-2	6.662258E-3	1.691603E-2	2.266672E-2	1.853139E-4	2.520759E-2	-4.788106E-3	5.632297E-3	2.014423E-2	-4.747453E-3	2.121652E-2	2.359562E-2	-1.994517E-2	1.446961E-2	-1.075012E-2	-4.052213E-3	1.006583E-2	2.508646E-2	2.113474E-2	-3.578691E-3	1.234957E-2	1.547033E-2	2.959716E-3	2.558087E-2	1.819765E-3	-9.593568E-3	-4.604425E-3	2.071543E-2	2.176548E-2	1.550981E-2	-3.089235E-3	-3.749728E-3	-2.573460E-3	-8.755447E-4	1.830020E-3	2.060120E-2	5.417081E-3	1.645868E-2	5.085641E-3	-6.395765E-3	7.635354E-3	1.932459E-2	1.872214E-2	4.288489E-3	-4.133350E-3	-1.172399E-2	-1.359554E-2	7.936619E-3	1.744329E-3	4.291434E-2	5.068568E-4	1.404367E-2	1.615356E-2	1.316560E-2	4.822609E-3	-1.162244E-3	1.016787E-2	-3.942842E-3	2.405483E-2	8.684777E-3	3.524878E-2	1.564727E-2	3.378134E-2	5.347368E-3	1.334153E-2	-7.977081E-3	3.233262E-2	3.948717E-3	7.851703E-3	3.214698E-2	1.021905E-2	8.515360E-3	2.759266E-2	2.016240E-3	3.341083E-2	1.659462E-2	1.188217E-2	1.412063E-2	1.571252E-2	2.166719E-2	2.443624E-2	-6.224593E-4	-9.488045E-3	3.267058E-2	3.685092E-3	-2.234469E-3	2.449047E-2	-3.379996E-3	2.131001E-3	2.301958E-3	-8.105468E-4	9.770564E-3	9.481729E-4	2.076024E-2	7.868889E-3	-9.358010E-4	1.718065E-2	-1.065959E-3	-4.752452E-4	1.921492E-2	3.109048E-2	2.772921E-2	2.104846E-3	5.678957E-3	1.176247E-2	-6.298425E-3	2.415130E-2	-1.842585E-3	-8.625854E-3	4.390741E-3	2.776342E-2	2.111883E-2	-2.443802E-3	1.610914E-2	7.694467E-3	2.948564E-3	4.540942E-3	1.745667E-2	4.716117E-3	3.192488E-3	1.722759E-2	1.384676E-2	2.926579E-2	3.633675E-2	4.258048E-2
5.332090E+2	1.592683E-2	9.181692E-3	2.368868E-2	1.406948E-2	3.379885E-2	1.654425E-2	2.213798E-2	2.823235E-2	2.498532E-2	8.444618E-3	1.905736E-2	2.292109E-2	1.905992E-2	2.163662E-4	3.627959E-2	8.658843E-3	-1.190206E-2	-3.444995E-3	3.778452E-2	2.781913E-2	3.508438E-2	3.424493E-2	2.880951E-2	3.292741E-2	3.160065E-2	3.313106E-2	3.901739E-3	2.844332E-2	8.935355E-3	2.989131E-2	2.737101E-2	1.598478E-2	9.105597E-3	4.286726E-3	2.155393E-2	4.248482E-2	1.315036E-2	2.828220E-2	3.985266E-2	4.792499E-3	2.509740E-2	2.064263E-2	2.463160E-2	1.500273E-2	3.713219E-2	4.004061E-2	2.131181E-2	1.685783E-2	3.013573E-2	3.896717E-2	3.030959E-2	1.114220E-2	4.689942E-3	2.753997E-2	2.474523E-2	3.627042E-2	9.932394E-3	9.846314E-3	7.950245E-3	2.142442E-2	1.113795E-2	3.093096E-2	4.211965E-2	3.596518E-2	2.443987E-2	2.996104E-2	4.482457E-3	3.966201E-2	2.069093E-2	3.187326E-2	4.063326E-2	6.507491E-3	2.851429E-2	4.890073E-2	1.008135E-2	-1.288799E-3	2.612623E-2	1.193838E-2	5.024715E-3	2.060804E-2	2.122225E-2	1.037840E-2	4.235194E-2	-1.400013E-2	2.609712E-2	2.279841E-2	1.582903E-2	3.018439E-2	8.864712E-3	3.803956E-2	1.527975E-2	3.158077E-2	1.522726E-2	3.213864E-2	2.115681E-2	3.248265E-2	4.922085E-3	-7.538913E-4	1.079698E-2	2.775076E-2	1.654254E-2	5.425091E-2	4.708605E-2	2.847438E-2	1.336701E-3	3.153712E-2	1.161216E-2	2.190655E-2	6.347867E-3	1.333038E-2	2.914596E-2	1.642286E-2	2.238067E-2	4.719810E-2	2.622452E-2	3.193175E-2	7.040889E-3	3.186339E-2	1.514727E-2	2.767591E-2	2.531223E-2	2.969081E-2	2.952775E-3	-3.593653E-3	2.152595E-2	3.975310E-2	1.669632E-2	1.982534E-2	4.212921E-2	1.322539E-2	3.846847E-2	3.982329E-2	2.419615E-2	2.318369E-2	2.246861E-2	1.772809E-2	2.904007E-2	1.370275E-2	6.704008E-3	2.783940E-2	1.221394E-2	2.256941E-2	2.379977E-3	3.581726E-2	3.070034E-2	1.839367E-2	4.367822E-2	3.204515E-2	1.816933E-2	2.566649E-2	2.752578E-2	4.247467E-2	2.133411E-2	3.167988E-2	2.559074E-2	9.993933E-3	3.584652E-2	2.426420E-2	3.564158E-2	2.520478E-2	4.924123E-2	7.029438E-3	4.372318E-2	2.466202E-2	3.010832E-2	4.243894E-2	1.256295E-2	3.968248E-2	3.484059E-2	1.412402E-2
5.334060E+2	3.229177E-3	5.452958E-2	7.139338E-2	1.141197E-2	3.485089E-2	5.940930E-2	5.367513E-2	3.334122E-2	1.932698E-2	2.849360E-2	3.376512E-2	4.935893E-2	3.158892E-2	5.155125E-2	2.770852E-2	2.819749E-2	4.979261E-2	3.971456E-2	3.328443E-2	2.081204E-2	5.534497E-2	2.185341E-2	3.698840E-2	3.633938E-2	4.358084E-2	3.298637E-2	4.743870E-2	5.555316E-2	4.965393E-2	3.564104E-2	4.110482E-2	6.139211E-2	2.747776E-2	3.824581E-2	1.616456E-2	1.983630E-2	4.445892E-2	3.849514E-2	3.492944E-2	4.576329E-2	3.578427E-2	2.922036E-2	2.253175E-2	2.069248E-2	1.944520E-2	4.966245E-2	3.252443E-2	3.756981E-2	3.454576E-2	5.516713E-2	2.214072E-2	3.373612E-2	5.268888E-2	3.836970E-2	2.312549E-2	2.389742E-2	2.489599E-2	3.905652E-2	5.401406E-2	2.726716E-2	3.510785E-2	3.842546E-2	5.720379E-2	2.641262E-2	2.945752E-2	3.251563E-2	2.452046E-2	6.147999E-2	2.351194E-2	3.133117E-2	2.449463E-2	5.050668E-2	6.638388E-2	5.195637E-2	2.861073E-2	1.880353E-2	2.462135E-2	3.717753E-2	3.073752E-2	3.363976E-2	4.324216E-2	3.986453E-2	3.838510E-2	2.330386E-2	1.959894E-2	5.571211E-2	2.797521E-2	1.696784E-2	4.698530E-2	4.290849E-2	4.510650E-2	5.586635E-2	1.241196E-2	3.618699E-2	4.587801E-2	5.089312E-2	1.659329E-2	5.225403E-2	5.641757E-2	2.835224E-2	2.805598E-2	4.720839E-2	4.158301E-2	5.388406E-2	3.615944E-2	5.830707E-2	2.512400E-2	5.927180E-2	2.297113E-2	3.178445E-2	4.193897E-2	2.154975E-2	4.492289E-2	7.149587E-2	3.392967E-2	-7.399820E-4	3.984439E-2	5.249765E-2	3.305398E-2	2.863243E-2	5.241601E-2	2.841126E-2	3.233842E-2	3.168240E-2	2.575869E-2	4.846648E-2	4.654998E-2	3.004899E-2	5.057776E-2	5.520574E-2	6.166891E-2	3.254447E-2	4.557110E-2	2.734717E-2	3.583658E-2	1.667733E-2	1.637394E-2	4.045828E-2	5.047926E-2	4.690636E-2	3.491514E-2	4.513259E-2	2.575190E-2	4.363976E-2	4.205256E-2	3.581771E-2	5.548592E-2	4.566912E-2	1.887640E-2	3.912375E-2	3.160354E-2	3.353707E-2	3.407810E-2	3.445070E-2	3.066542E-2	2.856756E-3	3.681180E-2	2.757320E-2	4.681795E-2	4.942559E-2	1.529836E-2	2.656512E-2	4.376020E-2	4.640410E-2	3.883858E-2	4.195281E-2	4.701484E-2	4.322512E-2	2.975570E-2	2.924063E-2
5.336180E+2	5.115094E-2	6.727347E-2	5.315125E-2	5.148843E-2	5.814437E-2	6.678969E-2	4.692124E-2	4.978314E-2	5.402346E-2	4.011821E-2	5.804997E-2	8.879367E-2	3.977153E-2	5.901777E-2	5.475995E-2	6.447837E-2	5.228095E-2	7.828089E-2	7.629292E-2	5.364337E-2	4.080685E-2	6.819034E-2	4.668401E-2	5.572709E-2	5.034784E-2	6.653670E-2	5.948827E-2	7.805732E-2	4.703045E-2	6.733702E-2	9.188291E-2	7.310643E-2	5.510738E-2	5.647643E-2	3.637055E-2	3.933328E-2	5.032518E-2	7.316234E-2	5.275018E-2	5.516247E-2	5.333541E-2	5.028899E-2	5.146900E-2	5.231118E-2	6.466199E-2	5.286182E-2	5.050269E-2	5.372400E-2	8.085344E-2	2.704310E-2	5.114915E-2	6.025602E-2	4.005211E-2	5.252469E-2	4.553161E-2	5.821920E-2	5.544007E-2	7.542190E-2	3.301750E-2	6.895056E-2	5.586484E-2	5.838275E-2	3.728068E-2	6.453524E-2	4.209098E-2	5.075719E-2	5.126341E-2	7.113723E-2	4.173988E-2	6.619111E-2	4.401070E-2	5.970771E-2	5.022494E-2	6.280632E-2	4.245543E-2	5.000167E-2	3.908192E-2	6.644580E-2	5.973172E-2	4.217369E-2	6.150578E-2	3.340602E-2	7.685491E-2	3.397132E-2	5.626962E-2	6.344503E-2	8.309975E-2	6.417481E-2	6.988697E-2	7.730130E-2	4.490487E-2	4.658045E-2	5.065491E-2	5.532462E-2	6.890115E-2	6.410123E-2	3.705548E-2	6.814896E-2	8.055689E-2	4.076786E-2	3.583050E-2	5.967483E-2	4.269678E-2	7.644849E-2	5.991759E-2	6.569501E-2	4.369117E-2	6.878591E-2	5.452486E-2	6.959791E-2	5.717900E-2	5.034843E-2	6.647909E-2	7.887282E-2	5.247631E-2	8.515064E-2	5.050775E-2	6.419769E-2	4.798762E-2	7.364965E-2	8.746171E-2	5.512789E-2	6.364367E-2	5.475993E-2	8.257462E-2	9.466581E-2	4.889919E-2	6.834173E-2	6.909385E-2	5.057585E-2	6.022503E-2	4.859495E-2	4.693948E-2	5.776356E-2	5.590217E-2	8.380327E-2	5.523532E-2	2.372793E-2	6.229376E-2	6.565729E-2	4.948911E-2	6.307324E-2	5.439783E-2	7.183208E-2	5.267679E-2	6.322850E-2	6.043288E-2	6.354954E-2	8.410485E-2	5.850865E-2	5.156004E-2	5.188418E-2	3.341029E-2	6.108497E-2	6.240394E-2	5.878858E-2	7.766390E-2	6.473211E-2	5.409615E-2	6.836392E-2	5.334135E-2	4.159670E-2	5.065337E-2	6.388486E-2	6.609861E-2	4.842730E-2	4.576016E-2	6.908653E-2	4.744636E-2	7.474146E-2
5.338260E+2	2.807792E-2	3.252248E-2	3.688396E-2	5.240241E-2	4.225251E-2	5.548491E-2	4.209817E-2	3.412719E-2	3.243759E-2	7.624649E-4	3.650247E-2	3.916169E-2	2.772328E-2	3.769041E-2	3.214050E-2	2.299140E-2	2.912442E-2	-9.825305E-4	3.669273E-2	5.833001E-2	4.440238E-2	2.459701E-2	2.820640E-2	2.960790E-2	2.502386E-2	3.787017E-2	2.961448E-2	5.617316E-2	3.867731E-2	2.925308E-2	2.804162E-2	6.056982E-2	5.755098E-2	1.589470E-2	2.814883E-2	2.256460E-2	3.880512E-2	4.710083E-2	4.940837E-2	1.848044E-2	2.524975E-2	2.462979E-2	5.957598E-2	5.744791E-3	4.429683E-2	3.457174E-2	3.841010E-2	5.189568E-2	3.021969E-2	5.200360E-2	3.630117E-2	6.207778E-2	1.357956E-2	2.408439E-2	4.726714E-2	1.998319E-2	1.497952E-2	4.118236E-2	5.554137E-2	3.003657E-2	2.952538E-2	-6.546327E-3	3.062421E-2	3.689125E-2	2.649727E-2	3.471925E-2	2.979770E-2	5.524866E-2	3.868798E-2	4.875475E-2	3.319153E-2	3.765314E-2	4.431349E-2	6.951523E-2	1.624280E-2	3.629828E-2	5.315286E-2	4.405999E-2	3.625105E-2	4.390083E-2	2.399776E-2	2.888353E-2	4.586288E-2	2.552321E-2	2.901172E-2	2.870305E-2	3.543739E-2	3.208289E-2	3.289986E-2	1.323332E-2	-5.345136E-4	3.093620E-2	2.517949E-2	3.789869E-2	4.706123E-2	2.918276E-2	2.565013E-2	4.327109E-2	3.778624E-2	2.985537E-2	3.816366E-2	5.487434E-2	5.359518E-2	5.518438E-2	3.525396E-2	4.057830E-2	4.155800E-2	6.857409E-2	3.615424E-2	3.893170E-2	3.008461E-2	3.103733E-2	3.026618E-2	4.013083E-2	3.743563E-2	6.091732E-2	3.746733E-2	3.187888E-2	3.202527E-2	3.850221E-2	3.727146E-2	2.649825E-2	2.834968E-2	5.161229E-2	3.410879E-2	4.494024E-2	3.764620E-2	4.220205E-2	4.794492E-2	1.973175E-2	3.677677E-2	5.599288E-2	1.658026E-2	3.135775E-2	3.441639E-2	5.661003E-2	1.800925E-2	3.030658E-2	2.149665E-2	5.977535E-2	4.108443E-2	6.598477E-2	3.579344E-2	6.577617E-2	3.760150E-2	2.566294E-2	5.976734E-2	5.604539E-2	1.917592E-2	4.436684E-2	2.375592E-2	3.307104E-2	2.905805E-2	2.987842E-2	3.746019E-2	3.857239E-2	6.237115E-2	1.018487E-2	3.798260E-2	1.927511E-2	6.466816E-2	3.498052E-2	4.419146E-2	1.294802E-2	1.504237E-2	2.260039E-2	2.677805E-2	3.568454E-2	3.752522E-2	-3.484856E-4
5.340070E+2	6.289717E-2	6.180003E-2	1.187950E-1	1.003535E-1	8.116914E-2	9.099005E-2	6.811388E-2	6.233838E-2	7.589541E-2	7.203012E-2	6.269701E-2	8.405443E-2	8.547142E-2	9.460257E-2	5.563488E-2	4.407405E-2	6.590233E-2	5.590674E-2	7.423801E-2	7.306192E-2	6.744886E-2	7.190003E-2	8.013022E-2	1.040161E-1	5.053816E-2	9.061906E-2	7.874927E-2	5.052753E-2	7.732086E-2	6.274611E-2	8.015604E-2	7.303894E-2	9.118366E-2	8.336993E-2	6.093712E-2	7.979017E-2	7.859042E-2	9.678025E-2	7.814977E-2	9.144783E-2	8.062032E-2	6.508948E-2	7.749216E-2	6.405867E-2	7.222145E-2	7.188554E-2	6.960333E-2	7.319131E-2	7.462925E-2	7.022829E-2	8.850215E-2	7.191159E-2	5.139440E-2	6.394188E-2	6.942578E-2	6.565607E-2	9.171125E-2	1.078991E-1	4.617707E-2	7.250237E-2	7.682688E-2	7.270285E-2	8.860638E-2	6.844105E-2	6.878790E-2	9.734605E-2	8.505764E-2	9.538836E-2	7.149943E-2	8.525885E-2	8.283557E-2	7.138444E-2	9.925032E-2	7.875200E-2	6.843118E-2	6.882588E-2	7.380637E-2	5.310497E-2	7.169317E-2	6.859743E-2	7.779441E-2	6.801102E-2	9.742946E-2	7.884086E-2	7.241489E-2	1.086075E-1	8.416293E-2	6.152076E-2	6.892038E-2	9.248786E-2	7.738770E-2	8.532850E-2	7.339177E-2	8.182602E-2	8.674645E-2	5.854557E-2	6.190096E-2	7.932388E-2	9.277508E-2	8.852975E-2	9.410672E-2	5.911024E-2	6.908076E-2	7.822914E-2	8.503964E-2	9.713757E-2	6.409847E-2	6.510954E-2	7.048990E-2	9.206639E-2	8.694005E-2	4.936186E-2	6.204156E-2	9.089251E-2	6.115813E-2	9.662559E-2	9.158709E-2	6.496336E-2	8.034223E-2	4.524550E-2	7.420519E-2	8.459595E-2	7.555853E-2	7.222881E-2	1.136573E-1	9.808546E-2	5.703317E-2	8.034730E-2	6.232424E-2	7.340741E-2	7.946484E-2	8.899167E-2	7.428929E-2	6.480702E-2	8.493499E-2	5.609330E-2	8.694208E-2	6.603813E-2	7.539495E-2	6.973009E-2	7.077147E-2	7.852938E-2	7.542725E-2	7.712781E-2	8.537612E-2	8.838068E-2	6.427041E-2	8.873807E-2	5.271471E-2	6.096207E-2	9.612188E-2	7.159742E-2	6.955508E-2	6.451891E-2	8.983116E-2	6.577542E-2	8.492139E-2	5.899035E-2	7.743844E-2	9.777475E-2	9.929270E-2	7.447060E-2	7.389175E-2	6.445673E-2	4.800668E-2	7.299527E-2	6.463993E-2	1.007686E-1	9.948094E-2	4.609219E-2
5.342090E+2	8.210017E-2	1.249452E-1	9.595747E-2	1.014509E-1	1.095746E-1	1.139468E-1	1.083647E-1	9.934160E-2	1.227433E-1	1.107562E-1	1.004116E-1	1.197867E-1	1.192190E-1	9.721175E-2	9.334666E-2	9.454775E-2	1.178779E-1	9.168435E-2	9.867412E-2	8.943901E-2	1.073630E-1	1.048710E-1	1.040572E-1	9.634157E-2	1.403843E-1	1.052407E-1	9.009332E-2	1.217062E-1	1.127623E-1	1.149720E-1	1.242024E-1	1.018122E-1	9.693916E-2	1.135752E-1	1.225478E-1	8.563558E-2	1.137130E-1	1.187422E-1	1.126116E-1	1.027004E-1	1.157117E-1	1.137910E-1	9.988072E-2	1.021683E-1	1.170427E-1	1.161809E-1	1.011366E-1	1.073610E-1	1.119897E-1	1.119670E-1	9.488116E-2	1.108146E-1	9.393182E-2	1.088963E-1	1.236040E-1	8.855369E-2	1.145797E-1	1.239930E-1	1.157466E-1	1.040253E-1	7.860401E-2	1.308199E-1	9.444938E-2	1.255532E-1	7.551254E-2	9.960914E-2	1.133829E-1	8.876997E-2	1.067825E-1	1.092938E-1	9.915933E-2	9.951342E-2	1.250860E-1	1.296498E-1	9.925048E-2	1.030479E-1	1.075181E-1	1.011513E-1	9.036305E-2	8.706792E-2	1.020252E-1	1.205855E-1	9.227560E-2	8.035190E-2	1.028587E-1	1.131164E-1	1.176566E-1	1.100391E-1	1.259902E-1	1.163054E-1	1.076061E-1	1.246805E-1	1.185691E-1	1.151767E-1	1.075256E-1	1.097151E-1	1.058366E-1	1.148809E-1	1.171082E-1	8.669518E-2	1.072860E-1	1.118217E-1	8.211338E-2	9.639707E-2	9.976103E-2	1.233643E-1	7.819835E-2	1.142840E-1	1.319066E-1	1.123177E-1	1.248224E-1	1.340044E-1	8.525938E-2	1.142010E-1	1.253370E-1	9.818003E-2	8.149023E-2	9.491895E-2	9.014407E-2	9.982363E-2	9.161695E-2	1.289015E-1	9.752709E-2	1.143659E-1	1.098107E-1	8.195270E-2	1.017120E-1	1.130034E-1	1.109690E-1	1.181669E-1	1.061055E-1	1.177400E-1	9.637272E-2	1.058030E-1	1.081940E-1	1.158920E-1	1.372048E-1	1.129875E-1	1.210358E-1	1.122991E-1	1.086096E-1	1.229236E-1	1.110762E-1	9.030876E-2	7.813454E-2	1.299571E-1	9.591187E-2	9.580304E-2	9.935135E-2	1.454353E-1	1.254836E-1	1.160783E-1	8.486067E-2	1.338291E-1	9.701052E-2	9.926971E-2	1.294582E-1	9.808450E-2	1.075800E-1	1.202775E-1	1.134619E-1	1.054879E-1	1.219042E-1	9.776233E-2	1.085219E-1	1.193502E-1	1.110857E-1	9.116569E-2	1.201389E-1	1.244024E-1
5.344170E+2	1.760875E-1	1.854698E-1	1.795120E-1	1.905650E-1	2.586153E-1	1.976253E-1	2.007782E-1	2.338643E-1	2.064068E-1	2.349686E-1	1.967506E-1	2.311330E-1	2.281451E-1	2.509967E-1	2.118558E-1	1.897599E-1	2.138550E-1	2.255400E-1	2.283951E-1	2.050141E-1	2.074581E-1	2.313206E-1	2.209714E-1	2.096742E-1	2.479044E-1	2.225594E-1	1.984395E-1	2.230093E-1	2.137909E-1	2.040858E-1	2.023208E-1	1.995599E-1	2.523781E-1	2.284700E-1	2.521701E-1	1.904959E-1	2.385487E-1	2.440712E-1	2.460832E-1	2.335183E-1	2.317403E-1	2.193360E-1	2.270235E-1	2.125882E-1	2.323987E-1	2.416265E-1	2.186449E-1	2.492454E-1	2.053845E-1	2.710711E-1	2.447046E-1	2.274502E-1	2.332135E-1	2.489070E-1	1.913042E-1	2.111527E-1	2.443491E-1	2.049105E-1	2.279720E-1	2.209545E-1	2.111662E-1	2.351636E-1	2.134586E-1	2.607499E-1	2.120157E-1	2.167112E-1	2.001145E-1	2.360444E-1	2.308526E-1	2.147209E-1	2.317087E-1	2.353203E-1	2.085549E-1	2.353938E-1	2.233000E-1	2.376087E-1	2.213624E-1	2.371393E-1	2.255400E-1	2.316128E-1	2.380309E-1	2.328378E-1	2.443255E-1	2.194082E-1	2.206985E-1	2.024656E-1	2.210897E-1	2.382374E-1	2.317444E-1	2.008215E-1	1.953641E-1	2.280761E-1	2.093930E-1	1.978306E-1	2.343907E-1	2.447563E-1	2.178324E-1	2.323015E-1	2.455822E-1	2.209096E-1	2.269448E-1	2.351931E-1	2.334692E-1	2.297874E-1	1.988184E-1	2.223950E-1	2.388763E-1	2.212247E-1	2.251796E-1	2.307007E-1	2.114639E-1	2.385285E-1	2.345417E-1	2.051340E-1	2.512695E-1	2.353272E-1	2.484557E-1	2.367621E-1	2.339555E-1	2.358995E-1	2.479708E-1	2.087072E-1	2.173118E-1	2.450153E-1	2.385190E-1	2.408465E-1	2.210045E-1	2.016768E-1	2.377666E-1	2.232342E-1	2.350006E-1	2.111236E-1	2.335261E-1	2.198610E-1	2.364518E-1	2.397090E-1	2.006686E-1	2.042491E-1	2.153905E-1	2.449027E-1	2.084283E-1	2.117130E-1	2.705152E-1	2.295938E-1	2.187313E-1	2.256369E-1	2.291988E-1	2.207467E-1	2.424712E-1	2.223547E-1	2.389315E-1	2.230270E-1	2.097717E-1	2.221105E-1	2.391003E-1	2.390028E-1	2.457705E-1	2.194076E-1	2.278426E-1	2.233800E-1	2.100728E-1	2.433542E-1	2.427812E-1	2.178238E-1	2.134788E-1	2.400445E-1	2.296642E-1	2.325642E-1	2.374035E-1	1.838333E-1
5.346200E+2	3.003864E-1	3.043192E-1	3.132049E-1	3.436676E-1	3.351033E-1	3.374282E-1	3.217739E-1	3.690171E-1	3.288240E-1	3.110916E-1	3.472552E-1	3.639723E-1	3.412648E-1	3.398360E-1	3.026592E-1	3.352468E-1	3.169083E-1	3.445850E-1	3.200725E-1	3.598735E-1	3.536701E-1	3.468580E-1	3.354985E-1	3.805340E-1	3.711248E-1	3.400751E-1	3.562311E-1	3.670413E-1	3.446922E-1	3.249703E-1	3.714796E-1	3.784126E-1	3.351829E-1	3.566759E-1	3.966245E-1	3.181864E-1	3.749498E-1	3.756728E-1	3.334897E-1	3.704173E-1	3.499061E-1	3.694827E-1	3.541155E-1	3.757166E-1	3.505604E-1	3.727901E-1	3.476647E-1	3.557718E-1	3.641941E-1	3.597458E-1	3.256163E-1	3.586042E-1	3.461924E-1	3.816191E-1	3.630667E-1	3.519408E-1	3.682715E-1	3.265348E-1	3.255812E-1	3.323409E-1	3.433774E-1	3.705238E-1	3.554192E-1	3.756655E-1	3.734258E-1	3.825927E-1	3.819856E-1	3.862073E-1	3.620049E-1	3.295777E-1	3.611178E-1	3.630184E-1	3.431161E-1	3.409596E-1	3.328946E-1	3.547652E-1	3.719087E-1	3.644924E-1	3.484044E-1	3.795976E-1	3.594731E-1	3.435034E-1	3.429180E-1	3.685278E-1	3.636301E-1	3.663125E-1	3.399802E-1	3.475956E-1	3.714504E-1	3.348803E-1	3.526540E-1	3.661692E-1	3.268280E-1	3.541653E-1	3.876647E-1	3.965056E-1	3.726127E-1	3.278785E-1	3.745614E-1	3.527588E-1	3.491332E-1	3.342697E-1	3.512492E-1	3.668388E-1	3.270732E-1	3.813971E-1	3.249997E-1	3.602747E-1	3.546905E-1	3.818606E-1	3.448606E-1	3.653371E-1	3.422564E-1	3.551997E-1	3.306242E-1	3.631744E-1	3.630778E-1	3.565959E-1	3.197076E-1	3.561036E-1	3.443444E-1	3.519900E-1	3.681637E-1	3.758252E-1	3.599138E-1	3.482254E-1	3.420784E-1	3.474223E-1	3.639521E-1	3.484683E-1	3.633785E-1	3.625080E-1	3.538305E-1	3.507451E-1	3.222637E-1	3.488816E-1	3.478126E-1	3.147271E-1	3.791653E-1	3.850005E-1	3.444789E-1	3.748945E-1	3.666659E-1	3.635848E-1	3.659693E-1	3.636547E-1	3.717390E-1	3.711329E-1	3.566255E-1	3.404095E-1	3.611796E-1	3.478392E-1	3.524332E-1	3.695178E-1	3.795053E-1	3.412287E-1	3.706508E-1	3.604894E-1	3.212619E-1	3.644164E-1	3.920981E-1	3.508233E-1	4.014578E-1	3.589201E-1	3.433558E-1	3.182990E-1	3.462065E-1	3.468416E-1	3.526884E-1	2.703481E-1
5.348120E+2	6.027477E-1	5.730558E-1	6.580122E-1	6.528228E-1	6.459872E-1	6.223264E-1	6.009930E-1	6.245229E-1	5.894924E-1	6.106087E-1	6.420333E-1	6.553620E-1	6.363792E-1	6.449652E-1	6.338261E-1	6.172859E-1	6.739262E-1	6.311808E-1	6.517187E-1	6.207431E-1	6.035226E-1	6.747901E-1	6.772564E-1	7.079466E-1	6.666855E-1	6.803416E-1	6.300147E-1	6.579154E-1	6.611770E-1	6.813850E-1	6.256787E-1	6.181749E-1	6.839791E-1	6.776443E-1	7.213243E-1	6.772689E-1	6.474083E-1	6.465025E-1	6.681233E-1	7.113174E-1	6.529375E-1	6.130489E-1	6.456209E-1	6.394062E-1	6.397425E-1	6.405440E-1	6.471109E-1	6.441769E-1	6.703206E-1	6.816512E-1	6.922352E-1	5.949427E-1	6.563713E-1	6.615562E-1	6.334176E-1	6.610450E-1	6.333212E-1	6.292196E-1	6.836430E-1	6.376781E-1	6.369511E-1	6.402283E-1	6.780136E-1	6.114121E-1	6.343459E-1	6.616671E-1	6.641950E-1	6.319531E-1	6.418589E-1	6.581464E-1	6.438941E-1	6.343618E-1	7.286898E-1	6.812139E-1	6.411603E-1	6.510942E-1	6.307923E-1	6.516262E-1	6.753863E-1	6.090744E-1	6.071029E-1	6.726142E-1	6.234633E-1	6.725562E-1	6.525829E-1	6.558591E-1	6.381309E-1	7.058266E-1	6.197958E-1	6.382481E-1	6.802552E-1	6.560439E-1	6.603151E-1	6.522025E-1	6.320101E-1	6.873989E-1	6.207392E-1	6.656617E-1	6.814838E-1	6.438887E-1	6.615694E-1	6.718473E-1	6.742771E-1	6.696160E-1	6.207542E-1	6.758083E-1	6.602589E-1	6.548224E-1	6.715978E-1	6.354904E-1	6.548621E-1	6.279726E-1	7.070387E-1	6.565123E-1	6.269933E-1	6.402502E-1	6.543039E-1	6.596788E-1	7.262169E-1	6.637138E-1	6.271767E-1	6.694495E-1	6.596852E-1	6.879480E-1	6.676390E-1	6.445651E-1	6.720465E-1	6.821205E-1	6.859892E-1	6.565625E-1	6.421980E-1	6.660559E-1	6.670905E-1	6.486230E-1	6.115437E-1	6.889190E-1	6.324203E-1	6.656297E-1	6.997295E-1	6.615357E-1	6.273657E-1	6.199088E-1	6.739259E-1	6.560134E-1	6.497314E-1	6.078826E-1	6.909656E-1	6.371355E-1	6.345561E-1	6.438055E-1	6.967881E-1	6.597736E-1	6.249432E-1	6.320213E-1	6.885474E-1	6.383303E-1	7.013591E-1	6.839574E-1	6.431986E-1	7.031203E-1	6.841627E-1	6.346489E-1	6.252889E-1	6.563854E-1	6.710114E-1	6.736149E-1	6.010797E-1	6.812100E-1	6.769670E-1	6.562964E-1
5.350100E+2	1.090718E+0	1.031955E+0	1.055631E+0	1.043195E+0	1.043225E+0	1.063792E+0	1.067771E+0	1.039251E+0	1.055310E+0	1.011876E+0	1.020780E+0	1.097017E+0	1.065392E+0	1.069028E+0	1.099133E+0	1.054586E+0	1.019233E+0	1.063124E+0	1.060068E+0	1.092873E+0	1.068249E+0	1.048217E+0	1.087009E+0	1.084330E+0	1.090402E+0	1.044366E+0	1.086649E+0	1.047890E+0	1.055751E+0	1.043626E+0	1.095056E+0	1.058657E+0	1.055834E+0	1.137187E+0	1.067022E+0	1.099896E+0	1.103892E+0	1.085048E+0	1.105993E+0	1.070830E+0	1.095547E+0	1.032109E+0	1.095977E+0	1.112392E+0	1.110236E+0	1.063358E+0	1.116078E+0	1.093376E+0	1.036664E+0	1.099299E+0	1.107917E+0	1.091397E+0	1.051315E+0	1.077688E+0	1.037107E+0	1.051294E+0	1.092214E+0	1.025343E+0	1.058911E+0	1.099448E+0	1.111588E+0	1.086706E+0	1.112584E+0	1.101882E+0	1.084177E+0	1.072579E+0	1.054847E+0	1.103583E+0	1.052583E+0	1.038096E+0	1.035675E+0	1.025602E+0	1.146966E+0	1.052617E+0	1.096403E+0	1.023885E+0	1.091989E+0	1.049236E+0	1.090123E+0	1.028811E+0	1.127671E+0	1.015587E+0	1.088800E+0	1.111398E+0	1.048666E+0	1.112972E+0	1.048523E+0	1.118617E+0	1.035955E+0	1.083831E+0	1.050711E+0	1.098328E+0	1.112616E+0	1.039502E+0	1.060113E+0	1.082645E+0	1.064781E+0	1.054535E+0	1.029114E+0	1.125049E+0	1.062340E+0	1.055042E+0	1.051207E+0	1.044380E+0	1.035700E+0	1.074628E+0	1.087556E+0	1.039794E+0	1.091846E+0	1.082455E+0	1.033301E+0	1.032011E+0	1.078169E+0	1.064933E+0	1.085087E+0	1.082517E+0	1.125532E+0	1.064239E+0	1.066125E+0	1.063545E+0	1.099890E+0	1.046230E+0	1.105821E+0	1.091209E+0	1.044141E+0	1.055074E+0	1.091795E+0	1.092333E+0	1.099116E+0	1.100672E+0	1.057962E+0	1.105499E+0	1.059512E+0	1.063473E+0	1.062193E+0	1.060932E+0	1.052342E+0	1.019788E+0	1.110284E+0	1.108480E+0	1.091041E+0	1.055023E+0	1.031181E+0	1.078594E+0	1.062078E+0	1.010936E+0	1.116339E+0	1.082136E+0	1.048001E+0	1.040594E+0	1.121331E+0	1.040137E+0	1.038644E+0	1.050027E+0	1.066443E+0	1.091257E+0	1.114428E+0	1.021489E+0	1.046537E+0	1.054150E+0	1.102910E+0	1.098957E+0	1.110555E+0	1.157264E+0	1.066160E+0	1.065929E+0	1.080890E+0	9.855323E-1	1.081661E+0	9.675045E-1
5.352080E+2	1.570812E+0	1.503557E+0	1.574662E+0	1.737242E+0	1.615097E+0	1.542631E+0	1.600149E+0	1.519821E+0	1.554095E+0	1.650478E+0	1.512333E+0	1.633835E+0	1.573033E+0	1.594747E+0	1.603222E+0	1.538564E+0	1.639436E+0	1.594455E+0	1.565047E+0	1.520758E+0	1.590797E+0	1.642140E+0	1.592401E+0	1.524833E+0	1.571235E+0	1.507704E+0	1.544017E+0	1.511388E+0	1.534393E+0	1.627117E+0	1.599213E+0	1.579466E+0	1.524000E+0	1.545860E+0	1.623210E+0	1.616193E+0	1.568774E+0	1.526419E+0	1.617063E+0	1.620687E+0	1.595928E+0	1.544302E+0	1.610231E+0	1.545187E+0	1.546591E+0	1.575195E+0	1.555521E+0	1.552258E+0	1.594353E+0	1.593601E+0	1.578344E+0	1.542484E+0	1.576501E+0	1.582275E+0	1.572753E+0	1.513276E+0	1.577458E+0	1.519473E+0	1.528592E+0	1.549534E+0	1.577709E+0	1.550516E+0	1.521274E+0	1.596693E+0	1.527564E+0	1.654604E+0	1.604029E+0	1.544081E+0	1.551979E+0	1.564124E+0	1.500518E+0	1.537970E+0	1.663581E+0	1.551907E+0	1.601226E+0	1.560947E+0	1.547747E+0	1.540586E+0	1.571120E+0	1.591882E+0	1.609892E+0	1.509498E+0	1.565168E+0	1.576455E+0	1.599278E+0	1.559509E+0	1.535944E+0	1.606664E+0	1.510026E+0	1.569637E+0	1.577968E+0	1.564680E+0	1.566516E+0	1.513967E+0	1.572546E+0	1.597158E+0	1.567756E+0	1.573243E+0	1.538361E+0	1.554981E+0	1.532622E+0	1.581545E+0	1.547269E+0	1.585978E+0	1.584372E+0	1.597929E+0	1.555521E+0	1.513741E+0	1.536435E+0	1.500643E+0	1.566139E+0	1.559766E+0	1.548178E+0	1.503366E+0	1.569527E+0	1.522819E+0	1.477301E+0	1.562270E+0	1.493700E+0	1.607439E+0	1.628068E+0	1.542013E+0	1.511011E+0	1.550795E+0	1.609066E+0	1.490915E+0	1.551578E+0	1.506205E+0	1.573161E+0	1.527056E+0	1.556268E+0	1.584936E+0	1.498309E+0	1.590230E+0	1.563164E+0	1.590077E+0	1.528525E+0	1.517273E+0	1.564250E+0	1.557229E+0	1.502048E+0	1.570815E+0	1.531421E+0	1.556299E+0	1.467132E+0	1.526009E+0	1.515027E+0	1.487455E+0	1.548202E+0	1.531225E+0	1.529854E+0	1.529995E+0	1.577823E+0	1.510666E+0	1.638217E+0	1.598109E+0	1.528519E+0	1.570522E+0	1.565351E+0	1.612413E+0	1.588325E+0	1.523885E+0	1.529198E+0	1.594714E+0	1.509329E+0	1.574663E+0	1.598486E+0	1.579204E+0	1.550361E+0	1.350579E+0
5.354110E+2	1.925854E+0	1.822353E+0	1.768497E+0	1.780940E+0	1.811255E+0	1.797271E+0	1.847673E+0	1.844007E+0	1.833258E+0	1.891424E+0	1.812366E+0	1.798963E+0	1.861310E+0	1.849734E+0	1.934379E+0	1.817303E+0	1.820902E+0	1.834973E+0	1.858701E+0	1.837299E+0	1.803224E+0	1.881030E+0	1.775717E+0	1.855124E+0	1.822901E+0	1.815271E+0	1.907474E+0	1.852147E+0	1.804577E+0	1.788851E+0	1.802947E+0	1.826016E+0	1.763281E+0	1.892285E+0	1.928477E+0	1.845743E+0	1.861392E+0	1.769959E+0	1.816232E+0	1.812864E+0	1.882833E+0	1.854690E+0	1.825111E+0	1.725441E+0	1.740691E+0	1.763259E+0	1.826504E+0	1.770380E+0	1.811319E+0	1.809792E+0	1.811086E+0	1.746748E+0	1.762953E+0	1.824839E+0	1.724873E+0	1.795873E+0	1.789885E+0	1.883136E+0	1.778959E+0	1.861509E+0	1.829625E+0	1.841560E+0	1.811280E+0	1.827162E+0	1.890824E+0	1.806110E+0	1.820435E+0	1.797340E+0	1.850736E+0	1.765720E+0	1.779313E+0	1.724083E+0	1.946365E+0	1.788867E+0	1.887723E+0	1.781373E+0	1.882580E+0	1.783736E+0	1.793833E+0	1.792740E+0	1.821551E+0	1.774108E+0	1.792630E+0	1.814354E+0	1.808204E+0	1.867488E+0	1.693654E+0	1.760172E+0	1.753253E+0	1.766626E+0	1.773242E+0	1.815345E+0	1.866737E+0	1.814960E+0	1.841280E+0	1.872119E+0	1.852801E+0	1.791923E+0	1.791752E+0	1.749417E+0	1.765495E+0	1.796314E+0	1.830991E+0	1.725627E+0	1.796453E+0	1.852129E+0	1.863576E+0	1.798747E+0	1.794398E+0	1.803252E+0	1.782279E+0	1.829070E+0	1.766445E+0	1.791755E+0	1.806143E+0	1.731894E+0	1.860193E+0	1.815859E+0	1.790723E+0	1.813960E+0	1.806001E+0	1.722990E+0	1.821677E+0	1.809366E+0	1.790333E+0	1.735760E+0	1.835210E+0	1.814852E+0	1.841441E+0	1.790036E+0	1.707891E+0	1.793412E+0	1.794324E+0	1.796288E+0	1.798083E+0	1.782911E+0	1.735499E+0	1.765071E+0	1.830860E+0	1.765637E+0	1.802177E+0	1.791427E+0	1.810792E+0	1.799864E+0	1.820110E+0	1.693320E+0	1.805631E+0	1.709538E+0	1.817007E+0	1.792107E+0	1.814823E+0	1.793817E+0	1.826888E+0	1.691793E+0	1.761304E+0	1.780608E+0	1.819025E+0	1.842567E+0	1.878979E+0	1.773912E+0	1.812757E+0	1.785396E+0	1.817649E+0	1.807549E+0	1.704827E+0	1.727782E+0	1.794533E+0	1.753998E+0	1.784222E+0	1.701188E+0
5.356250E+2	2.254522E+0	2.273303E+0	2.264632E+0	2.370727E+0	2.159056E+0	2.241473E+0	2.230955E+0	2.234597E+0	2.236397E+0	2.266984E+0	2.279100E+0	2.322852E+0	2.265490E+0	2.184792E+0	2.244683E+0	2.275553E+0	2.252794E+0	2.192107E+0	2.239210E+0	2.253137E+0	2.178471E+0	2.210665E+0	2.197990E+0	2.192242E+0	2.268838E+0	2.227601E+0	2.311490E+0	2.244100E+0	2.222764E+0	2.177343E+0	2.242288E+0	2.144845E+0	2.211228E+0	2.229206E+0	2.277893E+0	2.238644E+0	2.200930E+0	2.154823E+0	2.307802E+0	2.223361E+0	2.280102E+0	2.170767E+0	2.169888E+0	2.174387E+0	2.182787E+0	2.204944E+0	2.194425E+0	2.174759E+0	2.254061E+0	2.201208E+0	2.264716E+0	2.134220E+0	2.225366E+0	2.204685E+0	2.090813E+0	2.175001E+0	2.196312E+0	2.176752E+0	2.200695E+0	2.135030E+0	2.168297E+0	2.202969E+0	2.179452E+0	2.169113E+0	2.168970E+0	2.159170E+0	2.197305E+0	2.107865E+0	2.240692E+0	2.134750E+0	2.201698E+0	2.132701E+0	2.292287E+0	2.106377E+0	2.193129E+0	2.117109E+0	2.296380E+0	2.190554E+0	2.200562E+0	2.105616E+0	2.204754E+0	2.058724E+0	2.267035E+0	2.200848E+0	2.147855E+0	2.182558E+0	2.108425E+0	2.255744E+0	2.154032E+0	2.173484E+0	2.189859E+0	2.183595E+0	2.175046E+0	2.170547E+0	2.201994E+0	2.195990E+0	2.172672E+0	2.150588E+0	2.230912E+0	2.097476E+0	2.149258E+0	2.209156E+0	2.237704E+0	2.162201E+0	2.191616E+0	2.120291E+0	2.184514E+0	2.134109E+0	2.190824E+0	2.103054E+0	2.118476E+0	2.227197E+0	2.158330E+0	2.084114E+0	2.141503E+0	2.107628E+0	2.143574E+0	2.153158E+0	2.199966E+0	2.130918E+0	2.163955E+0	2.080581E+0	2.158192E+0	2.122151E+0	2.207973E+0	2.085106E+0	2.168031E+0	2.123974E+0	2.229732E+0	2.156722E+0	2.229647E+0	2.211093E+0	2.081090E+0	2.179031E+0	2.110341E+0	2.174511E+0	2.158862E+0	2.154046E+0	2.260456E+0	2.152245E+0	2.152064E+0	2.101061E+0	2.181916E+0	2.077844E+0	2.208477E+0	2.168971E+0	2.216868E+0	2.088547E+0	2.152317E+0	2.154300E+0	2.175137E+0	2.157421E+0	2.095278E+0	2.076204E+0	2.145605E+0	2.153637E+0	2.164617E+0	2.185140E+0	2.234923E+0	2.171862E+0	2.119220E+0	2.165645E+0	2.174956E+0	2.132292E+0	2.065345E+0	2.124972E+0	2.090485E+0	2.159208E+0	2.100046E+0	2.059580E+0
5.358130E+2	2.142986E+0	2.304890E+0	2.006167E+0	2.264991E+0	2.225375E+0	2.085846E+0	2.195939E+0	2.150846E+0	2.171449E+0	2.133171E+0	2.107994E+0	2.114087E+0	2.219891E+0	2.149026E+0	2.195030E+0	2.167954E+0	2.251548E+0	2.240385E+0	2.131792E+0	2.201193E+0	2.174798E+0	2.105548E+0	2.166137E+0	2.165936E+0	2.208019E+0	2.151433E+0	2.123286E+0	2.127088E+0	2.074904E+0	2.081469E+0	2.137551E+0	2.040297E+0	2.123309E+0	2.170892E+0	2.206953E+0	2.107569E+0	2.130501E+0	2.121881E+0	2.173638E+0	2.165183E+0	2.207311E+0	2.133319E+0	2.100544E+0	2.052163E+0	2.061206E+0	2.179111E+0	2.136595E+0	2.087765E+0	2.128085E+0	2.142857E+0	2.135977E+0	2.118092E+0	2.180827E+0	2.171921E+0	2.138919E+0	2.097289E+0	2.140668E+0	2.036291E+0	2.113779E+0	2.172935E+0	2.148576E+0	2.176017E+0	2.133919E+0	2.126808E+0	2.062422E+0	2.108495E+0	2.240321E+0	2.113176E+0	2.207465E+0	2.091869E+0	2.042184E+0	2.076424E+0	2.182725E+0	2.041775E+0	2.177246E+0	2.100900E+0	2.199709E+0	2.079699E+0	2.147830E+0	2.062004E+0	2.117113E+0	2.072249E+0	2.138458E+0	2.088367E+0	2.139073E+0	2.135781E+0	2.042392E+0	2.145238E+0	1.990970E+0	2.135100E+0	2.163706E+0	2.158632E+0	2.084094E+0	2.151230E+0	2.046647E+0	2.144541E+0	2.171494E+0	2.013995E+0	2.069389E+0	2.080558E+0	2.134397E+0	2.113460E+0	2.116619E+0	2.049269E+0	2.119611E+0	2.116295E+0	2.129791E+0	2.088962E+0	2.064254E+0	2.096859E+0	2.040043E+0	2.146519E+0	2.118576E+0	2.020806E+0	2.052002E+0	2.062515E+0	2.054015E+0	2.124589E+0	2.107426E+0	2.069180E+0	2.153407E+0	2.126217E+0	2.150568E+0	2.113733E+0	2.139666E+0	2.054414E+0	2.030819E+0	2.086331E+0	2.156186E+0	2.033272E+0	2.136484E+0	2.117316E+0	2.171986E+0	2.096400E+0	2.129186E+0	2.142252E+0	2.051053E+0	2.098835E+0	2.094068E+0	2.190846E+0	2.014790E+0	2.099490E+0	2.035475E+0	2.058281E+0	2.081151E+0	2.121925E+0	2.055672E+0	2.019238E+0	2.187190E+0	2.039093E+0	2.165361E+0	2.095456E+0	2.049459E+0	2.056951E+0	2.090784E+0	2.043787E+0	2.077071E+0	2.070163E+0	2.041111E+0	2.055449E+0	2.092758E+0	2.092578E+0	2.061536E+0	2.145503E+0	2.036503E+0	2.033619E+0	2.050973E+0	1.958327E+0	2.025215E+0	2.129874E+0
5.360070E+2	2.247666E+0	2.193662E+0	2.084398E+0	2.266806E+0	2.160766E+0	2.184440E+0	2.164824E+0	2.206019E+0	2.195287E+0	2.232454E+0	2.146141E+0	2.275678E+0	2.201858E+0	2.209817E+0	2.221429E+0	2.188988E+0	2.305793E+0	2.159116E+0	2.155938E+0	2.315418E+0	2.119951E+0	2.152257E+0	2.154865E+0	2.271363E+0	2.295991E+0	2.170934E+0	2.150163E+0	2.244228E+0	2.164578E+0	2.116945E+0	2.204823E+0	2.187834E+0	2.143152E+0	2.293041E+0	2.160620E+0	2.120193E+0	2.164790E+0	2.121424E+0	2.118254E+0	2.197065E+0	2.187291E+0	2.159850E+0	2.070322E+0	2.109687E+0	2.128564E+0	2.223266E+0	2.091747E+0	2.167422E+0	2.125471E+0	2.177072E+0	2.271639E+0	2.161212E+0	2.096762E+0	2.114184E+0	2.128291E+0	2.224936E+0	2.186706E+0	2.112462E+0	2.184037E+0	2.122549E+0	2.214160E+0	2.095902E+0	2.125262E+0	2.203224E+0	2.181538E+0	2.227555E+0	2.187346E+0	2.149589E+0	2.098715E+0	2.085312E+0	2.144284E+0	2.191128E+0	2.268315E+0	2.193751E+0	2.112267E+0	2.088322E+0	2.208655E+0	2.091736E+0	2.157568E+0	2.093406E+0	2.121590E+0	2.052313E+0	2.108140E+0	2.131690E+0	2.147482E+0	2.146509E+0	2.192140E+0	2.120410E+0	2.155112E+0	2.244560E+0	2.172214E+0	2.186192E+0	2.178669E+0	2.194827E+0	2.134634E+0	2.146935E+0	2.128958E+0	2.105290E+0	2.154964E+0	2.127621E+0	2.254258E+0	2.061481E+0	2.154518E+0	2.126356E+0	2.114136E+0	2.084883E+0	2.108613E+0	2.161156E+0	2.082886E+0	2.130370E+0	2.100640E+0	2.162928E+0	2.088320E+0	2.123041E+0	2.088612E+0	2.022873E+0	2.100433E+0	2.105978E+0	2.158657E+0	2.130531E+0	2.175364E+0	2.069761E+0	2.113057E+0	2.114082E+0	2.222539E+0	2.101169E+0	2.188894E+0	2.130690E+0	2.192571E+0	2.095666E+0	2.091282E+0	2.125252E+0	2.102681E+0	2.159860E+0	2.233954E+0	2.089209E+0	2.054859E+0	2.117135E+0	2.164818E+0	2.170578E+0	2.116578E+0	2.154377E+0	2.127834E+0	2.094743E+0	2.191195E+0	2.082323E+0	2.126707E+0	2.114064E+0	2.068574E+0	2.113521E+0	2.061639E+0	2.151990E+0	2.147454E+0	2.054719E+0	2.104189E+0	2.116027E+0	2.107954E+0	2.113583E+0	2.177504E+0	2.142090E+0	2.114649E+0	2.160582E+0	2.161223E+0	2.174431E+0	2.088612E+0	2.138285E+0	2.114954E+0	2.106467E+0	2.036225E+0	1.997972E+0
5.362050E+2	1.778255E+0	1.708972E+0	1.867753E+0	1.926697E+0	1.814614E+0	1.745395E+0	1.814361E+0	1.774501E+0	1.787910E+0	1.847636E+0	1.791532E+0	1.883177E+0	1.845987E+0	1.815419E+0	1.896593E+0	1.822980E+0	1.865683E+0	1.829078E+0	1.801820E+0	1.844973E+0	1.802525E+0	1.847644E+0	1.765946E+0	1.851192E+0	1.828095E+0	1.804144E+0	1.741365E+0	1.817749E+0	1.783051E+0	1.789699E+0	1.785481E+0	1.769985E+0	1.859500E+0	1.838769E+0	1.816775E+0	1.844425E+0	1.838434E+0	1.806283E+0	1.730871E+0	1.886083E+0	1.889867E+0	1.777839E+0	1.718311E+0	1.817344E+0	1.774498E+0	1.730109E+0	1.721829E+0	1.824894E+0	1.818813E+0	1.822049E+0	1.799531E+0	1.782091E+0	1.825527E+0	1.817029E+0	1.748256E+0	1.770987E+0	1.862142E+0	1.729194E+0	1.781707E+0	1.864332E+0	1.883450E+0	1.782156E+0	1.809950E+0	1.783716E+0	1.875916E+0	1.823345E+0	1.841584E+0	1.763151E+0	1.775680E+0	1.767114E+0	1.792130E+0	1.796277E+0	1.850920E+0	1.730674E+0	1.829722E+0	1.780182E+0	1.823330E+0	1.776361E+0	1.825500E+0	1.831899E+0	1.798337E+0	1.757152E+0	1.775387E+0	1.828464E+0	1.820590E+0	1.827495E+0	1.734505E+0	1.788654E+0	1.716067E+0	1.804019E+0	1.853326E+0	1.883855E+0	1.730314E+0	1.772849E+0	1.791545E+0	1.833803E+0	1.795311E+0	1.775780E+0	1.763193E+0	1.803130E+0	1.831642E+0	1.723300E+0	1.822108E+0	1.736705E+0	1.856212E+0	1.790786E+0	1.760795E+0	1.789976E+0	1.789580E+0	1.791008E+0	1.800038E+0	1.770272E+0	1.797131E+0	1.823606E+0	1.752737E+0	1.757866E+0	1.844948E+0	1.827899E+0	1.776154E+0	1.792283E+0	1.840098E+0	1.729079E+0	1.742916E+0	1.764617E+0	1.814722E+0	1.732835E+0	1.819902E+0	1.834015E+0	1.795697E+0	1.779595E+0	1.742768E+0	1.774598E+0	1.756982E+0	1.711469E+0	1.794099E+0	1.758390E+0	1.721817E+0	1.760402E+0	1.781579E+0	1.799287E+0	1.711222E+0	1.728326E+0	1.748007E+0	1.765100E+0	1.753699E+0	1.787923E+0	1.821701E+0	1.725824E+0	1.757545E+0	1.716645E+0	1.837608E+0	1.813639E+0	1.725071E+0	1.700693E+0	1.843949E+0	1.782412E+0	1.734887E+0	1.809504E+0	1.752980E+0	1.803124E+0	1.788189E+0	1.833731E+0	1.836212E+0	1.769785E+0	1.736331E+0	1.731187E+0	1.871365E+0	1.767735E+0	1.694354E+0	1.756297E+0
5.364090E+2	1.731862E+0	1.668948E+0	1.710420E+0	1.779135E+0	1.724146E+0	1.684123E+0	1.731779E+0	1.783658E+0	1.735612E+0	1.795077E+0	1.651570E+0	1.772079E+0	1.727453E+0	1.740370E+0	1.680316E+0	1.764869E+0	1.773636E+0	1.704454E+0	1.771747E+0	1.758663E+0	1.740999E+0	1.725742E+0	1.722314E+0	1.789639E+0	1.738279E+0	1.714758E+0	1.612166E+0	1.764505E+0	1.632701E+0	1.686658E+0	1.724117E+0	1.716978E+0	1.730886E+0	1.814862E+0	1.777444E+0	1.702408E+0	1.694609E+0	1.672806E+0	1.703441E+0	1.701966E+0	1.739926E+0	1.640311E+0	1.705920E+0	1.702444E+0	1.686136E+0	1.645696E+0	1.745164E+0	1.695884E+0	1.682288E+0	1.734449E+0	1.779812E+0	1.644827E+0	1.720307E+0	1.700380E+0	1.712702E+0	1.734873E+0	1.724654E+0	1.602046E+0	1.593725E+0	1.670938E+0	1.711173E+0	1.669450E+0	1.706997E+0	1.744048E+0	1.699818E+0	1.772697E+0	1.770621E+0	1.714802E+0	1.671207E+0	1.620988E+0	1.700565E+0	1.741861E+0	1.841306E+0	1.660768E+0	1.713936E+0	1.728919E+0	1.750143E+0	1.672345E+0	1.686126E+0	1.657862E+0	1.714776E+0	1.650530E+0	1.702743E+0	1.717260E+0	1.726884E+0	1.757214E+0	1.629687E+0	1.713794E+0	1.726127E+0	1.608867E+0	1.638354E+0	1.702615E+0	1.707060E+0	1.716048E+0	1.724938E+0	1.709954E+0	1.737393E+0	1.763211E+0	1.713236E+0	1.692295E+0	1.719749E+0	1.670341E+0	1.697254E+0	1.703569E+0	1.668116E+0	1.650660E+0	1.675383E+0	1.674316E+0	1.713395E+0	1.708645E+0	1.662149E+0	1.671984E+0	1.731067E+0	1.663963E+0	1.709747E+0	1.714989E+0	1.649386E+0	1.776171E+0	1.735755E+0	1.742389E+0	1.759276E+0	1.715852E+0	1.684441E+0	1.710545E+0	1.704613E+0	1.695194E+0	1.692695E+0	1.727132E+0	1.743881E+0	1.645772E+0	1.631106E+0	1.656316E+0	1.710302E+0	1.664724E+0	1.709814E+0	1.713662E+0	1.693290E+0	1.671591E+0	1.674073E+0	1.734769E+0	1.661088E+0	1.661093E+0	1.673867E+0	1.692949E+0	1.707503E+0	1.731143E+0	1.712688E+0	1.690114E+0	1.702919E+0	1.602235E+0	1.715899E+0	1.693130E+0	1.688258E+0	1.610035E+0	1.696239E+0	1.725567E+0	1.644755E+0	1.651439E+0	1.697171E+0	1.696500E+0	1.725033E+0	1.686684E+0	1.725026E+0	1.738564E+0	1.647629E+0	1.631630E+0	1.687543E+0	1.670556E+0	1.638678E+0	1.525305E+0
5.366350E+2	1.516002E+0	1.425003E+0	1.396518E+0	1.507686E+0	1.381077E+0	1.368037E+0	1.443972E+0	1.443625E+0	1.430463E+0	1.452303E+0	1.424519E+0	1.449845E+0	1.375575E+0	1.399016E+0	1.468062E+0	1.391977E+0	1.404259E+0	1.475191E+0	1.418557E+0	1.493972E+0	1.404009E+0	1.420449E+0	1.425326E+0	1.490899E+0	1.508850E+0	1.446763E+0	1.432829E+0	1.454564E+0	1.448783E+0	1.432067E+0	1.412077E+0	1.420709E+0	1.447762E+0	1.480419E+0	1.455915E+0	1.508299E+0	1.427109E+0	1.375761E+0	1.491231E+0	1.413917E+0	1.496342E+0	1.378874E+0	1.400120E+0	1.436205E+0	1.424044E+0	1.438637E+0	1.380400E+0	1.485567E+0	1.441150E+0	1.495654E+0	1.467526E+0	1.411708E+0	1.409422E+0	1.456456E+0	1.413870E+0	1.445227E+0	1.449506E+0	1.440816E+0	1.349468E+0	1.445984E+0	1.470505E+0	1.447687E+0	1.396712E+0	1.425668E+0	1.358639E+0	1.480085E+0	1.506022E+0	1.452590E+0	1.435580E+0	1.458420E+0	1.375883E+0	1.393548E+0	1.401136E+0	1.402578E+0	1.461947E+0	1.464345E+0	1.473720E+0	1.416054E+0	1.422246E+0	1.405842E+0	1.452824E+0	1.416742E+0	1.404973E+0	1.434279E+0	1.411044E+0	1.448510E+0	1.392277E+0	1.430156E+0	1.447936E+0	1.417982E+0	1.440724E+0	1.491166E+0	1.450765E+0	1.382716E+0	1.425393E+0	1.468580E+0	1.458784E+0	1.418028E+0	1.432030E+0	1.424951E+0	1.462779E+0	1.426594E+0	1.424953E+0	1.482812E+0	1.436081E+0	1.442975E+0	1.381143E+0	1.438221E+0	1.430866E+0	1.387187E+0	1.342387E+0	1.472510E+0	1.431790E+0	1.398260E+0	1.385191E+0	1.446275E+0	1.391484E+0	1.396331E+0	1.404330E+0	1.410999E+0	1.477178E+0	1.430351E+0	1.388625E+0	1.460000E+0	1.449377E+0	1.407123E+0	1.410030E+0	1.433837E+0	1.482514E+0	1.481794E+0	1.425807E+0	1.424372E+0	1.478515E+0	1.415523E+0	1.391593E+0	1.433095E+0	1.404637E+0	1.379861E+0	1.447963E+0	1.462304E+0	1.373843E+0	1.453487E+0	1.426371E+0	1.403535E+0	1.414916E+0	1.353543E+0	1.470867E+0	1.427728E+0	1.499427E+0	1.364924E+0	1.378083E+0	1.442419E+0	1.377307E+0	1.342749E+0	1.427129E+0	1.476906E+0	1.480199E+0	1.485630E+0	1.381115E+0	1.395915E+0	1.487206E+0	1.401473E+0	1.401236E+0	1.418992E+0	1.386990E+0	1.380298E+0	1.494320E+0	1.350472E+0	1.432563E+0	1.229543E+0
5.368130E+2	1.468414E+0	1.446098E+0	1.474375E+0	1.448025E+0	1.403710E+0	1.457565E+0	1.367492E+0	1.369869E+0	1.336257E+0	1.377416E+0	1.368512E+0	1.436606E+0	1.391163E+0	1.339825E+0	1.444646E+0	1.389564E+0	1.438679E+0	1.452185E+0	1.382781E+0	1.402797E+0	1.372373E+0	1.402237E+0	1.419774E+0	1.413161E+0	1.418211E+0	1.410223E+0	1.390434E+0	1.413106E+0	1.297810E+0	1.376449E+0	1.394797E+0	1.382900E+0	1.432240E+0	1.449890E+0	1.461363E+0	1.431980E+0	1.403453E+0	1.359339E+0	1.406531E+0	1.410667E+0	1.426512E+0	1.422192E+0	1.396043E+0	1.415416E+0	1.337869E+0	1.385015E+0	1.381127E+0	1.405584E+0	1.440535E+0	1.322366E+0	1.375449E+0	1.374036E+0	1.356716E+0	1.367995E+0	1.368401E+0	1.315430E+0	1.445179E+0	1.343814E+0	1.379018E+0	1.357732E+0	1.453459E+0	1.396435E+0	1.427609E+0	1.399960E+0	1.439091E+0	1.455692E+0	1.415743E+0	1.366107E+0	1.402566E+0	1.361602E+0	1.316234E+0	1.383316E+0	1.385502E+0	1.333701E+0	1.417592E+0	1.384268E+0	1.436548E+0	1.391887E+0	1.398618E+0	1.358782E+0	1.326887E+0	1.327413E+0	1.405148E+0	1.449132E+0	1.411615E+0	1.412819E+0	1.398236E+0	1.360445E+0	1.370006E+0	1.398128E+0	1.388969E+0	1.395015E+0	1.417407E+0	1.410534E+0	1.346470E+0	1.476980E+0	1.482662E+0	1.396564E+0	1.355323E+0	1.406274E+0	1.441579E+0	1.345478E+0	1.361448E+0	1.382826E+0	1.367238E+0	1.351856E+0	1.319139E+0	1.404348E+0	1.344078E+0	1.462409E+0	1.387448E+0	1.426510E+0	1.401419E+0	1.407410E+0	1.395678E+0	1.385362E+0	1.357233E+0	1.342093E+0	1.448266E+0	1.486216E+0	1.400212E+0	1.384239E+0	1.345037E+0	1.401760E+0	1.457451E+0	1.337983E+0	1.394216E+0	1.332947E+0	1.463380E+0	1.383152E+0	1.356562E+0	1.395612E+0	1.390869E+0	1.351900E+0	1.371648E+0	1.385795E+0	1.391325E+0	1.367928E+0	1.401892E+0	1.402970E+0	1.369492E+0	1.368109E+0	1.414100E+0	1.365553E+0	1.416030E+0	1.370086E+0	1.402797E+0	1.346241E+0	1.401170E+0	1.372329E+0	1.357610E+0	1.440264E+0	1.399834E+0	1.394214E+0	1.324088E+0	1.443373E+0	1.372650E+0	1.406798E+0	1.368306E+0	1.434687E+0	1.439775E+0	1.373295E+0	1.383114E+0	1.472479E+0	1.291958E+0	1.340475E+0	1.349837E+0	1.433344E+0	1.348771E+0	1.355148E+0
5.370010E+2	1.226289E+0	1.192100E+0	1.245505E+0	1.208812E+0	1.123727E+0	1.150816E+0	1.148979E+0	1.136499E+0	1.116107E+0	1.235700E+0	1.121856E+0	1.188010E+0	1.136271E+0	1.183434E+0	1.224536E+0	1.219374E+0	1.161554E+0	1.221692E+0	1.173934E+0	1.179086E+0	1.195315E+0	1.209145E+0	1.181535E+0	1.214606E+0	1.206153E+0	1.228085E+0	1.160147E+0	1.256617E+0	1.218104E+0	1.159772E+0	1.221394E+0	1.132360E+0	1.179564E+0	1.235797E+0	1.213382E+0	1.237896E+0	1.206916E+0	1.209853E+0	1.185388E+0	1.230230E+0	1.236982E+0	1.187326E+0	1.180075E+0	1.183723E+0	1.150380E+0	1.184465E+0	1.168348E+0	1.172688E+0	1.176939E+0	1.208013E+0	1.165652E+0	1.200062E+0	1.202255E+0	1.225553E+0	1.159658E+0	1.184861E+0	1.170940E+0	1.161880E+0	1.215140E+0	1.216859E+0	1.210271E+0	1.175735E+0	1.145199E+0	1.177479E+0	1.203615E+0	1.275663E+0	1.197273E+0	1.180905E+0	1.190249E+0	1.162587E+0	1.165868E+0	1.213515E+0	1.255918E+0	1.161474E+0	1.187267E+0	1.175182E+0	1.228417E+0	1.222284E+0	1.182085E+0	1.124836E+0	1.181184E+0	1.194972E+0	1.208309E+0	1.195878E+0	1.163467E+0	1.198403E+0	1.134539E+0	1.235916E+0	1.095644E+0	1.147333E+0	1.154304E+0	1.228837E+0	1.155527E+0	1.223743E+0	1.216301E+0	1.198805E+0	1.209738E+0	1.172374E+0	1.167958E+0	1.178538E+0	1.235132E+0	1.162942E+0	1.133170E+0	1.170885E+0	1.187712E+0	1.175582E+0	1.181387E+0	1.180956E+0	1.196837E+0	1.139895E+0	1.132848E+0	1.238855E+0	1.173504E+0	1.173546E+0	1.187406E+0	1.185276E+0	1.167082E+0	1.139610E+0	1.140251E+0	1.225533E+0	1.197435E+0	1.168471E+0	1.162918E+0	1.192574E+0	1.194401E+0	1.180080E+0	1.212956E+0	1.194121E+0	1.228618E+0	1.167009E+0	1.130015E+0	1.152588E+0	1.203790E+0	1.176226E+0	1.137998E+0	1.187254E+0	1.176991E+0	1.176515E+0	1.149637E+0	1.177893E+0	1.103518E+0	1.143729E+0	1.113082E+0	1.161668E+0	1.219351E+0	1.162965E+0	1.148390E+0	1.150028E+0	1.200574E+0	1.137783E+0	1.190372E+0	1.249171E+0	1.162132E+0	1.135685E+0	1.125695E+0	1.220786E+0	1.176244E+0	1.175043E+0	1.228265E+0	1.206620E+0	1.187236E+0	1.178625E+0	1.184288E+0	1.144104E+0	1.188007E+0	1.175259E+0	1.198911E+0	1.191346E+0	1.184809E+0	1.180061E+0
5.372270E+2	1.209237E+0	1.188083E+0	1.201044E+0	1.166940E+0	1.136481E+0	1.206650E+0	1.168348E+0	1.183950E+0	1.172234E+0	1.272776E+0	1.179692E+0	1.287414E+0	1.186457E+0	1.232515E+0	1.241449E+0	1.161018E+0	1.181459E+0	1.222643E+0	1.125892E+0	1.199791E+0	1.175443E+0	1.200116E+0	1.162470E+0	1.208190E+0	1.207501E+0	1.153608E+0	1.137667E+0	1.236910E+0	1.230639E+0	1.167444E+0	1.177609E+0	1.193897E+0	1.208210E+0	1.240644E+0	1.233476E+0	1.143882E+0	1.213475E+0	1.156293E+0	1.189601E+0	1.249492E+0	1.185784E+0	1.135706E+0	1.114668E+0	1.167258E+0	1.178059E+0	1.162709E+0	1.156703E+0	1.190084E+0	1.180786E+0	1.227759E+0	1.210038E+0	1.098443E+0	1.238115E+0	1.165281E+0	1.167508E+0	1.216120E+0	1.192707E+0	1.154941E+0	1.175256E+0	1.212852E+0	1.229134E+0	1.187424E+0	1.186086E+0	1.200259E+0	1.191837E+0	1.127014E+0	1.225902E+0	1.195043E+0	1.179703E+0	1.171658E+0	1.147370E+0	1.179390E+0	1.208716E+0	1.179219E+0	1.186494E+0	1.161429E+0	1.182291E+0	1.160051E+0	1.140965E+0	1.254317E+0	1.170812E+0	1.227401E+0	1.157642E+0	1.121253E+0	1.152472E+0	1.190720E+0	1.140987E+0	1.179566E+0	1.174671E+0	1.166281E+0	1.169198E+0	1.214618E+0	1.195795E+0	1.128582E+0	1.161690E+0	1.157169E+0	1.202851E+0	1.203174E+0	1.190279E+0	1.181680E+0	1.176321E+0	1.204085E+0	1.162447E+0	1.171644E+0	1.211589E+0	1.159146E+0	1.140595E+0	1.203898E+0	1.179540E+0	1.136150E+0	1.136670E+0	1.210556E+0	1.140640E+0	1.168474E+0	1.198789E+0	1.161245E+0	1.138571E+0	1.166214E+0	1.186067E+0	1.154965E+0	1.177786E+0	1.174525E+0	1.117902E+0	1.152684E+0	1.155238E+0	1.161648E+0	1.200500E+0	1.151869E+0	1.194133E+0	1.198212E+0	1.189407E+0	1.205831E+0	1.198017E+0	1.167419E+0	1.153375E+0	1.156514E+0	1.170559E+0	1.178620E+0	1.205733E+0	1.220573E+0	1.170932E+0	1.146761E+0	1.143075E+0	1.184882E+0	1.202287E+0	1.194450E+0	1.151377E+0	1.165889E+0	1.150829E+0	1.154474E+0	1.166136E+0	1.210240E+0	1.173544E+0	1.160809E+0	1.135957E+0	1.225224E+0	1.175707E+0	1.192455E+0	1.173258E+0	1.206341E+0	1.242694E+0	1.162660E+0	1.119557E+0	1.200146E+0	1.144029E+0	1.149691E+0	1.188243E+0	1.179137E+0	1.165890E+0	1.121786E+0
5.374110E+2	1.131823E+0	9.880699E-1	1.219046E+0	1.187289E+0	1.169151E+0	1.171726E+0	1.179419E+0	1.118978E+0	1.173187E+0	1.162304E+0	1.127587E+0	1.189137E+0	1.189204E+0	1.180639E+0	1.139841E+0	1.140263E+0	1.180603E+0	1.152034E+0	1.200543E+0	1.161589E+0	1.160849E+0	1.173598E+0	1.177960E+0	1.172310E+0	1.155366E+0	1.181143E+0	1.156908E+0	1.276479E+0	1.168457E+0	1.126452E+0	1.101149E+0	1.167123E+0	1.154317E+0	1.181394E+0	1.186236E+0	1.204576E+0	1.180291E+0	1.159895E+0	1.182792E+0	1.220088E+0	1.174622E+0	1.151237E+0	1.121179E+0	1.179330E+0	1.170245E+0	1.182243E+0	1.161991E+0	1.137946E+0	1.227125E+0	1.181233E+0	1.231998E+0	1.179196E+0	1.159504E+0	1.152627E+0	1.129147E+0	1.140874E+0	1.148215E+0	1.152675E+0	1.127133E+0	1.196399E+0	1.189924E+0	1.143771E+0	1.189137E+0	1.194833E+0	1.178419E+0	1.155288E+0	1.189151E+0	1.151618E+0	1.174784E+0	1.206391E+0	1.096608E+0	1.169783E+0	1.217141E+0	1.192848E+0	1.200141E+0	1.168469E+0	1.242206E+0	1.151952E+0	1.135624E+0	1.177389E+0	1.199709E+0	1.137884E+0	1.136060E+0	1.234056E+0	1.140849E+0	1.136927E+0	1.118899E+0	1.129676E+0	1.176272E+0	1.094776E+0	1.170645E+0	1.197658E+0	1.220533E+0	1.109046E+0	1.137828E+0	1.139140E+0	1.155753E+0	1.163737E+0	1.179041E+0	1.202024E+0	1.126398E+0	1.197056E+0	1.166619E+0	1.261819E+0	1.127376E+0	1.158059E+0	1.169852E+0	1.180207E+0	1.158497E+0	1.187881E+0	1.193019E+0	1.122479E+0	1.132071E+0	1.168189E+0	1.119310E+0	1.146252E+0	1.204468E+0	1.233468E+0	1.191043E+0	1.187555E+0	1.140037E+0	1.115836E+0	1.160730E+0	1.158159E+0	1.190153E+0	1.148873E+0	1.211515E+0	1.174851E+0	1.243548E+0	1.152461E+0	1.120605E+0	1.211826E+0	1.141502E+0	1.146397E+0	1.134318E+0	1.179975E+0	1.119579E+0	1.167054E+0	1.112272E+0	1.179967E+0	1.172273E+0	1.176975E+0	1.165316E+0	1.134325E+0	1.182509E+0	1.181814E+0	1.191843E+0	1.116110E+0	1.174002E+0	1.170503E+0	1.133537E+0	1.194308E+0	1.157601E+0	1.123810E+0	1.146289E+0	1.227994E+0	1.105194E+0	1.173519E+0	1.150815E+0	1.175944E+0	1.144165E+0	1.173708E+0	1.164413E+0	1.237051E+0	1.162578E+0	1.180012E+0	1.105417E+0	1.215625E+0	1.128176E+0	1.121226E+0
5.376060E+2	1.339457E+0	1.300850E+0	1.244147E+0	1.381997E+0	1.318573E+0	1.281761E+0	1.327593E+0	1.222416E+0	1.406570E+0	1.323316E+0	1.262503E+0	1.293950E+0	1.337349E+0	1.307498E+0	1.299469E+0	1.301953E+0	1.400607E+0	1.328438E+0	1.238873E+0	1.305828E+0	1.309561E+0	1.298403E+0	1.279555E+0	1.296032E+0	1.327786E+0	1.292612E+0	1.311865E+0	1.272709E+0	1.327750E+0	1.379060E+0	1.262947E+0	1.293887E+0	1.288234E+0	1.377822E+0	1.340651E+0	1.346893E+0	1.324903E+0	1.317928E+0	1.337677E+0	1.327959E+0	1.278936E+0	1.289421E+0	1.314711E+0	1.287891E+0	1.326789E+0	1.306129E+0	1.300223E+0	1.321115E+0	1.271101E+0	1.347151E+0	1.324780E+0	1.269420E+0	1.271517E+0	1.253882E+0	1.217425E+0	1.297604E+0	1.286170E+0	1.244425E+0	1.282903E+0	1.337503E+0	1.310207E+0	1.306734E+0	1.259009E+0	1.307828E+0	1.275469E+0	1.347366E+0	1.386780E+0	1.361575E+0	1.296519E+0	1.266128E+0	1.284988E+0	1.349384E+0	1.359788E+0	1.265316E+0	1.344461E+0	1.313348E+0	1.354372E+0	1.307301E+0	1.294865E+0	1.334380E+0	1.305197E+0	1.357087E+0	1.279963E+0	1.340052E+0	1.337059E+0	1.262262E+0	1.247845E+0	1.271036E+0	1.317102E+0	1.304471E+0	1.269178E+0	1.382773E+0	1.306376E+0	1.255344E+0	1.307860E+0	1.332020E+0	1.320512E+0	1.297359E+0	1.291725E+0	1.296365E+0	1.306271E+0	1.301040E+0	1.309936E+0	1.262637E+0	1.296217E+0	1.295327E+0	1.236060E+0	1.358307E+0	1.320654E+0	1.314681E+0	1.344041E+0	1.289961E+0	1.274519E+0	1.293887E+0	1.330112E+0	1.285680E+0	1.272264E+0	1.274263E+0	1.278076E+0	1.307541E+0	1.343831E+0	1.287223E+0	1.280074E+0	1.366366E+0	1.337596E+0	1.296466E+0	1.321695E+0	1.285517E+0	1.331888E+0	1.382121E+0	1.257442E+0	1.288872E+0	1.308338E+0	1.297369E+0	1.297194E+0	1.349062E+0	1.277173E+0	1.303824E+0	1.282250E+0	1.310798E+0	1.258833E+0	1.300983E+0	1.245814E+0	1.268470E+0	1.296005E+0	1.299021E+0	1.291441E+0	1.266303E+0	1.316112E+0	1.297433E+0	1.284159E+0	1.316537E+0	1.277030E+0	1.284185E+0	1.200004E+0	1.309688E+0	1.292353E+0	1.330364E+0	1.309932E+0	1.272438E+0	1.382480E+0	1.283447E+0	1.314142E+0	1.328801E+0	1.295653E+0	1.283838E+0	1.258148E+0	1.265654E+0	1.405991E+0	1.204590E+0
5.378160E+2	1.572609E+0	1.528338E+0	1.570238E+0	1.590061E+0	1.558393E+0	1.586143E+0	1.507111E+0	1.553806E+0	1.556406E+0	1.635681E+0	1.539628E+0	1.571617E+0	1.528526E+0	1.522833E+0	1.621099E+0	1.603431E+0	1.609987E+0	1.630288E+0	1.621526E+0	1.580968E+0	1.558852E+0	1.618530E+0	1.577175E+0	1.587305E+0	1.543265E+0	1.583052E+0	1.596640E+0	1.566065E+0	1.605202E+0	1.522304E+0	1.581601E+0	1.568892E+0	1.536243E+0	1.622282E+0	1.596003E+0	1.599550E+0	1.645655E+0	1.518740E+0	1.597248E+0	1.564945E+0	1.602168E+0	1.525880E+0	1.529375E+0	1.497388E+0	1.562888E+0	1.542610E+0	1.537167E+0	1.550992E+0	1.568041E+0	1.598472E+0	1.582972E+0	1.610595E+0	1.591733E+0	1.566610E+0	1.515644E+0	1.565592E+0	1.606021E+0	1.522458E+0	1.461520E+0	1.573950E+0	1.585569E+0	1.565120E+0	1.554796E+0	1.501874E+0	1.520104E+0	1.585547E+0	1.594242E+0	1.535453E+0	1.622572E+0	1.592268E+0	1.512048E+0	1.563476E+0	1.549654E+0	1.508553E+0	1.545237E+0	1.485251E+0	1.607668E+0	1.551573E+0	1.554568E+0	1.542337E+0	1.574365E+0	1.481532E+0	1.538481E+0	1.622286E+0	1.551241E+0	1.545423E+0	1.504712E+0	1.532311E+0	1.462590E+0	1.571288E+0	1.574583E+0	1.605006E+0	1.539778E+0	1.557682E+0	1.524295E+0	1.500173E+0	1.585238E+0	1.529333E+0	1.590189E+0	1.529710E+0	1.628868E+0	1.550634E+0	1.555014E+0	1.567391E+0	1.564812E+0	1.547983E+0	1.494850E+0	1.649676E+0	1.571734E+0	1.525653E+0	1.571337E+0	1.573733E+0	1.641298E+0	1.561271E+0	1.569727E+0	1.540095E+0	1.537125E+0	1.524460E+0	1.518876E+0	1.570947E+0	1.572137E+0	1.576242E+0	1.585809E+0	1.541588E+0	1.582133E+0	1.523689E+0	1.550169E+0	1.490804E+0	1.569407E+0	1.527890E+0	1.492710E+0	1.601627E+0	1.570317E+0	1.527963E+0	1.520697E+0	1.555217E+0	1.467407E+0	1.519130E+0	1.552378E+0	1.463455E+0	1.507837E+0	1.468898E+0	1.490956E+0	1.576797E+0	1.533703E+0	1.508593E+0	1.549678E+0	1.539388E+0	1.529664E+0	1.505621E+0	1.584965E+0	1.531510E+0	1.507861E+0	1.538098E+0	1.491628E+0	1.519939E+0	1.541854E+0	1.541903E+0	1.484244E+0	1.603580E+0	1.615595E+0	1.526954E+0	1.505701E+0	1.596374E+0	1.518888E+0	1.558208E+0	1.563956E+0	1.500360E+0	1.629525E+0	1.460771E+0
5.380210E+2	1.570629E+0	1.565537E+0	1.603736E+0	1.592012E+0	1.573207E+0	1.596512E+0	1.608949E+0	1.520841E+0	1.632415E+0	1.614452E+0	1.556130E+0	1.564917E+0	1.608044E+0	1.599101E+0	1.603883E+0	1.585969E+0	1.595062E+0	1.652310E+0	1.607529E+0	1.588709E+0	1.587999E+0	1.564034E+0	1.542628E+0	1.542890E+0	1.560177E+0	1.581879E+0	1.490071E+0	1.536288E+0	1.593808E+0	1.567189E+0	1.560974E+0	1.552696E+0	1.612740E+0	1.693750E+0	1.611664E+0	1.609429E+0	1.609492E+0	1.567508E+0	1.566399E+0	1.598885E+0	1.586489E+0	1.544428E+0	1.521168E+0	1.619624E+0	1.520346E+0	1.603721E+0	1.573317E+0	1.558213E+0	1.597996E+0	1.564441E+0	1.627003E+0	1.534120E+0	1.555549E+0	1.599178E+0	1.482543E+0	1.502788E+0	1.572517E+0	1.577655E+0	1.562880E+0	1.560445E+0	1.658712E+0	1.563723E+0	1.571891E+0	1.547406E+0	1.586033E+0	1.605502E+0	1.568228E+0	1.489287E+0	1.571989E+0	1.526192E+0	1.510548E+0	1.567623E+0	1.677442E+0	1.479528E+0	1.563795E+0	1.502601E+0	1.590474E+0	1.548454E+0	1.594218E+0	1.530565E+0	1.560981E+0	1.576216E+0	1.567840E+0	1.540677E+0	1.620158E+0	1.510688E+0	1.522437E+0	1.562908E+0	1.534721E+0	1.571240E+0	1.610178E+0	1.579680E+0	1.616410E+0	1.582922E+0	1.538975E+0	1.595227E+0	1.586708E+0	1.508560E+0	1.563809E+0	1.605991E+0	1.597219E+0	1.564706E+0	1.546669E+0	1.567333E+0	1.605617E+0	1.548363E+0	1.519758E+0	1.584234E+0	1.509657E+0	1.582387E+0	1.570972E+0	1.555317E+0	1.610669E+0	1.505564E+0	1.481844E+0	1.489554E+0	1.592811E+0	1.502727E+0	1.526709E+0	1.586118E+0	1.650388E+0	1.579381E+0	1.540943E+0	1.566200E+0	1.604656E+0	1.564506E+0	1.581045E+0	1.573371E+0	1.534287E+0	1.538156E+0	1.516765E+0	1.559228E+0	1.605255E+0	1.535484E+0	1.521951E+0	1.592505E+0	1.491249E+0	1.556136E+0	1.510184E+0	1.542490E+0	1.520022E+0	1.579933E+0	1.498042E+0	1.546820E+0	1.578369E+0	1.515955E+0	1.530351E+0	1.535694E+0	1.616133E+0	1.542757E+0	1.553774E+0	1.555535E+0	1.535305E+0	1.525466E+0	1.510246E+0	1.518821E+0	1.595906E+0	1.531011E+0	1.513862E+0	1.582619E+0	1.628834E+0	1.479772E+0	1.500843E+0	1.599209E+0	1.528631E+0	1.503738E+0	1.509663E+0	1.475041E+0	1.519573E+0	1.458778E+0
5.382110E+2	1.906785E+0	1.784688E+0	1.700825E+0	1.861737E+0	1.893974E+0	1.844714E+0	1.779414E+0	1.841815E+0	1.864810E+0	1.902189E+0	1.804316E+0	1.817494E+0	1.772391E+0	1.862761E+0	1.919000E+0	1.817863E+0	1.843188E+0	1.806012E+0	1.814753E+0	1.857800E+0	1.815995E+0	1.783533E+0	1.773357E+0	1.843149E+0	1.854456E+0	1.748747E+0	1.704658E+0	1.853987E+0	1.794834E+0	1.886985E+0	1.816984E+0	1.844039E+0	1.837508E+0	1.923032E+0	1.868964E+0	1.869893E+0	1.870211E+0	1.783275E+0	1.836174E+0	1.788771E+0	1.824945E+0	1.801238E+0	1.711709E+0	1.759922E+0	1.827544E+0	1.887868E+0	1.843875E+0	1.846330E+0	1.784781E+0	1.835576E+0	1.928023E+0	1.766415E+0	1.823957E+0	1.813844E+0	1.760192E+0	1.763420E+0	1.817375E+0	1.848711E+0	1.784181E+0	1.844179E+0	1.903369E+0	1.805636E+0	1.751216E+0	1.797352E+0	1.811860E+0	1.870435E+0	1.951277E+0	1.772746E+0	1.895934E+0	1.787481E+0	1.708008E+0	1.770603E+0	1.851397E+0	1.735061E+0	1.778912E+0	1.762582E+0	1.842270E+0	1.815033E+0	1.779168E+0	1.763037E+0	1.838324E+0	1.722188E+0	1.776996E+0	1.827624E+0	1.756038E+0	1.757471E+0	1.796303E+0	1.750951E+0	1.776847E+0	1.848355E+0	1.858535E+0	1.851803E+0	1.867316E+0	1.820673E+0	1.798212E+0	1.842453E+0	1.840698E+0	1.769379E+0	1.843696E+0	1.815900E+0	1.796898E+0	1.723191E+0	1.830837E+0	1.780305E+0	1.741556E+0	1.836394E+0	1.710325E+0	1.821639E+0	1.828315E+0	1.773699E+0	1.766555E+0	1.866206E+0	1.846994E+0	1.824555E+0	1.814846E+0	1.727193E+0	1.788465E+0	1.818106E+0	1.776630E+0	1.822498E+0	1.898980E+0	1.820263E+0	1.794423E+0	1.759207E+0	1.823409E+0	1.760372E+0	1.782870E+0	1.835572E+0	1.774422E+0	1.830412E+0	1.783947E+0	1.829696E+0	1.815914E+0	1.771921E+0	1.848063E+0	1.771677E+0	1.822219E+0	1.788390E+0	1.826698E+0	1.805583E+0	1.789772E+0	1.752281E+0	1.798696E+0	1.817346E+0	1.740305E+0	1.730273E+0	1.878680E+0	1.749606E+0	1.806514E+0	1.759838E+0	1.736567E+0	1.848184E+0	1.779293E+0	1.728725E+0	1.703982E+0	1.815598E+0	1.751504E+0	1.842569E+0	1.728021E+0	1.784976E+0	1.860708E+0	1.805487E+0	1.767482E+0	1.846830E+0	1.817558E+0	1.778026E+0	1.749231E+0	1.826688E+0	1.734608E+0	1.783589E+0
5.384110E+2	1.938679E+0	1.885413E+0	1.910337E+0	1.858978E+0	1.881849E+0	1.912570E+0	1.845457E+0	1.809585E+0	1.846811E+0	1.946974E+0	1.871479E+0	1.862107E+0	1.895133E+0	1.904698E+0	1.974351E+0	1.872787E+0	1.862499E+0	1.858543E+0	1.867781E+0	1.891809E+0	1.883531E+0	1.830976E+0	1.854962E+0	1.822582E+0	1.934709E+0	1.852737E+0	1.890824E+0	1.842000E+0	1.818370E+0	1.882867E+0	1.885997E+0	1.833730E+0	1.810691E+0	1.972172E+0	1.881148E+0	1.893758E+0	1.934263E+0	1.837895E+0	1.835260E+0	1.897776E+0	1.942734E+0	1.830640E+0	1.779684E+0	1.772566E+0	1.851572E+0	1.811423E+0	1.878972E+0	1.856779E+0	1.905886E+0	1.899251E+0	1.823796E+0	1.816260E+0	1.839178E+0	1.871944E+0	1.852288E+0	1.770022E+0	1.919887E+0	1.803582E+0	1.911903E+0	1.827659E+0	1.894149E+0	1.880927E+0	1.910225E+0	1.880801E+0	1.930728E+0	1.893509E+0	1.957485E+0	1.793586E+0	1.937471E+0	1.821995E+0	1.777265E+0	1.848938E+0	1.957822E+0	1.829384E+0	1.847245E+0	1.778746E+0	1.945197E+0	1.753089E+0	1.869606E+0	1.797285E+0	1.878210E+0	1.870153E+0	1.900647E+0	1.830148E+0	1.881724E+0	1.863116E+0	1.763608E+0	1.894200E+0	1.887906E+0	1.889654E+0	1.847058E+0	1.878030E+0	1.870982E+0	1.908551E+0	1.842427E+0	1.854283E+0	1.923392E+0	1.890612E+0	1.875792E+0	1.900558E+0	1.884283E+0	1.828324E+0	1.812296E+0	1.843894E+0	1.853589E+0	1.823360E+0	1.763630E+0	1.736626E+0	1.825478E+0	1.892740E+0	1.876942E+0	1.845007E+0	1.905725E+0	1.798936E+0	1.822990E+0	1.848192E+0	1.790031E+0	1.829560E+0	1.765572E+0	1.936595E+0	1.960337E+0	1.848014E+0	1.767591E+0	1.776682E+0	1.873504E+0	1.813114E+0	1.806226E+0	1.821120E+0	1.916336E+0	1.863626E+0	1.877455E+0	1.777514E+0	1.845015E+0	1.832178E+0	1.796459E+0	1.802185E+0	1.874563E+0	1.769265E+0	1.814817E+0	1.840488E+0	1.880542E+0	1.864560E+0	1.831182E+0	1.780760E+0	1.878082E+0	1.824887E+0	1.718831E+0	1.831261E+0	1.867016E+0	1.767602E+0	1.849024E+0	1.859514E+0	1.878192E+0	1.821335E+0	1.816257E+0	1.819538E+0	1.829921E+0	1.852319E+0	1.804279E+0	1.825967E+0	1.880248E+0	1.814182E+0	1.801995E+0	1.796740E+0	1.817957E+0	1.761037E+0	1.836378E+0	1.854133E+0	1.866911E+0	1.792716E+0
5.386120E+2	1.974773E+0	1.784297E+0	1.839845E+0	1.932908E+0	1.931674E+0	1.867021E+0	1.913760E+0	1.879103E+0	1.937022E+0	1.892249E+0	1.939760E+0	1.892873E+0	1.979606E+0	1.857150E+0	1.941802E+0	1.897962E+0	1.929903E+0	1.923341E+0	1.899741E+0	1.898013E+0	1.903161E+0	1.887233E+0	1.828665E+0	1.888596E+0	1.920400E+0	1.860155E+0	1.849627E+0	1.890302E+0	1.840260E+0	1.803772E+0	1.860476E+0	1.821260E+0	1.845382E+0	2.003629E+0	1.941840E+0	1.858154E+0	1.917933E+0	1.856039E+0	1.885295E+0	1.897715E+0	2.011148E+0	1.847641E+0	1.835829E+0	1.795931E+0	1.841002E+0	1.898056E+0	1.839223E+0	1.931924E+0	1.891799E+0	1.889448E+0	1.953092E+0	1.859066E+0	1.886707E+0	1.827789E+0	1.857001E+0	1.836890E+0	1.889041E+0	1.795146E+0	1.787586E+0	1.801623E+0	1.873703E+0	1.828882E+0	1.882196E+0	1.837540E+0	1.816207E+0	1.925131E+0	1.873102E+0	1.835669E+0	1.947264E+0	1.793270E+0	1.791760E+0	1.806480E+0	1.956618E+0	1.857503E+0	1.934841E+0	1.812035E+0	1.931247E+0	1.836188E+0	1.906093E+0	1.849983E+0	1.895675E+0	1.843504E+0	1.910395E+0	1.900636E+0	1.821923E+0	1.843266E+0	1.812198E+0	1.822985E+0	1.880153E+0	1.790125E+0	1.853392E+0	1.864004E+0	1.896561E+0	1.771495E+0	1.833126E+0	1.863804E+0	1.884453E+0	1.867617E+0	1.799823E+0	1.795189E+0	1.886695E+0	1.788602E+0	1.921488E+0	1.848551E+0	1.811533E+0	1.792498E+0	1.776240E+0	1.867779E+0	1.859660E+0	1.901916E+0	1.857529E+0	1.831346E+0	1.889126E+0	1.882639E+0	1.900152E+0	1.802546E+0	1.862749E+0	1.840534E+0	1.832680E+0	1.922298E+0	1.898651E+0	1.857440E+0	1.908348E+0	1.851969E+0	1.865365E+0	1.809804E+0	1.852627E+0	1.836821E+0	1.920169E+0	1.819714E+0	1.836186E+0	1.810088E+0	1.925480E+0	1.804056E+0	1.847813E+0	1.827654E+0	1.904745E+0	1.763109E+0	1.940082E+0	1.813018E+0	1.839638E+0	1.818259E+0	1.832996E+0	1.851705E+0	1.899780E+0	1.870612E+0	1.880970E+0	1.794043E+0	1.903290E+0	1.824961E+0	1.811521E+0	1.833394E+0	1.824998E+0	1.843494E+0	1.832995E+0	1.814625E+0	1.906278E+0	1.953211E+0	1.788654E+0	1.892100E+0	1.898686E+0	1.798827E+0	1.759998E+0	1.891871E+0	1.811370E+0	1.835872E+0	1.853656E+0	1.841520E+0	1.775993E+0	1.840544E+0
5.388120E+2	1.845443E+0	1.692682E+0	1.713170E+0	1.714315E+0	1.765179E+0	1.699698E+0	1.719383E+0	1.656549E+0	1.643347E+0	1.711287E+0	1.714420E+0	1.772017E+0	1.732977E+0	1.714481E+0	1.768308E+0	1.680157E+0	1.691275E+0	1.667630E+0	1.754917E+0	1.788336E+0	1.697451E+0	1.725738E+0	1.647070E+0	1.681999E+0	1.734460E+0	1.660231E+0	1.604195E+0	1.687796E+0	1.683727E+0	1.660688E+0	1.634624E+0	1.653124E+0	1.672204E+0	1.788718E+0	1.718707E+0	1.714190E+0	1.697845E+0	1.647775E+0	1.684095E+0	1.708832E+0	1.740325E+0	1.700371E+0	1.618003E+0	1.617286E+0	1.706029E+0	1.668720E+0	1.695060E+0	1.651601E+0	1.762712E+0	1.727796E+0	1.715426E+0	1.643016E+0	1.709604E+0	1.624588E+0	1.684778E+0	1.664043E+0	1.674414E+0	1.653172E+0	1.715647E+0	1.640226E+0	1.757862E+0	1.661231E+0	1.707454E+0	1.659783E+0	1.725242E+0	1.717214E+0	1.726757E+0	1.683967E+0	1.748965E+0	1.671486E+0	1.649619E+0	1.654842E+0	1.755772E+0	1.674366E+0	1.692722E+0	1.576101E+0	1.753688E+0	1.697699E+0	1.658895E+0	1.658404E+0	1.802299E+0	1.596791E+0	1.719530E+0	1.636899E+0	1.715026E+0	1.675143E+0	1.633043E+0	1.667807E+0	1.650758E+0	1.704648E+0	1.618770E+0	1.662133E+0	1.720314E+0	1.633554E+0	1.745253E+0	1.680881E+0	1.685973E+0	1.664028E+0	1.663512E+0	1.723559E+0	1.692891E+0	1.703658E+0	1.706590E+0	1.644340E+0	1.707057E+0	1.694476E+0	1.594145E+0	1.753644E+0	1.645414E+0	1.718312E+0	1.650158E+0	1.710778E+0	1.672685E+0	1.658910E+0	1.649845E+0	1.711087E+0	1.709517E+0	1.695245E+0	1.627216E+0	1.726567E+0	1.714630E+0	1.641496E+0	1.714407E+0	1.658221E+0	1.722922E+0	1.689724E+0	1.667009E+0	1.704855E+0	1.672716E+0	1.641131E+0	1.700806E+0	1.691860E+0	1.628530E+0	1.674421E+0	1.661733E+0	1.649214E+0	1.676370E+0	1.655160E+0	1.707106E+0	1.665749E+0	1.627290E+0	1.624966E+0	1.646273E+0	1.654708E+0	1.727762E+0	1.623962E+0	1.667433E+0	1.694748E+0	1.681660E+0	1.645041E+0	1.605070E+0	1.677882E+0	1.680851E+0	1.608851E+0	1.614134E+0	1.680971E+0	1.696120E+0	1.653795E+0	1.655852E+0	1.716660E+0	1.696941E+0	1.590248E+0	1.631885E+0	1.631045E+0	1.666456E+0	1.613322E+0	1.602893E+0	1.622421E+0	1.668612E+0	1.777344E+0
5.390130E+2	1.553784E+0	1.521799E+0	1.588774E+0	1.615279E+0	1.545316E+0	1.523131E+0	1.596747E+0	1.559303E+0	1.576948E+0	1.553156E+0	1.510515E+0	1.564356E+0	1.580287E+0	1.530690E+0	1.564681E+0	1.513376E+0	1.595036E+0	1.571069E+0	1.578595E+0	1.621053E+0	1.525335E+0	1.518938E+0	1.543288E+0	1.589414E+0	1.563931E+0	1.582612E+0	1.480433E+0	1.586901E+0	1.533207E+0	1.481544E+0	1.557470E+0	1.480250E+0	1.650611E+0	1.611480E+0	1.604209E+0	1.545120E+0	1.528744E+0	1.517562E+0	1.580351E+0	1.543572E+0	1.577555E+0	1.544141E+0	1.528146E+0	1.548636E+0	1.558660E+0	1.525396E+0	1.510415E+0	1.574186E+0	1.552746E+0	1.541294E+0	1.637865E+0	1.521046E+0	1.550023E+0	1.488808E+0	1.444513E+0	1.483484E+0	1.567568E+0	1.550234E+0	1.534629E+0	1.526311E+0	1.570311E+0	1.589731E+0	1.527079E+0	1.589186E+0	1.560938E+0	1.596844E+0	1.603237E+0	1.536008E+0	1.542268E+0	1.577049E+0	1.510089E+0	1.537357E+0	1.598398E+0	1.486019E+0	1.524698E+0	1.534498E+0	1.606392E+0	1.539293E+0	1.499520E+0	1.512816E+0	1.498392E+0	1.514517E+0	1.542162E+0	1.560229E+0	1.564793E+0	1.539168E+0	1.459309E+0	1.547211E+0	1.570896E+0	1.562420E+0	1.521204E+0	1.541866E+0	1.546211E+0	1.506509E+0	1.566895E+0	1.552455E+0	1.623624E+0	1.529724E+0	1.501323E+0	1.640723E+0	1.600020E+0	1.482396E+0	1.554472E+0	1.535475E+0	1.544912E+0	1.497768E+0	1.558517E+0	1.613890E+0	1.522911E+0	1.533949E+0	1.542907E+0	1.583080E+0	1.517266E+0	1.515134E+0	1.564366E+0	1.524873E+0	1.551509E+0	1.576929E+0	1.535889E+0	1.516459E+0	1.598175E+0	1.489724E+0	1.487972E+0	1.527372E+0	1.560169E+0	1.529681E+0	1.507012E+0	1.485286E+0	1.569230E+0	1.543240E+0	1.505280E+0	1.543346E+0	1.547505E+0	1.482253E+0	1.487334E+0	1.465368E+0	1.506526E+0	1.509362E+0	1.592174E+0	1.519421E+0	1.495159E+0	1.462596E+0	1.504840E+0	1.527746E+0	1.553722E+0	1.540115E+0	1.503758E+0	1.427095E+0	1.625242E+0	1.491684E+0	1.509315E+0	1.527627E+0	1.511713E+0	1.530589E+0	1.528094E+0	1.455777E+0	1.543335E+0	1.625748E+0	1.519153E+0	1.522788E+0	1.562061E+0	1.618536E+0	1.487950E+0	1.557225E+0	1.525287E+0	1.493583E+0	1.541480E+0	1.475086E+0	1.551105E+0	1.575957E+0
5.392190E+2	1.491336E+0	1.439500E+0	1.528190E+0	1.433280E+0	1.543179E+0	1.491462E+0	1.437674E+0	1.387501E+0	1.495355E+0	1.539547E+0	1.444425E+0	1.502658E+0	1.458026E+0	1.472381E+0	1.485600E+0	1.460235E+0	1.506955E+0	1.505878E+0	1.478245E+0	1.494827E+0	1.454932E+0	1.499311E+0	1.477357E+0	1.441511E+0	1.492821E+0	1.473868E+0	1.473886E+0	1.438662E+0	1.511294E+0	1.405595E+0	1.469912E+0	1.449624E+0	1.401032E+0	1.553929E+0	1.507152E+0	1.458923E+0	1.453843E+0	1.452491E+0	1.496685E+0	1.474742E+0	1.472863E+0	1.440461E+0	1.447455E+0	1.383377E+0	1.482676E+0	1.474487E+0	1.400612E+0	1.434318E+0	1.406187E+0	1.485882E+0	1.515135E+0	1.462672E+0	1.466027E+0	1.511887E+0	1.423001E+0	1.454980E+0	1.443641E+0	1.454075E+0	1.486881E+0	1.426934E+0	1.500268E+0	1.498927E+0	1.429566E+0	1.461824E+0	1.429150E+0	1.539128E+0	1.443906E+0	1.458045E+0	1.524803E+0	1.441222E+0	1.405849E+0	1.458399E+0	1.544875E+0	1.391741E+0	1.439878E+0	1.396982E+0	1.499610E+0	1.478966E+0	1.495528E+0	1.461665E+0	1.465192E+0	1.482277E+0	1.409521E+0	1.512301E+0	1.431235E+0	1.524669E+0	1.376965E+0	1.402644E+0	1.441372E+0	1.490021E+0	1.477872E+0	1.440984E+0	1.518768E+0	1.442004E+0	1.434490E+0	1.438998E+0	1.469457E+0	1.408016E+0	1.394245E+0	1.394780E+0	1.422107E+0	1.434691E+0	1.383682E+0	1.472153E+0	1.425944E+0	1.478556E+0	1.372250E+0	1.480355E+0	1.464581E+0	1.434835E+0	1.463529E+0	1.412887E+0	1.403344E+0	1.444306E+0	1.500313E+0	1.481054E+0	1.483913E+0	1.418265E+0	1.439513E+0	1.523936E+0	1.484650E+0	1.457236E+0	1.473924E+0	1.440522E+0	1.508808E+0	1.353807E+0	1.433592E+0	1.435723E+0	1.471565E+0	1.448983E+0	1.504755E+0	1.470943E+0	1.491394E+0	1.413058E+0	1.468189E+0	1.428435E+0	1.473981E+0	1.433340E+0	1.499668E+0	1.423899E+0	1.396897E+0	1.410241E+0	1.462039E+0	1.432519E+0	1.408872E+0	1.460191E+0	1.419498E+0	1.435354E+0	1.473127E+0	1.478907E+0	1.407324E+0	1.434160E+0	1.427551E+0	1.414549E+0	1.386008E+0	1.438695E+0	1.402570E+0	1.478448E+0	1.368147E+0	1.479476E+0	1.456520E+0	1.485253E+0	1.421864E+0	1.468995E+0	1.433516E+0	1.443933E+0	1.437387E+0	1.402229E+0	1.409182E+0	1.410064E+0
5.394100E+2	1.259594E+0	1.222262E+0	1.154412E+0	1.229033E+0	1.231352E+0	1.277856E+0	1.255399E+0	1.220491E+0	1.295136E+0	1.238599E+0	1.220782E+0	1.168366E+0	1.201329E+0	1.267791E+0	1.242895E+0	1.237464E+0	1.243195E+0	1.301661E+0	1.243488E+0	1.257961E+0	1.238018E+0	1.225811E+0	1.231605E+0	1.196993E+0	1.245233E+0	1.221371E+0	1.215176E+0	1.180892E+0	1.171022E+0	1.244872E+0	1.242462E+0	1.257585E+0	1.210769E+0	1.254604E+0	1.288400E+0	1.290789E+0	1.270829E+0	1.250718E+0	1.245155E+0	1.270922E+0	1.239777E+0	1.212894E+0	1.128355E+0	1.202005E+0	1.197410E+0	1.228248E+0	1.256326E+0	1.250724E+0	1.216103E+0	1.205739E+0	1.244563E+0	1.232894E+0	1.202815E+0	1.231729E+0	1.142109E+0	1.226660E+0	1.245608E+0	1.176891E+0	1.187191E+0	1.178449E+0	1.231356E+0	1.248491E+0	1.255201E+0	1.233101E+0	1.184828E+0	1.258554E+0	1.188389E+0	1.204058E+0	1.214628E+0	1.223425E+0	1.200440E+0	1.232969E+0	1.309658E+0	1.176914E+0	1.262231E+0	1.188911E+0	1.224519E+0	1.194227E+0	1.266539E+0	1.213276E+0	1.234435E+0	1.236391E+0	1.227634E+0	1.247474E+0	1.191982E+0	1.215301E+0	1.220475E+0	1.198670E+0	1.190819E+0	1.196038E+0	1.251719E+0	1.170389E+0	1.248428E+0	1.226885E+0	1.225624E+0	1.265985E+0	1.162697E+0	1.237510E+0	1.213712E+0	1.177511E+0	1.271322E+0	1.181243E+0	1.245251E+0	1.186878E+0	1.245092E+0	1.237875E+0	1.202830E+0	1.272577E+0	1.257597E+0	1.194140E+0	1.279247E+0	1.277246E+0	1.242127E+0	1.181437E+0	1.239723E+0	1.250265E+0	1.255312E+0	1.212634E+0	1.275099E+0	1.257772E+0	1.238086E+0	1.209558E+0	1.193296E+0	1.253552E+0	1.275406E+0	1.260816E+0	1.169940E+0	1.207889E+0	1.253349E+0	1.174535E+0	1.203907E+0	1.239128E+0	1.259482E+0	1.288685E+0	1.179931E+0	1.244184E+0	1.187566E+0	1.177698E+0	1.220968E+0	1.189337E+0	1.223840E+0	1.186487E+0	1.188577E+0	1.250346E+0	1.286951E+0	1.174224E+0	1.211080E+0	1.230644E+0	1.236146E+0	1.204608E+0	1.254128E+0	1.245504E+0	1.205343E+0	1.203352E+0	1.175207E+0	1.180866E+0	1.242228E+0	1.241064E+0	1.219022E+0	1.251980E+0	1.284827E+0	1.211597E+0	1.195452E+0	1.339854E+0	1.198581E+0	1.233121E+0	1.264275E+0	1.262406E+0	1.217438E+0	1.151716E+0
5.396110E+2	1.005026E+0	1.089220E+0	1.067338E+0	1.125668E+0	1.054352E+0	1.048643E+0	1.013156E+0	1.028847E+0	1.038881E+0	1.052298E+0	1.043366E+0	1.099661E+0	1.033537E+0	1.100944E+0	1.084030E+0	1.034442E+0	1.082260E+0	1.156956E+0	1.051163E+0	1.081225E+0	1.024405E+0	1.057498E+0	1.067533E+0	1.082013E+0	1.075926E+0	1.027324E+0	1.040713E+0	1.077338E+0	1.088589E+0	1.053730E+0	1.072483E+0	1.005035E+0	1.067201E+0	1.113750E+0	1.073000E+0	1.115128E+0	1.077366E+0	1.049971E+0	1.085825E+0	1.065662E+0	1.143978E+0	1.072710E+0	1.075712E+0	1.057670E+0	1.106459E+0	1.020962E+0	1.030032E+0	1.042154E+0	1.068685E+0	1.082527E+0	1.117914E+0	1.079560E+0	1.117250E+0	1.126422E+0	1.022491E+0	1.074399E+0	1.056380E+0	1.042987E+0	1.016073E+0	1.084785E+0	1.051244E+0	1.090105E+0	1.055923E+0	1.061091E+0	1.015727E+0	1.078708E+0	1.106500E+0	1.046553E+0	1.034073E+0	1.036326E+0	1.052306E+0	1.055946E+0	1.126534E+0	1.048059E+0	1.064098E+0	1.032781E+0	1.114058E+0	1.106041E+0	1.114635E+0	1.043257E+0	1.007564E+0	1.075412E+0	1.118881E+0	1.101324E+0	1.034085E+0	1.070168E+0	1.022762E+0	1.055360E+0	1.067853E+0	1.104717E+0	1.073128E+0	1.035397E+0	1.041339E+0	1.079394E+0	1.067658E+0	1.093098E+0	1.106536E+0	1.065176E+0	1.069503E+0	1.083340E+0	1.058853E+0	1.100849E+0	1.071650E+0	1.042038E+0	1.059809E+0	1.087090E+0	1.027678E+0	1.077866E+0	1.082055E+0	1.088561E+0	1.089576E+0	1.070375E+0	1.042612E+0	1.087279E+0	9.824937E-1	1.061701E+0	1.070780E+0	1.119008E+0	1.084828E+0	1.076929E+0	1.096942E+0	1.037504E+0	1.092301E+0	1.057288E+0	1.078365E+0	1.115400E+0	1.044508E+0	1.068391E+0	1.034943E+0	1.070808E+0	1.074705E+0	1.053972E+0	1.048926E+0	1.061761E+0	1.086005E+0	1.110302E+0	1.028955E+0	1.116301E+0	1.107590E+0	1.041449E+0	1.038409E+0	1.051826E+0	1.057453E+0	1.065562E+0	1.058984E+0	1.082063E+0	1.067565E+0	1.076781E+0	1.108915E+0	1.073061E+0	1.083769E+0	1.028156E+0	1.089388E+0	1.012180E+0	1.100898E+0	1.092879E+0	1.078468E+0	1.093616E+0	1.082053E+0	1.042934E+0	1.122516E+0	1.096892E+0	1.068129E+0	1.065642E+0	1.047280E+0	1.053291E+0	1.085493E+0	1.050647E+0	1.031219E+0	1.039634E+0
5.398180E+2	8.237246E-1	9.346943E-1	9.291770E-1	1.009455E+0	8.482103E-1	8.464351E-1	9.592245E-1	8.656389E-1	9.313303E-1	9.523995E-1	9.047804E-1	9.144871E-1	9.205304E-1	9.208138E-1	8.790114E-1	8.856137E-1	9.006493E-1	8.798907E-1	8.632185E-1	9.465746E-1	8.522238E-1	9.314018E-1	9.298195E-1	9.492811E-1	9.519839E-1	8.958385E-1	8.553572E-1	9.034008E-1	8.620297E-1	8.718420E-1	9.308707E-1	8.800240E-1	8.751573E-1	9.444565E-1	8.600832E-1	9.461741E-1	8.828512E-1	8.546423E-1	9.062211E-1	8.961813E-1	9.029716E-1	8.871972E-1	8.706007E-1	9.010104E-1	9.069135E-1	9.031899E-1	9.237940E-1	9.055840E-1	8.976607E-1	9.273374E-1	9.051736E-1	8.217317E-1	8.517529E-1	9.211266E-1	8.815459E-1	8.775007E-1	8.788726E-1	8.917237E-1	8.818575E-1	8.598340E-1	9.010006E-1	8.778628E-1	9.266610E-1	8.963908E-1	9.119100E-1	9.346121E-1	9.136610E-1	8.971045E-1	8.964974E-1	9.274605E-1	8.779109E-1	8.645420E-1	9.115081E-1	8.885311E-1	8.740619E-1	8.427969E-1	9.608874E-1	9.349253E-1	9.187645E-1	8.718445E-1	8.891316E-1	9.119152E-1	9.129976E-1	9.155132E-1	8.824241E-1	8.782674E-1	8.277519E-1	9.014695E-1	8.698652E-1	9.036131E-1	9.116277E-1	9.035957E-1	8.646154E-1	9.438912E-1	8.991290E-1	8.566309E-1	8.454782E-1	9.023385E-1	9.293696E-1	9.099646E-1	8.941828E-1	8.454160E-1	8.896291E-1	9.021575E-1	8.870507E-1	9.233010E-1	8.926609E-1	8.966923E-1	9.098447E-1	9.389602E-1	8.977633E-1	9.188933E-1	8.453236E-1	8.821343E-1	8.963752E-1	8.995905E-1	9.040009E-1	9.189699E-1	8.632445E-1	9.367894E-1	9.207657E-1	8.761729E-1	8.732866E-1	8.866837E-1	9.285734E-1	8.876123E-1	8.891352E-1	9.054866E-1	9.079823E-1	8.848645E-1	8.985338E-1	9.493741E-1	9.079469E-1	8.564588E-1	8.847593E-1	9.078929E-1	9.154140E-1	8.870978E-1	9.259477E-1	8.933090E-1	8.891876E-1	8.769468E-1	8.946941E-1	8.576660E-1	8.392597E-1	8.568906E-1	9.560557E-1	8.681175E-1	9.056705E-1	9.304535E-1	8.686498E-1	8.595819E-1	8.910840E-1	8.732033E-1	9.369321E-1	8.836719E-1	8.748778E-1	9.448737E-1	9.083887E-1	9.322266E-1	8.926999E-1	9.016472E-1	9.103646E-1	9.348290E-1	8.843866E-1	8.964185E-1	9.380902E-1	9.034858E-1	9.271690E-1	8.893093E-1
5.400300E+2	8.499137E-1	7.851012E-1	8.266332E-1	8.106711E-1	8.189770E-1	7.931080E-1	8.456668E-1	8.358317E-1	8.556068E-1	8.311701E-1	7.896445E-1	8.044303E-1	8.118499E-1	8.434565E-1	7.357123E-1	7.849499E-1	7.964473E-1	8.407737E-1	7.946077E-1	8.095633E-1	8.198509E-1	8.361841E-1	8.254136E-1	7.923819E-1	8.208830E-1	8.147077E-1	7.846894E-1	8.350385E-1	7.863465E-1	8.444787E-1	8.058383E-1	8.054570E-1	8.096474E-1	8.785574E-1	8.449675E-1	7.845476E-1	8.277135E-1	8.136498E-1	8.226087E-1	8.107875E-1	7.983382E-1	8.352553E-1	7.851232E-1	7.928722E-1	7.918280E-1	8.325859E-1	8.034765E-1	8.294557E-1	7.939543E-1	8.200796E-1	8.098566E-1	8.206489E-1	8.152440E-1	8.110893E-1	8.068874E-1	8.472696E-1	8.117283E-1	8.380684E-1	8.141415E-1	7.947451E-1	8.358916E-1	8.407210E-1	8.317498E-1	8.349148E-1	8.148691E-1	7.839089E-1	8.617703E-1	8.081791E-1	8.751079E-1	8.011016E-1	7.537419E-1	7.925361E-1	8.414410E-1	8.286643E-1	8.056840E-1	8.154097E-1	8.357950E-1	7.839760E-1	8.143776E-1	8.041679E-1	7.980882E-1	7.731407E-1	8.901986E-1	8.606718E-1	8.301223E-1	8.528906E-1	8.391339E-1	7.932134E-1	7.829453E-1	8.239317E-1	8.098994E-1	8.080324E-1	8.529061E-1	8.318135E-1	8.094573E-1	8.648742E-1	7.626869E-1	8.236377E-1	8.363161E-1	8.435760E-1	8.197769E-1	7.959082E-1	8.200591E-1	7.970722E-1	8.146832E-1	8.586591E-1	8.194242E-1	8.087460E-1	8.072493E-1	8.159105E-1	7.983921E-1	8.034038E-1	8.112173E-1	8.248148E-1	8.415551E-1	8.114048E-1	8.133498E-1	8.351562E-1	8.006497E-1	8.138615E-1	8.713672E-1	8.282013E-1	7.558711E-1	8.145281E-1	8.555288E-1	8.264369E-1	7.898609E-1	7.749896E-1	8.487082E-1	8.578963E-1	8.439644E-1	8.419159E-1	8.041258E-1	8.163517E-1	8.292978E-1	8.387416E-1	7.818492E-1	7.870603E-1	7.809826E-1	7.850089E-1	8.383473E-1	8.027981E-1	7.764602E-1	8.009525E-1	8.222953E-1	8.217986E-1	8.271751E-1	7.889791E-1	8.409916E-1	8.279509E-1	7.999124E-1	7.828633E-1	8.558844E-1	8.398216E-1	7.891198E-1	7.608625E-1	7.875259E-1	8.430940E-1	8.102300E-1	8.348584E-1	7.897187E-1	8.500434E-1	7.729763E-1	8.181835E-1	8.288207E-1	8.345789E-1	7.947045E-1	7.696157E-1	8.143151E-1	7.379103E-1
5.402050E+2	6.788243E-1	6.599630E-1	6.587209E-1	6.317568E-1	6.810327E-1	6.829743E-1	6.675145E-1	6.614002E-1	6.391364E-1	7.191582E-1	6.305812E-1	6.305797E-1	6.923052E-1	6.719159E-1	7.230703E-1	6.908346E-1	6.109588E-1	6.534054E-1	7.216403E-1	6.776253E-1	6.779453E-1	6.571854E-1	6.809250E-1	6.757299E-1	6.666770E-1	7.185274E-1	6.138218E-1	6.582834E-1	6.601255E-1	6.498736E-1	6.546063E-1	6.878705E-1	6.564351E-1	6.965145E-1	7.167274E-1	6.933498E-1	6.688070E-1	6.646188E-1	6.959926E-1	7.064471E-1	7.099324E-1	6.395557E-1	6.704831E-1	6.494604E-1	6.552129E-1	6.496061E-1	6.890677E-1	6.761000E-1	6.619722E-1	6.873277E-1	6.160634E-1	6.562942E-1	6.813102E-1	6.756056E-1	6.421277E-1	6.449613E-1	6.468740E-1	6.621658E-1	6.716972E-1	6.556792E-1	6.508343E-1	6.862601E-1	6.829532E-1	6.530882E-1	6.737975E-1	7.086492E-1	6.839360E-1	7.068534E-1	6.987891E-1	6.160862E-1	6.358513E-1	6.538001E-1	7.146670E-1	6.485169E-1	6.879554E-1	6.251231E-1	6.621092E-1	6.677376E-1	6.749766E-1	6.343160E-1	6.371262E-1	6.991348E-1	6.674792E-1	6.786009E-1	6.611745E-1	6.873866E-1	6.511794E-1	6.909424E-1	6.622928E-1	6.833812E-1	6.668640E-1	6.954212E-1	6.426748E-1	6.601263E-1	6.623487E-1	6.866911E-1	6.565761E-1	6.892603E-1	6.764207E-1	6.360372E-1	6.752211E-1	6.922475E-1	7.082229E-1	7.035366E-1	6.813017E-1	7.208470E-1	6.723662E-1	6.603283E-1	6.615843E-1	6.928786E-1	6.636694E-1	6.538921E-1	6.589359E-1	7.040136E-1	6.826139E-1	6.377663E-1	6.633568E-1	6.634827E-1	6.679652E-1	6.336973E-1	7.069979E-1	6.957767E-1	6.738510E-1	6.915572E-1	6.775474E-1	6.842010E-1	6.944127E-1	6.470856E-1	6.784248E-1	6.962243E-1	6.637462E-1	6.757973E-1	6.527208E-1	6.527273E-1	6.887401E-1	6.843170E-1	6.937395E-1	6.770875E-1	6.777189E-1	7.221928E-1	6.632301E-1	6.728582E-1	6.810904E-1	6.898634E-1	6.514640E-1	6.429798E-1	6.647019E-1	6.671482E-1	7.064238E-1	6.888705E-1	6.649997E-1	6.735096E-1	6.549356E-1	6.796691E-1	6.567374E-1	6.680503E-1	6.595079E-1	6.912461E-1	6.957634E-1	7.271214E-1	6.826096E-1	6.927998E-1	6.175121E-1	6.615875E-1	6.486788E-1	6.673265E-1	6.308782E-1	6.852568E-1	6.912204E-1	6.082326E-1
5.404070E+2	5.667179E-1	5.942652E-1	5.532665E-1	5.401664E-1	6.100602E-1	5.730355E-1	5.470659E-1	5.659276E-1	5.884851E-1	5.752374E-1	5.395794E-1	5.824251E-1	5.516338E-1	5.711563E-1	5.539182E-1	5.890292E-1	5.794927E-1	5.673253E-1	5.943395E-1	5.816987E-1	6.087871E-1	5.592598E-1	5.697255E-1	6.075127E-1	5.914854E-1	6.057908E-1	5.683418E-1	5.591478E-1	5.643358E-1	5.618327E-1	5.811217E-1	4.903881E-1	5.965605E-1	6.003070E-1	5.807179E-1	5.707531E-1	5.770710E-1	5.858052E-1	6.001083E-1	6.056322E-1	5.828139E-1	5.611367E-1	5.763359E-1	5.543633E-1	5.793936E-1	5.754151E-1	5.600861E-1	5.903553E-1	5.516071E-1	5.522909E-1	5.683947E-1	5.478391E-1	5.875533E-1	6.073074E-1	5.525343E-1	5.502987E-1	5.658585E-1	6.121196E-1	5.751440E-1	5.792209E-1	6.028054E-1	5.608917E-1	6.000859E-1	6.095861E-1	6.049732E-1	5.927337E-1	6.469500E-1	5.318537E-1	6.210440E-1	6.089956E-1	5.709429E-1	5.422049E-1	5.835927E-1	5.654915E-1	6.088025E-1	5.332057E-1	6.372980E-1	5.637326E-1	5.625198E-1	5.722901E-1	5.782396E-1	5.754635E-1	5.819687E-1	6.620386E-1	6.017717E-1	5.792248E-1	5.594408E-1	5.602660E-1	6.235393E-1	5.987706E-1	5.885189E-1	5.430884E-1	5.612923E-1	5.633741E-1	6.138191E-1	5.658190E-1	6.348457E-1	6.017363E-1	5.478430E-1	5.829474E-1	6.038443E-1	5.990884E-1	5.923620E-1	5.938545E-1	5.390131E-1	5.647250E-1	5.253644E-1	5.834207E-1	5.391210E-1	5.982085E-1	6.166454E-1	6.040296E-1	6.189814E-1	6.430758E-1	5.863449E-1	6.075945E-1	5.714624E-1	5.598257E-1	5.850057E-1	5.650852E-1	6.066518E-1	6.181346E-1	5.302054E-1	5.837965E-1	5.765042E-1	5.980214E-1	5.627933E-1	5.740524E-1	5.748677E-1	6.234490E-1	5.853285E-1	5.766730E-1	5.868575E-1	5.586236E-1	5.540975E-1	6.003294E-1	6.045055E-1	5.614370E-1	5.559928E-1	5.801494E-1	5.568539E-1	5.968185E-1	5.803036E-1	5.630922E-1	6.119581E-1	5.712592E-1	6.016986E-1	5.621779E-1	5.981536E-1	5.983939E-1	5.833718E-1	6.156967E-1	5.564752E-1	6.156257E-1	5.364120E-1	5.728939E-1	5.921369E-1	6.060544E-1	6.058101E-1	5.791351E-1	5.741663E-1	6.091429E-1	5.696893E-1	5.738718E-1	6.048026E-1	6.285745E-1	5.785456E-1	6.036725E-1	5.902441E-1	5.151377E-1
5.406030E+2	4.573280E-1	4.945056E-1	4.706874E-1	4.616082E-1	4.430865E-1	4.537791E-1	4.495298E-1	5.068891E-1	4.752605E-1	4.501281E-1	4.762715E-1	4.545673E-1	4.430952E-1	4.663052E-1	4.886188E-1	4.523233E-1	4.259383E-1	4.696847E-1	4.791214E-1	4.907829E-1	4.306673E-1	4.745579E-1	4.684585E-1	4.706362E-1	5.019429E-1	4.779215E-1	4.519160E-1	4.299126E-1	5.153152E-1	4.620786E-1	4.819159E-1	4.626745E-1	4.720363E-1	5.002424E-1	4.905524E-1	4.713890E-1	5.054577E-1	4.489809E-1	4.521020E-1	4.965107E-1	4.528744E-1	4.672263E-1	4.543696E-1	4.596614E-1	4.845188E-1	4.756810E-1	4.346164E-1	4.640639E-1	4.352447E-1	4.299656E-1	4.468474E-1	4.659598E-1	4.516601E-1	4.396720E-1	4.490840E-1	4.512191E-1	4.817821E-1	5.133089E-1	4.636100E-1	4.600362E-1	4.815874E-1	4.334116E-1	4.617892E-1	4.733458E-1	4.736084E-1	5.041975E-1	4.922957E-1	4.257049E-1	4.500950E-1	4.629778E-1	4.932334E-1	4.938336E-1	4.765609E-1	4.738236E-1	5.081228E-1	4.582346E-1	4.973372E-1	4.313896E-1	5.002078E-1	4.558952E-1	4.118963E-1	5.038524E-1	5.057650E-1	4.594573E-1	4.701069E-1	4.548593E-1	4.686740E-1	5.048174E-1	4.472772E-1	4.661610E-1	4.929071E-1	4.798732E-1	4.597832E-1	4.796527E-1	4.185218E-1	4.480381E-1	4.934288E-1	4.768119E-1	4.848864E-1	4.640497E-1	4.818740E-1	4.430278E-1	4.681843E-1	4.271596E-1	4.411674E-1	4.812072E-1	4.465089E-1	4.369687E-1	4.733333E-1	4.557854E-1	4.586011E-1	5.167001E-1	4.865540E-1	4.758967E-1	4.639779E-1	4.915024E-1	4.632994E-1	4.695044E-1	4.607014E-1	4.564329E-1	4.703317E-1	4.839931E-1	4.868921E-1	4.455636E-1	4.755799E-1	4.810588E-1	4.607009E-1	4.431742E-1	4.748815E-1	4.555297E-1	4.912636E-1	4.648126E-1	4.457626E-1	4.604778E-1	4.701934E-1	4.884945E-1	4.974537E-1	4.525973E-1	4.654908E-1	4.820860E-1	4.178807E-1	4.702994E-1	4.808782E-1	4.482611E-1	4.451644E-1	4.957290E-1	5.270146E-1	4.901028E-1	4.681448E-1	5.097061E-1	5.203965E-1	4.399970E-1	4.310979E-1	4.851605E-1	4.332963E-1	4.271018E-1	4.561357E-1	4.415423E-1	4.956120E-1	4.943255E-1	4.717524E-1	4.802975E-1	4.545600E-1	4.758155E-1	4.511837E-1	4.485574E-1	4.405256E-1	4.890772E-1	4.281017E-1	4.942366E-1
5.408060E+2	4.374335E-1	4.497472E-1	4.416415E-1	5.142415E-1	4.222506E-1	4.591385E-1	4.387155E-1	4.264640E-1	4.631345E-1	4.238801E-1	4.620559E-1	4.791060E-1	4.578883E-1	4.741157E-1	4.814578E-1	4.448625E-1	4.660934E-1	4.625031E-1	4.695367E-1	4.733272E-1	4.651697E-1	4.812843E-1	4.599965E-1	4.725331E-1	4.641057E-1	4.651553E-1	4.432316E-1	4.596651E-1	4.746675E-1	4.742576E-1	4.435045E-1	4.969690E-1	4.345503E-1	4.795174E-1	5.024011E-1	4.229568E-1	4.850436E-1	4.468569E-1	4.680730E-1	4.762885E-1	4.720326E-1	4.319745E-1	4.185968E-1	4.818709E-1	4.677741E-1	4.270259E-1	4.818611E-1	4.616151E-1	4.614433E-1	4.148610E-1	4.504513E-1	4.897738E-1	4.557989E-1	4.849215E-1	4.786351E-1	4.473536E-1	4.515490E-1	4.278123E-1	4.571063E-1	4.705979E-1	4.505205E-1	4.441269E-1	4.917757E-1	4.469256E-1	4.715796E-1	4.589779E-1	4.534679E-1	4.669021E-1	4.904962E-1	4.362750E-1	4.292641E-1	4.291973E-1	4.555200E-1	4.661333E-1	4.492859E-1	4.327084E-1	4.864197E-1	4.449314E-1	4.812376E-1	4.446660E-1	4.615653E-1	4.418850E-1	4.965072E-1	4.583305E-1	4.459376E-1	4.846586E-1	4.577513E-1	4.591478E-1	4.782645E-1	4.508468E-1	4.680658E-1	4.453648E-1	4.714913E-1	4.288041E-1	4.694981E-1	4.450978E-1	4.513735E-1	4.600439E-1	4.590620E-1	4.889128E-1	4.908891E-1	4.475159E-1	4.559502E-1	4.700081E-1	4.460442E-1	4.865031E-1	4.405202E-1	4.651000E-1	4.529682E-1	5.033908E-1	4.691809E-1	4.613062E-1	4.919252E-1	4.394978E-1	5.006566E-1	4.522568E-1	4.739940E-1	4.651981E-1	4.911113E-1	5.071049E-1	4.587303E-1	4.756563E-1	4.490572E-1	4.753275E-1	4.797113E-1	4.815379E-1	4.540728E-1	4.538261E-1	4.944787E-1	4.787954E-1	4.706610E-1	5.020607E-1	4.497939E-1	4.639580E-1	4.545551E-1	4.735169E-1	4.878748E-1	4.811914E-1	4.789494E-1	4.770994E-1	4.590653E-1	4.684017E-1	4.908850E-1	4.451799E-1	4.611544E-1	4.822664E-1	4.999139E-1	4.320670E-1	4.603585E-1	4.497070E-1	4.652426E-1	4.656063E-1	4.562785E-1	4.751963E-1	4.535504E-1	4.626875E-1	4.678961E-1	4.760753E-1	5.030425E-1	4.737757E-1	4.520782E-1	4.498225E-1	4.753448E-1	4.813314E-1	5.044381E-1	5.029427E-1	4.985323E-1	5.256809E-1	5.071297E-1	4.715870E-1
5.410190E+2	3.952357E-1	3.221334E-1	3.946570E-1	3.705055E-1	3.744874E-1	4.099461E-1	3.990469E-1	3.906994E-1	4.014111E-1	3.972864E-1	3.624168E-1	4.212437E-1	4.225260E-1	3.771236E-1	4.261227E-1	3.971362E-1	4.041761E-1	4.201758E-1	4.354362E-1	4.029299E-1	4.034830E-1	3.830790E-1	3.870270E-1	3.728724E-1	3.883836E-1	4.373512E-1	3.797298E-1	4.017902E-1	4.223073E-1	3.892248E-1	4.156676E-1	4.142339E-1	4.179579E-1	3.782894E-1	4.230936E-1	3.858506E-1	3.927422E-1	4.247051E-1	4.170972E-1	4.233894E-1	4.469554E-1	3.869598E-1	3.637679E-1	4.098018E-1	3.942874E-1	3.870765E-1	3.942286E-1	4.132105E-1	3.814658E-1	4.423137E-1	4.219050E-1	3.981391E-1	4.090930E-1	4.431718E-1	3.798828E-1	4.153633E-1	3.885310E-1	3.722274E-1	3.786009E-1	3.901118E-1	4.165510E-1	4.023436E-1	3.960297E-1	3.768524E-1	3.926354E-1	4.026458E-1	3.961653E-1	4.474347E-1	3.926254E-1	4.106080E-1	4.520627E-1	3.752245E-1	3.934506E-1	4.091522E-1	4.123694E-1	3.960960E-1	3.884836E-1	3.883771E-1	3.822849E-1	3.875141E-1	3.866053E-1	4.029429E-1	4.196505E-1	3.871304E-1	3.822138E-1	3.758239E-1	4.137337E-1	3.744735E-1	3.700605E-1	4.132973E-1	3.811441E-1	3.949961E-1	4.007467E-1	3.709573E-1	4.195090E-1	4.100220E-1	3.852463E-1	3.998692E-1	4.039387E-1	3.850112E-1	3.703361E-1	4.107879E-1	3.698254E-1	3.911983E-1	4.364230E-1	3.929988E-1	4.123141E-1	3.842479E-1	3.771069E-1	3.841464E-1	4.060401E-1	4.235412E-1	3.782835E-1	3.566727E-1	4.190308E-1	4.099466E-1	4.145089E-1	4.045439E-1	4.104638E-1	4.009065E-1	4.288967E-1	3.677455E-1	3.864291E-1	4.278333E-1	4.118496E-1	4.086625E-1	4.456092E-1	3.792539E-1	4.001553E-1	4.192086E-1	4.325754E-1	4.056183E-1	4.080867E-1	3.734349E-1	3.968361E-1	3.715789E-1	4.198939E-1	3.786129E-1	3.954111E-1	4.246761E-1	4.141538E-1	4.480525E-1	4.346658E-1	3.959668E-1	4.107038E-1	4.060514E-1	4.214390E-1	3.968925E-1	4.035260E-1	4.117472E-1	3.882450E-1	4.089257E-1	4.411424E-1	4.120620E-1	4.103223E-1	3.911187E-1	3.927727E-1	4.321324E-1	4.122745E-1	4.263089E-1	4.155593E-1	4.077964E-1	4.196558E-1	4.144353E-1	4.191108E-1	4.079776E-1	3.953546E-1	4.763939E-1	3.882503E-1	4.801021E-1
5.415140E+2	4.181944E-1	4.350757E-1	4.261989E-1	4.496879E-1	4.925856E-1	4.564851E-1	4.469866E-1	4.286538E-1	4.761415E-1	4.957687E-1	4.185227E-1	5.074516E-1	4.516785E-1	4.519450E-1	4.973365E-1	4.437277E-1	4.721784E-1	4.749246E-1	4.983524E-1	5.097540E-1	4.857545E-1	5.000459E-1	4.499021E-1	4.877691E-1	4.682694E-1	4.649689E-1	4.387716E-1	4.796545E-1	4.701223E-1	4.384937E-1	4.697184E-1	4.543125E-1	4.544513E-1	4.797648E-1	4.849120E-1	4.493715E-1	4.959278E-1	4.368417E-1	4.786116E-1	4.720273E-1	5.155579E-1	4.406970E-1	4.796210E-1	4.278511E-1	4.439365E-1	5.000342E-1	4.682512E-1	4.819758E-1	4.540542E-1	4.798645E-1	4.837126E-1	4.770800E-1	4.236712E-1	4.970726E-1	4.419343E-1	4.466029E-1	5.188745E-1	4.527687E-1	4.592182E-1	4.484431E-1	4.403686E-1	4.709083E-1	4.749849E-1	4.856072E-1	4.273154E-1	4.771224E-1	4.612197E-1	4.618900E-1	4.787304E-1	4.601991E-1	4.369744E-1	4.830266E-1	4.901480E-1	5.092599E-1	4.905426E-1	4.397644E-1	4.820491E-1	4.685567E-1	4.867319E-1	4.822254E-1	4.605646E-1	4.630514E-1	4.907703E-1	4.714763E-1	4.855221E-1	4.189801E-1	4.359285E-1	4.555044E-1	4.861967E-1	4.757206E-1	5.050034E-1	4.779326E-1	4.780478E-1	4.686192E-1	5.049978E-1	5.115982E-1	4.838546E-1	4.447408E-1	5.033882E-1	4.793913E-1	4.677027E-1	4.801812E-1	4.749564E-1	4.861469E-1	4.890173E-1	4.415174E-1	4.559142E-1	4.833656E-1	4.453703E-1	4.472553E-1	4.814066E-1	4.749116E-1	4.877313E-1	4.558604E-1	5.101752E-1	4.618737E-1	4.609659E-1	4.865853E-1	4.923937E-1	4.861152E-1	4.792114E-1	4.836001E-1	4.744503E-1	4.604338E-1	5.016684E-1	4.559138E-1	4.837521E-1	4.473885E-1	4.533963E-1	4.883030E-1	4.525796E-1	4.656444E-1	4.697779E-1	4.864861E-1	4.764648E-1	4.993475E-1	4.648347E-1	4.768390E-1	4.492981E-1	4.806711E-1	4.672527E-1	4.719093E-1	4.873489E-1	4.916179E-1	4.894858E-1	4.569378E-1	4.592447E-1	4.590331E-1	4.703048E-1	4.674384E-1	4.695332E-1	4.841700E-1	4.760881E-1	4.812940E-1	4.552373E-1	4.917760E-1	4.856949E-1	4.951524E-1	5.029578E-1	4.792077E-1	4.804480E-1	4.834104E-1	4.741713E-1	5.159143E-1	4.837087E-1	4.458742E-1	5.031333E-1	4.958817E-1	5.317485E-1	5.030715E-1
5.420160E+2	5.779954E-1	5.654456E-1	5.812791E-1	6.274403E-1	6.234857E-1	5.580501E-1	5.672273E-1	5.898990E-1	5.501667E-1	5.401224E-1	5.972537E-1	5.746896E-1	5.771096E-1	5.729864E-1	6.030312E-1	5.864217E-1	5.657860E-1	5.744844E-1	6.000209E-1	5.782030E-1	5.831249E-1	5.812209E-1	5.898470E-1	5.999081E-1	6.375859E-1	5.822990E-1	5.817476E-1	6.212244E-1	5.542955E-1	6.235363E-1	6.436979E-1	6.246174E-1	5.976129E-1	5.856064E-1	6.176555E-1	6.101526E-1	5.975539E-1	6.167816E-1	6.210953E-1	6.404538E-1	6.318640E-1	5.581117E-1	5.761584E-1	5.813785E-1	5.699782E-1	5.996869E-1	5.945662E-1	5.657085E-1	6.033528E-1	5.958386E-1	5.949366E-1	5.924066E-1	5.639127E-1	6.136903E-1	5.629341E-1	5.725151E-1	5.770085E-1	5.884541E-1	5.866002E-1	5.575053E-1	5.784696E-1	6.083336E-1	5.907313E-1	6.220168E-1	5.735599E-1	6.109526E-1	6.151871E-1	6.009139E-1	5.974017E-1	6.253378E-1	5.456607E-1	5.886959E-1	6.076635E-1	5.818218E-1	5.966741E-1	5.783767E-1	6.366004E-1	5.424336E-1	6.017646E-1	6.064972E-1	6.034536E-1	6.023359E-1	6.201040E-1	6.218463E-1	5.827334E-1	5.775688E-1	5.682980E-1	5.562780E-1	6.546992E-1	5.973987E-1	6.216881E-1	6.023707E-1	5.942949E-1	5.703297E-1	5.392090E-1	6.085730E-1	5.694533E-1	6.433936E-1	6.469797E-1	6.144689E-1	6.347641E-1	5.695109E-1	6.049827E-1	5.889230E-1	5.969982E-1	6.082730E-1	5.792064E-1	5.834876E-1	5.906590E-1	5.475636E-1	6.064758E-1	6.755832E-1	5.984313E-1	5.502441E-1	6.523915E-1	5.978118E-1	6.147373E-1	5.767923E-1	5.805274E-1	5.562783E-1	5.920886E-1	5.969460E-1	6.221870E-1	6.117494E-1	6.326314E-1	6.113213E-1	6.311074E-1	5.996989E-1	6.012204E-1	5.691248E-1	5.912394E-1	5.817625E-1	5.833737E-1	5.948212E-1	5.854818E-1	6.097670E-1	5.969984E-1	5.818966E-1	6.189095E-1	5.968683E-1	5.849779E-1	5.964487E-1	6.504587E-1	5.921035E-1	6.007573E-1	5.903426E-1	6.045540E-1	6.354384E-1	5.949018E-1	5.650133E-1	5.958662E-1	6.164722E-1	6.182868E-1	6.172939E-1	6.117600E-1	5.941208E-1	6.360551E-1	6.639471E-1	6.215413E-1	5.841622E-1	5.812058E-1	5.837878E-1	5.980352E-1	6.329379E-1	5.845976E-1	5.760137E-1	6.120197E-1	5.962592E-1	5.920425E-1	6.430360E-1
5.424810E+2	6.682547E-1	6.892995E-1	6.865137E-1	7.851892E-1	7.085126E-1	7.543568E-1	7.240070E-1	7.305336E-1	7.077430E-1	7.463104E-1	7.432342E-1	7.346322E-1	7.041814E-1	7.391330E-1	7.646752E-1	7.471006E-1	7.205580E-1	7.131760E-1	7.471600E-1	7.361635E-1	7.376054E-1	7.295139E-1	7.332765E-1	7.189853E-1	7.446957E-1	7.309556E-1	7.519648E-1	7.389567E-1	7.389866E-1	7.085492E-1	7.577549E-1	7.237560E-1	7.627693E-1	7.865750E-1	6.995620E-1	7.481710E-1	7.793862E-1	7.309622E-1	7.363034E-1	7.227119E-1	7.822050E-1	7.189262E-1	7.340545E-1	7.469952E-1	7.152895E-1	7.184674E-1	6.649491E-1	7.687942E-1	7.587362E-1	7.426675E-1	7.776847E-1	7.395656E-1	7.066552E-1	7.303015E-1	7.472967E-1	7.469734E-1	7.260753E-1	7.578779E-1	7.516639E-1	7.222510E-1	7.535549E-1	7.220254E-1	7.876911E-1	7.577991E-1	7.011728E-1	7.441755E-1	8.312991E-1	7.429333E-1	8.092491E-1	7.294861E-1	7.419293E-1	7.574023E-1	7.925043E-1	7.746599E-1	7.801786E-1	7.174672E-1	7.952606E-1	7.364061E-1	7.586679E-1	6.932589E-1	7.277148E-1	7.104991E-1	7.246631E-1	7.482777E-1	7.508887E-1	7.336204E-1	7.643774E-1	7.694986E-1	7.689234E-1	7.300956E-1	7.215283E-1	7.199126E-1	7.448680E-1	7.172569E-1	7.725771E-1	7.123756E-1	7.576170E-1	7.261115E-1	7.326901E-1	7.385450E-1	7.456808E-1	7.383123E-1	7.432774E-1	8.000700E-1	7.679660E-1	7.306971E-1	7.041618E-1	7.665850E-1	7.750859E-1	7.513570E-1	7.179241E-1	7.280976E-1	6.928346E-1	7.603252E-1	7.250241E-1	7.580447E-1	7.508996E-1	7.478061E-1	7.117945E-1	7.213634E-1	7.474667E-1	7.405551E-1	7.184937E-1	7.276733E-1	7.194841E-1	7.545924E-1	8.218355E-1	7.711941E-1	7.842056E-1	7.222525E-1	7.497549E-1	7.531046E-1	7.267619E-1	7.317842E-1	6.996212E-1	7.695306E-1	7.429342E-1	6.996141E-1	7.947534E-1	7.819768E-1	7.260903E-1	7.546292E-1	7.125295E-1	7.980802E-1	7.189321E-1	7.164292E-1	7.904099E-1	7.398335E-1	6.875992E-1	7.626501E-1	7.490965E-1	7.932673E-1	7.425996E-1	7.413603E-1	7.443905E-1	7.310612E-1	7.419244E-1	7.617543E-1	7.420411E-1	7.507708E-1	7.577357E-1	7.601201E-1	7.841816E-1	7.960792E-1	7.447040E-1	7.623731E-1	7.690740E-1	7.238902E-1	8.076590E-1	7.563873E-1
5.430120E+2	9.992255E-1	1.027491E+0	9.876430E-1	1.054093E+0	1.013041E+0	9.583426E-1	9.579374E-1	9.341643E-1	9.613912E-1	1.017331E+0	9.855057E-1	9.953794E-1	9.752570E-1	9.957374E-1	1.029069E+0	1.012346E+0	9.969399E-1	1.014020E+0	1.038258E+0	9.622996E-1	9.600050E-1	9.567164E-1	1.039611E+0	9.930596E-1	1.016281E+0	1.012754E+0	9.911425E-1	9.500618E-1	9.835439E-1	9.604161E-1	9.893685E-1	9.523066E-1	1.018722E+0	1.025263E+0	9.861847E-1	1.023612E+0	1.000724E+0	9.495164E-1	9.948257E-1	1.020481E+0	1.021547E+0	9.620439E-1	9.763654E-1	9.772649E-1	9.732299E-1	9.794155E-1	9.580977E-1	1.001161E+0	9.894377E-1	1.016939E+0	1.020382E+0	9.288534E-1	9.665620E-1	9.797928E-1	9.542054E-1	9.366701E-1	1.003078E+0	1.033388E+0	9.939223E-1	9.595092E-1	9.981238E-1	1.005262E+0	1.019075E+0	9.820709E-1	1.002855E+0	1.035790E+0	1.029694E+0	9.259646E-1	1.054148E+0	9.638200E-1	9.840966E-1	9.653497E-1	1.002492E+0	9.880094E-1	9.901650E-1	9.777042E-1	1.006356E+0	9.459614E-1	9.551427E-1	9.638002E-1	9.550553E-1	9.856604E-1	1.012542E+0	1.034787E+0	9.988969E-1	9.887826E-1	9.510384E-1	9.837804E-1	9.827987E-1	9.367973E-1	1.010745E+0	1.040470E+0	9.421556E-1	9.595936E-1	9.936732E-1	9.776474E-1	9.697416E-1	9.907552E-1	9.618041E-1	9.559741E-1	1.006587E+0	9.383314E-1	9.975769E-1	1.036169E+0	1.011227E+0	9.767113E-1	9.621404E-1	9.153151E-1	1.001419E+0	1.053508E+0	1.004648E+0	9.743353E-1	9.748980E-1	9.852089E-1	9.997356E-1	1.021542E+0	9.553746E-1	9.825692E-1	9.732498E-1	9.967049E-1	9.961178E-1	9.808816E-1	9.904990E-1	9.593215E-1	1.003614E+0	9.590142E-1	9.645089E-1	1.059392E+0	1.009860E+0	9.487543E-1	1.025171E+0	1.064040E+0	9.934161E-1	9.826961E-1	9.711192E-1	1.034450E+0	1.005220E+0	9.815134E-1	1.007532E+0	1.029796E+0	1.021440E+0	9.923222E-1	1.001619E+0	9.932502E-1	9.867310E-1	9.707031E-1	9.866613E-1	1.013176E+0	9.705479E-1	9.717580E-1	9.878656E-1	9.942673E-1	1.013381E+0	9.745560E-1	9.835242E-1	9.246292E-1	9.688250E-1	9.933882E-1	1.005101E+0	9.951846E-1	9.775621E-1	9.638211E-1	1.005877E+0	9.864181E-1	9.818134E-1	9.511538E-1	9.507356E-1	9.549843E-1	1.081819E+0	9.671170E-1
5.435010E+2	1.060030E+0	9.975939E-1	9.782837E-1	1.027815E+0	1.026101E+0	1.067793E+0	9.930146E-1	9.529032E-1	1.053129E+0	1.054253E+0	9.978099E-1	9.895420E-1	9.914002E-1	9.935385E-1	1.035751E+0	9.921589E-1	1.008653E+0	9.530940E-1	9.451797E-1	1.032960E+0	1.004690E+0	1.002174E+0	9.833618E-1	9.922767E-1	1.076578E+0	1.004390E+0	1.036057E+0	9.970912E-1	1.005427E+0	1.039819E+0	1.060147E+0	9.911687E-1	1.004322E+0	9.780463E-1	1.050795E+0	9.962963E-1	1.047657E+0	1.007657E+0	1.017414E+0	1.029505E+0	1.039537E+0	1.034395E+0	1.015782E+0	1.023231E+0	9.634432E-1	9.944846E-1	1.017919E+0	9.786819E-1	1.009196E+0	1.023314E+0	1.083563E+0	1.009787E+0	1.009616E+0	9.914002E-1	9.838785E-1	1.014529E+0	1.019447E+0	9.742168E-1	9.748350E-1	9.869138E-1	9.614447E-1	9.568614E-1	1.059967E+0	1.021511E+0	9.761364E-1	1.040808E+0	1.052597E+0	1.028856E+0	1.033946E+0	9.567866E-1	9.699609E-1	1.005596E+0	1.080319E+0	9.601915E-1	1.048736E+0	9.222355E-1	1.006563E+0	9.344369E-1	1.021115E+0	9.988763E-1	9.439752E-1	9.368500E-1	1.048298E+0	1.027349E+0	1.014678E+0	1.009405E+0	1.015520E+0	1.020468E+0	9.881202E-1	1.001975E+0	9.631524E-1	1.053256E+0	1.028773E+0	1.014483E+0	1.005718E+0	9.939302E-1	1.037320E+0	1.001450E+0	1.042000E+0	1.044106E+0	1.002579E+0	1.005538E+0	1.011970E+0	1.029952E+0	1.012642E+0	1.029164E+0	1.018065E+0	9.995847E-1	1.035122E+0	9.732128E-1	1.030123E+0	1.012329E+0	1.014215E+0	1.038383E+0	1.022161E+0	1.030011E+0	1.003897E+0	1.024889E+0	1.025187E+0	9.964744E-1	1.060669E+0	1.040783E+0	9.886387E-1	1.009030E+0	1.006201E+0	9.645802E-1	1.018261E+0	9.751786E-1	9.328987E-1	1.045915E+0	1.009239E+0	1.003920E+0	1.033039E+0	9.748161E-1	9.992442E-1	1.073839E+0	9.999814E-1	9.510790E-1	1.017791E+0	9.688724E-1	1.008406E+0	1.037796E+0	1.006253E+0	1.002950E+0	9.377901E-1	9.637586E-1	1.017923E+0	1.025682E+0	9.974037E-1	1.008905E+0	1.020566E+0	1.034150E+0	1.034215E+0	9.856013E-1	1.025160E+0	9.583957E-1	1.041474E+0	1.034055E+0	9.680666E-1	9.874670E-1	1.031423E+0	9.726812E-1	9.917848E-1	9.960566E-1	1.039194E+0	1.006770E+0	1.038467E+0	9.645303E-1	9.990195E-1	9.627436E-1
5.440280E+2	1.084100E+0	1.119655E+0	1.084646E+0	1.110665E+0	1.118251E+0	1.146718E+0	1.179361E+0	1.146480E+0	1.133762E+0	1.233106E+0	1.135097E+0	1.144125E+0	1.113501E+0	1.138956E+0	1.166629E+0	1.125540E+0	1.141343E+0	1.140639E+0	1.114264E+0	1.154803E+0	1.129346E+0	1.127329E+0	1.056881E+0	1.227750E+0	1.174752E+0	1.130776E+0	1.119716E+0	1.137475E+0	1.136015E+0	1.127721E+0	1.167642E+0	1.159853E+0	1.143487E+0	1.185371E+0	1.214808E+0	1.201659E+0	1.088521E+0	1.040270E+0	1.154849E+0	1.163544E+0	1.192585E+0	1.112199E+0	1.151939E+0	1.164576E+0	1.188653E+0	1.149326E+0	1.104439E+0	1.154562E+0	1.068783E+0	1.203396E+0	1.205552E+0	1.148715E+0	1.155564E+0	1.142861E+0	1.103050E+0	1.106281E+0	1.117732E+0	1.114250E+0	1.147903E+0	1.093934E+0	1.152177E+0	1.142822E+0	1.200031E+0	1.106439E+0	1.133870E+0	1.179133E+0	1.183281E+0	1.123447E+0	1.128291E+0	1.124786E+0	1.137910E+0	1.104963E+0	1.201488E+0	1.131316E+0	1.192961E+0	1.077936E+0	1.194618E+0	1.141554E+0	1.168905E+0	1.090588E+0	1.159449E+0	1.133942E+0	1.186977E+0	1.220225E+0	1.128378E+0	1.110004E+0	1.094117E+0	1.083744E+0	1.178233E+0	1.179496E+0	1.150701E+0	1.215645E+0	1.142801E+0	1.144707E+0	1.174983E+0	1.204054E+0	1.184177E+0	1.151005E+0	1.145342E+0	1.170076E+0	1.168798E+0	1.129169E+0	1.191122E+0	1.153916E+0	1.137550E+0	1.193381E+0	1.122241E+0	1.083026E+0	1.142301E+0	1.073361E+0	1.137734E+0	1.158844E+0	1.162644E+0	1.153629E+0	1.175181E+0	1.132374E+0	1.141481E+0	1.142792E+0	1.189657E+0	1.151264E+0	1.202268E+0	1.115216E+0	1.129761E+0	1.159544E+0	1.146127E+0	1.129255E+0	1.134074E+0	1.149535E+0	1.169740E+0	1.098781E+0	1.133146E+0	1.203868E+0	1.150549E+0	1.110464E+0	1.114938E+0	1.195379E+0	1.105676E+0	1.108488E+0	1.164640E+0	1.151797E+0	1.141904E+0	1.103513E+0	1.164339E+0	1.139593E+0	1.173303E+0	1.144259E+0	1.122917E+0	1.123928E+0	1.122520E+0	1.139667E+0	1.161429E+0	1.184738E+0	1.150160E+0	1.099245E+0	1.085247E+0	1.182278E+0	1.162092E+0	1.150913E+0	1.162545E+0	1.125054E+0	1.179483E+0	1.139379E+0	1.176952E+0	1.232525E+0	1.165996E+0	1.162375E+0	1.116245E+0	1.160341E+0	1.169896E+0	1.084020E+0
5.445240E+2	1.082135E+0	1.077121E+0	1.168199E+0	1.089622E+0	1.038023E+0	1.027537E+0	1.098132E+0	1.055500E+0	1.079207E+0	1.099665E+0	1.053331E+0	1.066484E+0	1.100101E+0	1.022602E+0	1.030391E+0	1.063553E+0	1.096809E+0	1.096523E+0	1.074335E+0	1.105967E+0	1.045420E+0	1.062247E+0	1.069339E+0	1.078002E+0	1.033689E+0	1.066674E+0	1.044794E+0	1.110815E+0	1.082085E+0	9.943510E-1	1.060702E+0	1.078808E+0	1.091807E+0	1.143158E+0	1.094266E+0	1.135751E+0	1.113242E+0	1.126069E+0	1.068984E+0	1.090790E+0	1.098417E+0	1.050038E+0	1.049052E+0	1.042311E+0	1.119841E+0	1.134090E+0	1.055881E+0	1.068422E+0	1.061207E+0	1.114759E+0	1.067147E+0	1.104953E+0	1.040208E+0	1.107822E+0	1.054285E+0	1.102184E+0	1.091207E+0	1.077780E+0	1.022139E+0	1.132213E+0	1.101509E+0	1.066612E+0	1.090965E+0	1.105229E+0	1.045433E+0	1.102145E+0	1.071434E+0	1.046074E+0	1.127898E+0	1.066989E+0	1.051994E+0	1.061720E+0	1.147624E+0	1.077366E+0	1.107727E+0	1.060765E+0	1.098183E+0	1.083494E+0	1.150896E+0	1.085692E+0	1.024098E+0	1.048209E+0	1.086141E+0	1.113006E+0	1.063630E+0	1.096992E+0	1.062631E+0	1.081146E+0	1.073648E+0	1.048992E+0	1.090477E+0	1.032617E+0	1.104874E+0	1.090118E+0	1.033187E+0	1.046776E+0	1.105242E+0	1.047861E+0	1.100904E+0	1.043767E+0	1.053692E+0	1.041139E+0	1.107736E+0	1.086911E+0	1.093310E+0	1.087316E+0	1.047944E+0	1.067993E+0	1.086595E+0	1.063523E+0	1.015306E+0	1.145747E+0	1.066134E+0	1.066225E+0	1.090611E+0	1.069957E+0	1.131739E+0	1.047919E+0	1.107327E+0	1.053062E+0	1.118502E+0	1.039727E+0	1.099534E+0	1.093414E+0	1.117460E+0	1.063171E+0	1.100724E+0	1.100743E+0	1.090137E+0	1.068792E+0	1.116048E+0	1.120384E+0	1.088558E+0	1.096355E+0	1.068865E+0	1.132092E+0	1.037012E+0	1.053867E+0	1.134046E+0	1.093446E+0	1.084502E+0	1.058386E+0	1.017770E+0	1.110318E+0	1.042438E+0	1.029975E+0	1.104057E+0	1.083712E+0	1.078493E+0	1.049191E+0	1.107071E+0	1.162079E+0	1.030349E+0	1.054352E+0	1.098242E+0	1.009815E+0	1.119914E+0	1.113389E+0	1.115563E+0	1.076268E+0	1.096160E+0	1.075935E+0	1.063659E+0	1.051386E+0	1.056405E+0	1.115313E+0	1.140368E+0	1.123669E+0	1.239255E+0	1.004726E+0
5.450150E+2	1.015525E+0	1.044623E+0	1.036624E+0	1.115025E+0	1.067275E+0	1.057895E+0	1.103376E+0	1.054609E+0	1.093838E+0	1.077671E+0	1.070524E+0	1.062710E+0	1.053644E+0	1.058544E+0	1.082530E+0	1.024476E+0	1.043660E+0	1.068390E+0	1.030667E+0	1.124477E+0	1.105265E+0	1.047359E+0	1.051438E+0	1.031083E+0	1.034328E+0	1.072891E+0	1.071349E+0	1.085614E+0	1.046186E+0	1.018825E+0	9.673225E-1	1.081070E+0	1.056114E+0	1.057437E+0	1.019440E+0	1.039011E+0	1.053950E+0	1.063857E+0	1.095644E+0	1.080162E+0	1.041874E+0	1.083545E+0	9.892264E-1	1.060422E+0	1.046759E+0	1.010437E+0	1.035744E+0	1.102445E+0	1.071963E+0	1.064005E+0	1.047789E+0	1.072343E+0	1.053495E+0	1.063427E+0	1.040194E+0	1.051394E+0	1.047199E+0	1.064770E+0	1.023760E+0	1.145096E+0	1.038591E+0	1.078233E+0	1.083478E+0	1.102441E+0	1.058016E+0	1.034166E+0	1.040866E+0	1.056537E+0	1.073498E+0	1.057927E+0	1.016449E+0	1.024966E+0	1.061679E+0	1.073664E+0	1.032757E+0	1.048202E+0	1.029604E+0	1.035219E+0	1.013552E+0	1.026103E+0	1.050763E+0	9.887415E-1	1.063770E+0	1.083493E+0	1.079913E+0	1.110024E+0	1.027471E+0	1.022415E+0	1.047180E+0	1.050360E+0	1.013913E+0	1.064396E+0	1.037838E+0	1.063681E+0	1.082336E+0	1.075304E+0	1.009482E+0	1.067994E+0	1.081480E+0	1.069317E+0	1.024152E+0	1.017959E+0	1.021925E+0	1.039410E+0	1.007253E+0	1.087965E+0	1.075719E+0	1.055322E+0	1.109721E+0	1.040939E+0	1.042204E+0	1.102246E+0	1.087043E+0	9.850550E-1	1.075728E+0	1.136310E+0	1.093428E+0	1.102823E+0	1.039766E+0	1.102082E+0	1.080229E+0	9.832825E-1	1.000129E+0	9.950819E-1	1.042162E+0	1.033820E+0	1.012257E+0	1.043225E+0	1.015924E+0	1.021341E+0	1.104450E+0	1.082884E+0	1.044697E+0	1.039810E+0	1.059717E+0	1.013195E+0	1.028515E+0	1.001944E+0	1.057906E+0	1.075332E+0	1.057568E+0	1.006550E+0	1.033486E+0	1.064996E+0	1.077787E+0	9.830103E-1	1.097936E+0	1.066973E+0	1.055729E+0	1.023470E+0	1.023699E+0	1.065115E+0	9.977541E-1	1.052440E+0	1.048993E+0	1.055854E+0	1.087559E+0	1.096027E+0	1.096205E+0	1.073131E+0	1.067686E+0	1.020563E+0	1.073759E+0	1.050661E+0	1.041074E+0	1.103541E+0	1.119769E+0	1.054494E+0	1.064297E+0	9.289643E-1
5.455180E+2	9.976184E-1	1.025762E+0	9.737003E-1	1.024140E+0	1.045536E+0	9.818001E-1	1.038892E+0	1.016073E+0	9.999567E-1	9.824386E-1	9.964468E-1	1.029389E+0	1.030721E+0	1.007385E+0	1.049633E+0	1.018606E+0	1.061076E+0	1.075926E+0	9.990212E-1	9.854545E-1	1.053150E+0	1.035455E+0	9.917259E-1	1.014458E+0	1.038883E+0	9.925982E-1	1.023998E+0	9.774753E-1	1.030460E+0	9.857584E-1	9.804487E-1	1.015585E+0	1.015917E+0	1.072757E+0	1.032203E+0	1.041171E+0	1.063791E+0	9.706930E-1	9.844682E-1	1.016755E+0	1.041956E+0	9.958792E-1	9.756505E-1	1.008927E+0	1.060199E+0	1.033323E+0	1.022594E+0	1.055042E+0	1.051537E+0	1.023672E+0	9.821434E-1	1.029261E+0	1.038467E+0	9.928619E-1	9.568562E-1	9.635905E-1	1.034673E+0	1.035936E+0	9.907053E-1	9.658484E-1	1.025537E+0	1.014437E+0	9.974202E-1	1.019498E+0	9.971262E-1	1.029532E+0	9.924155E-1	1.019756E+0	1.041420E+0	9.909546E-1	9.863273E-1	1.018672E+0	1.010305E+0	1.052559E+0	1.050030E+0	9.784890E-1	1.021245E+0	9.645248E-1	9.934016E-1	1.010480E+0	9.963512E-1	9.613907E-1	1.016667E+0	1.013767E+0	1.013294E+0	9.671473E-1	1.007690E+0	9.781026E-1	1.034257E+0	1.012662E+0	1.015272E+0	1.064899E+0	1.019369E+0	1.004083E+0	1.029424E+0	1.056330E+0	1.001196E+0	1.032437E+0	9.958813E-1	1.009657E+0	1.042202E+0	1.003565E+0	1.016573E+0	1.010692E+0	9.824592E-1	9.645702E-1	1.017444E+0	9.986227E-1	9.557221E-1	1.006369E+0	1.004749E+0	1.003929E+0	1.005637E+0	9.633644E-1	1.027499E+0	1.016815E+0	9.944793E-1	1.071478E+0	1.040086E+0	1.047095E+0	1.067419E+0	1.048673E+0	9.332275E-1	1.041014E+0	1.049444E+0	9.936631E-1	1.023287E+0	1.015164E+0	1.068349E+0	1.018150E+0	1.088458E+0	1.026203E+0	1.008013E+0	1.022255E+0	1.011935E+0	1.000881E+0	9.690687E-1	1.037824E+0	1.027608E+0	1.034280E+0	1.001073E+0	1.000536E+0	1.009762E+0	9.971449E-1	9.956616E-1	9.955550E-1	1.012079E+0	1.033392E+0	1.022870E+0	9.760259E-1	9.960162E-1	1.053322E+0	1.014858E+0	8.950698E-1	9.984509E-1	1.005305E+0	1.074214E+0	1.020402E+0	1.059649E+0	1.027701E+0	1.008985E+0	9.985955E-1	1.029381E+0	1.076252E+0	1.015229E+0	9.852592E-1	1.040121E+0	9.577582E-1	1.022187E+0	1.057540E+0
5.460110E+2	8.395371E-1	9.035359E-1	8.500009E-1	8.072206E-1	8.821644E-1	8.656785E-1	9.035074E-1	8.994199E-1	8.848948E-1	9.342872E-1	9.047083E-1	9.574556E-1	8.649748E-1	8.960001E-1	9.030970E-1	8.762336E-1	9.005401E-1	8.828698E-1	9.118143E-1	8.952057E-1	8.793250E-1	9.018061E-1	8.856706E-1	8.715113E-1	8.686452E-1	8.836215E-1	8.592925E-1	8.667700E-1	9.075812E-1	8.591917E-1	9.061574E-1	9.041459E-1	8.692995E-1	9.197205E-1	9.225400E-1	8.919796E-1	8.945910E-1	8.891932E-1	8.827260E-1	9.267200E-1	9.135890E-1	8.760078E-1	8.444634E-1	9.062684E-1	8.815372E-1	9.320478E-1	9.009537E-1	9.430691E-1	8.668427E-1	9.347617E-1	8.371698E-1	9.493343E-1	8.453062E-1	8.899232E-1	8.320003E-1	8.448299E-1	8.580094E-1	8.574379E-1	8.604123E-1	9.404715E-1	9.252101E-1	9.072697E-1	8.470008E-1	8.768345E-1	9.142384E-1	9.049923E-1	9.496976E-1	8.605145E-1	9.206913E-1	9.107052E-1	8.290255E-1	8.695269E-1	9.343213E-1	8.764101E-1	8.459425E-1	8.780871E-1	9.472556E-1	9.065410E-1	8.686382E-1	8.463008E-1	8.698950E-1	8.501456E-1	9.473672E-1	9.103659E-1	9.003742E-1	8.923305E-1	8.783139E-1	8.505959E-1	9.342468E-1	8.522442E-1	8.735767E-1	8.599210E-1	9.155997E-1	8.633172E-1	9.025700E-1	9.188720E-1	8.901430E-1	8.605841E-1	8.741605E-1	8.969391E-1	8.960035E-1	8.670317E-1	8.923249E-1	8.915730E-1	9.521357E-1	8.440794E-1	8.745315E-1	8.686514E-1	9.119908E-1	8.750819E-1	8.657046E-1	8.816305E-1	8.817332E-1	8.793779E-1	8.561209E-1	8.439067E-1	8.828718E-1	9.157987E-1	9.116251E-1	9.481607E-1	9.371509E-1	8.556569E-1	8.221749E-1	9.037314E-1	8.867225E-1	8.610738E-1	8.545549E-1	8.798174E-1	8.683102E-1	9.046327E-1	9.067309E-1	8.977340E-1	8.509153E-1	9.000938E-1	8.804622E-1	9.115237E-1	8.643850E-1	8.669669E-1	8.692092E-1	9.275032E-1	8.998043E-1	8.620860E-1	8.594902E-1	8.867630E-1	8.664464E-1	8.600498E-1	8.820144E-1	8.498953E-1	8.656373E-1	8.793306E-1	8.693439E-1	8.701308E-1	8.613603E-1	8.653664E-1	8.510384E-1	9.213125E-1	8.726846E-1	8.656047E-1	9.266811E-1	8.918920E-1	9.152721E-1	8.813641E-1	9.117418E-1	8.750307E-1	9.151248E-1	9.272426E-1	8.784468E-1	8.502638E-1	7.689015E-1	8.823583E-1
5.465160E+2	9.738778E-1	9.478401E-1	9.434507E-1	9.671693E-1	1.000557E+0	1.003619E+0	9.748812E-1	9.174636E-1	9.450683E-1	9.851532E-1	9.758006E-1	9.354120E-1	1.016214E+0	9.887965E-1	9.640536E-1	1.037887E+0	9.858582E-1	9.738028E-1	9.691719E-1	1.012791E+0	9.645436E-1	9.741808E-1	9.705599E-1	9.761748E-1	1.034377E+0	9.674343E-1	9.575314E-1	8.917507E-1	9.999231E-1	9.757875E-1	9.980592E-1	9.577867E-1	9.901685E-1	1.025110E+0	9.678938E-1	9.809413E-1	1.054659E+0	1.004230E+0	9.804171E-1	1.029712E+0	1.005613E+0	9.839355E-1	9.748991E-1	9.335891E-1	9.530559E-1	9.567980E-1	9.649099E-1	9.606464E-1	1.037725E+0	1.009704E+0	9.860082E-1	9.731478E-1	9.714920E-1	9.821700E-1	9.856143E-1	9.619747E-1	9.395722E-1	1.003486E+0	1.014622E+0	9.794939E-1	1.060281E+0	9.737875E-1	9.940007E-1	9.507302E-1	9.470542E-1	9.919177E-1	9.175296E-1	1.004322E+0	9.625363E-1	9.842427E-1	9.737828E-1	9.784691E-1	1.016451E+0	9.982516E-1	9.211361E-1	9.644756E-1	1.026588E+0	9.777192E-1	1.011458E+0	9.491778E-1	9.899334E-1	9.117527E-1	9.556407E-1	9.552925E-1	9.645285E-1	9.955968E-1	9.163116E-1	9.801507E-1	1.032104E+0	9.406001E-1	9.598876E-1	9.527835E-1	9.775273E-1	9.659054E-1	9.296195E-1	9.967221E-1	9.869146E-1	9.862083E-1	1.017554E+0	9.905102E-1	1.020603E+0	9.452992E-1	9.643302E-1	9.826872E-1	9.315742E-1	9.882529E-1	1.007670E+0	9.384855E-1	1.000804E+0	9.497613E-1	9.221597E-1	1.022586E+0	9.958522E-1	9.846261E-1	9.290384E-1	9.815183E-1	9.913817E-1	9.760155E-1	9.528679E-1	9.824097E-1	1.007416E+0	9.453634E-1	9.894323E-1	9.909462E-1	9.980622E-1	9.772458E-1	9.736541E-1	9.829116E-1	9.967515E-1	9.966786E-1	9.641881E-1	9.694095E-1	9.516253E-1	9.563005E-1	9.364318E-1	9.199460E-1	9.984674E-1	9.426716E-1	1.030936E+0	9.855523E-1	9.036028E-1	9.443762E-1	9.589263E-1	9.697912E-1	9.573114E-1	9.721201E-1	9.909678E-1	9.819711E-1	9.608706E-1	9.297777E-1	9.328608E-1	1.040006E+0	9.904399E-1	9.197065E-1	9.818059E-1	1.022814E+0	9.658245E-1	9.981129E-1	1.026893E+0	9.645233E-1	9.638888E-1	1.009402E+0	9.663653E-1	9.781432E-1	9.505943E-1	9.604613E-1	9.190650E-1	9.524372E-1	9.529605E-1	9.688084E-1
5.470110E+2	9.108538E-1	9.445741E-1	9.641347E-1	9.904749E-1	9.618056E-1	9.581847E-1	9.518144E-1	9.815647E-1	1.042015E+0	9.997823E-1	1.002897E+0	9.863076E-1	9.603160E-1	9.514111E-1	1.013856E+0	9.948011E-1	1.015043E+0	9.652403E-1	9.364251E-1	9.956942E-1	9.973184E-1	1.002256E+0	9.724350E-1	9.604243E-1	1.040021E+0	1.007583E+0	9.470801E-1	9.835237E-1	9.828566E-1	9.346432E-1	9.853883E-1	9.556991E-1	9.531450E-1	9.463686E-1	1.034097E+0	1.022179E+0	1.010686E+0	9.642873E-1	1.008374E+0	9.812901E-1	1.018335E+0	9.941098E-1	9.756628E-1	9.405525E-1	9.649239E-1	9.952325E-1	9.471514E-1	1.042421E+0	9.807477E-1	9.803258E-1	1.009076E+0	9.750749E-1	9.958244E-1	9.940668E-1	9.243720E-1	9.801765E-1	1.009003E+0	9.708971E-1	9.611353E-1	9.927926E-1	9.329008E-1	1.020086E+0	9.530984E-1	9.860449E-1	9.399776E-1	1.003489E+0	9.971527E-1	9.726541E-1	1.057072E+0	9.205187E-1	9.171315E-1	9.469529E-1	9.779610E-1	9.755813E-1	1.027574E+0	9.179718E-1	9.781621E-1	9.422351E-1	1.002032E+0	9.942924E-1	9.665649E-1	1.024849E+0	9.452646E-1	9.859422E-1	1.031409E+0	9.907130E-1	9.452096E-1	9.631777E-1	9.825433E-1	1.029190E+0	9.392843E-1	1.008940E+0	9.625669E-1	9.894516E-1	9.650060E-1	9.580764E-1	1.043833E+0	9.212573E-1	1.004643E+0	9.740701E-1	1.015315E+0	9.607907E-1	9.923652E-1	1.043184E+0	9.342426E-1	9.795523E-1	9.218368E-1	9.481138E-1	9.818452E-1	9.663472E-1	9.628995E-1	9.962738E-1	9.597540E-1	9.972181E-1	9.525878E-1	9.613411E-1	9.549628E-1	9.997420E-1	9.694805E-1	1.022926E+0	1.003621E+0	9.767890E-1	9.542291E-1	1.009801E+0	1.026632E+0	1.002159E+0	9.714449E-1	9.296841E-1	9.594136E-1	9.703766E-1	9.686490E-1	9.929636E-1	9.938529E-1	9.698963E-1	9.669936E-1	9.920726E-1	9.450157E-1	9.997363E-1	9.171764E-1	1.031455E+0	9.673981E-1	9.446674E-1	9.745951E-1	9.872025E-1	9.355396E-1	9.706462E-1	1.001220E+0	9.553040E-1	1.011654E+0	9.824774E-1	9.577500E-1	1.036956E+0	9.790459E-1	9.354083E-1	9.538956E-1	1.004140E+0	9.945043E-1	1.025136E+0	9.475220E-1	1.003183E+0	9.720728E-1	9.744875E-1	9.524032E-1	1.004369E+0	1.006846E+0	1.026046E+0	9.692165E-1	9.514770E-1	9.444121E-1	8.982318E-1
5.475280E+2	1.177362E+0	1.112735E+0	1.094958E+0	1.192516E+0	1.124100E+0	1.170925E+0	1.124018E+0	1.133995E+0	1.131786E+0	1.163219E+0	1.145948E+0	1.153504E+0	1.126821E+0	1.143623E+0	1.077915E+0	1.141165E+0	1.121760E+0	1.215201E+0	1.114205E+0	1.163419E+0	1.123441E+0	1.168837E+0	1.105214E+0	1.171433E+0	1.195328E+0	1.108336E+0	1.145024E+0	1.160134E+0	1.079339E+0	1.147893E+0	1.106185E+0	1.140808E+0	1.115121E+0	1.130072E+0	1.112143E+0	1.205899E+0	1.189613E+0	1.138184E+0	1.097165E+0	1.190183E+0	1.173928E+0	1.096240E+0	1.070042E+0	1.065503E+0	1.098566E+0	1.147737E+0	1.111707E+0	1.155745E+0	1.128593E+0	1.124659E+0	1.112591E+0	1.203391E+0	1.077535E+0	1.188927E+0	1.105757E+0	1.130670E+0	1.206811E+0	1.170058E+0	1.129322E+0	1.100250E+0	1.174782E+0	1.099491E+0	1.123498E+0	1.094164E+0	1.100527E+0	1.170940E+0	1.090749E+0	1.121740E+0	1.185137E+0	1.098127E+0	1.104089E+0	1.116517E+0	1.202654E+0	1.091803E+0	1.134960E+0	1.133011E+0	1.201853E+0	1.093048E+0	1.089094E+0	1.102969E+0	1.079668E+0	1.097094E+0	1.148950E+0	1.131582E+0	1.156531E+0	1.127652E+0	1.090666E+0	1.107284E+0	1.101009E+0	1.123709E+0	1.085293E+0	1.145493E+0	1.134888E+0	1.130179E+0	1.066267E+0	1.158192E+0	1.136824E+0	1.111031E+0	1.101153E+0	1.166524E+0	1.166160E+0	1.112191E+0	1.082466E+0	1.142047E+0	1.066350E+0	1.104089E+0	1.130851E+0	1.140962E+0	1.162080E+0	1.128668E+0	1.078792E+0	1.149780E+0	1.079683E+0	1.050266E+0	1.149971E+0	1.175343E+0	1.140642E+0	1.127393E+0	1.129232E+0	1.173195E+0	1.208224E+0	1.113979E+0	1.128911E+0	1.145218E+0	1.136691E+0	1.128913E+0	1.143675E+0	1.118102E+0	1.171147E+0	1.157180E+0	1.112099E+0	1.160890E+0	1.202395E+0	1.110202E+0	1.151690E+0	1.151857E+0	1.099826E+0	1.076740E+0	1.130386E+0	1.160555E+0	1.109759E+0	1.154408E+0	1.145265E+0	1.151662E+0	1.094240E+0	1.093636E+0	1.136675E+0	1.131632E+0	1.170955E+0	1.091434E+0	1.160024E+0	1.107689E+0	1.096845E+0	1.074385E+0	1.095034E+0	1.156257E+0	1.132004E+0	1.155196E+0	1.162495E+0	1.127619E+0	1.180779E+0	1.144740E+0	1.122027E+0	1.164166E+0	1.136797E+0	1.113778E+0	1.121940E+0	1.177518E+0	1.061484E+0	1.182949E+0
5.480140E+2	1.210923E+0	1.251266E+0	1.218030E+0	1.238181E+0	1.266373E+0	1.275430E+0	1.302658E+0	1.186896E+0	1.255957E+0	1.249374E+0	1.196142E+0	1.219640E+0	1.235337E+0	1.219267E+0	1.251471E+0	1.240249E+0	1.254682E+0	1.244897E+0	1.187386E+0	1.278953E+0	1.247895E+0	1.227344E+0	1.225529E+0	1.227588E+0	1.251215E+0	1.227929E+0	1.190367E+0	1.256738E+0	1.175913E+0	1.212566E+0	1.206114E+0	1.187172E+0	1.230564E+0	1.280148E+0	1.194580E+0	1.265410E+0	1.250685E+0	1.189797E+0	1.199863E+0	1.261843E+0	1.221916E+0	1.238396E+0	1.240729E+0	1.237582E+0	1.212044E+0	1.227995E+0	1.199080E+0	1.234300E+0	1.251946E+0	1.229262E+0	1.184300E+0	1.246958E+0	1.177795E+0	1.182089E+0	1.217253E+0	1.201459E+0	1.232553E+0	1.210345E+0	1.173043E+0	1.239416E+0	1.199857E+0	1.172294E+0	1.234115E+0	1.207932E+0	1.181536E+0	1.242900E+0	1.221336E+0	1.237097E+0	1.255596E+0	1.240385E+0	1.186906E+0	1.227547E+0	1.289245E+0	1.219755E+0	1.317398E+0	1.223179E+0	1.204545E+0	1.198337E+0	1.178205E+0	1.218367E+0	1.161371E+0	1.281149E+0	1.237044E+0	1.279403E+0	1.216338E+0	1.244863E+0	1.180487E+0	1.189491E+0	1.227002E+0	1.247698E+0	1.218289E+0	1.255468E+0	1.192599E+0	1.220322E+0	1.220025E+0	1.250210E+0	1.154432E+0	1.209155E+0	1.228590E+0	1.246372E+0	1.248259E+0	1.218860E+0	1.202190E+0	1.207905E+0	1.241427E+0	1.237968E+0	1.229654E+0	1.244338E+0	1.187897E+0	1.191374E+0	1.204776E+0	1.233899E+0	1.269750E+0	1.170286E+0	1.202359E+0	1.238399E+0	1.206957E+0	1.236876E+0	1.153617E+0	1.252476E+0	1.302337E+0	1.214361E+0	1.229757E+0	1.205057E+0	1.320850E+0	1.180394E+0	1.197045E+0	1.271349E+0	1.188536E+0	1.169681E+0	1.205762E+0	1.185753E+0	1.234853E+0	1.256705E+0	1.188096E+0	1.238029E+0	1.218921E+0	1.203109E+0	1.236274E+0	1.260655E+0	1.196377E+0	1.212177E+0	1.188198E+0	1.250426E+0	1.148683E+0	1.202003E+0	1.219483E+0	1.213644E+0	1.262991E+0	1.197951E+0	1.252899E+0	1.223842E+0	1.166406E+0	1.205125E+0	1.207314E+0	1.248739E+0	1.252571E+0	1.234790E+0	1.248165E+0	1.265706E+0	1.230813E+0	1.197906E+0	1.279467E+0	1.312274E+0	1.218120E+0	1.186930E+0	1.248644E+0	1.177555E+0	1.250762E+0	1.129102E+0
5.485170E+2	1.210797E+0	1.214858E+0	1.196081E+0	1.216906E+0	1.183721E+0	1.152362E+0	1.244811E+0	1.184230E+0	1.238805E+0	1.221636E+0	1.216779E+0	1.211036E+0	1.205077E+0	1.223258E+0	1.276408E+0	1.223301E+0	1.232069E+0	1.198128E+0	1.204193E+0	1.225983E+0	1.241844E+0	1.217994E+0	1.215476E+0	1.215635E+0	1.197329E+0	1.259437E+0	1.231440E+0	1.244883E+0	1.207873E+0	1.215320E+0	1.191344E+0	1.215939E+0	1.192158E+0	1.269259E+0	1.210200E+0	1.220356E+0	1.254173E+0	1.180288E+0	1.229248E+0	1.262586E+0	1.223787E+0	1.166866E+0	1.147470E+0	1.215664E+0	1.268834E+0	1.179621E+0	1.178846E+0	1.203313E+0	1.250957E+0	1.212464E+0	1.227156E+0	1.214525E+0	1.287146E+0	1.206047E+0	1.220309E+0	1.176601E+0	1.281502E+0	1.185939E+0	1.209153E+0	1.187286E+0	1.243741E+0	1.288241E+0	1.206541E+0	1.252153E+0	1.208812E+0	1.256508E+0	1.264079E+0	1.226828E+0	1.236287E+0	1.188183E+0	1.143059E+0	1.178903E+0	1.249850E+0	1.214387E+0	1.205048E+0	1.192488E+0	1.229230E+0	1.208261E+0	1.186024E+0	1.198323E+0	1.198027E+0	1.221103E+0	1.265874E+0	1.230419E+0	1.197341E+0	1.281401E+0	1.157852E+0	1.196484E+0	1.181023E+0	1.231939E+0	1.219257E+0	1.239483E+0	1.196551E+0	1.215383E+0	1.235178E+0	1.221873E+0	1.240777E+0	1.225566E+0	1.199443E+0	1.227895E+0	1.199861E+0	1.225721E+0	1.225626E+0	1.223795E+0	1.219125E+0	1.204924E+0	1.168265E+0	1.156481E+0	1.212515E+0	1.174392E+0	1.208247E+0	1.247745E+0	1.162396E+0	1.261694E+0	1.205735E+0	1.237911E+0	1.218412E+0	1.198772E+0	1.209681E+0	1.250470E+0	1.239745E+0	1.202677E+0	1.173404E+0	1.203543E+0	1.178460E+0	1.162629E+0	1.227608E+0	1.231305E+0	1.221409E+0	1.238286E+0	1.167669E+0	1.234503E+0	1.145458E+0	1.193411E+0	1.180249E+0	1.220321E+0	1.181910E+0	1.267174E+0	1.279411E+0	1.183216E+0	1.187547E+0	1.197606E+0	1.105890E+0	1.251566E+0	1.212190E+0	1.183863E+0	1.226654E+0	1.242507E+0	1.186840E+0	1.168199E+0	1.228501E+0	1.240659E+0	1.210329E+0	1.190924E+0	1.143593E+0	1.203355E+0	1.181170E+0	1.222327E+0	1.199863E+0	1.277129E+0	1.177239E+0	1.195727E+0	1.210450E+0	1.192935E+0	1.205227E+0	1.206837E+0	1.238507E+0	1.191546E+0	1.210976E+0	1.130012E+0
5.490380E+2	1.450762E+0	1.492210E+0	1.404207E+0	1.488628E+0	1.492262E+0	1.462246E+0	1.427347E+0	1.421475E+0	1.492344E+0	1.481166E+0	1.480287E+0	1.497571E+0	1.482548E+0	1.424861E+0	1.541390E+0	1.480160E+0	1.479693E+0	1.477647E+0	1.507305E+0	1.484560E+0	1.487760E+0	1.439394E+0	1.411937E+0	1.480227E+0	1.539060E+0	1.531972E+0	1.439504E+0	1.477986E+0	1.432234E+0	1.424450E+0	1.446602E+0	1.380561E+0	1.490634E+0	1.461680E+0	1.483054E+0	1.483660E+0	1.502946E+0	1.415633E+0	1.437113E+0	1.506013E+0	1.487325E+0	1.526893E+0	1.424179E+0	1.451652E+0	1.465821E+0	1.513171E+0	1.422982E+0	1.473189E+0	1.522275E+0	1.443523E+0	1.497424E+0	1.457330E+0	1.480932E+0	1.511830E+0	1.390563E+0	1.408790E+0	1.517051E+0	1.424059E+0	1.512890E+0	1.546305E+0	1.546664E+0	1.465846E+0	1.367058E+0	1.507088E+0	1.462236E+0	1.462915E+0	1.513976E+0	1.562728E+0	1.448406E+0	1.413052E+0	1.431459E+0	1.500175E+0	1.502822E+0	1.441200E+0	1.462156E+0	1.422163E+0	1.456073E+0	1.453382E+0	1.458046E+0	1.382232E+0	1.440778E+0	1.352523E+0	1.424520E+0	1.522998E+0	1.460520E+0	1.497608E+0	1.389704E+0	1.401132E+0	1.425715E+0	1.435475E+0	1.453177E+0	1.399790E+0	1.451318E+0	1.406385E+0	1.431787E+0	1.485771E+0	1.501371E+0	1.473824E+0	1.474733E+0	1.535525E+0	1.502072E+0	1.433240E+0	1.493823E+0	1.468804E+0	1.518757E+0	1.442530E+0	1.481434E+0	1.454949E+0	1.439586E+0	1.445015E+0	1.412052E+0	1.481485E+0	1.420269E+0	1.420830E+0	1.525693E+0	1.525275E+0	1.466014E+0	1.454208E+0	1.475559E+0	1.484348E+0	1.465894E+0	1.493580E+0	1.447560E+0	1.518568E+0	1.466338E+0	1.410347E+0	1.416518E+0	1.548133E+0	1.458006E+0	1.473647E+0	1.447457E+0	1.530021E+0	1.430841E+0	1.437996E+0	1.436878E+0	1.487412E+0	1.455299E+0	1.473726E+0	1.456144E+0	1.461332E+0	1.447151E+0	1.453471E+0	1.437752E+0	1.509314E+0	1.415044E+0	1.416757E+0	1.450102E+0	1.383572E+0	1.465501E+0	1.432459E+0	1.425730E+0	1.537774E+0	1.412970E+0	1.426605E+0	1.407005E+0	1.447502E+0	1.496578E+0	1.464016E+0	1.448144E+0	1.450110E+0	1.426524E+0	1.453725E+0	1.468085E+0	1.513480E+0	1.478707E+0	1.468160E+0	1.460877E+0	1.451652E+0	1.476407E+0	1.486525E+0
5.495150E+2	1.414225E+0	1.386043E+0	1.409734E+0	1.470958E+0	1.409068E+0	1.420399E+0	1.432568E+0	1.351167E+0	1.397298E+0	1.506150E+0	1.380231E+0	1.427413E+0	1.464949E+0	1.408449E+0	1.512271E+0	1.412255E+0	1.393679E+0	1.380797E+0	1.477071E+0	1.466278E+0	1.398056E+0	1.419175E+0	1.468412E+0	1.462053E+0	1.415737E+0	1.435305E+0	1.410468E+0	1.426364E+0	1.411995E+0	1.333793E+0	1.384414E+0	1.358732E+0	1.388662E+0	1.465621E+0	1.411366E+0	1.435372E+0	1.476188E+0	1.394665E+0	1.417791E+0	1.436947E+0	1.490059E+0	1.393537E+0	1.371326E+0	1.474318E+0	1.430893E+0	1.400189E+0	1.417150E+0	1.396564E+0	1.339136E+0	1.457376E+0	1.491054E+0	1.356127E+0	1.476300E+0	1.445023E+0	1.399665E+0	1.374361E+0	1.438064E+0	1.408082E+0	1.371906E+0	1.440366E+0	1.508303E+0	1.407096E+0	1.439607E+0	1.407630E+0	1.370293E+0	1.397446E+0	1.384052E+0	1.431973E+0	1.452736E+0	1.394486E+0	1.399962E+0	1.384332E+0	1.478305E+0	1.348182E+0	1.399889E+0	1.375852E+0	1.402999E+0	1.397365E+0	1.430038E+0	1.354746E+0	1.435034E+0	1.379428E+0	1.451205E+0	1.399722E+0	1.423834E+0	1.439564E+0	1.341863E+0	1.375279E+0	1.375725E+0	1.456077E+0	1.409444E+0	1.367772E+0	1.446025E+0	1.377599E+0	1.394371E+0	1.429445E+0	1.394560E+0	1.403551E+0	1.449737E+0	1.414381E+0	1.381130E+0	1.426306E+0	1.428214E+0	1.383058E+0	1.452256E+0	1.358691E+0	1.394253E+0	1.423143E+0	1.391275E+0	1.409778E+0	1.413206E+0	1.441872E+0	1.373332E+0	1.394020E+0	1.381108E+0	1.485141E+0	1.439871E+0	1.382895E+0	1.346596E+0	1.469466E+0	1.471874E+0	1.446186E+0	1.429509E+0	1.457890E+0	1.406914E+0	1.450958E+0	1.391020E+0	1.431256E+0	1.420531E+0	1.439469E+0	1.377914E+0	1.411326E+0	1.401366E+0	1.372756E+0	1.385628E+0	1.415136E+0	1.431140E+0	1.335385E+0	1.465790E+0	1.423782E+0	1.378362E+0	1.394709E+0	1.407775E+0	1.411415E+0	1.440336E+0	1.420671E+0	1.385650E+0	1.412504E+0	1.426257E+0	1.404302E+0	1.418423E+0	1.438161E+0	1.367564E+0	1.399901E+0	1.423883E+0	1.355248E+0	1.400110E+0	1.377923E+0	1.447554E+0	1.481406E+0	1.444266E+0	1.423562E+0	1.390366E+0	1.448164E+0	1.448581E+0	1.391962E+0	1.354133E+0	1.398145E+0	1.368909E+0	1.413819E+0
5.499770E+2	1.572079E+0	1.505489E+0	1.530565E+0	1.535263E+0	1.542673E+0	1.590143E+0	1.650230E+0	1.542101E+0	1.562795E+0	1.571282E+0	1.529633E+0	1.527431E+0	1.562163E+0	1.621382E+0	1.614326E+0	1.549707E+0	1.596463E+0	1.595934E+0	1.521864E+0	1.517467E+0	1.517300E+0	1.536421E+0	1.503014E+0	1.515808E+0	1.587109E+0	1.537067E+0	1.583333E+0	1.511558E+0	1.580419E+0	1.546198E+0	1.551229E+0	1.559915E+0	1.563783E+0	1.592686E+0	1.638023E+0	1.556017E+0	1.557703E+0	1.561558E+0	1.532250E+0	1.595193E+0	1.559420E+0	1.617190E+0	1.511616E+0	1.538860E+0	1.537138E+0	1.559897E+0	1.527554E+0	1.529811E+0	1.561761E+0	1.583849E+0	1.503531E+0	1.522599E+0	1.527310E+0	1.602313E+0	1.548836E+0	1.543678E+0	1.510835E+0	1.650453E+0	1.536797E+0	1.542097E+0	1.570578E+0	1.596085E+0	1.545749E+0	1.523208E+0	1.541852E+0	1.583144E+0	1.594062E+0	1.543646E+0	1.583278E+0	1.541883E+0	1.506846E+0	1.566294E+0	1.546388E+0	1.487036E+0	1.575108E+0	1.537075E+0	1.587869E+0	1.486904E+0	1.557290E+0	1.503364E+0	1.551025E+0	1.528702E+0	1.575503E+0	1.534049E+0	1.588107E+0	1.582431E+0	1.496591E+0	1.524670E+0	1.563081E+0	1.553441E+0	1.560229E+0	1.513758E+0	1.536899E+0	1.522295E+0	1.531679E+0	1.545279E+0	1.535090E+0	1.526550E+0	1.576946E+0	1.502896E+0	1.554362E+0	1.518243E+0	1.517497E+0	1.555904E+0	1.556908E+0	1.561206E+0	1.573415E+0	1.532384E+0	1.518813E+0	1.566095E+0	1.502964E+0	1.521621E+0	1.584655E+0	1.538628E+0	1.534377E+0	1.543258E+0	1.529051E+0	1.503605E+0	1.546793E+0	1.595484E+0	1.630832E+0	1.511548E+0	1.533117E+0	1.580681E+0	1.602622E+0	1.596502E+0	1.536596E+0	1.594156E+0	1.525713E+0	1.559402E+0	1.506348E+0	1.557189E+0	1.570853E+0	1.578555E+0	1.565193E+0	1.543631E+0	1.545409E+0	1.587826E+0	1.496785E+0	1.581165E+0	1.548182E+0	1.556933E+0	1.536960E+0	1.501246E+0	1.510488E+0	1.497025E+0	1.557362E+0	1.543174E+0	1.540527E+0	1.517005E+0	1.524059E+0	1.542128E+0	1.538305E+0	1.475461E+0	1.562831E+0	1.540734E+0	1.589588E+0	1.518457E+0	1.578003E+0	1.539829E+0	1.494908E+0	1.591574E+0	1.529528E+0	1.571140E+0	1.556638E+0	1.488513E+0	1.478543E+0	1.569538E+0	1.497084E+0	1.597354E+0
5.505230E+2	1.474725E+0	1.503638E+0	1.556023E+0	1.622887E+0	1.542443E+0	1.556179E+0	1.564975E+0	1.551350E+0	1.576386E+0	1.567412E+0	1.563870E+0	1.589292E+0	1.532973E+0	1.595487E+0	1.601614E+0	1.515893E+0	1.598781E+0	1.559350E+0	1.517863E+0	1.541064E+0	1.527140E+0	1.583822E+0	1.558633E+0	1.533463E+0	1.573525E+0	1.518181E+0	1.499228E+0	1.518812E+0	1.571317E+0	1.455402E+0	1.563332E+0	1.524964E+0	1.520470E+0	1.552738E+0	1.603475E+0	1.577522E+0	1.598870E+0	1.475849E+0	1.557960E+0	1.597653E+0	1.614155E+0	1.563312E+0	1.513226E+0	1.469740E+0	1.606486E+0	1.548413E+0	1.485525E+0	1.525076E+0	1.552685E+0	1.561927E+0	1.485820E+0	1.513305E+0	1.603692E+0	1.584684E+0	1.484610E+0	1.475621E+0	1.537634E+0	1.520913E+0	1.537730E+0	1.554277E+0	1.526276E+0	1.621060E+0	1.563437E+0	1.531219E+0	1.485185E+0	1.587086E+0	1.527846E+0	1.531422E+0	1.570216E+0	1.543703E+0	1.499929E+0	1.523932E+0	1.659979E+0	1.497491E+0	1.548713E+0	1.539146E+0	1.520063E+0	1.516972E+0	1.576181E+0	1.533162E+0	1.544896E+0	1.469874E+0	1.523120E+0	1.557866E+0	1.585388E+0	1.532197E+0	1.489175E+0	1.556078E+0	1.491885E+0	1.575500E+0	1.519257E+0	1.512691E+0	1.525082E+0	1.504551E+0	1.553494E+0	1.539455E+0	1.516045E+0	1.578201E+0	1.584911E+0	1.508210E+0	1.597252E+0	1.495215E+0	1.608298E+0	1.499572E+0	1.551743E+0	1.566833E+0	1.532724E+0	1.544427E+0	1.609552E+0	1.518245E+0	1.470846E+0	1.527281E+0	1.526434E+0	1.508917E+0	1.563705E+0	1.518804E+0	1.589003E+0	1.579062E+0	1.523739E+0	1.594194E+0	1.568230E+0	1.495440E+0	1.479531E+0	1.527819E+0	1.605107E+0	1.506878E+0	1.556231E+0	1.509958E+0	1.581981E+0	1.559973E+0	1.494503E+0	1.543503E+0	1.553721E+0	1.551637E+0	1.532054E+0	1.562826E+0	1.514461E+0	1.538424E+0	1.532659E+0	1.507329E+0	1.518788E+0	1.539704E+0	1.519879E+0	1.538955E+0	1.560782E+0	1.560942E+0	1.497236E+0	1.543435E+0	1.532974E+0	1.553704E+0	1.492229E+0	1.555859E+0	1.500232E+0	1.511376E+0	1.523317E+0	1.482135E+0	1.559737E+0	1.555340E+0	1.497298E+0	1.555706E+0	1.563783E+0	1.478730E+0	1.460351E+0	1.668244E+0	1.506410E+0	1.464454E+0	1.520771E+0	1.516495E+0	1.611325E+0	1.538531E+0
5.510360E+2	1.271074E+0	1.303972E+0	1.297978E+0	1.319753E+0	1.394966E+0	1.386541E+0	1.332129E+0	1.289626E+0	1.368176E+0	1.359977E+0	1.323728E+0	1.336926E+0	1.318734E+0	1.347827E+0	1.357210E+0	1.315926E+0	1.371773E+0	1.347033E+0	1.368277E+0	1.379142E+0	1.317787E+0	1.307997E+0	1.332475E+0	1.326338E+0	1.346407E+0	1.348803E+0	1.342630E+0	1.420042E+0	1.268851E+0	1.317525E+0	1.366068E+0	1.279339E+0	1.357673E+0	1.407303E+0	1.344674E+0	1.388452E+0	1.344426E+0	1.338555E+0	1.278303E+0	1.348975E+0	1.375562E+0	1.310236E+0	1.294735E+0	1.337636E+0	1.341362E+0	1.313263E+0	1.346136E+0	1.302857E+0	1.384575E+0	1.299167E+0	1.366994E+0	1.316391E+0	1.353899E+0	1.367860E+0	1.282181E+0	1.368798E+0	1.361266E+0	1.382921E+0	1.310417E+0	1.307867E+0	1.403165E+0	1.372742E+0	1.305033E+0	1.326269E+0	1.350202E+0	1.357036E+0	1.376393E+0	1.382139E+0	1.373061E+0	1.320144E+0	1.273170E+0	1.332097E+0	1.437509E+0	1.306572E+0	1.324533E+0	1.301094E+0	1.369818E+0	1.372736E+0	1.367310E+0	1.294710E+0	1.381426E+0	1.344031E+0	1.362009E+0	1.293815E+0	1.344831E+0	1.319669E+0	1.312921E+0	1.307694E+0	1.370996E+0	1.339300E+0	1.413609E+0	1.373983E+0	1.316296E+0	1.315427E+0	1.343458E+0	1.361606E+0	1.323821E+0	1.327973E+0	1.385729E+0	1.343474E+0	1.381451E+0	1.320550E+0	1.344945E+0	1.339964E+0	1.359389E+0	1.343623E+0	1.368449E+0	1.309075E+0	1.312536E+0	1.289337E+0	1.354182E+0	1.340844E+0	1.319586E+0	1.321826E+0	1.357580E+0	1.288834E+0	1.322191E+0	1.352532E+0	1.397127E+0	1.340942E+0	1.420750E+0	1.356612E+0	1.345349E+0	1.339694E+0	1.341244E+0	1.336710E+0	1.300123E+0	1.276858E+0	1.296269E+0	1.391749E+0	1.261430E+0	1.361212E+0	1.350430E+0	1.311133E+0	1.286090E+0	1.320581E+0	1.385031E+0	1.313962E+0	1.388413E+0	1.358932E+0	1.328804E+0	1.317449E+0	1.323404E+0	1.249241E+0	1.347361E+0	1.303103E+0	1.340024E+0	1.352928E+0	1.358799E+0	1.266661E+0	1.312743E+0	1.309322E+0	1.332892E+0	1.354163E+0	1.293648E+0	1.270509E+0	1.342004E+0	1.331023E+0	1.298236E+0	1.312914E+0	1.353831E+0	1.302772E+0	1.317657E+0	1.376097E+0	1.395809E+0	1.336826E+0	1.324305E+0	1.301254E+0	1.390496E+0	1.292758E+0
5.515060E+2	1.392708E+0	1.435278E+0	1.347391E+0	1.342380E+0	1.428181E+0	1.350186E+0	1.382813E+0	1.392121E+0	1.384068E+0	1.434393E+0	1.355137E+0	1.427662E+0	1.355079E+0	1.364558E+0	1.369892E+0	1.388040E+0	1.390388E+0	1.390579E+0	1.336788E+0	1.415958E+0	1.382904E+0	1.423150E+0	1.415366E+0	1.379227E+0	1.444002E+0	1.358758E+0	1.380895E+0	1.415075E+0	1.354544E+0	1.316685E+0	1.401047E+0	1.400829E+0	1.376355E+0	1.452554E+0	1.411372E+0	1.371039E+0	1.427062E+0	1.316044E+0	1.396308E+0	1.366121E+0	1.483517E+0	1.320813E+0	1.348425E+0	1.361885E+0	1.382927E+0	1.315103E+0	1.381927E+0	1.405442E+0	1.439796E+0	1.431756E+0	1.347756E+0	1.330720E+0	1.344478E+0	1.387429E+0	1.338244E+0	1.317274E+0	1.395530E+0	1.332997E+0	1.309402E+0	1.368195E+0	1.362404E+0	1.407846E+0	1.370932E+0	1.364614E+0	1.391461E+0	1.428644E+0	1.357416E+0	1.388271E+0	1.506874E+0	1.347772E+0	1.319003E+0	1.316682E+0	1.387610E+0	1.358145E+0	1.406824E+0	1.336008E+0	1.436716E+0	1.379476E+0	1.367679E+0	1.365818E+0	1.280692E+0	1.324802E+0	1.322285E+0	1.353409E+0	1.351326E+0	1.342952E+0	1.282011E+0	1.367066E+0	1.361195E+0	1.320298E+0	1.355143E+0	1.412810E+0	1.343855E+0	1.372118E+0	1.348200E+0	1.396118E+0	1.372347E+0	1.334751E+0	1.365459E+0	1.330419E+0	1.376811E+0	1.357171E+0	1.361163E+0	1.392223E+0	1.419486E+0	1.346882E+0	1.366205E+0	1.376448E+0	1.381740E+0	1.357487E+0	1.373497E+0	1.363923E+0	1.367291E+0	1.319519E+0	1.350439E+0	1.341572E+0	1.358687E+0	1.374434E+0	1.336950E+0	1.353357E+0	1.428092E+0	1.338395E+0	1.352884E+0	1.398363E+0	1.389856E+0	1.360304E+0	1.301203E+0	1.350010E+0	1.427623E+0	1.405747E+0	1.304001E+0	1.347767E+0	1.348792E+0	1.312276E+0	1.380894E+0	1.391453E+0	1.353528E+0	1.445712E+0	1.376725E+0	1.390295E+0	1.305637E+0	1.366652E+0	1.304356E+0	1.365120E+0	1.334503E+0	1.334678E+0	1.368479E+0	1.342859E+0	1.351722E+0	1.370039E+0	1.313149E+0	1.431522E+0	1.355250E+0	1.309143E+0	1.384874E+0	1.297839E+0	1.376850E+0	1.368389E+0	1.363401E+0	1.415811E+0	1.335627E+0	1.376254E+0	1.361143E+0	1.312057E+0	1.378093E+0	1.324254E+0	1.413939E+0	1.338515E+0	1.283223E+0	1.367016E+0
5.520150E+2	1.212787E+0	1.103351E+0	1.098515E+0	1.113527E+0	1.129066E+0	1.164405E+0	1.145480E+0	1.105596E+0	1.175838E+0	1.151095E+0	1.128055E+0	1.242311E+0	1.235603E+0	1.160480E+0	1.149816E+0	1.172082E+0	1.182806E+0	1.145882E+0	1.123156E+0	1.150622E+0	1.165272E+0	1.151536E+0	1.127382E+0	1.087644E+0	1.189388E+0	1.098294E+0	1.164579E+0	1.143382E+0	1.117631E+0	1.124775E+0	1.144768E+0	1.119908E+0	1.125765E+0	1.193896E+0	1.198235E+0	1.167651E+0	1.154260E+0	1.176774E+0	1.156425E+0	1.163920E+0	1.263574E+0	1.150964E+0	1.128331E+0	1.138544E+0	1.098363E+0	1.176709E+0	1.137657E+0	1.162623E+0	1.155200E+0	1.134451E+0	1.170738E+0	1.162299E+0	1.152809E+0	1.180928E+0	1.150669E+0	1.144874E+0	1.123424E+0	1.109151E+0	1.174468E+0	1.151323E+0	1.136488E+0	1.135570E+0	1.137158E+0	1.073161E+0	1.159660E+0	1.195044E+0	1.149460E+0	1.116635E+0	1.176241E+0	1.140749E+0	1.082964E+0	1.158516E+0	1.199900E+0	1.161695E+0	1.191772E+0	1.120673E+0	1.155904E+0	1.166535E+0	1.188337E+0	1.118917E+0	1.160317E+0	1.106701E+0	1.135162E+0	1.161915E+0	1.163518E+0	1.148275E+0	1.103127E+0	1.160280E+0	1.203543E+0	1.144986E+0	1.145372E+0	1.155593E+0	1.129489E+0	1.125664E+0	1.159012E+0	1.161841E+0	1.160275E+0	1.156125E+0	1.117869E+0	1.128103E+0	1.156843E+0	1.135752E+0	1.135750E+0	1.133487E+0	1.152656E+0	1.169295E+0	1.107295E+0	1.129716E+0	1.122192E+0	1.141860E+0	1.116600E+0	1.113003E+0	1.154097E+0	1.135884E+0	1.129452E+0	1.155694E+0	1.154595E+0	1.090226E+0	1.155169E+0	1.144440E+0	1.141030E+0	1.157358E+0	1.142785E+0	1.170912E+0	1.181573E+0	1.148381E+0	1.141192E+0	1.143331E+0	1.164109E+0	1.129940E+0	1.126636E+0	1.154475E+0	1.151667E+0	1.104249E+0	1.152015E+0	1.154957E+0	1.115658E+0	1.144007E+0	1.186872E+0	1.098093E+0	1.143008E+0	1.162776E+0	1.171120E+0	1.173012E+0	1.196039E+0	1.119868E+0	1.144238E+0	1.127365E+0	1.150389E+0	1.174676E+0	1.156771E+0	1.147619E+0	1.087991E+0	1.130070E+0	1.130307E+0	1.101385E+0	1.165165E+0	1.151436E+0	1.133880E+0	1.186480E+0	1.169141E+0	1.125832E+0	1.161539E+0	1.163558E+0	1.161314E+0	1.183211E+0	1.169475E+0	1.094209E+0	1.183937E+0	1.271601E+0
5.525040E+2	1.104269E+0	1.169075E+0	1.163443E+0	1.169243E+0	1.146884E+0	1.155130E+0	1.130633E+0	1.131911E+0	1.178695E+0	1.155981E+0	1.077168E+0	1.173758E+0	1.143777E+0	1.164044E+0	1.120364E+0	1.144469E+0	1.162793E+0	1.157690E+0	1.115545E+0	1.139519E+0	1.156576E+0	1.142630E+0	1.102557E+0	1.166362E+0	1.158639E+0	1.140115E+0	1.138556E+0	1.175772E+0	1.188282E+0	1.136053E+0	1.148864E+0	1.154959E+0	1.072832E+0	1.216268E+0	1.194705E+0	1.179087E+0	1.194320E+0	1.139858E+0	1.104399E+0	1.236218E+0	1.190542E+0	1.200739E+0	1.169914E+0	1.122670E+0	1.122216E+0	1.131235E+0	1.172541E+0	1.120437E+0	1.179667E+0	1.172908E+0	1.173241E+0	1.109965E+0	1.153940E+0	1.120369E+0	1.146593E+0	1.092779E+0	1.168603E+0	1.144144E+0	1.134724E+0	1.168414E+0	1.169113E+0	1.186800E+0	1.072060E+0	1.134166E+0	1.177932E+0	1.184219E+0	1.209797E+0	1.119393E+0	1.201924E+0	1.135494E+0	1.129347E+0	1.135334E+0	1.246874E+0	1.140353E+0	1.148075E+0	1.157860E+0	1.183068E+0	1.177394E+0	1.115784E+0	1.125049E+0	1.180115E+0	1.173300E+0	1.127418E+0	1.131987E+0	1.184968E+0	1.211151E+0	1.138773E+0	1.157071E+0	1.140336E+0	1.151207E+0	1.176413E+0	1.170170E+0	1.147013E+0	1.144738E+0	1.190497E+0	1.149433E+0	1.171316E+0	1.145118E+0	1.082441E+0	1.158265E+0	1.177371E+0	1.188718E+0	1.162631E+0	1.142838E+0	1.202629E+0	1.147031E+0	1.136795E+0	1.169021E+0	1.156914E+0	1.180002E+0	1.160693E+0	1.156150E+0	1.146155E+0	1.173109E+0	1.186889E+0	1.111625E+0	1.140718E+0	1.118329E+0	1.103478E+0	1.132646E+0	1.240403E+0	1.131811E+0	1.112001E+0	1.172291E+0	1.207236E+0	1.166066E+0	1.112930E+0	1.151656E+0	1.159805E+0	1.146497E+0	1.149158E+0	1.106678E+0	1.091412E+0	1.134505E+0	1.140033E+0	1.153471E+0	1.120646E+0	1.083060E+0	1.162983E+0	1.203835E+0	1.208371E+0	1.106448E+0	1.137485E+0	1.155413E+0	1.103971E+0	1.144265E+0	1.194737E+0	1.153069E+0	1.138372E+0	1.119120E+0	1.135610E+0	1.123179E+0	1.111222E+0	1.136664E+0	1.158601E+0	1.178488E+0	1.164528E+0	1.125756E+0	1.196419E+0	1.153238E+0	1.164191E+0	1.145872E+0	1.149183E+0	1.140251E+0	1.159707E+0	1.170396E+0	1.167558E+0	1.184122E+0	1.230970E+0	1.174062E+0
5.530200E+2	1.051836E+0	9.703547E-1	1.066813E+0	1.059456E+0	1.047778E+0	1.020559E+0	1.017644E+0	1.066143E+0	1.038440E+0	1.105872E+0	1.061175E+0	1.047307E+0	1.110449E+0	1.061213E+0	1.055176E+0	1.034957E+0	1.053546E+0	1.048169E+0	1.055517E+0	1.008153E+0	1.092853E+0	1.106668E+0	1.002628E+0	1.043567E+0	1.114142E+0	1.055448E+0	9.773378E-1	1.004496E+0	1.042925E+0	1.044696E+0	1.026061E+0	1.063705E+0	1.047226E+0	1.093986E+0	1.084938E+0	1.066998E+0	1.082129E+0	1.008619E+0	1.055303E+0	1.058213E+0	1.091163E+0	1.058915E+0	1.062171E+0	1.038570E+0	1.041606E+0	1.053194E+0	1.055600E+0	1.031140E+0	1.030449E+0	1.074477E+0	1.063902E+0	1.027254E+0	1.045947E+0	1.058808E+0	9.921011E-1	1.008400E+0	1.058304E+0	1.044597E+0	1.019176E+0	9.997868E-1	1.053898E+0	1.039267E+0	1.058683E+0	1.045130E+0	1.042922E+0	1.083759E+0	1.027401E+0	1.061479E+0	1.047427E+0	1.039985E+0	1.017097E+0	1.091494E+0	1.130884E+0	1.056723E+0	1.047603E+0	1.076803E+0	1.028092E+0	9.978529E-1	1.059770E+0	9.686097E-1	1.066291E+0	9.957495E-1	1.057294E+0	1.026426E+0	1.039980E+0	1.076168E+0	1.000977E+0	1.031605E+0	9.904527E-1	1.055953E+0	1.037828E+0	1.037403E+0	1.107240E+0	9.970490E-1	1.073810E+0	1.094583E+0	1.027440E+0	1.010889E+0	1.043557E+0	1.026955E+0	1.110595E+0	1.049562E+0	1.053991E+0	1.009683E+0	1.063434E+0	1.022681E+0	1.068984E+0	1.053268E+0	1.045243E+0	1.028455E+0	1.010100E+0	1.073768E+0	1.028284E+0	1.052016E+0	9.891778E-1	1.067054E+0	1.025882E+0	1.089875E+0	1.037066E+0	1.045042E+0	1.084306E+0	1.047724E+0	1.075801E+0	1.043702E+0	1.024860E+0	1.033212E+0	1.018264E+0	1.039060E+0	1.085880E+0	1.086486E+0	1.019977E+0	1.055941E+0	1.049567E+0	1.033162E+0	1.033083E+0	1.070983E+0	1.036022E+0	9.903025E-1	1.052519E+0	1.015860E+0	1.018420E+0	1.041162E+0	1.003525E+0	1.049506E+0	1.015572E+0	1.011792E+0	1.012625E+0	1.057316E+0	1.084105E+0	1.054419E+0	1.069055E+0	1.037821E+0	1.079475E+0	1.096675E+0	9.902516E-1	9.982126E-1	1.062858E+0	1.037266E+0	1.037094E+0	1.064375E+0	1.095686E+0	1.039843E+0	1.002685E+0	1.012711E+0	1.037893E+0	9.885328E-1	1.029256E+0	1.003166E+0	1.088621E+0	9.976897E-1
5.535050E+2	9.543299E-1	9.076629E-1	9.253123E-1	9.521127E-1	9.582376E-1	9.930793E-1	9.440127E-1	8.877503E-1	9.523992E-1	9.398548E-1	9.278141E-1	9.758516E-1	9.806870E-1	9.370661E-1	9.537900E-1	9.991116E-1	9.527598E-1	9.934336E-1	9.186057E-1	9.492603E-1	9.518293E-1	9.000485E-1	9.291693E-1	1.000134E+0	9.301776E-1	9.968769E-1	9.248152E-1	9.738025E-1	8.671498E-1	9.612662E-1	9.592509E-1	9.332632E-1	9.802988E-1	9.918584E-1	9.965643E-1	8.729412E-1	9.621760E-1	9.279094E-1	9.494895E-1	9.912744E-1	9.409831E-1	9.075221E-1	9.435732E-1	9.622875E-1	9.386757E-1	9.767742E-1	9.598510E-1	9.442747E-1	9.756863E-1	9.683993E-1	9.664900E-1	9.583589E-1	9.690801E-1	9.053612E-1	9.555653E-1	9.284163E-1	9.369665E-1	9.853778E-1	9.522097E-1	9.493473E-1	9.693064E-1	9.370006E-1	9.330089E-1	9.635174E-1	9.644889E-1	9.303555E-1	9.808151E-1	9.245470E-1	1.026675E+0	8.550840E-1	9.592729E-1	9.759432E-1	1.007463E+0	9.085452E-1	9.474376E-1	9.464872E-1	9.921046E-1	9.584201E-1	9.754448E-1	9.197046E-1	9.305853E-1	9.624534E-1	9.986425E-1	9.899208E-1	9.618759E-1	1.002664E+0	9.177020E-1	9.357077E-1	1.014975E+0	9.330992E-1	9.660232E-1	1.004929E+0	9.781437E-1	9.187954E-1	9.213637E-1	9.856192E-1	9.390830E-1	9.875618E-1	9.484131E-1	9.064075E-1	9.993426E-1	9.401901E-1	9.465566E-1	9.403896E-1	1.004713E+0	9.522918E-1	9.612706E-1	9.565134E-1	9.540778E-1	9.238447E-1	9.460235E-1	9.742069E-1	9.575704E-1	9.376457E-1	9.501146E-1	9.551109E-1	1.011002E+0	9.782738E-1	9.345552E-1	9.646231E-1	1.016743E+0	9.746626E-1	8.886477E-1	9.415432E-1	1.028010E+0	9.581594E-1	9.394831E-1	9.592198E-1	9.317218E-1	9.551173E-1	9.373071E-1	9.822546E-1	9.578317E-1	9.390237E-1	9.500777E-1	9.054055E-1	9.406589E-1	9.677069E-1	9.425061E-1	9.742146E-1	9.689183E-1	9.495926E-1	9.803469E-1	9.494062E-1	9.195317E-1	9.680351E-1	9.408638E-1	9.386172E-1	9.697466E-1	9.052692E-1	9.690721E-1	9.662106E-1	9.989286E-1	9.844705E-1	9.838869E-1	9.683927E-1	9.050195E-1	9.373766E-1	9.292279E-1	9.853980E-1	9.977418E-1	9.895971E-1	9.400816E-1	9.057539E-1	9.554724E-1	9.058285E-1	9.192960E-1	9.777525E-1	9.856255E-1	9.556341E-1
5.540070E+2	9.608937E-1	9.058213E-1	9.846245E-1	9.732061E-1	8.953062E-1	1.010430E+0	9.001325E-1	9.268405E-1	9.108317E-1	9.030972E-1	9.119151E-1	8.963843E-1	9.514879E-1	9.454839E-1	9.037275E-1	9.372170E-1	9.473845E-1	9.587440E-1	9.019674E-1	9.566782E-1	9.184428E-1	9.227732E-1	8.970165E-1	8.845165E-1	8.843923E-1	9.597488E-1	9.260200E-1	9.466789E-1	9.087080E-1	9.444849E-1	8.906054E-1	9.547901E-1	9.749625E-1	9.595027E-1	1.030453E+0	9.807256E-1	9.325993E-1	9.161375E-1	9.646387E-1	9.496905E-1	9.349086E-1	9.634482E-1	9.243356E-1	9.107497E-1	9.106302E-1	9.284240E-1	9.163040E-1	9.795241E-1	9.407101E-1	8.720310E-1	9.643099E-1	9.669261E-1	9.300473E-1	9.535292E-1	9.026847E-1	9.214665E-1	8.837351E-1	9.455062E-1	8.913776E-1	9.497988E-1	9.744480E-1	9.806702E-1	9.352177E-1	8.979576E-1	9.351780E-1	9.299668E-1	9.306433E-1	9.327546E-1	9.643771E-1	9.318026E-1	8.971286E-1	9.289391E-1	9.964471E-1	9.219188E-1	9.407640E-1	9.406667E-1	9.704447E-1	9.428232E-1	9.373757E-1	8.997428E-1	8.811405E-1	9.566165E-1	9.538124E-1	9.533396E-1	9.577293E-1	9.673132E-1	9.198984E-1	9.376991E-1	9.399637E-1	9.186513E-1	9.528470E-1	9.921013E-1	9.427399E-1	9.443930E-1	9.252255E-1	9.569650E-1	9.684692E-1	8.919935E-1	9.518585E-1	9.297748E-1	9.172209E-1	9.469735E-1	8.970521E-1	9.309657E-1	9.008625E-1	9.787424E-1	9.683661E-1	9.408616E-1	9.251455E-1	9.293312E-1	9.175972E-1	9.338461E-1	8.961698E-1	8.922626E-1	9.745055E-1	9.389357E-1	9.764298E-1	9.270044E-1	9.917737E-1	9.615088E-1	9.964139E-1	9.898446E-1	9.209293E-1	8.993705E-1	9.480426E-1	9.309698E-1	9.324360E-1	9.525436E-1	9.516917E-1	9.418503E-1	9.641004E-1	9.330636E-1	9.562221E-1	9.156380E-1	9.050354E-1	9.219881E-1	9.417651E-1	9.534073E-1	9.822011E-1	9.480335E-1	9.632029E-1	9.375594E-1	9.317508E-1	9.229069E-1	9.091026E-1	9.513864E-1	9.789236E-1	8.668382E-1	1.019561E+0	9.195378E-1	9.365186E-1	9.628247E-1	9.248305E-1	9.497407E-1	9.399425E-1	9.147881E-1	9.923388E-1	9.199594E-1	8.796785E-1	9.489635E-1	9.276455E-1	9.423875E-1	9.139564E-1	9.573500E-1	9.382381E-1	9.338806E-1	8.629538E-1	9.179897E-1	9.778744E-1	9.276790E-1
5.550310E+2	9.068377E-1	9.203932E-1	8.937701E-1	8.853888E-1	9.037067E-1	9.762249E-1	9.030885E-1	8.785102E-1	9.535494E-1	9.132923E-1	9.037548E-1	8.971652E-1	9.135703E-1	9.107865E-1	9.362678E-1	8.751573E-1	9.372666E-1	9.083985E-1	9.110337E-1	9.343428E-1	9.282339E-1	9.189218E-1	9.072984E-1	9.540993E-1	9.152024E-1	9.518620E-1	9.073701E-1	8.604317E-1	9.396357E-1	9.298976E-1	9.304647E-1	9.214303E-1	8.694879E-1	9.379424E-1	9.256074E-1	9.468736E-1	8.878804E-1	8.945435E-1	9.192313E-1	9.495187E-1	8.842154E-1	9.118575E-1	8.956992E-1	9.549404E-1	8.936360E-1	9.607232E-1	8.863016E-1	9.146634E-1	8.765275E-1	9.390705E-1	9.382356E-1	9.004470E-1	9.249677E-1	9.374271E-1	9.152530E-1	8.983902E-1	9.067237E-1	8.953746E-1	9.037717E-1	8.871850E-1	9.953114E-1	9.445796E-1	9.115723E-1	9.306426E-1	9.515527E-1	9.525779E-1	9.540968E-1	9.174743E-1	9.231888E-1	8.836910E-1	9.284299E-1	9.413459E-1	8.861022E-1	8.907321E-1	9.352968E-1	8.804575E-1	8.717999E-1	8.989244E-1	9.693869E-1	9.213647E-1	8.801699E-1	9.045158E-1	9.161071E-1	8.805665E-1	9.749813E-1	9.266265E-1	8.829084E-1	9.509698E-1	9.366025E-1	9.103983E-1	8.727971E-1	9.487990E-1	9.266614E-1	8.883914E-1	9.515590E-1	9.359759E-1	9.205251E-1	9.217200E-1	9.360520E-1	9.010832E-1	9.799779E-1	8.847666E-1	9.594525E-1	9.122935E-1	9.259906E-1	9.241620E-1	9.047717E-1	9.321284E-1	9.173777E-1	8.873075E-1	9.269285E-1	8.979144E-1	9.039992E-1	9.101644E-1	9.369098E-1	9.041226E-1	9.139735E-1	9.767427E-1	9.128259E-1	8.758603E-1	9.925473E-1	9.366705E-1	9.626196E-1	8.979012E-1	9.313036E-1	9.170631E-1	9.032069E-1	9.159661E-1	9.215413E-1	9.027293E-1	9.470395E-1	9.062673E-1	9.042475E-1	9.432258E-1	9.280353E-1	9.139282E-1	9.080317E-1	9.709759E-1	8.982003E-1	9.334903E-1	9.343638E-1	9.316790E-1	8.790949E-1	9.297184E-1	9.868409E-1	9.589617E-1	9.130158E-1	9.242200E-1	9.377947E-1	9.772661E-1	9.446772E-1	9.085406E-1	9.468290E-1	9.470982E-1	8.746134E-1	8.542247E-1	9.463220E-1	9.209391E-1	9.311012E-1	9.675348E-1	9.371553E-1	9.519266E-1	9.098208E-1	9.149730E-1	9.158279E-1	9.578538E-1	9.158921E-1	9.481244E-1	9.333926E-1	9.363025E-1
5.560240E+2	1.014998E+0	1.018468E+0	1.053665E+0	1.007437E+0	1.075117E+0	1.078675E+0	1.148649E+0	1.037930E+0	1.080205E+0	1.042641E+0	1.115371E+0	1.158920E+0	1.136084E+0	1.076375E+0	1.144181E+0	1.095803E+0	1.086151E+0	1.020248E+0	1.091025E+0	1.083362E+0	1.090358E+0	1.138878E+0	1.094268E+0	1.073319E+0	1.119372E+0	1.095178E+0	1.060316E+0	1.039719E+0	1.122867E+0	1.065565E+0	1.072449E+0	1.035341E+0	1.061730E+0	1.095649E+0	1.078447E+0	1.102543E+0	1.090829E+0	1.082087E+0	1.116058E+0	1.131161E+0	1.097858E+0	1.117796E+0	1.081828E+0	1.051488E+0	1.058529E+0	1.095159E+0	1.078003E+0	1.137666E+0	1.158679E+0	1.121839E+0	1.118398E+0	1.077973E+0	1.022557E+0	1.101838E+0	1.089372E+0	1.099891E+0	1.112003E+0	1.131892E+0	1.077458E+0	1.033378E+0	1.130727E+0	1.130542E+0	1.091398E+0	1.096740E+0	1.085707E+0	1.123809E+0	1.080682E+0	1.060298E+0	1.094763E+0	1.095790E+0	1.149292E+0	1.110358E+0	1.123857E+0	1.084385E+0	1.105324E+0	1.088478E+0	1.144772E+0	1.090365E+0	1.102815E+0	1.048627E+0	1.073516E+0	1.128300E+0	1.098161E+0	1.114449E+0	1.125062E+0	1.066325E+0	1.038276E+0	1.067075E+0	1.069222E+0	1.134988E+0	1.122379E+0	1.117508E+0	1.079950E+0	1.139620E+0	1.124291E+0	1.142540E+0	1.114742E+0	1.025970E+0	1.087243E+0	1.080548E+0	1.092596E+0	1.078963E+0	1.115153E+0	1.107507E+0	1.078147E+0	1.085521E+0	1.077016E+0	1.075426E+0	1.100152E+0	1.055858E+0	1.111195E+0	1.071515E+0	1.121081E+0	1.071087E+0	1.146161E+0	1.082254E+0	1.101427E+0	1.114862E+0	1.131985E+0	1.134738E+0	1.093515E+0	1.092224E+0	1.116134E+0	1.092477E+0	1.087974E+0	1.059712E+0	1.090810E+0	1.114414E+0	1.092634E+0	1.085449E+0	1.098932E+0	1.085707E+0	1.099961E+0	1.138063E+0	1.064874E+0	1.141422E+0	1.105566E+0	1.072048E+0	1.120531E+0	1.122690E+0	1.088192E+0	1.120790E+0	1.102136E+0	1.082537E+0	1.080652E+0	1.091750E+0	1.086605E+0	1.091280E+0	1.111971E+0	1.100659E+0	1.101551E+0	1.111801E+0	1.110271E+0	1.122439E+0	9.919962E-1	1.078612E+0	1.148570E+0	1.048950E+0	1.087422E+0	1.091241E+0	1.121273E+0	1.053440E+0	1.070022E+0	1.102599E+0	1.126890E+0	1.073518E+0	1.098052E+0	1.015169E+0	1.135283E+0	1.141752E+0
5.570100E+2	1.007987E+0	9.743904E-1	1.034070E+0	1.051045E+0	1.034433E+0	1.054782E+0	1.028310E+0	1.039672E+0	1.091910E+0	1.092587E+0	1.058073E+0	1.025097E+0	1.044381E+0	1.013835E+0	1.037700E+0	1.014780E+0	1.020125E+0	1.035903E+0	9.950120E-1	1.029648E+0	1.016266E+0	1.091072E+0	1.047822E+0	1.034564E+0	1.001051E+0	1.036351E+0	1.049310E+0	1.015871E+0	1.046707E+0	1.040263E+0	1.060655E+0	9.877131E-1	1.054199E+0	1.038276E+0	1.053086E+0	1.025830E+0	1.071314E+0	1.029566E+0	1.011137E+0	1.071890E+0	1.065899E+0	1.087090E+0	1.068009E+0	1.016471E+0	9.906541E-1	1.021360E+0	1.002191E+0	1.032000E+0	1.082681E+0	1.039141E+0	1.048230E+0	1.052416E+0	1.045230E+0	1.059581E+0	1.041464E+0	1.040841E+0	1.035899E+0	1.072928E+0	1.042722E+0	1.036601E+0	1.058105E+0	1.052941E+0	1.045521E+0	1.079668E+0	1.041459E+0	1.049053E+0	1.049160E+0	1.051611E+0	1.057909E+0	1.068002E+0	9.848013E-1	1.006242E+0	1.086135E+0	1.026440E+0	1.056653E+0	1.050687E+0	1.081668E+0	1.039100E+0	1.027219E+0	9.856585E-1	1.017011E+0	1.048874E+0	1.066729E+0	1.027567E+0	1.012836E+0	1.017439E+0	9.670242E-1	1.035503E+0	1.049364E+0	1.040821E+0	1.031092E+0	1.045155E+0	1.038994E+0	1.025428E+0	1.069030E+0	1.018131E+0	9.964155E-1	1.035842E+0	1.014549E+0	1.054307E+0	9.996778E-1	1.061466E+0	1.037547E+0	1.053623E+0	1.017707E+0	9.781383E-1	1.037335E+0	1.079438E+0	1.049606E+0	1.010662E+0	1.033946E+0	1.038766E+0	1.077138E+0	1.041256E+0	1.048716E+0	1.021440E+0	1.039365E+0	1.108779E+0	1.050211E+0	1.047856E+0	1.059447E+0	1.029146E+0	1.026690E+0	1.029909E+0	1.077922E+0	1.037438E+0	1.024878E+0	1.014110E+0	1.093781E+0	1.037409E+0	9.990089E-1	1.052124E+0	1.030937E+0	1.066845E+0	1.007067E+0	1.070856E+0	1.049601E+0	1.037271E+0	1.069942E+0	1.064606E+0	1.031280E+0	1.039065E+0	1.060271E+0	1.036159E+0	1.011743E+0	1.023017E+0	1.073276E+0	1.032096E+0	1.043249E+0	1.035762E+0	1.014162E+0	1.062604E+0	1.022421E+0	1.024435E+0	9.956297E-1	1.017029E+0	1.062319E+0	1.061790E+0	9.952085E-1	1.010812E+0	1.030901E+0	1.026696E+0	1.049293E+0	1.016981E+0	1.065242E+0	1.066956E+0	1.097109E+0	1.031533E+0	9.954038E-1	1.131949E+0
5.580400E+2	1.026497E+0	1.102840E+0	1.074034E+0	1.154712E+0	1.113328E+0	1.086250E+0	1.115317E+0	1.122857E+0	1.089385E+0	1.185780E+0	1.095606E+0	1.088590E+0	1.100721E+0	1.088467E+0	1.102308E+0	1.056515E+0	1.087850E+0	1.074005E+0	1.096005E+0	1.126291E+0	1.055947E+0	1.102375E+0	1.080307E+0	1.063698E+0	1.136510E+0	1.137798E+0	1.049466E+0	1.139614E+0	1.043885E+0	1.099045E+0	1.089213E+0	1.029138E+0	1.088033E+0	1.197472E+0	1.066206E+0	1.114287E+0	1.112095E+0	1.112761E+0	1.075451E+0	1.150336E+0	1.098539E+0	1.086563E+0	1.028303E+0	1.074603E+0	1.082123E+0	1.063016E+0	1.065732E+0	1.004166E+0	1.091969E+0	1.106928E+0	1.102180E+0	1.092630E+0	1.050266E+0	1.061842E+0	1.038117E+0	1.069989E+0	1.087787E+0	1.082818E+0	1.029271E+0	1.093570E+0	1.151627E+0	1.065718E+0	1.091592E+0	1.027056E+0	1.090456E+0	1.097336E+0	1.110997E+0	1.076609E+0	1.126642E+0	1.095385E+0	1.065863E+0	1.036946E+0	1.106020E+0	1.112182E+0	1.105431E+0	1.099220E+0	1.069025E+0	1.102979E+0	1.096636E+0	1.056805E+0	1.091193E+0	1.072445E+0	1.095496E+0	1.142349E+0	1.143770E+0	1.139203E+0	1.075720E+0	1.070429E+0	1.067989E+0	1.181424E+0	1.092753E+0	1.103920E+0	1.091996E+0	1.079509E+0	1.076526E+0	1.073504E+0	1.147085E+0	1.038150E+0	1.126792E+0	1.109935E+0	1.112308E+0	1.093944E+0	1.114182E+0	1.047722E+0	1.050097E+0	1.092299E+0	1.067137E+0	1.087309E+0	1.074821E+0	1.054608E+0	1.056289E+0	1.091116E+0	1.057754E+0	1.005871E+0	1.114976E+0	1.054324E+0	1.047664E+0	1.123408E+0	1.120226E+0	1.146275E+0	1.137768E+0	1.055882E+0	1.013147E+0	1.036136E+0	1.022031E+0	1.041347E+0	1.069672E+0	1.103944E+0	1.117698E+0	1.130237E+0	1.046589E+0	1.096132E+0	1.121220E+0	1.102479E+0	1.054057E+0	1.081030E+0	1.046024E+0	1.090457E+0	1.153575E+0	1.051557E+0	1.080828E+0	1.123037E+0	1.059754E+0	1.021818E+0	1.040633E+0	1.115136E+0	1.114322E+0	1.069799E+0	1.110178E+0	1.091479E+0	1.090337E+0	1.086433E+0	1.057175E+0	1.077485E+0	1.088166E+0	1.087993E+0	1.130616E+0	1.110632E+0	1.074246E+0	1.114276E+0	1.105727E+0	1.117057E+0	1.084187E+0	1.071033E+0	1.045026E+0	1.136962E+0	1.123654E+0	1.058137E+0	1.112932E+0	1.141058E+0
5.590210E+2	1.030661E+0	1.037363E+0	1.023771E+0	1.087944E+0	1.072118E+0	1.009906E+0	9.997132E-1	1.019016E+0	1.032870E+0	1.032885E+0	1.041422E+0	1.021685E+0	1.053989E+0	1.093219E+0	1.072578E+0	1.033849E+0	1.027513E+0	1.104145E+0	1.030802E+0	1.068074E+0	1.065376E+0	1.052054E+0	1.032650E+0	1.032239E+0	1.051821E+0	1.077104E+0	1.043871E+0	1.076311E+0	1.038191E+0	1.012547E+0	1.017161E+0	1.011441E+0	1.092581E+0	1.076956E+0	1.056722E+0	1.082391E+0	1.045929E+0	1.082050E+0	1.111753E+0	1.095172E+0	1.055717E+0	1.038438E+0	1.009070E+0	1.038088E+0	1.042106E+0	1.073217E+0	1.059673E+0	9.857621E-1	1.103964E+0	1.047783E+0	1.109128E+0	1.026844E+0	1.019661E+0	1.046185E+0	9.853427E-1	1.024919E+0	1.025767E+0	1.052993E+0	1.024849E+0	1.007410E+0	1.111778E+0	1.055496E+0	1.065315E+0	1.069757E+0	1.024173E+0	1.006882E+0	1.047920E+0	1.011306E+0	1.051764E+0	1.049655E+0	1.056451E+0	1.004825E+0	1.066960E+0	1.046736E+0	1.055332E+0	1.098848E+0	1.073753E+0	1.022978E+0	1.045577E+0	1.014394E+0	9.908623E-1	1.014048E+0	1.054086E+0	1.058902E+0	1.052007E+0	1.049768E+0	1.020400E+0	1.062258E+0	1.020226E+0	1.044109E+0	1.059006E+0	1.074536E+0	1.044951E+0	9.826438E-1	1.021579E+0	1.056174E+0	1.084103E+0	1.070027E+0	1.074110E+0	1.079597E+0	1.022351E+0	1.043611E+0	1.043439E+0	1.012325E+0	1.054729E+0	1.033970E+0	9.717148E-1	1.045119E+0	1.053846E+0	1.103695E+0	1.034051E+0	1.035490E+0	1.049214E+0	1.023850E+0	1.064059E+0	9.599414E-1	1.013002E+0	1.080241E+0	1.048755E+0	1.069604E+0	1.092416E+0	1.049605E+0	1.031269E+0	1.059259E+0	1.052961E+0	1.034863E+0	1.039909E+0	1.053857E+0	1.054970E+0	1.051583E+0	9.890612E-1	1.055470E+0	1.071170E+0	1.068617E+0	1.026119E+0	1.025759E+0	1.019792E+0	1.104611E+0	1.069779E+0	1.108079E+0	1.039946E+0	1.065460E+0	1.018211E+0	1.023504E+0	1.020021E+0	1.020770E+0	1.040279E+0	1.006438E+0	1.050969E+0	1.069934E+0	1.050545E+0	1.080770E+0	1.010221E+0	1.026215E+0	1.032079E+0	1.010304E+0	1.083267E+0	1.094859E+0	1.066426E+0	1.049440E+0	1.037790E+0	1.053919E+0	1.013023E+0	1.060282E+0	1.008979E+0	1.067067E+0	1.040272E+0	1.039787E+0	1.051371E+0	1.031343E+0
5.600130E+2	1.051104E+0	1.021115E+0	9.826485E-1	1.028633E+0	1.031582E+0	1.009376E+0	1.006262E+0	1.016559E+0	1.036836E+0	1.016258E+0	1.005311E+0	1.049187E+0	9.786879E-1	9.697897E-1	1.026008E+0	1.001975E+0	9.771541E-1	1.076371E+0	1.023535E+0	1.021196E+0	1.004650E+0	1.033497E+0	9.623805E-1	9.715786E-1	1.020641E+0	1.031573E+0	1.060844E+0	9.950397E-1	1.020454E+0	1.029210E+0	1.044683E+0	1.003725E+0	1.017099E+0	1.007934E+0	1.045575E+0	9.689307E-1	1.036199E+0	1.050637E+0	1.024367E+0	1.058745E+0	1.055826E+0	1.019005E+0	1.031867E+0	1.000978E+0	1.001284E+0	9.864131E-1	1.052704E+0	9.809060E-1	9.691933E-1	1.034119E+0	9.780905E-1	9.885171E-1	9.856359E-1	1.022278E+0	1.026178E+0	9.836787E-1	1.001478E+0	1.010329E+0	9.392557E-1	1.003824E+0	1.024316E+0	1.033029E+0	1.006536E+0	1.043865E+0	9.628147E-1	1.080596E+0	1.066403E+0	1.027069E+0	1.037118E+0	1.042657E+0	9.990162E-1	1.004143E+0	9.716487E-1	9.992929E-1	9.658478E-1	9.979169E-1	1.013366E+0	9.608412E-1	9.738480E-1	1.071063E+0	9.886833E-1	1.012565E+0	1.010601E+0	1.043809E+0	9.681397E-1	1.003560E+0	9.872953E-1	1.056562E+0	1.020414E+0	1.021305E+0	9.878506E-1	9.867850E-1	1.016905E+0	1.004506E+0	9.688136E-1	9.947276E-1	9.821491E-1	1.019165E+0	1.008215E+0	1.026294E+0	1.000388E+0	1.009802E+0	1.001572E+0	1.029933E+0	1.070126E+0	9.933005E-1	1.005985E+0	1.019911E+0	1.036056E+0	9.626665E-1	9.789088E-1	1.029506E+0	1.064622E+0	1.043676E+0	9.705112E-1	1.006637E+0	1.022384E+0	9.864436E-1	9.976078E-1	9.256057E-1	9.765479E-1	9.996576E-1	1.016366E+0	1.014370E+0	1.051048E+0	1.033066E+0	1.021516E+0	9.979972E-1	9.828686E-1	1.013424E+0	1.008046E+0	9.979564E-1	1.015695E+0	1.004531E+0	1.028923E+0	1.017734E+0	1.031407E+0	1.030327E+0	9.917831E-1	1.007029E+0	9.757156E-1	1.006391E+0	9.747460E-1	9.905128E-1	1.000473E+0	1.010077E+0	1.042419E+0	1.042969E+0	1.043134E+0	9.941763E-1	9.745063E-1	1.020757E+0	1.034719E+0	1.016422E+0	9.467554E-1	1.071793E+0	9.758512E-1	1.019146E+0	1.040045E+0	9.991843E-1	9.827009E-1	9.851939E-1	9.969856E-1	9.556106E-1	1.036420E+0	9.767283E-1	1.001283E+0	9.997163E-1	9.940936E-1	9.906094E-1
5.609950E+2	1.021351E+0	1.075457E+0	1.034852E+0	9.794686E-1	1.070728E+0	1.025782E+0	9.978212E-1	1.017568E+0	1.067448E+0	1.032864E+0	1.028513E+0	1.074286E+0	1.008925E+0	1.047842E+0	1.015108E+0	1.034599E+0	1.090930E+0	1.024651E+0	1.056914E+0	1.075068E+0	1.071490E+0	1.042129E+0	1.019686E+0	1.018896E+0	9.793505E-1	1.059153E+0	1.013324E+0	1.007379E+0	9.935119E-1	1.042792E+0	9.890666E-1	1.073408E+0	1.050194E+0	1.049052E+0	1.041104E+0	1.042198E+0	1.035853E+0	1.016067E+0	1.041414E+0	1.068606E+0	1.024908E+0	1.010851E+0	9.821186E-1	1.042365E+0	1.061294E+0	1.072544E+0	1.036145E+0	1.079643E+0	9.641368E-1	1.063705E+0	1.049842E+0	1.041857E+0	1.020174E+0	1.053714E+0	9.843052E-1	1.068933E+0	1.032387E+0	1.005299E+0	9.849304E-1	1.024401E+0	1.034190E+0	1.084451E+0	1.054770E+0	1.020749E+0	1.084651E+0	1.020784E+0	1.010587E+0	1.006049E+0	1.014056E+0	1.042835E+0	1.049964E+0	1.031695E+0	1.016538E+0	1.018462E+0	1.086394E+0	1.065472E+0	9.886903E-1	1.061969E+0	1.032631E+0	1.037893E+0	1.028216E+0	1.016569E+0	1.029514E+0	1.007187E+0	1.045839E+0	1.036211E+0	9.925742E-1	1.046085E+0	1.023545E+0	1.038262E+0	1.062759E+0	9.994773E-1	1.065408E+0	1.039710E+0	1.040448E+0	1.009405E+0	1.008091E+0	1.035241E+0	9.952780E-1	1.046071E+0	1.123291E+0	1.064092E+0	1.028190E+0	1.013030E+0	1.019925E+0	1.049505E+0	9.811088E-1	9.862349E-1	1.010726E+0	1.037222E+0	1.020971E+0	1.032558E+0	1.014053E+0	1.043596E+0	1.023548E+0	1.020766E+0	1.049797E+0	1.054044E+0	1.029355E+0	1.001925E+0	9.998274E-1	1.058594E+0	1.035290E+0	1.058105E+0	9.817946E-1	1.062308E+0	9.919029E-1	1.021733E+0	1.068811E+0	1.044515E+0	1.008048E+0	1.019286E+0	1.035717E+0	1.052328E+0	1.043906E+0	1.051137E+0	1.020488E+0	9.908880E-1	1.014046E+0	1.022281E+0	1.015446E+0	1.082322E+0	1.049270E+0	1.040939E+0	1.026196E+0	9.958942E-1	1.039406E+0	1.002641E+0	9.862651E-1	1.072542E+0	1.084530E+0	1.002585E+0	9.998192E-1	1.061801E+0	1.003046E+0	1.012281E+0	1.025573E+0	1.083970E+0	1.006618E+0	1.016869E+0	1.009336E+0	1.024797E+0	1.027197E+0	1.026104E+0	1.005644E+0	1.073968E+0	1.028916E+0	1.038624E+0	9.864418E-1	1.096060E+0
5.620340E+2	9.045997E-1	8.752562E-1	8.566319E-1	8.851588E-1	9.099433E-1	8.772471E-1	9.122876E-1	8.675836E-1	8.906096E-1	8.802628E-1	9.046201E-1	8.707597E-1	9.019888E-1	8.610864E-1	8.982659E-1	9.078526E-1	8.837645E-1	8.603089E-1	7.964425E-1	9.106575E-1	9.056394E-1	9.080905E-1	9.146244E-1	8.954205E-1	8.735782E-1	8.707432E-1	8.924212E-1	8.512600E-1	8.902238E-1	9.138877E-1	8.900572E-1	8.771283E-1	9.004906E-1	8.822386E-1	8.371061E-1	9.007434E-1	8.894502E-1	8.949961E-1	8.625791E-1	8.691094E-1	9.251724E-1	9.192268E-1	9.390610E-1	8.692421E-1	8.808344E-1	8.550838E-1	8.581450E-1	9.080388E-1	8.948881E-1	8.683284E-1	8.718631E-1	9.196851E-1	8.791410E-1	8.854715E-1	9.078102E-1	8.467433E-1	8.994853E-1	9.451368E-1	8.818753E-1	8.547375E-1	9.149859E-1	9.096747E-1	8.952751E-1	8.552345E-1	9.031715E-1	8.387865E-1	8.890904E-1	8.640428E-1	9.050779E-1	9.452092E-1	8.954206E-1	8.689225E-1	8.878989E-1	8.818180E-1	8.926582E-1	9.141527E-1	9.043359E-1	9.440973E-1	8.605610E-1	8.534926E-1	9.434163E-1	8.730543E-1	8.418710E-1	8.844769E-1	8.709679E-1	9.225028E-1	8.717776E-1	9.105818E-1	8.694993E-1	8.750376E-1	8.554032E-1	9.485243E-1	8.809848E-1	9.413279E-1	8.861739E-1	9.153119E-1	8.866660E-1	8.390796E-1	9.427166E-1	8.802473E-1	8.574148E-1	8.837960E-1	8.780819E-1	9.127105E-1	8.949994E-1	8.900081E-1	9.072211E-1	9.775183E-1	8.677595E-1	8.812242E-1	8.996272E-1	9.626752E-1	8.663161E-1	9.230447E-1	9.013927E-1	9.078322E-1	9.273179E-1	9.141786E-1	8.864267E-1	9.008436E-1	8.781191E-1	8.778412E-1	8.728622E-1	8.594039E-1	8.747274E-1	9.369555E-1	8.697568E-1	9.310608E-1	8.899503E-1	8.732246E-1	8.591244E-1	9.172225E-1	8.908040E-1	8.948176E-1	8.635051E-1	8.299740E-1	9.144573E-1	9.118443E-1	8.830092E-1	8.545952E-1	9.251065E-1	8.506417E-1	8.597129E-1	8.881879E-1	9.073440E-1	9.148116E-1	9.071158E-1	9.302435E-1	9.333362E-1	8.681836E-1	8.494425E-1	9.000508E-1	8.346173E-1	8.693790E-1	8.706948E-1	9.276428E-1	8.962289E-1	8.810477E-1	9.270135E-1	8.836110E-1	9.165167E-1	8.466034E-1	8.824799E-1	8.884857E-1	8.980442E-1	8.756668E-1	9.090272E-1	8.949886E-1	8.753853E-1	9.071101E-1
5.630180E+2	9.387130E-1	8.231502E-1	9.792630E-1	9.252796E-1	9.166434E-1	9.647322E-1	9.502707E-1	9.676961E-1	9.340865E-1	9.355328E-1	9.834899E-1	9.298507E-1	9.372946E-1	9.431628E-1	9.697637E-1	9.404288E-1	9.383549E-1	8.985677E-1	9.737829E-1	8.846922E-1	9.591650E-1	9.134344E-1	9.474445E-1	9.618230E-1	9.733619E-1	9.090281E-1	9.400237E-1	9.600275E-1	9.566700E-1	9.355668E-1	9.442450E-1	9.363160E-1	9.475916E-1	9.848573E-1	9.062781E-1	9.036145E-1	9.243282E-1	9.491372E-1	9.036188E-1	9.309443E-1	9.225876E-1	9.217012E-1	9.166816E-1	9.915588E-1	9.303567E-1	9.625406E-1	9.476243E-1	9.251806E-1	9.304925E-1	9.229113E-1	9.593563E-1	9.413444E-1	9.415642E-1	9.356698E-1	9.603958E-1	9.802340E-1	9.807133E-1	9.267489E-1	9.285028E-1	9.202804E-1	9.815793E-1	9.334317E-1	9.728008E-1	9.586590E-1	9.701562E-1	9.465645E-1	9.062505E-1	9.607995E-1	9.330858E-1	9.555029E-1	9.475798E-1	9.270700E-1	9.381904E-1	9.285789E-1	9.609899E-1	9.172822E-1	9.187121E-1	9.424226E-1	9.694294E-1	9.056995E-1	9.515374E-1	9.420687E-1	9.512430E-1	8.809164E-1	9.223227E-1	9.183261E-1	9.286312E-1	9.642945E-1	9.411684E-1	9.448084E-1	9.647035E-1	9.288430E-1	9.535943E-1	9.496585E-1	9.457112E-1	9.189679E-1	9.393064E-1	9.210553E-1	9.284875E-1	9.131058E-1	9.347608E-1	9.319345E-1	9.243717E-1	9.073417E-1	8.977451E-1	9.162470E-1	9.714055E-1	9.185231E-1	9.510191E-1	9.560102E-1	9.594159E-1	9.243340E-1	9.161922E-1	8.939067E-1	9.250464E-1	9.436898E-1	9.693081E-1	9.248988E-1	9.266514E-1	9.892869E-1	9.786649E-1	9.800400E-1	9.147421E-1	9.530906E-1	9.290292E-1	9.553251E-1	9.193044E-1	9.423847E-1	9.164144E-1	9.578107E-1	9.802436E-1	9.237274E-1	9.333088E-1	9.561459E-1	8.904553E-1	9.216319E-1	9.298391E-1	9.697116E-1	9.408980E-1	9.677788E-1	9.539371E-1	9.446658E-1	9.563698E-1	9.674246E-1	9.354048E-1	9.181462E-1	9.151201E-1	9.230475E-1	9.155526E-1	9.484058E-1	9.253628E-1	9.290153E-1	9.431280E-1	9.486044E-1	9.453668E-1	9.084701E-1	9.197683E-1	9.471112E-1	9.229418E-1	9.655956E-1	9.380378E-1	9.507364E-1	9.624897E-1	9.448657E-1	9.399137E-1	9.500990E-1	9.897104E-1	9.057995E-1	9.299975E-1	8.601107E-1
5.640410E+2	9.007309E-1	9.713963E-1	9.347460E-1	1.031780E+0	9.517601E-1	9.473970E-1	9.372218E-1	9.427552E-1	9.496707E-1	9.927509E-1	9.355425E-1	9.385148E-1	9.851128E-1	9.341118E-1	9.551585E-1	9.493360E-1	9.317985E-1	9.667665E-1	9.519592E-1	8.875786E-1	9.646229E-1	9.662987E-1	9.503446E-1	9.617875E-1	9.532685E-1	9.520767E-1	9.227135E-1	9.838911E-1	9.329885E-1	9.886805E-1	9.439029E-1	9.362155E-1	9.376817E-1	9.371504E-1	9.844236E-1	9.709587E-1	9.434647E-1	9.130279E-1	9.570854E-1	9.026683E-1	8.941749E-1	9.431722E-1	9.977855E-1	9.454627E-1	9.073826E-1	9.574265E-1	9.148122E-1	9.468635E-1	9.362724E-1	9.287711E-1	9.591730E-1	9.464451E-1	9.577382E-1	9.559258E-1	9.126557E-1	9.419161E-1	9.165948E-1	9.863932E-1	9.315493E-1	9.863650E-1	9.459802E-1	9.015078E-1	9.689432E-1	9.244719E-1	9.238100E-1	9.432334E-1	9.364776E-1	9.255808E-1	9.640611E-1	9.071321E-1	9.881663E-1	9.648193E-1	9.639776E-1	9.617517E-1	9.149823E-1	9.081226E-1	9.297491E-1	9.399266E-1	9.267958E-1	9.674648E-1	9.602977E-1	9.768587E-1	9.444654E-1	9.478635E-1	9.306023E-1	8.833034E-1	9.503576E-1	8.927908E-1	9.501222E-1	9.616120E-1	9.814994E-1	9.721763E-1	9.276228E-1	9.658674E-1	9.417754E-1	9.742518E-1	9.282675E-1	9.808956E-1	9.064407E-1	9.250262E-1	9.175780E-1	9.661199E-1	1.006709E+0	9.468751E-1	9.544776E-1	9.556169E-1	9.244879E-1	9.592842E-1	9.708481E-1	9.248139E-1	9.673866E-1	9.243120E-1	9.735892E-1	9.462375E-1	9.022806E-1	9.077315E-1	8.965910E-1	9.537019E-1	9.212872E-1	9.791987E-1	9.787617E-1	9.433591E-1	9.439444E-1	9.502360E-1	9.496806E-1	9.096000E-1	9.768961E-1	9.240019E-1	9.498295E-1	9.214264E-1	9.399574E-1	9.166978E-1	9.412600E-1	9.910645E-1	9.528180E-1	1.026429E+0	9.039698E-1	9.937895E-1	9.948098E-1	9.133208E-1	9.467683E-1	9.518764E-1	9.464812E-1	9.313881E-1	9.516685E-1	9.326416E-1	9.427172E-1	8.957587E-1	9.300451E-1	9.456305E-1	9.175013E-1	9.454627E-1	9.847886E-1	9.570690E-1	9.941470E-1	9.441485E-1	9.641080E-1	9.509425E-1	9.789853E-1	9.223207E-1	9.199732E-1	9.394991E-1	9.446903E-1	9.616817E-1	9.418144E-1	9.240704E-1	9.773661E-1	9.281912E-1	1.003151E+0	9.996828E-1
5.650260E+2	1.003278E+0	1.060223E+0	1.020355E+0	1.002276E+0	9.942686E-1	1.028714E+0	9.440548E-1	9.563950E-1	9.766150E-1	9.942450E-1	9.639385E-1	1.007340E+0	9.842625E-1	9.860391E-1	9.805869E-1	1.029532E+0	9.668113E-1	9.909778E-1	1.020216E+0	1.050868E+0	9.815583E-1	9.768231E-1	1.010290E+0	1.028797E+0	9.695574E-1	9.871229E-1	9.931651E-1	1.002235E+0	9.917699E-1	9.794904E-1	1.037875E+0	1.024925E+0	9.723790E-1	1.021495E+0	1.031690E+0	1.018305E+0	9.836801E-1	1.025582E+0	1.010593E+0	9.891817E-1	9.947686E-1	9.611883E-1	9.979439E-1	9.613658E-1	1.004291E+0	9.794020E-1	1.012649E+0	9.925621E-1	1.032057E+0	9.999680E-1	1.005400E+0	1.009448E+0	9.930262E-1	1.000169E+0	9.749390E-1	1.000820E+0	1.011313E+0	9.968985E-1	1.050036E+0	1.045218E+0	9.492244E-1	1.034191E+0	9.464538E-1	1.010381E+0	9.955562E-1	9.663558E-1	9.912868E-1	1.028805E+0	9.794878E-1	9.601069E-1	9.836591E-1	1.012850E+0	1.018278E+0	9.758449E-1	9.825978E-1	9.895965E-1	1.047078E+0	9.906042E-1	9.983554E-1	9.755530E-1	9.221282E-1	9.761553E-1	1.026531E+0	1.018066E+0	1.012246E+0	1.040739E+0	1.019324E+0	9.929483E-1	9.876743E-1	9.785402E-1	9.869747E-1	1.012320E+0	9.893430E-1	9.695451E-1	9.871345E-1	1.005664E+0	1.010452E+0	9.746080E-1	1.034969E+0	1.025461E+0	1.000506E+0	9.900775E-1	9.807916E-1	9.768905E-1	9.876913E-1	1.005020E+0	1.020031E+0	1.041673E+0	9.790786E-1	1.008675E+0	1.004974E+0	9.574185E-1	1.042808E+0	9.797027E-1	1.075466E+0	1.023407E+0	1.077352E+0	1.009320E+0	1.066303E+0	1.015074E+0	1.019626E+0	1.013328E+0	1.005470E+0	1.004769E+0	1.037901E+0	9.690251E-1	1.032146E+0	9.922299E-1	1.011025E+0	1.011238E+0	1.043284E+0	1.054431E+0	1.004959E+0	9.894273E-1	1.013838E+0	1.017299E+0	1.011518E+0	1.059271E+0	9.662213E-1	1.007409E+0	9.609966E-1	9.701343E-1	1.013504E+0	9.981012E-1	1.029392E+0	1.006068E+0	9.923642E-1	9.776596E-1	9.995346E-1	1.012143E+0	1.045740E+0	1.000707E+0	9.936915E-1	1.003208E+0	1.017242E+0	9.871186E-1	1.020149E+0	9.554470E-1	9.938179E-1	1.003116E+0	1.004848E+0	1.030918E+0	1.002017E+0	1.059832E+0	9.945498E-1	1.020430E+0	9.741822E-1	1.036151E+0	9.980411E-1	1.028861E+0
5.660210E+2	1.149546E+0	1.141621E+0	1.141834E+0	1.092368E+0	1.115399E+0	1.099675E+0	1.126210E+0	1.128826E+0	1.120355E+0	1.074193E+0	1.102451E+0	1.073086E+0	1.126815E+0	1.170061E+0	1.130659E+0	1.119641E+0	1.143474E+0	1.146141E+0	1.170612E+0	1.142317E+0	1.058303E+0	1.089113E+0	1.166760E+0	1.118136E+0	1.152668E+0	1.145594E+0	1.095780E+0	1.133624E+0	1.175654E+0	1.087099E+0	1.085998E+0	1.100742E+0	1.142638E+0	1.080678E+0	1.073026E+0	1.135414E+0	1.134737E+0	1.097694E+0	1.116666E+0	1.132046E+0	1.115583E+0	1.182112E+0	1.105711E+0	1.156369E+0	1.176631E+0	1.153388E+0	1.123489E+0	1.093014E+0	1.179970E+0	1.106207E+0	1.136632E+0	1.141958E+0	1.180143E+0	1.108082E+0	1.153166E+0	1.124062E+0	1.118857E+0	1.090130E+0	1.169011E+0	1.123139E+0	1.110661E+0	1.118318E+0	1.151643E+0	1.139352E+0	1.145558E+0	1.107983E+0	1.111701E+0	1.148694E+0	1.107173E+0	1.135253E+0	1.111908E+0	1.127965E+0	1.122822E+0	1.162052E+0	1.137190E+0	1.177390E+0	1.165531E+0	1.122852E+0	1.181054E+0	1.154308E+0	1.146543E+0	1.118044E+0	1.138569E+0	1.158081E+0	1.183113E+0	1.134788E+0	1.151984E+0	1.118373E+0	1.183650E+0	1.111843E+0	1.114281E+0	1.127108E+0	1.142574E+0	1.090930E+0	1.151640E+0	1.118088E+0	1.146281E+0	1.182597E+0	1.143191E+0	1.142780E+0	1.101706E+0	1.107265E+0	1.146262E+0	1.131796E+0	1.138633E+0	1.122179E+0	1.094500E+0	1.079289E+0	1.132691E+0	1.131531E+0	1.101450E+0	1.119348E+0	1.092746E+0	1.108057E+0	1.162022E+0	1.134867E+0	1.056430E+0	1.116326E+0	1.100285E+0	1.111471E+0	1.137639E+0	1.105647E+0	1.115949E+0	1.137102E+0	1.061933E+0	1.110260E+0	1.115047E+0	1.169662E+0	1.128880E+0	1.120152E+0	1.114547E+0	1.140483E+0	1.141889E+0	1.110965E+0	1.168637E+0	1.106073E+0	1.129738E+0	1.060486E+0	1.120104E+0	1.123238E+0	1.119642E+0	1.146036E+0	1.161434E+0	1.152542E+0	1.092837E+0	1.142079E+0	1.101449E+0	1.161014E+0	1.134070E+0	1.136169E+0	1.140924E+0	1.135031E+0	1.145393E+0	1.098421E+0	1.140205E+0	1.138159E+0	1.131023E+0	1.121428E+0	1.110197E+0	1.189798E+0	1.121863E+0	1.123195E+0	1.111343E+0	1.118198E+0	1.125427E+0	1.129729E+0	1.131374E+0	1.145618E+0	1.132186E+0	1.086056E+0
5.670200E+2	1.030678E+0	1.031781E+0	1.049671E+0	1.055035E+0	1.009675E+0	1.047077E+0	1.125872E+0	1.102618E+0	1.024379E+0	1.073893E+0	1.076134E+0	1.056975E+0	1.076913E+0	1.087908E+0	1.024449E+0	1.016636E+0	1.067713E+0	1.036216E+0	1.006539E+0	1.027623E+0	1.054572E+0	1.070614E+0	1.028470E+0	1.043562E+0	1.077575E+0	1.044709E+0	1.081729E+0	1.066544E+0	1.038728E+0	1.023273E+0	1.064173E+0	1.047541E+0	1.031927E+0	1.036595E+0	1.080798E+0	1.059835E+0	1.052288E+0	1.052858E+0	1.083678E+0	1.048699E+0	1.066980E+0	1.042744E+0	1.028831E+0	1.032659E+0	1.037926E+0	1.033202E+0	1.054432E+0	1.073792E+0	1.092990E+0	1.075990E+0	1.039643E+0	1.010745E+0	1.042577E+0	1.038690E+0	1.080550E+0	1.053614E+0	1.039171E+0	1.039064E+0	1.114840E+0	1.042035E+0	1.039064E+0	9.853968E-1	1.003579E+0	1.047287E+0	1.014282E+0	1.095698E+0	1.088204E+0	1.038960E+0	1.059941E+0	1.011305E+0	1.024286E+0	1.062535E+0	1.080645E+0	1.072200E+0	1.059340E+0	1.030067E+0	1.032538E+0	1.037287E+0	1.057325E+0	1.034526E+0	1.059178E+0	1.084685E+0	1.057205E+0	1.059600E+0	1.066769E+0	1.060569E+0	1.098056E+0	1.018365E+0	1.023927E+0	1.068592E+0	1.046528E+0	1.024766E+0	1.023569E+0	1.038456E+0	1.078304E+0	1.063585E+0	1.098788E+0	1.047358E+0	1.040702E+0	1.041014E+0	1.064355E+0	1.046913E+0	1.034023E+0	1.081423E+0	1.036403E+0	1.068123E+0	1.095261E+0	1.017567E+0	1.051822E+0	1.097857E+0	1.067266E+0	1.049848E+0	1.029673E+0	1.061779E+0	1.039732E+0	1.055070E+0	1.000821E+0	1.041087E+0	1.072084E+0	1.076595E+0	1.030814E+0	1.021533E+0	1.095376E+0	1.022922E+0	1.113887E+0	1.023461E+0	1.073430E+0	1.020931E+0	1.052221E+0	1.058209E+0	1.046749E+0	1.030196E+0	1.036368E+0	1.000721E+0	1.037917E+0	1.029721E+0	1.058582E+0	9.836825E-1	1.089128E+0	1.104348E+0	1.102388E+0	1.047933E+0	1.038483E+0	1.030905E+0	1.056685E+0	1.080282E+0	1.059408E+0	1.066667E+0	1.058063E+0	1.022750E+0	1.061993E+0	1.066392E+0	1.063843E+0	1.045096E+0	1.082543E+0	1.010387E+0	1.067299E+0	1.040908E+0	1.020382E+0	1.019505E+0	1.106724E+0	1.099057E+0	1.072798E+0	1.045223E+0	1.058187E+0	1.049308E+0	9.881411E-1	1.050912E+0	1.080704E+0	1.031509E+0
