Photon Energy (eV)	#1	#2	#3	#4	#5	#6	#7	#8	#9	#10	#11	#12	#13	#14	#15	#16	#17	#18	#19	#20	#21	#22	#23	#24	#25	#26	#27	#28	#29	#30	#31	#32	#33	#34	#35	#36	#37	#38	#39	#40	#41	#42	#43	#44	#45	#46	#47	#48	#49	#50	#51	#52	#53	#54	#55	#56	#57	#58	#59	#60	#61	#62	#63	#64	#65	#66	#67	#68	#69	#70	#71	#72	#73	#74	#75	#76	#77	#78	#79	#80	#81	#82	#83	#84	#85	#86	#87	#88	#89	#90	#91	#92	#93	#94	#95	#96	#97	#98	#99	#100	#101	#102	#103	#104	#105	#106	#107	#108	#109	#110	#111	#112	#113	#114	#115	#116	#117	#118	#119	#120	#121	#122	#123	#124	#125	#126	#127	#128	#129	#130	#131	#132	#133	#134	#135	#136	#137	#138	#139	#140	#141	#142	#143	#144	#145	#146	#147	#148	#149	#150	#151	#152	#153	#154	#155	#156	#157	#158	#159	#160	#161	#162	#163	#164	#165	#166	#167	#168	#169	#170	#171	#172	
2.790030E+2	5.264398E-4	-5.703828E-3	-6.142820E-3	3.887639E-3	-1.780444E-4	3.285299E-4	-5.802063E-4	4.398163E-4	-3.856219E-3	-2.208614E-3	-1.438969E-3	-3.398137E-3	-7.765768E-3	-6.538154E-3	-1.638907E-3	4.107516E-3	1.765566E-3	6.496940E-4	-2.543048E-3	-2.647100E-3	4.987576E-4	-4.737462E-3	8.202959E-4	-1.163519E-4	-3.330837E-3	-2.468302E-3	-2.001330E-3	2.635084E-4	-6.932731E-3	-4.246903E-3	7.282183E-4	-4.687318E-3	-1.280529E-3	-5.921623E-3	-1.058493E-2	-3.636032E-4	-1.405814E-3	-4.092754E-3	3.052377E-3	-8.696765E-4	2.329373E-3	-2.544661E-3	-3.885259E-3	-3.435820E-3	-5.824578E-4	-5.502697E-3	-3.562290E-3	-6.373112E-3	-5.301703E-3	-4.746245E-3	-2.277107E-3	-1.040124E-3	-6.125051E-3	2.923083E-8	-7.264200E-4	-1.055832E-8	1.681655E-3	-5.231830E-3	1.971612E-4	-8.253715E-3	-1.340943E-4	-4.219927E-3	-6.056630E-3	3.674918E-4	-2.300697E-3	-1.738824E-3	1.048706E-3	-4.261787E-3	-3.281079E-3	-8.308989E-3	-2.324231E-3	-1.674440E-3	1.212982E-3	8.447613E-4	-5.351839E-3	-1.542997E-3	-8.082737E-4	8.564082E-4	2.502689E-3	-3.127736E-3	-9.278509E-3	4.804583E-4	-5.628491E-3	7.090812E-5	1.358515E-3	-2.659444E-3	-2.763677E-3	-2.161191E-3	2.475864E-3	-2.581403E-3	7.895574E-4	-1.952243E-3	-9.586696E-4	-1.033326E-2	-4.382969E-3	-2.081519E-3	-2.849304E-3	-1.550976E-3	4.407801E-3	-1.068538E-2	6.081083E-4	-1.034289E-3	-5.584843E-3	-3.415234E-3	2.520068E-3	-6.461875E-4	-3.763141E-3	-1.550516E-3	-8.488926E-4	-7.704229E-3	2.540874E-4	-6.570906E-5	-3.132208E-3	-1.221852E-2	5.257886E-4	-7.467274E-3	1.535761E-3	-4.756772E-3	4.499815E-3	8.591577E-3	2.034314E-3	-3.968632E-3	-3.141762E-3	1.151903E-3	1.092667E-3	-7.698142E-3	-2.857679E-3	-2.764037E-3	-3.848423E-3	2.021466E-3	8.750056E-3	-1.922233E-3	6.201330E-5	-5.387383E-3	1.698007E-4	-2.113906E-4	4.681045E-3	-4.846436E-4	-2.135431E-3	1.518836E-3	6.216548E-3	-1.039986E-2	-5.594093E-3	2.559145E-3	-6.028860E-4	-2.403330E-3	-4.952475E-4	-5.259340E-3	-6.916098E-3	8.582132E-4	-2.293292E-3	-6.303876E-3	8.046772E-4	-1.059931E-2	-1.686415E-3	-8.208667E-4	3.035422E-4	-5.137981E-3	7.868070E-4	7.616255E-4	-2.372405E-3	2.847631E-3	-1.734148E-3	-5.158474E-3	3.685371E-4	2.318439E-4	-6.720515E-3	-3.461560E-3	-4.533821E-3	-6.356186E-3	-2.752574E-3	-1.282339E-2
2.795060E+2	-3.685229E-3	3.436027E-4	-4.366588E-3	-1.393686E-3	-3.976465E-3	3.285171E-4	-4.190585E-3	-2.575955E-3	3.570571E-3	4.751841E-3	-2.940507E-3	-3.964501E-3	-1.500933E-3	-6.025379E-3	3.035120E-4	3.520554E-4	-6.473750E-3	2.728793E-3	1.525833E-3	-2.647083E-3	-9.476282E-3	4.093883E-4	-2.460846E-3	4.537168E-3	2.107253E-3	-2.987904E-3	-1.059548E-3	-2.635027E-4	-3.199704E-3	-4.761715E-3	-1.699171E-3	-4.687313E-3	-3.201359E-3	-2.727961E-3	2.664234E-3	-3.854285E-3	4.686065E-4	1.902256E-3	-4.129704E-3	-3.010388E-3	-1.397590E-3	-2.022663E-3	2.738831E-3	-5.591593E-3	3.041610E-3	-8.957881E-4	1.750948E-3	-3.748694E-4	4.998752E-3	-3.577946E-3	-4.359059E-3	-7.578378E-3	-2.728959E-3	2.457431E-3	-2.067459E-3	-3.195439E-3	-6.928428E-3	-4.144664E-3	7.228454E-4	-8.253712E-3	4.694413E-3	-8.250940E-3	-6.056609E-3	-9.922035E-3	-5.007386E-3	-9.466968E-3	-6.222458E-3	-4.261748E-3	1.215055E-4	-2.919374E-3	-1.891768E-3	-8.887583E-3	-3.638956E-3	-2.534246E-3	1.783949E-3	1.262441E-3	4.580124E-3	1.383450E-3	-3.084693E-3	2.646565E-3	-1.521522E-4	-1.166812E-3	-9.704224E-4	-1.630766E-3	1.358545E-3	-6.205405E-3	-4.606174E-3	7.023859E-3	-1.485525E-3	4.483483E-3	-7.895534E-4	-1.952266E-3	-8.628164E-3	-6.575703E-3	-4.382938E-3	-2.081513E-3	-2.849278E-3	1.832982E-3	6.959727E-4	-2.266596E-3	-2.797260E-3	-6.388268E-3	-3.564601E-4	8.348474E-4	-2.928684E-3	9.046572E-4	2.046586E-3	-3.411210E-3	-2.938572E-3	-5.730413E-4	7.622592E-4	-4.797483E-3	-3.688994E-3	1.263980E-3	-4.731873E-3	-3.918507E-3	-1.669301E-3	-2.877531E-3	-1.879644E-3	-4.819682E-3	-2.184997E-3	-3.439441E-3	1.474705E-3	-4.991644E-3	-3.902392E-3	-9.668884E-3	-5.397870E-3	-3.266600E-3	-2.664311E-3	-3.369113E-3	-7.481930E-3	-4.382726E-3	-4.341687E-4	-2.345098E-3	-2.547124E-3	-6.975253E-3	8.260381E-4	-7.131183E-3	-3.203132E-3	-9.281647E-3	1.554140E-3	-8.810091E-3	-2.074226E-3	-1.212222E-3	-5.426026E-3	-6.451098E-3	6.367724E-4	-8.495852E-3	-4.885690E-3	3.800710E-3	-5.190112E-3	-7.463209E-3	-4.345259E-3	-5.859278E-3	-1.873835E-4	-2.134301E-3	-5.159862E-3	6.503568E-5	-5.507694E-3	-4.823562E-3	5.442625E-3	-8.542966E-3	1.040506E-3	-4.568907E-3	-2.088220E-3	6.955071E-4	-2.774505E-3	5.769264E-4	-3.487371E-4	-3.582565E-3	-5.199301E-3	-1.012375E-2
2.800050E+2	2.331503E-3	3.436262E-4	-3.774534E-3	-8.068686E-4	2.195978E-3	-5.453477E-3	-5.737870E-3	-2.575964E-3	3.570540E-3	1.539321E-3	-5.943576E-3	-5.663569E-3	-2.545093E-3	-3.461399E-3	-2.124498E-3	-5.750510E-3	-5.296713E-3	-7.146897E-3	-5.594672E-3	-1.532555E-3	3.990033E-3	8.773300E-4	2.695227E-3	-3.839121E-3	-1.155610E-3	2.728115E-3	1.294982E-3	-5.006593E-3	3.199713E-3	-1.673021E-3	-4.612035E-3	4.915991E-3	3.841639E-3	3.127152E-3	-2.160118E-4	-7.926699E-3	-4.686032E-3	2.363423E-3	-2.214489E-3	-6.221428E-3	6.056313E-3	-3.066609E-3	-8.280159E-4	-2.357902E-3	-8.865973E-3	-1.164526E-2	3.683046E-3	1.624505E-3	1.363298E-3	-5.914573E-3	-1.756637E-3	-3.417712E-3	-3.214122E-3	-2.948885E-3	-6.984678E-3	1.597723E-3	-2.623380E-3	-6.862505E-3	-2.431397E-3	6.152783E-3	-1.341434E-4	-2.204459E-3	-2.595688E-3	1.837410E-3	-2.842080E-3	-5.345312E-3	-7.341095E-3	-4.261800E-3	-6.683676E-3	5.614213E-3	-1.621576E-4	-1.159262E-3	1.347824E-4	-2.534284E-3	-1.070384E-3	-6.031711E-3	-2.424784E-3	-7.246790E-4	-5.878344E-3	-3.127768E-3	-6.844798E-3	-1.715897E-3	-3.558252E-3	-6.168619E-3	-2.099538E-3	-4.179175E-3	5.988019E-3	-1.080592E-3	-6.012851E-3	5.026958E-3	-1.842272E-3	-6.325323E-3	-5.341242E-3	4.026131E-4	-4.898593E-3	-1.561145E-3	-1.049748E-3	2.396936E-3	-1.167677E-2	3.238305E-4	-8.635000E-3	-6.388262E-3	-5.584820E-3	-1.593769E-3	-4.018406E-3	-1.680085E-3	-3.763109E-3	-3.411184E-3	-3.264910E-4	4.520642E-3	-3.811312E-3	-4.797489E-3	-3.480473E-4	-1.544887E-3	-1.577319E-3	-2.144086E-3	-7.545249E-3	-5.226590E-3	-3.246702E-3	1.327178E-3	-4.596025E-3	-1.322867E-3	-4.167632E-3	-1.919915E-3	-1.201937E-2	-1.293292E-3	3.746734E-3	2.261498E-3	2.664314E-3	9.433665E-4	-3.804331E-4	-7.687341E-5	-1.426475E-3	-2.852139E-3	-5.264054E-3	3.522901E-4	-8.536014E-3	1.176990E-3	-9.075532E-3	-1.856306E-3	5.698482E-3	1.987333E-4	9.427907E-4	-3.906096E-3	6.028952E-4	6.198120E-3	-4.457224E-3	-5.906581E-3	-7.423685E-3	8.582251E-4	-1.327697E-3	-2.825883E-3	-1.770277E-3	-5.859230E-3	-4.184771E-3	-4.761149E-3	3.035274E-4	-9.820727E-3	-6.476092E-3	-4.315811E-3	-1.395753E-4	-5.695477E-4	-9.503114E-3	-3.979366E-3	-5.036253E-3	-6.259655E-3	1.664718E-3	-1.038464E-2	-8.021394E-3	-7.280718E-3	-5.199301E-3	-2.024754E-3
2.805050E+2	-4.888565E-3	-7.353126E-3	-3.182459E-3	-1.980499E-3	-1.127694E-3	-7.227421E-4	1.482818E-3	-6.281381E-5	-1.571020E-3	-6.694147E-5	-3.440986E-3	-3.964515E-3	-7.243701E-3	-1.410182E-3	-5.523757E-3	3.521041E-4	-4.119693E-3	-2.988701E-3	-5.086013E-4	-3.761652E-3	-7.481293E-3	-8.480698E-3	-4.335777E-3	3.490032E-4	-1.699393E-3	-2.468274E-3	-3.414038E-3	-7.905138E-4	-4.266279E-3	3.861118E-4	-3.155563E-3	8.002521E-4	-5.122193E-3	-1.663393E-3	-3.672317E-3	7.999314E-4	4.685894E-4	-9.165482E-3	-1.131172E-2	-1.404872E-3	1.796887E-3	-5.154523E-3	-4.904365E-3	1.414741E-3	-1.617872E-3	6.398535E-4	-8.392523E-3	1.624524E-3	7.573481E-4	1.095288E-3	-1.951858E-4	1.931722E-3	2.122548E-3	-4.914843E-3	6.425900E-3	-4.260604E-3	2.219812E-3	1.834508E-3	-8.542552E-4	5.552514E-3	-8.181687E-3	-6.235447E-3	-5.562193E-3	-3.062370E-3	1.177425E-2	2.382851E-3	-3.425877E-3	-4.829983E-3	2.065852E-3	-4.266795E-3	1.567500E-3	-1.674449E-3	-2.021666E-3	-3.660622E-3	-5.946490E-4	7.013849E-4	-2.424748E-3	-5.467841E-3	1.745808E-4	1.684172E-3	-4.411068E-3	-5.010411E-3	-2.005565E-3	-1.630773E-3	5.804628E-3	-1.139771E-3	-6.448632E-3	-7.564182E-3	-3.537032E-4	-1.290703E-2	3.421338E-3	3.670246E-3	-1.506518E-3	-1.207800E-3	-1.289108E-3	-7.539030E-9	-4.648820E-3	-2.114964E-3	-3.015829E-3	6.152182E-3	-3.770199E-3	1.399337E-3	-3.683585E-3	-2.808094E-3	-5.653069E-3	-6.461718E-4	-5.347568E-3	2.790987E-3	1.958691E-4	-4.647978E-3	-3.303127E-3	-6.569944E-5	-6.473176E-3	-6.039026E-3	3.680342E-3	-2.144075E-3	-5.942711E-3	-1.468168E-3	-5.525082E-3	-9.290071E-3	-4.596055E-3	-7.937248E-4	-3.654708E-3	-4.991685E-3	-5.151134E-3	-3.756702E-3	1.714600E-3	-4.774272E-3	-2.664290E-3	2.560530E-3	6.340262E-4	-5.612967E-3	1.550532E-3	-5.387346E-3	6.226349E-4	-2.113768E-4	-5.782478E-3	-3.807888E-3	-4.804701E-3	-5.063006E-4	-5.180459E-3	1.788490E-3	-2.074202E-3	5.252986E-3	-1.326368E-2	-2.403345E-3	6.367310E-4	3.802882E-3	1.713148E-3	-3.065127E-3	-1.327712E-3	-8.042915E-3	-1.013895E-2	-5.332583E-3	-6.683194E-3	-1.264160E-2	-6.373931E-3	-4.617695E-3	-4.055104E-3	-1.269348E-3	-6.279971E-3	-2.847659E-3	-1.179217E-3	-1.621214E-3	-4.544914E-3	-5.332289E-3	-5.734020E-3	5.769224E-3	4.533844E-3	1.155482E-4	3.364243E-3	1.687290E-2
2.810040E+2	3.534831E-3	-2.061610E-4	3.700614E-4	3.300830E-3	2.195963E-3	2.431055E-3	3.545868E-3	-3.581237E-3	-5.570106E-3	2.610149E-3	4.567146E-3	5.663193E-4	2.153544E-3	1.038415E-2	4.673923E-3	-6.219906E-3	2.942628E-3	1.299413E-4	1.017197E-3	1.393504E-4	4.987521E-3	-9.942711E-4	-3.398302E-3	3.141097E-3	-6.593716E-3	3.247726E-3	-2.472239E-3	4.479581E-3	-6.399420E-3	-1.673046E-3	-1.213696E-3	-3.315431E-3	-6.402690E-4	-1.131104E-3	5.544501E-3	-1.527163E-3	-2.343001E-3	2.363426E-3	5.925181E-3	1.806217E-3	1.264492E-3	3.197127E-3	-3.184739E-4	8.421114E-3	-6.795106E-3	1.279501E-4	-3.079259E-3	2.624235E-3	-8.937138E-3	-1.825486E-3	-7.156517E-4	3.714859E-3	-2.728965E-3	-4.914771E-3	1.508698E-3	1.597720E-3	2.757904E-3	5.639465E-3	-8.543001E-4	2.551112E-3	9.388763E-4	-6.928087E-4	-6.180157E-4	-3.552320E-3	-6.766917E-4	3.219992E-4	1.048734E-3	1.420583E-3	6.926699E-3	6.737050E-4	-2.324207E-3	1.416854E-3	4.986740E-3	4.223748E-3	-1.546069E-3	-2.104084E-3	2.424764E-3	8.564242E-4	-7.566277E-4	-6.496108E-3	-5.019542E-3	-4.461334E-3	8.863274E-3	-4.962945E-4	8.644914E-4	3.799117E-4	9.212247E-4	-4.862690E-3	8.700972E-3	1.222773E-3	2.631743E-4	3.670238E-3	2.876031E-3	3.623344E-3	-7.734488E-4	-1.040730E-3	7.497977E-4	-5.498898E-3	5.645018E-3	-3.238058E-4	3.040492E-3	4.806409E-3	7.723705E-3	-9.866177E-4	-2.383812E-3	2.972455E-3	3.102888E-3	4.031434E-3	5.419990E-3	2.483188E-3	-5.335830E-3	4.140303E-3	-2.575317E-3	7.022099E-4	-2.103019E-3	9.685278E-3	5.274987E-3	-6.636010E-3	-5.126418E-4	-4.260854E-3	-3.766844E-4	-1.322854E-3	-2.628810E-3	-7.677428E-5	4.682825E-4	6.096953E-3	-4.889813E-3	-1.758967E-3	-5.032552E-3	-7.142525E-3	-4.945645E-3	5.382414E-4	1.550529E-3	-2.852127E-3	-1.641475E-3	3.170563E-3	-1.927468E-3	6.231022E-4	5.338554E-3	-5.062965E-4	-5.698509E-3	-8.611464E-4	5.971244E-3	3.636696E-3	-7.234732E-3	-3.794825E-4	-1.627260E-3	7.686685E-3	-8.248508E-4	3.678069E-4	1.206994E-4	-2.246227E-3	3.379663E-3	5.727590E-3	6.308427E-3	-4.104396E-3	2.124625E-3	-1.495887E-3	5.628736E-3	-7.362299E-3	-2.930638E-3	5.695408E-4	-2.289066E-3	1.473890E-4	-2.088211E-3	-1.159202E-3	-3.267759E-3	-5.768780E-4	1.743726E-3	3.813735E-3	9.175235E-4	-2.024738E-3
2.815020E+2	5.941441E-3	6.940791E-3	8.067108E-3	-7.261778E-3	-6.528691E-4	-5.979124E-3	9.670724E-4	-6.282914E-5	-9.997536E-4	-2.743989E-3	-1.939472E-3	3.398156E-3	6.330076E-3	-4.486987E-3	-3.581317E-3	3.638055E-3	1.765576E-3	6.367239E-3	-3.560213E-3	1.393062E-4	1.496255E-3	8.773043E-4	4.570146E-3	-4.769843E-3	4.758216E-4	-1.948628E-3	3.178608E-3	1.317505E-3	5.333138E-4	7.592971E-3	1.189415E-2	4.458684E-3	1.920840E-3	4.723999E-3	3.240255E-3	4.872381E-3	4.217442E-3	5.188049E-4	1.615972E-3	2.876591E-3	-8.319102E-3	6.850963E-3	4.267408E-3	-6.130565E-3	7.183382E-3	-3.839159E-4	2.716981E-3	1.624517E-3	7.573777E-4	-6.571649E-4	-2.797582E-3	1.931758E-3	5.518567E-3	-1.965962E-3	4.190820E-3	5.325900E-4	-5.314023E-3	1.324936E-2	2.299959E-3	7.503724E-4	-1.341140E-4	7.369164E-3	7.292654E-3	4.287292E-3	2.571384E-3	-1.932152E-4	2.167374E-3	8.807658E-3	-2.308878E-3	-2.470248E-3	1.135074E-3	1.069082E-2	-4.717215E-3	-1.407884E-3	-1.189347E-4	-1.543008E-3	-5.119001E-3	1.910437E-3	1.746234E-4	-2.405969E-4	1.140803E-2	-2.264988E-3	3.687665E-3	-4.963257E-4	-2.593564E-3	6.965241E-3	-2.303106E-3	-1.080576E-3	-3.749200E-3	2.309700E-3	2.631871E-4	5.466555E-4	3.423873E-3	2.012967E-3	2.320365E-3	-1.040794E-3	-2.249459E-3	-3.242923E-3	-2.397194E-3	9.713997E-4	-2.310793E-3	4.258776E-4	-3.564862E-4	2.656290E-3	1.430266E-3	-3.230946E-3	2.574745E-3	3.100794E-4	1.240720E-3	1.464453E-3	9.909398E-3	-4.797502E-3	5.220288E-3	5.758177E-3	-3.154574E-3	3.179164E-3	4.740816E-3	9.807199E-3	1.310060E-3	-2.025674E-3	8.287580E-4	9.260049E-3	4.488222E-4	-6.911634E-4	1.358034E-2	5.111571E-3	1.714609E-3	3.266593E-3	1.480152E-3	9.433402E-4	-5.452940E-3	-1.922233E-3	-9.303205E-4	6.781750E-3	1.528289E-3	3.523142E-4	-2.753583E-4	-1.038518E-3	2.669268E-3	-5.062553E-4	-4.662409E-3	7.286877E-4	-2.074189E-3	3.636732E-3	9.646297E-3	3.668271E-3	-2.759242E-3	1.213698E-3	6.789209E-3	-3.555500E-3	7.845488E-3	5.869159E-3	2.735895E-3	5.200924E-3	-3.185449E-3	8.373007E-3	-8.195055E-3	9.950808E-3	6.597149E-3	2.284820E-3	-2.930621E-3	-1.139042E-3	4.370041E-3	7.811353E-3	5.773265E-3	3.477607E-3	6.103921E-3	-5.769379E-4	5.231355E-3	-5.431659E-3	-5.199308E-3	6.749180E-4
2.820030E+2	-6.091901E-3	4.191952E-3	3.330469E-3	2.127185E-3	4.570011E-3	6.110518E-3	-3.674830E-3	3.455548E-3	-9.997746E-4	-3.279423E-3	6.569214E-3	6.229944E-3	4.763850E-3	1.089696E-2	-1.820965E-4	1.290913E-3	7.062281E-3	-1.429342E-3	2.543041E-3	5.712181E-3	1.995007E-3	9.767408E-3	-1.523414E-3	-6.165891E-3	7.001580E-3	6.365540E-3	-1.530443E-3	-5.006580E-3	1.066569E-2	-6.434767E-4	-2.184637E-3	5.830571E-3	6.402700E-4	-3.792490E-3	3.240294E-3	7.781267E-3	-7.146203E-9	-1.325807E-3	6.404009E-3	2.007039E-4	-5.656988E-3	2.153156E-3	-3.184521E-4	4.648425E-3	2.523903E-3	7.294292E-3	-1.630197E-3	-8.747466E-4	1.969223E-3	1.161005E-2	5.530110E-3	7.875587E-3	6.670833E-4	5.406282E-3	-2.961497E-3	5.325543E-4	4.372318E-3	-1.970382E-3	2.825665E-3	1.950866E-3	4.694416E-3	7.369139E-3	1.322569E-2	2.327396E-3	4.059893E-4	8.565377E-3	8.879271E-3	2.841283E-4	5.954554E-3	5.614156E-3	2.864692E-3	1.416838E-3	3.369444E-3	7.039602E-3	3.567854E-4	4.628977E-3	8.082959E-4	-4.940809E-3	2.502652E-3	3.127752E-3	4.563211E-4	9.265859E-3	6.466978E-5	6.381177E-4	1.358533E-3	-1.646333E-3	9.212416E-4	5.943287E-3	3.607734E-3	-2.581407E-3	-4.474075E-3	5.465983E-4	3.971721E-3	3.086576E-3	1.057066E-2	8.326097E-3	9.747590E-3	5.780866E-3	6.882314E-3	5.504566E-3	3.040480E-3	3.832955E-3	3.445933E-3	1.441980E-3	1.430252E-3	1.938552E-3	3.631112E-3	1.550533E-3	-2.416132E-3	5.539374E-3	1.270434E-3	6.769043E-3	2.992998E-3	6.881672E-3	2.103033E-3	1.996238E-3	4.740796E-3	2.290312E-3	8.543966E-4	1.194440E-2	-5.198781E-3	-1.852000E-3	5.065286E-3	9.138639E-3	-7.805165E-4	2.648172E-3	3.238730E-3	1.758957E-3	2.072221E-3	-1.212878E-3	3.170323E-3	8.534761E-3	-1.922618E-3	3.232426E-3	1.528264E-3	2.043274E-3	1.073886E-2	8.377384E-3	5.338541E-3	1.231929E-2	-5.180384E-4	9.737450E-3	2.451325E-3	-4.444857E-3	1.507235E-2	-8.854413E-4	8.560732E-3	5.744805E-3	5.266393E-3	-1.225903E-4	-3.741686E-3	7.028464E-3	4.667132E-3	7.834261E-3	2.311009E-3	4.432761E-3	1.062326E-2	8.389882E-3	7.868189E-4	1.091649E-2	3.767960E-3	-2.847610E-3	2.705266E-3	-1.621214E-3	5.281935E-3	-2.318531E-4	5.610698E-3	-1.153824E-3	-1.743792E-3	8.436410E-3	8.257756E-3	8.773902E-3
2.825060E+2	2.331481E-3	1.443144E-3	5.698762E-3	2.127177E-3	-3.026880E-3	2.956724E-3	8.187733E-3	4.963435E-3	5.855763E-3	-6.023426E-4	4.567149E-3	6.796304E-3	5.808025E-3	6.409915E-4	8.073141E-3	2.229773E-3	2.354106E-3	1.689272E-3	7.120464E-3	4.597554E-3	3.990002E-3	2.281001E-3	3.632670E-3	6.863940E-3	3.194901E-3	-2.468274E-3	6.004007E-3	5.006595E-3	6.399420E-3	5.019080E-3	2.427345E-4	-3.315437E-3	3.841600E-3	7.385418E-3	-2.160224E-4	2.181712E-4	3.280217E-3	7.436134E-3	6.583742E-4	6.622852E-3	3.926616E-3	5.872084E-4	3.248327E-3	3.031601E-3	5.112515E-3	1.036557E-2	8.513294E-3	1.249468E-4	4.392842E-3	4.016072E-3	6.571112E-3	-3.417712E-3	6.488898E-3	6.880719E-3	6.146356E-4	3.195466E-3	3.834142E-3	-2.513955E-3	-1.905678E-3	-4.502198E-4	-1.743667E-3	6.865279E-3	3.707950E-4	7.717135E-3	-3.924765E-3	5.474093E-3	3.845345E-3	7.102949E-3	-2.794977E-3	6.063331E-3	1.135098E-3	-1.287820E-4	6.738888E-4	-1.971075E-3	6.541141E-3	4.628997E-3	2.963624E-3	6.126609E-3	4.365120E-3	5.533719E-3	1.384172E-2	4.873125E-3	-4.528779E-4	9.713751E-3	-6.051611E-3	8.484976E-3	8.291104E-3	3.782084E-3	-3.183291E-3	5.026929E-3	2.368643E-3	1.796095E-3	6.162969E-3	8.991263E-3	2.836030E-3	-5.203879E-4	3.149221E-3	2.396977E-3	-5.413121E-4	3.237989E-4	1.082417E-2	3.346242E-3	4.396556E-3	3.870597E-3	9.603386E-3	3.877258E-4	1.518487E-3	-3.101229E-4	-3.264910E-4	-1.082410E-3	2.540905E-4	3.614537E-3	8.004456E-3	5.196390E-3	5.257621E-3	8.132616E-4	-1.135100E-3	8.867560E-3	4.499798E-3	-1.466877E-3	1.408947E-2	3.439471E-3	6.604098E-3	2.380640E-3	6.712117E-3	8.560324E-3	2.730689E-3	5.276828E-3	7.992889E-3	5.255813E-3	5.706542E-3	4.844030E-3	1.550508E-3	8.809916E-3	5.603664E-3	1.479579E-3	2.753785E-4	2.284756E-3	5.872434E-3	-1.181316E-3	2.590244E-3	7.617739E-3	2.451350E-3	-5.522385E-3	1.205777E-3	2.656307E-3	-4.952613E-4	1.213702E-3	6.281573E-3	8.582610E-4	5.914313E-3	1.398449E-2	4.667117E-3	8.887625E-3	7.307777E-3	1.165654E-2	6.373898E-3	2.666564E-3	2.239379E-3	3.808086E-3	5.442625E-3	1.252965E-2	6.589733E-3	8.990433E-3	2.333863E-3	8.578041E-3	5.117462E-3	9.807686E-3	3.138819E-3	1.028544E-2	5.810962E-3	6.749180E-4
2.830030E+2	-1.880199E-3	8.040322E-3	1.990869E-2	6.821653E-3	7.418841E-3	1.031562E-2	1.334536E-2	3.455591E-3	8.140959E-3	1.546012E-2	3.566114E-3	1.189349E-2	8.940442E-3	1.653773E-2	1.681403E-2	3.168599E-3	1.706719E-2	7.406773E-3	1.118930E-2	1.128502E-2	9.476324E-3	9.767414E-3	5.038859E-3	1.477488E-2	1.298347E-2	-2.987929E-3	6.004019E-3	3.425569E-3	1.439873E-2	2.445207E-3	1.432152E-2	9.488962E-3	1.280545E-2	5.788564E-3	9.000768E-3	1.185367E-2	-3.280211E-3	7.436162E-3	1.119201E-2	4.482127E-3	1.297782E-2	4.241092E-3	6.305632E-3	2.492635E-3	8.218822E-3	1.497249E-2	1.092845E-2	1.562044E-2	8.634165E-3	1.044181E-2	4.489185E-3	3.714888E-3	7.944384E-3	-4.915435E-4	6.872923E-3	3.195450E-3	4.372269E-3	8.900833E-3	9.659819E-3	9.154104E-3	3.621413E-3	1.643887E-2	5.314960E-3	1.751663E-2	7.984849E-3	1.011097E-2	1.048720E-3	7.671183E-3	1.579788E-3	1.235121E-2	9.783258E-3	1.378213E-2	7.143189E-3	6.476472E-3	8.324939E-4	2.258384E-2	9.429735E-3	-1.976628E-4	3.433900E-3	1.371404E-2	7.149015E-3	7.618585E-3	6.468241E-5	7.444906E-3	1.074473E-2	1.152431E-2	-4.606032E-4	9.185096E-3	1.549200E-2	7.200744E-3	2.368630E-3	4.295021E-3	1.547593E-2	1.221206E-2	5.929904E-3	1.196876E-2	1.394650E-2	5.780921E-3	5.645022E-3	1.716129E-2	1.033771E-2	4.319704E-3	3.921256E-3	7.513475E-3	3.064906E-3	7.108090E-3	4.159242E-3	1.395494E-2	1.168892E-2	9.614370E-3	8.893042E-3	1.044932E-2	-2.018487E-3	1.137586E-2	4.731873E-3	1.264267E-2	7.411690E-3	7.458163E-3	5.866831E-3	6.915162E-3	1.348671E-2	1.613898E-2	-6.412685E-5	1.528223E-2	5.463303E-3	7.082313E-3	5.778896E-3	7.789592E-3	1.687387E-2	1.010734E-2	5.199313E-3	7.304524E-3	4.527503E-3	5.260592E-3	7.867788E-3	2.606910E-3	1.514456E-2	2.284750E-3	1.067709E-2	1.771951E-2	4.144385E-3	1.132727E-2	1.150242E-2	1.010194E-2	7.234712E-3	7.715965E-3	2.900702E-3	1.480702E-2	8.311997E-3	1.409947E-2	1.074230E-2	1.224547E-2	1.609523E-4	7.834257E-3	4.809362E-3	4.432781E-3	6.980982E-3	3.186850E-3	6.112933E-3	3.808051E-3	1.269947E-2	7.973444E-3	3.260181E-3	3.095075E-3	4.299224E-3	1.622890E-3	4.130952E-3	9.807721E-3	5.928874E-3	6.587339E-3	-3.975938E-3	6.074262E-3
2.835020E+2	1.556818E-2	2.068492E-2	2.464537E-2	5.061277E-3	1.786458E-2	1.084123E-2	1.695569E-2	4.460786E-3	1.613903E-2	1.867264E-2	1.307585E-2	1.415897E-2	1.259490E-2	2.474254E-2	2.069889E-2	1.161835E-2	1.589014E-2	1.260446E-2	1.424094E-2	1.072771E-2	1.546136E-2	8.363703E-3	8.319973E-3	1.617094E-2	7.001563E-3	1.104229E-2	1.495116E-2	7.641632E-3	1.599856E-2	9.137330E-3	2.742942E-2	1.269006E-2	1.792761E-2	1.430506E-2	2.109781E-2	2.290741E-2	1.499534E-2	2.496014E-2	2.507726E-2	1.197461E-2	1.617229E-2	9.982807E-3	2.006330E-2	1.219376E-2	2.064413E-2	1.394872E-2	2.252094E-2	1.562042E-2	1.832870E-2	1.861993E-2	2.270610E-2	1.560255E-2	3.578016E-3	2.162514E-2	1.670731E-2	1.491211E-2	1.621110E-2	8.900879E-3	1.071124E-2	9.754438E-3	1.166897E-2	7.369130E-3	1.025917E-2	1.457676E-2	2.097712E-2	1.268704E-2	9.438630E-3	1.960413E-2	1.470408E-2	1.863910E-2	1.367494E-2	1.172125E-2	1.469065E-2	9.855493E-3	1.890978E-2	1.136207E-2	1.481817E-2	1.930213E-2	1.041808E-2	1.804475E-2	2.479336E-2	1.256033E-2	1.507406E-2	1.935671E-2	1.766086E-2	1.557683E-2	1.243665E-2	4.862696E-3	1.492606E-2	2.404785E-2	6.579537E-3	2.241197E-2	2.150195E-2	1.543279E-2	1.933649E-2	1.248916E-2	2.894270E-2	1.367674E-2	2.234827E-2	2.363733E-2	1.228366E-2	1.162060E-2	2.055687E-2	1.662073E-2	2.104572E-2	1.693019E-2	1.313791E-2	1.891665E-2	2.318187E-2	2.082052E-2	1.600746E-2	1.150080E-2	1.190225E-2	1.643180E-2	1.261826E-2	1.855737E-2	1.595852E-2	1.121660E-2	6.778183E-3	3.003570E-3	8.664658E-3	1.931391E-2	1.583705E-2	4.838106E-3	1.670221E-2	1.693589E-2	1.746366E-2	9.799797E-3	2.279452E-2	1.388077E-2	1.382254E-2	9.764979E-3	1.544314E-2	2.503537E-2	9.679061E-3	1.275275E-2	1.624596E-2	1.723937E-2	1.868497E-2	2.987005E-2	2.020374E-2	2.669524E-2	1.552517E-2	1.279578E-2	1.808680E-2	1.581144E-2	1.195665E-2	2.451655E-2	9.834831E-3	9.195329E-3	1.267349E-2	8.767516E-3	1.496697E-2	9.414307E-3	1.280423E-2	1.691021E-2	2.215700E-2	1.671471E-2	1.192330E-2	2.005587E-2	1.102483E-2	1.822497E-2	1.990797E-2	1.193812E-2	2.002213E-2	1.136010E-2	1.103642E-2	2.019232E-2	9.416451E-3	2.889169E-3	4.587621E-3	8.773902E-3
2.840020E+2	2.278821E-2	3.662809E-2	4.714444E-2	1.855790E-2	2.451187E-2	3.869990E-2	2.830249E-2	3.110009E-2	2.927876E-2	2.831006E-2	2.809118E-2	2.831797E-2	3.504385E-2	2.987053E-2	2.555487E-2	2.241521E-2	3.001469E-2	3.287562E-2	3.153344E-2	2.298798E-2	3.491270E-2	2.661178E-2	3.410021E-2	3.850775E-2	2.657879E-2	2.663143E-2	3.049094E-2	2.766801E-2	3.359699E-2	3.539100E-2	3.810987E-2	2.275067E-2	3.969697E-2	3.240258E-2	3.492310E-2	2.930695E-2	2.014996E-2	2.726594E-2	3.034414E-2	2.695951E-2	2.682077E-2	2.564214E-2	3.025411E-2	2.836229E-2	3.099856E-2	3.391203E-2	4.135889E-2	3.611447E-2	2.317597E-2	4.549107E-2	3.727963E-2	2.451835E-2	2.929105E-2	3.342070E-2	2.788279E-2	3.621520E-2	2.751180E-2	3.390482E-2	2.543097E-2	2.716223E-2	3.098315E-2	3.608990E-2	4.239623E-2	1.702664E-2	3.559345E-2	3.793232E-2	3.628610E-2	3.210528E-2	3.220315E-2	2.986747E-2	1.583697E-2	2.614744E-2	2.924659E-2	4.364562E-2	2.937560E-2	2.651146E-2	3.313876E-2	2.984253E-2	2.904260E-2	3.296176E-2	2.844394E-2	3.397471E-2	3.577666E-2	3.013401E-2	3.050511E-2	3.431972E-2	3.086130E-2	3.619991E-2	3.360135E-2	2.078705E-2	3.710855E-2	2.491084E-2	3.191051E-2	3.690449E-2	3.016503E-2	2.393757E-2	4.273927E-2	3.962027E-2	2.482280E-2	3.464655E-2	2.395913E-2	2.670911E-2	3.053828E-2	3.422803E-2	2.812905E-2	3.037092E-2	3.532052E-2	3.318170E-2	3.519728E-2	3.966723E-2	2.413825E-2	4.304584E-2	4.197121E-2	2.879076E-2	2.418511E-2	3.334403E-2	2.877871E-2	4.128413E-2	2.135979E-2	2.982607E-2	2.554183E-2	3.042597E-2	3.122531E-2	4.354282E-2	3.043862E-2	3.171637E-2	2.457611E-2	2.738923E-2	2.812313E-2	4.352904E-2	3.715602E-2	3.252432E-2	3.380124E-2	2.199314E-2	3.277294E-2	3.586279E-2	3.441945E-2	2.831691E-2	1.921881E-2	2.446980E-2	2.849252E-2	3.782377E-2	3.262165E-2	3.003638E-2	4.702572E-2	4.262760E-2	3.176664E-2	4.393559E-2	2.455532E-2	3.960114E-2	2.619187E-2	4.760523E-2	2.526687E-2	3.311462E-2	3.379067E-2	4.120834E-2	4.704575E-2	3.492528E-2	2.838579E-2	3.071848E-2	3.949388E-2	3.872806E-2	3.822052E-2	2.313926E-2	2.493550E-2	2.712516E-2	2.090140E-2	3.634610E-2	3.452684E-2	2.507804E-2	2.538487E-2	2.497189E-2
2.841030E+2	3.843160E-2	3.662810E-2	4.418403E-2	3.381498E-2	2.498666E-2	3.817430E-2	3.397586E-2	3.662903E-2	2.585100E-2	3.259341E-2	2.658968E-2	3.568057E-2	3.869831E-2	3.294733E-2	3.720940E-2	3.086491E-2	3.648850E-2	2.819768E-2	3.255064E-2	3.859195E-2	3.640899E-2	2.941923E-2	3.925628E-2	4.129985E-2	2.331589E-2	4.170097E-2	4.555973E-2	3.610012E-2	3.306367E-2	3.487624E-2	4.684846E-2	3.784153E-2	3.713582E-2	4.091904E-2	4.759621E-2	2.814340E-2	2.717899E-2	3.695019E-2	4.614462E-2	3.659267E-2	4.013135E-2	3.086192E-2	4.350223E-2	4.291395E-2	2.892766E-2	4.363774E-2	4.280799E-2	3.011623E-2	4.741218E-2	2.796638E-2	3.884102E-2	3.046213E-2	2.880591E-2	3.489515E-2	3.592913E-2	3.568261E-2	3.827438E-2	5.075526E-2	3.279083E-2	3.796710E-2	3.795766E-2	4.364803E-2	4.190182E-2	3.123594E-2	3.884153E-2	4.566045E-2	4.915048E-2	2.642294E-2	3.074495E-2	4.154502E-2	2.534996E-2	2.717785E-2	4.164609E-2	2.900316E-2	4.602575E-2	3.043905E-2	3.744945E-2	3.458574E-2	4.580466E-2	3.825492E-2	3.452822E-2	3.562197E-2	5.078604E-2	3.353743E-2	3.297517E-2	3.026721E-2	2.947951E-2	3.998202E-2	3.077178E-2	3.491690E-2	3.079216E-2	3.553119E-2	3.738871E-2	3.099978E-2	3.738401E-2	3.018212E-2	4.393901E-2	2.946840E-2	4.647507E-2	3.270375E-2	2.833748E-2	2.768258E-2	4.242084E-2	4.151377E-2	4.992393E-2	4.329471E-2	3.954580E-2	4.620632E-2	3.363007E-2	4.221404E-2	3.176083E-2	3.515961E-2	4.475531E-2	3.553207E-2	2.576236E-2	4.339898E-2	3.091545E-2	3.705587E-2	3.138471E-2	4.267853E-2	4.241906E-2	3.730490E-2	3.789350E-2	3.125564E-2	3.106301E-2	3.713586E-2	2.457609E-2	3.442498E-2	2.693900E-2	3.436502E-2	3.208354E-2	5.159290E-2	2.834342E-2	3.061288E-2	3.050885E-2	4.375396E-2	4.157871E-2	2.333203E-2	3.203132E-2	4.539573E-2	4.610601E-2	3.994348E-2	2.809610E-2	4.404440E-2	3.918810E-2	5.325293E-2	3.572859E-2	3.487342E-2	4.079865E-2	3.420657E-2	3.729631E-2	3.485254E-2	3.041683E-2	3.416795E-2	3.678873E-2	3.398458E-2	5.433023E-2	3.856745E-2	3.032259E-2	2.716421E-2	4.284319E-2	4.499287E-2	2.323752E-2	3.787765E-2	3.721901E-2	4.057187E-2	2.830012E-2	4.096152E-2	4.289704E-2	3.987060E-2	3.761856E-2	3.307087E-2
2.842030E+2	4.565168E-2	4.817317E-2	4.892066E-2	3.264139E-2	4.160487E-2	3.291789E-2	3.346019E-2	3.461852E-2	2.813611E-2	3.580592E-2	3.059370E-2	4.530869E-2	3.504381E-2	3.448568E-2	4.012302E-2	2.945665E-2	2.824914E-2	3.547452E-2	4.272270E-2	3.023265E-2	2.942641E-2	3.269449E-2	3.691265E-2	3.199287E-2	3.147306E-2	3.702415E-2	4.838519E-2	3.662714E-2	4.319615E-2	3.539101E-2	4.442107E-2	3.326858E-2	3.329420E-2	3.240255E-2	4.586805E-2	4.210601E-2	3.701967E-2	3.326095E-2	3.130172E-2	2.749471E-2	3.853411E-2	3.869156E-2	4.248320E-2	3.914128E-2	4.704788E-2	4.312588E-2	4.957034E-2	3.161573E-2	4.074726E-2	4.490689E-2	4.716876E-2	4.234979E-2	2.929108E-2	3.292920E-2	3.861126E-2	4.367123E-2	2.320679E-2	4.314540E-2	3.647077E-2	2.896304E-2	4.332275E-2	4.415188E-2	4.387950E-2	3.123595E-2	4.587896E-2	4.720607E-2	4.299794E-2	3.949239E-2	3.268922E-2	3.840104E-2	3.616018E-2	4.211928E-2	2.115998E-2	4.139289E-2	3.318138E-2	3.829429E-2	4.068253E-2	3.722081E-2	4.068292E-2	4.114200E-2	3.087762E-2	3.342557E-2	3.991716E-2	3.467187E-2	3.001107E-2	3.685251E-2	3.362503E-2	4.376409E-2	2.963993E-2	4.306867E-2	4.289852E-2	3.927953E-2	4.067559E-2	3.207340E-2	4.666554E-2	4.267127E-2	5.233690E-2	3.567229E-2	3.719548E-2	4.436047E-2	3.222929E-2	3.839060E-2	3.624192E-2	4.394247E-2	3.630213E-2	4.019297E-2	2.951076E-2	4.558609E-2	4.146624E-2	4.068590E-2	4.751420E-2	3.200506E-2	5.255100E-2	3.721735E-2	5.362777E-2	2.683790E-2	3.785971E-2	3.752569E-2	4.414363E-2	4.714893E-2	5.146041E-2	4.312547E-2	4.045824E-2	4.047099E-2	3.855561E-2	4.206266E-2	3.930909E-2	4.095821E-2	2.634692E-2	3.975560E-2	4.172125E-2	2.575799E-2	4.173990E-2	2.959880E-2	3.775396E-2	4.149936E-2	3.441945E-2	3.385565E-2	4.110687E-2	4.944585E-2	3.988948E-2	4.736246E-2	3.815292E-2	3.650162E-2	2.833601E-2	4.819326E-2	3.516259E-2	4.134637E-2	4.485947E-2	4.499571E-2	3.729630E-2	3.253387E-2	4.329166E-2	4.575475E-2	3.728839E-2	3.070106E-2	3.794012E-2	4.325019E-2	3.613292E-2	2.919523E-2	5.344931E-2	4.043667E-2	2.601214E-2	3.905674E-2	2.837490E-2	2.805255E-2	3.767184E-2	4.788463E-2	3.592186E-2	2.785165E-2	4.006525E-2	3.847028E-2
2.843040E+2	5.708335E-2	5.477029E-2	6.253846E-2	5.376659E-2	5.394977E-2	5.341773E-2	4.790148E-2	5.371837E-2	4.813141E-2	4.865586E-2	4.060393E-2	5.946764E-2	5.331629E-2	5.858722E-2	5.954720E-2	3.978405E-2	5.061310E-2	5.106771E-2	7.374745E-2	4.360751E-2	5.935162E-2	6.170430E-2	6.550525E-2	5.293358E-2	4.126162E-2	4.741694E-2	5.073966E-2	3.610013E-2	5.759484E-2	7.811763E-2	5.995630E-2	5.293245E-2	4.673989E-2	5.209694E-2	6.142139E-2	6.828596E-2	4.170571E-2	6.323615E-2	5.045383E-2	6.709779E-2	6.302557E-2	6.374651E-2	4.859767E-2	4.830342E-2	5.947322E-2	6.155359E-2	6.551009E-2	4.261259E-2	5.892447E-2	5.483752E-2	6.434471E-2	5.245430E-2	4.287532E-2	5.799474E-2	5.559797E-2	5.485534E-2	5.441823E-2	6.597511E-2	5.119051E-2	5.177330E-2	6.156388E-2	6.833784E-2	6.068973E-2	4.936510E-2	4.642035E-2	5.287342E-2	5.809970E-2	4.687941E-2	4.970225E-2	4.513805E-2	5.172689E-2	6.221289E-2	5.081094E-2	5.378260E-2	4.983151E-2	5.344366E-2	5.954202E-2	5.935573E-2	6.582600E-2	5.220949E-2	6.860009E-2	5.429090E-2	6.683054E-2	4.715089E-2	4.483144E-2	5.964791E-2	4.928601E-2	5.457009E-2	5.057890E-2	4.904668E-2	5.553115E-2	5.052453E-2	5.327552E-2	5.139789E-2	6.161916E-2	5.411970E-2	6.853285E-2	4.638808E-2	5.699187E-2	6.767406E-2	5.266142E-2	5.396579E-2	5.050104E-2	6.579985E-2	6.027656E-2	4.949811E-2	5.010893E-2	5.550960E-2	5.243680E-2	5.800452E-2	6.225118E-2	4.935486E-2	6.201711E-2	5.069988E-2	6.256568E-2	3.866718E-2	5.762426E-2	5.443865E-2	5.097873E-2	5.944261E-2	5.628247E-2	4.153804E-2	4.917828E-2	5.460132E-2	5.603824E-2	7.260892E-2	5.658217E-2	4.497867E-2	5.358197E-2	6.563044E-2	6.860551E-2	4.728706E-2	5.563251E-2	4.430314E-2	6.628174E-2	6.630033E-2	5.589719E-2	4.825642E-2	5.338547E-2	6.159643E-2	6.423763E-2	7.756851E-2	5.575223E-2	4.835455E-2	6.631835E-2	6.489018E-2	5.044454E-2	6.011814E-2	5.399634E-2	5.725613E-2	4.936631E-2	7.600898E-2	6.517889E-2	4.891486E-2	3.978679E-2	7.010343E-2	6.464993E-2	6.146073E-2	5.937415E-2	5.356688E-2	7.019581E-2	6.834363E-2	5.597817E-2	4.672071E-2	6.227735E-2	5.633696E-2	3.520562E-2	7.096154E-2	5.335965E-2	4.634228E-2	4.618211E-2	2.497180E-2
2.844010E+2	9.739517E-2	7.071357E-2	8.740594E-2	7.841265E-2	7.816491E-2	6.813555E-2	7.007932E-2	8.638913E-2	8.355155E-2	8.720581E-2	8.014431E-2	8.778554E-2	8.829464E-2	1.026879E-1	1.085932E-1	8.297150E-2	7.533106E-2	8.433327E-2	7.679918E-2	7.537267E-2	8.977557E-2	6.919072E-2	7.909846E-2	9.155775E-2	7.225884E-2	7.911489E-2	7.946478E-2	7.984198E-2	8.852534E-2	7.039594E-2	8.083182E-2	6.162114E-2	9.155902E-2	7.179129E-2	1.052012E-1	9.330230E-2	7.497654E-2	7.522627E-2	7.199996E-2	8.047721E-2	7.633612E-2	7.836185E-2	8.324659E-2	6.231610E-2	8.277065E-2	1.055752E-1	9.304248E-2	5.960757E-2	8.073715E-2	8.930271E-2	9.921714E-2	7.385207E-2	6.179627E-2	9.682161E-2	7.034957E-2	8.521208E-2	7.163840E-2	9.043564E-2	9.219532E-2	9.139102E-2	9.053528E-2	1.010895E-1	9.579320E-2	7.190400E-2	7.132233E-2	6.626883E-2	9.109976E-2	7.188176E-2	7.692312E-2	8.511101E-2	7.896873E-2	7.509335E-2	6.590597E-2	6.786180E-2	8.979191E-2	7.700942E-2	7.247419E-2	8.834174E-2	9.888456E-2	7.915633E-2	1.044972E-1	8.723614E-2	9.012098E-2	7.551227E-2	7.298997E-2	8.294988E-2	7.508057E-2	8.860884E-2	8.340209E-2	8.926229E-2	7.448023E-2	9.612935E-2	8.231002E-2	8.789977E-2	8.894808E-2	8.326105E-2	8.712819E-2	8.248344E-2	9.163553E-2	1.052348E-1	8.574209E-2	7.051455E-2	7.474155E-2	1.004073E-1	7.662273E-2	8.206608E-2	7.704499E-2	8.714066E-2	8.273643E-2	8.652913E-2	8.308637E-2	7.143639E-2	9.542708E-2	9.283275E-2	9.411133E-2	7.829557E-2	8.005964E-2	7.745898E-2	7.011715E-2	9.241176E-2	9.606450E-2	9.868597E-2	7.020881E-2	9.453471E-2	9.912063E-2	7.211626E-2	9.925692E-2	7.161406E-2	1.003552E-1	7.587256E-2	1.005620E-1	8.357898E-2	7.547914E-2	7.320471E-2	8.575303E-2	8.771931E-2	9.775129E-2	7.428861E-2	7.580746E-2	8.522251E-2	8.806767E-2	9.028690E-2	9.447093E-2	7.744805E-2	1.157555E-1	9.069443E-2	9.572440E-2	7.630069E-2	7.125482E-2	8.864289E-2	7.060949E-2	8.876153E-2	7.161629E-2	8.578195E-2	7.176624E-2	9.243147E-2	1.138204E-1	9.163818E-2	9.326779E-2	7.235340E-2	8.247661E-2	8.713815E-2	8.094985E-2	7.383936E-2	8.684422E-2	7.627513E-2	7.417229E-2	9.115389E-2	8.614277E-2	7.500286E-2	8.288307E-2	5.466826E-2
2.845030E+2	1.346986E-1	1.119458E-1	1.442457E-1	9.073571E-2	1.085525E-1	1.133400E-1	1.092775E-1	1.281074E-1	1.138300E-1	1.423534E-1	1.021666E-1	1.166698E-1	1.311040E-1	1.283279E-1	1.411284E-1	1.139537E-1	1.094653E-1	1.243557E-1	1.388486E-1	1.121533E-1	1.137156E-1	1.113018E-1	1.109722E-1	1.073795E-1	9.727415E-2	1.113321E-1	1.100734E-1	1.114622E-1	1.317216E-1	1.229034E-1	1.206407E-1	1.110096E-1	1.293351E-1	1.117123E-1	1.489808E-1	1.101735E-1	1.096531E-1	1.079682E-1	1.165286E-1	1.259671E-1	1.168002E-1	1.096805E-1	1.433727E-1	9.034157E-2	1.288477E-1	1.419184E-1	1.442429E-1	9.009876E-2	1.267862E-1	1.418765E-1	1.392943E-1	1.112983E-1	1.258360E-1	1.140234E-1	1.177333E-1	1.214274E-1	1.189935E-1	1.317466E-1	1.200578E-1	1.238057E-1	1.254078E-1	1.298106E-1	1.249639E-1	1.101222E-1	1.341181E-1	1.208809E-1	1.162691E-1	1.133630E-1	1.226152E-1	1.268807E-1	1.049131E-1	1.266154E-1	1.074173E-1	1.264313E-1	1.226163E-1	1.342405E-1	1.285138E-1	1.447330E-1	1.249588E-1	1.085091E-1	1.166658E-1	1.245737E-1	1.294559E-1	1.044409E-1	1.159690E-1	1.138502E-1	1.073237E-1	1.275101E-1	1.224503E-1	1.099134E-1	1.234317E-1	1.073744E-1	1.266831E-1	1.367478E-1	1.250430E-1	1.274933E-1	1.357158E-1	1.343706E-1	1.318470E-1	1.350242E-1	1.222280E-1	1.099394E-1	1.080129E-1	1.350149E-1	1.229369E-1	1.079136E-1	1.145443E-1	1.169113E-1	1.172158E-1	1.303352E-1	1.450833E-1	1.124450E-1	9.988162E-2	1.377741E-1	1.377496E-1	1.220644E-1	1.302722E-1	1.272583E-1	1.083940E-1	1.454980E-1	1.322298E-1	1.224975E-1	1.220160E-1	1.295534E-1	1.415788E-1	1.317308E-1	1.338030E-1	1.193565E-1	1.216694E-1	1.308568E-1	1.228810E-1	1.284823E-1	1.042567E-1	1.036277E-1	1.292240E-1	1.305572E-1	1.142728E-1	1.047519E-1	1.420056E-1	1.209991E-1	1.248490E-1	1.353308E-1	1.412349E-1	1.318638E-1	1.507234E-1	1.428089E-1	1.240242E-1	1.364996E-1	1.189694E-1	1.367035E-1	1.203381E-1	1.380336E-1	1.083097E-1	1.305493E-1	1.222333E-1	1.370875E-1	1.654188E-1	1.379451E-1	1.470130E-1	1.104340E-1	1.399728E-1	1.366872E-1	1.175749E-1	1.227708E-1	1.182899E-1	1.203245E-1	1.096859E-1	1.442307E-1	1.293887E-1	1.166069E-1	1.110206E-1	1.113611E-1
2.846040E+2	1.990773E-1	2.032069E-1	1.951643E-1	1.916673E-1	1.816723E-1	1.748396E-1	1.912837E-1	1.778676E-1	1.920971E-1	2.087452E-1	1.632289E-1	1.987917E-1	1.963633E-1	2.257595E-1	1.926026E-1	1.735711E-1	1.906816E-1	2.023217E-1	1.942866E-1	1.767984E-1	1.615962E-1	1.828903E-1	1.878441E-1	1.962616E-1	1.592686E-1	1.830423E-1	1.873015E-1	1.862978E-1	2.074485E-1	2.129895E-1	2.119104E-1	1.942378E-1	2.093696E-1	1.793121E-1	2.163790E-1	1.939493E-1	1.822869E-1	1.946658E-1	1.945736E-1	2.008921E-1	1.870801E-1	1.843234E-1	1.861745E-1	1.609437E-1	2.163429E-1	2.059036E-1	2.427799E-1	1.780731E-1	1.982830E-1	2.102226E-1	2.012316E-1	1.867846E-1	1.728960E-1	2.088796E-1	1.812103E-1	1.778803E-1	1.803403E-1	2.138246E-1	1.926052E-1	2.066430E-1	2.064203E-1	2.194996E-1	2.020930E-1	1.444205E-1	2.099069E-1	2.100124E-1	2.152695E-1	1.707551E-1	1.755985E-1	1.951490E-1	2.130156E-1	1.853504E-1	1.909790E-1	1.917590E-1	1.877899E-1	2.251366E-1	2.109563E-1	1.995433E-1	1.999224E-1	1.830943E-1	2.158393E-1	1.866205E-1	2.091607E-1	2.003026E-1	1.624055E-1	1.923677E-1	1.718099E-1	1.977486E-1	1.903605E-1	2.387124E-1	1.765944E-1	2.135773E-1	2.285780E-1	2.194140E-1	2.029049E-1	1.800522E-1	2.124971E-1	2.082528E-1	2.141252E-1	1.958986E-1	1.854704E-1	1.688333E-1	1.759812E-1	2.145514E-1	1.883218E-1	1.999314E-1	2.080281E-1	2.080835E-1	2.122939E-1	2.128531E-1	2.253747E-1	1.692261E-1	2.012250E-1	1.877718E-1	2.108307E-1	1.853514E-1	1.868946E-1	1.878633E-1	1.858589E-1	2.114370E-1	2.280687E-1	1.796454E-1	1.902368E-1	2.296942E-1	2.077631E-1	2.135159E-1	2.044198E-1	2.098166E-1	1.785081E-1	2.003950E-1	2.080993E-1	1.881487E-1	1.806662E-1	1.806986E-1	1.935246E-1	1.965053E-1	2.073427E-1	1.706630E-1	1.767062E-1	1.878270E-1	2.139523E-1	1.957428E-1	2.252087E-1	1.981326E-1	2.182479E-1	2.085844E-1	1.987357E-1	1.986407E-1	2.042472E-1	1.862356E-1	1.922751E-1	2.064343E-1	2.190335E-1	1.895367E-1	1.836941E-1	2.112955E-1	2.352283E-1	2.274371E-1	2.273891E-1	1.799950E-1	2.181235E-1	1.907926E-1	2.169064E-1	1.982316E-1	1.875690E-1	1.870941E-1	1.851531E-1	2.163461E-1	2.179728E-1	1.646827E-1	1.685188E-1	2.193476E-1
2.847030E+2	4.216950E-1	3.324017E-1	4.337731E-1	3.160712E-1	3.203161E-1	3.630171E-1	3.454966E-1	3.613271E-1	3.503448E-1	3.832908E-1	3.023712E-1	3.556730E-1	4.062346E-1	4.298534E-1	3.761610E-1	2.913978E-1	3.466405E-1	3.603326E-1	3.529712E-1	3.205776E-1	3.576057E-1	3.541421E-1	3.354951E-1	3.186489E-1	2.903271E-1	3.727104E-1	3.634185E-1	3.412385E-1	3.764999E-1	3.736002E-1	3.963916E-1	3.254830E-1	3.848043E-1	3.815786E-1	3.845857E-1	3.649917E-1	3.027176E-1	3.514595E-1	3.415663E-1	3.657268E-1	3.654412E-1	3.414386E-1	3.482092E-1	3.167007E-1	4.032398E-1	4.132149E-1	3.818904E-1	3.340276E-1	4.121688E-1	3.983209E-1	4.010972E-1	3.175491E-1	3.281451E-1	3.651702E-1	3.291735E-1	3.610865E-1	3.622274E-1	3.817861E-1	3.440081E-1	3.519087E-1	4.161936E-1	3.983750E-1	3.805776E-1	3.320811E-1	3.917983E-1	3.985793E-1	4.211001E-1	3.315658E-1	3.403814E-1	3.465078E-1	3.552779E-1	3.862867E-1	3.327640E-1	3.370563E-1	3.604754E-1	3.755082E-1	3.887741E-1	4.098245E-1	3.857016E-1	3.553610E-1	3.892411E-1	3.628771E-1	3.763342E-1	3.477818E-1	3.382732E-1	3.529485E-1	3.417779E-1	3.868529E-1	3.561742E-1	3.772931E-1	3.413454E-1	3.997449E-1	3.907327E-1	4.008498E-1	3.890511E-1	3.642675E-1	3.678580E-1	3.763217E-1	3.706403E-1	3.668648E-1	3.430899E-1	3.226391E-1	3.295047E-1	4.003390E-1	3.501486E-1	3.420929E-1	3.728133E-1	3.867069E-1	3.930476E-1	3.926611E-1	4.291517E-1	3.527130E-1	3.766269E-1	3.911334E-1	3.853839E-1	3.444561E-1	3.914844E-1	3.424291E-1	3.362318E-1	4.042241E-1	4.245674E-1	3.405064E-1	3.636109E-1	4.078589E-1	4.543939E-1	4.125596E-1	4.116976E-1	3.439988E-1	3.537597E-1	3.507925E-1	3.815784E-1	3.640719E-1	3.116539E-1	3.302771E-1	3.737477E-1	3.768756E-1	3.747593E-1	3.251945E-1	3.518109E-1	3.721097E-1	4.284236E-1	4.055951E-1	3.841062E-1	3.559917E-1	4.298636E-1	3.583508E-1	3.877791E-1	3.857110E-1	3.753094E-1	3.632761E-1	3.453226E-1	3.884500E-1	3.658065E-1	3.327923E-1	3.470884E-1	3.583980E-1	4.519424E-1	4.111042E-1	4.263924E-1	3.353641E-1	3.850305E-1	4.015185E-1	3.978125E-1	3.621225E-1	3.560989E-1	3.280528E-1	3.355940E-1	4.159613E-1	3.811900E-1	3.856465E-1	3.544702E-1	4.110237E-1
2.848000E+2	7.411821E-1	7.617683E-1	7.795489E-1	6.886968E-1	6.645498E-1	7.136160E-1	6.704275E-1	7.026115E-1	7.034038E-1	7.543332E-1	6.332086E-1	7.113464E-1	7.690719E-1	8.047094E-1	7.869815E-1	6.505106E-1	7.486028E-1	7.522417E-1	7.532427E-1	6.616353E-1	7.062347E-1	6.914978E-1	6.729814E-1	7.137316E-1	6.318401E-1	7.385355E-1	7.170665E-1	6.837943E-1	7.897965E-1	8.163095E-1	8.095313E-1	6.849208E-1	7.286311E-1	6.918980E-1	8.051024E-1	7.245289E-1	6.635424E-1	6.544393E-1	6.973169E-1	7.082397E-1	7.370724E-1	7.109986E-1	7.206853E-1	6.400707E-1	7.822122E-1	7.971248E-1	8.040531E-1	6.379388E-1	7.581420E-1	8.019717E-1	8.273732E-1	7.027094E-1	6.643554E-1	7.175624E-1	6.657785E-1	7.014025E-1	7.125497E-1	7.459743E-1	7.193610E-1	6.874595E-1	8.073056E-1	8.317064E-1	7.588064E-1	6.780042E-1	7.994315E-1	7.504669E-1	8.333217E-1	7.208069E-1	6.646009E-1	7.161464E-1	6.882331E-1	7.149974E-1	7.257736E-1	7.335275E-1	7.120318E-1	7.413384E-1	7.438706E-1	8.061445E-1	7.563292E-1	6.642876E-1	7.974951E-1	7.302159E-1	7.060233E-1	6.733711E-1	6.712366E-1	7.045043E-1	6.568399E-1	7.683030E-1	7.240203E-1	7.555368E-1	6.666379E-1	7.683315E-1	8.010498E-1	7.980760E-1	7.799072E-1	7.337383E-1	7.649588E-1	7.118955E-1	7.838894E-1	7.249869E-1	6.928692E-1	6.643210E-1	6.788534E-1	8.465939E-1	6.797963E-1	6.667380E-1	7.161154E-1	7.309287E-1	7.911234E-1	8.297005E-1	7.950371E-1	6.707924E-1	7.474768E-1	7.871827E-1	7.150364E-1	7.318675E-1	7.301519E-1	6.741117E-1	6.766223E-1	7.881203E-1	7.958662E-1	7.336627E-1	6.888155E-1	7.660307E-1	8.621155E-1	7.781295E-1	7.901824E-1	7.018177E-1	7.202489E-1	7.405330E-1	7.792619E-1	6.771659E-1	6.644269E-1	6.897724E-1	6.893641E-1	7.928557E-1	7.393302E-1	6.713671E-1	7.078921E-1	8.615060E-1	8.211017E-1	7.617083E-1	7.773264E-1	6.970324E-1	8.157158E-1	7.712189E-1	7.845436E-1	8.103406E-1	7.362157E-1	6.898933E-1	7.204586E-1	8.463883E-1	7.546266E-1	7.093641E-1	7.283425E-1	7.557055E-1	8.422701E-1	8.439962E-1	7.546756E-1	6.506731E-1	7.478718E-1	8.007596E-1	7.901454E-1	7.111276E-1	6.877534E-1	6.591188E-1	7.001049E-1	8.134615E-1	7.620325E-1	6.953656E-1	6.603114E-1	6.944881E-1
2.849010E+2	9.349191E-1	8.832664E-1	9.832245E-1	8.483092E-1	8.041422E-1	8.881273E-1	8.566175E-1	8.895894E-1	8.816472E-1	9.684995E-1	7.563347E-1	8.959787E-1	9.794651E-1	1.056493E+0	1.010360E+0	8.274847E-1	8.716037E-1	8.863431E-1	9.332879E-1	8.249203E-1	8.379048E-1	8.847404E-1	8.759419E-1	8.542674E-1	8.015095E-1	9.230068E-1	8.814111E-1	8.260868E-1	9.807127E-1	9.908194E-1	1.003237E+0	8.317141E-1	9.808980E-1	9.026814E-1	1.055109E+0	9.124428E-1	8.594192E-1	8.688776E-1	8.534067E-1	9.009030E-1	8.446213E-1	9.015202E-1	8.898539E-1	7.850490E-1	9.618615E-1	1.029006E+0	1.029142E+0	7.773983E-1	9.641506E-1	1.023950E+0	9.366744E-1	8.245580E-1	8.564759E-1	9.284076E-1	8.651489E-1	9.149653E-1	8.858274E-1	1.026453E+0	8.344902E-1	8.909511E-1	9.886439E-1	1.034263E+0	9.298752E-1	8.240169E-1	9.585872E-1	9.472773E-1	9.966440E-1	8.270672E-1	8.527156E-1	8.791818E-1	8.291980E-1	9.205709E-1	8.815760E-1	9.007885E-1	9.199202E-1	9.394024E-1	9.340817E-1	9.990341E-1	9.882046E-1	8.461789E-1	9.885411E-1	9.262396E-1	9.746388E-1	8.616911E-1	8.792147E-1	8.590065E-1	8.323348E-1	9.784781E-1	8.830441E-1	9.087902E-1	8.634965E-1	9.632453E-1	1.013604E+0	1.031581E+0	9.608975E-1	8.950563E-1	9.695073E-1	9.403112E-1	9.917515E-1	9.166760E-1	8.509749E-1	8.278608E-1	8.228699E-1	9.965594E-1	8.361751E-1	9.071211E-1	9.421671E-1	8.835020E-1	1.018894E+0	1.012055E+0	1.038451E+0	8.495476E-1	9.351289E-1	9.422313E-1	9.621453E-1	8.951129E-1	9.042934E-1	8.822350E-1	8.160592E-1	1.016671E+0	9.809125E-1	8.982275E-1	8.996343E-1	9.583259E-1	1.021333E+0	9.756945E-1	1.029974E+0	8.626349E-1	9.067493E-1	8.726022E-1	9.517269E-1	8.309455E-1	8.083150E-1	8.008157E-1	8.727567E-1	9.991541E-1	8.940802E-1	8.308833E-1	8.931398E-1	1.001912E+0	1.002936E+0	9.705006E-1	1.003101E+0	8.931441E-1	1.043006E+0	9.690518E-1	9.130247E-1	9.585730E-1	9.088004E-1	9.169561E-1	8.783343E-1	1.021448E+0	9.780056E-1	8.889597E-1	8.667528E-1	1.004597E+0	1.032274E+0	1.030784E+0	9.928982E-1	8.492005E-1	9.477139E-1	9.385857E-1	9.261021E-1	8.767872E-1	8.685665E-1	8.496911E-1	8.362416E-1	1.021154E+0	9.336203E-1	8.599336E-1	8.719541E-1	9.617550E-1
2.850030E+2	9.740281E-1	8.838163E-1	1.044801E+0	8.524173E-1	8.107901E-1	8.508072E-1	8.380501E-1	9.101973E-1	8.713638E-1	9.679642E-1	7.738522E-1	8.795546E-1	9.591048E-1	9.990595E-1	9.719968E-1	7.922777E-1	8.980874E-1	8.956987E-1	9.078575E-1	8.433102E-1	8.309231E-1	8.459050E-1	8.529746E-1	8.780004E-1	7.928075E-1	9.115749E-1	8.922418E-1	8.635051E-1	9.556486E-1	9.527263E-1	9.532324E-1	8.353723E-1	9.418421E-1	8.585020E-1	9.761900E-1	8.996435E-1	8.345826E-1	8.582707E-1	8.988926E-1	9.062552E-1	8.398297E-1	9.004765E-1	9.352029E-1	7.877430E-1	1.019846E+0	9.778183E-1	9.798737E-1	7.474072E-1	9.889922E-1	1.033297E+0	9.653009E-1	8.887516E-1	8.215449E-1	9.598624E-1	8.284935E-1	8.984557E-1	8.890562E-1	9.813378E-1	8.124114E-1	8.915514E-1	9.349937E-1	1.046860E+0	9.778332E-1	7.951085E-1	9.742861E-1	9.127580E-1	9.904911E-1	8.890050E-1	8.507716E-1	9.290365E-1	8.296308E-1	9.252075E-1	8.627071E-1	9.199365E-1	8.223985E-1	9.079817E-1	9.524025E-1	9.726826E-1	9.868079E-1	8.312614E-1	9.800236E-1	9.158069E-1	9.767092E-1	8.401359E-1	8.298134E-1	8.569802E-1	8.410868E-1	9.368753E-1	8.530506E-1	9.115076E-1	8.777086E-1	9.345084E-1	1.018534E+0	9.993739E-1	9.511002E-1	9.283612E-1	9.407151E-1	8.906797E-1	9.298879E-1	9.658931E-1	8.490289E-1	8.531710E-1	8.998692E-1	1.032381E+0	8.350855E-1	8.404342E-1	8.983299E-1	9.461446E-1	9.645634E-1	9.870962E-1	1.033878E+0	8.232602E-1	9.245495E-1	9.326812E-1	9.631969E-1	8.838751E-1	9.197843E-1	8.249190E-1	8.670946E-1	9.904070E-1	9.893516E-1	8.754739E-1	9.006598E-1	9.368235E-1	9.919874E-1	1.023484E+0	9.522448E-1	8.550976E-1	8.481348E-1	8.758364E-1	9.172341E-1	8.832303E-1	8.028570E-1	8.499992E-1	8.691341E-1	9.450434E-1	8.692985E-1	8.142671E-1	8.408225E-1	9.472354E-1	9.521672E-1	9.932872E-1	9.558340E-1	8.592015E-1	1.034566E+0	9.690521E-1	9.509467E-1	9.883483E-1	9.230136E-1	9.135232E-1	8.377788E-1	1.043475E+0	9.677053E-1	9.252998E-1	8.677523E-1	9.802987E-1	1.029846E+0	1.019858E+0	9.836984E-1	8.172126E-1	9.694842E-1	9.602280E-1	9.560682E-1	8.567428E-1	8.361378E-1	8.473729E-1	8.559712E-1	1.004423E+0	9.126946E-1	8.026119E-1	8.523807E-1	9.212589E-1
2.851000E+2	8.242125E-1	8.112474E-1	8.807945E-1	7.508983E-1	7.215264E-1	7.840514E-1	7.756428E-1	7.950952E-1	8.148057E-1	8.501730E-1	6.867635E-1	8.314144E-1	8.687867E-1	9.031668E-1	8.496242E-1	9.105738E-1	8.151058E-1	7.891453E-1	8.158008E-1	8.505547E-1	7.561096E-1	7.710407E-1	7.671964E-1	7.909795E-1	7.199375E-1	8.086862E-1	8.192515E-1	8.160741E-1	9.060528E-1	9.110290E-1	8.910913E-1	7.759234E-1	8.458009E-1	8.286939E-1	8.932387E-1	8.437935E-1	7.080599E-1	7.757237E-1	7.873314E-1	7.976136E-1	7.700825E-1	8.185260E-1	8.358422E-1	7.198356E-1	8.831674E-1	8.928463E-1	9.199787E-1	7.254133E-1	8.393338E-1	9.754656E-1	8.570406E-1	7.538261E-1	7.531381E-1	8.365008E-1	7.158449E-1	7.823540E-1	8.147937E-1	8.764300E-1	8.118852E-1	8.207190E-1	8.791973E-1	9.254271E-1	8.393969E-1	7.475809E-1	8.405741E-1	8.030188E-1	9.144234E-1	7.435363E-1	7.496655E-1	7.619582E-1	7.448788E-1	8.087678E-1	7.494946E-1	8.157501E-1	8.033695E-1	8.097910E-1	8.193083E-1	9.126024E-1	8.243088E-1	7.441662E-1	8.674639E-1	8.356400E-1	8.592226E-1	7.817120E-1	7.339753E-1	7.713707E-1	7.277750E-1	8.277355E-1	7.653328E-1	8.539015E-1	7.534874E-1	8.720362E-1	8.771968E-1	8.737639E-1	8.309559E-1	8.117954E-1	8.483378E-1	8.139778E-1	8.234825E-1	8.078787E-1	7.906516E-1	7.334361E-1	7.458708E-1	9.230946E-1	8.067520E-1	7.773658E-1	8.059021E-1	8.047343E-1	8.616486E-1	8.628096E-1	9.083596E-1	7.464999E-1	8.198648E-1	8.501006E-1	8.217664E-1	8.093504E-1	8.113468E-1	7.492804E-1	7.477074E-1	8.730587E-1	9.043627E-1	7.754651E-1	7.908912E-1	8.655575E-1	9.576462E-1	9.067185E-1	8.745154E-1	7.721757E-1	7.717584E-1	7.755717E-1	8.457117E-1	7.602070E-1	7.691180E-1	7.430121E-1	7.387218E-1	8.610585E-1	7.905461E-1	7.472475E-1	7.869028E-1	8.932329E-1	8.775683E-1	9.228068E-1	9.135958E-1	7.800026E-1	9.236342E-1	8.263691E-1	8.168050E-1	8.524151E-1	8.118484E-1	7.855245E-1	7.711523E-1	9.397146E-1	8.466823E-1	8.594658E-1	7.997962E-1	8.404204E-1	9.254352E-1	9.288053E-1	8.621663E-1	7.385123E-1	8.611899E-1	8.520175E-1	8.217763E-1	7.836407E-1	7.860216E-1	7.129060E-1	7.716259E-1	8.792305E-1	7.710997E-1	8.026115E-1	7.349381E-1	7.646785E-1
2.852010E+2	6.948537E-1	6.314744E-1	7.055384E-1	5.836573E-1	5.695887E-1	6.174248E-1	6.111152E-1	6.141490E-1	5.982861E-1	6.402902E-1	5.446182E-1	6.399850E-1	6.954602E-1	7.370196E-1	6.820909E-1	7.068420E-1	6.314864E-1	6.165807E-1	6.372805E-1	6.973022E-1	6.389026E-1	6.348819E-1	5.614233E-1	6.364833E-1	5.812651E-1	6.314901E-1	5.955737E-1	6.574440E-1	6.564752E-1	6.711426E-1	6.944738E-1	6.881216E-1	6.338702E-1	6.466541E-1	7.469217E-1	7.245293E-1	5.702908E-1	6.023284E-1	6.125688E-1	6.386668E-1	6.023693E-1	6.055591E-1	6.625976E-1	5.797085E-1	6.962706E-1	6.927013E-1	7.214564E-1	6.534344E-1	7.048220E-1	7.628335E-1	6.899654E-1	7.354008E-1	5.794539E-1	6.261467E-1	5.866560E-1	6.966095E-1	6.318308E-1	6.834639E-1	5.774213E-1	6.208298E-1	7.042970E-1	7.591486E-1	6.717891E-1	6.035277E-1	7.025307E-1	6.536075E-1	6.694399E-1	6.389806E-1	6.237695E-1	6.240734E-1	5.848870E-1	6.469886E-1	6.039355E-1	6.462360E-1	5.821602E-1	6.341700E-1	6.937587E-1	7.112804E-1	6.762440E-1	5.439894E-1	6.764185E-1	6.736606E-1	6.682407E-1	6.070054E-1	6.213414E-1	6.143357E-1	5.951172E-1	6.834764E-1	6.363040E-1	6.359770E-1	6.024211E-1	6.615037E-1	7.062772E-1	6.697835E-1	6.788415E-1	6.702518E-1	6.941764E-1	6.374492E-1	6.712982E-1	6.200759E-1	6.009240E-1	5.825507E-1	5.847429E-1	7.081634E-1	5.822643E-1	6.129758E-1	6.368918E-1	6.044035E-1	6.626107E-1	6.926802E-1	6.959433E-1	5.829923E-1	6.628387E-1	6.832543E-1	6.708728E-1	6.378243E-1	6.478890E-1	6.022312E-1	6.096373E-1	6.741253E-1	7.096719E-1	6.246581E-1	6.257241E-1	6.683476E-1	7.153852E-1	7.328023E-1	6.570775E-1	6.113582E-1	6.119005E-1	6.445805E-1	6.930295E-1	6.051977E-1	5.800790E-1	6.020533E-1	5.820452E-1	6.891423E-1	6.385498E-1	5.954860E-1	6.128661E-1	6.812732E-1	7.190465E-1	7.028855E-1	7.099457E-1	6.431555E-1	7.469857E-1	6.553526E-1	6.713438E-1	6.731130E-1	6.057607E-1	6.668435E-1	6.393482E-1	7.571193E-1	6.709406E-1	6.588029E-1	6.379010E-1	6.755871E-1	7.372519E-1	7.144405E-1	7.014140E-1	5.658796E-1	6.993068E-1	6.914094E-1	6.713914E-1	6.315404E-1	6.042257E-1	5.886396E-1	5.994820E-1	6.807694E-1	6.971631E-1	5.982901E-1	6.297269E-1	7.565806E-1
2.853000E+2	5.594771E-1	5.424121E-1	5.871227E-1	5.138265E-1	4.841238E-1	5.443616E-1	5.146673E-1	5.101046E-1	5.251606E-1	5.685445E-1	4.635359E-1	5.414387E-1	6.025323E-1	6.242043E-1	5.776864E-1	5.904238E-1	5.755764E-1	4.923550E-1	5.304736E-1	6.192822E-1	5.376558E-1	5.207143E-1	4.775206E-1	5.317794E-1	4.556454E-1	5.421126E-1	4.938586E-1	5.346507E-1	5.679495E-1	5.511993E-1	5.959218E-1	5.705957E-1	5.423115E-1	5.018739E-1	5.694978E-1	5.662864E-1	4.775073E-1	4.930344E-1	5.158502E-1	5.803324E-1	5.406086E-1	5.251747E-1	5.535552E-1	4.853920E-1	5.725350E-1	6.036343E-1	6.238852E-1	5.739573E-1	5.806103E-1	5.887551E-1	5.905537E-1	6.105799E-1	4.872749E-1	5.706095E-1	4.860771E-1	6.007459E-1	5.468059E-1	5.464863E-1	5.201192E-1	5.415942E-1	6.141637E-1	6.044593E-1	5.615344E-1	5.932385E-1	6.040059E-1	5.485050E-1	5.799481E-1	6.355715E-1	4.706526E-1	4.834940E-1	4.940814E-1	5.423988E-1	4.988097E-1	5.274075E-1	5.265018E-1	5.640340E-1	5.612036E-1	6.079838E-1	5.593754E-1	5.473580E-1	5.419556E-1	5.330939E-1	5.719741E-1	5.480138E-1	5.220451E-1	5.282197E-1	4.937815E-1	6.262048E-1	4.982197E-1	5.272863E-1	5.139925E-1	5.890363E-1	5.775393E-1	6.048310E-1	5.659165E-1	5.604508E-1	5.580102E-1	5.483385E-1	5.815951E-1	5.468969E-1	4.890341E-1	5.129488E-1	4.768488E-1	6.164839E-1	4.999882E-1	5.142379E-1	5.798512E-1	5.200538E-1	5.779806E-1	5.933528E-1	5.902431E-1	4.857281E-1	5.603816E-1	6.113477E-1	5.909567E-1	5.615247E-1	5.570790E-1	5.035720E-1	4.966298E-1	5.908637E-1	5.770653E-1	5.188286E-1	5.436530E-1	5.589914E-1	5.967534E-1	5.697247E-1	5.854447E-1	5.389899E-1	5.183541E-1	5.410806E-1	5.839710E-1	5.147757E-1	4.788616E-1	5.204195E-1	4.806135E-1	5.758473E-1	5.388710E-1	4.896953E-1	4.964856E-1	5.692182E-1	5.791746E-1	6.006094E-1	5.952982E-1	5.580298E-1	6.306273E-1	5.794577E-1	5.711623E-1	6.038512E-1	5.209912E-1	5.525768E-1	5.350634E-1	6.232157E-1	5.512042E-1	5.318747E-1	5.214762E-1	5.829915E-1	5.885265E-1	5.765607E-1	6.031224E-1	4.958111E-1	5.904546E-1	5.587086E-1	5.925917E-1	4.823874E-1	5.388777E-1	5.102778E-1	5.102043E-1	6.155769E-1	5.834690E-1	5.178549E-1	4.890412E-1	5.757036E-1
2.854010E+2	4.722354E-1	3.989232E-1	4.734424E-1	3.988117E-1	3.796666E-1	4.366060E-1	3.743793E-1	4.352136E-1	4.234706E-1	4.625322E-1	3.674373E-1	4.304324E-1	4.788015E-1	4.601085E-1	4.970764E-1	4.998239E-1	4.278569E-1	4.143886E-1	4.674070E-1	5.083822E-1	4.089776E-1	4.116934E-1	4.076795E-1	4.675611E-1	4.132283E-1	4.490974E-1	4.618371E-1	4.376814E-1	4.980889E-1	4.827334E-1	4.663001E-1	4.599291E-1	4.577955E-1	3.991439E-1	4.969157E-1	5.046182E-1	3.926896E-1	4.178659E-1	4.435510E-1	4.390460E-1	4.261372E-1	4.228666E-1	4.552135E-1	4.040111E-1	4.539766E-1	4.884611E-1	4.973334E-1	4.624900E-1	5.030546E-1	5.028841E-1	5.093575E-1	4.982418E-1	3.849079E-1	4.457734E-1	4.069548E-1	4.782534E-1	4.111974E-1	4.866940E-1	4.239152E-1	4.581565E-1	4.462380E-1	5.082198E-1	4.848999E-1	4.785842E-1	4.751659E-1	4.799818E-1	5.061180E-1	5.111282E-1	4.235021E-1	4.170222E-1	4.145183E-1	4.646002E-1	4.276475E-1	4.451852E-1	4.304066E-1	4.916535E-1	4.550518E-1	4.704320E-1	4.471627E-1	5.146367E-1	4.829387E-1	4.370034E-1	4.431003E-1	4.912905E-1	4.064468E-1	4.020852E-1	4.071856E-1	4.868077E-1	4.348370E-1	4.343554E-1	4.197742E-1	5.040741E-1	4.800273E-1	4.921046E-1	4.462872E-1	5.156985E-1	4.554357E-1	4.468205E-1	4.838512E-1	4.782511E-1	4.248186E-1	4.019755E-1	4.350221E-1	5.411978E-1	4.253411E-1	4.284240E-1	4.736907E-1	4.536904E-1	4.557372E-1	4.991193E-1	5.048696E-1	4.184321E-1	4.685044E-1	4.518046E-1	4.526813E-1	4.568349E-1	4.374233E-1	4.222960E-1	4.127856E-1	4.997786E-1	4.854461E-1	4.383984E-1	4.323451E-1	4.613076E-1	4.743745E-1	4.509883E-1	4.792660E-1	4.193821E-1	4.123741E-1	4.386595E-1	4.576658E-1	4.065147E-1	3.850860E-1	4.205308E-1	3.995582E-1	4.693155E-1	4.342359E-1	4.210149E-1	4.270841E-1	4.733644E-1	5.082026E-1	4.644171E-1	4.756228E-1	4.109462E-1	5.335610E-1	4.772528E-1	5.134307E-1	4.672708E-1	4.529724E-1	4.677349E-1	4.249850E-1	5.171362E-1	4.791054E-1	4.892140E-1	4.415272E-1	4.956494E-1	5.138609E-1	5.136036E-1	4.835270E-1	4.221885E-1	4.788111E-1	4.784056E-1	4.688435E-1	4.540899E-1	4.455229E-1	4.101236E-1	4.342440E-1	4.990382E-1	4.704718E-1	4.244773E-1	4.413291E-1	4.434199E-1
2.855000E+2	3.597232E-1	3.351505E-1	3.941037E-1	3.366097E-1	3.008487E-1	3.130816E-1	3.191927E-1	3.135773E-1	3.109256E-1	3.682988E-1	2.868552E-1	3.483102E-1	3.790865E-1	3.970339E-1	3.606218E-1	3.787112E-1	3.578221E-1	2.922423E-1	3.478848E-1	3.880088E-1	3.426436E-1	3.382334E-1	2.979965E-1	3.354014E-1	3.593912E-1	3.373753E-1	3.177410E-1	3.322792E-1	3.834326E-1	3.674229E-1	3.706611E-1	3.771581E-1	3.707181E-1	3.012040E-1	3.765211E-1	4.051345E-1	3.214618E-1	3.062657E-1	3.425236E-1	3.518120E-1	3.217827E-1	3.330870E-1	3.426044E-1	3.296356E-1	3.607873E-1	3.778950E-1	3.688488E-1	3.645187E-1	3.679375E-1	3.644398E-1	3.500901E-1	3.948188E-1	3.179568E-1	3.425623E-1	3.242564E-1	3.690750E-1	3.213303E-1	3.698277E-1	3.256084E-1	3.513081E-1	3.491305E-1	3.782202E-1	3.835440E-1	4.094975E-1	3.723105E-1	3.656055E-1	3.920157E-1	4.168009E-1	2.956614E-1	3.348301E-1	3.284686E-1	3.775276E-1	3.295293E-1	3.545143E-1	3.305055E-1	3.833636E-1	3.488999E-1	3.602845E-1	3.419339E-1	4.054052E-1	3.837650E-1	3.244411E-1	3.551143E-1	3.999672E-1	3.125849E-1	3.129300E-1	3.251958E-1	3.679426E-1	3.324059E-1	3.506631E-1	3.166068E-1	3.647603E-1	3.737502E-1	3.697158E-1	4.040049E-1	3.606241E-1	3.906523E-1	3.543260E-1	3.694033E-1	3.979496E-1	3.182792E-1	3.124178E-1	3.161958E-1	3.754461E-1	3.169115E-1	3.333049E-1	3.559125E-1	3.761626E-1	3.815545E-1	3.559860E-1	3.732531E-1	4.073912E-1	3.482287E-1	3.686624E-1	3.832807E-1	3.604258E-1	3.599676E-1	3.466574E-1	3.252958E-1	4.120466E-1	3.787579E-1	3.325686E-1	3.220627E-1	3.703823E-1	3.707272E-1	3.859542E-1	3.720710E-1	3.781727E-1	3.354056E-1	3.750502E-1	3.709264E-1	3.677629E-1	3.136384E-1	3.221644E-1	3.361632E-1	3.982950E-1	3.103257E-1	3.301790E-1	3.411338E-1	3.748100E-1	3.874977E-1	3.674399E-1	3.810895E-1	3.252819E-1	4.009245E-1	3.836493E-1	3.464613E-1	3.617604E-1	3.626194E-1	3.569007E-1	3.342184E-1	3.994637E-1	3.812567E-1	3.865127E-1	3.440904E-1	3.656214E-1	4.009507E-1	3.856091E-1	3.866891E-1	3.282561E-1	3.671672E-1	3.719032E-1	3.711762E-1	3.344142E-1	3.452891E-1	3.099692E-1	3.124115E-1	3.744230E-1	3.602647E-1	2.941174E-1	3.312260E-1	3.624298E-1
2.856010E+2	2.652608E-1	2.405911E-1	2.958183E-1	2.268759E-1	2.448218E-1	2.447490E-1	2.521438E-1	2.482355E-1	2.298023E-1	2.767433E-1	2.242915E-1	2.673210E-1	2.798936E-1	2.852445E-1	3.110903E-1	2.843563E-1	2.760177E-1	2.610559E-1	2.873615E-1	3.038593E-1	2.394015E-1	2.385705E-1	2.384672E-1	2.521037E-1	2.740121E-1	2.641062E-1	2.471062E-1	2.642950E-1	2.970401E-1	2.757923E-1	2.905575E-1	2.911854E-1	2.778784E-1	2.559606E-1	2.889614E-1	3.132138E-1	2.328957E-1	2.393983E-1	2.611272E-1	2.490576E-1	2.658786E-1	2.495704E-1	2.661726E-1	2.342413E-1	2.805401E-1	2.739837E-1	2.790062E-1	2.705464E-1	2.849277E-1	2.949254E-1	2.767017E-1	3.026897E-1	2.272332E-1	2.418086E-1	2.254652E-1	2.785375E-1	2.626741E-1	2.834006E-1	2.457013E-1	2.804763E-1	2.949435E-1	3.172514E-1	2.688393E-1	2.865133E-1	2.889427E-1	2.646245E-1	2.717609E-1	2.940616E-1	2.373311E-1	2.503927E-1	2.298791E-1	2.930318E-1	2.589068E-1	2.756713E-1	2.558178E-1	2.913454E-1	2.551411E-1	2.822852E-1	2.953728E-1	3.168661E-1	2.724231E-1	2.536093E-1	2.857606E-1	3.080758E-1	2.429293E-1	2.374516E-1	2.344541E-1	2.863578E-1	2.311067E-1	2.702325E-1	2.566013E-1	2.822968E-1	3.074640E-1	3.133525E-1	2.792196E-1	3.018215E-1	2.730815E-1	2.499884E-1	2.716588E-1	3.144092E-1	2.443343E-1	2.277271E-1	2.315919E-1	2.789091E-1	2.471678E-1	2.376681E-1	2.513369E-1	2.924331E-1	2.901333E-1	2.800902E-1	2.787327E-1	3.027667E-1	2.686017E-1	2.737230E-1	2.539432E-1	2.965472E-1	2.750338E-1	2.489380E-1	2.450967E-1	2.980510E-1	2.696588E-1	2.442020E-1	2.594842E-1	3.095613E-1	2.783186E-1	2.751011E-1	3.085667E-1	3.163582E-1	2.554763E-1	2.478324E-1	2.796210E-1	2.908731E-1	2.411981E-1	2.314029E-1	2.410708E-1	2.974003E-1	2.425886E-1	2.382356E-1	2.450398E-1	2.965068E-1	3.015022E-1	2.741725E-1	3.071717E-1	2.967273E-1	2.851687E-1	2.713243E-1	2.598635E-1	2.834367E-1	2.590682E-1	2.578365E-1	2.453833E-1	3.217883E-1	2.911321E-1	2.680111E-1	2.546478E-1	2.927269E-1	3.020029E-1	3.096456E-1	2.942076E-1	2.673269E-1	2.795274E-1	2.944470E-1	2.846082E-1	2.901988E-1	2.494782E-1	2.445904E-1	2.403970E-1	2.815385E-1	2.730760E-1	2.136829E-1	2.590477E-1	2.679415E-1
2.858030E+2	3.097847E-1	3.131600E-1	3.325273E-1	2.732339E-1	2.543173E-1	3.067740E-1	2.810264E-1	2.959854E-1	3.034991E-1	2.976243E-1	2.578253E-1	2.860109E-1	3.373215E-1	3.226781E-1	3.358555E-1	3.331769E-1	2.848455E-1	2.932817E-1	2.878698E-1	3.529002E-1	3.002493E-1	2.905076E-1	2.844030E-1	3.102723E-1	3.202367E-1	2.916470E-1	3.031432E-1	2.980237E-1	3.370365E-1	3.571272E-1	3.284246E-1	3.213672E-1	3.406252E-1	3.187697E-1	3.137318E-1	3.475380E-1	2.792876E-1	2.855136E-1	2.845885E-1	3.229125E-1	3.106022E-1	3.017681E-1	2.666823E-1	2.595722E-1	3.219578E-1	3.482060E-1	3.384183E-1	3.275293E-1	3.400653E-1	3.293906E-1	3.282293E-1	3.413244E-1	2.742926E-1	3.214284E-1	2.741899E-1	3.238063E-1	2.998050E-1	3.681969E-1	2.888089E-1	3.302984E-1	3.271339E-1	3.192672E-1	3.316304E-1	3.820585E-1	3.300851E-1	3.166606E-1	3.450326E-1	3.355435E-1	2.669824E-1	3.065347E-1	2.735530E-1	3.357952E-1	2.783142E-1	3.021401E-1	2.724677E-1	3.525037E-1	3.224967E-1	3.307717E-1	3.014263E-1	3.404442E-1	3.618615E-1	3.112632E-1	3.152618E-1	3.279288E-1	2.780044E-1	2.794968E-1	2.961766E-1	3.420082E-1	2.860007E-1	3.213169E-1	3.018685E-1	3.047869E-1	3.140379E-1	3.337511E-1	3.215023E-1	3.372073E-1	3.186701E-1	2.928514E-1	3.335223E-1	3.312467E-1	2.861717E-1	2.895417E-1	2.933817E-1	3.566240E-1	2.629693E-1	2.790248E-1	2.798575E-1	3.222039E-1	3.371500E-1	3.483457E-1	3.478442E-1	3.590222E-1	3.320806E-1	3.057438E-1	2.944270E-1	3.681149E-1	3.225754E-1	2.700794E-1	2.715258E-1	3.366087E-1	3.305373E-1	3.124613E-1	3.102656E-1	3.623959E-1	3.338885E-1	3.534380E-1	3.588618E-1	3.349530E-1	2.904083E-1	2.936525E-1	3.171575E-1	3.646869E-1	2.848610E-1	2.973190E-1	2.981263E-1	3.284014E-1	3.042682E-1	2.725764E-1	2.850784E-1	3.478089E-1	3.248143E-1	3.372341E-1	3.559468E-1	3.554527E-1	3.327974E-1	3.290048E-1	3.232553E-1	3.649969E-1	3.402847E-1	2.985413E-1	2.994569E-1	3.235273E-1	2.975693E-1	3.064583E-1	3.081136E-1	3.577411E-1	3.608859E-1	3.445051E-1	3.445639E-1	3.490736E-1	3.303250E-1	3.827246E-1	3.145739E-1	3.450259E-1	3.020513E-1	2.719473E-1	3.212899E-1	3.484615E-1	3.232971E-1	2.913444E-1	3.434601E-1	3.516312E-1
2.860020E+2	5.703078E-1	5.633027E-1	6.528430E-1	5.061985E-1	4.883968E-1	5.264901E-1	5.383927E-1	5.357391E-1	5.343011E-1	6.012047E-1	4.790513E-1	5.606946E-1	6.129733E-1	6.324086E-1	6.179914E-1	6.110783E-1	5.567439E-1	5.074281E-1	5.737051E-1	6.332141E-1	5.551122E-1	5.342833E-1	5.093945E-1	5.587695E-1	5.905103E-1	5.680942E-1	5.663776E-1	5.573124E-1	6.196780E-1	5.959843E-1	6.138848E-1	5.957474E-1	6.101804E-1	5.109227E-1	6.086699E-1	6.238822E-1	4.873476E-1	5.091751E-1	5.742638E-1	5.530383E-1	5.773457E-1	5.549276E-1	5.510073E-1	5.155733E-1	5.683931E-1	5.933968E-1	6.345120E-1	6.329403E-1	5.733396E-1	6.337350E-1	6.467655E-1	6.379217E-1	5.066807E-1	5.489842E-1	5.231797E-1	6.113976E-1	5.780177E-1	5.943197E-1	5.043478E-1	6.022208E-1	6.093353E-1	6.382188E-1	5.907049E-1	6.662446E-1	6.132090E-1	5.536570E-1	6.459477E-1	6.747798E-1	5.187751E-1	5.333483E-1	4.962433E-1	6.062861E-1	5.052788E-1	5.589451E-1	5.388698E-1	6.240707E-1	5.854512E-1	6.058766E-1	5.956934E-1	6.166497E-1	5.772449E-1	5.764717E-1	5.792195E-1	6.489802E-1	4.993205E-1	5.327789E-1	5.039152E-1	6.364703E-1	5.123675E-1	5.452199E-1	5.266253E-1	6.027796E-1	6.301302E-1	6.456275E-1	6.066518E-1	6.223764E-1	5.514118E-1	5.472105E-1	5.512829E-1	6.304371E-1	5.172493E-1	5.017542E-1	5.752366E-1	6.759850E-1	5.239632E-1	5.183735E-1	5.455206E-1	6.254908E-1	5.732787E-1	6.208588E-1	5.887185E-1	6.513396E-1	5.570407E-1	5.579796E-1	6.062042E-1	6.461050E-1	5.378484E-1	5.124983E-1	5.080217E-1	6.417149E-1	6.355330E-1	5.431695E-1	5.303170E-1	6.345579E-1	6.460797E-1	6.086467E-1	5.950973E-1	6.525675E-1	5.408526E-1	5.378464E-1	5.768693E-1	6.624040E-1	4.912659E-1	5.285320E-1	5.354047E-1	6.626503E-1	5.631026E-1	5.268048E-1	5.060948E-1	6.272712E-1	6.366778E-1	6.080283E-1	5.902696E-1	6.738654E-1	6.288179E-1	5.850233E-1	5.570125E-1	6.388054E-1	5.509401E-1	5.305079E-1	5.249247E-1	6.504602E-1	5.672978E-1	5.655817E-1	5.614500E-1	6.578558E-1	6.474101E-1	6.025758E-1	6.021544E-1	6.511804E-1	5.809648E-1	6.162315E-1	6.064651E-1	6.327193E-1	5.310162E-1	5.065684E-1	5.166159E-1	6.496155E-1	5.590557E-1	5.400439E-1	5.697831E-1	6.188977E-1
2.862050E+2	7.995433E-1	7.958536E-1	8.944123E-1	7.819998E-1	7.196275E-1	7.782693E-1	7.338659E-1	7.870534E-1	7.422523E-1	8.464253E-1	6.557314E-1	7.764777E-1	8.844491E-1	8.990641E-1	8.685631E-1	8.969601E-1	7.915645E-1	7.595185E-1	7.893532E-1	8.934655E-1	7.286784E-1	7.387560E-1	7.240733E-1	8.389109E-1	8.292431E-1	7.863422E-1	7.655690E-1	7.238471E-1	8.527241E-1	8.806570E-1	8.673032E-1	8.573223E-1	8.502826E-1	7.472555E-1	8.869020E-1	8.222678E-1	7.080602E-1	7.595831E-1	7.686583E-1	8.570190E-1	7.919118E-1	7.783337E-1	7.940599E-1	7.187576E-1	8.391610E-1	8.227189E-1	8.871339E-1	8.558750E-1	8.393330E-1	8.866746E-1	8.747373E-1	8.976671E-1	7.085043E-1	7.583554E-1	7.292552E-1	8.409376E-1	7.755108E-1	8.525129E-1	7.514294E-1	8.303233E-1	9.017299E-1	8.962017E-1	8.384080E-1	9.102530E-1	8.443637E-1	7.875621E-1	8.713558E-1	8.901408E-1	7.127231E-1	7.704918E-1	7.280145E-1	8.824439E-1	7.300868E-1	8.174392E-1	7.334386E-1	9.203257E-1	8.543334E-1	9.057508E-1	7.973035E-1	9.457858E-1	8.698978E-1	7.840263E-1	8.493881E-1	8.821109E-1	7.191551E-1	7.637722E-1	7.217870E-1	9.044577E-1	7.658990E-1	7.832523E-1	7.503293E-1	8.514203E-1	8.859617E-1	8.581967E-1	8.655037E-1	8.950561E-1	8.237438E-1	8.060816E-1	8.568888E-1	8.752293E-1	7.468685E-1	7.363565E-1	7.292354E-1	9.279517E-1	7.440918E-1	7.649591E-1	7.794942E-1	9.039698E-1	8.778434E-1	8.429442E-1	9.022615E-1	9.094835E-1	8.020461E-1	7.989790E-1	8.433231E-1	9.524851E-1	7.905139E-1	7.309578E-1	7.267463E-1	9.619082E-1	8.495117E-1	8.029807E-1	7.801196E-1	9.036480E-1	8.845931E-1	8.347872E-1	8.272686E-1	9.556079E-1	7.670218E-1	7.620955E-1	8.406391E-1	9.016838E-1	7.046162E-1	7.141107E-1	7.509477E-1	9.275699E-1	8.125744E-1	7.854655E-1	7.340514E-1	8.486804E-1	8.723881E-1	8.597452E-1	8.376669E-1	8.963766E-1	8.965033E-1	7.727368E-1	8.111453E-1	9.229709E-1	8.331678E-1	7.605135E-1	7.180442E-1	9.339185E-1	7.778010E-1	7.683511E-1	7.473301E-1	9.408966E-1	8.950831E-1	9.418126E-1	8.684604E-1	9.238385E-1	8.461184E-1	8.691028E-1	8.545166E-1	9.345614E-1	7.825816E-1	7.249613E-1	7.681731E-1	9.305772E-1	7.920253E-1	7.517627E-1	7.422776E-1	8.348709E-1
2.864160E+2	7.826969E-1	7.331806E-1	8.559270E-1	7.550061E-1	6.749957E-1	7.393723E-1	6.982786E-1	7.518693E-1	6.656985E-1	7.811042E-1	6.487244E-1	7.549558E-1	8.014402E-1	8.467583E-1	7.957227E-1	8.565895E-1	7.297694E-1	7.428855E-1	7.664659E-1	8.594713E-1	6.837906E-1	7.130210E-1	6.879807E-1	7.695736E-1	7.346206E-1	7.577622E-1	7.340182E-1	7.681156E-1	7.817972E-1	7.869670E-1	7.537019E-1	8.157079E-1	8.201900E-1	7.488523E-1	8.085594E-1	8.914990E-1	6.611995E-1	7.236132E-1	7.298753E-1	7.944035E-1	7.269563E-1	7.658061E-1	7.583915E-1	6.848035E-1	7.982614E-1	8.385869E-1	8.455931E-1	7.654016E-1	7.672300E-1	8.668129E-1	8.086357E-1	8.518990E-1	6.954052E-1	7.563896E-1	6.988580E-1	8.047224E-1	7.771250E-1	8.237040E-1	7.051672E-1	8.015104E-1	7.949661E-1	8.528691E-1	8.240698E-1	8.774245E-1	8.232507E-1	7.777729E-1	7.807453E-1	8.372956E-1	7.282778E-1	7.161467E-1	7.020701E-1	7.716720E-1	7.074436E-1	7.498590E-1	6.925273E-1	8.619719E-1	7.659635E-1	8.324952E-1	7.912502E-1	8.413668E-1	8.394769E-1	7.527287E-1	7.940089E-1	7.862492E-1	6.850687E-1	7.141293E-1	6.867798E-1	8.244938E-1	7.489212E-1	7.827086E-1	7.097990E-1	8.407997E-1	8.366583E-1	7.766047E-1	7.917669E-1	8.326104E-1	7.595601E-1	7.733705E-1	8.086351E-1	8.745817E-1	6.987066E-1	6.959583E-1	7.002419E-1	8.897014E-1	7.326495E-1	7.380778E-1	7.203408E-1	8.363656E-1	8.407521E-1	7.797823E-1	8.433135E-1	8.605884E-1	7.959213E-1	7.978559E-1	8.038904E-1	8.430638E-1	7.445745E-1	7.131053E-1	6.761663E-1	8.507064E-1	8.067161E-1	7.045595E-1	7.498555E-1	8.551133E-1	8.333935E-1	8.751869E-1	8.038995E-1	8.852504E-1	6.906453E-1	7.286732E-1	7.802771E-1	8.506290E-1	6.252303E-1	6.755750E-1	6.920811E-1	8.982596E-1	7.701697E-1	7.095845E-1	7.153663E-1	8.149292E-1	8.242100E-1	8.062219E-1	8.100111E-1	8.166388E-1	8.470660E-1	7.747609E-1	7.522814E-1	8.407637E-1	7.555046E-1	7.394257E-1	6.924562E-1	8.817478E-1	8.016203E-1	7.572911E-1	7.308409E-1	8.739125E-1	8.750504E-1	8.497191E-1	8.045469E-1	8.370141E-1	7.986696E-1	8.269577E-1	7.845962E-1	8.644070E-1	7.069157E-1	7.082689E-1	6.986252E-1	9.080768E-1	8.115555E-1	6.972147E-1	7.459475E-1	8.726661E-1
2.866130E+2	8.290252E-1	7.111895E-1	8.624400E-1	8.037115E-1	7.846757E-1	7.073087E-1	7.070465E-1	7.317640E-1	8.096644E-1	7.698604E-1	6.312065E-1	7.430625E-1	7.972638E-1	8.426566E-1	8.122334E-1	8.354652E-1	7.845024E-1	7.376878E-1	7.608710E-1	8.043000E-1	7.321694E-1	6.919656E-1	6.814188E-1	7.490981E-1	7.715998E-1	7.229461E-1	6.916374E-1	7.301712E-1	8.116613E-1	7.972626E-1	7.672950E-1	7.686063E-1	7.849750E-1	6.695425E-1	8.010703E-1	8.036503E-1	6.785378E-1	6.535168E-1	7.303540E-1	7.382099E-1	7.232290E-1	7.005589E-1	7.390289E-1	6.896545E-1	7.656449E-1	7.730666E-1	8.340008E-1	7.788974E-1	7.605652E-1	8.539609E-1	7.794885E-1	8.691368E-1	6.493156E-1	7.652360E-1	6.715901E-1	7.914083E-1	7.442993E-1	8.063097E-1	6.673168E-1	7.606927E-1	7.987209E-1	8.332178E-1	7.766058E-1	8.597851E-1	7.561239E-1	7.386169E-1	7.874572E-1	8.401362E-1	7.117509E-1	7.080618E-1	6.558019E-1	7.557002E-1	7.020528E-1	7.690066E-1	6.658868E-1	8.249400E-1	7.982940E-1	7.718880E-1	7.963720E-1	8.447352E-1	7.914110E-1	7.285685E-1	8.116065E-1	8.282239E-1	6.998890E-1	7.080502E-1	6.688159E-1	8.228727E-1	7.093068E-1	7.348854E-1	6.892711E-1	7.845743E-1	8.087190E-1	8.410198E-1	7.964076E-1	8.404161E-1	7.649586E-1	7.265592E-1	8.098721E-1	7.981650E-1	6.875173E-1	6.526396E-1	6.721986E-1	8.374868E-1	6.612714E-1	7.024081E-1	7.140028E-1	8.357450E-1	8.464990E-1	7.675575E-1	8.285762E-1	8.095907E-1	7.480335E-1	7.832500E-1	7.844374E-1	8.773683E-1	7.135928E-1	6.929037E-1	6.893811E-1	8.372956E-1	7.868246E-1	7.040304E-1	6.831734E-1	8.207090E-1	8.727298E-1	7.943874E-1	7.591924E-1	8.410255E-1	7.380108E-1	7.372978E-1	7.462908E-1	8.407871E-1	6.574808E-1	6.674626E-1	6.744207E-1	8.182200E-1	6.809547E-1	6.525353E-1	6.886732E-1	8.095296E-1	7.998619E-1	8.035721E-1	7.632470E-1	8.392675E-1	8.048637E-1	7.373192E-1	7.511498E-1	8.226395E-1	7.280937E-1	7.516858E-1	6.799032E-1	8.458082E-1	7.790893E-1	7.351713E-1	7.293415E-1	8.207193E-1	8.568396E-1	8.169400E-1	7.769484E-1	8.552932E-1	7.411735E-1	8.053154E-1	7.685033E-1	8.632281E-1	6.725218E-1	6.401081E-1	7.079969E-1	8.221151E-1	7.404099E-1	6.667057E-1	6.639818E-1	7.916751E-1
2.868020E+2	1.076311E+0	9.552856E-1	1.029407E+0	1.026700E+0	1.092824E+0	9.007429E-1	8.246411E-1	8.971284E-1	1.085599E+0	9.958060E-1	7.963753E-1	9.667736E-1	1.096408E+0	1.027264E+0	9.676265E-1	1.012909E+0	1.041099E+0	9.315630E-1	9.902518E-1	1.033344E+0	1.063343E+0	8.959700E-1	8.187571E-1	9.431496E-1	1.057100E+0	9.084572E-1	8.978921E-1	9.530967E-1	1.022309E+0	1.019133E+0	1.010033E+0	1.018751E+0	1.060932E+0	9.303596E-1	1.023426E+0	9.810925E-1	1.057637E+0	8.836344E-1	9.362391E-1	9.287329E-1	1.062914E+0	9.093502E-1	9.453941E-1	8.292427E-1	1.057122E+0	1.010578E+0	1.045566E+0	1.001833E+0	9.562739E-1	1.057247E+0	9.731083E-1	1.092625E+0	8.817035E-1	9.613372E-1	8.298344E-1	9.810049E-1	9.627794E-1	1.008516E+0	8.481590E-1	9.647844E-1	9.784505E-1	1.036783E+0	9.417412E-1	1.076844E+0	1.006225E+0	9.132731E-1	1.016221E+0	1.078227E+0	8.517435E-1	8.634626E-1	8.793584E-1	9.865185E-1	8.589337E-1	9.171205E-1	9.046972E-1	1.035349E+0	9.497081E-1	1.008520E+0	9.896005E-1	1.094473E+0	9.903670E-1	9.416140E-1	9.466907E-1	9.915858E-1	8.831668E-1	8.630584E-1	8.770149E-1	1.040073E+0	8.751204E-1	9.332459E-1	8.845511E-1	9.563739E-1	1.021273E+0	1.010646E+0	9.335685E-1	1.010061E+0	9.521119E-1	9.216994E-1	9.608197E-1	1.055909E+0	8.991365E-1	8.585246E-1	8.794315E-1	1.061525E+0	8.764956E-1	8.699001E-1	8.956894E-1	1.026152E+0	9.854598E-1	9.825115E-1	1.023206E+0	1.045127E+0	9.980509E-1	9.568370E-1	9.831751E-1	1.019321E+0	9.491641E-1	8.855238E-1	8.028441E-1	1.079256E+0	9.983926E-1	8.892320E-1	8.862978E-1	1.022219E+0	1.026952E+0	9.983579E-1	9.893319E-1	1.041042E+0	8.937239E-1	9.491486E-1	9.552777E-1	1.089294E+0	8.083151E-1	8.256608E-1	8.637005E-1	1.033537E+0	8.891232E-1	8.967944E-1	9.198330E-1	1.058615E+0	9.946469E-1	1.001767E+0	9.885187E-1	1.076326E+0	1.029743E+0	9.796769E-1	9.950945E-1	1.107452E+0	9.671748E-1	9.218607E-1	9.077845E-1	1.060286E+0	9.895929E-1	9.432069E-1	9.007314E-1	1.101133E+0	1.036524E+0	1.007371E+0	1.021950E+0	1.014217E+0	9.901383E-1	1.026293E+0	9.682768E-1	1.023581E+0	8.297506E-1	8.390264E-1	8.510392E-1	1.071347E+0	9.601257E-1	8.978395E-1	9.123254E-1	1.015748E+0
2.870070E+2	9.914760E-1	8.392851E-1	9.542126E-1	9.058168E-1	9.840942E-1	8.387175E-1	7.957582E-1	8.875789E-1	9.850510E-1	9.272727E-1	7.413194E-1	9.373233E-1	1.006090E+0	1.008803E+0	9.433462E-1	9.833354E-1	9.898969E-1	8.146142E-1	9.048063E-1	1.003808E+0	1.009975E+0	8.576023E-1	8.154761E-1	9.008029E-1	9.787914E-1	8.902697E-1	8.762311E-1	8.471671E-1	9.396499E-1	9.604475E-1	9.576015E-1	9.103696E-1	9.949842E-1	8.760676E-1	9.502676E-1	1.006109E+0	9.995315E-1	8.181502E-1	8.538851E-1	8.800317E-1	1.028307E+0	8.655043E-1	8.720200E-1	8.405603E-1	9.789464E-1	9.573432E-1	9.692477E-1	9.663430E-1	1.022317E+0	9.953265E-1	9.278264E-1	1.027837E+0	1.026764E+0	8.763107E-1	8.074836E-1	9.373338E-1	1.004216E+0	9.525287E-1	7.919088E-1	8.933519E-1	9.822062E-1	9.370162E-1	9.011987E-1	9.906087E-1	1.011097E+0	8.942107E-1	9.110671E-1	9.964010E-1	1.031595E+0	8.266332E-1	8.062802E-1	9.597278E-1	9.624421E-1	8.726302E-1	8.209713E-1	9.820453E-1	1.004670E+0	9.315751E-1	9.043942E-1	9.842813E-1	9.246561E-1	8.482690E-1	9.249533E-1	9.314598E-1	8.416695E-1	8.534338E-1	8.060800E-1	1.007655E+0	8.598406E-1	8.772697E-1	8.134924E-1	9.357582E-1	9.544395E-1	9.591143E-1	9.304748E-1	9.757158E-1	9.293174E-1	9.171877E-1	8.785415E-1	9.859684E-1	8.388129E-1	7.971972E-1	8.010061E-1	1.010524E+0	8.258229E-1	8.461205E-1	8.027331E-1	9.269173E-1	9.285172E-1	9.213876E-1	9.297032E-1	9.636356E-1	9.078440E-1	9.411079E-1	8.901159E-1	1.015773E+0	8.711743E-1	8.479395E-1	7.714023E-1	9.976718E-1	9.555969E-1	8.289091E-1	8.606509E-1	1.028363E+0	9.439097E-1	9.426849E-1	9.151587E-1	1.004858E+0	8.510951E-1	8.677506E-1	9.466545E-1	9.890305E-1	8.033537E-1	7.942240E-1	8.025698E-1	9.856268E-1	9.155580E-1	8.087282E-1	8.482963E-1	9.627603E-1	9.205666E-1	9.800387E-1	9.623708E-1	1.014367E+0	9.863346E-1	8.668466E-1	9.073650E-1	1.019419E+0	8.605786E-1	8.630103E-1	8.382618E-1	1.025506E+0	8.956063E-1	8.652591E-1	8.462662E-1	1.022984E+0	9.570009E-1	9.933229E-1	9.628780E-1	1.010663E+0	9.588776E-1	9.499762E-1	9.027953E-1	1.043626E+0	8.037096E-1	7.639104E-1	8.135520E-1	1.022308E+0	8.785167E-1	8.488394E-1	8.022221E-1	9.347592E-1
2.872120E+2	7.893154E-1	7.007446E-1	7.831015E-1	7.297734E-1	7.533384E-1	6.437069E-1	6.601122E-1	6.965803E-1	7.696741E-1	7.248859E-1	5.771517E-1	6.920902E-1	7.617625E-1	7.600955E-1	7.136554E-1	7.326608E-1	7.656699E-1	6.456877E-1	6.901753E-1	7.441140E-1	7.815458E-1	6.287991E-1	6.495449E-1	6.658002E-1	7.797568E-1	6.948859E-1	6.275945E-1	6.737811E-1	7.695315E-1	7.442408E-1	7.255443E-1	7.233338E-1	7.875356E-1	6.418640E-1	7.405852E-1	7.605991E-1	7.441422E-1	6.290760E-1	6.743340E-1	7.087750E-1	7.754065E-1	6.494050E-1	6.620876E-1	6.276749E-1	7.910128E-1	7.561741E-1	7.823168E-1	7.344104E-1	7.417821E-1	7.856152E-1	7.472186E-1	8.168312E-1	7.812769E-1	7.023264E-1	6.179475E-1	7.482691E-1	7.760489E-1	7.454305E-1	6.405055E-1	7.222749E-1	7.600930E-1	7.510868E-1	7.054098E-1	7.784495E-1	7.674921E-1	6.757617E-1	7.427111E-1	7.747895E-1	7.958437E-1	6.582079E-1	6.276957E-1	7.268478E-1	8.174226E-1	6.327202E-1	6.302080E-1	7.755650E-1	7.675799E-1	7.407933E-1	7.037151E-1	7.792925E-1	7.628151E-1	6.753074E-1	7.143045E-1	7.505140E-1	7.725086E-1	6.543540E-1	6.024870E-1	7.601982E-1	7.732557E-1	6.653231E-1	6.282130E-1	7.171039E-1	8.103631E-1	7.293667E-1	7.180305E-1	7.451866E-1	7.469633E-1	6.673404E-1	6.824332E-1	7.813272E-1	7.060043E-1	5.874182E-1	6.165877E-1	7.889143E-1	6.961429E-1	6.429584E-1	6.379485E-1	7.507756E-1	7.665705E-1	7.166201E-1	7.691202E-1	7.985499E-1	7.213057E-1	7.079720E-1	6.887484E-1	7.987039E-1	6.863497E-1	6.163255E-1	6.009798E-1	7.618567E-1	6.921921E-1	6.489990E-1	6.457288E-1	7.807757E-1	7.334930E-1	7.254121E-1	7.520798E-1	7.772012E-1	6.580815E-1	6.936349E-1	7.376678E-1	7.891173E-1	6.004219E-1	6.507304E-1	6.563078E-1	7.962377E-1	7.029829E-1	6.630588E-1	6.427618E-1	7.703768E-1	7.392504E-1	7.664772E-1	7.114542E-1	8.080188E-1	7.590441E-1	7.054430E-1	6.803999E-1	7.708550E-1	6.626130E-1	7.325598E-1	6.572121E-1	7.519022E-1	7.024835E-1	6.988308E-1	6.374012E-1	7.530785E-1	8.034195E-1	7.773969E-1	7.348230E-1	8.167042E-1	7.115878E-1	7.073563E-1	7.024674E-1	8.207813E-1	6.563075E-1	6.243428E-1	6.399285E-1	7.846153E-1	6.971633E-1	6.093843E-1	6.236112E-1	7.106856E-1
2.874030E+2	6.220510E-1	6.094837E-1	6.777103E-1	6.605299E-1	6.654996E-1	5.864120E-1	5.440656E-1	5.829857E-1	6.525584E-1	6.563523E-1	5.396131E-1	5.606949E-1	6.589153E-1	6.734328E-1	6.505270E-1	6.998004E-1	6.991665E-1	5.864338E-1	6.347376E-1	6.594064E-1	7.057356E-1	5.544031E-1	5.318935E-1	6.025126E-1	7.052548E-1	6.107047E-1	5.838010E-1	5.704870E-1	6.788729E-1	6.170903E-1	6.638884E-1	6.497086E-1	7.081423E-1	5.865063E-1	6.478405E-1	6.593703E-1	6.972819E-1	5.409947E-1	6.096959E-1	6.279631E-1	7.195021E-1	5.867682E-1	5.866754E-1	5.554560E-1	6.843630E-1	6.665955E-1	6.610779E-1	6.564336E-1	7.339053E-1	7.061700E-1	6.181386E-1	6.729897E-1	6.808505E-1	5.996067E-1	5.727988E-1	6.513409E-1	7.050161E-1	5.986679E-1	5.527129E-1	6.196286E-1	7.327313E-1	6.795368E-1	6.485514E-1	6.701646E-1	7.041547E-1	6.072388E-1	6.616092E-1	6.901221E-1	6.752947E-1	5.692789E-1	5.455382E-1	6.593539E-1	6.988182E-1	6.113199E-1	5.716946E-1	6.818629E-1	7.050742E-1	6.464569E-1	6.394607E-1	6.739119E-1	6.849361E-1	6.000825E-1	6.040629E-1	6.864172E-1	7.161914E-1	5.586137E-1	5.251034E-1	6.505177E-1	6.793132E-1	6.245640E-1	5.729454E-1	6.427627E-1	7.150421E-1	6.547526E-1	6.154179E-1	6.806591E-1	6.773807E-1	6.081221E-1	6.193328E-1	7.185102E-1	7.225442E-1	5.460468E-1	5.424407E-1	6.662706E-1	6.945080E-1	5.690345E-1	5.856603E-1	6.813110E-1	7.038813E-1	6.305368E-1	6.573218E-1	6.781524E-1	6.984755E-1	6.141562E-1	6.419558E-1	7.017031E-1	7.093192E-1	5.749823E-1	5.257928E-1	7.177117E-1	6.885752E-1	6.003172E-1	5.780204E-1	6.751060E-1	6.972783E-1	6.495386E-1	6.286280E-1	7.058383E-1	5.976907E-1	6.230177E-1	6.265797E-1	7.134581E-1	6.296954E-1	5.797432E-1	5.584985E-1	7.009795E-1	6.638825E-1	5.196050E-1	5.706915E-1	6.785733E-1	6.791574E-1	6.853982E-1	6.134007E-1	6.884124E-1	6.842849E-1	6.361260E-1	6.034243E-1	6.880010E-1	6.260653E-1	6.089747E-1	5.717558E-1	7.078473E-1	6.181538E-1	6.166693E-1	5.904316E-1	6.834678E-1	6.996157E-1	6.884253E-1	6.573526E-1	6.902764E-1	6.485089E-1	6.657808E-1	6.447550E-1	6.686812E-1	5.732712E-1	5.714839E-1	5.758062E-1	6.940386E-1	6.622876E-1	5.797991E-1	5.232948E-1	6.836898E-1
2.876210E+2	6.268650E-1	5.517581E-1	5.646233E-1	5.678135E-1	6.080480E-1	5.327974E-1	5.120882E-1	5.276969E-1	5.611515E-1	5.546237E-1	4.400115E-1	5.589958E-1	5.853037E-1	6.103590E-1	5.883693E-1	5.810351E-1	6.073570E-1	5.074286E-1	5.045349E-1	5.975477E-1	6.099752E-1	5.146318E-1	4.751769E-1	5.652850E-1	5.801780E-1	5.488676E-1	4.811442E-1	5.441371E-1	6.351434E-1	6.129724E-1	5.609674E-1	5.797414E-1	6.249065E-1	5.386016E-1	6.276791E-1	5.814120E-1	6.209000E-1	5.114810E-1	5.158504E-1	5.289553E-1	6.391066E-1	5.267404E-1	5.433645E-1	5.042556E-1	5.953149E-1	6.113126E-1	6.171231E-1	5.634607E-1	6.018172E-1	6.319827E-1	5.437096E-1	5.992867E-1	5.799388E-1	5.425952E-1	4.816071E-1	5.549440E-1	6.399024E-1	6.013863E-1	5.180162E-1	6.046221E-1	6.114809E-1	5.838003E-1	5.635119E-1	6.020579E-1	5.883066E-1	5.402616E-1	5.883379E-1	6.065915E-1	6.052984E-1	4.884344E-1	5.368895E-1	6.274101E-1	6.384384E-1	5.488081E-1	4.970070E-1	6.302426E-1	6.080829E-1	5.853227E-1	5.631005E-1	5.993264E-1	6.514730E-1	5.177195E-1	5.585170E-1	5.741061E-1	6.307272E-1	4.993458E-1	5.011512E-1	6.418735E-1	6.215896E-1	5.240256E-1	4.992547E-1	5.777913E-1	6.290342E-1	5.468575E-1	5.313683E-1	5.864706E-1	5.994005E-1	5.641302E-1	5.785028E-1	5.643823E-1	5.999514E-1	4.905593E-1	5.010896E-1	6.407702E-1	5.898926E-1	5.028650E-1	5.402390E-1	5.795946E-1	6.202960E-1	5.908059E-1	6.390279E-1	6.145367E-1	6.416788E-1	5.635971E-1	5.678229E-1	6.508370E-1	6.158380E-1	4.810216E-1	4.692894E-1	6.433912E-1	5.740512E-1	5.098332E-1	5.087736E-1	6.191982E-1	6.304696E-1	6.140658E-1	5.488666E-1	6.259318E-1	5.651271E-1	5.276045E-1	5.814343E-1	6.347237E-1	6.485500E-1	4.828980E-1	5.009905E-1	6.406680E-1	6.181734E-1	4.869259E-1	4.980873E-1	6.259210E-1	6.527372E-1	5.894807E-1	5.812189E-1	5.962824E-1	5.878215E-1	5.318970E-1	5.564469E-1	5.954366E-1	6.565213E-1	5.334504E-1	4.877487E-1	6.197375E-1	6.233036E-1	5.518882E-1	5.084845E-1	6.302743E-1	6.261633E-1	6.067380E-1	5.672928E-1	5.882205E-1	5.787319E-1	5.672522E-1	5.687298E-1	6.680913E-1	5.801494E-1	4.894130E-1	5.417719E-1	6.403847E-1	6.197397E-1	5.363460E-1	5.245182E-1	5.892014E-1
2.878020E+2	5.348090E-1	4.786391E-1	5.427163E-1	5.155874E-1	5.211585E-1	4.644647E-1	4.661853E-1	4.859789E-1	5.468700E-1	5.198214E-1	4.104817E-1	4.814048E-1	5.529352E-1	5.590787E-1	4.922202E-1	5.035791E-1	5.243749E-1	4.429766E-1	4.928373E-1	5.501790E-1	5.725685E-1	4.247949E-1	4.418969E-1	4.954818E-1	5.453739E-1	4.880699E-1	4.802022E-1	5.077739E-1	5.642166E-1	5.146493E-1	4.949428E-1	5.024581E-1	5.371892E-1	4.768572E-1	5.297508E-1	5.633774E-1	5.332709E-1	4.533748E-1	4.684488E-1	5.096891E-1	5.517896E-1	4.818505E-1	4.669327E-1	4.573669E-1	5.316351E-1	5.089365E-1	5.567454E-1	5.279712E-1	5.733401E-1	5.607158E-1	4.890588E-1	5.285548E-1	5.265719E-1	5.022936E-1	4.409281E-1	4.905027E-1	6.167629E-1	5.318093E-1	4.212868E-1	5.229853E-1	5.535384E-1	5.671729E-1	4.967658E-1	5.437510E-1	5.785627E-1	5.016209E-1	5.452699E-1	5.645419E-1	5.625227E-1	4.583424E-1	4.434893E-1	5.310638E-1	5.306170E-1	5.127648E-1	4.722695E-1	5.421515E-1	5.628202E-1	4.862427E-1	4.937243E-1	5.435083E-1	5.906298E-1	5.369377E-1	5.150415E-1	5.457446E-1	5.674941E-1	4.826290E-1	4.297556E-1	5.435394E-1	5.689593E-1	5.039173E-1	4.645143E-1	4.890808E-1	5.419309E-1	5.151867E-1	5.246651E-1	5.406769E-1	5.502118E-1	4.637401E-1	4.918935E-1	5.397729E-1	5.727086E-1	4.263116E-1	4.549848E-1	5.515191E-1	5.621038E-1	4.630597E-1	4.831982E-1	5.423813E-1	5.832050E-1	5.480192E-1	5.683912E-1	5.935072E-1	5.208460E-1	4.484343E-1	4.963196E-1	5.343170E-1	5.789798E-1	4.692767E-1	4.419488E-1	5.450420E-1	5.589820E-1	4.849636E-1	4.954369E-1	5.614492E-1	5.524218E-1	5.682468E-1	5.036516E-1	5.781896E-1	4.934870E-1	4.634564E-1	4.967244E-1	5.904354E-1	5.463398E-1	4.397990E-1	4.502745E-1	5.561192E-1	5.509870E-1	4.498164E-1	4.495062E-1	5.678684E-1	5.444657E-1	5.221796E-1	5.238951E-1	5.450996E-1	5.444137E-1	4.985035E-1	4.800371E-1	5.837847E-1	6.098219E-1	4.643016E-1	4.549186E-1	5.438014E-1	5.724476E-1	5.345084E-1	4.665116E-1	5.580363E-1	5.976324E-1	5.437814E-1	5.648716E-1	5.653716E-1	5.809646E-1	5.142861E-1	5.154571E-1	5.531319E-1	5.732712E-1	4.499999E-1	4.450949E-1	5.740384E-1	5.841664E-1	4.438925E-1	4.584572E-1	5.622048E-1
2.880020E+2	5.059287E-1	4.176155E-1	4.775873E-1	4.510380E-1	4.826990E-1	4.087473E-1	4.156403E-1	4.548159E-1	4.971674E-1	4.523593E-1	3.569267E-1	4.457244E-1	4.897653E-1	4.903634E-1	4.625984E-1	5.031100E-1	5.179007E-1	4.133497E-1	4.429938E-1	4.972368E-1	5.566083E-1	3.878304E-1	3.814302E-1	4.377785E-1	5.334104E-1	4.475378E-1	4.425304E-1	4.429514E-1	5.055551E-1	4.580237E-1	4.648433E-1	4.567281E-1	5.032549E-1	4.560980E-1	4.836666E-1	4.947279E-1	5.121836E-1	4.164824E-1	4.253566E-1	4.518900E-1	5.294276E-1	4.108618E-1	4.333026E-1	4.217963E-1	5.186921E-1	4.966512E-1	5.113409E-1	4.579914E-1	5.054785E-1	5.116465E-1	4.588708E-1	4.952696E-1	5.027999E-1	4.388927E-1	4.136601E-1	4.734602E-1	4.989126E-1	4.747351E-1	4.202356E-1	4.677603E-1	5.202757E-1	4.900803E-1	4.562234E-1	5.143521E-1	5.060222E-1	4.248546E-1	4.938123E-1	4.781699E-1	4.881515E-1	4.107342E-1	4.123560E-1	4.589327E-1	4.896449E-1	4.491272E-1	4.009118E-1	4.933372E-1	4.992365E-1	4.741209E-1	4.550779E-1	4.881705E-1	4.908477E-1	4.353567E-1	4.777769E-1	4.963960E-1	5.067309E-1	4.228548E-1	3.975126E-1	4.781630E-1	5.140651E-1	4.528326E-1	4.213528E-1	4.703385E-1	5.413832E-1	4.926414E-1	4.684598E-1	5.078924E-1	5.070230E-1	4.208772E-1	4.912750E-1	5.067459E-1	5.308712E-1	3.927277E-1	4.012750E-1	5.326977E-1	5.016231E-1	4.232540E-1	4.530928E-1	5.033082E-1	5.037982E-1	4.797631E-1	4.855591E-1	4.999232E-1	5.420057E-1	4.894433E-1	4.663513E-1	4.881825E-1	5.138111E-1	4.133699E-1	4.114185E-1	5.014550E-1	4.884594E-1	4.553313E-1	4.385005E-1	5.141433E-1	4.843648E-1	4.716813E-1	4.919667E-1	5.344672E-1	4.626999E-1	4.639951E-1	4.470134E-1	5.369195E-1	4.887848E-1	4.245873E-1	4.149545E-1	5.059535E-1	4.964664E-1	4.237841E-1	4.196108E-1	4.753891E-1	5.019860E-1	4.893244E-1	4.876908E-1	4.858349E-1	4.985932E-1	4.372812E-1	4.602269E-1	5.190551E-1	5.306358E-1	4.456660E-1	4.003620E-1	5.130791E-1	4.848990E-1	4.523466E-1	4.045511E-1	5.009034E-1	5.223592E-1	4.730198E-1	4.539914E-1	4.932725E-1	5.033727E-1	4.618886E-1	5.060231E-1	4.900517E-1	5.216806E-1	3.920400E-1	4.288179E-1	4.857699E-1	4.788425E-1	4.050625E-1	4.058515E-1	5.244093E-1
2.882230E+2	5.257843E-1	4.544492E-1	5.131122E-1	4.909408E-1	5.373019E-1	4.313498E-1	4.218294E-1	4.643659E-1	5.223042E-1	4.951928E-1	3.874581E-1	4.853695E-1	5.367514E-1	5.319001E-1	4.931917E-1	4.932520E-1	5.343796E-1	4.382983E-1	4.582519E-1	4.894351E-1	5.511222E-1	4.467861E-1	4.358033E-1	4.610456E-1	5.143768E-1	4.646862E-1	4.712552E-1	4.750989E-1	5.332858E-1	5.208269E-1	4.973703E-1	5.001714E-1	5.243840E-1	4.656790E-1	5.078607E-1	4.993818E-1	5.112461E-1	4.413846E-1	4.454662E-1	4.647343E-1	5.262331E-1	4.594053E-1	4.547037E-1	4.266467E-1	5.456138E-1	5.114960E-1	4.620725E-1	4.969799E-1	5.006313E-1	5.174883E-1	4.989483E-1	5.184504E-1	5.353048E-1	5.106486E-1	4.310933E-1	5.176642E-1	5.726365E-1	4.975650E-1	4.312752E-1	4.965734E-1	4.923772E-1	5.369404E-1	5.056654E-1	5.197415E-1	5.390449E-1	4.712235E-1	4.658467E-1	5.565870E-1	5.591198E-1	4.282506E-1	4.235990E-1	4.862391E-1	5.236086E-1	4.344849E-1	4.432509E-1	5.152196E-1	5.240232E-1	5.257688E-1	4.974484E-1	5.545757E-1	5.553417E-1	4.573204E-1	4.865759E-1	4.623620E-1	5.521796E-1	4.051245E-1	4.131734E-1	5.186855E-1	5.163289E-1	4.577239E-1	4.255635E-1	4.997007E-1	5.238526E-1	5.178704E-1	4.772260E-1	5.307893E-1	5.262186E-1	4.614844E-1	5.104523E-1	5.125741E-1	5.483845E-1	4.204711E-1	4.259914E-1	5.642690E-1	5.283222E-1	4.460002E-1	4.784446E-1	5.095099E-1	5.189485E-1	4.853664E-1	5.053784E-1	5.751058E-1	5.486881E-1	4.714669E-1	4.679285E-1	5.272199E-1	5.538738E-1	4.260546E-1	4.314684E-1	4.997787E-1	5.095560E-1	4.759681E-1	4.574794E-1	4.950977E-1	5.218271E-1	5.071540E-1	4.879023E-1	5.319543E-1	4.692126E-1	4.327298E-1	4.622307E-1	5.498375E-1	5.225241E-1	4.332072E-1	4.131428E-1	5.324453E-1	5.262046E-1	4.132608E-1	4.500401E-1	5.104912E-1	5.164913E-1	4.887942E-1	5.057930E-1	5.450992E-1	5.643089E-1	4.848419E-1	4.664523E-1	5.507730E-1	5.402808E-1	4.584168E-1	4.505737E-1	5.507569E-1	5.260985E-1	4.555070E-1	4.600155E-1	5.225743E-1	5.563534E-1	5.011163E-1	4.864325E-1	5.110435E-1	5.346330E-1	4.732798E-1	4.871559E-1	5.389832E-1	5.108707E-1	4.180060E-1	4.529873E-1	5.388463E-1	5.241812E-1	4.217039E-1	4.486695E-1	4.704162E-1
2.884130E+2	6.557452E-1	5.940901E-1	6.741578E-1	6.411647E-1	6.711974E-1	5.727457E-1	5.672745E-1	6.071122E-1	6.714116E-1	6.504629E-1	5.281016E-1	6.473478E-1	6.505623E-1	7.211229E-1	6.893755E-1	6.350190E-1	6.815102E-1	6.041059E-1	6.204967E-1	6.811408E-1	6.982546E-1	5.417700E-1	5.581422E-1	6.188000E-1	7.357080E-1	6.122635E-1	6.148802E-1	6.115942E-1	6.794061E-1	6.670237E-1	6.517519E-1	6.414771E-1	7.247894E-1	5.577635E-1	7.008381E-1	6.663517E-1	7.089972E-1	5.972561E-1	6.154416E-1	6.483004E-1	7.045945E-1	5.919877E-1	6.167385E-1	5.727020E-1	6.652070E-1	6.578934E-1	6.712216E-1	6.434377E-1	6.824030E-1	7.184375E-1	6.639418E-1	6.979542E-1	6.915236E-1	6.384337E-1	5.549185E-1	6.550683E-1	6.931772E-1	6.590037E-1	5.784726E-1	6.298334E-1	7.053696E-1	6.840716E-1	5.936714E-1	6.976034E-1	6.933277E-1	6.015716E-1	6.878976E-1	6.605738E-1	6.947382E-1	5.764653E-1	6.021834E-1	6.356535E-1	7.246958E-1	5.848509E-1	5.788307E-1	6.481971E-1	6.953746E-1	6.601594E-1	6.669320E-1	6.897908E-1	6.837196E-1	6.214968E-1	6.516789E-1	6.818794E-1	7.236010E-1	5.773564E-1	5.527402E-1	7.061689E-1	6.736539E-1	6.283683E-1	5.708394E-1	6.808705E-1	7.188770E-1	6.638779E-1	6.179957E-1	6.582827E-1	7.265677E-1	6.053019E-1	6.552133E-1	6.615215E-1	7.473548E-1	5.538341E-1	5.519469E-1	6.869131E-1	6.939632E-1	5.499074E-1	5.819633E-1	6.639439E-1	7.216431E-1	6.453085E-1	6.796813E-1	7.223157E-1	6.901233E-1	6.253920E-1	6.724501E-1	7.011119E-1	7.183999E-1	5.510229E-1	5.531339E-1	7.070943E-1	6.855616E-1	5.976717E-1	5.975124E-1	6.978371E-1	7.322444E-1	6.791001E-1	6.382806E-1	7.284533E-1	6.237416E-1	5.966042E-1	6.225218E-1	7.122282E-1	6.763350E-1	5.741655E-1	5.594045E-1	7.426902E-1	7.162005E-1	5.788698E-1	5.920458E-1	6.988245E-1	6.848559E-1	7.071251E-1	6.722328E-1	7.164278E-1	7.029744E-1	5.885651E-1	6.288940E-1	7.430214E-1	7.179417E-1	6.089746E-1	5.567891E-1	7.119046E-1	6.651465E-1	6.208828E-1	5.899315E-1	6.650796E-1	7.597123E-1	6.759378E-1	6.588050E-1	6.587966E-1	7.076802E-1	6.600856E-1	6.103495E-1	6.616066E-1	6.970891E-1	5.575729E-1	5.733402E-1	6.859616E-1	7.222733E-1	5.548362E-1	5.746767E-1	6.485940E-1
2.886030E+2	8.843787E-1	7.639674E-1	8.701367E-1	8.488959E-1	8.763136E-1	7.614489E-1	7.091096E-1	7.870532E-1	8.513687E-1	8.271502E-1	6.707470E-1	7.804418E-1	8.995883E-1	8.621426E-1	7.976650E-1	8.058912E-1	8.869053E-1	7.345692E-1	7.613796E-1	8.589143E-1	8.932671E-1	7.593430E-1	7.231360E-1	7.621276E-1	8.509957E-1	8.242760E-1	7.165951E-1	7.486166E-1	8.713893E-1	8.590366E-1	8.532243E-1	8.404023E-1	9.335178E-1	7.547074E-1	8.529154E-1	8.245947E-1	8.940956E-1	7.176183E-1	7.332262E-1	8.061769E-1	8.866826E-1	7.376195E-1	8.169890E-1	7.085174E-1	8.992174E-1	8.288614E-1	8.678124E-1	8.353810E-1	9.247660E-1	8.761592E-1	8.513150E-1	8.560600E-1	8.986841E-1	7.848952E-1	7.028812E-1	8.073851E-1	9.197291E-1	8.296830E-1	7.377605E-1	8.363261E-1	8.700761E-1	8.735279E-1	7.859998E-1	8.935933E-1	8.882120E-1	8.205355E-1	8.506606E-1	8.736625E-1	8.741039E-1	7.516281E-1	7.150420E-1	8.453483E-1	8.810369E-1	8.101181E-1	7.453318E-1	8.462618E-1	8.828922E-1	8.166848E-1	7.754195E-1	8.678323E-1	8.948438E-1	7.757901E-1	8.053957E-1	9.076359E-1	9.009511E-1	7.333783E-1	7.323810E-1	8.174703E-1	9.175650E-1	7.957523E-1	7.176948E-1	8.383007E-1	9.319790E-1	8.388728E-1	8.000176E-1	8.508241E-1	8.747312E-1	7.795743E-1	8.414226E-1	8.188887E-1	8.743259E-1	6.886576E-1	6.916860E-1	8.708799E-1	8.966560E-1	6.993065E-1	7.647058E-1	8.679964E-1	9.269500E-1	8.225695E-1	8.184125E-1	8.984423E-1	9.045034E-1	8.085297E-1	8.117769E-1	9.146316E-1	8.904045E-1	7.732405E-1	7.039625E-1	8.674706E-1	9.206367E-1	7.569454E-1	7.575494E-1	8.913603E-1	8.870905E-1	8.500604E-1	8.333650E-1	8.701738E-1	7.948490E-1	7.912043E-1	7.899141E-1	9.312096E-1	8.728170E-1	7.252655E-1	7.110996E-1	8.847319E-1	8.748053E-1	7.084767E-1	7.495327E-1	8.318052E-1	8.692800E-1	8.401376E-1	7.989478E-1	8.715934E-1	9.067530E-1	7.965174E-1	8.179372E-1	9.216768E-1	8.798677E-1	7.801298E-1	7.614966E-1	8.655172E-1	8.511878E-1	7.767779E-1	7.688162E-1	9.126578E-1	9.236137E-1	8.445158E-1	8.582922E-1	9.065752E-1	8.522584E-1	7.939247E-1	8.051285E-1	8.626385E-1	8.695488E-1	6.850846E-1	7.301931E-1	8.809616E-1	9.085103E-1	6.814977E-1	7.850960E-1	7.808764E-1
2.888240E+2	9.451478E-1	8.805171E-1	8.843469E-1	8.711949E-1	9.347139E-1	8.755121E-1	7.581070E-1	8.096714E-1	9.347771E-1	9.079977E-1	6.592354E-1	8.132902E-1	8.818385E-1	9.416265E-1	8.578800E-1	9.040018E-1	9.198626E-1	8.577554E-1	8.341104E-1	9.246737E-1	9.047382E-1	8.154913E-1	7.507913E-1	8.319304E-1	9.428996E-1	8.081671E-1	7.999450E-1	7.944664E-1	9.167185E-1	8.348418E-1	8.634193E-1	8.458898E-1	9.239141E-1	7.845151E-1	8.638604E-1	8.984800E-1	9.358008E-1	7.637338E-1	7.614762E-1	8.484561E-1	9.314061E-1	8.112181E-1	8.312568E-1	7.198355E-1	9.199261E-1	8.682761E-1	8.905146E-1	8.288831E-1	9.508205E-1	9.561886E-1	8.268523E-1	9.089602E-1	9.176045E-1	8.006226E-1	7.359604E-1	7.999289E-1	9.256485E-1	8.106582E-1	7.924339E-1	8.351264E-1	9.146063E-1	9.032561E-1	7.924271E-1	9.112325E-1	8.844226E-1	8.143534E-1	8.696775E-1	9.446916E-1	9.300035E-1	7.817202E-1	7.548238E-1	8.577136E-1	8.869670E-1	8.241976E-1	7.719721E-1	8.877820E-1	9.475527E-1	8.883595E-1	8.899600E-1	9.130646E-1	9.252647E-1	8.416802E-1	8.421428E-1	9.121741E-1	9.088550E-1	7.683311E-1	7.521879E-1	9.136425E-1	9.300146E-1	8.392283E-1	7.666461E-1	8.495454E-1	9.538915E-1	8.608811E-1	8.309561E-1	9.049439E-1	9.299173E-1	8.010053E-1	8.364740E-1	9.004860E-1	9.570275E-1	7.363567E-1	7.843707E-1	9.285588E-1	8.912071E-1	7.701286E-1	7.853039E-1	9.244366E-1	9.285173E-1	8.505848E-1	8.936228E-1	9.121122E-1	9.228789E-1	8.585270E-1	8.790741E-1	9.447959E-1	9.299343E-1	7.427029E-1	7.467960E-1	9.149689E-1	9.387195E-1	7.976891E-1	7.354933E-1	8.846024E-1	9.663871E-1	8.983430E-1	8.562266E-1	9.093730E-1	7.889282E-1	8.434934E-1	8.345527E-1	9.348997E-1	9.040749E-1	7.871253E-1	7.233255E-1	8.824771E-1	9.337309E-1	7.538944E-1	7.837002E-1	8.959323E-1	9.521670E-1	8.517962E-1	8.859397E-1	9.351683E-1	9.489552E-1	8.455961E-1	8.400112E-1	8.783074E-1	9.453479E-1	7.717929E-1	7.417018E-1	9.176874E-1	9.252186E-1	8.136453E-1	7.848059E-1	8.962406E-1	9.393970E-1	8.949858E-1	8.699131E-1	9.563344E-1	9.119875E-1	8.389177E-1	8.289904E-1	9.298452E-1	9.579906E-1	7.592734E-1	7.647202E-1	9.201924E-1	9.329230E-1	7.332719E-1	8.107858E-1	9.104616E-1
2.890220E+2	7.796886E-1	7.573703E-1	7.943501E-1	7.403359E-1	8.217105E-1	8.145384E-1	6.544387E-1	6.980878E-1	7.776719E-1	7.928835E-1	5.816560E-1	6.915239E-1	8.024837E-1	7.990687E-1	7.505613E-1	7.673982E-1	7.797943E-1	8.109760E-1	7.308640E-1	7.446705E-1	8.214466E-1	8.215741E-1	6.532950E-1	6.867410E-1	8.074909E-1	7.998533E-1	6.680925E-1	7.106718E-1	7.908623E-1	7.941741E-1	7.653532E-1	7.676917E-1	8.189095E-1	7.493847E-1	7.797562E-1	8.036512E-1	8.111528E-1	7.886364E-1	6.920497E-1	7.505186E-1	8.169357E-1	7.558886E-1	6.692219E-1	6.535451E-1	7.832475E-1	8.058270E-1	7.687929E-1	7.349105E-1	8.308503E-1	8.136547E-1	7.076619E-1	8.608156E-1	7.861283E-1	7.224770E-1	6.385103E-1	7.115215E-1	7.991887E-1	7.573890E-1	6.872930E-1	7.192738E-1	8.040864E-1	7.651952E-1	7.419964E-1	7.696297E-1	7.615372E-1	7.149177E-1	7.214568E-1	8.060423E-1	8.075099E-1	6.909945E-1	6.722337E-1	7.551843E-1	7.926233E-1	7.036797E-1	6.316351E-1	7.598540E-1	7.400988E-1	7.465910E-1	7.311858E-1	7.614882E-1	8.011459E-1	6.791507E-1	7.448403E-1	7.794425E-1	7.779426E-1	6.705646E-1	6.439425E-1	7.461504E-1	7.992882E-1	6.783663E-1	6.397929E-1	7.708308E-1	7.840670E-1	7.374190E-1	7.283432E-1	7.717263E-1	7.733565E-1	6.571885E-1	7.362546E-1	8.570963E-1	8.451369E-1	6.044537E-1	6.375016E-1	8.077362E-1	7.953097E-1	6.631197E-1	6.891795E-1	7.817864E-1	8.015717E-1	7.899696E-1	7.813161E-1	8.111678E-1	7.892392E-1	7.237021E-1	7.223975E-1	7.975208E-1	7.990607E-1	6.708231E-1	6.406235E-1	8.501471E-1	7.590980E-1	7.294293E-1	6.862513E-1	7.979777E-1	7.928095E-1	7.603924E-1	7.363308E-1	8.515790E-1	6.716992E-1	6.753062E-1	7.442621E-1	8.186430E-1	7.978960E-1	6.025606E-1	6.594780E-1	7.719998E-1	7.888943E-1	6.575201E-1	6.779961E-1	7.940030E-1	7.635987E-1	7.415707E-1	7.602300E-1	8.015531E-1	8.042608E-1	7.352955E-1	7.211515E-1	8.038675E-1	7.895134E-1	6.908742E-1	6.185878E-1	8.365335E-1	7.823081E-1	6.993569E-1	6.663821E-1	7.550483E-1	8.155604E-1	8.086152E-1	7.604856E-1	7.857326E-1	7.852725E-1	7.221640E-1	7.174498E-1	8.101698E-1	7.997787E-1	6.554095E-1	6.433813E-1	8.371153E-1	8.296911E-1	6.796496E-1	6.382916E-1	8.267718E-1
2.892010E+2	6.822182E-1	7.089908E-1	6.877767E-1	6.892830E-1	7.115556E-1	6.663089E-1	6.095674E-1	5.980649E-1	7.348250E-1	6.836583E-1	5.336069E-1	6.654710E-1	7.414019E-1	6.877912E-1	6.723790E-1	6.791460E-1	7.115255E-1	6.571231E-1	6.647450E-1	6.761253E-1	7.421447E-1	7.308014E-1	5.707982E-1	6.513747E-1	7.079733E-1	7.156713E-1	6.271238E-1	6.632413E-1	7.311353E-1	6.804081E-1	6.624324E-1	6.556534E-1	7.516811E-1	7.030756E-1	6.910451E-1	6.936946E-1	6.911900E-1	7.010162E-1	5.953314E-1	6.702423E-1	7.242941E-1	6.786359E-1	6.427253E-1	5.635400E-1	7.092136E-1	7.193191E-1	6.779840E-1	6.489359E-1	6.969451E-1	7.003288E-1	6.373968E-1	6.783395E-1	6.599890E-1	7.509827E-1	5.830799E-1	6.497429E-1	7.405323E-1	7.187958E-1	5.616503E-1	6.508429E-1	6.785441E-1	7.017072E-1	6.816777E-1	7.015228E-1	6.538096E-1	7.247065E-1	6.493044E-1	7.253529E-1	7.379994E-1	6.990790E-1	5.861843E-1	6.418360E-1	6.988190E-1	7.081851E-1	6.259260E-1	6.992565E-1	7.093848E-1	6.585784E-1	6.375980E-1	7.205873E-1	6.946707E-1	6.187516E-1	6.402921E-1	6.637280E-1	7.147091E-1	6.092697E-1	5.900500E-1	6.840163E-1	7.211917E-1	6.305422E-1	5.808408E-1	6.796209E-1	7.533897E-1	6.794456E-1	6.767792E-1	7.202087E-1	7.187703E-1	6.171448E-1	6.552129E-1	7.230436E-1	7.069764E-1	5.830377E-1	5.557491E-1	7.366998E-1	6.901492E-1	5.907468E-1	5.972802E-1	6.924745E-1	6.908211E-1	6.865674E-1	6.496994E-1	7.191615E-1	7.073851E-1	6.203358E-1	6.535224E-1	6.697634E-1	7.595317E-1	5.904861E-1	5.713610E-1	7.104473E-1	6.952053E-1	6.029632E-1	6.159777E-1	6.972224E-1	7.466051E-1	6.919094E-1	6.169428E-1	6.721672E-1	6.178212E-1	5.939086E-1	6.514353E-1	7.171490E-1	6.951896E-1	6.025609E-1	5.766118E-1	7.269073E-1	6.848097E-1	6.076712E-1	5.845718E-1	7.265003E-1	7.174925E-1	6.891074E-1	6.496051E-1	7.369010E-1	7.355311E-1	6.664839E-1	6.515341E-1	7.151871E-1	7.225099E-1	6.256487E-1	5.886543E-1	7.124843E-1	7.185771E-1	6.287828E-1	5.919301E-1	6.933180E-1	7.882436E-1	6.889461E-1	6.742992E-1	7.354660E-1	7.434064E-1	6.652112E-1	6.530788E-1	7.335300E-1	7.157597E-1	5.640651E-1	5.812320E-1	7.107694E-1	7.215764E-1	5.696293E-1	5.734530E-1	6.134982E-1
2.894050E+2	6.846247E-1	6.804034E-1	6.729737E-1	6.464461E-1	6.821175E-1	6.857577E-1	5.590231E-1	6.327465E-1	6.696976E-1	6.949025E-1	4.890613E-1	5.856145E-1	6.839747E-1	6.867654E-1	6.451853E-1	6.758597E-1	7.003435E-1	7.013035E-1	5.843856E-1	6.978592E-1	6.997509E-1	6.985161E-1	5.281433E-1	6.481170E-1	6.595749E-1	6.985230E-1	6.144095E-1	6.042160E-1	6.767399E-1	6.582728E-1	6.600046E-1	6.455927E-1	6.614024E-1	6.546383E-1	7.123587E-1	6.442443E-1	6.925958E-1	6.802646E-1	5.953316E-1	6.215407E-1	6.651953E-1	6.598449E-1	5.994139E-1	5.710850E-1	6.501933E-1	7.034503E-1	6.625272E-1	6.654306E-1	6.890685E-1	6.752098E-1	6.358351E-1	6.801226E-1	7.060785E-1	7.239519E-1	5.356965E-1	6.635898E-1	7.034012E-1	6.725933E-1	5.753181E-1	6.586460E-1	6.544015E-1	6.870944E-1	6.183923E-1	6.922140E-1	6.765461E-1	6.778226E-1	6.453890E-1	6.827353E-1	7.292498E-1	6.833594E-1	5.420790E-1	6.639911E-1	6.837231E-1	6.760840E-1	5.959561E-1	6.622248E-1	6.684327E-1	6.749161E-1	5.980212E-1	6.883473E-1	6.825023E-1	7.225282E-1	6.268357E-1	6.484132E-1	6.504878E-1	7.115959E-1	5.545826E-1	6.818552E-1	6.844066E-1	6.772791E-1	5.608390E-1	6.452615E-1	6.640950E-1	6.858867E-1	6.386215E-1	6.707716E-1	6.983753E-1	6.053018E-1	6.354170E-1	6.621696E-1	6.928691E-1	5.922852E-1	5.538480E-1	7.354856E-1	7.141236E-1	6.026367E-1	6.088997E-1	6.893731E-1	7.017915E-1	6.402147E-1	6.857792E-1	6.550199E-1	7.029306E-1	6.242682E-1	6.361724E-1	7.206302E-1	6.900889E-1	5.702847E-1	5.517669E-1	6.607137E-1	6.958082E-1	5.955553E-1	5.903308E-1	6.935365E-1	6.916588E-1	6.391928E-1	6.565700E-1	6.932742E-1	6.190053E-1	5.766589E-1	6.473773E-1	6.722457E-1	6.877470E-1	5.690961E-1	5.584985E-1	6.778693E-1	7.024324E-1	5.882854E-1	5.434648E-1	6.994989E-1	6.765670E-1	6.408840E-1	6.631811E-1	6.986491E-1	7.096061E-1	6.457391E-1	6.090843E-1	7.514359E-1	6.996677E-1	5.594427E-1	5.674109E-1	6.881388E-1	6.638598E-1	6.229892E-1	5.529555E-1	7.103927E-1	7.056855E-1	6.785399E-1	6.675206E-1	7.039859E-1	6.836768E-1	6.862838E-1	6.203381E-1	6.745768E-1	7.034763E-1	5.589643E-1	5.629819E-1	6.807694E-1	6.922807E-1	5.687045E-1	6.077074E-1	6.296962E-1
2.896180E+2	6.226531E-1	6.468674E-1	6.190948E-1	6.241475E-1	6.108968E-1	6.783990E-1	5.316873E-1	5.442837E-1	6.639846E-1	6.156611E-1	4.945671E-1	5.646593E-1	6.390765E-1	6.498441E-1	6.087651E-1	5.984041E-1	6.179503E-1	6.368520E-1	5.782823E-1	6.610781E-1	6.403988E-1	6.250562E-1	5.220499E-1	5.778491E-1	6.595749E-1	6.600702E-1	5.272924E-1	5.847169E-1	6.410098E-1	6.212088E-1	6.342745E-1	6.167829E-1	6.678050E-1	6.014104E-1	5.821713E-1	6.331907E-1	6.715088E-1	7.010162E-1	5.254262E-1	5.648123E-1	6.263283E-1	6.426193E-1	5.831087E-1	5.516831E-1	6.589944E-1	6.783685E-1	6.031155E-1	5.754570E-1	6.666496E-1	6.331505E-1	6.316712E-1	6.527810E-1	6.323350E-1	6.472804E-1	5.280971E-1	6.103322E-1	6.555079E-1	6.481325E-1	5.237990E-1	6.292331E-1	6.688875E-1	6.467846E-1	5.986151E-1	6.231270E-1	6.938694E-1	6.840048E-1	6.034396E-1	6.730751E-1	6.125893E-1	6.860543E-1	5.217554E-1	6.196819E-1	6.438291E-1	6.789002E-1	5.393458E-1	6.504421E-1	6.490346E-1	6.469836E-1	6.045397E-1	6.859415E-1	6.715514E-1	6.286347E-1	6.159669E-1	6.574883E-1	7.097689E-1	7.004514E-1	5.241818E-1	6.488973E-1	6.430946E-1	6.261941E-1	5.418895E-1	6.121512E-1	6.766946E-1	6.284498E-1	6.169649E-1	6.359063E-1	6.593849E-1	6.532406E-1	6.236630E-1	6.459794E-1	6.544371E-1	6.458254E-1	5.353112E-1	6.747703E-1	6.574572E-1	6.393399E-1	5.867170E-1	6.701472E-1	6.777606E-1	6.208583E-1	6.527483E-1	6.487109E-1	6.143938E-1	6.164033E-1	5.883281E-1	6.508370E-1	6.874180E-1	5.768618E-1	5.134898E-1	6.456262E-1	6.795338E-1	6.077257E-1	5.482701E-1	6.572892E-1	6.741765E-1	6.170222E-1	6.387884E-1	6.776950E-1	5.905866E-1	5.680337E-1	6.357103E-1	6.697853E-1	6.490461E-1	5.346166E-1	5.385747E-1	6.643416E-1	6.550708E-1	5.207125E-1	5.365247E-1	6.529217E-1	6.413403E-1	5.984895E-1	5.958012E-1	6.550084E-1	6.619779E-1	6.012146E-1	5.881424E-1	6.465732E-1	6.692116E-1	5.471818E-1	5.674106E-1	6.087241E-1	6.606406E-1	5.719022E-1	5.484584E-1	6.309309E-1	6.984009E-1	6.483623E-1	6.336268E-1	6.440723E-1	6.194820E-1	6.190789E-1	5.670650E-1	6.091382E-1	6.862787E-1	5.084236E-1	5.378258E-1	6.617309E-1	6.846082E-1	5.862704E-1	5.404221E-1	6.539930E-1
2.898030E+2	5.805359E-1	5.325162E-1	5.794252E-1	5.637061E-1	5.843075E-1	5.711692E-1	4.801110E-1	5.357394E-1	5.737210E-1	5.669382E-1	4.149861E-1	5.510669E-1	5.706860E-1	5.518994E-1	5.339820E-1	5.636659E-1	5.726337E-1	5.859139E-1	5.121637E-1	5.919752E-1	5.675812E-1	5.618897E-1	4.681459E-1	5.261952E-1	5.801777E-1	5.873212E-1	4.990386E-1	5.109353E-1	5.620834E-1	5.800267E-1	5.498016E-1	5.637358E-1	6.153021E-1	5.284882E-1	5.648894E-1	5.354521E-1	5.843484E-1	5.972558E-1	5.086686E-1	5.466163E-1	5.858643E-1	5.972076E-1	5.189063E-1	4.972489E-1	5.849604E-1	5.724094E-1	5.683378E-1	5.484645E-1	6.000001E-1	5.834973E-1	5.494346E-1	5.986921E-1	5.881866E-1	6.050129E-1	4.936763E-1	5.480208E-1	5.882418E-1	5.888836E-1	4.948858E-1	5.451953E-1	5.481739E-1	5.928699E-1	5.279142E-1	5.804991E-1	5.747732E-1	5.835394E-1	5.290498E-1	6.122735E-1	5.955766E-1	6.002696E-1	4.867306E-1	5.619770E-1	6.007007E-1	5.955509E-1	4.884439E-1	5.539343E-1	5.951506E-1	5.789978E-1	5.142111E-1	5.613123E-1	5.906301E-1	6.165549E-1	5.492009E-1	5.865854E-1	5.798444E-1	6.077503E-1	4.523255E-1	6.056733E-1	5.553772E-1	6.158689E-1	4.929384E-1	5.309369E-1	5.583657E-1	5.661820E-1	5.035234E-1	5.791848E-1	6.017997E-1	5.906382E-1	5.506637E-1	6.259039E-1	5.902212E-1	5.806039E-1	4.568858E-1	5.976632E-1	5.849892E-1	5.571445E-1	4.932332E-1	5.647093E-1	5.690995E-1	5.785810E-1	5.480646E-1	6.071768E-1	6.093824E-1	5.810122E-1	5.210303E-1	5.922820E-1	6.147698E-1	5.914260E-1	4.788584E-1	5.869520E-1	6.295052E-1	6.071964E-1	5.005664E-1	6.118263E-1	5.930063E-1	5.564224E-1	5.463265E-1	5.756764E-1	5.325641E-1	5.637210E-1	5.479561E-1	5.879745E-1	5.934752E-1	6.101663E-1	4.987262E-1	5.899387E-1	5.620005E-1	5.794235E-1	4.874102E-1	6.124202E-1	6.294251E-1	5.810021E-1	5.585916E-1	6.307638E-1	5.980707E-1	5.313910E-1	5.287121E-1	5.682497E-1	5.793659E-1	5.241324E-1	4.983705E-1	5.785813E-1	5.737352E-1	5.065943E-1	5.034879E-1	5.770812E-1	5.988466E-1	5.885273E-1	5.803658E-1	5.790809E-1	5.882215E-1	5.353582E-1	5.409835E-1	5.879146E-1	6.130700E-1	4.583462E-1	4.993527E-1	6.017305E-1	6.092773E-1	4.956666E-1	5.465392E-1	5.136109E-1
2.900030E+2	5.005136E-1	4.912841E-1	4.977178E-1	4.844862E-1	5.187845E-1	5.207080E-1	4.151247E-1	4.402394E-1	5.154487E-1	5.139323E-1	3.859567E-1	4.559190E-1	5.002066E-1	4.939531E-1	4.514293E-1	4.786997E-1	5.067185E-1	5.074287E-1	4.745276E-1	5.083820E-1	5.067334E-1	5.043382E-1	4.151793E-1	4.629077E-1	4.986067E-1	5.343178E-1	4.354668E-1	4.308303E-1	4.826234E-1	5.053836E-1	4.968851E-1	4.832512E-1	5.307861E-1	5.071968E-1	4.784818E-1	4.848374E-1	5.103092E-1	5.193203E-1	4.469028E-1	4.973802E-1	4.937553E-1	5.173452E-1	4.521560E-1	4.185624E-1	5.409537E-1	5.017702E-1	5.152050E-1	4.829840E-1	4.745769E-1	5.046368E-1	4.770875E-1	4.988361E-1	5.333640E-1	4.831255E-1	3.993554E-1	5.032845E-1	5.166706E-1	5.231127E-1	3.976298E-1	4.833681E-1	5.701703E-1	5.223281E-1	4.601791E-1	5.060220E-1	5.152252E-1	5.227441E-1	4.954905E-1	5.105596E-1	5.372465E-1	5.149336E-1	4.024108E-1	4.774808E-1	4.971920E-1	5.426131E-1	4.075717E-1	5.023145E-1	5.283342E-1	5.215529E-1	4.527500E-1	5.266666E-1	5.322211E-1	5.210142E-1	4.529338E-1	5.003668E-1	5.180931E-1	5.180886E-1	4.062645E-1	4.938316E-1	4.982201E-1	5.033740E-1	4.203002E-1	4.822085E-1	4.937226E-1	5.103558E-1	4.741318E-1	4.751085E-1	5.154210E-1	5.195753E-1	4.770461E-1	5.222875E-1	5.138442E-1	5.270642E-1	3.988991E-1	5.169117E-1	5.168800E-1	5.354325E-1	4.277416E-1	4.840806E-1	5.252174E-1	4.935160E-1	4.835272E-1	5.288397E-1	4.918913E-1	4.984314E-1	4.637224E-1	5.171651E-1	5.122079E-1	5.237742E-1	3.945586E-1	4.941911E-1	4.836374E-1	5.108915E-1	4.487590E-1	5.036990E-1	5.137105E-1	5.037052E-1	4.640248E-1	5.113496E-1	4.597395E-1	5.049635E-1	4.698397E-1	5.350742E-1	5.126006E-1	5.011514E-1	4.199354E-1	5.144080E-1	5.047275E-1	5.074198E-1	4.559124E-1	5.104907E-1	5.102747E-1	5.052218E-1	4.605378E-1	5.488709E-1	5.269297E-1	4.848423E-1	4.953189E-1	5.151713E-1	5.610923E-1	5.241326E-1	4.269160E-1	5.136582E-1	5.402605E-1	5.239745E-1	4.335328E-1	5.107533E-1	5.029333E-1	5.130835E-1	4.835272E-1	5.069816E-1	4.782531E-1	4.795444E-1	4.949246E-1	5.006634E-1	4.971134E-1	4.727202E-1	3.937973E-1	5.648077E-1	5.053472E-1	4.318732E-1	3.997353E-1	5.325085E-1
2.905220E+2	5.588759E-1	5.347159E-1	5.290978E-1	5.079588E-1	5.130867E-1	5.364766E-1	4.558701E-1	4.789417E-1	5.137347E-1	5.583713E-1	4.475191E-1	5.017940E-1	5.169130E-1	5.436944E-1	4.907636E-1	5.350313E-1	5.237860E-1	5.370555E-1	4.816478E-1	5.446060E-1	5.880300E-1	5.403659E-1	4.461155E-1	4.833830E-1	5.073075E-1	5.592603E-1	4.528901E-1	4.888014E-1	5.327527E-1	5.167086E-1	5.255277E-1	5.207500E-1	5.634401E-1	5.524408E-1	5.216856E-1	5.232345E-1	5.346764E-1	5.935668E-1	4.741945E-1	4.989854E-1	5.709568E-1	5.225644E-1	4.771236E-1	4.422761E-1	5.166212E-1	5.360661E-1	5.214847E-1	5.044776E-1	5.618277E-1	5.519535E-1	4.942637E-1	5.315268E-1	5.420969E-1	5.421037E-1	4.597031E-1	5.208597E-1	5.651026E-1	5.617057E-1	4.517774E-1	4.989747E-1	5.562218E-1	5.313975E-1	4.626508E-1	5.217020E-1	5.330896E-1	5.371705E-1	5.503036E-1	5.656785E-1	5.576618E-1	5.576015E-1	4.495432E-1	5.279723E-1	5.128262E-1	5.938617E-1	4.427748E-1	5.101698E-1	5.256400E-1	5.431605E-1	4.853426E-1	5.146364E-1	5.693351E-1	5.627445E-1	4.917512E-1	5.508494E-1	5.689761E-1	5.687448E-1	4.127126E-1	5.570466E-1	5.508505E-1	5.376116E-1	4.455654E-1	5.178177E-1	5.600092E-1	5.511520E-1	5.035236E-1	5.401561E-1	4.998248E-1	5.658220E-1	5.215877E-1	5.423634E-1	5.610327E-1	5.353386E-1	4.521330E-1	5.812696E-1	5.506619E-1	5.850604E-1	4.625998E-1	5.287366E-1	5.220826E-1	5.205125E-1	5.414586E-1	5.740540E-1	5.670638E-1	5.709002E-1	4.994745E-1	5.183480E-1	5.634893E-1	5.533718E-1	4.323794E-1	5.221310E-1	5.463249E-1	5.500488E-1	4.897944E-1	5.411749E-1	5.224520E-1	5.588858E-1	4.858703E-1	5.440155E-1	4.751331E-1	5.168233E-1	5.165068E-1	5.566031E-1	5.384013E-1	5.447573E-1	4.552555E-1	5.690833E-1	5.647549E-1	5.766542E-1	4.468370E-1	5.401924E-1	5.631153E-1	6.085584E-1	5.088100E-1	5.327075E-1	5.317530E-1	5.455578E-1	4.828668E-1	5.410629E-1	5.605845E-1	5.471819E-1	4.100183E-1	5.466994E-1	5.602169E-1	5.424085E-1	4.470235E-1	5.646038E-1	5.587815E-1	5.510653E-1	5.392090E-1	5.460777E-1	5.541700E-1	5.746560E-1	5.115722E-1	5.342671E-1	5.374032E-1	5.663836E-1	4.233926E-1	5.486538E-1	5.576609E-1	5.520627E-1	4.462224E-1	5.433070E-1
2.910040E+2	7.020735E-1	6.683083E-1	6.682373E-1	6.640502E-1	6.626505E-1	6.946938E-1	5.306557E-1	5.980647E-1	7.068317E-1	6.981149E-1	6.121872E-1	6.139324E-1	6.918054E-1	6.990727E-1	6.704367E-1	6.674097E-1	6.956350E-1	6.981851E-1	6.098159E-1	7.023173E-1	6.837905E-1	6.779286E-1	5.473615E-1	6.537014E-1	6.655559E-1	6.616292E-1	5.757954E-1	5.899869E-1	6.244775E-1	6.459179E-1	6.600047E-1	6.419341E-1	7.023794E-1	6.588970E-1	6.858604E-1	6.715871E-1	6.907214E-1	6.751915E-1	5.694763E-1	6.413427E-1	7.131132E-1	6.895978E-1	5.815799E-1	5.721636E-1	6.957525E-1	6.758089E-1	6.533501E-1	6.569334E-1	7.084572E-1	7.260317E-1	6.639413E-1	6.920104E-1	6.983159E-1	6.551441E-1	5.504479E-1	6.406890E-1	7.211596E-1	7.095555E-1	5.821522E-1	6.370369E-1	7.096611E-1	6.563586E-1	6.401469E-1	7.039729E-1	6.960345E-1	7.015218E-1	6.828636E-1	6.736438E-1	6.748081E-1	7.080618E-1	5.758066E-1	6.753257E-1	7.020537E-1	7.104372E-1	5.926260E-1	6.981344E-1	6.835206E-1	6.928349E-1	6.520325E-1	6.758365E-1	6.995383E-1	6.879362E-1	6.615127E-1	7.017325E-1	6.885264E-1	6.589136E-1	5.555039E-1	6.959031E-1	7.047796E-1	7.316247E-1	5.629441E-1	6.552566E-1	7.402419E-1	6.520688E-1	6.195427E-1	7.056375E-1	6.857783E-1	7.406588E-1	6.317050E-1	7.068539E-1	6.724368E-1	7.027725E-1	5.662062E-1	7.288066E-1	7.043161E-1	7.096451E-1	5.925267E-1	6.788297E-1	6.845522E-1	6.891146E-1	6.618956E-1	7.170587E-1	7.101693E-1	6.978608E-1	6.524711E-1	7.141240E-1	7.419041E-1	7.159246E-1	5.522223E-1	7.065353E-1	6.915897E-1	7.162004E-1	5.780209E-1	6.763344E-1	7.004006E-1	7.047194E-1	6.672383E-1	6.993051E-1	6.195975E-1	7.238218E-1	6.189711E-1	6.851631E-1	7.195016E-1	7.125897E-1	5.639324E-1	6.925247E-1	7.128957E-1	7.178924E-1	5.786993E-1	7.028746E-1	7.055777E-1	7.336217E-1	6.566449E-1	6.841018E-1	6.764472E-1	7.019014E-1	6.475719E-1	6.776435E-1	7.011908E-1	7.001925E-1	5.423052E-1	7.124842E-1	6.818840E-1	7.104177E-1	5.764401E-1	7.163034E-1	7.081138E-1	6.738568E-1	6.529945E-1	7.242956E-1	7.272180E-1	7.079260E-1	5.931467E-1	7.158441E-1	7.211646E-1	6.966769E-1	5.600221E-1	7.344232E-1	7.348292E-1	6.639324E-1	5.991434E-1	6.701915E-1
2.915150E+2	7.826971E-1	7.474744E-1	7.315899E-1	7.057139E-1	7.642589E-1	7.861537E-1	6.487650E-1	6.855224E-1	7.896689E-1	7.596879E-1	6.867634E-1	6.756659E-1	7.659394E-1	7.765052E-1	7.758129E-1	7.382934E-1	7.733201E-1	7.558797E-1	7.191659E-1	6.956296E-1	7.750624E-1	7.621508E-1	6.509515E-1	6.858103E-1	7.346201E-1	7.728314E-1	6.605579E-1	7.085641E-1	7.599321E-1	7.663761E-1	7.318555E-1	7.635759E-1	7.696078E-1	7.696112E-1	7.532587E-1	7.495455E-1	7.703840E-1	7.222295E-1	6.398606E-1	7.264356E-1	7.573043E-1	7.277019E-1	7.201762E-1	6.508500E-1	7.703042E-1	7.474726E-1	7.190410E-1	7.489063E-1	7.835899E-1	7.867831E-1	7.368092E-1	7.241079E-1	7.419797E-1	7.509828E-1	6.121363E-1	7.264337E-1	7.911165E-1	7.492353E-1	6.384024E-1	7.024662E-1	7.708232E-1	7.641873E-1	7.241976E-1	7.823694E-1	7.588311E-1	7.705606E-1	7.236941E-1	7.611516E-1	7.535545E-1	7.637547E-1	6.428298E-1	7.469409E-1	7.360171E-1	7.729493E-1	6.525668E-1	8.125962E-1	7.740463E-1	7.539685E-1	6.944030E-1	7.653381E-1	7.786340E-1	7.900662E-1	7.329362E-1	7.317952E-1	7.967151E-1	7.698509E-1	6.278210E-1	7.542548E-1	7.743874E-1	7.566235E-1	6.224234E-1	7.614599E-1	7.544853E-1	7.755307E-1	7.154521E-1	7.493495E-1	7.739562E-1	7.767545E-1	7.127468E-1	7.644901E-1	8.159483E-1	7.864896E-1	6.213412E-1	7.634140E-1	7.795083E-1	7.716799E-1	6.654123E-1	7.346498E-1	7.770184E-1	7.716322E-1	7.259256E-1	7.738395E-1	7.892393E-1	7.135902E-1	6.803363E-1	7.685396E-1	7.264125E-1	7.746498E-1	6.114602E-1	7.897969E-1	7.380017E-1	8.019224E-1	6.575259E-1	7.353128E-1	7.884385E-1	7.663045E-1	7.185499E-1	7.490576E-1	6.793960E-1	7.782671E-1	6.823777E-1	7.989595E-1	7.482793E-1	7.891535E-1	6.042338E-1	7.460717E-1	7.921983E-1	8.120514E-1	6.315507E-1	7.737525E-1	7.511657E-1	8.125814E-1	7.677727E-1	7.622235E-1	7.994371E-1	7.965172E-1	7.160577E-1	7.417268E-1	7.727623E-1	7.722831E-1	6.050695E-1	7.663933E-1	7.823077E-1	7.941579E-1	6.438966E-1	7.681824E-1	7.578913E-1	7.826004E-1	7.236867E-1	7.506982E-1	7.685260E-1	7.614615E-1	7.213348E-1	7.706703E-1	7.948655E-1	7.481453E-1	6.463407E-1	7.488463E-1	7.871427E-1	7.711777E-1	6.627591E-1	7.322834E-1
2.920010E+2	6.593549E-1	6.650096E-1	6.528432E-1	6.259078E-1	6.374861E-1	6.195270E-1	5.425180E-1	5.623782E-1	6.479886E-1	6.493921E-1	5.896645E-1	5.674910E-1	6.082745E-1	6.436901E-1	6.330452E-1	5.829129E-1	6.826877E-1	6.306146E-1	6.082904E-1	6.226260E-1	5.930175E-1	6.914980E-1	5.351744E-1	5.857599E-1	6.204199E-1	6.101849E-1	5.315306E-1	5.388672E-1	6.228776E-1	6.551841E-1	5.939802E-1	5.893451E-1	5.967342E-1	6.599613E-1	6.328635E-1	6.593700E-1	6.237113E-1	6.263092E-1	5.503242E-1	5.696290E-1	6.470926E-1	6.499277E-1	5.642559E-1	5.333590E-1	6.605476E-1	6.358828E-1	5.852435E-1	6.219433E-1	6.248421E-1	6.430812E-1	5.614060E-1	5.986927E-1	6.609594E-1	6.448230E-1	5.196032E-1	5.986149E-1	5.990045E-1	6.470457E-1	5.553412E-1	6.034217E-1	6.275764E-1	6.029478E-1	6.075151E-1	6.211668E-1	6.121262E-1	6.458793E-1	6.118298E-1	6.469362E-1	6.261998E-1	6.483266E-1	5.390519E-1	6.371992E-1	6.680893E-1	6.456731E-1	5.564717E-1	6.324872E-1	6.468792E-1	6.432947E-1	5.756716E-1	6.604378E-1	6.155757E-1	6.753073E-1	6.206252E-1	5.916901E-1	6.247996E-1	6.168682E-1	4.974665E-1	6.164797E-1	6.691268E-1	6.147822E-1	5.160977E-1	6.277687E-1	6.487559E-1	6.305972E-1	5.886048E-1	6.088465E-1	6.599847E-1	6.374489E-1	6.020104E-1	6.155427E-1	6.520049E-1	6.755155E-1	5.134471E-1	6.419845E-1	6.487389E-1	6.491622E-1	5.471052E-1	6.161875E-1	6.458938E-1	6.371581E-1	6.253069E-1	6.439790E-1	6.305424E-1	6.658394E-1	5.920085E-1	6.455133E-1	6.452176E-1	6.651853E-1	5.139454E-1	6.188041E-1	6.246830E-1	6.484703E-1	5.416015E-1	6.456160E-1	6.772985E-1	6.426413E-1	5.615671E-1	6.731723E-1	6.006514E-1	6.219399E-1	5.631735E-1	6.254959E-1	6.177878E-1	6.426173E-1	5.326878E-1	6.423589E-1	6.275355E-1	6.719208E-1	5.060946E-1	6.279460E-1	6.382318E-1	6.816888E-1	5.922817E-1	6.711715E-1	6.601691E-1	6.371381E-1	5.949341E-1	6.549884E-1	6.671812E-1	6.486980E-1	5.316839E-1	6.533590E-1	6.084979E-1	6.482700E-1	5.209761E-1	6.499754E-1	6.577297E-1	6.468013E-1	5.609984E-1	6.582889E-1	6.317627E-1	6.515427E-1	5.781641E-1	5.731762E-1	6.317407E-1	6.252701E-1	5.422655E-1	6.328846E-1	6.818184E-1	6.389697E-1	5.746761E-1	6.269972E-1
2.925020E+2	6.858276E-1	6.760050E-1	6.824470E-1	6.617032E-1	6.759452E-1	6.868086E-1	6.900265E-1	6.191751E-1	7.245417E-1	7.173898E-1	6.767529E-1	6.127998E-1	7.158206E-1	6.847143E-1	6.675233E-1	6.523881E-1	7.132907E-1	7.356089E-1	6.703402E-1	7.145778E-1	6.917706E-1	6.882229E-1	6.650128E-1	6.085623E-1	7.047107E-1	6.938465E-1	6.831614E-1	5.704876E-1	7.034039E-1	7.215907E-1	6.837932E-1	6.487942E-1	7.183863E-1	6.817847E-1	6.864363E-1	7.123117E-1	6.710401E-1	7.190016E-1	6.183144E-1	5.990638E-1	7.179047E-1	7.005590E-1	6.294774E-1	6.637848E-1	7.356177E-1	6.998678E-1	6.934411E-1	6.944222E-1	7.205754E-1	7.003287E-1	6.478062E-1	7.175686E-1	6.871577E-1	7.210027E-1	5.736927E-1	6.401562E-1	7.260030E-1	7.302106E-1	5.853061E-1	6.754542E-1	6.930297E-1	6.734900E-1	6.455856E-1	6.657549E-1	6.797946E-1	6.953401E-1	6.532193E-1	7.122835E-1	7.224447E-1	6.891979E-1	5.572131E-1	6.712032E-1	6.810278E-1	7.267691E-1	5.650346E-1	6.756908E-1	6.948360E-1	6.981052E-1	6.082648E-1	7.119257E-1	6.922372E-1	6.818959E-1	6.589242E-1	6.807451E-1	7.270594E-1	7.156486E-1	5.532012E-1	7.050877E-1	7.330755E-1	6.805398E-1	5.761034E-1	6.358904E-1	6.843644E-1	6.810557E-1	6.499661E-1	6.895058E-1	7.169710E-1	7.056916E-1	6.286117E-1	7.023203E-1	7.157334E-1	6.696748E-1	5.528974E-1	7.081639E-1	7.032258E-1	7.148147E-1	6.131251E-1	6.893735E-1	7.117173E-1	7.054136E-1	6.867956E-1	6.849874E-1	7.023736E-1	6.899956E-1	6.361727E-1	6.810017E-1	7.419035E-1	7.173338E-1	5.312609E-1	6.763605E-1	7.144940E-1	6.781023E-1	6.472677E-1	7.088952E-1	7.110153E-1	7.076757E-1	6.519971E-1	7.364937E-1	6.077559E-1	7.470015E-1	6.519424E-1	7.196091E-1	6.609543E-1	7.561954E-1	5.883851E-1	6.874515E-1	7.002295E-1	7.090301E-1	5.573446E-1	7.001741E-1	7.169750E-1	7.394507E-1	6.470909E-1	6.792528E-1	7.270905E-1	7.120210E-1	6.260638E-1	7.242500E-1	7.143888E-1	7.458010E-1	5.987933E-1	6.881384E-1	7.044150E-1	7.304311E-1	6.249091E-1	7.228698E-1	7.287532E-1	7.061155E-1	6.413742E-1	7.156638E-1	6.993066E-1	7.107734E-1	6.331017E-1	7.052322E-1	6.848054E-1	7.003868E-1	5.669281E-1	7.125000E-1	7.348298E-1	6.583845E-1	6.150469E-1	6.836901E-1
2.930020E+2	7.098949E-1	7.392278E-1	7.878376E-1	7.162768E-1	7.523890E-1	7.640773E-1	7.359293E-1	6.433017E-1	7.633900E-1	7.516565E-1	7.673457E-1	6.309234E-1	7.601965E-1	7.216359E-1	7.248246E-1	7.110669E-1	7.421287E-1	7.512022E-1	7.476475E-1	7.379835E-1	7.586036E-1	7.687013E-1	7.282918E-1	6.685926E-1	7.003607E-1	7.135928E-1	7.815798E-1	6.263507E-1	7.908635E-1	7.442408E-1	7.333117E-1	7.022978E-1	7.600039E-1	7.403358E-1	7.428889E-1	7.303468E-1	7.792875E-1	7.706514E-1	7.413660E-1	6.868323E-1	7.397345E-1	7.282236E-1	7.262901E-1	6.643238E-1	7.392412E-1	7.623169E-1	7.861814E-1	7.169157E-1	7.969198E-1	7.616651E-1	7.404520E-1	7.698743E-1	7.575048E-1	7.745740E-1	7.082452E-1	6.950121E-1	7.706675E-1	7.633684E-1	7.151555E-1	7.336806E-1	7.450712E-1	7.536061E-1	6.925550E-1	7.554201E-1	7.485450E-1	7.896229E-1	7.522195E-1	7.770620E-1	7.472351E-1	7.659999E-1	6.000212E-1	7.211801E-1	7.376345E-1	8.044866E-1	6.668384E-1	7.458266E-1	7.616525E-1	7.497532E-1	6.809002E-1	7.706313E-1	7.336104E-1	7.911641E-1	6.956719E-1	7.516490E-1	7.532420E-1	7.622524E-1	6.282818E-1	7.239985E-1	7.240210E-1	7.457542E-1	6.418989E-1	7.058596E-1	7.681809E-1	7.481548E-1	6.772945E-1	7.493496E-1	7.571610E-1	7.891623E-1	6.904756E-1	7.521859E-1	7.697328E-1	7.456045E-1	6.085078E-1	8.204862E-1	7.446365E-1	7.582386E-1	6.786160E-1	7.358900E-1	7.435844E-1	7.543138E-1	7.249095E-1	7.843548E-1	7.279879E-1	7.630259E-1	6.819138E-1	7.567096E-1	7.616685E-1	7.643141E-1	5.832083E-1	7.367103E-1	7.669341E-1	7.913398E-1	6.590650E-1	7.414560E-1	7.934338E-1	7.288609E-1	7.134691E-1	8.033341E-1	6.876850E-1	7.836573E-1	6.762902E-1	7.522107E-1	7.527449E-1	7.830691E-1	6.372896E-1	7.539630E-1	7.553002E-1	7.406013E-1	6.085945E-1	7.211000E-1	7.610086E-1	7.749565E-1	7.124597E-1	7.724601E-1	7.988344E-1	7.327656E-1	7.251136E-1	7.585568E-1	7.935746E-1	7.663985E-1	6.668683E-1	7.646549E-1	7.546267E-1	7.483378E-1	6.144159E-1	8.010182E-1	8.028126E-1	7.701130E-1	7.091613E-1	7.491753E-1	8.131833E-1	7.614619E-1	6.719465E-1	7.500367E-1	7.850388E-1	7.782845E-1	6.354893E-1	7.673077E-1	7.801671E-1	7.924423E-1	6.297282E-1	7.133859E-1
2.935120E+2	8.193983E-1	7.936542E-1	7.884303E-1	7.913884E-1	7.993949E-1	8.124354E-1	8.334087E-1	7.227167E-1	8.228040E-1	8.250085E-1	7.848636E-1	7.170094E-1	8.369408E-1	7.800949E-1	8.238879E-1	7.842980E-1	8.657181E-1	8.432019E-1	8.178347E-1	8.327217E-1	7.945139E-1	8.515196E-1	8.646931E-1	7.086124E-1	8.314186E-1	7.936173E-1	7.745162E-1	7.169961E-1	8.143276E-1	8.266051E-1	8.056474E-1	7.526010E-1	7.792126E-1	8.372110E-1	8.938148E-1	8.344848E-1	8.120899E-1	7.964754E-1	8.457458E-1	7.794180E-1	8.435567E-1	8.002566E-1	8.297277E-1	7.597178E-1	8.438207E-1	7.914942E-1	8.460765E-1	7.644020E-1	8.350920E-1	7.949617E-1	8.060331E-1	8.316909E-1	7.909799E-1	8.232304E-1	8.177649E-1	7.887448E-1	8.282471E-1	8.302263E-1	8.266048E-1	7.720974E-1	8.335944E-1	7.908931E-1	8.339582E-1	7.897188E-1	7.994315E-1	8.019879E-1	8.640841E-1	8.077467E-1	8.016769E-1	8.365145E-1	8.131995E-1	7.685802E-1	8.190396E-1	8.365871E-1	8.243012E-1	8.103518E-1	8.198473E-1	8.498866E-1	8.257057E-1	8.317428E-1	8.340007E-1	7.933609E-1	7.500159E-1	8.282244E-1	8.219097E-1	8.311453E-1	7.056656E-1	8.217920E-1	8.043813E-1	8.153165E-1	7.176945E-1	7.664574E-1	8.185800E-1	8.233056E-1	7.953762E-1	8.164792E-1	8.075484E-1	8.077736E-1	7.294503E-1	7.916887E-1	8.212997E-1	8.088790E-1	6.555633E-1	8.387007E-1	7.849574E-1	8.182049E-1	7.536145E-1	7.631794E-1	8.036609E-1	8.195135E-1	8.052002E-1	8.495478E-1	8.232059E-1	8.001028E-1	7.528920E-1	8.270942E-1	8.540811E-1	8.174021E-1	6.684195E-1	8.210900E-1	8.085240E-1	8.595999E-1	7.175403E-1	8.305386E-1	8.583698E-1	8.426705E-1	7.317585E-1	7.852417E-1	7.232087E-1	8.774539E-1	7.158560E-1	8.334062E-1	8.266732E-1	8.327595E-1	7.274012E-1	8.362573E-1	8.081689E-1	8.247908E-1	6.790636E-1	8.311293E-1	8.231736E-1	8.449069E-1	7.607327E-1	8.451937E-1	8.289794E-1	8.208037E-1	7.607713E-1	8.401163E-1	8.260611E-1	8.762517E-1	6.968012E-1	8.197227E-1	8.125633E-1	8.046916E-1	6.908666E-1	8.423906E-1	8.544109E-1	8.013310E-1	7.638746E-1	8.177200E-1	8.165322E-1	8.189844E-1	7.618441E-1	8.343402E-1	8.587398E-1	8.557190E-1	6.463408E-1	7.967305E-1	8.206228E-1	7.979895E-1	6.908963E-1	7.835752E-1
2.940110E+2	8.272207E-1	7.804605E-1	8.292835E-1	7.837597E-1	7.637840E-1	7.924617E-1	7.844114E-1	6.433019E-1	8.062369E-1	7.843170E-1	7.783566E-1	7.272043E-1	8.139693E-1	8.318874E-1	7.811543E-1	7.777254E-1	8.162828E-1	7.953827E-1	8.005423E-1	7.703059E-1	8.344141E-1	7.944358E-1	8.150071E-1	7.542171E-1	8.172794E-1	8.045291E-1	8.008867E-1	6.822135E-1	7.727314E-1	7.946892E-1	8.284648E-1	7.452842E-1	8.201897E-1	8.164513E-1	8.408178E-1	7.955057E-1	8.584814E-1	8.158444E-1	8.256357E-1	7.644333E-1	8.169352E-1	8.253118E-1	7.813212E-1	6.945044E-1	7.853184E-1	8.078741E-1	8.021212E-1	7.728994E-1	8.132793E-1	8.089812E-1	8.127993E-1	7.859228E-1	7.982577E-1	8.251965E-1	8.177647E-1	7.296294E-1	8.303994E-1	8.160940E-1	7.913828E-1	7.372822E-1	8.512992E-1	7.667067E-1	8.235754E-1	7.730595E-1	7.788604E-1	8.081702E-1	7.662026E-1	8.412731E-1	8.347302E-1	8.311250E-1	7.829303E-1	7.953720E-1	7.974756E-1	8.056131E-1	8.062236E-1	7.856638E-1	8.295466E-1	7.397396E-1	7.861287E-1	8.168259E-1	8.133142E-1	7.735934E-1	7.929738E-1	7.754721E-1	8.125228E-1	8.473551E-1	8.093043E-1	8.217919E-1	7.936283E-1	7.881437E-1	7.977015E-1	7.901974E-1	7.868067E-1	7.894879E-1	7.747512E-1	7.675628E-1	8.405398E-1	8.134132E-1	7.374922E-1	7.476529E-1	8.222725E-1	7.806492E-1	7.339883E-1	8.478077E-1	7.893163E-1	8.394001E-1	7.478051E-1	7.892291E-1	8.370956E-1	8.266444E-1	7.935125E-1	7.932924E-1	7.764324E-1	7.967319E-1	7.155624E-1	8.460212E-1	8.343165E-1	8.272677E-1	6.429018E-1	8.138254E-1	8.030995E-1	8.252052E-1	7.195920E-1	8.286957E-1	8.234042E-1	8.308460E-1	7.480156E-1	8.204203E-1	8.149787E-1	8.375634E-1	7.183921E-1	8.161824E-1	7.849951E-1	8.216044E-1	6.771378E-1	7.968015E-1	7.916476E-1	8.220213E-1	6.705222E-1	8.453056E-1	7.692971E-1	8.385473E-1	7.682747E-1	8.096348E-1	8.253615E-1	8.061308E-1	7.279433E-1	8.200504E-1	7.793621E-1	8.252483E-1	6.388653E-1	8.191434E-1	8.054824E-1	7.852042E-1	6.478942E-1	7.970778E-1	8.283082E-1	7.924859E-1	7.745273E-1	8.253361E-1	8.556075E-1	8.429048E-1	7.357627E-1	7.877672E-1	8.071491E-1	7.991501E-1	6.591655E-1	8.290387E-1	7.962102E-1	8.081596E-1	7.349370E-1	7.538796E-1
2.945010E+2	7.520117E-1	7.293322E-1	7.244851E-1	6.793074E-1	7.049079E-1	7.325391E-1	7.250983E-1	6.166620E-1	7.285408E-1	6.761630E-1	7.283058E-1	6.762322E-1	7.179089E-1	7.303535E-1	7.189971E-1	7.303132E-1	7.556642E-1	7.787497E-1	7.227259E-1	7.023173E-1	7.371572E-1	7.504533E-1	7.184486E-1	6.378791E-1	7.471277E-1	7.099552E-1	7.246004E-1	6.447959E-1	7.039375E-1	7.509330E-1	7.168055E-1	6.913231E-1	7.945794E-1	7.243672E-1	7.474975E-1	6.587885E-1	7.235238E-1	7.572774E-1	7.155111E-1	7.077046E-1	7.242938E-1	7.548453E-1	7.145706E-1	6.621678E-1	7.174969E-1	7.418416E-1	7.325658E-1	7.369100E-1	7.084575E-1	7.283681E-1	7.336863E-1	7.223241E-1	7.114150E-1	7.362383E-1	7.435593E-1	6.662524E-1	7.367656E-1	7.389079E-1	7.393379E-1	6.868593E-1	7.332675E-1	7.329475E-1	7.266694E-1	7.015231E-1	7.263500E-1	7.453149E-1	7.494232E-1	7.344446E-1	7.277918E-1	7.206379E-1	7.483377E-1	6.670818E-1	7.370951E-1	7.588700E-1	7.500890E-1	6.622249E-1	7.406372E-1	7.439559E-1	7.563294E-1	7.465719E-1	7.366525E-1	7.527286E-1	7.526044E-1	7.022992E-1	7.221190E-1	7.379372E-1	7.236296E-1	6.942823E-1	7.132686E-1	7.245596E-1	7.461179E-1	6.502587E-1	7.621549E-1	7.347347E-1	6.912172E-1	7.332178E-1	7.547609E-1	7.412234E-1	7.176957E-1	7.308147E-1	7.167063E-1	7.271087E-1	7.786666E-1	7.154494E-1	7.015918E-1	7.453153E-1	7.478052E-1	7.334086E-1	7.054487E-1	7.680667E-1	7.304987E-1	7.412429E-1	7.513750E-1	7.433640E-1	7.202946E-1	7.188553E-1	7.718177E-1	7.563270E-1	6.734322E-1	7.350344E-1	7.331797E-1	7.463622E-1	7.149756E-1	7.463711E-1	7.684575E-1	7.323097E-1	7.403947E-1	7.570989E-1	7.611012E-1	7.534700E-1	6.676673E-1	7.595920E-1	7.239671E-1	7.354065E-1	6.386482E-1	7.246528E-1	7.090407E-1	7.195540E-1	6.064595E-1	7.582266E-1	7.309616E-1	7.786653E-1	6.737414E-1	7.148117E-1	7.765278E-1	7.019017E-1	6.594578E-1	7.106560E-1	7.184489E-1	7.580616E-1	6.074830E-1	7.234976E-1	7.481892E-1	7.388576E-1	6.049221E-1	7.845996E-1	7.275388E-1	7.201640E-1	7.144876E-1	6.963699E-1	7.422896E-1	7.819649E-1	6.397601E-1	7.512161E-1	7.290259E-1	7.291343E-1	6.216780E-1	7.153845E-1	7.020462E-1	6.824224E-1	6.676530E-1	6.323959E-1
2.950070E+2	7.544183E-1	7.601189E-1	7.919824E-1	7.415100E-1	7.756546E-1	8.297815E-1	7.906002E-1	6.995957E-1	8.313734E-1	7.880651E-1	7.783569E-1	7.096474E-1	7.753365E-1	7.580443E-1	7.850394E-1	7.448653E-1	8.033348E-1	7.595186E-1	7.883355E-1	7.636181E-1	7.930174E-1	7.864812E-1	7.789152E-1	6.811567E-1	8.112973E-1	7.608797E-1	7.886433E-1	6.632411E-1	7.796637E-1	7.859374E-1	7.833159E-1	7.247055E-1	7.990613E-1	7.701434E-1	7.584423E-1	7.792163E-1	7.727271E-1	8.056991E-1	7.370573E-1	7.376745E-1	8.036252E-1	7.762461E-1	7.899832E-1	7.085174E-1	8.034390E-1	8.124812E-1	8.040536E-1	7.239134E-1	7.635946E-1	7.493976E-1	7.914598E-1	7.764131E-1	7.769107E-1	8.207738E-1	7.851325E-1	7.381501E-1	7.749730E-1	8.247907E-1	7.488007E-1	7.414840E-1	8.137432E-1	7.898846E-1	8.018213E-1	7.769790E-1	7.712817E-1	8.174445E-1	7.969655E-1	7.713802E-1	7.982745E-1	8.086680E-1	7.816330E-1	7.356067E-1	7.500334E-1	8.180025E-1	7.957581E-1	7.346048E-1	7.417156E-1	7.560774E-1	7.740228E-1	7.918037E-1	7.859353E-1	7.790848E-1	8.131591E-1	7.953248E-1	7.290356E-1	7.966988E-1	7.733762E-1	7.596581E-1	7.749536E-1	8.082514E-1	7.561193E-1	7.389699E-1	8.163889E-1	7.503017E-1	7.670163E-1	7.649608E-1	7.931516E-1	8.032617E-1	7.684237E-1	8.137078E-1	8.154616E-1	7.942768E-1	7.724880E-1	7.743426E-1	7.402775E-1	7.949421E-1	7.219250E-1	7.644201E-1	7.858996E-1	7.991386E-1	8.265437E-1	7.896120E-1	8.009325E-1	7.736992E-1	7.965301E-1	7.685387E-1	8.337826E-1	7.882741E-1	8.092237E-1	7.808561E-1	8.000855E-1	8.109180E-1	8.144862E-1	7.801614E-1	7.915602E-1	8.244411E-1	7.678290E-1	7.731803E-1	7.901122E-1	7.491574E-1	7.894071E-1	7.952677E-1	7.904536E-1	8.089283E-1	8.057392E-1	7.866554E-1	7.872421E-1	7.998661E-1	7.724885E-1	7.487768E-1	7.920910E-1	7.993328E-1	8.150392E-1	7.945492E-1	7.686901E-1	7.575577E-1	7.420937E-1	8.213441E-1	7.834224E-1	8.100453E-1	6.716956E-1	7.895806E-1	8.041952E-1	8.399791E-1	6.673814E-1	7.885409E-1	7.645686E-1	7.883238E-1	7.256237E-1	7.887788E-1	7.981115E-1	7.899385E-1	7.102361E-1	7.795135E-1	7.963397E-1	7.959037E-1	6.601517E-1	7.857698E-1	7.564527E-1	8.164801E-1	6.933431E-1	7.430832E-1
2.955070E+2	8.621175E-1	8.728209E-1	9.216479E-1	8.048856E-1	9.071754E-1	8.776146E-1	8.978793E-1	7.930846E-1	9.233514E-1	8.298272E-1	8.384180E-1	7.906362E-1	8.781841E-1	9.016278E-1	9.098394E-1	8.467314E-1	9.204513E-1	9.123316E-1	9.149781E-1	8.789767E-1	9.216958E-1	8.711717E-1	8.782858E-1	8.054055E-1	8.678541E-1	8.705238E-1	9.327388E-1	7.923588E-1	8.793883E-1	8.775683E-1	8.770126E-1	8.445180E-1	9.098281E-1	8.696797E-1	8.742291E-1	8.251769E-1	8.823803E-1	8.937801E-1	9.060746E-1	8.655817E-1	8.701774E-1	8.441032E-1	8.847580E-1	8.373270E-1	8.707427E-1	9.337966E-1	8.740916E-1	8.703711E-1	9.574856E-1	8.942676E-1	9.283466E-1	9.125267E-1	9.069312E-1	8.885975E-1	8.807943E-1	8.590452E-1	8.992801E-1	8.873005E-1	8.881124E-1	8.441300E-1	8.979751E-1	8.765512E-1	8.769726E-1	8.646846E-1	8.849642E-1	8.612370E-1	9.457456E-1	9.316225E-1	8.940331E-1	9.061304E-1	9.001135E-1	7.794003E-1	9.123052E-1	9.210627E-1	9.227752E-1	8.602890E-1	9.157611E-1	9.642501E-1	8.764576E-1	8.630208E-1	9.088376E-1	8.779198E-1	9.228826E-1	8.906194E-1	9.039150E-1	9.385366E-1	9.161675E-1	8.823054E-1	9.351075E-1	9.033560E-1	8.645498E-1	8.489212E-1	9.369090E-1	8.565871E-1	9.041768E-1	8.669559E-1	9.047236E-1	9.222635E-1	8.748293E-1	8.532113E-1	9.166497E-1	8.828614E-1	8.566166E-1	9.382732E-1	8.873928E-1	8.590446E-1	8.867100E-1	8.624152E-1	9.076205E-1	8.740161E-1	9.144572E-1	8.795155E-1	9.150833E-1	8.843691E-1	8.711884E-1	9.217294E-1	8.663668E-1	9.005576E-1	9.071939E-1	9.244687E-1	8.874854E-1	9.453218E-1	8.970699E-1	8.772305E-1	8.883391E-1	8.919387E-1	8.811201E-1	9.475670E-1	8.783299E-1	8.612817E-1	9.030312E-1	9.059896E-1	8.931594E-1	9.093234E-1	9.270956E-1	9.224973E-1	8.973839E-1	8.857164E-1	9.187653E-1	9.344096E-1	9.169398E-1	9.196273E-1	8.663288E-1	8.575851E-1	8.946950E-1	8.673521E-1	8.603870E-1	8.990203E-1	9.164147E-1	9.385342E-1	8.971637E-1	9.223245E-1	8.788688E-1	8.757929E-1	9.112245E-1	8.660314E-1	9.041885E-1	9.386909E-1	9.222059E-1	8.441232E-1	8.851932E-1	9.140956E-1	8.961366E-1	9.463522E-1	9.211397E-1	9.118236E-1	8.012210E-1	9.034617E-1	9.112996E-1	8.275745E-1	8.731771E-1	8.888636E-1
2.960050E+2	1.004111E+0	9.651813E-1	9.731591E-1	9.586301E-1	9.432609E-1	9.811649E-1	9.427501E-1	8.373157E-1	9.639136E-1	9.208477E-1	1.002085E+0	8.251840E-1	1.013922E+0	9.590615E-1	9.370334E-1	8.955520E-1	9.675332E-1	9.513149E-1	9.485455E-1	9.503086E-1	9.750622E-1	9.928254E-1	9.664071E-1	8.686929E-1	9.592142E-1	9.650975E-1	9.139031E-1	8.355729E-1	9.295171E-1	9.486077E-1	9.576017E-1	9.057964E-1	1.003949E+0	9.484571E-1	9.427786E-1	9.566575E-1	9.404870E-1	9.671039E-1	9.874712E-1	9.051850E-1	9.857134E-1	8.952568E-1	9.601705E-1	8.788260E-1	9.577198E-1	9.747474E-1	9.856704E-1	9.408500E-1	9.805096E-1	1.003505E+0	9.507276E-1	9.636433E-1	9.539912E-1	9.318483E-1	9.000166E-1	8.830111E-1	1.001525E+0	9.911217E-1	9.790596E-1	9.533793E-1	9.897171E-1	9.093027E-1	9.714064E-1	9.367112E-1	9.520908E-1	9.714921E-1	9.658810E-1	9.657165E-1	9.353506E-1	9.766449E-1	9.809736E-1	9.061442E-1	9.775370E-1	9.582316E-1	9.242022E-1	9.635288E-1	9.400095E-1	9.842771E-1	9.667867E-1	9.486729E-1	9.666374E-1	9.300831E-1	9.736038E-1	9.195483E-1	9.562802E-1	9.714633E-1	9.742049E-1	9.590279E-1	9.373715E-1	9.365067E-1	9.661376E-1	8.670384E-1	9.999086E-1	9.655558E-1	9.619283E-1	9.819606E-1	9.695072E-1	9.617430E-1	9.503032E-1	9.885591E-1	9.828113E-1	9.198523E-1	9.835229E-1	9.698457E-1	9.358871E-1	9.184938E-1	9.279066E-1	8.543516E-1	9.582945E-1	9.616270E-1	9.520623E-1	9.636353E-1	9.986079E-1	9.309956E-1	9.952679E-1	9.867905E-1	9.523694E-1	9.733773E-1	9.782793E-1	9.781139E-1	9.791049E-1	9.738957E-1	9.796530E-1	9.687702E-1	9.682598E-1	1.017080E+0	9.227790E-1	9.651565E-1	1.058911E+0	9.437578E-1	9.324512E-1	9.576588E-1	9.621263E-1	9.869016E-1	9.873211E-1	9.890086E-1	9.623679E-1	9.615982E-1	9.689474E-1	9.715358E-1	9.936107E-1	1.018724E+0	1.020198E+0	9.696492E-1	9.899518E-1	9.366702E-1	9.373627E-1	9.398011E-1	1.024027E+0	1.004250E+0	9.623418E-1	9.617418E-1	9.207120E-1	1.000088E+0	9.566947E-1	9.651948E-1	9.509301E-1	9.641859E-1	9.662675E-1	9.157147E-1	9.454806E-1	1.000095E+0	9.727162E-1	9.557854E-1	9.742046E-1	9.646834E-1	9.388371E-1	9.501924E-1	9.343180E-1	9.884432E-1	9.575909E-1	9.239599E-1
2.965010E+2	9.866629E-1	9.316457E-1	9.032937E-1	9.222474E-1	9.370884E-1	9.638188E-1	9.308879E-1	8.614421E-1	9.284933E-1	9.551141E-1	9.800630E-1	8.659623E-1	9.622370E-1	9.349598E-1	9.229508E-1	9.068184E-1	9.698872E-1	9.383200E-1	9.200644E-1	9.464076E-1	9.600997E-1	9.324663E-1	9.401590E-1	8.021481E-1	9.749852E-1	9.313210E-1	9.308557E-1	8.113306E-1	9.289841E-1	9.182359E-1	9.037139E-1	9.048815E-1	9.386401E-1	9.330216E-1	9.738862E-1	9.287325E-1	9.301775E-1	9.371289E-1	9.893865E-1	8.527375E-1	9.500413E-1	9.177020E-1	9.509989E-1	8.788264E-1	9.701448E-1	9.384035E-1	9.484770E-1	8.913646E-1	1.005352E+0	9.117924E-1	9.049246E-1	9.475952E-1	8.904359E-1	9.569138E-1	8.964402E-1	8.515886E-1	9.487884E-1	1.007972E+0	9.569801E-1	8.465310E-1	9.763042E-1	9.007371E-1	8.878496E-1	9.136821E-1	9.455951E-1	9.627334E-1	9.535762E-1	9.560564E-1	9.110462E-1	9.618242E-1	9.606505E-1	9.149028E-1	9.694505E-1	9.480946E-1	9.456093E-1	9.388413E-1	9.497083E-1	9.194534E-1	9.518869E-1	9.053654E-1	9.830654E-1	9.284360E-1	9.430675E-1	9.586867E-1	9.459062E-1	9.582931E-1	9.230765E-1	9.190451E-1	9.198282E-1	9.392235E-1	9.087641E-1	8.970252E-1	9.473178E-1	9.580401E-1	9.423342E-1	9.283609E-1	9.539110E-1	9.109838E-1	9.342184E-1	9.380467E-1	9.361090E-1	9.193657E-1	9.445479E-1	9.716662E-1	9.091874E-1	9.722569E-1	9.479769E-1	9.393213E-1	9.603840E-1	9.407435E-1	9.413908E-1	9.394511E-1	9.095149E-1	8.995364E-1	9.495271E-1	9.495280E-1	9.796122E-1	9.574042E-1	9.463822E-1	9.322917E-1	9.290759E-1	9.887113E-1	9.391312E-1	9.497247E-1	9.501533E-1	9.436698E-1	9.466566E-1	9.350030E-1	9.333920E-1	9.313602E-1	9.126687E-1	9.441269E-1	9.541873E-1	9.950138E-1	9.443027E-1	9.563163E-1	9.067462E-1	9.532900E-1	9.630750E-1	9.357593E-1	9.418063E-1	9.535428E-1	9.161100E-1	8.996095E-1	9.278537E-1	9.432473E-1	9.577387E-1	9.637514E-1	9.539771E-1	9.556992E-1	9.415814E-1	9.449315E-1	9.245750E-1	9.663804E-1	9.716853E-1	9.514040E-1	9.442534E-1	9.345289E-1	9.623942E-1	9.172378E-1	9.739498E-1	9.790225E-1	9.266574E-1	9.351510E-1	9.525858E-1	9.229518E-1	9.200936E-1	9.680769E-1	9.238548E-1	9.144806E-1	8.364763E-1	8.456692E-1
2.970040E+2	8.861840E-1	9.019586E-1	9.447393E-1	8.964280E-1	9.157223E-1	9.059987E-1	8.922056E-1	8.021320E-1	8.907883E-1	9.063914E-1	9.330148E-1	8.172550E-1	9.079415E-1	9.149610E-1	9.307205E-1	8.753670E-1	9.398725E-1	9.315630E-1	8.910737E-1	8.644869E-1	8.743147E-1	8.856765E-1	9.125036E-1	8.128510E-1	9.151656E-1	9.178107E-1	8.814112E-1	7.955205E-1	9.449827E-1	9.136029E-1	9.075979E-1	8.875043E-1	9.187918E-1	8.819225E-1	9.007274E-1	8.978982E-1	8.819116E-1	8.914744E-1	8.993716E-1	8.318653E-1	9.143690E-1	8.989107E-1	9.025922E-1	8.270865E-1	9.069830E-1	9.332851E-1	9.088693E-1	9.093596E-1	8.962888E-1	9.240601E-1	9.288671E-1	9.018275E-1	9.093571E-1	8.979360E-1	9.053808E-1	8.286882E-1	9.450212E-1	9.204584E-1	9.080891E-1	8.267220E-1	9.500152E-1	8.851168E-1	8.913104E-1	8.837941E-1	9.006633E-1	9.189407E-1	9.239322E-1	9.111654E-1	8.920892E-1	9.317312E-1	9.247606E-1	8.448331E-1	9.004447E-1	9.007885E-1	9.127846E-1	8.855377E-1	9.389309E-1	9.015353E-1	9.090504E-1	8.779376E-1	9.301320E-1	8.482694E-1	9.420329E-1	8.560187E-1	8.930471E-1	8.868669E-1	9.046519E-1	8.952726E-1	9.056802E-1	9.028125E-1	8.850779E-1	8.489215E-1	9.829260E-1	8.855739E-1	9.144899E-1	9.002599E-1	8.909271E-1	8.963206E-1	8.822533E-1	8.752298E-1	9.166496E-1	9.096311E-1	9.027211E-1	9.054871E-1	9.102776E-1	9.143587E-1	9.088930E-1	9.213357E-1	9.306069E-1	9.010124E-1	8.793935E-1	9.562747E-1	8.555021E-1	8.843689E-1	8.958993E-1	9.453878E-1	9.545059E-1	9.019672E-1	9.117510E-1	9.144104E-1	8.880882E-1	9.342089E-1	9.442604E-1	9.128639E-1	9.432850E-1	9.086895E-1	9.237953E-1	9.003269E-1	9.085254E-1	8.591262E-1	8.994803E-1	9.379758E-1	9.462497E-1	9.219998E-1	9.062657E-1	9.456069E-1	9.155574E-1	9.366732E-1	9.422543E-1	8.831073E-1	9.563113E-1	9.736805E-1	9.357206E-1	8.899116E-1	9.163990E-1	8.926509E-1	8.886867E-1	8.925477E-1	9.423019E-1	9.257834E-1	8.957150E-1	8.939208E-1	8.589128E-1	9.168731E-1	9.057279E-1	8.968970E-1	9.472885E-1	9.397313E-1	9.226903E-1	9.126682E-1	9.231521E-1	8.924537E-1	9.194435E-1	8.938838E-1	9.240879E-1	9.122870E-1	8.944445E-1	9.063463E-1	9.057195E-1	9.080086E-1	9.710480E-1	8.348713E-1
2.975020E+2	9.914767E-1	9.728786E-1	9.607253E-1	9.281158E-1	9.247434E-1	9.653956E-1	9.484234E-1	8.725000E-1	9.833375E-1	1.004373E+0	9.695524E-1	8.693599E-1	9.632810E-1	9.795737E-1	9.651986E-1	9.378007E-1	9.651789E-1	9.435182E-1	9.805884E-1	9.982356E-1	9.685786E-1	9.975041E-1	9.912505E-1	8.793962E-1	9.733529E-1	1.003031E+0	9.652315E-1	8.724639E-1	9.705806E-1	1.003174E+0	9.804193E-1	9.323194E-1	9.418416E-1	9.756038E-1	9.652449E-1	9.147700E-1	9.503284E-1	1.003997E+0	9.582644E-1	8.907346E-1	9.936997E-1	9.646791E-1	9.673042E-1	8.890663E-1	9.851584E-1	9.343083E-1	9.658662E-1	8.913651E-1	1.008988E+0	9.263970E-1	9.829978E-1	9.880136E-1	9.588428E-1	9.864023E-1	9.777981E-1	9.069768E-1	1.012287E+0	9.720968E-1	9.722257E-1	9.671854E-1	1.003130E+0	1.002016E+0	9.550902E-1	9.523908E-1	1.006767E+0	9.457315E-1	9.843390E-1	9.429868E-1	9.654877E-1	9.883219E-1	9.757850E-1	9.040836E-1	1.010962E+0	9.807581E-1	9.689198E-1	9.337918E-1	9.831163E-1	9.716288E-1	1.005432E+0	9.582968E-1	9.398671E-1	9.816972E-1	9.565249E-1	1.018246E+0	9.454121E-1	9.684243E-1	9.705199E-1	9.201266E-1	9.385034E-1	9.435715E-1	9.887708E-1	9.463780E-1	9.867608E-1	9.596508E-1	9.345993E-1	9.679096E-1	9.071235E-1	9.391826E-1	9.639128E-1	9.645978E-1	9.974058E-1	1.011357E+0	9.811465E-1	9.570945E-1	9.663993E-1	9.862144E-1	9.727996E-1	9.721934E-1	9.744892E-1	9.738520E-1	9.474887E-1	1.007273E+0	1.015313E+0	9.697581E-1	9.758150E-1	9.903396E-1	9.935008E-1	9.621022E-1	9.682547E-1	9.535265E-1	9.827212E-1	9.643705E-1	1.000684E+0	9.607830E-1	9.882407E-1	9.653480E-1	9.766303E-1	9.696790E-1	9.783897E-1	9.777186E-1	1.013104E+0	9.914909E-1	9.804839E-1	1.026958E+0	9.746419E-1	9.912631E-1	9.728318E-1	9.715675E-1	9.822938E-1	9.377852E-1	9.511310E-1	9.747397E-1	9.975695E-1	9.836574E-1	9.718650E-1	9.695576E-1	9.826427E-1	9.792866E-1	9.829105E-1	1.017491E+0	9.864813E-1	9.524671E-1	9.599808E-1	9.221402E-1	9.616915E-1	9.730748E-1	9.503237E-1	9.699092E-1	9.875724E-1	9.781666E-1	1.002419E+0	9.978168E-1	1.012671E+0	9.669863E-1	9.904191E-1	9.753483E-1	1.013318E+0	9.571155E-1	9.280403E-1	9.181782E-1	1.008971E+0	9.158604E-1
2.980040E+2	1.022763E+0	1.008063E+0	1.002171E+0	9.562826E-1	1.038697E+0	1.021638E+0	1.004642E+0	9.117050E-1	9.827661E-1	9.845620E-1	1.045630E+0	9.395882E-1	1.024363E+0	1.021110E+0	1.026870E+0	9.673744E-1	1.046396E+0	9.757437E-1	1.034500E+0	9.664705E-1	9.915208E-1	1.004523E+0	1.043279E+0	9.156933E-1	1.043505E+0	1.022258E+0	1.038692E+0	9.003954E-1	1.069772E+0	1.010896E+0	1.034307E+0	9.871959E-1	1.024437E+0	1.009137E+0	9.917432E-1	9.589846E-1	1.018744E+0	1.021059E+0	1.032000E+0	9.228456E-1	1.037358E+0	1.057592E+0	1.015711E+0	9.208640E-1	1.006385E+0	1.006484E+0	1.037354E+0	1.053818E+0	9.992929E-1	1.036217E+0	1.022034E+0	9.838529E-1	1.054904E+0	1.042431E+0	1.022052E+0	9.719511E-1	1.028969E+0	1.036238E+0	1.026373E+0	9.077585E-1	1.012250E+0	9.828686E-1	1.023320E+0	1.028337E+0	1.024090E+0	1.037439E+0	9.932881E-1	1.036178E+0	1.000486E+0	1.027847E+0	1.019026E+0	9.731227E-1	9.753806E-1	9.987801E-1	1.031715E+0	9.955115E-1	1.014908E+0	1.015371E+0	1.023126E+0	1.011227E+0	1.073721E+0	1.033861E+0	1.036229E+0	9.683297E-1	9.785105E-1	9.876739E-1	1.004145E+0	9.973889E-1	1.044896E+0	9.865041E-1	1.019826E+0	9.713671E-1	1.004840E+0	1.012257E+0	1.070213E+0	1.010581E+0	1.070283E+0	1.023781E+0	1.047429E+0	1.043605E+0	1.001297E+0	1.006977E+0	1.012992E+0	1.036631E+0	1.010534E+0	1.016198E+0	1.039348E+0	1.027393E+0	1.059118E+0	1.008999E+0	1.020158E+0	1.010427E+0	1.001949E+0	1.007397E+0	1.003154E+0	1.045937E+0	1.050124E+0	1.010963E+0	1.048910E+0	1.004377E+0	9.977897E-1	1.053268E+0	1.004275E+0	1.032049E+0	9.688852E-1	9.697821E-1	1.002540E+0	1.028981E+0	1.039965E+0	1.007907E+0	9.887562E-1	1.018556E+0	1.027620E+0	9.980565E-1	1.037131E+0	1.018883E+0	1.026801E+0	9.987076E-1	9.737523E-1	9.904366E-1	1.021585E+0	1.051050E+0	1.048356E+0	9.917388E-1	1.024317E+0	1.044947E+0	1.045468E+0	1.029129E+0	1.043823E+0	9.875763E-1	1.038624E+0	9.947831E-1	1.021780E+0	1.038535E+0	1.003165E+0	1.044656E+0	9.879602E-1	1.020379E+0	1.037928E+0	1.024880E+0	1.062706E+0	1.038823E+0	9.860346E-1	1.007074E+0	1.031200E+0	1.028207E+0	9.896416E-1	1.054039E+0	1.008951E+0	1.042067E+0	1.027322E+0	9.914510E-1
2.985010E+2	1.031186E+0	1.026205E+0	1.006908E+0	1.084208E+0	1.041545E+0	1.025318E+0	1.023209E+0	1.041383E+0	1.065603E+0	1.003301E+0	1.010093E+0	1.090806E+0	1.032195E+0	1.019059E+0	9.967625E-1	1.032156E+0	1.018146E+0	1.056309E+0	1.027380E+0	1.020526E+0	1.062344E+0	1.028387E+0	1.024999E+0	9.980615E-1	1.013595E+0	1.008228E+0	1.002433E+0	9.673255E-1	9.833790E-1	1.005234E+0	1.035278E+0	1.012805E+0	1.067335E+0	1.034687E+0	1.053957E+0	9.816739E-1	9.929710E-1	1.015064E+0	1.033437E+0	9.094658E-1	1.029904E+0	1.013223E+0	1.060042E+0	9.305652E-1	1.070583E+0	1.055112E+0	1.007406E+0	9.453489E-1	1.022318E+0	1.022198E+0	1.025156E+0	1.017138E+0	1.027249E+0	1.030635E+0	1.029207E+0	9.565063E-1	1.030584E+0	1.016669E+0	1.043195E+0	1.006803E+0	1.018152E+0	1.004535E+0	1.023814E+0	1.019518E+0	1.027338E+0	1.008071E+0	1.042509E+0	1.016858E+0	1.009722E+0	1.007186E+0	1.028538E+0	9.787905E-1	1.034144E+0	1.034822E+0	1.055500E+0	9.932670E-1	1.034845E+0	1.042249E+0	1.009622E+0	1.040099E+0	1.006186E+0	1.027820E+0	1.041923E+0	1.012006E+0	1.047672E+0	1.048968E+0	1.044681E+0	9.784783E-1	1.039803E+0	1.040849E+0	1.004036E+0	1.000104E+0	1.014700E+0	1.034265E+0	1.004211E+0	9.840418E-1	1.043889E+0	1.051981E+0	1.029489E+0	1.031300E+0	1.046540E+0	1.041047E+0	1.043410E+0	1.025095E+0	1.016528E+0	1.024469E+0	1.052552E+0	1.000724E+0	1.023596E+0	1.042108E+0	1.046582E+0	1.013582E+0	9.724369E-1	9.787461E-1	1.022082E+0	1.003352E+0	1.002047E+0	1.041030E+0	1.017468E+0	1.052434E+0	1.036969E+0	1.020990E+0	1.042232E+0	9.718418E-1	1.029450E+0	1.023978E+0	1.058424E+0	1.016919E+0	1.048253E+0	9.911955E-1	1.024263E+0	1.030243E+0	1.004797E+0	9.727038E-1	1.009057E+0	1.029592E+0	1.026801E+0	1.032494E+0	1.007385E+0	9.870623E-1	1.063547E+0	1.020314E+0	1.032769E+0	1.055852E+0	1.015273E+0	1.018637E+0	1.012641E+0	1.007121E+0	1.007276E+0	1.015530E+0	1.033313E+0	1.042896E+0	1.006974E+0	1.005354E+0	1.028648E+0	1.003284E+0	9.721775E-1	1.026102E+0	1.027760E+0	1.040112E+0	1.017490E+0	9.596581E-1	1.057064E+0	1.020634E+0	1.026778E+0	1.029134E+0	1.014305E+0	1.018846E+0	1.034061E+0	1.018953E+0	1.022428E+0	1.042745E+0
2.990020E+2	9.896716E-1	1.009713E+0	1.030591E+0	1.003814E+0	9.831443E-1	1.013228E+0	1.005674E+0	1.053949E+0	9.741967E-1	9.920578E-1	9.685512E-1	1.043232E+0	1.004524E+0	9.708559E-1	9.831654E-1	1.027461E+0	9.539973E-1	1.021484E+0	1.016699E+0	1.008266E+0	9.995014E-1	9.708341E-1	9.650009E-1	1.060418E+0	9.793352E-1	9.604210E-1	1.001962E+0	1.071673E+0	9.604482E-1	9.882458E-1	9.551743E-1	1.007316E+0	9.360798E-1	9.740070E-1	1.016513E+0	1.054978E+0	1.022024E+0	9.795553E-1	9.692771E-1	1.044866E+0	9.963615E-1	9.980864E-1	9.912524E-1	1.031888E+0	9.587544E-1	9.675806E-1	9.900175E-1	1.005831E+0	9.974753E-1	9.766338E-1	9.777932E-1	9.737478E-1	9.898924E-1	9.505247E-1	9.952320E-1	9.506482E-1	9.627796E-1	9.508981E-1	9.943047E-1	9.245660E-1	1.011713E+0	9.798451E-1	9.896996E-1	9.504308E-1	9.829478E-1	9.874630E-1	1.018457E+0	9.469650E-1	1.007291E+0	9.910182E-1	9.766507E-1	9.550901E-1	1.023361E+0	1.005538E+0	9.603568E-1	9.719454E-1	1.007364E+0	9.653046E-1	9.933260E-1	9.655147E-1	1.003143E+0	9.855405E-1	9.704990E-1	9.671953E-1	9.878973E-1	1.013508E+0	9.742053E-1	9.493025E-1	9.979247E-1	9.745484E-1	1.026142E+0	9.701172E-1	9.933346E-1	1.000983E+0	1.009883E+0	9.965308E-1	9.623093E-1	9.859945E-1	9.595825E-1	1.024825E+0	9.570277E-1	9.821532E-1	9.987315E-1	1.003238E+0	9.816558E-1	9.727741E-1	9.500887E-1	1.023052E+0	9.765788E-1	9.616273E-1	9.571439E-1	9.646870E-1	9.729939E-1	9.922288E-1	9.731860E-1	9.625405E-1	9.550400E-1	1.031163E+0	9.846586E-1	9.786721E-1	9.989957E-1	9.781288E-1	9.811922E-1	1.018533E+0	1.015089E+0	9.811133E-1	9.481805E-1	9.862638E-1	9.499703E-1	9.599300E-1	9.953500E-1	1.028398E+0	9.670882E-1	9.909576E-1	9.791700E-1	9.568805E-1	9.827443E-1	1.015878E+0	1.012190E+0	1.012038E+0	9.894666E-1	9.747403E-1	9.704163E-1	9.653392E-1	9.935694E-1	9.852428E-1	9.571730E-1	9.805803E-1	1.003722E+0	9.606033E-1	9.753774E-1	9.884067E-1	9.921679E-1	9.974544E-1	9.781807E-1	9.389258E-1	1.007386E+0	1.003729E+0	9.531947E-1	9.801981E-1	9.337582E-1	9.875650E-1	9.810398E-1	1.033014E+0	9.928753E-1	9.628283E-1	9.625130E-1	1.032115E+0	1.001976E+0	1.036520E+0	9.661534E-1	9.887508E-1
2.995040E+2	9.307075E-1	9.772766E-1	9.737508E-1	9.598032E-1	9.480089E-1	9.475242E-1	9.638966E-1	1.012733E+0	9.359199E-1	9.540438E-1	9.740566E-1	9.939591E-1	9.669356E-1	9.708561E-1	9.749104E-1	9.875601E-1	9.381067E-1	9.814615E-1	9.429514E-1	9.497514E-1	9.516212E-1	9.591367E-1	9.682827E-1	1.022724E+0	9.548641E-1	9.406749E-1	9.525172E-1	1.015283E+0	9.887121E-1	9.388272E-1	9.687676E-1	9.739342E-1	9.738558E-1	9.601677E-1	9.301061E-1	9.834193E-1	9.493905E-1	9.495802E-1	9.836407E-1	1.036303E+0	9.154334E-1	9.213553E-1	9.260314E-1	1.049673E+0	9.494360E-1	9.558075E-1	9.537907E-1	1.028325E+0	9.296134E-1	9.731291E-1	9.658214E-1	9.511613E-1	9.598131E-1	9.642855E-1	9.491885E-1	1.035860E+0	9.202671E-1	9.932958E-1	9.438373E-1	1.032014E+0	9.446505E-1	9.445736E-1	9.392694E-1	9.293616E-1	9.618352E-1	9.709765E-1	9.216947E-1	9.657162E-1	9.538221E-1	9.321785E-1	9.264913E-1	9.957925E-1	9.306348E-1	9.441527E-1	9.779584E-1	9.719456E-1	9.259991E-1	9.705747E-1	9.607334E-1	9.515599E-1	9.489936E-1	9.355739E-1	9.316811E-1	9.218170E-1	9.824624E-1	9.587993E-1	9.765088E-1	9.185053E-1	9.311468E-1	9.783523E-1	9.335028E-1	9.063954E-1	9.582745E-1	9.435479E-1	9.490376E-1	9.231575E-1	9.755059E-1	1.006862E+0	9.453539E-1	9.076091E-1	9.706489E-1	9.568432E-1	9.264866E-1	9.637738E-1	9.669443E-1	9.510622E-1	9.738563E-1	9.250570E-1	9.243380E-1	9.580621E-1	9.749302E-1	9.347195E-1	9.718801E-1	9.849260E-1	9.936911E-1	9.317841E-1	9.715995E-1	9.174705E-1	9.723556E-1	9.596733E-1	9.923650E-1	9.601375E-1	9.381052E-1	9.429669E-1	9.538996E-1	9.914600E-1	9.817109E-1	9.661617E-1	9.458257E-1	9.992812E-1	9.527411E-1	9.367455E-1	9.621259E-1	9.696616E-1	9.370577E-1	9.675896E-1	9.739330E-1	9.571670E-1	9.860305E-1	9.769362E-1	9.563112E-1	9.296959E-1	9.397431E-1	9.378617E-1	9.043409E-1	9.184552E-1	9.696249E-1	9.948214E-1	9.494087E-1	9.767870E-1	9.536512E-1	9.773930E-1	9.458179E-1	9.821812E-1	9.472011E-1	9.816123E-1	9.824968E-1	9.704297E-1	9.575525E-1	9.497334E-1	9.706008E-1	9.437115E-1	9.327614E-1	9.445837E-1	9.294930E-1	9.734928E-1	9.881621E-1	9.063460E-1	9.929084E-1	9.588583E-1	9.526968E-1	1.042746E+0
3.000040E+2	1.034195E+0	1.005864E+0	1.025854E+0	1.067777E+0	1.063861E+0	1.026895E+0	1.054155E+0	1.107730E+0	1.058177E+0	1.061662E+0	1.032116E+0	1.063055E+0	1.008701E+0	1.038545E+0	1.053093E+0	1.047648E+0	1.078175E+0	1.021484E+0	9.978808E-1	1.056750E+0	1.026434E+0	1.039615E+0	1.007187E+0	1.123707E+0	1.035347E+0	1.065388E+0	1.039165E+0	1.172859E+0	1.027108E+0	1.053623E+0	1.026054E+0	1.086429E+0	1.056451E+0	1.046397E+0	1.042436E+0	1.106174E+0	1.066542E+0	1.030744E+0	1.023381E+0	1.195785E+0	1.027243E+0	1.045064E+0	1.039659E+0	1.177943E+0	1.029683E+0	1.080707E+0	1.045566E+0	1.075312E+0	1.042313E+0	1.065425E+0	1.026198E+0	1.086086E+0	1.009299E+0	1.025721E+0	1.026522E+0	1.178058E+0	1.045113E+0	1.030802E+0	1.020064E+0	1.161673E+0	1.010104E+0	1.086162E+0	1.068807E+0	1.119962E+0	9.970225E-1	1.050319E+0	1.039712E+0	1.091296E+0	1.063191E+0	1.053448E+0	1.073509E+0	1.193120E+0	1.025518E+0	1.035949E+0	1.005550E+0	1.133539E+0	1.033768E+0	1.034871E+0	1.007760E+0	1.073302E+0	1.028089E+0	1.035507E+0	1.063143E+0	1.112406E+0	1.058046E+0	1.022627E+0	1.029940E+0	1.236198E+0	1.047726E+0	1.076174E+0	1.027722E+0	1.205638E+0	1.042091E+0	1.049296E+0	1.032056E+0	1.117779E+0	1.040890E+0	9.921986E-1	1.054233E+0	1.028063E+0	1.027081E+0	1.001623E+0	1.037233E+0	1.014167E+0	1.057938E+0	1.049283E+0	1.011356E+0	1.051581E+0	1.041880E+0	1.055351E+0	1.053697E+0	1.069311E+0	1.065427E+0	1.066944E+0	1.032071E+0	1.066047E+0	1.027688E+0	1.037271E+0	1.008353E+0	1.051317E+0	9.911593E-1	1.023106E+0	1.033512E+0	1.073826E+0	1.044435E+0	1.068319E+0	1.032514E+0	1.031996E+0	1.037596E+0	1.063968E+0	1.025785E+0	9.945667E-1	1.057886E+0	1.041662E+0	1.062942E+0	1.035792E+0	1.016888E+0	1.024186E+0	1.038349E+0	1.095742E+0	1.017959E+0	1.049460E+0	1.011146E+0	1.065550E+0	1.090635E+0	1.063161E+0	1.032451E+0	1.009062E+0	1.012860E+0	1.042012E+0	1.012553E+0	1.044055E+0	1.073280E+0	1.054335E+0	1.081113E+0	1.058447E+0	1.099656E+0	1.009452E+0	1.035992E+0	1.026911E+0	1.013025E+0	1.072426E+0	1.030429E+0	1.027708E+0	1.029235E+0	1.030989E+0	1.032061E+0	1.031538E+0	1.034062E+0	1.025424E+0	1.022429E+0	1.018447E+0
