Photon Energy (eV)	#1	#2	#3	#4	#5	#6	#7	#8	#9	#10	#11	#12	#13	#14	#15	#16	#17	#18	#19	#20	#21	#22	#23	#24	#25	#26	#27	#28	#29	#30	#31	#32	#33	#34	#35	#36	#37	#38	#39	#40	#41	#42	#43	#44	#45	#46	#47	#48	#49	#50	#51	#52	#53	#54	#55	#56	#57	#58	#59	#60	#61	#62	#63	#64	#65	#66	#67	#68	#69	#70	#71	#72	#73	#74	#75	#76	#77	#78	#79	#80	#81	#82	#83	#84	#85	#86	#87	#88	#89	#90	#91	#92	#93	#94	#95	#96	#97	#98	#99	#100	#101	#102	#103	#104	#105	#106	#107	#108	#109	#110	#111	#112	#113	#114	#115	#116	#117	#118	#119	#120	#121	#122	#123	#124	#125	#126	#127	#128	#129	#130	#131	#132	#133	#134	#135	#136	#137	#138	#139	#140	#141	#142	#143	#144	#145	#146	#147	#148	#149	#150	#151	#152	#153	#154	#155	#156	#157	#158	#159	#160	#161	#162	#163	#164	#165	#166	#167	#168	#169	#170	#171	
2.790030E+2	-1.056738E-2	-7.845093E-3	2.803333E-3	3.069053E-3	-1.034593E-2	-5.432698E-3	-1.191271E-2	-2.484608E-3	1.781481E-3	7.188449E-3	-3.991123E-3	-2.795721E-3	-3.514940E-3	4.552756E-4	-1.089473E-3	3.407884E-3	1.388003E-3	-4.938369E-3	-5.673143E-3	-8.993494E-4	-9.255644E-3	-6.688605E-3	-8.400990E-3	7.129640E-3	-1.908320E-3	-9.392109E-4	-5.675788E-3	-9.476731E-4	-1.039876E-2	-2.751883E-3	-3.090340E-3	-1.112043E-2	-7.018734E-3	5.374824E-3	-3.839632E-3	-4.714151E-3	5.448712E-4	-7.146099E-3	1.975437E-3	2.716963E-3	-4.879521E-3	-1.031196E-2	-6.405067E-3	-4.111207E-3	-1.929357E-3	1.507847E-3	-9.016153E-3	-3.821930E-3	-4.010182E-3	-7.476642E-3	3.293867E-3	-3.393281E-3	1.108400E-4	3.172887E-3	1.873454E-3	-6.142895E-3	3.902996E-3	-9.672403E-3	-1.627326E-2	-3.752028E-3	-1.486707E-3	3.304628E-4	-3.012836E-3	4.370435E-3	-3.148018E-3	-4.920642E-3	-5.398377E-3	3.259625E-3	-7.103724E-3	1.411750E-3	-2.100186E-3	3.672318E-3	-2.110786E-3	-5.806784E-3	-2.857555E-3	3.170896E-3	-4.254385E-3	-5.467219E-4	-4.294040E-3	-8.791511E-3	-5.272892E-3	-5.980623E-3	-2.859679E-3	-1.385956E-2	3.551573E-3	-3.083164E-3	-5.756825E-3	-8.285900E-3	3.964465E-3	-4.576926E-4	1.396292E-3	-1.225125E-2	-1.750158E-3	-6.560097E-3	-6.085977E-3	-5.566729E-3	-1.468389E-3	1.322314E-3	1.561059E-3	-4.750076E-3	-7.195566E-3	9.953689E-3	-5.708431E-3	-9.037573E-3	-4.901753E-3	-9.980079E-3	2.341940E-3	-7.591647E-3	7.834813E-4	3.316745E-3	-9.180201E-3	-7.924566E-3	-5.651481E-3	-2.399291E-3	-5.606639E-3	7.151906E-3	-9.993273E-3	3.577863E-3	-9.488074E-3	-1.684859E-3	1.150728E-2	-3.886975E-3	-4.648204E-3	-1.077701E-2	-2.429229E-3	9.541246E-3	-2.394013E-3	-8.632115E-3	-1.159957E-2	-7.692265E-3	7.571699E-3	4.407239E-3	-7.634808E-3	-9.270576E-3	-7.667830E-4	-1.119569E-3	-1.252856E-3	-1.214840E-2	-3.469999E-3	-9.941193E-3	-6.427353E-3	1.490299E-3	2.817994E-3	-1.091201E-2	-5.788992E-3	-2.153497E-3	-1.130502E-2	-1.106331E-2	-9.268319E-3	4.930092E-3	-2.892100E-3	-8.816836E-3	-1.457943E-3	-9.301160E-3	-3.967430E-3	-1.023809E-2	-3.127909E-3	-7.218140E-3	-3.402584E-4	4.493853E-3	1.907512E-3	-1.103121E-2	-3.786656E-3	-2.673967E-3	2.427623E-3	-1.678202E-3	-3.533078E-3	1.086172E-3	-5.596970E-3	-3.911805E-3	-2.420394E-2
2.795060E+2	1.947091E-3	-1.216725E-3	5.726893E-3	4.730068E-3	4.308889E-3	-3.925409E-3	7.522995E-3	2.093100E-3	-2.164524E-3	-2.961875E-3	-7.997814E-3	-1.002644E-2	-3.720070E-3	-3.850291E-3	-7.855175E-3	-9.078137E-3	-6.816401E-3	5.424043E-3	-5.798447E-3	-2.073012E-3	2.752319E-3	-8.390524E-3	5.625133E-3	-1.720157E-3	2.660320E-3	1.967262E-3	-5.864052E-3	-2.020516E-3	1.508294E-3	-5.783725E-3	-2.435385E-3	-2.754770E-3	-6.243806E-3	-6.345339E-3	1.044781E-2	-3.965831E-3	2.773444E-3	-3.480451E-3	-6.888981E-3	-3.024387E-3	-5.043945E-3	-7.030575E-4	2.937274E-3	-1.323710E-3	-7.251215E-3	-1.034131E-4	-5.764363E-3	2.285584E-3	-1.302923E-2	-1.073385E-2	3.048323E-3	-3.534644E-3	-4.182574E-3	-3.547948E-3	9.026885E-5	-2.307782E-3	-3.876644E-3	-6.782140E-3	-6.372951E-3	-1.143081E-3	-6.183578E-3	-1.846146E-3	-6.044992E-3	-8.217847E-3	-6.394826E-3	2.847065E-4	4.890641E-3	-5.235180E-3	-4.875890E-3	-1.610505E-3	-2.606144E-6	-1.916993E-3	-1.320655E-2	-9.363086E-4	3.332209E-4	-8.387789E-3	-4.440103E-3	-2.208267E-3	-2.816063E-3	7.612128E-3	-1.062610E-2	6.400174E-3	-1.321553E-2	-6.698857E-3	8.268176E-3	4.738342E-3	-1.242818E-2	-4.078365E-3	-9.763344E-3	-7.734937E-3	-2.616238E-3	-7.108213E-3	-2.690207E-3	-8.476092E-3	-6.441646E-4	-1.280731E-2	-8.690087E-3	-3.787816E-3	-1.548150E-3	-5.903405E-3	-1.612499E-2	3.608439E-3	-7.499461E-3	-1.406341E-2	-6.904120E-3	4.013691E-5	-4.040386E-3	-1.331240E-3	-1.587108E-3	-4.092669E-3	-3.600739E-3	-6.274142E-3	-8.095526E-4	5.989686E-4	-2.630705E-3	-1.110479E-2	-3.487098E-3	4.353008E-3	-6.185273E-3	-1.129877E-2	-1.974739E-3	7.082387E-3	5.623764E-3	-9.144577E-3	-2.592515E-3	-4.209984E-3	-7.117640E-3	-1.120113E-2	4.599715E-4	5.985254E-3	-4.640113E-3	-5.796203E-3	-8.657630E-3	-1.510384E-2	-9.305677E-4	5.677556E-3	-4.936278E-3	4.946602E-3	-6.389489E-3	4.995823E-3	6.772430E-4	7.027258E-3	6.122119E-3	-2.729526E-3	-3.558196E-3	3.374134E-4	7.283199E-3	-1.775906E-2	-8.637045E-3	-4.392665E-3	-9.660856E-3	3.728904E-3	-1.213448E-2	-7.627776E-3	-7.510155E-3	-2.084889E-3	4.602335E-3	-4.752193E-3	-2.216221E-3	-6.574945E-3	-2.280804E-3	-3.691510E-3	-1.109225E-2	6.337619E-3	-8.857440E-3	2.945535E-3	-8.490670E-4	-1.144812E-2	-8.791959E-3	-1.640146E-3	6.191483E-4
2.800050E+2	-8.699543E-3	-6.389532E-3	-4.652799E-3	-1.172531E-2	-9.931616E-4	-8.124099E-3	2.096582E-3	-5.859965E-3	3.382957E-3	-5.254752E-3	-8.050936E-3	-5.647069E-3	-3.761560E-3	-7.301657E-3	-9.536427E-3	1.128654E-2	-1.129510E-2	3.737605E-3	4.030685E-3	-4.009792E-3	-1.262105E-2	3.029443E-3	8.434383E-4	-1.760081E-3	-5.991061E-3	-4.317430E-3	-5.907913E-3	-1.324331E-2	-8.262068E-3	-7.239658E-3	1.775541E-3	-4.332322E-3	-9.938439E-3	-1.048782E-2	-1.300521E-2	-9.440902E-3	-7.496695E-3	-5.846359E-3	9.386029E-4	-1.173029E-2	-2.600144E-3	-8.880801E-3	-2.310359E-3	3.580388E-3	-5.084802E-3	1.958113E-3	1.048066E-2	-6.771738E-3	-5.094259E-3	-8.447419E-3	-1.099919E-2	5.292213E-3	6.730516E-4	-6.474834E-3	-4.700365E-3	-7.983061E-3	-3.921615E-3	-4.530223E-3	-1.648890E-2	-4.851870E-3	7.253751E-3	-4.523097E-3	-5.166977E-3	-1.683903E-3	-5.671577E-3	-1.513088E-2	-4.683372E-3	-2.549939E-3	-1.263242E-4	-5.870870E-3	-1.942714E-2	-1.965990E-3	-6.933221E-3	-7.711955E-3	-4.826289E-3	-1.409227E-2	-8.429074E-3	3.589654E-3	4.835404E-4	-1.687276E-2	-1.496691E-2	-1.182749E-3	-6.488619E-3	-3.631884E-4	-6.631582E-3	-1.533832E-2	2.080413E-3	-5.562639E-3	-1.160759E-2	-1.186508E-2	1.173689E-3	4.260581E-3	-5.019883E-3	1.017688E-3	-6.214913E-3	-6.535653E-3	1.843824E-3	-1.211832E-3	-1.533550E-2	-8.820916E-3	-5.806164E-3	-9.389576E-3	2.850119E-3	-2.807772E-3	-6.955553E-3	-1.245155E-5	-5.005434E-3	-4.132950E-3	-8.933102E-4	-3.373280E-3	-5.437273E-3	-8.989738E-3	-6.616880E-3	-5.885715E-3	-8.360795E-3	-1.475625E-2	-5.197356E-3	-6.250731E-3	3.855571E-3	1.216756E-3	-1.286818E-2	-1.662024E-3	2.843241E-3	3.347840E-3	-1.795999E-3	-6.661414E-3	-4.973828E-3	8.993005E-4	-1.267403E-2	-1.770950E-3	-1.927241E-3	-2.870258E-3	-6.113346E-3	-6.103688E-3	-6.408762E-3	-6.745897E-3	-1.485504E-3	-1.003589E-2	5.604471E-3	-6.369037E-3	-2.941792E-3	-3.450362E-3	-5.871559E-3	-2.469949E-4	-5.137976E-3	-9.822749E-3	-6.313825E-3	4.686842E-3	-2.559014E-3	-2.696632E-3	-9.636337E-3	-1.048761E-2	1.162591E-2	-1.536376E-2	-6.707252E-3	-4.888017E-3	-1.276555E-2	-1.131097E-3	-1.365387E-3	-1.414844E-2	-7.962318E-3	6.898466E-3	-9.092762E-3	-3.824911E-3	6.379792E-4	-1.252406E-3	-8.823376E-4	5.966408E-3	4.599004E-3	7.750533E-4	1.054685E-2
2.805050E+2	-1.211351E-3	-3.736686E-3	-1.074596E-2	1.862808E-3	-2.636104E-3	7.872359E-3	-1.295843E-2	1.368781E-3	-7.715946E-3	-9.033385E-3	-3.909306E-4	-5.557630E-3	-6.640731E-4	1.702494E-3	-4.538511E-3	-4.949433E-3	-6.782159E-3	-1.078249E-2	-2.478983E-3	7.801912E-4	3.636951E-3	-4.520745E-3	-1.088932E-2	-5.963070E-3	5.574370E-3	-4.990601E-3	6.795708E-3	-1.106694E-3	3.818351E-3	-7.142443E-3	-8.369638E-3	-3.483654E-3	6.595604E-3	2.713148E-4	-3.039674E-3	-1.157121E-3	-3.223268E-4	-2.625343E-3	2.621464E-4	-9.276013E-3	-5.825204E-3	-8.788941E-3	-3.941071E-3	-1.403303E-2	1.637903E-4	-5.618835E-3	2.024773E-3	-3.662941E-4	-7.673343E-3	-7.579142E-3	-3.976327E-4	-1.523358E-3	6.523678E-3	-2.021944E-3	1.577636E-4	-6.320619E-4	-1.294131E-3	4.769172E-3	-1.288894E-3	2.589811E-3	-2.356299E-3	-7.051568E-3	-1.308520E-3	-7.341009E-3	-5.556388E-3	-4.259001E-3	6.849183E-3	-1.160435E-2	7.937953E-4	-6.459124E-3	3.195801E-3	-5.682022E-3	-5.003706E-3	5.018932E-3	2.963645E-3	-5.091893E-3	-9.910263E-3	-2.114744E-3	-6.112927E-3	-4.154669E-3	6.249896E-4	-2.741865E-3	-8.080729E-3	-2.992682E-3	-1.561467E-2	-7.226231E-3	-5.071855E-3	-4.740499E-3	3.792642E-3	5.255076E-4	-6.432182E-3	6.139768E-3	-1.844852E-3	-3.992811E-3	3.288657E-4	-1.118460E-2	-6.878151E-3	-5.482189E-3	-7.393216E-3	-1.297412E-4	-3.300017E-3	-7.660581E-3	-1.010419E-3	2.177815E-3	4.246555E-4	-4.060159E-3	-8.523205E-3	-1.227450E-2	-2.968295E-3	2.963663E-4	-4.437720E-3	-3.550159E-3	-1.475212E-2	-1.222243E-2	-7.303922E-3	-1.377066E-2	-6.731671E-3	-3.865461E-3	5.690198E-3	2.148534E-3	9.812903E-3	-1.522817E-3	-1.412709E-2	-1.176412E-2	-2.502278E-3	-5.178530E-3	-1.322364E-4	-3.821287E-3	-1.288157E-3	-8.265584E-4	-1.815692E-3	-2.683436E-3	-1.702469E-3	3.250013E-3	-9.448835E-3	-3.508548E-3	-8.311363E-3	-1.350095E-2	-4.341655E-3	-1.517728E-3	-2.069415E-3	-9.173905E-3	-9.160555E-3	-2.539662E-3	1.106174E-2	6.261136E-3	4.850803E-3	-7.878931E-4	-4.672450E-3	-2.560122E-4	-2.075601E-3	-2.147762E-3	-7.271075E-3	-4.151695E-3	3.365139E-4	8.836492E-4	-4.773104E-3	-1.044642E-2	8.412926E-3	-4.794783E-3	1.152434E-3	4.044949E-3	-3.633002E-3	9.041693E-4	-5.593961E-3	-8.936736E-3	1.079901E-3	-7.262590E-3	-5.719227E-3	-1.219303E-2	1.074371E-2
2.810040E+2	4.531919E-3	1.094986E-2	-1.858297E-3	-6.339544E-3	-2.282817E-3	3.153541E-3	6.982252E-3	2.426711E-3	-7.241607E-3	5.001693E-4	-4.660262E-3	2.774242E-3	-1.919347E-3	-1.502304E-4	3.055930E-3	-1.184056E-2	1.300089E-2	1.294969E-2	1.014530E-2	-9.048083E-3	2.358692E-3	5.632720E-3	5.148268E-3	-7.806418E-3	-9.173272E-3	8.460791E-3	1.224777E-3	-2.444086E-3	-4.836761E-3	6.584239E-3	-2.005535E-3	6.016413E-3	-1.233725E-3	-7.541874E-3	4.543556E-3	2.939763E-3	4.686112E-3	2.974506E-3	-9.849950E-4	1.061157E-2	6.094678E-3	-1.116855E-3	-2.685129E-3	6.062097E-3	4.182105E-4	1.876217E-4	-6.171911E-3	6.270270E-3	1.582308E-3	3.522631E-3	-8.728263E-3	-3.911116E-3	-6.183982E-3	-5.331751E-3	-3.014017E-4	-5.921250E-3	-4.258894E-3	2.695792E-3	6.120880E-3	-1.515184E-3	-2.835755E-3	5.668320E-3	5.578565E-3	6.899528E-3	-2.223937E-3	-1.328659E-4	-1.067699E-2	-2.054177E-3	4.247677E-3	7.998142E-4	9.491769E-3	-2.327199E-3	-6.436627E-3	-8.016984E-3	1.545976E-3	8.912019E-3	1.437893E-3	5.358056E-3	2.564897E-3	1.102451E-2	9.428521E-4	9.407006E-4	5.750233E-3	3.760535E-3	3.652730E-3	1.377654E-2	2.458725E-3	-4.405185E-3	-7.457388E-3	3.270259E-3	-8.795666E-3	-1.360042E-3	-7.948911E-4	7.208406E-3	1.647674E-3	-4.469709E-3	-2.643907E-4	-2.476988E-3	8.871296E-4	5.944188E-3	6.507192E-3	-2.493791E-3	-4.734245E-3	1.672284E-3	-1.901193E-3	5.370572E-3	-1.793330E-3	-2.665366E-3	-3.433794E-3	4.804531E-3	3.946061E-3	-1.433460E-3	-2.041040E-3	-2.218628E-3	-1.230916E-3	1.622846E-2	5.111414E-3	-7.311786E-3	-3.244093E-3	2.374720E-3	-3.211245E-3	4.335768E-4	-3.257418E-3	6.431080E-3	2.776017E-3	-2.969416E-3	3.011994E-3	1.249792E-2	4.672125E-3	1.948922E-3	-3.990886E-3	1.051836E-2	7.092339E-3	2.608020E-3	4.939075E-3	-3.956732E-3	-1.038433E-3	2.577237E-3	-4.854772E-3	-1.136918E-3	-6.145547E-3	1.385448E-3	-2.601191E-3	6.783768E-3	-3.071828E-3	-1.128934E-3	-7.232452E-4	3.269249E-3	1.130063E-2	1.544953E-3	3.170697E-3	6.247491E-3	-2.099798E-3	-9.473827E-3	-4.341168E-3	-1.578536E-3	1.209317E-2	-3.548673E-4	5.282995E-3	-1.231017E-3	1.354005E-3	-2.057091E-3	1.007272E-2	-1.427832E-3	-7.626799E-3	-1.164610E-2	4.423363E-3	4.639369E-4	-1.738266E-3	-1.073437E-2	1.004601E-2
2.815020E+2	3.708234E-3	-6.577352E-3	1.374771E-2	5.613083E-4	7.474753E-3	1.418828E-2	1.491328E-4	-9.242276E-3	7.727745E-3	5.984689E-3	1.245951E-2	-1.401217E-3	5.720513E-3	3.468532E-3	6.625516E-3	2.938053E-3	5.322966E-3	-1.262819E-2	-8.271286E-3	1.383169E-3	9.335374E-4	-4.733577E-3	4.668751E-3	-4.055470E-3	4.285817E-3	-5.249382E-3	-1.033749E-3	6.311621E-3	4.319002E-3	8.254954E-3	-1.016583E-4	9.324068E-3	-1.924368E-3	1.608858E-3	1.294724E-3	7.667716E-3	-4.488591E-3	-2.148679E-3	6.292309E-3	4.611887E-3	5.439081E-4	5.574580E-3	-3.338789E-3	-8.380171E-3	7.948087E-3	1.821946E-3	1.709136E-2	-3.339654E-3	1.410907E-2	3.765002E-3	4.515496E-3	3.131438E-3	2.138578E-3	4.230041E-3	2.267957E-3	-1.208955E-4	1.778282E-3	-9.890793E-5	9.382721E-3	-4.073405E-3	6.338972E-3	3.963994E-3	6.772959E-3	-6.763225E-3	1.320241E-2	6.222066E-3	2.729646E-3	-1.019563E-5	4.489763E-3	-1.063409E-3	-7.953897E-3	-5.858906E-4	9.985109E-3	3.874532E-3	-3.288780E-3	-2.107492E-3	7.182058E-3	-1.037332E-2	-1.359621E-3	1.885761E-3	2.885393E-3	1.999910E-3	3.473506E-3	1.274814E-3	6.192388E-4	-1.083776E-3	1.158190E-2	1.020121E-2	8.837103E-3	3.513115E-3	-9.468934E-4	8.457808E-3	-2.852494E-3	2.358671E-3	3.975664E-5	1.453849E-2	3.442100E-3	-9.243101E-3	5.995104E-3	8.093941E-3	1.152983E-2	1.384601E-2	5.856886E-3	8.394494E-3	-7.816844E-4	-5.989126E-3	2.055611E-3	1.665435E-2	-6.145275E-3	-8.397588E-3	1.514456E-3	1.467682E-2	5.547872E-3	4.407922E-3	1.404693E-2	1.204794E-2	1.363268E-2	4.905606E-3	-1.348473E-3	-9.102813E-3	3.188117E-4	-1.807120E-3	-5.865098E-3	1.116739E-2	-4.418839E-3	4.655643E-3	4.209582E-3	3.950234E-3	-6.278252E-3	-2.710979E-4	2.238162E-3	-6.123979E-3	3.105207E-3	-4.418373E-4	-1.837010E-3	1.660972E-3	-2.497434E-3	7.496583E-3	-5.544072E-3	-9.047939E-4	5.360906E-4	2.367674E-3	2.041529E-3	-2.889851E-3	3.513522E-3	6.263084E-4	-1.460075E-3	-1.132031E-3	5.562648E-3	-4.328991E-3	2.631731E-3	2.062668E-3	-8.510431E-3	6.068078E-3	4.300771E-3	7.835125E-3	1.363022E-3	6.256374E-3	-6.344709E-3	8.175557E-3	-9.670069E-3	5.475605E-3	8.306774E-3	-3.043037E-3	9.194898E-3	7.851677E-3	-1.324567E-2	4.799584E-3	5.938364E-3	1.374750E-2	-1.451179E-2
2.820030E+2	8.332255E-3	9.977545E-3	-1.064602E-2	1.253306E-2	1.789500E-3	-3.885024E-3	2.351290E-3	-3.359263E-3	7.223302E-4	-5.290768E-4	9.165570E-3	2.106284E-2	9.376983E-4	5.237414E-3	1.035769E-2	1.659957E-3	3.930886E-3	-5.840802E-3	4.438556E-3	1.116802E-2	1.094312E-2	5.503202E-3	-2.060309E-3	5.647956E-3	-2.984438E-3	-3.339431E-3	6.912817E-3	1.880705E-2	5.376686E-3	6.537920E-3	7.115139E-3	4.324182E-3	1.583844E-2	1.021190E-2	-9.145596E-4	1.441378E-2	-1.017022E-3	1.069359E-2	3.920700E-4	-5.111793E-4	9.177793E-3	1.006833E-2	2.220724E-3	6.912003E-4	3.962461E-3	1.525787E-3	-1.306512E-3	8.750783E-3	2.160558E-3	1.270079E-2	4.194957E-3	-4.451971E-3	5.335201E-5	6.076747E-3	1.896736E-3	1.074905E-2	2.992953E-3	8.724241E-3	4.841739E-3	1.740288E-3	1.514396E-3	1.060722E-3	1.589656E-3	9.262751E-3	3.749282E-3	1.438299E-2	4.079730E-3	4.978161E-3	2.494242E-3	1.440326E-3	1.501044E-2	5.583459E-4	1.412702E-2	1.101178E-2	-2.914385E-3	8.802347E-3	8.417622E-3	6.088611E-3	7.155617E-4	2.275692E-3	9.336907E-3	-1.811983E-3	6.426762E-3	1.724215E-2	1.013043E-3	9.281221E-5	2.340964E-3	9.897870E-3	1.167514E-3	6.382179E-3	9.091900E-3	-2.587384E-3	4.410410E-3	8.649569E-3	6.857165E-3	1.341571E-2	1.619615E-2	1.133337E-2	4.459279E-3	3.755754E-3	1.200672E-2	-9.204593E-3	5.527393E-3	5.627240E-3	1.052747E-2	-1.460733E-3	5.220262E-3	7.983462E-3	8.977488E-3	3.321016E-3	1.533271E-2	1.165764E-2	1.011005E-2	1.291361E-2	5.090390E-3	-1.952948E-3	9.171652E-3	5.338836E-3	5.801338E-3	1.483217E-3	6.979327E-4	2.789382E-3	1.545553E-2	5.390266E-3	-5.746461E-3	7.836272E-3	1.033146E-2	9.256584E-3	1.008507E-2	-2.378964E-3	-1.746710E-3	2.319988E-3	4.400559E-3	1.674402E-2	1.716963E-3	3.578171E-3	6.650599E-3	1.182933E-2	7.731662E-3	3.269030E-3	1.109549E-2	-6.109140E-3	8.702805E-3	5.839033E-3	-9.538458E-5	4.084008E-3	9.892195E-3	1.054531E-2	6.859838E-3	4.580089E-3	9.721797E-3	-1.290458E-3	1.378831E-2	2.773214E-2	8.989499E-3	2.749518E-3	9.269167E-4	3.833767E-3	-4.239731E-3	1.207174E-2	1.100980E-2	1.050353E-3	-4.880737E-4	-8.529804E-4	-1.466473E-3	5.985255E-3	9.803722E-3	7.302745E-3	1.893288E-3	1.426103E-2	5.891890E-3
2.825060E+2	1.958775E-3	4.837980E-3	5.625144E-3	-4.691443E-3	2.684870E-3	-3.846953E-3	5.768884E-3	1.505752E-2	3.507565E-3	4.105781E-3	3.465983E-3	1.590996E-3	6.921778E-3	4.384630E-4	2.980456E-3	6.575697E-3	1.250911E-3	1.207851E-2	3.607316E-3	2.698856E-3	1.252078E-3	1.016808E-2	5.065026E-3	8.527601E-3	7.536584E-3	8.408001E-3	3.548202E-3	-5.356392E-3	8.475259E-3	1.540596E-3	7.111877E-3	2.026516E-3	3.925025E-3	6.908139E-3	4.512984E-3	-5.743251E-3	5.320207E-3	7.578832E-3	-1.986589E-3	6.601445E-3	2.532436E-3	1.415871E-2	1.352242E-2	1.751443E-2	1.772826E-3	-1.279066E-3	-7.337853E-3	-3.007021E-3	1.195508E-2	1.424864E-2	5.072442E-3	8.390721E-3	8.670572E-4	3.896801E-3	-1.284413E-3	1.235889E-2	4.677053E-3	4.894469E-3	2.007867E-2	1.100547E-2	-2.244781E-3	2.397312E-3	1.592145E-3	3.473270E-3	6.043059E-3	3.553624E-3	2.209540E-3	1.321606E-2	8.046078E-5	1.135202E-2	1.785820E-3	8.247431E-3	9.578763E-3	2.566787E-3	9.044169E-3	8.794185E-3	9.996251E-3	2.067363E-4	1.081865E-2	7.020849E-3	1.707576E-2	2.376435E-3	1.499405E-2	1.636792E-3	5.141492E-3	8.123797E-3	4.794857E-3	6.973509E-3	1.106660E-2	6.366646E-3	7.129097E-3	4.448731E-3	1.054208E-2	-2.053349E-4	4.071594E-3	1.260980E-2	-4.181061E-3	9.546243E-3	1.137429E-2	1.810256E-3	2.382988E-3	1.340399E-3	4.718158E-3	8.036922E-3	1.049218E-2	1.609184E-2	9.744543E-3	3.357895E-3	5.266812E-3	4.124878E-3	1.862705E-3	1.837604E-3	1.421315E-2	4.805561E-3	5.995653E-3	6.156349E-3	-2.506351E-3	-7.473349E-4	4.918806E-3	1.486321E-2	-4.282761E-3	-1.426409E-3	3.975275E-3	5.349139E-3	1.670931E-2	-3.013817E-3	-2.935320E-3	-2.949511E-3	1.662284E-2	5.005660E-3	4.310780E-3	2.282921E-4	9.510149E-3	8.317882E-3	1.273592E-2	4.414047E-3	1.287127E-2	8.835485E-3	1.126385E-2	1.160482E-2	5.275284E-3	6.462728E-3	-2.051142E-3	6.695246E-3	3.077113E-3	1.796314E-3	-2.224029E-3	1.224089E-2	1.413715E-3	6.191675E-4	8.740669E-3	1.070361E-2	6.059507E-3	1.211799E-2	8.899222E-3	7.321244E-3	1.681123E-3	1.381258E-2	8.103850E-4	2.008030E-3	4.489442E-3	-6.895613E-4	9.713252E-3	4.580940E-3	1.128417E-2	6.730978E-3	3.203169E-3	-9.081312E-4	9.415766E-3	-3.042427E-4	8.681201E-4
2.830030E+2	1.825891E-2	2.409985E-2	1.751459E-2	1.459280E-2	1.718371E-2	1.515023E-2	7.082980E-3	1.311867E-2	1.696037E-2	2.223400E-2	1.117143E-2	1.714017E-2	5.049973E-3	2.081858E-2	-8.720656E-4	1.888094E-2	2.400891E-2	4.348467E-3	1.529574E-2	6.095231E-3	8.827503E-3	1.130699E-2	1.181973E-2	6.009110E-3	1.462142E-2	4.053907E-3	2.857431E-3	1.508900E-2	5.819693E-3	1.055025E-2	4.862545E-3	1.812958E-2	1.252841E-2	4.836835E-3	1.172863E-3	2.225938E-2	-1.531560E-3	1.426141E-2	2.596488E-2	1.498352E-2	1.870757E-2	1.046904E-2	2.085140E-2	1.398521E-2	1.545998E-2	5.424625E-3	4.220830E-3	-4.544828E-3	4.268660E-3	1.699398E-2	3.643462E-3	1.966873E-2	1.355273E-2	1.813159E-2	1.342036E-2	1.439581E-2	1.605165E-2	1.066727E-2	4.292471E-3	9.501884E-3	2.081373E-2	5.422468E-3	2.558355E-2	2.985798E-3	1.180871E-2	1.165908E-2	2.079017E-2	1.363365E-2	9.288180E-3	1.770600E-3	1.001046E-2	6.313710E-3	2.005862E-2	2.328573E-2	1.704617E-3	5.890159E-3	7.986751E-3	2.344790E-2	7.826977E-3	7.374134E-3	1.836906E-2	6.085661E-3	1.455631E-2	5.656287E-3	1.218074E-2	1.174319E-2	1.419101E-2	1.023708E-2	-2.159358E-3	1.830626E-2	1.818334E-2	1.541770E-2	1.942044E-2	1.568267E-2	1.553460E-2	2.413360E-2	2.368309E-2	1.083002E-2	1.678058E-2	2.139981E-2	1.480391E-2	1.477560E-2	9.972838E-3	9.251800E-3	1.545639E-2	4.719340E-3	6.476385E-3	1.013176E-2	1.455026E-2	1.747805E-2	7.574549E-3	1.471966E-2	2.294067E-2	1.329455E-2	1.018665E-2	1.834772E-2	1.121169E-2	6.427863E-3	1.718063E-2	1.528909E-2	7.831272E-3	1.408690E-2	6.235189E-3	1.024730E-2	1.880049E-2	-2.010574E-3	1.353405E-2	1.369252E-2	4.788330E-6	2.440712E-2	2.214718E-2	5.629743E-3	2.110528E-3	1.799239E-2	2.015575E-3	1.102569E-2	5.545277E-5	2.656119E-3	1.626547E-2	1.862261E-2	1.368617E-2	5.339700E-3	2.158817E-2	5.487609E-3	5.003420E-3	1.200145E-2	5.053107E-3	1.265597E-2	1.097232E-2	8.743977E-3	3.275829E-3	1.110618E-2	1.308332E-2	1.169860E-2	1.008371E-2	-7.147873E-3	1.709462E-2	2.421187E-2	1.578717E-2	6.665852E-3	6.443132E-3	1.189763E-2	2.034665E-2	9.518102E-3	2.295529E-2	6.308683E-3	5.420190E-3	1.611184E-2	5.261346E-3	-9.836525E-3	-2.400884E-2
2.835020E+2	1.601885E-2	1.736369E-2	2.750703E-2	2.549255E-2	2.089577E-2	1.181873E-2	2.719373E-2	2.306197E-2	1.799450E-2	2.321230E-2	1.954094E-2	2.901561E-2	2.043704E-2	2.960550E-2	1.759019E-2	4.695131E-2	3.145024E-2	2.436924E-2	1.492991E-2	1.468449E-2	3.036587E-2	3.022427E-2	3.098747E-2	1.936583E-2	3.219591E-2	2.971314E-2	2.055742E-2	2.064909E-2	2.898614E-2	3.051906E-2	3.313126E-2	3.920281E-2	2.279184E-2	2.254772E-2	1.757165E-2	2.626745E-2	3.222270E-2	3.444053E-2	2.401320E-2	4.276220E-2	2.813999E-2	1.637936E-2	2.614082E-2	4.638081E-2	1.871541E-2	2.577567E-2	3.300868E-2	2.456891E-2	2.144600E-2	2.206590E-2	2.167535E-2	2.912436E-2	1.533920E-2	2.439425E-2	3.340627E-2	2.381345E-2	2.133681E-2	2.498483E-2	2.514806E-2	2.449553E-2	9.586371E-3	3.149985E-2	3.044089E-2	1.317313E-2	2.375635E-2	3.315366E-2	4.067948E-2	1.847121E-2	2.989455E-2	3.010066E-2	2.686270E-2	2.768631E-2	3.145834E-2	3.216564E-2	2.522060E-2	1.253430E-2	1.292035E-2	2.160208E-2	2.942504E-2	1.632829E-2	2.560005E-2	3.613262E-2	2.770409E-2	3.275109E-2	1.992015E-2	2.749383E-2	2.687354E-2	3.714793E-2	2.809800E-2	2.774189E-2	1.824268E-2	2.989653E-2	4.011988E-2	3.476620E-2	2.497820E-2	3.248101E-2	4.102238E-2	3.700924E-2	2.184591E-2	1.467471E-2	3.053408E-2	3.658736E-2	8.486873E-3	2.185184E-2	1.737979E-2	1.412325E-2	3.814707E-2	2.978933E-2	3.370116E-2	2.142671E-2	4.046752E-2	2.576910E-2	2.573880E-2	2.832436E-2	1.987394E-2	3.328817E-2	3.604278E-2	2.512761E-2	2.342068E-2	2.196853E-2	3.779552E-2	2.110307E-2	2.369112E-2	3.974327E-2	4.541313E-2	3.067445E-2	3.002475E-2	3.379972E-2	3.356016E-2	3.143897E-2	3.211391E-2	4.509669E-3	2.843966E-2	2.083895E-2	2.303972E-2	1.273716E-2	3.504856E-2	3.512790E-2	2.968123E-2	1.013792E-2	2.285012E-2	2.971147E-2	2.363994E-2	1.664990E-2	3.378183E-2	3.307391E-2	2.948507E-2	1.560315E-2	2.758369E-2	2.713693E-2	1.698724E-2	2.128283E-2	1.710330E-2	3.447896E-2	3.459896E-2	3.066856E-2	1.330344E-2	2.109533E-2	3.603248E-2	2.827986E-2	1.393905E-2	2.618042E-2	3.409357E-2	3.792951E-2	2.727968E-2	2.720160E-2	2.287324E-2	4.916618E-2	1.843107E-2	1.594958E-2	3.808292E-2
2.840020E+2	4.979929E-2	5.126665E-2	6.231028E-2	5.316287E-2	7.687349E-2	4.351305E-2	4.618785E-2	3.574298E-2	4.997538E-2	6.534586E-2	5.042540E-2	4.953902E-2	5.360774E-2	5.533815E-2	4.925602E-2	5.273396E-2	5.015382E-2	4.245501E-2	4.765083E-2	4.498417E-2	5.603361E-2	3.557551E-2	5.996241E-2	4.902310E-2	4.016777E-2	5.142571E-2	3.779053E-2	5.512955E-2	5.396094E-2	4.673278E-2	5.546120E-2	6.092453E-2	6.697328E-2	6.494059E-2	4.559957E-2	4.833385E-2	5.829599E-2	4.563680E-2	6.368536E-2	4.918359E-2	4.643783E-2	3.081234E-2	7.446935E-2	4.665508E-2	6.528350E-2	6.021749E-2	5.035448E-2	4.852650E-2	6.890819E-2	4.176125E-2	5.326932E-2	5.813580E-2	5.649384E-2	4.449037E-2	4.809585E-2	4.943953E-2	6.282485E-2	5.586873E-2	5.751519E-2	5.162493E-2	4.668730E-2	5.176196E-2	5.628166E-2	4.514326E-2	5.306376E-2	6.376469E-2	5.379763E-2	4.121341E-2	6.309334E-2	7.088664E-2	4.222387E-2	6.957226E-2	5.460791E-2	4.924698E-2	5.946095E-2	5.171936E-2	5.945507E-2	5.889990E-2	4.830328E-2	5.479555E-2	5.467564E-2	7.535076E-2	3.512461E-2	5.517095E-2	6.775589E-2	5.391362E-2	5.054568E-2	5.449091E-2	4.137399E-2	5.465635E-2	6.646734E-2	5.861866E-2	5.683266E-2	4.685768E-2	5.673280E-2	5.514506E-2	5.518842E-2	3.453946E-2	4.427472E-2	5.539916E-2	4.088565E-2	3.788281E-2	5.646780E-2	6.039450E-2	6.873233E-2	5.700711E-2	4.612662E-2	5.577918E-2	5.206239E-2	4.494101E-2	5.295206E-2	3.981802E-2	4.315599E-2	6.160662E-2	6.144048E-2	6.190545E-2	5.831601E-2	5.241234E-2	6.516353E-2	5.027030E-2	6.102690E-2	5.105566E-2	5.851291E-2	4.486251E-2	3.283073E-2	5.692903E-2	4.691245E-2	8.276987E-2	4.650894E-2	5.757897E-2	6.874106E-2	3.970062E-2	4.935153E-2	4.993637E-2	6.136382E-2	6.243099E-2	5.114895E-2	4.910457E-2	6.264894E-2	4.930092E-2	4.979403E-2	5.268019E-2	4.417995E-2	5.085137E-2	5.182948E-2	6.370517E-2	4.613364E-2	5.174492E-2	6.242707E-2	5.021381E-2	4.312413E-2	4.663607E-2	6.284256E-2	6.058718E-2	6.168433E-2	6.589820E-2	5.308830E-2	6.309442E-2	5.882470E-2	4.531859E-2	6.325693E-2	5.111935E-2	6.302851E-2	5.942339E-2	5.353167E-2	6.189826E-2	5.558876E-2	6.355335E-2	3.433171E-2	3.316795E-2	3.521183E-2
2.841030E+2	5.533040E-2	4.208495E-2	4.087626E-2	6.910230E-2	4.936168E-2	7.953770E-2	5.824574E-2	7.746038E-2	5.037174E-2	5.127219E-2	7.324811E-2	6.580956E-2	5.010151E-2	6.664874E-2	4.748706E-2	5.226083E-2	8.241967E-2	6.604361E-2	4.724017E-2	3.343593E-2	9.061310E-2	6.102586E-2	6.696958E-2	6.766403E-2	6.367819E-2	5.596724E-2	6.387120E-2	7.018374E-2	6.559899E-2	5.923083E-2	6.173873E-2	4.411789E-2	5.209500E-2	7.233133E-2	5.760994E-2	4.579417E-2	8.466072E-2	7.311191E-2	5.538555E-2	5.457228E-2	6.342248E-2	5.957887E-2	6.842684E-2	6.887946E-2	8.132691E-2	6.589412E-2	7.376611E-2	7.395726E-2	5.440137E-2	5.771747E-2	5.992983E-2	7.840318E-2	6.641951E-2	6.329613E-2	5.946908E-2	5.921717E-2	7.303062E-2	6.521666E-2	4.960357E-2	4.619564E-2	5.582536E-2	5.641170E-2	5.215057E-2	5.872648E-2	7.128226E-2	6.339442E-2	6.802339E-2	4.644611E-2	5.166052E-2	6.988635E-2	6.456360E-2	5.129993E-2	6.843615E-2	5.763873E-2	6.638675E-2	6.709090E-2	5.491337E-2	7.724423E-2	7.759953E-2	6.006269E-2	5.880342E-2	5.556647E-2	5.991948E-2	5.891699E-2	6.650169E-2	5.692264E-2	6.714632E-2	7.112941E-2	5.598946E-2	8.197148E-2	5.915472E-2	6.591869E-2	6.541103E-2	7.144068E-2	5.625490E-2	6.786401E-2	6.685464E-2	4.333098E-2	6.024389E-2	5.614559E-2	4.715984E-2	7.084878E-2	6.281905E-2	4.972352E-2	6.053570E-2	5.302360E-2	5.792493E-2	4.264080E-2	7.745493E-2	4.992310E-2	5.426109E-2	6.173166E-2	5.571176E-2	4.240823E-2	5.484131E-2	7.376376E-2	5.873625E-2	6.880429E-2	4.419578E-2	5.567206E-2	5.795543E-2	5.676869E-2	5.289894E-2	6.325538E-2	5.246138E-2	5.665684E-2	5.522561E-2	7.216096E-2	6.174546E-2	6.317555E-2	6.365209E-2	4.532352E-2	5.878446E-2	5.031327E-2	5.513612E-2	7.031403E-2	6.828906E-2	4.945867E-2	6.000193E-2	6.840493E-2	5.784080E-2	5.632319E-2	6.987574E-2	5.652633E-2	4.626800E-2	6.102890E-2	4.733841E-2	5.401022E-2	6.930918E-2	5.712287E-2	5.997540E-2	5.569209E-2	6.628714E-2	6.003554E-2	7.718205E-2	6.043054E-2	4.510794E-2	6.885704E-2	7.096928E-2	5.900774E-2	5.515373E-2	6.863508E-2	6.777891E-2	5.186553E-2	6.485508E-2	6.398556E-2	7.906720E-2	7.375487E-2	6.310420E-2	4.385141E-2	5.671990E-2
2.842030E+2	3.713596E-2	5.813085E-2	7.254492E-2	4.440785E-2	6.880883E-2	5.394579E-2	5.675959E-2	7.972914E-2	5.739705E-2	6.953850E-2	4.798175E-2	4.904994E-2	7.756420E-2	5.619865E-2	5.232790E-2	7.449333E-2	8.289357E-2	7.516700E-2	5.717775E-2	6.949437E-2	6.012912E-2	7.109403E-2	6.574855E-2	6.972715E-2	6.386364E-2	6.300265E-2	5.094993E-2	7.705537E-2	7.005343E-2	7.267588E-2	4.085158E-2	6.421086E-2	4.334328E-2	6.314653E-2	6.886544E-2	8.107218E-2	5.740525E-2	4.550680E-2	6.856526E-2	6.248558E-2	6.637223E-2	5.902999E-2	6.229090E-2	6.594123E-2	6.389006E-2	6.948253E-2	6.504336E-2	7.824427E-2	5.552559E-2	4.228278E-2	6.356573E-2	5.966098E-2	6.594997E-2	7.387184E-2	6.860837E-2	6.648510E-2	7.977942E-2	6.817072E-2	4.982712E-2	7.477935E-2	7.472134E-2	6.830577E-2	5.257097E-2	6.261319E-2	7.758398E-2	6.136236E-2	5.946269E-2	4.951549E-2	6.650254E-2	7.201953E-2	6.519103E-2	6.645061E-2	5.822301E-2	8.044280E-2	2.884428E-2	7.796954E-2	7.134207E-2	5.910072E-2	6.450942E-2	7.238487E-2	7.293073E-2	6.751826E-2	6.757787E-2	6.602915E-2	7.668008E-2	7.188565E-2	7.268275E-2	7.478646E-2	6.198552E-2	7.556257E-2	6.196278E-2	6.167539E-2	6.755538E-2	6.653153E-2	6.450850E-2	7.453961E-2	8.800598E-2	6.514872E-2	6.188417E-2	5.750088E-2	7.218920E-2	6.706740E-2	5.952263E-2	6.737915E-2	5.400648E-2	6.582438E-2	7.238329E-2	6.755567E-2	5.369964E-2	6.555438E-2	7.390534E-2	5.465852E-2	6.235275E-2	5.917632E-2	5.219340E-2	5.479993E-2	5.653810E-2	5.329628E-2	6.800171E-2	7.248494E-2	7.175794E-2	6.168481E-2	4.215753E-2	7.244214E-2	5.809719E-2	7.680435E-2	5.865600E-2	5.036069E-2	5.607393E-2	8.475018E-2	5.530417E-2	5.206926E-2	5.916952E-2	8.377908E-2	6.256111E-2	6.491068E-2	5.925160E-2	4.487898E-2	8.218929E-2	6.610750E-2	6.767116E-2	6.961932E-2	5.323333E-2	6.229965E-2	6.713254E-2	6.488342E-2	6.890558E-2	6.353249E-2	6.672203E-2	7.678057E-2	6.420504E-2	7.219895E-2	6.051548E-2	6.241615E-2	6.439496E-2	5.975259E-2	5.874907E-2	5.419633E-2	7.148884E-2	6.291415E-2	7.894306E-2	5.887288E-2	6.251737E-2	6.801263E-2	7.134882E-2	6.199474E-2	6.428365E-2	6.661146E-2	6.927294E-2	6.301621E-2	3.659935E-2
2.843040E+2	9.170622E-2	8.438362E-2	8.416206E-2	9.926742E-2	7.469211E-2	8.596602E-2	8.917751E-2	8.199548E-2	8.675896E-2	9.556890E-2	8.603653E-2	9.796759E-2	7.894316E-2	1.089982E-1	9.381003E-2	8.385338E-2	8.820049E-2	9.843513E-2	8.781945E-2	8.814627E-2	9.268582E-2	9.369634E-2	9.633887E-2	8.880525E-2	1.022184E-1	8.616460E-2	8.547705E-2	1.017800E-1	1.037760E-1	8.014358E-2	8.352681E-2	8.721101E-2	8.781083E-2	9.540560E-2	9.888570E-2	9.832665E-2	7.981924E-2	8.180554E-2	1.118836E-1	9.863320E-2	9.265147E-2	9.893542E-2	1.036062E-1	1.097598E-1	1.190102E-1	9.952767E-2	1.064872E-1	1.081755E-1	9.406120E-2	9.610847E-2	9.817457E-2	1.058353E-1	1.121841E-1	9.161327E-2	7.632294E-2	9.477076E-2	9.749974E-2	8.189043E-2	7.197297E-2	1.069739E-1	8.822960E-2	8.032053E-2	8.496173E-2	8.102555E-2	8.969547E-2	8.344945E-2	9.634168E-2	6.981291E-2	9.028411E-2	9.999858E-2	8.961338E-2	8.934257E-2	9.277470E-2	1.045555E-1	7.238716E-2	8.028261E-2	1.076614E-1	9.669284E-2	8.782737E-2	9.608715E-2	8.458232E-2	9.240831E-2	8.823527E-2	1.208906E-1	9.236112E-2	7.416160E-2	8.497819E-2	8.002472E-2	1.030868E-1	8.230070E-2	6.611204E-2	9.255954E-2	9.366311E-2	1.138078E-1	1.060991E-1	1.162113E-1	9.524541E-2	9.403821E-2	9.652754E-2	8.680315E-2	1.002356E-1	9.202956E-2	8.223600E-2	9.670829E-2	1.013279E-1	7.893040E-2	1.057387E-1	8.390242E-2	8.754865E-2	8.609826E-2	9.419608E-2	8.127146E-2	9.306135E-2	1.074878E-1	1.183397E-1	1.111418E-1	1.070740E-1	9.942230E-2	8.866603E-2	8.074777E-2	8.848227E-2	9.552785E-2	8.580287E-2	8.634566E-2	8.819565E-2	8.559104E-2	9.385156E-2	1.078910E-1	7.695206E-2	8.826420E-2	1.043731E-1	8.304096E-2	8.465248E-2	9.534009E-2	1.021167E-1	9.831377E-2	8.624475E-2	8.770927E-2	8.251514E-2	6.781569E-2	8.932822E-2	8.065185E-2	1.105662E-1	7.775439E-2	9.710816E-2	7.778794E-2	9.826607E-2	8.367750E-2	1.094213E-1	8.731704E-2	1.146851E-1	9.709069E-2	8.868865E-2	8.226302E-2	1.020573E-1	1.041946E-1	8.733812E-2	7.823740E-2	7.764198E-2	7.424199E-2	1.023622E-1	7.845601E-2	1.277194E-1	9.819202E-2	9.438377E-2	8.339110E-2	9.416320E-2	7.158162E-2	8.267160E-2	8.174500E-2	3.700227E-2
2.844010E+2	1.212167E-1	1.534284E-1	1.563705E-1	1.541813E-1	1.797751E-1	1.363305E-1	1.484345E-1	1.255495E-1	1.332057E-1	1.515515E-1	1.351808E-1	1.491176E-1	1.213462E-1	1.379223E-1	1.214643E-1	1.662051E-1	1.566636E-1	1.420715E-1	1.334872E-1	1.432013E-1	1.341847E-1	1.453835E-1	1.372632E-1	1.204343E-1	1.520586E-1	1.483720E-1	1.362560E-1	1.537655E-1	1.343411E-1	1.565533E-1	1.453356E-1	1.649756E-1	1.116747E-1	1.661426E-1	1.409298E-1	1.650367E-1	1.636345E-1	1.326540E-1	1.532055E-1	1.539158E-1	1.216784E-1	1.409149E-1	1.251541E-1	1.772451E-1	1.444787E-1	1.291264E-1	1.440656E-1	1.441254E-1	1.363211E-1	1.268658E-1	1.411089E-1	1.532827E-1	1.206997E-1	1.149277E-1	1.386693E-1	1.372138E-1	1.306778E-1	1.512535E-1	1.568280E-1	1.522273E-1	1.302628E-1	1.414927E-1	1.396265E-1	1.626325E-1	1.366507E-1	1.323950E-1	1.385368E-1	1.329813E-1	1.636889E-1	1.198004E-1	1.522949E-1	1.449338E-1	1.382519E-1	1.269162E-1	1.244843E-1	1.689735E-1	1.666551E-1	1.107778E-1	1.683999E-1	1.545154E-1	1.437034E-1	1.574298E-1	1.520069E-1	1.523070E-1	1.617919E-1	1.397610E-1	1.504060E-1	1.506331E-1	1.376039E-1	1.261955E-1	1.241420E-1	1.398125E-1	1.498968E-1	1.280867E-1	1.327053E-1	1.608992E-1	1.329036E-1	1.583144E-1	1.600446E-1	1.461948E-1	1.475321E-1	1.417303E-1	1.420397E-1	1.350099E-1	1.588161E-1	1.661914E-1	1.608970E-1	1.637810E-1	1.401165E-1	1.362678E-1	1.553969E-1	1.740099E-1	1.517018E-1	1.404837E-1	1.410187E-1	1.372805E-1	1.518000E-1	1.229912E-1	1.175850E-1	1.463054E-1	1.286900E-1	1.432021E-1	1.268839E-1	1.424720E-1	1.390824E-1	1.361289E-1	1.342369E-1	1.456774E-1	1.505603E-1	1.422607E-1	1.464077E-1	1.260545E-1	1.333708E-1	1.549316E-1	1.147498E-1	1.140932E-1	1.445804E-1	1.255033E-1	1.387960E-1	1.408851E-1	1.481325E-1	1.641862E-1	1.528946E-1	1.295388E-1	1.456289E-1	1.512780E-1	1.459512E-1	1.604057E-1	1.308713E-1	1.414880E-1	1.218654E-1	1.589833E-1	1.529842E-1	1.523966E-1	1.530171E-1	1.696581E-1	1.607707E-1	1.349361E-1	1.717333E-1	1.405507E-1	1.362822E-1	1.227965E-1	1.326461E-1	1.551452E-1	1.594206E-1	1.447251E-1	1.539978E-1	1.538052E-1	1.244843E-1	1.359053E-1	8.504276E-2
2.845030E+2	2.091611E-1	1.935557E-1	2.306881E-1	1.945854E-1	2.335339E-1	1.941350E-1	2.113307E-1	1.954510E-1	1.836000E-1	2.168598E-1	2.446830E-1	2.117262E-1	2.010554E-1	2.046609E-1	2.093232E-1	2.291006E-1	2.145647E-1	1.854934E-1	1.991556E-1	2.064216E-1	2.347108E-1	2.114279E-1	2.263121E-1	2.004238E-1	2.091178E-1	2.106278E-1	2.175907E-1	2.178873E-1	2.110584E-1	2.137239E-1	1.989832E-1	2.201192E-1	1.902093E-1	2.046988E-1	1.941935E-1	2.160023E-1	2.078811E-1	2.240332E-1	2.205102E-1	2.280427E-1	2.307089E-1	2.256084E-1	2.189411E-1	2.385345E-1	2.291586E-1	2.212921E-1	2.369140E-1	2.482559E-1	2.126821E-1	2.148808E-1	2.135667E-1	1.821749E-1	2.097516E-1	2.171146E-1	2.059904E-1	2.031915E-1	2.166586E-1	2.223991E-1	2.142612E-1	2.066432E-1	2.139358E-1	2.295847E-1	1.823856E-1	2.425931E-1	2.134859E-1	2.477389E-1	2.215945E-1	2.082544E-1	2.380536E-1	2.209936E-1	2.016763E-1	2.146964E-1	2.327892E-1	2.259379E-1	2.161926E-1	1.921644E-1	2.263639E-1	2.139392E-1	2.156336E-1	2.049794E-1	2.337158E-1	2.260638E-1	2.369707E-1	2.132505E-1	2.032798E-1	2.027892E-1	2.208964E-1	2.125943E-1	2.246368E-1	2.155008E-1	2.394491E-1	2.321217E-1	2.419474E-1	2.196720E-1	2.470068E-1	2.060827E-1	2.183639E-1	2.081125E-1	1.945925E-1	2.315386E-1	2.398603E-1	2.018071E-1	1.913513E-1	2.260011E-1	2.002410E-1	2.208286E-1	2.240172E-1	2.476989E-1	2.110328E-1	1.873353E-1	2.173303E-1	2.335926E-1	2.506433E-1	2.082530E-1	2.087817E-1	1.886256E-1	2.196564E-1	2.377454E-1	2.150683E-1	2.022817E-1	2.062833E-1	2.252740E-1	1.951619E-1	2.062138E-1	2.277960E-1	2.117786E-1	2.285404E-1	2.101739E-1	2.138208E-1	2.193793E-1	2.120567E-1	2.079034E-1	2.032434E-1	1.793484E-1	2.190860E-1	1.596924E-1	2.245425E-1	2.082615E-1	2.233916E-1	1.805990E-1	2.162123E-1	2.161201E-1	2.198393E-1	2.148406E-1	2.251533E-1	2.217333E-1	2.051912E-1	2.392827E-1	2.086595E-1	2.310422E-1	2.174861E-1	2.213241E-1	2.220490E-1	2.275861E-1	2.053253E-1	2.310682E-1	2.030873E-1	2.339142E-1	2.090243E-1	2.422439E-1	2.158494E-1	1.970802E-1	1.688846E-1	2.101605E-1	2.195073E-1	2.102286E-1	2.100156E-1	2.205425E-1	2.444067E-1	2.381251E-1	2.122946E-1
2.846040E+2	2.950536E-1	3.493765E-1	3.045355E-1	3.491686E-1	3.322706E-1	3.267190E-1	3.462529E-1	3.202755E-1	3.268183E-1	3.297942E-1	3.347920E-1	2.885302E-1	3.721498E-1	3.453907E-1	3.319039E-1	3.378191E-1	3.185606E-1	3.360594E-1	3.223898E-1	3.134091E-1	3.383862E-1	3.809041E-1	3.742406E-1	3.791081E-1	3.781995E-1	3.745551E-1	3.838225E-1	4.001558E-1	3.405622E-1	3.277953E-1	3.393047E-1	3.813567E-1	3.426899E-1	3.334183E-1	3.327566E-1	3.705048E-1	3.493142E-1	3.281378E-1	3.575480E-1	3.417279E-1	3.480110E-1	3.523065E-1	3.621559E-1	3.526184E-1	3.623916E-1	3.520693E-1	3.940021E-1	3.881634E-1	3.410362E-1	3.573961E-1	3.319134E-1	3.826205E-1	3.667379E-1	3.743741E-1	3.650065E-1	3.766421E-1	3.843689E-1	3.655104E-1	3.837468E-1	3.728142E-1	3.688921E-1	3.287010E-1	3.491521E-1	3.305183E-1	3.748030E-1	3.277005E-1	3.584488E-1	3.305579E-1	3.586451E-1	3.524890E-1	3.604038E-1	3.263492E-1	3.795462E-1	3.697167E-1	3.493300E-1	4.117946E-1	3.637107E-1	3.436482E-1	3.552655E-1	3.771691E-1	3.441941E-1	3.521806E-1	3.283143E-1	3.349344E-1	3.382006E-1	3.330851E-1	3.464179E-1	3.419002E-1	3.467451E-1	3.324412E-1	3.278242E-1	3.628247E-1	3.624120E-1	3.337546E-1	3.515161E-1	3.876235E-1	3.449818E-1	3.611583E-1	3.383607E-1	3.540786E-1	3.459766E-1	3.172882E-1	3.148070E-1	3.176114E-1	3.560798E-1	3.443434E-1	3.609923E-1	3.511992E-1	3.568286E-1	3.424404E-1	3.532149E-1	3.562317E-1	3.682608E-1	3.338397E-1	3.696057E-1	3.337967E-1	3.187678E-1	3.425009E-1	3.418855E-1	3.467399E-1	3.364643E-1	3.655032E-1	3.324695E-1	3.472374E-1	3.644437E-1	3.382835E-1	3.372288E-1	3.581709E-1	3.020227E-1	3.500651E-1	3.246660E-1	3.653434E-1	3.044100E-1	3.448033E-1	3.405728E-1	3.354434E-1	3.552423E-1	4.116100E-1	3.366423E-1	3.602509E-1	3.348243E-1	3.341691E-1	3.610547E-1	3.479051E-1	3.147670E-1	3.619591E-1	3.437687E-1	3.406431E-1	3.136309E-1	3.584128E-1	3.366094E-1	3.040087E-1	3.436181E-1	3.400263E-1	3.324010E-1	3.368416E-1	3.744640E-1	3.456938E-1	3.476109E-1	3.547145E-1	3.747377E-1	3.409510E-1	3.495450E-1	3.028583E-1	3.454589E-1	3.290534E-1	3.545959E-1	3.394487E-1	3.574576E-1	3.489266E-1	2.828182E-1
2.847030E+2	5.655106E-1	6.067917E-1	6.237763E-1	6.441941E-1	6.386984E-1	6.428764E-1	5.909800E-1	5.959872E-1	6.359027E-1	6.132687E-1	6.282392E-1	5.649402E-1	6.645295E-1	6.114922E-1	6.018598E-1	5.892514E-1	6.042477E-1	5.803728E-1	6.039203E-1	6.401159E-1	6.593491E-1	6.307388E-1	7.136985E-1	6.774703E-1	6.754129E-1	6.997737E-1	7.087711E-1	7.121040E-1	6.933338E-1	6.647357E-1	7.038994E-1	7.056767E-1	6.702270E-1	6.476703E-1	6.748243E-1	7.465848E-1	6.643685E-1	6.890326E-1	6.808035E-1	6.829499E-1	6.746808E-1	7.131087E-1	6.920530E-1	7.106212E-1	6.989704E-1	7.184540E-1	6.937822E-1	6.678660E-1	7.059368E-1	6.573612E-1	6.485026E-1	6.697963E-1	6.603135E-1	6.722396E-1	6.898923E-1	6.681274E-1	6.830119E-1	6.525197E-1	6.690977E-1	6.381280E-1	6.971113E-1	6.707924E-1	6.682432E-1	7.062246E-1	6.894432E-1	6.737143E-1	6.618909E-1	5.886168E-1	6.507606E-1	6.584680E-1	6.555053E-1	6.521136E-1	7.169456E-1	6.463919E-1	6.507228E-1	6.839619E-1	6.847473E-1	6.775307E-1	6.543474E-1	6.427532E-1	6.748907E-1	6.857781E-1	6.662462E-1	6.654880E-1	6.602788E-1	6.391181E-1	6.824335E-1	6.273790E-1	6.357708E-1	6.449876E-1	6.737823E-1	6.693125E-1	6.879105E-1	6.828938E-1	6.315192E-1	6.888335E-1	6.037846E-1	6.246643E-1	7.089571E-1	6.700919E-1	6.514096E-1	6.770834E-1	6.922609E-1	6.835794E-1	6.699005E-1	6.359933E-1	6.955696E-1	6.090998E-1	6.444808E-1	6.589076E-1	6.321594E-1	6.724293E-1	6.404738E-1	6.641704E-1	6.252458E-1	5.846150E-1	6.335453E-1	6.391963E-1	6.507750E-1	6.925540E-1	6.203857E-1	6.717997E-1	6.361281E-1	6.505038E-1	6.707806E-1	6.407640E-1	6.249476E-1	6.616244E-1	6.412921E-1	6.271372E-1	6.202222E-1	7.045160E-1	6.884549E-1	6.058562E-1	6.162689E-1	6.496998E-1	6.460963E-1	6.574475E-1	6.381134E-1	6.603378E-1	6.112502E-1	6.741500E-1	6.201220E-1	6.349659E-1	6.437863E-1	6.140774E-1	6.396421E-1	6.457216E-1	6.127869E-1	6.864386E-1	6.344656E-1	6.457512E-1	6.589940E-1	6.981712E-1	6.142499E-1	6.448506E-1	6.212729E-1	6.069293E-1	6.008653E-1	6.482126E-1	6.431758E-1	6.425611E-1	6.947835E-1	6.310330E-1	6.645414E-1	6.452286E-1	6.533080E-1	6.119843E-1	6.710476E-1	6.056529E-1	6.461386E-1
2.848000E+2	1.182461E+0	1.185894E+0	1.184006E+0	1.211332E+0	1.286378E+0	1.204542E+0	1.186943E+0	1.223134E+0	1.242175E+0	1.244004E+0	1.264829E+0	1.270240E+0	1.233196E+0	1.146721E+0	1.198951E+0	1.261127E+0	1.191590E+0	1.233778E+0	1.224305E+0	1.299487E+0	1.302830E+0	1.212201E+0	1.231404E+0	1.270940E+0	1.237216E+0	1.249115E+0	1.257106E+0	1.300156E+0	1.300016E+0	1.249874E+0	1.293631E+0	1.244894E+0	1.223848E+0	1.242675E+0	1.251130E+0	1.251585E+0	1.241087E+0	1.262703E+0	1.252915E+0	1.260115E+0	1.280877E+0	1.249745E+0	1.261885E+0	1.270265E+0	1.249851E+0	1.220770E+0	1.316933E+0	1.349139E+0	1.243860E+0	1.265777E+0	1.185860E+0	1.311093E+0	1.247065E+0	1.254876E+0	1.220955E+0	1.182062E+0	1.240289E+0	1.216966E+0	1.358255E+0	1.277084E+0	1.303201E+0	1.230453E+0	1.259294E+0	1.268723E+0	1.214133E+0	1.268059E+0	1.230370E+0	1.186452E+0	1.254913E+0	1.233545E+0	1.224174E+0	1.231190E+0	1.302935E+0	1.216105E+0	1.315710E+0	1.234983E+0	1.267242E+0	1.251638E+0	1.306487E+0	1.240860E+0	1.266023E+0	1.224523E+0	1.272146E+0	1.238528E+0	1.299718E+0	1.239440E+0	1.237074E+0	1.172415E+0	1.281430E+0	1.286935E+0	1.239877E+0	1.260435E+0	1.242415E+0	1.215013E+0	1.296603E+0	1.227737E+0	1.322586E+0	1.217812E+0	1.231075E+0	1.183887E+0	1.290013E+0	1.312025E+0	1.277948E+0	1.281786E+0	1.258155E+0	1.246452E+0	1.257475E+0	1.206953E+0	1.218604E+0	1.231377E+0	1.273066E+0	1.218638E+0	1.295078E+0	1.205553E+0	1.321276E+0	1.283658E+0	1.271123E+0	1.244713E+0	1.284399E+0	1.202419E+0	1.281564E+0	1.263818E+0	1.244057E+0	1.269587E+0	1.241836E+0	1.292580E+0	1.267057E+0	1.230135E+0	1.251550E+0	1.238717E+0	1.260318E+0	1.261419E+0	1.288945E+0	1.250654E+0	1.215037E+0	1.250584E+0	1.337113E+0	1.304382E+0	1.266838E+0	1.186885E+0	1.230002E+0	1.230586E+0	1.256545E+0	1.206583E+0	1.259281E+0	1.261743E+0	1.237533E+0	1.309083E+0	1.236933E+0	1.278771E+0	1.212937E+0	1.243657E+0	1.228671E+0	1.307453E+0	1.248276E+0	1.239007E+0	1.209566E+0	1.278658E+0	1.271501E+0	1.232910E+0	1.249991E+0	1.255051E+0	1.260336E+0	1.214243E+0	1.301741E+0	1.266951E+0	1.227589E+0	1.184816E+0	1.231127E+0	1.312818E+0	1.227651E+0
2.849010E+2	1.544253E+0	1.593601E+0	1.606983E+0	1.516248E+0	1.561319E+0	1.571884E+0	1.548612E+0	1.521691E+0	1.530545E+0	1.583447E+0	1.607373E+0	1.514377E+0	1.581052E+0	1.484054E+0	1.551093E+0	1.548376E+0	1.488398E+0	1.537866E+0	1.525643E+0	1.579967E+0	1.545321E+0	1.571216E+0	1.533652E+0	1.485599E+0	1.522320E+0	1.534833E+0	1.491328E+0	1.542204E+0	1.481007E+0	1.524733E+0	1.581988E+0	1.536055E+0	1.475739E+0	1.582338E+0	1.525547E+0	1.570497E+0	1.557702E+0	1.568041E+0	1.523031E+0	1.445827E+0	1.523168E+0	1.545090E+0	1.553362E+0	1.555127E+0	1.493966E+0	1.509243E+0	1.542924E+0	1.654250E+0	1.534532E+0	1.573298E+0	1.534740E+0	1.519299E+0	1.591331E+0	1.462223E+0	1.562967E+0	1.490931E+0	1.547347E+0	1.550151E+0	1.533910E+0	1.513825E+0	1.516094E+0	1.515871E+0	1.523397E+0	1.531005E+0	1.490671E+0	1.482160E+0	1.519783E+0	1.573178E+0	1.516421E+0	1.588073E+0	1.520052E+0	1.450523E+0	1.615406E+0	1.499585E+0	1.550199E+0	1.545358E+0	1.508618E+0	1.575028E+0	1.508860E+0	1.519341E+0	1.509764E+0	1.562879E+0	1.508704E+0	1.537939E+0	1.579438E+0	1.484698E+0	1.519572E+0	1.446772E+0	1.502836E+0	1.500388E+0	1.520673E+0	1.490406E+0	1.561676E+0	1.464224E+0	1.531930E+0	1.498398E+0	1.548175E+0	1.542954E+0	1.586202E+0	1.541373E+0	1.581794E+0	1.483940E+0	1.471614E+0	1.532195E+0	1.653601E+0	1.558402E+0	1.519336E+0	1.529872E+0	1.531982E+0	1.558100E+0	1.544469E+0	1.544425E+0	1.676572E+0	1.558435E+0	1.513162E+0	1.508989E+0	1.574315E+0	1.587926E+0	1.559990E+0	1.522533E+0	1.518905E+0	1.597286E+0	1.533777E+0	1.543860E+0	1.539969E+0	1.587457E+0	1.491882E+0	1.579694E+0	1.498421E+0	1.516686E+0	1.493541E+0	1.499125E+0	1.515657E+0	1.561340E+0	1.583937E+0	1.452792E+0	1.502396E+0	1.575817E+0	1.542983E+0	1.532352E+0	1.584827E+0	1.497678E+0	1.576717E+0	1.508188E+0	1.496656E+0	1.569780E+0	1.582544E+0	1.651441E+0	1.547321E+0	1.501039E+0	1.539220E+0	1.447847E+0	1.579131E+0	1.513484E+0	1.545362E+0	1.526237E+0	1.522063E+0	1.590619E+0	1.540680E+0	1.589556E+0	1.559707E+0	1.533218E+0	1.506862E+0	1.576558E+0	1.576789E+0	1.518465E+0	1.514055E+0	1.482453E+0	1.570276E+0	1.614538E+0	1.309820E+0
2.850030E+2	1.507725E+0	1.540876E+0	1.506832E+0	1.567713E+0	1.570579E+0	1.510555E+0	1.567447E+0	1.573141E+0	1.533742E+0	1.526531E+0	1.600028E+0	1.600043E+0	1.519236E+0	1.525626E+0	1.553481E+0	1.533171E+0	1.537187E+0	1.492531E+0	1.532552E+0	1.558216E+0	1.532445E+0	1.503913E+0	1.570027E+0	1.482130E+0	1.407676E+0	1.544843E+0	1.511499E+0	1.514806E+0	1.503000E+0	1.508221E+0	1.468898E+0	1.494146E+0	1.480469E+0	1.556522E+0	1.481034E+0	1.534285E+0	1.505458E+0	1.591860E+0	1.503835E+0	1.447139E+0	1.507076E+0	1.522859E+0	1.581557E+0	1.525892E+0	1.494429E+0	1.529073E+0	1.565285E+0	1.561195E+0	1.541466E+0	1.455775E+0	1.477945E+0	1.508125E+0	1.508811E+0	1.521564E+0	1.600807E+0	1.511991E+0	1.547728E+0	1.435234E+0	1.478331E+0	1.415266E+0	1.537836E+0	1.543066E+0	1.591652E+0	1.515907E+0	1.520938E+0	1.541720E+0	1.500180E+0	1.441786E+0	1.503797E+0	1.508791E+0	1.495168E+0	1.454543E+0	1.556943E+0	1.509382E+0	1.496021E+0	1.510071E+0	1.569671E+0	1.530101E+0	1.510880E+0	1.589895E+0	1.474989E+0	1.540374E+0	1.499716E+0	1.504266E+0	1.575574E+0	1.418799E+0	1.539258E+0	1.470186E+0	1.549637E+0	1.486459E+0	1.537941E+0	1.430449E+0	1.503358E+0	1.512318E+0	1.546907E+0	1.562809E+0	1.451429E+0	1.609193E+0	1.470727E+0	1.467756E+0	1.534797E+0	1.516543E+0	1.585943E+0	1.411763E+0	1.554737E+0	1.538563E+0	1.555839E+0	1.460971E+0	1.540874E+0	1.544794E+0	1.517545E+0	1.553388E+0	1.486940E+0	1.484982E+0	1.543973E+0	1.522056E+0	1.532711E+0	1.464985E+0	1.555615E+0	1.511861E+0	1.479886E+0	1.566452E+0	1.645008E+0	1.492138E+0	1.441950E+0	1.465022E+0	1.452210E+0	1.574737E+0	1.515868E+0	1.573544E+0	1.451494E+0	1.588325E+0	1.564126E+0	1.517509E+0	1.550801E+0	1.544372E+0	1.541224E+0	1.606617E+0	1.500003E+0	1.525206E+0	1.507257E+0	1.505809E+0	1.501684E+0	1.541794E+0	1.489913E+0	1.574732E+0	1.521801E+0	1.529805E+0	1.528580E+0	1.525721E+0	1.500372E+0	1.486195E+0	1.499883E+0	1.575373E+0	1.578985E+0	1.507139E+0	1.490652E+0	1.549444E+0	1.513446E+0	1.559480E+0	1.537999E+0	1.522849E+0	1.576052E+0	1.592116E+0	1.496744E+0	1.522968E+0	1.527736E+0	1.497724E+0	1.525251E+0	1.468562E+0	1.521940E+0
2.851000E+2	1.371571E+0	1.377218E+0	1.335129E+0	1.409928E+0	1.368257E+0	1.437249E+0	1.356996E+0	1.407728E+0	1.438571E+0	1.343012E+0	1.428627E+0	1.372358E+0	1.320609E+0	1.357937E+0	1.300825E+0	1.381838E+0	1.397728E+0	1.345398E+0	1.349107E+0	1.394012E+0	1.342628E+0	1.348395E+0	1.372598E+0	1.320978E+0	1.377292E+0	1.357604E+0	1.295253E+0	1.344891E+0	1.336240E+0	1.293462E+0	1.349310E+0	1.343756E+0	1.297202E+0	1.358745E+0	1.274460E+0	1.394244E+0	1.319196E+0	1.265155E+0	1.364317E+0	1.289147E+0	1.372572E+0	1.399384E+0	1.373796E+0	1.337922E+0	1.332858E+0	1.399687E+0	1.353998E+0	1.375626E+0	1.391850E+0	1.309221E+0	1.330969E+0	1.351646E+0	1.380593E+0	1.341329E+0	1.381280E+0	1.369056E+0	1.355493E+0	1.311954E+0	1.356842E+0	1.377458E+0	1.399984E+0	1.368107E+0	1.360355E+0	1.386118E+0	1.351903E+0	1.286017E+0	1.356301E+0	1.330191E+0	1.336754E+0	1.390299E+0	1.413105E+0	1.349759E+0	1.369223E+0	1.391515E+0	1.289633E+0	1.289969E+0	1.330426E+0	1.387117E+0	1.369264E+0	1.310568E+0	1.366910E+0	1.399676E+0	1.333632E+0	1.354557E+0	1.377188E+0	1.388653E+0	1.381326E+0	1.274891E+0	1.291991E+0	1.360045E+0	1.371761E+0	1.420940E+0	1.405755E+0	1.366286E+0	1.384651E+0	1.414985E+0	1.439947E+0	1.373077E+0	1.342125E+0	1.387016E+0	1.303376E+0	1.402099E+0	1.347937E+0	1.309519E+0	1.383159E+0	1.403183E+0	1.400383E+0	1.354276E+0	1.348047E+0	1.392026E+0	1.303140E+0	1.370813E+0	1.391435E+0	1.416309E+0	1.328196E+0	1.317147E+0	1.392775E+0	1.352898E+0	1.366588E+0	1.373907E+0	1.369395E+0	1.439635E+0	1.368023E+0	1.358101E+0	1.352854E+0	1.337261E+0	1.375782E+0	1.328415E+0	1.254975E+0	1.339433E+0	1.355885E+0	1.379531E+0	1.374535E+0	1.346968E+0	1.373164E+0	1.299463E+0	1.335170E+0	1.409862E+0	1.473865E+0	1.347085E+0	1.378929E+0	1.313978E+0	1.392412E+0	1.316692E+0	1.386326E+0	1.371802E+0	1.368756E+0	1.366862E+0	1.359352E+0	1.279765E+0	1.390628E+0	1.327184E+0	1.404028E+0	1.368716E+0	1.365767E+0	1.443726E+0	1.315642E+0	1.315205E+0	1.352167E+0	1.368690E+0	1.443256E+0	1.336646E+0	1.322060E+0	1.337239E+0	1.303087E+0	1.414044E+0	1.362672E+0	1.408446E+0	1.356117E+0	1.395586E+0	1.237286E+0
2.852010E+2	1.076393E+0	1.106853E+0	1.084080E+0	1.078509E+0	1.072381E+0	1.056352E+0	1.092963E+0	1.101720E+0	1.089553E+0	1.098404E+0	1.130065E+0	1.086900E+0	1.054312E+0	1.034321E+0	1.083224E+0	1.084006E+0	1.101961E+0	1.061524E+0	1.083819E+0	9.974290E-1	1.095577E+0	1.053283E+0	1.094351E+0	1.014721E+0	1.061492E+0	1.039877E+0	1.020295E+0	1.125495E+0	1.096976E+0	1.041870E+0	1.112666E+0	1.087986E+0	9.649718E-1	1.060859E+0	1.052562E+0	1.107535E+0	1.056899E+0	1.064757E+0	1.067498E+0	1.090964E+0	1.093080E+0	1.020325E+0	1.057588E+0	1.077038E+0	1.046372E+0	1.104386E+0	1.092910E+0	1.098536E+0	1.143871E+0	1.096998E+0	1.032650E+0	1.064697E+0	1.113052E+0	1.117271E+0	1.031097E+0	1.036779E+0	1.107047E+0	1.097940E+0	1.044194E+0	1.029102E+0	1.087970E+0	1.055102E+0	1.046034E+0	1.095991E+0	1.067408E+0	1.054430E+0	1.074124E+0	1.011431E+0	1.026242E+0	1.118375E+0	1.089667E+0	1.092567E+0	1.160400E+0	1.078850E+0	1.087371E+0	1.029480E+0	1.061616E+0	1.070037E+0	1.055923E+0	1.097009E+0	1.029258E+0	1.069237E+0	1.067661E+0	1.078022E+0	1.145460E+0	1.100779E+0	1.142441E+0	9.896007E-1	1.097625E+0	1.044423E+0	1.041296E+0	1.104273E+0	1.075314E+0	1.034051E+0	1.172116E+0	1.140670E+0	1.091578E+0	1.028086E+0	1.117183E+0	9.568512E-1	1.164753E+0	1.036575E+0	1.049494E+0	1.090907E+0	1.068211E+0	1.082917E+0	1.120891E+0	1.060687E+0	1.083056E+0	1.105748E+0	1.106287E+0	1.167617E+0	1.056585E+0	1.086699E+0	1.020569E+0	1.056142E+0	1.099805E+0	1.120506E+0	1.074731E+0	1.107964E+0	1.079842E+0	1.048290E+0	1.065150E+0	1.124091E+0	1.101361E+0	1.106665E+0	1.081196E+0	1.122324E+0	1.098099E+0	1.101407E+0	1.033076E+0	1.080680E+0	1.152404E+0	1.038249E+0	1.102518E+0	1.050626E+0	1.108201E+0	1.134237E+0	1.117434E+0	1.077173E+0	1.113844E+0	1.045947E+0	1.045301E+0	1.106866E+0	1.075066E+0	1.043945E+0	1.104633E+0	1.112289E+0	1.087855E+0	1.067259E+0	1.108931E+0	1.063380E+0	1.104408E+0	1.129152E+0	1.137371E+0	1.061276E+0	1.097542E+0	1.052484E+0	1.133628E+0	1.035677E+0	1.145031E+0	1.073982E+0	1.135550E+0	1.026923E+0	1.121654E+0	1.126544E+0	1.087555E+0	1.117647E+0	1.115603E+0	1.102569E+0	1.120914E+0
2.853000E+2	8.682074E-1	9.476051E-1	8.869268E-1	9.227607E-1	8.782377E-1	9.256263E-1	8.367200E-1	9.399406E-1	8.909804E-1	9.018776E-1	9.045179E-1	8.766077E-1	9.344613E-1	9.236683E-1	9.476047E-1	8.904795E-1	9.090310E-1	9.352103E-1	9.110860E-1	8.706456E-1	8.825896E-1	9.679833E-1	9.377823E-1	8.712317E-1	8.861077E-1	9.394739E-1	9.466060E-1	9.313916E-1	9.263263E-1	8.892888E-1	9.291176E-1	9.251683E-1	8.452634E-1	9.030147E-1	8.820065E-1	9.705446E-1	9.344396E-1	9.103619E-1	9.287534E-1	8.642761E-1	9.418898E-1	9.341954E-1	9.315111E-1	9.613442E-1	9.291202E-1	8.861995E-1	8.985728E-1	9.291620E-1	9.099646E-1	9.671977E-1	8.827093E-1	9.076463E-1	9.056529E-1	8.871035E-1	9.756303E-1	9.092548E-1	9.119138E-1	9.014853E-1	9.553492E-1	8.812950E-1	8.640190E-1	9.044591E-1	9.103281E-1	8.706354E-1	9.328622E-1	9.418362E-1	9.184297E-1	9.633989E-1	9.458776E-1	9.130828E-1	9.822187E-1	8.484954E-1	9.506220E-1	9.409970E-1	9.569924E-1	9.064324E-1	9.150045E-1	8.942073E-1	8.767185E-1	9.257381E-1	8.797720E-1	9.102563E-1	8.825120E-1	9.436450E-1	9.451902E-1	8.616058E-1	9.023056E-1	8.774289E-1	9.214986E-1	9.351951E-1	9.146990E-1	8.746562E-1	9.522816E-1	8.898698E-1	8.424719E-1	8.934481E-1	9.341916E-1	9.785664E-1	9.114555E-1	9.128816E-1	9.020402E-1	9.293358E-1	9.008475E-1	9.184105E-1	8.915906E-1	8.992387E-1	9.483153E-1	9.169748E-1	9.271533E-1	9.294190E-1	8.958248E-1	9.306148E-1	9.193638E-1	8.953505E-1	9.707351E-1	9.655859E-1	9.516230E-1	9.060360E-1	9.386372E-1	9.399523E-1	8.919397E-1	9.117651E-1	9.600534E-1	9.114336E-1	9.191646E-1	9.101555E-1	8.785956E-1	9.020678E-1	9.095972E-1	8.790203E-1	8.818410E-1	9.177040E-1	9.060982E-1	9.064218E-1	8.689058E-1	9.048253E-1	9.437157E-1	9.689285E-1	9.439586E-1	9.747247E-1	9.211121E-1	9.853206E-1	9.185813E-1	8.769527E-1	9.008714E-1	9.659908E-1	9.815856E-1	8.747541E-1	9.027903E-1	9.753326E-1	8.884621E-1	9.115321E-1	9.490740E-1	9.667616E-1	9.587493E-1	8.809366E-1	9.138069E-1	9.406488E-1	9.227502E-1	9.241501E-1	9.052993E-1	9.041674E-1	8.857182E-1	8.776147E-1	9.462387E-1	9.226027E-1	9.194980E-1	9.356865E-1	8.862001E-1	8.533696E-1	8.662825E-1
2.854010E+2	7.168505E-1	7.672022E-1	7.784455E-1	7.455494E-1	7.320234E-1	6.873391E-1	6.954519E-1	7.295333E-1	7.437135E-1	7.393195E-1	7.764498E-1	7.296830E-1	7.373791E-1	7.236600E-1	7.542957E-1	7.917347E-1	7.514039E-1	7.590645E-1	7.263158E-1	7.713619E-1	7.855057E-1	7.242063E-1	7.436748E-1	7.423779E-1	7.620237E-1	7.354074E-1	7.895601E-1	7.468524E-1	7.457050E-1	7.512312E-1	7.283086E-1	7.007426E-1	7.365177E-1	7.063972E-1	7.893359E-1	7.270822E-1	7.583217E-1	7.721448E-1	7.362727E-1	7.287683E-1	7.064777E-1	7.429102E-1	7.091494E-1	7.213701E-1	7.793904E-1	7.249461E-1	8.188637E-1	7.332435E-1	7.406690E-1	7.194774E-1	7.276069E-1	7.170081E-1	7.453456E-1	7.662866E-1	7.807765E-1	7.308559E-1	7.610800E-1	7.681722E-1	8.069637E-1	6.916070E-1	7.768103E-1	7.815819E-1	7.523240E-1	7.342479E-1	7.225619E-1	7.547049E-1	7.531698E-1	7.807109E-1	8.098947E-1	7.569645E-1	8.044265E-1	7.274274E-1	7.503513E-1	7.505053E-1	7.483286E-1	7.127301E-1	7.325023E-1	6.957493E-1	7.676907E-1	7.029277E-1	8.019877E-1	7.671115E-1	7.300818E-1	6.988722E-1	8.121708E-1	7.912174E-1	7.444751E-1	7.282374E-1	7.734083E-1	7.297680E-1	7.241943E-1	7.523308E-1	7.355561E-1	7.164375E-1	7.438051E-1	7.586801E-1	7.874681E-1	7.804162E-1	7.229078E-1	7.525168E-1	7.771627E-1	7.290028E-1	7.190061E-1	7.292567E-1	7.729742E-1	7.379164E-1	7.530961E-1	6.713434E-1	7.983211E-1	7.770346E-1	7.501655E-1	7.762542E-1	8.032817E-1	7.473753E-1	7.494995E-1	7.771348E-1	7.911735E-1	7.492515E-1	7.510303E-1	7.428282E-1	7.385665E-1	8.143963E-1	7.792038E-1	7.568341E-1	7.011864E-1	7.195261E-1	7.371988E-1	7.473369E-1	7.614995E-1	7.523727E-1	7.870736E-1	7.821568E-1	7.245181E-1	7.356253E-1	7.503187E-1	7.458297E-1	8.086581E-1	7.676062E-1	7.556766E-1	7.488636E-1	7.757502E-1	7.456518E-1	7.916199E-1	6.896586E-1	7.677495E-1	7.396009E-1	7.601514E-1	7.651695E-1	7.573137E-1	7.987746E-1	7.728975E-1	7.521790E-1	7.626960E-1	7.522126E-1	7.806010E-1	7.420240E-1	7.205585E-1	7.610888E-1	6.954773E-1	7.512406E-1	7.817140E-1	7.784553E-1	7.989812E-1	7.763696E-1	7.546689E-1	7.556834E-1	7.188413E-1	7.166509E-1	7.272000E-1	7.863359E-1	7.984869E-1
2.855000E+2	5.672173E-1	5.494075E-1	5.421828E-1	6.008056E-1	5.758077E-1	5.906233E-1	5.614074E-1	5.986929E-1	5.650094E-1	5.991880E-1	5.715919E-1	5.874186E-1	6.090900E-1	6.052584E-1	6.224091E-1	5.669346E-1	5.865088E-1	5.528033E-1	5.679996E-1	6.074313E-1	5.935907E-1	5.496906E-1	5.439607E-1	6.002331E-1	6.089314E-1	5.998762E-1	6.153734E-1	5.791020E-1	5.544883E-1	5.892697E-1	6.128322E-1	5.702378E-1	5.495227E-1	6.117759E-1	6.045156E-1	5.540781E-1	5.313485E-1	5.860020E-1	6.154075E-1	5.649753E-1	5.946844E-1	6.074171E-1	5.876324E-1	5.837617E-1	6.232753E-1	5.753024E-1	5.988907E-1	5.901852E-1	5.573778E-1	5.694498E-1	5.795774E-1	5.988743E-1	6.178839E-1	6.086990E-1	5.973933E-1	5.635986E-1	6.214718E-1	5.646450E-1	5.854717E-1	5.749336E-1	5.998274E-1	5.849839E-1	5.472039E-1	5.678528E-1	5.910146E-1	5.663737E-1	6.096074E-1	5.589187E-1	6.079360E-1	5.892531E-1	5.859737E-1	6.164834E-1	5.937828E-1	6.054607E-1	6.054230E-1	5.620945E-1	6.017303E-1	5.992854E-1	5.750173E-1	5.906185E-1	6.184347E-1	5.844263E-1	6.259069E-1	5.691647E-1	5.699464E-1	5.796402E-1	5.503674E-1	5.749960E-1	5.913511E-1	5.920596E-1	6.070625E-1	5.931112E-1	5.899831E-1	5.790659E-1	5.868923E-1	5.417578E-1	6.014138E-1	5.951224E-1	5.893561E-1	5.388122E-1	5.834155E-1	6.188389E-1	5.806428E-1	6.015273E-1	6.205828E-1	6.023471E-1	6.021457E-1	5.992086E-1	5.954182E-1	5.560873E-1	5.999511E-1	6.218804E-1	5.771036E-1	6.143854E-1	5.687073E-1	5.747918E-1	6.484032E-1	6.074952E-1	6.470263E-1	6.138900E-1	5.969770E-1	5.960027E-1	5.872131E-1	5.802363E-1	5.930495E-1	5.462985E-1	5.888772E-1	5.982239E-1	5.938141E-1	6.057895E-1	5.937578E-1	5.981692E-1	6.263321E-1	5.829537E-1	6.212654E-1	5.570990E-1	6.192566E-1	6.254982E-1	5.842754E-1	5.641905E-1	6.029740E-1	6.231648E-1	5.891077E-1	5.408816E-1	6.354190E-1	6.025734E-1	5.849856E-1	5.942089E-1	5.726083E-1	6.167254E-1	5.702526E-1	5.473155E-1	5.818782E-1	6.769235E-1	6.290636E-1	5.726993E-1	6.165586E-1	5.845520E-1	5.945674E-1	5.967525E-1	6.647783E-1	6.055100E-1	6.402368E-1	6.014457E-1	5.896294E-1	5.893338E-1	5.930795E-1	6.180101E-1	6.027852E-1	6.309673E-1	5.041189E-1
2.856010E+2	4.217880E-1	4.284227E-1	4.333862E-1	4.580171E-1	3.987616E-1	4.540725E-1	3.878093E-1	4.739335E-1	4.486129E-1	4.347453E-1	4.199829E-1	4.413245E-1	4.289221E-1	4.161308E-1	4.278811E-1	4.118753E-1	4.434028E-1	4.311596E-1	4.660900E-1	4.453228E-1	4.783246E-1	4.438254E-1	4.487576E-1	4.392248E-1	4.072523E-1	4.202583E-1	4.291386E-1	4.635408E-1	4.018271E-1	4.632181E-1	4.659776E-1	4.471213E-1	4.158854E-1	4.714639E-1	4.548075E-1	4.532269E-1	5.020664E-1	4.381589E-1	4.578283E-1	4.015168E-1	4.202246E-1	4.653787E-1	4.196399E-1	4.453641E-1	4.302530E-1	4.282587E-1	4.659913E-1	4.645988E-1	4.575737E-1	4.621665E-1	4.377336E-1	3.993030E-1	4.500444E-1	4.496166E-1	4.105642E-1	4.570901E-1	4.702633E-1	4.135956E-1	4.352710E-1	4.003801E-1	4.293144E-1	4.138845E-1	4.318518E-1	4.349735E-1	4.187307E-1	4.300190E-1	4.615448E-1	4.051393E-1	4.521459E-1	4.341021E-1	4.674656E-1	4.019470E-1	4.681530E-1	4.333636E-1	4.339111E-1	4.751213E-1	4.274525E-1	4.273728E-1	4.153502E-1	4.557680E-1	3.890463E-1	4.576466E-1	4.421005E-1	4.027144E-1	4.589052E-1	4.099763E-1	4.437083E-1	4.348653E-1	4.587657E-1	4.287165E-1	4.374333E-1	4.374049E-1	4.407878E-1	4.517531E-1	4.608065E-1	4.405656E-1	4.422721E-1	4.443070E-1	4.353491E-1	4.537504E-1	4.550862E-1	4.454163E-1	4.405047E-1	4.136728E-1	4.658283E-1	4.232792E-1	4.551356E-1	4.333974E-1	4.629972E-1	4.559037E-1	4.475585E-1	4.928707E-1	4.300911E-1	4.271601E-1	4.643501E-1	4.531382E-1	4.766321E-1	4.631207E-1	4.794071E-1	4.488794E-1	4.638418E-1	4.905057E-1	5.109975E-1	4.315745E-1	4.660593E-1	4.786340E-1	4.445433E-1	4.545747E-1	4.638052E-1	4.227489E-1	4.468375E-1	4.490375E-1	5.093669E-1	4.354629E-1	4.555742E-1	4.280846E-1	4.648372E-1	4.873106E-1	4.435796E-1	4.541533E-1	4.413201E-1	4.212581E-1	4.433858E-1	4.338423E-1	4.677221E-1	4.168950E-1	4.381499E-1	4.746864E-1	4.583893E-1	4.533734E-1	4.817593E-1	4.513267E-1	4.135150E-1	4.454348E-1	4.389713E-1	4.008379E-1	4.677966E-1	4.507518E-1	4.324174E-1	4.443960E-1	4.606722E-1	4.577089E-1	4.521306E-1	4.647883E-1	4.021520E-1	4.028612E-1	4.496564E-1	4.815357E-1	4.504546E-1	4.597778E-1	4.854899E-1
2.858030E+2	4.801719E-1	4.526252E-1	4.995381E-1	5.254642E-1	5.004231E-1	4.541443E-1	5.180686E-1	5.422882E-1	4.966271E-1	5.022744E-1	5.018392E-1	4.758284E-1	5.075799E-1	4.668904E-1	4.904301E-1	5.041157E-1	5.288711E-1	4.864706E-1	5.162345E-1	5.096742E-1	5.078617E-1	4.976390E-1	4.862506E-1	5.104206E-1	5.084069E-1	5.262858E-1	5.321283E-1	5.225232E-1	5.197448E-1	4.997861E-1	5.108629E-1	5.506306E-1	5.156141E-1	5.385219E-1	4.921726E-1	5.326249E-1	5.153094E-1	5.317986E-1	5.077681E-1	5.001787E-1	4.865843E-1	4.871716E-1	5.470415E-1	5.291904E-1	5.526392E-1	5.072229E-1	4.918176E-1	5.005752E-1	5.443847E-1	5.273686E-1	4.925552E-1	5.025110E-1	5.176873E-1	5.097855E-1	5.063886E-1	5.022641E-1	5.202081E-1	4.807976E-1	5.373105E-1	5.022403E-1	5.459432E-1	5.061128E-1	5.234249E-1	5.403453E-1	5.234980E-1	5.261311E-1	5.037464E-1	4.966806E-1	5.210112E-1	5.281895E-1	5.071789E-1	5.425350E-1	5.251228E-1	4.753831E-1	5.560982E-1	4.915280E-1	5.170212E-1	5.075155E-1	5.160092E-1	4.984852E-1	5.544475E-1	5.030443E-1	4.889267E-1	4.921253E-1	4.957119E-1	4.944839E-1	5.135237E-1	5.007819E-1	5.134277E-1	5.140216E-1	4.925603E-1	5.138235E-1	5.129705E-1	5.216971E-1	5.270389E-1	5.369162E-1	5.569669E-1	5.519587E-1	5.272320E-1	4.565883E-1	5.347644E-1	4.822010E-1	5.297508E-1	4.824778E-1	5.258785E-1	5.210587E-1	5.286353E-1	5.332009E-1	5.285285E-1	5.099545E-1	5.141129E-1	5.143070E-1	5.052946E-1	5.297683E-1	5.171920E-1	5.128972E-1	5.207732E-1	5.202376E-1	5.584670E-1	5.064825E-1	4.884606E-1	5.146534E-1	5.351293E-1	5.511530E-1	5.373450E-1	5.021844E-1	4.722837E-1	5.140220E-1	5.402217E-1	5.506222E-1	5.255700E-1	4.951204E-1	4.472668E-1	5.179393E-1	5.495481E-1	4.957688E-1	4.906902E-1	4.878635E-1	4.951422E-1	5.291396E-1	4.971424E-1	5.050867E-1	5.210387E-1	4.870261E-1	5.372367E-1	5.560857E-1	5.009130E-1	4.597484E-1	4.996527E-1	5.322279E-1	5.024323E-1	5.326373E-1	5.364049E-1	5.325825E-1	5.493496E-1	5.340809E-1	5.338876E-1	5.112144E-1	5.233196E-1	5.226141E-1	5.347045E-1	5.035871E-1	5.625951E-1	5.140932E-1	5.440317E-1	5.015337E-1	5.010728E-1	5.116987E-1	5.428169E-1	5.238756E-1	5.311608E-1
2.860020E+2	8.938020E-1	9.024597E-1	9.009611E-1	9.360139E-1	9.257740E-1	8.782955E-1	9.114814E-1	9.160849E-1	9.074621E-1	9.440107E-1	9.123188E-1	8.566123E-1	9.196234E-1	8.934948E-1	9.093158E-1	8.712111E-1	9.229076E-1	9.081228E-1	8.696881E-1	9.345020E-1	9.169473E-1	9.274730E-1	9.476840E-1	9.138469E-1	9.327083E-1	9.136757E-1	8.816412E-1	9.467786E-1	8.680127E-1	9.616047E-1	9.463167E-1	9.967287E-1	9.642604E-1	9.829985E-1	9.242896E-1	9.191813E-1	9.495130E-1	9.614633E-1	9.478240E-1	8.833782E-1	9.284294E-1	8.994386E-1	9.252042E-1	9.357471E-1	9.885168E-1	9.416419E-1	9.291285E-1	9.292745E-1	9.810666E-1	9.296049E-1	9.712462E-1	9.517496E-1	9.355218E-1	8.690456E-1	9.487876E-1	9.162706E-1	9.634903E-1	9.342916E-1	9.592671E-1	8.782690E-1	9.239899E-1	8.952076E-1	9.420472E-1	9.644538E-1	9.093183E-1	9.122222E-1	9.088292E-1	9.667262E-1	9.502831E-1	9.070531E-1	9.710747E-1	9.193549E-1	9.443282E-1	9.338489E-1	9.239602E-1	8.756880E-1	9.016696E-1	9.554578E-1	9.285045E-1	9.634796E-1	9.295457E-1	9.545395E-1	9.392728E-1	9.447775E-1	9.216502E-1	9.361399E-1	9.118889E-1	8.899562E-1	9.583904E-1	8.896854E-1	9.586429E-1	9.158926E-1	9.133184E-1	9.107364E-1	9.119927E-1	9.268486E-1	9.514717E-1	9.871196E-1	9.207787E-1	9.278728E-1	9.653298E-1	9.326233E-1	9.023178E-1	9.020807E-1	9.601936E-1	9.274460E-1	9.622093E-1	9.119534E-1	9.679080E-1	8.864547E-1	9.022605E-1	9.137645E-1	9.724362E-1	9.088600E-1	9.364136E-1	8.776054E-1	9.664226E-1	9.584110E-1	9.863234E-1	9.290394E-1	8.799151E-1	9.899644E-1	9.547290E-1	9.164814E-1	9.220733E-1	9.686953E-1	9.393121E-1	9.172463E-1	9.197673E-1	9.597128E-1	9.548502E-1	8.880545E-1	9.464877E-1	9.868468E-1	8.857843E-1	9.597467E-1	9.594232E-1	9.530926E-1	8.944715E-1	9.057939E-1	9.258111E-1	9.295961E-1	9.355520E-1	8.935471E-1	8.978443E-1	9.619554E-1	9.722285E-1	9.705364E-1	9.086482E-1	9.818508E-1	9.084068E-1	8.866605E-1	9.074571E-1	9.498186E-1	9.978126E-1	9.833341E-1	9.267467E-1	9.603892E-1	8.813008E-1	9.633917E-1	9.706044E-1	9.000267E-1	8.912890E-1	9.070727E-1	9.536150E-1	9.402029E-1	9.080620E-1	9.356570E-1	9.394334E-1	8.659299E-1	8.402042E-1
2.862050E+2	1.256344E+0	1.237212E+0	1.228020E+0	1.293164E+0	1.320634E+0	1.288532E+0	1.273285E+0	1.327758E+0	1.329692E+0	1.261150E+0	1.345148E+0	1.310213E+0	1.307317E+0	1.212594E+0	1.176339E+0	1.261296E+0	1.316746E+0	1.260056E+0	1.250564E+0	1.282079E+0	1.298382E+0	1.269801E+0	1.271561E+0	1.273499E+0	1.320000E+0	1.290847E+0	1.389492E+0	1.275337E+0	1.307068E+0	1.254723E+0	1.292029E+0	1.317483E+0	1.290832E+0	1.253782E+0	1.347794E+0	1.309538E+0	1.308944E+0	1.331264E+0	1.304771E+0	1.247007E+0	1.359524E+0	1.280667E+0	1.258483E+0	1.265220E+0	1.263334E+0	1.310909E+0	1.342225E+0	1.277737E+0	1.376871E+0	1.285207E+0	1.199895E+0	1.266180E+0	1.295681E+0	1.250793E+0	1.286829E+0	1.254177E+0	1.371415E+0	1.301178E+0	1.369033E+0	1.271844E+0	1.297992E+0	1.256257E+0	1.216230E+0	1.331401E+0	1.302945E+0	1.260915E+0	1.272667E+0	1.254377E+0	1.264236E+0	1.280752E+0	1.332437E+0	1.259389E+0	1.351017E+0	1.249290E+0	1.321252E+0	1.256369E+0	1.282566E+0	1.304075E+0	1.304143E+0	1.233017E+0	1.288769E+0	1.229812E+0	1.285881E+0	1.316332E+0	1.312168E+0	1.273289E+0	1.327638E+0	1.244901E+0	1.323114E+0	1.284762E+0	1.355343E+0	1.298614E+0	1.258258E+0	1.299036E+0	1.329052E+0	1.296092E+0	1.294756E+0	1.336479E+0	1.328744E+0	1.291443E+0	1.282437E+0	1.279135E+0	1.303323E+0	1.241306E+0	1.322243E+0	1.314336E+0	1.257845E+0	1.238094E+0	1.368155E+0	1.297534E+0	1.297456E+0	1.241490E+0	1.301822E+0	1.308341E+0	1.301042E+0	1.305084E+0	1.354099E+0	1.233497E+0	1.288715E+0	1.282874E+0	1.316885E+0	1.335345E+0	1.269899E+0	1.313627E+0	1.348338E+0	1.369279E+0	1.281295E+0	1.271676E+0	1.322637E+0	1.267789E+0	1.310399E+0	1.297126E+0	1.256605E+0	1.272490E+0	1.301697E+0	1.277764E+0	1.317764E+0	1.313928E+0	1.273510E+0	1.256563E+0	1.326392E+0	1.278074E+0	1.266818E+0	1.230530E+0	1.309795E+0	1.312904E+0	1.254401E+0	1.259665E+0	1.277353E+0	1.335079E+0	1.267805E+0	1.279488E+0	1.338092E+0	1.360218E+0	1.238400E+0	1.307622E+0	1.283831E+0	1.315689E+0	1.269674E+0	1.328992E+0	1.392616E+0	1.298166E+0	1.342567E+0	1.240693E+0	1.309032E+0	1.305708E+0	1.266770E+0	1.277829E+0	1.256345E+0	1.300905E+0	1.348909E+0
2.864160E+2	1.209299E+0	1.249907E+0	1.166048E+0	1.262571E+0	1.177209E+0	1.166304E+0	1.232912E+0	1.184353E+0	1.254209E+0	1.245437E+0	1.224554E+0	1.247730E+0	1.263180E+0	1.205665E+0	1.212846E+0	1.197087E+0	1.225172E+0	1.166894E+0	1.214627E+0	1.202809E+0	1.241820E+0	1.271486E+0	1.216601E+0	1.130842E+0	1.132065E+0	1.233474E+0	1.187560E+0	1.161245E+0	1.149106E+0	1.154545E+0	1.173840E+0	1.149420E+0	1.207980E+0	1.146229E+0	1.168711E+0	1.171539E+0	1.215351E+0	1.218867E+0	1.157956E+0	1.135030E+0	1.162162E+0	1.137042E+0	1.175684E+0	1.168987E+0	1.152624E+0	1.196354E+0	1.245819E+0	1.255163E+0	1.218078E+0	1.119436E+0	1.181425E+0	1.165722E+0	1.179123E+0	1.163831E+0	1.239353E+0	1.244484E+0	1.208692E+0	1.221944E+0	1.276639E+0	1.186748E+0	1.241463E+0	1.139887E+0	1.231463E+0	1.138197E+0	1.109476E+0	1.205051E+0	1.207082E+0	1.197886E+0	1.208783E+0	1.173933E+0	1.212851E+0	1.208669E+0	1.252961E+0	1.190561E+0	1.208408E+0	1.116060E+0	1.179516E+0	1.250159E+0	1.222139E+0	1.166695E+0	1.200359E+0	1.183048E+0	1.196640E+0	1.136920E+0	1.181772E+0	1.226540E+0	1.174273E+0	1.168755E+0	1.224668E+0	1.224283E+0	1.215222E+0	1.194933E+0	1.236571E+0	1.161878E+0	1.199855E+0	1.201832E+0	1.180346E+0	1.192900E+0	1.167002E+0	1.242850E+0	1.241870E+0	1.190377E+0	1.192523E+0	1.189349E+0	1.185356E+0	1.184253E+0	1.266820E+0	1.164692E+0	1.233861E+0	1.142587E+0	1.212221E+0	1.230773E+0	1.237772E+0	1.207572E+0	1.160259E+0	1.203208E+0	1.263145E+0	1.173293E+0	1.240037E+0	1.203757E+0	1.246366E+0	1.223363E+0	1.209810E+0	1.227597E+0	1.217196E+0	1.169584E+0	1.198665E+0	1.151529E+0	1.210250E+0	1.190828E+0	1.170497E+0	1.177316E+0	1.194678E+0	1.211124E+0	1.211016E+0	1.183630E+0	1.222201E+0	1.245417E+0	1.257077E+0	1.237162E+0	1.166922E+0	1.227719E+0	1.178562E+0	1.146432E+0	1.188565E+0	1.178817E+0	1.167279E+0	1.231945E+0	1.215815E+0	1.205000E+0	1.238867E+0	1.191461E+0	1.222582E+0	1.234609E+0	1.244729E+0	1.185779E+0	1.160775E+0	1.253247E+0	1.177453E+0	1.164109E+0	1.273633E+0	1.229348E+0	1.255778E+0	1.195799E+0	1.232049E+0	1.213257E+0	1.199270E+0	1.273566E+0	1.240126E+0	1.159186E+0	1.228549E+0
2.866130E+2	1.084606E+0	1.198320E+0	1.186304E+0	1.188916E+0	1.171000E+0	1.148330E+0	1.240892E+0	1.202691E+0	1.149741E+0	1.162995E+0	1.235431E+0	1.228501E+0	1.225506E+0	1.113704E+0	1.165577E+0	1.168758E+0	1.207719E+0	1.100430E+0	1.156604E+0	1.116215E+0	1.141380E+0	1.213885E+0	1.189253E+0	1.195055E+0	1.237388E+0	1.172266E+0	1.167152E+0	1.186142E+0	1.156382E+0	1.156231E+0	1.137343E+0	1.103127E+0	1.125836E+0	1.165488E+0	1.152490E+0	1.164472E+0	1.144885E+0	1.164656E+0	1.166586E+0	1.176530E+0	1.127459E+0	1.174941E+0	1.192844E+0	1.207926E+0	1.254168E+0	1.150551E+0	1.191684E+0	1.203514E+0	1.164824E+0	1.168894E+0	1.158214E+0	1.142256E+0	1.245043E+0	1.219055E+0	1.225577E+0	1.127216E+0	1.224247E+0	1.179567E+0	1.164931E+0	1.189356E+0	1.127943E+0	1.164108E+0	1.200738E+0	1.149484E+0	1.174804E+0	1.162455E+0	1.183725E+0	1.144991E+0	1.190486E+0	1.181691E+0	1.171202E+0	1.143013E+0	1.273892E+0	1.195144E+0	1.195869E+0	1.181280E+0	1.181876E+0	1.175321E+0	1.197081E+0	1.178532E+0	1.155077E+0	1.190788E+0	1.169891E+0	1.170075E+0	1.239101E+0	1.167482E+0	1.210470E+0	1.158439E+0	1.168931E+0	1.140265E+0	1.131437E+0	1.207006E+0	1.183616E+0	1.148941E+0	1.205914E+0	1.172879E+0	1.208571E+0	1.194934E+0	1.139831E+0	1.216755E+0	1.247038E+0	1.120913E+0	1.127629E+0	1.166824E+0	1.194149E+0	1.122644E+0	1.159618E+0	1.122962E+0	1.179283E+0	1.169351E+0	1.168603E+0	1.210190E+0	1.211069E+0	1.126062E+0	1.125734E+0	1.161632E+0	1.255574E+0	1.119728E+0	1.180249E+0	1.169419E+0	1.164612E+0	1.160222E+0	1.179481E+0	1.145356E+0	1.164576E+0	1.189898E+0	1.174101E+0	1.166750E+0	1.240565E+0	1.134886E+0	1.192155E+0	1.219067E+0	1.173098E+0	1.214294E+0	1.219963E+0	1.162055E+0	1.227287E+0	1.203996E+0	1.172426E+0	1.215661E+0	1.150718E+0	1.187389E+0	1.153095E+0	1.141653E+0	1.165800E+0	1.159137E+0	1.226628E+0	1.188730E+0	1.186641E+0	1.155826E+0	1.156193E+0	1.153596E+0	1.164469E+0	1.181466E+0	1.133695E+0	1.147485E+0	1.178167E+0	1.213566E+0	1.159960E+0	1.131943E+0	1.192397E+0	1.190365E+0	1.214831E+0	1.149844E+0	1.198828E+0	1.229839E+0	1.151019E+0	1.263853E+0	1.199429E+0	1.198980E+0	1.113839E+0
2.868020E+2	1.439347E+0	1.471889E+0	1.432983E+0	1.489003E+0	1.451128E+0	1.453924E+0	1.463206E+0	1.496304E+0	1.485034E+0	1.450178E+0	1.463387E+0	1.475877E+0	1.477667E+0	1.424458E+0	1.486734E+0	1.402241E+0	1.505201E+0	1.426404E+0	1.459710E+0	1.443029E+0	1.497193E+0	1.518129E+0	1.403663E+0	1.458772E+0	1.383996E+0	1.378433E+0	1.368024E+0	1.469073E+0	1.432253E+0	1.490566E+0	1.423036E+0	1.423366E+0	1.460189E+0	1.529017E+0	1.429351E+0	1.480610E+0	1.406621E+0	1.426241E+0	1.474826E+0	1.410323E+0	1.412450E+0	1.419305E+0	1.440501E+0	1.431124E+0	1.522227E+0	1.439332E+0	1.463640E+0	1.500552E+0	1.517928E+0	1.404077E+0	1.445274E+0	1.414528E+0	1.466287E+0	1.441089E+0	1.423596E+0	1.377207E+0	1.432238E+0	1.469313E+0	1.471871E+0	1.369055E+0	1.418251E+0	1.430244E+0	1.498588E+0	1.401669E+0	1.511595E+0	1.394285E+0	1.374421E+0	1.417516E+0	1.483439E+0	1.452343E+0	1.410363E+0	1.420676E+0	1.482730E+0	1.427152E+0	1.430157E+0	1.453209E+0	1.447741E+0	1.443620E+0	1.431012E+0	1.469945E+0	1.448041E+0	1.490462E+0	1.459935E+0	1.357535E+0	1.419567E+0	1.417203E+0	1.509021E+0	1.408283E+0	1.463939E+0	1.367870E+0	1.378139E+0	1.460184E+0	1.399416E+0	1.470574E+0	1.438995E+0	1.453920E+0	1.494404E+0	1.488657E+0	1.356624E+0	1.411149E+0	1.477886E+0	1.421263E+0	1.459136E+0	1.442298E+0	1.512260E+0	1.452112E+0	1.460943E+0	1.431538E+0	1.380214E+0	1.408113E+0	1.515054E+0	1.476917E+0	1.386103E+0	1.473285E+0	1.456622E+0	1.480492E+0	1.501351E+0	1.457123E+0	1.497968E+0	1.427043E+0	1.480563E+0	1.465756E+0	1.429978E+0	1.396223E+0	1.468258E+0	1.482252E+0	1.416725E+0	1.450727E+0	1.397660E+0	1.453294E+0	1.498327E+0	1.467807E+0	1.454975E+0	1.452012E+0	1.411529E+0	1.392578E+0	1.490829E+0	1.452449E+0	1.484598E+0	1.426272E+0	1.409337E+0	1.419746E+0	1.435627E+0	1.374843E+0	1.493581E+0	1.443957E+0	1.463782E+0	1.512565E+0	1.437910E+0	1.513870E+0	1.469009E+0	1.433906E+0	1.508316E+0	1.566879E+0	1.557761E+0	1.468898E+0	1.460895E+0	1.459051E+0	1.387818E+0	1.451898E+0	1.488454E+0	1.451179E+0	1.511969E+0	1.495306E+0	1.514036E+0	1.469425E+0	1.424164E+0	1.488491E+0	1.467736E+0	1.573177E+0	1.485118E+0
2.870070E+2	1.381440E+0	1.414509E+0	1.342390E+0	1.457817E+0	1.347688E+0	1.453871E+0	1.438638E+0	1.404428E+0	1.375214E+0	1.350273E+0	1.362256E+0	1.317001E+0	1.358806E+0	1.383816E+0	1.443142E+0	1.360051E+0	1.355337E+0	1.432272E+0	1.356145E+0	1.390933E+0	1.348992E+0	1.394979E+0	1.311743E+0	1.382223E+0	1.244943E+0	1.314643E+0	1.399087E+0	1.281906E+0	1.384408E+0	1.343294E+0	1.375813E+0	1.309793E+0	1.321757E+0	1.407346E+0	1.321567E+0	1.401261E+0	1.351621E+0	1.396673E+0	1.361733E+0	1.267675E+0	1.345199E+0	1.379192E+0	1.318598E+0	1.376649E+0	1.386855E+0	1.376535E+0	1.308770E+0	1.390738E+0	1.338354E+0	1.333823E+0	1.340092E+0	1.322609E+0	1.379148E+0	1.322047E+0	1.417410E+0	1.368923E+0	1.381106E+0	1.335400E+0	1.397303E+0	1.255951E+0	1.389843E+0	1.292187E+0	1.369970E+0	1.292952E+0	1.348518E+0	1.359331E+0	1.325223E+0	1.388156E+0	1.361674E+0	1.359980E+0	1.383801E+0	1.330563E+0	1.365739E+0	1.303992E+0	1.339616E+0	1.337209E+0	1.350593E+0	1.344343E+0	1.410574E+0	1.337507E+0	1.279084E+0	1.363405E+0	1.367346E+0	1.288304E+0	1.418984E+0	1.354658E+0	1.335167E+0	1.305038E+0	1.353563E+0	1.342841E+0	1.387298E+0	1.353348E+0	1.354595E+0	1.357593E+0	1.404977E+0	1.368352E+0	1.387755E+0	1.334346E+0	1.367472E+0	1.283988E+0	1.346672E+0	1.295067E+0	1.387280E+0	1.333695E+0	1.330612E+0	1.355569E+0	1.365519E+0	1.345598E+0	1.410151E+0	1.386287E+0	1.373546E+0	1.379056E+0	1.418180E+0	1.392865E+0	1.331552E+0	1.358310E+0	1.428126E+0	1.332934E+0	1.418846E+0	1.371723E+0	1.341664E+0	1.377375E+0	1.405889E+0	1.362544E+0	1.390412E+0	1.394149E+0	1.364457E+0	1.395297E+0	1.440184E+0	1.374595E+0	1.323385E+0	1.344901E+0	1.338856E+0	1.375603E+0	1.390844E+0	1.319705E+0	1.381841E+0	1.410486E+0	1.399808E+0	1.357427E+0	1.374794E+0	1.317801E+0	1.324477E+0	1.338751E+0	1.315019E+0	1.375928E+0	1.399688E+0	1.363531E+0	1.317956E+0	1.374946E+0	1.368390E+0	1.287378E+0	1.372476E+0	1.381063E+0	1.372266E+0	1.378036E+0	1.334364E+0	1.386221E+0	1.365917E+0	1.370191E+0	1.409260E+0	1.389422E+0	1.393024E+0	1.369183E+0	1.403320E+0	1.412913E+0	1.310233E+0	1.399371E+0	1.361825E+0	1.421119E+0	1.353128E+0
2.872120E+2	1.046749E+0	1.068690E+0	1.038537E+0	1.039221E+0	1.049316E+0	1.057659E+0	1.070083E+0	1.052383E+0	1.059867E+0	1.034062E+0	1.067690E+0	1.096011E+0	1.070821E+0	1.003226E+0	1.057932E+0	1.075982E+0	1.076856E+0	1.065274E+0	1.046540E+0	9.653397E-1	1.074630E+0	1.054461E+0	1.069850E+0	1.020912E+0	1.057032E+0	1.071952E+0	1.041978E+0	1.038700E+0	1.007953E+0	9.763019E-1	1.029560E+0	1.006993E+0	1.067108E+0	1.016102E+0	1.023477E+0	1.049254E+0	1.065901E+0	1.138904E+0	1.072567E+0	1.048719E+0	1.083837E+0	1.066163E+0	1.061406E+0	1.007427E+0	1.031270E+0	1.047192E+0	1.123858E+0	1.029948E+0	1.066391E+0	9.854735E-1	1.029439E+0	1.023766E+0	1.052768E+0	1.079918E+0	1.027709E+0	1.024292E+0	1.014506E+0	1.043331E+0	1.058288E+0	1.009337E+0	1.071032E+0	1.090723E+0	1.043636E+0	1.012680E+0	1.048146E+0	1.090202E+0	1.017006E+0	1.011763E+0	1.024297E+0	1.061895E+0	1.076437E+0	1.001703E+0	1.026431E+0	1.040052E+0	1.074265E+0	1.052469E+0	1.061350E+0	1.036439E+0	1.074967E+0	1.094986E+0	1.076551E+0	1.103011E+0	1.044542E+0	1.024421E+0	1.059024E+0	1.031437E+0	1.088459E+0	1.007514E+0	1.050313E+0	1.080494E+0	9.988666E-1	1.003084E+0	1.054890E+0	1.025028E+0	1.072679E+0	1.125625E+0	1.062878E+0	1.077926E+0	1.062550E+0	1.001334E+0	1.031062E+0	1.032751E+0	1.047286E+0	1.069152E+0	1.053425E+0	1.037828E+0	1.094580E+0	1.050884E+0	1.067021E+0	1.074639E+0	1.050351E+0	1.010051E+0	1.088636E+0	1.026813E+0	1.039498E+0	1.027038E+0	1.065110E+0	1.078593E+0	1.045341E+0	1.036272E+0	1.077963E+0	1.076772E+0	1.056505E+0	1.046169E+0	1.083581E+0	1.080599E+0	1.085569E+0	1.019196E+0	1.035669E+0	1.080250E+0	1.086051E+0	1.067340E+0	1.038462E+0	1.050426E+0	1.112394E+0	1.036351E+0	1.024100E+0	1.028972E+0	1.081963E+0	1.040035E+0	1.055385E+0	1.112373E+0	1.065331E+0	1.038530E+0	1.074232E+0	1.080502E+0	1.038127E+0	1.036177E+0	1.028395E+0	1.080988E+0	1.040579E+0	1.049214E+0	1.056871E+0	1.060827E+0	1.074891E+0	1.001323E+0	1.045311E+0	1.101775E+0	1.093649E+0	1.040813E+0	1.130489E+0	1.089050E+0	1.119125E+0	1.057154E+0	1.098667E+0	1.078878E+0	1.083917E+0	1.099040E+0	1.118336E+0	9.500011E-1	1.072007E+0
2.874030E+2	8.897773E-1	9.447879E-1	8.911034E-1	9.261073E-1	9.712877E-1	9.663751E-1	9.698291E-1	8.939507E-1	9.779813E-1	9.156964E-1	9.128607E-1	9.296381E-1	1.005167E+0	8.855511E-1	8.900377E-1	8.883210E-1	9.262890E-1	9.029060E-1	9.213542E-1	9.092661E-1	9.491741E-1	9.299301E-1	9.612659E-1	9.189975E-1	9.264342E-1	9.313154E-1	9.646713E-1	9.343165E-1	8.678886E-1	9.122387E-1	9.388651E-1	9.386814E-1	8.990656E-1	9.778353E-1	8.936046E-1	9.175819E-1	8.944849E-1	9.421425E-1	9.646587E-1	9.000233E-1	9.452784E-1	9.129983E-1	9.523876E-1	9.515557E-1	9.152256E-1	9.254403E-1	9.588011E-1	9.569889E-1	9.337862E-1	9.677028E-1	9.005331E-1	9.220115E-1	9.707633E-1	9.442631E-1	9.299618E-1	9.049235E-1	9.366853E-1	9.673021E-1	1.000390E+0	9.096018E-1	9.496756E-1	9.034578E-1	9.209773E-1	9.401227E-1	9.308200E-1	9.533275E-1	9.576588E-1	8.863388E-1	9.489422E-1	1.001137E+0	1.000034E+0	9.172254E-1	9.600171E-1	9.763953E-1	8.975401E-1	9.452433E-1	9.378284E-1	9.252950E-1	9.385996E-1	9.435534E-1	9.205849E-1	9.759899E-1	9.661303E-1	9.532288E-1	9.204772E-1	9.173826E-1	9.549319E-1	9.175841E-1	9.458602E-1	9.382879E-1	1.015153E+0	9.485095E-1	9.218430E-1	9.584637E-1	9.305057E-1	9.618542E-1	9.459391E-1	9.865869E-1	8.949093E-1	9.030882E-1	9.716288E-1	9.541546E-1	9.024840E-1	9.247474E-1	9.574760E-1	9.302749E-1	9.910817E-1	9.609607E-1	9.374422E-1	9.041096E-1	9.599284E-1	1.001021E+0	9.506648E-1	9.469442E-1	9.542671E-1	9.502021E-1	9.926709E-1	9.768791E-1	9.405012E-1	9.085594E-1	9.687692E-1	9.262571E-1	9.866217E-1	9.835573E-1	9.759664E-1	9.073816E-1	9.364443E-1	9.404684E-1	9.820274E-1	8.942574E-1	9.683422E-1	9.163561E-1	9.712178E-1	9.462265E-1	9.408485E-1	9.388113E-1	9.531972E-1	1.005303E+0	9.654474E-1	8.896629E-1	9.930219E-1	9.450986E-1	9.690850E-1	9.560584E-1	9.738135E-1	9.070668E-1	9.250411E-1	8.580288E-1	9.515678E-1	9.595811E-1	9.006459E-1	9.808056E-1	9.008409E-1	1.007514E+0	9.962936E-1	9.428889E-1	9.817132E-1	9.547751E-1	9.657437E-1	9.555643E-1	9.244013E-1	9.175117E-1	9.185868E-1	9.169411E-1	1.003008E+0	9.887984E-1	9.366960E-1	9.848285E-1	9.385147E-1	9.454838E-1	9.209673E-1
2.876210E+2	8.303056E-1	8.656044E-1	8.517167E-1	8.402813E-1	7.849033E-1	8.597797E-1	8.610541E-1	8.443532E-1	8.432571E-1	8.093077E-1	8.718479E-1	8.818766E-1	8.112645E-1	8.609567E-1	8.445685E-1	7.878924E-1	8.280041E-1	8.256242E-1	8.180742E-1	7.910629E-1	8.380262E-1	8.450687E-1	8.949924E-1	8.593674E-1	8.452788E-1	8.883358E-1	8.307127E-1	8.498004E-1	8.087505E-1	8.276335E-1	8.375682E-1	8.253239E-1	7.746068E-1	7.975782E-1	8.090879E-1	8.481865E-1	7.994059E-1	8.946020E-1	8.450623E-1	7.858254E-1	8.143384E-1	8.285886E-1	8.450642E-1	8.481218E-1	8.728323E-1	8.138024E-1	8.686604E-1	8.405059E-1	8.367707E-1	8.116082E-1	8.466974E-1	8.999118E-1	7.919690E-1	7.941186E-1	8.320683E-1	8.752470E-1	8.247424E-1	8.650669E-1	8.248310E-1	8.596301E-1	8.383393E-1	8.555065E-1	8.339234E-1	8.533503E-1	8.543475E-1	8.449980E-1	8.302088E-1	8.242885E-1	8.250691E-1	8.394621E-1	8.016408E-1	8.911420E-1	8.319707E-1	8.752410E-1	8.515436E-1	7.748996E-1	8.839205E-1	8.936046E-1	8.387832E-1	8.271953E-1	9.164327E-1	8.305478E-1	8.629034E-1	8.331646E-1	8.309569E-1	8.897676E-1	8.331852E-1	7.786742E-1	8.209639E-1	8.644257E-1	8.508322E-1	8.251915E-1	8.421576E-1	8.270629E-1	8.042134E-1	8.343351E-1	8.674963E-1	8.840607E-1	8.782549E-1	8.031679E-1	8.435821E-1	8.463306E-1	8.665116E-1	8.496392E-1	8.504511E-1	8.652960E-1	7.919768E-1	8.490710E-1	8.471678E-1	8.662996E-1	8.989569E-1	8.617712E-1	8.680411E-1	8.141572E-1	8.494400E-1	8.616676E-1	8.492950E-1	8.796596E-1	8.658803E-1	8.460499E-1	8.105673E-1	8.934594E-1	8.317041E-1	8.356079E-1	8.228988E-1	8.355429E-1	8.509821E-1	8.553890E-1	8.516297E-1	8.803471E-1	8.063608E-1	8.488839E-1	8.420623E-1	8.374999E-1	8.888408E-1	8.191973E-1	8.615011E-1	8.914076E-1	8.738431E-1	8.564071E-1	8.628757E-1	8.141498E-1	8.110388E-1	8.060985E-1	8.658469E-1	8.597124E-1	8.442630E-1	8.500061E-1	8.236997E-1	8.547870E-1	8.080370E-1	8.562402E-1	8.456263E-1	8.772845E-1	8.435048E-1	8.410349E-1	7.805116E-1	8.616121E-1	7.768954E-1	8.511164E-1	8.371555E-1	8.462113E-1	8.260051E-1	8.251233E-1	8.194864E-1	8.661649E-1	8.260194E-1	8.336032E-1	8.901687E-1	8.782065E-1	8.707658E-1
2.878020E+2	7.467052E-1	7.071050E-1	7.398886E-1	7.448683E-1	7.084865E-1	7.446320E-1	7.607360E-1	7.640590E-1	7.413926E-1	7.595971E-1	7.761195E-1	7.779159E-1	7.537628E-1	7.237135E-1	7.356004E-1	7.592811E-1	7.719251E-1	7.563903E-1	7.596724E-1	7.195348E-1	7.651974E-1	7.716971E-1	7.119667E-1	7.853732E-1	7.346420E-1	7.473300E-1	8.163351E-1	7.584627E-1	7.535889E-1	7.613577E-1	7.488002E-1	7.420498E-1	7.927569E-1	7.542152E-1	7.458722E-1	7.600097E-1	7.309480E-1	7.805321E-1	7.510803E-1	7.050811E-1	7.038863E-1	7.624345E-1	7.760195E-1	7.348916E-1	7.543724E-1	7.542585E-1	8.074146E-1	7.636891E-1	8.392380E-1	7.430089E-1	7.435915E-1	7.455093E-1	7.850953E-1	7.427477E-1	7.372869E-1	7.199541E-1	7.551527E-1	7.763238E-1	7.605090E-1	7.242137E-1	7.432436E-1	7.641390E-1	7.310528E-1	8.191694E-1	7.960454E-1	7.971116E-1	7.842403E-1	7.629608E-1	7.361861E-1	8.008107E-1	7.969005E-1	7.628701E-1	7.597496E-1	7.691723E-1	7.555356E-1	7.411411E-1	7.449792E-1	7.591687E-1	7.327305E-1	7.454187E-1	7.782301E-1	7.813236E-1	7.810137E-1	7.999699E-1	7.474129E-1	7.954013E-1	7.610045E-1	7.361227E-1	7.138271E-1	7.179585E-1	7.156048E-1	7.434452E-1	7.665471E-1	7.954988E-1	7.661988E-1	7.277955E-1	7.617512E-1	7.566009E-1	7.834176E-1	7.416975E-1	7.722302E-1	7.846977E-1	7.521446E-1	7.621880E-1	7.796840E-1	7.701447E-1	8.390819E-1	7.690812E-1	7.807727E-1	7.258728E-1	7.623980E-1	7.775075E-1	7.800357E-1	7.331114E-1	7.602193E-1	7.552548E-1	7.638484E-1	7.684222E-1	7.819303E-1	7.233718E-1	7.482275E-1	8.089042E-1	7.661590E-1	7.331257E-1	7.743935E-1	7.374720E-1	7.621424E-1	7.231057E-1	7.426580E-1	7.874865E-1	7.347187E-1	7.368950E-1	7.578549E-1	8.050862E-1	7.944686E-1	7.779438E-1	7.514542E-1	7.881417E-1	7.646249E-1	7.267030E-1	7.736119E-1	7.604363E-1	7.626613E-1	7.884688E-1	7.589363E-1	7.661084E-1	7.076644E-1	7.117399E-1	7.714751E-1	8.317805E-1	7.295778E-1	7.791321E-1	7.595045E-1	8.001148E-1	7.694296E-1	7.347927E-1	7.514094E-1	7.667196E-1	7.561791E-1	7.947604E-1	7.931107E-1	7.845136E-1	7.747478E-1	7.598292E-1	7.861727E-1	8.146140E-1	7.643186E-1	7.543591E-1	7.848802E-1	7.926107E-1	8.070411E-1
2.880020E+2	6.848731E-1	6.845198E-1	6.871868E-1	6.641940E-1	7.057277E-1	6.962754E-1	6.866999E-1	6.666872E-1	6.940978E-1	6.925373E-1	6.674521E-1	6.451588E-1	6.485674E-1	6.942396E-1	7.197332E-1	6.667675E-1	7.054740E-1	6.927704E-1	6.906016E-1	6.177188E-1	6.660008E-1	6.765446E-1	6.582745E-1	6.904580E-1	6.960205E-1	7.150165E-1	7.132485E-1	7.174557E-1	7.162962E-1	6.862735E-1	7.138927E-1	6.930605E-1	6.913939E-1	7.025589E-1	7.163023E-1	7.155084E-1	6.653397E-1	7.184539E-1	6.860780E-1	6.999363E-1	6.711803E-1	7.174449E-1	6.757322E-1	7.533515E-1	6.839830E-1	6.620452E-1	6.848404E-1	6.824061E-1	6.611491E-1	6.571700E-1	6.296931E-1	7.198944E-1	6.710138E-1	6.611443E-1	6.873811E-1	6.657330E-1	6.719613E-1	7.261788E-1	6.688508E-1	6.701495E-1	6.647430E-1	6.827920E-1	7.167339E-1	6.416334E-1	6.940958E-1	6.918957E-1	6.717699E-1	7.147482E-1	7.106038E-1	7.008415E-1	6.847991E-1	6.627331E-1	6.557546E-1	6.930536E-1	6.681111E-1	7.125021E-1	6.929155E-1	7.165682E-1	6.862023E-1	6.583276E-1	7.204638E-1	6.643775E-1	6.846425E-1	6.783297E-1	6.752549E-1	7.034972E-1	7.039113E-1	6.894353E-1	6.833020E-1	6.632829E-1	7.063253E-1	6.804801E-1	6.822111E-1	7.148917E-1	6.675435E-1	6.552405E-1	6.806255E-1	6.881900E-1	6.673926E-1	6.636805E-1	7.009747E-1	7.305331E-1	6.938996E-1	6.860284E-1	7.160728E-1	6.946253E-1	7.123241E-1	6.776958E-1	7.179473E-1	6.910573E-1	7.127718E-1	7.172719E-1	6.801113E-1	7.301456E-1	6.847880E-1	6.751638E-1	6.913102E-1	6.881239E-1	6.943254E-1	6.727975E-1	6.790659E-1	7.055420E-1	7.081655E-1	6.710938E-1	7.099129E-1	6.597156E-1	6.447369E-1	7.008472E-1	7.289615E-1	6.642838E-1	7.080015E-1	7.297676E-1	6.570467E-1	7.240094E-1	7.038666E-1	6.922107E-1	7.016259E-1	7.063181E-1	7.317301E-1	7.043171E-1	6.982245E-1	7.371928E-1	7.237623E-1	6.980815E-1	7.347384E-1	7.355156E-1	6.859272E-1	6.947743E-1	7.117355E-1	7.027033E-1	6.696624E-1	6.954346E-1	7.287927E-1	7.313547E-1	7.064883E-1	6.775048E-1	6.843488E-1	6.743345E-1	6.288105E-1	7.074318E-1	7.063377E-1	6.350645E-1	7.103908E-1	6.445577E-1	7.058906E-1	6.821522E-1	7.167453E-1	6.448844E-1	6.622750E-1	6.931553E-1	6.740591E-1
2.882230E+2	6.912838E-1	7.212312E-1	6.845543E-1	6.737708E-1	6.983791E-1	6.920514E-1	6.789641E-1	7.295506E-1	6.881136E-1	6.766303E-1	6.743687E-1	7.077336E-1	7.245379E-1	6.979076E-1	7.544319E-1	7.275152E-1	6.819819E-1	6.986044E-1	6.887943E-1	6.523834E-1	6.899184E-1	7.255748E-1	7.532758E-1	7.338992E-1	7.145942E-1	7.029455E-1	7.045209E-1	7.067255E-1	7.503878E-1	7.545589E-1	7.344773E-1	7.561157E-1	6.973779E-1	7.186613E-1	7.339457E-1	7.498601E-1	6.887185E-1	7.320707E-1	7.143249E-1	7.199529E-1	6.976102E-1	7.357366E-1	7.324501E-1	7.268765E-1	7.489612E-1	7.325852E-1	7.687246E-1	7.217823E-1	7.434978E-1	7.146325E-1	7.291855E-1	7.253261E-1	7.561432E-1	7.421410E-1	7.336175E-1	7.351652E-1	7.329039E-1	7.343800E-1	7.709214E-1	6.915366E-1	7.496347E-1	7.101732E-1	7.310998E-1	6.796867E-1	7.581359E-1	7.599410E-1	7.754327E-1	7.113950E-1	6.843470E-1	7.253589E-1	7.365836E-1	6.872292E-1	7.410532E-1	7.138725E-1	6.649484E-1	7.304484E-1	7.368801E-1	7.139456E-1	7.180822E-1	7.291540E-1	7.186544E-1	7.521724E-1	6.913642E-1	6.993223E-1	7.038578E-1	7.564059E-1	7.340008E-1	7.083151E-1	6.901647E-1	6.895775E-1	6.942999E-1	6.958327E-1	7.138823E-1	7.001706E-1	7.118786E-1	7.250746E-1	7.455213E-1	7.325572E-1	7.458442E-1	7.183046E-1	7.181339E-1	7.387374E-1	6.776597E-1	7.191995E-1	7.614819E-1	7.298533E-1	7.901254E-1	6.787301E-1	7.111146E-1	7.740234E-1	7.131441E-1	6.763883E-1	7.232103E-1	7.598981E-1	7.349568E-1	6.869999E-1	7.431375E-1	7.574844E-1	7.456055E-1	7.858961E-1	7.473809E-1	7.338426E-1	7.355805E-1	7.015131E-1	7.518940E-1	7.487897E-1	7.659070E-1	6.922653E-1	7.191035E-1	7.277451E-1	6.888961E-1	7.145694E-1	7.423929E-1	7.213803E-1	7.429239E-1	7.248215E-1	7.528082E-1	7.103555E-1	7.816865E-1	7.330141E-1	7.076843E-1	7.436542E-1	7.254897E-1	6.948038E-1	7.099596E-1	7.250194E-1	7.268524E-1	7.069471E-1	7.024352E-1	7.337690E-1	7.330332E-1	6.852733E-1	7.053546E-1	7.380504E-1	7.436979E-1	7.241990E-1	7.445833E-1	7.361073E-1	7.093951E-1	6.970822E-1	7.566107E-1	7.423160E-1	7.378379E-1	7.175553E-1	7.776188E-1	7.599253E-1	6.884565E-1	7.604024E-1	6.887525E-1	7.590223E-1	7.089334E-1
2.884130E+2	9.373674E-1	9.891918E-1	9.122018E-1	9.930197E-1	9.484614E-1	9.153249E-1	9.002438E-1	9.093753E-1	9.483693E-1	9.558100E-1	9.867371E-1	9.229382E-1	9.422832E-1	9.626217E-1	9.194935E-1	9.653381E-1	9.600858E-1	9.731840E-1	9.386113E-1	9.322474E-1	9.323633E-1	9.369914E-1	1.034252E+0	1.003457E+0	9.412762E-1	9.744425E-1	9.654002E-1	9.455343E-1	9.237119E-1	9.617585E-1	9.521860E-1	9.274649E-1	9.621411E-1	9.587293E-1	9.550956E-1	9.957263E-1	9.718144E-1	9.700707E-1	9.502865E-1	9.431629E-1	9.232969E-1	9.954597E-1	9.818525E-1	9.751940E-1	9.639669E-1	9.773637E-1	9.736808E-1	9.822045E-1	9.258169E-1	9.538763E-1	9.782050E-1	9.450006E-1	9.510634E-1	9.436466E-1	1.012838E+0	9.408802E-1	9.663517E-1	9.780923E-1	9.303153E-1	9.118386E-1	9.575539E-1	9.618380E-1	9.750927E-1	9.649795E-1	9.165848E-1	9.620399E-1	9.995806E-1	9.819513E-1	9.254390E-1	9.558597E-1	1.007820E+0	9.218942E-1	9.904475E-1	9.541071E-1	1.005829E+0	1.008851E+0	9.146552E-1	9.098979E-1	9.520959E-1	9.472959E-1	9.672159E-1	9.855779E-1	9.686114E-1	9.369396E-1	9.759250E-1	9.471117E-1	1.010935E+0	9.528136E-1	9.455011E-1	9.574591E-1	9.021911E-1	9.655937E-1	9.751159E-1	9.683446E-1	9.667577E-1	9.172666E-1	9.746834E-1	9.977186E-1	9.629224E-1	9.379759E-1	9.562009E-1	9.873284E-1	1.021172E+0	9.514874E-1	9.351026E-1	9.366063E-1	1.006020E+0	1.003904E+0	9.507634E-1	9.181621E-1	9.356459E-1	9.769075E-1	9.849885E-1	9.707078E-1	9.774598E-1	9.849681E-1	9.537051E-1	9.829118E-1	9.467216E-1	9.575209E-1	9.480910E-1	9.733894E-1	9.545114E-1	9.627361E-1	9.862004E-1	9.625336E-1	9.868462E-1	9.692147E-1	9.463782E-1	9.165134E-1	9.924426E-1	9.463585E-1	9.455947E-1	9.309208E-1	9.492178E-1	9.143453E-1	9.666373E-1	1.027142E+0	9.180397E-1	9.228447E-1	9.261085E-1	9.703600E-1	9.524583E-1	9.326705E-1	9.684783E-1	1.010180E+0	9.088409E-1	9.244090E-1	9.280635E-1	1.002015E+0	9.137374E-1	9.028655E-1	9.279487E-1	9.041390E-1	1.022219E+0	9.108580E-1	9.052487E-1	9.450857E-1	8.966234E-1	9.800457E-1	9.764328E-1	9.509962E-1	9.209383E-1	9.296048E-1	9.643814E-1	9.698281E-1	9.510281E-1	9.503355E-1	9.336942E-1	1.021095E+0	8.829788E-1
2.886030E+2	1.212263E+0	1.231341E+0	1.213021E+0	1.226718E+0	1.243209E+0	1.215130E+0	1.202351E+0	1.216502E+0	1.263349E+0	1.219405E+0	1.145787E+0	1.210558E+0	1.211552E+0	1.181994E+0	1.198290E+0	1.219206E+0	1.190537E+0	1.233065E+0	1.156763E+0	1.188188E+0	1.164566E+0	1.217987E+0	1.214533E+0	1.198534E+0	1.129820E+0	1.217068E+0	1.214203E+0	1.224037E+0	1.169849E+0	1.145441E+0	1.238925E+0	1.229570E+0	1.241659E+0	1.181690E+0	1.120232E+0	1.171871E+0	1.198194E+0	1.201070E+0	1.160252E+0	1.169602E+0	1.181550E+0	1.224962E+0	1.223408E+0	1.192087E+0	1.204757E+0	1.146607E+0	1.220558E+0	1.244984E+0	1.167492E+0	1.153677E+0	1.117033E+0	1.181578E+0	1.212720E+0	1.243771E+0	1.249514E+0	1.174853E+0	1.202912E+0	1.224550E+0	1.240585E+0	1.172330E+0	1.269059E+0	1.118373E+0	1.171152E+0	1.202846E+0	1.198582E+0	1.223809E+0	1.220976E+0	1.154949E+0	1.201894E+0	1.197969E+0	1.200601E+0	1.162949E+0	1.196940E+0	1.217699E+0	1.150889E+0	1.225781E+0	1.207663E+0	1.177540E+0	1.184535E+0	1.133144E+0	1.184737E+0	1.232650E+0	1.156791E+0	1.200239E+0	1.199120E+0	1.173462E+0	1.284681E+0	1.149191E+0	1.181312E+0	1.249699E+0	1.174016E+0	1.167202E+0	1.217567E+0	1.192406E+0	1.219237E+0	1.155843E+0	1.218600E+0	1.250158E+0	1.132301E+0	1.207478E+0	1.178330E+0	1.233431E+0	1.199774E+0	1.176237E+0	1.170470E+0	1.215701E+0	1.266462E+0	1.202875E+0	1.183404E+0	1.280989E+0	1.240695E+0	1.229104E+0	1.210624E+0	1.170864E+0	1.236809E+0	1.176677E+0	1.208560E+0	1.217879E+0	1.170128E+0	1.218222E+0	1.187923E+0	1.206928E+0	1.176967E+0	1.234402E+0	1.146931E+0	1.175534E+0	1.164134E+0	1.215836E+0	1.186307E+0	1.179016E+0	1.182190E+0	1.186897E+0	1.188977E+0	1.226594E+0	1.225470E+0	1.156461E+0	1.262681E+0	1.259538E+0	1.182029E+0	1.207208E+0	1.208810E+0	1.210194E+0	1.148710E+0	1.157141E+0	1.193747E+0	1.212375E+0	1.239678E+0	1.222335E+0	1.183554E+0	1.201329E+0	1.171003E+0	1.218385E+0	1.195466E+0	1.261462E+0	1.289188E+0	1.174118E+0	1.187328E+0	1.233501E+0	1.198223E+0	1.231876E+0	1.172989E+0	1.224113E+0	1.225116E+0	1.218914E+0	1.167804E+0	1.223175E+0	1.196425E+0	1.181812E+0	1.182272E+0	1.178176E+0	1.269697E+0
2.888240E+2	1.231462E+0	1.221868E+0	1.247655E+0	1.224872E+0	1.236873E+0	1.291447E+0	1.317791E+0	1.274859E+0	1.272676E+0	1.243710E+0	1.283363E+0	1.205468E+0	1.254203E+0	1.226980E+0	1.221824E+0	1.240401E+0	1.267974E+0	1.255010E+0	1.253744E+0	1.310646E+0	1.263341E+0	1.297518E+0	1.288422E+0	1.223616E+0	1.210220E+0	1.242461E+0	1.232974E+0	1.237700E+0	1.246143E+0	1.186974E+0	1.191808E+0	1.246927E+0	1.157842E+0	1.205030E+0	1.197237E+0	1.242043E+0	1.204241E+0	1.280130E+0	1.249319E+0	1.207514E+0	1.178686E+0	1.293848E+0	1.228964E+0	1.275870E+0	1.215846E+0	1.193799E+0	1.254655E+0	1.276923E+0	1.289081E+0	1.219183E+0	1.259483E+0	1.232510E+0	1.203626E+0	1.282847E+0	1.275446E+0	1.227165E+0	1.258413E+0	1.225332E+0	1.311340E+0	1.244899E+0	1.244192E+0	1.129719E+0	1.211523E+0	1.263910E+0	1.256541E+0	1.212735E+0	1.195917E+0	1.219059E+0	1.245838E+0	1.263287E+0	1.302316E+0	1.203879E+0	1.262257E+0	1.202155E+0	1.224194E+0	1.204473E+0	1.250772E+0	1.272999E+0	1.289006E+0	1.235634E+0	1.204242E+0	1.221374E+0	1.231289E+0	1.167360E+0	1.245403E+0	1.304794E+0	1.246483E+0	1.160664E+0	1.256638E+0	1.228140E+0	1.216570E+0	1.252201E+0	1.243730E+0	1.196556E+0	1.219166E+0	1.227452E+0	1.241501E+0	1.277976E+0	1.225684E+0	1.214408E+0	1.228058E+0	1.245050E+0	1.202352E+0	1.192652E+0	1.284612E+0	1.305053E+0	1.318751E+0	1.185612E+0	1.288816E+0	1.251892E+0	1.293866E+0	1.228971E+0	1.240561E+0	1.212112E+0	1.235046E+0	1.286186E+0	1.226767E+0	1.249970E+0	1.226328E+0	1.246183E+0	1.218469E+0	1.188393E+0	1.299357E+0	1.198650E+0	1.212572E+0	1.239127E+0	1.267146E+0	1.213165E+0	1.241376E+0	1.285168E+0	1.191991E+0	1.274640E+0	1.273569E+0	1.202063E+0	1.187275E+0	1.225153E+0	1.228573E+0	1.298262E+0	1.294721E+0	1.252205E+0	1.275590E+0	1.219837E+0	1.217837E+0	1.220032E+0	1.268758E+0	1.292851E+0	1.236654E+0	1.243059E+0	1.199653E+0	1.269643E+0	1.307798E+0	1.219097E+0	1.241627E+0	1.320650E+0	1.272786E+0	1.239404E+0	1.274975E+0	1.216467E+0	1.260713E+0	1.224765E+0	1.315177E+0	1.263813E+0	1.223327E+0	1.213496E+0	1.220900E+0	1.264730E+0	1.219408E+0	1.208481E+0	1.166875E+0	1.239088E+0	1.242282E+0
2.890220E+2	1.094118E+0	1.080402E+0	1.060510E+0	1.049735E+0	1.043570E+0	1.042804E+0	1.121323E+0	1.136205E+0	1.073650E+0	1.063183E+0	1.086778E+0	1.048878E+0	1.042765E+0	1.076461E+0	1.156195E+0	1.096554E+0	1.074282E+0	1.050347E+0	1.061957E+0	1.110263E+0	1.077831E+0	1.025378E+0	1.082411E+0	1.046435E+0	1.091622E+0	1.087395E+0	1.041126E+0	1.073728E+0	1.028296E+0	1.080450E+0	1.105223E+0	1.095527E+0	1.060861E+0	1.026767E+0	1.067902E+0	1.095296E+0	1.068799E+0	1.148055E+0	1.064918E+0	1.100645E+0	1.012649E+0	1.078878E+0	1.075029E+0	1.107679E+0	1.087498E+0	1.104026E+0	1.137630E+0	1.083844E+0	1.066412E+0	1.050572E+0	1.034945E+0	1.101908E+0	1.047623E+0	1.070596E+0	1.100935E+0	1.061658E+0	1.106531E+0	1.092619E+0	1.100245E+0	1.097755E+0	1.072896E+0	1.087388E+0	1.112649E+0	1.054435E+0	1.087173E+0	1.094188E+0	1.072260E+0	1.098345E+0	1.059824E+0	1.091863E+0	1.068232E+0	1.055797E+0	1.110522E+0	1.089573E+0	1.114655E+0	1.053797E+0	1.186663E+0	1.032374E+0	1.063756E+0	1.070252E+0	1.043132E+0	1.090575E+0	1.008768E+0	1.068802E+0	1.064880E+0	1.112025E+0	1.107541E+0	1.013380E+0	1.077014E+0	1.082955E+0	1.068164E+0	1.117651E+0	1.082188E+0	1.069838E+0	1.103954E+0	1.109735E+0	1.071507E+0	1.078234E+0	1.127870E+0	1.051522E+0	1.109826E+0	1.109328E+0	1.093561E+0	1.071642E+0	1.069403E+0	1.117808E+0	1.103908E+0	1.046612E+0	1.057849E+0	1.127420E+0	1.104863E+0	1.140819E+0	1.057560E+0	1.050286E+0	1.002276E+0	1.056703E+0	1.091303E+0	1.054459E+0	1.074349E+0	1.114324E+0	1.070993E+0	1.057700E+0	1.082891E+0	1.136388E+0	1.061408E+0	1.062674E+0	1.049353E+0	1.093562E+0	1.067214E+0	1.111294E+0	1.132949E+0	1.062793E+0	1.086778E+0	1.098592E+0	1.037366E+0	1.131381E+0	1.122386E+0	1.139345E+0	1.095899E+0	1.063231E+0	1.093170E+0	1.088855E+0	1.011636E+0	9.673369E-1	1.150669E+0	1.135030E+0	1.131529E+0	1.083144E+0	1.082575E+0	1.102849E+0	1.080093E+0	1.036995E+0	1.135165E+0	1.063871E+0	1.073245E+0	1.086693E+0	1.062255E+0	1.078639E+0	1.108233E+0	1.037851E+0	1.065498E+0	1.061264E+0	1.067805E+0	1.113108E+0	1.061564E+0	1.138770E+0	1.059601E+0	1.015061E+0	1.121016E+0	1.200041E+0	1.096891E+0
2.892010E+2	9.896158E-1	9.600256E-1	9.132838E-1	9.058506E-1	9.843961E-1	9.462468E-1	9.945070E-1	9.546782E-1	9.836516E-1	9.504650E-1	9.712477E-1	9.031635E-1	9.703818E-1	9.919920E-1	9.698908E-1	9.801864E-1	9.737447E-1	9.591015E-1	1.006944E+0	9.739517E-1	9.960440E-1	1.039956E+0	1.010484E+0	9.492754E-1	9.717057E-1	9.810716E-1	1.009189E+0	9.781848E-1	9.334019E-1	9.735471E-1	9.761641E-1	1.007154E+0	9.734360E-1	9.043082E-1	9.835766E-1	9.773656E-1	9.127002E-1	9.600933E-1	9.607624E-1	9.506776E-1	9.453085E-1	9.906624E-1	9.996872E-1	9.399832E-1	1.027583E+0	9.493773E-1	9.995536E-1	1.017995E+0	9.958573E-1	9.586219E-1	9.310130E-1	9.516685E-1	9.875201E-1	9.806285E-1	1.013778E+0	9.674777E-1	9.301457E-1	9.931370E-1	9.750573E-1	9.584237E-1	9.523904E-1	9.385571E-1	9.449309E-1	1.031356E+0	9.349269E-1	9.202140E-1	9.632787E-1	9.941092E-1	9.514260E-1	9.514971E-1	9.487848E-1	8.968381E-1	1.021613E+0	9.728558E-1	9.621559E-1	9.366910E-1	9.359938E-1	9.508401E-1	9.707002E-1	9.548309E-1	9.681263E-1	9.963965E-1	1.048876E+0	9.890019E-1	9.648694E-1	1.007921E+0	9.948287E-1	9.594593E-1	9.366226E-1	1.037157E+0	1.052432E+0	9.251469E-1	9.858466E-1	9.814113E-1	9.776390E-1	9.181950E-1	9.680079E-1	9.599611E-1	9.556311E-1	9.587451E-1	9.913877E-1	9.775433E-1	9.286217E-1	9.895792E-1	9.767159E-1	9.919589E-1	1.063010E+0	9.674624E-1	9.658649E-1	9.873597E-1	9.948093E-1	9.862629E-1	9.980898E-1	9.594752E-1	9.866172E-1	9.431837E-1	9.837626E-1	9.709912E-1	9.995573E-1	9.848437E-1	1.011626E+0	9.697596E-1	9.644810E-1	1.000202E+0	1.005764E+0	9.584896E-1	9.360225E-1	9.173632E-1	9.920187E-1	9.988033E-1	9.721326E-1	9.863355E-1	9.784571E-1	9.693420E-1	9.957491E-1	9.878532E-1	9.785469E-1	9.911907E-1	9.903405E-1	9.802017E-1	9.409890E-1	1.001687E+0	9.685893E-1	9.530816E-1	1.007708E+0	9.693854E-1	1.033694E+0	1.008602E+0	9.450470E-1	9.854340E-1	1.017297E+0	9.402288E-1	1.008444E+0	1.010197E+0	9.828205E-1	1.025247E+0	9.851502E-1	9.717186E-1	9.869961E-1	9.454377E-1	1.024780E+0	1.026021E+0	1.008957E+0	1.001759E+0	9.745885E-1	9.878558E-1	1.019333E+0	9.400138E-1	1.008054E+0	9.642389E-1	1.042121E+0
2.894050E+2	8.963177E-1	9.574118E-1	9.397932E-1	9.616725E-1	9.607150E-1	9.348618E-1	9.368979E-1	9.598395E-1	9.601646E-1	9.518544E-1	1.012281E+0	9.598642E-1	9.704114E-1	8.812883E-1	9.427089E-1	9.353784E-1	9.199087E-1	8.795278E-1	9.824135E-1	9.563978E-1	9.581480E-1	9.192347E-1	9.498119E-1	9.550251E-1	8.974590E-1	9.691727E-1	9.862445E-1	9.527042E-1	9.003836E-1	9.346228E-1	9.364154E-1	9.324703E-1	9.707597E-1	9.028694E-1	9.620942E-1	9.367802E-1	9.566882E-1	9.544844E-1	9.791932E-1	9.385149E-1	8.976369E-1	9.392882E-1	9.738601E-1	9.032035E-1	9.210533E-1	9.609263E-1	9.476517E-1	9.664003E-1	9.447559E-1	9.592045E-1	9.057955E-1	9.752031E-1	9.709079E-1	9.543931E-1	9.829161E-1	9.322424E-1	9.127752E-1	9.491586E-1	9.471494E-1	9.088992E-1	9.476822E-1	9.514758E-1	9.631759E-1	9.170264E-1	9.410380E-1	9.312895E-1	9.341182E-1	8.500459E-1	9.429274E-1	9.266021E-1	9.899475E-1	9.139542E-1	9.483024E-1	9.197178E-1	9.676054E-1	8.843441E-1	9.110137E-1	9.296127E-1	9.388769E-1	9.656297E-1	9.374328E-1	9.345568E-1	9.835474E-1	9.693545E-1	9.548496E-1	9.477494E-1	9.751210E-1	8.930330E-1	9.748616E-1	9.705443E-1	9.721561E-1	9.832534E-1	9.714087E-1	9.605968E-1	9.226826E-1	9.518613E-1	9.350668E-1	1.013606E+0	8.786301E-1	9.393889E-1	9.676955E-1	9.009739E-1	9.794545E-1	9.597830E-1	9.661689E-1	9.649521E-1	1.028020E+0	8.847740E-1	9.133551E-1	9.509203E-1	9.559357E-1	9.725125E-1	9.309983E-1	9.896190E-1	1.008999E+0	9.753715E-1	9.568700E-1	9.721822E-1	9.769540E-1	9.339215E-1	1.001987E+0	9.703146E-1	9.789807E-1	9.545344E-1	9.451745E-1	9.013350E-1	9.285282E-1	9.648844E-1	9.564695E-1	9.947633E-1	9.416247E-1	9.536442E-1	9.480314E-1	9.946122E-1	9.528537E-1	9.604888E-1	9.215843E-1	9.872715E-1	9.363869E-1	9.647713E-1	9.196791E-1	9.582898E-1	9.812970E-1	9.278350E-1	9.816782E-1	9.384912E-1	9.648267E-1	9.548070E-1	9.256810E-1	9.480410E-1	8.975198E-1	9.357641E-1	9.464632E-1	9.903191E-1	9.198442E-1	9.259721E-1	9.309365E-1	9.331976E-1	9.322441E-1	9.770661E-1	9.515733E-1	9.528432E-1	9.866471E-1	9.367438E-1	9.887701E-1	1.015428E+0	9.496241E-1	9.481469E-1	1.027464E+0	9.873352E-1	9.322910E-1
2.896180E+2	9.223626E-1	8.761838E-1	9.063698E-1	8.852665E-1	8.608575E-1	8.848430E-1	9.129700E-1	9.276670E-1	9.065459E-1	9.054197E-1	9.161368E-1	8.793114E-1	9.245635E-1	8.603740E-1	8.576061E-1	8.791774E-1	8.754866E-1	8.763512E-1	9.237932E-1	8.953371E-1	8.555830E-1	9.555611E-1	9.059815E-1	8.525304E-1	9.543695E-1	8.940154E-1	9.059732E-1	9.154406E-1	8.820823E-1	9.109173E-1	9.098485E-1	8.939795E-1	9.251428E-1	8.767851E-1	8.798926E-1	9.136863E-1	9.118398E-1	8.860522E-1	9.515811E-1	9.101984E-1	8.641041E-1	9.290478E-1	1.002109E+0	9.282911E-1	9.302209E-1	8.867514E-1	9.115924E-1	9.242766E-1	9.289432E-1	8.452092E-1	8.887008E-1	8.697663E-1	8.831196E-1	9.024106E-1	9.471853E-1	9.042694E-1	9.079245E-1	8.907980E-1	9.276507E-1	8.952543E-1	9.291033E-1	8.717969E-1	8.748819E-1	8.883664E-1	8.949860E-1	8.998630E-1	9.033972E-1	8.724688E-1	9.092413E-1	9.380552E-1	9.133202E-1	8.433424E-1	9.391243E-1	8.777883E-1	8.781970E-1	9.053183E-1	9.312446E-1	9.217714E-1	9.193082E-1	9.959635E-1	9.062088E-1	9.281028E-1	8.795839E-1	9.053036E-1	9.257321E-1	9.009089E-1	9.301425E-1	8.992977E-1	8.499382E-1	9.484362E-1	8.959933E-1	8.730704E-1	9.230203E-1	8.429403E-1	8.733232E-1	8.981351E-1	9.261906E-1	8.837015E-1	9.222063E-1	8.952184E-1	9.117305E-1	8.854997E-1	9.184357E-1	8.744919E-1	9.744032E-1	8.720436E-1	9.036488E-1	8.507802E-1	8.819121E-1	8.873115E-1	9.370328E-1	9.730087E-1	9.377036E-1	9.631194E-1	9.409572E-1	8.817716E-1	9.279677E-1	8.896551E-1	8.822185E-1	8.967756E-1	8.531881E-1	9.678957E-1	9.540678E-1	9.035946E-1	9.227042E-1	8.729699E-1	9.272617E-1	9.168642E-1	9.473759E-1	9.449882E-1	8.688878E-1	8.788235E-1	9.361406E-1	9.329052E-1	8.543865E-1	8.930668E-1	9.324961E-1	9.110471E-1	9.763233E-1	8.710113E-1	9.009506E-1	9.484167E-1	8.905736E-1	9.015363E-1	9.138341E-1	9.179340E-1	9.405685E-1	9.172434E-1	8.796488E-1	9.250298E-1	9.335985E-1	9.200507E-1	8.666919E-1	9.474268E-1	9.199378E-1	9.428010E-1	9.513726E-1	9.310551E-1	8.703659E-1	8.814294E-1	9.472743E-1	9.694252E-1	8.689556E-1	8.372962E-1	8.802201E-1	9.354036E-1	9.434621E-1	8.793459E-1	9.510463E-1	8.971661E-1	7.915688E-1
2.898030E+2	8.508367E-1	8.407818E-1	7.928348E-1	7.634959E-1	8.010293E-1	8.267955E-1	8.050398E-1	8.272573E-1	8.222017E-1	7.976869E-1	8.678678E-1	8.378085E-1	7.906650E-1	7.951521E-1	8.137480E-1	7.917828E-1	8.376333E-1	7.483790E-1	8.696902E-1	8.673642E-1	8.193528E-1	7.471371E-1	8.930948E-1	8.116356E-1	8.143685E-1	8.019534E-1	7.734363E-1	7.989613E-1	7.929603E-1	7.803750E-1	8.187172E-1	8.058447E-1	8.325125E-1	7.443727E-1	8.236246E-1	8.546249E-1	8.569137E-1	8.053697E-1	8.353585E-1	7.918157E-1	8.039224E-1	8.100551E-1	7.974414E-1	8.304351E-1	8.306925E-1	8.295968E-1	8.580691E-1	8.593928E-1	8.441725E-1	8.461009E-1	8.077683E-1	7.763314E-1	8.185068E-1	8.000847E-1	8.536060E-1	8.317161E-1	8.376729E-1	8.615191E-1	8.719939E-1	8.135849E-1	8.147721E-1	7.934530E-1	7.717180E-1	7.848528E-1	8.482688E-1	8.182166E-1	7.800316E-1	8.069052E-1	8.181396E-1	7.950864E-1	7.997304E-1	8.286191E-1	8.209284E-1	8.223236E-1	8.134651E-1	8.186953E-1	8.180280E-1	8.054389E-1	8.557105E-1	8.541987E-1	8.272779E-1	8.129789E-1	8.203243E-1	8.141084E-1	8.247949E-1	8.542716E-1	8.271193E-1	8.007863E-1	8.077983E-1	8.337771E-1	8.312682E-1	8.123962E-1	8.067482E-1	8.377499E-1	8.117755E-1	8.214578E-1	8.333558E-1	7.600578E-1	8.130012E-1	8.344044E-1	8.359435E-1	8.119850E-1	8.348229E-1	7.942092E-1	7.976273E-1	8.347095E-1	7.648731E-1	7.676363E-1	8.068996E-1	8.145944E-1	7.979836E-1	8.165643E-1	8.664658E-1	8.646031E-1	8.281925E-1	7.862644E-1	8.534218E-1	8.131423E-1	8.840628E-1	7.847237E-1	8.534297E-1	8.121998E-1	7.976577E-1	7.964584E-1	8.098764E-1	8.534705E-1	8.043918E-1	7.916352E-1	7.850693E-1	8.283029E-1	8.382272E-1	8.154106E-1	8.019841E-1	8.139950E-1	8.201591E-1	8.349598E-1	8.528337E-1	8.613627E-1	8.178819E-1	8.091870E-1	7.781073E-1	8.496538E-1	7.819349E-1	7.794198E-1	8.410137E-1	8.192894E-1	8.062768E-1	7.847268E-1	8.251571E-1	8.715312E-1	8.165775E-1	8.333421E-1	8.306264E-1	8.933396E-1	8.428189E-1	8.537484E-1	8.505058E-1	8.311445E-1	8.249838E-1	8.151522E-1	8.728487E-1	8.350847E-1	8.327668E-1	7.822911E-1	8.451315E-1	8.822733E-1	8.353955E-1	8.141195E-1	8.720824E-1	7.864717E-1	9.261402E-1
2.900030E+2	6.850310E-1	7.302547E-1	7.214091E-1	6.742186E-1	6.855253E-1	7.071020E-1	7.231837E-1	7.257351E-1	6.922905E-1	7.010758E-1	7.142501E-1	7.586949E-1	7.232746E-1	6.925230E-1	7.016659E-1	7.357535E-1	7.514495E-1	7.353172E-1	7.294427E-1	6.507453E-1	7.078656E-1	7.281685E-1	7.017622E-1	6.958765E-1	7.335955E-1	7.524044E-1	7.387804E-1	7.313043E-1	7.182237E-1	7.431201E-1	7.134770E-1	7.238246E-1	7.181539E-1	6.736524E-1	6.862051E-1	7.222797E-1	7.461592E-1	7.008902E-1	7.210195E-1	6.806187E-1	7.360189E-1	7.557734E-1	7.626089E-1	7.338889E-1	7.513856E-1	7.071120E-1	6.920711E-1	7.181209E-1	7.203356E-1	7.043737E-1	7.238298E-1	7.664019E-1	6.965963E-1	6.930357E-1	7.150257E-1	7.657581E-1	6.947013E-1	6.804327E-1	7.654946E-1	7.102036E-1	6.879383E-1	7.140399E-1	7.521674E-1	7.079894E-1	6.990523E-1	7.094087E-1	7.306233E-1	7.088995E-1	7.084150E-1	7.352153E-1	7.506055E-1	6.841541E-1	6.789687E-1	7.336523E-1	7.597368E-1	6.903632E-1	7.585062E-1	7.423071E-1	6.941083E-1	7.080357E-1	7.470632E-1	7.549609E-1	7.515042E-1	7.344687E-1	7.420355E-1	7.331398E-1	7.458908E-1	6.723913E-1	7.201531E-1	6.973165E-1	7.265645E-1	7.061944E-1	6.905862E-1	7.209722E-1	7.305516E-1	7.442916E-1	7.877009E-1	7.833918E-1	7.090174E-1	7.096629E-1	7.233141E-1	7.220313E-1	6.907098E-1	7.327621E-1	7.127277E-1	7.561295E-1	7.326969E-1	6.942772E-1	6.736871E-1	7.140779E-1	7.212457E-1	6.986648E-1	7.424264E-1	6.998361E-1	7.080823E-1	7.148310E-1	7.495403E-1	7.267547E-1	7.040570E-1	6.852430E-1	7.089036E-1	7.445140E-1	6.915974E-1	6.989253E-1	6.862890E-1	7.128856E-1	6.995207E-1	7.387825E-1	7.628740E-1	7.177476E-1	6.916311E-1	6.917675E-1	7.006611E-1	7.022843E-1	7.417194E-1	7.116542E-1	7.316943E-1	7.685181E-1	7.582173E-1	7.194808E-1	7.476606E-1	7.431071E-1	7.202321E-1	6.984600E-1	6.917683E-1	7.719365E-1	6.876030E-1	7.303238E-1	7.061474E-1	7.694789E-1	7.233497E-1	7.241650E-1	7.002910E-1	7.257674E-1	7.499831E-1	7.057814E-1	6.824301E-1	6.406177E-1	7.635574E-1	6.917432E-1	7.630779E-1	7.096660E-1	7.428486E-1	7.549851E-1	7.157230E-1	7.523238E-1	7.147254E-1	7.679696E-1	7.961713E-1	6.946071E-1	7.049574E-1
2.905220E+2	7.478790E-1	8.186536E-1	7.381557E-1	7.539664E-1	7.875556E-1	7.883335E-1	7.783723E-1	8.045119E-1	7.647029E-1	7.346522E-1	7.733671E-1	7.232145E-1	7.694784E-1	8.043592E-1	7.933678E-1	7.199245E-1	7.892612E-1	7.761908E-1	7.934649E-1	7.582344E-1	7.670267E-1	7.647027E-1	7.817432E-1	7.907917E-1	7.730424E-1	8.119870E-1	7.766878E-1	8.112332E-1	8.548107E-1	7.859820E-1	7.411728E-1	7.335105E-1	8.319565E-1	7.946197E-1	8.151336E-1	8.095748E-1	8.068314E-1	7.951785E-1	7.958993E-1	7.465344E-1	7.795991E-1	7.964765E-1	8.197323E-1	8.201160E-1	8.353443E-1	7.983617E-1	8.227142E-1	8.069360E-1	8.009085E-1	7.953767E-1	8.154702E-1	7.847309E-1	8.050789E-1	7.823409E-1	8.790731E-1	7.460117E-1	8.059015E-1	8.095984E-1	8.043348E-1	7.824946E-1	7.724062E-1	7.807044E-1	7.953738E-1	7.874653E-1	7.702577E-1	7.743202E-1	7.355816E-1	8.006714E-1	7.580357E-1	7.983056E-1	7.757895E-1	7.723385E-1	7.743586E-1	7.303806E-1	7.553262E-1	8.016249E-1	7.798040E-1	8.413739E-1	7.719022E-1	7.497038E-1	7.974606E-1	7.741160E-1	8.193100E-1	7.936832E-1	8.299855E-1	7.756218E-1	8.193396E-1	7.558211E-1	8.063827E-1	7.455671E-1	8.137350E-1	7.684790E-1	7.883374E-1	8.131039E-1	7.824638E-1	8.025871E-1	7.844520E-1	7.683321E-1	7.942328E-1	7.696560E-1	7.756480E-1	8.078516E-1	7.534903E-1	7.827524E-1	8.061154E-1	7.889703E-1	7.887695E-1	7.492897E-1	7.758959E-1	7.986641E-1	8.163162E-1	7.929117E-1	7.800594E-1	7.979886E-1	8.124878E-1	7.963997E-1	7.689979E-1	7.886013E-1	7.798632E-1	7.473572E-1	7.966129E-1	8.268010E-1	7.995915E-1	7.946840E-1	7.501228E-1	7.465377E-1	7.574709E-1	7.661887E-1	8.376097E-1	7.706330E-1	7.750403E-1	7.353731E-1	7.846796E-1	8.046048E-1	7.356361E-1	7.818613E-1	8.446077E-1	8.324647E-1	8.304867E-1	8.019033E-1	7.919853E-1	7.845971E-1	7.717829E-1	7.915102E-1	8.427963E-1	7.721788E-1	8.135650E-1	7.859249E-1	7.535569E-1	8.552985E-1	7.614751E-1	7.541495E-1	7.995291E-1	7.726207E-1	7.981242E-1	7.737909E-1	7.542210E-1	7.670756E-1	7.780052E-1	8.131041E-1	8.153736E-1	7.754392E-1	7.853344E-1	7.919686E-1	7.954168E-1	7.945075E-1	7.918569E-1	8.080942E-1	8.731558E-1	7.471666E-1	7.054191E-1
2.910040E+2	9.620752E-1	9.636317E-1	9.884229E-1	1.037983E+0	1.016389E+0	9.643006E-1	1.035214E+0	9.739418E-1	9.928375E-1	9.957613E-1	9.558918E-1	1.071549E+0	9.590601E-1	9.894232E-1	1.009970E+0	9.903893E-1	1.045242E+0	9.981723E-1	1.004099E+0	1.009401E+0	9.832181E-1	9.629687E-1	1.057181E+0	1.040037E+0	1.008218E+0	9.843171E-1	1.028658E+0	9.874072E-1	9.763600E-1	9.684884E-1	1.078672E+0	1.018572E+0	9.424778E-1	9.914119E-1	9.561593E-1	1.046498E+0	1.031885E+0	9.886550E-1	1.103465E+0	1.012164E+0	1.007744E+0	1.033681E+0	9.662427E-1	1.068936E+0	1.031913E+0	1.017668E+0	1.030160E+0	1.036588E+0	1.053812E+0	1.040846E+0	1.000024E+0	1.040473E+0	1.062497E+0	9.897817E-1	1.049105E+0	9.902104E-1	1.028259E+0	1.027651E+0	1.048488E+0	1.012321E+0	9.908651E-1	9.674762E-1	1.044292E+0	1.031213E+0	9.752948E-1	9.830090E-1	9.979504E-1	9.944881E-1	9.970817E-1	1.011135E+0	1.061308E+0	9.814724E-1	1.048888E+0	9.699267E-1	9.834950E-1	1.014204E+0	1.033874E+0	1.003743E+0	1.059489E+0	9.740181E-1	9.824711E-1	1.026558E+0	1.020354E+0	9.353135E-1	9.857794E-1	1.024870E+0	1.055653E+0	1.001004E+0	1.038973E+0	1.003175E+0	1.069555E+0	9.429667E-1	9.973938E-1	1.005833E+0	1.009233E+0	1.019404E+0	9.919020E-1	1.028871E+0	1.049392E+0	9.621447E-1	9.700173E-1	1.015266E+0	1.021685E+0	1.026824E+0	9.680229E-1	1.004744E+0	1.053328E+0	9.932418E-1	1.044119E+0	1.017044E+0	1.051690E+0	1.008782E+0	1.058700E+0	1.040789E+0	9.736397E-1	1.022900E+0	1.038557E+0	9.927843E-1	1.046745E+0	1.019012E+0	1.030535E+0	1.022534E+0	1.004637E+0	1.005111E+0	1.031505E+0	1.031425E+0	9.878070E-1	1.057877E+0	1.003011E+0	9.726554E-1	1.012853E+0	1.062117E+0	9.825474E-1	1.022165E+0	9.963526E-1	1.043893E+0	1.009310E+0	1.026205E+0	1.082516E+0	9.722002E-1	1.007129E+0	1.010717E+0	9.571517E-1	9.991622E-1	1.053776E+0	1.073487E+0	1.040539E+0	9.386574E-1	1.036305E+0	1.022834E+0	1.013593E+0	9.805155E-1	1.046805E+0	1.050464E+0	1.089676E+0	1.041141E+0	1.056357E+0	1.022076E+0	1.020834E+0	9.929702E-1	1.026653E+0	9.621014E-1	9.906584E-1	9.926731E-1	1.012072E+0	1.032661E+0	1.023156E+0	9.837875E-1	1.023961E+0	9.393991E-1	8.574482E-1
2.915150E+2	1.183705E+0	1.178007E+0	1.180123E+0	1.203686E+0	1.184598E+0	1.199583E+0	1.202604E+0	1.206230E+0	1.136613E+0	1.183840E+0	1.230010E+0	1.184269E+0	1.164000E+0	1.138104E+0	1.178022E+0	1.144436E+0	1.203006E+0	1.179971E+0	1.200015E+0	1.150025E+0	1.175732E+0	1.183158E+0	1.168001E+0	1.107945E+0	1.147293E+0	1.162689E+0	1.136170E+0	1.141662E+0	1.178905E+0	1.159213E+0	1.191184E+0	1.207964E+0	1.160523E+0	1.152115E+0	1.227137E+0	1.255893E+0	1.172486E+0	1.189865E+0	1.163477E+0	1.186341E+0	1.184653E+0	1.165047E+0	1.204672E+0	1.206384E+0	1.127371E+0	1.208344E+0	1.199206E+0	1.180747E+0	1.166768E+0	1.122097E+0	1.253677E+0	1.156681E+0	1.162694E+0	1.140469E+0	1.159436E+0	1.164302E+0	1.147067E+0	1.157836E+0	1.212127E+0	1.140951E+0	1.139360E+0	1.178520E+0	1.215110E+0	1.112472E+0	1.181194E+0	1.144617E+0	1.148777E+0	1.171377E+0	1.193407E+0	1.158446E+0	1.162656E+0	1.150740E+0	1.208194E+0	1.136141E+0	1.168992E+0	1.143498E+0	1.194526E+0	1.133927E+0	1.176007E+0	1.096633E+0	1.091599E+0	1.178330E+0	1.196863E+0	1.095569E+0	1.195570E+0	1.114052E+0	1.180732E+0	1.075411E+0	1.152837E+0	1.188137E+0	1.178857E+0	1.200539E+0	1.245257E+0	1.170552E+0	1.207015E+0	1.142421E+0	1.244999E+0	1.201513E+0	1.144689E+0	1.168135E+0	1.175398E+0	1.179534E+0	1.218197E+0	1.178346E+0	1.149695E+0	1.171879E+0	1.190131E+0	1.184807E+0	1.222805E+0	1.134373E+0	1.186565E+0	1.189182E+0	1.177462E+0	1.142265E+0	1.177741E+0	1.219484E+0	1.194586E+0	1.203475E+0	1.257539E+0	1.201660E+0	1.137902E+0	1.206680E+0	1.157724E+0	1.181767E+0	1.168000E+0	1.135643E+0	1.193312E+0	1.190583E+0	1.120877E+0	1.195744E+0	1.154428E+0	1.193060E+0	1.181155E+0	1.157967E+0	1.197893E+0	1.150298E+0	1.209934E+0	1.121401E+0	1.176211E+0	1.108405E+0	1.135765E+0	1.173685E+0	1.246795E+0	1.167786E+0	1.164848E+0	1.240814E+0	1.221985E+0	1.202342E+0	1.134231E+0	1.173305E+0	1.143850E+0	1.159386E+0	1.150383E+0	1.157609E+0	1.192849E+0	1.143855E+0	1.183354E+0	1.244078E+0	1.162607E+0	1.172613E+0	1.256248E+0	1.140011E+0	1.176814E+0	1.193884E+0	1.202496E+0	1.209469E+0	1.200079E+0	1.174632E+0	1.171958E+0	1.182873E+0	1.229894E+0
2.920010E+2	1.032778E+0	1.097697E+0	1.056518E+0	1.101239E+0	1.007557E+0	1.083998E+0	9.994139E-1	1.118495E+0	1.040699E+0	1.066850E+0	1.055572E+0	1.062040E+0	1.032546E+0	1.070147E+0	1.039341E+0	1.072112E+0	1.119453E+0	1.020546E+0	1.062546E+0	1.034383E+0	9.992115E-1	1.055658E+0	1.110998E+0	1.030013E+0	1.064787E+0	1.066284E+0	1.098211E+0	1.053998E+0	1.013783E+0	1.066417E+0	1.105396E+0	1.146177E+0	1.043878E+0	1.048277E+0	1.118455E+0	1.046809E+0	1.009408E+0	1.026158E+0	1.075111E+0	1.100254E+0	1.088853E+0	1.042413E+0	1.011472E+0	1.050807E+0	1.091767E+0	1.133192E+0	1.063647E+0	1.094426E+0	1.113931E+0	1.060955E+0	1.017527E+0	1.000236E+0	1.063440E+0	1.101073E+0	1.121243E+0	1.020000E+0	1.032954E+0	1.060754E+0	1.147731E+0	1.039837E+0	1.038153E+0	1.065429E+0	1.080026E+0	1.094159E+0	1.085074E+0	1.063942E+0	1.077470E+0	1.083911E+0	1.070715E+0	1.035763E+0	1.080883E+0	1.037846E+0	1.077426E+0	1.020179E+0	1.128654E+0	1.045291E+0	1.057752E+0	1.005739E+0	1.083768E+0	1.014060E+0	1.052780E+0	1.080458E+0	1.056356E+0	1.099061E+0	1.044300E+0	1.035364E+0	1.043590E+0	9.702646E-1	1.055898E+0	1.017372E+0	1.004308E+0	1.053980E+0	1.107593E+0	1.096391E+0	1.016891E+0	1.081678E+0	1.088399E+0	1.053987E+0	1.029341E+0	1.130214E+0	1.094460E+0	1.069567E+0	1.136045E+0	1.039383E+0	1.112476E+0	1.061336E+0	1.163765E+0	1.117541E+0	1.064798E+0	1.077901E+0	1.085798E+0	1.115265E+0	1.089758E+0	1.037546E+0	1.061165E+0	1.041307E+0	1.106999E+0	1.073325E+0	1.144654E+0	1.084339E+0	1.022977E+0	1.141828E+0	1.108988E+0	1.098217E+0	1.028537E+0	1.051797E+0	1.025304E+0	1.019289E+0	1.092044E+0	1.126296E+0	1.017829E+0	1.129658E+0	1.076662E+0	1.074338E+0	1.094621E+0	1.094258E+0	1.182313E+0	1.079210E+0	1.091001E+0	1.054790E+0	1.026988E+0	1.068411E+0	1.135002E+0	1.048030E+0	1.095232E+0	1.055783E+0	1.094399E+0	1.144749E+0	1.039948E+0	1.092542E+0	1.054920E+0	1.020869E+0	1.101396E+0	1.093522E+0	1.040245E+0	1.017795E+0	1.070646E+0	1.079271E+0	1.122325E+0	1.023800E+0	1.104596E+0	1.024500E+0	1.038612E+0	1.055075E+0	1.092645E+0	1.076604E+0	1.072999E+0	1.112121E+0	1.058708E+0	1.010317E+0	1.026702E+0
2.925020E+2	1.039338E+0	1.067348E+0	1.018463E+0	1.073236E+0	1.053203E+0	1.047797E+0	9.912694E-1	1.017146E+0	1.065132E+0	1.079735E+0	1.090757E+0	1.097356E+0	1.065247E+0	9.985988E-1	1.069551E+0	1.029196E+0	1.066657E+0	9.984312E-1	1.020565E+0	1.094752E+0	1.083429E+0	1.006925E+0	1.113308E+0	1.005206E+0	1.043341E+0	1.071404E+0	1.089739E+0	1.043385E+0	1.044568E+0	1.092020E+0	1.058646E+0	1.113048E+0	1.022066E+0	1.028773E+0	1.021115E+0	1.072630E+0	1.066312E+0	1.051284E+0	1.045069E+0	1.003011E+0	1.048979E+0	1.019869E+0	1.097935E+0	1.041617E+0	1.071945E+0	1.075303E+0	1.041947E+0	1.064541E+0	1.111115E+0	1.077128E+0	1.108240E+0	1.064866E+0	1.059607E+0	1.073819E+0	1.042197E+0	1.018214E+0	1.040441E+0	1.022996E+0	1.176959E+0	9.776457E-1	1.057514E+0	1.045163E+0	1.054909E+0	1.045195E+0	1.070975E+0	1.056025E+0	1.054828E+0	1.027692E+0	1.033290E+0	1.055690E+0	1.086646E+0	1.070151E+0	1.051019E+0	1.075370E+0	1.029304E+0	1.067941E+0	1.060793E+0	1.055844E+0	1.076866E+0	1.029167E+0	1.039747E+0	1.074520E+0	1.060077E+0	1.045649E+0	1.049346E+0	9.813906E-1	1.026398E+0	1.043321E+0	1.125505E+0	1.070074E+0	1.038269E+0	1.064520E+0	1.057462E+0	1.070040E+0	1.054312E+0	1.045120E+0	1.052961E+0	1.104549E+0	1.105271E+0	1.068535E+0	1.061302E+0	1.070945E+0	1.056740E+0	1.089234E+0	1.045355E+0	1.105788E+0	1.051604E+0	1.005116E+0	1.061615E+0	1.075962E+0	1.056262E+0	1.091126E+0	1.080622E+0	1.056445E+0	1.081065E+0	1.051189E+0	1.082159E+0	1.054250E+0	1.055509E+0	1.046456E+0	1.045752E+0	1.052451E+0	1.111897E+0	1.036681E+0	1.100390E+0	1.027731E+0	1.025291E+0	1.027831E+0	1.001709E+0	1.053646E+0	1.088102E+0	1.058708E+0	1.065274E+0	1.079159E+0	1.115930E+0	1.018716E+0	1.107803E+0	1.070473E+0	1.148912E+0	1.046651E+0	1.029205E+0	1.072005E+0	1.075203E+0	9.908987E-1	1.022725E+0	1.110537E+0	1.073629E+0	1.076117E+0	1.010686E+0	1.100268E+0	1.079641E+0	1.131422E+0	1.103197E+0	1.053446E+0	1.066694E+0	1.062311E+0	1.047871E+0	1.068652E+0	1.067913E+0	1.103786E+0	1.093707E+0	1.041953E+0	1.091578E+0	1.032785E+0	1.096779E+0	1.072681E+0	1.042795E+0	1.080069E+0	9.980808E-1	1.036669E+0	9.632703E-1
2.930020E+2	1.129917E+0	1.096471E+0	1.057248E+0	1.150840E+0	1.086280E+0	1.211627E+0	1.102465E+0	1.131135E+0	1.106157E+0	1.141611E+0	1.127359E+0	1.141456E+0	1.155834E+0	1.137952E+0	1.070964E+0	1.098381E+0	1.129425E+0	1.095431E+0	1.066758E+0	1.109824E+0	1.149018E+0	1.172286E+0	1.115473E+0	1.112522E+0	1.198066E+0	1.153906E+0	1.176132E+0	1.133406E+0	1.125950E+0	1.140808E+0	1.123042E+0	1.145207E+0	1.073795E+0	1.110481E+0	1.064731E+0	1.088915E+0	1.097919E+0	1.158820E+0	1.058505E+0	1.062064E+0	1.111886E+0	1.148965E+0	1.132901E+0	1.136238E+0	1.212641E+0	1.174422E+0	1.129830E+0	1.160828E+0	1.118499E+0	1.099558E+0	1.060607E+0	1.198377E+0	1.082057E+0	1.053179E+0	1.128625E+0	1.170817E+0	1.141236E+0	1.135715E+0	1.180672E+0	1.090734E+0	1.094177E+0	1.110765E+0	1.122510E+0	1.105988E+0	1.120389E+0	1.050879E+0	1.127633E+0	1.151747E+0	1.161268E+0	1.145971E+0	1.132820E+0	1.074931E+0	1.140304E+0	1.090969E+0	1.132750E+0	1.102363E+0	1.175828E+0	1.129286E+0	1.072807E+0	1.111965E+0	1.189509E+0	1.167281E+0	1.183614E+0	1.126990E+0	1.112778E+0	1.127604E+0	1.143075E+0	1.042779E+0	1.085974E+0	1.154600E+0	1.121900E+0	1.117897E+0	1.137351E+0	1.104060E+0	1.153639E+0	1.145043E+0	1.100999E+0	1.163401E+0	1.137728E+0	1.064215E+0	1.144959E+0	1.153195E+0	1.130267E+0	1.094080E+0	1.165789E+0	1.117235E+0	1.177342E+0	1.126847E+0	1.072582E+0	1.142327E+0	1.158394E+0	1.162993E+0	1.229291E+0	1.132148E+0	1.148077E+0	1.121128E+0	1.124941E+0	1.108948E+0	1.119694E+0	1.149875E+0	1.109138E+0	1.133178E+0	1.113703E+0	1.131527E+0	1.113519E+0	1.129656E+0	1.133095E+0	1.126101E+0	1.160450E+0	1.198414E+0	1.131576E+0	1.136172E+0	1.108578E+0	1.086213E+0	1.099420E+0	1.092414E+0	1.129808E+0	1.097412E+0	1.152374E+0	1.173469E+0	1.113247E+0	1.073688E+0	1.132011E+0	1.076494E+0	1.118485E+0	1.110447E+0	1.135157E+0	1.113201E+0	1.125183E+0	1.151867E+0	1.143760E+0	1.124575E+0	1.117608E+0	1.131343E+0	1.149703E+0	1.077205E+0	1.173603E+0	1.161643E+0	1.084033E+0	1.095331E+0	1.161500E+0	1.166762E+0	1.173841E+0	1.152707E+0	1.141083E+0	1.128860E+0	1.163996E+0	1.136417E+0	1.173098E+0	1.104339E+0	1.273568E+0
2.935120E+2	1.141432E+0	1.145877E+0	1.129023E+0	1.140004E+0	1.155089E+0	1.165477E+0	1.193218E+0	1.140465E+0	1.179565E+0	1.174213E+0	1.140558E+0	1.114785E+0	1.197042E+0	1.145195E+0	1.133783E+0	1.171266E+0	1.111163E+0	1.123758E+0	1.127323E+0	1.128955E+0	1.180977E+0	1.175099E+0	1.118178E+0	1.137334E+0	1.088658E+0	1.139697E+0	1.125817E+0	1.236178E+0	1.164935E+0	1.126785E+0	1.192246E+0	1.125612E+0	1.123970E+0	1.143021E+0	1.149546E+0	1.162104E+0	1.135557E+0	1.172530E+0	1.082295E+0	1.119873E+0	1.143106E+0	1.143421E+0	1.160065E+0	1.138356E+0	1.123286E+0	1.169681E+0	1.225835E+0	1.137101E+0	1.131254E+0	1.099815E+0	1.088990E+0	1.157011E+0	1.160176E+0	1.161628E+0	1.138383E+0	1.218723E+0	1.161129E+0	1.194648E+0	1.149496E+0	1.108781E+0	1.145945E+0	1.115230E+0	1.153451E+0	1.118380E+0	1.113095E+0	1.170900E+0	1.191726E+0	1.152983E+0	1.125224E+0	1.130363E+0	1.158038E+0	1.176779E+0	1.220754E+0	1.173570E+0	1.166516E+0	1.119513E+0	1.168754E+0	1.215728E+0	1.138819E+0	1.131413E+0	1.130430E+0	1.141832E+0	1.179803E+0	1.155960E+0	1.168907E+0	1.150362E+0	1.140349E+0	1.075250E+0	1.135083E+0	1.181777E+0	1.128304E+0	1.055474E+0	1.164331E+0	1.137434E+0	1.181377E+0	1.200238E+0	1.125736E+0	1.118925E+0	1.177980E+0	1.154864E+0	1.165263E+0	1.158921E+0	1.193593E+0	1.095523E+0	1.203020E+0	1.108572E+0	1.177761E+0	1.124366E+0	1.154574E+0	1.102483E+0	1.184055E+0	1.148913E+0	1.155923E+0	1.167360E+0	1.183482E+0	1.118128E+0	1.215160E+0	1.151658E+0	1.224238E+0	1.119013E+0	1.128891E+0	1.182307E+0	1.193514E+0	1.132727E+0	1.172128E+0	1.141947E+0	1.115857E+0	1.138429E+0	1.158225E+0	1.141520E+0	1.129888E+0	1.194450E+0	1.125146E+0	1.143214E+0	1.182158E+0	1.165841E+0	1.185740E+0	1.167868E+0	1.157157E+0	1.148148E+0	1.142144E+0	1.156430E+0	1.142866E+0	1.102389E+0	1.144092E+0	1.142142E+0	1.158741E+0	1.151179E+0	1.143478E+0	1.171104E+0	1.137652E+0	1.123240E+0	1.153574E+0	1.157372E+0	1.163394E+0	1.173641E+0	1.115634E+0	1.166192E+0	1.172871E+0	1.174832E+0	1.184081E+0	1.155081E+0	1.209513E+0	1.112751E+0	1.141375E+0	1.142523E+0	1.128627E+0	1.158897E+0	1.136693E+0	1.177872E+0	1.282923E+0
2.940110E+2	9.705556E-1	1.033289E+0	1.009290E+0	1.046639E+0	1.016279E+0	9.576400E-1	1.068671E+0	9.717734E-1	9.808763E-1	1.011035E+0	9.974916E-1	9.693441E-1	1.029883E+0	1.024239E+0	1.050223E+0	9.942297E-1	9.759300E-1	1.061449E+0	1.020559E+0	1.002944E+0	1.051106E+0	9.913368E-1	1.032285E+0	1.018015E+0	1.010386E+0	9.957256E-1	9.997985E-1	9.903735E-1	1.006857E+0	1.044902E+0	1.032311E+0	1.056506E+0	9.543263E-1	9.355203E-1	9.774348E-1	1.037469E+0	9.877935E-1	9.889792E-1	1.016275E+0	1.043789E+0	9.472321E-1	1.017068E+0	9.787543E-1	1.007178E+0	1.045096E+0	9.937877E-1	1.027193E+0	1.009961E+0	1.022480E+0	9.976545E-1	1.016051E+0	9.520014E-1	1.034978E+0	9.958099E-1	9.721198E-1	9.805834E-1	1.029516E+0	1.079558E+0	1.028493E+0	1.018410E+0	1.054863E+0	9.723054E-1	1.034730E+0	1.000856E+0	1.063983E+0	9.933472E-1	9.798764E-1	9.731113E-1	1.064250E+0	1.000475E+0	1.021217E+0	1.014614E+0	1.071197E+0	1.010648E+0	1.005546E+0	9.893030E-1	1.019549E+0	1.028038E+0	1.003175E+0	1.030431E+0	1.059378E+0	9.732005E-1	9.807667E-1	1.028191E+0	1.036698E+0	1.005001E+0	1.012567E+0	9.964810E-1	9.984977E-1	1.045274E+0	1.021610E+0	9.942900E-1	1.031318E+0	1.007932E+0	1.029358E+0	1.021570E+0	1.076140E+0	1.072527E+0	1.019465E+0	1.006079E+0	1.025749E+0	9.825623E-1	9.683931E-1	9.997039E-1	1.033909E+0	1.021829E+0	1.058702E+0	1.038909E+0	1.058713E+0	1.026339E+0	1.031484E+0	1.031072E+0	1.027906E+0	9.851757E-1	1.048660E+0	9.639716E-1	1.079206E+0	1.028240E+0	1.026562E+0	1.054650E+0	1.031283E+0	1.040829E+0	1.044853E+0	1.033202E+0	9.749743E-1	1.007867E+0	1.020330E+0	1.014758E+0	9.792303E-1	1.048952E+0	9.725790E-1	1.035887E+0	1.005349E+0	1.032192E+0	9.877087E-1	9.528327E-1	9.939931E-1	9.959672E-1	1.062756E+0	9.790372E-1	1.017178E+0	1.007159E+0	1.046923E+0	9.935189E-1	1.040848E+0	1.021526E+0	9.871800E-1	1.072149E+0	1.036396E+0	9.992680E-1	1.032973E+0	9.717433E-1	1.008763E+0	1.054748E+0	1.043413E+0	1.050771E+0	9.942933E-1	1.037608E+0	1.013435E+0	1.005254E+0	1.041114E+0	1.062610E+0	1.020471E+0	9.924830E-1	1.008402E+0	9.920226E-1	1.022536E+0	1.018829E+0	1.004032E+0	1.020212E+0	1.041230E+0
2.945010E+2	8.904881E-1	9.250884E-1	8.760132E-1	8.980369E-1	9.492492E-1	8.909584E-1	9.026563E-1	9.102853E-1	8.915528E-1	8.872485E-1	9.121802E-1	8.294693E-1	8.827453E-1	8.893552E-1	9.193016E-1	8.796723E-1	9.408753E-1	8.451105E-1	9.187125E-1	9.240354E-1	9.138566E-1	8.961704E-1	8.764528E-1	9.002128E-1	9.006847E-1	8.947501E-1	8.892150E-1	9.112315E-1	9.105142E-1	8.902661E-1	9.085792E-1	9.448101E-1	8.765559E-1	8.954437E-1	8.762763E-1	9.527701E-1	8.819726E-1	8.992776E-1	8.803890E-1	8.414067E-1	8.346141E-1	9.127524E-1	8.890527E-1	9.102107E-1	9.280127E-1	8.928493E-1	9.239288E-1	9.084337E-1	9.383008E-1	9.231280E-1	8.603029E-1	8.828269E-1	9.249109E-1	9.198694E-1	9.249736E-1	8.726331E-1	8.686882E-1	8.980090E-1	9.220046E-1	9.031279E-1	9.229694E-1	8.770839E-1	9.069311E-1	9.118974E-1	9.389958E-1	9.353090E-1	8.617145E-1	8.501631E-1	9.011310E-1	9.048078E-1	9.099754E-1	8.979935E-1	9.146438E-1	8.663608E-1	9.213731E-1	8.988294E-1	8.500292E-1	8.964672E-1	8.761115E-1	8.740127E-1	9.528039E-1	8.779769E-1	8.629822E-1	8.679747E-1	9.003343E-1	9.037931E-1	9.575822E-1	9.037656E-1	9.501616E-1	8.812481E-1	8.422571E-1	9.028010E-1	8.943492E-1	8.840161E-1	8.970358E-1	9.286725E-1	9.242939E-1	9.091359E-1	8.429595E-1	8.675247E-1	9.458061E-1	8.996005E-1	9.286542E-1	9.016308E-1	9.710425E-1	9.119294E-1	9.041873E-1	9.147908E-1	9.536824E-1	9.046541E-1	9.238104E-1	8.795816E-1	9.274199E-1	8.298587E-1	9.243380E-1	8.497297E-1	9.105064E-1	9.100635E-1	9.490523E-1	9.155505E-1	9.096968E-1	9.234646E-1	9.288001E-1	9.036417E-1	9.078051E-1	9.193177E-1	9.169371E-1	8.617536E-1	8.879307E-1	8.854467E-1	8.979598E-1	8.948972E-1	9.101328E-1	8.941443E-1	9.309324E-1	9.356225E-1	9.169640E-1	9.114424E-1	9.562152E-1	9.016994E-1	9.457230E-1	9.003968E-1	9.276292E-1	8.704349E-1	9.032887E-1	8.895948E-1	8.881183E-1	9.366682E-1	8.714408E-1	9.346967E-1	8.843786E-1	9.281058E-1	8.488404E-1	9.614957E-1	9.459013E-1	8.752100E-1	8.878949E-1	9.540471E-1	9.231023E-1	8.963246E-1	9.555117E-1	8.615350E-1	9.688600E-1	8.913102E-1	9.221979E-1	8.864480E-1	9.018496E-1	9.407176E-1	8.686931E-1	9.131676E-1	1.000223E+0
2.950070E+2	9.671496E-1	9.137548E-1	9.150652E-1	9.655193E-1	9.598275E-1	9.424844E-1	9.304869E-1	9.373993E-1	9.298778E-1	9.413511E-1	9.529902E-1	9.287721E-1	1.005749E+0	9.278011E-1	9.305806E-1	9.530807E-1	9.316015E-1	9.278054E-1	9.735800E-1	9.260709E-1	9.373175E-1	9.996411E-1	9.821214E-1	9.516115E-1	9.505092E-1	9.444976E-1	1.003390E+0	9.190221E-1	9.669826E-1	9.488514E-1	9.183442E-1	9.719179E-1	9.150415E-1	9.108449E-1	9.743677E-1	9.625316E-1	9.351146E-1	9.348360E-1	9.174205E-1	9.651294E-1	9.541956E-1	9.569784E-1	1.002966E+0	9.430793E-1	9.657157E-1	9.588908E-1	9.820374E-1	9.827412E-1	9.556799E-1	9.550325E-1	9.284977E-1	8.986696E-1	9.667395E-1	9.559419E-1	9.741423E-1	9.402338E-1	9.777260E-1	9.352458E-1	1.010739E+0	9.713102E-1	9.823995E-1	9.620487E-1	9.503663E-1	9.403269E-1	1.003107E+0	9.338009E-1	9.319461E-1	9.509205E-1	9.456617E-1	9.513225E-1	9.748139E-1	9.176531E-1	9.527784E-1	9.565883E-1	9.524255E-1	8.968491E-1	9.541213E-1	9.852957E-1	9.918428E-1	9.499689E-1	9.169205E-1	9.749000E-1	9.476129E-1	9.298269E-1	9.625353E-1	9.749833E-1	9.711930E-1	9.248275E-1	9.122770E-1	9.495298E-1	9.301039E-1	9.313516E-1	9.740554E-1	9.478856E-1	9.482941E-1	9.294563E-1	9.203397E-1	9.625833E-1	9.450027E-1	8.965684E-1	9.369347E-1	9.281037E-1	9.328802E-1	9.701552E-1	9.919950E-1	9.721153E-1	9.926975E-1	9.605141E-1	9.859331E-1	9.247733E-1	9.433623E-1	9.660173E-1	9.767973E-1	9.186014E-1	9.823199E-1	9.413455E-1	1.006595E+0	9.820741E-1	9.159324E-1	9.538668E-1	9.445912E-1	9.781701E-1	9.430582E-1	9.865017E-1	9.292383E-1	9.151763E-1	9.315641E-1	9.495553E-1	8.757669E-1	9.748095E-1	9.394876E-1	9.832747E-1	9.585561E-1	9.065641E-1	9.511945E-1	9.432553E-1	1.007975E+0	9.725065E-1	9.576359E-1	9.001369E-1	9.741065E-1	9.423129E-1	9.309911E-1	9.475326E-1	9.399602E-1	9.232498E-1	9.936888E-1	9.965195E-1	9.513558E-1	9.920555E-1	9.104091E-1	9.339666E-1	1.014951E+0	9.894369E-1	9.984955E-1	9.747037E-1	9.083986E-1	9.809254E-1	9.630809E-1	9.398669E-1	9.475903E-1	9.237591E-1	9.682033E-1	9.564658E-1	9.313119E-1	9.725400E-1	9.668753E-1	9.627275E-1	9.446870E-1	9.188189E-1	7.894677E-1
2.955070E+2	1.060242E+0	1.108216E+0	1.091277E+0	1.087262E+0	1.052536E+0	1.066948E+0	1.051815E+0	1.121242E+0	1.074485E+0	1.054588E+0	1.104454E+0	1.098170E+0	1.087498E+0	1.103738E+0	1.052739E+0	1.064397E+0	1.061091E+0	1.111519E+0	1.046183E+0	1.073329E+0	1.058164E+0	1.067306E+0	1.090112E+0	1.093889E+0	1.063148E+0	1.072199E+0	1.060050E+0	1.107486E+0	1.034449E+0	1.093352E+0	1.064172E+0	1.080364E+0	1.104064E+0	1.039096E+0	1.027745E+0	1.103583E+0	1.056557E+0	1.094879E+0	1.120265E+0	1.026943E+0	1.093689E+0	1.112508E+0	1.111563E+0	1.026911E+0	1.074512E+0	1.046632E+0	1.059939E+0	1.170241E+0	1.086714E+0	1.060728E+0	1.070175E+0	1.142705E+0	1.089000E+0	1.085509E+0	1.074370E+0	1.098163E+0	1.084961E+0	1.054846E+0	1.107212E+0	1.059210E+0	1.067113E+0	1.047403E+0	1.091451E+0	1.052854E+0	1.090751E+0	1.055192E+0	1.075325E+0	1.099828E+0	1.071437E+0	1.066385E+0	1.084121E+0	1.088680E+0	1.147918E+0	1.042928E+0	1.083858E+0	1.046314E+0	1.089593E+0	1.104783E+0	1.078555E+0	1.039264E+0	1.062650E+0	1.135055E+0	1.118422E+0	1.074313E+0	1.121414E+0	1.073502E+0	1.056307E+0	1.019917E+0	1.064702E+0	1.053068E+0	1.049026E+0	1.080324E+0	1.068582E+0	1.026049E+0	1.077931E+0	1.070806E+0	1.091693E+0	1.109315E+0	1.083287E+0	1.032440E+0	1.089828E+0	1.058123E+0	1.106112E+0	1.081280E+0	1.123486E+0	1.119246E+0	1.140516E+0	1.080604E+0	1.080364E+0	1.036198E+0	1.052295E+0	1.074570E+0	1.090374E+0	1.085030E+0	1.069186E+0	1.025416E+0	1.042837E+0	1.070515E+0	1.086421E+0	1.114595E+0	1.065366E+0	1.037563E+0	1.083593E+0	1.068301E+0	1.102126E+0	1.044850E+0	1.030118E+0	1.116037E+0	1.044801E+0	1.071966E+0	1.092463E+0	1.126036E+0	1.059403E+0	1.070081E+0	1.078716E+0	1.076343E+0	1.100838E+0	1.138057E+0	1.099455E+0	1.110825E+0	1.119308E+0	1.110738E+0	1.048559E+0	1.088387E+0	1.098391E+0	1.106906E+0	1.120637E+0	1.104694E+0	1.068244E+0	1.039814E+0	1.035560E+0	1.080051E+0	1.037392E+0	1.147307E+0	1.115137E+0	1.103066E+0	1.075826E+0	1.094295E+0	1.056260E+0	1.044360E+0	1.115468E+0	1.061607E+0	1.104585E+0	1.106754E+0	1.078846E+0	1.076114E+0	1.094967E+0	1.062980E+0	1.156408E+0	1.097253E+0	1.073167E+0
2.960050E+2	1.142953E+0	1.113814E+0	1.097678E+0	1.156581E+0	1.142775E+0	1.138182E+0	1.140126E+0	1.118708E+0	1.106030E+0	1.202317E+0	1.146839E+0	1.138257E+0	1.141148E+0	1.141383E+0	1.202769E+0	1.130513E+0	1.148769E+0	1.122524E+0	1.114491E+0	1.081835E+0	1.113211E+0	1.135523E+0	1.118648E+0	1.139197E+0	1.182158E+0	1.120643E+0	1.150983E+0	1.138949E+0	1.144442E+0	1.173743E+0	1.134490E+0	1.062844E+0	1.115678E+0	1.118128E+0	1.148217E+0	1.173856E+0	1.148754E+0	1.156222E+0	1.132497E+0	1.111748E+0	1.139282E+0	1.066030E+0	1.141001E+0	1.075081E+0	1.176289E+0	1.119972E+0	1.197707E+0	1.113116E+0	1.138408E+0	1.144328E+0	1.095140E+0	1.052525E+0	1.140101E+0	1.124971E+0	1.078518E+0	1.051584E+0	1.146589E+0	1.127135E+0	1.117034E+0	1.110815E+0	1.208335E+0	1.059576E+0	1.152930E+0	1.134793E+0	1.160984E+0	1.113129E+0	1.125520E+0	1.175277E+0	1.124299E+0	1.165851E+0	1.154600E+0	1.156293E+0	1.149772E+0	1.171412E+0	1.109903E+0	1.078999E+0	1.108328E+0	1.162368E+0	1.096768E+0	1.111338E+0	1.123284E+0	1.099923E+0	1.150561E+0	1.133378E+0	1.101715E+0	1.072077E+0	1.130847E+0	1.108827E+0	1.155235E+0	1.159469E+0	1.076347E+0	1.147496E+0	1.164429E+0	1.173146E+0	1.134977E+0	1.127053E+0	1.137261E+0	1.190155E+0	1.122252E+0	1.086147E+0	1.168869E+0	1.111724E+0	1.128858E+0	1.134729E+0	1.116405E+0	1.148569E+0	1.135733E+0	1.114039E+0	1.134467E+0	1.104614E+0	1.189074E+0	1.182832E+0	1.157321E+0	1.132187E+0	1.121948E+0	1.076142E+0	1.165504E+0	1.065024E+0	1.152766E+0	1.161042E+0	1.170265E+0	1.148194E+0	1.135855E+0	1.150293E+0	1.100405E+0	1.154537E+0	1.099698E+0	1.131451E+0	1.166628E+0	1.177156E+0	1.154276E+0	1.109564E+0	1.168856E+0	1.176688E+0	1.126959E+0	1.109850E+0	1.213472E+0	1.112347E+0	1.178164E+0	1.150576E+0	1.132014E+0	1.110625E+0	1.156971E+0	1.078137E+0	1.168759E+0	1.104690E+0	1.202220E+0	1.180976E+0	1.063514E+0	1.141641E+0	1.075375E+0	1.111875E+0	1.110531E+0	1.215160E+0	1.125854E+0	1.121617E+0	1.132618E+0	1.126282E+0	1.097528E+0	1.107030E+0	1.169824E+0	1.121318E+0	1.113521E+0	1.138083E+0	1.130223E+0	1.165734E+0	1.179164E+0	1.122293E+0	1.175272E+0	1.171322E+0	1.056550E+0
2.965010E+2	1.005110E+0	1.089395E+0	1.046642E+0	1.106295E+0	1.101273E+0	1.056464E+0	1.052226E+0	1.125300E+0	1.084208E+0	1.047240E+0	1.069983E+0	1.088125E+0	1.088935E+0	1.015196E+0	1.064510E+0	1.024229E+0	1.081927E+0	1.075512E+0	1.063704E+0	1.059575E+0	1.060019E+0	1.016525E+0	1.075968E+0	1.047892E+0	1.064392E+0	1.037122E+0	1.050941E+0	1.101528E+0	1.066604E+0	1.058362E+0	1.072844E+0	1.053128E+0	1.056864E+0	1.031160E+0	1.079032E+0	1.044296E+0	1.080665E+0	1.093254E+0	1.066751E+0	1.038798E+0	1.063050E+0	1.086760E+0	1.071197E+0	1.066596E+0	1.059719E+0	1.082463E+0	1.135114E+0	1.047638E+0	1.068648E+0	1.040004E+0	1.065714E+0	1.051607E+0	1.014378E+0	1.090547E+0	1.078863E+0	1.065179E+0	1.084979E+0	1.026215E+0	1.052288E+0	1.019847E+0	9.992828E-1	1.039230E+0	1.055918E+0	1.049639E+0	1.076588E+0	1.078281E+0	1.061702E+0	1.051115E+0	1.051631E+0	1.060165E+0	1.114830E+0	1.035458E+0	1.110200E+0	1.034019E+0	1.030046E+0	1.018791E+0	1.075460E+0	1.079981E+0	1.040011E+0	1.043124E+0	1.065012E+0	1.069686E+0	1.095692E+0	1.056412E+0	1.025725E+0	1.020377E+0	1.053432E+0	1.037212E+0	1.109351E+0	1.097526E+0	1.008048E+0	1.073062E+0	1.077265E+0	1.049694E+0	1.088331E+0	1.053154E+0	1.102609E+0	1.018338E+0	1.070663E+0	1.097021E+0	1.057110E+0	1.038327E+0	1.065623E+0	1.079896E+0	1.058606E+0	1.071643E+0	1.078815E+0	1.045397E+0	1.077609E+0	1.019263E+0	1.043524E+0	1.075009E+0	1.120329E+0	1.095006E+0	1.074888E+0	1.020765E+0	1.103347E+0	1.086341E+0	1.066908E+0	1.063542E+0	1.044231E+0	1.048790E+0	1.081478E+0	1.031577E+0	1.052697E+0	1.071952E+0	9.806311E-1	1.098945E+0	1.086081E+0	1.070615E+0	1.089530E+0	1.086646E+0	1.065993E+0	1.043129E+0	1.029313E+0	1.039679E+0	1.121674E+0	1.098240E+0	1.120021E+0	1.065960E+0	1.080347E+0	1.030176E+0	1.052404E+0	1.046530E+0	1.054839E+0	1.050613E+0	1.084012E+0	1.045899E+0	1.019879E+0	1.105819E+0	1.081550E+0	1.020154E+0	9.882241E-1	1.115294E+0	1.044849E+0	1.050211E+0	1.072267E+0	1.092962E+0	1.071299E+0	1.006916E+0	1.109133E+0	1.063821E+0	1.093165E+0	1.070872E+0	1.027724E+0	1.062542E+0	1.055017E+0	1.118844E+0	1.057421E+0	1.025524E+0	1.008871E+0
2.970040E+2	9.577609E-1	9.846780E-1	9.407315E-1	9.840303E-1	9.535233E-1	9.397736E-1	9.953765E-1	9.721385E-1	1.007854E+0	9.462842E-1	9.461749E-1	9.768536E-1	9.723351E-1	9.607677E-1	9.516793E-1	9.971112E-1	9.526518E-1	9.279064E-1	9.469631E-1	9.528558E-1	9.908918E-1	9.475996E-1	9.691635E-1	9.900923E-1	9.678333E-1	9.830150E-1	9.407631E-1	9.523524E-1	9.885317E-1	9.533933E-1	9.301119E-1	9.226654E-1	9.691665E-1	9.602182E-1	9.780047E-1	9.890715E-1	9.646042E-1	9.613513E-1	9.507989E-1	9.769040E-1	9.701486E-1	9.830322E-1	9.925577E-1	9.698342E-1	9.533075E-1	9.317454E-1	9.930884E-1	9.788698E-1	1.005464E+0	9.901600E-1	9.377337E-1	9.974030E-1	9.295543E-1	9.906730E-1	9.602751E-1	9.613966E-1	9.498071E-1	1.008603E+0	1.030641E+0	9.656779E-1	9.671812E-1	9.759088E-1	9.041198E-1	9.803730E-1	9.852965E-1	9.654014E-1	9.379659E-1	9.498563E-1	9.695659E-1	9.478560E-1	9.419502E-1	9.582570E-1	1.027506E+0	9.779811E-1	9.644390E-1	9.676532E-1	1.004248E+0	9.453557E-1	9.922581E-1	9.652333E-1	9.509385E-1	1.005752E+0	9.939242E-1	9.666712E-1	9.797474E-1	9.996654E-1	1.029347E+0	9.012081E-1	9.977102E-1	9.833924E-1	9.324131E-1	9.789393E-1	9.853253E-1	9.447719E-1	9.547701E-1	9.439993E-1	9.420134E-1	9.337297E-1	9.912312E-1	9.271947E-1	9.545663E-1	9.349299E-1	9.760287E-1	9.742979E-1	9.393217E-1	9.843392E-1	9.990832E-1	9.430707E-1	9.598494E-1	9.584105E-1	9.500910E-1	9.451550E-1	9.712205E-1	1.000689E+0	9.725386E-1	9.252395E-1	1.011853E+0	9.575595E-1	9.860275E-1	9.947347E-1	9.268425E-1	1.020452E+0	9.820265E-1	9.611284E-1	1.028068E+0	9.738330E-1	9.077140E-1	9.961468E-1	9.605834E-1	9.309145E-1	9.448152E-1	9.610757E-1	9.713746E-1	9.716238E-1	9.780022E-1	9.529214E-1	9.617928E-1	9.383955E-1	9.769965E-1	1.001658E+0	9.597179E-1	9.417103E-1	9.638006E-1	9.967415E-1	9.948046E-1	9.891272E-1	9.749287E-1	9.952386E-1	9.877510E-1	9.765662E-1	9.468040E-1	9.630702E-1	9.865613E-1	1.053742E+0	9.960661E-1	9.780804E-1	9.409102E-1	9.519585E-1	9.641199E-1	9.480047E-1	9.819499E-1	9.653890E-1	9.829537E-1	9.367738E-1	9.458329E-1	9.750097E-1	9.565453E-1	9.758097E-1	9.693363E-1	8.748996E-1	9.478732E-1
2.975020E+2	9.931004E-1	1.001817E+0	1.036462E+0	1.051384E+0	1.004687E+0	1.004003E+0	1.016157E+0	1.001738E+0	1.009056E+0	1.013934E+0	9.997412E-1	1.000568E+0	9.965826E-1	9.947252E-1	9.943020E-1	9.871959E-1	1.016160E+0	9.792526E-1	9.908171E-1	1.022059E+0	9.858367E-1	1.006994E+0	1.037864E+0	1.010669E+0	1.033273E+0	9.644395E-1	9.873934E-1	1.065210E+0	9.965817E-1	1.047861E+0	1.017789E+0	9.992321E-1	9.936314E-1	1.020751E+0	9.879002E-1	1.017781E+0	1.008833E+0	9.936877E-1	9.713606E-1	1.033298E+0	9.641139E-1	9.782286E-1	1.022450E+0	1.030475E+0	9.806157E-1	1.031582E+0	1.040190E+0	1.010617E+0	9.873879E-1	1.017812E+0	1.006706E+0	1.059428E+0	9.930012E-1	1.005175E+0	9.946221E-1	9.835608E-1	1.016770E+0	9.846531E-1	1.023297E+0	1.010519E+0	9.918733E-1	1.036452E+0	1.020500E+0	1.002778E+0	1.024436E+0	9.755506E-1	1.013874E+0	9.860952E-1	1.009950E+0	9.785731E-1	1.027912E+0	9.908444E-1	9.990976E-1	9.780860E-1	9.854200E-1	9.897071E-1	1.031377E+0	1.001693E+0	1.009461E+0	1.029242E+0	9.660523E-1	1.023210E+0	9.848972E-1	1.024838E+0	1.012409E+0	1.007044E+0	9.960851E-1	1.020262E+0	1.021918E+0	9.992198E-1	9.612684E-1	1.021492E+0	9.663114E-1	9.487385E-1	9.562901E-1	9.885522E-1	9.685539E-1	1.010840E+0	9.992078E-1	1.009619E+0	9.863821E-1	9.938882E-1	9.895958E-1	9.882535E-1	1.009982E+0	9.948880E-1	9.917857E-1	9.885547E-1	9.992586E-1	9.908748E-1	1.001663E+0	1.010904E+0	9.990563E-1	1.003489E+0	1.014002E+0	1.061282E+0	9.841391E-1	9.731378E-1	1.021988E+0	1.000981E+0	9.766105E-1	9.980461E-1	9.868797E-1	1.023302E+0	1.013139E+0	1.004272E+0	1.018684E+0	9.993406E-1	9.987200E-1	1.019022E+0	9.911169E-1	9.766812E-1	9.991358E-1	1.007042E+0	1.000983E+0	9.836026E-1	9.893073E-1	9.846572E-1	1.013938E+0	9.889563E-1	1.008201E+0	1.005595E+0	9.978492E-1	1.007296E+0	9.656091E-1	9.850368E-1	1.003697E+0	9.988164E-1	9.856262E-1	9.981263E-1	1.025965E+0	1.017549E+0	1.018491E+0	9.624126E-1	1.027107E+0	9.944391E-1	9.713475E-1	9.907254E-1	1.037506E+0	1.013605E+0	9.710389E-1	9.740437E-1	9.823617E-1	9.970530E-1	1.011044E+0	1.025038E+0	9.989759E-1	9.560855E-1	9.810663E-1	1.064481E+0	1.042048E+0
2.980040E+2	1.006531E+0	1.027447E+0	1.041482E+0	1.006328E+0	1.032547E+0	1.060144E+0	1.021881E+0	1.081609E+0	1.036319E+0	1.016713E+0	1.023214E+0	1.048542E+0	1.064248E+0	1.054992E+0	1.035747E+0	1.047910E+0	1.013983E+0	1.065045E+0	1.048914E+0	1.064325E+0	1.017480E+0	1.012061E+0	1.004445E+0	1.022771E+0	9.899233E-1	1.023496E+0	1.053031E+0	1.035171E+0	1.041907E+0	9.995130E-1	9.905422E-1	1.008091E+0	9.950916E-1	1.020491E+0	1.022397E+0	1.036234E+0	1.014850E+0	1.012391E+0	1.013465E+0	1.025416E+0	1.058243E+0	1.010498E+0	1.047350E+0	1.024186E+0	1.013893E+0	1.017244E+0	1.031653E+0	1.016121E+0	1.064426E+0	9.942227E-1	1.035765E+0	1.018609E+0	1.042486E+0	9.959314E-1	1.056869E+0	1.018780E+0	1.052273E+0	1.031826E+0	1.053802E+0	1.018668E+0	1.029625E+0	9.924842E-1	1.000277E+0	1.023626E+0	1.001205E+0	1.035423E+0	1.027893E+0	1.063122E+0	1.012541E+0	1.065061E+0	1.025258E+0	1.010078E+0	1.065004E+0	1.007121E+0	1.021923E+0	1.019303E+0	1.033541E+0	1.016346E+0	1.033255E+0	1.030321E+0	1.007495E+0	1.013575E+0	1.036598E+0	1.058217E+0	1.026491E+0	1.017838E+0	1.035685E+0	1.035497E+0	1.052658E+0	1.073133E+0	1.065354E+0	1.049450E+0	1.064699E+0	1.034547E+0	1.005999E+0	1.025099E+0	1.056327E+0	1.031445E+0	1.000052E+0	9.731481E-1	1.041637E+0	1.000554E+0	1.044123E+0	1.056622E+0	1.006980E+0	1.035281E+0	1.012512E+0	1.036575E+0	1.041038E+0	1.051605E+0	1.046756E+0	1.031646E+0	1.010219E+0	1.014065E+0	1.002980E+0	1.034008E+0	1.022282E+0	1.047682E+0	1.042500E+0	1.014409E+0	1.003202E+0	1.037917E+0	1.062025E+0	1.005605E+0	1.063621E+0	1.071814E+0	1.032202E+0	1.040477E+0	1.032969E+0	9.915256E-1	1.031180E+0	1.000868E+0	1.042609E+0	1.034586E+0	1.035690E+0	1.025614E+0	1.080509E+0	1.022624E+0	1.027815E+0	1.028317E+0	1.016246E+0	1.046703E+0	1.012418E+0	1.004867E+0	1.028653E+0	1.012859E+0	1.052621E+0	1.057029E+0	1.013676E+0	1.012340E+0	9.901291E-1	1.025113E+0	1.015851E+0	1.001880E+0	1.026970E+0	1.073950E+0	1.018372E+0	1.049151E+0	1.005939E+0	1.016351E+0	1.032394E+0	1.047101E+0	9.960043E-1	1.017230E+0	1.012319E+0	1.012009E+0	9.816658E-1	1.028528E+0	1.055821E+0	1.061323E+0	1.173058E+0
2.985010E+2	1.044137E+0	9.780896E-1	1.055828E+0	1.021584E+0	1.042877E+0	1.037291E+0	1.066677E+0	1.065516E+0	1.082429E+0	1.075195E+0	1.031503E+0	1.029409E+0	1.046822E+0	1.057694E+0	1.009992E+0	1.038884E+0	1.062683E+0	1.033349E+0	1.049595E+0	1.003205E+0	1.022378E+0	1.076260E+0	1.054636E+0	1.065264E+0	1.041876E+0	1.067913E+0	1.038808E+0	1.032293E+0	1.059699E+0	1.041997E+0	1.049903E+0	1.075572E+0	1.019467E+0	1.025617E+0	1.067558E+0	1.081557E+0	1.038480E+0	1.065419E+0	1.067464E+0	1.032502E+0	1.032264E+0	1.033644E+0	1.047099E+0	1.054113E+0	1.062840E+0	1.048944E+0	1.010340E+0	1.045089E+0	1.044797E+0	1.039418E+0	1.028440E+0	1.044345E+0	1.058167E+0	1.070520E+0	1.060019E+0	1.057532E+0	1.049678E+0	1.065904E+0	9.995183E-1	1.089652E+0	1.059037E+0	1.054528E+0	1.042103E+0	1.056409E+0	1.055555E+0	1.040425E+0	1.036745E+0	1.065333E+0	1.049570E+0	1.033646E+0	1.064109E+0	1.040629E+0	1.015687E+0	1.079858E+0	1.045348E+0	1.097636E+0	1.073137E+0	1.038765E+0	1.038729E+0	1.051979E+0	1.031160E+0	1.021168E+0	1.049549E+0	1.051751E+0	1.036410E+0	1.035297E+0	1.028109E+0	1.044934E+0	1.069003E+0	1.040367E+0	1.077648E+0	1.026498E+0	1.032578E+0	1.060064E+0	1.043083E+0	1.037173E+0	1.035848E+0	1.041501E+0	1.043427E+0	1.049795E+0	1.059414E+0	1.056634E+0	1.035483E+0	1.008085E+0	1.053657E+0	1.020751E+0	1.080986E+0	1.043532E+0	1.013730E+0	1.042299E+0	1.086615E+0	1.067248E+0	1.057153E+0	1.048684E+0	1.045661E+0	1.018167E+0	1.064394E+0	1.058010E+0	1.028741E+0	1.100208E+0	1.045220E+0	1.042647E+0	1.074642E+0	1.031069E+0	1.041385E+0	1.016790E+0	1.052770E+0	1.054282E+0	1.042074E+0	1.050344E+0	1.037445E+0	1.066747E+0	1.045466E+0	1.063095E+0	1.007894E+0	1.053774E+0	1.045499E+0	1.054553E+0	1.040907E+0	1.015381E+0	1.044387E+0	1.041675E+0	1.045452E+0	1.053051E+0	1.030086E+0	1.037112E+0	9.995423E-1	1.067791E+0	1.058559E+0	1.035304E+0	1.045307E+0	1.044065E+0	1.057104E+0	1.065861E+0	1.051587E+0	1.015970E+0	1.048696E+0	1.084781E+0	1.023323E+0	1.028742E+0	1.069528E+0	1.013172E+0	1.070631E+0	1.039381E+0	1.016152E+0	1.016060E+0	1.047837E+0	1.066404E+0	1.053457E+0	9.821385E-1	9.438020E-1
2.990020E+2	1.042046E+0	1.026166E+0	1.024749E+0	1.000305E+0	1.004273E+0	1.011752E+0	9.898581E-1	9.580261E-1	1.015125E+0	9.753326E-1	1.011548E+0	1.026757E+0	1.000387E+0	9.965767E-1	1.024688E+0	9.984117E-1	9.628035E-1	9.962085E-1	9.976025E-1	9.926927E-1	1.011299E+0	9.929453E-1	1.013823E+0	9.865831E-1	9.929086E-1	1.043902E+0	1.007570E+0	9.962949E-1	1.019733E+0	1.026501E+0	9.859205E-1	1.037768E+0	1.055250E+0	1.020104E+0	1.024645E+0	9.981313E-1	9.783759E-1	9.649721E-1	1.039447E+0	1.014551E+0	9.997129E-1	1.003609E+0	9.862761E-1	1.012707E+0	1.003792E+0	1.009699E+0	1.004082E+0	1.003849E+0	9.941914E-1	1.044807E+0	9.951214E-1	9.715729E-1	1.017684E+0	1.006463E+0	1.001974E+0	1.019537E+0	9.919280E-1	9.908053E-1	1.016924E+0	1.008101E+0	9.793061E-1	1.026140E+0	1.026159E+0	9.683299E-1	1.009845E+0	1.005043E+0	1.014320E+0	1.026218E+0	9.964962E-1	1.004916E+0	9.668688E-1	1.036948E+0	1.032409E+0	1.034221E+0	1.030595E+0	9.580966E-1	1.008348E+0	1.028589E+0	1.007586E+0	1.009805E+0	1.034804E+0	9.848522E-1	1.016231E+0	9.866367E-1	9.588781E-1	9.903282E-1	1.030127E+0	1.011567E+0	9.877348E-1	9.908337E-1	1.024246E+0	1.011648E+0	1.018321E+0	1.013537E+0	1.020289E+0	1.033060E+0	1.005920E+0	1.004476E+0	1.040055E+0	1.015865E+0	9.903171E-1	1.031858E+0	1.007384E+0	1.005371E+0	9.980972E-1	1.019238E+0	9.867199E-1	9.814875E-1	1.019961E+0	9.829170E-1	9.837360E-1	9.831358E-1	9.952484E-1	1.014033E+0	1.028075E+0	9.528775E-1	9.809231E-1	9.826174E-1	9.592345E-1	1.024989E+0	1.005356E+0	9.839260E-1	1.000616E+0	1.021665E+0	9.824514E-1	9.692464E-1	1.011157E+0	1.024009E+0	9.948656E-1	1.005351E+0	9.637180E-1	1.003382E+0	9.883993E-1	1.013598E+0	1.029612E+0	9.928852E-1	9.766805E-1	9.908554E-1	9.984214E-1	1.014614E+0	1.018257E+0	9.942554E-1	9.833942E-1	1.004131E+0	1.011872E+0	1.024010E+0	9.945706E-1	9.900967E-1	9.711421E-1	1.003305E+0	1.002923E+0	1.019828E+0	1.034996E+0	1.007236E+0	9.768188E-1	1.009467E+0	1.025969E+0	9.737793E-1	1.022767E+0	1.020830E+0	9.970445E-1	1.014742E+0	1.018607E+0	1.005429E+0	1.006966E+0	1.029058E+0	1.054021E+0	1.006945E+0	9.869652E-1	9.851931E-1	9.865609E-1
2.995040E+2	9.202236E-1	9.707651E-1	9.212055E-1	9.134284E-1	9.554920E-1	9.415436E-1	9.275320E-1	9.223409E-1	9.015405E-1	9.194147E-1	9.439172E-1	9.130409E-1	9.090117E-1	9.042990E-1	9.514088E-1	9.260045E-1	9.542435E-1	9.351298E-1	9.312994E-1	9.361478E-1	9.532775E-1	9.187615E-1	9.448396E-1	9.306399E-1	9.329515E-1	9.521192E-1	9.303806E-1	9.193177E-1	9.300247E-1	8.964910E-1	9.536687E-1	9.419726E-1	9.391951E-1	9.244546E-1	9.215312E-1	9.320061E-1	9.512998E-1	9.314141E-1	9.423807E-1	9.464211E-1	9.506762E-1	9.453621E-1	9.476383E-1	9.408168E-1	9.439384E-1	9.333769E-1	9.167081E-1	9.518537E-1	9.318305E-1	9.115224E-1	9.381591E-1	9.239992E-1	9.155583E-1	9.258683E-1	9.209213E-1	9.406379E-1	9.012848E-1	9.592200E-1	9.217977E-1	9.434014E-1	9.502608E-1	9.090236E-1	9.316449E-1	9.470107E-1	9.280457E-1	9.921285E-1	8.938565E-1	8.891742E-1	9.470861E-1	9.078941E-1	9.312384E-1	9.292443E-1	9.071128E-1	9.374585E-1	9.574470E-1	9.703142E-1	9.151079E-1	9.233194E-1	9.134778E-1	9.269361E-1	9.952664E-1	9.553766E-1	9.429549E-1	9.022555E-1	9.493737E-1	9.472737E-1	9.146915E-1	9.372233E-1	8.954994E-1	9.362606E-1	9.325173E-1	9.195314E-1	9.391884E-1	9.281905E-1	9.638927E-1	9.352999E-1	9.399233E-1	9.484684E-1	9.406511E-1	9.335983E-1	9.390124E-1	9.287666E-1	9.268909E-1	9.371312E-1	9.341470E-1	9.600532E-1	9.536141E-1	9.672003E-1	9.594505E-1	9.621963E-1	8.976113E-1	9.449090E-1	9.431112E-1	9.457611E-1	9.269442E-1	9.479799E-1	9.572969E-1	9.440891E-1	9.550412E-1	9.392955E-1	9.314181E-1	9.576785E-1	9.226747E-1	9.715606E-1	9.150888E-1	9.401709E-1	9.391115E-1	9.431802E-1	9.543008E-1	9.308237E-1	9.747431E-1	9.656746E-1	9.477928E-1	9.419455E-1	9.309561E-1	9.538924E-1	9.710612E-1	9.520384E-1	9.189519E-1	9.484095E-1	9.221471E-1	9.476183E-1	9.643622E-1	9.252154E-1	9.790694E-1	9.482604E-1	9.327317E-1	9.028549E-1	9.558950E-1	9.603998E-1	9.474595E-1	9.089691E-1	9.114761E-1	9.748582E-1	9.397364E-1	9.138425E-1	9.489104E-1	9.162134E-1	9.165140E-1	9.470659E-1	9.187686E-1	9.583674E-1	9.650412E-1	9.542969E-1	9.381371E-1	9.297766E-1	9.482619E-1	9.431481E-1	9.196797E-1	9.263586E-1	8.623563E-1
3.000040E+2	9.939618E-1	9.957152E-1	9.202727E-1	1.006970E+0	9.601241E-1	9.452661E-1	9.778949E-1	9.707702E-1	9.555312E-1	9.994113E-1	9.900769E-1	9.816822E-1	9.829489E-1	9.917135E-1	9.838623E-1	1.001594E+0	9.901271E-1	9.910149E-1	9.817717E-1	9.815713E-1	1.009729E+0	9.929792E-1	9.443930E-1	9.840727E-1	1.009068E+0	9.481305E-1	9.828164E-1	9.517132E-1	9.520544E-1	9.876375E-1	1.002177E+0	9.373641E-1	9.973644E-1	9.885819E-1	9.759696E-1	9.342911E-1	1.008160E+0	1.032117E+0	9.658825E-1	9.478123E-1	9.949899E-1	1.028659E+0	9.491871E-1	9.377020E-1	9.949209E-1	9.591535E-1	9.970264E-1	9.724698E-1	9.773668E-1	9.922184E-1	9.958095E-1	9.820466E-1	9.731043E-1	9.960431E-1	9.655949E-1	9.799517E-1	9.880662E-1	9.675913E-1	9.846611E-1	9.296583E-1	9.898985E-1	9.813723E-1	9.793166E-1	1.001846E+0	9.809140E-1	9.514303E-1	1.013312E+0	9.700578E-1	9.843570E-1	1.009910E+0	9.846132E-1	9.922572E-1	9.806899E-1	9.632554E-1	9.592667E-1	9.649425E-1	9.384889E-1	9.912872E-1	9.974926E-1	9.517167E-1	9.652224E-1	1.001818E+0	9.697693E-1	9.763026E-1	1.016438E+0	1.002219E+0	9.953031E-1	9.505166E-1	9.731865E-1	9.601860E-1	9.389660E-1	9.713809E-1	9.789023E-1	1.014922E+0	1.010445E+0	9.808166E-1	9.934280E-1	9.632699E-1	9.766072E-1	1.017974E+0	9.832373E-1	9.882990E-1	9.965241E-1	1.004538E+0	9.971361E-1	9.697885E-1	9.743820E-1	9.826507E-1	9.665629E-1	9.701086E-1	9.836182E-1	9.621569E-1	9.952119E-1	9.739681E-1	9.823375E-1	9.856861E-1	9.909648E-1	9.944641E-1	9.924962E-1	9.201184E-1	1.038193E+0	9.797854E-1	9.531629E-1	9.467985E-1	9.843154E-1	9.977070E-1	9.460746E-1	9.387106E-1	9.770703E-1	1.002935E+0	1.001797E+0	9.866475E-1	9.765970E-1	9.397326E-1	9.948643E-1	9.902319E-1	9.369433E-1	9.952712E-1	9.999666E-1	1.004322E+0	9.907620E-1	9.641535E-1	9.965244E-1	1.005440E+0	9.847111E-1	9.927221E-1	1.016837E+0	9.834122E-1	1.015102E+0	9.905257E-1	9.882175E-1	9.844759E-1	9.620816E-1	9.877525E-1	9.777809E-1	9.923312E-1	9.867055E-1	9.853502E-1	9.939510E-1	9.734069E-1	1.011226E+0	9.925740E-1	9.673544E-1	9.866099E-1	1.015381E+0	9.880589E-1	9.692390E-1	9.988895E-1	1.003011E+0	9.805060E-1	9.921743E-1
