Photon Energy (eV)	#1	#2	#3	#4	#5	#6	#7	#8	#9	#10	#11	#12	#13	#14	#15	#16	#17	#18	#19	#20	#21	#22	#23	#24	#25	#26	#27	#28	#29	#30	#31	#32	#33	#34	#35	#36	#37	#38	#39	#40	#41	#42	#43	#44	#45	#46	#47	#48	#49	#50	#51	#52	#53	#54	#55	#56	#57	#58	#59	#60	#61	#62	#63	#64	#65	#66	#67	#68	#69	#70	#71	#72	#73	#74	#75	#76	#77	#78	#79	#80	#81	#82	#83	#84	#85	#86	#87	#88	#89	#90	#91	#92	#93	#94	#95	#96	#97	#98	#99	#100	#101	#102	#103	#104	#105	#106	#107	#108	#109	#110	#111	#112	#113	#114	#115	#116	#117	#118	#119	#120	#121	#122	#123	#124	#125	#126	#127	#128	#129	#130	#131	#132	#133	#134	#135	#136	#137	#138	#139	#140	#141	#142	#143	#144	#145	#146	#147	#148	#149	#150	#151	#152	#153	#154	#155	#156	#157	#158	#159	#160	#161	#162	#163	#164	#165	#166	
5.290120E+2	-8.422304E-3	-2.780323E-2	-7.524522E-3	-8.826089E-3	-1.380713E-2	-1.458581E-2	-4.312472E-2	-3.543453E-2	-4.077108E-3	-3.196175E-2	-1.191314E-2	-1.029084E-2	-2.526270E-2	-2.729900E-2	-8.975230E-3	-2.393665E-2	-1.648994E-2	-2.796591E-2	-1.491187E-2	-1.377259E-2	-2.631172E-2	-3.399746E-2	-1.339549E-2	-2.345430E-2	-1.762509E-2	-2.943753E-2	-1.040198E-2	-3.700407E-2	-3.002733E-2	-3.071215E-2	-2.274101E-2	-1.008101E-2	-1.857142E-2	-3.623314E-2	-2.776730E-2	-2.152099E-2	-3.754112E-2	-2.853074E-2	-9.969161E-3	-3.870240E-2	-1.158466E-2	-3.001007E-2	-5.046193E-3	5.598364E-3	-1.622241E-2	-3.387591E-2	-1.802159E-2	-2.423266E-2	-1.574674E-2	-2.499380E-2	-2.127072E-2	-3.598431E-2	-1.051412E-2	-2.680949E-2	-1.654060E-2	-2.150855E-2	-3.437063E-2	-2.947067E-2	-1.010240E-2	-3.611076E-2	-2.006917E-2	-3.428566E-2	-2.902142E-2	-1.495865E-2	-1.760828E-2	-2.414422E-2	-2.895661E-2	-1.885824E-2	-1.793736E-2	-1.914758E-2	-3.705335E-2	-3.173245E-2	5.586440E-3	-1.876846E-2	-2.264693E-2	-2.093125E-2	-6.121116E-3	-2.936089E-2	-7.492622E-3	-1.529963E-2	-5.261154E-3	-3.428570E-2	-2.736592E-2	-1.337974E-2	-1.823326E-2	-3.545593E-2	-2.020932E-2	-2.660781E-2	-2.435923E-2	-4.094359E-2	-2.712764E-2	-1.199236E-2	-1.598273E-2	-2.813255E-2	-1.540944E-2	-2.897857E-2	-5.954513E-3	-2.383684E-2	-9.844572E-3	-7.745103E-3	-1.415627E-2	-1.867758E-2	-2.813981E-2	-1.378856E-2	-1.871408E-2	-2.213658E-2	-2.595833E-2	-2.384302E-2	-3.748655E-2	-2.725421E-2	-1.361328E-2	-4.110993E-2	-2.645236E-2	-3.140800E-2	-2.478849E-2	-9.690653E-3	-2.793902E-2	-2.141469E-2	-2.237922E-2	-2.286327E-2	-1.915179E-2	-1.337857E-2	-2.812206E-2	-1.555974E-2	-3.894966E-2	-3.090897E-2	-2.500740E-2	-7.843005E-3	-2.252316E-2	-2.725905E-2	-4.265723E-2	-2.343736E-2	-1.571224E-2	-5.179439E-2	-3.006456E-2	-7.777132E-3	-2.034318E-2	-1.343388E-2	-3.296851E-2	-1.493323E-2	-3.432579E-2	-3.735831E-2	-2.419362E-2	-1.283014E-2	-1.908208E-2	-1.764225E-2	-2.343922E-2	-1.340188E-2	-1.317844E-2	-1.456814E-2	-1.942695E-2	-1.577042E-2	-3.164509E-2	-2.661245E-2	-3.256836E-2	-1.660249E-2	-6.955327E-3	-2.134662E-2	-2.219860E-2	-1.395654E-2	-2.277343E-2	-3.695626E-2	-1.304051E-2	-1.265444E-3	-1.457002E-2	-1.177673E-2
5.295010E+2	-1.233957E-2	-7.350299E-3	2.039259E-2	-5.191287E-4	-9.359149E-3	2.819920E-2	-7.377999E-3	-2.531070E-3	-1.950004E-3	-9.203658E-3	-8.632366E-4	-4.709357E-3	1.632954E-3	-1.661311E-2	3.068674E-2	6.804634E-3	2.558140E-2	-3.559318E-3	-3.389059E-3	-1.045390E-2	1.374986E-2	-5.120592E-3	-7.132674E-3	-1.826024E-2	1.140442E-2	7.849936E-3	-1.040195E-2	-8.852590E-4	-1.207996E-2	-2.884610E-3	2.621433E-2	-2.984100E-3	1.468022E-2	1.575407E-3	9.024434E-3	9.037012E-3	-1.881236E-2	-5.211544E-3	6.127879E-3	1.666479E-2	5.327401E-3	-1.362478E-2	-1.000389E-2	-1.980969E-3	-1.907465E-2	-2.046669E-2	2.628497E-2	8.294322E-3	8.181222E-3	-5.754753E-3	1.779631E-3	-1.276001E-3	2.478922E-3	-1.629595E-2	-8.313192E-3	-6.699336E-3	2.119989E-2	1.005472E-2	5.187782E-3	-2.344835E-3	-5.423748E-4	8.335116E-3	-5.173028E-3	-2.719724E-3	-1.910688E-2	-2.709310E-2	6.568486E-3	2.012155E-2	-1.046344E-2	-1.684988E-2	-7.181043E-3	-2.041267E-3	7.076020E-3	-4.645647E-3	7.423681E-3	5.980546E-4	-1.735805E-3	-1.413678E-2	-1.407155E-2	-4.589849E-3	-1.042995E-2	-1.033408E-2	-3.800791E-3	-3.783215E-3	-2.593549E-4	1.269760E-3	-3.566350E-3	5.063767E-3	-7.941255E-3	-1.710795E-2	5.754299E-3	-8.185270E-3	-9.930079E-3	-1.807827E-2	-4.402633E-3	-4.499837E-3	-5.253989E-3	1.031745E-2	-1.203234E-2	-5.583689E-3	1.432197E-2	-3.584607E-3	2.559811E-2	3.535324E-4	1.316920E-2	-7.905933E-3	-1.068868E-2	2.237564E-2	1.568590E-2	-1.306708E-2	1.075751E-2	4.437503E-3	6.771051E-3	-5.441577E-3	1.472671E-2	-1.481028E-2	4.930466E-3	-1.314936E-2	-8.781728E-3	1.475103E-3	1.276772E-3	-1.637235E-2	-9.493365E-3	9.037548E-3	3.433791E-3	-2.956552E-3	1.049805E-2	-6.479005E-3	-1.089831E-2	-3.271039E-3	-4.512621E-3	-8.907870E-3	3.038325E-3	1.422903E-2	8.475199E-3	-1.349821E-2	-1.173987E-2	1.250745E-2	9.686161E-3	4.335441E-3	3.874048E-3	-1.208097E-2	-1.790511E-2	4.640634E-3	3.856050E-3	6.003864E-3	-4.468927E-3	-7.445354E-4	-1.852631E-2	-3.903855E-3	-3.108210E-3	3.871873E-3	-2.434246E-3	7.773351E-3	1.970926E-3	-5.052918E-3	-1.545625E-2	-1.014842E-2	-7.876955E-3	-1.922011E-3	-4.770704E-3	4.387910E-3	-1.304041E-2	-1.265408E-3	6.244257E-3	9.159552E-3
5.300010E+2	2.605020E-2	2.162479E-2	1.428571E-2	5.295615E-3	3.512004E-2	3.597830E-2	6.754448E-3	3.374725E-2	2.924909E-2	4.501412E-2	4.126435E-2	9.244326E-3	1.853878E-2	1.945139E-2	1.966011E-3	3.498423E-2	2.344252E-2	1.864453E-3	2.372329E-2	1.609571E-2	2.885834E-3	3.382950E-2	3.949046E-2	2.394113E-2	1.831638E-2	1.700833E-2	2.785039E-2	1.752822E-2	1.691201E-2	3.851744E-2	3.547607E-2	4.605024E-2	5.076200E-2	2.328007E-2	5.067514E-2	2.170725E-2	2.466508E-2	3.930717E-2	2.295651E-2	2.613553E-2	1.006259E-2	2.342034E-2	2.611615E-2	1.042140E-2	1.301351E-2	3.105299E-2	3.613099E-2	1.284829E-2	1.944138E-2	2.310416E-2	1.059282E-2	3.547387E-2	3.530359E-2	2.295462E-2	2.871023E-2	4.125390E-2	2.841676E-2	9.361111E-3	3.576800E-2	2.391752E-2	3.127900E-2	8.335158E-3	3.971815E-2	1.835826E-2	5.132623E-2	3.778280E-2	1.915023E-2	2.012150E-2	3.139032E-2	3.293393E-2	3.418095E-2	3.433028E-2	2.644248E-2	2.582996E-2	2.696976E-2	2.133001E-2	2.749913E-2	4.458522E-2	2.320891E-2	3.212930E-2	8.030179E-3	2.520723E-2	3.420752E-2	3.386478E-2	2.117135E-2	4.190239E-2	3.526726E-2	5.956832E-2	4.916439E-2	5.901275E-2	3.644414E-2	2.531731E-2	1.655020E-2	2.136533E-2	1.907839E-2	3.293844E-2	2.276758E-2	2.312519E-2	2.442922E-2	2.755824E-2	2.690532E-2	2.886539E-2	2.559803E-2	2.156676E-2	1.802099E-2	2.371786E-2	4.428177E-2	1.870766E-2	3.270088E-2	1.456043E-2	1.075728E-2	3.658862E-2	1.904939E-2	3.121703E-2	2.423966E-2	3.199739E-2	3.056880E-2	4.621060E-2	3.352155E-2	1.327545E-2	2.170519E-2	4.584245E-3	3.636181E-2	3.363520E-2	1.991637E-2	2.499595E-2	3.098201E-2	2.693898E-2	3.850742E-2	1.126705E-2	3.090718E-2	3.260476E-2	7.899556E-3	4.686176E-2	2.203545E-2	1.510729E-2	1.120221E-2	2.066021E-2	2.532626E-2	4.056076E-2	4.135315E-2	2.657828E-2	2.401895E-2	3.958242E-2	3.944956E-2	2.669428E-2	1.741967E-2	2.829284E-2	2.425613E-2	1.285417E-2	9.324908E-3	4.088967E-2	1.479269E-2	3.484319E-2	2.524748E-2	1.876808E-2	3.709495E-2	1.364785E-2	3.508821E-2	3.418092E-2	2.043307E-2	2.154969E-2	2.173405E-2	3.199537E-2	4.371011E-2	1.439389E-2
5.305030E+2	6.463602E-3	2.876222E-3	3.816753E-3	1.775588E-2	-2.687315E-3	-2.917166E-3	1.756163E-2	2.362301E-2	3.722618E-3	1.154644E-2	2.054595E-2	1.552341E-2	1.392806E-2	1.210501E-2	8.804324E-3	-1.520975E-3	7.041714E-3	1.542367E-2	1.287855E-2	8.297372E-4	1.375010E-2	1.099674E-2	6.784749E-3	2.653807E-2	1.416927E-2	1.635428E-2	1.308644E-2	2.036106E-2	5.867367E-3	2.019208E-2	8.351983E-3	-3.629144E-3	4.067983E-3	1.767898E-2	1.041277E-2	1.276352E-2	3.871173E-2	9.627987E-3	2.002988E-2	3.342065E-2	8.033250E-3	2.840722E-2	1.761745E-2	1.317741E-2	2.798807E-2	1.764360E-2	7.999977E-3	1.284818E-2	4.662297E-3	1.073619E-2	2.211830E-2	1.914057E-2	1.795125E-3	3.066434E-2	6.000066E-4	1.868781E-2	1.542601E-2	1.421531E-2	8.190952E-4	1.191191E-2	3.055577E-2	2.483339E-2	2.007834E-2	2.107810E-2	2.060551E-2	2.451287E-2	1.174901E-2	5.684541E-3	1.420038E-2	1.148836E-2	2.776662E-3	1.948488E-2	6.331341E-3	-4.645597E-3	3.298379E-2	2.053263E-2	1.918546E-3	1.268682E-2	5.665168E-3	1.147473E-2	2.722860E-2	1.052718E-2	2.660573E-2	1.688618E-2	4.579953E-3	2.080468E-2	3.288960E-2	1.463886E-2	2.061174E-2	1.057229E-2	-1.032124E-2	1.161168E-2	1.881998E-2	1.285786E-2	2.714995E-2	-2.339904E-3	1.716306E-2	1.174044E-2	9.115384E-3	5.943895E-3	1.498408E-2	1.697883E-3	-1.996928E-3	8.838839E-3	2.911095E-2	1.423066E-2	1.068872E-2	-8.436731E-3	1.568608E-2	1.904057E-2	1.618347E-3	1.850366E-2	1.832709E-2	1.823386E-2	1.253141E-2	4.936798E-3	1.216142E-2	2.892866E-2	1.312538E-2	-9.587836E-3	5.654396E-3	1.805648E-2	4.119777E-3	2.394531E-2	3.247436E-2	4.927525E-3	2.987205E-3	1.329907E-2	-9.445140E-3	1.635531E-2	2.818279E-2	7.005302E-3	1.553872E-2	1.726479E-2	1.632588E-2	1.296198E-2	2.625790E-2	1.389623E-3	2.319352E-2	1.897960E-2	1.612674E-2	6.505147E-3	2.358224E-3	8.280475E-3	6.919388E-4	1.339334E-2	7.205075E-3	6.700932E-3	2.501986E-2	9.045576E-3	8.547802E-3	8.404642E-3	1.554171E-2	-3.200843E-3	3.951392E-2	1.515881E-2	1.932040E-2	-2.449656E-3	2.434680E-2	1.880371E-2	1.467206E-2	1.608918E-2	6.981249E-3	-3.018775E-2	1.248872E-2	-1.177667E-2
5.310050E+2	-1.704033E-2	4.580549E-3	-1.417660E-3	9.449060E-3	-4.911258E-3	-3.695030E-3	1.506771E-2	-9.280499E-3	-7.622448E-3	-7.864917E-3	-5.006926E-3	5.755884E-3	-6.723976E-4	6.094295E-3	-1.444586E-2	1.040738E-3	-1.435065E-2	9.322000E-3	3.389072E-3	5.475895E-3	2.054016E-2	-1.317924E-2	4.697129E-3	-8.124079E-5	1.002200E-2	-9.812471E-3	-4.362107E-3	1.752828E-2	5.867447E-3	2.765788E-2	1.075072E-3	-4.031998E-4	-1.644898E-2	-9.627146E-3	3.470885E-3	1.583823E-3	-8.110250E-3	8.921388E-3	7.591241E-3	-9.561731E-3	-3.466953E-3	-5.075938E-3	-5.754379E-3	-7.493124E-3	4.456657E-3	1.411499E-2	2.637572E-4	1.789022E-3	1.240398E-2	-5.067429E-3	-8.389637E-3	-1.012327E-2	7.949703E-3	4.030213E-3	-4.885013E-3	-3.878532E-3	2.435691E-3	-1.040139E-3	4.459578E-3	4.408350E-3	-3.435263E-3	1.383472E-2	4.646881E-3	-9.519133E-3	-1.386184E-2	1.345446E-2	5.828285E-3	9.293796E-3	-1.943211E-2	-5.361302E-3	1.120221E-2	-5.566942E-4	-3.724121E-4	1.616691E-2	-1.137044E-2	-5.781052E-3	-2.466663E-3	-6.162168E-3	-1.827476E-4	-2.447943E-2	-5.261132E-3	-2.896784E-4	-3.941452E-8	-1.337989E-2	1.011037E-2	1.220943E-2	-2.100180E-2	1.381064E-3	4.907579E-3	3.652266E-3	1.370081E-3	6.281739E-3	1.730666E-2	1.131096E-2	-7.337768E-3	8.459617E-3	1.015773E-2	-3.913411E-3	4.010797E-3	-1.134745E-2	-2.483689E-4	-2.829921E-3	-4.901739E-3	8.838869E-3	-8.317410E-3	-5.534136E-3	1.756005E-2	-1.834068E-3	1.497668E-2	1.008031E-2	6.949361E-3	-5.609655E-3	2.708408E-4	-7.732700E-3	3.750287E-3	4.205423E-3	-6.245206E-3	-9.392388E-3	-2.738370E-3	1.106287E-2	-2.371150E-3	7.578042E-3	8.418537E-3	-1.630512E-2	8.927969E-3	-7.256924E-3	1.049797E-2	-3.410265E-4	-2.906277E-3	6.178724E-3	9.791605E-3	-1.297266E-3	-8.767656E-3	-1.897229E-4	-7.226155E-3	-6.258785E-4	-7.438232E-3	-1.343388E-2	-6.664833E-3	-1.878700E-2	-1.342396E-2	-1.356797E-2	1.493550E-2	-1.938177E-2	7.019837E-3	-9.513888E-3	1.012372E-2	-2.233629E-3	-1.699833E-2	1.428259E-3	1.942687E-2	-1.879233E-2	2.808746E-3	-3.932476E-3	4.692658E-4	5.053058E-3	-1.081939E-2	-9.448530E-3	-6.444788E-3	-4.596501E-3	-4.500952E-4	-8.093356E-3	6.586133E-4	-8.495897E-3	4.162816E-3	1.962782E-2
5.315030E+2	-1.312297E-2	-1.416796E-2	-1.712102E-2	-2.460905E-2	-3.428624E-3	-1.302997E-2	-1.652246E-2	-1.687351E-2	-2.889441E-2	-7.195539E-3	-2.227236E-2	-2.563982E-2	-1.988356E-2	-3.923710E-3	-1.854874E-2	-2.137479E-2	-1.862915E-2	-3.559281E-3	-2.507908E-2	-8.462705E-3	-1.273149E-2	1.435440E-2	-1.061204E-2	-2.215573E-2	-1.002210E-2	-1.373751E-2	-8.388709E-3	-2.000697E-2	-5.176979E-3	-2.663980E-2	-2.075630E-2	-1.693752E-3	-2.352377E-2	-1.732885E-2	-3.123817E-2	-2.003034E-2	1.262517E-2	-1.086466E-2	-2.313958E-2	-2.340355E-2	-1.090823E-2	-9.350406E-3	-2.629332E-2	-6.115040E-3	-1.408317E-2	-4.234514E-3	-2.786750E-2	-1.317347E-2	-6.597786E-3	-1.399993E-2	-2.966050E-3	-1.965100E-2	-3.034560E-2	-1.068877E-2	-3.513746E-3	-2.221370E-2	-1.416321E-2	-1.144152E-2	-2.102393E-2	-1.360013E-2	-2.006917E-2	-2.397422E-2	-2.270858E-2	2.719769E-3	-4.121079E-3	-1.529752E-2	-7.493571E-3	3.519010E-3	-8.221291E-3	-8.424964E-3	-2.585105E-3	-2.282508E-2	-2.048361E-2	-2.248499E-2	-1.738460E-2	-3.129731E-2	-2.220031E-2	-6.162208E-3	-1.260958E-2	-2.600946E-2	6.461269E-4	-9.561315E-3	-3.648793E-2	-4.521490E-3	-2.791165E-2	-8.888315E-3	-1.941682E-2	-2.955396E-2	-2.150393E-2	-2.249017E-2	-2.055121E-2	-2.417512E-2	-2.203529E-2	-2.349217E-2	-1.761075E-2	-1.241937E-2	-3.257505E-2	-1.387516E-2	-2.807537E-2	-2.503653E-2	-2.673975E-2	-1.565899E-2	-1.434225E-2	-2.227385E-2	-2.425904E-2	-4.743566E-3	-1.526960E-2	-1.797395E-2	-3.039684E-2	-6.346851E-3	-2.122907E-2	-1.431733E-2	-1.056294E-2	-2.386614E-3	-2.039786E-2	-9.690649E-3	-8.874772E-3	-7.889629E-3	-7.270864E-3	-1.106292E-2	-2.571814E-2	-4.397155E-3	-2.167372E-2	-2.077738E-2	-6.769570E-3	-9.407075E-3	6.401112E-3	-5.115026E-3	-7.992051E-3	-1.344774E-2	-7.918390E-3	-1.167542E-2	-1.823156E-3	-1.612642E-2	-1.293582E-2	-1.063765E-2	5.466669E-3	-2.381036E-2	-2.017216E-2	-1.955774E-2	-2.567674E-2	7.248616E-3	-3.231653E-3	-1.355810E-2	-1.196338E-2	-1.616431E-2	-9.576349E-3	5.211816E-3	8.976718E-3	-1.609160E-2	-1.942688E-2	-5.949365E-3	-1.891215E-2	-4.664015E-3	-1.379697E-2	-1.660248E-2	-1.854755E-2	-2.449597E-3	-1.790209E-2	-1.529374E-2	-1.629246E-2	-1.121366E-2	-8.825414E-3	-2.295710E-2	-3.954725E-2	-1.177667E-2
5.320070E+2	-2.154553E-3	8.841679E-3	-9.269346E-3	-7.164699E-3	-2.418555E-2	-2.936609E-2	7.585806E-3	-1.771725E-2	-8.331486E-3	-4.518179E-3	-1.881935E-2	8.721105E-4	-6.819930E-3	-1.193807E-2	-1.991644E-2	-3.442401E-3	-1.007216E-2	-8.982990E-3	2.711286E-3	-2.489011E-3	-2.020065E-2	-1.788013E-2	-2.800883E-2	-3.327340E-3	-1.900749E-2	3.924877E-3	-1.778400E-2	-2.301653E-3	3.106258E-3	-3.071217E-2	-2.538723E-2	-2.427514E-2	-2.776872E-2	6.476462E-3	-1.457780E-2	-1.183189E-2	-8.110201E-3	-1.510451E-2	-2.826132E-2	-3.005157E-3	1.944809E-3	1.335738E-3	-1.212863E-2	-1.989534E-2	-1.693547E-2	-2.187826E-2	-2.786748E-2	-1.382397E-2	-2.067308E-2	4.552203E-3	-1.381324E-2	1.446220E-3	-1.666873E-2	-2.470678E-2	-2.142574E-3	-1.375140E-2	-3.004036E-2	3.120441E-3	-3.194543E-2	-1.594501E-3	-2.440843E-2	-3.016108E-2	-1.359008E-2	-1.767836E-2	-2.135478E-2	-1.308575E-2	-1.563471E-2	-3.257341E-2	-1.494778E-2	-1.684988E-2	-7.180782E-3	-4.268030E-3	-2.569757E-2	5.017342E-3	-1.963991E-2	4.584940E-3	-4.659305E-3	-1.341181E-2	-1.041663E-2	-1.983218E-8	-1.264517E-2	-5.698193E-3	-9.882165E-3	-2.076181E-2	-8.554942E-3	-3.311172E-2	-1.069899E-2	-2.218854E-2	-2.150390E-2	-1.710787E-2	2.100772E-3	-1.046952E-2	-2.808791E-2	-1.730491E-2	-1.761079E-2	-1.619916E-3	-6.655106E-3	-9.605875E-3	-3.281520E-3	-5.583724E-3	-2.144151E-2	-9.621768E-3	-1.071128E-2	-1.661701E-2	-9.703645E-3	-1.739303E-2	-2.137743E-2	9.170435E-3	-1.905341E-2	-1.306716E-2	-1.056690E-2	2.428025E-3	-1.995210E-2	-1.078754E-2	-7.957896E-3	-8.227917E-3	-9.532128E-3	-1.991194E-2	-1.255876E-2	-2.950101E-3	5.472515E-4	-1.637237E-2	-1.612080E-3	-1.555975E-2	-3.031596E-2	-8.690361E-3	-3.524941E-2	-1.670898E-2	-3.632713E-3	-1.635536E-2	-1.745454E-2	-1.029172E-2	-1.501779E-2	-2.371536E-2	-7.939948E-3	-1.278310E-2	-6.721298E-3	-2.316303E-3	-8.086661E-3	-1.724550E-2	-5.495696E-3	5.761719E-3	3.056975E-3	-4.094740E-3	-1.908207E-2	-5.819176E-3	6.475369E-3	-2.531468E-2	-6.302767E-3	-1.380635E-2	-1.010195E-2	-1.350402E-2	-3.183239E-3	-2.222274E-2	-1.830209E-2	-1.010588E-2	-2.782137E-2	-2.449614E-3	-1.217346E-2	-1.997373E-2	-2.565387E-2	5.168049E-3	-6.717757E-3	-2.711480E-3	-2.497719E-2	-1.177660E-2
5.325120E+2	2.056592E-2	1.139826E-2	-3.162495E-3	8.618415E-3	2.325899E-2	-5.834365E-4	2.005559E-2	2.446660E-2	1.790374E-2	4.183490E-3	-2.935283E-3	9.244284E-3	1.853880E-2	2.212320E-2	2.042919E-2	7.445214E-3	3.476267E-3	1.745738E-2	6.778115E-4	1.277686E-2	8.317911E-3	1.099678E-2	8.176690E-3	1.679966E-2	-7.257382E-3	7.850079E-3	1.040192E-2	4.780380E-3	1.553118E-2	4.581325E-3	-2.232911E-3	-2.983892E-3	1.680269E-2	1.417821E-2	3.599337E-8	8.291609E-3	-3.428045E-3	1.854909E-3	4.664548E-3	-1.548123E-3	5.917840E-4	4.897906E-3	1.549282E-2	6.287303E-3	2.085747E-2	1.764379E-2	3.076870E-3	1.545028E-2	-1.671275E-3	1.142336E-2	1.194890E-2	1.097392E-2	1.000111E-2	2.085182E-2	6.084888E-3	8.109798E-3	1.109583E-2	5.200742E-3	1.683729E-2	1.341244E-2	6.689639E-3	3.308257E-2	6.049746E-3	2.719736E-3	4.121115E-3	3.870465E-3	8.788889E-3	-7.308743E-3	2.541127E-2	2.221132E-2	5.840466E-3	7.608358E-3	1.117309E-3	3.530480E-3	3.664648E-3	1.096398E-2	7.765525E-3	1.196180E-2	1.589905E-2	2.677436E-2	-2.307500E-3	2.443456E-2	1.672360E-2	5.075176E-3	1.909753E-2	1.269717E-3	6.736429E-3	-2.301702E-3	6.246099E-4	2.441227E-2	1.233080E-2	1.161153E-2	2.335917E-2	4.147376E-2	1.614303E-2	8.459542E-3	3.502901E-4	6.048219E-3	1.567841E-2	2.179436E-2	6.374540E-3	1.980960E-2	8.895859E-3	1.308142E-2	6.930377E-4	1.976473E-2	7.635015E-4	1.834039E-3	7.887249E-3	1.605399E-2	1.532675E-2	-9.208868E-4	1.254903E-2	8.305538E-3	-2.103827E-3	1.279884E-3	4.930442E-3	-3.381256E-3	7.081999E-3	2.065071E-2	1.805747E-2	2.030167E-2	1.200110E-2	1.583933E-3	1.128269E-2	2.929641E-2	-1.109529E-3	-3.751001E-3	1.889023E-2	2.653211E-2	3.661210E-3	1.599956E-2	1.484424E-2	1.347032E-2	1.132996E-2	1.725270E-2	3.315801E-3	1.843714E-2	9.686213E-3	6.647669E-3	1.756824E-2	1.691348E-2	9.607258E-4	-2.638774E-3	-8.898610E-4	3.048142E-3	-3.739342E-3	1.489128E-3	-3.246862E-3	2.504194E-2	1.476442E-2	8.499593E-4	2.303157E-2	1.801598E-2	-2.534182E-3	9.383817E-3	2.318454E-2	3.464459E-2	7.160872E-3	2.757893E-3	3.483543E-2	9.068442E-3	1.225018E-2	3.488771E-2	1.248854E-2	3.925402E-3
5.330080E+2	4.563659E-2	4.037333E-2	6.750222E-2	6.012074E-2	5.439433E-2	4.998076E-2	4.915181E-2	5.905732E-2	4.343004E-2	4.501416E-2	6.198303E-2	4.203522E-2	5.542419E-2	4.015548E-2	6.761310E-2	5.355702E-2	5.695717E-2	4.254220E-2	4.948014E-2	2.339672E-2	4.362648E-2	4.524597E-2	4.088259E-2	4.276960E-2	3.490483E-2	4.252106E-2	4.194354E-2	5.152226E-2	4.245244E-2	5.616404E-2	4.209162E-2	4.605007E-2	4.297972E-2	5.128648E-2	4.165098E-2	4.183074E-2	4.205592E-2	5.838643E-2	5.149239E-2	4.361970E-2	3.103332E-2	5.832804E-2	5.727886E-2	5.176243E-2	3.511884E-2	4.375632E-2	1.503249E-2	5.578377E-2	5.181482E-2	4.234364E-2	4.855804E-2	4.840441E-2	4.487733E-2	4.257983E-2	3.350975E-2	4.760056E-2	4.573735E-2	3.987222E-2	3.722396E-2	3.442236E-2	1.970775E-2	6.401698E-2	4.392650E-2	3.807645E-2	6.631235E-2	6.063719E-2	3.617258E-2	1.867783E-2	5.904375E-2	4.212454E-2	3.341524E-2	4.249508E-2	3.091139E-2	5.333238E-2	5.478477E-2	4.604867E-2	5.892660E-2	5.400941E-2	4.586950E-2	5.354896E-2	3.904327E-2	6.152118E-2	4.408948E-2	3.386511E-2	4.744118E-2	4.893481E-2	5.745764E-2	5.735833E-2	2.917777E-2	6.516385E-2	4.740445E-2	5.881958E-2	3.319466E-2	4.611396E-2	4.329309E-2	4.301773E-2	5.008848E-2	6.937605E-2	3.536765E-2	2.827877E-2	2.822974E-2	3.037472E-2	2.414590E-2	3.146621E-2	4.574549E-2	6.640957E-2	3.435639E-2	5.172099E-2	5.538798E-2	7.205521E-2	4.122042E-2	3.323963E-2	3.566083E-2	2.816193E-2	4.985140E-2	3.199730E-2	3.977211E-2	3.493960E-2	6.675991E-2	5.236393E-2	4.870055E-2	4.874295E-2	2.489768E-2	5.599649E-2	6.936371E-2	7.014975E-2	5.283119E-2	4.467071E-2	5.885089E-2	4.615844E-2	2.886397E-2	4.229096E-2	5.720666E-2	8.025311E-2	6.200253E-2	2.011320E-2	4.131371E-2	3.177795E-2	4.096603E-2	6.214127E-2	4.063232E-2	7.787593E-2	5.196826E-2	1.847182E-2	4.261347E-2	6.364140E-2	3.493082E-2	4.318398E-2	6.169057E-2	5.474941E-2	1.631858E-2	4.844467E-2	3.651349E-2	6.191266E-2	2.374573E-2	5.341667E-2	5.023306E-2	4.094327E-2	4.797771E-2	3.618650E-2	6.435933E-2	7.303482E-2	5.229360E-2	4.356427E-2	3.746574E-2	5.626624E-2
5.332150E+2	4.250288E-2	4.974761E-2	2.649943E-2	5.098340E-2	2.325883E-2	4.375735E-2	5.247707E-2	3.543446E-2	6.558850E-3	4.501401E-2	6.060140E-2	1.622107E-2	3.467614E-2	4.282724E-2	4.162791E-2	2.025414E-2	1.916396E-2	2.694918E-2	5.286923E-2	3.799909E-2	1.986118E-2	3.181520E-2	5.132067E-2	2.588919E-2	2.522807E-2	3.467121E-2	3.993028E-2	4.585670E-2	2.795638E-2	3.037265E-2	4.936858E-2	1.830728E-2	1.397272E-2	9.977219E-3	4.234477E-2	5.524622E-2	4.673837E-2	5.555982E-2	3.759028E-2	2.249296E-2	3.982743E-2	2.769479E-2	5.727879E-2	2.971393E-2	4.456465E-3	4.022787E-2	4.457036E-2	3.561731E-2	5.533331E-2	4.028229E-2	3.703291E-2	3.819593E-2	2.846506E-2	5.309319E-2	5.133570E-2	5.042165E-2	2.264314E-2	4.541939E-2	5.688252E-2	2.841973E-2	4.140409E-2	3.376999E-2	4.532950E-2	5.371485E-2	1.985620E-2	2.746192E-2	4.579387E-2	1.145939E-2	5.007490E-2	2.067937E-2	1.886183E-2	5.734116E-2	4.431889E-2	5.779166E-2	1.268605E-2	3.727768E-2	3.115348E-2	4.603503E-2	4.513871E-2	4.589900E-2	3.387432E-2	6.461173E-2	4.408948E-2	4.493787E-2	4.329294E-2	4.971619E-2	3.605958E-2	3.452581E-2	3.346066E-2	4.671045E-2	2.913705E-2	3.521576E-2	3.924761E-2	1.827148E-2	3.889050E-2	1.853902E-2	3.677836E-2	5.229893E-2	1.494923E-2	4.556988E-2	4.213806E-2	5.301420E-2	4.230061E-2	2.580943E-2	2.010032E-2	4.269182E-2	3.206621E-2	4.658573E-2	3.340985E-2	5.189490E-2	2.446579E-2	2.051294E-2	4.143891E-2	4.267285E-2	3.448432E-2	4.369926E-2	3.188349E-2	4.320515E-2	4.258665E-2	3.245122E-2	4.724120E-2	8.326553E-3	2.848027E-2	3.587135E-2	2.462554E-2	4.793095E-2	2.483669E-2	5.694663E-2	5.158528E-2	3.016642E-2	2.886389E-2	2.499407E-2	4.123400E-2	5.900387E-2	6.557118E-2	3.727635E-2	4.203061E-2	4.734291E-2	2.674818E-2	2.745778E-2	2.405509E-2	4.070380E-2	3.450022E-2	4.031032E-2	3.707656E-2	5.107915E-2	1.960860E-2	5.509682E-2	4.259151E-2	4.103840E-2	2.486641E-2	4.013431E-2	1.329466E-2	3.118496E-2	4.974365E-3	4.692013E-2	3.323085E-2	5.074180E-2	3.079152E-2	3.083797E-2	5.571855E-2	4.183180E-2	1.962657E-2	1.464191E-2	2.081422E-2	7.196875E-2
5.334160E+2	1.978243E-2	2.077256E-2	4.307518E-2	1.858667E-2	4.725886E-3	9.529397E-3	2.088693E-2	1.940443E-2	-1.949922E-3	1.154624E-2	3.366781E-2	4.360519E-3	2.545474E-2	2.613016E-2	4.504711E-2	4.003149E-4	-8.927212E-5	1.271195E-2	1.220078E-2	1.144952E-2	4.922640E-3	-2.434298E-3	4.644930E-2	1.874742E-2	3.110251E-3	1.831667E-2	1.375727E-2	1.257078E-2	1.069939E-2	3.902652E-3	4.382865E-3	-1.048208E-3	1.043539E-2	3.238227E-2	2.568475E-2	3.065085E-2	2.065190E-2	9.628013E-3	1.051799E-2	2.759250E-2	1.073903E-2	2.199552E-2	2.186704E-2	2.144546E-2	2.941412E-2	2.187814E-2	1.362605E-2	-8.619650E-3	1.662629E-2	1.073609E-2	3.567715E-2	1.777947E-2	2.504568E-2	1.874922E-2	1.088428E-2	2.856025E-2	1.686960E-2	7.280997E-3	1.547512E-3	1.566384E-2	1.030571E-2	1.452190E-2	3.550967E-2	1.291881E-2	4.121307E-3	2.230098E-2	7.308386E-3	1.579042E-2	3.064305E-2	3.829464E-3	8.138241E-3	1.280435E-2	4.841416E-3	4.273993E-3	3.298365E-2	-1.216011E-2	2.165213E-2	1.413650E-2	3.051866E-2	2.218445E-2	-7.476425E-3	3.756936E-2	1.976419E-2	1.910090E-2	1.356697E-2	1.611633E-2	3.209713E-2	2.495053E-2	9.190583E-3	2.748796E-2	3.936694E-2	8.565947E-3	9.740954E-3	1.981859E-2	4.182579E-2	1.853897E-2	-2.451813E-3	1.174061E-2	6.927669E-3	8.825848E-3	1.738562E-3	3.263864E-2	2.632441E-2	4.596229E-3	1.663467E-2	4.032016E-2	1.756004E-2	2.310931E-2	2.844744E-2	1.978730E-2	2.370418E-2	9.796040E-3	9.660081E-3	1.431945E-3	8.872658E-3	4.936798E-3	1.676353E-2	4.771347E-2	2.294585E-2	1.106283E-2	3.191972E-2	2.928284E-2	3.779469E-2	2.394532E-2	2.148597E-2	5.438143E-2	1.118077E-2	7.842935E-3	2.906195E-3	-3.997839E-3	3.295093E-2	5.621514E-3	3.732738E-3	1.954159E-2	1.347104E-2	5.095394E-3	1.693791E-2	1.324862E-2	2.106056E-2	1.743829E-2	7.477908E-3	2.509122E-2	1.563438E-2	9.736308E-3	-1.038151E-2	3.787054E-3	2.544570E-2	1.563554E-2	1.203256E-2	3.875264E-2	1.554153E-2	8.404734E-3	5.055654E-3	1.728424E-2	1.773893E-2	-5.774791E-3	2.163881E-2	1.574754E-2	5.728618E-3	2.883244E-2	2.475359E-2	3.637113E-2	9.088809E-3	2.910321E-2	4.162816E-3	3.009606E-2
5.336130E+2	2.526667E-2	8.841700E-3	1.166843E-2	1.277181E-2	1.760666E-3	2.119801E-2	7.585806E-3	5.061995E-3	-7.622435E-3	-4.518130E-3	6.043073E-3	-1.220949E-3	3.169826E-3	-1.252195E-3	4.017438E-3	1.256857E-2	4.189361E-3	1.135571E-2	2.643468E-2	7.467117E-3	-1.408947E-2	1.704078E-2	-8.697755E-4	5.762346E-3	1.727830E-3	-4.579221E-3	-1.845511E-2	2.106936E-2	-1.207992E-2	1.068982E-2	-8.186757E-3	8.629385E-3	4.068043E-3	2.468070E-2	2.151957E-2	1.947128E-2	-1.011688E-2	1.033466E-2	-5.579120E-3	-4.462151E-3	-4.143487E-3	5.610202E-3	2.682458E-2	8.592771E-5	1.158736E-2	-1.058630E-2	7.296249E-3	-2.764752E-3	7.477507E-3	1.279757E-2	1.330475E-2	1.029345E-2	7.265835E-3	2.015102E-2	3.342450E-3	-4.583788E-3	-6.946276E-3	2.739053E-2	8.191396E-4	-1.435049E-2	-2.006921E-2	-1.288865E-3	2.288397E-2	2.039846E-3	1.011547E-2	-4.239032E-3	5.088150E-3	6.406418E-3	1.494782E-2	-7.659076E-3	6.606467E-3	1.206201E-2	-1.526954E-2	9.477182E-3	2.997649E-2	-1.853913E-2	-3.928447E-3	1.051187E-2	1.955399E-2	-1.453469E-2	-1.486030E-2	3.834194E-2	3.572752E-2	1.393357E-2	1.218435E-2	-8.107029E-3	-1.307661E-2	-9.667185E-3	-2.944449E-3	-2.018352E-2	2.109924E-2	1.694156E-2	-3.868002E-2	-1.885180E-2	1.614325E-2	8.459542E-3	3.502773E-4	-7.471253E-3	2.515848E-2	1.242823E-2	4.387641E-3	3.961953E-3	3.086354E-3	-7.424597E-3	1.802078E-2	-3.952924E-3	1.068875E-2	5.502244E-3	1.143212E-2	-1.120012E-3	3.132009E-2	-1.029844E-2	2.437563E-3	4.486801E-3	5.945596E-3	5.484954E-4	-1.643499E-3	-3.756972E-4	7.082018E-3	5.162636E-3	1.149107E-2	-1.403335E-3	1.916583E-2	8.292359E-3	1.834652E-2	1.343855E-3	-3.157913E-3	5.796960E-3	9.445204E-3	6.905652E-3	3.022631E-2	-1.029162E-2	7.899365E-3	5.122497E-3	1.347119E-2	1.439210E-2	-1.030601E-2	8.060222E-3	2.888079E-2	-2.495297E-2	-2.135228E-2	1.616995E-2	2.332024E-2	1.628787E-2	1.018372E-2	1.708804E-2	2.544537E-2	6.700923E-3	-1.718868E-3	1.056909E-2	1.165614E-2	1.898112E-2	3.557703E-3	8.505010E-3	1.848995E-2	-1.371512E-2	3.168522E-2	9.448586E-3	1.432166E-2	1.546081E-2	5.310788E-3	1.686922E-2	-7.771589E-3	5.965107E-3	-1.665136E-2	6.150084E-2
5.338050E+2	2.546217E-3	1.395483E-2	3.435120E-2	4.267653E-2	4.725900E-3	4.609098E-2	2.088689E-2	1.771723E-2	3.208522E-2	4.032863E-2	2.054593E-2	1.569842E-3	3.083376E-2	4.149149E-2	5.393685E-2	4.395053E-2	1.417244E-2	2.288137E-2	4.066886E-2	3.335303E-2	4.023159E-2	2.375635E-2	3.322801E-2	3.108338E-2	2.246333E-2	3.140010E-2	3.791666E-2	2.319399E-2	3.485919E-2	2.494293E-2	2.092162E-2	3.250153E-2	3.360663E-3	3.448256E-2	4.720456E-2	2.394303E-2	1.864515E-2	3.860038E-2	3.978516E-2	3.779148E-2	2.020975E-2	1.273421E-2	2.894934E-2	3.453683E-2	2.584887E-2	4.163950E-2	2.839510E-2	1.870327E-2	3.773923E-2	7.300681E-3	3.838901E-2	5.248753E-2	3.530348E-2	2.295476E-2	2.871019E-2	5.465295E-2	3.491195E-2	2.114942E-2	5.688294E-2	8.160125E-3	2.693958E-2	4.133195E-2	3.621100E-2	2.039812E-2	3.484205E-2	3.188495E-2	4.061330E-2	2.589634E-2	1.569524E-2	4.059279E-2	4.107454E-2	1.577345E-2	2.048359E-2	3.326283E-2	3.072823E-2	3.329078E-2	2.823000E-2	3.081047E-2	5.098625E-2	2.600915E-2	2.279849E-2	3.911477E-2	4.408943E-2	3.681775E-2	2.255401E-2	2.236743E-2	2.892703E-2	5.220275E-2	7.762902E-3	3.517692E-2	3.644429E-2	3.597705E-2	5.958082E-3	2.677894E-2	4.916357E-2	3.941792E-2	3.187469E-2	4.874076E-2	4.047203E-2	1.891246E-2	5.405896E-2	1.301781E-2	3.721701E-2	4.348711E-2	1.871414E-2	2.925166E-2	2.748536E-2	9.904039E-3	3.199175E-2	4.368159E-2	4.122055E-2	2.051319E-2	4.793929E-2	1.431931E-3	3.082548E-2	-9.142096E-4	1.610611E-2	3.569119E-2	5.316226E-2	2.655099E-2	3.994523E-2	5.248489E-2	4.639254E-2	3.587130E-2	3.953832E-2	4.506395E-2	2.347122E-2	3.307694E-2	3.923364E-2	3.380100E-2	6.224043E-2	3.537219E-2	2.178887E-2	5.217390E-2	1.846698E-2	2.225844E-2	2.554080E-2	5.030756E-2	4.523183E-2	2.360409E-2	3.126273E-2	5.780295E-2	2.541653E-2	3.011914E-2	2.442101E-2	4.147313E-2	5.463032E-2	2.159194E-2	3.877151E-2	3.875338E-2	3.652269E-2	3.786805E-2	3.950951E-2	2.899044E-2	4.026437E-2	1.515880E-2	1.468353E-2	1.784704E-2	5.298986E-2	2.214639E-2	2.475353E-2	4.339200E-2	4.070202E-2	1.464188E-2	2.914019E-2	3.009644E-2
5.340070E+2	9.029426E-2	9.917579E-2	9.367485E-2	7.008909E-2	7.218571E-2	7.565140E-2	1.015248E-1	7.086882E-2	6.328425E-2	6.040906E-2	9.236993E-2	8.598938E-2	9.768922E-2	8.089562E-2	1.106943E-1	6.764694E-2	9.546315E-2	7.372840E-2	8.472668E-2	8.578875E-2	7.418245E-2	1.110585E-1	7.845929E-2	8.302353E-2	5.633158E-2	8.242537E-2	6.207648E-2	8.055878E-2	9.284322E-2	8.874281E-2	7.450778E-2	6.347022E-2	7.198625E-2	8.209371E-2	7.913661E-2	8.878560E-2	1.102818E-1	9.301226E-2	9.100356E-2	1.128287E-1	8.650418E-2	5.832829E-2	9.127451E-2	5.451833E-2	8.218126E-2	7.622121E-2	7.270183E-2	6.489163E-2	6.589005E-2	6.639281E-2	8.381176E-2	7.154312E-2	6.470888E-2	1.007547E-1	8.973048E-2	7.721914E-2	7.316173E-2	8.494510E-2	8.090983E-2	7.644225E-2	9.492137E-2	7.020412E-2	6.917773E-2	7.003377E-2	7.155704E-2	8.938884E-2	7.539778E-2	6.776382E-2	9.417103E-2	1.041628E-1	9.009673E-2	9.222822E-2	4.953315E-2	9.421399E-2	8.560751E-2	8.751266E-2	9.766278E-2	1.047568E-1	9.265299E-2	9.103316E-2	8.039394E-2	8.624545E-2	9.882158E-2	7.889498E-2	8.822804E-2	8.644204E-2	1.073865E-1	6.104109E-2	6.058596E-2	9.284401E-2	9.417011E-2	1.075504E-1	8.010270E-2	9.870562E-2	8.585259E-2	6.677663E-2	8.931877E-2	9.570340E-2	9.078910E-2	7.006606E-2	6.200629E-2	8.169099E-2	1.047530E-1	6.964983E-2	5.198352E-2	8.696513E-2	1.038335E-1	8.473482E-2	1.057244E-1	7.130879E-2	9.910041E-2	4.261725E-2	8.260723E-2	8.849606E-2	1.076605E-1	7.295435E-2	7.066931E-2	8.378057E-2	1.158618E-1	8.186548E-2	6.475165E-2	8.242268E-2	8.938152E-2	9.326562E-2	9.526481E-2	1.067027E-1	8.082586E-2	8.559067E-2	6.684280E-2	7.886947E-2	9.084864E-2	8.103601E-2	6.415110E-2	8.252937E-2	6.057507E-2	7.589392E-2	8.504709E-2	1.236847E-1	8.717526E-2	8.295169E-2	8.099414E-2	1.031535E-1	1.106626E-1	9.636245E-2	8.216174E-2	1.168447E-1	1.057045E-1	1.005141E-1	8.308162E-2	9.283620E-2	1.033509E-1	6.128737E-2	7.396311E-2	9.337188E-2	4.852368E-2	6.063529E-2	9.351051E-2	8.573643E-2	9.237454E-2	7.630126E-2	7.156076E-2	1.003379E-1	8.706803E-2	8.550170E-2	7.909448E-2	1.190760E-1
5.342040E+2	1.067469E-1	1.221849E-1	9.367466E-2	7.756536E-2	8.775351E-2	1.044342E-1	9.404303E-2	8.605502E-2	8.313784E-2	8.383680E-2	7.924837E-2	1.034315E-1	1.130579E-1	1.002638E-1	1.209513E-1	9.262423E-2	7.692313E-2	9.406764E-2	1.267512E-1	1.189754E-1	9.523182E-2	9.024029E-2	1.062947E-1	1.037996E-1	1.012585E-1	1.053217E-1	1.157640E-1	8.268376E-2	1.052684E-1	9.824491E-2	1.095701E-1	9.056809E-2	7.764603E-2	7.509182E-2	1.256474E-1	1.148716E-1	8.754003E-2	9.089183E-2	1.049054E-1	9.024460E-2	7.026883E-2	8.611184E-2	9.835688E-2	1.110181E-1	1.078514E-1	8.468989E-2	1.064588E-1	9.156408E-2	1.116348E-1	7.051491E-2	1.061836E-1	1.021682E-1	8.795953E-2	8.463387E-2	8.561692E-2	9.273337E-2	5.439740E-2	1.106017E-1	8.673448E-2	5.318136E-2	6.960904E-2	1.121376E-1	9.723452E-2	8.159248E-2	1.210104E-1	1.137171E-1	9.834168E-2	8.292230E-2	9.267613E-2	8.731285E-2	9.009647E-2	1.018778E-1	9.198965E-2	9.421404E-2	1.119192E-1	1.082447E-1	8.743055E-2	1.047570E-1	9.923213E-2	9.026764E-2	7.891758E-2	9.397189E-2	1.284676E-1	7.741869E-2	7.785883E-2	9.269316E-2	9.391346E-2	9.492230E-2	7.843141E-2	1.120661E-1	1.160917E-1	1.052665E-1	7.329326E-2	1.010257E-1	1.019960E-1	1.092547E-1	9.632425E-2	1.149151E-1	1.221460E-1	9.816478E-2	9.180964E-2	9.829307E-2	1.120147E-1	7.106404E-2	8.248061E-2	8.854644E-2	1.045966E-1	6.052440E-2	9.154499E-2	1.071501E-1	1.090016E-1	8.213586E-2	9.560784E-2	8.849593E-2	8.717084E-2	8.758204E-2	7.987248E-2	1.115821E-1	1.083078E-1	8.924053E-2	9.028713E-2	9.140402E-2	1.166078E-1	8.953829E-2	1.549155E-1	9.308529E-2	9.175071E-2	8.968270E-2	1.104358E-1	7.305420E-2	1.208194E-1	8.380339E-2	1.058191E-1	1.136433E-1	9.911509E-2	9.806286E-2	7.644365E-2	9.403718E-2	1.447593E-1	1.106980E-1	9.901316E-2	9.348891E-2	1.190470E-1	1.029143E-1	1.098455E-1	1.094557E-1	9.913755E-2	1.005137E-1	9.530538E-2	1.301611E-1	1.033507E-1	7.941915E-2	7.845730E-2	9.190899E-2	1.078413E-1	8.156868E-2	1.221045E-1	9.553535E-2	1.281788E-1	7.763839E-2	9.172386E-2	8.239584E-2	8.601440E-2	7.104061E-2	8.117597E-2	1.086074E-1
5.344070E+2	7.619174E-2	9.065339E-2	1.259537E-1	1.249142E-1	1.092524E-1	1.137693E-1	8.822362E-2	1.383633E-1	1.228453E-1	1.052562E-1	1.193044E-1	1.306409E-1	1.445638E-1	1.202994E-1	1.250548E-1	1.483433E-1	1.339697E-1	1.164402E-1	1.104833E-1	1.116745E-1	1.013429E-1	1.197885E-1	1.383049E-1	1.291203E-1	1.185378E-1	1.085920E-1	1.184483E-1	1.301342E-1	1.190738E-1	1.091041E-1	1.194933E-1	1.325056E-1	1.137274E-1	1.178013E-1	1.263412E-1	1.320137E-1	1.136269E-1	1.078514E-1	1.261244E-1	8.878767E-2	1.088279E-1	1.402548E-1	1.196039E-1	1.330662E-1	1.185478E-1	1.164487E-1	1.148983E-1	1.039243E-1	1.081156E-1	1.241105E-1	1.143193E-1	1.464043E-1	1.112104E-1	1.238847E-1	1.349815E-1	1.357504E-1	1.106899E-1	1.161493E-1	1.449828E-1	1.162111E-1	9.998430E-2	1.410096E-1	1.358131E-1	1.570657E-1	1.165144E-1	1.240387E-1	1.323866E-1	1.514980E-1	1.434987E-1	1.225447E-1	1.429476E-1	1.397343E-1	1.262529E-1	1.321228E-1	1.246995E-1	1.297740E-1	1.400534E-1	1.323054E-1	1.460153E-1	1.193376E-1	1.276519E-1	1.225592E-1	1.497521E-1	1.357366E-1	1.234854E-1	1.333255E-1	1.224449E-1	1.398526E-1	1.034155E-1	1.059149E-1	1.138992E-1	9.079887E-2	1.035563E-1	1.203607E-1	1.496921E-1	1.243736E-1	1.159393E-1	1.106457E-1	1.279799E-1	1.262636E-1	9.909488E-2	1.239515E-1	1.250862E-1	1.368250E-1	9.772942E-2	1.106825E-1	1.175758E-1	1.060098E-1	1.447173E-1	1.250710E-1	1.394647E-1	8.280593E-2	1.078859E-1	1.335551E-1	1.296139E-1	1.204936E-1	9.696508E-2	1.251069E-1	1.453230E-1	1.364417E-1	9.101638E-2	8.391939E-2	1.474165E-1	1.081726E-1	1.376480E-1	1.188878E-1	1.313529E-1	1.005945E-1	1.264199E-1	1.261186E-1	1.208195E-1	1.177051E-1	1.210974E-1	1.402055E-1	1.490736E-1	1.245233E-1	1.094230E-1	1.259085E-1	1.305411E-1	1.068443E-1	1.292847E-1	1.440430E-1	1.455991E-1	1.000024E-1	8.690727E-2	1.205400E-1	1.370779E-1	1.168941E-1	1.182245E-1	1.598686E-1	1.095672E-1	1.338128E-1	1.301381E-1	1.014198E-1	1.273636E-1	9.889330E-2	1.259687E-1	1.368283E-1	1.331913E-1	1.130728E-1	1.349303E-1	1.299806E-1	1.355420E-1	1.202086E-1	4.371010E-2	1.871190E-1
5.346150E+2	1.858769E-1	1.843966E-1	2.175573E-1	1.606340E-1	1.841254E-1	1.690005E-1	1.896451E-1	2.083884E-1	1.894974E-1	1.715225E-1	2.104658E-1	2.171536E-1	1.983554E-1	1.877538E-1	2.016432E-1	2.002194E-1	1.917291E-1	1.930500E-1	2.101219E-1	1.833586E-1	1.563426E-1	1.889591E-1	2.190257E-1	1.732700E-1	1.821267E-1	2.217631E-1	1.795180E-1	1.797087E-1	1.694647E-1	2.088762E-1	2.015266E-1	1.950890E-1	1.965028E-1	2.039210E-1	1.957591E-1	1.692792E-1	1.684751E-1	1.997156E-1	1.824632E-1	1.681955E-1	1.717411E-1	2.015217E-1	1.960938E-1	1.978338E-1	1.805853E-1	1.877293E-1	1.936656E-1	2.184199E-1	1.707508E-1	1.783923E-1	1.848263E-1	2.062932E-1	1.754916E-1	2.157031E-1	2.042298E-1	2.133223E-1	1.843021E-1	2.132291E-1	1.952215E-1	2.077544E-1	2.048503E-1	1.960049E-1	2.003438E-1	2.141803E-1	2.034324E-1	2.125065E-1	2.049162E-1	2.222388E-1	1.801209E-1	2.090918E-1	2.187781E-1	1.991160E-1	1.679656E-1	1.804377E-1	2.081458E-1	2.150942E-1	1.751354E-1	2.019018E-1	2.490848E-1	2.279649E-1	2.110923E-1	2.005951E-1	2.075245E-1	2.324405E-1	1.891599E-1	1.942751E-1	1.961487E-1	2.481250E-1	1.626629E-1	2.043336E-1	2.191217E-1	2.278551E-1	1.777016E-1	1.969278E-1	2.003232E-1	2.230087E-1	1.684799E-1	2.123968E-1	2.074659E-1	2.098379E-1	1.673107E-1	1.933791E-1	2.115028E-1	1.601600E-1	1.795168E-1	1.976480E-1	2.015588E-1	1.896439E-1	2.085246E-1	2.228872E-1	1.981061E-1	2.382033E-1	1.736107E-1	1.809068E-1	2.364507E-1	2.206919E-1	1.804537E-1	2.092628E-1	1.830939E-1	2.544468E-1	1.836752E-1	2.148984E-1	2.169159E-1	2.028368E-1	1.855259E-1	2.271135E-1	1.743693E-1	1.817522E-1	1.925369E-1	2.068054E-1	2.100504E-1	2.242545E-1	1.877664E-1	2.062290E-1	1.840449E-1	2.103391E-1	1.531566E-1	2.281906E-1	2.457093E-1	1.800656E-1	1.826203E-1	2.191315E-1	2.056905E-1	1.888128E-1	2.245357E-1	2.232527E-1	1.888817E-1	1.868818E-1	1.747583E-1	2.261391E-1	1.903839E-1	1.995390E-1	1.773247E-1	1.987245E-1	1.949410E-1	1.725215E-1	2.040231E-1	2.054176E-1	1.883297E-1	1.645534E-1	1.889386E-1	1.760055E-1	1.745314E-1	2.084218E-1	1.394561E-1	2.446938E-1
5.348180E+2	3.981952E-1	3.880742E-1	4.461284E-1	3.757817E-1	3.531457E-1	4.023730E-1	4.564985E-1	4.176210E-1	3.674733E-1	3.937491E-1	4.252478E-1	4.048302E-1	4.250478E-1	3.894496E-1	4.361954E-1	4.128470E-1	3.956693E-1	3.937268E-1	4.405783E-1	4.043840E-1	3.709111E-1	4.448221E-1	4.730187E-1	4.011582E-1	3.659815E-1	4.206307E-1	4.305082E-1	4.120026E-1	4.441973E-1	4.348904E-1	4.396867E-1	4.138072E-1	3.889379E-1	4.328723E-1	3.581980E-1	4.435553E-1	3.818488E-1	4.081751E-1	4.005061E-1	4.341033E-1	4.010664E-1	3.895969E-1	4.106906E-1	3.942036E-1	3.959326E-1	4.361530E-1	4.412207E-1	4.428569E-1	4.417004E-1	3.865888E-1	4.058380E-1	4.186258E-1	3.765419E-1	3.846206E-1	4.277421E-1	4.552051E-1	3.358573E-1	3.796519E-1	3.918088E-1	4.065981E-1	4.210912E-1	4.159828E-1	4.051597E-1	3.896039E-1	3.885071E-1	4.174557E-1	4.728346E-1	4.337406E-1	4.230223E-1	3.760587E-1	4.715452E-1	4.203161E-1	3.921671E-1	4.197824E-1	4.254061E-1	4.240087E-1	4.258253E-1	4.563621E-1	4.603409E-1	4.719945E-1	3.949555E-1	4.524742E-1	4.500173E-1	4.221584E-1	3.930964E-1	4.372891E-1	4.267730E-1	3.983803E-1	3.596786E-1	4.396154E-1	4.003375E-1	4.288698E-1	4.152660E-1	4.436432E-1	4.769588E-1	4.526773E-1	3.835454E-1	4.180354E-1	4.495698E-1	4.281416E-1	4.077205E-1	3.948709E-1	3.959550E-1	3.553209E-1	3.444783E-1	4.537991E-1	4.054082E-1	4.016636E-1	4.275946E-1	4.170264E-1	3.846939E-1	4.411567E-1	4.285643E-1	4.046766E-1	3.967071E-1	4.262070E-1	3.789857E-1	4.189013E-1	4.769510E-1	4.196521E-1	4.514357E-1	4.274583E-1	4.017684E-1	4.242139E-1	4.398274E-1	4.672176E-1	3.942297E-1	4.027194E-1	4.155887E-1	4.139739E-1	4.109910E-1	3.875372E-1	4.086062E-1	3.838091E-1	4.110012E-1	4.055717E-1	3.625031E-1	4.253455E-1	4.383664E-1	4.097481E-1	3.995664E-1	4.339884E-1	4.125163E-1	4.312202E-1	4.088308E-1	4.316337E-1	4.427898E-1	4.392833E-1	3.779751E-1	4.173334E-1	4.180662E-1	4.254253E-1	3.862943E-1	4.094281E-1	3.781493E-1	3.825795E-1	4.204109E-1	4.342820E-1	4.153280E-1	4.152690E-1	3.862481E-1	3.936479E-1	4.369227E-1	4.354628E-1	4.162864E-1	3.493758E-1
5.350100E+2	7.899277E-1	8.150299E-1	8.256261E-1	7.338083E-1	7.089792E-1	7.788808E-1	7.449670E-1	7.643730E-1	6.986071E-1	7.605559E-1	8.237351E-1	8.471610E-1	8.277145E-1	7.995194E-1	8.471750E-1	8.080005E-1	8.170984E-1	7.991486E-1	8.960681E-1	7.979826E-1	7.660969E-1	7.826144E-1	8.661873E-1	8.199274E-1	7.032786E-1	7.464070E-1	8.224284E-1	8.015189E-1	8.217819E-1	8.102233E-1	7.698035E-1	8.505987E-1	7.688555E-1	7.773499E-1	8.142763E-1	8.169574E-1	7.624440E-1	7.883495E-1	8.080548E-1	7.728634E-1	7.278050E-1	7.051927E-1	8.675049E-1	8.372411E-1	8.230630E-1	8.370186E-1	8.076300E-1	8.904298E-1	7.633205E-1	7.748095E-1	7.644741E-1	8.201520E-1	7.868486E-1	8.030600E-1	7.719236E-1	8.353059E-1	7.407269E-1	7.887746E-1	8.352204E-1	7.787742E-1	8.080100E-1	7.816973E-1	8.631894E-1	7.431711E-1	8.193494E-1	8.465229E-1	8.724901E-1	8.336451E-1	7.653270E-1	7.842857E-1	8.767385E-1	8.448992E-1	7.817286E-1	8.181946E-1	8.817289E-1	8.163211E-1	8.044178E-1	7.949188E-1	9.047830E-1	8.017019E-1	7.929573E-1	7.823894E-1	9.053557E-1	8.362886E-1	7.670945E-1	8.193930E-1	8.452242E-1	9.552111E-1	7.265851E-1	8.317509E-1	8.351102E-1	8.080570E-1	7.996076E-1	8.411722E-1	8.651303E-1	8.061794E-1	7.681420E-1	7.730979E-1	8.448129E-1	7.761313E-1	7.540959E-1	8.695462E-1	7.743001E-1	7.788779E-1	7.194539E-1	8.688602E-1	7.886758E-1	8.396418E-1	7.657714E-1	7.926121E-1	7.913777E-1	8.611310E-1	8.149674E-1	7.857725E-1	7.881999E-1	8.650304E-1	7.043939E-1	8.449415E-1	8.939395E-1	8.393041E-1	7.425435E-1	8.480859E-1	8.001346E-1	7.916844E-1	8.722966E-1	8.012132E-1	7.581604E-1	7.860018E-1	7.636069E-1	8.108650E-1	7.958423E-1	8.372571E-1	7.051433E-1	8.922662E-1	7.757013E-1	8.031875E-1	6.980314E-1	8.552302E-1	7.831583E-1	8.236381E-1	7.707531E-1	8.361941E-1	8.785733E-1	8.840062E-1	7.979873E-1	8.173618E-1	8.032244E-1	8.391063E-1	7.790595E-1	8.058170E-1	8.641078E-1	8.734188E-1	7.488089E-1	8.271793E-1	8.331668E-1	7.969198E-1	8.369582E-1	8.087235E-1	7.912719E-1	7.829859E-1	7.952701E-1	8.024089E-1	8.320885E-1	7.926540E-1	7.951088E-1	9.617668E-1
5.352080E+2	1.147969E+0	1.149948E+0	1.257469E+0	1.114262E+0	1.098172E+0	1.069819E+0	1.273687E+0	1.136434E+0	1.133264E+0	1.059088E+0	1.184928E+0	1.125536E+0	1.236528E+0	1.172856E+0	1.217809E+0	1.136549E+0	1.124435E+0	1.098130E+0	1.219385E+0	1.064806E+0	1.140232E+0	1.107647E+0	1.248917E+0	1.145204E+0	1.117297E+0	1.087883E+0	1.157305E+0	1.099676E+0	1.195225E+0	1.150941E+0	1.153506E+0	1.160934E+0	1.163631E+0	1.144932E+0	1.222455E+0	1.137443E+0	1.137688E+0	1.128246E+0	1.149752E+0	1.096323E+0	9.889256E-1	1.146172E+0	1.192587E+0	1.188639E+0	1.172468E+0	1.116496E+0	1.202872E+0	1.215702E+0	1.069458E+0	1.131422E+0	1.125143E+0	1.107346E+0	1.154074E+0	1.145100E+0	1.173698E+0	1.203419E+0	1.076313E+0	1.135489E+0	1.162137E+0	1.087170E+0	1.163832E+0	1.212031E+0	1.147266E+0	1.094699E+0	1.128058E+0	1.207766E+0	1.241062E+0	1.194570E+0	1.132295E+0	1.161876E+0	1.314102E+0	1.233111E+0	1.035725E+0	1.098421E+0	1.166649E+0	1.233352E+0	1.162546E+0	1.226271E+0	1.254927E+0	1.223973E+0	1.189483E+0	1.199612E+0	1.232226E+0	1.208342E+0	1.089245E+0	1.236659E+0	1.261298E+0	1.236572E+0	1.035671E+0	1.261563E+0	1.144200E+0	1.178869E+0	1.184705E+0	1.251850E+0	1.216613E+0	1.231678E+0	1.074978E+0	1.122468E+0	1.159111E+0	1.115475E+0	1.076629E+0	1.168388E+0	1.105443E+0	1.145866E+0	1.036900E+0	1.279177E+0	1.142167E+0	1.164641E+0	1.121672E+0	1.174171E+0	1.163791E+0	1.157190E+0	1.072810E+0	1.180617E+0	1.192865E+0	1.149535E+0	1.004821E+0	1.163531E+0	1.174954E+0	1.203642E+0	1.017600E+0	1.209587E+0	1.151213E+0	1.109961E+0	1.191742E+0	1.229100E+0	1.089316E+0	1.129729E+0	1.153767E+0	1.175046E+0	1.115303E+0	1.124387E+0	1.132239E+0	1.251222E+0	1.131123E+0	1.069218E+0	1.053634E+0	1.173197E+0	1.149278E+0	1.194368E+0	1.054729E+0	1.241372E+0	1.211171E+0	1.194841E+0	1.167369E+0	1.115155E+0	1.179710E+0	1.145117E+0	1.117499E+0	1.179065E+0	1.237881E+0	1.162009E+0	1.064135E+0	1.177622E+0	1.103475E+0	1.185997E+0	1.153040E+0	1.197163E+0	1.107065E+0	1.139338E+0	1.114998E+0	1.122242E+0	1.182996E+0	1.144061E+0	1.159359E+0	1.155427E+0
5.354110E+2	1.466057E+0	1.332320E+0	1.542746E+0	1.292861E+0	1.383580E+0	1.223846E+0	1.360975E+0	1.356635E+0	1.457307E+0	1.320138E+0	1.464626E+0	1.393447E+0	1.433251E+0	1.421305E+0	1.405861E+0	1.353018E+0	1.458869E+0	1.349655E+0	1.481019E+0	1.305744E+0	1.511652E+0	1.398431E+0	1.472990E+0	1.344525E+0	1.438007E+0	1.287404E+0	1.421044E+0	1.335511E+0	1.406452E+0	1.325372E+0	1.363220E+0	1.370621E+0	1.348990E+0	1.324873E+0	1.389060E+0	1.383397E+0	1.414605E+0	1.331759E+0	1.407305E+0	1.429254E+0	1.312281E+0	1.339946E+0	1.434805E+0	1.393966E+0	1.370703E+0	1.352216E+0	1.415263E+0	1.412814E+0	1.398820E+0	1.319692E+0	1.373273E+0	1.421762E+0	1.401626E+0	1.433874E+0	1.371842E+0	1.428378E+0	1.460976E+0	1.280416E+0	1.461385E+0	1.329534E+0	1.433591E+0	1.434759E+0	1.344365E+0	1.348316E+0	1.325121E+0	1.346364E+0	1.473456E+0	1.388024E+0	1.396124E+0	1.352585E+0	1.474954E+0	1.430557E+0	1.382829E+0	1.421759E+0	1.462846E+0	1.517221E+0	1.408850E+0	1.467682E+0	1.463991E+0	1.526906E+0	1.415435E+0	1.450718E+0	1.491443E+0	1.522077E+0	1.324982E+0	1.492958E+0	1.495884E+0	1.464902E+0	1.261953E+0	1.402271E+0	1.384604E+0	1.393589E+0	1.429837E+0	1.458348E+0	1.458028E+0	1.373511E+0	1.397226E+0	1.305335E+0	1.357462E+0	1.281905E+0	1.301807E+0	1.378935E+0	1.355253E+0	1.338906E+0	1.242062E+0	1.499752E+0	1.365104E+0	1.352451E+0	1.385409E+0	1.409378E+0	1.291736E+0	1.394304E+0	1.301040E+0	1.350926E+0	1.356048E+0	1.362363E+0	1.168511E+0	1.398718E+0	1.400822E+0	1.527415E+0	1.329867E+0	1.416159E+0	1.367591E+0	1.314941E+0	1.506480E+0	1.371730E+0	1.339220E+0	1.371156E+0	1.372459E+0	1.348777E+0	1.340083E+0	1.294588E+0	1.261410E+0	1.409831E+0	1.385200E+0	1.370291E+0	1.209927E+0	1.470409E+0	1.426533E+0	1.487251E+0	1.402851E+0	1.343225E+0	1.434070E+0	1.499128E+0	1.436298E+0	1.379696E+0	1.334390E+0	1.467505E+0	1.356622E+0	1.415201E+0	1.495093E+0	1.390917E+0	1.284339E+0	1.422712E+0	1.379789E+0	1.317372E+0	1.337742E+0	1.371436E+0	1.292530E+0	1.346597E+0	1.306547E+0	1.359386E+0	1.264137E+0	1.402916E+0	1.259267E+0	1.197298E+0
5.356150E+2	1.610214E+0	1.502761E+0	1.610794E+0	1.438231E+0	1.453263E+0	1.384094E+0	1.494817E+0	1.480656E+0	1.443835E+0	1.359630E+0	1.480513E+0	1.523216E+0	1.610762E+0	1.512131E+0	1.507068E+0	1.449726E+0	1.560125E+0	1.396433E+0	1.566424E+0	1.435836E+0	1.595171E+0	1.474988E+0	1.582936E+0	1.504242E+0	1.567256E+0	1.389454E+0	1.448558E+0	1.424745E+0	1.507923E+0	1.440755E+0	1.449223E+0	1.409331E+0	1.506050E+0	1.502012E+0	1.454313E+0	1.434823E+0	1.493534E+0	1.474501E+0	1.580716E+0	1.483165E+0	1.438783E+0	1.411900E+0	1.477300E+0	1.493874E+0	1.522586E+0	1.397384E+0	1.477150E+0	1.571549E+0	1.524091E+0	1.387029E+0	1.378697E+0	1.461914E+0	1.520615E+0	1.496953E+0	1.534334E+0	1.487615E+0	1.544693E+0	1.450305E+0	1.569147E+0	1.374555E+0	1.546413E+0	1.563307E+0	1.528138E+0	1.441468E+0	1.470483E+0	1.472432E+0	1.543764E+0	1.500632E+0	1.480579E+0	1.491215E+0	1.729253E+0	1.484744E+0	1.472956E+0	1.539946E+0	1.587638E+0	1.561873E+0	1.498017E+0	1.545251E+0	1.576565E+0	1.500896E+0	1.467125E+0	1.524118E+0	1.490683E+0	1.600325E+0	1.452182E+0	1.546874E+0	1.564834E+0	1.583486E+0	1.495374E+0	1.532983E+0	1.492749E+0	1.461355E+0	1.393520E+0	1.483098E+0	1.474905E+0	1.529022E+0	1.494603E+0	1.396413E+0	1.490182E+0	1.434645E+0	1.470689E+0	1.484587E+0	1.383575E+0	1.426588E+0	1.440292E+0	1.524260E+0	1.481153E+0	1.463963E+0	1.457719E+0	1.558717E+0	1.432629E+0	1.493438E+0	1.415155E+0	1.444100E+0	1.428493E+0	1.484502E+0	1.428181E+0	1.494145E+0	1.519423E+0	1.592319E+0	1.494024E+0	1.561359E+0	1.480795E+0	1.472960E+0	1.595171E+0	1.484973E+0	1.458710E+0	1.422988E+0	1.486528E+0	1.489798E+0	1.419778E+0	1.421201E+0	1.394053E+0	1.516075E+0	1.382345E+0	1.492580E+0	1.369087E+0	1.485234E+0	1.515398E+0	1.504978E+0	1.434565E+0	1.526859E+0	1.535384E+0	1.584296E+0	1.522513E+0	1.469109E+0	1.452589E+0	1.527069E+0	1.388709E+0	1.520320E+0	1.551820E+0	1.519347E+0	1.317296E+0	1.420518E+0	1.473647E+0	1.367179E+0	1.505444E+0	1.456122E+0	1.424289E+0	1.398745E+0	1.413843E+0	1.408531E+0	1.383213E+0	1.517160E+0	1.257187E+0	1.291513E+0
5.358130E+2	1.661139E+0	1.613549E+0	1.696290E+0	1.511331E+0	1.511828E+0	1.443215E+0	1.629493E+0	1.705074E+0	1.540978E+0	1.487477E+0	1.711179E+0	1.560194E+0	1.718346E+0	1.631683E+0	1.569979E+0	1.613681E+0	1.632859E+0	1.547620E+0	1.590150E+0	1.511506E+0	1.688874E+0	1.548190E+0	1.706105E+0	1.517226E+0	1.652962E+0	1.472533E+0	1.541172E+0	1.565678E+0	1.628036E+0	1.495055E+0	1.553088E+0	1.581597E+0	1.541427E+0	1.576227E+0	1.595230E+0	1.632334E+0	1.656742E+0	1.524671E+0	1.594619E+0	1.558202E+0	1.517929E+0	1.503799E+0	1.581409E+0	1.525566E+0	1.688736E+0	1.497600E+0	1.660710E+0	1.680841E+0	1.672584E+0	1.569115E+0	1.513608E+0	1.566038E+0	1.673110E+0	1.506765E+0	1.600154E+0	1.575763E+0	1.643563E+0	1.552237E+0	1.641227E+0	1.538133E+0	1.683101E+0	1.555747E+0	1.565313E+0	1.436027E+0	1.553654E+0	1.583012E+0	1.693268E+0	1.572817E+0	1.594182E+0	1.576995E+0	1.777507E+0	1.639137E+0	1.612245E+0	1.551094E+0	1.650787E+0	1.724538E+0	1.674891E+0	1.675025E+0	1.748344E+0	1.634771E+0	1.590439E+0	1.636148E+0	1.654119E+0	1.602541E+0	1.649898E+0	1.607042E+0	1.606045E+0	1.800765E+0	1.541775E+0	1.642166E+0	1.558515E+0	1.567193E+0	1.569047E+0	1.640870E+0	1.630468E+0	1.629818E+0	1.638210E+0	1.539436E+0	1.584981E+0	1.526866E+0	1.607119E+0	1.576654E+0	1.478704E+0	1.483864E+0	1.565749E+0	1.724279E+0	1.522381E+0	1.542461E+0	1.600224E+0	1.598290E+0	1.591799E+0	1.593909E+0	1.522048E+0	1.551022E+0	1.531671E+0	1.625658E+0	1.506411E+0	1.628646E+0	1.610829E+0	1.674922E+0	1.647241E+0	1.597284E+0	1.510172E+0	1.528863E+0	1.685432E+0	1.623302E+0	1.505138E+0	1.491190E+0	1.688509E+0	1.513059E+0	1.579167E+0	1.488314E+0	1.616284E+0	1.639772E+0	1.517235E+0	1.472555E+0	1.529680E+0	1.583070E+0	1.602131E+0	1.657586E+0	1.614752E+0	1.622761E+0	1.574513E+0	1.648353E+0	1.747940E+0	1.478715E+0	1.621862E+0	1.553129E+0	1.731730E+0	1.544696E+0	1.644291E+0	1.596406E+0	1.618392E+0	1.560255E+0	1.543476E+0	1.524543E+0	1.547174E+0	1.538707E+0	1.535998E+0	1.555859E+0	1.548502E+0	1.534904E+0	1.634012E+0	1.638634E+0	1.521527E+0	1.558454E+0
5.360120E+2	1.806080E+0	1.739675E+0	1.848964E+0	1.653379E+0	1.677144E+0	1.565346E+0	1.709298E+0	1.781005E+0	1.738805E+0	1.647453E+0	1.761593E+0	1.802985E+0	1.873575E+0	1.741880E+0	1.747092E+0	1.668118E+0	1.764781E+0	1.580841E+0	1.790105E+0	1.654208E+0	1.831469E+0	1.652950E+0	1.743682E+0	1.732780E+0	1.784288E+0	1.606637E+0	1.663983E+0	1.652078E+0	1.760567E+0	1.735999E+0	1.609982E+0	1.632566E+0	1.634815E+0	1.642043E+0	1.750728E+0	1.694192E+0	1.722292E+0	1.658932E+0	1.810466E+0	1.754899E+0	1.642402E+0	1.617785E+0	1.666399E+0	1.775682E+0	1.671618E+0	1.685328E+0	1.834420E+0	1.787527E+0	1.707068E+0	1.699668E+0	1.704114E+0	1.636818E+0	1.778423E+0	1.676384E+0	1.748935E+0	1.702701E+0	1.747486E+0	1.659028E+0	1.804320E+0	1.649184E+0	1.759036E+0	1.712480E+0	1.681049E+0	1.597175E+0	1.673539E+0	1.666321E+0	1.796881E+0	1.692644E+0	1.703296E+0	1.730941E+0	1.872487E+0	1.737859E+0	1.661403E+0	1.705703E+0	1.810162E+0	1.832190E+0	1.734089E+0	1.835239E+0	1.810480E+0	1.809951E+0	1.743289E+0	1.763633E+0	1.739258E+0	1.775280E+0	1.748752E+0	1.720346E+0	1.759001E+0	1.861166E+0	1.639566E+0	1.792101E+0	1.662275E+0	1.759069E+0	1.666645E+0	1.864386E+0	1.769885E+0	1.706852E+0	1.747498E+0	1.618415E+0	1.719159E+0	1.603237E+0	1.777330E+0	1.793238E+0	1.628301E+0	1.594170E+0	1.741108E+0	1.733763E+0	1.697218E+0	1.593080E+0	1.752649E+0	1.778991E+0	1.558289E+0	1.667589E+0	1.689611E+0	1.635795E+0	1.574845E+0	1.725855E+0	1.647091E+0	1.686500E+0	1.680329E+0	1.772275E+0	1.728222E+0	1.710297E+0	1.718671E+0	1.644398E+0	1.858889E+0	1.734397E+0	1.655354E+0	1.641909E+0	1.753172E+0	1.788555E+0	1.547837E+0	1.629457E+0	1.737812E+0	1.742225E+0	1.620005E+0	1.632746E+0	1.592774E+0	1.697211E+0	1.730094E+0	1.704602E+0	1.628449E+0	1.694131E+0	1.743607E+0	1.809962E+0	1.802518E+0	1.630935E+0	1.691173E+0	1.730331E+0	1.808892E+0	1.773218E+0	1.840893E+0	1.749767E+0	1.691044E+0	1.645855E+0	1.713170E+0	1.646535E+0	1.694011E+0	1.666088E+0	1.665611E+0	1.684897E+0	1.649318E+0	1.606671E+0	1.662464E+0	1.778907E+0	1.758811E+0	1.872501E+0
5.362050E+2	1.791977E+0	1.797624E+0	1.889095E+0	1.675807E+0	1.708276E+0	1.584794E+0	1.760840E+0	1.728697E+0	1.715406E+0	1.581857E+0	1.718084E+0	1.773685E+0	1.865121E+0	1.679768E+0	1.797694E+0	1.739846E+0	1.769060E+0	1.621518E+0	1.823995E+0	1.698679E+0	1.922452E+0	1.681157E+0	1.848062E+0	1.656816E+0	1.836124E+0	1.551033E+0	1.776726E+0	1.688199E+0	1.773682E+0	1.772649E+0	1.633796E+0	1.717086E+0	1.694949E+0	1.636440E+0	1.719491E+0	1.757543E+0	1.780489E+0	1.660348E+0	1.833145E+0	1.773844E+0	1.670816E+0	1.604250E+0	1.752807E+0	1.759145E+0	1.766457E+0	1.688154E+0	1.745807E+0	1.858436E+0	1.759146E+0	1.633705E+0	1.554287E+0	1.730731E+0	1.742178E+0	1.762596E+0	1.685171E+0	1.768985E+0	1.748933E+0	1.662492E+0	1.768644E+0	1.664942E+0	1.773502E+0	1.806658E+0	1.707699E+0	1.575418E+0	1.692272E+0	1.703921E+0	1.868673E+0	1.712134E+0	1.668921E+0	1.786853E+0	1.863297E+0	1.704461E+0	1.675558E+0	1.655158E+0	1.813171E+0	1.746866E+0	1.736283E+0	1.755491E+0	1.807554E+0	1.859675E+0	1.794239E+0	1.769043E+0	1.755220E+0	1.804806E+0	1.694833E+0	1.772698E+0	1.780399E+0	1.852328E+0	1.675973E+0	1.759807E+0	1.710501E+0	1.705773E+0	1.713551E+0	1.777764E+0	1.803641E+0	1.726295E+0	1.713869E+0	1.644034E+0	1.712593E+0	1.619808E+0	1.730967E+0	1.709474E+0	1.686398E+0	1.593463E+0	1.663475E+0	1.803338E+0	1.654461E+0	1.666447E+0	1.705151E+0	1.743895E+0	1.623024E+0	1.773422E+0	1.700445E+0	1.655652E+0	1.686074E+0	1.735365E+0	1.661552E+0	1.780427E+0	1.761157E+0	1.865203E+0	1.773459E+0	1.708801E+0	1.648454E+0	1.613090E+0	1.811796E+0	1.733678E+0	1.614387E+0	1.645999E+0	1.743000E+0	1.775473E+0	1.596194E+0	1.634299E+0	1.721840E+0	1.763476E+0	1.701370E+0	1.671365E+0	1.636508E+0	1.685353E+0	1.748580E+0	1.798635E+0	1.634213E+0	1.765506E+0	1.844227E+0	1.842720E+0	1.823873E+0	1.663448E+0	1.732765E+0	1.760860E+0	1.805073E+0	1.770929E+0	1.795822E+0	1.788296E+0	1.710520E+0	1.757060E+0	1.703409E+0	1.613332E+0	1.758925E+0	1.708080E+0	1.597584E+0	1.643443E+0	1.687483E+0	1.644896E+0	1.635066E+0	1.666109E+0	1.740080E+0	1.773049E+0
5.364090E+2	1.454304E+0	1.561563E+0	1.559321E+0	1.331072E+0	1.372460E+0	1.387984E+0	1.344350E+0	1.494998E+0	1.431778E+0	1.469404E+0	1.450816E+0	1.412283E+0	1.493958E+0	1.516141E+0	1.493389E+0	1.420267E+0	1.503795E+0	1.391011E+0	1.409851E+0	1.366144E+0	1.521837E+0	1.488420E+0	1.473685E+0	1.413345E+0	1.473257E+0	1.370484E+0	1.447220E+0	1.431827E+0	1.359513E+0	1.444149E+0	1.449221E+0	1.418365E+0	1.416909E+0	1.358480E+0	1.375870E+0	1.454202E+0	1.413268E+0	1.415850E+0	1.511204E+0	1.415413E+0	1.395488E+0	1.348495E+0	1.425598E+0	1.449775E+0	1.412774E+0	1.363508E+0	1.443396E+0	1.503241E+0	1.412895E+0	1.369851E+0	1.427508E+0	1.402026E+0	1.457017E+0	1.422659E+0	1.423949E+0	1.448828E+0	1.502112E+0	1.394136E+0	1.451193E+0	1.302521E+0	1.500849E+0	1.355017E+0	1.455892E+0	1.341516E+0	1.438264E+0	1.484228E+0	1.468275E+0	1.401018E+0	1.470115E+0	1.474364E+0	1.546189E+0	1.433528E+0	1.389532E+0	1.339253E+0	1.503441E+0	1.506855E+0	1.481207E+0	1.522052E+0	1.502001E+0	1.458822E+0	1.461955E+0	1.453809E+0	1.570501E+0	1.456376E+0	1.405865E+0	1.514056E+0	1.518075E+0	1.561389E+0	1.400435E+0	1.459938E+0	1.451830E+0	1.436228E+0	1.439672E+0	1.434373E+0	1.494717E+0	1.428227E+0	1.414738E+0	1.335220E+0	1.394652E+0	1.302799E+0	1.503140E+0	1.340449E+0	1.354526E+0	1.294359E+0	1.409797E+0	1.455478E+0	1.420838E+0	1.411875E+0	1.462685E+0	1.444473E+0	1.348855E+0	1.429805E+0	1.439711E+0	1.448682E+0	1.293117E+0	1.414291E+0	1.439359E+0	1.467095E+0	1.449925E+0	1.540692E+0	1.394801E+0	1.431876E+0	1.385503E+0	1.451344E+0	1.577119E+0	1.476372E+0	1.337854E+0	1.385477E+0	1.453106E+0	1.415653E+0	1.338721E+0	1.344404E+0	1.429471E+0	1.432597E+0	1.382346E+0	1.413914E+0	1.338260E+0	1.387397E+0	1.402364E+0	1.493417E+0	1.387716E+0	1.454742E+0	1.431972E+0	1.474375E+0	1.500365E+0	1.344228E+0	1.424863E+0	1.424322E+0	1.604148E+0	1.457097E+0	1.568138E+0	1.453621E+0	1.452864E+0	1.363451E+0	1.460882E+0	1.384505E+0	1.461392E+0	1.376334E+0	1.369867E+0	1.365985E+0	1.433287E+0	1.383569E+0	1.440117E+0	1.427501E+0	1.377909E+0	1.490411E+0
5.366080E+2	1.231017E+0	1.242839E+0	1.168482E+0	1.159120E+0	1.138944E+0	1.214510E+0	1.119892E+0	1.149933E+0	1.161627E+0	1.180242E+0	1.104125E+0	1.130420E+0	1.197338E+0	1.293741E+0	1.107029E+0	1.128864E+0	1.208578E+0	1.133384E+0	1.238364E+0	1.115915E+0	1.212887E+0	1.243302E+0	1.191159E+0	1.044570E+0	1.203695E+0	1.241613E+0	1.123079E+0	1.139336E+0	1.166233E+0	1.221528E+0	1.117120E+0	1.096415E+0	1.150189E+0	1.133730E+0	1.127353E+0	1.206012E+0	1.136350E+0	1.259682E+0	1.170239E+0	1.166261E+0	1.093103E+0	1.207439E+0	1.123888E+0	1.081153E+0	1.158920E+0	1.141903E+0	1.225378E+0	1.166260E+0	1.194025E+0	1.184331E+0	1.111584E+0	1.158388E+0	1.184163E+0	1.274067E+0	1.120219E+0	1.190726E+0	1.200444E+0	1.216620E+0	1.194174E+0	1.132941E+0	1.186975E+0	1.172847E+0	1.169711E+0	1.060022E+0	1.170767E+0	1.187860E+0	1.224781E+0	1.151980E+0	1.145001E+0	1.167236E+0	1.230613E+0	1.184121E+0	1.138516E+0	1.177955E+0	1.273400E+0	1.226974E+0	1.206398E+0	1.180598E+0	1.216184E+0	1.268341E+0	1.216804E+0	1.188795E+0	1.211702E+0	1.241560E+0	1.124502E+0	1.196808E+0	1.208199E+0	1.265297E+0	1.114905E+0	1.181598E+0	1.151508E+0	1.145366E+0	1.112831E+0	1.158268E+0	1.181391E+0	1.115763E+0	1.098096E+0	1.095428E+0	1.136505E+0	1.101066E+0	1.158090E+0	1.140466E+0	1.132311E+0	1.131724E+0	1.154037E+0	1.148729E+0	1.111628E+0	1.107417E+0	1.148612E+0	1.200305E+0	1.088394E+0	1.218813E+0	1.180424E+0	1.150067E+0	1.132129E+0	1.175132E+0	1.040320E+0	1.140239E+0	1.101679E+0	1.241256E+0	1.159871E+0	1.139233E+0	1.085296E+0	1.126359E+0	1.244330E+0	1.157427E+0	1.097510E+0	1.118135E+0	1.156672E+0	1.169231E+0	1.052637E+0	1.080798E+0	1.246132E+0	1.179127E+0	1.094725E+0	1.087811E+0	1.129630E+0	1.166526E+0	1.177003E+0	1.137332E+0	1.122480E+0	1.207174E+0	1.191607E+0	1.223960E+0	1.259121E+0	1.105548E+0	1.113314E+0	1.127246E+0	1.202299E+0	1.166115E+0	1.247983E+0	1.183163E+0	1.133042E+0	1.165916E+0	1.107980E+0	1.132579E+0	1.168496E+0	1.080981E+0	1.127831E+0	1.115269E+0	1.161085E+0	1.062176E+0	1.170350E+0	1.131046E+0	1.105243E+0	1.113556E+0
5.368180E+2	1.032017E+0	1.053649E+0	1.007087E+0	1.037840E+0	9.491668E-1	1.001363E+0	9.677601E-1	9.752925E-1	9.489071E-1	9.894753E-1	9.632391E-1	8.959990E-1	1.002152E+0	9.811786E-1	9.559029E-1	9.597856E-1	1.003925E+0	9.964361E-1	9.286033E-1	9.101545E-1	1.004430E+0	1.009600E+0	1.031109E+0	8.971896E-1	9.445010E-1	9.707864E-1	9.257771E-1	9.474099E-1	9.729539E-1	9.554698E-1	9.040990E-1	8.667294E-1	9.436032E-1	9.656921E-1	9.697733E-1	9.436611E-1	9.744804E-1	1.008117E+0	9.170760E-1	9.462494E-1	8.881303E-1	9.352993E-1	9.362049E-1	9.378376E-1	8.936570E-1	9.506446E-1	9.644610E-1	9.997209E-1	9.547444E-1	9.390299E-1	8.431163E-1	9.263183E-1	9.967893E-1	1.008424E+0	9.597843E-1	9.241616E-1	9.334191E-1	9.974967E-1	9.895778E-1	8.808220E-1	9.635018E-1	9.762408E-1	9.214073E-1	8.886780E-1	9.332416E-1	9.666912E-1	9.790658E-1	9.664653E-1	8.878987E-1	1.053883E+0	1.062101E+0	9.451070E-1	9.120792E-1	9.690862E-1	1.002012E+0	9.718102E-1	9.155108E-1	9.783335E-1	9.647248E-1	9.546985E-1	9.480229E-1	9.940910E-1	9.448847E-1	9.684259E-1	9.357742E-1	1.076472E+0	9.878779E-1	1.005296E+0	9.200313E-1	1.015517E+0	9.527548E-1	8.712547E-1	8.956924E-1	1.034523E+0	9.539183E-1	9.530523E-1	9.173560E-1	9.879852E-1	9.680528E-1	9.079778E-1	9.435102E-1	1.040097E+0	8.861331E-1	8.976713E-1	9.509543E-1	9.676835E-1	9.482431E-1	8.902625E-1	9.337965E-1	9.583773E-1	9.368397E-1	9.361506E-1	8.713020E-1	9.385171E-1	9.550422E-1	9.974087E-1	9.154158E-1	9.877056E-1	9.188678E-1	9.786967E-1	9.592322E-1	9.708318E-1	9.119061E-1	9.139266E-1	1.111684E+0	9.488589E-1	8.837946E-1	9.169456E-1	9.496049E-1	8.675640E-1	8.796244E-1	9.230501E-1	9.864016E-1	9.377996E-1	8.991718E-1	8.732704E-1	9.002082E-1	9.360190E-1	9.559100E-1	9.770175E-1	9.444543E-1	9.588629E-1	9.603249E-1	9.560729E-1	1.032905E+0	9.259861E-1	9.564450E-1	9.299415E-1	1.038046E+0	9.794914E-1	9.752295E-1	9.693644E-1	9.944786E-1	9.508215E-1	9.908469E-1	9.145811E-1	1.032480E+0	9.235049E-1	8.943877E-1	8.832730E-1	9.335308E-1	9.170808E-1	9.311423E-1	9.473882E-1	9.803538E-1	1.019341E+0
5.370170E+2	9.513207E-1	1.037456E+0	9.207188E-1	1.027871E+0	9.313750E-1	8.940111E-1	9.153873E-1	9.601061E-1	9.453617E-1	9.278945E-1	8.948683E-1	9.183250E-1	9.775615E-1	9.704934E-1	9.340204E-1	8.912585E-1	9.269128E-1	8.486398E-1	9.760504E-1	8.902421E-1	9.704795E-1	1.008929E+0	9.858770E-1	9.328980E-1	9.389720E-1	9.485449E-1	8.855114E-1	8.758806E-1	9.253254E-1	9.167821E-1	8.683751E-1	8.964074E-1	8.686101E-1	8.851746E-1	9.072967E-1	9.071411E-1	9.176254E-1	9.847973E-1	9.287826E-1	8.923391E-1	8.583656E-1	9.310257E-1	8.738788E-1	9.323252E-1	9.029274E-1	9.273555E-1	9.011656E-1	9.691457E-1	8.780338E-1	9.252869E-1	8.776915E-1	9.133880E-1	9.420820E-1	1.013331E+0	8.850511E-1	9.460220E-1	9.435226E-1	9.302351E-1	9.087586E-1	8.170416E-1	9.468679E-1	9.624925E-1	8.898429E-1	8.907175E-1	9.205037E-1	9.497354E-1	9.494616E-1	8.928362E-1	8.594985E-1	1.003333E+0	1.003123E+0	8.641989E-1	8.383374E-1	9.534758E-1	9.569062E-1	9.494841E-1	9.498620E-1	8.782898E-1	9.479110E-1	9.661737E-1	9.066723E-1	1.022679E+0	9.502051E-1	9.484952E-1	8.942959E-1	1.041310E+0	1.006106E+0	1.002350E+0	8.557869E-1	9.593880E-1	9.337557E-1	8.940979E-1	9.123371E-1	9.316610E-1	8.959495E-1	9.141742E-1	8.949391E-1	9.111377E-1	8.849205E-1	8.683521E-1	9.488078E-1	1.067264E+0	8.614426E-1	8.609022E-1	9.232290E-1	1.053067E+0	8.795300E-1	9.511535E-1	9.196173E-1	9.591240E-1	8.622044E-1	8.785467E-1	8.286894E-1	9.996149E-1	9.257718E-1	9.506013E-1	9.325076E-1	9.305997E-1	9.135808E-1	9.904967E-1	8.928396E-1	1.000769E+0	8.882624E-1	8.714398E-1	9.499996E-1	9.789623E-1	7.711338E-1	8.978496E-1	9.285349E-1	9.053633E-1	9.034638E-1	8.635487E-1	9.912629E-1	9.962345E-1	9.227234E-1	8.839978E-1	8.536076E-1	9.819710E-1	9.310282E-1	8.945473E-1	9.120206E-1	9.625805E-1	9.575304E-1	9.866478E-1	1.013130E+0	8.883002E-1	9.017237E-1	9.180289E-1	9.570651E-1	9.802530E-1	9.938801E-1	9.293242E-1	9.225751E-1	9.200939E-1	9.315289E-1	8.712705E-1	9.443792E-1	9.207057E-1	8.822152E-1	8.458328E-1	9.212890E-1	8.772973E-1	9.195510E-1	8.721910E-1	9.158316E-1	9.565316E-1
5.372010E+2	1.017916E+0	1.178922E+0	1.089966E+0	1.007104E+0	9.936460E-1	1.065151E+0	1.010989E+0	9.516686E-1	1.037540E+0	9.861288E-1	9.742898E-1	1.004838E+0	1.034427E+0	1.015240E+0	9.873595E-1	9.809210E-1	9.590009E-1	1.016097E+0	9.848621E-1	9.074999E-1	1.014615E+0	1.046536E+0	1.033196E+0	9.010844E-1	1.028826E+0	1.017232E+0	9.452384E-1	9.665315E-1	9.584582E-1	9.900846E-1	9.722400E-1	9.435059E-1	9.938343E-1	9.782951E-1	9.669966E-1	9.950882E-1	1.005249E+0	1.046981E+0	9.814640E-1	9.367785E-1	9.740431E-1	1.017939E+0	9.978212E-1	1.000538E+0	9.599729E-1	1.012045E+0	1.070656E+0	1.037452E+0	9.547439E-1	9.988094E-1	8.865050E-1	9.834858E-1	1.001576E+0	1.087627E+0	9.604692E-1	9.989123E-1	9.846592E-1	1.038409E+0	1.036177E+0	8.935779E-1	1.038716E+0	1.007175E+0	9.796255E-1	9.444338E-1	1.009669E+0	1.047050E+0	1.014591E+0	9.606902E-1	1.050082E+0	1.070733E+0	1.092739E+0	1.016365E+0	9.724115E-1	1.021860E+0	1.027572E+0	1.032412E+0	9.622874E-1	1.022557E+0	1.053905E+0	1.062561E+0	9.672215E-1	1.100715E+0	1.030783E+0	1.040770E+0	1.010436E+0	1.085068E+0	1.075056E+0	1.031076E+0	9.842758E-1	1.145460E+0	9.403323E-1	9.930819E-1	9.342786E-1	1.029882E+0	1.022894E+0	1.012809E+0	1.018234E+0	9.879853E-1	9.418006E-1	9.166240E-1	1.042853E+0	1.138202E+0	9.282527E-1	9.153492E-1	9.939275E-1	1.060974E+0	9.543505E-1	9.863680E-1	9.862598E-1	1.013632E+0	9.307469E-1	9.602636E-1	9.550834E-1	1.068350E+0	9.323573E-1	9.769308E-1	9.397397E-1	1.059839E+0	9.845895E-1	1.072362E+0	9.906054E-1	1.115282E+0	9.147720E-1	1.015299E+0	1.106976E+0	1.074287E+0	8.892570E-1	9.701414E-1	1.019354E+0	1.046384E+0	9.477390E-1	9.154396E-1	9.864019E-1	1.135111E+0	9.826740E-1	9.383481E-1	9.088120E-1	1.110195E+0	1.016337E+0	1.014784E+0	1.004276E+0	1.042872E+0	1.022513E+0	1.077641E+0	1.077990E+0	1.061212E+0	9.600926E-1	1.028966E+0	1.013598E+0	1.136408E+0	1.028071E+0	9.920279E-1	1.000471E+0	1.092755E+0	9.675703E-1	9.600573E-1	1.001568E+0	1.031989E+0	9.488108E-1	9.501304E-1	9.659358E-1	9.888487E-1	9.079601E-1	9.517268E-1	9.970074E-1	1.155426E+0
5.374220E+2	1.164423E+0	1.170400E+0	1.136204E+0	1.220591E+0	1.065554E+0	1.163167E+0	1.088302E+0	1.165964E+0	1.050303E+0	1.084523E+0	1.113794E+0	1.057163E+0	1.165062E+0	1.127441E+0	1.088565E+0	1.039842E+0	1.100904E+0	1.059487E+0	1.089245E+0	1.047549E+0	1.096096E+0	1.137867E+0	1.113222E+0	1.046517E+0	1.070988E+0	1.114050E+0	1.030468E+0	1.045851E+0	1.079258E+0	1.072209E+0	1.035088E+0	1.015122E+0	1.073780E+0	1.074217E+0	1.072512E+0	1.081545E+0	1.088860E+0	1.168525E+0	1.064876E+0	1.047513E+0	1.023426E+0	1.119813E+0	1.060855E+0	1.054970E+0	1.092604E+0	1.072034E+0	1.143094E+0	1.157153E+0	1.071569E+0	1.130735E+0	1.052603E+0	1.013430E+0	1.076115E+0	1.131082E+0	9.968074E-1	1.068727E+0	1.128276E+0	1.073080E+0	1.108986E+0	1.021139E+0	1.057519E+0	1.082106E+0	1.020308E+0	1.006307E+0	1.048632E+0	1.157634E+0	1.127827E+0	1.093511E+0	1.043356E+0	1.148089E+0	1.195378E+0	1.080943E+0	1.020828E+0	1.122207E+0	1.145599E+0	1.086634E+0	1.051453E+0	1.177698E+0	1.179635E+0	1.155124E+0	1.052139E+0	1.167935E+0	1.115161E+0	1.125663E+0	1.083024E+0	1.231971E+0	1.140835E+0	1.151869E+0	9.978380E-1	1.283091E+0	1.066015E+0	1.029630E+0	1.079541E+0	1.118051E+0	1.098473E+0	1.047367E+0	1.063769E+0	1.160891E+0	1.068686E+0	1.052073E+0	1.087226E+0	1.225742E+0	1.049527E+0	9.966663E-1	1.029276E+0	1.223045E+0	1.067347E+0	1.078806E+0	1.130889E+0	1.161478E+0	1.006143E+0	1.072123E+0	1.057642E+0	1.184434E+0	9.960207E-1	1.105652E+0	1.024542E+0	1.192085E+0	1.042757E+0	1.173403E+0	1.056999E+0	1.181894E+0	1.035858E+0	1.048095E+0	1.103836E+0	1.052069E+0	9.841653E-1	1.000150E+0	1.145775E+0	1.131432E+0	1.043101E+0	1.064885E+0	1.111406E+0	1.205689E+0	1.044052E+0	1.043474E+0	1.016353E+0	1.130207E+0	1.061835E+0	1.094941E+0	1.128966E+0	1.116473E+0	1.116842E+0	1.143157E+0	1.134939E+0	1.135107E+0	1.065889E+0	1.067683E+0	1.126666E+0	1.280376E+0	1.172607E+0	1.131790E+0	1.053649E+0	1.163721E+0	1.062929E+0	1.011309E+0	1.143766E+0	1.088679E+0	1.079854E+0	1.086520E+0	1.013463E+0	1.026292E+0	1.071296E+0	1.041386E+0	1.096916E+0	1.218236E+0
5.376060E+2	1.133085E+0	1.159323E+0	1.107414E+0	1.140845E+0	1.040349E+0	1.139831E+0	1.001845E+0	1.095094E+0	1.027613E+0	1.099249E+0	1.019179E+0	9.741401E-1	1.173516E+0	1.102730E+0	1.097456E+0	1.050729E+0	1.082364E+0	1.075079E+0	1.098057E+0	1.026973E+0	1.174862E+0	1.144583E+0	1.108351E+0	1.043920E+0	1.122136E+0	1.072837E+0	1.048587E+0	1.069223E+0	1.118604E+0	1.123793E+0	1.018549E+0	1.020283E+0	1.014352E+0	1.042009E+0	1.039886E+0	1.027136E+0	1.021302E+0	1.141672E+0	1.020243E+0	1.054798E+0	1.017337E+0	1.094879E+0	1.028275E+0	1.015696E+0	1.017732E+0	1.031806E+0	1.056591E+0	1.107711E+0	1.063828E+0	1.068207E+0	1.027518E+0	1.000499E+0	1.066541E+0	1.181547E+0	1.079767E+0	1.085652E+0	1.110955E+0	1.134796E+0	1.015062E+0	9.491046E-1	1.061136E+0	1.122664E+0	1.084839E+0	1.000188E+0	1.041889E+0	1.146575E+0	1.127086E+0	1.055974E+0	1.057556E+0	1.213191E+0	1.164740E+0	1.063872E+0	1.072223E+0	1.112544E+0	1.077189E+0	1.148830E+0	1.055108E+0	1.104477E+0	1.131389E+0	1.134469E+0	1.075029E+0	1.179523E+0	1.131885E+0	1.115328E+0	1.076110E+0	1.228064E+0	1.088529E+0	1.190169E+0	9.778508E-1	1.187749E+0	1.025095E+0	1.066178E+0	1.013719E+0	1.045350E+0	1.047843E+0	1.055287E+0	1.042053E+0	1.092582E+0	1.073062E+0	1.026136E+0	1.132924E+0	1.191027E+0	1.037907E+0	9.705041E-1	1.058386E+0	1.200908E+0	1.039098E+0	1.025984E+0	1.052902E+0	1.159237E+0	1.039654E+0	1.078821E+0	9.521941E-1	1.162288E+0	1.066270E+0	1.055918E+0	1.050838E+0	1.237920E+0	1.061642E+0	1.146115E+0	1.087642E+0	1.148963E+0	1.030842E+0	1.041386E+0	1.145435E+0	1.107974E+0	9.793858E-1	1.003559E+0	1.078204E+0	1.144516E+0	1.006999E+0	9.846270E-1	1.073210E+0	1.205689E+0	1.013364E+0	1.016298E+0	1.022088E+0	1.222114E+0	1.042641E+0	1.106503E+0	1.095812E+0	1.140264E+0	1.093784E+0	1.127870E+0	1.158668E+0	1.118850E+0	1.081211E+0	1.126502E+0	1.174797E+0	1.198870E+0	1.101116E+0	1.120458E+0	1.133043E+0	1.146893E+0	9.900955E-1	9.477862E-1	1.085031E+0	1.063483E+0	1.013258E+0	1.042393E+0	1.033625E+0	1.118342E+0	1.066027E+0	9.980030E-1	1.032390E+0	1.265342E+0
5.378110E+2	1.149537E+0	1.272665E+0	1.279279E+0	1.197331E+0	1.077415E+0	1.205953E+0	1.308602E+0	1.151621E+0	1.141064E+0	1.150121E+0	1.254680E+0	1.135304E+0	1.187348E+0	1.210925E+0	1.124808E+0	1.082111E+0	1.138697E+0	1.182876E+0	1.173972E+0	1.092684E+0	1.118504E+0	1.254717E+0	1.223170E+0	1.098459E+0	1.135268E+0	1.116012E+0	1.125764E+0	1.124464E+0	1.135861E+0	1.153656E+0	1.095951E+0	1.043510E+0	1.079440E+0	1.121827E+0	1.069042E+0	1.068129E+0	1.120297E+0	1.185484E+0	1.074389E+0	1.087582E+0	1.096485E+0	1.144747E+0	1.109015E+0	1.110091E+0	1.102588E+0	1.139786E+0	1.176851E+0	1.120722E+0	1.156725E+0	1.149975E+0	1.085822E+0	1.057665E+0	1.096630E+0	1.228509E+0	1.054399E+0	1.118795E+0	1.147762E+0	1.208299E+0	1.119908E+0	1.051152E+0	1.155877E+0	1.136413E+0	1.101673E+0	1.068862E+0	1.042638E+0	1.204079E+0	1.183335E+0	1.121663E+0	1.122579E+0	1.223913E+0	1.188485E+0	1.167048E+0	1.096804E+0	1.196537E+0	1.198975E+0	1.181523E+0	1.066071E+0	1.129125E+0	1.149665E+0	1.279816E+0	1.060999E+0	1.140892E+0	1.125803E+0	1.180290E+0	1.093393E+0	1.202278E+0	1.163025E+0	1.207847E+0	1.077073E+0	1.218505E+0	1.116433E+0	1.085975E+0	1.144607E+0	1.129652E+0	1.118286E+0	1.140242E+0	1.158342E+0	1.120333E+0	1.070145E+0	1.083054E+0	1.166038E+0	1.255173E+0	1.092372E+0	1.056770E+0	1.100667E+0	1.288663E+0	1.040624E+0	1.090544E+0	1.108910E+0	1.141317E+0	1.057931E+0	1.090878E+0	1.110367E+0	1.206582E+0	1.064075E+0	1.118085E+0	1.090282E+0	1.308551E+0	1.096391E+0	1.176353E+0	1.183218E+0	1.217072E+0	1.111806E+0	1.094308E+0	1.194098E+0	1.184663E+0	1.089999E+0	1.080625E+0	1.065854E+0	1.189585E+0	1.076477E+0	1.035826E+0	1.155157E+0	1.192787E+0	1.136120E+0	1.067788E+0	1.063671E+0	1.262880E+0	1.128661E+0	1.144270E+0	1.072748E+0	1.165541E+0	1.153875E+0	1.215225E+0	1.240928E+0	1.182399E+0	1.122071E+0	1.145116E+0	1.190076E+0	1.301704E+0	1.168722E+0	1.148410E+0	1.154764E+0	1.202496E+0	1.174055E+0	1.102262E+0	1.119035E+0	1.132773E+0	1.069112E+0	1.079166E+0	1.097715E+0	1.143304E+0	1.136630E+0	1.116584E+0	1.059450E+0	1.223468E+0
5.380050E+2	1.255305E+0	1.389418E+0	1.359540E+0	1.257141E+0	1.173786E+0	1.296191E+0	1.355156E+0	1.214053E+0	1.161626E+0	1.221742E+0	1.393495E+0	1.191817E+0	1.250360E+0	1.257676E+0	1.239691E+0	1.165369E+0	1.173638E+0	1.224232E+0	1.332580E+0	1.141137E+0	1.263813E+0	1.264120E+0	1.381829E+0	1.130272E+0	1.218901E+0	1.243575E+0	1.295549E+0	1.171205E+0	1.228359E+0	1.185556E+0	1.207754E+0	1.097060E+0	1.128964E+0	1.156835E+0	1.154425E+0	1.146387E+0	1.233339E+0	1.270988E+0	1.304138E+0	1.142948E+0	1.122868E+0	1.204589E+0	1.264119E+0	1.183128E+0	1.165337E+0	1.117907E+0	1.178962E+0	1.273599E+0	1.217250E+0	1.201509E+0	1.278360E+0	1.139332E+0	1.203994E+0	1.318924E+0	1.273798E+0	1.181558E+0	1.192506E+0	1.266547E+0	1.325960E+0	1.109680E+0	1.220966E+0	1.249152E+0	1.251075E+0	1.074301E+0	1.133302E+0	1.256422E+0	1.253644E+0	1.177244E+0	1.226466E+0	1.280590E+0	1.282698E+0	1.202678E+0	1.162350E+0	1.306547E+0	1.240321E+0	1.246110E+0	1.175702E+0	1.279917E+0	1.272471E+0	1.218617E+0	1.155515E+0	1.300828E+0	1.255032E+0	1.197268E+0	1.146624E+0	1.344492E+0	1.292999E+0	1.271190E+0	1.160590E+0	1.288474E+0	1.166122E+0	1.186483E+0	1.158226E+0	1.172189E+0	1.197535E+0	1.208638E+0	1.209481E+0	1.281854E+0	1.141610E+0	1.134928E+0	1.150143E+0	1.354032E+0	1.130133E+0	1.077277E+0	1.168591E+0	1.332937E+0	1.112392E+0	1.235804E+0	1.227308E+0	1.241374E+0	1.121142E+0	1.185322E+0	1.166702E+0	1.268444E+0	1.216281E+0	1.148802E+0	1.102772E+0	1.306296E+0	1.204416E+0	1.244206E+0	1.222616E+0	1.223059E+0	1.099625E+0	1.128596E+0	1.249824E+0	1.280705E+0	1.066784E+0	1.150871E+0	1.174836E+0	1.177953E+0	1.160941E+0	1.133381E+0	1.212797E+0	1.318763E+0	1.164668E+0	1.082806E+0	1.099517E+0	1.336998E+0	1.172027E+0	1.232134E+0	1.182302E+0	1.259959E+0	1.204184E+0	1.244342E+0	1.295505E+0	1.231170E+0	1.200140E+0	1.243397E+0	1.272584E+0	1.394635E+0	1.255754E+0	1.245111E+0	1.103083E+0	1.269804E+0	1.190574E+0	1.126805E+0	1.167723E+0	1.165668E+0	1.112078E+0	1.106577E+0	1.198531E+0	1.192449E+0	1.147167E+0	1.178768E+0	1.219720E+0	1.228705E+0
5.382060E+2	1.535001E+0	1.584574E+0	1.677970E+0	1.536251E+0	1.395441E+0	1.500780E+0	1.582938E+0	1.448596E+0	1.414054E+0	1.389082E+0	1.594463E+0	1.358563E+0	1.527770E+0	1.590940E+0	1.538525E+0	1.342772E+0	1.443895E+0	1.485245E+0	1.581338E+0	1.379419E+0	1.486529E+0	1.534087E+0	1.656003E+0	1.338682E+0	1.395846E+0	1.437865E+0	1.551907E+0	1.375877E+0	1.403001E+0	1.391208E+0	1.443267E+0	1.281584E+0	1.383657E+0	1.420795E+0	1.456398E+0	1.383397E+0	1.424640E+0	1.497116E+0	1.558763E+0	1.376802E+0	1.367076E+0	1.453932E+0	1.463843E+0	1.454600E+0	1.439157E+0	1.428437E+0	1.452537E+0	1.477220E+0	1.407266E+0	1.409704E+0	1.463439E+0	1.399984E+0	1.412567E+0	1.502561E+0	1.521991E+0	1.446711E+0	1.413344E+0	1.504394E+0	1.599725E+0	1.332536E+0	1.449500E+0	1.491130E+0	1.440461E+0	1.287801E+0	1.395553E+0	1.512241E+0	1.474936E+0	1.427005E+0	1.408829E+0	1.460578E+0	1.574530E+0	1.446144E+0	1.349310E+0	1.518389E+0	1.518476E+0	1.503665E+0	1.349650E+0	1.428535E+0	1.528320E+0	1.473357E+0	1.436850E+0	1.523346E+0	1.496764E+0	1.472617E+0	1.427295E+0	1.592195E+0	1.573551E+0	1.428075E+0	1.331907E+0	1.526061E+0	1.494211E+0	1.338767E+0	1.362501E+0	1.377914E+0	1.457295E+0	1.441188E+0	1.397926E+0	1.405663E+0	1.491640E+0	1.286948E+0	1.417043E+0	1.586466E+0	1.483062E+0	1.294358E+0	1.440986E+0	1.542444E+0	1.514745E+0	1.401604E+0	1.442834E+0	1.493753E+0	1.418920E+0	1.369522E+0	1.379043E+0	1.476177E+0	1.416052E+0	1.382842E+0	1.311165E+0	1.570035E+0	1.644823E+0	1.532578E+0	1.437846E+0	1.545641E+0	1.468615E+0	1.390223E+0	1.521393E+0	1.428352E+0	1.358338E+0	1.317960E+0	1.453833E+0	1.478165E+0	1.353707E+0	1.286977E+0	1.364191E+0	1.616248E+0	1.482264E+0	1.343831E+0	1.371956E+0	1.595671E+0	1.426533E+0	1.443319E+0	1.370418E+0	1.404188E+0	1.438261E+0	1.440161E+0	1.500366E+0	1.470586E+0	1.419756E+0	1.413897E+0	1.521640E+0	1.617823E+0	1.493540E+0	1.398471E+0	1.384706E+0	1.493678E+0	1.391052E+0	1.364293E+0	1.429707E+0	1.447024E+0	1.341224E+0	1.339910E+0	1.369916E+0	1.396050E+0	1.374783E+0	1.363871E+0	1.371666E+0	1.563687E+0
5.384110E+2	1.795894E+0	1.870914E+0	1.955399E+0	1.804565E+0	1.672694E+0	1.723264E+0	1.907147E+0	1.689888E+0	1.680662E+0	1.612645E+0	1.899715E+0	1.595078E+0	1.855131E+0	1.781285E+0	1.756663E+0	1.662992E+0	1.727700E+0	1.705586E+0	1.809758E+0	1.624340E+0	1.739801E+0	1.869863E+0	1.870330E+0	1.650327E+0	1.701348E+0	1.696910E+0	1.772030E+0	1.580552E+0	1.610085E+0	1.676953E+0	1.656289E+0	1.624178E+0	1.626324E+0	1.597232E+0	1.694499E+0	1.626371E+0	1.626642E+0	1.854676E+0	1.804613E+0	1.622311E+0	1.607902E+0	1.662665E+0	1.796714E+0	1.627543E+0	1.601024E+0	1.681801E+0	1.642424E+0	1.709465E+0	1.662729E+0	1.665999E+0	1.718349E+0	1.621845E+0	1.756540E+0	1.846006E+0	1.903201E+0	1.602561E+0	1.694807E+0	1.795634E+0	1.850194E+0	1.558392E+0	1.747466E+0	1.766102E+0	1.685956E+0	1.565896E+0	1.650312E+0	1.779120E+0	1.797621E+0	1.652219E+0	1.636783E+0	1.787616E+0	1.895467E+0	1.653983E+0	1.637569E+0	1.806047E+0	1.786106E+0	1.724542E+0	1.630307E+0	1.653273E+0	1.762235E+0	1.803063E+0	1.662065E+0	1.719595E+0	1.806910E+0	1.747226E+0	1.725250E+0	1.918819E+0	1.824782E+0	1.804448E+0	1.595309E+0	1.806711E+0	1.769687E+0	1.625062E+0	1.634873E+0	1.756881E+0	1.666422E+0	1.626218E+0	1.616495E+0	1.709495E+0	1.757078E+0	1.581624E+0	1.685932E+0	1.833237E+0	1.749578E+0	1.560231E+0	1.682882E+0	1.900584E+0	1.815556E+0	1.657640E+0	1.571866E+0	1.764055E+0	1.698419E+0	1.589219E+0	1.657107E+0	1.785483E+0	1.683144E+0	1.718544E+0	1.578064E+0	1.753376E+0	1.828387E+0	1.686720E+0	1.705605E+0	1.791882E+0	1.775272E+0	1.576568E+0	1.750576E+0	1.721497E+0	1.657403E+0	1.563477E+0	1.623118E+0	1.774744E+0	1.721532E+0	1.543664E+0	1.641978E+0	1.881859E+0	1.729918E+0	1.586975E+0	1.524664E+0	1.746129E+0	1.786968E+0	1.720016E+0	1.638536E+0	1.689670E+0	1.787630E+0	1.828889E+0	1.817543E+0	1.620592E+0	1.701392E+0	1.606734E+0	1.779100E+0	1.786928E+0	1.886741E+0	1.726348E+0	1.700780E+0	1.764372E+0	1.771736E+0	1.482677E+0	1.732649E+0	1.659792E+0	1.592572E+0	1.651465E+0	1.643556E+0	1.617593E+0	1.584485E+0	1.538852E+0	1.523609E+0	1.767818E+0
5.386060E+2	1.687778E+0	1.715814E+0	1.800107E+0	1.806226E+0	1.546670E+0	1.617465E+0	1.844801E+0	1.548993E+0	1.583516E+0	1.643436E+0	1.767119E+0	1.566471E+0	1.668394E+0	1.631682E+0	1.680071E+0	1.543875E+0	1.643557E+0	1.654737E+0	1.668099E+0	1.541373E+0	1.589061E+0	1.715403E+0	1.808397E+0	1.497100E+0	1.625319E+0	1.628226E+0	1.652576E+0	1.543724E+0	1.565908E+0	1.592110E+0	1.663568E+0	1.512562E+0	1.518787E+0	1.565027E+0	1.584821E+0	1.597302E+0	1.582498E+0	1.649043E+0	1.647298E+0	1.533432E+0	1.485460E+0	1.653407E+0	1.691188E+0	1.543484E+0	1.511177E+0	1.547004E+0	1.614292E+0	1.624243E+0	1.542386E+0	1.553999E+0	1.656656E+0	1.562636E+0	1.541815E+0	1.670079E+0	1.776356E+0	1.596920E+0	1.598097E+0	1.619502E+0	1.792670E+0	1.476605E+0	1.591253E+0	1.623802E+0	1.646680E+0	1.463905E+0	1.539418E+0	1.670007E+0	1.679204E+0	1.462375E+0	1.570265E+0	1.658179E+0	1.713932E+0	1.555259E+0	1.533292E+0	1.671510E+0	1.717696E+0	1.693441E+0	1.542600E+0	1.622102E+0	1.666474E+0	1.697496E+0	1.555735E+0	1.667830E+0	1.708091E+0	1.640927E+0	1.537215E+0	1.762541E+0	1.709864E+0	1.643883E+0	1.540345E+0	1.732896E+0	1.671772E+0	1.570238E+0	1.592500E+0	1.618444E+0	1.543149E+0	1.564303E+0	1.559752E+0	1.638338E+0	1.707494E+0	1.503090E+0	1.550166E+0	1.704946E+0	1.661704E+0	1.495884E+0	1.538020E+0	1.736140E+0	1.697221E+0	1.583546E+0	1.574701E+0	1.669975E+0	1.565144E+0	1.569127E+0	1.522771E+0	1.633501E+0	1.615093E+0	1.642477E+0	1.484715E+0	1.741351E+0	1.745293E+0	1.631406E+0	1.513725E+0	1.686353E+0	1.654185E+0	1.496812E+0	1.644617E+0	1.586747E+0	1.561811E+0	1.500734E+0	1.521402E+0	1.595926E+0	1.566908E+0	1.502151E+0	1.568365E+0	1.830254E+0	1.716358E+0	1.474701E+0	1.459422E+0	1.629022E+0	1.661845E+0	1.620591E+0	1.505919E+0	1.624251E+0	1.691902E+0	1.585023E+0	1.649858E+0	1.633891E+0	1.610187E+0	1.510689E+0	1.595743E+0	1.735890E+0	1.729772E+0	1.569963E+0	1.548736E+0	1.675850E+0	1.700406E+0	1.448749E+0	1.598180E+0	1.519814E+0	1.503059E+0	1.499702E+0	1.464972E+0	1.577809E+0	1.624528E+0	1.577897E+0	1.546507E+0	1.731179E+0
5.388120E+2	1.511497E+0	1.537702E+0	1.537512E+0	1.451522E+0	1.354668E+0	1.416765E+0	1.544697E+0	1.441847E+0	1.349529E+0	1.412508E+0	1.552335E+0	1.468795E+0	1.480895E+0	1.451355E+0	1.507752E+0	1.351738E+0	1.450312E+0	1.399824E+0	1.512200E+0	1.316364E+0	1.478380E+0	1.455514E+0	1.507084E+0	1.291936E+0	1.388932E+0	1.408426E+0	1.506274E+0	1.374462E+0	1.383673E+0	1.409532E+0	1.423419E+0	1.346748E+0	1.385780E+0	1.423594E+0	1.400860E+0	1.353584E+0	1.371797E+0	1.460368E+0	1.511936E+0	1.328719E+0	1.287928E+0	1.450369E+0	1.506338E+0	1.360204E+0	1.369989E+0	1.373389E+0	1.370957E+0	1.382241E+0	1.368558E+0	1.458489E+0	1.426830E+0	1.318998E+0	1.390684E+0	1.449995E+0	1.547360E+0	1.423439E+0	1.441490E+0	1.466254E+0	1.548030E+0	1.280011E+0	1.443716E+0	1.433386E+0	1.426432E+0	1.283722E+0	1.316878E+0	1.482015E+0	1.434971E+0	1.375032E+0	1.343806E+0	1.477428E+0	1.620486E+0	1.407547E+0	1.323240E+0	1.516902E+0	1.467355E+0	1.501273E+0	1.354035E+0	1.456808E+0	1.530511E+0	1.450408E+0	1.421342E+0	1.528754E+0	1.407824E+0	1.399535E+0	1.331204E+0	1.557813E+0	1.537888E+0	1.433966E+0	1.338333E+0	1.473778E+0	1.473750E+0	1.424045E+0	1.292139E+0	1.477683E+0	1.435280E+0	1.398709E+0	1.308958E+0	1.364394E+0	1.427468E+0	1.370524E+0	1.426316E+0	1.538167E+0	1.459824E+0	1.290116E+0	1.375833E+0	1.588298E+0	1.422365E+0	1.326774E+0	1.357758E+0	1.465380E+0	1.426536E+0	1.374880E+0	1.272873E+0	1.483813E+0	1.364829E+0	1.368946E+0	1.296702E+0	1.575294E+0	1.594965E+0	1.452926E+0	1.405014E+0	1.428883E+0	1.422044E+0	1.338792E+0	1.412294E+0	1.367430E+0	1.316688E+0	1.313186E+0	1.412419E+0	1.441823E+0	1.419778E+0	1.279366E+0	1.387109E+0	1.452328E+0	1.543640E+0	1.343831E+0	1.334674E+0	1.515622E+0	1.533881E+0	1.350829E+0	1.442494E+0	1.448793E+0	1.397035E+0	1.423418E+0	1.418896E+0	1.431422E+0	1.469369E+0	1.391562E+0	1.433783E+0	1.601825E+0	1.620203E+0	1.433979E+0	1.434139E+0	1.462219E+0	1.471394E+0	1.342637E+0	1.375610E+0	1.362337E+0	1.303988E+0	1.346596E+0	1.379998E+0	1.405411E+0	1.447493E+0	1.295903E+0	1.332118E+0	1.542751E+0
5.390080E+2	1.305446E+0	1.318685E+0	1.432823E+0	1.451522E+0	1.187131E+0	1.286078E+0	1.364300E+0	1.450283E+0	1.189989E+0	1.290017E+0	1.352748E+0	1.322981E+0	1.304152E+0	1.315112E+0	1.271147E+0	1.206357E+0	1.249938E+0	1.224909E+0	1.279033E+0	1.255300E+0	1.297763E+0	1.311128E+0	1.478557E+0	1.269862E+0	1.263137E+0	1.225913E+0	1.308973E+0	1.269647E+0	1.200747E+0	1.274468E+0	1.246124E+0	1.197710E+0	1.184854E+0	1.195343E+0	1.263413E+0	1.169491E+0	1.205245E+0	1.308440E+0	1.327552E+0	1.193216E+0	1.193897E+0	1.285804E+0	1.278992E+0	1.260297E+0	1.180312E+0	1.192011E+0	1.283750E+0	1.294417E+0	1.191210E+0	1.250980E+0	1.251920E+0	1.189693E+0	1.253915E+0	1.301402E+0	1.353330E+0	1.264067E+0	1.191063E+0	1.317167E+0	1.424981E+0	1.166707E+0	1.247724E+0	1.294522E+0	1.272119E+0	1.212328E+0	1.206733E+0	1.251998E+0	1.244023E+0	1.199623E+0	1.196570E+0	1.296675E+0	1.347039E+0	1.249441E+0	1.192890E+0	1.299114E+0	1.379399E+0	1.246908E+0	1.200551E+0	1.207422E+0	1.310483E+0	1.308121E+0	1.238217E+0	1.206566E+0	1.302162E+0	1.314643E+0	1.217828E+0	1.421850E+0	1.340551E+0	1.263824E+0	1.161304E+0	1.323843E+0	1.293996E+0	1.269477E+0	1.149903E+0	1.278145E+0	1.240094E+0	1.213679E+0	1.198973E+0	1.234893E+0	1.304228E+0	1.207696E+0	1.234254E+0	1.378935E+0	1.384300E+0	1.104147E+0	1.179682E+0	1.353492E+0	1.365104E+0	1.200589E+0	1.171299E+0	1.286174E+0	1.245279E+0	1.219483E+0	1.206426E+0	1.288301E+0	1.293848E+0	1.264360E+0	1.124466E+0	1.401723E+0	1.378916E+0	1.323858E+0	1.228453E+0	1.321854E+0	1.252237E+0	1.191207E+0	1.289068E+0	1.242002E+0	1.228607E+0	1.188381E+0	1.233687E+0	1.316067E+0	1.224287E+0	1.173510E+0	1.238493E+0	1.406794E+0	1.265298E+0	1.172913E+0	1.223549E+0	1.338480E+0	1.312077E+0	1.207471E+0	1.221943E+0	1.285236E+0	1.280346E+0	1.277828E+0	1.350873E+0	1.296196E+0	1.265805E+0	1.285835E+0	1.263418E+0	1.417487E+0	1.396404E+0	1.236045E+0	1.278349E+0	1.328334E+0	1.288936E+0	1.154957E+0	1.247323E+0	1.210460E+0	1.157190E+0	1.171429E+0	1.205732E+0	1.218191E+0	1.258867E+0	1.181660E+0	1.200989E+0	1.380495E+0
5.392090E+2	1.127600E+0	1.249655E+0	1.315920E+0	1.184872E+0	1.023299E+0	1.099379E+0	1.277011E+0	1.225020E+0	1.033995E+0	1.101927E+0	1.170425E+0	1.187630E+0	1.161989E+0	1.132117E+0	1.085147E+0	1.077628E+0	1.118731E+0	1.073045E+0	1.169227E+0	1.036929E+0	1.126652E+0	1.182190E+0	1.188376E+0	1.165981E+0	1.080665E+0	1.069566E+0	1.138514E+0	1.191744E+0	1.082019E+0	1.098680E+0	1.018549E+0	1.050607E+0	1.083685E+0	1.070715E+0	1.055853E+0	1.121792E+0	1.056084E+0	1.185484E+0	1.132191E+0	1.161161E+0	1.022072E+0	1.099153E+0	1.105473E+0	1.238249E+0	1.031280E+0	1.074856E+0	1.107227E+0	1.037453E+0	1.091275E+0	1.119742E+0	1.110228E+0	1.055624E+0	1.072012E+0	1.141596E+0	1.176440E+0	1.197778E+0	1.116729E+0	1.094577E+0	1.189806E+0	1.174961E+0	1.078493E+0	1.062171E+0	1.064497E+0	1.028745E+0	1.062869E+0	1.111926E+0	1.123386E+0	1.055974E+0	1.077736E+0	1.131240E+0	1.199974E+0	1.095047E+0	1.037215E+0	1.205457E+0	1.204237E+0	1.158399E+0	1.079227E+0	1.035606E+0	1.145279E+0	1.086275E+0	1.118596E+0	1.177206E+0	1.161532E+0	1.124187E+0	1.098924E+0	1.186650E+0	1.218503E+0	1.212265E+0	1.021394E+0	1.180829E+0	1.061630E+0	1.105772E+0	1.048522E+0	1.168322E+0	1.052245E+0	1.126562E+0	1.049058E+0	1.055582E+0	1.138693E+0	1.048471E+0	1.077292E+0	1.219704E+0	1.228895E+0	1.076569E+0	1.053535E+0	1.185887E+0	1.197901E+0	1.095679E+0	1.067791E+0	1.123395E+0	1.056408E+0	1.072793E+0	1.030197E+0	1.140139E+0	1.174571E+0	1.059575E+0	1.015339E+0	1.158273E+0	1.234632E+0	1.140952E+0	1.058458E+0	1.183392E+0	1.098909E+0	1.029460E+0	1.154069E+0	1.037734E+0	1.061322E+0	1.065621E+0	1.121798E+0	1.143062E+0	1.041057E+0	9.742490E-1	1.078765E+0	1.179887E+0	1.071887E+0	1.038467E+0	1.018504E+0	1.182091E+0	1.133637E+0	1.098796E+0	1.114551E+0	1.050307E+0	1.128721E+0	1.134421E+0	1.119119E+0	1.143235E+0	1.170225E+0	1.105655E+0	1.130486E+0	1.223245E+0	1.234773E+0	1.079662E+0	1.041666E+0	1.145431E+0	1.161290E+0	9.990372E-1	1.096624E+0	1.090080E+0	1.089163E+0	1.027017E+0	1.021384E+0	1.078558E+0	1.086049E+0	1.058740E+0	1.080265E+0	1.019342E+0
5.394100E+2	1.097045E+0	1.105633E+0	1.216465E+0	1.207300E+0	1.001800E+0	1.114938E+0	1.166446E+0	1.185368E+0	9.864874E-1	1.021604E+0	1.178022E+0	1.074606E+0	1.065164E+0	1.133453E+0	1.130279E+0	1.066100E+0	1.049562E+0	1.045249E+0	1.125169E+0	1.050203E+0	1.109676E+0	1.117721E+0	1.215515E+0	1.072488E+0	1.090341E+0	1.044053E+0	1.104959E+0	1.132253E+0	1.014371E+0	1.035558E+0	1.020533E+0	1.031896E+0	9.704882E-1	9.964990E-1	1.064877E+0	1.001051E+0	1.052071E+0	1.027195E+0	1.081706E+0	1.119636E+0	9.686306E-1	1.084193E+0	1.082811E+0	1.130762E+0	1.021297E+0	1.011339E+0	1.074172E+0	1.064776E+0	1.035678E+0	1.035913E+0	1.068195E+0	1.074680E+0	1.082954E+0	1.110756E+0	1.159300E+0	1.145593E+0	1.041672E+0	1.095270E+0	1.172331E+0	1.174210E+0	1.079216E+0	1.031923E+0	1.086242E+0	1.026706E+0	1.068863E+0	1.091284E+0	1.110805E+0	1.050921E+0	1.032892E+0	1.143493E+0	1.201506E+0	1.111377E+0	9.932684E-1	1.125923E+0	1.092976E+0	1.238137E+0	1.082881E+0	1.084904E+0	1.150396E+0	1.054146E+0	1.021125E+0	1.065173E+0	1.068791E+0	1.103517E+0	1.091319E+0	1.159302E+0	1.182839E+0	1.162181E+0	9.450152E-1	1.164682E+0	1.145662E+0	1.140798E+0	9.728639E-1	1.032204E+0	1.057381E+0	1.059606E+0	1.033646E+0	1.030678E+0	1.077438E+0	1.054234E+0	1.031594E+0	1.128392E+0	1.106169E+0	1.111925E+0	9.904610E-1	1.177190E+0	1.143694E+0	1.152903E+0	1.001857E+0	1.077101E+0	9.688256E-1	1.096906E+0	1.030198E+0	1.131738E+0	1.080905E+0	1.110771E+0	9.929879E-1	1.144747E+0	1.179487E+0	1.205854E+0	1.008116E+0	1.150459E+0	1.140465E+0	1.092817E+0	1.148575E+0	1.016948E+0	1.037424E+0	9.946927E-1	1.042604E+0	1.072553E+0	1.085332E+0	9.867034E-1	1.089182E+0	1.162432E+0	1.093297E+0	1.034177E+0	1.016353E+0	1.166526E+0	1.161364E+0	1.149664E+0	1.029503E+0	1.057741E+0	1.116842E+0	1.122774E+0	1.144430E+0	1.087814E+0	1.098721E+0	1.020776E+0	1.047978E+0	1.185920E+0	1.156288E+0	1.070597E+0	1.059641E+0	1.113971E+0	1.153031E+0	1.021414E+0	1.039436E+0	1.084480E+0	9.896268E-1	1.014982E+0	9.580144E-1	1.016931E+0	1.064974E+0	1.009571E+0	1.078182E+0	1.050745E+0
5.396110E+2	1.007730E+0	1.070692E+0	1.132714E+0	1.157459E+0	1.003283E+0	1.006809E+0	1.106591E+0	1.101844E+0	9.822328E-1	9.620316E-1	1.090313E+0	1.072512E+0	1.013679E+0	1.076684E+0	1.000352E+0	9.521010E-1	1.047423E+0	9.950805E-1	1.055354E+0	9.566166E-1	1.041097E+0	1.090186E+0	1.122964E+0	1.028339E+0	9.721490E-1	1.039475E+0	1.039863E+0	1.070639E+0	1.010230E+0	1.008410E+0	1.015902E+0	1.004154E+0	9.577538E-1	9.894976E-1	1.008648E+0	9.675116E-1	9.845137E-1	1.034968E+0	1.097070E+0	9.906885E-1	9.571307E-1	1.010103E+0	1.049523E+0	1.136274E+0	1.012026E+0	9.711112E-1	9.799330E-1	1.069329E+0	9.653012E-1	9.541462E-1	1.012603E+0	1.052902E+0	9.967891E-1	1.055385E+0	1.105821E+0	1.147708E+0	1.005588E+0	1.030088E+0	1.090056E+0	1.120936E+0	9.967696E-1	1.005801E+0	1.034336E+0	9.641514E-1	9.602163E-1	1.050736E+0	1.024952E+0	1.013385E+0	9.955224E-1	1.051586E+0	1.070527E+0	1.097274E+0	1.000716E+0	1.109570E+0	1.135074E+0	1.141653E+0	9.337821E-1	1.045030E+0	1.044402E+0	1.089335E+0	1.019648E+0	1.072127E+0	1.064990E+0	1.070298E+0	9.682658E-1	1.142891E+0	1.095661E+0	1.141558E+0	9.243144E-1	1.074722E+0	1.000250E+0	1.067701E+0	9.758901E-1	1.047671E+0	9.671265E-1	9.883295E-1	9.299658E-1	1.077640E+0	1.038059E+0	9.749826E-1	9.911944E-1	1.127637E+0	1.093824E+0	1.048993E+0	9.530330E-1	1.136870E+0	1.093305E+0	1.036989E+0	1.026671E+0	1.065154E+0	9.810114E-1	1.034613E+0	9.883061E-1	1.081333E+0	1.023828E+0	9.879005E-1	9.680071E-1	1.088392E+0	1.158335E+0	1.162340E+0	9.811208E-1	1.026966E+0	1.058786E+0	1.073437E+0	1.088139E+0	1.027700E+0	9.602681E-1	9.680958E-1	1.003370E+0	1.010765E+0	9.845218E-1	9.389631E-1	1.000291E+0	1.128282E+0	1.064750E+0	1.111411E+0	9.159814E-1	1.121314E+0	1.073210E+0	1.095712E+0	9.855376E-1	1.045846E+0	1.062341E+0	1.025957E+0	1.026576E+0	1.047173E+0	1.013356E+0	1.040135E+0	1.106040E+0	1.152405E+0	1.139193E+0	1.139345E+0	9.974750E-1	1.115434E+0	1.077195E+0	1.079884E+0	1.030162E+0	1.014491E+0	9.860469E-1	9.842280E-1	9.832181E-1	1.004450E+0	9.827782E-1	9.604041E-1	9.387262E-1	1.076916E+0
5.398180E+2	8.118641E-1	8.295178E-1	9.111225E-1	9.065911E-1	7.660606E-1	8.193325E-1	9.461461E-1	9.373270E-1	7.602957E-1	8.214668E-1	9.045368E-1	8.639051E-1	8.315559E-1	8.335809E-1	8.191385E-1	7.900683E-1	8.064030E-1	8.377926E-1	8.709895E-1	7.641321E-1	8.204170E-1	8.396968E-1	9.065477E-1	8.147335E-1	7.917499E-1	7.921985E-1	8.358502E-1	8.716317E-1	8.134990E-1	8.326201E-1	8.478667E-1	7.770480E-1	7.483381E-1	7.850512E-1	7.934510E-1	7.767107E-1	7.517417E-1	8.420545E-1	8.439070E-1	8.034598E-1	7.501288E-1	8.163286E-1	8.051804E-1	8.882278E-1	7.845574E-1	7.417424E-1	7.942673E-1	8.553007E-1	8.132878E-1	8.009199E-1	7.943036E-1	8.201520E-1	7.923194E-1	8.388058E-1	8.843660E-1	8.881967E-1	8.143401E-1	8.511838E-1	8.497826E-1	8.688166E-1	8.080109E-1	8.408168E-1	8.126868E-1	7.472513E-1	7.354291E-1	8.317788E-1	7.881183E-1	7.448576E-1	7.548635E-1	8.945752E-1	8.798024E-1	8.374758E-1	7.802388E-1	8.070446E-1	7.704678E-1	8.442296E-1	7.591037E-1	7.673700E-1	8.572692E-1	8.583108E-1	7.789278E-1	8.542439E-1	8.323803E-1	8.370268E-1	7.511950E-1	8.608068E-1	9.070413E-1	8.786099E-1	7.458579E-1	8.663514E-1	8.131887E-1	8.339450E-1	7.731274E-1	8.102368E-1	8.343118E-1	7.608211E-1	7.814519E-1	8.150791E-1	8.273117E-1	7.854977E-1	7.653548E-1	8.665276E-1	8.737885E-1	8.601948E-1	7.457914E-1	8.775566E-1	8.604428E-1	9.005331E-1	7.430845E-1	8.568273E-1	8.241250E-1	8.015174E-1	7.716318E-1	7.727898E-1	7.933225E-1	8.335810E-1	7.181986E-1	8.396814E-1	8.977167E-1	8.326660E-1	7.921563E-1	8.480858E-1	8.416910E-1	8.565320E-1	8.314824E-1	7.703936E-1	7.861548E-1	7.928220E-1	8.377156E-1	8.086854E-1	8.142332E-1	7.244812E-1	7.968126E-1	8.679820E-1	8.449308E-1	8.260722E-1	7.209732E-1	8.285471E-1	8.435854E-1	9.908902E-1	8.089528E-1	8.555237E-1	8.073021E-1	8.563442E-1	8.327894E-1	8.018445E-1	8.309499E-1	8.502745E-1	8.057985E-1	8.774192E-1	9.262739E-1	9.338568E-1	7.675333E-1	8.037674E-1	8.309146E-1	8.568332E-1	7.759054E-1	8.017242E-1	7.740856E-1	7.816490E-1	7.880686E-1	7.665258E-1	7.867757E-1	6.972094E-1	8.284100E-1	8.466159E-1
5.400140E+2	6.434194E-1	7.349226E-1	7.802602E-1	7.703582E-1	6.615346E-1	6.909773E-1	7.308337E-1	7.356876E-1	6.518084E-1	5.858533E-1	7.367166E-1	7.452996E-1	7.362695E-1	6.946646E-1	7.076743E-1	6.619791E-1	7.144155E-1	6.981326E-1	6.683231E-1	6.645708E-1	7.436886E-1	7.255319E-1	7.158790E-1	6.907254E-1	6.673370E-1	6.450103E-1	7.392120E-1	7.229072E-1	7.265226E-1	6.473298E-1	6.553542E-1	6.660752E-1	6.238216E-1	6.961315E-1	6.671092E-1	6.708760E-1	6.888669E-1	6.894198E-1	7.092771E-1	6.898124E-1	5.789800E-1	6.432138E-1	7.421467E-1	7.490466E-1	6.683261E-1	6.069447E-1	6.550180E-1	6.549337E-1	6.450888E-1	6.951036E-1	6.804077E-1	6.547780E-1	6.794851E-1	7.869386E-1	7.013047E-1	7.118967E-1	6.173174E-1	6.833737E-1	7.172688E-1	7.097412E-1	6.452879E-1	6.820197E-1	6.948477E-1	6.772182E-1	6.410181E-1	6.600038E-1	7.200291E-1	6.271965E-1	6.748926E-1	7.000362E-1	7.174188E-1	6.986704E-1	6.327564E-1	6.680466E-1	6.817593E-1	7.501382E-1	6.648211E-1	6.666013E-1	6.387025E-1	6.334055E-1	6.164780E-1	7.143974E-1	6.985910E-1	7.285111E-1	6.433500E-1	7.514117E-1	7.342711E-1	7.614984E-1	6.444951E-1	7.148791E-1	7.021211E-1	6.984126E-1	6.278642E-1	6.586490E-1	7.359850E-1	6.809055E-1	6.084190E-1	6.848657E-1	7.026129E-1	6.536508E-1	6.845560E-1	8.099287E-1	7.285502E-1	7.548363E-1	6.397455E-1	7.305065E-1	6.924769E-1	7.508727E-1	6.388669E-1	6.977825E-1	6.672401E-1	7.010452E-1	6.358497E-1	6.971814E-1	6.879480E-1	6.609779E-1	6.215621E-1	6.991705E-1	7.186829E-1	7.935775E-1	7.053343E-1	7.215980E-1	7.170226E-1	7.246008E-1	6.776462E-1	6.886872E-1	6.400364E-1	6.298245E-1	6.626162E-1	6.843840E-1	6.875392E-1	6.262347E-1	6.600029E-1	7.291045E-1	6.979085E-1	7.023538E-1	6.069798E-1	7.106999E-1	7.262855E-1	7.658326E-1	6.028179E-1	6.785828E-1	6.451951E-1	7.056575E-1	7.267991E-1	6.208034E-1	6.930506E-1	6.723274E-1	6.782149E-1	7.364992E-1	7.234573E-1	7.789847E-1	6.656698E-1	7.196320E-1	6.649761E-1	7.059671E-1	7.102168E-1	6.386504E-1	6.910196E-1	6.987458E-1	6.404463E-1	6.393729E-1	6.950976E-1	6.986563E-1	6.431637E-1	8.256793E-1
5.402100E+2	5.368683E-1	5.312451E-1	5.892029E-1	6.017292E-1	5.103057E-1	5.120583E-1	5.903415E-1	6.293839E-1	5.298490E-1	5.155715E-1	5.944497E-1	5.827396E-1	5.387776E-1	5.276982E-1	5.886883E-1	5.486210E-1	5.411373E-1	5.042350E-1	5.883414E-1	5.311588E-1	5.291202E-1	5.751037E-1	5.739206E-1	5.452929E-1	5.546741E-1	5.586603E-1	5.640559E-1	5.416047E-1	5.339334E-1	5.502729E-1	5.217200E-1	5.151016E-1	5.134551E-1	4.867843E-1	5.581227E-1	4.942369E-1	5.423814E-1	5.629308E-1	5.870858E-1	5.703356E-1	4.808909E-1	4.914708E-1	5.296747E-1	5.623234E-1	5.606531E-1	4.841446E-1	5.453057E-1	5.280773E-1	6.091956E-1	5.082079E-1	6.058331E-1	5.370419E-1	5.604963E-1	5.857798E-1	5.847489E-1	5.842563E-1	5.364875E-1	5.301264E-1	5.913073E-1	5.596702E-1	5.642882E-1	5.280343E-1	5.552640E-1	5.276312E-1	5.451089E-1	5.884929E-1	5.342628E-1	5.059259E-1	5.007506E-1	5.376643E-1	5.274602E-1	5.338844E-1	5.470978E-1	5.320214E-1	5.306535E-1	5.699294E-1	5.595754E-1	5.433578E-1	5.670656E-1	5.997464E-1	5.655279E-1	5.281925E-1	5.800057E-1	5.579869E-1	5.493321E-1	6.068528E-1	5.884476E-1	5.898829E-1	5.145788E-1	5.288069E-1	5.450183E-1	5.644027E-1	5.007593E-1	5.488264E-1	5.268563E-1	5.232330E-1	5.348616E-1	5.446907E-1	5.545792E-1	5.405361E-1	5.461380E-1	5.556113E-1	5.513603E-1	5.632103E-1	4.831014E-1	6.158701E-1	5.565772E-1	5.535256E-1	5.055810E-1	4.909495E-1	4.692284E-1	5.282332E-1	4.942894E-1	5.367999E-1	5.386693E-1	4.934938E-1	5.045467E-1	5.796991E-1	6.129251E-1	5.922329E-1	5.521200E-1	6.085827E-1	5.357519E-1	5.650897E-1	5.520657E-1	5.639761E-1	5.103050E-1	5.343457E-1	5.405551E-1	5.237372E-1	5.295116E-1	4.989292E-1	5.141654E-1	5.818797E-1	5.458909E-1	5.657628E-1	5.331346E-1	5.446752E-1	5.528225E-1	6.062884E-1	5.574106E-1	5.588873E-1	5.417822E-1	5.753550E-1	5.535784E-1	5.757280E-1	5.909041E-1	5.316077E-1	5.559800E-1	6.389974E-1	5.944626E-1	6.135373E-1	5.166202E-1	5.586780E-1	5.891391E-1	5.666511E-1	5.347881E-1	5.112703E-1	5.291858E-1	4.888131E-1	5.036261E-1	5.122201E-1	4.738043E-1	4.687227E-1	5.515805E-1	5.587399E-1
5.404120E+2	4.914280E-1	5.048260E-1	5.281344E-1	5.676707E-1	4.843596E-1	4.599382E-1	5.612452E-1	5.078944E-1	4.461798E-1	4.700550E-1	5.184812E-1	4.969246E-1	5.164929E-1	4.902972E-1	4.861147E-1	4.794531E-1	4.890827E-1	4.615233E-1	4.839585E-1	4.515099E-1	5.087503E-1	5.059331E-1	5.683535E-1	5.167256E-1	5.270269E-1	4.494136E-1	5.197632E-1	5.522285E-1	5.104637E-1	4.783287E-1	4.582107E-1	4.673579E-1	5.339715E-1	4.587787E-1	4.824571E-1	4.741131E-1	4.728173E-1	5.113455E-1	5.329411E-1	5.222540E-1	4.328612E-1	5.270911E-1	5.091363E-1	5.230496E-1	5.713487E-1	5.116679E-1	4.454404E-1	4.838412E-1	5.353003E-1	4.656074E-1	4.797351E-1	4.866811E-1	5.098918E-1	5.521363E-1	5.148157E-1	5.941288E-1	4.491631E-1	5.460745E-1	5.294196E-1	4.741298E-1	5.259568E-1	4.799141E-1	5.131795E-1	4.575983E-1	5.166357E-1	4.557916E-1	5.165009E-1	4.409595E-1	4.902874E-1	4.786890E-1	5.558007E-1	4.908320E-1	4.897443E-1	5.193850E-1	4.735192E-1	5.204919E-1	5.537281E-1	4.810107E-1	4.749610E-1	5.163632E-1	5.566678E-1	4.826074E-1	4.842252E-1	5.321503E-1	4.829666E-1	5.326199E-1	5.210825E-1	5.346410E-1	4.660392E-1	5.495672E-1	5.099448E-1	5.354684E-1	5.552329E-1	5.248503E-1	4.945697E-1	4.613165E-1	5.397656E-1	4.642855E-1	5.159295E-1	4.339065E-1	4.812346E-1	5.533473E-1	4.809191E-1	4.840140E-1	4.553766E-1	5.036063E-1	4.893913E-1	5.388530E-1	5.381932E-1	5.170835E-1	4.517123E-1	4.920630E-1	5.159557E-1	4.955589E-1	4.691512E-1	4.971509E-1	4.697055E-1	5.105719E-1	5.207646E-1	5.332310E-1	4.740531E-1	4.880819E-1	5.049429E-1	4.629730E-1	5.151757E-1	4.643509E-1	4.700205E-1	4.729652E-1	4.831576E-1	5.121062E-1	4.886424E-1	4.878596E-1	4.870811E-1	5.439347E-1	4.995003E-1	4.870973E-1	4.478191E-1	5.431929E-1	4.987935E-1	5.415450E-1	4.565053E-1	4.912334E-1	4.970630E-1	5.294939E-1	4.950462E-1	5.166131E-1	4.924048E-1	5.100162E-1	5.017378E-1	5.437814E-1	5.563865E-1	5.704750E-1	4.522057E-1	5.023430E-1	4.757602E-1	5.247833E-1	4.412771E-1	4.699766E-1	5.048389E-1	4.888131E-1	4.726614E-1	4.817962E-1	4.738040E-1	4.904151E-1	4.121237E-1	4.488238E-1
5.406090E+2	4.765421E-1	4.647726E-1	5.368585E-1	4.954011E-1	4.235712E-1	4.809422E-1	4.905823E-1	5.138001E-1	4.553969E-1	4.727324E-1	4.936195E-1	5.018084E-1	5.164935E-1	4.675897E-1	4.950044E-1	4.519137E-1	4.805261E-1	4.642349E-1	5.266605E-1	5.006269E-1	4.707255E-1	5.059332E-1	5.551321E-1	5.030918E-1	5.069827E-1	4.847392E-1	4.962750E-1	5.154011E-1	5.049420E-1	4.600027E-1	4.317487E-1	4.260658E-1	5.007200E-1	4.538766E-1	5.081418E-1	4.569711E-1	3.838555E-1	5.007458E-1	5.226980E-1	4.974839E-1	4.680370E-1	4.765103E-1	4.900131E-1	5.072023E-1	5.200072E-1	4.495627E-1	4.595056E-1	4.851421E-1	4.951865E-1	4.573618E-1	5.156665E-1	4.540146E-1	4.996342E-1	4.666262E-1	4.839628E-1	5.377126E-1	4.621533E-1	5.072434E-1	5.075767E-1	5.176502E-1	4.803946E-1	4.806010E-1	4.746007E-1	4.596377E-1	4.319657E-1	4.727487E-1	4.669133E-1	4.308537E-1	4.432019E-1	5.001347E-1	5.489067E-1	4.804404E-1	4.741017E-1	4.814762E-1	4.644982E-1	5.109233E-1	4.806412E-1	4.288140E-1	5.056620E-1	4.490450E-1	5.433754E-1	4.849252E-1	4.705413E-1	4.981929E-1	4.477095E-1	5.201176E-1	5.068176E-1	5.184380E-1	4.781735E-1	4.826732E-1	4.770618E-1	4.753166E-1	5.582592E-1	4.529242E-1	4.439393E-1	4.785957E-1	4.697118E-1	4.635735E-1	5.064503E-1	4.504765E-1	4.573920E-1	4.975031E-1	5.092408E-1	4.840141E-1	5.357779E-1	5.320676E-1	4.550347E-1	5.476569E-1	5.296862E-1	4.558550E-1	4.456204E-1	4.552232E-1	5.072893E-1	4.726476E-1	4.779319E-1	4.752089E-1	4.328914E-1	5.075659E-1	5.524921E-1	5.324928E-1	5.149107E-1	5.135294E-1	4.884637E-1	4.935335E-1	5.120358E-1	4.535998E-1	4.672885E-1	4.572795E-1	4.795246E-1	4.888456E-1	4.825115E-1	4.435796E-1	4.669408E-1	5.355870E-1	5.144876E-1	4.870972E-1	4.592902E-1	4.913101E-1	4.817314E-1	4.922173E-1	5.033542E-1	4.600083E-1	4.809925E-1	5.527879E-1	5.306397E-1	4.678420E-1	4.945934E-1	4.817234E-1	4.986822E-1	5.300703E-1	4.864492E-1	5.259024E-1	5.008909E-1	5.264869E-1	5.335759E-1	4.728108E-1	5.626093E-1	4.748755E-1	4.468366E-1	4.440182E-1	5.345904E-1	4.794567E-1	4.843426E-1	4.990923E-1	5.390920E-1	5.482720E-1
5.408060E+2	4.091643E-1	4.068224E-1	4.845142E-1	4.879247E-1	3.998490E-1	4.568272E-1	4.797753E-1	4.513683E-1	3.951268E-1	4.011114E-1	4.577065E-1	4.257608E-1	4.427221E-1	3.987995E-1	4.197838E-1	4.102843E-1	4.427329E-1	3.910148E-1	4.297334E-1	4.223054E-1	4.259106E-1	4.199743E-1	4.792819E-1	4.706290E-1	4.254234E-1	4.239017E-1	3.808466E-1	4.020871E-1	4.524804E-1	4.118137E-1	3.933778E-1	4.118716E-1	4.851555E-1	3.922631E-1	4.060966E-1	4.070350E-1	3.831875E-1	4.364411E-1	3.727020E-1	3.984062E-1	4.024190E-1	4.123942E-1	4.850557E-1	4.575935E-1	4.608228E-1	4.192151E-1	4.109793E-1	4.291958E-1	4.473305E-1	4.415579E-1	4.343118E-1	4.540146E-1	4.216758E-1	4.813453E-1	4.551663E-1	4.312284E-1	4.614317E-1	4.129370E-1	4.646186E-1	4.223559E-1	4.464034E-1	3.981098E-1	4.507516E-1	4.378793E-1	4.192284E-1	4.233539E-1	4.661730E-1	4.077544E-1	3.804216E-1	4.020995E-1	4.508644E-1	4.106658E-1	4.241970E-1	4.532310E-1	4.449526E-1	4.662694E-1	4.835645E-1	4.106900E-1	4.449902E-1	4.230352E-1	4.636276E-1	4.076615E-1	4.424153E-1	4.073945E-1	4.553136E-1	4.552610E-1	4.370757E-1	4.602505E-1	3.853763E-1	4.696019E-1	4.609870E-1	4.273470E-1	4.470422E-1	4.103863E-1	4.292633E-1	4.231589E-1	4.711132E-1	4.180349E-1	4.138379E-1	3.935589E-1	4.024217E-1	4.567521E-1	4.533244E-1	4.373455E-1	4.498314E-1	4.340347E-1	4.741216E-1	4.361443E-1	5.147977E-1	4.468940E-1	3.595618E-1	3.895810E-1	4.437310E-1	4.589005E-1	4.640296E-1	4.386407E-1	4.184291E-1	4.534651E-1	4.905477E-1	4.875041E-1	4.142266E-1	4.349427E-1	4.540721E-1	4.510474E-1	4.782867E-1	4.328154E-1	4.092512E-1	4.156778E-1	4.490101E-1	4.408692E-1	4.355121E-1	3.923804E-1	4.169403E-1	4.695640E-1	4.245619E-1	4.420438E-1	4.091038E-1	4.468398E-1	4.525843E-1	4.821982E-1	4.464157E-1	4.109411E-1	4.376703E-1	4.486908E-1	4.380970E-1	4.360677E-1	4.172537E-1	4.184361E-1	4.077700E-1	4.653221E-1	4.755699E-1	4.873740E-1	4.746764E-1	4.101603E-1	4.742585E-1	4.468234E-1	4.621433E-1	3.992876E-1	3.967099E-1	4.339895E-1	4.416964E-1	4.131496E-1	4.021474E-1	3.935256E-1	4.475079E-1	4.121855E-1
5.410240E+2	3.339515E-1	3.676207E-1	4.269356E-1	3.815970E-1	3.049600E-1	3.549209E-1	3.833424E-1	3.889357E-1	3.291836E-1	3.261442E-1	3.527335E-1	3.685510E-1	3.850890E-1	3.467059E-1	3.479820E-1	3.372743E-1	3.607287E-1	3.408456E-1	3.646629E-1	3.413284E-1	3.661572E-1	3.373733E-1	4.048237E-1	3.433748E-1	3.500842E-1	3.754929E-1	3.459497E-1	3.702181E-1	3.786201E-1	3.276524E-1	3.450837E-1	3.350944E-1	3.394138E-1	3.264484E-1	3.325133E-1	3.846752E-1	3.296761E-1	3.728432E-1	3.368498E-1	3.918501E-1	3.570958E-1	3.554019E-1	3.837778E-1	3.700879E-1	3.716885E-1	3.768705E-1	3.659694E-1	3.277109E-1	3.966596E-1	3.494842E-1	3.326195E-1	3.566952E-1	3.608138E-1	4.091515E-1	3.694639E-1	3.670551E-1	3.539002E-1	3.345790E-1	3.896241E-1	3.645784E-1	3.581717E-1	3.431154E-1	3.742971E-1	3.637666E-1	3.817632E-1	3.732219E-1	3.218530E-1	3.853772E-1	3.258619E-1	3.944407E-1	3.780979E-1	3.260464E-1	3.579039E-1	3.082859E-1	3.509816E-1	4.136426E-1	3.637009E-1	3.671917E-1	3.609259E-1	3.932008E-1	4.030780E-1	3.682568E-1	3.428338E-1	3.719606E-1	3.765046E-1	3.505536E-1	3.728811E-1	3.637626E-1	3.589649E-1	3.527304E-1	3.564950E-1	3.801389E-1	3.971087E-1	3.554758E-1	3.184620E-1	3.475624E-1	3.646304E-1	3.539953E-1	3.824812E-1	3.186300E-1	3.461279E-1	3.556288E-1	3.574672E-1	4.019898E-1	3.396262E-1	3.921330E-1	3.733422E-1	3.759860E-1	3.779669E-1	3.311567E-1	3.191980E-1	3.373355E-1	3.693394E-1	3.512159E-1	3.513376E-1	3.406363E-1	3.546621E-1	3.730664E-1	4.286037E-1	4.115394E-1	3.383490E-1	3.907840E-1	3.444502E-1	3.914165E-1	3.872406E-1	3.525409E-1	3.198046E-1	3.113321E-1	3.647290E-1	3.332872E-1	3.544548E-1	3.266519E-1	3.697163E-1	4.354136E-1	3.724619E-1	3.590878E-1	3.431454E-1	3.897682E-1	3.758065E-1	4.374947E-1	3.851510E-1	3.893809E-1	3.915540E-1	3.598806E-1	4.025033E-1	3.570011E-1	3.712869E-1	3.946108E-1	3.733909E-1	3.838173E-1	4.009711E-1	3.921837E-1	3.608293E-1	3.984546E-1	3.571254E-1	3.587585E-1	3.840892E-1	3.334980E-1	3.687832E-1	3.303598E-1	3.833679E-1	3.507434E-1	3.336514E-1	3.573726E-1	3.288670E-1	4.017175E-1
5.415040E+2	3.699906E-1	3.804040E-1	4.147217E-1	4.347609E-1	3.598177E-1	4.008175E-1	4.082825E-1	3.602511E-1	3.362744E-1	3.970956E-1	3.955516E-1	3.629692E-1	4.457963E-1	3.914533E-1	3.582391E-1	3.686552E-1	3.778426E-1	3.964385E-1	3.910980E-1	3.619050E-1	3.471457E-1	3.951267E-1	4.229164E-1	3.842777E-1	3.618340E-1	3.539055E-1	3.667542E-1	4.190846E-1	3.972579E-1	3.324037E-1	3.430994E-1	3.609017E-1	3.288022E-1	3.516539E-1	3.741645E-1	3.667873E-1	3.631204E-1	3.643633E-1	3.712390E-1	3.597953E-1	3.516835E-1	3.340291E-1	3.717374E-1	3.631980E-1	3.859501E-1	3.528751E-1	3.441681E-1	3.491785E-1	3.959556E-1	3.838403E-1	3.617708E-1	3.519312E-1	3.450849E-1	3.516782E-1	4.085442E-1	3.959684E-1	4.015315E-1	3.602361E-1	4.129233E-1	3.668293E-1	4.059034E-1	3.699248E-1	3.609700E-1	3.644467E-1	3.930031E-1	3.592149E-1	3.314743E-1	3.738269E-1	3.497784E-1	3.683999E-1	3.811615E-1	3.720671E-1	3.638631E-1	3.447081E-1	3.720309E-1	3.769626E-1	3.841658E-1	3.316691E-1	3.601955E-1	3.664264E-1	3.454828E-1	3.891178E-1	3.899641E-1	3.726987E-1	3.709740E-1	3.724337E-1	3.823913E-1	3.770206E-1	3.496846E-1	3.773347E-1	3.272664E-1	3.618647E-1	3.910555E-1	3.415541E-1	3.037865E-1	3.900402E-1	3.499192E-1	3.454572E-1	3.956069E-1	3.661813E-1	3.799041E-1	4.190196E-1	3.894190E-1	3.814836E-1	3.936895E-1	3.968767E-1	4.122798E-1	4.200042E-1	3.871835E-1	3.453438E-1	3.633691E-1	3.540811E-1	3.657283E-1	3.305951E-1	3.769497E-1	3.420991E-1	4.046234E-1	4.226582E-1	3.946107E-1	4.358778E-1	3.317827E-1	4.027586E-1	3.838570E-1	3.668193E-1	3.911646E-1	3.883772E-1	3.437022E-1	3.597537E-1	3.669095E-1	3.638178E-1	3.803388E-1	3.515594E-1	3.509654E-1	3.921570E-1	4.145702E-1	3.719605E-1	3.474474E-1	4.231217E-1	3.765166E-1	3.951039E-1	3.822684E-1	3.574131E-1	3.663998E-1	3.766243E-1	3.843108E-1	3.872978E-1	3.537765E-1	4.080126E-1	3.626956E-1	4.036229E-1	4.149579E-1	4.375122E-1	4.027726E-1	3.823594E-1	3.653850E-1	3.587579E-1	3.902717E-1	3.278988E-1	3.587578E-1	3.684694E-1	3.588838E-1	3.757061E-1	3.758028E-1	3.501423E-1	3.746580E-1	4.174197E-1
5.420110E+2	4.499038E-1	4.903393E-1	5.333693E-1	5.302899E-1	4.621198E-1	4.389348E-1	5.205101E-1	5.306735E-1	4.277432E-1	4.600150E-1	5.005254E-1	4.948316E-1	5.041974E-1	5.290339E-1	4.820116E-1	4.602395E-1	4.840914E-1	5.096586E-1	4.846360E-1	4.554919E-1	4.693678E-1	4.689980E-1	5.328638E-1	4.615391E-1	4.883209E-1	4.880100E-1	4.976172E-1	5.132763E-1	5.056321E-1	5.326260E-1	4.377022E-1	4.538088E-1	4.632235E-1	4.734815E-1	4.803745E-1	4.651692E-1	4.581019E-1	4.965063E-1	4.656261E-1	4.770856E-1	4.714202E-1	5.520253E-1	4.878890E-1	4.445018E-1	4.986156E-1	5.095516E-1	4.482537E-1	4.493623E-1	4.775923E-1	5.329444E-1	4.702430E-1	4.458478E-1	5.160460E-1	5.283054E-1	5.011034E-1	4.911700E-1	4.542152E-1	4.732647E-1	4.966548E-1	4.636253E-1	4.869039E-1	5.177230E-1	4.500505E-1	4.331201E-1	4.754249E-1	4.970771E-1	4.854164E-1	4.784947E-1	4.476864E-1	5.070283E-1	5.305243E-1	4.336768E-1	4.495215E-1	4.785031E-1	4.697601E-1	5.069359E-1	4.733323E-1	4.802862E-1	4.713061E-1	4.551650E-1	4.990709E-1	4.926511E-1	4.249318E-1	4.841669E-1	4.836574E-1	5.271507E-1	5.036476E-1	5.162280E-1	4.888813E-1	4.688337E-1	5.077519E-1	5.012046E-1	4.455298E-1	4.591114E-1	4.652182E-1	4.829155E-1	5.089417E-1	4.400930E-1	4.816561E-1	4.468745E-1	4.507683E-1	5.148606E-1	5.128720E-1	5.080554E-1	4.706254E-1	5.249523E-1	4.802297E-1	5.461892E-1	4.949464E-1	4.849757E-1	4.593284E-1	4.880446E-1	4.928441E-1	4.619558E-1	4.786642E-1	4.774029E-1	4.992883E-1	5.526493E-1	5.056563E-1	5.376555E-1	4.806198E-1	5.120325E-1	4.891800E-1	5.099319E-1	5.167459E-1	4.973204E-1	4.433908E-1	4.525048E-1	4.795243E-1	4.917528E-1	4.961347E-1	4.553410E-1	4.801362E-1	4.885357E-1	4.773755E-1	5.171329E-1	4.750629E-1	5.053925E-1	4.867081E-1	5.207356E-1	4.954261E-1	4.548045E-1	4.747041E-1	4.843608E-1	5.535786E-1	4.626697E-1	5.113748E-1	4.780009E-1	4.772906E-1	5.049324E-1	5.478384E-1	5.417673E-1	4.978947E-1	5.118543E-1	4.945310E-1	4.807510E-1	4.992387E-1	4.300823E-1	4.511323E-1	4.533784E-1	5.353105E-1	4.778963E-1	4.400833E-1	4.499241E-1	4.579154E-1	5.744425E-1
5.425080E+2	6.348017E-1	6.863467E-1	7.567052E-1	7.022428E-1	6.259515E-1	6.629730E-1	7.682441E-1	7.441235E-1	6.163551E-1	6.875955E-1	7.180703E-1	7.152990E-1	6.817097E-1	7.133646E-1	6.509164E-1	6.888779E-1	6.787616E-1	6.825390E-1	6.873023E-1	6.499680E-1	6.683185E-1	7.194881E-1	7.694615E-1	6.783902E-1	6.472930E-1	7.150066E-1	6.774711E-1	6.690826E-1	6.768228E-1	7.518530E-1	6.322000E-1	6.447843E-1	6.457534E-1	7.143354E-1	6.296239E-1	6.820560E-1	6.239851E-1	6.802337E-1	6.639124E-1	6.927262E-1	6.425694E-1	7.108922E-1	6.564494E-1	6.822122E-1	6.875790E-1	7.297449E-1	6.472814E-1	6.698957E-1	6.676087E-1	6.834226E-1	6.668488E-1	6.581806E-1	6.576019E-1	7.007273E-1	7.013050E-1	7.238850E-1	6.288644E-1	7.333005E-1	6.517397E-1	7.119921E-1	6.662609E-1	7.452640E-1	6.380323E-1	6.411807E-1	6.994624E-1	7.410994E-1	6.911646E-1	6.387457E-1	6.591970E-1	6.640385E-1	7.181843E-1	6.489370E-1	6.573370E-1	7.423768E-1	6.764967E-1	6.536543E-1	7.159825E-1	6.905246E-1	6.971820E-1	6.976644E-1	7.250242E-1	7.592106E-1	6.674245E-1	6.834818E-1	6.758420E-1	6.826485E-1	6.930600E-1	7.231989E-1	6.851828E-1	7.102662E-1	6.801995E-1	6.809003E-1	7.292462E-1	7.460441E-1	6.413273E-1	6.557070E-1	7.015897E-1	6.628076E-1	6.340655E-1	6.183474E-1	6.832313E-1	7.646499E-1	7.074900E-1	6.466493E-1	6.958874E-1	7.028357E-1	6.749169E-1	7.112568E-1	7.090539E-1	7.112226E-1	6.025054E-1	6.494692E-1	6.929073E-1	6.903079E-1	7.040470E-1	6.485439E-1	6.228770E-1	7.592823E-1	7.073526E-1	6.740980E-1	6.382115E-1	6.879180E-1	6.683015E-1	6.873319E-1	6.737212E-1	6.621681E-1	6.509611E-1	6.270966E-1	6.822327E-1	6.640300E-1	6.562055E-1	6.137810E-1	6.863926E-1	7.063375E-1	6.872024E-1	6.959173E-1	6.378082E-1	6.654878E-1	7.021146E-1	7.473344E-1	6.684065E-1	6.369496E-1	6.787351E-1	6.525173E-1	7.750489E-1	6.540551E-1	6.397888E-1	6.581811E-1	6.552962E-1	7.372604E-1	8.042728E-1	7.706757E-1	6.851441E-1	6.852466E-1	6.514609E-1	6.511075E-1	7.264457E-1	6.750444E-1	6.301534E-1	6.486023E-1	6.915740E-1	6.222104E-1	6.571615E-1	5.959821E-1	5.765580E-1	7.942745E-1
5.430120E+2	8.847265E-1	9.411569E-1	9.870215E-1	9.747071E-1	8.097989E-1	8.465594E-1	9.793990E-1	1.038567E+0	8.262387E-1	8.716688E-1	9.445923E-1	9.301852E-1	9.721831E-1	9.865224E-1	8.540131E-1	8.432258E-1	9.026681E-1	9.516901E-1	9.774065E-1	8.019653E-1	8.760964E-1	9.323713E-1	9.803106E-1	9.095248E-1	8.954280E-1	8.988282E-1	9.123554E-1	9.176655E-1	8.990935E-1	9.704011E-1	8.723447E-1	8.409211E-1	8.806374E-1	9.383855E-1	8.975777E-1	8.557147E-1	8.580948E-1	8.978798E-1	9.639037E-1	9.251221E-1	8.610704E-1	9.987039E-1	8.915856E-1	9.433493E-1	9.400070E-1	9.266491E-1	8.941329E-1	8.676607E-1	8.878866E-1	9.500239E-1	8.553188E-1	8.630274E-1	8.935282E-1	9.614640E-1	9.261888E-1	9.587158E-1	8.489805E-1	9.371683E-1	9.888498E-1	8.868253E-1	8.253676E-1	1.008551E+0	9.017674E-1	8.288439E-1	8.628076E-1	9.784871E-1	8.702703E-1	8.509690E-1	8.079286E-1	9.129568E-1	9.280582E-1	8.879513E-1	8.696219E-1	9.051615E-1	8.899979E-1	9.773925E-1	9.571707E-1	9.370109E-1	8.558065E-1	8.988551E-1	9.539301E-1	1.008771E+0	8.650670E-1	8.931301E-1	8.770134E-1	9.522301E-1	9.609328E-1	9.640488E-1	8.829124E-1	9.932193E-1	8.767605E-1	9.207471E-1	9.002320E-1	9.556357E-1	8.277079E-1	8.630568E-1	9.698970E-1	9.673507E-1	9.133606E-1	8.561038E-1	8.355576E-1	9.533129E-1	9.042880E-1	8.658518E-1	8.837217E-1	1.024607E+0	9.261020E-1	9.284120E-1	9.040203E-1	1.005418E+0	8.454494E-1	8.772067E-1	9.846955E-1	9.667754E-1	8.877199E-1	8.862405E-1	8.207517E-1	1.000480E+0	9.513512E-1	9.720590E-1	8.388499E-1	1.038941E+0	8.710671E-1	9.459780E-1	9.625577E-1	9.674948E-1	8.073216E-1	8.316953E-1	9.256288E-1	9.802351E-1	8.946093E-1	8.192690E-1	8.558422E-1	9.894047E-1	9.220100E-1	8.661194E-1	8.708139E-1	9.501009E-1	8.947712E-1	9.816417E-1	8.954434E-1	9.759627E-1	9.051245E-1	9.240431E-1	9.814916E-1	9.651505E-1	9.323678E-1	8.949472E-1	9.181024E-1	9.589254E-1	9.674591E-1	9.867400E-1	9.158347E-1	9.947186E-1	8.879790E-1	9.282960E-1	9.041934E-1	9.326041E-1	7.905557E-1	8.712384E-1	9.191283E-1	8.936789E-1	8.584323E-1	8.750833E-1	9.158298E-1	9.670002E-1
5.435330E+2	9.011789E-1	9.530873E-1	1.003597E+0	1.011258E+0	8.772592E-1	9.360192E-1	1.026784E+0	1.046161E+0	8.687825E-1	9.573464E-1	9.653115E-1	1.016000E+0	1.013679E+0	1.039284E+0	9.135066E-1	9.162361E-1	9.903765E-1	9.713504E-1	9.306366E-1	8.703307E-1	9.596157E-1	1.000869E+0	1.053377E+0	9.309503E-1	9.880461E-1	9.616287E-1	9.237639E-1	1.001234E+0	9.556973E-1	9.663288E-1	9.001299E-1	8.557605E-1	9.641200E-1	1.000700E+0	9.385353E-1	8.810548E-1	9.310029E-1	9.657182E-1	9.851232E-1	9.120090E-1	9.151893E-1	1.028626E+0	9.517850E-1	9.902027E-1	1.003470E+0	1.062858E+0	9.412521E-1	9.411721E-1	1.028640E+0	1.013925E+0	9.129444E-1	9.392492E-1	9.400301E-1	9.810889E-1	9.693816E-1	1.020068E+0	9.009424E-1	9.857084E-1	1.008509E+0	9.858723E-1	1.006171E+0	1.007863E+0	9.326303E-1	8.519613E-1	8.845373E-1	1.041889E+0	9.479817E-1	9.209885E-1	8.991092E-1	1.010992E+0	1.005420E+0	9.629218E-1	9.016504E-1	9.958444E-1	9.087922E-1	1.017262E+0	1.052915E+0	1.026907E+0	9.252506E-1	9.546985E-1	9.782978E-1	1.070582E+0	9.882135E-1	9.241344E-1	9.433789E-1	1.051468E+0	9.680658E-1	9.839357E-1	9.335939E-1	1.026282E+0	9.775986E-1	9.268386E-1	1.005397E+0	1.043804E+0	9.333724E-1	9.537717E-1	9.825067E-1	1.017870E+0	9.060683E-1	8.993325E-1	9.130443E-1	1.023495E+0	9.514907E-1	9.825237E-1	9.890754E-1	1.117105E+0	9.123587E-1	1.029652E+0	1.001857E+0	9.912318E-1	8.378337E-1	9.267732E-1	9.651941E-1	1.064531E+0	8.965007E-1	9.718113E-1	9.233046E-1	9.982249E-1	1.067685E+0	9.801709E-1	8.855439E-1	1.026217E+0	9.706583E-1	9.534314E-1	1.029272E+0	1.053502E+0	8.674077E-1	9.012595E-1	9.001995E-1	1.035480E+0	9.525075E-1	8.593971E-1	9.155663E-1	9.878868E-1	1.012650E+0	9.512209E-1	8.765500E-1	9.656660E-1	9.715497E-1	9.893490E-1	1.017250E+0	9.781926E-1	9.540373E-1	9.495212E-1	1.008384E+0	9.651504E-1	9.768740E-1	9.604681E-1	9.845684E-1	9.695881E-1	1.009421E+0	1.006382E+0	1.008710E+0	9.954501E-1	9.029968E-1	9.282967E-1	1.029389E+0	9.682987E-1	9.079944E-1	9.280681E-1	1.055230E+0	9.911893E-1	9.237668E-1	9.199130E-1	8.637954E-1	1.019340E+0
5.440170E+2	8.941279E-1	9.011033E-1	1.043728E+0	1.024548E+0	9.195142E-1	8.901216E-1	9.519656E-1	1.019163E+0	9.028171E-1	9.245475E-1	9.549517E-1	9.678603E-1	9.783298E-1	9.871898E-1	8.923074E-1	8.566748E-1	9.754020E-1	9.869446E-1	9.489382E-1	8.836050E-1	9.433190E-1	9.874388E-1	1.080516E+0	1.010159E+0	9.410457E-1	9.531241E-1	9.908736E-1	9.721973E-1	1.039221E+0	9.989073E-1	8.677138E-1	8.731810E-1	9.287465E-1	1.016804E+0	8.718935E-1	9.362077E-1	8.995653E-1	9.515853E-1	9.397576E-1	9.593622E-1	8.671588E-1	1.017226E+0	9.184981E-1	9.778007E-1	9.827912E-1	1.033924E+0	9.384389E-1	8.858765E-1	9.997852E-1	1.017361E+0	9.143007E-1	9.052216E-1	9.393455E-1	9.873970E-1	9.275592E-1	9.664727E-1	9.550693E-1	9.725334E-1	1.028168E+0	9.776179E-1	9.888149E-1	1.044297E+0	9.193038E-1	8.730391E-1	9.092636E-1	1.041889E+0	9.065354E-1	8.935585E-1	8.908880E-1	9.818878E-1	1.029930E+0	9.554987E-1	9.649628E-1	9.534763E-1	9.245795E-1	1.008490E+0	1.001023E+0	9.979080E-1	9.420638E-1	9.585233E-1	9.480226E-1	1.093761E+0	9.813721E-1	9.484945E-1	9.337004E-1	9.772353E-1	1.021956E+0	9.861459E-1	8.764877E-1	1.078566E+0	9.980587E-1	9.237933E-1	9.826993E-1	1.016735E+0	9.722632E-1	9.062534E-1	9.769027E-1	9.958127E-1	9.651359E-1	9.014937E-1	9.693390E-1	1.028778E+0	9.972411E-1	9.655538E-1	9.585783E-1	1.045952E+0	9.642759E-1	1.022317E+0	1.030924E+0	9.942187E-1	8.385951E-1	9.133770E-1	1.004918E+0	1.079042E+0	9.052820E-1	9.440188E-1	8.871477E-1	1.012502E+0	1.017073E+0	9.919717E-1	9.242124E-1	1.022476E+0	9.527457E-1	8.826207E-1	1.006511E+0	9.925802E-1	8.940366E-1	8.617040E-1	9.546911E-1	9.758735E-1	9.204932E-1	9.244342E-1	9.065379E-1	1.041768E+0	9.684008E-1	9.390633E-1	9.152641E-1	9.812301E-1	1.002119E+0	1.005535E+0	9.660762E-1	9.960356E-1	9.016310E-1	9.407860E-1	1.012338E+0	9.415038E-1	9.776041E-1	9.143056E-1	9.089339E-1	1.032813E+0	9.822228E-1	1.008648E+0	9.809966E-1	9.917919E-1	9.803348E-1	9.716073E-1	1.068030E+0	9.941942E-1	8.750537E-1	8.832730E-1	9.904188E-1	1.017711E+0	9.458965E-1	9.112353E-1	9.512160E-1	1.134491E+0
5.445020E+2	9.474039E-1	9.760971E-1	9.547431E-1	9.871679E-1	8.149879E-1	9.150149E-1	9.544592E-1	9.719182E-1	8.765819E-1	8.950965E-1	9.369962E-1	9.266965E-1	9.498970E-1	9.437788E-1	8.827337E-1	9.059888E-1	8.919721E-1	8.716910E-1	9.123361E-1	8.218771E-1	8.930716E-1	8.766321E-1	9.914440E-1	9.328979E-1	9.030303E-1	9.727493E-1	9.069856E-1	9.247475E-1	9.191121E-1	9.955136E-1	8.617594E-1	8.660836E-1	8.891272E-1	9.509890E-1	8.413496E-1	8.422987E-1	8.386973E-1	9.692506E-1	9.287828E-1	9.083667E-1	9.016593E-1	9.666461E-1	9.029175E-1	9.481727E-1	9.699565E-1	9.308839E-1	8.702219E-1	9.145006E-1	9.287057E-1	9.699504E-1	8.275224E-1	8.439714E-1	8.805354E-1	9.530530E-1	9.392147E-1	9.551898E-1	8.944471E-1	1.069613E+0	9.742875E-1	9.288447E-1	9.309576E-1	9.769285E-1	8.758146E-1	8.764395E-1	8.643066E-1	9.755378E-1	9.131966E-1	8.574661E-1	8.512760E-1	8.976390E-1	9.326535E-1	8.679093E-1	9.262307E-1	9.936150E-1	8.764665E-1	9.391183E-1	9.169726E-1	9.652849E-1	9.077070E-1	9.164493E-1	9.347319E-1	1.007226E+0	9.129569E-1	9.027265E-1	8.915309E-1	9.920815E-1	9.950109E-1	9.603669E-1	9.036128E-1	1.038584E+0	8.752995E-1	9.382602E-1	9.509228E-1	9.974002E-1	8.401820E-1	8.623360E-1	9.320669E-1	9.929661E-1	9.104436E-1	8.935690E-1	8.898649E-1	9.940634E-1	8.737883E-1	9.054498E-1	9.266944E-1	9.842861E-1	9.512968E-1	9.922372E-1	9.359232E-1	9.636044E-1	8.553504E-1	8.390275E-1	9.247493E-1	1.008015E+0	9.074779E-1	8.679560E-1	8.897779E-1	9.396163E-1	9.694810E-1	9.410827E-1	9.154575E-1	9.895432E-1	9.319680E-1	9.109450E-1	9.068310E-1	9.854129E-1	8.557997E-1	8.507919E-1	9.227228E-1	1.009312E+0	8.557835E-1	8.303388E-1	9.023708E-1	9.787801E-1	9.526993E-1	9.562270E-1	8.521733E-1	9.930903E-1	9.793697E-1	9.747051E-1	9.228313E-1	9.625798E-1	9.009325E-1	9.036608E-1	1.024203E+0	9.348533E-1	9.309083E-1	8.904803E-1	9.181023E-1	9.391200E-1	9.713440E-1	9.459442E-1	8.918665E-1	1.030568E+0	9.195158E-1	9.008659E-1	9.451519E-1	9.990937E-1	8.628804E-1	8.852785E-1	9.601744E-1	1.032533E+0	8.784545E-1	8.504993E-1	9.199938E-1	1.082150E+0
5.450090E+2	8.236165E-1	9.036592E-1	9.756802E-1	9.223744E-1	8.342622E-1	8.123308E-1	9.852182E-1	9.491382E-1	8.475108E-1	8.730066E-1	9.943170E-1	8.806497E-1	9.429812E-1	9.090496E-1	9.237632E-1	8.246525E-1	8.506137E-1	9.272834E-1	9.733386E-1	8.125845E-1	9.046151E-1	8.826758E-1	9.663930E-1	8.848529E-1	8.795303E-1	8.916320E-1	9.432254E-1	9.013762E-1	9.025454E-1	9.581844E-1	9.815015E-1	8.364047E-1	9.160114E-1	9.243821E-1	9.038260E-1	8.586953E-1	8.333459E-1	8.788004E-1	9.265875E-1	9.047240E-1	7.859821E-1	9.196271E-1	9.043336E-1	9.192341E-1	9.678164E-1	9.675831E-1	9.166376E-1	8.305800E-1	9.653013E-1	8.792510E-1	9.109109E-1	8.630273E-1	8.873740E-1	9.376333E-1	9.419579E-1	9.375602E-1	8.475374E-1	9.239935E-1	9.750161E-1	9.461029E-1	9.389126E-1	9.239961E-1	8.666958E-1	7.554105E-1	8.837884E-1	9.445743E-1	8.939539E-1	8.220943E-1	8.086758E-1	9.497208E-1	9.709514E-1	8.783015E-1	9.038850E-1	9.386097E-1	8.817291E-1	9.439023E-1	9.995613E-1	8.927889E-1	8.616551E-1	8.827899E-1	9.140561E-1	9.639587E-1	9.114371E-1	8.687695E-1	8.528167E-1	8.889371E-1	8.840580E-1	1.000140E+0	8.400822E-1	1.003214E+0	8.475323E-1	8.704937E-1	8.555946E-1	9.827050E-1	8.269737E-1	8.248979E-1	8.620136E-1	9.766000E-1	8.674190E-1	8.978920E-1	8.501278E-1	9.419925E-1	8.527292E-1	8.510026E-1	8.670871E-1	9.850771E-1	8.253226E-1	9.592240E-1	9.465567E-1	9.449373E-1	8.302176E-1	8.597922E-1	8.785250E-1	9.843407E-1	9.147950E-1	8.474776E-1	8.148354E-1	9.381141E-1	9.067813E-1	9.418199E-1	8.658448E-1	9.663409E-1	8.932779E-1	9.474687E-1	9.672666E-1	9.818286E-1	7.970797E-1	8.146455E-1	9.060123E-1	9.656975E-1	8.503341E-1	8.310305E-1	8.363970E-1	9.848514E-1	8.727649E-1	8.539626E-1	8.435702E-1	9.108180E-1	9.914559E-1	9.747043E-1	9.120203E-1	9.343285E-1	8.890542E-1	8.810945E-1	9.854463E-1	8.993846E-1	8.353273E-1	8.726113E-1	9.226860E-1	9.482608E-1	9.394844E-1	9.368785E-1	8.686472E-1	8.974142E-1	8.947377E-1	8.842635E-1	9.629269E-1	9.333045E-1	8.191994E-1	7.595860E-1	8.874440E-1	9.428239E-1	7.709691E-1	7.883169E-1	8.117599E-1	9.669987E-1
5.455130E+2	8.588722E-1	1.001664E+0	9.564872E-1	9.232052E-1	8.105405E-1	8.722305E-1	9.619410E-1	9.533566E-1	8.616923E-1	8.857251E-1	9.335431E-1	8.897201E-1	9.760253E-1	9.758362E-1	9.230797E-1	8.509109E-1	8.463351E-1	9.225383E-1	9.509716E-1	8.245322E-1	9.209113E-1	9.269986E-1	9.928363E-1	8.666742E-1	9.175456E-1	8.949033E-1	9.237634E-1	8.985436E-1	8.590571E-1	9.751523E-1	9.801783E-1	8.183399E-1	8.962023E-1	9.201817E-1	9.274282E-1	8.601866E-1	8.346837E-1	8.915201E-1	8.958571E-1	8.347867E-1	8.306293E-1	9.274635E-1	9.340795E-1	9.509284E-1	8.615689E-1	9.315898E-1	9.848556E-1	8.383866E-1	8.801460E-1	9.163545E-1	9.292156E-1	8.888885E-1	8.504464E-1	9.705754E-1	9.913222E-1	9.368551E-1	8.648581E-1	8.990298E-1	9.742878E-1	8.658150E-1	9.360197E-1	9.652423E-1	9.677011E-1	8.370028E-1	8.965264E-1	1.005764E+0	9.050557E-1	8.545781E-1	8.692142E-1	9.075957E-1	9.778455E-1	8.619719E-1	8.442964E-1	9.393536E-1	9.298412E-1	9.367259E-1	9.001626E-1	9.174372E-1	9.201334E-1	9.325140E-1	9.450695E-1	9.423249E-1	9.418436E-1	8.562196E-1	8.251648E-1	9.358214E-1	9.165514E-1	9.316410E-1	8.129570E-1	9.747656E-1	9.067197E-1	8.986661E-1	9.448710E-1	9.587294E-1	8.805399E-1	8.328175E-1	8.802275E-1	9.467153E-1	8.768989E-1	8.546630E-1	8.633730E-1	9.827441E-1	9.224427E-1	9.330264E-1	8.663938E-1	1.018282E+0	9.283931E-1	9.438181E-1	9.181989E-1	9.247758E-1	8.119402E-1	8.430464E-1	8.496354E-1	9.904493E-1	8.562543E-1	8.635680E-1	8.707126E-1	9.238379E-1	8.810982E-1	9.853342E-1	8.176917E-1	1.013493E+0	8.846800E-1	8.304444E-1	9.774703E-1	9.345251E-1	8.025419E-1	8.139640E-1	8.820354E-1	9.271709E-1	8.455663E-1	8.476361E-1	8.183408E-1	9.423538E-1	9.084494E-1	8.639741E-1	7.532361E-1	9.241598E-1	8.841075E-1	8.922350E-1	8.687753E-1	8.993865E-1	8.946447E-1	8.883738E-1	9.490615E-1	9.274643E-1	8.557566E-1	8.711224E-1	8.982388E-1	9.155060E-1	9.169488E-1	9.278128E-1	9.031009E-1	9.508214E-1	9.022458E-1	9.030312E-1	9.853388E-1	8.955092E-1	8.213471E-1	7.776379E-1	9.018460E-1	9.436038E-1	8.879387E-1	8.201297E-1	8.596327E-1	1.024575E+0
5.460060E+2	9.270336E-1	9.616099E-1	1.005342E+0	9.896604E-1	8.616912E-1	8.691176E-1	9.611095E-1	1.014101E+0	8.531826E-1	9.151764E-1	9.991516E-1	9.427438E-1	9.721824E-1	9.758365E-1	9.449622E-1	8.861351E-1	9.090859E-1	9.632162E-1	9.848618E-1	8.331607E-1	8.842444E-1	9.672919E-1	1.031805E+0	9.095246E-1	9.168542E-1	9.060238E-1	9.559757E-1	9.410366E-1	9.432723E-1	9.602203E-1	9.570238E-1	8.480187E-1	8.445555E-1	9.299842E-1	1.030168E+0	9.019239E-1	8.400340E-1	9.706643E-1	9.617082E-1	8.653844E-1	8.549826E-1	9.588091E-1	9.914469E-1	9.392152E-1	9.656778E-1	9.915785E-1	1.010174E+0	9.014894E-1	9.202599E-1	9.651406E-1	1.041755E+0	8.330828E-1	8.716457E-1	9.923036E-1	9.796667E-1	9.749357E-1	8.655794E-1	9.773874E-1	1.020158E+0	9.888730E-1	8.962431E-1	1.005801E+0	9.943551E-1	9.145157E-1	9.437321E-1	1.048524E+0	9.798057E-1	8.228177E-1	8.580028E-1	9.903133E-1	9.992920E-1	9.399107E-1	9.366584E-1	9.928709E-1	9.967501E-1	9.845690E-1	9.915218E-1	9.957331E-1	9.691098E-1	9.623487E-1	9.317782E-1	9.647314E-1	1.069551E+0	9.462804E-1	8.376083E-1	9.405092E-1	1.018787E+0	9.868822E-1	8.757742E-1	1.022437E+0	1.017057E+0	9.717623E-1	9.236852E-1	9.943068E-1	1.011154E+0	8.652161E-1	9.152548E-1	9.623692E-1	1.062124E+0	8.777186E-1	8.905269E-1	9.872713E-1	9.696449E-1	8.856514E-1	9.065943E-1	1.060183E+0	9.864171E-1	1.011312E+0	9.295426E-1	1.001686E+0	9.467397E-1	8.731878E-1	9.355821E-1	9.713572E-1	1.059684E+0	8.913601E-1	8.562508E-1	9.666669E-1	1.010274E+0	1.039911E+0	8.454166E-1	1.004512E+0	9.735241E-1	9.377784E-1	9.633420E-1	1.005482E+0	8.633110E-1	8.494284E-1	9.118244E-1	1.061649E+0	9.218556E-1	8.483275E-1	8.884820E-1	9.992701E-1	9.241510E-1	9.333425E-1	9.116795E-1	9.552894E-1	9.025915E-1	9.893495E-1	9.365259E-1	9.707573E-1	9.568319E-1	9.757282E-1	1.057424E+0	9.836235E-1	9.294489E-1	8.994144E-1	9.287978E-1	9.612100E-1	1.011752E+0	9.806958E-1	9.285677E-1	9.910604E-1	9.187648E-1	9.217997E-1	1.043300E+0	9.934939E-1	8.743374E-1	8.010381E-1	9.313708E-1	9.467245E-1	9.058519E-1	8.490530E-1	9.012592E-1	1.118790E+0
5.465380E+2	8.494707E-1	9.437131E-1	9.678288E-1	9.381573E-1	8.023858E-1	8.325572E-1	9.386644E-1	9.212975E-1	8.148932E-1	8.743459E-1	9.307806E-1	8.813473E-1	9.099378E-1	9.137248E-1	8.895725E-1	7.990348E-1	8.506137E-1	9.150799E-1	9.665616E-1	8.437807E-1	8.631947E-1	8.746176E-1	9.789180E-1	8.368082E-1	9.071775E-1	8.942492E-1	9.378563E-1	9.537833E-1	8.659600E-1	9.188183E-1	9.437928E-1	7.815638E-1	8.643657E-1	8.774718E-1	9.760210E-1	7.841636E-1	8.413724E-1	9.134258E-1	9.346363E-1	8.449862E-1	7.907172E-1	9.623718E-1	9.666590E-1	8.523997E-1	8.701263E-1	8.984195E-1	9.419557E-1	8.494465E-1	8.963324E-1	9.864405E-1	9.841291E-1	8.140271E-1	8.483949E-1	9.628655E-1	9.680112E-1	8.945430E-1	8.756837E-1	9.108180E-1	9.844812E-1	8.868254E-1	9.331271E-1	9.384321E-1	9.726107E-1	8.070854E-1	8.852865E-1	9.150850E-1	9.731449E-1	8.711812E-1	8.310974E-1	9.857179E-1	9.410791E-1	8.916629E-1	9.143126E-1	8.784022E-1	9.403672E-1	9.072223E-1	8.994308E-1	8.993128E-1	9.303681E-1	9.019152E-1	9.458078E-1	9.299622E-1	9.790922E-1	9.108466E-1	8.728655E-1	9.405095E-1	9.395345E-1	9.132276E-1	8.936198E-1	9.540055E-1	9.396019E-1	8.187165E-1	9.206593E-1	9.401681E-1	9.245669E-1	8.032996E-1	8.739226E-1	9.061570E-1	9.607606E-1	8.229620E-1	8.355577E-1	9.268996E-1	9.965140E-1	8.807015E-1	9.024361E-1	9.479185E-1	9.818365E-1	9.518874E-1	9.997306E-1	9.412031E-1	9.421703E-1	8.329994E-1	9.009150E-1	9.660113E-1	9.308943E-1	8.328505E-1	7.984004E-1	9.185781E-1	9.150918E-1	9.204318E-1	8.373906E-1	8.772752E-1	9.778231E-1	9.169078E-1	8.950575E-1	9.703615E-1	9.186174E-1	8.385158E-1	9.045584E-1	9.424356E-1	9.647682E-1	8.248034E-1	8.336194E-1	9.264165E-1	9.619772E-1	8.603979E-1	8.177604E-1	9.293477E-1	9.374262E-1	9.585193E-1	8.493149E-1	9.350729E-1	9.386645E-1	9.087560E-1	9.245411E-1	9.296810E-1	9.199643E-1	8.718667E-1	8.760844E-1	9.307401E-1	9.915481E-1	9.391452E-1	8.559148E-1	9.698439E-1	9.097547E-1	9.095284E-1	9.830196E-1	9.543003E-1	8.994005E-1	8.050493E-1	9.205693E-1	9.139607E-1	8.984761E-1	8.071155E-1	8.388181E-1	1.014107E+0
5.470110E+2	8.596561E-1	8.806500E-1	9.547419E-1	9.148980E-1	8.320377E-1	8.169984E-1	9.403265E-1	8.959858E-1	8.085119E-1	8.997817E-1	9.266373E-1	8.659986E-1	9.199281E-1	9.337603E-1	8.499099E-1	7.580461E-1	8.634482E-1	9.462667E-1	9.353819E-1	8.411258E-1	8.611584E-1	8.826761E-1	9.190735E-1	8.906972E-1	9.106336E-1	8.863992E-1	9.405405E-1	8.525095E-1	8.521543E-1	9.222124E-1	8.743296E-1	8.196302E-1	8.233313E-1	9.215822E-1	8.663403E-1	8.430439E-1	8.032461E-1	8.816266E-1	9.082960E-1	8.420719E-1	8.272468E-1	9.025297E-1	9.447036E-1	8.737587E-1	8.772569E-1	9.153571E-1	9.799327E-1	8.553007E-1	8.702929E-1	8.929932E-1	9.204018E-1	8.174298E-1	8.702780E-1	8.906730E-1	9.433285E-1	8.811443E-1	8.684667E-1	8.983366E-1	9.502607E-1	8.943287E-1	9.164935E-1	9.576800E-1	9.410476E-1	8.390431E-1	8.650564E-1	9.113991E-1	9.509417E-1	8.119892E-1	8.198858E-1	8.800230E-1	9.211643E-1	8.107545E-1	8.279089E-1	8.650223E-1	9.381112E-1	9.223726E-1	9.198957E-1	8.471166E-1	9.420636E-1	8.820250E-1	9.162712E-1	9.361434E-1	9.274002E-1	8.805808E-1	8.417561E-1	9.616082E-1	9.530080E-1	9.426897E-1	7.715558E-1	9.916811E-1	9.520234E-1	8.925743E-1	9.289827E-1	9.223798E-1	9.091579E-1	7.932196E-1	8.325912E-1	9.146956E-1	9.892001E-1	8.308877E-1	8.382069E-1	9.125609E-1	8.904910E-1	8.481739E-1	8.338172E-1	8.815093E-1	9.253388E-1	8.953975E-1	9.004754E-1	9.180566E-1	9.634946E-1	8.155837E-1	8.648028E-1	9.957962E-1	9.250399E-1	8.577168E-1	8.299553E-1	8.734946E-1	9.203788E-1	9.233823E-1	7.972623E-1	9.289194E-1	9.376997E-1	8.826212E-1	8.793602E-1	9.753787E-1	8.803804E-1	7.935044E-1	8.413490E-1	9.569739E-1	9.504640E-1	8.517876E-1	8.086187E-1	9.582898E-1	9.220101E-1	8.339380E-1	8.277978E-1	9.063713E-1	9.132549E-1	9.616022E-1	8.795865E-1	8.912089E-1	9.149070E-1	8.898304E-1	9.142587E-1	8.365745E-1	9.447714E-1	8.443180E-1	8.401773E-1	9.170287E-1	8.990762E-1	9.157251E-1	8.289503E-1	9.435059E-1	9.623141E-1	8.373433E-1	9.683369E-1	9.389034E-1	9.416494E-1	7.809808E-1	8.939246E-1	8.811975E-1	9.142827E-1	7.593925E-1	8.575505E-1	1.087383E+0
5.475070E+2	8.674898E-1	9.266693E-1	1.066410E+0	9.531094E-1	8.068336E-1	9.282391E-1	9.918682E-1	1.017476E+0	8.524732E-1	9.566777E-1	9.680739E-1	9.497201E-1	9.644977E-1	9.805108E-1	9.668448E-1	8.662812E-1	9.390345E-1	9.727070E-1	1.026208E+0	8.802867E-1	8.591212E-1	9.316994E-1	9.629131E-1	9.380926E-1	8.843685E-1	9.001366E-1	9.908730E-1	9.169570E-1	9.315368E-1	9.765091E-1	9.418084E-1	8.415662E-1	9.117665E-1	9.537891E-1	9.829623E-1	8.378266E-1	8.841810E-1	9.402778E-1	1.015854E+0	9.243943E-1	8.867769E-1	9.488359E-1	9.921550E-1	8.958072E-1	9.428592E-1	9.598196E-1	1.047448E+0	9.008385E-1	9.392613E-1	9.926251E-1	9.766720E-1	8.984156E-1	8.784838E-1	9.502496E-1	9.858371E-1	1.002438E+0	9.168201E-1	9.829345E-1	1.028895E+0	9.618608E-1	9.490372E-1	9.879271E-1	9.838332E-1	8.417629E-1	9.324919E-1	9.806990E-1	1.024952E+0	8.192081E-1	8.415599E-1	9.703994E-1	1.005420E+0	9.102196E-1	8.733454E-1	9.363806E-1	9.794581E-1	9.742031E-1	9.805579E-1	9.580349E-1	1.000543E+0	9.156842E-1	9.952809E-1	1.006453E+0	9.897337E-1	8.850091E-1	8.597303E-1	9.702027E-1	9.807449E-1	9.110177E-1	8.736328E-1	9.962937E-1	9.374097E-1	9.100872E-1	1.000101E+0	9.749714E-1	9.906073E-1	8.904149E-1	9.180565E-1	9.694846E-1	9.622193E-1	8.020686E-1	8.547631E-1	1.016703E+0	9.870738E-1	8.552455E-1	9.169915E-1	9.977264E-1	9.902353E-1	9.518880E-1	9.827145E-1	1.021845E+0	9.596865E-1	8.999802E-1	9.182482E-1	1.050783E+0	1.004070E+0	8.752700E-1	8.746573E-1	9.651641E-1	1.018583E+0	9.720582E-1	8.855439E-1	1.017984E+0	1.022246E+0	9.087092E-1	9.884591E-1	9.717945E-1	9.254454E-1	8.794360E-1	8.936602E-1	1.000589E+0	9.817969E-1	8.884566E-1	8.836209E-1	9.355230E-1	9.833878E-1	8.975856E-1	8.364002E-1	9.619603E-1	9.139659E-1	9.777883E-1	9.199485E-1	9.261512E-1	9.603249E-1	9.313228E-1	1.051096E+0	9.621941E-1	9.717681E-1	9.619567E-1	8.997669E-1	1.040430E+0	1.038173E+0	9.708752E-1	9.128384E-1	9.969136E-1	9.818366E-1	8.943695E-1	1.027844E+0	9.592000E-1	9.796022E-1	8.505129E-1	9.644953E-1	1.016151E+0	1.030198E+0	8.577301E-1	1.026147E+0	8.309133E-1
5.480090E+2	9.497534E-1	9.752455E-1	1.022790E+0	1.034517E+0	8.750352E-1	9.578002E-1	1.050892E+0	1.052067E+0	9.191261E-1	9.687253E-1	1.005367E+0	9.950700E-1	9.960042E-1	1.025258E+0	1.034543E+0	9.271234E-1	9.682713E-1	9.991475E-1	1.055355E+0	9.440058E-1	9.460342E-1	1.021688E+0	1.006058E+0	9.841894E-1	9.984140E-1	9.779823E-1	1.087511E+0	9.955683E-1	9.722640E-1	1.016554E+0	1.041704E+0	8.918909E-1	9.627057E-1	9.565894E-1	1.060712E+0	8.765823E-1	8.447170E-1	9.876237E-1	1.020244E+0	9.389643E-1	9.084246E-1	1.030050E+0	1.026151E+0	9.509292E-1	1.038410E+0	9.887553E-1	9.918890E-1	9.437743E-1	1.018084E+0	1.067520E+0	1.028197E+0	9.215544E-1	9.584937E-1	1.023143E+0	1.039316E+0	1.028531E+0	9.074377E-1	1.006511E+0	1.141751E+0	9.993779E-1	1.040163E+0	1.031235E+0	9.943553E-1	9.049968E-1	9.287458E-1	1.013874E+0	1.083420E+0	9.866767E-1	9.349844E-1	9.573794E-1	1.070526E+0	9.220965E-1	1.016359E+0	9.742882E-1	1.021558E+0	1.005301E+0	1.011986E+0	1.005882E+0	1.041478E+0	9.501088E-1	9.856820E-1	1.046630E+0	1.033823E+0	9.433275E-1	8.963696E-1	1.063189E+0	1.048902E+0	1.016344E+0	8.971885E-1	1.010904E+0	1.059438E+0	9.869911E-1	1.040956E+0	9.811580E-1	1.087467E+0	8.652163E-1	9.895118E-1	1.055583E+0	1.037329E+0	9.382387E-1	9.858966E-1	1.011420E+0	9.834430E-1	9.952528E-1	9.745201E-1	1.066507E+0	1.095595E+0	9.760979E-1	1.013200E+0	1.027073E+0	1.003097E+0	9.060091E-1	9.868626E-1	1.092789E+0	1.063343E+0	9.220779E-1	9.548598E-1	1.014005E+0	1.104700E+0	9.860718E-1	9.139982E-1	1.010499E+0	1.069533E+0	9.221260E-1	1.006511E+0	1.029133E+0	1.000553E+0	8.869377E-1	1.015721E+0	1.045657E+0	1.030158E+0	8.870729E-1	9.350112E-1	1.009895E+0	1.015504E+0	1.026310E+0	9.446587E-1	1.028666E+0	1.041219E+0	1.051009E+0	1.002114E+0	1.040642E+0	1.048366E+0	1.020133E+0	1.066124E+0	1.025743E+0	1.006060E+0	9.865273E-1	9.685249E-1	1.033575E+0	1.054492E+0	1.029046E+0	9.727579E-1	1.034957E+0	1.040403E+0	1.001203E+0	1.077304E+0	1.028489E+0	1.051926E+0	9.267305E-1	1.017063E+0	9.943091E-1	1.082887E+0	9.112349E-1	9.054238E-1	1.071682E+0
5.485450E+2	1.147970E+0	1.153356E+0	1.250489E+0	1.264617E+0	1.045538E+0	1.143720E+0	1.209674E+0	1.196336E+0	1.183608E+0	1.196976E+0	1.230509E+0	1.289492E+0	1.294162E+0	1.250997E+0	1.230117E+0	1.226851E+0	1.192178E+0	1.237791E+0	1.237008E+0	1.249990E+0	1.121899E+0	1.189577E+0	1.234304E+0	1.275705E+0	1.173974E+0	1.182737E+0	1.233138E+0	1.227862E+0	1.213172E+0	1.229673E+0	1.277879E+0	1.201581E+0	1.157263E+0	1.176440E+0	1.157897E+0	1.206011E+0	1.025315E+0	1.172765E+0	1.226578E+0	1.177917E+0	1.133691E+0	1.206727E+0	1.238623E+0	1.181749E+0	1.208834E+0	1.163781E+0	1.264761E+0	1.132431E+0	1.198247E+0	1.213877E+0	1.232259E+0	1.156346E+0	1.156809E+0	1.239021E+0	1.209349E+0	1.210472E+0	1.139100E+0	1.221474E+0	1.236404E+0	1.134441E+0	1.166725E+0	1.181097E+0	1.216706E+0	1.153174E+0	1.235955E+0	1.261582E+0	1.263266E+0	1.065357E+0	1.072504E+0	1.272165E+0	1.262017E+0	1.144780E+0	1.104253E+0	1.259719E+0	1.205740E+0	1.292359E+0	1.242212E+0	1.179148E+0	1.253465E+0	1.142120E+0	1.230833E+0	1.286147E+0	1.251991E+0	1.183243E+0	1.161141E+0	1.206966E+0	1.235937E+0	1.249830E+0	1.121330E+0	1.250798E+0	1.245770E+0	1.211610E+0	1.237666E+0	1.299801E+0	1.258439E+0	1.081205E+0	1.181460E+0	1.217103E+0	1.241514E+0	1.070085E+0	1.104446E+0	1.241589E+0	1.224538E+0	1.141623E+0	1.122846E+0	1.268108E+0	1.302499E+0	1.174178E+0	1.213129E+0	1.241373E+0	1.285644E+0	1.126378E+0	1.150090E+0	1.280664E+0	1.220672E+0	1.061770E+0	1.145503E+0	1.284506E+0	1.218768E+0	1.194054E+0	1.115366E+0	1.250004E+0	1.183454E+0	1.179281E+0	1.257673E+0	1.267803E+0	1.146671E+0	1.110633E+0	1.142868E+0	1.257187E+0	1.210664E+0	1.035134E+0	1.089182E+0	1.253499E+0	1.154676E+0	1.155035E+0	1.075142E+0	1.247315E+0	1.196910E+0	1.236758E+0	1.170049E+0	1.184871E+0	1.184619E+0	1.183922E+0	1.228273E+0	1.132890E+0	1.203058E+0	1.105655E+0	1.190076E+0	1.274281E+0	1.268964E+0	1.263998E+0	1.149521E+0	1.227372E+0	1.279926E+0	1.154957E+0	1.224138E+0	1.299347E+0	1.230947E+0	1.065795E+0	1.168286E+0	1.233013E+0	1.269405E+0	1.055849E+0	1.034473E+0	1.328153E+0
5.490490E+2	1.477808E+0	1.491683E+0	1.627369E+0	1.576955E+0	1.364306E+0	1.437770E+0	1.512275E+0	1.543088E+0	1.363710E+0	1.442629E+0	1.500541E+0	1.554614E+0	1.492421E+0	1.534841E+0	1.528949E+0	1.547072E+0	1.439616E+0	1.453384E+0	1.559645E+0	1.526771E+0	1.428136E+0	1.499164E+0	1.556491E+0	1.495152E+0	1.458049E+0	1.481038E+0	1.474733E+0	1.458739E+0	1.456150E+0	1.499126E+0	1.527946E+0	1.526758E+0	1.407711E+0	1.487311E+0	1.486245E+0	1.589104E+0	1.339022E+0	1.418677E+0	1.519984E+0	1.483164E+0	1.405635E+0	1.491687E+0	1.514128E+0	1.575866E+0	1.448425E+0	1.474309E+0	1.587566E+0	1.561790E+0	1.515647E+0	1.512774E+0	1.516321E+0	1.596663E+0	1.441972E+0	1.497654E+0	1.568616E+0	1.525693E+0	1.414787E+0	1.500926E+0	1.581522E+0	1.484107E+0	1.469749E+0	1.543373E+0	1.467816E+0	1.489061E+0	1.456995E+0	1.524036E+0	1.510459E+0	1.445050E+0	1.308679E+0	1.503468E+0	1.523976E+0	1.539672E+0	1.356013E+0	1.471561E+0	1.495923E+0	1.469378E+0	1.500940E+0	1.501757E+0	1.490306E+0	1.443522E+0	1.504044E+0	1.531072E+0	1.526410E+0	1.547176E+0	1.325673E+0	1.527339E+0	1.595742E+0	1.559182E+0	1.354037E+0	1.545285E+0	1.521978E+0	1.468208E+0	1.466152E+0	1.468402E+0	1.571764E+0	1.352632E+0	1.528229E+0	1.499586E+0	1.552166E+0	1.344586E+0	1.389229E+0	1.543448E+0	1.483788E+0	1.446385E+0	1.416034E+0	1.615969E+0	1.580405E+0	1.509449E+0	1.447089E+0	1.518395E+0	1.510310E+0	1.379570E+0	1.498214E+0	1.555604E+0	1.574114E+0	1.373334E+0	1.336805E+0	1.471603E+0	1.542839E+0	1.504552E+0	1.436387E+0	1.531420E+0	1.513037E+0	1.451344E+0	1.526887E+0	1.558797E+0	1.546108E+0	1.279769E+0	1.378998E+0	1.529050E+0	1.545793E+0	1.322955E+0	1.396831E+0	1.510005E+0	1.517233E+0	1.384593E+0	1.314600E+0	1.596411E+0	1.466344E+0	1.480315E+0	1.443215E+0	1.516449E+0	1.439658E+0	1.443801E+0	1.576298E+0	1.390780E+0	1.531388E+0	1.396029E+0	1.449827E+0	1.543173E+0	1.512966E+0	1.511793E+0	1.451366E+0	1.525869E+0	1.572759E+0	1.422762E+0	1.466029E+0	1.553407E+0	1.489453E+0	1.317179E+0	1.436167E+0	1.482639E+0	1.510720E+0	1.321934E+0	1.452842E+0	1.490412E+0
5.495150E+2	1.637635E+0	1.730301E+0	1.829769E+0	1.734786E+0	1.519984E+0	1.534231E+0	1.738394E+0	1.800410E+0	1.533888E+0	1.672215E+0	1.781621E+0	1.717174E+0	1.679924E+0	1.713158E+0	1.728625E+0	1.781477E+0	1.707018E+0	1.679821E+0	1.792813E+0	1.741824E+0	1.640666E+0	1.616014E+0	1.779868E+0	1.693822E+0	1.638450E+0	1.565426E+0	1.729750E+0	1.801513E+0	1.672212E+0	1.762470E+0	1.715828E+0	1.773217E+0	1.647548E+0	1.691058E+0	1.760448E+0	1.793319E+0	1.555742E+0	1.729599E+0	1.734371E+0	1.655822E+0	1.580165E+0	1.759553E+0	1.753510E+0	1.663370E+0	1.698006E+0	1.761551E+0	1.774640E+0	1.784277E+0	1.700034E+0	1.713410E+0	1.771229E+0	1.791301E+0	1.625244E+0	1.720544E+0	1.746190E+0	1.802132E+0	1.639238E+0	1.610490E+0	1.817426E+0	1.789501E+0	1.672251E+0	1.775036E+0	1.690166E+0	1.694406E+0	1.633080E+0	1.696549E+0	1.774677E+0	1.799477E+0	1.562791E+0	1.725583E+0	1.778277E+0	1.671057E+0	1.575002E+0	1.640293E+0	1.743254E+0	1.725339E+0	1.717278E+0	1.720693E+0	1.694254E+0	1.707444E+0	1.718180E+0	1.763636E+0	1.744579E+0	1.793731E+0	1.519930E+0	1.771916E+0	1.765342E+0	1.713857E+0	1.573896E+0	1.685225E+0	1.697346E+0	1.652472E+0	1.685561E+0	1.730589E+0	1.708983E+0	1.703974E+0	1.610187E+0	1.754325E+0	1.835835E+0	1.737963E+0	1.585925E+0	1.717020E+0	1.733598E+0	1.790041E+0	1.618423E+0	1.795432E+0	1.772037E+0	1.695791E+0	1.695933E+0	1.787206E+0	1.753257E+0	1.690364E+0	1.665776E+0	1.815270E+0	1.729248E+0	1.689289E+0	1.548481E+0	1.705284E+0	1.742269E+0	1.768585E+0	1.542909E+0	1.791134E+0	1.715803E+0	1.649616E+0	1.736449E+0	1.730098E+0	1.699737E+0	1.608492E+0	1.596963E+0	1.782014E+0	1.762395E+0	1.503537E+0	1.562115E+0	1.741467E+0	1.705652E+0	1.672080E+0	1.460856E+0	1.766142E+0	1.665401E+0	1.784762E+0	1.620519E+0	1.674802E+0	1.731729E+0	1.642535E+0	1.743191E+0	1.741780E+0	1.764868E+0	1.656623E+0	1.545323E+0	1.734367E+0	1.799708E+0	1.716524E+0	1.576448E+0	1.715359E+0	1.767232E+0	1.549087E+0	1.695558E+0	1.748676E+0	1.611186E+0	1.543825E+0	1.625552E+0	1.681560E+0	1.726745E+0	1.402916E+0	1.465330E+0	1.673605E+0
5.500160E+2	1.435501E+0	1.509578E+0	1.618646E+0	1.534589E+0	1.298328E+0	1.443216E+0	1.572962E+0	1.521152E+0	1.362293E+0	1.502202E+0	1.503993E+0	1.586007E+0	1.555434E+0	1.562223E+0	1.455780E+0	1.570771E+0	1.475982E+0	1.473042E+0	1.582015E+0	1.559958E+0	1.350047E+0	1.493792E+0	1.631647E+0	1.479571E+0	1.438698E+0	1.443097E+0	1.462652E+0	1.508314E+0	1.484454E+0	1.564962E+0	1.525302E+0	1.493205E+0	1.445209E+0	1.474006E+0	1.589677E+0	1.547366E+0	1.349056E+0	1.506300E+0	1.499498E+0	1.529061E+0	1.436753E+0	1.525882E+0	1.517669E+0	1.559331E+0	1.444862E+0	1.464429E+0	1.602336E+0	1.542924E+0	1.472012E+0	1.529263E+0	1.531911E+0	1.547664E+0	1.411883E+0	1.538307E+0	1.559016E+0	1.577174E+0	1.444377E+0	1.517569E+0	1.581523E+0	1.570399E+0	1.499403E+0	1.543374E+0	1.570926E+0	1.517622E+0	1.425525E+0	1.486438E+0	1.562269E+0	1.582923E+0	1.344554E+0	1.546360E+0	1.579892E+0	1.579015E+0	1.438693E+0	1.528795E+0	1.514717E+0	1.541940E+0	1.514828E+0	1.445209E+0	1.569254E+0	1.552150E+0	1.499613E+0	1.596746E+0	1.521089E+0	1.623211E+0	1.414161E+0	1.492957E+0	1.568004E+0	1.540030E+0	1.361889E+0	1.566045E+0	1.563630E+0	1.596888E+0	1.485823E+0	1.520994E+0	1.570296E+0	1.596699E+0	1.546442E+0	1.471838E+0	1.601024E+0	1.632054E+0	1.375319E+0	1.492888E+0	1.552777E+0	1.529826E+0	1.482573E+0	1.624665E+0	1.655227E+0	1.524120E+0	1.425110E+0	1.518395E+0	1.520211E+0	1.469995E+0	1.506160E+0	1.557896E+0	1.550697E+0	1.553251E+0	1.346007E+0	1.513682E+0	1.542839E+0	1.511190E+0	1.396988E+0	1.602522E+0	1.574658E+0	1.617565E+0	1.476655E+0	1.570979E+0	1.561127E+0	1.495961E+0	1.451653E+0	1.537047E+0	1.557372E+0	1.502152E+0	1.354470E+0	1.567679E+0	1.485118E+0	1.473986E+0	1.319619E+0	1.491905E+0	1.492648E+0	1.542745E+0	1.396365E+0	1.427979E+0	1.531195E+0	1.582112E+0	1.548614E+0	1.502361E+0	1.505122E+0	1.534515E+0	1.431491E+0	1.547743E+0	1.538609E+0	1.511037E+0	1.553230E+0	1.558060E+0	1.517947E+0	1.461742E+0	1.499261E+0	1.616399E+0	1.517381E+0	1.405431E+0	1.488736E+0	1.482639E+0	1.503343E+0	1.384116E+0	1.457004E+0	1.647431E+0
5.505060E+2	1.405729E+0	1.472934E+0	1.574153E+0	1.532098E+0	1.327240E+0	1.380205E+0	1.514769E+0	1.583584E+0	1.351656E+0	1.477434E+0	1.554408E+0	1.530193E+0	1.503948E+0	1.502782E+0	1.490656E+0	1.527860E+0	1.449599E+0	1.479824E+0	1.502710E+0	1.502211E+0	1.455295E+0	1.446112E+0	1.534224E+0	1.549040E+0	1.453903E+0	1.439170E+0	1.500905E+0	1.543017E+0	1.410593E+0	1.534419E+0	1.494870E+0	1.483529E+0	1.378705E+0	1.474706E+0	1.532757E+0	1.492959E+0	1.340361E+0	1.424330E+0	1.489985E+0	1.479522E+0	1.331899E+0	1.493115E+0	1.470215E+0	1.490429E+0	1.485505E+0	1.471488E+0	1.567877E+0	1.574150E+0	1.457936E+0	1.469485E+0	1.537339E+0	1.441498E+0	1.404361E+0	1.442284E+0	1.535018E+0	1.535568E+0	1.344062E+0	1.509246E+0	1.568418E+0	1.529128E+0	1.432868E+0	1.532372E+0	1.504290E+0	1.484983E+0	1.405295E+0	1.581542E+0	1.574108E+0	1.508574E+0	1.333343E+0	1.515723E+0	1.521678E+0	1.574558E+0	1.420817E+0	1.493117E+0	1.496675E+0	1.530777E+0	1.529444E+0	1.434334E+0	1.480072E+0	1.494777E+0	1.468600E+0	1.558886E+0	1.520329E+0	1.522814E+0	1.376138E+0	1.543748E+0	1.541058E+0	1.534137E+0	1.412570E+0	1.497614E+0	1.507363E+0	1.500187E+0	1.455560E+0	1.442881E+0	1.578368E+0	1.493746E+0	1.437156E+0	1.550820E+0	1.503307E+0	1.503811E+0	1.374659E+0	1.554015E+0	1.478705E+0	1.489520E+0	1.413955E+0	1.596994E+0	1.634613E+0	1.498444E+0	1.478992E+0	1.551998E+0	1.409781E+0	1.455928E+0	1.486659E+0	1.557132E+0	1.536062E+0	1.444277E+0	1.356524E+0	1.480619E+0	1.550395E+0	1.562818E+0	1.342999E+0	1.581566E+0	1.513754E+0	1.524389E+0	1.513544E+0	1.502174E+0	1.492849E+0	1.405257E+0	1.460371E+0	1.558128E+0	1.468138E+0	1.448877E+0	1.412109E+0	1.500899E+0	1.523658E+0	1.489003E+0	1.328939E+0	1.485233E+0	1.514687E+0	1.537350E+0	1.425195E+0	1.441361E+0	1.478087E+0	1.574832E+0	1.516976E+0	1.463935E+0	1.544520E+0	1.489842E+0	1.329119E+0	1.498230E+0	1.499756E+0	1.538234E+0	1.473836E+0	1.539038E+0	1.537469E+0	1.507940E+0	1.549493E+0	1.539410E+0	1.478712E+0	1.505048E+0	1.454169E+0	1.485760E+0	1.470676E+0	1.424609E+0	1.298814E+0	1.532284E+0
5.510140E+2	1.195761E+0	1.212159E+0	1.246999E+0	1.270432E+0	1.038125E+0	1.118049E+0	1.272856E+0	1.265517E+0	1.053140E+0	1.102596E+0	1.245702E+0	1.274142E+0	1.245750E+0	1.274372E+0	1.178831E+0	1.236458E+0	1.185760E+0	1.224910E+0	1.266154E+0	1.194236E+0	1.144307E+0	1.144582E+0	1.248221E+0	1.228958E+0	1.134577E+0	1.123208E+0	1.235152E+0	1.224321E+0	1.155879E+0	1.221528E+0	1.211061E+0	1.186096E+0	1.151603E+0	1.185542E+0	1.282850E+0	1.230608E+0	1.061436E+0	1.157924E+0	1.222189E+0	1.233285E+0	1.051837E+0	1.211001E+0	1.252079E+0	1.262363E+0	1.233793E+0	1.299991E+0	1.244366E+0	1.252782E+0	1.165874E+0	1.248232E+0	1.247852E+0	1.227804E+0	1.099366E+0	1.208181E+0	1.246373E+0	1.264771E+0	1.121059E+0	1.231182E+0	1.280817E+0	1.268005E+0	1.267975E+0	1.252589E+0	1.207588E+0	1.217768E+0	1.194744E+0	1.208502E+0	1.303971E+0	1.279025E+0	1.115105E+0	1.233104E+0	1.196145E+0	1.279875E+0	1.128087E+0	1.251542E+0	1.235059E+0	1.229365E+0	1.218823E+0	1.226995E+0	1.251272E+0	1.236212E+0	1.192436E+0	1.298509E+0	1.227666E+0	1.289543E+0	1.163906E+0	1.153050E+0	1.206614E+0	1.216685E+0	1.097060E+0	1.236959E+0	1.227501E+0	1.235213E+0	1.259607E+0	1.234834E+0	1.222483E+0	1.259756E+0	1.172353E+0	1.191488E+0	1.246619E+0	1.247322E+0	1.038217E+0	1.264983E+0	1.247776E+0	1.251225E+0	1.130471E+0	1.356655E+0	1.289519E+0	1.261480E+0	1.204621E+0	1.266760E+0	1.227002E+0	1.232209E+0	1.146479E+0	1.259279E+0	1.261650E+0	1.238031E+0	1.099485E+0	1.213874E+0	1.242941E+0	1.264856E+0	1.078886E+0	1.282936E+0	1.230742E+0	1.218040E+0	1.224708E+0	1.242002E+0	1.192419E+0	1.213614E+0	1.174836E+0	1.265183E+0	1.233143E+0	1.184580E+0	1.129462E+0	1.288407E+0	1.154677E+0	1.260875E+0	1.064388E+0	1.265103E+0	1.258758E+0	1.319229E+0	1.178698E+0	1.227991E+0	1.221653E+0	1.239975E+0	1.316071E+0	1.228213E+0	1.238809E+0	1.230739E+0	1.176324E+0	1.253715E+0	1.339678E+0	1.256443E+0	1.141282E+0	1.234687E+0	1.283681E+0	1.274783E+0	1.257369E+0	1.218859E+0	1.251714E+0	1.232270E+0	1.180529E+0	1.243155E+0	1.297858E+0	1.184553E+0	1.107324E+0	1.233939E+0
5.515000E+2	9.912779E-1	1.003368E+0	1.054197E+0	1.046146E+0	9.239625E-1	9.352410E-1	1.043411E+0	1.074846E+0	9.758511E-1	9.861287E-1	1.068904E+0	1.068327E+0	1.092060E+0	1.120763E+0	1.073521E+0	1.064179E+0	9.989342E-1	1.066944E+0	1.011297E+0	1.044231E+0	9.602940E-1	9.995270E-1	1.073557E+0	9.815919E-1	9.631636E-1	1.012653E+0	1.036507E+0	1.058600E+0	1.040602E+0	1.080355E+0	1.067504E+0	1.028026E+0	9.506790E-1	1.030107E+0	1.039886E+0	1.053222E+0	9.557520E-1	1.010943E+0	1.056096E+0	1.029300E+0	9.212770E-1	1.023639E+0	1.043148E+0	1.048769E+0	1.019871E+0	1.028983E+0	1.053778E+0	1.049813E+0	9.864141E-1	1.049656E+0	1.045823E+0	1.065151E+0	9.543910E-1	1.038564E+0	1.055770E+0	1.003848E+0	9.875457E-1	1.055051E+0	1.095153E+0	1.075164E+0	1.007618E+0	1.093792E+0	1.049066E+0	1.033505E+0	9.587170E-1	1.048524E+0	1.062698E+0	1.078351E+0	9.334899E-1	1.088349E+0	1.073591E+0	1.050511E+0	9.344244E-1	1.041187E+0	1.035841E+0	1.113745E+0	1.022949E+0	1.014582E+0	1.014432E+0	1.041907E+0	9.930657E-1	1.055129E+0	1.064990E+0	1.035603E+0	9.095049E-1	1.019430E+0	1.031467E+0	1.078951E+0	9.849890E-1	1.063958E+0	1.019249E+0	1.084452E+0	1.003884E+0	1.046898E+0	1.044908E+0	1.022888E+0	9.572868E-1	1.029255E+0	1.081083E+0	1.062881E+0	9.547691E-1	1.051417E+0	1.043717E+0	1.021415E+0	1.000857E+0	1.108409E+0	1.041388E+0	1.031120E+0	1.016036E+0	1.071875E+0	1.070878E+0	9.950944E-1	9.745840E-1	1.079042E+0	1.069197E+0	1.034709E+0	9.798400E-1	1.062845E+0	1.112255E+0	1.063511E+0	8.775183E-1	1.098817E+0	1.052338E+0	1.053313E+0	1.037906E+0	1.077871E+0	1.002602E+0	1.058119E+0	9.822998E-1	1.006404E+0	1.036971E+0	1.028216E+0	9.037606E-1	1.066811E+0	1.021928E+0	1.014868E+0	8.923225E-1	9.856775E-1	1.049039E+0	1.122688E+0	9.545449E-1	9.863699E-1	1.028801E+0	1.050707E+0	1.032113E+0	1.081164E+0	1.059322E+0	1.015564E+0	9.914438E-1	1.050332E+0	1.126760E+0	1.090239E+0	9.922322E-1	1.056906E+0	1.095215E+0	1.063282E+0	1.074212E+0	1.057884E+0	1.055507E+0	1.077160E+0	1.008422E+0	9.537449E-1	1.013338E+0	1.068863E+0	8.284104E-1	1.024575E+0
5.520100E+2	1.041419E+0	9.599051E-1	1.044601E+0	1.001289E+0	1.008472E+0	9.445758E-1	1.033435E+0	1.033506E+0	9.879059E-1	9.814431E-1	1.040588E+0	1.046698E+0	1.058249E+0	1.023255E+0	1.035910E+0	9.943702E-1	1.006777E+0	9.679612E-1	1.049254E+0	9.838302E-1	1.015294E+0	9.881101E-1	1.040155E+0	1.017951E+0	1.032973E+0	9.400415E-1	1.043890E+0	1.017523E+0	9.826179E-1	9.860114E-1	1.046996E+0	9.751202E-1	9.839304E-1	9.600911E-1	9.989291E-1	1.017447E+0	9.470563E-1	1.020835E+0	9.851222E-1	9.943310E-1	9.084240E-1	9.816066E-1	9.786988E-1	1.003294E+0	9.763736E-1	1.008516E+0	1.048150E+0	1.041356E+0	9.512260E-1	1.013238E+0	1.030230E+0	1.001860E+0	9.448170E-1	9.698749E-1	1.035202E+0	1.025004E+0	9.211503E-1	9.753068E-1	1.031079E+0	1.003130E+0	1.018467E+0	1.051859E+0	9.922504E-1	9.933886E-1	9.429822E-1	1.039677E+0	1.056036E+0	1.026378E+0	8.923832E-1	9.397632E-1	9.878027E-1	9.978089E-1	9.396377E-1	9.884120E-1	1.038097E+0	1.000517E+0	9.812892E-1	1.008783E+0	9.815373E-1	9.998328E-1	9.746053E-1	1.007226E+0	1.015579E+0	1.059224E+0	9.012091E-1	9.647331E-1	9.458745E-1	9.949842E-1	9.071823E-1	1.071646E+0	9.819829E-1	1.106534E+0	9.622724E-1	1.004361E+0	1.002348E+0	1.026488E+0	9.670948E-1	9.794466E-1	1.048268E+0	1.027577E+0	8.746320E-1	1.009911E+0	1.066229E+0	1.051820E+0	9.038219E-1	1.061764E+0	1.081089E+0	9.988398E-1	9.430127E-1	9.934719E-1	1.016044E+0	9.656229E-1	9.709725E-1	1.041619E+0	1.084563E+0	1.084442E+0	8.989812E-1	1.013253E+0	1.048044E+0	1.025898E+0	9.118091E-1	1.034451E+0	1.044456E+0	9.825013E-1	1.012790E+0	9.732285E-1	9.862141E-1	9.790075E-1	9.670417E-1	1.048564E+0	1.032203E+0	9.534926E-1	8.863986E-1	1.025831E+0	9.691140E-1	9.848327E-1	8.593432E-1	9.627008E-1	9.438239E-1	1.050237E+0	9.314807E-1	9.499414E-1	1.003647E+0	1.062354E+0	9.957284E-1	9.814070E-1	9.637414E-1	9.537671E-1	9.639411E-1	1.007675E+0	1.022632E+0	9.504772E-1	9.817455E-1	1.022520E+0	1.071939E+0	1.056064E+0	1.038663E+0	1.001893E+0	1.011825E+0	9.922509E-1	9.349709E-1	1.016151E+0	9.964772E-1	9.864342E-1	8.617135E-1	1.207767E+0
5.525090E+2	1.125250E+0	1.074101E+0	1.097817E+0	1.094327E+0	1.092241E+0	9.671348E-1	1.097446E+0	1.062191E+0	1.020522E+0	1.042355E+0	1.058545E+0	1.089954E+0	1.046722E+0	1.075348E+0	1.076257E+0	1.132066E+0	1.105182E+0	9.882999E-1	1.088567E+0	1.104631E+0	1.052639E+0	1.062653E+0	1.047114E+0	1.112092E+0	1.077900E+0	9.871408E-1	1.095564E+0	1.086219E+0	1.041983E+0	1.026735E+0	1.113813E+0	1.098351E+0	1.065290E+0	1.017503E+0	1.091949E+0	1.063657E+0	1.068793E+0	1.013062E+0	1.083168E+0	1.040227E+0	1.126927E+0	1.042874E+0	1.034650E+0	1.052214E+0	1.077630E+0	1.060036E+0	1.055887E+0	1.088846E+0	1.015269E+0	1.070269E+0	1.119041E+0	1.047457E+0	1.029613E+0	1.118466E+0	1.049600E+0	1.020068E+0	1.030847E+0	1.104285E+0	1.081318E+0	1.097675E+0	1.051011E+0	1.110291E+0	1.041350E+0	1.051863E+0	1.045635E+0	1.092757E+0	1.073058E+0	1.055252E+0	9.910379E-1	1.102900E+0	1.095037E+0	1.085398E+0	9.686878E-1	1.074636E+0	1.037345E+0	1.045967E+0	1.074111E+0	1.138551E+0	1.073642E+0	1.044967E+0	1.044755E+0	1.031178E+0	1.050547E+0	1.040770E+0	9.772525E-1	1.055375E+0	1.077433E+0	1.089999E+0	9.828478E-1	1.100096E+0	1.070399E+0	1.019732E+0	1.006910E+0	1.104130E+0	1.066922E+0	1.130163E+0	9.930150E-1	1.043486E+0	1.089834E+0	1.043428E+0	9.746375E-1	1.094432E+0	1.109800E+0	1.087883E+0	9.800645E-1	1.085482E+0	1.153620E+0	1.133829E+0	1.045813E+0	1.106969E+0	1.054123E+0	1.064085E+0	1.003473E+0	1.048493E+0	1.121884E+0	1.066158E+0	9.588034E-1	1.000480E+0	1.039735E+0	1.124726E+0	1.005197E+0	1.059897E+0	1.089595E+0	1.030951E+0	1.033198E+0	1.082172E+0	1.046983E+0	1.044479E+0	1.036791E+0	1.053653E+0	1.079201E+0	1.042053E+0	9.627902E-1	1.039491E+0	1.070459E+0	1.072079E+0	9.052276E-1	1.080549E+0	9.765264E-1	1.115751E+0	9.819336E-1	1.026517E+0	1.094483E+0	1.050707E+0	1.106464E+0	1.044956E+0	1.044730E+0	1.071405E+0	1.018947E+0	1.112033E+0	1.087129E+0	1.076641E+0	1.049904E+0	1.114703E+0	1.146274E+0	1.084216E+0	1.107443E+0	1.071883E+0	1.066964E+0	1.042393E+0	1.051629E+0	1.048914E+0	1.029144E+0	1.089108E+0	9.512156E-1	1.103086E+0
5.530150E+2	9.701236E-1	9.599055E-1	1.019301E+0	1.020395E+0	9.751131E-1	9.609119E-1	9.469775E-1	1.012414E+0	1.003505E+0	9.245481E-1	9.943172E-1	1.055070E+0	1.025973E+0	1.013905E+0	9.839401E-1	9.777188E-1	9.661326E-1	1.003216E+0	9.618164E-1	9.745374E-1	1.015294E+0	9.269988E-1	1.024150E+0	9.776961E-1	1.046106E+0	9.662079E-1	9.714114E-1	9.254562E-1	9.570777E-1	1.036916E+0	9.755476E-1	1.002863E+0	9.846372E-1	1.047610E+0	9.836568E-1	1.045025E+0	1.078157E+0	9.402784E-1	1.018780E+0	1.005988E+0	9.923073E-1	9.694952E-1	1.043857E+0	9.536850E-1	1.015592E+0	1.023337E+0	1.046745E+0	1.037453E+0	1.064532E+0	9.891894E-1	9.773500E-1	9.943737E-1	1.013885E+0	1.033657E+0	9.638974E-1	1.039813E+0	9.983714E-1	9.773869E-1	1.017246E+0	9.978777E-1	1.006172E+0	1.035360E+0	1.003474E+0	9.729899E-1	1.002177E+0	9.725889E-1	1.009410E+0	1.001114E+0	9.910385E-1	1.025545E+0	1.003122E+0	9.755406E-1	1.034236E+0	1.001791E+0	9.794589E-1	1.047561E+0	1.051453E+0	9.725344E-1	1.020280E+0	1.044201E+0	1.083152E+0	9.971810E-1	1.037624E+0	1.003860E+0	9.661914E-1	9.780161E-1	1.037807E+0	9.913014E-1	9.906998E-1	9.955255E-1	1.038979E+0	1.047143E+0	9.925349E-1	1.031430E+0	9.781329E-1	1.001290E+0	9.383721E-1	1.005774E+0	9.782620E-1	9.814670E-1	9.653656E-1	9.608590E-1	1.058967E+0	1.002323E+0	9.613504E-1	1.074413E+0	1.016956E+0	1.036989E+0	9.961846E-1	1.003925E+0	9.931966E-1	1.012510E+0	9.456937E-1	1.052311E+0	1.018705E+0	1.014230E+0	9.364524E-1	1.001231E+0	1.009519E+0	1.011885E+0	9.315080E-1	1.000769E+0	1.029410E+0	1.020516E+0	9.570632E-1	1.059236E+0	1.047666E+0	9.401329E-1	9.670419E-1	1.042022E+0	9.981452E-1	9.943136E-1	8.891768E-1	9.916814E-1	1.016218E+0	1.011292E+0	9.002084E-1	1.020513E+0	9.893228E-1	1.020950E+0	9.538243E-1	9.930613E-1	1.062340E+0	1.044155E+0	9.957289E-1	9.858409E-1	1.030867E+0	9.947174E-1	9.478971E-1	1.005391E+0	1.077027E+0	1.004871E+0	1.011706E+0	9.976449E-1	1.062929E+0	9.975939E-1	1.015479E+0	9.997935E-1	1.033308E+0	9.748675E-1	9.810577E-1	1.011471E+0	9.617023E-1	9.734182E-1	8.117600E-1	1.076917E+0
5.534770E+2	9.904946E-1	9.045122E-1	9.844049E-1	9.738765E-1	9.313755E-1	8.698963E-1	9.918697E-1	9.491380E-1	9.900318E-1	8.957651E-1	9.818862E-1	9.741388E-1	9.775613E-1	9.704932E-1	9.907780E-1	9.604262E-1	9.590015E-1	9.333853E-1	9.753726E-1	9.307305E-1	9.677629E-1	9.303571E-1	9.740473E-1	9.731517E-1	9.762958E-1	9.269578E-1	9.465805E-1	1.004775E+0	9.757156E-1	9.642930E-1	9.451161E-1	9.499583E-1	9.471412E-1	9.677924E-1	9.475595E-1	9.496239E-1	9.584275E-1	8.766809E-1	9.982924E-1	9.389645E-1	9.490129E-1	9.082287E-1	9.723245E-1	9.709104E-1	1.015592E+0	9.873435E-1	9.651642E-1	9.763019E-1	9.920443E-1	9.589562E-1	8.966742E-1	9.589858E-1	9.708026E-1	9.348294E-1	9.522422E-1	9.608311E-1	9.976489E-1	9.274608E-1	9.932186E-1	1.002380E+0	9.613317E-1	1.000989E+0	9.831321E-1	9.634712E-1	9.916866E-1	9.482604E-1	9.405798E-1	9.282069E-1	9.738484E-1	9.420611E-1	1.010782E+0	9.191271E-1	9.634735E-1	9.594224E-1	9.877286E-1	9.399151E-1	1.020026E+0	1.001533E+0	1.021011E+0	9.784130E-1	9.908507E-1	9.709128E-1	9.631284E-1	9.898342E-1	9.917698E-1	9.967708E-1	9.419118E-1	9.522645E-1	9.614333E-1	9.655387E-1	1.001712E+0	9.725234E-1	9.357916E-1	8.806160E-1	9.539187E-1	9.609714E-1	9.341697E-1	9.218108E-1	9.943047E-1	9.821867E-1	9.660281E-1	9.638776E-1	9.282523E-1	9.959594E-1	1.007789E+0	9.937730E-1	9.871810E-1	9.284113E-1	9.926406E-1	9.538974E-1	9.665410E-1	9.863870E-1	9.745842E-1	1.027108E+0	9.433339E-1	9.133008E-1	9.666921E-1	9.073071E-1	9.430414E-1	9.868089E-1	9.490192E-1	9.902919E-1	1.006483E+0	9.534318E-1	9.476442E-1	9.803954E-1	9.418322E-1	9.544556E-1	1.009182E+0	9.402552E-1	9.620432E-1	9.797838E-1	9.739011E-1	9.491834E-1	9.434205E-1	9.269063E-1	9.059442E-1	9.330539E-1	9.338721E-1	1.025575E+0	1.016530E+0	9.819096E-1	9.861784E-1	9.509778E-1	9.340332E-1	9.156407E-1	9.812523E-1	9.731255E-1	9.028230E-1	9.650190E-1	9.270510E-1	9.897613E-1	9.727586E-1	9.464318E-1	9.698230E-1	9.766603E-1	8.995561E-1	9.780967E-1	9.724415E-1	9.287363E-1	9.572943E-1	9.404830E-1	9.785626E-1	9.820958E-1	8.492247E-1	9.565319E-1
5.540290E+2	8.996118E-1	8.533796E-1	9.233361E-1	9.572633E-1	9.217383E-1	8.768979E-1	9.403273E-1	9.229845E-1	8.801277E-1	8.656442E-1	9.342333E-1	9.685576E-1	9.391391E-1	9.010350E-1	9.271826E-1	9.700337E-1	9.361833E-1	9.062662E-1	9.008137E-1	9.367044E-1	9.372078E-1	9.095378E-1	8.738412E-1	9.491300E-1	9.562513E-1	8.955576E-1	9.465809E-1	9.559090E-1	9.336073E-1	8.814890E-1	9.590086E-1	9.338279E-1	9.577532E-1	9.320852E-1	9.260401E-1	9.473878E-1	9.330098E-1	8.731470E-1	9.207346E-1	9.367792E-1	9.131596E-1	8.932682E-1	9.135413E-1	8.847836E-1	9.385804E-1	8.807753E-1	9.630540E-1	9.665433E-1	9.350390E-1	9.005509E-1	9.549771E-1	9.576236E-1	9.256696E-1	9.425394E-1	9.652681E-1	9.030054E-1	9.341409E-1	9.018042E-1	8.891002E-1	9.476037E-1	9.757963E-1	9.294957E-1	9.606871E-1	9.281146E-1	9.235012E-1	9.231949E-1	8.946938E-1	9.361475E-1	9.559110E-1	9.030005E-1	8.851640E-1	9.124464E-1	9.850742E-1	9.170541E-1	9.125515E-1	9.367253E-1	9.001623E-1	9.783347E-1	9.062448E-1	9.095642E-1	9.384241E-1	9.732297E-1	9.190392E-1	8.791037E-1	9.419958E-1	9.287887E-1	9.324018E-1	9.434266E-1	9.564359E-1	9.194055E-1	9.103734E-1	9.641480E-1	9.857254E-1	9.332077E-1	9.370413E-1	9.436914E-1	9.264631E-1	9.047334E-1	9.614896E-1	9.476043E-1	9.454968E-1	9.321822E-1	9.050147E-1	8.983786E-1	9.523406E-1	9.012742E-1	9.451892E-1	9.790321E-1	9.082736E-1	9.188025E-1	9.353167E-1	8.986412E-1	9.406385E-1	9.316436E-1	9.499194E-1	9.557209E-1	8.772868E-1	9.208318E-1	9.664595E-1	9.373947E-1	9.526666E-1	9.573597E-1	9.505961E-1	9.474687E-1	9.123249E-1	9.373921E-1	9.363697E-1	9.169457E-1	9.307146E-1	8.908257E-1	9.497826E-1	9.444982E-1	8.926487E-1	9.226220E-1	8.906067E-1	9.555117E-1	9.317543E-1	9.160062E-1	9.033021E-1	9.230647E-1	9.473371E-1	9.536581E-1	9.295811E-1	9.196759E-1	9.284966E-1	9.459378E-1	9.265303E-1	9.649357E-1	9.318541E-1	9.345491E-1	9.744525E-1	8.839955E-1	9.622726E-1	9.420422E-1	9.427921E-1	9.261310E-1	9.660185E-1	8.906108E-1	9.087101E-1	9.487927E-1	9.407316E-1	9.287822E-1	9.859399E-1	9.054503E-1	9.179132E-1	1.050746E+0
5.550140E+2	9.716906E-1	9.096255E-1	9.224634E-1	8.899774E-1	9.491666E-1	9.585783E-1	8.829658E-1	9.558877E-1	9.276350E-1	8.904104E-1	9.148960E-1	9.273946E-1	9.591195E-1	9.317573E-1	9.415422E-1	9.892467E-1	9.647057E-1	8.683008E-1	8.953909E-1	9.367046E-1	9.480716E-1	8.914059E-1	9.663932E-1	9.303008E-1	1.012928E+0	8.903235E-1	9.318168E-1	9.615743E-1	9.701925E-1	9.242486E-1	9.285774E-1	9.280216E-1	9.591681E-1	9.502888E-1	9.572784E-1	9.712382E-1	9.483938E-1	8.985867E-1	9.251242E-1	9.287648E-1	9.124837E-1	9.068036E-1	9.326635E-1	9.578184E-1	9.314504E-1	9.499393E-1	9.328133E-1	9.626397E-1	9.188527E-1	9.410916E-1	9.149786E-1	9.814436E-1	9.201985E-1	9.404363E-1	9.673252E-1	9.333289E-1	9.529047E-1	9.191401E-1	9.560855E-1	9.521059E-1	9.338505E-1	9.116225E-1	9.578808E-1	9.219950E-1	9.662101E-1	9.195083E-1	9.213371E-1	9.513060E-1	9.237740E-1	9.497205E-1	9.770796E-1	9.406528E-1	9.336788E-1	9.267177E-1	9.336011E-1	9.829744E-1	9.790973E-1	9.094626E-1	9.427948E-1	9.554635E-1	9.347320E-1	9.392342E-1	9.258804E-1	9.898338E-1	9.260963E-1	9.381649E-1	9.403272E-1	1.005296E+0	9.321659E-1	9.732279E-1	9.366788E-1	9.253156E-1	9.713510E-1	9.525419E-1	9.751982E-1	9.537714E-1	9.937153E-1	9.801583E-1	1.007431E+0	9.396790E-1	1.020335E+0	9.118065E-1	9.616572E-1	9.789890E-1	9.627362E-1	9.289448E-1	9.535877E-1	9.027344E-1	8.969293E-1	9.837652E-1	1.005382E+0	9.167261E-1	9.240260E-1	9.728843E-1	9.038190E-1	9.388993E-1	9.476283E-1	9.674183E-1	9.460642E-1	9.418196E-1	9.563144E-1	9.251765E-1	9.563282E-1	9.303252E-1	9.240984E-1	9.596103E-1	9.261274E-1	8.923936E-1	9.648624E-1	9.620622E-1	9.804344E-1	9.541846E-1	9.759851E-1	9.651197E-1	9.191549E-1	9.791111E-1	9.396406E-1	9.300887E-1	9.566204E-1	9.685389E-1	9.451746E-1	9.335851E-1	9.386642E-1	9.451542E-1	9.451070E-1	9.089908E-1	9.206936E-1	9.262184E-1	9.960277E-1	9.513069E-1	9.526952E-1	9.927837E-1	9.735070E-1	9.149731E-1	9.675700E-1	9.448987E-1	9.482436E-1	9.487013E-1	9.387852E-1	9.380968E-1	9.155276E-1	9.022601E-1	8.795082E-1	9.170210E-1	9.012612E-1	8.989571E-1
5.560410E+2	1.016349E+0	9.743935E-1	1.099563E+0	1.042824E+0	1.047762E+0	9.593557E-1	1.076663E+0	1.043630E+0	1.016977E+0	9.613629E-1	9.874109E-1	9.985584E-1	1.000614E+0	9.765036E-1	1.027705E+0	9.700331E-1	1.027457E+0	9.489784E-1	1.022820E+0	1.013035E+0	1.064862E+0	9.578902E-1	1.065207E+0	1.021846E+0	1.003252E+0	9.616282E-1	1.004295E+0	1.015398E+0	1.033699E+0	1.000944E+0	1.007302E+0	1.045446E+0	1.027794E+0	1.007001E+0	1.019754E+0	1.033844E+0	9.945472E-1	1.001756E+0	1.032682E+0	1.024201E+0	9.963663E-1	9.559597E-1	1.028276E+0	9.984711E-1	1.002044E+0	1.019102E+0	1.027756E+0	1.036152E+0	1.023009E+0	1.029042E+0	1.081755E+0	1.033846E+0	1.080902E+0	9.614632E-1	1.022860E+0	1.014426E+0	1.017856E+0	9.746140E-1	1.030351E+0	1.020388E+0	9.996624E-1	1.027798E+0	9.992655E-1	9.906684E-1	1.012667E+0	1.036728E+0	1.043455E+0	1.025657E+0	1.016449E+0	1.037033E+0	1.052144E+0	1.040861E+0	1.011145E+0	1.044903E+0	9.975009E-1	1.026831E+0	9.827511E-1	1.006608E+0	1.034169E+0	9.891232E-1	1.038109E+0	1.042767E+0	1.054348E+0	1.006074E+0	1.009744E+0	9.506673E-1	1.074263E+0	9.780441E-1	1.053517E+0	1.033970E+0	1.014134E+0	9.885134E-1	1.034148E+0	1.056952E+0	1.024362E+0	9.976896E-1	1.003523E+0	9.936778E-1	1.051914E+0	1.071526E+0	1.017687E+0	1.009157E+0	9.587524E-1	1.016466E+0	1.005710E+0	1.083901E+0	1.028409E+0	1.010578E+0	1.039432E+0	1.018859E+0	1.001574E+0	1.043991E+0	1.037419E+0	1.031691E+0	1.039195E+0	9.652284E-1	1.020598E+0	1.026778E+0	1.069952E+0	1.066462E+0	1.016141E+0	1.050168E+0	1.004333E+0	9.869735E-1	1.055173E+0	1.032001E+0	9.862139E-1	1.012425E+0	1.017174E+0	9.984076E-1	1.019942E+0	1.065577E+0	1.014180E+0	1.012930E+0	1.071887E+0	9.941288E-1	9.998636E-1	1.039043E+0	1.009939E+0	1.057174E+0	9.386881E-1	1.028747E+0	1.000153E+0	1.032508E+0	1.101718E+0	9.895348E-1	1.006059E+0	9.976953E-1	1.065548E+0	1.041953E+0	1.004758E+0	1.056998E+0	1.044661E+0	9.874023E-1	1.018628E+0	1.015640E+0	1.045618E+0	1.057884E+0	1.024715E+0	1.043063E+0	1.048748E+0	1.022392E+0	1.016499E+0	9.213582E-1	9.095866E-1	9.827027E-1
5.570330E+2	1.048470E+0	1.086885E+0	1.068156E+0	1.089343E+0	1.072967E+0	1.154611E+0	1.021796E+0	1.052910E+0	1.041794E+0	1.138742E+0	1.087550E+0	1.087164E+0	1.040574E+0	1.079355E+0	1.048903E+0	1.082111E+0	1.055267E+0	1.094062E+0	1.099412E+0	1.088701E+0	1.073010E+0	1.104290E+0	1.058248E+0	1.060801E+0	1.044032E+0	1.107508E+0	1.082813E+0	1.047268E+0	1.041982E+0	1.064743E+0	1.066843E+0	1.007380E+0	1.004447E+0	1.021705E+0	1.071817E+0	1.053223E+0	1.050064E+0	9.968100E-1	1.045120E+0	1.079567E+0	1.065367E+0	1.047148E+0	1.096267E+0	1.059794E+0	1.051959E+0	1.043098E+0	1.074173E+0	1.063475E+0	1.085645E+0	1.071643E+0	1.037687E+0	1.061068E+0	1.013885E+0	9.894997E-1	1.055085E+0	1.051802E+0	1.048168E+0	1.089723E+0	1.081318E+0	9.828706E-1	1.023529E+0	1.038110E+0	1.024517E+0	1.060022E+0	1.048632E+0	1.055159E+0	1.097482E+0	1.017716E+0	1.019439E+0	1.069967E+0	1.071293E+0	1.075006E+0	1.064774E+0	1.007737E+0	1.003516E+0	1.047562E+0	1.112847E+0	1.059529E+0	1.067063E+0	1.055675E+0	1.095704E+0	1.077536E+0	1.107559E+0	1.045937E+0	1.087171E+0	1.067096E+0	1.063168E+0	1.042124E+0	1.063510E+0	1.034739E+0	1.039709E+0	1.079122E+0	1.072732E+0	1.062366E+0	1.024361E+0	1.082645E+0	1.078480E+0	1.087602E+0	1.022745E+0	1.068645E+0	1.019673E+0	1.105751E+0	1.042264E+0	1.077276E+0	1.088191E+0	1.051486E+0	1.071927E+0	1.083942E+0	1.077716E+0	1.012885E+0	1.020613E+0	1.035283E+0	1.038864E+0	1.019471E+0	1.091881E+0	1.092487E+0	1.042950E+0	1.009495E+0	1.040490E+0	1.022947E+0	1.039489E+0	1.013493E+0	1.096043E+0	1.080891E+0	1.084214E+0	1.051352E+0	1.066785E+0	1.009697E+0	1.099275E+0	1.066737E+0	1.062854E+0	1.007459E+0	1.077377E+0	1.080471E+0	1.049048E+0	1.009862E+0	1.063671E+0	1.059796E+0	1.054727E+0	1.050238E+0	1.074189E+0	9.893441E-1	1.015525E+0	1.078369E+0	1.030531E+0	1.030916E+0	1.066618E+0	1.017798E+0	1.030406E+0	1.080801E+0	1.096454E+0	1.057754E+0	1.067131E+0	1.130798E+0	1.128253E+0	1.046680E+0	1.077303E+0	9.962940E-1	1.085582E+0	1.073817E+0	1.066030E+0	1.025512E+0	9.701332E-1	1.006680E+0	1.082345E+0	1.029809E+0
5.580230E+2	1.023400E+0	1.211307E+0	1.082987E+0	1.014580E+0	1.072226E+0	1.098602E+0	1.045073E+0	1.094251E+0	1.052430E+0	1.077160E+0	1.073048E+0	1.059954E+0	1.087449E+0	1.052640E+0	1.015396E+0	1.046246E+0	1.050275E+0	1.073724E+0	1.075011E+0	9.878126E-1	1.056714E+0	1.123093E+0	1.061032E+0	1.036129E+0	1.048179E+0	1.093770E+0	1.033152E+0	1.038062E+0	1.086161E+0	1.052526E+0	1.075443E+0	1.011251E+0	1.086515E+0	1.060213E+0	1.040580E+0	1.034590E+0	1.070131E+0	1.216577E+0	1.009999E+0	1.016916E+0	1.034926E+0	1.177518E+0	1.092725E+0	1.067373E+0	1.044828E+0	1.113672E+0	1.035493E+0	1.066076E+0	1.068051E+0	1.064085E+0	1.055993E+0	1.060387E+0	1.064490E+0	1.100944E+0	1.066740E+0	1.043340E+0	1.060437E+0	1.091110E+0	1.075493E+0	1.056405E+0	1.058967E+0	1.069045E+0	1.039947E+0	1.051183E+0	1.025405E+0	1.081699E+0	1.082680E+0	1.073298E+0	1.065778E+0	1.054649E+0	1.072825E+0	1.052737E+0	1.040194E+0	1.062742E+0	1.074933E+0	1.031615E+0	1.072649E+0	1.033431E+0	1.021742E+0	1.072506E+0	1.083890E+0	1.079081E+0	1.077153E+0	1.006074E+0	1.030484E+0	1.086631E+0	1.038600E+0	1.039177E+0	1.035671E+0	1.109322E+0	1.007558E+0	1.027346E+0	1.090890E+0	1.067006E+0	1.029498E+0	1.033687E+0	1.102299E+0	9.865620E-1	1.043164E+0	1.065041E+0	1.038217E+0	1.028023E+0	1.032097E+0	1.049699E+0	1.050763E+0	1.078366E+0	1.106283E+0	1.071469E+0	1.071335E+0	1.067394E+0	1.064024E+0	1.021217E+0	1.024419E+0	1.028636E+0	1.087491E+0	1.078591E+0	1.042292E+0	1.096658E+0	1.031425E+0	9.727959E-1	1.059917E+0	1.087590E+0	1.042307E+0	1.088344E+0	1.044185E+0	1.068554E+0	1.053811E+0	1.036296E+0	1.034611E+0	1.084182E+0	1.031521E+0	1.012302E+0	1.055848E+0	1.034938E+0	1.051903E+0	1.031316E+0	1.011335E+0	1.083513E+0	1.015627E+0	1.013242E+0	1.061936E+0	9.789359E-1	1.058148E+0	1.049252E+0	1.070871E+0	1.080425E+0	1.089966E+0	1.094486E+0	1.081593E+0	1.040429E+0	1.007867E+0	9.829624E-1	9.929804E-1	1.084706E+0	1.056171E+0	1.030799E+0	1.091987E+0	1.070482E+0	1.094175E+0	1.053092E+0	1.067471E+0	1.032534E+0	1.056543E+0	1.115139E+0	1.088589E+0	1.239173E+0
5.590160E+2	1.049985E+0	1.059897E+0	9.190904E-1	1.032135E+0	1.004766E+0	1.082058E+0	1.041305E+0	9.811987E-1	1.091004E+0	1.170915E+0	1.020975E+0	9.842327E-1	9.955429E-1	1.088216E+0	1.048493E+0	9.819030E-1	1.007110E+0	1.175282E+0	1.031179E+0	1.106312E+0	9.523723E-1	1.083426E+0	1.001232E+0	1.028641E+0	9.590625E-1	1.124255E+0	1.054761E+0	9.770132E-1	9.586425E-1	1.111756E+0	1.017711E+0	1.124116E+0	1.017182E+0	1.060914E+0	1.036970E+0	1.010093E+0	1.045427E+0	1.136443E+0	1.068047E+0	1.074808E+0	1.128685E+0	1.111074E+0	9.642033E-1	1.060850E+0	1.015545E+0	1.006070E+0	1.001547E+0	9.288120E-1	9.773587E-1	1.034631E+0	1.057936E+0	9.466450E-1	1.024052E+0	1.130288E+0	9.704791E-1	1.093267E+0	9.888443E-1	1.096148E+0	9.744330E-1	1.038247E+0	1.046864E+0	1.022941E+0	1.034570E+0	1.084545E+0	1.031898E+0	1.035450E+0	1.019772E+0	1.067668E+0	1.044800E+0	1.043569E+0	9.307131E-1	1.059170E+0	1.001660E+0	1.081424E+0	1.090169E+0	1.034378E+0	9.324673E-1	1.011102E+0	1.006976E+0	1.039255E+0	9.182898E-1	9.172399E-1	9.528913E-1	1.083143E+0	1.012740E+0	1.031881E+0	1.009329E+0	1.039668E+0	9.972671E-1	9.637964E-1	1.089836E+0	1.043031E+0	9.093620E-1	1.047310E+0	1.055621E+0	1.027544E+0	9.613499E-1	1.125456E+0	9.189517E-1	9.253176E-1	9.925633E-1	1.049203E+0	1.171962E+0	9.832315E-1	9.324704E-1	9.622549E-1	9.074229E-1	1.023833E+0	1.013673E+0	1.044396E+0	1.006549E+0	1.097755E+0	1.060050E+0	9.885663E-1	9.843615E-1	1.055772E+0	1.102553E+0	1.071511E+0	1.002568E+0	1.071772E+0	1.026453E+0	9.759209E-1	9.439098E-1	1.012565E+0	1.032360E+0	9.706960E-1	1.088861E+0	1.177787E+0	9.441802E-1	1.057529E+0	9.934221E-1	1.036195E+0	1.010060E+0	1.034736E+0	1.073980E+0	1.103164E+0	1.147792E+0	1.038499E+0	1.125913E+0	9.621672E-1	1.016145E+0	1.133820E+0	1.071750E+0	1.024064E+0	9.892432E-1	1.128555E+0	1.008881E+0	1.025740E+0	9.917488E-1	9.859407E-1	1.036722E+0	1.035745E+0	9.866895E-1	9.936459E-1	9.167627E-1	1.059191E+0	9.712734E-1	1.057931E+0	9.755915E-1	1.014403E+0	1.004197E+0	1.148037E+0	1.112814E+0	1.152256E+0	1.251080E+0	8.420797E-1
