Photon Energy (eV)	#1	#2	#3	#4	#5	#6	#7	#8	#9	#10	#11	#12	#13	#14	#15	#16	#17	#18	#19	#20	#21	#22	#23	#24	#25	#26	#27	#28	#29	#30	#31	#32	#33	#34	#35	#36	#37	#38	#39	#40	#41	#42	#43	#44	#45	#46	#47	#48	#49	#50	#51	#52	#53	#54	#55	#56	#57	#58	#59	#60	#61	#62	#63	#64	#65	#66	#67	#68	#69	#70	#71	#72	#73	#74	#75	#76	#77	#78	#79	#80	#81	#82	#83	#84	#85	#86	#87	#88	#89	#90	#91	#92	#93	#94	#95	#96	#97	#98	#99	#100	#101	#102	#103	#104	#105	#106	#107	#108	#109	#110	#111	#112	#113	#114	#115	#116	#117	#118	#119	#120	#121	#122	#123	#124	#125	#126	#127	#128	#129	#130	#131	#132	#133	#134	#135	#136	#137	#138	#139	#140	#141	#142	#143	#144	#145	#146	#147	#148	#149	#150	#151	#152	#153	#154	#155	#156	#157	#158	#159	#160	#161	#162	#163	#164	#165	#166	
5.290120E+2	-9.141447E-3	-2.729509E-2	-7.750713E-3	-9.757016E-3	-1.588705E-2	-1.558384E-2	-4.195767E-2	-3.414829E-2	-5.376457E-3	-2.810113E-2	-1.321001E-2	-1.151077E-2	-2.450292E-2	-1.749196E-2	-1.098589E-2	-2.649750E-2	-1.717791E-2	-1.861066E-2	-1.672122E-2	-1.614007E-2	-2.757849E-2	-2.841930E-2	-1.400117E-2	-2.423435E-2	-1.929334E-2	-2.471173E-2	-1.164814E-2	-3.858362E-2	-2.939080E-2	-2.105963E-2	-2.482620E-2	-1.181190E-2	-1.957643E-2	-2.910371E-2	-2.947302E-2	-2.464477E-2	-3.849594E-2	-2.469806E-2	-1.042217E-2	-3.766647E-2	-1.354595E-2	-2.661591E-2	-6.396168E-3	4.210220E-3	-1.664268E-2	-2.554745E-2	-2.021884E-2	-2.587400E-2	-1.672954E-2	-1.644333E-2	-2.446472E-2	-4.002116E-2	-1.186395E-2	-2.322908E-2	-1.752908E-2	-2.244269E-2	-3.620434E-2	-2.577463E-2	-1.181073E-2	-3.892531E-2	-1.926176E-2	-2.685307E-2	-3.179707E-2	-1.858992E-2	-1.834283E-2	-1.704272E-2	-3.025512E-2	-2.176655E-2	-1.932362E-2	-1.765576E-2	-3.422420E-2	-3.105277E-2	4.478112E-3	-1.607122E-2	-2.223462E-2	-2.023283E-2	-7.472141E-3	-2.360717E-2	-8.910359E-3	-1.595242E-2	-6.735946E-3	-2.931022E-2	-2.883605E-2	-1.434487E-2	-1.971354E-2	-3.267603E-2	-1.972811E-2	-2.439002E-2	-2.674227E-2	-3.675410E-2	-2.887345E-2	-1.268436E-2	-1.667975E-2	-2.126449E-2	-1.750658E-2	-3.084564E-2	-7.250370E-3	-1.955035E-2	-1.205656E-2	-9.775886E-3	-1.553185E-2	-1.652534E-2	-2.925945E-2	-1.566562E-2	-2.094502E-2	-1.897171E-2	-2.836722E-2	-2.528876E-2	-3.684181E-2	-2.122867E-2	-1.635076E-2	-4.380744E-2	-2.771681E-2	-2.721806E-2	-2.784745E-2	-1.144962E-2	-3.071407E-2	-1.904588E-2	-2.251045E-2	-2.287155E-2	-2.061806E-2	-9.445921E-3	-3.072251E-2	-1.661095E-2	-3.538374E-2	-2.527850E-2	-2.947147E-2	-9.604110E-3	-2.307049E-2	-2.213448E-2	-4.768708E-2	-2.705967E-2	-1.750894E-2	-4.693728E-2	-3.018517E-2	-9.061595E-3	-2.304001E-2	-1.083660E-2	-3.432133E-2	-1.575497E-2	-3.445136E-2	-3.124169E-2	-2.631452E-2	-1.397602E-2	-1.939728E-2	-1.414062E-2	-2.613972E-2	-1.514608E-2	-1.430836E-2	-1.364831E-2	-1.999786E-2	-1.615848E-2	-3.455232E-2	-2.497685E-2	-3.461421E-2	-1.844022E-2	-7.827280E-3	-1.774701E-2	-2.541940E-2	-1.628519E-2	-2.338056E-2	-3.425388E-2	-1.552385E-2	-2.657796E-3	-1.576452E-2	-9.271780E-3
5.295010E+2	-1.267546E-2	-7.779120E-3	1.742627E-2	-1.290118E-3	-1.085665E-2	2.750965E-2	-7.918423E-3	-3.204189E-3	-2.876678E-3	-7.336872E-3	-1.839015E-3	-5.618566E-3	6.370064E-4	-1.210302E-2	3.071446E-2	6.269274E-3	2.385864E-2	1.033170E-3	-4.586473E-3	-1.224597E-2	1.283934E-2	-2.484418E-3	-7.706203E-3	-1.886068E-2	1.078014E-2	1.505784E-2	-1.134703E-2	-1.840079E-3	-1.233434E-2	8.821356E-3	2.519593E-2	-4.071270E-3	1.344478E-2	1.202189E-2	7.679705E-3	8.922391E-3	-1.969580E-2	-7.329586E-4	4.413778E-3	1.480908E-2	4.665716E-3	-8.691839E-3	-1.095327E-2	-2.869108E-3	-1.900000E-2	-1.056152E-2	2.540116E-2	7.290286E-3	6.946171E-3	4.866257E-3	3.546972E-4	-2.362859E-3	1.495887E-3	-1.242278E-2	-9.258660E-3	-7.579792E-3	2.044613E-2	1.587855E-2	3.970492E-3	-3.573392E-3	-1.532605E-3	1.761570E-2	-6.938173E-3	-4.052202E-3	-1.942671E-2	-1.969736E-2	4.921079E-3	2.099404E-2	-1.149766E-2	-1.512994E-2	-7.507073E-3	-2.898723E-3	6.414652E-3	-2.097277E-3	5.592558E-3	-5.010385E-4	-2.816386E-3	-8.698924E-3	-1.485157E-2	-5.361819E-3	-1.141083E-2	-5.297501E-3	-4.848276E-3	-4.660937E-3	-1.257621E-3	1.073007E-3	-4.206953E-3	3.596997E-3	-9.272304E-3	-1.309118E-2	4.663370E-3	-8.759240E-3	-1.034689E-2	-1.047017E-2	-5.412916E-3	-5.513772E-3	-6.144195E-3	1.696733E-2	-1.402118E-2	-7.108399E-3	1.344007E-2	-1.363498E-3	2.420534E-2	-2.336534E-4	1.311223E-2	-4.281495E-3	-1.214581E-2	2.122652E-2	1.403022E-2	-6.858520E-3	1.050435E-2	3.590271E-3	5.744607E-3	2.378859E-4	1.454150E-2	-1.654843E-2	4.261987E-3	-1.102715E-2	-9.340260E-3	3.776041E-4	3.439993E-4	-1.218712E-2	-1.106083E-2	8.071813E-3	2.020442E-3	4.581171E-3	1.037335E-2	-7.858182E-3	-1.157178E-2	3.620885E-3	-6.170534E-3	-1.077232E-2	2.095171E-3	1.534214E-2	7.048364E-3	-1.451134E-2	-1.355957E-2	1.423458E-2	8.615490E-3	3.214144E-3	2.704110E-3	-6.756770E-3	-1.961147E-2	3.590132E-3	2.582663E-3	1.011092E-2	-5.947723E-3	-1.727729E-3	-1.930601E-2	-3.650229E-3	-4.106663E-3	2.673441E-3	-3.558602E-3	9.584099E-3	7.141141E-4	-6.233720E-3	-1.552116E-2	-5.854318E-3	-9.746197E-3	-3.039723E-3	-5.670704E-3	9.516958E-3	-1.518539E-2	-2.356514E-3	5.108266E-3	1.118245E-2
5.300010E+2	2.475548E-2	1.989127E-2	1.229939E-2	4.780633E-3	3.746804E-2	3.568629E-2	5.784666E-3	3.105122E-2	2.996543E-2	4.289363E-2	4.057520E-2	8.687534E-3	1.666581E-2	1.537802E-2	1.665738E-3	3.655395E-2	2.227658E-2	-1.284192E-3	2.355640E-2	1.695867E-2	2.378954E-3	3.075076E-2	3.647728E-2	2.297457E-2	1.832035E-2	1.401540E-2	2.679973E-2	1.724254E-2	1.530121E-2	3.246852E-2	3.601922E-2	4.800605E-2	4.966833E-2	1.909975E-2	5.079434E-2	2.324713E-2	2.394469E-2	3.606052E-2	2.038231E-2	2.422916E-2	1.017091E-2	2.470055E-2	2.514695E-2	9.704460E-3	1.164301E-2	3.295672E-2	3.661086E-2	1.242967E-2	1.850885E-2	2.442611E-2	1.069168E-2	3.782912E-2	3.506754E-2	2.250499E-2	2.734975E-2	4.018372E-2	2.840191E-2	1.380280E-2	3.554350E-2	2.439570E-2	2.745303E-2	1.552476E-2	4.044474E-2	2.050159E-2	4.908682E-2	4.580123E-2	1.789044E-2	2.146583E-2	3.091458E-2	3.206179E-2	2.960494E-2	3.178110E-2	2.715640E-2	2.779965E-2	2.403647E-2	1.872925E-2	2.665466E-2	4.846498E-2	2.154453E-2	3.008817E-2	7.394878E-3	3.023820E-2	3.381547E-2	3.256142E-2	2.081726E-2	3.797804E-2	3.177204E-2	5.137417E-2	5.103214E-2	6.211945E-2	3.616866E-2	2.358769E-2	1.514102E-2	2.952397E-2	1.905588E-2	3.314044E-2	2.222697E-2	3.078938E-2	2.585821E-2	2.981656E-2	2.650383E-2	3.003444E-2	2.459006E-2	2.190436E-2	1.830212E-2	2.716518E-2	4.546968E-2	1.792446E-2	3.063844E-2	2.098062E-2	1.084678E-2	3.731453E-2	1.842440E-2	3.905938E-2	2.509645E-2	3.315081E-2	3.178370E-2	4.505350E-2	3.126303E-2	1.190051E-2	2.132744E-2	9.482442E-3	3.715704E-2	3.287694E-2	1.687625E-2	3.461488E-2	3.364363E-2	2.827746E-2	3.657592E-2	1.949012E-2	3.262338E-2	3.549150E-2	7.498723E-3	4.649746E-2	2.048612E-2	1.459683E-2	1.140173E-2	2.243025E-2	2.468648E-2	3.878298E-2	3.938999E-2	3.076467E-2	2.373663E-2	3.858668E-2	3.672909E-2	3.152691E-2	1.746061E-2	2.883607E-2	2.338205E-2	1.200413E-2	8.247867E-3	3.808114E-2	1.497625E-2	3.704124E-2	2.494177E-2	1.877741E-2	3.434173E-2	1.927385E-2	3.686518E-2	3.636066E-2	1.917820E-2	2.801635E-2	2.230407E-2	3.339554E-2	4.263187E-2	1.665429E-2
5.305030E+2	6.117184E-3	2.527939E-3	3.248253E-3	1.752385E-2	-3.073385E-3	-3.045254E-3	1.642569E-2	2.198331E-2	3.726165E-3	1.007946E-2	2.039589E-2	1.539806E-2	1.277595E-2	8.890981E-3	9.184008E-3	-1.773370E-3	6.739396E-3	1.236963E-2	1.298842E-2	7.225398E-4	1.370575E-2	8.989243E-3	6.261019E-3	2.598613E-2	1.448023E-2	1.378366E-2	1.277331E-2	2.053108E-2	5.330882E-3	1.548878E-2	8.641538E-3	-3.939333E-3	3.931386E-3	1.403550E-2	1.053968E-2	1.387715E-2	3.842431E-2	7.679212E-3	1.817117E-2	3.158607E-2	8.436849E-3	2.617699E-2	1.736614E-2	1.285688E-2	2.627209E-2	1.266606E-2	8.405433E-3	1.293024E-2	4.487116E-3	5.746837E-3	2.385015E-2	2.065592E-2	1.736346E-3	2.751524E-2	5.977138E-4	1.838632E-2	1.581423E-2	1.055475E-2	9.322669E-4	1.255835E-2	2.747405E-2	1.816879E-2	2.123967E-2	2.420008E-2	1.994284E-2	1.842360E-2	1.183036E-2	6.273952E-3	1.419926E-2	9.730685E-3	2.319909E-3	1.837181E-2	6.575446E-3	-5.887115E-3	3.050841E-2	1.870876E-2	1.968025E-3	8.880484E-3	5.551982E-3	1.073109E-2	2.675561E-2	7.466961E-3	2.655641E-2	1.639035E-2	4.432276E-3	1.801944E-2	3.007461E-2	1.254680E-2	2.147930E-2	1.085461E-2	-1.077635E-2	1.091485E-2	1.776073E-2	1.388962E-2	2.793329E-2	-2.676654E-3	1.702709E-2	1.280667E-2	9.449259E-3	6.353507E-3	1.486425E-2	1.805138E-3	-2.363744E-3	8.954406E-3	3.043414E-2	1.695394E-2	1.080524E-2	-8.784705E-3	1.477381E-2	2.436260E-2	1.268671E-3	1.897367E-2	1.811983E-2	2.438904E-2	1.301920E-2	4.979523E-3	1.267169E-2	2.873250E-2	1.225513E-2	-9.370576E-3	5.522231E-3	2.364725E-2	3.867403E-3	2.366748E-2	2.832856E-2	1.371814E-2	2.745411E-3	1.405608E-2	-9.464429E-3	2.536716E-2	3.013705E-2	7.525931E-3	1.581771E-2	1.906040E-2	1.542311E-2	1.285091E-2	2.801916E-2	4.368740E-3	2.299062E-2	1.826713E-2	1.540435E-2	1.185342E-2	1.921591E-3	8.006301E-3	4.200248E-4	1.841465E-2	7.132746E-3	6.785204E-3	2.460424E-2	8.934195E-3	7.944086E-3	7.780806E-3	1.619964E-2	-6.191888E-4	3.995666E-2	1.548737E-2	1.804155E-2	2.909192E-3	2.579159E-2	2.018070E-2	1.403619E-2	2.271253E-2	7.001359E-3	-3.245389E-2	1.219535E-2	-8.172540E-3
5.310050E+2	-1.644568E-2	4.472285E-3	-1.151185E-3	9.575390E-3	-5.200746E-3	-3.533668E-3	1.441265E-2	-8.586822E-3	-7.807492E-3	-8.911755E-3	-4.739921E-3	5.973411E-3	-4.680365E-4	3.604643E-3	-1.481724E-2	1.289474E-3	-1.377284E-2	6.752219E-3	3.717352E-3	6.134319E-3	2.094069E-2	-1.423594E-2	4.666526E-3	8.252004E-5	1.058216E-2	-1.190160E-2	-4.007596E-3	1.803498E-2	5.696617E-3	2.303765E-2	1.519821E-3	-1.860417E-4	-1.607733E-2	-1.244085E-2	3.865741E-3	1.949356E-3	-7.920564E-3	7.351036E-3	7.212745E-3	-8.884448E-3	-3.484831E-3	-7.487131E-3	-5.394281E-3	-7.148435E-3	4.431261E-3	9.578159E-3	7.743853E-4	2.055590E-3	1.250014E-2	-9.421617E-3	-8.655185E-3	-1.081693E-2	8.331916E-3	2.281434E-3	-4.524757E-3	-3.615626E-3	2.765890E-3	-4.142847E-3	4.973898E-3	4.996053E-3	-2.857564E-3	8.192136E-3	5.451510E-3	-1.065942E-2	-1.322052E-2	8.249605E-3	6.235221E-3	1.050049E-2	-1.939720E-2	-5.820033E-3	1.024826E-2	-3.288166E-4	-7.615299E-5	1.315708E-2	-1.016112E-2	-5.045227E-3	-2.101454E-3	-9.262234E-3	3.467326E-4	-2.332788E-2	-4.824254E-3	-3.694403E-3	5.810484E-5	-1.297678E-2	1.049263E-2	1.054966E-2	-1.919193E-2	1.374541E-3	5.378820E-3	-2.783182E-4	1.733630E-3	6.228705E-3	1.682726E-2	4.009183E-3	-7.530323E-3	8.846505E-3	1.043995E-2	-9.506305E-3	4.591983E-3	-1.244844E-2	-5.434652E-7	-4.959405E-3	-4.778659E-3	9.402403E-3	-8.642098E-3	-9.253188E-3	1.858638E-2	-1.607503E-3	1.456489E-2	2.735365E-3	8.170982E-3	-5.669730E-3	4.876092E-4	-1.416802E-2	4.501566E-3	4.650633E-3	-6.455958E-3	-1.075585E-2	-2.377986E-3	1.067084E-2	-2.197312E-3	4.061829E-3	9.145915E-3	-1.608466E-2	8.062478E-3	-1.238191E-2	1.231376E-2	-1.491690E-4	-2.644484E-3	1.018399E-3	1.109095E-2	-1.283437E-3	-8.909245E-3	-2.063063E-3	-6.745268E-3	-4.666055E-4	-7.863614E-3	-1.192570E-2	-6.574183E-3	-1.812886E-2	-1.289837E-2	-1.118527E-2	1.551625E-2	-1.909219E-2	6.901634E-3	-8.441415E-3	1.083547E-2	-2.140535E-3	-1.676325E-2	1.660638E-3	1.888864E-2	-1.765514E-2	3.118941E-3	-1.000070E-3	6.128762E-4	5.418908E-3	-1.007921E-2	-4.030384E-3	-6.977307E-3	-4.821377E-3	-3.229146E-4	-2.535065E-3	6.258196E-4	-8.951099E-3	4.346449E-3	2.267961E-2
5.315030E+2	-1.240454E-2	-1.304149E-2	-1.499257E-2	-2.416499E-2	-3.312917E-3	-1.268161E-2	-1.539573E-2	-1.546185E-2	-2.984233E-2	-7.943784E-3	-2.172480E-2	-2.532828E-2	-1.810703E-2	-5.537933E-3	-1.884401E-2	-2.231613E-2	-1.766980E-2	-5.594499E-3	-2.496942E-2	-8.793600E-3	-1.238424E-2	1.302399E-2	-9.444235E-3	-2.147979E-2	-9.835413E-3	-1.554000E-2	-7.681509E-3	-1.996947E-2	-4.430043E-3	-2.862367E-2	-2.068457E-2	-1.251114E-3	-2.283295E-2	-1.976078E-2	-3.113139E-2	-2.155319E-2	1.315535E-2	-1.167202E-2	-2.057325E-2	-2.180884E-2	-1.115918E-2	-1.155700E-2	-2.548976E-2	-5.503071E-3	-1.282787E-2	-8.139013E-3	-2.812514E-2	-1.291108E-2	-5.932232E-3	-1.793902E-2	-2.513357E-3	-2.094644E-2	-3.027537E-2	-1.161060E-2	-2.894751E-3	-2.156747E-2	-1.401229E-2	-1.413755E-2	-2.081867E-2	-1.389110E-2	-1.757570E-2	-2.734311E-2	-2.315453E-2	3.676985E-3	-3.439865E-3	-1.919703E-2	-6.691055E-3	4.416761E-3	-7.780924E-3	-8.410462E-3	-1.718043E-3	-2.118097E-2	-2.098015E-2	-2.277455E-2	-1.546127E-2	-2.810175E-2	-2.165278E-2	-8.951407E-3	-1.164379E-2	-2.445816E-2	1.173764E-3	-1.197263E-2	-3.641422E-2	-3.842714E-3	-2.795234E-2	-7.746904E-3	-1.738392E-2	-2.529360E-2	-2.214126E-2	-2.431031E-2	-2.034775E-2	-2.272092E-2	-2.061928E-2	-2.746634E-2	-1.775172E-2	-1.228003E-2	-3.234539E-2	-1.859949E-2	-3.010993E-2	-2.728656E-2	-2.649868E-2	-1.623166E-2	-1.366977E-2	-2.277985E-2	-2.504859E-2	-7.818603E-3	-1.529843E-2	-1.727254E-2	-2.868408E-2	-1.183356E-2	-2.260674E-2	-1.438166E-2	-1.004358E-2	-8.585449E-3	-2.121500E-2	-9.713001E-3	-8.905262E-3	-9.033637E-3	-6.371352E-3	-1.001248E-2	-2.559251E-2	-9.675637E-3	-2.212812E-2	-2.022442E-2	-5.404524E-3	-1.789544E-2	8.345148E-3	-4.906286E-3	-7.194330E-3	-2.144247E-2	-7.788344E-3	-1.249526E-2	-1.279014E-3	-1.769212E-2	-1.188487E-2	-1.025138E-2	6.472729E-3	-2.587876E-2	-1.970269E-2	-1.850334E-2	-2.446833E-2	-6.258997E-4	-2.452866E-3	-1.288327E-2	-1.073929E-2	-2.207461E-2	-9.277540E-3	6.076014E-3	9.585615E-3	-1.530339E-2	-1.806887E-2	-5.064558E-3	-1.959889E-2	-8.713859E-3	-1.324080E-2	-1.672059E-2	-1.700686E-2	-1.035402E-2	-1.837973E-2	-1.603960E-2	-1.536044E-2	-1.986615E-2	-8.477213E-3	-2.403071E-2	-3.878789E-2	-1.621614E-2
5.320070E+2	-1.395394E-3	9.204513E-3	-7.473860E-3	-6.413603E-3	-2.562009E-2	-2.892293E-2	8.151642E-3	-1.594677E-2	-7.908410E-3	-4.897667E-3	-1.789889E-2	1.767082E-3	-5.576403E-3	-1.278185E-2	-1.992638E-2	-2.796519E-3	-8.961088E-3	-1.059828E-2	3.843076E-3	-1.895771E-3	-1.962800E-2	-1.819769E-2	-2.547017E-2	-2.448721E-3	-1.880433E-2	2.479044E-3	-1.659529E-2	-1.540688E-3	3.797554E-3	-3.222766E-2	-2.512889E-2	-2.488410E-2	-2.673540E-2	4.076382E-3	-1.379403E-2	-1.219764E-2	-7.250677E-3	-1.549124E-2	-2.491660E-2	-2.018738E-3	2.979950E-3	-2.888880E-4	-1.109545E-2	-1.880179E-2	-1.516903E-2	-2.517508E-2	-2.778747E-2	-1.320285E-2	-1.950918E-2	7.681557E-4	-1.387027E-2	2.420948E-3	-1.604665E-2	-2.481006E-2	-1.162909E-3	-1.280272E-2	-2.998425E-2	6.650808E-4	-3.170263E-2	-9.055928E-4	-2.115287E-2	-3.285363E-2	-1.328650E-2	-1.956212E-2	-1.996946E-2	-1.670499E-2	-1.443943E-2	-3.507310E-2	-1.426988E-2	-1.600736E-2	-5.474726E-3	-3.201739E-3	-2.618962E-2	3.449453E-3	-1.720676E-2	5.084416E-3	-3.738454E-3	-1.514336E-2	-9.162991E-3	9.946823E-4	-1.162887E-2	-8.017676E-3	-8.940983E-3	-1.955410E-2	-7.790633E-3	-2.935760E-2	-8.967310E-3	-1.852689E-2	-2.179207E-2	-1.893249E-2	3.272886E-3	-9.146062E-3	-2.622480E-2	-2.143745E-2	-1.743900E-2	-7.465948E-4	-5.720031E-3	-1.419424E-2	-2.567690E-3	-5.265031E-3	-2.076620E-2	-1.026787E-2	-9.404850E-3	-1.663585E-2	-9.292768E-3	-1.949736E-2	-2.139743E-2	1.050802E-2	-1.743242E-2	-1.760786E-2	-1.047151E-2	3.557141E-3	-1.918242E-2	-1.632776E-2	-7.399729E-3	-7.789672E-3	-9.254637E-3	-1.972179E-2	-1.111301E-2	-1.860299E-3	1.494765E-3	-2.068842E-2	-5.405761E-4	-1.465051E-2	-2.593533E-2	-1.684724E-2	-3.855305E-2	-1.710093E-2	-2.555012E-3	-2.384753E-2	-1.793296E-2	-1.061039E-2	-1.467187E-2	-2.423626E-2	-6.662202E-3	-1.207129E-2	-6.354796E-3	-5.894526E-3	-7.084622E-3	-1.587445E-2	-4.356129E-3	-1.530209E-3	4.503044E-3	-3.034257E-3	-1.716938E-2	-1.203440E-2	8.235790E-3	-2.561785E-2	-5.306251E-3	-1.287747E-2	-8.690193E-3	-1.188836E-2	-2.490772E-3	-2.515731E-2	-1.750053E-2	-9.554875E-3	-2.550438E-2	-9.962858E-3	-1.180189E-2	-2.080563E-2	-2.421379E-2	-3.857189E-3	-5.838788E-3	-1.927227E-3	-2.386316E-2	-1.581966E-2
5.325120E+2	2.118985E-2	1.201969E-2	-1.605589E-3	9.745854E-3	2.648279E-2	5.713530E-4	2.049716E-2	2.431339E-2	2.011977E-2	4.218125E-3	-1.558447E-3	1.063153E-2	1.857562E-2	2.004111E-2	2.300931E-2	9.270820E-3	4.707010E-3	1.593261E-2	2.171876E-3	1.525989E-2	9.725999E-3	1.057335E-2	9.216953E-3	1.798031E-2	-6.229801E-3	6.817377E-3	1.170652E-2	6.125260E-3	1.602891E-2	2.094643E-3	-7.368464E-4	-1.862291E-3	1.817763E-2	1.207181E-2	1.518979E-3	1.039957E-2	-2.161384E-3	1.503511E-3	5.732005E-3	-2.458123E-4	1.936531E-3	3.763227E-3	1.681584E-2	7.550841E-3	2.129322E-2	1.422212E-2	4.939599E-3	1.728215E-2	-2.713273E-4	7.996602E-3	1.460701E-2	1.324140E-2	1.155429E-2	1.977087E-2	7.422693E-3	9.438250E-3	1.277273E-2	3.153843E-3	1.891188E-2	1.534530E-2	7.453429E-3	2.754843E-2	8.040354E-3	4.485015E-3	5.369730E-3	1.676535E-4	1.050851E-2	-6.811416E-3	2.715545E-2	2.123108E-2	6.750927E-3	8.510118E-3	2.621311E-3	2.423981E-3	4.926328E-3	1.135842E-2	9.158529E-3	8.317631E-3	1.712547E-2	2.728633E-2	-7.243470E-4	2.058727E-2	1.860955E-2	6.427626E-3	2.097197E-2	2.160375E-3	7.631564E-3	-6.819900E-4	2.057641E-3	2.039234E-2	1.415900E-2	1.257934E-2	2.414171E-2	3.321567E-2	1.865136E-2	1.007574E-2	1.765976E-3	1.287007E-3	1.885591E-2	2.571425E-2	7.989124E-3	1.750820E-2	1.068108E-2	1.505381E-2	2.079989E-3	1.570325E-2	2.347602E-3	3.294502E-3	8.950952E-3	9.450024E-3	1.863823E-2	4.232164E-4	1.416637E-2	2.612996E-3	-6.965475E-4	2.719750E-3	6.612550E-3	-4.201694E-3	8.194896E-3	2.116595E-2	1.971945E-2	1.480559E-2	1.428168E-2	2.954313E-3	1.143587E-2	1.948890E-2	6.032192E-4	-2.714870E-3	1.992460E-2	1.792791E-2	5.727533E-3	1.920364E-2	1.695747E-2	1.002874E-2	1.251993E-2	1.891448E-2	4.924374E-3	1.350200E-2	1.139024E-2	7.997369E-3	1.867575E-2	8.721745E-3	2.701345E-3	-1.197380E-3	6.725405E-4	-3.361428E-3	-2.299628E-3	2.934908E-3	-1.888028E-3	2.288043E-2	1.578299E-2	2.231150E-3	2.590576E-2	1.384195E-2	-8.698693E-4	1.126572E-2	2.355560E-2	2.576555E-2	9.667751E-3	4.450161E-3	3.573401E-2	2.664429E-4	1.509399E-2	3.898169E-2	1.413364E-2	-1.036225E-3
5.330080E+2	4.609628E-2	4.011177E-2	6.292213E-2	6.189506E-2	6.093911E-2	5.231994E-2	4.888406E-2	5.750586E-2	4.749388E-2	4.572529E-2	5.113654E-2	4.486357E-2	5.373721E-2	3.777588E-2	5.016794E-2	6.029443E-2	5.788428E-2	4.137911E-2	3.557335E-2	2.812182E-2	4.620988E-2	4.489181E-2	3.526368E-2	4.457079E-2	3.811673E-2	4.215307E-2	4.108923E-2	5.470989E-2	4.213713E-2	5.236024E-2	3.958268E-2	5.121389E-2	4.491761E-2	4.938317E-2	3.810786E-2	4.833307E-2	4.418451E-2	5.757640E-2	4.860932E-2	4.353404E-2	3.517370E-2	5.908013E-2	5.615569E-2	5.337908E-2	3.543716E-2	4.055275E-2	1.287426E-2	5.959997E-2	5.347625E-2	3.920722E-2	4.978807E-2	5.499039E-2	4.770950E-2	4.139230E-2	3.343482E-2	4.954279E-2	4.908010E-2	3.816266E-2	4.038311E-2	3.822536E-2	1.975085E-2	5.765335E-2	4.854585E-2	4.592049E-2	6.693645E-2	5.555079E-2	3.847451E-2	2.237388E-2	6.193833E-2	4.052089E-2	3.204575E-2	4.230671E-2	3.473301E-2	4.996521E-2	5.313313E-2	4.410055E-2	6.114392E-2	4.695184E-2	4.697782E-2	5.372193E-2	4.116529E-2	5.588908E-2	4.736374E-2	3.550449E-2	5.061947E-2	4.583951E-2	5.538592E-2	5.267459E-2	3.290592E-2	5.921733E-2	5.081559E-2	5.887094E-2	3.412151E-2	3.795478E-2	4.800624E-2	4.644782E-2	5.290446E-2	6.340273E-2	4.158950E-2	3.327167E-2	3.080279E-2	2.786228E-2	2.690623E-2	3.490586E-2	5.061934E-2	6.015852E-2	3.845749E-2	5.457884E-2	5.542799E-2	6.137682E-2	4.787405E-2	3.685698E-2	3.811230E-2	2.240011E-2	5.626473E-2	3.602095E-2	4.451675E-2	3.152233E-2	6.638520E-2	5.210454E-2	5.153795E-2	4.255211E-2	2.839631E-2	5.830270E-2	6.371674E-2	5.873798E-2	6.255559E-2	5.037108E-2	5.969066E-2	3.740926E-2	3.402587E-2	4.917500E-2	6.186550E-2	7.156631E-2	6.255333E-2	2.225845E-2	4.674738E-2	2.617083E-2	4.374961E-2	6.318409E-2	4.182352E-2	6.328758E-2	5.651221E-2	2.044288E-2	4.300613E-2	5.416531E-2	3.956822E-2	4.735393E-2	6.385957E-2	5.045105E-2	1.769133E-2	4.860085E-2	4.074940E-2	5.656444E-2	2.670487E-2	5.841268E-2	4.985264E-2	3.223865E-2	5.474860E-2	4.188476E-2	6.531664E-2	6.209515E-2	5.903719E-2	4.892479E-2	3.970815E-2	4.750696E-2
5.332150E+2	4.338172E-2	4.948805E-2	2.600436E-2	5.309469E-2	2.718226E-2	4.637692E-2	5.249862E-2	3.544737E-2	8.827254E-3	4.613521E-2	4.908506E-2	1.897754E-2	3.459120E-2	4.077170E-2	2.427887E-2	2.472760E-2	2.099731E-2	2.629043E-2	3.765378E-2	4.478839E-2	2.232728E-2	3.204882E-2	4.478909E-2	2.807631E-2	2.839662E-2	3.464068E-2	3.728690E-2	4.940105E-2	2.870816E-2	2.783934E-2	4.106626E-2	2.213225E-2	1.621382E-2	8.709145E-3	3.284617E-2	6.408171E-2	4.939500E-2	5.526950E-2	3.557029E-2	2.362215E-2	4.507593E-2	2.797892E-2	4.923749E-2	3.208083E-2	6.497472E-3	3.753070E-2	2.870349E-2	3.987044E-2	5.755520E-2	3.771607E-2	2.580540E-2	4.478917E-2	3.133431E-2	5.219686E-2	4.686545E-2	5.305016E-2	2.555507E-2	4.419892E-2	4.826755E-2	3.268661E-2	4.006041E-2	2.925140E-2	3.229221E-2	6.559142E-2	2.168351E-2	2.393996E-2	3.093477E-2	1.538157E-2	5.328152E-2	2.069098E-2	1.326919E-2	5.735230E-2	4.947397E-2	5.471144E-2	1.018255E-2	3.666692E-2	3.363823E-2	4.028383E-2	3.771901E-2	4.694753E-2	3.642710E-2	5.940410E-2	3.763234E-2	4.732037E-2	4.690353E-2	4.729615E-2	3.250135E-2	3.302859E-2	3.799216E-2	4.236333E-2	3.027216E-2	3.649260E-2	4.060430E-2	1.265608E-2	4.015501E-2	2.145956E-2	3.987413E-2	4.729516E-2	1.598693E-2	5.336515E-2	4.561566E-2	4.961863E-2	4.455539E-2	2.949944E-2	2.366491E-2	3.830840E-2	3.646992E-2	4.991832E-2	3.456094E-2	4.332500E-2	2.961237E-2	2.389288E-2	4.450715E-2	3.706403E-2	3.998137E-2	4.908942E-2	3.647001E-2	3.961743E-2	4.342188E-2	3.344185E-2	5.058237E-2	4.163683E-3	3.266097E-2	3.843132E-2	2.420243E-2	3.813667E-2	3.104278E-2	6.428738E-2	5.304797E-2	2.242018E-2	3.450404E-2	3.017535E-2	4.559002E-2	5.265093E-2	6.658976E-2	4.029835E-2	4.799701E-2	4.096076E-2	2.966141E-2	2.940900E-2	2.593114E-2	3.074623E-2	3.872009E-2	4.295256E-2	3.817961E-2	4.282064E-2	2.357854E-2	6.050680E-2	4.511726E-2	3.839864E-2	2.646820E-2	4.113611E-2	1.626793E-2	2.742029E-2	7.696279E-3	5.214514E-2	3.402415E-2	4.212701E-2	3.637068E-2	3.651140E-2	5.731331E-2	3.261998E-2	2.391121E-2	1.809491E-2	2.342581E-2	6.255660E-2
5.334160E+2	2.147102E-2	2.215056E-2	4.160847E-2	2.086645E-2	7.255072E-3	1.190962E-2	2.247744E-2	2.066086E-2	2.365520E-4	1.280225E-2	2.428121E-2	7.331694E-3	2.639104E-2	2.533077E-2	2.804602E-2	3.650561E-3	2.411588E-3	1.260452E-2	2.254873E-4	1.576646E-2	7.498106E-3	-1.408113E-3	4.089482E-2	2.142575E-2	5.719736E-3	1.864260E-2	1.236270E-2	1.551027E-2	1.269490E-2	2.657816E-3	-2.375590E-3	1.771538E-3	1.316390E-2	3.155954E-2	1.741123E-2	3.715460E-2	2.349833E-2	1.037943E-2	1.120502E-2	2.905417E-2	1.408939E-2	2.260859E-2	1.608371E-2	2.430841E-2	3.103433E-2	1.978589E-2	8.156879E-5	-5.611911E-3	1.936687E-2	8.739408E-3	2.502997E-2	2.268473E-2	2.836567E-2	1.917870E-2	8.497940E-3	3.158767E-2	2.007923E-2	6.518358E-3	-5.666578E-3	1.963518E-2	1.213448E-2	1.139685E-2	2.217064E-2	1.829982E-2	6.584283E-3	1.925310E-2	-4.893494E-3	2.086359E-2	3.391629E-2	5.180931E-3	3.984307E-3	1.509312E-2	7.858944E-3	4.404990E-3	2.558378E-2	-8.472398E-3	2.461663E-2	1.159539E-2	1.765215E-2	2.460202E-2	-4.753174E-3	3.454625E-2	7.184093E-3	2.255450E-2	1.673527E-2	1.720222E-2	2.654992E-2	2.519858E-2	1.260153E-2	2.482250E-2	3.049280E-2	1.143825E-2	1.237681E-2	1.477144E-2	2.637318E-2	2.230802E-2	2.576307E-4	8.357274E-3	-7.129235E-3	1.292006E-2	4.684789E-3	3.115561E-2	2.306662E-2	7.664950E-3	2.056506E-2	3.686392E-2	1.289276E-2	2.680684E-2	3.038636E-2	1.434009E-2	1.258710E-2	1.370710E-2	1.268956E-2	-2.622286E-3	-1.490587E-3	8.614430E-3	2.074118E-2	4.452638E-2	2.179881E-2	1.351034E-2	3.544762E-2	2.500175E-2	3.377019E-2	2.732026E-2	2.204977E-2	4.506754E-2	8.069099E-4	1.184496E-2	5.575386E-3	-1.012377E-2	2.444717E-2	9.430799E-3	6.658201E-3	1.710625E-2	1.226832E-2	7.969801E-3	2.111467E-2	1.011042E-2	1.988242E-2	2.031807E-2	1.014082E-2	1.746412E-2	1.221767E-2	1.298866E-2	-7.148979E-3	-1.405217E-3	2.302363E-2	1.957111E-2	1.482714E-2	3.695940E-2	1.407314E-2	1.126056E-2	7.946773E-3	1.459751E-2	2.145194E-2	-3.011493E-3	2.347171E-2	9.149927E-3	9.338112E-3	3.495242E-2	2.722507E-2	2.799095E-2	1.291598E-2	3.440143E-2	7.184099E-3	2.457357E-2
5.336130E+2	2.733671E-2	1.110788E-2	1.333975E-2	1.549569E-2	4.379287E-3	2.430375E-2	1.002470E-2	7.472410E-3	-5.389539E-3	-3.046370E-3	-1.356843E-3	2.077622E-3	5.750685E-3	-5.428733E-4	-1.008515E-2	1.739005E-2	7.110756E-3	1.174182E-2	1.406357E-2	1.179869E-2	-1.162118E-2	1.845399E-2	-2.431934E-3	8.836565E-3	4.733886E-3	-4.109166E-3	-1.862222E-2	2.483063E-2	-8.738796E-3	9.754155E-3	-1.425549E-2	1.268471E-2	7.219702E-3	2.436868E-2	1.391764E-2	2.514393E-2	-7.333612E-3	1.155357E-2	-3.177781E-3	-1.483615E-3	-1.616584E-3	6.142388E-3	2.133681E-2	3.304768E-3	1.440091E-2	-1.219349E-2	-5.409403E-3	9.792425E-4	1.068124E-2	1.132097E-2	3.187690E-3	1.485438E-2	1.052394E-2	2.110116E-2	1.713460E-3	-1.428760E-3	-4.205164E-3	2.727681E-2	-5.902870E-3	-1.200538E-2	-1.530592E-2	-3.271084E-3	1.060057E-2	6.015559E-3	1.302423E-2	-6.074366E-3	-6.398913E-3	1.075064E-2	1.829102E-2	-5.368339E-3	3.223606E-3	1.483053E-2	-1.319892E-2	9.856214E-3	2.340708E-2	-1.400491E-2	-8.279529E-4	8.741198E-3	8.298991E-3	-1.092274E-2	-1.172680E-2	3.583984E-2	2.263580E-2	1.783852E-2	1.583419E-2	-4.622849E-3	-1.394223E-2	-5.296581E-3	3.973141E-5	-1.999773E-2	1.334637E-2	2.018576E-2	-3.480797E-2	-2.087372E-2	2.465009E-3	1.220421E-2	3.655039E-3	-1.008311E-2	1.143107E-2	1.751073E-2	7.927549E-3	4.608350E-3	7.983568E-4	-4.734620E-3	2.262254E-2	-4.673781E-3	6.483751E-3	9.168014E-3	1.425106E-2	-4.553067E-3	2.085131E-2	-7.258205E-3	5.788280E-3	9.003226E-4	-3.942173E-3	4.342134E-3	1.229754E-3	2.744497E-4	7.100935E-3	8.314001E-3	1.483931E-2	-4.126154E-3	1.283628E-2	1.195663E-2	1.980764E-2	-5.158648E-3	-1.759237E-2	1.028565E-2	1.259223E-2	1.095724E-3	1.789757E-2	-8.063609E-3	1.159317E-2	4.363410E-3	1.163716E-2	1.811821E-2	-8.353857E-3	5.821920E-3	1.968452E-2	-2.109850E-2	-1.797052E-2	1.007139E-2	7.077406E-3	2.086711E-2	1.343468E-2	1.184423E-2	1.040391E-2	1.112826E-2	1.418836E-3	1.161763E-2	3.838899E-3	2.243026E-2	6.849299E-3	6.663018E-3	1.249406E-2	-1.061118E-2	3.381090E-2	3.680823E-3	1.395096E-3	2.149565E-2	8.497857E-3	9.799843E-3	-2.088632E-2	1.065709E-2	-1.335595E-2	5.454445E-2
5.338050E+2	5.224076E-3	1.642061E-2	3.453229E-2	4.638207E-2	7.986940E-3	5.027013E-2	2.331182E-2	2.006636E-2	3.737948E-2	4.303555E-2	1.280697E-2	5.363450E-3	3.243909E-2	4.121116E-2	3.749199E-2	5.218664E-2	1.744332E-2	2.372562E-2	2.788220E-2	4.127469E-2	4.479108E-2	2.558695E-2	2.968608E-2	3.494340E-2	2.699455E-2	3.291003E-2	3.696000E-2	2.747922E-2	3.692487E-2	2.410626E-2	1.479471E-2	3.905581E-2	6.911427E-3	3.463151E-2	3.915342E-2	3.075271E-2	2.241557E-2	4.009714E-2	3.918165E-2	4.008285E-2	2.532728E-2	1.392582E-2	2.380234E-2	3.851143E-2	2.865052E-2	4.054537E-2	1.504924E-2	2.392759E-2	4.162390E-2	6.205520E-3	2.878953E-2	6.240577E-2	3.999576E-2	2.429612E-2	2.668725E-2	5.921349E-2	3.992290E-2	2.141742E-2	4.919472E-2	1.252555E-2	2.839800E-2	3.824974E-2	2.382586E-2	2.794140E-2	3.801902E-2	2.965426E-2	2.674913E-2	3.315112E-2	1.944333E-2	4.127733E-2	3.381300E-2	1.884140E-2	2.557897E-2	3.300016E-2	2.455456E-2	3.473672E-2	3.230242E-2	2.787274E-2	3.714703E-2	2.941546E-2	2.681818E-2	3.705969E-2	3.085797E-2	4.153720E-2	2.708912E-2	2.392644E-2	2.464645E-2	5.082764E-2	1.199105E-2	3.315960E-2	2.869648E-2	3.942218E-2	9.628877E-3	2.235248E-2	3.451081E-2	4.536871E-2	3.666101E-2	4.592000E-2	2.706736E-2	2.531273E-2	5.995121E-2	1.360856E-2	3.481580E-2	5.037719E-2	2.389825E-2	2.753154E-2	2.404682E-2	1.414167E-2	3.488749E-2	3.761628E-2	3.140690E-2	2.617631E-2	5.314902E-2	-1.685169E-3	2.145078E-2	3.143413E-3	2.097409E-2	3.437683E-2	5.182474E-2	2.960020E-2	4.475437E-2	4.870543E-2	4.067583E-2	4.067067E-2	3.944425E-2	3.734188E-2	9.942913E-3	4.092392E-2	4.271638E-2	2.794850E-2	5.043528E-2	4.451710E-2	2.679056E-2	4.842991E-2	1.686650E-2	2.670479E-2	3.158393E-2	4.558306E-2	3.575318E-2	2.795686E-2	3.487601E-2	4.799538E-2	9.496747E-3	3.550457E-2	2.778255E-2	3.558198E-2	3.897280E-2	2.754806E-2	4.307189E-2	3.813389E-2	2.711700E-2	4.136978E-2	4.625012E-2	2.708844E-2	3.443648E-2	2.067287E-2	1.779187E-2	1.223651E-2	3.998532E-2	2.942878E-2	2.836575E-2	3.606648E-2	2.676839E-2	2.061955E-2	3.376975E-2	2.583800E-2
5.340070E+2	9.282003E-2	9.954273E-2	8.964369E-2	7.489139E-2	8.322165E-2	8.127345E-2	1.024555E-1	7.169321E-2	7.132984E-2	6.415941E-2	8.177424E-2	9.286959E-2	9.677377E-2	8.006229E-2	9.195308E-2	7.834822E-2	9.925959E-2	7.550798E-2	7.005552E-2	1.001764E-1	8.052166E-2	1.136551E-1	7.249329E-2	8.812764E-2	6.334741E-2	8.562722E-2	6.127797E-2	8.795907E-2	9.363602E-2	8.726158E-2	6.831346E-2	7.334908E-2	7.724991E-2	8.316166E-2	7.069833E-2	1.045074E-1	1.168839E-1	9.502381E-2	8.732084E-2	1.138671E-1	9.841975E-2	6.197673E-2	8.429062E-2	5.932022E-2	8.397354E-2	7.591512E-2	5.787533E-2	7.313502E-2	7.069259E-2	6.640120E-2	7.510642E-2	8.445314E-2	7.112887E-2	1.017701E-1	8.656933E-2	8.295788E-2	8.060812E-2	8.658492E-2	7.334934E-2	8.659613E-2	9.187021E-2	6.679755E-2	5.611818E-2	8.723704E-2	7.523220E-2	8.639936E-2	5.949171E-2	8.124997E-2	1.012127E-1	1.029891E-1	7.739467E-2	9.392894E-2	5.741739E-2	9.211016E-2	7.485520E-2	8.609836E-2	1.039173E-1	9.676511E-2	7.548709E-2	9.461087E-2	8.575168E-2	8.274324E-2	8.312479E-2	8.515525E-2	9.612796E-2	8.360368E-2	9.687476E-2	5.982812E-2	6.972490E-2	8.896014E-2	8.560498E-2	1.109844E-1	8.416879E-2	9.124611E-2	7.074282E-2	7.556966E-2	9.714861E-2	9.358791E-2	7.826548E-2	8.480397E-2	6.895508E-2	7.964876E-2	1.022928E-1	7.968582E-2	6.105949E-2	8.381471E-2	1.029716E-1	9.301734E-2	1.082318E-1	6.409961E-2	9.124878E-2	5.056554E-2	8.970210E-2	8.517959E-2	9.947948E-2	8.435123E-2	8.122508E-2	8.010420E-2	1.129746E-1	8.430005E-2	7.126694E-2	7.860361E-2	8.470212E-2	1.003447E-1	9.070884E-2	9.754559E-2	6.919082E-2	9.990497E-2	7.097036E-2	7.298772E-2	7.986830E-2	9.749398E-2	7.257003E-2	7.734309E-2	5.799449E-2	8.304771E-2	9.801320E-2	1.147825E-1	7.654039E-2	8.824872E-2	8.525662E-2	8.963634E-2	8.980917E-2	1.042611E-1	8.494528E-2	1.084954E-1	8.896878E-2	1.132082E-1	8.897005E-2	8.898446E-2	8.931096E-2	6.495905E-2	8.432938E-2	9.074614E-2	4.322821E-2	7.004626E-2	9.501924E-2	7.877614E-2	7.962169E-2	9.084934E-2	7.593576E-2	9.230793E-2	7.273953E-2	9.935153E-2	8.552479E-2	1.097049E-1
5.342040E+2	1.096288E-1	1.224014E-1	9.011606E-2	8.297094E-2	1.009617E-1	1.114578E-1	9.565762E-2	8.678334E-2	9.312303E-2	8.864453E-2	6.975790E-2	1.015391E-1	1.124579E-1	9.949450E-2	1.023452E-1	8.473620E-2	8.220704E-2	9.669724E-2	1.105450E-1	1.101017E-1	1.039954E-1	9.346966E-2	9.924838E-2	1.033794E-1	1.117949E-1	1.096378E-1	1.147477E-1	8.415526E-2	1.065497E-1	9.723094E-2	1.036815E-1	8.862283E-2	8.424582E-2	7.672374E-2	1.166001E-1	1.146951E-1	9.480510E-2	9.354648E-2	1.009423E-1	9.030361E-2	8.128010E-2	9.152921E-2	9.169808E-2	1.107267E-1	1.099207E-1	8.507516E-2	9.081498E-2	9.003558E-2	1.183320E-1	7.122771E-2	9.841276E-2	1.067482E-1	9.643022E-2	8.648101E-2	8.321767E-2	9.335796E-2	6.173667E-2	1.132864E-1	7.970777E-2	6.197830E-2	6.903871E-2	1.081730E-1	8.385795E-2	1.018252E-1	1.253420E-1	1.115810E-1	8.135464E-2	9.894769E-2	1.002944E-1	8.731299E-2	7.826411E-2	1.039424E-1	1.039440E-1	9.273792E-2	9.933643E-2	1.061886E-1	9.409912E-2	9.740488E-2	8.203824E-2	9.479175E-2	8.509884E-2	9.065694E-2	1.122103E-1	8.426985E-2	8.619457E-2	9.020706E-2	8.511619E-2	9.149186E-2	8.962736E-2	1.079467E-1	1.075837E-1	1.093016E-1	7.801652E-2	9.406377E-2	8.686424E-2	1.216085E-1	1.049105E-1	1.133008E-1	1.099405E-1	1.180623E-1	1.006482E-1	9.603362E-2	1.100669E-1	8.225111E-2	9.471034E-2	8.589041E-2	1.043058E-1	6.846474E-2	9.477007E-2	9.817389E-2	1.019298E-1	9.364717E-2	1.037419E-1	8.573700E-2	7.937578E-2	1.008904E-1	9.185558E-2	1.067738E-1	1.062652E-1	9.207689E-2	9.848821E-2	8.792449E-2	1.128008E-1	9.704484E-2	1.455745E-1	8.493977E-2	8.091986E-2	1.050158E-1	1.152129E-1	6.781591E-2	1.106583E-1	1.012190E-1	1.177026E-1	1.069208E-1	9.574877E-2	1.067013E-1	8.904999E-2	8.763716E-2	1.323839E-1	1.167901E-1	1.039153E-1	8.145206E-2	9.833128E-2	1.116199E-1	1.127162E-1	1.020050E-1	8.323690E-2	1.138076E-1	1.020429E-1	1.243167E-1	8.990907E-2	8.328494E-2	8.994471E-2	8.989199E-2	1.025488E-1	9.307990E-2	1.239522E-1	8.886997E-2	1.157401E-1	9.290903E-2	9.719000E-2	7.527785E-2	7.223498E-2	8.389607E-2	8.834323E-2	1.005314E-1
5.344070E+2	7.978816E-2	9.240804E-2	1.206292E-1	1.321350E-1	1.255777E-1	1.218485E-1	9.063087E-2	1.380260E-1	1.365812E-1	1.113799E-1	1.088448E-1	1.294559E-1	1.434894E-1	1.198492E-1	1.070668E-1	1.415577E-1	1.405177E-1	1.201532E-1	9.594507E-2	1.035154E-1	1.111539E-1	1.240419E-1	1.301313E-1	1.293631E-1	1.309607E-1	1.137929E-1	1.182159E-1	1.302697E-1	1.209135E-1	1.087441E-1	1.144165E-1	1.259346E-1	1.223272E-1	1.207662E-1	1.181890E-1	1.257545E-1	1.228468E-1	1.113519E-1	1.216006E-1	8.878551E-2	1.244964E-1	1.490375E-1	1.130161E-1	1.244177E-1	1.216580E-1	1.180434E-1	9.983063E-2	8.806859E-2	1.164368E-1	1.265620E-1	1.076527E-1	1.364884E-1	1.223392E-1	1.263851E-1	1.324237E-1	1.279713E-1	1.222889E-1	1.198515E-1	1.379555E-1	1.154749E-1	9.858490E-2	1.372698E-1	1.222139E-1	1.492022E-1	1.233833E-1	1.228673E-1	1.141544E-1	1.374616E-1	1.559287E-1	1.223829E-1	1.261623E-1	1.319309E-1	1.425396E-1	1.302413E-1	1.119289E-1	1.200889E-1	1.494435E-1	1.240388E-1	1.256964E-1	1.034245E-1	1.365799E-1	1.190762E-1	1.332676E-1	1.210528E-1	1.354870E-1	1.289815E-1	1.122525E-1	1.274135E-1	1.179542E-1	1.028926E-1	1.063526E-1	9.184394E-2	1.087460E-1	1.128276E-1	1.335532E-1	1.241912E-1	1.264498E-1	1.095976E-1	1.165770E-1	1.326467E-1	1.094415E-1	1.214782E-1	1.239796E-1	1.465471E-1	1.120217E-1	1.080780E-1	1.185480E-1	1.132009E-1	1.485194E-1	1.158861E-1	1.341397E-1	8.846543E-2	1.177200E-1	1.315261E-1	1.232152E-1	1.293453E-1	1.117420E-1	1.203844E-1	1.430469E-1	1.342947E-1	1.003335E-1	8.141863E-2	1.450001E-1	1.169989E-1	1.308386E-1	1.108286E-1	1.225032E-1	1.180177E-1	1.321999E-1	1.211902E-1	1.115723E-1	1.410942E-1	1.350251E-1	1.326710E-1	1.450260E-1	1.352252E-1	1.265507E-1	1.183958E-1	1.196427E-1	1.137810E-1	1.352689E-1	1.282125E-1	1.242599E-1	1.094859E-1	9.102889E-2	1.135475E-1	1.209884E-1	1.324433E-1	1.264721E-1	1.530088E-1	9.655678E-2	1.377576E-1	1.473462E-1	1.000864E-1	1.228916E-1	1.126090E-1	1.286737E-1	1.300964E-1	1.216641E-1	1.337922E-1	1.417848E-1	1.228483E-1	1.218490E-1	1.392544E-1	5.063590E-2	1.754105E-1
5.346150E+2	1.899327E-1	1.844835E-1	2.061266E-1	1.694169E-1	2.097470E-1	1.797351E-1	1.907960E-1	2.064996E-1	2.091708E-1	1.802813E-1	1.970835E-1	2.166177E-1	1.959708E-1	1.865630E-1	1.809899E-1	1.946203E-1	1.996490E-1	1.986801E-1	1.915062E-1	1.770636E-1	1.694110E-1	1.946263E-1	2.068934E-1	1.740454E-1	1.994876E-1	2.310436E-1	1.794029E-1	1.811052E-1	1.708212E-1	2.081291E-1	1.968977E-1	1.895875E-1	2.082421E-1	2.089715E-1	1.867511E-1	1.646750E-1	1.804166E-1	2.045353E-1	1.750279E-1	1.664346E-1	1.946106E-1	2.141320E-1	1.878599E-1	1.874099E-1	1.833254E-1	1.910680E-1	1.763473E-1	1.973705E-1	1.813790E-1	1.825860E-1	1.800311E-1	1.974557E-1	1.907336E-1	2.186757E-1	2.010938E-1	2.039449E-1	2.009744E-1	2.197423E-1	1.883126E-1	2.100347E-1	1.973319E-1	1.917495E-1	1.857521E-1	2.090965E-1	2.120920E-1	2.113063E-1	1.825689E-1	2.086674E-1	1.951333E-1	2.070432E-1	1.942382E-1	1.888858E-1	1.886748E-1	1.777024E-1	1.889238E-1	1.978448E-1	1.866057E-1	1.897173E-1	2.209386E-1	2.001319E-1	2.232034E-1	1.950395E-1	1.890725E-1	2.084409E-1	2.058884E-1	1.866677E-1	1.808701E-1	2.238176E-1	1.834242E-1	1.985431E-1	2.105468E-1	2.224856E-1	1.837994E-1	1.866093E-1	1.835017E-1	2.107773E-1	1.827837E-1	2.122101E-1	1.973751E-1	2.063019E-1	1.822528E-1	1.888544E-1	2.110066E-1	1.656616E-1	2.025490E-1	1.928574E-1	2.060307E-1	1.852669E-1	2.134145E-1	2.089700E-1	1.955011E-1	2.175877E-1	1.885826E-1	1.798129E-1	2.328709E-1	2.008933E-1	2.060736E-1	2.008439E-1	1.807455E-1	2.264318E-1	1.994414E-1	2.109830E-1	2.167166E-1	2.000991E-1	1.759965E-1	2.170740E-1	1.677661E-1	1.761273E-1	2.011320E-1	2.023222E-1	2.030245E-1	2.251233E-1	2.090240E-1	1.955015E-1	1.800293E-1	2.111467E-1	1.766669E-1	2.155032E-1	2.317543E-1	1.823264E-1	1.901507E-1	1.974723E-1	1.818553E-1	1.901420E-1	2.283144E-1	2.137287E-1	1.723289E-1	1.956795E-1	1.860211E-1	2.159649E-1	1.724246E-1	1.987159E-1	2.001707E-1	1.969333E-1	1.911299E-1	1.928634E-1	2.062274E-1	1.981508E-1	1.775108E-1	1.928884E-1	1.974137E-1	1.689627E-1	1.610829E-1	2.381068E-1	1.501653E-1	2.306852E-1
5.348180E+2	4.038344E-1	3.849244E-1	4.196435E-1	3.919833E-1	4.001385E-1	4.236169E-1	4.547284E-1	4.109201E-1	4.030582E-1	4.110822E-1	4.052856E-1	4.060679E-1	4.160738E-1	3.857970E-1	4.072807E-1	4.109435E-1	4.078693E-1	4.044748E-1	4.129302E-1	4.037286E-1	3.961834E-1	4.552795E-1	4.482253E-1	4.030192E-1	3.975615E-1	4.378545E-1	4.301242E-1	4.179856E-1	4.413427E-1	4.337554E-1	4.364197E-1	4.114918E-1	4.083110E-1	4.436537E-1	3.473152E-1	4.483174E-1	4.036165E-1	4.164017E-1	3.810465E-1	4.264347E-1	4.497064E-1	4.135862E-1	3.978335E-1	3.781652E-1	3.968032E-1	4.452816E-1	4.167156E-1	4.124255E-1	4.615513E-1	3.966659E-1	4.067290E-1	4.130014E-1	4.043786E-1	3.889872E-1	4.224001E-1	4.405898E-1	3.632417E-1	3.915888E-1	3.843031E-1	4.158183E-1	4.015504E-1	4.086266E-1	3.870464E-1	3.931461E-1	4.014527E-1	4.169235E-1	4.349028E-1	4.216191E-1	4.523203E-1	3.707979E-1	4.210785E-1	4.002742E-1	4.348507E-1	4.114624E-1	3.894493E-1	3.909880E-1	4.475673E-1	4.293668E-1	4.162709E-1	4.243528E-1	4.143314E-1	4.399663E-1	4.218743E-1	3.869843E-1	4.236717E-1	4.157139E-1	3.952230E-1	3.596435E-1	4.005463E-1	4.275517E-1	3.906057E-1	4.193005E-1	4.235627E-1	4.233013E-1	4.538859E-1	4.372195E-1	4.106307E-1	4.201724E-1	4.429629E-1	4.334209E-1	4.375232E-1	3.843065E-1	3.968299E-1	3.703929E-1	3.852660E-1	4.432152E-1	4.184031E-1	3.971944E-1	4.338548E-1	3.940130E-1	3.898703E-1	4.147002E-1	4.582525E-1	4.055622E-1	3.977914E-1	4.017837E-1	4.282912E-1	4.011668E-1	4.690263E-1	3.790820E-1	4.838472E-1	4.221500E-1	4.069439E-1	4.146918E-1	4.115500E-1	4.532559E-1	3.967117E-1	3.876176E-1	4.298548E-1	4.103018E-1	4.090227E-1	3.825045E-1	4.505292E-1	3.640559E-1	4.029144E-1	4.032913E-1	4.128502E-1	4.032262E-1	4.199851E-1	3.913632E-1	4.122156E-1	3.953794E-1	3.792961E-1	3.932799E-1	4.146381E-1	4.176036E-1	4.222832E-1	4.144242E-1	3.996731E-1	3.972014E-1	3.863381E-1	4.044757E-1	4.324574E-1	4.071293E-1	3.759532E-1	3.919100E-1	4.222484E-1	4.248706E-1	4.065728E-1	4.063204E-1	4.026181E-1	3.857909E-1	4.229292E-1	4.106970E-1	4.415828E-1	3.314986E-1
5.350100E+2	7.992396E-1	8.054707E-1	7.747818E-1	7.629472E-1	8.013193E-1	8.178695E-1	7.411331E-1	7.501763E-1	7.642988E-1	7.928316E-1	7.921463E-1	8.525621E-1	8.077792E-1	7.913166E-1	8.046019E-1	8.135427E-1	8.388878E-1	8.206638E-1	8.512146E-1	8.080252E-1	8.154184E-1	8.005189E-1	8.226957E-1	8.245104E-1	7.620441E-1	7.771394E-1	8.226875E-1	8.160662E-1	8.144824E-1	8.092340E-1	7.694067E-1	8.551876E-1	8.038693E-1	7.976452E-1	7.976068E-1	8.357058E-1	8.032619E-1	8.033416E-1	7.666673E-1	7.587989E-1	8.150375E-1	7.487594E-1	8.452088E-1	8.086316E-1	8.209102E-1	8.564113E-1	7.734305E-1	8.417067E-1	7.954609E-1	7.964271E-1	7.753921E-1	8.211583E-1	8.411197E-1	8.105682E-1	7.639550E-1	8.133531E-1	7.964698E-1	8.137870E-1	8.265572E-1	8.013159E-1	7.674543E-1	7.700018E-1	8.378355E-1	7.649606E-1	8.422127E-1	8.473175E-1	8.120499E-1	8.241795E-1	8.159864E-1	7.707760E-1	7.851590E-1	8.064539E-1	8.632558E-1	8.015153E-1	8.108064E-1	7.539204E-1	8.430194E-1	7.493745E-1	8.280339E-1	7.274041E-1	8.276584E-1	7.616369E-1	8.585931E-1	7.762359E-1	8.229065E-1	7.762234E-1	7.845703E-1	8.607094E-1	8.052989E-1	8.098445E-1	8.223591E-1	7.907481E-1	8.118318E-1	8.046618E-1	8.333624E-1	7.861869E-1	8.171625E-1	7.783680E-1	8.446422E-1	7.960511E-1	8.060650E-1	8.441909E-1	7.780198E-1	8.150700E-1	8.004724E-1	8.490280E-1	8.181111E-1	8.350746E-1	7.747518E-1	7.521381E-1	8.135676E-1	8.226557E-1	8.679487E-1	7.906442E-1	8.001118E-1	8.307945E-1	7.930933E-1	8.084239E-1	8.793291E-1	7.661002E-1	7.941262E-1	8.402909E-1	8.169057E-1	7.783176E-1	8.126309E-1	7.826395E-1	7.763495E-1	7.698163E-1	7.868102E-1	8.089756E-1	8.037671E-1	8.428910E-1	7.751373E-1	8.459279E-1	7.616810E-1	8.029016E-1	7.919700E-1	8.124752E-1	7.570528E-1	7.915402E-1	7.918467E-1	7.660614E-1	8.241269E-1	8.185902E-1	8.050427E-1	7.950247E-1	7.778352E-1	8.040017E-1	8.193217E-1	7.652276E-1	8.054873E-1	8.330071E-1	8.351794E-1	8.241825E-1	8.345014E-1	8.207110E-1	8.367908E-1	7.963041E-1	7.864146E-1	7.783907E-1	8.242177E-1	7.931372E-1	8.178174E-1	7.611383E-1	8.393484E-1	9.151744E-1
5.352080E+2	1.112105E+0	1.140321E+0	1.181649E+0	1.160100E+0	1.146885E+0	1.129315E+0	1.268344E+0	1.117216E+0	1.163415E+0	1.109278E+0	1.145886E+0	1.137163E+0	1.181105E+0	1.164631E+0	1.165958E+0	1.151695E+0	1.139780E+0	1.131289E+0	1.165826E+0	1.085452E+0	1.186529E+0	1.136438E+0	1.190321E+0	1.155318E+0	1.187182E+0	1.136175E+0	1.161230E+0	1.123908E+0	1.180347E+0	1.153269E+0	1.159050E+0	1.173951E+0	1.217659E+0	1.178040E+0	1.203973E+0	1.171012E+0	1.200082E+0	1.152083E+0	1.092801E+0	1.078531E+0	1.109520E+0	1.219378E+0	1.166887E+0	1.153323E+0	1.171035E+0	1.146249E+0	1.161087E+0	1.157203E+0	1.116121E+0	1.166734E+0	1.148969E+0	1.116083E+0	1.235560E+0	1.158305E+0	1.165097E+0	1.177102E+0	1.158973E+0	1.174611E+0	1.155849E+0	1.123546E+0	1.106809E+0	1.198067E+0	1.119700E+0	1.135282E+0	1.161470E+0	1.212328E+0	1.162731E+0	1.190686E+0	1.209058E+0	1.143395E+0	1.180826E+0	1.180693E+0	1.146685E+0	1.078426E+0	1.076987E+0	1.142250E+0	1.219824E+0	1.158135E+0	1.154280E+0	1.119393E+0	1.244615E+0	1.171235E+0	1.177582E+0	1.129652E+0	1.174891E+0	1.173390E+0	1.174885E+0	1.117846E+0	1.150633E+0	1.232015E+0	1.132753E+0	1.157096E+0	1.206544E+0	1.203843E+0	1.181598E+0	1.209766E+0	1.147560E+0	1.136297E+0	1.167838E+0	1.153177E+0	1.155176E+0	1.138017E+0	1.114979E+0	1.204596E+0	1.157978E+0	1.254136E+0	1.190482E+0	1.164477E+0	1.136459E+0	1.119007E+0	1.204814E+0	1.113937E+0	1.144736E+0	1.192798E+0	1.219288E+0	1.112616E+0	1.132866E+0	1.116338E+0	1.159315E+0	1.105421E+0	1.089866E+0	1.203099E+0	1.181533E+0	1.096254E+0	1.112156E+0	1.207376E+0	1.124964E+0	1.115830E+0	1.189824E+0	1.178110E+0	1.134825E+0	1.140479E+0	1.245109E+0	1.189761E+0	1.114241E+0	1.073518E+0	1.196555E+0	1.118422E+0	1.117812E+0	1.153193E+0	1.085267E+0	1.143198E+0	1.145255E+0	1.114084E+0	1.178567E+0	1.090739E+0	1.151872E+0	1.105299E+0	1.176350E+0	1.122875E+0	1.159921E+0	1.112373E+0	1.188414E+0	1.177662E+0	1.110332E+0	1.226706E+0	1.154569E+0	1.184877E+0	1.108556E+0	1.142075E+0	1.156922E+0	1.115463E+0	1.171464E+0	1.108615E+0	1.224750E+0	1.103921E+0
5.354110E+2	1.372871E+0	1.326465E+0	1.453094E+0	1.349658E+0	1.359705E+0	1.299083E+0	1.359629E+0	1.337378E+0	1.425126E+0	1.389259E+0	1.422397E+0	1.412824E+0	1.346755E+0	1.416426E+0	1.352399E+0	1.377315E+0	1.394789E+0	1.397983E+0	1.423351E+0	1.338417E+0	1.425907E+0	1.445386E+0	1.409396E+0	1.361941E+0	1.404508E+0	1.353631E+0	1.430808E+0	1.370379E+0	1.361793E+0	1.333725E+0	1.375376E+0	1.392361E+0	1.374805E+0	1.369494E+0	1.373934E+0	1.431495E+0	1.395802E+0	1.368528E+0	1.341930E+0	1.410621E+0	1.366111E+0	1.435145E+0	1.409702E+0	1.358692E+0	1.360322E+0	1.393644E+0	1.372996E+0	1.351850E+0	1.400660E+0	1.368566E+0	1.409779E+0	1.441693E+0	1.370652E+0	1.461091E+0	1.367525E+0	1.403903E+0	1.429772E+0	1.334979E+0	1.460617E+0	1.380523E+0	1.337853E+0	1.425875E+0	1.320785E+0	1.409045E+0	1.340956E+0	1.358615E+0	1.387924E+0	1.391075E+0	1.433472E+0	1.337877E+0	1.330998E+0	1.375163E+0	1.477245E+0	1.402798E+0	1.355915E+0	1.410288E+0	1.447822E+0	1.393516E+0	1.354814E+0	1.401978E+0	1.462671E+0	1.421842E+0	1.429947E+0	1.429585E+0	1.381410E+0	1.420326E+0	1.398283E+0	1.328819E+0	1.362846E+0	1.375653E+0	1.376752E+0	1.372404E+0	1.453797E+0	1.405379E+0	1.421881E+0	1.354288E+0	1.480922E+0	1.325332E+0	1.373789E+0	1.331035E+0	1.376322E+0	1.347540E+0	1.371300E+0	1.412095E+0	1.366979E+0	1.475176E+0	1.427208E+0	1.356485E+0	1.398229E+0	1.348325E+0	1.342592E+0	1.349403E+0	1.391251E+0	1.369697E+0	1.391740E+0	1.325631E+0	1.320802E+0	1.346016E+0	1.386310E+0	1.409270E+0	1.427528E+0	1.413588E+0	1.409228E+0	1.303593E+0	1.408943E+0	1.353056E+0	1.390565E+0	1.361653E+0	1.418964E+0	1.357663E+0	1.370471E+0	1.319660E+0	1.391267E+0	1.345159E+0	1.369038E+0	1.381163E+0	1.377774E+0	1.406600E+0	1.393850E+0	1.441570E+0	1.446214E+0	1.242549E+0	1.363254E+0	1.405299E+0	1.453203E+0	1.356188E+0	1.309082E+0	1.424648E+0	1.431378E+0	1.352896E+0	1.406674E+0	1.336348E+0	1.437820E+0	1.428056E+0	1.393938E+0	1.367615E+0	1.342966E+0	1.364228E+0	1.300604E+0	1.356933E+0	1.359114E+0	1.359372E+0	1.256908E+0	1.367482E+0	1.334447E+0	1.149968E+0
5.356150E+2	1.512062E+0	1.499003E+0	1.520690E+0	1.504419E+0	1.432537E+0	1.471847E+0	1.496373E+0	1.462736E+0	1.415727E+0	1.434366E+0	1.441836E+0	1.548443E+0	1.517430E+0	1.510807E+0	1.454612E+0	1.480395E+0	1.495901E+0	1.450292E+0	1.510175E+0	1.476652E+0	1.509613E+0	1.528383E+0	1.518677E+0	1.527659E+0	1.535690E+0	1.464567E+0	1.462516E+0	1.465825E+0	1.463955E+0	1.453644E+0	1.466367E+0	1.435980E+0	1.538641E+0	1.556375E+0	1.442684E+0	1.489075E+0	1.478099E+0	1.518736E+0	1.510718E+0	1.467623E+0	1.502343E+0	1.516027E+0	1.455543E+0	1.460329E+0	1.514589E+0	1.444177E+0	1.437542E+0	1.509258E+0	1.523988E+0	1.442499E+0	1.419576E+0	1.487051E+0	1.478960E+0	1.530097E+0	1.533680E+0	1.466582E+0	1.502711E+0	1.516569E+0	1.573030E+0	1.431274E+0	1.443997E+0	1.557956E+0	1.506407E+0	1.511291E+0	1.471988E+0	1.490259E+0	1.458634E+0	1.508145E+0	1.483550E+0	1.480188E+0	1.564828E+0	1.431527E+0	1.539373E+0	1.524731E+0	1.476008E+0	1.456280E+0	1.520242E+0	1.472003E+0	1.463823E+0	1.382388E+0	1.483847E+0	1.499457E+0	1.432453E+0	1.507509E+0	1.433698E+0	1.477320E+0	1.467330E+0	1.440091E+0	1.542629E+0	1.511187E+0	1.489208E+0	1.443637E+0	1.414509E+0	1.433136E+0	1.440832E+0	1.512652E+0	1.506811E+0	1.423815E+0	1.514305E+0	1.495690E+0	1.413805E+0	1.457327E+0	1.404435E+0	1.510045E+0	1.436839E+0	1.506901E+0	1.553471E+0	1.473670E+0	1.417473E+0	1.497940E+0	1.494237E+0	1.450992E+0	1.454668E+0	1.471085E+0	1.471085E+0	1.450423E+0	1.482046E+0	1.447208E+0	1.508412E+0	1.474743E+0	1.483366E+0	1.568052E+0	1.530877E+0	1.465389E+0	1.463768E+0	1.470760E+0	1.520086E+0	1.418128E+0	1.496968E+0	1.506226E+0	1.457245E+0	1.454528E+0	1.463770E+0	1.453881E+0	1.370680E+0	1.509491E+0	1.480738E+0	1.427893E+0	1.485712E+0	1.463559E+0	1.447257E+0	1.418325E+0	1.465096E+0	1.490501E+0	1.541412E+0	1.448766E+0	1.430343E+0	1.487511E+0	1.464675E+0	1.457512E+0	1.464671E+0	1.463954E+0	1.474229E+0	1.430508E+0	1.493318E+0	1.423583E+0	1.513531E+0	1.453384E+0	1.438548E+0	1.414376E+0	1.474414E+0	1.413240E+0	1.380310E+0	1.484446E+0	1.336273E+0	1.244396E+0
5.358130E+2	1.567163E+0	1.612031E+0	1.603949E+0	1.583347E+0	1.493938E+0	1.537260E+0	1.633837E+0	1.686812E+0	1.514949E+0	1.572137E+0	1.670673E+0	1.589543E+0	1.622266E+0	1.633604E+0	1.519137E+0	1.652167E+0	1.569262E+0	1.610178E+0	1.536631E+0	1.558303E+0	1.602506E+0	1.607460E+0	1.640380E+0	1.544271E+0	1.623798E+0	1.555140E+0	1.559303E+0	1.614025E+0	1.583684E+0	1.511635E+0	1.575049E+0	1.615662E+0	1.577943E+0	1.636381E+0	1.586345E+0	1.698499E+0	1.643489E+0	1.573525E+0	1.527221E+0	1.544875E+0	1.588560E+0	1.617672E+0	1.561468E+0	1.494545E+0	1.682722E+0	1.550574E+0	1.620860E+0	1.618683E+0	1.676039E+0	1.635054E+0	1.562437E+0	1.597177E+0	1.631558E+0	1.543390E+0	1.602877E+0	1.556878E+0	1.602915E+0	1.626062E+0	1.648786E+0	1.604846E+0	1.574594E+0	1.553020E+0	1.544851E+0	1.507713E+0	1.558892E+0	1.605463E+0	1.604521E+0	1.586698E+0	1.601058E+0	1.568541E+0	1.612173E+0	1.583772E+0	1.688732E+0	1.539119E+0	1.538229E+0	1.611219E+0	1.703236E+0	1.597898E+0	1.626012E+0	1.514148E+0	1.615576E+0	1.613606E+0	1.598421E+0	1.515272E+0	1.638220E+0	1.542570E+0	1.509778E+0	1.643029E+0	1.594774E+0	1.622848E+0	1.559080E+0	1.551965E+0	1.600161E+0	1.593778E+0	1.601912E+0	1.621376E+0	1.660401E+0	1.576416E+0	1.619119E+0	1.598608E+0	1.552029E+0	1.554242E+0	1.506363E+0	1.579077E+0	1.567209E+0	1.709724E+0	1.602468E+0	1.560772E+0	1.560151E+0	1.540030E+0	1.665180E+0	1.553701E+0	1.550730E+0	1.584870E+0	1.581952E+0	1.593770E+0	1.530952E+0	1.582976E+0	1.603234E+0	1.555942E+0	1.606067E+0	1.609527E+0	1.565513E+0	1.525228E+0	1.541235E+0	1.612590E+0	1.572930E+0	1.490601E+0	1.641587E+0	1.536249E+0	1.626519E+0	1.528221E+0	1.592098E+0	1.581058E+0	1.508521E+0	1.494008E+0	1.548045E+0	1.529917E+0	1.575541E+0	1.616878E+0	1.580800E+0	1.513425E+0	1.506952E+0	1.555739E+0	1.666090E+0	1.465947E+0	1.602985E+0	1.517887E+0	1.612773E+0	1.492677E+0	1.557245E+0	1.543675E+0	1.612128E+0	1.582598E+0	1.568838E+0	1.592789E+0	1.507586E+0	1.542026E+0	1.556173E+0	1.578879E+0	1.561732E+0	1.546602E+0	1.636795E+0	1.609033E+0	1.521028E+0	1.509383E+0
5.360120E+2	1.708974E+0	1.741914E+0	1.752080E+0	1.735559E+0	1.662637E+0	1.671885E+0	1.717789E+0	1.765852E+0	1.714850E+0	1.747298E+0	1.724586E+0	1.841356E+0	1.773076E+0	1.750093E+0	1.696178E+0	1.712784E+0	1.700639E+0	1.649995E+0	1.735411E+0	1.710765E+0	1.743304E+0	1.720896E+0	1.681178E+0	1.767872E+0	1.758123E+0	1.701878E+0	1.687889E+0	1.707443E+0	1.716843E+0	1.760266E+0	1.637225E+0	1.672306E+0	1.677716E+0	1.709633E+0	1.745729E+0	1.767529E+0	1.713455E+0	1.716011E+0	1.737631E+0	1.743672E+0	1.723658E+0	1.744402E+0	1.649795E+0	1.744475E+0	1.670202E+0	1.749304E+0	1.796026E+0	1.726894E+0	1.715133E+0	1.775517E+0	1.764541E+0	1.674344E+0	1.739502E+0	1.721033E+0	1.756342E+0	1.686831E+0	1.709247E+0	1.742188E+0	1.817710E+0	1.725102E+0	1.649775E+0	1.713955E+0	1.663131E+0	1.681605E+0	1.683485E+0	1.694209E+0	1.708044E+0	1.713180E+0	1.715745E+0	1.725874E+0	1.703291E+0	1.683892E+0	1.745287E+0	1.696521E+0	1.691625E+0	1.716288E+0	1.768426E+0	1.754944E+0	1.688551E+0	1.681441E+0	1.774192E+0	1.743799E+0	1.686297E+0	1.684279E+0	1.741648E+0	1.655975E+0	1.657799E+0	1.702900E+0	1.700851E+0	1.775431E+0	1.667594E+0	1.746203E+0	1.704660E+0	1.816080E+0	1.745414E+0	1.703470E+0	1.776759E+0	1.663721E+0	1.763308E+0	1.684213E+0	1.721806E+0	1.772930E+0	1.662559E+0	1.701769E+0	1.748718E+0	1.725854E+0	1.790739E+0	1.617183E+0	1.713656E+0	1.718947E+0	1.634433E+0	1.630976E+0	1.726214E+0	1.676053E+0	1.631368E+0	1.697652E+0	1.679531E+0	1.643639E+0	1.676844E+0	1.651481E+0	1.690162E+0	1.728112E+0	1.786881E+0	1.645158E+0	1.704321E+0	1.728139E+0	1.735900E+0	1.647088E+0	1.709498E+0	1.821200E+0	1.598878E+0	1.678922E+0	1.717562E+0	1.684326E+0	1.615115E+0	1.661224E+0	1.616961E+0	1.644668E+0	1.706561E+0	1.667450E+0	1.598844E+0	1.584507E+0	1.674880E+0	1.714007E+0	1.723024E+0	1.621313E+0	1.676702E+0	1.697048E+0	1.689960E+0	1.717094E+0	1.748593E+0	1.696508E+0	1.689645E+0	1.673986E+0	1.746270E+0	1.725046E+0	1.654881E+0	1.674533E+0	1.692952E+0	1.715544E+0	1.622121E+0	1.625476E+0	1.670544E+0	1.753129E+0	1.678690E+0	1.822207E+0
5.362050E+2	1.699736E+0	1.804369E+0	1.794580E+0	1.763403E+0	1.698370E+0	1.697102E+0	1.773884E+0	1.718695E+0	1.696302E+0	1.682764E+0	1.686654E+0	1.816492E+0	1.770007E+0	1.692802E+0	1.750615E+0	1.791908E+0	1.709556E+0	1.697175E+0	1.773569E+0	1.761982E+0	1.835628E+0	1.755639E+0	1.786843E+0	1.695373E+0	1.814603E+0	1.648638E+0	1.807044E+0	1.749576E+0	1.734394E+0	1.803183E+0	1.666179E+0	1.764124E+0	1.744084E+0	1.708865E+0	1.719500E+0	1.838927E+0	1.776562E+0	1.722651E+0	1.764234E+0	1.767247E+0	1.758466E+0	1.735287E+0	1.740148E+0	1.733090E+0	1.769428E+0	1.757664E+0	1.713849E+0	1.801207E+0	1.772341E+0	1.711692E+0	1.613594E+0	1.775895E+0	1.708978E+0	1.814972E+0	1.697509E+0	1.757511E+0	1.715504E+0	1.752050E+0	1.786772E+0	1.746094E+0	1.668006E+0	1.814465E+0	1.694318E+0	1.663480E+0	1.706920E+0	1.737115E+0	1.781646E+0	1.737877E+0	1.685502E+0	1.786400E+0	1.699627E+0	1.655909E+0	1.764309E+0	1.651687E+0	1.699003E+0	1.640675E+0	1.774940E+0	1.683982E+0	1.690452E+0	1.731750E+0	1.830249E+0	1.754348E+0	1.706266E+0	1.717278E+0	1.692742E+0	1.711267E+0	1.682737E+0	1.699469E+0	1.743645E+0	1.748723E+0	1.720854E+0	1.698081E+0	1.757348E+0	1.737050E+0	1.784067E+0	1.728468E+0	1.748339E+0	1.695149E+0	1.761860E+0	1.708282E+0	1.682461E+0	1.696346E+0	1.727837E+0	1.705806E+0	1.675760E+0	1.801525E+0	1.752896E+0	1.696955E+0	1.672930E+0	1.690013E+0	1.707330E+0	1.740536E+0	1.742465E+0	1.701262E+0	1.751965E+0	1.712167E+0	1.699528E+0	1.739773E+0	1.762341E+0	1.743637E+0	1.739312E+0	1.731775E+0	1.718839E+0	1.618541E+0	1.666174E+0	1.732595E+0	1.697778E+0	1.656301E+0	1.704682E+0	1.813173E+0	1.653964E+0	1.688960E+0	1.706959E+0	1.709815E+0	1.700996E+0	1.705480E+0	1.666490E+0	1.637935E+0	1.729901E+0	1.764523E+0	1.609244E+0	1.655938E+0	1.777466E+0	1.750378E+0	1.748565E+0	1.658365E+0	1.723212E+0	1.732149E+0	1.691393E+0	1.719725E+0	1.710747E+0	1.738879E+0	1.714050E+0	1.791982E+0	1.741224E+0	1.695049E+0	1.723005E+0	1.721783E+0	1.628126E+0	1.678106E+0	1.664456E+0	1.669032E+0	1.647534E+0	1.645903E+0	1.665809E+0	1.730748E+0
5.364090E+2	1.379477E+0	1.449821E+0	1.491710E+0	1.406376E+0	1.366953E+0	1.319664E+0	1.367405E+0	1.492238E+0	1.419832E+0	1.430256E+0	1.433910E+0	1.451597E+0	1.423176E+0	1.468832E+0	1.459862E+0	1.466604E+0	1.457785E+0	1.417231E+0	1.375474E+0	1.420180E+0	1.456586E+0	1.482641E+0	1.433130E+0	1.451757E+0	1.459956E+0	1.399774E+0	1.479917E+0	1.488835E+0	1.334990E+0	1.449477E+0	1.483538E+0	1.461200E+0	1.463523E+0	1.423134E+0	1.379935E+0	1.525088E+0	1.414628E+0	1.474425E+0	1.460201E+0	1.415710E+0	1.472803E+0	1.463768E+0	1.419770E+0	1.432690E+0	1.421018E+0	1.424544E+0	1.420471E+0	1.460651E+0	1.428663E+0	1.440591E+0	1.486549E+0	1.441995E+0	1.433310E+0	1.471141E+0	1.439665E+0	1.444111E+0	1.477161E+0	1.474955E+0	1.470481E+0	1.370631E+0	1.416901E+0	1.366943E+0	1.451671E+0	1.421287E+0	1.455620E+0	1.519809E+0	1.403157E+0	1.424475E+0	1.489275E+0	1.479935E+0	1.415509E+0	1.397273E+0	1.467798E+0	1.342239E+0	1.413227E+0	1.419754E+0	1.518971E+0	1.467731E+0	1.411068E+0	1.362619E+0	1.499394E+0	1.446356E+0	1.530700E+0	1.388825E+0	1.407298E+0	1.467322E+0	1.439121E+0	1.437751E+0	1.460553E+0	1.456743E+0	1.464360E+0	1.434225E+0	1.481685E+0	1.406956E+0	1.480810E+0	1.432720E+0	1.447346E+0	1.381565E+0	1.434408E+0	1.373826E+0	1.464154E+0	1.333352E+0	1.391033E+0	1.389913E+0	1.423129E+0	1.456520E+0	1.507582E+0	1.441940E+0	1.439581E+0	1.403903E+0	1.421466E+0	1.405794E+0	1.479723E+0	1.492756E+0	1.346173E+0	1.397461E+0	1.475844E+0	1.438534E+0	1.455740E+0	1.444057E+0	1.370873E+0	1.455794E+0	1.448517E+0	1.460254E+0	1.455108E+0	1.479479E+0	1.409470E+0	1.396830E+0	1.425322E+0	1.450012E+0	1.390151E+0	1.391750E+0	1.420383E+0	1.394058E+0	1.386731E+0	1.447037E+0	1.365247E+0	1.352990E+0	1.390859E+0	1.469442E+0	1.370683E+0	1.368544E+0	1.383890E+0	1.403371E+0	1.442622E+0	1.343974E+0	1.422243E+0	1.403368E+0	1.506488E+0	1.420168E+0	1.500350E+0	1.417817E+0	1.458754E+0	1.395321E+0	1.498576E+0	1.458648E+0	1.436212E+0	1.391395E+0	1.399586E+0	1.397606E+0	1.418002E+0	1.407770E+0	1.455500E+0	1.412603E+0	1.322049E+0	1.459713E+0
5.366080E+2	1.171350E+0	1.141656E+0	1.123149E+0	1.143322E+0	1.138919E+0	1.136130E+0	1.145114E+0	1.143818E+0	1.154249E+0	1.134823E+0	1.094643E+0	1.165572E+0	1.144153E+0	1.248661E+0	1.083218E+0	1.168174E+0	1.174760E+0	1.110411E+0	1.213283E+0	1.162469E+0	1.163350E+0	1.157124E+0	1.166174E+0	1.077667E+0	1.195841E+0	1.196964E+0	1.155868E+0	1.188738E+0	1.149639E+0	1.200107E+0	1.147998E+0	1.132126E+0	1.192611E+0	1.113989E+0	1.136882E+0	1.267910E+0	1.141540E+0	1.166100E+0	1.142013E+0	1.171765E+0	1.157818E+0	1.177312E+0	1.128247E+0	1.072278E+0	1.171570E+0	1.156640E+0	1.210268E+0	1.135582E+0	1.211847E+0	1.184796E+0	1.162888E+0	1.194254E+0	1.168236E+0	1.218477E+0	1.141211E+0	1.191138E+0	1.183867E+0	1.196741E+0	1.218013E+0	1.196069E+0	1.125954E+0	1.155678E+0	1.170420E+0	1.124378E+0	1.189402E+0	1.212951E+0	1.173469E+0	1.172878E+0	1.163298E+0	1.166398E+0	1.131215E+0	1.158519E+0	1.206159E+0	1.174995E+0	1.201844E+0	1.160725E+0	1.241939E+0	1.141002E+0	1.145679E+0	1.187112E+0	1.252177E+0	1.186978E+0	1.183607E+0	1.187060E+0	1.127314E+0	1.164692E+0	1.149740E+0	1.170076E+0	1.165941E+0	1.183588E+0	1.164791E+0	1.148212E+0	1.150686E+0	1.140173E+0	1.172486E+0	1.121577E+0	1.126711E+0	1.136741E+0	1.170212E+0	1.162790E+0	1.130931E+0	1.137465E+0	1.167089E+0	1.218556E+0	1.167566E+0	1.153415E+0	1.183067E+0	1.133756E+0	1.134672E+0	1.170376E+0	1.149165E+0	1.200909E+0	1.217356E+0	1.189125E+0	1.181548E+0	1.163142E+0	1.068792E+0	1.122857E+0	1.110874E+0	1.166609E+0	1.143255E+0	1.162478E+0	1.137962E+0	1.136778E+0	1.152909E+0	1.163325E+0	1.158257E+0	1.129184E+0	1.138236E+0	1.201416E+0	1.095093E+0	1.120475E+0	1.241466E+0	1.152030E+0	1.102489E+0	1.117041E+0	1.154820E+0	1.141793E+0	1.170629E+0	1.122760E+0	1.112538E+0	1.139507E+0	1.154174E+0	1.167610E+0	1.215776E+0	1.108687E+0	1.113361E+0	1.112432E+0	1.130907E+0	1.141618E+0	1.197907E+0	1.158195E+0	1.139625E+0	1.197418E+0	1.140454E+0	1.197244E+0	1.152797E+0	1.096314E+0	1.155464E+0	1.143205E+0	1.152569E+0	1.083950E+0	1.186602E+0	1.120254E+0	1.062908E+0	1.095070E+0
5.368180E+2	9.838917E-1	9.697868E-1	9.715657E-1	9.486176E-1	9.532601E-1	9.382131E-1	9.939395E-1	9.650342E-1	9.446639E-1	9.531843E-1	9.576224E-1	9.270560E-1	9.606700E-1	9.499566E-1	9.368561E-1	9.956028E-1	9.785790E-1	9.788028E-1	9.114378E-1	9.497758E-1	9.652662E-1	9.411719E-1	1.013029E+0	9.290503E-1	9.400246E-1	9.374114E-1	9.564660E-1	9.916533E-1	9.627987E-1	9.414791E-1	9.318637E-1	8.970048E-1	9.823076E-1	9.512788E-1	9.806974E-1	9.936498E-1	9.819606E-1	9.345834E-1	8.993626E-1	9.546342E-1	9.433113E-1	9.129664E-1	9.428215E-1	9.329745E-1	9.081277E-1	9.657661E-1	9.541729E-1	9.757553E-1	9.727008E-1	9.175063E-1	8.848700E-1	9.566996E-1	9.861543E-1	9.289763E-1	9.832292E-1	9.277668E-1	9.225945E-1	9.476084E-1	1.014183E+0	9.335862E-1	9.183714E-1	9.525778E-1	9.243959E-1	9.436107E-1	9.521614E-1	9.355637E-1	9.424453E-1	9.858628E-1	9.054871E-1	9.672131E-1	9.838309E-1	9.288838E-1	9.701203E-1	8.936318E-1	9.527296E-1	9.236458E-1	9.477165E-1	9.340985E-1	9.121655E-1	8.943762E-1	9.789878E-1	9.536759E-1	9.238634E-1	9.281696E-1	9.401560E-1	9.551535E-1	9.478118E-1	9.344113E-1	9.655819E-1	9.394131E-1	9.700728E-1	8.776457E-1	9.294458E-1	9.975592E-1	9.468480E-1	9.585787E-1	9.431478E-1	9.732570E-1	1.000519E+0	9.611271E-1	9.238948E-1	9.650913E-1	9.184821E-1	9.684076E-1	9.645008E-1	9.171099E-1	1.013245E+0	9.130119E-1	9.260718E-1	9.193888E-1	9.921359E-1	9.236620E-1	9.022634E-1	9.685749E-1	9.993508E-1	9.889359E-1	9.429129E-1	9.701290E-1	9.304749E-1	9.223689E-1	9.478175E-1	9.890821E-1	9.590883E-1	9.252739E-1	1.033701E+0	9.551718E-1	9.341598E-1	9.274998E-1	9.375802E-1	8.945934E-1	9.170249E-1	9.585819E-1	9.847119E-1	9.202871E-1	9.092350E-1	8.997126E-1	9.215495E-1	9.199150E-1	9.532976E-1	9.676209E-1	9.392722E-1	9.083895E-1	9.316597E-1	9.137851E-1	1.002024E+0	9.314716E-1	9.584773E-1	9.192098E-1	9.784816E-1	9.631515E-1	9.390688E-1	9.525084E-1	1.002549E+0	9.804449E-1	1.023183E+0	9.701586E-1	1.022311E+0	9.397111E-1	9.177389E-1	9.067939E-1	9.299006E-1	9.387681E-1	9.455135E-1	9.396429E-1	9.454720E-1	1.005985E+0
5.370170E+2	9.099151E-1	9.571749E-1	8.911690E-1	9.417985E-1	9.376356E-1	8.389045E-1	9.428910E-1	9.524470E-1	9.435820E-1	8.960041E-1	8.919545E-1	9.525167E-1	9.395635E-1	9.422788E-1	9.176979E-1	9.268621E-1	9.059088E-1	8.356344E-1	9.608507E-1	9.313189E-1	9.350544E-1	9.432793E-1	9.714152E-1	9.683551E-1	9.369627E-1	9.183289E-1	9.175066E-1	9.193785E-1	9.183182E-1	9.058262E-1	8.974856E-1	9.303438E-1	9.070895E-1	8.740947E-1	9.199190E-1	9.573698E-1	9.272834E-1	9.153289E-1	9.131022E-1	9.029342E-1	9.140905E-1	9.112437E-1	8.824961E-1	9.299784E-1	9.198782E-1	9.446325E-1	8.936653E-1	9.484810E-1	8.972582E-1	9.064960E-1	9.237404E-1	9.457709E-1	9.344330E-1	9.362190E-1	9.095140E-1	9.521490E-1	9.350981E-1	8.857341E-1	9.338149E-1	8.675210E-1	9.050439E-1	9.411416E-1	8.936417E-1	9.482129E-1	9.419694E-1	9.214973E-1	9.166157E-1	9.128012E-1	8.792090E-1	9.234608E-1	9.322788E-1	8.520265E-1	8.946796E-1	8.819649E-1	9.126427E-1	9.048992E-1	9.853460E-1	8.400126E-1	8.973591E-1	9.094411E-1	9.406035E-1	9.751762E-1	9.346047E-1	9.119102E-1	9.036705E-1	9.084269E-1	9.690077E-1	9.347345E-1	9.010145E-1	8.746383E-1	9.543541E-1	9.032246E-1	9.513109E-1	8.966246E-1	8.933394E-1	9.240188E-1	9.243269E-1	8.519453E-1	9.189889E-1	9.225717E-1	9.323561E-1	9.227075E-1	8.972961E-1	9.323956E-1	9.398182E-1	9.427347E-1	9.452351E-1	9.782507E-1	9.152892E-1	9.043490E-1	9.162373E-1	8.693042E-1	8.611074E-1	9.383736E-1	9.756859E-1	9.456854E-1	9.643578E-1	8.039732E-1	9.334580E-1	9.370034E-1	8.857786E-1	9.228165E-1	9.413213E-1	8.853480E-1	8.876977E-1	9.594409E-1	8.176266E-1	9.109070E-1	9.199469E-1	8.858296E-1	9.471141E-1	8.993827E-1	9.932469E-1	9.015107E-1	9.392093E-1	9.138614E-1	8.767249E-1	8.995744E-1	9.341829E-1	8.890046E-1	9.103098E-1	9.003991E-1	9.325242E-1	9.462015E-1	9.860297E-1	8.730929E-1	9.071227E-1	9.103913E-1	9.046712E-1	9.282871E-1	9.617275E-1	9.164025E-1	9.326948E-1	9.183079E-1	9.665976E-1	9.272741E-1	9.385014E-1	9.302962E-1	9.084826E-1	8.708504E-1	9.206602E-1	9.005068E-1	9.366607E-1	8.669401E-1	8.858574E-1	9.471830E-1
5.372010E+2	9.760330E-1	1.090891E+0	1.056022E+0	9.249834E-1	1.003455E+0	1.003744E+0	1.043042E+0	9.465269E-1	1.038898E+0	9.552850E-1	9.740318E-1	1.044617E+0	9.966082E-1	9.885482E-1	9.734140E-1	1.023238E+0	9.398189E-1	1.003657E+0	9.723707E-1	9.520349E-1	9.806432E-1	9.815154E-1	1.020464E+0	9.380938E-1	1.029814E+0	9.880336E-1	9.815812E-1	1.016751E+0	9.536098E-1	9.808891E-1	1.007451E+0	9.820783E-1	1.039618E+0	9.688800E-1	9.830619E-1	1.053217E+0	1.018515E+0	9.762605E-1	9.667995E-1	9.498982E-1	1.040049E+0	9.996251E-1	1.009881E+0	1.000546E+0	9.800114E-1	1.033491E+0	1.065631E+0	1.018636E+0	9.777857E-1	9.816228E-1	9.354924E-1	1.021459E+0	9.962610E-1	1.008229E+0	9.890440E-1	1.007853E+0	9.785612E-1	9.923114E-1	1.067262E+0	9.508689E-1	9.946920E-1	9.875213E-1	9.854973E-1	1.006155E+0	1.033652E+0	1.016577E+0	9.820991E-1	9.852392E-1	1.074936E+0	9.879461E-1	1.016466E+0	1.003884E+0	1.037935E+0	9.469472E-1	9.823747E-1	9.859048E-1	1.000763E+0	9.795346E-1	9.999246E-1	1.001390E+0	1.003349E+0	1.052590E+0	1.015968E+0	1.003014E+0	1.022859E+0	9.495694E-1	1.038313E+0	9.633744E-1	1.039670E+0	1.049007E+0	9.641723E-1	1.005744E+0	9.770383E-1	9.942446E-1	1.024510E+0	1.027660E+0	1.055267E+0	9.294684E-1	9.818494E-1	9.794864E-1	1.030132E+0	9.883163E-1	9.722191E-1	9.963107E-1	1.015755E+0	9.532971E-1	1.030073E+0	1.020063E+0	9.846335E-1	9.590638E-1	9.925206E-1	9.541264E-1	9.951403E-1	1.006955E+0	9.858630E-1	9.753123E-1	9.751218E-1	9.199279E-1	1.008589E+0	1.017905E+0	9.862473E-1	1.032935E+0	9.724908E-1	1.034434E+0	1.036568E+0	1.056644E+0	9.471193E-1	9.880767E-1	1.012913E+0	1.001677E+0	9.981494E-1	9.570698E-1	9.918182E-1	9.913110E-1	1.004825E+0	9.730879E-1	9.371228E-1	9.862578E-1	1.024604E+0	1.011479E+0	1.005517E+0	9.712467E-1	9.998458E-1	1.037285E+0	1.052344E+0	9.854421E-1	9.719210E-1	1.024841E+0	9.620492E-1	9.828627E-1	1.002287E+0	9.814993E-1	1.015948E+0	1.007433E+0	1.011036E+0	1.025025E+0	9.986702E-1	1.021071E+0	9.815879E-1	9.822559E-1	9.683903E-1	9.587316E-1	9.303150E-1	9.502301E-1	9.684108E-1	1.031428E+0
5.374220E+2	1.119751E+0	1.085922E+0	1.103449E+0	1.126203E+0	1.079660E+0	1.099834E+0	1.125624E+0	1.161191E+0	1.054673E+0	1.054030E+0	1.117719E+0	1.101818E+0	1.124944E+0	1.100799E+0	1.078005E+0	1.088037E+0	1.081847E+0	1.049696E+0	1.079404E+0	1.102849E+0	1.062944E+0	1.070968E+0	1.102664E+0	1.091642E+0	1.075301E+0	1.085719E+0	1.073249E+0	1.102940E+0	1.075913E+0	1.065287E+0	1.076290E+0	1.059746E+0	1.125845E+0	1.067054E+0	1.093505E+0	1.148241E+0	1.106333E+0	1.093627E+0	1.051258E+0	1.064203E+0	1.096008E+0	1.103539E+0	1.076889E+0	1.057933E+0	1.117120E+0	1.097779E+0	1.141743E+0	1.140221E+0	1.099985E+0	1.115140E+0	1.114472E+0	1.055784E+0	1.073834E+0	1.052065E+0	1.029366E+0	1.081336E+0	1.125108E+0	1.028867E+0	1.145616E+0	1.089368E+0	1.015500E+0	1.064153E+0	1.029720E+0	1.075364E+0	1.077352E+0	1.127319E+0	1.095374E+0	1.125859E+0	1.071497E+0	1.063091E+0	1.115546E+0	1.070418E+0	1.092865E+0	1.043884E+0	1.098096E+0	1.040491E+0	1.096136E+0	1.130791E+0	1.122958E+0	1.092238E+0	1.094328E+0	1.120191E+0	1.103091E+0	1.088627E+0	1.100193E+0	1.081936E+0	1.104302E+0	1.078827E+0	1.056989E+0	1.179165E+0	1.095937E+0	1.045371E+0	1.130358E+0	1.082373E+0	1.103924E+0	1.065915E+0	1.105489E+0	1.096205E+0	1.117872E+0	1.128072E+0	1.076937E+0	1.068347E+0	1.100902E+0	1.087752E+0	1.055347E+0	1.103511E+0	1.154874E+0	1.118208E+0	1.131598E+0	1.102420E+0	1.076268E+0	1.069296E+0	1.104788E+0	1.120777E+0	1.056370E+0	1.108149E+0	1.066677E+0	1.038943E+0	1.070718E+0	1.117233E+0	1.055407E+0	1.098623E+0	1.104254E+0	1.070859E+0	1.036779E+0	1.037977E+0	1.052055E+0	1.021922E+0	1.141631E+0	1.087141E+0	1.102289E+0	1.117820E+0	1.121442E+0	1.056732E+0	1.070272E+0	1.084919E+0	1.051792E+0	1.007356E+0	1.073663E+0	1.094372E+0	1.133247E+0	1.042895E+0	1.096103E+0	1.103999E+0	1.111041E+0	1.057720E+0	1.082859E+0	1.066763E+0	1.073284E+0	1.111719E+0	1.146255E+0	1.122336E+0	1.073367E+0	1.076790E+0	1.113529E+0	1.082657E+0	1.142788E+0	1.080532E+0	1.121192E+0	1.127562E+0	1.018927E+0	9.911935E-1	1.102235E+0	1.043735E+0	1.069229E+0	1.077808E+0
5.376060E+2	1.092517E+0	1.078569E+0	1.078786E+0	1.055134E+0	1.056873E+0	1.080737E+0	1.039881E+0	1.094104E+0	1.034830E+0	1.071719E+0	1.025900E+0	1.018582E+0	1.136345E+0	1.080068E+0	1.090090E+0	1.102772E+0	1.066793E+0	1.068365E+0	1.091554E+0	1.084356E+0	1.143267E+0	1.080740E+0	1.101457E+0	1.092206E+0	1.130155E+0	1.048653E+0	1.095504E+0	1.130586E+0	1.118202E+0	1.119809E+0	1.062526E+0	1.068304E+0	1.067104E+0	1.038153E+0	1.063592E+0	1.093388E+0	1.041057E+0	1.071638E+0	1.010775E+0	1.074618E+0	1.092647E+0	1.081997E+0	1.047423E+0	1.021647E+0	1.044474E+0	1.059695E+0	1.058702E+0	1.094826E+0	1.095346E+0	1.056514E+0	1.091199E+0	1.045498E+0	1.067550E+0	1.102707E+0	1.118414E+0	1.101733E+0	1.111036E+0	1.091722E+0	1.052812E+0	1.015500E+0	1.021925E+0	1.107339E+0	1.099120E+0	1.071894E+0	1.072331E+0	1.119790E+0	1.097736E+0	1.089815E+0	1.088002E+0	1.126246E+0	1.089146E+0	1.056511E+0	1.149992E+0	1.036699E+0	1.036507E+0	1.102656E+0	1.102869E+0	1.063857E+0	1.080877E+0	1.074996E+0	1.120913E+0	1.134425E+0	1.122112E+0	1.081108E+0	1.095535E+0	1.082278E+0	1.056998E+0	1.116763E+0	1.039007E+0	1.094653E+0	1.057494E+0	1.085467E+0	1.065265E+0	1.015189E+0	1.057512E+0	1.077728E+0	1.086788E+0	1.035914E+0	1.127306E+0	1.103966E+0	1.127847E+0	1.041354E+0	1.093159E+0	1.062697E+0	1.088837E+0	1.086950E+0	1.127832E+0	1.067648E+0	1.057260E+0	1.103795E+0	1.115512E+0	1.079609E+0	9.983055E-1	1.103297E+0	1.134515E+0	1.061390E+0	1.097740E+0	1.082775E+0	1.093204E+0	1.094795E+0	1.089238E+0	1.071409E+0	1.102264E+0	1.067242E+0	1.078930E+0	1.096826E+0	1.050194E+0	1.028680E+0	1.077872E+0	1.103430E+0	1.067391E+0	1.036330E+0	1.086313E+0	1.060280E+0	1.042218E+0	1.060028E+0	1.061078E+0	1.093349E+0	1.057557E+0	1.109267E+0	1.103520E+0	1.068400E+0	1.076786E+0	1.092684E+0	1.137661E+0	1.045781E+0	1.101912E+0	1.129239E+0	1.122869E+0	1.044001E+0	1.079786E+0	1.114511E+0	1.158148E+0	1.064562E+0	1.040639E+0	1.017965E+0	1.087628E+0	1.058851E+0	1.054925E+0	1.084937E+0	1.042323E+0	1.084099E+0	1.100022E+0	1.002946E+0	1.009435E+0	1.123514E+0
5.378110E+2	1.111068E+0	1.187192E+0	1.138413E+0	1.115140E+0	1.098329E+0	1.147776E+0	1.160575E+0	1.161683E+0	1.153662E+0	1.125911E+0	1.131036E+0	1.195939E+0	1.153455E+0	1.190169E+0	1.061975E+0	1.141493E+0	1.125607E+0	1.179563E+0	1.128260E+0	1.159244E+0	1.091763E+0	1.189404E+0	1.139373E+0	1.155754E+0	1.147348E+0	1.094989E+0	1.112107E+0	1.195361E+0	1.138933E+0	1.153427E+0	1.117059E+0	1.097123E+0	1.138488E+0	1.121345E+0	1.094281E+0	1.140668E+0	1.145347E+0	1.116464E+0	1.063018E+0	1.111204E+0	1.181168E+0	1.134922E+0	1.127882E+0	1.119956E+0	1.134020E+0	1.173819E+0	1.182717E+0	1.111411E+0	1.194123E+0	1.141207E+0	1.156721E+0	1.109009E+0	1.101212E+0	1.150399E+0	1.095633E+0	1.138790E+0	1.151418E+0	1.166386E+0	1.164739E+0	1.127634E+0	1.115747E+0	1.124361E+0	1.119690E+0	1.150302E+0	1.076827E+0	1.180616E+0	1.156464E+0	1.161752E+0	1.159349E+0	1.139708E+0	1.115858E+0	1.161885E+0	1.180996E+0	1.119607E+0	1.156739E+0	1.137138E+0	1.117614E+0	1.090593E+0	1.101940E+0	1.217496E+0	1.109686E+0	1.100169E+0	1.119597E+0	1.147931E+0	1.116867E+0	1.062575E+0	1.132447E+0	1.137134E+0	1.147643E+0	1.126500E+0	1.155869E+0	1.108729E+0	1.204570E+0	1.100088E+0	1.134480E+0	1.167658E+0	1.210939E+0	1.065306E+0	1.128730E+0	1.168159E+0	1.163618E+0	1.101407E+0	1.153507E+0	1.159998E+0	1.136558E+0	1.170600E+0	1.132772E+0	1.137989E+0	1.116435E+0	1.089943E+0	1.138172E+0	1.095080E+0	1.166468E+0	1.149053E+0	1.135288E+0	1.127515E+0	1.142371E+0	1.148452E+0	1.131877E+0	1.127073E+0	1.188671E+0	1.138835E+0	1.192078E+0	1.124584E+0	1.127675E+0	1.176384E+0	1.172905E+0	1.111520E+0	1.068685E+0	1.150697E+0	1.144651E+0	1.093813E+0	1.172983E+0	1.052193E+0	1.170937E+0	1.116740E+0	1.107646E+0	1.133490E+0	1.148100E+0	1.150270E+0	1.083667E+0	1.095256E+0	1.139704E+0	1.182770E+0	1.221592E+0	1.108788E+0	1.146931E+0	1.154245E+0	1.140627E+0	1.137460E+0	1.149081E+0	1.147823E+0	1.183422E+0	1.119963E+0	1.236543E+0	1.187634E+0	1.124467E+0	1.131252E+0	1.116470E+0	1.127490E+0	1.109956E+0	1.111718E+0	1.176398E+0	1.127674E+0	1.039017E+0	1.089462E+0
5.380050E+2	1.216113E+0	1.299502E+0	1.210476E+0	1.174352E+0	1.200225E+0	1.237398E+0	1.201282E+0	1.227261E+0	1.177650E+0	1.199590E+0	1.257969E+0	1.258549E+0	1.217485E+0	1.239536E+0	1.173545E+0	1.232809E+0	1.163223E+0	1.224156E+0	1.242321E+0	1.216081E+0	1.237964E+0	1.202198E+0	1.212299E+0	1.195954E+0	1.235917E+0	1.224809E+0	1.214784E+0	1.251622E+0	1.234768E+0	1.189174E+0	1.204026E+0	1.158001E+0	1.193745E+0	1.159893E+0	1.148738E+0	1.229673E+0	1.264506E+0	1.201241E+0	1.198833E+0	1.174782E+0	1.213600E+0	1.198784E+0	1.186519E+0	1.201388E+0	1.201929E+0	1.155448E+0	1.179191E+0	1.267784E+0	1.259914E+0	1.196186E+0	1.264860E+0	1.202850E+0	1.213489E+0	1.240237E+0	1.170428E+0	1.213631E+0	1.201119E+0	1.228160E+0	1.228754E+0	1.201428E+0	1.182400E+0	1.240779E+0	1.212676E+0	1.163589E+0	1.174559E+0	1.237388E+0	1.219728E+0	1.224305E+0	1.271459E+0	1.196931E+0	1.183921E+0	1.202189E+0	1.257052E+0	1.227797E+0	1.180457E+0	1.203532E+0	1.235645E+0	1.239525E+0	1.222079E+0	1.163520E+0	1.212200E+0	1.258676E+0	1.245786E+0	1.169576E+0	1.176237E+0	1.191718E+0	1.239981E+0	1.202000E+0	1.240132E+0	1.194959E+0	1.190345E+0	1.214993E+0	1.222232E+0	1.144653E+0	1.214391E+0	1.240460E+0	1.267656E+0	1.221030E+0	1.205589E+0	1.225119E+0	1.149337E+0	1.192318E+0	1.194504E+0	1.183755E+0	1.209483E+0	1.214479E+0	1.213430E+0	1.291603E+0	1.238458E+0	1.188783E+0	1.209551E+0	1.193940E+0	1.228765E+0	1.211782E+0	1.301337E+0	1.162019E+0	1.158808E+0	1.149933E+0	1.245748E+0	1.195614E+0	1.232019E+0	1.148018E+0	1.182364E+0	1.163044E+0	1.183285E+0	1.275676E+0	1.151072E+0	1.187679E+0	1.180844E+0	1.142865E+0	1.238257E+0	1.200820E+0	1.235342E+0	1.167583E+0	1.203594E+0	1.135670E+0	1.148488E+0	1.204169E+0	1.195693E+0	1.242064E+0	1.197267E+0	1.187429E+0	1.193268E+0	1.214937E+0	1.278765E+0	1.158193E+0	1.230540E+0	1.257539E+0	1.223610E+0	1.222924E+0	1.238015E+0	1.247693E+0	1.133672E+0	1.186852E+0	1.257489E+0	1.217567E+0	1.176556E+0	1.167749E+0	1.164804E+0	1.160624E+0	1.215002E+0	1.163299E+0	1.190690E+0	1.196000E+0	1.200156E+0	1.097766E+0
5.382060E+2	1.491335E+0	1.486563E+0	1.498576E+0	1.441063E+0	1.432539E+0	1.438069E+0	1.409157E+0	1.466662E+0	1.439002E+0	1.368990E+0	1.446164E+0	1.438219E+0	1.490992E+0	1.572348E+0	1.464269E+0	1.425285E+0	1.435197E+0	1.489975E+0	1.481259E+0	1.475370E+0	1.461624E+0	1.464952E+0	1.459846E+0	1.419493E+0	1.420374E+0	1.421477E+0	1.461396E+0	1.473795E+0	1.413621E+0	1.399554E+0	1.444315E+0	1.357209E+0	1.465717E+0	1.429222E+0	1.454596E+0	1.488913E+0	1.465052E+0	1.420657E+0	1.437528E+0	1.417520E+0	1.481972E+0	1.452784E+0	1.379662E+0	1.480874E+0	1.486423E+0	1.480352E+0	1.458747E+0	1.476180E+0	1.460414E+0	1.408676E+0	1.441539E+0	1.484389E+0	1.428743E+0	1.418740E+0	1.384898E+0	1.490909E+0	1.428774E+0	1.465024E+0	1.469863E+0	1.447311E+0	1.406607E+0	1.485979E+0	1.393797E+0	1.401681E+0	1.449292E+0	1.494619E+0	1.426314E+0	1.491171E+0	1.464834E+0	1.370217E+0	1.414271E+0	1.451416E+0	1.463932E+0	1.432462E+0	1.415049E+0	1.457467E+0	1.422756E+0	1.387887E+0	1.470558E+0	1.412758E+0	1.510571E+0	1.478848E+0	1.456087E+0	1.445844E+0	1.469841E+0	1.420713E+0	1.414910E+0	1.358463E+0	1.428539E+0	1.421999E+0	1.436349E+0	1.378779E+0	1.440877E+0	1.350483E+0	1.478335E+0	1.485940E+0	1.469687E+0	1.347278E+0	1.474606E+0	1.399333E+0	1.425748E+0	1.404448E+0	1.379066E+0	1.432377E+0	1.499106E+0	1.413043E+0	1.466959E+0	1.473274E+0	1.460581E+0	1.436506E+0	1.463251E+0	1.387652E+0	1.456548E+0	1.417089E+0	1.413724E+0	1.409311E+0	1.383794E+0	1.389494E+0	1.495629E+0	1.485916E+0	1.456913E+0	1.459246E+0	1.406393E+0	1.444344E+0	1.444317E+0	1.429196E+0	1.378549E+0	1.369565E+0	1.465872E+0	1.441827E+0	1.404795E+0	1.371211E+0	1.395231E+0	1.438226E+0	1.462601E+0	1.416439E+0	1.439553E+0	1.443976E+0	1.400401E+0	1.462115E+0	1.392173E+0	1.328229E+0	1.409678E+0	1.412868E+0	1.485637E+0	1.389782E+0	1.461136E+0	1.435950E+0	1.469318E+0	1.424826E+0	1.476925E+0	1.405677E+0	1.429107E+0	1.402525E+0	1.473496E+0	1.478446E+0	1.443642E+0	1.455020E+0	1.410585E+0	1.411841E+0	1.393133E+0	1.367987E+0	1.432690E+0	1.390126E+0	1.354990E+0	1.404658E+0
5.384110E+2	1.748827E+0	1.759692E+0	1.750627E+0	1.698219E+0	1.722630E+0	1.656264E+0	1.703828E+0	1.713315E+0	1.715366E+0	1.594063E+0	1.730081E+0	1.691738E+0	1.813706E+0	1.764772E+0	1.678001E+0	1.769955E+0	1.721119E+0	1.715446E+0	1.701397E+0	1.742249E+0	1.715818E+0	1.791578E+0	1.654610E+0	1.752380E+0	1.736254E+0	1.682683E+0	1.674116E+0	1.696342E+0	1.625103E+0	1.690800E+0	1.662322E+0	1.724428E+0	1.725523E+0	1.610880E+0	1.697270E+0	1.755248E+0	1.676747E+0	1.765879E+0	1.668551E+0	1.672668E+0	1.747223E+0	1.666386E+0	1.699235E+0	1.660736E+0	1.656504E+0	1.746942E+0	1.654327E+0	1.713587E+0	1.728825E+0	1.669800E+0	1.699404E+0	1.724741E+0	1.781567E+0	1.748973E+0	1.739114E+0	1.655416E+0	1.718238E+0	1.754442E+0	1.706982E+0	1.695966E+0	1.698189E+0	1.764378E+0	1.637471E+0	1.711309E+0	1.716484E+0	1.764193E+0	1.743782E+0	1.731874E+0	1.705524E+0	1.681385E+0	1.706841E+0	1.662848E+0	1.780199E+0	1.708217E+0	1.668863E+0	1.673900E+0	1.720868E+0	1.609662E+0	1.700199E+0	1.734435E+0	1.752380E+0	1.673250E+0	1.764178E+0	1.719867E+0	1.781647E+0	1.718362E+0	1.645210E+0	1.718057E+0	1.715002E+0	1.688714E+0	1.707210E+0	1.675958E+0	1.730756E+0	1.725554E+0	1.696045E+0	1.681479E+0	1.703943E+0	1.645731E+0	1.744646E+0	1.725173E+0	1.702133E+0	1.629165E+0	1.633620E+0	1.729666E+0	1.756180E+0	1.747371E+0	1.766009E+0	1.746552E+0	1.594964E+0	1.701036E+0	1.757726E+0	1.615478E+0	1.753653E+0	1.720243E+0	1.684217E+0	1.757616E+0	1.670422E+0	1.556987E+0	1.663394E+0	1.639829E+0	1.733212E+0	1.697598E+0	1.703089E+0	1.641767E+0	1.665007E+0	1.727567E+0	1.687391E+0	1.630132E+0	1.640567E+0	1.737265E+0	1.711795E+0	1.653885E+0	1.685070E+0	1.681012E+0	1.588577E+0	1.682295E+0	1.605303E+0	1.586120E+0	1.650132E+0	1.751523E+0	1.668558E+0	1.602968E+0	1.716746E+0	1.801601E+0	1.803567E+0	1.536706E+0	1.637265E+0	1.642014E+0	1.724225E+0	1.579729E+0	1.677752E+0	1.746941E+0	1.762099E+0	1.664045E+0	1.699624E+0	1.617981E+0	1.753170E+0	1.674863E+0	1.632862E+0	1.747931E+0	1.675087E+0	1.590905E+0	1.615124E+0	1.575596E+0	1.510027E+0	1.594257E+0
5.386060E+2	1.648649E+0	1.619046E+0	1.616682E+0	1.705404E+0	1.597732E+0	1.559361E+0	1.653321E+0	1.577479E+0	1.621604E+0	1.630541E+0	1.614392E+0	1.668736E+0	1.637260E+0	1.622652E+0	1.609999E+0	1.650103E+0	1.642893E+0	1.670170E+0	1.573218E+0	1.659386E+0	1.572502E+0	1.649375E+0	1.605609E+0	1.596962E+0	1.664418E+0	1.620211E+0	1.566626E+0	1.664253E+0	1.586025E+0	1.611056E+0	1.675438E+0	1.612823E+0	1.617198E+0	1.583683E+0	1.592790E+0	1.729643E+0	1.637156E+0	1.575260E+0	1.528627E+0	1.587333E+0	1.619756E+0	1.662744E+0	1.604636E+0	1.581200E+0	1.569455E+0	1.612359E+0	1.631400E+0	1.634466E+0	1.609571E+0	1.562871E+0	1.643821E+0	1.667469E+0	1.569254E+0	1.587701E+0	1.628661E+0	1.654994E+0	1.625547E+0	1.587375E+0	1.659380E+0	1.612467E+0	1.552280E+0	1.628098E+0	1.604482E+0	1.601615E+0	1.606158E+0	1.658316E+0	1.633901E+0	1.537467E+0	1.640518E+0	1.564828E+0	1.546661E+0	1.568956E+0	1.670422E+0	1.584856E+0	1.610215E+0	1.649308E+0	1.634317E+0	1.584152E+0	1.613148E+0	1.635935E+0	1.643827E+0	1.628494E+0	1.670801E+0	1.620183E+0	1.591133E+0	1.582217E+0	1.546837E+0	1.570984E+0	1.662019E+0	1.626007E+0	1.618756E+0	1.625710E+0	1.692387E+0	1.595896E+0	1.577043E+0	1.624860E+0	1.654905E+0	1.583724E+0	1.705578E+0	1.649341E+0	1.571596E+0	1.524078E+0	1.560083E+0	1.667477E+0	1.614952E+0	1.609350E+0	1.657147E+0	1.679267E+0	1.605171E+0	1.616970E+0	1.625329E+0	1.601637E+0	1.618228E+0	1.579670E+0	1.622194E+0	1.686089E+0	1.577879E+0	1.552554E+0	1.593982E+0	1.592377E+0	1.543776E+0	1.603876E+0	1.592563E+0	1.564842E+0	1.570878E+0	1.598605E+0	1.595665E+0	1.570558E+0	1.544088E+0	1.567903E+0	1.563252E+0	1.615323E+0	1.615744E+0	1.641316E+0	1.582422E+0	1.569464E+0	1.542233E+0	1.485257E+0	1.540031E+0	1.656522E+0	1.539873E+0	1.546988E+0	1.630796E+0	1.567171E+0	1.643735E+0	1.555309E+0	1.554825E+0	1.549391E+0	1.551970E+0	1.540494E+0	1.543481E+0	1.595397E+0	1.610029E+0	1.586445E+0	1.637091E+0	1.586779E+0	1.623517E+0	1.539480E+0	1.546391E+0	1.592879E+0	1.499196E+0	1.557601E+0	1.641542E+0	1.622357E+0	1.538660E+0	1.567446E+0
5.388120E+2	1.478081E+0	1.454943E+0	1.384609E+0	1.360503E+0	1.403143E+0	1.369133E+0	1.387175E+0	1.434888E+0	1.387146E+0	1.405704E+0	1.421478E+0	1.531814E+0	1.459820E+0	1.448379E+0	1.448342E+0	1.433276E+0	1.455028E+0	1.417435E+0	1.429928E+0	1.421018E+0	1.467350E+0	1.403575E+0	1.341439E+0	1.383868E+0	1.426650E+0	1.405758E+0	1.432214E+0	1.487094E+0	1.406758E+0	1.431158E+0	1.437733E+0	1.440476E+0	1.480825E+0	1.445037E+0	1.412217E+0	1.469978E+0	1.424444E+0	1.399198E+0	1.407740E+0	1.381707E+0	1.409305E+0	1.462780E+0	1.433241E+0	1.399004E+0	1.428462E+0	1.436237E+0	1.389367E+0	1.395788E+0	1.433530E+0	1.471556E+0	1.419023E+0	1.411792E+0	1.420331E+0	1.382892E+0	1.422560E+0	1.481315E+0	1.471089E+0	1.441572E+0	1.435932E+0	1.404045E+0	1.413844E+0	1.442247E+0	1.394046E+0	1.411801E+0	1.380313E+0	1.478915E+0	1.400741E+0	1.450528E+0	1.409956E+0	1.398811E+0	1.469620E+0	1.425602E+0	1.448522E+0	1.444272E+0	1.380164E+0	1.468056E+0	1.439754E+0	1.427938E+0	1.486223E+0	1.405259E+0	1.509755E+0	1.497473E+0	1.382578E+0	1.387044E+0	1.384347E+0	1.403922E+0	1.395450E+0	1.377343E+0	1.448430E+0	1.386169E+0	1.429980E+0	1.479952E+0	1.379495E+0	1.461203E+0	1.469547E+0	1.457301E+0	1.390534E+0	1.321299E+0	1.425308E+0	1.507197E+0	1.448954E+0	1.375621E+0	1.371650E+0	1.440450E+0	1.445549E+0	1.476160E+0	1.389918E+0	1.408505E+0	1.387954E+0	1.423110E+0	1.484557E+0	1.406994E+0	1.357495E+0	1.438336E+0	1.373299E+0	1.408378E+0	1.381956E+0	1.408053E+0	1.460475E+0	1.422676E+0	1.436503E+0	1.362333E+0	1.371590E+0	1.404092E+0	1.354249E+0	1.381576E+0	1.347154E+0	1.377761E+0	1.437946E+0	1.420283E+0	1.419595E+0	1.379039E+0	1.433184E+0	1.305513E+0	1.426967E+0	1.434820E+0	1.414191E+0	1.385765E+0	1.424989E+0	1.385807E+0	1.479488E+0	1.384095E+0	1.349061E+0	1.411383E+0	1.418672E+0	1.365997E+0	1.422073E+0	1.431014E+0	1.398680E+0	1.425557E+0	1.449540E+0	1.462148E+0	1.495517E+0	1.387651E+0	1.419758E+0	1.475143E+0	1.402921E+0	1.384023E+0	1.344538E+0	1.434130E+0	1.416689E+0	1.391177E+0	1.466102E+0	1.335310E+0	1.329480E+0	1.400653E+0
5.390080E+2	1.281400E+0	1.250549E+0	1.293335E+0	1.315295E+0	1.233846E+0	1.245668E+0	1.227771E+0	1.308504E+0	1.231028E+0	1.287684E+0	1.241547E+0	1.259128E+0	1.295407E+0	1.316933E+0	1.223470E+0	1.227628E+0	1.260447E+0	1.243980E+0	1.211842E+0	1.307223E+0	1.293360E+0	1.267880E+0	1.320122E+0	1.227830E+0	1.307227E+0	1.227597E+0	1.248744E+0	1.218769E+0	1.232051E+0	1.298786E+0	1.263020E+0	1.226822E+0	1.273717E+0	1.217032E+0	1.277491E+0	1.258386E+0	1.256203E+0	1.256985E+0	1.240138E+0	1.203696E+0	1.312221E+0	1.300517E+0	1.220096E+0	1.246615E+0	1.238479E+0	1.250805E+0	1.304879E+0	1.302569E+0	1.252883E+0	1.265696E+0	1.247597E+0	1.266160E+0	1.285116E+0	1.244786E+0	1.247223E+0	1.294357E+0	1.220289E+0	1.298679E+0	1.325006E+0	1.251622E+0	1.228249E+0	1.307047E+0	1.246005E+0	1.320038E+0	1.269934E+0	1.254081E+0	1.217592E+0	1.268050E+0	1.259683E+0	1.231325E+0	1.225520E+0	1.270093E+0	1.309935E+0	1.240374E+0	1.301258E+0	1.224437E+0	1.281620E+0	1.188758E+0	1.276926E+0	1.271339E+0	1.320547E+0	1.185875E+0	1.282188E+0	1.306835E+0	1.270791E+0	1.285155E+0	1.219739E+0	1.219262E+0	1.260935E+0	1.248393E+0	1.258353E+0	1.324555E+0	1.232725E+0	1.268049E+0	1.272894E+0	1.270548E+0	1.277176E+0	1.198679E+0	1.304293E+0	1.332269E+0	1.257655E+0	1.235290E+0	1.303409E+0	1.237592E+0	1.242416E+0	1.260947E+0	1.337305E+0	1.277977E+0	1.201755E+0	1.252794E+0	1.298557E+0	1.251254E+0	1.290584E+0	1.251633E+0	1.305073E+0	1.304082E+0	1.201772E+0	1.255967E+0	1.265566E+0	1.300261E+0	1.259824E+0	1.263564E+0	1.210192E+0	1.253420E+0	1.240542E+0	1.258550E+0	1.259919E+0	1.250032E+0	1.260346E+0	1.299714E+0	1.226241E+0	1.268023E+0	1.283423E+0	1.268151E+0	1.172202E+0	1.256641E+0	1.299872E+0	1.226985E+0	1.221171E+0	1.242928E+0	1.258006E+0	1.231876E+0	1.239358E+0	1.270585E+0	1.355636E+0	1.240086E+0	1.226962E+0	1.325665E+0	1.237662E+0	1.264684E+0	1.251684E+0	1.265064E+0	1.338825E+0	1.263652E+0	1.246360E+0	1.273426E+0	1.277465E+0	1.233311E+0	1.195778E+0	1.250684E+0	1.242796E+0	1.208915E+0	1.277511E+0	1.220377E+0	1.204297E+0	1.256385E+0
5.392090E+2	1.109676E+0	1.188003E+0	1.190795E+0	1.074245E+0	1.065533E+0	1.066837E+0	1.151786E+0	1.107328E+0	1.072307E+0	1.102804E+0	1.075879E+0	1.132734E+0	1.157923E+0	1.137574E+0	1.045809E+0	1.099154E+0	1.131546E+0	1.092937E+0	1.110304E+0	1.074270E+0	1.126068E+0	1.146269E+0	1.063010E+0	1.109607E+0	1.122494E+0	1.073929E+0	1.088970E+0	1.122350E+0	1.115404E+0	1.123486E+0	1.035168E+0	1.069684E+0	1.169395E+0	1.093287E+0	1.070596E+0	1.191385E+0	1.105153E+0	1.141800E+0	1.061192E+0	1.118110E+0	1.129483E+0	1.114718E+0	1.057426E+0	1.156075E+0	1.090204E+0	1.131851E+0	1.128923E+0	1.036941E+0	1.152155E+0	1.136122E+0	1.108578E+0	1.078297E+0	1.104128E+0	1.095263E+0	1.086981E+0	1.111160E+0	1.153155E+0	1.082713E+0	1.108798E+0	1.110854E+0	1.072408E+0	1.077152E+0	1.045837E+0	1.047191E+0	1.126683E+0	1.117797E+0	1.103295E+0	1.105860E+0	1.138933E+0	1.077696E+0	1.095675E+0	1.065202E+0	1.145930E+0	1.155100E+0	1.140398E+0	1.076986E+0	1.159898E+0	1.024318E+0	1.120001E+0	1.052733E+0	1.198032E+0	1.160355E+0	1.146524E+0	1.107446E+0	1.151170E+0	1.076335E+0	1.112025E+0	1.125700E+0	1.115253E+0	1.116966E+0	1.034775E+0	1.096041E+0	1.129339E+0	1.163150E+0	1.082268E+0	1.173300E+0	1.121801E+0	1.027016E+0	1.140371E+0	1.132308E+0	1.100851E+0	1.095501E+0	1.159967E+0	1.144964E+0	1.114585E+0	1.107336E+0	1.176254E+0	1.110896E+0	1.101836E+0	1.097887E+0	1.103900E+0	1.086295E+0	1.107340E+0	1.110330E+0	1.187513E+0	1.094941E+0	1.088470E+0	1.040231E+0	1.136022E+0	1.124401E+0	1.089129E+0	1.134057E+0	1.064049E+0	1.087036E+0	1.115075E+0	1.054816E+0	1.089915E+0	1.123885E+0	1.150079E+0	1.131733E+0	1.044361E+0	1.055123E+0	1.121367E+0	1.066222E+0	9.953533E-1	1.116544E+0	1.084747E+0	1.086546E+0	1.057070E+0	1.134900E+0	1.151601E+0	1.010519E+0	1.095077E+0	1.131450E+0	1.127662E+0	1.096685E+0	1.136868E+0	1.142962E+0	1.110547E+0	1.094297E+0	1.109281E+0	1.109435E+0	1.093864E+0	1.092375E+0	1.125696E+0	1.105893E+0	1.127754E+0	1.114300E+0	1.128558E+0	1.099559E+0	1.057238E+0	1.073301E+0	1.104434E+0	1.096062E+0	1.087139E+0	9.293410E-1
5.394100E+2	1.082061E+0	1.053706E+0	1.103596E+0	1.097613E+0	1.045691E+0	1.084743E+0	1.054262E+0	1.074108E+0	1.025655E+0	1.025124E+0	1.085941E+0	1.027156E+0	1.064809E+0	1.141987E+0	1.092639E+0	1.090373E+0	1.064667E+0	1.067547E+0	1.071180E+0	1.091002E+0	1.112074E+0	1.086668E+0	1.090542E+0	1.023222E+0	1.135451E+0	1.051118E+0	1.059729E+0	1.068763E+0	1.049089E+0	1.062056E+0	1.040043E+0	1.053444E+0	1.051103E+0	1.020292E+0	1.082614E+0	1.065353E+0	1.103958E+0	9.916658E-1	1.016727E+0	1.080998E+0	1.073436E+0	1.102383E+0	1.038460E+0	1.058117E+0	1.082575E+0	1.068006E+0	1.098126E+0	1.067312E+0	1.096770E+0	1.053859E+0	1.069174E+0	1.100842E+0	1.118283E+0	1.068547E+0	1.074081E+0	1.065383E+0	1.078449E+0	1.086345E+0	1.095388E+0	1.113095E+0	1.075823E+0	1.049263E+0	1.069256E+0	1.046089E+0	1.135628E+0	1.098977E+0	1.093863E+0	1.099717E+0	1.094554E+0	1.092485E+0	1.099841E+0	1.067793E+0	1.100926E+0	1.081624E+0	1.038507E+0	1.133319E+0	1.167658E+0	1.074933E+0	1.127587E+0	1.021817E+0	1.096381E+0	1.053452E+0	1.056965E+0	1.079742E+0	1.146201E+0	1.053924E+0	1.082951E+0	1.047363E+0	1.037086E+0	1.105369E+0	1.120986E+0	1.086921E+0	1.054733E+0	1.031651E+0	1.092174E+0	1.102880E+0	1.109090E+0	1.006095E+0	1.082992E+0	1.098832E+0	1.059857E+0	1.017227E+0	1.048172E+0	1.079870E+0	1.055393E+0	1.103759E+0	1.127094E+0	1.073068E+0	1.041660E+0	1.056369E+0	1.015569E+0	1.083188E+0	1.112031E+0	1.105607E+0	1.095785E+0	1.110958E+0	1.069375E+0	1.031577E+0	1.088966E+0	1.098094E+0	1.045215E+0	1.106455E+0	1.108896E+0	1.050067E+0	1.117595E+0	1.037225E+0	1.069106E+0	1.030202E+0	1.073524E+0	1.065010E+0	1.092866E+0	1.037594E+0	1.137270E+0	1.053992E+0	1.018905E+0	1.024313E+0	1.089929E+0	1.076055E+0	1.087310E+0	1.092787E+0	1.071413E+0	1.021065E+0	1.087450E+0	1.091863E+0	1.158020E+0	1.046626E+0	1.070256E+0	1.039831E+0	1.033399E+0	1.064373E+0	1.041761E+0	1.062615E+0	1.118027E+0	1.065896E+0	1.121393E+0	1.092594E+0	1.074402E+0	1.112061E+0	1.028250E+0	1.077876E+0	9.957111E-1	1.015015E+0	1.086276E+0	1.047659E+0	1.088654E+0	9.612927E-1
5.396110E+2	9.971388E-1	1.023016E+0	1.030349E+0	1.054576E+0	1.050419E+0	9.816837E-1	1.002475E+0	1.000726E+0	1.024092E+0	9.680593E-1	1.007321E+0	1.028005E+0	1.016900E+0	1.088157E+0	9.686715E-1	9.760304E-1	1.065784E+0	1.019203E+0	1.007121E+0	9.959409E-1	1.046332E+0	1.062881E+0	1.010068E+0	9.838203E-1	1.015200E+0	1.049419E+0	1.000006E+0	1.013008E+0	1.047593E+0	1.037147E+0	1.038219E+0	1.027860E+0	1.040116E+0	1.015761E+0	1.028238E+0	1.032119E+0	1.036274E+0	1.001987E+0	1.033959E+0	9.593315E-1	1.063510E+0	1.029645E+0	1.009203E+0	1.066355E+0	1.075679E+0	1.028413E+0	1.004342E+0	1.074982E+0	1.025454E+0	9.733464E-1	1.015853E+0	1.081300E+0	1.032284E+0	1.018087E+0	1.027225E+0	1.070404E+0	1.043838E+0	1.024358E+0	1.020554E+0	1.064825E+0	9.972434E-1	1.025548E+0	1.020508E+0	9.835107E-1	1.022071E+0	1.058753E+0	1.010706E+0	1.061410E+0	1.056322E+0	1.006565E+0	9.811765E-1	1.056450E+0	1.109942E+0	1.067142E+0	1.080201E+0	1.047338E+0	1.011084E+0	1.038606E+0	1.026714E+0	1.056569E+0	1.096610E+0	1.061826E+0	1.054123E+0	1.048351E+0	1.018603E+0	1.040275E+0	1.004340E+0	1.030344E+0	1.017338E+0	1.022893E+0	9.809097E-1	1.020467E+0	1.062597E+0	1.050315E+0	1.002221E+0	1.033606E+0	1.002513E+0	1.055599E+0	1.048103E+0	1.020273E+0	1.023166E+0	1.021009E+0	1.040825E+0	1.023301E+0	1.018963E+0	1.069469E+0	1.081195E+0	9.675672E-1	1.070647E+0	1.048100E+0	1.031699E+0	1.024854E+0	1.070608E+0	1.059689E+0	1.041000E+0	9.880431E-1	1.046025E+0	9.839218E-1	1.072952E+0	1.055865E+0	1.020727E+0	9.906407E-1	1.032335E+0	1.027872E+0	1.063184E+0	1.051614E+0	9.920713E-1	1.004301E+0	1.036666E+0	1.006756E+0	9.936878E-1	9.746612E-1	1.048560E+0	1.026384E+0	9.955902E-1	1.060977E+0	9.871330E-1	1.037870E+0	1.007737E+0	1.002760E+0	1.031025E+0	1.013078E+0	1.037793E+0	9.867560E-1	1.043502E+0	1.010630E+0	9.895937E-1	1.015796E+0	1.096222E+0	1.037841E+0	1.030060E+0	1.028298E+0	1.060683E+0	1.071379E+0	1.051467E+0	1.052623E+0	1.072895E+0	1.044082E+0	1.028468E+0	1.017227E+0	1.026170E+0	1.005754E+0	1.005282E+0	9.948374E-1	9.513275E-1	9.886246E-1
5.398180E+2	8.068001E-1	7.956202E-1	8.321936E-1	8.267681E-1	8.042772E-1	8.012042E-1	8.595596E-1	8.538676E-1	7.959609E-1	8.299222E-1	8.375472E-1	8.301612E-1	8.397255E-1	8.472560E-1	7.946523E-1	8.124424E-1	8.255949E-1	8.618767E-1	8.332846E-1	7.975456E-1	8.280244E-1	8.216741E-1	8.179210E-1	7.818683E-1	8.306814E-1	8.028940E-1	8.065776E-1	8.263184E-1	8.499383E-1	8.606799E-1	8.697760E-1	7.976136E-1	8.192105E-1	8.093942E-1	8.121830E-1	8.308595E-1	7.960623E-1	8.180424E-1	7.994077E-1	7.813983E-1	8.381500E-1	8.349938E-1	7.765213E-1	8.356429E-1	8.414301E-1	7.897858E-1	8.169779E-1	8.629576E-1	8.695248E-1	8.202572E-1	7.981323E-1	8.439938E-1	8.243809E-1	8.121918E-1	8.236271E-1	8.300024E-1	8.490736E-1	8.494527E-1	7.964121E-1	8.256840E-1	8.144520E-1	8.615696E-1	8.033855E-1	7.619969E-1	7.876704E-1	8.416430E-1	7.789048E-1	7.804112E-1	8.042503E-1	8.586144E-1	8.096714E-1	8.089127E-1	8.691360E-1	7.786788E-1	7.363800E-1	7.767580E-1	8.270275E-1	7.678744E-1	8.462898E-1	8.361214E-1	8.436230E-1	8.489096E-1	8.262816E-1	8.225004E-1	7.940927E-1	7.867529E-1	8.336160E-1	7.970906E-1	8.232236E-1	8.271188E-1	7.990359E-1	8.003204E-1	8.487412E-1	8.169917E-1	8.678994E-1	7.994968E-1	8.488743E-1	8.012259E-1	8.373913E-1	8.243702E-1	7.944372E-1	7.881542E-1	8.350228E-1	8.413595E-1	8.011861E-1	8.285812E-1	8.546460E-1	8.427873E-1	7.810174E-1	8.474561E-1	8.692810E-1	7.961428E-1	8.414567E-1	7.595859E-1	8.085448E-1	8.361868E-1	7.799167E-1	7.617457E-1	8.343438E-1	7.582778E-1	8.279687E-1	8.211532E-1	8.223767E-1	8.226817E-1	8.188948E-1	7.922540E-1	8.137742E-1	8.251483E-1	8.703449E-1	8.084425E-1	8.237108E-1	7.533879E-1	8.390743E-1	7.924628E-1	7.927025E-1	7.902618E-1	7.800959E-1	7.697462E-1	7.937789E-1	9.100403E-1	8.514136E-1	8.330892E-1	7.903942E-1	8.265039E-1	8.515934E-1	7.764740E-1	8.130889E-1	8.323663E-1	8.018150E-1	7.932765E-1	8.397337E-1	8.453533E-1	8.194850E-1	7.744286E-1	8.131556E-1	8.370736E-1	8.143170E-1	8.291389E-1	8.097525E-1	8.100164E-1	8.274660E-1	7.702583E-1	8.068522E-1	7.236338E-1	8.434035E-1	7.797583E-1
5.400140E+2	6.418368E-1	7.070343E-1	7.150129E-1	7.029900E-1	6.960366E-1	6.771417E-1	6.646710E-1	6.714141E-1	6.727682E-1	5.944894E-1	6.828727E-1	7.179047E-1	7.039899E-1	7.110979E-1	6.878004E-1	6.825565E-1	6.992664E-1	7.225002E-1	6.399808E-1	6.953789E-1	7.503755E-1	7.122710E-1	6.471431E-1	6.646793E-1	6.937177E-1	6.562964E-1	7.155930E-1	6.862949E-1	7.407979E-1	6.736139E-1	6.746221E-1	6.856183E-1	6.683463E-1	7.210989E-1	6.853563E-1	7.196053E-1	7.303081E-1	6.718037E-1	6.748400E-1	6.735790E-1	6.467241E-1	6.600154E-1	7.179133E-1	7.063278E-1	7.142298E-1	6.496561E-1	6.758548E-1	6.628730E-1	6.880687E-1	7.146455E-1	6.848250E-1	6.748019E-1	7.078174E-1	7.646427E-1	6.543788E-1	6.662235E-1	6.465578E-1	6.840913E-1	6.729361E-1	6.745147E-1	6.556823E-1	7.023292E-1	6.882269E-1	6.915098E-1	6.904926E-1	6.705834E-1	7.140599E-1	6.585880E-1	7.222596E-1	6.746245E-1	6.632689E-1	6.773431E-1	7.087298E-1	6.470694E-1	6.543710E-1	6.921286E-1	7.281051E-1	6.703279E-1	6.330858E-1	6.193810E-1	6.727557E-1	7.130010E-1	6.951638E-1	7.180617E-1	6.829276E-1	6.891130E-1	6.769564E-1	6.935834E-1	7.148721E-1	6.842942E-1	6.909417E-1	6.722176E-1	6.953016E-1	6.676939E-1	7.678938E-1	7.180577E-1	6.663792E-1	6.751067E-1	7.121373E-1	6.871569E-1	7.133970E-1	7.390955E-1	6.978384E-1	7.399913E-1	6.898692E-1	6.919142E-1	6.890452E-1	7.037197E-1	6.757776E-1	6.931620E-1	7.050541E-1	6.981451E-1	6.974583E-1	6.873064E-1	7.026738E-1	6.638775E-1	6.775550E-1	6.359927E-1	6.695708E-1	7.249986E-1	7.399255E-1	7.007243E-1	7.017387E-1	6.976663E-1	6.720388E-1	7.109373E-1	6.629066E-1	6.569052E-1	6.924113E-1	6.862508E-1	6.965663E-1	6.523571E-1	6.976423E-1	6.677170E-1	6.564372E-1	6.733214E-1	6.589925E-1	6.623792E-1	6.847009E-1	7.041251E-1	6.391241E-1	6.642288E-1	6.326138E-1	6.827599E-1	7.467677E-1	6.027029E-1	6.788086E-1	6.587591E-1	6.771131E-1	6.681983E-1	6.566338E-1	7.066262E-1	7.130571E-1	6.961467E-1	6.518351E-1	6.906499E-1	7.487205E-1	6.638938E-1	7.246687E-1	7.259423E-1	6.763211E-1	6.444036E-1	7.144433E-1	7.274393E-1	6.577218E-1	7.631275E-1
5.402100E+2	5.374565E-1	5.129615E-1	5.420230E-1	5.484949E-1	5.376691E-1	5.024492E-1	5.374325E-1	5.756098E-1	5.436446E-1	5.250833E-1	5.511696E-1	5.620547E-1	5.030632E-1	5.443133E-1	5.726321E-1	5.670062E-1	5.190932E-1	5.251325E-1	5.644549E-1	5.566381E-1	5.346392E-1	5.663497E-1	5.196793E-1	5.258600E-1	5.586362E-1	5.711368E-1	5.475422E-1	5.140566E-1	5.066054E-1	5.775163E-1	5.391122E-1	5.316008E-1	5.137467E-1	5.085922E-1	5.756152E-1	5.313308E-1	5.735986E-1	5.502583E-1	5.612054E-1	5.592460E-1	5.003750E-1	5.074286E-1	5.136861E-1	5.312155E-1	5.256245E-1	5.246769E-1	5.649190E-1	5.367959E-1	5.814217E-1	5.275050E-1	6.112238E-1	5.546806E-1	5.630990E-1	5.720620E-1	5.467645E-1	5.476783E-1	5.451474E-1	5.331302E-1	5.551446E-1	5.315361E-1	5.316616E-1	5.492409E-1	5.510217E-1	5.380936E-1	5.497059E-1	6.021018E-1	5.317400E-1	5.322329E-1	5.356667E-1	5.208607E-1	4.905975E-1	5.201762E-1	5.854232E-1	5.189027E-1	5.126475E-1	5.287429E-1	5.622799E-1	5.524682E-1	5.646582E-1	5.890309E-1	5.764704E-1	5.322919E-1	5.789299E-1	5.522758E-1	5.732716E-1	5.595778E-1	5.446057E-1	5.403811E-1	5.654000E-1	5.089675E-1	5.380375E-1	5.454464E-1	5.450128E-1	5.600799E-1	5.514104E-1	5.543271E-1	5.763464E-1	5.384695E-1	5.619487E-1	5.691293E-1	5.685720E-1	5.075306E-1	5.283662E-1	5.521426E-1	5.232143E-1	5.851309E-1	5.537365E-1	5.183362E-1	5.391522E-1	4.907538E-1	4.959277E-1	5.265402E-1	5.462560E-1	5.304336E-1	5.506893E-1	4.956713E-1	5.523393E-1	5.288307E-1	5.725242E-1	5.417738E-1	5.820837E-1	5.926700E-1	5.240393E-1	5.450104E-1	5.517729E-1	5.847664E-1	5.284112E-1	5.587054E-1	5.683151E-1	5.267005E-1	5.363626E-1	5.200182E-1	5.458471E-1	5.345420E-1	5.145684E-1	5.430873E-1	5.807496E-1	5.092003E-1	5.211468E-1	5.579752E-1	5.936935E-1	5.500701E-1	5.321811E-1	5.581272E-1	5.731322E-1	5.607877E-1	5.794570E-1	5.211298E-1	5.570239E-1	5.818527E-1	5.402900E-1	5.573857E-1	5.554574E-1	5.421532E-1	5.789115E-1	5.549280E-1	5.689323E-1	5.343518E-1	5.560102E-1	5.081701E-1	5.357254E-1	5.179409E-1	4.870815E-1	4.886497E-1	5.665546E-1	5.177142E-1
5.404120E+2	4.939624E-1	4.892321E-1	4.878413E-1	5.188368E-1	5.119578E-1	4.527731E-1	5.126584E-1	4.657549E-1	4.594033E-1	4.808307E-1	4.818052E-1	4.806656E-1	4.842151E-1	5.083846E-1	4.733621E-1	4.971510E-1	4.708855E-1	4.829750E-1	4.651905E-1	4.744215E-1	5.162331E-1	5.003301E-1	5.168740E-1	5.003808E-1	5.328667E-1	4.617005E-1	5.066263E-1	5.264652E-1	4.864468E-1	5.050437E-1	4.755875E-1	4.841491E-1	5.364915E-1	4.815803E-1	4.999332E-1	5.117113E-1	5.030407E-1	5.019352E-1	5.121180E-1	5.145223E-1	4.521471E-1	5.464215E-1	4.957794E-1	4.959882E-1	5.380542E-1	5.563461E-1	4.635401E-1	4.941058E-1	5.128085E-1	4.856785E-1	4.846962E-1	5.043729E-1	5.145142E-1	5.416554E-1	4.830137E-1	5.595748E-1	4.544423E-1	5.517704E-1	4.983278E-1	4.506578E-1	4.882421E-1	5.026024E-1	5.112139E-1	4.673821E-1	5.148484E-1	4.702007E-1	5.178825E-1	4.666456E-1	5.274590E-1	4.670074E-1	5.200667E-1	4.815172E-1	5.068148E-1	5.110834E-1	4.610826E-1	4.860472E-1	5.210490E-1	4.942519E-1	4.759366E-1	5.103617E-1	5.388319E-1	4.915439E-1	4.857623E-1	5.302321E-1	4.979336E-1	4.944546E-1	4.855092E-1	4.929326E-1	4.770233E-1	5.332978E-1	5.059737E-1	5.199100E-1	5.265907E-1	5.408114E-1	5.190698E-1	4.901822E-1	5.212380E-1	4.612461E-1	5.229598E-1	4.569608E-1	4.867661E-1	5.067188E-1	4.609860E-1	4.751075E-1	4.498890E-1	4.803447E-1	4.874121E-1	5.068238E-1	4.956115E-1	5.220920E-1	4.794688E-1	4.926952E-1	4.949879E-1	4.945162E-1	4.810418E-1	5.019105E-1	4.761920E-1	4.690505E-1	4.881629E-1	4.897824E-1	4.960301E-1	4.772692E-1	4.955305E-1	4.477367E-1	5.032853E-1	4.846105E-1	4.879918E-1	4.962117E-1	4.969953E-1	5.177240E-1	4.964486E-1	5.104469E-1	5.178040E-1	5.019021E-1	4.726158E-1	4.688317E-1	4.861594E-1	5.102397E-1	4.715798E-1	4.998817E-1	4.802802E-1	4.867885E-1	4.899420E-1	5.156429E-1	5.047775E-1	5.056144E-1	4.834723E-1	5.018066E-1	5.036888E-1	4.973996E-1	5.075095E-1	5.201490E-1	4.882954E-1	4.895202E-1	4.686900E-1	5.156397E-1	4.737538E-1	4.936885E-1	5.324519E-1	5.104126E-1	5.054961E-1	4.893285E-1	4.891216E-1	5.134846E-1	4.263002E-1	4.174374E-1
5.406090E+2	4.804015E-1	4.521123E-1	4.971995E-1	4.529241E-1	4.486066E-1	4.750830E-1	4.488071E-1	4.725472E-1	4.703307E-1	4.851062E-1	4.598434E-1	4.869588E-1	4.856916E-1	4.867691E-1	4.836836E-1	4.699761E-1	4.640608E-1	4.872633E-1	5.083557E-1	5.280352E-1	4.791875E-1	5.018990E-1	5.064254E-1	4.887390E-1	5.141068E-1	4.994596E-1	4.852782E-1	4.924521E-1	4.827488E-1	4.875324E-1	4.496512E-1	4.426119E-1	5.047284E-1	4.778905E-1	5.279755E-1	4.945743E-1	4.110571E-1	4.930665E-1	5.039707E-1	4.918310E-1	4.906590E-1	4.955342E-1	4.786067E-1	4.824108E-1	4.913083E-1	4.912170E-1	4.796564E-1	4.970799E-1	4.757278E-1	4.786005E-1	5.231960E-1	4.716688E-1	5.057865E-1	4.594150E-1	4.553717E-1	5.075813E-1	4.691040E-1	5.141764E-1	4.789888E-1	4.945419E-1	4.477319E-1	5.049009E-1	4.739051E-1	4.708363E-1	4.325947E-1	4.891388E-1	4.695644E-1	4.572700E-1	4.787986E-1	4.892905E-1	5.154465E-1	4.729052E-1	4.922511E-1	4.755513E-1	4.538830E-1	4.786640E-1	4.530175E-1	4.431949E-1	5.079832E-1	4.458640E-1	5.275823E-1	4.952185E-1	4.736555E-1	4.981740E-1	4.633911E-1	4.849709E-1	4.736656E-1	4.800018E-1	4.911501E-1	4.701260E-1	4.747028E-1	4.631628E-1	5.313176E-1	4.697056E-1	4.675292E-1	5.101273E-1	4.546773E-1	4.621131E-1	5.148828E-1	4.761478E-1	4.642813E-1	4.569658E-1	4.903068E-1	4.764906E-1	5.325765E-1	5.090784E-1	4.543193E-1	5.169902E-1	4.894266E-1	4.625737E-1	4.744546E-1	4.571262E-1	4.883352E-1	4.732200E-1	4.917762E-1	4.811382E-1	4.400481E-1	4.678709E-1	5.197740E-1	4.908458E-1	5.315121E-1	5.043041E-1	4.808212E-1	4.792327E-1	4.813018E-1	4.759595E-1	4.868967E-1	4.814479E-1	4.753725E-1	4.967470E-1	4.918872E-1	4.652099E-1	4.960482E-1	4.959894E-1	4.885545E-1	4.705077E-1	4.854062E-1	4.636384E-1	4.568967E-1	4.555176E-1	4.909755E-1	4.594634E-1	4.758274E-1	5.405970E-1	4.998454E-1	4.609635E-1	4.875269E-1	4.754697E-1	4.978067E-1	4.866995E-1	4.445441E-1	4.809184E-1	4.859347E-1	5.171190E-1	5.283956E-1	4.660034E-1	5.110337E-1	5.041065E-1	4.729936E-1	4.654735E-1	5.026909E-1	4.913866E-1	5.020157E-1	5.248480E-1	5.363050E-1	5.130517E-1
5.408060E+2	4.141210E-1	3.978237E-1	4.503353E-1	4.472327E-1	4.245385E-1	4.529471E-1	4.401341E-1	4.161280E-1	4.091694E-1	4.134611E-1	4.272868E-1	4.139960E-1	4.178190E-1	4.179857E-1	4.104478E-1	4.278047E-1	4.288321E-1	4.129017E-1	4.151785E-1	4.462091E-1	4.350446E-1	4.184796E-1	4.382564E-1	4.585922E-1	4.324986E-1	4.384606E-1	3.735606E-1	3.839682E-1	4.341301E-1	4.387993E-1	4.111520E-1	4.291607E-1	4.905938E-1	4.151003E-1	4.238714E-1	4.416419E-1	4.116844E-1	4.312680E-1	3.623065E-1	3.959836E-1	4.229168E-1	4.302872E-1	4.752030E-1	4.362529E-1	4.368527E-1	4.599933E-1	4.304627E-1	4.412739E-1	4.309189E-1	4.636813E-1	4.410269E-1	4.731231E-1	4.282434E-1	4.754097E-1	4.294870E-1	4.073382E-1	4.698233E-1	4.200020E-1	4.391388E-1	4.028650E-1	4.176559E-1	4.210275E-1	4.513629E-1	4.495821E-1	4.207716E-1	4.397000E-1	4.698066E-1	4.333384E-1	4.128269E-1	3.949640E-1	4.254624E-1	4.056621E-1	4.411757E-1	4.487337E-1	4.361670E-1	4.381152E-1	4.571005E-1	4.263069E-1	4.489878E-1	4.214995E-1	4.513772E-1	4.184533E-1	4.464857E-1	4.087037E-1	4.727092E-1	4.257563E-1	4.096433E-1	4.280320E-1	3.961100E-1	4.587294E-1	4.597473E-1	4.180545E-1	4.279467E-1	4.282079E-1	4.544530E-1	4.541955E-1	4.579825E-1	4.190846E-1	4.220315E-1	4.176910E-1	4.113757E-1	4.221717E-1	4.387868E-1	4.319882E-1	4.484736E-1	4.174192E-1	4.763133E-1	4.118330E-1	4.773674E-1	4.552115E-1	3.834719E-1	3.921523E-1	4.281539E-1	4.610550E-1	4.789730E-1	4.452540E-1	4.267570E-1	4.194603E-1	4.629361E-1	4.507417E-1	4.297489E-1	4.285511E-1	4.480644E-1	4.392730E-1	4.516409E-1	4.559916E-1	4.268984E-1	4.389856E-1	4.468443E-1	4.496137E-1	4.448378E-1	4.122437E-1	4.447580E-1	4.364049E-1	4.042785E-1	4.280742E-1	4.335910E-1	4.231916E-1	4.304255E-1	4.477443E-1	4.370464E-1	4.127679E-1	4.341157E-1	4.399871E-1	4.139773E-1	4.311244E-1	4.115077E-1	4.136553E-1	4.085534E-1	4.288369E-1	4.360341E-1	4.470062E-1	4.615840E-1	4.042140E-1	4.708727E-1	4.416303E-1	4.204627E-1	4.262870E-1	4.210935E-1	4.564559E-1	4.161326E-1	4.249823E-1	4.175676E-1	4.148333E-1	4.467866E-1	3.868090E-1
5.410240E+2	3.403202E-1	3.614064E-1	3.988346E-1	3.494073E-1	3.246977E-1	3.531065E-1	3.523885E-1	3.599366E-1	3.423213E-1	3.383851E-1	3.293983E-1	3.597393E-1	3.653733E-1	3.664391E-1	3.407072E-1	3.530514E-1	3.509364E-1	3.624414E-1	3.532196E-1	3.617486E-1	3.759504E-1	3.381831E-1	3.716159E-1	3.359740E-1	3.574449E-1	3.906350E-1	3.411118E-1	3.548308E-1	3.653702E-1	3.528378E-1	3.626728E-1	3.505788E-1	3.455747E-1	3.482111E-1	3.493555E-1	4.191900E-1	3.570209E-1	3.705399E-1	3.297570E-1	3.914720E-1	3.769863E-1	3.728921E-1	3.777232E-1	3.540087E-1	3.542182E-1	4.166800E-1	3.853926E-1	3.389489E-1	3.837095E-1	3.701832E-1	3.380349E-1	3.725917E-1	3.683249E-1	4.068489E-1	3.497751E-1	3.478396E-1	3.620712E-1	3.423938E-1	3.688240E-1	3.481599E-1	3.376454E-1	3.661084E-1	3.759710E-1	3.736321E-1	3.863840E-1	3.911795E-1	3.271562E-1	4.118508E-1	3.570740E-1	3.901767E-1	3.603463E-1	3.249857E-1	3.748422E-1	3.088923E-1	3.473698E-1	3.912378E-1	3.444219E-1	3.845111E-1	3.667748E-1	3.948707E-1	3.942290E-1	3.812923E-1	3.482919E-1	3.757842E-1	3.939803E-1	3.311581E-1	3.519999E-1	3.420189E-1	3.711563E-1	3.469740E-1	3.569047E-1	3.737063E-1	3.816319E-1	3.738638E-1	3.388837E-1	3.754418E-1	3.551897E-1	3.560741E-1	3.909906E-1	3.387428E-1	3.555122E-1	3.298619E-1	3.468429E-1	3.983499E-1	3.384213E-1	3.787168E-1	3.757582E-1	3.557017E-1	3.511956E-1	3.407817E-1	3.415567E-1	3.407217E-1	3.573093E-1	3.544053E-1	3.631847E-1	3.463124E-1	3.627463E-1	3.466243E-1	4.060843E-1	3.818414E-1	3.530889E-1	3.868470E-1	3.399058E-1	3.825991E-1	3.687884E-1	3.740848E-1	3.334072E-1	3.298413E-1	3.651115E-1	3.416526E-1	3.624370E-1	3.438060E-1	3.965270E-1	4.065822E-1	3.561843E-1	3.486115E-1	3.650670E-1	3.709833E-1	3.581125E-1	4.076565E-1	3.789579E-1	3.932717E-1	3.897312E-1	3.542814E-1	3.820565E-1	3.546016E-1	3.670653E-1	3.915202E-1	3.758447E-1	3.556072E-1	3.686288E-1	3.607314E-1	3.503085E-1	3.945209E-1	3.554868E-1	3.551971E-1	3.504325E-1	3.587471E-1	3.930225E-1	3.482868E-1	3.624649E-1	3.626429E-1	3.474348E-1	3.783040E-1	3.301392E-1	3.788444E-1
5.415040E+2	3.776076E-1	3.750162E-1	3.886997E-1	4.004994E-1	3.845878E-1	4.001565E-1	3.767547E-1	3.343829E-1	3.508764E-1	3.924847E-1	3.722912E-1	3.555972E-1	4.241815E-1	3.796153E-1	3.536645E-1	3.875710E-1	3.691402E-1	3.879592E-1	3.819014E-1	3.851705E-1	3.579866E-1	3.870854E-1	3.900965E-1	3.774836E-1	3.708177E-1	3.561371E-1	3.634740E-1	4.039574E-1	3.847736E-1	3.374136E-1	3.629242E-1	3.791666E-1	3.362903E-1	3.552853E-1	3.949162E-1	4.010813E-1	3.938800E-1	3.582287E-1	3.641650E-1	3.611164E-1	3.726206E-1	3.507538E-1	3.672111E-1	3.487008E-1	3.692084E-1	3.903755E-1	3.639763E-1	3.624472E-1	3.844062E-1	4.061280E-1	3.695507E-1	3.688379E-1	3.535570E-1	3.508046E-1	3.885643E-1	3.769695E-1	4.122048E-1	3.699252E-1	3.928434E-1	3.516790E-1	3.834064E-1	3.954201E-1	3.636139E-1	3.755903E-1	3.983280E-1	3.775297E-1	3.380593E-1	4.006995E-1	3.837186E-1	3.660443E-1	3.641246E-1	3.714764E-1	3.818299E-1	3.458274E-1	3.691651E-1	3.581482E-1	3.654127E-1	3.498431E-1	3.674894E-1	3.689354E-1	3.389527E-1	4.038524E-1	3.968579E-1	3.774933E-1	3.889951E-1	3.525014E-1	3.619598E-1	3.550686E-1	3.627179E-1	3.724533E-1	3.287991E-1	3.571762E-1	3.773232E-1	3.612227E-1	3.246054E-1	4.222116E-1	3.422163E-1	3.504193E-1	4.056864E-1	3.913572E-1	3.917144E-1	3.911170E-1	3.792167E-1	3.791844E-1	3.952323E-1	3.857157E-1	4.168699E-1	3.996178E-1	3.612800E-1	3.563455E-1	3.905513E-1	3.592135E-1	3.552314E-1	3.349097E-1	3.914051E-1	3.491554E-1	4.159633E-1	3.941294E-1	3.752095E-1	4.061098E-1	3.475994E-1	4.001929E-1	3.809341E-1	3.597613E-1	3.738548E-1	4.130306E-1	3.602741E-1	3.827891E-1	3.686561E-1	3.743084E-1	3.908698E-1	3.717833E-1	3.779600E-1	3.676500E-1	3.980909E-1	3.626184E-1	3.709809E-1	4.041025E-1	3.602094E-1	3.691152E-1	3.775708E-1	3.630631E-1	3.658823E-1	3.722220E-1	3.661741E-1	3.860297E-1	3.507459E-1	4.064721E-1	3.663973E-1	3.752082E-1	3.834354E-1	4.043415E-1	3.934745E-1	3.799788E-1	3.657562E-1	3.565450E-1	3.574975E-1	3.540980E-1	3.842420E-1	3.901423E-1	3.404141E-1	3.896988E-1	3.932120E-1	3.718911E-1	3.773615E-1	3.950805E-1
5.420110E+2	4.592293E-1	4.834475E-1	4.999607E-1	4.915689E-1	4.956215E-1	4.394838E-1	4.825469E-1	4.944418E-1	4.476420E-1	4.484830E-1	4.744205E-1	4.871730E-1	4.808371E-1	4.998832E-1	4.798867E-1	4.856939E-1	4.744002E-1	4.871061E-1	4.762475E-1	4.869238E-1	4.847934E-1	4.569728E-1	4.936988E-1	4.549204E-1	5.021632E-1	4.688398E-1	4.953953E-1	4.976345E-1	4.906949E-1	4.985030E-1	4.653764E-1	4.786111E-1	4.742576E-1	4.445966E-1	5.090142E-1	5.104017E-1	4.963774E-1	4.801872E-1	4.566379E-1	4.784440E-1	5.013574E-1	5.281161E-1	4.854887E-1	4.290161E-1	4.786159E-1	4.750397E-1	4.786449E-1	4.678910E-1	4.661598E-1	4.941100E-1	4.865622E-1	4.700459E-1	5.303051E-1	5.009417E-1	4.799312E-1	4.703132E-1	4.680001E-1	4.606562E-1	4.769099E-1	4.486606E-1	4.607672E-1	5.061605E-1	4.579932E-1	4.505113E-1	4.834750E-1	4.855054E-1	4.970216E-1	5.153082E-1	4.906388E-1	4.892313E-1	5.066409E-1	4.334854E-1	4.739757E-1	4.747701E-1	4.659918E-1	4.818105E-1	4.530024E-1	4.930676E-1	4.813630E-1	4.591426E-1	4.919137E-1	5.013184E-1	4.346813E-1	4.913133E-1	5.083067E-1	4.978526E-1	4.776309E-1	4.856741E-1	5.097010E-1	4.634203E-1	5.127365E-1	4.952280E-1	4.308962E-1	4.833316E-1	4.975477E-1	5.231117E-1	5.007024E-1	4.475919E-1	4.969308E-1	4.799990E-1	4.659976E-1	4.823510E-1	5.017520E-1	5.085126E-1	4.745987E-1	5.111141E-1	4.873948E-1	5.232142E-1	4.641450E-1	4.985994E-1	4.958608E-1	4.977854E-1	4.815593E-1	4.693163E-1	4.996230E-1	4.903572E-1	5.157764E-1	5.168420E-1	4.825554E-1	5.030881E-1	5.037296E-1	5.101673E-1	4.886225E-1	5.023295E-1	4.927624E-1	5.288492E-1	4.684661E-1	4.833091E-1	4.824329E-1	5.071123E-1	5.135541E-1	4.845296E-1	5.173420E-1	4.592497E-1	4.600692E-1	5.071701E-1	5.091704E-1	4.838815E-1	4.687347E-1	4.894932E-1	4.905469E-1	4.609323E-1	4.767495E-1	4.805374E-1	5.292557E-1	4.624690E-1	5.117942E-1	4.786674E-1	4.832426E-1	4.704417E-1	5.094332E-1	5.030820E-1	4.900112E-1	5.100157E-1	4.977455E-1	4.809861E-1	4.598185E-1	4.637043E-1	4.852601E-1	4.822562E-1	5.109344E-1	4.968146E-1	4.625545E-1	4.795842E-1	4.625443E-1	5.455347E-1
5.425080E+2	6.474561E-1	6.767235E-1	7.092227E-1	6.552926E-1	6.735441E-1	6.659430E-1	7.156270E-1	6.956162E-1	6.469256E-1	6.740347E-1	6.851330E-1	7.072995E-1	6.511127E-1	6.768401E-1	6.518346E-1	7.296107E-1	6.668826E-1	6.560210E-1	6.789602E-1	6.978366E-1	6.912686E-1	7.039596E-1	7.158531E-1	6.709272E-1	6.678071E-1	6.916860E-1	6.760076E-1	6.523376E-1	6.578460E-1	7.080536E-1	6.725043E-1	6.821991E-1	6.617089E-1	6.764486E-1	6.676455E-1	7.505590E-1	6.748993E-1	6.606611E-1	6.497128E-1	6.941522E-1	6.856920E-1	6.847956E-1	6.550704E-1	6.616718E-1	6.615870E-1	6.863182E-1	6.916624E-1	6.986228E-1	6.541763E-1	6.386830E-1	6.940745E-1	6.976281E-1	6.775585E-1	6.677347E-1	6.748048E-1	6.972870E-1	6.497581E-1	6.934358E-1	6.311490E-1	6.963191E-1	6.308770E-1	6.915417E-1	6.558019E-1	6.750474E-1	7.115730E-1	6.940088E-1	7.101647E-1	6.911448E-1	7.208588E-1	6.299476E-1	6.857555E-1	6.481539E-1	6.954549E-1	7.019119E-1	6.713237E-1	6.223545E-1	6.902504E-1	6.441956E-1	7.155223E-1	7.038461E-1	7.189198E-1	7.048447E-1	6.860527E-1	6.950484E-1	7.122440E-1	6.374388E-1	6.588121E-1	6.798622E-1	7.170309E-1	6.627575E-1	6.910432E-1	6.738837E-1	7.065835E-1	6.961163E-1	6.880227E-1	7.088868E-1	6.934641E-1	6.117272E-1	6.590656E-1	6.660254E-1	7.059812E-1	7.049601E-1	6.940818E-1	6.502301E-1	7.056845E-1	6.619145E-1	6.886076E-1	6.852515E-1	6.680942E-1	6.872899E-1	6.547777E-1	6.654669E-1	6.806903E-1	6.620742E-1	7.403376E-1	6.694703E-1	6.463616E-1	7.047861E-1	6.774600E-1	6.331627E-1	6.697770E-1	6.709823E-1	6.723318E-1	6.797712E-1	6.419022E-1	6.756749E-1	6.944230E-1	6.722321E-1	6.870137E-1	6.629384E-1	6.842213E-1	6.567872E-1	7.400535E-1	6.608009E-1	6.648325E-1	6.857812E-1	6.859295E-1	6.383218E-1	6.806047E-1	7.065192E-1	6.632297E-1	6.434784E-1	6.851395E-1	6.495038E-1	7.430610E-1	6.550607E-1	6.440120E-1	6.628833E-1	6.647112E-1	6.879470E-1	7.520495E-1	7.191023E-1	6.795165E-1	6.845208E-1	6.583556E-1	6.550703E-1	6.726031E-1	7.256131E-1	6.800835E-1	6.931203E-1	6.630629E-1	6.482143E-1	6.940092E-1	6.373916E-1	5.839564E-1	7.566853E-1
5.430120E+2	9.021314E-1	9.284767E-1	9.258558E-1	9.146932E-1	8.737211E-1	8.525587E-1	9.154021E-1	9.735892E-1	8.693951E-1	8.576280E-1	9.053823E-1	9.228210E-1	9.296829E-1	9.392979E-1	8.590536E-1	8.956382E-1	8.889223E-1	9.190075E-1	9.695172E-1	8.637251E-1	9.076439E-1	9.150432E-1	9.148651E-1	9.019537E-1	9.262040E-1	8.733038E-1	9.122170E-1	8.988910E-1	8.751477E-1	9.178262E-1	9.287873E-1	8.920466E-1	9.033559E-1	8.931212E-1	9.518362E-1	9.437635E-1	9.268414E-1	8.748085E-1	9.418702E-1	9.272538E-1	9.212426E-1	9.679769E-1	8.915779E-1	9.180152E-1	9.062000E-1	8.761869E-1	9.562298E-1	9.064830E-1	8.725652E-1	8.940467E-1	8.936555E-1	9.179216E-1	9.222497E-1	9.196193E-1	8.941658E-1	9.269794E-1	8.788774E-1	8.907749E-1	9.632057E-1	8.714299E-1	7.822109E-1	9.404876E-1	9.281562E-1	8.760706E-1	8.778824E-1	9.193548E-1	8.947407E-1	9.232264E-1	8.827065E-1	8.675104E-1	8.851236E-1	8.865942E-1	9.212061E-1	8.576148E-1	8.825236E-1	9.303984E-1	9.266659E-1	8.756338E-1	8.777485E-1	9.063772E-1	9.468576E-1	9.393695E-1	8.922404E-1	9.088071E-1	9.242880E-1	8.889583E-1	9.141229E-1	9.050945E-1	9.264665E-1	9.247595E-1	8.940665E-1	9.129647E-1	8.764213E-1	8.853603E-1	8.906986E-1	9.354621E-1	9.632325E-1	8.913958E-1	9.567946E-1	9.280208E-1	8.673460E-1	8.808760E-1	8.918444E-1	8.755990E-1	9.017344E-1	9.465748E-1	9.502989E-1	8.994043E-1	8.555451E-1	9.327203E-1	9.242822E-1	9.028027E-1	9.721594E-1	8.931314E-1	9.390511E-1	9.191672E-1	8.557485E-1	9.247475E-1	9.143438E-1	9.166923E-1	8.818972E-1	9.594549E-1	8.830540E-1	9.394454E-1	9.166039E-1	8.942409E-1	8.697298E-1	8.950318E-1	9.344397E-1	9.024773E-1	9.412186E-1	8.811979E-1	9.250791E-1	9.117886E-1	8.954732E-1	8.569724E-1	9.397588E-1	8.810889E-1	8.728094E-1	9.325106E-1	8.909410E-1	9.116265E-1	9.204957E-1	9.230918E-1	9.443741E-1	9.006884E-1	9.472792E-1	9.060572E-1	9.337202E-1	8.876829E-1	9.086639E-1	9.243330E-1	9.139988E-1	9.445486E-1	9.030810E-1	9.390967E-1	8.410006E-1	9.051134E-1	8.603227E-1	9.352273E-1	8.854579E-1	8.571598E-1	9.136734E-1	9.389556E-1	9.297581E-1	9.017129E-1
5.435330E+2	9.210785E-1	9.425560E-1	9.452979E-1	9.518361E-1	9.489717E-1	9.450914E-1	9.637647E-1	9.832905E-1	9.165722E-1	9.449392E-1	9.284828E-1	1.010959E+0	9.718010E-1	9.925838E-1	9.221037E-1	9.760301E-1	9.778563E-1	9.408270E-1	9.263003E-1	9.400407E-1	9.965476E-1	9.850941E-1	9.863900E-1	9.257931E-1	1.024654E+0	9.372979E-1	9.262872E-1	9.838422E-1	9.326041E-1	9.166315E-1	9.609719E-1	9.103063E-1	9.912273E-1	9.555057E-1	9.978031E-1	9.741698E-1	1.007443E+0	9.435016E-1	9.651484E-1	9.165501E-1	9.817489E-1	9.999604E-1	9.542658E-1	9.663515E-1	9.698808E-1	1.008907E+0	1.008984E+0	9.857079E-1	1.013671E+0	9.575065E-1	9.565732E-1	1.001747E+0	9.726178E-1	9.410044E-1	9.384663E-1	9.891094E-1	9.349373E-1	9.398972E-1	9.850624E-1	9.720795E-1	9.546530E-1	9.425163E-1	9.617142E-1	9.023067E-1	9.003873E-1	9.812127E-1	9.746266E-1	9.991562E-1	9.810180E-1	9.608505E-1	9.589861E-1	9.610190E-1	9.556430E-1	9.440712E-1	9.009970E-1	9.685366E-1	1.020812E+0	9.617287E-1	9.505098E-1	9.633863E-1	9.738060E-1	9.983721E-1	1.020245E+0	9.413009E-1	9.955928E-1	9.825669E-1	9.217094E-1	9.251431E-1	9.805830E-1	9.567340E-1	9.982791E-1	9.218801E-1	9.831978E-1	9.720530E-1	1.008955E+0	1.037847E+0	9.819074E-1	9.439056E-1	9.529806E-1	9.789997E-1	9.514866E-1	9.501834E-1	9.435868E-1	9.989911E-1	1.015452E+0	1.038415E+0	9.423197E-1	1.001932E+0	9.518827E-1	9.229246E-1	9.190417E-1	9.573928E-1	9.562970E-1	9.882308E-1	9.516148E-1	1.011628E+0	9.664230E-1	9.259006E-1	1.029653E+0	9.276534E-1	9.337780E-1	9.510176E-1	9.879380E-1	9.500537E-1	9.828219E-1	9.781895E-1	9.380469E-1	9.731556E-1	9.120479E-1	9.575482E-1	1.005753E+0	9.276214E-1	9.925941E-1	9.135547E-1	9.867583E-1	9.445777E-1	9.489268E-1	8.946478E-1	9.514364E-1	9.429814E-1	1.015093E+0	9.082107E-1	9.740057E-1	9.517624E-1	9.735543E-1	8.956004E-1	9.964073E-1	9.758841E-1	1.004339E+0	8.993416E-1	9.513691E-1	9.459006E-1	1.010674E+0	9.236247E-1	9.225223E-1	9.423764E-1	9.610742E-1	8.973434E-1	9.935819E-1	9.997717E-1	1.020573E+0	9.162183E-1	9.883327E-1	9.901648E-1	8.802614E-1	9.420212E-1
5.440170E+2	9.165017E-1	8.938098E-1	9.854653E-1	9.669733E-1	9.973172E-1	9.011826E-1	8.958283E-1	9.605739E-1	9.552428E-1	9.153147E-1	9.213926E-1	9.659618E-1	9.409383E-1	9.457215E-1	9.037155E-1	9.154767E-1	9.659184E-1	9.588978E-1	9.479779E-1	9.572000E-1	9.826490E-1	9.748575E-1	1.015488E+0	1.007693E+0	9.790216E-1	9.320659E-1	9.966794E-1	9.582897E-1	1.016937E+0	9.507261E-1	9.300337E-1	9.317160E-1	9.579626E-1	9.739124E-1	9.312923E-1	1.038133E+0	9.767801E-1	9.326161E-1	9.248960E-1	9.668144E-1	9.332355E-1	9.919973E-1	9.243101E-1	9.573295E-1	9.530377E-1	9.843870E-1	1.009551E+0	9.311533E-1	9.884084E-1	9.640462E-1	9.618951E-1	9.685247E-1	9.751083E-1	9.503153E-1	9.016315E-1	9.401872E-1	9.942045E-1	9.304642E-1	1.007783E+0	9.670105E-1	9.414228E-1	9.801986E-1	9.512601E-1	9.283153E-1	9.300741E-1	9.849767E-1	9.380174E-1	9.752459E-1	9.779282E-1	9.388131E-1	9.874213E-1	9.591547E-1	1.027825E+0	9.087644E-1	9.219631E-1	9.652138E-1	9.750662E-1	9.380586E-1	9.707305E-1	9.714995E-1	9.466410E-1	1.024638E+0	1.017450E+0	9.703518E-1	9.893131E-1	9.172893E-1	9.774570E-1	9.310304E-1	9.253754E-1	1.010730E+0	1.023693E+0	9.213704E-1	9.634806E-1	9.490673E-1	1.051704E+0	9.887033E-1	9.764740E-1	9.241492E-1	1.017146E+0	9.836981E-1	1.012346E+0	9.564704E-1	9.908324E-1	9.828007E-1	9.855794E-1	9.729293E-1	9.959880E-1	9.970281E-1	9.819799E-1	9.282802E-1	9.220579E-1	9.460672E-1	9.983778E-1	1.004558E+0	9.633621E-1	9.850919E-1	9.309921E-1	9.416110E-1	9.834404E-1	9.413976E-1	9.764528E-1	9.503035E-1	9.722878E-1	8.818384E-1	9.639357E-1	9.238222E-1	9.696075E-1	9.329488E-1	9.695818E-1	9.044115E-1	9.745127E-1	1.000744E+0	9.855434E-1	9.661823E-1	9.463341E-1	9.351095E-1	9.935076E-1	9.117581E-1	9.842989E-1	9.612279E-1	9.669574E-1	9.273599E-1	9.229924E-1	9.456161E-1	9.800007E-1	8.759803E-1	9.998739E-1	9.314072E-1	9.299597E-1	9.605628E-1	9.283268E-1	9.507879E-1	9.854598E-1	9.230139E-1	1.004315E+0	9.892692E-1	1.000056E+0	9.245053E-1	9.601435E-1	9.541775E-1	9.606469E-1	9.440458E-1	1.014758E+0	9.835459E-1	9.719827E-1	1.052090E+0
5.445020E+2	9.732914E-1	9.702778E-1	9.044776E-1	9.339747E-1	8.863744E-1	9.288605E-1	9.007286E-1	9.186616E-1	9.301929E-1	8.888261E-1	9.068170E-1	9.276408E-1	9.164129E-1	9.070371E-1	8.967246E-1	9.710994E-1	8.861057E-1	8.492027E-1	9.141743E-1	8.928293E-1	9.332583E-1	8.681823E-1	9.347296E-1	9.335409E-1	9.423691E-1	9.543789E-1	9.154612E-1	9.140845E-1	9.027671E-1	9.505402E-1	9.265871E-1	9.269354E-1	9.201206E-1	9.133062E-1	9.015584E-1	9.366253E-1	9.140408E-1	9.527764E-1	9.169427E-1	9.184756E-1	9.733238E-1	9.452589E-1	9.115216E-1	9.312203E-1	9.436768E-1	8.883930E-1	9.396267E-1	9.641269E-1	9.211070E-1	9.216178E-1	8.733247E-1	9.055716E-1	9.170697E-1	9.201206E-1	9.161665E-1	9.320934E-1	9.340963E-1	1.027286E+0	9.577139E-1	9.212544E-1	8.895443E-1	9.196410E-1	9.094251E-1	9.345098E-1	8.871911E-1	9.244306E-1	9.484757E-1	9.386404E-1	9.377567E-1	8.610167E-1	8.982714E-1	8.745060E-1	9.891526E-1	9.500363E-1	8.776057E-1	9.017210E-1	8.955755E-1	9.103882E-1	9.388550E-1	9.315335E-1	9.363451E-1	9.460478E-1	9.500782E-1	9.262392E-1	9.473492E-1	9.334317E-1	9.548505E-1	9.093419E-1	9.570977E-1	9.761251E-1	9.010021E-1	9.384967E-1	9.355802E-1	9.339768E-1	9.123800E-1	9.439093E-1	9.348155E-1	9.247839E-1	9.627988E-1	9.777458E-1	9.327734E-1	9.273760E-1	8.712152E-1	9.245924E-1	9.561407E-1	9.185139E-1	9.856988E-1	9.705745E-1	8.943465E-1	9.025686E-1	9.432259E-1	8.718084E-1	9.216094E-1	9.408703E-1	9.686258E-1	9.083758E-1	9.367719E-1	8.766244E-1	9.403881E-1	8.960198E-1	9.698988E-1	9.225770E-1	9.539936E-1	9.129459E-1	8.722561E-1	9.201674E-1	9.308373E-1	9.239603E-1	9.402578E-1	9.389491E-1	9.085593E-1	9.013060E-1	9.841047E-1	9.106905E-1	9.339891E-1	9.552195E-1	9.278685E-1	9.257578E-1	9.649416E-1	9.346472E-1	9.267412E-1	8.990639E-1	9.251586E-1	9.112013E-1	9.945558E-1	8.724586E-1	9.547984E-1	9.098005E-1	9.420833E-1	8.763546E-1	9.208952E-1	8.944837E-1	8.981134E-1	9.625220E-1	9.449900E-1	9.199532E-1	8.876491E-1	9.322222E-1	9.495631E-1	9.592471E-1	9.341720E-1	9.610405E-1	9.451102E-1	9.206672E-1	9.431323E-1	1.006605E+0
5.450090E+2	8.491439E-1	9.011058E-1	9.265530E-1	8.745854E-1	9.097107E-1	8.269188E-1	9.323292E-1	8.994777E-1	9.019076E-1	8.693390E-1	9.378247E-1	8.852514E-1	9.125056E-1	8.765075E-1	8.737292E-1	8.896178E-1	8.480049E-1	9.067888E-1	9.178113E-1	8.880919E-1	9.483080E-1	8.772795E-1	9.087343E-1	8.884834E-1	9.205639E-1	8.771959E-1	9.038766E-1	8.958771E-1	8.897178E-1	9.182063E-1	9.558038E-1	9.023534E-1	9.513344E-1	8.912019E-1	8.788143E-1	9.625506E-1	9.115861E-1	8.671677E-1	8.840381E-1	9.191458E-1	8.514009E-1	9.021395E-1	8.955554E-1	9.066343E-1	9.449096E-1	9.270290E-1	9.512218E-1	8.806700E-1	9.608570E-1	8.379054E-1	9.300522E-1	9.306290E-1	9.272983E-1	9.085519E-1	9.107868E-1	9.183915E-1	8.883057E-1	8.897799E-1	9.613204E-1	9.421075E-1	9.002809E-1	8.732458E-1	9.039579E-1	8.085812E-1	9.109486E-1	8.993253E-1	9.317166E-1	9.027041E-1	8.942657E-1	9.138083E-1	9.394017E-1	8.878656E-1	9.702404E-1	9.009832E-1	8.857697E-1	9.094944E-1	9.797618E-1	8.450142E-1	8.953031E-1	9.013343E-1	9.191870E-1	9.090221E-1	9.523347E-1	8.955615E-1	9.103038E-1	8.405658E-1	8.527328E-1	9.505973E-1	8.926958E-1	9.454379E-1	8.750109E-1	8.735717E-1	8.420799E-1	9.215286E-1	9.006220E-1	9.039311E-1	8.665986E-1	9.106149E-1	9.203296E-1	9.832208E-1	8.931537E-1	8.806970E-1	8.531967E-1	8.705535E-1	8.955415E-1	9.201449E-1	8.567767E-1	9.407293E-1	9.069922E-1	8.875836E-1	9.178417E-1	8.959925E-1	8.780034E-1	9.213146E-1	9.790980E-1	8.893980E-1	8.602516E-1	8.777411E-1	8.822006E-1	8.993582E-1	9.201942E-1	9.034741E-1	9.168721E-1	9.521792E-1	9.322216E-1	9.196529E-1	8.691637E-1	8.872904E-1	9.260541E-1	9.007838E-1	9.054585E-1	9.046194E-1	9.152831E-1	9.191263E-1	8.582648E-1	8.554462E-1	9.210308E-1	8.516042E-1	9.797674E-1	9.374633E-1	9.186608E-1	8.753191E-1	9.157285E-1	8.912608E-1	9.598337E-1	8.416660E-1	8.588796E-1	8.941417E-1	9.493963E-1	8.874697E-1	8.932878E-1	8.891070E-1	8.771895E-1	8.399552E-1	9.221750E-1	9.070204E-1	9.070107E-1	8.731167E-1	9.041057E-1	8.264435E-1	8.659476E-1	8.794583E-1	8.318655E-1	8.559635E-1	8.352815E-1	9.021134E-1
5.455130E+2	8.870843E-1	1.000327E+0	9.104547E-1	8.773696E-1	8.859753E-1	8.898546E-1	9.125490E-1	9.057089E-1	9.192607E-1	8.845038E-1	8.813071E-1	8.967679E-1	9.466855E-1	9.434656E-1	8.725242E-1	9.204245E-1	8.459915E-1	9.045814E-1	8.964214E-1	9.036272E-1	9.677882E-1	9.238838E-1	9.359590E-1	8.726745E-1	9.628571E-1	8.828591E-1	8.706849E-1	8.963158E-1	8.495249E-1	9.373380E-1	9.241904E-1	8.868180E-1	9.335290E-1	8.898536E-1	8.738882E-1	9.683457E-1	9.156634E-1	8.823360E-1	8.458675E-1	8.514731E-1	9.021122E-1	9.125069E-1	8.812055E-1	9.425850E-1	8.444045E-1	8.952733E-1	9.286440E-1	8.953852E-1	8.793172E-1	8.769672E-1	8.735909E-1	9.652864E-1	8.917643E-1	9.439314E-1	9.338805E-1	9.216926E-1	9.093360E-1	8.684234E-1	9.268814E-1	8.658705E-1	9.004829E-1	9.155936E-1	9.317285E-1	9.041553E-1	9.272875E-1	9.623642E-1	8.696477E-1	9.450668E-1	9.635391E-1	8.765387E-1	9.296434E-1	8.750768E-1	9.091848E-1	9.046133E-1	9.051187E-1	9.067891E-1	8.853842E-1	8.721520E-1	9.098778E-1	9.575912E-1	9.549786E-1	8.917025E-1	9.343376E-1	8.876046E-1	8.845152E-1	8.880845E-1	8.772335E-1	8.901218E-1	8.663004E-1	9.212167E-1	9.187694E-1	9.052338E-1	9.335267E-1	9.027921E-1	9.279994E-1	9.167014E-1	8.876205E-1	8.853647E-1	9.064960E-1	9.397331E-1	9.105266E-1	9.216799E-1	9.120925E-1	9.585744E-1	8.976885E-1	9.550359E-1	9.662978E-1	9.281910E-1	8.823145E-1	8.709730E-1	8.998353E-1	8.810195E-1	8.514016E-1	9.297221E-1	9.187220E-1	9.088183E-1	9.219175E-1	8.668461E-1	8.596157E-1	9.436280E-1	8.725860E-1	9.505530E-1	9.105071E-1	8.370243E-1	9.444075E-1	8.775423E-1	8.774704E-1	8.889949E-1	9.041400E-1	8.670145E-1	9.028909E-1	9.253300E-1	8.981487E-1	8.820379E-1	8.958315E-1	8.680707E-1	8.248047E-1	8.666163E-1	8.759162E-1	8.604592E-1	8.777161E-1	8.450759E-1	9.240671E-1	9.012464E-1	9.271707E-1	8.707657E-1	8.825119E-1	8.952022E-1	9.269224E-1	8.594368E-1	8.743726E-1	8.832238E-1	9.147474E-1	8.929756E-1	9.325331E-1	9.290190E-1	9.307744E-1	8.400606E-1	9.089621E-1	8.486588E-1	8.826428E-1	8.830196E-1	9.605974E-1	8.930001E-1	8.868956E-1	9.588439E-1
5.460060E+2	9.588775E-1	9.628824E-1	9.588964E-1	9.432229E-1	9.439947E-1	8.888470E-1	9.139936E-1	9.656272E-1	9.124875E-1	9.163715E-1	9.462907E-1	9.526855E-1	9.453446E-1	9.460940E-1	8.959523E-1	9.610027E-1	9.108543E-1	9.471150E-1	9.313267E-1	9.154219E-1	9.318638E-1	9.665714E-1	9.753287E-1	9.182024E-1	9.645656E-1	8.963206E-1	9.037778E-1	9.412053E-1	9.346184E-1	9.254845E-1	9.047265E-1	9.213022E-1	8.823650E-1	9.017882E-1	9.743775E-1	1.017613E+0	9.238117E-1	9.631220E-1	9.101034E-1	8.845401E-1	9.308777E-1	9.460757E-1	9.381660E-1	9.333842E-1	9.484531E-1	9.559041E-1	9.555290E-1	9.648627E-1	9.217486E-1	9.265970E-1	9.840870E-1	9.069440E-1	9.162623E-1	9.676559E-1	9.254257E-1	9.617440E-1	9.120728E-1	9.471930E-1	9.657717E-1	9.921594E-1	8.648811E-1	9.566156E-1	9.420323E-1	9.914921E-1	9.782554E-1	1.005662E+0	9.282317E-1	9.129342E-1	9.537209E-1	9.588181E-1	9.484909E-1	9.558890E-1	1.010839E+0	9.586891E-1	9.451825E-1	9.564560E-1	9.783383E-1	9.483084E-1	9.181818E-1	9.930498E-1	9.428643E-1	9.161883E-1	1.015169E+0	9.853953E-1	9.007574E-1	8.951481E-1	9.686044E-1	9.452517E-1	9.360221E-1	9.695018E-1	9.637392E-1	9.847152E-1	9.168591E-1	9.401165E-1	9.541808E-1	9.581852E-1	9.264675E-1	9.044286E-1	1.002296E+0	9.709810E-1	9.420923E-1	9.296063E-1	9.142146E-1	9.143086E-1	9.436470E-1	9.993952E-1	9.461303E-1	1.001464E+0	8.966118E-1	9.472169E-1	9.263001E-1	9.198683E-1	9.411271E-1	9.153496E-1	1.029555E+0	9.451886E-1	9.098295E-1	9.104828E-1	9.626684E-1	1.000084E+0	9.048154E-1	9.452337E-1	9.746122E-1	9.493239E-1	9.339829E-1	9.481750E-1	8.978099E-1	9.327192E-1	9.376045E-1	9.979385E-1	9.443461E-1	9.307998E-1	9.776605E-1	9.384363E-1	8.997366E-1	9.414540E-1	1.000859E+0	8.987449E-1	8.964852E-1	9.574523E-1	9.487389E-1	9.148817E-1	9.913262E-1	9.928309E-1	1.035810E+0	9.266105E-1	9.616725E-1	9.272624E-1	9.611694E-1	9.048359E-1	9.678525E-1	9.366284E-1	9.435764E-1	9.339730E-1	9.525032E-1	9.514571E-1	9.886428E-1	9.359394E-1	9.701515E-1	8.770469E-1	9.143517E-1	8.888675E-1	9.827871E-1	9.272553E-1	9.325557E-1	1.050466E+0
5.465380E+2	8.813569E-1	9.473599E-1	9.255920E-1	8.960450E-1	8.812566E-1	8.536359E-1	8.948889E-1	8.795850E-1	8.738822E-1	8.778972E-1	8.836104E-1	8.930980E-1	8.875371E-1	8.885758E-1	8.451404E-1	8.691723E-1	8.547782E-1	9.022302E-1	9.165105E-1	9.295200E-1	9.122461E-1	8.765801E-1	9.280019E-1	8.473515E-1	9.569541E-1	8.872006E-1	8.891887E-1	9.566212E-1	8.609180E-1	8.880760E-1	8.947698E-1	8.517253E-1	9.053540E-1	8.529998E-1	9.254144E-1	8.873745E-1	9.277178E-1	9.087920E-1	8.870453E-1	8.662064E-1	8.634798E-1	9.522268E-1	9.172230E-1	8.496323E-1	8.575321E-1	8.680691E-1	8.928756E-1	9.121044E-1	9.003596E-1	9.499147E-1	9.315756E-1	8.885530E-1	8.943591E-1	9.416570E-1	9.170346E-1	8.848749E-1	9.251447E-1	8.849205E-1	9.343790E-1	8.916016E-1	9.026281E-1	8.949960E-1	9.236778E-1	8.757493E-1	9.205090E-1	8.784371E-1	9.244571E-1	9.690603E-1	9.265004E-1	9.569213E-1	8.956353E-1	9.097894E-1	9.893940E-1	8.506996E-1	8.943889E-1	8.844015E-1	8.899989E-1	8.591269E-1	8.837481E-1	9.339162E-1	9.595467E-1	8.858066E-1	9.309704E-1	9.515891E-1	9.406206E-1	8.978794E-1	8.962065E-1	8.780588E-1	9.578241E-1	9.072168E-1	8.924214E-1	8.330674E-1	9.171820E-1	8.914723E-1	8.744127E-1	8.930054E-1	8.875593E-1	8.545142E-1	9.081047E-1	9.130447E-1	8.872879E-1	8.755560E-1	9.429286E-1	9.122157E-1	9.423241E-1	8.962763E-1	9.228505E-1	9.462871E-1	9.673550E-1	8.928709E-1	8.933453E-1	8.815594E-1	9.091949E-1	9.133369E-1	8.805341E-1	8.868927E-1	8.510483E-1	8.680502E-1	8.680375E-1	8.883963E-1	8.988414E-1	8.274407E-1	9.265278E-1	9.334422E-1	8.716166E-1	9.181481E-1	8.675093E-1	9.277586E-1	9.334441E-1	8.882734E-1	9.111076E-1	9.112726E-1	9.207693E-1	8.733438E-1	9.109217E-1	8.716449E-1	9.006289E-1	8.772364E-1	8.926395E-1	9.323196E-1	8.638068E-1	8.844754E-1	8.964969E-1	9.312614E-1	9.093265E-1	8.788065E-1	8.785728E-1	9.047927E-1	9.098735E-1	8.794705E-1	9.413107E-1	9.000899E-1	8.719217E-1	9.168560E-1	8.936344E-1	9.439265E-1	9.348174E-1	9.020455E-1	9.055738E-1	8.880004E-1	9.070335E-1	8.611530E-1	8.968514E-1	8.877291E-1	8.712825E-1	9.555330E-1
5.470110E+2	8.940412E-1	8.868018E-1	9.154640E-1	8.769560E-1	9.160975E-1	8.398714E-1	8.987871E-1	8.585242E-1	8.693246E-1	9.060480E-1	8.821953E-1	8.802574E-1	8.996772E-1	9.107441E-1	8.093392E-1	8.272158E-1	8.700863E-1	9.357121E-1	8.893065E-1	9.293989E-1	9.125892E-1	8.871601E-1	8.738593E-1	9.045503E-1	9.631376E-1	8.819085E-1	8.944246E-1	8.573281E-1	8.496824E-1	8.939786E-1	8.307901E-1	8.955119E-1	8.650982E-1	8.985971E-1	8.229871E-1	9.561496E-1	8.886684E-1	8.796543E-1	8.646294E-1	8.655066E-1	9.056848E-1	8.951982E-1	8.988528E-1	8.733197E-1	8.670291E-1	8.871339E-1	9.321314E-1	9.209774E-1	8.767339E-1	8.619091E-1	8.729480E-1	8.946775E-1	9.198532E-1	8.736022E-1	8.961496E-1	8.740409E-1	9.200072E-1	8.753051E-1	9.041795E-1	9.015642E-1	8.891265E-1	9.161595E-1	8.959220E-1	9.118149E-1	9.008131E-1	8.769815E-1	9.049331E-1	9.055418E-1	9.158532E-1	8.566556E-1	8.778063E-1	8.302309E-1	8.971612E-1	8.392737E-1	8.946473E-1	9.012447E-1	9.127311E-1	8.119312E-1	8.976671E-1	9.146081E-1	9.321640E-1	8.930020E-1	8.831603E-1	9.217653E-1	9.085241E-1	9.188179E-1	9.100747E-1	9.074208E-1	8.294257E-1	9.460906E-1	9.072895E-1	9.104052E-1	9.286549E-1	8.774520E-1	8.626899E-1	8.848679E-1	8.494400E-1	8.662423E-1	9.388174E-1	9.252465E-1	8.929661E-1	8.658883E-1	8.449280E-1	8.816555E-1	8.738553E-1	8.363649E-1	8.718755E-1	8.929773E-1	8.743794E-1	8.738074E-1	9.170523E-1	8.660749E-1	8.756519E-1	9.448771E-1	8.779060E-1	9.162187E-1	8.875447E-1	8.282454E-1	8.759248E-1	8.941736E-1	8.586708E-1	8.794981E-1	8.909702E-1	9.014898E-1	8.592766E-1	9.260784E-1	8.334490E-1	8.808702E-1	8.714684E-1	9.051987E-1	9.004764E-1	9.439395E-1	8.961522E-1	9.062054E-1	8.758152E-1	8.475499E-1	9.143437E-1	8.583168E-1	8.675641E-1	9.385199E-1	8.972921E-1	8.458917E-1	8.675877E-1	9.152667E-1	9.021583E-1	7.929263E-1	8.966148E-1	8.792729E-1	8.754868E-1	8.693351E-1	8.549691E-1	8.805255E-1	8.469004E-1	8.947068E-1	9.148334E-1	8.731939E-1	9.239736E-1	8.905810E-1	8.939969E-1	8.666161E-1	8.838901E-1	8.331215E-1	8.671271E-1	8.401759E-1	8.935874E-1	1.028222E+0
5.475070E+2	9.046171E-1	9.353099E-1	1.024371E+0	9.167186E-1	8.908315E-1	9.565727E-1	9.506596E-1	9.776929E-1	9.190758E-1	9.663194E-1	9.248246E-1	9.682595E-1	9.458170E-1	9.593455E-1	9.250777E-1	9.481711E-1	9.486758E-1	9.648877E-1	9.794304E-1	9.761452E-1	9.132360E-1	9.392174E-1	9.183981E-1	9.560196E-1	9.382799E-1	8.985163E-1	9.454987E-1	9.252179E-1	9.311111E-1	9.497341E-1	8.985407E-1	9.228292E-1	9.601435E-1	9.329149E-1	9.376304E-1	9.541582E-1	9.798007E-1	9.409047E-1	9.692557E-1	9.529848E-1	9.735168E-1	9.442628E-1	9.471750E-1	8.983238E-1	9.344027E-1	9.333072E-1	1.000220E+0	9.730583E-1	9.489451E-1	9.617786E-1	9.302132E-1	9.868817E-1	9.313343E-1	9.348733E-1	9.396798E-1	9.981419E-1	9.738072E-1	9.611252E-1	9.827415E-1	9.733340E-1	9.231717E-1	9.482275E-1	9.400967E-1	9.172278E-1	9.734220E-1	9.467762E-1	9.794720E-1	9.164395E-1	9.429112E-1	9.473577E-1	9.600533E-1	9.338771E-1	9.488648E-1	9.116052E-1	9.367944E-1	9.543627E-1	9.761734E-1	9.203251E-1	9.563856E-1	9.514011E-1	1.015398E+0	9.624979E-1	9.459591E-1	9.286398E-1	9.301864E-1	9.292324E-1	9.382144E-1	8.795613E-1	9.417601E-1	9.533975E-1	8.960274E-1	9.308769E-1	1.002457E+0	9.304564E-1	9.441319E-1	9.947869E-1	9.388578E-1	9.215283E-1	9.157281E-1	8.952766E-1	9.132968E-1	9.670473E-1	9.402478E-1	8.916847E-1	9.641892E-1	9.498353E-1	9.370501E-1	9.523792E-1	9.571145E-1	9.757502E-1	9.163051E-1	9.585073E-1	9.326790E-1	1.000699E+0	9.573233E-1	9.378375E-1	9.382864E-1	9.177837E-1	9.725011E-1	9.442423E-1	9.555431E-1	9.675671E-1	9.755796E-1	9.309209E-1	9.672723E-1	9.257149E-1	8.801830E-1	9.787803E-1	9.280037E-1	9.500383E-1	9.338780E-1	9.875794E-1	9.815184E-1	8.876012E-1	9.373082E-1	9.150700E-1	9.266433E-1	9.138242E-1	8.710907E-1	9.573674E-1	9.411142E-1	8.817702E-1	9.142484E-1	9.607221E-1	1.039652E+0	9.155440E-1	9.256796E-1	1.004815E+0	9.399687E-1	9.887809E-1	9.905539E-1	9.364508E-1	9.359552E-1	9.487100E-1	9.366509E-1	9.355283E-1	9.837466E-1	9.130443E-1	9.336659E-1	9.464961E-1	9.565403E-1	9.651961E-1	9.820618E-1	9.512155E-1	1.071396E+0	7.882850E-1
5.480090E+2	9.922789E-1	9.866376E-1	9.855960E-1	9.982652E-1	9.685371E-1	9.897591E-1	1.009951E+0	1.013730E+0	9.934087E-1	9.814886E-1	9.636671E-1	1.016046E+0	9.795146E-1	1.006274E+0	9.936759E-1	1.014436E+0	9.811339E-1	9.942548E-1	1.010726E+0	1.046104E+0	1.008028E+0	1.032827E+0	9.624663E-1	1.004467E+0	1.061894E+0	9.794583E-1	1.041350E+0	1.007661E+0	9.744825E-1	9.919207E-1	9.981371E-1	9.807455E-1	1.016363E+0	9.385582E-1	1.015521E+0	1.000838E+0	9.394343E-1	9.911397E-1	9.763071E-1	9.706439E-1	1.000172E+0	1.028672E+0	9.828659E-1	9.564099E-1	1.031694E+0	9.646647E-1	9.497268E-1	1.022514E+0	1.031373E+0	1.038090E+0	9.831545E-1	1.015648E+0	1.018553E+0	1.009536E+0	9.938776E-1	1.027609E+0	9.666204E-1	9.873833E-1	1.094732E+0	1.014710E+0	1.013861E+0	9.930494E-1	9.530895E-1	9.897619E-1	9.704294E-1	9.818036E-1	1.036203E+0	1.104409E+0	1.046179E+0	9.351548E-1	1.024003E+0	9.470211E-1	1.105008E+0	9.488922E-1	9.778375E-1	9.862311E-1	1.009808E+0	9.691162E-1	9.985384E-1	9.894460E-1	1.008572E+0	1.003128E+0	9.912888E-1	9.921131E-1	9.722482E-1	1.020335E+0	1.005771E+0	9.836074E-1	9.677119E-1	9.689230E-1	1.014800E+0	1.012437E+0	1.046580E+0	9.396425E-1	1.041540E+0	9.718813E-1	1.017117E+0	1.007682E+0	9.921763E-1	1.053698E+0	1.056061E+0	9.673421E-1	9.401830E-1	1.043557E+0	1.028317E+0	1.019118E+0	1.043169E+0	9.801943E-1	9.902868E-1	9.842089E-1	9.618979E-1	9.683302E-1	1.005780E+0	1.044667E+0	1.018380E+0	9.911877E-1	1.027761E+0	9.674077E-1	1.058388E+0	9.612015E-1	9.890027E-1	9.638672E-1	1.024867E+0	9.477166E-1	9.880035E-1	9.842120E-1	9.567942E-1	9.903214E-1	1.057136E+0	9.967276E-1	9.842688E-1	9.891560E-1	1.041467E+0	9.611633E-1	9.713448E-1	1.049636E+0	1.049422E+0	9.803738E-1	9.967054E-1	1.032414E+0	1.028018E+0	9.937306E-1	1.002505E+0	1.055272E+0	1.057914E+0	9.795697E-1	9.620694E-1	1.033713E+0	1.014484E+0	9.855269E-1	1.009460E+0	9.957246E-1	1.000846E+0	9.884151E-1	9.964432E-1	1.050539E+0	1.034390E+0	9.827938E-1	1.007102E+0	1.034234E+0	1.011832E+0	9.474745E-1	1.036344E+0	1.013205E+0	9.492104E-1	1.019948E+0
5.485450E+2	1.199871E+0	1.167963E+0	1.205901E+0	1.224074E+0	1.159537E+0	1.184055E+0	1.165199E+0	1.155073E+0	1.281103E+0	1.215656E+0	1.183611E+0	1.243272E+0	1.277357E+0	1.230935E+0	1.187064E+0	1.182297E+0	1.217856E+0	1.236149E+0	1.190494E+0	1.206060E+0	1.205090E+0	1.206123E+0	1.184705E+0	1.227172E+0	1.254761E+0	1.188244E+0	1.184994E+0	1.208834E+0	1.218887E+0	1.203592E+0	1.230293E+0	1.222619E+0	1.228016E+0	1.158893E+0	1.113205E+0	1.246983E+0	1.145227E+0	1.180298E+0	1.176668E+0	1.167987E+0	1.252901E+0	1.209471E+0	1.190916E+0	1.184180E+0	1.203898E+0	1.139686E+0	1.217489E+0	1.211743E+0	1.217804E+0	1.184841E+0	1.184928E+0	1.257172E+0	1.232487E+0	1.225946E+0	1.160393E+0	1.207137E+0	1.215937E+0	1.202661E+0	1.189812E+0	1.155576E+0	1.139620E+0	1.141339E+0	1.172110E+0	1.266595E+0	1.293917E+0	1.226130E+0	1.213839E+0	1.198341E+0	1.204210E+0	1.246871E+0	1.209193E+0	1.179029E+0	1.204185E+0	1.230457E+0	1.159074E+0	1.270093E+0	1.244099E+0	1.138636E+0	1.205593E+0	1.190731E+0	1.262119E+0	1.236618E+0	1.205267E+0	1.245815E+0	1.260637E+0	1.160477E+0	1.187809E+0	1.210308E+0	1.214024E+0	1.204147E+0	1.200197E+0	1.244418E+0	1.246866E+0	1.248045E+0	1.210215E+0	1.216601E+0	1.214886E+0	1.166028E+0	1.193865E+0	1.206755E+0	1.185542E+0	1.189791E+0	1.175241E+0	1.203051E+0	1.187848E+0	1.214851E+0	1.244348E+0	1.182449E+0	1.188334E+0	1.192384E+0	1.240759E+0	1.206215E+0	1.174977E+0	1.228753E+0	1.174463E+0	1.144052E+0	1.236001E+0	1.227872E+0	1.170872E+0	1.166389E+0	1.208358E+0	1.196625E+0	1.138332E+0	1.214054E+0	1.234202E+0	1.217270E+0	1.102585E+0	1.242136E+0	1.191586E+0	1.203483E+0	1.162979E+0	1.157283E+0	1.215058E+0	1.195424E+0	1.107753E+0	1.184280E+0	1.197068E+0	1.191563E+0	1.149903E+0	1.217932E+0	1.202569E+0	1.134132E+0	1.137443E+0	1.227226E+0	1.221386E+0	1.085397E+0	1.156323E+0	1.161661E+0	1.248236E+0	1.217161E+0	1.218145E+0	1.225773E+0	1.187890E+0	1.176214E+0	1.231146E+0	1.214854E+0	1.181240E+0	1.246611E+0	1.184288E+0	1.192009E+0	1.167952E+0	1.179921E+0	1.220544E+0	1.176055E+0	1.087578E+0	1.267237E+0
5.490490E+2	1.545226E+0	1.511368E+0	1.570205E+0	1.530822E+0	1.515615E+0	1.490968E+0	1.459753E+0	1.492303E+0	1.478934E+0	1.468569E+0	1.448117E+0	1.503916E+0	1.475484E+0	1.513560E+0	1.481752E+0	1.498314E+0	1.473119E+0	1.455345E+0	1.506869E+0	1.480579E+0	1.535760E+0	1.523171E+0	1.497324E+0	1.442948E+0	1.561232E+0	1.492127E+0	1.421639E+0	1.411872E+0	1.466551E+0	1.471602E+0	1.477173E+0	1.477909E+0	1.499807E+0	1.470177E+0	1.435476E+0	1.543193E+0	1.499518E+0	1.431567E+0	1.461261E+0	1.430818E+0	1.558536E+0	1.500293E+0	1.460870E+0	1.521948E+0	1.447800E+0	1.449367E+0	1.535708E+0	1.507775E+0	1.551610E+0	1.483390E+0	1.467215E+0	1.547520E+0	1.547640E+0	1.486664E+0	1.511627E+0	1.473233E+0	1.515587E+0	1.483104E+0	1.529014E+0	1.457146E+0	1.439584E+0	1.497006E+0	1.421378E+0	1.492641E+0	1.537766E+0	1.489759E+0	1.459910E+0	1.453619E+0	1.479561E+0	1.478959E+0	1.466159E+0	1.510663E+0	1.488334E+0	1.444150E+0	1.441920E+0	1.437099E+0	1.508377E+0	1.453921E+0	1.438428E+0	1.474254E+0	1.548462E+0	1.478556E+0	1.477036E+0	1.591028E+0	1.446840E+0	1.473892E+0	1.539205E+0	1.508876E+0	1.471053E+0	1.491341E+0	1.472374E+0	1.502931E+0	1.479210E+0	1.413560E+0	1.517282E+0	1.502378E+0	1.574899E+0	1.440119E+0	1.499989E+0	1.501172E+0	1.493295E+0	1.479650E+0	1.428516E+0	1.515673E+0	1.500433E+0	1.551494E+0	1.516086E+0	1.523796E+0	1.420989E+0	1.461978E+0	1.464169E+0	1.480334E+0	1.534063E+0	1.497914E+0	1.522530E+0	1.482742E+0	1.446031E+0	1.409753E+0	1.485931E+0	1.472748E+0	1.558118E+0	1.470946E+0	1.462346E+0	1.497016E+0	1.499262E+0	1.502051E+0	1.497679E+0	1.434131E+0	1.439763E+0	1.469490E+0	1.493635E+0	1.482713E+0	1.559830E+0	1.443258E+0	1.460074E+0	1.423166E+0	1.466540E+0	1.528552E+0	1.414058E+0	1.461358E+0	1.485618E+0	1.454175E+0	1.388346E+0	1.499440E+0	1.570023E+0	1.336955E+0	1.479692E+0	1.470544E+0	1.523375E+0	1.476922E+0	1.456645E+0	1.469715E+0	1.504875E+0	1.467305E+0	1.519009E+0	1.500282E+0	1.418094E+0	1.495916E+0	1.440271E+0	1.476369E+0	1.439254E+0	1.424684E+0	1.459485E+0	1.475075E+0	1.528893E+0	1.426263E+0
5.495150E+2	1.715031E+0	1.755687E+0	1.768414E+0	1.688342E+0	1.692099E+0	1.594433E+0	1.681697E+0	1.744603E+0	1.667052E+0	1.706462E+0	1.724760E+0	1.666166E+0	1.663964E+0	1.693687E+0	1.681065E+0	1.732114E+0	1.750048E+0	1.686512E+0	1.737889E+0	1.695869E+0	1.767603E+0	1.645961E+0	1.716382E+0	1.639684E+0	1.758267E+0	1.581507E+0	1.672438E+0	1.749706E+0	1.687311E+0	1.734838E+0	1.664428E+0	1.723199E+0	1.758134E+0	1.676352E+0	1.706049E+0	1.748173E+0	1.744189E+0	1.749083E+0	1.670799E+0	1.601482E+0	1.755880E+0	1.775032E+0	1.696815E+0	1.611065E+0	1.700494E+0	1.737135E+0	1.722533E+0	1.728638E+0	1.744427E+0	1.685385E+0	1.721061E+0	1.742893E+0	1.747928E+0	1.712256E+0	1.687768E+0	1.745539E+0	1.759514E+0	1.595908E+0	1.762947E+0	1.741368E+0	1.641648E+0	1.726881E+0	1.642633E+0	1.653484E+0	1.729388E+0	1.662348E+0	1.721172E+0	1.755142E+0	1.771488E+0	1.701147E+0	1.713960E+0	1.617700E+0	1.734512E+0	1.613896E+0	1.684144E+0	1.667227E+0	1.731062E+0	1.668770E+0	1.639709E+0	1.654710E+0	1.775753E+0	1.709629E+0	1.694464E+0	1.738786E+0	1.666368E+0	1.713205E+0	1.707917E+0	1.650729E+0	1.714754E+0	1.630881E+0	1.647629E+0	1.598198E+0	1.704868E+0	1.671363E+0	1.655884E+0	1.646140E+0	1.668932E+0	1.689773E+0	1.783942E+0	1.686473E+0	1.713804E+0	1.650499E+0	1.675674E+0	1.730346E+0	1.723032E+0	1.727496E+0	1.707443E+0	1.668563E+0	1.671631E+0	1.725765E+0	1.707763E+0	1.701708E+0	1.715310E+0	1.754801E+0	1.679725E+0	1.706641E+0	1.684025E+0	1.637963E+0	1.683467E+0	1.717501E+0	1.678743E+0	1.725992E+0	1.664829E+0	1.672485E+0	1.709387E+0	1.673150E+0	1.653741E+0	1.728293E+0	1.673867E+0	1.719390E+0	1.710840E+0	1.616566E+0	1.751390E+0	1.668904E+0	1.646590E+0	1.691489E+0	1.635263E+0	1.695760E+0	1.611789E+0	1.765821E+0	1.672419E+0	1.610247E+0	1.676981E+0	1.709960E+0	1.740671E+0	1.680085E+0	1.712028E+0	1.749603E+0	1.627810E+0	1.663804E+0	1.737654E+0	1.673118E+0	1.639669E+0	1.654978E+0	1.712828E+0	1.638043E+0	1.644613E+0	1.689855E+0	1.563866E+0	1.734457E+0	1.633611E+0	1.621777E+0	1.675159E+0	1.569320E+0	1.546644E+0	1.606326E+0
5.500160E+2	1.507586E+0	1.536057E+0	1.568671E+0	1.496277E+0	1.448969E+0	1.503328E+0	1.525252E+0	1.477826E+0	1.484515E+0	1.537046E+0	1.458933E+0	1.542392E+0	1.544805E+0	1.548700E+0	1.417755E+0	1.529873E+0	1.517594E+0	1.482552E+0	1.536571E+0	1.521201E+0	1.459353E+0	1.525544E+0	1.577662E+0	1.435638E+0	1.548275E+0	1.461501E+0	1.417608E+0	1.467569E+0	1.502454E+0	1.544306E+0	1.482524E+0	1.453229E+0	1.546969E+0	1.464406E+0	1.543814E+0	1.509853E+0	1.518100E+0	1.527343E+0	1.449016E+0	1.482626E+0	1.600711E+0	1.542630E+0	1.471874E+0	1.513844E+0	1.451779E+0	1.447106E+0	1.558532E+0	1.497911E+0	1.514766E+0	1.507583E+0	1.490483E+0	1.507864E+0	1.523025E+0	1.534975E+0	1.510507E+0	1.531069E+0	1.554677E+0	1.507352E+0	1.537052E+0	1.530511E+0	1.476689E+0	1.505330E+0	1.529681E+0	1.482913E+0	1.514202E+0	1.459325E+0	1.518155E+0	1.545092E+0	1.529313E+0	1.528371E+0	1.526858E+0	1.532226E+0	1.587287E+0	1.507620E+0	1.467455E+0	1.494674E+0	1.531358E+0	1.406379E+0	1.523010E+0	1.507559E+0	1.555631E+0	1.551309E+0	1.480187E+0	1.576896E+0	1.554509E+0	1.447938E+0	1.521150E+0	1.488248E+0	1.487785E+0	1.519733E+0	1.521535E+0	1.548748E+0	1.511010E+0	1.473301E+0	1.526877E+0	1.549997E+0	1.610432E+0	1.423913E+0	1.559606E+0	1.589607E+0	1.492715E+0	1.441402E+0	1.505696E+0	1.483036E+0	1.585017E+0	1.570638E+0	1.601166E+0	1.479718E+0	1.410188E+0	1.470668E+0	1.483021E+0	1.426989E+0	1.558347E+0	1.509815E+0	1.509752E+0	1.510964E+0	1.470611E+0	1.458651E+0	1.495441E+0	1.462798E+0	1.526368E+0	1.548009E+0	1.531409E+0	1.570338E+0	1.462818E+0	1.523456E+0	1.522364E+0	1.454858E+0	1.533851E+0	1.487037E+0	1.515648E+0	1.462432E+0	1.530988E+0	1.507501E+0	1.438703E+0	1.429786E+0	1.484455E+0	1.436899E+0	1.448559E+0	1.501702E+0	1.447195E+0	1.377643E+0	1.486367E+0	1.554675E+0	1.555452E+0	1.453319E+0	1.463107E+0	1.514882E+0	1.517118E+0	1.489936E+0	1.490453E+0	1.466051E+0	1.620291E+0	1.507138E+0	1.474355E+0	1.492517E+0	1.461027E+0	1.566571E+0	1.476684E+0	1.484622E+0	1.505027E+0	1.433633E+0	1.461499E+0	1.458881E+0	1.545910E+0	1.585947E+0
5.505060E+2	1.480398E+0	1.502471E+0	1.529200E+0	1.497178E+0	1.485952E+0	1.441177E+0	1.472263E+0	1.541786E+0	1.477692E+0	1.515634E+0	1.511850E+0	1.491919E+0	1.498060E+0	1.493908E+0	1.455819E+0	1.492029E+0	1.494486E+0	1.493298E+0	1.463238E+0	1.468491E+0	1.576650E+0	1.480905E+0	1.487674E+0	1.507375E+0	1.568832E+0	1.461396E+0	1.458714E+0	1.505468E+0	1.431856E+0	1.518242E+0	1.456870E+0	1.447806E+0	1.479920E+0	1.468911E+0	1.492469E+0	1.460134E+0	1.512284E+0	1.448195E+0	1.443691E+0	1.438541E+0	1.488077E+0	1.513374E+0	1.429582E+0	1.450724E+0	1.496272E+0	1.457968E+0	1.529109E+0	1.532866E+0	1.504384E+0	1.452606E+0	1.500100E+0	1.407605E+0	1.518947E+0	1.443388E+0	1.491429E+0	1.494743E+0	1.450898E+0	1.503180E+0	1.528327E+0	1.493965E+0	1.415474E+0	1.498838E+0	1.468667E+0	1.454863E+0	1.497023E+0	1.558123E+0	1.534234E+0	1.476651E+0	1.521026E+0	1.502911E+0	1.475799E+0	1.532367E+0	1.572395E+0	1.476289E+0	1.454495E+0	1.487508E+0	1.550242E+0	1.399334E+0	1.440183E+0	1.456677E+0	1.528125E+0	1.519362E+0	1.483564E+0	1.484109E+0	1.517721E+0	1.501330E+0	1.499066E+0	1.486266E+0	1.547333E+0	1.457278E+0	1.470550E+0	1.459001E+0	1.485710E+0	1.401519E+0	1.539469E+0	1.454272E+0	1.502953E+0	1.505477E+0	1.468258E+0	1.467028E+0	1.496719E+0	1.505534E+0	1.438456E+0	1.448553E+0	1.518074E+0	1.548246E+0	1.587066E+0	1.458799E+0	1.467381E+0	1.507293E+0	1.378012E+0	1.417554E+0	1.542296E+0	1.513251E+0	1.499629E+0	1.408197E+0	1.486168E+0	1.430769E+0	1.506878E+0	1.516961E+0	1.472080E+0	1.531999E+0	1.475991E+0	1.483832E+0	1.502983E+0	1.460738E+0	1.459275E+0	1.369915E+0	1.547077E+0	1.511898E+0	1.432236E+0	1.414155E+0	1.599865E+0	1.447499E+0	1.480244E+0	1.448557E+0	1.498777E+0	1.434475E+0	1.474225E+0	1.494860E+0	1.481162E+0	1.394325E+0	1.438721E+0	1.532255E+0	1.528833E+0	1.420128E+0	1.506094E+0	1.453171E+0	1.413872E+0	1.446502E+0	1.456989E+0	1.494163E+0	1.541493E+0	1.492902E+0	1.497594E+0	1.469682E+0	1.517363E+0	1.496571E+0	1.443456E+0	1.468408E+0	1.480061E+0	1.441485E+0	1.434579E+0	1.390312E+0	1.387648E+0	1.479946E+0
5.510140E+2	1.264506E+0	1.241501E+0	1.216715E+0	1.244296E+0	1.166782E+0	1.171466E+0	1.240829E+0	1.236371E+0	1.156379E+0	1.135136E+0	1.214659E+0	1.245394E+0	1.246231E+0	1.271461E+0	1.153017E+0	1.209241E+0	1.227665E+0	1.240033E+0	1.235819E+0	1.168134E+0	1.245968E+0	1.176622E+0	1.214865E+0	1.199206E+0	1.229963E+0	1.144191E+0	1.203961E+0	1.197081E+0	1.178733E+0	1.212702E+0	1.182769E+0	1.159162E+0	1.242490E+0	1.184230E+0	1.252027E+0	1.204463E+0	1.206003E+0	1.181612E+0	1.189151E+0	1.203032E+0	1.181128E+0	1.230516E+0	1.220817E+0	1.232219E+0	1.248439E+0	1.291570E+0	1.215717E+0	1.222725E+0	1.208159E+0	1.237211E+0	1.219098E+0	1.200781E+0	1.195293E+0	1.213385E+0	1.214587E+0	1.234453E+0	1.215578E+0	1.229613E+0	1.250703E+0	1.240862E+0	1.257930E+0	1.228993E+0	1.180750E+0	1.193220E+0	1.278672E+0	1.193852E+0	1.274875E+0	1.254162E+0	1.278518E+0	1.227506E+0	1.166090E+0	1.250251E+0	1.254218E+0	1.242557E+0	1.204956E+0	1.199902E+0	1.239779E+0	1.201877E+0	1.221476E+0	1.208390E+0	1.245553E+0	1.269271E+0	1.200517E+0	1.260128E+0	1.288922E+0	1.127189E+0	1.178578E+0	1.184923E+0	1.205914E+0	1.207560E+0	1.199975E+0	1.205071E+0	1.290523E+0	1.203255E+0	1.193242E+0	1.229014E+0	1.230393E+0	1.158966E+0	1.217998E+0	1.217655E+0	1.135081E+0	1.229829E+0	1.215837E+0	1.218014E+0	1.217062E+0	1.318479E+0	1.253308E+0	1.231109E+0	1.199541E+0	1.234535E+0	1.201077E+0	1.202351E+0	1.193941E+0	1.226571E+0	1.233379E+0	1.209311E+0	1.208888E+0	1.177370E+0	1.212087E+0	1.232145E+0	1.187652E+0	1.246190E+0	1.202128E+0	1.188635E+0	1.222955E+0	1.210755E+0	1.165710E+0	1.185231E+0	1.250490E+0	1.230287E+0	1.204594E+0	1.157011E+0	1.285781E+0	1.247050E+0	1.125472E+0	1.229720E+0	1.205115E+0	1.226063E+0	1.228269E+0	1.286611E+0	1.230246E+0	1.192274E+0	1.191578E+0	1.209644E+0	1.331261E+0	1.194642E+0	1.209578E+0	1.202667E+0	1.255863E+0	1.215255E+0	1.305514E+0	1.224708E+0	1.196788E+0	1.200989E+0	1.253171E+0	1.245021E+0	1.235795E+0	1.187755E+0	1.223628E+0	1.203790E+0	1.206184E+0	1.208896E+0	1.268445E+0	1.157583E+0	1.188130E+0	1.196044E+0
5.515000E+2	1.052903E+0	1.032177E+0	1.033013E+0	1.027087E+0	1.041875E+0	9.834075E-1	1.020463E+0	1.053741E+0	1.074955E+0	1.018447E+0	1.044971E+0	1.046837E+0	1.096734E+0	1.122174E+0	1.052437E+0	1.042715E+0	1.038454E+0	1.083574E+0	9.890869E-1	1.022859E+0	1.050215E+0	1.031117E+0	1.048490E+0	9.604216E-1	1.048065E+0	1.034679E+0	1.013305E+0	1.037401E+0	1.065410E+0	1.075945E+0	1.045112E+0	1.006570E+0	1.030761E+0	1.031912E+0	1.017078E+0	1.031772E+0	1.090627E+0	1.035047E+0	1.031564E+0	1.007419E+0	1.038271E+0	1.042726E+0	1.019852E+0	1.026683E+0	1.036708E+0	1.024878E+0	1.031525E+0	1.027002E+0	1.026497E+0	1.042975E+0	1.022882E+0	1.043077E+0	1.042255E+0	1.046515E+0	1.031787E+0	9.822331E-1	1.075066E+0	1.056588E+0	1.071638E+0	1.053820E+0	1.005257E+0	1.076539E+0	1.027713E+0	1.012457E+0	1.030081E+0	1.037546E+0	1.039810E+0	1.056632E+0	1.075302E+0	1.085658E+0	1.049255E+0	1.028394E+0	1.041297E+0	1.035600E+0	1.013478E+0	1.090820E+0	1.044396E+0	9.977204E-1	9.933291E-1	1.020388E+0	1.041301E+0	1.032979E+0	1.042817E+0	1.013531E+0	1.011417E+0	9.987493E-1	1.009539E+0	1.054727E+0	1.085306E+0	1.041810E+0	9.974549E-1	1.061748E+0	1.033622E+0	1.023973E+0	1.024301E+0	1.000548E+0	1.010757E+0	1.004239E+0	1.059881E+0	1.040490E+0	1.051400E+0	1.027254E+0	1.022354E+0	9.981415E-1	1.084988E+0	1.081818E+0	1.014624E+0	1.010372E+0	1.018419E+0	1.048453E+0	1.049915E+0	9.728656E-1	1.019069E+0	1.053915E+0	1.047020E+0	1.012491E+0	1.081342E+0	1.034969E+0	1.088499E+0	1.040029E+0	9.708081E-1	1.070673E+0	1.030086E+0	1.030962E+0	1.042298E+0	1.053879E+0	9.807831E-1	1.035418E+0	1.050777E+0	9.808399E-1	1.014285E+0	1.005694E+0	1.034518E+0	1.036887E+0	9.994701E-1	9.921864E-1	1.014367E+0	9.592789E-1	1.026381E+0	1.098525E+0	1.001225E+0	9.619650E-1	1.005751E+0	1.027996E+0	1.049212E+0	1.054772E+0	1.036198E+0	9.941428E-1	1.063100E+0	1.022543E+0	1.101746E+0	1.066582E+0	1.043506E+0	1.031167E+0	1.071775E+0	1.040540E+0	1.059843E+0	1.033770E+0	1.033262E+0	1.054197E+0	1.034368E+0	9.291351E-1	9.910057E-1	1.046688E+0	8.943359E-1	9.967918E-1
5.520100E+2	1.026509E+0	9.937766E-1	1.026775E+0	9.860959E-1	9.923901E-1	1.002130E+0	1.014199E+0	1.017316E+0	9.710084E-1	1.021418E+0	1.020647E+0	1.029297E+0	1.040873E+0	1.028872E+0	1.018223E+0	9.767153E-1	1.008928E+0	9.876667E-1	1.029733E+0	9.662591E-1	1.033668E+0	1.025775E+0	1.019571E+0	9.996760E-1	1.050226E+0	9.663279E-1	1.023889E+0	1.000385E+0	9.802183E-1	9.864573E-1	1.028248E+0	9.575104E-1	1.035395E+0	9.661579E-1	9.802262E-1	9.997267E-1	1.031658E+0	1.050669E+0	9.661413E-1	9.766776E-1	9.810009E-1	1.004969E+0	9.599298E-1	9.854422E-1	9.844024E-1	1.008231E+0	1.029379E+0	1.022263E+0	9.928949E-1	1.010156E+0	1.010846E+0	9.836657E-1	1.035139E+0	9.807885E-1	1.014989E+0	1.006126E+0	1.006379E+0	9.798312E-1	1.011924E+0	9.856854E-1	1.019188E+0	1.039018E+0	9.754620E-1	9.765283E-1	1.017438E+0	1.033695E+0	1.037695E+0	1.009061E+0	1.032583E+0	9.426521E-1	9.704363E-1	9.811411E-1	1.051677E+0	9.874556E-1	1.019907E+0	9.841015E-1	1.005282E+0	9.957549E-1	9.645717E-1	9.830610E-1	1.026196E+0	9.908350E-1	9.980403E-1	1.040582E+0	1.006317E+0	9.493254E-1	9.300146E-1	9.774958E-1	1.004683E+0	1.052572E+0	9.645519E-1	1.086212E+0	9.937469E-1	9.852218E-1	9.834283E-1	1.006319E+0	1.023254E+0	9.576110E-1	1.029217E+0	1.007201E+0	9.681610E-1	9.879890E-1	1.046558E+0	1.030680E+0	9.833921E-1	1.038512E+0	1.056379E+0	9.803834E-1	9.488342E-1	9.745292E-1	9.979698E-1	9.465240E-1	1.017939E+0	1.019979E+0	1.065085E+0	1.064567E+0	9.951528E-1	9.896434E-1	1.028563E+0	1.006209E+0	1.011111E+0	1.010747E+0	1.025220E+0	9.641036E-1	1.020141E+0	9.540213E-1	9.672264E-1	9.599950E-1	1.037357E+0	1.025236E+0	1.012596E+0	9.343612E-1	1.017673E+0	1.000113E+0	9.506422E-1	9.655262E-1	9.797510E-1	9.396462E-1	9.258399E-1	1.030492E+0	9.798674E-1	9.303724E-1	9.838231E-1	1.042360E+0	1.015159E+0	9.620891E-1	9.443111E-1	9.358291E-1	1.036493E+0	9.859212E-1	1.002553E+0	9.329582E-1	1.035200E+0	1.000781E+0	1.051818E+0	1.036407E+0	1.027678E+0	9.823450E-1	9.927912E-1	9.730180E-1	9.620844E-1	9.943661E-1	9.770434E-1	9.678818E-1	9.324270E-1	1.179032E+0
5.525090E+2	1.111481E+0	1.112943E+0	1.080872E+0	1.080215E+0	1.078285E+0	1.028319E+0	1.079210E+0	1.047836E+0	1.006010E+0	1.087386E+0	1.041191E+0	1.074768E+0	1.032244E+0	1.083884E+0	1.060865E+0	1.116393E+0	1.089554E+0	1.011754E+0	1.071401E+0	1.089557E+0	1.037337E+0	1.107345E+0	1.029439E+0	1.095606E+0	1.062658E+0	1.019043E+0	1.077690E+0	1.071416E+0	1.026966E+0	1.030342E+0	1.097330E+0	1.082717E+0	1.050013E+0	1.029774E+0	1.075295E+0	1.049397E+0	1.052765E+0	1.050882E+0	1.065038E+0	1.025438E+0	1.111127E+0	1.075404E+0	1.018252E+0	1.037101E+0	1.061637E+0	1.063910E+0	1.040021E+0	1.072685E+0	1.022760E+0	1.072077E+0	1.102727E+0	1.032521E+0	1.055840E+0	1.137220E+0	1.032764E+0	1.004912E+0	1.056213E+0	1.115996E+0	1.064869E+0	1.082996E+0	1.042619E+0	1.100432E+0	1.027849E+0	1.039642E+0	1.100602E+0	1.092647E+0	1.058287E+0	1.041995E+0	1.094498E+0	1.110282E+0	1.079267E+0	1.070021E+0	1.047493E+0	1.078693E+0	1.022167E+0	1.031036E+0	1.089786E+0	1.126722E+0	1.057907E+0	1.032480E+0	1.104120E+0	1.017762E+0	1.037739E+0	1.027467E+0	1.095541E+0	1.042561E+0	1.063038E+0	1.074610E+0	1.091354E+0	1.083562E+0	1.054949E+0	1.003847E+0	1.042322E+0	1.085764E+0	1.049578E+0	1.111599E+0	1.053321E+0	1.023375E+0	1.072579E+0	1.025530E+0	1.080441E+0	1.071425E+0	1.090659E+0	1.067614E+0	1.067482E+0	1.064550E+0	1.134533E+0	1.115559E+0	1.052128E+0	1.088478E+0	1.038660E+0	1.046793E+0	1.054586E+0	1.029442E+0	1.105015E+0	1.049222E+0	1.063870E+0	9.798136E-1	1.023090E+0	1.105800E+0	1.116362E+0	1.038589E+0	1.072875E+0	1.014504E+0	1.043066E+0	1.064117E+0	1.030697E+0	1.027839E+0	1.114071E+0	1.033183E+0	1.062240E+0	1.025492E+0	1.107107E+0	1.016206E+0	1.052830E+0	1.054407E+0	1.034414E+0	1.057119E+0	9.607119E-1	1.097748E+0	1.035077E+0	1.007557E+0	1.076424E+0	1.033796E+0	1.129982E+0	1.027222E+0	1.027353E+0	1.055229E+0	1.097955E+0	1.090159E+0	1.068659E+0	1.059282E+0	1.110137E+0	1.094269E+0	1.128319E+0	1.067294E+0	1.098277E+0	1.054600E+0	1.050517E+0	1.025896E+0	1.084182E+0	1.030278E+0	1.012285E+0	1.072816E+0	1.030974E+0	1.080945E+0
5.530150E+2	9.607909E-1	9.982716E-1	1.006831E+0	1.009737E+0	9.640073E-1	1.024244E+0	9.341697E-1	1.001548E+0	9.918574E-1	9.675858E-1	9.806064E-1	1.043120E+0	1.014517E+0	1.025162E+0	9.719137E-1	9.657976E-1	9.552753E-1	1.029803E+0	9.489106E-1	9.625639E-1	1.003316E+0	9.695566E-1	1.009704E+0	9.659492E-1	1.033974E+0	1.000167E+0	9.582634E-1	9.147688E-1	9.463679E-1	1.043441E+0	9.632035E-1	9.907470E-1	9.731412E-1	1.063026E+0	9.710407E-1	1.033579E+0	1.065074E+0	9.783928E-1	1.004944E+0	9.944334E-1	9.800439E-1	1.002351E+0	1.030103E+0	9.426241E-1	1.003642E+0	1.029858E+0	1.033915E+0	1.024825E+0	1.052032E+0	9.944905E-1	9.645927E-1	9.825903E-1	1.001797E+0	1.056212E+0	9.513635E-1	1.027548E+0	9.868063E-1	9.921867E-1	1.004448E+0	9.867847E-1	9.946276E-1	1.029507E+0	9.918414E-1	9.616087E-1	9.932379E-1	9.770370E-1	9.985679E-1	9.911063E-1	9.818617E-1	1.040906E+0	9.929696E-1	9.658649E-1	1.024351E+0	1.012797E+0	9.687436E-1	1.036326E+0	1.039860E+0	9.674011E-1	1.008263E+0	1.033780E+0	1.076871E+0	9.901439E-1	1.027318E+0	9.938188E-1	9.659635E-1	9.749166E-1	1.027569E+0	9.812237E-1	9.906345E-1	9.887948E-1	1.027640E+0	1.034839E+0	9.838388E-1	1.019848E+0	9.649594E-1	9.879863E-1	9.578659E-1	9.899646E-1	9.648289E-1	9.674192E-1	1.005034E+0	9.458818E-1	1.044345E+0	9.869436E-1	9.926077E-1	1.057700E+0	1.002641E+0	1.023668E+0	9.932379E-1	9.912153E-1	9.810337E-1	9.991314E-1	9.866784E-1	1.037122E+0	1.005750E+0	1.001035E+0	1.022150E+0	9.845057E-1	9.966789E-1	9.984853E-1	1.018469E+0	9.844551E-1	1.016501E+0	1.007399E+0	9.665635E-1	1.045186E+0	1.034833E+0	9.271813E-1	1.042935E+0	1.025215E+0	9.847984E-1	9.810436E-1	1.026482E+0	9.729431E-1	1.002734E+0	9.975577E-1	1.031650E+0	1.001905E+0	9.764690E-1	1.007658E+0	1.008864E+0	9.781628E-1	1.048098E+0	1.030659E+0	1.020968E+0	9.722255E-1	1.016808E+0	9.822794E-1	1.025160E+0	9.896823E-1	1.062010E+0	9.922309E-1	1.073049E+0	9.825790E-1	1.049346E+0	9.847059E-1	1.010715E+0	9.867796E-1	1.020263E+0	9.619210E-1	1.015029E+0	9.966473E-1	9.482362E-1	9.608421E-1	8.844075E-1	1.058912E+0
5.534770E+2	9.831458E-1	9.436610E-1	9.751601E-1	9.660910E-1	9.227797E-1	9.302471E-1	9.807368E-1	9.416747E-1	9.810588E-1	9.401406E-1	9.709897E-1	9.655900E-1	9.695065E-1	9.843428E-1	9.813859E-1	9.513497E-1	9.508476E-1	9.609976E-1	9.650579E-1	9.213801E-1	9.589266E-1	9.757081E-1	9.632028E-1	9.642280E-1	9.672883E-1	9.622680E-1	9.363597E-1	9.961723E-1	9.672720E-1	9.733014E-1	9.357208E-1	9.408420E-1	9.387161E-1	9.847749E-1	9.379282E-1	9.406127E-1	9.493723E-1	9.150388E-1	9.874948E-1	9.309518E-1	9.395119E-1	9.414650E-1	9.620248E-1	9.622649E-1	1.006415E+0	9.962848E-1	9.556098E-1	9.670862E-1	9.831764E-1	9.667208E-1	8.866219E-1	9.498427E-1	9.618134E-1	9.583101E-1	9.424217E-1	9.520426E-1	9.887494E-1	9.441029E-1	9.832309E-1	9.938293E-1	9.533860E-1	9.982072E-1	9.741619E-1	9.542079E-1	9.837973E-1	9.535888E-1	9.323041E-1	9.196941E-1	9.657084E-1	9.592885E-1	1.001316E+0	9.123887E-1	9.545477E-1	9.721524E-1	9.790442E-1	9.333875E-1	1.011632E+0	9.987380E-1	1.011780E+0	9.701296E-1	9.818972E-1	9.663878E-1	9.547704E-1	9.812521E-1	9.825730E-1	9.948352E-1	9.346017E-1	9.447840E-1	9.528246E-1	9.625694E-1	9.938429E-1	9.644376E-1	9.280276E-1	8.742140E-1	9.445142E-1	9.515124E-1	9.250191E-1	9.119662E-1	9.846544E-1	9.720662E-1	9.558112E-1	9.554065E-1	9.187137E-1	9.859452E-1	9.982142E-1	9.841847E-1	9.770025E-1	9.195551E-1	9.819037E-1	9.454371E-1	9.573854E-1	9.766146E-1	9.653677E-1	1.017877E+0	9.339136E-1	9.039886E-1	9.568433E-1	8.999270E-1	9.348029E-1	9.778250E-1	9.402303E-1	9.810907E-1	9.972238E-1	9.447096E-1	9.398927E-1	9.711203E-1	9.317014E-1	9.447125E-1	1.013151E+0	9.306008E-1	9.523611E-1	9.702608E-1	9.868388E-1	9.400200E-1	9.346983E-1	9.179431E-1	9.168011E-1	9.241597E-1	9.249061E-1	1.016164E+0	1.017597E+0	9.727102E-1	9.759135E-1	9.420417E-1	9.480938E-1	9.064477E-1	9.706429E-1	9.640408E-1	9.490063E-1	9.544882E-1	9.176898E-1	9.805725E-1	1.009217E+0	9.360524E-1	9.601974E-1	9.671461E-1	8.964807E-1	9.687157E-1	9.625485E-1	9.188960E-1	9.899456E-1	9.296901E-1	9.681506E-1	9.725330E-1	9.203029E-1	9.444905E-1
5.540290E+2	8.952670E-1	8.933391E-1	9.176491E-1	9.519793E-1	9.155233E-1	9.402194E-1	9.324367E-1	9.182365E-1	8.737861E-1	9.116198E-1	9.263796E-1	9.626792E-1	9.340787E-1	9.173466E-1	9.204624E-1	9.637408E-1	9.308177E-1	9.357729E-1	8.935601E-1	9.299378E-1	9.311938E-1	9.566989E-1	8.671917E-1	9.430922E-1	9.499463E-1	9.324617E-1	9.389728E-1	9.500734E-1	9.282490E-1	8.926260E-1	9.522012E-1	9.273798E-1	9.517638E-1	9.509959E-1	9.190428E-1	9.408513E-1	9.268198E-1	9.137219E-1	9.139055E-1	9.312471E-1	9.062193E-1	9.283595E-1	9.062796E-1	8.793750E-1	9.330827E-1	8.910407E-1	9.561017E-1	9.601447E-1	9.292082E-1	9.102372E-1	9.474745E-1	9.510458E-1	9.194217E-1	9.686682E-1	9.578006E-1	8.970848E-1	9.279433E-1	9.203900E-1	8.820683E-1	9.415153E-1	9.700269E-1	9.296303E-1	9.542271E-1	9.209421E-1	9.177858E-1	9.304868E-1	8.874370E-1	9.284545E-1	9.495331E-1	9.197821E-1	8.800173E-1	9.059180E-1	9.784505E-1	9.300606E-1	9.053470E-1	9.304063E-1	8.932411E-1	9.784576E-1	9.008468E-1	9.043968E-1	9.326432E-1	9.695491E-1	9.129607E-1	8.736342E-1	9.358204E-1	9.297195E-1	9.269341E-1	9.385506E-1	9.499894E-1	9.172875E-1	9.030205E-1	9.580307E-1	9.791127E-1	9.292634E-1	9.329790E-1	9.393447E-1	9.209116E-1	8.993592E-1	9.571558E-1	9.429912E-1	9.406175E-1	9.274391E-1	9.007936E-1	8.927745E-1	9.463636E-1	8.972149E-1	9.399393E-1	9.732301E-1	9.041884E-1	9.138843E-1	9.291765E-1	8.924143E-1	9.349112E-1	9.261632E-1	9.437463E-1	9.496094E-1	8.707069E-1	9.161692E-1	9.610555E-1	9.321889E-1	9.469568E-1	9.516401E-1	9.446184E-1	9.418734E-1	9.083861E-1	9.316352E-1	9.293940E-1	9.103078E-1	9.233465E-1	8.850670E-1	9.433291E-1	9.380851E-1	8.829679E-1	9.180314E-1	8.855281E-1	9.496371E-1	9.219942E-1	9.112798E-1	8.975552E-1	9.179126E-1	9.401247E-1	9.486500E-1	9.227759E-1	9.141188E-1	9.199716E-1	9.405082E-1	9.191838E-1	9.591698E-1	9.179224E-1	9.302512E-1	9.678214E-1	8.797140E-1	9.491022E-1	9.367320E-1	9.366197E-1	9.201156E-1	9.599693E-1	8.849536E-1	9.016358E-1	9.422043E-1	9.287451E-1	9.230267E-1	9.789334E-1	8.991410E-1	8.997020E-1	1.044841E+0
5.550140E+2	9.695411E-1	9.540442E-1	9.193168E-1	8.875209E-1	9.457288E-1	1.030198E+0	8.782140E-1	9.533734E-1	9.240257E-1	9.408559E-1	9.099641E-1	9.245566E-1	9.565471E-1	9.517171E-1	9.376441E-1	9.862049E-1	9.619480E-1	8.995536E-1	8.909810E-1	9.329185E-1	9.449064E-1	9.412702E-1	9.614184E-1	9.273289E-1	1.009654E+0	9.310802E-1	9.272645E-1	9.586595E-1	9.673000E-1	9.396194E-1	9.247591E-1	9.244906E-1	9.561788E-1	9.727297E-1	9.531753E-1	9.677985E-1	9.451530E-1	9.435110E-1	9.211683E-1	9.261912E-1	9.085116E-1	9.461889E-1	9.281839E-1	9.548064E-1	9.289775E-1	9.647829E-1	9.288562E-1	9.594643E-1	9.160629E-1	9.547627E-1	9.104071E-1	9.781516E-1	9.170848E-1	9.697821E-1	9.630602E-1	9.302779E-1	9.497586E-1	9.413449E-1	9.517945E-1	9.489369E-1	9.318291E-1	9.150243E-1	9.544498E-1	9.177712E-1	9.631475E-1	9.298729E-1	9.175315E-1	9.472481E-1	9.205536E-1	9.719070E-1	9.731385E-1	9.384604E-1	9.301822E-1	9.434877E-1	9.308198E-1	9.806265E-1	9.765574E-1	9.131371E-1	9.400673E-1	9.527701E-1	9.320836E-1	9.394212E-1	9.227211E-1	9.867267E-1	9.229527E-1	9.417547E-1	9.377846E-1	1.002073E+0	9.286292E-1	9.755887E-1	9.337394E-1	9.232655E-1	9.690406E-1	9.509955E-1	9.721080E-1	9.501996E-1	9.905361E-1	9.765534E-1	1.004400E+0	9.356566E-1	1.016249E+0	9.096563E-1	9.580975E-1	9.757769E-1	9.594220E-1	9.263885E-1	9.499392E-1	8.997294E-1	8.942928E-1	9.809391E-1	1.002462E+0	9.133285E-1	9.211117E-1	9.700557E-1	9.001058E-1	9.354418E-1	9.440570E-1	9.647492E-1	9.434924E-1	9.393407E-1	9.530566E-1	9.225302E-1	9.531645E-1	9.274685E-1	9.225501E-1	9.565952E-1	9.219045E-1	8.884128E-1	9.599604E-1	9.589893E-1	9.771705E-1	9.507443E-1	9.690349E-1	9.627108E-1	9.165137E-1	9.760279E-1	9.327750E-1	9.278877E-1	9.534891E-1	9.658592E-1	9.408632E-1	9.314951E-1	9.347148E-1	9.422635E-1	9.390953E-1	9.063992E-1	9.160978E-1	9.231580E-1	9.840777E-1	9.495310E-1	9.491224E-1	9.901305E-1	9.631451E-1	9.126108E-1	9.642291E-1	9.417842E-1	9.451802E-1	9.456614E-1	9.346279E-1	9.344298E-1	9.066669E-1	8.994056E-1	8.748767E-1	9.135241E-1	8.862519E-1	8.976541E-1
5.560410E+2	1.016545E+0	1.023774E+0	1.096218E+0	1.042645E+0	1.047915E+0	1.033840E+0	1.072676E+0	1.043035E+0	1.016518E+0	1.018289E+0	9.850195E-1	9.984972E-1	1.000346E+0	1.000100E+0	1.026900E+0	9.699792E-1	1.027292E+0	9.857106E-1	1.021250E+0	1.012953E+0	1.064747E+0	1.013826E+0	1.062094E+0	1.021551E+0	1.002963E+0	1.008297E+0	1.002190E+0	1.015392E+0	1.033141E+0	1.020280E+0	1.006488E+0	1.045619E+0	1.027598E+0	1.033685E+0	1.018579E+0	1.034043E+0	9.942319E-1	1.054237E+0	1.029876E+0	1.023613E+0	9.957630E-1	1.000609E+0	1.026160E+0	9.981098E-1	1.001718E+0	1.038309E+0	1.026949E+0	1.036212E+0	1.022713E+0	1.047344E+0	1.081367E+0	1.034019E+0	1.080735E+0	9.947277E-1	1.021243E+0	1.013940E+0	1.017549E+0	1.001727E+0	1.028899E+0	1.020225E+0	9.993099E-1	1.034872E+0	9.987464E-1	9.902059E-1	1.012109E+0	1.051119E+0	1.041365E+0	1.024680E+0	1.015791E+0	1.061622E+0	1.049567E+0	1.038767E+0	1.010724E+0	1.065975E+0	9.946752E-1	1.024711E+0	9.812563E-1	1.013047E+0	1.033426E+0	9.888291E-1	1.038094E+0	1.044881E+0	1.053879E+0	1.005647E+0	1.009669E+0	9.567945E-1	1.072419E+0	9.781555E-1	1.053438E+0	1.037413E+0	1.012426E+0	9.877181E-1	1.033276E+0	1.058456E+0	1.025966E+0	9.987642E-1	1.003792E+0	9.941311E-1	1.053922E+0	1.074207E+0	1.019000E+0	1.009358E+0	9.596664E-1	1.017180E+0	1.006146E+0	1.084302E+0	1.029417E+0	1.010780E+0	1.040323E+0	1.019031E+0	1.001844E+0	1.044509E+0	1.037716E+0	1.032133E+0	1.039767E+0	9.651067E-1	1.020850E+0	1.026606E+0	1.069763E+0	1.066274E+0	1.015972E+0	1.050382E+0	1.004589E+0	9.871517E-1	1.054405E+0	1.032257E+0	9.860212E-1	1.012555E+0	1.015226E+0	9.985757E-1	1.020369E+0	1.066707E+0	1.010583E+0	1.013079E+0	1.071599E+0	9.941923E-1	9.964529E-1	1.038902E+0	1.009939E+0	1.057266E+0	9.373984E-1	1.028699E+0	9.995192E-1	1.032647E+0	1.097233E+0	9.897162E-1	1.005003E+0	9.979265E-1	1.056110E+0	1.042107E+0	1.003816E+0	1.057011E+0	1.037360E+0	9.877696E-1	1.018483E+0	1.015910E+0	1.044627E+0	1.057994E+0	1.024302E+0	1.043596E+0	1.041525E+0	1.022728E+0	1.015634E+0	9.207341E-1	8.973740E-1	9.836437E-1
5.570330E+2	1.050952E+0	1.028703E+0	1.072928E+0	1.092546E+0	1.077000E+0	1.059226E+0	1.028837E+0	1.055859E+0	1.045552E+0	1.069663E+0	1.093991E+0	1.090746E+0	1.043623E+0	1.052016E+0	1.053586E+0	1.086227E+0	1.058422E+0	1.079173E+0	1.103553E+0	1.092929E+0	1.076591E+0	1.078783E+0	1.062192E+0	1.064135E+0	1.047759E+0	1.088117E+0	1.086753E+0	1.050689E+0	1.044969E+0	1.058971E+0	1.070626E+0	1.010545E+0	1.007578E+0	1.044894E+0	1.074222E+0	1.056926E+0	1.053117E+0	1.040456E+0	1.045832E+0	1.081897E+0	1.068627E+0	1.088143E+0	1.097643E+0	1.062484E+0	1.054398E+0	1.061465E+0	1.077191E+0	1.067095E+0	1.088643E+0	1.093920E+0	1.040387E+0	1.064868E+0	1.016834E+0	1.026602E+0	1.056677E+0	1.054507E+0	1.051010E+0	1.123102E+0	1.083308E+0	9.854565E-1	1.025864E+0	1.048551E+0	1.027388E+0	1.064003E+0	1.051152E+0	1.073029E+0	1.099555E+0	1.020412E+0	1.021956E+0	1.099628E+0	1.071751E+0	1.077130E+0	1.067979E+0	1.031651E+0	1.004864E+0	1.050035E+0	1.116274E+0	1.069468E+0	1.069469E+0	1.058161E+0	1.098815E+0	1.082572E+0	1.110357E+0	1.048623E+0	1.090476E+0	1.075687E+0	1.064654E+0	1.044077E+0	1.066851E+0	1.042365E+0	1.041777E+0	1.081838E+0	1.075900E+0	1.067504E+0	1.026480E+0	1.085766E+0	1.081805E+0	1.091368E+0	1.025766E+0	1.072800E+0	1.023680E+0	1.108171E+0	1.045252E+0	1.081499E+0	1.092525E+0	1.054926E+0	1.076159E+0	1.087207E+0	1.081545E+0	1.015735E+0	1.023846E+0	1.038689E+0	1.042054E+0	1.022681E+0	1.095930E+0	1.096378E+0	1.046479E+0	1.012207E+0	1.043361E+0	1.025932E+0	1.042527E+0	1.016690E+0	1.100112E+0	1.084044E+0	1.085897E+0	1.054692E+0	1.071024E+0	1.012787E+0	1.099973E+0	1.070107E+0	1.066964E+0	1.010794E+0	1.077142E+0	1.083012E+0	1.051862E+0	1.012917E+0	1.063720E+0	1.062420E+0	1.057764E+0	1.053399E+0	1.075297E+0	9.923562E-1	1.019571E+0	1.081509E+0	1.029604E+0	1.033800E+0	1.071863E+0	1.020776E+0	1.024127E+0	1.083319E+0	1.100511E+0	1.060350E+0	1.062751E+0	1.134021E+0	1.132557E+0	1.050024E+0	1.078980E+0	9.992712E-1	1.089841E+0	1.077897E+0	1.061684E+0	1.028806E+0	9.731521E-1	1.009575E+0	1.071151E+0	1.033332E+0
5.580230E+2	1.028118E+0	1.149148E+0	1.090011E+0	1.019924E+0	1.078858E+0	1.009869E+0	1.054591E+0	1.099455E+0	1.059030E+0	1.014197E+0	1.082124E+0	1.066147E+0	1.092832E+0	1.028866E+0	1.022354E+0	1.052883E+0	1.056054E+0	1.019804E+0	1.083947E+0	9.936955E-1	1.063444E+0	1.034278E+0	1.070984E+0	1.042607E+0	1.055302E+0	1.023488E+0	1.042392E+0	1.044408E+0	1.092294E+0	1.027655E+0	1.083272E+0	1.017403E+0	1.092958E+0	1.005171E+0	1.049386E+0	1.041443E+0	1.077075E+0	1.102132E+0	1.020955E+0	1.023191E+0	1.042106E+0	1.077451E+0	1.103766E+0	1.073800E+0	1.051404E+0	1.075352E+0	1.043878E+0	1.073254E+0	1.074724E+0	1.040616E+0	1.064256E+0	1.067800E+0	1.071347E+0	1.052368E+0	1.075655E+0	1.049828E+0	1.067421E+0	1.052772E+0	1.084395E+0	1.063145E+0	1.064650E+0	1.064272E+0	1.047051E+0	1.058469E+0	1.032220E+0	1.086812E+0	1.090431E+0	1.081762E+0	1.072901E+0	1.058268E+0	1.079008E+0	1.059800E+0	1.047326E+0	1.067739E+0	1.081439E+0	1.037971E+0	1.079787E+0	1.039304E+0	1.027995E+0	1.078577E+0	1.090379E+0	1.088793E+0	1.083928E+0	1.012322E+0	1.036889E+0	1.098760E+0	1.044255E+0	1.044652E+0	1.042584E+0	1.121827E+0	1.014032E+0	1.033304E+0	1.097007E+0	1.074980E+0	1.034181E+0	1.039003E+0	1.108613E+0	9.925971E-1	1.048890E+0	1.070913E+0	1.044547E+0	1.033503E+0	1.037515E+0	1.055826E+0	1.057655E+0	1.083980E+0	1.113165E+0	1.077570E+0	1.077215E+0	1.072889E+0	1.070737E+0	1.027295E+0	1.030389E+0	1.034641E+0	1.094467E+0	1.085205E+0	1.048870E+0	1.101646E+0	1.037098E+0	9.786746E-1	1.066317E+0	1.093822E+0	1.048831E+0	1.094380E+0	1.049269E+0	1.074959E+0	1.060878E+0	1.042596E+0	1.038405E+0	1.090618E+0	1.038165E+0	1.018453E+0	1.058656E+0	1.040639E+0	1.057714E+0	1.037364E+0	1.013895E+0	1.089061E+0	1.021488E+0	1.019257E+0	1.066125E+0	9.847358E-1	1.065703E+0	1.055286E+0	1.072552E+0	1.086264E+0	1.098651E+0	1.101147E+0	1.078088E+0	1.046212E+0	1.014981E+0	9.887003E-1	9.913152E-1	1.091012E+0	1.063229E+0	1.037052E+0	1.096560E+0	1.076874E+0	1.102677E+0	1.060033E+0	1.066157E+0	1.038799E+0	1.064895E+0	1.122254E+0	1.080603E+0	1.245322E+0
5.590160E+2	1.056431E+0	1.007330E+0	9.287171E-1	1.039293E+0	1.012195E+0	9.964005E-1	1.052509E+0	9.883672E-1	1.100028E+0	1.105234E+0	1.031532E+0	9.917837E-1	1.003067E+0	1.065612E+0	1.057666E+0	9.896151E-1	1.014619E+0	1.118988E+0	1.041651E+0	1.116186E+0	9.601905E-1	9.994357E-1	1.012917E+0	1.037058E+0	9.670867E-1	1.054289E+0	1.066068E+0	9.846063E-1	9.667745E-1	1.087546E+0	1.026933E+0	1.133721E+0	1.025208E+0	1.007749E+0	1.047667E+0	1.018325E+0	1.054231E+0	1.030904E+0	1.080768E+0	1.082909E+0	1.139262E+0	1.017783E+0	9.759430E-1	1.069159E+0	1.024005E+0	9.727652E-1	1.011414E+0	9.367443E-1	9.854723E-1	9.863996E-1	1.069487E+0	9.542727E-1	1.032765E+0	1.029542E+0	9.831439E-1	1.102320E+0	9.975688E-1	1.016561E+0	9.863031E-1	1.046893E+0	1.054934E+0	1.009443E+0	1.043976E+0	1.094402E+0	1.039788E+0	9.750907E-1	1.031376E+0	1.077749E+0	1.053557E+0	9.295044E-1	9.452030E-1	1.067536E+0	1.010790E+0	9.889338E-1	1.103811E+0	1.042863E+0	9.412518E-1	9.878484E-1	1.016417E+0	1.047137E+0	9.260874E-1	9.083965E-1	9.613837E-1	1.091796E+0	1.021620E+0	1.002449E+0	1.019351E+0	1.047708E+0	1.005684E+0	9.429488E-1	1.101162E+0	1.051406E+0	9.176361E-1	1.044586E+0	1.063772E+0	1.035411E+0	9.693236E-1	1.134025E+0	9.252117E-1	9.313654E-1	1.000095E+0	1.056466E+0	1.179962E+0	9.909971E-1	9.396734E-1	9.690037E-1	9.143775E-1	1.031928E+0	1.020532E+0	1.052085E+0	1.014549E+0	1.107150E+0	1.068450E+0	9.964496E-1	9.920702E-1	1.064271E+0	1.112194E+0	1.078695E+0	1.010427E+0	1.079765E+0	1.034940E+0	9.838447E-1	9.514615E-1	1.020372E+0	1.039600E+0	9.787411E-1	1.099077E+0	1.188628E+0	9.499392E-1	1.066042E+0	1.001641E+0	1.044956E+0	1.014777E+0	1.042508E+0	1.082085E+0	1.111919E+0	1.154362E+0	1.046290E+0	1.134858E+0	9.701427E-1	1.022594E+0	1.141354E+0	1.081803E+0	1.032134E+0	9.934497E-1	1.136864E+0	1.018558E+0	1.033782E+0	9.906686E-1	9.940924E-1	1.046058E+0	1.043522E+0	9.871101E-1	1.001802E+0	9.246850E-1	1.067968E+0	9.782034E-1	1.066530E+0	9.843672E-1	1.022943E+0	1.005276E+0	1.157545E+0	1.124359E+0	1.162238E+0	1.244615E+0	8.507163E-1
