Photon Energy (eV)	#1	#2	#3	#4	#5	#6	#7	#8	#9	#10	#11	#12	#13	#14	#15	#16	#17	#18	#19	#20	#21	#22	#23	#24	#25	#26	#27	#28	#29	#30	#31	#32	#33	#34	#35	#36	#37	#38	#39	#40	#41	#42	#43	#44	#45	#46	#47	#48	#49	#50	#51	#52	#53	#54	#55	#56	#57	#58	#59	#60	#61	#62	#63	#64	#65	#66	#67	#68	#69	#70	#71	#72	#73	#74	#75	#76	#77	#78	#79	#80	#81	#82	#83	#84	#85	#86	#87	#88	#89	#90	#91	#92	#93	#94	#95	#96	#97	#98	#99	#100	#101	#102	#103	#104	#105	#106	#107	#108	#109	#110	#111	#112	#113	#114	#115	#116	#117	#118	#119	#120	#121	#122	#123	#124	#125	#126	#127	#128	#129	#130	#131	#132	#133	#134	#135	#136	#137	#138	#139	#140	#141	#142	#143	#144	#145	#146	#147	#148	#149	#150	#151	#152	#153	#154	#155	#156	#157	#158	#159	#160	#161	#162	#163	#164	#165	#166	
5.290120E+2	-9.289442E-3	-2.687267E-2	-7.973057E-3	-9.909791E-3	-1.578707E-2	-1.554420E-2	-4.103935E-2	-3.347791E-2	-5.668664E-3	-2.763793E-2	-1.325626E-2	-1.161469E-2	-2.415137E-2	-1.736608E-2	-1.109965E-2	-2.609225E-2	-1.709449E-2	-1.846140E-2	-1.665562E-2	-1.606995E-2	-2.713996E-2	-2.794689E-2	-1.399271E-2	-2.388682E-2	-1.915726E-2	-2.437504E-2	-1.171899E-2	-3.778865E-2	-2.887939E-2	-2.082896E-2	-2.449963E-2	-1.188644E-2	-1.940323E-2	-2.861118E-2	-2.897523E-2	-2.431735E-2	-3.770671E-2	-2.434289E-2	-1.054619E-2	-3.690903E-2	-1.359132E-2	-2.622274E-2	-6.638421E-3	3.609560E-3	-1.657418E-2	-2.515256E-2	-2.005403E-2	-2.550115E-2	-1.666020E-2	-1.639643E-2	-2.414202E-2	-3.916559E-2	-1.193310E-2	-2.292634E-2	-1.741404E-2	-2.217756E-2	-3.550094E-2	-2.541677E-2	-1.189395E-2	-3.812764E-2	-1.909940E-2	-2.643318E-2	-3.121540E-2	-1.844768E-2	-1.819296E-2	-1.696142E-2	-2.975479E-2	-2.153455E-2	-1.912991E-2	-1.752612E-2	-3.358006E-2	-3.049595E-2	3.806730E-3	-1.601795E-2	-2.200298E-2	-2.004606E-2	-7.713734E-3	-2.328039E-2	-9.069262E-3	-1.589865E-2	-7.029775E-3	-2.879388E-2	-2.834680E-2	-1.436617E-2	-1.952571E-2	-3.206836E-2	-1.956003E-2	-2.405330E-2	-2.635815E-2	-3.599055E-2	-2.838711E-2	-1.272998E-2	-1.660773E-2	-2.102810E-2	-1.739722E-2	-3.028375E-2	-7.498114E-3	-1.939184E-2	-1.213723E-2	-9.928278E-3	-1.550231E-2	-1.644148E-2	-2.875544E-2	-1.562472E-2	-2.076491E-2	-1.882881E-2	-2.791822E-2	-2.494520E-2	-3.607786E-2	-2.100209E-2	-1.629283E-2	-4.285229E-2	-2.728105E-2	-2.684220E-2	-2.742363E-2	-1.156354E-2	-3.015650E-2	-1.887710E-2	-2.221672E-2	-2.258347E-2	-2.039380E-2	-9.645440E-3	-3.016992E-2	-1.654062E-2	-3.468705E-2	-2.491258E-2	-2.898436E-2	-9.767301E-3	-2.275604E-2	-2.191285E-2	-4.659019E-2	-2.661844E-2	-1.740289E-2	-4.586138E-2	-2.965003E-2	-9.220471E-3	-2.277109E-2	-1.094974E-2	-3.365441E-2	-1.573902E-2	-3.378478E-2	-3.067891E-2	-2.593002E-2	-1.401881E-2	-1.926034E-2	-1.415116E-2	-2.578831E-2	-1.513257E-2	-1.433321E-2	-1.364635E-2	-1.982335E-2	-1.612608E-2	-3.388586E-2	-2.461598E-2	-3.399794E-2	-1.832877E-2	-8.025557E-3	-1.761331E-2	-2.506054E-2	-1.623161E-2	-2.304840E-2	-3.361007E-2	-1.548189E-2	-3.035695E-3	-1.573820E-2	-9.472716E-3
5.295010E+2	-1.184764E-2	-7.076216E-3	1.741822E-2	-7.796390E-4	-1.006563E-2	2.724776E-2	-7.230676E-3	-2.627813E-3	-2.287735E-3	-6.670480E-3	-1.312125E-3	-4.981142E-3	1.093045E-3	-1.128770E-2	3.037979E-2	6.581767E-3	2.368563E-2	1.484493E-3	-3.986033E-3	-1.141985E-2	1.296388E-2	-1.936330E-3	-7.011098E-3	-1.788574E-2	1.096605E-2	1.510809E-2	-1.055929E-2	-1.331562E-3	-1.152797E-2	9.055749E-3	2.499876E-2	-3.473975E-3	1.359679E-2	1.215062E-2	7.948336E-3	9.172804E-3	-1.871380E-2	-2.489224E-4	4.769579E-3	1.484911E-2	5.015666E-3	-7.987742E-3	-1.017624E-2	-2.316559E-3	-1.797029E-2	-9.796497E-3	2.522101E-2	7.590097E-3	7.240698E-3	5.231569E-3	8.394515E-4	-1.840782E-3	1.947329E-3	-1.159008E-2	-8.533423E-3	-6.880702E-3	2.039888E-2	1.591877E-2	4.392048E-3	-2.973333E-3	-1.015634E-3	1.764718E-2	-6.276701E-3	-3.474855E-3	-1.843183E-2	-1.867074E-2	5.302051E-3	2.090096E-2	-1.069452E-2	-1.422250E-2	-6.805224E-3	-2.351674E-3	6.776186E-3	-1.559039E-3	5.932076E-3	-1.151984E-5	-2.234662E-3	-7.995177E-3	-1.396181E-2	-4.702316E-3	-1.060217E-2	-4.675260E-3	-4.238099E-3	-4.026028E-3	-7.241655E-4	1.519761E-3	-3.617364E-3	3.968166E-3	-8.507287E-3	-1.223586E-2	5.030569E-3	-8.035668E-3	-9.534726E-3	-9.642068E-3	-4.777725E-3	-4.890942E-3	-5.495015E-3	1.698276E-2	-1.312980E-2	-6.392921E-3	1.356567E-2	-8.288350E-4	2.401871E-2	2.779415E-4	1.323795E-2	-3.655256E-3	-1.130787E-2	2.112764E-2	1.410189E-2	-6.190736E-3	1.072950E-2	3.959208E-3	6.082287E-3	7.500218E-4	1.462256E-2	-1.558592E-2	4.599711E-3	-1.028287E-2	-8.631580E-3	8.733554E-4	8.139775E-4	-1.131870E-2	-1.027821E-2	8.319054E-3	2.443066E-3	4.954545E-3	1.059926E-2	-7.165740E-3	-1.076816E-2	4.060458E-3	-5.533797E-3	-9.993647E-3	2.525963E-3	1.540953E-2	7.319162E-3	-1.362423E-2	-1.270688E-2	1.433247E-2	8.841958E-3	3.638236E-3	3.119029E-3	-6.104601E-3	-1.858614E-2	3.986874E-3	3.029089E-3	1.029346E-2	-5.289868E-3	-1.178216E-3	-1.830273E-2	-3.066016E-3	-3.482091E-3	3.104222E-3	-2.963190E-3	9.825122E-3	1.197514E-3	-5.550599E-3	-1.458730E-2	-5.195016E-3	-8.992969E-3	-2.465155E-3	-5.011701E-3	9.720153E-3	-1.427159E-2	-1.723937E-3	5.502419E-3	1.139257E-2
5.300010E+2	2.391433E-2	1.916913E-2	1.181595E-2	4.536007E-3	3.624917E-2	3.448443E-2	5.499250E-3	2.999630E-2	2.895437E-2	4.146207E-2	3.921382E-2	8.319087E-3	1.605839E-2	1.482217E-2	1.521745E-3	3.532343E-2	2.147871E-2	-1.338570E-3	2.271700E-2	1.634528E-2	2.201190E-3	2.970359E-2	3.526785E-2	2.217491E-2	1.763639E-2	1.346838E-2	2.588608E-2	1.659565E-2	1.473473E-2	3.136652E-2	3.478451E-2	4.642893E-2	4.803492E-2	1.840490E-2	4.911064E-2	2.241908E-2	2.307965E-2	3.484546E-2	1.965885E-2	2.334875E-2	9.743511E-3	2.381986E-2	2.429042E-2	9.320950E-3	1.119245E-2	3.185706E-2	3.536117E-2	1.194431E-2	1.783291E-2	2.356178E-2	1.025269E-2	3.655485E-2	3.389895E-2	2.171928E-2	2.641218E-2	3.883406E-2	2.740684E-2	1.325512E-2	3.435949E-2	2.352649E-2	2.650236E-2	1.495478E-2	3.909150E-2	1.976382E-2	4.748390E-2	4.428232E-2	1.721831E-2	2.068671E-2	2.988271E-2	3.099402E-2	2.857968E-2	3.068773E-2	2.621158E-2	2.684170E-2	2.317095E-2	1.804282E-2	2.573535E-2	4.688511E-2	2.080326E-2	2.906601E-2	7.053928E-3	2.921981E-2	3.267295E-2	3.144657E-2	2.008692E-2	3.669732E-2	3.068063E-2	4.968276E-2	4.933220E-2	6.011105E-2	3.495103E-2	2.276991E-2	1.458761E-2	2.852340E-2	1.837341E-2	3.202026E-2	2.143665E-2	2.971964E-2	2.497315E-2	2.881246E-2	2.558294E-2	2.901762E-2	2.372174E-2	2.113515E-2	1.761216E-2	2.622751E-2	4.395455E-2	1.725082E-2	2.959207E-2	2.023022E-2	1.041733E-2	3.602637E-2	1.774932E-2	3.772041E-2	2.419628E-2	3.201753E-2	3.069780E-2	4.355815E-2	3.020968E-2	1.144466E-2	2.057870E-2	9.090418E-3	3.591727E-2	3.175220E-2	1.624526E-2	3.345002E-2	3.248546E-2	2.729780E-2	3.537161E-2	1.877181E-2	3.149534E-2	3.431055E-2	7.172276E-3	4.493737E-2	1.974807E-2	1.406453E-2	1.093298E-2	2.164067E-2	2.381018E-2	3.747470E-2	3.806805E-2	2.970828E-2	2.289314E-2	3.727328E-2	3.547801E-2	3.043861E-2	1.679352E-2	2.784171E-2	2.254682E-2	1.155550E-2	7.894607E-3	3.679045E-2	1.441557E-2	3.579898E-2	2.402881E-2	1.808941E-2	3.320383E-2	1.859909E-2	3.561670E-2	3.512960E-2	1.851579E-2	2.702031E-2	2.152335E-2	3.229300E-2	4.119112E-2	1.603320E-2
5.305030E+2	6.487241E-3	2.999155E-3	3.662990E-3	1.757955E-2	-2.448846E-3	-2.444624E-3	1.650967E-2	2.193394E-2	4.183571E-3	1.032487E-2	2.037573E-2	1.552050E-2	1.295482E-2	9.190020E-3	9.476627E-3	-1.200462E-3	7.072711E-3	1.256415E-2	1.316434E-2	1.243767E-3	1.385587E-2	9.277332E-3	6.627445E-3	2.581261E-2	1.461727E-2	1.391649E-2	1.296075E-2	2.049263E-2	5.710211E-3	1.559321E-2	8.940885E-3	-3.302244E-3	4.388655E-3	1.415828E-2	1.077980E-2	1.404459E-2	3.790064E-2	7.983522E-3	1.820802E-2	3.122978E-2	8.732973E-3	2.599544E-2	1.743336E-2	1.303493E-2	2.613470E-2	1.285795E-2	8.736092E-3	1.312871E-2	4.894435E-3	6.136899E-3	2.375211E-2	2.061325E-2	2.226457E-3	2.732746E-2	1.103155E-3	1.843488E-2	1.594510E-2	1.078737E-2	1.483289E-3	1.277386E-2	2.726496E-2	1.823724E-2	2.119649E-2	2.406931E-2	1.993444E-2	1.847474E-2	1.207533E-2	6.625629E-3	1.436116E-2	1.001941E-2	2.804646E-3	1.839607E-2	6.983642E-3	-5.204090E-3	3.022959E-2	1.873245E-2	2.467932E-3	9.161655E-3	5.941645E-3	1.100508E-2	2.658983E-2	7.794598E-3	2.637651E-2	1.650757E-2	4.859420E-3	1.806163E-2	2.979677E-2	1.272602E-2	2.146562E-2	1.111489E-2	-9.951015E-3	1.115775E-2	1.786541E-2	1.410584E-2	2.772504E-2	-2.086634E-3	1.710279E-2	1.298406E-2	9.759780E-3	6.754940E-3	1.500183E-2	2.300095E-3	-1.789443E-3	9.267411E-3	3.015046E-2	1.705946E-2	1.107434E-2	-8.030167E-3	1.487293E-2	2.424256E-2	1.790246E-3	1.897963E-2	1.817553E-2	2.430367E-2	1.319152E-2	5.405117E-3	1.283106E-2	2.846250E-2	1.243439E-2	-8.569350E-3	5.899056E-3	2.359896E-2	4.296332E-3	2.354749E-2	2.809660E-2	1.389580E-2	3.227262E-3	1.420562E-2	-8.675845E-3	2.526888E-2	2.985289E-2	7.861062E-3	1.592978E-2	1.907962E-2	1.551762E-2	1.304919E-2	2.779913E-2	4.778370E-3	2.288148E-2	1.833897E-2	1.552823E-2	1.205425E-2	2.411941E-3	8.332955E-3	9.733944E-4	1.842306E-2	7.485911E-3	7.153331E-3	2.447903E-2	9.228044E-3	8.291629E-3	8.123326E-3	1.631602E-2	-5.692640E-5	3.943661E-2	1.563394E-2	1.812066E-2	3.378424E-3	2.564032E-2	2.018051E-2	1.421535E-2	2.261171E-2	7.364038E-3	-3.096024E-2	1.244717E-2	-7.393711E-3
5.310050E+2	-1.592888E-2	4.335246E-3	-1.125374E-3	9.287121E-3	-5.007426E-3	-3.427677E-3	1.396956E-2	-8.318815E-3	-7.547409E-3	-8.645924E-3	-4.599683E-3	5.793435E-3	-4.498032E-4	3.513165E-3	-1.436083E-2	1.250853E-3	-1.336633E-2	6.551318E-3	3.596909E-3	5.961378E-3	2.030244E-2	-1.380331E-2	4.541906E-3	8.539987E-5	1.024653E-2	-1.155879E-2	-3.872816E-3	1.747458E-2	5.528223E-3	2.234090E-2	1.462325E-3	-1.693792E-4	-1.557103E-2	-1.208000E-2	3.741122E-3	1.886650E-3	-7.705302E-3	7.126100E-3	6.998470E-3	-8.649015E-3	-3.388882E-3	-7.274090E-3	-5.214466E-3	-6.920041E-3	4.311621E-3	9.303035E-3	7.482754E-4	1.995184E-3	1.211895E-2	-9.137639E-3	-8.393873E-3	-1.050194E-2	8.095106E-3	2.224766E-3	-4.383062E-3	-3.502252E-3	2.676777E-3	-4.035701E-3	4.849305E-3	4.839239E-3	-2.772818E-3	7.957062E-3	5.283477E-3	-1.034093E-2	-1.281370E-2	8.003848E-3	6.040089E-3	1.016983E-2	-1.878805E-2	-5.621731E-3	9.934813E-3	-3.268761E-4	-6.087911E-5	1.276044E-2	-9.863121E-3	-4.898443E-3	-2.027620E-3	-8.976304E-3	3.571988E-4	-2.259962E-2	-4.683968E-3	-3.572666E-3	5.899221E-5	-1.257671E-2	1.018975E-2	1.022502E-2	-1.861706E-2	1.328307E-3	5.213756E-3	-2.526241E-4	1.686753E-3	6.051454E-3	1.633807E-2	3.917287E-3	-7.294158E-3	8.581646E-3	1.012274E-2	-9.227848E-3	4.471051E-3	-1.204591E-2	-2.209132E-7	-4.793297E-3	-4.639258E-3	9.129603E-3	-8.400368E-3	-8.962018E-3	1.802492E-2	-1.573723E-3	1.411757E-2	2.652684E-3	7.933280E-3	-5.524079E-3	4.722091E-4	-1.374633E-2	4.346336E-3	4.516773E-3	-6.269310E-3	-1.043899E-2	-2.303421E-3	1.036199E-2	-2.122545E-3	3.950392E-3	8.876643E-3	-1.560670E-2	7.810709E-3	-1.199805E-2	1.193686E-2	-1.448779E-4	-2.543837E-3	9.926479E-4	1.073850E-2	-1.230531E-3	-8.634184E-3	-2.012106E-3	-6.548478E-3	-4.330669E-4	-7.634010E-3	-1.155887E-2	-6.387900E-3	-1.757729E-2	-1.250781E-2	-1.085269E-2	1.504216E-2	-1.851777E-2	6.692644E-3	-8.198063E-3	1.048866E-2	-2.069643E-3	-1.626313E-2	1.629133E-3	1.832060E-2	-1.711990E-2	3.029578E-3	-9.581946E-4	5.695383E-4	5.257186E-3	-9.742946E-3	-3.886132E-3	-6.766657E-3	-4.673349E-3	-2.836202E-4	-2.482025E-3	6.209148E-4	-8.621838E-3	4.226182E-3	2.199189E-2
5.315030E+2	-1.192549E-2	-1.255656E-2	-1.446841E-2	-2.335559E-2	-3.087156E-3	-1.221361E-2	-1.485155E-2	-1.490035E-2	-2.883518E-2	-7.618965E-3	-2.098905E-2	-2.448088E-2	-1.747574E-2	-5.263083E-3	-1.818251E-2	-2.156037E-2	-1.706284E-2	-5.330689E-3	-2.413963E-2	-8.423212E-3	-1.193130E-2	1.273648E-2	-9.055166E-3	-2.074897E-2	-9.462601E-3	-1.500461E-2	-7.347771E-3	-1.930379E-2	-4.202301E-3	-2.768394E-2	-1.998234E-2	-1.108651E-3	-2.203756E-2	-1.910210E-2	-3.011959E-2	-2.081857E-2	1.283561E-2	-1.123694E-2	-1.986896E-2	-2.110393E-2	-1.074078E-2	-1.113246E-2	-2.462783E-2	-5.236428E-3	-1.233216E-2	-7.792792E-3	-2.718807E-2	-1.242898E-2	-5.663655E-3	-1.730964E-2	-2.342717E-3	-2.024735E-2	-2.927023E-2	-1.115784E-2	-2.710802E-3	-2.082489E-2	-1.349884E-2	-1.364021E-2	-2.007249E-2	-1.338187E-2	-1.696270E-2	-2.642136E-2	-2.237849E-2	3.657092E-3	-3.237876E-3	-1.852550E-2	-6.391654E-3	4.370004E-3	-7.434974E-3	-8.044687E-3	-1.570133E-3	-2.046599E-2	-2.023596E-2	-2.200532E-2	-1.491251E-2	-2.717964E-2	-2.090243E-2	-8.588946E-3	-1.118622E-2	-2.361364E-2	1.232853E-3	-1.151658E-2	-3.524007E-2	-3.623858E-3	-2.701319E-2	-7.427782E-3	-1.677993E-2	-2.445710E-2	-2.137973E-2	-2.347679E-2	-1.964190E-2	-2.194258E-2	-1.988085E-2	-2.651028E-2	-1.712235E-2	-1.182085E-2	-3.129049E-2	-1.796077E-2	-2.910280E-2	-2.635328E-2	-2.561787E-2	-1.563881E-2	-1.317567E-2	-2.199393E-2	-2.422822E-2	-7.477185E-3	-1.473986E-2	-1.667724E-2	-2.775937E-2	-1.138678E-2	-2.182527E-2	-1.388353E-2	-9.648147E-3	-8.235128E-3	-2.050569E-2	-9.314096E-3	-8.559494E-3	-8.684501E-3	-6.090622E-3	-9.603575E-3	-2.473432E-2	-9.269899E-3	-2.137344E-2	-1.954114E-2	-5.155424E-3	-1.726004E-2	8.195897E-3	-4.665480E-3	-6.867759E-3	-2.068539E-2	-7.477814E-3	-1.201795E-2	-1.140490E-3	-1.708016E-2	-1.144804E-2	-9.833396E-3	6.367050E-3	-2.501173E-2	-1.903823E-2	-1.785203E-2	-2.364714E-2	-5.188614E-4	-2.283370E-3	-1.240750E-2	-1.031535E-2	-2.133977E-2	-8.915063E-3	5.999390E-3	9.390431E-3	-1.474064E-2	-1.742129E-2	-4.815742E-3	-1.891628E-2	-8.346475E-3	-1.276541E-2	-1.611671E-2	-1.637551E-2	-9.930092E-3	-1.773777E-2	-1.546405E-2	-1.478225E-2	-1.920334E-2	-8.114142E-3	-2.315212E-2	-3.749820E-2	-1.562939E-2
5.320070E+2	-8.717256E-4	9.446043E-3	-6.819554E-3	-5.767552E-3	-2.443443E-2	-2.767389E-2	8.405487E-3	-1.502923E-2	-7.185408E-3	-4.298791E-3	-1.694145E-2	2.203802E-3	-4.955825E-3	-1.195011E-2	-1.890075E-2	-2.242493E-3	-8.255032E-3	-9.835625E-3	4.214108E-3	-1.351141E-3	-1.863588E-2	-1.722997E-2	-2.429996E-2	-1.914917E-3	-1.782549E-2	2.864483E-3	-1.566822E-2	-1.042141E-3	4.169987E-3	-3.089284E-2	-2.396756E-2	-2.372793E-2	-2.549826E-2	4.414680E-3	-1.294874E-2	-1.137937E-2	-6.605150E-3	-1.461269E-2	-2.377622E-2	-1.528850E-3	3.373432E-3	1.868388E-4	-1.031640E-2	-1.782342E-2	-1.424464E-2	-2.402091E-2	-2.652859E-2	-1.235376E-2	-1.850552E-2	1.241933E-3	-1.300180E-2	2.813159E-3	-1.512589E-2	-2.364570E-2	-6.565977E-4	-1.196424E-2	-2.866903E-2	1.113295E-3	-3.031773E-2	-3.797631E-4	-2.011034E-2	-3.146466E-2	-1.245647E-2	-1.856921E-2	-1.896172E-2	-1.576082E-2	-1.353267E-2	-3.365422E-2	-1.339408E-2	-1.507817E-2	-4.829663E-3	-2.648468E-3	-2.494329E-2	3.836853E-3	-1.625134E-2	5.421556E-3	-3.133916E-3	-1.426946E-2	-8.427288E-3	1.480119E-3	-1.081627E-2	-7.324619E-3	-8.222785E-3	-1.851770E-2	-7.083344E-3	-2.809485E-2	-8.251552E-3	-1.756380E-2	-2.068948E-2	-1.792185E-2	3.675468E-3	-8.413954E-3	-2.498464E-2	-2.031216E-2	-1.648193E-2	-2.536678E-4	-5.084217E-3	-1.333810E-2	-1.985958E-3	-4.601237E-3	-1.972329E-2	-9.495039E-3	-8.685758E-3	-1.568416E-2	-8.566635E-3	-1.846239E-2	-2.031151E-2	1.069639E-2	-1.652279E-2	-1.665237E-2	-9.681834E-3	3.924867E-3	-1.817394E-2	-1.536847E-2	-6.728490E-3	-7.067433E-3	-8.556325E-3	-1.874598E-2	-1.035879E-2	-1.306309E-3	1.931873E-3	-1.959099E-2	-4.170090E-5	-1.379453E-2	-2.476106E-2	-1.589936E-2	-3.699764E-2	-1.616043E-2	-1.994311E-3	-2.265725E-2	-1.698178E-2	-9.837888E-3	-1.379220E-2	-2.310170E-2	-6.025012E-3	-1.125176E-2	-5.699543E-3	-5.256277E-3	-6.437312E-3	-1.493775E-2	-3.753289E-3	-1.020346E-3	4.874348E-3	-2.460258E-3	-1.618936E-2	-1.125686E-2	8.506549E-3	-2.442444E-2	-4.681905E-3	-1.204794E-2	-7.943308E-3	-1.106617E-2	-1.926061E-3	-2.397916E-2	-1.652452E-2	-8.783655E-3	-2.430273E-2	-9.194830E-3	-1.099509E-2	-1.975301E-2	-2.305870E-2	-3.294559E-3	-5.179361E-3	-1.308511E-3	-2.267399E-2	-1.488095E-2
5.325120E+2	1.946160E-2	1.055587E-2	-2.510767E-3	8.409892E-3	2.458139E-2	-4.281886E-4	1.873760E-2	2.242388E-2	1.838645E-2	3.085147E-3	-2.490993E-3	9.239887E-3	1.692648E-2	1.834162E-2	2.116558E-2	7.939526E-3	3.541643E-3	1.436632E-2	1.088934E-3	1.371372E-2	8.383763E-3	9.199090E-3	7.921734E-3	1.636353E-2	-7.020895E-3	5.580993E-3	1.032025E-2	4.903275E-3	1.446650E-2	1.049359E-3	-1.736952E-3	-2.760314E-3	1.648973E-2	1.066480E-2	4.636637E-4	8.992153E-3	-3.084933E-3	4.863689E-4	4.556452E-3	-1.236816E-3	8.554013E-4	2.614896E-3	1.524957E-2	6.331005E-3	1.948250E-2	1.274471E-2	3.704149E-3	1.562559E-2	-1.257615E-3	6.671528E-3	1.303615E-2	1.177441E-2	1.016138E-2	1.804845E-2	6.182589E-3	8.080693E-3	1.124122E-2	2.018136E-3	1.720005E-2	1.372302E-2	6.193578E-3	2.552294E-2	6.755598E-3	3.342461E-3	4.219747E-3	-8.424068E-4	9.043343E-3	-7.564361E-3	2.519766E-2	1.947978E-2	5.465939E-3	7.205162E-3	1.461998E-3	1.347411E-3	3.697331E-3	9.938842E-3	7.809076E-3	7.063515E-3	1.554247E-2	2.526302E-2	-1.744429E-3	1.886860E-2	1.693930E-2	5.156327E-3	1.921031E-2	1.087262E-3	6.348541E-3	-1.631051E-3	9.230681E-4	1.865174E-2	1.263621E-2	1.114307E-2	2.221686E-2	3.094609E-2	1.697493E-2	8.733936E-3	7.056541E-4	2.321070E-4	1.715180E-2	2.375423E-2	6.693262E-3	1.587975E-2	9.305116E-3	1.349271E-2	9.595658E-4	1.409868E-2	1.223658E-3	2.151480E-3	7.675552E-3	8.106507E-3	1.692958E-2	-6.301744E-4	1.262380E-2	1.418027E-3	-1.698899E-3	1.591577E-3	5.413059E-3	-4.991207E-3	6.957072E-3	1.938270E-2	1.802706E-2	1.318526E-2	1.277302E-2	1.864247E-3	1.000789E-2	1.776966E-2	-4.627297E-4	-3.599595E-3	1.823433E-2	1.616170E-2	4.496853E-3	1.752684E-2	1.534175E-2	8.628841E-3	1.108672E-2	1.724921E-2	3.712368E-3	1.202511E-2	9.984232E-3	6.654184E-3	1.697771E-2	7.412880E-3	1.577942E-3	-2.188767E-3	-4.080922E-4	-4.209281E-3	-3.281400E-3	1.810437E-3	-2.835306E-3	2.108826E-2	1.416320E-2	1.109903E-3	2.393023E-2	1.233264E-2	-1.944598E-3	9.799202E-3	2.170956E-2	2.384186E-2	8.296006E-3	3.277063E-3	3.345354E-2	-7.621865E-4	1.353868E-2	3.650934E-2	1.254350E-2	-2.040893E-3
5.330080E+2	4.413775E-2	3.829818E-2	6.038236E-2	5.938141E-2	5.850219E-2	5.012445E-2	4.678868E-2	5.513335E-2	4.546052E-2	4.374499E-2	4.896750E-2	4.290602E-2	5.150695E-2	3.608609E-2	4.804059E-2	5.782627E-2	5.549022E-2	3.954943E-2	3.391682E-2	2.673781E-2	4.421552E-2	4.294429E-2	3.365794E-2	4.265263E-2	3.636484E-2	4.028620E-2	3.928635E-2	5.242204E-2	4.029045E-2	5.016664E-2	3.777538E-2	4.906009E-2	4.295442E-2	4.729622E-2	3.636894E-2	4.624227E-2	4.223234E-2	5.520949E-2	4.654727E-2	4.160231E-2	3.352310E-2	5.663012E-2	5.385877E-2	5.117180E-2	3.379042E-2	3.877378E-2	1.195859E-2	5.714169E-2	5.122909E-2	3.742003E-2	4.764036E-2	5.270537E-2	4.568137E-2	3.956139E-2	3.187973E-2	4.741828E-2	4.694406E-2	3.640646E-2	3.857954E-2	3.645765E-2	1.863939E-2	5.527129E-2	4.647012E-2	4.393343E-2	6.427345E-2	5.323053E-2	3.668040E-2	2.115505E-2	5.944570E-2	3.873915E-2	3.049678E-2	4.043132E-2	3.308105E-2	4.784455E-2	5.085871E-2	4.216389E-2	5.863846E-2	4.496099E-2	4.498886E-2	5.146536E-2	3.929979E-2	5.359608E-2	4.533380E-2	3.383973E-2	4.848369E-2	4.384844E-2	5.307011E-2	5.046530E-2	3.131242E-2	5.679492E-2	4.865942E-2	5.646375E-2	3.251854E-2	3.622010E-2	4.595311E-2	4.445389E-2	5.067503E-2	6.080375E-2	3.974947E-2	3.171135E-2	2.931535E-2	2.648981E-2	2.555210E-2	3.328469E-2	4.843644E-2	5.767825E-2	3.669327E-2	5.227016E-2	5.314642E-2	5.886588E-2	4.580827E-2	3.513012E-2	3.636858E-2	2.113732E-2	5.389464E-2	3.433862E-2	4.258870E-2	3.003188E-2	6.375064E-2	4.991115E-2	4.938074E-2	4.063548E-2	2.700467E-2	5.589834E-2	6.111761E-2	5.632128E-2	5.996379E-2	4.822592E-2	5.727784E-2	3.564240E-2	3.241218E-2	4.709968E-2	5.934722E-2	6.868613E-2	6.001415E-2	2.108330E-2	4.469513E-2	2.485064E-2	4.182709E-2	6.058699E-2	3.996418E-2	6.071730E-2	5.414296E-2	1.927658E-2	4.107445E-2	5.189603E-2	3.773628E-2	4.530071E-2	6.124868E-2	4.834632E-2	1.662905E-2	4.649166E-2	3.892656E-2	5.421533E-2	2.528357E-2	5.596718E-2	4.775261E-2	3.072969E-2	5.244740E-2	4.001741E-2	6.271372E-2	5.952846E-2	5.660769E-2	4.683491E-2	3.787918E-2	4.543255E-2
5.332150E+2	4.064970E-2	4.643006E-2	2.391507E-2	4.995531E-2	2.509333E-2	4.349000E-2	4.935519E-2	3.296749E-2	7.365710E-3	4.325655E-2	4.607535E-2	1.711507E-2	3.217643E-2	3.812301E-2	2.222328E-2	2.265670E-2	1.906616E-2	2.417374E-2	3.506775E-2	4.195412E-2	2.035691E-2	2.970491E-2	4.198865E-2	2.592178E-2	2.614525E-2	3.219867E-2	3.477438E-2	4.638566E-2	2.650900E-2	2.567132E-2	3.831798E-2	2.017863E-2	1.443851E-2	7.283947E-3	3.044902E-2	6.046190E-2	4.636275E-2	5.206034E-2	3.311333E-2	2.158241E-2	4.219419E-2	2.575866E-2	4.628149E-2	2.978190E-2	5.087751E-3	3.501471E-2	2.640107E-2	3.718901E-2	5.421728E-2	3.509858E-2	2.364488E-2	4.197061E-2	2.903557E-2	4.907254E-2	4.397532E-2	4.986539E-2	2.337154E-2	4.134582E-2	4.526341E-2	3.023563E-2	3.740752E-2	2.699045E-2	2.993396E-2	6.196841E-2	1.977062E-2	2.187617E-2	2.851952E-2	1.364306E-2	5.016129E-2	1.880014E-2	1.158199E-2	5.402877E-2	4.635356E-2	5.149572E-2	8.600449E-3	3.412733E-2	3.119823E-2	3.767055E-2	3.519694E-2	4.399758E-2	3.383515E-2	5.605017E-2	3.507803E-2	4.432403E-2	4.398801E-2	4.435537E-2	3.011870E-2	3.065518E-2	3.532343E-2	3.962077E-2	2.797659E-2	3.399083E-2	3.787517E-2	1.099935E-2	3.749710E-2	1.953570E-2	3.721162E-2	4.433115E-2	1.422959E-2	5.017524E-2	4.273189E-2	4.660213E-2	4.173175E-2	2.722690E-2	2.157199E-2	3.567600E-2	3.388736E-2	4.684084E-2	3.216982E-2	4.053457E-2	2.731955E-2	2.179594E-2	4.164374E-2	3.438715E-2	3.727661E-2	4.602375E-2	3.399031E-2	3.702614E-2	4.070311E-2	3.102491E-2	4.755451E-2	2.786361E-3	3.029769E-2	3.584438E-2	2.213339E-2	3.554296E-2	2.865454E-2	6.069314E-2	4.993861E-2	2.030730E-2	3.202532E-2	2.792256E-2	4.272246E-2	4.946216E-2	6.294139E-2	3.765649E-2	4.497817E-2	3.828028E-2	2.740755E-2	2.708941E-2	2.379533E-2	2.844855E-2	3.606650E-2	4.011988E-2	3.550555E-2	4.007065E-2	2.145390E-2	5.702474E-2	4.222894E-2	3.585598E-2	2.427498E-2	3.837288E-2	1.449144E-2	2.523414E-2	6.139276E-3	4.894566E-2	3.161242E-2	3.941215E-2	3.382266E-2	3.396091E-2	5.403433E-2	3.020831E-2	2.186045E-2	1.624346E-2	2.130936E-2	5.896162E-2
5.334160E+2	2.149897E-2	2.216517E-2	4.108443E-2	2.089846E-2	7.663810E-3	1.217568E-2	2.246717E-2	2.071243E-2	8.454050E-4	1.303679E-2	2.422475E-2	7.729253E-3	2.627607E-2	2.526042E-2	2.790626E-2	4.138168E-3	2.917478E-3	1.285444E-2	7.992680E-4	1.594994E-2	7.871973E-3	-7.880807E-4	4.041554E-2	2.143681E-2	6.150056E-3	1.871027E-2	1.262190E-2	1.566740E-2	1.294079E-2	3.159745E-3	-1.724016E-3	2.314081E-3	1.343907E-2	3.128901E-2	1.753293E-2	3.677539E-2	2.343748E-2	1.067187E-2	1.148691E-2	2.883285E-2	1.429797E-2	2.258878E-2	1.624693E-2	2.424782E-2	3.084212E-2	1.985351E-2	6.958264E-4	-4.864145E-3	1.944453E-2	9.112585E-3	2.496961E-2	2.265357E-2	2.821732E-2	1.927819E-2	8.853777E-3	3.135456E-2	2.016498E-2	6.919043E-3	-4.881695E-3	1.973005E-2	1.239447E-2	1.170873E-2	2.216868E-2	1.838958E-2	6.987275E-3	1.934839E-2	-4.138180E-3	2.089225E-2	3.362499E-2	5.649341E-3	4.486068E-3	1.526757E-2	8.298065E-3	4.874238E-3	2.550702E-2	-7.672013E-3	2.458282E-2	1.186497E-2	1.778512E-2	2.457419E-2	-4.019918E-3	3.422907E-2	7.577875E-3	2.257586E-2	1.689980E-2	1.733029E-2	2.643401E-2	2.510876E-2	1.289204E-2	2.477948E-2	3.028968E-2	1.172861E-2	1.269104E-2	1.503075E-2	2.627441E-2	2.230067E-2	8.374556E-4	8.714650E-3	-6.322505E-3	1.321126E-2	5.152402E-3	3.093871E-2	2.302793E-2	8.074032E-3	2.061119E-2	3.651307E-2	1.317165E-2	2.668068E-2	3.014028E-2	1.455002E-2	1.287098E-2	1.391764E-2	1.295388E-2	-1.922011E-3	-8.733740E-4	9.005741E-3	2.074995E-2	4.391026E-2	2.178968E-2	1.376663E-2	3.510120E-2	2.498966E-2	3.347854E-2	2.717063E-2	2.205154E-2	4.448834E-2	1.401680E-3	1.211550E-2	6.025394E-3	-9.201596E-3	2.438206E-2	9.775915E-3	7.073580E-3	1.724327E-2	1.250715E-2	8.358033E-3	2.114723E-2	1.042798E-2	1.992014E-2	2.040413E-2	1.046676E-2	1.757987E-2	1.249705E-2	1.324694E-2	-6.334434E-3	-8.138968E-4	2.302098E-2	1.966484E-2	1.502659E-2	3.658234E-2	1.432219E-2	1.157480E-2	8.344215E-3	1.481746E-2	2.149988E-2	-2.309479E-3	2.347319E-2	9.513951E-3	9.687753E-3	3.463056E-2	2.712222E-2	2.781815E-2	1.318431E-2	3.416268E-2	7.637013E-3	2.454753E-2
5.336130E+2	2.642262E-2	1.066569E-2	1.283049E-2	1.492602E-2	4.189988E-3	2.346043E-2	9.614221E-3	7.154963E-3	-5.294376E-3	-3.048153E-3	-1.411676E-3	1.920051E-3	5.486321E-3	-6.004617E-4	-9.859432E-3	1.675942E-2	6.788268E-3	1.128954E-2	1.352558E-2	1.135214E-2	-1.136139E-2	1.779360E-2	-2.431954E-3	8.479277E-3	4.476781E-3	-4.090433E-3	-1.812379E-2	2.395655E-2	-8.557625E-3	9.361204E-3	-1.391970E-2	1.221004E-2	6.914957E-3	2.351852E-2	1.338507E-2	2.426397E-2	-7.223945E-3	1.110319E-2	-3.167494E-3	-1.562538E-3	-1.670920E-3	5.843864E-3	2.060457E-2	3.124980E-3	1.387125E-2	-1.189548E-2	-5.342544E-3	8.548495E-4	1.025405E-2	1.087047E-2	2.989055E-3	1.429479E-2	1.012134E-2	2.036575E-2	1.573933E-3	-1.476350E-3	-4.178421E-3	2.631773E-2	-5.789876E-3	-1.173556E-2	-1.492696E-2	-3.251976E-3	1.017692E-2	5.732918E-3	1.254032E-2	-5.976792E-3	-6.303300E-3	1.031105E-2	1.765634E-2	-5.273228E-3	3.023723E-3	1.426993E-2	-1.287506E-2	9.459419E-3	2.256826E-2	-1.367097E-2	-8.884888E-4	8.389768E-3	7.972572E-3	-1.066153E-2	-1.146742E-2	3.465601E-2	2.184604E-2	1.718962E-2	1.526487E-2	-4.578605E-3	-1.361107E-2	-5.229372E-3	-6.241091E-5	-1.945586E-2	1.284370E-2	1.947999E-2	-3.379990E-2	-2.028817E-2	2.303025E-3	1.173805E-2	3.447229E-3	-9.874648E-3	1.099917E-2	1.689551E-2	7.588194E-3	4.387278E-3	6.758330E-4	-4.671044E-3	2.180568E-2	-4.615898E-3	6.187557E-3	8.773064E-3	1.371537E-2	-4.505460E-3	2.011755E-2	-7.155138E-3	5.512207E-3	7.588840E-4	-3.933763E-3	4.116988E-3	1.093981E-3	1.691262E-4	6.797062E-3	7.975740E-3	1.429765E-2	-4.086539E-3	1.235399E-2	1.148605E-2	1.909232E-2	-5.084953E-3	-1.714107E-2	9.872337E-3	1.213358E-2	9.633145E-4	1.723248E-2	-7.892995E-3	1.114620E-2	4.120224E-3	1.117924E-2	1.748309E-2	-8.199968E-3	5.553914E-3	1.896994E-2	-2.054181E-2	-1.750918E-2	9.661713E-3	6.758924E-3	2.011295E-2	1.291749E-2	1.137325E-2	9.963880E-3	1.069156E-2	1.271117E-3	1.118709E-2	3.629566E-3	2.163357E-2	6.546450E-3	6.372470E-3	1.197705E-2	-1.037566E-2	3.269678E-2	3.495703E-3	1.255011E-3	2.073387E-2	8.172079E-3	9.377059E-3	-2.031844E-2	1.027645E-2	-1.302145E-2	5.275133E-2
5.338050E+2	5.044881E-3	1.587274E-2	3.343482E-2	4.492681E-2	7.739347E-3	4.869553E-2	2.255118E-2	1.941849E-2	3.621183E-2	4.167425E-2	1.237018E-2	5.158719E-3	3.141429E-2	3.992997E-2	3.631112E-2	5.055139E-2	1.685969E-2	2.296227E-2	2.697818E-2	3.997990E-2	4.337932E-2	2.476764E-2	2.875577E-2	3.384464E-2	2.611219E-2	3.184919E-2	3.580328E-2	2.658530E-2	3.576280E-2	2.332969E-2	1.428645E-2	3.782987E-2	6.672882E-3	3.352920E-2	3.790529E-2	2.976360E-2	2.166458E-2	3.882983E-2	3.794990E-2	3.878493E-2	2.449667E-2	1.344361E-2	2.305334E-2	3.730842E-2	2.774315E-2	3.928481E-2	1.453970E-2	2.315516E-2	4.030738E-2	5.970132E-3	2.785742E-2	6.045591E-2	3.874839E-2	2.352337E-2	2.583796E-2	5.735447E-2	3.864682E-2	2.070070E-2	4.766609E-2	1.209229E-2	2.748724E-2	3.704959E-2	2.305420E-2	2.704139E-2	3.682947E-2	2.870805E-2	2.587270E-2	3.208067E-2	1.883135E-2	3.999929E-2	3.273142E-2	1.821504E-2	2.475702E-2	3.195285E-2	2.374354E-2	3.362622E-2	3.128083E-2	2.699394E-2	3.599627E-2	2.848615E-2	2.594525E-2	3.590294E-2	2.987715E-2	4.022023E-2	2.623382E-2	2.314864E-2	2.384427E-2	4.923088E-2	1.157656E-2	3.212095E-2	2.778127E-2	3.818748E-2	9.312499E-3	2.164765E-2	3.342120E-2	4.394567E-2	3.549600E-2	4.445637E-2	2.621581E-2	2.451900E-2	5.807761E-2	1.316561E-2	3.370066E-2	4.880406E-2	2.310471E-2	2.665409E-2	2.326885E-2	1.365046E-2	3.377944E-2	3.642325E-2	3.041077E-2	2.530444E-2	5.147577E-2	-1.689290E-3	2.073201E-2	3.011499E-3	2.028640E-2	3.328070E-2	5.021479E-2	2.866643E-2	4.335586E-2	4.717035E-2	3.940185E-2	3.937822E-2	3.818706E-2	3.616657E-2	9.592038E-3	3.962520E-2	4.139731E-2	2.703945E-2	4.883471E-2	4.313276E-2	2.593546E-2	4.688902E-2	1.630375E-2	2.586484E-2	3.055751E-2	4.415085E-2	3.460498E-2	2.705764E-2	3.376708E-2	4.648272E-2	9.160400E-3	3.436216E-2	2.688414E-2	3.443872E-2	3.771150E-2	2.666497E-2	4.170261E-2	3.695034E-2	2.624658E-2	4.005452E-2	4.480003E-2	2.622592E-2	3.330444E-2	1.999564E-2	1.723428E-2	1.184285E-2	3.871549E-2	2.848459E-2	2.748817E-2	3.489303E-2	2.591876E-2	1.998926E-2	3.268564E-2	2.500279E-2
5.340070E+2	9.094255E-2	9.747264E-2	8.782842E-2	7.347074E-2	8.160329E-2	7.968698E-2	1.003061E-1	7.036615E-2	7.002636E-2	6.300962E-2	8.016775E-2	9.098184E-2	9.477836E-2	7.851962E-2	9.009454E-2	7.684026E-2	9.718874E-2	7.406737E-2	6.875471E-2	9.809386E-2	7.894984E-2	1.112226E-1	7.114727E-2	8.635753E-2	6.223043E-2	8.390357E-2	6.021857E-2	8.618683E-2	9.172749E-2	8.550906E-2	6.706336E-2	7.197365E-2	7.579381E-2	8.151142E-2	6.938113E-2	1.023107E-1	1.143292E-1	9.305901E-2	8.557306E-2	1.113803E-1	9.636036E-2	6.088465E-2	8.263147E-2	5.830702E-2	8.234457E-2	7.448040E-2	5.692489E-2	7.177882E-2	6.938623E-2	6.521849E-2	7.368122E-2	8.277172E-2	6.982147E-2	9.965862E-2	8.484484E-2	8.132772E-2	7.905481E-2	8.484027E-2	7.201036E-2	8.488270E-2	8.999936E-2	6.561592E-2	5.519096E-2	8.547746E-2	7.380630E-2	8.468821E-2	5.849670E-2	7.964810E-2	9.911594E-2	1.008573E-1	7.592688E-2	9.198954E-2	5.650308E-2	9.024426E-2	7.343514E-2	8.437749E-2	1.017562E-1	9.477878E-2	7.407209E-2	9.269210E-2	8.406070E-2	8.112986E-2	8.149048E-2	8.348061E-2	9.416713E-2	8.195142E-2	9.487081E-2	5.879500E-2	6.846453E-2	8.719299E-2	8.391176E-2	1.086218E-1	8.254579E-2	8.942799E-2	6.944024E-2	7.412913E-2	9.514119E-2	9.165595E-2	7.679629E-2	8.316435E-2	6.770060E-2	7.811606E-2	1.001245E-1	7.816227E-2	6.000530E-2	8.218549E-2	1.008339E-1	9.110442E-2	1.059169E-1	6.296494E-2	8.941844E-2	4.976967E-2	8.789789E-2	8.351543E-2	9.739673E-2	8.269115E-2	7.961336E-2	7.851754E-2	1.105507E-1	8.265623E-2	6.994379E-2	7.712846E-2	8.303879E-2	9.823864E-2	8.886423E-2	9.554548E-2	6.793150E-2	9.781148E-2	6.967851E-2	7.164758E-2	7.830933E-2	9.549557E-2	7.121924E-2	7.585302E-2	5.699973E-2	8.142259E-2	9.596717E-2	1.123057E-1	7.505122E-2	8.650602E-2	8.357145E-2	8.782111E-2	8.800062E-2	1.020652E-1	8.328301E-2	1.061561E-1	8.717730E-2	1.107881E-1	8.718070E-2	8.720725E-2	8.752725E-2	6.381956E-2	8.268593E-2	8.891722E-2	4.266156E-2	6.877587E-2	9.309451E-2	7.727312E-2	7.808193E-2	8.901192E-2	7.451803E-2	9.039737E-2	7.139286E-2	9.733371E-2	8.383255E-2	1.073862E-1
5.342040E+2	1.066861E-1	1.190505E-1	8.771572E-2	8.077638E-2	9.827801E-2	1.084439E-1	9.308858E-2	8.448135E-2	9.064470E-2	8.627439E-2	6.793592E-2	9.880666E-2	1.094190E-1	9.683874E-2	9.959549E-2	8.248987E-2	8.002343E-2	9.410082E-2	1.075355E-1	1.071212E-1	1.011930E-1	9.097674E-2	9.659810E-2	1.006036E-1	1.087558E-1	1.066575E-1	1.116417E-1	8.191715E-2	1.036828E-1	9.462128E-2	1.008653E-1	8.626701E-2	8.202161E-2	7.470560E-2	1.134183E-1	1.115727E-1	9.223939E-2	9.103826E-2	9.823288E-2	8.785994E-2	7.910964E-2	8.906667E-2	8.926689E-2	1.077383E-1	1.069554E-1	8.283776E-2	8.838196E-2	8.764020E-2	1.151131E-1	6.936767E-2	9.575112E-2	1.038647E-1	9.386011E-2	8.419432E-2	8.102116E-2	9.085248E-2	6.014939E-2	1.101893E-1	7.762667E-2	6.038415E-2	6.724102E-2	1.052608E-1	8.163444E-2	9.907327E-2	1.219392E-1	1.085587E-1	7.918499E-2	9.626797E-2	9.761867E-2	8.501759E-2	7.620360E-2	1.011224E-1	1.011389E-1	9.026482E-2	9.664234E-2	1.033122E-1	9.159214E-2	9.481164E-2	7.989474E-2	9.226073E-2	8.283447E-2	8.825879E-2	1.091732E-1	8.203223E-2	8.391888E-2	8.779659E-2	8.284933E-2	8.904460E-2	8.723016E-2	1.050462E-1	1.046772E-1	1.063539E-1	7.598273E-2	9.155366E-2	8.455993E-2	1.182996E-1	1.020743E-1	1.102006E-1	1.069914E-1	1.148759E-1	9.794420E-2	9.346783E-2	1.070645E-1	8.008680E-2	9.216065E-2	8.361826E-2	1.014940E-1	6.666623E-2	9.223061E-2	9.553381E-2	9.919011E-2	9.111001E-2	1.009388E-1	8.344928E-2	7.725989E-2	9.816091E-2	8.939123E-2	1.038779E-1	1.034100E-1	8.963119E-2	9.585107E-2	8.559016E-2	1.097594E-1	9.443007E-2	1.415540E-1	8.269596E-2	7.876663E-2	1.021657E-1	1.121201E-1	6.604831E-2	1.076471E-1	9.851449E-2	1.145082E-1	1.040117E-1	9.317158E-2	1.038284E-1	8.665046E-2	8.530296E-2	1.287369E-1	1.136207E-1	1.011141E-1	7.929334E-2	9.568014E-2	1.085755E-1	1.096494E-1	9.923288E-2	8.100791E-2	1.107158E-1	9.928628E-2	1.209513E-1	8.750827E-2	8.107565E-2	8.755947E-2	8.749659E-2	9.975289E-2	9.058352E-2	1.205894E-1	8.652061E-2	1.125883E-1	9.041849E-2	9.461377E-2	7.326932E-2	7.035634E-2	8.170002E-2	8.596608E-2	9.782438E-2
5.344070E+2	7.789251E-2	9.013330E-2	1.175767E-1	1.287581E-1	1.224106E-1	1.187616E-1	8.840775E-2	1.344845E-1	1.330839E-1	1.085694E-1	1.061089E-1	1.261521E-1	1.398008E-1	1.168305E-1	1.043962E-1	1.379162E-1	1.368954E-1	1.171031E-1	9.356449E-2	1.009378E-1	1.083623E-1	1.208971E-1	1.268231E-1	1.260700E-1	1.276066E-1	1.109109E-1	1.152312E-1	1.269404E-1	1.178580E-1	1.060161E-1	1.115135E-1	1.227295E-1	1.192294E-1	1.177093E-1	1.151860E-1	1.225462E-1	1.196987E-1	1.085450E-1	1.185209E-1	8.658209E-2	1.213018E-1	1.451629E-1	1.101873E-1	1.212599E-1	1.185851E-1	1.150800E-1	9.735143E-2	8.593174E-2	1.134962E-1	1.233349E-1	1.049416E-1	1.329880E-1	1.192484E-1	1.231777E-1	1.290447E-1	1.246959E-1	1.191783E-1	1.167917E-1	1.344293E-1	1.125567E-1	9.614085E-2	1.337599E-1	1.191118E-1	1.453302E-1	1.202622E-1	1.197494E-1	1.112558E-1	1.339075E-1	1.519029E-1	1.193047E-1	1.229520E-1	1.285360E-1	1.388640E-1	1.269222E-1	1.090931E-1	1.170371E-1	1.455909E-1	1.209073E-1	1.225260E-1	1.008583E-1	1.330698E-1	1.160846E-1	1.298597E-1	1.179784E-1	1.320272E-1	1.256856E-1	1.094213E-1	1.241609E-1	1.149653E-1	1.003505E-1	1.036975E-1	8.960094E-2	1.060424E-1	1.099960E-1	1.301371E-1	1.210352E-1	1.232228E-1	1.068230E-1	1.136635E-1	1.292796E-1	1.067019E-1	1.184033E-1	1.208011E-1	1.427740E-1	1.091955E-1	1.053836E-1	1.155544E-1	1.103273E-1	1.446824E-1	1.129566E-1	1.307084E-1	8.628007E-2	1.147389E-1	1.281538E-1	1.200603E-1	1.260248E-1	1.089184E-1	1.173165E-1	1.393768E-1	1.308688E-1	9.784961E-2	7.947773E-2	1.412793E-1	1.140295E-1	1.274807E-1	1.080566E-1	1.193707E-1	1.150143E-1	1.288538E-1	1.180940E-1	1.087550E-1	1.374841E-1	1.315697E-1	1.292552E-1	1.412710E-1	1.317645E-1	1.232943E-1	1.153950E-1	1.165875E-1	1.109266E-1	1.318027E-1	1.249368E-1	1.210898E-1	1.067255E-1	8.880297E-2	1.106583E-1	1.178946E-1	1.290515E-1	1.232433E-1	1.490690E-1	9.417421E-2	1.342155E-1	1.435583E-1	9.760590E-2	1.197430E-1	1.097709E-1	1.254085E-1	1.267895E-1	1.185708E-1	1.303564E-1	1.381664E-1	1.196887E-1	1.187612E-1	1.356846E-1	4.954721E-2	1.708095E-1
5.346150E+2	1.852313E-1	1.798868E-1	2.009795E-1	1.652523E-1	2.045110E-1	1.752949E-1	1.860423E-1	2.013249E-1	2.039204E-1	1.758029E-1	1.921515E-1	2.111670E-1	1.910923E-1	1.819469E-1	1.765140E-1	1.897705E-1	1.946529E-1	1.937059E-1	1.867155E-1	1.726794E-1	1.652484E-1	1.897854E-1	2.017232E-1	1.697620E-1	1.944984E-1	2.251904E-1	1.749661E-1	1.766241E-1	1.666284E-1	2.029065E-1	1.919543E-1	1.848679E-1	2.030158E-1	2.037504E-1	1.820945E-1	1.606283E-1	1.759200E-1	1.994028E-1	1.707141E-1	1.623099E-1	1.897181E-1	2.087241E-1	1.832085E-1	1.827575E-1	1.787903E-1	1.863406E-1	1.719779E-1	1.924527E-1	1.768868E-1	1.780555E-1	1.755449E-1	1.925334E-1	1.860015E-1	2.131785E-1	1.960769E-1	1.988157E-1	1.959356E-1	2.141763E-1	1.836442E-1	2.047496E-1	1.924009E-1	1.869882E-1	1.811420E-1	2.038324E-1	2.067851E-1	2.059982E-1	1.780043E-1	2.034001E-1	1.902859E-1	2.018857E-1	1.893982E-1	1.841628E-1	1.839748E-1	1.733196E-1	1.841922E-1	1.928926E-1	1.819843E-1	1.850287E-1	2.154082E-1	1.951251E-1	2.175635E-1	1.902075E-1	1.843746E-1	2.031951E-1	2.007422E-1	1.820271E-1	1.763816E-1	2.181682E-1	1.788622E-1	1.936019E-1	2.052581E-1	2.168825E-1	1.792544E-1	1.819603E-1	1.789529E-1	2.054876E-1	1.782434E-1	2.068375E-1	1.924833E-1	2.011576E-1	1.777427E-1	1.841596E-1	2.056682E-1	1.616079E-1	1.974742E-1	1.880599E-1	2.008688E-1	1.806370E-1	2.080585E-1	2.037178E-1	1.906252E-1	2.120708E-1	1.838843E-1	1.753533E-1	2.269438E-1	1.958332E-1	2.008957E-1	1.958037E-1	1.762869E-1	2.207262E-1	1.944639E-1	2.056774E-1	2.112889E-1	1.950826E-1	1.716331E-1	2.116216E-1	1.636124E-1	1.717492E-1	1.961462E-1	1.972072E-1	1.979306E-1	2.194668E-1	2.037849E-1	1.905986E-1	1.755564E-1	2.058433E-1	1.722598E-1	2.100695E-1	2.258590E-1	1.778205E-1	1.854213E-1	1.925368E-1	1.773334E-1	1.853855E-1	2.225241E-1	2.083160E-1	1.680502E-1	1.907891E-1	1.813939E-1	2.105594E-1	1.681633E-1	1.937444E-1	1.951897E-1	1.920068E-1	1.863366E-1	1.880401E-1	2.010688E-1	1.932146E-1	1.731133E-1	1.880676E-1	1.925176E-1	1.647614E-1	1.571426E-1	2.320419E-1	1.464764E-1	2.248400E-1
5.348180E+2	3.961595E-1	3.776101E-1	4.116376E-1	3.845505E-1	3.925315E-1	4.155042E-1	4.459118E-1	4.030631E-1	3.953586E-1	4.031936E-1	3.975354E-1	3.983245E-1	4.081213E-1	3.785102E-1	3.995144E-1	4.030964E-1	4.000789E-1	3.967340E-1	4.049954E-1	3.959973E-1	3.886732E-1	4.464770E-1	4.395651E-1	3.953517E-1	3.900162E-1	4.293986E-1	4.218340E-1	4.100088E-1	4.328499E-1	4.253908E-1	4.279629E-1	4.036040E-1	4.005050E-1	4.351335E-1	3.408349E-1	4.396274E-1	3.958865E-1	4.084027E-1	3.738554E-1	4.181950E-1	4.409246E-1	4.056427E-1	3.902798E-1	3.710182E-1	3.892761E-1	4.367201E-1	4.087162E-1	4.045656E-1	4.525931E-1	3.891270E-1	3.989104E-1	4.051254E-1	3.966825E-1	3.816278E-1	4.143103E-1	4.320367E-1	3.564403E-1	3.841263E-1	3.770460E-1	4.078537E-1	3.938946E-1	4.008441E-1	3.797242E-1	3.856488E-1	3.938308E-1	4.089378E-1	4.264448E-1	4.134799E-1	4.435709E-1	3.638672E-1	4.130207E-1	3.926072E-1	4.264493E-1	4.036204E-1	3.820239E-1	3.835572E-1	4.389322E-1	4.211641E-1	4.083470E-1	4.161844E-1	4.064102E-1	4.315315E-1	4.137859E-1	3.796389E-1	4.155519E-1	4.077540E-1	3.877037E-1	3.529073E-1	3.929083E-1	4.193560E-1	3.831938E-1	4.112646E-1	4.154427E-1	4.151168E-1	4.450824E-1	4.287867E-1	4.027657E-1	4.120473E-1	4.344711E-1	4.251114E-1	4.291031E-1	3.770260E-1	3.892105E-1	3.634470E-1	3.779954E-1	4.346640E-1	4.103997E-1	3.895976E-1	4.255088E-1	3.865155E-1	3.824820E-1	4.067209E-1	4.493404E-1	3.978381E-1	3.901910E-1	3.940636E-1	4.200266E-1	3.934854E-1	4.599352E-1	3.719485E-1	4.743943E-1	4.140487E-1	3.992206E-1	4.067310E-1	4.036550E-1	4.444901E-1	3.891058E-1	3.802151E-1	4.216533E-1	4.023803E-1	4.012073E-1	3.753052E-1	4.418124E-1	3.572036E-1	3.952040E-1	3.955832E-1	4.048746E-1	3.955103E-1	4.118767E-1	3.839803E-1	4.043424E-1	3.878614E-1	3.721156E-1	3.857810E-1	4.066898E-1	4.095287E-1	4.141326E-1	4.064777E-1	3.920652E-1	3.896756E-1	3.789979E-1	3.967653E-1	4.241819E-1	3.993297E-1	3.688531E-1	3.844513E-1	4.141378E-1	4.167130E-1	3.987989E-1	3.985410E-1	3.949819E-1	3.784177E-1	4.147929E-1	4.027867E-1	4.328880E-1	3.254047E-1
5.350100E+2	7.769589E-1	7.828110E-1	7.532527E-1	7.416479E-1	7.789571E-1	7.950389E-1	7.204181E-1	7.291864E-1	7.428409E-1	7.706269E-1	7.699499E-1	8.286772E-1	7.852491E-1	7.692263E-1	7.820832E-1	7.907915E-1	8.154217E-1	7.976583E-1	8.272983E-1	7.853269E-1	7.926732E-1	7.781716E-1	7.997156E-1	8.015241E-1	7.407379E-1	7.554367E-1	7.996691E-1	7.933258E-1	7.917724E-1	7.866109E-1	7.477712E-1	8.312045E-1	7.812661E-1	7.755063E-1	7.752363E-1	8.122331E-1	7.807541E-1	7.808760E-1	7.452822E-1	7.375661E-1	7.920791E-1	7.277708E-1	8.216184E-1	7.860440E-1	7.978607E-1	8.325566E-1	7.516523E-1	8.181376E-1	7.732109E-1	7.740738E-1	7.535349E-1	7.982800E-1	8.176047E-1	7.878756E-1	7.426516E-1	7.904633E-1	7.740615E-1	7.909378E-1	8.033182E-1	7.787818E-1	7.459933E-1	7.484494E-1	8.144110E-1	7.435417E-1	8.187377E-1	8.235447E-1	7.890345E-1	8.010068E-1	7.931914E-1	7.492897E-1	7.631506E-1	7.838188E-1	8.388466E-1	7.791340E-1	7.879418E-1	7.328143E-1	8.193941E-1	7.285783E-1	8.049705E-1	7.069750E-1	8.044017E-1	7.404699E-1	8.345754E-1	7.543864E-1	7.998727E-1	7.545169E-1	7.626007E-1	8.366363E-1	7.825973E-1	7.871910E-1	7.992989E-1	7.686372E-1	7.890011E-1	7.818842E-1	8.100147E-1	7.642238E-1	7.942451E-1	7.564652E-1	8.210392E-1	7.737589E-1	7.835217E-1	8.205058E-1	7.561520E-1	7.922266E-1	7.780600E-1	8.251898E-1	7.951338E-1	8.115828E-1	7.532082E-1	7.310737E-1	7.907176E-1	7.995242E-1	8.435573E-1	7.683586E-1	7.776264E-1	8.072905E-1	7.709395E-1	7.858307E-1	8.548667E-1	7.446597E-1	7.719435E-1	8.165663E-1	7.941284E-1	7.565427E-1	7.898293E-1	7.607479E-1	7.543976E-1	7.481713E-1	7.649368E-1	7.859536E-1	7.812594E-1	8.193667E-1	7.534637E-1	8.221304E-1	7.403827E-1	7.803922E-1	7.696137E-1	7.896910E-1	7.358328E-1	7.693546E-1	7.696835E-1	7.446519E-1	8.009401E-1	7.955300E-1	7.823500E-1	7.727063E-1	7.558839E-1	7.814027E-1	7.963498E-1	7.439167E-1	7.827776E-1	8.095893E-1	8.118366E-1	8.010111E-1	8.109149E-1	7.975575E-1	8.133037E-1	7.740165E-1	7.643432E-1	7.565261E-1	8.012057E-1	7.708119E-1	7.948449E-1	7.395671E-1	8.153620E-1	8.893884E-1
5.352080E+2	1.094232E+0	1.121742E+0	1.162652E+0	1.141342E+0	1.128347E+0	1.111137E+0	1.247642E+0	1.099157E+0	1.144442E+0	1.091331E+0	1.127295E+0	1.118773E+0	1.162013E+0	1.145797E+0	1.147060E+0	1.133073E+0	1.121367E+0	1.112939E+0	1.146831E+0	1.067862E+0	1.167363E+0	1.118131E+0	1.171027E+0	1.136692E+0	1.167949E+0	1.117834E+0	1.142390E+0	1.105887E+0	1.161293E+0	1.134602E+0	1.140142E+0	1.154846E+0	1.197719E+0	1.159147E+0	1.184329E+0	1.151957E+0	1.180534E+0	1.133412E+0	1.075248E+0	1.061147E+0	1.091439E+0	1.199459E+0	1.148029E+0	1.134653E+0	1.151995E+0	1.127834E+0	1.142138E+0	1.138493E+0	1.098125E+0	1.147771E+0	1.130165E+0	1.098186E+0	1.215459E+0	1.139539E+0	1.146280E+0	1.157848E+0	1.140104E+0	1.155477E+0	1.137036E+0	1.105321E+0	1.088954E+0	1.178596E+0	1.101659E+0	1.116867E+0	1.142755E+0	1.192566E+0	1.143583E+0	1.171217E+0	1.189423E+0	1.124987E+0	1.161658E+0	1.161427E+0	1.127935E+0	1.061142E+0	1.059502E+0	1.123738E+0	1.199976E+0	1.139566E+0	1.135715E+0	1.101198E+0	1.224265E+0	1.152411E+0	1.158504E+0	1.111259E+0	1.155838E+0	1.154370E+0	1.155805E+0	1.099819E+0	1.131862E+0	1.211966E+0	1.114400E+0	1.138355E+0	1.186826E+0	1.183950E+0	1.162395E+0	1.190113E+0	1.128931E+0	1.117749E+0	1.149009E+0	1.134518E+0	1.136504E+0	1.119546E+0	1.096811E+0	1.184992E+0	1.139259E+0	1.233629E+0	1.171103E+0	1.145475E+0	1.118202E+0	1.100893E+0	1.185149E+0	1.095861E+0	1.126141E+0	1.173312E+0	1.199335E+0	1.094393E+0	1.114550E+0	1.098295E+0	1.140688E+0	1.087596E+0	1.072334E+0	1.183374E+0	1.162478E+0	1.078567E+0	1.094143E+0	1.187760E+0	1.106523E+0	1.097650E+0	1.170681E+0	1.158579E+0	1.116482E+0	1.122115E+0	1.224817E+0	1.170323E+0	1.096227E+0	1.056182E+0	1.176856E+0	1.100288E+0	1.099670E+0	1.134542E+0	1.067806E+0	1.124715E+0	1.126604E+0	1.095962E+0	1.159297E+0	1.073038E+0	1.133029E+0	1.087380E+0	1.157245E+0	1.104826E+0	1.140948E+0	1.094362E+0	1.169210E+0	1.158426E+0	1.092262E+0	1.206536E+0	1.135789E+0	1.165618E+0	1.090605E+0	1.123492E+0	1.138245E+0	1.097289E+0	1.152366E+0	1.090380E+0	1.204198E+0	1.086039E+0
5.354110E+2	1.340219E+0	1.294643E+0	1.418626E+0	1.317515E+0	1.327322E+0	1.268211E+0	1.327194E+0	1.305442E+0	1.390905E+0	1.356046E+0	1.388357E+0	1.379060E+0	1.314739E+0	1.382659E+0	1.320122E+0	1.344466E+0	1.361521E+0	1.364532E+0	1.389218E+0	1.306339E+0	1.391974E+0	1.410933E+0	1.375796E+0	1.329577E+0	1.370990E+0	1.321398E+0	1.396619E+0	1.337846E+0	1.329429E+0	1.301945E+0	1.342353E+0	1.359047E+0	1.341802E+0	1.337111E+0	1.341052E+0	1.397172E+0	1.362433E+0	1.335881E+0	1.310005E+0	1.376923E+0	1.333270E+0	1.400761E+0	1.376135E+0	1.326318E+0	1.327745E+0	1.360558E+0	1.339985E+0	1.319599E+0	1.367226E+0	1.335795E+0	1.375810E+0	1.407427E+0	1.337980E+0	1.426140E+0	1.334985E+0	1.370160E+0	1.395412E+0	1.303031E+0	1.425513E+0	1.347395E+0	1.305942E+0	1.391772E+0	1.289340E+0	1.375340E+0	1.309120E+0	1.326123E+0	1.354320E+0	1.357697E+0	1.399272E+0	1.306069E+0	1.299196E+0	1.342225E+0	1.441543E+0	1.369377E+0	1.323293E+0	1.376559E+0	1.413184E+0	1.360513E+0	1.322655E+0	1.368294E+0	1.427570E+0	1.388103E+0	1.395822E+0	1.395185E+0	1.348424E+0	1.386409E+0	1.364860E+0	1.297171E+0	1.330064E+0	1.342824E+0	1.343817E+0	1.339655E+0	1.418849E+0	1.371355E+0	1.387877E+0	1.322018E+0	1.445427E+0	1.293513E+0	1.341074E+0	1.299253E+0	1.343494E+0	1.315304E+0	1.338381E+0	1.378310E+0	1.334356E+0	1.439797E+0	1.392985E+0	1.323948E+0	1.365058E+0	1.316093E+0	1.310435E+0	1.317061E+0	1.357910E+0	1.336759E+0	1.358360E+0	1.293635E+0	1.289356E+0	1.313941E+0	1.353459E+0	1.375574E+0	1.393472E+0	1.379510E+0	1.375712E+0	1.272512E+0	1.375195E+0	1.320772E+0	1.356955E+0	1.328953E+0	1.385294E+0	1.324655E+0	1.337749E+0	1.288299E+0	1.358056E+0	1.312906E+0	1.336361E+0	1.348101E+0	1.344555E+0	1.372918E+0	1.360476E+0	1.407063E+0	1.411637E+0	1.212991E+0	1.330536E+0	1.371499E+0	1.418190E+0	1.323699E+0	1.277580E+0	1.390438E+0	1.397121E+0	1.320750E+0	1.372791E+0	1.304334E+0	1.403534E+0	1.393757E+0	1.360328E+0	1.334689E+0	1.310816E+0	1.331640E+0	1.269493E+0	1.324399E+0	1.326756E+0	1.326721E+0	1.226847E+0	1.334305E+0	1.301864E+0	1.122505E+0
5.356150E+2	1.469066E+0	1.456005E+0	1.477596E+0	1.461570E+0	1.391764E+0	1.429970E+0	1.453692E+0	1.420969E+0	1.375167E+0	1.393419E+0	1.400649E+0	1.504234E+0	1.474279E+0	1.467783E+0	1.413104E+0	1.438192E+0	1.453268E+0	1.408859E+0	1.466947E+0	1.434356E+0	1.466691E+0	1.484871E+0	1.475424E+0	1.484246E+0	1.491886E+0	1.422874E+0	1.420808E+0	1.424204E+0	1.422347E+0	1.412225E+0	1.424313E+0	1.394955E+0	1.494502E+0	1.512336E+0	1.401440E+0	1.446451E+0	1.435897E+0	1.475440E+0	1.467728E+0	1.425764E+0	1.459213E+0	1.472671E+0	1.414146E+0	1.418746E+0	1.471216E+0	1.403194E+0	1.396251E+0	1.466182E+0	1.480516E+0	1.401217E+0	1.378769E+0	1.444833E+0	1.436819E+0	1.486408E+0	1.490040E+0	1.424508E+0	1.459590E+0	1.473172E+0	1.527908E+0	1.390237E+0	1.402815E+0	1.513440E+0	1.463488E+0	1.468128E+0	1.430181E+0	1.447649E+0	1.416487E+0	1.464934E+0	1.441290E+0	1.438076E+0	1.520073E+0	1.390583E+0	1.494999E+0	1.481313E+0	1.433581E+0	1.414691E+0	1.476809E+0	1.430318E+0	1.422257E+0	1.342748E+0	1.441347E+0	1.456931E+0	1.391639E+0	1.464211E+0	1.392791E+0	1.435188E+0	1.425435E+0	1.399073E+0	1.498271E+0	1.468071E+0	1.446637E+0	1.402472E+0	1.373940E+0	1.391753E+0	1.399696E+0	1.469555E+0	1.463732E+0	1.382971E+0	1.471158E+0	1.452949E+0	1.373501E+0	1.415659E+0	1.364198E+0	1.466884E+0	1.395835E+0	1.463774E+0	1.508971E+0	1.431436E+0	1.377297E+0	1.455131E+0	1.451439E+0	1.409430E+0	1.413029E+0	1.428790E+0	1.428948E+0	1.408599E+0	1.439851E+0	1.406000E+0	1.465676E+0	1.432621E+0	1.441112E+0	1.522897E+0	1.487352E+0	1.423590E+0	1.421909E+0	1.428793E+0	1.476232E+0	1.377468E+0	1.454507E+0	1.462502E+0	1.415656E+0	1.413158E+0	1.422021E+0	1.412218E+0	1.331609E+0	1.466329E+0	1.438123E+0	1.387083E+0	1.443243E+0	1.421715E+0	1.405953E+0	1.377904E+0	1.423083E+0	1.447701E+0	1.497090E+0	1.407322E+0	1.389183E+0	1.444872E+0	1.422821E+0	1.416095E+0	1.422560E+0	1.422008E+0	1.432228E+0	1.389517E+0	1.450306E+0	1.382645E+0	1.470212E+0	1.411894E+0	1.397378E+0	1.373861E+0	1.432435E+0	1.372709E+0	1.340792E+0	1.441464E+0	1.297372E+0	1.208732E+0
5.358130E+2	1.534645E+0	1.578196E+0	1.570794E+0	1.550420E+0	1.462933E+0	1.505371E+0	1.599768E+0	1.651538E+0	1.483255E+0	1.539334E+0	1.635725E+0	1.556401E+0	1.588563E+0	1.599597E+0	1.487523E+0	1.617721E+0	1.536616E+0	1.576524E+0	1.504513E+0	1.525672E+0	1.569248E+0	1.574047E+0	1.606221E+0	1.512269E+0	1.589969E+0	1.522829E+0	1.526818E+0	1.580578E+0	1.550836E+0	1.480222E+0	1.542025E+0	1.581888E+0	1.544861E+0	1.602599E+0	1.553190E+0	1.662884E+0	1.609155E+0	1.540755E+0	1.495534E+0	1.512704E+0	1.555182E+0	1.583837E+0	1.529052E+0	1.463512E+0	1.647445E+0	1.518494E+0	1.586791E+0	1.584938E+0	1.641063E+0	1.600826E+0	1.529578E+0	1.564088E+0	1.597570E+0	1.511241E+0	1.569572E+0	1.524224E+0	1.569295E+0	1.592025E+0	1.614176E+0	1.571205E+0	1.541792E+0	1.520650E+0	1.512748E+0	1.476295E+0	1.526597E+0	1.571913E+0	1.570553E+0	1.553450E+0	1.567733E+0	1.535988E+0	1.578497E+0	1.550639E+0	1.653050E+0	1.507171E+0	1.505922E+0	1.577575E+0	1.667618E+0	1.564892E+0	1.592292E+0	1.482442E+0	1.581756E+0	1.580213E+0	1.565145E+0	1.483508E+0	1.604031E+0	1.510474E+0	1.478342E+0	1.608799E+0	1.561250E+0	1.589012E+0	1.526536E+0	1.519657E+0	1.566602E+0	1.560053E+0	1.568477E+0	1.587610E+0	1.625653E+0	1.543324E+0	1.585449E+0	1.565247E+0	1.519747E+0	1.521778E+0	1.474822E+0	1.546120E+0	1.534581E+0	1.673887E+0	1.568938E+0	1.528079E+0	1.527889E+0	1.507903E+0	1.630265E+0	1.521190E+0	1.518314E+0	1.551587E+0	1.548829E+0	1.560100E+0	1.499139E+0	1.550025E+0	1.570084E+0	1.523508E+0	1.572634E+0	1.575637E+0	1.533064E+0	1.493480E+0	1.509051E+0	1.578968E+0	1.539716E+0	1.459388E+0	1.607591E+0	1.503613E+0	1.592587E+0	1.496538E+0	1.558926E+0	1.547933E+0	1.477136E+0	1.462843E+0	1.515454E+0	1.497980E+0	1.542611E+0	1.583115E+0	1.547853E+0	1.481971E+0	1.475418E+0	1.523094E+0	1.631010E+0	1.435344E+0	1.569224E+0	1.486136E+0	1.579089E+0	1.461782E+0	1.524513E+0	1.511393E+0	1.578604E+0	1.549425E+0	1.535824E+0	1.559275E+0	1.476104E+0	1.509889E+0	1.523641E+0	1.545808E+0	1.529286E+0	1.514167E+0	1.602478E+0	1.574857E+0	1.488542E+0	1.477802E+0
5.360120E+2	1.667935E+0	1.699663E+0	1.710159E+0	1.693796E+0	1.622666E+0	1.631731E+0	1.676400E+0	1.723218E+0	1.673303E+0	1.705120E+0	1.682945E+0	1.796892E+0	1.730469E+0	1.707978E+0	1.655291E+0	1.671539E+0	1.659706E+0	1.610179E+0	1.693418E+0	1.669335E+0	1.701442E+0	1.679525E+0	1.640750E+0	1.725424E+0	1.715760E+0	1.660957E+0	1.647219E+0	1.666519E+0	1.675635E+0	1.717865E+0	1.597569E+0	1.631938E+0	1.637060E+0	1.668822E+0	1.703530E+0	1.724751E+0	1.672118E+0	1.674677E+0	1.695858E+0	1.701638E+0	1.681811E+0	1.702235E+0	1.610185E+0	1.702484E+0	1.629814E+0	1.707368E+0	1.752373E+0	1.685265E+0	1.673813E+0	1.732549E+0	1.721611E+0	1.634230E+0	1.697618E+0	1.679520E+0	1.714121E+0	1.645926E+0	1.667805E+0	1.700050E+0	1.773602E+0	1.683293E+0	1.610047E+0	1.672594E+0	1.623136E+0	1.641034E+0	1.643120E+0	1.653290E+0	1.666291E+0	1.671689E+0	1.674452E+0	1.684402E+0	1.662160E+0	1.643187E+0	1.702744E+0	1.655737E+0	1.650524E+0	1.674868E+0	1.725727E+0	1.712975E+0	1.648075E+0	1.640678E+0	1.731231E+0	1.702040E+0	1.645715E+0	1.643403E+0	1.699643E+0	1.616106E+0	1.617832E+0	1.661925E+0	1.659527E+0	1.732614E+0	1.627335E+0	1.704111E+0	1.663332E+0	1.771642E+0	1.703285E+0	1.662477E+0	1.733806E+0	1.623380E+0	1.720870E+0	1.643574E+0	1.680334E+0	1.730053E+0	1.622289E+0	1.660684E+0	1.706554E+0	1.684119E+0	1.747375E+0	1.578050E+0	1.672635E+0	1.677434E+0	1.594913E+0	1.591530E+0	1.684447E+0	1.635356E+0	1.591913E+0	1.656239E+0	1.639143E+0	1.604116E+0	1.636754E+0	1.611659E+0	1.649499E+0	1.686053E+0	1.743960E+0	1.605536E+0	1.663134E+0	1.686477E+0	1.693530E+0	1.607174E+0	1.668571E+0	1.776403E+0	1.560383E+0	1.638607E+0	1.676173E+0	1.643539E+0	1.576239E+0	1.621100E+0	1.577645E+0	1.604960E+0	1.665329E+0	1.627209E+0	1.560348E+0	1.546411E+0	1.634299E+0	1.672401E+0	1.681150E+0	1.582134E+0	1.635920E+0	1.655941E+0	1.649172E+0	1.675879E+0	1.706064E+0	1.655441E+0	1.649013E+0	1.633443E+0	1.703744E+0	1.683089E+0	1.614877E+0	1.634152E+0	1.652010E+0	1.673995E+0	1.583153E+0	1.586090E+0	1.630121E+0	1.710133E+0	1.637276E+0	1.777972E+0
5.362050E+2	1.665694E+0	1.767757E+0	1.758743E+0	1.727970E+0	1.664284E+0	1.663101E+0	1.738176E+0	1.684078E+0	1.661993E+0	1.648887E+0	1.652683E+0	1.779859E+0	1.734506E+0	1.658843E+0	1.715365E+0	1.755844E+0	1.675222E+0	1.662967E+0	1.737695E+0	1.726302E+0	1.798786E+0	1.720405E+0	1.750919E+0	1.661450E+0	1.778072E+0	1.615607E+0	1.770614E+0	1.714587E+0	1.699661E+0	1.766885E+0	1.632484E+0	1.728512E+0	1.708752E+0	1.674871E+0	1.684807E+0	1.801700E+0	1.740739E+0	1.688008E+0	1.728820E+0	1.731657E+0	1.722763E+0	1.700263E+0	1.705243E+0	1.698267E+0	1.733654E+0	1.722511E+0	1.679099E+0	1.764924E+0	1.736672E+0	1.677145E+0	1.580891E+0	1.740356E+0	1.674657E+0	1.778363E+0	1.663496E+0	1.721864E+0	1.680782E+0	1.716652E+0	1.750557E+0	1.710751E+0	1.634495E+0	1.777849E+0	1.660320E+0	1.629997E+0	1.672779E+0	1.702072E+0	1.745182E+0	1.702706E+0	1.651674E+0	1.750547E+0	1.665393E+0	1.622512E+0	1.728359E+0	1.618611E+0	1.664523E+0	1.607684E+0	1.739159E+0	1.650453E+0	1.656671E+0	1.696661E+0	1.793197E+0	1.719307E+0	1.672000E+0	1.682457E+0	1.658702E+0	1.676868E+0	1.648881E+0	1.665353E+0	1.708241E+0	1.713534E+0	1.686152E+0	1.663947E+0	1.721742E+0	1.701538E+0	1.748084E+0	1.693744E+0	1.713054E+0	1.660802E+0	1.726490E+0	1.673886E+0	1.648682E+0	1.662129E+0	1.692834E+0	1.671441E+0	1.642105E+0	1.765104E+0	1.717473E+0	1.662634E+0	1.639561E+0	1.655963E+0	1.672840E+0	1.705332E+0	1.707252E+0	1.666781E+0	1.716522E+0	1.677246E+0	1.665412E+0	1.704800E+0	1.727158E+0	1.708503E+0	1.704364E+0	1.696573E+0	1.684439E+0	1.586050E+0	1.632591E+0	1.697737E+0	1.663162E+0	1.622782E+0	1.670668E+0	1.775833E+0	1.620739E+0	1.655139E+0	1.672643E+0	1.675234E+0	1.666786E+0	1.671065E+0	1.632622E+0	1.604945E+0	1.694980E+0	1.728944E+0	1.576951E+0	1.622708E+0	1.741436E+0	1.714863E+0	1.713057E+0	1.624891E+0	1.688179E+0	1.697096E+0	1.657335E+0	1.685291E+0	1.676006E+0	1.703718E+0	1.679672E+0	1.755655E+0	1.705810E+0	1.660635E+0	1.688193E+0	1.687103E+0	1.595316E+0	1.644197E+0	1.631101E+0	1.635244E+0	1.614280E+0	1.612212E+0	1.631418E+0	1.695706E+0
5.364090E+2	1.340119E+0	1.408081E+0	1.449277E+0	1.366178E+0	1.327907E+0	1.281992E+0	1.328269E+0	1.449458E+0	1.378997E+0	1.389268E+0	1.392792E+0	1.410006E+0	1.382561E+0	1.426847E+0	1.418041E+0	1.424634E+0	1.416083E+0	1.376591E+0	1.335969E+0	1.379353E+0	1.415019E+0	1.440275E+0	1.392169E+0	1.410353E+0	1.418161E+0	1.359779E+0	1.437546E+0	1.446393E+0	1.296918E+0	1.408016E+0	1.440825E+0	1.419289E+0	1.421389E+0	1.382725E+0	1.340341E+0	1.481259E+0	1.374090E+0	1.432236E+0	1.418494E+0	1.375181E+0	1.430362E+0	1.421752E+0	1.379240E+0	1.391740E+0	1.380181E+0	1.383964E+0	1.379514E+0	1.418809E+0	1.387766E+0	1.399204E+0	1.443641E+0	1.400903E+0	1.392318E+0	1.428981E+0	1.398555E+0	1.402525E+0	1.434613E+0	1.432592E+0	1.428155E+0	1.331189E+0	1.376338E+0	1.327763E+0	1.410159E+0	1.380550E+0	1.414120E+0	1.476182E+0	1.362465E+0	1.383516E+0	1.446687E+0	1.437667E+0	1.374889E+0	1.357159E+0	1.425336E+0	1.303894E+0	1.372457E+0	1.379057E+0	1.475407E+0	1.426005E+0	1.370853E+0	1.323397E+0	1.456279E+0	1.405185E+0	1.486902E+0	1.348799E+0	1.366991E+0	1.425314E+0	1.397876E+0	1.396641E+0	1.418404E+0	1.415027E+0	1.422341E+0	1.393171E+0	1.439012E+0	1.366176E+0	1.438362E+0	1.391753E+0	1.405816E+0	1.341786E+0	1.393392E+0	1.334435E+0	1.422244E+0	1.295100E+0	1.351028E+0	1.350050E+0	1.382360E+0	1.414680E+0	1.464237E+0	1.400460E+0	1.398617E+0	1.363639E+0	1.380605E+0	1.365378E+0	1.437199E+0	1.449668E+0	1.307482E+0	1.357017E+0	1.433664E+0	1.397416E+0	1.414343E+0	1.402655E+0	1.331689E+0	1.413727E+0	1.407186E+0	1.418441E+0	1.413336E+0	1.437098E+0	1.368667E+0	1.356629E+0	1.384747E+0	1.407768E+0	1.350331E+0	1.352021E+0	1.379721E+0	1.353963E+0	1.347046E+0	1.405511E+0	1.325820E+0	1.314182E+0	1.350960E+0	1.427265E+0	1.331423E+0	1.329398E+0	1.344064E+0	1.362929E+0	1.400995E+0	1.305393E+0	1.381158E+0	1.362998E+0	1.463267E+0	1.379661E+0	1.457040E+0	1.377042E+0	1.417035E+0	1.355188E+0	1.455244E+0	1.416533E+0	1.394960E+0	1.351531E+0	1.359382E+0	1.357419E+0	1.377482E+0	1.367241E+0	1.413655E+0	1.371557E+0	1.283416E+0	1.417674E+0
5.366080E+2	1.148735E+0	1.119420E+0	1.101618E+0	1.121238E+0	1.116920E+0	1.114228E+0	1.122962E+0	1.121656E+0	1.131774E+0	1.112826E+0	1.073473E+0	1.142983E+0	1.122092E+0	1.224423E+0	1.062327E+0	1.145562E+0	1.152014E+0	1.088901E+0	1.189614E+0	1.139821E+0	1.140913E+0	1.134786E+0	1.143621E+0	1.056978E+0	1.172670E+0	1.173778E+0	1.133468E+0	1.165824E+0	1.127487E+0	1.176830E+0	1.125634E+0	1.110172E+0	1.169338E+0	1.092684E+0	1.114820E+0	1.243136E+0	1.119410E+0	1.143499E+0	1.119976E+0	1.149031E+0	1.135199E+0	1.154415E+0	1.106497E+0	1.051628E+0	1.148796E+0	1.134386E+0	1.186595E+0	1.113638E+0	1.188331E+0	1.161751E+0	1.140138E+0	1.171219E+0	1.145632E+0	1.194798E+0	1.119200E+0	1.167861E+0	1.160785E+0	1.173429E+0	1.194231E+0	1.172747E+0	1.104183E+0	1.133288E+0	1.147779E+0	1.102589E+0	1.166448E+0	1.189344E+0	1.150382E+0	1.150011E+0	1.140795E+0	1.143891E+0	1.109319E+0	1.135979E+0	1.182496E+0	1.152287E+0	1.178306E+0	1.138207E+0	1.217779E+0	1.119125E+0	1.123639E+0	1.163939E+0	1.227735E+0	1.164135E+0	1.160683E+0	1.163867E+0	1.105519E+0	1.142137E+0	1.127458E+0	1.147428E+0	1.143176E+0	1.160652E+0	1.142174E+0	1.125990E+0	1.128298E+0	1.117789E+0	1.149734E+0	1.099923E+0	1.104870E+0	1.114572E+0	1.147624E+0	1.140262E+0	1.109090E+0	1.115392E+0	1.144303E+0	1.194854E+0	1.144965E+0	1.131031E+0	1.160059E+0	1.111696E+0	1.112863E+0	1.147643E+0	1.126835E+0	1.177482E+0	1.193619E+0	1.165908E+0	1.158523E+0	1.140304E+0	1.048207E+0	1.101149E+0	1.089579E+0	1.143993E+0	1.121159E+0	1.139768E+0	1.116063E+0	1.114769E+0	1.130512E+0	1.140800E+0	1.135523E+0	1.107178E+0	1.116392E+0	1.177625E+0	1.073957E+0	1.098905E+0	1.217333E+0	1.129603E+0	1.081180E+0	1.095380E+0	1.132200E+0	1.119623E+0	1.147851E+0	1.101057E+0	1.091047E+0	1.117475E+0	1.131692E+0	1.144816E+0	1.191976E+0	1.087147E+0	1.091642E+0	1.090832E+0	1.109007E+0	1.119626E+0	1.174449E+0	1.135676E+0	1.117656E+0	1.174042E+0	1.118184E+0	1.173800E+0	1.130390E+0	1.075134E+0	1.133006E+0	1.120966E+0	1.130317E+0	1.062876E+0	1.163477E+0	1.098217E+0	1.041895E+0	1.073831E+0
5.368180E+2	9.601550E-1	9.461825E-1	9.482180E-1	9.257150E-1	9.302518E-1	9.155964E-1	9.698719E-1	9.416601E-1	9.217173E-1	9.300949E-1	9.344150E-1	9.046444E-1	9.375055E-1	9.270294E-1	9.142053E-1	9.715082E-1	9.549111E-1	9.550591E-1	8.893415E-1	9.267016E-1	9.419949E-1	9.184754E-1	9.885255E-1	9.066867E-1	9.173136E-1	9.147858E-1	9.333262E-1	9.677576E-1	9.395955E-1	9.187340E-1	9.092124E-1	8.753104E-1	9.584025E-1	9.284706E-1	9.568917E-1	9.695047E-1	9.581508E-1	9.119963E-1	8.777064E-1	9.315235E-1	9.203370E-1	8.908531E-1	9.200932E-1	9.104540E-1	8.861342E-1	9.425283E-1	9.309371E-1	9.521437E-1	9.491684E-1	8.952772E-1	8.633412E-1	9.336716E-1	9.623089E-1	9.065180E-1	9.594922E-1	9.052091E-1	9.001863E-1	9.246139E-1	9.894903E-1	9.109137E-1	8.961846E-1	9.295220E-1	9.020925E-1	9.207552E-1	9.292370E-1	9.129041E-1	9.193554E-1	9.618732E-1	8.836593E-1	9.438887E-1	9.599726E-1	9.063545E-1	9.464159E-1	8.721150E-1	9.295017E-1	9.012974E-1	9.247847E-1	9.116968E-1	8.902507E-1	8.726741E-1	9.552066E-1	9.307607E-1	9.015651E-1	9.055924E-1	9.174264E-1	9.320555E-1	9.248669E-1	9.118509E-1	9.420453E-1	9.167147E-1	9.465497E-1	8.564844E-1	9.068770E-1	9.730890E-1	9.239295E-1	9.354173E-1	9.202917E-1	9.495419E-1	9.763465E-1	9.378602E-1	9.015906E-1	9.416814E-1	8.961617E-1	9.449416E-1	9.411641E-1	8.949025E-1	9.886111E-1	8.908441E-1	9.038237E-1	8.971351E-1	9.680205E-1	9.012392E-1	8.804057E-1	9.449744E-1	9.750336E-1	9.647105E-1	9.201393E-1	9.466670E-1	9.081428E-1	9.000690E-1	9.249281E-1	9.649314E-1	9.359844E-1	9.029047E-1	1.008564E+0	9.320721E-1	9.113165E-1	9.049456E-1	9.150681E-1	8.726235E-1	8.948618E-1	9.354706E-1	9.608766E-1	8.979438E-1	8.872677E-1	8.779381E-1	8.990659E-1	8.976329E-1	9.301690E-1	9.441788E-1	9.165589E-1	8.864662E-1	9.090218E-1	8.915659E-1	9.775707E-1	9.088610E-1	9.350794E-1	8.969004E-1	9.547571E-1	9.399432E-1	9.161870E-1	9.293785E-1	9.783180E-1	9.565914E-1	9.981480E-1	9.464881E-1	9.974515E-1	9.169777E-1	8.954943E-1	8.847980E-1	9.074856E-1	9.159197E-1	9.225583E-1	9.165846E-1	9.220926E-1	9.814839E-1
5.370170E+2	8.835953E-1	9.292330E-1	8.654701E-1	9.144988E-1	9.104811E-1	8.146258E-1	9.155174E-1	9.247663E-1	9.160713E-1	8.699722E-1	8.660258E-1	9.248435E-1	9.123733E-1	9.149760E-1	8.910494E-1	8.999717E-1	8.796342E-1	8.113536E-1	9.328570E-1	9.041770E-1	9.079957E-1	9.159516E-1	9.432607E-1	9.403472E-1	9.097615E-1	8.917155E-1	8.908820E-1	8.928026E-1	8.917556E-1	8.795595E-1	8.712934E-1	9.032943E-1	8.806260E-1	8.489289E-1	8.931506E-1	9.294774E-1	9.003309E-1	8.887764E-1	8.866631E-1	8.767148E-1	8.873874E-1	8.847243E-1	8.569630E-1	9.030295E-1	8.930825E-1	9.173471E-1	8.675462E-1	9.209320E-1	8.712190E-1	8.800956E-1	8.967144E-1	9.184359E-1	9.073401E-1	9.090223E-1	8.831846E-1	9.243484E-1	9.077928E-1	8.599445E-1	9.065764E-1	8.422145E-1	8.787746E-1	9.137860E-1	8.677367E-1	9.206507E-1	9.147397E-1	8.946886E-1	8.896665E-1	8.861876E-1	8.537372E-1	8.967309E-1	9.051513E-1	8.272318E-1	8.684562E-1	8.564166E-1	8.859466E-1	8.785992E-1	9.566957E-1	8.158161E-1	8.714367E-1	8.829032E-1	9.131840E-1	9.470245E-1	9.074985E-1	8.852658E-1	8.774349E-1	8.820615E-1	9.408408E-1	9.076316E-1	8.746620E-1	8.492612E-1	9.265895E-1	8.770180E-1	9.235435E-1	8.702938E-1	8.673882E-1	8.972302E-1	8.974374E-1	8.270794E-1	8.923527E-1	8.957544E-1	9.052990E-1	8.958638E-1	8.711312E-1	9.052819E-1	9.125104E-1	9.152820E-1	9.176874E-1	9.497069E-1	8.888767E-1	8.780531E-1	8.895394E-1	8.439621E-1	8.360330E-1	9.109152E-1	9.472313E-1	9.179361E-1	9.364055E-1	7.806874E-1	9.065421E-1	9.097704E-1	8.601103E-1	8.957918E-1	9.140880E-1	8.596491E-1	8.618665E-1	9.315768E-1	7.936489E-1	8.843269E-1	8.933988E-1	8.596819E-1	9.195942E-1	8.733560E-1	9.644055E-1	8.752190E-1	9.119470E-1	8.872815E-1	8.510552E-1	8.734110E-1	9.070020E-1	8.631450E-1	8.838700E-1	8.742807E-1	9.053097E-1	9.185490E-1	9.571766E-1	8.476763E-1	8.805541E-1	8.838420E-1	8.783626E-1	9.014442E-1	9.335869E-1	8.896828E-1	9.056523E-1	8.915308E-1	9.382552E-1	9.001364E-1	9.111791E-1	9.032740E-1	8.820233E-1	8.454697E-1	8.939945E-1	8.742154E-1	9.093645E-1	8.414343E-1	8.596189E-1	9.195281E-1
5.372010E+2	9.494036E-1	1.060816E+0	1.027273E+0	8.997178E-1	9.760340E-1	9.763240E-1	1.014463E+0	9.205977E-1	1.010305E+0	9.291084E-1	9.473210E-1	1.015975E+0	9.694033E-1	9.615319E-1	9.467558E-1	9.952244E-1	9.141221E-1	9.761205E-1	9.456561E-1	9.258716E-1	9.538830E-1	9.547014E-1	9.925606E-1	9.125248E-1	1.001606E+0	9.610237E-1	9.547096E-1	9.890236E-1	9.276051E-1	9.540569E-1	9.797040E-1	9.551431E-1	1.010983E+0	9.425730E-1	9.560775E-1	1.024255E+0	9.905789E-1	9.495458E-1	9.403994E-1	9.238875E-1	1.011362E+0	9.721760E-1	9.823016E-1	9.731892E-1	9.530877E-1	1.005323E+0	1.036218E+0	9.907255E-1	9.510204E-1	9.546576E-1	9.096889E-1	9.936069E-1	9.690124E-1	9.805970E-1	9.620345E-1	9.800869E-1	9.516162E-1	9.650488E-1	1.037866E+0	9.247114E-1	9.674520E-1	9.604513E-1	9.585475E-1	9.785603E-1	1.005455E+0	9.886696E-1	9.548583E-1	9.581379E-1	1.045515E+0	9.609746E-1	9.885626E-1	9.763033E-1	1.009212E+0	9.210837E-1	9.552664E-1	9.588727E-1	9.733248E-1	9.529122E-1	9.726711E-1	9.738147E-1	9.757608E-1	1.023918E+0	9.881651E-1	9.753607E-1	9.948303E-1	9.235855E-1	1.009833E+0	9.370353E-1	1.010964E+0	1.020265E+0	9.377264E-1	9.782062E-1	9.501485E-1	9.666854E-1	9.964155E-1	9.995414E-1	1.026283E+0	9.038813E-1	9.550150E-1	9.526367E-1	1.001922E+0	9.611908E-1	9.454688E-1	9.689817E-1	9.879154E-1	9.271308E-1	1.001748E+0	9.919809E-1	9.578320E-1	9.327643E-1	9.652375E-1	9.278926E-1	9.677921E-1	9.791644E-1	9.587496E-1	9.483172E-1	9.484665E-1	8.947929E-1	9.811523E-1	9.899913E-1	9.592808E-1	1.004386E+0	9.459654E-1	1.006086E+0	1.008090E+0	1.027681E+0	9.209083E-1	9.608694E-1	9.853363E-1	9.737657E-1	9.707945E-1	9.309540E-1	9.646623E-1	9.640338E-1	9.773051E-1	9.463886E-1	9.112446E-1	9.591916E-1	9.964655E-1	9.837183E-1	9.779616E-1	9.446735E-1	9.723171E-1	1.008673E+0	1.023284E+0	9.583661E-1	9.450718E-1	9.966319E-1	9.356674E-1	9.560569E-1	9.746210E-1	9.545086E-1	9.881613E-1	9.797104E-1	9.830747E-1	9.967131E-1	9.712394E-1	9.930804E-1	9.546200E-1	9.552418E-1	9.419408E-1	9.323286E-1	9.047627E-1	9.238495E-1	9.413360E-1	1.003012E+0
5.374220E+2	1.104521E+0	1.071035E+0	1.088562E+0	1.110840E+0	1.064996E+0	1.084915E+0	1.110250E+0	1.145229E+0	1.040290E+0	1.039700E+0	1.102410E+0	1.086804E+0	1.109632E+0	1.085833E+0	1.063362E+0	1.073257E+0	1.067159E+0	1.035423E+0	1.064647E+0	1.087696E+0	1.048613E+0	1.056495E+0	1.087662E+0	1.076849E+0	1.060744E+0	1.070973E+0	1.058644E+0	1.088033E+0	1.061382E+0	1.050835E+0	1.061560E+0	1.045321E+0	1.110359E+0	1.052757E+0	1.078555E+0	1.132448E+0	1.091201E+0	1.078709E+0	1.037066E+0	1.049729E+0	1.080904E+0	1.088432E+0	1.062300E+0	1.043587E+0	1.101835E+0	1.082946E+0	1.125994E+0	1.124652E+0	1.085018E+0	1.099883E+0	1.099072E+0	1.041585E+0	1.059277E+0	1.037825E+0	1.015524E+0	1.066502E+0	1.109662E+0	1.014916E+0	1.129842E+0	1.074490E+0	1.001815E+0	1.049733E+0	1.015855E+0	1.060695E+0	1.062801E+0	1.111878E+0	1.080200E+0	1.110347E+0	1.056970E+0	1.048761E+0	1.100329E+0	1.055788E+0	1.077839E+0	1.029829E+0	1.082982E+0	1.026398E+0	1.081230E+0	1.115501E+0	1.107731E+0	1.077264E+0	1.079406E+0	1.105044E+0	1.088077E+0	1.073700E+0	1.085210E+0	1.067238E+0	1.089228E+0	1.064179E+0	1.042569E+0	1.162973E+0	1.080976E+0	1.031229E+0	1.114832E+0	1.067402E+0	1.088852E+0	1.051466E+0	1.090365E+0	1.081109E+0	1.102720E+0	1.112675E+0	1.062345E+0	1.053790E+0	1.085723E+0	1.072950E+0	1.041103E+0	1.088451E+0	1.139010E+0	1.102820E+0	1.116221E+0	1.087349E+0	1.061598E+0	1.054697E+0	1.089666E+0	1.105404E+0	1.041975E+0	1.092780E+0	1.052186E+0	1.024859E+0	1.056305E+0	1.101983E+0	1.041122E+0	1.083546E+0	1.089312E+0	1.056294E+0	1.022711E+0	1.023976E+0	1.037584E+0	1.007990E+0	1.126164E+0	1.072015E+0	1.087273E+0	1.102635E+0	1.106133E+0	1.042324E+0	1.055704E+0	1.070085E+0	1.037340E+0	9.937311E-1	1.058983E+0	1.079516E+0	1.117755E+0	1.028800E+0	1.081075E+0	1.088821E+0	1.095771E+0	1.043247E+0	1.067982E+0	1.052212E+0	1.058700E+0	1.096626E+0	1.130386E+0	1.106954E+0	1.058892E+0	1.062053E+0	1.098202E+0	1.067799E+0	1.127057E+0	1.065824E+0	1.105811E+0	1.112048E+0	1.005251E+0	9.777437E-1	1.087126E+0	1.029319E+0	1.054230E+0	1.063105E+0
5.376060E+2	1.075031E+0	1.061136E+0	1.061632E+0	1.038273E+0	1.039966E+0	1.063459E+0	1.023267E+0	1.076498E+0	1.018195E+0	1.054480E+0	1.009481E+0	1.002335E+0	1.118086E+0	1.062772E+0	1.072580E+0	1.085058E+0	1.049712E+0	1.051173E+0	1.073924E+0	1.066827E+0	1.124908E+0	1.063458E+0	1.083777E+0	1.074733E+0	1.111975E+0	1.031898E+0	1.077870E+0	1.112491E+0	1.100286E+0	1.101776E+0	1.045384E+0	1.051118E+0	1.049900E+0	1.021743E+0	1.046486E+0	1.075759E+0	1.024370E+0	1.054432E+0	9.947099E-1	1.057345E+0	1.074909E+0	1.064563E+0	1.030713E+0	1.005345E+0	1.027734E+0	1.042844E+0	1.041630E+0	1.077265E+0	1.077761E+0	1.039557E+0	1.073475E+0	1.028882E+0	1.050464E+0	1.084971E+0	1.100463E+0	1.083870E+0	1.093067E+0	1.074105E+0	1.035884E+0	9.992473E-1	1.005613E+0	1.089524E+0	1.081485E+0	1.054646E+0	1.055226E+0	1.101718E+0	1.079807E+0	1.072188E+0	1.070552E+0	1.108184E+0	1.071651E+0	1.039496E+0	1.131226E+0	1.020193E+0	1.019788E+0	1.084889E+0	1.085143E+0	1.046980E+0	1.063647E+0	1.057637E+0	1.102814E+0	1.116290E+0	1.104058E+0	1.063627E+0	1.077932E+0	1.064913E+0	1.040051E+0	1.098797E+0	1.022282E+0	1.077083E+0	1.040521E+0	1.068038E+0	1.048120E+0	9.987529E-1	1.040555E+0	1.060451E+0	1.069283E+0	1.019201E+0	1.109239E+0	1.086225E+0	1.109702E+0	1.024645E+0	1.075422E+0	1.045660E+0	1.071386E+0	1.069466E+0	1.109614E+0	1.050416E+0	1.040432E+0	1.085994E+0	1.097485E+0	1.062187E+0	9.823608E-1	1.085462E+0	1.116117E+0	1.044133E+0	1.080086E+0	1.065367E+0	1.075777E+0	1.077200E+0	1.071759E+0	1.054098E+0	1.084649E+0	1.050110E+0	1.061549E+0	1.079214E+0	1.033144E+0	1.012099E+0	1.060738E+0	1.085304E+0	1.050284E+0	1.019845E+0	1.068879E+0	1.043195E+0	1.025519E+0	1.042973E+0	1.043856E+0	1.075702E+0	1.040527E+0	1.091441E+0	1.085778E+0	1.051282E+0	1.059402E+0	1.074988E+0	1.119169E+0	1.028920E+0	1.084010E+0	1.110936E+0	1.104757E+0	1.027383E+0	1.062294E+0	1.096505E+0	1.139525E+0	1.047389E+0	1.023864E+0	1.001588E+0	1.070084E+0	1.041872E+0	1.037971E+0	1.067416E+0	1.025714E+0	1.066527E+0	1.082243E+0	9.866733E-1	9.928750E-1	1.105325E+0
5.378110E+2	1.094857E+0	1.169528E+0	1.121852E+0	1.098829E+0	1.082274E+0	1.130968E+0	1.143497E+0	1.144551E+0	1.136570E+0	1.109335E+0	1.114384E+0	1.178267E+0	1.136551E+0	1.172634E+0	1.046507E+0	1.124740E+0	1.109112E+0	1.162091E+0	1.111607E+0	1.142048E+0	1.075888E+0	1.171913E+0	1.122662E+0	1.138821E+0	1.130521E+0	1.078999E+0	1.095783E+0	1.177842E+0	1.122291E+0	1.136457E+0	1.100563E+0	1.081012E+0	1.121657E+0	1.105097E+0	1.078215E+0	1.123846E+0	1.128462E+0	1.100074E+0	1.047573E+0	1.094887E+0	1.163547E+0	1.118186E+0	1.111377E+0	1.103529E+0	1.117327E+0	1.156646E+0	1.165133E+0	1.095168E+0	1.176504E+0	1.124394E+0	1.139493E+0	1.092879E+0	1.085123E+0	1.133475E+0	1.079667E+0	1.121910E+0	1.134398E+0	1.149122E+0	1.147493E+0	1.111017E+0	1.099386E+0	1.107872E+0	1.103308E+0	1.133317E+0	1.061200E+0	1.163163E+0	1.139152E+0	1.144516E+0	1.142303E+0	1.123051E+0	1.099509E+0	1.144667E+0	1.163383E+0	1.103256E+0	1.139539E+0	1.120400E+0	1.101247E+0	1.074823E+0	1.085930E+0	1.199338E+0	1.093400E+0	1.084223E+0	1.103203E+0	1.130915E+0	1.100502E+0	1.047103E+0	1.115798E+0	1.120445E+0	1.130635E+0	1.109994E+0	1.138815E+0	1.092489E+0	1.186670E+0	1.083720E+0	1.117794E+0	1.150469E+0	1.192964E+0	1.049617E+0	1.112272E+0	1.150964E+0	1.146516E+0	1.085225E+0	1.136352E+0	1.142906E+0	1.119908E+0	1.153317E+0	1.116110E+0	1.121148E+0	1.100175E+0	1.073968E+0	1.121388E+0	1.078972E+0	1.149211E+0	1.132070E+0	1.118517E+0	1.110702E+0	1.125569E+0	1.131531E+0	1.115397E+0	1.110536E+0	1.171138E+0	1.121969E+0	1.174592E+0	1.108058E+0	1.111057E+0	1.159055E+0	1.155338E+0	1.095065E+0	1.053261E+0	1.133386E+0	1.127828E+0	1.077897E+0	1.155701E+0	1.036788E+0	1.153640E+0	1.100289E+0	1.091195E+0	1.116764E+0	1.131113E+0	1.133382E+0	1.067851E+0	1.079248E+0	1.122845E+0	1.165168E+0	1.203355E+0	1.092406E+0	1.129885E+0	1.137163E+0	1.123847E+0	1.120833E+0	1.132009E+0	1.130885E+0	1.166056E+0	1.103421E+0	1.218032E+0	1.169927E+0	1.107891E+0	1.114620E+0	1.100038E+0	1.110842E+0	1.093755E+0	1.095261E+0	1.158950E+0	1.110774E+0	1.023442E+0	1.073470E+0
5.380050E+2	1.198834E+0	1.280667E+0	1.193391E+0	1.157700E+0	1.183140E+0	1.219783E+0	1.184177E+0	1.209704E+0	1.160792E+0	1.182442E+0	1.239897E+0	1.240518E+0	1.200184E+0	1.221851E+0	1.156872E+0	1.215216E+0	1.146734E+0	1.206601E+0	1.224447E+0	1.198594E+0	1.220364E+0	1.185139E+0	1.195040E+0	1.179002E+0	1.218298E+0	1.207349E+0	1.197421E+0	1.233852E+0	1.217219E+0	1.172253E+0	1.186734E+0	1.141508E+0	1.176637E+0	1.143641E+0	1.132392E+0	1.212038E+0	1.246335E+0	1.184101E+0	1.181808E+0	1.158050E+0	1.196088E+0	1.181637E+0	1.169689E+0	1.184268E+0	1.184758E+0	1.139192E+0	1.162301E+0	1.249647E+0	1.241886E+0	1.179106E+0	1.246506E+0	1.185835E+0	1.196207E+0	1.222497E+0	1.153866E+0	1.196158E+0	1.183919E+0	1.210533E+0	1.211104E+0	1.184233E+0	1.165578E+0	1.223035E+0	1.195419E+0	1.147008E+0	1.157968E+0	1.219659E+0	1.202008E+0	1.206688E+0	1.253250E+0	1.179978E+0	1.167086E+0	1.184947E+0	1.238840E+0	1.210330E+0	1.163497E+0	1.186345E+0	1.217994E+0	1.222000E+0	1.204762E+0	1.146883E+0	1.194869E+0	1.240823E+0	1.227987E+0	1.152831E+0	1.159525E+0	1.174765E+0	1.222225E+0	1.184890E+0	1.222249E+0	1.177968E+0	1.173360E+0	1.197657E+0	1.204694E+0	1.128155E+0	1.197038E+0	1.222738E+0	1.249420E+0	1.203412E+0	1.188517E+0	1.207641E+0	1.133087E+0	1.175274E+0	1.177308E+0	1.166906E+0	1.192283E+0	1.197122E+0	1.196085E+0	1.272907E+0	1.220875E+0	1.171816E+0	1.192234E+0	1.176839E+0	1.211136E+0	1.194407E+0	1.282514E+0	1.145254E+0	1.142356E+0	1.133600E+0	1.228083E+0	1.178588E+0	1.214431E+0	1.131621E+0	1.165669E+0	1.146510E+0	1.166383E+0	1.257394E+0	1.134492E+0	1.170597E+0	1.164227E+0	1.126307E+0	1.220558E+0	1.183797E+0	1.217694E+0	1.150896E+0	1.186403E+0	1.119516E+0	1.131975E+0	1.186920E+0	1.178560E+0	1.224327E+0	1.180224E+0	1.170545E+0	1.176161E+0	1.197451E+0	1.260260E+0	1.141616E+0	1.212760E+0	1.239417E+0	1.206119E+0	1.205553E+0	1.220125E+0	1.229769E+0	1.117733E+0	1.169838E+0	1.239303E+0	1.200014E+0	1.159749E+0	1.151141E+0	1.148199E+0	1.144050E+0	1.197728E+0	1.146611E+0	1.173643E+0	1.178589E+0	1.182481E+0	1.082232E+0
5.382060E+2	1.476082E+0	1.471114E+0	1.483374E+0	1.426372E+0	1.417914E+0	1.423461E+0	1.394824E+0	1.451589E+0	1.424146E+0	1.355054E+0	1.431311E+0	1.423521E+0	1.475746E+0	1.556086E+0	1.449259E+0	1.410771E+0	1.420563E+0	1.474563E+0	1.465922E+0	1.460059E+0	1.446762E+0	1.450020E+0	1.444922E+0	1.405108E+0	1.405954E+0	1.407014E+0	1.446375E+0	1.458846E+0	1.399330E+0	1.385320E+0	1.429391E+0	1.343402E+0	1.450550E+0	1.414885E+0	1.439617E+0	1.473530E+0	1.449980E+0	1.406137E+0	1.422897E+0	1.403030E+0	1.466507E+0	1.437829E+0	1.365718E+0	1.465655E+0	1.471090E+0	1.465311E+0	1.443651E+0	1.461076E+0	1.445477E+0	1.394287E+0	1.426552E+0	1.469293E+0	1.414188E+0	1.404273E+0	1.370910E+0	1.475382E+0	1.414097E+0	1.449910E+0	1.454671E+0	1.432420E+0	1.392280E+0	1.470709E+0	1.379679E+0	1.387342E+0	1.434579E+0	1.479199E+0	1.411412E+0	1.475676E+0	1.449838E+0	1.356439E+0	1.399873E+0	1.436425E+0	1.448700E+0	1.417917E+0	1.400426E+0	1.442496E+0	1.408264E+0	1.374008E+0	1.455623E+0	1.398216E+0	1.494957E+0	1.463866E+0	1.441203E+0	1.430889E+0	1.454767E+0	1.406239E+0	1.400467E+0	1.344739E+0	1.413804E+0	1.407523E+0	1.421621E+0	1.364789E+0	1.426049E+0	1.336507E+0	1.463120E+0	1.470688E+0	1.454541E+0	1.333470E+0	1.459608E+0	1.385128E+0	1.411248E+0	1.390070E+0	1.364858E+0	1.417735E+0	1.483742E+0	1.398618E+0	1.451879E+0	1.458001E+0	1.445755E+0	1.421768E+0	1.448170E+0	1.373451E+0	1.441545E+0	1.402560E+0	1.399208E+0	1.394629E+0	1.369730E+0	1.375335E+0	1.480426E+0	1.470643E+0	1.442007E+0	1.444126E+0	1.392218E+0	1.429538E+0	1.429460E+0	1.414632E+0	1.364258E+0	1.355482E+0	1.451052E+0	1.426614E+0	1.390511E+0	1.357411E+0	1.381061E+0	1.423399E+0	1.447562E+0	1.401893E+0	1.424542E+0	1.429102E+0	1.386032E+0	1.447176E+0	1.378042E+0	1.314863E+0	1.395189E+0	1.398308E+0	1.470205E+0	1.375487E+0	1.445941E+0	1.421162E+0	1.454227E+0	1.410385E+0	1.461542E+0	1.391308E+0	1.414643E+0	1.388105E+0	1.458192E+0	1.463056E+0	1.428769E+0	1.440082E+0	1.396137E+0	1.397333E+0	1.379041E+0	1.353931E+0	1.417938E+0	1.375569E+0	1.340659E+0	1.390274E+0
5.384110E+2	1.711646E+0	1.721881E+0	1.713579E+0	1.662082E+0	1.685951E+0	1.621095E+0	1.667511E+0	1.676727E+0	1.678569E+0	1.560094E+0	1.693100E+0	1.655653E+0	1.775106E+0	1.727176E+0	1.642225E+0	1.732203E+0	1.684453E+0	1.678772E+0	1.664967E+0	1.704869E+0	1.679382E+0	1.753426E+0	1.619428E+0	1.715151E+0	1.699246E+0	1.646898E+0	1.638428E+0	1.660395E+0	1.590659E+0	1.654791E+0	1.626678E+0	1.687554E+0	1.688479E+0	1.576946E+0	1.660978E+0	1.717643E+0	1.640969E+0	1.728198E+0	1.633100E+0	1.637017E+0	1.709635E+0	1.630775E+0	1.663119E+0	1.625403E+0	1.621077E+0	1.709894E+0	1.618807E+0	1.677048E+0	1.691963E+0	1.634093E+0	1.662817E+0	1.688170E+0	1.743574E+0	1.711620E+0	1.702126E+0	1.619899E+0	1.681361E+0	1.716863E+0	1.670365E+0	1.659606E+0	1.661983E+0	1.726668E+0	1.602662E+0	1.674748E+0	1.680063E+0	1.726440E+0	1.705995E+0	1.694724E+0	1.669208E+0	1.645672E+0	1.670373E+0	1.627281E+0	1.741741E+0	1.671886E+0	1.632979E+0	1.638175E+0	1.684123E+0	1.575708E+0	1.664150E+0	1.697179E+0	1.714829E+0	1.637854E+0	1.726565E+0	1.682895E+0	1.743588E+0	1.681727E+0	1.610131E+0	1.681468E+0	1.678108E+0	1.652722E+0	1.670716E+0	1.640246E+0	1.693599E+0	1.688181E+0	1.659839E+0	1.645690E+0	1.667514E+0	1.610416E+0	1.707511E+0	1.688321E+0	1.665872E+0	1.594369E+0	1.598606E+0	1.692697E+0	1.718708E+0	1.709960E+0	1.728161E+0	1.709066E+0	1.561266E+0	1.664686E+0	1.720038E+0	1.580923E+0	1.716074E+0	1.683255E+0	1.648144E+0	1.719592E+0	1.634884E+0	1.523920E+0	1.628239E+0	1.604866E+0	1.696289E+0	1.661041E+0	1.666945E+0	1.606791E+0	1.629418E+0	1.690713E+0	1.650933E+0	1.595175E+0	1.605883E+0	1.699424E+0	1.675279E+0	1.618780E+0	1.649160E+0	1.644986E+0	1.554775E+0	1.646319E+0	1.570761E+0	1.552277E+0	1.614872E+0	1.714081E+0	1.632991E+0	1.568886E+0	1.679902E+0	1.762819E+0	1.764703E+0	1.503902E+0	1.602041E+0	1.606848E+0	1.687381E+0	1.546276E+0	1.641658E+0	1.709483E+0	1.724576E+0	1.628379E+0	1.663007E+0	1.583211E+0	1.715596E+0	1.639126E+0	1.597956E+0	1.710430E+0	1.639471E+0	1.556815E+0	1.580576E+0	1.541470E+0	1.477122E+0	1.560131E+0
5.386060E+2	1.638616E+0	1.608992E+0	1.607054E+0	1.694880E+0	1.588018E+0	1.550056E+0	1.643187E+0	1.567900E+0	1.611538E+0	1.620487E+0	1.604485E+0	1.658460E+0	1.627324E+0	1.612786E+0	1.600196E+0	1.640009E+0	1.632855E+0	1.659774E+0	1.563582E+0	1.648993E+0	1.563122E+0	1.639351E+0	1.595870E+0	1.587354E+0	1.654255E+0	1.610362E+0	1.557113E+0	1.654212E+0	1.576534E+0	1.601238E+0	1.664935E+0	1.602895E+0	1.607192E+0	1.574363E+0	1.583033E+0	1.718792E+0	1.627076E+0	1.565691E+0	1.519531E+0	1.577663E+0	1.609614E+0	1.652424E+0	1.594926E+0	1.571604E+0	1.559934E+0	1.602705E+0	1.621269E+0	1.624528E+0	1.599802E+0	1.553405E+0	1.633467E+0	1.657375E+0	1.559805E+0	1.578074E+0	1.618785E+0	1.644614E+0	1.615525E+0	1.577656E+0	1.649055E+0	1.602564E+0	1.542927E+0	1.618156E+0	1.594774E+0	1.591784E+0	1.596507E+0	1.648079E+0	1.623519E+0	1.528084E+0	1.630485E+0	1.555501E+0	1.537394E+0	1.559334E+0	1.659887E+0	1.575346E+0	1.600187E+0	1.639142E+0	1.624345E+0	1.574792E+0	1.603476E+0	1.625750E+0	1.633718E+0	1.618758E+0	1.660539E+0	1.610122E+0	1.581485E+0	1.572652E+0	1.537515E+0	1.561509E+0	1.651625E+0	1.616104E+0	1.608824E+0	1.615770E+0	1.681806E+0	1.585810E+0	1.567465E+0	1.614951E+0	1.644661E+0	1.573894E+0	1.695167E+0	1.639249E+0	1.562157E+0	1.514870E+0	1.550427E+0	1.657194E+0	1.605193E+0	1.599524E+0	1.646932E+0	1.668734E+0	1.595545E+0	1.607042E+0	1.615317E+0	1.591780E+0	1.608270E+0	1.570041E+0	1.612168E+0	1.675275E+0	1.568303E+0	1.543148E+0	1.584484E+0	1.582718E+0	1.534513E+0	1.593959E+0	1.583057E+0	1.555359E+0	1.561297E+0	1.588923E+0	1.585624E+0	1.560828E+0	1.535028E+0	1.557957E+0	1.553843E+0	1.605582E+0	1.605907E+0	1.631118E+0	1.572778E+0	1.559858E+0	1.532667E+0	1.476340E+0	1.530645E+0	1.646407E+0	1.530653E+0	1.537702E+0	1.620674E+0	1.557537E+0	1.633495E+0	1.545738E+0	1.545253E+0	1.539957E+0	1.542621E+0	1.531342E+0	1.534001E+0	1.585649E+0	1.600371E+0	1.576661E+0	1.626895E+0	1.576958E+0	1.613478E+0	1.530200E+0	1.537014E+0	1.583074E+0	1.490347E+0	1.547991E+0	1.631346E+0	1.611941E+0	1.528723E+0	1.557898E+0
5.388120E+2	1.466655E+0	1.443511E+0	1.374208E+0	1.350182E+0	1.392366E+0	1.358774E+0	1.376576E+0	1.423777E+0	1.376396E+0	1.394833E+0	1.410470E+0	1.519791E+0	1.448573E+0	1.437205E+0	1.437134E+0	1.422241E+0	1.443779E+0	1.406433E+0	1.418781E+0	1.409914E+0	1.456069E+0	1.392882E+0	1.331293E+0	1.373359E+0	1.415721E+0	1.394989E+0	1.421108E+0	1.475682E+0	1.396059E+0	1.420109E+0	1.426483E+0	1.429253E+0	1.469169E+0	1.434104E+0	1.401278E+0	1.458492E+0	1.413412E+0	1.388423E+0	1.396975E+0	1.371097E+0	1.398250E+0	1.451349E+0	1.422223E+0	1.388250E+0	1.417410E+0	1.425294E+0	1.378613E+0	1.385150E+0	1.422493E+0	1.460079E+0	1.407865E+0	1.401076E+0	1.409420E+0	1.372321E+0	1.411667E+0	1.469595E+0	1.459577E+0	1.430339E+0	1.424748E+0	1.393207E+0	1.402958E+0	1.431108E+0	1.383409E+0	1.400861E+0	1.369866E+0	1.467370E+0	1.389681E+0	1.439143E+0	1.399134E+0	1.388187E+0	1.458225E+0	1.414478E+0	1.437116E+0	1.433186E+0	1.369436E+0	1.456613E+0	1.428657E+0	1.417138E+0	1.474791E+0	1.394331E+0	1.497917E+0	1.485983E+0	1.372033E+0	1.376293E+0	1.373768E+0	1.393158E+0	1.384732E+0	1.366836E+0	1.437082E+0	1.375595E+0	1.418901E+0	1.468425E+0	1.368886E+0	1.449511E+0	1.458095E+0	1.446015E+0	1.379823E+0	1.311130E+0	1.414469E+0	1.495444E+0	1.437790E+0	1.365036E+0	1.360961E+0	1.429309E+0	1.434443E+0	1.464656E+0	1.379266E+0	1.397541E+0	1.377442E+0	1.412087E+0	1.472919E+0	1.396082E+0	1.347104E+0	1.427165E+0	1.362719E+0	1.397240E+0	1.371359E+0	1.397174E+0	1.449308E+0	1.411723E+0	1.425417E+0	1.351847E+0	1.361265E+0	1.393273E+0	1.343877E+0	1.371047E+0	1.336647E+0	1.367026E+0	1.427038E+0	1.408919E+0	1.408681E+0	1.368595E+0	1.422134E+0	1.295590E+0	1.415907E+0	1.423627E+0	1.403032E+0	1.375058E+0	1.413873E+0	1.375276E+0	1.467991E+0	1.373520E+0	1.338704E+0	1.400379E+0	1.407623E+0	1.355403E+0	1.410928E+0	1.419866E+0	1.387945E+0	1.414657E+0	1.438119E+0	1.450748E+0	1.483982E+0	1.376888E+0	1.408689E+0	1.463482E+0	1.392050E+0	1.373403E+0	1.334270E+0	1.422935E+0	1.405850E+0	1.380320E+0	1.454598E+0	1.324812E+0	1.318836E+0	1.389838E+0
5.390080E+2	1.260782E+0	1.230236E+0	1.272624E+0	1.294041E+0	1.214002E+0	1.225672E+0	1.208021E+0	1.287294E+0	1.211080E+0	1.266814E+0	1.221491E+0	1.238811E+0	1.274543E+0	1.295654E+0	1.203783E+0	1.207894E+0	1.240138E+0	1.223862E+0	1.192257E+0	1.285919E+0	1.272556E+0	1.247491E+0	1.298781E+0	1.208158E+0	1.286115E+0	1.207875E+0	1.228588E+0	1.199311E+0	1.212319E+0	1.277788E+0	1.242492E+0	1.207009E+0	1.253015E+0	1.197687E+0	1.256780E+0	1.238012E+0	1.235898E+0	1.236695E+0	1.220219E+0	1.184325E+0	1.290758E+0	1.279400E+0	1.200530E+0	1.226531E+0	1.218471E+0	1.230788E+0	1.283598E+0	1.281525E+0	1.232701E+0	1.245208E+0	1.227259E+0	1.245864E+0	1.264380E+0	1.224720E+0	1.227192E+0	1.273248E+0	1.200555E+0	1.277581E+0	1.303415E+0	1.231345E+0	1.208474E+0	1.285886E+0	1.225966E+0	1.298591E+0	1.249549E+0	1.233814E+0	1.197682E+0	1.247440E+0	1.239390E+0	1.211597E+0	1.205790E+0	1.249474E+0	1.288488E+0	1.220463E+0	1.279993E+0	1.204698E+0	1.260916E+0	1.169879E+0	1.256443E+0	1.250664E+0	1.299091E+0	1.167019E+0	1.261500E+0	1.285512E+0	1.250276E+0	1.264397E+0	1.200095E+0	1.199673E+0	1.240423E+0	1.228291E+0	1.238004E+0	1.303095E+0	1.212774E+0	1.247233E+0	1.252310E+0	1.250060E+0	1.256483E+0	1.179243E+0	1.283295E+0	1.310674E+0	1.237405E+0	1.215321E+0	1.282123E+0	1.217637E+0	1.222435E+0	1.240558E+0	1.315558E+0	1.257191E+0	1.182580E+0	1.232539E+0	1.277464E+0	1.230966E+0	1.269632E+0	1.231330E+0	1.283836E+0	1.282649E+0	1.182467E+0	1.235694E+0	1.245316E+0	1.279217E+0	1.239524E+0	1.242991E+0	1.190862E+0	1.233184E+0	1.220479E+0	1.238265E+0	1.239281E+0	1.229689E+0	1.240202E+0	1.278210E+0	1.206509E+0	1.247647E+0	1.262695E+0	1.247554E+0	1.153383E+0	1.236282E+0	1.278561E+0	1.207151E+0	1.201423E+0	1.222916E+0	1.237719E+0	1.212057E+0	1.219260E+0	1.249900E+0	1.333441E+0	1.219961E+0	1.207004E+0	1.304057E+0	1.217702E+0	1.244375E+0	1.231299E+0	1.244566E+0	1.317212E+0	1.243118E+0	1.226079E+0	1.252658E+0	1.256733E+0	1.213425E+0	1.176500E+0	1.230398E+0	1.222834E+0	1.189300E+0	1.256762E+0	1.200339E+0	1.184351E+0	1.236012E+0
5.392090E+2	1.108647E+0	1.186525E+0	1.189524E+0	1.073355E+0	1.064621E+0	1.066018E+0	1.150571E+0	1.106270E+0	1.071339E+0	1.101700E+0	1.074927E+0	1.131601E+0	1.156696E+0	1.136416E+0	1.045045E+0	1.098170E+0	1.130411E+0	1.091871E+0	1.109170E+0	1.073255E+0	1.125017E+0	1.145126E+0	1.062155E+0	1.108573E+0	1.121471E+0	1.073018E+0	1.087938E+0	1.121362E+0	1.114392E+0	1.122345E+0	1.034376E+0	1.068728E+0	1.168044E+0	1.092432E+0	1.069656E+0	1.189970E+0	1.104064E+0	1.140540E+0	1.060356E+0	1.116952E+0	1.128181E+0	1.113592E+0	1.056591E+0	1.154764E+0	1.089277E+0	1.130795E+0	1.127775E+0	1.036289E+0	1.150957E+0	1.134981E+0	1.107397E+0	1.077452E+0	1.103112E+0	1.094294E+0	1.086054E+0	1.109993E+0	1.151943E+0	1.081725E+0	1.107748E+0	1.109829E+0	1.071498E+0	1.076290E+0	1.045085E+0	1.046318E+0	1.125607E+0	1.116718E+0	1.102133E+0	1.104719E+0	1.137750E+0	1.076864E+0	1.094768E+0	1.064226E+0	1.144695E+0	1.153926E+0	1.139123E+0	1.076049E+0	1.158701E+0	1.023733E+0	1.118995E+0	1.051875E+0	1.196656E+0	1.159217E+0	1.145329E+0	1.106361E+0	1.149962E+0	1.075437E+0	1.110952E+0	1.124568E+0	1.114174E+0	1.115928E+0	1.034032E+0	1.095034E+0	1.128228E+0	1.161680E+0	1.081314E+0	1.171966E+0	1.120658E+0	1.026174E+0	1.139357E+0	1.131248E+0	1.099896E+0	1.094453E+0	1.158490E+0	1.143795E+0	1.113622E+0	1.106343E+0	1.174976E+0	1.109751E+0	1.100833E+0	1.096848E+0	1.102877E+0	1.085292E+0	1.106279E+0	1.109373E+0	1.186068E+0	1.093776E+0	1.087423E+0	1.039354E+0	1.134916E+0	1.123327E+0	1.088146E+0	1.132925E+0	1.063298E+0	1.086027E+0	1.113945E+0	1.054047E+0	1.088795E+0	1.122598E+0	1.149003E+0	1.130395E+0	1.043619E+0	1.054363E+0	1.120282E+0	1.065304E+0	9.947024E-1	1.115367E+0	1.083628E+0	1.085499E+0	1.056113E+0	1.133878E+0	1.150407E+0	1.009883E+0	1.094041E+0	1.130239E+0	1.126530E+0	1.095502E+0	1.135634E+0	1.141731E+0	1.109515E+0	1.093347E+0	1.108154E+0	1.108417E+0	1.093028E+0	1.091310E+0	1.124596E+0	1.104809E+0	1.126561E+0	1.113202E+0	1.127397E+0	1.098489E+0	1.056455E+0	1.072253E+0	1.103347E+0	1.094848E+0	1.085808E+0	9.291189E-1
5.394100E+2	1.070485E+0	1.042344E+0	1.091832E+0	1.085809E+0	1.034530E+0	1.073143E+0	1.043007E+0	1.062564E+0	1.014671E+0	1.014176E+0	1.074218E+0	1.016248E+0	1.053454E+0	1.129611E+0	1.080880E+0	1.078660E+0	1.053280E+0	1.056036E+0	1.059608E+0	1.079140E+0	1.100139E+0	1.075044E+0	1.078824E+0	1.012406E+0	1.123185E+0	1.039903E+0	1.048351E+0	1.057427E+0	1.037965E+0	1.050678E+0	1.028867E+0	1.042124E+0	1.039806E+0	1.009621E+0	1.070918E+0	1.053905E+0	1.091997E+0	9.811715E-1	1.005978E+0	1.069336E+0	1.061751E+0	1.090430E+0	1.027427E+0	1.046777E+0	1.070929E+0	1.056669E+0	1.086206E+0	1.055929E+0	1.084975E+0	1.042583E+0	1.057547E+0	1.089072E+0	1.106207E+0	1.057102E+0	1.062605E+0	1.053846E+0	1.066829E+0	1.074594E+0	1.083533E+0	1.101025E+0	1.064266E+0	1.038083E+0	1.057828E+0	1.034860E+0	1.123387E+0	1.087111E+0	1.081852E+0	1.087743E+0	1.082777E+0	1.080808E+0	1.088011E+0	1.056247E+0	1.088931E+0	1.070066E+0	1.027319E+0	1.120994E+0	1.154947E+0	1.063550E+0	1.115479E+0	1.010889E+0	1.084564E+0	1.042331E+0	1.045682E+0	1.068048E+0	1.133750E+0	1.042672E+0	1.071294E+0	1.036190E+0	1.025972E+0	1.093468E+0	1.108819E+0	1.075225E+0	1.043428E+0	1.020463E+0	1.080393E+0	1.090988E+0	1.097062E+0	9.953060E-1	1.071477E+0	1.087029E+0	1.048560E+0	1.006386E+0	1.036809E+0	1.068276E+0	1.044175E+0	1.091847E+0	1.114879E+0	1.061451E+0	1.030624E+0	1.045034E+0	1.004776E+0	1.071465E+0	1.099962E+0	1.093649E+0	1.083898E+0	1.098716E+0	1.057876E+0	1.020543E+0	1.077355E+0	1.086272E+0	1.034069E+0	1.094430E+0	1.097032E+0	1.038820E+0	1.105440E+0	1.026210E+0	1.057433E+0	1.019090E+0	1.062159E+0	1.053316E+0	1.081110E+0	1.026614E+0	1.124937E+0	1.042647E+0	1.008046E+0	1.013358E+0	1.077988E+0	1.064423E+0	1.075506E+0	1.081085E+0	1.059942E+0	1.010233E+0	1.075664E+0	1.079997E+0	1.145308E+0	1.035308E+0	1.058653E+0	1.028689E+0	1.022403E+0	1.053038E+0	1.030536E+0	1.051217E+0	1.106043E+0	1.054375E+0	1.109157E+0	1.080710E+0	1.062805E+0	1.100019E+0	1.017275E+0	1.066217E+0	9.852565E-1	1.004107E+0	1.074514E+0	1.036198E+0	1.076467E+0	9.512165E-1
5.396110E+2	9.986005E-1	1.024347E+0	1.031807E+0	1.055896E+0	1.051685E+0	9.832189E-1	1.003932E+0	1.002161E+0	1.025415E+0	9.695044E-1	1.008710E+0	1.029405E+0	1.018316E+0	1.089393E+0	9.702163E-1	9.775585E-1	1.067075E+0	1.020518E+0	1.008483E+0	9.972960E-1	1.047724E+0	1.064232E+0	1.011481E+0	9.853033E-1	1.016697E+0	1.050726E+0	1.001379E+0	1.014523E+0	1.048975E+0	1.038465E+0	1.039522E+0	1.029164E+0	1.041451E+0	1.017267E+0	1.029565E+0	1.033496E+0	1.037574E+0	1.003348E+0	1.035324E+0	9.607995E-1	1.064649E+0	1.030973E+0	1.010612E+0	1.067563E+0	1.076993E+0	1.029860E+0	1.005807E+0	1.076340E+0	1.026873E+0	9.749099E-1	1.017157E+0	1.082614E+0	1.033661E+0	1.019516E+0	1.028624E+0	1.071581E+0	1.045236E+0	1.025702E+0	1.021975E+0	1.066166E+0	9.986792E-1	1.026992E+0	1.021931E+0	9.849091E-1	1.023492E+0	1.060072E+0	1.012045E+0	1.062608E+0	1.057617E+0	1.008075E+0	9.827749E-1	1.057644E+0	1.111121E+0	1.068489E+0	1.081382E+0	1.048645E+0	1.012589E+0	1.040056E+0	1.028169E+0	1.057836E+0	1.097895E+0	1.063228E+0	1.055447E+0	1.049660E+0	1.020031E+0	1.041635E+0	1.005770E+0	1.031695E+0	1.018780E+0	1.024333E+0	9.824015E-1	1.021849E+0	1.063941E+0	1.051508E+0	1.003648E+0	1.034949E+0	1.003924E+0	1.056765E+0	1.049606E+0	1.021776E+0	1.024618E+0	1.022355E+0	1.041972E+0	1.024737E+0	1.020483E+0	1.070807E+0	1.082524E+0	9.690300E-1	1.071915E+0	1.049395E+0	1.033090E+0	1.026202E+0	1.071872E+0	1.061124E+0	1.042307E+0	9.893918E-1	1.047260E+0	9.852719E-1	1.074251E+0	1.057223E+0	1.022097E+0	9.921992E-1	1.033806E+0	1.029193E+0	1.064426E+0	1.052986E+0	9.934330E-1	1.005582E+0	1.038149E+0	1.008088E+0	9.951864E-1	9.762234E-1	1.049904E+0	1.027727E+0	9.969560E-1	1.062180E+0	9.884710E-1	1.039131E+0	1.009034E+0	1.004363E+0	1.032438E+0	1.014485E+0	1.039117E+0	9.882085E-1	1.044876E+0	1.011864E+0	9.910556E-1	1.017195E+0	1.097462E+0	1.039218E+0	1.031388E+0	1.029732E+0	1.062136E+0	1.072570E+0	1.052852E+0	1.053921E+0	1.074107E+0	1.045397E+0	1.029832E+0	1.018586E+0	1.027596E+0	1.007048E+0	1.006676E+0	9.961431E-1	9.526280E-1	9.901664E-1
5.398180E+2	8.020711E-1	7.909335E-1	8.272816E-1	8.218414E-1	7.995242E-1	7.965495E-1	8.543245E-1	8.486657E-1	7.912737E-1	8.248938E-1	8.324759E-1	8.252100E-1	8.346839E-1	8.421372E-1	7.900389E-1	8.076619E-1	8.206750E-1	8.565415E-1	8.282286E-1	7.928100E-1	8.231252E-1	8.168345E-1	8.130709E-1	7.773641E-1	8.257720E-1	7.981697E-1	8.017827E-1	8.214682E-1	8.448305E-1	8.553970E-1	8.643784E-1	7.929024E-1	8.143359E-1	8.047065E-1	8.073453E-1	8.258867E-1	7.913708E-1	8.131309E-1	7.947377E-1	7.768291E-1	8.329853E-1	8.299398E-1	7.720589E-1	8.305728E-1	8.363963E-1	7.852611E-1	8.121438E-1	8.577502E-1	8.642100E-1	8.154126E-1	7.933842E-1	8.389484E-1	8.194809E-1	8.074174E-1	8.187424E-1	8.249621E-1	8.439589E-1	8.442597E-1	7.917868E-1	8.207950E-1	8.096209E-1	8.563476E-1	7.986937E-1	7.576099E-1	7.831341E-1	8.365779E-1	7.743570E-1	7.758441E-1	7.995264E-1	8.534477E-1	8.049718E-1	8.040600E-1	8.637940E-1	7.742506E-1	7.322691E-1	7.722812E-1	8.221533E-1	7.635728E-1	8.412392E-1	8.310647E-1	8.385825E-1	8.438561E-1	8.213608E-1	8.175873E-1	7.894919E-1	7.822068E-1	8.286077E-1	7.924228E-1	8.183372E-1	8.222213E-1	7.943605E-1	7.956293E-1	8.436330E-1	8.120508E-1	8.625603E-1	7.948078E-1	8.437005E-1	7.964231E-1	8.324926E-1	8.195398E-1	7.898565E-1	7.835522E-1	8.298531E-1	8.363199E-1	7.965790E-1	8.236770E-1	8.495041E-1	8.376334E-1	7.765087E-1	8.422969E-1	8.639494E-1	7.914622E-1	8.363724E-1	7.553981E-1	8.037471E-1	8.310382E-1	7.753524E-1	7.573269E-1	8.293683E-1	7.540378E-1	8.230077E-1	8.163192E-1	8.175679E-1	8.177413E-1	8.139953E-1	7.876898E-1	8.088622E-1	8.201024E-1	8.651096E-1	8.035832E-1	8.188274E-1	7.491957E-1	8.340371E-1	7.878201E-1	7.880221E-1	7.856107E-1	7.754878E-1	7.652873E-1	7.890548E-1	9.044231E-1	8.462750E-1	8.280892E-1	7.857819E-1	8.215333E-1	8.464332E-1	7.718740E-1	8.082544E-1	8.273631E-1	7.971404E-1	7.886844E-1	8.346290E-1	8.402740E-1	8.147380E-1	7.699404E-1	8.083874E-1	8.320162E-1	8.094666E-1	8.241682E-1	8.049664E-1	8.052020E-1	8.225666E-1	7.657499E-1	8.020741E-1	7.195909E-1	8.380330E-1	7.753149E-1
5.400140E+2	6.348538E-1	6.990410E-1	7.070277E-1	6.951174E-1	6.882413E-1	6.696642E-1	6.573477E-1	6.639805E-1	6.652823E-1	5.881208E-1	6.752516E-1	7.098183E-1	6.961123E-1	7.031138E-1	6.801492E-1	6.749832E-1	6.914405E-1	7.142842E-1	6.329588E-1	6.875384E-1	7.418575E-1	7.042963E-1	6.400701E-1	6.573599E-1	6.860139E-1	6.490726E-1	7.074924E-1	6.787178E-1	7.324173E-1	6.661355E-1	6.671036E-1	6.779437E-1	6.609511E-1	7.130407E-1	6.776903E-1	7.114754E-1	7.219883E-1	6.643254E-1	6.673717E-1	6.660639E-1	6.395561E-1	6.527161E-1	7.098250E-1	6.983643E-1	7.062115E-1	6.425956E-1	6.683581E-1	6.556236E-1	6.804211E-1	7.066077E-1	6.771214E-1	6.673675E-1	6.998800E-1	7.558873E-1	6.472147E-1	6.588093E-1	6.395126E-1	6.764419E-1	6.654978E-1	6.670621E-1	6.484707E-1	6.944910E-1	6.805750E-1	6.837366E-1	6.828229E-1	6.631756E-1	7.059202E-1	6.512793E-1	7.141054E-1	6.672111E-1	6.560105E-1	6.697568E-1	7.007516E-1	6.400328E-1	6.471389E-1	6.843845E-1	7.199069E-1	6.629902E-1	6.262664E-1	6.126859E-1	6.653460E-1	7.050573E-1	6.874036E-1	7.099311E-1	6.753537E-1	6.814361E-1	6.694401E-1	6.858274E-1	7.068102E-1	6.767154E-1	6.832257E-1	6.647750E-1	6.875545E-1	6.602357E-1	7.590651E-1	7.099526E-1	6.590011E-1	6.675288E-1	7.042337E-1	6.795669E-1	7.054014E-1	7.306597E-1	6.899021E-1	7.315988E-1	6.822350E-1	6.842245E-1	6.814049E-1	6.957650E-1	6.682926E-1	6.853979E-1	6.971456E-1	6.902885E-1	6.896425E-1	6.797052E-1	6.947549E-1	6.564583E-1	6.699848E-1	6.289979E-1	6.622002E-1	7.168284E-1	7.315059E-1	6.928937E-1	6.939471E-1	6.898251E-1	6.645672E-1	7.029730E-1	6.555119E-1	6.495862E-1	6.847771E-1	6.785008E-1	6.887891E-1	6.452466E-1	6.898493E-1	6.603059E-1	6.491711E-1	6.658171E-1	6.516364E-1	6.550274E-1	6.769963E-1	6.963102E-1	6.321852E-1	6.569000E-1	6.257224E-1	6.751286E-1	7.382416E-1	5.961514E-1	6.712338E-1	6.515006E-1	6.696158E-1	6.608455E-1	6.493826E-1	6.987080E-1	7.051238E-1	6.883113E-1	6.447044E-1	6.829152E-1	7.401464E-1	6.565684E-1	7.164534E-1	7.176863E-1	6.688634E-1	6.372665E-1	7.063620E-1	7.190665E-1	6.502764E-1	7.543843E-1
5.402100E+2	5.370134E-1	5.127122E-1	5.415686E-1	5.479824E-1	5.371856E-1	5.022761E-1	5.370160E-1	5.749215E-1	5.431741E-1	5.246800E-1	5.506266E-1	5.614830E-1	5.028509E-1	5.438317E-1	5.719848E-1	5.663886E-1	5.187843E-1	5.247372E-1	5.638101E-1	5.560321E-1	5.342448E-1	5.657532E-1	5.193576E-1	5.254758E-1	5.581297E-1	5.704364E-1	5.469853E-1	5.138240E-1	5.063983E-1	5.767705E-1	5.386826E-1	5.311728E-1	5.135402E-1	5.083563E-1	5.748995E-1	5.309889E-1	5.728722E-1	5.496657E-1	5.605940E-1	5.585888E-1	5.001485E-1	5.071920E-1	5.133881E-1	5.307541E-1	5.253763E-1	5.243513E-1	5.643865E-1	5.364619E-1	5.807183E-1	5.272196E-1	6.102567E-1	5.541370E-1	5.624977E-1	5.714296E-1	5.462661E-1	5.471628E-1	5.447765E-1	5.327202E-1	5.546752E-1	5.312541E-1	5.312585E-1	5.488023E-1	5.505100E-1	5.375944E-1	5.491813E-1	6.012643E-1	5.314098E-1	5.318023E-1	5.352353E-1	5.205985E-1	4.906077E-1	5.198006E-1	5.847835E-1	5.186402E-1	5.124235E-1	5.283681E-1	5.617701E-1	5.519534E-1	5.640728E-1	5.882714E-1	5.758810E-1	5.319330E-1	5.782163E-1	5.518016E-1	5.726288E-1	5.590042E-1	5.441304E-1	5.399013E-1	5.648815E-1	5.087882E-1	5.376250E-1	5.449539E-1	5.446490E-1	5.595222E-1	5.508863E-1	5.537543E-1	5.756417E-1	5.379712E-1	5.614967E-1	5.685979E-1	5.679790E-1	5.073012E-1	5.278796E-1	5.516772E-1	5.229868E-1	5.844632E-1	5.533126E-1	5.180240E-1	5.386389E-1	4.906439E-1	4.958585E-1	5.261904E-1	5.458000E-1	5.302552E-1	5.501724E-1	4.955407E-1	5.517039E-1	5.283288E-1	5.718143E-1	5.413800E-1	5.813164E-1	5.920079E-1	5.237605E-1	5.444791E-1	5.512292E-1	5.840637E-1	5.280628E-1	5.580462E-1	5.677375E-1	5.264385E-1	5.359735E-1	5.197361E-1	5.453787E-1	5.341453E-1	5.142158E-1	5.425747E-1	5.799680E-1	5.089164E-1	5.207363E-1	5.575658E-1	5.929189E-1	5.495408E-1	5.318210E-1	5.575868E-1	5.725618E-1	5.600620E-1	5.787945E-1	5.208604E-1	5.565054E-1	5.811121E-1	5.398891E-1	5.569115E-1	5.550285E-1	5.416833E-1	5.783358E-1	5.544501E-1	5.682854E-1	5.339447E-1	5.554762E-1	5.079556E-1	5.353403E-1	5.175787E-1	4.870197E-1	4.886111E-1	5.658557E-1	5.175377E-1
5.404120E+2	4.898888E-1	4.852064E-1	4.838649E-1	5.144335E-1	5.076195E-1	4.492534E-1	5.083439E-1	4.620529E-1	4.557788E-1	4.768792E-1	4.778699E-1	4.767826E-1	4.802622E-1	5.041235E-1	4.695755E-1	4.930454E-1	4.671072E-1	4.790009E-1	4.614641E-1	4.705644E-1	5.118854E-1	4.961990E-1	5.124941E-1	4.962078E-1	5.283267E-1	4.580181E-1	5.023438E-1	5.220030E-1	4.824872E-1	5.007947E-1	4.717451E-1	4.801700E-1	5.318752E-1	4.776848E-1	4.957545E-1	5.074207E-1	4.988026E-1	4.977003E-1	5.077973E-1	5.101124E-1	4.485625E-1	5.416291E-1	4.916672E-1	4.918372E-1	5.334552E-1	5.514874E-1	4.599160E-1	4.900920E-1	5.085057E-1	4.817547E-1	4.807126E-1	5.001737E-1	5.101773E-1	5.369775E-1	4.790844E-1	5.545979E-1	4.509560E-1	5.469084E-1	4.942452E-1	4.472173E-1	4.842297E-1	4.984631E-1	5.069218E-1	4.636033E-1	5.105047E-1	4.664643E-1	5.134848E-1	4.628882E-1	5.229405E-1	4.633338E-1	5.157186E-1	4.775458E-1	5.026375E-1	5.068164E-1	4.574406E-1	4.820651E-1	5.166799E-1	4.902046E-1	4.721326E-1	5.060797E-1	5.342301E-1	4.875430E-1	4.817974E-1	5.256963E-1	4.938318E-1	4.903768E-1	4.815419E-1	4.888498E-1	4.732309E-1	5.287442E-1	5.017482E-1	5.154889E-1	5.221535E-1	5.360972E-1	5.146621E-1	4.861389E-1	5.167916E-1	4.575402E-1	5.186162E-1	4.534599E-1	4.828222E-1	5.024618E-1	4.572434E-1	4.713251E-1	4.464609E-1	4.765114E-1	4.834988E-1	5.025463E-1	4.914760E-1	5.176336E-1	4.756234E-1	4.886192E-1	4.909124E-1	4.905528E-1	4.771241E-1	4.976928E-1	4.722752E-1	4.652064E-1	4.841485E-1	4.858074E-1	4.919093E-1	4.735132E-1	4.914872E-1	4.442287E-1	4.990657E-1	4.806976E-1	4.839737E-1	4.920312E-1	4.929436E-1	5.133358E-1	4.923574E-1	5.061855E-1	5.134285E-1	4.977124E-1	4.687589E-1	4.650522E-1	4.821288E-1	5.059043E-1	4.677201E-1	4.958391E-1	4.764144E-1	4.827969E-1	4.859258E-1	5.112822E-1	5.006168E-1	5.012750E-1	4.795566E-1	4.976446E-1	4.995109E-1	4.932861E-1	5.032651E-1	5.157804E-1	4.843879E-1	4.854852E-1	4.650302E-1	5.113047E-1	4.699444E-1	4.896172E-1	5.278734E-1	5.061103E-1	5.013026E-1	4.852400E-1	4.851085E-1	5.091299E-1	4.230612E-1	4.144458E-1
5.406090E+2	4.821147E-1	4.540006E-1	4.988584E-1	4.547620E-1	4.504078E-1	4.768550E-1	4.506910E-1	4.743321E-1	4.721335E-1	4.867643E-1	4.616547E-1	4.887079E-1	4.873800E-1	4.884720E-1	4.854428E-1	4.717754E-1	4.658583E-1	4.889237E-1	5.099640E-1	5.295444E-1	4.809396E-1	5.035815E-1	5.080384E-1	4.903947E-1	5.157895E-1	5.010731E-1	4.869336E-1	4.941734E-1	4.844810E-1	4.891958E-1	4.515558E-1	4.444703E-1	5.064471E-1	4.796130E-1	5.295070E-1	4.963193E-1	4.130332E-1	4.946696E-1	5.055869E-1	4.934399E-1	4.923119E-1	4.972033E-1	4.803086E-1	4.840530E-1	4.931272E-1	4.929163E-1	4.815319E-1	4.988571E-1	4.775218E-1	4.804454E-1	5.247716E-1	4.734304E-1	5.074264E-1	4.612875E-1	4.571970E-1	5.092129E-1	4.710425E-1	5.157772E-1	4.808506E-1	4.963618E-1	4.495903E-1	5.066281E-1	4.756805E-1	4.725474E-1	4.344954E-1	4.909023E-1	4.714664E-1	4.590816E-1	4.805243E-1	4.910459E-1	5.171772E-1	4.746125E-1	4.941323E-1	4.773497E-1	4.557983E-1	4.804105E-1	4.549811E-1	4.450708E-1	5.096313E-1	4.478132E-1	5.292709E-1	4.969205E-1	4.754227E-1	4.999326E-1	4.652433E-1	4.867031E-1	4.754427E-1	4.817060E-1	4.929990E-1	4.719680E-1	4.764989E-1	4.649641E-1	5.329966E-1	4.715811E-1	4.693296E-1	5.117133E-1	4.565289E-1	4.638840E-1	5.166445E-1	4.780471E-1	4.661450E-1	4.588015E-1	4.918867E-1	4.783298E-1	5.342244E-1	5.108207E-1	4.563200E-1	5.185758E-1	4.910292E-1	4.643878E-1	4.763109E-1	4.589845E-1	4.900962E-1	4.752480E-1	4.934923E-1	4.829108E-1	4.418271E-1	4.695081E-1	5.212875E-1	4.926225E-1	5.330075E-1	5.061612E-1	4.826145E-1	4.809232E-1	4.830332E-1	4.777823E-1	4.886675E-1	4.831148E-1	4.771806E-1	4.985750E-1	4.936215E-1	4.670325E-1	4.977470E-1	4.976965E-1	4.901703E-1	4.722482E-1	4.871122E-1	4.653980E-1	4.586360E-1	4.575555E-1	4.927273E-1	4.612726E-1	4.776437E-1	5.421469E-1	5.016606E-1	4.626467E-1	4.893484E-1	4.772994E-1	4.995369E-1	4.883922E-1	4.465240E-1	4.827824E-1	4.877896E-1	5.187141E-1	5.301365E-1	4.679241E-1	5.126621E-1	5.057535E-1	4.748076E-1	4.673028E-1	5.043708E-1	4.930231E-1	5.036941E-1	5.264720E-1	5.378039E-1	5.148022E-1
5.408060E+2	4.149880E-1	3.988496E-1	4.509935E-1	4.479128E-1	4.253082E-1	4.536143E-1	4.408826E-1	4.170220E-1	4.101181E-1	4.143005E-1	4.280879E-1	4.149235E-1	4.186588E-1	4.188447E-1	4.113943E-1	4.286299E-1	4.296264E-1	4.137563E-1	4.160530E-1	4.468793E-1	4.358154E-1	4.193710E-1	4.389830E-1	4.591693E-1	4.333516E-1	4.391572E-1	3.746414E-1	3.850607E-1	4.349019E-1	4.394978E-1	4.120991E-1	4.299292E-1	4.910904E-1	4.159536E-1	4.246947E-1	4.424265E-1	4.125473E-1	4.319769E-1	3.634812E-1	3.969044E-1	4.237190E-1	4.310737E-1	4.756862E-1	4.369288E-1	4.377246E-1	4.606121E-1	4.313811E-1	4.420990E-1	4.317416E-1	4.643605E-1	4.417751E-1	4.736489E-1	4.290535E-1	4.759726E-1	4.302721E-1	4.082854E-1	4.705115E-1	4.208603E-1	4.399894E-1	4.039617E-1	4.185137E-1	4.219621E-1	4.520378E-1	4.501960E-1	4.215959E-1	4.404931E-1	4.704554E-1	4.340915E-1	4.137092E-1	3.960191E-1	4.264129E-1	4.065498E-1	4.420845E-1	4.494522E-1	4.369834E-1	4.388613E-1	4.578342E-1	4.271153E-1	4.496864E-1	4.224106E-1	4.521772E-1	4.193346E-1	4.471819E-1	4.097246E-1	4.732855E-1	4.265876E-1	4.105726E-1	4.288045E-1	3.972671E-1	4.594075E-1	4.603920E-1	4.189161E-1	4.289045E-1	4.291050E-1	4.551077E-1	4.548136E-1	4.586126E-1	4.199076E-1	4.230261E-1	4.186967E-1	4.123387E-1	4.230172E-1	4.394205E-1	4.328507E-1	4.492673E-1	4.184084E-1	4.769638E-1	4.127420E-1	4.777868E-1	4.558544E-1	3.846442E-1	3.932018E-1	4.290131E-1	4.618950E-1	4.794880E-1	4.459909E-1	4.274580E-1	4.201773E-1	4.634675E-1	4.514863E-1	4.305110E-1	4.295661E-1	4.488024E-1	4.399620E-1	4.523000E-1	4.566900E-1	4.277742E-1	4.396646E-1	4.475847E-1	4.504390E-1	4.455806E-1	4.131668E-1	4.454858E-1	4.371925E-1	4.051458E-1	4.288475E-1	4.343561E-1	4.239851E-1	4.311288E-1	4.486121E-1	4.378506E-1	4.136534E-1	4.349410E-1	4.407844E-1	4.150253E-1	4.317870E-1	4.125276E-1	4.146197E-1	4.095384E-1	4.296195E-1	4.368749E-1	4.478150E-1	4.623158E-1	4.051831E-1	4.716046E-1	4.424662E-1	4.213374E-1	4.271122E-1	4.219859E-1	4.571143E-1	4.170420E-1	4.257573E-1	4.184710E-1	4.158203E-1	4.475009E-1	3.880163E-1
5.410240E+2	3.423059E-1	3.633762E-1	4.005534E-1	3.513694E-1	3.267228E-1	3.550709E-1	3.543689E-1	3.618843E-1	3.443742E-1	3.403582E-1	3.314649E-1	3.617087E-1	3.672392E-1	3.683245E-1	3.427625E-1	3.550292E-1	3.528967E-1	3.643157E-1	3.551778E-1	3.636556E-1	3.778037E-1	3.402356E-1	3.734670E-1	3.379511E-1	3.594631E-1	3.923675E-1	3.430678E-1	3.567964E-1	3.672664E-1	3.547514E-1	3.646413E-1	3.525238E-1	3.476751E-1	3.501388E-1	3.513318E-1	4.209122E-1	3.589203E-1	3.723349E-1	3.317896E-1	3.931698E-1	3.788117E-1	3.747602E-1	3.795202E-1	3.558745E-1	3.563128E-1	4.183408E-1	3.873522E-1	3.410832E-1	3.855632E-1	3.721718E-1	3.401186E-1	3.744364E-1	3.702172E-1	4.086087E-1	3.517301E-1	3.498552E-1	3.641584E-1	3.444169E-1	3.708453E-1	3.503018E-1	3.396657E-1	3.681026E-1	3.778322E-1	3.754351E-1	3.881540E-1	3.930289E-1	3.294069E-1	4.135216E-1	3.589953E-1	3.920119E-1	3.624161E-1	3.270284E-1	3.769236E-1	3.110907E-1	3.494466E-1	3.930245E-1	3.465403E-1	3.863021E-1	3.686785E-1	3.967137E-1	3.961522E-1	3.831285E-1	3.502739E-1	3.777534E-1	3.957962E-1	3.332324E-1	3.539801E-1	3.439910E-1	3.732100E-1	3.490265E-1	3.588893E-1	3.755647E-1	3.836316E-1	3.758544E-1	3.409252E-1	3.772633E-1	3.571552E-1	3.579961E-1	3.929331E-1	3.409212E-1	3.575197E-1	3.319436E-1	3.487349E-1	4.001878E-1	3.405713E-1	3.806895E-1	3.777751E-1	3.576661E-1	3.530440E-1	3.428095E-1	3.436797E-1	3.427764E-1	3.593176E-1	3.566409E-1	3.651352E-1	3.483834E-1	3.645370E-1	3.484599E-1	4.077141E-1	3.837530E-1	3.550097E-1	3.888931E-1	3.419715E-1	3.843704E-1	3.706804E-1	3.760149E-1	3.355659E-1	3.318674E-1	3.670500E-1	3.438969E-1	3.643969E-1	3.458246E-1	3.983096E-1	4.083356E-1	3.580415E-1	3.505657E-1	3.669888E-1	3.728206E-1	3.599619E-1	4.095599E-1	3.808556E-1	3.950298E-1	3.915915E-1	3.563261E-1	3.840607E-1	3.564313E-1	3.690994E-1	3.933831E-1	3.777664E-1	3.575255E-1	3.706275E-1	3.627970E-1	3.524154E-1	3.963117E-1	3.576750E-1	3.572954E-1	3.524387E-1	3.606929E-1	3.948490E-1	3.503144E-1	3.644100E-1	3.645209E-1	3.494690E-1	3.802798E-1	3.323211E-1	3.808495E-1
5.415040E+2	3.793799E-1	3.768774E-1	3.904203E-1	4.021810E-1	3.862928E-1	4.018604E-1	3.785788E-1	3.364115E-1	3.528474E-1	3.941604E-1	3.741134E-1	3.575450E-1	4.257322E-1	3.813970E-1	3.556182E-1	3.893447E-1	3.709742E-1	3.896697E-1	3.836798E-1	3.869217E-1	3.598809E-1	3.888692E-1	3.918186E-1	3.792295E-1	3.727313E-1	3.579873E-1	3.652842E-1	4.056561E-1	3.865381E-1	3.393594E-1	3.648494E-1	3.809338E-1	3.383959E-1	3.571414E-1	3.966327E-1	4.028448E-1	3.955630E-1	3.600399E-1	3.659981E-1	3.629138E-1	3.744245E-1	3.526859E-1	3.690148E-1	3.505512E-1	3.711886E-1	3.921117E-1	3.659982E-1	3.644295E-1	3.862132E-1	4.078996E-1	3.714374E-1	3.706578E-1	3.554772E-1	3.527871E-1	3.902978E-1	3.788011E-1	4.140028E-1	3.717754E-1	3.947037E-1	3.537627E-1	3.851702E-1	3.972314E-1	3.654907E-1	3.773417E-1	3.999997E-1	3.794008E-1	3.402143E-1	4.023788E-1	3.854732E-1	3.679489E-1	3.661344E-1	3.732564E-1	3.838322E-1	3.478153E-1	3.710927E-1	3.600491E-1	3.673899E-1	3.517485E-1	3.693482E-1	3.708617E-1	3.411004E-1	4.055424E-1	3.985703E-1	3.794109E-1	3.907906E-1	3.544355E-1	3.638517E-1	3.569397E-1	3.647707E-1	3.743440E-1	3.308779E-1	3.590707E-1	3.793004E-1	3.632351E-1	3.266756E-1	4.237704E-1	3.442032E-1	3.523279E-1	4.075152E-1	3.932418E-1	3.935093E-1	3.928639E-1	3.809107E-1	3.810699E-1	3.970720E-1	3.876111E-1	4.186431E-1	4.013267E-1	3.630425E-1	3.582588E-1	3.923951E-1	3.611384E-1	3.572084E-1	3.372005E-1	3.931766E-1	3.511713E-1	4.174639E-1	3.957028E-1	3.769351E-1	4.078616E-1	3.495055E-1	4.021272E-1	3.827693E-1	3.615979E-1	3.756802E-1	4.147324E-1	3.622564E-1	3.845167E-1	3.705367E-1	3.763391E-1	3.926529E-1	3.736312E-1	3.797864E-1	3.695480E-1	3.997092E-1	3.644647E-1	3.728309E-1	4.057382E-1	3.620077E-1	3.711588E-1	3.794321E-1	3.649199E-1	3.678155E-1	3.741367E-1	3.682136E-1	3.876674E-1	3.528191E-1	4.082174E-1	3.683215E-1	3.769948E-1	3.853176E-1	4.061520E-1	3.953367E-1	3.817964E-1	3.678508E-1	3.585949E-1	3.594286E-1	3.560249E-1	3.860668E-1	3.919249E-1	3.424217E-1	3.914025E-1	3.949823E-1	3.738568E-1	3.792489E-1	3.969621E-1
5.420110E+2	4.630084E-1	4.872898E-1	5.037237E-1	4.953469E-1	4.993313E-1	4.433219E-1	4.863662E-1	4.982493E-1	4.515035E-1	4.522418E-1	4.782163E-1	4.910124E-1	4.845991E-1	5.036547E-1	4.837270E-1	4.895111E-1	4.781971E-1	4.908482E-1	4.800433E-1	4.906925E-1	4.885963E-1	4.608202E-1	4.974629E-1	4.586741E-1	5.060407E-1	4.725918E-1	4.991124E-1	5.014528E-1	4.944862E-1	5.022372E-1	4.692426E-1	4.823753E-1	4.781669E-1	4.483730E-1	5.127853E-1	5.142578E-1	5.001193E-1	4.838924E-1	4.604186E-1	4.821552E-1	5.051037E-1	5.318763E-1	4.892306E-1	4.327497E-1	4.825666E-1	4.788379E-1	4.826118E-1	4.718231E-1	4.700128E-1	4.980174E-1	4.903959E-1	4.738333E-1	5.340715E-1	5.047813E-1	4.837128E-1	4.741432E-1	4.719954E-1	4.644834E-1	4.808537E-1	4.526601E-1	4.645686E-1	5.100436E-1	4.618204E-1	4.542629E-1	4.872362E-1	4.893752E-1	5.009573E-1	5.190609E-1	4.944064E-1	4.930791E-1	5.105801E-1	4.372609E-1	4.780209E-1	4.786175E-1	4.698928E-1	4.856143E-1	4.569539E-1	4.968418E-1	4.851747E-1	4.630443E-1	4.958796E-1	5.051204E-1	4.385152E-1	4.952242E-1	5.121355E-1	5.016549E-1	4.814491E-1	4.894291E-1	5.136641E-1	4.673027E-1	5.165529E-1	4.990085E-1	4.349301E-1	4.872497E-1	5.013468E-1	5.268431E-1	5.044986E-1	4.513836E-1	5.009000E-1	4.839631E-1	4.698763E-1	4.861535E-1	5.054111E-1	5.123884E-1	4.785450E-1	5.150334E-1	4.913691E-1	5.269882E-1	4.678312E-1	5.023915E-1	4.997595E-1	5.016070E-1	4.854288E-1	4.734356E-1	5.034450E-1	4.942085E-1	5.194143E-1	5.204449E-1	4.862608E-1	5.069640E-1	5.074690E-1	5.142043E-1	4.924754E-1	5.060557E-1	4.965548E-1	5.326878E-1	4.723689E-1	4.870414E-1	4.862774E-1	5.110958E-1	5.173809E-1	4.883483E-1	5.211421E-1	4.631175E-1	4.637842E-1	5.109074E-1	5.129472E-1	4.876288E-1	4.724416E-1	4.935125E-1	4.944052E-1	4.647310E-1	4.806296E-1	4.844277E-1	5.332034E-1	4.661379E-1	5.157096E-1	4.825578E-1	4.871170E-1	4.742177E-1	5.133167E-1	5.070154E-1	4.939597E-1	5.138106E-1	5.017866E-1	4.849366E-1	4.636611E-1	4.675250E-1	4.891137E-1	4.860952E-1	5.147433E-1	5.005503E-1	4.664121E-1	4.835078E-1	4.664336E-1	5.494556E-1
5.425080E+2	6.421340E-1	6.709942E-1	7.031967E-1	6.498677E-1	6.678682E-1	6.604136E-1	7.094718E-1	6.896906E-1	6.415691E-1	6.683225E-1	6.793123E-1	7.012513E-1	6.457417E-1	6.711576E-1	6.464634E-1	7.232923E-1	6.613124E-1	6.505304E-1	6.731949E-1	6.918222E-1	6.854386E-1	6.979779E-1	7.096890E-1	6.653099E-1	6.622774E-1	6.857963E-1	6.702825E-1	6.470022E-1	6.524188E-1	7.019581E-1	6.668309E-1	6.763977E-1	6.562032E-1	6.708236E-1	6.620313E-1	7.439673E-1	6.691859E-1	6.551128E-1	6.443525E-1	6.881882E-1	6.797937E-1	6.789724E-1	6.496396E-1	6.561191E-1	6.561277E-1	6.805632E-1	6.858014E-1	6.927297E-1	6.487832E-1	6.334886E-1	6.880987E-1	6.917224E-1	6.718697E-1	6.621760E-1	6.691528E-1	6.912864E-1	6.444402E-1	6.875065E-1	6.260470E-1	6.904246E-1	6.257332E-1	6.857143E-1	6.503822E-1	6.693173E-1	7.054853E-1	6.881215E-1	7.039956E-1	6.852125E-1	7.146315E-1	6.248847E-1	6.800199E-1	6.427387E-1	6.895552E-1	6.959590E-1	6.656603E-1	6.173122E-1	6.844534E-1	6.389606E-1	7.094202E-1	6.978041E-1	7.127646E-1	6.988874E-1	6.802565E-1	6.891240E-1	7.061428E-1	6.322330E-1	6.533337E-1	6.741192E-1	7.108629E-1	6.572761E-1	6.851760E-1	6.682228E-1	7.005704E-1	6.901146E-1	6.821871E-1	7.027937E-1	6.875480E-1	6.067453E-1	6.537110E-1	6.605439E-1	6.999754E-1	6.988966E-1	6.880477E-1	6.448997E-1	6.997125E-1	6.564545E-1	6.828311E-1	6.794040E-1	6.624972E-1	6.814498E-1	6.493766E-1	6.598814E-1	6.749491E-1	6.566556E-1	7.338348E-1	6.637817E-1	6.409724E-1	6.986661E-1	6.717780E-1	6.280444E-1	6.641576E-1	6.654185E-1	6.667650E-1	6.740038E-1	6.366060E-1	6.700358E-1	6.884350E-1	6.664940E-1	6.812891E-1	6.573538E-1	6.784575E-1	6.513804E-1	7.336054E-1	6.552775E-1	6.592251E-1	6.799282E-1	6.800226E-1	6.330443E-1	6.747763E-1	7.005688E-1	6.577323E-1	6.381859E-1	6.793269E-1	6.441250E-1	7.365726E-1	6.495094E-1	6.387096E-1	6.573590E-1	6.591880E-1	6.821429E-1	7.453978E-1	7.129266E-1	6.738953E-1	6.786912E-1	6.529330E-1	6.496424E-1	6.669418E-1	7.193186E-1	6.743436E-1	6.871986E-1	6.575776E-1	6.427752E-1	6.880831E-1	6.321073E-1	5.792540E-1	7.500464E-1
5.430120E+2	9.018620E-1	9.280360E-1	9.255497E-1	9.143674E-1	8.735153E-1	8.525346E-1	9.150836E-1	9.729917E-1	8.692180E-1	8.574720E-1	9.050569E-1	9.224772E-1	9.292960E-1	9.388648E-1	8.589864E-1	8.954112E-1	8.887066E-1	9.185819E-1	9.688820E-1	8.635319E-1	9.073926E-1	9.147627E-1	9.145265E-1	9.016738E-1	9.259040E-1	8.731284E-1	9.118291E-1	8.987154E-1	8.750291E-1	9.174454E-1	9.283548E-1	8.917508E-1	9.030764E-1	8.929614E-1	9.512973E-1	9.433175E-1	9.264037E-1	8.745742E-1	9.414224E-1	9.267932E-1	9.207560E-1	9.673709E-1	8.913316E-1	9.175983E-1	9.059710E-1	8.760790E-1	9.557410E-1	9.062805E-1	8.724514E-1	8.938551E-1	8.933335E-1	9.176269E-1	9.218954E-1	9.192945E-1	8.939390E-1	9.265194E-1	8.787759E-1	8.905133E-1	9.626875E-1	8.713585E-1	7.824410E-1	9.401032E-1	9.277907E-1	8.758264E-1	8.777311E-1	9.190263E-1	8.944414E-1	9.227757E-1	8.825027E-1	8.674566E-1	8.850223E-1	8.862878E-1	9.208901E-1	8.575884E-1	8.822987E-1	9.299800E-1	9.263649E-1	8.755465E-1	8.776405E-1	9.060619E-1	9.464692E-1	9.390246E-1	8.920153E-1	9.085012E-1	9.239427E-1	8.887505E-1	9.137893E-1	9.047843E-1	9.261262E-1	9.244334E-1	8.938259E-1	9.126292E-1	8.763307E-1	8.850779E-1	8.904614E-1	9.350212E-1	9.626606E-1	8.910483E-1	9.564457E-1	9.277351E-1	8.672791E-1	8.806543E-1	8.914386E-1	8.754899E-1	9.015717E-1	9.461716E-1	9.498990E-1	8.990803E-1	8.554412E-1	9.322832E-1	9.239374E-1	9.024938E-1	9.715743E-1	8.930444E-1	9.385812E-1	9.187001E-1	8.555758E-1	9.242459E-1	9.140282E-1	9.164049E-1	8.816835E-1	9.590029E-1	8.829516E-1	9.389532E-1	9.162247E-1	8.940520E-1	8.695171E-1	8.946496E-1	9.341380E-1	9.021295E-1	9.408053E-1	8.810615E-1	9.247207E-1	9.114407E-1	8.951399E-1	8.568195E-1	9.391828E-1	8.808255E-1	8.725416E-1	9.322548E-1	8.907559E-1	9.113014E-1	9.201209E-1	9.226989E-1	9.439546E-1	9.002478E-1	9.467898E-1	9.057634E-1	9.333405E-1	8.874859E-1	9.083328E-1	9.240189E-1	9.138153E-1	9.440236E-1	9.028836E-1	9.386540E-1	8.409614E-1	9.048078E-1	8.602282E-1	9.347679E-1	8.852953E-1	8.569624E-1	9.133146E-1	9.383749E-1	9.290878E-1	9.015056E-1
5.435330E+2	9.296990E-1	9.512660E-1	9.540821E-1	9.605980E-1	9.576368E-1	9.538655E-1	9.726022E-1	9.921834E-1	9.251646E-1	9.535858E-1	9.371203E-1	1.020004E+0	9.806378E-1	1.001510E+0	9.307788E-1	9.849212E-1	9.867311E-1	9.494605E-1	9.349120E-1	9.486691E-1	1.005545E+0	9.940530E-1	9.952760E-1	9.344152E-1	1.033831E+0	9.459628E-1	9.348557E-1	9.928324E-1	9.413213E-1	9.251966E-1	9.697686E-1	9.188298E-1	1.000189E+0	9.643379E-1	1.006718E+0	9.830736E-1	1.016378E+0	9.521275E-1	9.739514E-1	9.250753E-1	9.905161E-1	1.008891E+0	9.629995E-1	9.750685E-1	9.788325E-1	1.017957E+0	1.018073E+0	9.947411E-1	1.022737E+0	9.663865E-1	9.653036E-1	1.010759E+0	9.814729E-1	9.497690E-1	9.471781E-1	9.979697E-1	9.437742E-1	9.485934E-1	9.940408E-1	9.810543E-1	9.634105E-1	9.513354E-1	9.705448E-1	9.107705E-1	9.089341E-1	9.901469E-1	9.834958E-1	1.008039E+0	9.898767E-1	9.697313E-1	9.679328E-1	9.697127E-1	9.645633E-1	9.528704E-1	9.095728E-1	9.773580E-1	1.029980E+0	9.705915E-1	9.593224E-1	9.722105E-1	9.828098E-1	1.007412E+0	1.029300E+0	9.500766E-1	1.004577E+0	9.914754E-1	9.303556E-1	9.337623E-1	9.895824E-1	9.655850E-1	1.007248E+0	9.305048E-1	9.922174E-1	9.808655E-1	1.017947E+0	1.046935E+0	9.907782E-1	9.525254E-1	9.619608E-1	9.880261E-1	9.603274E-1	9.589057E-1	9.521207E-1	1.008027E+0	1.024638E+0	1.047646E+0	9.512006E-1	1.010855E+0	9.605784E-1	9.315531E-1	9.277473E-1	9.661778E-1	9.651135E-1	9.973959E-1	9.603764E-1	1.020550E+0	9.751113E-1	9.343777E-1	1.038722E+0	9.364008E-1	9.424255E-1	9.599677E-1	9.969550E-1	9.587437E-1	9.916823E-1	9.871364E-1	9.467246E-1	9.818614E-1	9.207487E-1	9.663681E-1	1.014793E+0	9.363317E-1	1.001552E+0	9.221678E-1	9.955541E-1	9.532260E-1	9.575806E-1	9.030911E-1	9.600578E-1	9.519376E-1	1.024180E+0	9.167831E-1	9.828787E-1	9.605502E-1	9.825302E-1	9.039357E-1	1.005408E+0	9.847811E-1	1.013382E+0	9.078814E-1	9.601579E-1	9.547603E-1	1.019868E+0	9.322361E-1	9.313630E-1	9.511726E-1	9.698480E-1	9.058699E-1	1.002535E+0	1.008716E+0	1.029663E+0	9.247235E-1	9.972314E-1	9.990023E-1	8.885895E-1	9.508810E-1
5.440170E+2	9.156154E-1	8.929786E-1	9.843201E-1	9.658389E-1	9.959801E-1	9.004015E-1	8.950483E-1	9.594529E-1	9.540994E-1	9.143502E-1	9.204366E-1	9.648447E-1	9.399350E-1	9.446891E-1	9.029016E-1	9.146068E-1	9.647868E-1	9.577175E-1	9.468641E-1	9.560080E-1	9.814872E-1	9.737319E-1	1.014107E+0	1.006362E+0	9.779001E-1	9.310744E-1	9.953253E-1	9.572850E-1	1.015606E+0	9.496290E-1	9.290290E-1	9.306802E-1	9.568534E-1	9.728363E-1	9.302788E-1	1.036642E+0	9.755357E-1	9.315676E-1	9.239607E-1	9.656001E-1	9.321274E-1	9.906873E-1	9.233642E-1	9.561667E-1	9.520187E-1	9.832313E-1	1.008208E+0	9.302756E-1	9.871944E-1	9.629570E-1	9.606758E-1	9.674337E-1	9.739371E-1	9.492795E-1	9.008244E-1	9.390961E-1	9.929768E-1	9.294608E-1	1.006454E+0	9.659187E-1	9.403892E-1	9.790462E-1	9.502195E-1	9.272795E-1	9.291393E-1	9.837622E-1	9.369380E-1	9.739732E-1	9.767234E-1	9.378838E-1	9.862684E-1	9.579471E-1	1.026387E+0	9.079645E-1	9.209938E-1	9.640591E-1	9.739611E-1	9.371459E-1	9.696437E-1	9.702996E-1	9.456763E-1	1.023323E+0	1.016072E+0	9.691754E-1	9.880862E-1	9.164005E-1	9.762559E-1	9.300444E-1	9.244729E-1	1.009420E+0	1.022264E+0	9.204390E-1	9.624073E-1	9.479025E-1	1.050131E+0	9.874383E-1	9.752540E-1	9.230915E-1	1.015922E+0	9.825700E-1	1.011039E+0	9.553342E-1	9.893869E-1	9.816228E-1	9.844538E-1	9.718182E-1	9.947799E-1	9.956645E-1	9.807613E-1	9.272988E-1	9.211601E-1	9.449902E-1	9.970731E-1	1.003347E+0	9.621997E-1	9.837183E-1	9.299345E-1	9.404701E-1	9.822487E-1	9.404290E-1	9.752431E-1	9.493122E-1	9.712183E-1	8.810589E-1	9.627639E-1	9.229414E-1	9.683362E-1	9.318294E-1	9.685480E-1	9.034954E-1	9.733649E-1	9.994943E-1	9.843273E-1	9.650045E-1	9.452089E-1	9.340432E-1	9.920833E-1	9.108049E-1	9.829480E-1	9.602593E-1	9.658543E-1	9.264042E-1	9.220430E-1	9.445448E-1	9.788213E-1	8.751152E-1	9.985352E-1	9.304314E-1	9.290304E-1	9.594767E-1	9.273379E-1	9.497756E-1	9.843708E-1	9.220242E-1	1.003037E+0	9.879947E-1	9.987032E-1	9.235529E-1	9.590215E-1	9.530542E-1	9.595789E-1	9.428841E-1	1.013335E+0	9.821514E-1	9.705088E-1	1.050566E+0
5.445020E+2	9.704379E-1	9.673593E-1	9.021228E-1	9.313625E-1	8.840151E-1	9.263158E-1	8.983347E-1	9.161294E-1	9.275380E-1	8.864237E-1	9.043341E-1	9.250793E-1	9.139188E-1	9.045963E-1	8.943602E-1	9.682619E-1	8.837955E-1	8.470554E-1	9.116175E-1	8.903826E-1	9.306961E-1	8.660323E-1	9.321021E-1	9.309304E-1	9.397687E-1	9.516131E-1	9.128973E-1	9.116813E-1	9.003929E-1	9.477828E-1	9.239645E-1	9.242957E-1	9.175760E-1	9.109104E-1	8.991006E-1	9.339908E-1	9.114954E-1	9.499673E-1	9.144359E-1	9.158839E-1	9.703101E-1	9.425214E-1	9.090376E-1	9.285557E-1	9.410406E-1	8.861272E-1	9.369780E-1	9.613953E-1	9.185994E-1	9.191110E-1	8.710044E-1	9.031866E-1	9.145683E-1	9.176121E-1	9.136802E-1	9.294016E-1	9.315194E-1	1.024017E+0	9.549526E-1	9.187607E-1	8.871931E-1	9.171642E-1	9.069854E-1	9.318061E-1	8.848976E-1	9.218862E-1	9.456621E-1	9.359018E-1	9.351050E-1	8.589345E-1	8.959656E-1	8.721709E-1	9.861734E-1	9.473720E-1	8.752992E-1	8.992872E-1	8.932747E-1	9.080078E-1	9.362765E-1	9.288928E-1	9.337766E-1	9.434494E-1	9.473647E-1	9.236490E-1	9.446661E-1	9.308247E-1	9.520873E-1	9.068620E-1	9.543424E-1	9.732777E-1	8.985878E-1	9.358362E-1	9.329937E-1	9.312384E-1	9.098845E-1	9.412098E-1	9.321589E-1	9.220951E-1	9.601483E-1	9.749321E-1	9.302140E-1	9.247536E-1	8.688290E-1	9.220717E-1	9.534775E-1	9.160491E-1	9.828118E-1	9.676439E-1	8.919705E-1	9.001211E-1	9.405600E-1	8.695520E-1	9.190613E-1	9.383140E-1	9.657392E-1	9.057917E-1	9.340510E-1	8.742550E-1	9.377585E-1	8.936885E-1	9.670302E-1	9.200872E-1	9.513414E-1	9.104100E-1	8.699913E-1	9.176823E-1	9.281213E-1	9.212617E-1	9.377161E-1	9.361751E-1	9.061299E-1	8.989466E-1	9.811785E-1	9.081811E-1	9.312897E-1	9.523826E-1	9.251449E-1	9.231096E-1	9.620029E-1	9.321566E-1	9.242030E-1	8.966606E-1	9.225644E-1	9.086906E-1	9.915543E-1	8.700704E-1	9.520060E-1	9.073230E-1	9.394368E-1	8.741249E-1	9.183137E-1	8.921638E-1	8.958569E-1	9.596462E-1	9.423411E-1	9.174035E-1	8.852870E-1	9.295948E-1	9.468251E-1	9.564152E-1	9.315934E-1	9.581103E-1	9.423755E-1	9.179765E-1	9.401468E-1	1.003549E+0
5.450090E+2	8.419840E-1	8.932447E-1	9.185729E-1	8.671181E-1	9.018052E-1	8.200305E-1	9.241911E-1	8.916962E-1	8.940440E-1	8.618585E-1	9.295733E-1	8.776587E-1	9.046158E-1	8.690207E-1	8.662703E-1	8.819820E-1	8.408377E-1	8.988697E-1	9.097607E-1	8.803633E-1	9.400372E-1	8.698181E-1	9.008674E-1	8.808664E-1	9.126082E-1	8.696790E-1	8.960110E-1	8.882422E-1	8.821176E-1	9.102023E-1	9.473072E-1	8.944938E-1	9.429193E-1	8.836422E-1	8.712369E-1	9.540307E-1	9.036290E-1	8.597221E-1	8.764642E-1	9.110925E-1	8.440608E-1	8.942922E-1	8.878433E-1	8.987450E-1	9.366294E-1	9.190252E-1	9.428148E-1	8.731816E-1	9.524026E-1	8.308642E-1	9.218028E-1	9.225716E-1	9.192240E-1	9.006929E-1	9.029185E-1	9.103074E-1	8.806730E-1	8.820737E-1	9.528142E-1	9.338454E-1	8.924910E-1	8.658162E-1	8.961626E-1	8.017989E-1	9.030963E-1	8.915585E-1	9.234239E-1	8.948070E-1	8.865611E-1	9.059483E-1	9.312206E-1	8.801392E-1	9.615904E-1	8.932519E-1	8.780766E-1	9.015862E-1	9.711094E-1	8.379737E-1	8.876632E-1	8.934894E-1	9.112192E-1	9.012502E-1	9.439685E-1	8.877895E-1	9.024272E-1	8.334865E-1	8.454942E-1	9.422329E-1	8.849830E-1	9.371723E-1	8.675114E-1	8.660966E-1	8.349951E-1	9.133457E-1	8.928247E-1	8.961057E-1	8.591779E-1	9.025855E-1	9.124479E-1	9.745413E-1	8.855015E-1	8.731021E-1	8.458091E-1	8.631437E-1	8.878906E-1	9.121626E-1	8.495439E-1	9.323980E-1	8.991662E-1	8.799209E-1	9.098509E-1	8.882085E-1	8.704614E-1	9.133328E-1	9.703453E-1	8.815900E-1	8.528786E-1	8.701423E-1	8.746866E-1	8.916199E-1	9.121798E-1	8.956558E-1	9.089952E-1	9.437612E-1	9.240237E-1	9.116857E-1	8.616097E-1	8.795264E-1	9.181040E-1	8.928206E-1	8.976376E-1	8.968490E-1	9.073447E-1	9.110710E-1	8.509119E-1	8.481202E-1	9.128502E-1	8.443197E-1	9.709624E-1	9.293447E-1	9.106944E-1	8.678278E-1	9.077179E-1	8.835236E-1	9.513306E-1	8.344251E-1	8.515194E-1	8.864000E-1	9.410580E-1	8.798803E-1	8.855163E-1	8.814697E-1	8.697895E-1	8.328090E-1	9.141217E-1	8.991038E-1	8.991069E-1	8.656380E-1	8.962535E-1	8.194722E-1	8.586117E-1	8.717912E-1	8.248373E-1	8.485247E-1	8.279597E-1	8.943185E-1
5.455130E+2	8.756365E-1	9.869966E-1	8.987199E-1	8.660474E-1	8.745007E-1	8.783713E-1	9.006769E-1	8.939176E-1	9.071986E-1	8.729997E-1	8.698680E-1	8.851345E-1	9.343261E-1	9.311373E-1	8.612647E-1	9.084418E-1	8.351396E-1	8.927625E-1	8.847157E-1	8.917879E-1	9.551311E-1	9.118834E-1	9.237383E-1	8.614442E-1	9.502506E-1	8.714381E-1	8.594119E-1	8.847798E-1	8.386695E-1	9.250689E-1	9.120439E-1	8.752789E-1	9.212632E-1	8.784533E-1	8.625498E-1	9.555719E-1	9.036899E-1	8.708825E-1	8.350326E-1	8.404798E-1	8.902482E-1	9.005741E-1	8.698300E-1	9.302260E-1	8.335720E-1	8.837483E-1	9.164490E-1	8.838146E-1	8.679656E-1	8.656225E-1	8.621757E-1	9.526848E-1	8.802218E-1	9.315766E-1	9.217143E-1	9.095633E-1	8.974743E-1	8.571638E-1	9.147413E-1	8.546868E-1	8.887780E-1	9.036860E-1	9.195817E-1	8.923432E-1	9.152460E-1	9.497031E-1	8.582559E-1	9.325861E-1	9.508910E-1	8.652829E-1	9.175270E-1	8.636831E-1	8.972665E-1	8.929080E-1	8.932400E-1	8.949709E-1	8.739530E-1	8.610108E-1	8.981294E-1	9.449373E-1	9.424426E-1	8.802560E-1	9.221393E-1	8.760333E-1	8.730773E-1	8.765859E-1	8.658794E-1	8.785864E-1	8.550748E-1	9.092318E-1	9.067689E-1	8.934625E-1	9.212955E-1	8.908757E-1	9.158638E-1	9.047609E-1	8.760838E-1	8.737680E-1	8.948175E-1	9.274762E-1	8.987133E-1	9.096099E-1	9.000652E-1	9.459925E-1	8.860878E-1	9.425032E-1	9.535924E-1	9.159770E-1	8.709490E-1	8.596961E-1	8.881227E-1	8.695548E-1	8.404251E-1	9.175622E-1	9.066780E-1	8.968071E-1	9.098606E-1	8.556093E-1	8.486220E-1	9.312854E-1	8.613200E-1	9.380244E-1	8.987503E-1	8.262688E-1	9.319829E-1	8.662254E-1	8.659586E-1	8.773389E-1	8.925178E-1	8.556133E-1	8.911670E-1	9.133170E-1	8.865000E-1	8.705561E-1	8.841604E-1	8.568082E-1	8.141153E-1	8.553732E-1	8.645045E-1	8.494405E-1	8.663859E-1	8.342304E-1	9.119363E-1	8.894506E-1	9.149999E-1	8.593960E-1	8.709893E-1	8.835342E-1	9.148177E-1	8.484210E-1	8.629807E-1	8.717780E-1	9.029283E-1	8.813119E-1	9.202698E-1	9.167869E-1	9.185585E-1	8.292779E-1	8.970935E-1	8.376950E-1	8.712689E-1	8.714566E-1	9.479112E-1	8.811915E-1	8.750366E-1	9.462154E-1
5.460060E+2	9.580073E-1	9.619240E-1	9.580949E-1	9.424202E-1	9.431324E-1	8.883312E-1	9.133362E-1	9.647029E-1	9.117709E-1	9.156131E-1	9.454297E-1	9.518529E-1	9.445370E-1	9.452769E-1	8.953842E-1	9.601317E-1	9.102003E-1	9.462104E-1	9.305107E-1	9.146511E-1	9.311593E-1	9.657074E-1	9.743649E-1	9.175088E-1	9.637365E-1	8.957084E-1	9.030864E-1	9.404980E-1	9.338959E-1	9.247229E-1	9.040596E-1	9.205303E-1	8.818445E-1	9.012538E-1	9.733741E-1	1.016457E+0	9.230396E-1	9.621455E-1	9.094492E-1	8.839303E-1	9.299965E-1	9.452109E-1	9.373688E-1	9.325514E-1	9.476764E-1	9.551025E-1	9.546823E-1	9.640418E-1	9.210728E-1	9.259094E-1	9.829802E-1	9.063539E-1	9.155888E-1	9.667571E-1	9.247171E-1	9.607650E-1	9.114736E-1	9.463247E-1	9.648780E-1	9.911691E-1	8.644225E-1	9.558001E-1	9.412530E-1	9.903721E-1	9.773144E-1	1.004575E+0	9.274202E-1	9.121848E-1	9.528525E-1	9.580124E-1	9.477504E-1	9.549170E-1	1.009723E+0	9.578681E-1	9.443133E-1	9.555642E-1	9.774420E-1	9.475650E-1	9.175570E-1	9.919685E-1	9.421370E-1	9.155960E-1	1.014034E+0	9.843691E-1	9.001743E-1	8.945748E-1	9.676690E-1	9.444139E-1	9.352827E-1	9.686164E-1	9.628284E-1	9.836993E-1	9.162360E-1	9.392173E-1	9.533065E-1	9.572877E-1	9.257090E-1	9.036801E-1	1.001374E+0	9.701397E-1	9.413456E-1	9.288180E-1	9.133642E-1	9.136821E-1	9.429450E-1	9.983813E-1	9.453912E-1	1.000307E+0	8.960001E-1	9.463599E-1	9.255957E-1	9.191353E-1	9.403258E-1	9.148105E-1	1.028297E+0	9.442422E-1	9.090831E-1	9.097011E-1	9.617935E-1	9.990550E-1	9.041618E-1	9.444886E-1	9.737549E-1	9.484331E-1	9.331749E-1	9.473932E-1	8.971232E-1	9.318159E-1	9.369375E-1	9.967463E-1	9.435637E-1	9.301010E-1	9.767070E-1	9.376146E-1	8.990459E-1	9.405726E-1	9.996265E-1	8.980640E-1	8.957748E-1	9.567240E-1	9.479437E-1	9.141978E-1	9.902596E-1	9.917478E-1	1.034582E+0	9.257072E-1	9.607531E-1	9.265222E-1	9.603073E-1	9.042251E-1	9.668841E-1	9.359044E-1	9.429089E-1	9.331437E-1	9.517146E-1	9.505975E-1	9.875731E-1	9.351462E-1	9.692026E-1	8.765153E-1	9.137194E-1	8.881901E-1	9.817498E-1	9.263791E-1	9.315169E-1	1.049191E+0
5.465380E+2	8.759849E-1	9.412691E-1	9.198732E-1	8.905235E-1	8.758341E-1	8.485448E-1	8.893790E-1	8.741975E-1	8.685017E-1	8.724712E-1	8.781592E-1	8.876077E-1	8.821056E-1	8.831261E-1	8.401038E-1	8.639125E-1	8.496403E-1	8.965705E-1	9.107172E-1	9.235747E-1	9.066164E-1	8.712814E-1	9.221719E-1	8.422898E-1	9.509100E-1	8.817406E-1	8.836683E-1	9.506148E-1	8.557656E-1	8.825938E-1	8.891917E-1	8.465546E-1	8.997066E-1	8.479667E-1	9.195550E-1	8.819191E-1	9.218354E-1	9.030812E-1	8.816084E-1	8.608918E-1	8.581288E-1	9.461146E-1	9.114949E-1	8.444878E-1	8.524021E-1	8.628699E-1	8.873645E-1	9.064908E-1	8.948129E-1	9.438877E-1	9.255900E-1	8.831507E-1	8.888558E-1	9.357104E-1	9.113306E-1	8.793636E-1	9.193560E-1	8.794478E-1	9.284802E-1	8.861362E-1	8.970199E-1	8.895155E-1	9.179091E-1	8.703368E-1	9.147876E-1	8.730794E-1	9.185313E-1	9.627413E-1	9.206796E-1	9.508900E-1	8.901730E-1	9.040311E-1	9.829364E-1	8.456485E-1	8.888009E-1	8.789574E-1	8.845833E-1	8.540348E-1	8.784058E-1	9.279749E-1	9.534542E-1	8.804685E-1	9.251196E-1	9.454857E-1	9.346859E-1	8.923383E-1	8.906623E-1	8.726842E-1	9.516903E-1	9.016177E-1	8.869123E-1	8.281220E-1	9.114722E-1	8.858547E-1	8.690712E-1	8.874912E-1	8.820756E-1	8.492544E-1	9.025967E-1	9.074266E-1	8.818853E-1	8.701752E-1	9.367821E-1	9.065595E-1	9.364372E-1	8.907823E-1	9.171143E-1	9.401992E-1	9.611744E-1	8.873381E-1	8.878428E-1	8.761172E-1	9.035209E-1	9.077125E-1	8.751037E-1	8.813056E-1	8.458702E-1	8.626857E-1	8.628073E-1	8.829724E-1	8.932699E-1	8.226027E-1	9.208011E-1	9.275121E-1	8.662714E-1	9.124464E-1	8.621278E-1	9.217834E-1	9.276814E-1	8.826736E-1	9.054541E-1	9.056518E-1	9.150172E-1	8.679808E-1	9.051804E-1	8.662728E-1	8.949047E-1	8.718078E-1	8.870308E-1	9.265523E-1	8.586092E-1	8.790482E-1	8.909196E-1	9.253372E-1	9.036656E-1	8.732854E-1	8.731587E-1	8.991514E-1	9.042274E-1	8.741268E-1	9.352788E-1	8.945440E-1	8.667371E-1	9.110540E-1	8.881396E-1	9.378895E-1	9.288700E-1	8.964396E-1	8.999281E-1	8.824945E-1	9.014417E-1	8.558254E-1	8.912665E-1	8.821065E-1	8.656892E-1	9.494508E-1
5.470110E+2	8.938248E-1	8.865681E-1	9.152199E-1	8.768111E-1	9.157275E-1	8.399192E-1	8.985596E-1	8.584507E-1	8.691661E-1	9.056985E-1	8.819903E-1	8.801184E-1	8.994369E-1	9.104531E-1	8.095068E-1	8.273033E-1	8.699701E-1	9.352321E-1	8.890471E-1	9.289299E-1	9.123357E-1	8.870178E-1	8.737159E-1	9.042780E-1	9.626970E-1	8.817145E-1	8.941328E-1	8.573456E-1	8.496899E-1	8.937195E-1	8.308177E-1	8.952192E-1	8.650103E-1	8.984334E-1	8.230356E-1	9.556681E-1	8.884159E-1	8.794173E-1	8.645307E-1	8.653314E-1	9.052876E-1	8.949326E-1	8.985940E-1	8.731136E-1	8.669941E-1	8.869982E-1	9.317723E-1	9.207306E-1	8.766202E-1	8.618790E-1	8.727395E-1	8.944991E-1	9.195283E-1	8.734977E-1	8.959328E-1	8.738392E-1	9.197382E-1	8.751303E-1	9.039480E-1	9.013754E-1	8.889093E-1	9.159015E-1	8.957144E-1	9.114327E-1	9.005833E-1	8.768592E-1	9.046043E-1	9.051891E-1	9.155247E-1	8.566663E-1	8.777558E-1	8.301919E-1	8.969767E-1	8.393439E-1	8.943855E-1	9.009731E-1	9.125106E-1	8.121253E-1	8.974932E-1	9.142744E-1	9.318609E-1	8.928700E-1	8.829929E-1	9.214194E-1	9.082667E-1	9.184993E-1	9.097777E-1	9.071193E-1	8.295493E-1	9.456906E-1	9.070092E-1	9.100997E-1	9.283459E-1	8.772255E-1	8.625939E-1	8.846640E-1	8.493893E-1	8.660267E-1	9.385661E-1	9.249923E-1	8.928063E-1	8.657511E-1	8.447504E-1	8.815380E-1	8.738327E-1	8.364717E-1	8.718457E-1	8.927007E-1	8.742151E-1	8.736486E-1	9.167590E-1	8.659483E-1	8.755163E-1	9.445719E-1	8.777280E-1	9.157845E-1	8.872538E-1	8.281758E-1	8.757869E-1	8.940042E-1	8.585753E-1	8.794366E-1	8.908525E-1	9.011814E-1	8.591693E-1	9.257693E-1	8.334243E-1	8.805703E-1	8.714496E-1	9.048565E-1	9.002597E-1	9.435537E-1	8.959387E-1	9.059014E-1	8.755854E-1	8.474565E-1	9.139041E-1	8.581721E-1	8.673375E-1	9.382569E-1	8.970979E-1	8.458692E-1	8.674702E-1	9.149286E-1	9.019520E-1	7.929801E-1	8.963783E-1	8.791184E-1	8.753823E-1	8.692343E-1	8.549034E-1	8.804268E-1	8.470254E-1	8.944252E-1	9.146007E-1	8.730738E-1	9.235821E-1	8.903578E-1	8.937708E-1	8.664832E-1	8.837526E-1	8.330499E-1	8.669956E-1	8.400919E-1	8.931168E-1	1.027462E+0
5.475070E+2	9.084382E-1	9.390888E-1	1.028226E+0	9.205404E-1	8.945935E-1	9.604180E-1	9.544857E-1	9.814824E-1	9.228557E-1	9.700366E-1	9.286086E-1	9.720877E-1	9.496258E-1	9.631480E-1	9.289211E-1	9.520027E-1	9.524869E-1	9.686060E-1	9.831648E-1	9.798449E-1	9.171038E-1	9.430829E-1	9.222039E-1	9.598102E-1	9.421872E-1	9.023130E-1	9.492289E-1	9.291233E-1	9.349653E-1	9.534974E-1	9.023525E-1	9.265796E-1	9.639608E-1	9.367976E-1	9.414020E-1	9.579920E-1	9.835389E-1	9.446266E-1	9.730489E-1	9.567074E-1	9.771853E-1	9.480369E-1	9.509576E-1	9.020626E-1	9.383037E-1	9.371739E-1	1.004055E+0	9.769645E-1	9.527924E-1	9.656457E-1	9.339576E-1	9.907239E-1	9.351562E-1	9.387219E-1	9.435018E-1	1.001854E+0	9.776967E-1	9.648960E-1	9.865816E-1	9.772190E-1	9.269726E-1	9.521095E-1	9.439323E-1	9.209590E-1	9.772370E-1	9.506194E-1	9.832231E-1	9.201860E-1	9.467029E-1	9.512430E-1	9.639777E-1	9.375870E-1	9.527566E-1	9.154899E-1	9.405877E-1	9.581519E-1	9.800683E-1	9.242116E-1	9.602531E-1	9.551986E-1	1.019284E+0	9.663879E-1	9.497758E-1	9.324798E-1	9.340357E-1	9.330622E-1	9.420256E-1	8.833687E-1	9.456495E-1	9.572596E-1	8.998670E-1	9.346777E-1	1.006324E+0	9.342109E-1	9.479318E-1	9.985504E-1	9.426477E-1	9.252310E-1	9.197355E-1	8.992361E-1	9.171863E-1	9.708055E-1	9.438710E-1	8.955829E-1	9.681238E-1	9.537337E-1	9.409821E-1	9.561303E-1	9.608809E-1	9.795209E-1	9.201773E-1	9.622902E-1	9.365104E-1	1.004666E+0	9.611072E-1	9.415546E-1	9.419842E-1	9.214520E-1	9.762993E-1	9.481167E-1	9.593159E-1	9.714904E-1	9.794767E-1	9.346760E-1	9.710343E-1	9.295949E-1	8.839712E-1	9.824262E-1	9.319288E-1	9.538107E-1	9.377352E-1	9.914237E-1	9.853333E-1	8.914249E-1	9.410221E-1	9.188108E-1	9.303460E-1	9.175625E-1	8.748034E-1	9.613574E-1	9.449767E-1	8.855954E-1	9.180736E-1	9.645171E-1	1.043479E+0	9.191809E-1	9.295242E-1	1.008604E+0	9.438286E-1	9.925855E-1	9.943262E-1	9.403501E-1	9.399319E-1	9.524639E-1	9.405923E-1	9.393726E-1	9.874998E-1	9.168511E-1	9.374862E-1	9.502779E-1	9.603862E-1	9.688692E-1	9.858259E-1	9.549112E-1	1.074833E+0	7.922836E-1
5.480090E+2	1.003205E+0	9.975312E-1	9.965481E-1	1.009241E+0	9.792455E-1	1.000727E+0	1.021024E+0	1.024799E+0	1.004324E+0	9.922747E-1	9.744101E-1	1.027169E+0	9.903683E-1	1.017291E+0	1.004661E+0	1.025538E+0	9.920139E-1	1.005119E+0	1.021724E+0	1.057263E+0	1.019112E+0	1.044069E+0	9.732085E-1	1.015449E+0	1.073367E+0	9.902849E-1	1.052486E+0	1.018791E+0	9.853538E-1	1.002806E+0	1.009112E+0	9.915452E-1	1.027489E+0	9.492245E-1	1.026563E+0	1.011884E+0	9.500074E-1	1.001967E+0	9.871364E-1	9.813629E-1	1.011041E+0	1.039798E+0	9.937087E-1	9.670260E-1	1.042986E+0	9.754853E-1	9.605374E-1	1.033772E+0	1.042596E+0	1.049397E+0	9.939930E-1	1.026769E+0	1.029655E+0	1.020626E+0	1.004833E+0	1.038701E+0	9.775648E-1	9.982785E-1	1.106348E+0	1.025920E+0	1.024912E+0	1.004094E+0	9.638267E-1	1.000588E+0	9.812403E-1	9.927399E-1	1.047411E+0	1.115926E+0	1.057412E+0	9.458394E-1	1.035292E+0	9.575891E-1	1.116729E+0	9.596477E-1	9.887107E-1	9.971278E-1	1.020983E+0	9.799748E-1	1.009574E+0	1.000389E+0	1.019770E+0	1.014216E+0	1.002233E+0	1.003112E+0	9.831169E-1	1.031463E+0	1.016799E+0	9.944631E-1	9.786482E-1	9.797983E-1	1.025893E+0	1.023481E+0	1.057972E+0	9.502698E-1	1.052765E+0	9.826671E-1	1.028190E+0	1.018596E+0	1.003340E+0	1.065158E+0	1.067462E+0	9.781031E-1	9.506198E-1	1.054884E+0	1.039642E+0	1.030343E+0	1.054569E+0	9.910268E-1	1.001145E+0	9.950859E-1	9.727421E-1	9.791356E-1	1.016838E+0	1.056182E+0	1.029473E+0	1.002056E+0	1.038771E+0	9.780146E-1	1.069700E+0	9.720484E-1	9.998818E-1	9.748515E-1	1.036110E+0	9.583269E-1	9.988921E-1	9.951861E-1	9.675066E-1	1.001104E+0	1.068581E+0	1.007735E+0	9.952237E-1	1.000129E+0	1.052727E+0	9.719302E-1	9.820460E-1	1.060821E+0	1.060585E+0	9.911537E-1	1.007527E+0	1.043830E+0	1.039238E+0	1.004671E+0	1.013530E+0	1.066601E+0	1.069364E+0	9.902279E-1	9.729134E-1	1.044934E+0	1.025626E+0	9.964245E-1	1.020529E+0	1.006814E+0	1.012035E+0	9.992933E-1	1.007611E+0	1.061884E+0	1.045547E+0	9.936638E-1	1.018154E+0	1.045408E+0	1.022931E+0	9.580387E-1	1.047529E+0	1.024192E+0	9.597337E-1	1.031191E+0
5.485450E+2	1.195966E+0	1.164120E+0	1.202059E+0	1.220005E+0	1.155807E+0	1.180272E+0	1.161485E+0	1.151386E+0	1.276551E+0	1.211538E+0	1.179720E+0	1.239076E+0	1.272987E+0	1.226822E+0	1.183212E+0	1.178487E+0	1.213818E+0	1.231895E+0	1.186521E+0	1.201949E+0	1.201197E+0	1.202211E+0	1.180864E+0	1.223102E+0	1.250561E+0	1.184375E+0	1.181080E+0	1.204969E+0	1.214907E+0	1.199604E+0	1.226068E+0	1.218456E+0	1.223836E+0	1.155355E+0	1.109735E+0	1.242725E+0	1.141564E+0	1.176412E+0	1.172891E+0	1.164176E+0	1.248443E+0	1.205409E+0	1.187041E+0	1.180282E+0	1.199946E+0	1.136210E+0	1.213390E+0	1.207807E+0	1.213785E+0	1.180999E+0	1.180916E+0	1.252983E+0	1.228363E+0	1.221858E+0	1.156730E+0	1.203019E+0	1.211893E+0	1.198638E+0	1.185903E+0	1.151915E+0	1.136032E+0	1.137797E+0	1.168371E+0	1.262154E+0	1.289475E+0	1.222020E+0	1.209610E+0	1.194289E+0	1.200241E+0	1.242735E+0	1.205259E+0	1.175095E+0	1.200145E+0	1.226402E+0	1.155274E+0	1.265689E+0	1.239942E+0	1.135204E+0	1.201720E+0	1.186763E+0	1.257824E+0	1.232598E+0	1.201308E+0	1.241507E+0	1.256338E+0	1.156788E+0	1.183926E+0	1.206297E+0	1.209949E+0	1.200219E+0	1.196228E+0	1.240191E+0	1.242622E+0	1.243568E+0	1.206186E+0	1.212551E+0	1.210804E+0	1.162127E+0	1.190121E+0	1.202843E+0	1.181744E+0	1.185845E+0	1.171242E+0	1.199111E+0	1.184079E+0	1.210844E+0	1.240168E+0	1.178511E+0	1.184508E+0	1.188444E+0	1.236543E+0	1.202163E+0	1.171155E+0	1.224677E+0	1.170610E+0	1.140247E+0	1.231774E+0	1.223662E+0	1.167186E+0	1.162684E+0	1.204354E+0	1.192684E+0	1.134881E+0	1.209977E+0	1.229984E+0	1.213263E+0	1.099068E+0	1.237743E+0	1.187852E+0	1.199260E+0	1.159290E+0	1.153672E+0	1.211038E+0	1.191434E+0	1.104299E+0	1.180335E+0	1.192932E+0	1.187574E+0	1.146137E+0	1.213993E+0	1.198642E+0	1.130592E+0	1.133820E+0	1.223020E+0	1.217268E+0	1.081977E+0	1.152559E+0	1.157904E+0	1.244008E+0	1.213167E+0	1.213975E+0	1.221676E+0	1.184165E+0	1.172313E+0	1.226977E+0	1.210727E+0	1.177339E+0	1.242352E+0	1.180400E+0	1.188035E+0	1.164256E+0	1.175932E+0	1.216397E+0	1.171981E+0	1.083928E+0	1.262867E+0
5.490490E+2	1.541165E+0	1.507263E+0	1.566164E+0	1.526804E+0	1.511611E+0	1.487198E+0	1.456072E+0	1.488411E+0	1.475000E+0	1.464739E+0	1.444416E+0	1.500005E+0	1.471769E+0	1.509622E+0	1.477951E+0	1.494453E+0	1.469376E+0	1.451566E+0	1.502818E+0	1.476609E+0	1.531797E+0	1.519245E+0	1.493456E+0	1.439393E+0	1.557115E+0	1.488287E+0	1.418063E+0	1.408572E+0	1.462920E+0	1.467827E+0	1.473258E+0	1.474022E+0	1.495801E+0	1.466653E+0	1.431819E+0	1.539025E+0	1.495562E+0	1.427947E+0	1.457595E+0	1.427204E+0	1.554101E+0	1.496314E+0	1.457194E+0	1.517898E+0	1.444152E+0	1.445857E+0	1.531522E+0	1.503914E+0	1.547489E+0	1.479557E+0	1.463257E+0	1.543529E+0	1.543527E+0	1.482837E+0	1.507733E+0	1.469293E+0	1.511563E+0	1.479206E+0	1.524888E+0	1.453431E+0	1.435971E+0	1.493147E+0	1.417914E+0	1.488680E+0	1.533781E+0	1.485888E+0	1.455926E+0	1.449802E+0	1.475768E+0	1.475273E+0	1.462481E+0	1.506565E+0	1.484344E+0	1.440615E+0	1.438145E+0	1.433476E+0	1.504483E+0	1.450448E+0	1.434965E+0	1.470354E+0	1.544324E+0	1.474947E+0	1.473275E+0	1.586526E+0	1.443217E+0	1.470138E+0	1.535088E+0	1.504939E+0	1.467202E+0	1.487522E+0	1.468571E+0	1.499005E+0	1.475365E+0	1.409795E+0	1.513262E+0	1.498470E+0	1.570557E+0	1.436308E+0	1.496262E+0	1.497324E+0	1.489490E+0	1.475763E+0	1.424729E+0	1.511700E+0	1.496634E+0	1.547335E+0	1.512116E+0	1.519634E+0	1.417566E+0	1.458210E+0	1.460401E+0	1.476436E+0	1.529926E+0	1.494019E+0	1.518417E+0	1.478618E+0	1.442344E+0	1.406209E+0	1.482237E+0	1.469004E+0	1.553930E+0	1.467107E+0	1.458780E+0	1.493083E+0	1.495283E+0	1.498181E+0	1.493496E+0	1.430338E+0	1.436357E+0	1.465359E+0	1.489794E+0	1.478993E+0	1.555648E+0	1.439537E+0	1.456298E+0	1.419530E+0	1.462532E+0	1.524389E+0	1.410441E+0	1.457756E+0	1.481818E+0	1.450510E+0	1.384905E+0	1.495401E+0	1.565658E+0	1.333666E+0	1.475730E+0	1.466701E+0	1.519360E+0	1.473214E+0	1.452794E+0	1.465944E+0	1.501108E+0	1.463424E+0	1.514915E+0	1.496225E+0	1.414504E+0	1.491995E+0	1.436605E+0	1.472473E+0	1.435717E+0	1.420956E+0	1.455680E+0	1.470887E+0	1.524182E+0	1.422697E+0
5.495150E+2	1.694050E+0	1.733822E+0	1.746878E+0	1.667674E+0	1.671347E+0	1.575093E+0	1.661079E+0	1.723065E+0	1.646431E+0	1.685415E+0	1.703465E+0	1.645737E+0	1.643680E+0	1.672945E+0	1.660434E+0	1.710825E+0	1.728520E+0	1.665713E+0	1.716339E+0	1.674845E+0	1.745947E+0	1.625914E+0	1.695322E+0	1.619745E+0	1.736649E+0	1.562292E+0	1.651891E+0	1.728361E+0	1.666744E+0	1.713492E+0	1.643837E+0	1.701898E+0	1.736257E+0	1.656116E+0	1.684981E+0	1.726521E+0	1.722649E+0	1.727510E+0	1.650394E+0	1.581913E+0	1.733940E+0	1.753020E+0	1.676056E+0	1.591401E+0	1.679509E+0	1.715948E+0	1.701119E+0	1.707402E+0	1.722964E+0	1.664618E+0	1.699568E+0	1.721622E+0	1.726427E+0	1.691189E+0	1.667148E+0	1.723788E+0	1.737652E+0	1.576339E+0	1.741027E+0	1.719774E+0	1.621555E+0	1.705614E+0	1.622589E+0	1.633153E+0	1.708261E+0	1.641917E+0	1.699519E+0	1.733310E+0	1.749661E+0	1.680372E+0	1.692866E+0	1.597796E+0	1.712824E+0	1.594282E+0	1.663203E+0	1.646743E+0	1.709750E+0	1.648592E+0	1.619823E+0	1.634244E+0	1.753743E+0	1.688860E+0	1.673692E+0	1.717135E+0	1.645940E+0	1.692157E+0	1.686891E+0	1.630551E+0	1.693431E+0	1.610962E+0	1.627392E+0	1.578701E+0	1.683755E+0	1.650398E+0	1.635561E+0	1.626021E+0	1.648387E+0	1.668768E+0	1.762047E+0	1.665770E+0	1.692778E+0	1.630185E+0	1.654869E+0	1.709007E+0	1.701887E+0	1.706164E+0	1.686377E+0	1.647925E+0	1.651328E+0	1.704452E+0	1.686650E+0	1.680652E+0	1.694098E+0	1.732980E+0	1.658971E+0	1.685226E+0	1.663369E+0	1.617908E+0	1.663043E+0	1.696358E+0	1.658179E+0	1.704486E+0	1.644592E+0	1.651949E+0	1.688268E+0	1.652650E+0	1.633075E+0	1.706757E+0	1.653585E+0	1.697598E+0	1.689815E+0	1.596935E+0	1.729815E+0	1.648279E+0	1.626397E+0	1.670592E+0	1.614910E+0	1.674814E+0	1.591979E+0	1.744045E+0	1.651917E+0	1.590609E+0	1.656228E+0	1.688706E+0	1.718989E+0	1.659280E+0	1.690678E+0	1.727869E+0	1.607880E+0	1.643541E+0	1.715961E+0	1.652491E+0	1.619733E+0	1.634518E+0	1.691498E+0	1.617742E+0	1.624351E+0	1.669063E+0	1.544739E+0	1.712928E+0	1.613708E+0	1.601720E+0	1.654457E+0	1.549683E+0	1.527083E+0	1.586583E+0
5.500160E+2	1.504923E+0	1.533066E+0	1.565896E+0	1.493637E+0	1.446466E+0	1.500710E+0	1.522477E+0	1.475202E+0	1.481754E+0	1.534111E+0	1.456360E+0	1.539533E+0	1.541994E+0	1.545836E+0	1.415426E+0	1.527089E+0	1.514856E+0	1.479834E+0	1.533609E+0	1.518252E+0	1.456943E+0	1.522836E+0	1.574665E+0	1.433279E+0	1.545471E+0	1.458993E+0	1.415200E+0	1.465187E+0	1.499860E+0	1.541413E+0	1.479783E+0	1.450643E+0	1.543970E+0	1.462091E+0	1.540855E+0	1.507077E+0	1.515276E+0	1.524478E+0	1.446583E+0	1.479951E+0	1.597346E+0	1.539681E+0	1.469333E+0	1.511052E+0	1.449291E+0	1.444777E+0	1.555489E+0	1.495314E+0	1.512051E+0	1.504849E+0	1.487612E+0	1.505281E+0	1.520262E+0	1.532145E+0	1.507836E+0	1.528068E+0	1.551710E+0	1.504549E+0	1.534129E+0	1.527658E+0	1.474085E+0	1.502648E+0	1.526915E+0	1.480198E+0	1.511551E+0	1.456792E+0	1.515091E+0	1.542055E+0	1.526505E+0	1.525674E+0	1.524109E+0	1.529253E+0	1.584057E+0	1.504990E+0	1.464739E+0	1.491970E+0	1.528587E+0	1.404272E+0	1.520363E+0	1.504708E+0	1.552715E+0	1.548598E+0	1.477606E+0	1.573741E+0	1.551601E+0	1.445486E+0	1.518352E+0	1.485614E+0	1.485057E+0	1.517000E+0	1.518713E+0	1.545840E+0	1.508226E+0	1.470413E+0	1.524041E+0	1.547101E+0	1.607204E+0	1.421341E+0	1.556842E+0	1.586593E+0	1.490120E+0	1.438877E+0	1.502729E+0	1.480430E+0	1.582073E+0	1.567649E+0	1.598053E+0	1.476980E+0	1.407956E+0	1.468048E+0	1.480359E+0	1.424523E+0	1.555344E+0	1.507087E+0	1.506925E+0	1.507915E+0	1.467989E+0	1.456043E+0	1.492904E+0	1.460290E+0	1.523566E+0	1.545020E+0	1.528741E+0	1.567303E+0	1.460208E+0	1.520709E+0	1.519283E+0	1.452136E+0	1.531226E+0	1.484023E+0	1.512922E+0	1.459994E+0	1.528185E+0	1.504671E+0	1.436197E+0	1.427275E+0	1.481556E+0	1.434363E+0	1.445941E+0	1.499115E+0	1.444761E+0	1.375478E+0	1.483628E+0	1.551606E+0	1.552423E+0	1.450617E+0	1.460424E+0	1.512038E+0	1.514361E+0	1.487366E+0	1.487635E+0	1.463491E+0	1.617257E+0	1.504271E+0	1.471699E+0	1.489713E+0	1.458402E+0	1.563557E+0	1.474031E+0	1.481886E+0	1.502379E+0	1.431022E+0	1.458869E+0	1.455969E+0	1.542358E+0	1.582838E+0
5.505060E+2	1.480171E+0	1.501993E+0	1.528977E+0	1.496883E+0	1.485621E+0	1.441088E+0	1.472029E+0	1.541305E+0	1.477288E+0	1.515165E+0	1.511423E+0	1.491622E+0	1.497791E+0	1.493617E+0	1.455621E+0	1.491750E+0	1.494192E+0	1.492878E+0	1.462898E+0	1.468083E+0	1.576219E+0	1.480712E+0	1.487388E+0	1.507081E+0	1.568401E+0	1.461184E+0	1.458424E+0	1.505293E+0	1.431809E+0	1.517837E+0	1.456542E+0	1.447523E+0	1.479551E+0	1.468882E+0	1.492077E+0	1.459878E+0	1.511856E+0	1.447940E+0	1.443550E+0	1.438316E+0	1.487550E+0	1.512928E+0	1.429465E+0	1.450475E+0	1.495948E+0	1.457885E+0	1.528607E+0	1.532528E+0	1.504077E+0	1.452406E+0	1.499548E+0	1.407650E+0	1.518582E+0	1.443226E+0	1.491178E+0	1.494255E+0	1.450688E+0	1.502759E+0	1.527848E+0	1.493632E+0	1.415362E+0	1.498543E+0	1.468468E+0	1.454556E+0	1.496788E+0	1.557607E+0	1.533516E+0	1.476237E+0	1.520636E+0	1.502680E+0	1.475601E+0	1.531794E+0	1.571710E+0	1.476112E+0	1.454137E+0	1.487174E+0	1.549824E+0	1.399461E+0	1.440143E+0	1.456351E+0	1.527735E+0	1.519161E+0	1.483300E+0	1.483710E+0	1.517353E+0	1.501010E+0	1.498717E+0	1.485973E+0	1.546776E+0	1.457107E+0	1.470264E+0	1.458769E+0	1.485385E+0	1.401191E+0	1.538992E+0	1.454064E+0	1.502550E+0	1.504911E+0	1.468197E+0	1.466860E+0	1.496461E+0	1.505097E+0	1.438047E+0	1.448383E+0	1.517804E+0	1.547789E+0	1.586507E+0	1.458452E+0	1.467217E+0	1.506882E+0	1.377998E+0	1.417371E+0	1.541785E+0	1.512903E+0	1.499206E+0	1.407851E+0	1.485809E+0	1.430525E+0	1.506651E+0	1.516606E+0	1.471818E+0	1.531503E+0	1.475873E+0	1.483492E+0	1.502561E+0	1.460561E+0	1.458792E+0	1.369735E+0	1.546819E+0	1.511160E+0	1.432126E+0	1.414149E+0	1.599269E+0	1.447218E+0	1.479885E+0	1.448246E+0	1.498174E+0	1.434209E+0	1.473811E+0	1.494663E+0	1.480915E+0	1.394292E+0	1.438466E+0	1.531697E+0	1.528335E+0	1.419804E+0	1.505595E+0	1.452893E+0	1.413796E+0	1.446386E+0	1.456625E+0	1.493837E+0	1.541212E+0	1.492446E+0	1.497204E+0	1.469306E+0	1.516875E+0	1.496207E+0	1.443226E+0	1.468058E+0	1.479844E+0	1.441113E+0	1.434332E+0	1.389937E+0	1.387079E+0	1.479645E+0
5.510140E+2	1.252570E+0	1.229640E+0	1.205431E+0	1.232563E+0	1.155907E+0	1.160612E+0	1.229118E+0	1.224673E+0	1.145527E+0	1.124570E+0	1.203187E+0	1.233621E+0	1.234506E+0	1.259416E+0	1.142316E+0	1.197907E+0	1.216112E+0	1.228236E+0	1.224054E+0	1.157124E+0	1.234279E+0	1.165710E+0	1.203464E+0	1.188024E+0	1.218426E+0	1.133599E+0	1.192618E+0	1.185999E+0	1.167813E+0	1.201295E+0	1.171606E+0	1.148311E+0	1.230649E+0	1.173349E+0	1.240102E+0	1.193114E+0	1.194632E+0	1.170531E+0	1.178064E+0	1.191696E+0	1.169908E+0	1.218843E+0	1.209361E+0	1.220572E+0	1.236603E+0	1.279394E+0	1.204187E+0	1.211267E+0	1.196840E+0	1.225503E+0	1.207431E+0	1.189633E+0	1.184118E+0	1.201983E+0	1.203222E+0	1.222652E+0	1.204095E+0	1.217943E+0	1.238792E+0	1.229090E+0	1.245998E+0	1.217423E+0	1.169758E+0	1.181971E+0	1.266605E+0	1.182651E+0	1.262473E+0	1.242151E+0	1.266373E+0	1.216030E+0	1.155265E+0	1.238298E+0	1.242186E+0	1.230886E+0	1.193493E+0	1.188619E+0	1.228099E+0	1.190777E+0	1.210096E+0	1.196932E+0	1.233763E+0	1.257385E+0	1.189281E+0	1.248057E+0	1.276650E+0	1.116791E+0	1.167556E+0	1.173852E+0	1.194497E+0	1.196252E+0	1.188688E+0	1.193755E+0	1.278157E+0	1.191696E+0	1.182043E+0	1.217434E+0	1.218735E+0	1.148018E+0	1.206673E+0	1.206241E+0	1.124627E+0	1.218160E+0	1.204202E+0	1.206556E+0	1.205683E+0	1.305839E+0	1.241432E+0	1.219375E+0	1.188381E+0	1.222834E+0	1.189767E+0	1.190983E+0	1.182705E+0	1.214979E+0	1.221650E+0	1.197690E+0	1.197499E+0	1.166318E+0	1.200819E+0	1.220533E+0	1.176549E+0	1.234301E+0	1.190973E+0	1.177478E+0	1.211367E+0	1.199409E+0	1.154621E+0	1.173968E+0	1.238831E+0	1.218331E+0	1.193304E+0	1.146334E+0	1.273549E+0	1.235151E+0	1.115028E+0	1.218029E+0	1.193570E+0	1.214416E+0	1.216571E+0	1.274419E+0	1.218662E+0	1.181119E+0	1.180327E+0	1.198156E+0	1.318366E+0	1.183286E+0	1.198063E+0	1.191304E+0	1.243958E+0	1.203901E+0	1.292866E+0	1.213136E+0	1.185694E+0	1.189606E+0	1.241190E+0	1.233102E+0	1.224043E+0	1.176618E+0	1.212041E+0	1.192397E+0	1.194918E+0	1.197363E+0	1.256303E+0	1.146503E+0	1.176495E+0	1.184790E+0
5.515000E+2	1.042193E+0	1.021582E+0	1.022633E+0	1.016676E+0	1.031248E+0	9.735782E-1	1.010125E+0	1.042953E+0	1.063824E+0	1.008061E+0	1.034269E+0	1.036162E+0	1.085475E+0	1.110573E+0	1.041693E+0	1.032107E+0	1.027892E+0	1.072357E+0	9.790549E-1	1.012370E+0	1.039566E+0	1.020694E+0	1.037805E+0	9.508653E-1	1.037424E+0	1.024158E+0	1.003003E+0	1.026952E+0	1.054571E+0	1.064887E+0	1.034358E+0	9.963328E-1	1.020216E+0	1.021573E+0	1.006714E+0	1.021248E+0	1.079346E+0	1.024472E+0	1.021105E+0	9.971819E-1	1.027535E+0	1.032038E+0	1.009535E+0	1.016228E+0	1.026150E+0	1.014574E+0	1.020970E+0	1.016626E+0	1.016095E+0	1.032331E+0	1.012349E+0	1.032535E+0	1.031652E+0	1.035846E+0	1.021338E+0	9.722543E-1	1.063994E+0	1.045719E+0	1.060597E+0	1.043024E+0	9.950879E-1	1.065505E+0	1.017303E+0	1.002140E+0	1.019678E+0	1.026968E+0	1.029013E+0	1.045716E+0	1.064274E+0	1.074573E+0	1.038578E+0	1.017843E+0	1.030587E+0	1.025122E+0	1.003099E+0	1.079554E+0	1.033782E+0	9.877916E-1	9.834159E-1	1.009959E+0	1.030695E+0	1.022603E+0	1.032203E+0	1.003189E+0	1.001195E+0	9.886821E-1	9.993114E-1	1.043949E+0	1.074062E+0	1.031223E+0	9.873710E-1	1.050874E+0	1.023081E+0	1.013371E+0	1.013883E+0	9.904501E-1	1.000487E+0	9.939452E-1	1.049161E+0	1.029937E+0	1.040704E+0	1.016763E+0	1.011807E+0	9.880849E-1	1.073892E+0	1.070698E+0	1.004363E+0	1.000053E+0	1.008154E+0	1.037710E+0	1.039163E+0	9.630479E-1	1.008697E+0	1.043138E+0	1.036262E+0	1.002038E+0	1.070189E+0	1.024372E+0	1.077397E+0	1.029451E+0	9.610824E-1	1.059627E+0	1.019720E+0	1.020444E+0	1.031614E+0	1.043139E+0	9.707517E-1	1.024722E+0	1.040193E+0	9.707521E-1	1.004028E+0	9.955967E-1	1.024004E+0	1.026252E+0	9.893301E-1	9.821165E-1	1.003904E+0	9.496242E-1	1.015851E+0	1.087262E+0	9.911385E-1	9.523531E-1	9.955133E-1	1.017456E+0	1.038433E+0	1.043838E+0	1.025534E+0	9.840700E-1	1.052213E+0	1.012225E+0	1.090241E+0	1.055632E+0	1.032977E+0	1.020586E+0	1.060702E+0	1.029834E+0	1.048931E+0	1.023232E+0	1.022705E+0	1.043341E+0	1.023895E+0	9.197968E-1	9.809617E-1	1.035732E+0	8.852291E-1	9.867190E-1
5.520100E+2	1.014942E+0	9.825104E-1	1.015287E+0	9.750524E-1	9.812339E-1	9.909024E-1	1.002762E+0	1.005808E+0	9.600663E-1	1.009812E+0	1.009069E+0	1.017649E+0	1.029110E+0	1.017251E+0	1.006727E+0	9.657977E-1	9.975649E-1	9.765133E-1	1.017992E+0	9.553611E-1	1.022030E+0	1.014230E+0	1.008068E+0	9.884723E-1	1.038340E+0	9.555375E-1	1.012270E+0	9.892342E-1	9.693022E-1	9.753761E-1	1.016513E+0	9.467756E-1	1.023587E+0	9.555069E-1	9.691850E-1	9.884424E-1	1.019926E+0	1.038687E+0	9.553753E-1	9.656906E-1	9.698507E-1	9.935907E-1	9.492447E-1	9.743617E-1	9.733568E-1	9.969657E-1	1.017651E+0	1.010757E+0	9.817595E-1	9.987500E-1	9.992889E-1	9.727190E-1	1.023428E+0	9.698043E-1	1.003575E+0	9.946705E-1	9.950060E-1	9.687907E-1	1.000463E+0	9.746021E-1	1.007663E+0	1.027253E+0	9.645705E-1	9.655277E-1	1.006016E+0	1.021966E+0	1.025713E+0	9.975766E-1	1.020898E+0	9.322546E-1	9.596186E-1	9.700461E-1	1.039606E+0	9.764306E-1	1.008256E+0	9.730362E-1	9.939900E-1	9.846966E-1	9.538931E-1	9.719579E-1	1.014585E+0	9.798316E-1	9.868295E-1	1.028683E+0	9.949894E-1	9.387687E-1	9.196979E-1	9.665492E-1	9.932956E-1	1.040632E+0	9.537558E-1	1.073780E+0	9.825514E-1	9.739662E-1	9.723803E-1	9.949817E-1	1.011639E+0	9.467912E-1	1.017686E+0	9.958942E-1	9.573799E-1	9.768444E-1	1.034495E+0	1.019014E+0	9.724243E-1	1.026735E+0	1.044359E+0	9.693003E-1	9.383282E-1	9.635835E-1	9.867124E-1	9.359290E-1	1.006396E+0	1.008439E+0	1.052866E+0	1.052206E+0	9.839270E-1	9.784691E-1	1.017018E+0	9.948871E-1	9.997080E-1	9.992861E-1	1.013726E+0	9.533025E-1	1.008554E+0	9.434223E-1	9.562329E-1	9.491375E-1	1.025741E+0	1.013362E+0	1.001182E+0	9.240624E-1	1.006190E+0	9.887789E-1	9.400074E-1	9.546677E-1	9.685859E-1	9.291399E-1	9.154953E-1	1.018888E+0	9.689053E-1	9.200667E-1	9.727143E-1	1.030424E+0	1.003628E+0	9.512080E-1	9.337121E-1	9.253970E-1	1.024739E+0	9.749156E-1	9.911481E-1	9.226068E-1	1.023573E+0	9.894215E-1	1.039772E+0	1.024546E+0	1.015983E+0	9.713116E-1	9.815892E-1	9.620571E-1	9.513957E-1	9.830389E-1	9.660350E-1	9.568171E-1	9.217110E-1	1.165279E+0
5.525090E+2	1.110898E+0	1.112253E+0	1.080488E+0	1.079742E+0	1.077760E+0	1.028085E+0	1.078746E+0	1.047465E+0	1.005751E+0	1.086793E+0	1.040817E+0	1.074324E+0	1.031963E+0	1.083395E+0	1.060473E+0	1.115792E+0	1.089043E+0	1.011455E+0	1.070877E+0	1.088922E+0	1.037081E+0	1.106818E+0	1.029148E+0	1.095077E+0	1.062326E+0	1.018780E+0	1.077146E+0	1.071076E+0	1.026743E+0	1.030018E+0	1.096714E+0	1.082148E+0	1.049624E+0	1.029596E+0	1.074776E+0	1.049035E+0	1.052331E+0	1.050438E+0	1.064622E+0	1.025094E+0	1.110361E+0	1.074889E+0	1.018000E+0	1.036716E+0	1.061273E+0	1.063569E+0	1.039702E+0	1.072321E+0	1.022534E+0	1.071657E+0	1.102024E+0	1.032288E+0	1.055462E+0	1.136534E+0	1.032489E+0	1.004633E+0	1.055868E+0	1.115320E+0	1.064453E+0	1.082541E+0	1.042265E+0	1.099921E+0	1.027596E+0	1.039228E+0	1.100083E+0	1.092125E+0	1.057773E+0	1.041563E+0	1.093950E+0	1.109767E+0	1.078875E+0	1.069463E+0	1.047144E+0	1.078282E+0	1.021845E+0	1.030720E+0	1.089340E+0	1.126180E+0	1.057592E+0	1.032140E+0	1.103609E+0	1.017626E+0	1.037431E+0	1.027165E+0	1.095020E+0	1.042235E+0	1.062612E+0	1.074132E+0	1.090833E+0	1.083111E+0	1.054553E+0	1.003647E+0	1.042030E+0	1.085103E+0	1.049197E+0	1.110979E+0	1.052906E+0	1.022972E+0	1.072294E+0	1.025357E+0	1.080016E+0	1.070921E+0	1.089932E+0	1.067219E+0	1.067160E+0	1.064183E+0	1.133903E+0	1.114850E+0	1.051757E+0	1.087926E+0	1.038352E+0	1.046394E+0	1.054190E+0	1.029279E+0	1.104383E+0	1.048700E+0	1.063362E+0	9.795934E-1	1.022861E+0	1.105259E+0	1.115718E+0	1.038323E+0	1.072528E+0	1.014221E+0	1.042678E+0	1.063745E+0	1.030277E+0	1.027401E+0	1.113596E+0	1.032749E+0	1.061859E+0	1.025279E+0	1.106536E+0	1.015928E+0	1.052366E+0	1.053933E+0	1.033949E+0	1.056633E+0	9.605676E-1	1.097338E+0	1.034809E+0	1.007349E+0	1.075912E+0	1.033448E+0	1.129305E+0	1.026762E+0	1.027040E+0	1.054821E+0	1.097428E+0	1.089670E+0	1.068157E+0	1.058922E+0	1.109687E+0	1.093645E+0	1.127673E+0	1.066825E+0	1.097663E+0	1.054192E+0	1.050129E+0	1.025573E+0	1.083729E+0	1.029845E+0	1.012021E+0	1.072155E+0	1.030347E+0	1.080496E+0
5.530150E+2	9.577217E-1	9.948622E-1	1.003534E+0	1.006334E+0	9.608580E-1	1.020783E+0	9.312730E-1	9.981742E-1	9.884930E-1	9.643797E-1	9.773462E-1	1.039497E+0	1.011094E+0	1.021656E+0	9.687667E-1	9.626970E-1	9.522300E-1	1.026175E+0	9.458350E-1	9.593646E-1	1.000006E+0	9.664648E-1	1.006291E+0	9.628388E-1	1.030472E+0	9.968054E-1	9.551308E-1	9.120783E-1	9.434274E-1	1.039774E+0	9.600431E-1	9.873911E-1	9.699468E-1	1.059387E+0	9.678343E-1	1.029996E+0	1.061236E+0	9.751207E-1	1.001572E+0	9.910528E-1	9.766846E-1	9.989368E-1	1.026555E+0	9.395974E-1	1.000305E+0	1.026392E+0	1.030324E+0	1.021389E+0	1.048365E+0	9.912027E-1	9.613678E-1	9.794222E-1	9.984478E-1	1.052505E+0	9.483617E-1	1.023913E+0	9.835771E-1	9.888407E-1	1.001069E+0	9.835555E-1	9.912985E-1	1.026004E+0	9.885728E-1	9.584352E-1	9.899742E-1	9.738505E-1	9.951048E-1	9.877209E-1	9.786278E-1	1.037365E+0	9.897435E-1	9.626402E-1	1.020818E+0	1.009424E+0	9.655328E-1	1.032708E+0	1.036308E+0	9.643708E-1	1.004940E+0	1.030149E+0	1.073056E+0	9.869672E-1	1.023798E+0	9.904748E-1	9.628633E-1	9.717444E-1	1.024024E+0	9.779856E-1	9.873497E-1	9.855624E-1	1.024091E+0	1.031245E+0	9.806295E-1	1.016211E+0	9.618280E-1	9.847036E-1	9.547648E-1	9.865433E-1	9.618673E-1	9.643735E-1	1.001704E+0	9.428474E-1	1.040509E+0	9.837152E-1	9.894047E-1	1.054005E+0	9.993347E-1	1.020077E+0	9.899445E-1	9.878906E-1	9.778179E-1	9.957378E-1	9.834025E-1	1.033605E+0	1.002312E+0	9.975175E-1	1.018576E+0	9.811510E-1	9.933965E-1	9.951849E-1	1.014981E+0	9.812450E-1	1.013144E+0	1.003951E+0	9.633898E-1	1.041578E+0	1.031098E+0	9.241750E-1	1.039433E+0	1.021525E+0	9.815768E-1	9.778780E-1	1.022971E+0	9.697262E-1	9.992890E-1	9.941408E-1	1.027919E+0	9.984568E-1	9.731567E-1	1.004383E+0	1.005489E+0	9.749542E-1	1.044375E+0	1.027043E+0	1.017477E+0	9.688925E-1	1.013288E+0	9.790236E-1	1.021662E+0	9.864348E-1	1.058165E+0	9.889647E-1	1.069349E+0	9.792694E-1	1.045676E+0	9.814200E-1	1.007240E+0	9.834976E-1	1.016752E+0	9.587747E-1	1.011625E+0	9.931779E-1	9.451881E-1	9.575760E-1	8.815580E-1	1.055186E+0
5.534770E+2	9.739205E-1	9.347895E-1	9.661054E-1	9.570501E-1	9.142264E-1	9.216686E-1	9.715122E-1	9.328948E-1	9.717394E-1	9.313327E-1	9.618310E-1	9.565457E-1	9.604426E-1	9.750853E-1	9.721516E-1	9.424878E-1	9.419817E-1	9.519319E-1	9.559364E-1	9.127630E-1	9.500184E-1	9.665895E-1	9.541907E-1	9.552265E-1	9.582708E-1	9.532561E-1	9.276139E-1	9.868580E-1	9.582631E-1	9.641398E-1	9.269522E-1	9.320275E-1	9.299399E-1	9.756303E-1	9.291562E-1	9.318392E-1	9.404661E-1	9.065467E-1	9.782027E-1	9.222603E-1	9.306283E-1	9.326515E-1	9.530327E-1	9.532188E-1	9.968735E-1	9.869569E-1	9.466322E-1	9.580741E-1	9.739356E-1	9.576531E-1	8.784006E-1	9.410551E-1	9.528233E-1	9.493567E-1	9.336822E-1	9.430487E-1	9.794021E-1	9.352537E-1	9.739366E-1	9.844238E-1	9.444684E-1	9.887885E-1	9.650338E-1	9.452234E-1	9.745847E-1	9.446747E-1	9.234953E-1	9.110998E-1	9.566606E-1	9.503885E-1	9.918743E-1	9.038826E-1	9.455644E-1	9.630787E-1	9.697221E-1	9.246974E-1	1.002066E+0	9.894178E-1	1.002266E+0	9.609523E-1	9.726652E-1	9.574430E-1	9.458621E-1	9.719406E-1	9.733302E-1	9.854388E-1	9.259083E-1	9.359780E-1	9.438835E-1	9.535863E-1	9.844267E-1	9.553925E-1	9.194260E-1	8.661166E-1	9.356977E-1	9.426264E-1	9.164177E-1	9.034260E-1	9.754989E-1	9.629915E-1	9.469187E-1	9.464259E-1	9.100632E-1	9.766616E-1	9.888370E-1	9.749235E-1	9.678350E-1	9.109726E-1	9.727015E-1	9.365915E-1	9.484137E-1	9.673627E-1	9.562842E-1	1.008204E+0	9.251826E-1	8.955132E-1	9.478465E-1	8.915874E-1	9.261891E-1	9.686478E-1	9.314784E-1	9.718190E-1	9.878906E-1	9.358693E-1	9.310975E-1	9.620335E-1	9.228955E-1	9.357655E-1	1.003665E+0	9.217667E-1	9.434827E-1	9.612146E-1	9.775425E-1	9.312108E-1	9.259590E-1	9.093924E-1	9.081719E-1	9.155315E-1	9.162394E-1	1.006581E+0	1.007939E+0	9.635720E-1	9.666704E-1	9.331956E-1	9.392134E-1	8.979625E-1	9.614341E-1	9.549587E-1	9.401593E-1	9.456174E-1	9.091295E-1	9.713343E-1	9.997505E-1	9.272732E-1	9.511701E-1	9.579942E-1	8.882123E-1	9.596060E-1	9.534944E-1	9.103435E-1	9.806487E-1	9.209311E-1	9.590056E-1	9.631615E-1	9.114394E-1	9.356841E-1
5.540290E+2	8.928012E-1	8.908200E-1	9.151044E-1	9.491405E-1	9.128704E-1	9.374920E-1	9.297295E-1	9.155983E-1	8.713971E-1	9.089630E-1	9.236610E-1	9.597789E-1	9.313631E-1	9.147318E-1	9.178363E-1	9.608371E-1	9.281126E-1	9.329560E-1	8.910311E-1	9.271384E-1	9.285349E-1	9.538742E-1	8.648914E-1	9.403109E-1	9.471851E-1	9.297251E-1	9.361476E-1	9.473329E-1	9.256047E-1	8.901323E-1	9.492979E-1	9.246278E-1	9.488981E-1	9.482566E-1	9.163629E-1	9.380779E-1	9.240829E-1	9.110543E-1	9.113101E-1	9.284642E-1	9.035405E-1	9.256217E-1	9.037218E-1	8.769363E-1	9.304050E-1	8.886527E-1	9.532304E-1	9.573254E-1	9.265388E-1	9.076962E-1	9.445491E-1	9.482643E-1	9.167966E-1	9.657328E-1	9.549381E-1	8.945168E-1	9.252965E-1	9.177054E-1	8.796999E-1	9.387766E-1	9.670461E-1	9.269788E-1	9.513897E-1	9.182170E-1	9.151918E-1	9.277929E-1	8.849321E-1	9.256726E-1	9.466946E-1	9.172179E-1	8.777244E-1	9.032717E-1	9.754273E-1	9.274134E-1	9.027485E-1	9.276776E-1	8.908489E-1	9.755407E-1	8.984008E-1	9.018274E-1	9.299880E-1	9.666902E-1	9.103762E-1	8.712875E-1	9.331010E-1	9.270264E-1	9.242410E-1	9.357743E-1	9.471684E-1	9.147097E-1	9.004859E-1	9.551322E-1	9.761230E-1	9.264464E-1	9.302405E-1	9.365638E-1	9.182359E-1	8.967307E-1	9.544282E-1	9.402912E-1	9.378968E-1	9.247067E-1	8.981073E-1	8.903536E-1	9.436511E-1	8.947819E-1	9.372399E-1	9.701676E-1	9.016448E-1	9.112553E-1	9.264922E-1	8.899172E-1	9.321656E-1	9.235939E-1	9.409105E-1	9.466346E-1	8.683020E-1	9.134409E-1	9.581854E-1	9.295134E-1	9.441231E-1	9.488421E-1	9.419141E-1	9.390414E-1	9.057793E-1	9.289661E-1	9.265771E-1	9.075911E-1	9.208016E-1	8.825605E-1	9.405651E-1	9.353819E-1	8.805854E-1	9.153649E-1	8.830337E-1	9.467247E-1	9.192003E-1	9.086176E-1	8.949457E-1	9.154212E-1	9.373893E-1	9.458184E-1	9.200878E-1	9.114799E-1	9.173564E-1	9.375682E-1	9.165195E-1	9.562550E-1	9.153231E-1	9.275718E-1	9.648130E-1	8.773855E-1	9.464079E-1	9.339147E-1	9.339149E-1	9.174551E-1	9.570220E-1	8.825260E-1	8.991029E-1	9.393725E-1	9.260916E-1	9.202366E-1	9.758622E-1	8.964912E-1	8.969149E-1	1.041410E+0
5.550140E+2	9.680218E-1	9.525332E-1	9.181202E-1	8.864201E-1	9.442720E-1	1.028397E+0	8.771714E-1	9.519135E-1	9.226748E-1	9.393970E-1	9.087052E-1	9.232781E-1	9.550949E-1	9.502827E-1	9.362946E-1	9.846053E-1	9.604589E-1	8.983110E-1	8.897981E-1	9.314811E-1	9.435545E-1	9.399369E-1	9.599231E-1	9.260170E-1	1.007989E+0	9.297280E-1	9.258857E-1	9.572775E-1	9.658282E-1	9.382078E-1	9.234152E-1	9.231267E-1	9.547017E-1	9.712802E-1	9.516792E-1	9.662783E-1	9.436925E-1	9.420402E-1	9.198888E-1	9.248104E-1	9.071695E-1	9.447337E-1	9.268553E-1	9.532830E-1	9.277114E-1	9.633433E-1	9.275556E-1	9.580702E-1	9.148403E-1	9.533433E-1	9.090906E-1	9.766335E-1	9.158346E-1	9.682703E-1	9.615811E-1	9.288696E-1	9.483801E-1	9.399168E-1	9.503732E-1	9.475611E-1	9.304760E-1	9.138317E-1	9.530194E-1	9.164260E-1	9.616790E-1	9.285646E-1	9.161947E-1	9.457432E-1	9.192656E-1	9.704377E-1	9.716734E-1	9.369869E-1	9.288829E-1	9.421491E-1	9.294366E-1	9.790125E-1	9.750613E-1	9.119823E-1	9.387580E-1	9.512897E-1	9.308224E-1	9.381399E-1	9.214405E-1	9.850791E-1	9.216877E-1	9.403763E-1	9.364093E-1	1.000353E+0	9.273411E-1	9.740686E-1	9.323876E-1	9.219613E-1	9.675568E-1	9.494443E-1	9.705455E-1	9.487491E-1	9.888594E-1	9.748486E-1	1.002845E+0	9.343969E-1	1.014527E+0	9.083934E-1	9.564414E-1	9.742509E-1	9.580466E-1	9.251429E-1	9.485865E-1	8.984974E-1	8.931342E-1	9.793138E-1	1.000768E+0	9.120536E-1	9.198286E-1	9.686372E-1	8.989027E-1	9.339573E-1	9.425676E-1	9.631210E-1	9.421193E-1	9.380120E-1	9.515873E-1	9.213149E-1	9.518126E-1	9.261019E-1	9.212195E-1	9.551777E-1	9.205164E-1	8.871662E-1	9.585964E-1	9.573961E-1	9.756268E-1	9.493624E-1	9.675200E-1	9.611718E-1	9.151735E-1	9.743769E-1	9.312947E-1	9.264896E-1	9.519170E-1	9.644864E-1	9.395176E-1	9.301530E-1	9.333369E-1	9.408369E-1	9.377531E-1	9.050265E-1	9.148260E-1	9.218583E-1	9.824955E-1	9.481261E-1	9.476517E-1	9.885314E-1	9.617856E-1	9.113125E-1	9.627759E-1	9.403809E-1	9.437298E-1	9.442334E-1	9.332644E-1	9.330370E-1	9.055030E-1	8.981127E-1	8.738073E-1	9.121423E-1	8.848970E-1	8.965555E-1
5.560410E+2	1.014384E+0	1.021483E+0	1.093706E+0	1.040331E+0	1.045518E+0	1.031613E+0	1.070198E+0	1.040692E+0	1.014268E+0	1.016023E+0	9.829751E-1	9.964355E-1	9.982747E-1	9.980203E-1	1.024678E+0	9.680795E-1	1.025060E+0	9.836238E-1	1.018971E+0	1.010687E+0	1.062364E+0	1.011718E+0	1.059660E+0	1.019356E+0	1.000936E+0	1.006149E+0	1.000025E+0	1.013322E+0	1.030926E+0	1.018048E+0	1.004305E+0	1.043204E+0	1.025328E+0	1.031528E+0	1.016335E+0	1.031762E+0	9.921217E-1	1.051778E+0	1.027632E+0	1.021323E+0	9.935549E-1	9.984699E-1	1.023924E+0	9.959694E-1	9.996645E-1	1.036088E+0	1.024707E+0	1.034006E+0	1.020530E+0	1.045017E+0	1.078691E+0	1.031811E+0	1.078210E+0	9.926909E-1	1.019062E+0	1.011679E+0	1.015400E+0	9.995827E-1	1.026654E+0	1.018060E+0	9.972097E-1	1.032638E+0	9.966919E-1	9.880892E-1	1.009993E+0	1.048754E+0	1.038919E+0	1.022357E+0	1.013608E+0	1.059273E+0	1.047282E+0	1.036353E+0	1.008575E+0	1.063585E+0	9.925485E-1	1.022461E+0	9.793454E-1	1.010993E+0	1.031234E+0	9.867608E-1	1.035855E+0	1.042656E+0	1.051503E+0	1.003497E+0	1.007550E+0	9.549576E-1	1.069916E+0	9.761730E-1	1.051050E+0	1.035160E+0	1.010257E+0	9.856865E-1	1.031034E+0	1.055882E+0	1.023716E+0	9.966679E-1	1.001648E+0	9.919380E-1	1.051694E+0	1.071790E+0	1.016862E+0	1.007167E+0	9.576216E-1	1.015033E+0	1.004127E+0	1.081787E+0	1.027231E+0	1.008553E+0	1.038023E+0	1.016803E+0	9.997562E-1	1.042122E+0	1.035401E+0	1.029964E+0	1.037408E+0	9.630719E-1	1.018564E+0	1.024257E+0	1.067339E+0	1.063855E+0	1.013777E+0	1.048044E+0	1.002576E+0	9.850838E-1	1.051961E+0	1.030035E+0	9.838834E-1	1.010241E+0	1.013182E+0	9.963548E-1	1.018196E+0	1.064310E+0	1.008452E+0	1.010869E+0	1.069033E+0	9.920523E-1	9.942281E-1	1.036509E+0	1.007671E+0	1.054990E+0	9.356969E-1	1.026447E+0	9.973956E-1	1.030322E+0	1.094594E+0	9.875115E-1	1.002843E+0	9.958287E-1	1.053732E+0	1.039819E+0	1.001647E+0	1.054635E+0	1.035205E+0	9.856755E-1	1.016325E+0	1.013697E+0	1.042234E+0	1.055559E+0	1.022056E+0	1.041206E+0	1.039252E+0	1.020368E+0	1.013408E+0	9.189402E-1	8.955904E-1	9.816876E-1
5.570330E+2	1.054158E+0	1.031868E+0	1.076197E+0	1.095716E+0	1.080113E+0	1.062465E+0	1.032073E+0	1.059042E+0	1.048693E+0	1.072759E+0	1.097108E+0	1.093933E+0	1.046837E+0	1.055216E+0	1.056803E+0	1.089419E+0	1.061620E+0	1.082257E+0	1.106630E+0	1.095976E+0	1.079828E+0	1.082017E+0	1.065371E+0	1.067321E+0	1.051054E+0	1.091263E+0	1.089840E+0	1.053992E+0	1.048223E+0	1.062122E+0	1.073759E+0	1.013706E+0	1.010818E+0	1.048196E+0	1.077348E+0	1.060134E+0	1.056256E+0	1.043578E+0	1.049035E+0	1.084988E+0	1.071661E+0	1.091262E+0	1.100786E+0	1.065590E+0	1.057660E+0	1.064725E+0	1.080393E+0	1.070382E+0	1.091845E+0	1.097127E+0	1.043494E+0	1.068116E+0	1.020071E+0	1.029852E+0	1.059889E+0	1.057614E+0	1.054281E+0	1.126189E+0	1.086502E+0	9.887944E-1	1.029067E+0	1.051817E+0	1.030635E+0	1.067095E+0	1.054378E+0	1.076230E+0	1.102612E+0	1.023548E+0	1.025164E+0	1.102868E+0	1.075039E+0	1.080189E+0	1.071200E+0	1.034933E+0	1.008065E+0	1.053213E+0	1.119502E+0	1.072749E+0	1.072727E+0	1.061320E+0	1.102061E+0	1.085850E+0	1.113513E+0	1.051817E+0	1.093666E+0	1.078877E+0	1.067834E+0	1.047259E+0	1.070078E+0	1.045624E+0	1.044981E+0	1.084993E+0	1.079139E+0	1.070566E+0	1.029686E+0	1.088911E+0	1.084942E+0	1.094383E+0	1.029171E+0	1.076091E+0	1.026968E+0	1.111263E+0	1.048253E+0	1.084720E+0	1.095815E+0	1.058197E+0	1.079432E+0	1.090297E+0	1.084704E+0	1.018936E+0	1.027101E+0	1.041866E+0	1.045262E+0	1.026072E+0	1.099049E+0	1.099382E+0	1.049575E+0	1.015295E+0	1.046583E+0	1.029210E+0	1.045705E+0	1.020021E+0	1.103377E+0	1.087153E+0	1.089016E+0	1.057945E+0	1.074086E+0	1.015864E+0	1.103261E+0	1.073181E+0	1.070188E+0	1.014082E+0	1.080336E+0	1.086142E+0	1.054963E+0	1.016060E+0	1.066754E+0	1.065513E+0	1.060819E+0	1.056768E+0	1.078520E+0	9.955983E-1	1.022779E+0	1.084645E+0	1.032876E+0	1.036821E+0	1.075025E+0	1.024000E+0	1.027391E+0	1.086512E+0	1.103615E+0	1.063604E+0	1.066102E+0	1.137060E+0	1.135747E+0	1.053219E+0	1.082100E+0	1.002495E+0	1.092992E+0	1.081024E+0	1.064917E+0	1.031885E+0	9.763896E-1	1.012665E+0	1.074006E+0	1.036619E+0
5.580230E+2	1.033168E+0	1.154212E+0	1.095189E+0	1.024971E+0	1.083872E+0	1.014949E+0	1.059678E+0	1.104541E+0	1.064040E+0	1.019150E+0	1.087168E+0	1.071250E+0	1.097934E+0	1.033915E+0	1.027424E+0	1.057974E+0	1.061128E+0	1.024760E+0	1.088964E+0	9.986230E-1	1.068575E+0	1.039390E+0	1.076051E+0	1.047657E+0	1.060469E+0	1.028507E+0	1.047368E+0	1.049571E+0	1.097439E+0	1.032660E+0	1.088316E+0	1.022370E+0	1.098046E+0	1.010286E+0	1.054402E+0	1.046525E+0	1.082098E+0	1.107141E+0	1.025994E+0	1.028152E+0	1.047024E+0	1.082490E+0	1.108847E+0	1.078792E+0	1.056547E+0	1.080501E+0	1.048987E+0	1.078444E+0	1.079846E+0	1.045736E+0	1.069231E+0	1.072935E+0	1.076433E+0	1.057466E+0	1.080753E+0	1.054811E+0	1.072581E+0	1.057800E+0	1.089517E+0	1.068299E+0	1.069705E+0	1.069417E+0	1.052140E+0	1.063441E+0	1.037292E+0	1.091928E+0	1.095446E+0	1.086753E+0	1.077962E+0	1.063420E+0	1.084210E+0	1.064755E+0	1.052454E+0	1.072885E+0	1.086478E+0	1.043008E+0	1.084968E+0	1.044447E+0	1.033112E+0	1.083632E+0	1.095575E+0	1.093989E+0	1.089024E+0	1.017373E+0	1.041976E+0	1.103872E+0	1.049312E+0	1.049687E+0	1.047707E+0	1.126994E+0	1.019075E+0	1.038341E+0	1.102175E+0	1.079951E+0	1.039221E+0	1.044033E+0	1.113684E+0	9.974953E-1	1.054146E+0	1.076112E+0	1.049677E+0	1.038509E+0	1.042367E+0	1.060952E+0	1.062862E+0	1.089149E+0	1.118376E+0	1.082583E+0	1.082274E+0	1.077937E+0	1.075850E+0	1.032319E+0	1.035450E+0	1.039883E+0	1.099528E+0	1.090154E+0	1.053820E+0	1.106595E+0	1.042160E+0	9.837568E-1	1.071361E+0	1.099015E+0	1.054002E+0	1.099412E+0	1.054289E+0	1.080101E+0	1.065847E+0	1.047495E+0	1.043584E+0	1.095614E+0	1.043265E+0	1.023550E+0	1.063746E+0	1.045669E+0	1.062682E+0	1.042327E+0	1.018802E+0	1.094053E+0	1.026394E+0	1.024490E+0	1.071250E+0	9.897463E-1	1.070760E+0	1.060333E+0	1.077692E+0	1.091150E+0	1.103739E+0	1.106240E+0	1.083215E+0	1.051288E+0	1.020005E+0	9.938097E-1	9.965093E-1	1.096030E+0	1.068409E+0	1.042121E+0	1.101602E+0	1.081932E+0	1.107768E+0	1.065065E+0	1.071276E+0	1.043717E+0	1.069931E+0	1.127181E+0	1.085373E+0	1.250564E+0
5.590160E+2	1.063546E+0	1.014295E+0	9.355785E-1	1.046371E+0	1.019128E+0	1.003416E+0	1.059638E+0	9.953178E-1	1.107187E+0	1.112375E+0	1.038551E+0	9.987795E-1	1.010053E+0	1.072749E+0	1.064812E+0	9.965980E-1	1.021640E+0	1.126160E+0	1.048670E+0	1.123331E+0	9.671244E-1	1.006474E+0	1.019913E+0	1.044112E+0	9.740958E-1	1.061372E+0	1.073120E+0	9.916461E-1	9.737152E-1	1.094690E+0	1.033954E+0	1.140938E+0	1.032268E+0	1.014823E+0	1.054717E+0	1.025384E+0	1.061283E+0	1.037862E+0	1.087937E+0	1.090002E+0	1.146422E+0	1.024771E+0	9.828341E-1	1.076210E+0	1.031138E+0	9.797327E-1	1.018496E+0	9.436977E-1	9.924637E-1	9.934276E-1	1.076544E+0	9.611846E-1	1.039832E+0	1.036631E+0	9.900941E-1	1.109461E+0	1.004659E+0	1.023553E+0	9.933173E-1	1.054085E+0	1.062028E+0	1.016529E+0	1.051090E+0	1.101508E+0	1.046881E+0	9.820558E-1	1.038401E+0	1.084826E+0	1.060646E+0	9.363950E-1	9.521961E-1	1.074562E+0	1.017897E+0	9.959566E-1	1.111001E+0	1.049930E+0	9.482084E-1	9.948709E-1	1.023502E+0	1.054218E+0	9.330337E-1	9.152330E-1	9.682807E-1	1.099005E+0	1.028689E+0	1.009452E+0	1.026379E+0	1.054776E+0	1.012772E+0	9.498574E-1	1.108387E+0	1.058494E+0	9.245455E-1	1.051593E+0	1.070893E+0	1.042448E+0	9.762127E-1	1.141178E+0	9.322164E-1	9.383270E-1	1.007151E+0	1.063535E+0	1.187147E+0	9.980282E-1	9.466616E-1	9.760186E-1	9.213004E-1	1.038929E+0	1.027518E+0	1.059164E+0	1.021618E+0	1.114360E+0	1.075609E+0	1.003646E+0	9.990195E-1	1.071287E+0	1.119325E+0	1.085703E+0	1.017424E+0	1.087004E+0	1.041969E+0	9.909439E-1	9.584273E-1	1.027338E+0	1.046637E+0	9.857413E-1	1.106194E+0	1.195877E+0	9.569098E-1	1.073127E+0	1.008676E+0	1.052100E+0	1.021817E+0	1.049572E+0	1.089156E+0	1.119067E+0	1.161549E+0	1.053286E+0	1.142013E+0	9.772635E-1	1.029687E+0	1.148665E+0	1.088970E+0	1.039188E+0	1.000515E+0	1.143961E+0	1.025614E+0	1.040859E+0	9.976846E-1	1.001066E+0	1.053138E+0	1.050700E+0	9.942395E-1	1.008734E+0	9.316591E-1	1.075133E+0	9.850992E-1	1.073648E+0	9.913229E-1	1.029952E+0	1.012312E+0	1.164749E+0	1.131596E+0	1.169418E+0	1.251779E+0	8.574796E-1
