Photon Energy (eV)	#1	#2	#3	#4	#5	#6	#7	#8	#9	#10	#11	#12	#13	#14	#15	#16	#17	#18	#19	#20	#21	#22	#23	#24	#25	#26	#27	#28	#29	#30	#31	#32	#33	#34	#35	#36	#37	#38	#39	#40	#41	#42	#43	#44	#45	#46	#47	#48	#49	#50	#51	#52	#53	#54	#55	#56	#57	#58	#59	#60	#61	#62	#63	#64	#65	#66	#67	#68	#69	#70	#71	#72	#73	#74	#75	#76	#77	#78	#79	#80	#81	#82	#83	#84	#85	#86	#87	#88	#89	#90	#91	#92	#93	#94	#95	#96	#97	#98	#99	#100	#101	#102	#103	#104	#105	#106	#107	#108	#109	#110	#111	#112	#113	#114	#115	#116	#117	#118	#119	#120	#121	#122	#123	#124	#125	#126	#127	#128	#129	#130	#131	#132	#133	#134	#135	#136	#137	#138	#139	#140	#141	#142	#143	#144	#145	#146	#147	#148	#149	#150	#151	#152	#153	#154	#155	#156	#157	#158	#159	#160	#161	#162	#163	#164	
5.290120E+2	-2.758176E-2	-3.384495E-2	-4.674779E-2	-3.041008E-2	-2.201137E-2	-1.794739E-2	-3.071053E-2	-1.131442E-2	-4.091693E-2	-7.518727E-3	-3.199521E-2	-1.780907E-2	-3.088484E-2	-2.392095E-2	-2.543618E-2	-1.453437E-2	-3.302514E-2	-1.110202E-2	-1.787849E-2	-3.655798E-2	-2.622528E-2	-2.918152E-2	-2.044045E-2	-3.792773E-2	-1.382951E-2	-2.895742E-2	-2.101606E-2	-2.416264E-2	-2.255798E-2	-2.916000E-2	-1.266295E-2	-2.206833E-3	-2.575089E-2	-2.536168E-2	-8.074119E-3	-2.275492E-2	-2.578184E-2	-2.242143E-2	-3.377267E-2	-1.487171E-2	-2.347897E-2	-1.253508E-2	-3.655339E-2	-2.810486E-2	-2.289741E-2	-2.346210E-2	-2.338735E-2	-3.125243E-2	-2.501188E-2	-3.692745E-2	-1.425363E-2	-1.819877E-2	-6.247586E-3	-1.667973E-2	-9.335694E-3	-2.512242E-2	-2.277180E-2	-2.900501E-2	-1.955064E-2	-3.160862E-2	-4.431464E-2	-3.019196E-2	-2.320080E-2	-2.503583E-2	-1.911544E-2	-2.598075E-2	-2.128979E-2	-2.765150E-2	-2.440200E-2	-2.681946E-2	-2.265171E-2	-2.733710E-2	-3.265307E-2	-2.246180E-2	-2.746803E-3	-2.768943E-2	-2.103750E-2	-2.822562E-2	-2.416795E-2	-2.203471E-2	-2.788097E-2	-2.340558E-2	-2.093652E-2	-2.338673E-2	-1.728677E-2	-1.981685E-2	-1.749436E-4	-1.228360E-2	-1.778901E-2	-2.881734E-2	-2.901367E-2	-1.203933E-2	-9.456045E-3	-1.118955E-2	-3.310275E-2	-1.535640E-2	-1.232602E-2	-2.242039E-2	-2.206108E-2	-3.025934E-2	-3.323909E-2	-1.440812E-2	-9.662587E-3	-2.842613E-2	-1.527870E-2	-2.597891E-2	-2.540194E-2	-1.869957E-2	-2.301330E-2	-3.847269E-2	-2.408986E-2	-4.086645E-2	-1.734469E-2	-1.856870E-2	-2.580344E-2	-1.226627E-2	-3.378409E-2	-2.871673E-2	-1.618770E-2	-2.864687E-2	-1.923381E-2	-1.740902E-2	-1.782196E-2	-2.198469E-2	-1.772916E-2	-2.485861E-2	-3.728234E-2	-2.264404E-2	-2.150001E-2	-1.677845E-3	-3.139806E-2	-1.992286E-2	-1.454124E-2	-5.898417E-3	-2.750579E-2	-3.344400E-2	-1.941783E-2	-3.110458E-2	-1.203073E-2	-2.801938E-2	-3.183561E-2	-1.090083E-2	-1.968780E-2	-3.774243E-2	-1.408643E-2	-1.510841E-2	-2.002662E-2	-2.889445E-2	-2.918796E-2	-2.185038E-2	-3.081353E-2	-2.787396E-2	-2.709987E-2	-2.187513E-2	-2.612500E-2	-1.872357E-2	-7.091209E-3	-1.811168E-2	-2.299272E-2	-2.289198E-2	-2.610920E-2	-2.195504E-2	-2.489744E-2	-3.291105E-2
5.295010E+2	-3.545474E-3	-1.142658E-2	5.434437E-6	-9.365727E-3	6.137215E-3	3.956178E-3	-1.549053E-2	9.927466E-3	1.224298E-2	-4.898734E-3	3.721486E-3	-1.598037E-3	-1.026090E-2	-8.169073E-3	-6.856272E-3	-1.020732E-2	-6.340070E-3	1.370954E-3	-1.665790E-2	1.454911E-3	2.215586E-2	3.533596E-3	-7.134191E-3	-1.643684E-4	-1.070647E-2	7.041739E-3	4.903359E-3	-3.801340E-3	-9.502087E-3	5.583590E-3	-6.949930E-3	-7.393134E-3	1.298364E-3	1.125132E-4	-1.053746E-2	3.164296E-3	7.225813E-3	1.548725E-3	2.388570E-3	2.816470E-3	-4.007747E-3	-1.743385E-2	1.062996E-3	6.742819E-3	-7.108435E-3	-5.783005E-3	-1.386764E-2	-5.181061E-3	-6.651915E-3	6.363345E-3	-4.588370E-3	1.194026E-3	-2.634492E-3	-1.845062E-2	2.642550E-2	9.299638E-4	3.361271E-3	-7.252054E-4	-7.750506E-3	1.136116E-2	-1.050437E-2	8.292966E-3	6.671785E-3	8.762891E-4	1.076891E-2	-2.466830E-3	-3.707212E-3	-1.343010E-2	-1.174119E-4	1.217301E-2	-4.684125E-3	-2.131380E-2	-1.039083E-2	3.529740E-3	3.187749E-3	-2.960217E-3	3.665170E-3	6.315130E-3	6.627302E-3	1.747241E-3	-1.370898E-2	-6.249186E-3	3.965001E-3	-2.170888E-2	-1.054119E-3	1.862073E-2	-3.534093E-3	2.920382E-3	-4.109751E-3	3.656409E-3	5.988750E-3	-8.821431E-3	1.012377E-2	1.733283E-2	-5.886222E-3	-2.533745E-2	-1.401659E-2	-1.631134E-3	-7.786004E-4	6.463387E-3	8.552327E-3	8.391950E-3	-5.084283E-3	9.023098E-3	-7.521812E-3	1.227764E-2	5.735186E-3	7.218255E-3	-4.860542E-3	4.849711E-3	4.169055E-3	5.257638E-3	6.765457E-3	-8.187455E-3	1.000134E-2	-2.117975E-2	4.549261E-3	-3.596139E-3	-8.755341E-3	-2.055271E-3	-5.555732E-3	4.903507E-3	-2.864226E-4	-6.526440E-3	-5.366968E-5	4.923531E-3	1.625908E-3	-1.061293E-2	-2.332437E-2	4.732857E-3	4.249616E-3	1.041116E-3	-3.106122E-3	1.494355E-2	-3.806421E-3	8.788761E-3	-7.469575E-3	1.667643E-3	-6.137602E-3	1.408753E-2	1.519185E-3	2.400890E-3	2.389501E-3	-1.889989E-2	1.291334E-3	-1.951365E-2	1.676736E-2	2.013239E-4	4.834215E-3	1.375865E-2	2.041308E-3	1.533283E-2	-1.216585E-2	3.239322E-3	-1.249943E-3	-9.343368E-3	-6.042380E-3	-1.276107E-2	-9.155162E-4	1.072386E-3	9.730756E-4	-1.715007E-2	-1.500297E-3	-2.394597E-2
5.300010E+2	2.134546E-2	3.017954E-2	5.006015E-2	4.688136E-2	1.467380E-2	2.277039E-2	3.935188E-2	3.984980E-2	2.321627E-2	2.575155E-2	4.043685E-2	4.727910E-2	3.583071E-2	3.314005E-2	4.683668E-2	3.112587E-2	2.960786E-2	6.485373E-3	2.723867E-2	2.514924E-2	1.518602E-2	1.683556E-2	3.668076E-2	3.784248E-2	1.625119E-2	1.970564E-2	3.749858E-3	3.907877E-2	2.555809E-2	1.242836E-2	3.520249E-2	2.281243E-2	1.792748E-2	2.208134E-2	3.986931E-2	1.648609E-2	2.153914E-2	3.495109E-2	3.327597E-2	4.639951E-3	1.712851E-2	3.134158E-2	4.208492E-2	2.691855E-2	3.050922E-2	1.269083E-2	3.557239E-2	3.024332E-2	2.407256E-2	1.783369E-2	2.310951E-2	2.597949E-2	1.241319E-2	1.127540E-2	1.239652E-2	4.049620E-2	2.539716E-2	4.081950E-2	1.799971E-2	4.002974E-2	3.882272E-2	1.895213E-2	1.626598E-2	2.675799E-2	2.347659E-2	2.670512E-2	1.991898E-2	1.262105E-2	2.971783E-2	2.265783E-2	3.179095E-2	4.106963E-2	3.334533E-2	3.324573E-2	1.841660E-2	2.945577E-2	1.139419E-2	1.276803E-2	4.292245E-2	2.409202E-2	3.276780E-2	2.542829E-2	2.049183E-2	2.296607E-2	1.528222E-2	2.162525E-2	-3.913147E-3	1.856996E-2	2.011309E-2	2.951921E-2	1.007585E-2	1.339409E-2	3.563653E-2	3.688585E-3	3.066139E-2	2.880596E-2	1.952399E-2	1.734824E-2	2.899195E-2	2.549955E-2	4.336951E-2	2.936654E-2	2.538368E-2	5.103166E-2	1.278799E-2	3.672878E-2	3.379975E-2	2.753930E-2	2.439623E-2	1.504870E-2	2.830958E-2	2.967190E-2	3.392214E-2	2.643610E-2	1.425054E-2	3.519761E-2	2.330906E-2	2.663572E-2	2.094255E-2	4.180767E-2	2.951857E-2	3.177717E-2	2.336057E-2	2.799389E-2	1.424343E-2	3.931990E-2	1.748094E-2	5.238403E-2	1.748363E-2	1.428044E-2	3.331629E-2	3.213099E-2	1.261771E-2	2.030970E-2	3.663848E-2	1.788176E-2	4.594315E-2	3.028583E-2	1.381548E-2	2.751884E-2	4.517385E-2	3.321544E-2	1.443354E-2	4.403803E-2	2.256540E-2	3.407648E-2	9.561827E-3	4.041716E-2	4.368056E-2	3.329515E-2	1.485807E-2	4.158374E-2	4.471324E-2	1.356248E-2	2.612957E-2	2.218520E-2	1.806681E-2	3.483415E-2	3.462918E-2	2.160520E-2	2.334964E-2	2.870677E-2	1.549906E-2	4.593213E-2
5.305030E+2	7.498898E-3	2.500635E-2	1.521650E-2	2.055237E-2	1.253557E-2	1.507708E-2	1.602014E-2	1.453680E-2	8.437787E-3	1.945827E-2	8.079317E-3	-4.315609E-3	3.204190E-2	7.695203E-3	2.187282E-2	2.148195E-2	1.467571E-2	2.263565E-2	1.616802E-4	1.971792E-2	2.038180E-2	-4.814306E-4	3.512125E-3	2.340506E-2	9.656558E-3	5.016453E-3	2.669006E-2	2.024418E-3	1.892195E-2	2.358452E-2	6.809312E-3	-3.093142E-3	2.506957E-2	1.467549E-2	2.218613E-2	9.644961E-3	2.069705E-2	1.703716E-2	1.799171E-2	2.533172E-2	2.544514E-2	9.510081E-3	7.230781E-3	3.529932E-3	1.883985E-2	1.227748E-2	5.504315E-3	1.550743E-3	7.774809E-3	1.129389E-2	1.153372E-2	1.987510E-2	1.022655E-2	2.361318E-2	2.790737E-2	2.423393E-2	5.977829E-3	1.725302E-2	2.327413E-2	-6.736664E-4	9.037102E-3	2.414737E-2	2.760783E-2	9.839240E-3	-4.901872E-3	1.847907E-2	1.898783E-2	2.964500E-2	1.251357E-2	2.477049E-2	3.810298E-3	5.536507E-3	2.597919E-3	2.069744E-2	5.167249E-3	-4.858162E-3	2.298993E-2	1.332277E-2	1.256703E-2	2.603056E-2	1.647456E-2	9.645530E-3	2.015643E-2	2.556057E-2	3.597297E-2	2.418992E-2	1.068558E-2	3.490489E-3	-1.241681E-2	1.377478E-2	2.034990E-2	8.724974E-3	2.053122E-2	1.389498E-2	3.648512E-2	2.332769E-2	1.021476E-2	9.346972E-3	-1.056415E-3	3.348327E-3	5.333224E-3	-2.269044E-3	-7.353977E-4	2.190743E-2	1.246955E-2	6.537388E-3	-4.444475E-3	3.776197E-3	1.862169E-2	1.172284E-2	1.602369E-2	7.425675E-3	8.994945E-3	5.298034E-3	6.150816E-3	-1.318374E-3	1.736332E-2	8.769541E-3	9.925951E-3	1.514365E-2	1.518181E-2	2.189039E-2	1.254593E-2	3.761637E-2	1.742825E-2	2.122141E-2	1.867096E-2	2.616643E-3	2.434630E-2	2.004563E-2	2.095022E-2	1.020647E-2	1.303962E-2	2.573806E-2	8.751170E-3	1.540946E-2	1.826191E-3	-5.557347E-3	9.321961E-3	2.942797E-2	8.148786E-3	1.115129E-2	2.218839E-2	1.542270E-2	5.712322E-3	9.865013E-6	1.575836E-3	3.387238E-2	1.644710E-2	2.241614E-2	1.094308E-2	1.907924E-2	4.835083E-3	2.468448E-2	3.413060E-3	2.493196E-2	9.609924E-3	2.367681E-2	1.402962E-2	-6.133435E-3	2.380550E-2	3.262563E-2	5.409971E-2	2.330962E-2
5.310050E+2	5.546889E-3	-1.454374E-2	-2.888828E-3	-1.180402E-2	-8.650836E-3	9.754201E-3	8.440093E-3	-1.015102E-2	-7.957460E-3	-2.451463E-3	1.597376E-3	-6.754152E-3	-9.294113E-3	4.377801E-3	-5.448460E-3	1.631449E-3	-6.664810E-3	-6.249143E-4	1.500151E-2	-2.588437E-3	-7.890151E-3	1.179584E-2	2.587259E-3	-2.234592E-3	-2.633935E-3	1.395792E-2	-4.782505E-3	3.822429E-3	-4.775911E-5	-1.204336E-2	1.651100E-3	4.576438E-5	1.799783E-3	5.753080E-3	-3.331702E-3	1.100099E-3	-1.058423E-2	-1.024274E-2	6.526084E-3	1.381243E-2	-1.146295E-2	-8.292964E-3	4.662404E-4	2.515582E-3	-2.486664E-3	6.321259E-3	1.542892E-3	1.168232E-2	-3.316587E-3	8.433196E-3	-4.875668E-3	6.181459E-3	-8.959408E-5	4.814514E-3	-2.449631E-2	-1.468516E-2	-1.239970E-3	-1.286124E-2	-1.841800E-3	-5.096244E-3	1.862062E-2	1.367410E-3	-9.400454E-3	-9.940986E-4	-1.908462E-2	4.151212E-3	-3.312118E-3	5.681381E-3	9.061613E-3	-9.018958E-3	5.594902E-3	9.424765E-3	2.969829E-3	-4.733129E-3	-2.070078E-2	9.576245E-3	-4.916972E-3	-4.005290E-3	-1.564875E-2	-4.630845E-3	1.216262E-2	7.749687E-3	-8.746891E-3	1.540325E-2	-4.771825E-3	-1.737180E-2	-4.588622E-3	-6.024778E-4	6.708632E-3	-3.172981E-3	-1.329860E-2	-2.570063E-3	-2.014963E-2	-1.892114E-2	-1.834601E-3	-6.987402E-4	-2.492566E-2	-1.668143E-3	-8.194894E-3	-9.551008E-3	6.133554E-4	-9.794567E-3	1.059924E-2	-7.989475E-3	-2.335830E-3	2.308079E-3	5.379440E-3	-2.905409E-3	1.845351E-2	4.149539E-3	2.584237E-3	2.220375E-3	-2.847415E-3	-8.677199E-3	3.158741E-3	-8.958314E-4	5.796156E-3	7.962164E-3	-6.044791E-3	-7.337945E-3	-5.145874E-3	-9.432563E-3	-8.560548E-3	-7.597674E-3	-7.256782E-3	-2.481935E-2	-1.224669E-2	-6.282475E-4	9.219058E-3	-5.961736E-3	-1.578209E-3	1.295948E-2	1.496313E-2	-1.584716E-3	-2.418161E-3	-3.840374E-3	-1.344399E-2	6.541845E-3	1.267985E-2	-1.334239E-3	-5.137891E-3	8.952493E-3	-1.318925E-3	1.215573E-2	-5.422467E-3	-1.233266E-2	1.136653E-2	-5.688884E-3	-1.711394E-2	-2.039649E-3	1.580705E-2	1.502823E-3	1.380421E-2	3.045070E-5	-6.658650E-3	-1.370544E-3	-1.456518E-2	-3.633482E-3	-9.805220E-3	8.722904E-3	-1.433007E-2	1.706544E-2	-1.353602E-2	2.673457E-2
5.315030E+2	-2.421747E-2	2.522741E-3	-1.104453E-2	-1.993747E-2	7.356061E-3	-2.232147E-2	-2.066576E-2	3.169695E-4	-2.445607E-2	-3.060084E-2	-1.732088E-2	-1.692444E-2	-2.177857E-2	-1.202555E-2	-1.244646E-2	-1.427128E-2	-1.198052E-2	-2.336437E-2	8.438617E-4	-1.328768E-2	-2.263774E-2	-2.224889E-2	-1.074004E-2	2.668787E-3	-7.270260E-3	-6.846071E-3	-9.810046E-3	-1.327454E-2	-1.074286E-2	-1.302286E-2	-7.012418E-3	-1.705735E-2	-2.567318E-2	-1.187652E-2	-3.111708E-2	-1.804544E-2	-1.094364E-2	-2.205152E-2	-1.561756E-2	-3.085994E-2	-1.766063E-2	2.499931E-3	-2.637297E-2	-2.117567E-2	-1.170484E-2	-1.527534E-2	-1.981353E-2	-2.191975E-2	3.109907E-3	-3.329386E-4	-1.337381E-2	-1.948559E-2	-1.251827E-2	-5.487073E-3	-2.763448E-2	-2.497527E-2	-1.220158E-2	-9.187082E-3	-1.831765E-2	-2.076277E-2	-2.696892E-2	-1.781970E-2	-1.229512E-2	-1.595365E-2	-1.663754E-2	-1.328585E-2	-1.103407E-2	-8.163835E-3	-2.259881E-2	-1.641078E-2	8.006036E-3	-2.224329E-2	-2.125153E-2	-2.386751E-2	-9.100396E-3	-1.334823E-2	-2.869566E-2	-1.172425E-2	-1.271014E-2	-2.712107E-2	-6.603111E-3	-1.054142E-2	-1.651689E-2	-1.683745E-2	-2.190507E-2	-2.652347E-2	-7.180998E-3	-7.160709E-3	-4.000296E-4	-4.902984E-3	-7.683065E-3	3.729179E-3	-2.109139E-2	-1.566634E-2	-2.352968E-2	-1.514886E-2	-5.615240E-3	-1.348141E-2	3.215048E-3	-3.108775E-2	-2.981134E-2	-2.416249E-2	-2.432501E-2	-1.640062E-2	-1.804270E-3	-1.347402E-2	-8.772661E-3	-2.032056E-2	-2.548789E-2	-1.759716E-2	-1.164505E-2	-3.779016E-3	-3.163848E-2	3.218675E-3	-1.133514E-2	-5.918932E-3	-2.160953E-2	-1.033315E-2	-6.019458E-4	-9.107893E-3	4.396624E-4	-1.489784E-2	-8.051012E-3	-1.406904E-2	-1.387247E-2	-1.990120E-2	-7.762403E-3	-1.212078E-2	-6.793676E-3	-1.109368E-2	-2.547156E-2	-1.919615E-2	-1.556154E-2	-3.417589E-2	-1.592722E-2	-3.463784E-3	-4.442232E-3	-1.185015E-2	-4.360842E-3	-2.278767E-2	-1.776498E-3	-2.884150E-2	9.764834E-4	-8.775714E-4	-1.332333E-3	-2.884459E-3	-1.478261E-2	-2.970255E-2	-8.943641E-3	-1.085885E-2	-1.591198E-2	-2.269925E-2	-2.793892E-2	-2.034037E-2	2.349220E-3	-2.241240E-2	-2.386769E-2	-1.327872E-2	-1.666769E-2	-2.423472E-2	-7.331788E-3	-3.475981E-2	-5.778691E-3	-2.811079E-2
5.320070E+2	1.630503E-3	-2.039384E-2	-5.187146E-3	-1.458045E-2	-1.224295E-2	-9.870544E-3	-1.784902E-2	-2.684624E-2	1.029729E-2	-3.121001E-3	-1.418832E-2	-1.883046E-3	-4.422180E-3	-1.602304E-2	-3.624524E-2	-2.273873E-2	-3.200065E-3	-1.445179E-2	-1.670973E-2	-1.222390E-2	-1.270548E-2	1.441000E-5	-1.420942E-2	-2.116273E-2	-1.468606E-2	-1.775369E-2	-6.093341E-3	-4.954677E-3	-3.095000E-5	-1.331035E-2	-1.218105E-2	-1.530167E-2	-9.080832E-3	-7.922005E-3	-1.599163E-2	-5.552187E-3	-1.124334E-2	-1.755440E-3	-1.058999E-2	-2.746073E-4	3.560549E-3	-6.958933E-3	-3.136403E-3	-2.352204E-4	-1.475085E-2	-2.129357E-3	-1.078436E-2	-6.402551E-4	-1.005768E-2	-1.100388E-2	-1.519876E-2	-2.286487E-2	-1.621331E-2	-2.241142E-2	-5.584710E-3	-1.336551E-2	-1.933254E-2	-2.176279E-2	-1.871961E-2	-1.179442E-2	7.486558E-4	-7.759235E-3	-1.272001E-2	-1.198499E-3	-2.457710E-3	-1.714100E-2	-1.873336E-2	-2.669558E-2	-2.304182E-2	-2.867317E-2	-1.840863E-2	-3.715010E-3	-1.762837E-3	-1.661067E-2	-1.087053E-2	-1.298569E-2	-2.326610E-2	-1.538742E-2	-1.810773E-2	-9.954782E-3	-1.815168E-2	-1.161872E-2	-2.008081E-2	-8.665721E-3	-6.811386E-3	-1.494605E-2	-1.206713E-2	-2.378967E-2	-9.827497E-3	-2.237627E-2	-1.631841E-2	-1.431459E-2	-2.155375E-2	-1.603359E-2	-1.704236E-2	-2.302544E-2	2.472168E-3	-6.319142E-3	-2.233463E-2	5.386945E-3	-5.821837E-3	-6.637445E-3	-1.137613E-2	-2.217544E-2	-7.696963E-4	-1.831669E-2	-1.387607E-2	-1.654201E-2	-2.027245E-2	-3.997048E-3	-1.129860E-2	-1.484596E-2	3.814830E-3	-2.594538E-2	-1.019539E-2	-1.098787E-2	-1.984244E-2	-7.165434E-3	-7.449072E-3	-1.375791E-2	-3.055505E-2	-3.109547E-2	-9.179772E-3	-1.521179E-2	-1.772366E-2	-8.359526E-3	-3.456285E-3	-1.549519E-2	-1.934269E-2	-3.636069E-2	-1.377366E-3	-1.577392E-2	-1.591170E-2	-3.043878E-2	-3.667792E-3	-1.187561E-2	-1.985081E-2	-6.625399E-3	-1.037605E-2	-2.829654E-2	-3.050890E-2	-2.583931E-2	-3.113985E-2	-1.930917E-2	-1.694965E-2	-6.804897E-3	-2.217104E-2	-1.911860E-2	-2.568150E-2	-2.812446E-2	-1.041459E-2	-2.162639E-2	-8.841966E-3	-2.068541E-2	-1.689745E-2	-5.146039E-3	4.972554E-3	-1.752268E-2	-1.159210E-2	-4.231229E-3	-2.101776E-2	-2.516000E-2	-3.397492E-2	-4.528609E-2
5.325120E+2	1.932296E-2	2.250048E-2	5.862075E-4	1.866401E-2	2.202517E-3	-1.418443E-3	2.090373E-2	-1.631936E-2	1.913614E-2	3.380942E-3	9.669379E-3	2.005251E-3	8.767991E-3	1.492556E-2	1.772312E-2	7.512444E-3	1.692703E-2	1.905111E-2	8.000404E-3	1.833593E-2	1.173497E-2	1.973243E-2	9.743951E-3	-2.426897E-3	2.321848E-2	7.835428E-3	6.358670E-3	1.267580E-3	-1.598410E-3	2.594010E-2	-4.856563E-3	2.219394E-2	1.440970E-2	2.537784E-3	6.996566E-3	1.595710E-2	9.091048E-3	2.934148E-3	-2.021119E-4	-5.943067E-4	1.047610E-2	1.869241E-3	1.521782E-2	9.808869E-3	9.599122E-3	1.536024E-2	2.523328E-2	1.551711E-2	1.008078E-2	4.340152E-3	1.764701E-2	7.319157E-3	1.506351E-2	2.332575E-2	3.218080E-4	1.248827E-2	2.080964E-2	1.546880E-2	2.490636E-2	1.854483E-2	1.455883E-2	3.011016E-3	7.070781E-3	5.708549E-3	2.795169E-2	9.539026E-3	1.916974E-2	2.799358E-2	1.886704E-2	2.132104E-2	-3.457722E-3	1.857830E-2	2.714519E-2	1.020019E-2	1.664691E-2	2.280971E-2	3.986695E-2	2.693665E-2	8.517789E-3	1.187158E-2	4.939755E-3	8.991398E-3	2.166785E-2	6.668895E-3	5.739822E-4	1.422228E-2	2.077335E-2	1.885563E-2	1.772138E-2	1.231918E-2	2.989924E-2	1.189717E-2	5.959285E-3	2.689423E-2	1.424911E-2	2.743325E-2	2.467260E-2	1.882500E-2	2.221862E-2	3.019990E-2	1.100386E-2	1.951318E-2	1.520048E-2	-6.970537E-3	2.452777E-3	-8.226297E-5	7.580765E-3	1.993381E-2	1.216275E-2	2.429611E-2	-4.053070E-3	1.491584E-2	-1.666785E-3	2.642592E-2	1.377252E-2	1.736942E-2	2.421826E-2	6.444024E-3	8.170348E-3	3.954570E-3	1.535042E-2	1.426384E-2	7.993220E-3	-2.206239E-4	2.496406E-2	1.247385E-2	2.296991E-2	6.500521E-3	1.991174E-2	1.603503E-2	1.309072E-3	-1.445135E-3	8.500144E-3	1.110650E-2	7.935740E-3	1.054379E-2	1.685510E-2	1.664216E-2	-2.912063E-3	9.403485E-3	1.441708E-2	9.861540E-3	1.215866E-2	5.212609E-3	8.221827E-3	2.255774E-2	1.770871E-2	8.913617E-3	1.596518E-2	-6.596595E-3	1.349059E-2	-5.299037E-3	1.269408E-2	2.138418E-2	1.903919E-2	9.878748E-3	1.891717E-2	6.796672E-3	1.331444E-2	2.609088E-2	2.066061E-2	2.062707E-2	1.008860E-2	3.427756E-2
5.330080E+2	4.003424E-2	3.655421E-2	3.431070E-2	6.048862E-2	5.507647E-2	7.143820E-2	4.134040E-2	3.923399E-2	6.566341E-2	4.539036E-2	4.560700E-2	3.032823E-2	5.207624E-2	3.169408E-2	3.392590E-2	5.182742E-2	5.139259E-2	4.222422E-2	5.158558E-2	4.542931E-2	4.531797E-2	5.300279E-2	4.303082E-2	3.176783E-2	6.413425E-2	4.690304E-2	4.591579E-2	2.802630E-2	4.375480E-2	5.390685E-2	4.232542E-2	3.906967E-2	4.352321E-2	8.117557E-2	4.658160E-2	4.443690E-2	5.758110E-2	4.782196E-2	3.683482E-2	3.096958E-2	5.435150E-2	5.167060E-2	6.796989E-2	6.496098E-2	5.400984E-2	2.867530E-2	3.268170E-2	5.966404E-2	4.264584E-2	6.097558E-2	4.405102E-2	5.060298E-2	4.718133E-2	4.253703E-2	4.549484E-2	4.350775E-2	4.690176E-2	5.152084E-2	6.060182E-2	4.369819E-2	2.778160E-2	2.239681E-2	6.303668E-2	3.752104E-2	4.967162E-2	4.402088E-2	4.687846E-2	4.659270E-2	6.100659E-2	2.593962E-2	6.471269E-2	4.978372E-2	5.232029E-2	6.585979E-2	4.496881E-2	3.989504E-2	4.333067E-2	4.089814E-2	2.931944E-2	5.381555E-2	3.154574E-2	5.076792E-2	5.295598E-2	5.862530E-2	4.265116E-2	3.284531E-2	3.791189E-2	4.810184E-2	3.785072E-2	3.715804E-2	4.243855E-2	8.204031E-2	5.582113E-2	4.794597E-2	5.900920E-2	3.610268E-2	3.637459E-2	4.832614E-2	6.035419E-2	5.339779E-2	5.440035E-2	5.456071E-2	6.002799E-2	5.320164E-2	7.699641E-2	5.808654E-2	4.572878E-2	4.211241E-2	1.957042E-2	5.413057E-2	2.661853E-2	4.770963E-2	4.946865E-2	3.919851E-2	6.232753E-2	3.494521E-2	5.772289E-2	4.320067E-2	3.405165E-2	3.334949E-2	4.876365E-2	4.524737E-2	2.829642E-2	5.110121E-2	6.291445E-2	5.394534E-2	5.981931E-2	5.559085E-2	3.697095E-2	7.220284E-2	5.714886E-2	5.905052E-2	4.935099E-2	2.943842E-2	3.927781E-2	7.290875E-2	4.182767E-2	4.001633E-2	5.238068E-2	4.950677E-2	5.151261E-2	5.446941E-2	6.609767E-2	4.577715E-2	6.720845E-2	3.899284E-2	5.854938E-2	5.691588E-2	3.593630E-2	6.892980E-2	3.970191E-2	6.092917E-2	2.800289E-2	4.788291E-2	4.678260E-2	4.467533E-2	4.644159E-2	3.524256E-2	3.592209E-2	6.127473E-2	3.760304E-2	6.353764E-2	1.719196E-2	2.607775E-2
5.332150E+2	4.265679E-2	1.592945E-2	3.857805E-2	1.342248E-2	6.048337E-2	6.370843E-2	4.575392E-2	6.017599E-2	2.295124E-2	1.362564E-2	2.872129E-2	1.590528E-2	3.888703E-2	5.220960E-2	4.487138E-2	2.625150E-2	3.693666E-2	2.267891E-2	2.194428E-2	3.028861E-2	3.123954E-2	2.404164E-2	2.130027E-2	3.615888E-2	3.895468E-2	2.795983E-2	2.758709E-2	2.336870E-2	4.810219E-2	4.476046E-2	1.982343E-2	3.978986E-2	3.916920E-2	3.383890E-2	2.120942E-2	3.453323E-2	5.273598E-2	3.967305E-2	4.187010E-2	4.061782E-2	3.298244E-2	3.442497E-2	1.732132E-2	4.147377E-2	2.355225E-2	2.915801E-2	3.354045E-2	5.288906E-2	3.565360E-2	4.321543E-2	2.716451E-2	1.858265E-2	4.156676E-2	5.246923E-2	2.956600E-2	4.487019E-2	5.786263E-2	2.731818E-2	2.227705E-2	3.899004E-2	5.119563E-2	3.388919E-2	2.300949E-2	2.911175E-2	4.727562E-2	3.250798E-2	2.696969E-2	4.861426E-2	3.790201E-2	5.108176E-2	1.539509E-2	5.353379E-2	3.342257E-2	4.604653E-2	4.563240E-2	4.058379E-2	5.265754E-2	3.471671E-2	2.532213E-2	5.142080E-2	7.096502E-2	4.409799E-2	2.876565E-2	3.859439E-2	4.745346E-2	4.346462E-2	2.437016E-2	4.024411E-2	2.997953E-2	4.633216E-2	3.763343E-2	3.142133E-2	4.418329E-2	3.140145E-2	3.261307E-2	5.324596E-2	2.842840E-2	3.079995E-2	3.956751E-2	2.164242E-2	4.699402E-2	4.934578E-2	4.601029E-2	3.059139E-2	5.402870E-2	2.027392E-2	2.334590E-2	4.702024E-2	3.055849E-2	3.714939E-2	4.788253E-2	3.886193E-2	2.859888E-2	2.514172E-2	2.247320E-2	3.855828E-2	3.013287E-2	4.721208E-2	4.693669E-2	4.185026E-2	5.307670E-2	3.599989E-2	4.488919E-2	2.844085E-2	3.012477E-2	5.447302E-2	3.809646E-2	5.086106E-2	4.180548E-2	4.344457E-2	2.294864E-2	3.921135E-2	4.203613E-2	3.128413E-2	3.765100E-2	1.801985E-2	4.943271E-2	4.678304E-2	5.074449E-2	4.337857E-2	5.277486E-2	2.951957E-2	3.686751E-2	4.327645E-2	2.960386E-2	3.879673E-2	4.817700E-2	2.882857E-2	4.268514E-2	2.257010E-2	2.466175E-2	4.907201E-2	4.658128E-2	5.940483E-2	3.966798E-2	3.979036E-2	3.485576E-2	5.249539E-2	4.673149E-2	3.903685E-2	4.554739E-2	3.921548E-2	3.623102E-2	-2.884842E-3
5.334160E+2	1.124203E-2	9.863995E-4	1.410726E-2	3.767626E-2	3.839547E-2	2.004080E-2	1.159876E-2	1.471690E-2	1.185519E-2	1.410929E-2	2.540630E-2	2.278717E-2	2.783404E-3	1.633432E-2	1.539973E-2	1.093202E-2	1.897717E-2	-1.356064E-2	1.997130E-2	2.705952E-2	1.583125E-2	6.475974E-3	2.759132E-2	9.554390E-3	3.235924E-2	1.979480E-2	2.221559E-2	2.167892E-2	1.065794E-2	2.270391E-3	3.477819E-2	1.416307E-2	1.499867E-2	5.265697E-3	1.378664E-2	2.022524E-2	2.345585E-3	2.582697E-2	9.197316E-3	3.690594E-2	8.748541E-3	1.579396E-2	1.029102E-2	3.088808E-2	2.755336E-2	6.032456E-3	7.873280E-3	3.024558E-2	6.689618E-3	4.248251E-2	-6.036703E-3	1.077052E-2	-5.976996E-4	3.153834E-2	3.477572E-2	1.187719E-2	-5.360936E-4	1.133333E-2	4.278842E-2	1.802806E-2	1.330113E-2	2.663563E-2	1.497153E-2	6.011170E-3	2.641893E-2	3.214903E-2	-3.116302E-3	9.450597E-3	2.108145E-2	3.759634E-2	1.613011E-2	1.213108E-2	6.764564E-3	4.523774E-2	4.429694E-3	1.399612E-2	2.610866E-2	1.207772E-2	1.055763E-2	9.683064E-3	2.531751E-2	2.437695E-2	5.804450E-3	3.566199E-3	3.034377E-2	1.434389E-2	1.424656E-3	3.416791E-3	1.379011E-2	1.017074E-2	1.244472E-2	1.229564E-2	2.323022E-2	3.069358E-2	8.136880E-3	7.354379E-3	2.341911E-2	3.161950E-2	3.242556E-3	1.144592E-2	2.576178E-2	1.602268E-2	3.235441E-2	2.009905E-2	5.222890E-3	4.982872E-3	3.207411E-3	1.647454E-2	2.563078E-2	9.046388E-3	6.654073E-3	2.203296E-2	-2.546985E-3	4.702768E-2	-1.386891E-3	1.867617E-2	2.717956E-2	-6.192770E-3	1.512012E-2	1.567187E-2	1.300298E-2	8.017298E-3	1.054176E-2	-7.825898E-3	2.370660E-2	1.191926E-2	1.895341E-2	4.403405E-2	1.637631E-2	2.879645E-2	1.626768E-2	2.711114E-2	1.344590E-2	1.742926E-2	1.317708E-2	1.951200E-2	6.383374E-4	-6.381478E-3	6.329404E-3	7.282955E-3	1.740769E-2	-4.160605E-3	1.221333E-2	1.457842E-2	1.184626E-2	1.684750E-2	2.048583E-2	-1.431535E-3	2.447898E-2	4.317824E-2	1.981854E-2	1.469127E-2	3.458931E-2	3.875137E-2	6.613112E-3	3.844773E-3	3.322256E-2	2.204000E-3	2.656997E-2	2.048965E-2	3.031343E-2	3.886824E-2	2.323755E-2	-1.413035E-2
5.336130E+2	-2.051696E-3	1.031458E-2	-1.900862E-3	-6.936040E-3	6.915611E-3	-4.980262E-3	5.556175E-3	4.878277E-3	-1.559713E-2	-5.380567E-3	8.397875E-3	6.233377E-3	-1.825605E-3	-3.367628E-3	-1.032819E-2	-1.028094E-3	1.090267E-2	5.658023E-3	7.155400E-3	9.598595E-3	1.424265E-2	1.371927E-2	7.032881E-3	4.073047E-3	2.645650E-2	-1.128135E-2	5.590605E-3	1.629296E-2	1.309994E-2	-1.016835E-2	5.768768E-3	9.691017E-3	-2.445144E-3	2.812283E-3	8.309329E-3	5.851386E-3	1.292012E-2	2.564962E-2	-8.997762E-3	2.031389E-2	2.969003E-2	-7.208367E-3	-6.417635E-3	-1.429069E-3	4.551333E-3	-4.271590E-3	-1.270940E-2	4.113390E-3	-6.603133E-3	1.489612E-3	-2.858977E-3	1.353833E-2	3.918856E-3	8.458825E-3	2.337427E-2	-1.701008E-2	3.736886E-3	1.737911E-2	-4.396950E-3	-9.484197E-3	-3.134450E-3	1.599353E-3	7.024129E-4	1.389309E-2	-5.621967E-3	-7.302363E-3	-4.619563E-3	1.706357E-2	-6.944851E-3	-8.664483E-4	-1.578563E-5	-2.233236E-3	1.012433E-3	1.686642E-2	1.660321E-2	-2.675460E-2	-2.843015E-3	2.214713E-2	1.175840E-2	-2.276128E-3	-4.066121E-3	-8.802783E-3	-1.222594E-2	-1.082766E-3	1.662641E-3	-5.147996E-3	-7.662538E-3	1.253425E-2	6.614563E-3	-9.637939E-3	-6.147287E-3	1.206569E-2	-1.690671E-4	8.273942E-3	-1.090744E-3	-1.271533E-3	9.024770E-3	6.967855E-3	-3.303939E-3	1.515242E-2	2.903798E-3	9.301273E-3	1.944920E-2	1.531741E-2	-1.134345E-2	1.650614E-2	-2.273134E-3	-8.794018E-3	-1.409173E-2	-2.413977E-3	-3.117603E-3	9.459511E-3	-1.323409E-3	2.981223E-3	1.143648E-2	-5.784873E-4	3.773962E-3	-5.718866E-3	2.670777E-3	3.038266E-3	1.366740E-3	-1.459487E-2	1.783247E-2	1.464459E-2	-9.286489E-3	-1.598092E-3	3.490425E-3	-1.216019E-2	4.539264E-3	1.533643E-2	-6.951721E-3	-1.495535E-2	3.581479E-4	-4.276982E-3	5.630636E-3	1.637210E-2	2.693700E-3	3.484855E-2	1.457903E-2	1.412862E-2	3.975026E-3	-9.024214E-3	3.090067E-3	3.475170E-3	-1.048324E-2	1.372129E-3	4.053850E-3	1.005331E-2	-4.899218E-3	8.795079E-3	6.770856E-3	1.778030E-2	5.029101E-3	2.071116E-2	9.731567E-3	1.494717E-2	-1.025286E-2	7.542152E-3	7.793307E-3	2.266708E-4	1.001698E-2	1.141854E-2	-1.822605E-2	-3.057721E-2
5.338050E+2	2.269624E-2	2.775728E-2	4.474298E-2	2.171581E-2	5.697183E-2	4.886219E-2	4.968751E-2	4.205047E-2	1.269662E-2	3.572935E-2	3.684999E-2	5.092705E-2	3.393203E-2	2.111105E-2	2.033987E-2	3.681585E-2	2.131277E-2	1.884339E-2	1.650176E-2	4.685863E-2	4.466499E-2	2.361071E-2	1.386713E-2	5.883772E-3	2.474011E-2	4.231184E-2	4.042803E-2	2.928488E-2	1.812140E-2	2.706771E-2	1.276041E-2	3.512193E-2	2.415602E-2	5.226367E-2	2.738180E-2	2.872040E-2	2.143474E-2	3.044454E-2	2.682324E-2	2.301645E-2	4.844440E-2	2.883133E-2	2.226562E-2	5.294121E-2	4.526862E-2	1.560892E-2	2.664688E-2	3.868544E-2	2.971785E-2	3.891535E-2	2.472433E-2	3.301762E-2	3.568563E-2	4.002317E-2	2.114804E-2	2.293301E-2	2.162074E-2	2.195267E-2	3.624880E-2	3.499406E-2	4.007789E-2	3.098095E-2	3.135975E-2	2.317999E-2	2.516442E-2	4.472000E-2	2.144405E-2	4.238512E-2	4.114074E-2	3.573847E-2	2.454123E-2	4.342287E-2	4.430282E-2	3.420974E-2	3.431870E-2	5.321219E-2	2.120399E-2	2.948013E-2	2.829738E-2	3.406180E-2	5.138239E-2	3.276975E-2	3.036125E-2	4.014184E-2	3.068399E-2	3.103421E-2	2.742683E-2	1.896511E-2	3.463385E-2	2.856096E-2	3.755324E-2	2.229547E-2	5.478542E-2	2.386892E-2	3.779820E-2	3.720851E-2	1.085739E-2	3.693692E-2	1.764986E-2	2.439545E-2	1.937614E-2	3.235041E-2	3.627411E-2	3.928977E-2	3.147221E-2	1.259141E-2	3.963742E-2	1.294084E-2	3.236620E-2	1.785917E-2	4.012225E-2	1.061933E-2	2.664957E-2	3.496902E-2	2.862661E-2	3.945010E-2	3.184620E-2	1.803735E-2	3.562740E-2	3.432801E-2	3.058821E-2	1.674111E-2	4.798698E-2	3.313433E-2	2.981143E-2	3.438137E-2	2.443801E-2	5.149124E-2	2.544534E-2	3.696995E-2	2.758631E-2	4.972756E-2	4.676594E-2	2.824858E-2	6.063701E-3	3.549918E-2	4.641045E-2	1.986327E-2	3.101902E-2	3.474535E-2	3.114450E-2	3.683209E-2	3.199966E-2	4.633361E-2	1.065511E-2	4.303848E-2	1.914405E-2	3.711756E-2	2.635031E-2	3.076705E-2	2.464067E-2	4.715770E-2	1.179145E-2	3.158288E-2	2.826000E-2	3.741080E-2	3.855353E-3	3.031345E-2	3.399261E-2	4.391659E-2	3.393184E-2	4.967271E-2	1.543069E-2	5.665994E-2
5.340070E+2	7.214279E-2	6.985264E-2	8.147706E-2	1.114542E-1	9.724060E-2	6.921300E-2	7.137785E-2	9.383791E-2	1.004388E-1	7.301958E-2	8.976359E-2	9.716740E-2	6.998796E-2	8.969496E-2	6.781074E-2	8.489363E-2	1.044256E-1	6.999313E-2	9.197604E-2	8.980400E-2	8.935294E-2	7.433567E-2	6.914287E-2	7.320555E-2	7.783069E-2	6.792748E-2	1.047842E-1	1.054993E-1	6.824422E-2	1.048758E-1	1.045467E-1	1.007967E-1	9.255630E-2	8.152148E-2	7.945072E-2	8.407061E-2	1.025604E-1	7.683642E-2	8.644378E-2	7.966610E-2	7.180016E-2	9.025586E-2	6.713888E-2	9.855760E-2	1.002791E-1	7.552838E-2	8.491774E-2	9.104977E-2	7.534466E-2	9.260358E-2	7.777221E-2	7.483933E-2	8.481407E-2	9.227358E-2	8.878477E-2	9.786958E-2	7.250999E-2	7.115357E-2	9.395060E-2	8.625807E-2	9.047284E-2	7.714174E-2	8.722555E-2	6.396675E-2	7.261283E-2	9.035638E-2	8.570595E-2	8.099365E-2	9.118886E-2	7.902618E-2	7.555450E-2	9.186463E-2	8.321154E-2	8.372505E-2	8.135000E-2	8.611543E-2	8.566886E-2	1.043146E-1	8.258060E-2	7.729012E-2	8.481553E-2	7.028471E-2	5.484224E-2	9.944540E-2	8.697712E-2	1.002561E-1	1.021027E-1	7.519338E-2	8.218099E-2	7.148210E-2	9.304475E-2	1.030464E-1	8.365302E-2	8.502954E-2	5.423953E-2	1.026331E-1	8.409603E-2	7.882382E-2	7.060151E-2	6.486710E-2	9.863701E-2	9.237529E-2	8.129941E-2	8.908645E-2	5.261764E-2	8.247425E-2	6.993940E-2	1.035773E-1	8.350119E-2	7.605529E-2	9.091544E-2	7.499964E-2	5.863542E-2	9.970461E-2	6.794969E-2	7.585255E-2	8.648955E-2	9.394977E-2	9.936987E-2	1.079355E-1	1.051579E-1	9.212285E-2	8.061517E-2	7.226927E-2	8.440290E-2	8.013416E-2	8.466640E-2	8.501970E-2	7.524585E-2	8.862041E-2	1.057727E-1	9.415340E-2	9.428229E-2	8.210211E-2	6.057422E-2	7.808779E-2	6.228545E-2	9.606196E-2	9.179320E-2	1.050223E-1	8.763486E-2	7.832606E-2	8.111767E-2	8.955787E-2	7.666935E-2	1.013287E-1	9.601715E-2	9.763999E-2	8.963552E-2	9.118955E-2	8.329672E-2	9.317044E-2	8.814042E-2	9.983276E-2	7.602316E-2	9.481361E-2	7.938874E-2	1.015163E-1	8.487802E-2	7.744871E-2	1.027771E-1	1.103785E-1	9.342558E-2	5.436652E-2
5.342040E+2	1.039754E-1	9.562668E-2	9.771554E-2	1.102582E-1	1.070175E-1	8.536835E-2	8.650131E-2	9.271969E-2	8.066722E-2	1.103216E-1	7.653874E-2	9.241942E-2	8.685026E-2	9.668156E-2	1.001911E-1	8.969271E-2	9.956525E-2	9.228209E-2	1.171497E-1	1.086818E-1	9.309253E-2	8.451147E-2	1.060075E-1	8.696903E-2	1.118717E-1	1.233452E-1	7.280678E-2	9.178841E-2	1.068315E-1	9.512032E-2	1.039039E-1	1.078588E-1	1.146775E-1	1.249220E-1	9.692310E-2	1.100225E-1	9.773078E-2	9.934631E-2	1.005940E-1	1.182370E-1	9.599298E-2	9.872463E-2	1.114461E-1	1.040872E-1	9.142779E-2	1.059550E-1	1.195420E-1	1.017725E-1	8.276268E-2	7.465507E-2	9.147302E-2	1.058710E-1	8.380334E-2	9.429993E-2	1.217655E-1	9.173778E-2	1.078284E-1	8.777885E-2	8.554669E-2	8.513277E-2	9.935066E-2	1.089742E-1	8.723335E-2	1.076501E-1	1.023303E-1	9.661110E-2	1.176160E-1	1.283357E-1	7.582823E-2	1.031113E-1	8.928053E-2	1.260814E-1	1.160652E-1	9.498345E-2	7.429267E-2	9.907216E-2	1.056814E-1	1.022308E-1	9.733181E-2	1.033576E-1	1.072315E-1	1.040685E-1	8.975699E-2	7.956421E-2	8.357617E-2	6.944727E-2	9.157990E-2	1.082916E-1	8.194903E-2	1.019852E-1	8.790116E-2	9.074074E-2	8.206138E-2	1.103490E-1	1.174402E-1	1.272695E-1	9.965505E-2	7.934937E-2	1.108997E-1	8.924303E-2	9.788358E-2	7.678031E-2	1.148056E-1	9.704762E-2	1.024370E-1	1.044049E-1	1.182667E-1	9.986410E-2	1.061417E-1	7.941721E-2	1.249538E-1	1.078617E-1	1.078353E-1	8.992321E-2	1.182712E-1	6.199560E-2	1.053577E-1	9.096161E-2	8.395833E-2	9.893406E-2	1.226268E-1	8.630584E-2	9.427380E-2	9.485501E-2	8.784022E-2	7.660502E-2	1.022952E-1	1.284876E-1	9.566079E-2	1.105051E-1	1.120477E-1	1.354274E-1	9.921589E-2	8.125016E-2	1.110671E-1	1.026805E-1	1.144063E-1	1.023218E-1	7.964034E-2	9.660351E-2	9.645634E-2	9.731104E-2	1.090559E-1	1.009966E-1	9.810796E-2	1.212223E-1	7.069001E-2	1.030816E-1	1.053163E-1	9.176195E-2	1.063200E-1	1.168502E-1	6.963741E-2	8.503289E-2	1.187809E-1	1.325419E-1	1.341632E-1	8.715893E-2	1.171360E-1	1.252677E-1	1.156217E-1	8.668944E-2	7.269633E-2	9.400932E-2
5.344070E+2	1.107640E-1	1.110375E-1	1.118407E-1	1.135550E-1	1.323120E-1	1.441092E-1	1.116766E-1	1.014309E-1	1.165749E-1	9.368014E-2	1.259325E-1	1.256615E-1	1.327843E-1	1.524849E-1	1.202792E-1	1.057782E-1	1.314940E-1	1.521324E-1	1.186861E-1	1.197006E-1	1.178812E-1	9.618676E-2	1.042406E-1	1.283888E-1	1.677348E-1	1.235039E-1	1.289589E-1	1.264683E-1	1.297100E-1	1.396650E-1	1.327004E-1	1.190317E-1	1.318430E-1	1.324699E-1	1.226877E-1	1.616941E-1	1.247798E-1	1.418762E-1	1.176484E-1	1.395512E-1	1.485420E-1	1.311595E-1	1.666437E-1	1.407552E-1	1.432259E-1	1.177980E-1	1.465744E-1	1.391232E-1	1.396985E-1	1.376185E-1	1.418822E-1	1.043457E-1	1.128441E-1	1.334760E-1	1.214444E-1	1.306161E-1	1.383074E-1	1.256776E-1	1.495026E-1	1.258728E-1	1.316871E-1	1.418563E-1	1.384277E-1	1.341925E-1	1.409234E-1	1.288205E-1	1.229316E-1	1.198400E-1	1.402497E-1	1.256316E-1	1.263931E-1	1.356818E-1	1.387346E-1	1.436816E-1	1.504609E-1	1.195466E-1	1.203499E-1	1.205753E-1	1.288067E-1	1.440244E-1	1.392165E-1	1.451601E-1	1.289897E-1	1.257660E-1	1.418698E-1	1.157695E-1	1.425043E-1	1.393318E-1	1.457620E-1	1.329437E-1	1.432411E-1	1.242878E-1	1.413603E-1	1.515938E-1	1.230581E-1	1.630256E-1	1.151188E-1	1.209843E-1	1.303106E-1	1.168345E-1	1.220154E-1	1.350568E-1	1.164445E-1	1.063240E-1	1.436537E-1	1.267007E-1	1.382300E-1	1.245893E-1	1.129100E-1	1.410249E-1	1.443143E-1	1.095429E-1	1.045159E-1	1.122396E-1	1.515474E-1	1.232067E-1	1.072279E-1	1.068029E-1	1.285553E-1	1.536689E-1	1.184656E-1	1.091217E-1	1.462803E-1	1.358671E-1	1.487607E-1	1.193826E-1	1.495942E-1	1.047491E-1	1.290223E-1	1.584460E-1	1.375991E-1	1.418986E-1	1.385320E-1	1.377358E-1	1.621046E-1	1.223767E-1	1.257843E-1	1.223874E-1	1.389454E-1	1.448907E-1	1.265609E-1	1.159953E-1	1.514672E-1	1.400082E-1	1.296604E-1	1.541433E-1	1.510986E-1	1.389555E-1	1.309623E-1	1.484318E-1	1.121804E-1	1.327416E-1	1.491372E-1	1.539053E-1	1.197202E-1	1.231685E-1	1.243471E-1	1.296641E-1	1.664945E-1	1.246742E-1	1.105592E-1	1.362934E-1	1.545136E-1	5.867919E-2
5.346150E+2	1.621227E-1	1.781387E-1	2.043299E-1	1.910188E-1	1.992550E-1	2.012710E-1	2.039675E-1	2.156738E-1	1.768378E-1	1.920107E-1	1.879403E-1	2.025362E-1	2.102474E-1	1.904426E-1	1.629304E-1	1.850225E-1	1.946457E-1	1.841756E-1	2.408781E-1	1.933173E-1	1.907899E-1	1.883966E-1	2.290222E-1	1.961060E-1	2.091618E-1	2.073330E-1	2.247491E-1	2.341789E-1	2.192359E-1	2.143618E-1	2.094512E-1	2.135841E-1	1.983905E-1	2.013211E-1	1.888375E-1	2.190949E-1	2.227993E-1	2.012821E-1	1.907551E-1	2.046693E-1	2.129904E-1	2.141059E-1	2.142278E-1	2.149162E-1	2.173094E-1	2.032425E-1	2.183043E-1	1.926023E-1	1.931554E-1	2.059800E-1	2.121623E-1	2.207957E-1	2.230697E-1	2.219680E-1	2.040787E-1	2.192073E-1	2.338994E-1	1.978994E-1	2.043709E-1	2.184965E-1	2.379234E-1	2.059731E-1	2.161893E-1	1.981755E-1	2.376072E-1	2.276477E-1	2.002899E-1	1.964118E-1	2.170666E-1	2.017919E-1	1.918028E-1	2.372017E-1	2.082302E-1	2.188155E-1	2.127920E-1	2.212830E-1	2.112657E-1	2.136620E-1	1.941247E-1	2.106742E-1	2.053146E-1	2.471536E-1	2.395597E-1	2.389409E-1	2.327744E-1	2.344996E-1	2.195351E-1	2.029278E-1	2.234681E-1	2.565816E-1	2.223195E-1	2.096963E-1	2.233222E-1	2.067245E-1	2.173853E-1	2.206210E-1	2.106072E-1	2.170722E-1	2.209870E-1	2.174660E-1	2.242830E-1	2.133329E-1	2.023657E-1	2.003825E-1	2.259290E-1	2.169839E-1	2.199931E-1	1.991223E-1	2.320028E-1	2.064531E-1	2.166349E-1	2.323895E-1	2.177732E-1	2.186505E-1	2.049452E-1	2.077638E-1	2.414983E-1	2.014994E-1	2.466219E-1	2.118509E-1	2.372932E-1	2.045476E-1	2.182891E-1	2.030421E-1	2.205961E-1	2.152986E-1	2.357568E-1	2.044387E-1	2.016357E-1	2.281024E-1	1.971653E-1	2.431480E-1	2.245021E-1	2.312207E-1	2.036835E-1	2.037065E-1	2.082652E-1	2.300683E-1	1.971430E-1	2.105010E-1	2.396089E-1	2.150238E-1	2.274773E-1	2.572414E-1	2.443989E-1	2.318246E-1	2.148841E-1	2.213703E-1	2.227991E-1	2.038077E-1	2.018845E-1	2.391656E-1	2.364040E-1	2.335343E-1	2.508425E-1	2.056746E-1	2.272920E-1	2.002993E-1	2.202627E-1	2.198034E-1	2.373826E-1	2.082931E-1	1.997558E-1	1.894605E-1
5.348180E+2	4.009844E-1	3.842291E-1	3.817637E-1	4.502128E-1	4.589297E-1	4.333375E-1	4.062197E-1	4.173287E-1	4.236252E-1	4.116529E-1	3.934715E-1	4.115462E-1	4.395881E-1	4.097085E-1	4.093209E-1	4.220698E-1	4.057525E-1	4.106192E-1	4.334443E-1	4.092402E-1	4.600090E-1	4.686592E-1	4.552634E-1	4.128389E-1	4.371287E-1	4.519656E-1	4.195013E-1	4.465626E-1	4.329323E-1	4.034492E-1	4.061233E-1	4.223959E-1	4.682445E-1	4.522346E-1	4.311285E-1	4.431227E-1	4.434155E-1	4.792296E-1	4.500541E-1	3.839347E-1	4.595154E-1	4.266964E-1	4.411080E-1	4.245309E-1	4.598078E-1	4.544686E-1	4.090100E-1	4.285662E-1	4.250417E-1	4.464722E-1	4.227000E-1	4.654487E-1	4.184142E-1	4.372282E-1	4.553691E-1	4.498020E-1	4.340245E-1	4.755742E-1	4.481679E-1	4.226118E-1	4.178000E-1	4.287655E-1	4.657532E-1	4.170785E-1	4.671983E-1	4.152832E-1	4.365204E-1	4.355845E-1	4.196557E-1	4.403081E-1	4.461960E-1	4.509638E-1	4.578250E-1	4.843972E-1	4.168555E-1	4.192059E-1	4.428289E-1	4.150566E-1	4.906467E-1	4.197120E-1	4.556624E-1	4.463398E-1	4.494230E-1	4.425554E-1	4.299404E-1	4.224836E-1	4.795017E-1	4.377972E-1	4.710439E-1	4.262675E-1	4.426756E-1	4.344107E-1	4.263937E-1	4.543540E-1	4.803072E-1	4.705037E-1	4.268304E-1	4.426003E-1	4.478820E-1	4.366726E-1	4.376603E-1	4.065991E-1	4.728329E-1	4.174600E-1	4.592695E-1	4.468300E-1	4.541691E-1	4.389037E-1	4.375056E-1	4.423234E-1	4.304793E-1	4.429037E-1	4.038884E-1	4.511592E-1	4.362746E-1	4.424400E-1	4.635074E-1	4.271519E-1	4.287055E-1	4.285213E-1	4.653677E-1	4.565487E-1	3.930607E-1	4.257467E-1	4.702076E-1	4.143905E-1	4.484645E-1	4.458184E-1	4.244781E-1	4.304371E-1	4.534316E-1	4.000959E-1	4.398113E-1	4.121066E-1	4.258923E-1	3.917187E-1	4.404442E-1	4.524808E-1	4.123385E-1	4.240573E-1	4.827540E-1	4.239674E-1	4.403123E-1	4.877799E-1	4.530530E-1	4.578269E-1	4.561567E-1	4.677889E-1	4.321580E-1	4.715752E-1	4.180926E-1	4.642425E-1	4.439450E-1	4.488574E-1	4.213863E-1	4.134108E-1	4.683761E-1	4.072126E-1	4.392876E-1	3.976397E-1	4.075785E-1	4.574626E-1	4.522613E-1	3.899160E-1
5.350100E+2	7.464266E-1	7.795574E-1	8.292731E-1	7.876931E-1	8.526154E-1	8.018055E-1	8.275011E-1	8.071060E-1	7.949593E-1	8.093046E-1	8.309219E-1	8.153463E-1	8.201917E-1	7.598007E-1	7.716235E-1	8.107199E-1	8.280549E-1	7.600533E-1	8.649471E-1	8.627677E-1	8.412123E-1	8.410600E-1	7.904784E-1	7.984836E-1	8.431547E-1	8.198090E-1	8.301616E-1	8.738453E-1	8.191777E-1	8.069491E-1	8.366963E-1	8.070736E-1	8.222055E-1	8.400484E-1	8.144778E-1	8.262327E-1	8.314225E-1	9.128196E-1	8.304941E-1	8.376916E-1	8.467432E-1	8.007227E-1	9.037864E-1	8.386686E-1	8.632969E-1	8.347779E-1	8.667023E-1	8.529572E-1	8.292961E-1	8.141838E-1	8.621518E-1	8.802098E-1	8.130801E-1	8.336500E-1	8.496540E-1	8.293571E-1	9.301396E-1	8.301358E-1	8.501538E-1	8.033195E-1	8.462753E-1	8.501618E-1	8.184587E-1	7.966280E-1	8.757785E-1	8.459872E-1	8.327995E-1	8.690143E-1	8.171579E-1	7.789761E-1	8.298656E-1	8.422165E-1	8.421470E-1	8.147517E-1	8.547233E-1	8.733014E-1	8.675386E-1	8.587693E-1	8.596089E-1	8.299737E-1	8.281045E-1	7.750377E-1	8.302250E-1	8.232431E-1	8.405320E-1	8.177582E-1	8.269684E-1	8.322980E-1	8.337347E-1	8.408860E-1	8.150008E-1	8.596204E-1	8.456638E-1	8.501136E-1	8.303754E-1	8.522692E-1	8.141840E-1	8.346462E-1	8.456133E-1	8.533964E-1	7.919766E-1	8.855638E-1	8.257723E-1	7.899280E-1	8.482334E-1	8.345370E-1	8.092510E-1	8.392942E-1	8.182095E-1	8.135018E-1	8.704984E-1	8.838958E-1	8.600606E-1	8.133438E-1	8.786164E-1	8.483603E-1	7.952073E-1	7.445968E-1	8.008678E-1	8.428324E-1	7.703206E-1	8.272272E-1	8.236394E-1	8.268566E-1	8.181071E-1	8.113979E-1	7.917833E-1	8.199852E-1	8.450121E-1	8.848674E-1	8.436622E-1	8.198092E-1	8.440484E-1	7.965150E-1	7.545078E-1	8.119003E-1	8.313624E-1	8.487847E-1	8.186908E-1	7.642237E-1	9.014440E-1	7.686465E-1	8.153545E-1	8.776466E-1	8.175088E-1	8.557406E-1	7.801352E-1	8.449036E-1	8.401957E-1	8.165792E-1	8.404859E-1	8.201850E-1	8.134108E-1	7.989688E-1	8.077120E-1	8.666576E-1	7.867900E-1	8.369421E-1	8.043281E-1	8.187897E-1	8.341594E-1	8.723497E-1	7.749903E-1	8.247769E-1
5.352080E+2	1.128657E+0	1.213768E+0	1.173808E+0	1.167183E+0	1.176006E+0	1.197219E+0	1.129194E+0	1.132738E+0	1.218086E+0	1.200298E+0	1.109323E+0	1.176306E+0	1.180797E+0	1.140817E+0	1.138728E+0	1.196869E+0	1.125423E+0	1.193146E+0	1.202023E+0	1.191256E+0	1.151124E+0	1.185660E+0	1.194801E+0	1.124279E+0	1.174769E+0	1.189930E+0	1.137171E+0	1.168104E+0	1.150528E+0	1.174109E+0	1.174265E+0	1.144819E+0	1.146820E+0	1.211334E+0	1.217856E+0	1.212084E+0	1.146617E+0	1.235453E+0	1.131026E+0	1.126182E+0	1.187038E+0	1.179635E+0	1.166109E+0	1.189922E+0	1.219985E+0	1.157539E+0	1.212379E+0	1.213469E+0	1.184274E+0	1.115103E+0	1.131127E+0	1.194197E+0	1.140235E+0	1.142320E+0	1.249550E+0	1.182581E+0	1.183230E+0	1.156155E+0	1.155066E+0	1.216133E+0	1.167280E+0	1.210208E+0	1.166466E+0	1.173166E+0	1.187662E+0	1.176468E+0	1.183662E+0	1.173290E+0	1.205037E+0	1.189616E+0	1.232213E+0	1.194512E+0	1.186369E+0	1.160212E+0	1.214573E+0	1.206991E+0	1.191333E+0	1.197153E+0	1.208031E+0	1.203444E+0	1.173859E+0	1.210381E+0	1.202496E+0	1.119086E+0	1.156748E+0	1.144408E+0	1.153268E+0	1.122091E+0	1.252413E+0	1.192029E+0	1.204225E+0	1.135881E+0	1.185987E+0	1.117625E+0	1.151331E+0	1.191697E+0	1.145420E+0	1.160715E+0	1.160009E+0	1.113340E+0	1.161719E+0	1.129068E+0	1.160053E+0	1.192897E+0	1.205897E+0	1.159404E+0	1.141524E+0	1.185563E+0	1.175306E+0	1.163244E+0	1.203720E+0	1.185164E+0	1.175920E+0	1.219122E+0	1.171942E+0	1.235074E+0	1.143875E+0	1.143006E+0	1.168019E+0	1.196760E+0	1.210158E+0	1.167217E+0	1.097138E+0	1.164011E+0	1.165974E+0	1.143095E+0	1.152502E+0	1.132222E+0	1.227493E+0	1.223064E+0	1.137461E+0	1.099972E+0	1.167279E+0	1.136869E+0	1.138783E+0	1.164446E+0	1.161159E+0	1.151770E+0	1.152750E+0	1.161171E+0	1.276976E+0	1.100201E+0	1.187535E+0	1.178959E+0	1.126877E+0	1.222876E+0	1.162266E+0	1.173114E+0	1.202348E+0	1.238361E+0	1.132007E+0	1.211595E+0	1.165209E+0	1.126647E+0	1.123817E+0	1.130248E+0	1.208795E+0	1.140949E+0	1.143768E+0	1.134241E+0	1.163538E+0	1.183532E+0	1.183847E+0	1.137569E+0
5.354110E+2	1.399910E+0	1.342045E+0	1.406162E+0	1.417647E+0	1.428540E+0	1.359565E+0	1.398499E+0	1.392437E+0	1.412560E+0	1.332864E+0	1.356594E+0	1.398337E+0	1.385644E+0	1.411218E+0	1.463395E+0	1.338670E+0	1.342859E+0	1.336713E+0	1.402224E+0	1.431840E+0	1.378625E+0	1.404533E+0	1.373135E+0	1.414492E+0	1.416540E+0	1.380312E+0	1.406414E+0	1.450252E+0	1.394595E+0	1.354869E+0	1.405825E+0	1.392520E+0	1.450234E+0	1.407543E+0	1.306176E+0	1.402042E+0	1.399371E+0	1.437960E+0	1.306654E+0	1.375461E+0	1.325542E+0	1.398688E+0	1.424944E+0	1.342698E+0	1.421601E+0	1.426104E+0	1.391524E+0	1.351927E+0	1.331447E+0	1.398585E+0	1.381672E+0	1.423790E+0	1.310222E+0	1.382149E+0	1.398672E+0	1.408057E+0	1.398953E+0	1.339069E+0	1.346840E+0	1.382286E+0	1.340455E+0	1.386412E+0	1.336264E+0	1.397098E+0	1.399706E+0	1.351248E+0	1.409582E+0	1.339251E+0	1.435070E+0	1.337334E+0	1.362678E+0	1.436111E+0	1.418473E+0	1.319651E+0	1.323730E+0	1.429489E+0	1.443462E+0	1.344327E+0	1.407301E+0	1.388830E+0	1.386712E+0	1.435146E+0	1.274303E+0	1.353659E+0	1.321138E+0	1.311408E+0	1.384743E+0	1.409906E+0	1.410098E+0	1.320168E+0	1.301301E+0	1.449083E+0	1.342393E+0	1.381268E+0	1.403394E+0	1.396834E+0	1.351040E+0	1.316394E+0	1.366839E+0	1.340201E+0	1.367970E+0	1.365627E+0	1.337988E+0	1.344990E+0	1.429691E+0	1.370226E+0	1.329837E+0	1.375680E+0	1.360315E+0	1.382244E+0	1.398789E+0	1.346589E+0	1.388789E+0	1.423832E+0	1.326192E+0	1.366836E+0	1.364671E+0	1.383999E+0	1.358403E+0	1.395231E+0	1.393735E+0	1.372149E+0	1.347658E+0	1.434143E+0	1.373573E+0	1.342590E+0	1.365046E+0	1.332779E+0	1.417563E+0	1.375571E+0	1.383640E+0	1.385336E+0	1.372369E+0	1.417766E+0	1.368263E+0	1.368771E+0	1.366098E+0	1.333237E+0	1.305662E+0	1.342468E+0	1.436528E+0	1.308757E+0	1.396811E+0	1.391411E+0	1.361587E+0	1.380284E+0	1.362113E+0	1.363365E+0	1.367910E+0	1.394040E+0	1.363765E+0	1.406941E+0	1.412041E+0	1.397396E+0	1.362493E+0	1.420563E+0	1.416442E+0	1.412125E+0	1.452202E+0	1.346328E+0	1.351689E+0	1.336053E+0	1.385367E+0	1.441819E+0
5.356150E+2	1.442586E+0	1.443103E+0	1.491653E+0	1.505251E+0	1.492112E+0	1.516365E+0	1.502459E+0	1.473697E+0	1.503925E+0	1.455211E+0	1.466179E+0	1.459150E+0	1.482996E+0	1.449723E+0	1.516271E+0	1.460054E+0	1.451412E+0	1.481834E+0	1.427976E+0	1.448317E+0	1.464430E+0	1.473337E+0	1.469508E+0	1.479318E+0	1.485544E+0	1.450839E+0	1.455943E+0	1.510364E+0	1.429011E+0	1.433952E+0	1.468705E+0	1.475162E+0	1.420907E+0	1.531208E+0	1.434726E+0	1.488000E+0	1.481375E+0	1.528573E+0	1.417629E+0	1.443944E+0	1.500691E+0	1.441424E+0	1.455216E+0	1.420551E+0	1.468251E+0	1.542262E+0	1.473772E+0	1.411564E+0	1.436474E+0	1.417704E+0	1.443863E+0	1.449648E+0	1.414522E+0	1.488876E+0	1.451679E+0	1.405342E+0	1.479889E+0	1.463035E+0	1.415758E+0	1.409476E+0	1.423920E+0	1.457733E+0	1.442518E+0	1.502823E+0	1.434925E+0	1.529464E+0	1.454650E+0	1.449585E+0	1.485884E+0	1.437817E+0	1.463782E+0	1.501643E+0	1.496316E+0	1.482882E+0	1.487668E+0	1.478258E+0	1.498379E+0	1.438750E+0	1.447480E+0	1.495806E+0	1.479050E+0	1.443088E+0	1.423882E+0	1.454628E+0	1.470344E+0	1.443378E+0	1.473499E+0	1.471362E+0	1.469790E+0	1.497851E+0	1.486465E+0	1.525971E+0	1.418031E+0	1.456255E+0	1.468920E+0	1.403823E+0	1.406518E+0	1.400227E+0	1.443185E+0	1.389838E+0	1.382076E+0	1.485716E+0	1.421480E+0	1.413452E+0	1.452193E+0	1.462559E+0	1.442704E+0	1.478148E+0	1.409609E+0	1.463075E+0	1.467341E+0	1.449892E+0	1.408572E+0	1.434358E+0	1.479542E+0	1.436036E+0	1.443709E+0	1.409483E+0	1.451613E+0	1.478078E+0	1.425117E+0	1.454014E+0	1.502335E+0	1.483220E+0	1.497803E+0	1.407399E+0	1.482674E+0	1.472483E+0	1.479659E+0	1.404791E+0	1.461409E+0	1.405651E+0	1.451883E+0	1.364051E+0	1.438802E+0	1.450691E+0	1.417783E+0	1.440153E+0	1.416948E+0	1.394720E+0	1.540378E+0	1.470322E+0	1.420508E+0	1.504192E+0	1.475331E+0	1.455420E+0	1.433137E+0	1.473685E+0	1.478357E+0	1.441404E+0	1.517278E+0	1.435968E+0	1.484486E+0	1.432001E+0	1.526565E+0	1.479134E+0	1.531982E+0	1.492861E+0	1.421335E+0	1.416436E+0	1.429687E+0	1.539785E+0	1.380161E+0	1.489357E+0
5.358130E+2	1.635738E+0	1.597289E+0	1.583708E+0	1.567591E+0	1.593946E+0	1.604124E+0	1.597018E+0	1.545552E+0	1.565547E+0	1.639603E+0	1.594308E+0	1.598543E+0	1.677538E+0	1.509969E+0	1.631544E+0	1.587029E+0	1.643303E+0	1.496812E+0	1.581959E+0	1.582733E+0	1.530412E+0	1.603163E+0	1.641031E+0	1.624550E+0	1.584363E+0	1.576492E+0	1.610621E+0	1.633409E+0	1.527616E+0	1.612603E+0	1.587385E+0	1.588860E+0	1.513487E+0	1.604510E+0	1.497137E+0	1.627866E+0	1.512992E+0	1.641866E+0	1.488245E+0	1.547569E+0	1.468752E+0	1.468686E+0	1.584197E+0	1.506595E+0	1.538357E+0	1.565365E+0	1.585540E+0	1.536693E+0	1.548075E+0	1.526783E+0	1.583734E+0	1.607232E+0	1.517619E+0	1.562893E+0	1.585293E+0	1.646151E+0	1.645013E+0	1.568462E+0	1.548249E+0	1.473862E+0	1.573424E+0	1.584644E+0	1.648772E+0	1.529950E+0	1.530342E+0	1.594375E+0	1.598454E+0	1.571751E+0	1.568223E+0	1.515962E+0	1.586624E+0	1.678633E+0	1.596259E+0	1.542402E+0	1.536688E+0	1.561101E+0	1.597629E+0	1.597570E+0	1.517131E+0	1.628138E+0	1.560125E+0	1.604761E+0	1.534240E+0	1.502397E+0	1.583392E+0	1.496881E+0	1.564827E+0	1.535121E+0	1.570911E+0	1.552972E+0	1.578248E+0	1.546551E+0	1.598085E+0	1.513119E+0	1.562367E+0	1.571695E+0	1.550003E+0	1.531444E+0	1.577927E+0	1.577656E+0	1.488602E+0	1.624466E+0	1.535563E+0	1.541196E+0	1.531045E+0	1.566586E+0	1.546012E+0	1.549939E+0	1.538504E+0	1.548956E+0	1.605832E+0	1.583748E+0	1.492519E+0	1.582251E+0	1.553354E+0	1.586620E+0	1.578183E+0	1.560102E+0	1.601085E+0	1.554666E+0	1.590660E+0	1.545580E+0	1.527336E+0	1.574977E+0	1.605541E+0	1.579987E+0	1.528180E+0	1.538789E+0	1.555254E+0	1.604351E+0	1.619014E+0	1.558441E+0	1.554929E+0	1.535443E+0	1.480787E+0	1.562853E+0	1.519222E+0	1.578488E+0	1.506422E+0	1.558791E+0	1.648501E+0	1.546479E+0	1.559936E+0	1.561539E+0	1.541698E+0	1.600526E+0	1.535458E+0	1.591364E+0	1.565073E+0	1.613416E+0	1.456819E+0	1.523944E+0	1.526329E+0	1.506075E+0	1.586361E+0	1.588540E+0	1.557464E+0	1.565365E+0	1.583201E+0	1.588560E+0	1.508997E+0	1.558161E+0	1.582432E+0	1.690368E+0
5.360120E+2	1.663678E+0	1.754868E+0	1.669185E+0	1.769107E+0	1.781929E+0	1.782029E+0	1.681104E+0	1.685692E+0	1.770606E+0	1.752662E+0	1.747962E+0	1.717246E+0	1.678885E+0	1.684923E+0	1.741328E+0	1.686661E+0	1.666328E+0	1.695354E+0	1.739429E+0	1.699823E+0	1.717587E+0	1.717353E+0	1.677541E+0	1.753094E+0	1.716638E+0	1.699760E+0	1.754533E+0	1.712433E+0	1.694588E+0	1.686081E+0	1.705361E+0	1.665981E+0	1.671447E+0	1.709245E+0	1.713265E+0	1.745195E+0	1.646244E+0	1.794011E+0	1.720230E+0	1.649462E+0	1.697787E+0	1.776666E+0	1.683261E+0	1.675110E+0	1.719477E+0	1.814981E+0	1.687565E+0	1.731913E+0	1.651922E+0	1.671311E+0	1.720192E+0	1.675388E+0	1.705303E+0	1.657834E+0	1.656004E+0	1.731884E+0	1.719453E+0	1.686159E+0	1.706716E+0	1.639397E+0	1.754008E+0	1.712519E+0	1.684971E+0	1.766974E+0	1.702989E+0	1.748746E+0	1.641572E+0	1.674027E+0	1.749081E+0	1.601219E+0	1.722304E+0	1.756823E+0	1.629888E+0	1.668875E+0	1.653386E+0	1.807622E+0	1.748676E+0	1.669218E+0	1.711772E+0	1.719633E+0	1.694523E+0	1.730195E+0	1.736640E+0	1.689683E+0	1.733752E+0	1.675975E+0	1.711776E+0	1.637769E+0	1.729695E+0	1.730501E+0	1.641268E+0	1.691345E+0	1.659406E+0	1.719522E+0	1.734810E+0	1.727897E+0	1.758703E+0	1.703038E+0	1.772087E+0	1.712688E+0	1.672763E+0	1.666405E+0	1.654331E+0	1.720054E+0	1.654768E+0	1.638106E+0	1.675354E+0	1.692953E+0	1.687470E+0	1.654014E+0	1.733054E+0	1.768955E+0	1.703264E+0	1.706817E+0	1.670029E+0	1.685712E+0	1.699067E+0	1.702048E+0	1.684103E+0	1.774594E+0	1.669945E+0	1.701050E+0	1.679825E+0	1.727685E+0	1.729016E+0	1.668787E+0	1.665769E+0	1.724536E+0	1.665091E+0	1.661714E+0	1.701788E+0	1.642138E+0	1.743416E+0	1.675565E+0	1.623637E+0	1.664874E+0	1.671237E+0	1.627652E+0	1.639104E+0	1.621490E+0	1.678867E+0	1.623499E+0	1.698367E+0	1.718560E+0	1.661553E+0	1.663956E+0	1.671328E+0	1.710831E+0	1.748321E+0	1.764451E+0	1.632039E+0	1.755871E+0	1.694225E+0	1.672948E+0	1.749404E+0	1.710003E+0	1.725906E+0	1.688493E+0	1.689146E+0	1.665483E+0	1.673053E+0	1.634291E+0	1.584169E+0	1.741554E+0
5.362050E+2	1.685304E+0	1.691329E+0	1.747932E+0	1.719780E+0	1.719733E+0	1.788499E+0	1.722203E+0	1.712352E+0	1.696716E+0	1.744699E+0	1.723859E+0	1.764554E+0	1.698700E+0	1.768741E+0	1.672081E+0	1.769495E+0	1.686982E+0	1.691171E+0	1.780271E+0	1.756342E+0	1.780311E+0	1.840189E+0	1.729075E+0	1.727158E+0	1.731064E+0	1.750925E+0	1.762919E+0	1.712060E+0	1.717272E+0	1.682193E+0	1.758637E+0	1.670107E+0	1.671183E+0	1.683971E+0	1.754138E+0	1.713727E+0	1.630012E+0	1.865648E+0	1.592760E+0	1.773337E+0	1.660147E+0	1.694876E+0	1.720834E+0	1.752300E+0	1.747866E+0	1.822117E+0	1.735587E+0	1.668320E+0	1.669693E+0	1.684359E+0	1.758963E+0	1.774922E+0	1.700603E+0	1.747062E+0	1.697041E+0	1.808533E+0	1.713566E+0	1.774365E+0	1.748947E+0	1.656965E+0	1.698169E+0	1.771313E+0	1.690362E+0	1.765585E+0	1.793175E+0	1.755031E+0	1.747971E+0	1.761563E+0	1.784783E+0	1.667700E+0	1.671220E+0	1.718353E+0	1.788179E+0	1.754976E+0	1.768799E+0	1.756865E+0	1.851466E+0	1.699230E+0	1.710246E+0	1.775377E+0	1.670543E+0	1.760559E+0	1.715896E+0	1.758319E+0	1.728470E+0	1.677334E+0	1.738881E+0	1.699544E+0	1.751653E+0	1.718298E+0	1.681938E+0	1.752825E+0	1.745963E+0	1.686485E+0	1.751524E+0	1.707458E+0	1.723632E+0	1.699434E+0	1.748665E+0	1.706650E+0	1.631254E+0	1.720118E+0	1.629110E+0	1.695459E+0	1.663497E+0	1.750134E+0	1.712865E+0	1.734500E+0	1.693930E+0	1.743491E+0	1.756764E+0	1.757769E+0	1.736457E+0	1.763555E+0	1.758658E+0	1.656080E+0	1.713887E+0	1.671546E+0	1.740018E+0	1.790011E+0	1.655157E+0	1.657837E+0	1.732045E+0	1.748821E+0	1.721038E+0	1.667504E+0	1.754371E+0	1.743757E+0	1.754060E+0	1.705496E+0	1.737961E+0	1.687454E+0	1.688275E+0	1.641928E+0	1.719349E+0	1.688886E+0	1.724498E+0	1.681503E+0	1.711029E+0	1.665660E+0	1.765106E+0	1.673351E+0	1.770241E+0	1.758872E+0	1.694839E+0	1.739340E+0	1.703762E+0	1.680182E+0	1.773994E+0	1.761932E+0	1.686766E+0	1.715363E+0	1.649563E+0	1.685775E+0	1.653826E+0	1.782705E+0	1.753105E+0	1.669558E+0	1.679844E+0	1.612319E+0	1.687813E+0	1.703646E+0	1.706458E+0	1.730284E+0
5.364090E+2	1.437763E+0	1.525372E+0	1.452794E+0	1.439467E+0	1.469931E+0	1.481883E+0	1.387499E+0	1.441141E+0	1.397775E+0	1.408622E+0	1.456079E+0	1.429711E+0	1.464059E+0	1.434043E+0	1.454966E+0	1.436560E+0	1.418723E+0	1.382131E+0	1.458305E+0	1.459404E+0	1.430800E+0	1.482495E+0	1.418447E+0	1.444096E+0	1.397112E+0	1.426033E+0	1.499449E+0	1.467537E+0	1.457508E+0	1.401309E+0	1.512551E+0	1.408758E+0	1.347985E+0	1.476101E+0	1.406998E+0	1.397499E+0	1.450022E+0	1.490883E+0	1.428197E+0	1.481295E+0	1.431031E+0	1.419835E+0	1.441568E+0	1.405243E+0	1.446689E+0	1.449524E+0	1.422325E+0	1.420381E+0	1.431056E+0	1.358361E+0	1.487676E+0	1.428194E+0	1.370493E+0	1.462740E+0	1.466721E+0	1.435006E+0	1.409914E+0	1.493757E+0	1.413146E+0	1.408639E+0	1.438083E+0	1.461990E+0	1.446755E+0	1.415046E+0	1.461228E+0	1.436656E+0	1.469351E+0	1.440268E+0	1.492215E+0	1.413217E+0	1.404972E+0	1.485866E+0	1.494663E+0	1.448357E+0	1.447296E+0	1.461340E+0	1.473289E+0	1.395695E+0	1.468350E+0	1.485786E+0	1.411044E+0	1.420211E+0	1.436691E+0	1.415197E+0	1.508721E+0	1.440690E+0	1.416053E+0	1.495717E+0	1.448149E+0	1.424963E+0	1.505170E+0	1.441421E+0	1.439451E+0	1.429130E+0	1.436484E+0	1.489048E+0	1.441432E+0	1.354043E+0	1.465677E+0	1.375212E+0	1.378786E+0	1.486437E+0	1.433562E+0	1.377720E+0	1.442355E+0	1.471820E+0	1.364686E+0	1.393400E+0	1.431849E+0	1.464849E+0	1.498618E+0	1.464198E+0	1.461796E+0	1.445450E+0	1.399978E+0	1.427384E+0	1.416754E+0	1.427657E+0	1.499524E+0	1.453470E+0	1.367629E+0	1.487084E+0	1.403648E+0	1.396552E+0	1.417100E+0	1.445649E+0	1.480606E+0	1.369108E+0	1.447498E+0	1.437783E+0	1.407909E+0	1.495414E+0	1.387909E+0	1.423986E+0	1.413308E+0	1.426782E+0	1.490008E+0	1.411280E+0	1.379562E+0	1.440493E+0	1.508050E+0	1.417438E+0	1.447624E+0	1.492096E+0	1.407630E+0	1.579357E+0	1.390333E+0	1.474085E+0	1.457916E+0	1.471891E+0	1.458760E+0	1.423195E+0	1.474137E+0	1.432424E+0	1.438353E+0	1.524373E+0	1.466488E+0	1.408344E+0	1.399332E+0	1.438147E+0	1.363241E+0	1.391370E+0	1.419626E+0	1.561487E+0
5.366080E+2	1.145937E+0	1.090827E+0	1.135711E+0	1.212562E+0	1.165111E+0	1.119728E+0	1.157060E+0	1.080363E+0	1.201499E+0	1.154500E+0	1.151079E+0	1.185471E+0	1.202896E+0	1.131527E+0	1.196308E+0	1.149224E+0	1.197824E+0	1.151115E+0	1.218982E+0	1.157132E+0	1.199465E+0	1.139723E+0	1.140440E+0	1.073694E+0	1.183684E+0	1.104433E+0	1.145620E+0	1.210997E+0	1.085968E+0	1.146736E+0	1.195285E+0	1.203358E+0	1.170027E+0	1.198329E+0	1.211505E+0	1.151904E+0	1.145982E+0	1.180415E+0	1.115949E+0	1.129909E+0	1.130425E+0	1.121636E+0	1.171891E+0	1.172123E+0	1.189977E+0	1.161618E+0	1.154563E+0	1.144431E+0	1.100936E+0	1.156212E+0	1.171682E+0	1.183833E+0	1.148517E+0	1.146359E+0	1.176258E+0	1.213676E+0	1.196711E+0	1.101816E+0	1.206896E+0	1.159328E+0	1.166554E+0	1.184190E+0	1.151252E+0	1.163154E+0	1.147185E+0	1.205733E+0	1.186376E+0	1.111187E+0	1.208567E+0	1.130608E+0	1.119697E+0	1.206923E+0	1.215887E+0	1.159111E+0	1.149447E+0	1.252156E+0	1.194179E+0	1.212708E+0	1.218486E+0	1.259588E+0	1.160323E+0	1.175004E+0	1.156091E+0	1.094678E+0	1.131369E+0	1.178796E+0	1.205163E+0	1.148680E+0	1.155384E+0	1.189028E+0	1.172679E+0	1.111381E+0	1.156660E+0	1.182295E+0	1.113396E+0	1.155423E+0	1.171064E+0	1.185914E+0	1.176750E+0	1.091936E+0	1.094436E+0	1.217744E+0	1.114118E+0	1.104996E+0	1.180065E+0	1.152501E+0	1.169532E+0	1.161150E+0	1.094018E+0	1.165874E+0	1.229751E+0	1.161144E+0	1.205276E+0	1.144541E+0	1.223465E+0	1.127410E+0	1.157476E+0	1.115432E+0	1.107483E+0	1.206053E+0	1.137880E+0	1.155191E+0	1.172572E+0	1.181207E+0	1.205372E+0	1.132453E+0	1.195972E+0	1.148631E+0	1.120022E+0	1.139236E+0	1.121275E+0	1.142787E+0	1.156362E+0	1.150251E+0	1.137525E+0	1.195253E+0	1.168603E+0	1.224548E+0	1.081332E+0	1.151835E+0	1.178474E+0	1.098758E+0	1.155573E+0	1.190815E+0	1.178136E+0	1.182751E+0	1.177640E+0	1.205362E+0	1.203815E+0	1.160379E+0	1.174931E+0	1.195083E+0	1.147483E+0	1.127146E+0	1.121494E+0	1.162965E+0	1.164021E+0	1.172810E+0	1.174445E+0	1.157214E+0	1.133595E+0	1.191937E+0	1.175821E+0	1.155182E+0
5.368180E+2	9.476021E-1	9.521658E-1	9.488741E-1	9.058742E-1	9.347960E-1	9.263037E-1	9.936316E-1	9.803427E-1	9.209895E-1	9.588320E-1	9.236436E-1	9.207660E-1	9.085742E-1	9.650307E-1	9.277959E-1	9.376427E-1	9.660133E-1	9.639590E-1	9.349989E-1	9.662226E-1	9.416277E-1	9.793885E-1	8.862039E-1	9.600806E-1	8.949474E-1	9.483348E-1	9.566315E-1	9.935086E-1	9.109116E-1	9.427943E-1	9.768115E-1	9.804271E-1	9.226774E-1	9.621465E-1	9.705865E-1	9.339227E-1	9.917472E-1	9.642342E-1	9.758796E-1	9.638569E-1	9.695821E-1	9.262273E-1	9.422103E-1	9.190172E-1	1.002849E+0	9.939863E-1	9.718487E-1	9.575873E-1	9.346656E-1	9.117896E-1	9.519118E-1	9.808205E-1	9.040924E-1	9.105048E-1	9.590563E-1	1.004790E+0	9.743964E-1	9.746160E-1	1.012855E+0	9.587733E-1	9.508614E-1	1.005518E+0	1.017868E+0	9.526627E-1	9.615728E-1	1.003305E+0	9.590697E-1	9.713339E-1	9.931233E-1	9.200720E-1	9.502127E-1	9.835986E-1	1.012855E+0	9.373779E-1	9.426322E-1	9.698251E-1	1.001887E+0	1.011201E+0	9.786273E-1	1.027224E+0	9.274750E-1	9.664751E-1	9.912603E-1	9.432952E-1	9.499133E-1	9.489333E-1	9.283478E-1	9.759719E-1	9.400753E-1	9.753285E-1	9.707465E-1	9.431863E-1	9.921005E-1	9.399178E-1	9.544167E-1	9.604263E-1	9.800758E-1	9.306977E-1	9.586953E-1	9.509179E-1	8.939418E-1	9.741832E-1	9.036443E-1	9.985135E-1	9.718593E-1	9.604207E-1	9.609437E-1	9.891734E-1	9.137789E-1	9.558416E-1	1.011660E+0	1.001423E+0	9.437334E-1	9.437032E-1	9.815466E-1	9.888438E-1	9.229012E-1	9.637529E-1	9.597246E-1	9.671632E-1	9.512815E-1	9.647574E-1	9.742698E-1	1.022504E+0	9.768434E-1	9.383528E-1	9.291153E-1	9.304308E-1	9.620987E-1	9.996841E-1	9.286047E-1	9.853867E-1	9.212880E-1	1.000936E+0	9.576527E-1	9.348297E-1	9.598401E-1	9.627643E-1	9.270225E-1	9.049691E-1	9.856390E-1	9.575995E-1	9.739350E-1	9.970880E-1	9.133562E-1	9.772795E-1	9.201915E-1	9.882159E-1	9.163569E-1	9.869191E-1	9.242679E-1	9.352402E-1	9.611574E-1	9.815469E-1	1.000090E+0	9.829288E-1	9.885304E-1	9.643737E-1	1.004869E+0	9.678127E-1	9.359165E-1	9.837408E-1	1.009635E+0	1.008778E+0
5.370170E+2	8.984294E-1	9.529416E-1	9.413574E-1	9.206653E-1	9.139729E-1	9.112265E-1	9.815227E-1	8.630935E-1	9.665075E-1	9.542130E-1	9.144301E-1	8.859403E-1	9.363309E-1	8.534337E-1	9.365081E-1	9.382604E-1	9.089214E-1	8.952589E-1	9.623841E-1	9.398400E-1	9.036603E-1	9.001443E-1	9.547942E-1	9.408857E-1	9.546342E-1	9.071323E-1	9.146225E-1	9.462975E-1	9.321092E-1	9.348774E-1	9.649057E-1	9.263790E-1	9.236234E-1	9.762446E-1	9.115561E-1	9.807243E-1	8.778154E-1	9.157686E-1	9.341157E-1	9.448070E-1	9.284990E-1	8.996310E-1	9.431975E-1	9.352985E-1	9.418176E-1	9.497644E-1	9.717241E-1	9.703813E-1	9.162408E-1	8.993904E-1	9.980214E-1	9.607413E-1	9.046058E-1	9.783658E-1	9.869266E-1	9.746992E-1	9.284211E-1	9.417948E-1	9.548065E-1	1.003863E+0	9.261309E-1	9.482123E-1	8.876395E-1	9.431757E-1	8.870090E-1	9.303130E-1	9.044183E-1	9.374849E-1	1.011048E+0	8.715457E-1	9.636886E-1	9.351440E-1	9.464272E-1	9.320628E-1	9.242803E-1	9.940861E-1	9.922032E-1	9.763209E-1	9.179955E-1	9.422989E-1	8.958643E-1	9.664770E-1	9.398951E-1	8.693002E-1	9.602903E-1	9.242566E-1	8.792494E-1	9.484548E-1	9.700226E-1	9.287021E-1	9.520775E-1	9.253611E-1	8.953207E-1	8.981155E-1	9.650136E-1	9.667426E-1	9.809189E-1	9.222167E-1	9.160951E-1	8.899505E-1	9.473506E-1	9.120702E-1	8.884913E-1	9.519901E-1	9.326807E-1	9.083747E-1	9.155684E-1	9.278155E-1	9.570315E-1	9.214924E-1	9.515925E-1	9.190823E-1	9.714208E-1	9.290022E-1	9.320364E-1	9.983835E-1	9.390282E-1	8.726076E-1	9.645649E-1	9.550871E-1	8.599541E-1	9.244615E-1	9.329925E-1	9.377595E-1	9.313219E-1	8.888960E-1	9.041250E-1	8.651334E-1	8.776149E-1	9.329024E-1	9.724855E-1	9.668755E-1	9.451284E-1	9.519004E-1	9.234932E-1	9.618175E-1	9.655790E-1	9.745948E-1	8.900017E-1	9.012607E-1	9.469140E-1	8.603590E-1	9.080327E-1	1.003182E+0	9.384045E-1	9.328518E-1	9.233957E-1	9.367439E-1	9.209358E-1	9.402001E-1	9.178142E-1	9.420739E-1	9.322325E-1	9.076010E-1	9.402161E-1	9.423600E-1	9.768614E-1	9.301062E-1	9.603975E-1	9.687875E-1	8.702838E-1	1.004074E+0	9.237925E-1	8.943152E-1
5.372010E+2	9.567948E-1	1.006108E+0	9.889600E-1	1.075272E+0	9.760752E-1	1.030131E+0	1.029231E+0	9.663254E-1	9.522606E-1	9.793842E-1	9.507977E-1	9.729857E-1	1.000749E+0	9.826976E-1	1.047871E+0	9.912588E-1	9.247761E-1	9.898542E-1	1.022977E+0	1.032119E+0	1.010066E+0	1.045729E+0	1.021003E+0	9.945895E-1	1.034544E+0	1.027296E+0	1.054342E+0	1.027597E+0	1.017744E+0	9.616995E-1	1.068599E+0	9.858715E-1	1.013045E+0	1.036017E+0	1.015696E+0	9.987744E-1	1.013279E+0	1.018826E+0	1.028118E+0	1.048769E+0	1.039212E+0	9.808183E-1	1.040120E+0	1.029217E+0	1.005253E+0	1.028620E+0	1.023053E+0	1.061990E+0	1.012198E+0	1.001801E+0	1.045016E+0	1.035103E+0	9.647912E-1	1.019015E+0	9.796016E-1	1.045590E+0	1.041916E+0	1.038847E+0	1.010642E+0	9.927267E-1	1.070027E+0	1.066548E+0	1.050750E+0	1.058248E+0	1.003292E+0	9.941516E-1	9.870525E-1	9.986931E-1	1.044407E+0	9.654168E-1	9.955115E-1	1.066309E+0	1.023463E+0	1.020097E+0	9.813749E-1	1.089981E+0	1.079671E+0	1.050187E+0	1.022644E+0	1.031532E+0	1.056186E+0	9.766571E-1	9.929198E-1	9.809422E-1	1.014002E+0	9.569431E-1	1.051883E+0	9.682640E-1	1.024221E+0	1.053372E+0	1.042708E+0	1.057358E+0	9.887618E-1	1.041757E+0	9.884405E-1	1.025913E+0	1.046815E+0	1.000621E+0	9.994226E-1	9.985101E-1	1.008882E+0	9.936529E-1	1.024806E+0	1.083208E+0	1.014280E+0	1.007380E+0	1.048674E+0	1.000580E+0	9.760902E-1	1.035518E+0	9.954008E-1	1.036182E+0	1.023379E+0	1.009198E+0	1.046462E+0	1.024374E+0	1.024871E+0	9.651611E-1	1.014261E+0	1.099289E+0	1.011032E+0	1.020194E+0	9.650350E-1	9.982522E-1	9.918532E-1	9.853915E-1	1.026216E+0	9.682402E-1	1.060863E+0	1.021806E+0	9.996009E-1	1.016187E+0	9.934802E-1	9.306312E-1	1.049949E+0	1.052956E+0	9.802892E-1	1.053396E+0	9.378686E-1	9.864195E-1	1.021499E+0	9.947873E-1	1.000048E+0	9.985022E-1	1.002809E+0	9.513007E-1	1.007766E+0	1.044740E+0	1.006712E+0	1.016322E+0	1.037074E+0	1.031379E+0	1.006386E+0	9.479228E-1	1.031739E+0	1.021525E+0	1.039763E+0	9.997161E-1	1.047392E+0	1.024648E+0	1.000725E+0	1.011298E+0	9.517234E-1	1.023776E+0
5.374220E+2	1.066221E+0	1.104319E+0	1.088816E+0	1.115051E+0	1.098598E+0	1.098573E+0	1.099181E+0	1.089209E+0	1.076034E+0	1.011935E+0	1.129991E+0	1.087903E+0	1.113028E+0	1.028366E+0	1.119876E+0	1.119731E+0	1.082540E+0	1.083814E+0	1.154505E+0	1.147744E+0	1.090125E+0	1.127650E+0	1.122887E+0	1.126693E+0	1.133573E+0	1.123570E+0	1.116791E+0	1.147567E+0	1.103810E+0	1.072204E+0	1.157087E+0	1.102715E+0	1.075460E+0	1.126676E+0	1.099582E+0	1.171633E+0	1.080619E+0	1.143242E+0	1.037563E+0	1.121592E+0	1.127820E+0	1.087851E+0	1.126509E+0	1.127334E+0	1.143978E+0	1.166267E+0	1.145587E+0	1.075396E+0	1.123629E+0	1.088697E+0	1.119162E+0	1.049550E+0	1.080931E+0	1.136039E+0	1.159587E+0	1.102983E+0	1.159279E+0	1.138736E+0	1.149511E+0	1.117194E+0	1.120161E+0	1.097258E+0	1.120588E+0	1.065421E+0	1.106883E+0	1.103463E+0	1.075716E+0	1.075439E+0	1.144126E+0	1.100707E+0	1.116662E+0	1.141778E+0	1.109610E+0	1.076719E+0	1.128235E+0	1.147102E+0	1.184470E+0	1.133675E+0	1.112035E+0	1.138348E+0	1.160894E+0	1.080959E+0	1.165138E+0	1.135431E+0	1.060745E+0	1.071831E+0	1.117054E+0	1.126989E+0	1.045189E+0	1.112112E+0	1.128829E+0	1.123371E+0	1.123511E+0	1.090061E+0	1.108737E+0	1.145659E+0	1.076349E+0	1.149030E+0	1.138724E+0	1.077937E+0	1.119848E+0	1.115033E+0	1.082158E+0	1.124905E+0	1.097362E+0	1.070965E+0	1.144992E+0	1.090723E+0	1.122636E+0	1.124599E+0	1.178534E+0	1.136484E+0	1.146645E+0	1.095935E+0	1.043334E+0	1.098735E+0	1.116536E+0	1.078589E+0	1.097587E+0	1.170819E+0	1.104614E+0	1.064103E+0	1.120991E+0	1.136589E+0	1.135162E+0	1.077427E+0	1.147914E+0	1.117624E+0	1.097650E+0	1.136381E+0	1.167796E+0	1.055184E+0	1.082089E+0	1.099063E+0	1.164878E+0	1.096407E+0	1.148759E+0	1.083207E+0	1.106526E+0	1.099194E+0	1.151122E+0	1.087841E+0	1.073257E+0	1.168612E+0	1.090290E+0	1.102988E+0	1.081046E+0	1.125537E+0	1.114665E+0	1.118491E+0	1.058643E+0	1.064391E+0	1.103243E+0	1.042542E+0	1.081424E+0	1.129515E+0	1.131093E+0	1.104090E+0	1.107982E+0	1.088266E+0	1.046602E+0	1.094136E+0	1.055864E+0	1.134201E+0
5.376060E+2	1.018542E+0	1.068892E+0	1.045717E+0	1.065796E+0	1.086825E+0	1.095627E+0	1.056794E+0	1.031160E+0	1.029171E+0	1.058190E+0	1.060205E+0	1.072260E+0	1.091356E+0	1.050154E+0	1.052947E+0	1.082490E+0	1.053224E+0	1.053128E+0	1.030345E+0	1.127023E+0	1.120009E+0	1.156254E+0	1.085020E+0	1.092389E+0	1.134173E+0	1.084203E+0	1.097958E+0	1.145487E+0	1.071114E+0	1.074774E+0	1.111306E+0	1.096351E+0	1.066531E+0	1.161327E+0	1.154482E+0	1.077519E+0	1.099422E+0	1.106206E+0	1.075531E+0	1.062945E+0	1.062619E+0	1.016671E+0	1.117850E+0	1.069373E+0	1.108087E+0	1.061156E+0	1.092900E+0	1.098466E+0	1.124890E+0	1.106353E+0	1.136981E+0	1.034264E+0	1.096124E+0	1.104762E+0	1.115403E+0	1.136387E+0	1.078728E+0	1.096383E+0	1.119298E+0	1.137784E+0	1.103696E+0	1.146300E+0	1.146025E+0	1.103028E+0	1.130923E+0	1.091635E+0	1.133113E+0	1.113051E+0	1.173866E+0	1.057909E+0	1.134423E+0	1.159261E+0	1.154492E+0	1.090327E+0	1.127092E+0	1.100148E+0	1.071391E+0	1.127690E+0	1.125307E+0	1.126519E+0	1.097382E+0	1.070638E+0	1.090318E+0	1.038877E+0	1.070729E+0	1.076970E+0	1.128102E+0	1.101214E+0	1.138942E+0	1.149534E+0	1.058183E+0	1.105125E+0	1.093894E+0	1.126855E+0	1.084800E+0	1.101041E+0	1.093763E+0	1.000166E+0	1.108204E+0	1.036062E+0	1.111173E+0	1.045577E+0	1.104676E+0	1.090759E+0	1.090281E+0	1.065405E+0	1.078893E+0	1.052710E+0	1.123323E+0	1.080420E+0	1.094131E+0	1.126547E+0	1.123128E+0	1.075358E+0	1.116863E+0	1.067636E+0	1.130717E+0	1.122220E+0	1.099349E+0	1.129264E+0	1.104920E+0	1.071085E+0	1.092968E+0	1.111187E+0	1.124649E+0	1.116197E+0	1.186627E+0	1.025370E+0	1.110629E+0	1.092595E+0	1.171501E+0	1.089426E+0	1.058864E+0	1.074736E+0	1.100267E+0	1.117780E+0	1.078807E+0	1.090161E+0	1.049120E+0	1.115193E+0	1.133078E+0	1.097563E+0	1.098489E+0	1.167225E+0	1.009658E+0	1.155015E+0	1.111101E+0	1.202314E+0	1.161413E+0	1.060352E+0	1.108637E+0	1.130643E+0	1.081772E+0	1.009985E+0	1.161514E+0	1.063712E+0	1.166510E+0	1.074907E+0	1.061263E+0	1.124433E+0	1.118944E+0	1.072391E+0	1.132939E+0	1.068754E+0
5.378110E+2	1.204306E+0	1.131316E+0	1.097603E+0	1.117886E+0	1.214662E+0	1.202207E+0	1.131976E+0	1.124040E+0	1.166447E+0	1.165500E+0	1.183730E+0	1.136327E+0	1.221272E+0	1.203730E+0	1.185003E+0	1.140834E+0	1.139316E+0	1.105529E+0	1.121328E+0	1.151412E+0	1.127639E+0	1.137822E+0	1.197264E+0	1.141010E+0	1.162897E+0	1.108992E+0	1.100802E+0	1.165417E+0	1.116031E+0	1.106838E+0	1.157666E+0	1.118142E+0	1.124608E+0	1.152668E+0	1.155430E+0	1.175400E+0	1.114395E+0	1.212365E+0	1.114331E+0	1.152969E+0	1.181473E+0	1.103204E+0	1.187905E+0	1.183154E+0	1.140611E+0	1.159008E+0	1.122376E+0	1.133220E+0	1.121316E+0	1.109152E+0	1.199636E+0	1.083468E+0	1.102922E+0	1.161952E+0	1.105981E+0	1.137754E+0	1.157387E+0	1.142363E+0	1.120367E+0	1.160231E+0	1.155019E+0	1.155230E+0	1.155976E+0	1.204900E+0	1.107293E+0	1.123964E+0	1.187811E+0	1.121788E+0	1.177782E+0	1.103317E+0	1.174198E+0	1.174135E+0	1.163759E+0	1.143846E+0	1.199683E+0	1.155916E+0	1.194217E+0	1.094440E+0	1.195070E+0	1.186627E+0	1.132902E+0	1.047461E+0	1.180529E+0	1.155050E+0	1.182863E+0	1.140502E+0	1.170144E+0	1.144959E+0	1.177027E+0	1.119740E+0	1.182172E+0	1.087491E+0	1.172804E+0	1.129359E+0	1.157117E+0	1.171143E+0	1.111944E+0	1.136862E+0	1.163304E+0	1.145995E+0	1.115732E+0	1.136630E+0	1.145840E+0	1.150984E+0	1.182409E+0	1.148529E+0	1.194274E+0	1.149902E+0	1.132390E+0	1.168548E+0	1.171690E+0	1.145107E+0	1.185145E+0	1.124860E+0	1.126130E+0	1.151210E+0	1.124950E+0	1.118339E+0	1.104796E+0	1.160112E+0	1.162018E+0	1.140442E+0	1.130012E+0	1.152802E+0	1.221454E+0	1.145882E+0	1.150306E+0	1.143775E+0	1.157145E+0	1.135142E+0	1.211283E+0	1.102996E+0	1.172109E+0	1.187732E+0	1.179929E+0	1.167577E+0	1.162489E+0	1.098993E+0	1.106846E+0	1.122105E+0	1.172448E+0	1.101496E+0	1.184953E+0	1.208364E+0	1.141461E+0	1.156245E+0	1.135023E+0	1.116880E+0	1.163076E+0	1.079267E+0	1.145204E+0	1.185232E+0	1.153223E+0	1.100534E+0	1.170777E+0	1.216016E+0	1.149983E+0	1.089282E+0	1.201863E+0	1.127116E+0	1.199992E+0	1.086132E+0	1.134435E+0	1.203307E+0
5.380050E+2	1.298871E+0	1.181419E+0	1.162873E+0	1.228435E+0	1.158131E+0	1.282255E+0	1.163136E+0	1.174483E+0	1.238354E+0	1.203463E+0	1.159131E+0	1.194760E+0	1.200104E+0	1.168548E+0	1.183551E+0	1.228517E+0	1.175073E+0	1.241158E+0	1.243922E+0	1.253110E+0	1.219522E+0	1.262213E+0	1.187708E+0	1.220461E+0	1.228101E+0	1.166454E+0	1.238660E+0	1.204298E+0	1.187674E+0	1.143620E+0	1.247874E+0	1.251592E+0	1.207839E+0	1.194948E+0	1.216815E+0	1.231803E+0	1.197600E+0	1.249470E+0	1.182283E+0	1.241544E+0	1.207159E+0	1.125693E+0	1.171743E+0	1.200875E+0	1.172291E+0	1.220338E+0	1.193083E+0	1.172778E+0	1.172578E+0	1.148008E+0	1.195938E+0	1.211870E+0	1.203839E+0	1.220345E+0	1.180741E+0	1.205569E+0	1.255220E+0	1.208131E+0	1.176966E+0	1.224313E+0	1.147948E+0	1.187044E+0	1.127720E+0	1.223197E+0	1.183234E+0	1.240131E+0	1.146692E+0	1.252617E+0	1.226394E+0	1.189869E+0	1.261203E+0	1.269601E+0	1.273948E+0	1.217426E+0	1.185148E+0	1.280809E+0	1.204755E+0	1.204181E+0	1.252171E+0	1.246273E+0	1.231090E+0	1.196644E+0	1.209146E+0	1.239552E+0	1.260313E+0	1.210261E+0	1.198623E+0	1.240333E+0	1.218394E+0	1.216726E+0	1.198330E+0	1.281640E+0	1.198436E+0	1.202144E+0	1.245575E+0	1.236591E+0	1.222566E+0	1.194427E+0	1.258299E+0	1.165089E+0	1.199943E+0	1.197249E+0	1.180585E+0	1.193221E+0	1.202057E+0	1.196661E+0	1.164979E+0	1.223453E+0	1.171813E+0	1.215486E+0	1.214339E+0	1.219610E+0	1.235388E+0	1.177331E+0	1.254902E+0	1.227085E+0	1.219507E+0	1.168680E+0	1.159459E+0	1.220770E+0	1.174437E+0	1.174013E+0	1.195709E+0	1.191454E+0	1.190730E+0	1.224404E+0	1.191930E+0	1.192862E+0	1.238308E+0	1.210165E+0	1.237810E+0	1.179370E+0	1.190125E+0	1.175979E+0	1.186280E+0	1.208618E+0	1.230653E+0	1.244878E+0	1.159933E+0	1.168948E+0	1.201354E+0	1.212632E+0	1.146187E+0	1.267333E+0	1.203760E+0	1.241965E+0	1.246356E+0	1.195043E+0	1.268432E+0	1.155162E+0	1.248567E+0	1.194152E+0	1.196806E+0	1.128852E+0	1.188049E+0	1.278912E+0	1.228235E+0	1.231228E+0	1.187728E+0	1.232400E+0	1.178019E+0	1.162396E+0	1.289494E+0	1.153038E+0
5.382060E+2	1.452260E+0	1.484302E+0	1.447398E+0	1.520777E+0	1.529541E+0	1.409545E+0	1.443870E+0	1.438123E+0	1.425629E+0	1.442467E+0	1.463183E+0	1.422721E+0	1.460826E+0	1.403138E+0	1.455490E+0	1.531937E+0	1.452513E+0	1.338617E+0	1.419068E+0	1.490590E+0	1.469460E+0	1.401333E+0	1.377402E+0	1.523846E+0	1.431331E+0	1.471954E+0	1.403987E+0	1.459407E+0	1.396134E+0	1.391802E+0	1.421130E+0	1.430331E+0	1.411617E+0	1.471580E+0	1.409308E+0	1.451241E+0	1.361656E+0	1.465920E+0	1.356823E+0	1.452006E+0	1.466231E+0	1.398694E+0	1.407535E+0	1.375948E+0	1.387140E+0	1.429732E+0	1.393893E+0	1.453094E+0	1.457476E+0	1.311135E+0	1.406249E+0	1.411151E+0	1.345905E+0	1.418884E+0	1.459103E+0	1.466289E+0	1.461377E+0	1.382854E+0	1.464968E+0	1.429564E+0	1.419606E+0	1.477254E+0	1.408256E+0	1.403344E+0	1.406746E+0	1.462506E+0	1.456138E+0	1.439747E+0	1.484574E+0	1.354126E+0	1.429383E+0	1.470193E+0	1.445151E+0	1.369945E+0	1.439852E+0	1.406992E+0	1.427187E+0	1.415217E+0	1.426253E+0	1.511364E+0	1.502399E+0	1.443234E+0	1.415568E+0	1.362938E+0	1.405142E+0	1.378636E+0	1.455736E+0	1.457695E+0	1.444051E+0	1.407095E+0	1.402477E+0	1.464157E+0	1.406542E+0	1.400053E+0	1.494212E+0	1.427957E+0	1.475437E+0	1.342926E+0	1.423763E+0	1.390498E+0	1.427490E+0	1.350336E+0	1.414775E+0	1.455551E+0	1.454038E+0	1.414346E+0	1.409249E+0	1.392912E+0	1.405413E+0	1.445059E+0	1.494356E+0	1.414696E+0	1.447285E+0	1.508302E+0	1.339016E+0	1.419317E+0	1.466425E+0	1.383938E+0	1.398643E+0	1.471467E+0	1.424184E+0	1.412028E+0	1.393541E+0	1.455216E+0	1.471377E+0	1.464432E+0	1.432152E+0	1.406480E+0	1.434940E+0	1.386569E+0	1.452578E+0	1.436484E+0	1.460577E+0	1.376015E+0	1.411466E+0	1.463268E+0	1.472416E+0	1.469100E+0	1.397702E+0	1.431783E+0	1.467252E+0	1.368908E+0	1.475746E+0	1.488968E+0	1.416597E+0	1.509029E+0	1.435028E+0	1.490260E+0	1.445359E+0	1.467397E+0	1.460382E+0	1.464777E+0	1.396203E+0	1.376954E+0	1.426878E+0	1.403411E+0	1.482913E+0	1.409199E+0	1.432831E+0	1.419671E+0	1.451129E+0	1.363011E+0	1.389594E+0	1.497543E+0
5.384110E+2	1.646928E+0	1.674784E+0	1.688965E+0	1.704180E+0	1.805806E+0	1.808805E+0	1.665335E+0	1.662930E+0	1.758055E+0	1.695251E+0	1.713276E+0	1.799673E+0	1.693931E+0	1.750817E+0	1.736642E+0	1.691147E+0	1.685460E+0	1.661941E+0	1.726426E+0	1.750718E+0	1.721891E+0	1.717678E+0	1.676293E+0	1.646921E+0	1.602097E+0	1.664589E+0	1.613474E+0	1.617188E+0	1.663143E+0	1.667102E+0	1.691222E+0	1.692842E+0	1.645046E+0	1.703982E+0	1.657394E+0	1.631398E+0	1.783852E+0	1.716750E+0	1.607569E+0	1.696745E+0	1.648592E+0	1.678445E+0	1.642964E+0	1.649298E+0	1.685464E+0	1.710373E+0	1.677607E+0	1.651476E+0	1.704686E+0	1.566073E+0	1.711426E+0	1.670330E+0	1.583322E+0	1.596663E+0	1.671959E+0	1.680804E+0	1.682474E+0	1.666414E+0	1.684198E+0	1.732185E+0	1.688264E+0	1.695186E+0	1.635766E+0	1.698730E+0	1.668056E+0	1.649719E+0	1.646010E+0	1.695004E+0	1.738200E+0	1.547861E+0	1.689820E+0	1.757101E+0	1.703926E+0	1.695019E+0	1.673790E+0	1.729927E+0	1.747890E+0	1.749559E+0	1.695946E+0	1.741006E+0	1.700348E+0	1.696491E+0	1.725534E+0	1.626225E+0	1.721333E+0	1.620857E+0	1.676038E+0	1.675565E+0	1.687459E+0	1.702254E+0	1.706325E+0	1.671436E+0	1.731088E+0	1.694437E+0	1.687176E+0	1.740314E+0	1.621723E+0	1.699277E+0	1.718144E+0	1.633747E+0	1.584811E+0	1.633264E+0	1.667707E+0	1.696363E+0	1.667113E+0	1.606823E+0	1.633815E+0	1.638659E+0	1.635850E+0	1.651332E+0	1.663278E+0	1.627829E+0	1.699501E+0	1.654867E+0	1.618504E+0	1.703381E+0	1.668543E+0	1.588474E+0	1.632877E+0	1.755157E+0	1.635792E+0	1.654825E+0	1.661428E+0	1.663760E+0	1.697170E+0	1.670225E+0	1.676944E+0	1.623420E+0	1.724459E+0	1.700774E+0	1.673871E+0	1.719040E+0	1.646459E+0	1.583064E+0	1.607773E+0	1.634822E+0	1.666540E+0	1.629333E+0	1.610963E+0	1.623869E+0	1.643251E+0	1.640332E+0	1.690856E+0	1.769234E+0	1.682839E+0	1.657203E+0	1.641160E+0	1.672231E+0	1.712636E+0	1.627972E+0	1.687508E+0	1.687123E+0	1.615838E+0	1.611314E+0	1.679819E+0	1.714051E+0	1.734758E+0	1.614970E+0	1.602668E+0	1.632428E+0	1.664182E+0	1.642815E+0	1.712196E+0	1.699465E+0
5.386060E+2	1.619674E+0	1.646132E+0	1.594523E+0	1.666781E+0	1.575572E+0	1.627882E+0	1.648334E+0	1.651733E+0	1.697687E+0	1.622756E+0	1.631135E+0	1.639185E+0	1.599397E+0	1.640084E+0	1.580176E+0	1.612975E+0	1.583615E+0	1.605673E+0	1.626554E+0	1.620052E+0	1.599383E+0	1.601598E+0	1.613728E+0	1.579499E+0	1.635630E+0	1.570301E+0	1.584026E+0	1.572507E+0	1.530325E+0	1.534023E+0	1.605308E+0	1.625858E+0	1.576060E+0	1.667652E+0	1.627691E+0	1.637714E+0	1.534584E+0	1.623179E+0	1.552955E+0	1.550490E+0	1.532786E+0	1.547809E+0	1.569147E+0	1.595334E+0	1.666639E+0	1.596888E+0	1.567080E+0	1.564708E+0	1.578730E+0	1.483528E+0	1.573533E+0	1.597602E+0	1.567380E+0	1.563819E+0	1.539553E+0	1.643181E+0	1.600676E+0	1.579749E+0	1.576664E+0	1.610162E+0	1.582270E+0	1.587650E+0	1.523969E+0	1.617969E+0	1.593715E+0	1.576366E+0	1.539074E+0	1.579118E+0	1.602961E+0	1.483109E+0	1.599955E+0	1.626583E+0	1.573163E+0	1.587757E+0	1.583250E+0	1.614140E+0	1.598489E+0	1.543526E+0	1.591196E+0	1.630511E+0	1.592224E+0	1.634625E+0	1.571093E+0	1.490651E+0	1.532284E+0	1.560158E+0	1.618728E+0	1.593978E+0	1.632287E+0	1.581444E+0	1.588843E+0	1.638336E+0	1.558145E+0	1.663781E+0	1.619585E+0	1.540386E+0	1.600014E+0	1.589334E+0	1.625370E+0	1.567089E+0	1.456010E+0	1.565391E+0	1.549664E+0	1.548742E+0	1.567840E+0	1.560064E+0	1.600695E+0	1.642175E+0	1.535161E+0	1.591199E+0	1.603078E+0	1.664549E+0	1.642565E+0	1.590819E+0	1.655698E+0	1.589295E+0	1.568118E+0	1.506238E+0	1.609232E+0	1.657772E+0	1.624487E+0	1.597399E+0	1.576162E+0	1.596879E+0	1.629278E+0	1.592473E+0	1.644311E+0	1.575508E+0	1.550069E+0	1.580504E+0	1.547150E+0	1.586159E+0	1.551167E+0	1.613773E+0	1.578389E+0	1.576641E+0	1.584264E+0	1.601109E+0	1.518466E+0	1.604646E+0	1.569971E+0	1.543544E+0	1.623993E+0	1.618880E+0	1.560086E+0	1.649611E+0	1.579093E+0	1.614337E+0	1.594164E+0	1.528058E+0	1.571507E+0	1.685686E+0	1.516921E+0	1.533039E+0	1.547767E+0	1.672072E+0	1.651857E+0	1.590008E+0	1.581587E+0	1.598045E+0	1.515364E+0	1.549857E+0	1.557027E+0	1.504405E+0
5.388120E+2	1.435383E+0	1.426131E+0	1.387195E+0	1.455040E+0	1.465664E+0	1.422644E+0	1.400256E+0	1.449735E+0	1.452075E+0	1.416677E+0	1.346483E+0	1.401202E+0	1.393425E+0	1.428917E+0	1.405974E+0	1.430868E+0	1.486184E+0	1.449426E+0	1.410394E+0	1.437858E+0	1.392031E+0	1.493781E+0	1.439598E+0	1.407894E+0	1.395813E+0	1.386929E+0	1.376600E+0	1.428284E+0	1.380998E+0	1.322416E+0	1.376860E+0	1.411004E+0	1.345940E+0	1.442096E+0	1.396106E+0	1.386037E+0	1.361849E+0	1.417281E+0	1.341686E+0	1.397655E+0	1.411657E+0	1.407654E+0	1.378912E+0	1.452379E+0	1.503512E+0	1.402914E+0	1.398974E+0	1.418086E+0	1.359618E+0	1.329130E+0	1.412634E+0	1.382467E+0	1.318744E+0	1.366890E+0	1.413450E+0	1.397761E+0	1.419507E+0	1.436160E+0	1.423383E+0	1.419807E+0	1.449774E+0	1.375580E+0	1.392108E+0	1.435667E+0	1.351771E+0	1.443771E+0	1.355175E+0	1.431061E+0	1.442375E+0	1.351865E+0	1.479356E+0	1.505720E+0	1.383497E+0	1.357234E+0	1.435203E+0	1.476912E+0	1.450375E+0	1.444653E+0	1.374790E+0	1.425827E+0	1.427739E+0	1.410366E+0	1.419664E+0	1.436311E+0	1.381092E+0	1.370131E+0	1.385101E+0	1.386915E+0	1.388742E+0	1.437654E+0	1.401569E+0	1.348171E+0	1.431595E+0	1.415816E+0	1.412980E+0	1.442261E+0	1.401227E+0	1.389439E+0	1.360219E+0	1.345864E+0	1.380935E+0	1.356820E+0	1.336049E+0	1.307840E+0	1.415804E+0	1.394024E+0	1.332349E+0	1.394360E+0	1.394699E+0	1.392261E+0	1.458386E+0	1.405018E+0	1.402522E+0	1.416494E+0	1.424009E+0	1.365937E+0	1.394026E+0	1.361851E+0	1.382488E+0	1.498412E+0	1.417649E+0	1.353634E+0	1.390018E+0	1.380424E+0	1.431829E+0	1.397598E+0	1.385399E+0	1.399049E+0	1.358007E+0	1.408812E+0	1.464152E+0	1.406658E+0	1.379752E+0	1.399311E+0	1.348044E+0	1.404882E+0	1.396657E+0	1.356262E+0	1.333050E+0	1.400105E+0	1.409586E+0	1.318791E+0	1.489473E+0	1.423510E+0	1.456514E+0	1.410395E+0	1.423333E+0	1.380572E+0	1.440670E+0	1.415039E+0	1.347307E+0	1.453018E+0	1.432142E+0	1.332731E+0	1.426346E+0	1.426822E+0	1.386611E+0	1.384819E+0	1.394469E+0	1.386524E+0	1.381589E+0	1.402592E+0	1.455806E+0	1.325814E+0
5.390080E+2	1.254007E+0	1.257043E+0	1.195271E+0	1.251478E+0	1.258287E+0	1.280676E+0	1.264591E+0	1.212036E+0	1.280055E+0	1.261990E+0	1.266565E+0	1.232563E+0	1.218640E+0	1.268667E+0	1.253842E+0	1.252120E+0	1.275174E+0	1.248403E+0	1.284651E+0	1.264059E+0	1.256354E+0	1.228346E+0	1.221434E+0	1.253135E+0	1.215421E+0	1.308109E+0	1.234991E+0	1.242982E+0	1.219019E+0	1.191157E+0	1.226397E+0	1.208250E+0	1.244240E+0	1.250563E+0	1.217486E+0	1.283990E+0	1.194868E+0	1.282594E+0	1.209018E+0	1.196030E+0	1.257234E+0	1.238702E+0	1.255740E+0	1.306317E+0	1.282849E+0	1.260326E+0	1.263842E+0	1.260858E+0	1.228770E+0	1.161282E+0	1.214975E+0	1.275343E+0	1.229543E+0	1.229479E+0	1.204954E+0	1.265651E+0	1.244602E+0	1.276464E+0	1.216897E+0	1.304457E+0	1.191654E+0	1.300217E+0	1.221578E+0	1.231915E+0	1.186521E+0	1.266408E+0	1.282170E+0	1.252637E+0	1.239854E+0	1.211633E+0	1.234369E+0	1.298306E+0	1.188763E+0	1.210708E+0	1.303882E+0	1.292617E+0	1.276374E+0	1.258085E+0	1.263305E+0	1.341652E+0	1.228251E+0	1.298624E+0	1.209716E+0	1.264858E+0	1.228524E+0	1.225747E+0	1.243633E+0	1.245617E+0	1.244143E+0	1.285372E+0	1.228582E+0	1.236280E+0	1.298378E+0	1.239800E+0	1.252402E+0	1.239578E+0	1.247681E+0	1.179935E+0	1.237320E+0	1.242907E+0	1.277239E+0	1.237295E+0	1.239271E+0	1.234576E+0	1.192718E+0	1.299308E+0	1.237586E+0	1.245060E+0	1.211202E+0	1.249049E+0	1.264236E+0	1.259738E+0	1.267368E+0	1.260184E+0	1.352193E+0	1.264275E+0	1.258141E+0	1.183959E+0	1.269403E+0	1.318829E+0	1.265132E+0	1.227702E+0	1.204984E+0	1.248354E+0	1.242447E+0	1.204605E+0	1.280988E+0	1.254238E+0	1.240292E+0	1.305820E+0	1.245076E+0	1.216974E+0	1.263401E+0	1.156880E+0	1.240527E+0	1.228219E+0	1.264428E+0	1.235067E+0	1.228359E+0	1.205826E+0	1.226299E+0	1.245621E+0	1.242116E+0	1.307056E+0	1.273445E+0	1.326447E+0	1.260807E+0	1.291204E+0	1.248880E+0	1.261504E+0	1.243612E+0	1.311315E+0	1.281573E+0	1.176639E+0	1.261266E+0	1.354919E+0	1.274734E+0	1.213222E+0	1.240123E+0	1.239922E+0	1.234732E+0	1.236101E+0	1.260276E+0	1.256001E+0
5.392090E+2	1.049549E+0	1.168958E+0	1.074563E+0	1.123610E+0	1.146602E+0	1.073800E+0	1.069749E+0	1.082182E+0	1.176181E+0	1.123588E+0	1.061304E+0	1.123593E+0	1.077371E+0	1.075017E+0	1.062811E+0	1.069306E+0	1.065106E+0	1.093178E+0	1.094987E+0	1.128225E+0	1.109362E+0	1.099889E+0	1.110311E+0	1.068057E+0	1.127200E+0	1.067761E+0	1.098721E+0	1.096066E+0	1.134889E+0	1.104267E+0	1.060516E+0	1.105515E+0	1.060990E+0	1.125442E+0	1.085837E+0	1.127201E+0	1.081992E+0	1.148408E+0	1.065996E+0	1.041512E+0	1.094153E+0	1.095860E+0	1.097323E+0	1.026935E+0	1.078468E+0	1.135982E+0	1.145898E+0	1.144841E+0	1.103500E+0	1.075219E+0	1.089741E+0	1.050317E+0	1.019434E+0	1.094734E+0	1.103195E+0	1.076648E+0	1.122163E+0	1.117820E+0	1.034790E+0	1.090586E+0	1.083772E+0	1.026415E+0	1.067408E+0	1.082973E+0	1.059927E+0	1.145721E+0	1.159821E+0	1.082934E+0	1.137934E+0	1.059544E+0	1.090479E+0	1.120294E+0	1.164785E+0	1.057902E+0	1.104044E+0	1.147604E+0	1.118324E+0	1.082158E+0	1.107853E+0	1.114439E+0	1.150028E+0	1.157516E+0	1.101312E+0	1.048031E+0	1.099042E+0	1.095150E+0	1.122309E+0	1.080384E+0	1.132178E+0	1.062774E+0	1.056618E+0	1.104669E+0	1.041678E+0	1.113460E+0	1.083689E+0	1.133433E+0	1.121488E+0	1.088968E+0	1.117135E+0	1.123165E+0	1.123254E+0	1.102452E+0	1.018669E+0	1.112986E+0	1.092015E+0	1.037491E+0	1.123831E+0	1.069204E+0	1.055719E+0	1.101676E+0	1.079196E+0	1.138451E+0	1.144875E+0	1.076226E+0	1.101710E+0	1.057505E+0	1.068876E+0	1.078990E+0	1.134978E+0	1.151663E+0	1.125517E+0	1.067027E+0	1.075189E+0	1.148359E+0	1.094579E+0	1.066493E+0	1.101755E+0	1.057117E+0	1.110877E+0	1.090951E+0	1.119300E+0	1.081559E+0	1.093809E+0	1.089327E+0	1.101673E+0	1.118443E+0	1.101251E+0	1.115382E+0	1.054848E+0	1.076258E+0	1.078063E+0	1.080430E+0	1.124642E+0	1.193223E+0	1.076477E+0	1.108199E+0	1.114602E+0	1.113772E+0	1.149440E+0	1.118501E+0	1.075688E+0	1.189128E+0	1.124041E+0	1.087487E+0	1.106240E+0	1.113463E+0	1.121434E+0	1.124407E+0	1.069451E+0	1.103566E+0	1.071204E+0	1.152770E+0	1.092609E+0	1.058787E+0
5.394100E+2	1.101207E+0	1.095665E+0	1.033869E+0	1.096398E+0	1.170243E+0	1.142266E+0	1.041500E+0	1.059240E+0	1.120933E+0	1.072172E+0	1.051506E+0	1.121333E+0	1.086829E+0	1.088450E+0	1.115248E+0	1.049520E+0	1.117191E+0	1.019044E+0	1.036285E+0	1.029000E+0	1.071015E+0	1.104293E+0	1.064990E+0	1.040205E+0	1.062107E+0	1.047312E+0	1.103077E+0	1.025395E+0	1.082568E+0	1.016743E+0	1.072967E+0	1.038520E+0	1.023560E+0	1.126872E+0	1.079603E+0	1.092276E+0	1.069080E+0	1.053532E+0	1.001831E+0	1.020791E+0	1.065131E+0	1.040646E+0	1.087802E+0	1.107515E+0	1.156955E+0	1.066311E+0	1.085625E+0	1.080704E+0	9.855511E-1	1.049973E+0	1.096821E+0	1.026499E+0	1.025500E+0	1.074539E+0	1.061297E+0	1.094263E+0	1.035435E+0	1.062190E+0	1.077968E+0	1.089192E+0	1.083602E+0	1.071825E+0	1.026306E+0	1.101211E+0	1.099314E+0	1.067411E+0	1.052372E+0	1.091857E+0	1.052361E+0	1.057636E+0	1.068757E+0	1.117642E+0	1.085832E+0	1.127151E+0	1.078421E+0	1.066922E+0	1.066202E+0	1.020077E+0	1.081433E+0	1.118471E+0	1.039416E+0	1.050805E+0	1.045397E+0	1.101496E+0	1.110524E+0	1.063849E+0	1.015260E+0	1.066768E+0	1.051263E+0	1.053328E+0	1.087583E+0	1.095892E+0	1.052100E+0	1.100284E+0	1.042188E+0	1.097452E+0	1.040503E+0	9.923848E-1	1.075447E+0	1.087512E+0	1.019998E+0	1.047736E+0	1.011581E+0	1.053934E+0	1.101986E+0	1.071327E+0	1.083501E+0	1.069711E+0	1.084767E+0	1.083154E+0	1.102015E+0	1.015420E+0	1.078569E+0	1.063575E+0	1.090534E+0	1.048763E+0	1.056538E+0	1.025892E+0	1.056840E+0	1.071522E+0	1.068859E+0	1.091898E+0	1.063851E+0	1.054197E+0	1.069507E+0	1.070787E+0	1.032894E+0	9.952955E-1	1.055906E+0	1.080670E+0	1.093382E+0	1.034049E+0	1.062065E+0	1.019078E+0	1.016836E+0	1.049403E+0	1.098695E+0	1.074629E+0	1.019380E+0	1.053137E+0	1.098345E+0	1.055098E+0	1.093972E+0	1.107802E+0	1.086534E+0	1.113162E+0	1.099019E+0	1.133010E+0	1.078761E+0	1.021773E+0	1.015906E+0	1.106220E+0	1.041812E+0	1.087759E+0	1.041030E+0	1.157635E+0	1.069429E+0	1.119373E+0	1.094071E+0	1.047868E+0	1.048197E+0	1.084108E+0	1.061043E+0	1.163616E+0
5.396110E+2	9.607544E-1	1.017303E+0	1.010147E+0	1.052806E+0	1.056790E+0	1.029874E+0	1.003213E+0	1.024049E+0	1.040600E+0	9.892638E-1	1.016191E+0	1.033593E+0	9.965513E-1	1.027030E+0	9.747421E-1	1.047264E+0	1.074823E+0	1.009524E+0	1.024918E+0	1.009320E+0	1.048310E+0	1.006460E+0	1.070630E+0	1.055296E+0	1.039357E+0	1.023503E+0	1.013743E+0	1.019531E+0	9.641840E-1	1.007983E+0	1.028748E+0	1.003616E+0	1.009349E+0	1.023803E+0	1.012903E+0	1.043033E+0	1.038806E+0	1.050127E+0	1.003262E+0	1.069852E+0	1.043399E+0	9.796012E-1	1.022720E+0	1.001356E+0	1.046468E+0	1.047885E+0	1.044260E+0	1.002175E+0	1.021209E+0	9.817639E-1	1.053250E+0	1.008197E+0	9.650332E-1	1.013158E+0	1.036016E+0	1.048860E+0	9.860735E-1	1.037051E+0	9.927268E-1	9.958618E-1	1.040581E+0	1.012337E+0	9.740723E-1	9.972104E-1	1.005867E+0	1.023000E+0	1.016260E+0	1.020361E+0	1.077080E+0	9.709767E-1	9.772656E-1	1.041978E+0	1.036218E+0	1.059561E+0	1.054876E+0	1.052727E+0	1.030966E+0	1.045647E+0	1.003800E+0	1.040159E+0	9.983202E-1	9.952734E-1	1.055422E+0	1.018108E+0	9.508956E-1	9.742686E-1	1.012088E+0	1.026551E+0	1.094649E+0	1.024456E+0	1.016622E+0	1.043185E+0	1.065357E+0	1.037103E+0	1.103383E+0	1.037164E+0	1.033428E+0	9.845286E-1	1.024613E+0	9.862861E-1	9.901597E-1	1.025058E+0	1.031128E+0	1.039713E+0	1.032298E+0	1.009268E+0	1.055218E+0	9.787633E-1	1.046586E+0	1.074030E+0	1.094000E+0	1.038671E+0	9.362350E-1	1.084618E+0	1.033333E+0	1.010718E+0	1.061553E+0	1.039663E+0	9.730635E-1	1.020210E+0	1.002633E+0	9.932966E-1	1.081669E+0	9.859300E-1	1.058744E+0	9.909685E-1	1.073262E+0	1.024304E+0	1.013339E+0	1.070461E+0	1.024690E+0	1.000792E+0	1.021589E+0	1.045161E+0	1.010902E+0	9.949895E-1	1.035964E+0	1.032779E+0	9.953058E-1	9.826418E-1	1.026543E+0	9.759175E-1	1.063739E+0	1.096034E+0	1.075231E+0	1.010903E+0	9.561202E-1	1.047242E+0	1.033413E+0	9.854682E-1	9.878737E-1	1.049487E+0	1.014141E+0	9.972183E-1	1.045955E+0	1.037281E+0	9.940420E-1	1.033000E+0	1.032172E+0	9.957411E-1	9.823463E-1	9.934716E-1	1.037426E+0	1.076812E+0
5.398180E+2	8.628046E-1	8.661364E-1	8.121267E-1	8.213671E-1	8.607273E-1	8.180374E-1	8.378013E-1	8.328869E-1	8.438692E-1	8.002052E-1	8.013378E-1	8.431517E-1	8.130811E-1	8.434538E-1	8.330350E-1	8.281275E-1	7.950109E-1	8.020550E-1	8.359736E-1	8.470077E-1	8.467274E-1	8.402501E-1	8.491752E-1	8.110906E-1	8.121436E-1	8.062315E-1	7.824515E-1	8.364996E-1	8.033378E-1	8.128938E-1	7.835269E-1	7.947555E-1	7.755537E-1	8.366031E-1	8.150135E-1	8.073519E-1	7.939861E-1	8.507182E-1	7.776693E-1	8.235739E-1	8.197007E-1	7.785555E-1	8.690863E-1	7.917574E-1	8.460610E-1	8.410655E-1	8.484650E-1	8.345443E-1	8.109280E-1	7.736467E-1	8.532066E-1	8.072623E-1	8.105147E-1	8.652208E-1	8.298250E-1	7.855661E-1	8.385837E-1	8.160178E-1	8.135025E-1	8.216651E-1	7.828216E-1	7.938892E-1	8.304479E-1	7.905657E-1	8.590563E-1	8.462942E-1	8.251111E-1	8.310951E-1	8.319356E-1	7.859888E-1	8.175329E-1	8.064817E-1	8.638679E-1	8.296378E-1	7.929116E-1	8.316920E-1	8.473839E-1	8.310048E-1	8.325619E-1	8.309308E-1	8.611591E-1	8.374654E-1	7.719989E-1	8.298957E-1	8.671241E-1	7.948606E-1	8.023352E-1	8.596150E-1	8.406043E-1	8.463943E-1	8.248882E-1	8.504620E-1	8.344391E-1	8.275852E-1	8.559203E-1	8.256271E-1	7.892016E-1	8.283465E-1	7.605436E-1	8.029355E-1	7.899372E-1	8.292174E-1	8.435402E-1	8.308902E-1	7.819300E-1	8.005899E-1	8.165451E-1	7.836474E-1	8.019969E-1	8.429120E-1	8.573241E-1	8.624717E-1	8.520871E-1	7.765685E-1	8.746069E-1	8.169334E-1	8.549912E-1	8.008238E-1	8.398079E-1	8.278152E-1	8.259976E-1	8.106000E-1	7.810209E-1	8.330716E-1	7.783733E-1	8.235364E-1	8.690447E-1	8.191201E-1	8.051901E-1	8.130583E-1	8.213821E-1	7.721486E-1	8.433138E-1	7.924268E-1	8.001076E-1	8.399976E-1	8.395559E-1	8.336480E-1	7.812797E-1	8.014015E-1	8.812254E-1	8.217211E-1	8.418977E-1	8.752180E-1	8.527704E-1	8.228252E-1	7.563666E-1	8.333335E-1	8.412735E-1	7.852792E-1	8.393493E-1	7.960292E-1	8.724499E-1	8.525933E-1	7.928772E-1	8.503009E-1	8.718422E-1	7.984829E-1	8.319699E-1	8.044427E-1	8.579714E-1	8.270950E-1	8.125093E-1	7.511701E-1
5.400140E+2	7.099375E-1	6.940987E-1	6.520385E-1	6.415502E-1	6.802341E-1	6.310444E-1	6.988791E-1	6.971800E-1	6.886260E-1	6.660739E-1	7.010128E-1	7.028057E-1	6.817578E-1	7.159552E-1	6.407540E-1	6.432574E-1	6.881911E-1	6.938574E-1	6.911106E-1	6.761603E-1	6.596212E-1	6.796751E-1	6.467765E-1	6.666955E-1	6.680914E-1	6.895602E-1	6.960209E-1	7.016302E-1	6.707379E-1	6.842831E-1	6.650512E-1	6.684415E-1	6.616956E-1	6.890894E-1	7.137071E-1	6.523700E-1	6.756455E-1	6.872553E-1	6.327749E-1	6.435611E-1	6.907299E-1	6.465055E-1	6.622775E-1	6.673134E-1	7.420988E-1	7.043938E-1	7.119287E-1	6.847192E-1	7.035724E-1	6.557302E-1	6.837459E-1	6.187871E-1	6.764811E-1	6.624026E-1	6.718253E-1	6.652464E-1	7.458196E-1	6.674349E-1	6.563454E-1	7.029346E-1	6.633329E-1	6.153679E-1	7.134810E-1	7.316660E-1	6.851691E-1	6.740792E-1	6.890608E-1	6.712300E-1	6.609290E-1	6.313492E-1	6.611709E-1	7.180067E-1	7.589613E-1	6.746573E-1	6.840834E-1	7.160638E-1	7.311731E-1	7.147931E-1	7.487635E-1	6.990147E-1	6.663337E-1	6.597314E-1	6.867289E-1	6.729628E-1	6.841013E-1	6.641082E-1	6.778026E-1	7.408389E-1	7.694462E-1	6.924389E-1	6.829541E-1	6.928274E-1	6.796168E-1	6.908771E-1	6.930344E-1	6.973247E-1	6.946867E-1	6.989636E-1	6.853548E-1	6.673001E-1	6.748746E-1	7.137478E-1	6.441957E-1	6.876518E-1	6.545810E-1	6.711796E-1	6.961958E-1	7.005401E-1	7.085309E-1	6.565729E-1	7.085758E-1	6.492994E-1	6.519115E-1	6.474417E-1	7.057641E-1	6.519935E-1	6.831464E-1	6.811330E-1	7.321654E-1	7.177273E-1	6.987592E-1	6.470047E-1	6.826380E-1	7.013306E-1	6.930788E-1	6.958308E-1	7.333518E-1	7.027304E-1	6.744944E-1	6.559307E-1	7.272211E-1	6.751456E-1	6.815554E-1	6.561970E-1	6.759542E-1	6.706235E-1	6.798706E-1	6.938407E-1	6.356021E-1	6.437210E-1	6.535074E-1	6.526957E-1	7.014130E-1	6.666996E-1	6.559182E-1	6.500277E-1	7.329546E-1	6.909309E-1	7.122636E-1	6.817727E-1	6.633110E-1	6.968083E-1	6.632071E-1	6.675766E-1	7.011690E-1	7.084770E-1	7.057714E-1	7.006803E-1	6.503049E-1	6.320713E-1	6.577847E-1	6.839349E-1	6.753584E-1	7.507623E-1
5.402100E+2	5.338771E-1	5.647987E-1	5.325355E-1	5.052730E-1	4.995759E-1	5.410696E-1	5.108596E-1	5.056172E-1	5.254832E-1	5.801558E-1	4.933960E-1	5.567347E-1	5.500104E-1	5.105105E-1	5.590485E-1	5.618017E-1	5.733794E-1	5.431409E-1	5.472357E-1	5.402335E-1	6.045359E-1	5.073698E-1	5.406109E-1	5.436356E-1	5.237096E-1	5.238734E-1	4.972064E-1	5.064718E-1	5.295599E-1	5.236460E-1	5.321004E-1	5.551268E-1	5.686969E-1	5.763352E-1	5.912260E-1	5.418427E-1	5.155073E-1	5.284953E-1	5.204638E-1	5.090379E-1	4.922813E-1	5.030303E-1	5.063207E-1	5.251889E-1	5.671900E-1	5.727200E-1	5.599249E-1	5.695459E-1	5.079179E-1	5.247100E-1	5.307841E-1	5.751535E-1	5.737228E-1	5.670920E-1	5.342698E-1	5.697773E-1	5.747178E-1	5.421750E-1	5.221949E-1	5.367773E-1	5.716769E-1	5.672103E-1	5.562701E-1	5.244769E-1	5.688960E-1	5.628438E-1	5.557993E-1	5.240391E-1	5.730351E-1	5.339166E-1	5.433991E-1	5.418830E-1	5.381537E-1	5.889031E-1	5.589594E-1	5.026254E-1	5.676009E-1	4.842188E-1	5.441828E-1	5.516115E-1	5.543952E-1	5.713050E-1	5.692809E-1	5.277295E-1	5.353514E-1	4.915435E-1	5.483519E-1	5.361245E-1	5.635695E-1	5.934215E-1	5.439417E-1	5.555313E-1	5.630366E-1	5.345893E-1	5.117516E-1	5.577612E-1	6.030660E-1	5.407340E-1	5.529452E-1	5.211873E-1	5.538482E-1	5.017612E-1	5.431149E-1	5.406128E-1	5.877462E-1	5.386552E-1	5.301964E-1	5.368540E-1	5.463679E-1	5.849524E-1	5.779347E-1	5.348343E-1	5.537576E-1	5.271479E-1	5.679999E-1	5.481703E-1	5.189677E-1	4.609857E-1	5.398493E-1	5.679505E-1	5.579476E-1	4.958214E-1	5.049905E-1	5.501544E-1	5.378104E-1	5.615797E-1	5.434628E-1	5.545557E-1	5.407298E-1	5.479244E-1	5.494561E-1	5.445328E-1	5.745565E-1	5.406460E-1	5.040503E-1	5.490965E-1	5.697611E-1	5.651592E-1	5.436430E-1	5.516571E-1	5.614537E-1	5.647704E-1	5.072674E-1	5.722335E-1	5.615936E-1	5.462731E-1	4.909002E-1	5.708226E-1	5.793808E-1	5.733478E-1	5.029458E-1	5.608368E-1	5.629925E-1	5.578555E-1	5.581165E-1	6.074662E-1	5.429903E-1	5.412280E-1	5.060817E-1	5.539202E-1	5.688145E-1	5.062299E-1	5.665104E-1	5.306252E-1
5.404120E+2	4.580728E-1	5.196206E-1	4.598535E-1	4.868515E-1	5.288520E-1	5.105708E-1	4.797896E-1	5.352031E-1	4.389649E-1	5.154888E-1	4.968463E-1	4.954948E-1	4.874836E-1	4.878989E-1	4.661700E-1	4.768605E-1	4.716131E-1	5.348895E-1	4.867999E-1	4.862550E-1	4.981052E-1	4.854904E-1	4.880523E-1	5.011567E-1	5.224321E-1	4.563604E-1	4.993681E-1	5.044828E-1	4.817397E-1	5.064802E-1	5.225099E-1	5.376259E-1	4.967058E-1	5.453464E-1	5.146289E-1	5.026194E-1	5.246542E-1	4.885929E-1	4.458028E-1	5.234103E-1	5.282767E-1	4.709335E-1	4.922926E-1	5.467138E-1	5.020420E-1	5.018202E-1	5.311900E-1	5.082464E-1	4.647165E-1	4.629610E-1	4.888129E-1	4.878602E-1	4.878559E-1	4.773480E-1	4.752827E-1	5.003233E-1	5.259905E-1	4.657019E-1	4.986296E-1	5.078801E-1	5.080535E-1	5.076036E-1	5.165466E-1	4.602240E-1	4.718428E-1	5.139223E-1	5.033578E-1	4.829162E-1	5.246467E-1	5.106516E-1	4.809398E-1	5.042526E-1	4.655467E-1	5.324928E-1	5.154852E-1	5.285813E-1	5.037230E-1	5.284905E-1	5.071977E-1	5.041071E-1	5.168592E-1	4.667194E-1	4.949435E-1	4.733319E-1	5.117059E-1	5.096011E-1	5.255564E-1	5.054163E-1	4.942736E-1	4.905433E-1	4.857083E-1	4.885881E-1	4.686332E-1	5.471850E-1	4.917463E-1	5.057626E-1	4.998669E-1	4.940553E-1	5.272700E-1	4.715417E-1	4.899140E-1	5.023199E-1	4.452482E-1	5.262720E-1	5.016324E-1	4.839103E-1	4.912808E-1	5.196610E-1	5.205977E-1	5.297021E-1	5.314249E-1	5.279202E-1	5.016629E-1	4.966703E-1	5.291550E-1	5.100055E-1	5.047386E-1	4.952136E-1	4.565340E-1	4.925481E-1	5.021982E-1	5.314772E-1	4.713336E-1	5.026112E-1	4.876966E-1	5.174785E-1	4.803866E-1	4.871181E-1	4.967864E-1	4.837378E-1	5.467658E-1	5.092249E-1	4.922786E-1	5.201111E-1	4.918619E-1	4.798607E-1	4.715716E-1	4.910630E-1	4.904083E-1	4.893157E-1	5.002686E-1	5.205222E-1	5.165619E-1	5.157819E-1	4.988319E-1	4.599597E-1	4.894042E-1	4.900797E-1	4.792822E-1	5.113786E-1	4.806429E-1	4.899561E-1	4.830515E-1	4.816815E-1	4.941149E-1	5.164136E-1	5.188961E-1	4.898319E-1	5.442909E-1	4.840239E-1	5.130513E-1	4.997482E-1	5.236019E-1	5.385904E-1
5.406090E+2	4.824228E-1	4.708641E-1	4.745044E-1	4.600375E-1	5.067276E-1	5.042339E-1	4.387911E-1	5.066962E-1	4.998178E-1	4.693576E-1	4.939076E-1	4.726576E-1	4.341064E-1	5.309477E-1	5.084118E-1	4.373669E-1	4.821006E-1	4.948015E-1	4.824009E-1	5.040961E-1	4.529638E-1	4.702970E-1	4.934745E-1	5.021880E-1	4.686061E-1	4.734687E-1	4.705827E-1	4.668993E-1	5.073806E-1	4.846287E-1	4.852599E-1	4.748877E-1	4.688192E-1	4.952902E-1	4.455681E-1	4.737239E-1	4.491595E-1	5.302992E-1	4.830415E-1	4.758766E-1	4.748330E-1	4.966576E-1	4.875041E-1	4.965912E-1	5.213433E-1	5.164351E-1	4.886481E-1	5.040312E-1	4.881208E-1	4.787098E-1	5.064000E-1	4.386880E-1	4.827698E-1	4.573112E-1	4.952523E-1	5.148269E-1	5.039292E-1	4.783373E-1	4.763349E-1	5.145457E-1	4.831383E-1	4.795757E-1	5.019041E-1	5.001654E-1	4.721648E-1	5.028400E-1	4.775092E-1	5.673793E-1	4.957724E-1	4.769898E-1	5.025300E-1	5.125496E-1	4.837724E-1	4.863503E-1	5.185781E-1	4.859611E-1	4.999034E-1	5.113177E-1	4.748211E-1	5.269319E-1	5.026798E-1	5.308902E-1	4.674552E-1	4.785267E-1	4.633598E-1	4.723118E-1	4.946334E-1	5.214927E-1	5.348273E-1	4.788444E-1	4.697707E-1	4.983405E-1	4.983920E-1	4.679835E-1	4.895697E-1	5.211936E-1	4.868477E-1	5.184202E-1	4.936010E-1	4.798385E-1	4.739280E-1	4.856822E-1	4.975650E-1	5.108409E-1	4.737517E-1	4.546098E-1	4.921597E-1	4.654916E-1	5.378818E-1	5.215490E-1	4.788533E-1	4.910896E-1	4.578037E-1	4.729789E-1	5.128171E-1	4.781742E-1	4.831988E-1	4.864239E-1	4.858160E-1	5.180971E-1	4.857709E-1	4.603622E-1	5.111093E-1	4.910214E-1	4.998163E-1	4.983677E-1	4.902463E-1	5.384342E-1	4.872589E-1	4.818055E-1	4.954572E-1	4.800320E-1	4.718279E-1	4.849981E-1	4.648369E-1	5.357571E-1	4.990902E-1	4.683598E-1	4.438533E-1	4.876555E-1	4.687178E-1	5.011138E-1	4.966079E-1	4.794821E-1	4.637905E-1	5.147910E-1	4.934539E-1	4.905037E-1	4.680117E-1	5.396151E-1	4.535008E-1	4.840595E-1	5.106072E-1	4.868651E-1	4.984254E-1	5.186531E-1	4.533503E-1	5.178286E-1	4.678860E-1	4.820968E-1	5.106195E-1	5.153444E-1	4.996855E-1	4.978925E-1
5.408060E+2	4.249840E-1	4.214217E-1	4.183289E-1	4.487915E-1	4.129482E-1	4.479698E-1	4.493623E-1	4.318761E-1	4.378744E-1	4.238371E-1	4.284592E-1	4.375240E-1	4.333428E-1	4.280652E-1	4.415016E-1	4.394077E-1	4.376031E-1	3.949397E-1	4.136457E-1	4.349521E-1	4.241210E-1	4.419989E-1	4.297122E-1	4.471278E-1	4.360552E-1	4.307566E-1	4.223692E-1	4.711401E-1	4.175122E-1	4.067725E-1	4.575212E-1	4.475182E-1	4.387222E-1	4.405909E-1	4.105090E-1	4.294567E-1	4.478035E-1	4.285826E-1	4.472407E-1	4.135638E-1	4.536112E-1	4.431079E-1	4.374116E-1	4.161415E-1	4.414558E-1	4.381621E-1	4.364129E-1	4.263780E-1	3.722641E-1	4.487401E-1	4.403656E-1	4.379384E-1	4.061150E-1	4.324036E-1	4.528833E-1	4.020844E-1	4.335043E-1	4.031806E-1	4.278105E-1	4.123669E-1	4.163585E-1	4.421643E-1	4.476247E-1	4.463797E-1	4.374319E-1	3.973311E-1	4.225802E-1	4.791346E-1	4.556903E-1	4.527055E-1	4.466468E-1	4.664105E-1	4.476026E-1	4.488261E-1	4.083815E-1	4.312649E-1	4.380530E-1	4.498707E-1	4.364130E-1	4.283722E-1	4.567616E-1	4.341140E-1	3.962343E-1	4.229368E-1	4.548966E-1	4.444819E-1	4.707728E-1	4.189056E-1	4.519899E-1	4.453486E-1	4.233436E-1	4.398573E-1	4.188924E-1	4.110922E-1	4.295904E-1	4.614793E-1	4.441431E-1	3.944328E-1	4.411524E-1	4.318474E-1	4.119410E-1	4.339170E-1	4.195053E-1	4.375060E-1	4.019684E-1	4.790319E-1	4.063684E-1	4.282455E-1	4.294701E-1	4.418352E-1	4.269198E-1	4.901353E-1	4.334464E-1	4.462010E-1	4.247050E-1	4.297469E-1	4.471273E-1	4.033584E-1	4.412924E-1	4.519042E-1	4.348997E-1	4.277093E-1	4.545801E-1	4.531213E-1	4.544697E-1	3.933227E-1	4.285157E-1	4.125157E-1	4.642840E-1	4.534061E-1	4.416535E-1	4.616678E-1	4.526851E-1	4.188451E-1	4.383446E-1	4.430553E-1	4.589531E-1	4.556700E-1	4.373813E-1	4.228936E-1	4.405844E-1	4.190391E-1	4.613849E-1	4.182156E-1	4.438558E-1	4.541249E-1	4.347321E-1	4.093509E-1	4.711649E-1	4.579845E-1	4.212994E-1	4.135223E-1	4.249615E-1	4.148141E-1	5.001011E-1	4.490752E-1	4.542278E-1	4.512775E-1	4.438940E-1	4.258326E-1	4.525062E-1	4.584223E-1	4.655710E-1	4.218283E-1
5.410240E+2	3.462793E-1	3.847359E-1	3.543833E-1	3.513336E-1	3.640571E-1	3.890456E-1	3.319912E-1	3.525555E-1	3.701197E-1	3.729286E-1	3.455919E-1	3.428249E-1	3.557857E-1	3.984743E-1	3.539084E-1	3.522080E-1	3.668654E-1	3.436906E-1	3.503125E-1	3.889827E-1	3.770267E-1	3.700308E-1	3.248060E-1	3.665671E-1	3.719202E-1	3.707226E-1	3.739173E-1	3.820708E-1	3.742752E-1	3.922238E-1	3.674217E-1	3.709916E-1	3.856820E-1	3.832363E-1	3.887564E-1	3.534794E-1	3.513478E-1	3.688388E-1	3.296038E-1	3.508862E-1	4.237861E-1	3.570363E-1	3.658115E-1	3.405891E-1	3.685338E-1	4.102328E-1	3.831412E-1	3.403841E-1	3.494767E-1	3.723808E-1	3.809248E-1	3.365416E-1	3.738920E-1	3.459585E-1	3.839482E-1	3.790444E-1	4.043308E-1	3.745907E-1	3.267567E-1	3.557372E-1	3.539640E-1	3.571880E-1	3.531747E-1	3.739648E-1	3.846387E-1	3.806474E-1	3.638569E-1	3.555628E-1	3.901712E-1	3.543523E-1	3.729875E-1	3.894015E-1	3.852710E-1	3.898366E-1	3.816164E-1	3.806926E-1	3.616346E-1	3.882084E-1	3.886964E-1	3.850342E-1	3.427293E-1	3.510496E-1	3.625652E-1	3.715156E-1	3.724718E-1	3.768278E-1	3.846909E-1	3.802934E-1	3.526859E-1	4.066728E-1	3.557363E-1	3.269099E-1	3.653333E-1	3.499830E-1	3.694345E-1	3.858000E-1	3.413223E-1	3.700300E-1	3.491803E-1	3.403437E-1	3.654495E-1	3.663836E-1	3.745803E-1	3.634555E-1	3.763504E-1	3.561834E-1	3.471863E-1	3.299138E-1	3.685716E-1	3.573986E-1	3.447972E-1	3.949936E-1	4.085439E-1	3.318716E-1	3.810837E-1	3.874007E-1	3.822022E-1	3.862022E-1	3.532651E-1	3.913174E-1	3.762144E-1	3.688213E-1	3.800476E-1	3.756152E-1	3.937238E-1	3.987134E-1	4.052665E-1	3.887162E-1	3.679344E-1	3.729865E-1	3.589649E-1	3.626658E-1	3.763735E-1	3.365460E-1	3.556638E-1	3.367942E-1	3.639252E-1	3.644401E-1	3.664423E-1	3.321693E-1	3.937250E-1	3.717707E-1	3.771280E-1	4.082477E-1	3.779989E-1	3.644869E-1	3.819225E-1	3.280696E-1	4.209619E-1	3.498487E-1	3.582596E-1	3.626828E-1	3.604154E-1	3.885453E-1	3.359409E-1	3.920585E-1	3.721389E-1	3.501508E-1	3.689759E-1	3.937341E-1	3.312486E-1	3.738900E-1	3.909855E-1	3.371290E-1
5.415040E+2	3.627994E-1	3.399898E-1	3.721169E-1	3.912143E-1	4.150476E-1	3.637951E-1	3.625809E-1	3.614539E-1	3.888068E-1	3.675157E-1	3.495903E-1	3.817485E-1	3.829977E-1	3.764776E-1	4.027739E-1	3.396030E-1	3.396720E-1	3.639858E-1	3.863686E-1	3.703279E-1	3.654039E-1	3.888024E-1	3.698405E-1	3.653500E-1	3.515943E-1	3.804519E-1	3.872023E-1	3.675704E-1	3.691928E-1	3.691557E-1	3.627335E-1	3.524559E-1	3.858518E-1	3.963766E-1	3.910104E-1	4.054991E-1	3.891635E-1	3.583738E-1	3.504327E-1	3.936495E-1	3.540099E-1	3.651362E-1	4.155409E-1	3.687397E-1	3.945861E-1	4.106222E-1	4.064999E-1	3.700481E-1	3.207393E-1	3.269982E-1	3.746259E-1	3.853179E-1	3.483031E-1	3.978320E-1	3.550002E-1	3.722558E-1	3.848269E-1	3.900124E-1	4.128829E-1	3.827685E-1	3.738297E-1	4.040617E-1	3.813606E-1	3.502063E-1	3.494126E-1	4.344738E-1	3.777049E-1	3.383101E-1	3.796985E-1	4.187306E-1	3.524027E-1	3.614389E-1	3.837145E-1	3.712698E-1	3.726472E-1	3.689390E-1	3.762627E-1	3.699869E-1	3.708828E-1	4.368069E-1	3.772660E-1	4.126874E-1	3.516037E-1	3.457390E-1	3.917559E-1	3.872369E-1	4.040885E-1	4.002192E-1	3.990614E-1	3.515609E-1	3.431415E-1	3.827254E-1	3.568526E-1	3.988133E-1	4.096503E-1	4.002877E-1	3.885287E-1	3.644506E-1	3.821184E-1	3.363234E-1	3.531024E-1	3.649067E-1	4.012098E-1	3.798187E-1	3.859530E-1	3.858980E-1	3.665921E-1	3.580422E-1	3.924438E-1	3.786482E-1	4.267857E-1	3.986054E-1	3.917319E-1	3.977997E-1	3.809928E-1	3.324888E-1	3.850823E-1	3.763693E-1	3.575134E-1	3.970600E-1	4.110268E-1	3.429502E-1	3.967262E-1	3.770524E-1	3.944596E-1	3.577784E-1	3.882054E-1	3.585735E-1	3.883345E-1	4.260132E-1	4.111966E-1	3.796258E-1	4.087146E-1	3.667022E-1	3.757293E-1	3.636614E-1	4.018045E-1	4.025240E-1	3.773604E-1	3.968774E-1	3.930449E-1	3.500332E-1	3.807521E-1	3.814571E-1	4.054703E-1	3.811701E-1	3.899251E-1	3.869133E-1	3.903722E-1	3.877188E-1	3.812275E-1	3.591558E-1	3.573509E-1	3.736904E-1	3.939364E-1	3.934981E-1	3.997516E-1	3.831606E-1	3.747533E-1	3.616795E-1	3.582005E-1	4.041541E-1	4.071966E-1	4.107708E-1
5.420110E+2	5.021244E-1	4.814835E-1	4.549288E-1	4.905216E-1	4.956280E-1	5.086380E-1	4.701830E-1	4.968605E-1	4.599563E-1	4.391832E-1	4.661488E-1	5.173151E-1	4.598068E-1	4.868124E-1	4.529534E-1	4.988503E-1	4.687711E-1	4.866720E-1	5.150470E-1	5.219676E-1	5.125092E-1	4.789580E-1	4.814638E-1	4.679926E-1	5.019584E-1	4.712364E-1	4.859072E-1	4.613780E-1	4.898435E-1	4.968080E-1	4.951772E-1	4.522559E-1	4.585927E-1	4.711252E-1	5.102266E-1	4.940533E-1	4.784681E-1	4.784883E-1	4.584802E-1	4.752380E-1	4.938736E-1	4.418066E-1	5.188834E-1	4.806266E-1	4.834589E-1	4.733326E-1	4.752793E-1	4.583542E-1	4.725241E-1	4.752325E-1	4.950203E-1	4.982220E-1	4.813826E-1	4.781763E-1	4.667209E-1	5.068722E-1	4.282770E-1	5.078044E-1	5.013992E-1	4.742454E-1	5.160277E-1	4.975395E-1	4.949912E-1	4.944891E-1	4.670465E-1	5.042571E-1	4.943788E-1	4.950502E-1	5.230093E-1	4.868602E-1	4.604152E-1	5.370228E-1	4.934639E-1	4.870405E-1	5.165979E-1	4.829910E-1	5.061639E-1	5.078600E-1	5.243681E-1	4.996233E-1	4.769507E-1	4.880967E-1	5.000810E-1	5.094356E-1	5.129784E-1	4.633029E-1	4.690834E-1	4.894663E-1	4.913040E-1	5.008014E-1	4.789632E-1	4.874459E-1	5.120851E-1	4.838507E-1	5.174565E-1	5.058122E-1	4.520547E-1	4.802483E-1	4.863598E-1	5.105430E-1	5.023905E-1	4.931000E-1	4.955745E-1	5.139597E-1	4.989150E-1	4.880144E-1	4.946070E-1	4.738046E-1	4.930700E-1	4.728127E-1	5.318639E-1	4.810213E-1	5.004134E-1	4.842951E-1	5.239439E-1	4.835614E-1	4.710695E-1	4.780884E-1	4.715131E-1	4.869173E-1	4.924218E-1	4.513099E-1	4.772624E-1	4.665693E-1	5.160098E-1	5.018400E-1	4.855293E-1	5.225038E-1	4.674226E-1	4.910388E-1	4.920514E-1	4.928262E-1	4.773020E-1	4.943008E-1	4.297183E-1	5.065545E-1	4.795384E-1	4.788840E-1	4.941770E-1	5.048214E-1	4.950411E-1	4.850787E-1	4.797582E-1	5.531618E-1	4.817038E-1	5.083665E-1	5.213122E-1	4.832311E-1	5.217313E-1	4.883284E-1	4.759005E-1	4.737388E-1	5.135566E-1	4.960165E-1	5.267220E-1	5.217343E-1	4.865311E-1	4.896150E-1	5.019882E-1	4.783354E-1	4.811162E-1	5.561765E-1	5.217114E-1	4.789641E-1
5.425080E+2	6.912196E-1	7.044067E-1	6.662668E-1	6.999195E-1	7.285653E-1	6.679449E-1	6.672322E-1	6.906308E-1	6.880055E-1	6.868039E-1	6.590172E-1	6.900307E-1	6.634475E-1	7.039769E-1	6.946858E-1	6.810944E-1	6.942700E-1	6.327895E-1	6.789592E-1	6.679132E-1	6.742809E-1	7.310090E-1	6.868538E-1	6.462719E-1	7.466167E-1	6.637157E-1	7.261858E-1	7.042120E-1	6.560061E-1	6.465444E-1	6.855655E-1	6.956363E-1	6.631944E-1	7.062031E-1	7.426964E-1	6.986986E-1	6.597082E-1	6.814476E-1	6.590054E-1	7.067689E-1	6.696311E-1	7.151956E-1	7.042814E-1	6.651300E-1	6.599915E-1	6.572669E-1	6.821463E-1	6.708500E-1	6.374821E-1	6.577755E-1	6.597001E-1	6.963192E-1	6.811992E-1	6.864645E-1	6.554861E-1	6.929249E-1	6.549954E-1	6.987465E-1	7.183660E-1	7.201358E-1	6.722572E-1	7.005418E-1	7.121225E-1	6.704375E-1	7.054041E-1	6.809448E-1	7.144519E-1	6.761243E-1	7.296086E-1	6.516127E-1	6.800068E-1	7.026511E-1	6.664959E-1	6.777000E-1	6.433013E-1	7.312144E-1	7.428401E-1	6.869437E-1	6.881941E-1	6.936981E-1	6.652209E-1	6.497377E-1	6.925365E-1	6.992802E-1	6.851143E-1	6.572267E-1	6.666941E-1	6.872555E-1	6.836132E-1	7.000005E-1	6.993302E-1	6.732556E-1	6.322438E-1	6.693588E-1	6.860942E-1	7.287225E-1	6.901716E-1	6.298738E-1	6.870702E-1	6.710915E-1	6.664951E-1	6.885803E-1	7.333487E-1	6.891038E-1	6.837946E-1	7.397776E-1	6.896016E-1	6.469183E-1	6.678613E-1	6.845510E-1	7.425485E-1	7.244804E-1	6.811079E-1	6.811141E-1	6.836999E-1	6.452443E-1	6.681998E-1	7.084458E-1	7.072466E-1	6.744031E-1	6.856575E-1	6.471286E-1	7.490749E-1	6.671494E-1	6.822247E-1	6.629355E-1	7.046748E-1	6.615462E-1	7.350216E-1	6.762333E-1	7.172855E-1	6.949532E-1	6.867312E-1	6.892844E-1	6.786779E-1	6.516610E-1	7.016362E-1	6.234727E-1	7.213817E-1	6.685979E-1	6.843640E-1	6.409355E-1	6.813494E-1	6.687978E-1	6.556963E-1	6.530089E-1	6.806029E-1	7.246558E-1	7.109916E-1	6.543625E-1	6.515523E-1	7.118283E-1	6.949107E-1	6.332185E-1	7.224030E-1	7.488703E-1	6.798444E-1	6.774690E-1	6.468679E-1	7.041911E-1	7.113464E-1	7.056632E-1	6.384185E-1	5.650543E-1
5.430120E+2	9.011731E-1	9.191582E-1	8.617319E-1	9.332023E-1	9.656696E-1	8.883708E-1	9.025848E-1	8.922396E-1	8.634810E-1	9.482120E-1	8.738472E-1	9.020219E-1	9.207309E-1	9.271767E-1	9.311007E-1	9.273446E-1	9.207322E-1	8.606683E-1	9.285626E-1	8.657083E-1	9.231538E-1	9.482506E-1	9.310815E-1	8.931725E-1	8.690029E-1	8.834964E-1	9.297228E-1	9.325939E-1	9.592570E-1	8.760574E-1	9.361962E-1	9.288470E-1	8.860034E-1	8.779491E-1	9.366563E-1	9.720001E-1	8.647776E-1	9.461873E-1	8.888698E-1	9.442251E-1	8.875711E-1	9.299398E-1	9.448255E-1	8.549812E-1	9.130001E-1	8.975001E-1	9.244166E-1	9.113484E-1	8.642352E-1	8.102705E-1	9.135495E-1	9.080349E-1	8.646247E-1	8.874615E-1	9.075720E-1	9.288596E-1	9.357080E-1	9.039380E-1	9.266549E-1	9.189580E-1	8.750655E-1	8.882395E-1	8.959209E-1	9.200923E-1	8.702278E-1	8.889647E-1	9.152628E-1	9.127034E-1	9.688100E-1	8.962656E-1	8.614425E-1	9.106821E-1	9.034767E-1	8.772927E-1	9.323691E-1	9.667136E-1	8.995858E-1	9.397754E-1	9.610030E-1	9.597037E-1	8.682954E-1	9.040015E-1	9.420094E-1	8.827854E-1	9.083485E-1	9.404253E-1	8.749338E-1	9.106354E-1	9.093284E-1	8.634720E-1	9.521438E-1	9.189131E-1	9.231680E-1	8.596624E-1	8.682993E-1	9.438455E-1	8.697372E-1	8.898486E-1	9.111317E-1	8.944199E-1	9.103685E-1	8.891288E-1	8.997357E-1	8.992055E-1	9.294438E-1	9.276318E-1	9.120079E-1	8.540574E-1	9.733188E-1	8.943793E-1	9.117376E-1	9.240052E-1	9.411783E-1	9.203378E-1	8.818193E-1	9.316230E-1	8.710597E-1	8.768544E-1	8.904140E-1	9.137032E-1	9.007537E-1	8.405736E-1	8.562330E-1	9.088167E-1	9.551358E-1	9.458030E-1	9.399061E-1	9.018430E-1	9.578458E-1	9.453056E-1	9.297438E-1	8.835753E-1	9.022849E-1	8.560028E-1	8.668372E-1	9.250427E-1	9.299408E-1	8.980088E-1	9.164960E-1	8.585204E-1	8.995710E-1	8.935994E-1	8.819969E-1	9.328035E-1	8.773082E-1	9.371794E-1	9.138561E-1	9.289069E-1	8.987331E-1	8.874487E-1	8.672302E-1	9.107285E-1	8.907851E-1	9.061642E-1	8.917414E-1	9.047005E-1	9.393489E-1	9.094385E-1	9.536292E-1	8.960915E-1	8.771169E-1	9.115996E-1	9.324760E-1	9.261635E-1
5.435330E+2	9.589440E-1	9.868279E-1	9.598632E-1	1.009898E+0	9.697738E-1	9.481115E-1	9.102627E-1	9.720372E-1	9.577842E-1	9.127753E-1	9.166263E-1	9.860884E-1	1.019673E+0	9.519235E-1	1.020169E+0	9.334337E-1	9.990222E-1	9.211837E-1	9.569421E-1	9.369491E-1	1.017311E+0	1.021528E+0	9.697533E-1	9.396046E-1	9.609408E-1	9.916251E-1	1.002695E+0	9.351586E-1	9.838282E-1	9.485854E-1	1.030519E+0	1.015929E+0	9.106732E-1	9.896736E-1	9.983739E-1	1.003730E+0	9.839073E-1	9.544204E-1	9.735012E-1	9.260462E-1	9.993703E-1	9.264662E-1	9.683079E-1	9.231479E-1	9.611662E-1	1.045263E+0	9.231091E-1	9.038664E-1	8.821670E-1	9.147014E-1	9.436746E-1	9.657027E-1	9.307170E-1	9.533362E-1	9.548568E-1	9.636757E-1	1.033804E+0	9.334905E-1	1.004583E+0	1.002188E+0	9.523674E-1	9.536925E-1	1.001650E+0	9.610246E-1	9.537598E-1	9.774888E-1	9.561501E-1	9.172041E-1	9.419766E-1	9.499920E-1	9.527367E-1	9.715021E-1	1.001631E+0	9.618595E-1	9.391572E-1	9.849789E-1	9.260149E-1	9.850794E-1	9.903454E-1	9.989109E-1	8.988697E-1	9.506200E-1	9.707348E-1	9.523423E-1	9.797804E-1	9.042924E-1	9.848915E-1	9.561132E-1	1.022248E+0	9.229400E-1	9.631638E-1	9.384480E-1	9.245781E-1	8.695665E-1	9.836049E-1	9.918202E-1	9.790382E-1	9.296208E-1	9.125947E-1	9.334780E-1	9.048212E-1	9.940266E-1	9.678256E-1	9.266687E-1	9.708182E-1	9.451776E-1	9.210852E-1	9.472453E-1	9.715406E-1	9.708571E-1	1.015532E+0	9.492517E-1	9.273694E-1	9.453677E-1	9.704110E-1	9.386345E-1	9.869396E-1	9.375892E-1	9.739969E-1	1.069721E+0	9.505446E-1	9.572567E-1	9.430645E-1	9.553378E-1	9.726552E-1	9.492473E-1	1.044918E+0	9.479871E-1	9.382417E-1	1.009369E+0	9.992160E-1	9.399566E-1	9.337603E-1	9.551448E-1	1.019390E+0	9.611664E-1	9.745526E-1	9.371275E-1	9.637055E-1	9.760328E-1	9.677574E-1	9.553424E-1	9.913224E-1	1.053537E+0	9.396509E-1	9.037657E-1	9.536384E-1	9.794822E-1	9.838085E-1	9.402205E-1	9.827729E-1	9.123381E-1	1.001793E+0	9.573627E-1	9.707214E-1	9.879529E-1	9.654591E-1	9.429987E-1	1.008170E+0	9.775461E-1	9.771250E-1	9.864451E-1	9.240285E-1	9.292097E-1
5.440170E+2	9.592812E-1	9.438035E-1	9.431678E-1	9.598213E-1	9.781188E-1	9.903628E-1	9.818726E-1	9.386660E-1	1.036674E+0	9.364392E-1	9.767373E-1	9.524236E-1	9.995198E-1	9.555056E-1	9.492918E-1	9.113451E-1	9.636167E-1	9.475159E-1	9.855242E-1	9.418842E-1	9.698981E-1	1.009318E+0	9.415486E-1	9.800823E-1	9.625529E-1	9.526683E-1	9.342004E-1	9.585858E-1	9.223430E-1	9.560666E-1	9.744570E-1	9.805711E-1	9.106601E-1	9.379124E-1	9.754569E-1	9.732920E-1	9.415398E-1	1.001719E+0	9.155380E-1	9.503734E-1	9.447959E-1	8.721478E-1	9.262912E-1	9.173185E-1	9.372319E-1	9.920234E-1	9.702878E-1	9.309805E-1	9.385386E-1	9.410466E-1	9.789440E-1	9.601219E-1	9.242468E-1	9.420145E-1	9.648140E-1	9.469376E-1	9.691073E-1	8.838360E-1	9.827443E-1	9.376720E-1	9.833972E-1	9.383529E-1	9.398468E-1	9.810056E-1	9.290050E-1	8.906533E-1	9.560013E-1	9.430290E-1	1.038011E+0	8.990739E-1	9.404115E-1	9.976707E-1	9.672668E-1	9.190747E-1	9.583165E-1	8.934254E-1	9.837882E-1	9.342677E-1	9.367527E-1	1.008907E+0	9.340463E-1	9.680119E-1	9.819883E-1	8.812499E-1	9.402798E-1	9.160120E-1	1.030558E+0	9.717606E-1	9.636689E-1	9.463013E-1	9.210838E-1	9.243507E-1	9.470792E-1	9.400570E-1	9.592313E-1	9.706560E-1	9.639927E-1	9.578466E-1	9.073721E-1	9.911824E-1	9.546644E-1	9.331673E-1	9.631530E-1	9.327915E-1	1.013456E+0	8.602816E-1	9.424577E-1	9.214949E-1	9.052707E-1	9.785312E-1	1.024759E+0	9.963180E-1	9.550139E-1	9.395243E-1	9.350033E-1	9.501302E-1	9.615165E-1	9.407836E-1	9.714758E-1	9.624319E-1	9.187810E-1	9.485166E-1	9.442089E-1	9.541056E-1	1.017338E+0	9.323915E-1	9.758768E-1	9.542389E-1	9.415605E-1	9.906662E-1	9.465814E-1	9.077685E-1	9.728416E-1	9.432307E-1	9.486809E-1	9.681947E-1	1.011097E+0	9.377605E-1	9.534095E-1	9.395859E-1	9.549729E-1	9.082234E-1	9.307820E-1	9.899473E-1	9.884108E-1	9.590716E-1	9.465723E-1	9.752932E-1	9.746083E-1	9.349839E-1	9.366665E-1	9.586572E-1	9.548577E-1	9.983124E-1	9.396062E-1	9.637223E-1	9.586449E-1	9.774514E-1	9.250730E-1	9.435758E-1	9.375991E-1	9.309018E-1	9.531862E-1	9.171998E-1
5.445020E+2	9.728227E-1	8.972661E-1	8.420697E-1	9.528124E-1	1.037091E+0	9.361246E-1	8.696312E-1	9.554615E-1	9.410215E-1	9.366050E-1	9.224195E-1	9.233691E-1	9.360884E-1	9.245779E-1	9.706577E-1	9.480724E-1	9.045617E-1	8.431353E-1	9.198016E-1	9.533074E-1	9.108828E-1	9.481879E-1	9.705305E-1	9.053582E-1	9.434691E-1	8.879436E-1	9.079640E-1	9.086408E-1	8.597966E-1	9.236496E-1	9.760456E-1	8.880485E-1	8.805077E-1	9.379878E-1	9.357547E-1	9.309630E-1	8.880588E-1	9.524474E-1	9.119397E-1	9.435161E-1	8.522007E-1	8.951921E-1	9.741456E-1	8.861246E-1	9.812832E-1	8.851217E-1	9.048017E-1	9.432773E-1	8.655157E-1	9.055447E-1	9.693707E-1	9.600725E-1	9.359539E-1	9.057790E-1	9.203734E-1	9.242978E-1	9.387006E-1	9.331399E-1	9.056855E-1	9.047345E-1	9.333800E-1	9.000593E-1	9.227806E-1	8.977889E-1	8.969645E-1	9.070960E-1	9.149999E-1	8.266055E-1	9.950351E-1	8.989482E-1	8.992176E-1	8.935648E-1	9.317919E-1	8.930527E-1	9.397169E-1	8.951193E-1	9.020042E-1	9.176953E-1	9.020590E-1	9.483511E-1	9.553363E-1	9.054073E-1	9.467267E-1	9.180829E-1	8.659656E-1	9.023188E-1	9.185129E-1	9.218273E-1	9.667621E-1	9.527883E-1	9.475831E-1	9.134381E-1	8.997328E-1	8.673273E-1	9.363496E-1	9.688202E-1	9.360733E-1	8.797210E-1	9.516949E-1	9.360367E-1	9.073224E-1	9.364331E-1	9.023787E-1	9.729206E-1	9.474108E-1	9.550671E-1	9.163142E-1	9.404351E-1	9.151662E-1	8.925252E-1	9.617157E-1	9.321588E-1	9.646120E-1	9.271908E-1	9.332026E-1	9.385553E-1	9.442226E-1	8.604760E-1	9.330083E-1	9.971296E-1	9.691201E-1	8.551537E-1	9.339163E-1	9.272539E-1	9.369640E-1	9.006527E-1	9.318927E-1	9.332636E-1	9.229982E-1	9.159986E-1	8.843290E-1	8.742347E-1	8.843443E-1	8.635971E-1	8.547711E-1	8.853950E-1	9.192680E-1	9.174806E-1	9.288580E-1	8.953319E-1	9.512938E-1	8.689145E-1	9.475500E-1	9.922653E-1	9.179170E-1	9.273070E-1	9.024343E-1	9.212639E-1	9.338439E-1	9.414766E-1	9.201148E-1	9.516535E-1	9.362349E-1	9.037955E-1	9.041078E-1	9.577220E-1	9.675828E-1	9.228643E-1	9.731356E-1	9.016541E-1	8.661135E-1	8.699992E-1	9.008814E-1	9.227995E-1
5.450090E+2	8.799194E-1	8.938044E-1	8.869860E-1	8.662244E-1	8.994356E-1	9.059818E-1	9.280823E-1	8.271736E-1	9.150604E-1	8.750780E-1	8.705561E-1	9.000835E-1	9.154963E-1	8.859072E-1	9.142986E-1	9.028899E-1	9.233029E-1	8.862551E-1	9.334231E-1	9.678193E-1	9.159597E-1	9.139644E-1	8.713799E-1	8.945097E-1	8.729568E-1	8.978795E-1	8.825219E-1	9.108906E-1	8.882776E-1	9.290077E-1	9.308547E-1	8.690193E-1	9.027754E-1	9.382538E-1	8.646937E-1	9.204295E-1	8.820328E-1	9.359734E-1	8.742502E-1	9.516771E-1	8.600492E-1	8.250902E-1	9.143053E-1	8.816986E-1	8.800799E-1	8.592097E-1	9.215902E-1	8.916352E-1	8.108477E-1	8.691531E-1	8.735930E-1	9.383792E-1	8.343100E-1	8.411077E-1	8.909047E-1	9.146811E-1	9.305022E-1	8.952335E-1	9.055997E-1	8.737661E-1	8.904586E-1	8.746621E-1	8.735597E-1	8.763203E-1	8.764290E-1	8.722725E-1	9.119695E-1	9.347106E-1	9.318130E-1	8.293240E-1	8.612095E-1	9.103705E-1	8.960802E-1	8.957923E-1	9.185528E-1	9.124308E-1	9.265105E-1	8.961905E-1	9.126351E-1	9.827524E-1	8.754395E-1	9.120565E-1	8.703749E-1	8.978299E-1	8.464089E-1	8.734830E-1	8.961888E-1	9.208755E-1	9.660210E-1	8.820194E-1	8.999177E-1	8.947367E-1	8.672606E-1	9.032834E-1	9.088916E-1	9.124111E-1	9.251058E-1	8.702014E-1	9.147011E-1	8.996610E-1	8.397097E-1	8.787869E-1	8.664551E-1	8.661287E-1	8.823627E-1	8.684326E-1	8.813246E-1	8.658703E-1	8.631210E-1	9.437508E-1	9.057237E-1	9.163772E-1	9.218273E-1	8.765316E-1	9.411892E-1	9.006130E-1	9.109668E-1	8.481237E-1	8.838772E-1	9.532757E-1	8.597667E-1	8.563564E-1	9.203224E-1	8.953903E-1	8.686465E-1	8.698339E-1	9.246510E-1	8.805568E-1	9.167915E-1	8.638703E-1	9.115183E-1	9.222157E-1	9.236489E-1	8.535994E-1	8.911012E-1	8.858556E-1	8.568242E-1	9.061380E-1	8.790629E-1	8.657491E-1	8.810254E-1	8.630728E-1	8.816804E-1	9.285032E-1	8.616129E-1	9.308442E-1	8.751541E-1	8.807847E-1	9.157711E-1	9.051766E-1	8.071801E-1	8.981824E-1	8.487359E-1	9.119675E-1	9.044096E-1	9.355526E-1	9.488990E-1	8.876505E-1	9.622270E-1	8.727364E-1	8.834112E-1	9.532316E-1	9.034120E-1	8.665679E-1
5.455130E+2	9.031095E-1	8.941180E-1	9.309325E-1	9.003848E-1	9.290316E-1	8.999137E-1	8.742129E-1	8.584511E-1	9.243199E-1	8.998932E-1	9.083115E-1	8.696888E-1	8.775074E-1	8.339593E-1	8.837057E-1	8.746236E-1	8.685132E-1	9.150058E-1	9.333245E-1	9.462319E-1	9.282368E-1	8.674426E-1	9.054580E-1	9.420066E-1	8.988553E-1	8.924961E-1	8.795590E-1	8.744548E-1	8.800406E-1	8.948361E-1	9.179406E-1	8.934659E-1	9.010897E-1	8.809250E-1	8.665809E-1	9.169663E-1	9.475448E-1	9.279572E-1	8.996085E-1	9.197119E-1	8.878600E-1	8.907600E-1	8.830193E-1	9.383815E-1	8.906503E-1	9.080750E-1	9.390476E-1	9.035186E-1	8.649954E-1	8.534584E-1	8.812267E-1	8.984731E-1	8.768747E-1	9.324996E-1	9.048923E-1	8.789489E-1	9.708543E-1	8.741414E-1	9.304506E-1	9.141596E-1	9.011236E-1	8.881273E-1	9.300459E-1	9.538513E-1	8.803636E-1	9.362478E-1	8.982644E-1	8.965589E-1	8.919277E-1	9.057912E-1	8.815017E-1	9.786996E-1	9.431667E-1	9.100319E-1	9.002192E-1	9.418396E-1	9.478062E-1	9.657325E-1	8.925795E-1	9.453552E-1	9.338022E-1	8.999242E-1	9.063355E-1	8.901980E-1	9.388450E-1	8.776662E-1	8.840069E-1	9.291238E-1	9.035776E-1	8.499362E-1	9.187122E-1	9.296063E-1	8.810126E-1	9.136129E-1	8.895411E-1	8.922335E-1	9.279139E-1	8.696933E-1	8.658631E-1	8.918375E-1	8.856158E-1	8.591724E-1	9.091850E-1	9.030930E-1	8.873231E-1	8.733356E-1	8.942939E-1	8.697309E-1	9.050855E-1	8.523760E-1	9.458184E-1	9.168090E-1	9.424023E-1	8.670278E-1	9.412275E-1	9.452887E-1	9.114507E-1	8.221825E-1	9.155743E-1	9.394725E-1	9.087361E-1	9.025040E-1	9.414195E-1	8.987047E-1	9.080005E-1	8.995080E-1	9.331707E-1	9.699907E-1	9.357053E-1	9.032138E-1	9.684476E-1	9.164326E-1	9.048548E-1	8.821143E-1	8.541279E-1	8.870507E-1	9.766567E-1	8.647871E-1	9.037611E-1	8.941200E-1	9.178697E-1	8.790074E-1	9.244859E-1	9.114347E-1	9.313939E-1	8.689033E-1	8.754223E-1	9.166163E-1	9.271008E-1	9.005679E-1	9.189729E-1	9.002249E-1	9.139383E-1	8.951533E-1	8.872748E-1	9.534242E-1	9.359887E-1	8.831763E-1	8.792689E-1	9.022637E-1	9.517447E-1	8.726057E-1	9.612256E-1	9.814571E-1
5.460060E+2	9.397734E-1	9.907535E-1	9.291384E-1	9.404925E-1	1.006207E+0	9.626164E-1	9.326643E-1	9.317149E-1	9.150027E-1	9.647419E-1	9.199727E-1	8.965006E-1	9.061672E-1	8.940491E-1	9.329629E-1	9.523797E-1	9.051949E-1	9.082600E-1	9.262744E-1	9.501185E-1	9.632323E-1	9.615541E-1	9.105629E-1	9.253401E-1	9.697250E-1	9.947316E-1	9.494712E-1	9.556921E-1	8.896931E-1	8.941046E-1	9.224964E-1	9.271464E-1	9.887646E-1	9.330025E-1	9.315886E-1	9.770929E-1	9.298891E-1	9.888823E-1	9.217150E-1	9.294348E-1	1.000949E+0	9.224732E-1	8.970671E-1	9.538849E-1	9.077986E-1	9.636290E-1	9.011360E-1	9.384907E-1	9.528942E-1	8.920548E-1	9.090581E-1	9.244570E-1	9.259720E-1	9.691933E-1	8.982663E-1	9.483622E-1	9.408728E-1	9.581490E-1	9.520345E-1	9.812012E-1	9.049366E-1	9.848410E-1	9.390453E-1	9.142834E-1	9.578608E-1	9.397292E-1	9.363267E-1	9.688695E-1	1.010091E+0	9.519210E-1	9.804875E-1	9.835499E-1	9.447649E-1	9.303318E-1	9.588727E-1	9.542571E-1	9.176862E-1	9.586012E-1	9.595050E-1	1.053108E+0	9.073074E-1	9.720874E-1	9.918089E-1	9.186881E-1	9.858701E-1	9.520020E-1	9.752334E-1	8.902031E-1	9.230536E-1	9.678499E-1	9.297916E-1	9.856111E-1	9.432557E-1	9.791030E-1	9.268259E-1	9.027993E-1	9.594319E-1	9.337980E-1	9.187279E-1	9.168250E-1	9.299273E-1	9.567326E-1	9.064611E-1	9.769852E-1	9.063399E-1	9.182338E-1	9.391818E-1	9.441838E-1	9.301081E-1	9.831330E-1	9.846043E-1	9.614847E-1	9.859376E-1	9.455127E-1	1.003297E+0	8.922012E-1	9.352886E-1	9.315144E-1	8.998673E-1	9.768074E-1	9.504946E-1	9.089572E-1	9.468861E-1	9.136554E-1	9.428439E-1	9.869232E-1	9.508925E-1	9.730105E-1	9.523608E-1	9.345146E-1	9.508138E-1	9.417065E-1	9.476422E-1	9.260967E-1	9.143665E-1	9.501729E-1	9.755690E-1	9.224347E-1	8.795955E-1	9.469041E-1	9.822496E-1	9.186509E-1	9.824747E-1	1.049553E+0	9.157417E-1	9.138834E-1	9.269499E-1	9.443469E-1	9.770702E-1	9.752354E-1	9.196505E-1	1.011060E+0	9.377395E-1	8.986724E-1	9.590895E-1	9.861442E-1	9.270404E-1	9.232563E-1	1.045359E+0	9.904630E-1	9.110011E-1	9.174290E-1	9.959396E-1	9.489743E-1
5.465380E+2	9.102723E-1	9.285820E-1	8.640706E-1	9.637928E-1	9.242297E-1	9.206956E-1	8.253401E-1	8.904053E-1	9.087723E-1	9.347264E-1	8.924076E-1	9.311827E-1	9.012313E-1	8.827108E-1	9.034001E-1	8.759811E-1	9.169393E-1	8.784370E-1	9.075442E-1	8.722350E-1	8.650055E-1	9.128606E-1	9.321010E-1	9.039565E-1	9.014084E-1	9.166242E-1	9.361776E-1	9.126879E-1	8.685531E-1	8.685161E-1	9.175577E-1	8.933457E-1	8.605264E-1	9.483966E-1	9.065795E-1	9.819286E-1	9.143934E-1	8.764629E-1	8.669529E-1	8.847786E-1	9.327809E-1	9.058842E-1	8.660257E-1	8.820025E-1	9.335527E-1	9.314310E-1	8.964309E-1	8.996151E-1	8.972292E-1	8.493641E-1	9.124592E-1	9.573678E-1	9.077534E-1	9.289574E-1	9.737556E-1	8.375941E-1	9.556272E-1	8.530100E-1	9.125058E-1	9.173288E-1	8.764031E-1	9.034780E-1	9.227327E-1	9.151389E-1	8.895758E-1	8.887995E-1	9.305149E-1	8.908009E-1	9.312829E-1	8.548293E-1	8.683911E-1	9.143484E-1	9.519269E-1	9.228147E-1	9.281852E-1	9.347244E-1	9.304794E-1	9.328572E-1	9.014304E-1	9.635226E-1	9.018650E-1	9.059120E-1	8.662742E-1	8.931002E-1	9.104753E-1	8.697683E-1	9.034404E-1	9.270444E-1	8.861750E-1	9.141013E-1	9.270714E-1	9.460343E-1	8.918970E-1	9.250532E-1	8.984924E-1	8.992482E-1	9.050358E-1	8.657959E-1	9.040243E-1	9.163820E-1	8.942452E-1	9.169351E-1	9.467543E-1	8.549317E-1	8.905695E-1	9.219738E-1	8.639955E-1	8.805667E-1	9.164177E-1	9.257159E-1	8.927310E-1	9.009773E-1	9.038424E-1	8.855336E-1	9.438805E-1	9.347059E-1	8.856123E-1	8.467043E-1	9.022603E-1	9.329491E-1	9.126678E-1	9.077746E-1	9.016501E-1	9.351633E-1	9.323648E-1	8.674524E-1	9.430352E-1	9.075381E-1	8.873273E-1	8.483477E-1	9.423258E-1	9.036973E-1	8.382519E-1	8.954744E-1	8.816066E-1	9.353012E-1	9.273282E-1	8.705264E-1	8.763889E-1	8.836014E-1	9.607536E-1	8.714594E-1	9.323792E-1	9.645361E-1	8.423673E-1	8.909988E-1	8.688466E-1	9.271963E-1	9.056909E-1	9.123730E-1	8.917218E-1	9.005269E-1	8.698302E-1	9.422188E-1	8.990491E-1	8.885158E-1	9.303322E-1	8.628321E-1	8.616650E-1	9.001596E-1	8.960969E-1	8.501898E-1	8.944598E-1	9.050072E-1
5.470110E+2	8.768012E-1	9.242077E-1	8.751950E-1	9.009086E-1	8.863851E-1	8.688173E-1	8.736892E-1	8.824277E-1	8.924366E-1	8.548698E-1	8.976179E-1	9.248784E-1	9.177182E-1	8.515760E-1	8.825154E-1	8.972020E-1	8.835212E-1	8.783412E-1	9.264918E-1	9.074179E-1	8.937203E-1	9.073386E-1	8.477139E-1	8.854641E-1	8.887427E-1	8.908658E-1	8.983360E-1	8.938563E-1	8.615135E-1	8.068422E-1	9.030138E-1	8.979917E-1	8.274283E-1	9.524891E-1	8.854359E-1	9.163191E-1	8.614234E-1	8.709590E-1	9.295870E-1	8.900850E-1	9.081903E-1	8.837713E-1	8.891865E-1	8.450175E-1	9.524333E-1	9.004981E-1	8.978132E-1	8.960487E-1	8.756786E-1	8.340239E-1	8.591099E-1	9.115631E-1	8.943644E-1	9.006170E-1	8.791717E-1	9.122211E-1	9.113659E-1	8.931618E-1	8.877680E-1	8.765792E-1	9.028673E-1	8.944015E-1	8.849051E-1	9.405805E-1	8.491599E-1	9.227819E-1	8.690957E-1	8.280338E-1	9.567728E-1	8.883761E-1	9.257410E-1	9.515358E-1	9.458118E-1	9.430122E-1	8.551546E-1	8.973678E-1	9.077697E-1	8.902363E-1	9.332426E-1	8.769038E-1	8.720958E-1	8.807523E-1	9.046697E-1	8.766835E-1	8.639349E-1	8.919775E-1	9.006689E-1	9.179706E-1	9.036649E-1	8.690207E-1	8.219682E-1	8.980242E-1	8.847430E-1	8.636830E-1	9.262641E-1	8.720673E-1	9.097860E-1	8.707569E-1	8.968982E-1	8.743156E-1	8.896105E-1	8.940656E-1	9.307270E-1	8.903719E-1	9.104982E-1	8.794172E-1	8.930553E-1	8.429143E-1	9.405118E-1	9.338716E-1	9.040666E-1	8.729432E-1	8.943947E-1	8.941483E-1	8.526731E-1	9.158709E-1	8.913538E-1	8.559369E-1	9.145472E-1	9.272763E-1	9.403944E-1	8.949930E-1	8.929156E-1	8.689841E-1	9.116702E-1	8.750816E-1	8.978237E-1	8.669982E-1	8.780790E-1	9.151614E-1	9.026725E-1	8.602181E-1	9.128472E-1	8.251735E-1	8.434785E-1	8.760251E-1	9.292577E-1	8.439938E-1	8.691423E-1	8.633872E-1	9.284168E-1	9.007218E-1	9.103822E-1	9.310554E-1	8.301818E-1	8.631086E-1	8.930711E-1	9.515816E-1	8.674763E-1	8.428505E-1	9.049252E-1	8.459246E-1	8.740082E-1	8.630958E-1	9.093153E-1	9.303219E-1	9.439866E-1	8.753257E-1	9.047002E-1	8.523685E-1	9.132781E-1	9.028831E-1	8.719180E-1	8.143525E-1
5.475070E+2	9.365307E-1	9.823060E-1	9.786085E-1	8.875848E-1	9.156609E-1	9.132820E-1	9.256365E-1	9.091753E-1	1.009057E+0	9.553783E-1	9.664104E-1	9.221800E-1	9.286373E-1	9.407025E-1	9.735728E-1	9.632130E-1	8.825362E-1	9.269957E-1	9.456796E-1	9.871451E-1	9.200253E-1	9.672856E-1	9.161103E-1	1.001868E+0	9.662804E-1	9.599226E-1	9.206391E-1	9.275868E-1	9.252372E-1	9.196240E-1	9.394455E-1	9.135906E-1	9.117329E-1	9.911192E-1	8.934519E-1	1.000953E+0	9.384058E-1	9.310845E-1	9.131866E-1	9.425882E-1	9.263292E-1	9.180853E-1	9.520644E-1	9.339551E-1	9.653307E-1	9.616612E-1	9.616846E-1	9.724419E-1	8.894935E-1	8.981735E-1	9.398206E-1	9.433997E-1	8.991997E-1	9.148997E-1	9.512966E-1	9.234930E-1	9.501938E-1	9.721041E-1	9.837381E-1	9.350480E-1	9.439402E-1	9.859550E-1	9.627724E-1	9.514658E-1	9.359873E-1	9.347904E-1	9.146598E-1	9.466190E-1	9.796161E-1	9.309227E-1	9.755497E-1	9.670120E-1	1.012084E+0	9.944451E-1	9.764917E-1	9.908928E-1	9.556520E-1	9.262341E-1	9.680047E-1	9.864993E-1	9.637663E-1	9.759539E-1	9.244431E-1	9.147391E-1	9.375786E-1	9.346539E-1	9.433183E-1	9.308255E-1	9.515636E-1	9.446746E-1	9.154094E-1	1.008299E+0	9.608869E-1	1.007240E+0	9.384921E-1	1.032976E+0	9.445553E-1	9.184881E-1	9.821519E-1	8.818880E-1	9.142508E-1	9.767031E-1	9.420502E-1	9.821864E-1	9.423173E-1	9.559104E-1	9.676914E-1	9.454447E-1	9.680525E-1	9.100732E-1	1.002292E+0	9.821923E-1	9.573476E-1	9.647844E-1	8.997198E-1	9.046832E-1	9.464289E-1	9.175447E-1	9.454711E-1	9.646078E-1	9.234066E-1	9.235698E-1	9.118960E-1	9.200728E-1	9.718698E-1	9.729806E-1	1.002138E+0	9.268414E-1	9.518170E-1	9.464569E-1	9.535469E-1	9.570678E-1	9.275863E-1	9.553562E-1	8.634300E-1	9.118586E-1	9.224708E-1	9.364445E-1	9.336659E-1	9.397832E-1	9.615857E-1	9.386447E-1	9.926965E-1	9.864924E-1	9.763393E-1	1.013832E+0	9.296340E-1	1.014851E+0	9.813277E-1	9.614591E-1	9.694332E-1	9.530660E-1	9.334257E-1	9.346899E-1	9.476227E-1	9.116948E-1	9.807981E-1	9.191279E-1	9.308177E-1	9.696384E-1	9.244445E-1	9.409875E-1	9.422669E-1	9.460176E-1
5.480090E+2	9.877522E-1	1.028048E+0	9.618010E-1	1.068630E+0	1.032542E+0	1.031461E+0	9.922251E-1	9.341910E-1	1.023615E+0	1.026221E+0	9.800219E-1	9.844221E-1	9.693491E-1	9.623774E-1	9.847332E-1	9.983644E-1	1.012024E+0	1.003945E+0	9.841005E-1	1.023690E+0	1.025165E+0	1.015952E+0	1.029593E+0	9.760608E-1	1.075165E+0	1.026664E+0	9.703391E-1	1.027486E+0	9.647801E-1	1.000132E+0	1.029876E+0	1.022107E+0	9.949973E-1	1.012830E+0	9.947278E-1	1.012914E+0	9.752155E-1	9.885928E-1	1.022461E+0	9.702135E-1	9.813872E-1	9.822694E-1	9.689453E-1	1.004361E+0	1.005198E+0	1.007090E+0	1.030687E+0	9.647467E-1	9.502997E-1	9.068510E-1	1.050490E+0	9.788238E-1	9.470084E-1	1.018608E+0	1.008510E+0	1.013560E+0	9.783239E-1	9.934198E-1	1.049263E+0	1.012688E+0	1.000811E+0	9.502418E-1	1.044952E+0	9.957731E-1	1.031067E+0	1.067082E+0	9.905382E-1	1.046956E+0	1.033280E+0	9.673907E-1	1.005439E+0	9.968963E-1	1.000086E+0	9.791819E-1	1.032106E+0	1.037226E+0	9.579042E-1	9.890966E-1	1.013572E+0	1.004681E+0	1.007543E+0	1.023221E+0	1.053918E+0	9.586036E-1	9.926127E-1	1.018364E+0	1.007004E+0	9.646944E-1	1.037819E+0	1.049203E+0	9.939501E-1	1.045260E+0	9.684305E-1	9.658436E-1	1.029816E+0	1.051045E+0	1.018332E+0	1.009282E+0	9.941396E-1	9.941944E-1	9.298533E-1	9.784293E-1	9.941420E-1	1.055065E+0	1.007274E+0	9.645606E-1	1.030867E+0	1.032610E+0	9.947720E-1	9.672115E-1	1.085470E+0	1.053931E+0	1.011427E+0	1.001798E+0	9.712980E-1	1.006922E+0	9.648017E-1	9.754836E-1	1.060441E+0	1.030265E+0	9.922216E-1	1.003849E+0	9.758108E-1	1.020093E+0	1.003521E+0	9.690446E-1	9.780573E-1	9.635501E-1	1.018676E+0	9.940289E-1	9.793399E-1	1.083204E+0	1.050775E+0	9.621408E-1	9.944058E-1	1.000376E+0	1.008266E+0	1.025256E+0	9.651348E-1	1.026231E+0	1.008832E+0	9.913292E-1	1.051708E+0	1.001323E+0	1.001317E+0	1.024641E+0	9.447341E-1	1.012542E+0	1.009473E+0	9.889122E-1	9.486498E-1	9.694119E-1	9.667448E-1	9.371778E-1	9.962148E-1	1.055613E+0	1.061726E+0	9.598793E-1	9.924565E-1	1.002301E+0	9.266083E-1	1.066444E+0	1.004002E+0	1.072303E+0
5.485450E+2	1.192708E+0	1.192777E+0	1.180933E+0	1.226345E+0	1.181737E+0	1.231618E+0	1.137424E+0	1.195207E+0	1.258303E+0	1.173965E+0	1.186692E+0	1.201864E+0	1.204123E+0	1.192322E+0	1.242543E+0	1.176966E+0	1.200222E+0	1.180068E+0	1.192791E+0	1.192647E+0	1.276377E+0	1.178759E+0	1.241541E+0	1.185018E+0	1.174668E+0	1.185358E+0	1.258519E+0	1.247587E+0	1.167877E+0	1.197481E+0	1.254931E+0	1.200166E+0	1.152094E+0	1.254509E+0	1.187884E+0	1.224523E+0	1.235618E+0	1.259478E+0	1.147495E+0	1.248297E+0	1.147133E+0	1.159309E+0	1.196355E+0	1.169774E+0	1.243727E+0	1.228095E+0	1.246393E+0	1.279958E+0	1.197551E+0	1.146176E+0	1.200100E+0	1.157148E+0	1.153532E+0	1.210585E+0	1.265021E+0	1.231084E+0	1.301686E+0	1.225483E+0	1.226870E+0	1.182693E+0	1.167405E+0	1.179292E+0	1.179484E+0	1.236177E+0	1.147945E+0	1.158177E+0	1.189653E+0	1.251192E+0	1.255829E+0	1.147671E+0	1.244647E+0	1.176874E+0	1.180119E+0	1.171403E+0	1.246641E+0	1.198096E+0	1.197139E+0	1.226692E+0	1.188458E+0	1.229432E+0	1.181462E+0	1.221603E+0	1.212786E+0	1.180167E+0	1.213648E+0	1.180239E+0	1.165299E+0	1.185180E+0	1.244287E+0	1.202126E+0	1.241427E+0	1.226485E+0	1.228828E+0	1.197033E+0	1.185684E+0	1.202224E+0	1.167398E+0	1.205036E+0	1.228580E+0	1.233321E+0	1.189946E+0	1.185192E+0	1.203276E+0	1.157120E+0	1.206047E+0	1.138611E+0	1.153739E+0	1.183955E+0	1.158825E+0	1.223558E+0	1.243492E+0	1.226318E+0	1.207196E+0	1.154369E+0	1.207615E+0	1.214738E+0	1.207677E+0	1.191082E+0	1.229466E+0	1.218042E+0	1.239004E+0	1.120598E+0	1.177545E+0	1.133215E+0	1.230523E+0	1.205905E+0	1.149950E+0	1.237471E+0	1.196158E+0	1.157071E+0	1.248993E+0	1.201757E+0	1.170434E+0	1.212540E+0	1.197171E+0	1.227523E+0	1.183601E+0	1.176667E+0	1.192373E+0	1.129368E+0	1.236083E+0	1.163078E+0	1.173746E+0	1.266583E+0	1.180828E+0	1.251160E+0	1.191080E+0	1.153376E+0	1.196826E+0	1.222587E+0	1.207093E+0	1.237000E+0	1.170507E+0	1.160965E+0	1.178021E+0	1.250643E+0	1.248431E+0	1.169819E+0	1.198652E+0	1.230791E+0	1.213609E+0	1.147141E+0	1.237481E+0	1.277167E+0
5.490490E+2	1.522729E+0	1.514905E+0	1.464098E+0	1.421524E+0	1.568020E+0	1.516284E+0	1.502628E+0	1.420375E+0	1.469736E+0	1.524927E+0	1.490053E+0	1.473469E+0	1.452098E+0	1.435989E+0	1.554908E+0	1.480936E+0	1.537672E+0	1.510415E+0	1.478469E+0	1.491440E+0	1.511043E+0	1.472547E+0	1.474094E+0	1.502112E+0	1.535270E+0	1.491311E+0	1.486481E+0	1.474656E+0	1.434859E+0	1.459436E+0	1.501973E+0	1.456863E+0	1.503462E+0	1.536082E+0	1.513870E+0	1.507036E+0	1.479210E+0	1.539073E+0	1.436190E+0	1.466606E+0	1.543577E+0	1.429274E+0	1.506979E+0	1.510680E+0	1.554902E+0	1.521411E+0	1.477878E+0	1.474772E+0	1.452743E+0	1.422070E+0	1.509079E+0	1.506744E+0	1.524135E+0	1.467026E+0	1.497036E+0	1.509806E+0	1.396904E+0	1.452851E+0	1.504646E+0	1.465714E+0	1.493202E+0	1.503493E+0	1.497199E+0	1.492983E+0	1.491972E+0	1.513842E+0	1.472350E+0	1.452047E+0	1.461360E+0	1.451836E+0	1.533493E+0	1.464543E+0	1.448420E+0	1.489166E+0	1.436221E+0	1.528724E+0	1.538420E+0	1.500222E+0	1.560113E+0	1.522318E+0	1.446276E+0	1.475801E+0	1.467899E+0	1.449343E+0	1.499257E+0	1.391515E+0	1.506751E+0	1.520036E+0	1.431088E+0	1.467808E+0	1.414189E+0	1.485617E+0	1.441586E+0	1.390890E+0	1.454432E+0	1.455641E+0	1.519048E+0	1.406169E+0	1.448309E+0	1.434971E+0	1.438826E+0	1.449575E+0	1.427628E+0	1.489509E+0	1.504248E+0	1.440209E+0	1.494820E+0	1.473716E+0	1.504126E+0	1.514845E+0	1.447190E+0	1.473931E+0	1.528022E+0	1.426269E+0	1.460514E+0	1.526964E+0	1.492891E+0	1.451694E+0	1.450564E+0	1.493653E+0	1.470707E+0	1.435860E+0	1.490930E+0	1.506875E+0	1.475691E+0	1.444581E+0	1.480673E+0	1.466492E+0	1.462840E+0	1.525235E+0	1.546620E+0	1.450767E+0	1.511171E+0	1.457837E+0	1.440538E+0	1.428500E+0	1.447804E+0	1.412050E+0	1.432990E+0	1.466530E+0	1.571784E+0	1.394577E+0	1.458957E+0	1.600885E+0	1.438815E+0	1.446118E+0	1.431125E+0	1.502886E+0	1.516943E+0	1.512990E+0	1.440139E+0	1.543736E+0	1.442991E+0	1.429231E+0	1.456405E+0	1.411228E+0	1.491239E+0	1.422340E+0	1.468502E+0	1.532923E+0	1.425340E+0	1.407917E+0	1.424166E+0	1.553008E+0
5.495150E+2	1.716989E+0	1.742547E+0	1.633505E+0	1.736517E+0	1.749449E+0	1.822154E+0	1.683375E+0	1.720590E+0	1.793376E+0	1.637364E+0	1.665189E+0	1.707407E+0	1.731199E+0	1.737263E+0	1.702143E+0	1.666947E+0	1.696401E+0	1.700608E+0	1.710900E+0	1.675917E+0	1.660653E+0	1.690148E+0	1.693851E+0	1.669376E+0	1.675448E+0	1.693290E+0	1.699217E+0	1.674379E+0	1.691802E+0	1.704371E+0	1.721296E+0	1.700114E+0	1.590377E+0	1.778176E+0	1.726044E+0	1.650727E+0	1.701060E+0	1.736355E+0	1.597412E+0	1.708511E+0	1.680662E+0	1.680906E+0	1.725292E+0	1.737642E+0	1.810106E+0	1.679176E+0	1.644804E+0	1.673490E+0	1.657135E+0	1.593242E+0	1.593630E+0	1.716158E+0	1.663457E+0	1.697203E+0	1.689608E+0	1.692478E+0	1.753881E+0	1.713603E+0	1.669546E+0	1.673994E+0	1.639583E+0	1.688642E+0	1.671700E+0	1.730453E+0	1.668484E+0	1.708446E+0	1.729752E+0	1.680168E+0	1.710947E+0	1.586751E+0	1.678172E+0	1.728490E+0	1.654939E+0	1.654429E+0	1.731878E+0	1.700150E+0	1.685242E+0	1.687657E+0	1.780800E+0	1.724790E+0	1.616094E+0	1.672934E+0	1.703285E+0	1.629302E+0	1.667251E+0	1.651671E+0	1.702637E+0	1.675364E+0	1.813558E+0	1.656275E+0	1.683819E+0	1.722816E+0	1.693009E+0	1.680269E+0	1.633564E+0	1.701198E+0	1.728924E+0	1.697275E+0	1.738202E+0	1.622051E+0	1.692414E+0	1.674389E+0	1.647142E+0	1.709857E+0	1.719083E+0	1.644355E+0	1.645149E+0	1.665792E+0	1.692623E+0	1.685204E+0	1.680507E+0	1.705452E+0	1.726348E+0	1.653087E+0	1.704721E+0	1.712969E+0	1.728140E+0	1.584586E+0	1.660169E+0	1.729968E+0	1.726801E+0	1.660788E+0	1.710379E+0	1.734735E+0	1.708530E+0	1.683358E+0	1.658218E+0	1.633880E+0	1.744501E+0	1.672381E+0	1.698962E+0	1.675019E+0	1.671211E+0	1.609856E+0	1.603143E+0	1.654583E+0	1.711971E+0	1.659186E+0	1.611010E+0	1.611433E+0	1.746441E+0	1.626255E+0	1.726722E+0	1.726526E+0	1.630477E+0	1.707147E+0	1.624925E+0	1.676665E+0	1.697930E+0	1.719666E+0	1.610677E+0	1.714195E+0	1.636908E+0	1.636668E+0	1.678572E+0	1.731181E+0	1.745634E+0	1.703550E+0	1.661846E+0	1.623797E+0	1.653646E+0	1.728701E+0	1.727233E+0	1.727083E+0
5.500160E+2	1.562884E+0	1.427924E+0	1.406346E+0	1.496951E+0	1.497827E+0	1.511435E+0	1.525695E+0	1.523562E+0	1.559732E+0	1.452501E+0	1.433659E+0	1.471058E+0	1.525847E+0	1.452756E+0	1.550019E+0	1.463687E+0	1.452630E+0	1.448769E+0	1.494833E+0	1.560789E+0	1.497380E+0	1.462291E+0	1.504463E+0	1.505155E+0	1.522491E+0	1.510496E+0	1.490575E+0	1.524531E+0	1.524621E+0	1.471709E+0	1.526981E+0	1.521014E+0	1.475269E+0	1.540981E+0	1.486815E+0	1.469716E+0	1.541705E+0	1.534962E+0	1.474114E+0	1.415633E+0	1.483311E+0	1.453330E+0	1.567242E+0	1.490271E+0	1.530674E+0	1.534313E+0	1.517884E+0	1.511107E+0	1.459488E+0	1.414680E+0	1.484707E+0	1.476942E+0	1.441989E+0	1.481595E+0	1.524569E+0	1.534959E+0	1.528527E+0	1.559370E+0	1.488927E+0	1.524747E+0	1.505225E+0	1.484524E+0	1.471966E+0	1.473371E+0	1.518628E+0	1.532683E+0	1.500880E+0	1.474357E+0	1.612883E+0	1.413658E+0	1.514379E+0	1.542611E+0	1.522512E+0	1.498716E+0	1.489327E+0	1.534548E+0	1.586435E+0	1.499045E+0	1.554391E+0	1.591646E+0	1.519955E+0	1.505835E+0	1.453171E+0	1.479151E+0	1.518899E+0	1.428185E+0	1.504404E+0	1.446411E+0	1.543542E+0	1.524746E+0	1.525105E+0	1.617366E+0	1.479217E+0	1.447156E+0	1.492939E+0	1.471821E+0	1.509272E+0	1.444926E+0	1.491110E+0	1.480128E+0	1.504893E+0	1.559092E+0	1.486942E+0	1.511757E+0	1.539769E+0	1.496813E+0	1.452850E+0	1.448673E+0	1.487225E+0	1.498135E+0	1.450849E+0	1.508734E+0	1.481420E+0	1.438339E+0	1.414854E+0	1.485644E+0	1.522478E+0	1.394278E+0	1.465023E+0	1.627819E+0	1.538386E+0	1.475399E+0	1.415457E+0	1.479352E+0	1.483652E+0	1.446300E+0	1.562984E+0	1.433008E+0	1.418679E+0	1.494682E+0	1.526218E+0	1.437357E+0	1.482312E+0	1.533277E+0	1.448810E+0	1.476776E+0	1.507181E+0	1.547465E+0	1.412088E+0	1.495359E+0	1.508600E+0	1.444796E+0	1.468744E+0	1.482371E+0	1.439491E+0	1.495338E+0	1.507405E+0	1.474158E+0	1.475979E+0	1.515151E+0	1.517354E+0	1.465023E+0	1.473900E+0	1.533537E+0	1.446246E+0	1.457939E+0	1.563593E+0	1.441556E+0	1.518231E+0	1.478824E+0	1.467554E+0	1.512096E+0	1.484920E+0	1.451463E+0
5.505060E+2	1.528288E+0	1.530114E+0	1.437537E+0	1.561221E+0	1.487350E+0	1.494030E+0	1.504907E+0	1.435751E+0	1.453052E+0	1.540911E+0	1.477512E+0	1.495290E+0	1.474385E+0	1.437170E+0	1.517905E+0	1.536416E+0	1.455693E+0	1.542396E+0	1.516137E+0	1.438186E+0	1.467958E+0	1.544167E+0	1.478504E+0	1.501060E+0	1.495167E+0	1.466141E+0	1.503860E+0	1.386109E+0	1.466511E+0	1.435105E+0	1.486687E+0	1.434265E+0	1.432473E+0	1.404054E+0	1.435650E+0	1.471459E+0	1.450547E+0	1.504996E+0	1.462011E+0	1.448795E+0	1.446731E+0	1.505941E+0	1.482362E+0	1.467189E+0	1.536085E+0	1.496255E+0	1.464875E+0	1.453781E+0	1.466966E+0	1.426484E+0	1.441022E+0	1.510092E+0	1.410398E+0	1.476804E+0	1.465136E+0	1.518514E+0	1.572269E+0	1.429505E+0	1.483842E+0	1.471472E+0	1.482531E+0	1.467363E+0	1.468650E+0	1.499055E+0	1.507075E+0	1.480189E+0	1.467414E+0	1.460890E+0	1.605332E+0	1.494172E+0	1.464713E+0	1.524067E+0	1.524703E+0	1.430408E+0	1.481297E+0	1.460641E+0	1.562008E+0	1.441384E+0	1.493562E+0	1.450387E+0	1.488652E+0	1.470092E+0	1.500600E+0	1.427877E+0	1.490610E+0	1.516277E+0	1.465995E+0	1.517943E+0	1.523049E+0	1.464352E+0	1.451299E+0	1.486814E+0	1.458356E+0	1.438393E+0	1.502542E+0	1.469542E+0	1.447602E+0	1.426815E+0	1.508590E+0	1.519930E+0	1.383289E+0	1.522189E+0	1.407959E+0	1.494693E+0	1.497593E+0	1.518819E+0	1.438137E+0	1.504196E+0	1.501326E+0	1.469102E+0	1.477930E+0	1.525325E+0	1.439766E+0	1.504639E+0	1.426025E+0	1.456251E+0	1.447912E+0	1.454250E+0	1.500455E+0	1.464438E+0	1.555655E+0	1.458458E+0	1.471740E+0	1.464187E+0	1.508648E+0	1.477665E+0	1.418583E+0	1.381725E+0	1.466468E+0	1.480047E+0	1.481446E+0	1.477229E+0	1.515132E+0	1.447041E+0	1.409046E+0	1.494392E+0	1.446592E+0	1.449720E+0	1.407287E+0	1.434380E+0	1.486832E+0	1.435691E+0	1.466773E+0	1.541021E+0	1.495251E+0	1.485399E+0	1.473382E+0	1.393309E+0	1.445533E+0	1.461969E+0	1.502503E+0	1.405744E+0	1.449446E+0	1.432692E+0	1.461779E+0	1.436024E+0	1.461511E+0	1.464640E+0	1.550339E+0	1.477397E+0	1.500339E+0	1.488803E+0	1.510046E+0	1.499654E+0
5.510140E+2	1.235414E+0	1.194841E+0	1.150255E+0	1.211261E+0	1.258947E+0	1.169397E+0	1.237246E+0	1.209615E+0	1.233693E+0	1.177328E+0	1.213009E+0	1.201553E+0	1.274499E+0	1.225432E+0	1.234384E+0	1.226250E+0	1.234879E+0	1.214639E+0	1.198972E+0	1.209681E+0	1.226099E+0	1.203377E+0	1.201457E+0	1.202284E+0	1.221406E+0	1.250366E+0	1.186879E+0	1.243938E+0	1.190443E+0	1.175865E+0	1.211518E+0	1.188132E+0	1.185129E+0	1.239983E+0	1.190410E+0	1.184962E+0	1.228544E+0	1.235506E+0	1.251196E+0	1.230447E+0	1.222962E+0	1.169077E+0	1.215368E+0	1.224109E+0	1.220487E+0	1.219880E+0	1.241037E+0	1.164908E+0	1.150401E+0	1.179412E+0	1.226450E+0	1.176300E+0	1.210892E+0	1.183232E+0	1.209954E+0	1.207610E+0	1.238822E+0	1.119505E+0	1.273214E+0	1.177484E+0	1.210610E+0	1.221396E+0	1.207474E+0	1.172679E+0	1.218581E+0	1.191095E+0	1.225431E+0	1.211175E+0	1.238733E+0	1.181651E+0	1.225698E+0	1.200896E+0	1.267400E+0	1.163544E+0	1.238541E+0	1.286248E+0	1.210818E+0	1.183715E+0	1.242475E+0	1.302861E+0	1.187963E+0	1.168396E+0	1.182790E+0	1.122448E+0	1.198156E+0	1.175487E+0	1.301612E+0	1.182356E+0	1.267688E+0	1.200468E+0	1.180168E+0	1.181095E+0	1.177825E+0	1.240822E+0	1.251901E+0	1.235064E+0	1.227671E+0	1.186709E+0	1.234032E+0	1.186504E+0	1.288103E+0	1.247973E+0	1.205295E+0	1.180768E+0	1.273045E+0	1.139648E+0	1.223240E+0	1.155733E+0	1.212546E+0	1.155071E+0	1.271251E+0	1.193319E+0	1.262693E+0	1.229330E+0	1.270907E+0	1.203167E+0	1.177223E+0	1.183595E+0	1.248817E+0	1.219273E+0	1.272971E+0	1.189834E+0	1.279692E+0	1.197541E+0	1.211934E+0	1.207999E+0	1.193075E+0	1.193349E+0	1.302824E+0	1.265170E+0	1.236797E+0	1.196540E+0	1.220814E+0	1.179927E+0	1.268708E+0	1.173650E+0	1.215818E+0	1.137571E+0	1.145866E+0	1.233149E+0	1.249232E+0	1.193094E+0	1.189978E+0	1.239787E+0	1.201742E+0	1.143924E+0	1.193872E+0	1.237224E+0	1.224867E+0	1.266019E+0	1.179667E+0	1.266177E+0	1.204009E+0	1.237975E+0	1.241618E+0	1.228071E+0	1.235457E+0	1.224137E+0	1.221963E+0	1.200530E+0	1.133403E+0	1.144744E+0	1.129118E+0	1.257113E+0
5.515000E+2	9.916963E-1	1.028380E+0	1.038975E+0	1.087200E+0	1.043432E+0	1.066079E+0	1.047962E+0	9.994388E-1	9.846867E-1	1.027190E+0	9.872696E-1	9.620089E-1	1.012695E+0	1.001927E+0	1.032427E+0	9.782791E-1	1.103582E+0	1.005821E+0	1.039943E+0	9.872728E-1	1.089039E+0	1.040991E+0	1.003044E+0	9.895304E-1	9.693952E-1	9.622701E-1	1.025941E+0	1.009932E+0	1.009692E+0	1.028081E+0	1.045346E+0	9.918787E-1	1.041196E+0	1.093152E+0	1.012277E+0	9.911453E-1	1.006384E+0	1.057065E+0	9.928521E-1	1.048274E+0	9.678363E-1	1.015345E+0	1.052576E+0	1.038826E+0	9.827664E-1	1.018065E+0	1.046720E+0	9.670774E-1	1.005376E+0	9.883688E-1	1.001128E+0	9.672020E-1	9.968052E-1	1.026434E+0	1.011112E+0	1.030058E+0	1.083768E+0	1.041578E+0	1.010171E+0	1.013265E+0	1.021115E+0	1.000173E+0	1.035455E+0	1.046235E+0	1.025640E+0	1.047350E+0	9.961620E-1	1.010007E+0	1.055357E+0	1.009911E+0	1.022947E+0	1.086159E+0	1.067872E+0	9.832930E-1	1.004390E+0	1.011798E+0	1.066881E+0	1.043074E+0	1.023657E+0	1.075738E+0	1.027312E+0	1.029530E+0	1.088987E+0	1.041941E+0	1.047949E+0	1.006915E+0	1.054689E+0	1.029997E+0	1.060375E+0	1.007101E+0	1.000036E+0	9.986178E-1	1.020078E+0	1.024653E+0	1.037123E+0	1.017174E+0	1.027683E+0	1.048983E+0	1.002123E+0	1.039193E+0	1.028965E+0	1.007177E+0	1.059449E+0	1.032017E+0	1.066047E+0	9.965332E-1	1.023322E+0	9.944709E-1	9.737316E-1	1.017995E+0	1.071434E+0	1.032210E+0	1.006812E+0	1.043151E+0	1.012603E+0	9.971501E-1	9.735130E-1	1.012251E+0	1.030568E+0	1.044862E+0	1.012484E+0	9.749109E-1	1.022835E+0	1.071222E+0	1.074915E+0	9.706287E-1	1.001037E+0	1.020402E+0	1.086461E+0	1.041608E+0	1.070144E+0	9.923198E-1	1.014433E+0	1.032316E+0	9.846047E-1	9.792827E-1	9.838565E-1	1.028388E+0	1.016010E+0	1.028821E+0	1.031265E+0	1.028243E+0	1.071715E+0	1.040923E+0	1.031721E+0	1.033241E+0	9.215065E-1	1.041757E+0	1.062612E+0	1.001643E+0	9.729297E-1	9.803541E-1	1.048511E+0	9.782754E-1	1.023242E+0	1.069035E+0	1.026119E+0	1.007035E+0	1.101646E+0	9.992857E-1	1.037547E+0	1.011066E+0	1.025327E+0	1.182959E+0
5.520100E+2	1.010166E+0	9.724294E-1	1.004700E+0	1.042531E+0	1.041185E+0	1.054492E+0	1.072728E+0	9.918831E-1	9.889242E-1	9.985590E-1	1.013542E+0	1.031113E+0	1.029994E+0	9.670852E-1	1.041620E+0	1.017163E+0	1.003229E+0	9.619895E-1	9.357314E-1	9.806463E-1	1.011104E+0	9.980066E-1	9.924462E-1	9.536600E-1	1.031348E+0	1.055598E+0	9.889041E-1	1.005685E+0	9.785986E-1	1.008122E+0	1.028239E+0	9.737349E-1	1.007591E+0	9.587979E-1	9.722486E-1	1.003390E+0	9.878490E-1	1.005290E+0	9.436180E-1	1.010028E+0	1.001662E+0	9.860504E-1	1.043310E+0	1.019123E+0	1.058999E+0	1.011113E+0	1.032294E+0	1.008878E+0	9.592167E-1	9.575951E-1	9.984570E-1	1.015812E+0	1.008509E+0	9.737265E-1	1.019832E+0	1.043724E+0	1.075171E+0	1.004239E+0	9.938033E-1	9.645712E-1	9.938214E-1	1.003758E+0	9.854057E-1	9.589159E-1	9.924039E-1	1.013004E+0	1.063872E+0	9.275452E-1	1.052358E+0	9.303798E-1	1.072513E+0	1.005297E+0	9.919133E-1	1.013719E+0	9.906904E-1	1.039086E+0	1.063699E+0	9.937725E-1	9.800689E-1	1.006862E+0	9.452062E-1	1.043436E+0	1.017117E+0	9.879199E-1	9.999269E-1	9.707974E-1	1.023995E+0	9.882887E-1	9.940301E-1	9.900954E-1	9.470059E-1	1.026728E+0	9.481702E-1	9.779064E-1	1.028249E+0	1.000258E+0	9.782709E-1	9.181500E-1	1.038070E+0	9.366144E-1	1.030439E+0	1.023267E+0	1.018902E+0	1.017849E+0	1.043499E+0	1.004560E+0	9.705711E-1	9.934286E-1	1.000872E+0	1.048129E+0	9.688259E-1	1.032438E+0	1.052364E+0	9.853035E-1	1.023250E+0	9.898222E-1	1.024689E+0	9.922524E-1	1.013488E+0	9.793315E-1	9.719734E-1	9.663781E-1	9.724159E-1	1.029088E+0	1.032998E+0	9.995107E-1	9.948725E-1	9.435580E-1	1.020085E+0	9.782274E-1	1.037435E+0	1.018132E+0	9.482832E-1	9.549728E-1	9.551360E-1	1.020476E+0	1.027619E+0	9.614516E-1	9.475580E-1	9.871079E-1	1.047183E+0	9.531852E-1	1.041163E+0	1.048315E+0	9.937024E-1	9.915367E-1	9.863728E-1	1.020925E+0	1.027263E+0	9.829949E-1	9.500323E-1	1.047551E+0	1.030374E+0	1.042788E+0	9.993271E-1	1.031425E+0	1.033514E+0	9.865870E-1	9.916765E-1	9.883790E-1	9.673859E-1	9.855606E-1	9.405276E-1	9.379305E-1
5.525090E+2	1.067139E+0	1.062447E+0	1.056048E+0	1.030709E+0	1.064158E+0	1.112819E+0	1.082494E+0	1.021963E+0	1.076798E+0	1.042023E+0	1.021789E+0	1.033849E+0	9.865181E-1	1.055094E+0	1.073997E+0	1.022552E+0	1.069775E+0	1.047953E+0	1.085071E+0	1.047670E+0	1.051158E+0	1.154941E+0	1.058833E+0	1.108066E+0	1.065279E+0	1.038347E+0	1.057581E+0	1.075491E+0	1.095864E+0	1.032494E+0	1.103340E+0	1.096022E+0	1.048906E+0	1.102905E+0	1.077665E+0	1.053205E+0	1.094408E+0	1.098089E+0	1.052561E+0	1.021103E+0	1.079977E+0	1.039914E+0	1.078709E+0	1.056184E+0	1.119282E+0	1.064245E+0	1.029748E+0	1.111406E+0	1.062571E+0	1.009518E+0	1.039634E+0	1.123180E+0	1.008167E+0	1.062536E+0	1.075036E+0	1.038431E+0	1.048554E+0	9.963278E-1	1.014589E+0	1.062873E+0	1.028151E+0	1.043715E+0	1.077355E+0	1.044817E+0	1.058463E+0	1.110314E+0	1.047472E+0	1.036625E+0	1.088528E+0	1.058565E+0	1.061736E+0	1.072896E+0	1.127506E+0	1.102328E+0	1.100465E+0	1.125830E+0	1.100033E+0	1.068901E+0	1.087764E+0	1.103995E+0	1.028410E+0	1.062171E+0	1.064665E+0	1.119085E+0	1.064880E+0	1.112550E+0	1.123132E+0	1.050418E+0	1.066204E+0	1.047639E+0	1.045979E+0	1.056388E+0	1.048975E+0	1.118417E+0	1.081174E+0	1.082077E+0	1.032651E+0	1.061995E+0	1.082721E+0	1.080156E+0	1.049479E+0	1.053601E+0	1.067067E+0	1.001647E+0	1.091137E+0	1.056721E+0	1.032101E+0	1.058668E+0	1.002787E+0	1.064489E+0	1.124377E+0	1.055647E+0	1.053609E+0	1.028894E+0	1.098046E+0	1.083538E+0	1.081231E+0	9.912003E-1	1.017629E+0	1.069913E+0	1.063780E+0	1.031583E+0	1.031540E+0	1.073323E+0	1.056148E+0	1.040108E+0	1.048274E+0	1.007844E+0	1.042959E+0	1.051884E+0	1.046576E+0	1.038431E+0	1.092036E+0	1.054215E+0	1.064990E+0	1.051167E+0	1.031164E+0	1.045270E+0	9.839660E-1	1.001576E+0	1.094186E+0	1.032185E+0	1.068632E+0	1.112779E+0	1.037876E+0	1.063948E+0	1.017178E+0	1.099857E+0	1.117864E+0	1.109476E+0	1.043561E+0	1.078070E+0	1.060376E+0	1.057028E+0	1.084159E+0	1.035854E+0	1.085196E+0	1.069708E+0	1.045042E+0	1.027189E+0	1.033610E+0	1.031680E+0	1.029536E+0	1.027359E+0
5.530150E+2	1.003398E+0	1.020035E+0	9.534739E-1	9.592282E-1	1.012071E+0	1.062077E+0	9.927199E-1	9.983660E-1	1.000854E+0	9.855176E-1	9.900317E-1	1.009888E+0	1.017380E+0	9.803765E-1	1.027744E+0	9.756926E-1	9.734634E-1	1.015219E+0	1.029024E+0	1.031876E+0	1.043468E+0	1.046506E+0	1.027888E+0	9.679675E-1	1.076300E+0	9.844425E-1	9.559413E-1	1.068515E+0	9.665430E-1	9.371583E-1	1.035393E+0	1.030497E+0	9.931954E-1	1.033432E+0	9.815639E-1	9.875549E-1	9.583864E-1	1.034717E+0	1.013688E+0	9.933041E-1	9.879856E-1	9.148292E-1	9.288451E-1	1.034413E+0	9.975929E-1	1.020066E+0	9.788191E-1	9.765902E-1	1.007243E+0	9.868420E-1	1.041372E+0	1.000002E+0	1.004003E+0	9.877532E-1	1.033341E+0	9.968746E-1	9.878434E-1	9.889416E-1	9.985009E-1	9.506704E-1	9.649665E-1	1.025960E+0	9.871622E-1	9.902959E-1	1.044854E+0	9.881551E-1	9.904845E-1	1.012159E+0	1.025771E+0	9.831429E-1	9.805496E-1	1.070850E+0	9.845582E-1	9.842969E-1	1.041776E+0	1.015083E+0	1.021142E+0	9.953013E-1	1.044091E+0	9.975934E-1	1.000182E+0	1.060804E+0	1.042912E+0	9.542835E-1	9.795521E-1	9.355765E-1	1.033642E+0	9.942397E-1	9.891728E-1	9.761240E-1	9.860584E-1	9.553636E-1	9.509479E-1	9.759588E-1	1.060234E+0	1.049766E+0	1.044311E+0	9.705546E-1	9.887221E-1	9.827527E-1	1.022615E+0	9.962540E-1	9.794596E-1	9.299683E-1	1.054692E+0	1.013371E+0	1.022456E+0	9.468030E-1	9.905819E-1	1.006446E+0	1.002658E+0	1.026062E+0	9.684390E-1	9.658971E-1	9.831276E-1	1.010302E+0	9.988530E-1	1.000417E+0	1.027607E+0	1.018549E+0	9.687156E-1	1.036303E+0	1.005625E+0	9.959902E-1	1.033125E+0	1.008592E+0	1.014877E+0	9.370801E-1	1.046712E+0	9.665472E-1	1.022990E+0	9.590686E-1	9.920733E-1	9.740027E-1	9.771790E-1	9.717120E-1	1.044016E+0	9.984253E-1	1.019595E+0	9.716198E-1	9.846610E-1	9.567640E-1	1.072876E+0	1.036799E+0	9.662192E-1	1.026375E+0	9.821829E-1	1.051763E+0	1.033903E+0	1.031345E+0	9.699171E-1	1.021217E+0	9.943947E-1	1.007200E+0	1.023650E+0	1.053852E+0	1.039536E+0	9.620865E-1	9.607846E-1	9.408046E-1	1.001428E+0	1.012714E+0	9.802036E-1	1.038874E+0
5.534770E+2	9.850755E-1	9.687922E-1	9.733950E-1	9.766850E-1	9.605618E-1	9.669551E-1	9.632494E-1	9.090157E-1	9.113719E-1	9.287540E-1	9.845958E-1	9.582768E-1	9.669556E-1	8.954225E-1	9.604218E-1	9.810893E-1	9.562430E-1	9.939810E-1	9.504467E-1	9.722911E-1	9.752390E-1	9.607300E-1	9.161586E-1	9.453117E-1	9.300657E-1	9.693227E-1	9.826124E-1	1.002205E+0	9.576789E-1	9.703888E-1	9.751315E-1	9.659652E-1	9.487290E-1	9.873571E-1	9.541679E-1	9.592155E-1	9.794806E-1	9.800552E-1	9.293114E-1	9.391883E-1	9.719530E-1	9.741712E-1	9.498254E-1	9.994272E-1	9.692480E-1	9.196627E-1	1.000973E+0	9.674438E-1	9.415540E-1	9.961648E-1	9.759123E-1	9.604789E-1	9.525360E-1	9.700175E-1	9.536155E-1	9.673121E-1	1.005713E+0	9.064832E-1	9.813342E-1	9.344831E-1	9.141602E-1	9.772231E-1	9.890470E-1	9.379955E-1	9.934252E-1	9.758960E-1	9.313871E-1	9.346517E-1	9.356514E-1	9.369988E-1	1.036058E+0	9.728056E-1	9.803119E-1	9.750209E-1	9.149520E-1	9.396999E-1	9.728979E-1	9.951291E-1	9.613875E-1	9.730474E-1	9.766178E-1	9.119858E-1	9.769397E-1	9.320550E-1	9.569908E-1	9.522329E-1	1.027721E+0	9.398050E-1	9.877890E-1	9.591913E-1	9.761758E-1	9.358360E-1	9.657191E-1	9.563302E-1	9.527886E-1	9.891221E-1	9.303529E-1	9.933038E-1	9.725021E-1	9.556311E-1	9.537577E-1	9.955557E-1	9.415760E-1	9.470043E-1	9.391611E-1	9.595119E-1	9.742050E-1	1.003967E+0	9.549627E-1	9.471159E-1	9.566585E-1	9.488076E-1	9.952419E-1	9.690624E-1	9.735901E-1	9.755621E-1	9.540870E-1	9.778503E-1	9.795359E-1	9.595468E-1	9.785815E-1	9.239336E-1	9.697646E-1	9.067128E-1	9.557969E-1	9.406422E-1	1.028616E+0	9.912516E-1	9.301139E-1	9.483062E-1	9.718347E-1	9.872056E-1	9.188006E-1	9.317719E-1	9.235469E-1	9.335708E-1	9.622206E-1	9.322983E-1	9.539216E-1	9.975115E-1	9.656791E-1	9.481163E-1	9.550892E-1	1.021918E+0	9.506037E-1	9.373144E-1	9.499982E-1	9.541326E-1	9.355695E-1	1.018371E+0	9.394729E-1	9.864143E-1	9.374607E-1	9.979907E-1	9.532909E-1	9.474881E-1	9.956318E-1	9.717301E-1	9.420404E-1	9.952963E-1	9.007821E-1	9.670552E-1	9.151677E-1	9.795731E-1
5.540290E+2	8.620175E-1	9.200619E-1	9.137479E-1	8.678765E-1	8.635823E-1	9.661590E-1	9.369725E-1	9.581346E-1	9.516614E-1	9.636343E-1	9.294291E-1	8.843494E-1	9.379552E-1	9.625235E-1	9.442308E-1	9.490208E-1	8.933461E-1	9.223882E-1	9.240863E-1	9.594785E-1	9.106853E-1	9.528409E-1	9.166814E-1	8.674996E-1	9.557460E-1	9.618140E-1	9.264508E-1	9.234580E-1	9.156589E-1	9.284932E-1	8.671009E-1	8.904653E-1	9.153918E-1	9.803159E-1	9.416253E-1	9.195694E-1	9.310523E-1	9.553595E-1	8.622079E-1	9.394804E-1	9.322795E-1	9.246031E-1	9.709088E-1	8.946726E-1	9.690184E-1	9.162654E-1	9.030519E-1	9.689410E-1	8.903637E-1	9.316617E-1	9.079432E-1	8.509754E-1	8.718114E-1	8.792121E-1	9.520250E-1	9.480367E-1	9.073759E-1	9.228177E-1	9.292831E-1	8.860134E-1	9.020635E-1	9.015908E-1	9.188063E-1	9.278097E-1	9.255087E-1	9.633042E-1	9.465662E-1	9.647653E-1	9.112353E-1	9.331314E-1	9.394407E-1	9.314045E-1	9.128592E-1	8.982526E-1	9.203150E-1	9.551424E-1	8.984969E-1	8.644708E-1	9.405325E-1	9.448776E-1	8.735953E-1	9.005867E-1	9.160219E-1	9.213692E-1	9.071622E-1	9.357912E-1	9.122905E-1	9.429244E-1	8.974588E-1	9.180769E-1	9.443087E-1	9.082306E-1	9.164764E-1	9.694160E-1	9.428487E-1	9.324998E-1	9.621683E-1	9.103100E-1	9.139737E-1	9.308208E-1	9.094435E-1	9.504282E-1	9.325019E-1	9.626616E-1	9.048022E-1	9.200649E-1	9.999194E-1	9.464504E-1	8.971809E-1	9.397716E-1	9.199664E-1	9.467836E-1	9.353839E-1	9.041492E-1	8.954714E-1	9.015476E-1	9.180684E-1	8.951581E-1	9.738417E-1	9.366336E-1	9.322140E-1	9.607711E-1	9.385026E-1	9.492423E-1	9.480542E-1	8.681929E-1	9.291936E-1	9.642458E-1	9.318281E-1	9.298091E-1	9.157996E-1	9.416420E-1	8.985544E-1	9.425865E-1	9.359260E-1	9.066712E-1	9.378129E-1	8.675898E-1	8.806474E-1	8.937740E-1	8.973551E-1	9.406897E-1	8.868382E-1	9.034333E-1	9.227457E-1	9.345630E-1	9.075588E-1	9.168562E-1	9.222836E-1	9.153278E-1	9.112751E-1	8.941475E-1	9.332323E-1	9.318626E-1	9.149142E-1	9.575168E-1	9.218055E-1	9.431069E-1	9.115435E-1	8.949254E-1	9.500353E-1	8.851946E-1	8.593233E-1	9.203882E-1
5.550140E+2	9.426721E-1	9.548392E-1	9.171141E-1	9.860485E-1	9.435225E-1	9.469110E-1	9.369970E-1	9.542225E-1	9.347891E-1	9.179516E-1	9.015421E-1	9.251311E-1	9.444411E-1	9.061772E-1	9.457029E-1	9.616896E-1	9.724043E-1	9.142453E-1	9.554325E-1	9.733402E-1	9.931320E-1	9.854052E-1	9.761922E-1	9.254248E-1	9.069381E-1	9.687529E-1	9.018669E-1	9.412169E-1	9.590404E-1	9.028927E-1	1.000946E+0	9.625654E-1	9.650502E-1	9.634657E-1	9.446496E-1	1.001789E+0	9.485571E-1	9.701898E-1	9.595836E-1	9.438539E-1	9.326202E-1	8.832122E-1	9.503718E-1	9.796396E-1	9.351273E-1	9.980932E-1	9.650435E-1	9.313326E-1	9.859655E-1	8.897495E-1	9.994535E-1	9.217152E-1	9.457810E-1	9.582053E-1	9.449508E-1	9.279215E-1	9.773323E-1	9.849813E-1	9.194320E-1	9.569627E-1	9.926941E-1	9.108991E-1	9.259406E-1	9.449415E-1	9.773819E-1	9.118168E-1	9.102021E-1	9.418507E-1	9.134927E-1	9.927529E-1	8.899669E-1	9.702415E-1	9.429214E-1	9.271344E-1	9.318753E-1	9.542533E-1	9.350163E-1	9.374311E-1	9.766889E-1	9.336928E-1	9.489125E-1	1.011430E+0	9.548280E-1	9.308299E-1	9.697269E-1	9.630955E-1	8.993061E-1	9.327915E-1	9.702564E-1	9.470768E-1	9.313975E-1	9.451910E-1	9.401491E-1	9.735656E-1	9.297862E-1	9.520022E-1	9.778653E-1	9.052007E-1	9.933349E-1	9.044560E-1	9.225901E-1	9.178672E-1	9.701370E-1	9.316535E-1	9.176583E-1	9.795260E-1	9.184910E-1	9.006802E-1	9.107024E-1	9.636107E-1	9.021319E-1	1.003699E+0	8.812072E-1	9.483372E-1	9.476805E-1	9.224381E-1	9.537628E-1	8.819594E-1	9.288337E-1	9.117870E-1	9.441493E-1	9.629896E-1	9.788272E-1	8.979407E-1	9.492175E-1	9.362105E-1	9.159114E-1	9.796534E-1	9.273252E-1	9.498700E-1	9.642370E-1	9.354051E-1	9.554408E-1	9.371631E-1	9.408491E-1	9.554733E-1	9.625997E-1	9.427813E-1	9.906213E-1	9.527104E-1	9.496330E-1	9.031548E-1	9.471224E-1	9.189150E-1	9.787255E-1	9.502891E-1	9.633684E-1	9.210807E-1	9.511133E-1	9.050443E-1	9.598905E-1	9.817301E-1	9.111172E-1	9.311202E-1	9.418821E-1	9.855108E-1	9.813890E-1	9.585581E-1	9.420251E-1	9.085214E-1	9.404532E-1	9.073997E-1	8.993417E-1	8.958888E-1
5.560410E+2	1.031103E+0	1.015849E+0	1.029033E+0	9.752092E-1	1.003107E+0	1.046287E+0	1.033821E+0	1.008027E+0	1.053010E+0	1.041879E+0	1.003500E+0	1.024254E+0	1.008053E+0	1.050734E+0	9.778108E-1	9.998696E-1	1.038210E+0	9.883479E-1	9.977501E-1	1.012256E+0	1.013136E+0	1.047224E+0	1.019372E+0	1.040143E+0	1.011492E+0	1.035170E+0	1.037099E+0	1.053526E+0	1.006589E+0	1.058669E+0	1.005272E+0	1.046306E+0	1.025706E+0	1.040220E+0	1.015188E+0	1.000352E+0	1.042647E+0	1.019673E+0	1.012221E+0	9.692414E-1	1.026727E+0	1.041838E+0	1.028477E+0	1.016370E+0	1.093758E+0	9.896053E-1	9.958478E-1	9.803764E-1	1.060653E+0	9.849126E-1	1.025709E+0	1.073732E+0	9.749540E-1	9.812839E-1	1.019942E+0	1.033045E+0	1.047202E+0	1.057580E+0	1.051034E+0	1.053498E+0	9.968758E-1	1.007323E+0	9.946888E-1	9.899973E-1	1.001657E+0	1.052295E+0	1.051117E+0	1.011753E+0	1.000793E+0	1.019516E+0	1.037856E+0	1.005374E+0	9.995975E-1	1.018966E+0	1.040606E+0	1.069915E+0	1.043322E+0	9.591957E-1	1.086828E+0	1.038649E+0	1.043313E+0	1.011610E+0	9.872645E-1	1.036702E+0	1.043516E+0	1.016498E+0	1.061812E+0	1.060835E+0	9.923366E-1	1.064636E+0	1.064850E+0	1.026519E+0	1.015077E+0	1.029902E+0	9.950413E-1	1.027375E+0	9.957983E-1	9.914828E-1	1.038263E+0	1.052044E+0	1.022629E+0	1.014074E+0	9.905793E-1	1.043914E+0	1.039968E+0	1.013845E+0	1.022298E+0	1.044926E+0	1.048484E+0	9.690532E-1	1.019213E+0	1.055861E+0	9.839791E-1	1.010973E+0	1.027660E+0	1.027492E+0	1.014245E+0	1.049135E+0	1.077690E+0	1.022640E+0	9.779182E-1	9.841884E-1	1.000140E+0	1.071207E+0	9.787066E-1	9.888924E-1	9.950568E-1	1.044763E+0	1.048763E+0	1.055362E+0	1.020188E+0	1.039803E+0	1.039231E+0	1.104947E+0	1.034006E+0	1.015591E+0	1.022071E+0	1.027557E+0	9.728419E-1	1.016590E+0	1.008217E+0	1.048608E+0	1.032881E+0	1.033239E+0	1.010444E+0	1.000246E+0	1.024819E+0	1.013103E+0	1.050391E+0	1.095073E+0	1.042085E+0	1.033769E+0	1.025618E+0	1.065526E+0	1.072132E+0	9.864275E-1	9.827439E-1	9.861359E-1	1.005018E+0	9.849386E-1	9.957630E-1	9.784148E-1	1.103729E+0	9.673728E-1
5.570330E+2	1.061155E+0	1.026858E+0	1.077993E+0	1.082836E+0	1.123010E+0	1.031046E+0	1.012829E+0	1.039656E+0	1.075483E+0	1.023688E+0	1.060258E+0	1.117379E+0	1.076558E+0	1.085120E+0	1.081973E+0	1.038807E+0	1.088223E+0	1.026062E+0	1.084781E+0	1.083469E+0	1.078414E+0	1.046838E+0	1.051587E+0	1.095948E+0	1.078314E+0	1.005524E+0	1.078426E+0	1.034080E+0	1.029124E+0	1.071335E+0	1.074762E+0	1.052991E+0	1.010622E+0	1.076544E+0	1.032429E+0	1.066146E+0	1.092385E+0	1.070085E+0	1.071603E+0	1.036145E+0	1.053700E+0	1.029418E+0	1.055046E+0	1.080534E+0	1.044174E+0	1.121614E+0	1.083917E+0	1.063190E+0	1.053745E+0	1.028738E+0	1.042129E+0	1.096462E+0	1.046106E+0	1.035210E+0	1.062478E+0	1.045454E+0	1.042951E+0	1.058628E+0	9.950240E-1	1.039312E+0	1.096032E+0	1.086759E+0	9.745931E-1	1.145852E+0	1.033812E+0	1.058492E+0	1.085331E+0	9.967352E-1	1.126056E+0	1.084898E+0	1.060026E+0	1.072100E+0	1.111118E+0	9.906953E-1	1.026058E+0	1.072484E+0	1.072257E+0	1.036924E+0	1.085776E+0	1.081261E+0	1.064029E+0	1.079237E+0	9.878950E-1	1.024055E+0	1.019056E+0	1.089101E+0	1.084337E+0	1.095056E+0	1.060056E+0	1.078084E+0	1.076768E+0	1.085211E+0	1.037467E+0	1.021166E+0	1.093432E+0	1.075333E+0	1.048516E+0	1.064325E+0	1.042535E+0	1.051393E+0	1.085610E+0	1.117006E+0	1.026575E+0	1.009893E+0	1.069487E+0	1.056345E+0	1.079590E+0	1.067079E+0	1.067373E+0	1.071590E+0	1.091372E+0	1.036167E+0	1.109242E+0	1.101749E+0	1.114072E+0	1.062009E+0	1.048304E+0	1.053491E+0	1.046974E+0	1.153178E+0	1.085281E+0	1.059452E+0	1.028547E+0	1.096398E+0	1.114975E+0	1.009971E+0	1.118093E+0	1.023482E+0	1.064900E+0	1.035927E+0	1.036691E+0	1.027309E+0	1.082449E+0	1.089348E+0	1.068535E+0	9.910774E-1	9.978939E-1	1.057504E+0	1.061091E+0	1.050806E+0	1.076474E+0	1.041722E+0	1.044736E+0	1.103258E+0	1.007986E+0	1.075414E+0	1.053967E+0	1.113391E+0	1.071093E+0	1.033314E+0	1.030723E+0	1.046876E+0	1.040955E+0	1.064874E+0	1.101180E+0	1.041761E+0	1.094250E+0	1.054869E+0	1.049982E+0	1.093213E+0	1.070345E+0	1.052770E+0	1.019072E+0	1.115959E+0
5.580230E+2	1.020254E+0	1.097096E+0	1.026882E+0	1.033769E+0	1.024449E+0	1.032171E+0	1.057827E+0	1.079334E+0	1.062843E+0	1.034897E+0	1.050486E+0	1.028211E+0	1.021659E+0	1.012719E+0	1.055128E+0	1.023069E+0	1.072218E+0	1.068270E+0	1.066458E+0	1.041074E+0	1.074206E+0	1.064524E+0	1.065153E+0	1.030469E+0	1.072125E+0	1.030407E+0	1.079905E+0	1.025596E+0	1.062312E+0	1.046613E+0	1.033474E+0	1.074673E+0	1.010835E+0	1.009391E+0	1.011726E+0	1.046448E+0	1.009272E+0	1.048936E+0	1.045980E+0	1.067159E+0	1.045047E+0	1.013783E+0	1.056466E+0	1.040435E+0	1.036077E+0	1.010684E+0	1.077060E+0	1.069273E+0	1.044330E+0	1.010828E+0	1.071473E+0	1.030372E+0	1.034484E+0	1.081574E+0	1.059397E+0	1.036459E+0	1.069712E+0	1.040575E+0	1.054621E+0	1.047313E+0	1.039946E+0	1.088285E+0	1.055599E+0	9.978923E-1	1.068769E+0	1.057578E+0	1.021728E+0	1.009395E+0	1.082677E+0	1.089474E+0	1.072548E+0	1.070116E+0	1.072821E+0	1.087029E+0	1.097870E+0	1.082062E+0	1.068759E+0	1.103948E+0	1.016348E+0	1.004131E+0	1.034053E+0	1.101723E+0	1.066294E+0	1.017558E+0	1.054860E+0	9.953713E-1	1.090085E+0	1.015644E+0	1.026490E+0	1.072027E+0	1.028593E+0	1.086955E+0	1.051342E+0	1.038485E+0	1.060693E+0	1.032892E+0	1.025550E+0	1.040680E+0	1.043510E+0	1.026641E+0	1.047626E+0	1.040907E+0	1.016661E+0	1.069772E+0	1.032799E+0	1.092955E+0	1.003339E+0	1.061320E+0	1.026157E+0	1.037252E+0	1.076111E+0	1.049308E+0	1.056320E+0	9.745155E-1	9.892435E-1	1.053025E+0	1.066250E+0	1.054007E+0	1.013731E+0	1.041166E+0	1.039266E+0	1.057235E+0	1.075099E+0	1.038711E+0	1.043597E+0	1.146081E+0	1.048404E+0	1.011003E+0	1.023151E+0	1.048167E+0	1.086296E+0	1.080267E+0	1.044150E+0	9.791179E-1	1.062249E+0	1.055568E+0	1.075819E+0	1.111791E+0	1.092958E+0	1.056701E+0	1.033435E+0	1.070095E+0	1.089467E+0	1.045880E+0	1.034918E+0	1.042802E+0	1.066581E+0	1.089187E+0	1.064889E+0	1.040835E+0	1.061022E+0	1.090724E+0	1.040356E+0	1.051487E+0	1.063003E+0	1.094544E+0	1.050157E+0	1.014475E+0	1.067946E+0	1.042290E+0	1.033244E+0	1.108983E+0	1.086244E+0	1.165933E+0
5.590160E+2	1.097723E+0	1.016504E+0	1.061834E+0	1.077577E+0	1.081768E+0	1.010471E+0	1.058305E+0	1.051611E+0	1.010841E+0	1.089195E+0	1.070189E+0	1.062398E+0	1.044378E+0	1.087304E+0	1.034733E+0	1.046454E+0	9.793560E-1	1.086706E+0	1.021045E+0	9.580911E-1	9.551882E-1	9.424375E-1	1.054856E+0	1.095204E+0	1.045319E+0	1.029009E+0	9.936397E-1	1.019918E+0	1.069597E+0	1.021608E+0	1.043314E+0	1.007035E+0	1.123665E+0	9.427066E-1	1.100213E+0	1.006480E+0	9.966057E-1	9.557009E-1	1.119093E+0	1.104932E+0	1.037673E+0	1.132974E+0	9.889053E-1	9.889222E-1	9.525976E-1	1.044076E+0	9.741079E-1	1.019444E+0	1.023388E+0	1.157946E+0	9.773803E-1	1.066265E+0	1.174327E+0	1.094497E+0	1.007592E+0	1.041771E+0	9.497132E-1	1.028935E+0	1.069272E+0	1.082418E+0	1.058229E+0	1.027920E+0	1.141325E+0	1.055512E+0	9.994467E-1	9.806183E-1	1.053669E+0	1.140849E+0	1.030094E+0	9.432289E-1	9.641043E-1	9.779575E-1	9.803711E-1	1.102902E+0	1.068324E+0	9.264429E-1	1.009251E+0	1.102901E+0	9.324384E-1	1.024341E+0	1.059480E+0	9.834278E-1	1.110757E+0	1.137431E+0	1.048688E+0	1.047910E+0	9.244484E-1	1.012944E+0	1.065613E+0	9.609084E-1	9.779065E-1	1.012058E+0	1.073769E+0	1.011135E+0	1.025410E+0	9.907765E-1	1.059750E+0	1.094697E+0	9.958809E-1	1.079015E+0	1.058344E+0	9.641613E-1	1.121969E+0	1.035102E+0	1.096125E+0	9.777517E-1	1.002157E+0	9.755772E-1	1.095141E+0	1.071606E+0	1.034547E+0	9.593730E-1	1.038626E+0	1.091213E+0	1.052282E+0	1.057926E+0	1.045283E+0	1.088399E+0	9.793938E-1	9.750496E-1	1.042590E+0	1.051430E+0	1.009119E+0	1.039788E+0	1.009653E+0	1.110010E+0	9.647259E-1	9.856006E-1	1.073919E+0	1.032560E+0	1.004954E+0	9.883682E-1	1.061374E+0	1.015066E+0	1.034888E+0	1.142048E+0	1.041582E+0	1.060479E+0	1.047919E+0	1.031907E+0	1.069207E+0	1.047614E+0	1.043866E+0	9.733576E-1	1.094577E+0	1.059371E+0	1.033707E+0	9.922494E-1	1.004660E+0	9.920346E-1	1.055532E+0	9.663387E-1	1.111261E+0	9.571396E-1	9.535976E-1	9.867516E-1	9.740230E-1	1.071125E+0	1.081445E+0	1.080815E+0	1.109377E+0	1.100183E+0	1.117122E+0	9.548848E-1
