Photon Energy (eV)	#1	#2	#3	#4	#5	#6	#7	#8	#9	#10	#11	#12	#13	#14	#15	#16	#17	#18	#19	#20	#21	#22	#23	#24	#25	#26	#27	#28	#29	#30	#31	#32	#33	#34	#35	#36	#37	#38	#39	#40	#41	#42	#43	#44	#45	#46	#47	#48	#49	#50	#51	#52	#53	#54	#55	#56	#57	#58	#59	#60	#61	#62	#63	#64	#65	#66	#67	#68	#69	#70	#71	#72	#73	#74	#75	#76	#77	#78	#79	#80	#81	#82	#83	#84	#85	#86	#87	#88	#89	#90	#91	#92	#93	#94	#95	#96	#97	#98	#99	#100	#101	#102	#103	#104	#105	#106	#107	#108	#109	#110	#111	#112	#113	#114	#115	#116	#117	#118	#119	#120	#121	#122	#123	#124	#125	#126	#127	#128	#129	#130	#131	#132	#133	#134	#135	#136	#137	#138	#139	#140	#141	#142	#143	#144	#145	#146	#147	#148	#149	#150	#151	#152	#153	#154	#155	#156	#157	#158	#159	#160	#161	#162	#163	#164	
5.290120E+2	-2.754252E-2	-3.481860E-2	-5.120600E-2	-2.964681E-2	-1.953267E-2	-1.692440E-2	-3.126107E-2	-1.102613E-2	-3.826731E-2	-1.211730E-2	-3.087714E-2	-1.663473E-2	-3.218600E-2	-3.373582E-2	-2.288582E-2	-1.259024E-2	-3.284879E-2	-2.142610E-2	-1.602243E-2	-3.267066E-2	-2.492431E-2	-3.510371E-2	-2.026503E-2	-3.741841E-2	-1.225771E-2	-3.360809E-2	-2.001314E-2	-2.271664E-2	-2.280770E-2	-3.829812E-2	-1.078722E-2	-8.209377E-4	-2.492763E-2	-3.336187E-2	-6.383383E-3	-1.976917E-2	-2.468994E-2	-2.655266E-2	-3.579859E-2	-1.447537E-2	-2.097796E-2	-1.681171E-2	-3.581977E-2	-2.748984E-2	-2.295536E-2	-3.274242E-2	-2.111806E-2	-2.961131E-2	-2.415067E-2	-4.333714E-2	-1.167238E-2	-1.565433E-2	-4.937990E-3	-2.016829E-2	-8.109167E-3	-2.423043E-2	-2.110747E-2	-3.250830E-2	-1.779080E-2	-2.914299E-2	-4.810360E-2	-3.737855E-2	-2.074541E-2	-2.054160E-2	-1.836989E-2	-3.269859E-2	-1.988057E-2	-2.419927E-2	-2.291557E-2	-2.878578E-2	-2.395910E-2	-2.774383E-2	-3.005849E-2	-2.516614E-2	-1.338261E-3	-2.912191E-2	-1.979296E-2	-3.460275E-2	-2.342734E-2	-2.168772E-2	-2.690021E-2	-2.865048E-2	-1.936327E-2	-2.265128E-2	-1.585714E-2	-2.110660E-2	1.318501E-3	-1.262381E-2	-1.582711E-2	-3.297695E-2	-2.719192E-2	-1.125891E-2	-8.556223E-3	-1.765964E-2	-3.040368E-2	-1.377225E-2	-1.097407E-2	-2.683009E-2	-1.910624E-2	-2.632194E-2	-3.186818E-2	-1.643320E-2	-8.315383E-3	-2.613003E-2	-1.331552E-2	-2.917581E-2	-2.311542E-2	-1.735986E-2	-2.281308E-2	-4.525288E-2	-2.070114E-2	-3.825716E-2	-1.607345E-2	-2.296065E-2	-2.282573E-2	-1.046640E-2	-3.077094E-2	-3.202122E-2	-1.560447E-2	-2.902248E-2	-1.774403E-2	-2.079719E-2	-1.563320E-2	-2.080663E-2	-1.872079E-2	-2.998887E-2	-3.200338E-2	-2.003178E-2	-2.082992E-2	-7.105546E-3	-2.753826E-2	-1.702136E-2	-1.283914E-2	-7.905088E-3	-2.719579E-2	-3.208530E-2	-1.698973E-2	-3.490820E-2	-1.064429E-2	-2.764918E-2	-3.154499E-2	-1.572780E-2	-1.774449E-2	-3.686454E-2	-1.348108E-2	-1.945544E-2	-1.766176E-2	-2.666286E-2	-2.824843E-2	-2.357148E-2	-3.083829E-2	-2.825241E-2	-2.457973E-2	-2.340353E-2	-2.421807E-2	-1.690290E-2	-6.099528E-3	-2.154296E-2	-1.994671E-2	-2.007828E-2	-2.569552E-2	-2.519179E-2	-2.190772E-2	-2.954474E-2
5.295010E+2	-2.889136E-3	-1.125555E-2	9.621237E-4	-8.620725E-3	6.383851E-3	4.706788E-3	-1.542210E-2	1.144226E-2	1.263442E-2	-6.694185E-3	4.803106E-3	-6.931609E-4	-1.015904E-2	-1.277377E-2	-5.482150E-3	-8.789410E-3	-5.564493E-3	-3.347812E-3	-1.534418E-2	2.178066E-3	2.306566E-2	7.613290E-4	-6.467568E-3	8.242317E-4	-9.533804E-3	1.655621E-4	6.333189E-3	-2.839571E-3	-9.140189E-3	-5.872916E-3	-5.435429E-3	-6.074776E-3	2.297080E-3	-1.002675E-2	-9.143778E-3	3.769909E-3	8.340159E-3	-3.193594E-3	3.977567E-3	3.964589E-3	-2.853034E-3	-2.161503E-2	2.340077E-3	7.891395E-3	-6.456170E-3	-1.691092E-2	-1.207990E-2	-4.070526E-3	-5.652276E-3	-3.939699E-3	-2.875759E-3	2.041908E-3	-1.645962E-3	-2.222806E-2	2.846841E-2	1.945524E-3	4.367043E-3	-5.746820E-3	-6.404661E-3	1.195607E-2	-1.050545E-2	-5.120040E-4	7.965566E-3	1.646822E-3	1.221551E-2	-1.071632E-2	-2.290394E-3	-1.138785E-2	9.628891E-4	1.194001E-2	-4.025117E-3	-2.162106E-2	-8.990358E-3	1.382742E-3	4.779513E-3	-2.050804E-3	4.902928E-3	1.116305E-3	8.426514E-3	2.871893E-3	-1.278864E-2	-1.167241E-2	5.055396E-3	-2.121308E-2	-8.569531E-5	2.071919E-2	-2.738460E-3	4.330730E-3	-3.023143E-3	-1.906324E-4	7.117347E-3	-8.205598E-3	1.131632E-2	9.981501E-3	-4.839028E-3	-2.385390E-2	-1.304786E-2	-7.640391E-3	1.786019E-4	6.778591E-3	9.439465E-3	6.630970E-3	-3.976929E-3	9.180905E-3	-6.442953E-3	9.087520E-3	6.472277E-3	8.279332E-3	-4.057657E-3	-1.901391E-3	4.956621E-3	6.049520E-3	7.765654E-3	-1.329300E-2	1.050703E-2	-1.920361E-2	5.253545E-3	-5.494766E-3	-8.084238E-3	-1.130747E-3	-4.573179E-3	9.043233E-4	8.984820E-4	-5.535693E-3	1.089563E-3	-2.092275E-3	2.688616E-3	-9.027189E-3	-2.303214E-2	-1.349185E-3	5.125360E-3	1.736886E-3	-2.027213E-3	1.392804E-2	-2.782383E-3	9.733628E-3	-6.087264E-3	-8.514311E-4	-5.060366E-3	1.554691E-2	2.698563E-3	-2.166094E-3	3.548924E-3	-1.805610E-2	2.468434E-3	-2.407850E-2	1.711829E-2	1.126673E-3	5.921521E-3	1.522930E-2	3.321010E-3	1.725477E-2	-1.063901E-2	1.512795E-3	1.510877E-8	-8.083969E-3	-5.312506E-3	-1.665880E-2	3.627704E-4	1.916202E-3	1.992714E-3	-2.088084E-2	-1.938833E-4	-2.139420E-2
5.300010E+2	2.253484E-2	3.250440E-2	5.655117E-2	4.772929E-2	1.400632E-2	2.313340E-2	4.209821E-2	4.306454E-2	2.281503E-2	2.787823E-2	4.116953E-2	4.782486E-2	3.921190E-2	3.832138E-2	4.533676E-2	2.985232E-2	3.105361E-2	1.004333E-2	2.738218E-2	2.362348E-2	1.563058E-2	1.970885E-2	3.975405E-2	3.906674E-2	1.634374E-2	2.268120E-2	4.306567E-3	3.904397E-2	2.776224E-2	1.728790E-2	3.470306E-2	2.216498E-2	1.863195E-2	2.643426E-2	3.985326E-2	1.553951E-2	2.221264E-2	3.841454E-2	3.724501E-2	5.439728E-3	1.661460E-2	2.984944E-2	4.337943E-2	2.801011E-2	3.299843E-2	1.115402E-2	3.519678E-2	3.040927E-2	2.517833E-2	1.641559E-2	2.216055E-2	2.450237E-2	1.283866E-2	1.141448E-2	1.328525E-2	4.156326E-2	2.547467E-2	3.542463E-2	1.850246E-2	3.885737E-2	4.404906E-2	1.177685E-2	1.636881E-2	2.383519E-2	2.489724E-2	1.932608E-2	2.116318E-2	1.209963E-2	3.023308E-2	2.304713E-2	3.660960E-2	4.419887E-2	3.241969E-2	3.161908E-2	2.083848E-2	3.322357E-2	1.216637E-2	7.069365E-3	4.546561E-2	2.584714E-2	3.377971E-2	1.996850E-2	2.108030E-2	2.408944E-2	1.568570E-2	2.381755E-2	-3.549803E-3	2.202251E-2	1.973945E-2	2.573350E-2	1.076727E-2	1.469378E-2	3.781283E-2	-3.839093E-3	3.022119E-2	2.871469E-2	2.013338E-2	1.012794E-2	2.732013E-2	2.368092E-2	4.364714E-2	2.815744E-2	2.639218E-2	4.943525E-2	1.280006E-2	3.357617E-2	3.310131E-2	2.822087E-2	2.623938E-2	7.985875E-3	2.672676E-2	2.922552E-2	3.449460E-2	1.942814E-2	1.413022E-2	3.394761E-2	2.259867E-2	2.633708E-2	2.274873E-2	4.485287E-2	2.981724E-2	2.694585E-2	2.318032E-2	2.882389E-2	1.693787E-2	2.998898E-2	1.656553E-2	4.943453E-2	1.881113E-2	7.285423E-3	3.153443E-2	2.952686E-2	1.283916E-2	1.919798E-2	3.886384E-2	1.838597E-2	4.333747E-2	2.866441E-2	1.448309E-2	2.895257E-2	4.736404E-2	2.947786E-2	1.490540E-2	4.514040E-2	2.449359E-2	2.831639E-2	9.872459E-3	3.943077E-2	4.475076E-2	3.618169E-2	1.622582E-2	4.455925E-2	4.292273E-2	1.147926E-2	2.641954E-2	2.204733E-2	1.987263E-2	2.869488E-2	3.300266E-2	2.057814E-2	2.464675E-2	2.222802E-2	1.531602E-2	4.380754E-2
5.305030E+2	7.896838E-3	2.661358E-2	1.721112E-2	2.081582E-2	1.171955E-2	1.512174E-2	1.708934E-2	1.560313E-2	8.271644E-3	2.109941E-2	8.233983E-3	-4.158651E-3	3.465457E-2	1.080859E-2	2.097144E-2	2.035027E-2	1.525760E-2	2.611304E-2	2.544565E-4	1.826204E-2	2.036173E-2	1.438149E-3	3.880570E-3	2.390178E-2	9.533723E-3	7.450123E-3	2.727532E-2	2.129774E-3	2.024504E-2	2.853749E-2	6.606148E-3	-2.791107E-3	2.543798E-2	1.841284E-2	2.191070E-2	8.919117E-3	2.089144E-2	1.943557E-2	1.988803E-2	2.683007E-2	2.399876E-2	1.200837E-2	7.379970E-3	3.728936E-3	2.008594E-2	1.763054E-2	5.301244E-3	1.676188E-3	8.050262E-3	1.575881E-2	1.065734E-2	1.837678E-2	1.020525E-2	2.651920E-2	2.846853E-2	2.458412E-2	5.822582E-3	2.101446E-2	2.277209E-2	-7.472820E-4	1.013683E-2	3.089270E-2	2.617252E-2	8.580651E-3	-4.942173E-3	2.445525E-2	1.896451E-2	2.704614E-2	1.251703E-2	2.749001E-2	4.408554E-3	5.931430E-3	2.633536E-3	2.350681E-2	5.544187E-3	-5.332176E-3	2.306157E-2	1.748734E-2	1.287121E-2	2.743148E-2	1.684560E-2	1.302300E-2	2.031704E-2	2.624663E-2	3.557143E-2	2.769039E-2	1.186666E-2	4.330775E-3	-1.155916E-2	1.353392E-2	2.025705E-2	9.350554E-3	2.162061E-2	1.305265E-2	3.533378E-2	2.295378E-2	1.045565E-2	7.995720E-3	-5.357208E-4	3.257220E-3	5.566872E-3	-2.594720E-3	-3.615147E-4	2.118640E-2	1.211287E-2	3.730721E-3	-3.883373E-3	4.006154E-3	1.974740E-2	5.703981E-3	1.506421E-2	7.412817E-3	9.210698E-3	9.289856E-5	6.159372E-3	-1.001108E-3	1.659468E-2	7.389522E-3	1.071630E-2	1.620738E-2	1.518293E-2	1.681873E-2	1.239863E-2	3.798626E-2	2.010754E-2	1.255347E-2	1.725926E-2	2.665186E-3	2.541802E-2	1.232224E-2	1.971983E-2	9.379113E-3	1.283918E-2	2.446822E-2	9.424285E-3	1.550187E-2	1.907922E-3	-9.176381E-3	9.597275E-3	3.044193E-2	8.653977E-3	6.121591E-3	2.200306E-2	1.579912E-2	6.265884E-3	-5.586177E-3	1.902023E-3	3.267134E-2	1.679373E-2	2.376546E-2	1.167103E-2	2.028856E-2	4.769232E-3	2.215769E-2	3.669437E-3	2.425197E-2	1.042820E-2	1.753104E-2	1.341872E-2	-5.415279E-3	2.464672E-2	2.546122E-2	5.098862E-2	2.207359E-2
5.310050E+2	5.585498E-3	-1.546325E-2	-3.313962E-3	-1.198481E-2	-8.098891E-3	9.513707E-3	8.753094E-3	-1.102621E-2	-7.726217E-3	-1.271062E-3	1.372270E-3	-6.931083E-3	-1.015903E-2	6.878086E-3	-5.482129E-3	1.346163E-3	-7.000493E-3	2.008733E-3	1.449641E-2	-2.513136E-3	-8.026419E-3	1.361856E-2	2.500661E-3	-2.472741E-3	-2.723982E-3	1.605912E-2	-5.151056E-3	3.549527E-3	-2.562680E-4	-9.181637E-3	1.254335E-3	-1.640758E-4	1.616467E-3	8.932952E-3	-3.623081E-3	8.275633E-4	-1.081733E-2	-9.033374E-3	6.870529E-3	1.429096E-2	-1.090858E-2	-5.832666E-3	1.800176E-4	2.341393E-3	-2.869403E-3	1.115399E-2	1.129654E-3	1.125397E-2	-3.596874E-3	1.247587E-2	-4.905752E-3	5.444968E-3	-3.293132E-4	6.608382E-3	-2.536281E-2	-1.503346E-2	-1.455649E-3	-9.864002E-3	-2.134905E-3	-5.230846E-3	2.045783E-2	6.315113E-3	-9.541196E-3	-1.126765E-3	-1.986188E-2	9.067662E-3	-3.756265E-3	4.982231E-3	8.665636E-3	-8.793090E-3	5.941699E-3	9.758163E-3	2.633514E-3	-3.042096E-3	-2.275025E-2	1.025414E-2	-5.265964E-3	-3.720132E-4	-1.676026E-2	-5.050570E-3	1.190666E-2	1.225125E-2	-8.680130E-3	1.546042E-2	-4.885686E-3	-1.878290E-2	-5.172598E-3	-8.293244E-4	6.224118E-3	5.718715E-4	-1.332216E-2	-2.862304E-3	-2.106848E-2	-1.382051E-2	-1.917312E-3	-8.101381E-4	-2.479960E-2	3.731312E-3	-7.678243E-3	-8.715291E-3	4.034494E-4	-7.976400E-3	1.048460E-2	-7.768405E-3	-2.319500E-3	6.791611E-3	4.992926E-3	-3.115814E-3	1.902604E-2	1.178862E-2	1.846547E-3	1.959662E-3	-3.070176E-3	-2.881674E-3	2.536202E-3	-1.001153E-3	5.253610E-3	1.117901E-2	-6.580208E-3	-7.915204E-3	-5.304896E-3	-6.329539E-3	-8.445537E-3	-7.826312E-3	-8.419406E-3	-2.022505E-2	-1.118823E-2	-7.736996E-4	9.267892E-3	-1.349137E-3	-1.824289E-3	1.146338E-2	1.419060E-2	3.764876E-4	-2.782335E-3	-3.965570E-3	-1.262874E-2	5.960009E-3	1.238928E-2	-1.582495E-3	-5.490149E-3	8.381877E-3	-1.419525E-3	1.203724E-2	-5.886117E-3	-1.406187E-2	1.059710E-2	-5.632985E-3	-1.737615E-2	-2.619054E-3	1.622572E-2	1.327298E-3	1.284011E-2	-2.758568E-3	-6.604922E-3	-1.469790E-3	-1.554393E-2	-8.983484E-3	-9.066686E-3	7.914671E-3	-1.478802E-2	1.037309E-2	-1.260172E-2	2.479030E-2
5.315030E+2	-2.523124E-2	2.209024E-3	-1.272131E-2	-2.039531E-2	6.383860E-3	-2.253246E-2	-2.209116E-2	-2.080555E-4	-2.372396E-2	-2.974244E-2	-1.784011E-2	-1.732781E-2	-2.383093E-2	-1.080860E-2	-1.244366E-2	-1.385722E-2	-1.274460E-2	-2.142604E-2	2.542910E-4	-1.256572E-2	-2.289664E-2	-2.156974E-2	-1.198657E-2	2.142916E-3	-7.490883E-3	-5.132274E-3	-1.055544E-2	-1.348800E-2	-1.187371E-2	-1.050504E-2	-7.442370E-3	-1.658273E-2	-2.628886E-2	-9.297597E-3	-3.122706E-2	-1.682677E-2	-1.147787E-2	-2.144287E-2	-1.771850E-2	-3.291520E-2	-1.695028E-2	4.460207E-3	-2.717980E-2	-2.193982E-2	-1.291257E-2	-1.115401E-2	-1.972755E-2	-2.194909E-2	2.569324E-3	3.283137E-3	-1.302565E-2	-1.837674E-2	-1.283879E-2	-4.376923E-3	-2.881354E-2	-2.564539E-2	-1.237330E-2	-6.433034E-3	-1.850242E-2	-2.017591E-2	-3.041039E-2	-1.416633E-2	-1.234227E-2	-1.430110E-2	-1.762389E-2	-9.250890E-3	-1.181849E-2	-7.829144E-3	-2.291562E-2	-1.693826E-2	8.241923E-3	-2.391711E-2	-2.061417E-2	-2.369116E-2	-1.051486E-2	-1.517619E-2	-2.923543E-2	-9.301791E-3	-1.379716E-2	-2.881796E-2	-7.143920E-3	-7.813811E-3	-1.707401E-2	-1.761764E-2	-2.202856E-2	-2.962674E-2	-8.418197E-3	-8.938029E-3	-8.891405E-4	-1.715491E-3	-8.212336E-3	3.244022E-3	-2.254059E-2	-1.074924E-2	-2.309944E-2	-1.521252E-2	-6.135017E-3	-9.061853E-3	2.321344E-3	-2.843472E-2	-2.993192E-2	-2.412117E-2	-2.494604E-2	-1.624302E-2	-2.319475E-3	-1.080940E-2	-9.061274E-3	-2.092085E-2	-2.714136E-2	-1.254906E-2	-1.137104E-2	-4.175007E-3	-3.196620E-2	9.017030E-3	-1.123174E-2	-6.097811E-3	-2.076414E-2	-9.284339E-3	-1.316069E-3	-1.017671E-2	-1.828627E-4	-9.946526E-3	-8.445576E-3	-1.469819E-2	-1.634357E-2	-1.185608E-2	-7.718984E-3	-1.177832E-2	-7.616266E-3	-3.507750E-3	-2.406337E-2	-1.771609E-2	-1.554218E-2	-3.425548E-2	-1.714321E-2	-3.965588E-3	-4.633514E-3	-8.419534E-3	-5.060392E-3	-2.392540E-2	-2.512437E-3	-2.401550E-2	-3.626093E-8	-1.504652E-3	-2.088555E-3	4.430460E-3	-1.476336E-2	-2.891591E-2	-9.610266E-3	-1.115518E-2	-1.717460E-2	-2.446013E-2	-2.678090E-2	-1.699644E-2	1.467768E-3	-2.204729E-2	-2.577535E-2	-4.797071E-3	-1.632003E-2	-2.274426E-2	-8.075737E-3	-2.626953E-2	-6.397753E-3	-2.682795E-2
5.320070E+2	9.630446E-4	-2.219554E-2	-6.734808E-3	-1.534912E-2	-1.191015E-2	-1.051515E-2	-1.959021E-2	-2.933385E-2	8.998737E-3	-2.626833E-3	-1.509551E-2	-2.772585E-3	-5.601717E-3	-1.539400E-2	-3.541652E-2	-2.209236E-2	-4.128510E-3	-1.272173E-2	-1.737881E-2	-1.189548E-2	-1.343381E-2	7.613084E-4	-1.612578E-2	-2.225320E-2	-1.498163E-2	-1.639022E-2	-7.177728E-3	-5.679095E-3	-9.396228E-4	-1.116680E-2	-1.279411E-2	-1.526922E-2	-9.954003E-3	-5.651448E-3	-1.673494E-2	-5.792840E-3	-1.213856E-2	-1.003758E-3	-1.265602E-2	-1.198569E-3	2.517361E-3	-5.146426E-3	-4.139904E-3	-1.127335E-3	-1.649913E-2	1.799066E-3	-1.138462E-2	-1.516411E-3	-1.113325E-2	-7.879450E-3	-1.505564E-2	-2.177989E-2	-1.678914E-2	-2.222809E-2	-6.728921E-3	-1.432601E-2	-1.965177E-2	-1.947067E-2	-1.921403E-2	-1.195605E-2	-1.842750E-4	-3.925604E-3	-1.304250E-2	-1.820143E-3	-3.450169E-3	-1.364730E-2	-1.988066E-2	-2.491100E-2	-2.368587E-2	-3.026664E-2	-2.165908E-2	-4.783464E-3	-2.451897E-3	-1.631652E-2	-1.280899E-2	-1.517618E-2	-2.415105E-2	-1.376664E-2	-1.972344E-2	-1.138860E-2	-1.913885E-2	-9.357277E-3	-2.088942E-2	-9.707669E-3	-7.628622E-3	-1.723382E-2	-1.409792E-2	-2.810396E-2	-1.013643E-2	-2.077739E-2	-1.697215E-2	-1.583874E-2	-2.327658E-2	-1.151714E-2	-1.725609E-2	-2.313379E-2	1.468988E-3	-1.954494E-3	-2.124896E-2	3.961521E-3	-6.696297E-3	-5.669950E-3	-1.265374E-2	-2.189267E-2	-1.632217E-3	-1.616629E-2	-1.423905E-2	-1.735993E-2	-2.209181E-2	1.901450E-3	-1.137104E-2	-1.508135E-2	2.709009E-3	-2.147328E-2	-1.050710E-2	-1.119451E-2	-1.942989E-2	-6.252724E-3	-8.836232E-3	-1.545349E-2	-3.091491E-2	-2.730771E-2	-9.883017E-3	-1.622533E-2	-2.109804E-2	-3.137495E-8	-4.249788E-3	-1.521726E-2	-2.082986E-2	-3.013104E-2	-2.519297E-3	-1.493716E-2	-1.621786E-2	-3.049123E-2	-4.936480E-3	-1.261776E-2	-1.917033E-2	-3.121997E-3	-1.134220E-2	-2.988359E-2	-3.228935E-2	-2.100179E-2	-3.123029E-2	-2.031309E-2	-1.879756E-2	-1.926285E-4	-2.200930E-2	-1.915219E-2	-2.669519E-2	-3.055565E-2	-1.186091E-2	-2.370167E-2	-9.171492E-3	-1.770829E-2	-1.761317E-2	-5.879344E-3	4.131917E-3	-9.681413E-3	-1.196798E-2	-4.748819E-3	-2.233943E-2	-1.656994E-2	-3.276463E-2	-4.312844E-2
5.325120E+2	1.868268E-2	2.240594E-2	-7.483335E-4	1.745166E-2	1.048126E-3	-2.503622E-3	2.042389E-2	-1.851568E-2	1.699765E-2	3.474176E-3	8.233882E-3	6.931630E-4	8.070249E-3	1.670413E-2	1.540208E-2	5.780470E-3	1.597568E-2	2.075657E-2	6.358086E-3	1.558141E-2	1.022321E-2	2.038525E-2	8.709662E-3	-3.791313E-3	2.111053E-2	8.774579E-3	4.982290E-3	3.139514E-8	-2.989783E-3	2.919912E-2	-6.104405E-3	1.953787E-2	1.318703E-2	4.557611E-3	5.348286E-3	1.333268E-2	7.679456E-3	3.376146E-3	-1.808019E-3	-1.936203E-3	8.559141E-3	3.087815E-3	1.385998E-2	8.585152E-3	8.608264E-3	1.906974E-2	2.268245E-2	1.380791E-2	8.735150E-3	7.222876E-3	1.471729E-2	5.444948E-3	1.349728E-2	2.445931E-2	-1.207747E-3	1.114239E-2	1.892390E-2	1.758374E-2	2.277227E-2	1.643962E-2	1.455998E-2	6.997841E-3	5.164489E-3	3.726943E-3	2.713525E-2	1.346412E-2	1.749869E-2	2.419926E-2	1.713843E-2	2.230661E-2	-5.558486E-3	1.817701E-2	2.442819E-2	1.170728E-2	1.625019E-2	2.337955E-2	3.831453E-2	3.237019E-2	6.944865E-3	1.079435E-2	3.439657E-3	1.225122E-2	1.955409E-2	5.393172E-3	-7.714334E-4	1.452294E-2	2.079182E-2	1.981110E-2	1.547142E-2	1.582117E-2	2.755690E-2	1.087719E-2	4.692113E-3	3.455147E-2	1.196059E-2	2.511412E-2	2.289851E-2	2.363186E-2	1.874909E-2	2.579370E-2	9.439469E-3	2.200703E-2	1.337682E-2	-7.768431E-3	1.116733E-3	2.965483E-3	5.732604E-3	1.825009E-2	1.109109E-2	3.232340E-2	-5.150917E-3	1.286599E-2	-3.070132E-3	3.207053E-2	1.123174E-2	1.501699E-2	2.126447E-2	8.147439E-3	6.956185E-3	2.638381E-3	1.371970E-2	1.971206E-2	5.929899E-3	-1.718005E-3	2.644683E-2	2.161986E-2	1.864697E-2	4.728533E-3	1.881116E-2	2.383500E-2	-4.344053E-4	-2.431621E-3	6.757456E-3	1.468107E-2	6.552070E-3	9.012748E-3	1.426418E-2	2.185313E-2	-4.362395E-3	8.099255E-3	1.312035E-2	1.892985E-2	9.936956E-3	3.761621E-3	7.025399E-3	3.062777E-2	1.494454E-2	7.135166E-3	1.446403E-2	-7.275091E-3	1.243022E-2	-7.015678E-3	1.063907E-2	2.571708E-2	1.687940E-2	8.083995E-3	1.829857E-2	1.543781E-2	1.051725E-2	2.257762E-2	1.961252E-2	3.084976E-2	7.561072E-3	3.022391E-2
5.330080E+2	3.948405E-2	3.671207E-2	3.602604E-2	5.866290E-2	4.906973E-2	6.879891E-2	4.126455E-2	3.973604E-2	6.062776E-2	4.482546E-2	5.626482E-2	2.772475E-2	5.364317E-2	3.373566E-2	5.090587E-2	4.568930E-2	5.043996E-2	4.352162E-2	6.671744E-2	3.903712E-2	4.266704E-2	5.354353E-2	4.941199E-2	2.983564E-2	5.992632E-2	4.718374E-2	4.686618E-2	2.555632E-2	4.416289E-2	5.765370E-2	4.473759E-2	3.464308E-2	4.177285E-2	8.331324E-2	5.020481E-2	3.834300E-2	5.524246E-2	4.863417E-2	3.869132E-2	3.051809E-2	4.883658E-2	5.112127E-2	6.929933E-2	6.339102E-2	5.451894E-2	3.202266E-2	3.450176E-2	5.595030E-2	4.093597E-2	6.369263E-2	4.313667E-2	4.424025E-2	4.444194E-2	4.368398E-2	4.572197E-2	4.156296E-2	4.367046E-2	5.326566E-2	5.693074E-2	3.960467E-2	2.856751E-2	2.679640E-2	5.768473E-2	3.076912E-2	4.876863E-2	4.863546E-2	4.461697E-2	4.056941E-2	5.796326E-2	2.674947E-2	6.957733E-2	5.032151E-2	4.767583E-2	6.996744E-2	4.607386E-2	4.142687E-2	4.122039E-2	4.725314E-2	2.768705E-2	5.357526E-2	2.954613E-2	5.623964E-2	4.931442E-2	5.716729E-2	3.968591E-2	3.466133E-2	3.864236E-2	5.224528E-2	3.396613E-2	4.174558E-2	3.923664E-2	8.262890E-2	5.547743E-2	5.681773E-2	5.359463E-2	3.303525E-2	3.395919E-2	5.348252E-2	5.231894E-2	4.621722E-2	5.139269E-2	5.890954E-2	5.676103E-2	4.872863E-2	7.052924E-2	6.418680E-2	4.123793E-2	3.961607E-2	1.830473E-2	6.426683E-2	2.206177E-2	4.353981E-2	4.677525E-2	4.471266E-2	5.543377E-2	3.103514E-2	5.195194E-2	4.755814E-2	3.327707E-2	3.279172E-2	4.591507E-2	5.154089E-2	2.461786E-2	4.867616E-2	6.844500E-2	6.485953E-2	5.056353E-2	4.943442E-2	3.569532E-2	8.139900E-2	4.960338E-2	5.106409E-2	4.527492E-2	3.425552E-2	3.814579E-2	6.957820E-2	3.679596E-2	4.682795E-2	4.938195E-2	4.831629E-2	5.034149E-2	6.865615E-2	6.104105E-2	4.363545E-2	6.778521E-2	4.757920E-2	5.262289E-2	5.219900E-2	3.387869E-2	7.498274E-2	3.899836E-2	6.124459E-2	2.457977E-2	5.276891E-2	4.329907E-2	4.041996E-2	4.663180E-2	4.474289E-2	3.082684E-2	5.390293E-2	3.639319E-2	7.503659E-2	1.376507E-2	2.207329E-2
5.332150E+2	4.179528E-2	1.483207E-2	4.030182E-2	1.156428E-2	5.364317E-2	6.078771E-2	4.543265E-2	6.137221E-2	1.990612E-2	1.296470E-2	3.911081E-2	1.316928E-2	3.921197E-2	5.469803E-2	6.413250E-2	2.161725E-2	3.536188E-2	2.343464E-2	3.619862E-2	2.496372E-2	2.847288E-2	2.376903E-2	2.595651E-2	3.379186E-2	3.541102E-2	2.797932E-2	2.997745E-2	2.058701E-2	4.826373E-2	4.772758E-2	2.734416E-2	3.464311E-2	3.700882E-2	3.518490E-2	3.019193E-2	2.878026E-2	4.995775E-2	3.987444E-2	4.447676E-2	4.010684E-2	2.869772E-2	3.396651E-2	2.393990E-2	3.910994E-2	2.223817E-2	3.202278E-2	4.910187E-2	4.828800E-2	3.339963E-2	4.530699E-2	3.840002E-2	1.429305E-2	3.851626E-2	5.329575E-2	3.329918E-2	4.227091E-2	5.386031E-2	2.856286E-2	2.988862E-2	3.437382E-2	5.363270E-2	3.840257E-2	3.527615E-2	2.244846E-2	4.578487E-2	3.617919E-2	4.095221E-2	4.128112E-2	3.485491E-2	5.266564E-2	2.127555E-2	5.338279E-2	2.951369E-2	4.858070E-2	5.142695E-2	4.142689E-2	4.993674E-2	3.981196E-2	3.213161E-2	5.040674E-2	6.835304E-2	4.852250E-2	3.557879E-2	3.631400E-2	4.380012E-2	4.550507E-2	2.728304E-2	4.266282E-2	2.614141E-2	5.089507E-2	3.631648E-2	2.996003E-2	4.296501E-2	3.839055E-2	3.168165E-2	4.887784E-2	2.566376E-2	3.500355E-2	3.660530E-2	1.734254E-2	4.364737E-2	5.275944E-2	4.374575E-2	2.683610E-2	4.853720E-2	2.362759E-2	1.978682E-2	4.388940E-2	2.912503E-2	4.525310E-2	4.072181E-2	3.467852E-2	2.582581E-2	2.983945E-2	1.847796E-2	3.394748E-2	2.593428E-2	5.134800E-2	4.606129E-2	4.108384E-2	4.957378E-2	4.141388E-2	3.971172E-2	2.576960E-2	3.120129E-2	6.485923E-2	3.113601E-2	4.461998E-2	4.009979E-2	5.117787E-2	1.832987E-2	3.300061E-2	3.784181E-2	3.576107E-2	3.599197E-2	1.550189E-2	4.333764E-2	5.363943E-2	4.728838E-2	4.161351E-2	5.108583E-2	4.002595E-2	3.265002E-2	4.062634E-2	2.829139E-2	4.680853E-2	4.247885E-2	2.516071E-2	4.009110E-2	2.376542E-2	2.305755E-2	4.835150E-2	4.145548E-2	6.415909E-2	3.596029E-2	3.527559E-2	3.403921E-2	6.218677E-2	4.025616E-2	3.324141E-2	4.394461E-2	4.917115E-2	3.082587E-2	-5.093876E-3
5.334160E+2	9.437721E-3	-1.157122E-3	1.293514E-2	3.511360E-2	3.306253E-2	1.752525E-2	9.586739E-3	1.310668E-2	8.998715E-3	1.296463E-2	3.499417E-2	1.940725E-2	4.747429E-4	1.670417E-2	3.210992E-2	7.047388E-3	1.669369E-2	-1.339131E-2	3.348573E-2	2.161290E-2	1.292682E-2	5.498304E-3	3.216539E-2	6.758240E-3	2.860131E-2	1.937026E-2	2.389749E-2	1.845746E-2	8.627645E-3	3.391442E-3	4.206172E-2	1.034382E-2	1.250639E-2	6.016018E-3	2.191059E-2	1.553949E-2	-2.477004E-4	2.527519E-2	8.316795E-3	3.568112E-2	5.873839E-3	1.543935E-2	1.601991E-2	2.801013E-2	2.582492E-2	8.275543E-3	2.129196E-2	2.593983E-2	3.939491E-3	4.399374E-2	4.567414E-3	6.806255E-3	-2.962758E-3	3.132527E-2	3.813025E-2	9.020097E-3	-2.911383E-3	1.209414E-2	5.123751E-2	1.419793E-2	1.161123E-2	3.020990E-2	2.757308E-2	2.340179E-3	2.415131E-2	3.544655E-2	8.703566E-3	5.693972E-3	1.790891E-2	3.785629E-2	2.204248E-2	9.758209E-3	4.086521E-3	4.710593E-2	9.367742E-3	1.189490E-2	2.306160E-2	1.451099E-2	2.324199E-2	6.833108E-3	2.249034E-2	2.691418E-2	1.955416E-2	3.595843E-4	2.665715E-2	1.297383E-2	4.564101E-3	6.449152E-4	1.049210E-2	1.200909E-2	2.098717E-2	9.350614E-3	2.088443E-2	3.685478E-2	2.291686E-2	4.230603E-3	2.013369E-2	3.500349E-2	1.732056E-2	7.482824E-3	2.234830E-2	1.662537E-2	3.579217E-2	1.624294E-2	2.491294E-3	6.791835E-3	7.951754E-3	1.326473E-2	2.335424E-2	1.407029E-2	1.817415E-2	1.763747E-2	-5.237368E-3	5.140550E-2	9.057843E-3	1.428888E-2	2.259863E-2	-7.010548E-3	1.598035E-2	1.319204E-2	1.006108E-2	1.175486E-2	1.527384E-2	-1.088049E-2	2.327718E-2	1.952767E-2	2.836049E-2	3.705444E-2	1.367249E-2	3.534787E-2	2.527941E-2	2.118992E-2	1.013617E-2	1.995080E-2	1.445066E-2	1.622304E-2	-1.726229E-3	-4.635443E-3	7.503092E-3	4.375439E-3	1.460948E-2	1.601001E-3	1.561502E-2	1.128507E-2	9.303858E-3	2.292280E-2	2.291495E-2	-4.130873E-3	2.145337E-2	4.549403E-2	2.153937E-2	1.194563E-2	2.971574E-2	4.209060E-2	3.669410E-3	7.349107E-4	3.167808E-2	9.157946E-3	2.139757E-2	1.591268E-2	2.800288E-2	4.809350E-2	1.841808E-2	-1.596093E-2
5.336130E+2	-4.429902E-3	8.099817E-3	-5.024382E-3	-9.461768E-3	4.097051E-3	-7.310551E-3	2.917719E-3	2.288553E-3	-1.717941E-2	-6.694227E-3	1.646775E-2	2.772439E-3	-4.842145E-3	-4.257921E-3	4.263956E-3	-4.355146E-3	8.077676E-3	5.356550E-3	1.924379E-2	5.528830E-3	1.089900E-2	1.226498E-2	9.399547E-3	8.242076E-4	2.247246E-2	-1.175453E-2	6.333267E-3	1.277816E-2	1.067775E-2	-9.843361E-3	1.195796E-2	5.746420E-3	-5.189696E-3	3.099181E-3	1.569977E-2	2.298754E-3	9.661361E-3	2.454509E-2	-1.193289E-2	1.797889E-2	2.466999E-2	-7.204996E-3	-1.979976E-3	-4.596160E-3	1.434686E-3	-2.518600E-3	-9.558625E-4	3.991192E-4	-9.763014E-3	2.626551E-3	7.274058E-3	8.848066E-3	9.876243E-4	7.294919E-3	2.570799E-2	-1.998574E-2	7.278504E-4	1.758378E-2	2.134924E-3	-1.195607E-2	-6.819215E-3	3.584324E-3	1.216720E-2	8.580659E-3	-8.672104E-3	-5.587159E-3	6.504795E-3	1.209964E-2	-9.820924E-3	-2.869357E-3	2.874942E-3	-5.548771E-3	-1.725404E-3	1.686954E-2	2.236787E-2	-3.240321E-2	-5.992310E-3	2.492910E-2	2.398296E-2	-5.842852E-3	-7.143985E-3	-8.585469E-3	-2.861248E-4	-4.674078E-3	-1.457163E-3	-8.713765E-3	-5.983946E-3	1.022798E-2	3.378648E-3	-9.340303E-3	1.277435E-3	8.587312E-3	-3.404046E-3	1.228490E-2	1.269099E-2	-4.410783E-3	5.616691E-3	9.417148E-3	1.017807E-2	1.029984E-2	-2.420287E-4	8.937383E-3	2.205375E-2	1.129942E-2	-1.331549E-2	1.827079E-2	2.034157E-3	-1.166224E-2	-1.776355E-2	1.140886E-3	8.066613E-3	5.367892E-3	-4.514934E-3	6.042267E-3	2.137647E-2	-3.913496E-3	5.837069E-4	-7.010557E-3	2.444077E-3	-3.769220E-4	-1.646305E-3	-1.211668E-2	2.461800E-2	1.049868E-2	-1.396628E-2	4.882073E-3	1.725932E-2	-1.452949E-2	1.192834E-3	2.095681E-2	5.820347E-3	-1.632659E-2	-2.702919E-3	-4.140817E-3	7.270175E-3	1.261776E-2	-2.725065E-4	3.926006E-2	2.355685E-2	1.033356E-2	4.652832E-4	-4.426417E-3	1.916417E-2	-7.523479E-4	-1.424038E-2	5.971479E-3	1.856747E-2	5.632967E-3	-8.057059E-3	7.469150E-3	1.470749E-2	1.422096E-2	1.834271E-3	2.286950E-2	1.541148E-2	1.028872E-2	-1.396981E-2	1.404216E-2	2.067212E-2	-3.415803E-3	7.026906E-3	1.899476E-2	-4.846762E-3	-3.226152E-2
5.338050E+2	2.022353E-2	2.577204E-2	4.543313E-2	1.829268E-2	4.906976E-2	4.476434E-2	4.793361E-2	4.056809E-2	8.998750E-3	3.330128E-2	4.597267E-2	4.574579E-2	3.237565E-2	2.063457E-2	3.628649E-2	2.985246E-2	1.812964E-2	1.807823E-2	2.873856E-2	3.836712E-2	3.996319E-2	2.173882E-2	1.629837E-2	2.142936E-3	2.042950E-2	4.056124E-2	4.146173E-2	2.484633E-2	1.546141E-2	2.787581E-2	1.864756E-2	2.873259E-2	2.067372E-2	5.195688E-2	3.502262E-2	2.215987E-2	1.758841E-2	2.892498E-2	2.639685E-2	2.019168E-2	4.145256E-2	2.710450E-2	2.753986E-2	4.882250E-2	4.304126E-2	1.691089E-2	4.006358E-2	3.296366E-2	2.586337E-2	3.939744E-2	3.434029E-2	2.586337E-2	3.127402E-2	3.887789E-2	2.294739E-2	1.892449E-2	1.746809E-2	2.170063E-2	4.340973E-2	2.914305E-2	3.962554E-2	3.362359E-2	4.367910E-2	1.620796E-2	2.191332E-2	4.717026E-2	3.435574E-2	3.416371E-2	3.639550E-2	3.489452E-2	3.047624E-2	4.113751E-2	3.823154E-2	3.456855E-2	4.148571E-2	5.291167E-2	1.725077E-2	3.237027E-2	4.176196E-2	3.060058E-2	4.718529E-2	3.463117E-2	4.473577E-2	3.559464E-2	2.597142E-2	3.001413E-2	3.215136E-2	1.686240E-2	2.898668E-2	3.030822E-2	4.580639E-2	1.851031E-2	5.179748E-2	2.840887E-2	5.286380E-2	3.159521E-2	6.999272E-3	3.926787E-2	3.089115E-2	1.804682E-2	1.524845E-2	3.277044E-2	3.868446E-2	3.319185E-2	2.585785E-2	1.367922E-2	4.271731E-2	8.991512E-3	2.912514E-2	2.243613E-2	5.005170E-2	6.049599E-3	2.221361E-2	3.801980E-2	3.804289E-2	3.249133E-2	2.593413E-2	1.799997E-2	3.628507E-2	3.128398E-2	2.615883E-2	1.971217E-2	5.408727E-2	2.806028E-2	2.882394E-2	4.184508E-2	3.738053E-2	4.255689E-2	2.174753E-2	4.254335E-2	3.987376E-2	3.994805E-2	4.054461E-2	3.049116E-2	7.270189E-3	3.064326E-2	3.897663E-2	2.260998E-2	4.030858E-2	3.044207E-2	2.726452E-2	4.605315E-2	4.968465E-2	4.062627E-2	7.025190E-3	4.912021E-2	3.378378E-2	3.041817E-2	2.222988E-2	3.074957E-2	3.368492E-2	4.380077E-2	7.704130E-3	3.354772E-2	3.375839E-2	3.086612E-2	1.967184E-4	3.706789E-2	4.678419E-2	3.524092E-2	3.051998E-2	5.779294E-2	2.927484E-2	4.652412E-2
5.340070E+2	6.953038E-2	6.869033E-2	8.477317E-2	1.057615E-1	8.489556E-2	6.399191E-2	6.960798E-2	9.382696E-2	9.044135E-2	6.922948E-2	1.008649E-1	9.010530E-2	6.959389E-2	9.072651E-2	8.571298E-2	7.356182E-2	1.007005E-1	6.829561E-2	1.080873E-1	7.656667E-2	8.254586E-2	7.181442E-2	7.493736E-2	6.807840E-2	7.014122E-2	6.506400E-2	1.063145E-1	9.725548E-2	6.671449E-2	1.066221E-1	1.109655E-1	8.849603E-2	8.737399E-2	8.039652E-2	8.816023E-2	7.070941E-2	9.619961E-2	7.491316E-2	9.003860E-2	7.772411E-2	6.226267E-2	8.543067E-2	7.361955E-2	9.322275E-2	9.899532E-2	7.591952E-2	1.005495E-1	8.212984E-2	7.039632E-2	9.192726E-2	8.644306E-2	6.261732E-2	7.802043E-2	9.105810E-2	9.196171E-2	9.179245E-2	6.550577E-2	6.973432E-2	1.017634E-1	7.622000E-2	9.344280E-2	8.073049E-2	1.011016E-1	5.018393E-2	6.891022E-2	9.333272E-2	1.032515E-1	6.761520E-2	8.415243E-2	7.932243E-2	8.797820E-2	9.011923E-2	7.382960E-2	8.545359E-2	9.272167E-2	8.736569E-2	7.971647E-2	1.127377E-1	1.010250E-1	7.338192E-2	7.964217E-2	7.321827E-2	6.991742E-2	9.312158E-2	7.945719E-2	1.043715E-1	1.132901E-1	7.804587E-2	7.237790E-2	7.453179E-2	1.020152E-1	9.942174E-2	7.976626E-2	9.213690E-2	6.893325E-2	9.208479E-2	7.681815E-2	8.049013E-2	8.303170E-2	5.255571E-2	9.076401E-2	9.504344E-2	8.351488E-2	7.838986E-2	4.441379E-2	8.561410E-2	7.156477E-2	9.516732E-2	8.034193E-2	8.404128E-2	9.903442E-2	6.535245E-2	5.255464E-2	1.027182E-1	7.644815E-2	6.525546E-2	7.530103E-2	9.833755E-2	1.017110E-1	1.059132E-1	9.713499E-2	9.639096E-2	8.571322E-2	6.547350E-2	8.825499E-2	8.857166E-2	9.566298E-2	7.213128E-2	7.093178E-2	9.435058E-2	1.170155E-1	7.815962E-2	8.446805E-2	8.770916E-2	6.327732E-2	7.102012E-2	5.278653E-2	1.035893E-1	1.031266E-1	9.970514E-2	8.309588E-2	9.125905E-2	1.014980E-1	8.200456E-2	7.386119E-2	1.092205E-1	1.127633E-1	8.599699E-2	8.357993E-2	9.515886E-2	9.668966E-2	9.006610E-2	7.740790E-2	1.026015E-1	8.146081E-2	8.377985E-2	7.732574E-2	1.096339E-1	9.755785E-2	6.456706E-2	9.848184E-2	1.192232E-1	1.083752E-1	4.380750E-2
5.342040E+2	1.011176E-1	9.477828E-2	1.018774E-1	1.040795E-1	9.328023E-2	7.921418E-2	8.461337E-2	9.216233E-2	7.153554E-2	1.051581E-1	8.645587E-2	9.426378E-2	8.630377E-2	9.727710E-2	1.191284E-1	9.763342E-2	9.423862E-2	8.972153E-2	1.338587E-1	1.174470E-1	8.457368E-2	8.128874E-2	1.135706E-1	8.719990E-2	1.014665E-1	1.187048E-1	7.321239E-2	9.015637E-2	1.056673E-1	9.603422E-2	1.096281E-1	1.095122E-1	1.077934E-1	1.226916E-1	1.054130E-1	1.104313E-1	9.025464E-2	9.681200E-2	1.045027E-1	1.190298E-1	8.374412E-2	9.297868E-2	1.189790E-1	1.043226E-1	8.895194E-2	1.054233E-1	1.360075E-1	1.032008E-1	7.656250E-2	7.354204E-2	9.929891E-2	1.014124E-1	7.604545E-2	9.243067E-2	1.250886E-1	9.108553E-2	9.825833E-2	8.551609E-2	9.251236E-2	7.472554E-2	1.022892E-1	1.128182E-1	1.004007E-1	8.624013E-2	9.800381E-2	9.846214E-2	1.369659E-1	1.088970E-1	6.874671E-2	1.037580E-1	1.025455E-1	1.245597E-1	1.036155E-1	9.651608E-2	8.430939E-2	1.004911E-1	9.860183E-2	1.097614E-1	1.165810E-1	9.873356E-2	1.008096E-1	1.079457E-1	1.057826E-1	7.298709E-2	7.534282E-2	7.029072E-2	1.011193E-1	1.134297E-1	7.166664E-2	1.057933E-1	9.617501E-2	8.644506E-2	7.755798E-2	1.182427E-1	1.339399E-1	1.144081E-1	9.133548E-2	8.049008E-2	1.230297E-1	7.297935E-2	8.947293E-2	7.812993E-2	1.167764E-1	8.474561E-2	8.977212E-2	1.078072E-1	1.181656E-1	9.089402E-2	1.027047E-1	8.708273E-2	1.316898E-1	9.534455E-2	9.951075E-2	9.230671E-2	1.257224E-1	5.215001E-2	9.197893E-2	9.454778E-2	8.516666E-2	9.611342E-2	1.132325E-1	8.988035E-2	9.865089E-2	8.685320E-2	9.142463E-2	8.438672E-2	1.123152E-1	1.106477E-1	9.075231E-2	1.159372E-1	1.225754E-1	1.135913E-1	8.852275E-2	8.620355E-2	1.149762E-1	9.409273E-2	9.930392E-2	1.096441E-1	8.986519E-2	9.076765E-2	9.128536E-2	1.116014E-1	1.305997E-1	9.253732E-2	9.512706E-2	1.292533E-1	8.595354E-2	9.050327E-2	9.833563E-2	9.515870E-2	1.209810E-1	1.135784E-1	5.979868E-2	8.693982E-2	1.240259E-1	1.183200E-1	1.324182E-1	9.428287E-2	1.294726E-1	1.065561E-1	1.102285E-1	9.443547E-2	8.666137E-2	7.912532E-2
5.344070E+2	1.072809E-1	1.099258E-1	1.164164E-1	1.066023E-1	1.153853E-1	1.352950E-1	1.096217E-1	1.004838E-1	1.042582E-1	8.821064E-2	1.372313E-1	1.268400E-1	1.333961E-1	1.536131E-1	1.393165E-1	1.128371E-1	1.251126E-1	1.479740E-1	1.345372E-1	1.274994E-1	1.075548E-1	9.211527E-2	1.108111E-1	1.280801E-1	1.532213E-1	1.180421E-1	1.292832E-1	1.263612E-1	1.282185E-1	1.403711E-1	1.377247E-1	1.259301E-1	1.234476E-1	1.292544E-1	1.309461E-1	1.670721E-1	1.153576E-1	1.384207E-1	1.218593E-1	1.411575E-1	1.307350E-1	1.231714E-1	1.751393E-1	1.501102E-1	1.406015E-1	1.162179E-1	1.631222E-1	1.574751E-1	1.306873E-1	1.346078E-1	1.480186E-1	1.150250E-1	1.023814E-1	1.308796E-1	1.237086E-1	1.384847E-1	1.259166E-1	1.218845E-1	1.565592E-1	1.262865E-1	1.354645E-1	1.455885E-1	1.522209E-1	1.430981E-1	1.338112E-1	1.299702E-1	1.413638E-1	1.338079E-1	1.280579E-1	1.259725E-1	1.431802E-1	1.436934E-1	1.232307E-1	1.459268E-1	1.668991E-1	1.292026E-1	1.116762E-1	1.283649E-1	1.499168E-1	1.636977E-1	1.304437E-1	1.496190E-1	1.462260E-1	1.405812E-1	1.295144E-1	1.190878E-1	1.554823E-1	1.532360E-1	1.292842E-1	1.370549E-1	1.516542E-1	1.238476E-1	1.364395E-1	1.612394E-1	1.390532E-1	1.626561E-1	1.051605E-1	1.217124E-1	1.416003E-1	1.117137E-1	1.114178E-1	1.380969E-1	1.174995E-1	9.887025E-2	1.268835E-1	1.299998E-1	1.366586E-1	1.172460E-1	1.084750E-1	1.517302E-1	1.495722E-1	1.028426E-1	9.517632E-2	1.138736E-1	1.576063E-1	1.147659E-1	9.264595E-2	1.104638E-1	1.302880E-1	1.564196E-1	1.081105E-1	1.123053E-1	1.489650E-1	1.257935E-1	1.571955E-1	1.276269E-1	1.574149E-1	8.863822E-2	1.230524E-1	1.634270E-1	1.468998E-1	1.184551E-1	1.243372E-1	1.456801E-1	1.666751E-1	1.121181E-1	1.087527E-1	1.300779E-1	1.505896E-1	1.376877E-1	1.203178E-1	1.311906E-1	1.746063E-1	1.294022E-1	1.262664E-1	1.623859E-1	1.678320E-1	1.227991E-1	1.224100E-1	1.549116E-1	1.262946E-1	1.287473E-1	1.317038E-1	1.559935E-1	1.240261E-1	1.087664E-1	1.213997E-1	1.368459E-1	1.780698E-1	1.052235E-1	1.043550E-1	1.440110E-1	1.688635E-1	4.652439E-2
5.346150E+2	1.581283E-1	1.780903E-1	2.156210E-1	1.814556E-1	1.748408E-1	1.897733E-1	2.029886E-1	2.178193E-1	1.595226E-1	1.831155E-1	2.010445E-1	2.030825E-1	2.131493E-1	1.916068E-1	1.831743E-1	1.907546E-1	1.868611E-1	1.787743E-1	2.620379E-1	1.992073E-1	1.764982E-1	1.827933E-1	2.425772E-1	1.953340E-1	1.913560E-1	1.988346E-1	2.252105E-1	2.321360E-1	2.191082E-1	2.151476E-1	2.139883E-1	2.191881E-1	1.874254E-1	1.963428E-1	1.978861E-1	2.222426E-1	2.091617E-1	1.968178E-1	1.992425E-1	2.075410E-1	1.884666E-1	2.013973E-1	2.233787E-1	2.264224E-1	2.152064E-1	1.996929E-1	2.368182E-1	2.130262E-1	1.820717E-1	2.009269E-1	2.163608E-1	2.300496E-1	2.064083E-1	2.187619E-1	2.072160E-1	2.290393E-1	2.154413E-1	1.918765E-1	2.113551E-1	2.159575E-1	2.482598E-1	2.104458E-1	2.313513E-1	2.041162E-1	2.285514E-1	2.288897E-1	2.234516E-1	2.099644E-1	2.004634E-1	2.037216E-1	2.160160E-1	2.500772E-1	1.864357E-1	2.226233E-1	2.341937E-1	2.407683E-1	1.988382E-1	2.273361E-1	2.202910E-1	2.397537E-1	1.939464E-1	2.545745E-1	2.614518E-1	2.649835E-1	2.145430E-1	2.453403E-1	2.382439E-1	2.247398E-1	1.997059E-1	2.643875E-1	2.312229E-1	2.146824E-1	2.174021E-1	2.180575E-1	2.354684E-1	2.332274E-1	1.950278E-1	2.169510E-1	2.308811E-1	2.208754E-1	2.075872E-1	2.188216E-1	2.028221E-1	1.935026E-1	2.011067E-1	2.225972E-1	2.150659E-1	2.034221E-1	2.267788E-1	2.201803E-1	2.187709E-1	2.534853E-1	2.013689E-1	2.194731E-1	2.090544E-1	2.276208E-1	2.120607E-1	2.097486E-1	2.506117E-1	2.385875E-1	2.193310E-1	2.085154E-1	2.186858E-1	2.059659E-1	2.340598E-1	2.252650E-1	2.399819E-1	2.096887E-1	1.927911E-1	2.325033E-1	2.045823E-1	2.414256E-1	2.020474E-1	2.443061E-1	2.083219E-1	2.029666E-1	1.814364E-1	2.436006E-1	2.099180E-1	2.084400E-1	2.312363E-1	2.389305E-1	2.541014E-1	2.557949E-1	2.409506E-1	2.417486E-1	2.323199E-1	2.114249E-1	2.101646E-1	2.131131E-1	2.219407E-1	2.409983E-1	2.102116E-1	2.357259E-1	2.546561E-1	1.844614E-1	2.252884E-1	2.080163E-1	2.310196E-1	1.885354E-1	2.285332E-1	2.162180E-1	2.138422E-1	1.633446E-1
5.348180E+2	3.954181E-1	3.876329E-1	4.054788E-1	4.320870E-1	4.058024E-1	4.116931E-1	4.072271E-1	4.241961E-1	3.863996E-1	3.946177E-1	4.130669E-1	4.103242E-1	4.493693E-1	4.136732E-1	4.386602E-1	4.238720E-1	3.936470E-1	3.997306E-1	4.621061E-1	4.096402E-1	4.313177E-1	4.582093E-1	4.805847E-1	4.109440E-1	4.031418E-1	4.345880E-1	4.197687E-1	4.401356E-1	4.357382E-1	4.044047E-1	4.093287E-1	4.247491E-1	4.474219E-1	4.413608E-1	4.435625E-1	4.385083E-1	4.198934E-1	4.712863E-1	4.740590E-1	3.904645E-1	4.099943E-1	4.017651E-1	4.552166E-1	4.421789E-1	4.598248E-1	4.450813E-1	4.328773E-1	4.594957E-1	4.061079E-1	4.346853E-1	4.213877E-1	4.709890E-1	3.901021E-1	4.322888E-1	4.611885E-1	4.646225E-1	4.024968E-1	4.615487E-1	4.561567E-1	4.132328E-1	4.384621E-1	4.364245E-1	4.855488E-1	4.128260E-1	4.530930E-1	4.157396E-1	4.741134E-1	4.476873E-1	3.914910E-1	4.473356E-1	4.996926E-1	4.735584E-1	4.138262E-1	4.940119E-1	4.551956E-1	4.548765E-1	4.211004E-1	4.409063E-1	5.417920E-1	4.671278E-1	4.352543E-1	4.590832E-1	4.796935E-1	4.814289E-1	3.990002E-1	4.444008E-1	5.181739E-1	4.856922E-1	4.244864E-1	4.382316E-1	4.531376E-1	4.444393E-1	4.183352E-1	4.760405E-1	5.042623E-1	4.867081E-1	3.989550E-1	4.401200E-1	4.544420E-1	4.314503E-1	4.083164E-1	4.179415E-1	4.718055E-1	4.004239E-1	4.120931E-1	4.575343E-1	4.399325E-1	4.434336E-1	4.309252E-1	4.681204E-1	4.240312E-1	4.702479E-1	3.769124E-1	4.500087E-1	4.344132E-1	4.678931E-1	4.101952E-1	4.462139E-1	4.356096E-1	4.737825E-1	4.337231E-1	4.624224E-1	3.883146E-1	4.357926E-1	5.034808E-1	4.275149E-1	4.439703E-1	4.614178E-1	4.100827E-1	4.339770E-1	4.547721E-1	4.046920E-1	3.986892E-1	4.347817E-1	4.345048E-1	3.940358E-1	3.871314E-1	4.774571E-1	4.304801E-1	4.437843E-1	4.687084E-1	4.657123E-1	4.769730E-1	5.326554E-1	4.475344E-1	4.729033E-1	4.772291E-1	4.945761E-1	4.089710E-1	4.963590E-1	4.519471E-1	4.882539E-1	3.965781E-1	4.514290E-1	4.234494E-1	4.034642E-1	4.669082E-1	4.166424E-1	4.478947E-1	4.064804E-1	3.913060E-1	4.662503E-1	4.666522E-1	4.160016E-1
5.350100E+2	7.374848E-1	7.890462E-1	8.843995E-1	7.575704E-1	7.549117E-1	7.634000E-1	8.323780E-1	8.228042E-1	7.267155E-1	7.769474E-1	8.638725E-1	8.102522E-1	8.405378E-1	7.674084E-1	8.131873E-1	8.052222E-1	8.065003E-1	7.398700E-1	9.103939E-1	8.512804E-1	7.902280E-1	8.229495E-1	8.324197E-1	7.940299E-1	7.790435E-1	7.882193E-1	8.298264E-1	8.582641E-1	8.266304E-1	8.080641E-1	8.368021E-1	8.030333E-1	7.870506E-1	8.190975E-1	8.313984E-1	8.077775E-1	7.891683E-1	8.983186E-1	8.761596E-1	8.536748E-1	7.563829E-1	7.537814E-1	9.275346E-1	8.681416E-1	8.658480E-1	8.156834E-1	9.035592E-1	9.019901E-1	7.959433E-1	7.912312E-1	8.490348E-1	8.786816E-1	7.607813E-1	8.250132E-1	8.587112E-1	8.516024E-1	8.661322E-1	8.046448E-1	8.589408E-1	7.808833E-1	8.918530E-1	8.631192E-1	8.433868E-1	7.733878E-1	8.521953E-1	8.451256E-1	8.940816E-1	8.782916E-1	7.658447E-1	7.923940E-1	9.267412E-1	8.822538E-1	7.632681E-1	8.302979E-1	9.293182E-1	9.462560E-1	8.278551E-1	9.112058E-1	9.395946E-1	9.139541E-1	7.936884E-1	7.963298E-1	8.764968E-1	8.862745E-1	7.836862E-1	8.634350E-1	8.914133E-1	9.235608E-1	7.531209E-1	8.636913E-1	8.276196E-1	8.787648E-1	8.334491E-1	8.883534E-1	8.621665E-1	8.734111E-1	7.653333E-1	8.288893E-1	8.458511E-1	8.314728E-1	7.413600E-1	9.122829E-1	8.217729E-1	7.549432E-1	7.632783E-1	8.539431E-1	7.801919E-1	8.436893E-1	8.089206E-1	8.575236E-1	8.462167E-1	9.242212E-1	8.074637E-1	8.084538E-1	8.648408E-1	8.829082E-1	7.057297E-1	7.781734E-1	8.138774E-1	9.230662E-1	7.198229E-1	8.349656E-1	8.066379E-1	8.412335E-1	8.782928E-1	8.306212E-1	7.728502E-1	8.362612E-1	8.204410E-1	8.865719E-1	8.349217E-1	8.145946E-1	7.683226E-1	8.398256E-1	7.683938E-1	8.122265E-1	7.331055E-1	8.937068E-1	8.464773E-1	7.953117E-1	8.781411E-1	8.394123E-1	8.694816E-1	9.471936E-1	8.105741E-1	8.797340E-1	8.054667E-1	8.813744E-1	7.988186E-1	8.603098E-1	9.013319E-1	8.598960E-1	7.289552E-1	8.016805E-1	8.065347E-1	8.414696E-1	7.864436E-1	8.499446E-1	8.091117E-1	8.230417E-1	8.049516E-1	8.822514E-1	7.892572E-1	8.588327E-1
5.352080E+2	1.165068E+0	1.224963E+0	1.249576E+0	1.120902E+0	1.126127E+0	1.134335E+0	1.133317E+0	1.152342E+0	1.186287E+0	1.147077E+0	1.147256E+0	1.164434E+0	1.236263E+0	1.148656E+0	1.189803E+0	1.180872E+0	1.110217E+0	1.158349E+0	1.256953E+0	1.167599E+0	1.105881E+0	1.156562E+0	1.253933E+0	1.114477E+0	1.105915E+0	1.140525E+0	1.133147E+0	1.142933E+0	1.164902E+0	1.172021E+0	1.168614E+0	1.132061E+0	1.096052E+0	1.177874E+0	1.236487E+0	1.177047E+0	1.086438E+0	1.212936E+0	1.190754E+0	1.145025E+0	1.058467E+0	1.107856E+0	1.191773E+0	1.226116E+0	1.221656E+0	1.127276E+0	1.255354E+0	1.274248E+0	1.135080E+0	1.080146E+0	1.107517E+0	1.184280E+0	1.064962E+0	1.127796E+0	1.258995E+0	1.208869E+0	1.099042E+0	1.117548E+0	1.161385E+0	1.176929E+0	1.228026E+0	1.224275E+0	1.194921E+0	1.130482E+0	1.153573E+0	1.171929E+0	1.262745E+0	1.177224E+0	1.127873E+0	1.208537E+0	1.371423E+0	1.247324E+0	1.072753E+0	1.179858E+0	1.315499E+0	1.303922E+0	1.135100E+0	1.267652E+0	1.313691E+0	1.315624E+0	1.121783E+0	1.240075E+0	1.258802E+0	1.196921E+0	1.072372E+0	1.205788E+0	1.238687E+0	1.241274E+0	1.128704E+0	1.220530E+0	1.215971E+0	1.157373E+0	1.164658E+0	1.161693E+0	1.185742E+0	1.213305E+0	1.072953E+0	1.146587E+0	1.151550E+0	1.077261E+0	1.083439E+0	1.159070E+0	1.150048E+0	1.134887E+0	1.080788E+0	1.182242E+0	1.095300E+0	1.185545E+0	1.160226E+0	1.221067E+0	1.162662E+0	1.230278E+0	1.102203E+0	1.207057E+0	1.146719E+0	1.274625E+0	1.013939E+0	1.191987E+0	1.183873E+0	1.302997E+0	1.130315E+0	1.173509E+0	1.068988E+0	1.178719E+0	1.249935E+0	1.163985E+0	1.115607E+0	1.145765E+0	1.190424E+0	1.219722E+0	1.117774E+0	1.084853E+0	1.060920E+0	1.195180E+0	1.156136E+0	1.159757E+0	1.022386E+0	1.208542E+0	1.184998E+0	1.202695E+0	1.242165E+0	1.195031E+0	1.255602E+0	1.263928E+0	1.115892E+0	1.250351E+0	1.190221E+0	1.214847E+0	1.142072E+0	1.301086E+0	1.208007E+0	1.265667E+0	1.042990E+0	1.126304E+0	1.116967E+0	1.092808E+0	1.207507E+0	1.152767E+0	1.142041E+0	1.131630E+0	1.121269E+0	1.190481E+0	1.195616E+0	1.173975E+0
5.354110E+2	1.494808E+0	1.348669E+0	1.493312E+0	1.358077E+0	1.453131E+0	1.280946E+0	1.400078E+0	1.412810E+0	1.444433E+0	1.267063E+0	1.397018E+0	1.379299E+0	1.474763E+0	1.415922E+0	1.520473E+0	1.315168E+0	1.404600E+0	1.290253E+0	1.459055E+0	1.396127E+0	1.462088E+0	1.359572E+0	1.435370E+0	1.396680E+0	1.450492E+0	1.314030E+0	1.396611E+0	1.413403E+0	1.440303E+0	1.346720E+0	1.393389E+0	1.370459E+0	1.423429E+0	1.362367E+0	1.320680E+0	1.355062E+0	1.418061E+0	1.402727E+0	1.370831E+0	1.393595E+0	1.273281E+0	1.304793E+0	1.450251E+0	1.377354E+0	1.432559E+0	1.383459E+0	1.434032E+0	1.412808E+0	1.329656E+0	1.347391E+0	1.345701E+0	1.404120E+0	1.340173E+0	1.354367E+0	1.403235E+0	1.432426E+0	1.429482E+0	1.284293E+0	1.347832E+0	1.331611E+0	1.436659E+0	1.394953E+0	1.360186E+0	1.336418E+0	1.383337E+0	1.338994E+0	1.495816E+0	1.336655E+0	1.397469E+0	1.351448E+0	1.510194E+0	1.493765E+0	1.328477E+0	1.334727E+0	1.427913E+0	1.538539E+0	1.404576E+0	1.415736E+0	1.521111E+0	1.512892E+0	1.341924E+0	1.464647E+0	1.330531E+0	1.441410E+0	1.267115E+0	1.377740E+0	1.482105E+0	1.554565E+0	1.306536E+0	1.345575E+0	1.308680E+0	1.471858E+0	1.319958E+0	1.432729E+0	1.439197E+0	1.416378E+0	1.274116E+0	1.296551E+0	1.350827E+0	1.290653E+0	1.294495E+0	1.397399E+0	1.322139E+0	1.275424E+0	1.300021E+0	1.392692E+0	1.272087E+0	1.371429E+0	1.347781E+0	1.445430E+0	1.345375E+0	1.391146E+0	1.298696E+0	1.404870E+0	1.292369E+0	1.404226E+0	1.206737E+0	1.439063E+0	1.372632E+0	1.512562E+0	1.297877E+0	1.374609E+0	1.307619E+0	1.446723E+0	1.468641E+0	1.361354E+0	1.314739E+0	1.341784E+0	1.371011E+0	1.366510E+0	1.352675E+0	1.358584E+0	1.244047E+0	1.485788E+0	1.384474E+0	1.358037E+0	1.199734E+0	1.393963E+0	1.336461E+0	1.385161E+0	1.393283E+0	1.415031E+0	1.469247E+0	1.484362E+0	1.345261E+0	1.404454E+0	1.388033E+0	1.404866E+0	1.295836E+0	1.458617E+0	1.449400E+0	1.464382E+0	1.260905E+0	1.391839E+0	1.348873E+0	1.368399E+0	1.411349E+0	1.419307E+0	1.442331E+0	1.336245E+0	1.299144E+0	1.335973E+0	1.392591E+0	1.478250E+0
5.356150E+2	1.536411E+0	1.447128E+0	1.580544E+0	1.438817E+0	1.513349E+0	1.425955E+0	1.500947E+0	1.491866E+0	1.533147E+0	1.380271E+0	1.505430E+0	1.435442E+0	1.574264E+0	1.450641E+0	1.570596E+0	1.429826E+0	1.513737E+0	1.426844E+0	1.481437E+0	1.408190E+0	1.547928E+0	1.422505E+0	1.531952E+0	1.456682E+0	1.516546E+0	1.377603E+0	1.441872E+0	1.468064E+0	1.471737E+0	1.421495E+0	1.451589E+0	1.447298E+0	1.390759E+0	1.478314E+0	1.446278E+0	1.433771E+0	1.496669E+0	1.487405E+0	1.483650E+0	1.459241E+0	1.437078E+0	1.341162E+0	1.476891E+0	1.452973E+0	1.475600E+0	1.492120E+0	1.513986E+0	1.470273E+0	1.436535E+0	1.361837E+0	1.401864E+0	1.425219E+0	1.454735E+0	1.454608E+0	1.452235E+0	1.425350E+0	1.521191E+0	1.398887E+0	1.412590E+0	1.354029E+0	1.525126E+0	1.462541E+0	1.463825E+0	1.432799E+0	1.433318E+0	1.511188E+0	1.539059E+0	1.442704E+0	1.482969E+0	1.447709E+0	1.617531E+0	1.557289E+0	1.432365E+0	1.494757E+0	1.599973E+0	1.586117E+0	1.476484E+0	1.510243E+0	1.559632E+0	1.623807E+0	1.462578E+0	1.466963E+0	1.482386E+0	1.544238E+0	1.489286E+0	1.510963E+0	1.572168E+0	1.617959E+0	1.425327E+0	1.519419E+0	1.489715E+0	1.545137E+0	1.397239E+0	1.506439E+0	1.503473E+0	1.419258E+0	1.395090E+0	1.373310E+0	1.420823E+0	1.333614E+0	1.437784E+0	1.513488E+0	1.400232E+0	1.335452E+0	1.456027E+0	1.479167E+0	1.375644E+0	1.468288E+0	1.450214E+0	1.523007E+0	1.406798E+0	1.492030E+0	1.370213E+0	1.408589E+0	1.436570E+0	1.469754E+0	1.390862E+0	1.455736E+0	1.462122E+0	1.596237E+0	1.435440E+0	1.447670E+0	1.452810E+0	1.491010E+0	1.632671E+0	1.421332E+0	1.422978E+0	1.476589E+0	1.469380E+0	1.389535E+0	1.423562E+0	1.373868E+0	1.382575E+0	1.421793E+0	1.451252E+0	1.434465E+0	1.310940E+0	1.498404E+0	1.445345E+0	1.434316E+0	1.527279E+0	1.583045E+0	1.489120E+0	1.598717E+0	1.456906E+0	1.476111E+0	1.455419E+0	1.513021E+0	1.401452E+0	1.503626E+0	1.607291E+0	1.490170E+0	1.326206E+0	1.421738E+0	1.506658E+0	1.420577E+0	1.523895E+0	1.495361E+0	1.407514E+0	1.400895E+0	1.370463E+0	1.534274E+0	1.383285E+0	1.521720E+0
5.358130E+2	1.733639E+0	1.599447E+0	1.675473E+0	1.496009E+0	1.612441E+0	1.506070E+0	1.592646E+0	1.561767E+0	1.592047E+0	1.552456E+0	1.633054E+0	1.569211E+0	1.777065E+0	1.507631E+0	1.685462E+0	1.550188E+0	1.709754E+0	1.438228E+0	1.636743E+0	1.534852E+0	1.613490E+0	1.544985E+0	1.707180E+0	1.596466E+0	1.613246E+0	1.494155E+0	1.591845E+0	1.584488E+0	1.570147E+0	1.595534E+0	1.565317E+0	1.555005E+0	1.478559E+0	1.546131E+0	1.505626E+0	1.564707E+0	1.525075E+0	1.594709E+0	1.554524E+0	1.561030E+0	1.403515E+0	1.363806E+0	1.604328E+0	1.537610E+0	1.543031E+0	1.511550E+0	1.624527E+0	1.596058E+0	1.544785E+0	1.463613E+0	1.533811E+0	1.575637E+0	1.556787E+0	1.523953E+0	1.582671E+0	1.665886E+0	1.686411E+0	1.497012E+0	1.541397E+0	1.413062E+0	1.682156E+0	1.587479E+0	1.670404E+0	1.456375E+0	1.525075E+0	1.572006E+0	1.686376E+0	1.558007E+0	1.561537E+0	1.523236E+0	1.749401E+0	1.737145E+0	1.524629E+0	1.551543E+0	1.648914E+0	1.671433E+0	1.570909E+0	1.674697E+0	1.632230E+0	1.757696E+0	1.535958E+0	1.627483E+0	1.588454E+0	1.588822E+0	1.594888E+0	1.558985E+0	1.665479E+0	1.682091E+0	1.519224E+0	1.571267E+0	1.577316E+0	1.561929E+0	1.567260E+0	1.557114E+0	1.590392E+0	1.579844E+0	1.529200E+0	1.495556E+0	1.545103E+0	1.506863E+0	1.541698E+0	1.648029E+0	1.507246E+0	1.448447E+0	1.530250E+0	1.579417E+0	1.468845E+0	1.531674E+0	1.578617E+0	1.608188E+0	1.535086E+0	1.624265E+0	1.464847E+0	1.549141E+0	1.503959E+0	1.618287E+0	1.552307E+0	1.605800E+0	1.608767E+0	1.673884E+0	1.631538E+0	1.533753E+0	1.472936E+0	1.578816E+0	1.756288E+0	1.590804E+0	1.462526E+0	1.538491E+0	1.600046E+0	1.580215E+0	1.571591E+0	1.517681E+0	1.578541E+0	1.591942E+0	1.489307E+0	1.540452E+0	1.501372E+0	1.633874E+0	1.531897E+0	1.598163E+0	1.684353E+0	1.658388E+0	1.629658E+0	1.654393E+0	1.617161E+0	1.614804E+0	1.553963E+0	1.627933E+0	1.681024E+0	1.670469E+0	1.538213E+0	1.575874E+0	1.532384E+0	1.484385E+0	1.560965E+0	1.520524E+0	1.598663E+0	1.561649E+0	1.562736E+0	1.565517E+0	1.495480E+0	1.546129E+0	1.580261E+0	1.720042E+0
5.360120E+2	1.758292E+0	1.753448E+0	1.761850E+0	1.685243E+0	1.796905E+0	1.668705E+0	1.672674E+0	1.699907E+0	1.794926E+0	1.653460E+0	1.785384E+0	1.681496E+0	1.774025E+0	1.676639E+0	1.793362E+0	1.642674E+0	1.729143E+0	1.624364E+0	1.794087E+0	1.643419E+0	1.804776E+0	1.650551E+0	1.740296E+0	1.718445E+0	1.742633E+0	1.606071E+0	1.729658E+0	1.656896E+0	1.737573E+0	1.663030E+0	1.677032E+0	1.625935E+0	1.628978E+0	1.642390E+0	1.718176E+0	1.672841E+0	1.654552E+0	1.738514E+0	1.793179E+0	1.659868E+0	1.617655E+0	1.646516E+0	1.700088E+0	1.704800E+0	1.720934E+0	1.748303E+0	1.723950E+0	1.792724E+0	1.644129E+0	1.598222E+0	1.661022E+0	1.637571E+0	1.743775E+0	1.612524E+0	1.648927E+0	1.747954E+0	1.757738E+0	1.605430E+0	1.694398E+0	1.567746E+0	1.870880E+0	1.711046E+0	1.703316E+0	1.676871E+0	1.692920E+0	1.720022E+0	1.726688E+0	1.654092E+0	1.736388E+0	1.604689E+0	1.893541E+0	1.812913E+0	1.552236E+0	1.674699E+0	1.768974E+0	1.930661E+0	1.714726E+0	1.745393E+0	1.835947E+0	1.851184E+0	1.665080E+0	1.750189E+0	1.791436E+0	1.780820E+0	1.740946E+0	1.741006E+0	1.817208E+0	1.789713E+0	1.667894E+0	1.746636E+0	1.635711E+0	1.703906E+0	1.622461E+0	1.764424E+0	1.759117E+0	1.731066E+0	1.729671E+0	1.656891E+0	1.727949E+0	1.630110E+0	1.726936E+0	1.684934E+0	1.620046E+0	1.611580E+0	1.648458E+0	1.645230E+0	1.587936E+0	1.667702E+0	1.726496E+0	1.712387E+0	1.651712E+0	1.807630E+0	1.667118E+0	1.666640E+0	1.611927E+0	1.713669E+0	1.665716E+0	1.747527E+0	1.687728E+0	1.904553E+0	1.707639E+0	1.683496E+0	1.615252E+0	1.726944E+0	1.886243E+0	1.675190E+0	1.588804E+0	1.718001E+0	1.707961E+0	1.632021E+0	1.646650E+0	1.594104E+0	1.763694E+0	1.732730E+0	1.628608E+0	1.636347E+0	1.646012E+0	1.680042E+0	1.661719E+0	1.657744E+0	1.710406E+0	1.735991E+0	1.768067E+0	1.814638E+0	1.737920E+0	1.674134E+0	1.685838E+0	1.744348E+0	1.871285E+0	1.822569E+0	1.718120E+0	1.810993E+0	1.695270E+0	1.644562E+0	1.716546E+0	1.632229E+0	1.767088E+0	1.679566E+0	1.662107E+0	1.636167E+0	1.700205E+0	1.615103E+0	1.577159E+0	1.766227E+0
5.362050E+2	1.776782E+0	1.685283E+0	1.840530E+0	1.633939E+0	1.729829E+0	1.670307E+0	1.709354E+0	1.722375E+0	1.715667E+0	1.641260E+0	1.755880E+0	1.723084E+0	1.789975E+0	1.755244E+0	1.717482E+0	1.718056E+0	1.745652E+0	1.615661E+0	1.830707E+0	1.693010E+0	1.864932E+0	1.763561E+0	1.788583E+0	1.688116E+0	1.752168E+0	1.649118E+0	1.733031E+0	1.651929E+0	1.756022E+0	1.653768E+0	1.724527E+0	1.625276E+0	1.624212E+0	1.613218E+0	1.754064E+0	1.638267E+0	1.633414E+0	1.802749E+0	1.655050E+0	1.780096E+0	1.577377E+0	1.565548E+0	1.733209E+0	1.778344E+0	1.744609E+0	1.749740E+0	1.767749E+0	1.721850E+0	1.657148E+0	1.606102E+0	1.693505E+0	1.729457E+0	1.733899E+0	1.694224E+0	1.684813E+0	1.820116E+0	1.746823E+0	1.683653E+0	1.731402E+0	1.580447E+0	1.806009E+0	1.763619E+0	1.704019E+0	1.670632E+0	1.777962E+0	1.721487E+0	1.832964E+0	1.735232E+0	1.767202E+0	1.666886E+0	1.832204E+0	1.768527E+0	1.698988E+0	1.755822E+0	1.887505E+0	1.871594E+0	1.811329E+0	1.771439E+0	1.829278E+0	1.906639E+0	1.637564E+0	1.775655E+0	1.765492E+0	1.847696E+0	1.730659E+0	1.737133E+0	1.840738E+0	1.852374E+0	1.684252E+0	1.729097E+0	1.671481E+0	1.761155E+0	1.702688E+0	1.725264E+0	1.770806E+0	1.705143E+0	1.689573E+0	1.648364E+0	1.700092E+0	1.618138E+0	1.678528E+0	1.733367E+0	1.589676E+0	1.584040E+0	1.651895E+0	1.751603E+0	1.616785E+0	1.703314E+0	1.727220E+0	1.799848E+0	1.669595E+0	1.790586E+0	1.694571E+0	1.717209E+0	1.692361E+0	1.678718E+0	1.675056E+0	1.711149E+0	1.738867E+0	1.915110E+0	1.687879E+0	1.635751E+0	1.660532E+0	1.742978E+0	1.871981E+0	1.668913E+0	1.667903E+0	1.731757E+0	1.793850E+0	1.670158E+0	1.676531E+0	1.633010E+0	1.702880E+0	1.692826E+0	1.719801E+0	1.655094E+0	1.693257E+0	1.730745E+0	1.729424E+0	1.697960E+0	1.793040E+0	1.784208E+0	1.836912E+0	1.851502E+0	1.767540E+0	1.745023E+0	1.713371E+0	1.708297E+0	1.893033E+0	1.814810E+0	1.770498E+0	1.763969E+0	1.646112E+0	1.652393E+0	1.618208E+0	1.696903E+0	1.789912E+0	1.655842E+0	1.648325E+0	1.579516E+0	1.710273E+0	1.678688E+0	1.693482E+0	1.749928E+0
5.364090E+2	1.515609E+0	1.643207E+0	1.518969E+0	1.362283E+0	1.475236E+0	1.557344E+0	1.364231E+0	1.443600E+0	1.409529E+0	1.448061E+0	1.473181E+0	1.391082E+0	1.537045E+0	1.480119E+0	1.488451E+0	1.391184E+0	1.463476E+0	1.356540E+0	1.494322E+0	1.403498E+0	1.495207E+0	1.489497E+0	1.458825E+0	1.405913E+0	1.410315E+0	1.397470E+0	1.466192E+0	1.411273E+0	1.484722E+0	1.396350E+0	1.477678E+0	1.367175E+0	1.305001E+0	1.409766E+0	1.402802E+0	1.332994E+0	1.448444E+0	1.434846E+0	1.478588E+0	1.481369E+0	1.355851E+0	1.306852E+0	1.447371E+0	1.421754E+0	1.438297E+0	1.387057E+0	1.445156E+0	1.461972E+0	1.415296E+0	1.290266E+0	1.428253E+0	1.388465E+0	1.393504E+0	1.412727E+0	1.450855E+0	1.439500E+0	1.433849E+0	1.411924E+0	1.394800E+0	1.339084E+0	1.523652E+0	1.449570E+0	1.451220E+0	1.335032E+0	1.443762E+0	1.402743E+0	1.536860E+0	1.416370E+0	1.472956E+0	1.406983E+0	1.534729E+0	1.524379E+0	1.415656E+0	1.443134E+0	1.539560E+0	1.551663E+0	1.436535E+0	1.446990E+0	1.563336E+0	1.590532E+0	1.375791E+0	1.427605E+0	1.474755E+0	1.483836E+0	1.507115E+0	1.486177E+0	1.494275E+0	1.624592E+0	1.389050E+0	1.427922E+0	1.491906E+0	1.443616E+0	1.398712E+0	1.456531E+0	1.450153E+0	1.484069E+0	1.408915E+0	1.308633E+0	1.425109E+0	1.304034E+0	1.415837E+0	1.495037E+0	1.395893E+0	1.283193E+0	1.429225E+0	1.470748E+0	1.286141E+0	1.364308E+0	1.455264E+0	1.507796E+0	1.421570E+0	1.488621E+0	1.422226E+0	1.403383E+0	1.344542E+0	1.444271E+0	1.381523E+0	1.456494E+0	1.493707E+0	1.551007E+0	1.391538E+0	1.462862E+0	1.342119E+0	1.387931E+0	1.535996E+0	1.442952E+0	1.404938E+0	1.357603E+0	1.475986E+0	1.403926E+0	1.355455E+0	1.444038E+0	1.396766E+0	1.463202E+0	1.408887E+0	1.394087E+0	1.459943E+0	1.447696E+0	1.390903E+0	1.464106E+0	1.527279E+0	1.506950E+0	1.497637E+0	1.567119E+0	1.463742E+0	1.580130E+0	1.393104E+0	1.495746E+0	1.552887E+0	1.510610E+0	1.524550E+0	1.459073E+0	1.467815E+0	1.399670E+0	1.402446E+0	1.447034E+0	1.492413E+0	1.392792E+0	1.369797E+0	1.405560E+0	1.377176E+0	1.367227E+0	1.404999E+0	1.576055E+0
5.366080E+2	1.204360E+0	1.187936E+0	1.182014E+0	1.229397E+0	1.165002E+0	1.196824E+0	1.131650E+0	1.085768E+0	1.208829E+0	1.201308E+0	1.160979E+0	1.149878E+0	1.259050E+0	1.172238E+0	1.221826E+0	1.110556E+0	1.232278E+0	1.175088E+0	1.244066E+0	1.110635E+0	1.250526E+0	1.226261E+0	1.164939E+0	1.040629E+0	1.191719E+0	1.147148E+0	1.112881E+0	1.160680E+0	1.101348E+0	1.167388E+0	1.163261E+0	1.164899E+0	1.128721E+0	1.220169E+0	1.201292E+0	1.096132E+0	1.140607E+0	1.278633E+0	1.143746E+0	1.124373E+0	1.067193E+0	1.149714E+0	1.167293E+0	1.181717E+0	1.177180E+0	1.146705E+0	1.169144E+0	1.175277E+0	1.084381E+0	1.154345E+0	1.119697E+0	1.148207E+0	1.164381E+0	1.197140E+0	1.154782E+0	1.213114E+0	1.213313E+0	1.120293E+0	1.183445E+0	1.098468E+0	1.230237E+0	1.201745E+0	1.150804E+0	1.095813E+0	1.128956E+0	1.180722E+0	1.237825E+0	1.091814E+0	1.189495E+0	1.130788E+0	1.218084E+0	1.233547E+0	1.148308E+0	1.159946E+0	1.217615E+0	1.324431E+0	1.159796E+0	1.255001E+0	1.293691E+0	1.345729E+0	1.127428E+0	1.176792E+0	1.184020E+0	1.145146E+0	1.128601E+0	1.211210E+0	1.267087E+0	1.242011E+0	1.105229E+0	1.186981E+0	1.159033E+0	1.108521E+0	1.119025E+0	1.200851E+0	1.122195E+0	1.149215E+0	1.141389E+0	1.143033E+0	1.142980E+0	1.034302E+0	1.120875E+0	1.221342E+0	1.080633E+0	1.026130E+0	1.166694E+0	1.147806E+0	1.098999E+0	1.134267E+0	1.107566E+0	1.195969E+0	1.164216E+0	1.178473E+0	1.168664E+0	1.107406E+0	1.172081E+0	1.139199E+0	1.126016E+0	1.132871E+0	1.098143E+0	1.283397E+0	1.154462E+0	1.132276E+0	1.117864E+0	1.170321E+0	1.301442E+0	1.127023E+0	1.132952E+0	1.136824E+0	1.138303E+0	1.108912E+0	1.077466E+0	1.102221E+0	1.160930E+0	1.177111E+0	1.129569E+0	1.164083E+0	1.143041E+0	1.251681E+0	1.087281E+0	1.166946E+0	1.189310E+0	1.164140E+0	1.193142E+0	1.248128E+0	1.219943E+0	1.179464E+0	1.177178E+0	1.220856E+0	1.279527E+0	1.185460E+0	1.223948E+0	1.220919E+0	1.140574E+0	1.097116E+0	1.089813E+0	1.100157E+0	1.179961E+0	1.156255E+0	1.146393E+0	1.128964E+0	1.141405E+0	1.167848E+0	1.159944E+0	1.165825E+0
5.368180E+2	9.940346E-1	1.034776E+0	9.836044E-1	9.922218E-1	9.309908E-1	9.885250E-1	9.674242E-1	9.909010E-1	9.252327E-1	9.959066E-1	9.290579E-1	8.899598E-1	9.476340E-1	9.966811E-1	9.468477E-1	9.040443E-1	9.910280E-1	9.815831E-1	9.524423E-1	9.256691E-1	9.801596E-1	1.051674E+0	9.014067E-1	9.272193E-1	8.995777E-1	9.829148E-1	9.257538E-1	9.491308E-1	9.202534E-1	9.569556E-1	9.478520E-1	9.468596E-1	8.864213E-1	9.773390E-1	9.597571E-1	8.872230E-1	9.840449E-1	1.042853E+0	9.962115E-1	9.554634E-1	9.127957E-1	9.479733E-1	9.354538E-1	9.236411E-1	9.877981E-1	9.783158E-1	9.821225E-1	9.811669E-1	9.172101E-1	9.317484E-1	9.065506E-1	9.494655E-1	9.141886E-1	9.870462E-1	9.360077E-1	1.000877E+0	9.854990E-1	1.025598E+0	9.884585E-1	9.049279E-1	9.980132E-1	1.030384E+0	1.014253E+0	8.968106E-1	9.424600E-1	1.036372E+0	9.959579E-1	9.523136E-1	9.738179E-1	1.001947E+0	1.025644E+0	1.000882E+0	9.528825E-1	1.013927E+0	9.912609E-1	1.020907E+0	9.680408E-1	1.059291E+0	1.035156E+0	1.096172E+0	8.981140E-1	1.007783E+0	1.013852E+0	9.840710E-1	9.455153E-1	1.069467E+0	9.676837E-1	1.050351E+0	8.960981E-1	1.054310E+0	9.531766E-1	9.367758E-1	9.571008E-1	9.743482E-1	9.615037E-1	9.547839E-1	9.533619E-1	9.447392E-1	9.279896E-1	8.983775E-1	9.130447E-1	1.049898E+0	8.716652E-1	9.258473E-1	9.584575E-1	1.013119E+0	8.992816E-1	9.647637E-1	9.214542E-1	9.967045E-1	9.550671E-1	1.014198E+0	9.114886E-1	9.147976E-1	9.380271E-1	9.972193E-1	8.958591E-1	9.812911E-1	9.477377E-1	1.026340E+0	9.627529E-1	9.470899E-1	9.259531E-1	1.009977E+0	1.050247E+0	9.324436E-1	8.790076E-1	9.194834E-1	9.745999E-1	9.700393E-1	8.905189E-1	9.486812E-1	9.230678E-1	1.020514E+0	9.471861E-1	9.074005E-1	9.373468E-1	9.799840E-1	9.295373E-1	9.137274E-1	9.912942E-1	1.011194E+0	1.003630E+0	1.042740E+0	9.412072E-1	9.714249E-1	9.185011E-1	9.992913E-1	9.727750E-1	1.003873E+0	9.597829E-1	9.516685E-1	9.534745E-1	9.518895E-1	9.687228E-1	9.267194E-1	9.981564E-1	9.476290E-1	9.788414E-1	9.423452E-1	9.391971E-1	9.609254E-1	9.939874E-1	1.016405E+0
5.370170E+2	9.393353E-1	1.033093E+0	9.733426E-1	1.005679E+0	9.081233E-1	9.700979E-1	9.532533E-1	8.694061E-1	9.681358E-1	9.884500E-1	9.173935E-1	8.539180E-1	9.742183E-1	8.787688E-1	9.531127E-1	9.021439E-1	9.299975E-1	9.092705E-1	9.775354E-1	8.981921E-1	9.382542E-1	9.643794E-1	9.690146E-1	9.061204E-1	9.567805E-1	9.378828E-1	8.825193E-1	9.015681E-1	9.393878E-1	9.463679E-1	9.338030E-1	8.923503E-1	8.850597E-1	9.890055E-1	8.990283E-1	9.291512E-1	8.684401E-1	9.881052E-1	9.506503E-1	9.340733E-1	8.718467E-1	9.184676E-1	9.340142E-1	9.375161E-1	9.246707E-1	9.322605E-1	9.793414E-1	9.913831E-1	8.966574E-1	9.166468E-1	9.478270E-1	9.276850E-1	9.122133E-1	1.057078E+0	9.608524E-1	9.683336E-1	9.367333E-1	9.885443E-1	9.293927E-1	9.460265E-1	9.692613E-1	9.696220E-1	8.840020E-1	8.857162E-1	8.663693E-1	9.587013E-1	9.365918E-1	9.167258E-1	9.884532E-1	9.464113E-1	1.037145E+0	9.488383E-1	8.874979E-1	1.005078E+0	9.690839E-1	1.043876E+0	9.564188E-1	1.021339E+0	9.699660E-1	1.001102E+0	8.635409E-1	1.013957E+0	9.558583E-1	9.042518E-1	9.503150E-1	1.059398E+0	9.125088E-1	1.017179E+0	9.217063E-1	1.018474E+0	9.312771E-1	9.161661E-1	8.584743E-1	9.328864E-1	9.673467E-1	9.562240E-1	9.499050E-1	9.852507E-1	8.822781E-1	8.378111E-1	9.640340E-1	1.055280E+0	8.528648E-1	8.792373E-1	9.165358E-1	1.014649E+0	8.519417E-1	9.020899E-1	9.618499E-1	9.776905E-1	8.951999E-1	9.283113E-1	9.353282E-1	9.891634E-1	8.844053E-1	1.003044E+0	9.078674E-1	1.010849E+0	9.439773E-1	1.009757E+0	8.668976E-1	1.002066E+0	8.799520E-1	9.229327E-1	9.971548E-1	9.073371E-1	8.519479E-1	8.527681E-1	8.857756E-1	9.527700E-1	9.273526E-1	9.278391E-1	9.433406E-1	1.051381E+0	9.069757E-1	9.304730E-1	9.395276E-1	1.063991E+0	8.869603E-1	9.070247E-1	9.488616E-1	9.200297E-1	9.326522E-1	1.045750E+0	9.639922E-1	9.490803E-1	9.177768E-1	9.444642E-1	9.743288E-1	9.930083E-1	9.483956E-1	9.554603E-1	9.219247E-1	9.091758E-1	9.063427E-1	8.855646E-1	9.832020E-1	9.204170E-1	9.324189E-1	9.403451E-1	8.703975E-1	9.781688E-1	9.071328E-1	8.995833E-1
5.372010E+2	9.978867E-1	1.087792E+0	1.020379E+0	1.169683E+0	9.668170E-1	1.092675E+0	9.974354E-1	9.717620E-1	9.514107E-1	1.011498E+0	9.510151E-1	9.357051E-1	1.038780E+0	1.009127E+0	1.062408E+0	9.502875E-1	9.436401E-1	1.002340E+0	1.035860E+0	9.833034E-1	1.045048E+0	1.115960E+0	1.033863E+0	9.555717E-1	1.033731E+0	1.058409E+0	1.015602E+0	9.768171E-1	1.023443E+0	9.708523E-1	1.031474E+0	9.468595E-1	9.687763E-1	1.046614E+0	9.990929E-1	9.438635E-1	9.998992E-1	1.095410E+0	1.044667E+0	1.035123E+0	9.732120E-1	9.980658E-1	1.027613E+0	1.029092E+0	9.849279E-1	1.007100E+0	1.028009E+0	1.081415E+0	9.884634E-1	1.017767E+0	9.897792E-1	9.964277E-1	9.701523E-1	1.097586E+0	9.511902E-1	1.036249E+0	1.048093E+0	1.086669E+0	9.813412E-1	9.333238E-1	1.118180E+0	1.087732E+0	1.044364E+0	9.924977E-1	9.797587E-1	1.023916E+0	1.019412E+0	9.736652E-1	1.020035E+0	1.045634E+0	1.070113E+0	1.079713E+0	9.594208E-1	1.098000E+0	1.026437E+0	1.142316E+0	1.038496E+0	1.096498E+0	1.078121E+0	1.094587E+0	1.018769E+0	1.021674E+0	1.007748E+0	1.017868E+0	1.001744E+0	1.093478E+0	1.089392E+0	1.036345E+0	9.700763E-1	1.150382E+0	1.016686E+0	1.044403E+0	9.460605E-1	1.078769E+0	9.870681E-1	1.010953E+0	1.010046E+0	1.062720E+0	9.587026E-1	9.342955E-1	1.021477E+0	1.144462E+0	9.786799E-1	9.957626E-1	9.928202E-1	1.120256E+0	9.717723E-1	9.676120E-1	9.777199E-1	1.094816E+0	9.332968E-1	1.042146E+0	9.822842E-1	1.070223E+0	9.894761E-1	1.025615E+0	9.872545E-1	1.113166E+0	9.898513E-1	1.158261E+0	1.015436E+0	1.101170E+0	9.072655E-1	9.794351E-1	1.058963E+0	1.002185E+0	9.629623E-1	9.504336E-1	1.067830E+0	1.066458E+0	9.488964E-1	9.716082E-1	9.879389E-1	1.065686E+0	1.026889E+0	1.015553E+0	9.504290E-1	1.185839E+0	9.302347E-1	9.896938E-1	1.020326E+0	1.068455E+0	1.022794E+0	1.037474E+0	1.027030E+0	1.025360E+0	9.953074E-1	1.048862E+0	1.060529E+0	1.175372E+0	1.063778E+0	1.042682E+0	9.908945E-1	1.028062E+0	9.878035E-1	9.568500E-1	1.043017E+0	1.010426E+0	1.012207E+0	9.909986E-1	9.979304E-1	1.042833E+0	9.288474E-1	1.024555E+0
5.374220E+2	1.108827E+0	1.190459E+0	1.121294E+0	1.209212E+0	1.084204E+0	1.161574E+0	1.062459E+0	1.093258E+0	1.071395E+0	1.042003E+0	1.125985E+0	1.043831E+0	1.152713E+0	1.053017E+0	1.130630E+0	1.070014E+0	1.101602E+0	1.094071E+0	1.164718E+0	1.089860E+0	1.124130E+0	1.199194E+0	1.133895E+0	1.080190E+0	1.129069E+0	1.153770E+0	1.072348E+0	1.088271E+0	1.107498E+0	1.079377E+0	1.113088E+0	1.055879E+0	1.025948E+0	1.134850E+0	1.078455E+0	1.103488E+0	1.063317E+0	1.224615E+0	1.051175E+0	1.104458E+0	1.053097E+0	1.103053E+0	1.109693E+0	1.124135E+0	1.119074E+0	1.138790E+0	1.146896E+0	1.091631E+0	1.094658E+0	1.102471E+0	1.056769E+0	1.007318E+0	1.083398E+0	1.219111E+0	1.123727E+0	1.090015E+0	1.162364E+0	1.186854E+0	1.112994E+0	1.047653E+0	1.167574E+0	1.115723E+0	1.110189E+0	9.966585E-1	1.077483E+0	1.133094E+0	1.107363E+0	1.044840E+0	1.114007E+0	1.187805E+0	1.196617E+0	1.153186E+0	1.037155E+0	1.154785E+0	1.177085E+0	1.198920E+0	1.136553E+0	1.180586E+0	1.168497E+0	1.203917E+0	1.116844E+0	1.127402E+0	1.177915E+0	1.173910E+0	1.044258E+0	1.220505E+0	1.154303E+0	1.203679E+0	9.871483E-1	1.210617E+0	1.097714E+0	1.106995E+0	1.073392E+0	1.125606E+0	1.103205E+0	1.125450E+0	1.035624E+0	1.216238E+0	1.088697E+0	1.005426E+0	1.130556E+0	1.279002E+0	1.031464E+0	1.031073E+0	1.070480E+0	1.186834E+0	1.058316E+0	1.052364E+0	1.121993E+0	1.185322E+0	1.101239E+0	1.138939E+0	1.097868E+0	1.157975E+0	9.836795E-1	1.096241E+0	1.071979E+0	1.238977E+0	1.068814E+0	1.229875E+0	1.106169E+0	1.144573E+0	1.051019E+0	1.112292E+0	1.209522E+0	1.092152E+0	1.073283E+0	1.092805E+0	1.101599E+0	1.181586E+0	1.104570E+0	1.005651E+0	1.072408E+0	1.253151E+0	1.136750E+0	1.054488E+0	1.109607E+0	1.215354E+0	1.094261E+0	1.099919E+0	1.146879E+0	1.164893E+0	1.093773E+0	1.209760E+0	1.113613E+0	1.184087E+0	1.064143E+0	1.126222E+0	1.170028E+0	1.288670E+0	1.082756E+0	1.073021E+0	1.082610E+0	1.126303E+0	1.032570E+0	1.055328E+0	1.131953E+0	1.112298E+0	1.067332E+0	1.048984E+0	1.040722E+0	1.132283E+0	1.026559E+0	1.130508E+0
5.376060E+2	1.056439E+0	1.149224E+0	1.073402E+0	1.152861E+0	1.069721E+0	1.155165E+0	1.018276E+0	1.031677E+0	1.021947E+0	1.086067E+0	1.053252E+0	1.025810E+0	1.126889E+0	1.072014E+0	1.060319E+0	1.031372E+0	1.068574E+0	1.059923E+0	1.036539E+0	1.067075E+0	1.151167E+0	1.225586E+0	1.091812E+0	1.043926E+0	1.126345E+0	1.110063E+0	1.050730E+0	1.083301E+0	1.071279E+0	1.078715E+0	1.065592E+0	1.046685E+0	1.014377E+0	1.166206E+0	1.128832E+0	1.012274E+0	1.078511E+0	1.181547E+0	1.086612E+0	1.043237E+0	9.893227E-1	1.028258E+0	1.097453E+0	1.063085E+0	1.080337E+0	1.033006E+0	1.090580E+0	1.111425E+0	1.092603E+0	1.116917E+0	1.070301E+0	9.896226E-1	1.095248E+0	1.182035E+0	1.076797E+0	1.119729E+0	1.078662E+0	1.139506E+0	1.079547E+0	1.064093E+0	1.146931E+0	1.162148E+0	1.131197E+0	1.028554E+0	1.099116E+0	1.117706E+0	1.163066E+0	1.078291E+0	1.140968E+0	1.138933E+0	1.213484E+0	1.167728E+0	1.077112E+0	1.167321E+0	1.171733E+0	1.146418E+0	1.024696E+0	1.170912E+0	1.178127E+0	1.188864E+0	1.052636E+0	1.113511E+0	1.100080E+0	1.071800E+0	1.051800E+0	1.222054E+0	1.162417E+0	1.173455E+0	1.072508E+0	1.247216E+0	1.025446E+0	1.085622E+0	1.041743E+0	1.160157E+0	1.074718E+0	1.077923E+0	1.048758E+0	1.054902E+0	1.055127E+0	9.631702E-1	1.116356E+0	1.195971E+0	1.048818E+0	9.964687E-1	1.060170E+0	1.176886E+0	9.939628E-1	1.011769E+0	1.119108E+0	1.135125E+0	1.019600E+0	1.125306E+0	1.071862E+0	1.132690E+0	1.049619E+0	1.062020E+0	1.081985E+0	1.284450E+0	1.067310E+0	1.182384E+0	1.103241E+0	1.148190E+0	1.021549E+0	1.084041E+0	1.194466E+0	1.127720E+0	1.105893E+0	9.999540E-1	1.111142E+0	1.132657E+0	1.104570E+0	1.034831E+0	1.046054E+0	1.221530E+0	1.069972E+0	1.071793E+0	1.039103E+0	1.219139E+0	1.034234E+0	1.112580E+0	1.125290E+0	1.171674E+0	1.115776E+0	1.204493E+0	1.027790E+0	1.235711E+0	1.090228E+0	1.199075E+0	1.215070E+0	1.218053E+0	1.130579E+0	1.136731E+0	1.058397E+0	1.087861E+0	1.105958E+0	9.906562E-1	1.164220E+0	1.079504E+0	1.019460E+0	1.080310E+0	1.109522E+0	1.106417E+0	1.097904E+0	1.062589E+0
5.378110E+2	1.245962E+0	1.213181E+0	1.234183E+0	1.200801E+0	1.190918E+0	1.262519E+0	1.276701E+0	1.114062E+0	1.153564E+0	1.191139E+0	1.312620E+0	1.078487E+0	1.257531E+0	1.224644E+0	1.253849E+0	1.081417E+0	1.152580E+0	1.108801E+0	1.166753E+0	1.085169E+0	1.155221E+0	1.201901E+0	1.285667E+0	1.084146E+0	1.150860E+0	1.131254E+0	1.114232E+0	1.096079E+0	1.112965E+0	1.107170E+0	1.135834E+0	1.063103E+0	1.066785E+0	1.153810E+0	1.128832E+0	1.100546E+0	1.089741E+0	1.290312E+0	1.127112E+0	1.128799E+0	1.096731E+0	1.111974E+0	1.168012E+0	1.172698E+0	1.109031E+0	1.125117E+0	1.117000E+0	1.142713E+0	1.085751E+0	1.116259E+0	1.125787E+0	1.033182E+0	1.098542E+0	1.239021E+0	1.064374E+0	1.117606E+0	1.153630E+0	1.183422E+0	1.077412E+0	1.082027E+0	1.197063E+0	1.167609E+0	1.137500E+0	1.118695E+0	1.072261E+0	1.146283E+0	1.215105E+0	1.083274E+0	1.140197E+0	1.184101E+0	1.251052E+0	1.179208E+0	1.081471E+0	1.219681E+0	1.243616E+0	1.201381E+0	1.139459E+0	1.132961E+0	1.247021E+0	1.247490E+0	1.083681E+0	1.086500E+0	1.187071E+0	1.187572E+0	1.158086E+0	1.290215E+0	1.202175E+0	1.216211E+0	1.105229E+0	1.211379E+0	1.141513E+0	1.065012E+0	1.114609E+0	1.159389E+0	1.140455E+0	1.143454E+0	1.063275E+0	1.194917E+0	1.102981E+0	1.062472E+0	1.118293E+0	1.295147E+0	1.084972E+0	1.048729E+0	1.145389E+0	1.264127E+0	1.097520E+0	1.102218E+0	1.124879E+0	1.224110E+0	1.088798E+0	1.140302E+0	1.128209E+0	1.181028E+0	1.055416E+0	1.141382E+0	1.073313E+0	1.276114E+0	1.069566E+0	1.211030E+0	1.156656E+0	1.218358E+0	1.053175E+0	1.121454E+0	1.294310E+0	1.154222E+0	1.069119E+0	1.111375E+0	1.154453E+0	1.172952E+0	1.138624E+0	1.044558E+0	1.154173E+0	1.345001E+0	1.144648E+0	1.116496E+0	1.116148E+0	1.225192E+0	1.087979E+0	1.116304E+0	1.161023E+0	1.172428E+0	1.199530E+0	1.241358E+0	1.159183E+0	1.233400E+0	1.110517E+0	1.108196E+0	1.213517E+0	1.235901E+0	1.164738E+0	1.186030E+0	1.125166E+0	1.181119E+0	1.111830E+0	1.128819E+0	1.144544E+0	1.090667E+0	1.150745E+0	1.078976E+0	1.186714E+0	1.117194E+0	1.096353E+0	1.190275E+0
5.380050E+2	1.340724E+0	1.263673E+0	1.306876E+0	1.315184E+0	1.132986E+0	1.342634E+0	1.312546E+0	1.161496E+0	1.221192E+0	1.226390E+0	1.285174E+0	1.131164E+0	1.232467E+0	1.185340E+0	1.250368E+0	1.161234E+0	1.185608E+0	1.241375E+0	1.334267E+0	1.175642E+0	1.245119E+0	1.328444E+0	1.354654E+0	1.153378E+0	1.211467E+0	1.185557E+0	1.320950E+0	1.126605E+0	1.181303E+0	1.140257E+0	1.251566E+0	1.185258E+0	1.143014E+0	1.192459E+0	1.222685E+0	1.148360E+0	1.167691E+0	1.325351E+0	1.286940E+0	1.208459E+0	1.116869E+0	1.130500E+0	1.248652E+0	1.182410E+0	1.136291E+0	1.180528E+0	1.192782E+0	1.178469E+0	1.132340E+0	1.151717E+0	1.209016E+0	1.147526E+0	1.194667E+0	1.296007E+0	1.285220E+0	1.173496E+0	1.246067E+0	1.245866E+0	1.270264E+0	1.131347E+0	1.185267E+0	1.194918E+0	1.164110E+0	1.128403E+0	1.141638E+0	1.259125E+0	1.178458E+0	1.204270E+0	1.182562E+0	1.272217E+0	1.366823E+0	1.270284E+0	1.178821E+0	1.292691E+0	1.245145E+0	1.326892E+0	1.145996E+0	1.243094E+0	1.304061E+0	1.305324E+0	1.173996E+0	1.236988E+0	1.218358E+0	1.268829E+0	1.228715E+0	1.365347E+0	1.250046E+0	1.312040E+0	1.140796E+0	1.312026E+0	1.173632E+0	1.252024E+0	1.135953E+0	1.230796E+0	1.228106E+0	1.204664E+0	1.166276E+0	1.253907E+0	1.191548E+0	1.079374E+0	1.200908E+0	1.359727E+0	1.116786E+0	1.086158E+0	1.161884E+0	1.313104E+0	1.067932E+0	1.170589E+0	1.160948E+0	1.269743E+0	1.125341E+0	1.210511E+0	1.172998E+0	1.232341E+0	1.172806E+0	1.212736E+0	1.160039E+0	1.329167E+0	1.119952E+0	1.270581E+0	1.165438E+0	1.250188E+0	1.111396E+0	1.155814E+0	1.257859E+0	1.229542E+0	1.104505E+0	1.155394E+0	1.232268E+0	1.246346E+0	1.160168E+0	1.113337E+0	1.168363E+0	1.327685E+0	1.147520E+0	1.152547E+0	1.177929E+0	1.382611E+0	1.136838E+0	1.159499E+0	1.186332E+0	1.286948E+0	1.156943E+0	1.297782E+0	1.219183E+0	1.320468E+0	1.215581E+0	1.181800E+0	1.319134E+0	1.318158E+0	1.266457E+0	1.191339E+0	1.164053E+0	1.207459E+0	1.125039E+0	1.183938E+0	1.219312E+0	1.228821E+0	1.134062E+0	1.174952E+0	1.161542E+0	1.191558E+0	1.242145E+0	1.135942E+0
5.382060E+2	1.494808E+0	1.582616E+0	1.621595E+0	1.621324E+0	1.489719E+0	1.470820E+0	1.621823E+0	1.420299E+0	1.400802E+0	1.464330E+0	1.613159E+0	1.343950E+0	1.496789E+0	1.419198E+0	1.529524E+0	1.443127E+0	1.461322E+0	1.334445E+0	1.515347E+0	1.393446E+0	1.494531E+0	1.469197E+0	1.563686E+0	1.437561E+0	1.406910E+0	1.490185E+0	1.491189E+0	1.362290E+0	1.385633E+0	1.383777E+0	1.420147E+0	1.350101E+0	1.332907E+0	1.463729E+0	1.411082E+0	1.348443E+0	1.323593E+0	1.548721E+0	1.472080E+0	1.410560E+0	1.352494E+0	1.398802E+0	1.493450E+0	1.350991E+0	1.342172E+0	1.379141E+0	1.388146E+0	1.454312E+0	1.404334E+0	1.310621E+0	1.427576E+0	1.330613E+0	1.330956E+0	1.500609E+0	1.603375E+0	1.422520E+0	1.445495E+0	1.420158E+0	1.594059E+0	1.316666E+0	1.463199E+0	1.482340E+0	1.455421E+0	1.288575E+0	1.354244E+0	1.479680E+0	1.505344E+0	1.377936E+0	1.427509E+0	1.442525E+0	1.591466E+0	1.464682E+0	1.332836E+0	1.449034E+0	1.544913E+0	1.451583E+0	1.353731E+0	1.456664E+0	1.482590E+0	1.576272E+0	1.429416E+0	1.487028E+0	1.455677E+0	1.388198E+0	1.364487E+0	1.545043E+0	1.620041E+0	1.533186E+0	1.347082E+0	1.510269E+0	1.459056E+0	1.422243E+0	1.330262E+0	1.428123E+0	1.472797E+0	1.384693E+0	1.403385E+0	1.401028E+0	1.440822E+0	1.278680E+0	1.419064E+0	1.525789E+0	1.520984E+0	1.315678E+0	1.398298E+0	1.543450E+0	1.455531E+0	1.325136E+0	1.388177E+0	1.503233E+0	1.448783E+0	1.395917E+0	1.370213E+0	1.570707E+0	1.341643E+0	1.392576E+0	1.388861E+0	1.565632E+0	1.539580E+0	1.517839E+0	1.405440E+0	1.495414E+0	1.455685E+0	1.400147E+0	1.550260E+0	1.463874E+0	1.410488E+0	1.352788E+0	1.423132E+0	1.421195E+0	1.399238E+0	1.348163E+0	1.427850E+0	1.546017E+0	1.430429E+0	1.388319E+0	1.403249E+0	1.624035E+0	1.423708E+0	1.413462E+0	1.444649E+0	1.447428E+0	1.505445E+0	1.517465E+0	1.430324E+0	1.597082E+0	1.394554E+0	1.467205E+0	1.496972E+0	1.666590E+0	1.476727E+0	1.457556E+0	1.352620E+0	1.465876E+0	1.347405E+0	1.294908E+0	1.468802E+0	1.401165E+0	1.362543E+0	1.347575E+0	1.426679E+0	1.390937E+0	1.333654E+0	1.467384E+0
5.384110E+2	1.691266E+0	1.781218E+0	1.887568E+0	1.811400E+0	1.753457E+0	1.881013E+0	1.864408E+0	1.639991E+0	1.722213E+0	1.715826E+0	1.881445E+0	1.697438E+0	1.732253E+0	1.767038E+0	1.817727E+0	1.588830E+0	1.691803E+0	1.652488E+0	1.836132E+0	1.632025E+0	1.745974E+0	1.794689E+0	1.895515E+0	1.550312E+0	1.570344E+0	1.680241E+0	1.708036E+0	1.506399E+0	1.648053E+0	1.653764E+0	1.685061E+0	1.593754E+0	1.550704E+0	1.690519E+0	1.654691E+0	1.511744E+0	1.730524E+0	1.807863E+0	1.739666E+0	1.645853E+0	1.516964E+0	1.673278E+0	1.737526E+0	1.616004E+0	1.629116E+0	1.646118E+0	1.665548E+0	1.647781E+0	1.639333E+0	1.560796E+0	1.730040E+0	1.570193E+0	1.561394E+0	1.683239E+0	1.830436E+0	1.626977E+0	1.659483E+0	1.705613E+0	1.825340E+0	1.592404E+0	1.737447E+0	1.696713E+0	1.684408E+0	1.553449E+0	1.603402E+0	1.663598E+0	1.696636E+0	1.617083E+0	1.667836E+0	1.644671E+0	1.876672E+0	1.747861E+0	1.568219E+0	1.788268E+0	1.791152E+0	1.782999E+0	1.655893E+0	1.797484E+0	1.758165E+0	1.809986E+0	1.612868E+0	1.744012E+0	1.767778E+0	1.652102E+0	1.666888E+0	1.809939E+0	1.860215E+0	1.759494E+0	1.570440E+0	1.821359E+0	1.768572E+0	1.620705E+0	1.635712E+0	1.724496E+0	1.657592E+0	1.682822E+0	1.538184E+0	1.764922E+0	1.730808E+0	1.497707E+0	1.570096E+0	1.837923E+0	1.785631E+0	1.530367E+0	1.598286E+0	1.747776E+0	1.680397E+0	1.555177E+0	1.612523E+0	1.713147E+0	1.607394E+0	1.601093E+0	1.605716E+0	1.717952E+0	1.617726E+0	1.665614E+0	1.575653E+0	1.790727E+0	1.796023E+0	1.805802E+0	1.609586E+0	1.746431E+0	1.732409E+0	1.597142E+0	1.784816E+0	1.664729E+0	1.647086E+0	1.556371E+0	1.706493E+0	1.737075E+0	1.683483E+0	1.604524E+0	1.604220E+0	1.771880E+0	1.751391E+0	1.541896E+0	1.582777E+0	1.794318E+0	1.744780E+0	1.594440E+0	1.613633E+0	1.729212E+0	1.760966E+0	1.795830E+0	1.695389E+0	1.748103E+0	1.705401E+0	1.636195E+0	1.767224E+0	1.841969E+0	1.897265E+0	1.666889E+0	1.559532E+0	1.707918E+0	1.751038E+0	1.571234E+0	1.714357E+0	1.600021E+0	1.563461E+0	1.542859E+0	1.632243E+0	1.670067E+0	1.679524E+0	1.657556E+0
5.386060E+2	1.658137E+0	1.745033E+0	1.776389E+0	1.765983E+0	1.525545E+0	1.687932E+0	1.839400E+0	1.622515E+0	1.657495E+0	1.636512E+0	1.785384E+0	1.538715E+0	1.629710E+0	1.649124E+0	1.649261E+0	1.509010E+0	1.584102E+0	1.590889E+0	1.724230E+0	1.504692E+0	1.616196E+0	1.667469E+0	1.818249E+0	1.480419E+0	1.597585E+0	1.579585E+0	1.670883E+0	1.458126E+0	1.510692E+0	1.516125E+0	1.594082E+0	1.524139E+0	1.480601E+0	1.648952E+0	1.619495E+0	1.512480E+0	1.482798E+0	1.703473E+0	1.674579E+0	1.497597E+0	1.405527E+0	1.538098E+0	1.654011E+0	1.557035E+0	1.605442E+0	1.531699E+0	1.550835E+0	1.555197E+0	1.512584E+0	1.473464E+0	1.585915E+0	1.496686E+0	1.540325E+0	1.642730E+0	1.679981E+0	1.585237E+0	1.573595E+0	1.611607E+0	1.703646E+0	1.475085E+0	1.622439E+0	1.583380E+0	1.564662E+0	1.477870E+0	1.527312E+0	1.587393E+0	1.581568E+0	1.501780E+0	1.533807E+0	1.570626E+0	1.773169E+0	1.612393E+0	1.444716E+0	1.671013E+0	1.688681E+0	1.657487E+0	1.508444E+0	1.580192E+0	1.644079E+0	1.691941E+0	1.507032E+0	1.674559E+0	1.606768E+0	1.509724E+0	1.480372E+0	1.737908E+0	1.790432E+0	1.668085E+0	1.513533E+0	1.685640E+0	1.640821E+0	1.582539E+0	1.465690E+0	1.686874E+0	1.584551E+0	1.482628E+0	1.507768E+0	1.644098E+0	1.627955E+0	1.427985E+0	1.436489E+0	1.751048E+0	1.650414E+0	1.389125E+0	1.493827E+0	1.682730E+0	1.639715E+0	1.548766E+0	1.505760E+0	1.643934E+0	1.543638E+0	1.630404E+0	1.545758E+0	1.645074E+0	1.648158E+0	1.548388E+0	1.474918E+0	1.691443E+0	1.762934E+0	1.698760E+0	1.592758E+0	1.679155E+0	1.637531E+0	1.526896E+0	1.706365E+0	1.581042E+0	1.608926E+0	1.504789E+0	1.527373E+0	1.608280E+0	1.550742E+0	1.475302E+0	1.505560E+0	1.798977E+0	1.712618E+0	1.481331E+0	1.499191E+0	1.756476E+0	1.638686E+0	1.569863E+0	1.535468E+0	1.620717E+0	1.685018E+0	1.637087E+0	1.565515E+0	1.733463E+0	1.635116E+0	1.573856E+0	1.639088E+0	1.722463E+0	1.760630E+0	1.659304E+0	1.459011E+0	1.618932E+0	1.607934E+0	1.527139E+0	1.626209E+0	1.569321E+0	1.537349E+0	1.504870E+0	1.480377E+0	1.569839E+0	1.541486E+0	1.461952E+0
5.388120E+2	1.467844E+0	1.507719E+0	1.541205E+0	1.552358E+0	1.415019E+0	1.471621E+0	1.559300E+0	1.456915E+0	1.412437E+0	1.424335E+0	1.471123E+0	1.343257E+0	1.413239E+0	1.431645E+0	1.464085E+0	1.349374E+0	1.481427E+0	1.431532E+0	1.491607E+0	1.331790E+0	1.402607E+0	1.550400E+0	1.617500E+0	1.314262E+0	1.359241E+0	1.390848E+0	1.447953E+0	1.319696E+0	1.358298E+0	1.302383E+0	1.363284E+0	1.318575E+0	1.259400E+0	1.421434E+0	1.384859E+0	1.276353E+0	1.311042E+0	1.483024E+0	1.441705E+0	1.344175E+0	1.290064E+0	1.394685E+0	1.449531E+0	1.412041E+0	1.442601E+0	1.341001E+0	1.380499E+0	1.404507E+0	1.297455E+0	1.315874E+0	1.420133E+0	1.291137E+0	1.291452E+0	1.431264E+0	1.537813E+0	1.342578E+0	1.390906E+0	1.460644E+0	1.534281E+0	1.294995E+0	1.480895E+0	1.366961E+0	1.424609E+0	1.304523E+0	1.289343E+0	1.446708E+0	1.388076E+0	1.356584E+0	1.374360E+0	1.426976E+0	1.631334E+0	1.486877E+0	1.264546E+0	1.422485E+0	1.525796E+0	1.510647E+0	1.363900E+0	1.473780E+0	1.415920E+0	1.471696E+0	1.344041E+0	1.439952E+0	1.445758E+0	1.449319E+0	1.328144E+0	1.520257E+0	1.527543E+0	1.443991E+0	1.283773E+0	1.528569E+0	1.444456E+0	1.296296E+0	1.342038E+0	1.431194E+0	1.380032E+0	1.383972E+0	1.319049E+0	1.434432E+0	1.362969E+0	1.223748E+0	1.359686E+0	1.517332E+0	1.421924E+0	1.170904E+0	1.348129E+0	1.499829E+0	1.363809E+0	1.313741E+0	1.364372E+0	1.434022E+0	1.401356E+0	1.372742E+0	1.315311E+0	1.461389E+0	1.414831E+0	1.327775E+0	1.307473E+0	1.525463E+0	1.511004E+0	1.530654E+0	1.386415E+0	1.419459E+0	1.441310E+0	1.315394E+0	1.493998E+0	1.383671E+0	1.353593E+0	1.332843E+0	1.333572E+0	1.429830E+0	1.463868E+0	1.305088E+0	1.335273E+0	1.555804E+0	1.459150E+0	1.315497E+0	1.318209E+0	1.484024E+0	1.435574E+0	1.365053E+0	1.373927E+0	1.380373E+0	1.541644E+0	1.435461E+0	1.456906E+0	1.478424E+0	1.470635E+0	1.342528E+0	1.476781E+0	1.590540E+0	1.506331E+0	1.424943E+0	1.373164E+0	1.403941E+0	1.478036E+0	1.298583E+0	1.359405E+0	1.362789E+0	1.352389E+0	1.302253E+0	1.345292E+0	1.416803E+0	1.437570E+0	1.285362E+0
5.390080E+2	1.277549E+0	1.325948E+0	1.324836E+0	1.382467E+0	1.210737E+0	1.321805E+0	1.405080E+0	1.343740E+0	1.237189E+0	1.265029E+0	1.379863E+0	1.295432E+0	1.226390E+0	1.266567E+0	1.302578E+0	1.230282E+0	1.264589E+0	1.229324E+0	1.355291E+0	1.213841E+0	1.260665E+0	1.271601E+0	1.369142E+0	1.296459E+0	1.174694E+0	1.307407E+0	1.294603E+0	1.294850E+0	1.188137E+0	1.168711E+0	1.210090E+0	1.179347E+0	1.157988E+0	1.228920E+0	1.204053E+0	1.193231E+0	1.145891E+0	1.338490E+0	1.294895E+0	1.185593E+0	1.143721E+0	1.223823E+0	1.316331E+0	1.320466E+0	1.223091E+0	1.200676E+0	1.243535E+0	1.253177E+0	1.167966E+0	1.146464E+0	1.219166E+0	1.197892E+0	1.199934E+0	1.283649E+0	1.307995E+0	1.235752E+0	1.214769E+0	1.294585E+0	1.309405E+0	1.216534E+0	1.210332E+0	1.287767E+0	1.247442E+0	1.131176E+0	1.126718E+0	1.264254E+0	1.309653E+0	1.185053E+0	1.177170E+0	1.275179E+0	1.356855E+0	1.277172E+0	1.082924E+0	1.265404E+0	1.382029E+0	1.317048E+0	1.195387E+0	1.278069E+0	1.296653E+0	1.380587E+0	1.151418E+0	1.321877E+0	1.229042E+0	1.272425E+0	1.177287E+0	1.356052E+0	1.367699E+0	1.291400E+0	1.146487E+0	1.363112E+0	1.263420E+0	1.184090E+0	1.212499E+0	1.249224E+0	1.220071E+0	1.183780E+0	1.171115E+0	1.215527E+0	1.237974E+0	1.126560E+0	1.253833E+0	1.381254E+0	1.316355E+0	1.101695E+0	1.133019E+0	1.394223E+0	1.263950E+0	1.169877E+0	1.180424E+0	1.282672E+0	1.212421E+0	1.227552E+0	1.184556E+0	1.297040E+0	1.340194E+0	1.225842E+0	1.176717E+0	1.323104E+0	1.383911E+0	1.342950E+0	1.233487E+0	1.284186E+0	1.247243E+0	1.185592E+0	1.291140E+0	1.189093E+0	1.248824E+0	1.191846E+0	1.213914E+0	1.321898E+0	1.242869E+0	1.126537E+0	1.219045E+0	1.283265E+0	1.339237E+0	1.146058E+0	1.190286E+0	1.347796E+0	1.319709E+0	1.171416E+0	1.190799E+0	1.299756E+0	1.283284E+0	1.314335E+0	1.268551E+0	1.386732E+0	1.300357E+0	1.252400E+0	1.274868E+0	1.414384E+0	1.387154E+0	1.281595E+0	1.223485E+0	1.236647E+0	1.304106E+0	1.229501E+0	1.244497E+0	1.190445E+0	1.200068E+0	1.161623E+0	1.197621E+0	1.245444E+0	1.242145E+0	1.214726E+0
5.392090E+2	1.066454E+0	1.230011E+0	1.188001E+0	1.239489E+0	1.100972E+0	1.106293E+0	1.186669E+0	1.197279E+0	1.133930E+0	1.123351E+0	1.154804E+0	1.178296E+0	1.080555E+0	1.069392E+0	1.102784E+0	1.048476E+0	1.052776E+0	1.073314E+0	1.153189E+0	1.088520E+0	1.109936E+0	1.135584E+0	1.241515E+0	1.123048E+0	1.085486E+0	1.064369E+0	1.148685E+0	1.164229E+0	1.101348E+0	1.080039E+0	1.043515E+0	1.085433E+0	9.830695E-1	1.102765E+0	1.070864E+0	1.061559E+0	1.033590E+0	1.195416E+0	1.137960E+0	1.081592E+0	9.899946E-1	1.079722E+0	1.147133E+0	1.100547E+0	1.020079E+0	1.078342E+0	1.123952E+0	1.145267E+0	1.044644E+0	1.058477E+0	1.091278E+0	1.028418E+0	9.899047E-1	1.139468E+0	1.194121E+0	1.160762E+0	1.086668E+0	1.129899E+0	1.110859E+0	1.153764E+0	1.090166E+0	1.011951E+0	1.086380E+0	1.063223E+0	9.991542E-1	1.139689E+0	1.180657E+0	1.034164E+0	1.076265E+0	1.111536E+0	1.194317E+0	1.151655E+0	1.055317E+0	1.101686E+0	1.165615E+0	1.235014E+0	1.039949E+0	1.094265E+0	1.132939E+0	1.150044E+0	1.073803E+0	1.174477E+0	1.116105E+0	1.063889E+0	1.049058E+0	1.207337E+0	1.230574E+0	1.163136E+0	1.037653E+0	1.123695E+0	1.083844E+0	1.114628E+0	9.666682E-1	1.117928E+0	1.053536E+0	1.088004E+0	1.048758E+0	1.118868E+0	1.115838E+0	1.039935E+0	1.099575E+0	1.227492E+0	1.079910E+0	1.046611E+0	1.032681E+0	1.111073E+0	1.144860E+0	1.054501E+0	1.022445E+0	1.127519E+0	1.032819E+0	1.123942E+0	1.065360E+0	1.105175E+0	1.090199E+0	1.023431E+0	9.965948E-1	1.202597E+0	1.234259E+0	1.168815E+0	1.093729E+0	1.113468E+0	1.110676E+0	1.087095E+0	1.132657E+0	1.049610E+0	1.072589E+0	1.002018E+0	1.083246E+0	1.101716E+0	1.114994E+0	9.987035E-1	1.052135E+0	1.204967E+0	1.186294E+0	1.040068E+0	1.034016E+0	1.213840E+0	1.131254E+0	1.041827E+0	1.042659E+0	1.123456E+0	1.159072E+0	1.196217E+0	1.068044E+0	1.155578E+0	1.147471E+0	1.077403E+0	1.170029E+0	1.250646E+0	1.197380E+0	1.157968E+0	1.070136E+0	1.139829E+0	1.141185E+0	1.006090E+0	1.090239E+0	1.099738E+0	1.032516E+0	1.030989E+0	1.034848E+0	1.158149E+0	1.074639E+0	1.021838E+0
5.394100E+2	1.116532E+0	1.150066E+0	1.140109E+0	1.206689E+0	1.120791E+0	1.173591E+0	1.152490E+0	1.168986E+0	1.077939E+0	1.069119E+0	1.141080E+0	1.172751E+0	1.087392E+0	1.079874E+0	1.153603E+0	1.026305E+0	1.101602E+0	9.976536E-1	1.088760E+0	9.906751E-1	1.068705E+0	1.136938E+0	1.187705E+0	1.090740E+0	1.020112E+0	1.041191E+0	1.150036E+0	1.086851E+0	1.047361E+0	9.913657E-1	1.052881E+0	1.017131E+0	9.456349E-1	1.101306E+0	1.061892E+0	1.026250E+0	1.018396E+0	1.093951E+0	1.066363E+0	1.057252E+0	9.611287E-1	1.022768E+0	1.134172E+0	1.183104E+0	1.092533E+0	1.009259E+0	1.062076E+0	1.078222E+0	9.295426E-1	1.030899E+0	1.095338E+0	1.002554E+0	9.931964E-1	1.115437E+0	1.145811E+0	1.176326E+0	1.000056E+0	1.070887E+0	1.153557E+0	1.149280E+0	1.087217E+0	1.054279E+0	1.042964E+0	1.079865E+0	1.034216E+0	1.059819E+0	1.068518E+0	1.043417E+0	9.923047E-1	1.106353E+0	1.167483E+0	1.163135E+0	9.804892E-1	1.171009E+0	1.135026E+0	1.166107E+0	9.876523E-1	1.028780E+0	1.103308E+0	1.154005E+0	9.679672E-1	1.062576E+0	1.057347E+0	1.125730E+0	1.057287E+0	1.170159E+0	1.109677E+0	1.183776E+0	9.586956E-1	1.109970E+0	1.111583E+0	1.150504E+0	9.710850E-1	1.101037E+0	1.008981E+0	1.054160E+0	9.692609E-1	1.016523E+0	1.070126E+0	1.043457E+0	9.930783E-1	1.162144E+0	1.067618E+0	1.085452E+0	1.034742E+0	1.142449E+0	1.099739E+0	1.148511E+0	1.043365E+0	1.104703E+0	1.050700E+0	1.028512E+0	9.989000E-1	1.088814E+0	1.075706E+0	1.048914E+0	9.805832E-1	1.139692E+0	1.145520E+0	1.177107E+0	1.030802E+0	1.135169E+0	1.094864E+0	1.097785E+0	1.098583E+0	1.050307E+0	1.002511E+0	9.607508E-1	1.025253E+0	1.088045E+0	1.085805E+0	9.834184E-1	1.016996E+0	1.123657E+0	1.091513E+0	1.059536E+0	1.024567E+0	1.165404E+0	1.089374E+0	1.108110E+0	1.055314E+0	1.093317E+0	1.123583E+0	1.139040E+0	1.073360E+0	1.157119E+0	1.127906E+0	1.111951E+0	1.093923E+0	1.138899E+0	1.127543E+0	1.114735E+0	9.872265E-1	1.136270E+0	1.070732E+0	1.082520E+0	1.034360E+0	1.091366E+0	1.052825E+0	9.869999E-1	1.008838E+0	1.085940E+0	1.040518E+0	1.119640E+0
5.396110E+2	9.709225E-1	1.065070E+0	1.111031E+0	1.156226E+0	1.009502E+0	1.055821E+0	1.107474E+0	1.127377E+0	9.979502E-1	9.837050E-1	1.099911E+0	1.078488E+0	9.932077E-1	1.015678E+0	1.006716E+0	1.021237E+0	1.056367E+0	9.856014E-1	1.073839E+0	9.692295E-1	1.043020E+0	1.033403E+0	1.190464E+0	1.103268E+0	9.955966E-1	1.014701E+0	1.054108E+0	1.077623E+0	9.291372E-1	9.801162E-1	1.006721E+0	9.803538E-1	9.299803E-1	9.977571E-1	9.935723E-1	9.777010E-1	9.866873E-1	1.087381E+0	1.064916E+0	1.105195E+0	9.389763E-1	9.603256E-1	1.063613E+0	1.067248E+0	9.842114E-1	9.891097E-1	1.018970E+0	9.971302E-1	9.610584E-1	9.612973E-1	1.049326E+0	9.821353E-1	9.319653E-1	1.048838E+0	1.115445E+0	1.124681E+0	9.498344E-1	1.042753E+0	1.060333E+0	1.049149E+0	1.040772E+0	9.928349E-1	9.876417E-1	9.772439E-1	9.446976E-1	1.015122E+0	1.030406E+0	9.743771E-1	1.014643E+0	1.013794E+0	1.066280E+0	1.082009E+0	9.347195E-1	1.099474E+0	1.108261E+0	1.148058E+0	9.520611E-1	1.051849E+0	1.021081E+0	1.072404E+0	9.277484E-1	1.004697E+0	1.066505E+0	1.039441E+0	9.036866E-1	1.070241E+0	1.104808E+0	1.137335E+0	9.956843E-1	1.076422E+0	1.036395E+0	1.091728E+0	9.791808E-1	1.034237E+0	1.064493E+0	9.915100E-1	9.588913E-1	1.005151E+0	1.015128E+0	9.427467E-1	9.595159E-1	1.132162E+0	1.083525E+0	1.065678E+0	9.660170E-1	1.072810E+0	1.067192E+0	1.048090E+0	1.002968E+0	1.091773E+0	1.039815E+0	1.048281E+0	8.630875E-1	1.106662E+0	1.016287E+0	1.010325E+0	9.819171E-1	1.151061E+0	1.051518E+0	1.123586E+0	9.634843E-1	1.029555E+0	1.109239E+0	1.030593E+0	1.083528E+0	9.687097E-1	1.037897E+0	9.868863E-1	9.804734E-1	1.074374E+0	1.014919E+0	9.639658E-1	9.744248E-1	1.148502E+0	1.081460E+0	1.042952E+0	9.613326E-1	1.116210E+0	1.060059E+0	1.073853E+0	9.808721E-1	1.007426E+0	1.088804E+0	1.139040E+0	1.058170E+0	1.047705E+0	9.793661E-1	1.072145E+0	1.042668E+0	1.094667E+0	1.092625E+0	1.162518E+0	9.534747E-1	1.038028E+0	1.071466E+0	1.064147E+0	9.532953E-1	1.003449E+0	9.897209E-1	9.636722E-1	9.408753E-1	9.921788E-1	1.014150E+0	1.038136E+0
5.398180E+2	8.684560E-1	9.034962E-1	8.895306E-1	9.013895E-1	8.197027E-1	8.363050E-1	9.224090E-1	9.143426E-1	8.059774E-1	7.925393E-1	8.659311E-1	8.774838E-1	8.048387E-1	8.296391E-1	8.584372E-1	8.052227E-1	7.763438E-1	7.793751E-1	8.737718E-1	8.110703E-1	8.388938E-1	8.594913E-1	9.414196E-1	8.454592E-1	7.742772E-1	7.961660E-1	8.109112E-1	8.824004E-1	7.685437E-1	7.862271E-1	7.638846E-1	7.741362E-1	7.087801E-1	8.118055E-1	7.962033E-1	7.548152E-1	7.495321E-1	8.778798E-1	8.211960E-1	8.470371E-1	7.335591E-1	7.606438E-1	9.008943E-1	8.417786E-1	7.890914E-1	7.897771E-1	8.249963E-1	8.272834E-1	7.575770E-1	7.544605E-1	8.483579E-1	7.847557E-1	7.792168E-1	8.922983E-1	8.911483E-1	8.409905E-1	8.042656E-1	8.176826E-1	8.674809E-1	8.645755E-1	7.761096E-1	7.743669E-1	8.398852E-1	7.747743E-1	8.029611E-1	8.363331E-1	8.347143E-1	7.928830E-1	7.804795E-1	8.183101E-1	8.884062E-1	8.348015E-1	7.763449E-1	8.583213E-1	8.299057E-1	9.044188E-1	7.777376E-1	8.308386E-1	8.432912E-1	8.529515E-1	7.958048E-1	8.426330E-1	7.780591E-1	8.445676E-1	8.207151E-1	8.696319E-1	8.735628E-1	9.478869E-1	7.623683E-1	8.865659E-1	8.392996E-1	8.863970E-1	7.605832E-1	8.207870E-1	8.227239E-1	7.855570E-1	7.259303E-1	8.423938E-1	7.522845E-1	7.652715E-1	7.613679E-1	9.115143E-1	8.825103E-1	8.495769E-1	7.282284E-1	8.478214E-1	8.223537E-1	8.372793E-1	7.627534E-1	8.521996E-1	8.127835E-1	8.676447E-1	7.814565E-1	7.898621E-1	8.575939E-1	8.144674E-1	7.871184E-1	8.835215E-1	9.041207E-1	9.087432E-1	7.900676E-1	8.371353E-1	8.001683E-1	8.679577E-1	7.895418E-1	8.013297E-1	8.387649E-1	7.867413E-1	7.741934E-1	8.131778E-1	8.119869E-1	7.423402E-1	8.007573E-1	8.676816E-1	8.531228E-1	8.778394E-1	7.759892E-1	8.974910E-1	8.304236E-1	8.735113E-1	8.371980E-1	8.439329E-1	8.595447E-1	9.065674E-1	8.341187E-1	8.496844E-1	7.735848E-1	8.513321E-1	8.454142E-1	8.688459E-1	9.256235E-1	8.796158E-1	8.170020E-1	8.842596E-1	8.102044E-1	8.701319E-1	8.313048E-1	7.717968E-1	7.953309E-1	7.763870E-1	8.175376E-1	8.229774E-1	7.923596E-1	7.229948E-1
5.400140E+2	7.120606E-1	7.217231E-1	7.116464E-1	7.045857E-1	6.466719E-1	6.440278E-1	7.681883E-1	7.637202E-1	6.670876E-1	6.569612E-1	7.561460E-1	7.298509E-1	7.129332E-1	6.992815E-1	6.600350E-1	6.240498E-1	7.031079E-1	6.702358E-1	7.211774E-1	6.462084E-1	6.536932E-1	6.930237E-1	7.158310E-1	6.931481E-1	6.428465E-1	6.782893E-1	7.190363E-1	7.390017E-1	6.571533E-1	6.578501E-1	6.461454E-1	6.493553E-1	6.182572E-1	6.652321E-1	6.947585E-1	6.084308E-1	6.365700E-1	7.070666E-1	6.649850E-1	6.589500E-1	6.187676E-1	6.295810E-1	6.848951E-1	7.078852E-1	6.951171E-1	6.580874E-1	6.901188E-1	6.765919E-1	6.596033E-1	6.369251E-1	6.791936E-1	6.009878E-1	6.495120E-1	6.808313E-1	7.199923E-1	7.108184E-1	7.125576E-1	6.667206E-1	6.995351E-1	7.390373E-1	6.529931E-1	5.968615E-1	7.201387E-1	7.158362E-1	6.358592E-1	6.634057E-1	6.947243E-1	6.391461E-1	6.164110E-1	6.546669E-1	7.151332E-1	7.406639E-1	6.789955E-1	6.953404E-1	7.129047E-1	7.764466E-1	6.673322E-1	7.110305E-1	7.558794E-1	7.151011E-1	6.109438E-1	6.605045E-1	6.903046E-1	6.827734E-1	6.444855E-1	7.240148E-1	7.356256E-1	8.137247E-1	6.947918E-1	7.233966E-1	6.940323E-1	7.199947E-1	6.141159E-1	6.818138E-1	6.642234E-1	6.609764E-1	6.346815E-1	7.087766E-1	6.765736E-1	6.349824E-1	6.477721E-1	7.823550E-1	6.728197E-1	7.019775E-1	6.072720E-1	7.085421E-1	6.995644E-1	7.468302E-1	6.696976E-1	6.605399E-1	6.705011E-1	6.522459E-1	5.936326E-1	6.567468E-1	6.909304E-1	6.491894E-1	6.263429E-1	7.493734E-1	7.860526E-1	7.858696E-1	6.656767E-1	6.664169E-1	6.981038E-1	7.289933E-1	6.992063E-1	6.744005E-1	7.069354E-1	6.732559E-1	6.449927E-1	6.541583E-1	7.174712E-1	6.478543E-1	6.446607E-1	7.163545E-1	7.188495E-1	6.997472E-1	6.262604E-1	7.446140E-1	6.747739E-1	7.007268E-1	6.161044E-1	6.668770E-1	7.147494E-1	6.891413E-1	6.374080E-1	6.693841E-1	7.474998E-1	7.048740E-1	7.133941E-1	7.516677E-1	7.305352E-1	7.681222E-1	6.188966E-1	6.899129E-1	7.147998E-1	7.238843E-1	6.683886E-1	6.741119E-1	6.205250E-1	6.090953E-1	6.228808E-1	6.785619E-1	6.574251E-1	7.202768E-1
5.402100E+2	5.333238E-1	5.853943E-1	5.790881E-1	5.557204E-1	4.744044E-1	5.510945E-1	5.614484E-1	5.531822E-1	5.122005E-1	5.701910E-1	5.331447E-1	5.773648E-1	5.891264E-1	4.942465E-1	5.751046E-1	5.435988E-1	5.975607E-1	5.215917E-1	5.706184E-1	5.155259E-1	5.982682E-1	5.157288E-1	5.971723E-1	5.639142E-1	5.202704E-1	5.127310E-1	5.123190E-1	5.338417E-1	5.580633E-1	4.983716E-1	5.150261E-1	5.377089E-1	5.685719E-1	5.522021E-1	5.733007E-1	5.039763E-1	4.866137E-1	5.420932E-1	5.442102E-1	5.188067E-1	4.730968E-1	4.868527E-1	5.221766E-1	5.559542E-1	6.047302E-1	5.285565E-1	5.406408E-1	5.603818E-1	5.328557E-1	5.049436E-1	5.269466E-1	5.567479E-1	5.711625E-1	5.799038E-1	5.716114E-1	6.075291E-1	5.655337E-1	5.390886E-1	5.564972E-1	5.649255E-1	6.072861E-1	5.456579E-1	5.604778E-1	5.147541E-1	5.642448E-1	5.498309E-1	5.583996E-1	4.982207E-1	5.355321E-1	5.510010E-1	5.847954E-1	5.562157E-1	5.031849E-1	6.031578E-1	5.790794E-1	5.418312E-1	5.649173E-1	4.743925E-1	5.462374E-1	5.614053E-1	5.439136E-1	5.671248E-1	5.705007E-1	5.332026E-1	5.128293E-1	5.327004E-1	5.928218E-1	5.852075E-1	5.134021E-1	6.166501E-1	5.509557E-1	5.749654E-1	5.184334E-1	5.236446E-1	4.889233E-1	5.263145E-1	5.600229E-1	5.467298E-1	5.458662E-1	4.955383E-1	5.322393E-1	5.494070E-1	5.665280E-1	5.515536E-1	5.433579E-1	5.669681E-1	5.331334E-1	5.723417E-1	5.117189E-1	5.860062E-1	5.460996E-1	5.363669E-1	5.011657E-1	5.332988E-1	5.554251E-1	5.450715E-1	4.735720E-1	5.060875E-1	5.784943E-1	6.207801E-1	5.288460E-1	5.094431E-1	5.169744E-1	5.709400E-1	5.375544E-1	5.418912E-1	5.244558E-1	5.301970E-1	5.135897E-1	5.447875E-1	5.423384E-1	5.221047E-1	5.412723E-1	5.883665E-1	5.350308E-1	5.721271E-1	5.230502E-1	6.046020E-1	5.763585E-1	5.994394E-1	5.260286E-1	5.742063E-1	5.167207E-1	5.898326E-1	5.424713E-1	5.607416E-1	5.018658E-1	5.816998E-1	5.782673E-1	6.298334E-1	5.536661E-1	6.171907E-1	5.235117E-1	5.745864E-1	5.680240E-1	6.195275E-1	5.094078E-1	5.178165E-1	4.819854E-1	5.324488E-1	5.356210E-1	5.007369E-1	5.504055E-1	5.083711E-1
5.404120E+2	4.555109E-1	5.365852E-1	4.978421E-1	5.338526E-1	5.003206E-1	5.182469E-1	5.256026E-1	5.831396E-1	4.263941E-1	5.044356E-1	5.345172E-1	5.122114E-1	5.200074E-1	4.700090E-1	4.790364E-1	4.599800E-1	4.898597E-1	5.115482E-1	5.061889E-1	4.625835E-1	4.907984E-1	4.913669E-1	5.371537E-1	5.177596E-1	5.168655E-1	4.445218E-1	5.123187E-1	5.295821E-1	5.054435E-1	4.798428E-1	5.036538E-1	5.186631E-1	4.943845E-1	5.201164E-1	4.966998E-1	4.657249E-1	4.932199E-1	4.990254E-1	4.632114E-1	5.313450E-1	5.053179E-1	4.539157E-1	5.056163E-1	5.760726E-1	5.329953E-1	4.601930E-1	5.107452E-1	4.978066E-1	4.855824E-1	4.432204E-1	4.836400E-1	4.709893E-1	4.835951E-1	4.858419E-1	5.067377E-1	5.318317E-1	5.196795E-1	4.608635E-1	5.294548E-1	5.327941E-1	5.475714E-1	4.848964E-1	5.184617E-1	4.509621E-1	4.732344E-1	4.985391E-1	5.019644E-1	4.562277E-1	4.870054E-1	5.236038E-1	5.134930E-1	5.141218E-1	4.501515E-1	5.404726E-1	5.301380E-1	5.664411E-1	5.358634E-1	5.145762E-1	5.062350E-1	5.099093E-1	5.340359E-1	4.575397E-1	4.934293E-1	4.749572E-1	4.963722E-1	5.489656E-1	5.644226E-1	5.483497E-1	4.828154E-1	5.053289E-1	4.896366E-1	5.032140E-1	4.941449E-1	5.313230E-1	4.684717E-1	4.759064E-1	5.178557E-1	4.969780E-1	5.201527E-1	4.476488E-1	4.844775E-1	5.486381E-1	4.645744E-1	5.353107E-1	5.069331E-1	5.072769E-1	4.931904E-1	5.516874E-1	5.658200E-1	5.244009E-1	5.002270E-1	5.268238E-1	5.228374E-1	4.976029E-1	5.155705E-1	5.050268E-1	4.975881E-1	5.394348E-1	4.874990E-1	5.363511E-1	4.798211E-1	5.434417E-1	4.810353E-1	5.197823E-1	4.987261E-1	4.965592E-1	4.627041E-1	4.641693E-1	4.827580E-1	4.785885E-1	5.374736E-1	4.866726E-1	4.628857E-1	5.635223E-1	5.199516E-1	4.985840E-1	4.343754E-1	5.228659E-1	5.184258E-1	5.301766E-1	4.754079E-1	5.259865E-1	5.238181E-1	5.296459E-1	4.893069E-1	4.698209E-1	4.982423E-1	4.983315E-1	4.773116E-1	5.592161E-1	5.270978E-1	5.375532E-1	4.472051E-1	4.941423E-1	5.012403E-1	5.254591E-1	4.842221E-1	4.661828E-1	5.160762E-1	4.637993E-1	4.802439E-1	4.921156E-1	5.069791E-1	5.138046E-1
5.406090E+2	4.786240E-1	4.844098E-1	5.123811E-1	5.035750E-1	4.782158E-1	5.102354E-1	4.797526E-1	5.506857E-1	4.838407E-1	4.576611E-1	5.297141E-1	4.872600E-1	4.615227E-1	5.106228E-1	5.201096E-1	4.207046E-1	4.991934E-1	4.713746E-1	5.000850E-1	4.779970E-1	4.448362E-1	4.744502E-1	5.412924E-1	5.171001E-1	4.623870E-1	4.597531E-1	4.812441E-1	4.891182E-1	5.307278E-1	4.573435E-1	4.661909E-1	4.569294E-1	4.651187E-1	4.705301E-1	4.283802E-1	4.377717E-1	4.198935E-1	5.399041E-1	5.008181E-1	4.811885E-1	4.529570E-1	4.772465E-1	4.991364E-1	5.219601E-1	5.516460E-1	4.724273E-1	4.683352E-1	4.920597E-1	5.081910E-1	4.570099E-1	4.992032E-1	4.226649E-1	4.770114E-1	4.638719E-1	5.260618E-1	5.452734E-1	4.963887E-1	4.718421E-1	5.045478E-1	5.380249E-1	5.188194E-1	4.562226E-1	5.023557E-1	4.877117E-1	4.717426E-1	4.860826E-1	4.748456E-1	5.338078E-1	4.585047E-1	4.873207E-1	5.349604E-1	5.210100E-1	4.661338E-1	4.917996E-1	5.316677E-1	5.188611E-1	5.300526E-1	4.959723E-1	4.721586E-1	5.312998E-1	5.178067E-1	5.200494E-1	4.644316E-1	4.785525E-1	4.476861E-1	5.063654E-1	5.295333E-1	5.638300E-1	5.205159E-1	4.916044E-1	4.721172E-1	5.116104E-1	5.235850E-1	4.514715E-1	4.648191E-1	4.888683E-1	5.026470E-1	5.197218E-1	4.858689E-1	4.539868E-1	4.670514E-1	5.286494E-1	5.166359E-1	5.183614E-1	4.773817E-1	4.751359E-1	4.924506E-1	4.932872E-1	5.824124E-1	5.145141E-1	4.496894E-1	4.886519E-1	4.758818E-1	4.723181E-1	4.981794E-1	4.722614E-1	4.749066E-1	5.280667E-1	5.168285E-1	5.619810E-1	4.703094E-1	4.689329E-1	5.191303E-1	5.060378E-1	5.320070E-1	4.756372E-1	4.703358E-1	5.109382E-1	4.915673E-1	4.742713E-1	4.860453E-1	4.574931E-1	4.439647E-1	5.236201E-1	4.897942E-1	5.541024E-1	4.721713E-1	4.963777E-1	4.681714E-1	5.264527E-1	4.806186E-1	5.026304E-1	5.018152E-1	4.905239E-1	4.923443E-1	5.222159E-1	5.004161E-1	4.968296E-1	4.687682E-1	5.879286E-1	4.959748E-1	5.292106E-1	5.257130E-1	4.955666E-1	5.034422E-1	5.254593E-1	4.999634E-1	4.878130E-1	4.420924E-1	4.597999E-1	5.423326E-1	5.028934E-1	4.821627E-1	4.730542E-1
5.408060E+2	4.200711E-1	4.313931E-1	4.499503E-1	4.901195E-1	3.890329E-1	4.517506E-1	4.897561E-1	4.683016E-1	4.227583E-1	4.115646E-1	4.590400E-1	4.498316E-1	4.592433E-1	4.084327E-1	4.511904E-1	4.213383E-1	4.518049E-1	3.736177E-1	4.281963E-1	4.116505E-1	4.150961E-1	4.439987E-1	4.702356E-1	4.590763E-1	4.290188E-1	4.167082E-1	4.305774E-1	4.919578E-1	4.350550E-1	3.812440E-1	4.380942E-1	4.293459E-1	4.338098E-1	4.165674E-1	3.931849E-1	3.958430E-1	4.172513E-1	4.347888E-1	4.617642E-1	4.162811E-1	4.314757E-1	4.244094E-1	4.465775E-1	4.366291E-1	4.655637E-1	3.983066E-1	4.168874E-1	4.147993E-1	3.869242E-1	4.268055E-1	4.335677E-1	4.206231E-1	3.999783E-1	4.370949E-1	4.798221E-1	4.257132E-1	4.257871E-1	3.963615E-1	4.525980E-1	4.319141E-1	4.450973E-1	4.186732E-1	4.470348E-1	4.350146E-1	4.359353E-1	3.820334E-1	4.191435E-1	4.505337E-1	4.199925E-1	4.614044E-1	4.736252E-1	4.727929E-1	4.305358E-1	4.527137E-1	4.161956E-1	4.589774E-1	4.639546E-1	4.334646E-1	4.321561E-1	4.298926E-1	4.691227E-1	4.228116E-1	3.927017E-1	4.217445E-1	4.380858E-1	4.753832E-1	5.027573E-1	4.503081E-1	4.394244E-1	4.557684E-1	4.246680E-1	4.497824E-1	4.374708E-1	3.938852E-1	4.056560E-1	4.298193E-1	4.570230E-1	3.932119E-1	4.322996E-1	4.068008E-1	4.031535E-1	4.694516E-1	4.334824E-1	4.427968E-1	4.038464E-1	4.980940E-1	4.051670E-1	4.526924E-1	4.641088E-1	4.331351E-1	3.999289E-1	4.859253E-1	4.491523E-1	4.440594E-1	4.119495E-1	4.234788E-1	4.382145E-1	4.363606E-1	4.679464E-1	4.888597E-1	4.190889E-1	4.342110E-1	4.609099E-1	4.655704E-1	4.812931E-1	3.731170E-1	4.106658E-1	3.905759E-1	4.666079E-1	4.447697E-1	4.325331E-1	4.387345E-1	4.243678E-1	4.505919E-1	4.603545E-1	4.574855E-1	4.329222E-1	4.812414E-1	4.597958E-1	4.557003E-1	4.500973E-1	4.174928E-1	4.649069E-1	4.265755E-1	4.695595E-1	4.590332E-1	4.402758E-1	4.142123E-1	4.703216E-1	4.971344E-1	4.595377E-1	4.510898E-1	4.376667E-1	4.208179E-1	5.034424E-1	4.541734E-1	4.991766E-1	4.229226E-1	4.181560E-1	4.051477E-1	4.794056E-1	4.457737E-1	4.480408E-1	3.997013E-1
5.410240E+2	3.399479E-1	3.918405E-1	3.789674E-1	3.841472E-1	3.417735E-1	3.908637E-1	3.613779E-1	3.809238E-1	3.558586E-1	3.600456E-1	3.698390E-1	3.514095E-1	3.749335E-1	3.776447E-1	3.613875E-1	3.364536E-1	3.771329E-1	3.227310E-1	3.617335E-1	3.667492E-1	3.671062E-1	3.695622E-1	3.543363E-1	3.746791E-1	3.643254E-1	3.564455E-1	3.792356E-1	3.982513E-1	3.879025E-1	3.653620E-1	3.497897E-1	3.544771E-1	3.793600E-1	3.596883E-1	3.704111E-1	3.244902E-1	3.241064E-1	3.720109E-1	3.366512E-1	3.506341E-1	4.012675E-1	3.400082E-1	3.716980E-1	3.561537E-1	3.866542E-1	3.702412E-1	3.640483E-1	3.292373E-1	3.615746E-1	3.512939E-1	3.740218E-1	3.226140E-1	3.663993E-1	3.471526E-1	4.052870E-1	3.995367E-1	3.952182E-1	3.661688E-1	3.458533E-1	3.721344E-1	3.757986E-1	3.346993E-1	3.517975E-1	3.642890E-1	3.799867E-1	3.629821E-1	3.583107E-1	3.330962E-1	3.560593E-1	3.577386E-1	3.915881E-1	3.916668E-1	3.680576E-1	3.900289E-1	3.863718E-1	4.023747E-1	3.818777E-1	3.702116E-1	3.825234E-1	3.831500E-1	3.505849E-1	3.379215E-1	3.568364E-1	3.678132E-1	3.558001E-1	3.994764E-1	4.078245E-1	4.053422E-1	3.412605E-1	4.138322E-1	3.553199E-1	3.322322E-1	3.800620E-1	3.324610E-1	3.472218E-1	3.570871E-1	3.505654E-1	3.676257E-1	3.423042E-1	3.201755E-1	3.560362E-1	3.948772E-1	3.857602E-1	3.672319E-1	3.770433E-1	3.687633E-1	3.452515E-1	3.487101E-1	3.970212E-1	3.471922E-1	3.221780E-1	3.904956E-1	4.217015E-1	3.287916E-1	3.684720E-1	3.805212E-1	3.735040E-1	4.158975E-1	3.731918E-1	4.217687E-1	3.605514E-1	3.727231E-1	3.847205E-1	3.846350E-1	4.139378E-1	3.766038E-1	3.870753E-1	3.665038E-1	3.675046E-1	3.641805E-1	3.512210E-1	3.442487E-1	3.507118E-1	3.602479E-1	3.720354E-1	3.471700E-1	3.420671E-1	3.828558E-1	3.844139E-1	3.573923E-1	4.002209E-1	3.677668E-1	3.790229E-1	4.145383E-1	3.981668E-1	3.665716E-1	3.859316E-1	3.315950E-1	4.182901E-1	3.776283E-1	3.897010E-1	3.942058E-1	3.708976E-1	3.923415E-1	3.375850E-1	3.953808E-1	4.078802E-1	3.252377E-1	3.463478E-1	3.731549E-1	3.501931E-1	3.617106E-1	3.751447E-1	3.181992E-1
5.415040E+2	3.553560E-1	3.447144E-1	3.969265E-1	4.253578E-1	3.882701E-1	3.644251E-1	3.930555E-1	3.892461E-1	3.725838E-1	3.722468E-1	3.718975E-1	3.895308E-1	4.022768E-1	3.881258E-1	4.073333E-1	3.231497E-1	3.476945E-1	3.722786E-1	3.956429E-1	3.479844E-1	3.542634E-1	3.973063E-1	4.012485E-1	3.720415E-1	3.432156E-1	3.782986E-1	3.907201E-1	3.819239E-1	3.810679E-1	3.640384E-1	3.431006E-1	3.354319E-1	3.779991E-1	3.925035E-1	3.704118E-1	3.708331E-1	3.584580E-1	3.654409E-1	3.569003E-1	3.926775E-1	3.341374E-1	3.475559E-1	4.206576E-1	3.839037E-1	4.124793E-1	3.709612E-1	3.849056E-1	3.566939E-1	3.307436E-1	3.079568E-1	3.665784E-1	3.675348E-1	3.400638E-1	3.986464E-1	3.735408E-1	3.910473E-1	3.748387E-1	3.798928E-1	4.333839E-1	3.982879E-1	3.957036E-1	3.783932E-1	3.784081E-1	3.407134E-1	3.441790E-1	4.142741E-1	3.707705E-1	3.160137E-1	3.452752E-1	4.221593E-1	3.685874E-1	3.618176E-1	3.658783E-1	3.701172E-1	3.756654E-1	3.884290E-1	3.956781E-1	3.508648E-1	3.632635E-1	4.346458E-1	3.844522E-1	3.973445E-1	3.453903E-1	3.412068E-1	3.736287E-1	4.095458E-1	4.272980E-1	4.259824E-1	3.846519E-1	3.558847E-1	3.414504E-1	3.879541E-1	3.697572E-1	3.785297E-1	3.837433E-1	3.693293E-1	3.968807E-1	3.590966E-1	3.730172E-1	3.152468E-1	3.424827E-1	3.910327E-1	4.117900E-1	3.820618E-1	3.846028E-1	3.970786E-1	3.630048E-1	3.764864E-1	4.208264E-1	3.669672E-1	3.968192E-1	3.925402E-1	4.029192E-1	3.927467E-1	3.670228E-1	3.259147E-1	3.748381E-1	4.037711E-1	3.761997E-1	4.262916E-1	3.927479E-1	3.452348E-1	3.998147E-1	3.846354E-1	4.131453E-1	3.361538E-1	3.697295E-1	3.369291E-1	3.865917E-1	4.145485E-1	3.998697E-1	3.588389E-1	3.797690E-1	3.911158E-1	3.914225E-1	3.731260E-1	3.762289E-1	4.214522E-1	3.941851E-1	4.244211E-1	3.979879E-1	3.444111E-1	3.811527E-1	3.859495E-1	4.255083E-1	3.819821E-1	3.924529E-1	3.886758E-1	3.864504E-1	4.172055E-1	4.124736E-1	3.888967E-1	3.664952E-1	3.759681E-1	3.933602E-1	3.953804E-1	4.362135E-1	3.552410E-1	3.499741E-1	3.418303E-1	3.770426E-1	3.897318E-1	3.891034E-1	3.861178E-1
5.420110E+2	4.924912E-1	4.886174E-1	4.850138E-1	5.296480E-1	4.622086E-1	5.078315E-1	5.072624E-1	5.332099E-1	4.394828E-1	4.508822E-1	4.919749E-1	5.253814E-1	4.820300E-1	5.152085E-1	4.553678E-1	4.726492E-1	4.783721E-1	5.095397E-1	5.238218E-1	4.880496E-1	4.962057E-1	4.920444E-1	5.199068E-1	4.749010E-1	4.882641E-1	4.908779E-1	4.879990E-1	4.763406E-1	5.047594E-1	5.307962E-1	4.661908E-1	4.286894E-1	4.481027E-1	5.018862E-1	4.815174E-1	4.502781E-1	4.410324E-1	4.961058E-1	4.675503E-1	4.738125E-1	4.643693E-1	4.628362E-1	5.214566E-1	4.976789E-1	5.035834E-1	5.084079E-1	4.453924E-1	4.403397E-1	4.842119E-1	5.115097E-1	4.782272E-1	4.723500E-1	4.684517E-1	5.036934E-1	4.874143E-1	5.290014E-1	4.155982E-1	5.212480E-1	5.216271E-1	4.894532E-1	5.460968E-1	5.087912E-1	4.862494E-1	4.745373E-1	4.590613E-1	5.161251E-1	4.829082E-1	4.597863E-1	4.769915E-1	5.043514E-1	4.812916E-1	5.386133E-1	4.683136E-1	4.903247E-1	5.217263E-1	5.081979E-1	5.286005E-1	4.944840E-1	5.136425E-1	4.956488E-1	4.839389E-1	4.791485E-1	4.888504E-1	5.022821E-1	4.881434E-1	4.900992E-1	4.946432E-1	5.203374E-1	4.714339E-1	5.068545E-1	4.743072E-1	4.932913E-1	5.294738E-1	4.599168E-1	4.838106E-1	4.665448E-1	4.597877E-1	4.721027E-1	4.715836E-1	4.751151E-1	4.864144E-1	5.263428E-1	5.065130E-1	5.134185E-1	4.945633E-1	5.011541E-1	4.872726E-1	4.947115E-1	5.261457E-1	4.589935E-1	4.924521E-1	4.716108E-1	5.120014E-1	4.767805E-1	5.018031E-1	4.708054E-1	4.562271E-1	5.113933E-1	4.942685E-1	5.205209E-1	4.695772E-1	4.530187E-1	4.781608E-1	4.739697E-1	5.415162E-1	4.721497E-1	4.592347E-1	4.889296E-1	4.644059E-1	4.764301E-1	4.756212E-1	4.630514E-1	4.426130E-1	5.258790E-1	4.459934E-1	5.166092E-1	4.474589E-1	5.001622E-1	5.128411E-1	5.368790E-1	4.999738E-1	4.792745E-1	4.776824E-1	5.574827E-1	5.037370E-1	5.083464E-1	5.207044E-1	4.825590E-1	5.153640E-1	5.242948E-1	5.119155E-1	5.102487E-1	5.213111E-1	4.977017E-1	5.232566E-1	5.210503E-1	5.282958E-1	4.543210E-1	4.667535E-1	4.498033E-1	5.037370E-1	5.352242E-1	4.961216E-1	4.486029E-1
5.425080E+2	6.781626E-1	7.149913E-1	7.107911E-1	7.500012E-1	6.771622E-1	6.648580E-1	7.165033E-1	7.387562E-1	6.554526E-1	7.010245E-1	6.909609E-1	6.979671E-1	6.947045E-1	7.418611E-1	6.934491E-1	6.430539E-1	7.066980E-1	6.588525E-1	6.872668E-1	6.220827E-1	6.516656E-1	7.478358E-1	7.385963E-1	6.535871E-1	7.238845E-1	6.868979E-1	7.278184E-1	7.219643E-1	6.749208E-1	6.869665E-1	6.448067E-1	6.572365E-1	6.475240E-1	7.461761E-1	7.009696E-1	6.349122E-1	6.094854E-1	7.034169E-1	6.736633E-1	7.054186E-1	6.274944E-1	7.414302E-1	7.057753E-1	6.856847E-1	6.857913E-1	6.998243E-1	6.386709E-1	6.433888E-1	6.506976E-1	7.019309E-1	6.338583E-1	6.567990E-1	6.613628E-1	7.192794E-1	6.813443E-1	7.193079E-1	6.339510E-1	7.387700E-1	7.408102E-1	7.360480E-1	7.104967E-1	7.545683E-1	6.928289E-1	6.367901E-1	6.933003E-1	7.271543E-1	6.954580E-1	6.249111E-1	6.664791E-1	6.865070E-1	7.120665E-1	7.039278E-1	6.303204E-1	7.152522E-1	6.479037E-1	7.690639E-1	7.704743E-1	7.363317E-1	6.699486E-1	6.873725E-1	6.709174E-1	7.006347E-1	6.735166E-1	6.878067E-1	6.499724E-1	7.038768E-1	7.015477E-1	7.311644E-1	6.535344E-1	7.500832E-1	6.881926E-1	6.803027E-1	6.523885E-1	7.171327E-1	6.393894E-1	6.739379E-1	6.982791E-1	6.817687E-1	6.608603E-1	6.230102E-1	6.451904E-1	7.469900E-1	7.472959E-1	6.850282E-1	6.746232E-1	7.850687E-1	6.758950E-1	6.713369E-1	7.093725E-1	7.084548E-1	6.829409E-1	7.067772E-1	6.933235E-1	7.095463E-1	6.503507E-1	6.251620E-1	6.436877E-1	7.637740E-1	7.386753E-1	7.180241E-1	6.532380E-1	6.635230E-1	7.441052E-1	6.747810E-1	7.166397E-1	6.499911E-1	6.604482E-1	6.168579E-1	7.301477E-1	6.771842E-1	6.875873E-1	6.492441E-1	6.365522E-1	7.366825E-1	7.016163E-1	6.615340E-1	6.524267E-1	6.500115E-1	7.438732E-1	7.074290E-1	6.898016E-1	6.344801E-1	6.750018E-1	6.718375E-1	6.837379E-1	6.516622E-1	6.757656E-1	7.191446E-1	7.009690E-1	7.012268E-1	6.971348E-1	7.628135E-1	7.003396E-1	6.336742E-1	7.148004E-1	7.437272E-1	7.344991E-1	6.294552E-1	5.994904E-1	6.590831E-1	7.411847E-1	6.774846E-1	6.046900E-1	5.273882E-1
5.430120E+2	8.838644E-1	9.321076E-1	9.186078E-1	9.947457E-1	8.951657E-1	8.819714E-1	9.657573E-1	9.517896E-1	8.205205E-1	9.640457E-1	9.119038E-1	9.093669E-1	9.628257E-1	9.737536E-1	9.252663E-1	8.730037E-1	9.350232E-1	8.918623E-1	9.361656E-1	8.036991E-1	8.909396E-1	9.670868E-1	9.979900E-1	9.008450E-1	8.403320E-1	9.100694E-1	9.298068E-1	9.519704E-1	9.858572E-1	9.265158E-1	8.796173E-1	8.752751E-1	8.639606E-1	9.233765E-1	8.831555E-1	8.813371E-1	7.997379E-1	9.735052E-1	9.094279E-1	9.421866E-1	8.295545E-1	9.589523E-1	9.448138E-1	8.785476E-1	9.469090E-1	9.495311E-1	8.646262E-1	8.726187E-1	8.795292E-1	8.601761E-1	8.740714E-1	8.534978E-1	8.378141E-1	9.266269E-1	9.401483E-1	9.605513E-1	9.039802E-1	9.508038E-1	9.514534E-1	9.348178E-1	9.242914E-1	9.525547E-1	8.706970E-1	8.697688E-1	8.551794E-1	9.462445E-1	8.904167E-1	8.412809E-1	8.867779E-1	9.427090E-1	9.029735E-1	9.121018E-1	8.533529E-1	9.239563E-1	9.407893E-1	1.015985E+0	9.295441E-1	1.005712E+0	9.373720E-1	9.519821E-1	8.748301E-1	9.715118E-1	9.131249E-1	8.675786E-1	8.618578E-1	1.007501E+0	9.198113E-1	9.700013E-1	8.669338E-1	9.277393E-1	9.334674E-1	9.268531E-1	9.482690E-1	9.275119E-1	8.066546E-1	8.705299E-1	8.759382E-1	9.653499E-1	8.701361E-1	8.251343E-1	8.775461E-1	9.622554E-1	9.121572E-1	8.891245E-1	9.110376E-1	1.003935E+0	8.889261E-1	8.814363E-1	1.028937E+0	9.647606E-1	8.337761E-1	8.976373E-1	9.533881E-1	9.951131E-1	8.336810E-1	8.981983E-1	8.351518E-1	9.494588E-1	9.266810E-1	9.690495E-1	8.566540E-1	9.109206E-1	8.447326E-1	9.152975E-1	1.003494E+0	1.022410E+0	8.720692E-1	8.376370E-1	9.489070E-1	1.024725E+0	8.835696E-1	8.215416E-1	8.345452E-1	9.286640E-1	8.926147E-1	9.347994E-1	8.617555E-1	9.686313E-1	9.393087E-1	9.040464E-1	9.041961E-1	9.569474E-1	8.673527E-1	9.336509E-1	9.115878E-1	1.004558E+0	8.996624E-1	9.174257E-1	8.834667E-1	9.588636E-1	9.233459E-1	9.721464E-1	8.925750E-1	9.540256E-1	8.769872E-1	8.943836E-1	1.009962E+0	9.371626E-1	8.765687E-1	8.350384E-1	9.098316E-1	9.501480E-1	8.761130E-1	8.615479E-1
5.435330E+2	9.385639E-1	9.985899E-1	1.019523E+0	1.072962E+0	8.966901E-1	9.388531E-1	9.699261E-1	1.034173E+0	9.077813E-1	9.254058E-1	9.530732E-1	9.911545E-1	1.063845E+0	9.966811E-1	1.010197E+0	8.761719E-1	1.011851E+0	9.514530E-1	9.612588E-1	8.673640E-1	9.794840E-1	1.038817E+0	1.035933E+0	9.450224E-1	9.268173E-1	1.018013E+0	1.000065E+0	9.519701E-1	1.008409E+0	9.999685E-1	9.659144E-1	9.547407E-1	8.857399E-1	1.037135E+0	9.390546E-1	9.078189E-1	9.087368E-1	9.793451E-1	9.940419E-1	9.215337E-1	9.315919E-1	9.527770E-1	9.656937E-1	9.458417E-1	9.942543E-1	1.101370E+0	8.611496E-1	8.630405E-1	8.952863E-1	9.672062E-1	9.004608E-1	9.052253E-1	8.997039E-1	9.925389E-1	9.863880E-1	9.938016E-1	9.964158E-1	9.789374E-1	1.028309E+0	1.016269E+0	1.003911E+0	1.019461E+0	9.715362E-1	9.065182E-1	9.372376E-1	1.037837E+0	9.299946E-1	8.455512E-1	8.621281E-1	9.989844E-1	9.988106E-1	9.733293E-1	9.456173E-1	1.012453E+0	9.476719E-1	1.034853E+0	9.556924E-1	1.051849E+0	9.640403E-1	9.900103E-1	9.030535E-1	1.020130E+0	9.398327E-1	9.351727E-1	9.283720E-1	9.672256E-1	1.035029E+0	1.017179E+0	9.736330E-1	9.902624E-1	9.429575E-1	9.436455E-1	9.453233E-1	9.336541E-1	9.096438E-1	9.108564E-1	9.796301E-1	1.002309E+0	8.679930E-1	8.575302E-1	8.685105E-1	1.070657E+0	9.757874E-1	9.117232E-1	9.460865E-1	1.016945E+0	8.918846E-1	9.733096E-1	1.023166E+0	1.043098E+0	9.255224E-1	9.187682E-1	9.360511E-1	1.018167E+0	9.141151E-1	9.018382E-1	9.425574E-1	1.011606E+0	1.010156E+0	1.130370E+0	9.012888E-1	1.032450E+0	9.266723E-1	9.588198E-1	1.018550E+0	1.022410E+0	9.657371E-1	8.775284E-1	9.261498E-1	1.089484E+0	9.461167E-1	8.708692E-1	8.608998E-1	1.032560E+0	1.046276E+0	9.679662E-1	9.002782E-1	1.011770E+0	9.839796E-1	1.023953E+0	9.697051E-1	1.029276E+0	9.709796E-1	1.051016E+0	9.731064E-1	9.745070E-1	9.351669E-1	9.639919E-1	9.642319E-1	1.013961E+0	1.042524E+0	9.706294E-1	9.996997E-1	1.030910E+0	9.503756E-1	9.730183E-1	1.034360E+0	1.017404E+0	9.215395E-1	9.076859E-1	1.009677E+0	1.066542E+0	8.637056E-1	8.615483E-1
5.440170E+2	9.362536E-1	9.523046E-1	9.989987E-1	1.017454E+0	9.020258E-1	9.781088E-1	1.043285E+0	9.958949E-1	9.797706E-1	9.464206E-1	1.012083E+0	9.544189E-1	1.039540E+0	9.973361E-1	9.371015E-1	8.527334E-1	9.730779E-1	9.755576E-1	9.863519E-1	8.693747E-1	9.308186E-1	1.023252E+0	1.002129E+0	9.826055E-1	9.254545E-1	9.749680E-1	9.284559E-1	9.725574E-1	9.421214E-1	1.004601E+0	9.097209E-1	9.186205E-1	8.830179E-1	9.802554E-1	9.135204E-1	8.776598E-1	8.664584E-1	1.024603E+0	9.304002E-1	9.429238E-1	8.778879E-1	8.944507E-1	9.203339E-1	9.368229E-1	9.662778E-1	1.042361E+0	9.021692E-1	8.860278E-1	9.494115E-1	9.915012E-1	9.302332E-1	8.970577E-1	8.904864E-1	9.774339E-1	9.925993E-1	9.732851E-1	9.309108E-1	9.240424E-1	1.002691E+0	9.482685E-1	1.033399E+0	9.996619E-1	9.085115E-1	9.217728E-1	9.081449E-1	9.425809E-1	9.241315E-1	8.640573E-1	9.453182E-1	9.397467E-1	9.804093E-1	9.939942E-1	9.085666E-1	9.623044E-1	9.614363E-1	9.331309E-1	1.010169E+0	9.938060E-1	9.084813E-1	9.955557E-1	9.355098E-1	1.034023E+0	9.467012E-1	8.611063E-1	8.872294E-1	9.757446E-1	1.078032E+0	1.029711E+0	9.131698E-1	1.010086E+0	8.976980E-1	9.268531E-1	9.659332E-1	1.006596E+0	8.862703E-1	8.892528E-1	9.644223E-1	1.031448E+0	8.615647E-1	9.082375E-1	9.143361E-1	1.003770E+0	9.692793E-1	9.166670E-1	9.859473E-1	9.251127E-1	9.125963E-1	9.448215E-1	9.510298E-1	1.048421E+0	9.317426E-1	9.617118E-1	9.613343E-1	1.009242E+0	8.786080E-1	9.105753E-1	9.158726E-1	1.012365E+0	1.004892E+0	1.014280E+0	8.690930E-1	1.020151E+0	9.252346E-1	9.550019E-1	1.062925E+0	1.001488E+0	8.998228E-1	8.809675E-1	9.268839E-1	1.066459E+0	8.939945E-1	8.389110E-1	8.946870E-1	1.016749E+0	9.708816E-1	9.722925E-1	9.315314E-1	1.009499E+0	9.707185E-1	9.829912E-1	9.540723E-1	9.757830E-1	9.092296E-1	9.848097E-1	1.020955E+0	1.030755E+0	9.257476E-1	9.572319E-1	9.525832E-1	1.005424E+0	9.909052E-1	1.016895E+0	9.505395E-1	1.071488E+0	9.173512E-1	9.465622E-1	1.024128E+0	1.050895E+0	8.432030E-1	8.736955E-1	9.660472E-1	1.004034E+0	8.885206E-1	8.479648E-1
5.445020E+2	9.470394E-1	9.026544E-1	8.886754E-1	1.007362E+0	9.538581E-1	9.220286E-1	9.215755E-1	1.010873E+0	8.866933E-1	9.437092E-1	9.530735E-1	9.225364E-1	9.704211E-1	9.619625E-1	9.552017E-1	8.844065E-1	9.106120E-1	8.657493E-1	9.178539E-1	8.774167E-1	8.713382E-1	9.582888E-1	1.029724E+0	9.048022E-1	9.043445E-1	9.060965E-1	8.994078E-1	9.193148E-1	8.751506E-1	9.675428E-1	9.083821E-1	8.293030E-1	8.510289E-1	9.773388E-1	8.734949E-1	8.372021E-1	8.142710E-1	9.713156E-1	9.238911E-1	9.333353E-1	7.892765E-1	9.150360E-1	9.649737E-1	9.021349E-1	1.008601E+0	9.279425E-1	8.382067E-1	8.949663E-1	8.726775E-1	9.514475E-1	9.180540E-1	8.943356E-1	8.990451E-1	9.369260E-1	9.435991E-1	9.471085E-1	8.988851E-1	9.720752E-1	9.215644E-1	9.124001E-1	9.773704E-1	9.559684E-1	8.889038E-1	8.420335E-1	8.738288E-1	9.572358E-1	8.808889E-1	7.551599E-1	9.029533E-1	9.367858E-1	9.336403E-1	8.868451E-1	8.729684E-1	9.320682E-1	9.392592E-1	9.323107E-1	9.237336E-1	9.729697E-1	8.714421E-1	9.329681E-1	9.538551E-1	9.645666E-1	9.093093E-1	8.949034E-1	8.145440E-1	9.587053E-1	9.571356E-1	9.736865E-1	9.131701E-1	1.013899E+0	9.203276E-1	9.131138E-1	9.144121E-1	9.259758E-1	8.621665E-1	8.849320E-1	9.333148E-1	9.447391E-1	9.001345E-1	8.554178E-1	8.659279E-1	1.003771E+0	9.049259E-1	9.526841E-1	9.185969E-1	1.023067E+0	8.844877E-1	9.612021E-1	9.582429E-1	9.533530E-1	8.718750E-1	8.969557E-1	9.678361E-1	9.928819E-1	8.742604E-1	8.967420E-1	8.965265E-1	9.229326E-1	9.620265E-1	1.047448E+0	9.144591E-1	9.174306E-1	9.122966E-1	9.252234E-1	9.749670E-1	9.645245E-1	8.568050E-1	8.589584E-1	9.055955E-1	9.837108E-1	8.328360E-1	8.055624E-1	8.102188E-1	9.279109E-1	8.717918E-1	8.864914E-1	8.443111E-1	9.845251E-1	9.427986E-1	9.338370E-1	9.473730E-1	9.305774E-1	9.227156E-1	9.840573E-1	9.450058E-1	9.937700E-1	8.800979E-1	9.016534E-1	9.098712E-1	1.009305E+0	9.704100E-1	1.006277E+0	9.292615E-1	9.675508E-1	8.799231E-1	9.377428E-1	1.030424E+0	9.894946E-1	8.845471E-1	8.323727E-1	8.896938E-1	9.361377E-1	8.373373E-1	8.506833E-1
5.450090E+2	8.538183E-1	8.967624E-1	9.340021E-1	9.140056E-1	8.250385E-1	8.899820E-1	9.807627E-1	8.727338E-1	8.597880E-1	8.793093E-1	9.235685E-1	8.955047E-1	9.461151E-1	9.187280E-1	9.663396E-1	8.368960E-1	9.264077E-1	9.065925E-1	9.897427E-1	8.854585E-1	8.733656E-1	9.203941E-1	9.269328E-1	8.909551E-1	8.342030E-1	9.133803E-1	9.210250E-1	9.164761E-1	9.011187E-1	9.695291E-1	9.558797E-1	8.050031E-1	8.694053E-1	9.736923E-1	8.893667E-1	8.210187E-1	8.056829E-1	9.508758E-1	9.166589E-1	9.370231E-1	7.939761E-1	8.409273E-1	9.232147E-1	8.938097E-1	9.009978E-1	8.977195E-1	8.882638E-1	8.413310E-1	8.144418E-1	9.100806E-1	8.558014E-1	8.698326E-1	7.983102E-1	8.668946E-1	9.215143E-1	9.336675E-1	8.879675E-1	9.295314E-1	9.187176E-1	8.780264E-1	9.287140E-1	9.252462E-1	8.377848E-1	8.177642E-1	8.499572E-1	9.162017E-1	8.750252E-1	8.512453E-1	8.421017E-1	8.612570E-1	8.891726E-1	9.006208E-1	8.351908E-1	9.313307E-1	9.147889E-1	9.470765E-1	9.455236E-1	9.469252E-1	8.781093E-1	9.630741E-1	8.705964E-1	9.676533E-1	8.322381E-1	8.711742E-1	7.926011E-1	9.238502E-1	9.295477E-1	9.685267E-1	9.096133E-1	9.361271E-1	8.714189E-1	8.917402E-1	8.812907E-1	9.628316E-1	8.344108E-1	8.323640E-1	9.201804E-1	9.333673E-1	8.622785E-1	8.216131E-1	7.994494E-1	9.399593E-1	8.658803E-1	8.467519E-1	8.546820E-1	9.297047E-1	8.489823E-1	8.828599E-1	9.012561E-1	1.005070E+0	8.190041E-1	8.792325E-1	9.223246E-1	9.363640E-1	8.793327E-1	8.581533E-1	8.625029E-1	9.070170E-1	9.086326E-1	9.984490E-1	8.083611E-1	9.159842E-1	8.964837E-1	8.908645E-1	9.004801E-1	9.289567E-1	8.477847E-1	8.080625E-1	8.967861E-1	9.254275E-1	8.557701E-1	8.472474E-1	8.440055E-1	9.143590E-1	9.062581E-1	8.843276E-1	7.847108E-1	9.693886E-1	8.897522E-1	9.003225E-1	8.744188E-1	9.215365E-1	8.559953E-1	9.178520E-1	8.842448E-1	9.945403E-1	8.511153E-1	8.595938E-1	8.896800E-1	9.674002E-1	8.489546E-1	9.463597E-1	8.404809E-1	9.732462E-1	8.777212E-1	9.120200E-1	1.007601E+0	9.490245E-1	8.722165E-1	8.023802E-1	9.047973E-1	1.021278E+0	8.373377E-1	7.963468E-1
5.455130E+2	8.746193E-1	8.950806E-1	9.784731E-1	9.476467E-1	8.501924E-1	8.819712E-1	9.215756E-1	9.035240E-1	8.663319E-1	9.016796E-1	9.619938E-1	8.629288E-1	9.043401E-1	8.623927E-1	9.350131E-1	8.083897E-1	8.689673E-1	9.333751E-1	9.897433E-1	8.633434E-1	8.828287E-1	8.709960E-1	9.607365E-1	9.357913E-1	8.566760E-1	9.054334E-1	9.331850E-1	8.767213E-1	8.901848E-1	9.311478E-1	9.732729E-1	8.240492E-1	8.653220E-1	9.117084E-1	9.197318E-1	8.143984E-1	8.638158E-1	9.399264E-1	9.535422E-1	9.023559E-1	8.174714E-1	9.047440E-1	9.361737E-1	9.465349E-1	9.088893E-1	9.452131E-1	9.953317E-1	8.464388E-1	8.658263E-1	8.903814E-1	9.370001E-1	8.269538E-1	8.364973E-1	9.575233E-1	9.608525E-1	8.933425E-1	9.236315E-1	9.048284E-1	9.777833E-1	9.138949E-1	9.368238E-1	9.361701E-1	9.659337E-1	8.822499E-1	8.507033E-1	9.784846E-1	9.343924E-1	8.106759E-1	8.028172E-1	9.375259E-1	9.267404E-1	9.649102E-1	8.766007E-1	9.431308E-1	9.247303E-1	9.733276E-1	9.636832E-1	1.016130E+0	9.025549E-1	9.202924E-1	9.242212E-1	9.514469E-1	9.138877E-1	8.589495E-1	8.762575E-1	9.246251E-1	9.238683E-1	9.729500E-1	8.484388E-1	8.995282E-1	9.064577E-1	9.230361E-1	8.915949E-1	9.697412E-1	8.439059E-1	8.100399E-1	9.201805E-1	9.298135E-1	8.379945E-1	8.110488E-1	8.401106E-1	9.161273E-1	9.193880E-1	8.792373E-1	8.567445E-1	9.312356E-1	8.593382E-1	8.842841E-1	9.423732E-1	9.054386E-1	8.532143E-1	8.771881E-1	9.403846E-1	9.237215E-1	8.771584E-1	8.981982E-1	8.605017E-1	8.767013E-1	9.387135E-1	9.811111E-1	8.515318E-1	9.622804E-1	9.144533E-1	8.916279E-1	9.393082E-1	9.575507E-1	8.533355E-1	8.878449E-1	9.129360E-1	9.642828E-1	9.065037E-1	8.396055E-1	8.244088E-1	9.422156E-1	8.660476E-1	8.828858E-1	8.922819E-1	9.224660E-1	9.120875E-1	9.271336E-1	9.086637E-1	9.358511E-1	8.950344E-1	8.982910E-1	9.533597E-1	9.259649E-1	8.489414E-1	8.918889E-1	8.982225E-1	9.596398E-1	9.635782E-1	9.456012E-1	9.021141E-1	9.526019E-1	8.586404E-1	9.267192E-1	9.910726E-1	9.413486E-1	7.946057E-1	8.270411E-1	9.719196E-1	9.329044E-1	8.885209E-1	8.995850E-1
5.460060E+2	9.085177E-1	9.901740E-1	9.741968E-1	9.871759E-1	9.187950E-1	9.412569E-1	9.807622E-1	9.784188E-1	8.554251E-1	9.640457E-1	9.715994E-1	8.871875E-1	9.316835E-1	9.220032E-1	9.837434E-1	8.780719E-1	9.034319E-1	9.240006E-1	9.795701E-1	8.646840E-1	9.139211E-1	9.630263E-1	9.634954E-1	9.166700E-1	9.220500E-1	1.006092E+0	1.004118E+0	9.555194E-1	8.977021E-1	9.278392E-1	9.752798E-1	8.529453E-1	9.476770E-1	9.627540E-1	9.852903E-1	8.658904E-1	8.453194E-1	9.990542E-1	9.745157E-1	9.097325E-1	9.195083E-1	9.342495E-1	9.484144E-1	9.597162E-1	9.239544E-1	9.999039E-1	9.529222E-1	8.770881E-1	9.514669E-1	9.278091E-1	9.633893E-1	8.487340E-1	8.812687E-1	9.925391E-1	9.511905E-1	9.612584E-1	8.930623E-1	9.885437E-1	1.005537E+0	9.781589E-1	9.382979E-1	1.035162E+0	9.911433E-1	8.434195E-1	9.238104E-1	9.799509E-1	9.878961E-1	8.733089E-1	9.083448E-1	9.826942E-1	1.033311E+0	9.672066E-1	8.758744E-1	9.615668E-1	1.011144E+0	9.823506E-1	9.302707E-1	1.006456E+0	1.012932E+0	1.020908E+0	8.967032E-1	1.023990E+0	1.045902E+0	8.819608E-1	9.174006E-1	1.000531E+0	1.026104E+0	9.287204E-1	8.640888E-1	1.020761E+0	9.816467E-1	9.726522E-1	9.504761E-1	1.035005E+0	9.826855E-1	8.143604E-1	9.478308E-1	9.930688E-1	9.751306E-1	8.286555E-1	8.794829E-1	1.016072E+0	9.613264E-1	9.463281E-1	8.711757E-1	9.740905E-1	9.791691E-1	9.533677E-1	9.647354E-1	1.040056E+0	1.005605E+0	9.126340E-1	9.801173E-1	1.002550E+0	1.032954E+0	8.414068E-1	8.798482E-1	9.896281E-1	9.447302E-1	1.015788E+0	8.881182E-1	9.658971E-1	9.460790E-1	9.023176E-1	9.725902E-1	1.046122E+0	9.136992E-1	8.857820E-1	9.261497E-1	9.937841E-1	9.280476E-1	8.583634E-1	8.608994E-1	9.858821E-1	9.392877E-1	9.420098E-1	8.886486E-1	9.807409E-1	8.855641E-1	9.785225E-1	9.697057E-1	9.750297E-1	9.482668E-1	1.031455E+0	9.343716E-1	9.706542E-1	8.960392E-1	9.159242E-1	9.440407E-1	1.036465E+0	9.613009E-1	1.058610E+0	9.226580E-1	9.533132E-1	9.254240E-1	9.553805E-1	9.784794E-1	9.804232E-1	9.425739E-1	9.050204E-1	9.274509E-1	9.770914E-1	9.179897E-1	8.669830E-1
5.465380E+2	8.777011E-1	9.253757E-1	9.032145E-1	1.009043E+0	8.418081E-1	8.979939E-1	8.657218E-1	9.326505E-1	8.474255E-1	9.315071E-1	9.400364E-1	9.190712E-1	9.240885E-1	9.075920E-1	9.503283E-1	8.052229E-1	9.127657E-1	8.911923E-1	9.571900E-1	7.916352E-1	8.179412E-1	9.115973E-1	9.835025E-1	8.929336E-1	8.546332E-1	9.246384E-1	9.872283E-1	9.100862E-1	8.737833E-1	8.987226E-1	9.672528E-1	8.194526E-1	8.217624E-1	9.758801E-1	9.563068E-1	8.680971E-1	8.288038E-1	8.829891E-1	9.137665E-1	8.632642E-1	8.543923E-1	9.150363E-1	9.131344E-1	8.847911E-1	9.476262E-1	9.639237E-1	9.452739E-1	8.381381E-1	8.932310E-1	8.811886E-1	9.640661E-1	8.766386E-1	8.615171E-1	9.485980E-1	1.027797E+0	8.466506E-1	9.047077E-1	8.780672E-1	9.614164E-1	9.124004E-1	9.058603E-1	9.470929E-1	9.715359E-1	8.427262E-1	8.551792E-1	9.257279E-1	9.791007E-1	8.007116E-1	8.343983E-1	8.797690E-1	9.121735E-1	8.960300E-1	8.802332E-1	9.512425E-1	9.759665E-1	9.593816E-1	9.404393E-1	9.766904E-1	9.492245E-1	9.305920E-1	8.889414E-1	9.514473E-1	9.123619E-1	8.546348E-1	8.447150E-1	9.106824E-1	9.473990E-1	9.648409E-1	8.270993E-1	9.612889E-1	9.758067E-1	9.306689E-1	8.952754E-1	9.751160E-1	9.498171E-1	8.086001E-1	8.911464E-1	9.177315E-1	9.565602E-1	8.258389E-1	8.426928E-1	9.707122E-1	1.000372E+0	8.255652E-1	8.533076E-1	9.748557E-1	9.199932E-1	8.857093E-1	9.474231E-1	9.761690E-1	9.418495E-1	8.512856E-1	8.955960E-1	9.363642E-1	9.967222E-1	8.778109E-1	8.304813E-1	8.964066E-1	9.514980E-1	9.667884E-1	8.500686E-1	9.615573E-1	9.525480E-1	9.183518E-1	9.583259E-1	9.171004E-1	9.962662E-1	8.197543E-1	8.593478E-1	8.995240E-1	9.975449E-1	8.180686E-1	7.581855E-1	9.497443E-1	9.313897E-1	9.232629E-1	8.421310E-1	9.224656E-1	9.204629E-1	9.085151E-1	9.451394E-1	9.215358E-1	9.759485E-1	9.411743E-1	8.561432E-1	9.429159E-1	9.098068E-1	8.933911E-1	8.718182E-1	9.658482E-1	9.392866E-1	9.395331E-1	8.536879E-1	9.960271E-1	9.151493E-1	8.561676E-1	9.784799E-1	9.134394E-1	8.562592E-1	8.163768E-1	9.089923E-1	9.027279E-1	8.962762E-1	8.207981E-1
5.470110E+2	8.430326E-1	9.186425E-1	9.126211E-1	9.400772E-1	8.052202E-1	8.451177E-1	9.140731E-1	9.209997E-1	8.299738E-1	8.494820E-1	9.427808E-1	9.100605E-1	9.385192E-1	8.728738E-1	9.259629E-1	8.223261E-1	8.768656E-1	8.885141E-1	9.741446E-1	8.211231E-1	8.429497E-1	9.034770E-1	8.917487E-1	8.718341E-1	8.403321E-1	8.961629E-1	9.446694E-1	8.887896E-1	8.642156E-1	8.325491E-1	9.491904E-1	8.214221E-1	7.877312E-1	9.773380E-1	9.314630E-1	8.077780E-1	7.779380E-1	8.749603E-1	9.774083E-1	8.662143E-1	8.295546E-1	8.903331E-1	9.347336E-1	8.452473E-1	9.641253E-1	9.293823E-1	9.438837E-1	8.323915E-1	8.692518E-1	8.628030E-1	9.058741E-1	8.323989E-1	8.463737E-1	9.170153E-1	9.256558E-1	9.195186E-1	8.603103E-1	9.164942E-1	9.329512E-1	8.698060E-1	9.309256E-1	9.348047E-1	9.295200E-1	8.649149E-1	8.148963E-1	9.587007E-1	9.131369E-1	7.423491E-1	8.559661E-1	9.123498E-1	9.719759E-1	9.304707E-1	8.736952E-1	9.704166E-1	8.964358E-1	9.183651E-1	9.150167E-1	9.290657E-1	9.795961E-1	8.450288E-1	8.571909E-1	9.236645E-1	9.505164E-1	8.373774E-1	8.001429E-1	9.331447E-1	9.433420E-1	9.537841E-1	8.413260E-1	9.109646E-1	8.633891E-1	8.802908E-1	8.849706E-1	9.075487E-1	9.753810E-1	7.812356E-1	8.918379E-1	9.191528E-1	9.458464E-1	7.849907E-1	8.355930E-1	9.422669E-1	9.801254E-1	8.566384E-1	8.691150E-1	9.266444E-1	9.473618E-1	8.451138E-1	9.690640E-1	9.814941E-1	9.504031E-1	8.219750E-1	8.833155E-1	9.423134E-1	8.988977E-1	8.574248E-1	8.331503E-1	9.032269E-1	9.612744E-1	9.577435E-1	8.734838E-1	9.449197E-1	9.403288E-1	8.503963E-1	9.337621E-1	9.219822E-1	9.463098E-1	7.805504E-1	8.476025E-1	9.664413E-1	9.530665E-1	7.763834E-1	8.237332E-1	8.721986E-1	8.883067E-1	8.619771E-1	8.414043E-1	8.914360E-1	9.148795E-1	8.846823E-1	9.101513E-1	9.494125E-1	9.596238E-1	9.050625E-1	8.409536E-1	9.105550E-1	9.409638E-1	9.136708E-1	8.322121E-1	8.890220E-1	9.514324E-1	8.796149E-1	8.551555E-1	9.098873E-1	9.562468E-1	8.921787E-1	9.894989E-1	9.232081E-1	9.527284E-1	7.683886E-1	9.232560E-1	9.544592E-1	9.195406E-1	7.338604E-1
5.475070E+2	8.985023E-1	9.741848E-1	1.018668E+0	9.232566E-1	8.296121E-1	8.859765E-1	9.657579E-1	9.459645E-1	9.361408E-1	9.464210E-1	1.011397E+0	9.045154E-1	9.468752E-1	9.613079E-1	1.017159E+0	8.799721E-1	8.732755E-1	9.347143E-1	9.910994E-1	8.901493E-1	8.652548E-1	9.603197E-1	9.607361E-1	9.832654E-1	9.111548E-1	9.623852E-1	9.649361E-1	9.193147E-1	9.257205E-1	9.457062E-1	9.839767E-1	8.325867E-1	8.660022E-1	1.013800E+0	9.369840E-1	8.791312E-1	8.459798E-1	9.326269E-1	9.571587E-1	9.141577E-1	8.436519E-1	9.218985E-1	9.973741E-1	9.312725E-1	9.741679E-1	9.891100E-1	1.007151E+0	9.007135E-1	8.802138E-1	9.258392E-1	9.863959E-1	8.582618E-1	8.483485E-1	9.286866E-1	9.981208E-1	9.273009E-1	8.945183E-1	9.940336E-1	1.029732E+0	9.243565E-1	9.707359E-1	1.026970E+0	1.007250E+0	8.725421E-1	8.962080E-1	9.682266E-1	9.571132E-1	8.462633E-1	8.736825E-1	9.530754E-1	1.021811E+0	9.427151E-1	9.325401E-1	1.019827E+0	1.021084E+0	1.011883E+0	9.600508E-1	9.640400E-1	1.012932E+0	9.496054E-1	9.446825E-1	1.020902E+0	9.680667E-1	8.718931E-1	8.666578E-1	9.757450E-1	9.863454E-1	9.648406E-1	8.832943E-1	9.872130E-1	9.575572E-1	9.863916E-1	9.585725E-1	1.054968E+0	9.848766E-1	9.245387E-1	9.236360E-1	9.660604E-1	1.030842E+0	7.899216E-1	8.562467E-1	1.026834E+0	9.888026E-1	9.420902E-1	8.966045E-1	1.003935E+0	1.022071E+0	9.448219E-1	9.943114E-1	9.533524E-1	1.048368E+0	9.221764E-1	9.425516E-1	1.012961E+0	9.445488E-1	8.443194E-1	8.818493E-1	9.653748E-1	9.906031E-1	9.931717E-1	8.551904E-1	9.716845E-1	9.568601E-1	8.977356E-1	9.931931E-1	1.021015E+0	1.050386E+0	8.321344E-1	9.166067E-1	9.959435E-1	1.002409E+0	8.611428E-1	8.345453E-1	1.006963E+0	9.062580E-1	8.944223E-1	8.326821E-1	9.860389E-1	9.790944E-1	9.599031E-1	9.399290E-1	9.863302E-1	1.041959E+0	9.562211E-1	9.867769E-1	1.065428E+0	9.757438E-1	9.715019E-1	9.393811E-1	1.011633E+0	1.015956E+0	9.880742E-1	9.101846E-1	9.817892E-1	9.929401E-1	8.716004E-1	1.024915E+0	9.657706E-1	9.766648E-1	8.716958E-1	9.316460E-1	9.911016E-1	9.893344E-1	8.506819E-1
5.480090E+2	9.454979E-1	1.017103E+0	9.981433E-1	1.107446E+0	9.332776E-1	9.981382E-1	1.032449E+0	9.692652E-1	9.470484E-1	1.013532E+0	1.022375E+0	9.641230E-1	9.856121E-1	9.803044E-1	1.025512E+0	9.122787E-1	9.989267E-1	1.009036E+0	1.027722E+0	9.236586E-1	9.619110E-1	1.005658E+0	1.076635E+0	9.562308E-1	1.011259E+0	1.025960E+0	1.013576E+0	1.015151E+0	9.626232E-1	1.025115E+0	1.074288E+0	9.291282E-1	9.429125E-1	1.032759E+0	1.039119E+0	8.872229E-1	8.770283E-1	9.873753E-1	1.069256E+0	9.384985E-1	8.913138E-1	9.829691E-1	1.011773E+0	9.985659E-1	1.011470E+0	1.032287E+0	1.075285E+0	8.904970E-1	9.377641E-1	9.317489E-1	1.097368E+0	8.875293E-1	8.911448E-1	1.030987E+0	1.054713E+0	1.014317E+0	9.185369E-1	1.012561E+0	1.094491E+0	9.975881E-1	1.026765E+0	9.866908E-1	1.089181E+0	9.099850E-1	9.872188E-1	1.101586E+0	1.035537E+0	9.352311E-1	9.222096E-1	9.900993E-1	1.050945E+0	9.710333E-1	9.201903E-1	1.003603E+0	1.078438E+0	1.057823E+0	9.600504E-1	1.026549E+0	1.057379E+0	9.646588E-1	9.849007E-1	1.067978E+0	1.099317E+0	9.114429E-1	9.153431E-1	1.060946E+0	1.050445E+0	9.965392E-1	9.629636E-1	1.094721E+0	1.037855E+0	1.019214E+0	9.629884E-1	1.008131E+0	1.075448E+0	9.360608E-1	9.906908E-1	1.057035E+0	1.039413E+0	8.849967E-1	8.678646E-1	1.022991E+0	1.039418E+0	1.006356E+0	9.550206E-1	1.009293E+0	1.082726E+0	1.028149E+0	1.018116E+0	1.009634E+0	1.130006E+0	9.862504E-1	9.923979E-1	1.047913E+0	1.014837E+0	9.367871E-1	8.958595E-1	1.022975E+0	1.107167E+0	1.057248E+0	9.166543E-1	1.051980E+0	1.019394E+0	9.924153E-1	1.022512E+0	1.013344E+0	1.021938E+0	8.623973E-1	9.782714E-1	1.041995E+0	1.025344E+0	9.716081E-1	9.433411E-1	1.010727E+0	1.039814E+0	9.780603E-1	9.075466E-1	1.076099E+0	1.008409E+0	1.044806E+0	9.831047E-1	1.038318E+0	1.099451E+0	9.675060E-1	1.008803E+0	1.073133E+0	9.880616E-1	9.662448E-1	9.634556E-1	1.037241E+0	9.909049E-1	1.001726E+0	9.395341E-1	9.810767E-1	1.039909E+0	1.006089E+0	1.105979E+0	1.004844E+0	1.036867E+0	8.983561E-1	9.308071E-1	1.118273E+0	1.049823E+0	9.620670E-1
5.485450E+2	1.141185E+0	1.178679E+0	1.224775E+0	1.267243E+0	1.065908E+0	1.189614E+0	1.180834E+0	1.238055E+0	1.162291E+0	1.156567E+0	1.233712E+0	1.246914E+0	1.219554E+0	1.211542E+0	1.287263E+0	1.221414E+0	1.174838E+0	1.181784E+0	1.239320E+0	1.235956E+0	1.188342E+0	1.163329E+0	1.293946E+0	1.232501E+0	1.099106E+0	1.180921E+0	1.309466E+0	1.267164E+0	1.162169E+0	1.223636E+0	1.303077E+0	1.179347E+0	1.085842E+0	1.274131E+0	1.235107E+0	1.184403E+0	1.106917E+0	1.254543E+0	1.196539E+0	1.259353E+0	1.037656E+0	1.155890E+0	1.244332E+0	1.167148E+0	1.248916E+0	1.253928E+0	1.294288E+0	1.196987E+0	1.178243E+0	1.172730E+0	1.247585E+0	1.063810E+0	1.082739E+0	1.221857E+0	1.318347E+0	1.234337E+0	1.219864E+0	1.244493E+0	1.274534E+0	1.161236E+0	1.195588E+0	1.220178E+0	1.224333E+0	1.124935E+0	1.095386E+0	1.191713E+0	1.237825E+0	1.112456E+0	1.117859E+0	1.170033E+0	1.299354E+0	1.142471E+0	1.082924E+0	1.196820E+0	1.297146E+0	1.218607E+0	1.195387E+0	1.270628E+0	1.235908E+0	1.179357E+0	1.152123E+0	1.270944E+0	1.260328E+0	1.120697E+0	1.117630E+0	1.227476E+0	1.212723E+0	1.223582E+0	1.150044E+0	1.248740E+0	1.288240E+0	1.194012E+0	1.219859E+0	1.246151E+0	1.233219E+0	1.067842E+0	1.135168E+0	1.257461E+0	1.277258E+0	1.093459E+0	1.109256E+0	1.236719E+0	1.253447E+0	1.098165E+0	1.140579E+0	1.188365E+0	1.208474E+0	1.175574E+0	1.183310E+0	1.274306E+0	1.288617E+0	1.145073E+0	1.181667E+0	1.203338E+0	1.254689E+0	1.127549E+0	1.118677E+0	1.246556E+0	1.280132E+0	1.247213E+0	1.143486E+0	1.170615E+0	1.224242E+0	1.100075E+0	1.253897E+0	1.256044E+0	1.194704E+0	1.105873E+0	1.147112E+0	1.208210E+0	1.299162E+0	1.075126E+0	1.048757E+0	1.271220E+0	1.248046E+0	1.197250E+0	1.063089E+0	1.232003E+0	1.240837E+0	1.146838E+0	1.202710E+0	1.215373E+0	1.222243E+0	1.221796E+0	1.187285E+0	1.305828E+0	1.238768E+0	1.097682E+0	1.140518E+0	1.280134E+0	1.257348E+0	1.275528E+0	1.132504E+0	1.211019E+0	1.224846E+0	1.189081E+0	1.294081E+0	1.219751E+0	1.245764E+0	1.100971E+0	1.213563E+0	1.199102E+0	1.287124E+0	1.144092E+0
5.490490E+2	1.456286E+0	1.495938E+0	1.517258E+0	1.464890E+0	1.411970E+0	1.462007E+0	1.556800E+0	1.468565E+0	1.354990E+0	1.498901E+0	1.543855E+0	1.523468E+0	1.468686E+0	1.455881E+0	1.604011E+0	1.529283E+0	1.502967E+0	1.508531E+0	1.530265E+0	1.537533E+0	1.404634E+0	1.450249E+0	1.532640E+0	1.556905E+0	1.434149E+0	1.481575E+0	1.541852E+0	1.523437E+0	1.424586E+0	1.487006E+0	1.553274E+0	1.505091E+0	1.411859E+0	1.554882E+0	1.567046E+0	1.552202E+0	1.320290E+0	1.529012E+0	1.494499E+0	1.520461E+0	1.392101E+0	1.420074E+0	1.561850E+0	1.563971E+0	1.555944E+0	1.547531E+0	1.527889E+0	1.527740E+0	1.418722E+0	1.448512E+0	1.558849E+0	1.555218E+0	1.420498E+0	1.475892E+0	1.553687E+0	1.563306E+0	1.303565E+0	1.470250E+0	1.556341E+0	1.493018E+0	1.525126E+0	1.549928E+0	1.545758E+0	1.488964E+0	1.413176E+0	1.548558E+0	1.522934E+0	1.443416E+0	1.291171E+0	1.475105E+0	1.594532E+0	1.492235E+0	1.320486E+0	1.514669E+0	1.489854E+0	1.563968E+0	1.530961E+0	1.549682E+0	1.616671E+0	1.490710E+0	1.404720E+0	1.528701E+0	1.517487E+0	1.409050E+0	1.374087E+0	1.441253E+0	1.562432E+0	1.570781E+0	1.317918E+0	1.520944E+0	1.461976E+0	1.451249E+0	1.428889E+0	1.444246E+0	1.507125E+0	1.309801E+0	1.473896E+0	1.464283E+0	1.499391E+0	1.285020E+0	1.339030E+0	1.511951E+0	1.482661E+0	1.421610E+0	1.420290E+0	1.499829E+0	1.558349E+0	1.459741E+0	1.532450E+0	1.573964E+0	1.493101E+0	1.373423E+0	1.492299E+0	1.481467E+0	1.510482E+0	1.414419E+0	1.379521E+0	1.516369E+0	1.506491E+0	1.526132E+0	1.354951E+0	1.494691E+0	1.542654E+0	1.460467E+0	1.502715E+0	1.499442E+0	1.528442E+0	1.308082E+0	1.401109E+0	1.585971E+0	1.600086E+0	1.294667E+0	1.352842E+0	1.524937E+0	1.497207E+0	1.389762E+0	1.297857E+0	1.474943E+0	1.485828E+0	1.485704E+0	1.527279E+0	1.454209E+0	1.512543E+0	1.541541E+0	1.443995E+0	1.504620E+0	1.481504E+0	1.426647E+0	1.443388E+0	1.581227E+0	1.495704E+0	1.588010E+0	1.391508E+0	1.485809E+0	1.508125E+0	1.338267E+0	1.541996E+0	1.477220E+0	1.518491E+0	1.368236E+0	1.421644E+0	1.465299E+0	1.474793E+0	1.388599E+0
5.495150E+2	1.639647E+0	1.718104E+0	1.690012E+0	1.784487E+0	1.572042E+0	1.753627E+0	1.740198E+0	1.775635E+0	1.650220E+0	1.605331E+0	1.720194E+0	1.759822E+0	1.748202E+0	1.757208E+0	1.750203E+0	1.714889E+0	1.654465E+0	1.694001E+0	1.764922E+0	1.721157E+0	1.540494E+0	1.660703E+0	1.756854E+0	1.725041E+0	1.561494E+0	1.677592E+0	1.757356E+0	1.724337E+0	1.676751E+0	1.731851E+0	1.774033E+0	1.749402E+0	1.490131E+0	1.794795E+0	1.780980E+0	1.694172E+0	1.516486E+0	1.720997E+0	1.658665E+0	1.766818E+0	1.512263E+0	1.665046E+0	1.782888E+0	1.793603E+0	1.807735E+0	1.702968E+0	1.694749E+0	1.727595E+0	1.614668E+0	1.617920E+0	1.640722E+0	1.764169E+0	1.546911E+0	1.703149E+0	1.748309E+0	1.747245E+0	1.634006E+0	1.728947E+0	1.721442E+0	1.720931E+0	1.670358E+0	1.735624E+0	1.720125E+0	1.771865E+0	1.575055E+0	1.743469E+0	1.783125E+0	1.723132E+0	1.507618E+0	1.608390E+0	1.740969E+0	1.785365E+0	1.503561E+0	1.678387E+0	1.792678E+0	1.760029E+0	1.671874E+0	1.740184E+0	1.840387E+0	1.779877E+0	1.563475E+0	1.726264E+0	1.754042E+0	1.680868E+0	1.520830E+0	1.707700E+0	1.760412E+0	1.739591E+0	1.665757E+0	1.711562E+0	1.734259E+0	1.781765E+0	1.673984E+0	1.739087E+0	1.686079E+0	1.760593E+0	1.668143E+0	1.762082E+0	1.789375E+0	1.672364E+0	1.566869E+0	1.741824E+0	1.703921E+0	1.769067E+0	1.615471E+0	1.708745E+0	1.707768E+0	1.692633E+0	1.717842E+0	1.745850E+0	1.725575E+0	1.693798E+0	1.676509E+0	1.710516E+0	1.754681E+0	1.695462E+0	1.588329E+0	1.650517E+0	1.718563E+0	1.781680E+0	1.586905E+0	1.723280E+0	1.762601E+0	1.710911E+0	1.735685E+0	1.740745E+0	1.703984E+0	1.519920E+0	1.664646E+0	1.732760E+0	1.750201E+0	1.557978E+0	1.490019E+0	1.679277E+0	1.660922E+0	1.635627E+0	1.529718E+0	1.728477E+0	1.664513E+0	1.628699E+0	1.692537E+0	1.691539E+0	1.782971E+0	1.658152E+0	1.632351E+0	1.770446E+0	1.675692E+0	1.587376E+0	1.611908E+0	1.793081E+0	1.668019E+0	1.758663E+0	1.573471E+0	1.695819E+0	1.731957E+0	1.637375E+0	1.800145E+0	1.762598E+0	1.711429E+0	1.445551E+0	1.644828E+0	1.791851E+0	1.780338E+0	1.540737E+0
5.500160E+2	1.488645E+0	1.403369E+0	1.450552E+0	1.535537E+0	1.342605E+0	1.450790E+0	1.573472E+0	1.568424E+0	1.431343E+0	1.420266E+0	1.477984E+0	1.513070E+0	1.536286E+0	1.465052E+0	1.590786E+0	1.503311E+0	1.412499E+0	1.439566E+0	1.539081E+0	1.599860E+0	1.385033E+0	1.432655E+0	1.556097E+0	1.551632E+0	1.415081E+0	1.492831E+0	1.537802E+0	1.566740E+0	1.506593E+0	1.491641E+0	1.570666E+0	1.562230E+0	1.378508E+0	1.551965E+0	1.531159E+0	1.506595E+0	1.369835E+0	1.517333E+0	1.526320E+0	1.459979E+0	1.331013E+0	1.436542E+0	1.615849E+0	1.534833E+0	1.523661E+0	1.552568E+0	1.560568E+0	1.556473E+0	1.418037E+0	1.433409E+0	1.525690E+0	1.516423E+0	1.336882E+0	1.482758E+0	1.573702E+0	1.580991E+0	1.420020E+0	1.569746E+0	1.532145E+0	1.564755E+0	1.528812E+0	1.521936E+0	1.512143E+0	1.507686E+0	1.429589E+0	1.561015E+0	1.544189E+0	1.511032E+0	1.417495E+0	1.429197E+0	1.566930E+0	1.589433E+0	1.380785E+0	1.516881E+0	1.537266E+0	1.583657E+0	1.569457E+0	1.540752E+0	1.601857E+0	1.638861E+0	1.465400E+0	1.550310E+0	1.493831E+0	1.522666E+0	1.381629E+0	1.472234E+0	1.551072E+0	1.496328E+0	1.413947E+0	1.571267E+0	1.567094E+0	1.668030E+0	1.454649E+0	1.493386E+0	1.535611E+0	1.516474E+0	1.449010E+0	1.493423E+0	1.531532E+0	1.520948E+0	1.387437E+0	1.614971E+0	1.533276E+0	1.559322E+0	1.440908E+0	1.548041E+0	1.502872E+0	1.491792E+0	1.503595E+0	1.547345E+0	1.487659E+0	1.553377E+0	1.431617E+0	1.484443E+0	1.453960E+0	1.527274E+0	1.392864E+0	1.447399E+0	1.511756E+0	1.682175E+0	1.407634E+0	1.527242E+0	1.456404E+0	1.524605E+0	1.497961E+0	1.491770E+0	1.601986E+0	1.473151E+0	1.341647E+0	1.544237E+0	1.568115E+0	1.476691E+0	1.310946E+0	1.594201E+0	1.495770E+0	1.522429E+0	1.340014E+0	1.607386E+0	1.455117E+0	1.536348E+0	1.455814E+0	1.497909E+0	1.513252E+0	1.508437E+0	1.432603E+0	1.546228E+0	1.550339E+0	1.493492E+0	1.392133E+0	1.574244E+0	1.566300E+0	1.509890E+0	1.412786E+0	1.584764E+0	1.489044E+0	1.427927E+0	1.604959E+0	1.487685E+0	1.559834E+0	1.400229E+0	1.451010E+0	1.563372E+0	1.527527E+0	1.375015E+0
5.505060E+2	1.451664E+0	1.500986E+0	1.479630E+0	1.597775E+0	1.328884E+0	1.430762E+0	1.548464E+0	1.474390E+0	1.328812E+0	1.502969E+0	1.519154E+0	1.533862E+0	1.480080E+0	1.445401E+0	1.553889E+0	1.572992E+0	1.411780E+0	1.528619E+0	1.556715E+0	1.471184E+0	1.353941E+0	1.509121E+0	1.525055E+0	1.543060E+0	1.385799E+0	1.445151E+0	1.547256E+0	1.421211E+0	1.445087E+0	1.450612E+0	1.525178E+0	1.469628E+0	1.334949E+0	1.410496E+0	1.474572E+0	1.504389E+0	1.284618E+0	1.483754E+0	1.509686E+0	1.490220E+0	1.294763E+0	1.484576E+0	1.524411E+0	1.507087E+0	1.525097E+0	1.510110E+0	1.502167E+0	1.493263E+0	1.421462E+0	1.441289E+0	1.476971E+0	1.545688E+0	1.303962E+0	1.473832E+0	1.508137E+0	1.559767E+0	1.457141E+0	1.435253E+0	1.522894E+0	1.506470E+0	1.501534E+0	1.500090E+0	1.504440E+0	1.529180E+0	1.414669E+0	1.502395E+0	1.505344E+0	1.492527E+0	1.406713E+0	1.506206E+0	1.510194E+0	1.565708E+0	1.378606E+0	1.443872E+0	1.524266E+0	1.503264E+0	1.541129E+0	1.477500E+0	1.535186E+0	1.488333E+0	1.430827E+0	1.508637E+0	1.538092E+0	1.465140E+0	1.351458E+0	1.558986E+0	1.507257E+0	1.567095E+0	1.391184E+0	1.504931E+0	1.487525E+0	1.529107E+0	1.428888E+0	1.480334E+0	1.540725E+0	1.509272E+0	1.384029E+0	1.469969E+0	1.544389E+0	1.557571E+0	1.270614E+0	1.571149E+0	1.447231E+0	1.536723E+0	1.395548E+0	1.566407E+0	1.482160E+0	1.544493E+0	1.513695E+0	1.513119E+0	1.510984E+0	1.565648E+0	1.387550E+0	1.548398E+0	1.461206E+0	1.493054E+0	1.320815E+0	1.505758E+0	1.544093E+0	1.508793E+0	1.419342E+0	1.505542E+0	1.509592E+0	1.504753E+0	1.519356E+0	1.519668E+0	1.451425E+0	1.416753E+0	1.383490E+0	1.524811E+0	1.518078E+0	1.512818E+0	1.336624E+0	1.500092E+0	1.450534E+0	1.536127E+0	1.282593E+0	1.501431E+0	1.446043E+0	1.475278E+0	1.430504E+0	1.484347E+0	1.506864E+0	1.583670E+0	1.483489E+0	1.531588E+0	1.511211E+0	1.428901E+0	1.358740E+0	1.514490E+0	1.546564E+0	1.446938E+0	1.385638E+0	1.476555E+0	1.500786E+0	1.473491E+0	1.492413E+0	1.506525E+0	1.587397E+0	1.514201E+0	1.473664E+0	1.534274E+0	1.547689E+0	1.535304E+0
5.510140E+2	1.168149E+0	1.166896E+0	1.178593E+0	1.236966E+0	1.120791E+0	1.115908E+0	1.269199E+0	1.238055E+0	1.123750E+0	1.144365E+0	1.244004E+0	1.229586E+0	1.274241E+0	1.227919E+0	1.261506E+0	1.253721E+0	1.192788E+0	1.199862E+0	1.228468E+0	1.235956E+0	1.125482E+0	1.171450E+0	1.234616E+0	1.232501E+0	1.127026E+0	1.228602E+0	1.217591E+0	1.272134E+0	1.167636E+0	1.184594E+0	1.240194E+0	1.215468E+0	1.098774E+0	1.242046E+0	1.219925E+0	1.210885E+0	1.081153E+0	1.213665E+0	1.286940E+0	1.261565E+0	1.089346E+0	1.149714E+0	1.246492E+0	1.253866E+0	1.205874E+0	1.228022E+0	1.269955E+0	1.193795E+0	1.109731E+0	1.188489E+0	1.255028E+0	1.203337E+0	1.114342E+0	1.176543E+0	1.241741E+0	1.237167E+0	1.142713E+0	1.120979E+0	1.303711E+0	1.203831E+0	1.219917E+0	1.244756E+0	1.234837E+0	1.197048E+0	1.137908E+0	1.205635E+0	1.253216E+0	1.235587E+0	1.078575E+0	1.186323E+0	1.257952E+0	1.228956E+0	1.141043E+0	1.169534E+0	1.269616E+0	1.318689E+0	1.190303E+0	1.208120E+0	1.272948E+0	1.333053E+0	1.137306E+0	1.195314E+0	1.209965E+0	1.148742E+0	1.081287E+0	1.202690E+0	1.333620E+0	1.213999E+0	1.154311E+0	1.229679E+0	1.207211E+0	1.210805E+0	1.149201E+0	1.273025E+0	1.282156E+0	1.265874E+0	1.169733E+0	1.219792E+0	1.262973E+0	1.216001E+0	1.180254E+0	1.283615E+0	1.236817E+0	1.213277E+0	1.183189E+0	1.172294E+0	1.258773E+0	1.184121E+0	1.217935E+0	1.185322E+0	1.297948E+0	1.222781E+0	1.212730E+0	1.262087E+0	1.299615E+0	1.231666E+0	1.069977E+0	1.220787E+0	1.280884E+0	1.251737E+0	1.156656E+0	1.224869E+0	1.309776E+0	1.227587E+0	1.213484E+0	1.239306E+0	1.219683E+0	1.221421E+0	1.224192E+0	1.300312E+0	1.265804E+0	1.224496E+0	1.071732E+0	1.218519E+0	1.301899E+0	1.203739E+0	1.073992E+0	1.173729E+0	1.174528E+0	1.264511E+0	1.196755E+0	1.228934E+0	1.220113E+0	1.270698E+0	1.187285E+0	1.176381E+0	1.222827E+0	1.265920E+0	1.146732E+0	1.306518E+0	1.210284E+0	1.299040E+0	1.147911E+0	1.272241E+0	1.271816E+0	1.257428E+0	1.257090E+0	1.256034E+0	1.250116E+0	1.228939E+0	1.108684E+0	1.177547E+0	1.156841E+0	1.285362E+0
5.515000E+2	9.331716E-1	1.000272E+0	1.060574E+0	1.107445E+0	9.256557E-1	1.014162E+0	1.071629E+0	1.019195E+0	8.932379E-1	9.952290E-1	1.010024E+0	9.821439E-1	1.007639E+0	9.999560E-1	1.053358E+0	9.990650E-1	1.062111E+0	9.902876E-1	1.062989E+0	1.008100E+0	9.957063E-1	1.009718E+0	1.026964E+0	1.011617E+0	8.907247E-1	9.425186E-1	1.049379E+0	1.030769E+0	9.858572E-1	1.032394E+0	1.067598E+0	1.013191E+0	9.612889E-1	1.091827E+0	1.034978E+0	1.012274E+0	8.803306E-1	1.034823E+0	1.016462E+0	1.071265E+0	8.584205E-1	9.960071E-1	1.076573E+0	1.061004E+0	9.662779E-1	1.022212E+0	1.069028E+0	9.888293E-1	9.658550E-1	9.934716E-1	1.023612E+0	9.889416E-1	9.128711E-1	1.017256E+0	1.034697E+0	1.052520E+0	9.956885E-1	1.040009E+0	1.032579E+0	1.034203E+0	1.023815E+0	1.016047E+0	1.056968E+0	1.067384E+0	9.543948E-1	1.058354E+0	1.017946E+0	1.031316E+0	9.145067E-1	1.011573E+0	1.046344E+0	1.109561E+0	9.594202E-1	9.866411E-1	1.026438E+0	1.032392E+0	1.045033E+0	1.060779E+0	1.045527E+0	1.098548E+0	9.799618E-1	1.051773E+0	1.112290E+0	1.064608E+0	9.427726E-1	1.027640E+0	1.078032E+0	1.053299E+0	9.629629E-1	1.028385E+0	1.021795E+0	1.019978E+0	9.909574E-1	1.047290E+0	1.057918E+0	1.039757E+0	9.734083E-1	1.074802E+0	1.022985E+0	1.061767E+0	9.349899E-1	1.030679E+0	1.081356E+0	1.055791E+0	9.838857E-1	1.020772E+0	1.050179E+0	1.014617E+0	9.712282E-1	1.040817E+0	1.092686E+0	1.055097E+0	9.627793E-1	1.067992E+0	1.034403E+0	1.019063E+0	8.811825E-1	1.039648E+0	1.053022E+0	1.068555E+0	9.151915E-1	1.000620E+0	1.045269E+0	1.094731E+0	1.070849E+0	9.931185E-1	1.022632E+0	1.042597E+0	1.015710E+0	1.067898E+0	1.093451E+0	1.014683E+0	8.859013E-1	1.061921E+0	1.006784E+0	1.001854E+0	8.653892E-1	1.057179E+0	1.038422E+0	1.051509E+0	9.831054E-1	1.054892E+0	1.095902E+0	1.063806E+0	1.014878E+0	1.059264E+0	9.431369E-1	1.063883E+0	9.906364E-1	1.028705E+0	9.947010E-1	1.001726E+0	9.967650E-1	1.002434E+0	1.045780E+0	1.092073E+0	1.039869E+0	1.030660E+0	1.124633E+0	1.021658E+0	1.011355E+0	1.037443E+0	1.048273E+0	1.206577E+0
5.520100E+2	1.024851E+0	9.396818E-1	1.022090E+0	1.058666E+0	1.057525E+0	9.941327E-1	1.093303E+0	1.007545E+0	1.005949E+0	9.599782E-1	1.033354E+0	1.048684E+0	1.047135E+0	9.613076E-1	1.059624E+0	1.035173E+0	1.001081E+0	9.427488E-1	9.537989E-1	9.980466E-1	9.930026E-1	9.616730E-1	1.012477E+0	9.713965E-1	1.014664E+0	1.027947E+0	1.008171E+0	1.022960E+0	9.810736E-1	1.007910E+0	1.046860E+0	9.915187E-1	9.578856E-1	9.532740E-1	9.908118E-1	1.021101E+0	9.060942E-1	9.786148E-1	9.622214E-1	1.028485E+0	9.275642E-1	9.623836E-1	1.063613E+0	1.037416E+0	1.050926E+0	1.011418E+0	1.050951E+0	1.027779E+0	9.185804E-1	9.593271E-1	1.017522E+0	1.034543E+0	9.207726E-1	9.616430E-1	1.040219E+0	1.063132E+0	9.847705E-1	9.995232E-1	1.012654E+0	9.818945E-1	9.928528E-1	1.016047E+0	1.002348E+0	9.758565E-1	9.193337E-1	1.018786E+0	1.082444E+0	9.444837E-1	9.083444E-1	9.271585E-1	1.093114E+0	1.022312E+0	8.867719E-1	1.013190E+0	1.008084E+0	1.057002E+0	1.038497E+0	1.006456E+0	9.973756E-1	1.024076E+0	8.974088E-1	1.061033E+0	1.035218E+0	1.005643E+0	8.954578E-1	9.865893E-1	1.042331E+0	1.006122E+0	8.982321E-1	1.007799E+0	9.641267E-1	1.045929E+0	9.180916E-1	9.966146E-1	1.047693E+0	1.020314E+0	9.243278E-1	9.390529E-1	1.057269E+0	9.568319E-1	9.324081E-1	1.046055E+0	1.037972E+0	1.038842E+0	9.598322E-1	1.026893E+0	9.939623E-1	1.011768E+0	9.950331E-1	1.068957E+0	9.869447E-1	1.052370E+0	1.003956E+0	1.006268E+0	1.042373E+0	1.008869E+0	9.252126E-1	1.016154E+0	1.032717E+0	9.984495E-1	8.756786E-1	9.890456E-1	9.913611E-1	1.048917E+0	1.025681E+0	1.019621E+0	1.013612E+0	9.621261E-1	9.503755E-1	1.000260E+0	1.057312E+0	1.037609E+0	8.250849E-1	9.791064E-1	9.737541E-1	1.040789E+0	9.017310E-1	9.852822E-1	9.658321E-1	1.006078E+0	9.957604E-1	9.735228E-1	1.061832E+0	1.068319E+0	9.746250E-1	1.011491E+0	1.006176E+0	1.039850E+0	9.549139E-1	1.004648E+0	9.688910E-1	1.067712E+0	9.769538E-1	1.065081E+0	1.018627E+0	1.050918E+0	1.044592E+0	1.006240E+0	1.010756E+0	1.007662E+0	9.400364E-1	1.007268E+0	9.598665E-1	9.566365E-1
5.525090E+2	1.080321E+0	1.025518E+0	1.072547E+0	1.044367E+0	1.078105E+0	1.047008E+0	1.100806E+0	1.035839E+0	1.091755E+0	9.992964E-1	1.038843E+0	1.048683E+0	1.000043E+0	1.046466E+0	1.089558E+0	1.037707E+0	1.085087E+0	1.023766E+0	1.102323E+0	1.062383E+0	1.066677E+0	1.109193E+0	1.077325E+0	1.125026E+0	1.080719E+0	1.006755E+0	1.075050E+0	1.090400E+0	1.112282E+0	1.029085E+0	1.119778E+0	1.111703E+0	1.064062E+0	1.090368E+0	1.094327E+0	1.067444E+0	1.110880E+0	1.061102E+0	1.070702E+0	1.035861E+0	1.095388E+0	1.007673E+0	1.096013E+0	1.071410E+0	1.136291E+0	1.060351E+0	1.045390E+0	1.128027E+0	1.054921E+0	1.006604E+0	1.055415E+0	1.138677E+0	9.833209E-1	1.043346E+0	1.092670E+0	1.053935E+0	1.023346E+0	9.857994E-1	1.030444E+0	1.077544E+0	1.036349E+0	1.052914E+0	1.091282E+0	1.056983E+0	1.005122E+0	1.110379E+0	1.061922E+0	1.049822E+0	9.846016E-1	1.050817E+0	1.077013E+0	1.088132E+0	1.043693E+0	1.096524E+0	1.117439E+0	1.143137E+0	1.084256E+0	1.079383E+0	1.104049E+0	1.117562E+0	9.729057E-1	1.076468E+0	1.077951E+0	1.133641E+0	9.496294E-1	1.126783E+0	1.138887E+0	1.065094E+0	9.608293E-1	1.063460E+0	1.061214E+0	1.073409E+0	1.013774E+0	1.137123E+0	1.098822E+0	1.100246E+0	9.734082E-1	1.082620E+0	1.100124E+0	1.098388E+0	9.472530E-1	1.076039E+0	1.085694E+0	1.021187E+0	1.002441E+0	1.077402E+0	1.050180E+0	1.075866E+0	9.964758E-1	1.082647E+0	1.140114E+0	1.072819E+0	1.002512E+0	1.047913E+0	1.114836E+0	1.100609E+0	9.739122E-1	1.012365E+0	1.034221E+0	1.088155E+0	9.568993E-1	1.052704E+0	1.048144E+0	1.090913E+0	1.046284E+0	1.057978E+0	1.064263E+0	1.024026E+0	9.694623E-1	1.072215E+0	1.063567E+0	1.054979E+0	9.494226E-1	1.078485E+0	1.082896E+0	1.068908E+0	9.024580E-1	1.068531E+0	1.000033E+0	1.017995E+0	1.038193E+0	1.051880E+0	1.086675E+0	1.130764E+0	1.015638E+0	1.082379E+0	1.034435E+0	1.116458E+0	1.037232E+0	1.131915E+0	1.061501E+0	1.095775E+0	1.002634E+0	1.076471E+0	1.101555E+0	1.052389E+0	1.094174E+0	1.087178E+0	1.061529E+0	1.043653E+0	1.002125E+0	1.050376E+0	1.046721E+0	1.043572E+0
5.530150E+2	1.013295E+0	9.817580E-1	9.647895E-1	9.695142E-1	1.023223E+0	9.965361E-1	1.006606E+0	1.009210E+0	1.012494E+0	9.423535E-1	1.003849E+0	1.021652E+0	1.028906E+0	9.691680E-1	1.040131E+0	9.876627E-1	9.845667E-1	9.889486E-1	1.042642E+0	1.043618E+0	1.055862E+0	1.001598E+0	1.042831E+0	9.799678E-1	1.088891E+0	9.517895E-1	9.689890E-1	1.080461E+0	9.776570E-1	9.311478E-1	1.048198E+0	1.042745E+0	1.004849E+0	1.018903E+0	9.942630E-1	9.990333E-1	9.701724E-1	9.968644E-1	1.028033E+0	1.004882E+0	1.000064E+0	8.841580E-1	9.412137E-1	1.046434E+0	1.009319E+0	1.013577E+0	9.911603E-1	9.888287E-1	1.019295E+0	9.803391E-1	1.054061E+0	1.012082E+0	1.016241E+0	9.650755E-1	1.047120E+0	1.008658E+0	9.993274E-1	9.741342E-1	1.011231E+0	9.617192E-1	9.758959E-1	1.031749E+0	9.988463E-1	1.001512E+0	1.054357E+0	9.836137E-1	1.001089E+0	1.022064E+0	1.035440E+0	9.678847E-1	9.903754E-1	1.082009E+0	9.942917E-1	9.718921E-1	1.053967E+0	1.025829E+0	1.032685E+0	1.000504E+0	1.056639E+0	1.007440E+0	1.006068E+0	1.068751E+0	1.053532E+0	9.639359E-1	9.798005E-1	9.377924E-1	1.043954E+0	1.004648E+0	9.892827E-1	9.826377E-1	9.969762E-1	9.665454E-1	9.593085E-1	9.866330E-1	1.073988E+0	1.063521E+0	1.023181E+0	9.859617E-1	1.002272E+0	9.969750E-1	9.827516E-1	1.012228E+0	9.931405E-1	9.449155E-1	1.021684E+0	1.029189E+0	1.036864E+0	9.590661E-1	9.935900E-1	1.019520E+0	1.014935E+0	1.039419E+0	9.281039E-1	9.802398E-1	9.959970E-1	1.023431E+0	9.145385E-1	1.017670E+0	1.040989E+0	1.032372E+0	8.851906E-1	1.053427E+0	1.018674E+0	1.009214E+0	1.024097E+0	1.022410E+0	1.027489E+0	9.497461E-1	9.701959E-1	9.822715E-1	1.036463E+0	9.723023E-1	8.588720E-1	9.926581E-1	9.902691E-1	9.852702E-1	9.111801E-1	1.017068E+0	1.032838E+0	9.844804E-1	9.302509E-1	9.712625E-1	1.087384E+0	1.050263E+0	9.419665E-1	1.040771E+0	9.960317E-1	1.064634E+0	9.556894E-1	1.048106E+0	9.833143E-1	1.034339E+0	9.373325E-1	1.022367E+0	1.036974E+0	1.067086E+0	1.044591E+0	9.748410E-1	9.737636E-1	9.536751E-1	9.677254E-1	1.027744E+0	9.939876E-1	1.051722E+0
5.534770E+2	9.924935E-1	9.295838E-1	9.827489E-1	9.846526E-1	9.691034E-1	9.044032E-1	9.740943E-1	9.160072E-1	9.201425E-1	8.854107E-1	9.956149E-1	9.668955E-1	9.749782E-1	8.820452E-1	9.698206E-1	9.901962E-1	9.644620E-1	9.655144E-1	9.605804E-1	9.812924E-1	9.842161E-1	9.163345E-1	9.262425E-1	9.542533E-1	9.390745E-1	9.345716E-1	9.933089E-1	1.010892E+0	9.660395E-1	9.615881E-1	9.846460E-1	9.751004E-1	9.572054E-1	9.707758E-1	9.638983E-1	9.681378E-1	9.886688E-1	9.413868E-1	9.390782E-1	9.473499E-1	9.812676E-1	9.390527E-1	9.599340E-1	1.008278E+0	9.777548E-1	9.113912E-1	1.010627E+0	9.766974E-1	9.500970E-1	9.869048E-1	9.857194E-1	9.698836E-1	9.615932E-1	9.451652E-1	9.636134E-1	9.761146E-1	1.014612E+0	8.904187E-1	9.913044E-1	9.430377E-1	9.213418E-1	9.798632E-1	9.981460E-1	9.474279E-1	1.001393E+0	9.704250E-1	9.395230E-1	9.430607E-1	9.437778E-1	9.197550E-1	1.046344E+0	9.802173E-1	9.892066E-1	9.608301E-1	9.224363E-1	9.462559E-1	9.811149E-1	9.975265E-1	9.699664E-1	9.812959E-1	9.856065E-1	9.159470E-1	9.856176E-1	9.402064E-1	9.660860E-1	9.532835E-1	1.036651E+0	9.471492E-1	9.963958E-1	9.620507E-1	9.838361E-1	9.436454E-1	9.740296E-1	9.635991E-1	9.622339E-1	9.987107E-1	9.395356E-1	1.003729E+0	9.822731E-1	9.659877E-1	9.640339E-1	1.004539E+0	9.512033E-1	9.569208E-1	9.488355E-1	9.687335E-1	9.843464E-1	1.013193E+0	9.654568E-1	9.556350E-1	9.659524E-1	9.583030E-1	1.004679E+0	9.780090E-1	9.829540E-1	9.848415E-1	9.639056E-1	9.865960E-1	9.883472E-1	9.682959E-1	9.876305E-1	9.326220E-1	9.791422E-1	9.152978E-1	9.638733E-1	9.498790E-1	1.037896E+0	1.000642E+0	9.261502E-1	9.578072E-1	9.815599E-1	9.966193E-1	9.068508E-1	9.407095E-1	9.321075E-1	9.427304E-1	9.504299E-1	9.413863E-1	9.630399E-1	1.006823E+0	9.644944E-1	9.569466E-1	9.653023E-1	1.031455E+0	9.366506E-1	9.467681E-1	9.605273E-1	9.632405E-1	8.896805E-1	1.030257E+0	9.491544E-1	9.956586E-1	9.035821E-1	1.008841E+0	9.628516E-1	9.568502E-1	9.997299E-1	9.811213E-1	9.520033E-1	1.004996E+0	8.703967E-1	9.781678E-1	9.257456E-1	9.892376E-1
5.540290E+2	8.661449E-1	8.799333E-1	9.194631E-1	8.727939E-1	8.700109E-1	9.011987E-1	9.449168E-1	9.634400E-1	9.579554E-1	9.159159E-1	9.372913E-1	8.899597E-1	9.430771E-1	9.455861E-1	9.510239E-1	9.553553E-1	8.984052E-1	8.932013E-1	9.314178E-1	9.658795E-1	9.166241E-1	9.061836E-1	9.241734E-1	8.731527E-1	9.622283E-1	9.246379E-1	9.338610E-1	9.292539E-1	9.209367E-1	9.172511E-1	8.735959E-1	8.969474E-1	9.211321E-1	9.612957E-1	9.487149E-1	9.262089E-1	9.371429E-1	9.151078E-1	8.682048E-1	9.451371E-1	9.389759E-1	8.889609E-1	9.786540E-1	9.000534E-1	9.748855E-1	9.056343E-1	9.098164E-1	9.754198E-1	8.959721E-1	9.205863E-1	9.153466E-1	8.582628E-1	8.779768E-1	8.538494E-1	9.594721E-1	9.541838E-1	9.134422E-1	9.041423E-1	9.365086E-1	8.922245E-1	9.065983E-1	9.013515E-1	9.253175E-1	9.349467E-1	9.312699E-1	9.557708E-1	9.541814E-1	9.722424E-1	9.175877E-1	9.160516E-1	9.459078E-1	9.381230E-1	9.194635E-1	8.841330E-1	9.277892E-1	9.618429E-1	9.055743E-1	8.628366E-1	9.462614E-1	9.503983E-1	8.790637E-1	9.035997E-1	9.222820E-1	9.272628E-1	9.132868E-1	9.346942E-1	9.173775E-1	9.478871E-1	9.039231E-1	9.201146E-1	9.517165E-1	9.138763E-1	9.225078E-1	9.735799E-1	9.468948E-1	9.367807E-1	9.678792E-1	9.155996E-1	9.187047E-1	9.357040E-1	9.143358E-1	9.553361E-1	9.367414E-1	9.682202E-1	9.110370E-1	9.243475E-1	1.005058E+0	9.519432E-1	9.012557E-1	9.449865E-1	9.262999E-1	9.528497E-1	9.411072E-1	9.095919E-1	9.017959E-1	9.076636E-1	9.245458E-1	8.994376E-1	9.793228E-1	9.419124E-1	9.378737E-1	9.666206E-1	9.446415E-1	9.550017E-1	9.527803E-1	8.738610E-1	9.359026E-1	9.703793E-1	9.393639E-1	9.355009E-1	9.224876E-1	9.479864E-1	9.082017E-1	9.474855E-1	9.414414E-1	9.124480E-1	9.475221E-1	8.717592E-1	8.862621E-1	8.988338E-1	9.041962E-1	9.456454E-1	8.936139E-1	9.088236E-1	9.313348E-1	9.398338E-1	9.148784E-1	9.226832E-1	9.362755E-1	9.192872E-1	9.172734E-1	8.985766E-1	9.461381E-1	9.369399E-1	9.210204E-1	9.634650E-1	9.273230E-1	9.490249E-1	9.186377E-1	9.016887E-1	9.618517E-1	8.908726E-1	8.668077E-1	9.267513E-1
5.550140E+2	9.447282E-1	9.110692E-1	9.203181E-1	9.888580E-1	9.469991E-1	8.803684E-1	9.424159E-1	9.567823E-1	9.383224E-1	8.691410E-1	9.064144E-1	9.280812E-1	9.468749E-1	8.866302E-1	9.496323E-1	9.648573E-1	9.752324E-1	8.824882E-1	9.599025E-1	9.766014E-1	9.963824E-1	9.339281E-1	9.814327E-1	9.285380E-1	9.104731E-1	9.272875E-1	9.061630E-1	9.441616E-1	9.619391E-1	8.881347E-1	1.004715E+0	9.659055E-1	9.680957E-1	9.416067E-1	9.487156E-1	1.004918E+0	9.516758E-1	9.260577E-1	9.643914E-1	9.466119E-1	9.362914E-1	8.457312E-1	9.548942E-1	9.826099E-1	9.375838E-1	9.826329E-1	9.689124E-1	9.345549E-1	9.891490E-1	8.759361E-1	1.003313E+0	9.256437E-1	9.490842E-1	9.280003E-1	9.491197E-1	9.308373E-1	9.804037E-1	9.617826E-1	9.236996E-1	9.602244E-1	9.958014E-1	9.074956E-1	9.295199E-1	9.488155E-1	9.805048E-1	9.015471E-1	9.138708E-1	9.459072E-1	9.168179E-1	9.701065E-1	8.922395E-1	9.725645E-1	9.463434E-1	9.092070E-1	9.346717E-1	9.561001E-1	9.375337E-1	9.335299E-1	9.795962E-1	9.361374E-1	9.517386E-1	1.011643E+0	9.581465E-1	9.337342E-1	9.729438E-1	9.594798E-1	9.011495E-1	9.346186E-1	9.736332E-1	9.445139E-1	9.341973E-1	9.474620E-1	9.423800E-1	9.751156E-1	9.330169E-1	9.555036E-1	9.810131E-1	9.084915E-1	9.965579E-1	9.089415E-1	9.265989E-1	9.199714E-1	9.736180E-1	9.350284E-1	9.213460E-1	9.825079E-1	9.222127E-1	9.035139E-1	9.135188E-1	9.662824E-1	9.060849E-1	1.006700E+0	8.840371E-1	9.512373E-1	9.510711E-1	9.258663E-1	9.572345E-1	8.835214E-1	9.311929E-1	9.140204E-1	9.473863E-1	9.658976E-1	9.820171E-1	9.007903E-1	9.511945E-1	9.394181E-1	9.199446E-1	9.827594E-1	9.320228E-1	9.527708E-1	9.676610E-1	9.389551E-1	9.622611E-1	9.392039E-1	9.435964E-1	9.585929E-1	9.693279E-1	9.451703E-1	9.937517E-1	9.554349E-1	9.540726E-1	9.049611E-1	9.511067E-1	9.216135E-1	9.852588E-1	9.529330E-1	9.677729E-1	9.241849E-1	9.626795E-1	9.060951E-1	9.635777E-1	9.842814E-1	9.211911E-1	9.333804E-1	9.452384E-1	9.884510E-1	9.847768E-1	9.615836E-1	9.462012E-1	9.123516E-1	9.492660E-1	9.102722E-1	9.040308E-1	8.995844E-1
5.560410E+2	1.031015E+0	9.674524E-1	1.031497E+0	9.754012E-1	1.003404E+0	9.708992E-1	1.037450E+0	1.008377E+0	1.053215E+0	9.843822E-1	1.005908E+0	1.024424E+0	1.008399E+0	1.026159E+0	9.788703E-1	9.996984E-1	1.038417E+0	9.514533E-1	9.992381E-1	1.012121E+0	1.013281E+0	9.900947E-1	1.022134E+0	1.040629E+0	1.011941E+0	9.882120E-1	1.039246E+0	1.053486E+0	1.007042E+0	1.039011E+0	1.006052E+0	1.046028E+0	1.025948E+0	1.013799E+0	1.016345E+0	1.000505E+0	1.042838E+0	9.705860E-1	1.015015E+0	9.694774E-1	1.026916E+0	9.946349E-1	1.030494E+0	1.016604E+0	1.094684E+0	9.711199E-1	9.967228E-1	9.805283E-1	1.061087E+0	9.665499E-1	1.026319E+0	1.073339E+0	9.754194E-1	9.472247E-1	1.021585E+0	1.033419E+0	1.047365E+0	1.029029E+0	1.052506E+0	1.053632E+0	9.972755E-1	1.000344E+0	9.953451E-1	9.904179E-1	1.002139E+0	1.037837E+0	1.053127E+0	1.012811E+0	1.001548E+0	9.952814E-1	1.040211E+0	1.007005E+0	1.000104E+0	9.969657E-1	1.044026E+0	1.072588E+0	1.045034E+0	9.521335E-1	1.087753E+0	1.039130E+0	1.043464E+0	1.009327E+0	9.879067E-1	1.037283E+0	1.043572E+0	1.010600E+0	1.063428E+0	1.062145E+0	9.928392E-1	1.061172E+0	1.066324E+0	1.027610E+0	1.015982E+0	1.028095E+0	9.936422E-1	1.026075E+0	9.955298E-1	9.909364E-1	1.036556E+0	1.049795E+0	1.021478E+0	1.013766E+0	9.895260E-1	1.043079E+0	1.039553E+0	1.013119E+0	1.021332E+0	1.044529E+0	1.047692E+0	9.685634E-1	1.018823E+0	1.055096E+0	9.837285E-1	1.010730E+0	1.027156E+0	1.027071E+0	1.013940E+0	1.049502E+0	1.077839E+0	1.022572E+0	9.781183E-1	9.839819E-1	9.999862E-1	1.071061E+0	9.781367E-1	9.889349E-1	9.948790E-1	1.043972E+0	1.050947E+0	1.054946E+0	1.019784E+0	1.038999E+0	1.042675E+0	1.105588E+0	1.034069E+0	1.015553E+0	1.025294E+0	1.027664E+0	9.728118E-1	1.016506E+0	1.009905E+0	1.048866E+0	1.033441E+0	1.032960E+0	1.014119E+0	9.999343E-1	1.025740E+0	1.012812E+0	1.059753E+0	1.095442E+0	1.043283E+0	1.033582E+0	1.032717E+0	1.065080E+0	1.072200E+0	9.862471E-1	9.832023E-1	9.860050E-1	1.005679E+0	9.850009E-1	1.002126E+0	9.781685E-1	1.104109E+0	9.675025E-1
5.570330E+2	1.058749E+0	1.085267E+0	1.073402E+0	1.079691E+0	1.118504E+0	1.123919E+0	1.005772E+0	1.036671E+0	1.071394E+0	1.090812E+0	1.053939E+0	1.113836E+0	1.073720E+0	1.113283E+0	1.077027E+0	1.035173E+0	1.085087E+0	1.040505E+0	1.080622E+0	1.079137E+0	1.074789E+0	1.072652E+0	1.047660E+0	1.092718E+0	1.074590E+0	1.024635E+0	1.074375E+0	1.030769E+0	1.026176E+0	1.077392E+0	1.070943E+0	1.049312E+0	1.007571E+0	1.053177E+0	1.030148E+0	1.062294E+0	1.089080E+0	1.027523E+0	1.071425E+0	1.033648E+0	1.050411E+0	9.898314E-1	1.053533E+0	1.077654E+0	1.041599E+0	1.102090E+0	1.080847E+0	1.059704E+0	1.050810E+0	1.006603E+0	1.039175E+0	1.092396E+0	1.043235E+0	9.966590E-1	1.060923E+0	1.042616E+0	1.040086E+0	1.026970E+0	9.934395E-1	1.036445E+0	1.094589E+0	1.076126E+0	9.722360E-1	1.140190E+0	1.031232E+0	1.040768E+0	1.083177E+0	9.943063E-1	1.123251E+0	1.055260E+0	1.059379E+0	1.069763E+0	1.107624E+0	9.659923E-1	1.024907E+0	1.070127E+0	1.069004E+0	1.026548E+0	1.083306E+0	1.078741E+0	1.061103E+0	1.074153E+0	9.856175E-1	1.021463E+0	1.016144E+0	1.080310E+0	1.082901E+0	1.093843E+0	1.056859E+0	1.070322E+0	1.074354E+0	1.082569E+0	1.034383E+0	1.015810E+0	1.090787E+0	1.072163E+0	1.045302E+0	1.060588E+0	1.039412E+0	1.047681E+0	1.081503E+0	1.114479E+0	1.023510E+0	1.006356E+0	1.065669E+0	1.052913E+0	1.075329E+0	1.063759E+0	1.063563E+0	1.068957E+0	1.087244E+0	1.032602E+0	1.105814E+0	1.098482E+0	1.109763E+0	1.058380E+0	1.044627E+0	1.051018E+0	1.043997E+0	1.150722E+0	1.082022E+0	1.056321E+0	1.025143E+0	1.093203E+0	1.113640E+0	1.007067E+0	1.112831E+0	1.019900E+0	1.064160E+0	1.032640E+0	1.032988E+0	1.023714E+0	1.082544E+0	1.086766E+0	1.065663E+0	9.881547E-1	9.984009E-1	1.054909E+0	1.057966E+0	1.047785E+0	1.075414E+0	1.039071E+0	1.040538E+0	1.099917E+0	1.008803E+0	1.072362E+0	1.048927E+0	1.109699E+0	1.077614E+0	1.030257E+0	1.026584E+0	1.044200E+0	1.045190E+0	1.061521E+0	1.097152E+0	1.038425E+0	1.092600E+0	1.051594E+0	1.046297E+0	1.088975E+0	1.074282E+0	1.049299E+0	1.015701E+0	1.111489E+0
5.580230E+2	1.015607E+0	1.156798E+0	1.019524E+0	1.028388E+0	1.018650E+0	1.122317E+0	1.048287E+0	1.074118E+0	1.056125E+0	1.099624E+0	1.041588E+0	1.022344E+0	1.015994E+0	1.035984E+0	1.047789E+0	1.016802E+0	1.066419E+0	1.124870E+0	1.057563E+0	1.034236E+0	1.067353E+0	1.157239E+0	1.055249E+0	1.024145E+0	1.065057E+0	1.102116E+0	1.070321E+0	1.019411E+0	1.056245E+0	1.072098E+0	1.026122E+0	1.067701E+0	1.004848E+0	1.065574E+0	1.003234E+0	1.039491E+0	1.002541E+0	1.161838E+0	1.035264E+0	1.060940E+0	1.037656E+0	1.107856E+0	1.045613E+0	1.033948E+0	1.029404E+0	1.047399E+0	1.068333E+0	1.062259E+0	1.037792E+0	1.032212E+0	1.062858E+0	1.023653E+0	1.028092E+0	1.129856E+0	1.050571E+0	1.029882E+0	1.062650E+0	1.078435E+0	1.046100E+0	1.040928E+0	1.034136E+0	1.093194E+0	1.048565E+0	9.918045E-1	1.061817E+0	1.052492E+0	1.014281E+0	1.002134E+0	1.075494E+0	1.085620E+0	1.066279E+0	1.062875E+0	1.065488E+0	1.080300E+0	1.091437E+0	1.075869E+0	1.061739E+0	1.097986E+0	1.009969E+0	9.979325E-1	1.027941E+0	1.091901E+0	1.059637E+0	1.011395E+0	1.048372E+0	9.827164E-1	1.084523E+0	1.009808E+0	1.019870E+0	1.059647E+0	1.021795E+0	1.081042E+0	1.045423E+0	1.030398E+0	1.055728E+0	1.027515E+0	1.019725E+0	1.034291E+0	1.037984E+0	1.021624E+0	1.041486E+0	1.035292E+0	1.011218E+0	1.063559E+0	1.026495E+0	1.087350E+0	9.976606E-1	1.055212E+0	1.020280E+0	1.031689E+0	1.069361E+0	1.042826E+0	1.050190E+0	9.690849E-1	9.836787E-1	1.046730E+0	1.059304E+0	1.048744E+0	1.007900E+0	1.035387E+0	1.032997E+0	1.051257E+0	1.068269E+0	1.032883E+0	1.038360E+0	1.139576E+0	1.041366E+0	1.004769E+0	1.019380E+0	1.041995E+0	1.078856E+0	1.073041E+0	1.041323E+0	9.730832E-1	1.056329E+0	1.049441E+0	1.072538E+0	1.106373E+0	1.086583E+0	1.050764E+0	1.029259E+0	1.064687E+0	1.081705E+0	1.039731E+0	1.033107E+0	1.036919E+0	1.058346E+0	1.082660E+0	1.068295E+0	1.034913E+0	1.053910E+0	1.085156E+0	1.041521E+0	1.045148E+0	1.056055E+0	1.087664E+0	1.045378E+0	1.008333E+0	1.060078E+0	1.035654E+0	1.034010E+0	1.102107E+0	1.077741E+0	1.157674E+0
5.590160E+2	1.091262E+0	1.069896E+0	1.053048E+0	1.070215E+0	1.073328E+0	1.096894E+0	1.047065E+0	1.044604E+0	1.002846E+0	1.154714E+0	1.059244E+0	1.054459E+0	1.036957E+0	1.110313E+0	1.025837E+0	1.037918E+0	9.719769E-1	1.141967E+0	1.010677E+0	9.507331E-1	9.473558E-1	1.023569E+0	1.043107E+0	1.086564E+0	1.036637E+0	1.098540E+0	9.827250E-1	1.012028E+0	1.061621E+0	1.044525E+0	1.033927E+0	9.990056E-1	1.115200E+0	9.937708E-1	1.088944E+0	9.984449E-1	9.880527E-1	1.057501E+0	1.106621E+0	1.096836E+0	1.028482E+0	1.233933E+0	9.768779E-1	9.808529E-1	9.440880E-1	1.079733E+0	9.647411E-1	1.010837E+0	1.015092E+0	1.211208E+0	9.672695E-1	1.056822E+0	1.164600E+0	1.199246E+0	9.947151E-1	1.032947E+0	9.414399E-1	1.109222E+0	1.056442E+0	1.073508E+0	1.050257E+0	1.041626E+0	1.130870E+0	1.046397E+0	9.916451E-1	1.041159E+0	1.041840E+0	1.129538E+0	1.021523E+0	1.057926E+0	9.496395E-1	9.694518E-1	9.717708E-1	1.202572E+0	1.054732E+0	9.172166E-1	1.000000E+0	1.129439E+0	9.231484E-1	1.016365E+0	1.051084E+0	9.934291E-1	1.100792E+0	1.128655E+0	1.039595E+0	1.078916E+0	9.139698E-1	1.004549E+0	1.056480E+0	9.821798E-1	9.677768E-1	1.003795E+0	1.065295E+0	1.013403E+0	1.017697E+0	9.832521E-1	1.051016E+0	1.086364E+0	9.885114E-1	1.070266E+0	1.050565E+0	9.566171E-1	1.114183E+0	1.026836E+0	1.087065E+0	9.710289E-1	9.940614E-1	9.678492E-1	1.088234E+0	1.063886E+0	1.026235E+0	9.516229E-1	1.030444E+0	1.082865E+0	1.043581E+0	1.049448E+0	1.036444E+0	1.081182E+0	9.714023E-1	9.670899E-1	1.033972E+0	1.043300E+0	1.000801E+0	1.031763E+0	1.002015E+0	1.101265E+0	9.571800E-1	9.775781E-1	1.067977E+0	1.024341E+0	9.966642E-1	9.806861E-1	1.056144E+0	1.007163E+0	1.026793E+0	1.133079E+0	1.036487E+0	1.052739E+0	1.039586E+0	1.023853E+0	1.062659E+0	1.039824E+0	1.034293E+0	9.655003E-1	1.090727E+0	1.051250E+0	1.023808E+0	9.847212E-1	1.005703E+0	9.837481E-1	1.046218E+0	9.585449E-1	1.109660E+0	9.490898E-1	9.454831E-1	9.788975E-1	9.669894E-1	1.062339E+0	1.071103E+0	1.071334E+0	1.108068E+0	1.091113E+0	1.105865E+0	9.477613E-1
