Photon Energy (eV)	#1	#2	#3	#4	#5	#6	#7	#8	#9	#10	#11	#12	#13	#14	#15	#16	#17	#18	#19	#20	#21	#22	#23	#24	#25	#26	#27	#28	#29	#30	#31	#32	#33	#34	#35	#36	#37	#38	#39	#40	#41	#42	#43	#44	#45	#46	#47	#48	#49	#50	#51	#52	#53	#54	#55	#56	#57	#58	#59	#60	#61	#62	#63	#64	#65	#66	#67	#68	#69	#70	#71	#72	#73	#74	#75	#76	#77	#78	#79	#80	#81	#82	#83	#84	#85	#86	#87	#88	#89	#90	#91	#92	#93	#94	#95	#96	#97	#98	#99	#100	#101	#102	#103	#104	#105	#106	#107	#108	#109	#110	#111	#112	#113	#114	#115	#116	#117	#118	#119	#120	#121	#122	#123	#124	#125	#126	#127	#128	#129	#130	#131	#132	#133	#134	#135	#136	#137	#138	#139	#140	#141	#142	#143	#144	#145	#146	#147	#148	#149	#150	#151	#152	#153	#154	#155	#156	#157	#158	#159	#160	#161	#162	#163	#164	
5.290120E+2	-2.711880E-2	-3.318126E-2	-4.567927E-2	-2.987700E-2	-2.174410E-2	-1.783506E-2	-3.014953E-2	-1.143502E-2	-4.004403E-2	-7.747670E-3	-3.140889E-2	-1.770134E-2	-3.033523E-2	-2.358682E-2	-2.506437E-2	-1.453015E-2	-3.239518E-2	-1.122182E-2	-1.775728E-2	-3.581536E-2	-2.585370E-2	-2.870405E-2	-2.023145E-2	-3.716073E-2	-1.383012E-2	-2.846666E-2	-2.081060E-2	-2.384380E-2	-2.227625E-2	-2.864878E-2	-1.272053E-2	-2.606933E-3	-2.535500E-2	-2.501240E-2	-8.283388E-3	-2.248452E-2	-2.541545E-2	-2.217772E-2	-3.314038E-2	-1.487245E-2	-2.318439E-2	-1.259549E-2	-3.581374E-2	-2.764030E-2	-2.262354E-2	-2.317502E-2	-2.306740E-2	-3.067604E-2	-2.467054E-2	-3.617123E-2	-1.426360E-2	-1.809029E-2	-6.490404E-3	-1.658042E-2	-9.532847E-3	-2.477631E-2	-2.249914E-2	-2.851027E-2	-1.936430E-2	-3.103195E-2	-4.330767E-2	-2.967819E-2	-2.290365E-2	-2.469789E-2	-1.893552E-2	-2.560093E-2	-2.106297E-2	-2.719071E-2	-2.407950E-2	-2.638267E-2	-2.240255E-2	-2.688323E-2	-3.202731E-2	-2.216354E-2	-3.142325E-3	-2.724620E-2	-2.081916E-2	-2.775058E-2	-2.386045E-2	-2.181027E-2	-2.743473E-2	-2.311944E-2	-2.074822E-2	-2.309248E-2	-1.721393E-2	-1.964935E-2	-6.753689E-4	-1.233072E-2	-1.766063E-2	-2.834562E-2	-2.853571E-2	-1.212129E-2	-9.625645E-3	-1.130012E-2	-3.248730E-2	-1.530124E-2	-1.238321E-2	-2.213847E-2	-2.179474E-2	-2.973904E-2	-3.259053E-2	-1.440576E-2	-9.794737E-3	-2.797830E-2	-1.525856E-2	-2.560586E-2	-2.504688E-2	-1.852175E-2	-2.273192E-2	-3.768203E-2	-2.380813E-2	-3.998737E-2	-1.727349E-2	-1.840587E-2	-2.543327E-2	-1.232852E-2	-3.312385E-2	-2.825249E-2	-1.613808E-2	-2.819100E-2	-1.906388E-2	-1.731547E-2	-1.774375E-2	-2.179154E-2	-1.761536E-2	-2.449384E-2	-3.652948E-2	-2.236583E-2	-2.125866E-2	-2.085265E-3	-3.086875E-2	-1.973512E-2	-1.453406E-2	-6.185492E-3	-2.707722E-2	-3.281770E-2	-1.923983E-2	-3.053901E-2	-1.211133E-2	-2.758850E-2	-3.126872E-2	-1.101756E-2	-1.952632E-2	-3.698341E-2	-1.410918E-2	-1.508341E-2	-1.984966E-2	-2.843449E-2	-2.870668E-2	-2.162243E-2	-3.027370E-2	-2.745832E-2	-2.667243E-2	-2.160948E-2	-2.573556E-2	-1.860082E-2	-7.350683E-3	-1.800461E-2	-2.270389E-2	-2.258438E-2	-2.567799E-2	-2.170240E-2	-2.456830E-2	-3.234779E-2
5.295010E+2	-2.982203E-3	-1.063249E-2	4.657454E-4	-8.603947E-3	6.416322E-3	4.312542E-3	-1.457258E-2	1.012305E-2	1.239458E-2	-4.296071E-3	4.107457E-3	-1.062840E-3	-9.524057E-3	-7.456031E-3	-6.154162E-3	-9.439864E-3	-5.693981E-3	1.838936E-3	-1.570231E-2	1.890963E-3	2.204120E-2	3.952036E-3	-6.445494E-3	3.150757E-4	-9.913201E-3	7.324271E-3	5.236386E-3	-3.218126E-3	-8.807259E-3	5.902899E-3	-6.290599E-3	-6.662307E-3	1.718007E-3	5.844541E-4	-9.761648E-3	3.575592E-3	7.508035E-3	1.989856E-3	2.796901E-3	3.201009E-3	-3.432240E-3	-1.648061E-2	1.520247E-3	7.024472E-3	-6.424214E-3	-5.119250E-3	-1.298611E-2	-4.562312E-3	-5.968716E-3	6.642419E-3	-3.951467E-3	1.666111E-3	-2.087337E-3	-1.745618E-2	2.617406E-2	1.398129E-3	3.789051E-3	-2.156366E-4	-7.044593E-3	1.155605E-2	-9.738851E-3	8.527845E-3	6.944002E-3	1.340436E-3	1.097096E-2	-1.913301E-3	-3.099795E-3	-1.256723E-2	4.141292E-4	1.231405E-2	-4.057051E-3	-2.024890E-2	-9.606776E-3	3.881993E-3	3.613522E-3	-2.353670E-3	4.106139E-3	6.637743E-3	6.949343E-3	2.205896E-3	-1.284928E-2	-5.572802E-3	4.393954E-3	-2.063262E-2	-5.589493E-4	1.860205E-2	-2.902402E-3	3.334853E-3	-3.493351E-3	4.056502E-3	6.341240E-3	-8.079011E-3	1.033337E-2	1.737150E-2	-5.241014E-3	-2.414202E-2	-1.313739E-2	-1.105368E-3	-2.434620E-4	6.809676E-3	8.779234E-3	8.671959E-3	-4.457199E-3	9.248293E-3	-6.842581E-3	1.242692E-2	6.084087E-3	7.496570E-3	-4.225280E-3	5.229080E-3	4.553706E-3	5.603251E-3	7.065011E-3	-7.452720E-3	1.022535E-2	-2.008295E-2	4.915886E-3	-3.005292E-3	-8.025470E-3	-1.504794E-3	-4.903527E-3	5.277918E-3	2.390960E-4	-5.828474E-3	4.564847E-4	5.250241E-3	2.073934E-3	-9.831538E-3	-2.218088E-2	5.099462E-3	4.623261E-3	1.477402E-3	-2.535870E-3	1.503126E-2	-3.212429E-3	9.030537E-3	-6.755900E-3	2.121770E-3	-5.502040E-3	1.420062E-2	2.008631E-3	2.840178E-3	2.832260E-3	-1.787709E-2	1.761381E-3	-1.844944E-2	1.682694E-2	6.941539E-4	5.217413E-3	1.385613E-2	2.479767E-3	1.540181E-2	-1.132874E-2	3.627694E-3	-7.040111E-4	-8.591253E-3	-5.363561E-3	-1.191067E-2	-4.007017E-4	1.541802E-3	1.398157E-3	-1.616567E-2	-9.722481E-4	-2.262585E-2
5.300010E+2	2.059618E-2	2.915474E-2	4.839043E-2	4.532540E-2	1.411652E-2	2.196029E-2	3.804692E-2	3.849843E-2	2.238123E-2	2.485464E-2	3.908056E-2	4.570951E-2	3.461608E-2	3.202335E-2	4.529104E-2	3.006870E-2	2.859457E-2	6.189713E-3	2.630513E-2	2.427287E-2	1.460122E-2	1.621316E-2	3.545008E-2	3.654378E-2	1.566837E-2	1.899821E-2	3.519939E-3	3.776796E-2	2.466349E-2	1.195290E-2	3.401360E-2	2.203131E-2	1.727588E-2	2.128998E-2	3.854115E-2	1.587499E-2	2.076363E-2	3.375603E-2	3.212172E-2	4.379835E-3	1.648951E-2	3.027415E-2	4.068113E-2	2.598879E-2	2.946571E-2	1.219311E-2	3.439417E-2	2.921560E-2	2.322215E-2	1.717243E-2	2.230335E-2	2.506669E-2	1.194840E-2	1.084713E-2	1.189078E-2	3.913518E-2	2.451953E-2	3.945822E-2	1.735873E-2	3.868756E-2	3.751427E-2	1.824732E-2	1.565568E-2	2.581522E-2	2.267184E-2	2.577715E-2	1.920606E-2	1.214574E-2	2.869378E-2	2.186966E-2	3.069696E-2	3.971875E-2	3.222786E-2	3.212942E-2	1.775510E-2	2.845411E-2	1.095787E-2	1.228175E-2	4.148839E-2	2.323212E-2	3.164987E-2	2.453384E-2	1.974956E-2	2.214925E-2	1.469060E-2	2.084785E-2	-3.878683E-3	1.791788E-2	1.940935E-2	2.850197E-2	9.667684E-3	1.288644E-2	3.443234E-2	3.484979E-3	2.960161E-2	2.784402E-2	1.883585E-2	1.672075E-2	2.801241E-2	2.460805E-2	4.193352E-2	2.837018E-2	2.451996E-2	4.933163E-2	1.228491E-2	3.548110E-2	3.265156E-2	2.661439E-2	2.353922E-2	1.447384E-2	2.730287E-2	2.865071E-2	3.275279E-2	2.554291E-2	1.370517E-2	3.402556E-2	2.249482E-2	2.569950E-2	2.019670E-2	4.039794E-2	2.851663E-2	3.069273E-2	2.252339E-2	2.698832E-2	1.371388E-2	3.800128E-2	1.683487E-2	5.067579E-2	1.685267E-2	1.375930E-2	3.215478E-2	3.103940E-2	1.213105E-2	1.958653E-2	3.539427E-2	1.721380E-2	4.443477E-2	2.924889E-2	1.328505E-2	2.655144E-2	4.366194E-2	3.209430E-2	1.388376E-2	4.256230E-2	2.176587E-2	3.293323E-2	9.169195E-3	3.904496E-2	4.221889E-2	3.215192E-2	1.429234E-2	4.017124E-2	4.322768E-2	1.305596E-2	2.522678E-2	2.138944E-2	1.741345E-2	3.364907E-2	3.345583E-2	2.085664E-2	2.254374E-2	2.772115E-2	1.490093E-2	4.437395E-2
5.305030E+2	7.812027E-3	2.487423E-2	1.531783E-2	2.055727E-2	1.268998E-2	1.518507E-2	1.613999E-2	1.465769E-2	8.740994E-3	1.945690E-2	8.395972E-3	-3.662566E-3	3.169945E-2	8.027486E-3	2.185119E-2	2.144973E-2	1.480707E-2	2.258244E-2	7.090963E-4	1.971610E-2	2.036755E-2	9.277300E-5	3.959868E-3	2.330041E-2	9.948552E-3	5.399002E-3	2.649187E-2	2.497344E-3	1.890620E-2	2.347335E-2	7.145931E-3	-2.432906E-3	2.490403E-2	1.480791E-2	2.213274E-2	9.930798E-3	2.066974E-2	1.711373E-2	1.802918E-2	2.516244E-2	2.528299E-2	9.785782E-3	7.569992E-3	3.942098E-3	1.887957E-2	1.250246E-2	5.912260E-3	2.033734E-3	8.117211E-3	1.148788E-2	1.178614E-2	1.989421E-2	1.047416E-2	2.352605E-2	2.767002E-2	2.412769E-2	6.384117E-3	1.732882E-2	2.319837E-2	-1.069514E-4	9.323254E-3	2.400858E-2	2.737146E-2	1.011048E-2	-4.237579E-3	1.852144E-2	1.903382E-2	2.940024E-2	1.275311E-2	2.462604E-2	4.257022E-3	5.927619E-3	3.078623E-3	2.064004E-2	5.587431E-3	-4.154453E-3	2.296159E-2	1.350562E-2	1.278007E-2	2.588832E-2	1.657155E-2	9.941149E-3	2.019932E-2	2.541256E-2	3.552899E-2	2.407464E-2	1.098446E-2	3.935025E-3	-1.153523E-2	1.395293E-2	2.036850E-2	9.041898E-3	2.051226E-2	1.407676E-2	3.604445E-2	2.326852E-2	1.048948E-2	9.625044E-3	-4.680511E-4	3.828066E-3	5.690887E-3	-1.657170E-3	-1.814769E-4	2.183849E-2	1.265867E-2	6.888844E-3	-3.776000E-3	4.189935E-3	1.867361E-2	1.196702E-2	1.613948E-2	7.761151E-3	9.283496E-3	5.716195E-3	6.526920E-3	-7.127958E-4	1.743551E-2	9.075200E-3	1.020348E-2	1.528116E-2	1.532559E-2	2.185837E-2	1.277574E-2	3.716938E-2	1.751810E-2	2.115967E-2	1.871299E-2	3.089892E-3	2.425370E-2	2.005189E-2	2.092634E-2	1.044499E-2	1.322351E-2	2.558914E-2	9.054711E-3	1.552286E-2	2.335685E-3	-4.863413E-3	9.589007E-3	2.918312E-2	8.508980E-3	1.140377E-2	2.214866E-2	1.557079E-2	6.111216E-3	5.912033E-4	2.094708E-3	3.351102E-2	1.656825E-2	2.233424E-2	1.119073E-2	1.910014E-2	5.259511E-3	2.455240E-2	3.880927E-3	2.481268E-2	9.916369E-3	2.359630E-2	1.419072E-2	-5.427256E-3	2.366912E-2	3.231445E-2	5.318198E-2	2.337385E-2
5.310050E+2	5.384988E-3	-1.409485E-2	-2.821292E-3	-1.143541E-2	-8.400792E-3	9.449906E-3	8.200290E-3	-9.859076E-3	-7.726570E-3	-2.379020E-3	1.548508E-3	-6.546324E-3	-9.023476E-3	4.257390E-3	-5.265471E-3	1.589551E-3	-6.462650E-3	-5.972118E-4	1.456040E-2	-2.512108E-3	-7.663077E-3	1.144324E-2	2.519123E-3	-2.184488E-3	-2.531974E-3	1.353519E-2	-4.652872E-3	3.704237E-3	-5.969712E-5	-1.167640E-2	1.599425E-3	7.658356E-5	1.741685E-3	5.569612E-3	-3.221632E-3	1.069589E-3	-1.027320E-2	-9.943417E-3	6.311133E-3	1.337587E-2	-1.112661E-2	-8.037454E-3	4.523552E-4	2.435371E-3	-2.409494E-3	6.130926E-3	1.520101E-3	1.133477E-2	-3.213011E-3	8.164050E-3	-4.712877E-3	5.994570E-3	-7.170220E-5	4.688670E-3	-2.377821E-2	-1.424025E-2	-1.187490E-3	-1.246473E-2	-1.769881E-3	-4.933412E-3	1.805318E-2	1.306631E-3	-9.129039E-3	-9.711117E-4	-1.849106E-2	4.025174E-3	-3.201062E-3	5.525588E-3	8.797617E-3	-8.742166E-3	5.421827E-3	9.157225E-3	2.897336E-3	-4.591334E-3	-2.005317E-2	9.304769E-3	-4.740740E-3	-3.873170E-3	-1.517435E-2	-4.493933E-3	1.179423E-2	7.516454E-3	-8.468723E-3	1.493383E-2	-4.645096E-3	-1.685043E-2	-4.429680E-3	-5.643352E-4	6.525714E-3	-3.074529E-3	-1.288517E-2	-2.480731E-3	-1.953810E-2	-1.833475E-2	-1.783982E-3	-6.474860E-4	-2.415133E-2	-1.609879E-3	-7.924630E-3	-9.248393E-3	5.921159E-4	-9.482854E-3	1.029821E-2	-7.765228E-3	-2.271015E-3	2.230003E-3	5.220358E-3	-2.803213E-3	1.789737E-2	4.023583E-3	2.489620E-3	2.151390E-3	-2.773564E-3	-8.385269E-3	3.062360E-3	-8.415359E-4	5.628530E-3	7.715912E-3	-5.858372E-3	-7.120295E-3	-4.974503E-3	-9.135890E-3	-8.299703E-3	-7.379178E-3	-7.020891E-3	-2.407093E-2	-1.187831E-2	-5.985959E-4	8.954476E-3	-5.762529E-3	-1.549186E-3	1.256457E-2	1.451346E-2	-1.531045E-3	-2.346577E-3	-3.733385E-3	-1.301487E-2	6.351163E-3	1.229146E-2	-1.301632E-3	-4.969839E-3	8.693601E-3	-1.274255E-3	1.178642E-2	-5.250858E-3	-1.192888E-2	1.102962E-2	-5.522516E-3	-1.658547E-2	-1.994545E-3	1.532497E-2	1.439172E-3	1.339488E-2	3.690051E-5	-6.443435E-3	-1.330621E-3	-1.411014E-2	-3.519450E-3	-9.502840E-3	8.478740E-3	-1.389186E-2	1.655960E-2	-1.313341E-2	2.593640E-2
5.315030E+2	-2.340560E-2	2.551409E-3	-1.064244E-2	-1.923555E-2	7.218271E-3	-2.158047E-2	-1.994079E-2	3.864087E-4	-2.364235E-2	-2.960332E-2	-1.671099E-2	-1.632181E-2	-2.105217E-2	-1.156061E-2	-1.195981E-2	-1.374508E-2	-1.153164E-2	-2.256212E-2	9.308908E-4	-1.280321E-2	-2.188126E-2	-2.148107E-2	-1.031409E-2	2.668922E-3	-6.936833E-3	-6.552512E-3	-9.440102E-3	-1.278927E-2	-1.035008E-2	-1.254315E-2	-6.712906E-3	-1.641868E-2	-2.482935E-2	-1.144043E-2	-3.008944E-2	-1.740909E-2	-1.053309E-2	-2.131192E-2	-1.507154E-2	-2.986724E-2	-1.705411E-2	2.524791E-3	-2.549583E-2	-2.046484E-2	-1.125950E-2	-1.471694E-2	-1.910702E-2	-2.117238E-2	3.119043E-3	-2.457809E-4	-1.286329E-2	-1.880312E-2	-1.204097E-2	-5.209548E-3	-2.674488E-2	-2.413690E-2	-1.172500E-2	-8.812508E-3	-1.766378E-2	-2.003867E-2	-2.607321E-2	-1.721726E-2	-1.185292E-2	-1.538801E-2	-1.603546E-2	-1.279660E-2	-1.059693E-2	-7.808729E-3	-2.180593E-2	-1.583118E-2	7.865034E-3	-2.147460E-2	-2.050748E-2	-2.307768E-2	-8.714688E-3	-1.283078E-2	-2.771036E-2	-1.126986E-2	-1.223435E-2	-2.621660E-2	-6.309386E-3	-1.012392E-2	-1.590702E-2	-1.623981E-2	-2.117805E-2	-2.564572E-2	-6.845660E-3	-6.835525E-3	-2.715658E-4	-4.657032E-3	-7.345546E-3	3.726834E-3	-2.037020E-2	-1.509165E-2	-2.273837E-2	-1.457455E-2	-5.335009E-3	-1.298071E-2	3.238890E-3	-3.004699E-2	-2.884417E-2	-2.333472E-2	-2.349144E-2	-1.583643E-2	-1.661321E-3	-1.298632E-2	-8.409407E-3	-1.961920E-2	-2.462356E-2	-1.696943E-2	-1.121096E-2	-3.572324E-3	-3.061313E-2	3.247595E-3	-1.090096E-2	-5.617321E-3	-2.086553E-2	-9.930784E-3	-4.833150E-4	-8.743482E-3	5.382571E-4	-1.434604E-2	-7.708561E-3	-1.355527E-2	-1.334713E-2	-1.922360E-2	-7.437231E-3	-1.165600E-2	-6.476838E-3	-1.065272E-2	-2.463174E-2	-1.854275E-2	-1.499909E-2	-3.306290E-2	-1.535773E-2	-3.273721E-3	-4.192261E-3	-1.139109E-2	-4.141850E-3	-2.201890E-2	-1.609650E-3	-2.787362E-2	1.051364E-3	-7.497102E-4	-1.187523E-3	-2.670988E-3	-1.423227E-2	-2.872389E-2	-8.569924E-3	-1.045972E-2	-1.534176E-2	-2.194464E-2	-2.699599E-2	-1.964242E-2	2.391053E-3	-2.164814E-2	-2.304632E-2	-1.278065E-2	-1.607169E-2	-2.340126E-2	-7.021428E-3	-3.360480E-2	-5.518349E-3	-2.708798E-2
5.320070E+2	2.053177E-3	-1.936052E-2	-4.589222E-3	-1.367934E-2	-1.147386E-2	-9.146279E-3	-1.686933E-2	-2.566197E-2	1.049923E-2	-2.568034E-3	-1.332158E-2	-1.342167E-3	-3.843713E-3	-1.509982E-2	-3.474940E-2	-2.163608E-2	-2.640163E-3	-1.355794E-2	-1.575455E-2	-1.142359E-2	-1.188400E-2	5.257373E-4	-1.333148E-2	-2.011694E-2	-1.378721E-2	-1.680953E-2	-5.467160E-3	-4.342485E-3	4.090354E-4	-1.248743E-2	-1.138312E-2	-1.435886E-2	-8.385262E-3	-7.237046E-3	-1.507069E-2	-4.907866E-3	-1.046735E-2	-1.227562E-3	-9.832244E-3	1.912200E-4	3.930878E-3	-6.289632E-3	-2.568261E-3	2.307730E-4	-1.386334E-2	-1.566777E-3	-9.987575E-3	-1.453071E-4	-9.284333E-3	-1.026129E-2	-1.427757E-2	-2.174245E-2	-1.530260E-2	-2.131190E-2	-4.978704E-3	-1.251376E-2	-1.829504E-2	-2.068795E-2	-1.772053E-2	-1.097470E-2	1.208393E-3	-7.094935E-3	-1.193018E-2	-6.802962E-4	-1.903467E-3	-1.619507E-2	-1.772125E-2	-2.547641E-2	-2.188752E-2	-2.744252E-2	-1.741380E-2	-3.124025E-3	-1.213097E-3	-1.572266E-2	-1.006545E-2	-1.211006E-2	-2.209563E-2	-1.448075E-2	-1.712200E-2	-9.181555E-3	-1.717398E-2	-1.079869E-2	-1.899763E-2	-7.944085E-3	-6.163284E-3	-1.406258E-2	-1.120664E-2	-2.266020E-2	-9.058984E-3	-2.127612E-2	-1.536573E-2	-1.342551E-2	-2.049316E-2	-1.509827E-2	-1.609789E-2	-2.189382E-2	2.904980E-3	-5.669274E-3	-2.122076E-2	5.760250E-3	-5.212070E-3	-5.955246E-3	-1.058166E-2	-2.111279E-2	-2.745922E-4	-1.734601E-2	-1.300067E-2	-1.563303E-2	-1.922168E-2	-3.379487E-3	-1.049576E-2	-1.396230E-2	4.191890E-3	-2.473338E-2	-9.428358E-3	-1.016870E-2	-1.882090E-2	-6.480004E-3	-6.756209E-3	-1.289318E-2	-2.923074E-2	-2.974787E-2	-8.414971E-3	-1.427837E-2	-1.673821E-2	-7.677222E-3	-2.873658E-3	-1.458478E-2	-1.830877E-2	-3.489218E-2	-8.536313E-4	-1.489012E-2	-1.499777E-2	-2.913316E-2	-3.079552E-3	-1.107677E-2	-1.880493E-2	-5.948630E-3	-9.628304E-3	-2.704065E-2	-2.914911E-2	-2.463916E-2	-2.978997E-2	-1.827717E-2	-1.598790E-2	-6.087933E-3	-2.105822E-2	-1.810417E-2	-2.447285E-2	-2.690807E-2	-9.641419E-3	-2.056317E-2	-8.096855E-3	-1.966050E-2	-1.593095E-2	-4.509371E-3	5.351854E-3	-1.654535E-2	-1.079079E-2	-3.620966E-3	-2.000608E-2	-2.395962E-2	-3.256674E-2	-4.337156E-2
5.325120E+2	1.766023E-2	2.068875E-2	-4.417731E-4	1.694858E-2	1.177647E-3	-2.346002E-3	1.914503E-2	-1.670952E-2	1.739693E-2	2.282574E-3	8.308973E-3	9.275323E-4	7.463118E-3	1.339506E-2	1.605098E-2	6.243190E-3	1.532197E-2	1.732800E-2	6.708614E-3	1.667434E-2	1.027208E-2	1.795818E-2	8.393441E-3	-3.366019E-3	2.138241E-2	6.572029E-3	5.122543E-3	2.241391E-4	-2.485449E-3	2.402660E-2	-5.651791E-3	2.037180E-2	1.293001E-2	1.437932E-3	5.752905E-3	1.435051E-2	7.747688E-3	1.801011E-3	-1.214779E-3	-1.570680E-3	9.093982E-3	8.184673E-4	1.365411E-2	8.483635E-3	8.234813E-3	1.375149E-2	2.332157E-2	1.397194E-2	8.678191E-3	3.211515E-3	1.597932E-2	6.014275E-3	1.357045E-2	2.149619E-2	-7.002194E-4	1.100623E-2	1.901397E-2	1.390405E-2	2.300597E-2	1.684208E-2	1.302064E-2	1.899997E-3	5.844649E-3	4.471170E-3	2.596030E-2	8.182143E-3	1.744213E-2	2.597151E-2	1.711431E-2	1.958878E-2	-4.367444E-3	1.692716E-2	2.515084E-2	8.903763E-3	1.501958E-2	2.093629E-2	3.734029E-2	2.494924E-2	7.173346E-3	1.037601E-2	3.751729E-3	7.623405E-3	1.977875E-2	5.413355E-3	-4.602909E-4	1.268355E-2	1.895397E-2	1.720302E-2	1.608470E-2	1.084189E-2	2.775473E-2	1.045137E-2	4.749124E-3	2.489155E-2	1.270249E-2	2.544657E-2	2.277662E-2	1.715791E-2	2.040035E-2	2.802839E-2	9.651009E-3	1.779361E-2	1.368835E-2	-7.725673E-3	1.364494E-3	-1.088689E-3	6.276951E-3	1.827629E-2	1.069225E-2	2.233742E-2	-4.970824E-3	1.335550E-2	-2.632998E-3	2.447054E-2	1.224279E-2	1.572626E-2	2.233553E-2	5.177956E-3	6.861261E-3	2.773649E-3	1.379218E-2	1.271625E-2	6.628763E-3	-1.324872E-3	2.303312E-2	1.105440E-2	2.109689E-2	5.271063E-3	1.816431E-2	1.448204E-2	1.989281E-4	-2.358366E-3	7.198772E-3	9.705666E-3	6.624538E-3	9.134377E-3	1.523734E-2	1.502031E-2	-3.782001E-3	8.014494E-3	1.281777E-2	8.498491E-3	1.067450E-2	3.967870E-3	6.896992E-3	2.069622E-2	1.601969E-2	7.534925E-3	1.433037E-2	-7.357521E-3	1.196907E-2	-6.146235E-3	1.121195E-2	1.963945E-2	1.731519E-2	8.478093E-3	1.718903E-2	5.515359E-3	1.182336E-2	2.415669E-2	1.898633E-2	1.883729E-2	8.676147E-3	3.174899E-2
5.330080E+2	3.826858E-2	3.489008E-2	3.269109E-2	5.799150E-2	5.280229E-2	6.860250E-2	3.951535E-2	3.745283E-2	6.298260E-2	4.342538E-2	4.361969E-2	2.885146E-2	4.988377E-2	3.019141E-2	3.233178E-2	4.964358E-2	4.922880E-2	4.034667E-2	4.940629E-2	4.346418E-2	4.332396E-2	5.075113E-2	4.113938E-2	3.021779E-2	6.154934E-2	4.489284E-2	4.391538E-2	2.663250E-2	4.185727E-2	5.167660E-2	4.046267E-2	3.731925E-2	4.163727E-2	7.800296E-2	4.457486E-2	4.248479E-2	5.519125E-2	4.574723E-2	3.511924E-2	2.946452E-2	5.207457E-2	4.949181E-2	6.523868E-2	6.235580E-2	5.174414E-2	2.723726E-2	3.115607E-2	5.722988E-2	4.074358E-2	5.848918E-2	4.211893E-2	4.842702E-2	4.518299E-2	4.068229E-2	4.349875E-2	4.158235E-2	4.487033E-2	4.934404E-2	5.813663E-2	4.176995E-2	2.639274E-2	2.117968E-2	6.048504E-2	3.578654E-2	4.758762E-2	4.208941E-2	4.484442E-2	4.459062E-2	5.847239E-2	2.464762E-2	6.206600E-2	4.769025E-2	5.012680E-2	6.324746E-2	4.300239E-2	3.809751E-2	4.141092E-2	3.908124E-2	2.786735E-2	5.152157E-2	3.002843E-2	4.858663E-2	5.067608E-2	5.619274E-2	4.074942E-2	3.127981E-2	3.617015E-2	4.606960E-2	3.614643E-2	3.544684E-2	4.054825E-2	7.882933E-2	5.349862E-2	4.588818E-2	5.656067E-2	3.446944E-2	3.471799E-2	4.627088E-2	5.788993E-2	5.112673E-2	5.215207E-2	5.228775E-2	5.759606E-2	5.094559E-2	7.395237E-2	5.567417E-2	4.373019E-2	4.030093E-2	1.845040E-2	5.182500E-2	2.522183E-2	4.565286E-2	4.732989E-2	3.745509E-2	5.976998E-2	3.332965E-2	5.534447E-2	4.127606E-2	3.245506E-2	3.175288E-2	4.668530E-2	4.326499E-2	2.685454E-2	4.884980E-2	6.035248E-2	5.169926E-2	5.734997E-2	5.328834E-2	3.527687E-2	6.936067E-2	5.473039E-2	5.663837E-2	4.724656E-2	2.800456E-2	3.749199E-2	6.998612E-2	3.998261E-2	3.821655E-2	5.017601E-2	4.736436E-2	4.929238E-2	5.219154E-2	6.340207E-2	4.375810E-2	6.448486E-2	3.722676E-2	5.611290E-2	5.451660E-2	3.425438E-2	6.616175E-2	3.790112E-2	5.839730E-2	2.660525E-2	4.585797E-2	4.475481E-2	4.270057E-2	4.442103E-2	3.358895E-2	3.426274E-2	5.879228E-2	3.593750E-2	6.093587E-2	1.613277E-2	2.464263E-2
5.332150E+2	3.995023E-2	1.420781E-2	3.595702E-2	1.174513E-2	5.710255E-2	6.016294E-2	4.288211E-2	5.673317E-2	2.090346E-2	1.199486E-2	2.648003E-2	1.414991E-2	3.628682E-2	4.909492E-2	4.199337E-2	2.411696E-2	3.441244E-2	2.065352E-2	1.996700E-2	2.801464E-2	2.887515E-2	2.193507E-2	1.935567E-2	3.359642E-2	3.635203E-2	2.578416E-2	2.539441E-2	2.133949E-2	4.519220E-2	4.196894E-2	1.795216E-2	3.712513E-2	3.659817E-2	3.140243E-2	1.927414E-2	3.205545E-2	4.957522E-2	3.698882E-2	3.909850E-2	3.792437E-2	3.059110E-2	3.198629E-2	1.552109E-2	3.879805E-2	2.150256E-2	2.685655E-2	3.114526E-2	4.976322E-2	3.311338E-2	4.046413E-2	2.496975E-2	1.669119E-2	3.891066E-2	4.936132E-2	2.728637E-2	4.199099E-2	5.448041E-2	2.514354E-2	2.031284E-2	3.633947E-2	4.809720E-2	3.145589E-2	2.103371E-2	2.682603E-2	4.438222E-2	3.012187E-2	2.477914E-2	4.563323E-2	3.524622E-2	4.806110E-2	1.362026E-2	5.039113E-2	3.101966E-2	4.324609E-2	4.272898E-2	3.785818E-2	4.944937E-2	3.226404E-2	2.318079E-2	4.824591E-2	6.709935E-2	4.122389E-2	2.642764E-2	3.596379E-2	4.448389E-2	4.065002E-2	2.224199E-2	3.761847E-2	2.771494E-2	4.339485E-2	3.501610E-2	2.907084E-2	4.136390E-2	2.905645E-2	3.020528E-2	5.010448E-2	2.622369E-2	2.851856E-2	3.691984E-2	1.962230E-2	4.412467E-2	4.632304E-2	4.316777E-2	2.826467E-2	5.082036E-2	1.834677E-2	2.128560E-2	4.418184E-2	2.822431E-2	3.452334E-2	4.481851E-2	3.622960E-2	2.632977E-2	2.306846E-2	2.045264E-2	3.593959E-2	2.786006E-2	4.422890E-2	4.399546E-2	3.906553E-2	4.991618E-2	3.345789E-2	4.194577E-2	2.607218E-2	2.782786E-2	5.129920E-2	3.547861E-2	4.779086E-2	3.905290E-2	4.069022E-2	2.085851E-2	3.661486E-2	3.930051E-2	2.896026E-2	3.504786E-2	1.617068E-2	4.640645E-2	4.384336E-2	4.768607E-2	4.053099E-2	4.952986E-2	2.724994E-2	3.427465E-2	4.041667E-2	2.730451E-2	3.613991E-2	4.515217E-2	2.652836E-2	3.985902E-2	2.056373E-2	2.255430E-2	4.600134E-2	4.363925E-2	5.605664E-2	3.698873E-2	3.708596E-2	3.235128E-2	4.930624E-2	4.380372E-2	3.644236E-2	4.277488E-2	3.654295E-2	3.365694E-2	-4.164240E-3
5.334160E+2	1.151571E-2	1.549369E-3	1.430092E-2	3.729759E-2	3.793588E-2	2.008197E-2	1.189863E-2	1.489594E-2	1.213069E-2	1.431191E-2	2.532977E-2	2.278425E-2	3.273008E-3	1.649994E-2	1.561688E-2	1.124228E-2	1.905873E-2	-1.259331E-2	2.005661E-2	2.693124E-2	1.600313E-2	6.927618E-3	2.746541E-2	9.882590E-3	3.211633E-2	1.985096E-2	2.220209E-2	2.169742E-2	1.091866E-2	2.778760E-3	3.444359E-2	1.442727E-2	1.515999E-2	5.706681E-3	1.401988E-2	2.029612E-2	2.863595E-3	2.573933E-2	9.531964E-3	3.650031E-2	9.089660E-3	1.596596E-2	1.061090E-2	3.064658E-2	2.743160E-2	6.487289E-3	8.279185E-3	3.003647E-2	7.123311E-3	4.192325E-2	-5.259148E-3	1.109769E-2	-7.742370E-6	3.130965E-2	3.442747E-2	1.216382E-2	1.033576E-4	1.162896E-2	4.226881E-2	1.816072E-2	1.353645E-2	2.649834E-2	1.513076E-2	6.446057E-3	2.632156E-2	3.189958E-2	-2.421488E-3	9.805707E-3	2.116005E-2	3.718344E-2	1.631553E-2	1.240899E-2	7.195064E-3	4.460488E-2	4.930498E-3	1.426210E-2	2.606842E-2	1.235611E-2	1.088788E-2	1.004246E-2	2.524737E-2	2.434763E-2	6.299513E-3	4.065674E-3	3.011937E-2	1.455456E-2	2.033138E-3	3.920939E-3	1.403751E-2	1.050811E-2	1.273928E-2	1.258078E-2	2.320616E-2	3.049943E-2	8.514006E-3	7.779893E-3	2.340923E-2	3.137530E-2	3.776437E-3	1.177382E-2	2.564421E-2	1.621337E-2	3.209814E-2	2.014410E-2	5.664697E-3	5.435719E-3	3.732868E-3	1.661524E-2	2.556471E-2	9.426782E-3	7.085194E-3	2.204788E-2	-1.892784E-3	4.641051E-2	-7.515465E-4	1.881389E-2	2.705884E-2	-5.430431E-3	1.532445E-2	1.586117E-2	1.326804E-2	8.419051E-3	1.089126E-2	-6.984419E-3	2.369723E-2	1.216477E-2	1.905442E-2	4.348639E-2	1.656252E-2	2.863869E-2	1.643594E-2	2.697015E-2	1.368171E-2	1.756557E-2	1.342643E-2	1.958187E-2	1.238232E-3	-5.609693E-3	6.735042E-3	7.691654E-3	1.758766E-2	-3.442812E-3	1.250560E-2	1.481584E-2	1.214526E-2	1.704400E-2	2.056664E-2	-7.880684E-4	2.445531E-2	4.262232E-2	1.989605E-2	1.489450E-2	3.429005E-2	3.831984E-2	7.057710E-3	4.349857E-3	3.297244E-2	2.757972E-3	2.646495E-2	2.055274E-2	3.007028E-2	3.846486E-2	2.321664E-2	-1.296479E-2
5.336130E+2	-2.072746E-3	9.911268E-3	-1.955281E-3	-6.808204E-3	6.603508E-3	-4.928908E-3	5.306043E-3	4.618149E-3	-1.521946E-2	-5.307733E-3	8.042574E-3	5.947029E-3	-1.870962E-3	-3.343679E-3	-1.008676E-2	-1.083071E-3	1.047422E-2	5.394377E-3	6.852772E-3	9.208386E-3	1.369368E-2	1.320051E-2	6.730633E-3	3.832622E-3	2.556338E-2	-1.102738E-2	5.309790E-3	1.569320E-2	1.259524E-2	-9.941478E-3	5.496596E-3	9.324972E-3	-2.462603E-3	2.621438E-3	7.966952E-3	5.576864E-3	1.241769E-2	2.474969E-2	-8.828783E-3	1.957383E-2	2.866937E-2	-7.074178E-3	-6.313158E-3	-1.480153E-3	4.317201E-3	-4.233715E-3	-1.238640E-2	3.899862E-3	-6.492398E-3	1.338992E-3	-2.852351E-3	1.302044E-2	3.723148E-3	8.124160E-3	2.253557E-2	-1.657933E-2	3.538065E-3	1.675231E-2	-4.338239E-3	-9.277525E-3	-3.132514E-3	1.437834E-3	5.784517E-4	1.335755E-2	-5.522742E-3	-7.171667E-3	-4.562157E-3	1.645674E-2	-6.813707E-3	-9.241345E-4	-1.166261E-4	-2.239457E-3	9.040989E-4	1.626046E-2	1.600504E-2	-2.600116E-2	-2.828204E-3	2.137597E-2	1.129725E-2	-2.308477E-3	-4.034148E-3	-8.622958E-3	-1.193537E-2	-1.144733E-3	1.499183E-3	-5.088831E-3	-7.505337E-3	1.207513E-2	6.335906E-3	-9.433291E-3	-6.045181E-3	1.160588E-2	-2.567239E-4	7.934373E-3	-1.157466E-3	-1.296233E-3	8.668876E-3	6.667959E-3	-3.275478E-3	1.459111E-2	2.722495E-3	8.933118E-3	1.877591E-2	1.473104E-2	-1.109126E-2	1.589213E-2	-2.295481E-3	-8.597721E-3	-1.374332E-2	-2.436868E-3	-3.135632E-3	9.070357E-3	-1.391094E-3	2.822825E-3	1.098505E-2	-6.299695E-4	3.571743E-3	-5.641323E-3	2.496426E-3	2.841111E-3	1.244912E-3	-1.422794E-2	1.717499E-2	1.406584E-2	-9.078596E-3	-1.642322E-3	3.283961E-3	-1.186874E-2	4.317940E-3	1.478899E-2	-6.853093E-3	-1.459067E-2	2.583717E-4	-4.232905E-3	5.357835E-3	1.575778E-2	2.535421E-3	3.367672E-2	1.403128E-2	1.358438E-2	3.760323E-3	-8.825941E-3	2.900494E-3	3.268290E-3	-1.024740E-2	1.257605E-3	3.839331E-3	9.634850E-3	-4.838797E-3	8.414044E-3	6.463142E-3	1.711373E-2	4.787725E-3	1.999115E-2	9.345175E-3	1.438339E-2	-1.001988E-2	7.213497E-3	7.461034E-3	1.471493E-4	9.628183E-3	1.098030E-2	-1.776489E-2	-2.967775E-2
5.338050E+2	2.197029E-2	2.687652E-2	4.331418E-2	2.101357E-2	5.518750E-2	4.732429E-2	4.814058E-2	4.070574E-2	1.225345E-2	3.459502E-2	3.567880E-2	4.932382E-2	3.284684E-2	2.043480E-2	1.968848E-2	3.565596E-2	2.062208E-2	1.823050E-2	1.596807E-2	4.538884E-2	4.324384E-2	2.284848E-2	1.341029E-2	5.642591E-3	2.396167E-2	4.098117E-2	3.913782E-2	2.834720E-2	1.751811E-2	2.620772E-2	1.232832E-2	3.403195E-2	2.337732E-2	5.062092E-2	2.651066E-2	2.780052E-2	2.072970E-2	2.946099E-2	2.594005E-2	2.225287E-2	4.691389E-2	2.791141E-2	2.154347E-2	5.128785E-2	4.384615E-2	1.508724E-2	2.581452E-2	3.746956E-2	2.876413E-2	3.767465E-2	2.393818E-2	3.195929E-2	3.456955E-2	3.877603E-2	2.043806E-2	2.218654E-2	2.092989E-2	2.124457E-2	3.511516E-2	3.388279E-2	3.880508E-2	2.997377E-2	3.035194E-2	2.241780E-2	2.437482E-2	4.331127E-2	2.075227E-2	4.106023E-2	3.983749E-2	3.461740E-2	2.374305E-2	4.207438E-2	4.292217E-2	3.313163E-2	3.323462E-2	5.155373E-2	2.053174E-2	2.854440E-2	2.738869E-2	3.296672E-2	4.976626E-2	3.172025E-2	2.938519E-2	3.886557E-2	2.968589E-2	3.003638E-2	2.655864E-2	1.836556E-2	3.355209E-2	2.764502E-2	3.636698E-2	2.157916E-2	5.306769E-2	2.310828E-2	3.659125E-2	3.606001E-2	1.050107E-2	3.577488E-2	1.708884E-2	2.361001E-2	1.874391E-2	3.133394E-2	3.514440E-2	3.802836E-2	3.045955E-2	1.215612E-2	3.838439E-2	1.252453E-2	3.133389E-2	1.726525E-2	3.882453E-2	1.025118E-2	2.577685E-2	3.388354E-2	2.770566E-2	3.822160E-2	3.083810E-2	1.743632E-2	3.450090E-2	3.322540E-2	2.962430E-2	1.619238E-2	4.646269E-2	3.204512E-2	2.886934E-2	3.328576E-2	2.364594E-2	4.989029E-2	2.463640E-2	3.581886E-2	2.667574E-2	4.817049E-2	4.529516E-2	2.734936E-2	5.833106E-3	3.435596E-2	4.496577E-2	1.921860E-2	3.002510E-2	3.362783E-2	3.014755E-2	3.567269E-2	3.097544E-2	4.486705E-2	1.029113E-2	4.169378E-2	1.852108E-2	3.592440E-2	2.550149E-2	2.977251E-2	2.384014E-2	4.565171E-2	1.139747E-2	3.059099E-2	2.736271E-2	3.621687E-2	3.706156E-3	2.934207E-2	3.291153E-2	4.255142E-2	3.286701E-2	4.811210E-2	1.490105E-2	5.485487E-2
5.340070E+2	7.078820E-2	6.857352E-2	7.986506E-2	1.090802E-1	9.520385E-2	6.793383E-2	7.006902E-2	9.189723E-2	9.833773E-2	7.164011E-2	8.795356E-2	9.516166E-2	6.868405E-2	8.788839E-2	6.660516E-2	8.322410E-2	1.022282E-1	6.871963E-2	9.012258E-2	8.799657E-2	8.755354E-2	7.296029E-2	6.788315E-2	7.181472E-2	7.635035E-2	6.668998E-2	1.025664E-1	1.032819E-1	6.696885E-2	1.026664E-1	1.023419E-1	9.873217E-2	9.065374E-2	7.993355E-2	7.791905E-2	8.242114E-2	1.004132E-1	7.537134E-2	8.469798E-2	7.809598E-2	7.045272E-2	8.843123E-2	6.593053E-2	9.651213E-2	9.820963E-2	7.410436E-2	8.326360E-2	8.920782E-2	7.392758E-2	9.069259E-2	7.630594E-2	7.343238E-2	8.312491E-2	9.040605E-2	8.698025E-2	9.585179E-2	7.119036E-2	6.983818E-2	9.204604E-2	8.454766E-2	8.863503E-2	7.564108E-2	8.545784E-2	6.283505E-2	7.127036E-2	8.853933E-2	8.401637E-2	7.942603E-2	8.936026E-2	7.749424E-2	7.413849E-2	9.001617E-2	8.159440E-2	8.205071E-2	7.977574E-2	8.443768E-2	8.400763E-2	1.021213E-1	8.097980E-2	7.582473E-2	8.313930E-2	6.900081E-2	5.399328E-2	9.737353E-2	8.522513E-2	9.816717E-2	1.000109E-1	7.378142E-2	8.059154E-2	7.016806E-2	9.117464E-2	1.008948E-1	8.200181E-2	8.336623E-2	5.336666E-2	1.005195E-1	8.245032E-2	7.730213E-2	6.932777E-2	6.374084E-2	9.657580E-2	9.052143E-2	7.971915E-2	8.728009E-2	5.177702E-2	8.085363E-2	6.867244E-2	1.014161E-1	8.186477E-2	7.461971E-2	8.907092E-2	7.358737E-2	5.764255E-2	9.765711E-2	6.672230E-2	7.444113E-2	8.477014E-2	9.202811E-2	9.732555E-2	1.056488E-1	1.029571E-1	9.026087E-2	7.906801E-2	7.093348E-2	8.275335E-2	7.855092E-2	8.300317E-2	8.335853E-2	7.383772E-2	8.685465E-2	1.035346E-1	9.222402E-2	9.234929E-2	8.050311E-2	5.953639E-2	7.657190E-2	6.122628E-2	9.408604E-2	8.991590E-2	1.028127E-1	8.590601E-2	7.683229E-2	7.954703E-2	8.777606E-2	7.521730E-2	9.924200E-2	9.405791E-2	9.562240E-2	8.784562E-2	8.933798E-2	8.165948E-2	9.126809E-2	8.638286E-2	9.776930E-2	7.460028E-2	9.287841E-2	7.788094E-2	9.940721E-2	8.319549E-2	7.597661E-2	1.006023E-1	1.080322E-1	9.150244E-2	5.362138E-2
5.342040E+2	1.011794E-1	9.307249E-2	9.507288E-2	1.072675E-1	1.041176E-1	8.309987E-2	8.421551E-2	9.021946E-2	7.852036E-2	1.073305E-1	7.452408E-2	8.994317E-2	8.453421E-2	9.409025E-2	9.750311E-2	8.731029E-2	9.689195E-2	8.981686E-2	1.139702E-1	1.057513E-1	9.059357E-2	8.227686E-2	1.031442E-1	8.462809E-2	1.088507E-1	1.199924E-1	7.089087E-2	8.934092E-2	1.039393E-1	9.258197E-2	1.011020E-1	1.049651E-1	1.115655E-1	1.215210E-1	9.432725E-2	1.070432E-1	9.510425E-2	9.667160E-2	9.785613E-2	1.149953E-1	9.341203E-2	9.607151E-2	1.084288E-1	1.012887E-1	8.899609E-2	1.030805E-1	1.163143E-1	9.904011E-2	8.056877E-2	7.268294E-2	8.904402E-2	1.029993E-1	8.158741E-2	9.178728E-2	1.184291E-1	8.928411E-2	1.049302E-1	8.544381E-2	8.329079E-2	8.287048E-2	9.666867E-2	1.060062E-1	8.490176E-2	1.047214E-1	9.959904E-2	9.402389E-2	1.144147E-1	1.248331E-1	7.383711E-2	1.003466E-1	8.690283E-2	1.226622E-1	1.129270E-1	9.244341E-2	7.235055E-2	9.642535E-2	1.028391E-1	9.947667E-2	9.472531E-2	1.005617E-1	1.043294E-1	1.012503E-1	8.735615E-2	7.745555E-2	8.134356E-2	6.763444E-2	8.915289E-2	1.053850E-1	7.979915E-2	9.923931E-2	8.557100E-2	8.832091E-2	7.988804E-2	1.073733E-1	1.142342E-1	1.238265E-1	9.698816E-2	7.726195E-2	1.079170E-1	8.686373E-2	9.525508E-2	7.477998E-2	1.117035E-1	9.442623E-2	9.966260E-2	1.015806E-1	1.150544E-1	9.720999E-2	1.032675E-1	7.731335E-2	1.215065E-1	1.049498E-1	1.049016E-1	8.754741E-2	1.150476E-1	6.042688E-2	1.025178E-1	8.852090E-2	8.174342E-2	9.626500E-2	1.192937E-1	8.401126E-2	9.174102E-2	9.227787E-2	8.551212E-2	7.457823E-2	9.954272E-2	1.249997E-1	9.310175E-2	1.075323E-1	1.089841E-1	1.317277E-1	9.654492E-2	7.910996E-2	1.080453E-1	9.989032E-2	1.113155E-1	9.955770E-2	7.753067E-2	9.400117E-2	9.386291E-2	9.470510E-2	1.060945E-1	9.827747E-2	9.546989E-2	1.179237E-1	6.885144E-2	1.002846E-1	1.024673E-1	8.930636E-2	1.034375E-1	1.136564E-1	6.782801E-2	8.279519E-2	1.155563E-1	1.289008E-1	1.304938E-1	8.483849E-2	1.139434E-1	1.218629E-1	1.124883E-1	8.438350E-2	7.077222E-2	9.148695E-2
5.344070E+2	1.079859E-1	1.082560E-1	1.090091E-1	1.106935E-1	1.289147E-1	1.403973E-1	1.088823E-1	9.888804E-2	1.136128E-1	9.137055E-2	1.227208E-1	1.224541E-1	1.293803E-1	1.485301E-1	1.172384E-1	1.031461E-1	1.281347E-1	1.481874E-1	1.156894E-1	1.166778E-1	1.148931E-1	9.382587E-2	1.016420E-1	1.250809E-1	1.633625E-1	1.203735E-1	1.256576E-1	1.232539E-1	1.263887E-1	1.360851E-1	1.293035E-1	1.160432E-1	1.284679E-1	1.290897E-1	1.195752E-1	1.574838E-1	1.216045E-1	1.382219E-1	1.146409E-1	1.359348E-1	1.446957E-1	1.278036E-1	1.623001E-1	1.371447E-1	1.395492E-1	1.148085E-1	1.428160E-1	1.355549E-1	1.360993E-1	1.340707E-1	1.382425E-1	1.017364E-1	1.100038E-1	1.300659E-1	1.183444E-1	1.272751E-1	1.347745E-1	1.224771E-1	1.456511E-1	1.226611E-1	1.283044E-1	1.381831E-1	1.348602E-1	1.307349E-1	1.373238E-1	1.255390E-1	1.198085E-1	1.168101E-1	1.366268E-1	1.224461E-1	1.231793E-1	1.322242E-1	1.351844E-1	1.399828E-1	1.465575E-1	1.165375E-1	1.173148E-1	1.175163E-1	1.255290E-1	1.403014E-1	1.356329E-1	1.413992E-1	1.256856E-1	1.225489E-1	1.381986E-1	1.128409E-1	1.388529E-1	1.357711E-1	1.420154E-1	1.295425E-1	1.395590E-1	1.211267E-1	1.377170E-1	1.476814E-1	1.199206E-1	1.588148E-1	1.122267E-1	1.179199E-1	1.270043E-1	1.138819E-1	1.189149E-1	1.316145E-1	1.135153E-1	1.036500E-1	1.399320E-1	1.234655E-1	1.346864E-1	1.214512E-1	1.100631E-1	1.373765E-1	1.405577E-1	1.068013E-1	1.018945E-1	1.094378E-1	1.476161E-1	1.200926E-1	1.045488E-1	1.041208E-1	1.252902E-1	1.496720E-1	1.154793E-1	1.063847E-1	1.424908E-1	1.323400E-1	1.449201E-1	1.163403E-1	1.457308E-1	1.021588E-1	1.257313E-1	1.543479E-1	1.340414E-1	1.382549E-1	1.349640E-1	1.342070E-1	1.578671E-1	1.192446E-1	1.225976E-1	1.192703E-1	1.353627E-1	1.411408E-1	1.233293E-1	1.130726E-1	1.475304E-1	1.364080E-1	1.263444E-1	1.501469E-1	1.471796E-1	1.353635E-1	1.276091E-1	1.445978E-1	1.093506E-1	1.293296E-1	1.452701E-1	1.499448E-1	1.166987E-1	1.200333E-1	1.211977E-1	1.263490E-1	1.621377E-1	1.215158E-1	1.077801E-1	1.327856E-1	1.504649E-1	5.742059E-2
5.346150E+2	1.581566E-1	1.737412E-1	1.991929E-1	1.862505E-1	1.942654E-1	1.962464E-1	1.988691E-1	2.102191E-1	1.724454E-1	1.872205E-1	1.832605E-1	1.974510E-1	2.049676E-1	1.856938E-1	1.589425E-1	1.804404E-1	1.897962E-1	1.796003E-1	2.347612E-1	1.885160E-1	1.860345E-1	1.837204E-1	2.232191E-1	1.911705E-1	2.039140E-1	2.021506E-1	2.190706E-1	2.282647E-1	2.137132E-1	2.089889E-1	2.041952E-1	2.082289E-1	1.934341E-1	1.963048E-1	1.841410E-1	2.135724E-1	2.171839E-1	1.962499E-1	1.859617E-1	1.995094E-1	2.076329E-1	2.087157E-1	2.088457E-1	2.095322E-1	2.118586E-1	1.981285E-1	2.128341E-1	1.878123E-1	1.883307E-1	2.008055E-1	2.068433E-1	2.152021E-1	2.174354E-1	2.163712E-1	1.989515E-1	2.136778E-1	2.279972E-1	1.929512E-1	1.992673E-1	2.129730E-1	2.318662E-1	2.007900E-1	2.107416E-1	1.931987E-1	2.316199E-1	2.219055E-1	1.952720E-1	1.915083E-1	2.115675E-1	1.967638E-1	1.870338E-1	2.312175E-1	2.030198E-1	2.133157E-1	2.074234E-1	2.157138E-1	2.059577E-1	2.082779E-1	1.892969E-1	2.053701E-1	2.001620E-1	2.408377E-1	2.334385E-1	2.328511E-1	2.268646E-1	2.285508E-1	2.140194E-1	1.978708E-1	2.178425E-1	2.500392E-1	2.167192E-1	2.044218E-1	2.176806E-1	2.015550E-1	2.118937E-1	2.150971E-1	2.053247E-1	2.116106E-1	2.154378E-1	2.119704E-1	2.186259E-1	2.079919E-1	1.973097E-1	1.953550E-1	2.201982E-1	2.115144E-1	2.144564E-1	1.941909E-1	2.261083E-1	2.012475E-1	2.111350E-1	2.265199E-1	2.122667E-1	2.131564E-1	1.998014E-1	2.025583E-1	2.353682E-1	1.964350E-1	2.403763E-1	2.065123E-1	2.312838E-1	1.994077E-1	2.127697E-1	1.978992E-1	2.150360E-1	2.098566E-1	2.297939E-1	1.993508E-1	1.965836E-1	2.223583E-1	1.922147E-1	2.369987E-1	2.188193E-1	2.253817E-1	1.985626E-1	1.985691E-1	2.030511E-1	2.242216E-1	1.922064E-1	2.052002E-1	2.334947E-1	2.096112E-1	2.217037E-1	2.506766E-1	2.381708E-1	2.259441E-1	2.094639E-1	2.157572E-1	2.171592E-1	1.987143E-1	1.968151E-1	2.330836E-1	2.303888E-1	2.276654E-1	2.444607E-1	2.005074E-1	2.215565E-1	1.952807E-1	2.146921E-1	2.142734E-1	2.313714E-1	2.030402E-1	1.947129E-1	1.847036E-1
5.348180E+2	3.933473E-1	3.769676E-1	3.745309E-1	4.414588E-1	4.500027E-1	4.250201E-1	3.984736E-1	4.092915E-1	4.154572E-1	4.037648E-1	3.859879E-1	4.036473E-1	4.311076E-1	4.018470E-1	4.014894E-1	4.139871E-1	3.980184E-1	4.027545E-1	4.250808E-1	4.014588E-1	4.510821E-1	4.595525E-1	4.463990E-1	4.048811E-1	4.286778E-1	4.432450E-1	4.114599E-1	4.379585E-1	4.245912E-1	3.957771E-1	3.983735E-1	4.142968E-1	4.591290E-1	4.435308E-1	4.228194E-1	4.345585E-1	4.348677E-1	4.698990E-1	4.412584E-1	3.766244E-1	4.505947E-1	4.184772E-1	4.326024E-1	4.164153E-1	4.509245E-1	4.456054E-1	4.012310E-1	4.203342E-1	4.168586E-1	4.378203E-1	4.146064E-1	4.563458E-1	4.103539E-1	4.287743E-1	4.465300E-1	4.410867E-1	4.257027E-1	4.662784E-1	4.395094E-1	4.144628E-1	4.097515E-1	4.204949E-1	4.566838E-1	4.090483E-1	4.581544E-1	4.073558E-1	4.280766E-1	4.271661E-1	4.115512E-1	4.318382E-1	4.375977E-1	4.422624E-1	4.489509E-1	4.749410E-1	4.088245E-1	4.111876E-1	4.342588E-1	4.070780E-1	4.810745E-1	4.116588E-1	4.468093E-1	4.376609E-1	4.406617E-1	4.339550E-1	4.216514E-1	4.143659E-1	4.701673E-1	4.293742E-1	4.618738E-1	4.180821E-1	4.341422E-1	4.260119E-1	4.181848E-1	4.455650E-1	4.708969E-1	4.613863E-1	4.186215E-1	4.340429E-1	4.392432E-1	4.282177E-1	4.292123E-1	3.988740E-1	4.636074E-1	4.094481E-1	4.503073E-1	4.381832E-1	4.453844E-1	4.305046E-1	4.290270E-1	4.337274E-1	4.221360E-1	4.343746E-1	3.961665E-1	4.424196E-1	4.278504E-1	4.338821E-1	4.544865E-1	4.189032E-1	4.205047E-1	4.202642E-1	4.563152E-1	4.476509E-1	3.855888E-1	4.174847E-1	4.610389E-1	4.064007E-1	4.398145E-1	4.372588E-1	4.162993E-1	4.221704E-1	4.446133E-1	3.925103E-1	4.312851E-1	4.042416E-1	4.176741E-1	3.842307E-1	4.319455E-1	4.436532E-1	4.044241E-1	4.159039E-1	4.732583E-1	4.158115E-1	4.317713E-1	4.782418E-1	4.442413E-1	4.489020E-1	4.472760E-1	4.586371E-1	4.238100E-1	4.624339E-1	4.100517E-1	4.552129E-1	4.353174E-1	4.402361E-1	4.133108E-1	4.054900E-1	4.592720E-1	3.994271E-1	4.307694E-1	3.900735E-1	3.997706E-1	4.485149E-1	4.434063E-1	3.824641E-1
5.350100E+2	7.256247E-1	7.577671E-1	8.060440E-1	7.655202E-1	8.288226E-1	7.794662E-1	8.043152E-1	7.844628E-1	7.726139E-1	7.866580E-1	8.076095E-1	7.924276E-1	7.972866E-1	7.384859E-1	7.499305E-1	7.880381E-1	8.049134E-1	7.387017E-1	8.406380E-1	8.387020E-1	8.176328E-1	8.174352E-1	7.682779E-1	7.759915E-1	8.194822E-1	7.969605E-1	8.069461E-1	8.494241E-1	7.963625E-1	7.844691E-1	8.133009E-1	7.844019E-1	7.992762E-1	8.166299E-1	7.916472E-1	8.030481E-1	8.081775E-1	8.872452E-1	8.070780E-1	8.141684E-1	8.230564E-1	7.782848E-1	8.784662E-1	8.153299E-1	8.391605E-1	8.112209E-1	8.424546E-1	8.291163E-1	8.059615E-1	7.914447E-1	8.379549E-1	8.553697E-1	7.903137E-1	8.102700E-1	8.258680E-1	8.060781E-1	9.040333E-1	8.068463E-1	8.263597E-1	7.807068E-1	8.224842E-1	8.263440E-1	7.956081E-1	7.742113E-1	8.513527E-1	8.223176E-1	8.093609E-1	8.446032E-1	7.940221E-1	7.573105E-1	8.066037E-1	8.187020E-1	8.185516E-1	7.920901E-1	8.306104E-1	8.487421E-1	8.430477E-1	8.346328E-1	8.355242E-1	8.066102E-1	8.048633E-1	7.531954E-1	8.066829E-1	8.000719E-1	8.169683E-1	7.948275E-1	8.037227E-1	8.090549E-1	8.103729E-1	8.172878E-1	7.921250E-1	8.354307E-1	8.219543E-1	8.262882E-1	8.070425E-1	8.284491E-1	7.913617E-1	8.112878E-1	8.219237E-1	8.292969E-1	7.698962E-1	8.607668E-1	8.026633E-1	7.677995E-1	8.243984E-1	8.111480E-1	7.865680E-1	8.160202E-1	7.951642E-1	7.905259E-1	8.458727E-1	8.591597E-1	8.358786E-1	7.905397E-1	8.539224E-1	8.244959E-1	7.729340E-1	7.236592E-1	7.784974E-1	8.191267E-1	7.487424E-1	8.039255E-1	8.003967E-1	8.033456E-1	7.951331E-1	7.886542E-1	7.696357E-1	7.971175E-1	8.212205E-1	8.601202E-1	8.198970E-1	7.969851E-1	8.203388E-1	7.742428E-1	7.333069E-1	7.890370E-1	8.080377E-1	8.248607E-1	7.957508E-1	7.427624E-1	8.759052E-1	7.470750E-1	7.923695E-1	8.529554E-1	7.944999E-1	8.315760E-1	7.581687E-1	8.210739E-1	8.165031E-1	7.938120E-1	8.168385E-1	7.971646E-1	7.904925E-1	7.767763E-1	7.850391E-1	8.422702E-1	7.647143E-1	8.133895E-1	7.817250E-1	7.958574E-1	8.109044E-1	8.476816E-1	7.531029E-1	8.009288E-1
5.352080E+2	1.110466E+0	1.194034E+0	1.154756E+0	1.148106E+0	1.156972E+0	1.177894E+0	1.110922E+0	1.114348E+0	1.198144E+0	1.180772E+0	1.091376E+0	1.157103E+0	1.161690E+0	1.122251E+0	1.120190E+0	1.177442E+0	1.107279E+0	1.173647E+0	1.182389E+0	1.172034E+0	1.132492E+0	1.166378E+0	1.175269E+0	1.105948E+0	1.155618E+0	1.170728E+0	1.118817E+0	1.149253E+0	1.131993E+0	1.155168E+0	1.155242E+0	1.126208E+0	1.128316E+0	1.191795E+0	1.197985E+0	1.192318E+0	1.128119E+0	1.215372E+0	1.112547E+0	1.107890E+0	1.167794E+0	1.160441E+0	1.147227E+0	1.170761E+0	1.200218E+0	1.138594E+0	1.192697E+0	1.193770E+0	1.164933E+0	1.097129E+0	1.112824E+0	1.174610E+0	1.121714E+0	1.123763E+0	1.229189E+0	1.163336E+0	1.164043E+0	1.137364E+0	1.136371E+0	1.196176E+0	1.148233E+0	1.190505E+0	1.147596E+0	1.153994E+0	1.168493E+0	1.157428E+0	1.164312E+0	1.154167E+0	1.185140E+0	1.170431E+0	1.212161E+0	1.175181E+0	1.167095E+0	1.141521E+0	1.194594E+0	1.187294E+0	1.171804E+0	1.177580E+0	1.188426E+0	1.183776E+0	1.154758E+0	1.190497E+0	1.182637E+0	1.100869E+0	1.137988E+0	1.125855E+0	1.134554E+0	1.104017E+0	1.231950E+0	1.172633E+0	1.184613E+0	1.117392E+0	1.166691E+0	1.099586E+0	1.132602E+0	1.172405E+0	1.126835E+0	1.141898E+0	1.141224E+0	1.095193E+0	1.142948E+0	1.110863E+0	1.141229E+0	1.173499E+0	1.186177E+0	1.140609E+0	1.123058E+0	1.166557E+0	1.156076E+0	1.144176E+0	1.183911E+0	1.165982E+0	1.156757E+0	1.199217E+0	1.152866E+0	1.214822E+0	1.125329E+0	1.124373E+0	1.149169E+0	1.177219E+0	1.190431E+0	1.148134E+0	1.079316E+0	1.144788E+0	1.146994E+0	1.124501E+0	1.133888E+0	1.114049E+0	1.207345E+0	1.203186E+0	1.118957E+0	1.082375E+0	1.148249E+0	1.118512E+0	1.120242E+0	1.145398E+0	1.142294E+0	1.132933E+0	1.134033E+0	1.142282E+0	1.255815E+0	1.082383E+0	1.168072E+0	1.159774E+0	1.108541E+0	1.202741E+0	1.143277E+0	1.153920E+0	1.182634E+0	1.218325E+0	1.113593E+0	1.191856E+0	1.146139E+0	1.108636E+0	1.105616E+0	1.111892E+0	1.189092E+0	1.122386E+0	1.125138E+0	1.115867E+0	1.144714E+0	1.164058E+0	1.164360E+0	1.118473E+0
5.354110E+2	1.366586E+0	1.310048E+0	1.372565E+0	1.383540E+0	1.394535E+0	1.327286E+0	1.365056E+0	1.359100E+0	1.378652E+0	1.301072E+0	1.324142E+0	1.364778E+0	1.352650E+0	1.377371E+0	1.428193E+0	1.306747E+0	1.310880E+0	1.304658E+0	1.368597E+0	1.397787E+0	1.345687E+0	1.370876E+0	1.340205E+0	1.380459E+0	1.382578E+0	1.347520E+0	1.372873E+0	1.415686E+0	1.361477E+0	1.322696E+0	1.372294E+0	1.359109E+0	1.415708E+0	1.374104E+0	1.274977E+0	1.368469E+0	1.366013E+0	1.403624E+0	1.275256E+0	1.342521E+0	1.293969E+0	1.365226E+0	1.390911E+0	1.310885E+0	1.387714E+0	1.391726E+0	1.358330E+0	1.319731E+0	1.299512E+0	1.365266E+0	1.348608E+0	1.389493E+0	1.278942E+0	1.349066E+0	1.365295E+0	1.374331E+0	1.365504E+0	1.307043E+0	1.314716E+0	1.349060E+0	1.308330E+0	1.353301E+0	1.304478E+0	1.363526E+0	1.366432E+0	1.319042E+0	1.375707E+0	1.307186E+0	1.400325E+0	1.305629E+0	1.330127E+0	1.401892E+0	1.384552E+0	1.288387E+0	1.291890E+0	1.395180E+0	1.408650E+0	1.312115E+0	1.373685E+0	1.355477E+0	1.353508E+0	1.400559E+0	1.243514E+0	1.321155E+0	1.289599E+0	1.280083E+0	1.351533E+0	1.376307E+0	1.376370E+0	1.288612E+0	1.270190E+0	1.414253E+0	1.310319E+0	1.348259E+0	1.369740E+0	1.363536E+0	1.318735E+0	1.285009E+0	1.334192E+0	1.307930E+0	1.335440E+0	1.333052E+0	1.306061E+0	1.312869E+0	1.395395E+0	1.337488E+0	1.298072E+0	1.343181E+0	1.327619E+0	1.348910E+0	1.365027E+0	1.314508E+0	1.355493E+0	1.389725E+0	1.294452E+0	1.334033E+0	1.332054E+0	1.350743E+0	1.326059E+0	1.361754E+0	1.360385E+0	1.339161E+0	1.315225E+0	1.399287E+0	1.340656E+0	1.310491E+0	1.332487E+0	1.301123E+0	1.383478E+0	1.342784E+0	1.350403E+0	1.352462E+0	1.339484E+0	1.383920E+0	1.335425E+0	1.335875E+0	1.333403E+0	1.301192E+0	1.274494E+0	1.310304E+0	1.401776E+0	1.277426E+0	1.363185E+0	1.358041E+0	1.328888E+0	1.347012E+0	1.329363E+0	1.330572E+0	1.335002E+0	1.360914E+0	1.331041E+0	1.373255E+0	1.378047E+0	1.364298E+0	1.329864E+0	1.386455E+0	1.382494E+0	1.378203E+0	1.417318E+0	1.314167E+0	1.319565E+0	1.303833E+0	1.351934E+0	1.406088E+0
5.356150E+2	1.401569E+0	1.401961E+0	1.449085E+0	1.462023E+0	1.449709E+0	1.473297E+0	1.459537E+0	1.431565E+0	1.460823E+0	1.413709E+0	1.424259E+0	1.417342E+0	1.440794E+0	1.408227E+0	1.472760E+0	1.418407E+0	1.410078E+0	1.439348E+0	1.387091E+0	1.407169E+0	1.422609E+0	1.431152E+0	1.427416E+0	1.436845E+0	1.443030E+0	1.409631E+0	1.414464E+0	1.467366E+0	1.388472E+0	1.393237E+0	1.426862E+0	1.432883E+0	1.380540E+0	1.487706E+0	1.393731E+0	1.445436E+0	1.439171E+0	1.484968E+0	1.376917E+0	1.402648E+0	1.457923E+0	1.400247E+0	1.413709E+0	1.380284E+0	1.426429E+0	1.497892E+0	1.431755E+0	1.371377E+0	1.395280E+0	1.377371E+0	1.402572E+0	1.407983E+0	1.374157E+0	1.446310E+0	1.410294E+0	1.365149E+0	1.437595E+0	1.421203E+0	1.375386E+0	1.369028E+0	1.383145E+0	1.416144E+0	1.401490E+0	1.459703E+0	1.394160E+0	1.485851E+0	1.412921E+0	1.408103E+0	1.442981E+0	1.397040E+0	1.421960E+0	1.458907E+0	1.453579E+0	1.440853E+0	1.444896E+0	1.435893E+0	1.455260E+0	1.397557E+0	1.406161E+0	1.452883E+0	1.436741E+0	1.401601E+0	1.382722E+0	1.412902E+0	1.428356E+0	1.402131E+0	1.431255E+0	1.429476E+0	1.427805E+0	1.455008E+0	1.443916E+0	1.482209E+0	1.377533E+0	1.414663E+0	1.426858E+0	1.363839E+0	1.366326E+0	1.360304E+0	1.401975E+0	1.349851E+0	1.342810E+0	1.443334E+0	1.380937E+0	1.373097E+0	1.410628E+0	1.420794E+0	1.401473E+0	1.436375E+0	1.369143E+0	1.420946E+0	1.425065E+0	1.408571E+0	1.368243E+0	1.393348E+0	1.437188E+0	1.394862E+0	1.402477E+0	1.369045E+0	1.410266E+0	1.435715E+0	1.384389E+0	1.412264E+0	1.459107E+0	1.440232E+0	1.454910E+0	1.367209E+0	1.440378E+0	1.430614E+0	1.437196E+0	1.364783E+0	1.419471E+0	1.365780E+0	1.410330E+0	1.325172E+0	1.397555E+0	1.409059E+0	1.377237E+0	1.398796E+0	1.376496E+0	1.354774E+0	1.495917E+0	1.428216E+0	1.379689E+0	1.461076E+0	1.432996E+0	1.413529E+0	1.391971E+0	1.431335E+0	1.435865E+0	1.400455E+0	1.473771E+0	1.394900E+0	1.441836E+0	1.391449E+0	1.482852E+0	1.436731E+0	1.488116E+0	1.450039E+0	1.380620E+0	1.375997E+0	1.389089E+0	1.495412E+0	1.340426E+0	1.445386E+0
5.358130E+2	1.601727E+0	1.564014E+0	1.550697E+0	1.534682E+0	1.560850E+0	1.570876E+0	1.563677E+0	1.513277E+0	1.532762E+0	1.605389E+0	1.560987E+0	1.565036E+0	1.642615E+0	1.478410E+0	1.597277E+0	1.553969E+0	1.609082E+0	1.465507E+0	1.548843E+0	1.549929E+0	1.498542E+0	1.569628E+0	1.606608E+0	1.590394E+0	1.551207E+0	1.543826E+0	1.577098E+0	1.599445E+0	1.496013E+0	1.579156E+0	1.554353E+0	1.555570E+0	1.482130E+0	1.571269E+0	1.465937E+0	1.593814E+0	1.481588E+0	1.607647E+0	1.457031E+0	1.515228E+0	1.438279E+0	1.438106E+0	1.551200E+0	1.475498E+0	1.506425E+0	1.532440E+0	1.552535E+0	1.504773E+0	1.515646E+0	1.495091E+0	1.550651E+0	1.573417E+0	1.485984E+0	1.530239E+0	1.552288E+0	1.611696E+0	1.610648E+0	1.535693E+0	1.516023E+0	1.443003E+0	1.540472E+0	1.551612E+0	1.614469E+0	1.497892E+0	1.498655E+0	1.561188E+0	1.564907E+0	1.538869E+0	1.535081E+0	1.484634E+0	1.553538E+0	1.643689E+0	1.562948E+0	1.510514E+0	1.504392E+0	1.528435E+0	1.563998E+0	1.564101E+0	1.485579E+0	1.593967E+0	1.527531E+0	1.570989E+0	1.501809E+0	1.470932E+0	1.550362E+0	1.465694E+0	1.532085E+0	1.503247E+0	1.538134E+0	1.520554E+0	1.545262E+0	1.514152E+0	1.564715E+0	1.481615E+0	1.529681E+0	1.539018E+0	1.517650E+0	1.499571E+0	1.545025E+0	1.544445E+0	1.457773E+0	1.590608E+0	1.503581E+0	1.509081E+0	1.499037E+0	1.533923E+0	1.513779E+0	1.518034E+0	1.506225E+0	1.516348E+0	1.571962E+0	1.550806E+0	1.461353E+0	1.549180E+0	1.520884E+0	1.553350E+0	1.545245E+0	1.527380E+0	1.567798E+0	1.522127E+0	1.557430E+0	1.513146E+0	1.495258E+0	1.541556E+0	1.571921E+0	1.546974E+0	1.496410E+0	1.506915E+0	1.522632E+0	1.570956E+0	1.585029E+0	1.526206E+0	1.522405E+0	1.503511E+0	1.449822E+0	1.530051E+0	1.487519E+0	1.545312E+0	1.475038E+0	1.526181E+0	1.613633E+0	1.514131E+0	1.527159E+0	1.528872E+0	1.509383E+0	1.566798E+0	1.503237E+0	1.557913E+0	1.532192E+0	1.579965E+0	1.426381E+0	1.492160E+0	1.494289E+0	1.475036E+0	1.553179E+0	1.555256E+0	1.524920E+0	1.532560E+0	1.550024E+0	1.555401E+0	1.477729E+0	1.525312E+0	1.549060E+0	1.653626E+0
5.360120E+2	1.623736E+0	1.712576E+0	1.628965E+0	1.726129E+0	1.739121E+0	1.739272E+0	1.640542E+0	1.644973E+0	1.727692E+0	1.710403E+0	1.705711E+0	1.675647E+0	1.638550E+0	1.644158E+0	1.699078E+0	1.646030E+0	1.626262E+0	1.654276E+0	1.697313E+0	1.659052E+0	1.676151E+0	1.675810E+0	1.636934E+0	1.710518E+0	1.675107E+0	1.659001E+0	1.712293E+0	1.671274E+0	1.653990E+0	1.645657E+0	1.664320E+0	1.625645E+0	1.631347E+0	1.668269E+0	1.671888E+0	1.703000E+0	1.606669E+0	1.750764E+0	1.678439E+0	1.609612E+0	1.656928E+0	1.733737E+0	1.642716E+0	1.635035E+0	1.678118E+0	1.770788E+0	1.646935E+0	1.690242E+0	1.611905E+0	1.631154E+0	1.678621E+0	1.634687E+0	1.664156E+0	1.617797E+0	1.616150E+0	1.690010E+0	1.677944E+0	1.645423E+0	1.665591E+0	1.599645E+0	1.711519E+0	1.671238E+0	1.644496E+0	1.724092E+0	1.662133E+0	1.706622E+0	1.601794E+0	1.633547E+0	1.706338E+0	1.562919E+0	1.680739E+0	1.714578E+0	1.590598E+0	1.628947E+0	1.613213E+0	1.763798E+0	1.706114E+0	1.628829E+0	1.670503E+0	1.677932E+0	1.653570E+0	1.688123E+0	1.694152E+0	1.648711E+0	1.691913E+0	1.635520E+0	1.670315E+0	1.598420E+0	1.687934E+0	1.688677E+0	1.601614E+0	1.650358E+0	1.619375E+0	1.678026E+0	1.692815E+0	1.686308E+0	1.716197E+0	1.662001E+0	1.729303E+0	1.671007E+0	1.632622E+0	1.626278E+0	1.614472E+0	1.678555E+0	1.614756E+0	1.598620E+0	1.634922E+0	1.652584E+0	1.646513E+0	1.613766E+0	1.690821E+0	1.726350E+0	1.662046E+0	1.665566E+0	1.629650E+0	1.644859E+0	1.658061E+0	1.660762E+0	1.643610E+0	1.731582E+0	1.629627E+0	1.659755E+0	1.638988E+0	1.685313E+0	1.687163E+0	1.628509E+0	1.625662E+0	1.683133E+0	1.624713E+0	1.621747E+0	1.660520E+0	1.602837E+0	1.701218E+0	1.635223E+0	1.584328E+0	1.624494E+0	1.630858E+0	1.588158E+0	1.599583E+0	1.582279E+0	1.637910E+0	1.584243E+0	1.657101E+0	1.676944E+0	1.621272E+0	1.623472E+0	1.630754E+0	1.669267E+0	1.705820E+0	1.722110E+0	1.592526E+0	1.713424E+0	1.653074E+0	1.632975E+0	1.707065E+0	1.668577E+0	1.684154E+0	1.647570E+0	1.648242E+0	1.625310E+0	1.632919E+0	1.594498E+0	1.545635E+0	1.697968E+0
5.362050E+2	1.651546E+0	1.657349E+0	1.712739E+0	1.684902E+0	1.685276E+0	1.752687E+0	1.687500E+0	1.677806E+0	1.662413E+0	1.709578E+0	1.689081E+0	1.728819E+0	1.664651E+0	1.732945E+0	1.638247E+0	1.733875E+0	1.653141E+0	1.656966E+0	1.744237E+0	1.721179E+0	1.744427E+0	1.802943E+0	1.694092E+0	1.692121E+0	1.696078E+0	1.715879E+0	1.727490E+0	1.677744E+0	1.682942E+0	1.648569E+0	1.723284E+0	1.636363E+0	1.637745E+0	1.650345E+0	1.718742E+0	1.679157E+0	1.597368E+0	1.828050E+0	1.560524E+0	1.737489E+0	1.626848E+0	1.660726E+0	1.686234E+0	1.717307E+0	1.712785E+0	1.785006E+0	1.700699E+0	1.634871E+0	1.635931E+0	1.650593E+0	1.723456E+0	1.738836E+0	1.666338E+0	1.711781E+0	1.662955E+0	1.771968E+0	1.679062E+0	1.738518E+0	1.713751E+0	1.623419E+0	1.663838E+0	1.735632E+0	1.656487E+0	1.729779E+0	1.757234E+0	1.719749E+0	1.712538E+0	1.725938E+0	1.748282E+0	1.634424E+0	1.637618E+0	1.683899E+0	1.752109E+0	1.719902E+0	1.732817E+0	1.721318E+0	1.813728E+0	1.664884E+0	1.675860E+0	1.739391E+0	1.636867E+0	1.724765E+0	1.680818E+0	1.722658E+0	1.693656E+0	1.643556E+0	1.703717E+0	1.665455E+0	1.716332E+0	1.683644E+0	1.648024E+0	1.717310E+0	1.710758E+0	1.652551E+0	1.716102E+0	1.673188E+0	1.688865E+0	1.665262E+0	1.713436E+0	1.671960E+0	1.598637E+0	1.685541E+0	1.596385E+0	1.661339E+0	1.629922E+0	1.714871E+0	1.678362E+0	1.700008E+0	1.659593E+0	1.707995E+0	1.720970E+0	1.722446E+0	1.701355E+0	1.727929E+0	1.723108E+0	1.622601E+0	1.679354E+0	1.637711E+0	1.705098E+0	1.753756E+0	1.621831E+0	1.624260E+0	1.696854E+0	1.712941E+0	1.686258E+0	1.633903E+0	1.719087E+0	1.708837E+0	1.718479E+0	1.671253E+0	1.702752E+0	1.653774E+0	1.654179E+0	1.608986E+0	1.684543E+0	1.654665E+0	1.689692E+0	1.647401E+0	1.676559E+0	1.632039E+0	1.729065E+0	1.639562E+0	1.734259E+0	1.723294E+0	1.660519E+0	1.703940E+0	1.669208E+0	1.646115E+0	1.737942E+0	1.726669E+0	1.652651E+0	1.680776E+0	1.616133E+0	1.652209E+0	1.620481E+0	1.746594E+0	1.717686E+0	1.635800E+0	1.645886E+0	1.579914E+0	1.654021E+0	1.668948E+0	1.671713E+0	1.694018E+0
5.364090E+2	1.396725E+0	1.481703E+0	1.411179E+0	1.397979E+0	1.428000E+0	1.439635E+0	1.347725E+0	1.399785E+0	1.357575E+0	1.368299E+0	1.414287E+0	1.388592E+0	1.422237E+0	1.392839E+0	1.413063E+0	1.395427E+0	1.378168E+0	1.342367E+0	1.416385E+0	1.417778E+0	1.389785E+0	1.439881E+0	1.377669E+0	1.402479E+0	1.356989E+0	1.385375E+0	1.456558E+0	1.425603E+0	1.415996E+0	1.361370E+0	1.469285E+0	1.368238E+0	1.309551E+0	1.434010E+0	1.366644E+0	1.357383E+0	1.408555E+0	1.448194E+0	1.387021E+0	1.438761E+0	1.390100E+0	1.379120E+0	1.400292E+0	1.365256E+0	1.405325E+0	1.407675E+0	1.381625E+0	1.379784E+0	1.389859E+0	1.319573E+0	1.444960E+0	1.386990E+0	1.331240E+0	1.420764E+0	1.424743E+0	1.393800E+0	1.369475E+0	1.450876E+0	1.372692E+0	1.368059E+0	1.396741E+0	1.420118E+0	1.405446E+0	1.374300E+0	1.419550E+0	1.395544E+0	1.427035E+0	1.398895E+0	1.448962E+0	1.372985E+0	1.364682E+0	1.443417E+0	1.451808E+0	1.407153E+0	1.405530E+0	1.419300E+0	1.430732E+0	1.355586E+0	1.426269E+0	1.442988E+0	1.370535E+0	1.379228E+0	1.394998E+0	1.374451E+0	1.465465E+0	1.399360E+0	1.375308E+0	1.452969E+0	1.406625E+0	1.384057E+0	1.461915E+0	1.399937E+0	1.398178E+0	1.388157E+0	1.395196E+0	1.446456E+0	1.400078E+0	1.315293E+0	1.423659E+0	1.335495E+0	1.339462E+0	1.443870E+0	1.392513E+0	1.338238E+0	1.400913E+0	1.429625E+0	1.325546E+0	1.353881E+0	1.390582E+0	1.422505E+0	1.455269E+0	1.422305E+0	1.419773E+0	1.403960E+0	1.359758E+0	1.386301E+0	1.376138E+0	1.386536E+0	1.456639E+0	1.411655E+0	1.328401E+0	1.444214E+0	1.363119E+0	1.355932E+0	1.376374E+0	1.404200E+0	1.438205E+0	1.330043E+0	1.405802E+0	1.396671E+0	1.367357E+0	1.452818E+0	1.348043E+0	1.383230E+0	1.372639E+0	1.385682E+0	1.447219E+0	1.370600E+0	1.340029E+0	1.399068E+0	1.464360E+0	1.376697E+0	1.405860E+0	1.449163E+0	1.367092E+0	1.533701E+0	1.350249E+0	1.431559E+0	1.415853E+0	1.429908E+0	1.416777E+0	1.382336E+0	1.431623E+0	1.391702E+0	1.397021E+0	1.480498E+0	1.424345E+0	1.367803E+0	1.359095E+0	1.396925E+0	1.324388E+0	1.351142E+0	1.378589E+0	1.515194E+0
5.366080E+2	1.123820E+0	1.069794E+0	1.113728E+0	1.188833E+0	1.142600E+0	1.098210E+0	1.134622E+0	1.059456E+0	1.178050E+0	1.132132E+0	1.128734E+0	1.162350E+0	1.179610E+0	1.109533E+0	1.172946E+0	1.126993E+0	1.174622E+0	1.128705E+0	1.195196E+0	1.134847E+0	1.176177E+0	1.117621E+0	1.118255E+0	1.052828E+0	1.160630E+0	1.083223E+0	1.123483E+0	1.187566E+0	1.065121E+0	1.124651E+0	1.172121E+0	1.179888E+0	1.147429E+0	1.175231E+0	1.187924E+0	1.129548E+0	1.123856E+0	1.157566E+0	1.094183E+0	1.107963E+0	1.108592E+0	1.099907E+0	1.149194E+0	1.149577E+0	1.166971E+0	1.138902E+0	1.132242E+0	1.122326E+0	1.079562E+0	1.133861E+0	1.148934E+0	1.160671E+0	1.126222E+0	1.124097E+0	1.153472E+0	1.190040E+0	1.173486E+0	1.080479E+0	1.183474E+0	1.136704E+0	1.143824E+0	1.161208E+0	1.129013E+0	1.140465E+0	1.125097E+0	1.182365E+0	1.163215E+0	1.089631E+0	1.184767E+0	1.108882E+0	1.098065E+0	1.183568E+0	1.192249E+0	1.136795E+0	1.126981E+0	1.227695E+0	1.170800E+0	1.189032E+0	1.194839E+0	1.234935E+0	1.137780E+0	1.152019E+0	1.133372E+0	1.073400E+0	1.109462E+0	1.155897E+0	1.181687E+0	1.126499E+0	1.132982E+0	1.165915E+0	1.149899E+0	1.089783E+0	1.134218E+0	1.159359E+0	1.091791E+0	1.133108E+0	1.148314E+0	1.162907E+0	1.153934E+0	1.070666E+0	1.073378E+0	1.194119E+0	1.092572E+0	1.083635E+0	1.157072E+0	1.130169E+0	1.146851E+0	1.138913E+0	1.072744E+0	1.143043E+0	1.205576E+0	1.138703E+0	1.181775E+0	1.122330E+0	1.199604E+0	1.105489E+0	1.135020E+0	1.093731E+0	1.086168E+0	1.182525E+0	1.115821E+0	1.132648E+0	1.149652E+0	1.157892E+0	1.181876E+0	1.110466E+0	1.172799E+0	1.126521E+0	1.098225E+0	1.117230E+0	1.099473E+0	1.120821E+0	1.133862E+0	1.128006E+0	1.115385E+0	1.171872E+0	1.145898E+0	1.200540E+0	1.060435E+0	1.129443E+0	1.155336E+0	1.077455E+0	1.133003E+0	1.167631E+0	1.155142E+0	1.159579E+0	1.154631E+0	1.181766E+0	1.180254E+0	1.138037E+0	1.152021E+0	1.171848E+0	1.125080E+0	1.105555E+0	1.099753E+0	1.140325E+0	1.141412E+0	1.149948E+0	1.151547E+0	1.134767E+0	1.111726E+0	1.168529E+0	1.152745E+0	1.131988E+0
5.368180E+2	9.247523E-1	9.291501E-1	9.259109E-1	8.838573E-1	9.122663E-1	9.040252E-1	9.695388E-1	9.565406E-1	8.986304E-1	9.356304E-1	9.012732E-1	8.984149E-1	8.866827E-1	9.415871E-1	9.052515E-1	9.149856E-1	9.426763E-1	9.405192E-1	9.123134E-1	9.429466E-1	9.188427E-1	9.556113E-1	8.647276E-1	9.366852E-1	8.732765E-1	9.255062E-1	9.335179E-1	9.695118E-1	8.890145E-1	9.201021E-1	9.531939E-1	9.565935E-1	9.004583E-1	9.389877E-1	9.470533E-1	9.112947E-1	9.677695E-1	9.409213E-1	9.520695E-1	9.404527E-1	9.461411E-1	9.038051E-1	9.194377E-1	8.969568E-1	9.786104E-1	9.697077E-1	9.483571E-1	9.344640E-1	9.119542E-1	8.898072E-1	9.288451E-1	9.568893E-1	8.822301E-1	8.884631E-1	9.358627E-1	9.803808E-1	9.507946E-1	9.509662E-1	9.883201E-1	9.354282E-1	9.277583E-1	9.811413E-1	9.932562E-1	9.294807E-1	9.384143E-1	9.790244E-1	9.357356E-1	9.477451E-1	9.687727E-1	8.979712E-1	9.272167E-1	9.598532E-1	9.882896E-1	9.148493E-1	9.196555E-1	9.462655E-1	9.774175E-1	9.865932E-1	9.549404E-1	1.002184E+0	9.050009E-1	9.428995E-1	9.669312E-1	9.203471E-1	9.269101E-1	9.259412E-1	9.058333E-1	9.524028E-1	9.173238E-1	9.516688E-1	9.471921E-1	9.202622E-1	9.680363E-1	9.171795E-1	9.312391E-1	9.372402E-1	9.563036E-1	9.082050E-1	9.354947E-1	9.277189E-1	8.724329E-1	9.506230E-1	8.818203E-1	9.742974E-1	9.482428E-1	9.371614E-1	9.376662E-1	9.654582E-1	8.915594E-1	9.324991E-1	9.868904E-1	9.771985E-1	9.208221E-1	9.208354E-1	9.577024E-1	9.647785E-1	9.005720E-1	9.402888E-1	9.365605E-1	9.436526E-1	9.282326E-1	9.412556E-1	9.504967E-1	9.973128E-1	9.531132E-1	9.156101E-1	9.066779E-1	9.080414E-1	9.386808E-1	9.755059E-1	9.060307E-1	9.616638E-1	8.989444E-1	9.767060E-1	9.343623E-1	9.120780E-1	9.365645E-1	9.392977E-1	9.045856E-1	8.830301E-1	9.615002E-1	9.343448E-1	9.501811E-1	9.728413E-1	8.911668E-1	9.534114E-1	8.978073E-1	9.641050E-1	8.940601E-1	9.631309E-1	9.018194E-1	9.125795E-1	9.377311E-1	9.579705E-1	9.757885E-1	9.590186E-1	9.645251E-1	9.409163E-1	9.804058E-1	9.443670E-1	9.133679E-1	9.596743E-1	9.849108E-1	9.835012E-1
5.370170E+2	8.724338E-1	9.252879E-1	9.140099E-1	8.937686E-1	8.875363E-1	8.848869E-1	9.529861E-1	8.379861E-1	9.383119E-1	9.265097E-1	8.878246E-1	8.601146E-1	9.092078E-1	8.285893E-1	9.091699E-1	9.110225E-1	8.825786E-1	8.691487E-1	9.343379E-1	9.126581E-1	8.773954E-1	8.739238E-1	9.269615E-1	9.133881E-1	9.268361E-1	8.809088E-1	8.880978E-1	9.188791E-1	9.051849E-1	9.078560E-1	9.369204E-1	8.993729E-1	8.969107E-1	9.480098E-1	8.850512E-1	9.521690E-1	8.523683E-1	8.891854E-1	9.068050E-1	9.172964E-1	9.015672E-1	8.734793E-1	9.158138E-1	9.083049E-1	9.145126E-1	9.219648E-1	9.435297E-1	9.422521E-1	8.895019E-1	8.733416E-1	9.689655E-1	9.326352E-1	8.783378E-1	9.499006E-1	9.582726E-1	9.463142E-1	9.014248E-1	9.143890E-1	9.270911E-1	9.745302E-1	8.991371E-1	9.206688E-1	8.619429E-1	9.156348E-1	8.613714E-1	9.033197E-1	8.780226E-1	9.101857E-1	9.813359E-1	8.463948E-1	9.356594E-1	9.080651E-1	9.189230E-1	9.051737E-1	8.972475E-1	9.650903E-1	9.631498E-1	9.478659E-1	8.913265E-1	9.147819E-1	8.697915E-1	9.381952E-1	9.122472E-1	8.439333E-1	9.323704E-1	8.973726E-1	8.536148E-1	9.209786E-1	9.418227E-1	9.016722E-1	9.243441E-1	8.983657E-1	8.692984E-1	8.720184E-1	9.368848E-1	9.387142E-1	9.523827E-1	8.954523E-1	8.894804E-1	8.638988E-1	9.199433E-1	8.856008E-1	8.627096E-1	9.243132E-1	9.055086E-1	8.819748E-1	8.889406E-1	9.011314E-1	9.290647E-1	8.944932E-1	9.236854E-1	8.924235E-1	9.430986E-1	9.019769E-1	9.048842E-1	9.692457E-1	9.117327E-1	8.471334E-1	9.365963E-1	9.272252E-1	8.349558E-1	8.974523E-1	9.056780E-1	9.101012E-1	9.041886E-1	8.630610E-1	8.778798E-1	8.401113E-1	8.520013E-1	9.058605E-1	9.440715E-1	9.389459E-1	9.175980E-1	9.242737E-1	8.965491E-1	9.337182E-1	9.374717E-1	9.461060E-1	8.641422E-1	8.749863E-1	9.191124E-1	8.353023E-1	8.814810E-1	9.739109E-1	9.110036E-1	9.055375E-1	8.964058E-1	9.093468E-1	8.940045E-1	9.130031E-1	8.910378E-1	9.146425E-1	9.049829E-1	8.814420E-1	9.128266E-1	9.148671E-1	9.483988E-1	9.029596E-1	9.323914E-1	9.406326E-1	8.451372E-1	9.746306E-1	8.967165E-1	8.674875E-1
5.372010E+2	9.306856E-1	9.785651E-1	9.618618E-1	1.045602E+0	9.494426E-1	1.002032E+0	1.000998E+0	9.398042E-1	9.260740E-1	9.525681E-1	9.247142E-1	9.462267E-1	9.734030E-1	9.556948E-1	1.018994E+0	9.641178E-1	8.995150E-1	9.626146E-1	9.948472E-1	1.003954E+0	9.823668E-1	1.016973E+0	9.929166E-1	9.671668E-1	1.006110E+0	9.992711E-1	1.025478E+0	9.995066E-1	9.900044E-1	9.354916E-1	1.039342E+0	9.587610E-1	9.853972E-1	1.007755E+0	9.878235E-1	9.713496E-1	9.855587E-1	9.909225E-1	9.997440E-1	1.019942E+0	1.010763E+0	9.539194E-1	1.011622E+0	1.001190E+0	9.777654E-1	1.000205E+0	9.950505E-1	1.032933E+0	9.843226E-1	9.744216E-1	1.016311E+0	1.006524E+0	9.383606E-1	9.910413E-1	9.527870E-1	1.016856E+0	1.013323E+0	1.010313E+0	9.829665E-1	9.653715E-1	1.040573E+0	1.037301E+0	1.022029E+0	1.029074E+0	9.759280E-1	9.669451E-1	9.598728E-1	9.712548E-1	1.015442E+0	9.391376E-1	9.682103E-1	1.037157E+0	9.953979E-1	9.923247E-1	9.542959E-1	1.059967E+0	1.049824E+0	1.021296E+0	9.946127E-1	1.003108E+0	1.027160E+0	9.497065E-1	9.653664E-1	9.539287E-1	9.861895E-1	9.306990E-1	1.022925E+0	9.418163E-1	9.961279E-1	1.024432E+0	1.014046E+0	1.028231E+0	9.616468E-1	1.013179E+0	9.612682E-1	9.978518E-1	1.018075E+0	9.732207E-1	9.720301E-1	9.709248E-1	9.813439E-1	9.664509E-1	9.967296E-1	1.053475E+0	9.863942E-1	9.797561E-1	1.019885E+0	9.734367E-1	9.491905E-1	1.006876E+0	9.678642E-1	1.007818E+0	9.952287E-1	9.814944E-1	1.017685E+0	9.961703E-1	9.967567E-1	9.385801E-1	9.865236E-1	1.069005E+0	9.832856E-1	9.920622E-1	9.383970E-1	9.704747E-1	9.645938E-1	9.583628E-1	9.981045E-1	9.418280E-1	1.031615E+0	9.938551E-1	9.720566E-1	9.884993E-1	9.661792E-1	9.051812E-1	1.021027E+0	1.023916E+0	9.533821E-1	1.024327E+0	9.121729E-1	9.592924E-1	9.931959E-1	9.674408E-1	9.724537E-1	9.710344E-1	9.751833E-1	9.250380E-1	9.799707E-1	1.015897E+0	9.789331E-1	9.885916E-1	1.008513E+0	1.003043E+0	9.786262E-1	9.221690E-1	1.003376E+0	9.934044E-1	1.011179E+0	9.721893E-1	1.018560E+0	9.965499E-1	9.734288E-1	9.833217E-1	9.254166E-1	9.947748E-1
5.374220E+2	1.051787E+0	1.089275E+0	1.073987E+0	1.099695E+0	1.083647E+0	1.083716E+0	1.084185E+0	1.074310E+0	1.061325E+0	9.982886E-1	1.114487E+0	1.073000E+0	1.097881E+0	1.014389E+0	1.104473E+0	1.104460E+0	1.067854E+0	1.068986E+0	1.138587E+0	1.132133E+0	1.075304E+0	1.112223E+0	1.107434E+0	1.111126E+0	1.117974E+0	1.108324E+0	1.101576E+0	1.131927E+0	1.088828E+0	1.057726E+0	1.141232E+0	1.087616E+0	1.060886E+0	1.111430E+0	1.084557E+0	1.155496E+0	1.065990E+0	1.127640E+0	1.023367E+0	1.106169E+0	1.112425E+0	1.073003E+0	1.111133E+0	1.112065E+0	1.128401E+0	1.150067E+0	1.129934E+0	1.060821E+0	1.108180E+0	1.073895E+0	1.103868E+0	1.035203E+0	1.066149E+0	1.120412E+0	1.143691E+0	1.087913E+0	1.143405E+0	1.123085E+0	1.133767E+0	1.101798E+0	1.104742E+0	1.082290E+0	1.105303E+0	1.050851E+0	1.091890E+0	1.088470E+0	1.060997E+0	1.060750E+0	1.128191E+0	1.085814E+0	1.101458E+0	1.126209E+0	1.094466E+0	1.062161E+0	1.112622E+0	1.131338E+0	1.168014E+0	1.118051E+0	1.096916E+0	1.122691E+0	1.144905E+0	1.066113E+0	1.148872E+0	1.119747E+0	1.046347E+0	1.057252E+0	1.101790E+0	1.111624E+0	1.031035E+0	1.096918E+0	1.113383E+0	1.107906E+0	1.108119E+0	1.075240E+0	1.093535E+0	1.130027E+0	1.061685E+0	1.133266E+0	1.123151E+0	1.063139E+0	1.104586E+0	1.099858E+0	1.067411E+0	1.109514E+0	1.082313E+0	1.056422E+0	1.129317E+0	1.076078E+0	1.107152E+0	1.109041E+0	1.162115E+0	1.120991E+0	1.130859E+0	1.080961E+0	1.029177E+0	1.083672E+0	1.101254E+0	1.063814E+0	1.082726E+0	1.154652E+0	1.089521E+0	1.049542E+0	1.105552E+0	1.120721E+0	1.119560E+0	1.062680E+0	1.132237E+0	1.102493E+0	1.082574E+0	1.120856E+0	1.151657E+0	1.041009E+0	1.067280E+0	1.084117E+0	1.148763E+0	1.081316E+0	1.132972E+0	1.068309E+0	1.091382E+0	1.084164E+0	1.135117E+0	1.072964E+0	1.058543E+0	1.152524E+0	1.075341E+0	1.087779E+0	1.066229E+0	1.110009E+0	1.099317E+0	1.103348E+0	1.044200E+0	1.049948E+0	1.088043E+0	1.028612E+0	1.066692E+0	1.113992E+0	1.115601E+0	1.088951E+0	1.092753E+0	1.073423E+0	1.032436E+0	1.079015E+0	1.041336E+0	1.118067E+0
5.376060E+2	1.002332E+0	1.051767E+0	1.028975E+0	1.048578E+0	1.069401E+0	1.078131E+0	1.039849E+0	1.014617E+0	1.012643E+0	1.041222E+0	1.043173E+0	1.054957E+0	1.073869E+0	1.033245E+0	1.035986E+0	1.065133E+0	1.036397E+0	1.036174E+0	1.013815E+0	1.108974E+0	1.101973E+0	1.137540E+0	1.067489E+0	1.074671E+0	1.115790E+0	1.066903E+0	1.080340E+0	1.127079E+0	1.054014E+0	1.057622E+0	1.093440E+0	1.078650E+0	1.049482E+0	1.142712E+0	1.135782E+0	1.060192E+0	1.081801E+0	1.088457E+0	1.058088E+0	1.045819E+0	1.045617E+0	1.000413E+0	1.099866E+0	1.052368E+0	1.090342E+0	1.043985E+0	1.075378E+0	1.080842E+0	1.106655E+0	1.088575E+0	1.118618E+0	1.017588E+0	1.078428E+0	1.086916E+0	1.097458E+0	1.118009E+0	1.061443E+0	1.078699E+0	1.101281E+0	1.119274E+0	1.085826E+0	1.127773E+0	1.127559E+0	1.085153E+0	1.112797E+0	1.074140E+0	1.114712E+0	1.095044E+0	1.154578E+0	1.041077E+0	1.116153E+0	1.140596E+0	1.135827E+0	1.072904E+0	1.108729E+0	1.082404E+0	1.054063E+0	1.109400E+0	1.107214E+0	1.108271E+0	1.079685E+0	1.053306E+0	1.072536E+0	1.022135E+0	1.053537E+0	1.059657E+0	1.109882E+0	1.083551E+0	1.120541E+0	1.130940E+0	1.041217E+0	1.087228E+0	1.076276E+0	1.108695E+0	1.067299E+0	1.083397E+0	1.076140E+0	9.842336E-1	1.090382E+0	1.019346E+0	1.093335E+0	1.028893E+0	1.086877E+0	1.073216E+0	1.072664E+0	1.048320E+0	1.061584E+0	1.036064E+0	1.105068E+0	1.062885E+0	1.076340E+0	1.108446E+0	1.104950E+0	1.058056E+0	1.098812E+0	1.050422E+0	1.112448E+0	1.104002E+0	1.081756E+0	1.110973E+0	1.087108E+0	1.053767E+0	1.075263E+0	1.092968E+0	1.106451E+0	1.098123E+0	1.167453E+0	1.009123E+0	1.092617E+0	1.075068E+0	1.152432E+0	1.072056E+0	1.041808E+0	1.057521E+0	1.082457E+0	1.099611E+0	1.061452E+0	1.072470E+0	1.032283E+0	1.097167E+0	1.114563E+0	1.079834E+0	1.080667E+0	1.148294E+0	9.934607E-1	1.136148E+0	1.093072E+0	1.182641E+0	1.142479E+0	1.043489E+0	1.090684E+0	1.112388E+0	1.064241E+0	9.940578E-1	1.142685E+0	1.046587E+0	1.147606E+0	1.057568E+0	1.044147E+0	1.106276E+0	1.100947E+0	1.054962E+0	1.114412E+0	1.050994E+0
5.378110E+2	1.186545E+0	1.114718E+0	1.081532E+0	1.101357E+0	1.196721E+0	1.184559E+0	1.115332E+0	1.107469E+0	1.149153E+0	1.148307E+0	1.166205E+0	1.119523E+0	1.203241E+0	1.185812E+0	1.167389E+0	1.124091E+0	1.122610E+0	1.089245E+0	1.104801E+0	1.134592E+0	1.111099E+0	1.121088E+0	1.179451E+0	1.124072E+0	1.145675E+0	1.092857E+0	1.084727E+0	1.148334E+0	1.099747E+0	1.090718E+0	1.140645E+0	1.101673E+0	1.108154E+0	1.135865E+0	1.138377E+0	1.158026E+0	1.098122E+0	1.194479E+0	1.097806E+0	1.135904E+0	1.164068E+0	1.087006E+0	1.170388E+0	1.165850E+0	1.123940E+0	1.141757E+0	1.105954E+0	1.116615E+0	1.104771E+0	1.092923E+0	1.181884E+0	1.067490E+0	1.086693E+0	1.144760E+0	1.089802E+0	1.120996E+0	1.140378E+0	1.125509E+0	1.103949E+0	1.142993E+0	1.137898E+0	1.138207E+0	1.138991E+0	1.186938E+0	1.091182E+0	1.107523E+0	1.170143E+0	1.105247E+0	1.160127E+0	1.087278E+0	1.156918E+0	1.156893E+0	1.146606E+0	1.127122E+0	1.181743E+0	1.138850E+0	1.176406E+0	1.078328E+0	1.177461E+0	1.169019E+0	1.116211E+0	1.032077E+0	1.162826E+0	1.137899E+0	1.165384E+0	1.123709E+0	1.152867E+0	1.128171E+0	1.159642E+0	1.103298E+0	1.164704E+0	1.071490E+0	1.155472E+0	1.112789E+0	1.139998E+0	1.153944E+0	1.095605E+0	1.120147E+0	1.146182E+0	1.128966E+0	1.099417E+0	1.119976E+0	1.128959E+0	1.134033E+0	1.164851E+0	1.131627E+0	1.176635E+0	1.133209E+0	1.115612E+0	1.151119E+0	1.154200E+0	1.128331E+0	1.167570E+0	1.108303E+0	1.109544E+0	1.134166E+0	1.108407E+0	1.101811E+0	1.088709E+0	1.142947E+0	1.144865E+0	1.123532E+0	1.113286E+0	1.135506E+0	1.203283E+0	1.128926E+0	1.133436E+0	1.127092E+0	1.139973E+0	1.118499E+0	1.193248E+0	1.086980E+0	1.154722E+0	1.170224E+0	1.162396E+0	1.150200E+0	1.145321E+0	1.082738E+0	1.090584E+0	1.105584E+0	1.154922E+0	1.085295E+0	1.167290E+0	1.190441E+0	1.124560E+0	1.139029E+0	1.118212E+0	1.100360E+0	1.145794E+0	1.063638E+0	1.128254E+0	1.167716E+0	1.136078E+0	1.084611E+0	1.153472E+0	1.197922E+0	1.133037E+0	1.073272E+0	1.183965E+0	1.110537E+0	1.182278E+0	1.070038E+0	1.117523E+0	1.184794E+0
5.380050E+2	1.280253E+0	1.164631E+0	1.146355E+0	1.210726E+0	1.141728E+0	1.263984E+0	1.146602E+0	1.157711E+0	1.220532E+0	1.186289E+0	1.142633E+0	1.177629E+0	1.183058E+0	1.151837E+0	1.166597E+0	1.210989E+0	1.158410E+0	1.223289E+0	1.226030E+0	1.235297E+0	1.202124E+0	1.244097E+0	1.170689E+0	1.202857E+0	1.210456E+0	1.150007E+0	1.220987E+0	1.187223E+0	1.170857E+0	1.127512E+0	1.230039E+0	1.233579E+0	1.190670E+0	1.178096E+0	1.199400E+0	1.214156E+0	1.180605E+0	1.231642E+0	1.165263E+0	1.223679E+0	1.189977E+0	1.109729E+0	1.155120E+0	1.183923E+0	1.155730E+0	1.202719E+0	1.176139E+0	1.156152E+0	1.155814E+0	1.131758E+0	1.178889E+0	1.194404E+0	1.186591E+0	1.202839E+0	1.163969E+0	1.188338E+0	1.237268E+0	1.190838E+0	1.160249E+0	1.206666E+0	1.131561E+0	1.170133E+0	1.111801E+0	1.205585E+0	1.166515E+0	1.222445E+0	1.130323E+0	1.234581E+0	1.208581E+0	1.173057E+0	1.243164E+0	1.251471E+0	1.255658E+0	1.200153E+0	1.168086E+0	1.262357E+0	1.187417E+0	1.186897E+0	1.234292E+0	1.228342E+0	1.213436E+0	1.179418E+0	1.191612E+0	1.221661E+0	1.242232E+0	1.192966E+0	1.181519E+0	1.222644E+0	1.200978E+0	1.199335E+0	1.181238E+0	1.263103E+0	1.181322E+0	1.185019E+0	1.227658E+0	1.218978E+0	1.205057E+0	1.177405E+0	1.240283E+0	1.148369E+0	1.182893E+0	1.180241E+0	1.163763E+0	1.176215E+0	1.184817E+0	1.179608E+0	1.148450E+0	1.206221E+0	1.155010E+0	1.197925E+0	1.196788E+0	1.202264E+0	1.217642E+0	1.160539E+0	1.236858E+0	1.209439E+0	1.202059E+0	1.151946E+0	1.143100E+0	1.203254E+0	1.157710E+0	1.157177E+0	1.178532E+0	1.174150E+0	1.173705E+0	1.206807E+0	1.175016E+0	1.176016E+0	1.220449E+0	1.192937E+0	1.219997E+0	1.162741E+0	1.173077E+0	1.159293E+0	1.169278E+0	1.191206E+0	1.213017E+0	1.226862E+0	1.143420E+0	1.152281E+0	1.183990E+0	1.195240E+0	1.129787E+0	1.249111E+0	1.186470E+0	1.223982E+0	1.228359E+0	1.177865E+0	1.250074E+0	1.138917E+0	1.230570E+0	1.177130E+0	1.179577E+0	1.113075E+0	1.171096E+0	1.260457E+0	1.210654E+0	1.213523E+0	1.170700E+0	1.214745E+0	1.161289E+0	1.145652E+0	1.270681E+0	1.136040E+0
5.382060E+2	1.437441E+0	1.469062E+0	1.432577E+0	1.504889E+0	1.513790E+0	1.395336E+0	1.429069E+0	1.423327E+0	1.410957E+0	1.427688E+0	1.448118E+0	1.408070E+0	1.445919E+0	1.388718E+0	1.440434E+0	1.516139E+0	1.437687E+0	1.325000E+0	1.404493E+0	1.475416E+0	1.454402E+0	1.387063E+0	1.363295E+0	1.507896E+0	1.416594E+0	1.456995E+0	1.389746E+0	1.444564E+0	1.382032E+0	1.377767E+0	1.406661E+0	1.415623E+0	1.397290E+0	1.456686E+0	1.394897E+0	1.436338E+0	1.347952E+0	1.450962E+0	1.342872E+0	1.437018E+0	1.451232E+0	1.384405E+0	1.393233E+0	1.362172E+0	1.373170E+0	1.414911E+0	1.379774E+0	1.438260E+0	1.442416E+0	1.297977E+0	1.391917E+0	1.396576E+0	1.332200E+0	1.404313E+0	1.444180E+0	1.451200E+0	1.446437E+0	1.368743E+0	1.449959E+0	1.414782E+0	1.404981E+0	1.462064E+0	1.393950E+0	1.388905E+0	1.392552E+0	1.447577E+0	1.441065E+0	1.424911E+0	1.468963E+0	1.340567E+0	1.414841E+0	1.455194E+0	1.430353E+0	1.356160E+0	1.424886E+0	1.392609E+0	1.412430E+0	1.400651E+0	1.411764E+0	1.495676E+0	1.486855E+0	1.428259E+0	1.400816E+0	1.348968E+0	1.390819E+0	1.364617E+0	1.440795E+0	1.442813E+0	1.429249E+0	1.392744E+0	1.388190E+0	1.448990E+0	1.392175E+0	1.385823E+0	1.478731E+0	1.413455E+0	1.460223E+0	1.329351E+0	1.409253E+0	1.376164E+0	1.412968E+0	1.336748E+0	1.400308E+0	1.440627E+0	1.439015E+0	1.399927E+0	1.394912E+0	1.379014E+0	1.390924E+0	1.430029E+0	1.478713E+0	1.400357E+0	1.432385E+0	1.492679E+0	1.325443E+0	1.404711E+0	1.451336E+0	1.369735E+0	1.384532E+0	1.456268E+0	1.409605E+0	1.397460E+0	1.379221E+0	1.439905E+0	1.456183E+0	1.449279E+0	1.417595E+0	1.392325E+0	1.420108E+0	1.372520E+0	1.437587E+0	1.421975E+0	1.445474E+0	1.362096E+0	1.396945E+0	1.448055E+0	1.457244E+0	1.453790E+0	1.383422E+0	1.417087E+0	1.451908E+0	1.354939E+0	1.460385E+0	1.473610E+0	1.402005E+0	1.493213E+0	1.420190E+0	1.474738E+0	1.430393E+0	1.452527E+0	1.445275E+0	1.449743E+0	1.381799E+0	1.363214E+0	1.412261E+0	1.389035E+0	1.467638E+0	1.394732E+0	1.418043E+0	1.405141E+0	1.436287E+0	1.348931E+0	1.375180E+0	1.481255E+0
5.384110E+2	1.611965E+0	1.639111E+0	1.652949E+0	1.667553E+0	1.767385E+0	1.770384E+0	1.629793E+0	1.627393E+0	1.720327E+0	1.659103E+0	1.676636E+0	1.761018E+0	1.657924E+0	1.713273E+0	1.699332E+0	1.655104E+0	1.649601E+0	1.626322E+0	1.689423E+0	1.713548E+0	1.685133E+0	1.680909E+0	1.640377E+0	1.611563E+0	1.567861E+0	1.629310E+0	1.579188E+0	1.582872E+0	1.627917E+0	1.631765E+0	1.655219E+0	1.656554E+0	1.610152E+0	1.667867E+0	1.622004E+0	1.596560E+0	1.745838E+0	1.680171E+0	1.573055E+0	1.660438E+0	1.613525E+0	1.642597E+0	1.607985E+0	1.614431E+0	1.649628E+0	1.673536E+0	1.641886E+0	1.616367E+0	1.668108E+0	1.532856E+0	1.674830E+0	1.634412E+0	1.549579E+0	1.562584E+0	1.636360E+0	1.644868E+0	1.646567E+0	1.630799E+0	1.648305E+0	1.694945E+0	1.652087E+0	1.659034E+0	1.601036E+0	1.662261E+0	1.632686E+0	1.614622E+0	1.610712E+0	1.658712E+0	1.700568E+0	1.515178E+0	1.653765E+0	1.719710E+0	1.667546E+0	1.659135E+0	1.637772E+0	1.692838E+0	1.710212E+0	1.712032E+0	1.659789E+0	1.703622E+0	1.663977E+0	1.659980E+0	1.688140E+0	1.591358E+0	1.684575E+0	1.586280E+0	1.640145E+0	1.639939E+0	1.651427E+0	1.665861E+0	1.669817E+0	1.635594E+0	1.694091E+0	1.658271E+0	1.651049E+0	1.703244E+0	1.587111E+0	1.663043E+0	1.681462E+0	1.598597E+0	1.551228E+0	1.598507E+0	1.632147E+0	1.660158E+0	1.631430E+0	1.572592E+0	1.598969E+0	1.604153E+0	1.600737E+0	1.615765E+0	1.627426E+0	1.593227E+0	1.663103E+0	1.619503E+0	1.583915E+0	1.666829E+0	1.632926E+0	1.554442E+0	1.598195E+0	1.717499E+0	1.600875E+0	1.619290E+0	1.625694E+0	1.627652E+0	1.660824E+0	1.634539E+0	1.641232E+0	1.589019E+0	1.687403E+0	1.664563E+0	1.637963E+0	1.682619E+0	1.611234E+0	1.549414E+0	1.573347E+0	1.599743E+0	1.630916E+0	1.594341E+0	1.576619E+0	1.589138E+0	1.607782E+0	1.605232E+0	1.654487E+0	1.731282E+0	1.646718E+0	1.621514E+0	1.605918E+0	1.636288E+0	1.675789E+0	1.593502E+0	1.651319E+0	1.651069E+0	1.581142E+0	1.577324E+0	1.643877E+0	1.677294E+0	1.697610E+0	1.580382E+0	1.568372E+0	1.597612E+0	1.628865E+0	1.607396E+0	1.675243E+0	1.661768E+0
5.386060E+2	1.609834E+0	1.636047E+0	1.584830E+0	1.656312E+0	1.566063E+0	1.618100E+0	1.638180E+0	1.641480E+0	1.687031E+0	1.612811E+0	1.621088E+0	1.628986E+0	1.589743E+0	1.629867E+0	1.570458E+0	1.603177E+0	1.574067E+0	1.595763E+0	1.616494E+0	1.610331E+0	1.589691E+0	1.591852E+0	1.603729E+0	1.569719E+0	1.625477E+0	1.560964E+0	1.574484E+0	1.563125E+0	1.521244E+0	1.524936E+0	1.595565E+0	1.615810E+0	1.566574E+0	1.657620E+0	1.617673E+0	1.627638E+0	1.525473E+0	1.613358E+0	1.543349E+0	1.541030E+0	1.523638E+0	1.538431E+0	1.559705E+0	1.585846E+0	1.656515E+0	1.586948E+0	1.557671E+0	1.555309E+0	1.569049E+0	1.474749E+0	1.564009E+0	1.587676E+0	1.557774E+0	1.554265E+0	1.530344E+0	1.633056E+0	1.590998E+0	1.570100E+0	1.567138E+0	1.600149E+0	1.572522E+0	1.577999E+0	1.514880E+0	1.607920E+0	1.584178E+0	1.566903E+0	1.529684E+0	1.569431E+0	1.592850E+0	1.474452E+0	1.590300E+0	1.616732E+0	1.563638E+0	1.578230E+0	1.573394E+0	1.604240E+0	1.588575E+0	1.534098E+0	1.581626E+0	1.620443E+0	1.582488E+0	1.624385E+0	1.561263E+0	1.481619E+0	1.523084E+0	1.550716E+0	1.608834E+0	1.584351E+0	1.622263E+0	1.571847E+0	1.579198E+0	1.628132E+0	1.548702E+0	1.653554E+0	1.609591E+0	1.531220E+0	1.590215E+0	1.579668E+0	1.615459E+0	1.557406E+0	1.447469E+0	1.556008E+0	1.540280E+0	1.539416E+0	1.558230E+0	1.550657E+0	1.590987E+0	1.632407E+0	1.525766E+0	1.581286E+0	1.593063E+0	1.654397E+0	1.632399E+0	1.581083E+0	1.645441E+0	1.579510E+0	1.558594E+0	1.497108E+0	1.599565E+0	1.647478E+0	1.614509E+0	1.587492E+0	1.566465E+0	1.586764E+0	1.619215E+0	1.582645E+0	1.634314E+0	1.566164E+0	1.540568E+0	1.570964E+0	1.537744E+0	1.576726E+0	1.541691E+0	1.603975E+0	1.568682E+0	1.566880E+0	1.574604E+0	1.591118E+0	1.509318E+0	1.594810E+0	1.560198E+0	1.534160E+0	1.613855E+0	1.608970E+0	1.550523E+0	1.639209E+0	1.569353E+0	1.604300E+0	1.584299E+0	1.519101E+0	1.561868E+0	1.675262E+0	1.507643E+0	1.524093E+0	1.538414E+0	1.661656E+0	1.641681E+0	1.580240E+0	1.571842E+0	1.588270E+0	1.506299E+0	1.540216E+0	1.547321E+0	1.494711E+0
5.388120E+2	1.424333E+0	1.415146E+0	1.376566E+0	1.443591E+0	1.454303E+0	1.411825E+0	1.389484E+0	1.438409E+0	1.440707E+0	1.405739E+0	1.336210E+0	1.390319E+0	1.382801E+0	1.417749E+0	1.395046E+0	1.419857E+0	1.474646E+0	1.438082E+0	1.399453E+0	1.426895E+0	1.381396E+0	1.482119E+0	1.428328E+0	1.396882E+0	1.384997E+0	1.376446E+0	1.366132E+0	1.417379E+0	1.370514E+0	1.312518E+0	1.366364E+0	1.400068E+0	1.335755E+0	1.431150E+0	1.385346E+0	1.375400E+0	1.351559E+0	1.406454E+0	1.331292E+0	1.386815E+0	1.400836E+0	1.396773E+0	1.368409E+0	1.441308E+0	1.491889E+0	1.391942E+0	1.388293E+0	1.407207E+0	1.349171E+0	1.319085E+0	1.401765E+0	1.371716E+0	1.308668E+0	1.356369E+0	1.402604E+0	1.387004E+0	1.408631E+0	1.424989E+0	1.412427E+0	1.408697E+0	1.438397E+0	1.365052E+0	1.381464E+0	1.424423E+0	1.341616E+0	1.432671E+0	1.344741E+0	1.419902E+0	1.430904E+0	1.341710E+0	1.467907E+0	1.494032E+0	1.372908E+0	1.346980E+0	1.423884E+0	1.465369E+0	1.438968E+0	1.433331E+0	1.364376E+0	1.414758E+0	1.416664E+0	1.399332E+0	1.408435E+0	1.425035E+0	1.370517E+0	1.359651E+0	1.374510E+0	1.376345E+0	1.378084E+0	1.426529E+0	1.390813E+0	1.337806E+0	1.420497E+0	1.404939E+0	1.402019E+0	1.431185E+0	1.390413E+0	1.378777E+0	1.349892E+0	1.335475E+0	1.370409E+0	1.346561E+0	1.325876E+0	1.297987E+0	1.404780E+0	1.383340E+0	1.322299E+0	1.383916E+0	1.383839E+0	1.381381E+0	1.446837E+0	1.394311E+0	1.391678E+0	1.405522E+0	1.412969E+0	1.355413E+0	1.383296E+0	1.351341E+0	1.372037E+0	1.486622E+0	1.406693E+0	1.343184E+0	1.379241E+0	1.369536E+0	1.420695E+0	1.386731E+0	1.374878E+0	1.388484E+0	1.347528E+0	1.398011E+0	1.452683E+0	1.396009E+0	1.369082E+0	1.388612E+0	1.337683E+0	1.393897E+0	1.385901E+0	1.345736E+0	1.322892E+0	1.389306E+0	1.398501E+0	1.308752E+0	1.477661E+0	1.412520E+0	1.445074E+0	1.399333E+0	1.412205E+0	1.369863E+0	1.429370E+0	1.404325E+0	1.336964E+0	1.441758E+0	1.420880E+0	1.322851E+0	1.415306E+0	1.415735E+0	1.375988E+0	1.374128E+0	1.383636E+0	1.375860E+0	1.371007E+0	1.391543E+0	1.444215E+0	1.315189E+0
5.390080E+2	1.233842E+0	1.236780E+0	1.176066E+0	1.231127E+0	1.238040E+0	1.260124E+0	1.244151E+0	1.192466E+0	1.259249E+0	1.241608E+0	1.246060E+0	1.212589E+0	1.199096E+0	1.248060E+0	1.233480E+0	1.231950E+0	1.254623E+0	1.228154E+0	1.263785E+0	1.243793E+0	1.236092E+0	1.208536E+0	1.201657E+0	1.232735E+0	1.195776E+0	1.287072E+0	1.215143E+0	1.223043E+0	1.199512E+0	1.172142E+0	1.206685E+0	1.188735E+0	1.224256E+0	1.230570E+0	1.197852E+0	1.263187E+0	1.175745E+0	1.261920E+0	1.189371E+0	1.176722E+0	1.236986E+0	1.218692E+0	1.235508E+0	1.285360E+0	1.262212E+0	1.239773E+0	1.243487E+0	1.240559E+0	1.208867E+0	1.142714E+0	1.195409E+0	1.254540E+0	1.209669E+0	1.209603E+0	1.185610E+0	1.245166E+0	1.224560E+0	1.255773E+0	1.197337E+0	1.283164E+0	1.172399E+0	1.279165E+0	1.201967E+0	1.211926E+0	1.167598E+0	1.246015E+0	1.261300E+0	1.232335E+0	1.219563E+0	1.192290E+0	1.214514E+0	1.277385E+0	1.169672E+0	1.191361E+0	1.282545E+0	1.271634E+0	1.255556E+0	1.237663E+0	1.242959E+0	1.319763E+0	1.208415E+0	1.277400E+0	1.189958E+0	1.244272E+0	1.208724E+0	1.205980E+0	1.223538E+0	1.225594E+0	1.224064E+0	1.264557E+0	1.208769E+0	1.216230E+0	1.277330E+0	1.219825E+0	1.232107E+0	1.219672E+0	1.227513E+0	1.161001E+0	1.217395E+0	1.222664E+0	1.256673E+0	1.217405E+0	1.219276E+0	1.214674E+0	1.173460E+0	1.278274E+0	1.217646E+0	1.225250E+0	1.191560E+0	1.228673E+0	1.243578E+0	1.239475E+0	1.246815E+0	1.239785E+0	1.330157E+0	1.243739E+0	1.237803E+0	1.164819E+0	1.249000E+0	1.297357E+0	1.244665E+0	1.207768E+0	1.185453E+0	1.227835E+0	1.222338E+0	1.185147E+0	1.260339E+0	1.234150E+0	1.220150E+0	1.284723E+0	1.224883E+0	1.197552E+0	1.242897E+0	1.138389E+0	1.220402E+0	1.208263E+0	1.243963E+0	1.214970E+0	1.208532E+0	1.186369E+0	1.206290E+0	1.225442E+0	1.221909E+0	1.285829E+0	1.252726E+0	1.304698E+0	1.240288E+0	1.270136E+0	1.228568E+0	1.241299E+0	1.223440E+0	1.290049E+0	1.260657E+0	1.157976E+0	1.240851E+0	1.332803E+0	1.254096E+0	1.193597E+0	1.220007E+0	1.219904E+0	1.214888E+0	1.215913E+0	1.239652E+0	1.234923E+0
5.392090E+2	1.048724E+0	1.167659E+0	1.073647E+0	1.122423E+0	1.145329E+0	1.072982E+0	1.068861E+0	1.081164E+0	1.174782E+0	1.122428E+0	1.060433E+0	1.122403E+0	1.076470E+0	1.074004E+0	1.061924E+0	1.068467E+0	1.064258E+0	1.092155E+0	1.093955E+0	1.127199E+0	1.108369E+0	1.098962E+0	1.109163E+0	1.067068E+0	1.125989E+0	1.066965E+0	1.097747E+0	1.095168E+0	1.133718E+0	1.103271E+0	1.059670E+0	1.104470E+0	1.060105E+0	1.124495E+0	1.084851E+0	1.126084E+0	1.081133E+0	1.147291E+0	1.064975E+0	1.040647E+0	1.093184E+0	1.094815E+0	1.096365E+0	1.026315E+0	1.077677E+0	1.134719E+0	1.144749E+0	1.143654E+0	1.102449E+0	1.074271E+0	1.088827E+0	1.049448E+0	1.018614E+0	1.093658E+0	1.102188E+0	1.075748E+0	1.121171E+0	1.116684E+0	1.034073E+0	1.089525E+0	1.082726E+0	1.025684E+0	1.066498E+0	1.081960E+0	1.059160E+0	1.144590E+0	1.158485E+0	1.081922E+0	1.136611E+0	1.058742E+0	1.089632E+0	1.119250E+0	1.163510E+0	1.057028E+0	1.102885E+0	1.146430E+0	1.117206E+0	1.081123E+0	1.106929E+0	1.113392E+0	1.148778E+0	1.156164E+0	1.100205E+0	1.047139E+0	1.098029E+0	1.094157E+0	1.121310E+0	1.079474E+0	1.131024E+0	1.061961E+0	1.055869E+0	1.103566E+0	1.040883E+0	1.112444E+0	1.082708E+0	1.132359E+0	1.120349E+0	1.087969E+0	1.116108E+0	1.121989E+0	1.122108E+0	1.101512E+0	1.017936E+0	1.111921E+0	1.090943E+0	1.036766E+0	1.122793E+0	1.068440E+0	1.054820E+0	1.100572E+0	1.078197E+0	1.137366E+0	1.143645E+0	1.075284E+0	1.100681E+0	1.056640E+0	1.067965E+0	1.078004E+0	1.133947E+0	1.150421E+0	1.124385E+0	1.066082E+0	1.074292E+0	1.146998E+0	1.093570E+0	1.065457E+0	1.100838E+0	1.056436E+0	1.109743E+0	1.089987E+0	1.118205E+0	1.080712E+0	1.092728E+0	1.088400E+0	1.100585E+0	1.117220E+0	1.100233E+0	1.114160E+0	1.053956E+0	1.075366E+0	1.077075E+0	1.079459E+0	1.123445E+0	1.191878E+0	1.075515E+0	1.107063E+0	1.113475E+0	1.112642E+0	1.148166E+0	1.117551E+0	1.074727E+0	1.187785E+0	1.122810E+0	1.086664E+0	1.105229E+0	1.112389E+0	1.120387E+0	1.123270E+0	1.068475E+0	1.102494E+0	1.070197E+0	1.151361E+0	1.091450E+0	1.057839E+0
5.394100E+2	1.089350E+0	1.083868E+0	1.022852E+0	1.084466E+0	1.157474E+0	1.129965E+0	1.030384E+0	1.047830E+0	1.108710E+0	1.060642E+0	1.040235E+0	1.109093E+0	1.075175E+0	1.076630E+0	1.103096E+0	1.038343E+0	1.105135E+0	1.008166E+0	1.025190E+0	1.018163E+0	1.059555E+0	1.092389E+0	1.053484E+0	1.028981E+0	1.050657E+0	1.036229E+0	1.091208E+0	1.014585E+0	1.070977E+0	1.006024E+0	1.061469E+0	1.027413E+0	1.012703E+0	1.114821E+0	1.067966E+0	1.080495E+0	1.057682E+0	1.042340E+0	9.910817E-1	1.009864E+0	1.053743E+0	1.029509E+0	1.076127E+0	1.095685E+0	1.144455E+0	1.054747E+0	1.073997E+0	1.069120E+0	9.751207E-1	1.038758E+0	1.085007E+0	1.015474E+0	1.014504E+0	1.062931E+0	1.049953E+0	1.082451E+0	1.024473E+0	1.050766E+0	1.066406E+0	1.077345E+0	1.071842E+0	1.060305E+0	1.015403E+0	1.089220E+0	1.087557E+0	1.056027E+0	1.041038E+0	1.080019E+0	1.040915E+0	1.046410E+0	1.057364E+0	1.105615E+0	1.074153E+0	1.114991E+0	1.066676E+0	1.055477E+0	1.054681E+0	1.009157E+0	1.069883E+0	1.106320E+0	1.028302E+0	1.039454E+0	1.034061E+0	1.089481E+0	1.098508E+0	1.052436E+0	1.004533E+0	1.055373E+0	1.040022E+0	1.042072E+0	1.075894E+0	1.083984E+0	1.040826E+0	1.088440E+0	1.031015E+0	1.085691E+0	1.029376E+0	9.819023E-1	1.063933E+0	1.075679E+0	1.009183E+0	1.036609E+0	1.000826E+0	1.042661E+0	1.089998E+0	1.059838E+0	1.071883E+0	1.058420E+0	1.072979E+0	1.071357E+0	1.089962E+0	1.004723E+0	1.066929E+0	1.052144E+0	1.078752E+0	1.037493E+0	1.045207E+0	1.014896E+0	1.045636E+0	1.059980E+0	1.057377E+0	1.080018E+0	1.052375E+0	1.042696E+0	1.057991E+0	1.059183E+0	1.021971E+0	9.849207E-1	1.044513E+0	1.069081E+0	1.081540E+0	1.023150E+0	1.050601E+0	1.008298E+0	1.005967E+0	1.038055E+0	1.086821E+0	1.062936E+0	1.008509E+0	1.041852E+0	1.086328E+0	1.043754E+0	1.082059E+0	1.095836E+0	1.074750E+0	1.100971E+0	1.087060E+0	1.120592E+0	1.067071E+0	1.011050E+0	1.005058E+0	1.094281E+0	1.030570E+0	1.076223E+0	1.029922E+0	1.144959E+0	1.057968E+0	1.107185E+0	1.082175E+0	1.036647E+0	1.036977E+0	1.072248E+0	1.049474E+0	1.150376E+0
5.396110E+2	9.622526E-1	1.018710E+0	1.011555E+0	1.054071E+0	1.058009E+0	1.031318E+0	1.004652E+0	1.025356E+0	1.041907E+0	9.906835E-1	1.017579E+0	1.034896E+0	9.980104E-1	1.028307E+0	9.762437E-1	1.048638E+0	1.076097E+0	1.010928E+0	1.026275E+0	1.010834E+0	1.049703E+0	1.008000E+0	1.071817E+0	1.056501E+0	1.040633E+0	1.024961E+0	1.015183E+0	1.021023E+0	9.656647E-1	1.009423E+0	1.030117E+0	1.005071E+0	1.010715E+0	1.025353E+0	1.014289E+0	1.044398E+0	1.040233E+0	1.051557E+0	1.004562E+0	1.071020E+0	1.044753E+0	9.810525E-1	1.024154E+0	1.002867E+0	1.047933E+0	1.049148E+0	1.045658E+0	1.003621E+0	1.022602E+0	9.831965E-1	1.054631E+0	1.009576E+0	9.664059E-1	1.014488E+0	1.037390E+0	1.050207E+0	9.876900E-1	1.038365E+0	9.942097E-1	9.972541E-1	1.041830E+0	1.013718E+0	9.755277E-1	9.986121E-1	1.007363E+0	1.024467E+0	1.017631E+0	1.021692E+0	1.078226E+0	9.725083E-1	9.789109E-1	1.043367E+0	1.037596E+0	1.060802E+0	1.056076E+0	1.054112E+0	1.032350E+0	1.046886E+0	1.005372E+0	1.041561E+0	9.997625E-1	9.966869E-1	1.056685E+0	1.019417E+0	9.524636E-1	9.757875E-1	1.013650E+0	1.027943E+0	1.095860E+0	1.025893E+0	1.018123E+0	1.044470E+0	1.066610E+0	1.038521E+0	1.104538E+0	1.038600E+0	1.034764E+0	9.859752E-1	1.026068E+0	9.877540E-1	9.915683E-1	1.026530E+0	1.032425E+0	1.041068E+0	1.033577E+0	1.010716E+0	1.056618E+0	9.803411E-1	1.047852E+0	1.075231E+0	1.095150E+0	1.040114E+0	9.378430E-1	1.085826E+0	1.034702E+0	1.012121E+0	1.062816E+0	1.040963E+0	9.747059E-1	1.021625E+0	1.004074E+0	9.947100E-1	1.082941E+0	9.873726E-1	1.060035E+0	9.922639E-1	1.074637E+0	1.025838E+0	1.014703E+0	1.071738E+0	1.026104E+0	1.002304E+0	1.022895E+0	1.046536E+0	1.012273E+0	9.963409E-1	1.037332E+0	1.034022E+0	9.966900E-1	9.841719E-1	1.027892E+0	9.774001E-1	1.064973E+0	1.097338E+0	1.076450E+0	1.012275E+0	9.576691E-1	1.048539E+0	1.034766E+0	9.870751E-1	9.893187E-1	1.050880E+0	1.015468E+0	9.987825E-1	1.047332E+0	1.038653E+0	9.955863E-1	1.034370E+0	1.033452E+0	9.971563E-1	9.836880E-1	9.948222E-1	1.038626E+0	1.078003E+0
5.398180E+2	8.575071E-1	8.608323E-1	8.073160E-1	8.164418E-1	8.554095E-1	8.132426E-1	8.327615E-1	8.278262E-1	8.387314E-1	7.954830E-1	7.966288E-1	8.380069E-1	8.082818E-1	8.382784E-1	8.280203E-1	8.232146E-1	7.903872E-1	7.973364E-1	8.309257E-1	8.419571E-1	8.416474E-1	8.352602E-1	8.439606E-1	8.062191E-1	8.072955E-1	8.015476E-1	7.779559E-1	8.315458E-1	7.985951E-1	8.081091E-1	7.789984E-1	7.901394E-1	7.710641E-1	8.317022E-1	8.101681E-1	8.026190E-1	7.894184E-1	8.456333E-1	7.730895E-1	8.185847E-1	8.148429E-1	7.740439E-1	8.637819E-1	7.872125E-1	8.410450E-1	8.359341E-1	8.433748E-1	8.295446E-1	8.061367E-1	7.691723E-1	8.480676E-1	8.024664E-1	8.056164E-1	8.598550E-1	8.248688E-1	7.810396E-1	8.336343E-1	8.111533E-1	8.087109E-1	8.167184E-1	7.782319E-1	7.892364E-1	8.254429E-1	7.859279E-1	8.538772E-1	8.412319E-1	8.201574E-1	8.260680E-1	8.268648E-1	7.814623E-1	8.127869E-1	8.017805E-1	8.585964E-1	8.246382E-1	7.882203E-1	8.267608E-1	8.422496E-1	8.259567E-1	8.276704E-1	8.259876E-1	8.558816E-1	8.323746E-1	7.675616E-1	8.248511E-1	8.617973E-1	7.902308E-1	7.977391E-1	8.543848E-1	8.355413E-1	8.413050E-1	8.200375E-1	8.452531E-1	8.294059E-1	8.226907E-1	8.506772E-1	8.207717E-1	7.846069E-1	8.233701E-1	7.562964E-1	7.982036E-1	7.853106E-1	8.243279E-1	8.383956E-1	8.259155E-1	7.773542E-1	7.959194E-1	8.117743E-1	7.791979E-1	7.972473E-1	8.377672E-1	8.520369E-1	8.572674E-1	8.468942E-1	7.721003E-1	8.692099E-1	8.120760E-1	8.497635E-1	7.960950E-1	8.348500E-1	8.228737E-1	8.210691E-1	8.057709E-1	7.765497E-1	8.280006E-1	7.738979E-1	8.184992E-1	8.637882E-1	8.143753E-1	8.004192E-1	8.082630E-1	8.165063E-1	7.677854E-1	8.381494E-1	7.878502E-1	7.953831E-1	8.348380E-1	8.345066E-1	8.285464E-1	7.767204E-1	7.967281E-1	8.757127E-1	8.168087E-1	8.367695E-1	8.698855E-1	8.475511E-1	8.178805E-1	7.520909E-1	8.283005E-1	8.361795E-1	7.808332E-1	8.342562E-1	7.914334E-1	8.669960E-1	8.475183E-1	7.883001E-1	8.451437E-1	8.665286E-1	7.938185E-1	8.269144E-1	7.996915E-1	8.526461E-1	8.220525E-1	8.075835E-1	7.469798E-1
5.400140E+2	7.019456E-1	6.863507E-1	6.448736E-1	6.345205E-1	6.726333E-1	6.242396E-1	6.910568E-1	6.893227E-1	6.809118E-1	6.586924E-1	6.931406E-1	6.948777E-1	6.741874E-1	7.078190E-1	6.337562E-1	6.362636E-1	6.805324E-1	6.860819E-1	6.833771E-1	6.687255E-1	6.523943E-1	6.721817E-1	6.396559E-1	6.592581E-1	6.606719E-1	6.819220E-1	6.882530E-1	6.938267E-1	6.633024E-1	6.766927E-1	6.577133E-1	6.610656E-1	6.543828E-1	6.815083E-1	7.056501E-1	6.452277E-1	6.681997E-1	6.796568E-1	6.258073E-1	6.364648E-1	6.830314E-1	6.394080E-1	6.550067E-1	6.599980E-1	7.337354E-1	6.964310E-1	7.039621E-1	6.771102E-1	6.956633E-1	6.484958E-1	6.761777E-1	6.120823E-1	6.688926E-1	6.550598E-1	6.643932E-1	6.579144E-1	7.373914E-1	6.600385E-1	6.491512E-1	6.949949E-1	6.559582E-1	6.087192E-1	7.054249E-1	7.233120E-1	6.775982E-1	6.666579E-1	6.813450E-1	6.637663E-1	6.535811E-1	6.245197E-1	6.539653E-1	7.099490E-1	7.502849E-1	6.671614E-1	6.763986E-1	7.080243E-1	7.228659E-1	7.066783E-1	7.402940E-1	6.912017E-1	6.589672E-1	6.524274E-1	6.790261E-1	6.654457E-1	6.764802E-1	6.567826E-1	6.703583E-1	7.324331E-1	7.606072E-1	6.847301E-1	6.754074E-1	6.850505E-1	6.720501E-1	6.832060E-1	6.852665E-1	6.895841E-1	6.869085E-1	6.911208E-1	6.777702E-1	6.599021E-1	6.673720E-1	7.057654E-1	6.371264E-1	6.799846E-1	6.473374E-1	6.637634E-1	6.884587E-1	6.927801E-1	7.005130E-1	6.493135E-1	7.005476E-1	6.422432E-1	6.447488E-1	6.403528E-1	6.978327E-1	6.448351E-1	6.755318E-1	6.735217E-1	7.239439E-1	7.096225E-1	6.909359E-1	6.398890E-1	6.750488E-1	6.933815E-1	6.853300E-1	6.879469E-1	7.250930E-1	6.949501E-1	6.669838E-1	6.487382E-1	7.189749E-1	6.677161E-1	6.739243E-1	6.490142E-1	6.684183E-1	6.631248E-1	6.723280E-1	6.860036E-1	6.286445E-1	6.367021E-1	6.463028E-1	6.455184E-1	6.935041E-1	6.593891E-1	6.486868E-1	6.428729E-1	7.246012E-1	6.831821E-1	7.042175E-1	6.742737E-1	6.559675E-1	6.890401E-1	6.558373E-1	6.602892E-1	6.933318E-1	7.005082E-1	6.978859E-1	6.928182E-1	6.431263E-1	6.251923E-1	6.504830E-1	6.762359E-1	6.677603E-1	7.420331E-1
5.402100E+2	5.334117E-1	5.641844E-1	5.321269E-1	5.051066E-1	4.992862E-1	5.406308E-1	5.106377E-1	5.053598E-1	5.251505E-1	5.793861E-1	4.932848E-1	5.561664E-1	5.494749E-1	5.102255E-1	5.585179E-1	5.612474E-1	5.726989E-1	5.427091E-1	5.467605E-1	5.398262E-1	6.037068E-1	5.072863E-1	5.401398E-1	5.431381E-1	5.233589E-1	5.235552E-1	4.970628E-1	5.063157E-1	5.290904E-1	5.232834E-1	5.316919E-1	5.546456E-1	5.679699E-1	5.757372E-1	5.904200E-1	5.414358E-1	5.152801E-1	5.282162E-1	5.200993E-1	5.087421E-1	4.921636E-1	5.028199E-1	5.061473E-1	5.248445E-1	5.666583E-1	5.720739E-1	5.593980E-1	5.688890E-1	5.077549E-1	5.242931E-1	5.304950E-1	5.744897E-1	5.729175E-1	5.664151E-1	5.338643E-1	5.691727E-1	5.741674E-1	5.417071E-1	5.218946E-1	5.363607E-1	5.709674E-1	5.665425E-1	5.556388E-1	5.241483E-1	5.682785E-1	5.623012E-1	5.552718E-1	5.236900E-1	5.723979E-1	5.334784E-1	5.430652E-1	5.414475E-1	5.377593E-1	5.880099E-1	5.583743E-1	5.025624E-1	5.670669E-1	4.841313E-1	5.438319E-1	5.511901E-1	5.538684E-1	5.706714E-1	5.687303E-1	5.273477E-1	5.349417E-1	4.914591E-1	5.480273E-1	5.357033E-1	5.629851E-1	5.926729E-1	5.435872E-1	5.549880E-1	5.624196E-1	5.342553E-1	5.115189E-1	5.572625E-1	6.021835E-1	5.402529E-1	5.524889E-1	5.209509E-1	5.532221E-1	5.016627E-1	5.425953E-1	5.401740E-1	5.869241E-1	5.382490E-1	5.299205E-1	5.364219E-1	5.458938E-1	5.842367E-1	5.772725E-1	5.344951E-1	5.532449E-1	5.268090E-1	5.673980E-1	5.477135E-1	5.186603E-1	4.611213E-1	5.395052E-1	5.673675E-1	5.574030E-1	4.957133E-1	5.049181E-1	5.497382E-1	5.374205E-1	5.608477E-1	5.430871E-1	5.541107E-1	5.403015E-1	5.474231E-1	5.490216E-1	5.440635E-1	5.738292E-1	5.402300E-1	5.038662E-1	5.485478E-1	5.691529E-1	5.645030E-1	5.431180E-1	5.512002E-1	5.609453E-1	5.641696E-1	5.070949E-1	5.716978E-1	5.610298E-1	5.458390E-1	4.908622E-1	5.702058E-1	5.787247E-1	5.727416E-1	5.027816E-1	5.603273E-1	5.623845E-1	5.573231E-1	5.576248E-1	6.066084E-1	5.426323E-1	5.408364E-1	5.058489E-1	5.533603E-1	5.680117E-1	5.060307E-1	5.658378E-1	5.306089E-1
5.404120E+2	4.544301E-1	5.152123E-1	4.562098E-1	4.828761E-1	5.242433E-1	5.062993E-1	4.759146E-1	5.305352E-1	4.356111E-1	5.110959E-1	4.927312E-1	4.913826E-1	4.834812E-1	4.838614E-1	4.624881E-1	4.730416E-1	4.678304E-1	5.302825E-1	4.828263E-1	4.823190E-1	4.940162E-1	4.816134E-1	4.840294E-1	4.969435E-1	5.179594E-1	4.527982E-1	4.952267E-1	5.003177E-1	4.777656E-1	5.022340E-1	5.180499E-1	5.330138E-1	4.925412E-1	5.406801E-1	5.102746E-1	4.984591E-1	5.202139E-1	4.846488E-1	4.423036E-1	5.188851E-1	5.237508E-1	4.671408E-1	4.882667E-1	5.419711E-1	4.979381E-1	4.976407E-1	5.266720E-1	5.039830E-1	4.610546E-1	4.592382E-1	4.848671E-1	4.838685E-1	4.837701E-1	4.734590E-1	4.714487E-1	4.961908E-1	5.215894E-1	4.619886E-1	4.945113E-1	5.036064E-1	5.037489E-1	5.033189E-1	5.121267E-1	4.565842E-1	4.680882E-1	5.096299E-1	4.991643E-1	4.789689E-1	5.201601E-1	5.063512E-1	4.771288E-1	5.000688E-1	4.618735E-1	5.278494E-1	5.110992E-1	5.241212E-1	4.995769E-1	5.239220E-1	5.030350E-1	4.999560E-1	5.124867E-1	4.630125E-1	4.908976E-1	4.694973E-1	5.073919E-1	5.053285E-1	5.211805E-1	5.011982E-1	4.902122E-1	4.865574E-1	4.818202E-1	4.845800E-1	4.648792E-1	5.424589E-1	4.876978E-1	5.015917E-1	4.957138E-1	4.899577E-1	5.228134E-1	4.677969E-1	4.858375E-1	4.981963E-1	4.417786E-1	5.217716E-1	4.974135E-1	4.799835E-1	4.873088E-1	5.152777E-1	5.161606E-1	5.251586E-1	5.268554E-1	5.234518E-1	4.974924E-1	4.925689E-1	5.246319E-1	5.057401E-1	5.005119E-1	4.911173E-1	4.530264E-1	4.885200E-1	4.980297E-1	5.268993E-1	4.676249E-1	4.984449E-1	4.837251E-1	5.129885E-1	4.765567E-1	4.832155E-1	4.926751E-1	4.798025E-1	5.420223E-1	5.049698E-1	4.881878E-1	5.157182E-1	4.878038E-1	4.759248E-1	4.678222E-1	4.869852E-1	4.863357E-1	4.853389E-1	4.961446E-1	5.160992E-1	5.121910E-1	5.115028E-1	4.947010E-1	4.563614E-1	4.854119E-1	4.860685E-1	4.754343E-1	5.071317E-1	4.767430E-1	4.859810E-1	4.791046E-1	4.778100E-1	4.900884E-1	5.120720E-1	5.145607E-1	4.858415E-1	5.395152E-1	4.800672E-1	5.086225E-1	4.955705E-1	5.190720E-1	5.340464E-1
5.406090E+2	4.840765E-1	4.726471E-1	4.762571E-1	4.619275E-1	5.082188E-1	5.058830E-1	4.407331E-1	5.082814E-1	5.015087E-1	4.710929E-1	4.956129E-1	4.744450E-1	4.360014E-1	5.324390E-1	5.101137E-1	4.393330E-1	4.838250E-1	4.965429E-1	4.841737E-1	5.057760E-1	4.548981E-1	4.722452E-1	4.951538E-1	5.038340E-1	4.703872E-1	4.752435E-1	4.723698E-1	4.687557E-1	5.088927E-1	4.863066E-1	4.869594E-1	4.767514E-1	4.704964E-1	4.970659E-1	4.474588E-1	4.755630E-1	4.510802E-1	5.319374E-1	4.847344E-1	4.775739E-1	4.765941E-1	4.983137E-1	4.892620E-1	4.982504E-1	5.230301E-1	5.180920E-1	4.904187E-1	5.056635E-1	4.899134E-1	4.803653E-1	5.081475E-1	4.406768E-1	4.843633E-1	4.591103E-1	4.969350E-1	5.164940E-1	5.057371E-1	4.800896E-1	4.781181E-1	5.161731E-1	4.848392E-1	4.812854E-1	5.034676E-1	5.018542E-1	4.739536E-1	5.045587E-1	4.793197E-1	5.687526E-1	4.975478E-1	4.786869E-1	5.043410E-1	5.141801E-1	4.855485E-1	4.879126E-1	5.201810E-1	4.878301E-1	5.017178E-1	5.129056E-1	4.767296E-1	5.286197E-1	5.043628E-1	5.324861E-1	4.694308E-1	4.802726E-1	4.651815E-1	4.741214E-1	4.965376E-1	5.230597E-1	5.363792E-1	4.806843E-1	4.717047E-1	5.000403E-1	5.000541E-1	4.698655E-1	4.913048E-1	5.228441E-1	4.885759E-1	5.199734E-1	4.953830E-1	4.817001E-1	4.755857E-1	4.874953E-1	4.991783E-1	5.124765E-1	4.754893E-1	4.564970E-1	4.939755E-1	4.672477E-1	5.394227E-1	5.232092E-1	4.807058E-1	4.928661E-1	4.596900E-1	4.747796E-1	5.144838E-1	4.799983E-1	4.849255E-1	4.881863E-1	4.876452E-1	5.197671E-1	4.875288E-1	4.622406E-1	5.128884E-1	4.928943E-1	5.015369E-1	4.998885E-1	4.920554E-1	5.400468E-1	4.890199E-1	4.835361E-1	4.972480E-1	4.817646E-1	4.735754E-1	4.867593E-1	4.666726E-1	5.372449E-1	5.008173E-1	4.701446E-1	4.456891E-1	4.894647E-1	4.706608E-1	5.028062E-1	4.983531E-1	4.814023E-1	4.656659E-1	5.164809E-1	4.952309E-1	4.922867E-1	4.699170E-1	5.411853E-1	4.553978E-1	4.858907E-1	5.122490E-1	4.885940E-1	5.001979E-1	5.203267E-1	4.553422E-1	5.195042E-1	4.696678E-1	4.838166E-1	5.120450E-1	5.169732E-1	5.013404E-1	5.000732E-1
5.408060E+2	4.257371E-1	4.222746E-1	4.191841E-1	4.495313E-1	4.137095E-1	4.486590E-1	4.500699E-1	4.326176E-1	4.386528E-1	4.246247E-1	4.292855E-1	4.382893E-1	4.340897E-1	4.288415E-1	4.423047E-1	4.401941E-1	4.383448E-1	3.960153E-1	4.145845E-1	4.357480E-1	4.250282E-1	4.428760E-1	4.305076E-1	4.478168E-1	4.368097E-1	4.315532E-1	4.232167E-1	4.717451E-1	4.182654E-1	4.076634E-1	4.581311E-1	4.483024E-1	4.393643E-1	4.414087E-1	4.114329E-1	4.303237E-1	4.485416E-1	4.294797E-1	4.478973E-1	4.144040E-1	4.542621E-1	4.438092E-1	4.382060E-1	4.169999E-1	4.422858E-1	4.389775E-1	4.372313E-1	4.271842E-1	3.735026E-1	4.493374E-1	4.412073E-1	4.387520E-1	4.069322E-1	4.331539E-1	4.535414E-1	4.031189E-1	4.344339E-1	4.041470E-1	4.286461E-1	4.133076E-1	4.172154E-1	4.428540E-1	4.482290E-1	4.471056E-1	4.381985E-1	3.983897E-1	4.234800E-1	4.796266E-1	4.564229E-1	4.533135E-1	4.474911E-1	4.670059E-1	4.483391E-1	4.493659E-1	4.093449E-1	4.321979E-1	4.389512E-1	4.505255E-1	4.373050E-1	4.293152E-1	4.574269E-1	4.349559E-1	3.974206E-1	4.237777E-1	4.555510E-1	4.452231E-1	4.715253E-1	4.197625E-1	4.526873E-1	4.461378E-1	4.243216E-1	4.406282E-1	4.197537E-1	4.120899E-1	4.304214E-1	4.621569E-1	4.448685E-1	3.954162E-1	4.419717E-1	4.327468E-1	4.127434E-1	4.347782E-1	4.203150E-1	4.382740E-1	4.029110E-1	4.795666E-1	4.074261E-1	4.290118E-1	4.303161E-1	4.426522E-1	4.278363E-1	4.906404E-1	4.342698E-1	4.469282E-1	4.255928E-1	4.306184E-1	4.478182E-1	4.043680E-1	4.421227E-1	4.526478E-1	4.357051E-1	4.285723E-1	4.553831E-1	4.539390E-1	4.551743E-1	3.942089E-1	4.294217E-1	4.135124E-1	4.649156E-1	4.540582E-1	4.424838E-1	4.622658E-1	4.533168E-1	4.197464E-1	4.391186E-1	4.437557E-1	4.596335E-1	4.563022E-1	4.380828E-1	4.238272E-1	4.414580E-1	4.199426E-1	4.620557E-1	4.192502E-1	4.446283E-1	4.548660E-1	4.355884E-1	4.103597E-1	4.718083E-1	4.586698E-1	4.221921E-1	4.145179E-1	4.258226E-1	4.157099E-1	5.005650E-1	4.498424E-1	4.550044E-1	4.520305E-1	4.445961E-1	4.266445E-1	4.529866E-1	4.590813E-1	4.661432E-1	4.231921E-1
5.410240E+2	3.481862E-1	3.865549E-1	3.563283E-1	3.533908E-1	3.658135E-1	3.908319E-1	3.340901E-1	3.544816E-1	3.720477E-1	3.747497E-1	3.476193E-1	3.448676E-1	3.576977E-1	4.001973E-1	3.559691E-1	3.542257E-1	3.687507E-1	3.457786E-1	3.523443E-1	3.908015E-1	3.789604E-1	3.720892E-1	3.269146E-1	3.684842E-1	3.737986E-1	3.725980E-1	3.757858E-1	3.839538E-1	3.760025E-1	3.939495E-1	3.692932E-1	3.729862E-1	3.873765E-1	3.851394E-1	3.905648E-1	3.555204E-1	3.533674E-1	3.708259E-1	3.316684E-1	3.528069E-1	4.254158E-1	3.589700E-1	3.677611E-1	3.425689E-1	3.705304E-1	4.120151E-1	3.850274E-1	3.423880E-1	3.515603E-1	3.741558E-1	3.828798E-1	3.386806E-1	3.756267E-1	3.479290E-1	3.857666E-1	3.809628E-1	4.062213E-1	3.764643E-1	3.288702E-1	3.577422E-1	3.559096E-1	3.590976E-1	3.550368E-1	3.758781E-1	3.864616E-1	3.825486E-1	3.658458E-1	3.575239E-1	3.920928E-1	3.562352E-1	3.750212E-1	3.912096E-1	3.871371E-1	3.914610E-1	3.834954E-1	3.826903E-1	3.637447E-1	3.899956E-1	3.906380E-1	3.870053E-1	3.447861E-1	3.531228E-1	3.647025E-1	3.734071E-1	3.743576E-1	3.787204E-1	3.867410E-1	3.821180E-1	3.546938E-1	4.084823E-1	3.578464E-1	3.290535E-1	3.672396E-1	3.520557E-1	3.713651E-1	3.876843E-1	3.433645E-1	3.718824E-1	3.512626E-1	3.425189E-1	3.672371E-1	3.683788E-1	3.763894E-1	3.653916E-1	3.781845E-1	3.581757E-1	3.493068E-1	3.319079E-1	3.705285E-1	3.594711E-1	3.469386E-1	3.968372E-1	4.103052E-1	3.339763E-1	3.829861E-1	3.892919E-1	3.840316E-1	3.880724E-1	3.553318E-1	3.931996E-1	3.781159E-1	3.707835E-1	3.820766E-1	3.776945E-1	3.955677E-1	4.003233E-1	4.070929E-1	3.906079E-1	3.698972E-1	3.748508E-1	3.610312E-1	3.645578E-1	3.782099E-1	3.386246E-1	3.576614E-1	3.388394E-1	3.659122E-1	3.663658E-1	3.682928E-1	3.343448E-1	3.956736E-1	3.736977E-1	3.790735E-1	4.101347E-1	3.799260E-1	3.665259E-1	3.838616E-1	3.302650E-1	4.227292E-1	3.518735E-1	3.602578E-1	3.647125E-1	3.623994E-1	3.903397E-1	3.381059E-1	3.939442E-1	3.741604E-1	3.522400E-1	3.708677E-1	3.954985E-1	3.331040E-1	3.758270E-1	3.927924E-1	3.398310E-1
5.415040E+2	3.645895E-1	3.419777E-1	3.739369E-1	3.930328E-1	4.165273E-1	3.656543E-1	3.644938E-1	3.632966E-1	3.906012E-1	3.693204E-1	3.515581E-1	3.835610E-1	3.847419E-1	3.782631E-1	4.045520E-1	3.416398E-1	3.416435E-1	3.659338E-1	3.881838E-1	3.721895E-1	3.673502E-1	3.907265E-1	3.716908E-1	3.672309E-1	3.535291E-1	3.822403E-1	3.889659E-1	3.694781E-1	3.709014E-1	3.709443E-1	3.645854E-1	3.544990E-1	3.875026E-1	3.981757E-1	3.927642E-1	4.072474E-1	3.909644E-1	3.603682E-1	3.523552E-1	3.953237E-1	3.559219E-1	3.669900E-1	4.172122E-1	3.705517E-1	3.964177E-1	4.123565E-1	4.082317E-1	3.718729E-1	3.229232E-1	3.289428E-1	3.765678E-1	3.871740E-1	3.501179E-1	3.995121E-1	3.569120E-1	3.741639E-1	3.867660E-1	3.917690E-1	4.145480E-1	3.845986E-1	3.756377E-1	4.057080E-1	3.830512E-1	3.521936E-1	3.513560E-1	4.360769E-1	3.795835E-1	3.403140E-1	3.816292E-1	4.202781E-1	3.544923E-1	3.633345E-1	3.855446E-1	3.729357E-1	3.745275E-1	3.709508E-1	3.782569E-1	3.718191E-1	3.728654E-1	4.384788E-1	3.791158E-1	4.144118E-1	3.537550E-1	3.477147E-1	3.935074E-1	3.890366E-1	4.059989E-1	4.019073E-1	4.008055E-1	3.535913E-1	3.452713E-1	3.845559E-1	3.587578E-1	4.006107E-1	4.113430E-1	4.020598E-1	3.903034E-1	3.662876E-1	3.840018E-1	3.384785E-1	3.549060E-1	3.668668E-1	4.028498E-1	3.816350E-1	3.876978E-1	3.877070E-1	3.685784E-1	3.598720E-1	3.942401E-1	3.805718E-1	4.284728E-1	4.003875E-1	3.935293E-1	3.995460E-1	3.828523E-1	3.346067E-1	3.868547E-1	3.782441E-1	3.595191E-1	3.988698E-1	4.127176E-1	3.449980E-1	3.986277E-1	3.790803E-1	3.962555E-1	3.595399E-1	3.900675E-1	3.605620E-1	3.901541E-1	4.275848E-1	4.129640E-1	3.813988E-1	4.103514E-1	3.685983E-1	3.775873E-1	3.655347E-1	4.035659E-1	4.042190E-1	3.791170E-1	3.986977E-1	3.949520E-1	3.520237E-1	3.826363E-1	3.834293E-1	4.072186E-1	3.830827E-1	3.917807E-1	3.887769E-1	3.922449E-1	3.895280E-1	3.830717E-1	3.611605E-1	3.593084E-1	3.755090E-1	3.957792E-1	3.953322E-1	4.015958E-1	3.850464E-1	3.765747E-1	3.635535E-1	3.598933E-1	4.058950E-1	4.088777E-1	4.130001E-1
5.420110E+2	5.058187E-1	4.852889E-1	4.587404E-1	4.943968E-1	4.992520E-1	5.124199E-1	4.740296E-1	5.006031E-1	4.638230E-1	4.429607E-1	4.699916E-1	5.211098E-1	4.635867E-1	4.905729E-1	4.568826E-1	5.026959E-1	4.725696E-1	4.905478E-1	5.188716E-1	5.257754E-1	5.163826E-1	4.829556E-1	4.852658E-1	4.718186E-1	5.057374E-1	4.750462E-1	4.897141E-1	4.652608E-1	4.934942E-1	5.005413E-1	4.989439E-1	4.562035E-1	4.622803E-1	4.750339E-1	5.140156E-1	4.979300E-1	4.823330E-1	4.824074E-1	4.622771E-1	4.789821E-1	4.976644E-1	4.456238E-1	5.227103E-1	4.843988E-1	4.873834E-1	4.772391E-1	4.791556E-1	4.621549E-1	4.764401E-1	4.789329E-1	4.989452E-1	5.020992E-1	4.850302E-1	4.819418E-1	4.705378E-1	5.107374E-1	4.323116E-1	5.115927E-1	5.052147E-1	4.781018E-1	5.197758E-1	5.012938E-1	4.986779E-1	4.983267E-1	4.708678E-1	5.081203E-1	4.982437E-1	4.988413E-1	5.269017E-1	4.905854E-1	4.644206E-1	5.408029E-1	4.973134E-1	4.906538E-1	5.204086E-1	4.869703E-1	5.101333E-1	5.116195E-1	5.283027E-1	5.035835E-1	4.808016E-1	4.919889E-1	5.040845E-1	5.132196E-1	5.167733E-1	4.671645E-1	4.731577E-1	4.932488E-1	4.951402E-1	5.046973E-1	4.829416E-1	4.912910E-1	5.158609E-1	4.877547E-1	5.212726E-1	5.096776E-1	4.558998E-1	4.840141E-1	4.902670E-1	5.144643E-1	5.060514E-1	4.969988E-1	4.993004E-1	5.177630E-1	5.026750E-1	4.918610E-1	4.985420E-1	4.775471E-1	4.969247E-1	4.767527E-1	5.357516E-1	4.849125E-1	5.042657E-1	4.881303E-1	5.277859E-1	4.874528E-1	4.748795E-1	4.819587E-1	4.754451E-1	4.908236E-1	4.962626E-1	4.552112E-1	4.812782E-1	4.706235E-1	5.198570E-1	5.054646E-1	4.894521E-1	5.263895E-1	4.713038E-1	4.948258E-1	4.959855E-1	4.966028E-1	4.810812E-1	4.981374E-1	4.336102E-1	5.103255E-1	4.834188E-1	4.826923E-1	4.979106E-1	5.087238E-1	4.990182E-1	4.889278E-1	4.836594E-1	5.571068E-1	4.855887E-1	5.122670E-1	5.251922E-1	4.871426E-1	5.256328E-1	4.921928E-1	4.797658E-1	4.776738E-1	5.173743E-1	4.998134E-1	5.306119E-1	5.256163E-1	4.904904E-1	4.935254E-1	5.057673E-1	4.821254E-1	4.846896E-1	5.599627E-1	5.254885E-1	4.834276E-1
5.425080E+2	6.853305E-1	6.983846E-1	6.606881E-1	6.939150E-1	7.221870E-1	6.624036E-1	6.616632E-1	6.847121E-1	6.821478E-1	6.809557E-1	6.535316E-1	6.841380E-1	6.579188E-1	6.978888E-1	6.887677E-1	6.753827E-1	6.883741E-1	6.276301E-1	6.732281E-1	6.623887E-1	6.686599E-1	7.247224E-1	6.809907E-1	6.408869E-1	7.400282E-1	6.582270E-1	7.199084E-1	6.982492E-1	6.505319E-1	6.412299E-1	6.797631E-1	6.897322E-1	6.576302E-1	7.002605E-1	7.361824E-1	6.927567E-1	6.542709E-1	6.757659E-1	6.534353E-1	7.006374E-1	6.640328E-1	7.090047E-1	6.982844E-1	6.596252E-1	6.545919E-1	6.517808E-1	6.764378E-1	6.652373E-1	6.322760E-1	6.522736E-1	6.542685E-1	6.903520E-1	6.753542E-1	6.806069E-1	6.500563E-1	6.870509E-1	6.496626E-1	6.927621E-1	7.121854E-1	7.138647E-1	6.665590E-1	6.945322E-1	7.059675E-1	6.647851E-1	6.994169E-1	6.752530E-1	7.082744E-1	6.704045E-1	7.231993E-1	6.462410E-1	6.743660E-1	6.966826E-1	6.609511E-1	6.719559E-1	6.379640E-1	7.249063E-1	7.363443E-1	6.810715E-1	6.824512E-1	6.878336E-1	6.596649E-1	6.443492E-1	6.866270E-1	6.932498E-1	6.793142E-1	6.517767E-1	6.612272E-1	6.814515E-1	6.778478E-1	6.940585E-1	6.934260E-1	6.675780E-1	6.270776E-1	6.638047E-1	6.802691E-1	7.224626E-1	6.843048E-1	6.247321E-1	6.813058E-1	6.654591E-1	6.608897E-1	6.828079E-1	7.269276E-1	6.832607E-1	6.779586E-1	7.333304E-1	6.838149E-1	6.416485E-1	6.622427E-1	6.787313E-1	7.360026E-1	7.182688E-1	6.753548E-1	6.753644E-1	6.779272E-1	6.399393E-1	6.625968E-1	7.023317E-1	7.012721E-1	6.687502E-1	6.798623E-1	6.417709E-1	7.425106E-1	6.615363E-1	6.764683E-1	6.572986E-1	6.987143E-1	6.561401E-1	7.285812E-1	6.705585E-1	7.111057E-1	6.890889E-1	6.808620E-1	6.834694E-1	6.729290E-1	6.462030E-1	6.956546E-1	6.183660E-1	7.150961E-1	6.630274E-1	6.785606E-1	6.356706E-1	6.755729E-1	6.632736E-1	6.502473E-1	6.475891E-1	6.748531E-1	7.183505E-1	7.048720E-1	6.490207E-1	6.461474E-1	7.057476E-1	6.889418E-1	6.281284E-1	7.161852E-1	7.423015E-1	6.741713E-1	6.717748E-1	6.414907E-1	6.981438E-1	7.051486E-1	6.995368E-1	6.331032E-1	5.608507E-1
5.430120E+2	9.008597E-1	9.188117E-1	8.616180E-1	9.327547E-1	9.650316E-1	8.882112E-1	9.023105E-1	8.919343E-1	8.633505E-1	9.476855E-1	8.736835E-1	9.016986E-1	9.203763E-1	9.267001E-1	9.306889E-1	9.270016E-1	9.203836E-1	8.605695E-1	9.281503E-1	8.656661E-1	9.228492E-1	9.478755E-1	9.306100E-1	8.928541E-1	8.688163E-1	8.833569E-1	9.293506E-1	9.322714E-1	9.586906E-1	8.758995E-1	9.357648E-1	9.284744E-1	8.857372E-1	8.779198E-1	9.362047E-1	9.714433E-1	8.647311E-1	9.458186E-1	8.885311E-1	9.436696E-1	8.873688E-1	9.294996E-1	9.444051E-1	8.549596E-1	9.127995E-1	8.972056E-1	9.241020E-1	9.110366E-1	8.641394E-1	8.103300E-1	9.132933E-1	9.076969E-1	8.643647E-1	8.871780E-1	9.072842E-1	9.284923E-1	9.354120E-1	9.036215E-1	9.262904E-1	9.185514E-1	8.748287E-1	8.879901E-1	8.956184E-1	9.196913E-1	8.701447E-1	8.888170E-1	9.149039E-1	9.123267E-1	9.681561E-1	8.960263E-1	8.614795E-1	9.104103E-1	9.032195E-1	8.770484E-1	9.318724E-1	9.662249E-1	8.993542E-1	9.392532E-1	9.605958E-1	9.592300E-1	8.681649E-1	9.036823E-1	9.415351E-1	8.825193E-1	9.080438E-1	9.399885E-1	8.749258E-1	9.103317E-1	9.090285E-1	8.634206E-1	9.517388E-1	9.185232E-1	9.227736E-1	8.596376E-1	8.681557E-1	9.434651E-1	8.695848E-1	8.895912E-1	9.108851E-1	8.941743E-1	9.099969E-1	8.889937E-1	8.994049E-1	8.989492E-1	9.289704E-1	9.272681E-1	9.117785E-1	8.540493E-1	9.726729E-1	8.941108E-1	9.113920E-1	9.237191E-1	9.407272E-1	9.199663E-1	8.816456E-1	9.312068E-1	8.708958E-1	8.766602E-1	8.903094E-1	9.133987E-1	9.004884E-1	8.405386E-1	8.562231E-1	9.084805E-1	9.546254E-1	9.451742E-1	9.395676E-1	9.017029E-1	9.572796E-1	9.448467E-1	9.293780E-1	8.834343E-1	9.019324E-1	8.559657E-1	8.666813E-1	9.245669E-1	9.295589E-1	8.976514E-1	9.160888E-1	8.584797E-1	8.992992E-1	8.933420E-1	8.817843E-1	9.324960E-1	8.771266E-1	9.367100E-1	9.135193E-1	9.284952E-1	8.984787E-1	8.873476E-1	8.670857E-1	9.104838E-1	8.904935E-1	9.059695E-1	8.915633E-1	9.044389E-1	9.389878E-1	9.091458E-1	9.530499E-1	8.958060E-1	8.768067E-1	9.111842E-1	9.319341E-1	9.258121E-1
5.435330E+2	9.676630E-1	9.957402E-1	9.686514E-1	1.018899E+0	9.784677E-1	9.569112E-1	9.188741E-1	9.808082E-1	9.665734E-1	9.213150E-1	9.252515E-1	9.949607E-1	1.028711E+0	9.605968E-1	1.029238E+0	9.421826E-1	1.007985E+0	9.298519E-1	9.657324E-1	9.457320E-1	1.026442E+0	1.030744E+0	9.785334E-1	9.482632E-1	9.696862E-1	1.000609E+0	1.011699E+0	9.439550E-1	9.926285E-1	9.573173E-1	1.039594E+0	1.025011E+0	9.191611E-1	9.987664E-1	1.007311E+0	1.012766E+0	9.928919E-1	9.633322E-1	9.822423E-1	9.346076E-1	1.008344E+0	9.350863E-1	9.771993E-1	9.318263E-1	9.701260E-1	1.054397E+0	9.318296E-1	9.124269E-1	8.907107E-1	9.232217E-1	9.525210E-1	9.745330E-1	9.392019E-1	9.620254E-1	9.636530E-1	9.725493E-1	1.043086E+0	9.421573E-1	1.013589E+0	1.011125E+0	9.610574E-1	9.624276E-1	1.010538E+0	9.698132E-1	9.625811E-1	9.864537E-1	9.649436E-1	9.257829E-1	9.507104E-1	9.587267E-1	9.616992E-1	9.803867E-1	1.010640E+0	9.705284E-1	9.478213E-1	9.940142E-1	9.347862E-1	9.939024E-1	9.994465E-1	1.007992E+0	9.074377E-1	9.593937E-1	9.796587E-1	9.610491E-1	9.886717E-1	9.128934E-1	9.940162E-1	9.648930E-1	1.031319E+0	9.316807E-1	9.721272E-1	9.471477E-1	9.332107E-1	8.780934E-1	9.925031E-1	1.000842E+0	9.879009E-1	9.382481E-1	9.213005E-1	9.422312E-1	9.132829E-1	1.003077E+0	9.765690E-1	9.353536E-1	9.795873E-1	9.539603E-1	9.298633E-1	9.560189E-1	9.803723E-1	9.797280E-1	1.024584E+0	9.581166E-1	9.360695E-1	9.541036E-1	9.792942E-1	9.473759E-1	9.958254E-1	9.463011E-1	9.830076E-1	1.079023E+0	9.593258E-1	9.660387E-1	9.519329E-1	9.641991E-1	9.815358E-1	9.577995E-1	1.054206E+0	9.568943E-1	9.469485E-1	1.018368E+0	1.008265E+0	9.487123E-1	9.423780E-1	9.639736E-1	1.028410E+0	9.698886E-1	9.834527E-1	9.457521E-1	9.724389E-1	9.849828E-1	9.766565E-1	9.641243E-1	1.000259E+0	1.062885E+0	9.483881E-1	9.123710E-1	9.624537E-1	9.883952E-1	9.927622E-1	9.490642E-1	9.916652E-1	9.210622E-1	1.010715E+0	9.662332E-1	9.796573E-1	9.969345E-1	9.744144E-1	9.517931E-1	1.017097E+0	9.863748E-1	9.857809E-1	9.952869E-1	9.325943E-1	9.382292E-1
5.440170E+2	9.581427E-1	9.427784E-1	9.421277E-1	9.586692E-1	9.768423E-1	9.891776E-1	9.806559E-1	9.375870E-1	1.035143E+0	9.353973E-1	9.755277E-1	9.512959E-1	9.982282E-1	9.543246E-1	9.482198E-1	9.105165E-1	9.625017E-1	9.464484E-1	9.842609E-1	9.409485E-1	9.688008E-1	1.008059E+0	9.404589E-1	9.787764E-1	9.613662E-1	9.516607E-1	9.332423E-1	9.575716E-1	9.213747E-1	9.549947E-1	9.732733E-1	9.793704E-1	9.097385E-1	9.370601E-1	9.742448E-1	9.721402E-1	9.405905E-1	1.000504E+0	9.145198E-1	9.492159E-1	9.437743E-1	8.714286E-1	9.253883E-1	9.164809E-1	9.363565E-1	9.906922E-1	9.691867E-1	9.300201E-1	9.375342E-1	9.399794E-1	9.778036E-1	9.589610E-1	9.231671E-1	9.409187E-1	9.636954E-1	9.459144E-1	9.680747E-1	8.830680E-1	9.815423E-1	9.366096E-1	9.820822E-1	9.373171E-1	9.387900E-1	9.797353E-1	9.281091E-1	8.899534E-1	9.548768E-1	9.419450E-1	1.036403E+0	8.982776E-1	9.395262E-1	9.964252E-1	9.661433E-1	9.181029E-1	9.571186E-1	8.927188E-1	9.825675E-1	9.332031E-1	9.358810E-1	1.007599E+0	9.330556E-1	9.668101E-1	9.807240E-1	8.804506E-1	9.392647E-1	9.151248E-1	1.029222E+0	9.706080E-1	9.625460E-1	9.453062E-1	9.202544E-1	9.233729E-1	9.460059E-1	9.391059E-1	9.580994E-1	9.695725E-1	9.628397E-1	9.567147E-1	9.065877E-1	9.898866E-1	9.535306E-1	9.322719E-1	9.619645E-1	9.318212E-1	1.011999E+0	8.596848E-1	9.415196E-1	9.206547E-1	9.043815E-1	9.772770E-1	1.023267E+0	9.951175E-1	9.539211E-1	9.384970E-1	9.340228E-1	9.490524E-1	9.603729E-1	9.397265E-1	9.704325E-1	9.613235E-1	9.178762E-1	9.474117E-1	9.432146E-1	9.529650E-1	1.015936E+0	9.312585E-1	9.747905E-1	9.532965E-1	9.404956E-1	9.894152E-1	9.455620E-1	9.069750E-1	9.715870E-1	9.422418E-1	9.475794E-1	9.669372E-1	1.009744E+0	9.366515E-1	9.522646E-1	9.386086E-1	9.538561E-1	9.073459E-1	9.297771E-1	9.887812E-1	9.871262E-1	9.579165E-1	9.455088E-1	9.740769E-1	9.734130E-1	9.341142E-1	9.356384E-1	9.576174E-1	9.536927E-1	9.971363E-1	9.386412E-1	9.626091E-1	9.576142E-1	9.762579E-1	9.240594E-1	9.425099E-1	9.364703E-1	9.298281E-1	9.519689E-1	9.163198E-1
5.445020E+2	9.699278E-1	8.948849E-1	8.400235E-1	9.500189E-1	1.033748E+0	9.335570E-1	8.674253E-1	9.526274E-1	9.383142E-1	9.339217E-1	9.198540E-1	9.207596E-1	9.334621E-1	9.219261E-1	9.677729E-1	9.454002E-1	9.021396E-1	8.410862E-1	9.172451E-1	9.506491E-1	9.084650E-1	9.455610E-1	9.675974E-1	9.028294E-1	9.407225E-1	8.856775E-1	9.055330E-1	9.062644E-1	8.576076E-1	9.211143E-1	9.731525E-1	8.857375E-1	8.781811E-1	9.354867E-1	9.330954E-1	9.283803E-1	8.857964E-1	9.497991E-1	9.093296E-1	9.407392E-1	8.501138E-1	8.927786E-1	9.713051E-1	8.838728E-1	9.784769E-1	8.827640E-1	9.024233E-1	9.406058E-1	8.633360E-1	9.030585E-1	9.665760E-1	9.572223E-1	9.331823E-1	9.032677E-1	9.178511E-1	9.217559E-1	9.361613E-1	9.304870E-1	9.032635E-1	9.022377E-1	9.306751E-1	8.976235E-1	9.201902E-1	8.953481E-1	8.946415E-1	9.047136E-1	9.124649E-1	8.246256E-1	9.919051E-1	8.965743E-1	8.969382E-1	8.912455E-1	9.292040E-1	8.906399E-1	9.369588E-1	8.928119E-1	8.996003E-1	9.150977E-1	8.997577E-1	9.456752E-1	9.525632E-1	9.029200E-1	9.439696E-1	9.154776E-1	8.637771E-1	8.999040E-1	9.161108E-1	9.192981E-1	9.639318E-1	9.500851E-1	9.449496E-1	9.109014E-1	8.973046E-1	8.651915E-1	9.336837E-1	9.660506E-1	9.334142E-1	8.774162E-1	9.490191E-1	9.333693E-1	9.048248E-1	9.338733E-1	8.999006E-1	9.700515E-1	9.446220E-1	9.523287E-1	9.138842E-1	9.378684E-1	9.126079E-1	8.901264E-1	9.588545E-1	9.296294E-1	9.617781E-1	9.245931E-1	9.305861E-1	9.358820E-1	9.415084E-1	8.582905E-1	9.305082E-1	9.941016E-1	9.662689E-1	8.529970E-1	9.313183E-1	9.246038E-1	9.343148E-1	8.980945E-1	9.293785E-1	9.307802E-1	9.203976E-1	9.135003E-1	8.820483E-1	8.720557E-1	8.819666E-1	8.614628E-1	8.526182E-1	8.829870E-1	9.167508E-1	9.148557E-1	9.262040E-1	8.929862E-1	9.485125E-1	8.666888E-1	9.447887E-1	9.893449E-1	9.153666E-1	9.246750E-1	8.999940E-1	9.186920E-1	9.312057E-1	9.389236E-1	9.175450E-1	9.489726E-1	9.335149E-1	9.014734E-1	9.017177E-1	9.549535E-1	9.648060E-1	9.203144E-1	9.701786E-1	8.992054E-1	8.638037E-1	8.676903E-1	8.983373E-1	9.202058E-1
5.450090E+2	8.723688E-1	8.861075E-1	8.793464E-1	8.587778E-1	8.916275E-1	8.982111E-1	9.199747E-1	8.201747E-1	9.070536E-1	8.675561E-1	8.630969E-1	8.922401E-1	9.075603E-1	8.782089E-1	9.063112E-1	8.951124E-1	9.152759E-1	8.785973E-1	9.252171E-1	9.593520E-1	9.080344E-1	9.060753E-1	8.638634E-1	8.866898E-1	8.654343E-1	8.902002E-1	8.749714E-1	9.030653E-1	8.806372E-1	9.209394E-1	9.227265E-1	8.615937E-1	8.949548E-1	9.301734E-1	8.573002E-1	9.124174E-1	8.745215E-1	9.278524E-1	8.666370E-1	9.432122E-1	8.527487E-1	8.181446E-1	9.063943E-1	8.742169E-1	8.726320E-1	8.518273E-1	9.136132E-1	8.839722E-1	8.040850E-1	8.617078E-1	8.661581E-1	9.300696E-1	8.271881E-1	8.339530E-1	8.832439E-1	9.067327E-1	9.224512E-1	8.874735E-1	8.977752E-1	8.662156E-1	8.827063E-1	8.671519E-1	8.660695E-1	8.687487E-1	8.689956E-1	8.648722E-1	9.039957E-1	9.264695E-1	9.235252E-1	8.224055E-1	8.539673E-1	9.025245E-1	8.883613E-1	8.880612E-1	9.104442E-1	9.045338E-1	9.183826E-1	8.883773E-1	9.047977E-1	9.740060E-1	8.679266E-1	9.040558E-1	8.628502E-1	8.899830E-1	8.392437E-1	8.660070E-1	8.885261E-1	9.128831E-1	9.574752E-1	8.744719E-1	8.921864E-1	8.869593E-1	8.598368E-1	8.955069E-1	9.009700E-1	9.045592E-1	9.170110E-1	8.627482E-1	9.067979E-1	8.918210E-1	8.326088E-1	8.713188E-1	8.590236E-1	8.587408E-1	8.747130E-1	8.610315E-1	8.738166E-1	8.586018E-1	8.556997E-1	9.353663E-1	8.977868E-1	9.084789E-1	9.137659E-1	8.690046E-1	9.329149E-1	8.927899E-1	9.030374E-1	8.408896E-1	8.763843E-1	9.448577E-1	8.524495E-1	8.490185E-1	9.122814E-1	8.875308E-1	8.612139E-1	8.622838E-1	9.166624E-1	8.731252E-1	9.087500E-1	8.565269E-1	9.035859E-1	9.142665E-1	9.155190E-1	8.463910E-1	8.833643E-1	8.781319E-1	8.495475E-1	8.981695E-1	8.714738E-1	8.583696E-1	8.733865E-1	8.556879E-1	8.740451E-1	9.204347E-1	8.542325E-1	9.226173E-1	8.676152E-1	8.731709E-1	9.077583E-1	8.974493E-1	8.004368E-1	8.904553E-1	8.414657E-1	9.041789E-1	8.965939E-1	9.273423E-1	9.405849E-1	8.799916E-1	9.536400E-1	8.652463E-1	8.757589E-1	9.446842E-1	8.954348E-1	8.590022E-1
5.455130E+2	8.913862E-1	8.825278E-1	9.187541E-1	8.886002E-1	9.168902E-1	8.883070E-1	8.629100E-1	8.473326E-1	9.121856E-1	8.881791E-1	8.964608E-1	8.583914E-1	8.661876E-1	8.232030E-1	8.722047E-1	8.633491E-1	8.573276E-1	9.030232E-1	9.210693E-1	9.339277E-1	9.161344E-1	8.562760E-1	8.936030E-1	9.295433E-1	8.871187E-1	8.810006E-1	8.682062E-1	8.632268E-1	8.686832E-1	8.832809E-1	9.059862E-1	8.818442E-1	8.893943E-1	8.696529E-1	8.553743E-1	9.050023E-1	9.351799E-1	9.158953E-1	8.877755E-1	9.076339E-1	8.763726E-1	8.791728E-1	8.716145E-1	9.262110E-1	8.791893E-1	8.961450E-1	9.268029E-1	8.917982E-1	8.537926E-1	8.424721E-1	8.698396E-1	8.867023E-1	8.654535E-1	9.202482E-1	8.931370E-1	8.675672E-1	9.581278E-1	8.628066E-1	9.183087E-1	9.021513E-1	8.893255E-1	8.765957E-1	9.178991E-1	9.412373E-1	8.690531E-1	9.240497E-1	8.865266E-1	8.848592E-1	8.801962E-1	8.940856E-1	8.701528E-1	9.658617E-1	9.308174E-1	8.982233E-1	8.883956E-1	9.294980E-1	9.352954E-1	9.529430E-1	8.810669E-1	9.329316E-1	9.215584E-1	8.881282E-1	8.943913E-1	8.785537E-1	9.265433E-1	8.663029E-1	8.725936E-1	9.170209E-1	8.918255E-1	8.390193E-1	9.067503E-1	9.173813E-1	8.695854E-1	9.017375E-1	8.779590E-1	8.807253E-1	9.157642E-1	8.584527E-1	8.547288E-1	8.801741E-1	8.741527E-1	8.481597E-1	8.973211E-1	8.913451E-1	8.757472E-1	8.620558E-1	8.827218E-1	8.586452E-1	8.932188E-1	8.413081E-1	9.332840E-1	9.049193E-1	9.300116E-1	8.558162E-1	9.288688E-1	9.328389E-1	8.995582E-1	8.116136E-1	9.037310E-1	9.271320E-1	8.968944E-1	8.906803E-1	9.290182E-1	8.868379E-1	8.961495E-1	8.877207E-1	9.210296E-1	9.573476E-1	9.233766E-1	8.914961E-1	9.556459E-1	9.045860E-1	8.930111E-1	8.707257E-1	8.430694E-1	8.754382E-1	9.637673E-1	8.535135E-1	8.919638E-1	8.824938E-1	9.057674E-1	8.675898E-1	9.123151E-1	8.995754E-1	9.191417E-1	8.575853E-1	8.640331E-1	9.045766E-1	9.149088E-1	8.889751E-1	9.069183E-1	8.885375E-1	9.019164E-1	8.836738E-1	8.757726E-1	9.408669E-1	9.237513E-1	8.716960E-1	8.678113E-1	8.905109E-1	9.392409E-1	8.611821E-1	9.484004E-1	9.680766E-1
5.460060E+2	9.389438E-1	9.897257E-1	9.283810E-1	9.396564E-1	1.005025E+0	9.617834E-1	9.319059E-1	9.308849E-1	9.142945E-1	9.637828E-1	9.192573E-1	8.958621E-1	9.055335E-1	8.933825E-1	9.321898E-1	9.515695E-1	9.045717E-1	9.076016E-1	9.255226E-1	9.493618E-1	9.623896E-1	9.607564E-1	9.098394E-1	9.245259E-1	9.687249E-1	9.937507E-1	9.486575E-1	9.549116E-1	8.890835E-1	8.935336E-1	9.217772E-1	9.264307E-1	9.876958E-1	9.323888E-1	9.308085E-1	9.761468E-1	9.292109E-1	9.879572E-1	9.208786E-1	9.285952E-1	9.998833E-1	9.217185E-1	8.965152E-1	9.530938E-1	9.072766E-1	9.626661E-1	9.005820E-1	9.377096E-1	9.520373E-1	8.914286E-1	9.084770E-1	9.236933E-1	9.250963E-1	9.681845E-1	8.976790E-1	9.475508E-1	9.401981E-1	9.572324E-1	9.512017E-1	9.801430E-1	9.042239E-1	9.838035E-1	9.382076E-1	9.135625E-1	9.570464E-1	9.390069E-1	9.355186E-1	9.678788E-1	1.008862E+0	9.510930E-1	9.796301E-1	9.825976E-1	9.439702E-1	9.295198E-1	9.578930E-1	9.534643E-1	9.170213E-1	9.576350E-1	9.587428E-1	1.051818E+0	9.066601E-1	9.710888E-1	9.907220E-1	9.179122E-1	9.848571E-1	9.511561E-1	9.744023E-1	8.896512E-1	9.223448E-1	9.669706E-1	9.291344E-1	9.845502E-1	9.424184E-1	9.781839E-1	9.260705E-1	9.022558E-1	9.585219E-1	9.329984E-1	9.181003E-1	9.161268E-1	9.291246E-1	9.559421E-1	9.057595E-1	9.760220E-1	9.056270E-1	9.175645E-1	9.384773E-1	9.434547E-1	9.293078E-1	9.820818E-1	9.835485E-1	9.606748E-1	9.849166E-1	9.446735E-1	1.002205E+0	8.916247E-1	9.344899E-1	9.307200E-1	8.993805E-1	9.758517E-1	9.496513E-1	9.082651E-1	9.460979E-1	9.129460E-1	9.420333E-1	9.857468E-1	9.501478E-1	9.722013E-1	9.514608E-1	9.337514E-1	9.499931E-1	9.409688E-1	9.467313E-1	9.254052E-1	9.136499E-1	9.492256E-1	9.746176E-1	9.216172E-1	8.790172E-1	9.461091E-1	9.812168E-1	9.179338E-1	9.814314E-1	1.048327E+0	9.150383E-1	9.131752E-1	9.262018E-1	9.435074E-1	9.760877E-1	9.743976E-1	9.189213E-1	1.009992E+0	9.368788E-1	8.981702E-1	9.582482E-1	9.851449E-1	9.263832E-1	9.225513E-1	1.043979E+0	9.893921E-1	9.102072E-1	9.166385E-1	9.947300E-1	9.481300E-1
5.465380E+2	9.045892E-1	9.227473E-1	8.588250E-1	9.575486E-1	9.183779E-1	9.150007E-1	8.204764E-1	8.848549E-1	9.030704E-1	9.287885E-1	8.868867E-1	9.252517E-1	8.956616E-1	8.772178E-1	8.977646E-1	8.706725E-1	9.112235E-1	8.730399E-1	9.018682E-1	8.670069E-1	8.598104E-1	9.072335E-1	9.261499E-1	8.982464E-1	8.957626E-1	9.109660E-1	9.302897E-1	9.070761E-1	8.632602E-1	8.632688E-1	9.118214E-1	8.878365E-1	8.552973E-1	9.425107E-1	9.009191E-1	9.755861E-1	9.087474E-1	8.711934E-1	8.615657E-1	8.792633E-1	9.269146E-1	9.002167E-1	8.608097E-1	8.766756E-1	9.277709E-1	9.254807E-1	8.909453E-1	8.940605E-1	8.916638E-1	8.442339E-1	9.068133E-1	9.511740E-1	9.019892E-1	9.230432E-1	9.675001E-1	8.326258E-1	9.496207E-1	8.478493E-1	9.068333E-1	9.115161E-1	8.709719E-1	8.978448E-1	9.169208E-1	9.093574E-1	8.841700E-1	8.833940E-1	9.246028E-1	8.852600E-1	9.252933E-1	8.497176E-1	8.632182E-1	9.086895E-1	9.458777E-1	9.170091E-1	9.222369E-1	9.288604E-1	9.245946E-1	9.268911E-1	8.959433E-1	9.573598E-1	8.962583E-1	9.002155E-1	8.609607E-1	8.875047E-1	9.047970E-1	8.644813E-1	8.979272E-1	9.212385E-1	8.807364E-1	9.084246E-1	9.213001E-1	9.399648E-1	8.863755E-1	9.192893E-1	8.929007E-1	8.937546E-1	8.993923E-1	8.605223E-1	8.984662E-1	9.106020E-1	8.886989E-1	9.112722E-1	9.406902E-1	8.497864E-1	8.850102E-1	9.162076E-1	8.588296E-1	8.752808E-1	9.106188E-1	9.198228E-1	8.871579E-1	8.954690E-1	8.982130E-1	8.800790E-1	9.378812E-1	9.287705E-1	8.801523E-1	8.415893E-1	8.967720E-1	9.270562E-1	9.069705E-1	9.020630E-1	8.960616E-1	9.291370E-1	9.264683E-1	8.620551E-1	9.371385E-1	9.020213E-1	8.818198E-1	8.432757E-1	9.363428E-1	8.981653E-1	8.331938E-1	8.899791E-1	8.761548E-1	9.292817E-1	9.214982E-1	8.651259E-1	8.709821E-1	8.781961E-1	9.545212E-1	8.661272E-1	9.264328E-1	9.584061E-1	8.373071E-1	8.854468E-1	8.635356E-1	9.213129E-1	9.000309E-1	9.067958E-1	8.861834E-1	8.949908E-1	8.644616E-1	9.363731E-1	8.935106E-1	8.830503E-1	9.245185E-1	8.576040E-1	8.563822E-1	8.945546E-1	8.904744E-1	8.449792E-1	8.887926E-1	8.992500E-1
5.470110E+2	8.766101E-1	9.238583E-1	8.750407E-1	9.006272E-1	8.861011E-1	8.687582E-1	8.735607E-1	8.821841E-1	8.921948E-1	8.547675E-1	8.973675E-1	9.244714E-1	9.173954E-1	8.514554E-1	8.823431E-1	8.970093E-1	8.833514E-1	8.781808E-1	9.261080E-1	9.072175E-1	8.935636E-1	9.071659E-1	8.476347E-1	8.851991E-1	8.884863E-1	8.907136E-1	8.981179E-1	8.937190E-1	8.613742E-1	8.069939E-1	9.027445E-1	8.977775E-1	8.274275E-1	9.521641E-1	8.852291E-1	9.160289E-1	8.614093E-1	8.709360E-1	9.290821E-1	8.897877E-1	9.079177E-1	8.835531E-1	8.890273E-1	8.450551E-1	9.520819E-1	9.002085E-1	8.976333E-1	8.958215E-1	8.755493E-1	8.339993E-1	8.591143E-1	9.112279E-1	8.939925E-1	9.002937E-1	8.790252E-1	9.119468E-1	9.111969E-1	8.929116E-1	8.875919E-1	8.763839E-1	9.025248E-1	8.941439E-1	8.846680E-1	9.401063E-1	8.491842E-1	9.225064E-1	8.689647E-1	8.280530E-1	9.561958E-1	8.881882E-1	9.255134E-1	9.511079E-1	9.453875E-1	9.425136E-1	8.550316E-1	8.972113E-1	9.075190E-1	8.899546E-1	9.329767E-1	8.768244E-1	8.719667E-1	8.805586E-1	9.043930E-1	8.764634E-1	8.638429E-1	8.917732E-1	9.005631E-1	9.176542E-1	9.034088E-1	8.689628E-1	8.221633E-1	8.977475E-1	8.845362E-1	8.636586E-1	9.258805E-1	8.720172E-1	9.094749E-1	8.706009E-1	8.967330E-1	8.741816E-1	8.893453E-1	8.939275E-1	9.302798E-1	8.901727E-1	9.101281E-1	8.792836E-1	8.929285E-1	8.429694E-1	9.400352E-1	9.334389E-1	9.037756E-1	8.728967E-1	8.941714E-1	8.939120E-1	8.526475E-1	9.155452E-1	8.911190E-1	8.558556E-1	9.143572E-1	9.269300E-1	9.399727E-1	8.947281E-1	8.927548E-1	8.688588E-1	9.113738E-1	8.747815E-1	8.976875E-1	8.670252E-1	8.778944E-1	9.148520E-1	9.024483E-1	8.601931E-1	9.124664E-1	8.252879E-1	8.434457E-1	8.757899E-1	9.288982E-1	8.439010E-1	8.689609E-1	8.633428E-1	9.280283E-1	9.004513E-1	9.100582E-1	9.307751E-1	8.302318E-1	8.630021E-1	8.928482E-1	9.510857E-1	8.673838E-1	8.429559E-1	9.046293E-1	8.459852E-1	8.738117E-1	8.630979E-1	9.090773E-1	9.299640E-1	9.436243E-1	8.752060E-1	9.043596E-1	8.522934E-1	9.128338E-1	9.025273E-1	8.716755E-1	8.146285E-1
5.475070E+2	9.402872E-1	9.861033E-1	9.823917E-1	8.914149E-1	9.193634E-1	9.171579E-1	9.294631E-1	9.129264E-1	1.012813E+0	9.591268E-1	9.702018E-1	9.259604E-1	9.324490E-1	9.444217E-1	9.773757E-1	9.670649E-1	8.863749E-1	9.308182E-1	9.494788E-1	9.910237E-1	9.239254E-1	9.712182E-1	9.198720E-1	1.005568E+0	9.700186E-1	9.637840E-1	9.244835E-1	9.314958E-1	9.289801E-1	9.234386E-1	9.432457E-1	9.174582E-1	9.154757E-1	9.950724E-1	8.972653E-1	1.004776E+0	9.422951E-1	9.350160E-1	9.168955E-1	9.463015E-1	9.301577E-1	9.218648E-1	9.559203E-1	9.378186E-1	9.692708E-1	9.654371E-1	9.655522E-1	9.762417E-1	8.933619E-1	9.019286E-1	9.437217E-1	9.471921E-1	9.028597E-1	9.186457E-1	9.551190E-1	9.273547E-1	9.541546E-1	9.758697E-1	9.875518E-1	9.388191E-1	9.476680E-1	9.897117E-1	9.665095E-1	9.552388E-1	9.398545E-1	9.386859E-1	9.184769E-1	9.503746E-1	9.833594E-1	9.347350E-1	9.795047E-1	9.708538E-1	1.015893E+0	9.981441E-1	9.802072E-1	9.947792E-1	9.595143E-1	9.299750E-1	9.719542E-1	9.903748E-1	9.675693E-1	9.797254E-1	9.282989E-1	9.184936E-1	9.413956E-1	9.384850E-1	9.473093E-1	9.346445E-1	9.553822E-1	9.485535E-1	9.193545E-1	1.012042E+0	9.646642E-1	1.011097E+0	9.422955E-1	1.036833E+0	9.483470E-1	9.222685E-1	9.860259E-1	8.857607E-1	9.179909E-1	9.805956E-1	9.457851E-1	9.859929E-1	9.460521E-1	9.597480E-1	9.716004E-1	9.493107E-1	9.718144E-1	9.139019E-1	1.006061E+0	9.860838E-1	9.611630E-1	9.685723E-1	9.035778E-1	9.085231E-1	9.502131E-1	9.213508E-1	9.494169E-1	9.684482E-1	9.272377E-1	9.273652E-1	9.158155E-1	9.239191E-1	9.756787E-1	9.765964E-1	1.006042E+0	9.308042E-1	9.555964E-1	9.502665E-1	9.574117E-1	9.609271E-1	9.313275E-1	9.592049E-1	8.672568E-1	9.155961E-1	9.263201E-1	9.401629E-1	9.374061E-1	9.436551E-1	9.654052E-1	9.424458E-1	9.964626E-1	9.904156E-1	9.801252E-1	1.017581E+0	9.334652E-1	1.018623E+0	9.851416E-1	9.653858E-1	9.732136E-1	9.569621E-1	9.371844E-1	9.385960E-1	9.515000E-1	9.155684E-1	9.846923E-1	9.229879E-1	9.345651E-1	9.733969E-1	9.280869E-1	9.447173E-1	9.459626E-1	9.499834E-1
5.480090E+2	9.985882E-1	1.039205E+0	9.725560E-1	1.080018E+0	1.043573E+0	1.042693E+0	1.003184E+0	9.447174E-1	1.034741E+0	1.037298E+0	9.908976E-1	9.952914E-1	9.801440E-1	9.730519E-1	9.956732E-1	1.009406E+0	1.023087E+0	1.014982E+0	9.950027E-1	1.034907E+0	1.036407E+0	1.027215E+0	1.040693E+0	9.868530E-1	1.086529E+0	1.037866E+0	9.811821E-1	1.038745E+0	9.754495E-1	1.011101E+0	1.041025E+0	1.033289E+0	1.005849E+0	1.024073E+0	1.005669E+0	1.024043E+0	9.861492E-1	9.996586E-1	1.033464E+0	9.809260E-1	9.922791E-1	9.931110E-1	9.798136E-1	1.015416E+0	1.016382E+0	1.018129E+0	1.041933E+0	9.755214E-1	9.610608E-1	9.171912E-1	1.061892E+0	9.897053E-1	9.574824E-1	1.029618E+0	1.019571E+0	1.024692E+0	9.893823E-1	1.004345E+0	1.060567E+0	1.023723E+0	1.011724E+0	9.608992E-1	1.056121E+0	1.006725E+0	1.042292E+0	1.078566E+0	1.001485E+0	1.058166E+0	1.044457E+0	9.781587E-1	1.016664E+0	1.007906E+0	1.011119E+0	9.898981E-1	1.043221E+0	1.048574E+0	9.687667E-1	9.999439E-1	1.024829E+0	1.015835E+0	1.018593E+0	1.034355E+0	1.065295E+0	9.692928E-1	1.003572E+0	1.029491E+0	1.018273E+0	9.754701E-1	1.049049E+0	1.060574E+0	1.005065E+0	1.056494E+0	9.792127E-1	9.767338E-1	1.040984E+0	1.062432E+0	1.029415E+0	1.020277E+0	1.005199E+0	1.005212E+0	9.403117E-1	9.894098E-1	1.005004E+0	1.066402E+0	1.018230E+0	9.753899E-1	1.042181E+0	1.043830E+0	1.005720E+0	9.780520E-1	1.096984E+0	1.065355E+0	1.022518E+0	1.012793E+0	9.821676E-1	1.017979E+0	9.755619E-1	9.863362E-1	1.071950E+0	1.041502E+0	1.003187E+0	1.014855E+0	9.868082E-1	1.031280E+0	1.014564E+0	9.796401E-1	9.890654E-1	9.744878E-1	1.029766E+0	1.004978E+0	9.903143E-1	1.094741E+0	1.061979E+0	9.729595E-1	1.005350E+0	1.011285E+0	1.019348E+0	1.036301E+0	9.758357E-1	1.037464E+0	1.019948E+0	1.002271E+0	1.063008E+0	1.012509E+0	1.012334E+0	1.035792E+0	9.554554E-1	1.023645E+0	1.020583E+0	9.999704E-1	9.593498E-1	9.803491E-1	9.775053E-1	9.478698E-1	1.007282E+0	1.066999E+0	1.073213E+0	9.707066E-1	1.003337E+0	1.013260E+0	9.369276E-1	1.077745E+0	1.014917E+0	1.083974E+0
5.485450E+2	1.188804E+0	1.188884E+0	1.177093E+0	1.222134E+0	1.177860E+0	1.227588E+0	1.133852E+0	1.191204E+0	1.253920E+0	1.170136E+0	1.182793E+0	1.197815E+0	1.200183E+0	1.188305E+0	1.238261E+0	1.173201E+0	1.196301E+0	1.176183E+0	1.188831E+0	1.188863E+0	1.272010E+0	1.175005E+0	1.237230E+0	1.181025E+0	1.170789E+0	1.181601E+0	1.254255E+0	1.243455E+0	1.164138E+0	1.193607E+0	1.250659E+0	1.196186E+0	1.148427E+0	1.250418E+0	1.183973E+0	1.220424E+0	1.231535E+0	1.255265E+0	1.143698E+0	1.243942E+0	1.143534E+0	1.155561E+0	1.192472E+0	1.166130E+0	1.239644E+0	1.223845E+0	1.242220E+0	1.275549E+0	1.193571E+0	1.142534E+0	1.196189E+0	1.153361E+0	1.149729E+0	1.206481E+0	1.260701E+0	1.226941E+0	1.297207E+0	1.221324E+0	1.222776E+0	1.178740E+0	1.163546E+0	1.175445E+0	1.175649E+0	1.231904E+0	1.144407E+0	1.154560E+0	1.185689E+0	1.246841E+0	1.251330E+0	1.144110E+0	1.240532E+0	1.173131E+0	1.176305E+0	1.167633E+0	1.242237E+0	1.194182E+0	1.193144E+0	1.222467E+0	1.184693E+0	1.225297E+0	1.177598E+0	1.217402E+0	1.208602E+0	1.176215E+0	1.209610E+0	1.176405E+0	1.161648E+0	1.181353E+0	1.240057E+0	1.198188E+0	1.237273E+0	1.222281E+0	1.224667E+0	1.193149E+0	1.181771E+0	1.198345E+0	1.163613E+0	1.201030E+0	1.224506E+0	1.229059E+0	1.186047E+0	1.181413E+0	1.199248E+0	1.153438E+0	1.201959E+0	1.135057E+0	1.150142E+0	1.180269E+0	1.155027E+0	1.219334E+0	1.239140E+0	1.222300E+0	1.203166E+0	1.150664E+0	1.203596E+0	1.210634E+0	1.203647E+0	1.187100E+0	1.225468E+0	1.213957E+0	1.234797E+0	1.117046E+0	1.173701E+0	1.129515E+0	1.226347E+0	1.201764E+0	1.146407E+0	1.233456E+0	1.192137E+0	1.153404E+0	1.244710E+0	1.197914E+0	1.166567E+0	1.208557E+0	1.193154E+0	1.223253E+0	1.179742E+0	1.172703E+0	1.188403E+0	1.125856E+0	1.231770E+0	1.159302E+0	1.169860E+0	1.262268E+0	1.176923E+0	1.246757E+0	1.187107E+0	1.149637E+0	1.192824E+0	1.218656E+0	1.203025E+0	1.232864E+0	1.166608E+0	1.157418E+0	1.174220E+0	1.246351E+0	1.244218E+0	1.166020E+0	1.194602E+0	1.226609E+0	1.209502E+0	1.143339E+0	1.233079E+0	1.272331E+0
5.490490E+2	1.518735E+0	1.510939E+0	1.460363E+0	1.417874E+0	1.563778E+0	1.512447E+0	1.498686E+0	1.416770E+0	1.465881E+0	1.520859E+0	1.486146E+0	1.469573E+0	1.448482E+0	1.432259E+0	1.550603E+0	1.477168E+0	1.533622E+0	1.506352E+0	1.474582E+0	1.487731E+0	1.507130E+0	1.468816E+0	1.470181E+0	1.498007E+0	1.531065E+0	1.487588E+0	1.482697E+0	1.471001E+0	1.431329E+0	1.455822E+0	1.498079E+0	1.453106E+0	1.499563E+0	1.532227E+0	1.509840E+0	1.503076E+0	1.475504E+0	1.535079E+0	1.432378E+0	1.462741E+0	1.539494E+0	1.425658E+0	1.503084E+0	1.506899E+0	1.550872E+0	1.517203E+0	1.474144E+0	1.471029E+0	1.448990E+0	1.418548E+0	1.505143E+0	1.502630E+0	1.519955E+0	1.463174E+0	1.493180E+0	1.505828E+0	1.393606E+0	1.449110E+0	1.500736E+0	1.461818E+0	1.489183E+0	1.499547E+0	1.493320E+0	1.488971E+0	1.488232E+0	1.509950E+0	1.468458E+0	1.448272E+0	1.457373E+0	1.448283E+0	1.529521E+0	1.460895E+0	1.444773E+0	1.485371E+0	1.432422E+0	1.524655E+0	1.534173E+0	1.496170E+0	1.556017E+0	1.518253E+0	1.442590E+0	1.471843E+0	1.463905E+0	1.445523E+0	1.495345E+0	1.388135E+0	1.502850E+0	1.516075E+0	1.427507E+0	1.464070E+0	1.410748E+0	1.481652E+0	1.437928E+0	1.387569E+0	1.450675E+0	1.452044E+0	1.514987E+0	1.402703E+0	1.444704E+0	1.431235E+0	1.435236E+0	1.446000E+0	1.424017E+0	1.485654E+0	1.500191E+0	1.436613E+0	1.490992E+0	1.470176E+0	1.500034E+0	1.510660E+0	1.443361E+0	1.470256E+0	1.523909E+0	1.422671E+0	1.456759E+0	1.522808E+0	1.488974E+0	1.447899E+0	1.447047E+0	1.489720E+0	1.466914E+0	1.432125E+0	1.486967E+0	1.502615E+0	1.471840E+0	1.440781E+0	1.476966E+0	1.462939E+0	1.458977E+0	1.521231E+0	1.542406E+0	1.447260E+0	1.507076E+0	1.454187E+0	1.436810E+0	1.424765E+0	1.444125E+0	1.408378E+0	1.429342E+0	1.462759E+0	1.567270E+0	1.391117E+0	1.455098E+0	1.596479E+0	1.435098E+0	1.442291E+0	1.427438E+0	1.498821E+0	1.512813E+0	1.509214E+0	1.436426E+0	1.539635E+0	1.439184E+0	1.425891E+0	1.452703E+0	1.407715E+0	1.487389E+0	1.418750E+0	1.464610E+0	1.528794E+0	1.421748E+0	1.404219E+0	1.420369E+0	1.548165E+0
5.495150E+2	1.695953E+0	1.721095E+0	1.613517E+0	1.714882E+0	1.727973E+0	1.799805E+0	1.662668E+0	1.699311E+0	1.771036E+0	1.617311E+0	1.644697E+0	1.686239E+0	1.709977E+0	1.715689E+0	1.681024E+0	1.646537E+0	1.675623E+0	1.679536E+0	1.689718E+0	1.655539E+0	1.640310E+0	1.669335E+0	1.672869E+0	1.648655E+0	1.654750E+0	1.672673E+0	1.678403E+0	1.653966E+0	1.671182E+0	1.683581E+0	1.700158E+0	1.679071E+0	1.571075E+0	1.756466E+0	1.704723E+0	1.630445E+0	1.680248E+0	1.715042E+0	1.577648E+0	1.687371E+0	1.660086E+0	1.660204E+0	1.704087E+0	1.716490E+0	1.787841E+0	1.658278E+0	1.624718E+0	1.653024E+0	1.636663E+0	1.573862E+0	1.574156E+0	1.694770E+0	1.642959E+0	1.676233E+0	1.668899E+0	1.671616E+0	1.732265E+0	1.692429E+0	1.649086E+0	1.653224E+0	1.619347E+0	1.667894E+0	1.651268E+0	1.708931E+0	1.648186E+0	1.687507E+0	1.708245E+0	1.659408E+0	1.689458E+0	1.567590E+0	1.657612E+0	1.707317E+0	1.634641E+0	1.634333E+0	1.710232E+0	1.679146E+0	1.664279E+0	1.666764E+0	1.758857E+0	1.703404E+0	1.596266E+0	1.652137E+0	1.681889E+0	1.609159E+0	1.646784E+0	1.631392E+0	1.681625E+0	1.654881E+0	1.791064E+0	1.635934E+0	1.663095E+0	1.701416E+0	1.672157E+0	1.659644E+0	1.613456E+0	1.680372E+0	1.707556E+0	1.676411E+0	1.716787E+0	1.601945E+0	1.671722E+0	1.653900E+0	1.626932E+0	1.688813E+0	1.697777E+0	1.624213E+0	1.625003E+0	1.645716E+0	1.671589E+0	1.664189E+0	1.659548E+0	1.684572E+0	1.704972E+0	1.632745E+0	1.683661E+0	1.691712E+0	1.706807E+0	1.565079E+0	1.639945E+0	1.708527E+0	1.705476E+0	1.640196E+0	1.689094E+0	1.712811E+0	1.687396E+0	1.662563E+0	1.637965E+0	1.614077E+0	1.722769E+0	1.651913E+0	1.677916E+0	1.654688E+0	1.650563E+0	1.590235E+0	1.583402E+0	1.634069E+0	1.690831E+0	1.638575E+0	1.591270E+0	1.591650E+0	1.724507E+0	1.606239E+0	1.705192E+0	1.705179E+0	1.610342E+0	1.685828E+0	1.604836E+0	1.655849E+0	1.676820E+0	1.698721E+0	1.590841E+0	1.693072E+0	1.616614E+0	1.616930E+0	1.657887E+0	1.709716E+0	1.724044E+0	1.682440E+0	1.641296E+0	1.603891E+0	1.633450E+0	1.707016E+0	1.705574E+0	1.704642E+0
5.500160E+2	1.559948E+0	1.425548E+0	1.404042E+0	1.494123E+0	1.495129E+0	1.508841E+0	1.522868E+0	1.520667E+0	1.556676E+0	1.449968E+0	1.431201E+0	1.468366E+0	1.523099E+0	1.450117E+0	1.546993E+0	1.461192E+0	1.450176E+0	1.446201E+0	1.492073E+0	1.557998E+0	1.494748E+0	1.459802E+0	1.501612E+0	1.502252E+0	1.519580E+0	1.507897E+0	1.487976E+0	1.521862E+0	1.521883E+0	1.469223E+0	1.524194E+0	1.518157E+0	1.472696E+0	1.538345E+0	1.484123E+0	1.467137E+0	1.538935E+0	1.532230E+0	1.471301E+0	1.413175E+0	1.480725E+0	1.450770E+0	1.564309E+0	1.487789E+0	1.528001E+0	1.531280E+0	1.515177E+0	1.508403E+0	1.456886E+0	1.412340E+0	1.482099E+0	1.474183E+0	1.439385E+0	1.478867E+0	1.521806E+0	1.532094E+0	1.525802E+0	1.556347E+0	1.486298E+0	1.521779E+0	1.502361E+0	1.481871E+0	1.469398E+0	1.470656E+0	1.515982E+0	1.529936E+0	1.498057E+0	1.471661E+0	1.609387E+0	1.411432E+0	1.511730E+0	1.539821E+0	1.519723E+0	1.496078E+0	1.486458E+0	1.531692E+0	1.583219E+0	1.496211E+0	1.551580E+0	1.588509E+0	1.517125E+0	1.502941E+0	1.450444E+0	1.476376E+0	1.516116E+0	1.425781E+0	1.501738E+0	1.443984E+0	1.540640E+0	1.521953E+0	1.522334E+0	1.614026E+0	1.476566E+0	1.444728E+0	1.490195E+0	1.469336E+0	1.506479E+0	1.442437E+0	1.488497E+0	1.477358E+0	1.502193E+0	1.556228E+0	1.484235E+0	1.509012E+0	1.536773E+0	1.494144E+0	1.450415E+0	1.446420E+0	1.484427E+0	1.495255E+0	1.448183E+0	1.506107E+0	1.478745E+0	1.435847E+0	1.412483E+0	1.482906E+0	1.519641E+0	1.391917E+0	1.462623E+0	1.624509E+0	1.535492E+0	1.472657E+0	1.413047E+0	1.476450E+0	1.480962E+0	1.443660E+0	1.560128E+0	1.430783E+0	1.416199E+0	1.492035E+0	1.523346E+0	1.435079E+0	1.479563E+0	1.530488E+0	1.446216E+0	1.473989E+0	1.504420E+0	1.544339E+0	1.409691E+0	1.492654E+0	1.505650E+0	1.442253E+0	1.466028E+0	1.479778E+0	1.436942E+0	1.492465E+0	1.504543E+0	1.471440E+0	1.473264E+0	1.512588E+0	1.514472E+0	1.462511E+0	1.471128E+0	1.530934E+0	1.443771E+0	1.455371E+0	1.560637E+0	1.439040E+0	1.515310E+0	1.476163E+0	1.464938E+0	1.509072E+0	1.482007E+0	1.448440E+0
5.505060E+2	1.527885E+0	1.529704E+0	1.437367E+0	1.560559E+0	1.487022E+0	1.493852E+0	1.504533E+0	1.435496E+0	1.452756E+0	1.540414E+0	1.477191E+0	1.494845E+0	1.474167E+0	1.436864E+0	1.517410E+0	1.536021E+0	1.455516E+0	1.541838E+0	1.515667E+0	1.438167E+0	1.467768E+0	1.543751E+0	1.478092E+0	1.500538E+0	1.494724E+0	1.466029E+0	1.503566E+0	1.386213E+0	1.466307E+0	1.435026E+0	1.486403E+0	1.434060E+0	1.432326E+0	1.404201E+0	1.435443E+0	1.471193E+0	1.450446E+0	1.504758E+0	1.461555E+0	1.448475E+0	1.446578E+0	1.505519E+0	1.482122E+0	1.467104E+0	1.535801E+0	1.495753E+0	1.464700E+0	1.453605E+0	1.466647E+0	1.426339E+0	1.440882E+0	1.509564E+0	1.410148E+0	1.476418E+0	1.464930E+0	1.518108E+0	1.571823E+0	1.429299E+0	1.483568E+0	1.471061E+0	1.482097E+0	1.467091E+0	1.468399E+0	1.498587E+0	1.506840E+0	1.479994E+0	1.467055E+0	1.460554E+0	1.604391E+0	1.493959E+0	1.464593E+0	1.523743E+0	1.524297E+0	1.430289E+0	1.480799E+0	1.460421E+0	1.561361E+0	1.441074E+0	1.493365E+0	1.450172E+0	1.488301E+0	1.469680E+0	1.500027E+0	1.427584E+0	1.490292E+0	1.515877E+0	1.465821E+0	1.517595E+0	1.522626E+0	1.464132E+0	1.451145E+0	1.486390E+0	1.458091E+0	1.438274E+0	1.502120E+0	1.469380E+0	1.447358E+0	1.426651E+0	1.508275E+0	1.519377E+0	1.383270E+0	1.521874E+0	1.407808E+0	1.494372E+0	1.497133E+0	1.518442E+0	1.438040E+0	1.504074E+0	1.500829E+0	1.468677E+0	1.477479E+0	1.525024E+0	1.439548E+0	1.504224E+0	1.425861E+0	1.455942E+0	1.447676E+0	1.453921E+0	1.500267E+0	1.464158E+0	1.555125E+0	1.458094E+0	1.471407E+0	1.463683E+0	1.508223E+0	1.477208E+0	1.418585E+0	1.381902E+0	1.466090E+0	1.479787E+0	1.481112E+0	1.477106E+0	1.514617E+0	1.446899E+0	1.408857E+0	1.493879E+0	1.446377E+0	1.449317E+0	1.407131E+0	1.434212E+0	1.486335E+0	1.435455E+0	1.466383E+0	1.540598E+0	1.494811E+0	1.484917E+0	1.473000E+0	1.393165E+0	1.445243E+0	1.461927E+0	1.502051E+0	1.405716E+0	1.449072E+0	1.432750E+0	1.461545E+0	1.435825E+0	1.461310E+0	1.464336E+0	1.549708E+0	1.477064E+0	1.499929E+0	1.488233E+0	1.509396E+0	1.498783E+0
5.510140E+2	1.223777E+0	1.183658E+0	1.139565E+0	1.199746E+0	1.247019E+0	1.158610E+0	1.225540E+0	1.198165E+0	1.221953E+0	1.166306E+0	1.201558E+0	1.190175E+0	1.262432E+0	1.213762E+0	1.222627E+0	1.214723E+0	1.223256E+0	1.203124E+0	1.187654E+0	1.198438E+0	1.214570E+0	1.192099E+0	1.190073E+0	1.190842E+0	1.209808E+0	1.238647E+0	1.175815E+0	1.232274E+0	1.179353E+0	1.164967E+0	1.200148E+0	1.176956E+0	1.174071E+0	1.228444E+0	1.179222E+0	1.173861E+0	1.217032E+0	1.223916E+0	1.239142E+0	1.218733E+0	1.211470E+0	1.158129E+0	1.203968E+0	1.212723E+0	1.209107E+0	1.208228E+0	1.229357E+0	1.154091E+0	1.139647E+0	1.168399E+0	1.214893E+0	1.165177E+0	1.199399E+0	1.172087E+0	1.198606E+0	1.196241E+0	1.227176E+0	1.109128E+0	1.261127E+0	1.166356E+0	1.199110E+0	1.209871E+0	1.196147E+0	1.161623E+0	1.207219E+0	1.180005E+0	1.213768E+0	1.199700E+0	1.226774E+0	1.170710E+0	1.214214E+0	1.189700E+0	1.255361E+0	1.152763E+0	1.226646E+0	1.273961E+0	1.199314E+0	1.172535E+0	1.230806E+0	1.290348E+0	1.176803E+0	1.157362E+0	1.171515E+0	1.111960E+0	1.186908E+0	1.164495E+0	1.289183E+0	1.171345E+0	1.255629E+0	1.189204E+0	1.169157E+0	1.169953E+0	1.166790E+0	1.229117E+0	1.239966E+0	1.223478E+0	1.216048E+0	1.175589E+0	1.222412E+0	1.175260E+0	1.275860E+0	1.236223E+0	1.193933E+0	1.169727E+0	1.260831E+0	1.129096E+0	1.211747E+0	1.145183E+0	1.201006E+0	1.144176E+0	1.258972E+0	1.182218E+0	1.250644E+0	1.217682E+0	1.258777E+0	1.191784E+0	1.166196E+0	1.172415E+0	1.237108E+0	1.207735E+0	1.260836E+0	1.178563E+0	1.267393E+0	1.186038E+0	1.200481E+0	1.196521E+0	1.181974E+0	1.182319E+0	1.290236E+0	1.253189E+0	1.225039E+0	1.185456E+0	1.209210E+0	1.168939E+0	1.256540E+0	1.162541E+0	1.204347E+0	1.126871E+0	1.135178E+0	1.221466E+0	1.237195E+0	1.181843E+0	1.178699E+0	1.228065E+0	1.190358E+0	1.133164E+0	1.182569E+0	1.225402E+0	1.213200E+0	1.254157E+0	1.168552E+0	1.254160E+0	1.192544E+0	1.226476E+0	1.229854E+0	1.216427E+0	1.223787E+0	1.212522E+0	1.210330E+0	1.189227E+0	1.122886E+0	1.133916E+0	1.118461E+0	1.244600E+0
5.515000E+2	9.817162E-1	1.017939E+0	1.028377E+0	1.075896E+0	1.032779E+0	1.055252E+0	1.037250E+0	9.892783E-1	9.747170E-1	1.016723E+0	9.773028E-1	9.523165E-1	1.002471E+0	9.917117E-1	1.021852E+0	9.684892E-1	1.092213E+0	9.955904E-1	1.029287E+0	9.774366E-1	1.077851E+0	1.030407E+0	9.928226E-1	9.794409E-1	9.596169E-1	9.527343E-1	1.015551E+0	9.997960E-1	9.995052E-1	1.017695E+0	1.034693E+0	9.818539E-1	1.030595E+0	1.082042E+0	1.001993E+0	9.811539E-1	9.962705E-1	1.046321E+0	9.826883E-1	1.037477E+0	9.581659E-1	1.005013E+0	1.041850E+0	1.028359E+0	9.729881E-1	1.007620E+0	1.036085E+0	9.574203E-1	9.951586E-1	9.784108E-1	9.910384E-1	9.574192E-1	9.866483E-1	1.015934E+0	1.000892E+0	1.019570E+0	1.072680E+0	1.030911E+0	9.999653E-1	1.002896E+0	1.010654E+0	9.900520E-1	1.024916E+0	1.035458E+0	1.015312E+0	1.036715E+0	9.860381E-1	9.997154E-1	1.044367E+0	9.997682E-1	1.012634E+0	1.075043E+0	1.056926E+0	9.734334E-1	9.940978E-1	1.001556E+0	1.055851E+0	1.032339E+0	1.013342E+0	1.064654E+0	1.016838E+0	1.018945E+0	1.077577E+0	1.031197E+0	1.037237E+0	9.967180E-1	1.043938E+0	1.019559E+0	1.049509E+0	9.969238E-1	9.899677E-1	9.884593E-1	1.009698E+0	1.014277E+0	1.026503E+0	1.006932E+0	1.017204E+0	1.038253E+0	9.920375E-1	1.028491E+0	1.018513E+0	9.970510E-1	1.048564E+0	1.021512E+0	1.055027E+0	9.864873E-1	1.012972E+0	9.846014E-1	9.638698E-1	1.007543E+0	1.060289E+0	1.021779E+0	9.965869E-1	1.032475E+0	1.002318E+0	9.870308E-1	9.637239E-1	1.001911E+0	1.020188E+0	1.034160E+0	1.002214E+0	9.650371E-1	1.012386E+0	1.059997E+0	1.063830E+0	9.607842E-1	9.909989E-1	1.010181E+0	1.075172E+0	1.031012E+0	1.059109E+0	9.824219E-1	1.004068E+0	1.021847E+0	9.746237E-1	9.693201E-1	9.739504E-1	1.017787E+0	1.005659E+0	1.018338E+0	1.020631E+0	1.017734E+0	1.060598E+0	1.030326E+0	1.021144E+0	1.022598E+0	9.123339E-1	1.031035E+0	1.051634E+0	9.916496E-1	9.631065E-1	9.705242E-1	1.037671E+0	9.685990E-1	1.012848E+0	1.058024E+0	1.015709E+0	9.968005E-1	1.090163E+0	9.891669E-1	1.026944E+0	1.000654E+0	1.014715E+0	1.170005E+0
5.520100E+2	9.987870E-1	9.615579E-1	9.933658E-1	1.030588E+0	1.029364E+0	1.042594E+0	1.060466E+0	9.806641E-1	9.777454E-1	9.872938E-1	1.002064E+0	1.019344E+0	1.018363E+0	9.561832E-1	1.029716E+0	1.005701E+0	9.919549E-1	9.511888E-1	9.253005E-1	9.697508E-1	9.997219E-1	9.867999E-1	9.812028E-1	9.429093E-1	1.019588E+0	1.043682E+0	9.778276E-1	9.944324E-1	9.676647E-1	9.968183E-1	1.016611E+0	9.628003E-1	9.962456E-1	9.482406E-1	9.613362E-1	9.920736E-1	9.768166E-1	9.940258E-1	9.329758E-1	9.985424E-1	9.904035E-1	9.749404E-1	1.031492E+0	1.007722E+0	1.047038E+0	9.995759E-1	1.020645E+0	9.975272E-1	9.484607E-1	9.469072E-1	9.872352E-1	1.004221E+0	9.970390E-1	9.627599E-1	1.008320E+0	1.031851E+0	1.062946E+0	9.928757E-1	9.826465E-1	9.536936E-1	9.825491E-1	9.924267E-1	9.743490E-1	9.481271E-1	9.813377E-1	1.001623E+0	1.051651E+0	9.172109E-1	1.040181E+0	9.201390E-1	1.060329E+0	9.940269E-1	9.807707E-1	1.002316E+0	9.794166E-1	1.027286E+0	1.051472E+0	9.825073E-1	9.691552E-1	9.954781E-1	9.346638E-1	1.031459E+0	1.005448E+0	9.767121E-1	9.886567E-1	9.599220E-1	1.012439E+0	9.772249E-1	9.828453E-1	9.789762E-1	9.364951E-1	1.015017E+0	9.375889E-1	9.669774E-1	1.016547E+0	9.890644E-1	9.672768E-1	9.079896E-1	1.026326E+0	9.261252E-1	1.018782E+0	1.011749E+0	1.007349E+0	1.006340E+0	1.031557E+0	9.932428E-1	9.597504E-1	9.824231E-1	9.894946E-1	1.036069E+0	9.578619E-1	1.020806E+0	1.040340E+0	9.742119E-1	1.011640E+0	9.786394E-1	1.013066E+0	9.810080E-1	1.002143E+0	9.683160E-1	9.610799E-1	9.554799E-1	9.614698E-1	1.017204E+0	1.021246E+0	9.881447E-1	9.837505E-1	9.331911E-1	1.008456E+0	9.672886E-1	1.025609E+0	1.006736E+0	9.376478E-1	9.443589E-1	9.444097E-1	1.008801E+0	1.015964E+0	9.505815E-1	9.369620E-1	9.759997E-1	1.035120E+0	9.425126E-1	1.029226E+0	1.036403E+0	9.824489E-1	9.802687E-1	9.752135E-1	1.009278E+0	1.015539E+0	9.720876E-1	9.393849E-1	1.035653E+0	1.018568E+0	1.031110E+0	9.880691E-1	1.019692E+0	1.021806E+0	9.754585E-1	9.804361E-1	9.772479E-1	9.565377E-1	9.743233E-1	9.298988E-1	9.271890E-1
5.525090E+2	1.066677E+0	1.062036E+0	1.055644E+0	1.030363E+0	1.063660E+0	1.112294E+0	1.081995E+0	1.021626E+0	1.076277E+0	1.041638E+0	1.021512E+0	1.033480E+0	9.864050E-1	1.054602E+0	1.073503E+0	1.022335E+0	1.069346E+0	1.047563E+0	1.084528E+0	1.047408E+0	1.050847E+0	1.154245E+0	1.058347E+0	1.107354E+0	1.064776E+0	1.038099E+0	1.057214E+0	1.075121E+0	1.095297E+0	1.032219E+0	1.102764E+0	1.095470E+0	1.048500E+0	1.102503E+0	1.077156E+0	1.052844E+0	1.093944E+0	1.097637E+0	1.052032E+0	1.020747E+0	1.079511E+0	1.039538E+0	1.078272E+0	1.055877E+0	1.118777E+0	1.063745E+0	1.029519E+0	1.110813E+0	1.062139E+0	1.009259E+0	1.039367E+0	1.122444E+0	1.007810E+0	1.062034E+0	1.074589E+0	1.038126E+0	1.048314E+0	9.961306E-1	1.014378E+0	1.062373E+0	1.027772E+0	1.043339E+0	1.076843E+0	1.044404E+0	1.058135E+0	1.109787E+0	1.047068E+0	1.036242E+0	1.087883E+0	1.058200E+0	1.061451E+0	1.072491E+0	1.126852E+0	1.101721E+0	1.099774E+0	1.125215E+0	1.099452E+0	1.068363E+0	1.087375E+0	1.103449E+0	1.028113E+0	1.061687E+0	1.064171E+0	1.118336E+0	1.064451E+0	1.111937E+0	1.122591E+0	1.050064E+0	1.065772E+0	1.047324E+0	1.045709E+0	1.055935E+0	1.048580E+0	1.117838E+0	1.080648E+0	1.081665E+0	1.032323E+0	1.061546E+0	1.082288E+0	1.079620E+0	1.049068E+0	1.053303E+0	1.066565E+0	1.001474E+0	1.090516E+0	1.056348E+0	1.031888E+0	1.058377E+0	1.002541E+0	1.063994E+0	1.123634E+0	1.055347E+0	1.053213E+0	1.028584E+0	1.097484E+0	1.083004E+0	1.080709E+0	9.910157E-1	1.017514E+0	1.069471E+0	1.063353E+0	1.031223E+0	1.031270E+0	1.072763E+0	1.055742E+0	1.039612E+0	1.048018E+0	1.007786E+0	1.042558E+0	1.051517E+0	1.046236E+0	1.038187E+0	1.091410E+0	1.053871E+0	1.064502E+0	1.050674E+0	1.030877E+0	1.044793E+0	9.837851E-1	1.001428E+0	1.093575E+0	1.031853E+0	1.068128E+0	1.112247E+0	1.037515E+0	1.063453E+0	1.016909E+0	1.099243E+0	1.117191E+0	1.109016E+0	1.043174E+0	1.077653E+0	1.059868E+0	1.056762E+0	1.083691E+0	1.035551E+0	1.084755E+0	1.069254E+0	1.044604E+0	1.026868E+0	1.033180E+0	1.031252E+0	1.029090E+0	1.027016E+0
5.530150E+2	1.000004E+0	1.016556E+0	9.504199E-1	9.560956E-1	1.008578E+0	1.058397E+0	9.894136E-1	9.949488E-1	9.974477E-1	9.822192E-1	9.867239E-1	1.006403E+0	1.013929E+0	9.770598E-1	1.024167E+0	9.725430E-1	9.703039E-1	1.011727E+0	1.025438E+0	1.028408E+0	1.039877E+0	1.042916E+0	1.024266E+0	9.647273E-1	1.072360E+0	9.812683E-1	9.529104E-1	1.064799E+0	9.633927E-1	9.342500E-1	1.031807E+0	1.026933E+0	9.898573E-1	1.030016E+0	9.783066E-1	9.843006E-1	9.553805E-1	1.031225E+0	1.010095E+0	9.899005E-1	9.847303E-1	9.120055E-1	9.260077E-1	1.030923E+0	9.943761E-1	1.016496E+0	9.756649E-1	9.734072E-1	1.003821E+0	9.835401E-1	1.037790E+0	9.965787E-1	1.000488E+0	9.844073E-1	1.029783E+0	9.935544E-1	9.846807E-1	9.856231E-1	9.951770E-1	9.475761E-1	9.617582E-1	1.022405E+0	9.838637E-1	9.869416E-1	1.041280E+0	9.849505E-1	9.871470E-1	1.008659E+0	1.022117E+0	9.799430E-1	9.774414E-1	1.067079E+0	9.813268E-1	9.810177E-1	1.038020E+0	1.011675E+0	1.017625E+0	9.918915E-1	1.040555E+0	9.942851E-1	9.968108E-1	1.056959E+0	1.039177E+0	9.511454E-1	9.763317E-1	9.326571E-1	1.030164E+0	9.909455E-1	9.858938E-1	9.729681E-1	9.828693E-1	9.522560E-1	9.478960E-1	9.728200E-1	1.056437E+0	1.046159E+0	1.040632E+0	9.673697E-1	9.855028E-1	9.794688E-1	1.019081E+0	9.930037E-1	9.761863E-1	9.270878E-1	1.050884E+0	1.009947E+0	1.019024E+0	9.439071E-1	9.872197E-1	1.002974E+0	9.992128E-1	1.022619E+0	9.652813E-1	9.627502E-1	9.798829E-1	1.006846E+0	9.954801E-1	9.970018E-1	1.024189E+0	1.015068E+0	9.655687E-1	1.032630E+0	1.002237E+0	9.925574E-1	1.029531E+0	1.005031E+0	1.011519E+0	9.342827E-1	1.042975E+0	9.634293E-1	1.019481E+0	9.560651E-1	9.886895E-1	9.708615E-1	9.739214E-1	9.684360E-1	1.040367E+0	9.949579E-1	1.016046E+0	9.684749E-1	9.813486E-1	9.536683E-1	1.068955E+0	1.033268E+0	9.630516E-1	1.022763E+0	9.789102E-1	1.048003E+0	1.030282E+0	1.027912E+0	9.667212E-1	1.017771E+0	9.909830E-1	1.003929E+0	1.020165E+0	1.050130E+0	1.035971E+0	9.589807E-1	9.576124E-1	9.378129E-1	9.979643E-1	1.009135E+0	9.768264E-1	1.035083E+0
5.534770E+2	9.757914E-1	9.597074E-1	9.642324E-1	9.674103E-1	9.515404E-1	9.579681E-1	9.542140E-1	9.005725E-1	9.029125E-1	9.201102E-1	9.752797E-1	9.492347E-1	9.579091E-1	8.871265E-1	9.513722E-1	9.718787E-1	9.473219E-1	9.845245E-1	9.415277E-1	9.632504E-1	9.661000E-1	9.517730E-1	9.076211E-1	9.363831E-1	9.213731E-1	9.603054E-1	9.733806E-1	9.927918E-1	9.487351E-1	9.613274E-1	9.659694E-1	9.568794E-1	9.398736E-1	9.781843E-1	9.452191E-1	9.502328E-1	9.703188E-1	9.708962E-1	9.205468E-1	9.303619E-1	9.628395E-1	9.649696E-1	9.409905E-1	9.900712E-1	9.602487E-1	9.110644E-1	9.915400E-1	9.583876E-1	9.327459E-1	9.867290E-1	9.667569E-1	9.513883E-1	9.435326E-1	9.608400E-1	9.447169E-1	9.582278E-1	9.962449E-1	8.981000E-1	9.721055E-1	9.257114E-1	9.056352E-1	9.680023E-1	9.797032E-1	9.291913E-1	9.841186E-1	9.667727E-1	9.226795E-1	9.259059E-1	9.268078E-1	9.283487E-1	1.026227E+0	9.637185E-1	9.710868E-1	9.658691E-1	9.063882E-1	9.309721E-1	9.636925E-1	9.856255E-1	9.524642E-1	9.638881E-1	9.673996E-1	9.034885E-1	9.676062E-1	9.233013E-1	9.480274E-1	9.433269E-1	1.017960E+0	9.310880E-1	9.784595E-1	9.502256E-1	9.670255E-1	9.270691E-1	9.566320E-1	9.474202E-1	9.438390E-1	9.798523E-1	9.216936E-1	9.838945E-1	9.634025E-1	9.466089E-1	9.448391E-1	9.861998E-1	9.327673E-1	9.381673E-1	9.303412E-1	9.505364E-1	9.650898E-1	9.946032E-1	9.459432E-1	9.381768E-1	9.475975E-1	9.400220E-1	9.857874E-1	9.599341E-1	9.644123E-1	9.663319E-1	9.451426E-1	9.685644E-1	9.704117E-1	9.505360E-1	9.693542E-1	9.152974E-1	9.606119E-1	8.982177E-1	9.468282E-1	9.317651E-1	1.018873E+0	9.820157E-1	9.214108E-1	9.394773E-1	9.626678E-1	9.779867E-1	9.102297E-1	9.231552E-1	9.149282E-1	9.247809E-1	9.531943E-1	9.235164E-1	9.449510E-1	9.880529E-1	9.565054E-1	9.392237E-1	9.460699E-1	1.012204E+0	9.416623E-1	9.285008E-1	9.410612E-1	9.451364E-1	9.268140E-1	1.008804E+0	9.306694E-1	9.771277E-1	9.286358E-1	9.886912E-1	9.443872E-1	9.386241E-1	9.862346E-1	9.625587E-1	9.331805E-1	9.858493E-1	8.924468E-1	9.578205E-1	9.065531E-1	9.700336E-1
5.540290E+2	8.597205E-1	9.174259E-1	9.111340E-1	8.655412E-1	8.612277E-1	9.632896E-1	9.342205E-1	9.551705E-1	9.487721E-1	9.606648E-1	9.267083E-1	8.818901E-1	9.352067E-1	9.595110E-1	9.414085E-1	9.462306E-1	8.908894E-1	9.197086E-1	9.213922E-1	9.566686E-1	9.081606E-1	9.500706E-1	9.139921E-1	8.651166E-1	9.528068E-1	9.589706E-1	9.237926E-1	9.208782E-1	9.130137E-1	9.258182E-1	8.647990E-1	8.880321E-1	9.127381E-1	9.774336E-1	9.388168E-1	9.169516E-1	9.284059E-1	9.525797E-1	8.598233E-1	9.366189E-1	9.295721E-1	9.218902E-1	9.679749E-1	8.922618E-1	9.661761E-1	9.135910E-1	9.005774E-1	9.659926E-1	8.879141E-1	9.289007E-1	9.054400E-1	8.487478E-1	8.693493E-1	8.767687E-1	9.491886E-1	9.452283E-1	9.049315E-1	9.201226E-1	9.265997E-1	8.835345E-1	8.994560E-1	8.990383E-1	9.161328E-1	9.250613E-1	9.228964E-1	9.604487E-1	9.437111E-1	9.617709E-1	9.085653E-1	9.304344E-1	9.367897E-1	9.287349E-1	9.102854E-1	8.957019E-1	9.175768E-1	9.523274E-1	8.960088E-1	8.621177E-1	9.378717E-1	9.421124E-1	8.712490E-1	8.980239E-1	9.133648E-1	9.186331E-1	9.046010E-1	9.330492E-1	9.098202E-1	9.401499E-1	8.949703E-1	9.154901E-1	9.415845E-1	9.056201E-1	9.138317E-1	9.665060E-1	9.400289E-1	9.298524E-1	9.592267E-1	9.077015E-1	9.114332E-1	9.280774E-1	9.068254E-1	9.476663E-1	9.297205E-1	9.597452E-1	9.021835E-1	9.174430E-1	9.968299E-1	9.437359E-1	8.946346E-1	9.369445E-1	9.172754E-1	9.440489E-1	9.326299E-1	9.015942E-1	8.929942E-1	8.990109E-1	9.154145E-1	8.926372E-1	9.709665E-1	9.338909E-1	9.294918E-1	9.578018E-1	9.357622E-1	9.463274E-1	9.452204E-1	8.657409E-1	9.265865E-1	9.614528E-1	9.290588E-1	9.271129E-1	9.132024E-1	9.389310E-1	8.959774E-1	9.398348E-1	9.331294E-1	9.040153E-1	9.350641E-1	8.651916E-1	8.781992E-1	8.913317E-1	8.948314E-1	9.378833E-1	8.843742E-1	9.009877E-1	9.200538E-1	9.317713E-1	9.049763E-1	9.142044E-1	9.196124E-1	9.128308E-1	9.086550E-1	8.917329E-1	9.304215E-1	9.292567E-1	9.123446E-1	9.546364E-1	9.192180E-1	9.403120E-1	9.088817E-1	8.924139E-1	9.470877E-1	8.826777E-1	8.569542E-1	9.177000E-1
5.550140E+2	9.412445E-1	9.533858E-1	9.158395E-1	9.843757E-1	9.420426E-1	9.455610E-1	9.356332E-1	9.526924E-1	9.334005E-1	9.166387E-1	9.003483E-1	9.237753E-1	9.430440E-1	9.048849E-1	9.442757E-1	9.602371E-1	9.708666E-1	9.129834E-1	9.539444E-1	9.718739E-1	9.915314E-1	9.838780E-1	9.745462E-1	9.240302E-1	9.056709E-1	9.672901E-1	9.007090E-1	9.399161E-1	9.575256E-1	9.017182E-1	9.992446E-1	9.610768E-1	9.634936E-1	9.621137E-1	9.432187E-1	1.000103E+0	9.472009E-1	9.687478E-1	9.579645E-1	9.423582E-1	9.312909E-1	8.820884E-1	9.489776E-1	9.781273E-1	9.338932E-1	9.963391E-1	9.635895E-1	9.300045E-1	9.843341E-1	8.885778E-1	9.978193E-1	9.203855E-1	9.442260E-1	9.566537E-1	9.435575E-1	9.266262E-1	9.758743E-1	9.833261E-1	9.181774E-1	9.554255E-1	9.909448E-1	9.096380E-1	9.245875E-1	9.434809E-1	9.758731E-1	9.106532E-1	9.089487E-1	9.404022E-1	9.121762E-1	9.911288E-1	8.889761E-1	9.687491E-1	9.415469E-1	9.257630E-1	9.304448E-1	9.528628E-1	9.336767E-1	9.359818E-1	9.752367E-1	9.323959E-1	9.474745E-1	1.009609E+0	9.533287E-1	9.294127E-1	9.681871E-1	9.615974E-1	8.982745E-1	9.314611E-1	9.687207E-1	9.457043E-1	9.301475E-1	9.437355E-1	9.387403E-1	9.720667E-1	9.284345E-1	9.506356E-1	9.762607E-1	9.039690E-1	9.917368E-1	9.032479E-1	9.212480E-1	9.166838E-1	9.685355E-1	9.303216E-1	9.163172E-1	9.779590E-1	9.173075E-1	8.995825E-1	9.094244E-1	9.620532E-1	9.009163E-1	1.002071E+0	8.801326E-1	9.468932E-1	9.462631E-1	9.211355E-1	9.522832E-1	8.808490E-1	9.276305E-1	9.105715E-1	9.427470E-1	9.614319E-1	9.772681E-1	8.967408E-1	9.477833E-1	9.346923E-1	9.147558E-1	9.782052E-1	9.259660E-1	9.484449E-1	9.627477E-1	9.341142E-1	9.538982E-1	9.358349E-1	9.394161E-1	9.539046E-1	9.611106E-1	9.412752E-1	9.889073E-1	9.512913E-1	9.481675E-1	9.019448E-1	9.456596E-1	9.177413E-1	9.771055E-1	9.488039E-1	9.618392E-1	9.197759E-1	9.496624E-1	9.039594E-1	9.583676E-1	9.801900E-1	9.098145E-1	9.298935E-1	9.405336E-1	9.839007E-1	9.798585E-1	9.570822E-1	9.405556E-1	9.072699E-1	9.389447E-1	9.060877E-1	8.980454E-1	8.947690E-1
5.560410E+2	1.028817E+0	1.013677E+0	1.026769E+0	9.732070E-1	1.000929E+0	1.044021E+0	1.031538E+0	1.005815E+0	1.050573E+0	1.039511E+0	1.001370E+0	1.021962E+0	1.005931E+0	1.048257E+0	9.758205E-1	9.978217E-1	1.035924E+0	9.862942E-1	9.956400E-1	1.010192E+0	1.011029E+0	1.044952E+0	1.017092E+0	1.037718E+0	1.009267E+0	1.032962E+0	1.034833E+0	1.051231E+0	1.004439E+0	1.056286E+0	1.003151E+0	1.043952E+0	1.023438E+0	1.038067E+0	1.012984E+0	9.982772E-1	1.040393E+0	1.017570E+0	1.009916E+0	9.672272E-1	1.024505E+0	1.039468E+0	1.026268E+0	1.014273E+0	1.091271E+0	9.875039E-1	9.938386E-1	9.784066E-1	1.058201E+0	9.828634E-1	1.023529E+0	1.071149E+0	9.728614E-1	9.792218E-1	1.017757E+0	1.030783E+0	1.044960E+0	1.055125E+0	1.048677E+0	1.051022E+0	9.947099E-1	1.005161E+0	9.925913E-1	9.879006E-1	9.996288E-1	1.049984E+0	1.048687E+0	1.009532E+0	9.985885E-1	1.017357E+0	1.035674E+0	1.003304E+0	9.975284E-1	1.016734E+0	1.038170E+0	1.067480E+0	1.040972E+0	9.572490E-1	1.084370E+0	1.036373E+0	1.040962E+0	1.009387E+0	9.851868E-1	1.034305E+0	1.041179E+0	1.014316E+0	1.059482E+0	1.058426E+0	9.902913E-1	1.062220E+0	1.062467E+0	1.024220E+0	1.012873E+0	1.027699E+0	9.929466E-1	1.025210E+0	9.937048E-1	9.894086E-1	1.036018E+0	1.049607E+0	1.020374E+0	1.011986E+0	9.884798E-1	1.041581E+0	1.037566E+0	1.011697E+0	1.020160E+0	1.042704E+0	1.046044E+0	9.670785E-1	1.016946E+0	1.053546E+0	9.819646E-1	1.008797E+0	1.025410E+0	1.025215E+0	1.012046E+0	1.046707E+0	1.075291E+0	1.020424E+0	9.759488E-1	9.821242E-1	9.980652E-1	1.068593E+0	9.767254E-1	9.867077E-1	9.930923E-1	1.042569E+0	1.046332E+0	1.052974E+0	1.017992E+0	1.037576E+0	1.036833E+0	1.102310E+0	1.031664E+0	1.013296E+0	1.019862E+0	1.025184E+0	9.708363E-1	1.014426E+0	1.006022E+0	1.046206E+0	1.030542E+0	1.031040E+0	1.008252E+0	9.980870E-1	1.022549E+0	1.010894E+0	1.047983E+0	1.092590E+0	1.039708E+0	1.031544E+0	1.023286E+0	1.063207E+0	1.069665E+0	9.844201E-1	9.808149E-1	9.841188E-1	1.002813E+0	9.828945E-1	9.935827E-1	9.763198E-1	1.100874E+0	9.654045E-1
5.570330E+2	1.064300E+0	1.030081E+0	1.081154E+0	1.085957E+0	1.126053E+0	1.034332E+0	1.016064E+0	1.042782E+0	1.078622E+0	1.026855E+0	1.063430E+0	1.120450E+0	1.079741E+0	1.088178E+0	1.085125E+0	1.042064E+0	1.091399E+0	1.029268E+0	1.087919E+0	1.086736E+0	1.081660E+0	1.050157E+0	1.054705E+0	1.099000E+0	1.081412E+0	1.008828E+0	1.081630E+0	1.037390E+0	1.032287E+0	1.074531E+0	1.077932E+0	1.056205E+0	1.013790E+0	1.079892E+0	1.035616E+0	1.069360E+0	1.095628E+0	1.073380E+0	1.074635E+0	1.039252E+0	1.056911E+0	1.032588E+0	1.058288E+0	1.083783E+0	1.047518E+0	1.124677E+0	1.087148E+0	1.066383E+0	1.056945E+0	1.031894E+0	1.045411E+0	1.099561E+0	1.049138E+0	1.038336E+0	1.065683E+0	1.048687E+0	1.046299E+0	1.061779E+0	9.982919E-1	1.042455E+0	1.099088E+0	1.089889E+0	9.777977E-1	1.148895E+0	1.037090E+0	1.061765E+0	1.088458E+0	9.999220E-1	1.129074E+0	1.088090E+0	1.063365E+0	1.075327E+0	1.114283E+0	9.938610E-1	1.029183E+0	1.075741E+0	1.075454E+0	1.040043E+0	1.089085E+0	1.084493E+0	1.067206E+0	1.082356E+0	9.911533E-1	1.027188E+0	1.022283E+0	1.092271E+0	1.087655E+0	1.098226E+0	1.063250E+0	1.081312E+0	1.080043E+0	1.088323E+0	1.040647E+0	1.024461E+0	1.096563E+0	1.078593E+0	1.051689E+0	1.067471E+0	1.045815E+0	1.054574E+0	1.088717E+0	1.120237E+0	1.029719E+0	1.013139E+0	1.072578E+0	1.059566E+0	1.082861E+0	1.070355E+0	1.070495E+0	1.074722E+0	1.094486E+0	1.039475E+0	1.112378E+0	1.104874E+0	1.117216E+0	1.065179E+0	1.051474E+0	1.056644E+0	1.050313E+0	1.156292E+0	1.088446E+0	1.062587E+0	1.031824E+0	1.099489E+0	1.118106E+0	1.013025E+0	1.121346E+0	1.026857E+0	1.068033E+0	1.039141E+0	1.039942E+0	1.030595E+0	1.085526E+0	1.092555E+0	1.071665E+0	9.942272E-1	1.001160E+0	1.060573E+0	1.064202E+0	1.054046E+0	1.079618E+0	1.044901E+0	1.047900E+0	1.106517E+0	1.011203E+0	1.078536E+0	1.057146E+0	1.116498E+0	1.074267E+0	1.036660E+0	1.033909E+0	1.050157E+0	1.044079E+0	1.068179E+0	1.104380E+0	1.044994E+0	1.097491E+0	1.058076E+0	1.053095E+0	1.096327E+0	1.073374E+0	1.055846E+0	1.022159E+0	1.119050E+0
5.580230E+2	1.025243E+0	1.102194E+0	1.031918E+0	1.038793E+0	1.029382E+0	1.037290E+0	1.062899E+0	1.084334E+0	1.067886E+0	1.039892E+0	1.055537E+0	1.033210E+0	1.026704E+0	1.017658E+0	1.060191E+0	1.028166E+0	1.077306E+0	1.073334E+0	1.071511E+0	1.046224E+0	1.079365E+0	1.069727E+0	1.070148E+0	1.035432E+0	1.077130E+0	1.035523E+0	1.085020E+0	1.030743E+0	1.067324E+0	1.051681E+0	1.038517E+0	1.079776E+0	1.015797E+0	1.014595E+0	1.016740E+0	1.051548E+0	1.014390E+0	1.054120E+0	1.050903E+0	1.072127E+0	1.050122E+0	1.018776E+0	1.061585E+0	1.045557E+0	1.041277E+0	1.015690E+0	1.082207E+0	1.074354E+0	1.049405E+0	1.015796E+0	1.076634E+0	1.035391E+0	1.039359E+0	1.086569E+0	1.064486E+0	1.041550E+0	1.074940E+0	1.045595E+0	1.059708E+0	1.052314E+0	1.044910E+0	1.093339E+0	1.060605E+0	1.002884E+0	1.073910E+0	1.062732E+0	1.026753E+0	1.014372E+0	1.087683E+0	1.094581E+0	1.077787E+0	1.075240E+0	1.077927E+0	1.092035E+0	1.102859E+0	1.087237E+0	1.073870E+0	1.108950E+0	1.021544E+0	1.009254E+0	1.039104E+0	1.106772E+0	1.071360E+0	1.022517E+0	1.059930E+0	1.000415E+0	1.095342E+0	1.020690E+0	1.031547E+0	1.077168E+0	1.033760E+0	1.091994E+0	1.056378E+0	1.043618E+0	1.065744E+0	1.038031E+0	1.030574E+0	1.045695E+0	1.048650E+0	1.031694E+0	1.052614E+0	1.046063E+0	1.021622E+0	1.074862E+0	1.037767E+0	1.098078E+0	1.008484E+0	1.066472E+0	1.031160E+0	1.042284E+0	1.081165E+0	1.054474E+0	1.061392E+0	9.795164E-1	9.942905E-1	1.058082E+0	1.071294E+0	1.059038E+0	1.018913E+0	1.046258E+0	1.044329E+0	1.062258E+0	1.080243E+0	1.043754E+0	1.048662E+0	1.151015E+0	1.053590E+0	1.016195E+0	1.028160E+0	1.053231E+0	1.091428E+0	1.085422E+0	1.049122E+0	9.841790E-1	1.067277E+0	1.060527E+0	1.080918E+0	1.116767E+0	1.097970E+0	1.061821E+0	1.038491E+0	1.075147E+0	1.094518E+0	1.051074E+0	1.039956E+0	1.047829E+0	1.071648E+0	1.094260E+0	1.069971E+0	1.046027E+0	1.066064E+0	1.095901E+0	1.045338E+0	1.056664E+0	1.068136E+0	1.099666E+0	1.055319E+0	1.019545E+0	1.072936E+0	1.047304E+0	1.038124E+0	1.113959E+0	1.091182E+0	1.171030E+0
5.590160E+2	1.104883E+0	1.023529E+0	1.068953E+0	1.084716E+0	1.088825E+0	1.017539E+0	1.065431E+0	1.058634E+0	1.017834E+0	1.096329E+0	1.077328E+0	1.069479E+0	1.051464E+0	1.094385E+0	1.041808E+0	1.053602E+0	9.862933E-1	1.093887E+0	1.028066E+0	9.650557E-1	9.621546E-1	9.494421E-1	1.061895E+0	1.102320E+0	1.052341E+0	1.036122E+0	1.000635E+0	1.027050E+0	1.076675E+0	1.028638E+0	1.050387E+0	1.014079E+0	1.130870E+0	9.497149E-1	1.107406E+0	1.013527E+0	1.003664E+0	9.627060E-1	1.126211E+0	1.112055E+0	1.044759E+0	1.140221E+0	9.959158E-1	9.959274E-1	9.596163E-1	1.051135E+0	9.810985E-1	1.026472E+0	1.030456E+0	1.165239E+0	9.844102E-1	1.073377E+0	1.181533E+0	1.101611E+0	1.014611E+0	1.048897E+0	9.567494E-1	1.035953E+0	1.076441E+0	1.089537E+0	1.065257E+0	1.034932E+0	1.148583E+0	1.062587E+0	1.006483E+0	9.876439E-1	1.060762E+0	1.148095E+0	1.037105E+0	9.500606E-1	9.711809E-1	9.849272E-1	9.873425E-1	1.110035E+0	1.075379E+0	9.333793E-1	1.016325E+0	1.110032E+0	9.394282E-1	1.031483E+0	1.066604E+0	9.903635E-1	1.118000E+0	1.144642E+0	1.055793E+0	1.055024E+0	9.314658E-1	1.019959E+0	1.072761E+0	9.678797E-1	9.849728E-1	1.019039E+0	1.080898E+0	1.018229E+0	1.032443E+0	9.978261E-1	1.066851E+0	1.101860E+0	1.002944E+0	1.086191E+0	1.065382E+0	9.711644E-1	1.129156E+0	1.042184E+0	1.103247E+0	9.847202E-1	1.009268E+0	9.825475E-1	1.102299E+0	1.078741E+0	1.041614E+0	9.663638E-1	1.045715E+0	1.098392E+0	1.059413E+0	1.065046E+0	1.052345E+0	1.095560E+0	9.864748E-1	9.820274E-1	1.049683E+0	1.058500E+0	1.016225E+0	1.046878E+0	1.016675E+0	1.117054E+0	9.717564E-1	9.927053E-1	1.081040E+0	1.039619E+0	1.012020E+0	9.953747E-1	1.068414E+0	1.022131E+0	1.041920E+0	1.149249E+0	1.048691E+0	1.067493E+0	1.054934E+0	1.039031E+0	1.076364E+0	1.054694E+0	1.050937E+0	9.804361E-1	1.101767E+0	1.066471E+0	1.040781E+0	9.992309E-1	1.011690E+0	9.991287E-1	1.062627E+0	9.733471E-1	1.118425E+0	9.641077E-1	9.605541E-1	9.937588E-1	9.810639E-1	1.078308E+0	1.088537E+0	1.087942E+0	1.116441E+0	1.107290E+0	1.124233E+0	9.620127E-1
