Photon Energy (eV)	#1	#2	#3	#4	#5	#6	#7	#8	#9	#10	#11	#12	#13	#14	#15	#16	#17	#18	#19	#20	#21	#22	#23	#24	#25	#26	#27	#28	#29	#30	#31	#32	#33	#34	#35	#36	#37	#38	#39	#40	#41	#42	#43	#44	#45	#46	#47	#48	#49	#50	#51	#52	#53	#54	#55	#56	#57	#58	#59	#60	#61	#62	#63	#64	#65	#66	#67	#68	#69	#70	#71	#72	#73	#74	#75	#76	#77	#78	#79	#80	#81	#82	#83	#84	#85	#86	#87	#88	#89	#90	#91	#92	#93	#94	#95	#96	#97	#98	#99	#100	#101	#102	#103	#104	#105	#106	#107	#108	#109	#110	#111	#112	#113	#114	#115	#116	#117	#118	#119	#120	#121	#122	#123	#124	#125	#126	#127	#128	#129	#130	#131	#132	#133	#134	#135	#136	#137	#138	#139	#140	#141	#142	#143	#144	#145	#146	#147	#148	#149	#150	#151	#152	#153	#154	#155	#156	#157	#158	#159	#160	#161	#162	#163	#164	#165	#166	#167	#168	#169	
1.400000E+3	1.352390E+0	1.424050E+0	1.489090E+0	1.392510E+0	1.607760E+0	1.594470E+0	1.587230E+0	1.519090E+0	1.700260E+0	1.669590E+0	1.764680E+0	1.484660E+0	1.880270E+0	1.833940E+0	1.974020E+0	1.767300E+0	1.641940E+0	1.621110E+0	1.700950E+0	1.602280E+0	1.887330E+0	1.816300E+0	1.967650E+0	1.750540E+0	1.570080E+0	1.645040E+0	1.747000E+0	1.392190E+0	1.701950E+0	1.812170E+0	1.909880E+0	1.675720E+0	1.529440E+0	1.559060E+0	1.705280E+0	1.524510E+0	1.892000E+0	1.795320E+0	2.074230E+0	1.643120E+0	1.640890E+0	1.631850E+0	1.846580E+0	1.437220E+0	1.803770E+0	1.803910E+0	1.943560E+0	1.633420E+0	1.507070E+0	1.495180E+0	1.680850E+0	1.424330E+0	1.820350E+0	1.685440E+0	1.988840E+0	1.637440E+0	1.656100E+0	1.465710E+0	1.692350E+0	1.523630E+0	1.864930E+0	1.602910E+0	1.840240E+0	1.873610E+0	1.522050E+0	1.568360E+0	1.664680E+0	1.511550E+0	1.764150E+0	1.782700E+0	1.846890E+0	1.615830E+0	1.609290E+0	1.568470E+0	1.630290E+0	1.414660E+0	1.738950E+0	1.694800E+0	1.862220E+0	1.801510E+0	1.391350E+0	1.411150E+0	1.649220E+0	1.623020E+0	1.591310E+0	1.691140E+0	1.770720E+0	1.778850E+0	1.570690E+0	1.617790E+0	1.447840E+0	1.527740E+0	1.812850E+0	1.742390E+0	1.595370E+0	1.816160E+0	1.573690E+0	1.526740E+0	1.467790E+0	1.659360E+0	1.872060E+0	1.784810E+0	1.617390E+0	1.864590E+0	1.659410E+0	1.661240E+0	1.540820E+0	1.521970E+0	1.783040E+0	1.806790E+0	1.827170E+0	1.815890E+0	1.466760E+0	1.577590E+0	1.654410E+0	1.575160E+0	1.744870E+0	1.851960E+0	1.867660E+0	1.675240E+0	1.554110E+0	1.717650E+0	1.627470E+0	1.498400E+0	1.618060E+0	1.846340E+0	1.870260E+0	1.823700E+0	1.381560E+0	1.601060E+0	1.593810E+0	1.639100E+0	1.662330E+0	1.820420E+0	1.772750E+0	1.782790E+0	1.507820E+0	1.639940E+0	1.523280E+0	1.404210E+0	1.697180E+0	1.792020E+0	1.700360E+0	1.597000E+0	1.496640E+0	1.583900E+0	1.546730E+0	1.475640E+0	1.730680E+0	1.861500E+0	1.617450E+0	1.651920E+0	1.509980E+0	1.682560E+0	1.534990E+0	1.441680E+0	1.715720E+0	1.846490E+0	1.835450E+0	1.716410E+0	1.403750E+0	1.612660E+0	1.571010E+0	1.465180E+0	1.604760E+0	1.935480E+0	1.621420E+0	1.638410E+0	1.515990E+0
1.700000E+3	1.346810E+0	1.423230E+0	1.488210E+0	1.391740E+0	1.606670E+0	1.593410E+0	1.585900E+0	1.518160E+0	1.699100E+0	1.668330E+0	1.760250E+0	1.483880E+0	1.878690E+0	1.832510E+0	1.972130E+0	1.761570E+0	1.640810E+0	1.620150E+0	1.699680E+0	1.601850E+0	1.885800E+0	1.817050E+0	1.963650E+0	1.745920E+0	1.572520E+0	1.643610E+0	1.748570E+0	1.395250E+0	1.702250E+0	1.814090E+0	1.906610E+0	1.677570E+0	1.531080E+0	1.561710E+0	1.705640E+0	1.524280E+0	1.891250E+0	1.795770E+0	2.070200E+0	1.639590E+0	1.637400E+0	1.633420E+0	1.842190E+0	1.439380E+0	1.804540E+0	1.801860E+0	1.941290E+0	1.628700E+0	1.508070E+0	1.492120E+0	1.679060E+0	1.421720E+0	1.812010E+0	1.678270E+0	1.983800E+0	1.633740E+0	1.647990E+0	1.462670E+0	1.688760E+0	1.518000E+0	1.853920E+0	1.596740E+0	1.831710E+0	1.866650E+0	1.514850E+0	1.560790E+0	1.728440E+0	1.504160E+0	1.755570E+0	1.778310E+0	2.014260E+0	1.605120E+0	1.601740E+0	1.563730E+0	1.820450E+0	1.401910E+0	1.729670E+0	1.689650E+0	1.991080E+0	1.792320E+0	1.388240E+0	1.407780E+0	1.663690E+0	1.618450E+0	1.588250E+0	1.687450E+0	1.814590E+0	1.773310E+0	1.565030E+0	1.612770E+0	1.497600E+0	1.519080E+0	1.809010E+0	1.738510E+0	1.615110E+0	1.811670E+0	1.570840E+0	1.523880E+0	1.464460E+0	1.656080E+0	1.868080E+0	1.781520E+0	1.614520E+0	1.860800E+0	1.656440E+0	1.658200E+0	1.538340E+0	1.519440E+0	1.779970E+0	1.804370E+0	1.824360E+0	1.813020E+0	1.464920E+0	1.575370E+0	1.652030E+0	1.572680E+0	1.742280E+0	1.848890E+0	1.864750E+0	1.672860E+0	1.550780E+0	1.711960E+0	1.625300E+0	1.496470E+0	1.616120E+0	1.843710E+0	1.867490E+0	1.821050E+0	1.380180E+0	1.599140E+0	1.591790E+0	1.636940E+0	1.660230E+0	1.817950E+0	1.770580E+0	1.780440E+0	1.506330E+0	1.638080E+0	1.521730E+0	1.402780E+0	1.695190E+0	1.789470E+0	1.698170E+0	1.594880E+0	1.494900E+0	1.581760E+0	1.544850E+0	1.473940E+0	1.728550E+0	1.858990E+0	1.615600E+0	1.650090E+0	1.508480E+0	1.680470E+0	1.533470E+0	1.440140E+0	1.713770E+0	1.843960E+0	1.833060E+0	1.714430E+0	1.402390E+0	1.610830E+0	1.569470E+0	1.463810E+0	1.603290E+0	1.933040E+0	1.620050E+0	1.636850E+0	1.514820E+0
2.000000E+3	1.344290E+0	1.421180E+0	1.485980E+0	1.389700E+0	1.604100E+0	1.590840E+0	1.583340E+0	1.515880E+0	1.696230E+0	1.665570E+0	1.757250E+0	1.481750E+0	1.875490E+0	1.829450E+0	1.968500E+0	1.758340E+0	1.638210E+0	1.617540E+0	1.696880E+0	1.599350E+0	1.882400E+0	1.813850E+0	1.960190E+0	1.742630E+0	1.569990E+0	1.640930E+0	1.745540E+0	1.393200E+0	1.699370E+0	1.810940E+0	1.902840E+0	1.674800E+0	1.529620E+0	1.559190E+0	1.701930E+0	1.522850E+0	1.887920E+0	1.792100E+0	2.064490E+0	1.636880E+0	1.634290E+0	1.630180E+0	1.839070E+0	1.436730E+0	1.800770E+0	1.798130E+0	1.937720E+0	1.626980E+0	1.505830E+0	1.489750E+0	1.678100E+0	1.419500E+0	1.808810E+0	1.674490E+0	1.979830E+0	1.630880E+0	1.644720E+0	1.460300E+0	1.685620E+0	1.515460E+0	1.850320E+0	1.593860E+0	1.828070E+0	1.861900E+0	1.512100E+0	1.557780E+0	1.725390E+0	1.500130E+0	1.752100E+0	1.774670E+0	2.010160E+0	1.602250E+0	1.598040E+0	1.561030E+0	1.816950E+0	1.399380E+0	1.726170E+0	1.686520E+0	1.987000E+0	1.788930E+0	1.386000E+0	1.405510E+0	1.689420E+0	1.614950E+0	1.585290E+0	1.683970E+0	1.893050E+0	1.766490E+0	1.560610E+0	1.608650E+0	1.590490E+0	1.513030E+0	1.805160E+0	1.734580E+0	1.650910E+0	1.806630E+0	1.568000E+0	1.520910E+0	1.551260E+0	1.649320E+0	1.863810E+0	1.777280E+0	1.830010E+0	1.847660E+0	1.652030E+0	1.653310E+0	1.759090E+0	1.507310E+0	1.775580E+0	1.799290E+0	1.951220E+0	1.804100E+0	1.461990E+0	1.571560E+0	1.668730E+0	1.569130E+0	1.738870E+0	1.844860E+0	1.907170E+0	1.667760E+0	1.547210E+0	1.708800E+0	1.668700E+0	1.491850E+0	1.613090E+0	1.839670E+0	1.893140E+0	1.816080E+0	1.377690E+0	1.595970E+0	1.589520E+0	1.633680E+0	1.657020E+0	1.814230E+0	1.767200E+0	1.776800E+0	1.503600E+0	1.635050E+0	1.519240E+0	1.400270E+0	1.692010E+0	1.786120E+0	1.695040E+0	1.591780E+0	1.492310E+0	1.578880E+0	1.541980E+0	1.470950E+0	1.725140E+0	1.855170E+0	1.612640E+0	1.646840E+0	1.505790E+0	1.677300E+0	1.530730E+0	1.437550E+0	1.710430E+0	1.840290E+0	1.829290E+0	1.711030E+0	1.399930E+0	1.607900E+0	1.566480E+0	1.461050E+0	1.600320E+0	1.929020E+0	1.617110E+0	1.633620E+0	1.512170E+0
2.100000E+3	1.343120E+0	1.419280E+0	1.483920E+0	1.387870E+0	1.601790E+0	1.588520E+0	1.581000E+0	1.513710E+0	1.693680E+0	1.663050E+0	1.754550E+0	1.479730E+0	1.872490E+0	1.826530E+0	1.965180E+0	1.755680E+0	1.635770E+0	1.615210E+0	1.694290E+0	1.596990E+0	1.879360E+0	1.811010E+0	1.956250E+0	1.739950E+0	1.567730E+0	1.638510E+0	1.742790E+0	1.391350E+0	1.696790E+0	1.808070E+0	1.899700E+0	1.672300E+0	1.528080E+0	1.556980E+0	1.701230E+0	1.521530E+0	1.886240E+0	1.789740E+0	2.062280E+0	1.634230E+0	1.631960E+0	1.627990E+0	1.836080E+0	1.435070E+0	1.798620E+0	1.795890E+0	1.934340E+0	1.624270E+0	1.503950E+0	1.487310E+0	1.676010E+0	1.417090E+0	1.805320E+0	1.671010E+0	1.975870E+0	1.628010E+0	1.641900E+0	1.457840E+0	1.682530E+0	1.513000E+0	1.846890E+0	1.591100E+0	1.824170E+0	1.857600E+0	1.509110E+0	1.555130E+0	1.721720E+0	1.496520E+0	1.748480E+0	1.771440E+0	2.006030E+0	1.599420E+0	1.595190E+0	1.558390E+0	1.812990E+0	1.397140E+0	1.723070E+0	1.683420E+0	1.982910E+0	1.785580E+0	1.383740E+0	1.403310E+0	1.684650E+0	1.612000E+0	1.582540E+0	1.680940E+0	1.889370E+0	1.763200E+0	1.557540E+0	1.604150E+0	1.586690E+0	1.509690E+0	1.801820E+0	1.731280E+0	1.647910E+0	1.803220E+0	1.565390E+0	1.518330E+0	1.554570E+0	1.646040E+0	1.860200E+0	1.773920E+0	1.841610E+0	1.843570E+0	1.649070E+0	1.650210E+0	1.771180E+0	1.504210E+0	1.772300E+0	1.795950E+0	1.956520E+0	1.800460E+0	1.459610E+0	1.568830E+0	1.739130E+0	1.563190E+0	1.735230E+0	1.840760E+0	2.095710E+0	1.656450E+0	1.543350E+0	1.703990E+0	1.857940E+0	1.480950E+0	1.609290E+0	1.834880E+0	2.010040E+0	1.807800E+0	1.375070E+0	1.592110E+0	1.632730E+0	1.629020E+0	1.653830E+0	1.810350E+0	1.868840E+0	1.769110E+0	1.500310E+0	1.631280E+0	1.619950E+0	1.393460E+0	1.688560E+0	1.781960E+0	1.752500E+0	1.586390E+0	1.489530E+0	1.575720E+0	1.540470E+0	1.468270E+0	1.721900E+0	1.851430E+0	1.609760E+0	1.643690E+0	1.503040E+0	1.674200E+0	1.528280E+0	1.434930E+0	1.707350E+0	1.836860E+0	1.826020E+0	1.707880E+0	1.397560E+0	1.605140E+0	1.563870E+0	1.458280E+0	1.597460E+0	1.925200E+0	1.614240E+0	1.630600E+0	1.509510E+0
2.200000E+3	1.340040E+0	1.417080E+0	1.481550E+0	1.385710E+0	1.599200E+0	1.585810E+0	1.578370E+0	1.511180E+0	1.690790E+0	1.660280E+0	1.751310E+0	1.477220E+0	1.869150E+0	1.823260E+0	1.961560E+0	1.752530E+0	1.632910E+0	1.612470E+0	1.691310E+0	1.594190E+0	1.875800E+0	1.807630E+0	1.952480E+0	1.736890E+0	1.565050E+0	1.635550E+0	1.739580E+0	1.389120E+0	1.693910E+0	1.804730E+0	1.896100E+0	1.669420E+0	1.525450E+0	1.554330E+0	1.697270E+0	1.518870E+0	1.882660E+0	1.786130E+0	2.057580E+0	1.631270E+0	1.628790E+0	1.625130E+0	1.831610E+0	1.432740E+0	1.794990E+0	1.792280E+0	1.930740E+0	1.621160E+0	1.501040E+0	1.484820E+0	1.672400E+0	1.414810E+0	1.802290E+0	1.668450E+0	1.972340E+0	1.625250E+0	1.639030E+0	1.455470E+0	1.679900E+0	1.510460E+0	1.843200E+0	1.588410E+0	1.820800E+0	1.854490E+0	1.506590E+0	1.552460E+0	1.718940E+0	1.495590E+0	1.745330E+0	1.768080E+0	2.002040E+0	1.596650E+0	1.592700E+0	1.555660E+0	1.809620E+0	1.394900E+0	1.719980E+0	1.680510E+0	1.979100E+0	1.782240E+0	1.381520E+0	1.400960E+0	1.682690E+0	1.609250E+0	1.579810E+0	1.677960E+0	1.885800E+0	1.760020E+0	1.555470E+0	1.602570E+0	1.584500E+0	1.507850E+0	1.798510E+0	1.728110E+0	1.645000E+0	1.799980E+0	1.562660E+0	1.515760E+0	1.551870E+0	1.643140E+0	1.856700E+0	1.770620E+0	1.838050E+0	1.840110E+0	1.646050E+0	1.647120E+0	1.767880E+0	1.501580E+0	1.769010E+0	1.792500E+0	1.952670E+0	1.797070E+0	1.457070E+0	1.566070E+0	1.735840E+0	1.560460E+0	1.732050E+0	1.837220E+0	2.091340E+0	1.653510E+0	1.540620E+0	1.700720E+0	1.854190E+0	1.478340E+0	1.606380E+0	1.831350E+0	2.005780E+0	1.804430E+0	1.372750E+0	1.589260E+0	1.686550E+0	1.623600E+0	1.650370E+0	1.806360E+0	2.002050E+0	1.759780E+0	1.496890E+0	1.627020E+0	1.751610E+0	1.385100E+0	1.684840E+0	1.777490E+0	1.827710E+0	1.580200E+0	1.486460E+0	1.572200E+0	1.582550E+0	1.463610E+0	1.718350E+0	1.847230E+0	1.733630E+0	1.635080E+0	1.499380E+0	1.669890E+0	1.653460E+0	1.426570E+0	1.703430E+0	1.832200E+0	1.869920E+0	1.702440E+0	1.394950E+0	1.601670E+0	1.570700E+0	1.455090E+0	1.594210E+0	1.920990E+0	1.634870E+0	1.626330E+0	1.506440E+0
2.300000E+3	1.417590E+0	1.411740E+0	1.478800E+0	1.382910E+0	1.608240E+0	1.582670E+0	1.575890E+0	1.508770E+0	1.687950E+0	1.657560E+0	1.748230E+0	1.474970E+0	1.865690E+0	1.820050E+0	1.957820E+0	1.749390E+0	1.630270E+0	1.609700E+0	1.688410E+0	1.591620E+0	1.872440E+0	1.804480E+0	1.949380E+0	1.733940E+0	1.562420E+0	1.632660E+0	1.736570E+0	1.386850E+0	1.690950E+0	1.801440E+0	1.892520E+0	1.666540E+0	1.522240E+0	1.551710E+0	1.694110E+0	1.513970E+0	1.877100E+0	1.782700E+0	2.052760E+0	1.628740E+0	1.626460E+0	1.621780E+0	1.828680E+0	1.429990E+0	1.791680E+0	1.788800E+0	1.926930E+0	1.619270E+0	1.499200E+0	1.482710E+0	1.669690E+0	1.412810E+0	1.798660E+0	1.665510E+0	1.968450E+0	1.622770E+0	1.636360E+0	1.453330E+0	1.676920E+0	1.508260E+0	1.840720E+0	1.585930E+0	1.818130E+0	1.851080E+0	1.504640E+0	1.550040E+0	1.716170E+0	1.493020E+0	1.742730E+0	1.765040E+0	1.998370E+0	1.594200E+0	1.589760E+0	1.553260E+0	1.806710E+0	1.392890E+0	1.717160E+0	1.677810E+0	1.975590E+0	1.779220E+0	1.379510E+0	1.398900E+0	1.681120E+0	1.606620E+0	1.577230E+0	1.675090E+0	1.882390E+0	1.757000E+0	1.553360E+0	1.601190E+0	1.582970E+0	1.504880E+0	1.795400E+0	1.725300E+0	1.642240E+0	1.796780E+0	1.560240E+0	1.513300E+0	1.549420E+0	1.640320E+0	1.853330E+0	1.767490E+0	1.834700E+0	1.836870E+0	1.643310E+0	1.644360E+0	1.764770E+0	1.499270E+0	1.765950E+0	1.789270E+0	1.948920E+0	1.793870E+0	1.454770E+0	1.563520E+0	1.732760E+0	1.557840E+0	1.728950E+0	1.833820E+0	2.087170E+0	1.650740E+0	1.538210E+0	1.697940E+0	1.850700E+0	1.475930E+0	1.603690E+0	1.828000E+0	2.001800E+0	1.801110E+0	1.370660E+0	1.586630E+0	1.683630E+0	1.620820E+0	1.647560E+0	1.803130E+0	1.998120E+0	1.756660E+0	1.494390E+0	1.624210E+0	1.748320E+0	1.382950E+0	1.681940E+0	1.773170E+0	1.824510E+0	1.577600E+0	1.484110E+0	1.569490E+0	1.601530E+0	1.460290E+0	1.715140E+0	1.843590E+0	1.793770E+0	1.629640E+0	1.496540E+0	1.666400E+0	1.714410E+0	1.421450E+0	1.700150E+0	1.828220E+0	1.890140E+0	1.698440E+0	1.392670E+0	1.598770E+0	1.649890E+0	1.449110E+0	1.590890E+0	1.916440E+0	1.845460E+0	1.613850E+0	1.502500E+0
2.325000E+3	1.439560E+0	1.408360E+0	1.476140E+0	1.380210E+0	1.608830E+0	1.579700E+0	1.573160E+0	1.505650E+0	1.684750E+0	1.654710E+0	1.745210E+0	1.471000E+0	1.862100E+0	1.816800E+0	1.954030E+0	1.744440E+0	1.627390E+0	1.607060E+0	1.685440E+0	1.588030E+0	1.868970E+0	1.801170E+0	1.944910E+0	1.730740E+0	1.559780E+0	1.629800E+0	1.733390E+0	1.384220E+0	1.687960E+0	1.798070E+0	1.888860E+0	1.663310E+0	1.519990E+0	1.549100E+0	1.690940E+0	1.512830E+0	1.875050E+0	1.779620E+0	2.049450E+0	1.626060E+0	1.623210E+0	1.619470E+0	1.823980E+0	1.428180E+0	1.788550E+0	1.785620E+0	1.923650E+0	1.615620E+0	1.496550E+0	1.480110E+0	1.666170E+0	1.410340E+0	1.794730E+0	1.662630E+0	1.964240E+0	1.619700E+0	1.633270E+0	1.450610E+0	1.673710E+0	1.505500E+0	1.836730E+0	1.583000E+0	1.813810E+0	1.847990E+0	1.501370E+0	1.547200E+0	1.711850E+0	1.489750E+0	1.738580E+0	1.761400E+0	1.993930E+0	1.591120E+0	1.586690E+0	1.550350E+0	1.802720E+0	1.390540E+0	1.714110E+0	1.674550E+0	1.971350E+0	1.775710E+0	1.377170E+0	1.396450E+0	1.675540E+0	1.603540E+0	1.574270E+0	1.671760E+0	1.878450E+0	1.753500E+0	1.549880E+0	1.596850E+0	1.578970E+0	1.502470E+0	1.791880E+0	1.721830E+0	1.639140E+0	1.793130E+0	1.557280E+0	1.510550E+0	1.546490E+0	1.637120E+0	1.849580E+0	1.763930E+0	1.830850E+0	1.833170E+0	1.640140E+0	1.641250E+0	1.761200E+0	1.496530E+0	1.762540E+0	1.785700E+0	1.944830E+0	1.790320E+0	1.452230E+0	1.560590E+0	1.729300E+0	1.554960E+0	1.725550E+0	1.830050E+0	2.082720E+0	1.647580E+0	1.535550E+0	1.693910E+0	1.846890E+0	1.473340E+0	1.600650E+0	1.824300E+0	1.997470E+0	1.797640E+0	1.368250E+0	1.583670E+0	1.680350E+0	1.617810E+0	1.644540E+0	1.799520E+0	1.993820E+0	1.753350E+0	1.491780E+0	1.621190E+0	1.744820E+0	1.380630E+0	1.678840E+0	1.769240E+0	1.820890E+0	1.574690E+0	1.481480E+0	1.566540E+0	1.598750E+0	1.457810E+0	1.711920E+0	1.839960E+0	1.790250E+0	1.626580E+0	1.493910E+0	1.663290E+0	1.711040E+0	1.419050E+0	1.696990E+0	1.824600E+0	1.886260E+0	1.695350E+0	1.390420E+0	1.595800E+0	1.646880E+0	1.446570E+0	1.587980E+0	1.912600E+0	1.841850E+0	1.610970E+0	1.499920E+0
2.350000E+3	1.437480E+0	1.405930E+0	1.473530E+0	1.377840E+0	1.605880E+0	1.576730E+0	1.570300E+0	1.502760E+0	1.681590E+0	1.651460E+0	1.741780E+0	1.468090E+0	1.858300E+0	1.813100E+0	1.950120E+0	1.740780E+0	1.624380E+0	1.603960E+0	1.682260E+0	1.584990E+0	1.865050E+0	1.797490E+0	1.941510E+0	1.726780E+0	1.555670E+0	1.625950E+0	1.730070E+0	1.379850E+0	1.684600E+0	1.793890E+0	1.885150E+0	1.658840E+0	1.514670E+0	1.545080E+0	1.687720E+0	1.507810E+0	1.869170E+0	1.775800E+0	2.047060E+0	1.622820E+0	1.620950E+0	1.616080E+0	1.822350E+0	1.424480E+0	1.785200E+0	1.782410E+0	1.919490E+0	1.608850E+0	1.492670E+0	1.478110E+0	1.661280E+0	1.407720E+0	1.792460E+0	1.661390E+0	1.960850E+0	1.617380E+0	1.631260E+0	1.448550E+0	1.670980E+0	1.503280E+0	1.835540E+0	1.580570E+0	1.811480E+0	1.846520E+0	1.499810E+0	1.544910E+0	1.710420E+0	1.489390E+0	1.736480E+0	1.758530E+0	1.990390E+0	1.588780E+0	1.585570E+0	1.547930E+0	1.799870E+0	1.388540E+0	1.711620E+0	1.671760E+0	1.967750E+0	1.772700E+0	1.375220E+0	1.394360E+0	1.674480E+0	1.601060E+0	1.571850E+0	1.669180E+0	1.875210E+0	1.750550E+0	1.549670E+0	1.596260E+0	1.578760E+0	1.500830E+0	1.788850E+0	1.718930E+0	1.636430E+0	1.789980E+0	1.554780E+0	1.508240E+0	1.544120E+0	1.634460E+0	1.846220E+0	1.760870E+0	1.827620E+0	1.829920E+0	1.637420E+0	1.638540E+0	1.758060E+0	1.494190E+0	1.759490E+0	1.782300E+0	1.940980E+0	1.786960E+0	1.449790E+0	1.557930E+0	1.726090E+0	1.552240E+0	1.722370E+0	1.826640E+0	2.078320E+0	1.644670E+0	1.533170E+0	1.691460E+0	1.843240E+0	1.470890E+0	1.597940E+0	1.820870E+0	1.993350E+0	1.794210E+0	1.366100E+0	1.580920E+0	1.677280E+0	1.614860E+0	1.641540E+0	1.796000E+0	1.989630E+0	1.749920E+0	1.489120E+0	1.618270E+0	1.741500E+0	1.378310E+0	1.675780E+0	1.765950E+0	1.817350E+0	1.571970E+0	1.478930E+0	1.563840E+0	1.595780E+0	1.455330E+0	1.708690E+0	1.836240E+0	1.786800E+0	1.623590E+0	1.491310E+0	1.660160E+0	1.707840E+0	1.416750E+0	1.693840E+0	1.821110E+0	1.882550E+0	1.692200E+0	1.388130E+0	1.592930E+0	1.643770E+0	1.444130E+0	1.585080E+0	1.908670E+0	1.837950E+0	1.607990E+0	1.497220E+0
2.375000E+3	1.435370E+0	1.403650E+0	1.470960E+0	1.375420E+0	1.603100E+0	1.573840E+0	1.567450E+0	1.500000E+0	1.678500E+0	1.648400E+0	1.738470E+0	1.465520E+0	1.854720E+0	1.809690E+0	1.946260E+0	1.737570E+0	1.621610E+0	1.600990E+0	1.679130E+0	1.582100E+0	1.861390E+0	1.794030E+0	1.937470E+0	1.723440E+0	1.553830E+0	1.623500E+0	1.726800E+0	1.378090E+0	1.681630E+0	1.791050E+0	1.881370E+0	1.655790E+0	1.511400E+0	1.543450E+0	1.684520E+0	1.504420E+0	1.865480E+0	1.772900E+0	2.043270E+0	1.619080E+0	1.617960E+0	1.613660E+0	1.819430E+0	1.421960E+0	1.781780E+0	1.779090E+0	1.916140E+0	1.605870E+0	1.491470E+0	1.475210E+0	1.659260E+0	1.404630E+0	1.788780E+0	1.658540E+0	1.956770E+0	1.613540E+0	1.630430E+0	1.445960E+0	1.667980E+0	1.498880E+0	1.833950E+0	1.577710E+0	1.807960E+0	1.837860E+0	1.499010E+0	1.542030E+0	1.707170E+0	1.483350E+0	1.733350E+0	1.754980E+0	1.986180E+0	1.585660E+0	1.582190E+0	1.545160E+0	1.795900E+0	1.385780E+0	1.709830E+0	1.668520E+0	1.963610E+0	1.768640E+0	1.372820E+0	1.392000E+0	1.671560E+0	1.597800E+0	1.568940E+0	1.665880E+0	1.871300E+0	1.747090E+0	1.546170E+0	1.591950E+0	1.575460E+0	1.497500E+0	1.785280E+0	1.715610E+0	1.633250E+0	1.786480E+0	1.551910E+0	1.505530E+0	1.541190E+0	1.631390E+0	1.842610E+0	1.757290E+0	1.823840E+0	1.826260E+0	1.634260E+0	1.635320E+0	1.754530E+0	1.491470E+0	1.756020E+0	1.778810E+0	1.936960E+0	1.783470E+0	1.447300E+0	1.555060E+0	1.722720E+0	1.549450E+0	1.719070E+0	1.822900E+0	2.073910E+0	1.641600E+0	1.530470E+0	1.687520E+0	1.839570E+0	1.468300E+0	1.594810E+0	1.817340E+0	1.989100E+0	1.790740E+0	1.363800E+0	1.577980E+0	1.674150E+0	1.611870E+0	1.638540E+0	1.792480E+0	1.985420E+0	1.746670E+0	1.486460E+0	1.615330E+0	1.738110E+0	1.376000E+0	1.672720E+0	1.762620E+0	1.813790E+0	1.569170E+0	1.476330E+0	1.561060E+0	1.592810E+0	1.452840E+0	1.705510E+0	1.832640E+0	1.783310E+0	1.620690E+0	1.488730E+0	1.657090E+0	1.704650E+0	1.414410E+0	1.690830E+0	1.817540E+0	1.878840E+0	1.689090E+0	1.385800E+0	1.590160E+0	1.640720E+0	1.441720E+0	1.582490E+0	1.904880E+0	1.834380E+0	1.605200E+0	1.494670E+0
2.400000E+3	1.433080E+0	1.401340E+0	1.468650E+0	1.373250E+0	1.600360E+0	1.571340E+0	1.564810E+0	1.497520E+0	1.675620E+0	1.645430E+0	1.735210E+0	1.462850E+0	1.851200E+0	1.806330E+0	1.942530E+0	1.734510E+0	1.618870E+0	1.598340E+0	1.676220E+0	1.579220E+0	1.857940E+0	1.790600E+0	1.933740E+0	1.720130E+0	1.549810E+0	1.620610E+0	1.723450E+0	1.375800E+0	1.678660E+0	1.787690E+0	1.878210E+0	1.652850E+0	1.508750E+0	1.540170E+0	1.681260E+0	1.501790E+0	1.861780E+0	1.769300E+0	2.039690E+0	1.616580E+0	1.614830E+0	1.610450E+0	1.816060E+0	1.419320E+0	1.778270E+0	1.775540E+0	1.912450E+0	1.602640E+0	1.488790E+0	1.472910E+0	1.655090E+0	1.402360E+0	1.785910E+0	1.656770E+0	1.952930E+0	1.610630E+0	1.627950E+0	1.443650E+0	1.665010E+0	1.496430E+0	1.831050E+0	1.575020E+0	1.804820E+0	1.834650E+0	1.496250E+0	1.539380E+0	1.703980E+0	1.480830E+0	1.730710E+0	1.751840E+0	1.982290E+0	1.582500E+0	1.582290E+0	1.542480E+0	1.793110E+0	1.382540E+0	1.708900E+0	1.665760E+0	1.959840E+0	1.763860E+0	1.370680E+0	1.389800E+0	1.669350E+0	1.591590E+0	1.566370E+0	1.663010E+0	1.867900E+0	1.743700E+0	1.545190E+0	1.590550E+0	1.573890E+0	1.494000E+0	1.782010E+0	1.712500E+0	1.630560E+0	1.782250E+0	1.549400E+0	1.503140E+0	1.538640E+0	1.627920E+0	1.839180E+0	1.754290E+0	1.820490E+0	1.823010E+0	1.631440E+0	1.632540E+0	1.751390E+0	1.487890E+0	1.752960E+0	1.775660E+0	1.933190E+0	1.780090E+0	1.445090E+0	1.552540E+0	1.719750E+0	1.546850E+0	1.716020E+0	1.819590E+0	2.069620E+0	1.638820E+0	1.528150E+0	1.684790E+0	1.836090E+0	1.465960E+0	1.592220E+0	1.813930E+0	1.985250E+0	1.787540E+0	1.361720E+0	1.575450E+0	1.671160E+0	1.609180E+0	1.635700E+0	1.789200E+0	1.981570E+0	1.743470E+0	1.484120E+0	1.612490E+0	1.734950E+0	1.374000E+0	1.669880E+0	1.759510E+0	1.810510E+0	1.566600E+0	1.473970E+0	1.558580E+0	1.590130E+0	1.450540E+0	1.702520E+0	1.829210E+0	1.780110E+0	1.617960E+0	1.486330E+0	1.654260E+0	1.701640E+0	1.412290E+0	1.687960E+0	1.814370E+0	1.875420E+0	1.686290E+0	1.383790E+0	1.587490E+0	1.638020E+0	1.439540E+0	1.579790E+0	1.901300E+0	1.830980E+0	1.602590E+0	1.492410E+0
2.425000E+3	1.430960E+0	1.399190E+0	1.466260E+0	1.406190E+0	1.596150E+0	1.568400E+0	1.561760E+0	1.648270E+0	1.665590E+0	1.641500E+0	1.731760E+0	1.680200E+0	1.841620E+0	1.801530E+0	1.937010E+0	1.901920E+0	1.608420E+0	1.594580E+0	1.671740E+0	1.582150E+0	1.854060E+0	1.787140E+0	1.930170E+0	1.729640E+0	1.544710E+0	1.614510E+0	1.718180E+0	1.387830E+0	1.674330E+0	1.780610E+0	1.876640E+0	1.664680E+0	1.504790E+0	1.534500E+0	1.677890E+0	1.499690E+0	1.858120E+0	1.765850E+0	2.035640E+0	1.611160E+0	1.614600E+0	1.607230E+0	1.812320E+0	1.416550E+0	1.774550E+0	1.772130E+0	1.908510E+0	1.598530E+0	1.482960E+0	1.470840E+0	1.651320E+0	1.400350E+0	1.783130E+0	1.655460E+0	1.949590E+0	1.608090E+0	1.626220E+0	1.441410E+0	1.662380E+0	1.494100E+0	1.827870E+0	1.572470E+0	1.803160E+0	1.831820E+0	1.496640E+0	1.537900E+0	1.701240E+0	1.481100E+0	1.730940E+0	1.748960E+0	1.978770E+0	1.579920E+0	1.580040E+0	1.539950E+0	1.790310E+0	1.380280E+0	1.705960E+0	1.663050E+0	1.956240E+0	1.760830E+0	1.368550E+0	1.387460E+0	1.666840E+0	1.591110E+0	1.563840E+0	1.660250E+0	1.864610E+0	1.740260E+0	1.542910E+0	1.588330E+0	1.571320E+0	1.490350E+0	1.778920E+0	1.709710E+0	1.627820E+0	1.777950E+0	1.546830E+0	1.500760E+0	1.536150E+0	1.624390E+0	1.835940E+0	1.751230E+0	1.817280E+0	1.819810E+0	1.628690E+0	1.629830E+0	1.748280E+0	1.485350E+0	1.749830E+0	1.772480E+0	1.929430E+0	1.776880E+0	1.442610E+0	1.549900E+0	1.716660E+0	1.544290E+0	1.713020E+0	1.816260E+0	2.065480E+0	1.636030E+0	1.525470E+0	1.681930E+0	1.832570E+0	1.463450E+0	1.589400E+0	1.810610E+0	1.981280E+0	1.784170E+0	1.359290E+0	1.572770E+0	1.668160E+0	1.606380E+0	1.632640E+0	1.785920E+0	1.977500E+0	1.740270E+0	1.481440E+0	1.609540E+0	1.731660E+0	1.371650E+0	1.666900E+0	1.756160E+0	1.807090E+0	1.563940E+0	1.470990E+0	1.555730E+0	1.587430E+0	1.448250E+0	1.697050E+0	1.825940E+0	1.776810E+0	1.615280E+0	1.480270E+0	1.651700E+0	1.698630E+0	1.410080E+0	1.682400E+0	1.811410E+0	1.871910E+0	1.683370E+0	1.381490E+0	1.584950E+0	1.635110E+0	1.437220E+0	1.576780E+0	1.897590E+0	1.827380E+0	1.599830E+0	1.489580E+0
2.450000E+3	1.427450E+0	1.396150E+0	1.463710E+0	1.410810E+0	1.592900E+0	1.565380E+0	1.558770E+0	1.675570E+0	1.660930E+0	1.638140E+0	1.731500E+0	1.720630E+0	1.837180E+0	1.797470E+0	1.933150E+0	1.933100E+0	1.603600E+0	1.591270E+0	1.667970E+0	1.616930E+0	1.848100E+0	1.778860E+0	1.926110E+0	1.908010E+0	1.537230E+0	1.613570E+0	1.710790E+0	1.635300E+0	1.655270E+0	1.775230E+0	1.868200E+0	1.871560E+0	1.493030E+0	1.529290E+0	1.670980E+0	1.511630E+0	1.851740E+0	1.759520E+0	2.029480E+0	1.666690E+0	1.607250E+0	1.600210E+0	1.808370E+0	1.472360E+0	1.765500E+0	1.768660E+0	1.903110E+0	1.634080E+0	1.478960E+0	1.468980E+0	1.649000E+0	1.399460E+0	1.785310E+0	1.653650E+0	1.947010E+0	1.606360E+0	1.625150E+0	1.439460E+0	1.660100E+0	1.492200E+0	1.828770E+0	1.574760E+0	1.804350E+0	1.833830E+0	1.495240E+0	1.539420E+0	1.700980E+0	1.480880E+0	1.728820E+0	1.746620E+0	1.975680E+0	1.578050E+0	1.578010E+0	1.537970E+0	1.792180E+0	1.379390E+0	1.704640E+0	1.660960E+0	1.953420E+0	1.758490E+0	1.366930E+0	1.385570E+0	1.664830E+0	1.589320E+0	1.561690E+0	1.657940E+0	1.861780E+0	1.737780E+0	1.540840E+0	1.586300E+0	1.569540E+0	1.491450E+0	1.776180E+0	1.707120E+0	1.625410E+0	1.775140E+0	1.544500E+0	1.498760E+0	1.533950E+0	1.621970E+0	1.832840E+0	1.748450E+0	1.814210E+0	1.816720E+0	1.626200E+0	1.627270E+0	1.745200E+0	1.483110E+0	1.746690E+0	1.769260E+0	1.925540E+0	1.773550E+0	1.440180E+0	1.547320E+0	1.713490E+0	1.541680E+0	1.709920E+0	1.812860E+0	2.061240E+0	1.633150E+0	1.522690E+0	1.683090E+0	1.828900E+0	1.460840E+0	1.586410E+0	1.806850E+0	1.977020E+0	1.780590E+0	1.356850E+0	1.569990E+0	1.665000E+0	1.603350E+0	1.629510E+0	1.782290E+0	1.973270E+0	1.736700E+0	1.478580E+0	1.606470E+0	1.727950E+0	1.369020E+0	1.663460E+0	1.752570E+0	1.803220E+0	1.560800E+0	1.468020E+0	1.552840E+0	1.584360E+0	1.445670E+0	1.692910E+0	1.822030E+0	1.772910E+0	1.612010E+0	1.476500E+0	1.648230E+0	1.695040E+0	1.407380E+0	1.678410E+0	1.807530E+0	1.867800E+0	1.679850E+0	1.378290E+0	1.581600E+0	1.631770E+0	1.434590E+0	1.570800E+0	1.893370E+0	1.823350E+0	1.596590E+0	1.482560E+0
2.475000E+3	1.426910E+0	1.394890E+0	1.461710E+0	1.408840E+0	1.590560E+0	1.563100E+0	1.556430E+0	1.673030E+0	1.658440E+0	1.635650E+0	1.728390E+0	1.717920E+0	1.833940E+0	1.794630E+0	1.929090E+0	1.928980E+0	1.601260E+0	1.588930E+0	1.665490E+0	1.616550E+0	1.845080E+0	1.777090E+0	1.922280E+0	1.905330E+0	1.534850E+0	1.610830E+0	1.707500E+0	1.632160E+0	1.653090E+0	1.771570E+0	1.865490E+0	1.868780E+0	1.489770E+0	1.527160E+0	1.669650E+0	1.539740E+0	1.848690E+0	1.755960E+0	2.026770E+0	1.789710E+0	1.599220E+0	1.596480E+0	1.802810E+0	1.616050E+0	1.757410E+0	1.764880E+0	1.896610E+0	1.713980E+0	1.472740E+0	1.466140E+0	1.645400E+0	1.418390E+0	1.780820E+0	1.650560E+0	1.942900E+0	1.700120E+0	1.620020E+0	1.436610E+0	1.656050E+0	1.631860E+0	1.819540E+0	1.571520E+0	1.799830E+0	1.882270E+0	1.490490E+0	1.536910E+0	1.696480E+0	1.482880E+0	1.725360E+0	1.743410E+0	1.971540E+0	1.594180E+0	1.574310E+0	1.534660E+0	1.788480E+0	1.408270E+0	1.700400E+0	1.657760E+0	1.949350E+0	1.768580E+0	1.364000E+0	1.383190E+0	1.661730E+0	1.586660E+0	1.558680E+0	1.654740E+0	1.858050E+0	1.734460E+0	1.537900E+0	1.583410E+0	1.566830E+0	1.487980E+0	1.772810E+0	1.703990E+0	1.622720E+0	1.771960E+0	1.541680E+0	1.496140E+0	1.531200E+0	1.618930E+0	1.829070E+0	1.745030E+0	1.810690E+0	1.813200E+0	1.623140E+0	1.624340E+0	1.741900E+0	1.480680E+0	1.743440E+0	1.766100E+0	1.921900E+0	1.770400E+0	1.437710E+0	1.544590E+0	1.710460E+0	1.538950E+0	1.706760E+0	1.809560E+0	2.056980E+0	1.630300E+0	1.519750E+0	1.678940E+0	1.825430E+0	1.458530E+0	1.583680E+0	1.803570E+0	1.973130E+0	1.777300E+0	1.354600E+0	1.567320E+0	1.662000E+0	1.600610E+0	1.626700E+0	1.779100E+0	1.969430E+0	1.733680E+0	1.476170E+0	1.603720E+0	1.724700E+0	1.366830E+0	1.660460E+0	1.749270E+0	1.799700E+0	1.558060E+0	1.465470E+0	1.550220E+0	1.581680E+0	1.443300E+0	1.689920E+0	1.818750E+0	1.769810E+0	1.609370E+0	1.473980E+0	1.645320E+0	1.691980E+0	1.404980E+0	1.675280E+0	1.804060E+0	1.864250E+0	1.676850E+0	1.375910E+0	1.578930E+0	1.629040E+0	1.432360E+0	1.568150E+0	1.889830E+0	1.820030E+0	1.593970E+0	1.480050E+0
2.500000E+3	1.424000E+0	1.392610E+0	1.459620E+0	1.406800E+0	1.588210E+0	1.560880E+0	1.554160E+0	1.670440E+0	1.655810E+0	1.633140E+0	1.723750E+0	1.715100E+0	1.830580E+0	1.791860E+0	1.925820E+0	1.925630E+0	1.598720E+0	1.586490E+0	1.662900E+0	1.613660E+0	1.841940E+0	1.774030E+0	1.917910E+0	1.901310E+0	1.531380E+0	1.606430E+0	1.704900E+0	1.630120E+0	1.650800E+0	1.768590E+0	1.861990E+0	1.865890E+0	1.487260E+0	1.524780E+0	1.664990E+0	1.536990E+0	1.844230E+0	1.754200E+0	2.021350E+0	1.786500E+0	1.597540E+0	1.593890E+0	1.799140E+0	1.613620E+0	1.754280E+0	1.761960E+0	1.892040E+0	1.710120E+0	1.470470E+0	1.463850E+0	1.642750E+0	1.424500E+0	1.776510E+0	1.647670E+0	1.939140E+0	1.738530E+0	1.615750E+0	1.433860E+0	1.652850E+0	1.688400E+0	1.814720E+0	1.567430E+0	1.796160E+0	1.901450E+0	1.487230E+0	1.533860E+0	1.692720E+0	1.492500E+0	1.721920E+0	1.740320E+0	1.967790E+0	1.653630E+0	1.569080E+0	1.531620E+0	1.783500E+0	1.507180E+0	1.695390E+0	1.654460E+0	1.944830E+0	1.809120E+0	1.360090E+0	1.380920E+0	1.658660E+0	1.594810E+0	1.555740E+0	1.651930E+0	1.854580E+0	1.792240E+0	1.532700E+0	1.580240E+0	1.563580E+0	1.579610E+0	1.765730E+0	1.700540E+0	1.619280E+0	1.806250E+0	1.537470E+0	1.493710E+0	1.528410E+0	1.628100E+0	1.825200E+0	1.741830E+0	1.807160E+0	1.859620E+0	1.618090E+0	1.621130E+0	1.738260E+0	1.547300E+0	1.737340E+0	1.762600E+0	1.917830E+0	1.794720E+0	1.434290E+0	1.542000E+0	1.707370E+0	1.539350E+0	1.703670E+0	1.806150E+0	2.052910E+0	1.635200E+0	1.515840E+0	1.677150E+0	1.822120E+0	1.464870E+0	1.580330E+0	1.800320E+0	1.969380E+0	1.779160E+0	1.352110E+0	1.564700E+0	1.659050E+0	1.597960E+0	1.623640E+0	1.775870E+0	1.965640E+0	1.730640E+0	1.473600E+0	1.601050E+0	1.721660E+0	1.364770E+0	1.657620E+0	1.746150E+0	1.796570E+0	1.555420E+0	1.462930E+0	1.547500E+0	1.578960E+0	1.440790E+0	1.686900E+0	1.815380E+0	1.766440E+0	1.606610E+0	1.471560E+0	1.642550E+0	1.688940E+0	1.402720E+0	1.672390E+0	1.800770E+0	1.860580E+0	1.673900E+0	1.373590E+0	1.576250E+0	1.626190E+0	1.430000E+0	1.565490E+0	1.886330E+0	1.816540E+0	1.591290E+0	1.477570E+0
2.600000E+3	1.423670E+0	1.391700E+0	1.458320E+0	1.405560E+0	1.586650E+0	1.559300E+0	1.552680E+0	1.668700E+0	1.654170E+0	1.631470E+0	1.719670E+0	1.713260E+0	1.825900E+0	1.789860E+0	1.923750E+0	1.920670E+0	1.597200E+0	1.585070E+0	1.661240E+0	1.613680E+0	1.839940E+0	1.775050E+0	1.916130E+0	1.897330E+0	1.527020E+0	1.603540E+0	1.706550E+0	1.632200E+0	1.652420E+0	1.767530E+0	1.858820E+0	1.866920E+0	1.486180E+0	1.523870E+0	1.665100E+0	1.535750E+0	1.842380E+0	1.753880E+0	2.017610E+0	1.783530E+0	1.596830E+0	1.595180E+0	1.797930E+0	1.614130E+0	1.752770E+0	1.758460E+0	1.891950E+0	1.705500E+0	1.468040E+0	1.461090E+0	1.639690E+0	1.421960E+0	1.769450E+0	1.641550E+0	1.934570E+0	1.734630E+0	1.609710E+0	1.431180E+0	1.649630E+0	1.682160E+0	1.808510E+0	1.560990E+0	1.788400E+0	1.893110E+0	1.484040E+0	1.526850E+0	1.688320E+0	1.486730E+0	1.714490E+0	1.736580E+0	1.963330E+0	1.650130E+0	1.565930E+0	1.528950E+0	1.776470E+0	1.500670E+0	1.688780E+0	1.651230E+0	1.940550E+0	1.805410E+0	1.357610E+0	1.378660E+0	1.654300E+0	1.595740E+0	1.552610E+0	1.648580E+0	1.850580E+0	1.818990E+0	1.528480E+0	1.576670E+0	1.559660E+0	1.621440E+0	1.760330E+0	1.697100E+0	1.615950E+0	1.821260E+0	1.534000E+0	1.491030E+0	1.525430E+0	1.644390E+0	1.820730E+0	1.738410E+0	1.803470E+0	1.941710E+0	1.611550E+0	1.617710E+0	1.734250E+0	1.663710E+0	1.728980E+0	1.759080E+0	1.913440E+0	1.839060E+0	1.430140E+0	1.539500E+0	1.704180E+0	1.606000E+0	1.697890E+0	1.802500E+0	2.048250E+0	1.851880E+0	1.502660E+0	1.670090E+0	1.817070E+0	1.711190E+0	1.567130E+0	1.796160E+0	1.963920E+0	1.919040E+0	1.344100E+0	1.561830E+0	1.655390E+0	1.618030E+0	1.620310E+0	1.772900E+0	1.961720E+0	1.793750E+0	1.468580E+0	1.598000E+0	1.718190E+0	1.435650E+0	1.651730E+0	1.742820E+0	1.792950E+0	1.599900E+0	1.458620E+0	1.544890E+0	1.576110E+0	1.439630E+0	1.683890E+0	1.812180E+0	1.763460E+0	1.604120E+0	1.469020E+0	1.639800E+0	1.686230E+0	1.400880E+0	1.669640E+0	1.797720E+0	1.857680E+0	1.671410E+0	1.371560E+0	1.573770E+0	1.623730E+0	1.428000E+0	1.562850E+0	1.883110E+0	1.813700E+0	1.589070E+0	1.475370E+0
2.700000E+3	1.421240E+0	1.389950E+0	1.456350E+0	1.403750E+0	1.584470E+0	1.557140E+0	1.550480E+0	1.666320E+0	1.651760E+0	1.629090E+0	1.717070E+0	1.710690E+0	1.821230E+0	1.787190E+0	1.920610E+0	1.915630E+0	1.594960E+0	1.582810E+0	1.658890E+0	1.611450E+0	1.837050E+0	1.772400E+0	1.912330E+0	1.892070E+0	1.527370E+0	1.603560E+0	1.704350E+0	1.629890E+0	1.650170E+0	1.767260E+0	1.856000E+0	1.863960E+0	1.484710E+0	1.523860E+0	1.663380E+0	1.534050E+0	1.840170E+0	1.751110E+0	2.012180E+0	1.779330E+0	1.592820E+0	1.593270E+0	1.794170E+0	1.612150E+0	1.750060E+0	1.755830E+0	1.889450E+0	1.704280E+0	1.466880E+0	1.458590E+0	1.637090E+0	1.419540E+0	1.765010E+0	1.636190E+0	1.930480E+0	1.731170E+0	1.605830E+0	1.428780E+0	1.646590E+0	1.679040E+0	1.802340E+0	1.558220E+0	1.783970E+0	1.888600E+0	1.480970E+0	1.524250E+0	1.683910E+0	1.482210E+0	1.710190E+0	1.733220E+0	1.959070E+0	1.646980E+0	1.562640E+0	1.526330E+0	1.772550E+0	1.498180E+0	1.685400E+0	1.648040E+0	1.936470E+0	1.801820E+0	1.355350E+0	1.376440E+0	1.648750E+0	1.589610E+0	1.549730E+0	1.645570E+0	1.846880E+0	1.815390E+0	1.525760E+0	1.573270E+0	1.555650E+0	1.615910E+0	1.756970E+0	1.694020E+0	1.613020E+0	1.817830E+0	1.531290E+0	1.488430E+0	1.522430E+0	1.641360E+0	1.817220E+0	1.735170E+0	1.799930E+0	1.937770E+0	1.608630E+0	1.614840E+0	1.730960E+0	1.660630E+0	1.725800E+0	1.755950E+0	1.909800E+0	1.835720E+0	1.427940E+0	1.536930E+0	1.701210E+0	1.603200E+0	1.695000E+0	1.799220E+0	2.044270E+0	1.848460E+0	1.500170E+0	1.666200E+0	1.813750E+0	1.708210E+0	1.564580E+0	1.793000E+0	1.960120E+0	1.915400E+0	1.342180E+0	1.559390E+0	1.652480E+0	1.661800E+0	1.615550E+0	1.769550E+0	1.957560E+0	1.944140E+0	1.459590E+0	1.594430E+0	1.713990E+0	1.602520E+0	1.641660E+0	1.738930E+0	1.788380E+0	1.705950E+0	1.451760E+0	1.541920E+0	1.572770E+0	1.457260E+0	1.680170E+0	1.808940E+0	1.760030E+0	1.683160E+0	1.463110E+0	1.636270E+0	1.682470E+0	1.511750E+0	1.661630E+0	1.793850E+0	1.853290E+0	1.715710E+0	1.367240E+0	1.571080E+0	1.620700E+0	1.429330E+0	1.560080E+0	1.879610E+0	1.810290E+0	1.596500E+0	1.472380E+0
2.800000E+3	1.417530E+0	1.387860E+0	1.454150E+0	1.401580E+0	1.581590E+0	1.554750E+0	1.547920E+0	1.663500E+0	1.649050E+0	1.626380E+0	1.714030E+0	1.707610E+0	1.818480E+0	1.784040E+0	1.916950E+0	1.913570E+0	1.592260E+0	1.580160E+0	1.656020E+0	1.608680E+0	1.833690E+0	1.769190E+0	1.909040E+0	1.888380E+0	1.523620E+0	1.600040E+0	1.701250E+0	1.626930E+0	1.647250E+0	1.762510E+0	1.852510E+0	1.860410E+0	1.482670E+0	1.520500E+0	1.659910E+0	1.531910E+0	1.836150E+0	1.747990E+0	2.007910E+0	1.776040E+0	1.591150E+0	1.590180E+0	1.790140E+0	1.609090E+0	1.746640E+0	1.752700E+0	1.885620E+0	1.700550E+0	1.464660E+0	1.456490E+0	1.634140E+0	1.417410E+0	1.762600E+0	1.633780E+0	1.926910E+0	1.728220E+0	1.603890E+0	1.426540E+0	1.643780E+0	1.676180E+0	1.799920E+0	1.555780E+0	1.781200E+0	1.885210E+0	1.479070E+0	1.521850E+0	1.681370E+0	1.480190E+0	1.707590E+0	1.730270E+0	1.955470E+0	1.644270E+0	1.560500E+0	1.523840E+0	1.769520E+0	1.495780E+0	1.682560E+0	1.645310E+0	1.932880E+0	1.798660E+0	1.353340E+0	1.374300E+0	1.647210E+0	1.587610E+0	1.547210E+0	1.642790E+0	1.843560E+0	1.812130E+0	1.523370E+0	1.570920E+0	1.552840E+0	1.613450E+0	1.754050E+0	1.691040E+0	1.610280E+0	1.814370E+0	1.528800E+0	1.486090E+0	1.520210E+0	1.638540E+0	1.813870E+0	1.732150E+0	1.796620E+0	1.934050E+0	1.606010E+0	1.612140E+0	1.727870E+0	1.657750E+0	1.722790E+0	1.752680E+0	1.905990E+0	1.832220E+0	1.425530E+0	1.534260E+0	1.698170E+0	1.600400E+0	1.691910E+0	1.795840E+0	2.040090E+0	1.844850E+0	1.497840E+0	1.663130E+0	1.810250E+0	1.705000E+0	1.561880E+0	1.789650E+0	1.956270E+0	1.911650E+0	1.441040E+0	1.552180E+0	1.648790E+0	1.657910E+0	1.629460E+0	1.765420E+0	1.953740E+0	1.940070E+0	1.457180E+0	1.591650E+0	1.710770E+0	1.599760E+0	1.638630E+0	1.735730E+0	1.784970E+0	1.702670E+0	1.449320E+0	1.539130E+0	1.570010E+0	1.468720E+0	1.676500E+0	1.805340E+0	1.756540E+0	1.742460E+0	1.457870E+0	1.632780E+0	1.678840E+0	1.595200E+0	1.654790E+0	1.789880E+0	1.848870E+0	1.748390E+0	1.363430E+0	1.568210E+0	1.617500E+0	1.463500E+0	1.555790E+0	1.875500E+0	1.806340E+0	1.734110E+0	1.463300E+0
3.100000E+3	1.410710E+0	1.385980E+0	1.452230E+0	1.399690E+0	1.578800E+0	1.552590E+0	1.545800E+0	1.661080E+0	1.646340E+0	1.623870E+0	1.711530E+0	1.705240E+0	1.813990E+0	1.781270E+0	1.914140E+0	1.908760E+0	1.588570E+0	1.577950E+0	1.653670E+0	1.606580E+0	1.829870E+0	1.766690E+0	1.905510E+0	1.885510E+0	1.523810E+0	1.598920E+0	1.698810E+0	1.624660E+0	1.644970E+0	1.762040E+0	1.849720E+0	1.857590E+0	1.482150E+0	1.520650E+0	1.657850E+0	1.531260E+0	1.835280E+0	1.744630E+0	2.004880E+0	1.772880E+0	1.585350E+0	1.587670E+0	1.784570E+0	1.606810E+0	1.743740E+0	1.749530E+0	1.882240E+0	1.697230E+0	1.464580E+0	1.453940E+0	1.634060E+0	1.414910E+0	1.757560E+0	1.630680E+0	1.922820E+0	1.724760E+0	1.599270E+0	1.424090E+0	1.640730E+0	1.673040E+0	1.796140E+0	1.552990E+0	1.777710E+0	1.881730E+0	1.472960E+0	1.519190E+0	1.675400E+0	1.477580E+0	1.704320E+0	1.726810E+0	1.951330E+0	1.640440E+0	1.556020E+0	1.521190E+0	1.765350E+0	1.493230E+0	1.679160E+0	1.642190E+0	1.928910E+0	1.795150E+0	1.351030E+0	1.372130E+0	1.641950E+0	1.583750E+0	1.544380E+0	1.639520E+0	1.839830E+0	1.808660E+0	1.520010E+0	1.564650E+0	1.547750E+0	1.609280E+0	1.750620E+0	1.687900E+0	1.607400E+0	1.810920E+0	1.526110E+0	1.483450E+0	1.514980E+0	1.635440E+0	1.810360E+0	1.728770E+0	1.793220E+0	1.930240E+0	1.603050E+0	1.609230E+0	1.724590E+0	1.654720E+0	1.719640E+0	1.749520E+0	1.902470E+0	1.828890E+0	1.423280E+0	1.531680E+0	1.695190E+0	1.597650E+0	1.689070E+0	1.792650E+0	2.036070E+0	1.841610E+0	1.495510E+0	1.660520E+0	1.806960E+0	1.702050E+0	1.559430E+0	1.786580E+0	1.952630E+0	1.908130E+0	1.464080E+0	1.548570E+0	1.645860E+0	1.654880E+0	1.631120E+0	1.762280E+0	1.950260E+0	1.936550E+0	1.454990E+0	1.589180E+0	1.707930E+0	1.597180E+0	1.636150E+0	1.732800E+0	1.781870E+0	1.699720E+0	1.447150E+0	1.536670E+0	1.567610E+0	1.466540E+0	1.673820E+0	1.802360E+0	1.753650E+0	1.739680E+0	1.455760E+0	1.630210E+0	1.676080E+0	1.592720E+0	1.652190E+0	1.786850E+0	1.845750E+0	1.745580E+0	1.361530E+0	1.565900E+0	1.615030E+0	1.461410E+0	1.553530E+0	1.872340E+0	1.803490E+0	1.731370E+0	1.461210E+0
3.400000E+3	1.409310E+0	1.383110E+0	1.448930E+0	1.396730E+0	1.575130E+0	1.548920E+0	1.542210E+0	1.657050E+0	1.642130E+0	1.619890E+0	1.707530E+0	1.701120E+0	1.809060E+0	1.776900E+0	1.909050E+0	1.908220E+0	1.584190E+0	1.574130E+0	1.649650E+0	1.602710E+0	1.824790E+0	1.761850E+0	1.900530E+0	1.884890E+0	1.515940E+0	1.592090E+0	1.692270E+0	1.619150E+0	1.638970E+0	1.753790E+0	1.846820E+0	1.852420E+0	1.474750E+0	1.513340E+0	1.653850E+0	1.525630E+0	1.827830E+0	1.741230E+0	2.003390E+0	1.771040E+0	1.585800E+0	1.582990E+0	1.783250E+0	1.603160E+0	1.739690E+0	1.746440E+0	1.876370E+0	1.693080E+0	1.458930E+0	1.451880E+0	1.628260E+0	1.412850E+0	1.756030E+0	1.631210E+0	1.919640E+0	1.722170E+0	1.598560E+0	1.422020E+0	1.638170E+0	1.670520E+0	1.796750E+0	1.550840E+0	1.776470E+0	1.880030E+0	1.474010E+0	1.517650E+0	1.676800E+0	1.477970E+0	1.703450E+0	1.723980E+0	1.947850E+0	1.638540E+0	1.555230E+0	1.518610E+0	1.763090E+0	1.491660E+0	1.677710E+0	1.639440E+0	1.925410E+0	1.792020E+0	1.349170E+0	1.369930E+0	1.642750E+0	1.584670E+0	1.541950E+0	1.636910E+0	1.836550E+0	1.805280E+0	1.518240E+0	1.565580E+0	1.548990E+0	1.609930E+0	1.747530E+0	1.684920E+0	1.604550E+0	1.807630E+0	1.523510E+0	1.481050E+0	1.514700E+0	1.632690E+0	1.807040E+0	1.725500E+0	1.789720E+0	1.926300E+0	1.600020E+0	1.606240E+0	1.721110E+0	1.651480E+0	1.716370E+0	1.745740E+0	1.898350E+0	1.824880E+0	1.420550E+0	1.528850E+0	1.691670E+0	1.594470E+0	1.685490E+0	1.788770E+0	2.031330E+0	1.837190E+0	1.492800E+0	1.658770E+0	1.802930E+0	1.698260E+0	1.556150E+0	1.782580E+0	1.948030E+0	1.903780E+0	1.461050E+0	1.545390E+0	1.642400E+0	1.651290E+0	1.627530E+0	1.758310E+0	1.945500E+0	1.931780E+0	1.451940E+0	1.585750E+0	1.703990E+0	1.593600E+0	1.632450E+0	1.728880E+0	1.777780E+0	1.695900E+0	1.444190E+0	1.533490E+0	1.564250E+0	1.463410E+0	1.670150E+0	1.798110E+0	1.749600E+0	1.735550E+0	1.452720E+0	1.626650E+0	1.672410E+0	1.589180E+0	1.648470E+0	1.782670E+0	1.841340E+0	1.741380E+0	1.358670E+0	1.562400E+0	1.611330E+0	1.458190E+0	1.550040E+0	1.867770E+0	1.798950E+0	1.727270E+0	1.458010E+0
