Photon Energy (eV)	#1	#2	#3	#4	#5	#6	#7	#8	#9	#10	#11	#12	#13	#14	#15	#16	#17	#18	#19	#20	#21	#22	#23	#24	#25	#26	#27	#28	#29	#30	#31	#32	#33	#34	#35	#36	#37	#38	#39	#40	#41	#42	#43	#44	#45	#46	#47	#48	#49	#50	#51	#52	#53	#54	#55	#56	#57	#58	#59	#60	#61	#62	#63	#64	#65	#66	#67	#68	#69	#70	#71	#72	#73	#74	#75	#76	#77	#78	#79	#80	#81	#82	#83	#84	#85	#86	#87	#88	#89	#90	#91	#92	#93	#94	#95	#96	#97	#98	#99	#100	#101	#102	#103	#104	#105	#106	#107	#108	#109	#110	#111	#112	#113	#114	#115	#116	#117	#118	#119	#120	#121	#122	#123	#124	#125	#126	#127	#128	#129	#130	#131	#132	#133	#134	#135	#136	#137	#138	#139	#140	#141	#142	#143	#144	#145	#146	#147	#148	#149	#150	#151	#152	#153	#154	#155	#156	#157	#158	#159	#160	#161	#162	#163	#164	#165	
5.300160E+2	7.557770E-3	-2.817077E-3	-4.950020E-3	-1.509967E-2	-2.745376E-3	-1.867352E-2	3.706391E-4	-1.281961E-2	-9.099197E-3	-9.640027E-4	-8.193922E-3	-4.752275E-3	3.349933E-4	-1.170263E-3	-6.405947E-3	-7.464989E-3	-5.476277E-3	-9.821420E-3	-1.333738E-2	-1.064271E-2	9.250424E-3	-1.918845E-3	-3.907226E-3	-6.157041E-3	-6.065804E-3	-5.296315E-3	-6.641938E-3	-4.103144E-3	-9.841129E-3	-4.473958E-3	-8.810734E-3	-8.137484E-3	-1.343465E-3	-1.188687E-2	-7.339379E-3	-7.273725E-3	-1.092616E-2	-1.300932E-3	-3.490409E-3	-8.649346E-3	-2.081948E-2	-6.226625E-3	-1.108545E-2	-4.751860E-3	-9.652595E-3	-1.683701E-2	-7.194983E-3	-9.240059E-3	-3.835995E-3	-4.194764E-3	7.718509E-4	-5.515231E-3	-6.184937E-3	2.538744E-4	-2.286190E-3	-9.895518E-3	-5.674179E-3	-1.164288E-2	-3.366882E-3	-7.397312E-3	-3.327478E-3	-9.691743E-3	-4.530022E-3	-3.566902E-4	2.142676E-3	-1.596529E-2	-5.570220E-3	-8.369670E-3	-1.728802E-3	-6.745632E-3	-4.598608E-3	-9.334480E-3	-8.411121E-3	2.416580E-4	-5.635246E-3	-2.348165E-3	-1.202294E-2	-2.376392E-3	-3.021761E-3	-4.030565E-3	-1.286459E-3	-2.882878E-3	-1.021033E-2	-1.191069E-2	-6.799861E-3	-1.096167E-2	-5.293511E-3	-8.032201E-3	-2.660181E-3	5.629722E-3	-1.272216E-2	-1.100376E-2	-1.054701E-2	-7.844243E-3	-3.970036E-3	-1.498160E-2	-1.584043E-2	-3.880779E-3	-1.173583E-2	-1.057492E-2	-5.150142E-3	-8.685827E-3	-1.032915E-2	-3.531521E-3	-8.902799E-3	-1.094575E-2	3.986629E-3	5.355720E-4	1.412892E-3	-5.596139E-3	-7.473350E-3	-2.587628E-3	-1.353597E-2	2.186414E-3	-1.068243E-2	-1.021269E-3	-8.353691E-3	-1.150220E-2	-6.287051E-3	-1.057738E-2	-5.282892E-3	-1.175526E-3	-5.832544E-3	-6.466389E-3	5.991120E-3	-2.664854E-3	-8.105592E-3	-3.141426E-3	-2.663223E-3	-1.421771E-3	-2.421108E-3	-8.165979E-3	9.072835E-3	2.470594E-3	-6.969468E-4	4.725265E-5	-6.594912E-3	-2.051796E-2	-3.883590E-4	2.312168E-3	-1.617128E-3	-2.245142E-3	-4.598864E-3	-8.200476E-3	-1.227203E-2	-4.657720E-3	-7.679963E-3	1.596130E-3	-8.766291E-3	-5.878783E-3	3.941867E-3	-1.387754E-2	-4.752303E-3	1.164880E-2	-4.724288E-3	-6.988284E-3	-1.211928E-2	-4.480097E-3	-4.666636E-3	-8.054745E-3	-1.202488E-2	-8.929731E-3	4.838119E-3	-9.997781E-3	-8.719813E-3
5.305130E+2	-3.966536E-3	-1.541625E-2	-6.543643E-3	5.703901E-5	-6.717264E-3	-5.632885E-5	-1.791533E-2	-9.158713E-3	-1.210293E-2	-3.275350E-3	4.619669E-3	-1.654649E-3	-7.097136E-3	-6.360654E-3	2.311879E-4	-3.121473E-4	-1.070684E-3	-9.917196E-4	-1.409053E-2	-8.226063E-3	-7.720485E-3	-1.138440E-2	-1.416861E-2	-1.207607E-2	4.471794E-3	-7.512404E-3	-2.255986E-3	-7.688015E-3	-3.355098E-3	-6.430966E-3	-1.150348E-2	2.930120E-3	-7.756141E-3	-6.755989E-3	-4.966886E-3	9.910212E-3	5.220478E-4	-4.077421E-3	-2.003415E-3	2.508758E-3	3.228546E-3	5.133771E-3	-1.001349E-2	-7.875179E-3	-2.253806E-3	-1.196137E-3	-7.434639E-3	2.168309E-3	-1.350479E-2	-5.003827E-3	-3.553476E-3	-2.346349E-3	-8.289911E-3	-1.103538E-2	-1.476940E-3	-7.021907E-3	8.108956E-4	-4.151808E-3	-4.906410E-3	-8.862128E-3	5.492939E-4	5.371342E-4	-9.269935E-3	-7.154256E-3	-9.488823E-3	-2.286619E-3	9.027433E-4	-1.192848E-2	-1.966594E-3	-1.002092E-2	-8.455936E-3	-8.002664E-3	-7.026801E-3	-1.257979E-2	-2.215540E-3	-1.050776E-2	-5.191778E-3	-1.086899E-2	-1.013383E-3	-5.737485E-3	-4.028234E-3	-1.472640E-3	-3.884917E-4	-3.838460E-3	-1.526221E-2	-6.920968E-3	-5.001780E-3	-4.325380E-3	-2.876614E-3	-8.395567E-3	-1.144186E-2	-7.055597E-3	3.802023E-4	1.350994E-3	5.563230E-4	-1.803984E-3	1.286721E-2	-8.643704E-3	-7.856467E-3	-3.581083E-3	-7.595941E-4	-1.809191E-3	-2.075065E-3	-4.253537E-3	-1.042204E-2	3.922428E-3	-9.304465E-4	-1.318767E-2	-3.281428E-3	-4.131318E-3	-6.239218E-3	-4.816792E-3	-4.832063E-3	-8.665279E-3	-4.427390E-3	-2.004161E-3	-4.768155E-3	-7.105529E-3	-7.546235E-4	8.825667E-4	-8.348098E-4	-4.277668E-3	-3.249440E-3	-5.332515E-3	-9.964927E-3	-9.258167E-3	-8.292310E-3	-1.244946E-2	-3.525034E-3	-3.003215E-4	-4.783793E-3	-1.367500E-3	-1.041867E-2	9.027040E-4	2.271667E-3	3.973691E-3	-1.289853E-2	-3.361499E-3	3.449505E-3	-1.124366E-2	-2.567693E-3	-1.002170E-2	-8.304752E-3	-3.551151E-3	-7.473924E-3	-9.683918E-3	-4.577014E-3	2.128499E-3	-5.963597E-3	2.200310E-3	-2.079691E-3	-3.005687E-3	-1.163291E-4	-1.657308E-2	-9.542380E-4	-1.169338E-2	-2.706197E-3	-7.167040E-3	-8.281075E-3	2.492868E-3	1.682498E-3	-6.303186E-4	-1.891748E-2	6.361542E-3	-6.669308E-3
5.310150E+2	-7.909313E-3	-3.235222E-4	-2.641503E-3	1.551673E-3	-6.802127E-3	-3.558739E-3	6.879402E-4	4.647653E-3	-6.165058E-3	-5.352133E-3	-2.596332E-3	1.610518E-3	-1.955663E-3	-2.672179E-3	-4.065951E-3	2.817810E-3	-5.694928E-3	-7.670488E-3	-5.159237E-3	-8.286011E-3	-2.927591E-3	-4.505552E-3	2.206162E-3	-7.695363E-4	-1.541770E-2	-6.299614E-3	-4.297265E-3	3.950037E-3	2.179852E-3	-2.089595E-3	-4.683231E-3	-5.749429E-3	2.440649E-3	-1.014029E-2	-6.095005E-4	-4.443430E-3	-6.814569E-3	-7.173394E-3	-3.394316E-4	-7.205894E-3	-3.608787E-3	-5.694346E-3	-5.865083E-3	-2.609450E-3	-1.244251E-3	-2.959988E-3	-3.668007E-3	1.002939E-3	-6.181864E-3	-8.895114E-3	-6.997679E-3	-8.426771E-3	-3.218256E-3	-4.189473E-3	-5.705329E-3	-3.835289E-4	-5.897733E-3	1.140894E-3	-3.048059E-3	-3.567410E-3	-8.457940E-3	-8.238807E-3	-4.542649E-4	-1.626936E-3	4.407093E-3	-6.232557E-3	6.806454E-3	-1.514177E-3	-3.736021E-3	-3.401857E-3	-1.954091E-3	2.835249E-3	1.355198E-3	-3.782196E-3	-3.662430E-3	-6.005270E-3	-6.945112E-3	-2.111947E-3	-1.553860E-3	-4.356698E-3	-6.475915E-3	9.801874E-4	-1.092718E-2	-9.772647E-3	-4.662918E-3	-2.783924E-3	-1.970843E-3	-1.249523E-2	-5.258891E-4	-8.679774E-4	-9.306167E-4	6.509250E-3	1.041605E-3	1.905967E-3	-9.787880E-3	-8.453120E-3	-7.089732E-3	-4.112472E-3	-1.863827E-3	-3.034939E-3	8.180033E-4	5.481131E-4	-8.661345E-4	-1.224982E-2	4.535243E-3	-3.948812E-3	2.278045E-3	2.147948E-3	3.608480E-4	-1.354616E-2	-9.387601E-3	4.057734E-4	1.333720E-3	-4.078109E-3	-1.878716E-3	-4.445846E-3	-5.911847E-3	-1.439000E-3	-1.416109E-3	-4.950776E-3	-1.456879E-3	-4.333222E-3	-5.379644E-3	-7.525492E-3	-4.470648E-3	5.603642E-3	-1.202839E-2	-1.010218E-2	-9.503933E-3	-4.578080E-3	2.331660E-3	-5.286508E-3	-1.370530E-3	-7.278274E-3	-1.796544E-3	-1.575588E-2	-1.139891E-2	-5.555401E-3	2.019685E-3	5.212976E-4	-6.225759E-3	-8.910143E-3	6.375085E-5	-1.778713E-3	2.790338E-3	-3.584105E-3	2.558660E-3	-2.738168E-3	3.700160E-5	-4.872171E-3	-7.043264E-3	-1.709448E-3	-2.550122E-3	-2.026770E-3	-8.366405E-3	-4.959380E-3	6.397632E-4	1.030778E-5	-4.991491E-3	-8.320548E-3	-6.380882E-3	-6.923931E-4	-5.368465E-3	-1.320521E-3	-1.255736E-2
5.315130E+2	1.880704E-3	-9.227471E-4	-2.548906E-3	-3.884562E-3	-1.022564E-4	6.521631E-4	7.728065E-3	4.040247E-3	9.712740E-3	-6.580206E-3	1.413323E-3	-4.978340E-3	5.977854E-3	-2.555628E-3	-4.485220E-3	-3.982510E-3	5.013107E-3	5.075138E-3	7.451412E-4	1.806279E-3	2.297304E-4	-3.320209E-3	-1.179849E-3	5.046412E-3	-4.738647E-4	-2.317731E-3	5.630294E-3	-1.026200E-2	4.567242E-3	-2.512201E-3	4.844480E-3	-1.859101E-3	-4.091093E-3	-4.066633E-3	7.990291E-4	-7.438137E-3	1.081903E-3	9.320954E-3	-9.211715E-3	2.008226E-3	-7.226161E-3	8.652110E-4	5.321135E-3	5.659357E-3	-1.694509E-3	-1.702922E-3	8.434366E-4	-4.942276E-4	-4.724715E-3	6.243773E-3	-6.885458E-3	2.245860E-3	-5.542651E-4	1.694227E-3	-3.791770E-3	-4.154286E-3	1.618108E-3	-4.875778E-3	4.525552E-3	-6.789228E-3	-3.582843E-3	4.041362E-3	-1.433361E-3	-2.592046E-3	-3.703143E-3	-4.113282E-3	-5.650522E-3	-3.997109E-3	-4.170487E-3	-2.067226E-3	8.318913E-3	1.270675E-3	-1.063097E-2	-3.668581E-3	2.065927E-3	-4.534414E-3	5.413311E-3	-1.986980E-3	9.327296E-4	3.353753E-3	-2.012683E-3	2.675331E-3	3.636947E-4	2.987431E-3	-4.131978E-4	-2.659711E-3	-1.253120E-2	2.358461E-3	1.150271E-3	-7.578849E-3	9.759725E-3	-4.996044E-4	-3.375717E-3	1.452391E-3	-6.407538E-3	2.093167E-3	-5.278536E-3	-1.308732E-2	-2.382244E-3	-2.909956E-3	-8.360370E-3	-5.856331E-3	2.279597E-3	-7.091284E-3	-4.255021E-3	-3.117571E-3	-4.698838E-3	6.137106E-4	1.150689E-3	-4.043230E-3	6.430993E-4	-8.644802E-3	-3.704159E-3	-3.934568E-3	-4.919610E-3	-7.874484E-3	-8.113394E-3	8.423570E-3	-3.169575E-3	-5.516819E-3	3.599955E-3	4.976680E-3	1.735421E-3	6.031300E-3	1.276403E-3	-6.887522E-3	-5.739508E-3	2.520740E-4	5.338174E-3	-8.660274E-3	-1.081753E-3	-1.077177E-2	-4.663618E-3	9.940990E-4	-9.552429E-4	-1.285777E-3	4.796890E-4	1.023026E-2	-1.428779E-2	-1.533918E-3	1.757216E-3	-7.650584E-3	-2.032617E-3	-2.252551E-3	-3.272011E-3	-4.822006E-3	-5.164278E-3	-1.015951E-3	3.212334E-3	-5.390718E-3	-7.532927E-3	-1.587267E-3	3.125646E-3	-5.742002E-3	-1.093309E-2	7.264872E-3	-1.933818E-3	-1.071430E-2	6.956989E-4	-1.156933E-2	-1.873492E-3	-9.632415E-3	1.064215E-2	7.028298E-4	-9.516917E-3
5.320070E+2	-8.405228E-3	1.140266E-2	7.018675E-3	-3.086724E-3	-3.013344E-3	4.787921E-3	-5.634310E-4	-3.329676E-4	2.967336E-3	3.471136E-3	1.439818E-3	3.786186E-3	1.440225E-3	-4.670603E-3	2.990743E-3	4.064781E-3	-7.090556E-3	-5.736092E-3	1.171916E-2	-1.290070E-3	-2.179168E-3	3.671931E-3	-4.082245E-3	3.945796E-3	-1.155125E-3	2.960269E-4	-5.466788E-3	-3.055104E-3	-7.764787E-3	4.094810E-3	-2.032403E-3	5.735710E-3	-8.913175E-3	5.245728E-3	-1.672064E-3	-1.200146E-3	-5.474722E-4	-1.304441E-2	-3.113953E-3	-7.536874E-3	1.114389E-3	-2.683551E-3	-1.938660E-3	-6.457183E-3	7.404012E-4	-4.613139E-4	-1.008850E-2	-3.742337E-3	5.429458E-3	7.790421E-5	4.516453E-3	-2.777483E-4	-1.066531E-3	1.234117E-3	-3.080734E-3	4.870635E-3	-5.781777E-3	1.390476E-3	-9.574026E-3	2.639956E-3	-1.002388E-2	-3.118971E-3	9.126732E-3	6.316409E-3	-5.593166E-3	5.842483E-3	-1.425417E-2	-7.271550E-5	-5.298881E-3	9.465243E-3	-5.350219E-3	-2.138645E-3	3.004669E-3	5.201526E-3	2.078575E-3	6.267180E-3	7.794603E-3	-8.266774E-3	-1.987235E-3	-9.089677E-3	2.982071E-3	-7.616879E-3	-2.690094E-3	-5.339095E-3	2.557025E-3	2.928655E-3	4.112524E-3	1.149272E-3	-5.817199E-3	-5.288317E-3	4.497278E-3	-3.996975E-3	-2.060434E-3	-5.585566E-3	-3.654177E-3	9.088898E-3	-1.022802E-3	1.229771E-2	-2.322510E-3	6.509499E-3	9.720151E-4	2.504906E-3	-2.522411E-3	9.779523E-3	-6.474712E-3	-2.387296E-3	-7.910399E-3	6.093649E-3	-8.005787E-3	9.506514E-3	2.251805E-3	2.457876E-3	-1.047304E-2	7.105681E-4	-2.963119E-3	-6.910567E-4	1.327472E-3	-3.539476E-3	5.847607E-3	5.758064E-3	-3.148116E-3	-6.573681E-4	-1.732211E-3	-7.582333E-3	-2.337922E-3	4.379101E-5	3.572684E-3	-4.631368E-4	-1.137782E-3	-1.553479E-3	-4.624935E-3	6.619888E-3	-1.760379E-4	-2.724879E-3	-4.905101E-3	-3.465761E-3	1.153644E-2	8.847828E-3	-1.902266E-3	-3.344280E-3	-1.765628E-3	8.471700E-3	1.395095E-3	4.204838E-4	1.361368E-2	-4.758930E-3	2.792302E-3	-1.364761E-3	-3.821871E-3	1.065491E-2	-1.303497E-3	9.394296E-3	-5.446400E-3	3.542062E-3	1.187480E-3	1.124905E-3	-8.035581E-3	1.401709E-3	1.877326E-4	3.951482E-3	-3.288361E-3	-2.354108E-3	4.655547E-4	-1.452193E-2	1.101685E-2
5.325070E+2	-6.576574E-4	-8.716214E-4	-2.518111E-3	1.691896E-3	5.805914E-3	8.932407E-3	8.473479E-4	1.288062E-2	-5.281658E-3	8.179574E-3	-6.334629E-3	-1.566351E-3	-3.757636E-3	7.180247E-3	5.691802E-3	-4.446884E-3	1.273195E-3	3.934804E-3	-1.128774E-3	1.500532E-2	1.508721E-3	6.923717E-3	2.999805E-3	6.263605E-3	8.791313E-3	3.555237E-3	1.093764E-2	8.732706E-3	3.525083E-3	8.495062E-4	6.165901E-3	-1.785243E-3	3.855690E-3	1.191877E-2	9.242177E-4	5.049547E-3	-1.623860E-3	2.782190E-3	7.099666E-3	1.415266E-2	8.636688E-3	5.234438E-3	1.534994E-2	-5.084833E-3	4.267898E-3	5.774992E-3	9.724926E-3	-1.994375E-3	1.088028E-2	5.133960E-3	1.877888E-3	3.034668E-3	9.803883E-3	6.428319E-3	1.008166E-2	-1.801557E-3	-1.300036E-3	8.922562E-3	-4.128985E-3	2.682325E-3	6.623291E-3	4.674103E-3	6.953931E-3	1.946415E-3	-1.105895E-3	7.199085E-3	3.022387E-3	8.439637E-3	1.171341E-3	7.698917E-3	6.728135E-4	3.072722E-3	1.061283E-2	5.976985E-3	6.334307E-3	6.986253E-3	2.045112E-3	8.151259E-3	-1.338591E-3	1.770862E-4	4.271893E-3	-2.018862E-3	1.107946E-2	1.018652E-2	9.688530E-3	1.575344E-3	6.544006E-3	6.123215E-3	1.233519E-3	6.900791E-3	-3.397488E-3	4.597029E-3	2.523619E-3	5.650043E-3	8.940825E-3	5.659501E-3	-1.842234E-3	7.798018E-3	9.147299E-3	-1.591301E-3	-4.315034E-3	2.552070E-3	1.382949E-2	3.095573E-3	1.291567E-2	3.363741E-3	3.125067E-3	-4.107381E-3	4.290911E-3	4.857328E-3	1.014206E-2	4.170518E-3	1.333772E-2	4.711773E-3	1.447558E-2	9.120764E-3	5.136463E-3	4.510847E-3	-5.034723E-3	8.773822E-3	3.022688E-3	5.036520E-3	1.018261E-2	9.904884E-4	-4.147291E-3	1.332537E-2	1.290022E-2	8.510355E-3	4.897060E-3	-1.021710E-4	1.487226E-2	3.463027E-3	-1.968806E-3	1.076113E-3	-3.531697E-3	-4.563416E-3	6.104763E-3	-1.091976E-3	-3.243824E-3	8.408501E-3	1.973265E-3	1.026184E-2	4.275400E-3	6.702979E-3	-9.831364E-6	6.983199E-3	2.877453E-3	-4.353753E-3	-6.064145E-3	-7.206544E-3	3.089704E-3	-2.866236E-3	-4.518824E-3	-1.037064E-3	5.276948E-3	4.196605E-3	1.664358E-2	-1.570441E-3	9.167361E-3	1.075785E-2	9.506508E-3	3.167633E-3	6.252764E-3	9.712356E-3	5.497225E-3
5.330180E+2	1.150026E-2	8.948556E-3	1.218351E-2	1.877035E-2	1.357445E-2	7.916100E-3	8.844765E-3	7.427744E-4	1.996877E-2	4.520983E-3	9.652072E-3	7.554911E-3	5.057363E-3	1.024908E-2	6.043385E-3	9.323938E-3	1.304614E-2	1.520978E-2	2.125162E-2	1.163326E-2	1.838368E-3	1.053335E-2	1.813196E-2	3.746838E-3	9.849386E-3	1.757480E-2	2.094038E-3	1.242552E-2	1.068884E-2	1.056240E-2	1.601947E-2	8.865427E-3	1.580753E-2	1.568528E-2	1.286458E-2	5.395680E-3	1.830811E-2	1.349301E-2	1.105926E-2	4.722467E-3	1.867480E-2	3.371101E-3	8.231618E-3	2.111915E-2	9.836862E-3	1.738238E-2	1.781776E-2	1.229975E-2	1.193763E-2	6.638066E-3	1.027042E-2	1.128557E-2	9.510019E-3	5.614319E-3	6.259308E-3	1.838616E-2	1.622472E-2	9.216534E-3	2.049881E-2	2.129380E-2	1.821955E-2	1.179692E-2	-3.930802E-4	3.467104E-3	1.334126E-2	1.555618E-2	1.474332E-2	1.744252E-2	1.572944E-2	5.071476E-3	1.136713E-2	1.229714E-2	1.109619E-2	8.610399E-3	1.034409E-3	1.014218E-2	8.906808E-3	1.745982E-2	7.982100E-3	1.968359E-2	6.549328E-3	1.033574E-2	1.277294E-2	1.768694E-2	1.489263E-2	1.882227E-2	1.414080E-2	1.522187E-2	9.496093E-3	9.600197E-3	1.423512E-2	1.144966E-2	1.203773E-2	3.070414E-3	1.432248E-2	8.397137E-3	1.820652E-2	9.628549E-3	1.701358E-2	1.518270E-2	1.679512E-2	1.074626E-2	-3.163217E-4	1.425107E-2	1.260366E-2	1.311326E-2	4.149943E-3	7.904176E-3	4.071875E-3	1.295301E-2	1.006321E-2	9.015054E-3	1.787380E-2	9.069201E-3	1.039569E-2	6.916053E-3	2.068315E-2	1.065179E-2	1.081447E-2	5.630526E-3	4.100053E-3	4.305834E-4	4.275810E-3	1.988494E-2	1.365327E-2	-1.622639E-4	1.769290E-2	1.739377E-2	6.594738E-3	1.661610E-2	-4.292335E-3	1.550885E-2	9.524828E-3	4.559645E-3	9.613864E-3	2.104989E-2	1.277145E-2	1.144875E-2	1.435305E-2	4.879890E-3	8.445729E-3	1.009402E-2	9.201987E-3	8.659428E-3	6.623782E-3	2.052348E-2	9.192839E-3	5.748004E-3	2.136657E-2	1.049300E-2	1.092781E-2	1.365188E-2	1.425833E-2	1.018805E-2	1.851359E-2	1.105467E-2	7.511539E-3	2.251986E-2	7.888410E-3	1.074242E-2	1.237861E-2	1.907133E-2	2.087359E-3	9.063500E-3	2.094932E-2
5.331630E+2	7.797256E-3	1.346046E-2	6.664919E-3	3.700994E-3	5.668983E-3	1.010202E-2	1.804083E-2	1.930294E-2	9.571170E-3	2.823338E-2	8.457306E-3	5.633092E-3	6.523392E-3	1.199732E-2	1.903932E-2	4.056652E-3	1.010700E-2	8.051367E-3	5.798604E-3	1.868970E-2	4.405630E-3	5.258395E-3	1.530911E-2	3.279091E-3	2.353653E-2	1.184167E-2	1.672869E-2	1.057792E-2	8.552257E-3	9.584412E-3	1.297931E-2	1.335405E-2	5.536947E-3	1.313600E-2	1.883566E-2	4.249850E-3	5.539158E-3	1.063482E-2	6.333399E-3	1.743343E-2	6.677315E-3	2.211654E-2	1.887369E-2	4.118928E-3	1.348662E-2	1.865002E-2	1.896660E-2	4.568938E-3	9.927772E-3	1.556237E-2	-1.784388E-3	1.139929E-2	5.607844E-4	2.270381E-2	2.096287E-2	1.571306E-2	9.508595E-3	2.311345E-2	1.177547E-2	6.418832E-3	1.024675E-3	6.874962E-3	4.157977E-3	1.083740E-2	9.733734E-3	8.403282E-3	1.021552E-2	2.428642E-2	2.594386E-2	9.518576E-3	1.398802E-2	9.023750E-3	9.077285E-3	2.069183E-2	2.388718E-2	6.902200E-3	1.908946E-2	-2.719357E-3	1.720707E-2	1.439396E-2	1.236142E-2	2.266584E-2	6.014261E-3	2.068791E-2	1.098653E-2	4.963864E-3	6.579143E-3	2.375652E-3	2.315004E-2	2.738177E-2	1.839579E-2	1.952074E-2	1.421773E-2	1.868498E-2	1.450625E-2	7.385130E-3	8.991056E-3	2.298988E-2	6.394874E-3	8.395085E-3	8.987994E-3	1.452352E-2	1.384829E-2	6.486933E-3	1.425808E-2	3.999523E-3	1.016760E-2	1.631871E-2	1.164316E-2	1.786754E-2	1.286832E-2	2.091909E-2	1.460515E-2	8.541093E-3	1.705296E-2	1.494758E-2	3.036096E-2	7.916720E-3	1.745199E-2	1.056522E-2	3.551119E-3	6.971671E-3	1.585156E-3	1.505529E-3	8.823184E-3	5.763331E-3	9.106053E-3	5.925454E-3	3.229024E-2	2.034001E-2	1.108532E-2	5.949284E-3	7.825519E-3	1.418766E-2	-1.726277E-3	1.662318E-2	1.684358E-2	1.446785E-2	1.103130E-2	1.289409E-2	1.654512E-2	1.895105E-2	1.504195E-2	1.761570E-2	2.992567E-2	2.484160E-2	1.729583E-2	1.502273E-2	2.277017E-2	9.335892E-3	1.605812E-2	5.054251E-3	2.968115E-2	5.655876E-3	-5.051605E-3	2.128864E-4	1.247591E-2	8.033349E-3	2.547484E-2	5.747149E-3	5.830960E-3	1.829322E-2	9.098271E-3	-1.783302E-3	6.201589E-3
5.333130E+2	1.342073E-2	-4.246934E-3	2.809234E-2	1.306228E-2	1.135325E-2	1.886259E-2	1.989247E-2	2.200429E-2	1.240245E-2	1.586371E-2	2.002654E-2	1.219196E-2	2.276852E-2	1.990859E-2	2.311044E-2	2.001387E-2	2.436992E-2	1.937096E-2	1.661239E-2	1.532542E-2	2.079598E-2	1.047023E-2	2.335847E-2	7.699867E-3	1.406294E-2	7.077817E-3	1.189265E-2	3.795599E-3	1.855319E-2	1.434634E-2	2.097468E-2	2.293269E-2	1.999503E-2	1.224611E-2	1.017988E-2	3.440961E-3	1.155684E-2	2.691981E-2	1.459974E-2	1.492904E-2	2.078448E-2	1.754396E-2	2.296613E-2	1.143727E-2	2.326236E-2	1.446181E-2	8.804136E-3	1.491519E-2	1.509444E-2	2.416956E-2	6.769313E-3	1.519218E-2	1.651351E-2	3.183098E-2	1.232645E-2	2.169198E-2	1.376038E-2	2.218321E-2	1.699472E-2	1.562751E-2	2.408402E-2	1.840852E-2	2.524738E-2	1.347559E-2	2.173327E-2	1.943239E-2	1.537096E-2	1.881590E-2	1.216823E-2	3.225609E-3	1.376409E-2	1.292421E-2	2.191495E-2	1.450121E-2	1.586032E-2	8.053745E-3	2.122887E-2	1.235240E-2	1.879845E-2	1.475173E-2	1.967000E-2	1.365602E-2	1.776420E-2	1.195988E-2	1.972490E-2	2.239144E-2	1.422044E-2	1.154218E-2	2.132300E-2	2.711469E-2	2.150499E-2	1.928379E-2	1.929080E-2	2.500410E-2	4.420538E-3	2.592223E-2	2.185185E-2	1.696697E-2	1.772500E-2	1.646335E-2	1.483854E-2	1.556582E-2	2.154385E-2	2.215421E-2	2.077468E-2	1.253508E-2	1.715317E-2	1.609920E-2	1.514882E-2	8.771677E-3	1.268136E-2	1.848571E-2	2.123072E-2	2.431491E-2	1.293254E-2	9.716971E-4	1.745815E-2	1.521867E-2	1.723104E-2	1.214764E-2	1.363464E-2	2.172105E-2	1.265428E-2	1.587093E-2	5.509911E-3	3.631061E-2	1.390400E-2	1.367749E-2	1.929032E-2	2.364658E-2	1.958032E-2	1.674771E-2	1.809899E-2	2.031359E-2	1.156723E-2	2.158431E-2	2.053272E-2	1.783140E-2	1.498179E-2	8.758907E-3	1.877603E-2	1.874193E-2	3.013447E-2	1.948479E-2	1.845685E-2	2.320639E-2	8.472163E-3	8.296416E-3	3.115102E-2	1.945009E-2	8.392977E-3	1.856646E-2	2.779691E-2	1.553363E-2	1.506456E-2	2.192327E-2	1.088243E-2	1.271280E-2	1.570494E-2	1.183919E-2	1.450777E-2	1.624101E-2	2.150357E-2	2.307663E-2	2.383245E-2
5.334630E+2	3.321601E-2	1.176811E-2	2.565932E-2	1.213509E-2	6.126887E-3	2.238374E-2	1.080100E-2	1.162862E-2	2.607156E-2	1.591874E-2	1.287656E-2	8.807123E-3	2.022182E-2	3.051144E-2	3.149884E-2	7.773374E-3	1.133784E-2	2.015125E-2	1.148732E-2	2.874225E-2	1.662902E-2	1.332552E-2	2.180225E-2	2.919973E-2	2.193752E-2	1.496767E-2	2.257474E-2	1.241110E-2	3.481872E-2	1.787432E-2	7.732273E-3	2.595408E-2	1.216521E-2	1.569341E-2	2.592612E-2	2.804543E-2	1.737710E-2	1.842336E-2	2.631841E-2	2.259430E-2	3.486589E-4	3.424782E-2	2.130485E-2	1.972281E-2	2.764994E-2	3.123918E-2	2.506780E-2	2.635940E-2	3.095685E-2	2.627078E-2	2.718041E-2	2.531669E-2	2.123837E-2	1.907796E-2	1.671772E-2	2.310037E-2	9.975032E-3	1.742219E-2	2.526902E-2	1.708789E-2	2.977422E-2	2.482111E-2	1.306372E-2	2.147199E-2	1.223989E-2	1.290936E-2	2.485428E-2	1.957954E-2	1.896429E-2	1.927100E-2	2.119377E-2	2.715447E-2	2.051491E-2	2.124337E-2	1.940964E-2	6.012510E-3	2.202953E-2	1.946279E-2	2.016871E-2	2.487829E-2	1.349754E-2	9.473974E-3	2.482198E-2	1.192733E-2	1.938643E-2	1.537978E-2	1.974090E-2	1.910189E-2	2.213759E-2	1.870727E-2	2.767262E-2	2.442382E-2	2.140918E-2	1.202970E-2	1.894080E-2	1.968027E-2	9.882359E-3	2.575004E-2	3.007166E-2	1.341005E-2	3.197403E-2	1.514017E-2	3.587208E-2	1.614080E-2	2.912843E-2	1.469893E-2	1.788685E-2	1.614225E-2	9.044960E-3	1.903228E-2	2.512906E-2	2.716038E-2	3.031575E-2	2.041988E-2	1.693832E-2	3.469222E-2	3.289183E-2	1.128610E-2	2.126016E-2	2.314051E-2	3.289055E-3	3.189007E-2	2.048157E-2	9.306848E-3	1.627396E-2	2.320037E-2	1.399175E-2	2.298318E-2	3.699463E-2	2.305821E-2	3.061245E-2	1.951084E-2	2.019358E-2	2.361608E-2	2.318792E-2	2.532452E-2	1.576907E-2	3.020178E-2	2.198919E-2	1.605536E-2	2.018286E-2	2.302694E-2	1.100282E-2	2.029266E-2	2.132181E-2	1.286587E-2	1.448170E-2	1.490217E-2	1.340483E-2	1.175798E-2	1.662411E-2	2.122476E-2	8.394004E-3	2.337279E-2	1.991139E-2	1.982002E-2	2.410573E-2	2.265105E-2	2.267948E-2	2.412307E-2	1.603469E-2	1.140360E-2	1.768318E-2	2.547608E-2	6.678936E-3
5.336130E+2	9.170533E-3	1.809571E-2	2.617595E-2	1.267249E-2	2.147238E-2	2.835298E-2	2.739478E-2	1.730712E-2	2.348686E-2	2.715979E-2	3.501467E-2	3.850525E-2	2.988908E-2	2.042266E-2	1.665257E-2	2.544384E-2	3.180035E-2	2.232069E-2	1.841573E-2	2.401627E-2	2.440339E-2	2.828874E-2	3.224453E-2	3.930962E-2	3.099965E-2	8.810568E-3	3.887540E-2	2.538272E-2	3.392825E-2	2.651250E-2	2.660340E-2	3.116037E-2	2.299783E-2	2.415802E-2	4.002256E-2	2.713182E-2	1.656358E-2	3.291169E-2	2.421829E-2	2.819156E-2	9.288484E-3	1.522757E-2	1.923627E-2	3.186419E-2	2.325951E-2	2.417047E-2	3.661782E-2	2.950199E-2	1.370072E-2	3.177610E-2	1.604637E-2	2.642296E-2	1.837257E-2	3.693883E-2	2.423334E-2	2.338315E-2	3.084002E-2	2.479164E-2	2.233585E-2	2.236890E-2	2.773969E-2	2.511373E-2	2.913432E-2	2.568576E-2	1.838910E-2	1.461214E-2	3.797803E-2	3.105285E-2	3.353086E-2	1.772159E-2	2.020999E-2	2.146894E-2	2.100248E-2	2.240449E-2	3.265275E-2	1.325805E-2	3.182073E-2	3.448301E-2	1.676418E-2	3.447521E-2	3.596285E-2	1.068573E-2	3.332535E-2	2.232964E-2	2.164413E-2	1.781837E-2	3.323928E-2	2.625943E-2	3.064502E-2	3.223811E-2	2.398060E-2	8.187463E-3	3.308247E-2	3.566278E-2	2.086283E-2	1.820882E-2	2.641403E-2	4.399392E-2	3.512940E-2	2.967461E-2	2.842004E-2	1.667171E-2	3.550159E-2	2.041538E-2	2.578759E-2	3.531960E-2	1.562710E-2	6.159971E-3	3.675519E-2	1.814992E-2	2.270684E-2	1.786031E-2	2.997133E-2	3.954782E-2	1.730276E-2	3.499913E-2	3.001301E-2	2.438033E-2	2.486828E-2	2.824065E-2	2.165710E-2	3.369391E-2	3.149152E-2	2.967312E-2	2.036750E-2	2.525667E-2	3.630771E-2	3.653765E-2	4.474597E-2	2.131022E-2	2.734590E-2	2.117356E-2	1.615592E-2	3.605936E-2	1.337290E-2	3.949620E-2	2.891713E-2	2.913509E-2	1.960646E-2	4.217649E-2	2.297483E-2	1.924393E-2	2.104312E-2	2.107565E-2	2.173262E-2	2.859623E-2	2.020685E-2	1.462385E-2	1.872269E-2	2.317967E-2	2.446930E-2	2.156333E-2	2.589812E-2	2.147309E-2	2.301313E-2	2.097516E-2	2.863094E-2	2.297649E-2	2.919253E-2	2.555292E-2	3.138309E-2	3.046697E-2	3.354514E-2	3.461753E-2	2.438164E-2
5.337840E+2	3.050077E-2	3.024229E-2	4.161194E-2	2.956585E-2	3.198790E-2	4.398936E-2	3.184825E-2	3.087905E-2	3.779668E-2	3.616927E-2	2.733101E-2	3.132077E-2	3.154731E-2	3.957738E-2	3.912059E-2	3.289221E-2	3.434269E-2	4.224659E-2	2.906341E-2	3.120178E-2	3.572983E-2	3.138973E-2	2.340346E-2	3.851898E-2	4.620007E-2	3.135081E-2	3.312704E-2	2.624096E-2	2.674184E-2	2.849028E-2	3.387222E-2	4.312079E-2	4.123999E-2	2.368335E-2	2.598049E-2	2.678849E-2	2.313834E-2	2.629575E-2	3.380812E-2	2.839960E-2	2.618797E-2	3.431713E-2	3.715352E-2	3.988552E-2	3.317312E-2	3.721109E-2	2.692008E-2	2.799813E-2	2.621670E-2	3.271389E-2	3.811357E-2	5.177328E-2	2.705419E-2	3.902767E-2	2.754702E-2	3.091247E-2	2.417471E-2	3.204976E-2	3.287337E-2	3.626757E-2	2.078179E-2	4.743008E-2	4.410866E-2	3.204683E-2	2.875237E-2	2.451926E-2	3.815695E-2	3.568826E-2	3.785059E-2	4.200209E-2	3.113351E-2	4.034931E-2	2.637014E-2	4.128281E-2	4.568260E-2	2.707077E-2	4.101758E-2	2.630453E-2	3.306828E-2	3.142847E-2	3.173851E-2	2.984454E-2	2.823915E-2	3.379872E-2	2.233468E-2	1.923023E-2	3.825935E-2	3.334144E-2	3.148624E-2	3.387224E-2	2.878421E-2	2.777515E-2	5.232566E-2	4.557490E-2	4.060596E-2	3.437079E-2	3.908214E-2	4.224996E-2	4.126800E-2	4.141092E-2	2.662165E-2	3.081992E-2	3.946424E-2	3.211231E-2	4.496363E-2	2.726498E-2	2.687920E-2	3.675755E-2	3.456537E-2	3.814326E-2	2.830369E-2	3.163108E-2	3.981601E-2	4.179266E-2	3.120039E-2	2.587778E-2	4.174708E-2	2.163141E-2	3.420582E-2	3.758862E-2	3.290410E-2	3.746689E-2	3.090411E-2	2.851246E-2	3.826135E-2	3.959062E-2	4.480535E-2	4.286016E-2	3.818944E-2	3.581657E-2	4.068016E-2	4.040124E-2	2.634437E-2	2.340885E-2	2.639250E-2	4.221496E-2	2.413943E-2	3.287385E-2	3.719076E-2	3.514138E-2	4.425484E-2	3.240491E-2	2.354377E-2	3.445963E-2	3.098953E-2	4.165528E-2	3.639276E-2	2.790247E-2	4.076219E-2	3.595789E-2	3.662537E-2	3.370364E-2	3.400131E-2	5.001156E-2	3.407076E-2	4.772390E-2	4.345476E-2	3.242016E-2	3.515694E-2	4.382824E-2	3.228331E-2	3.779603E-2	3.442791E-2	2.594837E-2	3.124790E-2
5.339090E+2	3.495060E-2	1.670740E-2	3.814501E-2	3.073561E-2	2.599825E-2	2.547083E-2	3.029446E-2	3.414510E-2	4.304321E-2	4.561953E-2	3.647673E-2	4.075524E-2	3.549354E-2	3.830562E-2	3.459348E-2	3.109040E-2	4.852736E-2	3.604740E-2	3.946126E-2	4.130026E-2	4.069976E-2	4.279924E-2	2.625616E-2	2.678944E-2	3.527048E-2	3.984735E-2	3.848987E-2	4.021488E-2	4.449244E-2	4.363081E-2	4.788601E-2	4.191957E-2	4.268022E-2	4.959180E-2	3.244533E-2	3.762329E-2	3.124185E-2	4.601178E-2	4.474554E-2	4.156954E-2	3.163457E-2	3.416611E-2	3.824007E-2	3.555933E-2	3.222359E-2	3.231495E-2	4.307554E-2	3.918459E-2	4.688107E-2	4.728386E-2	4.283231E-2	4.139595E-2	4.602693E-2	4.406727E-2	4.618903E-2	4.180998E-2	3.684602E-2	2.348672E-2	4.717055E-2	3.193112E-2	3.821733E-2	4.490673E-2	2.803505E-2	3.457353E-2	4.219920E-2	3.567028E-2	5.151058E-2	3.416451E-2	4.064392E-2	3.126080E-2	3.946633E-2	4.306757E-2	3.458963E-2	3.956160E-2	4.546947E-2	3.790336E-2	4.185252E-2	3.965287E-2	3.228145E-2	2.681290E-2	3.409555E-2	3.359712E-2	4.326832E-2	4.842869E-2	2.574062E-2	3.900157E-2	5.562317E-2	4.699354E-2	3.448567E-2	3.058806E-2	4.078283E-2	5.745228E-2	5.276961E-2	3.995321E-2	3.037430E-2	3.241626E-2	4.181111E-2	2.734087E-2	3.076225E-2	3.608659E-2	4.099326E-2	2.942622E-2	3.002517E-2	3.482510E-2	5.008175E-2	1.907334E-2	2.803689E-2	3.238721E-2	4.002981E-2	3.314748E-2	2.654453E-2	4.224248E-2	4.377929E-2	4.024424E-2	3.694189E-2	2.438907E-2	3.834390E-2	3.260675E-2	3.993919E-2	3.317497E-2	4.038691E-2	4.377176E-2	4.070766E-2	4.645203E-2	5.578004E-2	4.001406E-2	3.259032E-2	3.087684E-2	4.889950E-2	5.150919E-2	3.238375E-2	4.021839E-2	3.746300E-2	4.573302E-2	4.467886E-2	2.744560E-2	4.229637E-2	3.342261E-2	3.349710E-2	4.427136E-2	3.661927E-2	4.463909E-2	3.780605E-2	3.641628E-2	3.660930E-2	4.076838E-2	4.360753E-2	4.756811E-2	3.872595E-2	3.775317E-2	3.077711E-2	4.870570E-2	3.299566E-2	4.898823E-2	4.349954E-2	2.676465E-2	4.534690E-2	3.354822E-2	3.557822E-2	2.334657E-2	3.358217E-2	4.623669E-2	2.725073E-2	3.531643E-2	5.217910E-2
5.340640E+2	4.139525E-2	4.676884E-2	5.887619E-2	4.624415E-2	4.714073E-2	5.632477E-2	4.132556E-2	5.041761E-2	5.570259E-2	4.947815E-2	5.486802E-2	4.459134E-2	6.852010E-2	4.919784E-2	5.517842E-2	5.563414E-2	6.217748E-2	5.810419E-2	7.489118E-2	7.507124E-2	6.551782E-2	5.262639E-2	6.572500E-2	5.467226E-2	5.536204E-2	5.225160E-2	5.700667E-2	6.812604E-2	5.447485E-2	6.203499E-2	5.282695E-2	5.566512E-2	5.866530E-2	5.707537E-2	4.412808E-2	4.377148E-2	3.684898E-2	5.966435E-2	6.012089E-2	5.376970E-2	4.957195E-2	5.827506E-2	4.692119E-2	6.613261E-2	5.869559E-2	5.901910E-2	6.506327E-2	5.392024E-2	4.342805E-2	5.805109E-2	6.115407E-2	6.221035E-2	5.467168E-2	6.592745E-2	6.251297E-2	4.282970E-2	4.931261E-2	7.603223E-2	6.494180E-2	6.750605E-2	4.824643E-2	4.983561E-2	6.712153E-2	5.028409E-2	6.800253E-2	5.960127E-2	6.148967E-2	5.652089E-2	4.819134E-2	4.471516E-2	5.272355E-2	6.415538E-2	6.214839E-2	5.739665E-2	4.804152E-2	5.076874E-2	5.724584E-2	5.364964E-2	7.753302E-2	6.788403E-2	6.066779E-2	5.988559E-2	6.726151E-2	5.681745E-2	6.614753E-2	6.087369E-2	5.422997E-2	5.439431E-2	5.569715E-2	5.121332E-2	6.358295E-2	5.783081E-2	4.922263E-2	5.125471E-2	5.766563E-2	5.128587E-2	5.705447E-2	7.000230E-2	5.580158E-2	6.612775E-2	4.805052E-2	5.064276E-2	5.147519E-2	5.083336E-2	7.116115E-2	5.381781E-2	6.424296E-2	5.376465E-2	5.052318E-2	4.803623E-2	5.269913E-2	5.463507E-2	5.046341E-2	5.487573E-2	4.460814E-2	5.481792E-2	6.775172E-2	6.236725E-2	6.937357E-2	6.461712E-2	4.992914E-2	4.781616E-2	6.762923E-2	4.825568E-2	6.010483E-2	6.230128E-2	6.852993E-2	4.422125E-2	7.054015E-2	7.154293E-2	4.530672E-2	6.507256E-2	4.608043E-2	6.872098E-2	5.610526E-2	5.597632E-2	5.550513E-2	6.888737E-2	5.500771E-2	7.546358E-2	4.823544E-2	5.809800E-2	6.485386E-2	6.480399E-2	5.562261E-2	8.005448E-2	5.684827E-2	4.603849E-2	5.613013E-2	6.187531E-2	5.458454E-2	5.106801E-2	6.115137E-2	7.083790E-2	6.459632E-2	5.168041E-2	5.981077E-2	4.451535E-2	4.628593E-2	5.225932E-2	7.776700E-2	6.722520E-2	6.264695E-2	5.962876E-2	3.447589E-2
5.342040E+2	7.040025E-2	7.040114E-2	4.648509E-2	6.339846E-2	8.142209E-2	6.680215E-2	6.393161E-2	6.190735E-2	7.742303E-2	8.727108E-2	7.004392E-2	6.718726E-2	7.575405E-2	6.952764E-2	8.348638E-2	7.416974E-2	1.016396E-1	8.889172E-2	6.217354E-2	9.478756E-2	8.500017E-2	8.294057E-2	7.639534E-2	7.913630E-2	7.076804E-2	6.077249E-2	8.831423E-2	6.862063E-2	7.183989E-2	7.597221E-2	8.167209E-2	7.940983E-2	9.510728E-2	6.994335E-2	6.257818E-2	7.629272E-2	7.429166E-2	6.706685E-2	8.222735E-2	7.879026E-2	7.259793E-2	7.208878E-2	7.907828E-2	7.785486E-2	6.799010E-2	6.238664E-2	7.839198E-2	7.245712E-2	9.046227E-2	7.673588E-2	7.136392E-2	9.062828E-2	7.454313E-2	8.410272E-2	6.611023E-2	8.671127E-2	7.361571E-2	7.439245E-2	6.348165E-2	8.606729E-2	6.533944E-2	9.020536E-2	6.757933E-2	9.325583E-2	8.131024E-2	6.233553E-2	6.818340E-2	7.449760E-2	7.027602E-2	7.123756E-2	7.833593E-2	8.299660E-2	8.117064E-2	7.906392E-2	8.760916E-2	8.114125E-2	7.196459E-2	8.342308E-2	8.584309E-2	6.779343E-2	8.013883E-2	7.672230E-2	8.621293E-2	8.322841E-2	7.137774E-2	7.145248E-2	7.412522E-2	7.130236E-2	6.914335E-2	6.353984E-2	8.784860E-2	7.725948E-2	1.030433E-1	6.988869E-2	7.155918E-2	7.680697E-2	7.169450E-2	7.659608E-2	6.527211E-2	8.208498E-2	7.514017E-2	9.093472E-2	7.428225E-2	7.321890E-2	9.008447E-2	6.978493E-2	8.134887E-2	9.208228E-2	7.242941E-2	6.785838E-2	7.515125E-2	8.411701E-2	8.932043E-2	1.028523E-1	8.477334E-2	6.270505E-2	7.211841E-2	8.573649E-2	8.175053E-2	6.813464E-2	7.285840E-2	8.102124E-2	7.392077E-2	7.102347E-2	7.775682E-2	8.997661E-2	8.744591E-2	7.432316E-2	7.586488E-2	6.704368E-2	7.027736E-2	6.428225E-2	7.552896E-2	6.472589E-2	6.693845E-2	7.463537E-2	7.214326E-2	7.240270E-2	8.092885E-2	7.599746E-2	6.431830E-2	8.045513E-2	7.746244E-2	7.366990E-2	6.978153E-2	6.578016E-2	6.682892E-2	9.102659E-2	6.982893E-2	5.451062E-2	7.913921E-2	6.238298E-2	8.712832E-2	9.204043E-2	7.891825E-2	7.609003E-2	7.369132E-2	8.230245E-2	7.940234E-2	6.264305E-2	7.458264E-2	8.574821E-2	6.601783E-2	9.297389E-2	1.040132E-1
5.343550E+2	1.092234E-1	9.507760E-2	1.183265E-1	1.010864E-1	1.019459E-1	9.961480E-2	1.097342E-1	1.109658E-1	1.002809E-1	9.158718E-2	8.890463E-2	9.568021E-2	1.082528E-1	9.656247E-2	1.068953E-1	9.168193E-2	1.782912E-1	1.279894E-1	1.168615E-1	1.326941E-1	9.511788E-2	1.180272E-1	1.088208E-1	1.332866E-1	1.144123E-1	1.065789E-1	1.132186E-1	1.106473E-1	1.166595E-1	1.367312E-1	1.072659E-1	1.072623E-1	1.150160E-1	9.425021E-2	1.294657E-1	1.107092E-1	1.141815E-1	1.355534E-1	1.386512E-1	1.197982E-1	1.123711E-1	1.066125E-1	1.214933E-1	1.089519E-1	1.141434E-1	1.187412E-1	1.045683E-1	1.044700E-1	8.955318E-2	1.080197E-1	1.039813E-1	1.168753E-1	1.031059E-1	1.228190E-1	1.064297E-1	8.938895E-2	1.104391E-1	1.014652E-1	1.221362E-1	1.008196E-1	1.084679E-1	1.078578E-1	1.114535E-1	1.292215E-1	9.823377E-2	1.159844E-1	1.093056E-1	1.013308E-1	1.257127E-1	1.020438E-1	1.193830E-1	1.227697E-1	1.039933E-1	1.371389E-1	1.044273E-1	1.036871E-1	9.308014E-2	1.367345E-1	1.098370E-1	1.068841E-1	1.161782E-1	1.096347E-1	1.186601E-1	1.014498E-1	9.965262E-2	1.167831E-1	1.105052E-1	1.239628E-1	1.117496E-1	1.141639E-1	1.077459E-1	1.332692E-1	1.046683E-1	1.146115E-1	1.279116E-1	1.156973E-1	1.002683E-1	1.309251E-1	9.285035E-2	1.291523E-1	9.398035E-2	1.123447E-1	9.698245E-2	1.079062E-1	1.248128E-1	9.997723E-2	1.330964E-1	1.191064E-1	1.100456E-1	9.973490E-2	1.183931E-1	1.006020E-1	9.155578E-2	1.121019E-1	1.050091E-1	1.017996E-1	1.242525E-1	9.738504E-2	1.285520E-1	1.131609E-1	1.244487E-1	1.181908E-1	1.100535E-1	1.050712E-1	1.139202E-1	1.232388E-1	9.284828E-2	1.150332E-1	1.249360E-1	1.145372E-1	1.111836E-1	1.016343E-1	1.126603E-1	1.057331E-1	1.126755E-1	1.128145E-1	1.316944E-1	1.048167E-1	8.737158E-2	1.125490E-1	1.046708E-1	1.112452E-1	1.146330E-1	1.113785E-1	1.115722E-1	1.085326E-1	1.138103E-1	9.668870E-2	1.163045E-1	1.236020E-1	1.222229E-1	1.143692E-1	1.150847E-1	1.105017E-1	1.103283E-1	1.204319E-1	1.119660E-1	1.171326E-1	1.040386E-1	1.217067E-1	1.202911E-1	1.127344E-1	9.330015E-2	1.365095E-1	7.826118E-2
5.345160E+2	1.720089E-1	1.697569E-1	1.845321E-1	1.320505E-1	1.622908E-1	1.608108E-1	1.517082E-1	1.561345E-1	1.629408E-1	1.490625E-1	1.605816E-1	1.878250E-1	1.614129E-1	1.699570E-1	1.783971E-1	1.523856E-1	2.274311E-1	2.244328E-1	1.898195E-1	1.912409E-1	1.740866E-1	1.741494E-1	1.893342E-1	1.879099E-1	1.871098E-1	1.722487E-1	1.830907E-1	1.927871E-1	1.725385E-1	1.926280E-1	1.687053E-1	1.871275E-1	1.795755E-1	1.701407E-1	1.919590E-1	1.764682E-1	1.664541E-1	1.795180E-1	1.876474E-1	1.927188E-1	1.745195E-1	1.732944E-1	1.766916E-1	1.819649E-1	1.826484E-1	1.664688E-1	1.690698E-1	1.493162E-1	1.729293E-1	1.585633E-1	1.771551E-1	1.859098E-1	1.754543E-1	1.868710E-1	1.714093E-1	1.584766E-1	1.638889E-1	1.940306E-1	1.701697E-1	1.590756E-1	1.658804E-1	1.675034E-1	1.641616E-1	1.750072E-1	1.888042E-1	1.844697E-1	1.901502E-1	1.874443E-1	1.652095E-1	1.707860E-1	1.877137E-1	1.815689E-1	1.719700E-1	1.991952E-1	1.828156E-1	1.733060E-1	1.683344E-1	1.711361E-1	1.936855E-1	1.787840E-1	1.904674E-1	1.857098E-1	1.660650E-1	1.869729E-1	1.752562E-1	1.566363E-1	1.901167E-1	1.652395E-1	1.716235E-1	1.939425E-1	1.878846E-1	1.847027E-1	1.715571E-1	1.696216E-1	1.639193E-1	1.703321E-1	1.850956E-1	1.869075E-1	1.978535E-1	1.856152E-1	1.668887E-1	1.941593E-1	1.733485E-1	1.720961E-1	1.616851E-1	1.750684E-1	1.637419E-1	1.621563E-1	1.853896E-1	1.782262E-1	1.719205E-1	1.689357E-1	1.806531E-1	1.715876E-1	1.648106E-1	1.522350E-1	1.656532E-1	1.669886E-1	1.962354E-1	1.824033E-1	1.806000E-1	1.592675E-1	1.755848E-1	1.694743E-1	1.690956E-1	1.524682E-1	1.695766E-1	1.649849E-1	1.762225E-1	1.720812E-1	1.794865E-1	1.653403E-1	1.733925E-1	1.868297E-1	1.823424E-1	1.924963E-1	1.684134E-1	1.893508E-1	1.773942E-1	1.931850E-1	1.710678E-1	1.964538E-1	1.757679E-1	1.719195E-1	1.625173E-1	1.803486E-1	1.605140E-1	1.768338E-1	1.743928E-1	1.718759E-1	1.819943E-1	1.743269E-1	1.757384E-1	1.884732E-1	1.830402E-1	1.944304E-1	1.746468E-1	1.702317E-1	1.645547E-1	1.679278E-1	1.679519E-1	1.831561E-1	1.814222E-1	1.555271E-1	1.483622E-1
5.346670E+2	2.646318E-1	2.220113E-1	2.852413E-1	2.575020E-1	2.471658E-1	2.135376E-1	2.646004E-1	2.914374E-1	2.430521E-1	2.544699E-1	2.435929E-1	2.507104E-1	2.802169E-1	2.531866E-1	2.891738E-1	2.560832E-1	4.042971E-1	3.199402E-1	2.892395E-1	3.258774E-1	3.024687E-1	2.897826E-1	2.684892E-1	3.226168E-1	3.065601E-1	2.727881E-1	3.051645E-1	3.003904E-1	2.821840E-1	2.780063E-1	2.942868E-1	3.019692E-1	2.669274E-1	3.065982E-1	2.729630E-1	2.550414E-1	2.648449E-1	3.262457E-1	2.905178E-1	2.979938E-1	2.848536E-1	2.827312E-1	2.866510E-1	2.688705E-1	2.473140E-1	2.730352E-1	2.962089E-1	2.917932E-1	2.811425E-1	3.018548E-1	2.894328E-1	2.725716E-1	2.593688E-1	2.794658E-1	2.733853E-1	2.604578E-1	2.698247E-1	2.799292E-1	2.677952E-1	3.082764E-1	2.856669E-1	2.805378E-1	2.827565E-1	2.718661E-1	2.804269E-1	2.753159E-1	2.838548E-1	2.868649E-1	2.613902E-1	2.854778E-1	2.855000E-1	2.800986E-1	2.751710E-1	3.118853E-1	3.039634E-1	2.881641E-1	2.548767E-1	2.747465E-1	2.815858E-1	2.803128E-1	2.531418E-1	2.824032E-1	2.786483E-1	2.888053E-1	2.569551E-1	3.033386E-1	2.717374E-1	2.663285E-1	2.993572E-1	2.854267E-1	2.937231E-1	2.845029E-1	2.779701E-1	2.582333E-1	2.761242E-1	2.802316E-1	2.867339E-1	2.735821E-1	2.653757E-1	2.763262E-1	2.634630E-1	2.579038E-1	2.563135E-1	2.837255E-1	2.690256E-1	3.069745E-1	2.579353E-1	2.713800E-1	2.520335E-1	2.981920E-1	2.875729E-1	2.778296E-1	2.812871E-1	2.597213E-1	2.606461E-1	2.546338E-1	2.961768E-1	2.806355E-1	3.019129E-1	2.744698E-1	2.664102E-1	2.874490E-1	2.766472E-1	2.707671E-1	3.090855E-1	2.939960E-1	2.680356E-1	2.742140E-1	2.646107E-1	2.814883E-1	2.619203E-1	2.934769E-1	2.851227E-1	2.608344E-1	2.934401E-1	2.596873E-1	2.949485E-1	2.754656E-1	2.659625E-1	2.831817E-1	3.116396E-1	2.725737E-1	2.787817E-1	2.870825E-1	2.825072E-1	2.706404E-1	2.602304E-1	2.943247E-1	2.729555E-1	2.593535E-1	2.564440E-1	2.655927E-1	2.644789E-1	2.649425E-1	2.903818E-1	2.818740E-1	2.740223E-1	2.452596E-1	2.700059E-1	2.663320E-1	2.651425E-1	2.707378E-1	3.239721E-1	2.399002E-1	3.366836E-1
5.348180E+2	4.443496E-1	4.451854E-1	4.394654E-1	3.839463E-1	4.109394E-1	4.206926E-1	4.258694E-1	4.448400E-1	4.410522E-1	4.068089E-1	4.258275E-1	4.334741E-1	4.184564E-1	4.466361E-1	4.362982E-1	4.238378E-1	5.810026E-1	5.227548E-1	5.400543E-1	4.680008E-1	4.830004E-1	4.836363E-1	5.080110E-1	4.644139E-1	4.614080E-1	4.755481E-1	4.808544E-1	5.095457E-1	4.914483E-1	4.721977E-1	4.407771E-1	4.583514E-1	4.377619E-1	4.631829E-1	4.852266E-1	4.411905E-1	4.570959E-1	4.809869E-1	4.663803E-1	4.836764E-1	4.372133E-1	4.549630E-1	4.569547E-1	4.680356E-1	4.701514E-1	4.756576E-1	4.469364E-1	4.691288E-1	4.839502E-1	4.320692E-1	4.716261E-1	4.735120E-1	4.719194E-1	4.395380E-1	4.537588E-1	4.410502E-1	4.818346E-1	4.326086E-1	4.430066E-1	4.778015E-1	4.473931E-1	4.504304E-1	4.647531E-1	4.533464E-1	4.762341E-1	4.270536E-1	4.448594E-1	4.587939E-1	4.371663E-1	4.574805E-1	4.828348E-1	4.734563E-1	4.731792E-1	4.814685E-1	4.374368E-1	4.555078E-1	4.306576E-1	4.229354E-1	4.532724E-1	4.280666E-1	4.814616E-1	4.816864E-1	4.434901E-1	4.461811E-1	4.674035E-1	4.662817E-1	4.706127E-1	4.301815E-1	4.760131E-1	4.734340E-1	4.626256E-1	4.762370E-1	4.491151E-1	4.371420E-1	4.284949E-1	4.459942E-1	4.515921E-1	4.486477E-1	4.743650E-1	4.563955E-1	4.592145E-1	4.488528E-1	4.741476E-1	4.320676E-1	4.456195E-1	4.842337E-1	4.392003E-1	4.816164E-1	4.605952E-1	4.608565E-1	4.212761E-1	4.637779E-1	4.669612E-1	4.446196E-1	4.397639E-1	4.466543E-1	4.491085E-1	4.329046E-1	4.616123E-1	4.594740E-1	4.604101E-1	4.599324E-1	4.446140E-1	4.664621E-1	4.407665E-1	4.618178E-1	4.486262E-1	4.494091E-1	4.347442E-1	4.496191E-1	4.941722E-1	4.727834E-1	4.529774E-1	4.509475E-1	4.335702E-1	4.641808E-1	4.082838E-1	4.635283E-1	4.769825E-1	4.967432E-1	4.233029E-1	4.645360E-1	4.671417E-1	4.747256E-1	4.654725E-1	4.665648E-1	4.844599E-1	4.959504E-1	4.708225E-1	4.439078E-1	4.416171E-1	4.584214E-1	4.901595E-1	4.984474E-1	4.492687E-1	4.496094E-1	4.816906E-1	4.450576E-1	4.546026E-1	4.653058E-1	4.788485E-1	4.798415E-1	4.283300E-1	4.394453E-1	4.639939E-1
5.349580E+2	7.291764E-1	6.995702E-1	7.353264E-1	6.641337E-1	7.028327E-1	6.884618E-1	7.410287E-1	7.314191E-1	7.044294E-1	7.072069E-1	6.898326E-1	7.007192E-1	6.981495E-1	7.573330E-1	7.072853E-1	6.751599E-1	8.986513E-1	8.346743E-1	7.585075E-1	7.891951E-1	7.566122E-1	7.595226E-1	7.882041E-1	7.644231E-1	7.427352E-1	7.737410E-1	7.435829E-1	7.330640E-1	7.600975E-1	7.763282E-1	7.632497E-1	7.750417E-1	7.204080E-1	7.336789E-1	7.584638E-1	7.405710E-1	7.415644E-1	7.071335E-1	7.483220E-1	7.709302E-1	7.489321E-1	8.012602E-1	7.888454E-1	7.361984E-1	7.540327E-1	7.727346E-1	7.721340E-1	7.420547E-1	7.462178E-1	7.350822E-1	7.409964E-1	7.843738E-1	7.147758E-1	8.073786E-1	7.380784E-1	7.480862E-1	7.643949E-1	7.437554E-1	7.466839E-1	7.653631E-1	7.396904E-1	7.717634E-1	7.277155E-1	7.600183E-1	7.188256E-1	7.645742E-1	7.589028E-1	7.701487E-1	7.608882E-1	7.210060E-1	7.246606E-1	7.624400E-1	7.469176E-1	7.854429E-1	7.315289E-1	7.469834E-1	7.150949E-1	7.181851E-1	7.067451E-1	7.336499E-1	7.728762E-1	7.420694E-1	7.294047E-1	7.159840E-1	7.405209E-1	7.765469E-1	7.348035E-1	7.479165E-1	7.615837E-1	7.732702E-1	7.588146E-1	7.354542E-1	7.484368E-1	7.363894E-1	7.247189E-1	7.467797E-1	7.676246E-1	7.630394E-1	7.794245E-1	7.124462E-1	7.337650E-1	7.476072E-1	7.490360E-1	7.809106E-1	7.999173E-1	7.495779E-1	7.309706E-1	7.240720E-1	7.671275E-1	7.494379E-1	7.085730E-1	7.452708E-1	7.509581E-1	7.406662E-1	7.416489E-1	7.527662E-1	6.997305E-1	7.771441E-1	7.156022E-1	7.848386E-1	7.336795E-1	7.550896E-1	7.055466E-1	7.334738E-1	7.338784E-1	7.339159E-1	7.523562E-1	7.480233E-1	7.243361E-1	7.801100E-1	7.647596E-1	7.382946E-1	7.350075E-1	7.598449E-1	7.248352E-1	7.685820E-1	7.286199E-1	7.251503E-1	7.208749E-1	7.827269E-1	7.141455E-1	7.376810E-1	7.654275E-1	7.314988E-1	7.831794E-1	7.394482E-1	7.925900E-1	7.200419E-1	7.443181E-1	7.419319E-1	7.250498E-1	7.558496E-1	7.816561E-1	7.689277E-1	7.440112E-1	7.538744E-1	7.555716E-1	7.117934E-1	7.517801E-1	7.151368E-1	7.139761E-1	7.137052E-1	7.193298E-1	6.945049E-1	6.973714E-1
5.351200E+2	1.097447E+0	1.053546E+0	1.130547E+0	1.043832E+0	1.038894E+0	9.963550E-1	1.041512E+0	1.097422E+0	1.063092E+0	1.045626E+0	1.075245E+0	9.897976E-1	1.023669E+0	1.078619E+0	1.055877E+0	1.094399E+0	1.224619E+0	1.130995E+0	1.151390E+0	1.079639E+0	1.123269E+0	1.093012E+0	1.110643E+0	1.106464E+0	1.083405E+0	1.085463E+0	1.065800E+0	1.095066E+0	1.122255E+0	1.112850E+0	1.140222E+0	1.063070E+0	1.127358E+0	1.100945E+0	1.096243E+0	1.068129E+0	1.075061E+0	1.061983E+0	1.107712E+0	1.121407E+0	1.048522E+0	1.135508E+0	1.058081E+0	1.120133E+0	1.058185E+0	1.115686E+0	1.099698E+0	1.080437E+0	1.115173E+0	1.114302E+0	1.073276E+0	1.113814E+0	1.105143E+0	1.080017E+0	1.107772E+0	1.127822E+0	1.095246E+0	1.108743E+0	1.090012E+0	1.082439E+0	1.096205E+0	1.054671E+0	1.045448E+0	1.109484E+0	1.083541E+0	1.079279E+0	1.035908E+0	1.108082E+0	1.063843E+0	1.107058E+0	1.116868E+0	1.162158E+0	1.123681E+0	1.118386E+0	1.104803E+0	1.071859E+0	1.070349E+0	1.072421E+0	1.050506E+0	1.079902E+0	1.083346E+0	1.120247E+0	9.951268E-1	1.109378E+0	1.085027E+0	1.125839E+0	1.073990E+0	1.118928E+0	1.097322E+0	1.148123E+0	1.076237E+0	1.138865E+0	1.057417E+0	1.047633E+0	1.114452E+0	1.107483E+0	1.109697E+0	1.109995E+0	1.094572E+0	1.061012E+0	1.079053E+0	1.093187E+0	1.034428E+0	1.063977E+0	1.114276E+0	1.068164E+0	1.098608E+0	1.035125E+0	1.064348E+0	1.063019E+0	1.045984E+0	1.079449E+0	1.073870E+0	1.080802E+0	1.029935E+0	1.060949E+0	1.064522E+0	1.070018E+0	1.069383E+0	1.090537E+0	1.050927E+0	1.119099E+0	1.101023E+0	1.107353E+0	1.093709E+0	1.035142E+0	1.041562E+0	1.094663E+0	1.067321E+0	1.120529E+0	1.075243E+0	1.118259E+0	1.076060E+0	1.093030E+0	1.105358E+0	1.111164E+0	1.027061E+0	1.066036E+0	1.087056E+0	1.112399E+0	1.080765E+0	1.075270E+0	1.079981E+0	1.070532E+0	1.064750E+0	1.094447E+0	1.057872E+0	1.059052E+0	1.024706E+0	1.052327E+0	1.019102E+0	1.092158E+0	1.105195E+0	1.125943E+0	1.121642E+0	1.100272E+0	1.054900E+0	1.042457E+0	1.056616E+0	1.091135E+0	1.037253E+0	1.048911E+0	1.055518E+0	1.032831E+0	1.101389E+0
5.352550E+2	1.521538E+0	1.594323E+0	1.531353E+0	1.467949E+0	1.508519E+0	1.436118E+0	1.453315E+0	1.556011E+0	1.429099E+0	1.472599E+0	1.528654E+0	1.448833E+0	1.528469E+0	1.544355E+0	1.485324E+0	1.431094E+0	1.594735E+0	1.560982E+0	1.514352E+0	1.516276E+0	1.507135E+0	1.486838E+0	1.512645E+0	1.520105E+0	1.527594E+0	1.461438E+0	1.521450E+0	1.601341E+0	1.503137E+0	1.554710E+0	1.518465E+0	1.525732E+0	1.562653E+0	1.633103E+0	1.537725E+0	1.468860E+0	1.455988E+0	1.512360E+0	1.521117E+0	1.504248E+0	1.512208E+0	1.582055E+0	1.466965E+0	1.534306E+0	1.460687E+0	1.465539E+0	1.505301E+0	1.474169E+0	1.539673E+0	1.512330E+0	1.493001E+0	1.522852E+0	1.440633E+0	1.500700E+0	1.561961E+0	1.467160E+0	1.531525E+0	1.518942E+0	1.456834E+0	1.487989E+0	1.484893E+0	1.533191E+0	1.495318E+0	1.533536E+0	1.502555E+0	1.423234E+0	1.568292E+0	1.448561E+0	1.493992E+0	1.539217E+0	1.529841E+0	1.525664E+0	1.458681E+0	1.499669E+0	1.552509E+0	1.522797E+0	1.463054E+0	1.490725E+0	1.469946E+0	1.477059E+0	1.486260E+0	1.493923E+0	1.509295E+0	1.456491E+0	1.458251E+0	1.521988E+0	1.439059E+0	1.475585E+0	1.515452E+0	1.517513E+0	1.429603E+0	1.513171E+0	1.523346E+0	1.496086E+0	1.478354E+0	1.555555E+0	1.542348E+0	1.538517E+0	1.558897E+0	1.510234E+0	1.568548E+0	1.522384E+0	1.519030E+0	1.472024E+0	1.522088E+0	1.463086E+0	1.455329E+0	1.459312E+0	1.474282E+0	1.445657E+0	1.430741E+0	1.465251E+0	1.473053E+0	1.533924E+0	1.399368E+0	1.483992E+0	1.479781E+0	1.486870E+0	1.525966E+0	1.503888E+0	1.433209E+0	1.510593E+0	1.484398E+0	1.476624E+0	1.487101E+0	1.478978E+0	1.455040E+0	1.419933E+0	1.516215E+0	1.557291E+0	1.503001E+0	1.512948E+0	1.468557E+0	1.447847E+0	1.501701E+0	1.525055E+0	1.458151E+0	1.466336E+0	1.466257E+0	1.499193E+0	1.430367E+0	1.472580E+0	1.464111E+0	1.464984E+0	1.505558E+0	1.492724E+0	1.409131E+0	1.525259E+0	1.454688E+0	1.484226E+0	1.452313E+0	1.398002E+0	1.469588E+0	1.508209E+0	1.510067E+0	1.547468E+0	1.504816E+0	1.528115E+0	1.539051E+0	1.439263E+0	1.419668E+0	1.466375E+0	1.493165E+0	1.437429E+0	1.433219E+0
5.354060E+2	1.931921E+0	1.875590E+0	1.859317E+0	1.793250E+0	1.897559E+0	1.805032E+0	1.892955E+0	1.911808E+0	1.838841E+0	1.862163E+0	1.900529E+0	1.852340E+0	1.846254E+0	1.858979E+0	1.893600E+0	1.887093E+0	1.873223E+0	1.825054E+0	1.868201E+0	1.834861E+0	1.853555E+0	1.885706E+0	1.873668E+0	1.887450E+0	1.872047E+0	1.904169E+0	1.852793E+0	1.847952E+0	1.873351E+0	1.885560E+0	1.891855E+0	1.888008E+0	1.863901E+0	1.904207E+0	1.842631E+0	1.759153E+0	1.807341E+0	1.853633E+0	1.907509E+0	1.913376E+0	1.798524E+0	1.873471E+0	1.851647E+0	1.958146E+0	1.805268E+0	1.902563E+0	1.848980E+0	1.867595E+0	1.916959E+0	1.869441E+0	1.830276E+0	1.843663E+0	1.813948E+0	1.905980E+0	1.868613E+0	1.859858E+0	1.892261E+0	1.858455E+0	1.849183E+0	1.883776E+0	1.848357E+0	1.908722E+0	1.831992E+0	1.816739E+0	1.854093E+0	1.832236E+0	1.829410E+0	1.823072E+0	1.850456E+0	1.854071E+0	1.886690E+0	1.886617E+0	1.812147E+0	1.911126E+0	1.861183E+0	1.885642E+0	1.786084E+0	1.914178E+0	1.788430E+0	1.816155E+0	1.885769E+0	1.807685E+0	1.841534E+0	1.797691E+0	1.820655E+0	1.885672E+0	1.821566E+0	1.846714E+0	1.870079E+0	1.938735E+0	1.864733E+0	1.893232E+0	1.837998E+0	1.866215E+0	1.886123E+0	1.863417E+0	1.911110E+0	1.866348E+0	1.883429E+0	1.782839E+0	1.842807E+0	1.887385E+0	1.808792E+0	1.811236E+0	1.881925E+0	1.826895E+0	1.887045E+0	1.833911E+0	1.862594E+0	1.840919E+0	1.801137E+0	1.757159E+0	1.792537E+0	1.833108E+0	1.762462E+0	1.741700E+0	1.788940E+0	1.812673E+0	1.857952E+0	1.836467E+0	1.797700E+0	1.820367E+0	1.785850E+0	1.816178E+0	1.827166E+0	1.819299E+0	1.802883E+0	1.818326E+0	1.841539E+0	1.857203E+0	1.746998E+0	1.861744E+0	1.793070E+0	1.868518E+0	1.836165E+0	1.801796E+0	1.817354E+0	1.816221E+0	1.801475E+0	1.826001E+0	1.768679E+0	1.794334E+0	1.834995E+0	1.770373E+0	1.829053E+0	1.846492E+0	1.760735E+0	1.800086E+0	1.777955E+0	1.800139E+0	1.798076E+0	1.729356E+0	1.777559E+0	1.949102E+0	1.754815E+0	1.827353E+0	1.825768E+0	1.784040E+0	1.756854E+0	1.760978E+0	1.799103E+0	1.692743E+0	1.842053E+0	1.672158E+0	1.667877E+0
5.355630E+2	2.031837E+0	1.950154E+0	2.062123E+0	1.881147E+0	1.911585E+0	1.954804E+0	1.939511E+0	1.927216E+0	1.888165E+0	1.930666E+0	1.967002E+0	1.964385E+0	2.010345E+0	1.973574E+0	1.996015E+0	1.915060E+0	1.932498E+0	1.844000E+0	1.882215E+0	1.860581E+0	1.960475E+0	1.867931E+0	1.984187E+0	1.907626E+0	1.886470E+0	1.935992E+0	1.926739E+0	2.029807E+0	1.939113E+0	1.926010E+0	1.893918E+0	1.919262E+0	1.901260E+0	1.946124E+0	2.014741E+0	1.899385E+0	1.845932E+0	1.968085E+0	1.940045E+0	1.994594E+0	1.950922E+0	1.968123E+0	1.910006E+0	2.000409E+0	1.892358E+0	1.946183E+0	1.874114E+0	1.928036E+0	1.946896E+0	1.917829E+0	1.888412E+0	1.998321E+0	1.802833E+0	1.959609E+0	1.963379E+0	1.950131E+0	1.914891E+0	1.988283E+0	1.899805E+0	1.960647E+0	1.909778E+0	1.941833E+0	1.839454E+0	1.896481E+0	1.863385E+0	1.873310E+0	2.006469E+0	1.963098E+0	1.905792E+0	1.943915E+0	1.915468E+0	1.960458E+0	1.842004E+0	1.987489E+0	1.920085E+0	1.984471E+0	1.865516E+0	1.979767E+0	1.928805E+0	1.923035E+0	1.882649E+0	1.938847E+0	1.971467E+0	1.866618E+0	1.897112E+0	2.021338E+0	1.858083E+0	1.920029E+0	1.898984E+0	2.012100E+0	1.882205E+0	1.841423E+0	1.865689E+0	1.923850E+0	1.866650E+0	1.920012E+0	1.945768E+0	1.932239E+0	1.938590E+0	1.865209E+0	1.857632E+0	1.974423E+0	1.925107E+0	1.856626E+0	1.955871E+0	1.910228E+0	1.869992E+0	1.864890E+0	1.859244E+0	1.956256E+0	1.840539E+0	1.851713E+0	1.811022E+0	1.892576E+0	1.901257E+0	1.834737E+0	1.848087E+0	1.867508E+0	1.940181E+0	1.879817E+0	1.834362E+0	1.941863E+0	1.944195E+0	1.966658E+0	1.936819E+0	1.831500E+0	1.851229E+0	1.881932E+0	1.858931E+0	1.898432E+0	1.869270E+0	2.010539E+0	1.845065E+0	1.887810E+0	1.890440E+0	1.888255E+0	1.883872E+0	1.929609E+0	1.896960E+0	1.900913E+0	1.813370E+0	1.856563E+0	1.903523E+0	1.834786E+0	1.878310E+0	1.886429E+0	1.866002E+0	1.844518E+0	1.828751E+0	1.811570E+0	1.900250E+0	1.769742E+0	1.923288E+0	1.944756E+0	1.836226E+0	1.928179E+0	1.912949E+0	1.886650E+0	1.852435E+0	1.845649E+0	1.875007E+0	1.827035E+0	1.882903E+0	1.680068E+0	1.644647E+0
5.357140E+2	1.988989E+0	1.965728E+0	2.047669E+0	1.900405E+0	2.022250E+0	1.845855E+0	1.941380E+0	1.924673E+0	1.967465E+0	2.047321E+0	1.945197E+0	1.938870E+0	1.985233E+0	1.957645E+0	1.945416E+0	1.979163E+0	1.907563E+0	1.864546E+0	1.920886E+0	1.882334E+0	1.928736E+0	1.904419E+0	1.954609E+0	1.880668E+0	1.889495E+0	1.922893E+0	1.913987E+0	1.944396E+0	1.939010E+0	1.975959E+0	1.866691E+0	1.908851E+0	1.936127E+0	1.977077E+0	1.920545E+0	1.849007E+0	1.891391E+0	1.959787E+0	1.934744E+0	1.947263E+0	1.897370E+0	1.950593E+0	1.913030E+0	1.953892E+0	1.881142E+0	1.908815E+0	1.927417E+0	1.965103E+0	2.018346E+0	1.845865E+0	1.941597E+0	1.932624E+0	1.921830E+0	1.984532E+0	1.931664E+0	1.906157E+0	1.967835E+0	2.004340E+0	1.958139E+0	1.963524E+0	1.853013E+0	1.977323E+0	1.898676E+0	1.882853E+0	1.896864E+0	1.948391E+0	1.891083E+0	1.908799E+0	1.933622E+0	1.926874E+0	1.943559E+0	2.007976E+0	1.902015E+0	2.002525E+0	1.962838E+0	1.964543E+0	1.845367E+0	1.921823E+0	1.910351E+0	1.978581E+0	1.867417E+0	1.895768E+0	1.900582E+0	1.853322E+0	1.910500E+0	1.965038E+0	1.861330E+0	1.896976E+0	1.878109E+0	1.992457E+0	1.909568E+0	1.908967E+0	1.853007E+0	1.920365E+0	1.861290E+0	1.986156E+0	1.898182E+0	1.988379E+0	1.990103E+0	1.899256E+0	1.938795E+0	1.871693E+0	1.928929E+0	1.906625E+0	1.884903E+0	1.885322E+0	1.885652E+0	1.956770E+0	1.875227E+0	1.857054E+0	1.838466E+0	1.908494E+0	1.914251E+0	1.883213E+0	1.932646E+0	1.873204E+0	1.884236E+0	1.926262E+0	1.994794E+0	1.909280E+0	1.815697E+0	1.895376E+0	1.882420E+0	1.851410E+0	1.904373E+0	1.876190E+0	1.874153E+0	1.892323E+0	1.879206E+0	1.969529E+0	1.830161E+0	1.951034E+0	1.871097E+0	1.875161E+0	1.946055E+0	1.881318E+0	1.865713E+0	2.038113E+0	1.920299E+0	1.946980E+0	1.904969E+0	1.904231E+0	1.882000E+0	1.902688E+0	1.917449E+0	1.885786E+0	1.889429E+0	1.858555E+0	1.865041E+0	1.891836E+0	1.903715E+0	1.882770E+0	1.901671E+0	1.904559E+0	1.900689E+0	1.862728E+0	1.889900E+0	1.906850E+0	1.854976E+0	1.867958E+0	1.870729E+0	1.883007E+0	1.766544E+0	1.699553E+0	1.812322E+0
5.358600E+2	1.766309E+0	1.620009E+0	1.723519E+0	1.593751E+0	1.601969E+0	1.663816E+0	1.654209E+0	1.695373E+0	1.659152E+0	1.640391E+0	1.686725E+0	1.648362E+0	1.706612E+0	1.629194E+0	1.618937E+0	1.612721E+0	1.634808E+0	1.578403E+0	1.577481E+0	1.603968E+0	1.567040E+0	1.623430E+0	1.629495E+0	1.606135E+0	1.613278E+0	1.603829E+0	1.649294E+0	1.594132E+0	1.621309E+0	1.670423E+0	1.669969E+0	1.601011E+0	1.600248E+0	1.694887E+0	1.609189E+0	1.545330E+0	1.603895E+0	1.596319E+0	1.580796E+0	1.588525E+0	1.651280E+0	1.649901E+0	1.593019E+0	1.664271E+0	1.620504E+0	1.648418E+0	1.620744E+0	1.676830E+0	1.698371E+0	1.576596E+0	1.578740E+0	1.622901E+0	1.627307E+0	1.677797E+0	1.673778E+0	1.643708E+0	1.625791E+0	1.688673E+0	1.682077E+0	1.616087E+0	1.628828E+0	1.646078E+0	1.617326E+0	1.551785E+0	1.605387E+0	1.619975E+0	1.623877E+0	1.558152E+0	1.661153E+0	1.679351E+0	1.623747E+0	1.610887E+0	1.612867E+0	1.638267E+0	1.640429E+0	1.741027E+0	1.553022E+0	1.650399E+0	1.541378E+0	1.515752E+0	1.599089E+0	1.623806E+0	1.626723E+0	1.614458E+0	1.614046E+0	1.639895E+0	1.612565E+0	1.704542E+0	1.579616E+0	1.684730E+0	1.654257E+0	1.576674E+0	1.587684E+0	1.596310E+0	1.606862E+0	1.666627E+0	1.651375E+0	1.711444E+0	1.627405E+0	1.641761E+0	1.642910E+0	1.641679E+0	1.648462E+0	1.598931E+0	1.637605E+0	1.615202E+0	1.628963E+0	1.588751E+0	1.623102E+0	1.614705E+0	1.572226E+0	1.630788E+0	1.578011E+0	1.587079E+0	1.602503E+0	1.583368E+0	1.567030E+0	1.616976E+0	1.655631E+0	1.575265E+0	1.599213E+0	1.648136E+0	1.571803E+0	1.661188E+0	1.628475E+0	1.632541E+0	1.604839E+0	1.557335E+0	1.595045E+0	1.607549E+0	1.654505E+0	1.631422E+0	1.572410E+0	1.605330E+0	1.664062E+0	1.586966E+0	1.548017E+0	1.569037E+0	1.620827E+0	1.676415E+0	1.538579E+0	1.570796E+0	1.623285E+0	1.619147E+0	1.603240E+0	1.654022E+0	1.616354E+0	1.592999E+0	1.569257E+0	1.574605E+0	1.620011E+0	1.522814E+0	1.592412E+0	1.671459E+0	1.612614E+0	1.684696E+0	1.625476E+0	1.570327E+0	1.594702E+0	1.531824E+0	1.625114E+0	1.598875E+0	1.526671E+0	1.489223E+0	1.549307E+0
5.360070E+2	1.635904E+0	1.602471E+0	1.744039E+0	1.578152E+0	1.602965E+0	1.529271E+0	1.639008E+0	1.597336E+0	1.551557E+0	1.607444E+0	1.602578E+0	1.630801E+0	1.628539E+0	1.572730E+0	1.621119E+0	1.602496E+0	1.602295E+0	1.520450E+0	1.587086E+0	1.630652E+0	1.546564E+0	1.488102E+0	1.602931E+0	1.585811E+0	1.515624E+0	1.588138E+0	1.585628E+0	1.576162E+0	1.588843E+0	1.610277E+0	1.571208E+0	1.541002E+0	1.597581E+0	1.640796E+0	1.539177E+0	1.529698E+0	1.567942E+0	1.641061E+0	1.614087E+0	1.601752E+0	1.589350E+0	1.613351E+0	1.605928E+0	1.610384E+0	1.517588E+0	1.595617E+0	1.617148E+0	1.613331E+0	1.664346E+0	1.585968E+0	1.514126E+0	1.568847E+0	1.522910E+0	1.615398E+0	1.618476E+0	1.627996E+0	1.593195E+0	1.597409E+0	1.559286E+0	1.647299E+0	1.566849E+0	1.599639E+0	1.579764E+0	1.559488E+0	1.575170E+0	1.576055E+0	1.577045E+0	1.528011E+0	1.572808E+0	1.593591E+0	1.594288E+0	1.668398E+0	1.559549E+0	1.592996E+0	1.628159E+0	1.640930E+0	1.549824E+0	1.574371E+0	1.558846E+0	1.534663E+0	1.575511E+0	1.618501E+0	1.574229E+0	1.587829E+0	1.556257E+0	1.589287E+0	1.574500E+0	1.592824E+0	1.541963E+0	1.611914E+0	1.555131E+0	1.678916E+0	1.547030E+0	1.600092E+0	1.577022E+0	1.630749E+0	1.614006E+0	1.620002E+0	1.548415E+0	1.581873E+0	1.549225E+0	1.630480E+0	1.590721E+0	1.593614E+0	1.598227E+0	1.575793E+0	1.540943E+0	1.568891E+0	1.606181E+0	1.600559E+0	1.516762E+0	1.507630E+0	1.544843E+0	1.558304E+0	1.520193E+0	1.601593E+0	1.503368E+0	1.557425E+0	1.595768E+0	1.547594E+0	1.534529E+0	1.554029E+0	1.583941E+0	1.609580E+0	1.591486E+0	1.609184E+0	1.530109E+0	1.505916E+0	1.567639E+0	1.549185E+0	1.534177E+0	1.618656E+0	1.541167E+0	1.488228E+0	1.581526E+0	1.613737E+0	1.549695E+0	1.613248E+0	1.510025E+0	1.565171E+0	1.522112E+0	1.558819E+0	1.522337E+0	1.570170E+0	1.567177E+0	1.647717E+0	1.541358E+0	1.553721E+0	1.528773E+0	1.583280E+0	1.563380E+0	1.528674E+0	1.558857E+0	1.626523E+0	1.568459E+0	1.571457E+0	1.576027E+0	1.529928E+0	1.504290E+0	1.514111E+0	1.537041E+0	1.574776E+0	1.548031E+0	1.428986E+0	1.436828E+0
5.362730E+2	1.130077E+0	1.111109E+0	1.139444E+0	1.117173E+0	1.122277E+0	1.034460E+0	1.139705E+0	1.104590E+0	1.164058E+0	1.113420E+0	1.119451E+0	1.123083E+0	1.172785E+0	1.093859E+0	1.145921E+0	1.093948E+0	1.126653E+0	1.114524E+0	1.085722E+0	1.143331E+0	1.125505E+0	1.097959E+0	1.146016E+0	1.090634E+0	1.083757E+0	1.067461E+0	1.090171E+0	1.116448E+0	1.091356E+0	1.125160E+0	1.148310E+0	1.085779E+0	1.117580E+0	1.161145E+0	1.095583E+0	1.136462E+0	1.064076E+0	1.129394E+0	1.073480E+0	1.156438E+0	1.167134E+0	1.137345E+0	1.095154E+0	1.225358E+0	1.126068E+0	1.114440E+0	1.126870E+0	1.106981E+0	1.157387E+0	1.099533E+0	1.096969E+0	1.152614E+0	1.071526E+0	1.124970E+0	1.157482E+0	1.161107E+0	1.165539E+0	1.160786E+0	1.165306E+0	1.136713E+0	1.113929E+0	1.085530E+0	1.115257E+0	1.075222E+0	1.154662E+0	1.180762E+0	1.119715E+0	1.099713E+0	1.111677E+0	1.175766E+0	1.133332E+0	1.085973E+0	1.089954E+0	1.177219E+0	1.105742E+0	1.192854E+0	1.103728E+0	1.105805E+0	1.094835E+0	1.110047E+0	1.143334E+0	1.143628E+0	1.088993E+0	1.163841E+0	1.119307E+0	1.145717E+0	1.084863E+0	1.091410E+0	1.116338E+0	1.174027E+0	1.107832E+0	1.117933E+0	1.099859E+0	1.113950E+0	1.150745E+0	1.159396E+0	1.160231E+0	1.137424E+0	1.123301E+0	1.169091E+0	1.124469E+0	1.127491E+0	1.040763E+0	1.136346E+0	1.078473E+0	1.182639E+0	1.120556E+0	1.108859E+0	1.119460E+0	1.102862E+0	1.097372E+0	1.077120E+0	1.169384E+0	1.160286E+0	1.103039E+0	1.037942E+0	1.177795E+0	1.112245E+0	1.108913E+0	1.145674E+0	1.093019E+0	1.153094E+0	1.129084E+0	1.147187E+0	1.109527E+0	1.052927E+0	1.114283E+0	1.165966E+0	1.125711E+0	1.104566E+0	1.119251E+0	1.168574E+0	1.082205E+0	1.142798E+0	1.134036E+0	1.168964E+0	1.112451E+0	1.056248E+0	1.142441E+0	1.102284E+0	1.112223E+0	1.136082E+0	1.090010E+0	1.085159E+0	1.137520E+0	1.178715E+0	1.127319E+0	1.075027E+0	1.116532E+0	1.127149E+0	1.124000E+0	1.094476E+0	1.129719E+0	1.113290E+0	1.144686E+0	1.188421E+0	1.058958E+0	1.149398E+0	1.118829E+0	1.108343E+0	1.116396E+0	1.152213E+0	1.202455E+0	1.087293E+0	1.072701E+0
5.365140E+2	9.054618E-1	8.870088E-1	9.271394E-1	8.179463E-1	9.379483E-1	9.044652E-1	8.805661E-1	8.566074E-1	8.918198E-1	8.729379E-1	9.315161E-1	8.967243E-1	9.119880E-1	8.832495E-1	9.033159E-1	8.847905E-1	9.448764E-1	8.639833E-1	8.947631E-1	8.878819E-1	8.958001E-1	8.838419E-1	9.071558E-1	9.093819E-1	8.477351E-1	8.576117E-1	8.809784E-1	8.837475E-1	9.289643E-1	8.921966E-1	8.543053E-1	8.834880E-1	9.109308E-1	9.051385E-1	9.291022E-1	8.932375E-1	8.504433E-1	8.896594E-1	8.809460E-1	9.579197E-1	8.859550E-1	8.949698E-1	8.891651E-1	9.053159E-1	8.479056E-1	8.903038E-1	8.619731E-1	9.276413E-1	8.875027E-1	8.900528E-1	9.038458E-1	8.563484E-1	8.895207E-1	9.255964E-1	8.783347E-1	9.102659E-1	8.689298E-1	9.218147E-1	9.112531E-1	8.902509E-1	8.969581E-1	8.428155E-1	9.137618E-1	9.040778E-1	9.085757E-1	8.596463E-1	9.101923E-1	8.961749E-1	8.751250E-1	9.284576E-1	9.063392E-1	9.114689E-1	9.017625E-1	8.696456E-1	8.904007E-1	9.213922E-1	8.518547E-1	8.813256E-1	8.889164E-1	8.927620E-1	8.471245E-1	8.854494E-1	8.963930E-1	9.282260E-1	8.550743E-1	9.496341E-1	9.060357E-1	9.095422E-1	8.916215E-1	8.824099E-1	9.170539E-1	9.501926E-1	9.074033E-1	9.103240E-1	8.749113E-1	8.754316E-1	9.379853E-1	9.435734E-1	8.828702E-1	8.619763E-1	8.773907E-1	8.943274E-1	9.048727E-1	8.647388E-1	9.005244E-1	8.891064E-1	8.834043E-1	9.089672E-1	9.364482E-1	8.805723E-1	8.672736E-1	9.147968E-1	8.908603E-1	9.166465E-1	8.650056E-1	8.601530E-1	9.214177E-1	8.649734E-1	9.424159E-1	9.088707E-1	8.755382E-1	9.042214E-1	9.037809E-1	9.370110E-1	9.057660E-1	8.603678E-1	9.104014E-1	8.603448E-1	8.682396E-1	9.126837E-1	8.233918E-1	8.913858E-1	8.882187E-1	8.649866E-1	9.456322E-1	8.806344E-1	9.038291E-1	9.276379E-1	8.739933E-1	9.034623E-1	9.344990E-1	8.937700E-1	9.262073E-1	9.021893E-1	8.802314E-1	8.914308E-1	8.898188E-1	8.955975E-1	8.454302E-1	8.851755E-1	8.922990E-1	9.274185E-1	8.946509E-1	9.673973E-1	9.219222E-1	9.682236E-1	8.937552E-1	8.736900E-1	8.879576E-1	8.821565E-1	8.995888E-1	8.043453E-1	9.261445E-1	8.734735E-1	8.350299E-1
5.367660E+2	7.009423E-1	7.115919E-1	7.417128E-1	6.677563E-1	6.866010E-1	6.852004E-1	6.709666E-1	7.131686E-1	6.935460E-1	6.770125E-1	6.912524E-1	6.581226E-1	7.176758E-1	6.710208E-1	7.223314E-1	6.830631E-1	7.333240E-1	7.009098E-1	6.892323E-1	6.729306E-1	7.057656E-1	6.769657E-1	6.864053E-1	6.854861E-1	6.607096E-1	7.265946E-1	7.280981E-1	7.121056E-1	7.472985E-1	7.034091E-1	6.895085E-1	6.747817E-1	6.777131E-1	7.069539E-1	6.535120E-1	6.648986E-1	6.818892E-1	6.685925E-1	7.231636E-1	6.746900E-1	6.855138E-1	7.070519E-1	6.790559E-1	6.828143E-1	6.682069E-1	7.104160E-1	7.179811E-1	7.118258E-1	6.887939E-1	6.871733E-1	6.989481E-1	6.885843E-1	6.378021E-1	6.984181E-1	7.027582E-1	7.054681E-1	6.915866E-1	6.789083E-1	7.380541E-1	6.790238E-1	7.061322E-1	6.942785E-1	6.779717E-1	6.791282E-1	7.484271E-1	7.110683E-1	7.271343E-1	7.051740E-1	6.833387E-1	6.791462E-1	6.905558E-1	7.298351E-1	6.640514E-1	7.106411E-1	7.231153E-1	7.446837E-1	6.823141E-1	6.866033E-1	7.129057E-1	6.851993E-1	6.888385E-1	6.644794E-1	7.296682E-1	7.119859E-1	6.746316E-1	6.913914E-1	6.680224E-1	7.163170E-1	7.047472E-1	7.121756E-1	7.030707E-1	7.197360E-1	7.099071E-1	6.897928E-1	7.267250E-1	6.981943E-1	6.985806E-1	7.074938E-1	7.008203E-1	7.028540E-1	6.743263E-1	7.139904E-1	7.326990E-1	6.741540E-1	6.715116E-1	7.039981E-1	6.985912E-1	6.928162E-1	7.406382E-1	6.999385E-1	6.505953E-1	6.964317E-1	6.867661E-1	7.239577E-1	7.238136E-1	6.845772E-1	6.963157E-1	6.756833E-1	7.617354E-1	7.280710E-1	6.788299E-1	7.344316E-1	7.247178E-1	6.801380E-1	7.070149E-1	7.204153E-1	7.106800E-1	6.841441E-1	6.870530E-1	7.020506E-1	6.779653E-1	6.981862E-1	6.754775E-1	7.395488E-1	6.926647E-1	6.724830E-1	6.444144E-1	6.937696E-1	6.824701E-1	6.861830E-1	6.886911E-1	7.114300E-1	6.786720E-1	6.759484E-1	7.044874E-1	7.571890E-1	6.898091E-1	6.916912E-1	6.519267E-1	7.165327E-1	6.792874E-1	6.780567E-1	7.071024E-1	7.290549E-1	7.465436E-1	6.902424E-1	6.665427E-1	7.371407E-1	7.002680E-1	6.385639E-1	7.035744E-1	7.294365E-1	7.116422E-1	6.406790E-1	6.719159E-1
5.370070E+2	5.796159E-1	5.136769E-1	5.827964E-1	5.230731E-1	5.665202E-1	5.589745E-1	5.244404E-1	5.332951E-1	5.283628E-1	5.309608E-1	5.616450E-1	5.477522E-1	5.491185E-1	5.521742E-1	5.580413E-1	5.793516E-1	5.701400E-1	5.365445E-1	5.128637E-1	5.639831E-1	5.657623E-1	5.514827E-1	5.538844E-1	5.687366E-1	5.430715E-1	5.424898E-1	5.199936E-1	5.213931E-1	5.353238E-1	5.665958E-1	5.273200E-1	5.330296E-1	5.451570E-1	5.728768E-1	5.213966E-1	5.332986E-1	5.441685E-1	5.313562E-1	5.602426E-1	5.683611E-1	5.506711E-1	5.410634E-1	5.208630E-1	5.628029E-1	5.404537E-1	5.415328E-1	5.802087E-1	5.771551E-1	5.715208E-1	5.709529E-1	5.690334E-1	5.471674E-1	5.518577E-1	5.778791E-1	5.683896E-1	5.765037E-1	5.377974E-1	5.268719E-1	5.745304E-1	5.396009E-1	5.091595E-1	5.437269E-1	5.465090E-1	5.406284E-1	5.886281E-1	5.546974E-1	5.685890E-1	5.529324E-1	5.499833E-1	5.675037E-1	5.502330E-1	5.513958E-1	5.244090E-1	5.242899E-1	5.848166E-1	5.661606E-1	5.547560E-1	5.086890E-1	5.596295E-1	5.536043E-1	5.147779E-1	5.767742E-1	5.455648E-1	5.502574E-1	5.675350E-1	5.297939E-1	5.857069E-1	5.440682E-1	5.350164E-1	5.519659E-1	5.310180E-1	5.652233E-1	5.689532E-1	5.467592E-1	5.499670E-1	5.520748E-1	5.792898E-1	5.396698E-1	5.922443E-1	5.590720E-1	5.593629E-1	5.654567E-1	5.989291E-1	5.364701E-1	5.388479E-1	5.852643E-1	5.528358E-1	5.515342E-1	5.551203E-1	5.465180E-1	5.441065E-1	5.285981E-1	5.745950E-1	5.475480E-1	5.142325E-1	5.391657E-1	5.602993E-1	5.498718E-1	5.862903E-1	5.604173E-1	5.516897E-1	5.458879E-1	5.692122E-1	5.251863E-1	5.634974E-1	5.688211E-1	5.545468E-1	5.280624E-1	5.561909E-1	5.887645E-1	6.059781E-1	5.541758E-1	4.890350E-1	5.683350E-1	5.832367E-1	5.750019E-1	5.398644E-1	5.309267E-1	5.660522E-1	5.660545E-1	5.526034E-1	5.579591E-1	5.497468E-1	5.434937E-1	5.423658E-1	5.695612E-1	5.436358E-1	5.463218E-1	5.791992E-1	5.511196E-1	5.621412E-1	5.649024E-1	5.513465E-1	6.051038E-1	5.758712E-1	5.685181E-1	5.544651E-1	5.616580E-1	5.813427E-1	5.550811E-1	5.624932E-1	5.268713E-1	6.352881E-1	4.732143E-1	5.352318E-1
5.372640E+2	5.049527E-1	4.988843E-1	5.042725E-1	5.319240E-1	4.948654E-1	4.983005E-1	5.303010E-1	4.670404E-1	4.719687E-1	4.848428E-1	5.203026E-1	4.816570E-1	5.002127E-1	4.965386E-1	5.086268E-1	4.872604E-1	4.737838E-1	5.175880E-1	4.597429E-1	5.353051E-1	4.995739E-1	4.946528E-1	5.210526E-1	5.134870E-1	4.710690E-1	4.748330E-1	5.236813E-1	5.453851E-1	5.092191E-1	4.690398E-1	5.341906E-1	5.232701E-1	4.971873E-1	4.586356E-1	5.184058E-1	4.866752E-1	5.270419E-1	4.778654E-1	5.406340E-1	5.268358E-1	5.216139E-1	5.191177E-1	5.074002E-1	4.915856E-1	4.847166E-1	5.198729E-1	4.917975E-1	5.116577E-1	5.332814E-1	5.228905E-1	4.968004E-1	5.123640E-1	5.147855E-1	4.881422E-1	5.101428E-1	4.981006E-1	5.231205E-1	5.118163E-1	4.842296E-1	4.953118E-1	5.122797E-1	5.094237E-1	4.874576E-1	5.202087E-1	5.164336E-1	5.052940E-1	4.976535E-1	4.817901E-1	5.151081E-1	4.695856E-1	5.125652E-1	4.980328E-1	4.958014E-1	5.205437E-1	5.001803E-1	5.245063E-1	4.920627E-1	5.218851E-1	5.044132E-1	4.601792E-1	4.730006E-1	5.088087E-1	5.199322E-1	5.257350E-1	4.819004E-1	5.108747E-1	4.778825E-1	4.993624E-1	5.018914E-1	4.991736E-1	5.144113E-1	5.214261E-1	4.934891E-1	4.855215E-1	4.834769E-1	5.448890E-1	5.112039E-1	5.166188E-1	4.852965E-1	5.162145E-1	5.026547E-1	5.136119E-1	5.007619E-1	5.185569E-1	5.295547E-1	5.061145E-1	4.943337E-1	4.954315E-1	5.153050E-1	4.874301E-1	4.655893E-1	5.259064E-1	4.612274E-1	4.795358E-1	4.877000E-1	4.786307E-1	5.222171E-1	4.430163E-1	5.010821E-1	5.383509E-1	5.021061E-1	5.215185E-1	5.460046E-1	5.136555E-1	5.265593E-1	4.991311E-1	5.123666E-1	4.970977E-1	5.092596E-1	5.428108E-1	4.896942E-1	5.415067E-1	4.867108E-1	4.887234E-1	5.231856E-1	5.384840E-1	4.816380E-1	5.002214E-1	5.330810E-1	5.215835E-1	4.629496E-1	5.387873E-1	5.046692E-1	4.786997E-1	5.146481E-1	5.078853E-1	5.326457E-1	4.892389E-1	5.138022E-1	5.146957E-1	5.187361E-1	4.856800E-1	4.931151E-1	5.137632E-1	5.181478E-1	5.061387E-1	5.163013E-1	4.711686E-1	5.107639E-1	5.278055E-1	4.991369E-1	4.983819E-1	5.068129E-1	4.623344E-1	5.095736E-1
5.375060E+2	5.172661E-1	4.509017E-1	4.767082E-1	4.717132E-1	4.618734E-1	4.540682E-1	4.894692E-1	4.918529E-1	4.616768E-1	4.834990E-1	5.116120E-1	4.641382E-1	4.832670E-1	4.895809E-1	4.924151E-1	4.997853E-1	5.087266E-1	4.452667E-1	5.086541E-1	4.961259E-1	4.888860E-1	4.843263E-1	5.243442E-1	4.801261E-1	4.683356E-1	4.521318E-1	4.915923E-1	4.933122E-1	5.029681E-1	4.599851E-1	4.927726E-1	4.684081E-1	5.109594E-1	4.884851E-1	5.114875E-1	4.843141E-1	4.751814E-1	4.832977E-1	4.834446E-1	5.092701E-1	5.009300E-1	4.834059E-1	5.036469E-1	5.445083E-1	4.774315E-1	4.955365E-1	4.784280E-1	5.033135E-1	5.391670E-1	4.621631E-1	5.018045E-1	4.713885E-1	4.545519E-1	4.883859E-1	5.091210E-1	4.887734E-1	5.120637E-1	4.879555E-1	5.016426E-1	4.850584E-1	4.973429E-1	4.883188E-1	4.952730E-1	4.774839E-1	4.734675E-1	5.107117E-1	5.210773E-1	4.888304E-1	5.075998E-1	5.049817E-1	4.919425E-1	4.728566E-1	4.732427E-1	5.148989E-1	4.825733E-1	4.888877E-1	4.772445E-1	4.508233E-1	5.059963E-1	5.158620E-1	4.906179E-1	4.869273E-1	5.049208E-1	5.150064E-1	4.864078E-1	4.771650E-1	4.566192E-1	4.767933E-1	5.170433E-1	4.933252E-1	4.860737E-1	5.016073E-1	4.991829E-1	4.705008E-1	4.462824E-1	5.117070E-1	4.909995E-1	5.179334E-1	4.911314E-1	4.878134E-1	4.902486E-1	5.099491E-1	5.236931E-1	4.602663E-1	5.225935E-1	5.131678E-1	4.970665E-1	5.260916E-1	4.881768E-1	4.892333E-1	4.871471E-1	5.211271E-1	4.772882E-1	5.228079E-1	4.937969E-1	4.603118E-1	4.679271E-1	4.888810E-1	5.204128E-1	4.846346E-1	5.039112E-1	4.746705E-1	4.939702E-1	4.711758E-1	5.235260E-1	5.021206E-1	4.756251E-1	4.710098E-1	5.013264E-1	5.149463E-1	4.995713E-1	5.033646E-1	5.137559E-1	4.936382E-1	4.955762E-1	4.798219E-1	4.918287E-1	5.160587E-1	5.018705E-1	4.983173E-1	4.781382E-1	5.100489E-1	4.978984E-1	4.642480E-1	4.556682E-1	5.234409E-1	5.235834E-1	4.620043E-1	4.962891E-1	5.134466E-1	5.024869E-1	4.869656E-1	5.269157E-1	5.029688E-1	5.374319E-1	5.098876E-1	4.998295E-1	5.052213E-1	4.801079E-1	4.855123E-1	4.990435E-1	4.807934E-1	4.488980E-1	4.924669E-1	4.186777E-1
5.377740E+2	5.003590E-1	5.396805E-1	5.450895E-1	5.157292E-1	5.347487E-1	5.253060E-1	5.123644E-1	5.346452E-1	5.396739E-1	5.489515E-1	5.690984E-1	5.400709E-1	5.258407E-1	5.339367E-1	5.523003E-1	5.378065E-1	5.510024E-1	5.520133E-1	5.693058E-1	5.774892E-1	5.537940E-1	5.434969E-1	5.875435E-1	5.461784E-1	5.431853E-1	5.249735E-1	5.258973E-1	5.372440E-1	5.573494E-1	5.484364E-1	5.515253E-1	5.458949E-1	5.589646E-1	5.466088E-1	5.629233E-1	5.544562E-1	5.447318E-1	5.172376E-1	5.808360E-1	5.527093E-1	5.248168E-1	5.236305E-1	5.747203E-1	5.131455E-1	5.270671E-1	5.531077E-1	5.474274E-1	5.571757E-1	5.587149E-1	5.404301E-1	5.330767E-1	5.535452E-1	5.324668E-1	5.390021E-1	5.737983E-1	5.457654E-1	5.525324E-1	5.295637E-1	5.418105E-1	5.542342E-1	5.431131E-1	5.561911E-1	5.215652E-1	5.335096E-1	5.392710E-1	5.418037E-1	5.350922E-1	5.223780E-1	5.365662E-1	5.594810E-1	5.296157E-1	5.444910E-1	5.657590E-1	5.720641E-1	5.802505E-1	5.517861E-1	5.226155E-1	5.569654E-1	5.550130E-1	5.542038E-1	5.699583E-1	5.709646E-1	5.693847E-1	5.417345E-1	5.312331E-1	5.254690E-1	5.529627E-1	5.533607E-1	5.120722E-1	5.627387E-1	5.428555E-1	5.364941E-1	5.317381E-1	5.567487E-1	5.492718E-1	5.820243E-1	5.622848E-1	5.598184E-1	5.401826E-1	5.331500E-1	5.714084E-1	5.547068E-1	5.403498E-1	5.588495E-1	5.781753E-1	5.288578E-1	5.559300E-1	5.456480E-1	5.448974E-1	5.322811E-1	5.287339E-1	5.722703E-1	4.850832E-1	5.402439E-1	5.171994E-1	5.718103E-1	5.339703E-1	5.401716E-1	5.698794E-1	5.296978E-1	5.227986E-1	5.329725E-1	5.651301E-1	5.616510E-1	5.172814E-1	5.515431E-1	5.438055E-1	5.486095E-1	5.402536E-1	5.761941E-1	5.337923E-1	5.860858E-1	5.263075E-1	5.287998E-1	5.437850E-1	5.513708E-1	5.633261E-1	5.602850E-1	5.295473E-1	5.622068E-1	5.309997E-1	5.497539E-1	5.533958E-1	5.280364E-1	5.531390E-1	5.239839E-1	5.333321E-1	5.322089E-1	5.420211E-1	5.388377E-1	5.853836E-1	5.813151E-1	5.494644E-1	5.879139E-1	5.342675E-1	5.435827E-1	5.283133E-1	5.280324E-1	5.465611E-1	5.843320E-1	5.688195E-1	5.598117E-1	5.069140E-1	5.702833E-1	5.778135E-1
5.380160E+2	5.630348E-1	5.864015E-1	5.765299E-1	5.905998E-1	5.890088E-1	5.961970E-1	5.585930E-1	5.569670E-1	5.797682E-1	5.496961E-1	5.828576E-1	5.749232E-1	5.934405E-1	5.788759E-1	5.960523E-1	5.709675E-1	6.235496E-1	5.857791E-1	6.078087E-1	6.160687E-1	5.791660E-1	5.739050E-1	5.997615E-1	5.827839E-1	5.786208E-1	5.793968E-1	6.062900E-1	5.930718E-1	6.147017E-1	6.052748E-1	5.964904E-1	6.121564E-1	6.037535E-1	6.127629E-1	5.867435E-1	5.438589E-1	5.840665E-1	5.756930E-1	5.782120E-1	6.000989E-1	6.006959E-1	5.898953E-1	5.767039E-1	6.133773E-1	5.783642E-1	5.750213E-1	5.710777E-1	5.911432E-1	6.328939E-1	6.065735E-1	5.608652E-1	6.131970E-1	5.562609E-1	5.781857E-1	6.020928E-1	6.308016E-1	5.787870E-1	5.665569E-1	6.296999E-1	5.881751E-1	5.962366E-1	5.940820E-1	5.733523E-1	5.640334E-1	6.295386E-1	5.854901E-1	6.153173E-1	5.947716E-1	5.797278E-1	5.908687E-1	5.820742E-1	6.178210E-1	5.443254E-1	6.334199E-1	5.816801E-1	6.143910E-1	5.883621E-1	5.813851E-1	5.861063E-1	5.641996E-1	5.882194E-1	6.123016E-1	6.188636E-1	5.713392E-1	6.128592E-1	5.607500E-1	5.995318E-1	5.546290E-1	6.212985E-1	6.097943E-1	6.067986E-1	6.016966E-1	5.857865E-1	5.872256E-1	5.849650E-1	5.902248E-1	5.804478E-1	5.773897E-1	5.996331E-1	5.766754E-1	5.911449E-1	6.117713E-1	6.340426E-1	5.716790E-1	5.788307E-1	5.734119E-1	5.820298E-1	5.684858E-1	6.002150E-1	5.656115E-1	6.064093E-1	5.621379E-1	5.792416E-1	6.030036E-1	6.058023E-1	6.014634E-1	6.147869E-1	5.951144E-1	6.062370E-1	6.327570E-1	5.754971E-1	5.972052E-1	6.068254E-1	5.837448E-1	5.900220E-1	5.541121E-1	5.875210E-1	6.076367E-1	6.077527E-1	6.562511E-1	5.891631E-1	6.084802E-1	5.553701E-1	6.014760E-1	5.939507E-1	5.943627E-1	6.006721E-1	5.998777E-1	5.876585E-1	6.285599E-1	5.519604E-1	5.996713E-1	6.080476E-1	6.016517E-1	6.593211E-1	6.091341E-1	6.277542E-1	5.925215E-1	6.164879E-1	5.834431E-1	6.029884E-1	5.780252E-1	6.006541E-1	5.982400E-1	6.139961E-1	6.173138E-1	6.014671E-1	6.078361E-1	5.837476E-1	5.659383E-1	5.569491E-1	5.995766E-1	5.595466E-1	5.613083E-1	6.440586E-1
5.382850E+2	7.142740E-1	6.775641E-1	6.889325E-1	7.050162E-1	6.877791E-1	7.065202E-1	6.754591E-1	7.069106E-1	6.774899E-1	6.804657E-1	6.954310E-1	7.408539E-1	7.133220E-1	7.009963E-1	6.936748E-1	6.695603E-1	7.454848E-1	7.085124E-1	7.338810E-1	6.602186E-1	6.911231E-1	6.997283E-1	7.271091E-1	7.026291E-1	6.814009E-1	7.289912E-1	6.733497E-1	6.869621E-1	7.402678E-1	7.553047E-1	6.579312E-1	6.803702E-1	6.969360E-1	6.860915E-1	7.137537E-1	7.013510E-1	6.802078E-1	6.799213E-1	7.184741E-1	6.795436E-1	6.658582E-1	6.935355E-1	7.047624E-1	7.252426E-1	7.185105E-1	7.161418E-1	6.820579E-1	7.088498E-1	7.572952E-1	6.958776E-1	6.730885E-1	7.662247E-1	6.820663E-1	6.923245E-1	6.893513E-1	7.407232E-1	7.171921E-1	7.529280E-1	7.187083E-1	7.265747E-1	6.911043E-1	7.391250E-1	6.835558E-1	7.114649E-1	6.947944E-1	6.991245E-1	7.271654E-1	7.191281E-1	7.228685E-1	7.407827E-1	7.237178E-1	7.315789E-1	6.806567E-1	7.268926E-1	7.158515E-1	7.043628E-1	6.980156E-1	6.903122E-1	6.785348E-1	7.179615E-1	7.100046E-1	6.836358E-1	7.200590E-1	6.509493E-1	6.729897E-1	6.954492E-1	6.869540E-1	7.442898E-1	6.963831E-1	6.957500E-1	7.242596E-1	7.354438E-1	7.117377E-1	7.122547E-1	6.941477E-1	6.652966E-1	7.098005E-1	7.374132E-1	6.847198E-1	7.412052E-1	7.087714E-1	7.337325E-1	7.093211E-1	6.807581E-1	7.240820E-1	7.251128E-1	6.562484E-1	6.673629E-1	7.116272E-1	7.301481E-1	6.918880E-1	6.816428E-1	7.355446E-1	7.458315E-1	7.444618E-1	6.891473E-1	7.092591E-1	6.843941E-1	7.023514E-1	7.087930E-1	6.915471E-1	7.068644E-1	7.243175E-1	7.042051E-1	6.812210E-1	7.198175E-1	6.953813E-1	7.116741E-1	7.260087E-1	7.506714E-1	7.067907E-1	7.393722E-1	6.958690E-1	7.023064E-1	7.032193E-1	7.226022E-1	7.703778E-1	7.319292E-1	6.694922E-1	7.008952E-1	7.477935E-1	6.970470E-1	7.014939E-1	7.037229E-1	7.000394E-1	7.176469E-1	6.916742E-1	6.860368E-1	6.837736E-1	7.115706E-1	7.507411E-1	6.493465E-1	6.852891E-1	7.511158E-1	7.445327E-1	7.435793E-1	6.636360E-1	7.083354E-1	6.841896E-1	6.936283E-1	6.849816E-1	6.557400E-1	6.975891E-1	7.039779E-1	7.755533E-1
5.385110E+2	7.817802E-1	8.145065E-1	8.244159E-1	8.536393E-1	8.634940E-1	8.019616E-1	7.787649E-1	8.500233E-1	8.026171E-1	8.385140E-1	8.063286E-1	8.168590E-1	8.286381E-1	8.045818E-1	8.596732E-1	8.363266E-1	8.712877E-1	8.502754E-1	8.243574E-1	7.936882E-1	8.315336E-1	8.169188E-1	8.545151E-1	8.418025E-1	8.335815E-1	8.229590E-1	8.637561E-1	8.525203E-1	8.453091E-1	8.323103E-1	8.623320E-1	7.669869E-1	8.103149E-1	8.358643E-1	7.734100E-1	8.249400E-1	8.133790E-1	8.231255E-1	8.177893E-1	8.401927E-1	8.329402E-1	8.487560E-1	8.209247E-1	8.864668E-1	8.347729E-1	8.000212E-1	8.131981E-1	8.267627E-1	8.666771E-1	8.402898E-1	8.902303E-1	8.534117E-1	7.890864E-1	8.402139E-1	8.458365E-1	8.487105E-1	7.907769E-1	8.558802E-1	8.449425E-1	8.733964E-1	8.433170E-1	7.884465E-1	8.186038E-1	8.069806E-1	8.532229E-1	7.990661E-1	8.172553E-1	8.410366E-1	8.231366E-1	8.575997E-1	8.775384E-1	8.241616E-1	8.658398E-1	8.303377E-1	9.050228E-1	8.570686E-1	8.245485E-1	8.672542E-1	7.973097E-1	8.192054E-1	8.470622E-1	8.445006E-1	8.418470E-1	8.276838E-1	8.207862E-1	8.604573E-1	8.506403E-1	8.570065E-1	8.418262E-1	8.371360E-1	8.484205E-1	8.592687E-1	8.223289E-1	8.163387E-1	8.068854E-1	8.615399E-1	8.614136E-1	8.144694E-1	8.359072E-1	8.338919E-1	7.981800E-1	8.480194E-1	8.540792E-1	8.418423E-1	8.026307E-1	8.271646E-1	8.563680E-1	8.302639E-1	8.432435E-1	8.309730E-1	8.148407E-1	7.946023E-1	8.230841E-1	8.275438E-1	7.817789E-1	8.097687E-1	8.360004E-1	8.158139E-1	8.333317E-1	8.560563E-1	7.884356E-1	8.201025E-1	8.467812E-1	8.582586E-1	8.544231E-1	8.300500E-1	8.247817E-1	8.034931E-1	8.684148E-1	8.379490E-1	8.160119E-1	8.908622E-1	8.406784E-1	8.152857E-1	8.187018E-1	8.651507E-1	8.041616E-1	8.225183E-1	8.624508E-1	8.324208E-1	8.279960E-1	8.062386E-1	8.333499E-1	8.341844E-1	8.630616E-1	8.168108E-1	8.254365E-1	8.755740E-1	7.901989E-1	8.069273E-1	8.551953E-1	7.606697E-1	8.279727E-1	8.710036E-1	8.342789E-1	9.081363E-1	8.144090E-1	8.527045E-1	8.670952E-1	8.286742E-1	8.022936E-1	8.317593E-1	7.834455E-1	8.701436E-1	7.725505E-1
5.387600E+2	1.008619E+0	9.769034E-1	1.001057E+0	9.761636E-1	9.850896E-1	9.802259E-1	9.385901E-1	9.881483E-1	9.930728E-1	9.301323E-1	9.983439E-1	9.603829E-1	9.939261E-1	9.916901E-1	9.804925E-1	9.928192E-1	1.056176E+0	9.687379E-1	9.911688E-1	9.827192E-1	1.029069E+0	1.024958E+0	1.010499E+0	9.869054E-1	9.317533E-1	9.665759E-1	9.786544E-1	9.889997E-1	1.057786E+0	1.004708E+0	9.958251E-1	9.771406E-1	1.035705E+0	9.843913E-1	1.037260E+0	9.681827E-1	9.443789E-1	9.722825E-1	9.717054E-1	9.880308E-1	9.675458E-1	1.031508E+0	9.931768E-1	1.065770E+0	9.672636E-1	9.509613E-1	9.882435E-1	1.017217E+0	1.009737E+0	9.603467E-1	1.026463E+0	9.895991E-1	9.456813E-1	1.038737E+0	1.012502E+0	9.565111E-1	1.007922E+0	1.002467E+0	1.028565E+0	9.936090E-1	9.719867E-1	9.968429E-1	9.615373E-1	9.931600E-1	9.595725E-1	9.741372E-1	1.008882E+0	9.679354E-1	1.026044E+0	1.006966E+0	1.018755E+0	9.957171E-1	9.672271E-1	9.712789E-1	9.584709E-1	1.043568E+0	9.908509E-1	9.988308E-1	9.929237E-1	1.007946E+0	9.776873E-1	1.003385E+0	9.760881E-1	1.000636E+0	9.922403E-1	1.000655E+0	9.669161E-1	1.070572E+0	1.020693E+0	9.848355E-1	1.016115E+0	1.064902E+0	1.027514E+0	9.590448E-1	9.879289E-1	9.934632E-1	9.915588E-1	1.000596E+0	9.888975E-1	9.680905E-1	9.911481E-1	9.968240E-1	1.007850E+0	1.002122E+0	1.014269E+0	1.012951E+0	9.815814E-1	1.018625E+0	1.003605E+0	1.033888E+0	9.559800E-1	9.919170E-1	9.931289E-1	9.880307E-1	1.047528E+0	9.768815E-1	9.600761E-1	9.739338E-1	1.067072E+0	9.843084E-1	9.938334E-1	1.055750E+0	1.009677E+0	9.737845E-1	9.952495E-1	9.899951E-1	9.932873E-1	9.641231E-1	9.770731E-1	1.016365E+0	1.049719E+0	1.033619E+0	1.019876E+0	9.889997E-1	1.018666E+0	9.929544E-1	1.024107E+0	1.012195E+0	9.850691E-1	1.001532E+0	9.279362E-1	9.942405E-1	9.860533E-1	9.227805E-1	1.012968E+0	9.540535E-1	9.762309E-1	9.822342E-1	9.723952E-1	9.685527E-1	9.750562E-1	9.744120E-1	9.915524E-1	1.001146E+0	1.018508E+0	1.043898E+0	9.766288E-1	9.625024E-1	9.978953E-1	1.023443E+0	9.637455E-1	9.389872E-1	9.860749E-1	1.035992E+0	1.089081E+0
5.390240E+2	1.236593E+0	1.193163E+0	1.216272E+0	1.155353E+0	1.250218E+0	1.185942E+0	1.159254E+0	1.229324E+0	1.206539E+0	1.192005E+0	1.174199E+0	1.246622E+0	1.233208E+0	1.165189E+0	1.179115E+0	1.196928E+0	1.257269E+0	1.192782E+0	1.174129E+0	1.177443E+0	1.255742E+0	1.165729E+0	1.260954E+0	1.217229E+0	1.184027E+0	1.211443E+0	1.175971E+0	1.251515E+0	1.232303E+0	1.242094E+0	1.258941E+0	1.164398E+0	1.180206E+0	1.207135E+0	1.188998E+0	1.123321E+0	1.186460E+0	1.171137E+0	1.235253E+0	1.231116E+0	1.182088E+0	1.173546E+0	1.161663E+0	1.270863E+0	1.178751E+0	1.186530E+0	1.190872E+0	1.259630E+0	1.199484E+0	1.191158E+0	1.200888E+0	1.181971E+0	1.212751E+0	1.228963E+0	1.182085E+0	1.215448E+0	1.209631E+0	1.229262E+0	1.215769E+0	1.178464E+0	1.194613E+0	1.155790E+0	1.196152E+0	1.136180E+0	1.201508E+0	1.179559E+0	1.173412E+0	1.136370E+0	1.218163E+0	1.201807E+0	1.249979E+0	1.187090E+0	1.183505E+0	1.228004E+0	1.184472E+0	1.220544E+0	1.192841E+0	1.180860E+0	1.206234E+0	1.164257E+0	1.204314E+0	1.260050E+0	1.173074E+0	1.189556E+0	1.178255E+0	1.167175E+0	1.149424E+0	1.233242E+0	1.247977E+0	1.217193E+0	1.166648E+0	1.214716E+0	1.181236E+0	1.170139E+0	1.203262E+0	1.196577E+0	1.225241E+0	1.206216E+0	1.225291E+0	1.173921E+0	1.193952E+0	1.200224E+0	1.173994E+0	1.228470E+0	1.256753E+0	1.135499E+0	1.211146E+0	1.172584E+0	1.208487E+0	1.228029E+0	1.196662E+0	1.223071E+0	1.172801E+0	1.165209E+0	1.141416E+0	1.161179E+0	1.198611E+0	1.112580E+0	1.220474E+0	1.219498E+0	1.209325E+0	1.165236E+0	1.243745E+0	1.210846E+0	1.193362E+0	1.194662E+0	1.169413E+0	1.214013E+0	1.222403E+0	1.243423E+0	1.184806E+0	1.245074E+0	1.182013E+0	1.159641E+0	1.216552E+0	1.179279E+0	1.120518E+0	1.177258E+0	1.155742E+0	1.225471E+0	1.221927E+0	1.169430E+0	1.137373E+0	1.160443E+0	1.178693E+0	1.182449E+0	1.188118E+0	1.152934E+0	1.195883E+0	1.194940E+0	1.190668E+0	1.153647E+0	1.200325E+0	1.217347E+0	1.187813E+0	1.263173E+0	1.192840E+0	1.176879E+0	1.180728E+0	1.149600E+0	1.240223E+0	1.212377E+0	1.129916E+0	1.136897E+0	1.207826E+0
5.392670E+2	1.413312E+0	1.364104E+0	1.398653E+0	1.436612E+0	1.359024E+0	1.315539E+0	1.360182E+0	1.360897E+0	1.330064E+0	1.357526E+0	1.375097E+0	1.296463E+0	1.377319E+0	1.377713E+0	1.344224E+0	1.392312E+0	1.405297E+0	1.357397E+0	1.338316E+0	1.354576E+0	1.336112E+0	1.382270E+0	1.344174E+0	1.376374E+0	1.381384E+0	1.376188E+0	1.413265E+0	1.396949E+0	1.389242E+0	1.401661E+0	1.366374E+0	1.301929E+0	1.376797E+0	1.384586E+0	1.367021E+0	1.342898E+0	1.313037E+0	1.373375E+0	1.374895E+0	1.434845E+0	1.420715E+0	1.421277E+0	1.331003E+0	1.443833E+0	1.314354E+0	1.380498E+0	1.393515E+0	1.360524E+0	1.465083E+0	1.379732E+0	1.382339E+0	1.436277E+0	1.304228E+0	1.386080E+0	1.387215E+0	1.422736E+0	1.350292E+0	1.402245E+0	1.357110E+0	1.379918E+0	1.361772E+0	1.405710E+0	1.356025E+0	1.357335E+0	1.391773E+0	1.366350E+0	1.324021E+0	1.427799E+0	1.365950E+0	1.359932E+0	1.371945E+0	1.368278E+0	1.313270E+0	1.398205E+0	1.401698E+0	1.393688E+0	1.386211E+0	1.318914E+0	1.392317E+0	1.382107E+0	1.333958E+0	1.356072E+0	1.394742E+0	1.406323E+0	1.393499E+0	1.411699E+0	1.323993E+0	1.398624E+0	1.370753E+0	1.358486E+0	1.351691E+0	1.354715E+0	1.397882E+0	1.338431E+0	1.309054E+0	1.417205E+0	1.360934E+0	1.356759E+0	1.439955E+0	1.313983E+0	1.363458E+0	1.382098E+0	1.360313E+0	1.360458E+0	1.346990E+0	1.358971E+0	1.353780E+0	1.399771E+0	1.358407E+0	1.357120E+0	1.305719E+0	1.324144E+0	1.387297E+0	1.400852E+0	1.347287E+0	1.298781E+0	1.327810E+0	1.291987E+0	1.378735E+0	1.394070E+0	1.308993E+0	1.352950E+0	1.291793E+0	1.389889E+0	1.350726E+0	1.389190E+0	1.358043E+0	1.367353E+0	1.371295E+0	1.430220E+0	1.378225E+0	1.422357E+0	1.348900E+0	1.336726E+0	1.389021E+0	1.397894E+0	1.368030E+0	1.363424E+0	1.355647E+0	1.411759E+0	1.276599E+0	1.325401E+0	1.322271E+0	1.326216E+0	1.352873E+0	1.417465E+0	1.400812E+0	1.386179E+0	1.302502E+0	1.358209E+0	1.354728E+0	1.327093E+0	1.363150E+0	1.365850E+0	1.320213E+0	1.404392E+0	1.362613E+0	1.311316E+0	1.327565E+0	1.426962E+0	1.330754E+0	1.317297E+0	1.435091E+0	1.247916E+0	1.343041E+0
5.395160E+2	1.587928E+0	1.585752E+0	1.649274E+0	1.592734E+0	1.546333E+0	1.502897E+0	1.546750E+0	1.604658E+0	1.487575E+0	1.508532E+0	1.595318E+0	1.559185E+0	1.596013E+0	1.555294E+0	1.548674E+0	1.541653E+0	1.620351E+0	1.559066E+0	1.577373E+0	1.567257E+0	1.524682E+0	1.555118E+0	1.575343E+0	1.549491E+0	1.509457E+0	1.560202E+0	1.574736E+0	1.612156E+0	1.543487E+0	1.551814E+0	1.570357E+0	1.552785E+0	1.534244E+0	1.573844E+0	1.534225E+0	1.513685E+0	1.540108E+0	1.509922E+0	1.589984E+0	1.605765E+0	1.598706E+0	1.557323E+0	1.540569E+0	1.669439E+0	1.568267E+0	1.571935E+0	1.443286E+0	1.560571E+0	1.624902E+0	1.532505E+0	1.540147E+0	1.626303E+0	1.495232E+0	1.588781E+0	1.597836E+0	1.571200E+0	1.520903E+0	1.597633E+0	1.497584E+0	1.600855E+0	1.558819E+0	1.532728E+0	1.517552E+0	1.606127E+0	1.562266E+0	1.621296E+0	1.572020E+0	1.554691E+0	1.546970E+0	1.563039E+0	1.573788E+0	1.576536E+0	1.540181E+0	1.538148E+0	1.541757E+0	1.572381E+0	1.551117E+0	1.542567E+0	1.470952E+0	1.557092E+0	1.502449E+0	1.554587E+0	1.513304E+0	1.561872E+0	1.537416E+0	1.533392E+0	1.555445E+0	1.593633E+0	1.551230E+0	1.616369E+0	1.485548E+0	1.611027E+0	1.513132E+0	1.535340E+0	1.518966E+0	1.574309E+0	1.568582E+0	1.594223E+0	1.569002E+0	1.560777E+0	1.552726E+0	1.580734E+0	1.568391E+0	1.571063E+0	1.582468E+0	1.543118E+0	1.562382E+0	1.526465E+0	1.548583E+0	1.555736E+0	1.501352E+0	1.577109E+0	1.580721E+0	1.591906E+0	1.538385E+0	1.505111E+0	1.517150E+0	1.516409E+0	1.559131E+0	1.549158E+0	1.469602E+0	1.533964E+0	1.516961E+0	1.576428E+0	1.610537E+0	1.534068E+0	1.458505E+0	1.502451E+0	1.518337E+0	1.596204E+0	1.565646E+0	1.585327E+0	1.522484E+0	1.534008E+0	1.503416E+0	1.495388E+0	1.508152E+0	1.502053E+0	1.513716E+0	1.571471E+0	1.487241E+0	1.516981E+0	1.557850E+0	1.486690E+0	1.558270E+0	1.567602E+0	1.577611E+0	1.563219E+0	1.503900E+0	1.569436E+0	1.620010E+0	1.567041E+0	1.546293E+0	1.581461E+0	1.547852E+0	1.582491E+0	1.463747E+0	1.544550E+0	1.485286E+0	1.480432E+0	1.520067E+0	1.460512E+0	1.463434E+0	1.424488E+0	1.423630E+0
5.397700E+2	1.888880E+0	1.820247E+0	1.966925E+0	1.826102E+0	1.853946E+0	1.758133E+0	1.818156E+0	1.813475E+0	1.888323E+0	1.852799E+0	1.885271E+0	1.827109E+0	1.953014E+0	1.796930E+0	1.840865E+0	1.825752E+0	1.805765E+0	1.849357E+0	1.756281E+0	1.853247E+0	1.816593E+0	1.817671E+0	1.850721E+0	1.868869E+0	1.747081E+0	1.884420E+0	1.808702E+0	1.883231E+0	1.805054E+0	1.829422E+0	1.876035E+0	1.809087E+0	1.843182E+0	1.922769E+0	1.857222E+0	1.749060E+0	1.767349E+0	1.882936E+0	1.807723E+0	1.812230E+0	1.799152E+0	1.834950E+0	1.828060E+0	1.856893E+0	1.758127E+0	1.816010E+0	1.820607E+0	1.846129E+0	1.906897E+0	1.772169E+0	1.773016E+0	1.834932E+0	1.783212E+0	1.805096E+0	1.862967E+0	1.846602E+0	1.822642E+0	1.863556E+0	1.833548E+0	1.863761E+0	1.800196E+0	1.816581E+0	1.858907E+0	1.829633E+0	1.830874E+0	1.785364E+0	1.830300E+0	1.814432E+0	1.888842E+0	1.850964E+0	1.787351E+0	1.899761E+0	1.809478E+0	1.902655E+0	1.803975E+0	1.874297E+0	1.817066E+0	1.855046E+0	1.772187E+0	1.751672E+0	1.871200E+0	1.847420E+0	1.802655E+0	1.782668E+0	1.802597E+0	1.847819E+0	1.780717E+0	1.868685E+0	1.814687E+0	1.763236E+0	1.815227E+0	1.865648E+0	1.844963E+0	1.753767E+0	1.807614E+0	1.841452E+0	1.851342E+0	1.807864E+0	1.840292E+0	1.863334E+0	1.798743E+0	1.761269E+0	1.788092E+0	1.804960E+0	1.802918E+0	1.793714E+0	1.762498E+0	1.854648E+0	1.761273E+0	1.815703E+0	1.716144E+0	1.813121E+0	1.799843E+0	1.799682E+0	1.735477E+0	1.791084E+0	1.713895E+0	1.758203E+0	1.781933E+0	1.773662E+0	1.728039E+0	1.701473E+0	1.820906E+0	1.813720E+0	1.837804E+0	1.764444E+0	1.750985E+0	1.776273E+0	1.849653E+0	1.883316E+0	1.731806E+0	1.843301E+0	1.772265E+0	1.771613E+0	1.847806E+0	1.866971E+0	1.737434E+0	1.775584E+0	1.781646E+0	1.858582E+0	1.789085E+0	1.762321E+0	1.776506E+0	1.774777E+0	1.794219E+0	1.758424E+0	1.776944E+0	1.758073E+0	1.782755E+0	1.785087E+0	1.851735E+0	1.722329E+0	1.715809E+0	1.820297E+0	1.772412E+0	1.864600E+0	1.775518E+0	1.754064E+0	1.747463E+0	1.749461E+0	1.775950E+0	1.771491E+0	1.784319E+0	1.684461E+0	1.774737E+0
5.400190E+2	1.909863E+0	1.838824E+0	1.935952E+0	1.850187E+0	1.934705E+0	1.764959E+0	1.851446E+0	1.967424E+0	1.886407E+0	1.791096E+0	1.912278E+0	1.908962E+0	1.890804E+0	1.858830E+0	1.830154E+0	1.883346E+0	1.931909E+0	1.876641E+0	1.864499E+0	1.845340E+0	1.836300E+0	1.838528E+0	1.881401E+0	1.867860E+0	1.856977E+0	1.848481E+0	1.824987E+0	1.888620E+0	1.917694E+0	1.874592E+0	1.888804E+0	1.838839E+0	1.904339E+0	1.950407E+0	1.892448E+0	1.762792E+0	1.822196E+0	1.834906E+0	1.869660E+0	1.952938E+0	1.835596E+0	1.846996E+0	1.824536E+0	1.953544E+0	1.849678E+0	1.817544E+0	1.849262E+0	1.891660E+0	1.893393E+0	1.814505E+0	1.813644E+0	1.850115E+0	1.829879E+0	1.851155E+0	1.759537E+0	1.888473E+0	1.886238E+0	1.827982E+0	1.802029E+0	1.888690E+0	1.853288E+0	1.864326E+0	1.806921E+0	1.833278E+0	1.884311E+0	1.795170E+0	1.808083E+0	1.848648E+0	1.878617E+0	1.831717E+0	1.768360E+0	1.893279E+0	1.823606E+0	1.851068E+0	1.805361E+0	1.882428E+0	1.762422E+0	1.937418E+0	1.813883E+0	1.844327E+0	1.806338E+0	1.853537E+0	1.796982E+0	1.874843E+0	1.800411E+0	1.846613E+0	1.766322E+0	1.904704E+0	1.835928E+0	1.819000E+0	1.828870E+0	1.819958E+0	1.840633E+0	1.782133E+0	1.806857E+0	1.828307E+0	1.827589E+0	1.922420E+0	1.803073E+0	1.863194E+0	1.825208E+0	1.880372E+0	1.764523E+0	1.797104E+0	1.784138E+0	1.827961E+0	1.817167E+0	1.822857E+0	1.827117E+0	1.860924E+0	1.795630E+0	1.862322E+0	1.793771E+0	1.749821E+0	1.705166E+0	1.794249E+0	1.809760E+0	1.866853E+0	1.853412E+0	1.861557E+0	1.796548E+0	1.830663E+0	1.826898E+0	1.819080E+0	1.896951E+0	1.770845E+0	1.742250E+0	1.813671E+0	1.885911E+0	1.857049E+0	1.748958E+0	1.870320E+0	1.727136E+0	1.855759E+0	1.783122E+0	1.857322E+0	1.823173E+0	1.839050E+0	1.737252E+0	1.809236E+0	1.769575E+0	1.793881E+0	1.776758E+0	1.792366E+0	1.803458E+0	1.791101E+0	1.803488E+0	1.858707E+0	1.753738E+0	1.785986E+0	1.767852E+0	1.834294E+0	1.825113E+0	1.789871E+0	1.804773E+0	1.911183E+0	1.758575E+0	1.814393E+0	1.814296E+0	1.762047E+0	1.769637E+0	1.708174E+0	1.862876E+0	1.759982E+0	1.715502E+0
5.402530E+2	2.035394E+0	1.988415E+0	2.033536E+0	1.947438E+0	1.993696E+0	1.847873E+0	1.915763E+0	2.038049E+0	2.020648E+0	1.898693E+0	1.984342E+0	2.034588E+0	2.064412E+0	2.016007E+0	1.984143E+0	2.002491E+0	2.016240E+0	1.941488E+0	1.927594E+0	1.919980E+0	1.921396E+0	1.911362E+0	1.927530E+0	1.941899E+0	1.946464E+0	1.943684E+0	1.994419E+0	1.945647E+0	1.965346E+0	1.999215E+0	1.975045E+0	1.965704E+0	1.959706E+0	2.008670E+0	1.958737E+0	1.834185E+0	1.889651E+0	1.862458E+0	1.988501E+0	2.048483E+0	1.936392E+0	1.936587E+0	1.873129E+0	2.046461E+0	1.928189E+0	1.920063E+0	1.910317E+0	2.011092E+0	1.962358E+0	1.923659E+0	1.917881E+0	1.995538E+0	1.915215E+0	1.972357E+0	1.906853E+0	1.936114E+0	1.951402E+0	1.963730E+0	1.964352E+0	1.943650E+0	1.914785E+0	1.955682E+0	1.899547E+0	1.912039E+0	1.996080E+0	1.930962E+0	1.826056E+0	1.936323E+0	1.965878E+0	1.984493E+0	1.925229E+0	1.977566E+0	1.924599E+0	1.971838E+0	1.869485E+0	2.085185E+0	1.928378E+0	1.852667E+0	1.872514E+0	1.911070E+0	1.958526E+0	1.930700E+0	1.967454E+0	1.999475E+0	1.926732E+0	1.979057E+0	1.922861E+0	2.019568E+0	2.024038E+0	2.000359E+0	1.926432E+0	1.964994E+0	1.963346E+0	1.908411E+0	1.966309E+0	1.978334E+0	1.950696E+0	1.933699E+0	1.923245E+0	1.920957E+0	1.942843E+0	1.996678E+0	1.881420E+0	1.945668E+0	1.908902E+0	1.927646E+0	1.878850E+0	1.936561E+0	1.943491E+0	1.959634E+0	1.809532E+0	1.898451E+0	1.918132E+0	1.952486E+0	1.943020E+0	1.860803E+0	1.865632E+0	1.935265E+0	1.956801E+0	1.894004E+0	1.888605E+0	1.850256E+0	1.921566E+0	1.960323E+0	1.995320E+0	1.879970E+0	1.883704E+0	1.904173E+0	1.975449E+0	1.950486E+0	1.791538E+0	1.953281E+0	1.904161E+0	1.855716E+0	1.914118E+0	1.994165E+0	1.917127E+0	1.887651E+0	1.921234E+0	1.955666E+0	1.836894E+0	1.876608E+0	1.915642E+0	1.837902E+0	1.885527E+0	1.980934E+0	1.888440E+0	1.910559E+0	1.877103E+0	1.921264E+0	1.844078E+0	1.953529E+0	1.951398E+0	1.932851E+0	1.925462E+0	1.972649E+0	1.887946E+0	1.918263E+0	1.904223E+0	1.925519E+0	1.905843E+0	1.824811E+0	1.909269E+0	1.828586E+0	1.937607E+0
5.405080E+2	1.887025E+0	1.874805E+0	1.925773E+0	1.875347E+0	1.839612E+0	1.803117E+0	1.825181E+0	1.911240E+0	1.868534E+0	1.943540E+0	1.854025E+0	1.892633E+0	1.925999E+0	1.881755E+0	1.941709E+0	1.948216E+0	1.885857E+0	1.839554E+0	1.831765E+0	1.862749E+0	1.859050E+0	1.839984E+0	1.882615E+0	1.877560E+0	1.847885E+0	1.800549E+0	1.869816E+0	1.920024E+0	1.871994E+0	1.874552E+0	1.887396E+0	1.835332E+0	1.863857E+0	1.949383E+0	1.902753E+0	1.824815E+0	1.818910E+0	1.860777E+0	1.866015E+0	1.873327E+0	1.903063E+0	1.892462E+0	1.832170E+0	1.950469E+0	1.813754E+0	1.857480E+0	1.798229E+0	1.949083E+0	1.951946E+0	1.830595E+0	1.838036E+0	1.913278E+0	1.763985E+0	1.795760E+0	1.826653E+0	1.855790E+0	1.818775E+0	1.814424E+0	1.818671E+0	1.845524E+0	1.845103E+0	1.864713E+0	1.853156E+0	1.890287E+0	1.890706E+0	1.827527E+0	1.869175E+0	1.758075E+0	1.879465E+0	1.875465E+0	1.800873E+0	1.935362E+0	1.803580E+0	1.892682E+0	1.875008E+0	1.970334E+0	1.778162E+0	1.875935E+0	1.794025E+0	1.805830E+0	1.899774E+0	1.841555E+0	1.841216E+0	1.899762E+0	1.874728E+0	1.822695E+0	1.822416E+0	1.878105E+0	1.919410E+0	1.887909E+0	1.882670E+0	1.863282E+0	1.835483E+0	1.840382E+0	1.867590E+0	1.935168E+0	1.862632E+0	1.935495E+0	1.826694E+0	1.883885E+0	1.896018E+0	1.889999E+0	1.857276E+0	1.876228E+0	1.868884E+0	1.860383E+0	1.807771E+0	1.854134E+0	1.769569E+0	1.755796E+0	1.798861E+0	1.830015E+0	1.840438E+0	1.858485E+0	1.795393E+0	1.822719E+0	1.832119E+0	1.819838E+0	1.809765E+0	1.894203E+0	1.812016E+0	1.790092E+0	1.858430E+0	1.888682E+0	1.822225E+0	1.863461E+0	1.770108E+0	1.825604E+0	1.841128E+0	1.887876E+0	1.805925E+0	1.837289E+0	1.807023E+0	1.854775E+0	1.792802E+0	1.851437E+0	1.869873E+0	1.803474E+0	1.797604E+0	1.849471E+0	1.770781E+0	1.832230E+0	1.817420E+0	1.777870E+0	1.865623E+0	1.746060E+0	1.827845E+0	1.810390E+0	1.801639E+0	1.773055E+0	1.791598E+0	1.830328E+0	1.810688E+0	1.923908E+0	1.773976E+0	1.823772E+0	1.851516E+0	1.770363E+0	1.788381E+0	1.785288E+0	1.835826E+0	1.812307E+0	1.782432E+0	1.650565E+0	1.824641E+0
5.407630E+2	1.896364E+0	1.901026E+0	1.939160E+0	1.768233E+0	1.824283E+0	1.798867E+0	1.839251E+0	1.933250E+0	1.805883E+0	1.841432E+0	1.896157E+0	1.889673E+0	1.929367E+0	1.866160E+0	1.899943E+0	1.879023E+0	1.885023E+0	1.797758E+0	1.802651E+0	1.898147E+0	1.873522E+0	1.847262E+0	1.842910E+0	1.866372E+0	1.844655E+0	1.860283E+0	1.754962E+0	1.871692E+0	1.842234E+0	1.846347E+0	1.871651E+0	1.829291E+0	1.834185E+0	1.868526E+0	1.870559E+0	1.763938E+0	1.831554E+0	1.820284E+0	1.838254E+0	1.939596E+0	1.779249E+0	1.869539E+0	1.858986E+0	1.833904E+0	1.796452E+0	1.857442E+0	1.789650E+0	1.907618E+0	1.839187E+0	1.800625E+0	1.809352E+0	1.857373E+0	1.769493E+0	1.826968E+0	1.812091E+0	1.874765E+0	1.915649E+0	1.858341E+0	1.766805E+0	1.898874E+0	1.842316E+0	1.895840E+0	1.809821E+0	1.859894E+0	1.894738E+0	1.848829E+0	1.828886E+0	1.813931E+0	1.833850E+0	1.888747E+0	1.806676E+0	1.881327E+0	1.842435E+0	1.811427E+0	1.919204E+0	1.885206E+0	1.818924E+0	1.849515E+0	1.832015E+0	1.827759E+0	1.833489E+0	1.741584E+0	1.838805E+0	1.843241E+0	1.760868E+0	1.826674E+0	1.792971E+0	1.903409E+0	1.836452E+0	1.871457E+0	1.863824E+0	1.837841E+0	1.793297E+0	1.790311E+0	1.858446E+0	1.843524E+0	1.879078E+0	1.830030E+0	1.841620E+0	1.806300E+0	1.777429E+0	1.806917E+0	1.779134E+0	1.821608E+0	1.881321E+0	1.826558E+0	1.738442E+0	1.869895E+0	1.848456E+0	1.806678E+0	1.730172E+0	1.846259E+0	1.810122E+0	1.884617E+0	1.766981E+0	1.763964E+0	1.827423E+0	1.819684E+0	1.842715E+0	1.832638E+0	1.804593E+0	1.755751E+0	1.774813E+0	1.835113E+0	1.782254E+0	1.806132E+0	1.823202E+0	1.763530E+0	1.892916E+0	1.856826E+0	1.713159E+0	1.874120E+0	1.806095E+0	1.806929E+0	1.777489E+0	1.856442E+0	1.741332E+0	1.793763E+0	1.774467E+0	1.820850E+0	1.759284E+0	1.788279E+0	1.792371E+0	1.790955E+0	1.834115E+0	1.825566E+0	1.802488E+0	1.765994E+0	1.769520E+0	1.884062E+0	1.765072E+0	1.777782E+0	1.718565E+0	1.832274E+0	1.769480E+0	1.795051E+0	1.741409E+0	1.813267E+0	1.774078E+0	1.779255E+0	1.783885E+0	1.675775E+0	1.758670E+0	1.701140E+0	1.815455E+0
5.410130E+2	1.679403E+0	1.603855E+0	1.572993E+0	1.551714E+0	1.604813E+0	1.546346E+0	1.569139E+0	1.621908E+0	1.568954E+0	1.563806E+0	1.585193E+0	1.586116E+0	1.581965E+0	1.625670E+0	1.612096E+0	1.619637E+0	1.542246E+0	1.536340E+0	1.631257E+0	1.573778E+0	1.542568E+0	1.564355E+0	1.579283E+0	1.604267E+0	1.553934E+0	1.539570E+0	1.635869E+0	1.582309E+0	1.545281E+0	1.634606E+0	1.615557E+0	1.548861E+0	1.552469E+0	1.649077E+0	1.638432E+0	1.569872E+0	1.535884E+0	1.535364E+0	1.568342E+0	1.623451E+0	1.576094E+0	1.537140E+0	1.521021E+0	1.669244E+0	1.555433E+0	1.599261E+0	1.582808E+0	1.630492E+0	1.603430E+0	1.517150E+0	1.486564E+0	1.633694E+0	1.549463E+0	1.624514E+0	1.573933E+0	1.557814E+0	1.586324E+0	1.586864E+0	1.557552E+0	1.619159E+0	1.643310E+0	1.532467E+0	1.578534E+0	1.549888E+0	1.655525E+0	1.612848E+0	1.569456E+0	1.575985E+0	1.567578E+0	1.581408E+0	1.580063E+0	1.690803E+0	1.588402E+0	1.618165E+0	1.639003E+0	1.604953E+0	1.508226E+0	1.511143E+0	1.575729E+0	1.524312E+0	1.579270E+0	1.575025E+0	1.547036E+0	1.573596E+0	1.608252E+0	1.602830E+0	1.545431E+0	1.589419E+0	1.585094E+0	1.585250E+0	1.580188E+0	1.607968E+0	1.564719E+0	1.597768E+0	1.590825E+0	1.540231E+0	1.638562E+0	1.632248E+0	1.589307E+0	1.564310E+0	1.567597E+0	1.540345E+0	1.560137E+0	1.518226E+0	1.538310E+0	1.505795E+0	1.564425E+0	1.521173E+0	1.571813E+0	1.594399E+0	1.549539E+0	1.598832E+0	1.575169E+0	1.587240E+0	1.557431E+0	1.537300E+0	1.613744E+0	1.534734E+0	1.553230E+0	1.627928E+0	1.505311E+0	1.541093E+0	1.584264E+0	1.537785E+0	1.635235E+0	1.608404E+0	1.551574E+0	1.627968E+0	1.560056E+0	1.598596E+0	1.481179E+0	1.563220E+0	1.550915E+0	1.550229E+0	1.583748E+0	1.617883E+0	1.518608E+0	1.566143E+0	1.520208E+0	1.553016E+0	1.496194E+0	1.577700E+0	1.556837E+0	1.579797E+0	1.562464E+0	1.562898E+0	1.565932E+0	1.583829E+0	1.595452E+0	1.510002E+0	1.556945E+0	1.532470E+0	1.598511E+0	1.555386E+0	1.552752E+0	1.598382E+0	1.521343E+0	1.528407E+0	1.525534E+0	1.584865E+0	1.506407E+0	1.532093E+0	1.516369E+0	1.497647E+0	1.532944E+0
5.412690E+2	1.633562E+0	1.690280E+0	1.696910E+0	1.634770E+0	1.674355E+0	1.576683E+0	1.622981E+0	1.700452E+0	1.662329E+0	1.637070E+0	1.688971E+0	1.643705E+0	1.744283E+0	1.610125E+0	1.607833E+0	1.627373E+0	1.633826E+0	1.612020E+0	1.602175E+0	1.673650E+0	1.662134E+0	1.577936E+0	1.629318E+0	1.634241E+0	1.609145E+0	1.620616E+0	1.630699E+0	1.708220E+0	1.665122E+0	1.635560E+0	1.651523E+0	1.637324E+0	1.647312E+0	1.730428E+0	1.635457E+0	1.635991E+0	1.562594E+0	1.615035E+0	1.576333E+0	1.682530E+0	1.658275E+0	1.684246E+0	1.653513E+0	1.669769E+0	1.628581E+0	1.654275E+0	1.587606E+0	1.625471E+0	1.673840E+0	1.620815E+0	1.625180E+0	1.638670E+0	1.574413E+0	1.612915E+0	1.595818E+0	1.649104E+0	1.685051E+0	1.668586E+0	1.625558E+0	1.713917E+0	1.605091E+0	1.611623E+0	1.558462E+0	1.622250E+0	1.622010E+0	1.615347E+0	1.676525E+0	1.580724E+0	1.650239E+0	1.604739E+0	1.651804E+0	1.678676E+0	1.634610E+0	1.707812E+0	1.656888E+0	1.721649E+0	1.584113E+0	1.614284E+0	1.619227E+0	1.604366E+0	1.599307E+0	1.583905E+0	1.577704E+0	1.685398E+0	1.611263E+0	1.633882E+0	1.581342E+0	1.624460E+0	1.684156E+0	1.624965E+0	1.541894E+0	1.634109E+0	1.656350E+0	1.583927E+0	1.612201E+0	1.658544E+0	1.699625E+0	1.694060E+0	1.571215E+0	1.617136E+0	1.656748E+0	1.647946E+0	1.633908E+0	1.558561E+0	1.684202E+0	1.634277E+0	1.618996E+0	1.612119E+0	1.662449E+0	1.625742E+0	1.565230E+0	1.582219E+0	1.605638E+0	1.683101E+0	1.595170E+0	1.581097E+0	1.635510E+0	1.574710E+0	1.592889E+0	1.653920E+0	1.535528E+0	1.584889E+0	1.601765E+0	1.682379E+0	1.643133E+0	1.672591E+0	1.632667E+0	1.629939E+0	1.591097E+0	1.657912E+0	1.596672E+0	1.693416E+0	1.648493E+0	1.600333E+0	1.630666E+0	1.675027E+0	1.640355E+0	1.651262E+0	1.613430E+0	1.671595E+0	1.593963E+0	1.615935E+0	1.577038E+0	1.554594E+0	1.649480E+0	1.641798E+0	1.577080E+0	1.577898E+0	1.572164E+0	1.603820E+0	1.611181E+0	1.560362E+0	1.641298E+0	1.606828E+0	1.631211E+0	1.666672E+0	1.634332E+0	1.584405E+0	1.606375E+0	1.600047E+0	1.659330E+0	1.557511E+0	1.636763E+0	1.531425E+0	1.541025E+0
5.415140E+2	1.617552E+0	1.488418E+0	1.602785E+0	1.579604E+0	1.528842E+0	1.514396E+0	1.516220E+0	1.606252E+0	1.555805E+0	1.538427E+0	1.552594E+0	1.530170E+0	1.633052E+0	1.581445E+0	1.636088E+0	1.523189E+0	1.512090E+0	1.480415E+0	1.544949E+0	1.596276E+0	1.523695E+0	1.537844E+0	1.602959E+0	1.628343E+0	1.540118E+0	1.505486E+0	1.599158E+0	1.574948E+0	1.579503E+0	1.534313E+0	1.580534E+0	1.579949E+0	1.577519E+0	1.639637E+0	1.557556E+0	1.529127E+0	1.544884E+0	1.584884E+0	1.526187E+0	1.586315E+0	1.489304E+0	1.562957E+0	1.575714E+0	1.650985E+0	1.565128E+0	1.560627E+0	1.585217E+0	1.552646E+0	1.662875E+0	1.557605E+0	1.500795E+0	1.599378E+0	1.516731E+0	1.540458E+0	1.558219E+0	1.570344E+0	1.579246E+0	1.575460E+0	1.572560E+0	1.598423E+0	1.531394E+0	1.574316E+0	1.557245E+0	1.552429E+0	1.608759E+0	1.540754E+0	1.560908E+0	1.534649E+0	1.520994E+0	1.543068E+0	1.587324E+0	1.566737E+0	1.569002E+0	1.551832E+0	1.563086E+0	1.575488E+0	1.521136E+0	1.530740E+0	1.509388E+0	1.525534E+0	1.508185E+0	1.578475E+0	1.489438E+0	1.584348E+0	1.577492E+0	1.548783E+0	1.505233E+0	1.639855E+0	1.613303E+0	1.559981E+0	1.518311E+0	1.575585E+0	1.527406E+0	1.499841E+0	1.550279E+0	1.617350E+0	1.531301E+0	1.614202E+0	1.549752E+0	1.579458E+0	1.502188E+0	1.518680E+0	1.586169E+0	1.545123E+0	1.541783E+0	1.519101E+0	1.547018E+0	1.578431E+0	1.627302E+0	1.553120E+0	1.536111E+0	1.507556E+0	1.584571E+0	1.562101E+0	1.547455E+0	1.544057E+0	1.525261E+0	1.458962E+0	1.551838E+0	1.548010E+0	1.524406E+0	1.593443E+0	1.501125E+0	1.522213E+0	1.589146E+0	1.519513E+0	1.495159E+0	1.505465E+0	1.566113E+0	1.531317E+0	1.563116E+0	1.610368E+0	1.532149E+0	1.513509E+0	1.550434E+0	1.538810E+0	1.500153E+0	1.545757E+0	1.511248E+0	1.527390E+0	1.488677E+0	1.592604E+0	1.518814E+0	1.547956E+0	1.524218E+0	1.585547E+0	1.520927E+0	1.500694E+0	1.522847E+0	1.566110E+0	1.533214E+0	1.567251E+0	1.553732E+0	1.510795E+0	1.515926E+0	1.661718E+0	1.522376E+0	1.600027E+0	1.497646E+0	1.517347E+0	1.546414E+0	1.535279E+0	1.559174E+0	1.409784E+0	1.466765E+0
5.417490E+2	1.482651E+0	1.502453E+0	1.457008E+0	1.435638E+0	1.520753E+0	1.403515E+0	1.453878E+0	1.472524E+0	1.482407E+0	1.450830E+0	1.448148E+0	1.415870E+0	1.488771E+0	1.457951E+0	1.452742E+0	1.471812E+0	1.479312E+0	1.440771E+0	1.472090E+0	1.455916E+0	1.434691E+0	1.472595E+0	1.441252E+0	1.517367E+0	1.421125E+0	1.435526E+0	1.449841E+0	1.503907E+0	1.464244E+0	1.488614E+0	1.428007E+0	1.470404E+0	1.461948E+0	1.460116E+0	1.503948E+0	1.436878E+0	1.383034E+0	1.406805E+0	1.458922E+0	1.509839E+0	1.428895E+0	1.473462E+0	1.434935E+0	1.522582E+0	1.491520E+0	1.496581E+0	1.456052E+0	1.505731E+0	1.526042E+0	1.402720E+0	1.461003E+0	1.519812E+0	1.440597E+0	1.527001E+0	1.407121E+0	1.499899E+0	1.449605E+0	1.480584E+0	1.448480E+0	1.413181E+0	1.392626E+0	1.464220E+0	1.470335E+0	1.426649E+0	1.452363E+0	1.419588E+0	1.491006E+0	1.490291E+0	1.432732E+0	1.518000E+0	1.471949E+0	1.491002E+0	1.409336E+0	1.522314E+0	1.413942E+0	1.571325E+0	1.416152E+0	1.488979E+0	1.418013E+0	1.404765E+0	1.438102E+0	1.482486E+0	1.411119E+0	1.484051E+0	1.487715E+0	1.478702E+0	1.348838E+0	1.465085E+0	1.479535E+0	1.401884E+0	1.441732E+0	1.516470E+0	1.433045E+0	1.496685E+0	1.429372E+0	1.479980E+0	1.490803E+0	1.400176E+0	1.380966E+0	1.495856E+0	1.476593E+0	1.498879E+0	1.436472E+0	1.442068E+0	1.462632E+0	1.487702E+0	1.406501E+0	1.414514E+0	1.480871E+0	1.432666E+0	1.391943E+0	1.452420E+0	1.460098E+0	1.461422E+0	1.404764E+0	1.400832E+0	1.444154E+0	1.403433E+0	1.398211E+0	1.436713E+0	1.485054E+0	1.485430E+0	1.465347E+0	1.440354E+0	1.467764E+0	1.408874E+0	1.462826E+0	1.371080E+0	1.532143E+0	1.500528E+0	1.393451E+0	1.515650E+0	1.493446E+0	1.467148E+0	1.481802E+0	1.448919E+0	1.405134E+0	1.424456E+0	1.451006E+0	1.490515E+0	1.399862E+0	1.400349E+0	1.396393E+0	1.422539E+0	1.519659E+0	1.416295E+0	1.476519E+0	1.447087E+0	1.374861E+0	1.476537E+0	1.491586E+0	1.496050E+0	1.471934E+0	1.498848E+0	1.463578E+0	1.465297E+0	1.479252E+0	1.449854E+0	1.427964E+0	1.456063E+0	1.508132E+0	1.412298E+0	1.423763E+0	1.302170E+0	1.493188E+0
5.420320E+2	1.414297E+0	1.392959E+0	1.390553E+0	1.345306E+0	1.401633E+0	1.341841E+0	1.374890E+0	1.364519E+0	1.417297E+0	1.354830E+0	1.411585E+0	1.392950E+0	1.397409E+0	1.402938E+0	1.403959E+0	1.385168E+0	1.367040E+0	1.390978E+0	1.383418E+0	1.406558E+0	1.402980E+0	1.339065E+0	1.371161E+0	1.352372E+0	1.363756E+0	1.381292E+0	1.398425E+0	1.333945E+0	1.403229E+0	1.395002E+0	1.432676E+0	1.312340E+0	1.410726E+0	1.349936E+0	1.383458E+0	1.365494E+0	1.349605E+0	1.382840E+0	1.391992E+0	1.390885E+0	1.377537E+0	1.457370E+0	1.338679E+0	1.494446E+0	1.383325E+0	1.413524E+0	1.316106E+0	1.383434E+0	1.445593E+0	1.319589E+0	1.388939E+0	1.457548E+0	1.379487E+0	1.358213E+0	1.373043E+0	1.400186E+0	1.382551E+0	1.345192E+0	1.378508E+0	1.363716E+0	1.354314E+0	1.397887E+0	1.343787E+0	1.369925E+0	1.380358E+0	1.333690E+0	1.409021E+0	1.410019E+0	1.373428E+0	1.369505E+0	1.430142E+0	1.431391E+0	1.327259E+0	1.375403E+0	1.460150E+0	1.453203E+0	1.330134E+0	1.347715E+0	1.403638E+0	1.380199E+0	1.405963E+0	1.352438E+0	1.326294E+0	1.390017E+0	1.344436E+0	1.381746E+0	1.357169E+0	1.342410E+0	1.369107E+0	1.298559E+0	1.427530E+0	1.368436E+0	1.401353E+0	1.359067E+0	1.380015E+0	1.436356E+0	1.409703E+0	1.405665E+0	1.377763E+0	1.349616E+0	1.359300E+0	1.385383E+0	1.377527E+0	1.433078E+0	1.404565E+0	1.334555E+0	1.343304E+0	1.347711E+0	1.341668E+0	1.355320E+0	1.299324E+0	1.339384E+0	1.446376E+0	1.382469E+0	1.379290E+0	1.325725E+0	1.361867E+0	1.323237E+0	1.414555E+0	1.414200E+0	1.412634E+0	1.379840E+0	1.400037E+0	1.445337E+0	1.402176E+0	1.332239E+0	1.330751E+0	1.316314E+0	1.408517E+0	1.452827E+0	1.339769E+0	1.409076E+0	1.302165E+0	1.362663E+0	1.343082E+0	1.328922E+0	1.355427E+0	1.379074E+0	1.362822E+0	1.409757E+0	1.326166E+0	1.334259E+0	1.369797E+0	1.370161E+0	1.401211E+0	1.323770E+0	1.348699E+0	1.385281E+0	1.400903E+0	1.415313E+0	1.344381E+0	1.355675E+0	1.331888E+0	1.413441E+0	1.405093E+0	1.417919E+0	1.409996E+0	1.378034E+0	1.370155E+0	1.331094E+0	1.370492E+0	1.327741E+0	1.254850E+0	1.274461E+0	1.234079E+0
5.422780E+2	1.145266E+0	1.097724E+0	1.214743E+0	1.128724E+0	1.136118E+0	1.103870E+0	1.118687E+0	1.179561E+0	1.185397E+0	1.117888E+0	1.166297E+0	1.181100E+0	1.205665E+0	1.234723E+0	1.181540E+0	1.124068E+0	1.145832E+0	1.112069E+0	1.135209E+0	1.132013E+0	1.111363E+0	1.124293E+0	1.116511E+0	1.096305E+0	1.134285E+0	1.112090E+0	1.121597E+0	1.109814E+0	1.168612E+0	1.201647E+0	1.116220E+0	1.078102E+0	1.137828E+0	1.168915E+0	1.141646E+0	1.081525E+0	1.138673E+0	1.126458E+0	1.152410E+0	1.158674E+0	1.179287E+0	1.197282E+0	1.152341E+0	1.204895E+0	1.149726E+0	1.128863E+0	1.121341E+0	1.184420E+0	1.229588E+0	1.097640E+0	1.134021E+0	1.138720E+0	1.095213E+0	1.170760E+0	1.170533E+0	1.216261E+0	1.144173E+0	1.117781E+0	1.143417E+0	1.139473E+0	1.163412E+0	1.184522E+0	1.115635E+0	1.111008E+0	1.142837E+0	1.170636E+0	1.160832E+0	1.175472E+0	1.144614E+0	1.131841E+0	1.116784E+0	1.148246E+0	1.076427E+0	1.119761E+0	1.179205E+0	1.175816E+0	1.114205E+0	1.124472E+0	1.132076E+0	1.173896E+0	1.136068E+0	1.134270E+0	1.095609E+0	1.145931E+0	1.167095E+0	1.127769E+0	1.102984E+0	1.149772E+0	1.129515E+0	1.161680E+0	1.145109E+0	1.174322E+0	1.145974E+0	1.125431E+0	1.106046E+0	1.149352E+0	1.149245E+0	1.196838E+0	1.130158E+0	1.159273E+0	1.126616E+0	1.186407E+0	1.138231E+0	1.152806E+0	1.161985E+0	1.121656E+0	1.108846E+0	1.191665E+0	1.148608E+0	1.175692E+0	1.071659E+0	1.071227E+0	1.136919E+0	1.158515E+0	1.118486E+0	1.110112E+0	1.121086E+0	1.086665E+0	1.147676E+0	1.178962E+0	1.144607E+0	1.127288E+0	1.098169E+0	1.121745E+0	1.164947E+0	1.115984E+0	1.123306E+0	1.140513E+0	1.154080E+0	1.173128E+0	1.131105E+0	1.203236E+0	1.146145E+0	1.150848E+0	1.128188E+0	1.144751E+0	1.124979E+0	1.159510E+0	1.150802E+0	1.163904E+0	1.111892E+0	1.141327E+0	1.110417E+0	1.078902E+0	1.151275E+0	1.174129E+0	1.123511E+0	1.113118E+0	1.107396E+0	1.147581E+0	1.142029E+0	1.169130E+0	1.169771E+0	1.141348E+0	1.214678E+0	1.241243E+0	1.159896E+0	1.112836E+0	1.115668E+0	1.152793E+0	1.156275E+0	1.131215E+0	1.115835E+0	1.113203E+0	1.080037E+0
5.425240E+2	1.094859E+0	1.043814E+0	1.049008E+0	1.022297E+0	1.067534E+0	1.033230E+0	1.023595E+0	1.025107E+0	1.088481E+0	1.010815E+0	1.102457E+0	1.035659E+0	9.960837E-1	1.064667E+0	1.092295E+0	1.078663E+0	1.046976E+0	1.056784E+0	1.047982E+0	1.133096E+0	1.016409E+0	1.015320E+0	1.034411E+0	1.089507E+0	1.076027E+0	1.067476E+0	1.030146E+0	1.113478E+0	1.090186E+0	1.067521E+0	1.024517E+0	1.049635E+0	1.041582E+0	1.129694E+0	1.051146E+0	1.023194E+0	1.070503E+0	1.070152E+0	1.090036E+0	1.033453E+0	1.069842E+0	1.074850E+0	1.027028E+0	1.057110E+0	1.029466E+0	1.031284E+0	1.027557E+0	1.061052E+0	1.103059E+0	1.013027E+0	1.061407E+0	1.081153E+0	1.027446E+0	1.078245E+0	1.052712E+0	1.021165E+0	1.072859E+0	1.046538E+0	1.024232E+0	1.081694E+0	1.059364E+0	1.046042E+0	1.033033E+0	1.030505E+0	1.078562E+0	1.046156E+0	1.063232E+0	1.054719E+0	1.064799E+0	1.060459E+0	1.042337E+0	1.039746E+0	1.072794E+0	1.070612E+0	1.068462E+0	1.063222E+0	1.038107E+0	1.068416E+0	1.041576E+0	1.042896E+0	1.053124E+0	1.102015E+0	1.026173E+0	9.800486E-1	1.061431E+0	1.097614E+0	1.070392E+0	1.103530E+0	9.987124E-1	1.042736E+0	1.091872E+0	1.094024E+0	1.043910E+0	1.046291E+0	1.072954E+0	1.048261E+0	1.050305E+0	1.113463E+0	1.041939E+0	1.082305E+0	1.117669E+0	1.040715E+0	1.047067E+0	1.074904E+0	1.066309E+0	1.028210E+0	1.093299E+0	1.066856E+0	1.067614E+0	1.050168E+0	1.020672E+0	1.019597E+0	1.093530E+0	1.009134E+0	1.007329E+0	1.017393E+0	1.051584E+0	1.023852E+0	1.085985E+0	1.073922E+0	1.038555E+0	1.078159E+0	1.053846E+0	1.061086E+0	1.070138E+0	1.048690E+0	1.061582E+0	1.045153E+0	1.066138E+0	1.068733E+0	1.065136E+0	1.103946E+0	1.020004E+0	1.083167E+0	1.006170E+0	1.061460E+0	1.026122E+0	9.682096E-1	1.069102E+0	1.103418E+0	1.045042E+0	1.024561E+0	1.064085E+0	1.080984E+0	1.093276E+0	1.098329E+0	1.023417E+0	1.056360E+0	1.069574E+0	9.731710E-1	1.051639E+0	9.930889E-1	1.061349E+0	1.124908E+0	1.038370E+0	1.148379E+0	1.054851E+0	1.061665E+0	1.025443E+0	1.067385E+0	1.071986E+0	9.833876E-1	1.050475E+0	1.050750E+0	9.617074E-1
5.427870E+2	9.657202E-1	9.638387E-1	9.236462E-1	8.986065E-1	9.417964E-1	8.994197E-1	9.186158E-1	9.232369E-1	9.576464E-1	8.997609E-1	9.447539E-1	9.439564E-1	9.771391E-1	9.364842E-1	9.651040E-1	9.518046E-1	9.811062E-1	9.473629E-1	9.418938E-1	9.927517E-1	9.327604E-1	9.552596E-1	9.004823E-1	8.946214E-1	9.541989E-1	9.283535E-1	9.698602E-1	9.838433E-1	1.005726E+0	9.566496E-1	9.628528E-1	9.301681E-1	9.740443E-1	9.638349E-1	9.509078E-1	9.196381E-1	9.049107E-1	9.175747E-1	9.552416E-1	9.620049E-1	9.464014E-1	9.783951E-1	8.915724E-1	9.712080E-1	9.475229E-1	9.358946E-1	9.616053E-1	9.310599E-1	9.947037E-1	9.367373E-1	9.271824E-1	9.470394E-1	9.134808E-1	9.785895E-1	9.507294E-1	9.384524E-1	9.620151E-1	9.652933E-1	9.149113E-1	9.607232E-1	9.763386E-1	9.727793E-1	9.451207E-1	9.710888E-1	9.559736E-1	9.752411E-1	9.551719E-1	9.302663E-1	9.330034E-1	9.801310E-1	9.555517E-1	9.468660E-1	9.634285E-1	9.513855E-1	9.274052E-1	9.763998E-1	8.994748E-1	9.497307E-1	9.448229E-1	9.262447E-1	9.669855E-1	9.548393E-1	9.359130E-1	8.969098E-1	8.854654E-1	9.564965E-1	9.195091E-1	9.614891E-1	9.808177E-1	9.887470E-1	9.367886E-1	9.262629E-1	9.505724E-1	9.388369E-1	9.308160E-1	9.262435E-1	9.485560E-1	9.730034E-1	1.032567E+0	9.795051E-1	9.296131E-1	9.337459E-1	9.575086E-1	9.678284E-1	1.040109E+0	9.143860E-1	9.372479E-1	9.584092E-1	1.008192E+0	9.277004E-1	9.251784E-1	8.871997E-1	9.334868E-1	9.254822E-1	8.987533E-1	8.792917E-1	9.098106E-1	9.194606E-1	9.334753E-1	9.317149E-1	9.463924E-1	9.239371E-1	9.642336E-1	1.004782E+0	9.620674E-1	9.648123E-1	9.021321E-1	9.204336E-1	9.385950E-1	9.853618E-1	9.348177E-1	9.395440E-1	9.410328E-1	9.369120E-1	9.364901E-1	9.526824E-1	9.133556E-1	9.603741E-1	9.462120E-1	9.851202E-1	9.538295E-1	9.438499E-1	9.620996E-1	9.270428E-1	9.694270E-1	9.483925E-1	9.357739E-1	9.760724E-1	9.433443E-1	9.506927E-1	9.476549E-1	9.278025E-1	9.914626E-1	1.010976E+0	9.312709E-1	9.367833E-1	9.868583E-1	9.198401E-1	9.550675E-1	9.129129E-1	9.387155E-1	1.000960E+0	9.525275E-1	8.854696E-1	9.227093E-1
5.430170E+2	9.128108E-1	9.103446E-1	9.331162E-1	8.972655E-1	9.419007E-1	8.341433E-1	8.515061E-1	9.671087E-1	9.332149E-1	9.213526E-1	9.005026E-1	9.023083E-1	9.160501E-1	9.104845E-1	9.013856E-1	8.700113E-1	9.483835E-1	9.426784E-1	9.436786E-1	9.438571E-1	9.155595E-1	9.311175E-1	9.064612E-1	9.248523E-1	9.238213E-1	9.478457E-1	9.113712E-1	9.493443E-1	9.351051E-1	9.624800E-1	9.116855E-1	9.253020E-1	9.201007E-1	9.516120E-1	9.418613E-1	9.137856E-1	8.871742E-1	8.819871E-1	8.851346E-1	9.216652E-1	9.327021E-1	9.115163E-1	9.379608E-1	9.527176E-1	9.437908E-1	9.113134E-1	8.916339E-1	9.179625E-1	9.681630E-1	8.998184E-1	9.147232E-1	8.936032E-1	9.266599E-1	9.341534E-1	9.224367E-1	9.569006E-1	8.984524E-1	9.245594E-1	9.101750E-1	9.314181E-1	9.120043E-1	8.896225E-1	8.838465E-1	9.098159E-1	9.045354E-1	8.897927E-1	9.216356E-1	8.728174E-1	8.922719E-1	8.756894E-1	9.329605E-1	9.776052E-1	9.193613E-1	9.575829E-1	9.154254E-1	8.894564E-1	9.013711E-1	9.441779E-1	9.225557E-1	8.885097E-1	9.293213E-1	9.418041E-1	9.436406E-1	9.082830E-1	8.711935E-1	9.226701E-1	8.851212E-1	9.196240E-1	9.463977E-1	9.126945E-1	9.277593E-1	9.403261E-1	9.305387E-1	9.188061E-1	8.590665E-1	9.446462E-1	9.027654E-1	9.605975E-1	9.471365E-1	8.945781E-1	9.162254E-1	9.043401E-1	9.226937E-1	9.192242E-1	9.631059E-1	8.795837E-1	8.976146E-1	9.095642E-1	9.852482E-1	8.721444E-1	8.906422E-1	8.877535E-1	9.579959E-1	9.345948E-1	8.862635E-1	8.944231E-1	8.968085E-1	8.997111E-1	9.843304E-1	9.513848E-1	9.328381E-1	8.878140E-1	8.986432E-1	9.325153E-1	9.129778E-1	8.843374E-1	8.899275E-1	9.008138E-1	9.447833E-1	9.297584E-1	8.937488E-1	9.090777E-1	9.174988E-1	9.416591E-1	9.106654E-1	9.785645E-1	9.440687E-1	9.284604E-1	8.952900E-1	9.670933E-1	9.003876E-1	9.112408E-1	8.980546E-1	9.304713E-1	9.525429E-1	9.249195E-1	9.132019E-1	8.970154E-1	8.675371E-1	9.091264E-1	9.250557E-1	9.021704E-1	9.119344E-1	9.620390E-1	9.021769E-1	9.812247E-1	9.507791E-1	9.250143E-1	8.898619E-1	9.363516E-1	9.542529E-1	8.933071E-1	8.823838E-1	9.374223E-1	9.532453E-1
5.432700E+2	1.050385E+0	9.869003E-1	1.015800E+0	1.004680E+0	1.044916E+0	9.571746E-1	9.444384E-1	9.919650E-1	1.041841E+0	1.031360E+0	1.001379E+0	9.707875E-1	1.048151E+0	9.281017E-1	1.006982E+0	9.572772E-1	1.016375E+0	1.018587E+0	1.027957E+0	1.046431E+0	1.033506E+0	1.014852E+0	9.914853E-1	9.733926E-1	1.019351E+0	1.010774E+0	1.016247E+0	9.946761E-1	1.027131E+0	9.831550E-1	9.825235E-1	9.746864E-1	1.005825E+0	1.032651E+0	9.918419E-1	9.679320E-1	9.437053E-1	9.878241E-1	9.800055E-1	1.022245E+0	9.858835E-1	9.909358E-1	9.736913E-1	1.031121E+0	9.714387E-1	1.047157E+0	9.570053E-1	9.925496E-1	1.064975E+0	9.445617E-1	9.544713E-1	9.708776E-1	9.935071E-1	1.017962E+0	1.026140E+0	1.016305E+0	1.014568E+0	9.615552E-1	1.010071E+0	9.872233E-1	1.004573E+0	1.064365E+0	9.943784E-1	1.010908E+0	1.025856E+0	9.922304E-1	9.996437E-1	9.770203E-1	9.791335E-1	1.008205E+0	9.785758E-1	9.582465E-1	1.008096E+0	1.028824E+0	1.008825E+0	1.036732E+0	9.784711E-1	9.803768E-1	1.016900E+0	9.630286E-1	9.715889E-1	1.039153E+0	9.848025E-1	9.902111E-1	1.009910E+0	1.019887E+0	9.841042E-1	1.011239E+0	1.011034E+0	9.912377E-1	9.985343E-1	1.008482E+0	9.838944E-1	1.000833E+0	1.008582E+0	1.009541E+0	1.028425E+0	1.030070E+0	9.744803E-1	1.014347E+0	9.764536E-1	1.028106E+0	9.680969E-1	9.675128E-1	1.047730E+0	1.002563E+0	1.001976E+0	9.761157E-1	1.031564E+0	1.005623E+0	9.941452E-1	9.484716E-1	1.001635E+0	1.007865E+0	1.008041E+0	9.571194E-1	9.958476E-1	1.002188E+0	9.989659E-1	9.810892E-1	1.003374E+0	9.858389E-1	9.814613E-1	9.967129E-1	1.017115E+0	9.475103E-1	9.780668E-1	9.898180E-1	1.048490E+0	1.043864E+0	9.654505E-1	1.037690E+0	9.999650E-1	9.483462E-1	9.587241E-1	1.036908E+0	9.873042E-1	1.023367E+0	1.007100E+0	1.011421E+0	9.493280E-1	9.644998E-1	9.850226E-1	9.662506E-1	1.010551E+0	1.049552E+0	9.798903E-1	1.000187E+0	9.875122E-1	1.031776E+0	9.816439E-1	9.714812E-1	1.035452E+0	1.066486E+0	1.011969E+0	1.038610E+0	9.617796E-1	1.008594E+0	1.016380E+0	9.841182E-1	1.018566E+0	9.932639E-1	9.315272E-1	9.099957E-1	9.703220E-1
5.435110E+2	1.077377E+0	1.122700E+0	1.147077E+0	1.081385E+0	1.162799E+0	1.025652E+0	1.044119E+0	1.078606E+0	1.123263E+0	1.050331E+0	1.124629E+0	1.052717E+0	1.094193E+0	1.126309E+0	1.106233E+0	1.104576E+0	1.127292E+0	1.110443E+0	1.089399E+0	1.112817E+0	1.126066E+0	1.120803E+0	1.067268E+0	1.106524E+0	1.136101E+0	1.102439E+0	1.112965E+0	1.094342E+0	1.136513E+0	1.119247E+0	1.094091E+0	1.083429E+0	1.148789E+0	1.068705E+0	1.109354E+0	1.059758E+0	1.090204E+0	1.113437E+0	1.044212E+0	1.085359E+0	1.049349E+0	1.098444E+0	1.064542E+0	1.083488E+0	1.122679E+0	1.098950E+0	1.024277E+0	1.125817E+0	1.174656E+0	1.075913E+0	1.088224E+0	1.130826E+0	1.041565E+0	1.116792E+0	1.117642E+0	1.105513E+0	1.075029E+0	1.079370E+0	1.100912E+0	1.068235E+0	1.130648E+0	1.072063E+0	1.056962E+0	1.081575E+0	1.058521E+0	1.110336E+0	1.068005E+0	1.085324E+0	1.141156E+0	1.091180E+0	1.081060E+0	1.099185E+0	1.064590E+0	1.154312E+0	1.166432E+0	1.110508E+0	1.087996E+0	1.104043E+0	1.057932E+0	1.068396E+0	1.144327E+0	1.116773E+0	1.078906E+0	1.135967E+0	1.077682E+0	1.117719E+0	1.092262E+0	1.085459E+0	1.126539E+0	1.081132E+0	1.067106E+0	1.098787E+0	1.110083E+0	1.092017E+0	1.072233E+0	1.104133E+0	1.066186E+0	1.144477E+0	1.056253E+0	1.118238E+0	1.091785E+0	1.151732E+0	1.085330E+0	1.070789E+0	1.117786E+0	1.024744E+0	1.087292E+0	1.097341E+0	1.110086E+0	1.106041E+0	1.061202E+0	1.119280E+0	1.084940E+0	1.157696E+0	1.063756E+0	1.038945E+0	1.131170E+0	1.068575E+0	1.089090E+0	1.136429E+0	1.076563E+0	1.060613E+0	1.016121E+0	1.098816E+0	1.124264E+0	1.084721E+0	1.063656E+0	1.059224E+0	1.094743E+0	1.148160E+0	1.060438E+0	1.108460E+0	1.048161E+0	1.113571E+0	1.037131E+0	1.075541E+0	1.085636E+0	1.107376E+0	1.091588E+0	1.125774E+0	1.070410E+0	1.147036E+0	1.125994E+0	1.053402E+0	1.082953E+0	1.068603E+0	1.058528E+0	1.100420E+0	1.066362E+0	1.078127E+0	1.058030E+0	1.098114E+0	1.132513E+0	1.098959E+0	1.044163E+0	1.130496E+0	1.125751E+0	1.065439E+0	1.089901E+0	1.061864E+0	1.098422E+0	1.052548E+0	1.187924E+0	1.120431E+0	1.086430E+0
5.437750E+2	1.323016E+0	1.323094E+0	1.342351E+0	1.238479E+0	1.337773E+0	1.266197E+0	1.279478E+0	1.382076E+0	1.346142E+0	1.283681E+0	1.301446E+0	1.301748E+0	1.344847E+0	1.335748E+0	1.350046E+0	1.286958E+0	1.348089E+0	1.303558E+0	1.324384E+0	1.312123E+0	1.279865E+0	1.366121E+0	1.290749E+0	1.300057E+0	1.324356E+0	1.291904E+0	1.288066E+0	1.356101E+0	1.341602E+0	1.338995E+0	1.334473E+0	1.243363E+0	1.337613E+0	1.349769E+0	1.358446E+0	1.289825E+0	1.277526E+0	1.278407E+0	1.241264E+0	1.313848E+0	1.327928E+0	1.325690E+0	1.320422E+0	1.330202E+0	1.342286E+0	1.328207E+0	1.303442E+0	1.325800E+0	1.333403E+0	1.322132E+0	1.310125E+0	1.369569E+0	1.323318E+0	1.393145E+0	1.297070E+0	1.324486E+0	1.319477E+0	1.352340E+0	1.305248E+0	1.268307E+0	1.317738E+0	1.302126E+0	1.346986E+0	1.276746E+0	1.306028E+0	1.287945E+0	1.377673E+0	1.343429E+0	1.306643E+0	1.328973E+0	1.335649E+0	1.331952E+0	1.305352E+0	1.368580E+0	1.355516E+0	1.282936E+0	1.312040E+0	1.314868E+0	1.329568E+0	1.308356E+0	1.319491E+0	1.315977E+0	1.319759E+0	1.311915E+0	1.304831E+0	1.325871E+0	1.320609E+0	1.331214E+0	1.347297E+0	1.288531E+0	1.309373E+0	1.308188E+0	1.275741E+0	1.306524E+0	1.251624E+0	1.323919E+0	1.354837E+0	1.323842E+0	1.330157E+0	1.285043E+0	1.354041E+0	1.337588E+0	1.295643E+0	1.263698E+0	1.292028E+0	1.260977E+0	1.316116E+0	1.271530E+0	1.329602E+0	1.292674E+0	1.247482E+0	1.239656E+0	1.301414E+0	1.336211E+0	1.298613E+0	1.290398E+0	1.350577E+0	1.205850E+0	1.339913E+0	1.302898E+0	1.249487E+0	1.297075E+0	1.253058E+0	1.327783E+0	1.312403E+0	1.326683E+0	1.295348E+0	1.269454E+0	1.279067E+0	1.327862E+0	1.246345E+0	1.294286E+0	1.347418E+0	1.287612E+0	1.297438E+0	1.304036E+0	1.318959E+0	1.299198E+0	1.324640E+0	1.312593E+0	1.261068E+0	1.311959E+0	1.305518E+0	1.276865E+0	1.303139E+0	1.363701E+0	1.255988E+0	1.289932E+0	1.277015E+0	1.286571E+0	1.292976E+0	1.285148E+0	1.359381E+0	1.389885E+0	1.320238E+0	1.292857E+0	1.370801E+0	1.275721E+0	1.278545E+0	1.244985E+0	1.368084E+0	1.291728E+0	1.291317E+0	1.247468E+0	1.323226E+0
5.440170E+2	1.504261E+0	1.462260E+0	1.514258E+0	1.436378E+0	1.399171E+0	1.430119E+0	1.428297E+0	1.491160E+0	1.407450E+0	1.384101E+0	1.476293E+0	1.479929E+0	1.498113E+0	1.469135E+0	1.432368E+0	1.454934E+0	1.435681E+0	1.400887E+0	1.390004E+0	1.467254E+0	1.425320E+0	1.424605E+0	1.453499E+0	1.394971E+0	1.407674E+0	1.447630E+0	1.431811E+0	1.456126E+0	1.462351E+0	1.470646E+0	1.418748E+0	1.426940E+0	1.448516E+0	1.447672E+0	1.415518E+0	1.398948E+0	1.459519E+0	1.483890E+0	1.435724E+0	1.467734E+0	1.466825E+0	1.427821E+0	1.434017E+0	1.460039E+0	1.455263E+0	1.468068E+0	1.443002E+0	1.429484E+0	1.419330E+0	1.408231E+0	1.359852E+0	1.440369E+0	1.419217E+0	1.412963E+0	1.433648E+0	1.442855E+0	1.472017E+0	1.430533E+0	1.420642E+0	1.464080E+0	1.419451E+0	1.371281E+0	1.428494E+0	1.437721E+0	1.502807E+0	1.426970E+0	1.491095E+0	1.392500E+0	1.432071E+0	1.453454E+0	1.438382E+0	1.442343E+0	1.414548E+0	1.409347E+0	1.458281E+0	1.463820E+0	1.400210E+0	1.430550E+0	1.441094E+0	1.362370E+0	1.412230E+0	1.417995E+0	1.404583E+0	1.404112E+0	1.424850E+0	1.440573E+0	1.424945E+0	1.414823E+0	1.468877E+0	1.432138E+0	1.463408E+0	1.421725E+0	1.457669E+0	1.410288E+0	1.403837E+0	1.449376E+0	1.417690E+0	1.397631E+0	1.406276E+0	1.480481E+0	1.378313E+0	1.410228E+0	1.427186E+0	1.376832E+0	1.503908E+0	1.405960E+0	1.363563E+0	1.370661E+0	1.465138E+0	1.378765E+0	1.409592E+0	1.410143E+0	1.414184E+0	1.483742E+0	1.433616E+0	1.355580E+0	1.422828E+0	1.429562E+0	1.431084E+0	1.461517E+0	1.440020E+0	1.388285E+0	1.370264E+0	1.393132E+0	1.438948E+0	1.446873E+0	1.408358E+0	1.423026E+0	1.456788E+0	1.505201E+0	1.406872E+0	1.479878E+0	1.514226E+0	1.380014E+0	1.443500E+0	1.409671E+0	1.362636E+0	1.377004E+0	1.380077E+0	1.398371E+0	1.411867E+0	1.371705E+0	1.368981E+0	1.366983E+0	1.472905E+0	1.431103E+0	1.394972E+0	1.375693E+0	1.398325E+0	1.425345E+0	1.354236E+0	1.340859E+0	1.439238E+0	1.437812E+0	1.381901E+0	1.521500E+0	1.458056E+0	1.425220E+0	1.379715E+0	1.372602E+0	1.451253E+0	1.467237E+0	1.426301E+0	1.416931E+0	1.448887E+0
5.442700E+2	1.514130E+0	1.579922E+0	1.572529E+0	1.530826E+0	1.522000E+0	1.446219E+0	1.512781E+0	1.536531E+0	1.563002E+0	1.466082E+0	1.529727E+0	1.509105E+0	1.600338E+0	1.495209E+0	1.514239E+0	1.457968E+0	1.517377E+0	1.498541E+0	1.482242E+0	1.545638E+0	1.529719E+0	1.534795E+0	1.488067E+0	1.470735E+0	1.501522E+0	1.507793E+0	1.500394E+0	1.470202E+0	1.575006E+0	1.626583E+0	1.510737E+0	1.493272E+0	1.516903E+0	1.496840E+0	1.468523E+0	1.423615E+0	1.495515E+0	1.482466E+0	1.542362E+0	1.489471E+0	1.537963E+0	1.475006E+0	1.478596E+0	1.571088E+0	1.487077E+0	1.500246E+0	1.494257E+0	1.516499E+0	1.594010E+0	1.469144E+0	1.522178E+0	1.491964E+0	1.478946E+0	1.480762E+0	1.493352E+0	1.494261E+0	1.450463E+0	1.468307E+0	1.496504E+0	1.584839E+0	1.540294E+0	1.528917E+0	1.460836E+0	1.450376E+0	1.563084E+0	1.518961E+0	1.573494E+0	1.480883E+0	1.516554E+0	1.590713E+0	1.474812E+0	1.520325E+0	1.549054E+0	1.591556E+0	1.534449E+0	1.525318E+0	1.485624E+0	1.526590E+0	1.462982E+0	1.450617E+0	1.492388E+0	1.453110E+0	1.503525E+0	1.459765E+0	1.509461E+0	1.507152E+0	1.406405E+0	1.463545E+0	1.513535E+0	1.559061E+0	1.530172E+0	1.514779E+0	1.513223E+0	1.460784E+0	1.470999E+0	1.544277E+0	1.527962E+0	1.518090E+0	1.539787E+0	1.485969E+0	1.507646E+0	1.492499E+0	1.449550E+0	1.499376E+0	1.511095E+0	1.490967E+0	1.484232E+0	1.483661E+0	1.521662E+0	1.477725E+0	1.423154E+0	1.432571E+0	1.459168E+0	1.545371E+0	1.424248E+0	1.475371E+0	1.480789E+0	1.446282E+0	1.443677E+0	1.498351E+0	1.508695E+0	1.460237E+0	1.448424E+0	1.499888E+0	1.530918E+0	1.537766E+0	1.442561E+0	1.485460E+0	1.504382E+0	1.511067E+0	1.474194E+0	1.545686E+0	1.512207E+0	1.483581E+0	1.429878E+0	1.512005E+0	1.468562E+0	1.477354E+0	1.491854E+0	1.496295E+0	1.445883E+0	1.504375E+0	1.494317E+0	1.474831E+0	1.534640E+0	1.562147E+0	1.481624E+0	1.480894E+0	1.478591E+0	1.539910E+0	1.511824E+0	1.411854E+0	1.558922E+0	1.510908E+0	1.443805E+0	1.554068E+0	1.491803E+0	1.483211E+0	1.507018E+0	1.446685E+0	1.515205E+0	1.515347E+0	1.457093E+0	1.289702E+0	1.502321E+0
5.445180E+2	1.592911E+0	1.583946E+0	1.585418E+0	1.559379E+0	1.591488E+0	1.537438E+0	1.552838E+0	1.637825E+0	1.578773E+0	1.550066E+0	1.607226E+0	1.555901E+0	1.673424E+0	1.570769E+0	1.650868E+0	1.550840E+0	1.554450E+0	1.539728E+0	1.602355E+0	1.559333E+0	1.581036E+0	1.582583E+0	1.492982E+0	1.595650E+0	1.603277E+0	1.630042E+0	1.534834E+0	1.528363E+0	1.635366E+0	1.641818E+0	1.578157E+0	1.548195E+0	1.540936E+0	1.634300E+0	1.633312E+0	1.533229E+0	1.550863E+0	1.607036E+0	1.520072E+0	1.652718E+0	1.657039E+0	1.608160E+0	1.599167E+0	1.614355E+0	1.562606E+0	1.599877E+0	1.576047E+0	1.554795E+0	1.665050E+0	1.572458E+0	1.567961E+0	1.521187E+0	1.547940E+0	1.582899E+0	1.594531E+0	1.564669E+0	1.643301E+0	1.618835E+0	1.609151E+0	1.572027E+0	1.617014E+0	1.527549E+0	1.529093E+0	1.547212E+0	1.588793E+0	1.616581E+0	1.596571E+0	1.584889E+0	1.552153E+0	1.566700E+0	1.600897E+0	1.598101E+0	1.610668E+0	1.581942E+0	1.593745E+0	1.638409E+0	1.572032E+0	1.591525E+0	1.515500E+0	1.527910E+0	1.595685E+0	1.623813E+0	1.578243E+0	1.564296E+0	1.586074E+0	1.602503E+0	1.472591E+0	1.574302E+0	1.659770E+0	1.615681E+0	1.631598E+0	1.573578E+0	1.573346E+0	1.561883E+0	1.566045E+0	1.681495E+0	1.676163E+0	1.636294E+0	1.552424E+0	1.592720E+0	1.582139E+0	1.536142E+0	1.626709E+0	1.522765E+0	1.557996E+0	1.520706E+0	1.480653E+0	1.525345E+0	1.640704E+0	1.556657E+0	1.554154E+0	1.509651E+0	1.568147E+0	1.677244E+0	1.509491E+0	1.509607E+0	1.521638E+0	1.490570E+0	1.562739E+0	1.569909E+0	1.532303E+0	1.581018E+0	1.553331E+0	1.537560E+0	1.593938E+0	1.554816E+0	1.508961E+0	1.536972E+0	1.574660E+0	1.627467E+0	1.519364E+0	1.603106E+0	1.499135E+0	1.497868E+0	1.511665E+0	1.543610E+0	1.551294E+0	1.518430E+0	1.552437E+0	1.642698E+0	1.540322E+0	1.508755E+0	1.523739E+0	1.478014E+0	1.556401E+0	1.561479E+0	1.475544E+0	1.559687E+0	1.479733E+0	1.557094E+0	1.558708E+0	1.509876E+0	1.634238E+0	1.541195E+0	1.593941E+0	1.621274E+0	1.558506E+0	1.569990E+0	1.553102E+0	1.547204E+0	1.586860E+0	1.492888E+0	1.577318E+0	1.432082E+0	1.507342E+0
5.447610E+2	1.500701E+0	1.498854E+0	1.548540E+0	1.481050E+0	1.517545E+0	1.422775E+0	1.429216E+0	1.497345E+0	1.511513E+0	1.504232E+0	1.517288E+0	1.508146E+0	1.474056E+0	1.511250E+0	1.513670E+0	1.518100E+0	1.505289E+0	1.467491E+0	1.428748E+0	1.457975E+0	1.488035E+0	1.553105E+0	1.513624E+0	1.439055E+0	1.456272E+0	1.471337E+0	1.495412E+0	1.496036E+0	1.510114E+0	1.500293E+0	1.483602E+0	1.508925E+0	1.534320E+0	1.568204E+0	1.469645E+0	1.445081E+0	1.519371E+0	1.480089E+0	1.545109E+0	1.463357E+0	1.510515E+0	1.470460E+0	1.490702E+0	1.512675E+0	1.483423E+0	1.488956E+0	1.483921E+0	1.498746E+0	1.560543E+0	1.495177E+0	1.497974E+0	1.544532E+0	1.510286E+0	1.515674E+0	1.407949E+0	1.451565E+0	1.512545E+0	1.514832E+0	1.458797E+0	1.439851E+0	1.510325E+0	1.511125E+0	1.460286E+0	1.443640E+0	1.524108E+0	1.446865E+0	1.518101E+0	1.461711E+0	1.512604E+0	1.507445E+0	1.470793E+0	1.501648E+0	1.507411E+0	1.551779E+0	1.523458E+0	1.468191E+0	1.499814E+0	1.503861E+0	1.481194E+0	1.441337E+0	1.449822E+0	1.476175E+0	1.495593E+0	1.446517E+0	1.469473E+0	1.502364E+0	1.421919E+0	1.484787E+0	1.552286E+0	1.475189E+0	1.481101E+0	1.485408E+0	1.569771E+0	1.488930E+0	1.452720E+0	1.506343E+0	1.504624E+0	1.481123E+0	1.518938E+0	1.507732E+0	1.490098E+0	1.526725E+0	1.468199E+0	1.472436E+0	1.440502E+0	1.499481E+0	1.473444E+0	1.473440E+0	1.520526E+0	1.493508E+0	1.437872E+0	1.464027E+0	1.504009E+0	1.481153E+0	1.427344E+0	1.452881E+0	1.451794E+0	1.499200E+0	1.419937E+0	1.545746E+0	1.478118E+0	1.479242E+0	1.481324E+0	1.513007E+0	1.527701E+0	1.484001E+0	1.412743E+0	1.459375E+0	1.481884E+0	1.513514E+0	1.387026E+0	1.552000E+0	1.444995E+0	1.483242E+0	1.456509E+0	1.456067E+0	1.457853E+0	1.487152E+0	1.426714E+0	1.513846E+0	1.461106E+0	1.502584E+0	1.493463E+0	1.477098E+0	1.448656E+0	1.525840E+0	1.458345E+0	1.485511E+0	1.456525E+0	1.511237E+0	1.505990E+0	1.445217E+0	1.514962E+0	1.506998E+0	1.491283E+0	1.440682E+0	1.455974E+0	1.536175E+0	1.453413E+0	1.427883E+0	1.535945E+0	1.426191E+0	1.446453E+0	1.387890E+0	1.449269E+0
5.450150E+2	1.486434E+0	1.453572E+0	1.562682E+0	1.435980E+0	1.442143E+0	1.485423E+0	1.506076E+0	1.533002E+0	1.456748E+0	1.516398E+0	1.577831E+0	1.479508E+0	1.468675E+0	1.522951E+0	1.538299E+0	1.446663E+0	1.477498E+0	1.471149E+0	1.487197E+0	1.499213E+0	1.502066E+0	1.484901E+0	1.541518E+0	1.515912E+0	1.479629E+0	1.485773E+0	1.508796E+0	1.509070E+0	1.501330E+0	1.551291E+0	1.502160E+0	1.495642E+0	1.528858E+0	1.586740E+0	1.480172E+0	1.437398E+0	1.425815E+0	1.486576E+0	1.533769E+0	1.449123E+0	1.457144E+0	1.483725E+0	1.527839E+0	1.500634E+0	1.491560E+0	1.451624E+0	1.485751E+0	1.485772E+0	1.538292E+0	1.411358E+0	1.469205E+0	1.517930E+0	1.518600E+0	1.521893E+0	1.507521E+0	1.486601E+0	1.516897E+0	1.415602E+0	1.520657E+0	1.454505E+0	1.503206E+0	1.468406E+0	1.409805E+0	1.482531E+0	1.524051E+0	1.516201E+0	1.491642E+0	1.455282E+0	1.520909E+0	1.508447E+0	1.477099E+0	1.509831E+0	1.534538E+0	1.511783E+0	1.480673E+0	1.531835E+0	1.386702E+0	1.480236E+0	1.482374E+0	1.509774E+0	1.491008E+0	1.434300E+0	1.455111E+0	1.397767E+0	1.507290E+0	1.468566E+0	1.432357E+0	1.461734E+0	1.496700E+0	1.546674E+0	1.524691E+0	1.492254E+0	1.527873E+0	1.481331E+0	1.475418E+0	1.548689E+0	1.607718E+0	1.545630E+0	1.463393E+0	1.484746E+0	1.515214E+0	1.508845E+0	1.476918E+0	1.502582E+0	1.542422E+0	1.433871E+0	1.470266E+0	1.436444E+0	1.457006E+0	1.464993E+0	1.445730E+0	1.449525E+0	1.504371E+0	1.499205E+0	1.490977E+0	1.498253E+0	1.460738E+0	1.397312E+0	1.523198E+0	1.489151E+0	1.447706E+0	1.510653E+0	1.509143E+0	1.537818E+0	1.518602E+0	1.417207E+0	1.417356E+0	1.467501E+0	1.468078E+0	1.498825E+0	1.435232E+0	1.509480E+0	1.490550E+0	1.470991E+0	1.468887E+0	1.537981E+0	1.463027E+0	1.486609E+0	1.479275E+0	1.474005E+0	1.405366E+0	1.472675E+0	1.451616E+0	1.473882E+0	1.520367E+0	1.364498E+0	1.462565E+0	1.460632E+0	1.442434E+0	1.453920E+0	1.470200E+0	1.403878E+0	1.535618E+0	1.482186E+0	1.469306E+0	1.503007E+0	1.490378E+0	1.469627E+0	1.431769E+0	1.484544E+0	1.567548E+0	1.447611E+0	1.455965E+0	1.400884E+0	1.468323E+0
5.452690E+2	1.406743E+0	1.383096E+0	1.450779E+0	1.346870E+0	1.422254E+0	1.367204E+0	1.318673E+0	1.405439E+0	1.350597E+0	1.377962E+0	1.388123E+0	1.380105E+0	1.400592E+0	1.405897E+0	1.366241E+0	1.384935E+0	1.351792E+0	1.402199E+0	1.378861E+0	1.365008E+0	1.393734E+0	1.392301E+0	1.393007E+0	1.380922E+0	1.334151E+0	1.382920E+0	1.378581E+0	1.390562E+0	1.411133E+0	1.453562E+0	1.376009E+0	1.364904E+0	1.334471E+0	1.422064E+0	1.406986E+0	1.339676E+0	1.348458E+0	1.344995E+0	1.403530E+0	1.400447E+0	1.442645E+0	1.421653E+0	1.370886E+0	1.372313E+0	1.338501E+0	1.387728E+0	1.390914E+0	1.428424E+0	1.401102E+0	1.361348E+0	1.318691E+0	1.445767E+0	1.331507E+0	1.410572E+0	1.389881E+0	1.454155E+0	1.417290E+0	1.397101E+0	1.391885E+0	1.366344E+0	1.379912E+0	1.396567E+0	1.358758E+0	1.351623E+0	1.361677E+0	1.419922E+0	1.349657E+0	1.368045E+0	1.386139E+0	1.414472E+0	1.347456E+0	1.359383E+0	1.407532E+0	1.455122E+0	1.345525E+0	1.427073E+0	1.410026E+0	1.396322E+0	1.411113E+0	1.338750E+0	1.368454E+0	1.398456E+0	1.334547E+0	1.393673E+0	1.364547E+0	1.362876E+0	1.355504E+0	1.308427E+0	1.408203E+0	1.331765E+0	1.370731E+0	1.409393E+0	1.365312E+0	1.431449E+0	1.367143E+0	1.413010E+0	1.413542E+0	1.344837E+0	1.365478E+0	1.371505E+0	1.423252E+0	1.378162E+0	1.382630E+0	1.333676E+0	1.409461E+0	1.355685E+0	1.361838E+0	1.338354E+0	1.355159E+0	1.386087E+0	1.313746E+0	1.347506E+0	1.332820E+0	1.373231E+0	1.397483E+0	1.295264E+0	1.323442E+0	1.343455E+0	1.373991E+0	1.369371E+0	1.387761E+0	1.392475E+0	1.374835E+0	1.334901E+0	1.420882E+0	1.419305E+0	1.382821E+0	1.370881E+0	1.386609E+0	1.457842E+0	1.349598E+0	1.337835E+0	1.401211E+0	1.391476E+0	1.359939E+0	1.376784E+0	1.426998E+0	1.387151E+0	1.394949E+0	1.388194E+0	1.381280E+0	1.372042E+0	1.404218E+0	1.373646E+0	1.385095E+0	1.377879E+0	1.405860E+0	1.330604E+0	1.362782E+0	1.366570E+0	1.398419E+0	1.342333E+0	1.399977E+0	1.402382E+0	1.341692E+0	1.370077E+0	1.312794E+0	1.429051E+0	1.371311E+0	1.337720E+0	1.347339E+0	1.251430E+0	1.431815E+0	1.317822E+0	1.435373E+0
5.455070E+2	1.402144E+0	1.374110E+0	1.405373E+0	1.404388E+0	1.440511E+0	1.320029E+0	1.352779E+0	1.412877E+0	1.389151E+0	1.360230E+0	1.417849E+0	1.316769E+0	1.370416E+0	1.372760E+0	1.386450E+0	1.355398E+0	1.357969E+0	1.371630E+0	1.350670E+0	1.352535E+0	1.335158E+0	1.393343E+0	1.360790E+0	1.353296E+0	1.327994E+0	1.361777E+0	1.357650E+0	1.370241E+0	1.370597E+0	1.425225E+0	1.329005E+0	1.340315E+0	1.358069E+0	1.387050E+0	1.360012E+0	1.280229E+0	1.314426E+0	1.421180E+0	1.369732E+0	1.382233E+0	1.388956E+0	1.382460E+0	1.355874E+0	1.398623E+0	1.350876E+0	1.370994E+0	1.339201E+0	1.378374E+0	1.355961E+0	1.379660E+0	1.376242E+0	1.407950E+0	1.352563E+0	1.377808E+0	1.331287E+0	1.377081E+0	1.356912E+0	1.353690E+0	1.344133E+0	1.355851E+0	1.352966E+0	1.363122E+0	1.316336E+0	1.402866E+0	1.417790E+0	1.382911E+0	1.389059E+0	1.371932E+0	1.367631E+0	1.335916E+0	1.351501E+0	1.357072E+0	1.352204E+0	1.403209E+0	1.400713E+0	1.370556E+0	1.296520E+0	1.402228E+0	1.348133E+0	1.371234E+0	1.377619E+0	1.374110E+0	1.330975E+0	1.395032E+0	1.329581E+0	1.361881E+0	1.285162E+0	1.353070E+0	1.374971E+0	1.347335E+0	1.346641E+0	1.350082E+0	1.336992E+0	1.392501E+0	1.337659E+0	1.342155E+0	1.422641E+0	1.388033E+0	1.428909E+0	1.372554E+0	1.299378E+0	1.418420E+0	1.304985E+0	1.368458E+0	1.404152E+0	1.343955E+0	1.365495E+0	1.320660E+0	1.342663E+0	1.315173E+0	1.364978E+0	1.361254E+0	1.358749E+0	1.363027E+0	1.305117E+0	1.311537E+0	1.317353E+0	1.319189E+0	1.421473E+0	1.394728E+0	1.348452E+0	1.291099E+0	1.384372E+0	1.381678E+0	1.336450E+0	1.396982E+0	1.350182E+0	1.310572E+0	1.402174E+0	1.378562E+0	1.317015E+0	1.429191E+0	1.376845E+0	1.410056E+0	1.297259E+0	1.335547E+0	1.320035E+0	1.305031E+0	1.314545E+0	1.374124E+0	1.356598E+0	1.354865E+0	1.291792E+0	1.327297E+0	1.346894E+0	1.403660E+0	1.325387E+0	1.331794E+0	1.395767E+0	1.420664E+0	1.359773E+0	1.316616E+0	1.413673E+0	1.451924E+0	1.304937E+0	1.374442E+0	1.409986E+0	1.384257E+0	1.290019E+0	1.311195E+0	1.377117E+0	1.337143E+0	1.388293E+0	1.375171E+0	1.369182E+0
5.457720E+2	1.331073E+0	1.322698E+0	1.354197E+0	1.223179E+0	1.328923E+0	1.241311E+0	1.297626E+0	1.269616E+0	1.276941E+0	1.314037E+0	1.270349E+0	1.288252E+0	1.322191E+0	1.364010E+0	1.321172E+0	1.260341E+0	1.311362E+0	1.274243E+0	1.235301E+0	1.294782E+0	1.285415E+0	1.237011E+0	1.274293E+0	1.234680E+0	1.234308E+0	1.282917E+0	1.249235E+0	1.304932E+0	1.309729E+0	1.342151E+0	1.278504E+0	1.250189E+0	1.267776E+0	1.384534E+0	1.304595E+0	1.306372E+0	1.291344E+0	1.239576E+0	1.288051E+0	1.304487E+0	1.257694E+0	1.331549E+0	1.250404E+0	1.317304E+0	1.235606E+0	1.244104E+0	1.265262E+0	1.292679E+0	1.296014E+0	1.245085E+0	1.275087E+0	1.271240E+0	1.243707E+0	1.293931E+0	1.288687E+0	1.292717E+0	1.290134E+0	1.320767E+0	1.277630E+0	1.266332E+0	1.291584E+0	1.207551E+0	1.293278E+0	1.242392E+0	1.271852E+0	1.280248E+0	1.276458E+0	1.275235E+0	1.319966E+0	1.314122E+0	1.304290E+0	1.239736E+0	1.279874E+0	1.348349E+0	1.259316E+0	1.324995E+0	1.275984E+0	1.250050E+0	1.237177E+0	1.280381E+0	1.263431E+0	1.270883E+0	1.322316E+0	1.264029E+0	1.321280E+0	1.303041E+0	1.184344E+0	1.295045E+0	1.320340E+0	1.266073E+0	1.266480E+0	1.209831E+0	1.247843E+0	1.286272E+0	1.238058E+0	1.297515E+0	1.291894E+0	1.238147E+0	1.274664E+0	1.285493E+0	1.266795E+0	1.299535E+0	1.296121E+0	1.283361E+0	1.239443E+0	1.270128E+0	1.272432E+0	1.240517E+0	1.325889E+0	1.310667E+0	1.218065E+0	1.256564E+0	1.330157E+0	1.304422E+0	1.280591E+0	1.227609E+0	1.241523E+0	1.196908E+0	1.297812E+0	1.275428E+0	1.291705E+0	1.220150E+0	1.309744E+0	1.227648E+0	1.273788E+0	1.341749E+0	1.186251E+0	1.243249E+0	1.330673E+0	1.315577E+0	1.230898E+0	1.274231E+0	1.277819E+0	1.280808E+0	1.248811E+0	1.293342E+0	1.263982E+0	1.286861E+0	1.257085E+0	1.305814E+0	1.230644E+0	1.272254E+0	1.294344E+0	1.284387E+0	1.311191E+0	1.338152E+0	1.238893E+0	1.253608E+0	1.307916E+0	1.236741E+0	1.280076E+0	1.246694E+0	1.264279E+0	1.335589E+0	1.244577E+0	1.300932E+0	1.346291E+0	1.257824E+0	1.260163E+0	1.247819E+0	1.342811E+0	1.260696E+0	1.275792E+0	1.148932E+0	1.320108E+0
5.460110E+2	1.226736E+0	1.147395E+0	1.295676E+0	1.171533E+0	1.249832E+0	1.210033E+0	1.160496E+0	1.211480E+0	1.271367E+0	1.250903E+0	1.243040E+0	1.195686E+0	1.244695E+0	1.163947E+0	1.249648E+0	1.275652E+0	1.233793E+0	1.223897E+0	1.274023E+0	1.199426E+0	1.198583E+0	1.208862E+0	1.253721E+0	1.222197E+0	1.215821E+0	1.216772E+0	1.184005E+0	1.221667E+0	1.247676E+0	1.260733E+0	1.196514E+0	1.249101E+0	1.223935E+0	1.256762E+0	1.249882E+0	1.192576E+0	1.207102E+0	1.269801E+0	1.240706E+0	1.187613E+0	1.276038E+0	1.253709E+0	1.212959E+0	1.287459E+0	1.247080E+0	1.246618E+0	1.243153E+0	1.216384E+0	1.252412E+0	1.200422E+0	1.230979E+0	1.249993E+0	1.165589E+0	1.267984E+0	1.251900E+0	1.248223E+0	1.177453E+0	1.230078E+0	1.214289E+0	1.254109E+0	1.178761E+0	1.244240E+0	1.220062E+0	1.234818E+0	1.262784E+0	1.225881E+0	1.253635E+0	1.214116E+0	1.240388E+0	1.256916E+0	1.221792E+0	1.217162E+0	1.231382E+0	1.222823E+0	1.267644E+0	1.251818E+0	1.203269E+0	1.211806E+0	1.287779E+0	1.165588E+0	1.220406E+0	1.227664E+0	1.231645E+0	1.217388E+0	1.192374E+0	1.246531E+0	1.192812E+0	1.216454E+0	1.132435E+0	1.237674E+0	1.219359E+0	1.199886E+0	1.232987E+0	1.250037E+0	1.179662E+0	1.245822E+0	1.252217E+0	1.243650E+0	1.205729E+0	1.194582E+0	1.223533E+0	1.253149E+0	1.203302E+0	1.219289E+0	1.227661E+0	1.200735E+0	1.237102E+0	1.198983E+0	1.245574E+0	1.246722E+0	1.192682E+0	1.211546E+0	1.212639E+0	1.198087E+0	1.238663E+0	1.160072E+0	1.241518E+0	1.211310E+0	1.202680E+0	1.238726E+0	1.187788E+0	1.209740E+0	1.181449E+0	1.176121E+0	1.260575E+0	1.250707E+0	1.197759E+0	1.187839E+0	1.227710E+0	1.236362E+0	1.223630E+0	1.221339E+0	1.203022E+0	1.248811E+0	1.219770E+0	1.236359E+0	1.159122E+0	1.164703E+0	1.201040E+0	1.211578E+0	1.130232E+0	1.249233E+0	1.212030E+0	1.183177E+0	1.248318E+0	1.225098E+0	1.171087E+0	1.236969E+0	1.246903E+0	1.256788E+0	1.232667E+0	1.191128E+0	1.256621E+0	1.274618E+0	1.197669E+0	1.204860E+0	1.248830E+0	1.221007E+0	1.200350E+0	1.233808E+0	1.152391E+0	1.245379E+0	1.242551E+0	1.189280E+0	1.327598E+0
5.467660E+2	1.143057E+0	1.147052E+0	1.164090E+0	1.104483E+0	1.061256E+0	1.027053E+0	1.044111E+0	1.159199E+0	1.126263E+0	1.111391E+0	1.189695E+0	1.099131E+0	1.146250E+0	1.134683E+0	1.163219E+0	1.091381E+0	1.186181E+0	1.112343E+0	1.129264E+0	1.073987E+0	1.152019E+0	1.078093E+0	1.144708E+0	1.125166E+0	1.059279E+0	1.084109E+0	1.126428E+0	1.110017E+0	1.111155E+0	1.089274E+0	1.155326E+0	1.131165E+0	1.136506E+0	1.189301E+0	1.117049E+0	1.120109E+0	1.042145E+0	1.113029E+0	1.152869E+0	1.190435E+0	1.124745E+0	1.146633E+0	1.122502E+0	1.157401E+0	1.092224E+0	1.145512E+0	1.111990E+0	1.114773E+0	1.119819E+0	1.086298E+0	1.078273E+0	1.139367E+0	1.096413E+0	1.142617E+0	1.122764E+0	1.117186E+0	1.084436E+0	1.064219E+0	1.109067E+0	1.168989E+0	1.137781E+0	1.099469E+0	1.111819E+0	1.118776E+0	1.123302E+0	1.112687E+0	1.157075E+0	1.119328E+0	1.132220E+0	1.145671E+0	1.170837E+0	1.161656E+0	1.117750E+0	1.129759E+0	1.078304E+0	1.118183E+0	1.113958E+0	1.164584E+0	1.152947E+0	1.094909E+0	1.139293E+0	1.140172E+0	1.122939E+0	1.085910E+0	1.109907E+0	1.135713E+0	1.120906E+0	1.157761E+0	1.070850E+0	1.141600E+0	1.149853E+0	1.167259E+0	1.091649E+0	1.089069E+0	1.103712E+0	1.137951E+0	1.091090E+0	1.130773E+0	1.054379E+0	1.091053E+0	1.153913E+0	1.145738E+0	1.100226E+0	1.103678E+0	1.146134E+0	1.120038E+0	1.171322E+0	1.116538E+0	1.165209E+0	1.156474E+0	1.065509E+0	1.110735E+0	1.111320E+0	1.109209E+0	1.079416E+0	1.084233E+0	1.117389E+0	1.079679E+0	1.148016E+0	1.067206E+0	1.071953E+0	1.086523E+0	1.152985E+0	1.154972E+0	1.100383E+0	1.112965E+0	1.125814E+0	1.121220E+0	1.114359E+0	1.159756E+0	1.115585E+0	1.164492E+0	1.129420E+0	1.088746E+0	1.130608E+0	1.145611E+0	1.126763E+0	1.118172E+0	1.093043E+0	1.158853E+0	1.152686E+0	1.136996E+0	1.092853E+0	1.079616E+0	1.183745E+0	1.113014E+0	1.096183E+0	1.103568E+0	1.136077E+0	1.107888E+0	1.117769E+0	1.131577E+0	1.119817E+0	1.147110E+0	1.132201E+0	1.092541E+0	1.113127E+0	1.166818E+0	1.052371E+0	1.155233E+0	1.116735E+0	1.108507E+0	1.134032E+0	1.132755E+0	1.258546E+0
5.475120E+2	1.240505E+0	1.280517E+0	1.327711E+0	1.248564E+0	1.238738E+0	1.219384E+0	1.235796E+0	1.276346E+0	1.239735E+0	1.217546E+0	1.227993E+0	1.233591E+0	1.288798E+0	1.276543E+0	1.257524E+0	1.195596E+0	1.192209E+0	1.298760E+0	1.278378E+0	1.311279E+0	1.222453E+0	1.259069E+0	1.192675E+0	1.176797E+0	1.185923E+0	1.299206E+0	1.235857E+0	1.262091E+0	1.269854E+0	1.282477E+0	1.269901E+0	1.295914E+0	1.271175E+0	1.370077E+0	1.261504E+0	1.202715E+0	1.275460E+0	1.242782E+0	1.245005E+0	1.260299E+0	1.263323E+0	1.235209E+0	1.293479E+0	1.286106E+0	1.229568E+0	1.255236E+0	1.253453E+0	1.213923E+0	1.308129E+0	1.212648E+0	1.246448E+0	1.309734E+0	1.223625E+0	1.312993E+0	1.253083E+0	1.232906E+0	1.258883E+0	1.273892E+0	1.256220E+0	1.231026E+0	1.229176E+0	1.254757E+0	1.268486E+0	1.255851E+0	1.290930E+0	1.218340E+0	1.268055E+0	1.256943E+0	1.247390E+0	1.243393E+0	1.223772E+0	1.255420E+0	1.236458E+0	1.284104E+0	1.193060E+0	1.264863E+0	1.248419E+0	1.299790E+0	1.230528E+0	1.252498E+0	1.276389E+0	1.235873E+0	1.268347E+0	1.193348E+0	1.207807E+0	1.264181E+0	1.236837E+0	1.221704E+0	1.231303E+0	1.261605E+0	1.167911E+0	1.235752E+0	1.234670E+0	1.245481E+0	1.264796E+0	1.236070E+0	1.216143E+0	1.285515E+0	1.239194E+0	1.232507E+0	1.289683E+0	1.269219E+0	1.246310E+0	1.253803E+0	1.275188E+0	1.258887E+0	1.265583E+0	1.228082E+0	1.220648E+0	1.271343E+0	1.183982E+0	1.211123E+0	1.245236E+0	1.246987E+0	1.230819E+0	1.241320E+0	1.214136E+0	1.174408E+0	1.241879E+0	1.243178E+0	1.200321E+0	1.227995E+0	1.248761E+0	1.178209E+0	1.256082E+0	1.247117E+0	1.210939E+0	1.225909E+0	1.223066E+0	1.294370E+0	1.200462E+0	1.225817E+0	1.223796E+0	1.204304E+0	1.272656E+0	1.283384E+0	1.247938E+0	1.253824E+0	1.229854E+0	1.291387E+0	1.219073E+0	1.240274E+0	1.208011E+0	1.229232E+0	1.218531E+0	1.261652E+0	1.242963E+0	1.213175E+0	1.191952E+0	1.286114E+0	1.265453E+0	1.230584E+0	1.284816E+0	1.271521E+0	1.235727E+0	1.256367E+0	1.252648E+0	1.264916E+0	1.214042E+0	1.235344E+0	1.220802E+0	1.176016E+0	1.254095E+0	1.191825E+0	1.248440E+0
5.482600E+2	1.394486E+0	1.344887E+0	1.334053E+0	1.253079E+0	1.309826E+0	1.261512E+0	1.270123E+0	1.341920E+0	1.215001E+0	1.282974E+0	1.331601E+0	1.281581E+0	1.379993E+0	1.363821E+0	1.360096E+0	1.340085E+0	1.333152E+0	1.323597E+0	1.303373E+0	1.319394E+0	1.304482E+0	1.311146E+0	1.288860E+0	1.334693E+0	1.294213E+0	1.234237E+0	1.370475E+0	1.328576E+0	1.338683E+0	1.364967E+0	1.306426E+0	1.278182E+0	1.328924E+0	1.350073E+0	1.325060E+0	1.230190E+0	1.275149E+0	1.335153E+0	1.303878E+0	1.303207E+0	1.302016E+0	1.377824E+0	1.308224E+0	1.334959E+0	1.318978E+0	1.343906E+0	1.221136E+0	1.294119E+0	1.291010E+0	1.352092E+0	1.298058E+0	1.366266E+0	1.319152E+0	1.319440E+0	1.264154E+0	1.276972E+0	1.329205E+0	1.274913E+0	1.289535E+0	1.280001E+0	1.367065E+0	1.342306E+0	1.270788E+0	1.331732E+0	1.324097E+0	1.297600E+0	1.300932E+0	1.364986E+0	1.292170E+0	1.306906E+0	1.321734E+0	1.306914E+0	1.343541E+0	1.302727E+0	1.232485E+0	1.303212E+0	1.268665E+0	1.364378E+0	1.281817E+0	1.280062E+0	1.253466E+0	1.335476E+0	1.243665E+0	1.303656E+0	1.314584E+0	1.271483E+0	1.267889E+0	1.352607E+0	1.253279E+0	1.321546E+0	1.312726E+0	1.260819E+0	1.288096E+0	1.330968E+0	1.293623E+0	1.321054E+0	1.307177E+0	1.347720E+0	1.331768E+0	1.336640E+0	1.276243E+0	1.353254E+0	1.339229E+0	1.311497E+0	1.314463E+0	1.330458E+0	1.319491E+0	1.345893E+0	1.326875E+0	1.274586E+0	1.247884E+0	1.227659E+0	1.273296E+0	1.322444E+0	1.260417E+0	1.282959E+0	1.293345E+0	1.323109E+0	1.305924E+0	1.302869E+0	1.300568E+0	1.274267E+0	1.319462E+0	1.310950E+0	1.320677E+0	1.347831E+0	1.282378E+0	1.306122E+0	1.298228E+0	1.316331E+0	1.278216E+0	1.331999E+0	1.252477E+0	1.287200E+0	1.301789E+0	1.328103E+0	1.236374E+0	1.355903E+0	1.250903E+0	1.350712E+0	1.273020E+0	1.319433E+0	1.292900E+0	1.273153E+0	1.342879E+0	1.338919E+0	1.273391E+0	1.328188E+0	1.251628E+0	1.294528E+0	1.269368E+0	1.259098E+0	1.339422E+0	1.376472E+0	1.242925E+0	1.331130E+0	1.291255E+0	1.316181E+0	1.247494E+0	1.291390E+0	1.305556E+0	1.302174E+0	1.294733E+0	1.203438E+0	1.242223E+0
5.490100E+2	1.358202E+0	1.386856E+0	1.399247E+0	1.356605E+0	1.430863E+0	1.364484E+0	1.338626E+0	1.409569E+0	1.283456E+0	1.406190E+0	1.351917E+0	1.324191E+0	1.452235E+0	1.439453E+0	1.407288E+0	1.376995E+0	1.426631E+0	1.398405E+0	1.385238E+0	1.399447E+0	1.389199E+0	1.391668E+0	1.394628E+0	1.331102E+0	1.366342E+0	1.358205E+0	1.394752E+0	1.318733E+0	1.337392E+0	1.379928E+0	1.371996E+0	1.341173E+0	1.367324E+0	1.491886E+0	1.345323E+0	1.359479E+0	1.301349E+0	1.384900E+0	1.392346E+0	1.405661E+0	1.360493E+0	1.383726E+0	1.408576E+0	1.403169E+0	1.330920E+0	1.368926E+0	1.325708E+0	1.368396E+0	1.386530E+0	1.254088E+0	1.347903E+0	1.418099E+0	1.279230E+0	1.376465E+0	1.351762E+0	1.384898E+0	1.408341E+0	1.369894E+0	1.363944E+0	1.383064E+0	1.373530E+0	1.375105E+0	1.333015E+0	1.335587E+0	1.322676E+0	1.429316E+0	1.415035E+0	1.381011E+0	1.337025E+0	1.387816E+0	1.341977E+0	1.367693E+0	1.353226E+0	1.382921E+0	1.363629E+0	1.384336E+0	1.341631E+0	1.367747E+0	1.298533E+0	1.331455E+0	1.357241E+0	1.361634E+0	1.346957E+0	1.333125E+0	1.334960E+0	1.396069E+0	1.328573E+0	1.389948E+0	1.329206E+0	1.399499E+0	1.387375E+0	1.368247E+0	1.331891E+0	1.368107E+0	1.393922E+0	1.353124E+0	1.377147E+0	1.383186E+0	1.339925E+0	1.294087E+0	1.351738E+0	1.380635E+0	1.338967E+0	1.327268E+0	1.321158E+0	1.383505E+0	1.361217E+0	1.286281E+0	1.389744E+0	1.366916E+0	1.338615E+0	1.317180E+0	1.295943E+0	1.459007E+0	1.284407E+0	1.305668E+0	1.347228E+0	1.318957E+0	1.349957E+0	1.310676E+0	1.371244E+0	1.379772E+0	1.341958E+0	1.333220E+0	1.404464E+0	1.341028E+0	1.313002E+0	1.343674E+0	1.347808E+0	1.413385E+0	1.304812E+0	1.412628E+0	1.312095E+0	1.364240E+0	1.367491E+0	1.295208E+0	1.358432E+0	1.387607E+0	1.309404E+0	1.387922E+0	1.283023E+0	1.360286E+0	1.366278E+0	1.363658E+0	1.336319E+0	1.421329E+0	1.338679E+0	1.371858E+0	1.288390E+0	1.327339E+0	1.317736E+0	1.330297E+0	1.312147E+0	1.428208E+0	1.302240E+0	1.371624E+0	1.363804E+0	1.368756E+0	1.289174E+0	1.307768E+0	1.372969E+0	1.443235E+0	1.314020E+0	1.357917E+0	1.334195E+0
5.497630E+2	1.263574E+0	1.225673E+0	1.296287E+0	1.205454E+0	1.244398E+0	1.161769E+0	1.209147E+0	1.217031E+0	1.212122E+0	1.238394E+0	1.282169E+0	1.196691E+0	1.274350E+0	1.195850E+0	1.286041E+0	1.246864E+0	1.263531E+0	1.263094E+0	1.224222E+0	1.286095E+0	1.198926E+0	1.205915E+0	1.249450E+0	1.239669E+0	1.302315E+0	1.193135E+0	1.256291E+0	1.217634E+0	1.233393E+0	1.254530E+0	1.204782E+0	1.233445E+0	1.247436E+0	1.361514E+0	1.266102E+0	1.191698E+0	1.210311E+0	1.241302E+0	1.208258E+0	1.270336E+0	1.215961E+0	1.288950E+0	1.204545E+0	1.247366E+0	1.237958E+0	1.273006E+0	1.228885E+0	1.283234E+0	1.325168E+0	1.240632E+0	1.222354E+0	1.282678E+0	1.181836E+0	1.237820E+0	1.217743E+0	1.273240E+0	1.211340E+0	1.247669E+0	1.244867E+0	1.258069E+0	1.221556E+0	1.307434E+0	1.219813E+0	1.245935E+0	1.188475E+0	1.313159E+0	1.266768E+0	1.210330E+0	1.249801E+0	1.237043E+0	1.226613E+0	1.233194E+0	1.260847E+0	1.270921E+0	1.232857E+0	1.265099E+0	1.240798E+0	1.254398E+0	1.228902E+0	1.198911E+0	1.202038E+0	1.245970E+0	1.195459E+0	1.309045E+0	1.256458E+0	1.239553E+0	1.258953E+0	1.216472E+0	1.253523E+0	1.311327E+0	1.283585E+0	1.246492E+0	1.255292E+0	1.240253E+0	1.197016E+0	1.268922E+0	1.203113E+0	1.243821E+0	1.209680E+0	1.137304E+0	1.251488E+0	1.209647E+0	1.269907E+0	1.201961E+0	1.239411E+0	1.234530E+0	1.221754E+0	1.203040E+0	1.239280E+0	1.255746E+0	1.218105E+0	1.216860E+0	1.208261E+0	1.259688E+0	1.225338E+0	1.158867E+0	1.244797E+0	1.217646E+0	1.229182E+0	1.273932E+0	1.212438E+0	1.355805E+0	1.247048E+0	1.214056E+0	1.244420E+0	1.237404E+0	1.222613E+0	1.185731E+0	1.224772E+0	1.295754E+0	1.197869E+0	1.280409E+0	1.181224E+0	1.238168E+0	1.217695E+0	1.223231E+0	1.241326E+0	1.252437E+0	1.216005E+0	1.217417E+0	1.179249E+0	1.239023E+0	1.214024E+0	1.213645E+0	1.233034E+0	1.216809E+0	1.308207E+0	1.201686E+0	1.202994E+0	1.243671E+0	1.267755E+0	1.179483E+0	1.264038E+0	1.265487E+0	1.225371E+0	1.242867E+0	1.205277E+0	1.249192E+0	1.206265E+0	1.267082E+0	1.261021E+0	1.239703E+0	1.254049E+0	1.062335E+0	1.290715E+0
5.505060E+2	1.285664E+0	1.330605E+0	1.270220E+0	1.261619E+0	1.265051E+0	1.268434E+0	1.282480E+0	1.236330E+0	1.253971E+0	1.262526E+0	1.268692E+0	1.238291E+0	1.275741E+0	1.269260E+0	1.314191E+0	1.209232E+0	1.297859E+0	1.328363E+0	1.267327E+0	1.252656E+0	1.245602E+0	1.296939E+0	1.282988E+0	1.270345E+0	1.194289E+0	1.286220E+0	1.275962E+0	1.330922E+0	1.254603E+0	1.309961E+0	1.304033E+0	1.253619E+0	1.305590E+0	1.312564E+0	1.309127E+0	1.220691E+0	1.196630E+0	1.260282E+0	1.228760E+0	1.280266E+0	1.280305E+0	1.318883E+0	1.296926E+0	1.313541E+0	1.252572E+0	1.308101E+0	1.232596E+0	1.296713E+0	1.332153E+0	1.295870E+0	1.285625E+0	1.298283E+0	1.214889E+0	1.234758E+0	1.196682E+0	1.249606E+0	1.248127E+0	1.274918E+0	1.242065E+0	1.266020E+0	1.279059E+0	1.257708E+0	1.204348E+0	1.272776E+0	1.201489E+0	1.287617E+0	1.276196E+0	1.269036E+0	1.237256E+0	1.291482E+0	1.331938E+0	1.255098E+0	1.269016E+0	1.287950E+0	1.286351E+0	1.328396E+0	1.246936E+0	1.301066E+0	1.220986E+0	1.206635E+0	1.286094E+0	1.304859E+0	1.258031E+0	1.230178E+0	1.258183E+0	1.264630E+0	1.255529E+0	1.308518E+0	1.319308E+0	1.261212E+0	1.276618E+0	1.341603E+0	1.223056E+0	1.296405E+0	1.299789E+0	1.267906E+0	1.246373E+0	1.324438E+0	1.257987E+0	1.249642E+0	1.283039E+0	1.256863E+0	1.256556E+0	1.261209E+0	1.291942E+0	1.270517E+0	1.260502E+0	1.239948E+0	1.252880E+0	1.238939E+0	1.254933E+0	1.264533E+0	1.254095E+0	1.249340E+0	1.293390E+0	1.223877E+0	1.217877E+0	1.238702E+0	1.259229E+0	1.268308E+0	1.253818E+0	1.228750E+0	1.270944E+0	1.230889E+0	1.266322E+0	1.288632E+0	1.210732E+0	1.270578E+0	1.323243E+0	1.308675E+0	1.306446E+0	1.326275E+0	1.235743E+0	1.260052E+0	1.257708E+0	1.226517E+0	1.234401E+0	1.253841E+0	1.341630E+0	1.253072E+0	1.262934E+0	1.291002E+0	1.219649E+0	1.255820E+0	1.233195E+0	1.347842E+0	1.199280E+0	1.225578E+0	1.276050E+0	1.202455E+0	1.259104E+0	1.208161E+0	1.273048E+0	1.332867E+0	1.229100E+0	1.287392E+0	1.214531E+0	1.303170E+0	1.205563E+0	1.238767E+0	1.239171E+0	1.275573E+0	1.234802E+0	1.224326E+0	1.170118E+0
5.512620E+2	1.273916E+0	1.223905E+0	1.293097E+0	1.318782E+0	1.289937E+0	1.226886E+0	1.297283E+0	1.220457E+0	1.287907E+0	1.241104E+0	1.305922E+0	1.247043E+0	1.279782E+0	1.265044E+0	1.287021E+0	1.261357E+0	1.262296E+0	1.223710E+0	1.272015E+0	1.242591E+0	1.229819E+0	1.247055E+0	1.208974E+0	1.324989E+0	1.293915E+0	1.289589E+0	1.292444E+0	1.275570E+0	1.299051E+0	1.296481E+0	1.225958E+0	1.245989E+0	1.215633E+0	1.322402E+0	1.207528E+0	1.208293E+0	1.249103E+0	1.234336E+0	1.263020E+0	1.281806E+0	1.204637E+0	1.251967E+0	1.222943E+0	1.235123E+0	1.248101E+0	1.375502E+0	1.280215E+0	1.255022E+0	1.311713E+0	1.252706E+0	1.193306E+0	1.266926E+0	1.210947E+0	1.346226E+0	1.227403E+0	1.287717E+0	1.220032E+0	1.273114E+0	1.209739E+0	1.279858E+0	1.228480E+0	1.276959E+0	1.217671E+0	1.307225E+0	1.259785E+0	1.247077E+0	1.246783E+0	1.242404E+0	1.252099E+0	1.244119E+0	1.282216E+0	1.241135E+0	1.288545E+0	1.289988E+0	1.268747E+0	1.208401E+0	1.218947E+0	1.261960E+0	1.265304E+0	1.248912E+0	1.254591E+0	1.336838E+0	1.223261E+0	1.189187E+0	1.181740E+0	1.275097E+0	1.251304E+0	1.262370E+0	1.270536E+0	1.320529E+0	1.257441E+0	1.297162E+0	1.226874E+0	1.271407E+0	1.236136E+0	1.234646E+0	1.179558E+0	1.343941E+0	1.178315E+0	1.258527E+0	1.250349E+0	1.227516E+0	1.251280E+0	1.258287E+0	1.262083E+0	1.261152E+0	1.234831E+0	1.231203E+0	1.218458E+0	1.239183E+0	1.192411E+0	1.259064E+0	1.244752E+0	1.295291E+0	1.248236E+0	1.241274E+0	1.233407E+0	1.215654E+0	1.258841E+0	1.250923E+0	1.202510E+0	1.297567E+0	1.271924E+0	1.270993E+0	1.253382E+0	1.296392E+0	1.206989E+0	1.242641E+0	1.240599E+0	1.261006E+0	1.274934E+0	1.335324E+0	1.259833E+0	1.249154E+0	1.249446E+0	1.288883E+0	1.222587E+0	1.272250E+0	1.243721E+0	1.267205E+0	1.269643E+0	1.249199E+0	1.225687E+0	1.260628E+0	1.264985E+0	1.275181E+0	1.227135E+0	1.243968E+0	1.251404E+0	1.243567E+0	1.173608E+0	1.217794E+0	1.251144E+0	1.240468E+0	1.247457E+0	1.265684E+0	1.242439E+0	1.272211E+0	1.214252E+0	1.267011E+0	1.219568E+0	1.193975E+0	1.239918E+0	1.198304E+0	1.293762E+0
5.520150E+2	1.296209E+0	1.207643E+0	1.222987E+0	1.232817E+0	1.218577E+0	1.183939E+0	1.270041E+0	1.231325E+0	1.206901E+0	1.223226E+0	1.264890E+0	1.197608E+0	1.222034E+0	1.209967E+0	1.267466E+0	1.223754E+0	1.277929E+0	1.279365E+0	1.253537E+0	1.201234E+0	1.217651E+0	1.232615E+0	1.221693E+0	1.266443E+0	1.217915E+0	1.211024E+0	1.244232E+0	1.216160E+0	1.239651E+0	1.235859E+0	1.226886E+0	1.206487E+0	1.206991E+0	1.245707E+0	1.289780E+0	1.168056E+0	1.215848E+0	1.241326E+0	1.245213E+0	1.248280E+0	1.236214E+0	1.270078E+0	1.222346E+0	1.206051E+0	1.185663E+0	1.257172E+0	1.183077E+0	1.296290E+0	1.224309E+0	1.220971E+0	1.236206E+0	1.227162E+0	1.227945E+0	1.253314E+0	1.228911E+0	1.298827E+0	1.202274E+0	1.273359E+0	1.238628E+0	1.250911E+0	1.233016E+0	1.290566E+0	1.198039E+0	1.260186E+0	1.269730E+0	1.195648E+0	1.196608E+0	1.241523E+0	1.266826E+0	1.238862E+0	1.248012E+0	1.214203E+0	1.205626E+0	1.262628E+0	1.246929E+0	1.268920E+0	1.149792E+0	1.235306E+0	1.214682E+0	1.244115E+0	1.180745E+0	1.204591E+0	1.254447E+0	1.195841E+0	1.252964E+0	1.281521E+0	1.213132E+0	1.238943E+0	1.248684E+0	1.253138E+0	1.256429E+0	1.239675E+0	1.201318E+0	1.257405E+0	1.225226E+0	1.235762E+0	1.226340E+0	1.319879E+0	1.225660E+0	1.253553E+0	1.205685E+0	1.223376E+0	1.213377E+0	1.182851E+0	1.214034E+0	1.236110E+0	1.257893E+0	1.156460E+0	1.241697E+0	1.193580E+0	1.223353E+0	1.218229E+0	1.262273E+0	1.279423E+0	1.254771E+0	1.204962E+0	1.237336E+0	1.183415E+0	1.249880E+0	1.232746E+0	1.157502E+0	1.219426E+0	1.201322E+0	1.250084E+0	1.227579E+0	1.219412E+0	1.216859E+0	1.159365E+0	1.193392E+0	1.258282E+0	1.183508E+0	1.273853E+0	1.210809E+0	1.261329E+0	1.221706E+0	1.240715E+0	1.189152E+0	1.262142E+0	1.216923E+0	1.284591E+0	1.191425E+0	1.227590E+0	1.227101E+0	1.206162E+0	1.246757E+0	1.259777E+0	1.251499E+0	1.244313E+0	1.212629E+0	1.281635E+0	1.200934E+0	1.196122E+0	1.233523E+0	1.220514E+0	1.246432E+0	1.292903E+0	1.220711E+0	1.262741E+0	1.187666E+0	1.220279E+0	1.184284E+0	1.215985E+0	1.176582E+0	1.257909E+0	1.145238E+0
5.527590E+2	1.275850E+0	1.188291E+0	1.243517E+0	1.228498E+0	1.226231E+0	1.191983E+0	1.158206E+0	1.208560E+0	1.180258E+0	1.245763E+0	1.248159E+0	1.140217E+0	1.191478E+0	1.228711E+0	1.260407E+0	1.198881E+0	1.145011E+0	1.240604E+0	1.180693E+0	1.201457E+0	1.183774E+0	1.178630E+0	1.191216E+0	1.184967E+0	1.169713E+0	1.150319E+0	1.189511E+0	1.224194E+0	1.243469E+0	1.258651E+0	1.206441E+0	1.198327E+0	1.239013E+0	1.237565E+0	1.252096E+0	1.179873E+0	1.188333E+0	1.231929E+0	1.229230E+0	1.213392E+0	1.202524E+0	1.228444E+0	1.166424E+0	1.228263E+0	1.203251E+0	1.206298E+0	1.177018E+0	1.193090E+0	1.250572E+0	1.153639E+0	1.249949E+0	1.224028E+0	1.162160E+0	1.219240E+0	1.196937E+0	1.192956E+0	1.221434E+0	1.169110E+0	1.176160E+0	1.238825E+0	1.210684E+0	1.193695E+0	1.222080E+0	1.229873E+0	1.176198E+0	1.219833E+0	1.292488E+0	1.213760E+0	1.196426E+0	1.233347E+0	1.217522E+0	1.250413E+0	1.178127E+0	1.181713E+0	1.176495E+0	1.232214E+0	1.222832E+0	1.169903E+0	1.163325E+0	1.217972E+0	1.228645E+0	1.181056E+0	1.211119E+0	1.142997E+0	1.138394E+0	1.214857E+0	1.234838E+0	1.208727E+0	1.232808E+0	1.241810E+0	1.194603E+0	1.171375E+0	1.249714E+0	1.198936E+0	1.209630E+0	1.248652E+0	1.224321E+0	1.215514E+0	1.241542E+0	1.201768E+0	1.159901E+0	1.211156E+0	1.211862E+0	1.170568E+0	1.173505E+0	1.199369E+0	1.204096E+0	1.198463E+0	1.234243E+0	1.228238E+0	1.127139E+0	1.204120E+0	1.173227E+0	1.193078E+0	1.248387E+0	1.198128E+0	1.191169E+0	1.211497E+0	1.156422E+0	1.254158E+0	1.173435E+0	1.193688E+0	1.198146E+0	1.225072E+0	1.218293E+0	1.239069E+0	1.189480E+0	1.226687E+0	1.178525E+0	1.217300E+0	1.131624E+0	1.182342E+0	1.203270E+0	1.214088E+0	1.179235E+0	1.210823E+0	1.126484E+0	1.229487E+0	1.201789E+0	1.250977E+0	1.142117E+0	1.216221E+0	1.181942E+0	1.205221E+0	1.264513E+0	1.205638E+0	1.207264E+0	1.189341E+0	1.193987E+0	1.236425E+0	1.212825E+0	1.222174E+0	1.185635E+0	1.249926E+0	1.158426E+0	1.208538E+0	1.188491E+0	1.208359E+0	1.224654E+0	1.133309E+0	1.194453E+0	1.227554E+0	1.189170E+0	1.188625E+0	1.222531E+0
5.535100E+2	1.123497E+0	1.189421E+0	1.189437E+0	1.116733E+0	1.182058E+0	1.103347E+0	1.130874E+0	1.158631E+0	1.124193E+0	1.176288E+0	1.154331E+0	1.149479E+0	1.193715E+0	1.195931E+0	1.185308E+0	1.162084E+0	1.143339E+0	1.171572E+0	1.125401E+0	1.204626E+0	1.141557E+0	1.155280E+0	1.116593E+0	1.146059E+0	1.150927E+0	1.132270E+0	1.132932E+0	1.154489E+0	1.200118E+0	1.176874E+0	1.171827E+0	1.122306E+0	1.155509E+0	1.165850E+0	1.121645E+0	1.109126E+0	1.111270E+0	1.171253E+0	1.206087E+0	1.218447E+0	1.190838E+0	1.170031E+0	1.167387E+0	1.164184E+0	1.161187E+0	1.187492E+0	1.186680E+0	1.202629E+0	1.190049E+0	1.159481E+0	1.218803E+0	1.155451E+0	1.150977E+0	1.161038E+0	1.126770E+0	1.163506E+0	1.168621E+0	1.129117E+0	1.134712E+0	1.152052E+0	1.170298E+0	1.186488E+0	1.167278E+0	1.168422E+0	1.159852E+0	1.150143E+0	1.147926E+0	1.153298E+0	1.189006E+0	1.157565E+0	1.166469E+0	1.169595E+0	1.146000E+0	1.197057E+0	1.156101E+0	1.236072E+0	1.143066E+0	1.136963E+0	1.158359E+0	1.142509E+0	1.153704E+0	1.112427E+0	1.123936E+0	1.113548E+0	1.129504E+0	1.134773E+0	1.121304E+0	1.184900E+0	1.144249E+0	1.165868E+0	1.107072E+0	1.173416E+0	1.196749E+0	1.123960E+0	1.162533E+0	1.168385E+0	1.136947E+0	1.207622E+0	1.120973E+0	1.146738E+0	1.151807E+0	1.171112E+0	1.118566E+0	1.158090E+0	1.119559E+0	1.157032E+0	1.190492E+0	1.132947E+0	1.172440E+0	1.125195E+0	1.188475E+0	1.129787E+0	1.131012E+0	1.251255E+0	1.120178E+0	1.113069E+0	1.169354E+0	1.153929E+0	1.164114E+0	1.226364E+0	1.159391E+0	1.132436E+0	1.143288E+0	1.185901E+0	1.171216E+0	1.194135E+0	1.161238E+0	1.152818E+0	1.209634E+0	1.186650E+0	1.154934E+0	1.166169E+0	1.132158E+0	1.213642E+0	1.111791E+0	1.168809E+0	1.156093E+0	1.114649E+0	1.133215E+0	1.156706E+0	1.121237E+0	1.180331E+0	1.141939E+0	1.140278E+0	1.192597E+0	1.208828E+0	1.232422E+0	1.143753E+0	1.195274E+0	1.159316E+0	1.149060E+0	1.135261E+0	1.191724E+0	1.246565E+0	1.164968E+0	1.161077E+0	1.149381E+0	1.163702E+0	1.059398E+0	1.157765E+0	1.138797E+0	1.179600E+0	1.112179E+0	1.134125E+0	1.132808E+0
5.542530E+2	1.143036E+0	1.131692E+0	1.142378E+0	1.096338E+0	1.180874E+0	1.046287E+0	1.113266E+0	1.084215E+0	1.147000E+0	1.134645E+0	1.131442E+0	1.133819E+0	1.131787E+0	1.072123E+0	1.170289E+0	1.121031E+0	1.145136E+0	1.114235E+0	1.080739E+0	1.144279E+0	1.108023E+0	1.102800E+0	1.154420E+0	1.110760E+0	1.136553E+0	1.128300E+0	1.148521E+0	1.162688E+0	1.147743E+0	1.146354E+0	1.157966E+0	1.141497E+0	1.098283E+0	1.108730E+0	1.116279E+0	1.143870E+0	1.139006E+0	1.103671E+0	1.114549E+0	1.128270E+0	1.109626E+0	1.148308E+0	1.112022E+0	1.132829E+0	1.096393E+0	1.092671E+0	1.118709E+0	1.166575E+0	1.132705E+0	1.099825E+0	1.120340E+0	1.202084E+0	1.114290E+0	1.142053E+0	1.135111E+0	1.157582E+0	1.158224E+0	1.137671E+0	1.163885E+0	1.176479E+0	1.142659E+0	1.090787E+0	1.130210E+0	1.131558E+0	1.150679E+0	1.143256E+0	1.140797E+0	1.151977E+0	1.156686E+0	1.148608E+0	1.126190E+0	1.156644E+0	1.099317E+0	1.093277E+0	1.117669E+0	1.183143E+0	1.122322E+0	1.173383E+0	1.128477E+0	1.121554E+0	1.117441E+0	1.101958E+0	1.118410E+0	1.123445E+0	1.157388E+0	1.154021E+0	1.100000E+0	1.119360E+0	1.105797E+0	1.145132E+0	1.175274E+0	1.153041E+0	1.094510E+0	1.117822E+0	1.112848E+0	1.193685E+0	1.120136E+0	1.148772E+0	1.130643E+0	1.087544E+0	1.118066E+0	1.145380E+0	1.126249E+0	1.129940E+0	1.093110E+0	1.177622E+0	1.157593E+0	1.124057E+0	1.153962E+0	1.172217E+0	1.113757E+0	1.109722E+0	1.128887E+0	1.133481E+0	1.144542E+0	1.176911E+0	1.085527E+0	1.148397E+0	1.125160E+0	1.113641E+0	1.085124E+0	1.084900E+0	1.137674E+0	1.111762E+0	1.164589E+0	1.132243E+0	1.130439E+0	1.127737E+0	1.081376E+0	1.170457E+0	1.129681E+0	1.123306E+0	1.106813E+0	1.141775E+0	1.143577E+0	1.130685E+0	1.144588E+0	1.135679E+0	1.166945E+0	1.168434E+0	1.072502E+0	1.150917E+0	1.130732E+0	1.148566E+0	1.129898E+0	1.145745E+0	1.145801E+0	1.115531E+0	1.121723E+0	1.098310E+0	1.110396E+0	1.057131E+0	1.174640E+0	1.152006E+0	1.114830E+0	1.115109E+0	1.116028E+0	1.108220E+0	1.109168E+0	1.136724E+0	1.086641E+0	1.153887E+0	1.049578E+0	1.096718E+0	1.163421E+0
5.550190E+2	9.724885E-1	9.893261E-1	1.060832E+0	1.006453E+0	1.044150E+0	1.013017E+0	1.003665E+0	1.062950E+0	1.023391E+0	9.885842E-1	1.034444E+0	1.024815E+0	1.051351E+0	1.013107E+0	1.056320E+0	1.036142E+0	1.024693E+0	1.004541E+0	1.011574E+0	1.057104E+0	1.013974E+0	9.408176E-1	1.035592E+0	1.013974E+0	1.000111E+0	9.736328E-1	9.934818E-1	1.022032E+0	1.033889E+0	1.045468E+0	1.058235E+0	1.018973E+0	1.005762E+0	1.016965E+0	1.016067E+0	1.025848E+0	1.012387E+0	9.478156E-1	1.029835E+0	1.043505E+0	1.059321E+0	1.011011E+0	1.009744E+0	1.053459E+0	9.853821E-1	1.036186E+0	1.040191E+0	1.012367E+0	1.021245E+0	1.000815E+0	1.012943E+0	1.051000E+0	9.725171E-1	1.000964E+0	1.014859E+0	1.041242E+0	1.021754E+0	1.012044E+0	1.009442E+0	1.057646E+0	1.004142E+0	1.019346E+0	1.036615E+0	9.894670E-1	1.020056E+0	1.008642E+0	1.036926E+0	1.036488E+0	1.037579E+0	1.050083E+0	1.031393E+0	1.025288E+0	1.020455E+0	1.033597E+0	1.054712E+0	1.008589E+0	1.010052E+0	1.044067E+0	1.035213E+0	1.037282E+0	1.050145E+0	1.054955E+0	1.017040E+0	9.627896E-1	1.007784E+0	1.022668E+0	1.025314E+0	1.009606E+0	1.000181E+0	9.793857E-1	1.055241E+0	1.032450E+0	1.063568E+0	1.012034E+0	1.044919E+0	1.039156E+0	9.819945E-1	1.018666E+0	9.859152E-1	1.025111E+0	9.935357E-1	1.037780E+0	1.029628E+0	9.976889E-1	1.014163E+0	1.013389E+0	1.054107E+0	1.032935E+0	1.047811E+0	1.021884E+0	9.345224E-1	1.006420E+0	9.645492E-1	9.709058E-1	1.022012E+0	1.047442E+0	9.892275E-1	9.694956E-1	1.013693E+0	1.029482E+0	1.014632E+0	1.060185E+0	1.006999E+0	1.016752E+0	1.008174E+0	1.043605E+0	1.013573E+0	9.728694E-1	1.082270E+0	1.074098E+0	9.911322E-1	1.038513E+0	1.008400E+0	1.038632E+0	9.977002E-1	1.021618E+0	9.974723E-1	1.066410E+0	9.853064E-1	1.007755E+0	9.919963E-1	1.022623E+0	1.001046E+0	9.764214E-1	1.014464E+0	1.031567E+0	1.023926E+0	9.931166E-1	1.037971E+0	1.041537E+0	1.048469E+0	9.677344E-1	9.619527E-1	1.013815E+0	1.034327E+0	1.041793E+0	1.020159E+0	1.017665E+0	1.003841E+0	1.001610E+0	1.054863E+0	1.065760E+0	1.036722E+0	9.811175E-1	1.014729E+0
5.557660E+2	9.938016E-1	9.879161E-1	1.024491E+0	9.787242E-1	1.006228E+0	9.805142E-1	9.799662E-1	1.048836E+0	9.678454E-1	9.670699E-1	9.689691E-1	9.649551E-1	9.921628E-1	9.946114E-1	9.906640E-1	9.640354E-1	1.008011E+0	1.026673E+0	9.892553E-1	1.017359E+0	1.010746E+0	9.852834E-1	1.016138E+0	1.014611E+0	1.003322E+0	9.748975E-1	9.832605E-1	9.946392E-1	9.964957E-1	9.697628E-1	1.021446E+0	1.010755E+0	9.370229E-1	1.024973E+0	9.998878E-1	9.721612E-1	1.027124E+0	9.729896E-1	9.918994E-1	9.758511E-1	9.964458E-1	1.005575E+0	1.000249E+0	1.052610E+0	9.727396E-1	9.933977E-1	9.818099E-1	1.012792E+0	1.048928E+0	9.968154E-1	1.027648E+0	1.024896E+0	1.008717E+0	1.005388E+0	1.039344E+0	9.810893E-1	1.012447E+0	9.704934E-1	9.964853E-1	9.357724E-1	9.835777E-1	9.861622E-1	9.979402E-1	1.014152E+0	1.024310E+0	9.733596E-1	1.062276E+0	1.041943E+0	9.808555E-1	9.381231E-1	9.526594E-1	1.003541E+0	9.976584E-1	1.022675E+0	9.933322E-1	9.630573E-1	9.610241E-1	1.012562E+0	9.572999E-1	9.769967E-1	1.002176E+0	9.984855E-1	9.855351E-1	1.005313E+0	9.597837E-1	9.719182E-1	9.966540E-1	9.686042E-1	9.967284E-1	1.017856E+0	9.958601E-1	9.816213E-1	1.017623E+0	9.649368E-1	9.825258E-1	1.014647E+0	1.000524E+0	1.003735E+0	1.037723E+0	9.890210E-1	1.036698E+0	1.011580E+0	1.010369E+0	1.005427E+0	1.012756E+0	9.860280E-1	9.764180E-1	9.836475E-1	1.001822E+0	9.958047E-1	9.740244E-1	9.517835E-1	9.718455E-1	1.011235E+0	1.028474E+0	9.312549E-1	9.832722E-1	9.698330E-1	9.890568E-1	9.720101E-1	9.882080E-1	9.715071E-1	1.018150E+0	1.041240E+0	9.843588E-1	1.026604E+0	9.948409E-1	1.008644E+0	9.749865E-1	9.873436E-1	1.007135E+0	9.961612E-1	9.659748E-1	9.930290E-1	9.690294E-1	1.012678E+0	9.974981E-1	9.818523E-1	9.793568E-1	1.004956E+0	9.165608E-1	1.002259E+0	1.005389E+0	9.846473E-1	9.996345E-1	9.784934E-1	9.646137E-1	9.351332E-1	9.907529E-1	9.915948E-1	1.034461E+0	9.220090E-1	1.021599E+0	1.004479E+0	1.005790E+0	1.030820E+0	9.475315E-1	9.940813E-1	9.532891E-1	9.688084E-1	9.748356E-1	1.020468E+0	9.774391E-1	1.004264E+0	9.895905E-1
5.560130E+2	9.241258E-1	9.136609E-1	1.009473E+0	9.024048E-1	9.568944E-1	1.002738E+0	9.770023E-1	9.636975E-1	9.701031E-1	9.471308E-1	1.001404E+0	9.349415E-1	1.015981E+0	1.028995E+0	9.598377E-1	9.563816E-1	9.950539E-1	9.606266E-1	9.715803E-1	9.499752E-1	9.615003E-1	9.340697E-1	9.952514E-1	9.670756E-1	9.881481E-1	9.590394E-1	1.002578E+0	9.454651E-1	9.637508E-1	9.625679E-1	1.000908E+0	9.745429E-1	9.730150E-1	9.476590E-1	9.578783E-1	9.269350E-1	8.944756E-1	9.690299E-1	9.735005E-1	9.781328E-1	9.676284E-1	1.007434E+0	9.650116E-1	9.791979E-1	9.379646E-1	9.442591E-1	9.861769E-1	1.004565E+0	1.061052E+0	9.372588E-1	9.216097E-1	1.038081E+0	9.071944E-1	9.780236E-1	9.271059E-1	9.904967E-1	9.912037E-1	9.809622E-1	9.484572E-1	1.001315E+0	9.402927E-1	9.647885E-1	9.749204E-1	8.864470E-1	9.971135E-1	9.698269E-1	9.090896E-1	9.429755E-1	9.664212E-1	1.023868E+0	9.783576E-1	9.973593E-1	9.364271E-1	1.007609E+0	9.781259E-1	1.023133E+0	9.609174E-1	9.774511E-1	9.735863E-1	9.368007E-1	9.463827E-1	9.873855E-1	9.484010E-1	9.546269E-1	9.237374E-1	1.011631E+0	9.379657E-1	1.004514E+0	9.804019E-1	1.035192E+0	9.717078E-1	9.706678E-1	1.008472E+0	9.410059E-1	9.510778E-1	1.005199E+0	9.477463E-1	9.780453E-1	9.798894E-1	9.662151E-1	9.907499E-1	9.595849E-1	9.434223E-1	9.388678E-1	9.635097E-1	9.382259E-1	9.402982E-1	9.678558E-1	9.727837E-1	9.696511E-1	1.017251E+0	9.817622E-1	9.183825E-1	9.325475E-1	9.373059E-1	9.792526E-1	9.223236E-1	9.567272E-1	9.902828E-1	9.230372E-1	9.281825E-1	9.626571E-1	9.740800E-1	9.929803E-1	9.931908E-1	9.529082E-1	1.009807E+0	9.337914E-1	1.005217E+0	9.446623E-1	8.984929E-1	1.009121E+0	9.229763E-1	9.339974E-1	9.412846E-1	9.510331E-1	9.426585E-1	9.265759E-1	9.517216E-1	1.014505E+0	9.385469E-1	9.698433E-1	9.316341E-1	9.858374E-1	9.655598E-1	9.828370E-1	9.600257E-1	9.516684E-1	9.855679E-1	9.095832E-1	9.360386E-1	9.625709E-1	9.889462E-1	9.954811E-1	1.048361E+0	9.587473E-1	9.488277E-1	9.614877E-1	9.952969E-1	9.630247E-1	9.901241E-1	9.320374E-1	1.030303E+0	9.889409E-1	1.025634E+0
5.565090E+2	9.112202E-1	9.412537E-1	1.007207E+0	8.941888E-1	9.959427E-1	9.253846E-1	9.405283E-1	9.361979E-1	9.647322E-1	9.223459E-1	9.736192E-1	8.974117E-1	9.840232E-1	9.013133E-1	9.902063E-1	9.162494E-1	9.682944E-1	9.151679E-1	9.259721E-1	9.700179E-1	9.247089E-1	9.329827E-1	9.289539E-1	9.316122E-1	9.217590E-1	8.774404E-1	9.580973E-1	1.005722E+0	9.209412E-1	9.201681E-1	9.191934E-1	9.167760E-1	9.594338E-1	9.477562E-1	9.096265E-1	8.919681E-1	8.893463E-1	9.069654E-1	9.481314E-1	9.571967E-1	9.126246E-1	9.327108E-1	9.634254E-1	9.730164E-1	9.503791E-1	9.020796E-1	9.204496E-1	9.281717E-1	9.722486E-1	8.740179E-1	9.264781E-1	9.804363E-1	9.052989E-1	9.110103E-1	9.687144E-1	9.672008E-1	8.914167E-1	9.304714E-1	9.625355E-1	9.839576E-1	9.166592E-1	9.262627E-1	9.549758E-1	9.502473E-1	9.326442E-1	9.071806E-1	9.504676E-1	9.109827E-1	9.428086E-1	9.932715E-1	9.454788E-1	9.471705E-1	9.694284E-1	9.769118E-1	9.150118E-1	9.851260E-1	9.229068E-1	9.357464E-1	9.217238E-1	9.697759E-1	9.422756E-1	9.496985E-1	9.907165E-1	9.621507E-1	9.409828E-1	9.519540E-1	9.276163E-1	9.681986E-1	9.564387E-1	9.419980E-1	9.082503E-1	9.724650E-1	9.159781E-1	8.894812E-1	9.498177E-1	9.509819E-1	9.443466E-1	9.239561E-1	9.425293E-1	9.660770E-1	9.826324E-1	9.389697E-1	9.565314E-1	8.885109E-1	9.471292E-1	9.073136E-1	9.409591E-1	9.488371E-1	8.969421E-1	9.143600E-1	9.243601E-1	9.001170E-1	9.719776E-1	9.393910E-1	9.251538E-1	8.725995E-1	9.137725E-1	9.255153E-1	9.307201E-1	9.633495E-1	8.916045E-1	9.212431E-1	9.097905E-1	9.372693E-1	9.502630E-1	9.170043E-1	8.873900E-1	9.265416E-1	9.407498E-1	9.879501E-1	9.614840E-1	9.351735E-1	9.439605E-1	9.413794E-1	9.662807E-1	9.490863E-1	9.208890E-1	8.845688E-1	9.496948E-1	9.265441E-1	9.008912E-1	9.324192E-1	9.356611E-1	9.295226E-1	9.837727E-1	8.728550E-1	8.901478E-1	8.966016E-1	9.291423E-1	9.007647E-1	9.151526E-1	9.240535E-1	9.573285E-1	1.023361E+0	9.578020E-1	9.536878E-1	8.982858E-1	9.424629E-1	9.294958E-1	9.012346E-1	9.519033E-1	9.400958E-1	9.936686E-1	9.714615E-1	8.267542E-1
5.570220E+2	9.582979E-1	9.023625E-1	1.017955E+0	8.737100E-1	9.560591E-1	9.017987E-1	9.197537E-1	8.941104E-1	9.364901E-1	9.733755E-1	1.007176E+0	8.929093E-1	9.716536E-1	9.181410E-1	1.009030E+0	9.191852E-1	9.609567E-1	9.485086E-1	9.550633E-1	9.568739E-1	9.585265E-1	9.460075E-1	9.990643E-1	9.319100E-1	9.024584E-1	9.257832E-1	9.933525E-1	9.446130E-1	9.517340E-1	9.935990E-1	9.754239E-1	9.361122E-1	9.351553E-1	1.000384E+0	9.771262E-1	9.382362E-1	9.309753E-1	9.598765E-1	9.580795E-1	9.729300E-1	9.552320E-1	9.085645E-1	9.449482E-1	1.013316E+0	9.263448E-1	9.467222E-1	9.093460E-1	9.438899E-1	9.792692E-1	8.957738E-1	9.158267E-1	1.009945E+0	9.416469E-1	9.704837E-1	9.632706E-1	9.416361E-1	9.849920E-1	8.971402E-1	9.303428E-1	9.154999E-1	9.169760E-1	9.555190E-1	9.686161E-1	9.558738E-1	9.284515E-1	9.225492E-1	9.045614E-1	9.202987E-1	9.311031E-1	9.803542E-1	9.201092E-1	9.623655E-1	9.799512E-1	9.485438E-1	9.234302E-1	9.491301E-1	8.792719E-1	9.583091E-1	9.595316E-1	9.235327E-1	9.621062E-1	9.624557E-1	9.538135E-1	9.411720E-1	9.376403E-1	9.319490E-1	9.415668E-1	9.897879E-1	9.513305E-1	9.697798E-1	9.616120E-1	9.500815E-1	9.611732E-1	9.642893E-1	9.423539E-1	9.387657E-1	9.612422E-1	9.745164E-1	1.018251E+0	9.197061E-1	9.671272E-1	9.298169E-1	9.193770E-1	9.959870E-1	9.661715E-1	9.005762E-1	9.326886E-1	9.571382E-1	9.281213E-1	8.998789E-1	9.112410E-1	9.739536E-1	9.303361E-1	9.797079E-1	9.144199E-1	9.146938E-1	9.666141E-1	9.265812E-1	9.791021E-1	9.510935E-1	9.425559E-1	9.485786E-1	9.521745E-1	9.671863E-1	9.751042E-1	9.647406E-1	9.585626E-1	9.270977E-1	9.749411E-1	9.233730E-1	9.281172E-1	9.710181E-1	9.389726E-1	9.373759E-1	9.124298E-1	9.530612E-1	9.238576E-1	9.191973E-1	9.659519E-1	9.527210E-1	9.117078E-1	9.659800E-1	9.747118E-1	9.251713E-1	9.466794E-1	9.487489E-1	9.096922E-1	9.873904E-1	9.604817E-1	9.244878E-1	9.266072E-1	8.764747E-1	9.731422E-1	9.351338E-1	9.647941E-1	9.942044E-1	9.647767E-1	9.343329E-1	9.825573E-1	9.278811E-1	9.331805E-1	9.109683E-1	9.087130E-1	9.666439E-1	1.032689E+0
5.575130E+2	9.082775E-1	9.086202E-1	9.527792E-1	9.424324E-1	9.678574E-1	8.968111E-1	9.238653E-1	9.519829E-1	9.313547E-1	9.290229E-1	9.436677E-1	8.973048E-1	9.701672E-1	9.381273E-1	9.622828E-1	9.894735E-1	9.314248E-1	9.353648E-1	9.293454E-1	9.747949E-1	9.080456E-1	9.408343E-1	9.477264E-1	9.063496E-1	8.921394E-1	8.715429E-1	9.443412E-1	9.484771E-1	9.302595E-1	9.529927E-1	9.490315E-1	9.680168E-1	9.686100E-1	9.642036E-1	9.409164E-1	9.497818E-1	9.313855E-1	9.438744E-1	9.053389E-1	9.776809E-1	9.045977E-1	9.421131E-1	9.033474E-1	9.966748E-1	8.960746E-1	9.603342E-1	9.491921E-1	9.454802E-1	9.631295E-1	9.307517E-1	9.242802E-1	9.531832E-1	9.197700E-1	9.438885E-1	9.216536E-1	9.115532E-1	9.525803E-1	9.573436E-1	9.307296E-1	9.624901E-1	8.862172E-1	9.123403E-1	9.420641E-1	9.401757E-1	9.238796E-1	9.145014E-1	9.546109E-1	8.980752E-1	9.536172E-1	9.208122E-1	9.442146E-1	9.457154E-1	9.813024E-1	9.142386E-1	9.209879E-1	9.540201E-1	8.973706E-1	8.974633E-1	9.264593E-1	9.478204E-1	9.214144E-1	9.642460E-1	8.976735E-1	9.166029E-1	9.025130E-1	9.551902E-1	9.104795E-1	9.262718E-1	9.265617E-1	9.784957E-1	9.884836E-1	9.992454E-1	9.601121E-1	9.457007E-1	9.417170E-1	9.654945E-1	9.258087E-1	9.321967E-1	9.286750E-1	9.349373E-1	9.506294E-1	9.857024E-1	9.746788E-1	9.186281E-1	9.424619E-1	9.052270E-1	9.444011E-1	9.343063E-1	9.149615E-1	9.331753E-1	9.103564E-1	9.636419E-1	9.420873E-1	9.573943E-1	9.381419E-1	9.207923E-1	9.448096E-1	9.230533E-1	9.675365E-1	9.361602E-1	9.657412E-1	9.124645E-1	9.198757E-1	9.314502E-1	9.585840E-1	9.223070E-1	9.369614E-1	9.181360E-1	8.965072E-1	9.588286E-1	1.010962E+0	9.402017E-1	9.392994E-1	9.107073E-1	9.069291E-1	9.562233E-1	9.404557E-1	9.110131E-1	8.990964E-1	9.694418E-1	8.903833E-1	9.382665E-1	9.723724E-1	9.100879E-1	9.627597E-1	9.518506E-1	9.238910E-1	9.981332E-1	8.974643E-1	9.120730E-1	9.266780E-1	9.265394E-1	9.616068E-1	9.505503E-1	8.976476E-1	9.483457E-1	9.033890E-1	9.171716E-1	8.812519E-1	9.309484E-1	9.836206E-1	9.080050E-1	9.632695E-1	8.643065E-1	9.281321E-1
5.580170E+2	1.008400E+0	9.589013E-1	1.010315E+0	1.003820E+0	1.030785E+0	1.005993E+0	9.657131E-1	9.533727E-1	1.004164E+0	1.006817E+0	1.007944E+0	9.892870E-1	9.709573E-1	9.904110E-1	1.033650E+0	9.920170E-1	1.000125E+0	9.872150E-1	9.742989E-1	9.815450E-1	9.843556E-1	1.028901E+0	9.740354E-1	1.017723E+0	1.011201E+0	9.622768E-1	9.856945E-1	9.924012E-1	9.039788E-1	9.851179E-1	1.003204E+0	9.809491E-1	1.027976E+0	9.668925E-1	9.847672E-1	9.570785E-1	9.869257E-1	9.625879E-1	1.038595E+0	1.025217E+0	9.703126E-1	1.031014E+0	9.766797E-1	9.544194E-1	9.712100E-1	9.740288E-1	9.900067E-1	9.500599E-1	9.917937E-1	1.007561E+0	9.885690E-1	9.699464E-1	1.002775E+0	1.008444E+0	1.022119E+0	1.023939E+0	1.016429E+0	9.808328E-1	9.738155E-1	9.813110E-1	9.823856E-1	9.620491E-1	9.914657E-1	9.958890E-1	1.010830E+0	9.748495E-1	9.873227E-1	9.536585E-1	9.667202E-1	1.027275E+0	9.713301E-1	9.799510E-1	9.596851E-1	9.614399E-1	9.602945E-1	1.036295E+0	9.319652E-1	1.037249E+0	1.016581E+0	1.023449E+0	1.013054E+0	9.794926E-1	9.892665E-1	1.007617E+0	9.995983E-1	9.854524E-1	1.004528E+0	9.982727E-1	1.006189E+0	1.033689E+0	1.007257E+0	9.820862E-1	1.002358E+0	9.969131E-1	9.940030E-1	1.000771E+0	9.907838E-1	9.496459E-1	1.018731E+0	9.492823E-1	9.809513E-1	1.052529E+0	1.012428E+0	1.012741E+0	9.846745E-1	9.812993E-1	9.951070E-1	9.882704E-1	1.020500E+0	9.888236E-1	1.017090E+0	9.636913E-1	9.720089E-1	9.559894E-1	1.030410E+0	1.066665E+0	1.038286E+0	9.771824E-1	9.642705E-1	1.023906E+0	9.992702E-1	9.699201E-1	1.003206E+0	9.862266E-1	1.019376E+0	1.003781E+0	1.000318E+0	9.702911E-1	9.530174E-1	1.021965E+0	1.012867E+0	1.008473E+0	9.770508E-1	1.001348E+0	9.829367E-1	9.840855E-1	1.028035E+0	9.665641E-1	9.388812E-1	9.965422E-1	1.003290E+0	9.606480E-1	9.854715E-1	9.564588E-1	9.851270E-1	1.003317E+0	1.004292E+0	9.584847E-1	1.034382E+0	9.912992E-1	9.983584E-1	9.951361E-1	9.846988E-1	9.637997E-1	1.010037E+0	9.755607E-1	9.948089E-1	9.859072E-1	1.007703E+0	1.045651E+0	9.965453E-1	9.703477E-1	9.613058E-1	9.875080E-1	9.962950E-1
5.585220E+2	9.525830E-1	9.829292E-1	9.861900E-1	9.386450E-1	9.742732E-1	9.803805E-1	9.829989E-1	1.033205E+0	9.926593E-1	9.786380E-1	9.767507E-1	9.512274E-1	9.467126E-1	1.005618E+0	1.038293E+0	9.577236E-1	9.837270E-1	9.862467E-1	1.000699E+0	9.814933E-1	9.717922E-1	9.755522E-1	9.929779E-1	9.809715E-1	9.398279E-1	9.466718E-1	9.941165E-1	9.745651E-1	1.013222E+0	9.552387E-1	1.017847E+0	9.736572E-1	9.723679E-1	1.042539E+0	9.795280E-1	9.944287E-1	9.407938E-1	9.670263E-1	9.590559E-1	9.680013E-1	9.814119E-1	1.018282E+0	1.014798E+0	9.698079E-1	9.940659E-1	9.865655E-1	1.013234E+0	9.947939E-1	1.002840E+0	9.863263E-1	1.015210E+0	9.936278E-1	9.942650E-1	9.500095E-1	9.771347E-1	9.531005E-1	9.513151E-1	9.871416E-1	9.947900E-1	1.006718E+0	9.944007E-1	9.854228E-1	1.027659E+0	1.003920E+0	9.382229E-1	9.627918E-1	1.003994E+0	9.998625E-1	1.012807E+0	9.915857E-1	9.788796E-1	1.006525E+0	1.017335E+0	9.378892E-1	9.553519E-1	9.247457E-1	1.020837E+0	9.682113E-1	9.669213E-1	9.588263E-1	9.781328E-1	9.490226E-1	9.694056E-1	1.024135E+0	9.522801E-1	9.490432E-1	9.470237E-1	1.001151E+0	9.563680E-1	9.574010E-1	9.841079E-1	9.653562E-1	9.627875E-1	1.016159E+0	9.846074E-1	9.830221E-1	9.871465E-1	9.674617E-1	9.741957E-1	9.773433E-1	9.745589E-1	9.635666E-1	9.902630E-1	9.933930E-1	1.021852E+0	1.057306E+0	1.033981E+0	9.741922E-1	9.836632E-1	9.574984E-1	1.002517E+0	1.030720E+0	1.031489E+0	9.872497E-1	9.944408E-1	9.674003E-1	9.683853E-1	9.259700E-1	9.543227E-1	9.277889E-1	9.833174E-1	9.742493E-1	9.480288E-1	9.443844E-1	9.840624E-1	9.656142E-1	1.008649E+0	9.411628E-1	9.908625E-1	9.381645E-1	9.661801E-1	9.670701E-1	9.904304E-1	1.021474E+0	9.903423E-1	9.969511E-1	9.539872E-1	9.915042E-1	9.837889E-1	9.856626E-1	9.854642E-1	9.771657E-1	9.530628E-1	9.872836E-1	9.622809E-1	9.613624E-1	9.553941E-1	1.030523E+0	9.481162E-1	9.528315E-1	9.689643E-1	9.417346E-1	9.938459E-1	1.004155E+0	1.003721E+0	9.540485E-1	1.021948E+0	9.472272E-1	9.420236E-1	9.642865E-1	9.634924E-1	9.744416E-1	9.901193E-1	9.444521E-1	1.062922E+0
5.590210E+2	1.069434E+0	1.044476E+0	1.036001E+0	1.053114E+0	1.010008E+0	1.020417E+0	1.044028E+0	1.036975E+0	1.052696E+0	1.025279E+0	1.046830E+0	1.013725E+0	1.087515E+0	1.054213E+0	9.943473E-1	1.004486E+0	1.059923E+0	1.023659E+0	1.044914E+0	1.077792E+0	1.047191E+0	1.004997E+0	1.044002E+0	9.991930E-1	1.067359E+0	9.750927E-1	1.006001E+0	1.076768E+0	1.035235E+0	1.040313E+0	1.016856E+0	1.022926E+0	1.024572E+0	1.088299E+0	1.008595E+0	1.023136E+0	1.033744E+0	1.027461E+0	1.042529E+0	1.004063E+0	1.022905E+0	9.827726E-1	1.011655E+0	1.038592E+0	1.061993E+0	1.030921E+0	1.001703E+0	1.032388E+0	9.949829E-1	1.019257E+0	9.951872E-1	1.014656E+0	9.851641E-1	1.037246E+0	1.014641E+0	1.014757E+0	1.023737E+0	1.057553E+0	1.069885E+0	1.012601E+0	1.050896E+0	9.959491E-1	1.053445E+0	9.892513E-1	1.026239E+0	1.068454E+0	1.002195E+0	1.023433E+0	1.047778E+0	9.895451E-1	9.993815E-1	1.038314E+0	1.024471E+0	1.023058E+0	1.067401E+0	1.004600E+0	1.016818E+0	1.010583E+0	1.016496E+0	9.994140E-1	1.051945E+0	1.019266E+0	1.059817E+0	1.037654E+0	1.030278E+0	1.038769E+0	1.074210E+0	9.664730E-1	1.058654E+0	9.947569E-1	1.021522E+0	1.076298E+0	1.008160E+0	1.039203E+0	1.003187E+0	1.096004E+0	1.016265E+0	1.058265E+0	9.771949E-1	9.902184E-1	1.015828E+0	9.607270E-1	9.886549E-1	1.059107E+0	9.946087E-1	1.018482E+0	1.000583E+0	1.080301E+0	9.869711E-1	1.021665E+0	9.870487E-1	9.675926E-1	1.032602E+0	1.088524E+0	1.024576E+0	9.978224E-1	1.051238E+0	1.034596E+0	1.038424E+0	1.041780E+0	1.025145E+0	1.037367E+0	9.989915E-1	1.029961E+0	1.010062E+0	9.875030E-1	1.040077E+0	1.023554E+0	1.059575E+0	1.025630E+0	1.038274E+0	9.878263E-1	1.036560E+0	1.015896E+0	1.052177E+0	1.002174E+0	1.044910E+0	9.956678E-1	1.069487E+0	9.906643E-1	1.021483E+0	1.034123E+0	1.004548E+0	1.042157E+0	1.024207E+0	1.028462E+0	1.061690E+0	1.042844E+0	1.050741E+0	1.048866E+0	1.052296E+0	1.002030E+0	1.014451E+0	1.048489E+0	1.050471E+0	1.019520E+0	9.995867E-1	1.052502E+0	1.002795E+0	9.893945E-1	1.027185E+0	1.065258E+0	1.039711E+0	1.044941E+0	9.921934E-1
5.595110E+2	1.018362E+0	1.034748E+0	1.025174E+0	1.005351E+0	1.025564E+0	1.049679E+0	1.015369E+0	1.001399E+0	1.031218E+0	9.935725E-1	9.995618E-1	1.016192E+0	1.025323E+0	1.000495E+0	9.790990E-1	1.042895E+0	1.057751E+0	1.015749E+0	1.017353E+0	1.009419E+0	9.789681E-1	9.983871E-1	1.047530E+0	1.024372E+0	1.023666E+0	1.019876E+0	9.960141E-1	1.008984E+0	1.052066E+0	9.994212E-1	1.023180E+0	9.938368E-1	9.905281E-1	9.740098E-1	1.024419E+0	1.046680E+0	1.067635E+0	1.070786E+0	1.004458E+0	1.047818E+0	1.011708E+0	9.782936E-1	9.823511E-1	1.036577E+0	1.035221E+0	1.005247E+0	1.037037E+0	1.002290E+0	1.004807E+0	1.006591E+0	1.045211E+0	1.009705E+0	1.051276E+0	9.848813E-1	1.039245E+0	1.051426E+0	1.013970E+0	9.942996E-1	1.013786E+0	9.727628E-1	9.893000E-1	1.017379E+0	1.004652E+0	9.866050E-1	1.008023E+0	1.011179E+0	1.024055E+0	9.985959E-1	9.929374E-1	1.002230E+0	1.014133E+0	1.011765E+0	1.002210E+0	1.039117E+0	1.008594E+0	1.025792E+0	9.893590E-1	1.018764E+0	1.021578E+0	9.983578E-1	1.011705E+0	1.059159E+0	1.009816E+0	1.017426E+0	1.034416E+0	1.037761E+0	1.006705E+0	1.045391E+0	9.699739E-1	9.982931E-1	1.002293E+0	1.006213E+0	9.804139E-1	1.045789E+0	1.062114E+0	9.977031E-1	1.042348E+0	1.038822E+0	9.840503E-1	1.042209E+0	1.042071E+0	1.043743E+0	9.863191E-1	9.529650E-1	1.035960E+0	1.014106E+0	9.739974E-1	9.758783E-1	1.026035E+0	1.015173E+0	9.916008E-1	9.747700E-1	9.950060E-1	9.750066E-1	9.835741E-1	9.903125E-1	9.620230E-1	9.986171E-1	1.018087E+0	1.028581E+0	9.783024E-1	1.027828E+0	1.041530E+0	9.884017E-1	9.708629E-1	1.012018E+0	9.806423E-1	1.056067E+0	1.019106E+0	1.013540E+0	9.913708E-1	1.013999E+0	9.936756E-1	1.050930E+0	1.014529E+0	1.014915E+0	1.000359E+0	9.890184E-1	1.033200E+0	1.016875E+0	1.017729E+0	1.025601E+0	1.014063E+0	1.029493E+0	1.046218E+0	1.058737E+0	9.773583E-1	1.012092E+0	9.953860E-1	9.860584E-1	1.008408E+0	1.037737E+0	1.040302E+0	1.007765E+0	9.759776E-1	1.029552E+0	9.887518E-1	1.028710E+0	1.078099E+0	1.013976E+0	1.012266E+0	9.842979E-1	9.755049E-1	9.867668E-1	9.368261E-1
5.600520E+2	9.865433E-1	1.006695E+0	9.618210E-1	9.969050E-1	9.943798E-1	9.632739E-1	9.962153E-1	9.980352E-1	9.619084E-1	9.757307E-1	9.519013E-1	9.865907E-1	9.570754E-1	9.758436E-1	9.709978E-1	9.799802E-1	9.469758E-1	9.582779E-1	9.267529E-1	9.768091E-1	9.625217E-1	9.699157E-1	9.925970E-1	9.711302E-1	9.965036E-1	9.902481E-1	9.622004E-1	9.615526E-1	9.867382E-1	9.794825E-1	9.518576E-1	1.019482E+0	9.784589E-1	9.400567E-1	9.656203E-1	9.868333E-1	9.738080E-1	9.829137E-1	9.779967E-1	9.835069E-1	9.983857E-1	1.009349E+0	9.996852E-1	9.414118E-1	9.484012E-1	9.590547E-1	9.445059E-1	1.025128E+0	9.684881E-1	9.711437E-1	9.944546E-1	1.020641E+0	9.222464E-1	9.798840E-1	9.598925E-1	9.853357E-1	1.010102E+0	9.702029E-1	9.675306E-1	9.701565E-1	1.013191E+0	1.032279E+0	1.013769E+0	9.417499E-1	9.677797E-1	1.002039E+0	9.733680E-1	9.777048E-1	1.031032E+0	9.904258E-1	9.977992E-1	9.658962E-1	9.935337E-1	1.021870E+0	9.761780E-1	9.919882E-1	9.876453E-1	9.712184E-1	1.017182E+0	9.840993E-1	1.008705E+0	9.572361E-1	1.014753E+0	9.118824E-1	9.491252E-1	9.403388E-1	9.606827E-1	9.637992E-1	9.588680E-1	9.958584E-1	9.351281E-1	9.522565E-1	9.992579E-1	9.498514E-1	9.986024E-1	9.157216E-1	9.711117E-1	9.646164E-1	9.903446E-1	9.907177E-1	9.555741E-1	1.006114E+0	9.752612E-1	9.793796E-1	9.511770E-1	9.413584E-1	9.269584E-1	9.663260E-1	9.548564E-1	9.564383E-1	1.006913E+0	9.638322E-1	9.289311E-1	9.807217E-1	9.896067E-1	9.598727E-1	9.354903E-1	1.021223E+0	1.025702E+0	9.824992E-1	9.786738E-1	1.002923E+0	9.374395E-1	9.607877E-1	9.604490E-1	1.004062E+0	1.017592E+0	9.843904E-1	9.726193E-1	9.696900E-1	9.923497E-1	1.015074E+0	9.483518E-1	9.564206E-1	9.505927E-1	1.012167E+0	9.914722E-1	1.004459E+0	1.002037E+0	9.804911E-1	9.449116E-1	9.919697E-1	9.801471E-1	9.606212E-1	9.831004E-1	9.276366E-1	9.849097E-1	9.935158E-1	9.736356E-1	9.954948E-1	9.778554E-1	9.812607E-1	9.686580E-1	9.893727E-1	9.949333E-1	1.028968E+0	9.786993E-1	9.446979E-1	9.677377E-1	9.532497E-1	9.745658E-1	1.028867E+0	1.050216E+0	1.023527E+0	9.669425E-1
5.605090E+2	9.542582E-1	1.050534E+0	9.738627E-1	1.025318E+0	9.869946E-1	1.008361E+0	9.760637E-1	9.923659E-1	9.701363E-1	1.009128E+0	1.014791E+0	1.018237E+0	1.039354E+0	9.864598E-1	9.922015E-1	1.018482E+0	9.874536E-1	1.020585E+0	9.978175E-1	1.013830E+0	1.023186E+0	1.033278E+0	9.960018E-1	1.012838E+0	9.816543E-1	1.065515E+0	1.045653E+0	1.009634E+0	1.014988E+0	1.024178E+0	1.022179E+0	1.023512E+0	1.036816E+0	9.955143E-1	1.020126E+0	9.862050E-1	1.003673E+0	1.014578E+0	9.690616E-1	9.829109E-1	1.012097E+0	9.957265E-1	1.011521E+0	1.030673E+0	1.018074E+0	1.026320E+0	1.011574E+0	1.014688E+0	1.040968E+0	1.020166E+0	9.740003E-1	9.931590E-1	1.027894E+0	1.011335E+0	1.019666E+0	9.673592E-1	1.022193E+0	9.912791E-1	9.973789E-1	1.020721E+0	9.867666E-1	1.048670E+0	9.686647E-1	1.015861E+0	1.033592E+0	9.905449E-1	1.002736E+0	1.013811E+0	9.621629E-1	1.005137E+0	1.055677E+0	1.013732E+0	1.024652E+0	9.790257E-1	1.025132E+0	1.031051E+0	1.051795E+0	9.935177E-1	9.755024E-1	1.040375E+0	9.628265E-1	9.993702E-1	9.721887E-1	9.704778E-1	1.034150E+0	1.059670E+0	1.015746E+0	9.682453E-1	1.004998E+0	1.005838E+0	9.922204E-1	1.060841E+0	9.981580E-1	9.736752E-1	1.001460E+0	9.853356E-1	1.003558E+0	1.029478E+0	1.026702E+0	1.034466E+0	1.000818E+0	9.856021E-1	1.023228E+0	1.033226E+0	1.030467E+0	9.793944E-1	1.065873E+0	1.018473E+0	1.043879E+0	1.045253E+0	1.027264E+0	1.046484E+0	1.055248E+0	1.011165E+0	1.000253E+0	1.038075E+0	1.025677E+0	1.046362E+0	1.009261E+0	9.799127E-1	1.022798E+0	1.029068E+0	1.032378E+0	1.057779E+0	1.011441E+0	1.027189E+0	9.978931E-1	1.010082E+0	1.052289E+0	1.015398E+0	1.013744E+0	1.003373E+0	1.005441E+0	9.821954E-1	1.024753E+0	1.018247E+0	9.950129E-1	1.043333E+0	1.004911E+0	1.018182E+0	1.015167E+0	1.007041E+0	1.043063E+0	9.743992E-1	9.589075E-1	1.023865E+0	1.032945E+0	9.942133E-1	1.028069E+0	1.016619E+0	9.922511E-1	1.040773E+0	9.983879E-1	9.797330E-1	9.644698E-1	1.006818E+0	9.877259E-1	1.010805E+0	1.051502E+0	9.737867E-1	1.012582E+0	9.561606E-1	1.012812E+0	1.058919E+0	1.002723E+0
5.610180E+2	1.010420E+0	9.217160E-1	1.006636E+0	9.768476E-1	9.779948E-1	9.718952E-1	1.019612E+0	9.846473E-1	9.872174E-1	1.010835E+0	1.002221E+0	1.024740E+0	9.730621E-1	9.869604E-1	9.914115E-1	1.004416E+0	9.640449E-1	1.008268E+0	1.038165E+0	9.591116E-1	1.031985E+0	9.889692E-1	9.528557E-1	9.937728E-1	9.797881E-1	1.040319E+0	1.010320E+0	9.760961E-1	9.937728E-1	1.016249E+0	9.648761E-1	9.856373E-1	9.692805E-1	9.926892E-1	1.016945E+0	1.005639E+0	9.934215E-1	9.746468E-1	1.008304E+0	9.884833E-1	1.003179E+0	9.845622E-1	1.003310E+0	1.028519E+0	9.710346E-1	1.017864E+0	1.001940E+0	9.806525E-1	9.961200E-1	9.889544E-1	9.873674E-1	9.982647E-1	1.016380E+0	1.028200E+0	9.673011E-1	1.004083E+0	9.622544E-1	1.018691E+0	9.828131E-1	1.035728E+0	9.830604E-1	9.582504E-1	9.403445E-1	1.066723E+0	1.015313E+0	9.901414E-1	1.006329E+0	1.032935E+0	9.865620E-1	9.938013E-1	9.827999E-1	9.838164E-1	9.781134E-1	1.037600E+0	1.007048E+0	9.855277E-1	1.001580E+0	1.000457E+0	9.857391E-1	9.954785E-1	9.736318E-1	1.036453E+0	9.847541E-1	1.030807E+0	1.000153E+0	9.889664E-1	9.911036E-1	1.056668E+0	1.044950E+0	1.014164E+0	1.057471E+0	9.569486E-1	1.048864E+0	9.784091E-1	9.560264E-1	1.021443E+0	9.887869E-1	9.917109E-1	1.028781E+0	1.015763E+0	1.030199E+0	9.877193E-1	1.023845E+0	9.691881E-1	9.812608E-1	1.008054E+0	1.003500E+0	9.965590E-1	9.840953E-1	1.015148E+0	9.675661E-1	1.052909E+0	9.847138E-1	1.001344E+0	9.771384E-1	9.798525E-1	1.018900E+0	9.960491E-1	9.899331E-1	1.015531E+0	1.012493E+0	9.586441E-1	1.038426E+0	1.032460E+0	1.043747E+0	9.998321E-1	9.548289E-1	1.014452E+0	9.525311E-1	1.015613E+0	9.852141E-1	1.004184E+0	1.048491E+0	9.717365E-1	9.846694E-1	9.714598E-1	9.862231E-1	1.009453E+0	9.676952E-1	1.011583E+0	1.011955E+0	1.003452E+0	1.019644E+0	1.049587E+0	1.040160E+0	9.966195E-1	9.834107E-1	9.683279E-1	9.696707E-1	1.008832E+0	1.001867E+0	1.001329E+0	9.996563E-1	1.006684E+0	1.000390E+0	9.855333E-1	1.028480E+0	1.030150E+0	9.501403E-1	1.059655E+0	1.013364E+0	1.020627E+0	9.703306E-1	9.538857E-1	1.042098E+0
