Photon Energy (eV)	#1	#2	#3	#4	#5	#6	#7	#8	#9	#10	#11	#12	#13	#14	#15	#16	#17	#18	#19	#20	#21	#22	#23	#24	#25	#26	#27	#28	#29	#30	#31	#32	#33	#34	#35	#36	#37	#38	#39	#40	#41	#42	#43	#44	#45	#46	#47	#48	#49	#50	#51	#52	#53	#54	#55	#56	#57	#58	#59	#60	#61	#62	#63	#64	#65	#66	#67	#68	#69	#70	#71	#72	#73	#74	#75	#76	#77	#78	#79	#80	#81	#82	#83	#84	#85	#86	#87	#88	#89	#90	#91	#92	#93	#94	#95	#96	#97	#98	#99	#100	#101	#102	#103	#104	#105	#106	#107	#108	#109	#110	#111	#112	#113	#114	#115	#116	#117	#118	#119	#120	#121	#122	#123	#124	#125	#126	#127	#128	#129	#130	#131	#132	#133	#134	#135	#136	#137	#138	#139	#140	#141	#142	#143	#144	#145	#146	#147	#148	#149	#150	#151	#152	#153	#154	#155	#156	#157	#158	#159	#160	#161	#162	#163	#164	#165	#166	
5.300520E+2	-4.264661E-3	-8.689255E-3	-2.396600E-3	-6.517838E-3	-1.209765E-2	-5.402932E-3	1.844303E-3	-2.769407E-3	-8.711252E-3	-5.346103E-3	-2.605625E-3	-1.125357E-2	-7.469870E-3	-9.497407E-3	-1.102799E-2	-8.925585E-3	-4.039008E-3	-6.195501E-3	-5.499456E-3	-5.579081E-3	-7.596194E-3	4.620805E-5	-2.639077E-3	-1.476926E-2	-1.444199E-2	-6.863061E-3	-9.041050E-3	-1.857018E-2	-6.289540E-3	-4.091479E-3	-8.732982E-3	-2.494202E-3	2.048284E-3	-1.073977E-2	-7.979901E-3	-7.668273E-3	-2.707043E-3	-2.174203E-3	-1.030814E-2	-5.038832E-3	-1.018405E-2	-1.212250E-2	-9.798862E-3	-1.223128E-2	-7.035553E-3	-7.837136E-3	-6.553904E-3	-9.947697E-3	-5.987373E-3	-9.936156E-4	-2.694288E-3	-5.145382E-3	-1.094866E-2	-5.261439E-3	-1.454417E-2	-1.130392E-2	2.168713E-3	-2.179024E-4	-3.319422E-3	-1.363277E-2	-3.365593E-3	-1.029667E-2	-4.943179E-3	4.604913E-4	3.072054E-3	-8.383125E-4	-1.496227E-2	-1.947886E-3	2.682337E-4	-5.887494E-5	1.474077E-3	-6.819556E-3	-7.897199E-3	-1.123208E-2	-2.612740E-3	-1.417699E-3	-7.643963E-3	4.308897E-4	-5.675953E-3	1.287826E-3	-1.106185E-3	-7.662776E-3	-4.531310E-3	-9.124321E-3	-2.554235E-3	-1.369932E-3	-7.550842E-3	-6.254707E-3	-2.176649E-3	-1.309799E-2	-3.058728E-3	-6.304148E-4	-2.535502E-3	-9.719550E-3	-1.231393E-2	-9.117657E-3	-7.295353E-3	-1.320491E-2	-1.248028E-2	-4.234794E-3	3.233403E-4	-8.250761E-3	2.957183E-3	-3.289193E-3	-7.575630E-3	-1.189346E-2	-5.696468E-3	-3.837080E-3	-9.452272E-3	-7.507360E-3	-1.023033E-2	-1.792348E-3	-8.655946E-4	-1.310168E-2	-5.341745E-3	-1.215998E-2	-3.823685E-3	-2.040117E-3	-8.786837E-3	-9.146227E-3	-1.753691E-2	-1.717904E-2	8.321321E-4	-1.380046E-2	-8.877433E-3	-4.419193E-3	4.012558E-3	1.482824E-3	-1.309915E-3	-9.235070E-3	-1.146420E-2	-4.421829E-3	-1.106173E-2	-5.302181E-3	-9.599881E-3	3.856827E-4	-1.181437E-3	-4.636181E-3	-8.626659E-3	-5.316453E-3	-9.633797E-3	3.486805E-4	-6.341107E-3	-1.098633E-2	-8.029110E-3	-3.792884E-3	-1.913959E-3	-7.501945E-3	-1.422643E-2	9.838065E-4	-7.566484E-4	-1.111421E-2	1.619478E-3	-1.090368E-2	-8.225767E-3	-6.689875E-3	-1.461119E-2	2.260021E-4	-5.827584E-3	-8.476350E-3	-1.233936E-3	-3.665151E-3	1.042456E-4	-1.070344E-2	-1.448686E-2	-1.975578E-2
5.305180E+2	-1.384211E-2	-4.363144E-3	-6.680758E-3	-2.549788E-3	1.489394E-3	-2.970456E-3	-1.125539E-2	-6.747720E-3	-6.465175E-3	-7.506111E-3	-9.633337E-3	8.020195E-4	-8.691604E-3	-6.634057E-3	-8.631913E-3	-9.722308E-3	-3.048515E-3	-8.616921E-3	-9.630302E-3	-5.693502E-3	-3.880677E-3	1.016696E-3	-6.153314E-3	-2.513751E-3	-5.934060E-3	-5.295116E-3	-6.576571E-3	-2.731171E-3	-6.510077E-3	-8.408869E-3	-2.846204E-3	-7.576771E-3	-1.229659E-2	-8.062048E-3	-1.883749E-3	-4.517308E-3	-4.609680E-3	-1.096301E-2	-1.453327E-3	-9.684183E-3	-1.653379E-2	-6.490565E-3	1.450736E-3	5.313338E-4	-8.819953E-3	-1.175999E-2	-7.465029E-4	-1.366195E-2	-8.024738E-3	-9.319582E-3	-5.557078E-3	-9.009389E-5	-6.398318E-3	-4.074069E-4	3.476636E-3	-9.277357E-3	-1.361998E-2	-1.032979E-2	-5.810274E-3	-8.798861E-3	-3.479972E-3	-5.763289E-3	-7.075889E-3	-9.350765E-3	-8.425086E-3	-1.466557E-2	-3.792146E-3	-1.386192E-2	-4.998302E-4	-1.007573E-2	-1.025814E-2	2.026988E-4	-4.946850E-3	-4.359377E-3	-1.229897E-2	-6.604351E-3	-3.220517E-3	-6.802699E-3	-6.370024E-3	-1.817516E-3	4.297608E-3	-2.969361E-3	-6.616274E-4	-3.988060E-3	-5.665287E-3	-4.563092E-3	-6.618527E-3	-8.792396E-3	-6.107322E-3	-9.626125E-4	-1.159865E-2	-1.261601E-2	-1.608959E-2	-6.823842E-3	-1.140440E-2	8.287417E-6	-9.424300E-3	-1.897108E-3	1.222026E-3	-1.192046E-2	-6.623789E-3	2.800391E-3	-8.914033E-3	-9.575067E-3	-9.652747E-3	3.525221E-4	-4.656472E-3	-4.675114E-3	5.787063E-3	-1.089381E-2	-1.140527E-2	-5.502756E-3	-2.375260E-3	-1.369749E-3	-1.005624E-2	-2.979214E-3	-7.216371E-3	7.548032E-5	2.293635E-3	-1.332517E-2	-3.313749E-3	-8.626791E-3	-8.241169E-3	-7.852925E-3	-1.166820E-2	-5.658978E-3	-3.371854E-3	-7.294180E-3	-7.798698E-3	-1.261506E-3	-3.769731E-3	6.341374E-4	4.895674E-4	-1.450444E-2	8.029041E-3	-1.505775E-2	2.386101E-3	-5.516249E-3	-6.366438E-3	-7.469711E-3	-1.838892E-3	-1.305141E-2	-1.362619E-2	-8.191314E-3	-9.012461E-3	-1.604354E-2	-1.127957E-2	5.834731E-3	-5.009104E-3	3.808767E-3	-7.672049E-3	-2.387943E-3	-3.600701E-3	-6.378139E-3	-9.216168E-3	-4.982688E-3	-6.273758E-3	-1.421212E-2	-2.651384E-3	-4.958009E-3	4.814135E-3	-1.254930E-2	-9.377655E-3	4.110563E-3	-1.851646E-2	-1.449657E-2
5.310250E+2	7.432876E-4	4.381753E-3	1.489057E-3	-3.106657E-3	-1.022181E-3	-6.290768E-3	-1.669325E-2	-1.436098E-4	-1.064658E-2	1.035266E-3	-8.440449E-3	-4.883291E-3	1.142233E-3	4.596430E-3	-2.460281E-3	-5.164728E-3	-6.352585E-3	-6.284217E-4	-6.643195E-3	-5.523002E-3	-3.733760E-3	-4.583699E-3	-7.132100E-3	-7.674852E-3	-7.828637E-3	-1.611523E-3	-2.960331E-3	3.395022E-3	-1.599841E-3	-2.436851E-3	-3.256005E-3	-1.722982E-3	6.288825E-4	-4.975698E-3	-6.320191E-3	-8.239850E-3	-3.296035E-3	-1.634903E-3	4.074778E-4	-7.801637E-3	-2.921393E-3	-1.786753E-3	-1.353767E-2	8.055071E-4	4.340386E-3	-7.330289E-3	-1.243774E-2	6.293471E-3	-4.281217E-4	1.926997E-3	-4.312184E-3	-4.600304E-3	-4.445722E-3	3.222561E-4	-1.178714E-2	-4.079722E-3	-1.588848E-3	3.752801E-4	-1.585056E-3	-8.019514E-3	-7.729222E-3	-8.275128E-3	-1.828826E-3	4.760984E-3	-7.651187E-3	-5.854815E-3	1.530010E-3	-3.452735E-3	-1.386749E-2	-7.008116E-3	-5.649420E-3	-1.297015E-3	-1.556041E-3	5.626815E-4	-8.980930E-3	-8.004506E-4	-7.100189E-3	-6.109865E-3	-1.565778E-2	-5.259399E-3	-5.495554E-3	-3.400015E-3	-8.048394E-3	-6.568473E-3	-8.472335E-3	-3.190120E-3	3.583303E-3	2.102380E-3	-7.202978E-3	-4.537803E-3	-1.086837E-2	-4.596568E-3	-1.365299E-3	-1.585204E-2	-1.178434E-3	5.195497E-3	-8.650277E-3	3.487855E-3	-7.141632E-3	-3.608730E-3	-1.562748E-2	7.362330E-4	1.293268E-3	5.128271E-3	-3.910743E-3	-1.201047E-2	-1.609833E-2	1.826926E-3	-8.367263E-3	1.735111E-3	1.670571E-3	-1.014326E-2	-1.552989E-3	-1.193799E-3	-5.362423E-3	-7.247478E-3	-2.617368E-3	-9.955758E-3	5.305855E-3	3.838203E-3	-9.418257E-4	-4.930390E-3	-5.107594E-3	2.133189E-3	7.679413E-3	-1.648973E-3	-1.109588E-2	-7.134031E-3	-8.263357E-3	-9.949958E-3	-1.277116E-2	-4.527167E-3	-2.282223E-3	8.366972E-4	-7.216536E-3	-1.159583E-3	-1.064837E-2	4.999025E-4	1.175270E-4	-1.554470E-2	-1.073888E-2	-1.345134E-2	-8.146794E-4	-1.507443E-4	-1.153024E-2	1.095316E-3	-2.500081E-3	-4.062682E-3	-1.172714E-2	-1.003285E-2	-7.522422E-3	-2.218018E-3	-7.247931E-3	9.086048E-3	1.891854E-3	3.178966E-3	-1.278740E-2	-7.166808E-3	-6.934721E-3	-7.955546E-3	-1.617805E-2	1.363817E-3	-6.831568E-3	-7.880418E-3	-9.677553E-3	-1.912387E-3
5.315130E+2	-4.337914E-3	4.996873E-3	1.443655E-3	-2.443449E-3	-9.048677E-3	-2.177671E-3	4.941608E-3	-1.379374E-3	-1.941704E-3	-2.870499E-3	1.651529E-3	-7.848246E-3	-1.041755E-3	2.049566E-3	6.520410E-3	-5.208241E-3	5.359851E-4	1.014820E-3	6.951441E-3	-3.834747E-4	-8.268764E-3	-6.162173E-3	-2.105553E-3	-7.706031E-3	1.690757E-3	-1.162919E-2	1.159741E-3	-1.576585E-4	-1.636653E-3	-5.638177E-3	1.160596E-3	-4.188563E-3	-2.105637E-3	9.762135E-3	3.411076E-3	2.837692E-3	4.813149E-3	6.674193E-5	3.772459E-4	-1.624745E-3	-9.087554E-3	1.487144E-3	-5.067899E-3	-1.598866E-2	4.314639E-3	-5.202002E-3	-5.984033E-3	-3.619922E-3	7.596172E-3	-1.213352E-2	-9.262185E-3	7.861258E-4	2.690705E-3	-1.254989E-2	2.485056E-3	-6.850573E-4	-7.268350E-3	-2.152316E-3	-1.034152E-2	-5.431573E-3	-1.683078E-3	-6.706311E-3	1.714950E-3	-3.766139E-3	-3.260657E-3	-8.987081E-3	-4.218332E-3	-2.117379E-3	-2.822423E-3	-1.195060E-3	-3.448148E-3	-5.213387E-3	-4.839546E-3	5.565401E-4	-2.656871E-3	-5.226897E-3	2.694357E-3	-6.445067E-4	3.770924E-3	-2.874518E-3	-6.148280E-3	-9.914483E-4	-5.750124E-3	2.238814E-4	-7.876445E-4	-4.436292E-3	-4.813980E-3	-6.277311E-3	2.554678E-4	2.912028E-3	-3.708338E-3	-2.003343E-3	7.029695E-3	9.626300E-4	1.454650E-3	1.479672E-4	1.088034E-2	5.530020E-4	1.974902E-3	-9.288201E-4	9.578431E-4	1.272153E-3	-6.419184E-3	9.016247E-3	-1.015300E-2	-7.510773E-4	-1.952931E-3	-5.179587E-3	-4.524634E-3	-6.949162E-3	6.130263E-4	-5.427766E-4	-5.516269E-3	6.583899E-3	3.142853E-3	-1.384762E-3	-5.192770E-3	-4.305929E-3	-9.353866E-3	-1.320994E-4	-8.314736E-3	-3.193139E-3	-9.912361E-3	4.189196E-3	-1.090199E-2	-7.174545E-3	-6.611625E-3	-2.220129E-3	-3.840456E-3	-2.384985E-3	6.540746E-4	-5.675813E-4	-7.609123E-3	-2.156428E-3	-6.050303E-3	-5.708340E-3	4.571765E-3	-8.499954E-4	-1.192842E-3	3.415495E-3	-6.772960E-3	1.492963E-3	-7.447227E-3	-2.530643E-3	3.807506E-3	-7.457160E-3	1.103739E-2	-1.560012E-2	-9.043340E-3	4.566592E-3	-3.865226E-3	-1.051952E-3	-9.692003E-4	-8.357733E-3	-2.259628E-3	-9.554270E-3	2.532189E-3	-1.421612E-3	-4.661717E-3	-1.025211E-3	-4.820656E-3	6.990606E-4	-1.143435E-2	-1.566799E-2	-9.963272E-4	-1.878732E-3
5.320120E+2	6.170817E-3	-3.904141E-3	-1.563063E-3	6.527934E-3	7.992470E-3	4.431037E-3	5.376574E-3	-2.977884E-3	-2.208827E-3	-7.008373E-3	5.791239E-3	3.129966E-3	9.730989E-4	-4.657211E-3	1.053894E-2	7.839133E-3	-2.388060E-4	-4.241004E-3	5.611701E-4	-3.524925E-5	5.093755E-3	4.287912E-3	-4.843310E-5	8.830006E-3	-1.096020E-2	-1.794992E-3	-3.308506E-3	-1.183076E-2	-4.833629E-3	-2.072762E-3	-3.505774E-3	1.774696E-3	5.700755E-3	1.317851E-2	2.719412E-3	1.229597E-3	-6.478571E-3	-5.372960E-3	-1.541647E-3	6.127706E-3	5.148782E-4	3.199226E-3	2.664062E-3	1.833252E-3	-7.303263E-4	1.718042E-5	1.461458E-3	9.690289E-3	5.934988E-4	-3.015303E-3	-6.746745E-3	-8.183590E-4	3.730997E-3	-7.758083E-3	1.757231E-3	1.047966E-2	-4.418554E-3	-1.123245E-3	5.848086E-3	6.735534E-3	7.612438E-3	2.129590E-3	6.534348E-5	-2.688664E-4	-7.345548E-3	-5.536440E-4	5.951840E-3	5.936209E-3	-2.449077E-3	-2.563923E-3	-4.189340E-3	-3.150319E-3	2.681688E-3	-8.049046E-4	3.480799E-3	8.483888E-4	-7.364788E-3	-2.811065E-4	-3.636277E-3	4.243318E-3	2.357784E-3	1.273334E-3	-1.905805E-3	-5.562175E-3	-5.176371E-3	-4.083220E-3	1.717775E-3	4.921739E-3	-1.192973E-2	-4.853963E-3	-2.152115E-3	5.002875E-3	-3.836001E-3	2.891672E-3	-2.919156E-3	-5.113871E-3	-8.358773E-3	4.436049E-3	-5.615057E-3	3.596434E-3	-1.510086E-3	-1.250773E-2	-2.488037E-3	-5.197756E-3	2.683706E-3	3.440719E-3	4.257655E-3	1.560525E-3	-3.604541E-3	4.363468E-3	-6.280265E-3	-7.271521E-4	7.618758E-4	-2.376210E-4	2.967207E-3	1.215924E-3	9.074414E-4	-2.247460E-3	-4.996122E-4	4.225449E-3	8.289701E-3	2.537292E-3	-2.391137E-3	1.085396E-3	6.175579E-3	9.071889E-4	-1.178635E-3	6.262195E-3	1.131917E-2	6.930020E-3	6.606879E-3	-5.566124E-3	4.454795E-4	-7.863385E-3	9.040916E-4	-1.885635E-3	-2.664901E-3	1.925039E-4	2.353521E-3	-1.691075E-5	4.463358E-3	1.886628E-3	-5.449083E-3	2.169692E-3	4.184828E-3	5.047183E-3	-1.560764E-3	-8.850852E-3	1.571731E-3	-7.984356E-3	3.257958E-3	-1.910405E-3	7.624964E-3	-3.874483E-3	-2.635743E-3	3.511828E-3	7.645475E-3	-1.022143E-3	8.081033E-4	1.276335E-2	1.222440E-3	-4.550949E-3	9.670830E-3	2.052196E-2	1.549722E-2	8.490831E-3
5.325070E+2	5.436652E-3	-3.307399E-3	3.081595E-3	2.147665E-3	5.466942E-4	-2.604853E-3	8.401300E-3	1.435155E-3	7.694105E-3	3.925991E-3	1.000149E-2	2.464577E-3	7.946916E-3	-6.592456E-4	-3.144495E-3	1.340469E-2	-8.866677E-4	8.074665E-3	6.150732E-3	1.290442E-2	-6.546031E-4	1.012823E-3	1.400745E-2	1.173750E-2	1.095466E-2	1.228376E-2	-1.991568E-3	2.060938E-2	2.853175E-3	-5.300665E-6	1.470882E-3	5.431494E-3	2.008982E-4	-5.711911E-4	-8.672373E-4	-1.686087E-3	5.740449E-3	5.577718E-3	-2.172796E-3	7.191842E-3	1.154781E-2	2.471782E-3	9.985907E-5	1.302227E-2	2.489486E-3	1.728075E-2	8.461562E-3	-9.572834E-4	1.136547E-3	4.577060E-3	3.672606E-3	6.514909E-3	7.263669E-3	1.523625E-2	6.877884E-3	-2.044068E-3	4.976774E-3	-1.224479E-3	1.101359E-2	1.248556E-2	5.877209E-3	1.540248E-2	1.038553E-3	-4.606770E-3	7.861265E-3	1.501043E-2	1.279268E-3	3.390915E-4	7.393962E-3	6.198000E-3	5.286644E-3	1.639284E-4	7.838475E-3	1.546407E-3	7.883969E-3	1.415010E-3	1.351896E-2	-2.542571E-3	1.196918E-2	-2.482992E-3	-3.345681E-3	-1.866489E-3	3.722389E-4	5.483259E-3	5.513677E-3	-3.532816E-3	-5.941722E-4	4.314676E-3	9.362236E-3	4.494741E-3	1.284482E-2	-1.025231E-2	1.196783E-3	1.310712E-2	1.303894E-2	-3.269982E-3	1.751663E-3	8.663018E-4	7.210474E-3	-5.517958E-4	1.053105E-2	2.744127E-3	6.365472E-3	-5.232555E-3	1.260643E-2	9.039698E-3	1.909281E-2	-1.684617E-3	1.134372E-2	1.035674E-3	1.085336E-2	-1.883749E-4	-2.596171E-3	1.513601E-3	4.626667E-3	1.152680E-2	-1.715370E-3	5.113782E-3	3.975985E-3	-1.230796E-2	7.455450E-3	8.415619E-3	7.166242E-3	9.477841E-3	1.060443E-2	1.081521E-2	-2.931359E-3	-3.151040E-3	6.102308E-3	-1.555047E-4	3.459283E-3	7.108789E-3	3.940485E-3	3.660186E-3	8.398919E-4	1.359767E-2	-2.087834E-3	-3.143559E-3	-2.549457E-4	8.825403E-3	1.470448E-2	5.056997E-3	1.447140E-2	6.974972E-3	4.780455E-3	7.989630E-3	3.304111E-3	6.968699E-3	5.612407E-3	2.983398E-3	-2.394687E-3	6.491699E-3	-3.916576E-3	1.668581E-3	6.830044E-5	-1.928912E-3	1.090072E-2	5.856456E-3	3.570187E-3	-6.156818E-5	6.864215E-3	2.304653E-3	7.270589E-3	8.066105E-3	1.540444E-2	8.410996E-3
5.330280E+2	1.009393E-2	1.088531E-2	4.626113E-3	5.942134E-3	1.213995E-2	1.501564E-2	7.384854E-3	1.258284E-2	2.227943E-2	1.776983E-2	3.235158E-3	1.758855E-2	7.140981E-3	1.480192E-2	8.205333E-3	7.777040E-3	1.402960E-2	1.059236E-2	8.109610E-3	4.309890E-3	1.904024E-2	4.382233E-3	4.071023E-3	1.209639E-2	2.651947E-2	1.491012E-2	2.271828E-2	9.285368E-3	1.801657E-2	2.265344E-2	1.570949E-2	8.776327E-3	5.823408E-3	1.408066E-3	1.092059E-2	1.804423E-2	6.537732E-3	1.450061E-2	1.469119E-2	1.082985E-2	2.666410E-2	1.324166E-2	2.418977E-2	1.202758E-2	5.441322E-3	1.483149E-2	1.579916E-2	1.220309E-2	5.114015E-3	1.895797E-2	2.489987E-2	3.353103E-3	8.107330E-3	1.041831E-2	1.173450E-2	1.691046E-2	1.975024E-2	1.467245E-2	4.194590E-3	1.666163E-2	2.768218E-3	1.350933E-2	1.102905E-2	1.277107E-2	1.574916E-2	1.588900E-2	1.421163E-2	1.510462E-2	1.197662E-2	1.470371E-2	1.678432E-2	1.611365E-2	8.719473E-3	1.373073E-2	1.518475E-2	1.178600E-2	9.116138E-3	1.594986E-2	1.559994E-2	6.903281E-3	9.440307E-3	1.561676E-2	2.052502E-2	1.953589E-2	1.714220E-2	2.117547E-2	1.427644E-2	9.985619E-3	1.779898E-2	1.604560E-2	1.854138E-2	2.509577E-2	1.559992E-2	1.543400E-2	1.332233E-2	1.214976E-2	2.109670E-2	5.758814E-3	1.482957E-2	1.764816E-2	1.194913E-2	1.320558E-2	7.205331E-3	9.150054E-3	1.600199E-2	1.182207E-2	5.053739E-3	1.198895E-2	8.817925E-3	1.821607E-2	1.477891E-2	1.889666E-2	1.214441E-2	7.805349E-3	1.002368E-2	1.102870E-2	1.965812E-2	1.336000E-2	7.064841E-3	2.684781E-2	1.436207E-2	2.297645E-2	1.765389E-2	4.767769E-3	6.988212E-3	7.179293E-3	2.117680E-2	1.205436E-2	3.790944E-3	1.605700E-2	1.728485E-2	7.339775E-3	1.607754E-2	2.532955E-2	1.309369E-2	9.827955E-3	9.624677E-3	1.345358E-2	1.396984E-2	1.610688E-2	9.816699E-3	1.771747E-2	1.920688E-2	1.271436E-2	1.579903E-2	1.316146E-2	2.912876E-3	2.321216E-2	3.282187E-2	5.674637E-3	1.895307E-2	1.219083E-2	6.489967E-3	1.875941E-2	2.037715E-2	1.646495E-2	1.259397E-2	1.774022E-2	1.569712E-2	9.713335E-3	9.331849E-3	1.639787E-2	1.059791E-2	1.553218E-3	1.277554E-2	2.114164E-2
5.331680E+2	9.492068E-3	3.174575E-2	1.609610E-2	3.338567E-2	2.565149E-2	2.200093E-2	6.125407E-3	2.047866E-2	2.302774E-2	1.194649E-2	2.822558E-2	8.366264E-3	2.103036E-2	1.188739E-2	5.827655E-3	1.597736E-2	1.730204E-2	1.811923E-2	1.864321E-2	1.758905E-2	2.917384E-2	2.805886E-2	2.187712E-2	1.660466E-2	1.635963E-2	4.823726E-3	1.717058E-2	1.682767E-2	2.304386E-2	5.624496E-3	2.093354E-2	1.878104E-2	2.380258E-2	2.248129E-2	2.569386E-2	-2.247699E-3	1.923939E-2	2.984645E-2	1.830221E-2	1.142922E-2	8.832286E-3	1.583228E-2	1.385005E-2	1.831804E-2	2.154998E-2	2.045699E-2	4.429599E-3	1.584147E-2	1.271319E-2	2.325211E-2	1.729724E-2	1.891523E-2	2.224695E-4	1.846877E-2	1.649752E-2	2.335613E-2	2.816348E-2	3.185824E-2	2.319060E-2	1.071364E-2	1.295097E-2	7.105364E-3	5.962083E-3	1.719706E-2	2.226718E-2	2.670353E-2	1.433120E-2	1.787026E-2	2.207386E-2	8.858934E-3	2.151327E-2	1.453416E-2	1.994089E-2	1.313389E-2	1.915256E-2	2.721474E-2	1.685018E-2	1.719351E-2	1.064436E-2	1.189833E-2	1.644202E-2	2.323089E-2	1.711466E-2	1.888653E-2	2.637327E-2	2.628725E-2	1.154742E-2	2.287992E-2	2.044775E-2	2.756795E-2	2.110160E-2	1.518815E-2	2.607325E-2	2.237930E-2	2.542840E-2	1.221428E-2	2.122750E-2	2.412064E-2	1.428506E-2	1.357091E-2	2.084885E-2	1.908339E-2	8.467584E-3	1.092986E-2	2.054609E-2	2.276435E-2	1.419854E-2	8.789565E-3	1.343350E-2	2.447291E-2	1.496572E-2	3.507477E-2	2.419018E-2	1.949832E-2	2.635501E-2	2.600976E-2	2.948904E-2	2.040918E-2	7.735547E-3	9.674579E-3	1.882405E-2	2.678734E-2	1.472299E-2	3.044758E-2	5.676555E-3	1.622393E-2	2.309209E-2	1.465157E-2	5.108568E-3	1.487490E-2	2.367325E-2	2.155896E-2	1.441232E-2	2.433070E-2	2.231498E-2	3.504078E-2	1.414947E-2	1.946445E-2	1.278001E-2	9.102659E-3	1.515605E-2	2.446533E-2	1.265940E-2	1.655421E-2	1.176561E-2	1.393100E-2	1.984159E-2	1.378747E-2	2.044517E-2	2.243486E-2	2.355621E-2	1.778745E-2	1.878237E-2	7.458705E-3	3.864407E-2	1.919328E-2	1.682409E-2	1.319796E-2	2.556370E-2	1.874025E-2	2.096149E-2	3.369946E-2	2.703350E-3	8.967520E-3	4.023930E-2	1.178035E-2
5.333080E+2	1.608721E-2	3.056688E-2	3.268056E-2	1.194758E-2	2.993312E-2	7.560503E-3	2.334956E-2	2.132657E-2	2.315189E-2	1.155999E-2	2.130359E-2	5.757024E-3	2.663740E-2	2.636660E-2	2.124604E-2	1.029867E-2	2.629723E-2	2.564647E-2	2.746049E-2	1.938022E-2	3.159939E-2	2.654640E-2	3.173371E-2	1.180154E-2	1.524837E-2	1.581784E-2	2.658251E-2	4.837120E-3	1.662050E-2	2.088423E-2	2.789030E-2	2.445962E-2	2.081508E-2	1.671287E-2	2.238975E-2	1.856413E-2	2.853210E-2	2.240985E-2	3.820298E-2	2.220677E-2	1.853528E-2	1.799397E-2	2.517790E-2	1.828908E-2	2.020376E-2	2.773190E-2	2.716216E-2	2.373314E-2	1.909035E-2	2.824578E-2	1.142878E-2	2.570019E-2	9.349150E-3	3.058266E-2	2.255863E-2	2.771215E-2	2.409299E-2	2.445055E-2	1.807572E-2	2.670308E-2	3.052872E-2	2.133555E-2	1.704299E-2	1.556206E-2	2.311761E-2	3.257987E-2	2.266785E-2	2.931828E-2	2.165127E-2	1.561994E-2	6.945893E-3	3.169174E-2	2.745879E-2	2.001357E-2	2.970195E-2	3.121451E-2	3.584525E-2	2.687007E-2	2.553326E-2	2.255850E-2	2.113175E-2	1.595984E-2	2.616535E-2	1.847270E-2	1.448561E-2	1.722285E-2	2.083803E-2	2.607067E-2	3.019454E-2	3.345234E-2	2.920957E-2	1.812671E-2	1.709378E-2	2.405995E-2	2.983534E-2	1.310241E-2	2.209604E-2	1.368981E-2	2.568748E-2	1.662900E-2	1.404176E-2	1.926852E-2	2.432072E-2	4.020896E-2	1.950100E-2	1.279348E-2	3.016112E-2	2.001593E-2	2.603764E-2	2.179975E-2	2.090016E-2	1.132576E-2	2.308772E-2	2.153377E-2	1.669370E-2	4.201840E-2	2.710780E-2	1.886889E-2	1.482451E-2	1.594963E-2	3.185250E-2	1.793845E-2	2.223585E-2	1.429963E-2	2.022725E-2	2.871185E-2	2.155060E-2	1.238411E-2	1.445074E-2	9.983522E-3	2.138312E-2	2.926303E-2	3.079397E-2	1.647886E-2	1.342622E-2	2.060693E-2	2.406816E-2	1.311588E-2	1.814994E-2	3.059423E-2	2.692113E-2	2.351487E-2	3.023671E-2	2.286786E-2	3.579829E-2	6.811855E-3	1.887724E-2	3.091262E-2	1.940568E-2	3.071198E-2	1.940732E-2	2.959303E-2	3.002089E-2	1.487068E-2	2.976347E-2	3.167041E-2	2.049504E-2	3.797749E-2	1.089712E-2	1.900565E-2	2.489029E-2	1.862843E-2	1.868927E-2	2.446650E-2	2.348399E-2	2.147892E-2
5.334580E+2	2.661855E-2	3.091901E-2	3.711593E-2	1.873801E-2	2.958507E-2	2.257935E-2	3.250863E-2	2.102525E-2	2.229861E-2	3.217275E-2	3.736038E-2	2.303422E-2	3.359174E-2	2.517725E-2	2.773657E-2	1.748605E-2	2.489313E-2	1.915448E-2	3.302472E-2	2.889389E-2	2.329282E-2	1.563634E-2	2.751364E-2	3.086750E-2	1.834061E-2	1.731857E-2	2.199807E-2	2.728878E-2	3.145750E-2	2.661900E-2	3.901076E-2	3.371176E-2	2.939117E-2	2.483010E-2	3.092061E-2	1.889477E-2	3.067483E-2	3.563790E-2	3.045779E-2	2.738739E-2	2.762799E-2	1.831721E-2	4.036227E-2	1.129697E-2	3.224410E-2	3.304008E-2	1.983996E-2	2.732395E-2	1.832606E-2	4.592309E-2	3.801966E-2	2.269633E-2	2.571880E-2	3.438736E-2	2.876725E-2	2.874885E-2	2.064649E-2	1.147083E-2	3.028386E-2	2.571932E-2	3.555828E-2	2.112176E-2	1.426390E-2	2.814594E-2	2.393698E-2	3.365139E-2	2.660451E-2	3.501153E-2	1.987624E-2	2.670684E-2	3.856999E-2	1.707621E-2	3.726841E-2	2.944090E-2	3.983107E-2	4.146440E-2	3.864759E-2	2.945972E-2	3.045371E-2	1.751063E-2	3.429550E-2	1.693265E-2	4.075623E-2	1.709053E-2	2.821466E-2	2.868433E-2	3.827094E-2	2.861556E-2	2.490137E-2	2.303487E-2	2.287397E-2	1.574268E-2	3.978416E-2	3.014443E-2	1.833434E-2	1.404449E-2	3.080978E-2	4.061999E-2	4.219419E-2	1.903839E-2	2.020754E-2	3.454572E-2	1.623899E-2	3.262156E-2	3.314601E-2	2.653337E-2	3.316316E-2	2.229019E-2	2.529516E-2	2.878373E-2	2.441549E-2	4.234004E-2	2.476925E-2	4.456125E-2	2.687104E-2	3.566846E-2	3.006317E-2	3.597597E-2	3.583999E-2	2.761378E-2	2.475657E-2	2.668822E-2	3.109614E-2	2.390543E-2	3.883058E-2	3.470038E-2	2.246238E-2	2.467937E-2	1.673590E-2	3.933683E-2	3.047408E-2	2.758986E-2	1.676325E-2	2.844938E-2	2.406906E-2	1.975666E-2	1.918331E-2	2.467042E-2	2.172579E-2	3.873940E-2	3.891920E-2	3.205793E-2	3.288378E-2	1.945227E-2	2.328629E-2	3.250814E-2	3.608340E-2	2.545886E-2	3.516043E-2	2.557014E-2	2.351754E-2	2.690935E-2	3.237797E-2	2.440207E-2	2.035422E-2	2.523561E-2	3.039306E-2	3.428769E-2	2.890113E-2	2.252344E-2	2.598625E-2	1.577589E-2	2.996491E-2	1.120224E-2	2.235443E-2	2.430805E-2
5.336080E+2	3.479919E-2	2.394950E-2	3.143566E-2	5.264885E-2	4.366137E-2	2.864772E-2	3.554999E-2	3.195821E-2	3.926351E-2	3.070120E-2	3.350941E-2	2.748246E-2	3.520677E-2	4.114417E-2	3.236287E-2	4.347952E-2	3.546468E-2	4.311970E-2	2.655937E-2	3.265033E-2	4.114656E-2	4.355373E-2	3.834692E-2	4.416096E-2	4.616608E-2	3.340811E-2	2.244891E-2	4.484335E-2	4.291557E-2	3.525452E-2	4.125300E-2	3.592241E-2	2.776818E-2	2.891841E-2	4.733550E-2	3.127495E-2	2.935978E-2	4.912877E-2	4.087979E-2	2.678390E-2	3.127009E-2	4.827177E-2	3.534750E-2	3.161563E-2	4.057036E-2	4.293599E-2	3.083168E-2	3.332364E-2	4.248393E-2	5.070000E-2	4.192756E-2	2.257510E-2	3.854619E-2	4.751677E-2	3.337799E-2	4.426370E-2	2.881221E-2	3.672211E-2	4.631843E-2	4.156962E-2	3.498149E-2	5.089704E-2	3.088980E-2	2.788484E-2	4.338637E-2	3.797378E-2	3.180729E-2	4.319916E-2	4.830929E-2	3.799767E-2	3.341998E-2	4.206055E-2	3.313945E-2	2.748775E-2	4.431272E-2	4.192683E-2	3.994159E-2	3.447459E-2	3.213255E-2	2.658674E-2	3.989307E-2	2.058625E-2	3.664501E-2	4.511110E-2	3.531716E-2	4.292974E-2	2.571021E-2	3.449570E-2	3.142922E-2	4.014076E-2	3.996082E-2	3.800912E-2	3.408891E-2	4.323031E-2	2.371624E-2	3.222059E-2	4.582161E-2	4.002099E-2	4.344222E-2	4.784097E-2	3.551026E-2	3.277899E-2	2.458004E-2	3.291875E-2	3.566679E-2	3.990183E-2	4.625259E-2	4.154854E-2	3.714734E-2	4.097381E-2	3.606110E-2	2.936114E-2	3.734125E-2	2.973997E-2	4.194621E-2	3.240781E-2	3.512424E-2	3.942046E-2	2.946140E-2	3.347900E-2	3.429635E-2	3.626521E-2	3.957103E-2	5.243166E-2	4.795266E-2	3.128119E-2	3.274867E-2	2.833738E-2	3.354375E-2	2.691934E-2	3.977451E-2	3.284970E-2	3.655630E-2	2.895143E-2	4.043478E-2	2.367524E-2	4.367795E-2	2.982802E-2	3.453616E-2	3.026755E-2	3.485806E-2	4.576058E-2	4.644781E-2	3.966264E-2	3.611005E-2	3.001686E-2	3.791321E-2	3.920445E-2	6.395816E-2	2.985990E-2	4.554222E-2	3.174068E-2	4.663501E-2	4.198058E-2	3.837680E-2	5.240264E-2	3.776251E-2	2.479444E-2	3.517176E-2	3.402116E-2	4.319495E-2	4.057209E-2	2.890417E-2	1.739818E-2	4.372190E-2	2.991981E-2
5.337580E+2	5.745054E-2	6.473241E-2	6.455382E-2	4.132116E-2	3.919502E-2	3.537582E-2	6.233116E-2	4.030119E-2	4.205573E-2	3.171089E-2	4.515433E-2	4.307005E-2	4.919204E-2	4.645547E-2	2.792917E-2	2.507229E-2	5.054187E-2	5.648732E-2	4.836638E-2	4.326419E-2	4.830882E-2	3.300847E-2	4.660094E-2	4.155235E-2	5.133250E-2	4.087386E-2	4.899336E-2	4.814550E-2	5.282674E-2	3.381936E-2	5.567461E-2	3.765881E-2	6.752436E-2	5.154880E-2	4.164762E-2	4.161004E-2	4.575310E-2	4.637901E-2	3.469126E-2	5.287806E-2	3.656741E-2	4.133081E-2	4.698559E-2	3.435785E-2	6.414036E-2	3.871565E-2	5.755436E-2	4.596235E-2	3.952108E-2	5.327333E-2	4.324418E-2	4.165842E-2	3.877297E-2	4.540380E-2	5.935891E-2	4.602355E-2	3.875061E-2	5.352031E-2	4.658661E-2	4.497567E-2	4.141125E-2	4.888227E-2	4.724228E-2	3.883601E-2	3.907635E-2	5.728860E-2	4.667564E-2	5.366125E-2	5.230811E-2	5.792576E-2	3.876948E-2	3.196406E-2	4.807023E-2	4.847063E-2	4.259877E-2	3.604831E-2	4.547712E-2	3.412907E-2	3.974391E-2	5.825840E-2	6.005022E-2	3.149036E-2	4.757603E-2	4.412597E-2	3.311421E-2	5.493723E-2	3.967392E-2	3.079733E-2	5.156787E-2	4.866954E-2	5.182171E-2	4.640687E-2	4.305606E-2	4.026101E-2	4.567438E-2	4.796191E-2	5.943389E-2	4.443969E-2	5.995844E-2	2.925670E-2	4.181594E-2	3.761552E-2	3.576011E-2	5.918838E-2	5.635189E-2	4.270795E-2	4.913930E-2	4.062769E-2	4.437487E-2	5.061478E-2	4.739728E-2	4.542745E-2	3.762030E-2	4.606950E-2	5.798262E-2	4.152545E-2	5.232243E-2	4.258217E-2	5.512844E-2	4.204829E-2	4.634911E-2	4.253234E-2	4.351186E-2	3.741217E-2	3.119293E-2	4.951412E-2	4.971040E-2	3.746820E-2	3.119347E-2	4.921222E-2	4.375068E-2	4.470878E-2	3.919553E-2	4.723007E-2	5.281680E-2	5.441675E-2	6.016209E-2	3.873512E-2	4.762117E-2	4.085026E-2	5.427219E-2	5.576250E-2	4.209743E-2	3.683383E-2	3.980005E-2	3.139584E-2	4.633929E-2	5.422767E-2	3.948132E-2	5.308121E-2	3.815204E-2	5.225048E-2	4.419825E-2	4.231494E-2	2.888958E-2	4.720622E-2	4.696836E-2	4.801090E-2	4.168449E-2	4.916226E-2	4.353066E-2	4.207678E-2	3.012845E-2	4.435570E-2	4.778128E-2	5.737232E-2
5.339140E+2	4.911074E-2	6.610381E-2	6.042009E-2	5.281840E-2	5.610065E-2	7.346895E-2	6.303340E-2	5.339444E-2	7.567652E-2	5.881452E-2	6.653590E-2	6.196529E-2	7.255433E-2	6.313179E-2	5.835794E-2	4.212769E-2	4.704582E-2	7.155863E-2	4.731263E-2	5.924858E-2	6.520705E-2	5.686953E-2	5.991307E-2	6.943218E-2	7.590736E-2	6.572108E-2	6.886989E-2	6.525237E-2	7.180540E-2	5.778413E-2	6.719950E-2	7.405081E-2	6.823193E-2	7.222904E-2	5.050402E-2	4.820169E-2	6.558738E-2	6.295047E-2	7.331019E-2	7.090085E-2	4.408192E-2	5.196684E-2	6.069182E-2	5.373724E-2	5.030270E-2	6.917043E-2	6.049408E-2	5.663614E-2	8.057349E-2	6.836253E-2	6.300944E-2	5.200740E-2	6.595385E-2	5.003606E-2	4.888160E-2	4.772451E-2	6.773295E-2	6.503004E-2	7.068797E-2	7.282942E-2	4.883704E-2	5.820107E-2	4.997452E-2	5.726733E-2	6.319384E-2	6.241872E-2	5.438116E-2	7.856660E-2	6.314254E-2	6.343930E-2	7.665586E-2	5.370622E-2	8.145456E-2	4.304220E-2	6.345157E-2	6.849355E-2	4.549850E-2	7.421071E-2	7.466707E-2	5.373290E-2	5.104438E-2	6.408820E-2	6.075185E-2	6.472374E-2	8.160322E-2	5.935106E-2	6.152634E-2	6.485995E-2	8.765410E-2	5.569915E-2	5.431878E-2	5.973507E-2	6.161800E-2	5.923780E-2	4.905165E-2	5.029591E-2	6.927587E-2	6.354956E-2	4.997998E-2	6.705138E-2	6.431510E-2	7.006767E-2	6.187493E-2	6.709216E-2	7.047087E-2	4.847449E-2	7.824942E-2	5.983024E-2	8.159638E-2	5.630783E-2	6.031082E-2	6.993707E-2	8.651335E-2	4.794633E-2	6.103919E-2	6.592079E-2	6.563309E-2	5.894741E-2	6.862529E-2	6.842477E-2	7.054548E-2	6.310723E-2	6.141231E-2	6.441324E-2	7.517721E-2	5.423377E-2	6.198930E-2	7.489837E-2	5.931180E-2	7.667045E-2	5.015509E-2	7.912170E-2	6.025191E-2	8.453610E-2	6.645807E-2	5.117653E-2	7.526124E-2	6.538255E-2	6.582095E-2	6.171848E-2	6.553788E-2	4.876230E-2	6.431277E-2	5.771162E-2	6.379838E-2	4.828971E-2	5.396397E-2	4.929889E-2	6.065661E-2	6.767035E-2	8.381976E-2	7.036690E-2	5.079109E-2	5.576553E-2	7.520153E-2	6.835530E-2	5.654454E-2	5.877973E-2	7.052607E-2	7.071236E-2	7.998977E-2	7.358644E-2	7.868624E-2	7.132888E-2	7.092988E-2	4.540179E-2
5.340640E+2	7.835905E-2	8.741219E-2	8.335764E-2	8.732624E-2	1.028197E-1	9.006124E-2	9.894723E-2	7.277578E-2	8.489411E-2	8.548257E-2	9.644889E-2	6.452405E-2	9.842672E-2	9.353912E-2	8.344236E-2	8.139725E-2	9.678712E-2	8.510157E-2	9.846737E-2	9.568106E-2	8.535309E-2	1.049067E-1	8.968691E-2	8.256029E-2	8.253745E-2	8.786341E-2	1.154893E-1	8.035707E-2	9.591772E-2	6.842506E-2	9.392040E-2	7.540821E-2	9.011001E-2	9.199506E-2	8.042352E-2	8.024392E-2	9.536832E-2	9.524031E-2	8.182167E-2	9.457246E-2	9.053621E-2	8.990051E-2	1.085758E-1	7.166620E-2	1.005140E-1	8.056005E-2	8.919153E-2	7.654313E-2	1.021245E-1	8.612215E-2	9.155413E-2	9.480667E-2	9.165887E-2	1.055742E-1	8.040749E-2	8.570910E-2	9.260237E-2	9.166255E-2	9.987389E-2	9.600625E-2	8.045779E-2	9.124217E-2	6.915898E-2	8.680863E-2	8.835786E-2	9.789020E-2	8.711773E-2	7.765382E-2	8.062462E-2	8.902135E-2	7.523894E-2	8.504400E-2	8.441611E-2	7.702266E-2	8.598131E-2	8.721288E-2	8.931398E-2	9.093147E-2	8.873566E-2	8.790440E-2	9.078763E-2	8.262519E-2	7.959780E-2	9.034701E-2	9.177118E-2	9.527221E-2	8.714127E-2	9.481928E-2	7.182018E-2	8.549297E-2	1.027270E-1	1.000650E-1	8.570102E-2	9.902026E-2	8.436197E-2	8.789925E-2	8.068287E-2	8.416965E-2	9.110658E-2	7.619752E-2	9.128901E-2	8.778973E-2	8.957837E-2	9.124405E-2	1.188355E-1	1.023394E-1	8.451579E-2	7.517364E-2	9.565099E-2	9.797769E-2	9.051138E-2	8.441497E-2	9.157760E-2	6.678497E-2	8.950387E-2	8.616979E-2	8.436791E-2	8.612779E-2	9.683163E-2	9.284347E-2	9.911708E-2	8.384645E-2	8.884373E-2	8.270369E-2	1.015117E-1	9.089845E-2	8.261574E-2	7.542983E-2	7.612711E-2	8.740237E-2	1.027842E-1	8.173993E-2	7.826295E-2	8.166274E-2	8.887020E-2	8.914333E-2	9.381403E-2	7.634923E-2	8.751731E-2	9.558656E-2	8.611741E-2	7.499207E-2	9.369823E-2	8.939503E-2	8.035193E-2	8.431378E-2	9.236170E-2	1.063938E-1	9.260232E-2	8.939882E-2	9.262614E-2	9.134038E-2	1.005564E-1	9.976381E-2	9.182383E-2	9.466452E-2	8.374110E-2	9.292592E-2	8.935815E-2	8.817802E-2	9.069778E-2	8.089577E-2	9.322670E-2	8.361136E-2	5.334553E-2	8.140274E-2
5.342090E+2	1.447275E-1	1.416371E-1	1.168760E-1	1.258940E-1	1.080512E-1	1.182581E-1	1.428108E-1	1.287940E-1	1.504610E-1	1.407449E-1	1.436672E-1	1.154673E-1	1.529740E-1	1.346315E-1	1.294913E-1	1.375960E-1	1.171314E-1	1.167441E-1	1.261235E-1	1.270172E-1	1.436492E-1	1.495312E-1	1.162529E-1	1.305558E-1	1.296203E-1	1.356040E-1	1.281988E-1	1.377027E-1	1.399696E-1	1.251805E-1	1.500853E-1	1.271562E-1	1.463696E-1	1.156158E-1	1.348353E-1	1.365115E-1	1.386980E-1	1.361336E-1	1.405664E-1	1.299453E-1	1.195490E-1	1.375638E-1	1.210179E-1	1.412426E-1	1.409705E-1	1.438741E-1	1.433015E-1	1.218817E-1	1.406825E-1	1.294766E-1	1.668490E-1	1.316106E-1	1.356324E-1	1.389950E-1	1.305640E-1	1.380737E-1	1.553816E-1	1.312137E-1	1.281558E-1	1.314805E-1	1.283736E-1	1.475878E-1	1.281227E-1	1.416189E-1	1.413767E-1	1.355566E-1	1.385013E-1	1.402216E-1	1.398669E-1	1.257224E-1	1.281410E-1	1.358019E-1	1.459841E-1	1.273114E-1	1.435228E-1	1.381982E-1	1.256867E-1	1.515969E-1	1.334919E-1	1.330127E-1	1.509834E-1	1.253687E-1	1.389282E-1	1.333546E-1	1.410277E-1	1.321139E-1	1.222501E-1	1.267236E-1	1.460345E-1	1.271389E-1	1.459228E-1	1.394489E-1	1.333164E-1	1.253979E-1	1.183382E-1	1.549191E-1	1.231253E-1	1.368362E-1	1.325701E-1	1.292864E-1	1.393306E-1	1.307684E-1	1.199682E-1	1.507157E-1	1.238412E-1	1.287270E-1	1.474948E-1	1.487686E-1	1.253912E-1	1.472673E-1	1.370852E-1	1.443299E-1	1.206554E-1	1.449324E-1	1.329795E-1	1.229274E-1	1.344222E-1	1.540611E-1	1.224025E-1	1.373776E-1	1.323642E-1	1.260665E-1	1.344133E-1	1.206497E-1	1.265404E-1	1.375230E-1	1.524638E-1	1.405517E-1	1.341590E-1	1.172922E-1	1.203709E-1	1.323983E-1	1.294866E-1	1.186303E-1	1.398619E-1	1.388485E-1	1.285386E-1	1.364665E-1	1.250546E-1	1.262103E-1	1.243492E-1	1.484996E-1	1.495664E-1	1.289097E-1	1.562363E-1	1.372524E-1	1.334484E-1	1.365982E-1	1.616333E-1	1.186857E-1	1.537315E-1	1.331823E-1	1.213277E-1	1.261282E-1	1.397861E-1	1.207753E-1	1.522118E-1	1.441445E-1	1.572020E-1	1.528926E-1	1.388235E-1	1.293619E-1	1.341927E-1	1.263646E-1	9.957310E-2	1.202975E-1
5.343550E+2	2.042320E-1	2.281657E-1	2.002950E-1	1.968138E-1	2.275798E-1	2.179651E-1	2.200923E-1	1.996095E-1	2.114594E-1	2.227501E-1	2.031894E-1	2.046347E-1	2.105804E-1	2.307424E-1	2.162614E-1	2.058644E-1	2.001612E-1	2.158205E-1	2.094616E-1	1.951933E-1	2.185393E-1	2.060114E-1	1.987466E-1	2.056286E-1	2.458350E-1	2.126805E-1	2.197020E-1	2.226787E-1	2.336416E-1	2.260879E-1	1.926476E-1	2.190354E-1	2.287733E-1	1.981049E-1	2.073479E-1	2.008248E-1	2.003446E-1	2.290724E-1	2.255325E-1	2.206571E-1	2.148731E-1	2.226943E-1	2.096795E-1	2.235479E-1	2.047194E-1	1.968512E-1	1.981909E-1	2.165598E-1	1.968218E-1	2.233267E-1	1.918806E-1	2.246541E-1	2.159084E-1	2.177056E-1	2.129783E-1	2.063826E-1	2.131831E-1	2.108723E-1	2.097785E-1	2.341809E-1	2.195180E-1	2.041683E-1	2.196169E-1	2.353530E-1	1.991924E-1	2.152108E-1	1.829614E-1	2.275043E-1	1.807561E-1	2.225393E-1	2.263983E-1	2.312263E-1	2.098069E-1	2.062331E-1	2.210369E-1	2.369675E-1	2.306387E-1	2.301776E-1	2.153256E-1	2.161280E-1	2.608805E-1	2.075207E-1	2.334768E-1	2.221700E-1	1.966803E-1	2.213162E-1	2.200895E-1	2.026588E-1	2.251163E-1	2.244791E-1	2.246801E-1	2.294798E-1	2.214170E-1	1.932002E-1	2.179974E-1	2.390441E-1	2.098183E-1	2.354744E-1	2.197333E-1	2.074025E-1	2.305244E-1	1.966962E-1	2.191354E-1	2.288797E-1	2.358145E-1	2.006657E-1	2.340826E-1	1.972198E-1	2.174199E-1	2.249149E-1	2.064279E-1	1.934456E-1	2.209327E-1	2.034604E-1	2.073461E-1	2.144352E-1	2.516772E-1	2.099331E-1	2.217412E-1	2.051130E-1	2.284000E-1	2.171051E-1	2.260552E-1	1.922481E-1	2.436221E-1	2.215069E-1	2.343489E-1	2.183965E-1	2.090227E-1	2.168560E-1	2.033446E-1	2.186994E-1	2.042424E-1	2.006132E-1	1.817617E-1	2.226975E-1	2.296293E-1	2.156586E-1	2.195714E-1	2.402574E-1	2.195778E-1	2.129217E-1	2.360552E-1	2.006240E-1	2.132636E-1	2.214004E-1	2.157143E-1	2.099813E-1	2.187301E-1	2.045097E-1	2.124364E-1	2.178258E-1	2.251885E-1	2.101209E-1	2.290453E-1	2.352595E-1	2.013187E-1	1.966080E-1	1.868791E-1	2.278652E-1	2.279913E-1	2.138991E-1	2.164040E-1	2.162469E-1	2.470977E-1	2.187017E-1
5.345050E+2	3.862383E-1	3.863583E-1	3.287048E-1	3.823481E-1	3.572093E-1	3.280452E-1	3.939000E-1	3.526210E-1	3.755417E-1	3.656184E-1	3.505419E-1	3.659063E-1	3.705316E-1	3.750084E-1	3.743359E-1	3.715865E-1	3.626410E-1	3.673072E-1	4.040827E-1	3.911892E-1	3.847388E-1	3.585401E-1	3.885352E-1	3.750196E-1	3.772765E-1	3.847407E-1	3.923255E-1	3.664695E-1	3.908371E-1	3.545695E-1	3.587927E-1	3.896384E-1	3.935279E-1	3.806979E-1	3.657418E-1	3.392710E-1	3.802574E-1	3.429279E-1	3.749173E-1	3.540834E-1	3.861957E-1	3.955489E-1	3.580917E-1	3.622171E-1	4.219924E-1	4.012487E-1	3.899280E-1	3.443041E-1	3.364965E-1	3.834159E-1	3.852552E-1	3.964844E-1	3.768251E-1	3.642540E-1	3.696821E-1	3.893187E-1	3.667878E-1	3.924072E-1	3.865544E-1	3.747005E-1	4.021191E-1	3.646965E-1	3.843051E-1	4.050112E-1	3.763475E-1	4.011422E-1	3.938218E-1	3.668127E-1	3.775134E-1	3.758743E-1	3.670265E-1	3.965156E-1	3.721060E-1	3.661446E-1	3.921504E-1	3.469467E-1	3.681177E-1	3.743653E-1	3.584156E-1	3.798802E-1	3.701567E-1	3.891807E-1	3.812054E-1	3.490030E-1	3.813341E-1	3.918117E-1	3.783821E-1	3.823721E-1	3.743600E-1	3.936615E-1	3.954204E-1	3.880458E-1	3.978545E-1	3.931474E-1	3.917229E-1	3.737212E-1	3.657380E-1	4.113645E-1	3.842129E-1	3.632533E-1	3.719134E-1	3.843212E-1	3.680918E-1	3.802749E-1	3.710727E-1	3.987428E-1	3.908010E-1	3.822099E-1	3.757855E-1	3.727118E-1	3.711024E-1	4.047188E-1	3.739649E-1	3.818725E-1	3.557070E-1	3.625650E-1	3.716627E-1	3.800611E-1	3.902523E-1	3.793564E-1	3.782226E-1	3.853038E-1	3.940599E-1	3.774982E-1	3.945626E-1	3.793715E-1	4.176090E-1	4.019465E-1	3.942218E-1	3.683973E-1	3.816635E-1	3.623026E-1	3.871162E-1	3.591535E-1	3.454603E-1	3.737987E-1	3.846723E-1	3.897547E-1	4.017124E-1	3.865399E-1	3.937382E-1	3.646927E-1	4.149067E-1	3.861599E-1	3.839993E-1	3.656399E-1	3.906855E-1	3.772676E-1	4.063340E-1	4.053334E-1	3.907679E-1	3.920241E-1	3.784419E-1	3.812025E-1	3.786804E-1	3.450538E-1	4.065936E-1	3.657837E-1	3.701333E-1	3.801813E-1	3.738242E-1	3.723537E-1	3.647196E-1	4.120201E-1	4.602386E-1	4.216636E-1
5.346870E+2	6.997781E-1	6.374559E-1	6.384525E-1	6.669375E-1	6.885143E-1	6.482538E-1	6.955830E-1	6.796367E-1	6.764761E-1	6.755683E-1	6.756365E-1	7.052344E-1	6.668305E-1	6.762036E-1	6.959262E-1	6.555359E-1	6.652153E-1	6.519268E-1	6.778603E-1	6.579983E-1	6.780080E-1	6.557536E-1	6.194891E-1	6.597114E-1	6.912254E-1	6.681586E-1	6.526572E-1	6.487681E-1	6.908147E-1	6.773479E-1	6.448238E-1	6.637875E-1	6.952125E-1	6.974051E-1	6.925272E-1	6.350292E-1	6.366730E-1	6.530365E-1	6.609176E-1	6.706651E-1	6.839197E-1	6.585668E-1	6.511718E-1	6.705593E-1	6.845528E-1	6.403933E-1	6.925713E-1	6.489096E-1	6.882724E-1	6.508613E-1	6.447121E-1	6.760331E-1	7.085147E-1	7.198516E-1	6.331526E-1	6.608821E-1	6.710561E-1	6.858036E-1	6.837623E-1	6.946587E-1	6.920508E-1	6.761777E-1	6.610415E-1	6.988565E-1	7.118383E-1	6.654213E-1	6.712297E-1	6.883002E-1	6.599750E-1	7.063418E-1	6.528843E-1	6.783575E-1	6.470524E-1	6.924919E-1	6.581645E-1	7.017877E-1	6.413343E-1	6.237396E-1	6.497612E-1	6.531787E-1	6.907976E-1	7.215415E-1	6.875349E-1	6.083362E-1	6.854687E-1	6.670674E-1	6.601025E-1	6.510871E-1	6.914866E-1	6.403893E-1	6.695846E-1	6.464775E-1	6.782457E-1	6.824646E-1	6.631110E-1	6.525386E-1	6.753067E-1	6.846192E-1	6.660358E-1	6.991127E-1	6.653119E-1	6.500402E-1	6.756771E-1	6.713983E-1	7.013536E-1	6.442177E-1	6.958816E-1	6.646303E-1	6.763572E-1	6.724771E-1	6.438966E-1	7.087508E-1	6.587639E-1	6.419896E-1	6.640950E-1	7.208415E-1	6.988185E-1	6.493370E-1	6.914426E-1	6.589425E-1	6.965079E-1	7.080924E-1	6.888113E-1	7.064502E-1	7.070110E-1	6.421304E-1	7.142799E-1	6.546639E-1	6.748976E-1	6.530798E-1	6.710951E-1	7.258428E-1	6.732460E-1	6.879392E-1	6.253470E-1	6.691579E-1	6.744098E-1	7.138727E-1	6.384693E-1	6.836209E-1	6.676009E-1	6.708585E-1	6.702234E-1	6.769699E-1	6.822421E-1	6.709229E-1	6.319708E-1	6.917460E-1	6.733718E-1	6.776089E-1	6.568381E-1	6.687307E-1	6.635545E-1	6.242300E-1	6.390565E-1	7.186433E-1	6.547349E-1	6.653454E-1	6.307500E-1	6.446542E-1	6.884691E-1	6.746306E-1	6.820633E-1	6.340065E-1	6.906102E-1	7.052782E-1
5.348070E+2	9.537021E-1	9.688147E-1	9.581235E-1	9.677639E-1	9.762215E-1	9.930522E-1	9.733015E-1	9.333721E-1	1.014345E+0	9.606605E-1	9.601040E-1	9.447045E-1	9.703812E-1	9.763335E-1	1.003490E+0	9.589220E-1	9.679249E-1	9.880947E-1	9.529550E-1	9.577180E-1	1.004242E+0	9.974279E-1	1.002207E+0	9.732247E-1	1.005949E+0	9.351918E-1	9.847116E-1	9.562832E-1	9.941141E-1	9.766632E-1	9.811631E-1	9.689374E-1	1.000899E+0	9.816498E-1	9.964469E-1	9.678448E-1	9.976786E-1	9.503127E-1	1.001246E+0	9.711411E-1	9.361546E-1	9.931966E-1	9.836655E-1	9.833798E-1	1.033827E+0	9.582888E-1	9.802631E-1	9.566643E-1	1.025408E+0	9.703569E-1	1.001217E+0	9.897722E-1	9.905784E-1	9.750594E-1	9.764762E-1	9.629321E-1	9.888251E-1	9.185722E-1	9.843233E-1	9.945586E-1	9.590284E-1	9.827788E-1	9.179765E-1	9.910549E-1	1.009051E+0	1.011023E+0	1.000009E+0	9.740731E-1	1.014371E+0	9.861991E-1	9.795666E-1	9.867796E-1	9.524647E-1	9.528976E-1	9.696896E-1	9.372208E-1	9.841785E-1	9.615810E-1	9.901802E-1	9.679806E-1	9.966553E-1	9.731371E-1	9.653829E-1	9.817268E-1	9.852116E-1	9.923224E-1	9.944535E-1	9.724470E-1	9.802376E-1	1.003876E+0	9.785730E-1	9.717673E-1	9.538609E-1	9.689007E-1	9.613193E-1	9.790402E-1	1.027396E+0	9.609870E-1	9.829246E-1	9.555941E-1	9.849875E-1	9.865454E-1	9.933123E-1	9.773364E-1	9.787591E-1	9.274559E-1	9.667296E-1	9.795629E-1	9.863319E-1	9.269495E-1	9.935644E-1	9.836494E-1	9.872550E-1	1.002317E+0	9.777603E-1	9.704566E-1	1.001035E+0	9.510120E-1	9.731278E-1	1.028670E+0	9.523640E-1	9.785221E-1	9.871218E-1	9.905265E-1	1.015445E+0	9.905950E-1	9.701775E-1	9.515918E-1	1.019530E+0	9.420748E-1	1.004507E+0	9.549916E-1	9.994950E-1	1.030762E+0	9.481031E-1	9.577422E-1	9.586910E-1	9.471742E-1	9.971876E-1	9.825774E-1	9.420673E-1	9.435179E-1	9.669196E-1	9.208753E-1	9.530659E-1	1.000256E+0	9.557235E-1	9.874064E-1	1.022062E+0	9.075577E-1	1.010920E+0	9.689000E-1	9.524576E-1	9.939155E-1	9.682360E-1	9.877899E-1	9.800289E-1	9.764468E-1	9.824981E-1	9.511979E-1	1.011851E+0	9.264470E-1	9.572320E-1	9.587049E-1	9.858370E-1	9.238820E-1
5.349630E+2	1.499094E+0	1.426126E+0	1.416230E+0	1.396694E+0	1.453644E+0	1.408582E+0	1.422477E+0	1.436288E+0	1.409567E+0	1.405648E+0	1.450561E+0	1.439432E+0	1.394212E+0	1.412344E+0	1.428203E+0	1.409622E+0	1.412411E+0	1.417177E+0	1.410160E+0	1.387939E+0	1.431003E+0	1.393492E+0	1.375569E+0	1.470563E+0	1.465698E+0	1.432452E+0	1.513921E+0	1.371838E+0	1.434062E+0	1.393385E+0	1.414640E+0	1.439087E+0	1.523262E+0	1.427835E+0	1.422829E+0	1.362787E+0	1.439532E+0	1.419975E+0	1.357569E+0	1.364329E+0	1.383601E+0	1.412888E+0	1.402393E+0	1.377580E+0	1.416956E+0	1.379566E+0	1.394311E+0	1.381025E+0	1.428142E+0	1.437829E+0	1.449967E+0	1.403679E+0	1.419273E+0	1.384818E+0	1.477530E+0	1.440817E+0	1.427160E+0	1.358195E+0	1.315677E+0	1.407279E+0	1.440003E+0	1.351051E+0	1.398893E+0	1.378180E+0	1.389968E+0	1.420506E+0	1.414659E+0	1.422043E+0	1.388423E+0	1.383346E+0	1.428607E+0	1.424963E+0	1.400111E+0	1.331193E+0	1.374646E+0	1.419556E+0	1.373735E+0	1.359608E+0	1.388152E+0	1.401419E+0	1.432993E+0	1.343771E+0	1.413138E+0	1.422281E+0	1.461246E+0	1.335355E+0	1.407369E+0	1.413418E+0	1.450754E+0	1.345386E+0	1.373833E+0	1.448013E+0	1.413042E+0	1.370420E+0	1.413053E+0	1.378215E+0	1.378369E+0	1.380174E+0	1.442884E+0	1.403760E+0	1.381422E+0	1.375517E+0	1.482936E+0	1.355559E+0	1.428027E+0	1.390273E+0	1.368962E+0	1.404870E+0	1.385864E+0	1.332974E+0	1.374736E+0	1.400573E+0	1.355043E+0	1.413113E+0	1.347538E+0	1.451231E+0	1.409550E+0	1.405119E+0	1.381902E+0	1.439970E+0	1.372548E+0	1.363505E+0	1.418584E+0	1.401465E+0	1.430566E+0	1.374542E+0	1.338193E+0	1.351084E+0	1.430040E+0	1.370082E+0	1.425556E+0	1.349099E+0	1.376326E+0	1.444329E+0	1.374147E+0	1.394969E+0	1.384562E+0	1.354452E+0	1.377006E+0	1.423538E+0	1.440476E+0	1.382075E+0	1.448619E+0	1.344410E+0	1.451486E+0	1.379112E+0	1.341310E+0	1.385696E+0	1.388243E+0	1.396829E+0	1.394690E+0	1.383696E+0	1.428929E+0	1.419914E+0	1.417894E+0	1.405555E+0	1.388254E+0	1.395679E+0	1.346693E+0	1.363877E+0	1.419395E+0	1.399605E+0	1.359761E+0	1.361005E+0	1.446107E+0	1.389238E+0
5.351090E+2	1.824163E+0	1.768009E+0	1.805000E+0	1.733614E+0	1.746378E+0	1.851089E+0	1.693080E+0	1.797067E+0	1.688141E+0	1.837275E+0	1.725258E+0	1.757741E+0	1.802421E+0	1.845810E+0	1.760619E+0	1.718479E+0	1.824616E+0	1.790624E+0	1.812699E+0	1.647296E+0	1.752269E+0	1.823755E+0	1.803987E+0	1.770542E+0	1.809437E+0	1.739884E+0	1.830395E+0	1.683758E+0	1.792257E+0	1.761853E+0	1.808935E+0	1.733007E+0	1.790398E+0	1.791853E+0	1.795321E+0	1.688600E+0	1.767594E+0	1.784854E+0	1.766508E+0	1.723431E+0	1.742196E+0	1.787149E+0	1.753868E+0	1.747375E+0	1.718421E+0	1.781193E+0	1.740915E+0	1.665984E+0	1.720080E+0	1.739030E+0	1.696439E+0	1.736655E+0	1.762807E+0	1.785766E+0	1.751256E+0	1.727604E+0	1.788448E+0	1.817605E+0	1.732216E+0	1.724191E+0	1.803079E+0	1.677364E+0	1.716333E+0	1.817389E+0	1.765126E+0	1.762541E+0	1.792782E+0	1.766110E+0	1.769045E+0	1.697887E+0	1.770561E+0	1.767480E+0	1.761269E+0	1.672731E+0	1.681289E+0	1.774501E+0	1.675988E+0	1.711066E+0	1.814573E+0	1.728125E+0	1.768935E+0	1.762496E+0	1.739710E+0	1.662689E+0	1.763906E+0	1.700857E+0	1.731649E+0	1.725504E+0	1.765669E+0	1.769813E+0	1.759335E+0	1.728556E+0	1.715714E+0	1.701644E+0	1.767707E+0	1.631651E+0	1.783669E+0	1.746245E+0	1.721031E+0	1.742428E+0	1.743303E+0	1.769199E+0	1.779714E+0	1.730962E+0	1.732617E+0	1.633427E+0	1.703818E+0	1.711818E+0	1.794896E+0	1.728529E+0	1.749295E+0	1.755635E+0	1.810366E+0	1.701766E+0	1.751193E+0	1.726773E+0	1.743050E+0	1.714211E+0	1.739255E+0	1.764809E+0	1.767891E+0	1.741487E+0	1.745089E+0	1.732483E+0	1.782833E+0	1.681978E+0	1.737089E+0	1.728990E+0	1.775973E+0	1.702131E+0	1.697874E+0	1.767230E+0	1.749648E+0	1.705292E+0	1.670692E+0	1.659632E+0	1.742995E+0	1.734809E+0	1.670578E+0	1.734290E+0	1.754705E+0	1.747178E+0	1.713817E+0	1.691682E+0	1.709868E+0	1.748729E+0	1.749138E+0	1.704760E+0	1.746361E+0	1.775166E+0	1.728764E+0	1.704862E+0	1.770078E+0	1.762387E+0	1.691629E+0	1.771260E+0	1.716192E+0	1.683546E+0	1.715269E+0	1.676709E+0	1.835375E+0	1.660881E+0	1.730911E+0	1.714294E+0	1.808247E+0	1.711734E+0
5.352650E+2	1.986962E+0	2.039932E+0	2.035071E+0	2.043838E+0	1.966831E+0	2.029305E+0	2.078637E+0	1.996208E+0	1.966997E+0	2.066985E+0	1.950788E+0	2.003419E+0	1.993560E+0	1.965997E+0	2.025272E+0	1.956257E+0	1.998779E+0	1.989783E+0	2.021231E+0	1.956138E+0	1.947465E+0	1.967943E+0	1.980395E+0	1.962222E+0	1.994195E+0	2.027134E+0	2.029188E+0	2.021723E+0	2.007113E+0	1.955620E+0	2.026254E+0	1.995687E+0	2.044753E+0	2.005872E+0	2.063115E+0	1.966484E+0	2.014951E+0	2.014496E+0	1.981115E+0	2.021722E+0	1.990785E+0	2.068517E+0	2.028025E+0	2.017848E+0	1.921789E+0	1.941454E+0	2.051092E+0	1.927016E+0	2.042330E+0	1.981382E+0	2.036590E+0	1.992369E+0	2.074253E+0	1.975784E+0	2.055157E+0	1.963012E+0	1.952017E+0	1.938381E+0	1.929927E+0	2.091088E+0	1.993520E+0	1.933010E+0	2.017975E+0	2.036975E+0	2.013161E+0	2.012152E+0	2.002830E+0	1.945546E+0	1.960411E+0	1.942760E+0	1.999466E+0	1.965774E+0	1.974107E+0	1.936141E+0	2.025139E+0	1.949223E+0	1.965178E+0	1.887656E+0	1.965418E+0	1.966812E+0	1.940512E+0	1.961513E+0	1.951119E+0	1.941131E+0	1.947581E+0	1.979624E+0	1.986459E+0	1.953513E+0	1.984401E+0	1.972474E+0	1.916308E+0	1.980055E+0	1.946939E+0	1.929206E+0	1.952775E+0	1.916803E+0	2.064879E+0	1.953519E+0	1.972875E+0	1.954014E+0	1.960225E+0	1.962326E+0	1.998180E+0	1.974499E+0	1.948649E+0	1.999238E+0	1.984138E+0	1.939469E+0	1.951261E+0	2.024572E+0	1.914640E+0	1.882704E+0	2.025807E+0	1.957788E+0	1.958819E+0	1.924236E+0	2.017251E+0	1.947555E+0	1.936931E+0	1.980481E+0	1.990691E+0	2.020213E+0	1.913129E+0	1.903098E+0	2.026033E+0	1.941423E+0	1.984415E+0	2.032550E+0	1.964806E+0	1.946446E+0	1.958795E+0	1.916070E+0	1.932611E+0	1.973180E+0	1.935247E+0	1.922829E+0	2.013552E+0	2.030752E+0	1.971774E+0	1.967117E+0	1.971309E+0	1.867494E+0	1.929629E+0	1.912950E+0	1.978913E+0	1.971744E+0	1.903403E+0	1.934048E+0	1.938821E+0	2.003480E+0	1.984142E+0	1.948214E+0	1.948536E+0	1.965336E+0	1.953151E+0	1.954654E+0	1.962735E+0	1.857282E+0	1.885382E+0	1.868114E+0	1.976952E+0	1.928762E+0	1.911197E+0	1.868052E+0	1.866031E+0	1.867944E+0
5.354170E+2	2.016756E+0	1.969695E+0	2.026766E+0	2.042943E+0	2.005838E+0	1.988720E+0	2.022206E+0	2.058453E+0	1.962511E+0	2.004072E+0	1.972475E+0	2.009122E+0	2.030790E+0	1.978532E+0	2.068907E+0	1.976451E+0	1.995621E+0	1.979166E+0	2.015306E+0	1.903496E+0	1.980717E+0	1.990402E+0	2.006944E+0	2.020849E+0	2.055807E+0	2.029924E+0	2.079086E+0	1.948699E+0	2.076968E+0	1.980162E+0	2.004189E+0	1.956852E+0	2.076831E+0	2.016107E+0	2.004468E+0	1.950976E+0	2.003626E+0	2.019037E+0	2.017274E+0	1.967534E+0	1.990110E+0	1.991977E+0	1.950036E+0	1.987512E+0	1.977725E+0	2.003076E+0	2.059800E+0	1.941856E+0	1.988846E+0	1.952789E+0	2.025287E+0	1.976698E+0	2.006952E+0	2.053038E+0	2.041974E+0	1.930671E+0	2.014500E+0	1.955920E+0	1.957669E+0	2.019116E+0	1.978854E+0	1.931052E+0	1.915301E+0	1.999214E+0	1.988372E+0	2.011731E+0	2.026880E+0	1.903196E+0	1.993794E+0	2.006597E+0	1.991584E+0	1.954258E+0	1.840878E+0	1.982545E+0	2.101169E+0	1.944382E+0	1.993403E+0	1.970712E+0	1.994233E+0	1.990690E+0	2.019020E+0	2.047616E+0	1.970038E+0	1.887766E+0	2.029574E+0	2.040111E+0	2.014844E+0	2.009128E+0	1.951896E+0	1.876825E+0	1.975323E+0	1.935831E+0	1.996846E+0	1.900364E+0	1.956952E+0	1.888903E+0	2.059688E+0	1.917245E+0	2.027830E+0	2.004290E+0	1.924595E+0	1.950322E+0	1.992291E+0	1.934801E+0	1.895055E+0	2.047648E+0	1.966277E+0	1.923063E+0	1.978022E+0	1.971446E+0	1.900592E+0	1.924610E+0	1.969319E+0	1.960226E+0	1.944767E+0	1.997081E+0	1.975989E+0	1.959785E+0	1.957578E+0	1.968756E+0	1.894598E+0	1.993851E+0	1.923019E+0	1.965363E+0	1.945376E+0	1.935080E+0	1.943000E+0	2.019106E+0	1.971361E+0	1.952297E+0	1.985591E+0	1.937210E+0	1.980318E+0	1.934443E+0	1.896382E+0	1.980593E+0	1.952433E+0	2.001096E+0	1.907928E+0	1.962048E+0	1.993231E+0	1.916995E+0	1.939557E+0	1.897083E+0	2.006804E+0	1.931432E+0	1.919907E+0	1.964156E+0	1.953331E+0	1.973805E+0	1.968398E+0	1.942787E+0	1.958090E+0	1.975180E+0	1.922543E+0	1.933262E+0	1.935595E+0	1.905652E+0	1.927501E+0	1.938795E+0	1.996956E+0	1.903397E+0	1.914400E+0	1.865535E+0	2.004243E+0	1.816035E+0
5.355630E+2	1.909779E+0	1.975351E+0	1.935769E+0	1.882449E+0	1.884550E+0	1.918972E+0	1.875469E+0	1.907975E+0	1.851663E+0	1.840878E+0	1.840597E+0	1.869021E+0	1.924251E+0	1.879508E+0	1.899497E+0	1.813674E+0	1.934022E+0	1.851476E+0	1.907356E+0	1.842899E+0	1.887384E+0	1.894535E+0	1.856027E+0	1.901551E+0	1.936182E+0	1.861090E+0	1.865262E+0	1.846193E+0	1.946854E+0	1.841688E+0	1.836400E+0	1.859383E+0	1.936182E+0	1.948204E+0	1.877358E+0	1.806046E+0	1.876099E+0	1.905497E+0	1.873501E+0	1.880499E+0	1.853138E+0	1.984712E+0	1.871838E+0	1.867134E+0	1.885747E+0	1.851486E+0	1.846376E+0	1.840478E+0	1.840650E+0	1.928725E+0	1.846317E+0	1.815664E+0	1.826894E+0	1.896357E+0	1.948529E+0	1.805496E+0	1.851643E+0	1.866404E+0	1.829503E+0	1.910765E+0	1.856624E+0	1.823327E+0	1.886306E+0	1.872852E+0	1.845667E+0	1.853991E+0	1.865760E+0	1.780863E+0	1.857375E+0	1.893278E+0	1.880615E+0	1.886935E+0	1.823226E+0	1.847290E+0	1.857109E+0	1.777790E+0	1.882665E+0	1.806454E+0	1.850366E+0	1.875495E+0	1.914007E+0	1.889329E+0	1.862375E+0	1.877842E+0	1.866904E+0	1.866695E+0	1.853849E+0	1.791412E+0	1.846117E+0	1.798150E+0	1.785114E+0	1.818171E+0	1.918186E+0	1.834981E+0	1.889468E+0	1.769559E+0	1.848829E+0	1.812928E+0	1.885326E+0	1.892327E+0	1.832697E+0	1.856362E+0	1.861154E+0	1.856301E+0	1.769434E+0	1.908442E+0	1.822829E+0	1.828085E+0	1.823840E+0	1.833958E+0	1.782158E+0	1.829674E+0	1.865807E+0	1.869279E+0	1.922896E+0	1.773625E+0	1.812244E+0	1.865928E+0	1.793735E+0	1.854885E+0	1.852186E+0	1.867427E+0	1.852659E+0	1.874625E+0	1.806998E+0	1.790953E+0	1.829311E+0	1.871162E+0	1.877209E+0	1.877040E+0	1.840101E+0	1.846294E+0	1.794713E+0	1.890418E+0	1.832097E+0	1.819625E+0	1.865692E+0	1.825675E+0	1.758178E+0	1.779987E+0	1.798127E+0	1.848532E+0	1.811664E+0	1.763406E+0	1.891714E+0	1.807063E+0	1.795493E+0	1.824727E+0	1.803338E+0	1.781779E+0	1.833244E+0	1.846197E+0	1.860454E+0	1.837095E+0	1.832275E+0	1.831239E+0	1.819410E+0	1.688598E+0	1.787042E+0	1.715263E+0	1.862489E+0	1.768705E+0	1.870416E+0	1.800962E+0	1.880448E+0	1.835177E+0
5.357090E+2	1.648496E+0	1.675562E+0	1.761974E+0	1.690562E+0	1.674617E+0	1.691148E+0	1.711344E+0	1.607701E+0	1.705071E+0	1.691075E+0	1.675825E+0	1.675423E+0	1.717965E+0	1.727123E+0	1.774345E+0	1.693685E+0	1.756146E+0	1.655793E+0	1.642876E+0	1.655888E+0	1.699597E+0	1.634800E+0	1.761063E+0	1.638059E+0	1.699556E+0	1.658073E+0	1.709656E+0	1.671181E+0	1.719729E+0	1.674948E+0	1.689383E+0	1.666477E+0	1.690146E+0	1.673803E+0	1.675451E+0	1.685312E+0	1.654820E+0	1.669087E+0	1.702074E+0	1.647366E+0	1.668094E+0	1.702475E+0	1.658183E+0	1.700761E+0	1.682564E+0	1.707587E+0	1.641112E+0	1.590595E+0	1.688421E+0	1.680440E+0	1.687664E+0	1.639634E+0	1.619014E+0	1.739744E+0	1.717690E+0	1.667526E+0	1.667101E+0	1.702865E+0	1.671151E+0	1.653466E+0	1.684479E+0	1.654500E+0	1.608932E+0	1.666342E+0	1.693087E+0	1.683273E+0	1.652249E+0	1.648716E+0	1.702993E+0	1.646052E+0	1.693046E+0	1.660934E+0	1.624885E+0	1.655395E+0	1.681621E+0	1.642684E+0	1.602197E+0	1.564229E+0	1.690864E+0	1.666935E+0	1.684770E+0	1.651978E+0	1.612876E+0	1.612236E+0	1.656105E+0	1.743463E+0	1.659023E+0	1.626937E+0	1.643655E+0	1.608445E+0	1.636218E+0	1.630055E+0	1.615284E+0	1.596423E+0	1.630532E+0	1.585822E+0	1.674959E+0	1.622433E+0	1.654064E+0	1.664951E+0	1.603774E+0	1.673040E+0	1.663354E+0	1.645935E+0	1.612774E+0	1.672816E+0	1.685576E+0	1.732309E+0	1.651782E+0	1.641592E+0	1.645824E+0	1.656073E+0	1.647756E+0	1.639533E+0	1.614459E+0	1.660728E+0	1.663922E+0	1.679617E+0	1.637135E+0	1.619957E+0	1.647058E+0	1.672829E+0	1.561933E+0	1.704558E+0	1.647367E+0	1.695709E+0	1.708230E+0	1.608336E+0	1.720003E+0	1.672180E+0	1.655056E+0	1.589540E+0	1.625630E+0	1.707081E+0	1.688117E+0	1.655202E+0	1.601653E+0	1.659139E+0	1.656649E+0	1.664875E+0	1.711094E+0	1.636164E+0	1.641321E+0	1.578426E+0	1.631418E+0	1.630465E+0	1.635112E+0	1.653703E+0	1.595144E+0	1.591422E+0	1.717304E+0	1.599580E+0	1.621918E+0	1.686098E+0	1.687709E+0	1.677023E+0	1.620918E+0	1.617214E+0	1.632656E+0	1.538904E+0	1.687880E+0	1.630771E+0	1.663150E+0	1.671780E+0	1.686251E+0	1.730765E+0
5.358550E+2	1.505620E+0	1.491630E+0	1.436018E+0	1.458470E+0	1.441362E+0	1.466870E+0	1.513552E+0	1.421206E+0	1.474594E+0	1.425869E+0	1.494959E+0	1.484072E+0	1.516448E+0	1.448654E+0	1.484711E+0	1.421697E+0	1.496849E+0	1.465938E+0	1.456517E+0	1.407537E+0	1.429709E+0	1.443586E+0	1.523331E+0	1.430475E+0	1.522843E+0	1.470735E+0	1.489983E+0	1.453733E+0	1.485216E+0	1.463995E+0	1.471996E+0	1.471461E+0	1.544004E+0	1.449782E+0	1.530424E+0	1.414126E+0	1.463864E+0	1.506395E+0	1.501155E+0	1.450544E+0	1.474156E+0	1.467801E+0	1.461740E+0	1.477567E+0	1.492660E+0	1.480273E+0	1.488614E+0	1.459889E+0	1.525973E+0	1.474216E+0	1.452270E+0	1.504373E+0	1.463908E+0	1.499546E+0	1.500420E+0	1.416134E+0	1.520588E+0	1.461985E+0	1.457322E+0	1.470686E+0	1.457170E+0	1.446169E+0	1.474122E+0	1.517299E+0	1.519919E+0	1.473451E+0	1.484976E+0	1.434952E+0	1.496542E+0	1.446970E+0	1.490393E+0	1.483349E+0	1.478806E+0	1.431789E+0	1.482651E+0	1.415991E+0	1.519062E+0	1.427354E+0	1.520648E+0	1.451434E+0	1.470527E+0	1.499516E+0	1.451151E+0	1.413598E+0	1.480666E+0	1.467283E+0	1.480978E+0	1.472856E+0	1.432028E+0	1.446594E+0	1.434900E+0	1.492305E+0	1.418314E+0	1.419346E+0	1.492010E+0	1.469279E+0	1.452055E+0	1.460882E+0	1.488547E+0	1.472219E+0	1.404795E+0	1.489598E+0	1.482450E+0	1.440510E+0	1.463540E+0	1.477034E+0	1.514760E+0	1.436566E+0	1.447563E+0	1.492498E+0	1.462604E+0	1.454126E+0	1.476561E+0	1.496123E+0	1.464168E+0	1.513686E+0	1.474660E+0	1.429129E+0	1.461989E+0	1.530545E+0	1.416320E+0	1.487504E+0	1.498887E+0	1.466317E+0	1.462651E+0	1.442971E+0	1.447579E+0	1.466486E+0	1.471262E+0	1.481550E+0	1.464171E+0	1.399605E+0	1.477896E+0	1.480435E+0	1.445066E+0	1.481398E+0	1.437176E+0	1.445618E+0	1.469986E+0	1.485334E+0	1.438780E+0	1.450358E+0	1.462359E+0	1.461513E+0	1.504235E+0	1.450118E+0	1.495655E+0	1.456256E+0	1.442122E+0	1.457654E+0	1.568496E+0	1.464098E+0	1.486616E+0	1.434227E+0	1.528305E+0	1.444606E+0	1.480267E+0	1.402697E+0	1.473379E+0	1.439053E+0	1.471936E+0	1.451141E+0	1.431859E+0	1.388250E+0	1.380255E+0	1.335994E+0
5.360170E+2	1.207421E+0	1.242404E+0	1.209423E+0	1.255866E+0	1.196383E+0	1.294997E+0	1.233102E+0	1.231956E+0	1.173943E+0	1.188516E+0	1.209404E+0	1.196531E+0	1.232866E+0	1.258629E+0	1.212648E+0	1.219974E+0	1.232181E+0	1.235236E+0	1.159771E+0	1.216291E+0	1.232574E+0	1.252911E+0	1.196922E+0	1.238379E+0	1.319194E+0	1.220952E+0	1.244591E+0	1.212704E+0	1.260527E+0	1.211923E+0	1.161605E+0	1.217986E+0	1.289628E+0	1.259411E+0	1.226407E+0	1.184748E+0	1.207742E+0	1.212101E+0	1.260945E+0	1.205550E+0	1.202528E+0	1.222838E+0	1.247658E+0	1.189760E+0	1.213224E+0	1.181310E+0	1.233548E+0	1.180091E+0	1.264350E+0	1.225477E+0	1.193782E+0	1.287850E+0	1.235928E+0	1.212884E+0	1.208378E+0	1.196487E+0	1.198991E+0	1.181960E+0	1.197066E+0	1.222054E+0	1.189651E+0	1.157234E+0	1.212005E+0	1.239897E+0	1.234312E+0	1.264447E+0	1.189832E+0	1.225413E+0	1.233806E+0	1.269783E+0	1.263436E+0	1.218685E+0	1.198245E+0	1.158600E+0	1.266495E+0	1.193021E+0	1.168375E+0	1.178789E+0	1.172504E+0	1.241680E+0	1.280299E+0	1.212230E+0	1.260902E+0	1.168069E+0	1.238316E+0	1.232330E+0	1.275418E+0	1.260861E+0	1.233016E+0	1.225300E+0	1.248588E+0	1.155220E+0	1.230353E+0	1.224784E+0	1.211008E+0	1.227451E+0	1.316506E+0	1.214836E+0	1.221666E+0	1.222216E+0	1.252652E+0	1.297917E+0	1.223951E+0	1.222016E+0	1.244373E+0	1.313738E+0	1.272175E+0	1.233021E+0	1.250191E+0	1.211355E+0	1.186694E+0	1.202442E+0	1.228459E+0	1.266311E+0	1.238015E+0	1.272659E+0	1.236770E+0	1.181758E+0	1.263709E+0	1.210103E+0	1.200286E+0	1.218568E+0	1.225446E+0	1.215208E+0	1.244232E+0	1.227999E+0	1.241258E+0	1.257040E+0	1.275859E+0	1.181561E+0	1.178270E+0	1.263212E+0	1.241176E+0	1.243479E+0	1.212065E+0	1.243564E+0	1.163792E+0	1.220490E+0	1.198748E+0	1.233550E+0	1.230961E+0	1.212935E+0	1.223565E+0	1.154782E+0	1.215399E+0	1.170207E+0	1.248151E+0	1.257265E+0	1.219393E+0	1.228046E+0	1.205497E+0	1.259715E+0	1.212416E+0	1.234735E+0	1.265094E+0	1.199502E+0	1.183850E+0	1.192445E+0	1.136203E+0	1.230040E+0	1.287752E+0	1.261556E+0	1.241958E+0	1.182608E+0	1.198083E+0	1.150303E+0
5.362580E+2	9.212418E-1	9.658081E-1	9.257072E-1	9.043735E-1	9.259624E-1	9.754692E-1	9.573609E-1	9.734911E-1	8.927346E-1	9.186538E-1	9.179528E-1	9.256490E-1	8.777386E-1	9.059606E-1	9.180169E-1	9.436901E-1	9.431528E-1	9.572772E-1	9.645826E-1	9.091749E-1	9.133458E-1	9.102740E-1	9.094009E-1	9.538378E-1	9.487738E-1	9.537867E-1	9.287797E-1	8.711683E-1	9.677196E-1	9.059884E-1	8.991815E-1	8.795976E-1	9.708575E-1	9.103382E-1	8.956509E-1	9.166510E-1	9.094473E-1	9.038859E-1	8.874475E-1	9.345115E-1	8.963149E-1	9.372646E-1	9.133488E-1	9.127072E-1	9.646639E-1	9.050937E-1	9.328236E-1	8.956811E-1	9.441958E-1	9.298055E-1	9.373345E-1	9.139943E-1	9.060301E-1	9.098806E-1	9.019489E-1	9.187722E-1	9.398457E-1	8.949570E-1	9.409548E-1	9.088434E-1	9.091770E-1	8.746226E-1	9.088611E-1	9.404646E-1	9.143294E-1	9.874064E-1	9.529456E-1	9.162629E-1	9.211810E-1	9.490626E-1	8.959860E-1	9.190532E-1	9.267780E-1	9.024356E-1	9.154739E-1	8.976717E-1	9.408009E-1	8.739841E-1	9.140566E-1	9.450323E-1	9.565346E-1	9.662237E-1	8.883515E-1	8.853485E-1	9.630875E-1	9.404046E-1	9.543009E-1	9.271062E-1	9.550224E-1	9.336924E-1	9.057264E-1	9.201027E-1	9.424290E-1	8.991961E-1	9.531818E-1	8.804343E-1	9.452062E-1	8.969748E-1	9.823681E-1	9.075709E-1	9.216210E-1	9.233163E-1	9.785423E-1	9.430084E-1	9.054917E-1	9.305286E-1	9.023895E-1	9.397354E-1	9.292917E-1	9.174071E-1	9.287097E-1	9.353437E-1	8.949727E-1	9.042276E-1	9.554881E-1	9.437843E-1	9.502978E-1	9.191287E-1	9.285700E-1	9.763243E-1	9.348018E-1	8.861772E-1	9.270832E-1	9.053552E-1	9.134603E-1	8.972623E-1	9.329194E-1	9.380361E-1	9.344568E-1	9.232210E-1	9.296719E-1	9.225548E-1	9.120539E-1	8.777006E-1	9.286711E-1	9.233767E-1	9.351070E-1	9.343722E-1	8.765623E-1	9.190175E-1	9.715120E-1	9.693905E-1	9.118475E-1	9.600126E-1	9.188018E-1	9.305277E-1	9.017324E-1	9.121472E-1	9.300617E-1	9.683580E-1	9.571889E-1	9.214344E-1	8.652265E-1	9.446711E-1	9.018398E-1	9.357611E-1	9.505590E-1	8.734088E-1	9.397162E-1	9.158429E-1	9.368619E-1	9.213281E-1	9.730230E-1	8.841736E-1	9.334999E-1	9.385022E-1
5.365090E+2	6.777993E-1	7.208989E-1	7.134584E-1	7.131824E-1	6.894286E-1	7.173521E-1	7.277437E-1	6.967070E-1	6.790141E-1	7.114973E-1	6.966863E-1	7.232283E-1	6.762180E-1	7.042530E-1	6.942044E-1	6.869004E-1	7.137663E-1	6.881026E-1	7.205766E-1	6.503338E-1	6.894601E-1	7.640171E-1	7.011457E-1	6.930250E-1	7.090814E-1	7.622575E-1	7.076692E-1	6.747850E-1	7.647055E-1	7.242910E-1	6.991267E-1	6.950415E-1	7.480004E-1	7.466667E-1	7.268563E-1	6.963066E-1	7.466000E-1	6.715757E-1	7.527798E-1	6.943442E-1	6.897648E-1	6.776787E-1	6.991898E-1	7.207606E-1	7.077264E-1	7.089428E-1	6.726027E-1	6.860928E-1	7.459376E-1	6.689382E-1	7.507969E-1	7.355749E-1	7.281990E-1	7.636892E-1	7.183605E-1	7.039172E-1	7.274870E-1	7.183842E-1	7.189282E-1	7.201125E-1	7.394078E-1	6.691359E-1	7.168993E-1	7.058216E-1	6.783475E-1	6.935799E-1	7.279826E-1	6.975479E-1	7.201202E-1	7.171142E-1	7.571024E-1	7.068470E-1	6.903227E-1	7.316931E-1	6.875703E-1	7.161359E-1	6.919547E-1	6.808409E-1	7.581977E-1	7.005625E-1	7.175085E-1	7.014628E-1	7.012665E-1	7.025555E-1	7.166776E-1	7.417310E-1	7.128170E-1	6.964123E-1	7.421043E-1	7.168356E-1	7.189196E-1	6.847449E-1	7.310988E-1	7.319675E-1	7.463728E-1	6.630439E-1	7.116221E-1	6.829128E-1	7.295028E-1	7.153206E-1	7.235364E-1	6.926256E-1	7.128795E-1	7.105323E-1	6.842881E-1	7.478217E-1	7.382911E-1	7.140421E-1	7.429369E-1	7.573995E-1	6.926540E-1	7.500916E-1	7.266123E-1	6.639387E-1	7.214953E-1	7.363246E-1	6.850190E-1	7.163375E-1	7.059247E-1	7.097594E-1	7.131582E-1	7.361378E-1	6.784853E-1	7.284231E-1	7.095863E-1	7.217178E-1	7.437191E-1	7.347319E-1	7.611411E-1	7.492338E-1	7.252771E-1	7.228307E-1	6.968575E-1	7.588108E-1	7.372212E-1	7.471045E-1	7.070304E-1	7.074930E-1	7.340547E-1	7.571991E-1	7.108732E-1	6.853424E-1	7.359520E-1	7.026773E-1	7.575312E-1	7.480235E-1	7.663034E-1	7.121263E-1	7.307566E-1	7.234793E-1	7.418762E-1	7.085403E-1	7.350926E-1	7.694990E-1	7.331597E-1	7.322567E-1	7.269816E-1	6.923578E-1	7.007850E-1	7.252415E-1	7.628004E-1	7.106014E-1	7.267214E-1	7.171476E-1	6.881495E-1	6.511677E-1
5.367600E+2	5.977267E-1	5.534101E-1	5.836015E-1	5.604969E-1	5.411863E-1	5.524159E-1	5.976906E-1	5.793446E-1	5.839796E-1	6.088583E-1	5.959890E-1	5.843812E-1	5.739318E-1	5.702320E-1	5.698625E-1	5.604666E-1	5.510394E-1	5.689099E-1	5.684430E-1	5.790523E-1	5.603563E-1	5.974576E-1	5.957464E-1	5.634933E-1	5.997223E-1	5.907827E-1	6.056146E-1	5.906878E-1	5.929114E-1	5.974892E-1	5.729787E-1	5.767039E-1	6.103372E-1	5.722225E-1	5.814280E-1	5.434662E-1	5.954225E-1	5.881078E-1	5.723725E-1	5.726502E-1	6.139638E-1	5.794860E-1	5.628381E-1	5.528590E-1	5.714437E-1	5.734930E-1	6.200172E-1	6.022679E-1	5.722740E-1	6.137271E-1	5.523043E-1	5.870761E-1	5.728371E-1	5.823951E-1	6.158955E-1	6.095520E-1	6.281525E-1	5.845453E-1	5.650937E-1	5.636550E-1	5.666958E-1	5.797368E-1	5.864590E-1	5.788247E-1	6.240351E-1	5.893597E-1	5.621175E-1	5.800418E-1	5.886648E-1	5.951986E-1	6.049915E-1	5.971806E-1	5.821110E-1	6.003186E-1	5.911289E-1	5.773763E-1	5.828702E-1	5.550690E-1	6.148765E-1	5.852319E-1	5.978958E-1	5.754397E-1	6.059998E-1	5.843239E-1	6.013240E-1	5.883083E-1	5.953318E-1	6.038698E-1	5.507965E-1	5.751557E-1	6.234831E-1	5.996999E-1	5.747993E-1	5.968602E-1	5.597273E-1	5.727050E-1	5.864041E-1	6.163001E-1	5.888958E-1	5.923687E-1	5.932621E-1	5.537851E-1	5.759556E-1	5.757856E-1	5.581476E-1	6.181434E-1	5.743245E-1	5.672439E-1	5.573846E-1	6.004432E-1	5.775560E-1	5.601318E-1	6.473895E-1	5.963595E-1	5.639007E-1	6.060131E-1	6.299960E-1	6.209276E-1	6.275885E-1	5.753252E-1	5.806340E-1	5.945945E-1	5.955300E-1	5.943709E-1	5.999323E-1	5.780957E-1	6.247105E-1	6.286067E-1	5.888514E-1	6.384874E-1	5.614165E-1	5.918678E-1	5.699854E-1	6.303885E-1	6.249632E-1	5.712848E-1	5.688180E-1	5.889985E-1	5.560861E-1	5.868284E-1	6.088568E-1	5.846340E-1	6.027588E-1	5.891126E-1	5.702428E-1	5.437306E-1	6.126968E-1	5.623742E-1	5.909549E-1	5.724880E-1	6.053246E-1	5.761892E-1	6.014162E-1	6.494048E-1	5.977526E-1	6.306805E-1	5.586686E-1	5.728894E-1	6.044232E-1	5.956228E-1	6.188854E-1	5.924362E-1	5.870517E-1	5.291352E-1	5.714788E-1	6.321441E-1
5.370280E+2	5.100032E-1	5.042101E-1	4.981994E-1	4.954514E-1	5.305873E-1	5.084467E-1	5.053065E-1	5.000186E-1	4.842146E-1	5.253454E-1	5.198411E-1	4.858336E-1	5.131550E-1	5.131693E-1	5.063463E-1	4.957816E-1	5.086026E-1	4.970536E-1	5.166285E-1	4.863578E-1	4.669952E-1	4.796697E-1	4.762034E-1	4.883795E-1	5.142278E-1	5.158889E-1	5.339528E-1	5.218736E-1	5.299713E-1	4.906321E-1	4.702570E-1	5.497364E-1	5.119619E-1	5.091971E-1	5.184504E-1	5.045886E-1	5.064570E-1	5.291269E-1	5.031195E-1	5.227756E-1	4.910543E-1	5.475727E-1	4.996521E-1	5.215113E-1	5.183667E-1	5.167097E-1	4.927565E-1	4.856018E-1	4.988395E-1	4.975814E-1	5.027805E-1	5.054865E-1	5.145380E-1	5.019317E-1	5.198435E-1	5.421153E-1	5.322003E-1	5.025411E-1	5.252320E-1	5.052237E-1	5.487566E-1	5.323795E-1	5.229228E-1	5.189989E-1	5.172842E-1	5.278041E-1	5.128875E-1	4.804923E-1	5.114592E-1	5.429986E-1	5.222422E-1	5.260953E-1	5.020270E-1	5.224383E-1	5.200641E-1	5.125905E-1	5.019711E-1	5.467652E-1	5.047568E-1	4.995586E-1	5.307861E-1	4.993326E-1	5.254036E-1	5.117858E-1	5.125262E-1	5.184493E-1	5.323025E-1	5.226878E-1	5.056445E-1	5.038887E-1	5.224550E-1	4.815591E-1	5.038833E-1	4.927372E-1	5.054504E-1	5.303108E-1	5.140288E-1	5.149894E-1	5.297394E-1	5.362100E-1	5.128317E-1	5.006459E-1	5.460992E-1	5.114682E-1	5.197087E-1	5.285413E-1	5.306071E-1	5.193733E-1	5.522249E-1	5.206403E-1	5.140385E-1	5.544351E-1	5.110834E-1	5.314621E-1	4.952249E-1	4.913001E-1	5.034083E-1	5.182448E-1	4.860702E-1	4.925660E-1	5.098276E-1	5.264336E-1	5.305755E-1	5.239699E-1	5.346482E-1	5.245415E-1	5.270187E-1	5.549725E-1	5.206155E-1	5.215282E-1	5.350477E-1	5.079649E-1	4.794704E-1	5.269470E-1	5.057027E-1	5.173495E-1	5.493139E-1	4.927652E-1	4.970819E-1	5.016004E-1	5.343558E-1	5.123878E-1	5.040528E-1	5.027467E-1	5.396535E-1	5.148302E-1	5.285691E-1	5.151972E-1	5.035859E-1	5.353116E-1	4.991941E-1	4.997179E-1	4.842304E-1	5.894982E-1	5.049847E-1	5.622646E-1	4.963291E-1	4.981383E-1	5.289877E-1	4.973176E-1	5.622926E-1	5.403558E-1	5.111347E-1	4.971120E-1	5.053347E-1	5.633107E-1
5.372640E+2	5.249959E-1	5.131590E-1	5.230261E-1	5.041777E-1	4.674950E-1	5.068008E-1	5.096614E-1	4.996598E-1	4.867048E-1	5.417328E-1	5.011010E-1	5.322552E-1	5.155701E-1	4.954929E-1	5.121186E-1	4.865731E-1	5.144949E-1	4.750809E-1	5.148533E-1	5.054590E-1	4.951007E-1	5.062496E-1	4.653548E-1	5.188657E-1	4.899633E-1	4.977485E-1	5.194155E-1	4.989403E-1	5.060765E-1	5.171939E-1	5.201793E-1	5.281664E-1	5.190928E-1	5.429937E-1	4.857959E-1	5.116663E-1	5.003920E-1	5.073544E-1	4.872463E-1	4.996514E-1	4.734981E-1	5.347586E-1	5.109548E-1	4.951305E-1	5.062804E-1	4.808436E-1	4.883401E-1	4.917515E-1	5.379853E-1	5.235908E-1	5.166022E-1	5.116338E-1	5.009690E-1	5.081122E-1	4.940023E-1	5.198182E-1	5.075479E-1	5.258948E-1	4.930928E-1	5.096354E-1	5.029641E-1	4.763649E-1	4.857385E-1	4.942518E-1	4.841700E-1	5.183973E-1	5.272471E-1	5.192707E-1	5.110649E-1	4.771511E-1	5.092042E-1	5.487186E-1	4.977699E-1	4.786313E-1	5.180608E-1	5.455186E-1	5.045311E-1	4.987903E-1	5.103190E-1	5.237842E-1	5.061447E-1	5.204039E-1	4.866445E-1	5.174518E-1	5.163184E-1	5.337711E-1	4.956666E-1	4.982988E-1	5.529068E-1	5.061980E-1	4.999346E-1	4.894589E-1	5.010683E-1	4.948657E-1	4.970336E-1	5.006853E-1	5.638487E-1	4.969173E-1	4.975107E-1	5.071411E-1	5.017727E-1	4.970514E-1	5.220010E-1	5.040879E-1	5.262980E-1	5.135181E-1	5.180641E-1	5.042633E-1	5.079945E-1	4.835898E-1	5.244276E-1	5.234257E-1	5.071649E-1	4.995661E-1	5.100571E-1	5.232888E-1	5.053589E-1	5.115178E-1	5.294338E-1	5.282069E-1	5.111692E-1	5.167920E-1	5.164271E-1	5.188129E-1	5.299693E-1	5.348806E-1	5.492005E-1	5.157862E-1	5.139795E-1	5.337862E-1	4.981255E-1	5.383859E-1	4.797443E-1	5.363559E-1	5.455545E-1	5.174868E-1	5.106058E-1	4.925357E-1	4.968979E-1	4.919959E-1	5.134759E-1	5.003164E-1	5.196809E-1	5.103843E-1	5.273031E-1	4.949607E-1	5.246663E-1	5.078818E-1	5.114894E-1	5.105635E-1	5.268301E-1	5.105912E-1	5.072115E-1	5.266787E-1	5.336285E-1	5.432952E-1	5.382748E-1	5.324892E-1	5.037593E-1	4.815334E-1	5.361740E-1	5.021785E-1	4.940758E-1	5.001919E-1	5.877497E-1	5.512732E-1
5.375060E+2	5.157059E-1	5.013096E-1	5.329426E-1	5.323805E-1	4.966050E-1	5.022747E-1	5.652542E-1	5.380361E-1	5.153813E-1	4.970904E-1	5.541419E-1	5.030227E-1	4.881975E-1	5.182747E-1	5.199073E-1	5.017693E-1	5.233628E-1	4.903533E-1	5.547679E-1	5.244957E-1	5.279683E-1	5.121961E-1	5.453914E-1	5.077656E-1	5.618389E-1	4.942539E-1	5.420354E-1	5.024523E-1	5.358512E-1	5.275064E-1	5.474569E-1	5.469826E-1	5.471634E-1	5.127341E-1	5.020163E-1	4.956885E-1	5.005259E-1	5.403911E-1	5.407248E-1	5.361145E-1	5.124370E-1	5.497087E-1	5.301479E-1	5.445910E-1	5.422403E-1	5.570857E-1	5.264410E-1	4.976539E-1	5.375321E-1	5.192406E-1	5.310283E-1	5.394478E-1	5.425982E-1	5.361339E-1	5.343487E-1	5.577914E-1	5.300867E-1	5.464592E-1	5.054119E-1	5.308582E-1	5.195891E-1	4.995089E-1	5.129380E-1	5.336234E-1	4.870435E-1	5.199607E-1	5.138451E-1	5.441853E-1	5.206078E-1	5.160272E-1	5.497566E-1	5.350711E-1	5.352587E-1	5.029015E-1	5.593434E-1	5.521407E-1	5.285377E-1	5.239710E-1	5.183258E-1	5.316369E-1	5.561852E-1	5.402927E-1	5.245019E-1	5.268626E-1	5.247094E-1	5.293581E-1	5.230767E-1	4.856216E-1	5.206349E-1	5.165565E-1	5.640525E-1	5.408565E-1	5.546579E-1	5.116352E-1	5.155971E-1	4.839422E-1	5.490959E-1	5.255140E-1	5.583014E-1	5.318890E-1	5.406960E-1	5.524876E-1	5.254348E-1	5.415577E-1	5.071597E-1	6.082475E-1	5.474394E-1	5.240637E-1	5.263740E-1	5.239023E-1	5.363440E-1	5.373137E-1	5.367139E-1	5.343100E-1	5.533331E-1	5.438054E-1	5.326412E-1	5.549438E-1	5.235421E-1	5.160833E-1	5.270909E-1	5.324007E-1	5.295982E-1	5.801933E-1	5.544932E-1	5.159095E-1	5.140614E-1	5.465988E-1	5.321123E-1	5.491147E-1	5.254841E-1	5.696304E-1	4.960654E-1	5.174806E-1	5.335463E-1	5.254207E-1	5.257466E-1	5.308290E-1	5.352226E-1	5.314715E-1	5.288761E-1	5.429449E-1	5.797987E-1	5.426942E-1	5.309742E-1	5.543140E-1	5.325651E-1	5.152754E-1	5.715716E-1	5.088396E-1	5.212848E-1	5.327066E-1	5.405927E-1	5.371030E-1	5.533347E-1	5.263645E-1	5.523971E-1	5.164801E-1	5.346609E-1	5.281622E-1	6.009661E-1	5.077187E-1	5.282817E-1	5.655892E-1	5.527708E-1	5.587753E-1
5.377630E+2	5.757848E-1	6.272931E-1	6.310762E-1	5.920223E-1	5.966984E-1	6.075833E-1	5.768709E-1	6.144368E-1	5.783552E-1	5.560648E-1	6.148666E-1	5.915921E-1	6.148077E-1	6.158833E-1	5.737476E-1	5.511534E-1	6.088612E-1	6.004399E-1	5.437050E-1	5.892335E-1	6.205791E-1	6.009040E-1	6.356095E-1	5.942809E-1	6.046981E-1	6.065284E-1	6.397742E-1	5.906175E-1	6.287762E-1	6.165798E-1	5.769282E-1	6.132954E-1	6.531725E-1	6.035757E-1	6.088676E-1	5.945081E-1	5.803769E-1	5.609047E-1	6.488363E-1	6.036416E-1	6.049145E-1	5.919435E-1	6.567520E-1	6.012265E-1	6.343861E-1	5.452310E-1	6.212081E-1	5.995277E-1	5.930661E-1	6.107463E-1	6.158589E-1	6.172785E-1	6.078064E-1	5.993794E-1	5.682748E-1	6.213855E-1	5.952452E-1	6.006125E-1	5.898041E-1	6.167086E-1	6.177537E-1	5.999737E-1	5.915838E-1	6.014803E-1	6.210758E-1	6.202417E-1	6.060930E-1	5.944326E-1	5.748605E-1	6.040896E-1	6.072243E-1	6.045273E-1	5.806687E-1	6.295761E-1	6.339621E-1	5.791924E-1	5.996562E-1	5.871778E-1	6.194629E-1	5.820161E-1	6.086441E-1	5.824660E-1	6.024152E-1	5.842734E-1	6.335057E-1	6.009608E-1	5.853816E-1	5.726485E-1	5.747160E-1	6.459248E-1	6.035201E-1	6.033397E-1	5.999617E-1	5.955708E-1	5.784099E-1	5.716889E-1	6.225126E-1	5.840482E-1	5.964592E-1	6.192632E-1	6.259932E-1	6.341843E-1	5.925628E-1	6.163438E-1	6.255748E-1	5.959853E-1	6.375575E-1	6.454627E-1	5.895521E-1	6.072482E-1	5.938272E-1	5.949950E-1	6.102765E-1	6.293387E-1	6.014208E-1	6.065270E-1	5.991570E-1	6.434373E-1	5.803071E-1	6.217989E-1	6.024697E-1	6.227522E-1	6.115344E-1	5.956610E-1	6.094399E-1	5.991751E-1	6.221378E-1	6.151349E-1	5.859766E-1	5.668162E-1	6.086478E-1	6.000712E-1	5.832622E-1	6.145542E-1	6.378549E-1	6.067097E-1	6.193102E-1	5.565848E-1	5.840046E-1	6.498458E-1	6.351934E-1	5.797054E-1	5.937813E-1	5.973424E-1	6.133014E-1	5.956914E-1	6.178626E-1	5.903831E-1	6.250836E-1	6.489516E-1	6.319175E-1	6.290649E-1	6.180560E-1	5.982301E-1	5.922821E-1	6.343737E-1	6.371347E-1	5.949972E-1	5.971900E-1	6.064230E-1	6.044597E-1	5.983498E-1	6.264380E-1	5.935491E-1	6.510145E-1	6.190196E-1
5.380110E+2	6.811685E-1	7.181033E-1	7.209230E-1	6.963608E-1	7.062997E-1	6.880878E-1	7.157192E-1	6.813277E-1	6.906278E-1	6.658213E-1	6.725731E-1	6.974974E-1	7.158304E-1	6.817243E-1	6.732260E-1	7.251076E-1	6.486324E-1	6.685213E-1	6.845348E-1	6.551428E-1	6.723152E-1	7.179990E-1	7.037021E-1	7.247711E-1	7.325303E-1	6.630075E-1	6.772358E-1	6.423850E-1	7.062126E-1	6.824336E-1	7.014148E-1	6.523106E-1	7.154694E-1	6.947121E-1	6.840106E-1	6.847005E-1	7.214172E-1	6.682837E-1	7.127552E-1	6.617553E-1	7.100871E-1	7.068221E-1	7.019136E-1	7.072451E-1	6.822065E-1	6.901806E-1	6.779792E-1	6.999319E-1	6.976849E-1	7.138469E-1	6.798181E-1	7.146754E-1	6.715898E-1	6.851980E-1	6.795580E-1	6.604362E-1	6.492019E-1	7.361820E-1	7.098331E-1	7.354706E-1	6.913642E-1	6.441481E-1	6.958686E-1	6.904226E-1	6.803057E-1	6.970412E-1	7.211366E-1	6.729543E-1	7.085970E-1	7.036675E-1	6.716766E-1	7.268331E-1	6.826508E-1	6.955813E-1	6.933320E-1	6.966516E-1	6.634021E-1	6.647802E-1	7.165113E-1	7.069679E-1	6.613174E-1	7.152933E-1	6.656212E-1	6.562056E-1	6.881603E-1	7.155301E-1	7.294730E-1	7.327175E-1	6.794584E-1	7.405805E-1	6.774702E-1	7.205717E-1	7.026600E-1	6.890593E-1	6.976329E-1	6.598777E-1	7.200258E-1	6.946285E-1	7.088209E-1	7.063424E-1	7.113852E-1	6.719241E-1	7.208093E-1	6.932421E-1	6.986829E-1	7.186106E-1	6.888773E-1	7.306107E-1	6.945725E-1	7.134826E-1	7.119240E-1	7.139105E-1	7.284758E-1	6.893677E-1	7.213413E-1	6.811087E-1	7.029235E-1	7.017803E-1	7.125140E-1	7.447374E-1	6.783181E-1	6.991201E-1	7.125819E-1	7.036491E-1	7.042052E-1	7.031860E-1	7.073152E-1	7.093689E-1	7.249036E-1	7.335750E-1	6.554746E-1	6.960557E-1	7.037552E-1	6.845358E-1	6.700762E-1	6.913034E-1	7.192537E-1	7.007695E-1	6.851776E-1	7.021697E-1	6.866423E-1	6.854336E-1	7.103287E-1	6.894681E-1	7.461995E-1	6.731942E-1	7.159401E-1	6.798874E-1	6.938720E-1	7.195044E-1	7.321479E-1	7.198058E-1	7.010883E-1	7.167247E-1	7.263488E-1	7.346401E-1	7.190610E-1	6.677040E-1	7.172740E-1	7.063870E-1	7.229126E-1	7.157596E-1	7.268258E-1	6.850648E-1	7.187455E-1	6.520312E-1
5.382900E+2	8.175583E-1	8.051852E-1	8.399932E-1	8.446713E-1	8.275025E-1	8.131650E-1	8.811051E-1	8.043871E-1	7.855275E-1	8.608991E-1	8.168474E-1	8.546691E-1	8.383105E-1	8.089457E-1	8.109496E-1	7.813646E-1	8.527657E-1	8.520666E-1	8.217087E-1	7.953480E-1	8.334134E-1	7.909531E-1	8.146546E-1	8.417249E-1	8.509420E-1	8.282620E-1	8.473249E-1	8.149849E-1	8.362196E-1	7.965701E-1	8.472492E-1	8.181553E-1	8.795557E-1	8.459875E-1	8.540007E-1	8.421874E-1	8.252284E-1	8.001354E-1	8.806781E-1	8.131811E-1	8.541902E-1	8.292076E-1	8.586917E-1	8.355478E-1	8.039531E-1	7.693013E-1	8.382090E-1	8.112432E-1	8.470726E-1	8.497235E-1	8.662772E-1	8.662586E-1	8.381030E-1	8.602735E-1	8.669273E-1	8.785465E-1	8.487771E-1	8.328359E-1	8.194550E-1	8.463640E-1	8.459773E-1	8.011165E-1	8.241252E-1	7.999643E-1	8.256940E-1	8.195290E-1	8.535175E-1	8.697246E-1	8.073451E-1	8.875466E-1	8.373798E-1	8.200087E-1	8.252975E-1	8.038187E-1	8.250161E-1	8.706261E-1	8.622768E-1	7.870880E-1	8.549111E-1	8.392768E-1	8.371511E-1	8.241816E-1	8.601956E-1	7.843025E-1	8.780181E-1	8.124008E-1	8.506635E-1	8.457285E-1	7.989599E-1	8.711558E-1	8.459190E-1	8.430183E-1	8.106498E-1	7.996986E-1	8.292161E-1	8.515196E-1	8.731529E-1	8.508261E-1	8.395746E-1	8.086788E-1	8.094151E-1	8.262227E-1	8.940935E-1	8.153065E-1	8.488083E-1	8.491159E-1	8.761810E-1	8.045132E-1	8.735711E-1	7.656111E-1	8.323755E-1	8.809249E-1	8.191417E-1	8.450985E-1	8.231284E-1	8.496184E-1	8.581233E-1	9.120468E-1	8.646983E-1	8.150507E-1	8.289922E-1	8.573341E-1	8.106431E-1	8.434039E-1	8.254021E-1	8.073519E-1	8.119561E-1	8.188254E-1	8.410254E-1	8.786536E-1	8.070694E-1	8.459696E-1	8.615726E-1	8.744103E-1	8.564761E-1	8.836347E-1	8.547404E-1	8.227527E-1	9.097074E-1	8.689411E-1	8.451853E-1	8.508920E-1	8.424410E-1	8.059339E-1	8.277581E-1	8.366177E-1	8.656585E-1	8.080424E-1	8.379644E-1	8.659878E-1	8.744651E-1	8.337127E-1	8.141415E-1	8.532612E-1	8.439674E-1	8.614905E-1	8.442196E-1	8.100219E-1	8.070208E-1	8.067245E-1	8.366670E-1	8.587079E-1	8.385823E-1	8.480518E-1	8.277867E-1	8.613643E-1
5.385060E+2	1.017607E+0	9.688463E-1	1.053411E+0	9.729056E-1	9.810532E-1	1.029386E+0	1.029244E+0	9.996461E-1	1.006993E+0	9.872880E-1	1.044092E+0	9.922147E-1	1.029037E+0	1.012304E+0	9.737866E-1	1.021303E+0	9.721982E-1	1.004694E+0	1.037463E+0	9.844794E-1	1.005070E+0	1.029079E+0	9.940453E-1	1.014869E+0	1.043023E+0	9.935813E-1	1.045705E+0	9.918572E-1	1.003990E+0	9.802799E-1	1.012526E+0	1.009587E+0	1.075049E+0	1.034147E+0	1.032295E+0	9.875395E-1	1.030413E+0	1.019737E+0	1.038106E+0	1.013110E+0	1.058850E+0	1.033097E+0	1.047025E+0	1.032099E+0	9.882576E-1	9.864538E-1	1.071829E+0	1.018321E+0	1.040897E+0	1.030765E+0	9.941412E-1	1.027305E+0	1.003785E+0	1.009245E+0	1.064786E+0	1.022146E+0	9.837854E-1	9.580588E-1	1.027871E+0	1.058849E+0	1.029755E+0	1.003453E+0	9.930159E-1	9.747958E-1	9.961505E-1	1.019830E+0	1.030859E+0	9.725197E-1	1.006301E+0	1.000834E+0	9.999600E-1	1.044009E+0	9.965319E-1	1.002076E+0	1.062877E+0	9.907853E-1	1.000368E+0	9.710101E-1	1.037401E+0	9.915101E-1	1.040937E+0	1.004703E+0	9.753620E-1	9.780261E-1	1.017352E+0	9.875335E-1	1.015352E+0	1.019557E+0	9.668110E-1	1.010615E+0	9.823397E-1	1.004018E+0	1.032997E+0	1.014927E+0	1.018070E+0	1.025138E+0	9.878874E-1	9.780250E-1	1.002586E+0	1.011874E+0	9.525103E-1	9.971723E-1	1.046387E+0	1.010298E+0	9.953746E-1	9.921379E-1	1.039052E+0	1.020447E+0	1.013488E+0	1.009174E+0	1.013414E+0	1.004379E+0	9.996388E-1	1.035699E+0	1.026839E+0	9.592779E-1	9.969698E-1	1.031517E+0	1.041464E+0	1.008642E+0	9.758968E-1	9.920968E-1	1.040719E+0	1.000941E+0	9.985851E-1	1.028592E+0	9.748518E-1	1.058217E+0	1.061541E+0	9.908216E-1	1.018758E+0	1.016334E+0	1.008679E+0	9.823949E-1	9.779939E-1	1.015496E+0	1.000514E+0	1.055799E+0	1.001178E+0	1.058490E+0	1.042214E+0	1.015425E+0	9.646212E-1	9.956259E-1	9.964129E-1	1.023021E+0	1.041023E+0	9.910987E-1	9.478875E-1	1.033182E+0	1.078037E+0	1.025777E+0	1.011007E+0	9.834698E-1	1.066336E+0	1.005960E+0	1.050455E+0	9.831560E-1	9.955803E-1	9.728084E-1	1.015966E+0	9.944155E-1	1.036938E+0	1.003717E+0	1.011927E+0	9.884184E-1
5.387600E+2	1.199862E+0	1.262349E+0	1.185554E+0	1.194332E+0	1.191208E+0	1.207077E+0	1.234691E+0	1.196749E+0	1.161654E+0	1.153904E+0	1.226679E+0	1.182916E+0	1.163829E+0	1.166728E+0	1.178528E+0	1.180127E+0	1.173974E+0	1.172436E+0	1.208109E+0	1.173067E+0	1.228145E+0	1.174766E+0	1.208313E+0	1.176757E+0	1.169341E+0	1.191607E+0	1.233670E+0	1.224167E+0	1.236591E+0	1.260227E+0	1.200525E+0	1.201128E+0	1.202447E+0	1.161500E+0	1.197726E+0	1.214349E+0	1.194828E+0	1.193492E+0	1.180389E+0	1.206178E+0	1.181166E+0	1.220247E+0	1.192693E+0	1.260287E+0	1.225772E+0	1.187717E+0	1.222984E+0	1.198960E+0	1.206194E+0	1.193685E+0	1.209947E+0	1.192851E+0	1.181194E+0	1.178811E+0	1.200049E+0	1.172484E+0	1.175750E+0	1.174739E+0	1.156618E+0	1.245792E+0	1.198857E+0	1.173077E+0	1.162134E+0	1.266375E+0	1.181376E+0	1.159585E+0	1.215089E+0	1.205437E+0	1.193297E+0	1.197674E+0	1.235441E+0	1.239157E+0	1.136006E+0	1.185848E+0	1.225359E+0	1.226514E+0	1.154965E+0	1.161731E+0	1.227987E+0	1.182953E+0	1.245193E+0	1.165813E+0	1.211699E+0	1.146568E+0	1.201304E+0	1.178799E+0	1.178234E+0	1.194134E+0	1.231302E+0	1.155404E+0	1.214826E+0	1.261627E+0	1.205809E+0	1.152015E+0	1.233397E+0	1.186291E+0	1.255007E+0	1.209930E+0	1.185915E+0	1.205533E+0	1.189342E+0	1.177123E+0	1.251872E+0	1.169472E+0	1.214989E+0	1.247883E+0	1.232218E+0	1.195633E+0	1.172996E+0	1.188864E+0	1.157466E+0	1.190491E+0	1.220956E+0	1.183086E+0	1.162872E+0	1.143050E+0	1.236927E+0	1.171675E+0	1.242094E+0	1.226109E+0	1.174100E+0	1.169460E+0	1.182995E+0	1.227099E+0	1.202575E+0	1.154106E+0	1.193527E+0	1.205457E+0	1.190188E+0	1.210427E+0	1.194860E+0	1.201510E+0	1.191028E+0	1.186307E+0	1.217264E+0	1.230440E+0	1.197285E+0	1.152019E+0	1.157202E+0	1.188343E+0	1.182050E+0	1.177695E+0	1.219309E+0	1.108810E+0	1.230304E+0	1.213647E+0	1.247507E+0	1.171713E+0	1.155652E+0	1.175604E+0	1.258227E+0	1.175927E+0	1.247195E+0	1.210782E+0	1.194974E+0	1.230074E+0	1.189902E+0	1.232097E+0	1.202724E+0	1.203273E+0	1.264424E+0	1.182904E+0	1.205528E+0	1.222780E+0	1.247917E+0	1.154011E+0
5.390390E+2	1.447461E+0	1.445623E+0	1.448412E+0	1.399951E+0	1.378932E+0	1.406527E+0	1.477115E+0	1.453133E+0	1.399024E+0	1.422588E+0	1.435358E+0	1.432479E+0	1.408723E+0	1.408072E+0	1.389085E+0	1.441081E+0	1.474031E+0	1.394083E+0	1.463936E+0	1.404445E+0	1.387667E+0	1.397293E+0	1.396536E+0	1.431092E+0	1.435588E+0	1.411494E+0	1.408761E+0	1.419959E+0	1.469244E+0	1.458530E+0	1.403588E+0	1.397373E+0	1.472915E+0	1.381943E+0	1.455258E+0	1.415844E+0	1.416422E+0	1.408913E+0	1.466392E+0	1.380136E+0	1.485027E+0	1.377317E+0	1.395330E+0	1.381742E+0	1.433791E+0	1.427552E+0	1.416328E+0	1.392953E+0	1.445911E+0	1.387147E+0	1.489842E+0	1.434615E+0	1.426286E+0	1.432248E+0	1.436365E+0	1.454329E+0	1.520266E+0	1.328900E+0	1.421714E+0	1.376704E+0	1.416029E+0	1.430433E+0	1.406205E+0	1.473648E+0	1.395103E+0	1.411312E+0	1.401438E+0	1.357797E+0	1.404194E+0	1.439718E+0	1.455388E+0	1.399231E+0	1.403584E+0	1.396369E+0	1.428550E+0	1.395505E+0	1.358446E+0	1.398743E+0	1.450147E+0	1.439367E+0	1.424515E+0	1.434620E+0	1.424740E+0	1.369058E+0	1.421606E+0	1.421453E+0	1.476562E+0	1.385354E+0	1.399115E+0	1.380715E+0	1.432836E+0	1.416186E+0	1.406209E+0	1.385800E+0	1.381061E+0	1.375209E+0	1.413878E+0	1.354346E+0	1.408619E+0	1.345403E+0	1.422609E+0	1.408019E+0	1.476394E+0	1.370878E+0	1.397227E+0	1.378765E+0	1.392762E+0	1.359952E+0	1.419354E+0	1.398565E+0	1.406232E+0	1.391791E+0	1.415168E+0	1.413847E+0	1.371314E+0	1.449508E+0	1.392390E+0	1.345894E+0	1.355596E+0	1.438531E+0	1.402942E+0	1.427274E+0	1.395026E+0	1.402606E+0	1.454015E+0	1.410837E+0	1.428382E+0	1.440637E+0	1.447726E+0	1.371045E+0	1.430800E+0	1.371243E+0	1.420267E+0	1.396530E+0	1.429709E+0	1.392472E+0	1.449339E+0	1.380160E+0	1.460437E+0	1.413026E+0	1.387872E+0	1.351485E+0	1.443227E+0	1.407292E+0	1.422946E+0	1.375716E+0	1.483448E+0	1.358408E+0	1.374665E+0	1.400369E+0	1.445782E+0	1.398027E+0	1.423294E+0	1.403973E+0	1.448034E+0	1.374240E+0	1.444675E+0	1.362241E+0	1.387893E+0	1.378010E+0	1.431453E+0	1.345410E+0	1.360537E+0	1.371255E+0	1.400171E+0	1.310982E+0
5.392720E+2	1.653121E+0	1.629609E+0	1.648870E+0	1.671083E+0	1.567183E+0	1.665736E+0	1.630437E+0	1.637782E+0	1.557375E+0	1.570277E+0	1.638538E+0	1.641764E+0	1.619982E+0	1.553598E+0	1.668359E+0	1.601726E+0	1.625668E+0	1.614464E+0	1.623887E+0	1.627719E+0	1.676866E+0	1.636913E+0	1.611729E+0	1.679227E+0	1.640312E+0	1.607405E+0	1.710023E+0	1.572758E+0	1.662757E+0	1.651910E+0	1.606176E+0	1.614284E+0	1.710144E+0	1.567792E+0	1.625715E+0	1.635709E+0	1.633453E+0	1.606764E+0	1.604229E+0	1.597752E+0	1.623123E+0	1.685563E+0	1.652786E+0	1.605120E+0	1.666550E+0	1.620582E+0	1.671570E+0	1.603033E+0	1.636158E+0	1.574875E+0	1.640593E+0	1.665222E+0	1.589559E+0	1.647072E+0	1.613547E+0	1.676765E+0	1.585849E+0	1.602103E+0	1.588971E+0	1.636343E+0	1.641750E+0	1.567778E+0	1.577219E+0	1.670673E+0	1.599063E+0	1.668134E+0	1.635468E+0	1.666155E+0	1.654128E+0	1.559844E+0	1.659350E+0	1.593611E+0	1.549576E+0	1.545900E+0	1.651215E+0	1.628438E+0	1.630085E+0	1.546977E+0	1.572237E+0	1.539107E+0	1.663855E+0	1.604038E+0	1.572879E+0	1.580220E+0	1.584952E+0	1.576682E+0	1.688132E+0	1.607225E+0	1.599752E+0	1.593348E+0	1.621180E+0	1.627952E+0	1.595644E+0	1.549795E+0	1.586627E+0	1.624526E+0	1.668390E+0	1.630405E+0	1.648595E+0	1.582624E+0	1.634518E+0	1.636963E+0	1.663276E+0	1.580823E+0	1.527583E+0	1.627613E+0	1.691855E+0	1.582937E+0	1.576045E+0	1.585163E+0	1.589079E+0	1.628372E+0	1.587136E+0	1.617588E+0	1.568561E+0	1.598278E+0	1.593006E+0	1.674886E+0	1.630490E+0	1.631820E+0	1.602384E+0	1.578962E+0	1.616838E+0	1.590728E+0	1.649095E+0	1.582305E+0	1.586436E+0	1.602643E+0	1.583300E+0	1.579028E+0	1.570775E+0	1.580434E+0	1.607472E+0	1.594272E+0	1.643423E+0	1.677541E+0	1.566958E+0	1.568856E+0	1.560143E+0	1.646687E+0	1.621237E+0	1.570127E+0	1.523459E+0	1.545931E+0	1.586604E+0	1.573544E+0	1.665052E+0	1.639428E+0	1.609390E+0	1.563828E+0	1.607753E+0	1.597148E+0	1.617401E+0	1.604483E+0	1.568870E+0	1.597607E+0	1.588855E+0	1.573983E+0	1.592778E+0	1.564045E+0	1.608613E+0	1.495256E+0	1.679827E+0	1.567512E+0	1.570434E+0	1.564748E+0
5.395260E+2	1.802419E+0	1.907065E+0	1.911907E+0	1.897582E+0	1.906608E+0	1.839528E+0	1.928572E+0	1.865610E+0	1.853619E+0	1.799146E+0	1.782139E+0	1.861533E+0	1.918101E+0	1.922899E+0	1.870769E+0	1.853582E+0	1.869661E+0	1.814048E+0	1.789450E+0	1.826307E+0	1.810272E+0	1.822646E+0	1.859843E+0	1.850060E+0	1.913519E+0	1.775252E+0	1.901882E+0	1.846364E+0	1.897763E+0	1.809097E+0	1.820896E+0	1.903243E+0	1.914508E+0	1.827276E+0	1.937931E+0	1.771690E+0	1.845295E+0	1.781508E+0	1.827033E+0	1.779603E+0	1.821364E+0	1.841386E+0	1.836493E+0	1.850611E+0	1.892528E+0	1.854726E+0	1.814063E+0	1.785171E+0	1.918551E+0	1.819437E+0	1.799845E+0	1.819796E+0	1.873912E+0	1.843739E+0	1.842090E+0	1.836583E+0	1.783642E+0	1.816818E+0	1.779757E+0	1.849863E+0	1.914087E+0	1.794285E+0	1.804143E+0	1.851327E+0	1.855983E+0	1.798646E+0	1.811018E+0	1.848188E+0	1.788791E+0	1.802040E+0	1.893855E+0	1.821704E+0	1.761238E+0	1.748944E+0	1.839664E+0	1.820621E+0	1.846267E+0	1.748701E+0	1.855376E+0	1.826526E+0	1.841286E+0	1.736362E+0	1.792091E+0	1.791226E+0	1.865274E+0	1.866626E+0	1.828852E+0	1.796837E+0	1.815446E+0	1.723412E+0	1.800794E+0	1.832562E+0	1.844346E+0	1.778465E+0	1.881508E+0	1.772230E+0	1.867761E+0	1.839823E+0	1.787154E+0	1.838756E+0	1.842470E+0	1.833790E+0	1.875485E+0	1.807962E+0	1.770950E+0	1.787650E+0	1.820728E+0	1.847523E+0	1.824141E+0	1.797147E+0	1.763362E+0	1.811322E+0	1.840016E+0	1.775611E+0	1.787634E+0	1.824251E+0	1.732948E+0	1.807716E+0	1.844653E+0	1.827541E+0	1.780768E+0	1.809158E+0	1.760183E+0	1.845564E+0	1.854170E+0	1.732887E+0	1.815439E+0	1.793186E+0	1.793558E+0	1.799522E+0	1.765416E+0	1.748125E+0	1.740896E+0	1.823220E+0	1.787207E+0	1.859637E+0	1.765625E+0	1.776644E+0	1.758612E+0	1.834381E+0	1.790546E+0	1.780292E+0	1.760857E+0	1.784455E+0	1.766860E+0	1.837166E+0	1.840822E+0	1.807821E+0	1.785778E+0	1.771376E+0	1.818947E+0	1.786723E+0	1.801663E+0	1.790398E+0	1.888080E+0	1.792612E+0	1.750811E+0	1.737049E+0	1.811028E+0	1.754011E+0	1.874382E+0	1.713337E+0	1.799404E+0	1.745934E+0	1.707112E+0	1.864653E+0
5.397910E+2	1.987802E+0	2.060544E+0	2.041784E+0	1.943688E+0	1.962864E+0	2.000907E+0	2.016965E+0	1.987976E+0	1.982149E+0	1.944786E+0	2.076467E+0	2.009568E+0	2.030268E+0	2.018118E+0	2.014448E+0	2.028480E+0	2.010407E+0	2.016893E+0	2.053399E+0	1.928385E+0	2.048676E+0	2.054198E+0	2.004221E+0	2.048582E+0	2.065899E+0	2.007565E+0	2.020749E+0	1.966810E+0	1.976631E+0	2.001598E+0	1.974263E+0	1.995771E+0	2.027684E+0	1.953466E+0	1.934509E+0	2.010673E+0	1.961490E+0	1.928997E+0	2.022833E+0	1.974653E+0	1.983061E+0	1.972547E+0	2.010046E+0	2.005241E+0	2.049694E+0	1.986940E+0	1.972986E+0	1.962665E+0	2.016529E+0	1.995049E+0	1.989270E+0	1.981498E+0	1.950409E+0	1.939304E+0	2.005000E+0	2.005486E+0	1.978414E+0	1.963965E+0	1.996803E+0	2.048647E+0	2.009399E+0	1.897742E+0	2.054495E+0	2.035601E+0	1.937486E+0	1.986645E+0	1.929732E+0	1.982459E+0	1.891107E+0	1.950016E+0	2.042492E+0	2.035132E+0	1.939703E+0	1.917966E+0	2.084832E+0	2.014174E+0	1.961586E+0	1.834441E+0	1.941197E+0	1.951037E+0	2.084623E+0	1.987038E+0	1.973090E+0	1.917965E+0	1.978667E+0	1.942330E+0	1.895705E+0	1.972465E+0	1.942023E+0	2.028769E+0	1.946743E+0	1.933607E+0	1.953205E+0	1.893302E+0	1.959948E+0	1.910245E+0	1.962680E+0	1.951468E+0	1.971524E+0	1.911088E+0	1.932162E+0	1.941275E+0	1.996743E+0	1.941485E+0	1.885642E+0	1.931246E+0	2.030444E+0	1.936580E+0	1.973508E+0	1.891049E+0	2.013106E+0	1.939980E+0	1.964820E+0	1.981354E+0	1.977403E+0	1.991411E+0	1.916231E+0	1.867328E+0	1.973813E+0	2.020902E+0	1.981085E+0	1.947061E+0	1.908742E+0	2.014181E+0	1.963723E+0	1.883316E+0	1.918889E+0	2.033458E+0	1.938379E+0	1.925091E+0	1.960437E+0	1.829741E+0	1.927360E+0	1.895119E+0	1.939546E+0	1.914563E+0	1.947504E+0	1.894458E+0	1.966280E+0	1.948505E+0	1.906590E+0	1.887423E+0	1.985391E+0	1.926477E+0	1.942508E+0	1.969183E+0	2.016749E+0	1.937404E+0	1.969466E+0	1.868499E+0	2.025426E+0	1.927085E+0	1.925835E+0	1.977521E+0	2.033771E+0	1.907939E+0	1.951991E+0	1.888228E+0	1.930701E+0	1.838691E+0	1.989722E+0	1.893769E+0	1.955202E+0	1.892386E+0	1.932480E+0	1.964224E+0
5.400140E+2	2.063224E+0	2.078718E+0	1.987777E+0	2.128021E+0	1.982222E+0	2.040378E+0	2.123862E+0	2.034843E+0	2.004186E+0	2.044881E+0	2.112640E+0	2.028696E+0	1.995033E+0	2.004237E+0	2.098177E+0	2.043611E+0	2.056444E+0	2.035102E+0	2.028499E+0	2.017683E+0	2.057358E+0	2.010118E+0	2.007981E+0	2.077711E+0	2.075589E+0	2.011097E+0	2.116900E+0	2.023925E+0	2.025119E+0	2.023510E+0	2.019123E+0	2.067187E+0	2.119341E+0	1.968462E+0	2.016134E+0	1.959675E+0	2.033019E+0	2.006982E+0	2.086246E+0	1.987017E+0	2.010361E+0	1.995646E+0	2.082826E+0	1.996585E+0	2.033610E+0	2.051388E+0	2.038091E+0	1.973198E+0	2.103649E+0	2.013934E+0	2.101219E+0	2.024171E+0	2.064609E+0	2.018162E+0	1.993071E+0	2.035588E+0	2.015540E+0	1.985539E+0	2.033416E+0	2.082553E+0	1.987369E+0	1.988259E+0	1.990447E+0	2.020911E+0	1.970484E+0	1.976767E+0	2.058243E+0	2.042815E+0	2.090289E+0	1.977918E+0	2.068127E+0	1.965484E+0	1.959590E+0	1.933295E+0	1.992444E+0	2.043451E+0	2.009278E+0	1.977888E+0	2.046075E+0	2.021877E+0	2.017651E+0	2.018928E+0	1.995849E+0	1.937009E+0	2.076348E+0	1.946666E+0	2.039076E+0	1.926681E+0	1.953712E+0	1.996461E+0	1.999418E+0	1.907843E+0	2.008056E+0	1.933646E+0	2.010658E+0	1.912825E+0	1.985938E+0	1.992630E+0	1.988063E+0	1.991488E+0	1.989456E+0	2.022201E+0	2.029009E+0	1.976459E+0	1.992818E+0	1.921972E+0	2.011256E+0	2.006281E+0	1.999184E+0	1.972803E+0	1.929375E+0	1.996984E+0	1.950317E+0	1.946555E+0	1.972307E+0	2.065450E+0	1.957408E+0	1.949797E+0	2.022734E+0	1.963716E+0	1.984824E+0	1.952521E+0	2.037900E+0	2.012648E+0	1.969579E+0	1.971725E+0	1.973510E+0	2.005547E+0	1.994436E+0	1.987343E+0	1.960943E+0	2.015345E+0	1.912383E+0	1.951419E+0	2.006971E+0	2.001874E+0	1.955685E+0	1.980036E+0	1.946198E+0	2.029301E+0	1.968583E+0	1.937332E+0	1.998581E+0	1.898007E+0	1.953512E+0	1.966758E+0	1.990103E+0	1.959016E+0	1.983328E+0	2.018071E+0	2.006877E+0	1.906418E+0	2.004966E+0	1.971585E+0	2.090121E+0	1.975761E+0	1.961904E+0	1.970268E+0	1.984973E+0	1.930044E+0	1.999505E+0	1.911376E+0	1.878647E+0	1.949971E+0	2.051888E+0	1.912730E+0
5.402630E+2	2.011521E+0	2.056455E+0	2.024331E+0	2.044646E+0	2.052017E+0	2.049558E+0	2.069792E+0	2.063750E+0	1.994074E+0	2.054798E+0	2.011120E+0	2.035740E+0	2.076258E+0	2.046849E+0	2.137064E+0	1.960299E+0	2.039305E+0	2.001057E+0	2.011660E+0	2.001543E+0	2.035240E+0	2.029117E+0	1.952254E+0	2.038272E+0	2.045131E+0	1.940592E+0	2.051296E+0	1.987712E+0	2.015814E+0	2.085385E+0	1.969600E+0	1.982186E+0	2.054369E+0	1.969602E+0	2.021212E+0	2.016955E+0	2.090026E+0	1.984731E+0	2.047591E+0	2.006382E+0	1.964818E+0	2.027505E+0	1.960290E+0	1.957440E+0	2.072349E+0	1.936521E+0	2.079713E+0	2.018396E+0	2.021730E+0	2.013339E+0	2.009991E+0	1.985729E+0	2.004766E+0	1.949144E+0	2.014866E+0	2.033289E+0	2.026252E+0	2.017270E+0	2.002746E+0	1.991925E+0	1.975224E+0	1.917393E+0	2.011142E+0	2.050742E+0	1.919679E+0	1.941170E+0	2.003275E+0	2.031235E+0	2.005620E+0	1.987965E+0	2.068957E+0	2.054070E+0	1.934724E+0	1.962876E+0	2.040878E+0	1.943050E+0	1.960812E+0	1.911762E+0	1.993469E+0	2.050487E+0	1.941931E+0	1.968030E+0	2.044894E+0	1.946505E+0	1.961768E+0	1.975903E+0	2.000420E+0	1.984196E+0	2.031024E+0	1.965794E+0	1.974672E+0	2.011999E+0	1.963377E+0	1.891014E+0	2.039820E+0	1.892262E+0	1.955672E+0	2.030329E+0	1.964019E+0	1.995379E+0	1.971397E+0	1.881090E+0	1.972079E+0	1.965167E+0	1.896699E+0	1.902123E+0	2.033742E+0	1.987152E+0	1.963452E+0	1.939498E+0	1.946376E+0	1.986993E+0	1.939717E+0	1.972567E+0	1.955912E+0	1.922382E+0	1.952562E+0	1.888866E+0	2.030479E+0	1.991881E+0	1.934888E+0	1.933152E+0	1.926421E+0	1.924755E+0	1.978318E+0	1.942768E+0	1.961083E+0	1.990770E+0	1.987572E+0	1.910347E+0	1.908984E+0	1.978707E+0	1.965898E+0	1.942512E+0	1.952276E+0	1.968576E+0	1.963241E+0	1.888580E+0	1.996487E+0	1.933867E+0	1.943224E+0	1.953571E+0	1.955310E+0	1.925765E+0	1.952191E+0	1.923781E+0	1.901658E+0	1.939559E+0	1.881337E+0	1.893994E+0	2.018200E+0	1.905750E+0	1.954595E+0	1.959394E+0	1.963852E+0	2.001170E+0	1.964227E+0	1.913915E+0	1.973979E+0	1.929411E+0	1.927760E+0	1.893049E+0	1.962132E+0	2.028271E+0	1.983628E+0	1.891691E+0
5.405080E+2	1.941811E+0	1.945862E+0	1.877140E+0	1.925630E+0	1.888096E+0	1.939382E+0	1.920847E+0	1.943532E+0	1.876638E+0	1.916685E+0	1.902062E+0	1.957617E+0	1.946887E+0	1.888741E+0	1.981126E+0	1.943563E+0	1.987339E+0	1.932698E+0	1.935924E+0	1.892570E+0	1.933808E+0	1.966154E+0	2.025651E+0	1.910925E+0	1.994844E+0	1.886510E+0	1.994598E+0	1.890458E+0	1.997685E+0	1.981675E+0	1.805530E+0	1.959837E+0	2.010828E+0	1.929001E+0	1.967359E+0	1.889114E+0	1.917404E+0	1.897639E+0	1.962148E+0	1.889393E+0	1.920004E+0	1.934427E+0	1.927577E+0	1.935442E+0	1.902111E+0	1.933425E+0	1.979475E+0	1.876496E+0	1.952028E+0	1.926084E+0	1.918418E+0	1.890841E+0	1.917506E+0	1.880621E+0	1.940787E+0	1.939378E+0	1.933204E+0	1.933422E+0	1.937041E+0	1.937811E+0	1.918626E+0	1.870410E+0	1.890804E+0	1.952064E+0	1.949607E+0	1.907953E+0	1.943345E+0	1.890052E+0	1.892279E+0	1.912583E+0	1.920968E+0	1.937858E+0	1.805925E+0	1.923289E+0	1.971381E+0	1.958878E+0	1.889186E+0	1.861334E+0	1.901664E+0	1.908134E+0	1.992678E+0	1.880154E+0	1.885299E+0	1.877382E+0	1.947971E+0	1.887676E+0	1.903941E+0	1.905157E+0	1.945753E+0	1.883025E+0	1.921228E+0	1.824831E+0	1.934144E+0	1.872490E+0	1.888065E+0	1.918463E+0	1.954451E+0	1.911600E+0	1.952477E+0	1.851298E+0	1.882150E+0	1.944769E+0	1.938592E+0	1.909967E+0	1.791012E+0	1.891403E+0	1.957631E+0	1.908529E+0	1.877626E+0	1.866092E+0	1.918118E+0	1.916715E+0	1.977411E+0	1.880727E+0	1.903956E+0	1.818799E+0	1.860957E+0	1.904918E+0	1.922700E+0	1.939167E+0	1.860861E+0	1.916707E+0	1.937308E+0	1.877040E+0	1.878629E+0	1.925189E+0	1.958859E+0	1.848396E+0	1.876482E+0	1.848980E+0	1.867856E+0	1.938825E+0	1.846126E+0	1.887866E+0	1.851427E+0	1.899759E+0	1.870260E+0	1.844119E+0	1.811477E+0	1.852506E+0	1.888634E+0	1.837245E+0	1.883032E+0	1.826564E+0	1.951523E+0	1.872834E+0	1.935564E+0	1.882731E+0	1.933926E+0	1.868888E+0	1.883137E+0	1.941427E+0	1.887044E+0	1.844181E+0	1.873613E+0	1.848868E+0	1.892281E+0	1.789483E+0	1.818980E+0	1.806381E+0	1.830854E+0	1.816481E+0	1.853361E+0	1.854677E+0	1.871462E+0	1.846631E+0
5.407630E+2	1.873998E+0	1.861012E+0	1.871900E+0	1.832398E+0	1.783865E+0	1.827008E+0	1.820059E+0	1.833764E+0	1.853676E+0	1.767136E+0	1.847048E+0	1.865980E+0	1.865959E+0	1.836487E+0	1.886169E+0	1.812371E+0	1.801333E+0	1.773959E+0	1.836932E+0	1.821053E+0	1.811780E+0	1.840785E+0	1.807261E+0	1.814405E+0	1.896748E+0	1.861957E+0	1.858054E+0	1.790789E+0	1.852637E+0	1.840917E+0	1.808958E+0	1.844744E+0	1.852961E+0	1.789595E+0	1.824155E+0	1.871284E+0	1.818360E+0	1.786711E+0	1.859714E+0	1.829323E+0	1.790910E+0	1.825440E+0	1.792069E+0	1.796672E+0	1.866627E+0	1.796881E+0	1.784383E+0	1.771488E+0	1.862129E+0	1.820981E+0	1.787944E+0	1.810298E+0	1.852636E+0	1.791561E+0	1.836911E+0	1.852136E+0	1.877855E+0	1.816502E+0	1.821846E+0	1.761193E+0	1.885125E+0	1.787926E+0	1.749965E+0	1.867905E+0	1.805718E+0	1.860194E+0	1.845936E+0	1.861335E+0	1.836155E+0	1.821631E+0	1.866428E+0	1.779597E+0	1.782388E+0	1.743442E+0	1.857844E+0	1.803777E+0	1.814762E+0	1.749089E+0	1.807605E+0	1.782602E+0	1.889740E+0	1.796059E+0	1.750033E+0	1.814541E+0	1.810178E+0	1.820114E+0	1.825785E+0	1.828280E+0	1.776869E+0	1.767662E+0	1.804432E+0	1.853649E+0	1.819314E+0	1.740339E+0	1.795480E+0	1.757167E+0	1.797190E+0	1.803295E+0	1.779585E+0	1.817741E+0	1.779746E+0	1.774866E+0	1.799851E+0	1.762751E+0	1.772598E+0	1.798585E+0	1.905104E+0	1.812229E+0	1.863886E+0	1.727140E+0	1.774395E+0	1.862697E+0	1.856696E+0	1.806452E+0	1.802124E+0	1.801760E+0	1.825629E+0	1.799364E+0	1.811280E+0	1.827704E+0	1.803524E+0	1.782467E+0	1.845133E+0	1.872585E+0	1.763861E+0	1.820369E+0	1.815991E+0	1.764027E+0	1.821949E+0	1.819720E+0	1.851155E+0	1.760302E+0	1.765756E+0	1.760145E+0	1.759432E+0	1.796768E+0	1.788422E+0	1.789405E+0	1.790515E+0	1.793518E+0	1.783349E+0	1.741298E+0	1.868572E+0	1.741729E+0	1.767578E+0	1.712977E+0	1.861825E+0	1.780546E+0	1.781513E+0	1.735039E+0	1.847561E+0	1.860722E+0	1.795966E+0	1.775424E+0	1.824916E+0	1.808907E+0	1.780618E+0	1.744010E+0	1.759611E+0	1.719940E+0	1.808151E+0	1.737129E+0	1.805748E+0	1.777121E+0	1.791738E+0	1.698878E+0
5.410190E+2	1.813791E+0	1.787449E+0	1.771632E+0	1.720028E+0	1.682621E+0	1.810715E+0	1.744878E+0	1.807923E+0	1.765750E+0	1.752822E+0	1.776755E+0	1.807182E+0	1.800142E+0	1.754268E+0	1.745643E+0	1.703542E+0	1.729473E+0	1.720907E+0	1.687736E+0	1.697919E+0	1.677305E+0	1.752849E+0	1.722513E+0	1.706376E+0	1.785452E+0	1.719278E+0	1.737452E+0	1.739494E+0	1.798645E+0	1.742942E+0	1.756390E+0	1.718769E+0	1.827173E+0	1.711396E+0	1.799673E+0	1.726317E+0	1.725548E+0	1.666173E+0	1.775837E+0	1.720413E+0	1.709132E+0	1.760838E+0	1.764020E+0	1.779899E+0	1.801435E+0	1.731174E+0	1.769942E+0	1.750251E+0	1.741602E+0	1.766497E+0	1.772520E+0	1.761829E+0	1.795734E+0	1.722064E+0	1.770826E+0	1.789549E+0	1.735466E+0	1.744474E+0	1.777878E+0	1.800275E+0	1.761478E+0	1.649418E+0	1.792428E+0	1.794480E+0	1.758231E+0	1.755951E+0	1.742259E+0	1.771876E+0	1.710188E+0	1.743762E+0	1.747264E+0	1.818550E+0	1.726509E+0	1.694997E+0	1.742153E+0	1.731632E+0	1.757499E+0	1.695295E+0	1.806459E+0	1.702092E+0	1.731936E+0	1.703796E+0	1.700494E+0	1.680445E+0	1.749033E+0	1.722026E+0	1.733862E+0	1.751048E+0	1.755805E+0	1.666824E+0	1.769766E+0	1.658867E+0	1.704657E+0	1.629986E+0	1.775529E+0	1.725589E+0	1.752640E+0	1.740586E+0	1.756485E+0	1.775082E+0	1.773663E+0	1.751347E+0	1.779229E+0	1.711976E+0	1.720558E+0	1.741580E+0	1.764151E+0	1.722916E+0	1.750979E+0	1.642971E+0	1.698827E+0	1.732906E+0	1.767091E+0	1.729122E+0	1.681935E+0	1.685247E+0	1.735165E+0	1.660555E+0	1.768218E+0	1.815812E+0	1.742779E+0	1.690030E+0	1.771093E+0	1.700815E+0	1.680241E+0	1.752039E+0	1.682665E+0	1.736602E+0	1.754558E+0	1.690760E+0	1.701809E+0	1.735849E+0	1.724527E+0	1.643769E+0	1.682413E+0	1.721906E+0	1.706436E+0	1.704505E+0	1.758297E+0	1.756353E+0	1.775722E+0	1.692696E+0	1.729681E+0	1.695235E+0	1.709111E+0	1.699946E+0	1.687669E+0	1.720921E+0	1.706876E+0	1.604955E+0	1.764894E+0	1.697976E+0	1.741957E+0	1.700029E+0	1.753930E+0	1.798650E+0	1.722770E+0	1.637324E+0	1.677560E+0	1.653991E+0	1.717741E+0	1.658565E+0	1.717172E+0	1.679132E+0	1.699417E+0	1.640095E+0
5.412640E+2	1.722867E+0	1.696551E+0	1.718428E+0	1.636792E+0	1.635984E+0	1.696967E+0	1.706181E+0	1.748382E+0	1.637615E+0	1.639876E+0	1.681937E+0	1.694657E+0	1.744164E+0	1.622944E+0	1.724163E+0	1.687484E+0	1.736121E+0	1.633585E+0	1.707018E+0	1.667295E+0	1.692019E+0	1.688147E+0	1.682872E+0	1.712865E+0	1.700325E+0	1.655373E+0	1.719891E+0	1.662630E+0	1.680305E+0	1.684644E+0	1.665124E+0	1.645883E+0	1.818554E+0	1.718387E+0	1.686008E+0	1.670252E+0	1.701847E+0	1.640933E+0	1.692168E+0	1.688517E+0	1.669366E+0	1.761474E+0	1.749975E+0	1.751282E+0	1.705993E+0	1.664166E+0	1.662176E+0	1.645266E+0	1.716302E+0	1.680063E+0	1.719980E+0	1.685885E+0	1.698476E+0	1.679004E+0	1.665248E+0	1.766325E+0	1.661337E+0	1.603888E+0	1.664546E+0	1.730896E+0	1.747182E+0	1.673671E+0	1.690259E+0	1.716869E+0	1.690352E+0	1.740691E+0	1.592785E+0	1.738633E+0	1.692065E+0	1.623913E+0	1.689126E+0	1.698821E+0	1.714211E+0	1.624813E+0	1.699094E+0	1.640835E+0	1.611801E+0	1.662531E+0	1.695634E+0	1.745114E+0	1.734960E+0	1.670458E+0	1.630350E+0	1.624437E+0	1.695010E+0	1.681103E+0	1.723980E+0	1.720782E+0	1.702782E+0	1.633872E+0	1.694770E+0	1.589926E+0	1.676310E+0	1.640663E+0	1.659454E+0	1.642415E+0	1.692569E+0	1.628579E+0	1.680539E+0	1.687888E+0	1.692205E+0	1.628540E+0	1.676710E+0	1.637660E+0	1.643325E+0	1.692433E+0	1.742796E+0	1.660745E+0	1.683031E+0	1.627312E+0	1.661696E+0	1.733216E+0	1.663020E+0	1.634099E+0	1.627780E+0	1.666151E+0	1.682599E+0	1.655902E+0	1.651037E+0	1.710158E+0	1.599063E+0	1.629421E+0	1.669163E+0	1.681285E+0	1.705811E+0	1.692917E+0	1.715639E+0	1.640207E+0	1.725937E+0	1.630077E+0	1.674929E+0	1.714757E+0	1.617916E+0	1.630140E+0	1.656841E+0	1.688443E+0	1.692281E+0	1.648804E+0	1.684030E+0	1.674968E+0	1.669123E+0	1.647770E+0	1.642835E+0	1.651251E+0	1.697167E+0	1.629554E+0	1.678860E+0	1.731984E+0	1.618291E+0	1.624707E+0	1.598421E+0	1.724977E+0	1.605675E+0	1.669167E+0	1.589871E+0	1.643829E+0	1.583597E+0	1.683686E+0	1.656484E+0	1.634116E+0	1.705143E+0	1.674826E+0	1.673817E+0	1.623566E+0	1.657627E+0	1.560392E+0
5.415140E+2	1.640855E+0	1.669683E+0	1.628551E+0	1.678609E+0	1.646863E+0	1.620972E+0	1.684107E+0	1.572153E+0	1.622692E+0	1.647549E+0	1.603625E+0	1.585117E+0	1.599471E+0	1.594461E+0	1.622827E+0	1.644540E+0	1.595197E+0	1.576467E+0	1.623098E+0	1.635022E+0	1.661535E+0	1.669877E+0	1.565828E+0	1.667054E+0	1.634702E+0	1.596041E+0	1.572414E+0	1.609469E+0	1.655377E+0	1.596716E+0	1.566714E+0	1.638390E+0	1.665657E+0	1.639135E+0	1.604708E+0	1.625858E+0	1.597052E+0	1.551359E+0	1.603868E+0	1.619515E+0	1.611573E+0	1.590660E+0	1.574078E+0	1.632904E+0	1.622527E+0	1.578931E+0	1.612880E+0	1.577297E+0	1.615062E+0	1.620273E+0	1.622375E+0	1.609547E+0	1.586361E+0	1.580590E+0	1.601331E+0	1.642082E+0	1.537731E+0	1.587495E+0	1.605345E+0	1.616187E+0	1.619701E+0	1.539561E+0	1.627406E+0	1.637348E+0	1.706108E+0	1.623988E+0	1.627729E+0	1.652796E+0	1.635220E+0	1.607461E+0	1.564445E+0	1.639512E+0	1.575560E+0	1.543105E+0	1.645139E+0	1.605415E+0	1.600036E+0	1.491471E+0	1.566104E+0	1.616921E+0	1.656956E+0	1.565542E+0	1.536589E+0	1.571472E+0	1.596101E+0	1.601912E+0	1.553054E+0	1.608929E+0	1.614518E+0	1.559156E+0	1.586329E+0	1.542280E+0	1.590818E+0	1.557475E+0	1.587042E+0	1.508058E+0	1.600199E+0	1.580964E+0	1.562868E+0	1.543299E+0	1.584543E+0	1.608566E+0	1.585393E+0	1.611606E+0	1.564651E+0	1.569156E+0	1.647169E+0	1.572547E+0	1.569487E+0	1.590355E+0	1.598031E+0	1.576495E+0	1.675844E+0	1.604356E+0	1.582061E+0	1.582955E+0	1.545941E+0	1.541620E+0	1.597918E+0	1.597340E+0	1.597061E+0	1.556767E+0	1.573790E+0	1.611291E+0	1.589222E+0	1.580388E+0	1.566638E+0	1.590618E+0	1.545759E+0	1.502583E+0	1.612071E+0	1.578747E+0	1.603771E+0	1.547980E+0	1.569782E+0	1.628979E+0	1.573240E+0	1.552220E+0	1.621400E+0	1.602340E+0	1.619173E+0	1.513757E+0	1.626991E+0	1.561599E+0	1.540121E+0	1.554894E+0	1.594436E+0	1.557457E+0	1.617724E+0	1.548394E+0	1.612291E+0	1.572143E+0	1.614188E+0	1.558079E+0	1.595699E+0	1.612861E+0	1.577452E+0	1.543456E+0	1.583501E+0	1.528971E+0	1.580701E+0	1.508625E+0	1.598567E+0	1.646905E+0	1.518922E+0	1.509319E+0
5.417650E+2	1.523395E+0	1.498179E+0	1.518345E+0	1.460046E+0	1.459102E+0	1.514723E+0	1.446847E+0	1.471102E+0	1.481900E+0	1.446404E+0	1.459656E+0	1.498404E+0	1.467588E+0	1.405327E+0	1.440866E+0	1.519199E+0	1.492853E+0	1.483301E+0	1.537246E+0	1.494234E+0	1.450406E+0	1.428314E+0	1.460630E+0	1.490463E+0	1.475591E+0	1.458998E+0	1.534573E+0	1.455316E+0	1.521975E+0	1.472901E+0	1.465117E+0	1.480018E+0	1.584729E+0	1.439301E+0	1.465351E+0	1.502061E+0	1.460373E+0	1.455796E+0	1.466853E+0	1.457284E+0	1.452482E+0	1.529246E+0	1.485505E+0	1.451062E+0	1.480559E+0	1.490274E+0	1.501788E+0	1.488448E+0	1.480788E+0	1.488472E+0	1.486198E+0	1.415703E+0	1.540743E+0	1.470777E+0	1.434576E+0	1.550375E+0	1.481819E+0	1.470585E+0	1.492985E+0	1.543396E+0	1.496533E+0	1.443857E+0	1.455802E+0	1.512385E+0	1.489015E+0	1.476289E+0	1.474273E+0	1.491284E+0	1.445386E+0	1.472387E+0	1.453095E+0	1.573052E+0	1.465322E+0	1.416722E+0	1.440499E+0	1.526328E+0	1.438713E+0	1.424039E+0	1.438351E+0	1.529029E+0	1.556062E+0	1.385653E+0	1.482044E+0	1.446706E+0	1.483818E+0	1.481050E+0	1.451502E+0	1.468484E+0	1.495860E+0	1.478743E+0	1.414129E+0	1.377898E+0	1.491108E+0	1.417100E+0	1.482344E+0	1.465623E+0	1.514018E+0	1.470944E+0	1.480933E+0	1.483910E+0	1.439992E+0	1.461597E+0	1.456048E+0	1.402915E+0	1.407433E+0	1.467055E+0	1.493001E+0	1.436399E+0	1.466876E+0	1.416041E+0	1.407345E+0	1.488372E+0	1.475860E+0	1.440797E+0	1.442692E+0	1.468854E+0	1.525193E+0	1.431694E+0	1.464500E+0	1.475935E+0	1.441113E+0	1.471742E+0	1.482918E+0	1.513304E+0	1.456236E+0	1.497732E+0	1.525010E+0	1.394052E+0	1.468771E+0	1.436322E+0	1.464186E+0	1.427635E+0	1.447534E+0	1.471038E+0	1.468711E+0	1.389098E+0	1.494051E+0	1.432340E+0	1.431225E+0	1.497786E+0	1.461340E+0	1.474445E+0	1.489189E+0	1.401568E+0	1.474274E+0	1.427441E+0	1.488705E+0	1.491788E+0	1.436285E+0	1.474401E+0	1.542609E+0	1.533773E+0	1.427197E+0	1.488075E+0	1.478477E+0	1.432463E+0	1.478394E+0	1.399704E+0	1.419560E+0	1.452789E+0	1.478466E+0	1.427042E+0	1.470043E+0	1.421146E+0	1.497362E+0	1.436227E+0
5.420110E+2	1.350028E+0	1.319356E+0	1.347814E+0	1.325539E+0	1.325814E+0	1.292718E+0	1.322633E+0	1.350694E+0	1.307489E+0	1.319045E+0	1.305417E+0	1.326222E+0	1.340121E+0	1.349922E+0	1.333912E+0	1.325813E+0	1.353019E+0	1.296436E+0	1.282067E+0	1.304534E+0	1.284639E+0	1.326071E+0	1.340570E+0	1.309387E+0	1.331472E+0	1.312200E+0	1.318679E+0	1.374155E+0	1.338945E+0	1.360116E+0	1.296069E+0	1.282793E+0	1.412362E+0	1.293238E+0	1.338680E+0	1.298896E+0	1.349420E+0	1.344463E+0	1.328643E+0	1.332068E+0	1.322908E+0	1.314190E+0	1.306546E+0	1.342153E+0	1.326991E+0	1.236199E+0	1.313005E+0	1.270634E+0	1.367930E+0	1.347026E+0	1.323630E+0	1.298692E+0	1.315535E+0	1.301159E+0	1.287158E+0	1.363390E+0	1.317079E+0	1.261159E+0	1.325060E+0	1.339136E+0	1.285234E+0	1.232340E+0	1.277853E+0	1.345000E+0	1.364075E+0	1.275346E+0	1.278231E+0	1.357198E+0	1.349025E+0	1.286098E+0	1.304677E+0	1.379118E+0	1.310096E+0	1.279147E+0	1.275689E+0	1.353095E+0	1.290010E+0	1.278931E+0	1.323645E+0	1.339274E+0	1.329867E+0	1.322308E+0	1.259385E+0	1.249474E+0	1.364097E+0	1.278362E+0	1.291140E+0	1.325546E+0	1.286790E+0	1.310669E+0	1.299098E+0	1.307039E+0	1.370746E+0	1.277450E+0	1.318482E+0	1.301821E+0	1.353599E+0	1.289935E+0	1.314420E+0	1.366720E+0	1.356951E+0	1.321428E+0	1.342001E+0	1.287546E+0	1.250705E+0	1.273073E+0	1.325792E+0	1.284151E+0	1.314606E+0	1.284498E+0	1.333460E+0	1.360642E+0	1.309091E+0	1.305825E+0	1.309788E+0	1.314295E+0	1.328914E+0	1.313969E+0	1.349868E+0	1.371432E+0	1.256557E+0	1.312567E+0	1.332861E+0	1.357882E+0	1.306805E+0	1.318532E+0	1.317761E+0	1.297598E+0	1.249062E+0	1.287173E+0	1.349816E+0	1.293070E+0	1.278051E+0	1.286865E+0	1.327268E+0	1.375408E+0	1.272823E+0	1.268984E+0	1.368766E+0	1.302378E+0	1.302714E+0	1.302730E+0	1.389387E+0	1.250382E+0	1.349480E+0	1.275393E+0	1.284927E+0	1.303295E+0	1.345630E+0	1.304562E+0	1.366006E+0	1.310274E+0	1.380266E+0	1.323130E+0	1.389474E+0	1.365450E+0	1.306635E+0	1.271249E+0	1.291351E+0	1.340787E+0	1.343686E+0	1.307930E+0	1.315827E+0	1.313566E+0	1.344030E+0	1.220126E+0
5.422670E+2	1.180528E+0	1.124007E+0	1.161410E+0	1.146804E+0	1.140203E+0	1.165657E+0	1.209931E+0	1.128218E+0	1.112904E+0	1.121875E+0	1.133037E+0	1.154930E+0	1.137955E+0	1.122773E+0	1.143731E+0	1.200297E+0	1.146439E+0	1.099526E+0	1.148859E+0	1.128115E+0	1.164870E+0	1.146851E+0	1.161064E+0	1.154477E+0	1.185277E+0	1.150760E+0	1.227319E+0	1.164601E+0	1.158066E+0	1.166900E+0	1.186174E+0	1.193941E+0	1.183819E+0	1.117066E+0	1.175775E+0	1.125309E+0	1.110644E+0	1.154521E+0	1.126512E+0	1.170542E+0	1.172755E+0	1.184780E+0	1.148800E+0	1.117434E+0	1.159407E+0	1.163184E+0	1.172844E+0	1.171688E+0	1.201882E+0	1.124371E+0	1.175371E+0	1.171504E+0	1.185865E+0	1.163773E+0	1.079956E+0	1.156023E+0	1.194444E+0	1.096997E+0	1.120991E+0	1.155802E+0	1.168601E+0	1.174694E+0	1.133503E+0	1.184420E+0	1.148749E+0	1.124886E+0	1.145745E+0	1.089357E+0	1.158023E+0	1.169741E+0	1.128868E+0	1.208777E+0	1.135277E+0	1.154958E+0	1.149912E+0	1.117678E+0	1.162937E+0	1.124924E+0	1.139845E+0	1.176527E+0	1.214493E+0	1.184930E+0	1.172200E+0	1.122810E+0	1.171485E+0	1.172331E+0	1.185337E+0	1.233649E+0	1.152872E+0	1.157151E+0	1.086169E+0	1.146735E+0	1.185921E+0	1.131368E+0	1.151413E+0	1.111502E+0	1.189928E+0	1.158363E+0	1.165590E+0	1.251186E+0	1.187659E+0	1.138141E+0	1.141192E+0	1.154539E+0	1.134516E+0	1.169326E+0	1.148073E+0	1.164982E+0	1.191682E+0	1.136529E+0	1.123919E+0	1.228336E+0	1.123074E+0	1.191135E+0	1.165354E+0	1.178239E+0	1.144779E+0	1.117434E+0	1.176619E+0	1.183614E+0	1.106460E+0	1.134881E+0	1.128227E+0	1.197929E+0	1.212590E+0	1.139428E+0	1.175732E+0	1.178374E+0	1.211544E+0	1.175909E+0	1.139423E+0	1.149146E+0	1.114134E+0	1.132270E+0	1.245730E+0	1.210471E+0	1.143570E+0	1.124483E+0	1.167138E+0	1.208253E+0	1.170947E+0	1.125075E+0	1.155810E+0	1.163369E+0	1.185037E+0	1.151718E+0	1.145863E+0	1.185460E+0	1.143952E+0	1.061165E+0	1.151628E+0	1.157589E+0	1.112318E+0	1.157092E+0	1.182639E+0	1.178665E+0	1.231439E+0	1.124590E+0	1.158869E+0	1.158919E+0	1.166712E+0	1.170939E+0	1.181271E+0	1.127233E+0	1.146228E+0	1.146582E+0
5.425080E+2	1.025175E+0	9.931963E-1	1.044222E+0	1.037307E+0	9.935873E-1	1.018837E+0	1.046232E+0	1.022694E+0	9.790008E-1	1.016037E+0	1.019519E+0	1.027059E+0	1.082281E+0	1.023321E+0	1.002688E+0	1.034154E+0	1.055059E+0	9.987902E-1	1.028389E+0	1.002459E+0	1.037535E+0	1.052096E+0	9.984065E-1	1.043727E+0	1.066631E+0	1.027628E+0	1.032729E+0	1.062906E+0	1.047594E+0	1.002426E+0	1.002442E+0	1.028740E+0	1.065534E+0	1.006169E+0	1.007588E+0	1.034598E+0	1.006762E+0	1.008280E+0	1.004598E+0	1.002958E+0	1.025993E+0	1.010870E+0	1.066727E+0	1.073076E+0	1.030770E+0	9.765226E-1	1.026854E+0	1.015727E+0	1.005284E+0	1.050757E+0	1.007846E+0	1.052408E+0	1.057860E+0	1.027906E+0	1.042950E+0	1.057250E+0	1.000873E+0	1.012606E+0	9.742338E-1	1.047253E+0	1.037395E+0	9.979315E-1	9.996199E-1	1.060226E+0	1.017615E+0	1.046900E+0	9.828884E-1	9.969548E-1	1.030427E+0	1.057589E+0	1.001002E+0	1.038642E+0	1.034384E+0	1.025890E+0	1.034017E+0	1.020601E+0	1.011804E+0	1.039346E+0	1.045788E+0	1.054474E+0	1.058445E+0	1.021502E+0	1.009970E+0	1.004323E+0	1.015838E+0	9.765646E-1	9.955956E-1	1.007796E+0	1.054054E+0	9.934334E-1	1.011554E+0	1.074080E+0	1.084858E+0	1.059142E+0	1.024914E+0	9.816440E-1	1.024699E+0	1.016257E+0	1.111118E+0	1.039796E+0	1.002954E+0	1.019266E+0	1.018134E+0	1.060413E+0	1.051930E+0	1.046613E+0	1.064460E+0	1.071587E+0	1.065559E+0	1.014211E+0	9.924130E-1	1.035100E+0	1.021191E+0	9.966797E-1	1.018100E+0	1.040644E+0	1.068585E+0	1.017181E+0	9.967102E-1	1.038582E+0	1.012094E+0	1.030581E+0	1.019237E+0	1.057736E+0	1.040967E+0	1.016686E+0	1.066994E+0	1.058516E+0	1.040557E+0	1.046915E+0	9.960253E-1	1.064307E+0	9.713614E-1	1.019497E+0	1.021753E+0	1.081345E+0	1.040417E+0	1.032382E+0	9.837221E-1	1.012738E+0	9.968499E-1	1.028580E+0	1.038426E+0	9.884149E-1	1.037397E+0	1.038132E+0	1.016198E+0	1.075059E+0	1.037767E+0	1.029613E+0	1.084295E+0	1.084757E+0	1.035373E+0	1.023246E+0	1.019600E+0	1.048021E+0	1.085188E+0	9.812048E-1	1.011378E+0	1.018434E+0	1.056775E+0	9.940952E-1	1.031228E+0	9.786533E-1	1.031747E+0	9.555420E-1
5.427600E+2	9.480238E-1	9.492420E-1	1.002866E+0	9.530138E-1	9.349853E-1	9.586829E-1	9.379731E-1	9.699350E-1	9.462103E-1	9.361318E-1	9.445521E-1	9.692359E-1	9.643555E-1	9.616849E-1	9.645323E-1	9.570935E-1	9.307778E-1	9.765413E-1	9.350508E-1	9.698572E-1	9.221261E-1	9.904099E-1	9.463968E-1	9.230350E-1	9.876902E-1	9.442514E-1	9.677346E-1	1.010654E+0	9.553951E-1	9.365050E-1	9.293180E-1	9.613577E-1	9.609544E-1	9.615643E-1	9.289753E-1	9.179722E-1	9.586309E-1	9.688288E-1	9.691888E-1	9.521010E-1	9.623499E-1	9.562121E-1	9.387024E-1	9.287424E-1	9.699369E-1	9.566315E-1	9.416387E-1	9.437300E-1	9.797821E-1	9.482412E-1	9.352519E-1	9.597629E-1	9.487836E-1	9.432923E-1	9.831066E-1	9.817730E-1	9.753502E-1	9.897071E-1	9.154276E-1	9.560205E-1	9.858061E-1	8.991091E-1	9.438867E-1	9.949991E-1	9.667312E-1	9.579920E-1	9.294179E-1	9.457932E-1	1.023051E+0	9.589387E-1	9.418456E-1	9.862572E-1	9.716915E-1	9.213774E-1	9.324674E-1	9.923170E-1	9.647917E-1	8.885979E-1	9.663868E-1	9.825432E-1	1.016988E+0	9.117899E-1	9.646052E-1	9.632361E-1	9.826454E-1	9.158630E-1	9.428188E-1	9.643498E-1	9.405331E-1	9.209320E-1	9.799059E-1	9.827270E-1	9.912570E-1	9.649543E-1	9.255150E-1	9.544555E-1	9.698949E-1	9.597766E-1	9.476336E-1	1.003164E+0	9.276393E-1	9.027113E-1	9.555187E-1	9.289285E-1	9.689806E-1	9.094767E-1	9.329864E-1	9.935977E-1	9.515669E-1	9.710945E-1	9.094200E-1	9.844216E-1	9.518576E-1	9.553805E-1	9.962559E-1	1.008410E+0	9.734724E-1	9.802670E-1	9.525565E-1	1.000434E+0	9.663628E-1	9.739867E-1	9.547292E-1	9.470402E-1	9.701049E-1	9.330807E-1	9.451186E-1	9.498427E-1	9.944042E-1	9.721541E-1	9.295757E-1	1.017499E+0	9.422226E-1	9.464608E-1	9.664010E-1	9.914749E-1	1.024485E+0	9.290563E-1	9.256797E-1	9.484689E-1	9.462949E-1	9.808942E-1	9.618790E-1	9.737090E-1	9.810906E-1	9.686451E-1	9.175253E-1	9.760326E-1	9.633893E-1	9.429479E-1	9.586227E-1	9.616666E-1	9.125758E-1	9.478145E-1	9.550121E-1	9.999825E-1	9.862330E-1	9.307193E-1	9.662662E-1	9.590810E-1	9.584313E-1	9.975764E-1	9.633949E-1	8.968340E-1	9.679821E-1	9.811427E-1
5.430330E+2	9.988451E-1	9.624147E-1	1.013768E+0	1.002080E+0	9.611149E-1	9.634677E-1	9.917087E-1	9.677810E-1	9.716515E-1	1.012756E+0	1.013809E+0	9.803908E-1	9.878498E-1	9.854811E-1	9.893763E-1	1.007104E+0	1.008692E+0	1.012350E+0	1.017729E+0	9.786215E-1	9.901995E-1	9.727065E-1	9.998348E-1	1.004771E+0	1.021521E+0	9.715915E-1	1.009599E+0	9.872268E-1	1.007861E+0	1.031299E+0	1.020617E+0	1.020569E+0	1.019896E+0	9.531833E-1	9.963428E-1	9.680095E-1	1.006986E+0	9.215800E-1	9.478972E-1	1.006119E+0	1.032149E+0	9.934132E-1	9.788280E-1	9.914618E-1	9.908706E-1	9.883029E-1	1.035557E+0	1.010612E+0	9.881982E-1	9.990334E-1	1.001309E+0	1.016283E+0	1.016081E+0	9.854335E-1	9.544873E-1	1.026075E+0	9.777677E-1	9.990698E-1	9.891981E-1	1.036964E+0	9.930285E-1	9.401986E-1	9.659540E-1	1.010169E+0	1.002045E+0	9.907741E-1	9.970626E-1	1.033672E+0	9.843014E-1	1.028608E+0	9.927233E-1	9.812973E-1	9.982864E-1	9.893382E-1	1.008024E+0	9.945290E-1	9.269838E-1	9.313753E-1	1.020038E+0	1.039087E+0	1.018618E+0	9.856668E-1	9.706014E-1	9.865654E-1	1.039309E+0	9.704750E-1	9.930804E-1	9.569859E-1	1.003128E+0	9.533686E-1	9.847506E-1	1.017783E+0	1.005383E+0	9.972916E-1	1.012660E+0	9.806508E-1	1.012039E+0	9.818844E-1	1.028015E+0	9.931497E-1	1.017704E+0	9.840037E-1	9.847733E-1	1.002512E+0	1.027690E+0	1.020546E+0	1.037045E+0	1.025451E+0	1.046321E+0	9.731820E-1	9.829691E-1	9.882240E-1	1.025280E+0	1.029481E+0	9.954607E-1	1.029109E+0	9.997933E-1	1.003006E+0	1.005395E+0	1.050876E+0	9.509518E-1	1.044326E+0	9.718054E-1	1.019808E+0	1.002565E+0	1.006161E+0	9.841027E-1	1.034073E+0	9.842009E-1	1.002456E+0	9.873300E-1	1.015617E+0	9.901541E-1	9.547717E-1	1.038210E+0	1.011458E+0	1.026812E+0	9.954697E-1	1.009872E+0	1.059773E+0	1.067792E+0	9.697892E-1	1.001132E+0	9.835542E-1	9.977813E-1	9.735676E-1	9.773212E-1	1.012978E+0	9.968752E-1	1.026561E+0	9.911192E-1	1.012546E+0	9.819121E-1	9.668769E-1	9.899996E-1	9.663251E-1	9.804453E-1	9.943412E-1	9.540740E-1	9.971028E-1	1.036671E+0	1.013273E+0	9.631333E-1	9.703675E-1	9.796756E-1	8.881225E-1
5.432640E+2	1.058512E+0	1.029107E+0	1.053832E+0	1.010624E+0	1.030540E+0	1.057841E+0	1.051347E+0	1.079592E+0	1.051021E+0	1.021152E+0	1.055610E+0	1.043513E+0	1.079241E+0	1.048246E+0	1.047712E+0	1.050175E+0	1.076442E+0	1.027649E+0	1.059043E+0	1.055449E+0	1.110369E+0	1.075212E+0	1.057770E+0	1.105293E+0	1.090144E+0	9.859034E-1	1.098445E+0	1.056742E+0	1.107093E+0	1.066502E+0	1.093722E+0	1.062096E+0	1.051754E+0	1.058300E+0	1.087918E+0	1.083377E+0	1.077992E+0	1.081324E+0	1.070522E+0	1.067918E+0	1.083371E+0	1.065320E+0	1.074992E+0	1.112955E+0	1.084578E+0	1.042490E+0	1.080869E+0	1.079115E+0	1.114886E+0	1.084754E+0	1.063160E+0	1.048779E+0	1.053776E+0	1.077131E+0	1.059443E+0	1.057343E+0	1.030549E+0	1.006436E+0	1.039595E+0	1.084642E+0	1.065198E+0	1.039934E+0	1.028476E+0	1.102273E+0	1.111724E+0	1.066044E+0	1.064625E+0	1.030788E+0	1.076933E+0	1.066188E+0	1.064067E+0	1.078389E+0	1.084681E+0	1.090587E+0	1.048559E+0	1.084629E+0	1.135884E+0	1.019990E+0	1.033972E+0	1.064308E+0	1.080433E+0	1.046997E+0	1.074033E+0	1.018741E+0	1.096032E+0	1.072936E+0	1.063177E+0	1.123233E+0	1.016772E+0	1.036884E+0	1.088028E+0	1.075135E+0	1.113845E+0	1.035864E+0	1.076961E+0	1.080291E+0	1.022451E+0	1.067127E+0	1.070667E+0	1.077807E+0	1.032931E+0	1.060693E+0	1.065463E+0	1.097642E+0	1.077642E+0	1.058070E+0	1.034052E+0	1.102407E+0	1.075330E+0	1.019693E+0	1.052736E+0	1.101620E+0	1.065631E+0	1.049414E+0	1.054259E+0	1.095886E+0	1.030537E+0	1.066874E+0	1.030388E+0	1.074528E+0	1.072896E+0	1.086662E+0	1.038785E+0	1.060956E+0	1.110274E+0	1.035642E+0	1.086877E+0	1.081560E+0	1.059609E+0	1.067654E+0	1.054817E+0	1.077700E+0	1.071730E+0	1.012587E+0	1.061198E+0	1.075237E+0	1.081002E+0	1.023937E+0	1.058678E+0	1.108247E+0	1.069787E+0	1.039122E+0	1.089798E+0	1.086866E+0	1.025075E+0	1.099541E+0	1.099885E+0	1.072394E+0	1.117804E+0	1.015533E+0	1.066561E+0	1.092480E+0	1.049451E+0	1.067287E+0	1.076959E+0	1.069387E+0	1.068052E+0	1.083614E+0	1.082757E+0	1.058149E+0	1.088064E+0	1.020619E+0	1.047863E+0	1.107411E+0	1.094390E+0	1.085794E+0
5.435110E+2	1.285782E+0	1.273907E+0	1.259116E+0	1.234188E+0	1.211199E+0	1.272211E+0	1.288068E+0	1.290476E+0	1.229719E+0	1.213829E+0	1.284765E+0	1.217146E+0	1.305712E+0	1.246166E+0	1.272724E+0	1.266810E+0	1.235115E+0	1.245279E+0	1.239454E+0	1.254927E+0	1.192589E+0	1.202812E+0	1.248513E+0	1.247911E+0	1.283490E+0	1.265330E+0	1.237079E+0	1.239881E+0	1.294770E+0	1.251814E+0	1.258239E+0	1.256738E+0	1.297651E+0	1.263326E+0	1.205348E+0	1.205643E+0	1.283562E+0	1.227861E+0	1.203584E+0	1.196383E+0	1.280816E+0	1.263720E+0	1.257211E+0	1.272451E+0	1.301125E+0	1.238492E+0	1.221663E+0	1.267829E+0	1.309717E+0	1.194596E+0	1.257127E+0	1.265039E+0	1.244128E+0	1.255892E+0	1.263020E+0	1.278749E+0	1.251748E+0	1.222605E+0	1.285126E+0	1.308333E+0	1.256893E+0	1.200016E+0	1.232335E+0	1.220668E+0	1.289464E+0	1.263833E+0	1.246229E+0	1.254272E+0	1.252590E+0	1.267948E+0	1.253273E+0	1.273525E+0	1.224391E+0	1.243439E+0	1.239309E+0	1.269840E+0	1.238605E+0	1.196488E+0	1.236906E+0	1.262965E+0	1.239595E+0	1.199510E+0	1.239125E+0	1.201901E+0	1.254260E+0	1.244225E+0	1.223631E+0	1.273383E+0	1.232162E+0	1.216917E+0	1.186637E+0	1.229366E+0	1.243533E+0	1.222975E+0	1.211086E+0	1.234658E+0	1.294498E+0	1.221494E+0	1.269791E+0	1.244705E+0	1.219623E+0	1.276279E+0	1.214819E+0	1.220044E+0	1.264711E+0	1.195635E+0	1.264314E+0	1.219129E+0	1.235398E+0	1.153455E+0	1.228297E+0	1.219800E+0	1.313975E+0	1.187928E+0	1.183601E+0	1.263714E+0	1.250371E+0	1.212077E+0	1.218393E+0	1.198874E+0	1.222307E+0	1.222771E+0	1.215098E+0	1.244722E+0	1.265308E+0	1.235522E+0	1.276944E+0	1.315554E+0	1.194559E+0	1.246359E+0	1.213264E+0	1.268639E+0	1.273081E+0	1.255950E+0	1.194837E+0	1.314497E+0	1.239334E+0	1.209620E+0	1.231700E+0	1.274294E+0	1.209490E+0	1.258952E+0	1.239254E+0	1.252670E+0	1.233150E+0	1.272677E+0	1.281923E+0	1.250804E+0	1.233350E+0	1.168297E+0	1.206584E+0	1.250252E+0	1.234336E+0	1.262603E+0	1.236925E+0	1.272344E+0	1.280767E+0	1.196395E+0	1.221844E+0	1.245630E+0	1.271810E+0	1.201768E+0	1.274089E+0	1.212951E+0	1.238947E+0	1.231293E+0
5.437640E+2	1.379660E+0	1.361384E+0	1.396874E+0	1.458277E+0	1.385766E+0	1.400561E+0	1.394905E+0	1.436777E+0	1.369936E+0	1.399373E+0	1.365310E+0	1.425157E+0	1.433533E+0	1.403672E+0	1.370219E+0	1.355794E+0	1.372192E+0	1.416188E+0	1.393039E+0	1.389701E+0	1.436350E+0	1.413119E+0	1.418224E+0	1.374767E+0	1.406424E+0	1.354368E+0	1.462215E+0	1.493578E+0	1.441652E+0	1.430443E+0	1.383886E+0	1.431917E+0	1.443014E+0	1.384364E+0	1.425335E+0	1.434010E+0	1.399237E+0	1.398087E+0	1.418263E+0	1.453174E+0	1.446407E+0	1.399859E+0	1.427515E+0	1.498283E+0	1.443605E+0	1.380829E+0	1.422413E+0	1.359780E+0	1.392728E+0	1.406473E+0	1.427739E+0	1.423944E+0	1.430150E+0	1.377035E+0	1.433934E+0	1.419994E+0	1.406714E+0	1.419400E+0	1.397558E+0	1.483309E+0	1.453336E+0	1.374562E+0	1.403268E+0	1.392314E+0	1.398502E+0	1.401955E+0	1.367701E+0	1.395723E+0	1.409197E+0	1.404107E+0	1.411980E+0	1.399589E+0	1.403813E+0	1.415348E+0	1.387489E+0	1.411973E+0	1.379994E+0	1.365971E+0	1.419372E+0	1.446329E+0	1.416449E+0	1.406774E+0	1.355915E+0	1.415365E+0	1.409467E+0	1.383497E+0	1.407719E+0	1.428130E+0	1.355006E+0	1.419876E+0	1.390404E+0	1.397141E+0	1.429006E+0	1.372102E+0	1.380767E+0	1.336340E+0	1.403409E+0	1.402879E+0	1.369347E+0	1.389189E+0	1.394723E+0	1.348288E+0	1.403308E+0	1.390919E+0	1.366633E+0	1.401198E+0	1.431984E+0	1.418751E+0	1.409606E+0	1.372684E+0	1.397209E+0	1.398561E+0	1.412396E+0	1.393296E+0	1.354124E+0	1.325421E+0	1.441158E+0	1.416291E+0	1.430872E+0	1.457556E+0	1.351998E+0	1.441989E+0	1.391870E+0	1.412563E+0	1.407538E+0	1.389053E+0	1.413749E+0	1.470126E+0	1.390596E+0	1.376100E+0	1.416144E+0	1.396258E+0	1.369890E+0	1.388112E+0	1.388051E+0	1.402866E+0	1.423565E+0	1.359484E+0	1.351054E+0	1.419999E+0	1.393624E+0	1.349018E+0	1.423603E+0	1.384915E+0	1.433454E+0	1.425176E+0	1.411078E+0	1.412662E+0	1.394693E+0	1.357255E+0	1.359241E+0	1.448176E+0	1.419177E+0	1.426374E+0	1.366985E+0	1.476246E+0	1.420257E+0	1.342677E+0	1.365238E+0	1.384882E+0	1.455984E+0	1.364022E+0	1.379177E+0	1.387791E+0	1.409377E+0	1.428072E+0
5.440280E+2	1.575700E+0	1.528792E+0	1.516586E+0	1.544464E+0	1.536889E+0	1.538187E+0	1.564232E+0	1.501384E+0	1.488050E+0	1.520865E+0	1.589959E+0	1.525535E+0	1.532966E+0	1.558400E+0	1.526976E+0	1.586492E+0	1.615215E+0	1.544699E+0	1.501150E+0	1.567701E+0	1.498708E+0	1.552208E+0	1.504808E+0	1.572462E+0	1.562217E+0	1.506894E+0	1.536967E+0	1.525501E+0	1.547094E+0	1.570312E+0	1.527365E+0	1.588281E+0	1.564273E+0	1.523572E+0	1.494457E+0	1.509998E+0	1.564688E+0	1.514485E+0	1.522051E+0	1.541179E+0	1.558463E+0	1.607412E+0	1.477111E+0	1.524431E+0	1.589111E+0	1.517104E+0	1.535818E+0	1.516770E+0	1.580717E+0	1.510914E+0	1.570203E+0	1.525043E+0	1.559652E+0	1.530961E+0	1.537117E+0	1.566916E+0	1.530311E+0	1.529260E+0	1.480016E+0	1.520004E+0	1.506362E+0	1.478131E+0	1.533566E+0	1.545173E+0	1.607194E+0	1.544511E+0	1.477602E+0	1.512451E+0	1.519054E+0	1.550325E+0	1.536232E+0	1.550501E+0	1.479581E+0	1.559223E+0	1.501943E+0	1.556535E+0	1.556865E+0	1.440168E+0	1.529711E+0	1.547901E+0	1.538888E+0	1.430835E+0	1.516312E+0	1.486668E+0	1.504471E+0	1.538846E+0	1.527307E+0	1.546989E+0	1.526267E+0	1.534506E+0	1.497481E+0	1.534317E+0	1.548160E+0	1.493835E+0	1.543752E+0	1.490312E+0	1.548566E+0	1.497285E+0	1.516188E+0	1.554123E+0	1.493020E+0	1.508876E+0	1.494614E+0	1.505523E+0	1.511483E+0	1.475120E+0	1.531505E+0	1.558325E+0	1.488448E+0	1.498177E+0	1.472578E+0	1.547007E+0	1.506894E+0	1.447724E+0	1.453550E+0	1.500587E+0	1.531546E+0	1.519352E+0	1.506487E+0	1.553527E+0	1.484371E+0	1.537515E+0	1.513981E+0	1.579880E+0	1.554226E+0	1.543463E+0	1.546029E+0	1.563747E+0	1.496105E+0	1.491438E+0	1.508163E+0	1.494752E+0	1.456959E+0	1.481921E+0	1.442896E+0	1.544182E+0	1.490590E+0	1.451184E+0	1.556565E+0	1.514088E+0	1.510732E+0	1.475912E+0	1.509761E+0	1.520904E+0	1.548679E+0	1.513904E+0	1.513920E+0	1.463385E+0	1.456223E+0	1.480442E+0	1.485521E+0	1.553362E+0	1.479807E+0	1.488821E+0	1.468721E+0	1.470975E+0	1.528440E+0	1.489825E+0	1.529065E+0	1.460024E+0	1.628574E+0	1.434457E+0	1.509631E+0	1.584311E+0	1.590407E+0	1.441297E+0
5.442810E+2	1.605238E+0	1.637979E+0	1.614130E+0	1.603291E+0	1.521825E+0	1.615016E+0	1.578595E+0	1.531806E+0	1.559033E+0	1.531306E+0	1.549846E+0	1.552527E+0	1.584340E+0	1.532828E+0	1.551233E+0	1.596491E+0	1.591687E+0	1.566445E+0	1.587542E+0	1.537742E+0	1.566465E+0	1.556690E+0	1.550818E+0	1.538055E+0	1.664279E+0	1.553721E+0	1.597013E+0	1.595466E+0	1.674644E+0	1.594189E+0	1.578330E+0	1.598090E+0	1.632350E+0	1.542816E+0	1.574675E+0	1.535970E+0	1.527714E+0	1.552945E+0	1.552447E+0	1.615869E+0	1.524147E+0	1.594769E+0	1.547830E+0	1.581788E+0	1.612001E+0	1.547364E+0	1.557605E+0	1.560808E+0	1.601314E+0	1.580615E+0	1.630730E+0	1.613903E+0	1.621453E+0	1.612287E+0	1.534838E+0	1.573417E+0	1.566834E+0	1.578476E+0	1.523147E+0	1.656311E+0	1.551967E+0	1.536672E+0	1.566452E+0	1.601402E+0	1.542020E+0	1.551837E+0	1.585518E+0	1.588147E+0	1.596908E+0	1.627280E+0	1.529718E+0	1.576897E+0	1.507122E+0	1.560705E+0	1.577502E+0	1.622711E+0	1.535558E+0	1.514730E+0	1.587300E+0	1.555006E+0	1.585285E+0	1.568985E+0	1.506602E+0	1.549317E+0	1.588643E+0	1.573345E+0	1.546976E+0	1.624970E+0	1.543009E+0	1.559920E+0	1.517841E+0	1.572475E+0	1.548753E+0	1.528071E+0	1.564761E+0	1.516336E+0	1.605178E+0	1.535220E+0	1.563114E+0	1.554437E+0	1.550673E+0	1.522171E+0	1.564107E+0	1.646377E+0	1.528886E+0	1.542963E+0	1.582014E+0	1.549263E+0	1.570225E+0	1.532911E+0	1.525766E+0	1.591501E+0	1.585299E+0	1.563447E+0	1.545634E+0	1.590868E+0	1.544939E+0	1.527169E+0	1.547333E+0	1.525355E+0	1.532803E+0	1.571840E+0	1.536660E+0	1.573369E+0	1.533251E+0	1.531270E+0	1.525453E+0	1.515916E+0	1.579473E+0	1.555265E+0	1.509544E+0	1.556879E+0	1.537736E+0	1.598135E+0	1.482481E+0	1.594794E+0	1.550638E+0	1.552279E+0	1.489373E+0	1.571633E+0	1.533082E+0	1.533114E+0	1.555873E+0	1.522867E+0	1.521595E+0	1.503016E+0	1.533273E+0	1.572133E+0	1.530964E+0	1.545371E+0	1.587329E+0	1.617519E+0	1.540070E+0	1.536582E+0	1.517141E+0	1.585819E+0	1.542653E+0	1.538744E+0	1.528780E+0	1.585510E+0	1.615983E+0	1.481604E+0	1.502475E+0	1.515109E+0	1.538936E+0	1.427570E+0
5.445400E+2	1.631324E+0	1.551749E+0	1.637049E+0	1.601520E+0	1.631351E+0	1.574717E+0	1.565603E+0	1.580526E+0	1.524410E+0	1.601149E+0	1.579663E+0	1.552489E+0	1.650488E+0	1.592665E+0	1.609048E+0	1.563305E+0	1.589926E+0	1.592696E+0	1.616588E+0	1.564860E+0	1.587654E+0	1.578033E+0	1.612898E+0	1.530826E+0	1.599409E+0	1.559915E+0	1.602038E+0	1.617025E+0	1.653742E+0	1.635389E+0	1.588113E+0	1.605727E+0	1.616046E+0	1.583615E+0	1.612451E+0	1.577665E+0	1.603934E+0	1.523522E+0	1.572915E+0	1.619161E+0	1.581014E+0	1.608085E+0	1.550058E+0	1.608689E+0	1.591310E+0	1.562163E+0	1.571286E+0	1.591043E+0	1.627229E+0	1.543991E+0	1.587158E+0	1.597883E+0	1.614450E+0	1.586759E+0	1.621802E+0	1.536197E+0	1.597995E+0	1.560438E+0	1.577511E+0	1.596349E+0	1.565486E+0	1.524548E+0	1.541894E+0	1.594026E+0	1.603558E+0	1.640517E+0	1.563085E+0	1.582153E+0	1.613282E+0	1.548447E+0	1.528161E+0	1.641117E+0	1.560264E+0	1.566288E+0	1.511216E+0	1.610036E+0	1.617098E+0	1.546595E+0	1.627201E+0	1.598524E+0	1.612460E+0	1.591980E+0	1.567994E+0	1.552201E+0	1.583441E+0	1.557568E+0	1.564313E+0	1.599958E+0	1.566846E+0	1.552333E+0	1.521287E+0	1.632097E+0	1.618857E+0	1.528193E+0	1.606616E+0	1.570502E+0	1.558229E+0	1.550043E+0	1.574611E+0	1.584034E+0	1.547232E+0	1.568833E+0	1.554249E+0	1.577648E+0	1.506337E+0	1.535492E+0	1.574383E+0	1.580990E+0	1.594942E+0	1.547321E+0	1.560088E+0	1.530583E+0	1.607536E+0	1.529321E+0	1.527690E+0	1.548402E+0	1.521633E+0	1.549555E+0	1.540894E+0	1.560483E+0	1.609189E+0	1.564149E+0	1.565199E+0	1.615817E+0	1.612228E+0	1.534612E+0	1.600490E+0	1.580798E+0	1.580404E+0	1.533519E+0	1.502065E+0	1.576325E+0	1.543790E+0	1.580440E+0	1.544449E+0	1.640774E+0	1.615836E+0	1.581001E+0	1.510070E+0	1.584998E+0	1.574323E+0	1.550735E+0	1.536294E+0	1.472217E+0	1.627452E+0	1.541831E+0	1.606313E+0	1.573761E+0	1.596586E+0	1.576252E+0	1.612197E+0	1.583222E+0	1.536551E+0	1.524617E+0	1.537457E+0	1.647387E+0	1.557518E+0	1.515831E+0	1.520139E+0	1.566616E+0	1.614091E+0	1.564671E+0	1.560910E+0	1.554342E+0	1.571534E+0	1.583864E+0
5.447610E+2	1.500009E+0	1.559808E+0	1.562700E+0	1.644358E+0	1.590051E+0	1.580597E+0	1.601484E+0	1.536790E+0	1.534585E+0	1.554644E+0	1.520723E+0	1.487949E+0	1.627161E+0	1.579114E+0	1.623353E+0	1.585600E+0	1.600875E+0	1.520883E+0	1.599360E+0	1.568899E+0	1.544239E+0	1.562950E+0	1.508577E+0	1.527534E+0	1.650741E+0	1.577256E+0	1.568012E+0	1.538153E+0	1.603571E+0	1.530795E+0	1.537313E+0	1.570751E+0	1.597900E+0	1.565793E+0	1.572327E+0	1.539408E+0	1.570166E+0	1.550812E+0	1.534056E+0	1.573535E+0	1.569147E+0	1.540824E+0	1.580894E+0	1.506586E+0	1.545371E+0	1.592189E+0	1.583446E+0	1.590020E+0	1.598166E+0	1.539627E+0	1.614680E+0	1.588273E+0	1.580304E+0	1.557079E+0	1.562160E+0	1.560455E+0	1.562905E+0	1.543876E+0	1.474203E+0	1.563856E+0	1.628027E+0	1.585767E+0	1.543543E+0	1.534363E+0	1.627914E+0	1.593447E+0	1.513845E+0	1.595428E+0	1.567384E+0	1.575086E+0	1.601149E+0	1.617047E+0	1.502635E+0	1.528997E+0	1.636585E+0	1.607762E+0	1.580154E+0	1.564987E+0	1.558788E+0	1.619123E+0	1.639662E+0	1.623847E+0	1.517131E+0	1.508475E+0	1.581910E+0	1.535474E+0	1.577535E+0	1.543598E+0	1.547456E+0	1.507205E+0	1.519960E+0	1.610080E+0	1.549301E+0	1.540209E+0	1.544073E+0	1.524675E+0	1.587373E+0	1.458921E+0	1.503880E+0	1.569204E+0	1.500409E+0	1.608799E+0	1.526905E+0	1.588421E+0	1.585866E+0	1.560679E+0	1.542091E+0	1.599974E+0	1.556112E+0	1.539941E+0	1.578424E+0	1.605876E+0	1.594074E+0	1.573859E+0	1.550586E+0	1.565081E+0	1.570201E+0	1.619029E+0	1.546067E+0	1.571546E+0	1.542520E+0	1.563058E+0	1.555123E+0	1.526511E+0	1.575852E+0	1.516131E+0	1.557328E+0	1.554312E+0	1.647877E+0	1.539672E+0	1.524360E+0	1.547771E+0	1.539091E+0	1.614382E+0	1.542422E+0	1.620941E+0	1.532013E+0	1.581540E+0	1.498464E+0	1.683111E+0	1.533935E+0	1.488661E+0	1.573490E+0	1.560448E+0	1.599106E+0	1.615207E+0	1.595736E+0	1.534798E+0	1.573484E+0	1.548065E+0	1.490661E+0	1.550160E+0	1.525031E+0	1.568105E+0	1.522150E+0	1.588010E+0	1.572924E+0	1.522151E+0	1.484531E+0	1.506974E+0	1.646552E+0	1.513700E+0	1.590131E+0	1.495965E+0	1.456097E+0	1.490467E+0
5.450150E+2	1.520417E+0	1.550974E+0	1.532610E+0	1.538095E+0	1.516376E+0	1.521045E+0	1.508093E+0	1.524631E+0	1.475159E+0	1.474847E+0	1.487159E+0	1.539061E+0	1.506619E+0	1.523772E+0	1.513574E+0	1.490063E+0	1.551636E+0	1.449530E+0	1.458403E+0	1.450225E+0	1.505951E+0	1.469892E+0	1.464630E+0	1.425362E+0	1.551572E+0	1.438328E+0	1.520698E+0	1.496507E+0	1.595611E+0	1.470695E+0	1.532055E+0	1.511644E+0	1.473856E+0	1.543935E+0	1.524547E+0	1.540850E+0	1.474672E+0	1.468768E+0	1.461530E+0	1.483465E+0	1.527206E+0	1.485839E+0	1.493369E+0	1.452430E+0	1.497128E+0	1.507076E+0	1.493911E+0	1.505503E+0	1.521042E+0	1.481491E+0	1.472618E+0	1.489985E+0	1.514568E+0	1.476310E+0	1.513174E+0	1.551694E+0	1.498157E+0	1.463282E+0	1.526482E+0	1.517819E+0	1.505554E+0	1.443448E+0	1.492651E+0	1.545807E+0	1.565549E+0	1.465124E+0	1.463241E+0	1.457727E+0	1.500790E+0	1.493619E+0	1.477460E+0	1.568707E+0	1.497395E+0	1.506170E+0	1.563577E+0	1.541470E+0	1.506880E+0	1.436903E+0	1.451645E+0	1.499723E+0	1.551891E+0	1.450581E+0	1.511366E+0	1.467843E+0	1.549971E+0	1.514613E+0	1.516677E+0	1.468508E+0	1.460922E+0	1.466825E+0	1.550055E+0	1.458944E+0	1.455947E+0	1.465571E+0	1.497419E+0	1.474643E+0	1.516172E+0	1.438637E+0	1.468222E+0	1.494887E+0	1.499821E+0	1.510848E+0	1.489153E+0	1.490412E+0	1.506670E+0	1.425419E+0	1.443110E+0	1.468511E+0	1.534467E+0	1.485908E+0	1.445616E+0	1.534247E+0	1.518926E+0	1.487150E+0	1.426621E+0	1.534054E+0	1.549685E+0	1.478572E+0	1.480428E+0	1.486573E+0	1.470132E+0	1.477428E+0	1.460208E+0	1.478910E+0	1.514323E+0	1.463419E+0	1.531304E+0	1.554338E+0	1.505503E+0	1.509354E+0	1.421722E+0	1.503793E+0	1.469831E+0	1.526627E+0	1.422164E+0	1.549298E+0	1.514443E+0	1.409363E+0	1.490027E+0	1.500914E+0	1.553869E+0	1.468707E+0	1.517579E+0	1.495228E+0	1.403216E+0	1.484579E+0	1.469578E+0	1.487891E+0	1.407620E+0	1.436877E+0	1.495967E+0	1.508359E+0	1.502103E+0	1.478643E+0	1.477515E+0	1.518902E+0	1.504953E+0	1.483272E+0	1.451357E+0	1.497757E+0	1.534753E+0	1.450898E+0	1.481229E+0	1.415085E+0	1.527247E+0	1.448086E+0
5.452640E+2	1.450688E+0	1.444043E+0	1.479765E+0	1.384202E+0	1.415207E+0	1.432449E+0	1.390220E+0	1.367067E+0	1.429895E+0	1.367722E+0	1.446354E+0	1.426326E+0	1.428560E+0	1.411617E+0	1.458115E+0	1.406366E+0	1.464722E+0	1.449006E+0	1.400447E+0	1.417615E+0	1.418867E+0	1.441287E+0	1.407242E+0	1.378236E+0	1.445970E+0	1.378750E+0	1.411357E+0	1.404514E+0	1.455048E+0	1.351635E+0	1.355465E+0	1.368199E+0	1.414979E+0	1.426717E+0	1.448867E+0	1.421240E+0	1.386144E+0	1.374164E+0	1.390309E+0	1.368829E+0	1.449727E+0	1.455813E+0	1.391469E+0	1.412413E+0	1.421747E+0	1.389020E+0	1.461097E+0	1.401328E+0	1.473561E+0	1.389290E+0	1.441600E+0	1.394841E+0	1.433777E+0	1.399607E+0	1.409512E+0	1.407639E+0	1.411874E+0	1.414509E+0	1.414311E+0	1.461918E+0	1.501367E+0	1.455176E+0	1.409116E+0	1.448732E+0	1.394185E+0	1.404481E+0	1.438375E+0	1.396338E+0	1.385069E+0	1.445271E+0	1.402553E+0	1.407137E+0	1.416531E+0	1.368857E+0	1.383989E+0	1.406091E+0	1.384418E+0	1.357169E+0	1.438619E+0	1.405900E+0	1.422571E+0	1.390147E+0	1.382325E+0	1.434468E+0	1.417897E+0	1.426676E+0	1.384405E+0	1.434802E+0	1.423538E+0	1.393327E+0	1.420161E+0	1.369177E+0	1.409610E+0	1.390465E+0	1.388889E+0	1.407350E+0	1.405883E+0	1.401440E+0	1.393059E+0	1.403859E+0	1.382952E+0	1.410170E+0	1.424663E+0	1.447155E+0	1.387666E+0	1.430794E+0	1.418575E+0	1.452964E+0	1.423708E+0	1.418936E+0	1.432216E+0	1.438468E+0	1.404271E+0	1.412383E+0	1.361881E+0	1.469586E+0	1.416063E+0	1.402670E+0	1.380102E+0	1.419051E+0	1.418294E+0	1.469160E+0	1.436446E+0	1.367853E+0	1.434965E+0	1.398664E+0	1.388146E+0	1.403124E+0	1.405421E+0	1.398931E+0	1.411330E+0	1.372409E+0	1.402844E+0	1.404548E+0	1.316916E+0	1.451549E+0	1.396081E+0	1.359872E+0	1.389290E+0	1.432791E+0	1.408737E+0	1.396105E+0	1.400612E+0	1.429185E+0	1.393827E+0	1.353009E+0	1.371663E+0	1.508080E+0	1.350693E+0	1.405163E+0	1.422063E+0	1.446339E+0	1.345758E+0	1.378910E+0	1.337186E+0	1.467637E+0	1.421664E+0	1.390478E+0	1.362027E+0	1.387988E+0	1.381772E+0	1.366231E+0	1.324123E+0	1.354803E+0	1.368816E+0	1.424282E+0
5.455070E+2	1.397290E+0	1.421423E+0	1.357046E+0	1.409344E+0	1.389531E+0	1.397137E+0	1.393106E+0	1.421541E+0	1.345885E+0	1.368756E+0	1.392666E+0	1.379114E+0	1.445807E+0	1.334761E+0	1.345576E+0	1.316883E+0	1.334601E+0	1.365361E+0	1.353239E+0	1.346510E+0	1.369804E+0	1.398084E+0	1.349166E+0	1.390554E+0	1.422926E+0	1.371284E+0	1.387918E+0	1.341335E+0	1.346992E+0	1.379004E+0	1.379060E+0	1.406314E+0	1.421900E+0	1.344107E+0	1.391105E+0	1.312002E+0	1.338291E+0	1.309897E+0	1.364636E+0	1.391197E+0	1.366564E+0	1.380955E+0	1.365338E+0	1.391155E+0	1.395406E+0	1.353083E+0	1.335488E+0	1.397557E+0	1.360918E+0	1.363985E+0	1.378715E+0	1.363601E+0	1.374621E+0	1.334776E+0	1.359062E+0	1.330781E+0	1.395273E+0	1.324651E+0	1.338754E+0	1.365616E+0	1.364728E+0	1.345074E+0	1.365877E+0	1.388288E+0	1.361063E+0	1.406417E+0	1.300512E+0	1.353092E+0	1.397550E+0	1.353010E+0	1.384554E+0	1.362561E+0	1.337388E+0	1.356598E+0	1.340077E+0	1.332061E+0	1.380525E+0	1.337857E+0	1.341466E+0	1.378442E+0	1.399914E+0	1.356285E+0	1.378168E+0	1.289244E+0	1.348046E+0	1.387875E+0	1.314526E+0	1.378465E+0	1.338457E+0	1.363061E+0	1.336413E+0	1.316683E+0	1.368846E+0	1.357016E+0	1.374034E+0	1.336611E+0	1.416049E+0	1.431963E+0	1.359467E+0	1.370313E+0	1.413502E+0	1.304697E+0	1.334272E+0	1.366752E+0	1.378096E+0	1.361326E+0	1.335279E+0	1.342408E+0	1.356706E+0	1.352366E+0	1.348243E+0	1.336452E+0	1.374221E+0	1.387379E+0	1.331486E+0	1.377360E+0	1.346795E+0	1.370234E+0	1.288951E+0	1.421901E+0	1.317494E+0	1.363058E+0	1.360832E+0	1.308129E+0	1.441965E+0	1.356819E+0	1.344558E+0	1.319607E+0	1.285500E+0	1.362452E+0	1.355370E+0	1.328653E+0	1.338044E+0	1.360040E+0	1.331049E+0	1.373979E+0	1.322846E+0	1.336878E+0	1.344292E+0	1.349856E+0	1.390100E+0	1.328699E+0	1.364882E+0	1.351399E+0	1.395162E+0	1.397910E+0	1.368723E+0	1.340087E+0	1.411253E+0	1.374644E+0	1.334334E+0	1.369512E+0	1.374522E+0	1.350484E+0	1.387179E+0	1.357127E+0	1.365293E+0	1.371685E+0	1.368837E+0	1.354934E+0	1.375353E+0	1.306773E+0	1.299313E+0	1.413015E+0	1.385098E+0	1.387025E+0
5.457670E+2	1.271904E+0	1.304430E+0	1.320833E+0	1.334202E+0	1.283881E+0	1.298317E+0	1.299212E+0	1.303690E+0	1.283590E+0	1.255115E+0	1.238254E+0	1.302592E+0	1.310391E+0	1.300851E+0	1.326226E+0	1.270921E+0	1.308889E+0	1.274069E+0	1.299609E+0	1.288603E+0	1.302584E+0	1.288404E+0	1.285389E+0	1.320402E+0	1.339108E+0	1.229447E+0	1.333079E+0	1.269371E+0	1.364089E+0	1.311938E+0	1.309859E+0	1.291551E+0	1.336727E+0	1.283909E+0	1.281252E+0	1.254385E+0	1.255416E+0	1.318612E+0	1.281559E+0	1.304795E+0	1.281829E+0	1.280138E+0	1.293470E+0	1.308714E+0	1.323530E+0	1.308170E+0	1.306133E+0	1.272360E+0	1.342397E+0	1.267427E+0	1.277932E+0	1.262603E+0	1.223666E+0	1.297893E+0	1.296004E+0	1.273885E+0	1.299949E+0	1.215491E+0	1.257868E+0	1.315461E+0	1.321278E+0	1.250467E+0	1.271113E+0	1.284163E+0	1.291245E+0	1.326040E+0	1.231647E+0	1.260052E+0	1.320880E+0	1.271665E+0	1.258515E+0	1.299991E+0	1.288976E+0	1.295229E+0	1.276123E+0	1.308809E+0	1.222123E+0	1.217609E+0	1.320456E+0	1.260897E+0	1.299054E+0	1.309273E+0	1.238712E+0	1.224458E+0	1.283967E+0	1.266445E+0	1.230735E+0	1.293203E+0	1.274067E+0	1.286611E+0	1.241305E+0	1.307193E+0	1.341758E+0	1.239596E+0	1.252012E+0	1.238440E+0	1.330259E+0	1.284180E+0	1.253937E+0	1.279786E+0	1.275633E+0	1.292675E+0	1.261579E+0	1.235418E+0	1.234386E+0	1.240985E+0	1.279896E+0	1.242183E+0	1.265728E+0	1.259737E+0	1.257040E+0	1.330884E+0	1.309060E+0	1.250611E+0	1.278317E+0	1.285219E+0	1.307709E+0	1.222738E+0	1.234400E+0	1.287826E+0	1.274990E+0	1.299721E+0	1.220312E+0	1.262819E+0	1.302475E+0	1.220156E+0	1.292415E+0	1.221527E+0	1.303068E+0	1.323244E+0	1.280269E+0	1.243262E+0	1.300527E+0	1.275998E+0	1.226800E+0	1.343297E+0	1.298291E+0	1.289021E+0	1.255281E+0	1.330801E+0	1.279596E+0	1.269396E+0	1.346966E+0	1.339270E+0	1.330657E+0	1.298001E+0	1.277809E+0	1.263810E+0	1.286968E+0	1.272051E+0	1.315772E+0	1.313565E+0	1.309094E+0	1.241525E+0	1.239477E+0	1.286540E+0	1.247434E+0	1.229200E+0	1.261133E+0	1.273909E+0	1.313514E+0	1.270935E+0	1.261258E+0	1.305007E+0	1.300276E+0	1.341116E+0
5.460060E+2	1.278317E+0	1.235438E+0	1.226716E+0	1.271632E+0	1.230302E+0	1.252482E+0	1.268445E+0	1.255262E+0	1.208811E+0	1.149745E+0	1.230718E+0	1.225572E+0	1.221569E+0	1.276143E+0	1.197173E+0	1.234588E+0	1.199874E+0	1.209975E+0	1.264305E+0	1.212111E+0	1.227505E+0	1.187753E+0	1.240898E+0	1.252609E+0	1.309745E+0	1.241751E+0	1.287339E+0	1.238498E+0	1.234510E+0	1.261040E+0	1.218748E+0	1.247673E+0	1.244626E+0	1.208051E+0	1.198929E+0	1.219027E+0	1.228840E+0	1.184748E+0	1.263232E+0	1.185492E+0	1.208222E+0	1.255559E+0	1.208485E+0	1.232498E+0	1.267678E+0	1.230433E+0	1.220726E+0	1.170466E+0	1.269474E+0	1.234853E+0	1.250207E+0	1.248159E+0	1.258544E+0	1.187681E+0	1.270900E+0	1.180712E+0	1.245573E+0	1.203962E+0	1.204555E+0	1.281251E+0	1.247191E+0	1.227586E+0	1.214440E+0	1.218735E+0	1.219973E+0	1.248615E+0	1.226435E+0	1.273530E+0	1.212559E+0	1.230645E+0	1.223046E+0	1.247874E+0	1.246087E+0	1.203156E+0	1.232888E+0	1.259492E+0	1.266378E+0	1.219631E+0	1.240310E+0	1.248896E+0	1.285938E+0	1.253666E+0	1.256294E+0	1.203059E+0	1.270597E+0	1.207974E+0	1.209403E+0	1.253407E+0	1.207098E+0	1.289358E+0	1.184209E+0	1.236855E+0	1.194893E+0	1.214035E+0	1.234093E+0	1.179308E+0	1.223108E+0	1.228682E+0	1.192969E+0	1.275277E+0	1.247762E+0	1.251831E+0	1.225947E+0	1.168605E+0	1.235930E+0	1.267779E+0	1.243554E+0	1.261604E+0	1.234245E+0	1.182246E+0	1.290623E+0	1.252459E+0	1.267914E+0	1.176632E+0	1.193654E+0	1.255414E+0	1.211114E+0	1.214691E+0	1.190614E+0	1.313902E+0	1.254314E+0	1.257847E+0	1.242452E+0	1.257322E+0	1.242530E+0	1.198852E+0	1.238760E+0	1.218070E+0	1.233151E+0	1.290441E+0	1.192568E+0	1.235273E+0	1.222707E+0	1.231412E+0	1.187346E+0	1.248752E+0	1.224774E+0	1.237558E+0	1.283647E+0	1.261332E+0	1.299558E+0	1.169524E+0	1.209285E+0	1.185053E+0	1.246569E+0	1.239449E+0	1.220714E+0	1.201408E+0	1.237748E+0	1.200066E+0	1.246331E+0	1.252274E+0	1.262812E+0	1.221143E+0	1.166839E+0	1.268064E+0	1.264234E+0	1.191008E+0	1.231525E+0	1.189123E+0	1.297984E+0	1.208354E+0	1.227690E+0	1.209075E+0	1.178689E+0	1.257064E+0
5.467660E+2	1.194714E+0	1.117143E+0	1.191431E+0	1.194668E+0	1.206988E+0	1.203492E+0	1.238157E+0	1.214205E+0	1.183245E+0	1.190527E+0	1.192496E+0	1.237546E+0	1.169600E+0	1.201485E+0	1.182038E+0	1.219555E+0	1.146056E+0	1.163266E+0	1.241016E+0	1.181749E+0	1.184100E+0	1.180344E+0	1.230828E+0	1.230923E+0	1.232892E+0	1.200160E+0	1.205431E+0	1.230786E+0	1.277361E+0	1.155997E+0	1.206323E+0	1.203113E+0	1.193697E+0	1.147817E+0	1.211625E+0	1.155279E+0	1.193800E+0	1.198124E+0	1.242036E+0	1.219387E+0	1.159227E+0	1.152552E+0	1.188110E+0	1.183387E+0	1.203307E+0	1.209161E+0	1.208807E+0	1.127884E+0	1.236012E+0	1.210686E+0	1.226129E+0	1.151163E+0	1.157274E+0	1.196730E+0	1.222595E+0	1.185414E+0	1.179551E+0	1.172249E+0	1.167115E+0	1.183168E+0	1.202061E+0	1.154098E+0	1.181141E+0	1.198325E+0	1.212845E+0	1.196179E+0	1.212678E+0	1.178138E+0	1.159839E+0	1.230819E+0	1.210902E+0	1.184879E+0	1.199595E+0	1.171526E+0	1.187991E+0	1.177784E+0	1.200615E+0	1.141066E+0	1.142734E+0	1.166304E+0	1.128418E+0	1.212319E+0	1.167084E+0	1.218780E+0	1.231232E+0	1.140385E+0	1.164813E+0	1.226213E+0	1.217100E+0	1.264955E+0	1.160265E+0	1.148296E+0	1.177380E+0	1.183715E+0	1.175518E+0	1.161403E+0	1.274147E+0	1.211917E+0	1.195854E+0	1.232320E+0	1.171673E+0	1.173827E+0	1.182716E+0	1.209353E+0	1.181325E+0	1.217179E+0	1.131751E+0	1.222339E+0	1.180224E+0	1.148466E+0	1.157770E+0	1.212639E+0	1.190320E+0	1.221151E+0	1.200500E+0	1.222241E+0	1.191621E+0	1.206742E+0	1.170824E+0	1.189959E+0	1.198934E+0	1.159896E+0	1.184074E+0	1.175078E+0	1.265062E+0	1.185013E+0	1.188781E+0	1.221782E+0	1.203747E+0	1.156013E+0	1.160659E+0	1.210342E+0	1.181184E+0	1.178185E+0	1.216371E+0	1.156192E+0	1.165196E+0	1.123438E+0	1.164723E+0	1.249740E+0	1.171640E+0	1.196212E+0	1.199119E+0	1.178543E+0	1.183913E+0	1.220501E+0	1.182082E+0	1.155174E+0	1.187851E+0	1.165613E+0	1.233676E+0	1.160726E+0	1.156250E+0	1.195820E+0	1.197927E+0	1.179577E+0	1.233451E+0	1.152776E+0	1.135256E+0	1.170240E+0	1.181067E+0	1.167459E+0	1.165915E+0	1.181782E+0	1.218212E+0	1.250370E+0
5.475340E+2	1.316693E+0	1.310623E+0	1.283048E+0	1.327679E+0	1.289736E+0	1.293856E+0	1.314509E+0	1.324358E+0	1.337631E+0	1.264055E+0	1.249872E+0	1.289334E+0	1.308122E+0	1.277905E+0	1.346369E+0	1.356615E+0	1.289427E+0	1.283425E+0	1.254904E+0	1.316215E+0	1.307905E+0	1.312434E+0	1.319092E+0	1.280224E+0	1.337287E+0	1.268051E+0	1.280376E+0	1.296576E+0	1.344895E+0	1.316258E+0	1.312877E+0	1.305915E+0	1.281665E+0	1.344332E+0	1.211900E+0	1.294330E+0	1.334581E+0	1.309107E+0	1.330541E+0	1.264128E+0	1.352486E+0	1.346872E+0	1.267150E+0	1.308880E+0	1.365002E+0	1.270692E+0	1.354482E+0	1.295563E+0	1.364873E+0	1.321248E+0	1.340909E+0	1.297806E+0	1.304330E+0	1.273264E+0	1.269239E+0	1.276655E+0	1.323003E+0	1.311974E+0	1.264525E+0	1.282343E+0	1.330277E+0	1.289028E+0	1.285097E+0	1.321130E+0	1.270179E+0	1.368321E+0	1.274576E+0	1.340382E+0	1.344899E+0	1.298267E+0	1.329194E+0	1.314664E+0	1.295881E+0	1.293703E+0	1.287953E+0	1.276120E+0	1.311692E+0	1.316876E+0	1.267638E+0	1.320844E+0	1.267831E+0	1.236499E+0	1.269162E+0	1.252011E+0	1.357584E+0	1.310095E+0	1.346796E+0	1.315117E+0	1.302957E+0	1.254465E+0	1.290875E+0	1.311731E+0	1.320748E+0	1.298537E+0	1.329032E+0	1.310033E+0	1.322120E+0	1.291539E+0	1.333216E+0	1.298506E+0	1.308671E+0	1.275182E+0	1.309451E+0	1.296392E+0	1.259456E+0	1.294790E+0	1.294398E+0	1.224121E+0	1.300019E+0	1.265451E+0	1.286558E+0	1.350786E+0	1.310770E+0	1.280807E+0	1.278759E+0	1.351466E+0	1.247805E+0	1.294128E+0	1.298173E+0	1.321859E+0	1.302086E+0	1.313803E+0	1.297898E+0	1.279178E+0	1.319739E+0	1.297171E+0	1.314628E+0	1.245970E+0	1.373137E+0	1.296516E+0	1.224149E+0	1.309647E+0	1.253337E+0	1.292796E+0	1.293683E+0	1.312449E+0	1.291195E+0	1.260207E+0	1.317158E+0	1.320071E+0	1.294883E+0	1.274506E+0	1.302030E+0	1.305298E+0	1.322051E+0	1.261967E+0	1.313750E+0	1.296768E+0	1.284092E+0	1.288839E+0	1.244152E+0	1.324605E+0	1.321489E+0	1.334402E+0	1.260837E+0	1.251494E+0	1.314320E+0	1.303749E+0	1.220137E+0	1.260362E+0	1.307708E+0	1.282016E+0	1.324436E+0	1.198999E+0	1.328379E+0	1.251388E+0
5.482660E+2	1.401192E+0	1.369256E+0	1.401054E+0	1.387004E+0	1.386218E+0	1.421547E+0	1.402697E+0	1.417817E+0	1.344948E+0	1.371813E+0	1.389700E+0	1.363130E+0	1.411686E+0	1.379784E+0	1.394449E+0	1.422272E+0	1.400406E+0	1.373393E+0	1.343627E+0	1.367512E+0	1.362652E+0	1.386213E+0	1.426255E+0	1.379557E+0	1.445847E+0	1.387178E+0	1.372908E+0	1.403360E+0	1.385158E+0	1.378561E+0	1.382560E+0	1.342195E+0	1.398627E+0	1.378436E+0	1.389485E+0	1.366816E+0	1.330820E+0	1.315556E+0	1.375879E+0	1.416041E+0	1.392923E+0	1.389358E+0	1.369670E+0	1.451494E+0	1.381395E+0	1.355455E+0	1.407851E+0	1.365961E+0	1.444730E+0	1.370209E+0	1.386524E+0	1.329588E+0	1.402287E+0	1.404579E+0	1.395262E+0	1.363572E+0	1.389819E+0	1.363132E+0	1.350795E+0	1.407720E+0	1.437876E+0	1.374781E+0	1.345432E+0	1.433834E+0	1.417587E+0	1.365377E+0	1.336383E+0	1.385591E+0	1.381353E+0	1.367374E+0	1.370640E+0	1.369286E+0	1.376779E+0	1.355716E+0	1.379555E+0	1.388075E+0	1.351315E+0	1.372306E+0	1.360454E+0	1.419040E+0	1.447190E+0	1.355265E+0	1.355461E+0	1.345422E+0	1.366731E+0	1.374180E+0	1.388536E+0	1.372212E+0	1.348309E+0	1.326840E+0	1.370781E+0	1.370552E+0	1.361981E+0	1.305978E+0	1.358840E+0	1.361416E+0	1.404591E+0	1.330796E+0	1.372336E+0	1.390212E+0	1.400813E+0	1.359145E+0	1.365773E+0	1.364589E+0	1.442795E+0	1.298878E+0	1.352741E+0	1.368561E+0	1.430714E+0	1.336733E+0	1.349973E+0	1.395735E+0	1.383677E+0	1.340750E+0	1.371848E+0	1.416516E+0	1.365529E+0	1.288268E+0	1.396973E+0	1.389129E+0	1.351845E+0	1.392267E+0	1.373585E+0	1.336847E+0	1.450104E+0	1.371298E+0	1.349141E+0	1.373046E+0	1.357358E+0	1.377204E+0	1.373303E+0	1.388909E+0	1.356979E+0	1.380219E+0	1.373792E+0	1.336544E+0	1.389497E+0	1.389952E+0	1.372631E+0	1.383462E+0	1.407049E+0	1.302627E+0	1.441952E+0	1.326342E+0	1.393632E+0	1.342425E+0	1.382191E+0	1.303567E+0	1.351889E+0	1.354880E+0	1.326669E+0	1.368820E+0	1.370407E+0	1.366500E+0	1.395406E+0	1.411491E+0	1.395980E+0	1.322171E+0	1.346394E+0	1.305581E+0	1.406834E+0	1.384808E+0	1.383755E+0	1.393905E+0	1.419781E+0	1.304391E+0
5.490160E+2	1.364525E+0	1.425142E+0	1.428316E+0	1.433175E+0	1.353527E+0	1.375239E+0	1.452994E+0	1.357389E+0	1.379496E+0	1.355945E+0	1.356711E+0	1.367063E+0	1.397708E+0	1.390829E+0	1.424336E+0	1.363275E+0	1.404464E+0	1.413830E+0	1.374856E+0	1.338904E+0	1.377533E+0	1.378513E+0	1.372047E+0	1.372280E+0	1.450907E+0	1.405178E+0	1.387047E+0	1.385065E+0	1.449007E+0	1.419424E+0	1.363983E+0	1.389703E+0	1.430836E+0	1.399085E+0	1.429775E+0	1.383207E+0	1.437227E+0	1.367549E+0	1.373959E+0	1.331801E+0	1.372499E+0	1.368226E+0	1.335740E+0	1.355876E+0	1.413645E+0	1.368767E+0	1.411967E+0	1.370368E+0	1.422550E+0	1.398670E+0	1.354238E+0	1.377926E+0	1.376398E+0	1.384155E+0	1.362392E+0	1.378243E+0	1.469311E+0	1.405079E+0	1.362645E+0	1.424198E+0	1.434264E+0	1.339313E+0	1.407576E+0	1.447789E+0	1.413685E+0	1.373979E+0	1.403957E+0	1.354791E+0	1.412913E+0	1.498485E+0	1.404179E+0	1.418398E+0	1.386602E+0	1.386143E+0	1.403209E+0	1.385780E+0	1.383171E+0	1.378898E+0	1.361130E+0	1.387507E+0	1.467056E+0	1.305313E+0	1.380173E+0	1.371556E+0	1.411496E+0	1.377173E+0	1.341054E+0	1.420160E+0	1.402394E+0	1.345017E+0	1.349199E+0	1.307013E+0	1.443984E+0	1.359175E+0	1.365097E+0	1.328403E+0	1.426918E+0	1.344107E+0	1.362048E+0	1.387667E+0	1.377996E+0	1.413967E+0	1.362310E+0	1.418435E+0	1.353138E+0	1.347066E+0	1.405553E+0	1.345075E+0	1.407000E+0	1.362941E+0	1.340712E+0	1.423266E+0	1.353082E+0	1.444585E+0	1.411681E+0	1.377329E+0	1.337795E+0	1.353290E+0	1.336659E+0	1.396778E+0	1.416629E+0	1.357451E+0	1.395170E+0	1.395166E+0	1.418683E+0	1.434715E+0	1.354593E+0	1.368125E+0	1.376122E+0	1.347817E+0	1.362519E+0	1.302455E+0	1.390690E+0	1.319162E+0	1.354204E+0	1.350377E+0	1.361312E+0	1.378993E+0	1.368467E+0	1.409163E+0	1.389249E+0	1.317328E+0	1.415917E+0	1.299459E+0	1.365099E+0	1.380297E+0	1.350107E+0	1.380787E+0	1.434241E+0	1.342935E+0	1.411205E+0	1.361045E+0	1.389561E+0	1.307823E+0	1.333753E+0	1.412952E+0	1.384846E+0	1.307823E+0	1.390107E+0	1.343963E+0	1.396896E+0	1.391414E+0	1.421441E+0	1.371162E+0	1.434438E+0	1.324378E+0
5.497570E+2	1.354940E+0	1.355444E+0	1.345289E+0	1.360199E+0	1.316015E+0	1.310416E+0	1.323906E+0	1.309233E+0	1.326470E+0	1.260683E+0	1.394497E+0	1.363469E+0	1.323611E+0	1.282086E+0	1.340653E+0	1.333822E+0	1.329500E+0	1.367913E+0	1.340846E+0	1.327750E+0	1.354685E+0	1.242456E+0	1.308367E+0	1.343218E+0	1.426576E+0	1.330195E+0	1.425180E+0	1.334573E+0	1.409449E+0	1.366956E+0	1.327333E+0	1.366345E+0	1.377427E+0	1.316100E+0	1.356897E+0	1.279619E+0	1.337656E+0	1.323374E+0	1.319437E+0	1.327507E+0	1.317104E+0	1.385243E+0	1.349176E+0	1.368938E+0	1.357736E+0	1.365966E+0	1.386136E+0	1.321581E+0	1.442690E+0	1.315013E+0	1.331196E+0	1.320581E+0	1.355949E+0	1.324408E+0	1.301274E+0	1.313499E+0	1.343590E+0	1.300469E+0	1.273238E+0	1.343889E+0	1.387986E+0	1.288163E+0	1.350299E+0	1.401773E+0	1.322999E+0	1.336265E+0	1.278759E+0	1.357154E+0	1.334979E+0	1.327537E+0	1.311624E+0	1.374705E+0	1.364264E+0	1.311038E+0	1.303248E+0	1.370427E+0	1.327398E+0	1.275292E+0	1.379468E+0	1.415614E+0	1.330955E+0	1.304006E+0	1.326208E+0	1.317064E+0	1.359892E+0	1.350436E+0	1.357060E+0	1.331671E+0	1.308594E+0	1.320070E+0	1.370718E+0	1.318339E+0	1.326704E+0	1.300606E+0	1.348607E+0	1.362282E+0	1.367121E+0	1.303559E+0	1.323575E+0	1.371633E+0	1.310313E+0	1.302313E+0	1.310721E+0	1.316477E+0	1.314986E+0	1.288956E+0	1.343963E+0	1.333553E+0	1.374184E+0	1.319527E+0	1.322689E+0	1.289429E+0	1.279440E+0	1.321957E+0	1.307078E+0	1.296264E+0	1.338924E+0	1.350073E+0	1.350507E+0	1.378481E+0	1.353672E+0	1.354184E+0	1.316316E+0	1.297763E+0	1.286113E+0	1.335450E+0	1.347471E+0	1.357772E+0	1.363237E+0	1.249866E+0	1.344238E+0	1.288060E+0	1.363382E+0	1.359493E+0	1.312681E+0	1.338641E+0	1.336077E+0	1.316821E+0	1.336785E+0	1.395647E+0	1.358757E+0	1.324099E+0	1.334260E+0	1.327477E+0	1.310973E+0	1.369782E+0	1.334222E+0	1.306722E+0	1.339955E+0	1.314739E+0	1.329075E+0	1.314646E+0	1.407122E+0	1.326886E+0	1.276656E+0	1.292506E+0	1.393570E+0	1.320174E+0	1.299116E+0	1.268356E+0	1.374977E+0	1.340490E+0	1.351916E+0	1.254476E+0	1.301346E+0	1.347064E+0
5.505110E+2	1.357662E+0	1.361100E+0	1.366725E+0	1.386647E+0	1.289272E+0	1.339211E+0	1.324290E+0	1.333106E+0	1.346408E+0	1.280064E+0	1.349655E+0	1.292415E+0	1.357009E+0	1.300236E+0	1.374280E+0	1.380147E+0	1.338480E+0	1.322634E+0	1.312688E+0	1.261552E+0	1.336924E+0	1.308434E+0	1.346191E+0	1.367933E+0	1.391945E+0	1.269135E+0	1.313441E+0	1.342613E+0	1.367447E+0	1.300311E+0	1.351011E+0	1.320126E+0	1.392212E+0	1.354319E+0	1.327364E+0	1.291496E+0	1.368132E+0	1.324236E+0	1.323469E+0	1.278447E+0	1.332412E+0	1.321028E+0	1.341172E+0	1.309737E+0	1.381601E+0	1.311229E+0	1.320427E+0	1.337804E+0	1.356679E+0	1.354737E+0	1.368298E+0	1.325963E+0	1.399977E+0	1.369891E+0	1.292205E+0	1.325535E+0	1.304768E+0	1.267132E+0	1.320918E+0	1.316136E+0	1.370535E+0	1.282017E+0	1.311212E+0	1.350450E+0	1.340940E+0	1.288150E+0	1.330302E+0	1.317230E+0	1.286874E+0	1.365358E+0	1.345876E+0	1.321182E+0	1.295912E+0	1.342215E+0	1.245423E+0	1.325924E+0	1.279142E+0	1.323902E+0	1.319747E+0	1.261394E+0	1.301119E+0	1.313107E+0	1.273839E+0	1.261225E+0	1.302204E+0	1.281870E+0	1.287846E+0	1.277714E+0	1.388895E+0	1.300655E+0	1.305248E+0	1.373301E+0	1.329859E+0	1.289107E+0	1.340722E+0	1.296247E+0	1.353115E+0	1.335392E+0	1.306619E+0	1.357044E+0	1.314670E+0	1.314945E+0	1.281824E+0	1.301694E+0	1.315902E+0	1.350373E+0	1.287911E+0	1.293778E+0	1.314590E+0	1.342120E+0	1.288487E+0	1.362545E+0	1.326143E+0	1.314927E+0	1.306385E+0	1.312015E+0	1.282953E+0	1.356109E+0	1.341385E+0	1.294146E+0	1.311597E+0	1.296551E+0	1.303908E+0	1.317972E+0	1.406870E+0	1.309660E+0	1.294384E+0	1.339691E+0	1.310434E+0	1.291809E+0	1.292241E+0	1.328465E+0	1.309351E+0	1.325624E+0	1.266501E+0	1.317972E+0	1.301682E+0	1.307641E+0	1.315795E+0	1.309037E+0	1.343777E+0	1.261967E+0	1.345222E+0	1.280685E+0	1.318537E+0	1.276379E+0	1.363281E+0	1.361686E+0	1.305244E+0	1.315518E+0	1.353089E+0	1.332205E+0	1.347409E+0	1.286700E+0	1.281958E+0	1.356794E+0	1.347717E+0	1.276074E+0	1.302932E+0	1.272133E+0	1.356016E+0	1.300530E+0	1.278941E+0	1.268761E+0	1.389546E+0	1.224452E+0
5.512570E+2	1.295632E+0	1.351895E+0	1.261390E+0	1.295397E+0	1.298180E+0	1.361736E+0	1.327999E+0	1.343739E+0	1.296778E+0	1.291488E+0	1.338392E+0	1.307084E+0	1.310469E+0	1.310144E+0	1.367323E+0	1.301522E+0	1.322069E+0	1.297871E+0	1.251556E+0	1.318114E+0	1.323946E+0	1.351689E+0	1.316360E+0	1.265478E+0	1.351478E+0	1.281346E+0	1.287669E+0	1.318123E+0	1.371787E+0	1.353337E+0	1.323174E+0	1.298344E+0	1.342589E+0	1.334765E+0	1.318025E+0	1.326025E+0	1.342977E+0	1.250014E+0	1.264663E+0	1.387700E+0	1.291688E+0	1.344388E+0	1.338425E+0	1.287212E+0	1.301792E+0	1.332379E+0	1.305841E+0	1.327150E+0	1.350189E+0	1.313738E+0	1.288036E+0	1.322381E+0	1.295936E+0	1.294334E+0	1.315966E+0	1.315880E+0	1.290217E+0	1.296289E+0	1.286691E+0	1.318589E+0	1.336341E+0	1.252407E+0	1.301665E+0	1.307772E+0	1.340449E+0	1.324564E+0	1.362110E+0	1.317042E+0	1.269467E+0	1.370471E+0	1.338336E+0	1.312299E+0	1.372324E+0	1.315852E+0	1.289761E+0	1.281459E+0	1.341047E+0	1.280939E+0	1.355166E+0	1.321412E+0	1.346661E+0	1.305797E+0	1.261227E+0	1.259525E+0	1.316138E+0	1.287484E+0	1.323193E+0	1.273457E+0	1.317330E+0	1.281001E+0	1.332901E+0	1.295617E+0	1.349330E+0	1.290726E+0	1.283549E+0	1.323178E+0	1.346507E+0	1.309923E+0	1.326033E+0	1.273369E+0	1.303189E+0	1.264521E+0	1.300640E+0	1.314028E+0	1.264927E+0	1.296946E+0	1.331025E+0	1.310347E+0	1.327180E+0	1.273209E+0	1.287369E+0	1.311008E+0	1.297017E+0	1.286328E+0	1.234624E+0	1.323338E+0	1.327919E+0	1.274089E+0	1.230357E+0	1.344690E+0	1.286539E+0	1.317011E+0	1.269780E+0	1.284670E+0	1.318035E+0	1.328720E+0	1.334082E+0	1.370650E+0	1.363701E+0	1.289601E+0	1.293861E+0	1.325398E+0	1.318771E+0	1.332648E+0	1.289148E+0	1.305111E+0	1.266656E+0	1.283298E+0	1.322825E+0	1.296408E+0	1.338698E+0	1.308660E+0	1.354315E+0	1.317659E+0	1.289016E+0	1.282951E+0	1.330363E+0	1.308799E+0	1.283632E+0	1.283435E+0	1.321574E+0	1.314968E+0	1.330206E+0	1.321828E+0	1.289292E+0	1.345000E+0	1.310012E+0	1.277077E+0	1.271407E+0	1.278550E+0	1.296423E+0	1.293027E+0	1.336332E+0	1.286028E+0	1.298858E+0	1.293535E+0
5.520150E+2	1.360922E+0	1.289534E+0	1.311842E+0	1.303209E+0	1.331225E+0	1.372977E+0	1.338011E+0	1.317277E+0	1.278272E+0	1.297993E+0	1.298808E+0	1.282094E+0	1.259024E+0	1.282283E+0	1.266011E+0	1.300527E+0	1.285788E+0	1.294152E+0	1.361677E+0	1.304472E+0	1.285669E+0	1.333009E+0	1.284733E+0	1.326351E+0	1.276798E+0	1.297018E+0	1.317555E+0	1.235551E+0	1.342458E+0	1.401825E+0	1.275589E+0	1.326961E+0	1.315004E+0	1.291672E+0	1.326276E+0	1.276838E+0	1.288377E+0	1.245039E+0	1.281867E+0	1.300547E+0	1.281653E+0	1.326098E+0	1.373834E+0	1.286539E+0	1.305927E+0	1.276065E+0	1.405047E+0	1.304748E+0	1.340579E+0	1.338877E+0	1.302666E+0	1.310033E+0	1.288973E+0	1.327422E+0	1.305282E+0	1.286145E+0	1.249369E+0	1.275437E+0	1.272400E+0	1.287771E+0	1.347821E+0	1.250855E+0	1.299966E+0	1.356957E+0	1.305286E+0	1.351933E+0	1.322378E+0	1.262875E+0	1.310948E+0	1.285363E+0	1.303222E+0	1.344531E+0	1.311128E+0	1.265301E+0	1.294421E+0	1.237601E+0	1.289721E+0	1.317342E+0	1.338888E+0	1.267834E+0	1.304408E+0	1.265647E+0	1.216099E+0	1.251825E+0	1.338660E+0	1.265992E+0	1.277078E+0	1.299143E+0	1.327833E+0	1.314034E+0	1.271210E+0	1.254120E+0	1.326582E+0	1.286364E+0	1.307089E+0	1.259026E+0	1.332861E+0	1.270762E+0	1.249140E+0	1.368217E+0	1.241208E+0	1.350525E+0	1.319823E+0	1.312249E+0	1.296578E+0	1.300435E+0	1.253860E+0	1.293061E+0	1.349136E+0	1.272664E+0	1.289735E+0	1.313055E+0	1.331896E+0	1.291931E+0	1.259006E+0	1.287298E+0	1.337185E+0	1.307777E+0	1.229984E+0	1.272274E+0	1.329395E+0	1.321589E+0	1.291113E+0	1.278744E+0	1.316456E+0	1.309795E+0	1.305686E+0	1.320451E+0	1.302519E+0	1.297719E+0	1.263874E+0	1.350525E+0	1.294164E+0	1.305383E+0	1.207580E+0	1.321791E+0	1.314203E+0	1.335084E+0	1.317528E+0	1.348883E+0	1.304528E+0	1.309572E+0	1.310908E+0	1.281589E+0	1.361133E+0	1.315920E+0	1.311909E+0	1.320914E+0	1.282120E+0	1.300301E+0	1.322512E+0	1.332728E+0	1.322208E+0	1.284687E+0	1.299287E+0	1.279502E+0	1.256268E+0	1.306329E+0	1.236903E+0	1.309938E+0	1.390877E+0	1.248932E+0	1.234509E+0	1.270155E+0	1.274171E+0	1.361578E+0
5.527650E+2	1.249425E+0	1.315526E+0	1.291670E+0	1.270355E+0	1.258987E+0	1.259018E+0	1.330440E+0	1.245248E+0	1.285113E+0	1.241332E+0	1.276523E+0	1.287451E+0	1.235854E+0	1.258404E+0	1.254665E+0	1.287868E+0	1.277481E+0	1.285208E+0	1.309642E+0	1.244647E+0	1.248436E+0	1.200160E+0	1.277998E+0	1.270278E+0	1.284069E+0	1.247915E+0	1.292574E+0	1.252855E+0	1.332895E+0	1.262340E+0	1.236819E+0	1.312875E+0	1.261053E+0	1.272478E+0	1.302818E+0	1.252557E+0	1.307250E+0	1.301037E+0	1.292422E+0	1.272291E+0	1.240983E+0	1.246370E+0	1.237116E+0	1.296948E+0	1.283848E+0	1.264249E+0	1.293226E+0	1.301636E+0	1.274638E+0	1.332162E+0	1.274322E+0	1.201022E+0	1.276590E+0	1.215911E+0	1.301729E+0	1.288388E+0	1.345264E+0	1.259461E+0	1.253277E+0	1.224075E+0	1.223640E+0	1.245858E+0	1.256279E+0	1.304009E+0	1.309982E+0	1.260598E+0	1.332043E+0	1.254754E+0	1.292888E+0	1.278238E+0	1.293349E+0	1.300936E+0	1.295944E+0	1.236278E+0	1.241596E+0	1.228597E+0	1.243785E+0	1.253824E+0	1.292764E+0	1.300005E+0	1.292094E+0	1.278901E+0	1.333157E+0	1.202364E+0	1.238486E+0	1.289565E+0	1.184613E+0	1.242760E+0	1.338902E+0	1.212514E+0	1.245821E+0	1.226215E+0	1.283429E+0	1.212900E+0	1.256380E+0	1.297544E+0	1.253097E+0	1.252209E+0	1.265543E+0	1.245535E+0	1.308616E+0	1.261890E+0	1.236865E+0	1.221188E+0	1.258133E+0	1.296459E+0	1.275309E+0	1.270050E+0	1.293468E+0	1.251502E+0	1.242747E+0	1.295247E+0	1.274745E+0	1.289172E+0	1.228732E+0	1.314484E+0	1.295166E+0	1.284490E+0	1.327585E+0	1.264850E+0	1.248358E+0	1.267624E+0	1.243445E+0	1.300591E+0	1.291316E+0	1.208800E+0	1.262433E+0	1.276148E+0	1.290095E+0	1.283033E+0	1.192064E+0	1.241553E+0	1.260497E+0	1.266462E+0	1.226078E+0	1.303791E+0	1.264613E+0	1.263110E+0	1.304310E+0	1.314196E+0	1.280260E+0	1.206469E+0	1.270478E+0	1.230041E+0	1.262489E+0	1.244272E+0	1.271298E+0	1.258111E+0	1.303938E+0	1.282102E+0	1.229799E+0	1.232305E+0	1.276125E+0	1.276556E+0	1.309708E+0	1.328081E+0	1.334384E+0	1.303209E+0	1.233540E+0	1.197491E+0	1.300485E+0	1.207152E+0	1.269803E+0	1.247073E+0	1.237732E+0	1.171036E+0
5.535550E+2	1.251080E+0	1.200776E+0	1.220268E+0	1.263879E+0	1.208921E+0	1.226298E+0	1.231336E+0	1.269441E+0	1.214144E+0	1.182802E+0	1.246255E+0	1.188357E+0	1.186845E+0	1.221060E+0	1.215858E+0	1.204121E+0	1.211200E+0	1.174079E+0	1.182073E+0	1.203015E+0	1.220411E+0	1.178634E+0	1.193371E+0	1.183516E+0	1.250874E+0	1.226536E+0	1.236918E+0	1.220516E+0	1.221566E+0	1.214788E+0	1.186395E+0	1.207833E+0	1.202574E+0	1.193059E+0	1.184276E+0	1.168724E+0	1.185590E+0	1.208687E+0	1.256252E+0	1.183074E+0	1.185614E+0	1.242021E+0	1.231325E+0	1.190689E+0	1.173275E+0	1.256096E+0	1.211392E+0	1.209298E+0	1.214485E+0	1.224099E+0	1.232321E+0	1.219288E+0	1.230227E+0	1.172661E+0	1.191608E+0	1.232609E+0	1.229238E+0	1.241599E+0	1.200183E+0	1.170170E+0	1.227008E+0	1.185584E+0	1.186250E+0	1.243314E+0	1.207047E+0	1.275208E+0	1.212742E+0	1.227730E+0	1.205932E+0	1.175700E+0	1.225418E+0	1.215310E+0	1.171072E+0	1.173029E+0	1.217735E+0	1.213285E+0	1.265579E+0	1.199222E+0	1.226308E+0	1.159556E+0	1.184188E+0	1.186315E+0	1.186413E+0	1.258302E+0	1.167375E+0	1.225551E+0	1.184204E+0	1.298080E+0	1.293468E+0	1.134447E+0	1.215074E+0	1.199945E+0	1.201761E+0	1.208332E+0	1.260386E+0	1.189801E+0	1.246553E+0	1.186832E+0	1.208568E+0	1.226424E+0	1.167338E+0	1.228128E+0	1.242714E+0	1.173754E+0	1.200614E+0	1.118480E+0	1.157060E+0	1.210426E+0	1.248190E+0	1.222454E+0	1.225572E+0	1.167778E+0	1.250487E+0	1.184025E+0	1.184262E+0	1.205694E+0	1.204147E+0	1.176123E+0	1.192239E+0	1.207861E+0	1.250163E+0	1.205422E+0	1.224161E+0	1.176317E+0	1.277087E+0	1.219372E+0	1.235537E+0	1.213076E+0	1.231567E+0	1.183151E+0	1.212008E+0	1.203829E+0	1.199711E+0	1.169589E+0	1.201796E+0	1.217388E+0	1.192561E+0	1.162061E+0	1.195135E+0	1.244549E+0	1.247466E+0	1.176882E+0	1.219778E+0	1.171692E+0	1.228187E+0	1.212141E+0	1.260446E+0	1.238162E+0	1.219812E+0	1.246807E+0	1.218720E+0	1.235995E+0	1.261079E+0	1.250260E+0	1.219268E+0	1.191579E+0	1.166714E+0	1.222621E+0	1.193747E+0	1.208685E+0	1.252464E+0	1.203113E+0	1.233534E+0	1.187558E+0	1.230477E+0	1.116785E+0
5.542640E+2	1.230853E+0	1.155776E+0	1.166518E+0	1.177501E+0	1.100625E+0	1.151220E+0	1.166070E+0	1.206043E+0	1.123232E+0	1.117640E+0	1.144986E+0	1.192254E+0	1.088791E+0	1.128878E+0	1.140924E+0	1.154523E+0	1.199778E+0	1.084405E+0	1.121692E+0	1.165574E+0	1.126113E+0	1.158048E+0	1.165406E+0	1.132385E+0	1.167757E+0	1.159796E+0	1.139754E+0	1.166969E+0	1.118958E+0	1.146734E+0	1.162890E+0	1.131276E+0	1.143644E+0	1.139105E+0	1.131415E+0	1.174818E+0	1.131319E+0	1.111679E+0	1.148197E+0	1.161363E+0	1.130866E+0	1.144130E+0	1.147375E+0	1.129785E+0	1.154537E+0	1.104154E+0	1.115055E+0	1.099384E+0	1.117852E+0	1.158681E+0	1.127607E+0	1.120174E+0	1.152201E+0	1.131737E+0	1.158839E+0	1.253550E+0	1.123976E+0	1.132856E+0	1.125217E+0	1.120976E+0	1.114902E+0	1.193780E+0	1.133022E+0	1.166563E+0	1.159945E+0	1.229161E+0	1.119240E+0	1.138849E+0	1.115396E+0	1.192040E+0	1.156046E+0	1.214315E+0	1.152988E+0	1.117825E+0	1.170362E+0	1.190859E+0	1.134856E+0	1.138536E+0	1.146844E+0	1.139966E+0	1.168728E+0	1.132080E+0	1.129878E+0	1.120663E+0	1.150499E+0	1.147411E+0	1.121971E+0	1.177994E+0	1.142632E+0	1.153728E+0	1.171200E+0	1.123784E+0	1.159458E+0	1.142645E+0	1.094189E+0	1.144271E+0	1.204240E+0	1.102127E+0	1.121221E+0	1.147150E+0	1.125455E+0	1.160707E+0	1.116401E+0	1.107861E+0	1.111539E+0	1.103966E+0	1.104549E+0	1.142752E+0	1.231352E+0	1.105078E+0	1.149732E+0	1.191984E+0	1.139089E+0	1.109465E+0	1.114415E+0	1.172702E+0	1.163256E+0	1.146773E+0	1.129413E+0	1.193003E+0	1.164465E+0	1.153477E+0	1.143396E+0	1.111479E+0	1.201608E+0	1.160019E+0	1.109604E+0	1.136189E+0	1.204919E+0	1.112027E+0	1.123590E+0	1.099526E+0	1.162681E+0	1.097839E+0	1.076722E+0	1.127683E+0	1.151745E+0	1.119253E+0	1.137399E+0	1.111358E+0	1.164391E+0	1.115361E+0	1.110913E+0	1.162582E+0	1.150331E+0	1.204441E+0	1.108909E+0	1.141332E+0	1.139025E+0	1.133383E+0	1.128927E+0	1.177997E+0	1.147501E+0	1.162469E+0	1.123321E+0	1.152223E+0	1.208277E+0	1.138054E+0	1.114586E+0	1.105770E+0	1.163228E+0	1.120789E+0	1.107746E+0	1.144485E+0	1.070053E+0	1.100341E+0
5.550360E+2	1.012359E+0	1.087553E+0	1.073761E+0	1.054229E+0	1.073973E+0	1.066627E+0	1.071046E+0	1.063242E+0	1.028178E+0	1.045228E+0	1.054142E+0	1.060837E+0	1.029726E+0	1.058345E+0	1.043900E+0	1.042728E+0	9.985121E-1	1.052477E+0	1.079466E+0	1.015908E+0	1.038590E+0	1.031804E+0	1.007243E+0	1.085560E+0	1.066816E+0	1.054358E+0	1.046488E+0	1.000701E+0	1.097398E+0	1.071914E+0	1.069255E+0	1.030867E+0	1.066775E+0	1.045693E+0	1.045753E+0	1.003114E+0	1.023839E+0	1.026541E+0	1.040084E+0	1.042003E+0	1.076491E+0	1.014094E+0	1.061984E+0	1.031458E+0	1.045768E+0	1.109381E+0	9.942307E-1	1.035107E+0	1.030524E+0	1.051854E+0	1.005410E+0	1.057274E+0	1.060307E+0	1.047087E+0	1.035661E+0	1.066692E+0	1.036003E+0	1.049252E+0	1.042986E+0	1.041801E+0	1.062512E+0	1.038935E+0	9.905808E-1	1.060440E+0	1.087913E+0	1.066324E+0	1.044097E+0	1.044059E+0	1.055193E+0	1.110603E+0	1.077749E+0	1.074612E+0	1.047505E+0	1.016806E+0	1.034103E+0	1.019614E+0	1.027736E+0	1.016289E+0	1.058729E+0	1.056825E+0	1.072549E+0	1.074772E+0	1.024761E+0	1.023257E+0	1.055580E+0	1.131354E+0	1.038900E+0	1.079153E+0	1.071445E+0	1.061253E+0	1.041941E+0	1.064882E+0	1.073552E+0	9.862797E-1	1.016689E+0	9.996194E-1	1.068952E+0	1.006724E+0	1.058650E+0	1.026829E+0	1.044533E+0	1.061952E+0	1.041351E+0	1.041751E+0	1.003811E+0	1.035529E+0	9.684785E-1	1.081509E+0	1.027984E+0	1.036450E+0	1.058895E+0	1.072623E+0	1.073802E+0	1.093180E+0	1.060873E+0	1.044394E+0	1.025217E+0	1.044928E+0	1.062263E+0	1.074453E+0	1.068453E+0	1.111851E+0	1.068205E+0	1.022148E+0	1.081847E+0	1.021727E+0	1.050210E+0	1.059273E+0	1.003418E+0	1.004467E+0	1.051244E+0	9.859764E-1	9.954557E-1	1.063430E+0	1.067208E+0	1.096179E+0	1.016115E+0	1.044586E+0	9.949128E-1	1.099690E+0	1.104694E+0	1.002960E+0	1.032098E+0	1.009577E+0	1.045109E+0	1.049858E+0	1.068447E+0	1.038700E+0	1.096270E+0	9.951126E-1	1.082250E+0	1.020841E+0	1.036354E+0	1.075658E+0	1.027953E+0	1.017517E+0	1.048504E+0	1.028693E+0	1.029410E+0	1.038015E+0	1.116380E+0	1.048187E+0	1.109043E+0	1.025030E+0	1.070457E+0	1.000630E+0
5.557600E+2	9.852337E-1	9.715517E-1	9.179346E-1	9.486048E-1	9.792455E-1	9.823365E-1	9.609830E-1	9.668248E-1	9.687908E-1	9.686813E-1	9.422726E-1	9.430461E-1	9.933627E-1	9.780833E-1	9.934972E-1	9.640609E-1	9.548435E-1	1.013651E+0	9.709605E-1	9.750184E-1	9.604195E-1	9.582879E-1	9.823767E-1	9.797759E-1	9.574870E-1	9.823407E-1	9.846044E-1	9.246015E-1	1.038847E+0	9.547900E-1	9.391008E-1	9.372249E-1	9.790239E-1	9.950477E-1	9.716818E-1	9.277086E-1	1.014593E+0	9.922399E-1	9.496959E-1	9.549149E-1	9.945039E-1	9.731487E-1	9.568475E-1	9.475535E-1	9.433170E-1	1.002482E+0	9.908123E-1	9.846151E-1	9.885093E-1	9.668860E-1	9.305069E-1	9.471456E-1	1.013301E+0	9.729679E-1	9.882682E-1	9.815396E-1	9.716957E-1	9.616045E-1	9.754503E-1	9.936639E-1	9.515841E-1	9.575676E-1	9.778545E-1	9.851623E-1	9.881332E-1	9.975917E-1	1.040638E+0	1.020766E+0	9.792264E-1	9.764237E-1	9.871618E-1	1.024779E+0	9.820408E-1	9.845765E-1	9.849544E-1	9.535257E-1	9.556101E-1	9.391947E-1	9.951392E-1	9.814507E-1	1.012356E+0	9.805607E-1	9.841805E-1	9.549922E-1	9.975365E-1	9.615472E-1	9.583393E-1	9.603369E-1	9.500056E-1	9.837984E-1	9.461481E-1	9.640634E-1	1.016785E+0	9.712482E-1	9.321953E-1	9.284521E-1	9.827832E-1	9.665506E-1	9.674695E-1	9.640523E-1	9.764135E-1	1.011340E+0	9.868355E-1	9.344792E-1	9.520216E-1	9.685970E-1	9.781861E-1	9.853600E-1	9.887597E-1	1.007392E+0	9.918321E-1	9.679874E-1	9.720900E-1	9.819441E-1	1.009780E+0	9.577483E-1	9.432848E-1	9.605009E-1	9.879874E-1	1.030143E+0	1.000317E+0	9.766650E-1	1.025372E+0	9.869810E-1	9.702408E-1	9.789582E-1	1.001851E+0	9.786956E-1	9.565888E-1	9.512189E-1	9.681508E-1	9.899746E-1	9.863184E-1	9.786549E-1	9.694244E-1	1.051413E+0	1.025297E+0	9.767631E-1	9.553102E-1	1.024000E+0	1.008514E+0	9.976702E-1	9.915920E-1	9.651754E-1	1.007663E+0	1.001416E+0	9.941160E-1	9.759620E-1	9.879294E-1	9.828308E-1	1.012400E+0	9.962241E-1	1.017827E+0	9.987771E-1	9.818695E-1	1.002096E+0	1.018005E+0	1.007103E+0	9.856751E-1	9.347896E-1	9.491024E-1	9.783912E-1	9.290920E-1	9.930221E-1	9.473035E-1	9.257306E-1
5.560190E+2	9.932936E-1	9.723228E-1	1.000451E+0	9.718520E-1	9.780640E-1	9.650296E-1	9.445025E-1	9.567936E-1	9.761382E-1	1.018443E+0	9.057039E-1	9.292724E-1	9.416813E-1	1.020339E+0	9.682366E-1	9.499925E-1	1.017688E+0	9.952445E-1	9.511932E-1	9.721108E-1	1.017746E+0	9.521975E-1	1.009163E+0	9.570103E-1	9.558689E-1	9.765507E-1	9.739548E-1	9.756810E-1	9.521200E-1	9.974772E-1	9.811218E-1	9.656111E-1	9.680366E-1	9.961889E-1	9.710909E-1	9.799783E-1	9.605778E-1	9.220240E-1	9.946166E-1	1.007131E+0	9.326289E-1	9.855329E-1	9.706134E-1	9.697167E-1	9.397005E-1	9.883555E-1	9.366238E-1	9.627246E-1	9.772868E-1	1.016396E+0	9.617193E-1	1.007146E+0	9.892924E-1	9.336842E-1	9.544850E-1	9.289359E-1	9.819637E-1	1.016077E+0	1.001581E+0	9.708768E-1	1.020142E+0	9.784759E-1	9.567790E-1	9.919963E-1	9.728540E-1	9.861444E-1	9.971641E-1	1.014595E+0	9.255327E-1	9.418564E-1	9.726645E-1	9.903328E-1	9.798067E-1	9.606875E-1	9.839782E-1	9.731644E-1	9.539632E-1	9.794375E-1	9.985697E-1	9.628310E-1	1.004180E+0	9.317496E-1	1.004100E+0	9.159623E-1	9.461932E-1	1.003757E+0	9.816300E-1	9.507131E-1	9.852971E-1	9.719960E-1	1.008863E+0	9.320453E-1	1.013703E+0	1.002941E+0	9.711461E-1	9.733821E-1	9.890787E-1	9.490148E-1	9.340350E-1	9.980565E-1	9.774537E-1	9.391858E-1	9.635064E-1	9.188091E-1	9.137263E-1	9.955642E-1	9.803996E-1	9.845111E-1	9.526915E-1	9.690111E-1	9.910335E-1	9.886854E-1	9.545447E-1	9.528153E-1	9.784246E-1	9.507232E-1	9.620765E-1	9.608453E-1	9.856148E-1	9.704124E-1	9.316499E-1	1.028429E+0	9.343088E-1	9.529717E-1	1.016487E+0	9.645777E-1	1.002709E+0	9.515985E-1	9.533041E-1	9.775926E-1	9.662119E-1	9.388433E-1	9.632604E-1	9.834692E-1	9.624836E-1	9.827056E-1	9.744157E-1	9.323179E-1	9.809198E-1	9.997225E-1	9.610791E-1	9.495111E-1	9.277105E-1	9.756974E-1	1.000002E+0	9.614679E-1	9.966139E-1	9.714371E-1	9.844939E-1	9.823081E-1	9.867602E-1	1.007201E+0	9.843750E-1	9.566243E-1	9.800820E-1	9.471327E-1	9.921532E-1	9.176082E-1	1.008165E+0	9.401243E-1	9.572092E-1	1.007972E+0	9.814997E-1	9.689385E-1	9.270080E-1	9.088922E-1
5.565030E+2	9.579593E-1	9.608381E-1	1.023836E+0	1.005785E+0	9.460265E-1	9.352351E-1	1.016433E+0	9.622198E-1	9.929416E-1	9.563070E-1	9.492678E-1	9.995393E-1	9.732780E-1	9.530661E-1	9.688357E-1	9.520669E-1	9.437311E-1	9.751809E-1	9.652546E-1	9.560839E-1	9.569387E-1	9.845173E-1	1.007155E+0	9.767537E-1	9.253574E-1	9.866187E-1	9.665705E-1	9.577975E-1	9.971051E-1	9.866504E-1	9.720985E-1	9.397190E-1	9.771747E-1	1.015001E+0	9.949801E-1	9.711509E-1	9.995709E-1	9.614617E-1	9.979869E-1	9.782012E-1	9.605001E-1	9.757395E-1	9.683757E-1	9.533912E-1	9.806502E-1	9.809640E-1	9.746557E-1	9.835320E-1	9.776437E-1	9.958048E-1	9.742013E-1	9.548004E-1	9.985490E-1	9.992801E-1	9.696810E-1	9.723748E-1	9.792990E-1	9.696831E-1	9.824498E-1	9.957405E-1	9.780001E-1	9.891555E-1	1.006758E+0	9.352310E-1	9.420994E-1	9.923536E-1	9.742166E-1	9.871923E-1	9.600543E-1	9.828856E-1	9.801707E-1	1.007307E+0	9.654680E-1	9.539972E-1	9.750345E-1	9.745881E-1	9.668812E-1	9.776894E-1	9.935152E-1	9.623234E-1	1.035662E+0	9.976920E-1	9.760166E-1	9.736916E-1	9.706605E-1	9.635591E-1	9.914933E-1	9.839862E-1	9.749229E-1	1.006845E+0	9.533261E-1	9.497764E-1	9.456873E-1	9.423634E-1	9.619126E-1	9.690891E-1	9.731454E-1	9.690395E-1	9.963502E-1	1.007019E+0	9.785471E-1	9.799543E-1	9.602688E-1	1.013886E+0	9.816828E-1	9.680863E-1	9.866465E-1	9.478282E-1	9.768184E-1	9.517458E-1	9.920630E-1	9.677051E-1	9.615831E-1	9.660509E-1	9.646412E-1	9.772447E-1	9.536200E-1	9.781583E-1	9.809947E-1	9.772476E-1	1.014081E+0	9.963706E-1	1.005320E+0	9.940244E-1	9.813170E-1	1.020435E+0	9.306580E-1	1.033330E+0	1.009468E+0	9.723656E-1	9.712062E-1	9.358258E-1	1.001253E+0	9.867043E-1	9.932829E-1	1.004817E+0	9.364939E-1	1.001708E+0	1.008915E+0	9.720339E-1	9.950144E-1	9.613238E-1	9.774096E-1	9.742935E-1	9.915936E-1	9.419561E-1	9.762027E-1	9.803075E-1	9.615082E-1	1.022685E+0	9.888912E-1	9.750855E-1	1.020267E+0	9.449352E-1	9.639280E-1	1.009734E+0	1.019120E+0	9.727904E-1	9.846324E-1	9.813357E-1	9.936105E-1	9.601300E-1	1.001110E+0	9.632315E-1	9.660643E-1	9.544418E-1
5.570440E+2	1.042210E+0	9.538903E-1	9.480048E-1	9.635327E-1	9.709623E-1	9.904621E-1	9.953211E-1	9.738041E-1	9.937701E-1	9.805598E-1	9.602638E-1	1.000720E+0	9.991874E-1	9.737062E-1	9.841071E-1	1.000852E+0	9.884363E-1	1.005404E+0	9.841379E-1	1.035280E+0	9.546640E-1	9.923709E-1	9.908309E-1	9.820629E-1	9.858340E-1	9.890643E-1	9.690502E-1	9.703329E-1	9.916505E-1	9.999804E-1	1.006282E+0	9.926447E-1	1.014824E+0	9.764812E-1	1.007287E+0	9.951805E-1	9.644695E-1	1.007228E+0	9.594948E-1	9.739795E-1	9.284414E-1	9.982054E-1	9.821796E-1	9.945597E-1	9.679428E-1	9.754981E-1	9.544236E-1	9.921205E-1	9.448664E-1	1.038498E+0	9.920336E-1	1.015894E+0	9.781800E-1	9.721958E-1	9.687977E-1	9.988562E-1	9.617910E-1	9.385947E-1	9.368132E-1	9.835592E-1	9.825821E-1	9.880646E-1	9.756202E-1	1.012717E+0	9.808547E-1	9.892967E-1	9.543471E-1	9.911583E-1	9.614613E-1	9.705150E-1	9.905919E-1	9.855597E-1	1.006377E+0	9.152997E-1	9.713060E-1	9.258988E-1	9.722720E-1	9.731447E-1	9.943117E-1	1.004139E+0	1.016164E+0	9.752542E-1	9.728491E-1	9.964982E-1	9.665986E-1	9.700296E-1	9.951880E-1	1.024767E+0	9.608061E-1	9.921237E-1	9.844707E-1	9.987387E-1	1.017136E+0	9.951752E-1	9.574756E-1	1.014352E+0	9.600073E-1	9.414980E-1	9.890389E-1	9.906356E-1	9.750791E-1	9.895498E-1	1.011547E+0	9.885148E-1	9.543526E-1	1.015793E+0	9.440735E-1	9.981716E-1	1.008596E+0	9.585220E-1	9.505743E-1	9.809216E-1	9.491676E-1	9.573431E-1	9.229225E-1	1.026706E+0	9.840045E-1	1.000754E+0	9.965337E-1	9.949283E-1	9.541237E-1	1.033580E+0	9.727457E-1	9.750018E-1	9.671815E-1	9.450725E-1	9.583062E-1	1.042811E+0	9.968161E-1	1.000910E+0	9.962486E-1	9.196455E-1	9.361196E-1	1.000289E+0	9.737923E-1	9.931128E-1	9.609302E-1	9.940652E-1	1.005275E+0	9.715754E-1	9.712155E-1	9.990694E-1	9.667425E-1	9.944837E-1	1.028749E+0	9.794475E-1	9.569166E-1	9.853138E-1	9.391623E-1	9.922852E-1	1.004912E+0	1.026154E+0	9.890300E-1	9.459734E-1	1.028044E+0	9.649696E-1	9.957662E-1	1.011502E+0	9.642871E-1	9.445817E-1	9.812612E-1	9.967811E-1	1.022658E+0	1.011901E+0	9.341829E-1	1.007603E+0
5.575190E+2	9.908498E-1	1.003900E+0	1.044484E+0	9.730944E-1	9.941736E-1	9.793309E-1	1.020963E+0	1.019277E+0	9.923823E-1	9.624197E-1	1.032958E+0	1.022005E+0	1.015771E+0	9.899952E-1	9.922852E-1	9.615086E-1	9.651831E-1	9.902079E-1	9.346827E-1	9.480921E-1	9.948035E-1	1.009610E+0	1.028154E+0	9.855534E-1	9.700378E-1	9.825263E-1	9.858966E-1	9.962901E-1	9.404535E-1	1.009986E+0	9.885052E-1	9.709470E-1	9.456261E-1	9.684780E-1	9.584079E-1	9.850124E-1	9.479217E-1	9.679079E-1	9.750761E-1	9.590922E-1	9.760200E-1	9.891546E-1	9.892233E-1	1.001401E+0	9.898095E-1	1.022602E+0	9.954360E-1	9.991836E-1	9.752623E-1	9.940730E-1	9.550321E-1	9.815389E-1	9.578489E-1	1.000772E+0	9.831520E-1	9.674988E-1	9.881308E-1	9.728170E-1	1.002306E+0	9.903249E-1	1.007548E+0	9.589675E-1	9.911100E-1	1.014518E+0	9.673520E-1	9.608809E-1	1.003855E+0	9.688461E-1	1.010981E+0	9.593563E-1	1.005618E+0	9.565628E-1	9.657893E-1	1.041263E+0	9.592834E-1	9.989596E-1	9.655040E-1	1.017108E+0	9.824836E-1	9.815841E-1	1.003315E+0	9.920660E-1	9.897755E-1	9.490535E-1	9.782240E-1	9.734496E-1	1.018215E+0	9.599262E-1	9.906582E-1	9.709234E-1	9.637956E-1	1.018402E+0	9.422719E-1	9.833865E-1	9.969686E-1	9.973607E-1	1.000496E+0	9.930358E-1	9.626844E-1	9.269918E-1	9.959905E-1	9.677356E-1	9.968097E-1	9.751672E-1	9.656835E-1	9.812592E-1	1.023905E+0	9.423070E-1	1.019713E+0	9.900270E-1	9.672333E-1	9.866682E-1	1.034430E+0	9.690902E-1	9.583252E-1	9.851890E-1	9.944359E-1	1.013064E+0	9.906321E-1	9.729656E-1	9.767853E-1	9.333921E-1	9.723192E-1	9.734790E-1	9.790884E-1	9.662730E-1	1.018206E+0	9.586810E-1	9.807674E-1	9.671653E-1	9.803101E-1	1.056131E+0	9.818242E-1	9.898512E-1	9.625921E-1	9.973955E-1	9.879382E-1	9.877628E-1	9.782033E-1	9.336633E-1	1.004359E+0	9.322986E-1	9.788254E-1	9.725023E-1	9.830099E-1	9.906098E-1	9.995325E-1	1.033070E+0	1.008758E+0	1.031650E+0	1.006445E+0	9.757119E-1	9.551464E-1	1.032535E+0	1.021074E+0	9.978955E-1	9.703231E-1	9.943415E-1	1.000591E+0	9.632440E-1	9.849083E-1	9.954144E-1	1.012245E+0	9.518277E-1	9.916036E-1	9.076696E-1
5.580230E+2	9.813584E-1	1.005577E+0	9.621657E-1	1.033368E+0	9.773427E-1	1.015520E+0	9.141926E-1	9.993705E-1	1.014264E+0	1.006522E+0	1.019303E+0	9.964295E-1	1.009213E+0	1.003981E+0	1.028858E+0	1.040524E+0	1.020895E+0	1.017591E+0	1.050307E+0	9.905023E-1	1.014108E+0	1.010839E+0	9.702318E-1	9.935998E-1	1.014621E+0	1.014465E+0	1.014367E+0	1.029406E+0	1.021740E+0	1.026851E+0	9.921353E-1	9.967497E-1	1.013923E+0	1.037909E+0	1.006785E+0	1.036100E+0	1.026150E+0	9.976406E-1	9.415524E-1	1.016419E+0	9.634676E-1	1.012831E+0	1.026319E+0	9.977661E-1	1.012288E+0	1.033034E+0	1.007303E+0	9.868029E-1	9.748926E-1	1.019567E+0	1.047768E+0	9.885823E-1	1.027332E+0	1.018460E+0	9.889935E-1	9.923666E-1	1.024508E+0	1.072658E+0	1.037512E+0	1.006587E+0	1.019259E+0	1.022635E+0	1.008441E+0	1.008664E+0	1.031519E+0	9.886252E-1	1.019022E+0	1.008108E+0	9.753654E-1	1.004119E+0	1.036373E+0	9.828468E-1	9.950568E-1	9.913662E-1	1.019328E+0	1.063188E+0	1.003841E+0	9.606763E-1	1.000727E+0	1.010374E+0	9.966718E-1	1.064684E+0	1.012477E+0	9.802789E-1	1.023628E+0	1.030243E+0	1.042759E+0	9.624699E-1	1.002452E+0	1.059151E+0	1.003032E+0	9.877397E-1	1.030814E+0	1.025033E+0	1.009093E+0	9.690453E-1	9.977095E-1	9.911728E-1	1.019258E+0	1.052317E+0	1.020004E+0	9.637400E-1	9.992774E-1	1.028493E+0	1.020418E+0	9.911261E-1	9.922852E-1	1.030516E+0	1.042556E+0	9.828692E-1	1.004180E+0	1.042214E+0	1.021126E+0	1.015281E+0	1.007459E+0	9.993966E-1	9.957985E-1	9.743762E-1	9.744102E-1	1.024312E+0	1.004873E+0	1.025029E+0	1.028414E+0	1.021006E+0	9.903531E-1	9.794088E-1	9.983289E-1	9.985929E-1	9.423144E-1	1.043953E+0	1.008830E+0	9.761570E-1	1.015418E+0	9.955611E-1	1.032900E+0	9.644995E-1	1.002353E+0	1.036484E+0	9.761858E-1	1.012470E+0	9.994779E-1	1.035582E+0	9.442390E-1	1.010518E+0	9.906888E-1	1.014335E+0	9.797506E-1	1.046807E+0	1.064083E+0	1.022739E+0	9.451186E-1	1.009212E+0	9.978169E-1	9.878694E-1	1.000963E+0	9.871657E-1	9.826663E-1	9.646936E-1	1.006028E+0	9.672229E-1	1.038650E+0	1.025482E+0	1.022972E+0	1.054114E+0	9.801766E-1	1.013235E+0
5.585220E+2	1.021822E+0	9.951799E-1	9.800967E-1	1.016804E+0	1.040556E+0	1.026940E+0	1.034430E+0	1.045023E+0	1.016730E+0	1.037787E+0	1.003823E+0	1.021119E+0	1.011491E+0	9.806346E-1	9.540438E-1	1.019334E+0	1.058542E+0	1.020283E+0	1.028360E+0	1.019353E+0	9.746214E-1	9.893687E-1	9.581625E-1	1.035649E+0	1.042655E+0	1.015441E+0	1.030033E+0	1.000514E+0	1.048314E+0	9.769086E-1	1.003461E+0	1.023807E+0	1.010086E+0	1.014999E+0	1.060718E+0	1.008772E+0	9.958232E-1	1.066595E+0	1.018802E+0	9.920537E-1	1.037820E+0	9.830776E-1	9.942024E-1	1.053303E+0	1.028800E+0	1.012663E+0	1.004653E+0	1.011036E+0	9.735534E-1	9.508923E-1	1.037734E+0	1.021382E+0	1.011986E+0	1.064871E+0	1.014538E+0	9.752604E-1	1.047332E+0	1.023266E+0	1.012528E+0	1.006814E+0	1.013207E+0	1.002428E+0	1.013292E+0	9.584280E-1	9.768735E-1	1.055611E+0	1.008877E+0	1.017978E+0	1.004283E+0	1.074138E+0	9.949718E-1	1.007422E+0	1.023829E+0	1.030514E+0	1.044474E+0	9.877069E-1	1.034441E+0	9.938782E-1	9.901726E-1	9.838127E-1	9.750908E-1	9.673626E-1	9.812013E-1	1.020955E+0	1.011162E+0	1.036572E+0	9.905599E-1	9.758678E-1	1.011769E+0	1.019910E+0	9.904110E-1	1.000084E+0	1.012401E+0	9.927342E-1	1.062081E+0	9.981845E-1	1.008355E+0	9.928141E-1	9.854584E-1	1.008929E+0	1.023245E+0	9.987434E-1	9.945477E-1	1.039131E+0	9.651298E-1	1.022092E+0	1.037848E+0	1.022417E+0	1.024376E+0	9.992632E-1	1.027313E+0	9.961134E-1	1.018928E+0	1.019921E+0	1.019941E+0	1.003961E+0	1.006272E+0	9.872670E-1	9.724050E-1	1.009821E+0	1.056977E+0	1.003306E+0	1.024610E+0	1.017737E+0	1.010183E+0	1.001549E+0	1.024479E+0	9.899931E-1	9.930863E-1	1.010836E+0	1.012946E+0	1.017040E+0	1.011810E+0	1.012521E+0	1.016860E+0	9.785200E-1	1.025093E+0	9.599297E-1	9.708244E-1	1.005989E+0	1.033916E+0	1.032000E+0	1.010024E+0	1.022574E+0	1.008063E+0	1.041508E+0	1.018112E+0	1.009373E+0	9.816841E-1	9.728104E-1	1.000406E+0	1.011155E+0	1.004313E+0	9.912014E-1	1.001490E+0	9.697412E-1	1.003455E+0	1.035838E+0	1.020437E+0	1.000750E+0	9.852138E-1	9.820986E-1	1.037164E+0	1.041998E+0	9.882512E-1	9.752243E-1
5.590210E+2	9.944932E-1	1.023914E+0	9.989234E-1	9.874613E-1	9.610398E-1	1.016230E+0	9.690204E-1	9.798775E-1	9.975166E-1	9.841052E-1	9.726389E-1	9.462023E-1	1.047828E+0	1.028886E+0	9.905126E-1	1.019094E+0	1.010670E+0	1.003207E+0	1.038565E+0	1.032484E+0	9.938348E-1	9.785465E-1	1.003759E+0	1.003787E+0	9.661110E-1	1.005484E+0	1.000480E+0	9.357373E-1	1.010702E+0	9.934846E-1	9.693640E-1	1.008335E+0	9.767932E-1	1.019352E+0	9.701350E-1	9.651288E-1	9.764281E-1	9.766646E-1	9.931754E-1	1.007936E+0	1.016515E+0	9.619118E-1	1.015978E+0	9.914622E-1	9.999312E-1	1.004992E+0	1.004997E+0	1.017849E+0	1.039423E+0	1.001778E+0	9.800728E-1	1.004708E+0	9.964837E-1	9.531090E-1	9.950425E-1	1.015656E+0	9.654372E-1	9.833127E-1	1.029755E+0	9.749001E-1	1.009906E+0	9.976102E-1	9.800606E-1	1.005794E+0	1.015394E+0	9.954725E-1	1.035476E+0	1.030131E+0	9.860120E-1	9.784374E-1	9.956725E-1	9.979946E-1	1.004610E+0	1.003621E+0	1.009270E+0	9.996410E-1	1.020480E+0	1.015261E+0	9.655377E-1	1.019504E+0	9.527137E-1	9.397870E-1	9.718363E-1	1.026247E+0	9.931523E-1	9.530601E-1	1.019067E+0	9.868999E-1	1.012875E+0	9.766297E-1	1.051563E+0	1.018263E+0	9.910908E-1	9.756419E-1	9.557179E-1	1.000167E+0	1.015264E+0	9.816072E-1	1.029420E+0	1.018102E+0	9.776257E-1	1.015712E+0	9.879007E-1	9.879741E-1	1.004862E+0	1.006864E+0	9.807669E-1	1.009431E+0	9.417262E-1	9.906470E-1	1.003430E+0	1.026416E+0	1.013710E+0	9.939508E-1	9.850279E-1	9.768741E-1	9.941827E-1	9.740746E-1	1.012468E+0	1.028323E+0	9.529317E-1	1.010226E+0	1.002187E+0	9.570556E-1	1.040002E+0	1.001671E+0	1.035045E+0	9.948602E-1	9.729687E-1	9.863313E-1	1.014888E+0	1.001844E+0	1.023893E+0	1.027574E+0	9.631757E-1	1.013991E+0	9.620354E-1	1.004079E+0	9.796816E-1	9.993317E-1	1.026110E+0	9.528129E-1	1.062531E+0	9.658924E-1	1.025382E+0	9.479304E-1	9.533416E-1	9.907678E-1	9.667607E-1	9.832433E-1	9.964698E-1	9.390351E-1	1.006665E+0	1.044647E+0	9.567454E-1	9.981468E-1	1.015289E+0	1.006661E+0	9.969132E-1	1.007018E+0	1.006589E+0	1.054245E+0	9.709554E-1	9.844337E-1	1.057717E+0	1.052001E+0
5.595050E+2	9.556562E-1	1.008209E+0	1.011410E+0	9.674485E-1	1.004906E+0	1.026150E+0	1.012871E+0	1.048012E+0	9.762178E-1	9.903055E-1	9.836899E-1	1.022364E+0	9.565737E-1	1.001948E+0	1.038352E+0	1.006748E+0	1.016104E+0	9.871412E-1	9.710769E-1	9.954475E-1	1.032098E+0	1.006569E+0	9.877106E-1	9.930518E-1	1.032742E+0	9.708823E-1	9.720842E-1	1.012517E+0	9.935099E-1	9.915980E-1	9.915524E-1	1.012806E+0	9.692453E-1	9.620134E-1	1.007179E+0	9.869775E-1	1.025757E+0	1.007861E+0	1.012350E+0	9.991678E-1	9.797333E-1	1.050419E+0	1.005706E+0	1.012909E+0	9.920843E-1	9.742883E-1	1.013300E+0	9.902982E-1	9.889018E-1	1.016588E+0	9.593601E-1	9.958381E-1	1.031549E+0	9.705083E-1	1.047327E+0	9.999737E-1	9.697198E-1	9.910876E-1	9.787869E-1	9.940405E-1	9.813424E-1	1.033028E+0	9.739800E-1	9.754102E-1	1.026055E+0	9.725679E-1	9.729638E-1	9.846131E-1	9.860783E-1	1.051897E+0	9.660850E-1	9.890320E-1	9.826703E-1	9.773095E-1	9.831769E-1	9.935156E-1	9.862628E-1	9.885852E-1	1.018015E+0	9.952305E-1	1.007966E+0	1.011550E+0	1.024682E+0	1.013124E+0	1.006072E+0	1.013082E+0	9.687865E-1	1.031347E+0	9.929682E-1	9.947484E-1	1.010726E+0	9.591570E-1	9.697686E-1	9.726848E-1	9.593744E-1	1.000040E+0	9.716076E-1	1.015064E+0	9.547130E-1	9.893816E-1	1.011280E+0	9.959817E-1	1.015298E+0	9.823805E-1	9.748931E-1	9.923932E-1	1.008554E+0	9.979106E-1	1.025822E+0	1.000728E+0	1.017004E+0	9.844776E-1	9.699141E-1	9.987487E-1	1.047415E+0	1.001560E+0	1.011255E+0	9.924614E-1	9.726201E-1	9.531028E-1	9.845601E-1	9.555255E-1	9.754165E-1	9.789296E-1	9.945434E-1	1.023981E+0	9.348149E-1	9.795632E-1	9.979627E-1	9.739657E-1	9.881989E-1	1.007430E+0	9.955802E-1	9.781008E-1	9.764067E-1	9.929871E-1	1.025477E+0	1.023947E+0	9.885013E-1	1.004429E+0	1.001771E+0	9.864970E-1	1.020150E+0	1.024830E+0	9.580272E-1	9.816684E-1	9.927415E-1	1.010351E+0	9.784814E-1	9.904879E-1	1.002613E+0	1.002707E+0	9.827342E-1	1.015528E+0	9.375837E-1	1.014752E+0	1.007902E+0	9.646126E-1	1.023010E+0	9.941498E-1	1.000469E+0	1.003539E+0	9.796168E-1	1.002416E+0	1.002136E+0	9.743180E-1
5.600410E+2	9.670057E-1	9.879092E-1	9.747431E-1	9.549072E-1	1.004428E+0	1.010181E+0	9.905771E-1	9.814584E-1	9.738162E-1	1.036570E+0	1.044235E+0	9.614928E-1	9.789266E-1	1.006952E+0	1.011449E+0	9.866563E-1	9.826476E-1	9.993875E-1	1.014329E+0	1.035582E+0	1.019068E+0	9.796879E-1	1.006044E+0	1.010743E+0	9.980245E-1	9.872459E-1	9.836600E-1	1.018422E+0	9.989259E-1	9.997640E-1	1.012162E+0	1.017689E+0	1.042927E+0	9.925059E-1	9.843912E-1	1.000585E+0	1.012089E+0	1.005135E+0	1.041583E+0	1.013830E+0	1.049132E+0	9.831848E-1	1.018045E+0	9.813305E-1	9.851911E-1	1.008753E+0	9.827980E-1	9.564635E-1	1.009958E+0	9.263500E-1	1.002137E+0	1.002070E+0	9.877446E-1	9.864678E-1	1.002618E+0	1.049218E+0	9.912970E-1	9.637995E-1	1.001212E+0	1.022707E+0	9.473415E-1	9.811214E-1	9.821149E-1	1.022107E+0	9.921848E-1	1.018136E+0	1.009644E+0	9.914812E-1	1.042205E+0	9.528730E-1	9.753672E-1	1.014906E+0	9.914807E-1	9.993010E-1	1.021807E+0	9.945638E-1	9.843590E-1	1.004924E+0	9.560187E-1	9.913770E-1	9.869670E-1	1.001739E+0	9.715158E-1	1.000744E+0	1.008249E+0	9.841288E-1	9.495323E-1	1.019029E+0	1.027884E+0	1.002912E+0	1.041836E+0	1.004355E+0	1.034295E+0	1.054405E+0	1.009236E+0	9.960709E-1	1.031979E+0	1.014496E+0	1.026832E+0	9.996533E-1	9.734582E-1	1.042194E+0	9.545943E-1	9.830352E-1	1.024773E+0	1.014492E+0	1.020905E+0	1.009373E+0	9.817235E-1	1.066078E+0	1.023621E+0	9.921579E-1	1.011846E+0	1.020192E+0	9.840717E-1	9.732635E-1	1.009664E+0	1.023716E+0	1.014465E+0	1.010520E+0	1.019122E+0	9.796465E-1	1.006380E+0	1.021956E+0	1.012622E+0	1.033013E+0	1.056427E+0	9.940151E-1	1.012915E+0	9.885741E-1	9.877676E-1	1.022621E+0	9.934009E-1	1.007286E+0	9.820645E-1	9.748445E-1	1.002659E+0	9.925473E-1	1.044440E+0	9.919323E-1	9.728677E-1	1.018634E+0	9.609306E-1	1.008518E+0	1.007267E+0	1.055997E+0	1.028752E+0	9.598628E-1	1.019985E+0	9.668874E-1	1.042995E+0	1.022239E+0	9.975385E-1	1.030573E+0	1.013055E+0	1.026027E+0	9.720602E-1	1.019896E+0	1.004057E+0	1.006438E+0	1.025940E+0	9.413824E-1	9.459836E-1	9.719584E-1	1.026124E+0	1.075298E+0
5.604980E+2	1.011040E+0	1.059110E+0	1.050920E+0	1.080337E+0	1.065687E+0	1.028055E+0	1.046869E+0	1.022227E+0	1.067935E+0	1.021318E+0	1.025749E+0	1.020813E+0	1.011222E+0	1.016700E+0	1.049827E+0	9.945062E-1	1.011439E+0	9.802728E-1	1.010059E+0	1.000226E+0	1.025535E+0	1.000766E+0	1.019884E+0	9.802344E-1	1.028974E+0	1.047844E+0	1.021543E+0	1.028570E+0	1.009114E+0	9.929370E-1	1.022199E+0	1.028561E+0	1.033459E+0	9.932604E-1	9.736158E-1	1.018266E+0	1.053595E+0	9.991713E-1	1.039741E+0	1.035940E+0	1.007945E+0	1.060758E+0	9.802065E-1	9.990324E-1	1.024235E+0	9.764861E-1	1.015773E+0	1.040447E+0	1.079956E+0	1.023042E+0	1.013537E+0	1.021297E+0	1.018552E+0	1.022118E+0	1.038500E+0	1.001983E+0	1.034949E+0	1.051549E+0	9.952087E-1	9.952199E-1	1.051308E+0	1.034943E+0	1.004369E+0	1.022941E+0	1.028167E+0	1.028607E+0	1.010348E+0	1.040725E+0	1.055559E+0	9.945087E-1	1.044619E+0	1.025646E+0	1.043372E+0	1.022311E+0	9.918838E-1	1.034464E+0	1.024097E+0	1.030883E+0	1.043829E+0	1.004079E+0	1.009176E+0	1.031537E+0	1.049064E+0	9.987836E-1	9.968005E-1	1.020690E+0	1.021842E+0	1.051393E+0	1.019499E+0	9.820000E-1	1.018008E+0	1.029754E+0	1.027280E+0	9.955314E-1	1.048161E+0	1.016022E+0	1.053099E+0	1.046910E+0	1.004891E+0	9.898079E-1	1.049586E+0	1.048597E+0	1.029463E+0	1.001930E+0	1.035908E+0	9.861125E-1	1.036884E+0	1.000435E+0	9.709381E-1	1.028003E+0	9.546510E-1	9.916960E-1	1.004341E+0	1.016796E+0	1.061161E+0	1.078972E+0	1.060308E+0	1.021799E+0	1.075505E+0	1.028443E+0	1.050328E+0	1.034371E+0	9.962037E-1	9.705257E-1	9.855169E-1	1.018539E+0	1.031684E+0	1.006449E+0	1.053223E+0	1.005242E+0	1.017258E+0	1.026810E+0	1.023466E+0	1.022089E+0	1.070872E+0	1.044784E+0	1.055641E+0	1.002833E+0	9.973932E-1	1.055286E+0	1.002932E+0	1.008374E+0	1.028305E+0	1.029821E+0	1.030131E+0	1.032279E+0	1.027585E+0	1.020798E+0	1.069245E+0	9.882386E-1	9.796850E-1	9.908745E-1	1.019348E+0	9.917382E-1	1.014699E+0	9.897613E-1	1.021980E+0	1.016006E+0	9.804829E-1	1.037939E+0	1.005370E+0	1.011388E+0	1.010615E+0	1.020977E+0	1.021120E+0	9.760524E-1
5.610070E+2	1.077605E+0	1.001472E+0	1.005417E+0	1.017262E+0	1.034879E+0	9.718962E-1	9.993231E-1	9.687309E-1	9.744269E-1	1.024106E+0	1.008071E+0	1.009315E+0	9.965092E-1	1.044131E+0	9.817299E-1	1.018710E+0	1.002352E+0	1.021324E+0	1.003229E+0	9.869490E-1	1.034329E+0	1.047725E+0	1.028068E+0	1.038565E+0	1.035643E+0	1.000428E+0	1.056315E+0	1.050413E+0	9.884856E-1	1.021841E+0	1.042240E+0	1.008741E+0	1.015942E+0	1.020001E+0	1.036501E+0	1.032827E+0	9.981966E-1	1.010335E+0	1.020238E+0	1.023380E+0	1.080426E+0	9.847190E-1	1.019764E+0	1.014844E+0	1.019068E+0	1.010718E+0	1.046660E+0	1.022268E+0	1.035543E+0	1.033407E+0	1.038123E+0	1.013889E+0	9.917740E-1	1.012218E+0	9.913502E-1	1.026813E+0	1.037536E+0	1.033232E+0	1.023428E+0	1.030106E+0	1.009506E+0	9.920465E-1	1.064254E+0	1.044189E+0	1.039500E+0	9.984489E-1	1.011251E+0	9.797680E-1	1.018001E+0	1.031270E+0	1.010531E+0	1.032723E+0	1.021347E+0	1.065017E+0	1.024437E+0	1.027475E+0	1.041862E+0	1.037850E+0	1.055389E+0	1.047576E+0	1.016274E+0	1.018328E+0	1.050582E+0	1.040623E+0	1.045453E+0	1.055186E+0	1.002556E+0	1.004315E+0	1.006165E+0	9.947562E-1	9.828327E-1	1.033729E+0	1.029255E+0	1.063045E+0	1.039981E+0	1.039669E+0	9.883361E-1	1.054362E+0	1.031354E+0	1.017163E+0	9.951844E-1	9.977923E-1	1.050294E+0	9.994891E-1	1.072298E+0	1.021781E+0	9.681316E-1	1.041610E+0	1.007732E+0	1.032117E+0	1.059931E+0	1.031631E+0	1.014955E+0	1.042626E+0	1.049035E+0	9.768324E-1	9.904597E-1	1.034330E+0	1.009967E+0	1.000335E+0	9.862174E-1	1.028554E+0	1.016404E+0	1.090285E+0	1.039193E+0	1.010058E+0	1.012052E+0	1.001705E+0	1.040478E+0	1.050658E+0	1.022347E+0	1.036496E+0	1.017235E+0	9.800231E-1	1.028054E+0	1.035049E+0	1.041379E+0	9.966449E-1	1.050580E+0	1.053289E+0	9.923350E-1	1.073409E+0	1.050844E+0	9.965660E-1	9.770890E-1	1.014269E+0	1.067066E+0	9.633483E-1	1.010332E+0	1.028974E+0	1.032463E+0	1.047826E+0	1.027141E+0	1.014999E+0	1.062418E+0	1.041807E+0	1.011438E+0	1.013658E+0	1.019562E+0	1.097321E+0	9.779884E-1	1.029539E+0	9.966796E-1	9.971432E-1	1.032624E+0	1.064158E+0
